time/ms;Fluo/V;P700 deltaI/I x10³;
-199.8000;0.6300;-0.1919;
-199.5000;0.6341;-0.1895;
-199.2000;0.6300;-0.1919;
-198.9000;0.6292;-0.1895;
-198.6000;0.6309;-0.1943;
-198.3000;0.6357;-0.1919;
-198.0000;0.6317;-0.2038;
-197.7000;0.6309;-0.2038;
-197.4000;0.6317;-0.2014;
-197.1000;0.6292;-0.1967;
-196.8000;0.6317;-0.1990;
-196.5000;0.6325;-0.1967;
-196.2000;0.6325;-0.2014;
-195.9000;0.6317;-0.2038;
-195.6000;0.6292;-0.2085;
-195.3000;0.6300;-0.2085;
-195.0000;0.6325;-0.2038;
-194.7000;0.6243;-0.2132;
-194.4000;0.6300;-0.1895;
-194.1000;0.6268;-0.1919;
-193.8000;0.6276;-0.1895;
-193.5000;0.6309;-0.1753;
-193.2000;0.6317;-0.1659;
-192.9000;0.6292;-0.1730;
-192.6000;0.6309;-0.1730;
-192.3000;0.6325;-0.1730;
-192.0000;0.6300;-0.1848;
-191.7000;0.6317;-0.1872;
-191.4000;0.6317;-0.1895;
-191.1000;0.6292;-0.1895;
-190.8000;0.6300;-0.1872;
-190.5000;0.6333;-0.1801;
-190.2000;0.6235;-0.2061;
-189.9000;0.6300;-0.1895;
-189.6000;0.6292;-0.1872;
-189.3000;0.6292;-0.1919;
-189.0000;0.6309;-0.1872;
-188.7000;0.6325;-0.1919;
-188.4000;0.6292;-0.1967;
-188.1000;0.6300;-0.1967;
-187.8000;0.6309;-0.2085;
-187.5000;0.6309;-0.2014;
-187.2000;0.6300;-0.2014;
-186.9000;0.6309;-0.1967;
-186.6000;0.6309;-0.1919;
-186.3000;0.6317;-0.1919;
-186.0000;0.6317;-0.1919;
-185.7000;0.6260;-0.2014;
-185.4000;0.6333;-0.1943;
-185.1000;0.6292;-0.1967;
-184.8000;0.6309;-0.1967;
-184.5000;0.6284;-0.1872;
-184.2000;0.6317;-0.1753;
-183.9000;0.6309;-0.1777;
-183.6000;0.6300;-0.1753;
-183.3000;0.6317;-0.1801;
-183.0000;0.6300;-0.1801;
-182.7000;0.6300;-0.1801;
-182.4000;0.6325;-0.1824;
-182.1000;0.6333;-0.1967;
-181.8000;0.6309;-0.2085;
-181.5000;0.6317;-0.2038;
-181.2000;0.6325;-0.1990;
-180.9000;0.6300;-0.2085;
-180.6000;0.6309;-0.2014;
-180.3000;0.6292;-0.1895;
-180.0000;0.6292;-0.1872;
-179.7000;0.6309;-0.1967;
-179.4000;0.6317;-0.1848;
-179.1000;0.6317;-0.1801;
-178.8000;0.6309;-0.1872;
-178.5000;0.6333;-0.1848;
-178.2000;0.6317;-0.1872;
-177.9000;0.6300;-0.1848;
-177.6000;0.6252;-0.1967;
-177.3000;0.6317;-0.1872;
-177.0000;0.6317;-0.1848;
-176.7000;0.6309;-0.1848;
-176.4000;0.6309;-0.1730;
-176.1000;0.6292;-0.1777;
-175.8000;0.6317;-0.1730;
-175.5000;0.6317;-0.1706;
-175.2000;0.6325;-0.1777;
-174.9000;0.6309;-0.1848;
-174.6000;0.6309;-0.1824;
-174.3000;0.6309;-0.1895;
-174.0000;0.6300;-0.1895;
-173.7000;0.6292;-0.1848;
-173.4000;0.6284;-0.1848;
-173.1000;0.6317;-0.1801;
-172.8000;0.6292;-0.1824;
-172.5000;0.6300;-0.1730;
-172.2000;0.6284;-0.1753;
-171.9000;0.6317;-0.1730;
-171.6000;0.6309;-0.1801;
-171.3000;0.6292;-0.1801;
-171.0000;0.6300;-0.1753;
-170.7000;0.6309;-0.1753;
-170.4000;0.6317;-0.1824;
-170.1000;0.6300;-0.1730;
-169.8000;0.6284;-0.1777;
-169.5000;0.6317;-0.1801;
-169.2000;0.6309;-0.1848;
-168.9000;0.6292;-0.1872;
-168.6000;0.6276;-0.1919;
-168.3000;0.6252;-0.2014;
-168.0000;0.6317;-0.1801;
-167.7000;0.6284;-0.1777;
-167.4000;0.6300;-0.1777;
-167.1000;0.6300;-0.1753;
-166.8000;0.6300;-0.1659;
-166.5000;0.6317;-0.1777;
-166.2000;0.6300;-0.1730;
-165.9000;0.6309;-0.1706;
-165.6000;0.6317;-0.1659;
-165.3000;0.6325;-0.1682;
-165.0000;0.6333;-0.1706;
-164.7000;0.6325;-0.1635;
-164.4000;0.6284;-0.1730;
-164.1000;0.6284;-0.1753;
-163.8000;0.6300;-0.1777;
-163.5000;0.6276;-0.1730;
-163.2000;0.6292;-0.1753;
-162.9000;0.6309;-0.1753;
-162.6000;0.6292;-0.1777;
-162.3000;0.6325;-0.1659;
-162.0000;0.6284;-0.1801;
-161.7000;0.6300;-0.1824;
-161.4000;0.6341;-0.1706;
-161.1000;0.6325;-0.1777;
-160.8000;0.6309;-0.1801;
-160.5000;0.6317;-0.1824;
-160.2000;0.6252;-0.1967;
-159.9000;0.6341;-0.1730;
-159.6000;0.6357;-0.1730;
-159.3000;0.6317;-0.1777;
-159.0000;0.6325;-0.1824;
-158.7000;0.6325;-0.1919;
-158.4000;0.6300;-0.1895;
-158.1000;0.6309;-0.1919;
-157.8000;0.6300;-0.1872;
-157.5000;0.6439;-0.1564;
-157.2000;0.6284;-0.1919;
-156.9000;0.6276;-0.1848;
-156.6000;0.6276;-0.1824;
-156.3000;0.6300;-0.1872;
-156.0000;0.6268;-0.1895;
-155.7000;0.6309;-0.1777;
-155.4000;0.6252;-0.1872;
-155.1000;0.6284;-0.1777;
-154.8000;0.6300;-0.1753;
-154.5000;0.6333;-0.1659;
-154.2000;0.6341;-0.1635;
-153.9000;0.6300;-0.1706;
-153.6000;0.6325;-0.1682;
-153.3000;0.6309;-0.1777;
-153.0000;0.6300;-0.1753;
-152.7000;0.6309;-0.1801;
-152.4000;0.6317;-0.1824;
-152.1000;0.6292;-0.1801;
-151.8000;0.6365;-0.1659;
-151.5000;0.6300;-0.1848;
-151.2000;0.6325;-0.1824;
-150.9000;0.6300;-0.1872;
-150.6000;0.6292;-0.1895;
-150.3000;0.6325;-0.1943;
-150.0000;0.6349;-0.2014;
-149.7000;0.6309;-0.2014;
-149.4000;0.6325;-0.2014;
-149.1000;0.6276;-0.2156;
-148.8000;0.6317;-0.2014;
-148.5000;0.6235;-0.2156;
-148.2000;0.6284;-0.2014;
-147.9000;0.6309;-0.1872;
-147.6000;0.6317;-0.1967;
-147.3000;0.6317;-0.2061;
-147.0000;0.6333;-0.1990;
-146.7000;0.6300;-0.1967;
-146.4000;0.6284;-0.1967;
-146.1000;0.6300;-0.2085;
-145.8000;0.6284;-0.2061;
-145.5000;0.6284;-0.2085;
-145.2000;0.6292;-0.2061;
-144.9000;0.6300;-0.1967;
-144.6000;0.6309;-0.1990;
-144.3000;0.6292;-0.2038;
-144.0000;0.6292;-0.2038;
-143.7000;0.6292;-0.2061;
-143.4000;0.6276;-0.2061;
-143.1000;0.6276;-0.1990;
-142.8000;0.6292;-0.1990;
-142.5000;0.6276;-0.2180;
-142.2000;0.6309;-0.2180;
-141.9000;0.6317;-0.2132;
-141.6000;0.6300;-0.2156;
-141.3000;0.6300;-0.2156;
-141.0000;0.6309;-0.2109;
-140.7000;0.6333;-0.2061;
-140.4000;0.6292;-0.2061;
-140.1000;0.6227;-0.2203;
-139.8000;0.6309;-0.2014;
-139.5000;0.6292;-0.2014;
-139.2000;0.6309;-0.1990;
-138.9000;0.6309;-0.1943;
-138.6000;0.6300;-0.1919;
-138.3000;0.6309;-0.1990;
-138.0000;0.6300;-0.2061;
-137.7000;0.6317;-0.2132;
-137.4000;0.6325;-0.2085;
-137.1000;0.6317;-0.2132;
-136.8000;0.6284;-0.2085;
-136.5000;0.6292;-0.2038;
-136.2000;0.6309;-0.1990;
-135.9000;0.6333;-0.1943;
-135.6000;0.6300;-0.2061;
-135.3000;0.6333;-0.1943;
-135.0000;0.6309;-0.2038;
-134.7000;0.6276;-0.2156;
-134.4000;0.6292;-0.2180;
-134.1000;0.6333;-0.2180;
-133.8000;0.6317;-0.2203;
-133.5000;0.6333;-0.2109;
-133.2000;0.6341;-0.2038;
-132.9000;0.6309;-0.2132;
-132.6000;0.6317;-0.2061;
-132.3000;0.6300;-0.2132;
-132.0000;0.6300;-0.2109;
-131.7000;0.6260;-0.2203;
-131.4000;0.6333;-0.2014;
-131.1000;0.6309;-0.1895;
-130.8000;0.6325;-0.2014;
-130.5000;0.6317;-0.2038;
-130.2000;0.6276;-0.2085;
-129.9000;0.6252;-0.2180;
-129.6000;0.6309;-0.2038;
-129.3000;0.6309;-0.2014;
-129.0000;0.6325;-0.2038;
-128.7000;0.6309;-0.2109;
-128.4000;0.6300;-0.2085;
-128.1000;0.6309;-0.2038;
-127.8000;0.6341;-0.1919;
-127.5000;0.6309;-0.1943;
-127.2000;0.6325;-0.1943;
-126.9000;0.6309;-0.2061;
-126.6000;0.6309;-0.2038;
-126.3000;0.6300;-0.2132;
-126.0000;0.6292;-0.2132;
-125.7000;0.6325;-0.2109;
-125.4000;0.6317;-0.2132;
-125.1000;0.6300;-0.2227;
-124.8000;0.6235;-0.2251;
-124.5000;0.6292;-0.2109;
-124.2000;0.6309;-0.2061;
-123.9000;0.6309;-0.2180;
-123.6000;0.6292;-0.2203;
-123.3000;0.6309;-0.2085;
-123.0000;0.6317;-0.2061;
-122.7000;0.6292;-0.2061;
-122.4000;0.6309;-0.2109;
-122.1000;0.6309;-0.2014;
-121.8000;0.6309;-0.2014;
-121.5000;0.6309;-0.2109;
-121.2000;0.6309;-0.2132;
-120.9000;0.6276;-0.2227;
-120.6000;0.6325;-0.2156;
-120.3000;0.6300;-0.2109;
-120.0000;0.6284;-0.2132;
-119.7000;0.6317;-0.2180;
-119.4000;0.6325;-0.2156;
-119.1000;0.6325;-0.2132;
-118.8000;0.6325;-0.2085;
-118.5000;0.6300;-0.2109;
-118.2000;0.6317;-0.2109;
-117.9000;0.6317;-0.2156;
-117.6000;0.6333;-0.2109;
-117.3000;0.6260;-0.2203;
-117.0000;0.6292;-0.1990;
-116.7000;0.6292;-0.1895;
-116.4000;0.6300;-0.1848;
-116.1000;0.6309;-0.1848;
-115.8000;0.6292;-0.1895;
-115.5000;0.6309;-0.1967;
-115.2000;0.6309;-0.2014;
-114.9000;0.6349;-0.1967;
-114.6000;0.6276;-0.2061;
-114.3000;0.6300;-0.2061;
-114.0000;0.6325;-0.1990;
-113.7000;0.6260;-0.2014;
-113.4000;0.6300;-0.1919;
-113.1000;0.6300;-0.1824;
-112.8000;0.6309;-0.1848;
-112.5000;0.6317;-0.1801;
-112.2000;0.6349;-0.1777;
-111.9000;0.6300;-0.1919;
-111.6000;0.6284;-0.1990;
-111.3000;0.6309;-0.1990;
-111.0000;0.6309;-0.1990;
-110.7000;0.6292;-0.2014;
-110.4000;0.6309;-0.1990;
-110.1000;0.6309;-0.1967;
-109.8000;0.6309;-0.1967;
-109.5000;0.6252;-0.2109;
-109.2000;0.6333;-0.1824;
-108.9000;0.6309;-0.1895;
-108.6000;0.6292;-0.1990;
-108.3000;0.6309;-0.1919;
-108.0000;0.6325;-0.1943;
-107.7000;0.6300;-0.2014;
-107.4000;0.6317;-0.1919;
-107.1000;0.6317;-0.1919;
-106.8000;0.6309;-0.1943;
-106.5000;0.6300;-0.1990;
-106.2000;0.6317;-0.1943;
-105.9000;0.6309;-0.1848;
-105.6000;0.6300;-0.1872;
-105.3000;0.6300;-0.1895;
-105.0000;0.6276;-0.1990;
-104.7000;0.6300;-0.1943;
-104.4000;0.6300;-0.1943;
-104.1000;0.6309;-0.1872;
-103.8000;0.6309;-0.1895;
-103.5000;0.6284;-0.1848;
-103.2000;0.6300;-0.1824;
-102.9000;0.6309;-0.1777;
-102.6000;0.6309;-0.1753;
-102.3000;0.6317;-0.1730;
-102.0000;0.6292;-0.1848;
-101.7000;0.6292;-0.1801;
-101.4000;0.6300;-0.1801;
-101.1000;0.6292;-0.1801;
-100.8000;0.6292;-0.1801;
-100.5000;0.6300;-0.1824;
-100.2000;0.6292;-0.1895;
-99.9000;0.6325;-0.1943;
-99.6000;0.6309;-0.2014;
-99.3000;0.6300;-0.2014;
-99.0000;0.6292;-0.1967;
-98.7000;0.6300;-0.1990;
-98.4000;0.6309;-0.2061;
-98.1000;0.6309;-0.2061;
-97.8000;0.6276;-0.2132;
-97.5000;0.6325;-0.2061;
-97.2000;0.6325;-0.2038;
-96.9000;0.6300;-0.2061;
-96.6000;0.6317;-0.2156;
-96.3000;0.6317;-0.2203;
-96.0000;0.6309;-0.2275;
-95.7000;0.6317;-0.2203;
-95.4000;0.6292;-0.2346;
-95.1000;0.6292;-0.2369;
-94.8000;0.6284;-0.2346;
-94.5000;0.6309;-0.2227;
-94.2000;0.6235;-0.2275;
-93.9000;0.6300;-0.2132;
-93.6000;0.6284;-0.2109;
-93.3000;0.6252;-0.2180;
-93.0000;0.6317;-0.2038;
-92.7000;0.6317;-0.2038;
-92.4000;0.6300;-0.2109;
-92.1000;0.6292;-0.2132;
-91.8000;0.6325;-0.2014;
-91.5000;0.6309;-0.2109;
-91.2000;0.6357;-0.1943;
-90.9000;0.6300;-0.1990;
-90.6000;0.6333;-0.1990;
-90.3000;0.6309;-0.2085;
-90.0000;0.6333;-0.2038;
-89.7000;0.6309;-0.2038;
-89.4000;0.6317;-0.2061;
-89.1000;0.6284;-0.2014;
-88.8000;0.6317;-0.1990;
-88.5000;0.6292;-0.2109;
-88.2000;0.6300;-0.2014;
-87.9000;0.6284;-0.2038;
-87.6000;0.6292;-0.1919;
-87.3000;0.6341;-0.1872;
-87.0000;0.6317;-0.1990;
-86.7000;0.6333;-0.1919;
-86.4000;0.6309;-0.1943;
-86.1000;0.6300;-0.1943;
-85.8000;0.6317;-0.1919;
-85.5000;0.6300;-0.2038;
-85.2000;0.6317;-0.1967;
-84.9000;0.6276;-0.2132;
-84.6000;0.6317;-0.1990;
-84.3000;0.6292;-0.2014;
-84.0000;0.6268;-0.2014;
-83.7000;0.6292;-0.1967;
-83.4000;0.6325;-0.1919;
-83.1000;0.6309;-0.1919;
-82.8000;0.6292;-0.1872;
-82.5000;0.6292;-0.1801;
-82.2000;0.6292;-0.1801;
-81.9000;0.6333;-0.1659;
-81.6000;0.6309;-0.1706;
-81.3000;0.6300;-0.1706;
-81.0000;0.6292;-0.1635;
-80.7000;0.6309;-0.1587;
-80.4000;0.6309;-0.1659;
-80.1000;0.6300;-0.1682;
-79.8000;0.6317;-0.1682;
-79.5000;0.6349;-0.1635;
-79.2000;0.6333;-0.1706;
-78.9000;0.6284;-0.1824;
-78.6000;0.6325;-0.1801;
-78.3000;0.6309;-0.1872;
-78.0000;0.6349;-0.1753;
-77.7000;0.6309;-0.1848;
-77.4000;0.6357;-0.1682;
-77.1000;0.6300;-0.1777;
-76.8000;0.6317;-0.1753;
-76.5000;0.6317;-0.1730;
-76.2000;0.6292;-0.1777;
-75.9000;0.6300;-0.1801;
-75.6000;0.6300;-0.1824;
-75.3000;0.6309;-0.1753;
-75.0000;0.6260;-0.1777;
-74.7000;0.6317;-0.1564;
-74.4000;0.6309;-0.1659;
-74.1000;0.6325;-0.1659;
-73.8000;0.6284;-0.1753;
-73.5000;0.6300;-0.1730;
-73.2000;0.6292;-0.1706;
-72.9000;0.6284;-0.1824;
-72.6000;0.6292;-0.1777;
-72.3000;0.6300;-0.1801;
-72.0000;0.6292;-0.1777;
-71.7000;0.6300;-0.1730;
-71.4000;0.6309;-0.1753;
-71.1000;0.6309;-0.1777;
-70.8000;0.6300;-0.1753;
-70.5000;0.6333;-0.1824;
-70.2000;0.6341;-0.1777;
-69.9000;0.6317;-0.1801;
-69.6000;0.6284;-0.1919;
-69.3000;0.6260;-0.1919;
-69.0000;0.6300;-0.1777;
-68.7000;0.6309;-0.1872;
-68.4000;0.6300;-0.1872;
-68.1000;0.6300;-0.1919;
-67.8000;0.6325;-0.1967;
-67.5000;0.6292;-0.2085;
-67.2000;0.6309;-0.2014;
-66.9000;0.6292;-0.2014;
-66.6000;0.6325;-0.1919;
-66.3000;0.6317;-0.1872;
-66.0000;0.6300;-0.1848;
-65.7000;0.6292;-0.1753;
-65.4000;0.6309;-0.1682;
-65.1000;0.6300;-0.1824;
-64.8000;0.6300;-0.1753;
-64.5000;0.6349;-0.1587;
-64.2000;0.6333;-0.1659;
-63.9000;0.6300;-0.1753;
-63.6000;0.6317;-0.1801;
-63.3000;0.6300;-0.1824;
-63.0000;0.6300;-0.1801;
-62.7000;0.6292;-0.1801;
-62.4000;0.6341;-0.1659;
-62.1000;0.6292;-0.1777;
-61.8000;0.6292;-0.1801;
-61.5000;0.6276;-0.1848;
-61.2000;0.6341;-0.1682;
-60.9000;0.6300;-0.1824;
-60.6000;0.6292;-0.1919;
-60.3000;0.6317;-0.1872;
-60.0000;0.6357;-0.1659;
-59.7000;0.6276;-0.1848;
-59.4000;0.6309;-0.1801;
-59.1000;0.6284;-0.1801;
-58.8000;0.6300;-0.1706;
-58.5000;0.6333;-0.1682;
-58.2000;0.6260;-0.1801;
-57.9000;0.6292;-0.1753;
-57.6000;0.6292;-0.1801;
-57.3000;0.6309;-0.1753;
-57.0000;0.6227;-0.1895;
-56.7000;0.6309;-0.1682;
-56.4000;0.6317;-0.1730;
-56.1000;0.6309;-0.1777;
-55.8000;0.6333;-0.1753;
-55.5000;0.6292;-0.1848;
-55.2000;0.6309;-0.1848;
-54.9000;0.6325;-0.1706;
-54.6000;0.6341;-0.1635;
-54.3000;0.6309;-0.1611;
-54.0000;0.6300;-0.1635;
-53.7000;0.6268;-0.1635;
-53.4000;0.6309;-0.1540;
-53.1000;0.6333;-0.1516;
-52.8000;0.6300;-0.1659;
-52.5000;0.6309;-0.1682;
-52.2000;0.6317;-0.1659;
-51.9000;0.6300;-0.1777;
-51.6000;0.6309;-0.1943;
-51.3000;0.6333;-0.1824;
-51.0000;0.6333;-0.1801;
-50.7000;0.6309;-0.1848;
-50.4000;0.6309;-0.1801;
-50.1000;0.6317;-0.1730;
-49.8000;0.6325;-0.1730;
-49.5000;0.6325;-0.1682;
-49.2000;0.6317;-0.1659;
-48.9000;0.6300;-0.1706;
-48.6000;0.6333;-0.1587;
-48.3000;0.6300;-0.1659;
-48.0000;0.6300;-0.1730;
-47.7000;0.6292;-0.1730;
-47.4000;0.6317;-0.1753;
-47.1000;0.6333;-0.1777;
-46.8000;0.6333;-0.1872;
-46.5000;0.6309;-0.1967;
-46.2000;0.6309;-0.1919;
-45.9000;0.6300;-0.1872;
-45.6000;0.6325;-0.1706;
-45.3000;0.6284;-0.1801;
-45.0000;0.6317;-0.1682;
-44.7000;0.6292;-0.1730;
-44.4000;0.6300;-0.1777;
-44.1000;0.6357;-0.1635;
-43.8000;0.6292;-0.1824;
-43.5000;0.6309;-0.1801;
-43.2000;0.6325;-0.1730;
-42.9000;0.6252;-0.1872;
-42.6000;0.6292;-0.1848;
-42.3000;0.6292;-0.1824;
-42.0000;0.6243;-0.1848;
-41.7000;0.6309;-0.1682;
-41.4000;0.6276;-0.1753;
-41.1000;0.6292;-0.1706;
-40.8000;0.6309;-0.1659;
-40.5000;0.6260;-0.1753;
-40.2000;0.6284;-0.1730;
-39.9000;0.6300;-0.1801;
-39.6000;0.6284;-0.1706;
-39.3000;0.6292;-0.1730;
-39.0000;0.6357;-0.1611;
-38.7000;0.6252;-0.1730;
-38.4000;0.6317;-0.1659;
-38.1000;0.6317;-0.1659;
-37.8000;0.6284;-0.1635;
-37.5000;0.6333;-0.1422;
-37.2000;0.6309;-0.1682;
-36.9000;0.6300;-0.1682;
-36.6000;0.6292;-0.1706;
-36.3000;0.6292;-0.1777;
-36.0000;0.6276;-0.1848;
-35.7000;0.6317;-0.1730;
-35.4000;0.6292;-0.1824;
-35.1000;0.6325;-0.1777;
-34.8000;0.6317;-0.1895;
-34.5000;0.6300;-0.1895;
-34.2000;0.6309;-0.1777;
-33.9000;0.6300;-0.1801;
-33.6000;0.6309;-0.1777;
-33.3000;0.6292;-0.1872;
-33.0000;0.6300;-0.1848;
-32.7000;0.6325;-0.1777;
-32.4000;0.6333;-0.1824;
-32.1000;0.6317;-0.1801;
-31.8000;0.6309;-0.1848;
-31.5000;0.6300;-0.1753;
-31.2000;0.6300;-0.1777;
-30.9000;0.6300;-0.1801;
-30.6000;0.6309;-0.1824;
-30.3000;0.6309;-0.1801;
-30.0000;0.6317;-0.1801;
-29.7000;0.6300;-0.1824;
-29.4000;0.6349;-0.1801;
-29.1000;0.6300;-0.1967;
-28.8000;0.6309;-0.1872;
-28.5000;0.6309;-0.1848;
-28.2000;0.6317;-0.1824;
-27.9000;0.6317;-0.1824;
-27.6000;0.6300;-0.1848;
-27.3000;0.6300;-0.1872;
-27.0000;0.6284;-0.1919;
-26.7000;0.6300;-0.1872;
-26.4000;0.6300;-0.1895;
-26.1000;0.6292;-0.1967;
-25.8000;0.6260;-0.2061;
-25.5000;0.6300;-0.2038;
-25.2000;0.6292;-0.2038;
-24.9000;0.6317;-0.1990;
-24.6000;0.6317;-0.1967;
-24.3000;0.6309;-0.2014;
-24.0000;0.6300;-0.1990;
-23.7000;0.6317;-0.1990;
-23.4000;0.6300;-0.1967;
-23.1000;0.6398;-0.1706;
-22.8000;0.6317;-0.1872;
-22.5000;0.6317;-0.1872;
-22.2000;0.6309;-0.1895;
-21.9000;0.6292;-0.1919;
-21.6000;0.6382;-0.1706;
-21.3000;0.6317;-0.1895;
-21.0000;0.6317;-0.1848;
-20.7000;0.6309;-0.1801;
-20.4000;0.6317;-0.1730;
-20.1000;0.6300;-0.1682;
-19.8000;0.6309;-0.1706;
-19.5000;0.6309;-0.1635;
-19.2000;0.6317;-0.1635;
-18.9000;0.6292;-0.1730;
-18.6000;0.6309;-0.1682;
-18.3000;0.6300;-0.1682;
-18.0000;0.6317;-0.1706;
-17.7000;0.6357;-0.1730;
-17.4000;0.6300;-0.1872;
-17.1000;0.6300;-0.1824;
-16.8000;0.6300;-0.1801;
-16.5000;0.6341;-0.1777;
-16.2000;0.6284;-0.1872;
-15.9000;0.6284;-0.1919;
-15.6000;0.6300;-0.1895;
-15.3000;0.6268;-0.1967;
-15.0000;0.6292;-0.1872;
-14.7000;0.6309;-0.1872;
-14.4000;0.6292;-0.1848;
-14.1000;0.6333;-0.1777;
-13.8000;0.6317;-0.1682;
-13.5000;0.6325;-0.1706;
-13.2000;0.6309;-0.1777;
-12.9000;0.6309;-0.1848;
-12.6000;0.6325;-0.1730;
-12.3000;0.6309;-0.1777;
-12.0000;0.6292;-0.1777;
-11.7000;0.6300;-0.1824;
-11.4000;0.6309;-0.1848;
-11.1000;0.6276;-0.1848;
-10.8000;0.6276;-0.1801;
-10.5000;0.6284;-0.1824;
-10.2000;0.6309;-0.1801;
-9.9000;0.6292;-0.1848;
-9.6000;0.6300;-0.1895;
-9.3000;0.6309;-0.1872;
-9.0000;0.6309;-0.1967;
-8.7000;0.6317;-0.1967;
-8.4000;0.6325;-0.2038;
-8.1000;0.6333;-0.1990;
-7.8000;0.6309;-0.1943;
-7.5000;0.6292;-0.1967;
-7.2000;0.6317;-0.1943;
-6.9000;0.6284;-0.1943;
-6.6000;0.6292;-0.1872;
-6.3000;0.6317;-0.1824;
-6.0000;0.6309;-0.1824;
-5.7000;0.6284;-0.1824;
-5.4000;0.6300;-0.1753;
-5.1000;0.6300;-0.1753;
-4.8000;0.6252;-0.1967;
-4.5000;0.6292;-0.1895;
-4.2000;0.6300;-0.1990;
-3.9000;0.6292;-0.2014;
-3.6000;0.6284;-0.2085;
-3.3000;0.6317;-0.2014;
-3.0000;0.6260;-0.2038;
-2.7000;0.6325;-0.1872;
-2.4000;0.6309;-0.1848;
-2.1000;0.6309;-0.1730;
-1.8000;0.6300;-0.1682;
-1.5000;0.6309;-0.1682;
-1.2000;0.6284;-0.1801;
-0.9000;0.6309;-0.1753;
-0.6000;0.6325;-0.1730;
-0.3000;0.6300;-0.1777;
0.0000;0.6300;-0.1777;
0.3000;0.6593;-0.1516;
0.6000;0.7049;-0.0734;
0.9000;0.7391;-0.0190;
1.2000;0.7749;0.0592;
1.5000;0.7993;0.1161;
1.8000;0.8213;0.1706;
2.1000;0.8319;0.1990;
2.4000;0.8466;0.2322;
2.7000;0.8555;0.2535;
3.0000;0.8620;0.2630;
3.3000;0.8677;0.2867;
3.6000;0.8751;0.3080;
3.9000;0.8832;0.3246;
4.2000;0.8864;0.3222;
4.5000;0.8930;0.3317;
4.8000;0.8970;0.3435;
5.1000;0.8995;0.3435;
5.4000;0.9060;0.3554;
5.7000;0.9117;0.3649;
6.0000;0.9101;0.3507;
6.3000;0.9182;0.3649;
6.6000;0.9182;0.3578;
6.9000;0.9214;0.3672;
7.2000;0.9166;0.3507;
7.5000;0.9328;0.3767;
7.8000;0.9304;0.3767;
8.1000;0.9320;0.3815;
8.4000;0.9402;0.3815;
8.7000;0.9377;0.3649;
9.0000;0.9426;0.3649;
9.3000;0.9491;0.3720;
9.6000;0.9475;0.3601;
9.9000;0.9499;0.3507;
10.2000;0.9508;0.3483;
10.5000;0.9532;0.3507;
10.8000;0.9597;0.3672;
11.1000;0.9565;0.3578;
11.4000;0.9621;0.3649;
11.7000;0.9646;0.3744;
12.0000;0.9670;0.3744;
12.3000;0.9613;0.3530;
12.6000;0.9703;0.3649;
12.9000;0.9727;0.3578;
13.2000;0.9760;0.3578;
13.5000;0.9792;0.3625;
13.8000;0.9809;0.3625;
14.1000;0.9841;0.3649;
14.4000;0.9858;0.3649;
14.7000;0.9866;0.3578;
15.0000;0.9874;0.3530;
15.3000;0.9906;0.3578;
15.6000;0.9939;0.3649;
15.9000;0.9947;0.3649;
16.2000;0.9955;0.3625;
16.5000;0.9923;0.3530;
16.8000;1.0004;0.3601;
17.1000;1.0045;0.3483;
17.4000;1.0045;0.3435;
17.7000;1.0061;0.3507;
18.0000;1.0126;0.3672;
18.3000;1.0085;0.3507;
18.6000;1.0102;0.3530;
18.9000;1.0110;0.3601;
19.2000;1.0151;0.3672;
19.5000;1.0151;0.3625;
19.8000;1.0289;0.3767;
20.1000;1.0183;0.3388;
20.4000;1.0191;0.3270;
20.7000;1.0199;0.3246;
21.0000;1.0224;0.3341;
21.3000;1.0256;0.3388;
21.6000;1.0240;0.3341;
21.9000;1.0338;0.3554;
22.2000;1.0265;0.3293;
22.5000;1.0281;0.3459;
22.8000;1.0289;0.3483;
23.1000;1.0313;0.3435;
23.4000;1.0330;0.3507;
23.7000;1.0330;0.3507;
24.0000;1.0330;0.3530;
24.3000;1.0330;0.3483;
24.6000;1.0354;0.3507;
24.9000;1.0354;0.3435;
25.2000;1.0354;0.3246;
25.5000;1.0379;0.3293;
25.8000;1.0379;0.3293;
26.1000;1.0387;0.3199;
26.4000;1.0403;0.3293;
26.7000;1.0419;0.3270;
27.0000;1.0427;0.3317;
27.3000;1.0403;0.3293;
27.6000;1.0444;0.3317;
27.9000;1.0452;0.3388;
28.2000;1.0460;0.3341;
28.5000;1.0484;0.3412;
28.8000;1.0484;0.3341;
29.1000;1.0492;0.3341;
29.4000;1.0468;0.3364;
29.7000;1.0501;0.3364;
30.0000;1.0492;0.3293;
30.3000;1.0517;0.3270;
30.6000;1.0509;0.3270;
30.9000;1.0517;0.3270;
31.2000;1.0549;0.3317;
31.5000;1.0533;0.3293;
31.8000;1.0549;0.3270;
32.1000;1.0549;0.3388;
32.4000;1.0598;0.3412;
32.7000;1.0582;0.3341;
33.0000;1.0590;0.3412;
33.3000;1.0574;0.3435;
33.6000;1.0598;0.3483;
33.9000;1.0590;0.3459;
34.2000;1.0574;0.3459;
34.5000;1.0590;0.3317;
34.8000;1.0615;0.3246;
35.1000;1.0615;0.3341;
35.4000;1.0606;0.3270;
35.7000;1.0615;0.3246;
36.0000;1.0631;0.3246;
36.3000;1.0639;0.3270;
36.6000;1.0598;0.3246;
36.9000;1.0639;0.3364;
37.2000;1.0639;0.3270;
37.5000;1.0704;0.3459;
37.8000;1.0639;0.3199;
38.1000;1.0631;0.3151;
38.4000;1.0647;0.3199;
38.7000;1.0647;0.3246;
39.0000;1.0696;0.3293;
39.3000;1.0647;0.3175;
39.6000;1.0631;0.3080;
39.9000;1.0672;0.3199;
40.2000;1.0663;0.3080;
40.5000;1.0655;0.3009;
40.8000;1.0672;0.3033;
41.1000;1.0680;0.3104;
41.4000;1.0680;0.3127;
41.7000;1.0680;0.3127;
42.0000;1.0680;0.2985;
42.3000;1.0672;0.2891;
42.6000;1.0688;0.2914;
42.9000;1.0704;0.3033;
43.2000;1.0696;0.3033;
43.5000;1.0712;0.3056;
43.8000;1.0696;0.3009;
44.1000;1.0720;0.3056;
44.4000;1.0737;0.3056;
44.7000;1.0712;0.2985;
45.0000;1.0745;0.3033;
45.3000;1.0729;0.2985;
45.6000;1.0737;0.3009;
45.9000;1.0729;0.2962;
46.2000;1.0745;0.2962;
46.5000;1.0737;0.2938;
46.8000;1.0737;0.2891;
47.1000;1.0753;0.2914;
47.4000;1.0753;0.2914;
47.7000;1.0761;0.3009;
48.0000;1.0745;0.3056;
48.3000;1.0753;0.3056;
48.6000;1.0753;0.3080;
48.9000;1.0761;0.3056;
49.2000;1.0761;0.3009;
49.5000;1.0769;0.3056;
49.8000;1.0761;0.3033;
50.1000;1.0761;0.2985;
50.4000;1.0769;0.2891;
50.7000;1.0761;0.2867;
51.0000;1.0753;0.2796;
51.3000;1.0777;0.2772;
51.6000;1.0810;0.2867;
51.9000;1.0777;0.2701;
52.2000;1.0794;0.2796;
52.5000;1.0777;0.2843;
52.8000;1.0802;0.2867;
53.1000;1.0786;0.2867;
53.4000;1.0851;0.3056;
53.7000;1.0769;0.2914;
54.0000;1.0786;0.3009;
54.3000;1.0794;0.2962;
54.6000;1.0818;0.2938;
54.9000;1.0802;0.2796;
55.2000;1.0802;0.2772;
55.5000;1.0753;0.2606;
55.8000;1.0818;0.2819;
56.1000;1.0810;0.2748;
56.4000;1.0834;0.2748;
56.7000;1.0818;0.2748;
57.0000;1.0810;0.2748;
57.3000;1.0818;0.2772;
57.6000;1.0826;0.2748;
57.9000;1.0818;0.2748;
58.2000;1.0818;0.2772;
58.5000;1.0802;0.2701;
58.8000;1.0802;0.2725;
59.1000;1.0810;0.2701;
59.4000;1.0810;0.2748;
59.7000;1.0810;0.2772;
60.0000;1.0810;0.2748;
60.3000;1.0818;0.2748;
60.6000;1.0826;0.2748;
60.9000;1.0875;0.2819;
61.2000;1.0794;0.2654;
61.5000;1.0826;0.2654;
61.8000;1.0745;0.2393;
62.1000;1.0818;0.2559;
62.4000;1.0769;0.2559;
62.7000;1.0818;0.2677;
63.0000;1.0826;0.2701;
63.3000;1.0851;0.2796;
63.6000;1.0818;0.2772;
63.9000;1.0834;0.2677;
64.2000;1.0891;0.2843;
64.5000;1.0826;0.2748;
64.8000;1.0842;0.2772;
65.1000;1.0826;0.2748;
65.4000;1.0834;0.2772;
65.7000;1.0867;0.2796;
66.0000;1.0908;0.2891;
66.3000;1.0826;0.2748;
66.6000;1.0842;0.2725;
66.9000;1.0851;0.2654;
67.2000;1.0867;0.2583;
67.5000;1.0851;0.2511;
67.8000;1.0834;0.2417;
68.1000;1.0851;0.2393;
68.4000;1.0859;0.2275;
68.7000;1.0899;0.2369;
69.0000;1.0851;0.2251;
69.3000;1.0867;0.2203;
69.6000;1.0875;0.2156;
69.9000;1.0891;0.2227;
70.2000;1.0859;0.2132;
70.5000;1.0842;0.2180;
70.8000;1.0818;0.2156;
71.1000;1.0859;0.2298;
71.4000;1.0875;0.2369;
71.7000;1.0851;0.2346;
72.0000;1.0851;0.2369;
72.3000;1.0883;0.2440;
72.6000;1.0867;0.2393;
72.9000;1.0867;0.2417;
73.2000;1.0875;0.2488;
73.5000;1.0875;0.2630;
73.8000;1.0875;0.2677;
74.1000;1.0851;0.2654;
74.4000;1.0859;0.2630;
74.7000;1.0891;0.2677;
75.0000;1.0875;0.2583;
75.3000;1.0891;0.2583;
75.6000;1.0875;0.2464;
75.9000;1.0883;0.2488;
76.2000;1.0883;0.2583;
76.5000;1.0891;0.2559;
76.8000;1.0891;0.2535;
77.1000;1.0883;0.2559;
77.4000;1.0908;0.2583;
77.7000;1.0842;0.2440;
78.0000;1.0883;0.2488;
78.3000;1.0867;0.2393;
78.6000;1.0899;0.2535;
78.9000;1.0891;0.2488;
79.2000;1.0875;0.2393;
79.5000;1.0883;0.2346;
79.8000;1.0908;0.2464;
80.1000;1.0908;0.2417;
80.4000;1.0883;0.2346;
80.7000;1.0883;0.2322;
81.0000;1.0891;0.2298;
81.3000;1.0883;0.2275;
81.6000;1.0891;0.2203;
81.9000;1.0899;0.2203;
82.2000;1.0891;0.2156;
82.5000;1.0891;0.2227;
82.8000;1.0891;0.2275;
83.1000;1.0891;0.2298;
83.4000;1.0908;0.2251;
83.7000;1.0899;0.2251;
84.0000;1.0842;0.2061;
84.3000;1.0891;0.2275;
84.6000;1.0883;0.2251;
84.9000;1.0899;0.2298;
85.2000;1.0916;0.2417;
85.5000;1.0891;0.2346;
85.8000;1.0891;0.2298;
86.1000;1.0899;0.2298;
86.4000;1.0908;0.2346;
86.7000;1.0899;0.2346;
87.0000;1.0867;0.2275;
87.3000;1.0908;0.2275;
87.6000;1.0916;0.2322;
87.9000;1.0924;0.2417;
88.2000;1.0932;0.2488;
88.5000;1.0908;0.2417;
88.8000;1.0924;0.2369;
89.1000;1.0916;0.2346;
89.4000;1.0899;0.2322;
89.7000;1.0908;0.2322;
90.0000;1.0940;0.2393;
90.3000;1.0924;0.2369;
90.6000;1.0908;0.2369;
90.9000;1.0899;0.2464;
91.2000;1.0932;0.2488;
91.5000;1.0916;0.2393;
91.8000;1.0899;0.2346;
92.1000;1.0899;0.2275;
92.4000;1.0916;0.2275;
92.7000;1.0916;0.2275;
93.0000;1.0908;0.2298;
93.3000;1.0908;0.2346;
93.6000;1.0899;0.2393;
93.9000;1.0924;0.2369;
94.2000;1.0973;0.2583;
94.5000;1.0932;0.2440;
94.8000;1.0908;0.2369;
95.1000;1.0908;0.2393;
95.4000;1.0916;0.2369;
95.7000;1.0916;0.2417;
96.0000;1.0908;0.2440;
96.3000;1.0883;0.2346;
96.6000;1.0916;0.2369;
96.9000;1.0916;0.2369;
97.2000;1.0932;0.2417;
97.5000;1.0899;0.2322;
97.8000;1.0924;0.2298;
98.1000;1.0932;0.2251;
98.4000;1.0924;0.2227;
98.7000;1.0859;0.2085;
99.0000;1.0924;0.2298;
99.3000;1.0965;0.2322;
99.6000;1.0916;0.2156;
99.9000;1.0940;0.2227;
100.2000;1.0940;0.2275;
100.5000;1.0956;0.2298;
100.8000;1.0940;0.2132;
101.1000;1.0916;0.2156;
101.4000;1.0940;0.2298;
101.7000;1.0924;0.2346;
102.0000;1.0965;0.2393;
102.3000;1.0940;0.2417;
102.6000;1.0932;0.2346;
102.9000;1.0940;0.2251;
103.2000;1.0965;0.2322;
103.5000;1.0932;0.2109;
103.8000;1.0924;0.2109;
104.1000;1.0948;0.2132;
104.4000;1.0940;0.2156;
104.7000;1.0908;0.2109;
105.0000;1.0924;0.2132;
105.3000;1.0948;0.2085;
105.6000;1.0932;0.2038;
105.9000;1.0940;0.2061;
106.2000;1.0924;0.2061;
106.5000;1.0932;0.2014;
106.8000;1.0940;0.2132;
107.1000;1.0924;0.2085;
107.4000;1.0940;0.2085;
107.7000;1.0940;0.1990;
108.0000;1.0932;0.1990;
108.3000;1.0940;0.1990;
108.6000;1.0940;0.1990;
108.9000;1.0940;0.1943;
109.2000;1.0851;0.1753;
109.5000;1.0956;0.1990;
109.8000;1.0948;0.1872;
110.1000;1.0924;0.1801;
110.4000;1.0948;0.1895;
110.7000;1.0965;0.1943;
111.0000;1.0948;0.1967;
111.3000;1.0940;0.1967;
111.6000;1.0956;0.1990;
111.9000;1.0956;0.1990;
112.2000;1.0940;0.1990;
112.5000;1.0940;0.1967;
112.8000;1.0940;0.1895;
113.1000;1.0948;0.1848;
113.4000;1.0940;0.1848;
113.7000;1.0956;0.1848;
114.0000;1.0932;0.1801;
114.3000;1.0948;0.1801;
114.6000;1.0940;0.1848;
114.9000;1.0948;0.1895;
115.2000;1.0883;0.1706;
115.5000;1.0973;0.1967;
115.8000;1.0932;0.1872;
116.1000;1.0948;0.1872;
116.4000;1.0948;0.1919;
116.7000;1.0924;0.1848;
117.0000;1.0956;0.1848;
117.3000;1.0956;0.1824;
117.6000;1.0948;0.1848;
117.9000;1.0883;0.1730;
118.2000;1.0965;0.1919;
118.5000;1.0965;0.2061;
118.8000;1.0940;0.2038;
119.1000;1.0965;0.1990;
119.4000;1.0940;0.1990;
119.7000;1.0965;0.2061;
120.0000;1.0956;0.2061;
120.3000;1.0948;0.1990;
120.6000;1.0948;0.1943;
120.9000;1.0973;0.1967;
121.2000;1.0956;0.1919;
121.5000;1.0973;0.1990;
121.8000;1.0948;0.1919;
122.1000;1.0956;0.1872;
122.4000;1.0956;0.1919;
122.7000;1.0965;0.1848;
123.0000;1.0973;0.1895;
123.3000;1.0973;0.1990;
123.6000;1.0924;0.1777;
123.9000;1.0956;0.1895;
124.2000;1.0973;0.1848;
124.5000;1.0989;0.1895;
124.8000;1.0981;0.1824;
125.1000;1.0965;0.1895;
125.4000;1.0965;0.1919;
125.7000;1.0973;0.1919;
126.0000;1.0965;0.1895;
126.3000;1.0973;0.1943;
126.6000;1.0948;0.1895;
126.9000;1.0956;0.1919;
127.2000;1.0956;0.1967;
127.5000;1.0965;0.1967;
127.8000;1.0956;0.1967;
128.1000;1.0948;0.1990;
128.4000;1.0908;0.1919;
128.7000;1.0965;0.1919;
129.0000;1.0948;0.1753;
129.3000;1.0956;0.1848;
129.6000;1.0948;0.1801;
129.9000;1.0956;0.1848;
130.2000;1.0965;0.1943;
130.5000;1.0965;0.1943;
130.8000;1.0981;0.1943;
131.1000;1.1005;0.1967;
131.4000;1.0965;0.1872;
131.7000;1.0956;0.1872;
132.0000;1.0965;0.1919;
132.3000;1.0965;0.1967;
132.6000;1.0973;0.1919;
132.9000;1.0965;0.1824;
133.2000;1.1013;0.1919;
133.5000;1.0956;0.1777;
133.8000;1.0973;0.1730;
134.1000;1.0965;0.1706;
134.4000;1.0940;0.1611;
134.7000;1.0965;0.1635;
135.0000;1.0989;0.1635;
135.3000;1.0981;0.1635;
135.6000;1.0981;0.1611;
135.9000;1.0973;0.1659;
136.2000;1.0973;0.1730;
136.5000;1.0981;0.1777;
136.8000;1.0973;0.1753;
137.1000;1.0965;0.1753;
137.4000;1.0956;0.1801;
137.7000;1.0965;0.1777;
138.0000;1.0940;0.1801;
138.3000;1.0997;0.1895;
138.6000;1.0973;0.1824;
138.9000;1.0965;0.1872;
139.2000;1.1005;0.1872;
139.5000;1.0973;0.1777;
139.8000;1.0973;0.1872;
140.1000;1.0973;0.1919;
140.4000;1.1013;0.1990;
140.7000;1.0948;0.1801;
141.0000;1.0965;0.1824;
141.3000;1.0965;0.1848;
141.6000;1.0973;0.1824;
141.9000;1.0973;0.1753;
142.2000;1.0867;0.1493;
142.5000;1.0981;0.1730;
142.8000;1.0956;0.1753;
143.1000;1.0981;0.1777;
143.4000;1.0956;0.1682;
143.7000;1.0965;0.1635;
144.0000;1.0956;0.1706;
144.3000;1.0965;0.1753;
144.6000;1.0956;0.1824;
144.9000;1.0956;0.1753;
145.2000;1.0997;0.1848;
145.5000;1.0997;0.1801;
145.8000;1.0973;0.1706;
146.1000;1.0981;0.1824;
146.4000;1.1022;0.1848;
146.7000;1.0981;0.1777;
147.0000;1.0981;0.1753;
147.3000;1.0973;0.1611;
147.6000;1.0989;0.1611;
147.9000;1.0981;0.1659;
148.2000;1.0981;0.1682;
148.5000;1.0981;0.1611;
148.8000;1.0989;0.1635;
149.1000;1.1062;0.1848;
149.4000;1.0981;0.1753;
149.7000;1.0989;0.1753;
150.0000;1.0924;0.1611;
150.3000;1.1005;0.1706;
150.6000;1.1005;0.1659;
150.9000;1.0989;0.1635;
151.2000;1.0948;0.1635;
151.5000;1.0973;0.1659;
151.8000;1.1030;0.1824;
152.1000;1.0981;0.1706;
152.4000;1.0973;0.1706;
152.7000;1.0981;0.1777;
153.0000;1.0940;0.1706;
153.3000;1.1005;0.1824;
153.6000;1.0965;0.1706;
153.9000;1.0973;0.1706;
154.2000;1.1013;0.1801;
154.5000;1.0997;0.1706;
154.8000;1.0973;0.1587;
155.1000;1.0997;0.1659;
155.4000;1.0965;0.1659;
155.7000;1.0989;0.1587;
156.0000;1.0956;0.1587;
156.3000;1.0989;0.1587;
156.6000;1.0989;0.1564;
156.9000;1.0989;0.1611;
157.2000;1.0981;0.1611;
157.5000;1.0989;0.1682;
157.8000;1.0989;0.1730;
158.1000;1.0981;0.1801;
158.4000;1.0989;0.1801;
158.7000;1.0997;0.1801;
159.0000;1.0989;0.1777;
159.3000;1.0981;0.1730;
159.6000;1.0981;0.1824;
159.9000;1.0948;0.1730;
160.2000;1.1013;0.1872;
160.5000;1.0989;0.1824;
160.8000;1.0997;0.1824;
161.1000;1.0997;0.1777;
161.4000;1.0989;0.1777;
161.7000;1.0973;0.1753;
162.0000;1.0997;0.1682;
162.3000;1.0965;0.1635;
162.6000;1.0997;0.1753;
162.9000;1.0997;0.1682;
163.2000;1.0989;0.1682;
163.5000;1.0981;0.1659;
163.8000;1.0981;0.1611;
164.1000;1.0973;0.1587;
164.4000;1.0973;0.1682;
164.7000;1.0997;0.1753;
165.0000;1.0965;0.1706;
165.3000;1.0973;0.1682;
165.6000;1.0981;0.1753;
165.9000;1.0981;0.1872;
166.2000;1.0981;0.1777;
166.5000;1.0989;0.1801;
166.8000;1.0981;0.1777;
167.1000;1.0997;0.1730;
167.4000;1.0989;0.1706;
167.7000;1.1005;0.1682;
168.0000;1.0956;0.1469;
168.3000;1.1005;0.1564;
168.6000;1.0973;0.1445;
168.9000;1.1005;0.1516;
169.2000;1.0989;0.1493;
169.5000;1.0997;0.1469;
169.8000;1.0997;0.1469;
170.1000;1.0989;0.1493;
170.4000;1.0932;0.1469;
170.7000;1.1013;0.1635;
171.0000;1.0997;0.1540;
171.3000;1.0981;0.1493;
171.6000;1.0997;0.1540;
171.9000;1.0989;0.1493;
172.2000;1.1005;0.1493;
172.5000;1.0981;0.1516;
172.8000;1.0997;0.1635;
173.1000;1.0981;0.1635;
173.4000;1.0956;0.1587;
173.7000;1.0973;0.1587;
174.0000;1.1013;0.1635;
174.3000;1.1013;0.1611;
174.6000;1.0997;0.1611;
174.9000;1.1005;0.1587;
175.2000;1.0997;0.1564;
175.5000;1.0989;0.1564;
175.8000;1.0973;0.1611;
176.1000;1.0997;0.1564;
176.4000;1.0997;0.1564;
176.7000;1.1005;0.1493;
177.0000;1.0948;0.1351;
177.3000;1.0989;0.1398;
177.6000;1.1013;0.1445;
177.9000;1.0997;0.1493;
178.2000;1.1005;0.1469;
178.5000;1.0989;0.1422;
178.8000;1.1005;0.1493;
179.1000;1.0989;0.1516;
179.4000;1.1013;0.1493;
179.7000;1.0997;0.1493;
180.0000;1.1054;0.1611;
180.3000;1.1005;0.1587;
180.6000;1.0981;0.1516;
180.9000;1.0989;0.1469;
181.2000;1.0997;0.1493;
181.5000;1.0997;0.1469;
181.8000;1.0981;0.1374;
182.1000;1.0981;0.1374;
182.4000;1.1054;0.1564;
182.7000;1.0997;0.1422;
183.0000;1.1022;0.1540;
183.3000;1.1005;0.1564;
183.6000;1.1005;0.1587;
183.9000;1.1030;0.1635;
184.2000;1.1005;0.1635;
184.5000;1.0989;0.1564;
184.8000;1.0997;0.1564;
185.1000;1.0989;0.1516;
185.4000;1.0956;0.1256;
185.7000;1.0989;0.1327;
186.0000;1.0989;0.1303;
186.3000;1.1005;0.1279;
186.6000;1.0989;0.1303;
186.9000;1.0973;0.1303;
187.2000;1.1038;0.1469;
187.5000;1.0965;0.1279;
187.8000;1.1013;0.1422;
188.1000;1.0997;0.1445;
188.4000;1.0948;0.1327;
188.7000;1.1013;0.1540;
189.0000;1.0997;0.1469;
189.3000;1.0997;0.1445;
189.6000;1.1013;0.1422;
189.9000;1.0989;0.1374;
190.2000;1.1005;0.1422;
190.5000;1.0989;0.1398;
190.8000;1.0973;0.1374;
191.1000;1.0981;0.1351;
191.4000;1.1013;0.1398;
191.7000;1.1013;0.1398;
192.0000;1.0997;0.1398;
192.3000;1.1022;0.1516;
192.6000;1.1005;0.1469;
192.9000;1.1005;0.1540;
193.2000;1.1022;0.1540;
193.5000;1.1030;0.1493;
193.8000;1.1022;0.1445;
194.1000;1.1022;0.1422;
194.4000;1.1013;0.1351;
194.7000;1.1030;0.1422;
195.0000;1.0997;0.1398;
195.3000;1.1062;0.1540;
195.6000;1.0981;0.1351;
195.9000;1.1013;0.1445;
196.2000;1.1005;0.1422;
196.5000;1.0989;0.1422;
196.8000;1.0940;0.1374;
197.1000;1.1005;0.1469;
197.4000;1.1022;0.1493;
197.7000;1.1005;0.1469;
198.0000;1.1054;0.1540;
198.3000;1.0997;0.1398;
198.6000;1.0989;0.1422;
198.9000;1.1005;0.1351;
199.2000;1.1013;0.1327;
199.5000;1.0981;0.1327;
199.8000;1.0989;0.1327;
200.1000;1.1005;0.1445;
200.4000;1.0997;0.1422;
200.7000;1.0997;0.1422;
201.0000;1.1005;0.1493;
201.3000;1.0981;0.1516;
201.6000;1.0989;0.1493;
201.9000;1.0989;0.1564;
202.2000;1.0973;0.1587;
202.5000;1.1005;0.1659;
202.8000;1.0989;0.1753;
203.1000;1.0997;0.1753;
203.4000;1.1005;0.1753;
203.7000;1.1005;0.1706;
204.0000;1.1005;0.1706;
204.3000;1.1013;0.1682;
204.6000;1.1005;0.1635;
204.9000;1.0989;0.1611;
205.2000;1.0981;0.1635;
205.5000;1.1005;0.1730;
205.8000;1.1005;0.1659;
206.1000;1.0973;0.1587;
206.4000;1.0997;0.1611;
206.7000;1.0997;0.1659;
207.0000;1.1022;0.1611;
207.3000;1.0997;0.1540;
207.6000;1.1005;0.1445;
207.9000;1.0981;0.1398;
208.2000;1.0997;0.1445;
208.5000;1.0997;0.1303;
208.8000;1.0973;0.1185;
209.1000;1.0989;0.1279;
209.4000;1.0956;0.1232;
209.7000;1.1038;0.1422;
210.0000;1.0989;0.1279;
210.3000;1.0940;0.1208;
210.6000;1.0989;0.1398;
210.9000;1.1013;0.1516;
211.2000;1.0965;0.1374;
211.5000;1.0981;0.1398;
211.8000;1.0981;0.1422;
212.1000;1.0973;0.1422;
212.4000;1.0973;0.1398;
212.7000;1.1013;0.1422;
213.0000;1.0989;0.1351;
213.3000;1.0981;0.1327;
213.6000;1.1013;0.1351;
213.9000;1.1013;0.1351;
214.2000;1.0997;0.1303;
214.5000;1.0981;0.1256;
214.8000;1.1038;0.1398;
215.1000;1.0932;0.1161;
215.4000;1.0989;0.1351;
215.7000;1.1013;0.1422;
216.0000;1.1013;0.1398;
216.3000;1.1022;0.1445;
216.6000;1.1022;0.1493;
216.9000;1.1005;0.1422;
217.2000;1.1005;0.1445;
217.5000;1.0997;0.1422;
217.8000;1.1005;0.1469;
218.1000;1.0981;0.1422;
218.4000;1.0973;0.1351;
218.7000;1.1022;0.1516;
219.0000;1.0973;0.1398;
219.3000;1.1022;0.1469;
219.6000;1.1022;0.1493;
219.9000;1.0981;0.1469;
220.2000;1.1013;0.1422;
220.5000;1.1022;0.1493;
220.8000;1.0981;0.1422;
221.1000;1.1022;0.1493;
221.4000;1.0997;0.1351;
221.7000;1.0989;0.1398;
222.0000;1.1013;0.1422;
222.3000;1.0997;0.1422;
222.6000;1.1005;0.1422;
222.9000;1.1022;0.1493;
223.2000;1.1030;0.1540;
223.5000;1.0997;0.1445;
223.8000;1.1005;0.1422;
224.1000;1.1005;0.1398;
224.4000;1.1005;0.1445;
224.7000;1.1030;0.1516;
225.0000;1.1030;0.1516;
225.3000;1.1046;0.1564;
225.6000;1.1013;0.1445;
225.9000;1.1013;0.1516;
226.2000;1.1046;0.1540;
226.5000;1.1005;0.1374;
226.8000;1.1022;0.1351;
227.1000;1.1013;0.1422;
227.4000;1.1013;0.1374;
227.7000;1.1013;0.1398;
228.0000;1.1030;0.1422;
228.3000;1.1013;0.1374;
228.6000;1.0997;0.1279;
228.9000;1.0997;0.1256;
229.2000;1.1013;0.1374;
229.5000;1.1013;0.1422;
229.8000;1.1022;0.1469;
230.1000;1.1013;0.1493;
230.4000;1.0989;0.1516;
230.7000;1.0997;0.1540;
231.0000;1.1022;0.1587;
231.3000;1.1030;0.1611;
231.6000;1.1054;0.1682;
231.9000;1.1005;0.1564;
232.2000;1.1038;0.1659;
232.5000;1.1005;0.1682;
232.8000;1.1038;0.1706;
233.1000;1.0989;0.1445;
233.4000;1.0981;0.1493;
233.7000;1.0956;0.1540;
234.0000;1.1005;0.1611;
234.3000;1.1013;0.1611;
234.6000;1.0997;0.1493;
234.9000;1.0981;0.1516;
235.2000;1.1022;0.1469;
235.5000;1.1022;0.1469;
235.8000;1.1030;0.1540;
236.1000;1.0997;0.1469;
236.4000;1.1013;0.1469;
236.7000;1.1013;0.1493;
237.0000;1.1005;0.1516;
237.3000;1.1005;0.1445;
237.6000;1.1005;0.1422;
237.9000;1.1030;0.1398;
238.2000;1.1022;0.1469;
238.5000;1.1005;0.1374;
238.8000;1.1013;0.1374;
239.1000;1.1005;0.1351;
239.4000;1.1005;0.1303;
239.7000;1.0997;0.1327;
240.0000;1.1013;0.1398;
240.3000;1.1013;0.1351;
240.6000;1.1030;0.1422;
240.9000;1.0997;0.1351;
241.2000;1.1005;0.1398;
241.5000;1.1022;0.1469;
241.8000;1.1030;0.1445;
242.1000;1.1005;0.1374;
242.4000;1.1005;0.1422;
242.7000;1.0997;0.1398;
243.0000;1.1022;0.1422;
243.3000;1.1005;0.1422;
243.6000;1.1030;0.1445;
243.9000;1.1005;0.1422;
244.2000;1.0997;0.1469;
244.5000;1.1013;0.1493;
244.8000;1.0981;0.1516;
245.1000;1.0997;0.1493;
245.4000;1.1013;0.1516;
245.7000;1.0997;0.1493;
246.0000;1.1005;0.1469;
246.3000;1.0997;0.1374;
246.6000;1.0997;0.1374;
246.9000;1.1013;0.1445;
247.2000;1.0997;0.1445;
247.5000;1.0989;0.1516;
247.8000;1.1005;0.1564;
248.1000;1.0997;0.1516;
248.4000;1.1005;0.1469;
248.7000;1.0997;0.1398;
249.0000;1.1013;0.1422;
249.3000;1.1005;0.1445;
249.6000;1.1005;0.1493;
249.9000;1.0973;0.1398;
250.2000;1.0973;0.1398;
250.5000;1.1013;0.1422;
250.8000;1.1005;0.1445;
251.1000;1.0997;0.1469;
251.4000;1.0997;0.1351;
251.7000;1.1005;0.1232;
252.0000;1.0997;0.1256;
252.3000;1.1022;0.1279;
252.6000;1.1005;0.1232;
252.9000;1.1013;0.1232;
253.2000;1.0981;0.1137;
253.5000;1.0989;0.1185;
253.8000;1.1013;0.1279;
254.1000;1.0997;0.1208;
254.4000;1.0956;0.1185;
254.7000;1.0989;0.1303;
255.0000;1.0997;0.1279;
255.3000;1.0997;0.1351;
255.6000;1.0989;0.1351;
255.9000;1.0997;0.1232;
256.2000;1.0965;0.1303;
256.5000;1.0989;0.1445;
256.8000;1.1022;0.1445;
257.1000;1.1005;0.1422;
257.4000;1.1087;0.1706;
257.7000;1.1005;0.1422;
258.0000;1.1005;0.1445;
258.3000;1.0997;0.1469;
258.6000;1.1013;0.1493;
258.9000;1.0997;0.1469;
259.2000;1.1005;0.1469;
259.5000;1.1005;0.1422;
259.8000;1.1005;0.1422;
260.1000;1.1030;0.1374;
260.4000;1.1022;0.1374;
260.7000;1.1022;0.1374;
261.0000;1.0965;0.1137;
261.3000;1.1005;0.1303;
261.6000;1.1013;0.1279;
261.9000;1.1013;0.1256;
262.2000;1.1005;0.1398;
262.5000;1.0948;0.1232;
262.8000;1.1005;0.1351;
263.1000;1.1005;0.1374;
263.4000;1.1013;0.1422;
263.7000;1.0997;0.1398;
264.0000;1.1005;0.1398;
264.3000;1.1013;0.1493;
264.6000;1.1030;0.1540;
264.9000;1.1013;0.1469;
265.2000;1.1013;0.1516;
265.5000;1.0932;0.1303;
265.8000;1.1070;0.1587;
266.1000;1.0997;0.1445;
266.4000;1.1013;0.1587;
266.7000;1.1013;0.1682;
267.0000;1.1005;0.1635;
267.3000;1.1005;0.1635;
267.6000;1.1013;0.1635;
267.9000;1.1022;0.1682;
268.2000;1.1013;0.1682;
268.5000;1.1005;0.1706;
268.8000;1.1013;0.1682;
269.1000;1.0989;0.1611;
269.4000;1.1005;0.1659;
269.7000;1.0997;0.1587;
270.0000;1.0997;0.1635;
270.3000;1.1022;0.1611;
270.6000;1.0997;0.1564;
270.9000;1.1005;0.1635;
271.2000;1.0989;0.1659;
271.5000;1.1005;0.1682;
271.8000;1.0989;0.1564;
272.1000;1.0997;0.1611;
272.4000;1.0997;0.1587;
272.7000;1.1013;0.1611;
273.0000;1.1013;0.1659;
273.3000;1.0940;0.1493;
273.6000;1.1005;0.1635;
273.9000;1.1022;0.1682;
274.2000;1.0989;0.1635;
274.5000;1.0997;0.1516;
274.8000;1.1013;0.1516;
275.1000;1.1013;0.1493;
275.4000;1.1013;0.1469;
275.7000;1.1005;0.1422;
276.0000;1.1013;0.1398;
276.3000;1.1013;0.1327;
276.6000;1.1005;0.1374;
276.9000;1.0997;0.1374;
277.2000;1.1013;0.1351;
277.5000;1.1013;0.1374;
277.8000;1.1005;0.1398;
278.1000;1.1013;0.1374;
278.4000;1.0989;0.1398;
278.7000;1.1005;0.1469;
279.0000;1.1022;0.1493;
279.3000;1.1030;0.1516;
279.6000;1.1013;0.1469;
279.9000;1.1005;0.1374;
280.2000;1.0997;0.1232;
280.5000;1.1013;0.1279;
280.8000;1.1013;0.1303;
281.1000;1.1013;0.1445;
281.4000;1.1062;0.1540;
281.7000;1.1013;0.1587;
282.0000;1.1030;0.1564;
282.3000;1.0973;0.1398;
282.6000;1.1013;0.1469;
282.9000;1.0989;0.1445;
283.2000;1.0981;0.1374;
283.5000;1.1005;0.1445;
283.8000;1.1013;0.1540;
284.1000;1.1005;0.1540;
284.4000;1.0973;0.1422;
284.7000;1.1022;0.1516;
285.0000;1.1022;0.1516;
285.3000;1.1038;0.1516;
285.6000;1.1005;0.1445;
285.9000;1.0989;0.1422;
286.2000;1.1013;0.1469;
286.5000;1.1046;0.1540;
286.8000;1.1005;0.1564;
287.1000;1.1022;0.1540;
287.4000;1.0997;0.1564;
287.7000;1.0956;0.1445;
288.0000;1.1046;0.1682;
288.3000;1.1013;0.1635;
288.6000;1.1005;0.1516;
288.9000;1.1013;0.1587;
289.2000;1.1022;0.1587;
289.5000;1.0932;0.1351;
289.8000;1.1013;0.1469;
290.1000;1.1013;0.1493;
290.4000;1.1013;0.1516;
290.7000;1.1013;0.1445;
291.0000;1.1038;0.1564;
291.3000;1.1005;0.1516;
291.6000;1.1013;0.1493;
291.9000;1.1022;0.1422;
292.2000;1.1022;0.1493;
292.5000;1.1005;0.1469;
292.8000;1.1005;0.1516;
293.1000;1.1038;0.1635;
293.4000;1.1005;0.1493;
293.7000;1.0997;0.1445;
294.0000;1.0997;0.1493;
294.3000;1.0997;0.1445;
294.6000;1.1013;0.1445;
294.9000;1.1005;0.1493;
295.2000;1.1013;0.1587;
295.5000;1.1013;0.1540;
295.8000;1.1022;0.1445;
296.1000;1.1022;0.1445;
296.4000;1.1022;0.1422;
296.7000;1.1022;0.1374;
297.0000;1.0997;0.1327;
297.3000;1.1062;0.1493;
297.6000;1.1005;0.1374;
297.9000;1.1022;0.1445;
298.2000;1.1022;0.1469;
298.5000;1.1022;0.1540;
298.8000;1.1013;0.1445;
299.1000;1.0973;0.1327;
299.4000;1.1005;0.1469;
299.7000;1.1005;0.1469;
300.0000;1.1005;0.1422;
300.3000;1.1005;0.1493;
300.6000;1.1022;0.1445;
300.9000;1.0997;0.1374;
301.2000;1.0989;0.1398;
301.5000;1.0997;0.1398;
301.8000;1.0997;0.1398;
302.1000;1.1005;0.1351;
302.4000;1.1038;0.1493;
302.7000;1.1005;0.1398;
303.0000;1.1022;0.1351;
303.3000;1.1054;0.1445;
303.6000;1.1013;0.1398;
303.9000;1.1005;0.1398;
304.2000;1.1030;0.1445;
304.5000;1.1005;0.1303;
304.8000;1.1022;0.1279;
305.1000;1.1013;0.1185;
305.4000;1.0997;0.1161;
305.7000;1.0997;0.1256;
306.0000;1.1022;0.1351;
306.3000;1.0997;0.1351;
306.6000;1.1013;0.1374;
306.9000;1.1013;0.1351;
307.2000;1.0997;0.1398;
307.5000;1.1013;0.1469;
307.8000;1.1013;0.1469;
308.1000;1.0965;0.1351;
308.4000;1.0989;0.1303;
308.7000;1.1070;0.1516;
309.0000;1.1013;0.1374;
309.3000;1.1022;0.1374;
309.6000;1.0948;0.1256;
309.9000;1.1005;0.1422;
310.2000;1.1013;0.1374;
310.5000;1.1054;0.1351;
310.8000;1.1013;0.1327;
311.1000;1.1005;0.1351;
311.4000;1.1013;0.1374;
311.7000;1.0948;0.1208;
312.0000;1.1046;0.1422;
312.3000;1.1013;0.1303;
312.6000;1.1062;0.1469;
312.9000;1.0981;0.1279;
313.2000;1.1013;0.1445;
313.5000;1.1013;0.1398;
313.8000;1.1005;0.1422;
314.1000;1.1054;0.1540;
314.4000;1.1005;0.1445;
314.7000;1.1022;0.1469;
315.0000;1.0956;0.1303;
315.3000;1.0981;0.1351;
315.6000;1.0989;0.1351;
315.9000;1.1005;0.1445;
316.2000;1.1013;0.1422;
316.5000;1.0997;0.1445;
316.8000;1.1013;0.1422;
317.1000;1.1005;0.1445;
317.4000;1.0973;0.1445;
317.7000;1.0997;0.1516;
318.0000;1.0989;0.1493;
318.3000;1.1005;0.1493;
318.6000;1.1005;0.1469;
318.9000;1.1005;0.1540;
319.2000;1.1013;0.1540;
319.5000;1.0997;0.1516;
319.8000;1.1013;0.1635;
320.1000;1.1022;0.1611;
320.4000;1.1013;0.1564;
320.7000;1.1013;0.1469;
321.0000;1.0989;0.1469;
321.3000;1.1013;0.1540;
321.6000;1.0997;0.1493;
321.9000;1.0940;0.1351;
322.2000;1.0989;0.1493;
322.5000;1.0997;0.1493;
322.8000;1.0997;0.1422;
323.1000;1.1013;0.1327;
323.4000;1.0997;0.1232;
323.7000;1.1005;0.1232;
324.0000;1.1013;0.1351;
324.3000;1.1005;0.1327;
324.6000;1.0989;0.1327;
324.9000;1.1030;0.1422;
325.2000;1.1022;0.1398;
325.5000;1.1005;0.1445;
325.8000;1.1005;0.1469;
326.1000;1.0997;0.1445;
326.4000;1.0989;0.1516;
326.7000;1.1005;0.1469;
327.0000;1.0940;0.1256;
327.3000;1.1005;0.1374;
327.6000;1.0981;0.1351;
327.9000;1.1005;0.1445;
328.2000;1.1005;0.1422;
328.5000;1.1013;0.1469;
328.8000;1.1005;0.1422;
329.1000;1.1030;0.1516;
329.4000;1.1111;0.1659;
329.7000;1.1005;0.1398;
330.0000;1.1005;0.1493;
330.3000;1.1022;0.1540;
330.6000;1.1022;0.1493;
330.9000;1.1005;0.1445;
331.2000;1.1022;0.1469;
331.5000;1.1022;0.1445;
331.8000;1.1095;0.1587;
332.1000;1.1013;0.1327;
332.4000;1.1005;0.1185;
332.7000;1.1022;0.1256;
333.0000;1.1013;0.1279;
333.3000;1.1005;0.1279;
333.6000;1.0997;0.1327;
333.9000;1.0997;0.1398;
334.2000;1.1005;0.1422;
334.5000;1.1022;0.1445;
334.8000;1.1013;0.1422;
335.1000;1.1022;0.1469;
335.4000;1.1005;0.1469;
335.7000;1.1013;0.1422;
336.0000;1.1013;0.1445;
336.3000;1.1013;0.1445;
336.6000;1.1030;0.1422;
336.9000;1.1030;0.1422;
337.2000;1.1005;0.1374;
337.5000;1.0997;0.1351;
337.8000;1.1005;0.1445;
338.1000;1.1005;0.1445;
338.4000;1.0997;0.1445;
338.7000;1.0989;0.1540;
339.0000;1.1005;0.1611;
339.3000;1.1005;0.1587;
339.6000;1.1005;0.1587;
339.9000;1.1005;0.1635;
340.2000;1.0997;0.1682;
340.5000;1.1005;0.1682;
340.8000;1.0989;0.1706;
341.1000;1.0997;0.1682;
341.4000;1.1005;0.1659;
341.7000;1.0989;0.1635;
342.0000;1.1013;0.1587;
342.3000;1.0997;0.1493;
342.6000;1.0997;0.1493;
342.9000;1.0981;0.1564;
343.2000;1.0997;0.1611;
343.5000;1.1005;0.1587;
343.8000;1.0981;0.1587;
344.1000;1.1022;0.1611;
344.4000;1.1005;0.1635;
344.7000;1.0997;0.1635;
345.0000;1.1005;0.1635;
345.3000;1.1013;0.1635;
345.6000;1.1005;0.1587;
345.9000;1.1013;0.1611;
346.2000;1.0997;0.1587;
346.5000;1.0997;0.1540;
346.8000;1.1030;0.1611;
347.1000;1.1030;0.1493;
347.4000;1.0997;0.1422;
347.7000;1.1013;0.1422;
348.0000;1.1013;0.1469;
348.3000;1.1022;0.1493;
348.6000;1.1005;0.1422;
348.9000;1.0989;0.1398;
349.2000;1.0997;0.1374;
349.5000;1.1005;0.1351;
349.8000;1.1013;0.1374;
350.1000;1.1022;0.1351;
350.4000;1.1005;0.1374;
350.7000;1.1005;0.1374;
351.0000;1.0989;0.1374;
351.3000;1.0956;0.1374;
351.6000;1.0956;0.1327;
351.9000;1.0997;0.1445;
352.2000;1.1013;0.1398;
352.5000;1.0997;0.1374;
352.8000;1.0989;0.1327;
353.1000;1.0997;0.1398;
353.4000;1.1005;0.1398;
353.7000;1.0989;0.1422;
354.0000;1.1005;0.1469;
354.3000;1.1005;0.1398;
354.6000;1.1013;0.1469;
354.9000;1.1005;0.1422;
355.2000;1.0997;0.1398;
355.5000;1.1022;0.1445;
355.8000;1.1087;0.1564;
356.1000;1.0997;0.1445;
356.4000;1.1013;0.1493;
356.7000;1.1038;0.1564;
357.0000;1.1013;0.1540;
357.3000;1.1022;0.1564;
357.6000;1.1030;0.1635;
357.9000;1.1013;0.1659;
358.2000;1.1005;0.1587;
358.5000;1.0997;0.1540;
358.8000;1.1013;0.1587;
359.1000;1.1013;0.1540;
359.4000;1.0997;0.1516;
359.7000;1.1005;0.1516;
360.0000;1.1005;0.1516;
360.3000;1.0956;0.1422;
360.6000;1.0981;0.1445;
360.9000;1.0981;0.1398;
361.2000;1.0997;0.1493;
361.5000;1.0981;0.1445;
361.8000;1.0997;0.1445;
362.1000;1.0989;0.1374;
362.4000;1.1005;0.1398;
362.7000;1.1013;0.1422;
363.0000;1.0997;0.1303;
363.3000;1.0973;0.1232;
363.6000;1.1022;0.1303;
363.9000;1.1013;0.1303;
364.2000;1.1013;0.1351;
364.5000;1.1005;0.1398;
364.8000;1.1005;0.1422;
365.1000;1.1013;0.1422;
365.4000;1.0997;0.1445;
365.7000;1.0981;0.1351;
366.0000;1.0956;0.1327;
366.3000;1.1013;0.1469;
366.6000;1.1005;0.1564;
366.9000;1.0981;0.1540;
367.2000;1.0948;0.1445;
367.5000;1.1013;0.1587;
367.8000;1.0997;0.1587;
368.1000;1.0989;0.1516;
368.4000;1.0997;0.1493;
368.7000;1.1013;0.1516;
369.0000;1.1005;0.1422;
369.3000;1.1013;0.1422;
369.6000;1.1013;0.1422;
369.9000;1.1022;0.1493;
370.2000;1.1013;0.1445;
370.5000;1.0997;0.1327;
370.8000;1.0989;0.1303;
371.1000;1.1013;0.1374;
371.4000;1.1013;0.1374;
371.7000;1.1005;0.1374;
372.0000;1.1022;0.1422;
372.3000;1.1005;0.1445;
372.6000;1.1030;0.1493;
372.9000;1.0989;0.1327;
373.2000;1.1030;0.1398;
373.5000;1.1095;0.1564;
373.8000;1.1013;0.1445;
374.1000;1.1013;0.1516;
374.4000;1.1022;0.1564;
374.7000;1.0997;0.1516;
375.0000;1.1005;0.1516;
375.3000;1.0932;0.1351;
375.6000;1.1005;0.1469;
375.9000;1.1022;0.1445;
376.2000;1.1005;0.1422;
376.5000;1.1030;0.1493;
376.8000;1.1005;0.1516;
377.1000;1.1038;0.1659;
377.4000;1.1005;0.1564;
377.7000;1.1038;0.1682;
378.0000;1.1013;0.1706;
378.3000;1.0997;0.1635;
378.6000;1.0981;0.1516;
378.9000;1.0981;0.1611;
379.2000;1.0997;0.1682;
379.5000;1.1013;0.1706;
379.8000;1.1013;0.1635;
380.1000;1.0997;0.1587;
380.4000;1.0989;0.1635;
380.7000;1.0973;0.1611;
381.0000;1.0981;0.1587;
381.3000;1.1005;0.1564;
381.6000;1.0940;0.1398;
381.9000;1.1005;0.1540;
382.2000;1.0997;0.1564;
382.5000;1.1046;0.1611;
382.8000;1.0997;0.1422;
383.1000;1.0997;0.1445;
383.4000;1.1095;0.1635;
383.7000;1.0997;0.1398;
384.0000;1.1013;0.1516;
384.3000;1.1030;0.1493;
384.6000;1.1022;0.1493;
384.9000;1.1005;0.1469;
385.2000;1.1013;0.1445;
385.5000;1.0997;0.1493;
385.8000;1.0997;0.1493;
386.1000;1.0989;0.1445;
386.4000;1.1005;0.1469;
386.7000;1.1005;0.1469;
387.0000;1.0989;0.1422;
387.3000;1.1046;0.1611;
387.6000;1.1005;0.1469;
387.9000;1.0997;0.1516;
388.2000;1.0989;0.1516;
388.5000;1.0989;0.1540;
388.8000;1.0997;0.1516;
389.1000;1.0997;0.1659;
389.4000;1.1005;0.1587;
389.7000;1.0997;0.1611;
390.0000;1.1022;0.1564;
390.3000;1.1095;0.1777;
390.6000;1.1013;0.1611;
390.9000;1.1022;0.1635;
391.2000;1.1030;0.1635;
391.5000;1.1013;0.1540;
391.8000;1.1005;0.1493;
392.1000;1.0981;0.1422;
392.4000;1.0997;0.1469;
392.7000;1.0981;0.1469;
393.0000;1.0973;0.1445;
393.3000;1.1013;0.1540;
393.6000;1.1005;0.1493;
393.9000;1.0997;0.1540;
394.2000;1.1005;0.1516;
394.5000;1.1013;0.1540;
394.8000;1.1005;0.1516;
395.1000;1.0916;0.1327;
395.4000;1.1030;0.1706;
395.7000;1.1013;0.1564;
396.0000;1.1013;0.1516;
396.3000;1.0989;0.1469;
396.6000;1.0997;0.1516;
396.9000;1.0981;0.1445;
397.2000;1.1013;0.1445;
397.5000;1.1022;0.1374;
397.8000;1.1013;0.1374;
398.1000;1.0997;0.1422;
398.4000;1.1030;0.1398;
398.7000;1.1005;0.1327;
399.0000;1.1022;0.1445;
399.3000;1.1013;0.1445;
399.6000;1.1013;0.1493;
399.9000;1.1022;0.1469;
400.2000;1.0965;0.1303;
400.5000;1.0916;0.1185;
400.8000;1.1013;0.1374;
401.1000;1.1022;0.1351;
401.4000;1.1022;0.1398;
401.7000;1.1038;0.1327;
402.0000;1.0997;0.1351;
402.3000;1.0997;0.1422;
402.6000;1.1013;0.1493;
402.9000;1.1062;0.1540;
403.2000;1.1005;0.1398;
403.5000;1.1062;0.1493;
403.8000;1.1005;0.1351;
404.1000;1.1070;0.1516;
404.4000;1.1005;0.1327;
404.7000;1.1005;0.1374;
405.0000;1.1005;0.1422;
405.3000;1.0981;0.1422;
405.6000;1.1038;0.1540;
405.9000;1.1013;0.1351;
406.2000;1.1030;0.1422;
406.5000;1.0981;0.1374;
406.8000;1.0997;0.1422;
407.1000;1.1005;0.1374;
407.4000;1.1062;0.1445;
407.7000;1.1005;0.1279;
408.0000;1.0997;0.1303;
408.3000;1.0989;0.1256;
408.6000;1.0989;0.1256;
408.9000;1.0997;0.1303;
409.2000;1.0981;0.1279;
409.5000;1.0989;0.1303;
409.8000;1.1013;0.1422;
410.1000;1.1005;0.1374;
410.4000;1.1005;0.1445;
410.7000;1.1005;0.1469;
411.0000;1.1013;0.1493;
411.3000;1.0997;0.1516;
411.6000;1.0989;0.1445;
411.9000;1.0989;0.1445;
412.2000;1.0997;0.1540;
412.5000;1.0997;0.1564;
412.8000;1.0989;0.1564;
413.1000;1.0989;0.1516;
413.4000;1.0997;0.1564;
413.7000;1.1013;0.1564;
414.0000;1.1022;0.1611;
414.3000;1.0981;0.1516;
414.6000;1.1030;0.1611;
414.9000;1.1005;0.1611;
415.2000;1.1022;0.1659;
415.5000;1.0989;0.1635;
415.8000;1.0997;0.1706;
416.1000;1.1046;0.1777;
416.4000;1.0989;0.1540;
416.7000;1.1005;0.1493;
417.0000;1.1005;0.1564;
417.3000;1.1013;0.1682;
417.6000;1.0997;0.1659;
417.9000;1.0981;0.1659;
418.2000;1.1005;0.1659;
418.5000;1.0989;0.1564;
418.8000;1.0989;0.1540;
419.1000;1.0973;0.1445;
419.4000;1.0973;0.1445;
419.7000;1.0989;0.1422;
420.0000;1.0997;0.1422;
420.3000;1.1030;0.1398;
420.6000;1.1038;0.1445;
420.9000;1.1013;0.1445;
421.2000;1.1054;0.1611;
421.5000;1.1022;0.1564;
421.8000;1.1022;0.1611;
422.1000;1.1022;0.1564;
422.4000;1.1005;0.1469;
422.7000;1.0997;0.1327;
423.0000;1.1005;0.1374;
423.3000;1.1046;0.1540;
423.6000;1.0940;0.1303;
423.9000;1.0997;0.1445;
424.2000;1.1038;0.1493;
424.5000;1.1005;0.1351;
424.8000;1.0940;0.1327;
425.1000;1.1038;0.1635;
425.4000;1.1005;0.1564;
425.7000;1.0973;0.1445;
426.0000;1.1013;0.1445;
426.3000;1.0989;0.1422;
426.6000;1.1013;0.1469;
426.9000;1.1005;0.1422;
427.2000;1.0997;0.1445;
427.5000;1.1005;0.1445;
427.8000;1.1005;0.1469;
428.1000;1.0981;0.1516;
428.4000;1.0997;0.1422;
428.7000;1.0981;0.1398;
429.0000;1.1013;0.1516;
429.3000;1.1022;0.1540;
429.6000;1.1013;0.1587;
429.9000;1.0997;0.1635;
430.2000;1.0924;0.1445;
430.5000;1.1013;0.1706;
430.8000;1.1013;0.1587;
431.1000;1.1079;0.1706;
431.4000;1.1005;0.1540;
431.7000;1.0997;0.1635;
432.0000;1.1013;0.1635;
432.3000;1.1005;0.1635;
432.6000;1.0989;0.1564;
432.9000;1.1013;0.1611;
433.2000;1.1013;0.1564;
433.5000;1.0989;0.1469;
433.8000;1.0956;0.1303;
434.1000;1.0981;0.1422;
434.4000;1.0997;0.1587;
434.7000;1.0981;0.1659;
435.0000;1.0989;0.1635;
435.3000;1.0973;0.1540;
435.6000;1.1005;0.1587;
435.9000;1.0997;0.1540;
436.2000;1.0989;0.1564;
436.5000;1.0989;0.1540;
436.8000;1.0997;0.1564;
437.1000;1.0948;0.1422;
437.4000;1.0997;0.1516;
437.7000;1.0973;0.1516;
438.0000;1.0997;0.1706;
438.3000;1.1005;0.1659;
438.6000;1.0981;0.1587;
438.9000;1.0989;0.1611;
439.2000;1.0981;0.1516;
439.5000;1.0981;0.1516;
439.8000;1.0981;0.1469;
440.1000;1.0997;0.1398;
440.4000;1.0973;0.1351;
440.7000;1.0956;0.1279;
441.0000;1.0989;0.1445;
441.3000;1.1005;0.1564;
441.6000;1.0924;0.1469;
441.9000;1.0981;0.1540;
442.2000;1.0997;0.1516;
442.5000;1.0997;0.1516;
442.8000;1.1062;0.1706;
443.1000;1.1013;0.1540;
443.4000;1.1070;0.1611;
443.7000;1.1013;0.1445;
444.0000;1.0997;0.1327;
444.3000;1.1013;0.1303;
444.6000;1.1030;0.1303;
444.9000;1.1013;0.1327;
445.2000;1.0997;0.1351;
445.5000;1.0965;0.1279;
445.8000;1.1087;0.1659;
446.1000;1.0989;0.1422;
446.4000;1.0948;0.1279;
446.7000;1.1013;0.1445;
447.0000;1.0989;0.1445;
447.3000;1.0997;0.1469;
447.6000;1.1013;0.1422;
447.9000;1.0989;0.1422;
448.2000;1.1013;0.1493;
448.5000;1.0989;0.1445;
448.8000;1.0981;0.1493;
449.1000;1.1030;0.1635;
449.4000;1.0989;0.1564;
449.7000;1.0956;0.1587;
450.0000;1.0989;0.1611;
450.3000;1.0981;0.1516;
450.6000;1.1022;0.1611;
450.9000;1.0997;0.1587;
451.2000;1.0997;0.1587;
451.5000;1.0973;0.1564;
451.8000;1.0997;0.1493;
452.1000;1.0981;0.1469;
452.4000;1.1005;0.1564;
452.7000;1.1005;0.1564;
453.0000;1.0973;0.1445;
453.3000;1.0981;0.1611;
453.6000;1.0981;0.1564;
453.9000;1.0989;0.1587;
454.2000;1.0989;0.1611;
454.5000;1.0989;0.1587;
454.8000;1.0989;0.1587;
455.1000;1.0997;0.1682;
455.4000;1.0989;0.1659;
455.7000;1.1005;0.1706;
456.0000;1.0989;0.1635;
456.3000;1.0997;0.1682;
456.6000;1.0989;0.1682;
456.9000;1.0997;0.1659;
457.2000;1.1005;0.1682;
457.5000;1.0997;0.1611;
457.8000;1.1005;0.1611;
458.1000;1.1038;0.1587;
458.4000;1.1005;0.1635;
458.7000;1.1005;0.1706;
459.0000;1.0997;0.1706;
459.3000;1.1030;0.1706;
459.6000;1.0997;0.1516;
459.9000;1.0989;0.1516;
460.2000;1.0997;0.1540;
460.5000;1.0981;0.1540;
460.8000;1.0973;0.1564;
461.1000;1.0997;0.1682;
461.4000;1.0989;0.1730;
461.7000;1.0989;0.1777;
462.0000;1.1046;0.1895;
462.3000;1.0989;0.1801;
462.6000;1.1013;0.1824;
462.9000;1.1005;0.1848;
463.2000;1.0973;0.1777;
463.5000;1.1005;0.1777;
463.8000;1.0997;0.1777;
464.1000;1.0989;0.1824;
464.4000;1.0981;0.1777;
464.7000;1.1046;0.1919;
465.0000;1.0997;0.1801;
465.3000;1.0997;0.1777;
465.6000;1.0989;0.1730;
465.9000;1.0989;0.1706;
466.2000;1.0989;0.1564;
466.5000;1.0965;0.1493;
466.8000;1.0981;0.1493;
467.1000;1.0981;0.1564;
467.4000;1.0989;0.1540;
467.7000;1.0989;0.1540;
468.0000;1.1005;0.1516;
468.3000;1.0997;0.1469;
468.6000;1.1005;0.1445;
468.9000;1.1005;0.1445;
469.2000;1.1062;0.1659;
469.5000;1.0989;0.1659;
469.8000;1.1022;0.1682;
470.1000;1.0973;0.1564;
470.4000;1.1013;0.1564;
470.7000;1.0997;0.1587;
471.0000;1.0989;0.1564;
471.3000;1.0981;0.1611;
471.6000;1.1022;0.1777;
471.9000;1.0989;0.1753;
472.2000;1.0973;0.1730;
472.5000;1.0989;0.1753;
472.8000;1.0989;0.1682;
473.1000;1.0989;0.1753;
473.4000;1.0981;0.1848;
473.7000;1.0989;0.1730;
474.0000;1.0989;0.1730;
474.3000;1.1005;0.1824;
474.6000;1.1005;0.1777;
474.9000;1.0997;0.1801;
475.2000;1.0997;0.1753;
475.5000;1.0948;0.1611;
475.8000;1.0989;0.1753;
476.1000;1.1005;0.1753;
476.4000;1.0997;0.1824;
476.7000;1.1022;0.1895;
477.0000;1.0989;0.1730;
477.3000;1.0973;0.1777;
477.6000;1.0989;0.1682;
477.9000;1.1062;0.1848;
478.2000;1.0981;0.1682;
478.5000;1.0997;0.1682;
478.8000;1.0981;0.1730;
479.1000;1.0981;0.1753;
479.4000;1.1005;0.1730;
479.7000;1.1013;0.1753;
480.0000;1.0989;0.1706;
480.3000;1.0997;0.1824;
480.6000;1.1005;0.1848;
480.9000;1.1022;0.1943;
481.2000;1.0981;0.1824;
481.5000;1.1005;0.1872;
481.8000;1.0997;0.1777;
482.1000;1.1005;0.1753;
482.4000;1.0989;0.1777;
482.7000;1.0981;0.1706;
483.0000;1.0965;0.1706;
483.3000;1.0924;0.1587;
483.6000;1.0997;0.1659;
483.9000;1.0981;0.1516;
484.2000;1.1005;0.1587;
484.5000;1.0997;0.1659;
484.8000;1.1005;0.1706;
485.1000;1.1013;0.1706;
485.4000;1.1013;0.1730;
485.7000;1.0973;0.1753;
486.0000;1.0989;0.1872;
486.3000;1.0965;0.1706;
486.6000;1.0989;0.1659;
486.9000;1.0981;0.1587;
487.2000;1.0997;0.1706;
487.5000;1.0981;0.1753;
487.8000;1.0981;0.1753;
488.1000;1.0989;0.1730;
488.4000;1.0989;0.1777;
488.7000;1.0973;0.1706;
489.0000;1.0973;0.1659;
489.3000;1.1005;0.1635;
489.6000;1.1005;0.1611;
489.9000;1.1022;0.1706;
490.2000;1.1013;0.1635;
490.5000;1.1087;0.1872;
490.8000;1.0973;0.1611;
491.1000;1.0989;0.1611;
491.4000;1.0997;0.1635;
491.7000;1.0956;0.1564;
492.0000;1.0997;0.1540;
492.3000;1.0981;0.1493;
492.6000;1.0965;0.1445;
492.9000;1.0997;0.1564;
493.2000;1.1022;0.1635;
493.5000;1.1005;0.1753;
493.8000;1.0965;0.1659;
494.1000;1.0989;0.1682;
494.4000;1.0997;0.1635;
494.7000;1.0997;0.1587;
495.0000;1.0997;0.1516;
495.3000;1.0997;0.1540;
495.6000;1.0948;0.1493;
495.9000;1.0989;0.1635;
496.2000;1.0989;0.1587;
496.5000;1.1013;0.1611;
496.8000;1.0989;0.1587;
497.1000;1.0973;0.1635;
497.4000;1.0989;0.1635;
497.7000;1.1062;0.1801;
498.0000;1.0981;0.1682;
498.3000;1.0997;0.1777;
498.6000;1.0973;0.1824;
498.9000;1.0989;0.1753;
499.2000;1.0981;0.1753;
499.5000;1.1062;0.1943;
499.8000;1.0989;0.1777;
500.1000;1.1005;0.1777;
500.4000;1.0981;0.1706;
500.7000;1.0956;0.1587;
501.0000;1.0997;0.1682;
501.3000;1.0997;0.1706;
501.6000;1.0981;0.1659;
501.9000;1.1013;0.1611;
502.2000;1.0989;0.1635;
502.5000;1.1005;0.1730;
502.8000;1.0989;0.1682;
503.1000;1.0973;0.1706;
503.4000;1.0981;0.1611;
503.7000;1.0997;0.1659;
504.0000;1.0973;0.1706;
504.3000;1.0965;0.1706;
504.6000;1.0997;0.1753;
504.9000;1.0989;0.1801;
505.2000;1.1013;0.1824;
505.5000;1.0989;0.1730;
505.8000;1.1005;0.1777;
506.1000;1.0997;0.1659;
506.4000;1.1005;0.1659;
506.7000;1.0981;0.1587;
507.0000;1.1005;0.1635;
507.3000;1.0997;0.1635;
507.6000;1.0989;0.1682;
507.9000;1.0981;0.1730;
508.2000;1.0981;0.1706;
508.5000;1.0981;0.1730;
508.8000;1.0989;0.1824;
509.1000;1.0973;0.1801;
509.4000;1.0989;0.1824;
509.7000;1.0973;0.1659;
510.0000;1.0981;0.1682;
510.3000;1.0981;0.1777;
510.6000;1.0973;0.1895;
510.9000;1.0981;0.1872;
511.2000;1.0997;0.1777;
511.5000;1.1054;0.1872;
511.8000;1.0989;0.1730;
512.1000;1.0997;0.1753;
512.4000;1.0989;0.1730;
512.7000;1.0997;0.1777;
513.0000;1.0981;0.1777;
513.3000;1.0981;0.1753;
513.6000;1.1013;0.1777;
513.9000;1.0973;0.1706;
514.2000;1.0973;0.1706;
514.5000;1.0997;0.1824;
514.8000;1.0981;0.1777;
515.1000;1.0965;0.1801;
515.4000;1.0973;0.1824;
515.7000;1.0948;0.1801;
516.0000;1.0989;0.1872;
516.3000;1.0989;0.1848;
516.6000;1.0973;0.1848;
516.9000;1.1062;0.1990;
517.2000;1.0981;0.1848;
517.5000;1.0997;0.1824;
517.8000;1.0973;0.1824;
518.1000;1.0989;0.1848;
518.4000;1.0989;0.1824;
518.7000;1.1062;0.1943;
519.0000;1.1013;0.1848;
519.3000;1.0973;0.1919;
519.6000;1.0997;0.1967;
519.9000;1.0989;0.1872;
520.2000;1.0981;0.1753;
520.5000;1.0973;0.1635;
520.8000;1.0989;0.1706;
521.1000;1.0989;0.1872;
521.4000;1.0981;0.1895;
521.7000;1.0940;0.1777;
522.0000;1.0997;0.1919;
522.3000;1.0981;0.1824;
522.6000;1.0997;0.1777;
522.9000;1.1013;0.1801;
523.2000;1.0989;0.1777;
523.5000;1.0997;0.1753;
523.8000;1.0981;0.1706;
524.1000;1.0965;0.1706;
524.4000;1.0997;0.1682;
524.7000;1.0981;0.1682;
525.0000;1.0989;0.1706;
525.3000;1.1022;0.1848;
525.6000;1.0981;0.1659;
525.9000;1.0965;0.1635;
526.2000;1.0989;0.1824;
526.5000;1.1005;0.1919;
526.8000;1.1079;0.1990;
527.1000;1.1013;0.1753;
527.4000;1.0989;0.1801;
527.7000;1.1013;0.1872;
528.0000;1.1005;0.1801;
528.3000;1.1013;0.1753;
528.6000;1.0989;0.1682;
528.9000;1.0981;0.1730;
529.2000;1.0989;0.1753;
529.5000;1.0989;0.1706;
529.8000;1.0989;0.1777;
530.1000;1.0973;0.1753;
530.4000;1.1046;0.1919;
530.7000;1.0981;0.1777;
531.0000;1.0965;0.1730;
531.3000;1.0973;0.1753;
531.6000;1.0997;0.1824;
531.9000;1.1013;0.1895;
532.2000;1.0940;0.1706;
532.5000;1.0956;0.1730;
532.8000;1.0981;0.1659;
533.1000;1.0997;0.1635;
533.4000;1.0981;0.1753;
533.7000;1.1013;0.1801;
534.0000;1.0981;0.1753;
534.3000;1.0973;0.1753;
534.6000;1.1005;0.1777;
534.9000;1.0981;0.1777;
535.2000;1.0916;0.1706;
535.5000;1.0997;0.1990;
535.8000;1.0989;0.1967;
536.1000;1.0997;0.1895;
536.4000;1.0965;0.1919;
536.7000;1.0965;0.1872;
537.0000;1.0989;0.1872;
537.3000;1.0924;0.1706;
537.6000;1.0956;0.1872;
537.9000;1.0973;0.1943;
538.2000;1.1013;0.2061;
538.5000;1.0981;0.1919;
538.8000;1.1087;0.2109;
539.1000;1.0965;0.1753;
539.4000;1.0940;0.1659;
539.7000;1.0989;0.1706;
540.0000;1.0973;0.1659;
540.3000;1.0973;0.1659;
540.6000;1.0948;0.1635;
540.9000;1.1022;0.1919;
541.2000;1.0989;0.1824;
541.5000;1.0989;0.1753;
541.8000;1.0973;0.1635;
542.1000;1.0989;0.1706;
542.4000;1.0973;0.1801;
542.7000;1.0989;0.1801;
543.0000;1.0981;0.1777;
543.3000;1.0981;0.1801;
543.6000;1.0997;0.1872;
543.9000;1.0973;0.1824;
544.2000;1.0981;0.1777;
544.5000;1.0981;0.1706;
544.8000;1.0973;0.1659;
545.1000;1.0956;0.1587;
545.4000;1.0973;0.1564;
545.7000;1.0973;0.1564;
546.0000;1.0973;0.1587;
546.3000;1.1005;0.1753;
546.6000;1.0981;0.1706;
546.9000;1.0965;0.1706;
547.2000;1.0973;0.1730;
547.5000;1.0973;0.1777;
547.8000;1.1038;0.1919;
548.1000;1.0981;0.1824;
548.4000;1.0973;0.1753;
548.7000;1.0973;0.1659;
549.0000;1.0997;0.1564;
549.3000;1.0997;0.1564;
549.6000;1.1005;0.1587;
549.9000;1.1005;0.1611;
550.2000;1.0973;0.1635;
550.5000;1.0989;0.1611;
550.8000;1.0989;0.1635;
551.1000;1.0989;0.1682;
551.4000;1.0997;0.1777;
551.7000;1.0973;0.1777;
552.0000;1.0997;0.1824;
552.3000;1.0997;0.1777;
552.6000;1.0989;0.1777;
552.9000;1.1013;0.1824;
553.2000;1.0981;0.1777;
553.5000;1.0997;0.1801;
553.8000;1.0981;0.1801;
554.1000;1.0997;0.1753;
554.4000;1.0981;0.1824;
554.7000;1.0965;0.1801;
555.0000;1.0989;0.1824;
555.3000;1.0989;0.1730;
555.6000;1.0997;0.1611;
555.9000;1.0948;0.1422;
556.2000;1.1038;0.1706;
556.5000;1.0981;0.1516;
556.8000;1.0965;0.1422;
557.1000;1.0989;0.1540;
557.4000;1.0989;0.1635;
557.7000;1.0989;0.1682;
558.0000;1.0989;0.1682;
558.3000;1.0973;0.1682;
558.6000;1.0989;0.1706;
558.9000;1.0973;0.1493;
559.2000;1.0981;0.1445;
559.5000;1.1038;0.1540;
559.8000;1.0989;0.1516;
560.1000;1.0981;0.1540;
560.4000;1.0989;0.1587;
560.7000;1.0989;0.1611;
561.0000;1.0981;0.1564;
561.3000;1.0989;0.1611;
561.6000;1.0989;0.1540;
561.9000;1.0973;0.1564;
562.2000;1.0973;0.1564;
562.5000;1.0989;0.1635;
562.8000;1.0989;0.1635;
563.1000;1.0989;0.1706;
563.4000;1.0965;0.1611;
563.7000;1.0965;0.1611;
564.0000;1.0981;0.1682;
564.3000;1.0989;0.1587;
564.6000;1.1005;0.1469;
564.9000;1.0973;0.1445;
565.2000;1.0948;0.1398;
565.5000;1.0997;0.1540;
565.8000;1.0981;0.1540;
566.1000;1.0973;0.1564;
566.4000;1.0981;0.1611;
566.7000;1.0973;0.1587;
567.0000;1.0965;0.1493;
567.3000;1.0965;0.1469;
567.6000;1.0997;0.1635;
567.9000;1.0981;0.1587;
568.2000;1.0989;0.1706;
568.5000;1.0981;0.1706;
568.8000;1.0973;0.1753;
569.1000;1.0916;0.1540;
569.4000;1.0973;0.1611;
569.7000;1.0989;0.1540;
570.0000;1.0981;0.1516;
570.3000;1.0997;0.1564;
570.6000;1.0997;0.1611;
570.9000;1.0981;0.1540;
571.2000;1.0956;0.1469;
571.5000;1.0965;0.1493;
571.8000;1.0981;0.1587;
572.1000;1.0973;0.1682;
572.4000;1.0981;0.1706;
572.7000;1.0965;0.1682;
573.0000;1.0981;0.1777;
573.3000;1.0973;0.1777;
573.6000;1.0981;0.1777;
573.9000;1.0973;0.1753;
574.2000;1.0948;0.1564;
574.5000;1.0997;0.1659;
574.8000;1.0981;0.1611;
575.1000;1.0973;0.1706;
575.4000;1.0973;0.1801;
575.7000;1.0981;0.1895;
576.0000;1.0973;0.1990;
576.3000;1.0997;0.2109;
576.6000;1.0973;0.2014;
576.9000;1.0997;0.2014;
577.2000;1.0973;0.2014;
577.5000;1.0965;0.2061;
577.8000;1.0965;0.1990;
578.1000;1.1022;0.2038;
578.4000;1.0965;0.1872;
578.7000;1.0956;0.1848;
579.0000;1.0965;0.1753;
579.3000;1.0973;0.1848;
579.6000;1.0981;0.1872;
579.9000;1.0981;0.1848;
580.2000;1.0948;0.1801;
580.5000;1.0965;0.1824;
580.8000;1.0973;0.1895;
581.1000;1.0973;0.1848;
581.4000;1.0965;0.1801;
581.7000;1.0965;0.1777;
582.0000;1.0989;0.1872;
582.3000;1.0981;0.1872;
582.6000;1.0973;0.1872;
582.9000;1.0956;0.1895;
583.2000;1.0965;0.2014;
583.5000;1.0973;0.1895;
583.8000;1.0965;0.1801;
584.1000;1.0965;0.1824;
584.4000;1.0981;0.1824;
584.7000;1.0965;0.1848;
585.0000;1.0916;0.1753;
585.3000;1.0989;0.1848;
585.6000;1.0965;0.1777;
585.9000;1.0973;0.1848;
586.2000;1.0981;0.1967;
586.5000;1.0965;0.1824;
586.8000;1.0989;0.1848;
587.1000;1.0956;0.1824;
587.4000;1.0973;0.1919;
587.7000;1.0956;0.1872;
588.0000;1.0965;0.1895;
588.3000;1.0948;0.1872;
588.6000;1.0981;0.1872;
588.9000;1.0956;0.1872;
589.2000;1.0973;0.1990;
589.5000;1.0981;0.1943;
589.8000;1.0973;0.1872;
590.1000;1.1013;0.2061;
590.4000;1.0989;0.2085;
590.7000;1.1005;0.2156;
591.0000;1.0997;0.2156;
591.3000;1.0989;0.2180;
591.6000;1.0989;0.2109;
591.9000;1.0981;0.2085;
592.2000;1.0989;0.2132;
592.5000;1.0965;0.2180;
592.8000;1.0965;0.2109;
593.1000;1.0948;0.2014;
593.4000;1.0989;0.2014;
593.7000;1.0989;0.1990;
594.0000;1.0981;0.1919;
594.3000;1.0989;0.1824;
594.6000;1.0989;0.1848;
594.9000;1.0965;0.1848;
595.2000;1.0981;0.1919;
595.5000;1.0989;0.1872;
595.8000;1.0981;0.1753;
596.1000;1.1005;0.1730;
596.4000;1.0989;0.1682;
596.7000;1.0989;0.1753;
597.0000;1.0916;0.1659;
597.3000;1.0973;0.1777;
597.6000;1.0973;0.1753;
597.9000;1.0981;0.1824;
598.2000;1.0965;0.1895;
598.5000;1.0989;0.1919;
598.8000;1.0997;0.1919;
599.1000;1.0981;0.1895;
599.4000;1.0989;0.1895;
599.7000;1.0981;0.1872;
600.0000;1.0973;0.1848;
600.3000;1.0989;0.1611;
600.6000;1.0965;0.1327;
600.9000;1.0899;0.1042;
601.2000;1.0842;0.0829;
601.5000;1.0745;0.0592;
601.8000;1.0647;0.0261;
602.1000;1.0549;-0.0118;
602.4000;1.0533;-0.0118;
602.7000;1.0387;-0.0426;
603.0000;1.0305;-0.0687;
603.3000;1.0224;-0.0924;
603.6000;1.0208;-0.0829;
603.9000;1.0037;-0.1208;
604.2000;1.0037;-0.1185;
604.5000;1.0020;-0.1256;
604.8000;0.9890;-0.1398;
605.1000;0.9841;-0.1469;
605.4000;0.9776;-0.1445;
605.7000;0.9735;-0.1564;
606.0000;0.9678;-0.1611;
606.3000;0.9613;-0.1706;
606.6000;0.9589;-0.1730;
606.9000;0.9524;-0.1801;
607.2000;0.9418;-0.2038;
607.5000;0.9418;-0.1967;
607.8000;0.9418;-0.2038;
608.1000;0.9418;-0.2109;
608.4000;0.9328;-0.2298;
608.7000;0.9280;-0.2346;
609.0000;0.9231;-0.2322;
609.3000;0.9198;-0.2369;
609.6000;0.9149;-0.2417;
609.9000;0.9133;-0.2464;
610.2000;0.9117;-0.2488;
610.5000;0.9076;-0.2511;
610.8000;0.9068;-0.2417;
611.1000;0.9003;-0.2417;
611.4000;0.8987;-0.2393;
611.7000;0.8946;-0.2346;
612.0000;0.8954;-0.2298;
612.3000;0.8889;-0.2440;
612.6000;0.8856;-0.2417;
612.9000;0.8832;-0.2298;
613.2000;0.8824;-0.2322;
613.5000;0.8759;-0.2464;
613.8000;0.8734;-0.2440;
614.1000;0.8694;-0.2583;
614.4000;0.8710;-0.2535;
614.7000;0.8669;-0.2559;
615.0000;0.8604;-0.2654;
615.3000;0.8645;-0.2511;
615.6000;0.8596;-0.2583;
615.9000;0.8580;-0.2559;
616.2000;0.8547;-0.2583;
616.5000;0.8563;-0.2488;
616.8000;0.8514;-0.2417;
617.1000;0.8482;-0.2464;
617.4000;0.8474;-0.2464;
617.7000;0.8466;-0.2464;
618.0000;0.8449;-0.2535;
618.3000;0.8417;-0.2583;
618.6000;0.8368;-0.2654;
618.9000;0.8376;-0.2654;
619.2000;0.8368;-0.2677;
619.5000;0.8368;-0.2725;
619.8000;0.8335;-0.2772;
620.1000;0.8295;-0.2748;
620.4000;0.8238;-0.2914;
620.7000;0.8278;-0.2748;
621.0000;0.8238;-0.2891;
621.3000;0.8270;-0.2891;
621.6000;0.8230;-0.2985;
621.9000;0.8238;-0.2938;
622.2000;0.8287;-0.2867;
622.5000;0.8181;-0.3033;
622.8000;0.8197;-0.2891;
623.1000;0.8164;-0.2962;
623.4000;0.8148;-0.3056;
623.7000;0.8132;-0.3056;
624.0000;0.8107;-0.3127;
624.3000;0.8091;-0.3127;
624.6000;0.8091;-0.3104;
624.9000;0.8059;-0.3151;
625.2000;0.8059;-0.3080;
625.5000;0.8042;-0.3033;
625.8000;0.8034;-0.3104;
626.1000;0.8002;-0.3127;
626.4000;0.7993;-0.3175;
626.7000;0.7977;-0.3127;
627.0000;0.7993;-0.3033;
627.3000;0.7977;-0.2962;
627.6000;0.7953;-0.2938;
627.9000;0.7993;-0.2772;
628.2000;0.7961;-0.2819;
628.5000;0.7953;-0.2891;
628.8000;0.8002;-0.2772;
629.1000;0.7904;-0.3033;
629.4000;0.7945;-0.2891;
629.7000;0.7880;-0.3104;
630.0000;0.7871;-0.3056;
630.3000;0.7912;-0.2938;
630.6000;0.7880;-0.2867;
630.9000;0.7896;-0.2819;
631.2000;0.7814;-0.3009;
631.5000;0.7831;-0.2914;
631.8000;0.7831;-0.2891;
632.1000;0.7806;-0.2985;
632.4000;0.7757;-0.3127;
632.7000;0.7798;-0.3033;
633.0000;0.7790;-0.3033;
633.3000;0.7782;-0.3151;
633.6000;0.7831;-0.3009;
633.9000;0.7766;-0.3104;
634.2000;0.7741;-0.3080;
634.5000;0.7757;-0.3033;
634.8000;0.7741;-0.3009;
635.1000;0.7700;-0.3080;
635.4000;0.7709;-0.3056;
635.7000;0.7725;-0.3056;
636.0000;0.7700;-0.3104;
636.3000;0.7692;-0.3127;
636.6000;0.7692;-0.3127;
636.9000;0.7676;-0.3056;
637.2000;0.7627;-0.3246;
637.5000;0.7643;-0.3104;
637.8000;0.7643;-0.3104;
638.1000;0.7676;-0.2985;
638.4000;0.7635;-0.3127;
638.7000;0.7643;-0.3222;
639.0000;0.7619;-0.3270;
639.3000;0.7611;-0.3270;
639.6000;0.7595;-0.3175;
639.9000;0.7586;-0.3104;
640.2000;0.7603;-0.3080;
640.5000;0.7570;-0.3127;
640.8000;0.7554;-0.3175;
641.1000;0.7570;-0.3080;
641.4000;0.7554;-0.3151;
641.7000;0.7554;-0.3175;
642.0000;0.7530;-0.3246;
642.3000;0.7530;-0.3246;
642.6000;0.7530;-0.3127;
642.9000;0.7538;-0.2962;
643.2000;0.7505;-0.3009;
643.5000;0.7521;-0.3033;
643.8000;0.7505;-0.3033;
644.1000;0.7513;-0.2962;
644.4000;0.7497;-0.3056;
644.7000;0.7497;-0.3175;
645.0000;0.7489;-0.3151;
645.3000;0.7407;-0.3293;
645.6000;0.7448;-0.3151;
645.9000;0.7424;-0.3104;
646.2000;0.7464;-0.2938;
646.5000;0.7432;-0.3033;
646.8000;0.7440;-0.3056;
647.1000;0.7456;-0.3033;
647.4000;0.7432;-0.2985;
647.7000;0.7432;-0.2962;
648.0000;0.7416;-0.2985;
648.3000;0.7407;-0.3009;
648.6000;0.7416;-0.2985;
648.9000;0.7399;-0.3080;
649.2000;0.7399;-0.2938;
649.5000;0.7391;-0.3033;
649.8000;0.7407;-0.3080;
650.1000;0.7391;-0.3056;
650.4000;0.7391;-0.3033;
650.7000;0.7375;-0.3104;
651.0000;0.7375;-0.3033;
651.3000;0.7367;-0.2938;
651.6000;0.7359;-0.2985;
651.9000;0.7342;-0.3056;
652.2000;0.7334;-0.3033;
652.5000;0.7334;-0.3175;
652.8000;0.7359;-0.3199;
653.1000;0.7318;-0.3317;
653.4000;0.7342;-0.3246;
653.7000;0.7334;-0.3246;
654.0000;0.7342;-0.3175;
654.3000;0.7326;-0.3222;
654.6000;0.7310;-0.3199;
654.9000;0.7277;-0.3246;
655.2000;0.7285;-0.3127;
655.5000;0.7269;-0.3151;
655.8000;0.7285;-0.3104;
656.1000;0.7269;-0.3080;
656.4000;0.7302;-0.3033;
656.7000;0.7269;-0.3151;
657.0000;0.7261;-0.3056;
657.3000;0.7285;-0.3104;
657.6000;0.7236;-0.3151;
657.9000;0.7269;-0.3080;
658.2000;0.7228;-0.3151;
658.5000;0.7245;-0.3151;
658.8000;0.7253;-0.3080;
659.1000;0.7212;-0.3127;
659.4000;0.7228;-0.3080;
659.7000;0.7253;-0.3009;
660.0000;0.7220;-0.2867;
660.3000;0.7228;-0.2843;
660.6000;0.7236;-0.2843;
660.9000;0.7171;-0.3009;
661.2000;0.7220;-0.2867;
661.5000;0.7196;-0.2938;
661.8000;0.7204;-0.3009;
662.1000;0.7188;-0.3033;
662.4000;0.7179;-0.3033;
662.7000;0.7179;-0.3009;
663.0000;0.7163;-0.3127;
663.3000;0.7163;-0.3151;
663.6000;0.7171;-0.3104;
663.9000;0.7163;-0.3175;
664.2000;0.7114;-0.3246;
664.5000;0.7163;-0.3033;
664.8000;0.7147;-0.3056;
665.1000;0.7147;-0.3080;
665.4000;0.7147;-0.3033;
665.7000;0.7139;-0.3033;
666.0000;0.7131;-0.3033;
666.3000;0.7123;-0.3033;
666.6000;0.7123;-0.3127;
666.9000;0.7147;-0.3104;
667.2000;0.7114;-0.3175;
667.5000;0.7074;-0.3293;
667.8000;0.7114;-0.3175;
668.1000;0.7123;-0.3199;
668.4000;0.7114;-0.3151;
668.7000;0.7090;-0.3175;
669.0000;0.7098;-0.3127;
669.3000;0.7171;-0.2938;
669.6000;0.7090;-0.3175;
669.9000;0.7098;-0.3199;
670.2000;0.7114;-0.3175;
670.5000;0.7066;-0.3270;
670.8000;0.7066;-0.3270;
671.1000;0.7090;-0.3127;
671.4000;0.7057;-0.3222;
671.7000;0.7066;-0.3222;
672.0000;0.7114;-0.3104;
672.3000;0.7057;-0.3222;
672.6000;0.7057;-0.3175;
672.9000;0.7041;-0.3175;
673.2000;0.7057;-0.3151;
673.5000;0.7041;-0.3199;
673.8000;0.7025;-0.3151;
674.1000;0.7017;-0.3151;
674.4000;0.7041;-0.3127;
674.7000;0.7033;-0.3104;
675.0000;0.7025;-0.3199;
675.3000;0.6992;-0.3317;
675.6000;0.6952;-0.3459;
675.9000;0.7009;-0.3341;
676.2000;0.6984;-0.3317;
676.5000;0.7000;-0.3270;
676.8000;0.6984;-0.3364;
677.1000;0.6984;-0.3317;
677.4000;0.6984;-0.3175;
677.7000;0.6976;-0.3246;
678.0000;0.6984;-0.3246;
678.3000;0.6976;-0.3199;
678.6000;0.6927;-0.3412;
678.9000;0.6960;-0.3293;
679.2000;0.6976;-0.3270;
679.5000;0.6968;-0.3246;
679.8000;0.6976;-0.3127;
680.1000;0.6968;-0.3175;
680.4000;0.6895;-0.3435;
680.7000;0.6960;-0.3364;
681.0000;0.6952;-0.3364;
681.3000;0.6943;-0.3341;
681.6000;0.6943;-0.3412;
681.9000;0.6960;-0.3317;
682.2000;0.6943;-0.3341;
682.5000;0.6943;-0.3412;
682.8000;0.6952;-0.3483;
683.1000;0.6903;-0.3554;
683.4000;0.6952;-0.3364;
683.7000;0.6911;-0.3412;
684.0000;0.6943;-0.3293;
684.3000;0.6919;-0.3293;
684.6000;0.6927;-0.3175;
684.9000;0.6911;-0.3151;
685.2000;0.6895;-0.3246;
685.5000;0.6870;-0.3317;
685.8000;0.6919;-0.3246;
686.1000;0.6886;-0.3293;
686.4000;0.6911;-0.3246;
686.7000;0.6829;-0.3530;
687.0000;0.6903;-0.3270;
687.3000;0.6911;-0.3222;
687.6000;0.6903;-0.3175;
687.9000;0.6903;-0.3199;
688.2000;0.6878;-0.3246;
688.5000;0.6886;-0.3246;
688.8000;0.6919;-0.3127;
689.1000;0.6911;-0.3033;
689.4000;0.6878;-0.3199;
689.7000;0.6886;-0.3151;
690.0000;0.6895;-0.3104;
690.3000;0.6862;-0.3080;
690.6000;0.6878;-0.3104;
690.9000;0.6846;-0.3175;
691.2000;0.6870;-0.3104;
691.5000;0.6862;-0.3199;
691.8000;0.6854;-0.3222;
692.1000;0.6838;-0.3151;
692.4000;0.6846;-0.3104;
692.7000;0.6862;-0.3104;
693.0000;0.6846;-0.3056;
693.3000;0.6886;-0.2914;
693.6000;0.6829;-0.2985;
693.9000;0.6838;-0.2985;
694.2000;0.6829;-0.2962;
694.5000;0.6829;-0.2962;
694.8000;0.6829;-0.2938;
695.1000;0.6846;-0.3009;
695.4000;0.6829;-0.3033;
695.7000;0.6821;-0.3009;
696.0000;0.6821;-0.3033;
696.3000;0.6838;-0.3104;
696.6000;0.6821;-0.3127;
696.9000;0.6813;-0.3104;
697.2000;0.6797;-0.3127;
697.5000;0.6821;-0.3127;
697.8000;0.6805;-0.3175;
698.1000;0.6805;-0.3222;
698.4000;0.6789;-0.3293;
698.7000;0.6789;-0.3293;
699.0000;0.6829;-0.3104;
699.3000;0.6772;-0.3199;
699.6000;0.6781;-0.3199;
699.9000;0.6797;-0.3104;
700.2000;0.6789;-0.3222;
700.5000;0.6772;-0.3175;
700.8000;0.6772;-0.3104;
701.1000;0.6797;-0.3033;
701.4000;0.6772;-0.3009;
701.7000;0.6756;-0.3104;
702.0000;0.6772;-0.3175;
702.3000;0.6772;-0.3199;
702.6000;0.6764;-0.3199;
702.9000;0.6740;-0.3199;
703.2000;0.6756;-0.3151;
703.5000;0.6805;-0.2985;
703.8000;0.6748;-0.3199;
704.1000;0.6756;-0.3151;
704.4000;0.6740;-0.3246;
704.7000;0.6740;-0.3175;
705.0000;0.6740;-0.3222;
705.3000;0.6740;-0.3127;
705.6000;0.6748;-0.3080;
705.9000;0.6740;-0.3104;
706.2000;0.6732;-0.3151;
706.5000;0.6764;-0.3080;
706.8000;0.6748;-0.3151;
707.1000;0.6781;-0.3056;
707.4000;0.6724;-0.3104;
707.7000;0.6756;-0.3009;
708.0000;0.6740;-0.3033;
708.3000;0.6716;-0.3009;
708.6000;0.6707;-0.3056;
708.9000;0.6724;-0.3080;
709.2000;0.6716;-0.3080;
709.5000;0.6699;-0.3175;
709.8000;0.6740;-0.2962;
710.1000;0.6699;-0.3033;
710.4000;0.6699;-0.2914;
710.7000;0.6724;-0.2914;
711.0000;0.6716;-0.2938;
711.3000;0.6707;-0.2985;
711.6000;0.6732;-0.3009;
711.9000;0.6691;-0.3104;
712.2000;0.6691;-0.3080;
712.5000;0.6707;-0.3056;
712.8000;0.6683;-0.3151;
713.1000;0.6699;-0.3151;
713.4000;0.6691;-0.3127;
713.7000;0.6724;-0.3056;
714.0000;0.6699;-0.3056;
714.3000;0.6691;-0.3127;
714.6000;0.6675;-0.3056;
714.9000;0.6707;-0.2985;
715.2000;0.6667;-0.3080;
715.5000;0.6691;-0.3009;
715.8000;0.6650;-0.3104;
716.1000;0.6667;-0.3104;
716.4000;0.6675;-0.3033;
716.7000;0.6659;-0.3009;
717.0000;0.6683;-0.2985;
717.3000;0.6667;-0.3080;
717.6000;0.6642;-0.3151;
717.9000;0.6683;-0.3033;
718.2000;0.6659;-0.3127;
718.5000;0.6675;-0.3151;
718.8000;0.6650;-0.3317;
719.1000;0.6650;-0.3388;
719.4000;0.6659;-0.3364;
719.7000;0.6642;-0.3293;
720.0000;0.6642;-0.3293;
720.3000;0.6553;-0.3412;
720.6000;0.6634;-0.3293;
720.9000;0.6659;-0.3199;
721.2000;0.6650;-0.3341;
721.5000;0.6634;-0.3364;
721.8000;0.6626;-0.3364;
722.1000;0.6659;-0.3270;
722.4000;0.6667;-0.3199;
722.7000;0.6634;-0.3270;
723.0000;0.6650;-0.3151;
723.3000;0.6659;-0.3175;
723.6000;0.6626;-0.3175;
723.9000;0.6667;-0.3009;
724.2000;0.6610;-0.3104;
724.5000;0.6618;-0.3127;
724.8000;0.6577;-0.3222;
725.1000;0.6593;-0.3199;
725.4000;0.6569;-0.3317;
725.7000;0.6610;-0.3222;
726.0000;0.6610;-0.3151;
726.3000;0.6577;-0.3127;
726.6000;0.6650;-0.2962;
726.9000;0.6618;-0.3080;
727.2000;0.6610;-0.3104;
727.5000;0.6610;-0.3127;
727.8000;0.6618;-0.3080;
728.1000;0.6553;-0.3199;
728.4000;0.6528;-0.3222;
728.7000;0.6585;-0.3056;
729.0000;0.6585;-0.3127;
729.3000;0.6602;-0.3080;
729.6000;0.6593;-0.3033;
729.9000;0.6626;-0.2962;
730.2000;0.6577;-0.2985;
730.5000;0.6577;-0.2985;
730.8000;0.6585;-0.2985;
731.1000;0.6593;-0.2962;
731.4000;0.6585;-0.2938;
731.7000;0.6602;-0.2914;
732.0000;0.6553;-0.2914;
732.3000;0.6593;-0.2914;
732.6000;0.6528;-0.2985;
732.9000;0.6569;-0.2914;
733.2000;0.6512;-0.3056;
733.5000;0.6577;-0.2985;
733.8000;0.6569;-0.3056;
734.1000;0.6504;-0.3199;
734.4000;0.6577;-0.3080;
734.7000;0.6610;-0.3056;
735.0000;0.6577;-0.3056;
735.3000;0.6561;-0.2914;
735.6000;0.6561;-0.2867;
735.9000;0.6536;-0.2962;
736.2000;0.6545;-0.2985;
736.5000;0.6561;-0.2914;
736.8000;0.6553;-0.3033;
737.1000;0.6553;-0.3080;
737.4000;0.6577;-0.3080;
737.7000;0.6561;-0.3033;
738.0000;0.6536;-0.3056;
738.3000;0.6536;-0.3033;
738.6000;0.6593;-0.2819;
738.9000;0.6569;-0.2843;
739.2000;0.6593;-0.2819;
739.5000;0.6545;-0.2962;
739.8000;0.6520;-0.3056;
740.1000;0.6536;-0.2985;
740.4000;0.6536;-0.2914;
740.7000;0.6512;-0.2985;
741.0000;0.6536;-0.2914;
741.3000;0.6512;-0.2914;
741.6000;0.6545;-0.2843;
741.9000;0.6512;-0.2985;
742.2000;0.6528;-0.3033;
742.5000;0.6528;-0.2938;
742.8000;0.6504;-0.2985;
743.1000;0.6504;-0.2914;
743.4000;0.6496;-0.3033;
743.7000;0.6536;-0.2891;
744.0000;0.6512;-0.3033;
744.3000;0.6488;-0.3127;
744.6000;0.6512;-0.3056;
744.9000;0.6512;-0.3104;
745.2000;0.6512;-0.3104;
745.5000;0.6512;-0.3127;
745.8000;0.6520;-0.3080;
746.1000;0.6496;-0.3127;
746.4000;0.6504;-0.3127;
746.7000;0.6504;-0.3127;
747.0000;0.6512;-0.3104;
747.3000;0.6528;-0.3009;
747.6000;0.6585;-0.2938;
747.9000;0.6496;-0.3127;
748.2000;0.6496;-0.3104;
748.5000;0.6496;-0.3127;
748.8000;0.6536;-0.3056;
749.1000;0.6536;-0.3080;
749.4000;0.6471;-0.3222;
749.7000;0.6496;-0.3104;
750.0000;0.6504;-0.3127;
750.3000;0.6496;-0.3127;
750.6000;0.6585;-0.2914;
750.9000;0.6520;-0.3009;
751.2000;0.6504;-0.2962;
751.5000;0.6504;-0.2938;
751.8000;0.6479;-0.3009;
752.1000;0.6512;-0.2914;
752.4000;0.6488;-0.3033;
752.7000;0.6479;-0.3009;
753.0000;0.6479;-0.2914;
753.3000;0.6463;-0.2938;
753.6000;0.6479;-0.2843;
753.9000;0.6488;-0.2867;
754.2000;0.6496;-0.2867;
754.5000;0.6479;-0.2914;
754.8000;0.6488;-0.2938;
755.1000;0.6496;-0.2938;
755.4000;0.6504;-0.3009;
755.7000;0.6471;-0.3151;
756.0000;0.6471;-0.3127;
756.3000;0.6479;-0.3222;
756.6000;0.6479;-0.3199;
756.9000;0.6471;-0.3175;
757.2000;0.6520;-0.2985;
757.5000;0.6463;-0.3056;
757.8000;0.6471;-0.3033;
758.1000;0.6447;-0.3127;
758.4000;0.6471;-0.3080;
758.7000;0.6455;-0.3080;
759.0000;0.6455;-0.3080;
759.3000;0.6447;-0.3080;
759.6000;0.6447;-0.3009;
759.9000;0.6447;-0.2985;
760.2000;0.6439;-0.2962;
760.5000;0.6447;-0.2938;
760.8000;0.6488;-0.2891;
761.1000;0.6455;-0.2914;
761.4000;0.6463;-0.2796;
761.7000;0.6439;-0.2914;
762.0000;0.6455;-0.2843;
762.3000;0.6431;-0.2938;
762.6000;0.6431;-0.2796;
762.9000;0.6374;-0.2891;
763.2000;0.6479;-0.2654;
763.5000;0.6431;-0.2843;
763.8000;0.6431;-0.2891;
764.1000;0.6447;-0.2796;
764.4000;0.6406;-0.2962;
764.7000;0.6447;-0.2962;
765.0000;0.6431;-0.2985;
765.3000;0.6455;-0.2962;
765.6000;0.6447;-0.2938;
765.9000;0.6431;-0.2938;
766.2000;0.6447;-0.2938;
766.5000;0.6422;-0.2914;
766.8000;0.6406;-0.3009;
767.1000;0.6447;-0.2938;
767.4000;0.6431;-0.2962;
767.7000;0.6414;-0.3056;
768.0000;0.6406;-0.2985;
768.3000;0.6422;-0.2962;
768.6000;0.6431;-0.3009;
768.9000;0.6414;-0.2962;
769.2000;0.6414;-0.3009;
769.5000;0.6422;-0.3056;
769.8000;0.6422;-0.3127;
770.1000;0.6431;-0.3104;
770.4000;0.6406;-0.3151;
770.7000;0.6431;-0.3151;
771.0000;0.6406;-0.3317;
771.3000;0.6406;-0.3293;
771.6000;0.6406;-0.3175;
771.9000;0.6382;-0.3175;
772.2000;0.6406;-0.3151;
772.5000;0.6382;-0.3127;
772.8000;0.6422;-0.3080;
773.1000;0.6455;-0.3056;
773.4000;0.6422;-0.3056;
773.7000;0.6455;-0.2962;
774.0000;0.6439;-0.2938;
774.3000;0.6414;-0.3009;
774.6000;0.6447;-0.2867;
774.9000;0.6349;-0.3080;
775.2000;0.6398;-0.2914;
775.5000;0.6390;-0.2867;
775.8000;0.6406;-0.2867;
776.1000;0.6357;-0.3033;
776.4000;0.6390;-0.2938;
776.7000;0.6398;-0.2938;
777.0000;0.6382;-0.2962;
777.3000;0.6382;-0.2938;
777.6000;0.6374;-0.2938;
777.9000;0.6382;-0.2914;
778.2000;0.6374;-0.2914;
778.5000;0.6390;-0.2891;
778.8000;0.6398;-0.2819;
779.1000;0.6374;-0.2962;
779.4000;0.6374;-0.2962;
779.7000;0.6431;-0.2772;
780.0000;0.6382;-0.2938;
780.3000;0.6382;-0.2962;
780.6000;0.6365;-0.2962;
780.9000;0.6382;-0.2914;
781.2000;0.6406;-0.2914;
781.5000;0.6374;-0.3033;
781.8000;0.6365;-0.3009;
782.1000;0.6365;-0.3009;
782.4000;0.6382;-0.3080;
782.7000;0.6365;-0.3056;
783.0000;0.6374;-0.3009;
783.3000;0.6390;-0.3033;
783.6000;0.6374;-0.3056;
783.9000;0.6398;-0.3033;
784.2000;0.6365;-0.3056;
784.5000;0.6357;-0.3080;
784.8000;0.6349;-0.3222;
785.1000;0.6365;-0.3175;
785.4000;0.6414;-0.3127;
785.7000;0.6374;-0.3246;
786.0000;0.6374;-0.3199;
786.3000;0.6382;-0.3175;
786.6000;0.6365;-0.3199;
786.9000;0.6309;-0.3364;
787.2000;0.6309;-0.3293;
787.5000;0.6357;-0.3127;
787.8000;0.6325;-0.3222;
788.1000;0.6333;-0.3127;
788.4000;0.6357;-0.3104;
788.7000;0.6365;-0.2985;
789.0000;0.6333;-0.3056;
789.3000;0.6341;-0.3056;
789.6000;0.6341;-0.3009;
789.9000;0.6357;-0.2985;
790.2000;0.6349;-0.3033;
790.5000;0.6341;-0.3056;
790.8000;0.6309;-0.3127;
791.1000;0.6333;-0.2985;
791.4000;0.6349;-0.3033;
791.7000;0.6357;-0.3056;
792.0000;0.6333;-0.3151;
792.3000;0.6333;-0.3151;
792.6000;0.6349;-0.3104;
792.9000;0.6341;-0.3104;
793.2000;0.6333;-0.3056;
793.5000;0.6333;-0.2962;
793.8000;0.6333;-0.2985;
794.1000;0.6349;-0.2891;
794.4000;0.6333;-0.2891;
794.7000;0.6317;-0.2962;
795.0000;0.6333;-0.2891;
795.3000;0.6325;-0.2891;
795.6000;0.6333;-0.2914;
795.9000;0.6341;-0.3009;
796.2000;0.6349;-0.3033;
796.5000;0.6357;-0.2962;
796.8000;0.6325;-0.2985;
797.1000;0.6325;-0.3056;
797.4000;0.6341;-0.3080;
797.7000;0.6341;-0.3009;
798.0000;0.6349;-0.3009;
798.3000;0.6333;-0.3033;
798.6000;0.6333;-0.3080;
798.9000;0.6357;-0.2985;
799.2000;0.6325;-0.3104;
799.5000;0.6309;-0.3151;
799.8000;0.6325;-0.3127;
800.1000;0.6317;-0.3080;
800.4000;0.6300;-0.3080;
800.7000;0.6325;-0.3080;
801.0000;0.6325;-0.3056;
801.3000;0.6333;-0.3104;
801.6000;0.6398;-0.2819;
801.9000;0.6325;-0.2985;
802.2000;0.6357;-0.2867;
802.5000;0.6260;-0.2985;
802.8000;0.6325;-0.2867;
803.1000;0.6300;-0.2843;
803.4000;0.6317;-0.2843;
803.7000;0.6243;-0.3033;
804.0000;0.6325;-0.2843;
804.3000;0.6317;-0.2796;
804.6000;0.6325;-0.2843;
804.9000;0.6300;-0.2962;
805.2000;0.6300;-0.2938;
805.5000;0.6365;-0.2938;
805.8000;0.6341;-0.2962;
806.1000;0.6325;-0.3009;
806.4000;0.6325;-0.2914;
806.7000;0.6325;-0.2914;
807.0000;0.6317;-0.2985;
807.3000;0.6317;-0.3033;
807.6000;0.6317;-0.2938;
807.9000;0.6325;-0.2962;
808.2000;0.6317;-0.3056;
808.5000;0.6292;-0.3127;
808.8000;0.6292;-0.3199;
809.1000;0.6309;-0.3151;
809.4000;0.6341;-0.3033;
809.7000;0.6292;-0.3104;
810.0000;0.6317;-0.3033;
810.3000;0.6300;-0.2962;
810.6000;0.6292;-0.2867;
810.9000;0.6260;-0.2962;
811.2000;0.6243;-0.2962;
811.5000;0.6203;-0.3127;
811.8000;0.6292;-0.3009;
812.1000;0.6300;-0.2962;
812.4000;0.6300;-0.2914;
812.7000;0.6276;-0.2914;
813.0000;0.6300;-0.2891;
813.3000;0.6284;-0.2772;
813.6000;0.6276;-0.2843;
813.9000;0.6292;-0.2843;
814.2000;0.6284;-0.2843;
814.5000;0.6276;-0.2819;
814.8000;0.6276;-0.2796;
815.1000;0.6284;-0.2796;
815.4000;0.6284;-0.2819;
815.7000;0.6292;-0.2748;
816.0000;0.6284;-0.2772;
816.3000;0.6284;-0.2819;
816.6000;0.6333;-0.2748;
816.9000;0.6276;-0.2914;
817.2000;0.6276;-0.2843;
817.5000;0.6349;-0.2630;
817.8000;0.6276;-0.2796;
818.1000;0.6268;-0.2772;
818.4000;0.6252;-0.2819;
818.7000;0.6260;-0.2701;
819.0000;0.6235;-0.2867;
819.3000;0.6260;-0.2843;
819.6000;0.6227;-0.2938;
819.9000;0.6260;-0.2938;
820.2000;0.6252;-0.2962;
820.5000;0.6260;-0.2938;
820.8000;0.6268;-0.2891;
821.1000;0.6284;-0.2796;
821.4000;0.6276;-0.2819;
821.7000;0.6260;-0.2819;
822.0000;0.6284;-0.2819;
822.3000;0.6284;-0.2819;
822.6000;0.6300;-0.2796;
822.9000;0.6365;-0.2583;
823.2000;0.6260;-0.2914;
823.5000;0.6292;-0.2843;
823.8000;0.6260;-0.2938;
824.1000;0.6268;-0.2938;
824.4000;0.6276;-0.2962;
824.7000;0.6276;-0.3009;
825.0000;0.6309;-0.2938;
825.3000;0.6309;-0.2962;
825.6000;0.6235;-0.3270;
825.9000;0.6284;-0.3175;
826.2000;0.6268;-0.3246;
826.5000;0.6260;-0.3199;
826.8000;0.6252;-0.3270;
827.1000;0.6260;-0.3222;
827.4000;0.6284;-0.3199;
827.7000;0.6219;-0.3222;
828.0000;0.6300;-0.2985;
828.3000;0.6260;-0.3080;
828.6000;0.6268;-0.3080;
828.9000;0.6260;-0.3104;
829.2000;0.6252;-0.3175;
829.5000;0.6260;-0.3080;
829.8000;0.6260;-0.3033;
830.1000;0.6260;-0.3033;
830.4000;0.6235;-0.3033;
830.7000;0.6252;-0.3009;
831.0000;0.6243;-0.2962;
831.3000;0.6235;-0.3033;
831.6000;0.6276;-0.2914;
831.9000;0.6243;-0.2938;
832.2000;0.6235;-0.2914;
832.5000;0.6235;-0.2843;
832.8000;0.6252;-0.2772;
833.1000;0.6195;-0.2914;
833.4000;0.6243;-0.2701;
833.7000;0.6243;-0.2606;
834.0000;0.6268;-0.2559;
834.3000;0.6235;-0.2630;
834.6000;0.6268;-0.2677;
834.9000;0.6260;-0.2772;
835.2000;0.6268;-0.2748;
835.5000;0.6186;-0.2938;
835.8000;0.6235;-0.2772;
836.1000;0.6235;-0.2701;
836.4000;0.6227;-0.2772;
836.7000;0.6252;-0.2796;
837.0000;0.6276;-0.2725;
837.3000;0.6243;-0.2772;
837.6000;0.6276;-0.2748;
837.9000;0.6243;-0.2867;
838.2000;0.6235;-0.2914;
838.5000;0.6219;-0.2962;
838.8000;0.6252;-0.2891;
839.1000;0.6252;-0.2914;
839.4000;0.6235;-0.2867;
839.7000;0.6235;-0.2867;
840.0000;0.6235;-0.3009;
840.3000;0.6227;-0.3009;
840.6000;0.6235;-0.2891;
840.9000;0.6227;-0.2962;
841.2000;0.6235;-0.2962;
841.5000;0.6243;-0.2867;
841.8000;0.6219;-0.2938;
842.1000;0.6211;-0.2867;
842.4000;0.6219;-0.2796;
842.7000;0.6219;-0.2796;
843.0000;0.6227;-0.2819;
843.3000;0.6211;-0.2891;
843.6000;0.6235;-0.2891;
843.9000;0.6260;-0.2819;
844.2000;0.6219;-0.2914;
844.5000;0.6276;-0.2772;
844.8000;0.6219;-0.2891;
845.1000;0.6243;-0.2819;
845.4000;0.6243;-0.2772;
845.7000;0.6227;-0.2796;
846.0000;0.6211;-0.2725;
846.3000;0.6243;-0.2677;
846.6000;0.6186;-0.2772;
846.9000;0.6170;-0.2819;
847.2000;0.6219;-0.2748;
847.5000;0.6211;-0.2677;
847.8000;0.6219;-0.2654;
848.1000;0.6243;-0.2748;
848.4000;0.6211;-0.2843;
848.7000;0.6211;-0.2819;
849.0000;0.6227;-0.2772;
849.3000;0.6170;-0.2843;
849.6000;0.6219;-0.2772;
849.9000;0.6219;-0.2772;
850.2000;0.6219;-0.2725;
850.5000;0.6219;-0.2748;
850.8000;0.6227;-0.2677;
851.1000;0.6227;-0.2701;
851.4000;0.6178;-0.2748;
851.7000;0.6211;-0.2630;
852.0000;0.6219;-0.2701;
852.3000;0.6203;-0.2772;
852.6000;0.6203;-0.2843;
852.9000;0.6252;-0.2725;
853.2000;0.6219;-0.2772;
853.5000;0.6203;-0.2772;
853.8000;0.6195;-0.2819;
854.1000;0.6219;-0.2819;
854.4000;0.6203;-0.2914;
854.7000;0.6154;-0.3104;
855.0000;0.6219;-0.2891;
855.3000;0.6243;-0.2725;
855.6000;0.6219;-0.2772;
855.9000;0.6227;-0.2677;
856.2000;0.6186;-0.2701;
856.5000;0.6195;-0.2701;
856.8000;0.6203;-0.2677;
857.1000;0.6211;-0.2677;
857.4000;0.6138;-0.2867;
857.7000;0.6186;-0.2630;
858.0000;0.6211;-0.2677;
858.3000;0.6211;-0.2772;
858.6000;0.6195;-0.2891;
858.9000;0.6195;-0.2819;
859.2000;0.6178;-0.2867;
859.5000;0.6203;-0.2891;
859.8000;0.6211;-0.2867;
860.1000;0.6195;-0.2819;
860.4000;0.6146;-0.2891;
860.7000;0.6211;-0.2796;
861.0000;0.6186;-0.2819;
861.3000;0.6178;-0.2914;
861.6000;0.6203;-0.2843;
861.9000;0.6203;-0.2867;
862.2000;0.6178;-0.2891;
862.5000;0.6154;-0.2843;
862.8000;0.6186;-0.2748;
863.1000;0.6186;-0.2725;
863.4000;0.6195;-0.2583;
863.7000;0.6195;-0.2654;
864.0000;0.6186;-0.2701;
864.3000;0.6186;-0.2654;
864.6000;0.6195;-0.2583;
864.9000;0.6186;-0.2535;
865.2000;0.6170;-0.2606;
865.5000;0.6138;-0.2654;
865.8000;0.6113;-0.2677;
866.1000;0.6178;-0.2583;
866.4000;0.6203;-0.2630;
866.7000;0.6186;-0.2630;
867.0000;0.6170;-0.2654;
867.3000;0.6195;-0.2606;
867.6000;0.6195;-0.2583;
867.9000;0.6178;-0.2654;
868.2000;0.6211;-0.2654;
868.5000;0.6195;-0.2677;
868.8000;0.6186;-0.2701;
869.1000;0.6138;-0.2819;
869.4000;0.6186;-0.2796;
869.7000;0.6195;-0.2748;
870.0000;0.6203;-0.2701;
870.3000;0.6195;-0.2748;
870.6000;0.6170;-0.2796;
870.9000;0.6178;-0.2748;
871.2000;0.6195;-0.2701;
871.5000;0.6186;-0.2725;
871.8000;0.6170;-0.2701;
872.1000;0.6178;-0.2677;
872.4000;0.6178;-0.2748;
872.7000;0.6203;-0.2748;
873.0000;0.6178;-0.2891;
873.3000;0.6170;-0.2891;
873.6000;0.6170;-0.2796;
873.9000;0.6178;-0.2796;
874.2000;0.6170;-0.2891;
874.5000;0.6170;-0.2796;
874.8000;0.6178;-0.2677;
875.1000;0.6178;-0.2630;
875.4000;0.6129;-0.2654;
875.7000;0.6178;-0.2606;
876.0000;0.6227;-0.2559;
876.3000;0.6186;-0.2654;
876.6000;0.6186;-0.2630;
876.9000;0.6178;-0.2630;
877.2000;0.6178;-0.2630;
877.5000;0.6170;-0.2583;
877.8000;0.6195;-0.2583;
878.1000;0.6154;-0.2701;
878.4000;0.6219;-0.2583;
878.7000;0.6186;-0.2630;
879.0000;0.6178;-0.2630;
879.3000;0.6243;-0.2440;
879.6000;0.6186;-0.2559;
879.9000;0.6195;-0.2535;
880.2000;0.6178;-0.2583;
880.5000;0.6178;-0.2606;
880.8000;0.6178;-0.2654;
881.1000;0.6162;-0.2701;
881.4000;0.6195;-0.2630;
881.7000;0.6170;-0.2701;
882.0000;0.6186;-0.2583;
882.3000;0.6227;-0.2511;
882.6000;0.6154;-0.2654;
882.9000;0.6170;-0.2606;
883.2000;0.6186;-0.2440;
883.5000;0.6154;-0.2440;
883.8000;0.6170;-0.2393;
884.1000;0.6121;-0.2511;
884.4000;0.6162;-0.2417;
884.7000;0.6154;-0.2583;
885.0000;0.6154;-0.2630;
885.3000;0.6170;-0.2606;
885.6000;0.6113;-0.2654;
885.9000;0.6162;-0.2559;
886.2000;0.6154;-0.2654;
886.5000;0.6162;-0.2677;
886.8000;0.6162;-0.2606;
887.1000;0.6129;-0.2535;
887.4000;0.6162;-0.2511;
887.7000;0.6162;-0.2535;
888.0000;0.6178;-0.2583;
888.3000;0.6162;-0.2654;
888.6000;0.6178;-0.2630;
888.9000;0.6186;-0.2583;
889.2000;0.6170;-0.2677;
889.5000;0.6146;-0.2772;
889.8000;0.6146;-0.2772;
890.1000;0.6154;-0.2701;
890.4000;0.6186;-0.2606;
890.7000;0.6162;-0.2677;
891.0000;0.6146;-0.2701;
891.3000;0.6154;-0.2725;
891.6000;0.6178;-0.2583;
891.9000;0.6162;-0.2583;
892.2000;0.6138;-0.2701;
892.5000;0.6162;-0.2654;
892.8000;0.6154;-0.2630;
893.1000;0.6162;-0.2630;
893.4000;0.6146;-0.2606;
893.7000;0.6146;-0.2535;
894.0000;0.6154;-0.2464;
894.3000;0.6154;-0.2417;
894.6000;0.6154;-0.2369;
894.9000;0.6203;-0.2156;
895.2000;0.6170;-0.2203;
895.5000;0.6138;-0.2417;
895.8000;0.6138;-0.2440;
896.1000;0.6178;-0.2369;
896.4000;0.6162;-0.2393;
896.7000;0.6154;-0.2369;
897.0000;0.6170;-0.2251;
897.3000;0.6154;-0.2322;
897.6000;0.6154;-0.2322;
897.9000;0.6146;-0.2322;
898.2000;0.6121;-0.2417;
898.5000;0.6162;-0.2464;
898.8000;0.6146;-0.2535;
899.1000;0.6154;-0.2488;
899.4000;0.6162;-0.2440;
899.7000;0.6146;-0.2417;
900.0000;0.6129;-0.2440;
900.3000;0.6138;-0.2440;
900.6000;0.6129;-0.2464;
900.9000;0.6138;-0.2488;
901.2000;0.6138;-0.2393;
901.5000;0.6170;-0.2251;
901.8000;0.6154;-0.2346;
902.1000;0.6170;-0.2322;
902.4000;0.6146;-0.2417;
902.7000;0.6154;-0.2464;
903.0000;0.6162;-0.2417;
903.3000;0.6154;-0.2511;
903.6000;0.6138;-0.2535;
903.9000;0.6138;-0.2630;
904.2000;0.6154;-0.2535;
904.5000;0.6154;-0.2535;
904.8000;0.6138;-0.2559;
905.1000;0.6146;-0.2630;
905.4000;0.6146;-0.2606;
905.7000;0.6146;-0.2606;
906.0000;0.6154;-0.2701;
906.3000;0.6138;-0.2654;
906.6000;0.6121;-0.2654;
906.9000;0.6138;-0.2654;
907.2000;0.6121;-0.2701;
907.5000;0.6129;-0.2606;
907.8000;0.6138;-0.2701;
908.1000;0.6138;-0.2677;
908.4000;0.6154;-0.2535;
908.7000;0.6138;-0.2511;
909.0000;0.6105;-0.2606;
909.3000;0.6121;-0.2606;
909.6000;0.6129;-0.2606;
909.9000;0.6113;-0.2725;
910.2000;0.6113;-0.2654;
910.5000;0.6178;-0.2535;
910.8000;0.6129;-0.2606;
911.1000;0.6121;-0.2772;
911.4000;0.6129;-0.2677;
911.7000;0.6113;-0.2677;
912.0000;0.6138;-0.2606;
912.3000;0.6138;-0.2630;
912.6000;0.6105;-0.2677;
912.9000;0.6121;-0.2535;
913.2000;0.6138;-0.2440;
913.5000;0.6138;-0.2488;
913.8000;0.6129;-0.2559;
914.1000;0.6113;-0.2583;
914.4000;0.6121;-0.2677;
914.7000;0.6129;-0.2654;
915.0000;0.6121;-0.2701;
915.3000;0.6138;-0.2677;
915.6000;0.6129;-0.2701;
915.9000;0.6154;-0.2677;
916.2000;0.6129;-0.2748;
916.5000;0.6113;-0.2772;
916.8000;0.6129;-0.2701;
917.1000;0.6195;-0.2417;
917.4000;0.6121;-0.2583;
917.7000;0.6138;-0.2654;
918.0000;0.6097;-0.2796;
918.3000;0.6178;-0.2654;
918.6000;0.6170;-0.2559;
918.9000;0.6121;-0.2630;
919.2000;0.6024;-0.2867;
919.5000;0.6113;-0.2677;
919.8000;0.6138;-0.2677;
920.1000;0.6121;-0.2606;
920.4000;0.6113;-0.2606;
920.7000;0.6105;-0.2606;
921.0000;0.6097;-0.2559;
921.3000;0.6121;-0.2440;
921.6000;0.6105;-0.2559;
921.9000;0.6129;-0.2488;
922.2000;0.6113;-0.2488;
922.5000;0.6129;-0.2511;
922.8000;0.6121;-0.2583;
923.1000;0.6113;-0.2583;
923.4000;0.6138;-0.2583;
923.7000;0.6129;-0.2559;
924.0000;0.6121;-0.2654;
924.3000;0.6154;-0.2559;
924.6000;0.6121;-0.2654;
924.9000;0.6121;-0.2488;
925.2000;0.6113;-0.2535;
925.5000;0.6105;-0.2583;
925.8000;0.6113;-0.2511;
926.1000;0.6113;-0.2511;
926.4000;0.6097;-0.2606;
926.7000;0.6097;-0.2701;
927.0000;0.6121;-0.2677;
927.3000;0.6040;-0.2843;
927.6000;0.6154;-0.2511;
927.9000;0.6121;-0.2583;
928.2000;0.6121;-0.2677;
928.5000;0.6129;-0.2701;
928.8000;0.6138;-0.2630;
929.1000;0.6121;-0.2583;
929.4000;0.6113;-0.2440;
929.7000;0.6089;-0.2440;
930.0000;0.6105;-0.2464;
930.3000;0.6129;-0.2535;
930.6000;0.6121;-0.2583;
930.9000;0.6121;-0.2606;
931.2000;0.6105;-0.2535;
931.5000;0.6089;-0.2654;
931.8000;0.6105;-0.2606;
932.1000;0.6097;-0.2606;
932.4000;0.6113;-0.2535;
932.7000;0.6129;-0.2488;
933.0000;0.6089;-0.2559;
933.3000;0.6081;-0.2535;
933.6000;0.6081;-0.2559;
933.9000;0.6121;-0.2369;
934.2000;0.6105;-0.2417;
934.5000;0.6097;-0.2440;
934.8000;0.6105;-0.2583;
935.1000;0.6089;-0.2654;
935.4000;0.6056;-0.2772;
935.7000;0.6097;-0.2677;
936.0000;0.6105;-0.2748;
936.3000;0.6113;-0.2725;
936.6000;0.6089;-0.2819;
936.9000;0.6129;-0.2701;
937.2000;0.6097;-0.2725;
937.5000;0.6105;-0.2819;
937.8000;0.6113;-0.2796;
938.1000;0.6089;-0.2772;
938.4000;0.6089;-0.2725;
938.7000;0.6113;-0.2677;
939.0000;0.6121;-0.2654;
939.3000;0.6121;-0.2583;
939.6000;0.6097;-0.2630;
939.9000;0.6105;-0.2630;
940.2000;0.6129;-0.2511;
940.5000;0.6129;-0.2559;
940.8000;0.6097;-0.2583;
941.1000;0.6097;-0.2654;
941.4000;0.6097;-0.2630;
941.7000;0.6097;-0.2583;
942.0000;0.6105;-0.2606;
942.3000;0.6040;-0.2701;
942.6000;0.6081;-0.2630;
942.9000;0.6097;-0.2440;
943.2000;0.6113;-0.2393;
943.5000;0.6089;-0.2464;
943.8000;0.6097;-0.2511;
944.1000;0.6097;-0.2440;
944.4000;0.6097;-0.2464;
944.7000;0.6105;-0.2440;
945.0000;0.6089;-0.2535;
945.3000;0.6089;-0.2511;
945.6000;0.6097;-0.2440;
945.9000;0.6089;-0.2535;
946.2000;0.6072;-0.2630;
946.5000;0.6081;-0.2583;
946.8000;0.6081;-0.2535;
947.1000;0.6081;-0.2559;
947.4000;0.6089;-0.2630;
947.7000;0.6105;-0.2606;
948.0000;0.6105;-0.2583;
948.3000;0.6105;-0.2630;
948.6000;0.6105;-0.2583;
948.9000;0.6105;-0.2677;
949.2000;0.6138;-0.2677;
949.5000;0.6097;-0.2796;
949.8000;0.6105;-0.2677;
950.1000;0.6170;-0.2464;
950.4000;0.6064;-0.2606;
950.7000;0.6146;-0.2440;
951.0000;0.6105;-0.2511;
951.3000;0.6081;-0.2488;
951.6000;0.6081;-0.2559;
951.9000;0.6089;-0.2606;
952.2000;0.6105;-0.2583;
952.5000;0.6121;-0.2511;
952.8000;0.6064;-0.2583;
953.1000;0.6089;-0.2535;
953.4000;0.6089;-0.2535;
953.7000;0.6024;-0.2725;
954.0000;0.6081;-0.2535;
954.3000;0.6089;-0.2488;
954.6000;0.6089;-0.2440;
954.9000;0.6097;-0.2417;
955.2000;0.6056;-0.2559;
955.5000;0.6089;-0.2511;
955.8000;0.6105;-0.2559;
956.1000;0.6154;-0.2464;
956.4000;0.6081;-0.2583;
956.7000;0.6081;-0.2559;
957.0000;0.6056;-0.2488;
957.3000;0.6072;-0.2464;
957.6000;0.6032;-0.2583;
957.9000;0.6064;-0.2511;
958.2000;0.6081;-0.2559;
958.5000;0.6081;-0.2559;
958.8000;0.6081;-0.2511;
959.1000;0.6089;-0.2464;
959.4000;0.6089;-0.2559;
959.7000;0.6105;-0.2606;
960.0000;0.6089;-0.2701;
960.3000;0.6081;-0.2748;
960.6000;0.6097;-0.2701;
960.9000;0.6113;-0.2606;
961.2000;0.6121;-0.2535;
961.5000;0.6081;-0.2677;
961.8000;0.6081;-0.2654;
962.1000;0.6081;-0.2630;
962.4000;0.6089;-0.2654;
962.7000;0.6081;-0.2583;
963.0000;0.6089;-0.2606;
963.3000;0.6089;-0.2606;
963.6000;0.6081;-0.2583;
963.9000;0.6089;-0.2583;
964.2000;0.6072;-0.2677;
964.5000;0.6048;-0.2796;
964.8000;0.6072;-0.2725;
965.1000;0.6089;-0.2701;
965.4000;0.6072;-0.2630;
965.7000;0.6089;-0.2630;
966.0000;0.6113;-0.2464;
966.3000;0.6081;-0.2606;
966.6000;0.6064;-0.2701;
966.9000;0.6072;-0.2606;
967.2000;0.6081;-0.2535;
967.5000;0.6081;-0.2511;
967.8000;0.6024;-0.2535;
968.1000;0.6072;-0.2417;
968.4000;0.6105;-0.2346;
968.7000;0.6040;-0.2440;
969.0000;0.6064;-0.2511;
969.3000;0.6072;-0.2440;
969.6000;0.6048;-0.2511;
969.9000;0.6081;-0.2417;
970.2000;0.6081;-0.2464;
970.5000;0.6072;-0.2440;
970.8000;0.6072;-0.2488;
971.1000;0.6072;-0.2535;
971.4000;0.6064;-0.2583;
971.7000;0.6081;-0.2583;
972.0000;0.6072;-0.2559;
972.3000;0.6081;-0.2511;
972.6000;0.6081;-0.2488;
972.9000;0.6064;-0.2488;
973.2000;0.6064;-0.2511;
973.5000;0.6064;-0.2440;
973.8000;0.6072;-0.2393;
974.1000;0.6089;-0.2346;
974.4000;0.6015;-0.2559;
974.7000;0.6064;-0.2393;
975.0000;0.6064;-0.2369;
975.3000;0.6048;-0.2488;
975.6000;0.6072;-0.2488;
975.9000;0.6081;-0.2511;
976.2000;0.6081;-0.2464;
976.5000;0.6097;-0.2346;
976.8000;0.6113;-0.2275;
977.1000;0.6040;-0.2440;
977.4000;0.6105;-0.2227;
977.7000;0.6081;-0.2275;
978.0000;0.6089;-0.2275;
978.3000;0.6064;-0.2393;
978.6000;0.6048;-0.2464;
978.9000;0.6072;-0.2488;
979.2000;0.6081;-0.2440;
979.5000;0.6072;-0.2417;
979.8000;0.6064;-0.2440;
980.1000;0.6089;-0.2322;
980.4000;0.6081;-0.2393;
980.7000;0.6064;-0.2346;
981.0000;0.6072;-0.2346;
981.3000;0.6072;-0.2346;
981.6000;0.6040;-0.2535;
981.9000;0.6064;-0.2393;
982.2000;0.6072;-0.2298;
982.5000;0.6105;-0.2203;
982.8000;0.6129;-0.2203;
983.1000;0.6064;-0.2440;
983.4000;0.6064;-0.2440;
983.7000;0.6072;-0.2440;
984.0000;0.6064;-0.2464;
984.3000;0.6064;-0.2488;
984.6000;0.6032;-0.2559;
984.9000;0.6064;-0.2535;
985.2000;0.6064;-0.2535;
985.5000;0.6081;-0.2511;
985.8000;0.6121;-0.2440;
986.1000;0.6072;-0.2559;
986.4000;0.6081;-0.2559;
986.7000;0.6064;-0.2559;
987.0000;0.6040;-0.2654;
987.3000;0.6032;-0.2654;
987.6000;0.6097;-0.2535;
987.9000;0.6064;-0.2583;
988.2000;0.6056;-0.2559;
988.5000;0.6024;-0.2535;
988.8000;0.6040;-0.2511;
989.1000;0.6064;-0.2511;
989.4000;0.6072;-0.2464;
989.7000;0.6040;-0.2488;
990.0000;0.6040;-0.2440;
990.3000;0.6129;-0.2227;
990.6000;0.6072;-0.2322;
990.9000;0.6064;-0.2393;
991.2000;0.6048;-0.2440;
991.5000;0.6040;-0.2464;
991.8000;0.6064;-0.2511;
992.1000;0.6097;-0.2535;
992.4000;0.6048;-0.2535;
992.7000;0.6048;-0.2488;
993.0000;0.6064;-0.2535;
993.3000;0.6056;-0.2535;
993.6000;0.6040;-0.2559;
993.9000;0.6056;-0.2535;
994.2000;0.6056;-0.2559;
994.5000;0.6040;-0.2606;
994.8000;0.6024;-0.2630;
995.1000;0.6007;-0.2725;
995.4000;0.6072;-0.2654;
995.7000;0.6024;-0.2796;
996.0000;0.6056;-0.2677;
996.3000;0.6048;-0.2748;
996.6000;0.6048;-0.2772;
996.9000;0.6056;-0.2748;
997.2000;0.6072;-0.2725;
997.5000;0.6072;-0.2654;
997.8000;0.6064;-0.2654;
998.1000;0.6056;-0.2748;
998.4000;0.6048;-0.2796;
998.7000;0.6064;-0.2725;
999.0000;0.6040;-0.2701;
999.3000;0.6064;-0.2654;
999.6000;0.6064;-0.2654;
999.9000;0.6032;-0.2677;
1000.2000;0.6056;-0.2654;
1000.5000;0.6064;-0.2677;
1000.8000;0.6040;-0.2654;
1001.1000;0.6056;-0.2606;
1001.4000;0.6056;-0.2535;
1001.7000;0.6032;-0.2488;
1002.0000;0.6056;-0.2346;
1002.3000;0.6064;-0.2275;
1002.6000;0.6081;-0.2227;
1002.9000;0.6064;-0.2322;
1003.2000;0.6048;-0.2417;
1003.5000;0.6040;-0.2440;
1003.8000;0.6040;-0.2440;
1004.1000;0.6024;-0.2417;
1004.4000;0.6056;-0.2322;
1004.7000;0.6064;-0.2275;
1005.0000;0.6040;-0.2275;
1005.3000;0.6032;-0.2346;
1005.6000;0.6089;-0.2251;
1005.9000;0.6048;-0.2322;
1006.2000;0.6048;-0.2393;
1006.5000;0.6064;-0.2440;
1006.8000;0.6048;-0.2417;
1007.1000;0.6072;-0.2393;
1007.4000;0.6056;-0.2440;
1007.7000;0.6056;-0.2488;
1008.0000;0.6048;-0.2464;
1008.3000;0.6056;-0.2511;
1008.6000;0.6064;-0.2535;
1008.9000;0.6007;-0.2654;
1009.2000;0.6040;-0.2583;
1009.5000;0.6048;-0.2606;
1009.8000;0.6072;-0.2511;
1010.1000;0.6007;-0.2701;
1010.4000;0.6056;-0.2630;
1010.7000;0.6064;-0.2559;
1011.0000;0.6105;-0.2322;
1011.3000;0.6097;-0.2464;
1011.6000;0.6007;-0.2630;
1011.9000;0.6040;-0.2511;
1012.2000;0.6081;-0.2369;
1012.5000;0.6056;-0.2417;
1012.8000;0.6040;-0.2417;
1013.1000;0.5991;-0.2630;
1013.4000;0.6040;-0.2417;
1013.7000;0.6048;-0.2417;
1014.0000;0.6032;-0.2440;
1014.3000;0.6032;-0.2417;
1014.6000;0.6032;-0.2417;
1014.9000;0.6032;-0.2369;
1015.2000;0.6040;-0.2393;
1015.5000;0.6072;-0.2227;
1015.8000;0.5975;-0.2488;
1016.1000;0.6040;-0.2322;
1016.4000;0.6064;-0.2322;
1016.7000;0.6040;-0.2369;
1017.0000;0.6056;-0.2393;
1017.3000;0.6048;-0.2488;
1017.6000;0.6048;-0.2393;
1017.9000;0.6048;-0.2417;
1018.2000;0.6056;-0.2417;
1018.5000;0.6032;-0.2511;
1018.8000;0.6040;-0.2511;
1019.1000;0.6048;-0.2440;
1019.4000;0.6040;-0.2511;
1019.7000;0.6056;-0.2417;
1020.0000;0.6040;-0.2393;
1020.3000;0.6048;-0.2298;
1020.6000;0.6032;-0.2417;
1020.9000;0.6040;-0.2298;
1021.2000;0.6032;-0.2251;
1021.5000;0.6040;-0.2180;
1021.8000;0.6048;-0.2203;
1022.1000;0.6024;-0.2298;
1022.4000;0.6048;-0.2251;
1022.7000;0.6040;-0.2369;
1023.0000;0.6032;-0.2464;
1023.3000;0.6048;-0.2440;
1023.6000;0.6040;-0.2440;
1023.9000;0.6032;-0.2369;
1024.2000;0.6040;-0.2369;
1024.5000;0.6032;-0.2322;
1024.8000;0.6032;-0.2346;
1025.1000;0.6040;-0.2511;
1025.4000;0.6048;-0.2535;
1025.7000;0.6032;-0.2535;
1026.0000;0.6040;-0.2535;
1026.3000;0.6024;-0.2511;
1026.6000;0.6097;-0.2369;
1026.9000;0.6040;-0.2393;
1027.2000;0.6024;-0.2417;
1027.5000;0.6048;-0.2369;
1027.8000;0.6032;-0.2369;
1028.1000;0.6024;-0.2440;
1028.4000;0.6032;-0.2417;
1028.7000;0.6040;-0.2369;
1029.0000;0.6048;-0.2417;
1029.3000;0.6040;-0.2488;
1029.6000;0.6032;-0.2440;
1029.9000;0.6056;-0.2346;
1030.2000;0.6024;-0.2346;
1030.5000;0.6048;-0.2346;
1030.8000;0.6040;-0.2298;
1031.1000;0.6032;-0.2346;
1031.4000;0.6048;-0.2346;
1031.7000;0.6048;-0.2393;
1032.0000;0.6040;-0.2440;
1032.3000;0.6056;-0.2417;
1032.6000;0.6056;-0.2393;
1032.9000;0.6040;-0.2417;
1033.2000;0.6032;-0.2488;
1033.5000;0.6064;-0.2535;
1033.8000;0.6048;-0.2464;
1034.1000;0.6032;-0.2417;
1034.4000;0.6040;-0.2440;
1034.7000;0.6032;-0.2440;
1035.0000;0.5967;-0.2630;
1035.3000;0.6040;-0.2488;
1035.6000;0.6032;-0.2464;
1035.9000;0.6040;-0.2417;
1036.2000;0.6024;-0.2369;
1036.5000;0.6015;-0.2346;
1036.8000;0.6032;-0.2298;
1037.1000;0.6032;-0.2393;
1037.4000;0.6032;-0.2369;
1037.7000;0.6015;-0.2298;
1038.0000;0.5942;-0.2417;
1038.3000;0.6032;-0.2227;
1038.6000;0.6015;-0.2275;
1038.9000;0.6032;-0.2227;
1039.2000;0.6024;-0.2275;
1039.5000;0.6007;-0.2369;
1039.8000;0.6024;-0.2275;
1040.1000;0.6015;-0.2251;
1040.4000;0.6048;-0.2275;
1040.7000;0.6040;-0.2322;
1041.0000;0.6024;-0.2369;
1041.3000;0.6015;-0.2346;
1041.6000;0.6040;-0.2322;
1041.9000;0.6056;-0.2322;
1042.2000;0.6024;-0.2417;
1042.5000;0.6048;-0.2298;
1042.8000;0.6007;-0.2322;
1043.1000;0.6032;-0.2298;
1043.4000;0.6024;-0.2298;
1043.7000;0.6024;-0.2322;
1044.0000;0.6040;-0.2346;
1044.3000;0.6015;-0.2488;
1044.6000;0.6040;-0.2393;
1044.9000;0.6040;-0.2393;
1045.2000;0.6081;-0.2346;
1045.5000;0.6081;-0.2346;
1045.8000;0.6032;-0.2464;
1046.1000;0.6015;-0.2440;
1046.4000;0.6015;-0.2251;
1046.7000;0.6024;-0.2203;
1047.0000;0.5999;-0.2275;
1047.3000;0.5999;-0.2275;
1047.6000;0.6032;-0.2132;
1047.9000;0.6007;-0.2251;
1048.2000;0.6081;-0.2085;
1048.5000;0.6032;-0.2251;
1048.8000;0.6024;-0.2275;
1049.1000;0.6015;-0.2251;
1049.4000;0.6015;-0.2251;
1049.7000;0.6015;-0.2275;
1050.0000;0.5999;-0.2322;
1050.3000;0.6007;-0.2322;
1050.6000;0.6007;-0.2322;
1050.9000;0.6040;-0.2322;
1051.2000;0.6015;-0.2369;
1051.5000;0.5991;-0.2417;
1051.8000;0.6032;-0.2346;
1052.1000;0.6032;-0.2393;
1052.4000;0.6024;-0.2369;
1052.7000;0.6024;-0.2393;
1053.0000;0.6032;-0.2393;
1053.3000;0.6015;-0.2322;
1053.6000;0.5975;-0.2488;
1053.9000;0.6007;-0.2346;
1054.2000;0.6032;-0.2369;
1054.5000;0.6048;-0.2322;
1054.8000;0.6015;-0.2298;
1055.1000;0.6040;-0.2251;
1055.4000;0.6024;-0.2203;
1055.7000;0.6048;-0.2180;
1056.0000;0.6048;-0.2180;
1056.3000;0.6024;-0.2251;
1056.6000;0.6032;-0.2132;
1056.9000;0.6048;-0.2061;
1057.2000;0.6032;-0.2156;
1057.5000;0.6032;-0.2203;
1057.8000;0.5999;-0.2180;
1058.1000;0.6015;-0.2156;
1058.4000;0.5999;-0.2014;
1058.7000;0.6015;-0.2014;
1059.0000;0.5999;-0.2061;
1059.3000;0.6015;-0.1967;
1059.6000;0.6024;-0.1990;
1059.9000;0.6015;-0.2085;
1060.2000;0.6064;-0.1919;
1060.5000;0.6105;-0.1801;
1060.8000;0.6032;-0.2038;
1061.1000;0.6032;-0.2038;
1061.4000;0.6040;-0.2038;
1061.7000;0.6007;-0.2085;
1062.0000;0.6032;-0.2038;
1062.3000;0.6015;-0.2061;
1062.6000;0.6007;-0.2109;
1062.9000;0.6015;-0.2014;
1063.2000;0.6024;-0.2156;
1063.5000;0.6032;-0.2132;
1063.8000;0.5991;-0.2227;
1064.1000;0.6024;-0.2227;
1064.4000;0.6007;-0.2227;
1064.7000;0.6007;-0.2156;
1065.0000;0.6015;-0.2061;
1065.3000;0.6024;-0.2014;
1065.6000;0.6015;-0.2085;
1065.9000;0.6048;-0.2085;
1066.2000;0.6072;-0.2061;
1066.5000;0.6040;-0.2085;
1066.8000;0.6015;-0.2227;
1067.1000;0.6024;-0.2298;
1067.4000;0.6015;-0.2251;
1067.7000;0.6032;-0.2203;
1068.0000;0.6032;-0.2156;
1068.3000;0.5983;-0.2322;
1068.6000;0.6007;-0.2298;
1068.9000;0.6007;-0.2322;
1069.2000;0.6024;-0.2322;
1069.5000;0.5983;-0.2369;
1069.8000;0.6015;-0.2251;
1070.1000;0.6015;-0.2275;
1070.4000;0.6007;-0.2203;
1070.7000;0.6015;-0.2203;
1071.0000;0.6024;-0.2109;
1071.3000;0.6024;-0.2203;
1071.6000;0.6024;-0.2203;
1071.9000;0.6007;-0.2227;
1072.2000;0.6015;-0.2203;
1072.5000;0.6007;-0.2251;
1072.8000;0.6015;-0.2180;
1073.1000;0.6007;-0.2203;
1073.4000;0.6007;-0.2156;
1073.7000;0.6024;-0.2109;
1074.0000;0.6024;-0.2109;
1074.3000;0.6024;-0.2085;
1074.6000;0.5999;-0.2085;
1074.9000;0.6032;-0.2085;
1075.2000;0.6040;-0.2180;
1075.5000;0.6032;-0.2227;
1075.8000;0.6032;-0.2275;
1076.1000;0.6015;-0.2346;
1076.4000;0.6032;-0.2346;
1076.7000;0.6024;-0.2417;
1077.0000;0.6032;-0.2298;
1077.3000;0.6032;-0.2227;
1077.6000;0.6015;-0.2180;
1077.9000;0.6007;-0.2227;
1078.2000;0.6015;-0.2180;
1078.5000;0.6007;-0.2180;
1078.8000;0.6015;-0.2085;
1079.1000;0.6024;-0.2014;
1079.4000;0.6024;-0.1919;
1079.7000;0.6007;-0.2014;
1080.0000;0.6007;-0.2038;
1080.3000;0.6024;-0.2038;
1080.6000;0.6007;-0.2014;
1080.9000;0.5975;-0.2038;
1081.2000;0.5999;-0.2014;
1081.5000;0.5999;-0.1990;
1081.8000;0.6007;-0.2038;
1082.1000;0.5975;-0.2156;
1082.4000;0.6007;-0.2038;
1082.7000;0.6007;-0.2014;
1083.0000;0.5999;-0.2038;
1083.3000;0.5991;-0.2014;
1083.6000;0.5999;-0.2109;
1083.9000;0.5999;-0.2085;
1084.2000;0.5950;-0.2251;
1084.5000;0.5975;-0.2322;
1084.8000;0.6007;-0.2298;
1085.1000;0.5999;-0.2275;
1085.4000;0.5991;-0.2251;
1085.7000;0.6007;-0.2180;
1086.0000;0.6007;-0.2085;
1086.3000;0.5983;-0.2132;
1086.6000;0.5983;-0.2180;
1086.9000;0.6007;-0.2085;
1087.2000;0.6007;-0.2156;
1087.5000;0.6015;-0.2109;
1087.8000;0.6007;-0.2132;
1088.1000;0.6064;-0.2061;
1088.4000;0.6015;-0.2227;
1088.7000;0.6007;-0.2251;
1089.0000;0.5999;-0.2322;
1089.3000;0.5999;-0.2369;
1089.6000;0.6007;-0.2369;
1089.9000;0.5999;-0.2346;
1090.2000;0.6032;-0.2322;
1090.5000;0.6040;-0.2346;
1090.8000;0.6007;-0.2417;
1091.1000;0.5991;-0.2393;
1091.4000;0.6007;-0.2322;
1091.7000;0.5999;-0.2251;
1092.0000;0.6007;-0.2203;
1092.3000;0.5991;-0.2227;
1092.6000;0.6015;-0.2227;
1092.9000;0.5999;-0.2369;
1093.2000;0.6007;-0.2251;
1093.5000;0.5999;-0.2251;
1093.8000;0.5999;-0.2156;
1094.1000;0.6007;-0.2180;
1094.4000;0.6007;-0.2014;
1094.7000;0.5991;-0.2061;
1095.0000;0.6064;-0.1943;
1095.3000;0.5975;-0.2203;
1095.6000;0.6007;-0.2085;
1095.9000;0.5999;-0.2227;
1096.2000;0.6007;-0.2275;
1096.5000;0.6015;-0.2227;
1096.8000;0.6007;-0.2275;
1097.1000;0.6007;-0.2203;
1097.4000;0.5999;-0.2132;
1097.7000;0.6024;-0.2085;
1098.0000;0.6015;-0.2109;
1098.3000;0.6007;-0.2014;
1098.6000;0.5999;-0.2085;
1098.9000;0.6015;-0.2132;
1099.2000;0.6015;-0.2227;
1099.5000;0.6056;-0.2156;
1099.8000;0.5999;-0.2251;
1100.1000;0.5958;-0.2346;
1100.4000;0.5999;-0.2322;
1100.7000;0.5999;-0.2203;
1101.0000;0.5991;-0.2298;
1101.3000;0.5983;-0.2298;
1101.6000;0.5991;-0.2275;
1101.9000;0.5999;-0.2275;
1102.2000;0.5975;-0.2322;
1102.5000;0.5991;-0.2251;
1102.8000;0.5983;-0.2298;
1103.1000;0.5983;-0.2275;
1103.4000;0.6015;-0.2203;
1103.7000;0.6007;-0.2275;
1104.0000;0.5975;-0.2369;
1104.3000;0.5991;-0.2275;
1104.6000;0.5991;-0.2298;
1104.9000;0.5999;-0.2275;
1105.2000;0.5991;-0.2346;
1105.5000;0.6015;-0.2275;
1105.8000;0.5983;-0.2346;
1106.1000;0.5999;-0.2298;
1106.4000;0.5999;-0.2180;
1106.7000;0.6024;-0.2109;
1107.0000;0.6032;-0.2227;
1107.3000;0.6015;-0.2203;
1107.6000;0.5991;-0.2203;
1107.9000;0.6007;-0.2203;
1108.2000;0.6032;-0.2180;
1108.5000;0.6015;-0.2298;
1108.8000;0.6007;-0.2417;
1109.1000;0.6007;-0.2488;
1109.4000;0.6007;-0.2464;
1109.7000;0.5991;-0.2440;
1110.0000;0.6056;-0.2275;
1110.3000;0.5991;-0.2440;
1110.6000;0.5983;-0.2464;
1110.9000;0.5999;-0.2464;
1111.2000;0.5991;-0.2511;
1111.5000;0.5999;-0.2559;
1111.8000;0.6015;-0.2606;
1112.1000;0.6007;-0.2630;
1112.4000;0.6064;-0.2440;
1112.7000;0.6024;-0.2535;
1113.0000;0.6007;-0.2606;
1113.3000;0.5999;-0.2559;
1113.6000;0.6015;-0.2464;
1113.9000;0.6007;-0.2346;
1114.2000;0.6007;-0.2298;
1114.5000;0.6007;-0.2298;
1114.8000;0.5999;-0.2369;
1115.1000;0.6007;-0.2298;
1115.4000;0.6007;-0.2275;
1115.7000;0.6007;-0.2298;
1116.0000;0.6056;-0.2203;
1116.3000;0.6015;-0.2322;
1116.6000;0.5991;-0.2393;
1116.9000;0.5991;-0.2369;
1117.2000;0.6007;-0.2322;
1117.5000;0.6007;-0.2322;
1117.8000;0.6007;-0.2346;
1118.1000;0.5999;-0.2393;
1118.4000;0.5999;-0.2417;
1118.7000;0.5999;-0.2369;
1119.0000;0.6007;-0.2369;
1119.3000;0.6007;-0.2369;
1119.6000;0.6007;-0.2417;
1119.9000;0.6007;-0.2440;
1120.2000;0.6015;-0.2464;
1120.5000;0.5991;-0.2464;
1120.8000;0.5975;-0.2488;
1121.1000;0.6024;-0.2464;
1121.4000;0.5983;-0.2440;
1121.7000;0.5991;-0.2417;
1122.0000;0.5983;-0.2298;
1122.3000;0.5991;-0.2298;
1122.6000;0.6024;-0.2275;
1122.9000;0.5991;-0.2440;
1123.2000;0.5991;-0.2393;
1123.5000;0.5991;-0.2393;
1123.8000;0.6007;-0.2369;
1124.1000;0.5999;-0.2298;
1124.4000;0.6064;-0.2061;
1124.7000;0.5991;-0.2251;
1125.0000;0.5991;-0.2322;
1125.3000;0.6007;-0.2275;
1125.6000;0.5991;-0.2346;
1125.9000;0.5983;-0.2417;
1126.2000;0.6015;-0.2369;
1126.5000;0.5999;-0.2346;
1126.8000;0.6007;-0.2298;
1127.1000;0.6024;-0.2251;
1127.4000;0.5991;-0.2298;
1127.7000;0.5999;-0.2227;
1128.0000;0.5975;-0.2393;
1128.3000;0.6007;-0.2369;
1128.6000;0.5991;-0.2393;
1128.9000;0.6056;-0.2227;
1129.2000;0.6089;-0.2275;
1129.5000;0.5999;-0.2511;
1129.8000;0.6015;-0.2440;
1130.1000;0.5999;-0.2535;
1130.4000;0.5999;-0.2511;
1130.7000;0.5991;-0.2488;
1131.0000;0.6007;-0.2464;
1131.3000;0.5991;-0.2417;
1131.6000;0.6007;-0.2346;
1131.9000;0.6015;-0.2322;
1132.2000;0.5975;-0.2369;
1132.5000;0.5983;-0.2322;
1132.8000;0.5991;-0.2322;
1133.1000;0.5991;-0.2346;
1133.4000;0.5999;-0.2369;
1133.7000;0.5983;-0.2464;
1134.0000;0.6007;-0.2369;
1134.3000;0.6024;-0.2298;
1134.6000;0.5991;-0.2369;
1134.9000;0.6015;-0.2298;
1135.2000;0.5999;-0.2346;
1135.5000;0.6007;-0.2369;
1135.8000;0.6007;-0.2322;
1136.1000;0.5991;-0.2298;
1136.4000;0.5975;-0.2275;
1136.7000;0.5999;-0.2227;
1137.0000;0.5999;-0.2251;
1137.3000;0.5991;-0.2298;
1137.6000;0.5999;-0.2369;
1137.9000;0.5983;-0.2369;
1138.2000;0.5999;-0.2346;
1138.5000;0.5942;-0.2488;
1138.8000;0.5991;-0.2393;
1139.1000;0.6007;-0.2346;
1139.4000;0.5999;-0.2488;
1139.7000;0.6007;-0.2488;
1140.0000;0.6040;-0.2440;
1140.3000;0.6007;-0.2511;
1140.6000;0.5999;-0.2583;
1140.9000;0.5942;-0.2654;
1141.2000;0.5999;-0.2583;
1141.5000;0.5999;-0.2535;
1141.8000;0.5958;-0.2677;
1142.1000;0.5967;-0.2606;
1142.4000;0.5967;-0.2725;
1142.7000;0.5975;-0.2654;
1143.0000;0.5967;-0.2654;
1143.3000;0.5975;-0.2488;
1143.6000;0.6015;-0.2417;
1143.9000;0.5958;-0.2488;
1144.2000;0.5999;-0.2322;
1144.5000;0.5999;-0.2322;
1144.8000;0.5991;-0.2346;
1145.1000;0.5991;-0.2369;
1145.4000;0.5975;-0.2393;
1145.7000;0.5983;-0.2440;
1146.0000;0.5999;-0.2417;
1146.3000;0.5983;-0.2417;
1146.6000;0.5983;-0.2393;
1146.9000;0.5999;-0.2393;
1147.2000;0.5999;-0.2440;
1147.5000;0.5983;-0.2417;
1147.8000;0.5975;-0.2464;
1148.1000;0.5991;-0.2417;
1148.4000;0.5958;-0.2322;
1148.7000;0.5991;-0.2275;
1149.0000;0.5991;-0.2298;
1149.3000;0.5934;-0.2488;
1149.6000;0.6007;-0.2393;
1149.9000;0.5991;-0.2417;
1150.2000;0.5983;-0.2464;
1150.5000;0.5934;-0.2606;
1150.8000;0.5991;-0.2488;
1151.1000;0.5991;-0.2488;
1151.4000;0.5999;-0.2535;
1151.7000;0.5975;-0.2511;
1152.0000;0.5999;-0.2393;
1152.3000;0.5991;-0.2464;
1152.6000;0.5983;-0.2393;
1152.9000;0.5983;-0.2417;
1153.2000;0.5983;-0.2369;
1153.5000;0.5983;-0.2346;
1153.8000;0.5975;-0.2346;
1154.1000;0.5991;-0.2417;
1154.4000;0.5983;-0.2322;
1154.7000;0.5999;-0.2322;
1155.0000;0.5991;-0.2298;
1155.3000;0.5991;-0.2298;
1155.6000;0.5983;-0.2417;
1155.9000;0.5991;-0.2417;
1156.2000;0.6007;-0.2464;
1156.5000;0.5999;-0.2417;
1156.8000;0.5975;-0.2535;
1157.1000;0.5983;-0.2583;
1157.4000;0.5999;-0.2511;
1157.7000;0.5975;-0.2535;
1158.0000;0.5967;-0.2535;
1158.3000;0.5967;-0.2511;
1158.6000;0.5999;-0.2417;
1158.9000;0.5975;-0.2464;
1159.2000;0.5958;-0.2488;
1159.5000;0.5983;-0.2464;
1159.8000;0.5983;-0.2511;
1160.1000;0.5991;-0.2488;
1160.4000;0.5999;-0.2511;
1160.7000;0.5975;-0.2606;
1161.0000;0.5983;-0.2559;
1161.3000;0.5942;-0.2748;
1161.6000;0.5991;-0.2583;
1161.9000;0.5991;-0.2630;
1162.2000;0.5991;-0.2535;
1162.5000;0.5991;-0.2369;
1162.8000;0.5991;-0.2298;
1163.1000;0.5991;-0.2298;
1163.4000;0.5975;-0.2346;
1163.7000;0.5967;-0.2346;
1164.0000;0.5983;-0.2369;
1164.3000;0.5902;-0.2606;
1164.6000;0.5975;-0.2393;
1164.9000;0.5967;-0.2251;
1165.2000;0.5967;-0.2275;
1165.5000;0.5983;-0.2298;
1165.8000;0.5967;-0.2417;
1166.1000;0.5999;-0.2346;
1166.4000;0.5999;-0.2275;
1166.7000;0.5991;-0.2275;
1167.0000;0.5967;-0.2322;
1167.3000;0.6056;-0.2038;
1167.6000;0.5991;-0.2227;
1167.9000;0.5991;-0.2132;
1168.2000;0.5983;-0.2156;
1168.5000;0.5975;-0.1967;
1168.8000;0.5983;-0.1919;
1169.1000;0.5983;-0.2014;
1169.4000;0.5975;-0.2061;
1169.7000;0.5975;-0.1943;
1170.0000;0.5999;-0.1872;
1170.3000;0.5934;-0.1919;
1170.6000;0.5983;-0.1895;
1170.9000;0.5967;-0.2014;
1171.2000;0.6040;-0.1872;
1171.5000;0.5991;-0.2014;
1171.8000;0.5983;-0.1943;
1172.1000;0.5975;-0.1919;
1172.4000;0.5983;-0.1919;
1172.7000;0.5983;-0.1943;
1173.0000;0.5999;-0.1943;
1173.3000;0.5983;-0.2014;
1173.6000;0.5975;-0.2085;
1173.9000;0.5983;-0.2132;
1174.2000;0.5983;-0.2251;
1174.5000;0.5983;-0.2322;
1174.8000;0.5975;-0.2346;
1175.1000;0.5991;-0.2298;
1175.4000;0.5983;-0.2203;
1175.7000;0.5983;-0.2298;
1176.0000;0.5991;-0.2369;
1176.3000;0.5967;-0.2440;
1176.6000;0.5983;-0.2440;
1176.9000;0.5991;-0.2393;
1177.2000;0.5983;-0.2369;
1177.5000;0.5983;-0.2393;
1177.8000;0.5975;-0.2346;
1178.1000;0.5983;-0.2393;
1178.4000;0.5983;-0.2322;
1178.7000;0.5967;-0.2346;
1179.0000;0.5983;-0.2369;
1179.3000;0.6064;-0.2132;
1179.6000;0.5975;-0.2251;
1179.9000;0.5967;-0.2251;
1180.2000;0.5975;-0.2180;
1180.5000;0.5975;-0.2156;
1180.8000;0.5991;-0.2180;
1181.1000;0.5975;-0.2156;
1181.4000;0.5999;-0.2132;
1181.7000;0.5991;-0.2156;
1182.0000;0.5975;-0.2227;
1182.3000;0.5967;-0.2275;
1182.6000;0.5975;-0.2203;
1182.9000;0.5999;-0.2156;
1183.2000;0.5999;-0.2085;
1183.5000;0.5975;-0.2038;
1183.8000;0.5975;-0.2085;
1184.1000;0.5975;-0.2038;
1184.4000;0.5983;-0.1967;
1184.7000;0.5983;-0.1990;
1185.0000;0.5983;-0.1967;
1185.3000;0.6056;-0.1848;
1185.6000;0.5983;-0.1990;
1185.9000;0.5983;-0.1967;
1186.2000;0.5975;-0.2014;
1186.5000;0.5975;-0.2038;
1186.8000;0.5991;-0.2038;
1187.1000;0.5983;-0.2061;
1187.4000;0.5983;-0.2109;
1187.7000;0.5991;-0.2061;
1188.0000;0.5983;-0.2038;
1188.3000;0.5999;-0.1990;
1188.6000;0.6015;-0.1895;
1188.9000;0.5967;-0.2038;
1189.2000;0.5983;-0.2061;
1189.5000;0.5983;-0.2061;
1189.8000;0.5991;-0.2038;
1190.1000;0.5942;-0.2038;
1190.4000;0.5967;-0.1895;
1190.7000;0.5967;-0.1872;
1191.0000;0.5967;-0.1872;
1191.3000;0.5975;-0.1824;
1191.6000;0.5975;-0.1895;
1191.9000;0.5950;-0.1967;
1192.2000;0.5983;-0.1872;
1192.5000;0.5991;-0.1848;
1192.8000;0.5975;-0.1919;
1193.1000;0.5967;-0.1919;
1193.4000;0.6007;-0.1824;
1193.7000;0.5967;-0.1824;
1194.0000;0.5967;-0.1801;
1194.3000;0.5958;-0.1682;
1194.6000;0.6048;-0.1398;
1194.9000;0.5967;-0.1611;
1195.2000;0.5967;-0.1635;
1195.5000;0.5958;-0.1730;
1195.8000;0.5975;-0.1824;
1196.1000;0.5999;-0.1848;
1196.4000;0.5942;-0.2014;
1196.7000;0.5975;-0.1872;
1197.0000;0.5991;-0.1919;
1197.3000;0.5991;-0.1848;
1197.6000;0.6048;-0.1682;
1197.9000;0.5975;-0.1801;
1198.2000;0.5983;-0.1848;
1198.5000;0.5983;-0.1824;
1198.8000;0.5918;-0.2014;
1199.1000;0.5975;-0.1824;
1199.4000;0.5983;-0.1801;
1199.7000;0.5983;-0.1824;
1200.0000;0.5958;-0.1895;
1200.3000;0.5991;-0.1777;
1200.6000;0.5958;-0.1919;
1200.9000;0.5975;-0.1895;
1201.2000;0.5910;-0.1967;
1201.5000;0.5958;-0.1848;
1201.8000;0.5958;-0.1824;
1202.1000;0.6048;-0.1635;
1202.4000;0.5983;-0.1801;
1202.7000;0.5975;-0.1895;
1203.0000;0.5975;-0.1990;
1203.3000;0.5975;-0.2014;
1203.6000;0.5967;-0.1967;
1203.9000;0.5975;-0.1919;
1204.2000;0.5918;-0.1990;
1204.5000;0.5991;-0.1824;
1204.8000;0.5983;-0.1872;
1205.1000;0.5975;-0.1895;
1205.4000;0.5934;-0.1967;
1205.7000;0.5950;-0.1919;
1206.0000;0.5967;-0.1848;
1206.3000;0.5967;-0.1801;
1206.6000;0.5958;-0.1753;
1206.9000;0.5975;-0.1824;
1207.2000;0.5983;-0.1872;
1207.5000;0.6015;-0.1753;
1207.8000;0.5991;-0.1824;
1208.1000;0.5983;-0.1824;
1208.4000;0.5975;-0.1824;
1208.7000;0.5975;-0.1848;
1209.0000;0.5983;-0.1967;
1209.3000;0.6007;-0.1872;
1209.6000;0.5975;-0.1967;
1209.9000;0.5983;-0.1919;
1210.2000;0.5991;-0.1895;
1210.5000;0.5958;-0.1919;
1210.8000;0.5950;-0.1895;
1211.1000;0.5950;-0.1777;
1211.4000;0.5958;-0.1730;
1211.7000;0.5967;-0.1824;
1212.0000;0.5975;-0.1848;
1212.3000;0.5975;-0.1919;
1212.6000;0.5991;-0.1895;
1212.9000;0.5975;-0.1872;
1213.2000;0.5967;-0.1943;
1213.5000;0.5975;-0.1895;
1213.8000;0.5983;-0.1801;
1214.1000;0.5983;-0.1682;
1214.4000;0.5991;-0.1635;
1214.7000;0.5967;-0.1706;
1215.0000;0.5999;-0.1753;
1215.3000;0.5958;-0.1777;
1215.6000;0.5999;-0.1706;
1215.9000;0.5942;-0.1848;
1216.2000;0.5967;-0.1848;
1216.5000;0.5983;-0.1824;
1216.8000;0.5934;-0.1895;
1217.1000;0.5967;-0.1801;
1217.4000;0.5958;-0.1848;
1217.7000;0.5967;-0.1943;
1218.0000;0.5934;-0.2014;
1218.3000;0.5983;-0.1919;
1218.6000;0.5975;-0.1919;
1218.9000;0.5934;-0.2014;
1219.2000;0.5958;-0.1872;
1219.5000;0.5967;-0.1919;
1219.8000;0.6007;-0.1824;
1220.1000;0.5926;-0.1967;
1220.4000;0.5991;-0.1801;
1220.7000;0.5975;-0.1848;
1221.0000;0.5958;-0.1872;
1221.3000;0.5967;-0.1872;
1221.6000;0.5991;-0.1753;
1221.9000;0.5950;-0.1895;
1222.2000;0.5918;-0.2132;
1222.5000;0.5967;-0.2014;
1222.8000;0.5975;-0.1919;
1223.1000;0.5967;-0.1919;
1223.4000;0.5902;-0.2014;
1223.7000;0.5975;-0.1919;
1224.0000;0.5983;-0.1943;
1224.3000;0.5983;-0.1967;
1224.6000;0.5983;-0.1967;
1224.9000;0.5983;-0.1872;
1225.2000;0.6040;-0.1801;
1225.5000;0.5991;-0.1872;
1225.8000;0.5983;-0.1895;
1226.1000;0.5975;-0.1919;
1226.4000;0.5991;-0.1967;
1226.7000;0.5958;-0.1967;
1227.0000;0.5950;-0.1967;
1227.3000;0.5950;-0.1943;
1227.6000;0.5950;-0.1990;
1227.9000;0.5967;-0.1919;
1228.2000;0.5967;-0.1895;
1228.5000;0.5942;-0.1967;
1228.8000;0.5967;-0.1943;
1229.1000;0.5975;-0.1943;
1229.4000;0.5958;-0.2014;
1229.7000;0.5967;-0.2132;
1230.0000;0.5983;-0.2061;
1230.3000;0.5975;-0.1990;
1230.6000;0.5983;-0.2038;
1230.9000;0.5975;-0.2061;
1231.2000;0.5967;-0.2156;
1231.5000;0.5975;-0.2132;
1231.8000;0.5983;-0.2132;
1232.1000;0.5958;-0.2156;
1232.4000;0.5918;-0.2275;
1232.7000;0.5958;-0.2109;
1233.0000;0.5975;-0.2085;
1233.3000;0.5975;-0.2061;
1233.6000;0.5967;-0.1990;
1233.9000;0.5958;-0.2061;
1234.2000;0.5975;-0.2014;
1234.5000;0.5983;-0.2038;
1234.8000;0.5991;-0.2061;
1235.1000;0.5967;-0.1990;
1235.4000;0.5975;-0.2038;
1235.7000;0.5983;-0.1967;
1236.0000;0.5975;-0.2061;
1236.3000;0.5967;-0.2085;
1236.6000;0.5910;-0.2132;
1236.9000;0.5958;-0.1967;
1237.2000;0.5983;-0.1919;
1237.5000;0.5991;-0.1872;
1237.8000;0.5893;-0.2132;
1238.1000;0.5942;-0.2085;
1238.4000;0.6048;-0.1895;
1238.7000;0.5991;-0.2085;
1239.0000;0.5967;-0.2180;
1239.3000;0.5991;-0.2038;
1239.6000;0.5967;-0.2038;
1239.9000;0.5967;-0.2156;
1240.2000;0.5975;-0.2038;
1240.5000;0.5983;-0.2085;
1240.8000;0.5967;-0.2132;
1241.1000;0.5975;-0.2203;
1241.4000;0.5975;-0.2132;
1241.7000;0.5975;-0.1990;
1242.0000;0.5975;-0.1943;
1242.3000;0.5958;-0.1919;
1242.6000;0.5967;-0.1990;
1242.9000;0.5975;-0.1943;
1243.2000;0.5950;-0.1990;
1243.5000;0.5983;-0.1919;
1243.8000;0.5902;-0.2203;
1244.1000;0.5950;-0.2132;
1244.4000;0.5958;-0.2203;
1244.7000;0.5950;-0.2203;
1245.0000;0.5967;-0.2156;
1245.3000;0.5967;-0.2203;
1245.6000;0.5967;-0.2109;
1245.9000;0.5983;-0.2061;
1246.2000;0.5999;-0.1967;
1246.5000;0.5950;-0.2038;
1246.8000;0.5975;-0.1943;
1247.1000;0.5942;-0.2014;
1247.4000;0.5967;-0.1919;
1247.7000;0.5958;-0.1895;
1248.0000;0.5950;-0.1777;
1248.3000;0.5958;-0.1801;
1248.6000;0.5967;-0.1895;
1248.9000;0.5967;-0.1872;
1249.2000;0.5967;-0.1919;
1249.5000;0.5950;-0.2014;
1249.8000;0.5967;-0.2014;
1250.1000;0.5967;-0.2014;
1250.4000;0.5967;-0.1990;
1250.7000;0.5958;-0.2014;
1251.0000;0.5967;-0.2014;
1251.3000;0.5975;-0.2014;
1251.6000;0.5958;-0.2014;
1251.9000;0.5942;-0.1967;
1252.2000;0.5991;-0.1848;
1252.5000;0.5958;-0.1967;
1252.8000;0.5958;-0.2014;
1253.1000;0.5967;-0.2061;
1253.4000;0.5958;-0.2038;
1253.7000;0.5958;-0.2132;
1254.0000;0.5942;-0.2156;
1254.3000;0.5950;-0.2227;
1254.6000;0.5967;-0.2180;
1254.9000;0.5958;-0.2203;
1255.2000;0.5967;-0.2132;
1255.5000;0.5902;-0.2298;
1255.8000;0.5967;-0.2085;
1256.1000;0.5967;-0.1990;
1256.4000;0.5967;-0.2014;
1256.7000;0.5958;-0.2014;
1257.0000;0.5958;-0.1990;
1257.3000;0.5975;-0.1895;
1257.6000;0.5950;-0.1872;
1257.9000;0.5967;-0.1824;
1258.2000;0.5950;-0.1872;
1258.5000;0.5958;-0.1848;
1258.8000;0.5967;-0.1824;
1259.1000;0.5983;-0.1824;
1259.4000;0.5958;-0.1848;
1259.7000;0.5958;-0.1872;
1260.0000;0.5958;-0.1919;
1260.3000;0.5958;-0.1967;
1260.6000;0.5950;-0.1990;
1260.9000;0.5967;-0.2038;
1261.2000;0.5958;-0.2085;
1261.5000;0.5902;-0.2393;
1261.8000;0.5958;-0.2251;
1262.1000;0.5950;-0.2275;
1262.4000;0.5893;-0.2369;
1262.7000;0.5975;-0.2227;
1263.0000;0.5950;-0.2251;
1263.3000;0.5958;-0.2109;
1263.6000;0.5983;-0.1943;
1263.9000;0.5950;-0.1990;
1264.2000;0.5942;-0.2038;
1264.5000;0.5942;-0.2014;
1264.8000;0.5967;-0.2014;
1265.1000;0.5934;-0.2061;
1265.4000;0.5967;-0.2014;
1265.7000;0.5950;-0.2061;
1266.0000;0.5975;-0.2061;
1266.3000;0.5975;-0.2061;
1266.6000;0.5967;-0.2014;
1266.9000;0.5950;-0.2085;
1267.2000;0.5950;-0.2085;
1267.5000;0.5967;-0.2038;
1267.8000;0.5975;-0.1919;
1268.1000;0.6032;-0.1777;
1268.4000;0.5934;-0.2085;
1268.7000;0.5958;-0.1919;
1269.0000;0.6015;-0.1706;
1269.3000;0.5975;-0.1777;
1269.6000;0.5991;-0.1753;
1269.9000;0.5950;-0.1872;
1270.2000;0.5918;-0.2061;
1270.5000;0.5950;-0.1990;
1270.8000;0.5958;-0.1990;
1271.1000;0.5942;-0.1919;
1271.4000;0.5958;-0.1943;
1271.7000;0.5950;-0.1895;
1272.0000;0.5950;-0.1824;
1272.3000;0.5958;-0.1848;
1272.6000;0.5975;-0.1848;
1272.9000;0.5958;-0.1848;
1273.2000;0.5975;-0.1872;
1273.5000;0.5942;-0.2014;
1273.8000;0.5950;-0.1967;
1274.1000;0.5942;-0.1824;
1274.4000;0.5958;-0.1872;
1274.7000;0.5958;-0.1848;
1275.0000;0.5983;-0.1801;
1275.3000;0.5942;-0.1943;
1275.6000;0.5967;-0.1824;
1275.9000;0.5950;-0.1824;
1276.2000;0.5958;-0.1872;
1276.5000;0.5950;-0.1967;
1276.8000;0.5950;-0.1943;
1277.1000;0.5967;-0.1730;
1277.4000;0.5967;-0.1659;
1277.7000;0.5950;-0.1682;
1278.0000;0.5958;-0.1659;
1278.3000;0.5958;-0.1611;
1278.6000;0.5967;-0.1659;
1278.9000;0.5967;-0.1730;
1279.2000;0.5950;-0.1753;
1279.5000;0.5958;-0.1753;
1279.8000;0.5950;-0.1777;
1280.1000;0.5942;-0.1801;
1280.4000;0.5926;-0.1777;
1280.7000;0.5967;-0.1777;
1281.0000;0.5950;-0.1848;
1281.3000;0.5950;-0.1848;
1281.6000;0.5950;-0.1895;
1281.9000;0.5958;-0.1919;
1282.2000;0.5967;-0.1895;
1282.5000;0.5975;-0.1848;
1282.8000;0.5958;-0.1919;
1283.1000;0.5950;-0.1919;
1283.4000;0.5967;-0.1943;
1283.7000;0.5942;-0.1990;
1284.0000;0.5910;-0.2156;
1284.3000;0.5967;-0.1990;
1284.6000;0.5975;-0.1872;
1284.9000;0.5958;-0.1967;
1285.2000;0.5950;-0.2038;
1285.5000;0.5967;-0.1967;
1285.8000;0.5958;-0.1990;
1286.1000;0.5958;-0.1919;
1286.4000;0.5967;-0.2014;
1286.7000;0.5967;-0.1990;
1287.0000;0.5958;-0.2038;
1287.3000;0.5975;-0.2038;
1287.6000;0.5967;-0.2085;
1287.9000;0.5958;-0.2061;
1288.2000;0.5967;-0.2038;
1288.5000;0.5967;-0.2038;
1288.8000;0.5975;-0.2038;
1289.1000;0.5950;-0.2014;
1289.4000;0.5975;-0.2014;
1289.7000;0.5950;-0.2109;
1290.0000;0.5983;-0.2014;
1290.3000;0.5958;-0.2038;
1290.6000;0.5967;-0.1943;
1290.9000;0.5958;-0.1990;
1291.2000;0.5942;-0.2038;
1291.5000;0.5967;-0.2061;
1291.8000;0.5967;-0.2014;
1292.1000;0.5934;-0.2061;
1292.4000;0.5958;-0.1990;
1292.7000;0.5934;-0.2061;
1293.0000;0.6024;-0.1801;
1293.3000;0.5967;-0.1990;
1293.6000;0.5958;-0.1919;
1293.9000;0.5958;-0.1919;
1294.2000;0.5910;-0.2061;
1294.5000;0.5950;-0.1919;
1294.8000;0.5958;-0.1872;
1295.1000;0.5958;-0.1943;
1295.4000;0.5942;-0.1967;
1295.7000;0.5926;-0.2014;
1296.0000;0.5975;-0.1943;
1296.3000;0.5958;-0.1895;
1296.6000;0.5942;-0.1919;
1296.9000;0.5958;-0.2038;
1297.2000;0.5950;-0.2014;
1297.5000;0.5991;-0.1848;
1297.8000;0.5950;-0.1943;
1298.1000;0.5942;-0.1990;
1298.4000;0.5958;-0.1895;
1298.7000;0.5958;-0.2038;
1299.0000;0.5958;-0.2132;
1299.3000;0.5893;-0.2227;
1299.6000;0.5958;-0.2038;
1299.9000;0.5967;-0.2014;
1300.2000;0.5958;-0.1990;
1300.5000;0.5942;-0.2061;
1300.8000;0.5967;-0.2061;
1301.1000;0.5983;-0.2038;
1301.4000;0.5991;-0.1967;
1301.7000;0.5958;-0.1990;
1302.0000;0.5958;-0.2014;
1302.3000;0.5950;-0.2014;
1302.6000;0.5967;-0.1967;
1302.9000;0.5967;-0.1872;
1303.2000;0.5950;-0.1919;
1303.5000;0.5950;-0.1967;
1303.8000;0.5958;-0.2014;
1304.1000;0.5958;-0.2014;
1304.4000;0.5967;-0.2014;
1304.7000;0.5958;-0.2061;
1305.0000;0.5975;-0.1967;
1305.3000;0.5967;-0.2085;
1305.6000;0.5950;-0.2132;
1305.9000;0.5950;-0.2227;
1306.2000;0.5975;-0.2109;
1306.5000;0.5950;-0.2203;
1306.8000;0.5958;-0.2227;
1307.1000;0.5926;-0.2298;
1307.4000;0.5991;-0.2180;
1307.7000;0.5958;-0.2227;
1308.0000;0.5991;-0.2180;
1308.3000;0.5950;-0.2322;
1308.6000;0.5942;-0.2369;
1308.9000;0.5967;-0.2322;
1309.2000;0.5983;-0.2203;
1309.5000;0.5958;-0.2227;
1309.8000;0.5958;-0.2298;
1310.1000;0.5999;-0.2156;
1310.4000;0.5991;-0.2203;
1310.7000;0.5950;-0.2393;
1311.0000;0.5950;-0.2440;
1311.3000;0.5942;-0.2417;
1311.6000;0.5958;-0.2346;
1311.9000;0.5942;-0.2251;
1312.2000;0.5942;-0.2203;
1312.5000;0.5967;-0.2180;
1312.8000;0.5958;-0.2180;
1313.1000;0.6024;-0.1943;
1313.4000;0.5967;-0.2109;
1313.7000;0.5942;-0.2038;
1314.0000;0.6040;-0.1730;
1314.3000;0.5942;-0.1943;
1314.6000;0.5958;-0.1967;
1314.9000;0.5958;-0.2038;
1315.2000;0.5950;-0.2061;
1315.5000;0.5967;-0.2038;
1315.8000;0.5942;-0.2132;
1316.1000;0.5958;-0.2180;
1316.4000;0.5950;-0.2132;
1316.7000;0.5950;-0.2203;
1317.0000;0.5958;-0.2132;
1317.3000;0.5950;-0.2132;
1317.6000;0.5950;-0.2085;
1317.9000;0.5958;-0.2014;
1318.2000;0.5934;-0.2014;
1318.5000;0.5958;-0.1919;
1318.8000;0.5950;-0.1990;
1319.1000;0.5893;-0.2203;
1319.4000;0.6015;-0.1872;
1319.7000;0.5967;-0.1895;
1320.0000;0.5999;-0.1801;
1320.3000;0.5975;-0.1872;
1320.6000;0.5950;-0.1967;
1320.9000;0.5958;-0.1990;
1321.2000;0.5950;-0.2038;
1321.5000;0.5958;-0.2038;
1321.8000;0.5950;-0.2109;
1322.1000;0.5950;-0.2203;
1322.4000;0.5950;-0.2203;
1322.7000;0.5934;-0.2227;
1323.0000;0.5958;-0.2156;
1323.3000;0.5958;-0.2014;
1323.6000;0.5950;-0.1967;
1323.9000;0.5942;-0.1872;
1324.2000;0.5958;-0.1824;
1324.5000;0.5958;-0.1801;
1324.8000;0.5950;-0.1801;
1325.1000;0.5942;-0.1777;
1325.4000;0.5942;-0.1706;
1325.7000;0.5975;-0.1706;
1326.0000;0.5950;-0.1777;
1326.3000;0.5967;-0.1801;
1326.6000;0.5967;-0.1801;
1326.9000;0.5942;-0.1848;
1327.2000;0.5967;-0.1730;
1327.5000;0.5942;-0.1801;
1327.8000;0.5910;-0.1848;
1328.1000;0.5942;-0.1706;
1328.4000;0.5958;-0.1777;
1328.7000;0.5942;-0.1824;
1329.0000;0.5934;-0.1824;
1329.3000;0.5926;-0.1801;
1329.6000;0.5950;-0.1801;
1329.9000;0.5926;-0.1919;
1330.2000;0.5950;-0.1895;
1330.5000;0.5950;-0.1895;
1330.8000;0.5950;-0.1824;
1331.1000;0.5950;-0.1824;
1331.4000;0.5950;-0.1777;
1331.7000;0.5958;-0.1801;
1332.0000;0.5999;-0.1824;
1332.3000;0.5958;-0.1919;
1332.6000;0.5942;-0.1943;
1332.9000;0.5958;-0.1967;
1333.2000;0.5934;-0.1990;
1333.5000;0.5999;-0.1872;
1333.8000;0.5942;-0.1872;
1334.1000;0.5950;-0.1895;
1334.4000;0.5967;-0.1872;
1334.7000;0.5975;-0.1895;
1335.0000;0.5926;-0.1990;
1335.3000;0.5950;-0.1872;
1335.6000;0.5958;-0.1919;
1335.9000;0.5975;-0.1967;
1336.2000;0.5967;-0.1895;
1336.5000;0.5958;-0.1824;
1336.8000;0.5926;-0.1943;
1337.1000;0.5934;-0.1824;
1337.4000;0.5950;-0.1777;
1337.7000;0.5942;-0.1777;
1338.0000;0.5869;-0.1967;
1338.3000;0.5950;-0.1895;
1338.6000;0.5950;-0.1848;
1338.9000;0.5950;-0.1824;
1339.2000;0.5942;-0.1777;
1339.5000;0.5958;-0.1801;
1339.8000;0.5983;-0.1730;
1340.1000;0.5950;-0.1824;
1340.4000;0.5958;-0.1872;
1340.7000;0.5958;-0.1801;
1341.0000;0.5926;-0.1824;
1341.3000;0.5942;-0.1730;
1341.6000;0.5942;-0.1824;
1341.9000;0.5967;-0.1895;
1342.2000;0.5958;-0.1943;
1342.5000;0.5942;-0.1990;
1342.8000;0.5942;-0.1967;
1343.1000;0.5958;-0.1943;
1343.4000;0.5983;-0.1895;
1343.7000;0.5950;-0.2038;
1344.0000;0.5942;-0.2109;
1344.3000;0.5942;-0.2156;
1344.6000;0.5942;-0.2132;
1344.9000;0.5950;-0.2038;
1345.2000;0.5950;-0.1919;
1345.5000;0.5967;-0.1943;
1345.8000;0.5983;-0.1967;
1346.1000;0.5967;-0.2014;
1346.4000;0.5967;-0.2014;
1346.7000;0.5942;-0.2014;
1347.0000;0.5950;-0.2061;
1347.3000;0.5967;-0.2038;
1347.6000;0.5975;-0.2132;
1347.9000;0.5958;-0.2227;
1348.2000;0.5950;-0.2275;
1348.5000;0.5958;-0.2251;
1348.8000;0.5958;-0.2275;
1349.1000;0.5934;-0.2156;
1349.4000;0.5942;-0.2085;
1349.7000;0.5942;-0.2061;
1350.0000;0.5918;-0.2109;
1350.3000;0.5950;-0.1967;
1350.6000;0.5950;-0.2038;
1350.9000;0.5958;-0.1967;
1351.2000;0.5958;-0.2061;
1351.5000;0.5942;-0.2132;
1351.8000;0.5918;-0.2227;
1352.1000;0.5934;-0.2109;
1352.4000;0.5910;-0.2298;
1352.7000;0.5942;-0.2275;
1353.0000;0.5934;-0.2251;
1353.3000;0.5958;-0.2251;
1353.6000;0.5910;-0.2251;
1353.9000;0.5950;-0.2109;
1354.2000;0.5950;-0.2038;
1354.5000;0.5893;-0.2061;
1354.8000;0.5942;-0.1990;
1355.1000;0.5934;-0.2038;
1355.4000;0.5958;-0.1943;
1355.7000;0.5983;-0.1895;
1356.0000;0.5950;-0.2014;
1356.3000;0.5942;-0.1943;
1356.6000;0.5991;-0.1895;
1356.9000;0.5950;-0.1990;
1357.2000;0.5950;-0.1943;
1357.5000;0.5934;-0.2085;
1357.8000;0.5942;-0.2061;
1358.1000;0.5975;-0.2014;
1358.4000;0.5934;-0.2156;
1358.7000;0.5942;-0.2061;
1359.0000;0.5967;-0.1943;
1359.3000;0.5934;-0.2038;
1359.6000;0.5934;-0.2061;
1359.9000;0.5934;-0.2085;
1360.2000;0.5942;-0.2038;
1360.5000;0.5950;-0.2014;
1360.8000;0.5942;-0.2061;
1361.1000;0.5942;-0.2061;
1361.4000;0.5958;-0.2014;
1361.7000;0.5950;-0.1990;
1362.0000;0.5950;-0.1990;
1362.3000;0.5942;-0.1943;
1362.6000;0.5950;-0.1967;
1362.9000;0.5958;-0.1990;
1363.2000;0.5950;-0.2038;
1363.5000;0.5950;-0.2014;
1363.8000;0.5958;-0.1990;
1364.1000;0.5967;-0.2014;
1364.4000;0.5942;-0.2038;
1364.7000;0.5950;-0.2085;
1365.0000;0.5950;-0.2038;
1365.3000;0.5958;-0.2038;
1365.6000;0.5975;-0.2038;
1365.9000;0.5942;-0.2132;
1366.2000;0.5942;-0.2085;
1366.5000;0.5942;-0.2061;
1366.8000;0.5942;-0.2038;
1367.1000;0.5926;-0.2085;
1367.4000;0.5926;-0.2156;
1367.7000;0.5942;-0.2085;
1368.0000;0.5942;-0.2038;
1368.3000;0.5950;-0.1943;
1368.6000;0.5950;-0.1919;
1368.9000;0.5950;-0.1895;
1369.2000;0.5958;-0.1895;
1369.5000;0.5975;-0.1967;
1369.8000;0.5942;-0.2085;
1370.1000;0.5942;-0.2014;
1370.4000;0.5942;-0.1990;
1370.7000;0.5942;-0.2038;
1371.0000;0.5942;-0.2061;
1371.3000;0.5918;-0.2109;
1371.6000;0.5934;-0.2061;
1371.9000;0.5950;-0.2014;
1372.2000;0.5958;-0.1967;
1372.5000;0.5975;-0.1967;
1372.8000;0.5958;-0.1943;
1373.1000;0.5967;-0.1895;
1373.4000;0.5934;-0.2014;
1373.7000;0.5950;-0.2109;
1374.0000;0.5999;-0.2061;
1374.3000;0.5942;-0.2227;
1374.6000;0.5975;-0.2227;
1374.9000;0.5999;-0.2180;
1375.2000;0.5942;-0.2369;
1375.5000;0.5958;-0.2227;
1375.8000;0.5950;-0.2156;
1376.1000;0.5950;-0.2132;
1376.4000;0.5942;-0.2132;
1376.7000;0.5958;-0.2038;
1377.0000;0.5950;-0.1967;
1377.3000;0.5934;-0.2014;
1377.6000;0.5910;-0.2109;
1377.9000;0.5942;-0.1943;
1378.2000;0.5950;-0.1943;
1378.5000;0.5950;-0.1990;
1378.8000;0.5950;-0.1990;
1379.1000;0.5934;-0.2014;
1379.4000;0.5918;-0.2085;
1379.7000;0.5942;-0.1967;
1380.0000;0.5926;-0.2085;
1380.3000;0.5967;-0.2085;
1380.6000;0.5934;-0.2132;
1380.9000;0.5926;-0.2132;
1381.2000;0.5926;-0.2061;
1381.5000;0.5942;-0.2038;
1381.8000;0.5950;-0.1919;
1382.1000;0.5942;-0.2014;
1382.4000;0.5950;-0.1943;
1382.7000;0.5950;-0.1967;
1383.0000;0.5950;-0.1990;
1383.3000;0.5958;-0.2014;
1383.6000;0.5934;-0.2132;
1383.9000;0.5942;-0.2038;
1384.2000;0.5942;-0.1990;
1384.5000;0.5950;-0.1967;
1384.8000;0.5958;-0.2061;
1385.1000;0.5958;-0.2227;
1385.4000;0.5934;-0.2298;
1385.7000;0.5926;-0.2275;
1386.0000;0.5926;-0.2132;
1386.3000;0.5967;-0.2038;
1386.6000;0.5942;-0.2180;
1386.9000;0.5934;-0.2346;
1387.2000;0.5934;-0.2417;
1387.5000;0.5950;-0.2417;
1387.8000;0.5934;-0.2369;
1388.1000;0.5942;-0.2298;
1388.4000;0.5950;-0.2156;
1388.7000;0.5934;-0.2203;
1389.0000;0.5942;-0.2132;
1389.3000;0.5950;-0.2180;
1389.6000;0.6015;-0.2038;
1389.9000;0.5950;-0.2109;
1390.2000;0.5958;-0.2014;
1390.5000;0.5934;-0.2085;
1390.8000;0.5934;-0.2038;
1391.1000;0.5958;-0.1895;
1391.4000;0.5942;-0.1895;
1391.7000;0.5942;-0.1919;
1392.0000;0.5926;-0.2085;
1392.3000;0.5910;-0.2156;
1392.6000;0.5934;-0.2180;
1392.9000;0.5942;-0.2251;
1393.2000;0.5934;-0.2227;
1393.5000;0.5950;-0.2203;
1393.8000;0.5926;-0.2156;
1394.1000;0.5950;-0.2132;
1394.4000;0.5950;-0.2109;
1394.7000;0.5950;-0.2085;
1395.0000;0.5950;-0.1990;
1395.3000;0.5942;-0.2014;
1395.6000;0.5918;-0.2014;
1395.9000;0.5934;-0.1895;
1396.2000;0.5950;-0.1872;
1396.5000;0.5910;-0.1943;
1396.8000;0.5950;-0.1943;
1397.1000;0.5926;-0.1967;
1397.4000;0.5934;-0.1990;
1397.7000;0.5934;-0.2038;
1398.0000;0.5926;-0.2014;
1398.3000;0.5910;-0.2038;
1398.6000;0.5942;-0.1895;
1398.9000;0.5967;-0.1943;
1399.2000;0.5958;-0.1967;
1399.5000;0.5958;-0.1967;
1399.8000;0.5950;-0.1943;
