time/ms;Fluo/V;P700 deltaI/I x10³;
-199.8000;0.6805;-0.1422;
-199.5000;0.6797;-0.1327;
-199.2000;0.6789;-0.1327;
-198.9000;0.6789;-0.1351;
-198.6000;0.6789;-0.1398;
-198.3000;0.6838;-0.1374;
-198.0000;0.6781;-0.1445;
-197.7000;0.6781;-0.1374;
-197.4000;0.6846;-0.1256;
-197.1000;0.6797;-0.1256;
-196.8000;0.6781;-0.1351;
-196.5000;0.6789;-0.1374;
-196.2000;0.6797;-0.1374;
-195.9000;0.6789;-0.1374;
-195.6000;0.6797;-0.1303;
-195.3000;0.6789;-0.1256;
-195.0000;0.6789;-0.1279;
-194.7000;0.6789;-0.1256;
-194.4000;0.6813;-0.1256;
-194.1000;0.6781;-0.1279;
-193.8000;0.6789;-0.1374;
-193.5000;0.6797;-0.1398;
-193.2000;0.6764;-0.1516;
-192.9000;0.6740;-0.1540;
-192.6000;0.6781;-0.1469;
-192.3000;0.6789;-0.1445;
-192.0000;0.6789;-0.1422;
-191.7000;0.6789;-0.1493;
-191.4000;0.6781;-0.1422;
-191.1000;0.6789;-0.1422;
-190.8000;0.6797;-0.1398;
-190.5000;0.6781;-0.1445;
-190.2000;0.6789;-0.1422;
-189.9000;0.6797;-0.1327;
-189.6000;0.6789;-0.1351;
-189.3000;0.6838;-0.1232;
-189.0000;0.6781;-0.1398;
-188.7000;0.6797;-0.1327;
-188.4000;0.6805;-0.1398;
-188.1000;0.6781;-0.1516;
-187.8000;0.6789;-0.1587;
-187.5000;0.6781;-0.1587;
-187.2000;0.6789;-0.1516;
-186.9000;0.6829;-0.1445;
-186.6000;0.6781;-0.1540;
-186.3000;0.6797;-0.1564;
-186.0000;0.6797;-0.1587;
-185.7000;0.6805;-0.1587;
-185.4000;0.6789;-0.1493;
-185.1000;0.6764;-0.1493;
-184.8000;0.6789;-0.1374;
-184.5000;0.6797;-0.1303;
-184.2000;0.6797;-0.1398;
-183.9000;0.6821;-0.1279;
-183.6000;0.6789;-0.1351;
-183.3000;0.6797;-0.1493;
-183.0000;0.6805;-0.1516;
-182.7000;0.6821;-0.1493;
-182.4000;0.6789;-0.1540;
-182.1000;0.6813;-0.1493;
-181.8000;0.6797;-0.1587;
-181.5000;0.6789;-0.1516;
-181.2000;0.6797;-0.1540;
-180.9000;0.6789;-0.1469;
-180.6000;0.6797;-0.1374;
-180.3000;0.6805;-0.1351;
-180.0000;0.6781;-0.1279;
-179.7000;0.6862;-0.1114;
-179.4000;0.6813;-0.1161;
-179.1000;0.6805;-0.1042;
-178.8000;0.6732;-0.1185;
-178.5000;0.6805;-0.1066;
-178.2000;0.6805;-0.1090;
-177.9000;0.6781;-0.1185;
-177.6000;0.6789;-0.1232;
-177.3000;0.6781;-0.1232;
-177.0000;0.6813;-0.1208;
-176.7000;0.6789;-0.1327;
-176.4000;0.6789;-0.1351;
-176.1000;0.6781;-0.1327;
-175.8000;0.6764;-0.1422;
-175.5000;0.6797;-0.1351;
-175.2000;0.6789;-0.1374;
-174.9000;0.6797;-0.1303;
-174.6000;0.6789;-0.1279;
-174.3000;0.6797;-0.1351;
-174.0000;0.6781;-0.1422;
-173.7000;0.6829;-0.1256;
-173.4000;0.6789;-0.1256;
-173.1000;0.6821;-0.1161;
-172.8000;0.6740;-0.1374;
-172.5000;0.6789;-0.1327;
-172.2000;0.6781;-0.1351;
-171.9000;0.6789;-0.1445;
-171.6000;0.6781;-0.1374;
-171.3000;0.6805;-0.1351;
-171.0000;0.6797;-0.1422;
-170.7000;0.6789;-0.1445;
-170.4000;0.6797;-0.1422;
-170.1000;0.6789;-0.1469;
-169.8000;0.6797;-0.1445;
-169.5000;0.6797;-0.1398;
-169.2000;0.6813;-0.1445;
-168.9000;0.6805;-0.1469;
-168.6000;0.6789;-0.1587;
-168.3000;0.6813;-0.1493;
-168.0000;0.6805;-0.1469;
-167.7000;0.6805;-0.1493;
-167.4000;0.6789;-0.1564;
-167.1000;0.6846;-0.1351;
-166.8000;0.6781;-0.1516;
-166.5000;0.6789;-0.1493;
-166.2000;0.6764;-0.1587;
-165.9000;0.6781;-0.1587;
-165.6000;0.6781;-0.1587;
-165.3000;0.6781;-0.1635;
-165.0000;0.6797;-0.1587;
-164.7000;0.6772;-0.1611;
-164.4000;0.6797;-0.1635;
-164.1000;0.6797;-0.1635;
-163.8000;0.6781;-0.1516;
-163.5000;0.6797;-0.1422;
-163.2000;0.6740;-0.1564;
-162.9000;0.6797;-0.1374;
-162.6000;0.6797;-0.1351;
-162.3000;0.6789;-0.1398;
-162.0000;0.6789;-0.1398;
-161.7000;0.6797;-0.1327;
-161.4000;0.6797;-0.1303;
-161.1000;0.6756;-0.1327;
-160.8000;0.6813;-0.1303;
-160.5000;0.6829;-0.1208;
-160.2000;0.6789;-0.1279;
-159.9000;0.6781;-0.1279;
-159.6000;0.6781;-0.1327;
-159.3000;0.6789;-0.1327;
-159.0000;0.6789;-0.1303;
-158.7000;0.6797;-0.1256;
-158.4000;0.6748;-0.1256;
-158.1000;0.6789;-0.1256;
-157.8000;0.6789;-0.1256;
-157.5000;0.6813;-0.1232;
-157.2000;0.6772;-0.1232;
-156.9000;0.6789;-0.1232;
-156.6000;0.6781;-0.1279;
-156.3000;0.6789;-0.1232;
-156.0000;0.6781;-0.1208;
-155.7000;0.6781;-0.1208;
-155.4000;0.6772;-0.1208;
-155.1000;0.6781;-0.1185;
-154.8000;0.6789;-0.1137;
-154.5000;0.6781;-0.1208;
-154.2000;0.6724;-0.1422;
-153.9000;0.6789;-0.1185;
-153.6000;0.6805;-0.1208;
-153.3000;0.6789;-0.1161;
-153.0000;0.6789;-0.1090;
-152.7000;0.6813;-0.1114;
-152.4000;0.6813;-0.1137;
-152.1000;0.6821;-0.1137;
-151.8000;0.6805;-0.1232;
-151.5000;0.6789;-0.1279;
-151.2000;0.6789;-0.1374;
-150.9000;0.6813;-0.1327;
-150.6000;0.6772;-0.1422;
-150.3000;0.6797;-0.1398;
-150.0000;0.6797;-0.1398;
-149.7000;0.6797;-0.1327;
-149.4000;0.6797;-0.1351;
-149.1000;0.6813;-0.1303;
-148.8000;0.6813;-0.1303;
-148.5000;0.6748;-0.1493;
-148.2000;0.6805;-0.1303;
-147.9000;0.6805;-0.1303;
-147.6000;0.6813;-0.1351;
-147.3000;0.6805;-0.1422;
-147.0000;0.6789;-0.1303;
-146.7000;0.6781;-0.1256;
-146.4000;0.6797;-0.1208;
-146.1000;0.6805;-0.1161;
-145.8000;0.6821;-0.1161;
-145.5000;0.6797;-0.1374;
-145.2000;0.6797;-0.1374;
-144.9000;0.6805;-0.1256;
-144.6000;0.6764;-0.1327;
-144.3000;0.6789;-0.1279;
-144.0000;0.6829;-0.1232;
-143.7000;0.6789;-0.1256;
-143.4000;0.6789;-0.1232;
-143.1000;0.6797;-0.1303;
-142.8000;0.6797;-0.1279;
-142.5000;0.6797;-0.1303;
-142.2000;0.6797;-0.1256;
-141.9000;0.6789;-0.1232;
-141.6000;0.6781;-0.1208;
-141.3000;0.6813;-0.1137;
-141.0000;0.6797;-0.1066;
-140.7000;0.6797;-0.1019;
-140.4000;0.6781;-0.1090;
-140.1000;0.6756;-0.1208;
-139.8000;0.6805;-0.1185;
-139.5000;0.6789;-0.1256;
-139.2000;0.6805;-0.1303;
-138.9000;0.6789;-0.1303;
-138.6000;0.6781;-0.1303;
-138.3000;0.6797;-0.1185;
-138.0000;0.6764;-0.1232;
-137.7000;0.6781;-0.1279;
-137.4000;0.6789;-0.1256;
-137.1000;0.6797;-0.1279;
-136.8000;0.6748;-0.1327;
-136.5000;0.6797;-0.1208;
-136.2000;0.6797;-0.1161;
-135.9000;0.6797;-0.1327;
-135.6000;0.6797;-0.1374;
-135.3000;0.6781;-0.1398;
-135.0000;0.6789;-0.1303;
-134.7000;0.6797;-0.1279;
-134.4000;0.6805;-0.1208;
-134.1000;0.6797;-0.1256;
-133.8000;0.6821;-0.1303;
-133.5000;0.6797;-0.1303;
-133.2000;0.6772;-0.1398;
-132.9000;0.6797;-0.1327;
-132.6000;0.6789;-0.1279;
-132.3000;0.6781;-0.1303;
-132.0000;0.6732;-0.1351;
-131.7000;0.6789;-0.1279;
-131.4000;0.6724;-0.1445;
-131.1000;0.6805;-0.1256;
-130.8000;0.6805;-0.1279;
-130.5000;0.6789;-0.1256;
-130.2000;0.6789;-0.1256;
-129.9000;0.6789;-0.1351;
-129.6000;0.6789;-0.1351;
-129.3000;0.6764;-0.1303;
-129.0000;0.6862;-0.1090;
-128.7000;0.6781;-0.1279;
-128.4000;0.6789;-0.1327;
-128.1000;0.6797;-0.1303;
-127.8000;0.6789;-0.1256;
-127.5000;0.6781;-0.1256;
-127.2000;0.6805;-0.1232;
-126.9000;0.6764;-0.1374;
-126.6000;0.6797;-0.1327;
-126.3000;0.6821;-0.1374;
-126.0000;0.6756;-0.1540;
-125.7000;0.6805;-0.1374;
-125.4000;0.6781;-0.1540;
-125.1000;0.6756;-0.1540;
-124.8000;0.6789;-0.1445;
-124.5000;0.6781;-0.1374;
-124.2000;0.6813;-0.1327;
-123.9000;0.6797;-0.1351;
-123.6000;0.6748;-0.1445;
-123.3000;0.6813;-0.1256;
-123.0000;0.6797;-0.1185;
-122.7000;0.6789;-0.1256;
-122.4000;0.6789;-0.1303;
-122.1000;0.6797;-0.1374;
-121.8000;0.6805;-0.1398;
-121.5000;0.6797;-0.1351;
-121.2000;0.6781;-0.1351;
-120.9000;0.6781;-0.1374;
-120.6000;0.6797;-0.1327;
-120.3000;0.6805;-0.1327;
-120.0000;0.6772;-0.1445;
-119.7000;0.6756;-0.1493;
-119.4000;0.6781;-0.1398;
-119.1000;0.6772;-0.1445;
-118.8000;0.6772;-0.1516;
-118.5000;0.6781;-0.1516;
-118.2000;0.6764;-0.1564;
-117.9000;0.6789;-0.1516;
-117.6000;0.6756;-0.1540;
-117.3000;0.6813;-0.1351;
-117.0000;0.6781;-0.1279;
-116.7000;0.6797;-0.1256;
-116.4000;0.6781;-0.1327;
-116.1000;0.6772;-0.1445;
-115.8000;0.6789;-0.1516;
-115.5000;0.6805;-0.1516;
-115.2000;0.6789;-0.1469;
-114.9000;0.6756;-0.1564;
-114.6000;0.6789;-0.1493;
-114.3000;0.6789;-0.1374;
-114.0000;0.6772;-0.1327;
-113.7000;0.6764;-0.1303;
-113.4000;0.6781;-0.1351;
-113.1000;0.6764;-0.1351;
-112.8000;0.6789;-0.1256;
-112.5000;0.6805;-0.1208;
-112.2000;0.6764;-0.1256;
-111.9000;0.6797;-0.1232;
-111.6000;0.6797;-0.1256;
-111.3000;0.6797;-0.1256;
-111.0000;0.6805;-0.1303;
-110.7000;0.6781;-0.1327;
-110.4000;0.6797;-0.1279;
-110.1000;0.6821;-0.1279;
-109.8000;0.6805;-0.1351;
-109.5000;0.6789;-0.1398;
-109.2000;0.6797;-0.1374;
-108.9000;0.6789;-0.1469;
-108.6000;0.6797;-0.1469;
-108.3000;0.6756;-0.1587;
-108.0000;0.6707;-0.1753;
-107.7000;0.6781;-0.1540;
-107.4000;0.6781;-0.1540;
-107.1000;0.6789;-0.1351;
-106.8000;0.6781;-0.1422;
-106.5000;0.6797;-0.1374;
-106.2000;0.6781;-0.1445;
-105.9000;0.6781;-0.1540;
-105.6000;0.6789;-0.1516;
-105.3000;0.6756;-0.1611;
-105.0000;0.6707;-0.1706;
-104.7000;0.6789;-0.1516;
-104.4000;0.6781;-0.1540;
-104.1000;0.6789;-0.1493;
-103.8000;0.6781;-0.1469;
-103.5000;0.6781;-0.1422;
-103.2000;0.6789;-0.1398;
-102.9000;0.6781;-0.1374;
-102.6000;0.6781;-0.1351;
-102.3000;0.6789;-0.1398;
-102.0000;0.6805;-0.1351;
-101.7000;0.6797;-0.1374;
-101.4000;0.6813;-0.1398;
-101.1000;0.6789;-0.1493;
-100.8000;0.6797;-0.1422;
-100.5000;0.6789;-0.1351;
-100.2000;0.6772;-0.1374;
-99.9000;0.6789;-0.1256;
-99.6000;0.6724;-0.1445;
-99.3000;0.6829;-0.1208;
-99.0000;0.6805;-0.1232;
-98.7000;0.6789;-0.1232;
-98.4000;0.6821;-0.1137;
-98.1000;0.6781;-0.1256;
-97.8000;0.6781;-0.1279;
-97.5000;0.6789;-0.1351;
-97.2000;0.6805;-0.1469;
-96.9000;0.6772;-0.1564;
-96.6000;0.6789;-0.1564;
-96.3000;0.6797;-0.1540;
-96.0000;0.6781;-0.1564;
-95.7000;0.6846;-0.1422;
-95.4000;0.6797;-0.1469;
-95.1000;0.6805;-0.1422;
-94.8000;0.6838;-0.1303;
-94.5000;0.6805;-0.1445;
-94.2000;0.6821;-0.1422;
-93.9000;0.6821;-0.1422;
-93.6000;0.6813;-0.1398;
-93.3000;0.6789;-0.1540;
-93.0000;0.6772;-0.1564;
-92.7000;0.6740;-0.1635;
-92.4000;0.6797;-0.1516;
-92.1000;0.6781;-0.1540;
-91.8000;0.6781;-0.1611;
-91.5000;0.6789;-0.1587;
-91.2000;0.6838;-0.1422;
-90.9000;0.6797;-0.1540;
-90.6000;0.6829;-0.1445;
-90.3000;0.6756;-0.1564;
-90.0000;0.6805;-0.1351;
-89.7000;0.6756;-0.1422;
-89.4000;0.6813;-0.1303;
-89.1000;0.6789;-0.1422;
-88.8000;0.6797;-0.1469;
-88.5000;0.6781;-0.1469;
-88.2000;0.6781;-0.1422;
-87.9000;0.6805;-0.1374;
-87.6000;0.6789;-0.1422;
-87.3000;0.6789;-0.1422;
-87.0000;0.6805;-0.1303;
-86.7000;0.6789;-0.1374;
-86.4000;0.6789;-0.1422;
-86.1000;0.6772;-0.1445;
-85.8000;0.6789;-0.1351;
-85.5000;0.6797;-0.1374;
-85.2000;0.6781;-0.1422;
-84.9000;0.6789;-0.1422;
-84.6000;0.6789;-0.1493;
-84.3000;0.6829;-0.1374;
-84.0000;0.6764;-0.1398;
-83.7000;0.6781;-0.1351;
-83.4000;0.6805;-0.1327;
-83.1000;0.6797;-0.1374;
-82.8000;0.6781;-0.1422;
-82.5000;0.6789;-0.1327;
-82.2000;0.6797;-0.1303;
-81.9000;0.6789;-0.1303;
-81.6000;0.6789;-0.1279;
-81.3000;0.6797;-0.1232;
-81.0000;0.6764;-0.1398;
-80.7000;0.6789;-0.1279;
-80.4000;0.6789;-0.1279;
-80.1000;0.6797;-0.1469;
-79.8000;0.6772;-0.1469;
-79.5000;0.6797;-0.1422;
-79.2000;0.6789;-0.1493;
-78.9000;0.6797;-0.1493;
-78.6000;0.6789;-0.1493;
-78.3000;0.6781;-0.1445;
-78.0000;0.6797;-0.1398;
-77.7000;0.6805;-0.1445;
-77.4000;0.6789;-0.1540;
-77.1000;0.6789;-0.1493;
-76.8000;0.6797;-0.1469;
-76.5000;0.6797;-0.1445;
-76.2000;0.6781;-0.1540;
-75.9000;0.6813;-0.1445;
-75.6000;0.6756;-0.1493;
-75.3000;0.6805;-0.1398;
-75.0000;0.6797;-0.1422;
-74.7000;0.6797;-0.1422;
-74.4000;0.6878;-0.1208;
-74.1000;0.6797;-0.1374;
-73.8000;0.6797;-0.1351;
-73.5000;0.6805;-0.1398;
-73.2000;0.6789;-0.1374;
-72.9000;0.6805;-0.1279;
-72.6000;0.6797;-0.1374;
-72.3000;0.6756;-0.1445;
-72.0000;0.6797;-0.1398;
-71.7000;0.6838;-0.1256;
-71.4000;0.6772;-0.1445;
-71.1000;0.6829;-0.1303;
-70.8000;0.6846;-0.1327;
-70.5000;0.6789;-0.1445;
-70.2000;0.6789;-0.1469;
-69.9000;0.6829;-0.1398;
-69.6000;0.6772;-0.1398;
-69.3000;0.6829;-0.1374;
-69.0000;0.6781;-0.1445;
-68.7000;0.6797;-0.1398;
-68.4000;0.6781;-0.1445;
-68.1000;0.6797;-0.1398;
-67.8000;0.6821;-0.1327;
-67.5000;0.6813;-0.1303;
-67.2000;0.6781;-0.1398;
-66.9000;0.6789;-0.1422;
-66.6000;0.6789;-0.1398;
-66.3000;0.6789;-0.1493;
-66.0000;0.6764;-0.1564;
-65.7000;0.6781;-0.1445;
-65.4000;0.6789;-0.1469;
-65.1000;0.6789;-0.1516;
-64.8000;0.6789;-0.1516;
-64.5000;0.6846;-0.1374;
-64.2000;0.6797;-0.1540;
-63.9000;0.6772;-0.1587;
-63.6000;0.6805;-0.1540;
-63.3000;0.6789;-0.1564;
-63.0000;0.6829;-0.1445;
-62.7000;0.6781;-0.1587;
-62.4000;0.6797;-0.1516;
-62.1000;0.6797;-0.1469;
-61.8000;0.6781;-0.1540;
-61.5000;0.6797;-0.1587;
-61.2000;0.6732;-0.1706;
-60.9000;0.6789;-0.1516;
-60.6000;0.6797;-0.1540;
-60.3000;0.6797;-0.1540;
-60.0000;0.6781;-0.1587;
-59.7000;0.6772;-0.1635;
-59.4000;0.6797;-0.1587;
-59.1000;0.6797;-0.1611;
-58.8000;0.6797;-0.1587;
-58.5000;0.6789;-0.1659;
-58.2000;0.6781;-0.1635;
-57.9000;0.6789;-0.1611;
-57.6000;0.6789;-0.1587;
-57.3000;0.6781;-0.1587;
-57.0000;0.6838;-0.1493;
-56.7000;0.6781;-0.1659;
-56.4000;0.6772;-0.1706;
-56.1000;0.6870;-0.1540;
-55.8000;0.6805;-0.1635;
-55.5000;0.6797;-0.1540;
-55.2000;0.6789;-0.1540;
-54.9000;0.6764;-0.1659;
-54.6000;0.6772;-0.1706;
-54.3000;0.6781;-0.1706;
-54.0000;0.6781;-0.1635;
-53.7000;0.6797;-0.1564;
-53.4000;0.6781;-0.1540;
-53.1000;0.6813;-0.1611;
-52.8000;0.6789;-0.1706;
-52.5000;0.6797;-0.1682;
-52.2000;0.6805;-0.1564;
-51.9000;0.6789;-0.1611;
-51.6000;0.6724;-0.1730;
-51.3000;0.6789;-0.1611;
-51.0000;0.6797;-0.1516;
-50.7000;0.6756;-0.1587;
-50.4000;0.6781;-0.1564;
-50.1000;0.6772;-0.1564;
-49.8000;0.6805;-0.1493;
-49.5000;0.6789;-0.1493;
-49.2000;0.6781;-0.1540;
-48.9000;0.6772;-0.1564;
-48.6000;0.6813;-0.1493;
-48.3000;0.6789;-0.1587;
-48.0000;0.6772;-0.1564;
-47.7000;0.6805;-0.1469;
-47.4000;0.6797;-0.1469;
-47.1000;0.6829;-0.1398;
-46.8000;0.6805;-0.1445;
-46.5000;0.6797;-0.1422;
-46.2000;0.6756;-0.1516;
-45.9000;0.6829;-0.1398;
-45.6000;0.6781;-0.1516;
-45.3000;0.6789;-0.1493;
-45.0000;0.6838;-0.1422;
-44.7000;0.6821;-0.1587;
-44.4000;0.6781;-0.1706;
-44.1000;0.6789;-0.1682;
-43.8000;0.6797;-0.1587;
-43.5000;0.6789;-0.1564;
-43.2000;0.6797;-0.1587;
-42.9000;0.6781;-0.1659;
-42.6000;0.6797;-0.1587;
-42.3000;0.6789;-0.1540;
-42.0000;0.6805;-0.1469;
-41.7000;0.6772;-0.1564;
-41.4000;0.6797;-0.1540;
-41.1000;0.6797;-0.1516;
-40.8000;0.6805;-0.1493;
-40.5000;0.6789;-0.1564;
-40.2000;0.6781;-0.1564;
-39.9000;0.6781;-0.1540;
-39.6000;0.6781;-0.1564;
-39.3000;0.6764;-0.1587;
-39.0000;0.6805;-0.1469;
-38.7000;0.6764;-0.1540;
-38.4000;0.6781;-0.1422;
-38.1000;0.6789;-0.1493;
-37.8000;0.6789;-0.1445;
-37.5000;0.6781;-0.1398;
-37.2000;0.6756;-0.1374;
-36.9000;0.6805;-0.1351;
-36.6000;0.6781;-0.1445;
-36.3000;0.6797;-0.1398;
-36.0000;0.6764;-0.1422;
-35.7000;0.6781;-0.1374;
-35.4000;0.6797;-0.1398;
-35.1000;0.6764;-0.1422;
-34.8000;0.6772;-0.1445;
-34.5000;0.6781;-0.1422;
-34.2000;0.6756;-0.1493;
-33.9000;0.6764;-0.1540;
-33.6000;0.6781;-0.1540;
-33.3000;0.6781;-0.1493;
-33.0000;0.6789;-0.1445;
-32.7000;0.6772;-0.1422;
-32.4000;0.6797;-0.1398;
-32.1000;0.6805;-0.1398;
-31.8000;0.6805;-0.1398;
-31.5000;0.6821;-0.1351;
-31.2000;0.6789;-0.1374;
-30.9000;0.6724;-0.1587;
-30.6000;0.6724;-0.1611;
-30.3000;0.6781;-0.1445;
-30.0000;0.6789;-0.1422;
-29.7000;0.6797;-0.1374;
-29.4000;0.6805;-0.1422;
-29.1000;0.6789;-0.1398;
-28.8000;0.6813;-0.1374;
-28.5000;0.6805;-0.1445;
-28.2000;0.6781;-0.1493;
-27.9000;0.6797;-0.1611;
-27.6000;0.6781;-0.1635;
-27.3000;0.6781;-0.1730;
-27.0000;0.6789;-0.1730;
-26.7000;0.6805;-0.1659;
-26.4000;0.6797;-0.1611;
-26.1000;0.6789;-0.1564;
-25.8000;0.6789;-0.1540;
-25.5000;0.6789;-0.1516;
-25.2000;0.6789;-0.1445;
-24.9000;0.6813;-0.1469;
-24.6000;0.6781;-0.1516;
-24.3000;0.6789;-0.1422;
-24.0000;0.6781;-0.1445;
-23.7000;0.6854;-0.1351;
-23.4000;0.6797;-0.1493;
-23.1000;0.6764;-0.1540;
-22.8000;0.6789;-0.1493;
-22.5000;0.6781;-0.1611;
-22.2000;0.6797;-0.1564;
-21.9000;0.6789;-0.1564;
-21.6000;0.6789;-0.1540;
-21.3000;0.6797;-0.1564;
-21.0000;0.6781;-0.1564;
-20.7000;0.6781;-0.1635;
-20.4000;0.6805;-0.1564;
-20.1000;0.6805;-0.1469;
-19.8000;0.6797;-0.1422;
-19.5000;0.6772;-0.1493;
-19.2000;0.6781;-0.1445;
-18.9000;0.6813;-0.1493;
-18.6000;0.6797;-0.1493;
-18.3000;0.6813;-0.1469;
-18.0000;0.6772;-0.1659;
-17.7000;0.6805;-0.1706;
-17.4000;0.6805;-0.1706;
-17.1000;0.6789;-0.1753;
-16.8000;0.6813;-0.1777;
-16.5000;0.6789;-0.1753;
-16.2000;0.6854;-0.1635;
-15.9000;0.6772;-0.1801;
-15.6000;0.6781;-0.1824;
-15.3000;0.6764;-0.1824;
-15.0000;0.6781;-0.1777;
-14.7000;0.6797;-0.1753;
-14.4000;0.6740;-0.1848;
-14.1000;0.6764;-0.1682;
-13.8000;0.6789;-0.1540;
-13.5000;0.6789;-0.1469;
-13.2000;0.6821;-0.1445;
-12.9000;0.6821;-0.1422;
-12.6000;0.6772;-0.1493;
-12.3000;0.6781;-0.1422;
-12.0000;0.6797;-0.1351;
-11.7000;0.6789;-0.1469;
-11.4000;0.6805;-0.1469;
-11.1000;0.6789;-0.1516;
-10.8000;0.6789;-0.1493;
-10.5000;0.6797;-0.1398;
-10.2000;0.6797;-0.1398;
-9.9000;0.6805;-0.1398;
-9.6000;0.6772;-0.1445;
-9.3000;0.6781;-0.1469;
-9.0000;0.6772;-0.1587;
-8.7000;0.6797;-0.1564;
-8.4000;0.6821;-0.1398;
-8.1000;0.6797;-0.1516;
-7.8000;0.6797;-0.1493;
-7.5000;0.6805;-0.1516;
-7.2000;0.6813;-0.1493;
-6.9000;0.6797;-0.1587;
-6.6000;0.6805;-0.1611;
-6.3000;0.6797;-0.1540;
-6.0000;0.6829;-0.1493;
-5.7000;0.6797;-0.1611;
-5.4000;0.6805;-0.1611;
-5.1000;0.6797;-0.1587;
-4.8000;0.6789;-0.1635;
-4.5000;0.6797;-0.1564;
-4.2000;0.6772;-0.1540;
-3.9000;0.6813;-0.1516;
-3.6000;0.6862;-0.1469;
-3.3000;0.6805;-0.1611;
-3.0000;0.6789;-0.1611;
-2.7000;0.6797;-0.1564;
-2.4000;0.6781;-0.1659;
-2.1000;0.6789;-0.1540;
-1.8000;0.6772;-0.1564;
-1.5000;0.6764;-0.1659;
-1.2000;0.6789;-0.1587;
-0.9000;0.6805;-0.1659;
-0.6000;0.6789;-0.1682;
-0.3000;0.6789;-0.1706;
0.0000;0.6789;-0.1706;
0.3000;0.6992;-0.1516;
0.6000;0.7440;-0.0829;
0.9000;0.7798;-0.0166;
1.2000;0.8067;0.0521;
1.5000;0.8287;0.0948;
1.8000;0.8474;0.1398;
2.1000;0.8604;0.1777;
2.4000;0.8694;0.2061;
2.7000;0.8759;0.2203;
3.0000;0.8873;0.2606;
3.3000;0.8913;0.2819;
3.6000;0.8970;0.2914;
3.9000;0.9044;0.3009;
4.2000;0.9076;0.3056;
4.5000;0.9092;0.3127;
4.8000;0.9149;0.3199;
5.1000;0.9231;0.3341;
5.4000;0.9239;0.3293;
5.7000;0.9288;0.3435;
6.0000;0.9288;0.3341;
6.3000;0.9337;0.3388;
6.6000;0.9369;0.3412;
6.9000;0.9377;0.3317;
7.2000;0.9410;0.3364;
7.5000;0.9434;0.3341;
7.8000;0.9491;0.3459;
8.1000;0.9508;0.3388;
8.4000;0.9516;0.3388;
8.7000;0.9508;0.3412;
9.0000;0.9565;0.3483;
9.3000;0.9597;0.3530;
9.6000;0.9597;0.3483;
9.9000;0.9605;0.3412;
10.2000;0.9638;0.3364;
10.5000;0.9654;0.3364;
10.8000;0.9678;0.3388;
11.1000;0.9703;0.3341;
11.4000;0.9727;0.3388;
11.7000;0.9752;0.3341;
12.0000;0.9760;0.3222;
12.3000;0.9776;0.3246;
12.6000;0.9801;0.3293;
12.9000;0.9841;0.3412;
13.2000;0.9866;0.3435;
13.5000;0.9841;0.3459;
13.8000;0.9874;0.3459;
14.1000;0.9931;0.3483;
14.4000;0.9931;0.3483;
14.7000;0.9939;0.3530;
15.0000;0.9955;0.3530;
15.3000;0.9972;0.3554;
15.6000;0.9996;0.3554;
15.9000;0.9996;0.3507;
16.2000;1.0020;0.3435;
16.5000;1.0004;0.3317;
16.8000;1.0061;0.3293;
17.1000;1.0077;0.3293;
17.4000;1.0102;0.3317;
17.7000;1.0102;0.3388;
18.0000;1.0118;0.3412;
18.3000;1.0142;0.3412;
18.6000;1.0110;0.3341;
18.9000;1.0142;0.3388;
19.2000;1.0159;0.3317;
19.5000;1.0159;0.3293;
19.8000;1.0191;0.3341;
20.1000;1.0183;0.3317;
20.4000;1.0191;0.3412;
20.7000;1.0224;0.3507;
21.0000;1.0208;0.3270;
21.3000;1.0191;0.3222;
21.6000;1.0248;0.3435;
21.9000;1.0248;0.3459;
22.2000;1.0232;0.3412;
22.5000;1.0289;0.3459;
22.8000;1.0256;0.3341;
23.1000;1.0273;0.3317;
23.4000;1.0289;0.3270;
23.7000;1.0297;0.3199;
24.0000;1.0322;0.3222;
24.3000;1.0338;0.3317;
24.6000;1.0330;0.3246;
24.9000;1.0330;0.3199;
25.2000;1.0330;0.3222;
25.5000;1.0354;0.3364;
25.8000;1.0362;0.3246;
26.1000;1.0379;0.3293;
26.4000;1.0362;0.3341;
26.7000;1.0338;0.3246;
27.0000;1.0379;0.3388;
27.3000;1.0379;0.3293;
27.6000;1.0379;0.3293;
27.9000;1.0387;0.3293;
28.2000;1.0411;0.3293;
28.5000;1.0427;0.3293;
28.8000;1.0387;0.3151;
29.1000;1.0435;0.3199;
29.4000;1.0452;0.3199;
29.7000;1.0460;0.3127;
30.0000;1.0435;0.3080;
30.3000;1.0460;0.3104;
30.6000;1.0468;0.3151;
30.9000;1.0484;0.3151;
31.2000;1.0476;0.3270;
31.5000;1.0468;0.3199;
31.8000;1.0468;0.3199;
32.1000;1.0492;0.3199;
32.4000;1.0492;0.3246;
32.7000;1.0476;0.3222;
33.0000;1.0492;0.3270;
33.3000;1.0509;0.3222;
33.6000;1.0509;0.3199;
33.9000;1.0460;0.3009;
34.2000;1.0501;0.3080;
34.5000;1.0509;0.3151;
34.8000;1.0509;0.3151;
35.1000;1.0509;0.3056;
35.4000;1.0492;0.2938;
35.7000;1.0501;0.2962;
36.0000;1.0517;0.2962;
36.3000;1.0533;0.2985;
36.6000;1.0558;0.2985;
36.9000;1.0509;0.2819;
37.2000;1.0549;0.2962;
37.5000;1.0558;0.3080;
37.8000;1.0549;0.3056;
38.1000;1.0549;0.2985;
38.4000;1.0549;0.2985;
38.7000;1.0582;0.3033;
39.0000;1.0541;0.2914;
39.3000;1.0558;0.3009;
39.6000;1.0574;0.2962;
39.9000;1.0566;0.2891;
40.2000;1.0574;0.2914;
40.5000;1.0598;0.2985;
40.8000;1.0582;0.2985;
41.1000;1.0574;0.2985;
41.4000;1.0615;0.3080;
41.7000;1.0590;0.3033;
42.0000;1.0606;0.3080;
42.3000;1.0598;0.3033;
42.6000;1.0606;0.3056;
42.9000;1.0598;0.3009;
43.2000;1.0647;0.3033;
43.5000;1.0623;0.3104;
43.8000;1.0606;0.3080;
44.1000;1.0615;0.3104;
44.4000;1.0615;0.3175;
44.7000;1.0590;0.3175;
45.0000;1.0598;0.3175;
45.3000;1.0615;0.3151;
45.6000;1.0615;0.3175;
45.9000;1.0615;0.3151;
46.2000;1.0606;0.3104;
46.5000;1.0623;0.3080;
46.8000;1.0631;0.3009;
47.1000;1.0615;0.2985;
47.4000;1.0615;0.3056;
47.7000;1.0615;0.3151;
48.0000;1.0623;0.3199;
48.3000;1.0655;0.3270;
48.6000;1.0639;0.3341;
48.9000;1.0631;0.3341;
49.2000;1.0631;0.3270;
49.5000;1.0639;0.3270;
49.8000;1.0647;0.3175;
50.1000;1.0647;0.3151;
50.4000;1.0663;0.3222;
50.7000;1.0647;0.3199;
51.0000;1.0647;0.3151;
51.3000;1.0663;0.3104;
51.6000;1.0606;0.2962;
51.9000;1.0639;0.3033;
52.2000;1.0655;0.3080;
52.5000;1.0680;0.3080;
52.8000;1.0680;0.3151;
53.1000;1.0663;0.3104;
53.4000;1.0672;0.3104;
53.7000;1.0655;0.3127;
54.0000;1.0680;0.3222;
54.3000;1.0680;0.3270;
54.6000;1.0655;0.3222;
54.9000;1.0663;0.3270;
55.2000;1.0663;0.3270;
55.5000;1.0680;0.3199;
55.8000;1.0672;0.3056;
56.1000;1.0672;0.3080;
56.4000;1.0663;0.3080;
56.7000;1.0680;0.3151;
57.0000;1.0672;0.3175;
57.3000;1.0737;0.3270;
57.6000;1.0672;0.3175;
57.9000;1.0704;0.3199;
58.2000;1.0680;0.3151;
58.5000;1.0672;0.3127;
58.8000;1.0647;0.3056;
59.1000;1.0680;0.3127;
59.4000;1.0663;0.3033;
59.7000;1.0680;0.3080;
60.0000;1.0655;0.3056;
60.3000;1.0680;0.3127;
60.6000;1.0672;0.3151;
60.9000;1.0704;0.3222;
61.2000;1.0680;0.3151;
61.5000;1.0720;0.3151;
61.8000;1.0704;0.3056;
62.1000;1.0688;0.3056;
62.4000;1.0696;0.3033;
62.7000;1.0696;0.3056;
63.0000;1.0720;0.3056;
63.3000;1.0696;0.2914;
63.6000;1.0680;0.2914;
63.9000;1.0696;0.2962;
64.2000;1.0704;0.2867;
64.5000;1.0802;0.3033;
64.8000;1.0712;0.2772;
65.1000;1.0720;0.2819;
65.4000;1.0704;0.2843;
65.7000;1.0712;0.2891;
66.0000;1.0712;0.2914;
66.3000;1.0696;0.2938;
66.6000;1.0729;0.3009;
66.9000;1.0639;0.2819;
67.2000;1.0704;0.2843;
67.5000;1.0720;0.2914;
67.8000;1.0712;0.2938;
68.1000;1.0712;0.3080;
68.4000;1.0729;0.3009;
68.7000;1.0704;0.2914;
69.0000;1.0720;0.2914;
69.3000;1.0720;0.3009;
69.6000;1.0720;0.3033;
69.9000;1.0712;0.2962;
70.2000;1.0745;0.2962;
70.5000;1.0737;0.2938;
70.8000;1.0753;0.2962;
71.1000;1.0737;0.2938;
71.4000;1.0720;0.2843;
71.7000;1.0688;0.2677;
72.0000;1.0737;0.2867;
72.3000;1.0737;0.2891;
72.6000;1.0720;0.2867;
72.9000;1.0712;0.2867;
73.2000;1.0745;0.2914;
73.5000;1.0729;0.2867;
73.8000;1.0729;0.2867;
74.1000;1.0737;0.2843;
74.4000;1.0737;0.2843;
74.7000;1.0810;0.2985;
75.0000;1.0753;0.2843;
75.3000;1.0720;0.2819;
75.6000;1.0720;0.2701;
75.9000;1.0688;0.2559;
76.2000;1.0737;0.2583;
76.5000;1.0737;0.2559;
76.8000;1.0745;0.2583;
77.1000;1.0745;0.2606;
77.4000;1.0745;0.2630;
77.7000;1.0753;0.2677;
78.0000;1.0737;0.2511;
78.3000;1.0720;0.2559;
78.6000;1.0729;0.2535;
78.9000;1.0729;0.2606;
79.2000;1.0680;0.2464;
79.5000;1.0720;0.2511;
79.8000;1.0729;0.2464;
80.1000;1.0737;0.2464;
80.4000;1.0737;0.2488;
80.7000;1.0729;0.2583;
81.0000;1.0761;0.2725;
81.3000;1.0753;0.2654;
81.6000;1.0737;0.2654;
81.9000;1.0729;0.2630;
82.2000;1.0745;0.2725;
82.5000;1.0745;0.2677;
82.8000;1.0769;0.2748;
83.1000;1.0777;0.2819;
83.4000;1.0786;0.2796;
83.7000;1.0753;0.2677;
84.0000;1.0753;0.2535;
84.3000;1.0745;0.2630;
84.6000;1.0745;0.2701;
84.9000;1.0712;0.2559;
85.2000;1.0769;0.2583;
85.5000;1.0842;0.2725;
85.8000;1.0761;0.2630;
86.1000;1.0769;0.2701;
86.4000;1.0753;0.2748;
86.7000;1.0737;0.2796;
87.0000;1.0753;0.2819;
87.3000;1.0745;0.2725;
87.6000;1.0753;0.2677;
87.9000;1.0745;0.2630;
88.2000;1.0729;0.2535;
88.5000;1.0769;0.2606;
88.8000;1.0737;0.2535;
89.1000;1.0777;0.2583;
89.4000;1.0712;0.2464;
89.7000;1.0753;0.2464;
90.0000;1.0777;0.2511;
90.3000;1.0761;0.2488;
90.6000;1.0769;0.2535;
90.9000;1.0753;0.2583;
91.2000;1.0761;0.2559;
91.5000;1.0761;0.2464;
91.8000;1.0761;0.2535;
92.1000;1.0769;0.2677;
92.4000;1.0753;0.2677;
92.7000;1.0761;0.2701;
93.0000;1.0769;0.2654;
93.3000;1.0729;0.2488;
93.6000;1.0729;0.2511;
93.9000;1.0761;0.2606;
94.2000;1.0761;0.2583;
94.5000;1.0769;0.2630;
94.8000;1.0769;0.2606;
95.1000;1.0810;0.2701;
95.4000;1.0769;0.2559;
95.7000;1.0720;0.2417;
96.0000;1.0745;0.2393;
96.3000;1.0769;0.2488;
96.6000;1.0753;0.2511;
96.9000;1.0761;0.2511;
97.2000;1.0737;0.2464;
97.5000;1.0761;0.2488;
97.8000;1.0794;0.2725;
98.1000;1.0769;0.2701;
98.4000;1.0761;0.2701;
98.7000;1.0851;0.2891;
99.0000;1.0769;0.2677;
99.3000;1.0777;0.2654;
99.6000;1.0737;0.2464;
99.9000;1.0802;0.2583;
100.2000;1.0761;0.2511;
100.5000;1.0745;0.2369;
100.8000;1.0834;0.2630;
101.1000;1.0761;0.2535;
101.4000;1.0761;0.2511;
101.7000;1.0745;0.2488;
102.0000;1.0745;0.2393;
102.3000;1.0769;0.2440;
102.6000;1.0753;0.2393;
102.9000;1.0826;0.2488;
103.2000;1.0769;0.2464;
103.5000;1.0769;0.2511;
103.8000;1.0745;0.2535;
104.1000;1.0769;0.2583;
104.4000;1.0769;0.2535;
104.7000;1.0777;0.2606;
105.0000;1.0769;0.2559;
105.3000;1.0769;0.2535;
105.6000;1.0769;0.2559;
105.9000;1.0786;0.2559;
106.2000;1.0769;0.2535;
106.5000;1.0777;0.2511;
106.8000;1.0777;0.2606;
107.1000;1.0761;0.2488;
107.4000;1.0802;0.2417;
107.7000;1.0761;0.2322;
108.0000;1.0794;0.2369;
108.3000;1.0777;0.2346;
108.6000;1.0769;0.2298;
108.9000;1.0769;0.2251;
109.2000;1.0761;0.2275;
109.5000;1.0794;0.2322;
109.8000;1.0769;0.2346;
110.1000;1.0777;0.2322;
110.4000;1.0737;0.2203;
110.7000;1.0786;0.2322;
111.0000;1.0777;0.2393;
111.3000;1.0777;0.2346;
111.6000;1.0753;0.2227;
111.9000;1.0769;0.2275;
112.2000;1.0802;0.2322;
112.5000;1.0769;0.2203;
112.8000;1.0769;0.2180;
113.1000;1.0794;0.2227;
113.4000;1.0794;0.2227;
113.7000;1.0786;0.2251;
114.0000;1.0794;0.2322;
114.3000;1.0777;0.2346;
114.6000;1.0777;0.2393;
114.9000;1.0769;0.2417;
115.2000;1.0761;0.2393;
115.5000;1.0769;0.2346;
115.8000;1.0794;0.2298;
116.1000;1.0786;0.2298;
116.4000;1.0769;0.2251;
116.7000;1.0769;0.2251;
117.0000;1.0794;0.2369;
117.3000;1.0777;0.2346;
117.6000;1.0777;0.2322;
117.9000;1.0777;0.2322;
118.2000;1.0777;0.2251;
118.5000;1.0794;0.2322;
118.8000;1.0818;0.2322;
119.1000;1.0777;0.2156;
119.4000;1.0786;0.2109;
119.7000;1.0826;0.2180;
120.0000;1.0769;0.2132;
120.3000;1.0777;0.2132;
120.6000;1.0859;0.2298;
120.9000;1.0777;0.2132;
121.2000;1.0786;0.2061;
121.5000;1.0786;0.2180;
121.8000;1.0794;0.2180;
122.1000;1.0810;0.2251;
122.4000;1.0810;0.2203;
122.7000;1.0794;0.2203;
123.0000;1.0786;0.2156;
123.3000;1.0794;0.2109;
123.6000;1.0883;0.2322;
123.9000;1.0810;0.2085;
124.2000;1.0802;0.2180;
124.5000;1.0802;0.2203;
124.8000;1.0786;0.2180;
125.1000;1.0802;0.2156;
125.4000;1.0802;0.2156;
125.7000;1.0802;0.2156;
126.0000;1.0818;0.2180;
126.3000;1.0810;0.2275;
126.6000;1.0818;0.2203;
126.9000;1.0810;0.2180;
127.2000;1.0818;0.2180;
127.5000;1.0802;0.2132;
127.8000;1.0786;0.2132;
128.1000;1.0786;0.2109;
128.4000;1.0786;0.2061;
128.7000;1.0802;0.2109;
129.0000;1.0769;0.2014;
129.3000;1.0786;0.2061;
129.6000;1.0802;0.2156;
129.9000;1.0802;0.2203;
130.2000;1.0810;0.2251;
130.5000;1.0786;0.2180;
130.8000;1.0786;0.2180;
131.1000;1.0826;0.2180;
131.4000;1.0786;0.2132;
131.7000;1.0786;0.2132;
132.0000;1.0777;0.2014;
132.3000;1.0802;0.2109;
132.6000;1.0810;0.2132;
132.9000;1.0794;0.1990;
133.2000;1.0786;0.1967;
133.5000;1.0786;0.2061;
133.8000;1.0794;0.2061;
134.1000;1.0810;0.2014;
134.4000;1.0802;0.1943;
134.7000;1.0810;0.1967;
135.0000;1.0794;0.2014;
135.3000;1.0786;0.1990;
135.6000;1.0769;0.1990;
135.9000;1.0794;0.2156;
136.2000;1.0794;0.2203;
136.5000;1.0810;0.2085;
136.8000;1.0786;0.1967;
137.1000;1.0786;0.1919;
137.4000;1.0794;0.1990;
137.7000;1.0826;0.2109;
138.0000;1.0777;0.2085;
138.3000;1.0777;0.2109;
138.6000;1.0761;0.2038;
138.9000;1.0794;0.2132;
139.2000;1.0786;0.2132;
139.5000;1.0777;0.2085;
139.8000;1.0810;0.2203;
140.1000;1.0794;0.2132;
140.4000;1.0777;0.2109;
140.7000;1.0794;0.2061;
141.0000;1.0786;0.2085;
141.3000;1.0810;0.2132;
141.6000;1.0802;0.2038;
141.9000;1.0777;0.1943;
142.2000;1.0802;0.1990;
142.5000;1.0802;0.2109;
142.8000;1.0720;0.1990;
143.1000;1.0802;0.2227;
143.4000;1.0786;0.2227;
143.7000;1.0794;0.2156;
144.0000;1.0810;0.2156;
144.3000;1.0802;0.2132;
144.6000;1.0810;0.2061;
144.9000;1.0794;0.2132;
145.2000;1.0810;0.2227;
145.5000;1.0818;0.2227;
145.8000;1.0786;0.2180;
146.1000;1.0786;0.2085;
146.4000;1.0794;0.2109;
146.7000;1.0826;0.2109;
147.0000;1.0818;0.2109;
147.3000;1.0794;0.2061;
147.6000;1.0794;0.2156;
147.9000;1.0802;0.2132;
148.2000;1.0802;0.2061;
148.5000;1.0818;0.2109;
148.8000;1.0875;0.2132;
149.1000;1.0810;0.1967;
149.4000;1.0802;0.1967;
149.7000;1.0810;0.2038;
150.0000;1.0802;0.2014;
150.3000;1.0737;0.1919;
150.6000;1.0794;0.2061;
150.9000;1.0761;0.1895;
151.2000;1.0786;0.2014;
151.5000;1.0802;0.1943;
151.8000;1.0810;0.1990;
152.1000;1.0786;0.1895;
152.4000;1.0786;0.1895;
152.7000;1.0810;0.1967;
153.0000;1.0802;0.1967;
153.3000;1.0818;0.2061;
153.6000;1.0810;0.1943;
153.9000;1.0794;0.1824;
154.2000;1.0810;0.1824;
154.5000;1.0818;0.1824;
154.8000;1.0794;0.1919;
155.1000;1.0802;0.1872;
155.4000;1.0818;0.1872;
155.7000;1.0818;0.1824;
156.0000;1.0842;0.1919;
156.3000;1.0802;0.1872;
156.6000;1.0786;0.1919;
156.9000;1.0794;0.1919;
157.2000;1.0810;0.1824;
157.5000;1.0794;0.1824;
157.8000;1.0810;0.1943;
158.1000;1.0818;0.2014;
158.4000;1.0786;0.2014;
158.7000;1.0810;0.1967;
159.0000;1.0794;0.1895;
159.3000;1.0818;0.1872;
159.6000;1.0794;0.1824;
159.9000;1.0834;0.1824;
160.2000;1.0826;0.1872;
160.5000;1.0794;0.1872;
160.8000;1.0786;0.1824;
161.1000;1.0826;0.1990;
161.4000;1.0802;0.1967;
161.7000;1.0826;0.1990;
162.0000;1.0818;0.1943;
162.3000;1.0818;0.1943;
162.6000;1.0769;0.1848;
162.9000;1.0810;0.1919;
163.2000;1.0802;0.1967;
163.5000;1.0794;0.2014;
163.8000;1.0818;0.1990;
164.1000;1.0720;0.1824;
164.4000;1.0786;0.2038;
164.7000;1.0786;0.1967;
165.0000;1.0810;0.1872;
165.3000;1.0794;0.1872;
165.6000;1.0794;0.1895;
165.9000;1.0794;0.1895;
166.2000;1.0810;0.1872;
166.5000;1.0794;0.1895;
166.8000;1.0810;0.1895;
167.1000;1.0810;0.1919;
167.4000;1.0802;0.1943;
167.7000;1.0777;0.1872;
168.0000;1.0810;0.1919;
168.3000;1.0810;0.1919;
168.6000;1.0810;0.1848;
168.9000;1.0794;0.1801;
169.2000;1.0810;0.1824;
169.5000;1.0851;0.1990;
169.8000;1.0818;0.1967;
170.1000;1.0818;0.1990;
170.4000;1.0810;0.1990;
170.7000;1.0794;0.1943;
171.0000;1.0786;0.1895;
171.3000;1.0810;0.1848;
171.6000;1.0802;0.1848;
171.9000;1.0794;0.1872;
172.2000;1.0786;0.1848;
172.5000;1.0802;0.1919;
172.8000;1.0777;0.1919;
173.1000;1.0794;0.1943;
173.4000;1.0786;0.1943;
173.7000;1.0802;0.1919;
174.0000;1.0794;0.1872;
174.3000;1.0842;0.1919;
174.6000;1.0810;0.1872;
174.9000;1.0826;0.1919;
175.2000;1.0810;0.1919;
175.5000;1.0794;0.1730;
175.8000;1.0810;0.1635;
176.1000;1.0786;0.1611;
176.4000;1.0794;0.1659;
176.7000;1.0810;0.1682;
177.0000;1.0818;0.1706;
177.3000;1.0818;0.1706;
177.6000;1.0818;0.1801;
177.9000;1.0802;0.1848;
178.2000;1.0810;0.1895;
178.5000;1.0802;0.1872;
178.8000;1.0842;0.1872;
179.1000;1.0842;0.1824;
179.4000;1.0818;0.1682;
179.7000;1.0810;0.1587;
180.0000;1.0883;0.1777;
180.3000;1.0802;0.1587;
180.6000;1.0842;0.1706;
180.9000;1.0826;0.1659;
181.2000;1.0761;0.1540;
181.5000;1.0794;0.1659;
181.8000;1.0802;0.1706;
182.1000;1.0794;0.1753;
182.4000;1.0818;0.1753;
182.7000;1.0810;0.1777;
183.0000;1.0818;0.1848;
183.3000;1.0810;0.1659;
183.6000;1.0810;0.1706;
183.9000;1.0810;0.1753;
184.2000;1.0802;0.1730;
184.5000;1.0802;0.1753;
184.8000;1.0810;0.1801;
185.1000;1.0826;0.1848;
185.4000;1.0802;0.1801;
185.7000;1.0810;0.1801;
186.0000;1.0802;0.1848;
186.3000;1.0810;0.1824;
186.6000;1.0818;0.1730;
186.9000;1.0826;0.1753;
187.2000;1.0794;0.1659;
187.5000;1.0794;0.1659;
187.8000;1.0810;0.1753;
188.1000;1.0794;0.1730;
188.4000;1.0794;0.1682;
188.7000;1.0810;0.1635;
189.0000;1.0826;0.1682;
189.3000;1.0818;0.1635;
189.6000;1.0810;0.1516;
189.9000;1.0818;0.1611;
190.2000;1.0818;0.1706;
190.5000;1.0818;0.1682;
190.8000;1.0802;0.1587;
191.1000;1.0810;0.1564;
191.4000;1.0834;0.1611;
191.7000;1.0826;0.1540;
192.0000;1.0802;0.1445;
192.3000;1.0802;0.1469;
192.6000;1.0802;0.1445;
192.9000;1.0818;0.1493;
193.2000;1.0810;0.1564;
193.5000;1.0753;0.1422;
193.8000;1.0810;0.1611;
194.1000;1.0802;0.1659;
194.4000;1.0794;0.1659;
194.7000;1.0810;0.1706;
195.0000;1.0794;0.1682;
195.3000;1.0818;0.1753;
195.6000;1.0818;0.1753;
195.9000;1.0777;0.1611;
196.2000;1.0802;0.1659;
196.5000;1.0818;0.1682;
196.8000;1.0794;0.1635;
197.1000;1.0802;0.1635;
197.4000;1.0786;0.1611;
197.7000;1.0786;0.1540;
198.0000;1.0802;0.1564;
198.3000;1.0786;0.1540;
198.6000;1.0794;0.1445;
198.9000;1.0802;0.1564;
199.2000;1.0802;0.1659;
199.5000;1.0786;0.1682;
199.8000;1.0794;0.1682;
200.1000;1.0810;0.1706;
200.4000;1.0810;0.1682;
200.7000;1.0818;0.1682;
201.0000;1.0826;0.1777;
201.3000;1.0818;0.1777;
201.6000;1.0810;0.1848;
201.9000;1.0818;0.1943;
202.2000;1.0818;0.1872;
202.5000;1.0818;0.1848;
202.8000;1.0834;0.1801;
203.1000;1.0810;0.1753;
203.4000;1.0810;0.1753;
203.7000;1.0834;0.1777;
204.0000;1.0826;0.1753;
204.3000;1.0818;0.1706;
204.6000;1.0818;0.1635;
204.9000;1.0834;0.1824;
205.2000;1.0810;0.1801;
205.5000;1.0810;0.1943;
205.8000;1.0818;0.1919;
206.1000;1.0810;0.1824;
206.4000;1.0802;0.1777;
206.7000;1.0818;0.1753;
207.0000;1.0875;0.1872;
207.3000;1.0802;0.1682;
207.6000;1.0802;0.1635;
207.9000;1.0794;0.1587;
208.2000;1.0818;0.1587;
208.5000;1.0794;0.1611;
208.8000;1.0794;0.1516;
209.1000;1.0777;0.1564;
209.4000;1.0794;0.1611;
209.7000;1.0777;0.1587;
210.0000;1.0794;0.1587;
210.3000;1.0802;0.1587;
210.6000;1.0802;0.1564;
210.9000;1.0802;0.1659;
211.2000;1.0794;0.1659;
211.5000;1.0802;0.1611;
211.8000;1.0818;0.1635;
212.1000;1.0818;0.1635;
212.4000;1.0818;0.1611;
212.7000;1.0802;0.1635;
213.0000;1.0810;0.1635;
213.3000;1.0802;0.1564;
213.6000;1.0810;0.1516;
213.9000;1.0802;0.1469;
214.2000;1.0810;0.1445;
214.5000;1.0794;0.1445;
214.8000;1.0794;0.1374;
215.1000;1.0834;0.1327;
215.4000;1.0802;0.1303;
215.7000;1.0842;0.1374;
216.0000;1.0818;0.1398;
216.3000;1.0786;0.1398;
216.6000;1.0761;0.1374;
216.9000;1.0794;0.1493;
217.2000;1.0802;0.1564;
217.5000;1.0794;0.1540;
217.8000;1.0810;0.1587;
218.1000;1.0810;0.1682;
218.4000;1.0834;0.1706;
218.7000;1.0818;0.1611;
219.0000;1.0810;0.1611;
219.3000;1.0769;0.1540;
219.6000;1.0818;0.1611;
219.9000;1.0802;0.1564;
220.2000;1.0810;0.1682;
220.5000;1.0810;0.1706;
220.8000;1.0818;0.1659;
221.1000;1.0810;0.1682;
221.4000;1.0769;0.1635;
221.7000;1.0802;0.1659;
222.0000;1.0810;0.1611;
222.3000;1.0810;0.1587;
222.6000;1.0802;0.1635;
222.9000;1.0818;0.1682;
223.2000;1.0826;0.1659;
223.5000;1.0802;0.1706;
223.8000;1.0810;0.1635;
224.1000;1.0818;0.1564;
224.4000;1.0794;0.1516;
224.7000;1.0810;0.1516;
225.0000;1.0810;0.1516;
225.3000;1.0842;0.1564;
225.6000;1.0834;0.1564;
225.9000;1.0818;0.1516;
226.2000;1.0810;0.1540;
226.5000;1.0818;0.1659;
226.8000;1.0794;0.1682;
227.1000;1.0786;0.1611;
227.4000;1.0753;0.1635;
227.7000;1.0810;0.1730;
228.0000;1.0883;0.1872;
228.3000;1.0794;0.1706;
228.6000;1.0794;0.1753;
228.9000;1.0810;0.1753;
229.2000;1.0802;0.1682;
229.5000;1.0810;0.1682;
229.8000;1.0810;0.1730;
230.1000;1.0802;0.1682;
230.4000;1.0826;0.1682;
230.7000;1.0802;0.1611;
231.0000;1.0802;0.1659;
231.3000;1.0810;0.1611;
231.6000;1.0794;0.1659;
231.9000;1.0818;0.1611;
232.2000;1.0794;0.1587;
232.5000;1.0826;0.1635;
232.8000;1.0802;0.1540;
233.1000;1.0818;0.1493;
233.4000;1.0810;0.1564;
233.7000;1.0802;0.1564;
234.0000;1.0834;0.1540;
234.3000;1.0810;0.1493;
234.6000;1.0802;0.1635;
234.9000;1.0777;0.1730;
235.2000;1.0802;0.1777;
235.5000;1.0810;0.1801;
235.8000;1.0802;0.1753;
236.1000;1.0810;0.1682;
236.4000;1.0818;0.1730;
236.7000;1.0818;0.1730;
237.0000;1.0794;0.1753;
237.3000;1.0810;0.1777;
237.6000;1.0867;0.1895;
237.9000;1.0810;0.1777;
238.2000;1.0826;0.1706;
238.5000;1.0810;0.1824;
238.8000;1.0826;0.1895;
239.1000;1.0818;0.1848;
239.4000;1.0802;0.1919;
239.7000;1.0810;0.1848;
240.0000;1.0794;0.1848;
240.3000;1.0826;0.1895;
240.6000;1.0794;0.1801;
240.9000;1.0786;0.1777;
241.2000;1.0745;0.1682;
241.5000;1.0802;0.1777;
241.8000;1.0818;0.1753;
242.1000;1.0810;0.1730;
242.4000;1.0786;0.1706;
242.7000;1.0802;0.1730;
243.0000;1.0794;0.1730;
243.3000;1.0810;0.1777;
243.6000;1.0802;0.1824;
243.9000;1.0802;0.1872;
244.2000;1.0769;0.1824;
244.5000;1.0802;0.1824;
244.8000;1.0794;0.1801;
245.1000;1.0802;0.1872;
245.4000;1.0802;0.1872;
245.7000;1.0810;0.1919;
246.0000;1.0810;0.1872;
246.3000;1.0786;0.1730;
246.6000;1.0794;0.1611;
246.9000;1.0794;0.1682;
247.2000;1.0810;0.1824;
247.5000;1.0802;0.1730;
247.8000;1.0810;0.1730;
248.1000;1.0818;0.1706;
248.4000;1.0818;0.1730;
248.7000;1.0826;0.1872;
249.0000;1.0818;0.1848;
249.3000;1.0802;0.1895;
249.6000;1.0818;0.1895;
249.9000;1.0834;0.1990;
250.2000;1.0753;0.1730;
250.5000;1.0794;0.1801;
250.8000;1.0802;0.1801;
251.1000;1.0818;0.1919;
251.4000;1.0753;0.1777;
251.7000;1.0818;0.1872;
252.0000;1.0826;0.1919;
252.3000;1.0802;0.1824;
252.6000;1.0753;0.1682;
252.9000;1.0810;0.1777;
253.2000;1.0802;0.1801;
253.5000;1.0826;0.1872;
253.8000;1.0810;0.1753;
254.1000;1.0818;0.1706;
254.4000;1.0818;0.1682;
254.7000;1.0818;0.1682;
255.0000;1.0810;0.1635;
255.3000;1.0794;0.1611;
255.6000;1.0810;0.1635;
255.9000;1.0818;0.1706;
256.2000;1.0802;0.1730;
256.5000;1.0810;0.1706;
256.8000;1.0810;0.1682;
257.1000;1.0786;0.1564;
257.4000;1.0818;0.1659;
257.7000;1.0777;0.1611;
258.0000;1.0810;0.1730;
258.3000;1.0826;0.1753;
258.6000;1.0842;0.1824;
258.9000;1.0867;0.1919;
259.2000;1.0810;0.1753;
259.5000;1.0810;0.1753;
259.8000;1.0826;0.1777;
260.1000;1.0761;0.1564;
260.4000;1.0794;0.1682;
260.7000;1.0818;0.1777;
261.0000;1.0810;0.1753;
261.3000;1.0818;0.1753;
261.6000;1.0818;0.1682;
261.9000;1.0810;0.1659;
262.2000;1.0802;0.1753;
262.5000;1.0899;0.1943;
262.8000;1.0818;0.1824;
263.1000;1.0818;0.1943;
263.4000;1.0794;0.1943;
263.7000;1.0818;0.1990;
264.0000;1.0818;0.2061;
264.3000;1.0786;0.1990;
264.6000;1.0802;0.2014;
264.9000;1.0818;0.2038;
265.2000;1.0818;0.1990;
265.5000;1.0810;0.2038;
265.8000;1.0810;0.1919;
266.1000;1.0810;0.1848;
266.4000;1.0802;0.1801;
266.7000;1.0810;0.1777;
267.0000;1.0834;0.1753;
267.3000;1.0834;0.1753;
267.6000;1.0802;0.1706;
267.9000;1.0777;0.1730;
268.2000;1.0729;0.1635;
268.5000;1.0802;0.1753;
268.8000;1.0810;0.1659;
269.1000;1.0851;0.1895;
269.4000;1.0834;0.1943;
269.7000;1.0810;0.1919;
270.0000;1.0794;0.1872;
270.3000;1.0818;0.1848;
270.6000;1.0794;0.1753;
270.9000;1.0786;0.1730;
271.2000;1.0818;0.1990;
271.5000;1.0818;0.1990;
271.8000;1.0810;0.1848;
272.1000;1.0794;0.1753;
272.4000;1.0842;0.1895;
272.7000;1.0802;0.1801;
273.0000;1.0794;0.1753;
273.3000;1.0794;0.1777;
273.6000;1.0802;0.1801;
273.9000;1.0810;0.1824;
274.2000;1.0786;0.1777;
274.5000;1.0802;0.1919;
274.8000;1.0802;0.1990;
275.1000;1.0818;0.2014;
275.4000;1.0777;0.1872;
275.7000;1.0834;0.1919;
276.0000;1.0810;0.1848;
276.3000;1.0802;0.1777;
276.6000;1.0802;0.1706;
276.9000;1.0794;0.1659;
277.2000;1.0802;0.1682;
277.5000;1.0794;0.1682;
277.8000;1.0818;0.1801;
278.1000;1.0818;0.1895;
278.4000;1.0802;0.1753;
278.7000;1.0802;0.1730;
279.0000;1.0810;0.1753;
279.3000;1.0810;0.1777;
279.6000;1.0810;0.1777;
279.9000;1.0794;0.1659;
280.2000;1.0720;0.1398;
280.5000;1.0802;0.1516;
280.8000;1.0802;0.1374;
281.1000;1.0794;0.1398;
281.4000;1.0777;0.1374;
281.7000;1.0818;0.1493;
282.0000;1.0802;0.1445;
282.3000;1.0810;0.1564;
282.6000;1.0810;0.1564;
282.9000;1.0802;0.1469;
283.2000;1.0826;0.1564;
283.5000;1.0826;0.1516;
283.8000;1.0810;0.1469;
284.1000;1.0786;0.1445;
284.4000;1.0802;0.1493;
284.7000;1.0802;0.1516;
285.0000;1.0818;0.1516;
285.3000;1.0826;0.1540;
285.6000;1.0769;0.1327;
285.9000;1.0826;0.1516;
286.2000;1.0810;0.1469;
286.5000;1.0818;0.1540;
286.8000;1.0826;0.1587;
287.1000;1.0818;0.1611;
287.4000;1.0802;0.1516;
287.7000;1.0883;0.1706;
288.0000;1.0826;0.1611;
288.3000;1.0818;0.1587;
288.6000;1.0810;0.1706;
288.9000;1.0794;0.1753;
289.2000;1.0818;0.1848;
289.5000;1.0810;0.1848;
289.8000;1.0802;0.1848;
290.1000;1.0810;0.1895;
290.4000;1.0818;0.1967;
290.7000;1.0826;0.1895;
291.0000;1.0818;0.1730;
291.3000;1.0875;0.1848;
291.6000;1.0810;0.1587;
291.9000;1.0810;0.1635;
292.2000;1.0802;0.1540;
292.5000;1.0794;0.1445;
292.8000;1.0802;0.1422;
293.1000;1.0802;0.1351;
293.4000;1.0794;0.1327;
293.7000;1.0802;0.1398;
294.0000;1.0794;0.1493;
294.3000;1.0794;0.1516;
294.6000;1.0794;0.1469;
294.9000;1.0810;0.1445;
295.2000;1.0810;0.1469;
295.5000;1.0818;0.1351;
295.8000;1.0818;0.1374;
296.1000;1.0810;0.1374;
296.4000;1.0810;0.1445;
296.7000;1.0826;0.1469;
297.0000;1.0794;0.1469;
297.3000;1.0826;0.1422;
297.6000;1.0802;0.1374;
297.9000;1.0794;0.1327;
298.2000;1.0802;0.1445;
298.5000;1.0842;0.1564;
298.8000;1.0794;0.1540;
299.1000;1.0802;0.1682;
299.4000;1.0794;0.1777;
299.7000;1.0802;0.1824;
300.0000;1.0786;0.1659;
300.3000;1.0802;0.1659;
300.6000;1.0761;0.1635;
300.9000;1.0794;0.1564;
301.2000;1.0786;0.1611;
301.5000;1.0786;0.1611;
301.8000;1.0777;0.1611;
302.1000;1.0769;0.1611;
302.4000;1.0810;0.1706;
302.7000;1.0818;0.1777;
303.0000;1.0818;0.1753;
303.3000;1.0826;0.1753;
303.6000;1.0810;0.1659;
303.9000;1.0818;0.1659;
304.2000;1.0794;0.1587;
304.5000;1.0810;0.1635;
304.8000;1.0802;0.1611;
305.1000;1.0794;0.1587;
305.4000;1.0794;0.1659;
305.7000;1.0875;0.1943;
306.0000;1.0802;0.1753;
306.3000;1.0794;0.1753;
306.6000;1.0794;0.1777;
306.9000;1.0818;0.1777;
307.2000;1.0851;0.1919;
307.5000;1.0810;0.1706;
307.8000;1.0834;0.1801;
308.1000;1.0802;0.1824;
308.4000;1.0810;0.1824;
308.7000;1.0794;0.1824;
309.0000;1.0777;0.1777;
309.3000;1.0810;0.1848;
309.6000;1.0883;0.2061;
309.9000;1.0802;0.1990;
310.2000;1.0810;0.2014;
310.5000;1.0777;0.1848;
310.8000;1.0802;0.1895;
311.1000;1.0826;0.1967;
311.4000;1.0777;0.1895;
311.7000;1.0802;0.1895;
312.0000;1.0794;0.1824;
312.3000;1.0818;0.2038;
312.6000;1.0802;0.2014;
312.9000;1.0794;0.1919;
313.2000;1.0842;0.2061;
313.5000;1.0810;0.1967;
313.8000;1.0802;0.1943;
314.1000;1.0802;0.2014;
314.4000;1.0794;0.1967;
314.7000;1.0794;0.1943;
315.0000;1.0802;0.1919;
315.3000;1.0794;0.1943;
315.6000;1.0777;0.1895;
315.9000;1.0794;0.1801;
316.2000;1.0826;0.1872;
316.5000;1.0818;0.1872;
316.8000;1.0810;0.1777;
317.1000;1.0810;0.1777;
317.4000;1.0818;0.1919;
317.7000;1.0818;0.1943;
318.0000;1.0794;0.1919;
318.3000;1.0794;0.1967;
318.6000;1.0802;0.2085;
318.9000;1.0818;0.2038;
319.2000;1.0818;0.1943;
319.5000;1.0777;0.1943;
319.8000;1.0818;0.2014;
320.1000;1.0826;0.1967;
320.4000;1.0786;0.1895;
320.7000;1.0777;0.1753;
321.0000;1.0786;0.1801;
321.3000;1.0810;0.1895;
321.6000;1.0818;0.2038;
321.9000;1.0810;0.2014;
322.2000;1.0818;0.1990;
322.5000;1.0810;0.1967;
322.8000;1.0826;0.1990;
323.1000;1.0794;0.1990;
323.4000;1.0786;0.1990;
323.7000;1.0834;0.2109;
324.0000;1.0810;0.1943;
324.3000;1.0794;0.1919;
324.6000;1.0769;0.1848;
324.9000;1.0794;0.1848;
325.2000;1.0818;0.1943;
325.5000;1.0802;0.1848;
325.8000;1.0737;0.1682;
326.1000;1.0777;0.1801;
326.4000;1.0810;0.1824;
326.7000;1.0842;0.1943;
327.0000;1.0786;0.1753;
327.3000;1.0786;0.1706;
327.6000;1.0810;0.1682;
327.9000;1.0777;0.1777;
328.2000;1.0794;0.1801;
328.5000;1.0834;0.1872;
328.8000;1.0777;0.1730;
329.1000;1.0810;0.1777;
329.4000;1.0794;0.1777;
329.7000;1.0761;0.1753;
330.0000;1.0802;0.1848;
330.3000;1.0802;0.1730;
330.6000;1.0794;0.1659;
330.9000;1.0786;0.1659;
331.2000;1.0761;0.1635;
331.5000;1.0834;0.1753;
331.8000;1.0794;0.1682;
332.1000;1.0802;0.1706;
332.4000;1.0786;0.1682;
332.7000;1.0810;0.1682;
333.0000;1.0810;0.1682;
333.3000;1.0802;0.1706;
333.6000;1.0810;0.1777;
333.9000;1.0818;0.1801;
334.2000;1.0794;0.1777;
334.5000;1.0802;0.1753;
334.8000;1.0802;0.1730;
335.1000;1.0810;0.1753;
335.4000;1.0802;0.1706;
335.7000;1.0810;0.1730;
336.0000;1.0777;0.1611;
336.3000;1.0794;0.1682;
336.6000;1.0810;0.1730;
336.9000;1.0802;0.1706;
337.2000;1.0810;0.1730;
337.5000;1.0810;0.1801;
337.8000;1.0810;0.1801;
338.1000;1.0818;0.1943;
338.4000;1.0810;0.1895;
338.7000;1.0786;0.1895;
339.0000;1.0818;0.1872;
339.3000;1.0826;0.1872;
339.6000;1.0810;0.1895;
339.9000;1.0818;0.1848;
340.2000;1.0794;0.1895;
340.5000;1.0802;0.1943;
340.8000;1.0802;0.1943;
341.1000;1.0786;0.1919;
341.4000;1.0834;0.2038;
341.7000;1.0802;0.1967;
342.0000;1.0786;0.1990;
342.3000;1.0786;0.1943;
342.6000;1.0802;0.1967;
342.9000;1.0794;0.2038;
343.2000;1.0802;0.2085;
343.5000;1.0802;0.2038;
343.8000;1.0794;0.1943;
344.1000;1.0794;0.1919;
344.4000;1.0867;0.1990;
344.7000;1.0810;0.1895;
345.0000;1.0802;0.1777;
345.3000;1.0802;0.1753;
345.6000;1.0761;0.1659;
345.9000;1.0794;0.1730;
346.2000;1.0818;0.1848;
346.5000;1.0777;0.1801;
346.8000;1.0802;0.1848;
347.1000;1.0786;0.1753;
347.4000;1.0786;0.1706;
347.7000;1.0786;0.1706;
348.0000;1.0794;0.1730;
348.3000;1.0810;0.1706;
348.6000;1.0818;0.1753;
348.9000;1.0761;0.1611;
349.2000;1.0834;0.1730;
349.5000;1.0810;0.1706;
349.8000;1.0802;0.1777;
350.1000;1.0786;0.1753;
350.4000;1.0802;0.1801;
350.7000;1.0777;0.1753;
351.0000;1.0794;0.1777;
351.3000;1.0867;0.1967;
351.6000;1.0777;0.1730;
351.9000;1.0810;0.1753;
352.2000;1.0810;0.1801;
352.5000;1.0786;0.1777;
352.8000;1.0802;0.1801;
353.1000;1.0810;0.1848;
353.4000;1.0810;0.1801;
353.7000;1.0802;0.1777;
354.0000;1.0810;0.1777;
354.3000;1.0802;0.1730;
354.6000;1.0810;0.1777;
354.9000;1.0810;0.1777;
355.2000;1.0794;0.1777;
355.5000;1.0802;0.1777;
355.8000;1.0810;0.1730;
356.1000;1.0834;0.1635;
356.4000;1.0794;0.1587;
356.7000;1.0794;0.1611;
357.0000;1.0794;0.1611;
357.3000;1.0810;0.1635;
357.6000;1.0794;0.1611;
357.9000;1.0794;0.1564;
358.2000;1.0794;0.1540;
358.5000;1.0810;0.1635;
358.8000;1.0818;0.1682;
359.1000;1.0802;0.1730;
359.4000;1.0786;0.1682;
359.7000;1.0786;0.1611;
360.0000;1.0851;0.1706;
360.3000;1.0786;0.1564;
360.6000;1.0786;0.1587;
360.9000;1.0794;0.1753;
361.2000;1.0818;0.1777;
361.5000;1.0786;0.1777;
361.8000;1.0794;0.1730;
362.1000;1.0810;0.1872;
362.4000;1.0794;0.1919;
362.7000;1.0810;0.1919;
363.0000;1.0794;0.1895;
363.3000;1.0802;0.1967;
363.6000;1.0802;0.1967;
363.9000;1.0802;0.1895;
364.2000;1.0802;0.1872;
364.5000;1.0802;0.1919;
364.8000;1.0818;0.1967;
365.1000;1.0818;0.2014;
365.4000;1.0761;0.1895;
365.7000;1.0810;0.2014;
366.0000;1.0794;0.2061;
366.3000;1.0786;0.2038;
366.6000;1.0777;0.2061;
366.9000;1.0777;0.2014;
367.2000;1.0729;0.1777;
367.5000;1.0794;0.1990;
367.8000;1.0802;0.1895;
368.1000;1.0786;0.1753;
368.4000;1.0786;0.1706;
368.7000;1.0802;0.1753;
369.0000;1.0810;0.1801;
369.3000;1.0753;0.1730;
369.6000;1.0777;0.1848;
369.9000;1.0818;0.1919;
370.2000;1.0802;0.1824;
370.5000;1.0794;0.1777;
370.8000;1.0810;0.1824;
371.1000;1.0720;0.1730;
371.4000;1.0802;0.1872;
371.7000;1.0802;0.1801;
372.0000;1.0786;0.1848;
372.3000;1.0753;0.1848;
372.6000;1.0794;0.1943;
372.9000;1.0769;0.1824;
373.2000;1.0761;0.1824;
373.5000;1.0777;0.1872;
373.8000;1.0777;0.1824;
374.1000;1.0786;0.1824;
374.4000;1.0794;0.1777;
374.7000;1.0777;0.1777;
375.0000;1.0794;0.1777;
375.3000;1.0810;0.1777;
375.6000;1.0786;0.1753;
375.9000;1.0802;0.1753;
376.2000;1.0818;0.1706;
376.5000;1.0818;0.1753;
376.8000;1.0810;0.1730;
377.1000;1.0802;0.1777;
377.4000;1.0810;0.1801;
377.7000;1.0802;0.1801;
378.0000;1.0786;0.1777;
378.3000;1.0777;0.1753;
378.6000;1.0704;0.1516;
378.9000;1.0777;0.1706;
379.2000;1.0786;0.1730;
379.5000;1.0786;0.1682;
379.8000;1.0769;0.1659;
380.1000;1.0802;0.1682;
380.4000;1.0810;0.1730;
380.7000;1.0818;0.1706;
381.0000;1.0794;0.1635;
381.3000;1.0810;0.1706;
381.6000;1.0810;0.1753;
381.9000;1.0810;0.1753;
382.2000;1.0810;0.1706;
382.5000;1.0794;0.1753;
382.8000;1.0769;0.1706;
383.1000;1.0786;0.1777;
383.4000;1.0777;0.1777;
383.7000;1.0786;0.1730;
384.0000;1.0794;0.1635;
384.3000;1.0794;0.1706;
384.6000;1.0786;0.1753;
384.9000;1.0786;0.1848;
385.2000;1.0786;0.1824;
385.5000;1.0786;0.1848;
385.8000;1.0777;0.1895;
386.1000;1.0794;0.1919;
386.4000;1.0802;0.1919;
386.7000;1.0786;0.1943;
387.0000;1.0802;0.1919;
387.3000;1.0777;0.1872;
387.6000;1.0786;0.1872;
387.9000;1.0786;0.1824;
388.2000;1.0786;0.1801;
388.5000;1.0777;0.1682;
388.8000;1.0777;0.1682;
389.1000;1.0794;0.1659;
389.4000;1.0802;0.1659;
389.7000;1.0818;0.1659;
390.0000;1.0794;0.1611;
390.3000;1.0802;0.1706;
390.6000;1.0786;0.1730;
390.9000;1.0794;0.1706;
391.2000;1.0810;0.1753;
391.5000;1.0802;0.1824;
391.8000;1.0810;0.1730;
392.1000;1.0786;0.1824;
392.4000;1.0810;0.1872;
392.7000;1.0761;0.1872;
393.0000;1.0794;0.1895;
393.3000;1.0786;0.1801;
393.6000;1.0802;0.1753;
393.9000;1.0786;0.1635;
394.2000;1.0777;0.1659;
394.5000;1.0761;0.1587;
394.8000;1.0794;0.1706;
395.1000;1.0794;0.1706;
395.4000;1.0834;0.1753;
395.7000;1.0802;0.1777;
396.0000;1.0802;0.1872;
396.3000;1.0786;0.1824;
396.6000;1.0786;0.1895;
396.9000;1.0753;0.1682;
397.2000;1.0761;0.1706;
397.5000;1.0777;0.1801;
397.8000;1.0810;0.1895;
398.1000;1.0786;0.1801;
398.4000;1.0786;0.1824;
398.7000;1.0761;0.1730;
399.0000;1.0769;0.1848;
399.3000;1.0712;0.1753;
399.6000;1.0769;0.1967;
399.9000;1.0794;0.2061;
400.2000;1.0786;0.2014;
400.5000;1.0786;0.1943;
400.8000;1.0777;0.1872;
401.1000;1.0818;0.1990;
401.4000;1.0786;0.1919;
401.7000;1.0777;0.1872;
402.0000;1.0834;0.1990;
402.3000;1.0794;0.1943;
402.6000;1.0867;0.2109;
402.9000;1.0769;0.1895;
403.2000;1.0777;0.1848;
403.5000;1.0737;0.1659;
403.8000;1.0769;0.1753;
404.1000;1.0761;0.1777;
404.4000;1.0761;0.1919;
404.7000;1.0842;0.2109;
405.0000;1.0769;0.1824;
405.3000;1.0769;0.1872;
405.6000;1.0794;0.1895;
405.9000;1.0802;0.1919;
406.2000;1.0826;0.1990;
406.5000;1.0794;0.1895;
406.8000;1.0786;0.1943;
407.1000;1.0875;0.2038;
407.4000;1.0810;0.1943;
407.7000;1.0810;0.1967;
408.0000;1.0786;0.1919;
408.3000;1.0777;0.1801;
408.6000;1.0794;0.1801;
408.9000;1.0794;0.1801;
409.2000;1.0769;0.1730;
409.5000;1.0777;0.1753;
409.8000;1.0786;0.1848;
410.1000;1.0777;0.1824;
410.4000;1.0777;0.1848;
410.7000;1.0777;0.1872;
411.0000;1.0786;0.1990;
411.3000;1.0794;0.1967;
411.6000;1.0794;0.1824;
411.9000;1.0786;0.1848;
412.2000;1.0769;0.1801;
412.5000;1.0777;0.1824;
412.8000;1.0794;0.1824;
413.1000;1.0786;0.1872;
413.4000;1.0769;0.1919;
413.7000;1.0794;0.2014;
414.0000;1.0737;0.1895;
414.3000;1.0794;0.2085;
414.6000;1.0786;0.2061;
414.9000;1.0786;0.2085;
415.2000;1.0729;0.1943;
415.5000;1.0786;0.2109;
415.8000;1.0802;0.2132;
416.1000;1.0826;0.2251;
416.4000;1.0761;0.1990;
416.7000;1.0834;0.2156;
417.0000;1.0875;0.2322;
417.3000;1.0794;0.2085;
417.6000;1.0786;0.2038;
417.9000;1.0769;0.1943;
418.2000;1.0786;0.1943;
418.5000;1.0802;0.1919;
418.8000;1.0834;0.1919;
419.1000;1.0810;0.1777;
419.4000;1.0769;0.1730;
419.7000;1.0802;0.1777;
420.0000;1.0786;0.1682;
420.3000;1.0794;0.1635;
420.6000;1.0794;0.1753;
420.9000;1.0753;0.1706;
421.2000;1.0794;0.1730;
421.5000;1.0802;0.1777;
421.8000;1.0794;0.1848;
422.1000;1.0818;0.1919;
422.4000;1.0794;0.1848;
422.7000;1.0786;0.1990;
423.0000;1.0794;0.1990;
423.3000;1.0786;0.1919;
423.6000;1.0761;0.1730;
423.9000;1.0851;0.1895;
424.2000;1.0834;0.1777;
424.5000;1.0834;0.1801;
424.8000;1.0786;0.1682;
425.1000;1.0786;0.1730;
425.4000;1.0786;0.1682;
425.7000;1.0818;0.1706;
426.0000;1.0753;0.1659;
426.3000;1.0786;0.1730;
426.6000;1.0794;0.1801;
426.9000;1.0786;0.1848;
427.2000;1.0786;0.1872;
427.5000;1.0745;0.1801;
427.8000;1.0794;0.1895;
428.1000;1.0769;0.1895;
428.4000;1.0777;0.1943;
428.7000;1.0834;0.2014;
429.0000;1.0753;0.1801;
429.3000;1.0777;0.1872;
429.6000;1.0777;0.1848;
429.9000;1.0786;0.1895;
430.2000;1.0794;0.1895;
430.5000;1.0777;0.1801;
430.8000;1.0786;0.1777;
431.1000;1.0794;0.1848;
431.4000;1.0786;0.1824;
431.7000;1.0786;0.1895;
432.0000;1.0769;0.1824;
432.3000;1.0777;0.1848;
432.6000;1.0786;0.1848;
432.9000;1.0786;0.1895;
433.2000;1.0777;0.1943;
433.5000;1.0777;0.1943;
433.8000;1.0794;0.1919;
434.1000;1.0794;0.1848;
434.4000;1.0777;0.1919;
434.7000;1.0777;0.1919;
435.0000;1.0786;0.2061;
435.3000;1.0777;0.2038;
435.6000;1.0786;0.2061;
435.9000;1.0769;0.1990;
436.2000;1.0786;0.1990;
436.5000;1.0786;0.1990;
436.8000;1.0777;0.1990;
437.1000;1.0761;0.1943;
437.4000;1.0794;0.1967;
437.7000;1.0786;0.1943;
438.0000;1.0802;0.1943;
438.3000;1.0786;0.1801;
438.6000;1.0777;0.1824;
438.9000;1.0786;0.1919;
439.2000;1.0786;0.1967;
439.5000;1.0786;0.1967;
439.8000;1.0810;0.2085;
440.1000;1.0761;0.1967;
440.4000;1.0786;0.2109;
440.7000;1.0786;0.2156;
441.0000;1.0810;0.2132;
441.3000;1.0777;0.2061;
441.6000;1.0786;0.2061;
441.9000;1.0794;0.2014;
442.2000;1.0786;0.1943;
442.5000;1.0769;0.1895;
442.8000;1.0777;0.1919;
443.1000;1.0802;0.1943;
443.4000;1.0786;0.1801;
443.7000;1.0786;0.1777;
444.0000;1.0729;0.1587;
444.3000;1.0810;0.1777;
444.6000;1.0802;0.1848;
444.9000;1.0786;0.1777;
445.2000;1.0786;0.1801;
445.5000;1.0794;0.1824;
445.8000;1.0761;0.1753;
446.1000;1.0859;0.1943;
446.4000;1.0769;0.1848;
446.7000;1.0761;0.1848;
447.0000;1.0761;0.1801;
447.3000;1.0777;0.1801;
447.6000;1.0753;0.1801;
447.9000;1.0786;0.1872;
448.2000;1.0777;0.1919;
448.5000;1.0761;0.1824;
448.8000;1.0737;0.1753;
449.1000;1.0786;0.1824;
449.4000;1.0753;0.1824;
449.7000;1.0802;0.1919;
450.0000;1.0786;0.1872;
450.3000;1.0769;0.1872;
450.6000;1.0794;0.1895;
450.9000;1.0802;0.1943;
451.2000;1.0802;0.1919;
451.5000;1.0777;0.1943;
451.8000;1.0867;0.2132;
452.1000;1.0802;0.1967;
452.4000;1.0802;0.1895;
452.7000;1.0802;0.1943;
453.0000;1.0769;0.1872;
453.3000;1.0786;0.1895;
453.6000;1.0802;0.1919;
453.9000;1.0802;0.1824;
454.2000;1.0810;0.1848;
454.5000;1.0818;0.1824;
454.8000;1.0737;0.1635;
455.1000;1.0794;0.1753;
455.4000;1.0794;0.1730;
455.7000;1.0777;0.1730;
456.0000;1.0769;0.1801;
456.3000;1.0786;0.1919;
456.6000;1.0769;0.1777;
456.9000;1.0761;0.1801;
457.2000;1.0769;0.1824;
457.5000;1.0794;0.1919;
457.8000;1.0777;0.1895;
458.1000;1.0777;0.1872;
458.4000;1.0777;0.1872;
458.7000;1.0786;0.1872;
459.0000;1.0777;0.1895;
459.3000;1.0786;0.1872;
459.6000;1.0761;0.1848;
459.9000;1.0777;0.1967;
460.2000;1.0786;0.1990;
460.5000;1.0720;0.1801;
460.8000;1.0769;0.1967;
461.1000;1.0786;0.1990;
461.4000;1.0777;0.1990;
461.7000;1.0777;0.1895;
462.0000;1.0761;0.1872;
462.3000;1.0753;0.1848;
462.6000;1.0826;0.2061;
462.9000;1.0794;0.1990;
463.2000;1.0769;0.1872;
463.5000;1.0753;0.1824;
463.8000;1.0745;0.1801;
464.1000;1.0769;0.1872;
464.4000;1.0777;0.1848;
464.7000;1.0786;0.1848;
465.0000;1.0818;0.1919;
465.3000;1.0794;0.1943;
465.6000;1.0777;0.1967;
465.9000;1.0794;0.1967;
466.2000;1.0777;0.1943;
466.5000;1.0786;0.1990;
466.8000;1.0761;0.1895;
467.1000;1.0786;0.1990;
467.4000;1.0818;0.2061;
467.7000;1.0802;0.2038;
468.0000;1.0810;0.2109;
468.3000;1.0794;0.2061;
468.6000;1.0786;0.2061;
468.9000;1.0769;0.2109;
469.2000;1.0761;0.2132;
469.5000;1.0777;0.2109;
469.8000;1.0777;0.2014;
470.1000;1.0786;0.2038;
470.4000;1.0810;0.2061;
470.7000;1.0777;0.1967;
471.0000;1.0777;0.1919;
471.3000;1.0761;0.1895;
471.6000;1.0794;0.1895;
471.9000;1.0753;0.1872;
472.2000;1.0777;0.1895;
472.5000;1.0777;0.1824;
472.8000;1.0769;0.1777;
473.1000;1.0802;0.1848;
473.4000;1.0761;0.1753;
473.7000;1.0769;0.1659;
474.0000;1.0769;0.1682;
474.3000;1.0737;0.1564;
474.6000;1.0777;0.1706;
474.9000;1.0834;0.1801;
475.2000;1.0777;0.1706;
475.5000;1.0802;0.1777;
475.8000;1.0745;0.1635;
476.1000;1.0769;0.1706;
476.4000;1.0786;0.1848;
476.7000;1.0777;0.1753;
477.0000;1.0777;0.1777;
477.3000;1.0786;0.1824;
477.6000;1.0769;0.1872;
477.9000;1.0802;0.1919;
478.2000;1.0777;0.1895;
478.5000;1.0761;0.1872;
478.8000;1.0802;0.1943;
479.1000;1.0786;0.2014;
479.4000;1.0769;0.2014;
479.7000;1.0777;0.1919;
480.0000;1.0769;0.1872;
480.3000;1.0777;0.1919;
480.6000;1.0794;0.1990;
480.9000;1.0777;0.1872;
481.2000;1.0729;0.1753;
481.5000;1.0769;0.1777;
481.8000;1.0794;0.1895;
482.1000;1.0777;0.1919;
482.4000;1.0786;0.1943;
482.7000;1.0777;0.1895;
483.0000;1.0769;0.1895;
483.3000;1.0802;0.1872;
483.6000;1.0761;0.1777;
483.9000;1.0769;0.1777;
484.2000;1.0777;0.1824;
484.5000;1.0769;0.1824;
484.8000;1.0802;0.1943;
485.1000;1.0786;0.1895;
485.4000;1.0769;0.1753;
485.7000;1.0777;0.1682;
486.0000;1.0777;0.1730;
486.3000;1.0777;0.1706;
486.6000;1.0720;0.1659;
486.9000;1.0786;0.1848;
487.2000;1.0802;0.1872;
487.5000;1.0761;0.1848;
487.8000;1.0786;0.1943;
488.1000;1.0761;0.1919;
488.4000;1.0786;0.1824;
488.7000;1.0769;0.1848;
489.0000;1.0769;0.1824;
489.3000;1.0794;0.1895;
489.6000;1.0786;0.1801;
489.9000;1.0777;0.1753;
490.2000;1.0834;0.1848;
490.5000;1.0769;0.1682;
490.8000;1.0777;0.1753;
491.1000;1.0777;0.1753;
491.4000;1.0761;0.1730;
491.7000;1.0777;0.1801;
492.0000;1.0777;0.1753;
492.3000;1.0761;0.1730;
492.6000;1.0786;0.1753;
492.9000;1.0777;0.1753;
493.2000;1.0777;0.1682;
493.5000;1.0769;0.1682;
493.8000;1.0761;0.1706;
494.1000;1.0729;0.1682;
494.4000;1.0777;0.1895;
494.7000;1.0769;0.1919;
495.0000;1.0761;0.1919;
495.3000;1.0769;0.2014;
495.6000;1.0769;0.1990;
495.9000;1.0794;0.2061;
496.2000;1.0794;0.1990;
496.5000;1.0753;0.1824;
496.8000;1.0753;0.1753;
497.1000;1.0777;0.1895;
497.4000;1.0786;0.2038;
497.7000;1.0777;0.1990;
498.0000;1.0769;0.1919;
498.3000;1.0769;0.1943;
498.6000;1.0769;0.1848;
498.9000;1.0769;0.1801;
499.2000;1.0777;0.1777;
499.5000;1.0802;0.1777;
499.8000;1.0777;0.1682;
500.1000;1.0794;0.1801;
500.4000;1.0786;0.1777;
500.7000;1.0786;0.1848;
501.0000;1.0786;0.1895;
501.3000;1.0794;0.1895;
501.6000;1.0761;0.1895;
501.9000;1.0786;0.1848;
502.2000;1.0777;0.1824;
502.5000;1.0786;0.1848;
502.8000;1.0761;0.1753;
503.1000;1.0786;0.1753;
503.4000;1.0786;0.1777;
503.7000;1.0786;0.1730;
504.0000;1.0761;0.1659;
504.3000;1.0737;0.1635;
504.6000;1.0777;0.1730;
504.9000;1.0769;0.1706;
505.2000;1.0769;0.1706;
505.5000;1.0777;0.1730;
505.8000;1.0753;0.1659;
506.1000;1.0786;0.1777;
506.4000;1.0753;0.1659;
506.7000;1.0777;0.1682;
507.0000;1.0753;0.1659;
507.3000;1.0786;0.1753;
507.6000;1.0769;0.1730;
507.9000;1.0769;0.1706;
508.2000;1.0769;0.1777;
508.5000;1.0761;0.1777;
508.8000;1.0826;0.1895;
509.1000;1.0761;0.1753;
509.4000;1.0761;0.1777;
509.7000;1.0786;0.1753;
510.0000;1.0777;0.1753;
510.3000;1.0777;0.1801;
510.6000;1.0761;0.1801;
510.9000;1.0761;0.1777;
511.2000;1.0786;0.1872;
511.5000;1.0769;0.1753;
511.8000;1.0769;0.1730;
512.1000;1.0875;0.1895;
512.4000;1.0745;0.1730;
512.7000;1.0769;0.1895;
513.0000;1.0777;0.1967;
513.3000;1.0810;0.2038;
513.6000;1.0786;0.1919;
513.9000;1.0786;0.1872;
514.2000;1.0786;0.1824;
514.5000;1.0777;0.1919;
514.8000;1.0753;0.1943;
515.1000;1.0769;0.1967;
515.4000;1.0761;0.1943;
515.7000;1.0761;0.1943;
516.0000;1.0745;0.1824;
516.3000;1.0761;0.1777;
516.6000;1.0769;0.1730;
516.9000;1.0704;0.1635;
517.2000;1.0753;0.1848;
517.5000;1.0761;0.1753;
517.8000;1.0753;0.1706;
518.1000;1.0826;0.1848;
518.4000;1.0810;0.1824;
518.7000;1.0777;0.1706;
519.0000;1.0794;0.1730;
519.3000;1.0777;0.1753;
519.6000;1.0761;0.1706;
519.9000;1.0761;0.1730;
520.2000;1.0777;0.1730;
520.5000;1.0777;0.1706;
520.8000;1.0769;0.1730;
521.1000;1.0769;0.1706;
521.4000;1.0745;0.1730;
521.7000;1.0769;0.1848;
522.0000;1.0761;0.1848;
522.3000;1.0753;0.1824;
522.6000;1.0826;0.2038;
522.9000;1.0769;0.1990;
523.2000;1.0826;0.2109;
523.5000;1.0761;0.1990;
523.8000;1.0769;0.1919;
524.1000;1.0794;0.1943;
524.4000;1.0786;0.1919;
524.7000;1.0761;0.1943;
525.0000;1.0769;0.1967;
525.3000;1.0777;0.1990;
525.6000;1.0769;0.1895;
525.9000;1.0794;0.1824;
526.2000;1.0777;0.1659;
526.5000;1.0794;0.1730;
526.8000;1.0802;0.1753;
527.1000;1.0761;0.1730;
527.4000;1.0761;0.1777;
527.7000;1.0786;0.1848;
528.0000;1.0777;0.1801;
528.3000;1.0777;0.1872;
528.6000;1.0786;0.1824;
528.9000;1.0786;0.1801;
529.2000;1.0769;0.1801;
529.5000;1.0777;0.1730;
529.8000;1.0761;0.1682;
530.1000;1.0769;0.1753;
530.4000;1.0761;0.1730;
530.7000;1.0777;0.1730;
531.0000;1.0761;0.1706;
531.3000;1.0761;0.1659;
531.6000;1.0761;0.1635;
531.9000;1.0769;0.1706;
532.2000;1.0777;0.1753;
532.5000;1.0769;0.1801;
532.8000;1.0769;0.1777;
533.1000;1.0720;0.1682;
533.4000;1.0761;0.1777;
533.7000;1.0761;0.1753;
534.0000;1.0737;0.1753;
534.3000;1.0769;0.1824;
534.6000;1.0753;0.1801;
534.9000;1.0777;0.1895;
535.2000;1.0777;0.1848;
535.5000;1.0777;0.1777;
535.8000;1.0786;0.1753;
536.1000;1.0753;0.1682;
536.4000;1.0761;0.1730;
536.7000;1.0786;0.1872;
537.0000;1.0777;0.1872;
537.3000;1.0769;0.1895;
537.6000;1.0769;0.1919;
537.9000;1.0777;0.1848;
538.2000;1.0786;0.1801;
538.5000;1.0777;0.1872;
538.8000;1.0777;0.1848;
539.1000;1.0769;0.1848;
539.4000;1.0720;0.1659;
539.7000;1.0802;0.1895;
540.0000;1.0761;0.1848;
540.3000;1.0737;0.1753;
540.6000;1.0769;0.1753;
540.9000;1.0769;0.1777;
541.2000;1.0769;0.1824;
541.5000;1.0761;0.1753;
541.8000;1.0753;0.1753;
542.1000;1.0737;0.1753;
542.4000;1.0769;0.1706;
542.7000;1.0769;0.1777;
543.0000;1.0769;0.1753;
543.3000;1.0777;0.1801;
543.6000;1.0794;0.1777;
543.9000;1.0761;0.1753;
544.2000;1.0737;0.1753;
544.5000;1.0777;0.1895;
544.8000;1.0794;0.2014;
545.1000;1.0802;0.2014;
545.4000;1.0769;0.1919;
545.7000;1.0769;0.1990;
546.0000;1.0769;0.1943;
546.3000;1.0761;0.1943;
546.6000;1.0753;0.1895;
546.9000;1.0761;0.1824;
547.2000;1.0786;0.1895;
547.5000;1.0777;0.1801;
547.8000;1.0761;0.1730;
548.1000;1.0761;0.1730;
548.4000;1.0794;0.1801;
548.7000;1.0761;0.1753;
549.0000;1.0777;0.1824;
549.3000;1.0729;0.1801;
549.6000;1.0761;0.1895;
549.9000;1.0794;0.1990;
550.2000;1.0777;0.1967;
550.5000;1.0851;0.2038;
550.8000;1.0761;0.1848;
551.1000;1.0769;0.1824;
551.4000;1.0761;0.1824;
551.7000;1.0769;0.1824;
552.0000;1.0761;0.1801;
552.3000;1.0745;0.1753;
552.6000;1.0761;0.1801;
552.9000;1.0761;0.1848;
553.2000;1.0753;0.1919;
553.5000;1.0720;0.1895;
553.8000;1.0753;0.2014;
554.1000;1.0737;0.2038;
554.4000;1.0761;0.2085;
554.7000;1.0761;0.2061;
555.0000;1.0777;0.2038;
555.3000;1.0769;0.2014;
555.6000;1.0777;0.2061;
555.9000;1.0761;0.1990;
556.2000;1.0777;0.1967;
556.5000;1.0802;0.2109;
556.8000;1.0769;0.1990;
557.1000;1.0753;0.1967;
557.4000;1.0794;0.1990;
557.7000;1.0761;0.1919;
558.0000;1.0769;0.1919;
558.3000;1.0794;0.2014;
558.6000;1.0777;0.2014;
558.9000;1.0777;0.2014;
559.2000;1.0777;0.1990;
559.5000;1.0777;0.2038;
559.8000;1.0786;0.2014;
560.1000;1.0777;0.2014;
560.4000;1.0826;0.2132;
560.7000;1.0769;0.2014;
561.0000;1.0753;0.1967;
561.3000;1.0712;0.1967;
561.6000;1.0745;0.2156;
561.9000;1.0712;0.2061;
562.2000;1.0745;0.2085;
562.5000;1.0737;0.2109;
562.8000;1.0794;0.2251;
563.1000;1.0769;0.2203;
563.4000;1.0810;0.2227;
563.7000;1.0769;0.2132;
564.0000;1.0777;0.2085;
564.3000;1.0761;0.2085;
564.6000;1.0786;0.2061;
564.9000;1.0745;0.2014;
565.2000;1.0745;0.2014;
565.5000;1.0753;0.2014;
565.8000;1.0818;0.2132;
566.1000;1.0753;0.2014;
566.4000;1.0745;0.2038;
566.7000;1.0761;0.2132;
567.0000;1.0761;0.2180;
567.3000;1.0745;0.2203;
567.6000;1.0761;0.2298;
567.9000;1.0753;0.2275;
568.2000;1.0761;0.2227;
568.5000;1.0761;0.2227;
568.8000;1.0753;0.2180;
569.1000;1.0720;0.2061;
569.4000;1.0761;0.2109;
569.7000;1.0769;0.2038;
570.0000;1.0761;0.2085;
570.3000;1.0761;0.2156;
570.6000;1.0761;0.2180;
570.9000;1.0761;0.2085;
571.2000;1.0745;0.2085;
571.5000;1.0761;0.2109;
571.8000;1.0761;0.2109;
572.1000;1.0704;0.2038;
572.4000;1.0777;0.2132;
572.7000;1.0696;0.1919;
573.0000;1.0704;0.1943;
573.3000;1.0786;0.2156;
573.6000;1.0761;0.2085;
573.9000;1.0737;0.2038;
574.2000;1.0761;0.2038;
574.5000;1.0769;0.2038;
574.8000;1.0769;0.1990;
575.1000;1.0769;0.2014;
575.4000;1.0745;0.1967;
575.7000;1.0761;0.2038;
576.0000;1.0769;0.1943;
576.3000;1.0761;0.1872;
576.6000;1.0745;0.1801;
576.9000;1.0769;0.1872;
577.2000;1.0753;0.1848;
577.5000;1.0761;0.1872;
577.8000;1.0745;0.1919;
578.1000;1.0753;0.1967;
578.4000;1.0729;0.1943;
578.7000;1.0729;0.2038;
579.0000;1.0769;0.2132;
579.3000;1.0729;0.2038;
579.6000;1.0745;0.1990;
579.9000;1.0745;0.1895;
580.2000;1.0753;0.1753;
580.5000;1.0737;0.1730;
580.8000;1.0786;0.1872;
581.1000;1.0769;0.1919;
581.4000;1.0753;0.1848;
581.7000;1.0745;0.1801;
582.0000;1.0769;0.1919;
582.3000;1.0777;0.2014;
582.6000;1.0745;0.1943;
582.9000;1.0761;0.1872;
583.2000;1.0753;0.1990;
583.5000;1.0753;0.2014;
583.8000;1.0745;0.2038;
584.1000;1.0745;0.2109;
584.4000;1.0769;0.2156;
584.7000;1.0745;0.2156;
585.0000;1.0753;0.2203;
585.3000;1.0737;0.2109;
585.6000;1.0753;0.2203;
585.9000;1.0761;0.2203;
586.2000;1.0786;0.2275;
586.5000;1.0745;0.2203;
586.8000;1.0761;0.2203;
587.1000;1.0777;0.2227;
587.4000;1.0753;0.2203;
587.7000;1.0777;0.2251;
588.0000;1.0696;0.2109;
588.3000;1.0737;0.2203;
588.6000;1.0737;0.2251;
588.9000;1.0737;0.2132;
589.2000;1.0753;0.2132;
589.5000;1.0753;0.2203;
589.8000;1.0761;0.2156;
590.1000;1.0704;0.2038;
590.4000;1.0761;0.2251;
590.7000;1.0769;0.2275;
591.0000;1.0769;0.2203;
591.3000;1.0761;0.2203;
591.6000;1.0729;0.2132;
591.9000;1.0769;0.2156;
592.2000;1.0777;0.2203;
592.5000;1.0753;0.2156;
592.8000;1.0769;0.2156;
593.1000;1.0753;0.2156;
593.4000;1.0753;0.2180;
593.7000;1.0794;0.2275;
594.0000;1.0794;0.2298;
594.3000;1.0761;0.2227;
594.6000;1.0786;0.2251;
594.9000;1.0769;0.2156;
595.2000;1.0696;0.2085;
595.5000;1.0794;0.2203;
595.8000;1.0737;0.2061;
596.1000;1.0753;0.2156;
596.4000;1.0745;0.2156;
596.7000;1.0761;0.2203;
597.0000;1.0745;0.2251;
597.3000;1.0810;0.2369;
597.6000;1.0761;0.2203;
597.9000;1.0777;0.2298;
598.2000;1.0753;0.2227;
598.5000;1.0769;0.2298;
598.8000;1.0769;0.2440;
599.1000;1.0761;0.2369;
599.4000;1.0794;0.2346;
599.7000;1.0777;0.2227;
600.0000;1.0769;0.2180;
600.3000;1.0777;0.1990;
600.6000;1.0745;0.1753;
600.9000;1.0672;0.1516;
601.2000;1.0606;0.1327;
601.5000;1.0533;0.1042;
601.8000;1.0411;0.0734;
602.1000;1.0338;0.0592;
602.4000;1.0265;0.0403;
602.7000;1.0159;0.0142;
603.0000;1.0077;-0.0095;
603.3000;0.9996;-0.0261;
603.6000;0.9915;-0.0498;
603.9000;0.9866;-0.0616;
604.2000;0.9792;-0.0853;
604.5000;0.9703;-0.0971;
604.8000;0.9662;-0.1090;
605.1000;0.9687;-0.0971;
605.4000;0.9573;-0.1185;
605.7000;0.9499;-0.1303;
606.0000;0.9410;-0.1516;
606.3000;0.9328;-0.1587;
606.6000;0.9361;-0.1516;
606.9000;0.9304;-0.1587;
607.2000;0.9263;-0.1706;
607.5000;0.9214;-0.1753;
607.8000;0.9117;-0.1872;
608.1000;0.9125;-0.1777;
608.4000;0.9076;-0.1848;
608.7000;0.9044;-0.1777;
609.0000;0.9019;-0.1824;
609.3000;0.8970;-0.1872;
609.6000;0.8938;-0.1872;
609.9000;0.8905;-0.1895;
610.2000;0.8873;-0.1919;
610.5000;0.8832;-0.1967;
610.8000;0.8816;-0.1919;
611.1000;0.8775;-0.1943;
611.4000;0.8726;-0.1990;
611.7000;0.8734;-0.1943;
612.0000;0.8710;-0.2038;
612.3000;0.8661;-0.2203;
612.6000;0.8637;-0.2203;
612.9000;0.8620;-0.2227;
613.2000;0.8588;-0.2227;
613.5000;0.8563;-0.2346;
613.8000;0.8547;-0.2275;
614.1000;0.8523;-0.2346;
614.4000;0.8514;-0.2322;
614.7000;0.8474;-0.2417;
615.0000;0.8457;-0.2417;
615.3000;0.8441;-0.2440;
615.6000;0.8425;-0.2464;
615.9000;0.8400;-0.2488;
616.2000;0.8303;-0.2701;
616.5000;0.8417;-0.2393;
616.8000;0.8327;-0.2535;
617.1000;0.8311;-0.2559;
617.4000;0.8270;-0.2535;
617.7000;0.8262;-0.2511;
618.0000;0.8156;-0.2654;
618.3000;0.8205;-0.2583;
618.6000;0.8254;-0.2488;
618.9000;0.8164;-0.2701;
619.2000;0.8173;-0.2511;
619.5000;0.8156;-0.2559;
619.8000;0.8124;-0.2559;
620.1000;0.8124;-0.2535;
620.4000;0.8091;-0.2583;
620.7000;0.8067;-0.2677;
621.0000;0.8042;-0.2748;
621.3000;0.8042;-0.2701;
621.6000;0.8010;-0.2796;
621.9000;0.7985;-0.2819;
622.2000;0.7985;-0.2819;
622.5000;0.7969;-0.2772;
622.8000;0.7969;-0.2677;
623.1000;0.7961;-0.2677;
623.4000;0.7928;-0.2725;
623.7000;0.7928;-0.2677;
624.0000;0.7920;-0.2725;
624.3000;0.7904;-0.2654;
624.6000;0.7888;-0.2630;
624.9000;0.7863;-0.2748;
625.2000;0.7855;-0.2748;
625.5000;0.7855;-0.2701;
625.8000;0.7823;-0.2772;
626.1000;0.7855;-0.2535;
626.4000;0.7806;-0.2748;
626.7000;0.7749;-0.2891;
627.0000;0.7790;-0.2843;
627.3000;0.7774;-0.2772;
627.6000;0.7757;-0.2772;
627.9000;0.7749;-0.2748;
628.2000;0.7749;-0.2701;
628.5000;0.7692;-0.2748;
628.8000;0.7733;-0.2725;
629.1000;0.7725;-0.2677;
629.4000;0.7725;-0.2748;
629.7000;0.7766;-0.2725;
630.0000;0.7709;-0.2843;
630.3000;0.7676;-0.2985;
630.6000;0.7668;-0.3080;
630.9000;0.7652;-0.2985;
631.2000;0.7692;-0.2843;
631.5000;0.7643;-0.2962;
631.8000;0.7635;-0.2891;
632.1000;0.7627;-0.2772;
632.4000;0.7627;-0.2677;
632.7000;0.7586;-0.2725;
633.0000;0.7586;-0.2559;
633.3000;0.7546;-0.2654;
633.6000;0.7578;-0.2583;
633.9000;0.7538;-0.2654;
634.2000;0.7546;-0.2654;
634.5000;0.7570;-0.2559;
634.8000;0.7562;-0.2511;
635.1000;0.7530;-0.2559;
635.4000;0.7521;-0.2630;
635.7000;0.7513;-0.2606;
636.0000;0.7473;-0.2772;
636.3000;0.7481;-0.2725;
636.6000;0.7464;-0.2748;
636.9000;0.7473;-0.2748;
637.2000;0.7464;-0.2701;
637.5000;0.7464;-0.2701;
637.8000;0.7464;-0.2725;
638.1000;0.7464;-0.2772;
638.4000;0.7464;-0.2772;
638.7000;0.7456;-0.2843;
639.0000;0.7448;-0.2819;
639.3000;0.7432;-0.2891;
639.6000;0.7432;-0.2796;
639.9000;0.7432;-0.2772;
640.2000;0.7440;-0.2701;
640.5000;0.7350;-0.2796;
640.8000;0.7407;-0.2654;
641.1000;0.7464;-0.2535;
641.4000;0.7399;-0.2796;
641.7000;0.7383;-0.2843;
642.0000;0.7350;-0.2891;
642.3000;0.7367;-0.2891;
642.6000;0.7350;-0.2962;
642.9000;0.7383;-0.2843;
643.2000;0.7342;-0.2938;
643.5000;0.7334;-0.2914;
643.8000;0.7326;-0.3009;
644.1000;0.7318;-0.2867;
644.4000;0.7326;-0.2843;
644.7000;0.7318;-0.2891;
645.0000;0.7310;-0.2914;
645.3000;0.7293;-0.2867;
645.6000;0.7277;-0.2891;
645.9000;0.7269;-0.2867;
646.2000;0.7285;-0.2819;
646.5000;0.7285;-0.2843;
646.8000;0.7261;-0.2867;
647.1000;0.7245;-0.2843;
647.4000;0.7253;-0.2819;
647.7000;0.7245;-0.2843;
648.0000;0.7236;-0.2891;
648.3000;0.7196;-0.2938;
648.6000;0.7245;-0.2891;
648.9000;0.7228;-0.2891;
649.2000;0.7220;-0.2938;
649.5000;0.7204;-0.2867;
649.8000;0.7236;-0.2867;
650.1000;0.7204;-0.2938;
650.4000;0.7188;-0.2962;
650.7000;0.7188;-0.2914;
651.0000;0.7196;-0.2819;
651.3000;0.7228;-0.2796;
651.6000;0.7179;-0.2938;
651.9000;0.7179;-0.2914;
652.2000;0.7139;-0.2985;
652.5000;0.7147;-0.2938;
652.8000;0.7139;-0.2938;
653.1000;0.7163;-0.2891;
653.4000;0.7123;-0.2891;
653.7000;0.7090;-0.2962;
654.0000;0.7171;-0.2748;
654.3000;0.7147;-0.2843;
654.6000;0.7131;-0.2867;
654.9000;0.7131;-0.2891;
655.2000;0.7123;-0.2772;
655.5000;0.7114;-0.2677;
655.8000;0.7066;-0.2701;
656.1000;0.7106;-0.2630;
656.4000;0.7106;-0.2677;
656.7000;0.7114;-0.2725;
657.0000;0.7106;-0.2701;
657.3000;0.7090;-0.2796;
657.6000;0.7082;-0.2796;
657.9000;0.7082;-0.2772;
658.2000;0.7074;-0.2772;
658.5000;0.7057;-0.2867;
658.8000;0.7057;-0.2867;
659.1000;0.7082;-0.2772;
659.4000;0.7066;-0.2867;
659.7000;0.7049;-0.2843;
660.0000;0.7066;-0.2843;
660.3000;0.7074;-0.2796;
660.6000;0.7057;-0.2819;
660.9000;0.7041;-0.2891;
661.2000;0.7033;-0.2891;
661.5000;0.7041;-0.2819;
661.8000;0.7041;-0.2796;
662.1000;0.7025;-0.2891;
662.4000;0.7017;-0.2891;
662.7000;0.7000;-0.2938;
663.0000;0.6992;-0.2962;
663.3000;0.7009;-0.2962;
663.6000;0.6992;-0.3056;
663.9000;0.7009;-0.3009;
664.2000;0.6992;-0.2962;
664.5000;0.7000;-0.2914;
664.8000;0.7009;-0.2962;
665.1000;0.7000;-0.2985;
665.4000;0.6984;-0.3033;
665.7000;0.6960;-0.2985;
666.0000;0.6984;-0.2985;
666.3000;0.6976;-0.3033;
666.6000;0.6984;-0.3033;
666.9000;0.6960;-0.3080;
667.2000;0.6952;-0.2962;
667.5000;0.6960;-0.2962;
667.8000;0.6943;-0.3033;
668.1000;0.6927;-0.3080;
668.4000;0.6976;-0.2914;
668.7000;0.6952;-0.2867;
669.0000;0.6919;-0.2891;
669.3000;0.6927;-0.2748;
669.6000;0.6952;-0.2748;
669.9000;0.6919;-0.2725;
670.2000;0.6927;-0.2819;
670.5000;0.6919;-0.2914;
670.8000;0.6895;-0.3056;
671.1000;0.6911;-0.3104;
671.4000;0.6846;-0.3388;
671.7000;0.6911;-0.3270;
672.0000;0.6903;-0.3317;
672.3000;0.6895;-0.3341;
672.6000;0.6886;-0.3317;
672.9000;0.6870;-0.3175;
673.2000;0.6895;-0.3175;
673.5000;0.6919;-0.3104;
673.8000;0.6886;-0.3151;
674.1000;0.6870;-0.3175;
674.4000;0.6886;-0.3104;
674.7000;0.6838;-0.3127;
675.0000;0.6846;-0.3175;
675.3000;0.6781;-0.3317;
675.6000;0.6911;-0.2938;
675.9000;0.6838;-0.3127;
676.2000;0.6838;-0.3127;
676.5000;0.6821;-0.3104;
676.8000;0.6829;-0.2962;
677.1000;0.6846;-0.2891;
677.4000;0.6838;-0.2891;
677.7000;0.6821;-0.2891;
678.0000;0.6829;-0.2962;
678.3000;0.6829;-0.3056;
678.6000;0.6805;-0.3104;
678.9000;0.6846;-0.3033;
679.2000;0.6797;-0.3127;
679.5000;0.6797;-0.3151;
679.8000;0.6813;-0.3080;
680.1000;0.6789;-0.3033;
680.4000;0.6805;-0.3033;
680.7000;0.6764;-0.3151;
681.0000;0.6797;-0.2985;
681.3000;0.6805;-0.2938;
681.6000;0.6781;-0.3009;
681.9000;0.6781;-0.3009;
682.2000;0.6813;-0.2938;
682.5000;0.6764;-0.3080;
682.8000;0.6772;-0.3127;
683.1000;0.6772;-0.3056;
683.4000;0.6781;-0.3056;
683.7000;0.6764;-0.3080;
684.0000;0.6740;-0.3127;
684.3000;0.6764;-0.3127;
684.6000;0.6772;-0.3080;
684.9000;0.6781;-0.3033;
685.2000;0.6772;-0.3056;
685.5000;0.6797;-0.2819;
685.8000;0.6748;-0.2962;
686.1000;0.6748;-0.3080;
686.4000;0.6748;-0.3056;
686.7000;0.6772;-0.3080;
687.0000;0.6740;-0.3104;
687.3000;0.6748;-0.2962;
687.6000;0.6724;-0.3080;
687.9000;0.6724;-0.3033;
688.2000;0.6740;-0.3009;
688.5000;0.6675;-0.3127;
688.8000;0.6707;-0.3033;
689.1000;0.6805;-0.2819;
689.4000;0.6699;-0.3009;
689.7000;0.6724;-0.3009;
690.0000;0.6716;-0.3080;
690.3000;0.6716;-0.3009;
690.6000;0.6724;-0.2891;
690.9000;0.6691;-0.2962;
691.2000;0.6699;-0.2962;
691.5000;0.6716;-0.2985;
691.8000;0.6683;-0.3033;
692.1000;0.6699;-0.2962;
692.4000;0.6691;-0.2938;
692.7000;0.6691;-0.2914;
693.0000;0.6683;-0.2867;
693.3000;0.6642;-0.2891;
693.6000;0.6699;-0.2843;
693.9000;0.6667;-0.2914;
694.2000;0.6699;-0.2843;
694.5000;0.6659;-0.2938;
694.8000;0.6667;-0.2891;
695.1000;0.6642;-0.2938;
695.4000;0.6618;-0.3009;
695.7000;0.6683;-0.2891;
696.0000;0.6659;-0.2843;
696.3000;0.6667;-0.2796;
696.6000;0.6659;-0.2819;
696.9000;0.6667;-0.2796;
697.2000;0.6675;-0.2819;
697.5000;0.6642;-0.2867;
697.8000;0.6618;-0.2985;
698.1000;0.6650;-0.2962;
698.4000;0.6675;-0.2867;
698.7000;0.6634;-0.2938;
699.0000;0.6642;-0.2891;
699.3000;0.6626;-0.2819;
699.6000;0.6642;-0.2796;
699.9000;0.6634;-0.2867;
700.2000;0.6626;-0.2914;
700.5000;0.6650;-0.2843;
700.8000;0.6610;-0.2867;
701.1000;0.6618;-0.2843;
701.4000;0.6634;-0.2796;
701.7000;0.6659;-0.2677;
702.0000;0.6618;-0.2819;
702.3000;0.6553;-0.2985;
702.6000;0.6610;-0.2891;
702.9000;0.6610;-0.2985;
703.2000;0.6610;-0.3009;
703.5000;0.6593;-0.2962;
703.8000;0.6585;-0.3009;
704.1000;0.6610;-0.2891;
704.4000;0.6602;-0.2891;
704.7000;0.6577;-0.2867;
705.0000;0.6585;-0.2843;
705.3000;0.6602;-0.2796;
705.6000;0.6593;-0.2843;
705.9000;0.6569;-0.2843;
706.2000;0.6585;-0.2867;
706.5000;0.6602;-0.2914;
706.8000;0.6577;-0.2985;
707.1000;0.6528;-0.3033;
707.4000;0.6577;-0.2867;
707.7000;0.6577;-0.2843;
708.0000;0.6577;-0.2914;
708.3000;0.6577;-0.2962;
708.6000;0.6561;-0.2962;
708.9000;0.6561;-0.2962;
709.2000;0.6545;-0.2938;
709.5000;0.6545;-0.2914;
709.8000;0.6561;-0.2796;
710.1000;0.6561;-0.2725;
710.4000;0.6561;-0.2701;
710.7000;0.6545;-0.2748;
711.0000;0.6561;-0.2796;
711.3000;0.6561;-0.2843;
711.6000;0.6545;-0.2914;
711.9000;0.6553;-0.2867;
712.2000;0.6561;-0.2938;
712.5000;0.6536;-0.3056;
712.8000;0.6545;-0.2985;
713.1000;0.6536;-0.2914;
713.4000;0.6528;-0.3009;
713.7000;0.6553;-0.2867;
714.0000;0.6520;-0.2985;
714.3000;0.6528;-0.2914;
714.6000;0.6528;-0.2985;
714.9000;0.6520;-0.2985;
715.2000;0.6528;-0.3009;
715.5000;0.6536;-0.2914;
715.8000;0.6512;-0.2914;
716.1000;0.6496;-0.2772;
716.4000;0.6512;-0.2772;
716.7000;0.6520;-0.2772;
717.0000;0.6496;-0.2819;
717.3000;0.6504;-0.2748;
717.6000;0.6496;-0.2748;
717.9000;0.6512;-0.2748;
718.2000;0.6520;-0.2748;
718.5000;0.6512;-0.2772;
718.8000;0.6447;-0.2891;
719.1000;0.6512;-0.2867;
719.4000;0.6512;-0.2819;
719.7000;0.6504;-0.2843;
720.0000;0.6488;-0.2914;
720.3000;0.6488;-0.2914;
720.6000;0.6488;-0.2914;
720.9000;0.6520;-0.2891;
721.2000;0.6520;-0.2819;
721.5000;0.6479;-0.2891;
721.8000;0.6439;-0.2985;
722.1000;0.6504;-0.2985;
722.4000;0.6479;-0.3175;
722.7000;0.6479;-0.3270;
723.0000;0.6471;-0.3175;
723.3000;0.6431;-0.3317;
723.6000;0.6553;-0.2843;
723.9000;0.6471;-0.2891;
724.2000;0.6471;-0.2819;
724.5000;0.6479;-0.2796;
724.8000;0.6479;-0.2772;
725.1000;0.6455;-0.2843;
725.4000;0.6463;-0.2748;
725.7000;0.6455;-0.2748;
726.0000;0.6447;-0.2772;
726.3000;0.6439;-0.2867;
726.6000;0.6447;-0.2819;
726.9000;0.6390;-0.3033;
727.2000;0.6406;-0.3009;
727.5000;0.6447;-0.2843;
727.8000;0.6431;-0.2867;
728.1000;0.6455;-0.2914;
728.4000;0.6439;-0.2938;
728.7000;0.6422;-0.3009;
729.0000;0.6390;-0.3033;
729.3000;0.6431;-0.2891;
729.6000;0.6455;-0.2843;
729.9000;0.6431;-0.2867;
730.2000;0.6439;-0.2843;
730.5000;0.6431;-0.2843;
730.8000;0.6439;-0.2867;
731.1000;0.6439;-0.2985;
731.4000;0.6439;-0.2914;
731.7000;0.6439;-0.2914;
732.0000;0.6374;-0.3033;
732.3000;0.6431;-0.2819;
732.6000;0.6463;-0.2748;
732.9000;0.6422;-0.2891;
733.2000;0.6439;-0.2819;
733.5000;0.6455;-0.2701;
733.8000;0.6439;-0.2748;
734.1000;0.6398;-0.2748;
734.4000;0.6406;-0.2772;
734.7000;0.6406;-0.2725;
735.0000;0.6422;-0.2748;
735.3000;0.6398;-0.2772;
735.6000;0.6390;-0.2796;
735.9000;0.6390;-0.2867;
736.2000;0.6431;-0.2796;
736.5000;0.6406;-0.2748;
736.8000;0.6382;-0.2819;
737.1000;0.6406;-0.2819;
737.4000;0.6390;-0.2796;
737.7000;0.6382;-0.2819;
738.0000;0.6374;-0.2796;
738.3000;0.6439;-0.2725;
738.6000;0.6398;-0.2819;
738.9000;0.6398;-0.2796;
739.2000;0.6382;-0.2891;
739.5000;0.6390;-0.2819;
739.8000;0.6406;-0.2772;
740.1000;0.6406;-0.2725;
740.4000;0.6390;-0.2843;
740.7000;0.6398;-0.2843;
741.0000;0.6382;-0.2914;
741.3000;0.6390;-0.2962;
741.6000;0.6390;-0.2962;
741.9000;0.6382;-0.2891;
742.2000;0.6382;-0.2819;
742.5000;0.6349;-0.2891;
742.8000;0.6382;-0.2772;
743.1000;0.6439;-0.2630;
743.4000;0.6325;-0.2962;
743.7000;0.6349;-0.2843;
744.0000;0.6382;-0.2748;
744.3000;0.6374;-0.2701;
744.6000;0.6357;-0.2677;
744.9000;0.6390;-0.2654;
745.2000;0.6398;-0.2559;
745.5000;0.6317;-0.2819;
745.8000;0.6382;-0.2630;
746.1000;0.6365;-0.2630;
746.4000;0.6406;-0.2488;
746.7000;0.6374;-0.2583;
747.0000;0.6349;-0.2772;
747.3000;0.6357;-0.2725;
747.6000;0.6349;-0.2772;
747.9000;0.6268;-0.2962;
748.2000;0.6382;-0.2701;
748.5000;0.6341;-0.2819;
748.8000;0.6317;-0.2891;
749.1000;0.6349;-0.2796;
749.4000;0.6341;-0.2748;
749.7000;0.6333;-0.2725;
750.0000;0.6357;-0.2583;
750.3000;0.6365;-0.2535;
750.6000;0.6341;-0.2583;
750.9000;0.6309;-0.2677;
751.2000;0.6357;-0.2630;
751.5000;0.6341;-0.2630;
751.8000;0.6317;-0.2725;
752.1000;0.6325;-0.2677;
752.4000;0.6341;-0.2677;
752.7000;0.6357;-0.2654;
753.0000;0.6341;-0.2748;
753.3000;0.6317;-0.2654;
753.6000;0.6341;-0.2630;
753.9000;0.6309;-0.2677;
754.2000;0.6341;-0.2559;
754.5000;0.6325;-0.2606;
754.8000;0.6333;-0.2535;
755.1000;0.6349;-0.2488;
755.4000;0.6341;-0.2606;
755.7000;0.6341;-0.2654;
756.0000;0.6309;-0.2796;
756.3000;0.6325;-0.2725;
756.6000;0.6341;-0.2677;
756.9000;0.6349;-0.2606;
757.2000;0.6333;-0.2701;
757.5000;0.6284;-0.2701;
757.8000;0.6309;-0.2701;
758.1000;0.6382;-0.2535;
758.4000;0.6317;-0.2725;
758.7000;0.6284;-0.2748;
759.0000;0.6317;-0.2819;
759.3000;0.6317;-0.2796;
759.6000;0.6309;-0.2796;
759.9000;0.6243;-0.2938;
760.2000;0.6317;-0.2796;
760.5000;0.6309;-0.2772;
760.8000;0.6317;-0.2701;
761.1000;0.6382;-0.2535;
761.4000;0.6325;-0.2677;
761.7000;0.6300;-0.2654;
762.0000;0.6292;-0.2701;
762.3000;0.6300;-0.2701;
762.6000;0.6284;-0.2725;
762.9000;0.6300;-0.2630;
763.2000;0.6276;-0.2677;
763.5000;0.6276;-0.2677;
763.8000;0.6292;-0.2725;
764.1000;0.6341;-0.2583;
764.4000;0.6268;-0.2725;
764.7000;0.6276;-0.2583;
765.0000;0.6284;-0.2630;
765.3000;0.6260;-0.2677;
765.6000;0.6284;-0.2677;
765.9000;0.6284;-0.2630;
766.2000;0.6276;-0.2748;
766.5000;0.6268;-0.2819;
766.8000;0.6252;-0.3009;
767.1000;0.6284;-0.2962;
767.4000;0.6235;-0.3033;
767.7000;0.6260;-0.2985;
768.0000;0.6292;-0.2748;
768.3000;0.6276;-0.2796;
768.6000;0.6292;-0.2748;
768.9000;0.6284;-0.2701;
769.2000;0.6260;-0.2701;
769.5000;0.6292;-0.2725;
769.8000;0.6243;-0.2843;
770.1000;0.6260;-0.2819;
770.4000;0.6252;-0.2843;
770.7000;0.6243;-0.2819;
771.0000;0.6260;-0.2819;
771.3000;0.6235;-0.3033;
771.6000;0.6252;-0.2914;
771.9000;0.6260;-0.2843;
772.2000;0.6268;-0.2843;
772.5000;0.6252;-0.2891;
772.8000;0.6243;-0.2938;
773.1000;0.6268;-0.2819;
773.4000;0.6252;-0.2772;
773.7000;0.6243;-0.2796;
774.0000;0.6252;-0.2819;
774.3000;0.6235;-0.2891;
774.6000;0.6260;-0.2843;
774.9000;0.6252;-0.2843;
775.2000;0.6243;-0.2891;
775.5000;0.6268;-0.2962;
775.8000;0.6219;-0.2962;
776.1000;0.6260;-0.2796;
776.4000;0.6235;-0.2819;
776.7000;0.6235;-0.2843;
777.0000;0.6243;-0.2819;
777.3000;0.6235;-0.2843;
777.6000;0.6219;-0.2819;
777.9000;0.6235;-0.2748;
778.2000;0.6235;-0.2654;
778.5000;0.6252;-0.2535;
778.8000;0.6227;-0.2606;
779.1000;0.6260;-0.2535;
779.4000;0.6235;-0.2606;
779.7000;0.6227;-0.2725;
780.0000;0.6243;-0.2701;
780.3000;0.6219;-0.2725;
780.6000;0.6211;-0.2677;
780.9000;0.6235;-0.2677;
781.2000;0.6227;-0.2677;
781.5000;0.6203;-0.2796;
781.8000;0.6219;-0.2796;
782.1000;0.6227;-0.2677;
782.4000;0.6227;-0.2701;
782.7000;0.6219;-0.2748;
783.0000;0.6203;-0.2772;
783.3000;0.6211;-0.2772;
783.6000;0.6235;-0.2606;
783.9000;0.6211;-0.2725;
784.2000;0.6219;-0.2701;
784.5000;0.6211;-0.2677;
784.8000;0.6227;-0.2630;
785.1000;0.6211;-0.2630;
785.4000;0.6211;-0.2677;
785.7000;0.6195;-0.2583;
786.0000;0.6195;-0.2559;
786.3000;0.6203;-0.2559;
786.6000;0.6178;-0.2606;
786.9000;0.6195;-0.2654;
787.2000;0.6219;-0.2654;
787.5000;0.6211;-0.2677;
787.8000;0.6195;-0.2654;
788.1000;0.6195;-0.2630;
788.4000;0.6227;-0.2606;
788.7000;0.6211;-0.2630;
789.0000;0.6195;-0.2677;
789.3000;0.6252;-0.2511;
789.6000;0.6195;-0.2630;
789.9000;0.6203;-0.2606;
790.2000;0.6203;-0.2606;
790.5000;0.6195;-0.2677;
790.8000;0.6195;-0.2677;
791.1000;0.6186;-0.2772;
791.4000;0.6227;-0.2677;
791.7000;0.6211;-0.2701;
792.0000;0.6203;-0.2772;
792.3000;0.6162;-0.2938;
792.6000;0.6211;-0.2938;
792.9000;0.6203;-0.2796;
793.2000;0.6186;-0.2819;
793.5000;0.6252;-0.2677;
793.8000;0.6178;-0.2819;
794.1000;0.6219;-0.2677;
794.4000;0.6186;-0.2701;
794.7000;0.6178;-0.2701;
795.0000;0.6162;-0.2701;
795.3000;0.6170;-0.2725;
795.6000;0.6186;-0.2748;
795.9000;0.6162;-0.2796;
796.2000;0.6186;-0.2701;
796.5000;0.6178;-0.2677;
796.8000;0.6186;-0.2701;
797.1000;0.6178;-0.2654;
797.4000;0.6105;-0.2843;
797.7000;0.6195;-0.2606;
798.0000;0.6195;-0.2654;
798.3000;0.6219;-0.2583;
798.6000;0.6186;-0.2583;
798.9000;0.6154;-0.2606;
799.2000;0.6195;-0.2440;
799.5000;0.6162;-0.2654;
799.8000;0.6186;-0.2630;
800.1000;0.6178;-0.2559;
800.4000;0.6195;-0.2654;
800.7000;0.6170;-0.2796;
801.0000;0.6162;-0.2748;
801.3000;0.6162;-0.2701;
801.6000;0.6170;-0.2867;
801.9000;0.6178;-0.2748;
802.2000;0.6195;-0.2677;
802.5000;0.6186;-0.2654;
802.8000;0.6162;-0.2725;
803.1000;0.6178;-0.2701;
803.4000;0.6186;-0.2701;
803.7000;0.6203;-0.2654;
804.0000;0.6178;-0.2630;
804.3000;0.6178;-0.2583;
804.6000;0.6162;-0.2511;
804.9000;0.6154;-0.2488;
805.2000;0.6121;-0.2630;
805.5000;0.6186;-0.2511;
805.8000;0.6154;-0.2583;
806.1000;0.6162;-0.2630;
806.4000;0.6170;-0.2583;
806.7000;0.6162;-0.2583;
807.0000;0.6154;-0.2606;
807.3000;0.6154;-0.2630;
807.6000;0.6146;-0.2677;
807.9000;0.6162;-0.2772;
808.2000;0.6162;-0.2796;
808.5000;0.6154;-0.2701;
808.8000;0.6154;-0.2630;
809.1000;0.6186;-0.2559;
809.4000;0.6146;-0.2559;
809.7000;0.6146;-0.2488;
810.0000;0.6129;-0.2535;
810.3000;0.6146;-0.2583;
810.6000;0.6146;-0.2606;
810.9000;0.6129;-0.2654;
811.2000;0.6154;-0.2559;
811.5000;0.6121;-0.2606;
811.8000;0.6138;-0.2559;
812.1000;0.6154;-0.2488;
812.4000;0.6154;-0.2535;
812.7000;0.6138;-0.2464;
813.0000;0.6162;-0.2440;
813.3000;0.6154;-0.2464;
813.6000;0.6138;-0.2630;
813.9000;0.6138;-0.2630;
814.2000;0.6146;-0.2559;
814.5000;0.6162;-0.2488;
814.8000;0.6154;-0.2511;
815.1000;0.6146;-0.2583;
815.4000;0.6129;-0.2559;
815.7000;0.6113;-0.2630;
816.0000;0.6154;-0.2583;
816.3000;0.6162;-0.2559;
816.6000;0.6138;-0.2630;
816.9000;0.6129;-0.2654;
817.2000;0.6138;-0.2677;
817.5000;0.6146;-0.2677;
817.8000;0.6121;-0.2748;
818.1000;0.6154;-0.2630;
818.4000;0.6138;-0.2606;
818.7000;0.6129;-0.2654;
819.0000;0.6121;-0.2583;
819.3000;0.6129;-0.2511;
819.6000;0.6113;-0.2488;
819.9000;0.6121;-0.2488;
820.2000;0.6113;-0.2630;
820.5000;0.6113;-0.2654;
820.8000;0.6121;-0.2654;
821.1000;0.6129;-0.2748;
821.4000;0.6056;-0.2914;
821.7000;0.6129;-0.2748;
822.0000;0.6105;-0.2772;
822.3000;0.6113;-0.2748;
822.6000;0.6097;-0.2701;
822.9000;0.6113;-0.2701;
823.2000;0.6121;-0.2559;
823.5000;0.6129;-0.2630;
823.8000;0.6129;-0.2630;
824.1000;0.6121;-0.2630;
824.4000;0.6105;-0.2654;
824.7000;0.6113;-0.2488;
825.0000;0.6129;-0.2417;
825.3000;0.6121;-0.2440;
825.6000;0.6146;-0.2369;
825.9000;0.6121;-0.2464;
826.2000;0.6121;-0.2535;
826.5000;0.6138;-0.2559;
826.8000;0.6105;-0.2630;
827.1000;0.6129;-0.2583;
827.4000;0.6129;-0.2511;
827.7000;0.6081;-0.2583;
828.0000;0.6097;-0.2606;
828.3000;0.6121;-0.2511;
828.6000;0.6081;-0.2630;
828.9000;0.6121;-0.2488;
829.2000;0.6089;-0.2583;
829.5000;0.6186;-0.2346;
829.8000;0.6121;-0.2488;
830.1000;0.6105;-0.2440;
830.4000;0.6097;-0.2535;
830.7000;0.6097;-0.2535;
831.0000;0.6138;-0.2535;
831.3000;0.6129;-0.2440;
831.6000;0.6105;-0.2559;
831.9000;0.6105;-0.2488;
832.2000;0.6097;-0.2464;
832.5000;0.6097;-0.2393;
832.8000;0.6081;-0.2464;
833.1000;0.6032;-0.2677;
833.4000;0.6097;-0.2440;
833.7000;0.6121;-0.2417;
834.0000;0.6105;-0.2369;
834.3000;0.6097;-0.2369;
834.6000;0.6097;-0.2417;
834.9000;0.6081;-0.2393;
835.2000;0.6097;-0.2369;
835.5000;0.6105;-0.2464;
835.8000;0.6089;-0.2488;
836.1000;0.6089;-0.2393;
836.4000;0.6097;-0.2369;
836.7000;0.6064;-0.2511;
837.0000;0.6089;-0.2440;
837.3000;0.6081;-0.2417;
837.6000;0.6081;-0.2369;
837.9000;0.6089;-0.2298;
838.2000;0.6081;-0.2322;
838.5000;0.6089;-0.2346;
838.8000;0.6064;-0.2346;
839.1000;0.6081;-0.2322;
839.4000;0.6113;-0.2156;
839.7000;0.6072;-0.2227;
840.0000;0.6081;-0.2275;
840.3000;0.6089;-0.2251;
840.6000;0.6064;-0.2322;
840.9000;0.6081;-0.2203;
841.2000;0.6089;-0.2203;
841.5000;0.6089;-0.2156;
841.8000;0.6072;-0.2180;
842.1000;0.6072;-0.2298;
842.4000;0.6138;-0.2156;
842.7000;0.6081;-0.2180;
843.0000;0.6064;-0.2180;
843.3000;0.6064;-0.2132;
843.6000;0.6064;-0.2227;
843.9000;0.6072;-0.2322;
844.2000;0.6089;-0.2298;
844.5000;0.6089;-0.2298;
844.8000;0.6081;-0.2346;
845.1000;0.6064;-0.2346;
845.4000;0.6064;-0.2346;
845.7000;0.6072;-0.2298;
846.0000;0.6072;-0.2298;
846.3000;0.6105;-0.2275;
846.6000;0.6064;-0.2440;
846.9000;0.6097;-0.2417;
847.2000;0.6064;-0.2511;
847.5000;0.6072;-0.2511;
847.8000;0.6024;-0.2654;
848.1000;0.6072;-0.2488;
848.4000;0.6064;-0.2511;
848.7000;0.6072;-0.2464;
849.0000;0.6081;-0.2535;
849.3000;0.6056;-0.2606;
849.6000;0.6056;-0.2606;
849.9000;0.6064;-0.2511;
850.2000;0.6056;-0.2535;
850.5000;0.6072;-0.2559;
850.8000;0.6056;-0.2606;
851.1000;0.6064;-0.2583;
851.4000;0.6064;-0.2488;
851.7000;0.5991;-0.2677;
852.0000;0.6064;-0.2488;
852.3000;0.6056;-0.2559;
852.6000;0.6064;-0.2535;
852.9000;0.6081;-0.2417;
853.2000;0.6064;-0.2511;
853.5000;0.5999;-0.2748;
853.8000;0.6056;-0.2583;
854.1000;0.6040;-0.2654;
854.4000;0.6072;-0.2630;
854.7000;0.6040;-0.2630;
855.0000;0.6056;-0.2606;
855.3000;0.6056;-0.2511;
855.6000;0.6081;-0.2511;
855.9000;0.6064;-0.2606;
856.2000;0.6048;-0.2583;
856.5000;0.6064;-0.2559;
856.8000;0.6056;-0.2488;
857.1000;0.6064;-0.2511;
857.4000;0.6056;-0.2488;
857.7000;0.6056;-0.2464;
858.0000;0.6064;-0.2440;
858.3000;0.6040;-0.2559;
858.6000;0.6048;-0.2559;
858.9000;0.6048;-0.2583;
859.2000;0.6015;-0.2559;
859.5000;0.6040;-0.2511;
859.8000;0.6024;-0.2583;
860.1000;0.6040;-0.2559;
860.4000;0.6048;-0.2488;
860.7000;0.6032;-0.2464;
861.0000;0.6048;-0.2511;
861.3000;0.6064;-0.2464;
861.6000;0.6032;-0.2535;
861.9000;0.6056;-0.2559;
862.2000;0.6040;-0.2488;
862.5000;0.6040;-0.2440;
862.8000;0.6032;-0.2393;
863.1000;0.6072;-0.2393;
863.4000;0.6056;-0.2393;
863.7000;0.5967;-0.2606;
864.0000;0.6040;-0.2393;
864.3000;0.6040;-0.2417;
864.6000;0.6015;-0.2393;
864.9000;0.6015;-0.2346;
865.2000;0.6015;-0.2369;
865.5000;0.6015;-0.2298;
865.8000;0.6072;-0.2203;
866.1000;0.6064;-0.2227;
866.4000;0.6015;-0.2369;
866.7000;0.6032;-0.2346;
867.0000;0.6032;-0.2369;
867.3000;0.6032;-0.2298;
867.6000;0.6032;-0.2346;
867.9000;0.6040;-0.2346;
868.2000;0.6040;-0.2369;
868.5000;0.6048;-0.2369;
868.8000;0.6024;-0.2369;
869.1000;0.6015;-0.2488;
869.4000;0.6032;-0.2417;
869.7000;0.6040;-0.2393;
870.0000;0.6024;-0.2417;
870.3000;0.6024;-0.2440;
870.6000;0.6032;-0.2488;
870.9000;0.6032;-0.2417;
871.2000;0.6032;-0.2322;
871.5000;0.6024;-0.2393;
871.8000;0.6064;-0.2346;
872.1000;0.6048;-0.2369;
872.4000;0.6040;-0.2346;
872.7000;0.6048;-0.2298;
873.0000;0.6040;-0.2393;
873.3000;0.6007;-0.2464;
873.6000;0.6024;-0.2440;
873.9000;0.6024;-0.2440;
874.2000;0.6032;-0.2440;
874.5000;0.6032;-0.2440;
874.8000;0.6015;-0.2464;
875.1000;0.6032;-0.2393;
875.4000;0.6024;-0.2369;
875.7000;0.6024;-0.2251;
876.0000;0.6024;-0.2227;
876.3000;0.5999;-0.2275;
876.6000;0.6032;-0.2275;
876.9000;0.6015;-0.2203;
877.2000;0.6007;-0.2156;
877.5000;0.6015;-0.2132;
877.8000;0.6015;-0.2180;
878.1000;0.6015;-0.2251;
878.4000;0.6015;-0.2275;
878.7000;0.6024;-0.2417;
879.0000;0.6024;-0.2464;
879.3000;0.6015;-0.2440;
879.6000;0.6007;-0.2440;
879.9000;0.6024;-0.2369;
880.2000;0.6032;-0.2322;
880.5000;0.6024;-0.2393;
880.8000;0.6024;-0.2440;
881.1000;0.6015;-0.2417;
881.4000;0.6015;-0.2393;
881.7000;0.6007;-0.2346;
882.0000;0.6007;-0.2346;
882.3000;0.6015;-0.2440;
882.6000;0.6015;-0.2417;
882.9000;0.5991;-0.2488;
883.2000;0.6024;-0.2346;
883.5000;0.6007;-0.2464;
883.8000;0.6032;-0.2369;
884.1000;0.6015;-0.2417;
884.4000;0.6032;-0.2369;
884.7000;0.6064;-0.2275;
885.0000;0.6007;-0.2369;
885.3000;0.5999;-0.2346;
885.6000;0.6007;-0.2417;
885.9000;0.5999;-0.2488;
886.2000;0.6007;-0.2417;
886.5000;0.6024;-0.2440;
886.8000;0.6024;-0.2417;
887.1000;0.5983;-0.2511;
887.4000;0.6007;-0.2417;
887.7000;0.6024;-0.2275;
888.0000;0.6007;-0.2275;
888.3000;0.6007;-0.2275;
888.6000;0.6089;-0.2085;
888.9000;0.6015;-0.2251;
889.2000;0.6007;-0.2227;
889.5000;0.6007;-0.2227;
889.8000;0.6081;-0.2109;
890.1000;0.6015;-0.2251;
890.4000;0.5999;-0.2298;
890.7000;0.5983;-0.2346;
891.0000;0.6007;-0.2251;
891.3000;0.5991;-0.2203;
891.6000;0.6007;-0.2180;
891.9000;0.5991;-0.2275;
892.2000;0.5983;-0.2227;
892.5000;0.5999;-0.2132;
892.8000;0.6015;-0.2180;
893.1000;0.6007;-0.2203;
893.4000;0.6007;-0.2251;
893.7000;0.6015;-0.2203;
894.0000;0.6040;-0.2227;
894.3000;0.6024;-0.2227;
894.6000;0.6007;-0.2322;
894.9000;0.5999;-0.2369;
895.2000;0.5967;-0.2417;
895.5000;0.5999;-0.2417;
895.8000;0.5999;-0.2511;
896.1000;0.6007;-0.2488;
896.4000;0.6007;-0.2464;
896.7000;0.6007;-0.2369;
897.0000;0.5991;-0.2346;
897.3000;0.5983;-0.2322;
897.6000;0.5991;-0.2251;
897.9000;0.6007;-0.2298;
898.2000;0.5991;-0.2393;
898.5000;0.6007;-0.2298;
898.8000;0.5983;-0.2251;
899.1000;0.6007;-0.2156;
899.4000;0.5991;-0.2180;
899.7000;0.5975;-0.2275;
900.0000;0.5975;-0.2322;
900.3000;0.5975;-0.2275;
900.6000;0.5991;-0.2251;
900.9000;0.5967;-0.2346;
901.2000;0.5967;-0.2298;
901.5000;0.5975;-0.2251;
901.8000;0.5991;-0.2322;
902.1000;0.5975;-0.2346;
902.4000;0.5983;-0.2369;
902.7000;0.6007;-0.2275;
903.0000;0.5999;-0.2227;
903.3000;0.6024;-0.2132;
903.6000;0.5999;-0.2227;
903.9000;0.5975;-0.2298;
904.2000;0.6024;-0.2203;
904.5000;0.5967;-0.2393;
904.8000;0.5999;-0.2369;
905.1000;0.5983;-0.2346;
905.4000;0.5975;-0.2346;
905.7000;0.5983;-0.2298;
906.0000;0.5983;-0.2322;
906.3000;0.6024;-0.2227;
906.6000;0.5975;-0.2369;
906.9000;0.5991;-0.2369;
907.2000;0.5983;-0.2298;
907.5000;0.5918;-0.2393;
907.8000;0.5975;-0.2227;
908.1000;0.5975;-0.2275;
908.4000;0.5983;-0.2203;
908.7000;0.5975;-0.2180;
909.0000;0.5983;-0.2180;
909.3000;0.5975;-0.2203;
909.6000;0.5983;-0.2203;
909.9000;0.5975;-0.2227;
910.2000;0.5975;-0.2180;
910.5000;0.5975;-0.2061;
910.8000;0.5999;-0.2061;
911.1000;0.5991;-0.2085;
911.4000;0.5975;-0.2132;
911.7000;0.5975;-0.2180;
912.0000;0.5991;-0.2227;
912.3000;0.5983;-0.2298;
912.6000;0.5967;-0.2251;
912.9000;0.5975;-0.2322;
913.2000;0.5967;-0.2275;
913.5000;0.5967;-0.2275;
913.8000;0.5967;-0.2156;
914.1000;0.5967;-0.2251;
914.4000;0.5991;-0.2369;
914.7000;0.5983;-0.2251;
915.0000;0.5999;-0.2156;
915.3000;0.5950;-0.2251;
915.6000;0.5975;-0.2109;
915.9000;0.5975;-0.2180;
916.2000;0.5967;-0.2251;
916.5000;0.5967;-0.2251;
916.8000;0.5967;-0.2109;
917.1000;0.5983;-0.2109;
917.4000;0.5958;-0.2109;
917.7000;0.5991;-0.2085;
918.0000;0.5958;-0.2156;
918.3000;0.5975;-0.2156;
918.6000;0.5958;-0.2132;
918.9000;0.6024;-0.2014;
919.2000;0.5975;-0.2109;
919.5000;0.5958;-0.2109;
919.8000;0.5999;-0.2109;
920.1000;0.5975;-0.2227;
920.4000;0.5975;-0.2275;
920.7000;0.5983;-0.2227;
921.0000;0.5983;-0.2180;
921.3000;0.5958;-0.2275;
921.6000;0.5958;-0.2251;
921.9000;0.5983;-0.2156;
922.2000;0.5967;-0.2132;
922.5000;0.5967;-0.2203;
922.8000;0.5958;-0.2322;
923.1000;0.5975;-0.2322;
923.4000;0.5975;-0.2298;
923.7000;0.5958;-0.2369;
924.0000;0.5950;-0.2393;
924.3000;0.5975;-0.2322;
924.6000;0.5975;-0.2275;
924.9000;0.5983;-0.2275;
925.2000;0.5967;-0.2275;
925.5000;0.5950;-0.2251;
925.8000;0.5967;-0.2156;
926.1000;0.5967;-0.2156;
926.4000;0.5934;-0.2298;
926.7000;0.5983;-0.2227;
927.0000;0.5950;-0.2346;
927.3000;0.5975;-0.2275;
927.6000;0.5975;-0.2203;
927.9000;0.5958;-0.2251;
928.2000;0.5958;-0.2275;
928.5000;0.5958;-0.2180;
928.8000;0.6015;-0.1990;
929.1000;0.5958;-0.2038;
929.4000;0.5967;-0.1990;
929.7000;0.5950;-0.2109;
930.0000;0.5950;-0.2180;
930.3000;0.5958;-0.2203;
930.6000;0.5975;-0.2109;
930.9000;0.5983;-0.2203;
931.2000;0.5983;-0.2275;
931.5000;0.5967;-0.2369;
931.8000;0.5950;-0.2322;
932.1000;0.5950;-0.2275;
932.4000;0.5967;-0.2275;
932.7000;0.5958;-0.2298;
933.0000;0.5958;-0.2322;
933.3000;0.5942;-0.2488;
933.6000;0.5910;-0.2725;
933.9000;0.6032;-0.2488;
934.2000;0.5975;-0.2677;
934.5000;0.5967;-0.2654;
934.8000;0.5942;-0.2654;
935.1000;0.6040;-0.2298;
935.4000;0.5967;-0.2417;
935.7000;0.5975;-0.2417;
936.0000;0.5958;-0.2464;
936.3000;0.5934;-0.2464;
936.6000;0.5942;-0.2346;
936.9000;0.5950;-0.2346;
937.2000;0.5910;-0.2393;
937.5000;0.5942;-0.2203;
937.8000;0.5934;-0.2275;
938.1000;0.5934;-0.2275;
938.4000;0.5926;-0.2275;
938.7000;0.5991;-0.2180;
939.0000;0.5942;-0.2275;
939.3000;0.6015;-0.2109;
939.6000;0.5950;-0.2251;
939.9000;0.5950;-0.2251;
940.2000;0.5967;-0.2132;
940.5000;0.5958;-0.2203;
940.8000;0.5950;-0.2203;
941.1000;0.5958;-0.2251;
941.4000;0.5942;-0.2369;
941.7000;0.5942;-0.2346;
942.0000;0.5950;-0.2251;
942.3000;0.5934;-0.2275;
942.6000;0.5942;-0.2322;
942.9000;0.5958;-0.2251;
943.2000;0.5934;-0.2251;
943.5000;0.5950;-0.2203;
943.8000;0.5934;-0.2322;
944.1000;0.5942;-0.2298;
944.4000;0.5950;-0.2180;
944.7000;0.5918;-0.2156;
945.0000;0.5999;-0.1919;
945.3000;0.5942;-0.2132;
945.6000;0.5958;-0.2203;
945.9000;0.5950;-0.2109;
946.2000;0.5950;-0.2061;
946.5000;0.5991;-0.1967;
946.8000;0.5893;-0.2227;
947.1000;0.5950;-0.2085;
947.4000;0.5942;-0.2061;
947.7000;0.5918;-0.2014;
948.0000;0.5934;-0.2156;
948.3000;0.5942;-0.2156;
948.6000;0.5910;-0.2203;
948.9000;0.5934;-0.2109;
949.2000;0.5926;-0.2109;
949.5000;0.5942;-0.2061;
949.8000;0.5934;-0.2085;
950.1000;0.5893;-0.2180;
950.4000;0.5950;-0.2038;
950.7000;0.5975;-0.1990;
951.0000;0.5934;-0.2109;
951.3000;0.5958;-0.1990;
951.6000;0.5958;-0.1990;
951.9000;0.5950;-0.1943;
952.2000;0.5958;-0.1967;
952.5000;0.5942;-0.2038;
952.8000;0.5934;-0.2061;
953.1000;0.5942;-0.2085;
953.4000;0.5942;-0.2085;
953.7000;0.5934;-0.2156;
954.0000;0.5942;-0.2180;
954.3000;0.5934;-0.2227;
954.6000;0.5877;-0.2440;
954.9000;0.5991;-0.2156;
955.2000;0.5926;-0.2227;
955.5000;0.5942;-0.2322;
955.8000;0.5967;-0.2251;
956.1000;0.5942;-0.2251;
956.4000;0.5942;-0.2298;
956.7000;0.5983;-0.2061;
957.0000;0.5926;-0.2156;
957.3000;0.5934;-0.2085;
957.6000;0.5926;-0.2109;
957.9000;0.5918;-0.2132;
958.2000;0.5958;-0.1943;
958.5000;0.5926;-0.1967;
958.8000;0.5926;-0.2014;
959.1000;0.5926;-0.1967;
959.4000;0.5926;-0.1919;
959.7000;0.5934;-0.1872;
960.0000;0.5910;-0.1967;
960.3000;0.5934;-0.1967;
960.6000;0.5926;-0.1919;
960.9000;0.5942;-0.1943;
961.2000;0.5918;-0.2038;
961.5000;0.5926;-0.2085;
961.8000;0.5926;-0.2061;
962.1000;0.5934;-0.2132;
962.4000;0.5950;-0.2038;
962.7000;0.5926;-0.2109;
963.0000;0.5934;-0.2061;
963.3000;0.5942;-0.2061;
963.6000;0.5942;-0.1967;
963.9000;0.5926;-0.1990;
964.2000;0.5910;-0.2061;
964.5000;0.5926;-0.1990;
964.8000;0.5958;-0.1895;
965.1000;0.5910;-0.2061;
965.4000;0.5926;-0.2061;
965.7000;0.5934;-0.2038;
966.0000;0.5934;-0.1990;
966.3000;0.5926;-0.2061;
966.6000;0.5926;-0.2061;
966.9000;0.5910;-0.2085;
967.2000;0.5926;-0.1943;
967.5000;0.5918;-0.1990;
967.8000;0.5918;-0.1990;
968.1000;0.5926;-0.1848;
968.4000;0.5926;-0.1895;
968.7000;0.5893;-0.1990;
969.0000;0.5926;-0.1990;
969.3000;0.5926;-0.1990;
969.6000;0.5942;-0.1895;
969.9000;0.5950;-0.1943;
970.2000;0.5918;-0.2038;
970.5000;0.5942;-0.1990;
970.8000;0.5926;-0.1967;
971.1000;0.5910;-0.1919;
971.4000;0.5926;-0.1919;
971.7000;0.5885;-0.2061;
972.0000;0.5918;-0.2014;
972.3000;0.5893;-0.2132;
972.6000;0.5926;-0.1990;
972.9000;0.5918;-0.1943;
973.2000;0.5934;-0.1895;
973.5000;0.5926;-0.1872;
973.8000;0.5950;-0.1872;
974.1000;0.5918;-0.2132;
974.4000;0.5918;-0.2180;
974.7000;0.5910;-0.2180;
975.0000;0.5999;-0.1990;
975.3000;0.5918;-0.2275;
975.6000;0.5918;-0.2369;
975.9000;0.5926;-0.2346;
976.2000;0.5918;-0.2298;
976.5000;0.5926;-0.2298;
976.8000;0.5910;-0.2346;
977.1000;0.5910;-0.2322;
977.4000;0.5877;-0.2464;
977.7000;0.5926;-0.2251;
978.0000;0.5918;-0.2369;
978.3000;0.5910;-0.2346;
978.6000;0.5918;-0.2275;
978.9000;0.5910;-0.2369;
979.2000;0.5918;-0.2322;
979.5000;0.5918;-0.2251;
979.8000;0.5942;-0.2156;
980.1000;0.5926;-0.2203;
980.4000;0.5902;-0.2322;
980.7000;0.5853;-0.2488;
981.0000;0.5926;-0.2298;
981.3000;0.5910;-0.2322;
981.6000;0.5967;-0.2156;
981.9000;0.5918;-0.2275;
982.2000;0.5902;-0.2227;
982.5000;0.5918;-0.2275;
982.8000;0.5926;-0.2275;
983.1000;0.5918;-0.2180;
983.4000;0.5885;-0.2156;
983.7000;0.5902;-0.2109;
984.0000;0.5893;-0.2156;
984.3000;0.5958;-0.1943;
984.6000;0.5910;-0.2085;
984.9000;0.5926;-0.2038;
985.2000;0.5902;-0.2109;
985.5000;0.5918;-0.2109;
985.8000;0.5910;-0.2132;
986.1000;0.5910;-0.2203;
986.4000;0.5910;-0.2227;
986.7000;0.5918;-0.2275;
987.0000;0.5877;-0.2346;
987.3000;0.5910;-0.2251;
987.6000;0.5926;-0.2156;
987.9000;0.5910;-0.2275;
988.2000;0.5958;-0.2085;
988.5000;0.5918;-0.2227;
988.8000;0.5902;-0.2346;
989.1000;0.5918;-0.2322;
989.4000;0.5934;-0.2275;
989.7000;0.5885;-0.2393;
990.0000;0.5934;-0.2369;
990.3000;0.5926;-0.2322;
990.6000;0.5926;-0.2227;
990.9000;0.5918;-0.2203;
991.2000;0.5918;-0.2251;
991.5000;0.5975;-0.2085;
991.8000;0.5926;-0.2322;
992.1000;0.5853;-0.2535;
992.4000;0.5926;-0.2488;
992.7000;0.5853;-0.2630;
993.0000;0.5910;-0.2559;
993.3000;0.5918;-0.2417;
993.6000;0.5910;-0.2369;
993.9000;0.5918;-0.2417;
994.2000;0.5910;-0.2440;
994.5000;0.5910;-0.2464;
994.8000;0.5910;-0.2417;
995.1000;0.5926;-0.2417;
995.4000;0.5902;-0.2488;
995.7000;0.5926;-0.2393;
996.0000;0.5902;-0.2440;
996.3000;0.5869;-0.2488;
996.6000;0.5910;-0.2275;
996.9000;0.5910;-0.2227;
997.2000;0.5885;-0.2275;
997.5000;0.5910;-0.2275;
997.8000;0.5902;-0.2275;
998.1000;0.5934;-0.2275;
998.4000;0.5926;-0.2346;
998.7000;0.5910;-0.2251;
999.0000;0.5942;-0.2109;
999.3000;0.5926;-0.2180;
999.6000;0.5918;-0.2061;
999.9000;0.5918;-0.1943;
1000.2000;0.5910;-0.1943;
1000.5000;0.5853;-0.2203;
1000.8000;0.5918;-0.1967;
1001.1000;0.5910;-0.2038;
1001.4000;0.5828;-0.2251;
1001.7000;0.5902;-0.2109;
1002.0000;0.5877;-0.2014;
1002.3000;0.5828;-0.2180;
1002.6000;0.5885;-0.2109;
1002.9000;0.5893;-0.2061;
1003.2000;0.5967;-0.1919;
1003.5000;0.5950;-0.2085;
1003.8000;0.5885;-0.2156;
1004.1000;0.5893;-0.2180;
1004.4000;0.5910;-0.2132;
1004.7000;0.5910;-0.1990;
1005.0000;0.5869;-0.2109;
1005.3000;0.5885;-0.2061;
1005.6000;0.5877;-0.1967;
1005.9000;0.5918;-0.1919;
1006.2000;0.5828;-0.2203;
1006.5000;0.5885;-0.2180;
1006.8000;0.5885;-0.2180;
1007.1000;0.5902;-0.2061;
1007.4000;0.5885;-0.2203;
1007.7000;0.5885;-0.2251;
1008.0000;0.5893;-0.2203;
1008.3000;0.5902;-0.2180;
1008.6000;0.5893;-0.2085;
1008.9000;0.5918;-0.2014;
1009.2000;0.5877;-0.2109;
1009.5000;0.5869;-0.2109;
1009.8000;0.5885;-0.2038;
1010.1000;0.5885;-0.2109;
1010.4000;0.5885;-0.2227;
1010.7000;0.5910;-0.2085;
1011.0000;0.5877;-0.2132;
1011.3000;0.5902;-0.2109;
1011.6000;0.5893;-0.2180;
1011.9000;0.5885;-0.2156;
1012.2000;0.5902;-0.2109;
1012.5000;0.5877;-0.2251;
1012.8000;0.5885;-0.2251;
1013.1000;0.5893;-0.2180;
1013.4000;0.5885;-0.2180;
1013.7000;0.5926;-0.2085;
1014.0000;0.5877;-0.2132;
1014.3000;0.5885;-0.1990;
1014.6000;0.5893;-0.2014;
1014.9000;0.5885;-0.1990;
1015.2000;0.5885;-0.2061;
1015.5000;0.5893;-0.1990;
1015.8000;0.5910;-0.2061;
1016.1000;0.5918;-0.2109;
1016.4000;0.5885;-0.2085;
1016.7000;0.5853;-0.2038;
1017.0000;0.5877;-0.2014;
1017.3000;0.5885;-0.1990;
1017.6000;0.5902;-0.1943;
1017.9000;0.5893;-0.2109;
1018.2000;0.5885;-0.2109;
1018.5000;0.5877;-0.2132;
1018.8000;0.5902;-0.1990;
1019.1000;0.5877;-0.2014;
1019.4000;0.5861;-0.2061;
1019.7000;0.5861;-0.1967;
1020.0000;0.5893;-0.1895;
1020.3000;0.5918;-0.1895;
1020.6000;0.5893;-0.1990;
1020.9000;0.5893;-0.1919;
1021.2000;0.5893;-0.1943;
1021.5000;0.5869;-0.2038;
1021.8000;0.5885;-0.1990;
1022.1000;0.5885;-0.1943;
1022.4000;0.5893;-0.1943;
1022.7000;0.5877;-0.2038;
1023.0000;0.5877;-0.2038;
1023.3000;0.5885;-0.2061;
1023.6000;0.5877;-0.1990;
1023.9000;0.5885;-0.1943;
1024.2000;0.5877;-0.1967;
1024.5000;0.5926;-0.1753;
1024.8000;0.5934;-0.1730;
1025.1000;0.5885;-0.1824;
1025.4000;0.5877;-0.1872;
1025.7000;0.5885;-0.1895;
1026.0000;0.5902;-0.1895;
1026.3000;0.5885;-0.2061;
1026.6000;0.5885;-0.2109;
1026.9000;0.5893;-0.2014;
1027.2000;0.5893;-0.1990;
1027.5000;0.5885;-0.1967;
1027.8000;0.5885;-0.1919;
1028.1000;0.5869;-0.2061;
1028.4000;0.5877;-0.2038;
1028.7000;0.5885;-0.2014;
1029.0000;0.5877;-0.2061;
1029.3000;0.5885;-0.2038;
1029.6000;0.5869;-0.1990;
1029.9000;0.5885;-0.1919;
1030.2000;0.5836;-0.2156;
1030.5000;0.5885;-0.1943;
1030.8000;0.5885;-0.1943;
1031.1000;0.5902;-0.1943;
1031.4000;0.5877;-0.2061;
1031.7000;0.5885;-0.2061;
1032.0000;0.5877;-0.2038;
1032.3000;0.5893;-0.2038;
1032.6000;0.5885;-0.2061;
1032.9000;0.5885;-0.2109;
1033.2000;0.5877;-0.2132;
1033.5000;0.5877;-0.2061;
1033.8000;0.5893;-0.1990;
1034.1000;0.5869;-0.2085;
1034.4000;0.5902;-0.2014;
1034.7000;0.5885;-0.2038;
1035.0000;0.5893;-0.1990;
1035.3000;0.5885;-0.2085;
1035.6000;0.5877;-0.2227;
1035.9000;0.5877;-0.2132;
1036.2000;0.5893;-0.2085;
1036.5000;0.5877;-0.1990;
1036.8000;0.5877;-0.1967;
1037.1000;0.5910;-0.1872;
1037.4000;0.5877;-0.1895;
1037.7000;0.5877;-0.1848;
1038.0000;0.5877;-0.1777;
1038.3000;0.5885;-0.1777;
1038.6000;0.5877;-0.1753;
1038.9000;0.5893;-0.1753;
1039.2000;0.5910;-0.1753;
1039.5000;0.5836;-0.1895;
1039.8000;0.5861;-0.1872;
1040.1000;0.5885;-0.1848;
1040.4000;0.5861;-0.1848;
1040.7000;0.5885;-0.1848;
1041.0000;0.5869;-0.1872;
1041.3000;0.5861;-0.1943;
1041.6000;0.5877;-0.1895;
1041.9000;0.5869;-0.1895;
1042.2000;0.5861;-0.1824;
1042.5000;0.5877;-0.1872;
1042.8000;0.5869;-0.1848;
1043.1000;0.5877;-0.1801;
1043.4000;0.5877;-0.1848;
1043.7000;0.5885;-0.1777;
1044.0000;0.5869;-0.1824;
1044.3000;0.5885;-0.1801;
1044.6000;0.5877;-0.1801;
1044.9000;0.5885;-0.1824;
1045.2000;0.5853;-0.1848;
1045.5000;0.5893;-0.1730;
1045.8000;0.5861;-0.1824;
1046.1000;0.5861;-0.1824;
1046.4000;0.5861;-0.1848;
1046.7000;0.5861;-0.1872;
1047.0000;0.5869;-0.1943;
1047.3000;0.5861;-0.2061;
1047.6000;0.5845;-0.2109;
1047.9000;0.5877;-0.2180;
1048.2000;0.5853;-0.2109;
1048.5000;0.5869;-0.2085;
1048.8000;0.5861;-0.2061;
1049.1000;0.5869;-0.1990;
1049.4000;0.5861;-0.2014;
1049.7000;0.5861;-0.2038;
1050.0000;0.5845;-0.2061;
1050.3000;0.5853;-0.2014;
1050.6000;0.5877;-0.2014;
1050.9000;0.5877;-0.2038;
1051.2000;0.5877;-0.2038;
1051.5000;0.5869;-0.2061;
1051.8000;0.5861;-0.2038;
1052.1000;0.5869;-0.2038;
1052.4000;0.5869;-0.1967;
1052.7000;0.5926;-0.1777;
1053.0000;0.5869;-0.1990;
1053.3000;0.5918;-0.1872;
1053.6000;0.5853;-0.2109;
1053.9000;0.5869;-0.1990;
1054.2000;0.5788;-0.2109;
1054.5000;0.5861;-0.1919;
1054.8000;0.5885;-0.1919;
1055.1000;0.5869;-0.1943;
1055.4000;0.5877;-0.1967;
1055.7000;0.5869;-0.1967;
1056.0000;0.5853;-0.1919;
1056.3000;0.5861;-0.1872;
1056.6000;0.5853;-0.2014;
1056.9000;0.5869;-0.1967;
1057.2000;0.5869;-0.1943;
1057.5000;0.5853;-0.2014;
1057.8000;0.5861;-0.2038;
1058.1000;0.5869;-0.2014;
1058.4000;0.5869;-0.2180;
1058.7000;0.5893;-0.2061;
1059.0000;0.5869;-0.1967;
1059.3000;0.5877;-0.1943;
1059.6000;0.5869;-0.1895;
1059.9000;0.5845;-0.1990;
1060.2000;0.5861;-0.1943;
1060.5000;0.5869;-0.1990;
1060.8000;0.5885;-0.1990;
1061.1000;0.5877;-0.2061;
1061.4000;0.5861;-0.2061;
1061.7000;0.5853;-0.2180;
1062.0000;0.5885;-0.2038;
1062.3000;0.5877;-0.1990;
1062.6000;0.5910;-0.1919;
1062.9000;0.5877;-0.1990;
1063.2000;0.5853;-0.2109;
1063.5000;0.5861;-0.2061;
1063.8000;0.5861;-0.2038;
1064.1000;0.5853;-0.2038;
1064.4000;0.5853;-0.2109;
1064.7000;0.5869;-0.1990;
1065.0000;0.5877;-0.1943;
1065.3000;0.5869;-0.1919;
1065.6000;0.5845;-0.2085;
1065.9000;0.5861;-0.2038;
1066.2000;0.5877;-0.2038;
1066.5000;0.5853;-0.2109;
1066.8000;0.5853;-0.2156;
1067.1000;0.5869;-0.2038;
1067.4000;0.5861;-0.1967;
1067.7000;0.5877;-0.1919;
1068.0000;0.5869;-0.1943;
1068.3000;0.5820;-0.2132;
1068.6000;0.5853;-0.1943;
1068.9000;0.5877;-0.1919;
1069.2000;0.5845;-0.1990;
1069.5000;0.5877;-0.1872;
1069.8000;0.5869;-0.1848;
1070.1000;0.5885;-0.1801;
1070.4000;0.5885;-0.1872;
1070.7000;0.5893;-0.1801;
1071.0000;0.5853;-0.1967;
1071.3000;0.5869;-0.1967;
1071.6000;0.5836;-0.2061;
1071.9000;0.5861;-0.1943;
1072.2000;0.5877;-0.1943;
1072.5000;0.5869;-0.1919;
1072.8000;0.5869;-0.1895;
1073.1000;0.5861;-0.1967;
1073.4000;0.5861;-0.1967;
1073.7000;0.5934;-0.1801;
1074.0000;0.5853;-0.2038;
1074.3000;0.5853;-0.2014;
1074.6000;0.5869;-0.2014;
1074.9000;0.5869;-0.2014;
1075.2000;0.5861;-0.2038;
1075.5000;0.5861;-0.2085;
1075.8000;0.5861;-0.2085;
1076.1000;0.5836;-0.2085;
1076.4000;0.5845;-0.2109;
1076.7000;0.5853;-0.2038;
1077.0000;0.5845;-0.2061;
1077.3000;0.5820;-0.2085;
1077.6000;0.5861;-0.1967;
1077.9000;0.5853;-0.1943;
1078.2000;0.5845;-0.1990;
1078.5000;0.5853;-0.1895;
1078.8000;0.5861;-0.1848;
1079.1000;0.5869;-0.1801;
1079.4000;0.5853;-0.1919;
1079.7000;0.5845;-0.1967;
1080.0000;0.5853;-0.1943;
1080.3000;0.5861;-0.1943;
1080.6000;0.5853;-0.2014;
1080.9000;0.5861;-0.2061;
1081.2000;0.5820;-0.2085;
1081.5000;0.5893;-0.1848;
1081.8000;0.5853;-0.1872;
1082.1000;0.5877;-0.1872;
1082.4000;0.5861;-0.1967;
1082.7000;0.5845;-0.2014;
1083.0000;0.5845;-0.1990;
1083.3000;0.5828;-0.2038;
1083.6000;0.5861;-0.1967;
1083.9000;0.5877;-0.1919;
1084.2000;0.5853;-0.1943;
1084.5000;0.5845;-0.2014;
1084.8000;0.5836;-0.2085;
1085.1000;0.5861;-0.2132;
1085.4000;0.5853;-0.2109;
1085.7000;0.5853;-0.2014;
1086.0000;0.5845;-0.2061;
1086.3000;0.5853;-0.2061;
1086.6000;0.5853;-0.1990;
1086.9000;0.5828;-0.2038;
1087.2000;0.5853;-0.2038;
1087.5000;0.5853;-0.2014;
1087.8000;0.5853;-0.1919;
1088.1000;0.5828;-0.1895;
1088.4000;0.5853;-0.1848;
1088.7000;0.5845;-0.1943;
1089.0000;0.5845;-0.2109;
1089.3000;0.5845;-0.2038;
1089.6000;0.5853;-0.2109;
1089.9000;0.5845;-0.2038;
1090.2000;0.5836;-0.2038;
1090.5000;0.5853;-0.2038;
1090.8000;0.5853;-0.2061;
1091.1000;0.5853;-0.2085;
1091.4000;0.5853;-0.2132;
1091.7000;0.5853;-0.2109;
1092.0000;0.5845;-0.2203;
1092.3000;0.5869;-0.2156;
1092.6000;0.5853;-0.2227;
1092.9000;0.5869;-0.2156;
1093.2000;0.5918;-0.2038;
1093.5000;0.5779;-0.2346;
1093.8000;0.5836;-0.2180;
1094.1000;0.5853;-0.2038;
1094.4000;0.5853;-0.2038;
1094.7000;0.5869;-0.1943;
1095.0000;0.5861;-0.2085;
1095.3000;0.5771;-0.2369;
1095.6000;0.5853;-0.2275;
1095.9000;0.5771;-0.2369;
1096.2000;0.5845;-0.2180;
1096.5000;0.5763;-0.2298;
1096.8000;0.5877;-0.2038;
1097.1000;0.5845;-0.2061;
1097.4000;0.5845;-0.2038;
1097.7000;0.5845;-0.1943;
1098.0000;0.5861;-0.1895;
1098.3000;0.5845;-0.1967;
1098.6000;0.5836;-0.1990;
1098.9000;0.5845;-0.1990;
1099.2000;0.5845;-0.1943;
1099.5000;0.5845;-0.1872;
1099.8000;0.5877;-0.1801;
1100.1000;0.5828;-0.1967;
1100.4000;0.5845;-0.1895;
1100.7000;0.5845;-0.1919;
1101.0000;0.5910;-0.1730;
1101.3000;0.5828;-0.1943;
1101.6000;0.5845;-0.1919;
1101.9000;0.5796;-0.2038;
1102.2000;0.5845;-0.1943;
1102.5000;0.5828;-0.1919;
1102.8000;0.5845;-0.1753;
1103.1000;0.5845;-0.1824;
1103.4000;0.5853;-0.1730;
1103.7000;0.5853;-0.1753;
1104.0000;0.5893;-0.1659;
1104.3000;0.5861;-0.1848;
1104.6000;0.5845;-0.1824;
1104.9000;0.5869;-0.1824;
1105.2000;0.5853;-0.1801;
1105.5000;0.5853;-0.1848;
1105.8000;0.5853;-0.1848;
1106.1000;0.5845;-0.1801;
1106.4000;0.5836;-0.1753;
1106.7000;0.5853;-0.1682;
1107.0000;0.5836;-0.1730;
1107.3000;0.5861;-0.1659;
1107.6000;0.5836;-0.1611;
1107.9000;0.5836;-0.1611;
1108.2000;0.5796;-0.1753;
1108.5000;0.5836;-0.1659;
1108.8000;0.5853;-0.1777;
1109.1000;0.5845;-0.1824;
1109.4000;0.5861;-0.1848;
1109.7000;0.5869;-0.1872;
1110.0000;0.5853;-0.1895;
1110.3000;0.5845;-0.1919;
1110.6000;0.5836;-0.1919;
1110.9000;0.5820;-0.1990;
1111.2000;0.5796;-0.2014;
1111.5000;0.5853;-0.1895;
1111.8000;0.5812;-0.2014;
1112.1000;0.5836;-0.1872;
1112.4000;0.5836;-0.1848;
1112.7000;0.5820;-0.1872;
1113.0000;0.5828;-0.1848;
1113.3000;0.5828;-0.1777;
1113.6000;0.5828;-0.1730;
1113.9000;0.5820;-0.1824;
1114.2000;0.5845;-0.1801;
1114.5000;0.5836;-0.1872;
1114.8000;0.5812;-0.1824;
1115.1000;0.5845;-0.1777;
1115.4000;0.5796;-0.1895;
1115.7000;0.5853;-0.1777;
1116.0000;0.5853;-0.1706;
1116.3000;0.5845;-0.1682;
1116.6000;0.5836;-0.1706;
1116.9000;0.5853;-0.1730;
1117.2000;0.5853;-0.1824;
1117.5000;0.5893;-0.1801;
1117.8000;0.5836;-0.1943;
1118.1000;0.5836;-0.1919;
1118.4000;0.5845;-0.1990;
1118.7000;0.5836;-0.2061;
1119.0000;0.5836;-0.2085;
1119.3000;0.5739;-0.2251;
1119.6000;0.5836;-0.2038;
1119.9000;0.5820;-0.2038;
1120.2000;0.5853;-0.1967;
1120.5000;0.5861;-0.1967;
1120.8000;0.5853;-0.1943;
1121.1000;0.5845;-0.1943;
1121.4000;0.5836;-0.1919;
1121.7000;0.5820;-0.2014;
1122.0000;0.5836;-0.2038;
1122.3000;0.5836;-0.1990;
1122.6000;0.5828;-0.1848;
1122.9000;0.5820;-0.1872;
1123.2000;0.5845;-0.1801;
1123.5000;0.5836;-0.1730;
1123.8000;0.5845;-0.1706;
1124.1000;0.5836;-0.1730;
1124.4000;0.5836;-0.1777;
1124.7000;0.5820;-0.1824;
1125.0000;0.5877;-0.1682;
1125.3000;0.5845;-0.1777;
1125.6000;0.5861;-0.1730;
1125.9000;0.5788;-0.1824;
1126.2000;0.5853;-0.1706;
1126.5000;0.5836;-0.1801;
1126.8000;0.5836;-0.1872;
1127.1000;0.5828;-0.1824;
1127.4000;0.5828;-0.1895;
1127.7000;0.5836;-0.1848;
1128.0000;0.5812;-0.1848;
1128.3000;0.5853;-0.1730;
1128.6000;0.5869;-0.1659;
1128.9000;0.5861;-0.1682;
1129.2000;0.5845;-0.1706;
1129.5000;0.5796;-0.1801;
1129.8000;0.5836;-0.1753;
1130.1000;0.5853;-0.1611;
1130.4000;0.5853;-0.1611;
1130.7000;0.5845;-0.1659;
1131.0000;0.5861;-0.1540;
1131.3000;0.5836;-0.1635;
1131.6000;0.5828;-0.1753;
1131.9000;0.5845;-0.1753;
1132.2000;0.5836;-0.1753;
1132.5000;0.5820;-0.1848;
1132.8000;0.5845;-0.1777;
1133.1000;0.5877;-0.1587;
1133.4000;0.5828;-0.1753;
1133.7000;0.5828;-0.1824;
1134.0000;0.5828;-0.1730;
1134.3000;0.5820;-0.1753;
1134.6000;0.5845;-0.1730;
1134.9000;0.5820;-0.1777;
1135.2000;0.5828;-0.1682;
1135.5000;0.5836;-0.1635;
1135.8000;0.5828;-0.1682;
1136.1000;0.5820;-0.1635;
1136.4000;0.5845;-0.1611;
1136.7000;0.5820;-0.1635;
1137.0000;0.5812;-0.1659;
1137.3000;0.5828;-0.1611;
1137.6000;0.5820;-0.1635;
1137.9000;0.5845;-0.1682;
1138.2000;0.5828;-0.1682;
1138.5000;0.5812;-0.1801;
1138.8000;0.5820;-0.1824;
1139.1000;0.5763;-0.1895;
1139.4000;0.5828;-0.1753;
1139.7000;0.5820;-0.1753;
1140.0000;0.5836;-0.1730;
1140.3000;0.5820;-0.1777;
1140.6000;0.5853;-0.1801;
1140.9000;0.5804;-0.1801;
1141.2000;0.5828;-0.1706;
1141.5000;0.5828;-0.1706;
1141.8000;0.5845;-0.1682;
1142.1000;0.5836;-0.1635;
1142.4000;0.5812;-0.1635;
1142.7000;0.5836;-0.1635;
1143.0000;0.5836;-0.1659;
1143.3000;0.5812;-0.1682;
1143.6000;0.5804;-0.1777;
1143.9000;0.5820;-0.1753;
1144.2000;0.5812;-0.1801;
1144.5000;0.5820;-0.1753;
1144.8000;0.5861;-0.1611;
1145.1000;0.5820;-0.1659;
1145.4000;0.5779;-0.1777;
1145.7000;0.5779;-0.1682;
1146.0000;0.5836;-0.1493;
1146.3000;0.5812;-0.1564;
1146.6000;0.5836;-0.1635;
1146.9000;0.5845;-0.1682;
1147.2000;0.5828;-0.1753;
1147.5000;0.5820;-0.1777;
1147.8000;0.5812;-0.1706;
1148.1000;0.5812;-0.1659;
1148.4000;0.5902;-0.1445;
1148.7000;0.5804;-0.1682;
1149.0000;0.5836;-0.1635;
1149.3000;0.5820;-0.1659;
1149.6000;0.5820;-0.1659;
1149.9000;0.5804;-0.1682;
1150.2000;0.5820;-0.1706;
1150.5000;0.5836;-0.1635;
1150.8000;0.5828;-0.1706;
1151.1000;0.5836;-0.1730;
1151.4000;0.5845;-0.1824;
1151.7000;0.5845;-0.1801;
1152.0000;0.5893;-0.1682;
1152.3000;0.5853;-0.1753;
1152.6000;0.5836;-0.1824;
1152.9000;0.5828;-0.1801;
1153.2000;0.5845;-0.1801;
1153.5000;0.5853;-0.1801;
1153.8000;0.5836;-0.1777;
1154.1000;0.5828;-0.1777;
1154.4000;0.5836;-0.1659;
1154.7000;0.5836;-0.1611;
1155.0000;0.5836;-0.1587;
1155.3000;0.5820;-0.1635;
1155.6000;0.5828;-0.1635;
1155.9000;0.5836;-0.1635;
1156.2000;0.5828;-0.1659;
1156.5000;0.5812;-0.1635;
1156.8000;0.5828;-0.1587;
1157.1000;0.5828;-0.1635;
1157.4000;0.5836;-0.1706;
1157.7000;0.5820;-0.1777;
1158.0000;0.5828;-0.1824;
1158.3000;0.5828;-0.1801;
1158.6000;0.5845;-0.1777;
1158.9000;0.5861;-0.1801;
1159.2000;0.5828;-0.1848;
1159.5000;0.5828;-0.1872;
1159.8000;0.5804;-0.1967;
1160.1000;0.5820;-0.1967;
1160.4000;0.5796;-0.1967;
1160.7000;0.5820;-0.1990;
1161.0000;0.5836;-0.2061;
1161.3000;0.5820;-0.2109;
1161.6000;0.5812;-0.2061;
1161.9000;0.5828;-0.1990;
1162.2000;0.5788;-0.2085;
1162.5000;0.5812;-0.1967;
1162.8000;0.5788;-0.2085;
1163.1000;0.5812;-0.2014;
1163.4000;0.5828;-0.2014;
1163.7000;0.5820;-0.2014;
1164.0000;0.5828;-0.2061;
1164.3000;0.5820;-0.2085;
1164.6000;0.5820;-0.2132;
1164.9000;0.5812;-0.2180;
1165.2000;0.5820;-0.2085;
1165.5000;0.5812;-0.2038;
1165.8000;0.5812;-0.2085;
1166.1000;0.5828;-0.2038;
1166.4000;0.5828;-0.2085;
1166.7000;0.5828;-0.2038;
1167.0000;0.5828;-0.1967;
1167.3000;0.5812;-0.2085;
1167.6000;0.5836;-0.1895;
1167.9000;0.5820;-0.1895;
1168.2000;0.5828;-0.1848;
1168.5000;0.5828;-0.1848;
1168.8000;0.5836;-0.1919;
1169.1000;0.5845;-0.1872;
1169.4000;0.5779;-0.2132;
1169.7000;0.5820;-0.2038;
1170.0000;0.5836;-0.2014;
1170.3000;0.5804;-0.1943;
1170.6000;0.5812;-0.1848;
1170.9000;0.5820;-0.1919;
1171.2000;0.5812;-0.1895;
1171.5000;0.5804;-0.1895;
1171.8000;0.5820;-0.1990;
1172.1000;0.5812;-0.1967;
1172.4000;0.5836;-0.1895;
1172.7000;0.5836;-0.1824;
1173.0000;0.5820;-0.1753;
1173.3000;0.5820;-0.1848;
1173.6000;0.5820;-0.1943;
1173.9000;0.5812;-0.1919;
1174.2000;0.5820;-0.1990;
1174.5000;0.5812;-0.2014;
1174.8000;0.5796;-0.2109;
1175.1000;0.5820;-0.1990;
1175.4000;0.5804;-0.2014;
1175.7000;0.5812;-0.2109;
1176.0000;0.5812;-0.2180;
1176.3000;0.5812;-0.2156;
1176.6000;0.5820;-0.2132;
1176.9000;0.5812;-0.2251;
1177.2000;0.5828;-0.2251;
1177.5000;0.5836;-0.2322;
1177.8000;0.5820;-0.2227;
1178.1000;0.5763;-0.2322;
1178.4000;0.5804;-0.2132;
1178.7000;0.5796;-0.2180;
1179.0000;0.5828;-0.1990;
1179.3000;0.5804;-0.1990;
1179.6000;0.5820;-0.2038;
1179.9000;0.5763;-0.2180;
1180.2000;0.5755;-0.2132;
1180.5000;0.5763;-0.2132;
1180.8000;0.5820;-0.2014;
1181.1000;0.5828;-0.2038;
1181.4000;0.5836;-0.1990;
1181.7000;0.5869;-0.1943;
1182.0000;0.5820;-0.2061;
1182.3000;0.5820;-0.2038;
1182.6000;0.5853;-0.1919;
1182.9000;0.5820;-0.2014;
1183.2000;0.5836;-0.2061;
1183.5000;0.5796;-0.2109;
1183.8000;0.5820;-0.2061;
1184.1000;0.5828;-0.1967;
1184.4000;0.5812;-0.1919;
1184.7000;0.5812;-0.2014;
1185.0000;0.5804;-0.1943;
1185.3000;0.5828;-0.1872;
1185.6000;0.5804;-0.1943;
1185.9000;0.5869;-0.1824;
1186.2000;0.5796;-0.1943;
1186.5000;0.5804;-0.1895;
1186.8000;0.5820;-0.1848;
1187.1000;0.5804;-0.1872;
1187.4000;0.5804;-0.1872;
1187.7000;0.5828;-0.1919;
1188.0000;0.5812;-0.1848;
1188.3000;0.5820;-0.1872;
1188.6000;0.5820;-0.1801;
1188.9000;0.5812;-0.1777;
1189.2000;0.5804;-0.1777;
1189.5000;0.5836;-0.1824;
1189.8000;0.5812;-0.1895;
1190.1000;0.5820;-0.1943;
1190.4000;0.5796;-0.2085;
1190.7000;0.5812;-0.2014;
1191.0000;0.5820;-0.1919;
1191.3000;0.5853;-0.1730;
1191.6000;0.5812;-0.1730;
1191.9000;0.5820;-0.1659;
1192.2000;0.5804;-0.1777;
1192.5000;0.5804;-0.1801;
1192.8000;0.5812;-0.1753;
1193.1000;0.5820;-0.1777;
1193.4000;0.5828;-0.1706;
1193.7000;0.5845;-0.1706;
1194.0000;0.5820;-0.1753;
1194.3000;0.5828;-0.1730;
1194.6000;0.5828;-0.1753;
1194.9000;0.5796;-0.1848;
1195.2000;0.5820;-0.1824;
1195.5000;0.5812;-0.1824;
1195.8000;0.5804;-0.1872;
1196.1000;0.5820;-0.1895;
1196.4000;0.5820;-0.1895;
1196.7000;0.5812;-0.1967;
1197.0000;0.5820;-0.2038;
1197.3000;0.5812;-0.2014;
1197.6000;0.5828;-0.1990;
1197.9000;0.5812;-0.1872;
1198.2000;0.5828;-0.1801;
1198.5000;0.5812;-0.1777;
1198.8000;0.5812;-0.1872;
1199.1000;0.5828;-0.1919;
1199.4000;0.5820;-0.1967;
1199.7000;0.5804;-0.2014;
1200.0000;0.5804;-0.2038;
1200.3000;0.5812;-0.1967;
1200.6000;0.5804;-0.1967;
1200.9000;0.5804;-0.1943;
1201.2000;0.5804;-0.1848;
1201.5000;0.5731;-0.2061;
1201.8000;0.5788;-0.1990;
1202.1000;0.5788;-0.1872;
1202.4000;0.5779;-0.1824;
1202.7000;0.5771;-0.1895;
1203.0000;0.5836;-0.1777;
1203.3000;0.5812;-0.1753;
1203.6000;0.5836;-0.1635;
1203.9000;0.5804;-0.1777;
1204.2000;0.5804;-0.1706;
1204.5000;0.5812;-0.1682;
1204.8000;0.5812;-0.1730;
1205.1000;0.5788;-0.1730;
1205.4000;0.5820;-0.1730;
1205.7000;0.5820;-0.1730;
1206.0000;0.5804;-0.1730;
1206.3000;0.5804;-0.1659;
1206.6000;0.5812;-0.1635;
1206.9000;0.5796;-0.1682;
1207.2000;0.5820;-0.1682;
1207.5000;0.5804;-0.1824;
1207.8000;0.5812;-0.1824;
1208.1000;0.5804;-0.1824;
1208.4000;0.5820;-0.1730;
1208.7000;0.5820;-0.1824;
1209.0000;0.5812;-0.1848;
1209.3000;0.5812;-0.1872;
1209.6000;0.5828;-0.1824;
1209.9000;0.5836;-0.1730;
1210.2000;0.5820;-0.1872;
1210.5000;0.5812;-0.1872;
1210.8000;0.5812;-0.1824;
1211.1000;0.5812;-0.1824;
1211.4000;0.5812;-0.1895;
1211.7000;0.5796;-0.1919;
1212.0000;0.5796;-0.1895;
1212.3000;0.5812;-0.1801;
1212.6000;0.5812;-0.1872;
1212.9000;0.5869;-0.1753;
1213.2000;0.5796;-0.2038;
1213.5000;0.5804;-0.1967;
1213.8000;0.5820;-0.1919;
1214.1000;0.5804;-0.2038;
1214.4000;0.5788;-0.2014;
1214.7000;0.5812;-0.1990;
1215.0000;0.5820;-0.1943;
1215.3000;0.5796;-0.2038;
1215.6000;0.5812;-0.2014;
1215.9000;0.5820;-0.1990;
1216.2000;0.5804;-0.2014;
1216.5000;0.5820;-0.1990;
1216.8000;0.5812;-0.1943;
1217.1000;0.5804;-0.1990;
1217.4000;0.5812;-0.2085;
1217.7000;0.5812;-0.2061;
1218.0000;0.5861;-0.1777;
1218.3000;0.5804;-0.1895;
1218.6000;0.5812;-0.1872;
1218.9000;0.5828;-0.1895;
1219.2000;0.5820;-0.1943;
1219.5000;0.5796;-0.1967;
1219.8000;0.5804;-0.1967;
1220.1000;0.5804;-0.1895;
1220.4000;0.5812;-0.1872;
1220.7000;0.5820;-0.1848;
1221.0000;0.5779;-0.1895;
1221.3000;0.5804;-0.1753;
1221.6000;0.5796;-0.1872;
1221.9000;0.5796;-0.1895;
1222.2000;0.5796;-0.1895;
1222.5000;0.5820;-0.1895;
1222.8000;0.5788;-0.1848;
1223.1000;0.5796;-0.1872;
1223.4000;0.5796;-0.1895;
1223.7000;0.5828;-0.1895;
1224.0000;0.5771;-0.2109;
1224.3000;0.5804;-0.1990;
1224.6000;0.5804;-0.1990;
1224.9000;0.5812;-0.1943;
1225.2000;0.5820;-0.1895;
1225.5000;0.5836;-0.1801;
1225.8000;0.5796;-0.1895;
1226.1000;0.5836;-0.1872;
1226.4000;0.5804;-0.1943;
1226.7000;0.5796;-0.1943;
1227.0000;0.5755;-0.2085;
1227.3000;0.5796;-0.1895;
1227.6000;0.5804;-0.1848;
1227.9000;0.5804;-0.1848;
1228.2000;0.5796;-0.1848;
1228.5000;0.5796;-0.1848;
1228.8000;0.5779;-0.1895;
1229.1000;0.5804;-0.1801;
1229.4000;0.5788;-0.1824;
1229.7000;0.5845;-0.1777;
1230.0000;0.5796;-0.1943;
1230.3000;0.5804;-0.1919;
1230.6000;0.5804;-0.1848;
1230.9000;0.5804;-0.1824;
1231.2000;0.5812;-0.1753;
1231.5000;0.5804;-0.1801;
1231.8000;0.5820;-0.1730;
1232.1000;0.5796;-0.1824;
1232.4000;0.5796;-0.1919;
1232.7000;0.5812;-0.1919;
1233.0000;0.5804;-0.1943;
1233.3000;0.5747;-0.1990;
1233.6000;0.5804;-0.1895;
1233.9000;0.5812;-0.1824;
1234.2000;0.5796;-0.1824;
1234.5000;0.5804;-0.1730;
1234.8000;0.5796;-0.1777;
1235.1000;0.5820;-0.1635;
1235.4000;0.5812;-0.1659;
1235.7000;0.5812;-0.1659;
1236.0000;0.5796;-0.1682;
1236.3000;0.5812;-0.1706;
1236.6000;0.5804;-0.1753;
1236.9000;0.5828;-0.1777;
1237.2000;0.5804;-0.1801;
1237.5000;0.5812;-0.1777;
1237.8000;0.5812;-0.1824;
1238.1000;0.5812;-0.1801;
1238.4000;0.5804;-0.1990;
1238.7000;0.5796;-0.2038;
1239.0000;0.5812;-0.1990;
1239.3000;0.5820;-0.2014;
1239.6000;0.5812;-0.2038;
1239.9000;0.5820;-0.2085;
1240.2000;0.5771;-0.2109;
1240.5000;0.5820;-0.1967;
1240.8000;0.5812;-0.1990;
1241.1000;0.5804;-0.1967;
1241.4000;0.5796;-0.1919;
1241.7000;0.5812;-0.1730;
1242.0000;0.5804;-0.1730;
1242.3000;0.5828;-0.1706;
1242.6000;0.5812;-0.1706;
1242.9000;0.5836;-0.1611;
1243.2000;0.5796;-0.1587;
1243.5000;0.5804;-0.1635;
1243.8000;0.5796;-0.1706;
1244.1000;0.5820;-0.1587;
1244.4000;0.5804;-0.1659;
1244.7000;0.5812;-0.1587;
1245.0000;0.5796;-0.1611;
1245.3000;0.5788;-0.1777;
1245.6000;0.5812;-0.1848;
1245.9000;0.5722;-0.2038;
1246.2000;0.5796;-0.1753;
1246.5000;0.5812;-0.1706;
1246.8000;0.5812;-0.1659;
1247.1000;0.5788;-0.1730;
1247.4000;0.5812;-0.1611;
1247.7000;0.5828;-0.1587;
1248.0000;0.5812;-0.1682;
1248.3000;0.5820;-0.1659;
1248.6000;0.5820;-0.1730;
1248.9000;0.5788;-0.1824;
1249.2000;0.5788;-0.1872;
1249.5000;0.5820;-0.1777;
1249.8000;0.5812;-0.1895;
1250.1000;0.5796;-0.2014;
1250.4000;0.5788;-0.2085;
1250.7000;0.5731;-0.2180;
1251.0000;0.5804;-0.2061;
1251.3000;0.5820;-0.2061;
1251.6000;0.5788;-0.2109;
1251.9000;0.5755;-0.2251;
1252.2000;0.5812;-0.1990;
1252.5000;0.5804;-0.1895;
1252.8000;0.5796;-0.1967;
1253.1000;0.5804;-0.1990;
1253.4000;0.5804;-0.1943;
1253.7000;0.5812;-0.1872;
1254.0000;0.5788;-0.1895;
1254.3000;0.5763;-0.1895;
1254.6000;0.5796;-0.1895;
1254.9000;0.5812;-0.1753;
1255.2000;0.5788;-0.1730;
1255.5000;0.5788;-0.1753;
1255.8000;0.5788;-0.1848;
1256.1000;0.5747;-0.1967;
1256.4000;0.5796;-0.1895;
1256.7000;0.5804;-0.1919;
1257.0000;0.5812;-0.1919;
1257.3000;0.5812;-0.1943;
1257.6000;0.5804;-0.1967;
1257.9000;0.5869;-0.1730;
1258.2000;0.5804;-0.1895;
1258.5000;0.5771;-0.1990;
1258.8000;0.5796;-0.1848;
1259.1000;0.5804;-0.1824;
1259.4000;0.5812;-0.1848;
1259.7000;0.5804;-0.1801;
1260.0000;0.5796;-0.1801;
1260.3000;0.5796;-0.1824;
1260.6000;0.5804;-0.1801;
1260.9000;0.5804;-0.1848;
1261.2000;0.5771;-0.1943;
1261.5000;0.5796;-0.1848;
1261.8000;0.5788;-0.1824;
1262.1000;0.5763;-0.1848;
1262.4000;0.5820;-0.1824;
1262.7000;0.5796;-0.1777;
1263.0000;0.5804;-0.1801;
1263.3000;0.5804;-0.1801;
1263.6000;0.5755;-0.1990;
1263.9000;0.5788;-0.1919;
1264.2000;0.5763;-0.1967;
1264.5000;0.5788;-0.1872;
1264.8000;0.5812;-0.1872;
1265.1000;0.5820;-0.1848;
1265.4000;0.5812;-0.1872;
1265.7000;0.5812;-0.1919;
1266.0000;0.5796;-0.1943;
1266.3000;0.5796;-0.1943;
1266.6000;0.5804;-0.1990;
1266.9000;0.5739;-0.2180;
1267.2000;0.5796;-0.1943;
1267.5000;0.5804;-0.1990;
1267.8000;0.5804;-0.1919;
1268.1000;0.5804;-0.1919;
1268.4000;0.5796;-0.2014;
1268.7000;0.5804;-0.2109;
1269.0000;0.5804;-0.2038;
1269.3000;0.5796;-0.2061;
1269.6000;0.5796;-0.2014;
1269.9000;0.5796;-0.1967;
1270.2000;0.5796;-0.1848;
1270.5000;0.5796;-0.1872;
1270.8000;0.5771;-0.1872;
1271.1000;0.5763;-0.1967;
1271.4000;0.5812;-0.1872;
1271.7000;0.5845;-0.1706;
1272.0000;0.5812;-0.1801;
1272.3000;0.5771;-0.1872;
1272.6000;0.5804;-0.1730;
1272.9000;0.5779;-0.1801;
1273.2000;0.5788;-0.1919;
1273.5000;0.5796;-0.1967;
1273.8000;0.5804;-0.1967;
1274.1000;0.5812;-0.1824;
1274.4000;0.5796;-0.1824;
1274.7000;0.5771;-0.1919;
1275.0000;0.5788;-0.1943;
1275.3000;0.5771;-0.1967;
1275.6000;0.5788;-0.1943;
1275.9000;0.5796;-0.1872;
1276.2000;0.5788;-0.1848;
1276.5000;0.5820;-0.1848;
1276.8000;0.5796;-0.1872;
1277.1000;0.5804;-0.1919;
1277.4000;0.5788;-0.1919;
1277.7000;0.5804;-0.1967;
1278.0000;0.5804;-0.2038;
1278.3000;0.5788;-0.1967;
1278.6000;0.5788;-0.1943;
1278.9000;0.5804;-0.1943;
1279.2000;0.5828;-0.1824;
1279.5000;0.5836;-0.1753;
1279.8000;0.5845;-0.1848;
1280.1000;0.5812;-0.2061;
1280.4000;0.5812;-0.2156;
1280.7000;0.5796;-0.2180;
1281.0000;0.5796;-0.2203;
1281.3000;0.5877;-0.1990;
1281.6000;0.5796;-0.2203;
1281.9000;0.5812;-0.2156;
1282.2000;0.5796;-0.2156;
1282.5000;0.5788;-0.2085;
1282.8000;0.5796;-0.1990;
1283.1000;0.5796;-0.2014;
1283.4000;0.5804;-0.2014;
1283.7000;0.5804;-0.2085;
1284.0000;0.5820;-0.1967;
1284.3000;0.5796;-0.1943;
1284.6000;0.5796;-0.1872;
1284.9000;0.5804;-0.1990;
1285.2000;0.5788;-0.2014;
1285.5000;0.5804;-0.1990;
1285.8000;0.5796;-0.1967;
1286.1000;0.5796;-0.1967;
1286.4000;0.5788;-0.2038;
1286.7000;0.5804;-0.2038;
1287.0000;0.5788;-0.2109;
1287.3000;0.5804;-0.2085;
1287.6000;0.5788;-0.2061;
1287.9000;0.5788;-0.2014;
1288.2000;0.5747;-0.2061;
1288.5000;0.5812;-0.1943;
1288.8000;0.5804;-0.1895;
1289.1000;0.5788;-0.1943;
1289.4000;0.5812;-0.1919;
1289.7000;0.5779;-0.1919;
1290.0000;0.5779;-0.1872;
1290.3000;0.5788;-0.1848;
1290.6000;0.5796;-0.1777;
1290.9000;0.5788;-0.1824;
1291.2000;0.5788;-0.1848;
1291.5000;0.5779;-0.2014;
1291.8000;0.5779;-0.1919;
1292.1000;0.5804;-0.1919;
1292.4000;0.5796;-0.1943;
1292.7000;0.5796;-0.1919;
1293.0000;0.5763;-0.2061;
1293.3000;0.5804;-0.1895;
1293.6000;0.5779;-0.2014;
1293.9000;0.5804;-0.1919;
1294.2000;0.5853;-0.1706;
1294.5000;0.5796;-0.1801;
1294.8000;0.5804;-0.1730;
1295.1000;0.5828;-0.1682;
1295.4000;0.5796;-0.1753;
1295.7000;0.5739;-0.1848;
1296.0000;0.5788;-0.1753;
1296.3000;0.5804;-0.1824;
1296.6000;0.5836;-0.1706;
1296.9000;0.5796;-0.1730;
1297.2000;0.5812;-0.1730;
1297.5000;0.5861;-0.1706;
1297.8000;0.5698;-0.2203;
1298.1000;0.5804;-0.1919;
1298.4000;0.5804;-0.1990;
1298.7000;0.5796;-0.2014;
1299.0000;0.5804;-0.1919;
1299.3000;0.5796;-0.1895;
1299.6000;0.5804;-0.1895;
1299.9000;0.5788;-0.1919;
1300.2000;0.5771;-0.2014;
1300.5000;0.5796;-0.2085;
1300.8000;0.5788;-0.2085;
1301.1000;0.5804;-0.1990;
1301.4000;0.5796;-0.2085;
1301.7000;0.5804;-0.2014;
1302.0000;0.5812;-0.1967;
1302.3000;0.5820;-0.1895;
1302.6000;0.5779;-0.1990;
1302.9000;0.5779;-0.1943;
1303.2000;0.5771;-0.1872;
1303.5000;0.5788;-0.1848;
1303.8000;0.5788;-0.1990;
1304.1000;0.5779;-0.2038;
1304.4000;0.5779;-0.2014;
1304.7000;0.5788;-0.2085;
1305.0000;0.5796;-0.2061;
1305.3000;0.5796;-0.2061;
1305.6000;0.5804;-0.2038;
1305.9000;0.5796;-0.1990;
1306.2000;0.5804;-0.1990;
1306.5000;0.5804;-0.2014;
1306.8000;0.5788;-0.2109;
1307.1000;0.5779;-0.2085;
1307.4000;0.5763;-0.2085;
1307.7000;0.5796;-0.1990;
1308.0000;0.5828;-0.1990;
1308.3000;0.5788;-0.2061;
1308.6000;0.5796;-0.2038;
1308.9000;0.5788;-0.2014;
1309.2000;0.5796;-0.1990;
1309.5000;0.5722;-0.2109;
1309.8000;0.5779;-0.1943;
1310.1000;0.5779;-0.2085;
1310.4000;0.5796;-0.2038;
1310.7000;0.5828;-0.1919;
1311.0000;0.5788;-0.2038;
1311.3000;0.5812;-0.2038;
1311.6000;0.5820;-0.2014;
1311.9000;0.5820;-0.2061;
1312.2000;0.5771;-0.2061;
1312.5000;0.5796;-0.1967;
1312.8000;0.5788;-0.1919;
1313.1000;0.5788;-0.1943;
1313.4000;0.5788;-0.2014;
1313.7000;0.5812;-0.1990;
1314.0000;0.5812;-0.2061;
1314.3000;0.5804;-0.2061;
1314.6000;0.5796;-0.2061;
1314.9000;0.5739;-0.2203;
1315.2000;0.5788;-0.1990;
1315.5000;0.5812;-0.1943;
1315.8000;0.5779;-0.1895;
1316.1000;0.5788;-0.1824;
1316.4000;0.5788;-0.1777;
1316.7000;0.5788;-0.1730;
1317.0000;0.5836;-0.1730;
1317.3000;0.5796;-0.1848;
1317.6000;0.5812;-0.1848;
1317.9000;0.5779;-0.1895;
1318.2000;0.5771;-0.1872;
1318.5000;0.5771;-0.1919;
1318.8000;0.5788;-0.1895;
1319.1000;0.5836;-0.1848;
1319.4000;0.5788;-0.1967;
1319.7000;0.5788;-0.1872;
1320.0000;0.5796;-0.1895;
1320.3000;0.5804;-0.1895;
1320.6000;0.5771;-0.2014;
1320.9000;0.5788;-0.1967;
1321.2000;0.5796;-0.1895;
1321.5000;0.5828;-0.1824;
1321.8000;0.5804;-0.1943;
1322.1000;0.5796;-0.1943;
1322.4000;0.5796;-0.1919;
1322.7000;0.5804;-0.1895;
1323.0000;0.5804;-0.1848;
1323.3000;0.5788;-0.1824;
1323.6000;0.5853;-0.1611;
1323.9000;0.5788;-0.1753;
1324.2000;0.5796;-0.1706;
1324.5000;0.5796;-0.1706;
1324.8000;0.5796;-0.1777;
1325.1000;0.5828;-0.1801;
1325.4000;0.5804;-0.1801;
1325.7000;0.5853;-0.1706;
1326.0000;0.5796;-0.1848;
1326.3000;0.5812;-0.1753;
1326.6000;0.5796;-0.1801;
1326.9000;0.5820;-0.1777;
1327.2000;0.5804;-0.1730;
1327.5000;0.5779;-0.1872;
1327.8000;0.5804;-0.1801;
1328.1000;0.5796;-0.1706;
1328.4000;0.5771;-0.1848;
1328.7000;0.5796;-0.1824;
1329.0000;0.5788;-0.1895;
1329.3000;0.5796;-0.1824;
1329.6000;0.5763;-0.1872;
1329.9000;0.5796;-0.1824;
1330.2000;0.5788;-0.1872;
1330.5000;0.5796;-0.1848;
1330.8000;0.5788;-0.1824;
1331.1000;0.5812;-0.1848;
1331.4000;0.5788;-0.1777;
1331.7000;0.5804;-0.1706;
1332.0000;0.5779;-0.1801;
1332.3000;0.5788;-0.1872;
1332.6000;0.5796;-0.1872;
1332.9000;0.5747;-0.1943;
1333.2000;0.5869;-0.1564;
1333.5000;0.5779;-0.1824;
1333.8000;0.5788;-0.1872;
1334.1000;0.5763;-0.1895;
1334.4000;0.5820;-0.1777;
1334.7000;0.5788;-0.1848;
1335.0000;0.5788;-0.1919;
1335.3000;0.5731;-0.1990;
1335.6000;0.5820;-0.1801;
1335.9000;0.5812;-0.1801;
1336.2000;0.5739;-0.1919;
1336.5000;0.5763;-0.1872;
1336.8000;0.5779;-0.1777;
1337.1000;0.5788;-0.1753;
1337.4000;0.5788;-0.1753;
1337.7000;0.5788;-0.1777;
1338.0000;0.5804;-0.1682;
1338.3000;0.5763;-0.1777;
1338.6000;0.5771;-0.1824;
1338.9000;0.5747;-0.1990;
1339.2000;0.5779;-0.1943;
1339.5000;0.5763;-0.1967;
1339.8000;0.5779;-0.1872;
1340.1000;0.5788;-0.1801;
1340.4000;0.5788;-0.1777;
1340.7000;0.5845;-0.1659;
1341.0000;0.5779;-0.1848;
1341.3000;0.5788;-0.1753;
1341.6000;0.5820;-0.1659;
1341.9000;0.5804;-0.1635;
1342.2000;0.5747;-0.1777;
1342.5000;0.5771;-0.1706;
1342.8000;0.5739;-0.1801;
1343.1000;0.5796;-0.1659;
1343.4000;0.5779;-0.1682;
1343.7000;0.5796;-0.1611;
1344.0000;0.5763;-0.1801;
1344.3000;0.5779;-0.1801;
1344.6000;0.5779;-0.1730;
1344.9000;0.5771;-0.1801;
1345.2000;0.5779;-0.1848;
1345.5000;0.5804;-0.1872;
1345.8000;0.5779;-0.1919;
1346.1000;0.5788;-0.1919;
1346.4000;0.5788;-0.1967;
1346.7000;0.5779;-0.1990;
1347.0000;0.5788;-0.1895;
1347.3000;0.5796;-0.1895;
1347.6000;0.5796;-0.1967;
1347.9000;0.5739;-0.2014;
1348.2000;0.5828;-0.1943;
1348.5000;0.5788;-0.2014;
1348.8000;0.5788;-0.1943;
1349.1000;0.5804;-0.1943;
1349.4000;0.5788;-0.1990;
1349.7000;0.5812;-0.1919;
1350.0000;0.5804;-0.1919;
1350.3000;0.5714;-0.2038;
1350.6000;0.5779;-0.1872;
1350.9000;0.5804;-0.1730;
1351.2000;0.5779;-0.1753;
1351.5000;0.5788;-0.1730;
1351.8000;0.5779;-0.1777;
1352.1000;0.5796;-0.1753;
1352.4000;0.5779;-0.1706;
1352.7000;0.5788;-0.1753;
1353.0000;0.5788;-0.1730;
1353.3000;0.5788;-0.1730;
1353.6000;0.5788;-0.1777;
1353.9000;0.5779;-0.1801;
1354.2000;0.5779;-0.1801;
1354.5000;0.5779;-0.1848;
1354.8000;0.5788;-0.1824;
1355.1000;0.5788;-0.1730;
1355.4000;0.5763;-0.1824;
1355.7000;0.5763;-0.1872;
1356.0000;0.5771;-0.1777;
1356.3000;0.5796;-0.1777;
1356.6000;0.5779;-0.1801;
1356.9000;0.5747;-0.1872;
1357.2000;0.5763;-0.1848;
1357.5000;0.5779;-0.1824;
1357.8000;0.5731;-0.1943;
1358.1000;0.5779;-0.1872;
1358.4000;0.5779;-0.1872;
1358.7000;0.5812;-0.1872;
1359.0000;0.5828;-0.1919;
1359.3000;0.5796;-0.2014;
1359.6000;0.5796;-0.1943;
1359.9000;0.5796;-0.1943;
1360.2000;0.5771;-0.1967;
1360.5000;0.5796;-0.1943;
1360.8000;0.5804;-0.1943;
1361.1000;0.5779;-0.1848;
1361.4000;0.5788;-0.1895;
1361.7000;0.5763;-0.1895;
1362.0000;0.5779;-0.1872;
1362.3000;0.5779;-0.1753;
1362.6000;0.5804;-0.1635;
1362.9000;0.5763;-0.1682;
1363.2000;0.5804;-0.1659;
1363.5000;0.5779;-0.1682;
1363.8000;0.5779;-0.1801;
1364.1000;0.5779;-0.1801;
1364.4000;0.5788;-0.1801;
1364.7000;0.5779;-0.1706;
1365.0000;0.5788;-0.1659;
1365.3000;0.5763;-0.1801;
1365.6000;0.5779;-0.1753;
1365.9000;0.5779;-0.1777;
1366.2000;0.5796;-0.1848;
1366.5000;0.5796;-0.1753;
1366.8000;0.5771;-0.1753;
1367.1000;0.5836;-0.1706;
1367.4000;0.5788;-0.1777;
1367.7000;0.5853;-0.1540;
1368.0000;0.5796;-0.1682;
1368.3000;0.5796;-0.1682;
1368.6000;0.5763;-0.1824;
1368.9000;0.5796;-0.1730;
1369.2000;0.5804;-0.1824;
1369.5000;0.5771;-0.1895;
1369.8000;0.5779;-0.1824;
1370.1000;0.5788;-0.1824;
1370.4000;0.5747;-0.1895;
1370.7000;0.5812;-0.1801;
1371.0000;0.5788;-0.1919;
1371.3000;0.5779;-0.2038;
1371.6000;0.5804;-0.2038;
1371.9000;0.5796;-0.1895;
1372.2000;0.5796;-0.1895;
1372.5000;0.5771;-0.1919;
1372.8000;0.5820;-0.1777;
1373.1000;0.5788;-0.1872;
1373.4000;0.5763;-0.1943;
1373.7000;0.5812;-0.1824;
1374.0000;0.5771;-0.1895;
1374.3000;0.5779;-0.1919;
1374.6000;0.5788;-0.1848;
1374.9000;0.5788;-0.1895;
1375.2000;0.5779;-0.1943;
1375.5000;0.5828;-0.1943;
1375.8000;0.5779;-0.2038;
1376.1000;0.5763;-0.2109;
1376.4000;0.5788;-0.2109;
1376.7000;0.5788;-0.2061;
1377.0000;0.5771;-0.2061;
1377.3000;0.5788;-0.2061;
1377.6000;0.5779;-0.2061;
1377.9000;0.5771;-0.2132;
1378.2000;0.5779;-0.2180;
1378.5000;0.5796;-0.2275;
1378.8000;0.5788;-0.2275;
1379.1000;0.5828;-0.2014;
1379.4000;0.5788;-0.2038;
1379.7000;0.5828;-0.1943;
1380.0000;0.5788;-0.1990;
1380.3000;0.5804;-0.1990;
1380.6000;0.5804;-0.2038;
1380.9000;0.5796;-0.1967;
1381.2000;0.5747;-0.1967;
1381.5000;0.5763;-0.1919;
1381.8000;0.5788;-0.1824;
1382.1000;0.5836;-0.1682;
1382.4000;0.5788;-0.1730;
1382.7000;0.5771;-0.1777;
1383.0000;0.5755;-0.1777;
1383.3000;0.5788;-0.1659;
1383.6000;0.5771;-0.1706;
1383.9000;0.5779;-0.1753;
1384.2000;0.5771;-0.1872;
1384.5000;0.5804;-0.1824;
1384.8000;0.5788;-0.1872;
1385.1000;0.5771;-0.1848;
1385.4000;0.5788;-0.1753;
1385.7000;0.5788;-0.1753;
1386.0000;0.5779;-0.1777;
1386.3000;0.5779;-0.1824;
1386.6000;0.5820;-0.1730;
1386.9000;0.5739;-0.1943;
1387.2000;0.5771;-0.1801;
1387.5000;0.5763;-0.1801;
1387.8000;0.5731;-0.1919;
1388.1000;0.5779;-0.1919;
1388.4000;0.5771;-0.1895;
1388.7000;0.5788;-0.1848;
1389.0000;0.5714;-0.2061;
1389.3000;0.5771;-0.1872;
1389.6000;0.5788;-0.1895;
1389.9000;0.5763;-0.1943;
1390.2000;0.5779;-0.1919;
1390.5000;0.5771;-0.1990;
1390.8000;0.5771;-0.1943;
1391.1000;0.5771;-0.1990;
1391.4000;0.5763;-0.1943;
1391.7000;0.5771;-0.1967;
1392.0000;0.5763;-0.1919;
1392.3000;0.5771;-0.1919;
1392.6000;0.5763;-0.1895;
1392.9000;0.5771;-0.1895;
1393.2000;0.5779;-0.1872;
1393.5000;0.5796;-0.1730;
1393.8000;0.5779;-0.1777;
1394.1000;0.5788;-0.1801;
1394.4000;0.5771;-0.1848;
1394.7000;0.5796;-0.1824;
1395.0000;0.5828;-0.1682;
1395.3000;0.5788;-0.1753;
1395.6000;0.5771;-0.1753;
1395.9000;0.5779;-0.1682;
1396.2000;0.5788;-0.1753;
1396.5000;0.5788;-0.1682;
1396.8000;0.5788;-0.1635;
1397.1000;0.5779;-0.1659;
1397.4000;0.5771;-0.1682;
1397.7000;0.5796;-0.1611;
1398.0000;0.5771;-0.1659;
1398.3000;0.5861;-0.1445;
1398.6000;0.5771;-0.1777;
1398.9000;0.5771;-0.1801;
1399.2000;0.5788;-0.1777;
1399.5000;0.5804;-0.1682;
1399.8000;0.5796;-0.1635;
