time/ms;Fluo/V;P700 deltaI/I x10³;
-199.8000;0.6553;-0.1824;
-199.5000;0.6626;-0.1659;
-199.2000;0.6569;-0.1824;
-198.9000;0.6561;-0.1848;
-198.6000;0.6602;-0.1753;
-198.3000;0.6577;-0.1872;
-198.0000;0.6577;-0.1943;
-197.7000;0.6585;-0.1967;
-197.4000;0.6610;-0.1848;
-197.1000;0.6577;-0.1943;
-196.8000;0.6577;-0.1943;
-196.5000;0.6585;-0.1967;
-196.2000;0.6585;-0.1990;
-195.9000;0.6585;-0.1990;
-195.6000;0.6585;-0.2014;
-195.3000;0.6585;-0.1872;
-195.0000;0.6577;-0.1824;
-194.7000;0.6569;-0.1801;
-194.4000;0.6577;-0.1777;
-194.1000;0.6553;-0.1753;
-193.8000;0.6569;-0.1706;
-193.5000;0.6569;-0.1753;
-193.2000;0.6602;-0.1659;
-192.9000;0.6569;-0.1730;
-192.6000;0.6585;-0.1753;
-192.3000;0.6593;-0.1659;
-192.0000;0.6585;-0.1706;
-191.7000;0.6577;-0.1753;
-191.4000;0.6585;-0.1611;
-191.1000;0.6569;-0.1611;
-190.8000;0.6577;-0.1587;
-190.5000;0.6577;-0.1635;
-190.2000;0.6569;-0.1635;
-189.9000;0.6585;-0.1635;
-189.6000;0.6545;-0.1753;
-189.3000;0.6520;-0.1801;
-189.0000;0.6553;-0.1753;
-188.7000;0.6569;-0.1730;
-188.4000;0.6569;-0.1659;
-188.1000;0.6610;-0.1493;
-187.8000;0.6569;-0.1635;
-187.5000;0.6577;-0.1611;
-187.2000;0.6545;-0.1730;
-186.9000;0.6569;-0.1706;
-186.6000;0.6569;-0.1730;
-186.3000;0.6528;-0.1753;
-186.0000;0.6585;-0.1659;
-185.7000;0.6577;-0.1611;
-185.4000;0.6569;-0.1635;
-185.1000;0.6561;-0.1730;
-184.8000;0.6577;-0.1777;
-184.5000;0.6585;-0.1706;
-184.2000;0.6569;-0.1753;
-183.9000;0.6577;-0.1730;
-183.6000;0.6569;-0.1706;
-183.3000;0.6577;-0.1730;
-183.0000;0.6585;-0.1848;
-182.7000;0.6569;-0.1777;
-182.4000;0.6536;-0.1777;
-182.1000;0.6593;-0.1659;
-181.8000;0.6561;-0.1706;
-181.5000;0.6585;-0.1706;
-181.2000;0.6585;-0.1730;
-180.9000;0.6593;-0.1659;
-180.6000;0.6561;-0.1682;
-180.3000;0.6593;-0.1682;
-180.0000;0.6569;-0.1706;
-179.7000;0.6569;-0.1611;
-179.4000;0.6569;-0.1682;
-179.1000;0.6528;-0.1848;
-178.8000;0.6561;-0.1801;
-178.5000;0.6602;-0.1777;
-178.2000;0.6569;-0.1801;
-177.9000;0.6553;-0.1872;
-177.6000;0.6585;-0.1777;
-177.3000;0.6569;-0.1777;
-177.0000;0.6569;-0.1801;
-176.7000;0.6569;-0.1753;
-176.4000;0.6569;-0.1659;
-176.1000;0.6561;-0.1659;
-175.8000;0.6585;-0.1611;
-175.5000;0.6569;-0.1635;
-175.2000;0.6585;-0.1611;
-174.9000;0.6569;-0.1635;
-174.6000;0.6602;-0.1611;
-174.3000;0.6577;-0.1659;
-174.0000;0.6569;-0.1730;
-173.7000;0.6577;-0.1730;
-173.4000;0.6585;-0.1706;
-173.1000;0.6561;-0.1682;
-172.8000;0.6577;-0.1659;
-172.5000;0.6536;-0.1706;
-172.2000;0.6577;-0.1611;
-171.9000;0.6618;-0.1516;
-171.6000;0.6577;-0.1564;
-171.3000;0.6512;-0.1682;
-171.0000;0.6602;-0.1469;
-170.7000;0.6512;-0.1682;
-170.4000;0.6520;-0.1682;
-170.1000;0.6585;-0.1635;
-169.8000;0.6561;-0.1635;
-169.5000;0.6569;-0.1659;
-169.2000;0.6618;-0.1516;
-168.9000;0.6536;-0.1540;
-168.6000;0.6577;-0.1422;
-168.3000;0.6569;-0.1469;
-168.0000;0.6577;-0.1493;
-167.7000;0.6561;-0.1469;
-167.4000;0.6577;-0.1445;
-167.1000;0.6561;-0.1445;
-166.8000;0.6577;-0.1422;
-166.5000;0.6545;-0.1469;
-166.2000;0.6536;-0.1587;
-165.9000;0.6593;-0.1564;
-165.6000;0.6577;-0.1659;
-165.3000;0.6569;-0.1635;
-165.0000;0.6585;-0.1659;
-164.7000;0.6569;-0.1706;
-164.4000;0.6569;-0.1706;
-164.1000;0.6528;-0.1777;
-163.8000;0.6561;-0.1659;
-163.5000;0.6577;-0.1706;
-163.2000;0.6585;-0.1753;
-162.9000;0.6528;-0.1895;
-162.6000;0.6626;-0.1587;
-162.3000;0.6642;-0.1516;
-162.0000;0.6577;-0.1659;
-161.7000;0.6577;-0.1682;
-161.4000;0.6545;-0.1777;
-161.1000;0.6561;-0.1682;
-160.8000;0.6602;-0.1540;
-160.5000;0.6585;-0.1564;
-160.2000;0.6569;-0.1587;
-159.9000;0.6585;-0.1516;
-159.6000;0.6569;-0.1587;
-159.3000;0.6577;-0.1635;
-159.0000;0.6585;-0.1706;
-158.7000;0.6569;-0.1706;
-158.4000;0.6569;-0.1753;
-158.1000;0.6569;-0.1730;
-157.8000;0.6569;-0.1777;
-157.5000;0.6585;-0.1801;
-157.2000;0.6569;-0.1777;
-156.9000;0.6569;-0.1706;
-156.6000;0.6577;-0.1682;
-156.3000;0.6585;-0.1611;
-156.0000;0.6545;-0.1587;
-155.7000;0.6561;-0.1493;
-155.4000;0.6561;-0.1493;
-155.1000;0.6569;-0.1374;
-154.8000;0.6577;-0.1398;
-154.5000;0.6585;-0.1445;
-154.2000;0.6585;-0.1516;
-153.9000;0.6569;-0.1611;
-153.6000;0.6561;-0.1682;
-153.3000;0.6569;-0.1753;
-153.0000;0.6569;-0.1777;
-152.7000;0.6569;-0.1682;
-152.4000;0.6577;-0.1659;
-152.1000;0.6545;-0.1753;
-151.8000;0.6545;-0.1848;
-151.5000;0.6561;-0.1777;
-151.2000;0.6569;-0.1777;
-150.9000;0.6561;-0.1872;
-150.6000;0.6569;-0.1824;
-150.3000;0.6561;-0.1682;
-150.0000;0.6528;-0.1753;
-149.7000;0.6561;-0.1611;
-149.4000;0.6553;-0.1730;
-149.1000;0.6569;-0.1682;
-148.8000;0.6602;-0.1587;
-148.5000;0.6545;-0.1730;
-148.2000;0.6561;-0.1611;
-147.9000;0.6569;-0.1564;
-147.6000;0.6602;-0.1422;
-147.3000;0.6585;-0.1493;
-147.0000;0.6585;-0.1445;
-146.7000;0.6593;-0.1445;
-146.4000;0.6577;-0.1587;
-146.1000;0.6577;-0.1635;
-145.8000;0.6553;-0.1682;
-145.5000;0.6659;-0.1422;
-145.2000;0.6626;-0.1564;
-144.9000;0.6577;-0.1706;
-144.6000;0.6561;-0.1777;
-144.3000;0.6561;-0.1730;
-144.0000;0.6593;-0.1635;
-143.7000;0.6585;-0.1635;
-143.4000;0.6569;-0.1564;
-143.1000;0.6536;-0.1682;
-142.8000;0.6553;-0.1635;
-142.5000;0.6667;-0.1374;
-142.2000;0.6585;-0.1611;
-141.9000;0.6618;-0.1516;
-141.6000;0.6528;-0.1682;
-141.3000;0.6553;-0.1587;
-141.0000;0.6577;-0.1469;
-140.7000;0.6569;-0.1564;
-140.4000;0.6512;-0.1706;
-140.1000;0.6545;-0.1706;
-139.8000;0.6528;-0.1706;
-139.5000;0.6545;-0.1611;
-139.2000;0.6561;-0.1587;
-138.9000;0.6577;-0.1564;
-138.6000;0.6626;-0.1564;
-138.3000;0.6561;-0.1659;
-138.0000;0.6585;-0.1706;
-137.7000;0.6577;-0.1730;
-137.4000;0.6593;-0.1706;
-137.1000;0.6593;-0.1753;
-136.8000;0.6577;-0.1753;
-136.5000;0.6561;-0.1801;
-136.2000;0.6561;-0.1824;
-135.9000;0.6585;-0.1753;
-135.6000;0.6528;-0.1895;
-135.3000;0.6585;-0.1777;
-135.0000;0.6569;-0.1848;
-134.7000;0.6585;-0.1801;
-134.4000;0.6577;-0.1872;
-134.1000;0.6593;-0.1824;
-133.8000;0.6577;-0.1824;
-133.5000;0.6593;-0.1777;
-133.2000;0.6577;-0.1848;
-132.9000;0.6593;-0.1777;
-132.6000;0.6577;-0.1777;
-132.3000;0.6577;-0.1753;
-132.0000;0.6545;-0.1730;
-131.7000;0.6585;-0.1682;
-131.4000;0.6585;-0.1753;
-131.1000;0.6659;-0.1516;
-130.8000;0.6585;-0.1611;
-130.5000;0.6569;-0.1706;
-130.2000;0.6569;-0.1611;
-129.9000;0.6577;-0.1611;
-129.6000;0.6585;-0.1540;
-129.3000;0.6577;-0.1635;
-129.0000;0.6545;-0.1706;
-128.7000;0.6569;-0.1659;
-128.4000;0.6593;-0.1635;
-128.1000;0.6577;-0.1753;
-127.8000;0.6577;-0.1706;
-127.5000;0.6520;-0.1777;
-127.2000;0.6577;-0.1611;
-126.9000;0.6561;-0.1706;
-126.6000;0.6561;-0.1730;
-126.3000;0.6569;-0.1730;
-126.0000;0.6585;-0.1706;
-125.7000;0.6553;-0.1753;
-125.4000;0.6561;-0.1730;
-125.1000;0.6569;-0.1730;
-124.8000;0.6585;-0.1659;
-124.5000;0.6528;-0.1801;
-124.2000;0.6569;-0.1659;
-123.9000;0.6569;-0.1611;
-123.6000;0.6569;-0.1659;
-123.3000;0.6577;-0.1635;
-123.0000;0.6577;-0.1659;
-122.7000;0.6536;-0.1824;
-122.4000;0.6561;-0.1801;
-122.1000;0.6561;-0.1730;
-121.8000;0.6626;-0.1587;
-121.5000;0.6520;-0.1824;
-121.2000;0.6561;-0.1730;
-120.9000;0.6569;-0.1730;
-120.6000;0.6585;-0.1611;
-120.3000;0.6561;-0.1635;
-120.0000;0.6561;-0.1540;
-119.7000;0.6520;-0.1682;
-119.4000;0.6536;-0.1706;
-119.1000;0.6585;-0.1587;
-118.8000;0.6569;-0.1540;
-118.5000;0.6634;-0.1422;
-118.2000;0.6585;-0.1516;
-117.9000;0.6577;-0.1564;
-117.6000;0.6593;-0.1611;
-117.3000;0.6569;-0.1706;
-117.0000;0.6585;-0.1635;
-116.7000;0.6585;-0.1587;
-116.4000;0.6585;-0.1635;
-116.1000;0.6528;-0.1730;
-115.8000;0.6569;-0.1587;
-115.5000;0.6569;-0.1516;
-115.2000;0.6577;-0.1469;
-114.9000;0.6561;-0.1493;
-114.6000;0.6553;-0.1564;
-114.3000;0.6569;-0.1564;
-114.0000;0.6553;-0.1730;
-113.7000;0.6561;-0.1706;
-113.4000;0.6577;-0.1706;
-113.1000;0.6561;-0.1753;
-112.8000;0.6569;-0.1777;
-112.5000;0.6585;-0.1730;
-112.2000;0.6577;-0.1682;
-111.9000;0.6577;-0.1635;
-111.6000;0.6577;-0.1635;
-111.3000;0.6536;-0.1706;
-111.0000;0.6569;-0.1611;
-110.7000;0.6569;-0.1516;
-110.4000;0.6569;-0.1540;
-110.1000;0.6561;-0.1516;
-109.8000;0.6569;-0.1587;
-109.5000;0.6561;-0.1706;
-109.2000;0.6577;-0.1730;
-108.9000;0.6569;-0.1753;
-108.6000;0.6577;-0.1730;
-108.3000;0.6536;-0.1777;
-108.0000;0.6577;-0.1635;
-107.7000;0.6569;-0.1682;
-107.4000;0.6577;-0.1611;
-107.1000;0.6577;-0.1564;
-106.8000;0.6577;-0.1564;
-106.5000;0.6585;-0.1564;
-106.2000;0.6585;-0.1635;
-105.9000;0.6561;-0.1801;
-105.6000;0.6561;-0.1801;
-105.3000;0.6569;-0.1753;
-105.0000;0.6585;-0.1659;
-104.7000;0.6569;-0.1706;
-104.4000;0.6585;-0.1730;
-104.1000;0.6561;-0.1824;
-103.8000;0.6561;-0.1706;
-103.5000;0.6610;-0.1635;
-103.2000;0.6561;-0.1753;
-102.9000;0.6585;-0.1706;
-102.6000;0.6585;-0.1635;
-102.3000;0.6610;-0.1516;
-102.0000;0.6618;-0.1445;
-101.7000;0.6577;-0.1469;
-101.4000;0.6553;-0.1493;
-101.1000;0.6577;-0.1445;
-100.8000;0.6577;-0.1398;
-100.5000;0.6569;-0.1493;
-100.2000;0.6585;-0.1469;
-99.9000;0.6569;-0.1493;
-99.6000;0.6569;-0.1516;
-99.3000;0.6577;-0.1493;
-99.0000;0.6585;-0.1493;
-98.7000;0.6569;-0.1611;
-98.4000;0.6577;-0.1587;
-98.1000;0.6569;-0.1564;
-97.8000;0.6577;-0.1516;
-97.5000;0.6585;-0.1445;
-97.2000;0.6577;-0.1469;
-96.9000;0.6561;-0.1469;
-96.6000;0.6577;-0.1611;
-96.3000;0.6577;-0.1706;
-96.0000;0.6561;-0.1682;
-95.7000;0.6561;-0.1635;
-95.4000;0.6577;-0.1587;
-95.1000;0.6577;-0.1469;
-94.8000;0.6569;-0.1516;
-94.5000;0.6569;-0.1611;
-94.2000;0.6569;-0.1564;
-93.9000;0.6569;-0.1493;
-93.6000;0.6577;-0.1493;
-93.3000;0.6577;-0.1493;
-93.0000;0.6577;-0.1493;
-92.7000;0.6569;-0.1564;
-92.4000;0.6561;-0.1493;
-92.1000;0.6577;-0.1445;
-91.8000;0.6561;-0.1516;
-91.5000;0.6545;-0.1493;
-91.2000;0.6561;-0.1469;
-90.9000;0.6569;-0.1540;
-90.6000;0.6577;-0.1587;
-90.3000;0.6561;-0.1564;
-90.0000;0.6569;-0.1587;
-89.7000;0.6585;-0.1540;
-89.4000;0.6561;-0.1516;
-89.1000;0.6569;-0.1422;
-88.8000;0.6577;-0.1398;
-88.5000;0.6577;-0.1374;
-88.2000;0.6593;-0.1398;
-87.9000;0.6585;-0.1445;
-87.6000;0.6569;-0.1445;
-87.3000;0.6577;-0.1374;
-87.0000;0.6585;-0.1327;
-86.7000;0.6610;-0.1303;
-86.4000;0.6553;-0.1374;
-86.1000;0.6585;-0.1303;
-85.8000;0.6577;-0.1279;
-85.5000;0.6569;-0.1303;
-85.2000;0.6553;-0.1422;
-84.9000;0.6569;-0.1374;
-84.6000;0.6520;-0.1445;
-84.3000;0.6569;-0.1445;
-84.0000;0.6577;-0.1422;
-83.7000;0.6642;-0.1327;
-83.4000;0.6569;-0.1540;
-83.1000;0.6553;-0.1682;
-82.8000;0.6553;-0.1682;
-82.5000;0.6561;-0.1611;
-82.2000;0.6577;-0.1587;
-81.9000;0.6569;-0.1659;
-81.6000;0.6569;-0.1635;
-81.3000;0.6545;-0.1659;
-81.0000;0.6569;-0.1635;
-80.7000;0.6585;-0.1659;
-80.4000;0.6569;-0.1730;
-80.1000;0.6569;-0.1848;
-79.8000;0.6577;-0.1777;
-79.5000;0.6577;-0.1753;
-79.2000;0.6569;-0.1801;
-78.9000;0.6561;-0.1801;
-78.6000;0.6593;-0.1706;
-78.3000;0.6585;-0.1801;
-78.0000;0.6602;-0.1659;
-77.7000;0.6577;-0.1730;
-77.4000;0.6569;-0.1777;
-77.1000;0.6577;-0.1730;
-76.8000;0.6577;-0.1777;
-76.5000;0.6561;-0.1777;
-76.2000;0.6585;-0.1706;
-75.9000;0.6569;-0.1682;
-75.6000;0.6577;-0.1682;
-75.3000;0.6569;-0.1753;
-75.0000;0.6577;-0.1730;
-74.7000;0.6569;-0.1730;
-74.4000;0.6569;-0.1706;
-74.1000;0.6569;-0.1706;
-73.8000;0.6577;-0.1682;
-73.5000;0.6561;-0.1706;
-73.2000;0.6585;-0.1682;
-72.9000;0.6561;-0.1730;
-72.6000;0.6569;-0.1706;
-72.3000;0.6577;-0.1659;
-72.0000;0.6569;-0.1635;
-71.7000;0.6561;-0.1611;
-71.4000;0.6561;-0.1587;
-71.1000;0.6569;-0.1564;
-70.8000;0.6561;-0.1564;
-70.5000;0.6569;-0.1564;
-70.2000;0.6545;-0.1587;
-69.9000;0.6561;-0.1659;
-69.6000;0.6553;-0.1635;
-69.3000;0.6569;-0.1540;
-69.0000;0.6569;-0.1587;
-68.7000;0.6585;-0.1516;
-68.4000;0.6569;-0.1611;
-68.1000;0.6569;-0.1611;
-67.8000;0.6545;-0.1587;
-67.5000;0.6577;-0.1516;
-67.2000;0.6569;-0.1587;
-66.9000;0.6569;-0.1540;
-66.6000;0.6577;-0.1445;
-66.3000;0.6561;-0.1516;
-66.0000;0.6577;-0.1564;
-65.7000;0.6585;-0.1635;
-65.4000;0.6602;-0.1564;
-65.1000;0.6577;-0.1706;
-64.8000;0.6585;-0.1587;
-64.5000;0.6585;-0.1635;
-64.2000;0.6593;-0.1682;
-63.9000;0.6569;-0.1824;
-63.6000;0.6585;-0.1682;
-63.3000;0.6569;-0.1706;
-63.0000;0.6585;-0.1753;
-62.7000;0.6577;-0.1824;
-62.4000;0.6577;-0.1895;
-62.1000;0.6577;-0.1824;
-61.8000;0.6585;-0.1777;
-61.5000;0.6577;-0.1706;
-61.2000;0.6569;-0.1611;
-60.9000;0.6561;-0.1682;
-60.6000;0.6569;-0.1682;
-60.3000;0.6561;-0.1706;
-60.0000;0.6585;-0.1635;
-59.7000;0.6569;-0.1635;
-59.4000;0.6585;-0.1587;
-59.1000;0.6577;-0.1706;
-58.8000;0.6577;-0.1659;
-58.5000;0.6528;-0.1659;
-58.2000;0.6593;-0.1422;
-57.9000;0.6577;-0.1469;
-57.6000;0.6528;-0.1682;
-57.3000;0.6545;-0.1611;
-57.0000;0.6569;-0.1611;
-56.7000;0.6569;-0.1682;
-56.4000;0.6577;-0.1611;
-56.1000;0.6561;-0.1564;
-55.8000;0.6553;-0.1659;
-55.5000;0.6585;-0.1587;
-55.2000;0.6569;-0.1635;
-54.9000;0.6569;-0.1635;
-54.6000;0.6569;-0.1587;
-54.3000;0.6569;-0.1635;
-54.0000;0.6577;-0.1564;
-53.7000;0.6536;-0.1659;
-53.4000;0.6569;-0.1611;
-53.1000;0.6561;-0.1540;
-52.8000;0.6593;-0.1516;
-52.5000;0.6618;-0.1445;
-52.2000;0.6577;-0.1564;
-51.9000;0.6569;-0.1564;
-51.6000;0.6593;-0.1398;
-51.3000;0.6577;-0.1469;
-51.0000;0.6569;-0.1540;
-50.7000;0.6561;-0.1516;
-50.4000;0.6569;-0.1469;
-50.1000;0.6585;-0.1540;
-49.8000;0.6593;-0.1587;
-49.5000;0.6585;-0.1587;
-49.2000;0.6577;-0.1587;
-48.9000;0.6593;-0.1587;
-48.6000;0.6585;-0.1493;
-48.3000;0.6569;-0.1587;
-48.0000;0.6553;-0.1564;
-47.7000;0.6602;-0.1469;
-47.4000;0.6602;-0.1445;
-47.1000;0.6577;-0.1516;
-46.8000;0.6561;-0.1493;
-46.5000;0.6561;-0.1540;
-46.2000;0.6626;-0.1398;
-45.9000;0.6618;-0.1469;
-45.6000;0.6577;-0.1493;
-45.3000;0.6545;-0.1469;
-45.0000;0.6577;-0.1374;
-44.7000;0.6577;-0.1469;
-44.4000;0.6561;-0.1469;
-44.1000;0.6577;-0.1422;
-43.8000;0.6585;-0.1469;
-43.5000;0.6577;-0.1516;
-43.2000;0.6577;-0.1635;
-42.9000;0.6577;-0.1659;
-42.6000;0.6602;-0.1682;
-42.3000;0.6602;-0.1659;
-42.0000;0.6569;-0.1730;
-41.7000;0.6561;-0.1753;
-41.4000;0.6553;-0.1801;
-41.1000;0.6585;-0.1753;
-40.8000;0.6569;-0.1848;
-40.5000;0.6561;-0.1848;
-40.2000;0.6561;-0.1824;
-39.9000;0.6569;-0.1777;
-39.6000;0.6569;-0.1659;
-39.3000;0.6577;-0.1659;
-39.0000;0.6569;-0.1682;
-38.7000;0.6569;-0.1706;
-38.4000;0.6585;-0.1706;
-38.1000;0.6569;-0.1635;
-37.8000;0.6569;-0.1635;
-37.5000;0.6553;-0.1682;
-37.2000;0.6569;-0.1659;
-36.9000;0.6553;-0.1659;
-36.6000;0.6545;-0.1635;
-36.3000;0.6553;-0.1611;
-36.0000;0.6553;-0.1587;
-35.7000;0.6577;-0.1540;
-35.4000;0.6545;-0.1682;
-35.1000;0.6569;-0.1753;
-34.8000;0.6569;-0.1801;
-34.5000;0.6593;-0.1753;
-34.2000;0.6545;-0.1753;
-33.9000;0.6577;-0.1564;
-33.6000;0.6553;-0.1611;
-33.3000;0.6577;-0.1516;
-33.0000;0.6569;-0.1493;
-32.7000;0.6561;-0.1493;
-32.4000;0.6569;-0.1540;
-32.1000;0.6602;-0.1564;
-31.8000;0.6561;-0.1635;
-31.5000;0.6569;-0.1611;
-31.2000;0.6577;-0.1587;
-30.9000;0.6577;-0.1587;
-30.6000;0.6569;-0.1659;
-30.3000;0.6626;-0.1516;
-30.0000;0.6512;-0.1777;
-29.7000;0.6561;-0.1659;
-29.4000;0.6569;-0.1659;
-29.1000;0.6618;-0.1516;
-28.8000;0.6553;-0.1611;
-28.5000;0.6536;-0.1706;
-28.2000;0.6585;-0.1587;
-27.9000;0.6569;-0.1659;
-27.6000;0.6569;-0.1659;
-27.3000;0.6577;-0.1635;
-27.0000;0.6577;-0.1706;
-26.7000;0.6528;-0.1801;
-26.4000;0.6561;-0.1682;
-26.1000;0.6561;-0.1564;
-25.8000;0.6569;-0.1587;
-25.5000;0.6561;-0.1587;
-25.2000;0.6561;-0.1635;
-24.9000;0.6561;-0.1564;
-24.6000;0.6585;-0.1516;
-24.3000;0.6577;-0.1516;
-24.0000;0.6569;-0.1587;
-23.7000;0.6569;-0.1611;
-23.4000;0.6553;-0.1659;
-23.1000;0.6569;-0.1611;
-22.8000;0.6577;-0.1659;
-22.5000;0.6577;-0.1587;
-22.2000;0.6569;-0.1540;
-21.9000;0.6569;-0.1611;
-21.6000;0.6561;-0.1730;
-21.3000;0.6569;-0.1706;
-21.0000;0.6569;-0.1801;
-20.7000;0.6577;-0.1730;
-20.4000;0.6569;-0.1730;
-20.1000;0.6569;-0.1777;
-19.8000;0.6569;-0.1848;
-19.5000;0.6577;-0.1848;
-19.2000;0.6577;-0.1895;
-18.9000;0.6536;-0.2038;
-18.6000;0.6561;-0.1967;
-18.3000;0.6553;-0.1943;
-18.0000;0.6585;-0.1824;
-17.7000;0.6561;-0.1824;
-17.4000;0.6569;-0.1895;
-17.1000;0.6577;-0.1777;
-16.8000;0.6520;-0.1967;
-16.5000;0.6569;-0.1824;
-16.2000;0.6569;-0.1753;
-15.9000;0.6553;-0.1801;
-15.6000;0.6577;-0.1730;
-15.3000;0.6528;-0.1872;
-15.0000;0.6577;-0.1801;
-14.7000;0.6569;-0.1848;
-14.4000;0.6569;-0.1848;
-14.1000;0.6569;-0.1895;
-13.8000;0.6569;-0.1824;
-13.5000;0.6553;-0.1777;
-13.2000;0.6577;-0.1706;
-12.9000;0.6577;-0.1730;
-12.6000;0.6577;-0.1801;
-12.3000;0.6577;-0.1872;
-12.0000;0.6545;-0.1895;
-11.7000;0.6569;-0.1872;
-11.4000;0.6577;-0.1801;
-11.1000;0.6585;-0.1730;
-10.8000;0.6577;-0.1730;
-10.5000;0.6602;-0.1730;
-10.2000;0.6577;-0.1730;
-9.9000;0.6569;-0.1824;
-9.6000;0.6553;-0.1753;
-9.3000;0.6561;-0.1706;
-9.0000;0.6569;-0.1730;
-8.7000;0.6553;-0.1801;
-8.4000;0.6577;-0.1777;
-8.1000;0.6553;-0.1848;
-7.8000;0.6561;-0.1824;
-7.5000;0.6545;-0.1919;
-7.2000;0.6569;-0.1872;
-6.9000;0.6561;-0.1895;
-6.6000;0.6569;-0.1872;
-6.3000;0.6585;-0.1824;
-6.0000;0.6569;-0.1801;
-5.7000;0.6577;-0.1730;
-5.4000;0.6569;-0.1659;
-5.1000;0.6569;-0.1587;
-4.8000;0.6585;-0.1611;
-4.5000;0.6610;-0.1635;
-4.2000;0.6577;-0.1777;
-3.9000;0.6569;-0.1801;
-3.6000;0.6553;-0.1872;
-3.3000;0.6569;-0.1848;
-3.0000;0.6553;-0.1895;
-2.7000;0.6553;-0.1777;
-2.4000;0.6561;-0.1848;
-2.1000;0.6545;-0.1895;
-1.8000;0.6553;-0.1824;
-1.5000;0.6569;-0.1801;
-1.2000;0.6569;-0.1801;
-0.9000;0.6545;-0.1990;
-0.6000;0.6561;-0.1895;
-0.3000;0.6520;-0.1919;
0.0000;0.6520;-0.1919;
0.3000;0.6813;-0.1303;
0.6000;0.7277;-0.0592;
0.9000;0.7668;0.0071;
1.2000;0.7945;0.0640;
1.5000;0.8189;0.1161;
1.8000;0.8327;0.1469;
2.1000;0.8506;0.1872;
2.4000;0.8612;0.2203;
2.7000;0.8726;0.2488;
3.0000;0.8799;0.2654;
3.3000;0.8848;0.2701;
3.6000;0.8946;0.2867;
3.9000;0.8970;0.2985;
4.2000;0.9019;0.3127;
4.5000;0.9076;0.3222;
4.8000;0.9084;0.3222;
5.1000;0.9198;0.3412;
5.4000;0.9149;0.3293;
5.7000;0.9288;0.3530;
6.0000;0.9231;0.3435;
6.3000;0.9288;0.3530;
6.6000;0.9296;0.3530;
6.9000;0.9296;0.3578;
7.2000;0.9353;0.3767;
7.5000;0.9377;0.3791;
7.8000;0.9377;0.3791;
8.1000;0.9426;0.3886;
8.4000;0.9426;0.3791;
8.7000;0.9426;0.3720;
9.0000;0.9532;0.3909;
9.3000;0.9589;0.4004;
9.6000;0.9573;0.3767;
9.9000;0.9581;0.3649;
10.2000;0.9597;0.3672;
10.5000;0.9678;0.3625;
10.8000;0.9670;0.3483;
11.1000;0.9678;0.3483;
11.4000;0.9670;0.3364;
11.7000;0.9719;0.3435;
12.0000;0.9744;0.3412;
12.3000;0.9760;0.3435;
12.6000;0.9711;0.3341;
12.9000;0.9809;0.3507;
13.2000;0.9817;0.3530;
13.5000;0.9858;0.3530;
13.8000;0.9866;0.3507;
14.1000;0.9890;0.3435;
14.4000;0.9923;0.3530;
14.7000;0.9939;0.3554;
15.0000;0.9947;0.3530;
15.3000;0.9963;0.3435;
15.6000;0.9996;0.3412;
15.9000;0.9980;0.3270;
16.2000;1.0004;0.3270;
16.5000;1.0045;0.3293;
16.8000;1.0102;0.3412;
17.1000;1.0077;0.3341;
17.4000;1.0069;0.3293;
17.7000;1.0110;0.3317;
18.0000;1.0110;0.3293;
18.3000;1.0110;0.3341;
18.6000;1.0134;0.3364;
18.9000;1.0151;0.3341;
19.2000;1.0167;0.3270;
19.5000;1.0175;0.3341;
19.8000;1.0199;0.3364;
20.1000;1.0240;0.3341;
20.4000;1.0240;0.3388;
20.7000;1.0248;0.3341;
21.0000;1.0240;0.3246;
21.3000;1.0265;0.3246;
21.6000;1.0273;0.3270;
21.9000;1.0297;0.3388;
22.2000;1.0289;0.3459;
22.5000;1.0297;0.3388;
22.8000;1.0297;0.3388;
23.1000;1.0338;0.3459;
23.4000;1.0322;0.3364;
23.7000;1.0305;0.3199;
24.0000;1.0322;0.3246;
24.3000;1.0354;0.3341;
24.6000;1.0362;0.3293;
24.9000;1.0387;0.3293;
25.2000;1.0395;0.3246;
25.5000;1.0403;0.3199;
25.8000;1.0395;0.3222;
26.1000;1.0411;0.3317;
26.4000;1.0427;0.3270;
26.7000;1.0387;0.3199;
27.0000;1.0419;0.3270;
27.3000;1.0427;0.3246;
27.6000;1.0452;0.3175;
27.9000;1.0468;0.3222;
28.2000;1.0492;0.3246;
28.5000;1.0468;0.3199;
28.8000;1.0444;0.3127;
29.1000;1.0492;0.3175;
29.4000;1.0476;0.3127;
29.7000;1.0517;0.3127;
30.0000;1.0509;0.3151;
30.3000;1.0509;0.3175;
30.6000;1.0525;0.3341;
30.9000;1.0533;0.3388;
31.2000;1.0492;0.3270;
31.5000;1.0517;0.3246;
31.8000;1.0533;0.3270;
32.1000;1.0549;0.3246;
32.4000;1.0549;0.3270;
32.7000;1.0574;0.3199;
33.0000;1.0615;0.3317;
33.3000;1.0574;0.3199;
33.6000;1.0590;0.3127;
33.9000;1.0574;0.3056;
34.2000;1.0574;0.3033;
34.5000;1.0590;0.3056;
34.8000;1.0598;0.3080;
35.1000;1.0615;0.3033;
35.4000;1.0582;0.2962;
35.7000;1.0606;0.3033;
36.0000;1.0639;0.3056;
36.3000;1.0615;0.2985;
36.6000;1.0615;0.2962;
36.9000;1.0606;0.2914;
37.2000;1.0606;0.2891;
37.5000;1.0615;0.2938;
37.8000;1.0615;0.2962;
38.1000;1.0672;0.3151;
38.4000;1.0615;0.3056;
38.7000;1.0631;0.2985;
39.0000;1.0615;0.2938;
39.3000;1.0615;0.2914;
39.6000;1.0615;0.2962;
39.9000;1.0655;0.2962;
40.2000;1.0647;0.2891;
40.5000;1.0655;0.2891;
40.8000;1.0655;0.2938;
41.1000;1.0663;0.2938;
41.4000;1.0655;0.2891;
41.7000;1.0672;0.2891;
42.0000;1.0655;0.2819;
42.3000;1.0729;0.3033;
42.6000;1.0663;0.2891;
42.9000;1.0663;0.2891;
43.2000;1.0647;0.2867;
43.5000;1.0655;0.2938;
43.8000;1.0680;0.3127;
44.1000;1.0672;0.3151;
44.4000;1.0688;0.3127;
44.7000;1.0688;0.3080;
45.0000;1.0704;0.3199;
45.3000;1.0777;0.3412;
45.6000;1.0704;0.3151;
45.9000;1.0704;0.3104;
46.2000;1.0696;0.3104;
46.5000;1.0696;0.3104;
46.8000;1.0672;0.2891;
47.1000;1.0696;0.2914;
47.4000;1.0712;0.2914;
47.7000;1.0647;0.2819;
48.0000;1.0696;0.2914;
48.3000;1.0688;0.2914;
48.6000;1.0712;0.2985;
48.9000;1.0720;0.2985;
49.2000;1.0712;0.2962;
49.5000;1.0696;0.2962;
49.8000;1.0720;0.2938;
50.1000;1.0729;0.2914;
50.4000;1.0720;0.2938;
50.7000;1.0729;0.2914;
51.0000;1.0737;0.2796;
51.3000;1.0745;0.2796;
51.6000;1.0777;0.2867;
51.9000;1.0761;0.2819;
52.2000;1.0745;0.2843;
52.5000;1.0737;0.2867;
52.8000;1.0745;0.2938;
53.1000;1.0720;0.2891;
53.4000;1.0745;0.2867;
53.7000;1.0737;0.2772;
54.0000;1.0745;0.2772;
54.3000;1.0753;0.2843;
54.6000;1.0729;0.2843;
54.9000;1.0737;0.2867;
55.2000;1.0745;0.2796;
55.5000;1.0704;0.2772;
55.8000;1.0720;0.2914;
56.1000;1.0729;0.2938;
56.4000;1.0737;0.3009;
56.7000;1.0745;0.3033;
57.0000;1.0745;0.3127;
57.3000;1.0810;0.3175;
57.6000;1.0761;0.3033;
57.9000;1.0769;0.2962;
58.2000;1.0769;0.2891;
58.5000;1.0761;0.2843;
58.8000;1.0769;0.2843;
59.1000;1.0769;0.2843;
59.4000;1.0753;0.2819;
59.7000;1.0769;0.2819;
60.0000;1.0761;0.2843;
60.3000;1.0786;0.2867;
60.6000;1.0777;0.2891;
60.9000;1.0810;0.2985;
61.2000;1.0777;0.2819;
61.5000;1.0761;0.2819;
61.8000;1.0769;0.2891;
62.1000;1.0794;0.2867;
62.4000;1.0786;0.2938;
62.7000;1.0867;0.3151;
63.0000;1.0769;0.2891;
63.3000;1.0818;0.2985;
63.6000;1.0851;0.3056;
63.9000;1.0794;0.2914;
64.2000;1.0810;0.2914;
64.5000;1.0826;0.2914;
64.8000;1.0777;0.2796;
65.1000;1.0786;0.2772;
65.4000;1.0777;0.2772;
65.7000;1.0802;0.2843;
66.0000;1.0786;0.2796;
66.3000;1.0777;0.2796;
66.6000;1.0786;0.2748;
66.9000;1.0769;0.2677;
67.2000;1.0794;0.2748;
67.5000;1.0777;0.2867;
67.8000;1.0794;0.2796;
68.1000;1.0794;0.2819;
68.4000;1.0810;0.2891;
68.7000;1.0810;0.2938;
69.0000;1.0818;0.2843;
69.3000;1.0810;0.2772;
69.6000;1.0777;0.2630;
69.9000;1.0810;0.2654;
70.2000;1.0802;0.2559;
70.5000;1.0818;0.2606;
70.8000;1.0834;0.2772;
71.1000;1.0802;0.2677;
71.4000;1.0802;0.2677;
71.7000;1.0818;0.2677;
72.0000;1.0794;0.2677;
72.3000;1.0810;0.2725;
72.6000;1.0802;0.2772;
72.9000;1.0818;0.2867;
73.2000;1.0818;0.2843;
73.5000;1.0818;0.2725;
73.8000;1.0826;0.2748;
74.1000;1.0810;0.2725;
74.4000;1.0834;0.2725;
74.7000;1.0891;0.2867;
75.0000;1.0842;0.2748;
75.3000;1.0810;0.2654;
75.6000;1.0859;0.2701;
75.9000;1.0810;0.2583;
76.2000;1.0826;0.2677;
76.5000;1.0834;0.2725;
76.8000;1.0826;0.2725;
77.1000;1.0786;0.2606;
77.4000;1.0842;0.2725;
77.7000;1.0810;0.2606;
78.0000;1.0818;0.2559;
78.3000;1.0794;0.2440;
78.6000;1.0826;0.2488;
78.9000;1.0818;0.2393;
79.2000;1.0818;0.2488;
79.5000;1.0834;0.2440;
79.8000;1.0842;0.2535;
80.1000;1.0810;0.2440;
80.4000;1.0810;0.2346;
80.7000;1.0818;0.2275;
81.0000;1.0851;0.2322;
81.3000;1.0826;0.2275;
81.6000;1.0818;0.2322;
81.9000;1.0818;0.2227;
82.2000;1.0851;0.2322;
82.5000;1.0842;0.2417;
82.8000;1.0777;0.2275;
83.1000;1.0851;0.2464;
83.4000;1.0834;0.2393;
83.7000;1.0834;0.2369;
84.0000;1.0753;0.2298;
84.3000;1.0842;0.2511;
84.6000;1.0826;0.2464;
84.9000;1.0875;0.2630;
85.2000;1.0818;0.2464;
85.5000;1.0842;0.2535;
85.8000;1.0786;0.2440;
86.1000;1.0842;0.2583;
86.4000;1.0834;0.2559;
86.7000;1.0842;0.2511;
87.0000;1.0818;0.2488;
87.3000;1.0859;0.2583;
87.6000;1.0908;0.2654;
87.9000;1.0916;0.2583;
88.2000;1.0859;0.2511;
88.5000;1.0883;0.2559;
88.8000;1.0859;0.2559;
89.1000;1.0842;0.2511;
89.4000;1.0851;0.2440;
89.7000;1.0834;0.2417;
90.0000;1.0867;0.2511;
90.3000;1.0899;0.2583;
90.6000;1.0851;0.2464;
90.9000;1.0899;0.2583;
91.2000;1.0851;0.2511;
91.5000;1.0851;0.2511;
91.8000;1.0859;0.2488;
92.1000;1.0842;0.2440;
92.4000;1.0883;0.2559;
92.7000;1.0867;0.2464;
93.0000;1.0851;0.2393;
93.3000;1.0851;0.2369;
93.6000;1.0851;0.2346;
93.9000;1.0859;0.2322;
94.2000;1.0851;0.2251;
94.5000;1.0867;0.2251;
94.8000;1.0916;0.2440;
95.1000;1.0875;0.2322;
95.4000;1.0867;0.2227;
95.7000;1.0859;0.2346;
96.0000;1.0842;0.2393;
96.3000;1.0859;0.2369;
96.6000;1.0851;0.2322;
96.9000;1.0842;0.2298;
97.2000;1.0834;0.2156;
97.5000;1.0867;0.2227;
97.8000;1.0859;0.2203;
98.1000;1.0875;0.2132;
98.4000;1.0867;0.2156;
98.7000;1.0875;0.2227;
99.0000;1.0883;0.2298;
99.3000;1.0875;0.2298;
99.6000;1.0883;0.2322;
99.9000;1.0867;0.2322;
100.2000;1.0875;0.2369;
100.5000;1.0867;0.2298;
100.8000;1.0834;0.2275;
101.1000;1.0859;0.2369;
101.4000;1.0834;0.2298;
101.7000;1.0851;0.2346;
102.0000;1.0867;0.2251;
102.3000;1.0867;0.2156;
102.6000;1.0818;0.2085;
102.9000;1.0875;0.2251;
103.2000;1.0851;0.2180;
103.5000;1.0867;0.2275;
103.8000;1.0867;0.2322;
104.1000;1.0883;0.2346;
104.4000;1.0883;0.2417;
104.7000;1.0851;0.2369;
105.0000;1.0867;0.2393;
105.3000;1.0875;0.2393;
105.6000;1.0851;0.2298;
105.9000;1.0859;0.2251;
106.2000;1.0859;0.2298;
106.5000;1.0891;0.2393;
106.8000;1.0851;0.2251;
107.1000;1.0859;0.2251;
107.4000;1.0859;0.2227;
107.7000;1.0875;0.2251;
108.0000;1.0891;0.2180;
108.3000;1.0883;0.2156;
108.6000;1.0891;0.2156;
108.9000;1.0867;0.2132;
109.2000;1.0899;0.2156;
109.5000;1.0899;0.2132;
109.8000;1.0908;0.2109;
110.1000;1.0883;0.2109;
110.4000;1.0899;0.2156;
110.7000;1.0883;0.2180;
111.0000;1.0875;0.2180;
111.3000;1.0883;0.2180;
111.6000;1.0875;0.2203;
111.9000;1.0891;0.2156;
112.2000;1.0875;0.2085;
112.5000;1.0924;0.2132;
112.8000;1.0867;0.2014;
113.1000;1.0883;0.2061;
113.4000;1.0883;0.2061;
113.7000;1.0875;0.2038;
114.0000;1.0883;0.2109;
114.3000;1.0883;0.2132;
114.6000;1.0891;0.2132;
114.9000;1.0883;0.2180;
115.2000;1.0883;0.2275;
115.5000;1.0867;0.2298;
115.8000;1.0883;0.2417;
116.1000;1.0908;0.2417;
116.4000;1.0875;0.2275;
116.7000;1.0899;0.2227;
117.0000;1.0916;0.2203;
117.3000;1.0875;0.2156;
117.6000;1.0883;0.2156;
117.9000;1.0883;0.2227;
118.2000;1.0891;0.2203;
118.5000;1.0883;0.2132;
118.8000;1.0916;0.2227;
119.1000;1.0875;0.2132;
119.4000;1.0891;0.2132;
119.7000;1.0891;0.2156;
120.0000;1.0867;0.2109;
120.3000;1.0867;0.2109;
120.6000;1.0875;0.2109;
120.9000;1.0916;0.2132;
121.2000;1.0899;0.2109;
121.5000;1.0891;0.2061;
121.8000;1.0899;0.2156;
122.1000;1.0899;0.2180;
122.4000;1.0883;0.2275;
122.7000;1.0899;0.2298;
123.0000;1.0883;0.2298;
123.3000;1.0916;0.2298;
123.6000;1.0916;0.2346;
123.9000;1.0891;0.2251;
124.2000;1.0899;0.2275;
124.5000;1.0908;0.2346;
124.8000;1.0899;0.2251;
125.1000;1.0883;0.2156;
125.4000;1.0883;0.2156;
125.7000;1.0916;0.2251;
126.0000;1.0859;0.2180;
126.3000;1.0908;0.2275;
126.6000;1.0859;0.2180;
126.9000;1.0908;0.2227;
127.2000;1.0867;0.2227;
127.5000;1.0916;0.2322;
127.8000;1.0908;0.2251;
128.1000;1.0891;0.2275;
128.4000;1.0924;0.2322;
128.7000;1.0899;0.2298;
129.0000;1.0883;0.2203;
129.3000;1.0899;0.2275;
129.6000;1.0899;0.2203;
129.9000;1.0908;0.2038;
130.2000;1.0916;0.2038;
130.5000;1.0908;0.2061;
130.8000;1.0908;0.2038;
131.1000;1.0916;0.1990;
131.4000;1.0908;0.2014;
131.7000;1.0908;0.1990;
132.0000;1.0891;0.1919;
132.3000;1.0908;0.1943;
132.6000;1.0883;0.1919;
132.9000;1.0883;0.1943;
133.2000;1.0891;0.1943;
133.5000;1.0899;0.1990;
133.8000;1.0908;0.2038;
134.1000;1.0875;0.1919;
134.4000;1.0899;0.2014;
134.7000;1.0916;0.2085;
135.0000;1.0883;0.2038;
135.3000;1.0883;0.1967;
135.6000;1.0891;0.1990;
135.9000;1.0899;0.2038;
136.2000;1.0899;0.2061;
136.5000;1.0899;0.2061;
136.8000;1.0908;0.2109;
137.1000;1.0908;0.2085;
137.4000;1.0908;0.2085;
137.7000;1.0908;0.1990;
138.0000;1.0867;0.1895;
138.3000;1.0899;0.1919;
138.6000;1.0899;0.1990;
138.9000;1.0899;0.2014;
139.2000;1.0899;0.2085;
139.5000;1.0891;0.1990;
139.8000;1.0899;0.1943;
140.1000;1.0924;0.2014;
140.4000;1.0916;0.2085;
140.7000;1.0916;0.2132;
141.0000;1.0867;0.2038;
141.3000;1.0908;0.2038;
141.6000;1.0891;0.2061;
141.9000;1.0883;0.1943;
142.2000;1.0891;0.2038;
142.5000;1.0916;0.2085;
142.8000;1.0826;0.1919;
143.1000;1.0932;0.2156;
143.4000;1.0875;0.1967;
143.7000;1.0899;0.1967;
144.0000;1.0932;0.2014;
144.3000;1.0899;0.1967;
144.6000;1.0899;0.1967;
144.9000;1.0891;0.2014;
145.2000;1.0899;0.2014;
145.5000;1.0883;0.2038;
145.8000;1.0891;0.2014;
146.1000;1.0859;0.1990;
146.4000;1.0932;0.2132;
146.7000;1.0908;0.2061;
147.0000;1.0891;0.2038;
147.3000;1.0899;0.2061;
147.6000;1.0924;0.2203;
147.9000;1.0875;0.2180;
148.2000;1.0891;0.2061;
148.5000;1.0924;0.2038;
148.8000;1.0859;0.1919;
149.1000;1.0916;0.2014;
149.4000;1.0899;0.1943;
149.7000;1.0883;0.1895;
150.0000;1.0883;0.1848;
150.3000;1.0891;0.1872;
150.6000;1.0794;0.1659;
150.9000;1.0899;0.1824;
151.2000;1.0875;0.1730;
151.5000;1.0908;0.1801;
151.8000;1.0899;0.1824;
152.1000;1.0899;0.1777;
152.4000;1.0908;0.1801;
152.7000;1.0899;0.1682;
153.0000;1.0908;0.1706;
153.3000;1.0916;0.1753;
153.6000;1.0851;0.1659;
153.9000;1.0908;0.1777;
154.2000;1.0908;0.1801;
154.5000;1.0908;0.1801;
154.8000;1.0899;0.1682;
155.1000;1.0932;0.1753;
155.4000;1.0916;0.1659;
155.7000;1.0948;0.1801;
156.0000;1.0916;0.1682;
156.3000;1.0908;0.1587;
156.6000;1.0908;0.1564;
156.9000;1.0916;0.1659;
157.2000;1.0932;0.1659;
157.5000;1.0899;0.1540;
157.8000;1.0899;0.1564;
158.1000;1.0875;0.1516;
158.4000;1.0867;0.1587;
158.7000;1.0891;0.1635;
159.0000;1.0899;0.1564;
159.3000;1.0908;0.1611;
159.6000;1.0916;0.1611;
159.9000;1.0899;0.1635;
160.2000;1.0973;0.1753;
160.5000;1.0867;0.1564;
160.8000;1.0916;0.1801;
161.1000;1.0867;0.1706;
161.4000;1.0818;0.1635;
161.7000;1.0899;0.1753;
162.0000;1.0899;0.1777;
162.3000;1.0899;0.1659;
162.6000;1.0924;0.1682;
162.9000;1.0908;0.1635;
163.2000;1.0948;0.1635;
163.5000;1.0916;0.1659;
163.8000;1.0940;0.1730;
164.1000;1.0891;0.1635;
164.4000;1.0924;0.1706;
164.7000;1.0899;0.1611;
165.0000;1.0916;0.1611;
165.3000;1.0924;0.1659;
165.6000;1.0891;0.1635;
165.9000;1.0899;0.1659;
166.2000;1.0891;0.1635;
166.5000;1.0899;0.1540;
166.8000;1.0891;0.1374;
167.1000;1.0916;0.1398;
167.4000;1.0932;0.1351;
167.7000;1.0899;0.1398;
168.0000;1.0932;0.1516;
168.3000;1.0924;0.1587;
168.6000;1.0908;0.1516;
168.9000;1.0916;0.1564;
169.2000;1.0924;0.1611;
169.5000;1.0924;0.1682;
169.8000;1.0899;0.1587;
170.1000;1.0908;0.1659;
170.4000;1.0908;0.1659;
170.7000;1.0908;0.1611;
171.0000;1.0899;0.1611;
171.3000;1.0916;0.1635;
171.6000;1.0899;0.1611;
171.9000;1.0883;0.1564;
172.2000;1.0899;0.1611;
172.5000;1.0899;0.1564;
172.8000;1.0908;0.1611;
173.1000;1.0908;0.1682;
173.4000;1.0924;0.1587;
173.7000;1.0924;0.1611;
174.0000;1.0932;0.1540;
174.3000;1.0924;0.1445;
174.6000;1.0940;0.1351;
174.9000;1.0956;0.1422;
175.2000;1.0916;0.1327;
175.5000;1.0932;0.1445;
175.8000;1.0916;0.1422;
176.1000;1.0908;0.1445;
176.4000;1.0916;0.1516;
176.7000;1.0883;0.1564;
177.0000;1.0916;0.1635;
177.3000;1.0924;0.1611;
177.6000;1.0973;0.1587;
177.9000;1.0916;0.1445;
178.2000;1.0924;0.1445;
178.5000;1.0932;0.1493;
178.8000;1.0908;0.1303;
179.1000;1.0932;0.1351;
179.4000;1.0932;0.1374;
179.7000;1.0932;0.1445;
180.0000;1.0899;0.1493;
180.3000;1.0924;0.1493;
180.6000;1.0908;0.1398;
180.9000;1.0891;0.1351;
181.2000;1.0916;0.1398;
181.5000;1.0891;0.1303;
181.8000;1.0899;0.1303;
182.1000;1.0899;0.1327;
182.4000;1.0908;0.1351;
182.7000;1.0916;0.1422;
183.0000;1.0908;0.1445;
183.3000;1.0940;0.1422;
183.6000;1.0883;0.1351;
183.9000;1.0916;0.1445;
184.2000;1.0932;0.1516;
184.5000;1.0908;0.1540;
184.8000;1.0948;0.1659;
185.1000;1.0908;0.1635;
185.4000;1.0940;0.1635;
185.7000;1.0908;0.1516;
186.0000;1.0924;0.1516;
186.3000;1.0908;0.1540;
186.6000;1.0908;0.1587;
186.9000;1.0940;0.1635;
187.2000;1.0932;0.1635;
187.5000;1.0924;0.1540;
187.8000;1.0932;0.1540;
188.1000;1.0916;0.1493;
188.4000;1.0932;0.1540;
188.7000;1.0924;0.1493;
189.0000;1.1005;0.1730;
189.3000;1.0916;0.1516;
189.6000;1.0916;0.1469;
189.9000;1.0956;0.1564;
190.2000;1.0940;0.1493;
190.5000;1.0924;0.1422;
190.8000;1.0916;0.1422;
191.1000;1.0916;0.1374;
191.4000;1.0924;0.1469;
191.7000;1.0932;0.1516;
192.0000;1.0932;0.1516;
192.3000;1.0948;0.1493;
192.6000;1.0932;0.1493;
192.9000;1.0948;0.1540;
193.2000;1.0940;0.1445;
193.5000;1.0948;0.1422;
193.8000;1.0932;0.1351;
194.1000;1.0932;0.1374;
194.4000;1.0899;0.1303;
194.7000;1.0908;0.1398;
195.0000;1.0924;0.1445;
195.3000;1.0916;0.1422;
195.6000;1.0940;0.1587;
195.9000;1.0908;0.1611;
196.2000;1.0981;0.1777;
196.5000;1.0932;0.1706;
196.8000;1.0916;0.1706;
197.1000;1.0924;0.1659;
197.4000;1.0940;0.1682;
197.7000;1.0908;0.1493;
198.0000;1.0924;0.1516;
198.3000;1.0916;0.1469;
198.6000;1.0908;0.1445;
198.9000;1.0940;0.1587;
199.2000;1.0899;0.1611;
199.5000;1.0899;0.1611;
199.8000;1.0908;0.1540;
200.1000;1.0908;0.1564;
200.4000;1.0924;0.1635;
200.7000;1.0908;0.1493;
201.0000;1.0899;0.1422;
201.3000;1.0899;0.1398;
201.6000;1.0916;0.1398;
201.9000;1.0916;0.1445;
202.2000;1.0891;0.1422;
202.5000;1.0924;0.1469;
202.8000;1.0924;0.1422;
203.1000;1.0916;0.1351;
203.4000;1.0891;0.1351;
203.7000;1.0899;0.1422;
204.0000;1.0924;0.1493;
204.3000;1.0924;0.1540;
204.6000;1.0932;0.1564;
204.9000;1.0924;0.1587;
205.2000;1.0908;0.1540;
205.5000;1.0924;0.1516;
205.8000;1.0924;0.1516;
206.1000;1.0916;0.1493;
206.4000;1.0924;0.1540;
206.7000;1.0924;0.1611;
207.0000;1.0908;0.1587;
207.3000;1.0932;0.1587;
207.6000;1.0924;0.1611;
207.9000;1.0932;0.1611;
208.2000;1.0948;0.1659;
208.5000;1.0916;0.1635;
208.8000;1.0916;0.1730;
209.1000;1.0899;0.1753;
209.4000;1.0908;0.1801;
209.7000;1.0916;0.1706;
210.0000;1.0924;0.1682;
210.3000;1.0916;0.1659;
210.6000;1.0940;0.1659;
210.9000;1.0924;0.1659;
211.2000;1.0899;0.1659;
211.5000;1.0908;0.1682;
211.8000;1.0899;0.1611;
212.1000;1.0899;0.1611;
212.4000;1.0908;0.1587;
212.7000;1.0908;0.1540;
213.0000;1.0916;0.1516;
213.3000;1.0891;0.1422;
213.6000;1.0899;0.1516;
213.9000;1.0908;0.1469;
214.2000;1.0916;0.1516;
214.5000;1.0940;0.1516;
214.8000;1.0916;0.1469;
215.1000;1.0916;0.1564;
215.4000;1.0940;0.1635;
215.7000;1.0948;0.1682;
216.0000;1.0924;0.1587;
216.3000;1.0924;0.1516;
216.6000;1.0916;0.1516;
216.9000;1.0973;0.1635;
217.2000;1.0916;0.1564;
217.5000;1.0932;0.1564;
217.8000;1.0924;0.1564;
218.1000;1.0932;0.1611;
218.4000;1.0908;0.1516;
218.7000;1.0916;0.1540;
219.0000;1.0899;0.1493;
219.3000;1.0916;0.1611;
219.6000;1.0924;0.1682;
219.9000;1.0940;0.1635;
220.2000;1.0842;0.1445;
220.5000;1.0908;0.1611;
220.8000;1.0908;0.1587;
221.1000;1.0916;0.1659;
221.4000;1.0981;0.1824;
221.7000;1.0908;0.1516;
222.0000;1.0948;0.1587;
222.3000;1.0932;0.1564;
222.6000;1.0948;0.1587;
222.9000;1.0948;0.1635;
223.2000;1.0932;0.1564;
223.5000;1.0932;0.1469;
223.8000;1.0908;0.1398;
224.1000;1.0916;0.1445;
224.4000;1.0916;0.1445;
224.7000;1.0916;0.1398;
225.0000;1.0956;0.1493;
225.3000;1.0932;0.1445;
225.6000;1.0956;0.1540;
225.9000;1.0924;0.1516;
226.2000;1.0940;0.1516;
226.5000;1.0916;0.1493;
226.8000;1.0916;0.1469;
227.1000;1.0924;0.1493;
227.4000;1.0932;0.1469;
227.7000;1.0940;0.1516;
228.0000;1.0948;0.1493;
228.3000;1.0932;0.1493;
228.6000;1.0932;0.1469;
228.9000;1.0940;0.1493;
229.2000;1.0932;0.1493;
229.5000;1.0924;0.1587;
229.8000;1.0924;0.1564;
230.1000;1.0932;0.1635;
230.4000;1.0924;0.1611;
230.7000;1.0916;0.1587;
231.0000;1.0924;0.1587;
231.3000;1.0908;0.1587;
231.6000;1.0924;0.1706;
231.9000;1.0924;0.1753;
232.2000;1.0916;0.1635;
232.5000;1.0932;0.1706;
232.8000;1.0924;0.1635;
233.1000;1.0924;0.1587;
233.4000;1.0916;0.1564;
233.7000;1.0891;0.1564;
234.0000;1.0924;0.1635;
234.3000;1.0932;0.1611;
234.6000;1.0924;0.1659;
234.9000;1.0924;0.1659;
235.2000;1.0956;0.1753;
235.5000;1.0932;0.1706;
235.8000;1.0924;0.1635;
236.1000;1.0932;0.1493;
236.4000;1.0940;0.1540;
236.7000;1.0908;0.1493;
237.0000;1.0932;0.1564;
237.3000;1.0908;0.1635;
237.6000;1.0940;0.1635;
237.9000;1.0940;0.1635;
238.2000;1.0932;0.1587;
238.5000;1.0908;0.1469;
238.8000;1.0924;0.1564;
239.1000;1.0908;0.1469;
239.4000;1.0908;0.1445;
239.7000;1.0924;0.1540;
240.0000;1.0924;0.1493;
240.3000;1.0932;0.1469;
240.6000;1.0908;0.1422;
240.9000;1.0924;0.1469;
241.2000;1.0932;0.1564;
241.5000;1.0916;0.1540;
241.8000;1.0883;0.1398;
242.1000;1.0908;0.1540;
242.4000;1.0916;0.1587;
242.7000;1.0932;0.1587;
243.0000;1.0899;0.1445;
243.3000;1.0924;0.1564;
243.6000;1.0924;0.1540;
243.9000;1.0924;0.1587;
244.2000;1.0908;0.1587;
244.5000;1.0891;0.1493;
244.8000;1.0908;0.1564;
245.1000;1.0924;0.1611;
245.4000;1.0916;0.1564;
245.7000;1.0916;0.1516;
246.0000;1.0924;0.1422;
246.3000;1.0981;0.1611;
246.6000;1.0932;0.1659;
246.9000;1.0932;0.1659;
247.2000;1.0940;0.1777;
247.5000;1.0940;0.1777;
247.8000;1.0932;0.1753;
248.1000;1.0924;0.1730;
248.4000;1.0932;0.1706;
248.7000;1.0908;0.1682;
249.0000;1.0916;0.1682;
249.3000;1.0924;0.1753;
249.6000;1.0924;0.1730;
249.9000;1.0842;0.1516;
250.2000;1.0908;0.1659;
250.5000;1.0924;0.1753;
250.8000;1.0908;0.1682;
251.1000;1.0932;0.1706;
251.4000;1.0924;0.1753;
251.7000;1.0940;0.1730;
252.0000;1.0965;0.1824;
252.3000;1.0932;0.1659;
252.6000;1.0932;0.1730;
252.9000;1.0908;0.1706;
253.2000;1.0908;0.1706;
253.5000;1.0924;0.1706;
253.8000;1.0916;0.1753;
254.1000;1.0948;0.1801;
254.4000;1.0932;0.1848;
254.7000;1.0948;0.1919;
255.0000;1.0899;0.1777;
255.3000;1.0924;0.1848;
255.6000;1.0908;0.1801;
255.9000;1.0916;0.1824;
256.2000;1.0932;0.1824;
256.5000;1.0924;0.1753;
256.8000;1.0899;0.1706;
257.1000;1.0932;0.1706;
257.4000;1.0932;0.1706;
257.7000;1.0932;0.1730;
258.0000;1.0940;0.1730;
258.3000;1.0924;0.1753;
258.6000;1.0932;0.1706;
258.9000;1.0932;0.1659;
259.2000;1.0924;0.1635;
259.5000;1.0940;0.1611;
259.8000;1.0932;0.1611;
260.1000;1.0924;0.1587;
260.4000;1.0932;0.1540;
260.7000;1.0924;0.1611;
261.0000;1.0916;0.1706;
261.3000;1.0916;0.1706;
261.6000;1.0932;0.1753;
261.9000;1.0924;0.1753;
262.2000;1.0932;0.1824;
262.5000;1.0924;0.1848;
262.8000;1.0932;0.1848;
263.1000;1.0932;0.1753;
263.4000;1.0916;0.1682;
263.7000;1.0932;0.1659;
264.0000;1.0924;0.1635;
264.3000;1.0924;0.1540;
264.6000;1.0924;0.1493;
264.9000;1.0940;0.1564;
265.2000;1.0965;0.1730;
265.5000;1.0924;0.1587;
265.8000;1.0932;0.1564;
266.1000;1.0916;0.1611;
266.4000;1.0924;0.1706;
266.7000;1.0940;0.1872;
267.0000;1.0924;0.1824;
267.3000;1.0908;0.1753;
267.6000;1.0867;0.1659;
267.9000;1.0916;0.1753;
268.2000;1.0924;0.1635;
268.5000;1.0932;0.1611;
268.8000;1.0924;0.1611;
269.1000;1.0916;0.1540;
269.4000;1.0924;0.1587;
269.7000;1.0924;0.1730;
270.0000;1.0932;0.1777;
270.3000;1.0924;0.1706;
270.6000;1.0924;0.1659;
270.9000;1.0924;0.1635;
271.2000;1.0924;0.1682;
271.5000;1.0916;0.1706;
271.8000;1.0908;0.1659;
272.1000;1.0940;0.1659;
272.4000;1.0924;0.1635;
272.7000;1.0875;0.1445;
273.0000;1.0899;0.1516;
273.3000;1.0908;0.1540;
273.6000;1.0924;0.1493;
273.9000;1.0948;0.1516;
274.2000;1.0924;0.1540;
274.5000;1.0916;0.1587;
274.8000;1.0965;0.1706;
275.1000;1.0899;0.1564;
275.4000;1.0916;0.1611;
275.7000;1.0940;0.1611;
276.0000;1.0932;0.1659;
276.3000;1.0948;0.1611;
276.6000;1.0948;0.1635;
276.9000;1.0924;0.1540;
277.2000;1.0908;0.1564;
277.5000;1.0924;0.1587;
277.8000;1.0932;0.1659;
278.1000;1.0875;0.1469;
278.4000;1.0916;0.1587;
278.7000;1.0932;0.1682;
279.0000;1.0924;0.1659;
279.3000;1.0916;0.1659;
279.6000;1.0924;0.1587;
279.9000;1.0940;0.1564;
280.2000;1.0916;0.1493;
280.5000;1.0916;0.1469;
280.8000;1.0908;0.1540;
281.1000;1.0924;0.1564;
281.4000;1.0908;0.1493;
281.7000;1.0924;0.1564;
282.0000;1.0932;0.1587;
282.3000;1.0924;0.1516;
282.6000;1.0916;0.1540;
282.9000;1.0908;0.1422;
283.2000;1.0916;0.1398;
283.5000;1.0908;0.1398;
283.8000;1.0932;0.1540;
284.1000;1.0924;0.1587;
284.4000;1.0916;0.1493;
284.7000;1.0916;0.1540;
285.0000;1.0916;0.1564;
285.3000;1.0908;0.1587;
285.6000;1.0924;0.1682;
285.9000;1.0908;0.1587;
286.2000;1.0924;0.1564;
286.5000;1.0932;0.1540;
286.8000;1.0924;0.1422;
287.1000;1.0924;0.1469;
287.4000;1.0932;0.1445;
287.7000;1.0965;0.1564;
288.0000;1.0932;0.1445;
288.3000;1.0916;0.1493;
288.6000;1.0932;0.1516;
288.9000;1.0965;0.1635;
289.2000;1.0924;0.1540;
289.5000;1.0924;0.1540;
289.8000;1.0932;0.1611;
290.1000;1.0924;0.1682;
290.4000;1.0948;0.1706;
290.7000;1.0916;0.1540;
291.0000;1.0908;0.1469;
291.3000;1.0908;0.1516;
291.6000;1.0989;0.1730;
291.9000;1.0908;0.1587;
292.2000;1.0908;0.1587;
292.5000;1.0851;0.1516;
292.8000;1.0932;0.1564;
293.1000;1.0883;0.1493;
293.4000;1.0908;0.1587;
293.7000;1.0932;0.1611;
294.0000;1.0932;0.1611;
294.3000;1.0916;0.1635;
294.6000;1.0924;0.1611;
294.9000;1.0916;0.1587;
295.2000;1.0916;0.1635;
295.5000;1.0940;0.1659;
295.8000;1.0908;0.1706;
296.1000;1.0916;0.1895;
296.4000;1.0924;0.1872;
296.7000;1.0908;0.1777;
297.0000;1.0908;0.1824;
297.3000;1.0924;0.1801;
297.6000;1.0916;0.1848;
297.9000;1.0916;0.1824;
298.2000;1.0924;0.1801;
298.5000;1.0916;0.1753;
298.8000;1.0924;0.1753;
299.1000;1.0932;0.1801;
299.4000;1.0932;0.1730;
299.7000;1.0924;0.1730;
300.0000;1.0916;0.1753;
300.3000;1.0956;0.1824;
300.6000;1.0908;0.1682;
300.9000;1.0932;0.1872;
301.2000;1.0916;0.1848;
301.5000;1.0924;0.1824;
301.8000;1.0924;0.1895;
302.1000;1.0908;0.1895;
302.4000;1.0908;0.1848;
302.7000;1.0924;0.1919;
303.0000;1.0924;0.1895;
303.3000;1.0916;0.1801;
303.6000;1.0908;0.1753;
303.9000;1.0908;0.1706;
304.2000;1.0908;0.1682;
304.5000;1.0908;0.1706;
304.8000;1.0899;0.1730;
305.1000;1.0916;0.1753;
305.4000;1.0916;0.1824;
305.7000;1.0924;0.1801;
306.0000;1.0908;0.1872;
306.3000;1.0891;0.1824;
306.6000;1.0916;0.1872;
306.9000;1.0932;0.1872;
307.2000;1.0932;0.1943;
307.5000;1.0924;0.1895;
307.8000;1.0924;0.1848;
308.1000;1.0924;0.1801;
308.4000;1.0932;0.1753;
308.7000;1.0916;0.1777;
309.0000;1.0916;0.1777;
309.3000;1.0924;0.1872;
309.6000;1.0908;0.1967;
309.9000;1.0924;0.2014;
310.2000;1.0859;0.1777;
310.5000;1.0924;0.1895;
310.8000;1.0924;0.1919;
311.1000;1.0956;0.1967;
311.4000;1.0932;0.1919;
311.7000;1.0908;0.1848;
312.0000;1.0826;0.1635;
312.3000;1.0948;0.1895;
312.6000;1.0924;0.1943;
312.9000;1.0932;0.2038;
313.2000;1.0989;0.2180;
313.5000;1.0932;0.2061;
313.8000;1.0932;0.2038;
314.1000;1.0908;0.1967;
314.4000;1.0883;0.1943;
314.7000;1.0859;0.1967;
315.0000;1.0924;0.2014;
315.3000;1.0908;0.1990;
315.6000;1.0924;0.2014;
315.9000;1.0924;0.2085;
316.2000;1.0924;0.2061;
316.5000;1.0916;0.1872;
316.8000;1.0899;0.1848;
317.1000;1.0908;0.1872;
317.4000;1.0916;0.1872;
317.7000;1.0932;0.1919;
318.0000;1.0908;0.1753;
318.3000;1.0916;0.1777;
318.6000;1.0932;0.1706;
318.9000;1.0916;0.1682;
319.2000;1.0908;0.1682;
319.5000;1.0867;0.1587;
319.8000;1.0940;0.1753;
320.1000;1.0924;0.1706;
320.4000;1.0924;0.1753;
320.7000;1.0932;0.1777;
321.0000;1.0956;0.1848;
321.3000;1.0908;0.1730;
321.6000;1.0916;0.1777;
321.9000;1.0940;0.1753;
322.2000;1.0940;0.1730;
322.5000;1.0916;0.1753;
322.8000;1.0908;0.1730;
323.1000;1.0948;0.1872;
323.4000;1.0924;0.1872;
323.7000;1.0948;0.1895;
324.0000;1.0875;0.1801;
324.3000;1.0908;0.1967;
324.6000;1.0924;0.1943;
324.9000;1.0908;0.1919;
325.2000;1.0916;0.1967;
325.5000;1.0908;0.1872;
325.8000;1.0924;0.1777;
326.1000;1.0924;0.1801;
326.4000;1.0924;0.1801;
326.7000;1.0916;0.1730;
327.0000;1.0916;0.1753;
327.3000;1.0956;0.1895;
327.6000;1.0859;0.1659;
327.9000;1.0916;0.1777;
328.2000;1.0924;0.1848;
328.5000;1.0908;0.1824;
328.8000;1.0924;0.1801;
329.1000;1.0924;0.1777;
329.4000;1.0908;0.1753;
329.7000;1.0916;0.1753;
330.0000;1.0916;0.1706;
330.3000;1.0924;0.1706;
330.6000;1.0916;0.1730;
330.9000;1.0916;0.1824;
331.2000;1.0924;0.1824;
331.5000;1.0924;0.1730;
331.8000;1.0899;0.1635;
332.1000;1.0916;0.1635;
332.4000;1.0924;0.1611;
332.7000;1.0916;0.1611;
333.0000;1.0908;0.1587;
333.3000;1.0908;0.1493;
333.6000;1.0916;0.1540;
333.9000;1.0932;0.1635;
334.2000;1.0924;0.1659;
334.5000;1.0924;0.1682;
334.8000;1.0883;0.1682;
335.1000;1.0908;0.1801;
335.4000;1.0956;0.1895;
335.7000;1.0965;0.1943;
336.0000;1.0908;0.1753;
336.3000;1.0916;0.1872;
336.6000;1.0932;0.1895;
336.9000;1.0924;0.1872;
337.2000;1.0883;0.1753;
337.5000;1.0924;0.1824;
337.8000;1.0908;0.1824;
338.1000;1.0908;0.1824;
338.4000;1.0908;0.1919;
338.7000;1.0924;0.1919;
339.0000;1.0908;0.1943;
339.3000;1.0916;0.1990;
339.6000;1.0842;0.1848;
339.9000;1.0916;0.1990;
340.2000;1.0916;0.2038;
340.5000;1.0924;0.1990;
340.8000;1.0899;0.1943;
341.1000;1.0908;0.1895;
341.4000;1.0908;0.1824;
341.7000;1.0932;0.1777;
342.0000;1.0916;0.1801;
342.3000;1.0916;0.1777;
342.6000;1.0932;0.1848;
342.9000;1.0916;0.1730;
343.2000;1.0899;0.1706;
343.5000;1.0875;0.1659;
343.8000;1.0908;0.1706;
344.1000;1.0916;0.1682;
344.4000;1.0908;0.1730;
344.7000;1.0908;0.1706;
345.0000;1.0940;0.1777;
345.3000;1.0924;0.1730;
345.6000;1.0924;0.1730;
345.9000;1.0924;0.1730;
346.2000;1.0908;0.1682;
346.5000;1.0899;0.1706;
346.8000;1.0916;0.1659;
347.1000;1.0916;0.1730;
347.4000;1.0908;0.1706;
347.7000;1.0932;0.1706;
348.0000;1.0908;0.1635;
348.3000;1.0916;0.1682;
348.6000;1.0916;0.1659;
348.9000;1.0908;0.1635;
349.2000;1.0924;0.1706;
349.5000;1.0916;0.1777;
349.8000;1.0965;0.1919;
350.1000;1.0924;0.1801;
350.4000;1.0997;0.2014;
350.7000;1.0908;0.1801;
351.0000;1.0891;0.1682;
351.3000;1.0899;0.1659;
351.6000;1.0859;0.1493;
351.9000;1.0908;0.1682;
352.2000;1.0899;0.1706;
352.5000;1.0899;0.1730;
352.8000;1.0973;0.1943;
353.1000;1.0899;0.1777;
353.4000;1.0916;0.1848;
353.7000;1.0924;0.1801;
354.0000;1.0916;0.1730;
354.3000;1.0908;0.1659;
354.6000;1.0916;0.1753;
354.9000;1.0916;0.1682;
355.2000;1.0908;0.1682;
355.5000;1.0924;0.1659;
355.8000;1.0932;0.1682;
356.1000;1.0932;0.1753;
356.4000;1.0924;0.1777;
356.7000;1.0916;0.1872;
357.0000;1.0899;0.1919;
357.3000;1.0932;0.2014;
357.6000;1.0908;0.1967;
357.9000;1.0916;0.1990;
358.2000;1.0932;0.1943;
358.5000;1.0899;0.1872;
358.8000;1.0924;0.1872;
359.1000;1.0916;0.1730;
359.4000;1.0908;0.1730;
359.7000;1.0940;0.1801;
360.0000;1.0908;0.1753;
360.3000;1.0891;0.1659;
360.6000;1.0924;0.1753;
360.9000;1.0916;0.1706;
361.2000;1.0883;0.1659;
361.5000;1.0859;0.1564;
361.8000;1.0899;0.1635;
362.1000;1.0924;0.1706;
362.4000;1.0908;0.1801;
362.7000;1.0916;0.1801;
363.0000;1.0932;0.1753;
363.3000;1.0924;0.1659;
363.6000;1.0899;0.1682;
363.9000;1.0916;0.1730;
364.2000;1.0908;0.1706;
364.5000;1.0908;0.1730;
364.8000;1.0899;0.1659;
365.1000;1.0899;0.1682;
365.4000;1.0899;0.1611;
365.7000;1.0867;0.1564;
366.0000;1.0916;0.1659;
366.3000;1.0908;0.1564;
366.6000;1.0875;0.1469;
366.9000;1.0973;0.1706;
367.2000;1.0924;0.1587;
367.5000;1.0932;0.1587;
367.8000;1.0924;0.1635;
368.1000;1.0908;0.1516;
368.4000;1.0916;0.1587;
368.7000;1.0989;0.1753;
369.0000;1.0908;0.1611;
369.3000;1.0948;0.1611;
369.6000;1.0916;0.1682;
369.9000;1.0940;0.1730;
370.2000;1.0908;0.1753;
370.5000;1.0908;0.1730;
370.8000;1.0916;0.1777;
371.1000;1.0932;0.1824;
371.4000;1.0908;0.1777;
371.7000;1.0875;0.1659;
372.0000;1.0908;0.1777;
372.3000;1.0867;0.1706;
372.6000;1.0924;0.1777;
372.9000;1.0916;0.1682;
373.2000;1.0908;0.1611;
373.5000;1.0932;0.1611;
373.8000;1.0908;0.1611;
374.1000;1.0908;0.1706;
374.4000;1.0940;0.1730;
374.7000;1.0924;0.1635;
375.0000;1.0924;0.1635;
375.3000;1.0916;0.1659;
375.6000;1.0916;0.1635;
375.9000;1.0883;0.1587;
376.2000;1.0899;0.1659;
376.5000;1.0899;0.1682;
376.8000;1.0875;0.1587;
377.1000;1.0908;0.1635;
377.4000;1.0908;0.1659;
377.7000;1.0916;0.1777;
378.0000;1.0924;0.1682;
378.3000;1.0851;0.1516;
378.6000;1.0940;0.1611;
378.9000;1.0916;0.1635;
379.2000;1.0916;0.1587;
379.5000;1.0908;0.1540;
379.8000;1.0908;0.1540;
380.1000;1.0908;0.1682;
380.4000;1.0916;0.1611;
380.7000;1.0908;0.1587;
381.0000;1.0916;0.1611;
381.3000;1.0924;0.1611;
381.6000;1.0916;0.1611;
381.9000;1.0883;0.1564;
382.2000;1.0899;0.1706;
382.5000;1.0908;0.1706;
382.8000;1.0916;0.1730;
383.1000;1.0916;0.1777;
383.4000;1.0883;0.1706;
383.7000;1.0916;0.1753;
384.0000;1.0916;0.1753;
384.3000;1.0924;0.1777;
384.6000;1.0924;0.1801;
384.9000;1.0924;0.1801;
385.2000;1.0924;0.1753;
385.5000;1.0965;0.1824;
385.8000;1.0916;0.1706;
386.1000;1.0948;0.1753;
386.4000;1.0916;0.1564;
386.7000;1.0891;0.1516;
387.0000;1.0899;0.1516;
387.3000;1.0916;0.1516;
387.6000;1.0932;0.1516;
387.9000;1.0908;0.1587;
388.2000;1.0924;0.1564;
388.5000;1.0924;0.1682;
388.8000;1.0916;0.1753;
389.1000;1.0891;0.1682;
389.4000;1.0924;0.1824;
389.7000;1.0924;0.1824;
390.0000;1.0883;0.1682;
390.3000;1.0908;0.1777;
390.6000;1.0924;0.1801;
390.9000;1.0956;0.1824;
391.2000;1.0908;0.1659;
391.5000;1.0924;0.1753;
391.8000;1.0916;0.1659;
392.1000;1.0924;0.1611;
392.4000;1.0924;0.1611;
392.7000;1.0932;0.1587;
393.0000;1.0916;0.1611;
393.3000;1.0916;0.1730;
393.6000;1.0924;0.1682;
393.9000;1.0916;0.1682;
394.2000;1.0916;0.1753;
394.5000;1.0908;0.1753;
394.8000;1.0908;0.1777;
395.1000;1.0908;0.1777;
395.4000;1.0899;0.1753;
395.7000;1.0924;0.1706;
396.0000;1.0899;0.1659;
396.3000;1.0899;0.1635;
396.6000;1.0932;0.1730;
396.9000;1.0908;0.1777;
397.2000;1.0948;0.1919;
397.5000;1.0899;0.1753;
397.8000;1.0908;0.1706;
398.1000;1.0924;0.1659;
398.4000;1.0916;0.1659;
398.7000;1.0908;0.1777;
399.0000;1.0859;0.1682;
399.3000;1.0932;0.1824;
399.6000;1.0891;0.1753;
399.9000;1.0899;0.1801;
400.2000;1.0908;0.1872;
400.5000;1.0916;0.1943;
400.8000;1.0899;0.1943;
401.1000;1.0891;0.1895;
401.4000;1.0875;0.1706;
401.7000;1.0916;0.1777;
402.0000;1.0908;0.1801;
402.3000;1.0956;0.1872;
402.6000;1.0883;0.1706;
402.9000;1.0924;0.1706;
403.2000;1.0924;0.1635;
403.5000;1.0924;0.1659;
403.8000;1.0908;0.1635;
404.1000;1.0899;0.1564;
404.4000;1.0916;0.1540;
404.7000;1.0916;0.1635;
405.0000;1.0908;0.1753;
405.3000;1.0899;0.1801;
405.6000;1.0899;0.1753;
405.9000;1.0916;0.1824;
406.2000;1.0851;0.1682;
406.5000;1.0875;0.1706;
406.8000;1.0908;0.1919;
407.1000;1.0899;0.1967;
407.4000;1.0916;0.1943;
407.7000;1.0891;0.1967;
408.0000;1.0932;0.2061;
408.3000;1.0908;0.1990;
408.6000;1.0932;0.2038;
408.9000;1.0899;0.1967;
409.2000;1.0932;0.1990;
409.5000;1.0916;0.1895;
409.8000;1.0916;0.1943;
410.1000;1.0883;0.1824;
410.4000;1.0899;0.1872;
410.7000;1.0924;0.1895;
411.0000;1.0932;0.1967;
411.3000;1.0932;0.1895;
411.6000;1.0859;0.1753;
411.9000;1.0932;0.1919;
412.2000;1.0908;0.1967;
412.5000;1.0924;0.1943;
412.8000;1.0891;0.1919;
413.1000;1.0916;0.1943;
413.4000;1.0908;0.1943;
413.7000;1.0973;0.2156;
414.0000;1.0924;0.2014;
414.3000;1.0908;0.1943;
414.6000;1.0916;0.2014;
414.9000;1.0908;0.2014;
415.2000;1.0908;0.2109;
415.5000;1.0908;0.2085;
415.8000;1.0908;0.2109;
416.1000;1.0916;0.2061;
416.4000;1.0916;0.2061;
416.7000;1.0908;0.1943;
417.0000;1.0908;0.1919;
417.3000;1.0924;0.1872;
417.6000;1.0908;0.1848;
417.9000;1.0916;0.1895;
418.2000;1.0916;0.1919;
418.5000;1.0932;0.2038;
418.8000;1.0932;0.2085;
419.1000;1.0899;0.2085;
419.4000;1.0916;0.2132;
419.7000;1.0924;0.2014;
420.0000;1.0916;0.1990;
420.3000;1.0924;0.1990;
420.6000;1.0899;0.1967;
420.9000;1.0916;0.1943;
421.2000;1.0916;0.1943;
421.5000;1.0908;0.1919;
421.8000;1.0916;0.1824;
422.1000;1.0899;0.1895;
422.4000;1.0851;0.1753;
422.7000;1.0916;0.1895;
423.0000;1.0908;0.1824;
423.3000;1.0899;0.1848;
423.6000;1.0875;0.1777;
423.9000;1.0899;0.1872;
424.2000;1.0899;0.1777;
424.5000;1.0891;0.1730;
424.8000;1.0883;0.1801;
425.1000;1.0883;0.1824;
425.4000;1.0891;0.1895;
425.7000;1.0891;0.1801;
426.0000;1.0916;0.1895;
426.3000;1.0908;0.1895;
426.6000;1.0908;0.1824;
426.9000;1.0916;0.1801;
427.2000;1.0908;0.1777;
427.5000;1.0924;0.1967;
427.8000;1.0916;0.1990;
428.1000;1.0908;0.1990;
428.4000;1.0965;0.2180;
428.7000;1.0899;0.2038;
429.0000;1.0916;0.2085;
429.3000;1.0916;0.2038;
429.6000;1.0924;0.1990;
429.9000;1.0916;0.2109;
430.2000;1.0916;0.2180;
430.5000;1.0924;0.2180;
430.8000;1.0908;0.2156;
431.1000;1.0891;0.2085;
431.4000;1.0997;0.2393;
431.7000;1.0899;0.2085;
432.0000;1.0908;0.2180;
432.3000;1.0891;0.2156;
432.6000;1.0924;0.2203;
432.9000;1.0899;0.2203;
433.2000;1.0908;0.2203;
433.5000;1.0867;0.2014;
433.8000;1.0891;0.2109;
434.1000;1.0916;0.2180;
434.4000;1.0891;0.2132;
434.7000;1.0899;0.2132;
435.0000;1.0891;0.2109;
435.3000;1.0899;0.2038;
435.6000;1.0940;0.2156;
435.9000;1.0883;0.2061;
436.2000;1.0908;0.2109;
436.5000;1.0932;0.2109;
436.8000;1.0908;0.2061;
437.1000;1.0908;0.1967;
437.4000;1.0908;0.2061;
437.7000;1.0916;0.2085;
438.0000;1.0924;0.2180;
438.3000;1.0908;0.2132;
438.6000;1.0924;0.2156;
438.9000;1.0916;0.2132;
439.2000;1.0908;0.2109;
439.5000;1.0916;0.2132;
439.8000;1.0883;0.2085;
440.1000;1.0875;0.2014;
440.4000;1.0916;0.2132;
440.7000;1.0908;0.2014;
441.0000;1.0891;0.1895;
441.3000;1.0891;0.1848;
441.6000;1.0916;0.1943;
441.9000;1.0899;0.1872;
442.2000;1.0916;0.1824;
442.5000;1.0891;0.1753;
442.8000;1.0908;0.1753;
443.1000;1.0932;0.1872;
443.4000;1.0932;0.1967;
443.7000;1.0916;0.1967;
444.0000;1.0916;0.1990;
444.3000;1.0932;0.2038;
444.6000;1.0924;0.1967;
444.9000;1.0908;0.1990;
445.2000;1.0875;0.1895;
445.5000;1.0899;0.1919;
445.8000;1.0916;0.1943;
446.1000;1.0899;0.1824;
446.4000;1.0891;0.1872;
446.7000;1.0899;0.1919;
447.0000;1.0908;0.1990;
447.3000;1.0916;0.1967;
447.6000;1.0891;0.1895;
447.9000;1.0867;0.1895;
448.2000;1.0891;0.1919;
448.5000;1.0916;0.2061;
448.8000;1.0891;0.2038;
449.1000;1.0883;0.2061;
449.4000;1.0932;0.2180;
449.7000;1.0908;0.2085;
450.0000;1.0891;0.2014;
450.3000;1.0916;0.1943;
450.6000;1.0883;0.1943;
450.9000;1.0891;0.1943;
451.2000;1.0883;0.1895;
451.5000;1.0883;0.1848;
451.8000;1.0891;0.1872;
452.1000;1.0916;0.1967;
452.4000;1.0891;0.1895;
452.7000;1.0891;0.1895;
453.0000;1.0891;0.1895;
453.3000;1.0891;0.1848;
453.6000;1.0851;0.1753;
453.9000;1.0899;0.1848;
454.2000;1.0981;0.2014;
454.5000;1.0875;0.1730;
454.8000;1.0916;0.1777;
455.1000;1.0956;0.1895;
455.4000;1.0924;0.1872;
455.7000;1.0908;0.1919;
456.0000;1.0916;0.1943;
456.3000;1.0981;0.2132;
456.6000;1.0924;0.2014;
456.9000;1.0891;0.2038;
457.2000;1.0940;0.1990;
457.5000;1.0883;0.1777;
457.8000;1.0908;0.1801;
458.1000;1.0867;0.1706;
458.4000;1.0916;0.1824;
458.7000;1.0924;0.1919;
459.0000;1.0908;0.1990;
459.3000;1.0891;0.1895;
459.6000;1.0826;0.1753;
459.9000;1.0908;0.1943;
460.2000;1.0899;0.1919;
460.5000;1.0908;0.1872;
460.8000;1.0899;0.1872;
461.1000;1.0867;0.1753;
461.4000;1.0940;0.1919;
461.7000;1.0916;0.1895;
462.0000;1.0908;0.1895;
462.3000;1.0899;0.1895;
462.6000;1.0908;0.1872;
462.9000;1.0891;0.1895;
463.2000;1.0859;0.1777;
463.5000;1.0924;0.1967;
463.8000;1.0916;0.1990;
464.1000;1.0932;0.2061;
464.4000;1.0891;0.1919;
464.7000;1.0932;0.2038;
465.0000;1.0940;0.2156;
465.3000;1.0883;0.2038;
465.6000;1.0867;0.1943;
465.9000;1.0981;0.2085;
466.2000;1.0916;0.1967;
466.5000;1.0916;0.1943;
466.8000;1.0867;0.1943;
467.1000;1.0899;0.1943;
467.4000;1.0899;0.2014;
467.7000;1.0916;0.2085;
468.0000;1.0891;0.2085;
468.3000;1.0891;0.2109;
468.6000;1.0956;0.2227;
468.9000;1.0899;0.2038;
469.2000;1.0924;0.2085;
469.5000;1.0916;0.2156;
469.8000;1.0908;0.2156;
470.1000;1.0924;0.2251;
470.4000;1.0924;0.2109;
470.7000;1.0899;0.2038;
471.0000;1.0916;0.2014;
471.3000;1.0924;0.1967;
471.6000;1.0908;0.1801;
471.9000;1.0899;0.1824;
472.2000;1.0899;0.1824;
472.5000;1.0891;0.1848;
472.8000;1.0908;0.1895;
473.1000;1.0899;0.1919;
473.4000;1.0891;0.1919;
473.7000;1.0891;0.1943;
474.0000;1.0908;0.1990;
474.3000;1.0924;0.2061;
474.6000;1.0899;0.2038;
474.9000;1.0899;0.2109;
475.2000;1.0924;0.2132;
475.5000;1.0891;0.2085;
475.8000;1.0899;0.2132;
476.1000;1.0891;0.2038;
476.4000;1.0899;0.2014;
476.7000;1.0908;0.1990;
477.0000;1.0883;0.1848;
477.3000;1.0932;0.1919;
477.6000;1.0908;0.1895;
477.9000;1.0908;0.1872;
478.2000;1.0810;0.1682;
478.5000;1.0899;0.1943;
478.8000;1.0899;0.2014;
479.1000;1.0924;0.2061;
479.4000;1.0899;0.2085;
479.7000;1.0899;0.2014;
480.0000;1.0883;0.1990;
480.3000;1.0899;0.1990;
480.6000;1.0891;0.1967;
480.9000;1.0875;0.1919;
481.2000;1.0859;0.2038;
481.5000;1.0883;0.2085;
481.8000;1.0908;0.1967;
482.1000;1.0875;0.1848;
482.4000;1.0891;0.1895;
482.7000;1.0899;0.1990;
483.0000;1.0891;0.1919;
483.3000;1.0891;0.1967;
483.6000;1.0867;0.1895;
483.9000;1.0899;0.1919;
484.2000;1.0891;0.1848;
484.5000;1.0842;0.1730;
484.8000;1.0883;0.1848;
485.1000;1.0875;0.1824;
485.4000;1.0891;0.1801;
485.7000;1.0965;0.1895;
486.0000;1.0859;0.1659;
486.3000;1.0867;0.1730;
486.6000;1.0899;0.1895;
486.9000;1.0891;0.1801;
487.2000;1.0908;0.1824;
487.5000;1.0891;0.1848;
487.8000;1.0908;0.1895;
488.1000;1.0883;0.1801;
488.4000;1.0883;0.1753;
488.7000;1.0883;0.1753;
489.0000;1.0908;0.1919;
489.3000;1.0899;0.1919;
489.6000;1.0916;0.1919;
489.9000;1.0924;0.1943;
490.2000;1.0883;0.1895;
490.5000;1.0916;0.1919;
490.8000;1.0867;0.1777;
491.1000;1.0908;0.1801;
491.4000;1.0883;0.1753;
491.7000;1.0867;0.1777;
492.0000;1.0899;0.1895;
492.3000;1.0883;0.1967;
492.6000;1.0883;0.1919;
492.9000;1.0883;0.1919;
493.2000;1.0899;0.1919;
493.5000;1.0899;0.1919;
493.8000;1.0891;0.1943;
494.1000;1.0883;0.1872;
494.4000;1.0859;0.1777;
494.7000;1.0891;0.1848;
495.0000;1.0899;0.1824;
495.3000;1.0899;0.1848;
495.6000;1.0908;0.1943;
495.9000;1.0940;0.2109;
496.2000;1.0899;0.2061;
496.5000;1.0899;0.2014;
496.8000;1.0908;0.1943;
497.1000;1.0891;0.1824;
497.4000;1.0899;0.1801;
497.7000;1.0883;0.1824;
498.0000;1.0891;0.1777;
498.3000;1.0908;0.1919;
498.6000;1.0899;0.1872;
498.9000;1.0883;0.1801;
499.2000;1.0883;0.1848;
499.5000;1.0908;0.1943;
499.8000;1.0948;0.2061;
500.1000;1.0891;0.1990;
500.4000;1.0851;0.1895;
500.7000;1.0989;0.2180;
501.0000;1.0899;0.1919;
501.3000;1.0875;0.1801;
501.6000;1.0899;0.1872;
501.9000;1.0908;0.1967;
502.2000;1.0908;0.1990;
502.5000;1.0826;0.1801;
502.8000;1.0842;0.1919;
503.1000;1.0908;0.2038;
503.4000;1.0899;0.1990;
503.7000;1.0891;0.1895;
504.0000;1.0899;0.1824;
504.3000;1.0899;0.1801;
504.6000;1.0883;0.1682;
504.9000;1.0908;0.1753;
505.2000;1.0875;0.1635;
505.5000;1.0899;0.1730;
505.8000;1.0891;0.1730;
506.1000;1.0956;0.1967;
506.4000;1.0908;0.1872;
506.7000;1.0908;0.1848;
507.0000;1.0891;0.1895;
507.3000;1.0908;0.1919;
507.6000;1.0891;0.1895;
507.9000;1.0891;0.1848;
508.2000;1.0875;0.1753;
508.5000;1.0956;0.1967;
508.8000;1.0908;0.1824;
509.1000;1.0899;0.1943;
509.4000;1.0899;0.1943;
509.7000;1.0899;0.1967;
510.0000;1.0899;0.2014;
510.3000;1.0883;0.1967;
510.6000;1.0891;0.2014;
510.9000;1.0834;0.1919;
511.2000;1.0899;0.2132;
511.5000;1.0891;0.2109;
511.8000;1.0883;0.2061;
512.1000;1.0891;0.2085;
512.4000;1.0908;0.2085;
512.7000;1.0891;0.1967;
513.0000;1.0875;0.1919;
513.3000;1.0875;0.1824;
513.6000;1.0883;0.1848;
513.9000;1.0899;0.1895;
514.2000;1.0883;0.1943;
514.5000;1.0883;0.1919;
514.8000;1.0883;0.1872;
515.1000;1.0891;0.1919;
515.4000;1.0842;0.1801;
515.7000;1.0875;0.1872;
516.0000;1.0883;0.1895;
516.3000;1.0899;0.1943;
516.6000;1.0891;0.1919;
516.9000;1.0867;0.1872;
517.2000;1.0891;0.1872;
517.5000;1.0883;0.1895;
517.8000;1.0875;0.1872;
518.1000;1.0891;0.1943;
518.4000;1.0891;0.1919;
518.7000;1.0867;0.1848;
519.0000;1.0932;0.1967;
519.3000;1.0867;0.1801;
519.6000;1.0899;0.1919;
519.9000;1.0891;0.1967;
520.2000;1.0899;0.1967;
520.5000;1.0891;0.1943;
520.8000;1.0875;0.1919;
521.1000;1.0891;0.1990;
521.4000;1.0916;0.2085;
521.7000;1.0916;0.2061;
522.0000;1.0883;0.1990;
522.3000;1.0899;0.2014;
522.6000;1.0908;0.2085;
522.9000;1.0883;0.1967;
523.2000;1.0908;0.2014;
523.5000;1.0899;0.2061;
523.8000;1.0916;0.2132;
524.1000;1.0899;0.2132;
524.4000;1.0924;0.2109;
524.7000;1.0924;0.2061;
525.0000;1.0899;0.2038;
525.3000;1.0859;0.1943;
525.6000;1.0973;0.2203;
525.9000;1.0875;0.1872;
526.2000;1.0875;0.1943;
526.5000;1.0908;0.1990;
526.8000;1.0908;0.2014;
527.1000;1.0891;0.2014;
527.4000;1.0948;0.2156;
527.7000;1.0932;0.2132;
528.0000;1.0899;0.2038;
528.3000;1.0899;0.2085;
528.6000;1.0916;0.2156;
528.9000;1.0908;0.2109;
529.2000;1.0908;0.2061;
529.5000;1.0875;0.1990;
529.8000;1.0859;0.2085;
530.1000;1.0908;0.2085;
530.4000;1.0891;0.2085;
530.7000;1.0899;0.2109;
531.0000;1.0891;0.2132;
531.3000;1.0899;0.2109;
531.6000;1.0908;0.2061;
531.9000;1.0891;0.1990;
532.2000;1.0891;0.2014;
532.5000;1.0948;0.2038;
532.8000;1.0899;0.1943;
533.1000;1.0899;0.1919;
533.4000;1.0899;0.1919;
533.7000;1.0916;0.1848;
534.0000;1.0859;0.1635;
534.3000;1.0908;0.1801;
534.6000;1.0916;0.1895;
534.9000;1.0867;0.1848;
535.2000;1.0883;0.1919;
535.5000;1.0932;0.2061;
535.8000;1.0891;0.1967;
536.1000;1.0891;0.1919;
536.4000;1.0932;0.1967;
536.7000;1.0891;0.1919;
537.0000;1.0891;0.1872;
537.3000;1.0883;0.1943;
537.6000;1.0802;0.1753;
537.9000;1.0891;0.2038;
538.2000;1.0891;0.2038;
538.5000;1.0908;0.2014;
538.8000;1.0851;0.1848;
539.1000;1.0899;0.1919;
539.4000;1.0883;0.1990;
539.7000;1.0867;0.1967;
540.0000;1.0916;0.2085;
540.3000;1.0875;0.2109;
540.6000;1.0867;0.2156;
540.9000;1.0891;0.2180;
541.2000;1.0891;0.2156;
541.5000;1.0891;0.2156;
541.8000;1.0875;0.2180;
542.1000;1.0842;0.2085;
542.4000;1.0899;0.2156;
542.7000;1.0883;0.2180;
543.0000;1.0883;0.2203;
543.3000;1.0916;0.2275;
543.6000;1.0883;0.2227;
543.9000;1.0891;0.2203;
544.2000;1.0875;0.2180;
544.5000;1.0899;0.2251;
544.8000;1.0883;0.2298;
545.1000;1.0924;0.2417;
545.4000;1.0916;0.2298;
545.7000;1.0891;0.2156;
546.0000;1.0883;0.2085;
546.3000;1.0875;0.2038;
546.6000;1.0908;0.2014;
546.9000;1.0899;0.1990;
547.2000;1.0891;0.1967;
547.5000;1.0859;0.1872;
547.8000;1.0883;0.1990;
548.1000;1.0891;0.2038;
548.4000;1.0891;0.2061;
548.7000;1.0891;0.2085;
549.0000;1.0899;0.2085;
549.3000;1.0891;0.2132;
549.6000;1.0916;0.2132;
549.9000;1.0899;0.2156;
550.2000;1.0875;0.2085;
550.5000;1.0875;0.2085;
550.8000;1.0891;0.2061;
551.1000;1.0891;0.1943;
551.4000;1.0891;0.1967;
551.7000;1.0924;0.2038;
552.0000;1.0883;0.2038;
552.3000;1.0891;0.2109;
552.6000;1.0859;0.2132;
552.9000;1.0867;0.2251;
553.2000;1.0908;0.2298;
553.5000;1.0891;0.2346;
553.8000;1.0883;0.2227;
554.1000;1.0891;0.2156;
554.4000;1.0899;0.2203;
554.7000;1.0891;0.2203;
555.0000;1.0899;0.2203;
555.3000;1.0908;0.2227;
555.6000;1.0875;0.2203;
555.9000;1.0891;0.2251;
556.2000;1.0875;0.2156;
556.5000;1.0891;0.2132;
556.8000;1.0875;0.1990;
557.1000;1.0899;0.2014;
557.4000;1.0891;0.1967;
557.7000;1.0899;0.1919;
558.0000;1.0891;0.1895;
558.3000;1.0891;0.1872;
558.6000;1.0916;0.1824;
558.9000;1.0908;0.1895;
559.2000;1.0883;0.1872;
559.5000;1.0891;0.1895;
559.8000;1.0851;0.1848;
560.1000;1.0908;0.2132;
560.4000;1.0891;0.2109;
560.7000;1.0908;0.2132;
561.0000;1.0899;0.2085;
561.3000;1.0899;0.2132;
561.6000;1.0867;0.2014;
561.9000;1.0875;0.2038;
562.2000;1.0891;0.2109;
562.5000;1.0908;0.2156;
562.8000;1.0875;0.2061;
563.1000;1.0883;0.1967;
563.4000;1.0899;0.1990;
563.7000;1.0899;0.2109;
564.0000;1.0883;0.2085;
564.3000;1.0859;0.2085;
564.6000;1.0891;0.2156;
564.9000;1.0891;0.2180;
565.2000;1.0908;0.2156;
565.5000;1.0875;0.2227;
565.8000;1.0875;0.2132;
566.1000;1.0883;0.2180;
566.4000;1.0875;0.2156;
566.7000;1.0883;0.2085;
567.0000;1.0891;0.2085;
567.3000;1.0899;0.2132;
567.6000;1.0883;0.2156;
567.9000;1.0973;0.2322;
568.2000;1.0883;0.2014;
568.5000;1.0875;0.1967;
568.8000;1.0891;0.1919;
569.1000;1.0851;0.1895;
569.4000;1.0891;0.2014;
569.7000;1.0891;0.2061;
570.0000;1.0891;0.2061;
570.3000;1.0891;0.2132;
570.6000;1.0883;0.2109;
570.9000;1.0891;0.2180;
571.2000;1.0916;0.2156;
571.5000;1.0899;0.2109;
571.8000;1.0826;0.1967;
572.1000;1.0867;0.2061;
572.4000;1.0875;0.2109;
572.7000;1.0883;0.2061;
573.0000;1.0891;0.2085;
573.3000;1.0834;0.1943;
573.6000;1.0875;0.1943;
573.9000;1.0891;0.2061;
574.2000;1.0867;0.1990;
574.5000;1.0867;0.2014;
574.8000;1.0891;0.2038;
575.1000;1.0875;0.1919;
575.4000;1.0932;0.2038;
575.7000;1.0965;0.2180;
576.0000;1.0908;0.2038;
576.3000;1.0891;0.2061;
576.6000;1.0834;0.2014;
576.9000;1.0932;0.2203;
577.2000;1.0916;0.2203;
577.5000;1.0851;0.2038;
577.8000;1.0899;0.2180;
578.1000;1.0908;0.2180;
578.4000;1.0875;0.2156;
578.7000;1.0948;0.2275;
579.0000;1.0965;0.2369;
579.3000;1.0867;0.2156;
579.6000;1.0883;0.2251;
579.9000;1.0883;0.2180;
580.2000;1.0883;0.2180;
580.5000;1.0908;0.2180;
580.8000;1.0883;0.2038;
581.1000;1.0891;0.1990;
581.4000;1.0875;0.1990;
581.7000;1.0899;0.2061;
582.0000;1.0916;0.2061;
582.3000;1.0867;0.1919;
582.6000;1.0891;0.1967;
582.9000;1.0859;0.1801;
583.2000;1.0899;0.1919;
583.5000;1.0924;0.2014;
583.8000;1.0899;0.1919;
584.1000;1.0875;0.1943;
584.4000;1.0916;0.1990;
584.7000;1.0883;0.1919;
585.0000;1.0842;0.1730;
585.3000;1.0851;0.1777;
585.6000;1.0867;0.1777;
585.9000;1.0875;0.1872;
586.2000;1.0875;0.1990;
586.5000;1.0867;0.1943;
586.8000;1.0891;0.2014;
587.1000;1.0883;0.2156;
587.4000;1.0891;0.2227;
587.7000;1.0883;0.2251;
588.0000;1.0883;0.2251;
588.3000;1.0891;0.2227;
588.6000;1.0867;0.2180;
588.9000;1.0834;0.2014;
589.2000;1.0875;0.2132;
589.5000;1.0883;0.2085;
589.8000;1.0875;0.2061;
590.1000;1.0891;0.2156;
590.4000;1.0867;0.2109;
590.7000;1.0891;0.2180;
591.0000;1.0891;0.2156;
591.3000;1.0883;0.2085;
591.6000;1.0883;0.2109;
591.9000;1.0875;0.2085;
592.2000;1.0891;0.2132;
592.5000;1.0899;0.2109;
592.8000;1.0883;0.2085;
593.1000;1.0891;0.2132;
593.4000;1.0891;0.2109;
593.7000;1.0883;0.2085;
594.0000;1.0867;0.1990;
594.3000;1.0899;0.1967;
594.6000;1.0940;0.2014;
594.9000;1.0899;0.1848;
595.2000;1.0883;0.1824;
595.5000;1.0891;0.1824;
595.8000;1.0875;0.1848;
596.1000;1.0851;0.1777;
596.4000;1.0875;0.1872;
596.7000;1.0875;0.1967;
597.0000;1.0891;0.1990;
597.3000;1.0891;0.1967;
597.6000;1.0875;0.2014;
597.9000;1.0834;0.1801;
598.2000;1.0875;0.1872;
598.5000;1.0842;0.1824;
598.8000;1.0867;0.1919;
599.1000;1.0867;0.1872;
599.4000;1.0859;0.1895;
599.7000;1.0883;0.1919;
600.0000;1.0883;0.1919;
600.3000;1.0883;0.1730;
600.6000;1.0777;0.1303;
600.9000;1.0786;0.1185;
601.2000;1.0786;0.1042;
601.5000;1.0663;0.0711;
601.8000;1.0549;0.0450;
602.1000;1.0452;0.0190;
602.4000;1.0379;-0.0047;
602.7000;1.0297;-0.0237;
603.0000;1.0224;-0.0332;
603.3000;1.0126;-0.0616;
603.6000;1.0069;-0.0829;
603.9000;0.9963;-0.1042;
604.2000;0.9906;-0.1114;
604.5000;0.9849;-0.1185;
604.8000;0.9792;-0.1279;
605.1000;0.9735;-0.1303;
605.4000;0.9678;-0.1327;
605.7000;0.9630;-0.1445;
606.0000;0.9556;-0.1540;
606.3000;0.9524;-0.1587;
606.6000;0.9475;-0.1753;
606.9000;0.9434;-0.1706;
607.2000;0.9385;-0.1801;
607.5000;0.9353;-0.1872;
607.8000;0.9288;-0.1919;
608.1000;0.9231;-0.1872;
608.4000;0.9174;-0.1943;
608.7000;0.9174;-0.1824;
609.0000;0.9158;-0.1848;
609.3000;0.9117;-0.1872;
609.6000;0.9060;-0.2038;
609.9000;0.9052;-0.2156;
610.2000;0.8995;-0.2275;
610.5000;0.8970;-0.2322;
610.8000;0.8978;-0.2203;
611.1000;0.8905;-0.2369;
611.4000;0.8889;-0.2346;
611.7000;0.8848;-0.2393;
612.0000;0.8816;-0.2488;
612.3000;0.8791;-0.2511;
612.6000;0.8759;-0.2488;
612.9000;0.8742;-0.2417;
613.2000;0.8718;-0.2440;
613.5000;0.8669;-0.2488;
613.8000;0.8653;-0.2417;
614.1000;0.8669;-0.2251;
614.4000;0.8604;-0.2393;
614.7000;0.8588;-0.2369;
615.0000;0.8571;-0.2417;
615.3000;0.8539;-0.2511;
615.6000;0.8539;-0.2583;
615.9000;0.8490;-0.2630;
616.2000;0.8474;-0.2630;
616.5000;0.8457;-0.2654;
616.8000;0.8425;-0.2654;
617.1000;0.8441;-0.2559;
617.4000;0.8409;-0.2535;
617.7000;0.8384;-0.2606;
618.0000;0.8368;-0.2535;
618.3000;0.8327;-0.2535;
618.6000;0.8327;-0.2440;
618.9000;0.8295;-0.2464;
619.2000;0.8287;-0.2535;
619.5000;0.8262;-0.2606;
619.8000;0.8230;-0.2677;
620.1000;0.8238;-0.2677;
620.4000;0.8246;-0.2606;
620.7000;0.8181;-0.2725;
621.0000;0.8156;-0.2819;
621.3000;0.8148;-0.2819;
621.6000;0.8189;-0.2583;
621.9000;0.8124;-0.2654;
622.2000;0.8132;-0.2583;
622.5000;0.8083;-0.2654;
622.8000;0.8083;-0.2630;
623.1000;0.8083;-0.2606;
623.4000;0.8042;-0.2654;
623.7000;0.8026;-0.2677;
624.0000;0.8002;-0.2748;
624.3000;0.8002;-0.2583;
624.6000;0.8002;-0.2654;
624.9000;0.7977;-0.2701;
625.2000;0.7953;-0.2843;
625.5000;0.7961;-0.2796;
625.8000;0.7937;-0.2796;
626.1000;0.7977;-0.2630;
626.4000;0.7920;-0.2796;
626.7000;0.7920;-0.2725;
627.0000;0.7847;-0.2867;
627.3000;0.7880;-0.2796;
627.6000;0.7880;-0.2748;
627.9000;0.7863;-0.2796;
628.2000;0.7880;-0.2677;
628.5000;0.7855;-0.2677;
628.8000;0.7847;-0.2701;
629.1000;0.7863;-0.2701;
629.4000;0.7831;-0.2843;
629.7000;0.7798;-0.2796;
630.0000;0.7790;-0.2796;
630.3000;0.7782;-0.2772;
630.6000;0.7766;-0.2843;
630.9000;0.7774;-0.2819;
631.2000;0.7741;-0.2819;
631.5000;0.7798;-0.2606;
631.8000;0.7733;-0.2748;
632.1000;0.7717;-0.2772;
632.4000;0.7717;-0.2748;
632.7000;0.7692;-0.2796;
633.0000;0.7700;-0.2796;
633.3000;0.7700;-0.2843;
633.6000;0.7684;-0.2843;
633.9000;0.7676;-0.2819;
634.2000;0.7660;-0.2843;
634.5000;0.7668;-0.2796;
634.8000;0.7652;-0.2796;
635.1000;0.7643;-0.2772;
635.4000;0.7635;-0.2819;
635.7000;0.7619;-0.2843;
636.0000;0.7627;-0.2843;
636.3000;0.7603;-0.2985;
636.6000;0.7603;-0.3056;
636.9000;0.7586;-0.3009;
637.2000;0.7570;-0.3104;
637.5000;0.7562;-0.3199;
637.8000;0.7562;-0.3175;
638.1000;0.7570;-0.3080;
638.4000;0.7562;-0.3127;
638.7000;0.7554;-0.3175;
639.0000;0.7546;-0.3127;
639.3000;0.7538;-0.3033;
639.6000;0.7554;-0.2985;
639.9000;0.7513;-0.3009;
640.2000;0.7497;-0.3009;
640.5000;0.7505;-0.2985;
640.8000;0.7513;-0.2891;
641.1000;0.7497;-0.3009;
641.4000;0.7448;-0.3151;
641.7000;0.7505;-0.3056;
642.0000;0.7481;-0.3033;
642.3000;0.7473;-0.3033;
642.6000;0.7464;-0.3056;
642.9000;0.7456;-0.3033;
643.2000;0.7424;-0.3127;
643.5000;0.7448;-0.3104;
643.8000;0.7432;-0.3151;
644.1000;0.7424;-0.3127;
644.4000;0.7416;-0.3080;
644.7000;0.7399;-0.3080;
645.0000;0.7407;-0.3080;
645.3000;0.7416;-0.2985;
645.6000;0.7383;-0.2962;
645.9000;0.7375;-0.2914;
646.2000;0.7391;-0.2867;
646.5000;0.7367;-0.2819;
646.8000;0.7350;-0.2843;
647.1000;0.7367;-0.2867;
647.4000;0.7359;-0.2867;
647.7000;0.7342;-0.2867;
648.0000;0.7326;-0.2891;
648.3000;0.7334;-0.2796;
648.6000;0.7383;-0.2559;
648.9000;0.7310;-0.2725;
649.2000;0.7350;-0.2819;
649.5000;0.7310;-0.2891;
649.8000;0.7334;-0.2772;
650.1000;0.7350;-0.2843;
650.4000;0.7302;-0.3009;
650.7000;0.7293;-0.3009;
651.0000;0.7318;-0.2962;
651.3000;0.7269;-0.3127;
651.6000;0.7269;-0.3104;
651.9000;0.7245;-0.3127;
652.2000;0.7269;-0.3080;
652.5000;0.7261;-0.3175;
652.8000;0.7269;-0.3151;
653.1000;0.7196;-0.3293;
653.4000;0.7253;-0.3175;
653.7000;0.7261;-0.3104;
654.0000;0.7261;-0.3056;
654.3000;0.7228;-0.3033;
654.6000;0.7253;-0.2938;
654.9000;0.7245;-0.2938;
655.2000;0.7236;-0.2867;
655.5000;0.7220;-0.2772;
655.8000;0.7228;-0.2796;
656.1000;0.7204;-0.2891;
656.4000;0.7196;-0.2962;
656.7000;0.7188;-0.2962;
657.0000;0.7179;-0.2914;
657.3000;0.7163;-0.2962;
657.6000;0.7163;-0.2867;
657.9000;0.7171;-0.2843;
658.2000;0.7171;-0.2819;
658.5000;0.7131;-0.2962;
658.8000;0.7163;-0.2867;
659.1000;0.7155;-0.2891;
659.4000;0.7147;-0.2914;
659.7000;0.7147;-0.2985;
660.0000;0.7163;-0.3033;
660.3000;0.7155;-0.3056;
660.6000;0.7114;-0.3033;
660.9000;0.7131;-0.3056;
661.2000;0.7131;-0.2985;
661.5000;0.7139;-0.2985;
661.8000;0.7114;-0.3056;
662.1000;0.7114;-0.3009;
662.4000;0.7114;-0.3009;
662.7000;0.7123;-0.2938;
663.0000;0.7106;-0.2914;
663.3000;0.7098;-0.2938;
663.6000;0.7106;-0.3009;
663.9000;0.7106;-0.2985;
664.2000;0.7066;-0.3104;
664.5000;0.7098;-0.2962;
664.8000;0.7074;-0.3104;
665.1000;0.7049;-0.3175;
665.4000;0.7082;-0.3080;
665.7000;0.7074;-0.3104;
666.0000;0.7082;-0.3104;
666.3000;0.7033;-0.3104;
666.6000;0.7066;-0.2891;
666.9000;0.7057;-0.2985;
667.2000;0.7049;-0.3033;
667.5000;0.7041;-0.2938;
667.8000;0.7057;-0.2938;
668.1000;0.7017;-0.2938;
668.4000;0.7017;-0.2985;
668.7000;0.7009;-0.3033;
669.0000;0.6960;-0.3175;
669.3000;0.7025;-0.3033;
669.6000;0.7049;-0.2985;
669.9000;0.6992;-0.3127;
670.2000;0.7009;-0.3127;
670.5000;0.6976;-0.3175;
670.8000;0.7009;-0.3056;
671.1000;0.6984;-0.3056;
671.4000;0.6992;-0.2962;
671.7000;0.7000;-0.3056;
672.0000;0.6984;-0.3127;
672.3000;0.6992;-0.3199;
672.6000;0.6968;-0.3056;
672.9000;0.6992;-0.3009;
673.2000;0.6976;-0.3033;
673.5000;0.6976;-0.3033;
673.8000;0.6960;-0.3104;
674.1000;0.6960;-0.3127;
674.4000;0.6960;-0.3151;
674.7000;0.6943;-0.3270;
675.0000;0.6984;-0.3127;
675.3000;0.6943;-0.3199;
675.6000;0.6952;-0.3175;
675.9000;0.6976;-0.3080;
676.2000;0.6943;-0.3151;
676.5000;0.6919;-0.3104;
676.8000;0.6952;-0.2985;
677.1000;0.6952;-0.2914;
677.4000;0.6927;-0.2891;
677.7000;0.6911;-0.2938;
678.0000;0.6943;-0.2867;
678.3000;0.6919;-0.2938;
678.6000;0.6903;-0.2914;
678.9000;0.6911;-0.2891;
679.2000;0.6911;-0.2843;
679.5000;0.6829;-0.2962;
679.8000;0.6911;-0.2843;
680.1000;0.6911;-0.2819;
680.4000;0.6895;-0.2914;
680.7000;0.6886;-0.2914;
681.0000;0.6903;-0.2962;
681.3000;0.6903;-0.2985;
681.6000;0.6943;-0.2867;
681.9000;0.6878;-0.3056;
682.2000;0.6878;-0.3104;
682.5000;0.6854;-0.3199;
682.8000;0.6862;-0.3175;
683.1000;0.6838;-0.3175;
683.4000;0.6862;-0.3175;
683.7000;0.6805;-0.3199;
684.0000;0.6829;-0.3151;
684.3000;0.6846;-0.3080;
684.6000;0.6854;-0.2962;
684.9000;0.6895;-0.2819;
685.2000;0.6854;-0.2938;
685.5000;0.6838;-0.2962;
685.8000;0.6838;-0.2938;
686.1000;0.6854;-0.2938;
686.4000;0.6895;-0.2819;
686.7000;0.6846;-0.3033;
687.0000;0.6870;-0.2891;
687.3000;0.6821;-0.2962;
687.6000;0.6829;-0.3009;
687.9000;0.6878;-0.2938;
688.2000;0.6789;-0.3199;
688.5000;0.6805;-0.3104;
688.8000;0.6805;-0.3127;
689.1000;0.6805;-0.3175;
689.4000;0.6813;-0.3127;
689.7000;0.6813;-0.3127;
690.0000;0.6789;-0.3199;
690.3000;0.6813;-0.3127;
690.6000;0.6854;-0.2914;
690.9000;0.6821;-0.2891;
691.2000;0.6781;-0.2867;
691.5000;0.6789;-0.2843;
691.8000;0.6821;-0.2772;
692.1000;0.6797;-0.2843;
692.4000;0.6797;-0.2796;
692.7000;0.6772;-0.2891;
693.0000;0.6764;-0.2891;
693.3000;0.6781;-0.2914;
693.6000;0.6772;-0.2962;
693.9000;0.6740;-0.2962;
694.2000;0.6829;-0.2819;
694.5000;0.6748;-0.3009;
694.8000;0.6772;-0.2914;
695.1000;0.6781;-0.2914;
695.4000;0.6764;-0.2985;
695.7000;0.6748;-0.3056;
696.0000;0.6740;-0.3056;
696.3000;0.6748;-0.2962;
696.6000;0.6764;-0.3009;
696.9000;0.6772;-0.2938;
697.2000;0.6732;-0.2985;
697.5000;0.6748;-0.2962;
697.8000;0.6716;-0.3033;
698.1000;0.6724;-0.2985;
698.4000;0.6740;-0.3009;
698.7000;0.6748;-0.2962;
699.0000;0.6740;-0.3009;
699.3000;0.6675;-0.3080;
699.6000;0.6707;-0.3080;
699.9000;0.6724;-0.3009;
700.2000;0.6732;-0.2938;
700.5000;0.6707;-0.3009;
700.8000;0.6691;-0.3009;
701.1000;0.6724;-0.2985;
701.4000;0.6797;-0.2796;
701.7000;0.6699;-0.2962;
702.0000;0.6683;-0.2914;
702.3000;0.6716;-0.2843;
702.6000;0.6683;-0.2891;
702.9000;0.6667;-0.2962;
703.2000;0.6691;-0.2891;
703.5000;0.6699;-0.2843;
703.8000;0.6683;-0.2867;
704.1000;0.6683;-0.2867;
704.4000;0.6675;-0.2843;
704.7000;0.6659;-0.2891;
705.0000;0.6675;-0.2819;
705.3000;0.6667;-0.2796;
705.6000;0.6667;-0.2796;
705.9000;0.6626;-0.2914;
706.2000;0.6667;-0.2819;
706.5000;0.6650;-0.2891;
706.8000;0.6634;-0.3009;
707.1000;0.6650;-0.2962;
707.4000;0.6675;-0.2938;
707.7000;0.6659;-0.2962;
708.0000;0.6659;-0.2914;
708.3000;0.6650;-0.2962;
708.6000;0.6650;-0.2914;
708.9000;0.6667;-0.2796;
709.2000;0.6667;-0.2867;
709.5000;0.6667;-0.2891;
709.8000;0.6683;-0.2772;
710.1000;0.6569;-0.3009;
710.4000;0.6667;-0.2772;
710.7000;0.6642;-0.2867;
711.0000;0.6634;-0.2914;
711.3000;0.6650;-0.2867;
711.6000;0.6642;-0.2819;
711.9000;0.6626;-0.2891;
712.2000;0.6602;-0.2938;
712.5000;0.6659;-0.2796;
712.8000;0.6634;-0.2891;
713.1000;0.6634;-0.2843;
713.4000;0.6626;-0.2843;
713.7000;0.6618;-0.2938;
714.0000;0.6626;-0.2938;
714.3000;0.6618;-0.2962;
714.6000;0.6593;-0.2962;
714.9000;0.6634;-0.2796;
715.2000;0.6618;-0.2748;
715.5000;0.6553;-0.2819;
715.8000;0.6585;-0.2772;
716.1000;0.6593;-0.2748;
716.4000;0.6602;-0.2748;
716.7000;0.6593;-0.2796;
717.0000;0.6602;-0.2772;
717.3000;0.6593;-0.2772;
717.6000;0.6593;-0.2725;
717.9000;0.6585;-0.2725;
718.2000;0.6545;-0.2748;
718.5000;0.6593;-0.2677;
718.8000;0.6585;-0.2748;
719.1000;0.6561;-0.2772;
719.4000;0.6593;-0.2701;
719.7000;0.6585;-0.2701;
720.0000;0.6569;-0.2748;
720.3000;0.6569;-0.2796;
720.6000;0.6577;-0.2772;
720.9000;0.6569;-0.2725;
721.2000;0.6577;-0.2677;
721.5000;0.6577;-0.2677;
721.8000;0.6569;-0.2630;
722.1000;0.6577;-0.2559;
722.4000;0.6561;-0.2488;
722.7000;0.6553;-0.2535;
723.0000;0.6569;-0.2701;
723.3000;0.6569;-0.2725;
723.6000;0.6561;-0.2654;
723.9000;0.6545;-0.2630;
724.2000;0.6561;-0.2677;
724.5000;0.6553;-0.2748;
724.8000;0.6545;-0.2819;
725.1000;0.6545;-0.2843;
725.4000;0.6553;-0.2819;
725.7000;0.6545;-0.2819;
726.0000;0.6553;-0.2772;
726.3000;0.6536;-0.2748;
726.6000;0.6512;-0.2701;
726.9000;0.6536;-0.2606;
727.2000;0.6536;-0.2701;
727.5000;0.6528;-0.2725;
727.8000;0.6545;-0.2772;
728.1000;0.6545;-0.2867;
728.4000;0.6520;-0.2891;
728.7000;0.6471;-0.2985;
729.0000;0.6553;-0.2701;
729.3000;0.6520;-0.2748;
729.6000;0.6528;-0.2677;
729.9000;0.6520;-0.2630;
730.2000;0.6520;-0.2606;
730.5000;0.6520;-0.2583;
730.8000;0.6512;-0.2559;
731.1000;0.6479;-0.2630;
731.4000;0.6504;-0.2606;
731.7000;0.6439;-0.2748;
732.0000;0.6512;-0.2630;
732.3000;0.6512;-0.2677;
732.6000;0.6504;-0.2748;
732.9000;0.6479;-0.2843;
733.2000;0.6520;-0.2772;
733.5000;0.6536;-0.2748;
733.8000;0.6512;-0.2772;
734.1000;0.6488;-0.2677;
734.4000;0.6512;-0.2583;
734.7000;0.6496;-0.2606;
735.0000;0.6528;-0.2511;
735.3000;0.6488;-0.2511;
735.6000;0.6504;-0.2535;
735.9000;0.6488;-0.2535;
736.2000;0.6561;-0.2275;
736.5000;0.6479;-0.2488;
736.8000;0.6479;-0.2511;
737.1000;0.6496;-0.2535;
737.4000;0.6439;-0.2701;
737.7000;0.6488;-0.2701;
738.0000;0.6488;-0.2748;
738.3000;0.6504;-0.2725;
738.6000;0.6504;-0.2748;
738.9000;0.6488;-0.2772;
739.2000;0.6455;-0.2796;
739.5000;0.6488;-0.2725;
739.8000;0.6471;-0.2701;
740.1000;0.6471;-0.2748;
740.4000;0.6463;-0.2748;
740.7000;0.6431;-0.2772;
741.0000;0.6455;-0.2677;
741.3000;0.6479;-0.2725;
741.6000;0.6528;-0.2677;
741.9000;0.6455;-0.2772;
742.2000;0.6471;-0.2701;
742.5000;0.6447;-0.2725;
742.8000;0.6479;-0.2583;
743.1000;0.6447;-0.2630;
743.4000;0.6463;-0.2654;
743.7000;0.6463;-0.2630;
744.0000;0.6439;-0.2654;
744.3000;0.6447;-0.2701;
744.6000;0.6447;-0.2772;
744.9000;0.6463;-0.2748;
745.2000;0.6447;-0.2772;
745.5000;0.6447;-0.2796;
745.8000;0.6447;-0.2772;
746.1000;0.6455;-0.2819;
746.4000;0.6422;-0.2819;
746.7000;0.6439;-0.2748;
747.0000;0.6431;-0.2701;
747.3000;0.6431;-0.2701;
747.6000;0.6422;-0.2796;
747.9000;0.6431;-0.2725;
748.2000;0.6414;-0.2772;
748.5000;0.6447;-0.2796;
748.8000;0.6431;-0.2772;
749.1000;0.6398;-0.2725;
749.4000;0.6431;-0.2725;
749.7000;0.6439;-0.2630;
750.0000;0.6414;-0.2677;
750.3000;0.6382;-0.2748;
750.6000;0.6422;-0.2606;
750.9000;0.6398;-0.2654;
751.2000;0.6431;-0.2511;
751.5000;0.6431;-0.2606;
751.8000;0.6414;-0.2630;
752.1000;0.6406;-0.2559;
752.4000;0.6422;-0.2488;
752.7000;0.6406;-0.2559;
753.0000;0.6398;-0.2511;
753.3000;0.6414;-0.2464;
753.6000;0.6414;-0.2417;
753.9000;0.6455;-0.2393;
754.2000;0.6414;-0.2511;
754.5000;0.6414;-0.2417;
754.8000;0.6365;-0.2511;
755.1000;0.6414;-0.2393;
755.4000;0.6398;-0.2488;
755.7000;0.6390;-0.2535;
756.0000;0.6309;-0.2819;
756.3000;0.6431;-0.2535;
756.6000;0.6406;-0.2559;
756.9000;0.6374;-0.2606;
757.2000;0.6390;-0.2606;
757.5000;0.6398;-0.2535;
757.8000;0.6439;-0.2535;
758.1000;0.6439;-0.2535;
758.4000;0.6422;-0.2535;
758.7000;0.6406;-0.2583;
759.0000;0.6447;-0.2511;
759.3000;0.6374;-0.2701;
759.6000;0.6414;-0.2511;
759.9000;0.6398;-0.2535;
760.2000;0.6422;-0.2606;
760.5000;0.6447;-0.2488;
760.8000;0.6390;-0.2583;
761.1000;0.6398;-0.2535;
761.4000;0.6422;-0.2488;
761.7000;0.6374;-0.2606;
762.0000;0.6406;-0.2583;
762.3000;0.6374;-0.2654;
762.6000;0.6357;-0.2796;
762.9000;0.6382;-0.2796;
763.2000;0.6365;-0.2891;
763.5000;0.6365;-0.2867;
763.8000;0.6398;-0.2772;
764.1000;0.6382;-0.2772;
764.4000;0.6365;-0.2701;
764.7000;0.6374;-0.2630;
765.0000;0.6365;-0.2606;
765.3000;0.6374;-0.2606;
765.6000;0.6357;-0.2630;
765.9000;0.6374;-0.2606;
766.2000;0.6365;-0.2606;
766.5000;0.6309;-0.2630;
766.8000;0.6357;-0.2606;
767.1000;0.6357;-0.2583;
767.4000;0.6357;-0.2630;
767.7000;0.6357;-0.2630;
768.0000;0.6357;-0.2677;
768.3000;0.6349;-0.2725;
768.6000;0.6357;-0.2677;
768.9000;0.6349;-0.2677;
769.2000;0.6365;-0.2677;
769.5000;0.6365;-0.2772;
769.8000;0.6357;-0.2772;
770.1000;0.6349;-0.2819;
770.4000;0.6357;-0.2748;
770.7000;0.6349;-0.2677;
771.0000;0.6341;-0.2772;
771.3000;0.6431;-0.2488;
771.6000;0.6357;-0.2677;
771.9000;0.6357;-0.2725;
772.2000;0.6357;-0.2796;
772.5000;0.6390;-0.2725;
772.8000;0.6357;-0.2867;
773.1000;0.6357;-0.2772;
773.4000;0.6333;-0.2701;
773.7000;0.6317;-0.2725;
774.0000;0.6357;-0.2583;
774.3000;0.6349;-0.2701;
774.6000;0.6333;-0.2654;
774.9000;0.6317;-0.2677;
775.2000;0.6333;-0.2630;
775.5000;0.6341;-0.2654;
775.8000;0.6333;-0.2654;
776.1000;0.6333;-0.2583;
776.4000;0.6325;-0.2606;
776.7000;0.6325;-0.2677;
777.0000;0.6317;-0.2748;
777.3000;0.6341;-0.2748;
777.6000;0.6325;-0.2748;
777.9000;0.6325;-0.2843;
778.2000;0.6357;-0.2796;
778.5000;0.6325;-0.2772;
778.8000;0.6317;-0.2748;
779.1000;0.6292;-0.2772;
779.4000;0.6325;-0.2701;
779.7000;0.6325;-0.2701;
780.0000;0.6292;-0.2630;
780.3000;0.6292;-0.2630;
780.6000;0.6309;-0.2677;
780.9000;0.6325;-0.2701;
781.2000;0.6325;-0.2606;
781.5000;0.6300;-0.2630;
781.8000;0.6317;-0.2630;
782.1000;0.6365;-0.2559;
782.4000;0.6325;-0.2654;
782.7000;0.6317;-0.2654;
783.0000;0.6300;-0.2725;
783.3000;0.6292;-0.2772;
783.6000;0.6309;-0.2748;
783.9000;0.6292;-0.2725;
784.2000;0.6292;-0.2796;
784.5000;0.6276;-0.2748;
784.8000;0.6309;-0.2630;
785.1000;0.6284;-0.2630;
785.4000;0.6284;-0.2535;
785.7000;0.6276;-0.2440;
786.0000;0.6300;-0.2511;
786.3000;0.6284;-0.2535;
786.6000;0.6317;-0.2511;
786.9000;0.6309;-0.2606;
787.2000;0.6284;-0.2606;
787.5000;0.6292;-0.2654;
787.8000;0.6284;-0.2630;
788.1000;0.6284;-0.2606;
788.4000;0.6292;-0.2559;
788.7000;0.6292;-0.2583;
789.0000;0.6284;-0.2654;
789.3000;0.6276;-0.2654;
789.6000;0.6292;-0.2630;
789.9000;0.6284;-0.2654;
790.2000;0.6276;-0.2630;
790.5000;0.6268;-0.2654;
790.8000;0.6292;-0.2630;
791.1000;0.6284;-0.2606;
791.4000;0.6268;-0.2677;
791.7000;0.6276;-0.2630;
792.0000;0.6268;-0.2677;
792.3000;0.6268;-0.2725;
792.6000;0.6268;-0.2677;
792.9000;0.6268;-0.2654;
793.2000;0.6268;-0.2725;
793.5000;0.6268;-0.2630;
793.8000;0.6268;-0.2606;
794.1000;0.6260;-0.2630;
794.4000;0.6252;-0.2701;
794.7000;0.6260;-0.2725;
795.0000;0.6276;-0.2748;
795.3000;0.6252;-0.2891;
795.6000;0.6260;-0.2914;
795.9000;0.6243;-0.2867;
796.2000;0.6268;-0.2867;
796.5000;0.6268;-0.2891;
796.8000;0.6235;-0.2891;
797.1000;0.6268;-0.2725;
797.4000;0.6243;-0.2748;
797.7000;0.6252;-0.2725;
798.0000;0.6243;-0.2796;
798.3000;0.6317;-0.2630;
798.6000;0.6260;-0.2701;
798.9000;0.6260;-0.2701;
799.2000;0.6235;-0.2843;
799.5000;0.6243;-0.2843;
799.8000;0.6235;-0.2867;
800.1000;0.6276;-0.2796;
800.4000;0.6252;-0.2772;
800.7000;0.6243;-0.2819;
801.0000;0.6235;-0.2796;
801.3000;0.6260;-0.2867;
801.6000;0.6243;-0.2891;
801.9000;0.6252;-0.2819;
802.2000;0.6252;-0.2819;
802.5000;0.6260;-0.2725;
802.8000;0.6252;-0.2772;
803.1000;0.6252;-0.2772;
803.4000;0.6252;-0.2725;
803.7000;0.6284;-0.2630;
804.0000;0.6178;-0.2843;
804.3000;0.6252;-0.2654;
804.6000;0.6252;-0.2630;
804.9000;0.6235;-0.2677;
805.2000;0.6243;-0.2630;
805.5000;0.6292;-0.2535;
805.8000;0.6260;-0.2606;
806.1000;0.6260;-0.2677;
806.4000;0.6243;-0.2701;
806.7000;0.6243;-0.2677;
807.0000;0.6178;-0.2867;
807.3000;0.6243;-0.2748;
807.6000;0.6252;-0.2748;
807.9000;0.6195;-0.2891;
808.2000;0.6243;-0.2867;
808.5000;0.6211;-0.2891;
808.8000;0.6235;-0.2772;
809.1000;0.6186;-0.2843;
809.4000;0.6243;-0.2725;
809.7000;0.6317;-0.2606;
810.0000;0.6227;-0.2772;
810.3000;0.6227;-0.2796;
810.6000;0.6162;-0.2962;
810.9000;0.6219;-0.2772;
811.2000;0.6211;-0.2772;
811.5000;0.6178;-0.2819;
811.8000;0.6219;-0.2796;
812.1000;0.6292;-0.2677;
812.4000;0.6211;-0.2914;
812.7000;0.6195;-0.2914;
813.0000;0.6227;-0.2867;
813.3000;0.6235;-0.2891;
813.6000;0.6227;-0.2938;
813.9000;0.6227;-0.2914;
814.2000;0.6227;-0.2891;
814.5000;0.6235;-0.2843;
814.8000;0.6219;-0.2938;
815.1000;0.6219;-0.2891;
815.4000;0.6227;-0.2867;
815.7000;0.6227;-0.2914;
816.0000;0.6211;-0.2867;
816.3000;0.6203;-0.2819;
816.6000;0.6211;-0.2796;
816.9000;0.6178;-0.2867;
817.2000;0.6203;-0.2772;
817.5000;0.6252;-0.2606;
817.8000;0.6243;-0.2630;
818.1000;0.6219;-0.2701;
818.4000;0.6243;-0.2654;
818.7000;0.6138;-0.2891;
819.0000;0.6243;-0.2630;
819.3000;0.6211;-0.2654;
819.6000;0.6227;-0.2654;
819.9000;0.6211;-0.2654;
820.2000;0.6203;-0.2654;
820.5000;0.6235;-0.2559;
820.8000;0.6203;-0.2583;
821.1000;0.6195;-0.2583;
821.4000;0.6211;-0.2583;
821.7000;0.6170;-0.2677;
822.0000;0.6186;-0.2654;
822.3000;0.6195;-0.2654;
822.6000;0.6195;-0.2677;
822.9000;0.6211;-0.2654;
823.2000;0.6203;-0.2677;
823.5000;0.6195;-0.2630;
823.8000;0.6154;-0.2654;
824.1000;0.6178;-0.2559;
824.4000;0.6203;-0.2535;
824.7000;0.6195;-0.2606;
825.0000;0.6195;-0.2583;
825.3000;0.6186;-0.2535;
825.6000;0.6203;-0.2511;
825.9000;0.6235;-0.2346;
826.2000;0.6195;-0.2369;
826.5000;0.6211;-0.2393;
826.8000;0.6186;-0.2464;
827.1000;0.6186;-0.2464;
827.4000;0.6203;-0.2440;
827.7000;0.6186;-0.2488;
828.0000;0.6227;-0.2322;
828.3000;0.6211;-0.2393;
828.6000;0.6235;-0.2417;
828.9000;0.6211;-0.2583;
829.2000;0.6186;-0.2677;
829.5000;0.6186;-0.2677;
829.8000;0.6186;-0.2701;
830.1000;0.6186;-0.2701;
830.4000;0.6186;-0.2654;
830.7000;0.6195;-0.2606;
831.0000;0.6186;-0.2701;
831.3000;0.6203;-0.2583;
831.6000;0.6178;-0.2535;
831.9000;0.6186;-0.2583;
832.2000;0.6203;-0.2583;
832.5000;0.6170;-0.2725;
832.8000;0.6146;-0.2796;
833.1000;0.6170;-0.2630;
833.4000;0.6170;-0.2559;
833.7000;0.6195;-0.2535;
834.0000;0.6162;-0.2583;
834.3000;0.6178;-0.2630;
834.6000;0.6154;-0.2725;
834.9000;0.6186;-0.2606;
835.2000;0.6178;-0.2583;
835.5000;0.6154;-0.2583;
835.8000;0.6178;-0.2511;
836.1000;0.6186;-0.2488;
836.4000;0.6170;-0.2417;
836.7000;0.6211;-0.2298;
837.0000;0.6162;-0.2464;
837.3000;0.6162;-0.2464;
837.6000;0.6170;-0.2559;
837.9000;0.6195;-0.2583;
838.2000;0.6170;-0.2488;
838.5000;0.6178;-0.2535;
838.8000;0.6170;-0.2464;
839.1000;0.6170;-0.2464;
839.4000;0.6154;-0.2511;
839.7000;0.6170;-0.2559;
840.0000;0.6154;-0.2511;
840.3000;0.6154;-0.2488;
840.6000;0.6170;-0.2511;
840.9000;0.6178;-0.2559;
841.2000;0.6178;-0.2535;
841.5000;0.6138;-0.2606;
841.8000;0.6154;-0.2511;
842.1000;0.6154;-0.2535;
842.4000;0.6178;-0.2464;
842.7000;0.6178;-0.2559;
843.0000;0.6162;-0.2583;
843.3000;0.6154;-0.2583;
843.6000;0.6195;-0.2583;
843.9000;0.6162;-0.2677;
844.2000;0.6162;-0.2725;
844.5000;0.6154;-0.2701;
844.8000;0.6081;-0.2819;
845.1000;0.6146;-0.2654;
845.4000;0.6211;-0.2535;
845.7000;0.6146;-0.2654;
846.0000;0.6162;-0.2583;
846.3000;0.6154;-0.2606;
846.6000;0.6146;-0.2559;
846.9000;0.6138;-0.2559;
847.2000;0.6146;-0.2511;
847.5000;0.6146;-0.2417;
847.8000;0.6162;-0.2227;
848.1000;0.6105;-0.2346;
848.4000;0.6138;-0.2298;
848.7000;0.6162;-0.2227;
849.0000;0.6154;-0.2180;
849.3000;0.6138;-0.2275;
849.6000;0.6154;-0.2275;
849.9000;0.6154;-0.2227;
850.2000;0.6162;-0.2132;
850.5000;0.6186;-0.2109;
850.8000;0.6162;-0.2298;
851.1000;0.6081;-0.2488;
851.4000;0.6154;-0.2251;
851.7000;0.6146;-0.2322;
852.0000;0.6154;-0.2298;
852.3000;0.6138;-0.2298;
852.6000;0.6129;-0.2322;
852.9000;0.6154;-0.2346;
853.2000;0.6154;-0.2251;
853.5000;0.6097;-0.2464;
853.8000;0.6170;-0.2369;
854.1000;0.6138;-0.2298;
854.4000;0.6154;-0.2227;
854.7000;0.6129;-0.2275;
855.0000;0.6129;-0.2227;
855.3000;0.6138;-0.2180;
855.6000;0.6138;-0.2275;
855.9000;0.6129;-0.2298;
856.2000;0.6129;-0.2227;
856.5000;0.6138;-0.2275;
856.8000;0.6146;-0.2346;
857.1000;0.6121;-0.2322;
857.4000;0.6138;-0.2417;
857.7000;0.6154;-0.2440;
858.0000;0.6129;-0.2511;
858.3000;0.6129;-0.2464;
858.6000;0.6113;-0.2488;
858.9000;0.6089;-0.2606;
859.2000;0.6203;-0.2393;
859.5000;0.6129;-0.2606;
859.8000;0.6129;-0.2606;
860.1000;0.6138;-0.2606;
860.4000;0.6129;-0.2583;
860.7000;0.6129;-0.2630;
861.0000;0.6113;-0.2630;
861.3000;0.6121;-0.2583;
861.6000;0.6129;-0.2559;
861.9000;0.6129;-0.2606;
862.2000;0.6113;-0.2630;
862.5000;0.6121;-0.2606;
862.8000;0.6121;-0.2559;
863.1000;0.6129;-0.2535;
863.4000;0.6129;-0.2511;
863.7000;0.6154;-0.2369;
864.0000;0.6138;-0.2346;
864.3000;0.6113;-0.2417;
864.6000;0.6146;-0.2393;
864.9000;0.6129;-0.2417;
865.2000;0.6129;-0.2417;
865.5000;0.6113;-0.2417;
865.8000;0.6129;-0.2393;
866.1000;0.6113;-0.2440;
866.4000;0.6113;-0.2583;
866.7000;0.6121;-0.2630;
867.0000;0.6121;-0.2725;
867.3000;0.6121;-0.2748;
867.6000;0.6121;-0.2725;
867.9000;0.6097;-0.2701;
868.2000;0.6105;-0.2630;
868.5000;0.6170;-0.2488;
868.8000;0.6097;-0.2606;
869.1000;0.6113;-0.2511;
869.4000;0.6129;-0.2488;
869.7000;0.6170;-0.2417;
870.0000;0.6113;-0.2535;
870.3000;0.6113;-0.2535;
870.6000;0.6129;-0.2511;
870.9000;0.6121;-0.2417;
871.2000;0.6097;-0.2464;
871.5000;0.6097;-0.2393;
871.8000;0.6121;-0.2440;
872.1000;0.6121;-0.2369;
872.4000;0.6105;-0.2393;
872.7000;0.6105;-0.2417;
873.0000;0.6105;-0.2417;
873.3000;0.6105;-0.2464;
873.6000;0.6113;-0.2464;
873.9000;0.6121;-0.2511;
874.2000;0.6113;-0.2559;
874.5000;0.6113;-0.2606;
874.8000;0.6121;-0.2606;
875.1000;0.6113;-0.2535;
875.4000;0.6113;-0.2583;
875.7000;0.6121;-0.2535;
876.0000;0.6129;-0.2559;
876.3000;0.6097;-0.2654;
876.6000;0.6105;-0.2583;
876.9000;0.6113;-0.2417;
877.2000;0.6072;-0.2535;
877.5000;0.6097;-0.2488;
877.8000;0.6113;-0.2511;
878.1000;0.6105;-0.2583;
878.4000;0.6105;-0.2535;
878.7000;0.6097;-0.2559;
879.0000;0.6113;-0.2511;
879.3000;0.6097;-0.2511;
879.6000;0.6113;-0.2322;
879.9000;0.6097;-0.2346;
880.2000;0.6105;-0.2298;
880.5000;0.6089;-0.2298;
880.8000;0.6113;-0.2298;
881.1000;0.6105;-0.2346;
881.4000;0.6105;-0.2393;
881.7000;0.6056;-0.2535;
882.0000;0.6089;-0.2440;
882.3000;0.6113;-0.2369;
882.6000;0.6089;-0.2369;
882.9000;0.6056;-0.2369;
883.2000;0.6048;-0.2417;
883.5000;0.6089;-0.2393;
883.8000;0.6097;-0.2322;
884.1000;0.6081;-0.2298;
884.4000;0.6089;-0.2275;
884.7000;0.6105;-0.2346;
885.0000;0.6089;-0.2346;
885.3000;0.6097;-0.2298;
885.6000;0.6097;-0.2251;
885.9000;0.6113;-0.2322;
886.2000;0.6113;-0.2369;
886.5000;0.6089;-0.2417;
886.8000;0.6105;-0.2464;
887.1000;0.6105;-0.2464;
887.4000;0.6089;-0.2511;
887.7000;0.6097;-0.2417;
888.0000;0.6097;-0.2346;
888.3000;0.6089;-0.2346;
888.6000;0.6105;-0.2275;
888.9000;0.6081;-0.2369;
889.2000;0.6081;-0.2393;
889.5000;0.6064;-0.2440;
889.8000;0.6072;-0.2346;
890.1000;0.6081;-0.2393;
890.4000;0.6064;-0.2464;
890.7000;0.6040;-0.2488;
891.0000;0.6072;-0.2393;
891.3000;0.6089;-0.2369;
891.6000;0.6089;-0.2275;
891.9000;0.6089;-0.2322;
892.2000;0.6081;-0.2464;
892.5000;0.6089;-0.2535;
892.8000;0.6081;-0.2583;
893.1000;0.6089;-0.2511;
893.4000;0.6072;-0.2464;
893.7000;0.6081;-0.2369;
894.0000;0.6024;-0.2535;
894.3000;0.6072;-0.2369;
894.6000;0.6081;-0.2346;
894.9000;0.6081;-0.2346;
895.2000;0.6072;-0.2346;
895.5000;0.6089;-0.2322;
895.8000;0.6089;-0.2322;
896.1000;0.6056;-0.2369;
896.4000;0.6072;-0.2346;
896.7000;0.6089;-0.2393;
897.0000;0.6072;-0.2346;
897.3000;0.6081;-0.2346;
897.6000;0.6089;-0.2322;
897.9000;0.6089;-0.2298;
898.2000;0.6081;-0.2393;
898.5000;0.6081;-0.2369;
898.8000;0.6072;-0.2393;
899.1000;0.6097;-0.2275;
899.4000;0.6081;-0.2417;
899.7000;0.6056;-0.2440;
900.0000;0.6064;-0.2464;
900.3000;0.6072;-0.2488;
900.6000;0.6081;-0.2488;
900.9000;0.6064;-0.2511;
901.2000;0.6064;-0.2488;
901.5000;0.6048;-0.2488;
901.8000;0.6072;-0.2369;
902.1000;0.6081;-0.2298;
902.4000;0.6072;-0.2275;
902.7000;0.6081;-0.2251;
903.0000;0.6064;-0.2251;
903.3000;0.6081;-0.2251;
903.6000;0.6081;-0.2275;
903.9000;0.6056;-0.2369;
904.2000;0.6072;-0.2251;
904.5000;0.6064;-0.2227;
904.8000;0.6081;-0.2251;
905.1000;0.6048;-0.2393;
905.4000;0.6089;-0.2322;
905.7000;0.6056;-0.2346;
906.0000;0.6072;-0.2346;
906.3000;0.6081;-0.2275;
906.6000;0.6015;-0.2393;
906.9000;0.6081;-0.2298;
907.2000;0.6048;-0.2440;
907.5000;0.6072;-0.2346;
907.8000;0.6072;-0.2346;
908.1000;0.6064;-0.2298;
908.4000;0.6064;-0.2251;
908.7000;0.6056;-0.2393;
909.0000;0.6064;-0.2346;
909.3000;0.6089;-0.2322;
909.6000;0.6072;-0.2464;
909.9000;0.6072;-0.2393;
910.2000;0.6072;-0.2369;
910.5000;0.6040;-0.2369;
910.8000;0.6072;-0.2275;
911.1000;0.6048;-0.2322;
911.4000;0.6056;-0.2275;
911.7000;0.6015;-0.2346;
912.0000;0.6048;-0.2298;
912.3000;0.6064;-0.2369;
912.6000;0.6056;-0.2417;
912.9000;0.6056;-0.2346;
913.2000;0.6048;-0.2346;
913.5000;0.6048;-0.2346;
913.8000;0.6040;-0.2369;
914.1000;0.6064;-0.2346;
914.4000;0.6064;-0.2393;
914.7000;0.6113;-0.2275;
915.0000;0.6048;-0.2322;
915.3000;0.6056;-0.2275;
915.6000;0.6032;-0.2251;
915.9000;0.6048;-0.2322;
916.2000;0.6048;-0.2346;
916.5000;0.6040;-0.2298;
916.8000;0.6048;-0.2275;
917.1000;0.6056;-0.2132;
917.4000;0.6064;-0.2109;
917.7000;0.6040;-0.2275;
918.0000;0.6048;-0.2227;
918.3000;0.6064;-0.2227;
918.6000;0.6056;-0.2275;
918.9000;0.6056;-0.2251;
919.2000;0.6064;-0.2156;
919.5000;0.6072;-0.2180;
919.8000;0.6048;-0.2203;
920.1000;0.6056;-0.2203;
920.4000;0.6056;-0.2203;
920.7000;0.5999;-0.2369;
921.0000;0.6081;-0.2203;
921.3000;0.6056;-0.2203;
921.6000;0.6056;-0.2227;
921.9000;0.6064;-0.2251;
922.2000;0.6048;-0.2275;
922.5000;0.6056;-0.2275;
922.8000;0.6056;-0.2203;
923.1000;0.6064;-0.2180;
923.4000;0.6129;-0.1967;
923.7000;0.6064;-0.2109;
924.0000;0.6048;-0.2085;
924.3000;0.6040;-0.2109;
924.6000;0.6032;-0.2085;
924.9000;0.6064;-0.2061;
925.2000;0.6032;-0.2132;
925.5000;0.6097;-0.1967;
925.8000;0.6048;-0.2156;
926.1000;0.6024;-0.2203;
926.4000;0.6032;-0.2156;
926.7000;0.6032;-0.2156;
927.0000;0.6032;-0.2109;
927.3000;0.6056;-0.2061;
927.6000;0.6056;-0.2061;
927.9000;0.6048;-0.2061;
928.2000;0.6032;-0.2109;
928.5000;0.6056;-0.2085;
928.8000;0.6040;-0.2061;
929.1000;0.6024;-0.2203;
929.4000;0.6056;-0.2156;
929.7000;0.6040;-0.2109;
930.0000;0.6081;-0.2085;
930.3000;0.6032;-0.2180;
930.6000;0.6040;-0.2156;
930.9000;0.6040;-0.2180;
931.2000;0.6048;-0.2203;
931.5000;0.6032;-0.2203;
931.8000;0.6048;-0.2180;
932.1000;0.6024;-0.2180;
932.4000;0.6024;-0.2156;
932.7000;0.6081;-0.2085;
933.0000;0.6040;-0.2180;
933.3000;0.6024;-0.2109;
933.6000;0.6032;-0.2109;
933.9000;0.6040;-0.2109;
934.2000;0.6040;-0.2109;
934.5000;0.6032;-0.2156;
934.8000;0.6048;-0.2085;
935.1000;0.6048;-0.2085;
935.4000;0.6024;-0.2109;
935.7000;0.6024;-0.2132;
936.0000;0.6032;-0.2203;
936.3000;0.6024;-0.2227;
936.6000;0.6015;-0.2109;
936.9000;0.5999;-0.2085;
937.2000;0.6024;-0.2038;
937.5000;0.6064;-0.1943;
937.8000;0.6007;-0.2203;
938.1000;0.6007;-0.2227;
938.4000;0.6032;-0.2298;
938.7000;0.6032;-0.2251;
939.0000;0.6032;-0.2322;
939.3000;0.6032;-0.2251;
939.6000;0.6032;-0.2322;
939.9000;0.6040;-0.2298;
940.2000;0.6048;-0.2156;
940.5000;0.6040;-0.2227;
940.8000;0.6032;-0.2346;
941.1000;0.6040;-0.2322;
941.4000;0.6032;-0.2369;
941.7000;0.6032;-0.2298;
942.0000;0.6032;-0.2227;
942.3000;0.6024;-0.2346;
942.6000;0.6032;-0.2346;
942.9000;0.6048;-0.2251;
943.2000;0.6024;-0.2322;
943.5000;0.6048;-0.2156;
943.8000;0.6024;-0.2203;
944.1000;0.6024;-0.2227;
944.4000;0.5999;-0.2322;
944.7000;0.6015;-0.2298;
945.0000;0.5999;-0.2275;
945.3000;0.6032;-0.2061;
945.6000;0.6024;-0.2109;
945.9000;0.6064;-0.2156;
946.2000;0.6032;-0.2227;
946.5000;0.6040;-0.2180;
946.8000;0.6024;-0.2346;
947.1000;0.5991;-0.2440;
947.4000;0.5999;-0.2488;
947.7000;0.6024;-0.2393;
948.0000;0.6024;-0.2393;
948.3000;0.6007;-0.2464;
948.6000;0.6015;-0.2322;
948.9000;0.6015;-0.2203;
949.2000;0.6015;-0.2109;
949.5000;0.6064;-0.1990;
949.8000;0.6007;-0.2061;
950.1000;0.6015;-0.1990;
950.4000;0.6024;-0.2061;
950.7000;0.6007;-0.2109;
951.0000;0.6072;-0.1990;
951.3000;0.6024;-0.2109;
951.6000;0.6007;-0.2109;
951.9000;0.6007;-0.2109;
952.2000;0.5991;-0.2180;
952.5000;0.6024;-0.2156;
952.8000;0.6024;-0.2156;
953.1000;0.6007;-0.2203;
953.4000;0.5999;-0.2275;
953.7000;0.5999;-0.2251;
954.0000;0.6015;-0.2251;
954.3000;0.6015;-0.2298;
954.6000;0.6015;-0.2322;
954.9000;0.6007;-0.2298;
955.2000;0.6007;-0.2322;
955.5000;0.6024;-0.2322;
955.8000;0.6024;-0.2346;
956.1000;0.6024;-0.2275;
956.4000;0.6064;-0.2298;
956.7000;0.6032;-0.2440;
957.0000;0.6024;-0.2298;
957.3000;0.6007;-0.2369;
957.6000;0.6015;-0.2417;
957.9000;0.6015;-0.2417;
958.2000;0.6015;-0.2417;
958.5000;0.6007;-0.2440;
958.8000;0.5991;-0.2440;
959.1000;0.6024;-0.2346;
959.4000;0.5999;-0.2393;
959.7000;0.6015;-0.2346;
960.0000;0.6007;-0.2369;
960.3000;0.5942;-0.2559;
960.6000;0.6007;-0.2440;
960.9000;0.6015;-0.2417;
961.2000;0.6007;-0.2346;
961.5000;0.6007;-0.2369;
961.8000;0.6007;-0.2322;
962.1000;0.6015;-0.2251;
962.4000;0.6015;-0.2275;
962.7000;0.5999;-0.2251;
963.0000;0.5991;-0.2251;
963.3000;0.5999;-0.2227;
963.6000;0.5975;-0.2298;
963.9000;0.6007;-0.2275;
964.2000;0.6015;-0.2346;
964.5000;0.5999;-0.2417;
964.8000;0.5999;-0.2369;
965.1000;0.6007;-0.2275;
965.4000;0.6007;-0.2346;
965.7000;0.6032;-0.2251;
966.0000;0.5983;-0.2298;
966.3000;0.5999;-0.2109;
966.6000;0.6007;-0.2038;
966.9000;0.6024;-0.1848;
967.2000;0.5967;-0.2061;
967.5000;0.6032;-0.1990;
967.8000;0.6024;-0.2014;
968.1000;0.5942;-0.2298;
968.4000;0.6024;-0.2156;
968.7000;0.6007;-0.2203;
969.0000;0.6007;-0.2227;
969.3000;0.6015;-0.2227;
969.6000;0.6015;-0.2275;
969.9000;0.5999;-0.2298;
970.2000;0.5999;-0.2203;
970.5000;0.6007;-0.2180;
970.8000;0.6024;-0.2180;
971.1000;0.6007;-0.2132;
971.4000;0.5991;-0.2227;
971.7000;0.5999;-0.2180;
972.0000;0.6007;-0.2132;
972.3000;0.6015;-0.2132;
972.6000;0.5991;-0.2203;
972.9000;0.5999;-0.2227;
973.2000;0.5934;-0.2251;
973.5000;0.5999;-0.1990;
973.8000;0.5975;-0.2038;
974.1000;0.5983;-0.1967;
974.4000;0.5991;-0.1943;
974.7000;0.5958;-0.1943;
975.0000;0.6007;-0.1777;
975.3000;0.5991;-0.1872;
975.6000;0.6007;-0.1919;
975.9000;0.6007;-0.1824;
976.2000;0.5942;-0.2132;
976.5000;0.5999;-0.2038;
976.8000;0.5999;-0.2061;
977.1000;0.5999;-0.2109;
977.4000;0.5999;-0.2061;
977.7000;0.6007;-0.1967;
978.0000;0.5983;-0.1943;
978.3000;0.5991;-0.1943;
978.6000;0.6048;-0.1919;
978.9000;0.6040;-0.2038;
979.2000;0.5991;-0.2180;
979.5000;0.5991;-0.2132;
979.8000;0.5991;-0.2132;
980.1000;0.5991;-0.1990;
980.4000;0.5991;-0.1967;
980.7000;0.5975;-0.2132;
981.0000;0.6048;-0.1943;
981.3000;0.5983;-0.1967;
981.6000;0.6007;-0.1872;
981.9000;0.5991;-0.1943;
982.2000;0.6015;-0.1872;
982.5000;0.6007;-0.1943;
982.8000;0.5942;-0.2109;
983.1000;0.5983;-0.2109;
983.4000;0.5975;-0.2109;
983.7000;0.5983;-0.2109;
984.0000;0.5991;-0.2085;
984.3000;0.5975;-0.2180;
984.6000;0.5975;-0.2132;
984.9000;0.5983;-0.2132;
985.2000;0.5983;-0.2227;
985.5000;0.5967;-0.2298;
985.8000;0.5983;-0.2227;
986.1000;0.5991;-0.2251;
986.4000;0.5999;-0.2227;
986.7000;0.5991;-0.2275;
987.0000;0.5991;-0.2227;
987.3000;0.6007;-0.2203;
987.6000;0.5999;-0.2132;
987.9000;0.6007;-0.2132;
988.2000;0.5991;-0.2132;
988.5000;0.5983;-0.2109;
988.8000;0.5999;-0.2109;
989.1000;0.5934;-0.2180;
989.4000;0.6015;-0.1967;
989.7000;0.6007;-0.2038;
990.0000;0.5991;-0.2038;
990.3000;0.6007;-0.2085;
990.6000;0.5975;-0.2180;
990.9000;0.5950;-0.2275;
991.2000;0.5999;-0.2156;
991.5000;0.5991;-0.2132;
991.8000;0.6007;-0.2014;
992.1000;0.5999;-0.2061;
992.4000;0.5991;-0.2156;
992.7000;0.5991;-0.2109;
993.0000;0.5975;-0.2109;
993.3000;0.5991;-0.2085;
993.6000;0.6007;-0.2085;
993.9000;0.5991;-0.2085;
994.2000;0.5975;-0.2014;
994.5000;0.5975;-0.1967;
994.8000;0.5999;-0.1895;
995.1000;0.5983;-0.2061;
995.4000;0.5999;-0.2132;
995.7000;0.5975;-0.2156;
996.0000;0.6007;-0.2109;
996.3000;0.5983;-0.2156;
996.6000;0.5999;-0.2109;
996.9000;0.5999;-0.2109;
997.2000;0.5934;-0.2109;
997.5000;0.5999;-0.1872;
997.8000;0.5991;-0.1943;
998.1000;0.5983;-0.2038;
998.4000;0.5991;-0.2038;
998.7000;0.5950;-0.2132;
999.0000;0.5975;-0.2061;
999.3000;0.5983;-0.2014;
999.6000;0.5983;-0.1990;
999.9000;0.5983;-0.1943;
1000.2000;0.5983;-0.1990;
1000.5000;0.5991;-0.2038;
1000.8000;0.5991;-0.2061;
1001.1000;0.5975;-0.2109;
1001.4000;0.5975;-0.2085;
1001.7000;0.5999;-0.2156;
1002.0000;0.6024;-0.2038;
1002.3000;0.5983;-0.2038;
1002.6000;0.5983;-0.1895;
1002.9000;0.5991;-0.1872;
1003.2000;0.5983;-0.1967;
1003.5000;0.5967;-0.1990;
1003.8000;0.5975;-0.1990;
1004.1000;0.5991;-0.1967;
1004.4000;0.5999;-0.1895;
1004.7000;0.5975;-0.1943;
1005.0000;0.5967;-0.1872;
1005.3000;0.6024;-0.1706;
1005.6000;0.5967;-0.1943;
1005.9000;0.5950;-0.2014;
1006.2000;0.5967;-0.1967;
1006.5000;0.5975;-0.1943;
1006.8000;0.6024;-0.1895;
1007.1000;0.5975;-0.2014;
1007.4000;0.5967;-0.1967;
1007.7000;0.5991;-0.1943;
1008.0000;0.5991;-0.1872;
1008.3000;0.5975;-0.1895;
1008.6000;0.5918;-0.2109;
1008.9000;0.5991;-0.1990;
1009.2000;0.5967;-0.2061;
1009.5000;0.5967;-0.2038;
1009.8000;0.5975;-0.2014;
1010.1000;0.6007;-0.1967;
1010.4000;0.5983;-0.2061;
1010.7000;0.5967;-0.2203;
1011.0000;0.5950;-0.2203;
1011.3000;0.5942;-0.2322;
1011.6000;0.5967;-0.2227;
1011.9000;0.6032;-0.2085;
1012.2000;0.5975;-0.2203;
1012.5000;0.5975;-0.2156;
1012.8000;0.5975;-0.2203;
1013.1000;0.5918;-0.2346;
1013.4000;0.5967;-0.2227;
1013.7000;0.5926;-0.2298;
1014.0000;0.5983;-0.2251;
1014.3000;0.5983;-0.2227;
1014.6000;0.5926;-0.2346;
1014.9000;0.5991;-0.2251;
1015.2000;0.5950;-0.2322;
1015.5000;0.5975;-0.2298;
1015.8000;0.5975;-0.2227;
1016.1000;0.5967;-0.2180;
1016.4000;0.5926;-0.2251;
1016.7000;0.5958;-0.2014;
1017.0000;0.5967;-0.1943;
1017.3000;0.5999;-0.2014;
1017.6000;0.5983;-0.1943;
1017.9000;0.5975;-0.2014;
1018.2000;0.5967;-0.2109;
1018.5000;0.5967;-0.2203;
1018.8000;0.5983;-0.2132;
1019.1000;0.5975;-0.2109;
1019.4000;0.5885;-0.2369;
1019.7000;0.5967;-0.2180;
1020.0000;0.5967;-0.2180;
1020.3000;0.5950;-0.2275;
1020.6000;0.5958;-0.2298;
1020.9000;0.5958;-0.2298;
1021.2000;0.5958;-0.2346;
1021.5000;0.5983;-0.2203;
1021.8000;0.5967;-0.2227;
1022.1000;0.6015;-0.2061;
1022.4000;0.5967;-0.2132;
1022.7000;0.5975;-0.2038;
1023.0000;0.5967;-0.2061;
1023.3000;0.5958;-0.2061;
1023.6000;0.5991;-0.1990;
1023.9000;0.5967;-0.1990;
1024.2000;0.5967;-0.1967;
1024.5000;0.5975;-0.1990;
1024.8000;0.5991;-0.2038;
1025.1000;0.5975;-0.2156;
1025.4000;0.5983;-0.2180;
1025.7000;0.5967;-0.2156;
1026.0000;0.5983;-0.2156;
1026.3000;0.5958;-0.2180;
1026.6000;0.5967;-0.2156;
1026.9000;0.5934;-0.2251;
1027.2000;0.5958;-0.2180;
1027.5000;0.5967;-0.2156;
1027.8000;0.5934;-0.2132;
1028.1000;0.5950;-0.2014;
1028.4000;0.5967;-0.1967;
1028.7000;0.5983;-0.1919;
1029.0000;0.5902;-0.2203;
1029.3000;0.5958;-0.2132;
1029.6000;0.5967;-0.2156;
1029.9000;0.5975;-0.2061;
1030.2000;0.5958;-0.2203;
1030.5000;0.5967;-0.2298;
1030.8000;0.5910;-0.2369;
1031.1000;0.5958;-0.2251;
1031.4000;0.5942;-0.2251;
1031.7000;0.5942;-0.2227;
1032.0000;0.5950;-0.2251;
1032.3000;0.5967;-0.2203;
1032.6000;0.5950;-0.2251;
1032.9000;0.5967;-0.2180;
1033.2000;0.5950;-0.2180;
1033.5000;0.5967;-0.2109;
1033.8000;0.5975;-0.2109;
1034.1000;0.5958;-0.2132;
1034.4000;0.5902;-0.2203;
1034.7000;0.5942;-0.2132;
1035.0000;0.5975;-0.2038;
1035.3000;0.5975;-0.2109;
1035.6000;0.5958;-0.2180;
1035.9000;0.5975;-0.2109;
1036.2000;0.5967;-0.2061;
1036.5000;0.5958;-0.2132;
1036.8000;0.5950;-0.2085;
1037.1000;0.5942;-0.2061;
1037.4000;0.5967;-0.2014;
1037.7000;0.5958;-0.1919;
1038.0000;0.5942;-0.1895;
1038.3000;0.5958;-0.1895;
1038.6000;0.5975;-0.1872;
1038.9000;0.5950;-0.2014;
1039.2000;0.5975;-0.1990;
1039.5000;0.5967;-0.1919;
1039.8000;0.5967;-0.1895;
1040.1000;0.5983;-0.1848;
1040.4000;0.5983;-0.1824;
1040.7000;0.5975;-0.1848;
1041.0000;0.5958;-0.1824;
1041.3000;0.5975;-0.1824;
1041.6000;0.5983;-0.1848;
1041.9000;0.5942;-0.1895;
1042.2000;0.5958;-0.1824;
1042.5000;0.5967;-0.1777;
1042.8000;0.5975;-0.1706;
1043.1000;0.5950;-0.1801;
1043.4000;0.5926;-0.1919;
1043.7000;0.5950;-0.1824;
1044.0000;0.5967;-0.1801;
1044.3000;0.5958;-0.1777;
1044.6000;0.5934;-0.1872;
1044.9000;0.5934;-0.1872;
1045.2000;0.5950;-0.1848;
1045.5000;0.5950;-0.1848;
1045.8000;0.5967;-0.1777;
1046.1000;0.5958;-0.1801;
1046.4000;0.5975;-0.1848;
1046.7000;0.5975;-0.1824;
1047.0000;0.5950;-0.1824;
1047.3000;0.5942;-0.1848;
1047.6000;0.5950;-0.1824;
1047.9000;0.5950;-0.1895;
1048.2000;0.5950;-0.1824;
1048.5000;0.5958;-0.1895;
1048.8000;0.5958;-0.1872;
1049.1000;0.5975;-0.1848;
1049.4000;0.5942;-0.1919;
1049.7000;0.5934;-0.1943;
1050.0000;0.5942;-0.1919;
1050.3000;0.5958;-0.1895;
1050.6000;0.5958;-0.1895;
1050.9000;0.5942;-0.1919;
1051.2000;0.5942;-0.1943;
1051.5000;0.5983;-0.1943;
1051.8000;0.5950;-0.1990;
1052.1000;0.5958;-0.1967;
1052.4000;0.5926;-0.2014;
1052.7000;0.5926;-0.1943;
1053.0000;0.5934;-0.1967;
1053.3000;0.5934;-0.2014;
1053.6000;0.5926;-0.2085;
1053.9000;0.5950;-0.1990;
1054.2000;0.5942;-0.1943;
1054.5000;0.6032;-0.1659;
1054.8000;0.5967;-0.1753;
1055.1000;0.5967;-0.1777;
1055.4000;0.5975;-0.1777;
1055.7000;0.5950;-0.1777;
1056.0000;0.5942;-0.1753;
1056.3000;0.5942;-0.1872;
1056.6000;0.5950;-0.1848;
1056.9000;0.5950;-0.1848;
1057.2000;0.5918;-0.1848;
1057.5000;0.5942;-0.1824;
1057.8000;0.5934;-0.1919;
1058.1000;0.5918;-0.1919;
1058.4000;0.5950;-0.1848;
1058.7000;0.5918;-0.1895;
1059.0000;0.5934;-0.1848;
1059.3000;0.5942;-0.1824;
1059.6000;0.5934;-0.1824;
1059.9000;0.5902;-0.1919;
1060.2000;0.5958;-0.1801;
1060.5000;0.5983;-0.1777;
1060.8000;0.5958;-0.1895;
1061.1000;0.5902;-0.1967;
1061.4000;0.5950;-0.1848;
1061.7000;0.5999;-0.1730;
1062.0000;0.5967;-0.1801;
1062.3000;0.5942;-0.1943;
1062.6000;0.5885;-0.2109;
1062.9000;0.5942;-0.1990;
1063.2000;0.5950;-0.1967;
1063.5000;0.5958;-0.1919;
1063.8000;0.5918;-0.1895;
1064.1000;0.5942;-0.1848;
1064.4000;0.5991;-0.1777;
1064.7000;0.5942;-0.1872;
1065.0000;0.5958;-0.1801;
1065.3000;0.5950;-0.1824;
1065.6000;0.5934;-0.1872;
1065.9000;0.5958;-0.1777;
1066.2000;0.5950;-0.1824;
1066.5000;0.5926;-0.1919;
1066.8000;0.5950;-0.1919;
1067.1000;0.5942;-0.1943;
1067.4000;0.5942;-0.1990;
1067.7000;0.5958;-0.1943;
1068.0000;0.5926;-0.1967;
1068.3000;0.5950;-0.1943;
1068.6000;0.5934;-0.1967;
1068.9000;0.5934;-0.1919;
1069.2000;0.5942;-0.1848;
1069.5000;0.5950;-0.1895;
1069.8000;0.5950;-0.1872;
1070.1000;0.5958;-0.1848;
1070.4000;0.5942;-0.1848;
1070.7000;0.5958;-0.1801;
1071.0000;0.5967;-0.1801;
1071.3000;0.5950;-0.1801;
1071.6000;0.5934;-0.1824;
1071.9000;0.5958;-0.1824;
1072.2000;0.5942;-0.1895;
1072.5000;0.5950;-0.1895;
1072.8000;0.5910;-0.2038;
1073.1000;0.5934;-0.1967;
1073.4000;0.5934;-0.1967;
1073.7000;0.5942;-0.1872;
1074.0000;0.5983;-0.1824;
1074.3000;0.5926;-0.1919;
1074.6000;0.5942;-0.1919;
1074.9000;0.5950;-0.1872;
1075.2000;0.5942;-0.1967;
1075.5000;0.5926;-0.2014;
1075.8000;0.5902;-0.2085;
1076.1000;0.5950;-0.1943;
1076.4000;0.5926;-0.2014;
1076.7000;0.5942;-0.1990;
1077.0000;0.5869;-0.2227;
1077.3000;0.5918;-0.2132;
1077.6000;0.5950;-0.2132;
1077.9000;0.5958;-0.2061;
1078.2000;0.5942;-0.2085;
1078.5000;0.5958;-0.2014;
1078.8000;0.5869;-0.2298;
1079.1000;0.5926;-0.2109;
1079.4000;0.5926;-0.2156;
1079.7000;0.5942;-0.1943;
1080.0000;0.5910;-0.1943;
1080.3000;0.5910;-0.1990;
1080.6000;0.5942;-0.1990;
1080.9000;0.5942;-0.2061;
1081.2000;0.5942;-0.1967;
1081.5000;0.5926;-0.1943;
1081.8000;0.5942;-0.1895;
1082.1000;0.5983;-0.1824;
1082.4000;0.5942;-0.1801;
1082.7000;0.5958;-0.1824;
1083.0000;0.5934;-0.1872;
1083.3000;0.5958;-0.1824;
1083.6000;0.5950;-0.1824;
1083.9000;0.5934;-0.1990;
1084.2000;0.5950;-0.1919;
1084.5000;0.5950;-0.1943;
1084.8000;0.5934;-0.1990;
1085.1000;0.5934;-0.1943;
1085.4000;0.5926;-0.1895;
1085.7000;0.5934;-0.1824;
1086.0000;0.5934;-0.1895;
1086.3000;0.6024;-0.1635;
1086.6000;0.5861;-0.1919;
1086.9000;0.5958;-0.1706;
1087.2000;0.5934;-0.1706;
1087.5000;0.5918;-0.1801;
1087.8000;0.5934;-0.1777;
1088.1000;0.5934;-0.1730;
1088.4000;0.5934;-0.1706;
1088.7000;0.5926;-0.1801;
1089.0000;0.5934;-0.1848;
1089.3000;0.5934;-0.1919;
1089.6000;0.5910;-0.2085;
1089.9000;0.5942;-0.1990;
1090.2000;0.5918;-0.2085;
1090.5000;0.5934;-0.1990;
1090.8000;0.5934;-0.1967;
1091.1000;0.5877;-0.2085;
1091.4000;0.5926;-0.1872;
1091.7000;0.5918;-0.1872;
1092.0000;0.5934;-0.1848;
1092.3000;0.5934;-0.2038;
1092.6000;0.5991;-0.1967;
1092.9000;0.5942;-0.2038;
1093.2000;0.5950;-0.2038;
1093.5000;0.5958;-0.1990;
1093.8000;0.5926;-0.2061;
1094.1000;0.5934;-0.2061;
1094.4000;0.5942;-0.1943;
1094.7000;0.5918;-0.1919;
1095.0000;0.5950;-0.1967;
1095.3000;0.5934;-0.1990;
1095.6000;0.5926;-0.2038;
1095.9000;0.5918;-0.2203;
1096.2000;0.5934;-0.2227;
1096.5000;0.5967;-0.2109;
1096.8000;0.5958;-0.2132;
1097.1000;0.5934;-0.2038;
1097.4000;0.5934;-0.1943;
1097.7000;0.5958;-0.1895;
1098.0000;0.6024;-0.1730;
1098.3000;0.5942;-0.1848;
1098.6000;0.5877;-0.1943;
1098.9000;0.5942;-0.1801;
1099.2000;0.5942;-0.1848;
1099.5000;0.5918;-0.1824;
1099.8000;0.5967;-0.1611;
1100.1000;0.5926;-0.1682;
1100.4000;0.5942;-0.1706;
1100.7000;0.5934;-0.1659;
1101.0000;0.5910;-0.1682;
1101.3000;0.5942;-0.1659;
1101.6000;0.5926;-0.1730;
1101.9000;0.5885;-0.1919;
1102.2000;0.5926;-0.1824;
1102.5000;0.5902;-0.1943;
1102.8000;0.5975;-0.1753;
1103.1000;0.5958;-0.1777;
1103.4000;0.5918;-0.1872;
1103.7000;0.5926;-0.1919;
1104.0000;0.5934;-0.1990;
1104.3000;0.5934;-0.1990;
1104.6000;0.5942;-0.1990;
1104.9000;0.5918;-0.2038;
1105.2000;0.5926;-0.2038;
1105.5000;0.5926;-0.2014;
1105.8000;0.5910;-0.2014;
1106.1000;0.5902;-0.2061;
1106.4000;0.5893;-0.1967;
1106.7000;0.5926;-0.1848;
1107.0000;0.5942;-0.1848;
1107.3000;0.5926;-0.1872;
1107.6000;0.5902;-0.1895;
1107.9000;0.5893;-0.1990;
1108.2000;0.5934;-0.1895;
1108.5000;0.5918;-0.1943;
1108.8000;0.5885;-0.2014;
1109.1000;0.5910;-0.1895;
1109.4000;0.5902;-0.1943;
1109.7000;0.5942;-0.1919;
1110.0000;0.5934;-0.2038;
1110.3000;0.5918;-0.2109;
1110.6000;0.5910;-0.2203;
1110.9000;0.5902;-0.2109;
1111.2000;0.5926;-0.2085;
1111.5000;0.5942;-0.2038;
1111.8000;0.5950;-0.2085;
1112.1000;0.5893;-0.2203;
1112.4000;0.5918;-0.2132;
1112.7000;0.5926;-0.2085;
1113.0000;0.5958;-0.1872;
1113.3000;0.5934;-0.1919;
1113.6000;0.5934;-0.1895;
1113.9000;0.5910;-0.1990;
1114.2000;0.5942;-0.1943;
1114.5000;0.5926;-0.1919;
1114.8000;0.5934;-0.1872;
1115.1000;0.5942;-0.1872;
1115.4000;0.5926;-0.1943;
1115.7000;0.5926;-0.1895;
1116.0000;0.5902;-0.2014;
1116.3000;0.5926;-0.1943;
1116.6000;0.5942;-0.1967;
1116.9000;0.5926;-0.1990;
1117.2000;0.5942;-0.2014;
1117.5000;0.5926;-0.2061;
1117.8000;0.5910;-0.2132;
1118.1000;0.5942;-0.2085;
1118.4000;0.5934;-0.2038;
1118.7000;0.5918;-0.1919;
1119.0000;0.5918;-0.1967;
1119.3000;0.5910;-0.1967;
1119.6000;0.5934;-0.1919;
1119.9000;0.5934;-0.1919;
1120.2000;0.5934;-0.1943;
1120.5000;0.5918;-0.1943;
1120.8000;0.5934;-0.1895;
1121.1000;0.5934;-0.1895;
1121.4000;0.5926;-0.1895;
1121.7000;0.5918;-0.1967;
1122.0000;0.5918;-0.1943;
1122.3000;0.5910;-0.1943;
1122.6000;0.5918;-0.2038;
1122.9000;0.5910;-0.2061;
1123.2000;0.5910;-0.1990;
1123.5000;0.5918;-0.1919;
1123.8000;0.5918;-0.1943;
1124.1000;0.5934;-0.1895;
1124.4000;0.5934;-0.1990;
1124.7000;0.5918;-0.2038;
1125.0000;0.5942;-0.1990;
1125.3000;0.5918;-0.2061;
1125.6000;0.5918;-0.2014;
1125.9000;0.5918;-0.1967;
1126.2000;0.5918;-0.1872;
1126.5000;0.5934;-0.1848;
1126.8000;0.5910;-0.1824;
1127.1000;0.5893;-0.1919;
1127.4000;0.5918;-0.1919;
1127.7000;0.5926;-0.1990;
1128.0000;0.5902;-0.1943;
1128.3000;0.5918;-0.1919;
1128.6000;0.5950;-0.1777;
1128.9000;0.5942;-0.1682;
1129.2000;0.5950;-0.1682;
1129.5000;0.5902;-0.1801;
1129.8000;0.5918;-0.1801;
1130.1000;0.5926;-0.1730;
1130.4000;0.5902;-0.1848;
1130.7000;0.5926;-0.1824;
1131.0000;0.5926;-0.1848;
1131.3000;0.5926;-0.1848;
1131.6000;0.5934;-0.1801;
1131.9000;0.5902;-0.1919;
1132.2000;0.5902;-0.1990;
1132.5000;0.5869;-0.2014;
1132.8000;0.5893;-0.1895;
1133.1000;0.5885;-0.1872;
1133.4000;0.5918;-0.1824;
1133.7000;0.5893;-0.1895;
1134.0000;0.5910;-0.1895;
1134.3000;0.5902;-0.1919;
1134.6000;0.5926;-0.1872;
1134.9000;0.5918;-0.1895;
1135.2000;0.5934;-0.1848;
1135.5000;0.5918;-0.1895;
1135.8000;0.5918;-0.1919;
1136.1000;0.5893;-0.1967;
1136.4000;0.5910;-0.1967;
1136.7000;0.5910;-0.1848;
1137.0000;0.5910;-0.1872;
1137.3000;0.5918;-0.1824;
1137.6000;0.5934;-0.1730;
1137.9000;0.5926;-0.1706;
1138.2000;0.5918;-0.1706;
1138.5000;0.5950;-0.1682;
1138.8000;0.5934;-0.1801;
1139.1000;0.5918;-0.1801;
1139.4000;0.5926;-0.1872;
1139.7000;0.5934;-0.1801;
1140.0000;0.5934;-0.1753;
1140.3000;0.5926;-0.1824;
1140.6000;0.5934;-0.1801;
1140.9000;0.5934;-0.1777;
1141.2000;0.5934;-0.1730;
1141.5000;0.5934;-0.1730;
1141.8000;0.5893;-0.1777;
1142.1000;0.5918;-0.1801;
1142.4000;0.5910;-0.1753;
1142.7000;0.5934;-0.1706;
1143.0000;0.5918;-0.1611;
1143.3000;0.5885;-0.1706;
1143.6000;0.5926;-0.1682;
1143.9000;0.5910;-0.1730;
1144.2000;0.5910;-0.1753;
1144.5000;0.5910;-0.1824;
1144.8000;0.5893;-0.1895;
1145.1000;0.5910;-0.1943;
1145.4000;0.5918;-0.1919;
1145.7000;0.5902;-0.1848;
1146.0000;0.5902;-0.1611;
1146.3000;0.5910;-0.1753;
1146.6000;0.5902;-0.1753;
1146.9000;0.5918;-0.1872;
1147.2000;0.5910;-0.1919;
1147.5000;0.5918;-0.1967;
1147.8000;0.5942;-0.1895;
1148.1000;0.5926;-0.1848;
1148.4000;0.5918;-0.1895;
1148.7000;0.5893;-0.1919;
1149.0000;0.5934;-0.1824;
1149.3000;0.5910;-0.1848;
1149.6000;0.5926;-0.1848;
1149.9000;0.5942;-0.1872;
1150.2000;0.5926;-0.1919;
1150.5000;0.5934;-0.1895;
1150.8000;0.5934;-0.1848;
1151.1000;0.5902;-0.1943;
1151.4000;0.5902;-0.1848;
1151.7000;0.5926;-0.1753;
1152.0000;0.5910;-0.1824;
1152.3000;0.5934;-0.1872;
1152.6000;0.5910;-0.1872;
1152.9000;0.5926;-0.1824;
1153.2000;0.5893;-0.1919;
1153.5000;0.5902;-0.1801;
1153.8000;0.5910;-0.1848;
1154.1000;0.5910;-0.1824;
1154.4000;0.5902;-0.1801;
1154.7000;0.6015;-0.1611;
1155.0000;0.5926;-0.1872;
1155.3000;0.5918;-0.1895;
1155.6000;0.5902;-0.1895;
1155.9000;0.5926;-0.1801;
1156.2000;0.5902;-0.1872;
1156.5000;0.5918;-0.1848;
1156.8000;0.5926;-0.1801;
1157.1000;0.5918;-0.1824;
1157.4000;0.5902;-0.1919;
1157.7000;0.5926;-0.1895;
1158.0000;0.5910;-0.1848;
1158.3000;0.5918;-0.1824;
1158.6000;0.5918;-0.1848;
1158.9000;0.5934;-0.1824;
1159.2000;0.5926;-0.1848;
1159.5000;0.5918;-0.1824;
1159.8000;0.5926;-0.1895;
1160.1000;0.5918;-0.1943;
1160.4000;0.5910;-0.1943;
1160.7000;0.5926;-0.1919;
1161.0000;0.5926;-0.1943;
1161.3000;0.5926;-0.2014;
1161.6000;0.5902;-0.2014;
1161.9000;0.5918;-0.1967;
1162.2000;0.5918;-0.1967;
1162.5000;0.5910;-0.1967;
1162.8000;0.5902;-0.1919;
1163.1000;0.5902;-0.1872;
1163.4000;0.5910;-0.1848;
1163.7000;0.5885;-0.1848;
1164.0000;0.5918;-0.1824;
1164.3000;0.5893;-0.1730;
1164.6000;0.5877;-0.1659;
1164.9000;0.5926;-0.1564;
1165.2000;0.5918;-0.1540;
1165.5000;0.5918;-0.1540;
1165.8000;0.5902;-0.1682;
1166.1000;0.5926;-0.1753;
1166.4000;0.5893;-0.1801;
1166.7000;0.5893;-0.1824;
1167.0000;0.5918;-0.1824;
1167.3000;0.5918;-0.1753;
1167.6000;0.5902;-0.1824;
1167.9000;0.5877;-0.1872;
1168.2000;0.5902;-0.1706;
1168.5000;0.5926;-0.1682;
1168.8000;0.5812;-0.2014;
1169.1000;0.5893;-0.1848;
1169.4000;0.5885;-0.1777;
1169.7000;0.5958;-0.1659;
1170.0000;0.5902;-0.1895;
1170.3000;0.5902;-0.1801;
1170.6000;0.5893;-0.1706;
1170.9000;0.5910;-0.1706;
1171.2000;0.5918;-0.1706;
1171.5000;0.5918;-0.1682;
1171.8000;0.5926;-0.1753;
1172.1000;0.5902;-0.1801;
1172.4000;0.5942;-0.1801;
1172.7000;0.5934;-0.1848;
1173.0000;0.5902;-0.1895;
1173.3000;0.5918;-0.1824;
1173.6000;0.5902;-0.1801;
1173.9000;0.5893;-0.1777;
1174.2000;0.5877;-0.1895;
1174.5000;0.5910;-0.1848;
1174.8000;0.5893;-0.1895;
1175.1000;0.5893;-0.1848;
1175.4000;0.5885;-0.1848;
1175.7000;0.5893;-0.1848;
1176.0000;0.5934;-0.1706;
1176.3000;0.5918;-0.1848;
1176.6000;0.5902;-0.1824;
1176.9000;0.5902;-0.1753;
1177.2000;0.5918;-0.1730;
1177.5000;0.5902;-0.1659;
1177.8000;0.5885;-0.1753;
1178.1000;0.5845;-0.1801;
1178.4000;0.5902;-0.1659;
1178.7000;0.5893;-0.1706;
1179.0000;0.5885;-0.1753;
1179.3000;0.5893;-0.1706;
1179.6000;0.5836;-0.1824;
1179.9000;0.5910;-0.1682;
1180.2000;0.5885;-0.1682;
1180.5000;0.5893;-0.1682;
1180.8000;0.5910;-0.1682;
1181.1000;0.5926;-0.1635;
1181.4000;0.5902;-0.1587;
1181.7000;0.5918;-0.1611;
1182.0000;0.5910;-0.1659;
1182.3000;0.5918;-0.1730;
1182.6000;0.5918;-0.1777;
1182.9000;0.5910;-0.1872;
1183.2000;0.5918;-0.1990;
1183.5000;0.5893;-0.2014;
1183.8000;0.5910;-0.1943;
1184.1000;0.5910;-0.1943;
1184.4000;0.5893;-0.2014;
1184.7000;0.5926;-0.1990;
1185.0000;0.5893;-0.2014;
1185.3000;0.5902;-0.2038;
1185.6000;0.5902;-0.2014;
1185.9000;0.5893;-0.2014;
1186.2000;0.5902;-0.1990;
1186.5000;0.5910;-0.1943;
1186.8000;0.5902;-0.1919;
1187.1000;0.5853;-0.2014;
1187.4000;0.5902;-0.1824;
1187.7000;0.5902;-0.1801;
1188.0000;0.5902;-0.1753;
1188.3000;0.5902;-0.1801;
1188.6000;0.5958;-0.1730;
1188.9000;0.5902;-0.1895;
1189.2000;0.5902;-0.1872;
1189.5000;0.5893;-0.1895;
1189.8000;0.5910;-0.1824;
1190.1000;0.5902;-0.1872;
1190.4000;0.5902;-0.1872;
1190.7000;0.5942;-0.1753;
1191.0000;0.5902;-0.1872;
1191.3000;0.5942;-0.1730;
1191.6000;0.5893;-0.1824;
1191.9000;0.5934;-0.1801;
1192.2000;0.5902;-0.1872;
1192.5000;0.5893;-0.1801;
1192.8000;0.5934;-0.1777;
1193.1000;0.5910;-0.1872;
1193.4000;0.5918;-0.1824;
1193.7000;0.5902;-0.1777;
1194.0000;0.5926;-0.1753;
1194.3000;0.5902;-0.1919;
1194.6000;0.5910;-0.1990;
1194.9000;0.5885;-0.2038;
1195.2000;0.5902;-0.2014;
1195.5000;0.5934;-0.1919;
1195.8000;0.5918;-0.1990;
1196.1000;0.5885;-0.1967;
1196.4000;0.5893;-0.1824;
1196.7000;0.5902;-0.1824;
1197.0000;0.5902;-0.1848;
1197.3000;0.5885;-0.1919;
1197.6000;0.5893;-0.1943;
1197.9000;0.5902;-0.1848;
1198.2000;0.5885;-0.2014;
1198.5000;0.5902;-0.2038;
1198.8000;0.5885;-0.2061;
1199.1000;0.5885;-0.2085;
1199.4000;0.5910;-0.2038;
1199.7000;0.5942;-0.2014;
1200.0000;0.5877;-0.2203;
1200.3000;0.5893;-0.2156;
1200.6000;0.5902;-0.2061;
1200.9000;0.5893;-0.2061;
1201.2000;0.5885;-0.2038;
1201.5000;0.5877;-0.2014;
1201.8000;0.5869;-0.2014;
1202.1000;0.5885;-0.1990;
1202.4000;0.5893;-0.1943;
1202.7000;0.5869;-0.2061;
1203.0000;0.5910;-0.1919;
1203.3000;0.5893;-0.1967;
1203.6000;0.5918;-0.1872;
1203.9000;0.5893;-0.2014;
1204.2000;0.5885;-0.2014;
1204.5000;0.5885;-0.2014;
1204.8000;0.5869;-0.2038;
1205.1000;0.5885;-0.1967;
1205.4000;0.5877;-0.2061;
1205.7000;0.5877;-0.2061;
1206.0000;0.5910;-0.2061;
1206.3000;0.5893;-0.2156;
1206.6000;0.5836;-0.2227;
1206.9000;0.5893;-0.2014;
1207.2000;0.5893;-0.2014;
1207.5000;0.5861;-0.2061;
1207.8000;0.5861;-0.2132;
1208.1000;0.5812;-0.2346;
1208.4000;0.5918;-0.2061;
1208.7000;0.5902;-0.1943;
1209.0000;0.5812;-0.2109;
1209.3000;0.5893;-0.1943;
1209.6000;0.5918;-0.1872;
1209.9000;0.5885;-0.1943;
1210.2000;0.5983;-0.1682;
1210.5000;0.5893;-0.1824;
1210.8000;0.5926;-0.1730;
1211.1000;0.5902;-0.1777;
1211.4000;0.5885;-0.1895;
1211.7000;0.5845;-0.1990;
1212.0000;0.5893;-0.1895;
1212.3000;0.5902;-0.1848;
1212.6000;0.5958;-0.1777;
1212.9000;0.5869;-0.2085;
1213.2000;0.5885;-0.1990;
1213.5000;0.5893;-0.1967;
1213.8000;0.5893;-0.1990;
1214.1000;0.5877;-0.2109;
1214.4000;0.5918;-0.1943;
1214.7000;0.5910;-0.1967;
1215.0000;0.5893;-0.1943;
1215.3000;0.5877;-0.1895;
1215.6000;0.5885;-0.1872;
1215.9000;0.5885;-0.1895;
1216.2000;0.5902;-0.1943;
1216.5000;0.5877;-0.1872;
1216.8000;0.5869;-0.1967;
1217.1000;0.5885;-0.1895;
1217.4000;0.5877;-0.1990;
1217.7000;0.5885;-0.1967;
1218.0000;0.5869;-0.2038;
1218.3000;0.5885;-0.2038;
1218.6000;0.5885;-0.1943;
1218.9000;0.5861;-0.1990;
1219.2000;0.5893;-0.2014;
1219.5000;0.5893;-0.2132;
1219.8000;0.5918;-0.2085;
1220.1000;0.5893;-0.2109;
1220.4000;0.5885;-0.2180;
1220.7000;0.5893;-0.2061;
1221.0000;0.5893;-0.2085;
1221.3000;0.5893;-0.2085;
1221.6000;0.5885;-0.2014;
1221.9000;0.5893;-0.1943;
1222.2000;0.5910;-0.1943;
1222.5000;0.5893;-0.1990;
1222.8000;0.5910;-0.2014;
1223.1000;0.5902;-0.2085;
1223.4000;0.5910;-0.2038;
1223.7000;0.5950;-0.1967;
1224.0000;0.5910;-0.2038;
1224.3000;0.5893;-0.2014;
1224.6000;0.5893;-0.2061;
1224.9000;0.5893;-0.2085;
1225.2000;0.5885;-0.2132;
1225.5000;0.5885;-0.2085;
1225.8000;0.5902;-0.1943;
1226.1000;0.5902;-0.1872;
1226.4000;0.5967;-0.1659;
1226.7000;0.5910;-0.1895;
1227.0000;0.5893;-0.1848;
1227.3000;0.5885;-0.1801;
1227.6000;0.5902;-0.1753;
1227.9000;0.5902;-0.1730;
1228.2000;0.5893;-0.1848;
1228.5000;0.5902;-0.1872;
1228.8000;0.5893;-0.1895;
1229.1000;0.5845;-0.1943;
1229.4000;0.5877;-0.1824;
1229.7000;0.5950;-0.1611;
1230.0000;0.5902;-0.1730;
1230.3000;0.5893;-0.1824;
1230.6000;0.5877;-0.1848;
1230.9000;0.5877;-0.1943;
1231.2000;0.5869;-0.2014;
1231.5000;0.5893;-0.2038;
1231.8000;0.5885;-0.2038;
1232.1000;0.5853;-0.2061;
1232.4000;0.5885;-0.1967;
1232.7000;0.5975;-0.1777;
1233.0000;0.5836;-0.2085;
1233.3000;0.5877;-0.1990;
1233.6000;0.5926;-0.1895;
1233.9000;0.5885;-0.2132;
1234.2000;0.5950;-0.1943;
1234.5000;0.5877;-0.2109;
1234.8000;0.5885;-0.2038;
1235.1000;0.5885;-0.2061;
1235.4000;0.5893;-0.2061;
1235.7000;0.5885;-0.2132;
1236.0000;0.5893;-0.2061;
1236.3000;0.5893;-0.1990;
1236.6000;0.5975;-0.1777;
1236.9000;0.5885;-0.1990;
1237.2000;0.5885;-0.1967;
1237.5000;0.5885;-0.2085;
1237.8000;0.5910;-0.2061;
1238.1000;0.5893;-0.2061;
1238.4000;0.5885;-0.2014;
1238.7000;0.5893;-0.1967;
1239.0000;0.5877;-0.2014;
1239.3000;0.5967;-0.1801;
1239.6000;0.5967;-0.1706;
1239.9000;0.5902;-0.1895;
1240.2000;0.5902;-0.1895;
1240.5000;0.5877;-0.1990;
1240.8000;0.5828;-0.2203;
1241.1000;0.5902;-0.1967;
1241.4000;0.5910;-0.1967;
1241.7000;0.5902;-0.2061;
1242.0000;0.5950;-0.1919;
1242.3000;0.5902;-0.2014;
1242.6000;0.5877;-0.1990;
1242.9000;0.5877;-0.1967;
1243.2000;0.5910;-0.1919;
1243.5000;0.5885;-0.1919;
1243.8000;0.5885;-0.1943;
1244.1000;0.5861;-0.1967;
1244.4000;0.5877;-0.1967;
1244.7000;0.5893;-0.1967;
1245.0000;0.5893;-0.2014;
1245.3000;0.5861;-0.2085;
1245.6000;0.5926;-0.1919;
1245.9000;0.5885;-0.2014;
1246.2000;0.5893;-0.1990;
1246.5000;0.5902;-0.1919;
1246.8000;0.5893;-0.1872;
1247.1000;0.5934;-0.1753;
1247.4000;0.5869;-0.1848;
1247.7000;0.5902;-0.1872;
1248.0000;0.5836;-0.2038;
1248.3000;0.5853;-0.2085;
1248.6000;0.5885;-0.1967;
1248.9000;0.5885;-0.1895;
1249.2000;0.5958;-0.1706;
1249.5000;0.5893;-0.1801;
1249.8000;0.5893;-0.1895;
1250.1000;0.5893;-0.1872;
1250.4000;0.5885;-0.1967;
1250.7000;0.5885;-0.1895;
1251.0000;0.5893;-0.1919;
1251.3000;0.5893;-0.1895;
1251.6000;0.5926;-0.1848;
1251.9000;0.5885;-0.1990;
1252.2000;0.5885;-0.2014;
1252.5000;0.5877;-0.1967;
1252.8000;0.5877;-0.1943;
1253.1000;0.5885;-0.1967;
1253.4000;0.5877;-0.1895;
1253.7000;0.5845;-0.1872;
1254.0000;0.5869;-0.1824;
1254.3000;0.5885;-0.1801;
1254.6000;0.5902;-0.1730;
1254.9000;0.5877;-0.1682;
1255.2000;0.5869;-0.1706;
1255.5000;0.5861;-0.1777;
1255.8000;0.5910;-0.1706;
1256.1000;0.5869;-0.1824;
1256.4000;0.5861;-0.1848;
1256.7000;0.5893;-0.1801;
1257.0000;0.5885;-0.1777;
1257.3000;0.5893;-0.1730;
1257.6000;0.5877;-0.1801;
1257.9000;0.5869;-0.1801;
1258.2000;0.5877;-0.1753;
1258.5000;0.5877;-0.1801;
1258.8000;0.5934;-0.1682;
1259.1000;0.5869;-0.1872;
1259.4000;0.5893;-0.1801;
1259.7000;0.5877;-0.1801;
1260.0000;0.5877;-0.1753;
1260.3000;0.5869;-0.1706;
1260.6000;0.5885;-0.1753;
1260.9000;0.5893;-0.1753;
1261.2000;0.5877;-0.1801;
1261.5000;0.5885;-0.1753;
1261.8000;0.5885;-0.1824;
1262.1000;0.5877;-0.1824;
1262.4000;0.5885;-0.1824;
1262.7000;0.5885;-0.1801;
1263.0000;0.5877;-0.1824;
1263.3000;0.5893;-0.1943;
1263.6000;0.5893;-0.1943;
1263.9000;0.5893;-0.1967;
1264.2000;0.5877;-0.2014;
1264.5000;0.5836;-0.2014;
1264.8000;0.5893;-0.1824;
1265.1000;0.5902;-0.1801;
1265.4000;0.5893;-0.1824;
1265.7000;0.5877;-0.1848;
1266.0000;0.5885;-0.1872;
1266.3000;0.5885;-0.1872;
1266.6000;0.5869;-0.1777;
1266.9000;0.5869;-0.1730;
1267.2000;0.5902;-0.1801;
1267.5000;0.5869;-0.1824;
1267.8000;0.5885;-0.1753;
1268.1000;0.5853;-0.1777;
1268.4000;0.5885;-0.1659;
1268.7000;0.5893;-0.1706;
1269.0000;0.5877;-0.1872;
1269.3000;0.5861;-0.1895;
1269.6000;0.5853;-0.1919;
1269.9000;0.5918;-0.1753;
1270.2000;0.5885;-0.1824;
1270.5000;0.5877;-0.1824;
1270.8000;0.5902;-0.1777;
1271.1000;0.5902;-0.1730;
1271.4000;0.5893;-0.1706;
1271.7000;0.5885;-0.1777;
1272.0000;0.5958;-0.1682;
1272.3000;0.5885;-0.1848;
1272.6000;0.5918;-0.1801;
1272.9000;0.5877;-0.1872;
1273.2000;0.5869;-0.1895;
1273.5000;0.5877;-0.1967;
1273.8000;0.5910;-0.1895;
1274.1000;0.5902;-0.1919;
1274.4000;0.5869;-0.1919;
1274.7000;0.5885;-0.1895;
1275.0000;0.5885;-0.1943;
1275.3000;0.5885;-0.1919;
1275.6000;0.5877;-0.1895;
1275.9000;0.5853;-0.1895;
1276.2000;0.5877;-0.1730;
1276.5000;0.5893;-0.1777;
1276.8000;0.5885;-0.1824;
1277.1000;0.5869;-0.1848;
1277.4000;0.5877;-0.1848;
1277.7000;0.5885;-0.1777;
1278.0000;0.5877;-0.1872;
1278.3000;0.5877;-0.1824;
1278.6000;0.5877;-0.1919;
1278.9000;0.5885;-0.1943;
1279.2000;0.5885;-0.1919;
1279.5000;0.5877;-0.1895;
1279.8000;0.5885;-0.1872;
1280.1000;0.5885;-0.1872;
1280.4000;0.5836;-0.2061;
1280.7000;0.5926;-0.1895;
1281.0000;0.5885;-0.1895;
1281.3000;0.5885;-0.1872;
1281.6000;0.5885;-0.1943;
1281.9000;0.5869;-0.2014;
1282.2000;0.5869;-0.1967;
1282.5000;0.5885;-0.1895;
1282.8000;0.5877;-0.1895;
1283.1000;0.5877;-0.1990;
1283.4000;0.5893;-0.1919;
1283.7000;0.5869;-0.1990;
1284.0000;0.5885;-0.2014;
1284.3000;0.5910;-0.1967;
1284.6000;0.5869;-0.2014;
1284.9000;0.5893;-0.2061;
1285.2000;0.5885;-0.2038;
1285.5000;0.5885;-0.2038;
1285.8000;0.5958;-0.1872;
1286.1000;0.5869;-0.2109;
1286.4000;0.5877;-0.2061;
1286.7000;0.5885;-0.2014;
1287.0000;0.5885;-0.2038;
1287.3000;0.5845;-0.2156;
1287.6000;0.5853;-0.2132;
1287.9000;0.5885;-0.1990;
1288.2000;0.5877;-0.1990;
1288.5000;0.5853;-0.2085;
1288.8000;0.5845;-0.2132;
1289.1000;0.5893;-0.2014;
1289.4000;0.5885;-0.2038;
1289.7000;0.5869;-0.2132;
1290.0000;0.5861;-0.2085;
1290.3000;0.5869;-0.2038;
1290.6000;0.5885;-0.2038;
1290.9000;0.5853;-0.2038;
1291.2000;0.5885;-0.1990;
1291.5000;0.5877;-0.1990;
1291.8000;0.5869;-0.1967;
1292.1000;0.5893;-0.1895;
1292.4000;0.5877;-0.1895;
1292.7000;0.5885;-0.1943;
1293.0000;0.5877;-0.1872;
1293.3000;0.5885;-0.1872;
1293.6000;0.5877;-0.1848;
1293.9000;0.5893;-0.1682;
1294.2000;0.5893;-0.1659;
1294.5000;0.5893;-0.1659;
1294.8000;0.5885;-0.1659;
1295.1000;0.5836;-0.1824;
1295.4000;0.5902;-0.1706;
1295.7000;0.5877;-0.1706;
1296.0000;0.5877;-0.1682;
1296.3000;0.5869;-0.1777;
1296.6000;0.5877;-0.1753;
1296.9000;0.5877;-0.1682;
1297.2000;0.5869;-0.1730;
1297.5000;0.5877;-0.1824;
1297.8000;0.5877;-0.1943;
1298.1000;0.5885;-0.2038;
1298.4000;0.5885;-0.2014;
1298.7000;0.5885;-0.2132;
1299.0000;0.5877;-0.2061;
1299.3000;0.5893;-0.2014;
1299.6000;0.5869;-0.1990;
1299.9000;0.5926;-0.1967;
1300.2000;0.5885;-0.2180;
1300.5000;0.5869;-0.2203;
1300.8000;0.5885;-0.2156;
1301.1000;0.5877;-0.2132;
1301.4000;0.5877;-0.2085;
1301.7000;0.5869;-0.2014;
1302.0000;0.5885;-0.1990;
1302.3000;0.5877;-0.1967;
1302.6000;0.5893;-0.1919;
1302.9000;0.5877;-0.1824;
1303.2000;0.5893;-0.1872;
1303.5000;0.5885;-0.1967;
1303.8000;0.5942;-0.1895;
1304.1000;0.5885;-0.2038;
1304.4000;0.5877;-0.2014;
1304.7000;0.5877;-0.1919;
1305.0000;0.5885;-0.1848;
1305.3000;0.5869;-0.1824;
1305.6000;0.5918;-0.1730;
1305.9000;0.5893;-0.1777;
1306.2000;0.5877;-0.1848;
1306.5000;0.5869;-0.1943;
1306.8000;0.5877;-0.1967;
1307.1000;0.5877;-0.2014;
1307.4000;0.5845;-0.2061;
1307.7000;0.5877;-0.1967;
1308.0000;0.5885;-0.1895;
1308.3000;0.5910;-0.1824;
1308.6000;0.5877;-0.1848;
1308.9000;0.5828;-0.2038;
1309.2000;0.5877;-0.1895;
1309.5000;0.5885;-0.1872;
1309.8000;0.5885;-0.1872;
1310.1000;0.5877;-0.1943;
1310.4000;0.5869;-0.1967;
1310.7000;0.5861;-0.1990;
1311.0000;0.5885;-0.1872;
1311.3000;0.5861;-0.1967;
1311.6000;0.5861;-0.1967;
1311.9000;0.5853;-0.1943;
1312.2000;0.5877;-0.1967;
1312.5000;0.5902;-0.1967;
1312.8000;0.5885;-0.1990;
1313.1000;0.5885;-0.2014;
1313.4000;0.5934;-0.1895;
1313.7000;0.5877;-0.1990;
1314.0000;0.5885;-0.1990;
1314.3000;0.5877;-0.2014;
1314.6000;0.5885;-0.1990;
1314.9000;0.5885;-0.1990;
1315.2000;0.5877;-0.2085;
1315.5000;0.5893;-0.2061;
1315.8000;0.5877;-0.2109;
1316.1000;0.5885;-0.2038;
1316.4000;0.5877;-0.1919;
1316.7000;0.5893;-0.1943;
1317.0000;0.5853;-0.2156;
1317.3000;0.5877;-0.2109;
1317.6000;0.5869;-0.2061;
1317.9000;0.5869;-0.2132;
1318.2000;0.5853;-0.2156;
1318.5000;0.5861;-0.2156;
1318.8000;0.5902;-0.2038;
1319.1000;0.5885;-0.2014;
1319.4000;0.5926;-0.1824;
1319.7000;0.5885;-0.1895;
1320.0000;0.5877;-0.1943;
1320.3000;0.5893;-0.1919;
1320.6000;0.5950;-0.1706;
1320.9000;0.5877;-0.1943;
1321.2000;0.5885;-0.1919;
1321.5000;0.5885;-0.1943;
1321.8000;0.5861;-0.2014;
1322.1000;0.5869;-0.1943;
1322.4000;0.5893;-0.1848;
1322.7000;0.5885;-0.1824;
1323.0000;0.5861;-0.1824;
1323.3000;0.5877;-0.1753;
1323.6000;0.5869;-0.1753;
1323.9000;0.5853;-0.1824;
1324.2000;0.5877;-0.1753;
1324.5000;0.5877;-0.1824;
1324.8000;0.5877;-0.1801;
1325.1000;0.5877;-0.1801;
1325.4000;0.5869;-0.1943;
1325.7000;0.5836;-0.1967;
1326.0000;0.5869;-0.1848;
1326.3000;0.5845;-0.1919;
1326.6000;0.5861;-0.1848;
1326.9000;0.5893;-0.1824;
1327.2000;0.5877;-0.1872;
1327.5000;0.5869;-0.1872;
1327.8000;0.5893;-0.1753;
1328.1000;0.5877;-0.1777;
1328.4000;0.5861;-0.1777;
1328.7000;0.5910;-0.1635;
1329.0000;0.5885;-0.1730;
1329.3000;0.5885;-0.1777;
1329.6000;0.5902;-0.1777;
1329.9000;0.5893;-0.1753;
1330.2000;0.5869;-0.1943;
1330.5000;0.5902;-0.1943;
1330.8000;0.5869;-0.2085;
1331.1000;0.5893;-0.2014;
1331.4000;0.5885;-0.2014;
1331.7000;0.5885;-0.2109;
1332.0000;0.5942;-0.1990;
1332.3000;0.5869;-0.2109;
1332.6000;0.5869;-0.2061;
1332.9000;0.5893;-0.2014;
1333.2000;0.5861;-0.2061;
1333.5000;0.5869;-0.2085;
1333.8000;0.5861;-0.2061;
1334.1000;0.5861;-0.1990;
1334.4000;0.5885;-0.1848;
1334.7000;0.5869;-0.1919;
1335.0000;0.5918;-0.1848;
1335.3000;0.5877;-0.1895;
1335.6000;0.5885;-0.1801;
1335.9000;0.5845;-0.1895;
1336.2000;0.5853;-0.1919;
1336.5000;0.5869;-0.1848;
1336.8000;0.5861;-0.1943;
1337.1000;0.5885;-0.1919;
1337.4000;0.5877;-0.1919;
1337.7000;0.5853;-0.1919;
1338.0000;0.5885;-0.1872;
1338.3000;0.5861;-0.1943;
1338.6000;0.5869;-0.1967;
1338.9000;0.5853;-0.1990;
1339.2000;0.5877;-0.1943;
1339.5000;0.5877;-0.1848;
1339.8000;0.5869;-0.1872;
1340.1000;0.5893;-0.1777;
1340.4000;0.5869;-0.1848;
1340.7000;0.5877;-0.1824;
1341.0000;0.5869;-0.1824;
1341.3000;0.5836;-0.1848;
1341.6000;0.5877;-0.1824;
1341.9000;0.5869;-0.1895;
1342.2000;0.5845;-0.1967;
1342.5000;0.5845;-0.2038;
1342.8000;0.5861;-0.1919;
1343.1000;0.5902;-0.1824;
1343.4000;0.5861;-0.1872;
1343.7000;0.5861;-0.1895;
1344.0000;0.5861;-0.2014;
1344.3000;0.5885;-0.1967;
1344.6000;0.5885;-0.1967;
1344.9000;0.5902;-0.2038;
1345.2000;0.5853;-0.2085;
1345.5000;0.5869;-0.2014;
1345.8000;0.5861;-0.2014;
1346.1000;0.5885;-0.1967;
1346.4000;0.5861;-0.2014;
1346.7000;0.5869;-0.1872;
1347.0000;0.5861;-0.1848;
1347.3000;0.5869;-0.1801;
1347.6000;0.5869;-0.1706;
1347.9000;0.5861;-0.1635;
1348.2000;0.5893;-0.1706;
1348.5000;0.5885;-0.1753;
1348.8000;0.5845;-0.1872;
1349.1000;0.5853;-0.1824;
1349.4000;0.5885;-0.1682;
1349.7000;0.5869;-0.1706;
1350.0000;0.5869;-0.1730;
1350.3000;0.5869;-0.1730;
1350.6000;0.5893;-0.1753;
1350.9000;0.5950;-0.1587;
1351.2000;0.5877;-0.1801;
1351.5000;0.5885;-0.1801;
1351.8000;0.5861;-0.1848;
1352.1000;0.5877;-0.1872;
1352.4000;0.5877;-0.1919;
1352.7000;0.5877;-0.1990;
1353.0000;0.5869;-0.2014;
1353.3000;0.5902;-0.1943;
1353.6000;0.5885;-0.1895;
1353.9000;0.5869;-0.1848;
1354.2000;0.5869;-0.1801;
1354.5000;0.5885;-0.1730;
1354.8000;0.5869;-0.1801;
1355.1000;0.5853;-0.1919;
1355.4000;0.5869;-0.1967;
1355.7000;0.5861;-0.1967;
1356.0000;0.5885;-0.2014;
1356.3000;0.5885;-0.1919;
1356.6000;0.5861;-0.1801;
1356.9000;0.5893;-0.1706;
1357.2000;0.5893;-0.1753;
1357.5000;0.5893;-0.1706;
1357.8000;0.5942;-0.1611;
1358.1000;0.5869;-0.1824;
1358.4000;0.5885;-0.1777;
1358.7000;0.5877;-0.1848;
1359.0000;0.5853;-0.1919;
1359.3000;0.5836;-0.1895;
1359.6000;0.5861;-0.1801;
1359.9000;0.5885;-0.1706;
1360.2000;0.5902;-0.1753;
1360.5000;0.5869;-0.1824;
1360.8000;0.5877;-0.1824;
1361.1000;0.5869;-0.1824;
1361.4000;0.5869;-0.1848;
1361.7000;0.5885;-0.1824;
1362.0000;0.5877;-0.1919;
1362.3000;0.5853;-0.1990;
1362.6000;0.5893;-0.1943;
1362.9000;0.5877;-0.1990;
1363.2000;0.5885;-0.1919;
1363.5000;0.5877;-0.1895;
1363.8000;0.5885;-0.1919;
1364.1000;0.5893;-0.1943;
1364.4000;0.5869;-0.2038;
1364.7000;0.5869;-0.1990;
1365.0000;0.5836;-0.2061;
1365.3000;0.5861;-0.1967;
1365.6000;0.5861;-0.1943;
1365.9000;0.5861;-0.2038;
1366.2000;0.5869;-0.1967;
1366.5000;0.5877;-0.1943;
1366.8000;0.5869;-0.2014;
1367.1000;0.5926;-0.1824;
1367.4000;0.5885;-0.1919;
1367.7000;0.5869;-0.1895;
1368.0000;0.5853;-0.1848;
1368.3000;0.5877;-0.1824;
1368.6000;0.5861;-0.1801;
1368.9000;0.5853;-0.1777;
1369.2000;0.5869;-0.1730;
1369.5000;0.5918;-0.1611;
1369.8000;0.5869;-0.1706;
1370.1000;0.5885;-0.1706;
1370.4000;0.5861;-0.1706;
1370.7000;0.5869;-0.1706;
1371.0000;0.5845;-0.1801;
1371.3000;0.5885;-0.1682;
1371.6000;0.5910;-0.1682;
1371.9000;0.5877;-0.1777;
1372.2000;0.5885;-0.1824;
1372.5000;0.5877;-0.1872;
1372.8000;0.5877;-0.1895;
1373.1000;0.5853;-0.1919;
1373.4000;0.5869;-0.1895;
1373.7000;0.5853;-0.1801;
1374.0000;0.5861;-0.1682;
1374.3000;0.5861;-0.1706;
1374.6000;0.5812;-0.1801;
1374.9000;0.5861;-0.1635;
1375.2000;0.5869;-0.1611;
1375.5000;0.5853;-0.1659;
1375.8000;0.5869;-0.1706;
1376.1000;0.5869;-0.1730;
1376.4000;0.5861;-0.1682;
1376.7000;0.5877;-0.1682;
1377.0000;0.5885;-0.1706;
1377.3000;0.5861;-0.1753;
1377.6000;0.5885;-0.1706;
1377.9000;0.5869;-0.1753;
1378.2000;0.5869;-0.1777;
1378.5000;0.5893;-0.1682;
1378.8000;0.5845;-0.1801;
1379.1000;0.5885;-0.1777;
1379.4000;0.5885;-0.1895;
1379.7000;0.5885;-0.1872;
1380.0000;0.5958;-0.1801;
1380.3000;0.5861;-0.2109;
1380.6000;0.5910;-0.2061;
1380.9000;0.5934;-0.1990;
1381.2000;0.5853;-0.2156;
1381.5000;0.5877;-0.2061;
1381.8000;0.5869;-0.2085;
1382.1000;0.5845;-0.2203;
1382.4000;0.5869;-0.2085;
1382.7000;0.5869;-0.2038;
1383.0000;0.5869;-0.2061;
1383.3000;0.5861;-0.2038;
1383.6000;0.5869;-0.1990;
1383.9000;0.5877;-0.2038;
1384.2000;0.5861;-0.2061;
1384.5000;0.5869;-0.2014;
1384.8000;0.5853;-0.2061;
1385.1000;0.5861;-0.2014;
1385.4000;0.5861;-0.2061;
1385.7000;0.5861;-0.2038;
1386.0000;0.5861;-0.2014;
1386.3000;0.5861;-0.2061;
1386.6000;0.5893;-0.2038;
1386.9000;0.5861;-0.2061;
1387.2000;0.5845;-0.2132;
1387.5000;0.5877;-0.1990;
1387.8000;0.5885;-0.1990;
1388.1000;0.5885;-0.1895;
1388.4000;0.5869;-0.1919;
1388.7000;0.5869;-0.1967;
1389.0000;0.5869;-0.2014;
1389.3000;0.5877;-0.1967;
1389.6000;0.5893;-0.2014;
1389.9000;0.5877;-0.2109;
1390.2000;0.5869;-0.2109;
1390.5000;0.5877;-0.2061;
1390.8000;0.5828;-0.2109;
1391.1000;0.5845;-0.2014;
1391.4000;0.5869;-0.2014;
1391.7000;0.5836;-0.2132;
1392.0000;0.5853;-0.2132;
1392.3000;0.5820;-0.2275;
1392.6000;0.5836;-0.2322;
1392.9000;0.5869;-0.2227;
1393.2000;0.5869;-0.2109;
1393.5000;0.5869;-0.2038;
1393.8000;0.5869;-0.1990;
1394.1000;0.5934;-0.1801;
1394.4000;0.5861;-0.1990;
1394.7000;0.5853;-0.1990;
1395.0000;0.5869;-0.1967;
1395.3000;0.5918;-0.1753;
1395.6000;0.5845;-0.1848;
1395.9000;0.5918;-0.1659;
1396.2000;0.5861;-0.1801;
1396.5000;0.5845;-0.1801;
1396.8000;0.5853;-0.1848;
1397.1000;0.5869;-0.1777;
1397.4000;0.5804;-0.1967;
1397.7000;0.5861;-0.1872;
1398.0000;0.5861;-0.1753;
1398.3000;0.5861;-0.1777;
1398.6000;0.5845;-0.1801;
1398.9000;0.5910;-0.1753;
1399.2000;0.5869;-0.1824;
1399.5000;0.5869;-0.1848;
1399.8000;0.5877;-0.1895;
