time/ms;Fluo/V;P700 deltaI/I x10³;
-199.8000;0.1302;-0.4862;
-199.5000;0.1327;-0.4787;
-199.2000;0.1351;-0.4712;
-198.9000;0.1311;-0.4862;
-198.6000;0.1270;-0.5037;
-198.3000;0.1327;-0.4912;
-198.0000;0.1327;-0.4912;
-197.7000;0.1359;-0.4737;
-197.4000;0.1319;-0.4837;
-197.1000;0.1351;-0.4737;
-196.8000;0.1376;-0.4737;
-196.5000;0.1319;-0.4887;
-196.2000;0.1408;-0.4688;
-195.9000;0.1311;-0.4962;
-195.6000;0.1319;-0.4987;
-195.3000;0.1327;-0.4987;
-195.0000;0.1327;-0.4962;
-194.7000;0.1384;-0.4862;
-194.4000;0.1335;-0.5062;
-194.1000;0.1376;-0.5012;
-193.8000;0.1302;-0.5086;
-193.5000;0.1335;-0.4987;
-193.2000;0.1368;-0.4787;
-192.9000;0.1408;-0.4588;
-192.6000;0.1327;-0.4762;
-192.3000;0.1368;-0.4613;
-192.0000;0.1327;-0.4737;
-191.7000;0.1327;-0.4762;
-191.4000;0.1335;-0.4737;
-191.1000;0.1351;-0.4737;
-190.8000;0.1327;-0.4787;
-190.5000;0.1335;-0.4688;
-190.2000;0.1302;-0.4712;
-189.9000;0.1327;-0.4663;
-189.6000;0.1351;-0.4712;
-189.3000;0.1368;-0.4663;
-189.0000;0.1327;-0.4737;
-188.7000;0.1327;-0.4837;
-188.4000;0.1359;-0.4762;
-188.1000;0.1359;-0.4737;
-187.8000;0.1294;-0.4912;
-187.5000;0.1319;-0.4812;
-187.2000;0.1311;-0.4837;
-186.9000;0.1343;-0.4762;
-186.6000;0.1343;-0.4737;
-186.3000;0.1286;-0.4812;
-186.0000;0.1319;-0.4812;
-185.7000;0.1343;-0.4663;
-185.4000;0.1327;-0.4712;
-185.1000;0.1319;-0.4712;
-184.8000;0.1319;-0.4712;
-184.5000;0.1319;-0.4787;
-184.2000;0.1351;-0.4762;
-183.9000;0.1302;-0.5012;
-183.6000;0.1327;-0.5012;
-183.3000;0.1335;-0.4937;
-183.0000;0.1343;-0.4837;
-182.7000;0.1319;-0.4962;
-182.4000;0.1319;-0.4862;
-182.1000;0.1327;-0.4787;
-181.8000;0.1343;-0.4837;
-181.5000;0.1343;-0.4862;
-181.2000;0.1319;-0.4862;
-180.9000;0.1311;-0.4812;
-180.6000;0.1327;-0.4712;
-180.3000;0.1408;-0.4588;
-180.0000;0.1335;-0.4737;
-179.7000;0.1319;-0.4737;
-179.4000;0.1327;-0.4812;
-179.1000;0.1351;-0.4837;
-178.8000;0.1335;-0.4737;
-178.5000;0.1319;-0.4837;
-178.2000;0.1319;-0.4912;
-177.9000;0.1351;-0.4837;
-177.6000;0.1327;-0.4837;
-177.3000;0.1343;-0.4762;
-177.0000;0.1327;-0.4712;
-176.7000;0.1343;-0.4563;
-176.4000;0.1376;-0.4388;
-176.1000;0.1319;-0.4563;
-175.8000;0.1311;-0.4663;
-175.5000;0.1327;-0.4538;
-175.2000;0.1319;-0.4613;
-174.9000;0.1327;-0.4762;
-174.6000;0.1302;-0.4837;
-174.3000;0.1327;-0.4762;
-174.0000;0.1335;-0.4737;
-173.7000;0.1327;-0.4762;
-173.4000;0.1335;-0.4812;
-173.1000;0.1343;-0.4787;
-172.8000;0.1335;-0.4812;
-172.5000;0.1327;-0.4837;
-172.2000;0.1311;-0.4812;
-171.9000;0.1319;-0.4837;
-171.6000;0.1335;-0.4862;
-171.3000;0.1343;-0.4912;
-171.0000;0.1327;-0.4962;
-170.7000;0.1327;-0.4837;
-170.4000;0.1335;-0.4737;
-170.1000;0.1302;-0.4887;
-169.8000;0.1319;-0.4812;
-169.5000;0.1319;-0.4812;
-169.2000;0.1343;-0.4737;
-168.9000;0.1327;-0.4762;
-168.6000;0.1311;-0.4837;
-168.3000;0.1351;-0.4837;
-168.0000;0.1343;-0.4787;
-167.7000;0.1311;-0.4937;
-167.4000;0.1327;-0.4862;
-167.1000;0.1327;-0.5012;
-166.8000;0.1359;-0.4987;
-166.5000;0.1351;-0.4937;
-166.2000;0.1335;-0.4987;
-165.9000;0.1286;-0.5086;
-165.6000;0.1343;-0.4937;
-165.3000;0.1343;-0.4937;
-165.0000;0.1335;-0.4887;
-164.7000;0.1319;-0.4887;
-164.4000;0.1343;-0.4912;
-164.1000;0.1343;-0.4887;
-163.8000;0.1368;-0.4787;
-163.5000;0.1327;-0.4912;
-163.2000;0.1327;-0.4962;
-162.9000;0.1327;-0.4937;
-162.6000;0.1327;-0.4962;
-162.3000;0.1327;-0.4912;
-162.0000;0.1425;-0.4563;
-161.7000;0.1319;-0.4862;
-161.4000;0.1351;-0.4737;
-161.1000;0.1392;-0.4613;
-160.8000;0.1319;-0.4762;
-160.5000;0.1335;-0.4762;
-160.2000;0.1343;-0.4737;
-159.9000;0.1392;-0.4588;
-159.6000;0.1270;-0.4862;
-159.3000;0.1327;-0.4737;
-159.0000;0.1311;-0.4737;
-158.7000;0.1327;-0.4712;
-158.4000;0.1335;-0.4787;
-158.1000;0.1327;-0.4812;
-157.8000;0.1335;-0.4712;
-157.5000;0.1319;-0.4762;
-157.2000;0.1319;-0.4737;
-156.9000;0.1311;-0.4837;
-156.6000;0.1327;-0.4912;
-156.3000;0.1327;-0.4837;
-156.0000;0.1351;-0.4588;
-155.7000;0.1335;-0.4613;
-155.4000;0.1408;-0.4463;
-155.1000;0.1368;-0.4613;
-154.8000;0.1335;-0.4737;
-154.5000;0.1335;-0.4837;
-154.2000;0.1327;-0.4837;
-153.9000;0.1335;-0.4688;
-153.6000;0.1335;-0.4712;
-153.3000;0.1343;-0.4787;
-153.0000;0.1351;-0.4762;
-152.7000;0.1327;-0.4762;
-152.4000;0.1343;-0.4712;
-152.1000;0.1335;-0.4737;
-151.8000;0.1319;-0.4862;
-151.5000;0.1335;-0.4862;
-151.2000;0.1319;-0.4912;
-150.9000;0.1335;-0.4862;
-150.6000;0.1319;-0.4962;
-150.3000;0.1335;-0.4887;
-150.0000;0.1335;-0.4837;
-149.7000;0.1327;-0.4912;
-149.4000;0.1327;-0.4887;
-149.1000;0.1327;-0.4862;
-148.8000;0.1319;-0.4937;
-148.5000;0.1327;-0.4887;
-148.2000;0.1319;-0.4962;
-147.9000;0.1319;-0.4962;
-147.6000;0.1327;-0.4862;
-147.3000;0.1343;-0.4862;
-147.0000;0.1319;-0.4937;
-146.7000;0.1319;-0.4887;
-146.4000;0.1311;-0.4937;
-146.1000;0.1327;-0.4862;
-145.8000;0.1335;-0.4837;
-145.5000;0.1319;-0.4937;
-145.2000;0.1327;-0.4937;
-144.9000;0.1335;-0.4962;
-144.6000;0.1343;-0.5062;
-144.3000;0.1335;-0.5086;
-144.0000;0.1311;-0.5086;
-143.7000;0.1343;-0.4987;
-143.4000;0.1343;-0.4887;
-143.1000;0.1302;-0.4862;
-142.8000;0.1327;-0.4812;
-142.5000;0.1327;-0.4812;
-142.2000;0.1335;-0.4787;
-141.9000;0.1343;-0.4787;
-141.6000;0.1327;-0.4762;
-141.3000;0.1311;-0.4712;
-141.0000;0.1335;-0.4663;
-140.7000;0.1327;-0.4638;
-140.4000;0.1319;-0.4688;
-140.1000;0.1327;-0.4688;
-139.8000;0.1302;-0.4887;
-139.5000;0.1319;-0.4887;
-139.2000;0.1327;-0.4887;
-138.9000;0.1335;-0.4837;
-138.6000;0.1319;-0.4912;
-138.3000;0.1335;-0.4837;
-138.0000;0.1351;-0.4762;
-137.7000;0.1319;-0.4812;
-137.4000;0.1376;-0.4688;
-137.1000;0.1319;-0.4962;
-136.8000;0.1294;-0.4987;
-136.5000;0.1335;-0.4912;
-136.2000;0.1294;-0.4962;
-135.9000;0.1335;-0.4912;
-135.6000;0.1335;-0.4837;
-135.3000;0.1278;-0.5037;
-135.0000;0.1319;-0.4962;
-134.7000;0.1319;-0.4912;
-134.4000;0.1319;-0.4862;
-134.1000;0.1335;-0.4812;
-133.8000;0.1254;-0.5037;
-133.5000;0.1335;-0.4663;
-133.2000;0.1343;-0.4538;
-132.9000;0.1327;-0.4538;
-132.6000;0.1319;-0.4563;
-132.3000;0.1359;-0.4413;
-132.0000;0.1319;-0.4563;
-131.7000;0.1319;-0.4588;
-131.4000;0.1270;-0.4688;
-131.1000;0.1359;-0.4563;
-130.8000;0.1319;-0.4688;
-130.5000;0.1368;-0.4588;
-130.2000;0.1327;-0.4688;
-129.9000;0.1327;-0.4688;
-129.6000;0.1327;-0.4638;
-129.3000;0.1311;-0.4712;
-129.0000;0.1319;-0.4712;
-128.7000;0.1311;-0.4837;
-128.4000;0.1311;-0.4937;
-128.1000;0.1327;-0.4887;
-127.8000;0.1408;-0.4663;
-127.5000;0.1319;-0.4837;
-127.2000;0.1319;-0.4812;
-126.9000;0.1327;-0.4712;
-126.6000;0.1294;-0.4787;
-126.3000;0.1319;-0.4762;
-126.0000;0.1335;-0.4613;
-125.7000;0.1327;-0.4663;
-125.4000;0.1327;-0.4663;
-125.1000;0.1327;-0.4688;
-124.8000;0.1327;-0.4688;
-124.5000;0.1335;-0.4588;
-124.2000;0.1351;-0.4513;
-123.9000;0.1368;-0.4488;
-123.6000;0.1311;-0.4737;
-123.3000;0.1351;-0.4762;
-123.0000;0.1384;-0.4663;
-122.7000;0.1335;-0.4812;
-122.4000;0.1343;-0.4737;
-122.1000;0.1311;-0.4862;
-121.8000;0.1343;-0.4862;
-121.5000;0.1335;-0.4862;
-121.2000;0.1343;-0.4837;
-120.9000;0.1319;-0.4862;
-120.6000;0.1335;-0.4887;
-120.3000;0.1327;-0.4987;
-120.0000;0.1319;-0.4962;
-119.7000;0.1319;-0.4862;
-119.4000;0.1278;-0.5037;
-119.1000;0.1327;-0.4837;
-118.8000;0.1335;-0.4862;
-118.5000;0.1335;-0.4837;
-118.2000;0.1327;-0.4837;
-117.9000;0.1343;-0.4737;
-117.6000;0.1327;-0.4737;
-117.3000;0.1278;-0.4812;
-117.0000;0.1335;-0.4712;
-116.7000;0.1327;-0.4712;
-116.4000;0.1254;-0.4862;
-116.1000;0.1335;-0.4762;
-115.8000;0.1343;-0.4812;
-115.5000;0.1335;-0.4812;
-115.2000;0.1351;-0.4762;
-114.9000;0.1335;-0.4787;
-114.6000;0.1335;-0.4837;
-114.3000;0.1311;-0.4962;
-114.0000;0.1335;-0.4937;
-113.7000;0.1319;-0.5012;
-113.4000;0.1311;-0.5086;
-113.1000;0.1335;-0.5037;
-112.8000;0.1270;-0.5136;
-112.5000;0.1384;-0.4787;
-112.2000;0.1286;-0.5012;
-111.9000;0.1343;-0.4887;
-111.6000;0.1343;-0.4912;
-111.3000;0.1327;-0.4887;
-111.0000;0.1319;-0.4937;
-110.7000;0.1351;-0.4862;
-110.4000;0.1351;-0.4762;
-110.1000;0.1343;-0.4712;
-109.8000;0.1327;-0.4762;
-109.5000;0.1335;-0.4862;
-109.2000;0.1335;-0.4937;
-108.9000;0.1286;-0.5062;
-108.6000;0.1335;-0.4937;
-108.3000;0.1327;-0.4962;
-108.0000;0.1343;-0.4862;
-107.7000;0.1327;-0.4937;
-107.4000;0.1294;-0.4937;
-107.1000;0.1311;-0.4787;
-106.8000;0.1319;-0.4787;
-106.5000;0.1319;-0.4812;
-106.2000;0.1311;-0.4787;
-105.9000;0.1416;-0.4438;
-105.6000;0.1311;-0.4688;
-105.3000;0.1335;-0.4538;
-105.0000;0.1319;-0.4638;
-104.7000;0.1327;-0.4613;
-104.4000;0.1262;-0.4737;
-104.1000;0.1335;-0.4563;
-103.8000;0.1343;-0.4663;
-103.5000;0.1319;-0.4638;
-103.2000;0.1319;-0.4712;
-102.9000;0.1311;-0.4762;
-102.6000;0.1343;-0.4613;
-102.3000;0.1319;-0.4712;
-102.0000;0.1319;-0.4762;
-101.7000;0.1311;-0.4737;
-101.4000;0.1302;-0.4762;
-101.1000;0.1311;-0.4712;
-100.8000;0.1319;-0.4663;
-100.5000;0.1335;-0.4613;
-100.2000;0.1327;-0.4638;
-99.9000;0.1294;-0.4787;
-99.6000;0.1302;-0.4737;
-99.3000;0.1319;-0.4712;
-99.0000;0.1245;-0.4912;
-98.7000;0.1319;-0.4762;
-98.4000;0.1327;-0.4787;
-98.1000;0.1319;-0.4862;
-97.8000;0.1351;-0.4837;
-97.5000;0.1327;-0.4962;
-97.2000;0.1351;-0.4837;
-96.9000;0.1302;-0.5037;
-96.6000;0.1343;-0.4937;
-96.3000;0.1335;-0.4912;
-96.0000;0.1335;-0.4887;
-95.7000;0.1327;-0.4937;
-95.4000;0.1351;-0.4937;
-95.1000;0.1343;-0.4962;
-94.8000;0.1335;-0.4912;
-94.5000;0.1294;-0.4962;
-94.2000;0.1311;-0.4912;
-93.9000;0.1327;-0.4937;
-93.6000;0.1245;-0.5186;
-93.3000;0.1351;-0.4962;
-93.0000;0.1311;-0.4987;
-92.7000;0.1221;-0.5186;
-92.4000;0.1278;-0.5062;
-92.1000;0.1343;-0.4862;
-91.8000;0.1343;-0.4937;
-91.5000;0.1327;-0.4987;
-91.2000;0.1327;-0.5012;
-90.9000;0.1335;-0.4937;
-90.6000;0.1335;-0.4962;
-90.3000;0.1400;-0.4812;
-90.0000;0.1425;-0.4737;
-89.7000;0.1343;-0.4912;
-89.4000;0.1343;-0.4987;
-89.1000;0.1335;-0.4987;
-88.8000;0.1335;-0.5012;
-88.5000;0.1327;-0.5012;
-88.2000;0.1392;-0.4962;
-87.9000;0.1319;-0.5161;
-87.6000;0.1327;-0.5186;
-87.3000;0.1311;-0.5186;
-87.0000;0.1319;-0.5136;
-86.7000;0.1335;-0.5037;
-86.4000;0.1327;-0.5136;
-86.1000;0.1319;-0.5136;
-85.8000;0.1319;-0.5161;
-85.5000;0.1335;-0.5136;
-85.2000;0.1327;-0.5136;
-84.9000;0.1343;-0.5261;
-84.6000;0.1327;-0.5286;
-84.3000;0.1311;-0.5336;
-84.0000;0.1335;-0.5261;
-83.7000;0.1335;-0.5286;
-83.4000;0.1335;-0.5286;
-83.1000;0.1327;-0.5186;
-82.8000;0.1327;-0.5186;
-82.5000;0.1311;-0.5261;
-82.2000;0.1335;-0.5211;
-81.9000;0.1327;-0.5211;
-81.6000;0.1392;-0.5037;
-81.3000;0.1311;-0.5236;
-81.0000;0.1302;-0.5336;
-80.7000;0.1343;-0.5236;
-80.4000;0.1327;-0.5186;
-80.1000;0.1335;-0.5286;
-79.8000;0.1327;-0.5161;
-79.5000;0.1335;-0.5111;
-79.2000;0.1351;-0.5062;
-78.9000;0.1335;-0.5062;
-78.6000;0.1311;-0.5161;
-78.3000;0.1311;-0.5186;
-78.0000;0.1319;-0.5111;
-77.7000;0.1335;-0.5136;
-77.4000;0.1327;-0.5161;
-77.1000;0.1335;-0.5161;
-76.8000;0.1302;-0.5236;
-76.5000;0.1335;-0.5136;
-76.2000;0.1327;-0.5062;
-75.9000;0.1327;-0.5086;
-75.6000;0.1327;-0.5136;
-75.3000;0.1319;-0.5186;
-75.0000;0.1335;-0.5062;
-74.7000;0.1351;-0.5037;
-74.4000;0.1343;-0.5086;
-74.1000;0.1327;-0.5062;
-73.8000;0.1351;-0.5012;
-73.5000;0.1327;-0.5012;
-73.2000;0.1327;-0.4937;
-72.9000;0.1302;-0.5111;
-72.6000;0.1302;-0.5037;
-72.3000;0.1319;-0.5012;
-72.0000;0.1286;-0.5211;
-71.7000;0.1302;-0.5062;
-71.4000;0.1311;-0.4987;
-71.1000;0.1335;-0.5012;
-70.8000;0.1302;-0.5086;
-70.5000;0.1327;-0.5037;
-70.2000;0.1335;-0.5037;
-69.9000;0.1311;-0.5037;
-69.6000;0.1254;-0.5161;
-69.3000;0.1311;-0.5062;
-69.0000;0.1327;-0.5086;
-68.7000;0.1278;-0.5211;
-68.4000;0.1319;-0.5111;
-68.1000;0.1335;-0.4962;
-67.8000;0.1343;-0.4962;
-67.5000;0.1327;-0.5062;
-67.2000;0.1319;-0.5161;
-66.9000;0.1351;-0.5136;
-66.6000;0.1311;-0.5161;
-66.3000;0.1425;-0.4787;
-66.0000;0.1327;-0.5037;
-65.7000;0.1335;-0.4987;
-65.4000;0.1343;-0.4987;
-65.1000;0.1286;-0.5236;
-64.8000;0.1335;-0.5062;
-64.5000;0.1343;-0.4962;
-64.2000;0.1351;-0.4962;
-63.9000;0.1368;-0.4962;
-63.6000;0.1327;-0.5012;
-63.3000;0.1335;-0.4937;
-63.0000;0.1408;-0.4663;
-62.7000;0.1327;-0.4962;
-62.4000;0.1327;-0.4987;
-62.1000;0.1302;-0.4987;
-61.8000;0.1335;-0.5037;
-61.5000;0.1327;-0.5062;
-61.2000;0.1311;-0.4962;
-60.9000;0.1286;-0.5086;
-60.6000;0.1319;-0.5012;
-60.3000;0.1335;-0.5012;
-60.0000;0.1376;-0.4937;
-59.7000;0.1319;-0.5012;
-59.4000;0.1335;-0.5012;
-59.1000;0.1319;-0.5012;
-58.8000;0.1327;-0.5012;
-58.5000;0.1302;-0.5136;
-58.2000;0.1319;-0.5062;
-57.9000;0.1319;-0.5062;
-57.6000;0.1359;-0.5037;
-57.3000;0.1311;-0.5062;
-57.0000;0.1327;-0.5062;
-56.7000;0.1311;-0.5136;
-56.4000;0.1327;-0.5086;
-56.1000;0.1343;-0.5037;
-55.8000;0.1343;-0.5037;
-55.5000;0.1327;-0.5086;
-55.2000;0.1327;-0.5037;
-54.9000;0.1335;-0.5037;
-54.6000;0.1335;-0.5012;
-54.3000;0.1343;-0.4912;
-54.0000;0.1335;-0.4912;
-53.7000;0.1335;-0.4987;
-53.4000;0.1335;-0.5086;
-53.1000;0.1351;-0.4987;
-52.8000;0.1327;-0.4987;
-52.5000;0.1351;-0.4887;
-52.2000;0.1335;-0.5037;
-51.9000;0.1327;-0.5062;
-51.6000;0.1294;-0.5111;
-51.3000;0.1311;-0.5111;
-51.0000;0.1368;-0.5012;
-50.7000;0.1351;-0.5111;
-50.4000;0.1327;-0.5211;
-50.1000;0.1319;-0.5211;
-49.8000;0.1335;-0.5136;
-49.5000;0.1319;-0.5161;
-49.2000;0.1319;-0.5136;
-48.9000;0.1319;-0.5111;
-48.6000;0.1384;-0.4937;
-48.3000;0.1327;-0.5012;
-48.0000;0.1294;-0.5161;
-47.7000;0.1343;-0.5062;
-47.4000;0.1343;-0.5136;
-47.1000;0.1311;-0.5136;
-46.8000;0.1302;-0.5086;
-46.5000;0.1319;-0.5037;
-46.2000;0.1343;-0.4937;
-45.9000;0.1327;-0.4962;
-45.6000;0.1319;-0.4987;
-45.3000;0.1286;-0.5012;
-45.0000;0.1319;-0.5012;
-44.7000;0.1368;-0.4862;
-44.4000;0.1327;-0.4912;
-44.1000;0.1278;-0.5086;
-43.8000;0.1319;-0.5086;
-43.5000;0.1335;-0.5012;
-43.2000;0.1311;-0.5086;
-42.9000;0.1384;-0.4887;
-42.6000;0.1335;-0.5012;
-42.3000;0.1319;-0.4987;
-42.0000;0.1335;-0.4987;
-41.7000;0.1408;-0.4787;
-41.4000;0.1213;-0.5211;
-41.1000;0.1278;-0.5037;
-40.8000;0.1327;-0.4862;
-40.5000;0.1335;-0.4737;
-40.2000;0.1408;-0.4563;
-39.9000;0.1343;-0.4737;
-39.6000;0.1343;-0.4787;
-39.3000;0.1343;-0.4812;
-39.0000;0.1311;-0.4862;
-38.7000;0.1335;-0.4937;
-38.4000;0.1327;-0.5037;
-38.1000;0.1368;-0.4912;
-37.8000;0.1327;-0.5012;
-37.5000;0.1311;-0.5086;
-37.2000;0.1319;-0.4912;
-36.9000;0.1254;-0.5012;
-36.6000;0.1384;-0.4712;
-36.3000;0.1319;-0.4812;
-36.0000;0.1327;-0.4762;
-35.7000;0.1335;-0.4737;
-35.4000;0.1343;-0.4688;
-35.1000;0.1368;-0.4712;
-34.8000;0.1327;-0.4862;
-34.5000;0.1302;-0.4937;
-34.2000;0.1311;-0.4987;
-33.9000;0.1327;-0.4912;
-33.6000;0.1311;-0.4862;
-33.3000;0.1311;-0.4937;
-33.0000;0.1343;-0.4987;
-32.7000;0.1319;-0.5062;
-32.4000;0.1327;-0.5086;
-32.1000;0.1384;-0.4912;
-31.8000;0.1335;-0.4987;
-31.5000;0.1368;-0.4837;
-31.2000;0.1327;-0.4937;
-30.9000;0.1270;-0.5111;
-30.6000;0.1335;-0.5037;
-30.3000;0.1327;-0.5012;
-30.0000;0.1327;-0.4862;
-29.7000;0.1327;-0.4837;
-29.4000;0.1319;-0.4887;
-29.1000;0.1335;-0.4887;
-28.8000;0.1327;-0.4862;
-28.5000;0.1343;-0.4787;
-28.2000;0.1335;-0.4862;
-27.9000;0.1335;-0.4862;
-27.6000;0.1327;-0.4837;
-27.3000;0.1311;-0.4787;
-27.0000;0.1319;-0.4762;
-26.7000;0.1319;-0.4762;
-26.4000;0.1319;-0.4812;
-26.1000;0.1327;-0.4887;
-25.8000;0.1327;-0.4937;
-25.5000;0.1311;-0.4887;
-25.2000;0.1343;-0.4837;
-24.9000;0.1327;-0.4887;
-24.6000;0.1343;-0.4862;
-24.3000;0.1262;-0.5012;
-24.0000;0.1343;-0.4912;
-23.7000;0.1311;-0.5037;
-23.4000;0.1221;-0.5311;
-23.1000;0.1294;-0.5086;
-22.8000;0.1319;-0.5037;
-22.5000;0.1311;-0.5037;
-22.2000;0.1302;-0.4912;
-21.9000;0.1319;-0.4862;
-21.6000;0.1335;-0.4862;
-21.3000;0.1335;-0.4987;
-21.0000;0.1319;-0.4937;
-20.7000;0.1327;-0.4962;
-20.4000;0.1408;-0.4688;
-20.1000;0.1311;-0.4912;
-19.8000;0.1343;-0.4762;
-19.5000;0.1327;-0.4862;
-19.2000;0.1343;-0.4887;
-18.9000;0.1368;-0.4837;
-18.6000;0.1319;-0.4962;
-18.3000;0.1327;-0.4937;
-18.0000;0.1327;-0.4912;
-17.7000;0.1262;-0.5086;
-17.4000;0.1319;-0.4937;
-17.1000;0.1327;-0.4862;
-16.8000;0.1359;-0.4712;
-16.5000;0.1327;-0.4812;
-16.2000;0.1343;-0.4787;
-15.9000;0.1254;-0.5086;
-15.6000;0.1327;-0.4937;
-15.3000;0.1343;-0.4962;
-15.0000;0.1278;-0.5111;
-14.7000;0.1319;-0.4962;
-14.4000;0.1294;-0.4987;
-14.1000;0.1335;-0.4912;
-13.8000;0.1327;-0.4837;
-13.5000;0.1335;-0.4837;
-13.2000;0.1319;-0.4812;
-12.9000;0.1302;-0.4837;
-12.6000;0.1327;-0.4887;
-12.3000;0.1343;-0.4837;
-12.0000;0.1327;-0.4837;
-11.7000;0.1327;-0.4887;
-11.4000;0.1311;-0.4962;
-11.1000;0.1319;-0.4987;
-10.8000;0.1302;-0.5037;
-10.5000;0.1229;-0.5261;
-10.2000;0.1327;-0.4987;
-9.9000;0.1335;-0.4937;
-9.6000;0.1327;-0.4962;
-9.3000;0.1335;-0.4962;
-9.0000;0.1335;-0.4862;
-8.7000;0.1311;-0.4887;
-8.4000;0.1302;-0.4862;
-8.1000;0.1302;-0.4837;
-7.8000;0.1335;-0.4737;
-7.5000;0.1351;-0.4762;
-7.2000;0.1335;-0.4787;
-6.9000;0.1368;-0.4588;
-6.6000;0.1319;-0.4737;
-6.3000;0.1319;-0.4663;
-6.0000;0.1278;-0.4787;
-5.7000;0.1319;-0.4688;
-5.4000;0.1327;-0.4638;
-5.1000;0.1359;-0.4638;
-4.8000;0.1400;-0.4513;
-4.5000;0.1351;-0.4663;
-4.2000;0.1335;-0.4638;
-3.9000;0.1327;-0.4638;
-3.6000;0.1335;-0.4663;
-3.3000;0.1286;-0.4787;
-3.0000;0.1302;-0.4737;
-2.7000;0.1319;-0.4787;
-2.4000;0.1368;-0.4712;
-2.1000;0.1311;-0.4787;
-1.8000;0.1319;-0.4712;
-1.5000;0.1319;-0.4712;
-1.2000;0.1327;-0.4663;
-0.9000;0.1319;-0.4762;
-0.6000;0.1311;-0.4787;
-0.3000;0.1319;-0.4787;
0.0000;0.1319;-0.4787;
0.3000;0.1351;-0.4538;
0.6000;0.1441;-0.4264;
0.9000;0.1384;-0.4239;
1.2000;0.1400;-0.3964;
1.5000;0.1441;-0.3590;
1.8000;0.1416;-0.3491;
2.1000;0.1481;-0.3167;
2.4000;0.1433;-0.3142;
2.7000;0.1416;-0.3042;
3.0000;0.1555;-0.2693;
3.3000;0.1530;-0.2593;
3.6000;0.1449;-0.2743;
3.9000;0.1441;-0.2693;
4.2000;0.1473;-0.2643;
4.5000;0.1465;-0.2643;
4.8000;0.1473;-0.2593;
5.1000;0.1490;-0.2419;
5.4000;0.1473;-0.2344;
5.7000;0.1571;-0.2045;
6.0000;0.1473;-0.2294;
6.3000;0.1481;-0.2319;
6.6000;0.1473;-0.2269;
6.9000;0.1449;-0.2344;
7.2000;0.1465;-0.2269;
7.5000;0.1457;-0.2194;
7.8000;0.1465;-0.2094;
8.1000;0.1441;-0.2219;
8.4000;0.1465;-0.2269;
8.7000;0.1465;-0.2294;
9.0000;0.1473;-0.2294;
9.3000;0.1481;-0.2169;
9.6000;0.1481;-0.2144;
9.9000;0.1481;-0.2144;
10.2000;0.1481;-0.2144;
10.5000;0.1490;-0.1995;
10.8000;0.1587;-0.1795;
11.1000;0.1473;-0.2119;
11.4000;0.1465;-0.2194;
11.7000;0.1490;-0.2069;
12.0000;0.1530;-0.2069;
12.3000;0.1465;-0.2119;
12.6000;0.1490;-0.2119;
12.9000;0.1457;-0.2269;
13.2000;0.1457;-0.2269;
13.5000;0.1465;-0.2269;
13.8000;0.1457;-0.2294;
14.1000;0.1498;-0.2119;
14.4000;0.1425;-0.2294;
14.7000;0.1473;-0.2244;
15.0000;0.1490;-0.2244;
15.3000;0.1498;-0.2269;
15.6000;0.1457;-0.2394;
15.9000;0.1498;-0.2244;
16.2000;0.1481;-0.2219;
16.5000;0.1490;-0.2244;
16.8000;0.1490;-0.2294;
17.1000;0.1473;-0.2344;
17.4000;0.1473;-0.2394;
17.7000;0.1473;-0.2419;
18.0000;0.1490;-0.2319;
18.3000;0.1473;-0.2344;
18.6000;0.1473;-0.2319;
18.9000;0.1481;-0.2269;
19.2000;0.1473;-0.2269;
19.5000;0.1490;-0.2294;
19.8000;0.1457;-0.2269;
20.1000;0.1441;-0.2319;
20.4000;0.1473;-0.2194;
20.7000;0.1425;-0.2319;
21.0000;0.1481;-0.2119;
21.3000;0.1449;-0.2219;
21.6000;0.1449;-0.2144;
21.9000;0.1465;-0.2169;
22.2000;0.1425;-0.2244;
22.5000;0.1473;-0.2119;
22.8000;0.1465;-0.2169;
23.1000;0.1473;-0.2194;
23.4000;0.1449;-0.2219;
23.7000;0.1465;-0.2119;
24.0000;0.1465;-0.2069;
24.3000;0.1490;-0.2045;
24.6000;0.1481;-0.2144;
24.9000;0.1457;-0.2094;
25.2000;0.1473;-0.2069;
25.5000;0.1473;-0.2069;
25.8000;0.1498;-0.2094;
26.1000;0.1481;-0.2144;
26.4000;0.1481;-0.2169;
26.7000;0.1490;-0.2169;
27.0000;0.1498;-0.2219;
27.3000;0.1473;-0.2344;
27.6000;0.1473;-0.2344;
27.9000;0.1465;-0.2394;
28.2000;0.1481;-0.2369;
28.5000;0.1490;-0.2269;
28.8000;0.1465;-0.2394;
29.1000;0.1473;-0.2344;
29.4000;0.1490;-0.2269;
29.7000;0.1481;-0.2319;
30.0000;0.1481;-0.2244;
30.3000;0.1498;-0.2219;
30.6000;0.1490;-0.2219;
30.9000;0.1473;-0.2294;
31.2000;0.1473;-0.2319;
31.5000;0.1449;-0.2294;
31.8000;0.1457;-0.2269;
32.1000;0.1473;-0.2219;
32.4000;0.1441;-0.2244;
32.7000;0.1498;-0.2144;
33.0000;0.1538;-0.2020;
33.3000;0.1481;-0.2144;
33.6000;0.1408;-0.2194;
33.9000;0.1481;-0.1995;
34.2000;0.1481;-0.1945;
34.5000;0.1481;-0.2119;
34.8000;0.1481;-0.2169;
35.1000;0.1538;-0.2045;
35.4000;0.1481;-0.2119;
35.7000;0.1400;-0.2319;
36.0000;0.1473;-0.2069;
36.3000;0.1498;-0.2020;
36.6000;0.1490;-0.2045;
36.9000;0.1498;-0.2020;
37.2000;0.1481;-0.2094;
37.5000;0.1408;-0.2269;
37.8000;0.1457;-0.2119;
38.1000;0.1481;-0.2094;
38.4000;0.1481;-0.2069;
38.7000;0.1473;-0.2094;
39.0000;0.1473;-0.2144;
39.3000;0.1498;-0.1970;
39.6000;0.1555;-0.1945;
39.9000;0.1506;-0.1945;
40.2000;0.1490;-0.2020;
40.5000;0.1490;-0.1970;
40.8000;0.1555;-0.1820;
41.1000;0.1481;-0.1995;
41.4000;0.1498;-0.1920;
41.7000;0.1498;-0.1895;
42.0000;0.1490;-0.1945;
42.3000;0.1498;-0.1920;
42.6000;0.1473;-0.2020;
42.9000;0.1490;-0.1995;
43.2000;0.1392;-0.2294;
43.5000;0.1506;-0.1995;
43.8000;0.1481;-0.2094;
44.1000;0.1465;-0.2144;
44.4000;0.1473;-0.2169;
44.7000;0.1587;-0.1845;
45.0000;0.1481;-0.2169;
45.3000;0.1530;-0.2119;
45.6000;0.1473;-0.2219;
45.9000;0.1563;-0.1945;
46.2000;0.1441;-0.2119;
46.5000;0.1425;-0.2244;
46.8000;0.1465;-0.2094;
47.1000;0.1473;-0.2020;
47.4000;0.1449;-0.2045;
47.7000;0.1490;-0.1895;
48.0000;0.1481;-0.1970;
48.3000;0.1449;-0.1995;
48.6000;0.1473;-0.1920;
48.9000;0.1481;-0.1920;
49.2000;0.1481;-0.1970;
49.5000;0.1473;-0.1970;
49.8000;0.1481;-0.2020;
50.1000;0.1498;-0.1970;
50.4000;0.1473;-0.2069;
50.7000;0.1465;-0.2020;
51.0000;0.1481;-0.1995;
51.3000;0.1433;-0.2219;
51.6000;0.1481;-0.2194;
51.9000;0.1481;-0.2119;
52.2000;0.1465;-0.2094;
52.5000;0.1490;-0.1995;
52.8000;0.1473;-0.2119;
53.1000;0.1449;-0.2119;
53.4000;0.1481;-0.1970;
53.7000;0.1441;-0.2020;
54.0000;0.1473;-0.1945;
54.3000;0.1465;-0.1995;
54.6000;0.1481;-0.1970;
54.9000;0.1506;-0.1870;
55.2000;0.1481;-0.1945;
55.5000;0.1457;-0.2069;
55.8000;0.1465;-0.2144;
56.1000;0.1425;-0.2194;
56.4000;0.1490;-0.2069;
56.7000;0.1457;-0.2144;
57.0000;0.1498;-0.2119;
57.3000;0.1481;-0.2119;
57.6000;0.1481;-0.2045;
57.9000;0.1490;-0.1895;
58.2000;0.1481;-0.1895;
58.5000;0.1514;-0.1820;
58.8000;0.1433;-0.2020;
59.1000;0.1473;-0.1945;
59.4000;0.1449;-0.2119;
59.7000;0.1416;-0.2269;
60.0000;0.1457;-0.2144;
60.3000;0.1481;-0.2144;
60.6000;0.1473;-0.2144;
60.9000;0.1465;-0.2194;
61.2000;0.1481;-0.2119;
61.5000;0.1465;-0.2194;
61.8000;0.1530;-0.1970;
62.1000;0.1457;-0.2094;
62.4000;0.1530;-0.1845;
62.7000;0.1498;-0.1970;
63.0000;0.1490;-0.2020;
63.3000;0.1481;-0.1945;
63.6000;0.1473;-0.1945;
63.9000;0.1465;-0.1970;
64.2000;0.1449;-0.2119;
64.5000;0.1481;-0.2069;
64.8000;0.1457;-0.2144;
65.1000;0.1481;-0.2094;
65.4000;0.1473;-0.2119;
65.7000;0.1481;-0.2119;
66.0000;0.1498;-0.2020;
66.3000;0.1473;-0.2020;
66.6000;0.1481;-0.2045;
66.9000;0.1481;-0.2069;
67.2000;0.1449;-0.2119;
67.5000;0.1490;-0.2069;
67.8000;0.1481;-0.2119;
68.1000;0.1449;-0.2169;
68.4000;0.1465;-0.2045;
68.7000;0.1481;-0.2045;
69.0000;0.1481;-0.2020;
69.3000;0.1465;-0.2119;
69.6000;0.1449;-0.2169;
69.9000;0.1473;-0.2020;
70.2000;0.1481;-0.1870;
70.5000;0.1457;-0.2020;
70.8000;0.1473;-0.2045;
71.1000;0.1473;-0.2069;
71.4000;0.1498;-0.2045;
71.7000;0.1473;-0.2194;
72.0000;0.1481;-0.2094;
72.3000;0.1441;-0.2119;
72.6000;0.1457;-0.1995;
72.9000;0.1465;-0.1995;
73.2000;0.1457;-0.1945;
73.5000;0.1490;-0.1895;
73.8000;0.1498;-0.1920;
74.1000;0.1522;-0.1845;
74.4000;0.1481;-0.1895;
74.7000;0.1481;-0.1820;
75.0000;0.1473;-0.1845;
75.3000;0.1473;-0.1895;
75.6000;0.1530;-0.1820;
75.9000;0.1481;-0.2020;
76.2000;0.1416;-0.2119;
76.5000;0.1498;-0.1920;
76.8000;0.1506;-0.1845;
77.1000;0.1498;-0.1845;
77.4000;0.1473;-0.1970;
77.7000;0.1490;-0.1970;
78.0000;0.1441;-0.2045;
78.3000;0.1473;-0.1970;
78.6000;0.1481;-0.2020;
78.9000;0.1490;-0.2045;
79.2000;0.1490;-0.2119;
79.5000;0.1465;-0.2169;
79.8000;0.1457;-0.2219;
80.1000;0.1465;-0.2194;
80.4000;0.1514;-0.1995;
80.7000;0.1481;-0.2094;
81.0000;0.1481;-0.2094;
81.3000;0.1481;-0.2194;
81.6000;0.1481;-0.2194;
81.9000;0.1490;-0.2194;
82.2000;0.1522;-0.2094;
82.5000;0.1465;-0.2219;
82.8000;0.1465;-0.2244;
83.1000;0.1457;-0.2244;
83.4000;0.1465;-0.2144;
83.7000;0.1473;-0.1970;
84.0000;0.1473;-0.1970;
84.3000;0.1490;-0.1995;
84.6000;0.1481;-0.1995;
84.9000;0.1465;-0.2020;
85.2000;0.1473;-0.1995;
85.5000;0.1481;-0.1970;
85.8000;0.1473;-0.2144;
86.1000;0.1481;-0.2094;
86.4000;0.1473;-0.2119;
86.7000;0.1481;-0.2094;
87.0000;0.1384;-0.2468;
87.3000;0.1473;-0.2294;
87.6000;0.1473;-0.2319;
87.9000;0.1490;-0.2169;
88.2000;0.1490;-0.2119;
88.5000;0.1473;-0.2094;
88.8000;0.1473;-0.2169;
89.1000;0.1490;-0.2069;
89.4000;0.1465;-0.2119;
89.7000;0.1473;-0.2219;
90.0000;0.1490;-0.2194;
90.3000;0.1481;-0.2244;
90.6000;0.1481;-0.2219;
90.9000;0.1465;-0.2269;
91.2000;0.1514;-0.2169;
91.5000;0.1457;-0.2319;
91.8000;0.1481;-0.2169;
92.1000;0.1465;-0.2119;
92.4000;0.1465;-0.2144;
92.7000;0.1481;-0.2169;
93.0000;0.1481;-0.2144;
93.3000;0.1473;-0.2244;
93.6000;0.1465;-0.2219;
93.9000;0.1481;-0.2169;
94.2000;0.1506;-0.2219;
94.5000;0.1481;-0.2294;
94.8000;0.1481;-0.2319;
95.1000;0.1490;-0.2269;
95.4000;0.1481;-0.2294;
95.7000;0.1416;-0.2319;
96.0000;0.1465;-0.2219;
96.3000;0.1425;-0.2344;
96.6000;0.1465;-0.2194;
96.9000;0.1481;-0.2194;
97.2000;0.1457;-0.2169;
97.5000;0.1465;-0.2194;
97.8000;0.1449;-0.2219;
98.1000;0.1384;-0.2394;
98.4000;0.1473;-0.2169;
98.7000;0.1400;-0.2269;
99.0000;0.1481;-0.2144;
99.3000;0.1473;-0.2144;
99.6000;0.1465;-0.2269;
99.9000;0.1473;-0.2269;
100.2000;0.1514;-0.2269;
100.5000;0.1481;-0.2369;
100.8000;0.1481;-0.2444;
101.1000;0.1465;-0.2419;
101.4000;0.1473;-0.2444;
101.7000;0.1490;-0.2369;
102.0000;0.1490;-0.2369;
102.3000;0.1481;-0.2344;
102.6000;0.1481;-0.2344;
102.9000;0.1473;-0.2319;
103.2000;0.1473;-0.2294;
103.5000;0.1449;-0.2369;
103.8000;0.1465;-0.2344;
104.1000;0.1416;-0.2493;
104.4000;0.1473;-0.2344;
104.7000;0.1481;-0.2294;
105.0000;0.1473;-0.2369;
105.3000;0.1465;-0.2394;
105.6000;0.1465;-0.2294;
105.9000;0.1481;-0.2294;
106.2000;0.1465;-0.2269;
106.5000;0.1473;-0.2369;
106.8000;0.1481;-0.2269;
107.1000;0.1449;-0.2369;
107.4000;0.1481;-0.2369;
107.7000;0.1473;-0.2419;
108.0000;0.1473;-0.2319;
108.3000;0.1481;-0.2344;
108.6000;0.1473;-0.2194;
108.9000;0.1457;-0.2219;
109.2000;0.1473;-0.2144;
109.5000;0.1481;-0.2119;
109.8000;0.1481;-0.2144;
110.1000;0.1481;-0.2169;
110.4000;0.1481;-0.2269;
110.7000;0.1481;-0.2319;
111.0000;0.1490;-0.2319;
111.3000;0.1473;-0.2344;
111.6000;0.1498;-0.2269;
111.9000;0.1481;-0.2244;
112.2000;0.1490;-0.2419;
112.5000;0.1490;-0.2419;
112.8000;0.1465;-0.2444;
113.1000;0.1465;-0.2394;
113.4000;0.1473;-0.2294;
113.7000;0.1490;-0.2394;
114.0000;0.1449;-0.2444;
114.3000;0.1473;-0.2543;
114.6000;0.1473;-0.2444;
114.9000;0.1449;-0.2468;
115.2000;0.1457;-0.2344;
115.5000;0.1514;-0.2144;
115.8000;0.1433;-0.2369;
116.1000;0.1473;-0.2344;
116.4000;0.1473;-0.2319;
116.7000;0.1473;-0.2344;
117.0000;0.1465;-0.2344;
117.3000;0.1473;-0.2244;
117.6000;0.1481;-0.2219;
117.9000;0.1457;-0.2319;
118.2000;0.1465;-0.2169;
118.5000;0.1449;-0.2269;
118.8000;0.1473;-0.2094;
119.1000;0.1457;-0.2194;
119.4000;0.1457;-0.2169;
119.7000;0.1473;-0.2069;
120.0000;0.1473;-0.2094;
120.3000;0.1473;-0.2144;
120.6000;0.1457;-0.2169;
120.9000;0.1473;-0.2094;
121.2000;0.1465;-0.2069;
121.5000;0.1465;-0.2045;
121.8000;0.1441;-0.2020;
122.1000;0.1473;-0.1870;
122.4000;0.1465;-0.1895;
122.7000;0.1465;-0.1945;
123.0000;0.1473;-0.1945;
123.3000;0.1473;-0.1970;
123.6000;0.1473;-0.1945;
123.9000;0.1481;-0.1970;
124.2000;0.1441;-0.2194;
124.5000;0.1481;-0.2045;
124.8000;0.1522;-0.1870;
125.1000;0.1465;-0.1970;
125.4000;0.1481;-0.1995;
125.7000;0.1473;-0.1995;
126.0000;0.1465;-0.2069;
126.3000;0.1473;-0.1995;
126.6000;0.1433;-0.2069;
126.9000;0.1465;-0.1970;
127.2000;0.1465;-0.1970;
127.5000;0.1473;-0.1945;
127.8000;0.1457;-0.1995;
128.1000;0.1514;-0.1845;
128.4000;0.1465;-0.2094;
128.7000;0.1465;-0.2119;
129.0000;0.1449;-0.2169;
129.3000;0.1457;-0.2194;
129.6000;0.1498;-0.2144;
129.9000;0.1457;-0.2169;
130.2000;0.1473;-0.2119;
130.5000;0.1400;-0.2344;
130.8000;0.1433;-0.2194;
131.1000;0.1481;-0.2045;
131.4000;0.1473;-0.2119;
131.7000;0.1441;-0.2169;
132.0000;0.1490;-0.2069;
132.3000;0.1457;-0.2119;
132.6000;0.1457;-0.2219;
132.9000;0.1473;-0.2319;
133.2000;0.1473;-0.2394;
133.5000;0.1481;-0.2394;
133.8000;0.1481;-0.2319;
134.1000;0.1481;-0.2194;
134.4000;0.1465;-0.2244;
134.7000;0.1457;-0.2319;
135.0000;0.1481;-0.2244;
135.3000;0.1465;-0.2344;
135.6000;0.1481;-0.2344;
135.9000;0.1473;-0.2319;
136.2000;0.1490;-0.2319;
136.5000;0.1481;-0.2269;
136.8000;0.1473;-0.2369;
137.1000;0.1433;-0.2394;
137.4000;0.1441;-0.2419;
137.7000;0.1465;-0.2369;
138.0000;0.1457;-0.2269;
138.3000;0.1457;-0.2144;
138.6000;0.1416;-0.2244;
138.9000;0.1465;-0.2119;
139.2000;0.1457;-0.2219;
139.5000;0.1465;-0.2244;
139.8000;0.1457;-0.2194;
140.1000;0.1465;-0.2219;
140.4000;0.1465;-0.2194;
140.7000;0.1457;-0.2194;
141.0000;0.1433;-0.2244;
141.3000;0.1490;-0.2219;
141.6000;0.1473;-0.2344;
141.9000;0.1457;-0.2319;
142.2000;0.1481;-0.2169;
142.5000;0.1416;-0.2419;
142.8000;0.1538;-0.2045;
143.1000;0.1514;-0.2094;
143.4000;0.1465;-0.2144;
143.7000;0.1449;-0.2119;
144.0000;0.1441;-0.2169;
144.3000;0.1416;-0.2394;
144.6000;0.1473;-0.2294;
144.9000;0.1490;-0.2219;
145.2000;0.1416;-0.2394;
145.5000;0.1441;-0.2344;
145.8000;0.1481;-0.2269;
146.1000;0.1433;-0.2394;
146.4000;0.1498;-0.2194;
146.7000;0.1465;-0.2269;
147.0000;0.1473;-0.2194;
147.3000;0.1473;-0.2169;
147.6000;0.1457;-0.2119;
147.9000;0.1473;-0.2045;
148.2000;0.1473;-0.2094;
148.5000;0.1457;-0.2119;
148.8000;0.1449;-0.2194;
149.1000;0.1457;-0.2144;
149.4000;0.1449;-0.2194;
149.7000;0.1449;-0.2119;
150.0000;0.1465;-0.2169;
150.3000;0.1465;-0.2144;
150.6000;0.1490;-0.2169;
150.9000;0.1563;-0.1945;
151.2000;0.1473;-0.2219;
151.5000;0.1465;-0.2269;
151.8000;0.1473;-0.2269;
152.1000;0.1449;-0.2294;
152.4000;0.1473;-0.2219;
152.7000;0.1465;-0.2294;
153.0000;0.1441;-0.2269;
153.3000;0.1457;-0.2144;
153.6000;0.1490;-0.2094;
153.9000;0.1473;-0.2169;
154.2000;0.1473;-0.2169;
154.5000;0.1368;-0.2493;
154.8000;0.1473;-0.2294;
155.1000;0.1449;-0.2369;
155.4000;0.1449;-0.2369;
155.7000;0.1481;-0.2344;
156.0000;0.1465;-0.2344;
156.3000;0.1433;-0.2543;
156.6000;0.1498;-0.2394;
156.9000;0.1481;-0.2568;
157.2000;0.1473;-0.2543;
157.5000;0.1481;-0.2518;
157.8000;0.1481;-0.2518;
158.1000;0.1498;-0.2493;
158.4000;0.1481;-0.2518;
158.7000;0.1481;-0.2518;
159.0000;0.1473;-0.2493;
159.3000;0.1481;-0.2444;
159.6000;0.1465;-0.2468;
159.9000;0.1514;-0.2269;
160.2000;0.1481;-0.2344;
160.5000;0.1457;-0.2344;
160.8000;0.1457;-0.2419;
161.1000;0.1457;-0.2419;
161.4000;0.1538;-0.2294;
161.7000;0.1490;-0.2444;
162.0000;0.1473;-0.2394;
162.3000;0.1457;-0.2394;
162.6000;0.1449;-0.2344;
162.9000;0.1457;-0.2319;
163.2000;0.1457;-0.2244;
163.5000;0.1465;-0.2119;
163.8000;0.1465;-0.2119;
164.1000;0.1449;-0.2194;
164.4000;0.1449;-0.2169;
164.7000;0.1465;-0.2194;
165.0000;0.1449;-0.2194;
165.3000;0.1457;-0.2144;
165.6000;0.1441;-0.2169;
165.9000;0.1481;-0.2069;
166.2000;0.1400;-0.2219;
166.5000;0.1473;-0.2045;
166.8000;0.1481;-0.1995;
167.1000;0.1416;-0.2219;
167.4000;0.1490;-0.2144;
167.7000;0.1473;-0.2269;
168.0000;0.1579;-0.2045;
168.3000;0.1400;-0.2468;
168.6000;0.1473;-0.2194;
168.9000;0.1473;-0.2194;
169.2000;0.1465;-0.2219;
169.5000;0.1506;-0.2119;
169.8000;0.1465;-0.2194;
170.1000;0.1530;-0.2069;
170.4000;0.1490;-0.2319;
170.7000;0.1481;-0.2294;
171.0000;0.1465;-0.2319;
171.3000;0.1465;-0.2419;
171.6000;0.1490;-0.2369;
171.9000;0.1481;-0.2344;
172.2000;0.1465;-0.2369;
172.5000;0.1481;-0.2269;
172.8000;0.1457;-0.2244;
173.1000;0.1465;-0.2119;
173.4000;0.1473;-0.2219;
173.7000;0.1449;-0.2244;
174.0000;0.1449;-0.2219;
174.3000;0.1449;-0.2269;
174.6000;0.1457;-0.2244;
174.9000;0.1457;-0.2394;
175.2000;0.1465;-0.2394;
175.5000;0.1481;-0.2269;
175.8000;0.1481;-0.2144;
176.1000;0.1457;-0.2269;
176.4000;0.1465;-0.2319;
176.7000;0.1481;-0.2269;
177.0000;0.1481;-0.2194;
177.3000;0.1457;-0.2244;
177.6000;0.1416;-0.2419;
177.9000;0.1473;-0.2319;
178.2000;0.1473;-0.2294;
178.5000;0.1449;-0.2219;
178.8000;0.1473;-0.2269;
179.1000;0.1473;-0.2169;
179.4000;0.1506;-0.2219;
179.7000;0.1425;-0.2444;
180.0000;0.1563;-0.2119;
180.3000;0.1441;-0.2419;
180.6000;0.1465;-0.2369;
180.9000;0.1400;-0.2568;
181.2000;0.1473;-0.2269;
181.5000;0.1473;-0.2194;
181.8000;0.1457;-0.2144;
182.1000;0.1481;-0.2020;
182.4000;0.1465;-0.2020;
182.7000;0.1441;-0.2045;
183.0000;0.1351;-0.2394;
183.3000;0.1457;-0.2194;
183.6000;0.1473;-0.2020;
183.9000;0.1433;-0.2244;
184.2000;0.1457;-0.2169;
184.5000;0.1441;-0.2194;
184.8000;0.1457;-0.2144;
185.1000;0.1457;-0.2119;
185.4000;0.1457;-0.2219;
185.7000;0.1481;-0.2169;
186.0000;0.1457;-0.2194;
186.3000;0.1481;-0.2069;
186.6000;0.1457;-0.2194;
186.9000;0.1465;-0.2144;
187.2000;0.1530;-0.2020;
187.5000;0.1563;-0.1920;
187.8000;0.1465;-0.2169;
188.1000;0.1457;-0.2144;
188.4000;0.1457;-0.2094;
188.7000;0.1473;-0.2119;
189.0000;0.1473;-0.2194;
189.3000;0.1425;-0.2294;
189.6000;0.1571;-0.1895;
189.9000;0.1449;-0.2169;
190.2000;0.1449;-0.2194;
190.5000;0.1465;-0.2144;
190.8000;0.1465;-0.2144;
191.1000;0.1441;-0.2269;
191.4000;0.1465;-0.2194;
191.7000;0.1473;-0.2219;
192.0000;0.1481;-0.2045;
192.3000;0.1425;-0.2194;
192.6000;0.1457;-0.2069;
192.9000;0.1465;-0.1995;
193.2000;0.1457;-0.2119;
193.5000;0.1457;-0.2319;
193.8000;0.1457;-0.2419;
194.1000;0.1481;-0.2319;
194.4000;0.1465;-0.2269;
194.7000;0.1473;-0.2244;
195.0000;0.1473;-0.2244;
195.3000;0.1481;-0.2169;
195.6000;0.1465;-0.2194;
195.9000;0.1473;-0.2045;
196.2000;0.1465;-0.2094;
196.5000;0.1449;-0.2094;
196.8000;0.1465;-0.2094;
197.1000;0.1465;-0.2020;
197.4000;0.1490;-0.1995;
197.7000;0.1465;-0.2020;
198.0000;0.1465;-0.2069;
198.3000;0.1490;-0.2069;
198.6000;0.1490;-0.2119;
198.9000;0.1449;-0.2069;
199.2000;0.1457;-0.2045;
199.5000;0.1473;-0.2045;
199.8000;0.1449;-0.2069;
200.1000;0.1457;-0.2020;
200.4000;0.1465;-0.2094;
200.7000;0.1481;-0.2094;
201.0000;0.1473;-0.2194;
201.3000;0.1449;-0.2194;
201.6000;0.1481;-0.2144;
201.9000;0.1384;-0.2419;
202.2000;0.1498;-0.2144;
202.5000;0.1457;-0.2269;
202.8000;0.1481;-0.2219;
203.1000;0.1473;-0.2194;
203.4000;0.1457;-0.2119;
203.7000;0.1457;-0.2169;
204.0000;0.1465;-0.2144;
204.3000;0.1498;-0.2094;
204.6000;0.1538;-0.1920;
204.9000;0.1473;-0.2119;
205.2000;0.1465;-0.2169;
205.5000;0.1465;-0.2119;
205.8000;0.1481;-0.2094;
206.1000;0.1457;-0.2169;
206.4000;0.1465;-0.2094;
206.7000;0.1457;-0.2169;
207.0000;0.1433;-0.2219;
207.3000;0.1457;-0.2144;
207.6000;0.1457;-0.2094;
207.9000;0.1400;-0.2269;
208.2000;0.1441;-0.2169;
208.5000;0.1473;-0.2069;
208.8000;0.1473;-0.2045;
209.1000;0.1473;-0.2144;
209.4000;0.1441;-0.2144;
209.7000;0.1465;-0.2094;
210.0000;0.1449;-0.2169;
210.3000;0.1433;-0.2194;
210.6000;0.1498;-0.2069;
210.9000;0.1441;-0.2244;
211.2000;0.1425;-0.2294;
211.5000;0.1457;-0.2194;
211.8000;0.1441;-0.2194;
212.1000;0.1473;-0.2144;
212.4000;0.1473;-0.2194;
212.7000;0.1473;-0.2169;
213.0000;0.1457;-0.2244;
213.3000;0.1473;-0.2194;
213.6000;0.1457;-0.2219;
213.9000;0.1449;-0.2344;
214.2000;0.1473;-0.2269;
214.5000;0.1457;-0.2294;
214.8000;0.1473;-0.2344;
215.1000;0.1490;-0.2369;
215.4000;0.1490;-0.2319;
215.7000;0.1481;-0.2344;
216.0000;0.1490;-0.2369;
216.3000;0.1522;-0.2319;
216.6000;0.1481;-0.2468;
216.9000;0.1506;-0.2444;
217.2000;0.1490;-0.2419;
217.5000;0.1481;-0.2444;
217.8000;0.1498;-0.2344;
218.1000;0.1433;-0.2468;
218.4000;0.1457;-0.2394;
218.7000;0.1481;-0.2444;
219.0000;0.1530;-0.2369;
219.3000;0.1473;-0.2493;
219.6000;0.1465;-0.2493;
219.9000;0.1457;-0.2568;
220.2000;0.1473;-0.2593;
220.5000;0.1473;-0.2618;
220.8000;0.1465;-0.2518;
221.1000;0.1473;-0.2593;
221.4000;0.1490;-0.2543;
221.7000;0.1465;-0.2618;
222.0000;0.1376;-0.2942;
222.3000;0.1457;-0.2668;
222.6000;0.1514;-0.2468;
222.9000;0.1490;-0.2593;
223.2000;0.1481;-0.2543;
223.5000;0.1473;-0.2493;
223.8000;0.1498;-0.2394;
224.1000;0.1449;-0.2543;
224.4000;0.1457;-0.2543;
224.7000;0.1400;-0.2892;
225.0000;0.1457;-0.2768;
225.3000;0.1490;-0.2693;
225.6000;0.1555;-0.2493;
225.9000;0.1465;-0.2643;
226.2000;0.1498;-0.2618;
226.5000;0.1490;-0.2593;
226.8000;0.1490;-0.2643;
227.1000;0.1563;-0.2394;
227.4000;0.1538;-0.2419;
227.7000;0.1481;-0.2543;
228.0000;0.1481;-0.2618;
228.3000;0.1498;-0.2593;
228.6000;0.1490;-0.2643;
228.9000;0.1425;-0.2793;
229.2000;0.1473;-0.2618;
229.5000;0.1473;-0.2643;
229.8000;0.1473;-0.2668;
230.1000;0.1481;-0.2618;
230.4000;0.1481;-0.2718;
230.7000;0.1425;-0.2818;
231.0000;0.1465;-0.2718;
231.3000;0.1465;-0.2593;
231.6000;0.1481;-0.2543;
231.9000;0.1481;-0.2543;
232.2000;0.1522;-0.2344;
232.5000;0.1473;-0.2493;
232.8000;0.1473;-0.2568;
233.1000;0.1473;-0.2568;
233.4000;0.1465;-0.2543;
233.7000;0.1441;-0.2643;
234.0000;0.1433;-0.2568;
234.3000;0.1449;-0.2493;
234.6000;0.1465;-0.2543;
234.9000;0.1457;-0.2593;
235.2000;0.1481;-0.2543;
235.5000;0.1490;-0.2593;
235.8000;0.1465;-0.2543;
236.1000;0.1465;-0.2618;
236.4000;0.1473;-0.2593;
236.7000;0.1465;-0.2643;
237.0000;0.1473;-0.2518;
237.3000;0.1473;-0.2568;
237.6000;0.1498;-0.2419;
237.9000;0.1473;-0.2518;
238.2000;0.1465;-0.2518;
238.5000;0.1449;-0.2668;
238.8000;0.1473;-0.2568;
239.1000;0.1465;-0.2568;
239.4000;0.1473;-0.2643;
239.7000;0.1473;-0.2693;
240.0000;0.1473;-0.2668;
240.3000;0.1465;-0.2693;
240.6000;0.1457;-0.2643;
240.9000;0.1563;-0.2394;
241.2000;0.1473;-0.2593;
241.5000;0.1473;-0.2618;
241.8000;0.1465;-0.2693;
242.1000;0.1473;-0.2668;
242.4000;0.1473;-0.2643;
242.7000;0.1449;-0.2693;
243.0000;0.1481;-0.2643;
243.3000;0.1457;-0.2693;
243.6000;0.1473;-0.2668;
243.9000;0.1441;-0.2643;
244.2000;0.1473;-0.2518;
244.5000;0.1433;-0.2593;
244.8000;0.1465;-0.2568;
245.1000;0.1441;-0.2543;
245.4000;0.1473;-0.2593;
245.7000;0.1449;-0.2643;
246.0000;0.1457;-0.2568;
246.3000;0.1449;-0.2618;
246.6000;0.1498;-0.2493;
246.9000;0.1457;-0.2668;
247.2000;0.1473;-0.2693;
247.5000;0.1465;-0.2743;
247.8000;0.1490;-0.2668;
248.1000;0.1473;-0.2693;
248.4000;0.1465;-0.2793;
248.7000;0.1473;-0.2818;
249.0000;0.1498;-0.2643;
249.3000;0.1506;-0.2618;
249.6000;0.1473;-0.2618;
249.9000;0.1490;-0.2543;
250.2000;0.1481;-0.2568;
250.5000;0.1449;-0.2543;
250.8000;0.1506;-0.2493;
251.1000;0.1457;-0.2593;
251.4000;0.1449;-0.2643;
251.7000;0.1473;-0.2493;
252.0000;0.1514;-0.2518;
252.3000;0.1457;-0.2593;
252.6000;0.1473;-0.2518;
252.9000;0.1449;-0.2369;
253.2000;0.1449;-0.2319;
253.5000;0.1457;-0.2294;
253.8000;0.1457;-0.2394;
254.1000;0.1457;-0.2444;
254.4000;0.1465;-0.2493;
254.7000;0.1473;-0.2568;
255.0000;0.1457;-0.2543;
255.3000;0.1457;-0.2543;
255.6000;0.1465;-0.2493;
255.9000;0.1449;-0.2493;
256.2000;0.1449;-0.2493;
256.5000;0.1465;-0.2369;
256.8000;0.1441;-0.2468;
257.1000;0.1433;-0.2468;
257.4000;0.1465;-0.2468;
257.7000;0.1465;-0.2543;
258.0000;0.1473;-0.2543;
258.3000;0.1490;-0.2493;
258.6000;0.1457;-0.2518;
258.9000;0.1449;-0.2493;
259.2000;0.1465;-0.2419;
259.5000;0.1400;-0.2518;
259.8000;0.1441;-0.2444;
260.1000;0.1481;-0.2394;
260.4000;0.1473;-0.2518;
260.7000;0.1465;-0.2493;
261.0000;0.1490;-0.2344;
261.3000;0.1530;-0.2169;
261.6000;0.1465;-0.2344;
261.9000;0.1490;-0.2269;
262.2000;0.1522;-0.2194;
262.5000;0.1465;-0.2344;
262.8000;0.1473;-0.2319;
263.1000;0.1481;-0.2294;
263.4000;0.1490;-0.2369;
263.7000;0.1506;-0.2444;
264.0000;0.1481;-0.2593;
264.3000;0.1457;-0.2693;
264.6000;0.1465;-0.2668;
264.9000;0.1530;-0.2419;
265.2000;0.1481;-0.2543;
265.5000;0.1490;-0.2518;
265.8000;0.1465;-0.2568;
266.1000;0.1481;-0.2593;
266.4000;0.1465;-0.2618;
266.7000;0.1473;-0.2468;
267.0000;0.1473;-0.2518;
267.3000;0.1481;-0.2493;
267.6000;0.1506;-0.2444;
267.9000;0.1449;-0.2444;
268.2000;0.1473;-0.2294;
268.5000;0.1473;-0.2169;
268.8000;0.1498;-0.2219;
269.1000;0.1465;-0.2244;
269.4000;0.1481;-0.2169;
269.7000;0.1498;-0.2219;
270.0000;0.1449;-0.2344;
270.3000;0.1465;-0.2294;
270.6000;0.1481;-0.2294;
270.9000;0.1465;-0.2394;
271.2000;0.1465;-0.2419;
271.5000;0.1465;-0.2493;
271.8000;0.1473;-0.2493;
272.1000;0.1490;-0.2419;
272.4000;0.1490;-0.2493;
272.7000;0.1481;-0.2444;
273.0000;0.1465;-0.2444;
273.3000;0.1473;-0.2444;
273.6000;0.1481;-0.2369;
273.9000;0.1457;-0.2468;
274.2000;0.1457;-0.2593;
274.5000;0.1473;-0.2618;
274.8000;0.1457;-0.2643;
275.1000;0.1457;-0.2568;
275.4000;0.1457;-0.2668;
275.7000;0.1457;-0.2618;
276.0000;0.1490;-0.2444;
276.3000;0.1473;-0.2394;
276.6000;0.1473;-0.2394;
276.9000;0.1490;-0.2294;
277.2000;0.1473;-0.2194;
277.5000;0.1465;-0.2169;
277.8000;0.1506;-0.2169;
278.1000;0.1473;-0.2119;
278.4000;0.1457;-0.2269;
278.7000;0.1473;-0.2219;
279.0000;0.1457;-0.2244;
279.3000;0.1433;-0.2444;
279.6000;0.1449;-0.2369;
279.9000;0.1457;-0.2344;
280.2000;0.1473;-0.2344;
280.5000;0.1449;-0.2444;
280.8000;0.1465;-0.2369;
281.1000;0.1530;-0.2319;
281.4000;0.1490;-0.2593;
281.7000;0.1481;-0.2518;
282.0000;0.1506;-0.2444;
282.3000;0.1433;-0.2643;
282.6000;0.1530;-0.2344;
282.9000;0.1481;-0.2568;
283.2000;0.1473;-0.2493;
283.5000;0.1457;-0.2493;
283.8000;0.1514;-0.2294;
284.1000;0.1506;-0.2344;
284.4000;0.1465;-0.2419;
284.7000;0.1481;-0.2419;
285.0000;0.1441;-0.2643;
285.3000;0.1465;-0.2568;
285.6000;0.1376;-0.2818;
285.9000;0.1457;-0.2618;
286.2000;0.1465;-0.2543;
286.5000;0.1473;-0.2543;
286.8000;0.1530;-0.2394;
287.1000;0.1473;-0.2518;
287.4000;0.1498;-0.2419;
287.7000;0.1473;-0.2518;
288.0000;0.1441;-0.2543;
288.3000;0.1449;-0.2493;
288.6000;0.1498;-0.2369;
288.9000;0.1481;-0.2369;
289.2000;0.1457;-0.2543;
289.5000;0.1457;-0.2593;
289.8000;0.1481;-0.2618;
290.1000;0.1481;-0.2568;
290.4000;0.1457;-0.2568;
290.7000;0.1457;-0.2493;
291.0000;0.1481;-0.2294;
291.3000;0.1481;-0.2319;
291.6000;0.1481;-0.2269;
291.9000;0.1465;-0.2294;
292.2000;0.1473;-0.2319;
292.5000;0.1490;-0.2294;
292.8000;0.1465;-0.2394;
293.1000;0.1433;-0.2568;
293.4000;0.1465;-0.2444;
293.7000;0.1473;-0.2369;
294.0000;0.1473;-0.2468;
294.3000;0.1449;-0.2518;
294.6000;0.1473;-0.2568;
294.9000;0.1465;-0.2593;
295.2000;0.1449;-0.2718;
295.5000;0.1457;-0.2668;
295.8000;0.1457;-0.2643;
296.1000;0.1473;-0.2693;
296.4000;0.1473;-0.2718;
296.7000;0.1465;-0.2618;
297.0000;0.1473;-0.2593;
297.3000;0.1465;-0.2643;
297.6000;0.1490;-0.2543;
297.9000;0.1465;-0.2593;
298.2000;0.1563;-0.2369;
298.5000;0.1465;-0.2593;
298.8000;0.1473;-0.2493;
299.1000;0.1392;-0.2718;
299.4000;0.1514;-0.2294;
299.7000;0.1457;-0.2419;
300.0000;0.1465;-0.2468;
300.3000;0.1408;-0.2618;
300.6000;0.1465;-0.2518;
300.9000;0.1408;-0.2718;
301.2000;0.1449;-0.2643;
301.5000;0.1473;-0.2543;
301.8000;0.1490;-0.2468;
302.1000;0.1506;-0.2468;
302.4000;0.1465;-0.2543;
302.7000;0.1457;-0.2543;
303.0000;0.1457;-0.2543;
303.3000;0.1473;-0.2568;
303.6000;0.1416;-0.2718;
303.9000;0.1465;-0.2618;
304.2000;0.1490;-0.2593;
304.5000;0.1449;-0.2693;
304.8000;0.1481;-0.2593;
305.1000;0.1473;-0.2568;
305.4000;0.1465;-0.2468;
305.7000;0.1392;-0.2643;
306.0000;0.1457;-0.2394;
306.3000;0.1481;-0.2419;
306.6000;0.1473;-0.2444;
306.9000;0.1473;-0.2394;
307.2000;0.1522;-0.2294;
307.5000;0.1538;-0.2219;
307.8000;0.1457;-0.2344;
308.1000;0.1473;-0.2269;
308.4000;0.1457;-0.2319;
308.7000;0.1457;-0.2319;
309.0000;0.1481;-0.2219;
309.3000;0.1425;-0.2344;
309.6000;0.1473;-0.2344;
309.9000;0.1498;-0.2219;
310.2000;0.1514;-0.2244;
310.5000;0.1473;-0.2319;
310.8000;0.1465;-0.2344;
311.1000;0.1457;-0.2444;
311.4000;0.1449;-0.2468;
311.7000;0.1449;-0.2294;
312.0000;0.1433;-0.2369;
312.3000;0.1473;-0.2219;
312.6000;0.1481;-0.2269;
312.9000;0.1465;-0.2344;
313.2000;0.1481;-0.2269;
313.5000;0.1465;-0.2219;
313.8000;0.1481;-0.2244;
314.1000;0.1473;-0.2294;
314.4000;0.1473;-0.2294;
314.7000;0.1441;-0.2394;
315.0000;0.1473;-0.2219;
315.3000;0.1449;-0.2294;
315.6000;0.1490;-0.2219;
315.9000;0.1457;-0.2369;
316.2000;0.1481;-0.2419;
316.5000;0.1490;-0.2394;
316.8000;0.1490;-0.2344;
317.1000;0.1465;-0.2344;
317.4000;0.1473;-0.2319;
317.7000;0.1473;-0.2269;
318.0000;0.1465;-0.2344;
318.3000;0.1473;-0.2294;
318.6000;0.1481;-0.2219;
318.9000;0.1465;-0.2219;
319.2000;0.1473;-0.2144;
319.5000;0.1473;-0.2094;
319.8000;0.1449;-0.2119;
320.1000;0.1473;-0.2045;
320.4000;0.1498;-0.1995;
320.7000;0.1449;-0.2144;
321.0000;0.1473;-0.2169;
321.3000;0.1408;-0.2269;
321.6000;0.1457;-0.2294;
321.9000;0.1481;-0.2269;
322.2000;0.1547;-0.2094;
322.5000;0.1433;-0.2344;
322.8000;0.1490;-0.2169;
323.1000;0.1441;-0.2344;
323.4000;0.1457;-0.2344;
323.7000;0.1465;-0.2394;
324.0000;0.1449;-0.2419;
324.3000;0.1465;-0.2369;
324.6000;0.1506;-0.2319;
324.9000;0.1457;-0.2444;
325.2000;0.1522;-0.2294;
325.5000;0.1473;-0.2444;
325.8000;0.1457;-0.2493;
326.1000;0.1441;-0.2618;
326.4000;0.1465;-0.2618;
326.7000;0.1506;-0.2493;
327.0000;0.1481;-0.2568;
327.3000;0.1473;-0.2568;
327.6000;0.1522;-0.2468;
327.9000;0.1481;-0.2468;
328.2000;0.1481;-0.2444;
328.5000;0.1473;-0.2568;
328.8000;0.1449;-0.2543;
329.1000;0.1384;-0.2743;
329.4000;0.1465;-0.2543;
329.7000;0.1457;-0.2518;
330.0000;0.1457;-0.2568;
330.3000;0.1457;-0.2618;
330.6000;0.1473;-0.2643;
330.9000;0.1530;-0.2369;
331.2000;0.1457;-0.2493;
331.5000;0.1449;-0.2543;
331.8000;0.1481;-0.2419;
332.1000;0.1481;-0.2419;
332.4000;0.1473;-0.2394;
332.7000;0.1457;-0.2444;
333.0000;0.1481;-0.2444;
333.3000;0.1457;-0.2493;
333.6000;0.1481;-0.2394;
333.9000;0.1473;-0.2419;
334.2000;0.1465;-0.2493;
334.5000;0.1441;-0.2568;
334.8000;0.1449;-0.2593;
335.1000;0.1449;-0.2543;
335.4000;0.1490;-0.2468;
335.7000;0.1473;-0.2543;
336.0000;0.1433;-0.2693;
336.3000;0.1449;-0.2668;
336.6000;0.1481;-0.2543;
336.9000;0.1465;-0.2543;
337.2000;0.1490;-0.2493;
337.5000;0.1433;-0.2593;
337.8000;0.1449;-0.2568;
338.1000;0.1441;-0.2568;
338.4000;0.1538;-0.2294;
338.7000;0.1457;-0.2468;
339.0000;0.1441;-0.2568;
339.3000;0.1457;-0.2518;
339.6000;0.1465;-0.2444;
339.9000;0.1441;-0.2518;
340.2000;0.1449;-0.2493;
340.5000;0.1465;-0.2468;
340.8000;0.1481;-0.2444;
341.1000;0.1457;-0.2493;
341.4000;0.1538;-0.2369;
341.7000;0.1473;-0.2618;
342.0000;0.1498;-0.2518;
342.3000;0.1490;-0.2444;
342.6000;0.1465;-0.2468;
342.9000;0.1490;-0.2444;
343.2000;0.1449;-0.2543;
343.5000;0.1473;-0.2568;
343.8000;0.1490;-0.2543;
344.1000;0.1457;-0.2643;
344.4000;0.1441;-0.2693;
344.7000;0.1465;-0.2543;
345.0000;0.1465;-0.2643;
345.3000;0.1457;-0.2593;
345.6000;0.1481;-0.2568;
345.9000;0.1498;-0.2493;
346.2000;0.1473;-0.2543;
346.5000;0.1449;-0.2493;
346.8000;0.1457;-0.2419;
347.1000;0.1498;-0.2319;
347.4000;0.1481;-0.2468;
347.7000;0.1490;-0.2419;
348.0000;0.1465;-0.2468;
348.3000;0.1481;-0.2444;
348.6000;0.1490;-0.2344;
348.9000;0.1465;-0.2369;
349.2000;0.1571;-0.2194;
349.5000;0.1457;-0.2568;
349.8000;0.1473;-0.2568;
350.1000;0.1441;-0.2643;
350.4000;0.1465;-0.2518;
350.7000;0.1473;-0.2468;
351.0000;0.1514;-0.2319;
351.3000;0.1449;-0.2444;
351.6000;0.1457;-0.2468;
351.9000;0.1481;-0.2419;
352.2000;0.1457;-0.2468;
352.5000;0.1473;-0.2444;
352.8000;0.1481;-0.2394;
353.1000;0.1457;-0.2319;
353.4000;0.1457;-0.2269;
353.7000;0.1465;-0.2169;
354.0000;0.1465;-0.2244;
354.3000;0.1457;-0.2319;
354.6000;0.1457;-0.2269;
354.9000;0.1457;-0.2319;
355.2000;0.1457;-0.2319;
355.5000;0.1449;-0.2344;
355.8000;0.1498;-0.2144;
356.1000;0.1473;-0.2119;
356.4000;0.1457;-0.2119;
356.7000;0.1538;-0.2020;
357.0000;0.1416;-0.2444;
357.3000;0.1571;-0.2020;
357.6000;0.1465;-0.2369;
357.9000;0.1465;-0.2394;
358.2000;0.1473;-0.2444;
358.5000;0.1514;-0.2244;
358.8000;0.1425;-0.2394;
359.1000;0.1449;-0.2394;
359.4000;0.1465;-0.2344;
359.7000;0.1449;-0.2244;
360.0000;0.1441;-0.2369;
360.3000;0.1457;-0.2319;
360.6000;0.1457;-0.2194;
360.9000;0.1465;-0.2219;
361.2000;0.1416;-0.2369;
361.5000;0.1465;-0.2219;
361.8000;0.1465;-0.2169;
362.1000;0.1473;-0.2144;
362.4000;0.1473;-0.2119;
362.7000;0.1465;-0.2119;
363.0000;0.1449;-0.2169;
363.3000;0.1457;-0.2169;
363.6000;0.1473;-0.2094;
363.9000;0.1490;-0.2119;
364.2000;0.1457;-0.2144;
364.5000;0.1449;-0.2169;
364.8000;0.1449;-0.2144;
365.1000;0.1433;-0.2244;
365.4000;0.1449;-0.2344;
365.7000;0.1441;-0.2419;
366.0000;0.1449;-0.2444;
366.3000;0.1473;-0.2419;
366.6000;0.1490;-0.2394;
366.9000;0.1473;-0.2369;
367.2000;0.1522;-0.2144;
367.5000;0.1473;-0.2394;
367.8000;0.1481;-0.2319;
368.1000;0.1465;-0.2319;
368.4000;0.1498;-0.2219;
368.7000;0.1473;-0.2219;
369.0000;0.1449;-0.2269;
369.3000;0.1457;-0.2169;
369.6000;0.1457;-0.2269;
369.9000;0.1481;-0.2194;
370.2000;0.1473;-0.2269;
370.5000;0.1465;-0.2269;
370.8000;0.1449;-0.2394;
371.1000;0.1465;-0.2294;
371.4000;0.1481;-0.2294;
371.7000;0.1473;-0.2468;
372.0000;0.1473;-0.2493;
372.3000;0.1465;-0.2394;
372.6000;0.1473;-0.2369;
372.9000;0.1457;-0.2394;
373.2000;0.1392;-0.2543;
373.5000;0.1449;-0.2319;
373.8000;0.1441;-0.2394;
374.1000;0.1457;-0.2319;
374.4000;0.1449;-0.2344;
374.7000;0.1473;-0.2369;
375.0000;0.1384;-0.2593;
375.3000;0.1441;-0.2344;
375.6000;0.1376;-0.2568;
375.9000;0.1433;-0.2468;
376.2000;0.1408;-0.2518;
376.5000;0.1441;-0.2419;
376.8000;0.1490;-0.2294;
377.1000;0.1384;-0.2518;
377.4000;0.1465;-0.2319;
377.7000;0.1465;-0.2219;
378.0000;0.1490;-0.2144;
378.3000;0.1376;-0.2543;
378.6000;0.1522;-0.2144;
378.9000;0.1490;-0.2294;
379.2000;0.1506;-0.2269;
379.5000;0.1465;-0.2394;
379.8000;0.1563;-0.2020;
380.1000;0.1457;-0.2269;
380.4000;0.1481;-0.2219;
380.7000;0.1457;-0.2244;
381.0000;0.1465;-0.2294;
381.3000;0.1506;-0.2219;
381.6000;0.1473;-0.2319;
381.9000;0.1449;-0.2344;
382.2000;0.1449;-0.2419;
382.5000;0.1473;-0.2394;
382.8000;0.1490;-0.2493;
383.1000;0.1473;-0.2468;
383.4000;0.1408;-0.2693;
383.7000;0.1473;-0.2468;
384.0000;0.1481;-0.2468;
384.3000;0.1465;-0.2444;
384.6000;0.1465;-0.2394;
384.9000;0.1473;-0.2344;
385.2000;0.1465;-0.2269;
385.5000;0.1465;-0.2344;
385.8000;0.1481;-0.2419;
386.1000;0.1465;-0.2369;
386.4000;0.1441;-0.2394;
386.7000;0.1473;-0.2294;
387.0000;0.1441;-0.2394;
387.3000;0.1490;-0.2394;
387.6000;0.1457;-0.2394;
387.9000;0.1465;-0.2344;
388.2000;0.1441;-0.2419;
388.5000;0.1481;-0.2244;
388.8000;0.1457;-0.2344;
389.1000;0.1449;-0.2419;
389.4000;0.1457;-0.2394;
389.7000;0.1457;-0.2419;
390.0000;0.1449;-0.2394;
390.3000;0.1465;-0.2319;
390.6000;0.1473;-0.2294;
390.9000;0.1465;-0.2369;
391.2000;0.1416;-0.2493;
391.5000;0.1473;-0.2468;
391.8000;0.1465;-0.2493;
392.1000;0.1457;-0.2518;
392.4000;0.1449;-0.2618;
392.7000;0.1457;-0.2568;
393.0000;0.1457;-0.2618;
393.3000;0.1457;-0.2593;
393.6000;0.1449;-0.2543;
393.9000;0.1457;-0.2493;
394.2000;0.1457;-0.2394;
394.5000;0.1449;-0.2518;
394.8000;0.1490;-0.2468;
395.1000;0.1481;-0.2543;
395.4000;0.1465;-0.2593;
395.7000;0.1481;-0.2518;
396.0000;0.1425;-0.2668;
396.3000;0.1433;-0.2568;
396.6000;0.1473;-0.2419;
396.9000;0.1506;-0.2269;
397.2000;0.1506;-0.2319;
397.5000;0.1498;-0.2344;
397.8000;0.1465;-0.2419;
398.1000;0.1457;-0.2444;
398.4000;0.1465;-0.2319;
398.7000;0.1392;-0.2444;
399.0000;0.1433;-0.2344;
399.3000;0.1416;-0.2419;
399.6000;0.1465;-0.2319;
399.9000;0.1473;-0.2294;
400.2000;0.1457;-0.2394;
400.5000;0.1457;-0.2369;
400.8000;0.1465;-0.2394;
401.1000;0.1449;-0.2468;
401.4000;0.1457;-0.2444;
401.7000;0.1441;-0.2444;
402.0000;0.1465;-0.2394;
402.3000;0.1457;-0.2344;
402.6000;0.1490;-0.2419;
402.9000;0.1514;-0.2369;
403.2000;0.1465;-0.2568;
403.5000;0.1457;-0.2568;
403.8000;0.1506;-0.2394;
404.1000;0.1473;-0.2543;
404.4000;0.1473;-0.2419;
404.7000;0.1465;-0.2444;
405.0000;0.1473;-0.2344;
405.3000;0.1473;-0.2294;
405.6000;0.1457;-0.2394;
405.9000;0.1433;-0.2394;
406.2000;0.1490;-0.2269;
406.5000;0.1449;-0.2344;
406.8000;0.1465;-0.2344;
407.1000;0.1441;-0.2444;
407.4000;0.1506;-0.2119;
407.7000;0.1441;-0.2219;
408.0000;0.1473;-0.2119;
408.3000;0.1465;-0.2219;
408.6000;0.1530;-0.2094;
408.9000;0.1465;-0.2369;
409.2000;0.1473;-0.2369;
409.5000;0.1441;-0.2419;
409.8000;0.1473;-0.2468;
410.1000;0.1490;-0.2444;
410.4000;0.1457;-0.2543;
410.7000;0.1490;-0.2468;
411.0000;0.1465;-0.2568;
411.3000;0.1465;-0.2493;
411.6000;0.1465;-0.2444;
411.9000;0.1465;-0.2444;
412.2000;0.1449;-0.2568;
412.5000;0.1457;-0.2493;
412.8000;0.1408;-0.2618;
413.1000;0.1425;-0.2518;
413.4000;0.1481;-0.2294;
413.7000;0.1473;-0.2344;
414.0000;0.1416;-0.2568;
414.3000;0.1473;-0.2468;
414.6000;0.1465;-0.2493;
414.9000;0.1481;-0.2493;
415.2000;0.1506;-0.2394;
415.5000;0.1473;-0.2543;
415.8000;0.1490;-0.2518;
416.1000;0.1408;-0.2718;
416.4000;0.1465;-0.2518;
416.7000;0.1457;-0.2468;
417.0000;0.1449;-0.2468;
417.3000;0.1498;-0.2369;
417.6000;0.1481;-0.2419;
417.9000;0.1449;-0.2419;
418.2000;0.1490;-0.2344;
418.5000;0.1490;-0.2369;
418.8000;0.1465;-0.2394;
419.1000;0.1465;-0.2468;
419.4000;0.1481;-0.2419;
419.7000;0.1473;-0.2369;
420.0000;0.1425;-0.2493;
420.3000;0.1457;-0.2344;
420.6000;0.1457;-0.2369;
420.9000;0.1473;-0.2319;
421.2000;0.1465;-0.2419;
421.5000;0.1433;-0.2493;
421.8000;0.1473;-0.2369;
422.1000;0.1481;-0.2369;
422.4000;0.1457;-0.2344;
422.7000;0.1392;-0.2518;
423.0000;0.1473;-0.2294;
423.3000;0.1449;-0.2369;
423.6000;0.1498;-0.2294;
423.9000;0.1457;-0.2394;
424.2000;0.1481;-0.2468;
424.5000;0.1457;-0.2468;
424.8000;0.1481;-0.2444;
425.1000;0.1457;-0.2369;
425.4000;0.1441;-0.2344;
425.7000;0.1449;-0.2319;
426.0000;0.1481;-0.2219;
426.3000;0.1449;-0.2244;
426.6000;0.1457;-0.2244;
426.9000;0.1441;-0.2369;
427.2000;0.1465;-0.2394;
427.5000;0.1465;-0.2468;
427.8000;0.1457;-0.2493;
428.1000;0.1465;-0.2643;
428.4000;0.1457;-0.2718;
428.7000;0.1465;-0.2718;
429.0000;0.1465;-0.2768;
429.3000;0.1457;-0.2867;
429.6000;0.1457;-0.2842;
429.9000;0.1498;-0.2743;
430.2000;0.1449;-0.2718;
430.5000;0.1473;-0.2593;
430.8000;0.1449;-0.2668;
431.1000;0.1481;-0.2543;
431.4000;0.1465;-0.2643;
431.7000;0.1473;-0.2643;
432.0000;0.1441;-0.2693;
432.3000;0.1465;-0.2718;
432.6000;0.1449;-0.2793;
432.9000;0.1408;-0.2917;
433.2000;0.1465;-0.2818;
433.5000;0.1498;-0.2793;
433.8000;0.1481;-0.2768;
434.1000;0.1473;-0.2818;
434.4000;0.1457;-0.2842;
434.7000;0.1449;-0.2892;
435.0000;0.1490;-0.2743;
435.3000;0.1441;-0.2743;
435.6000;0.1449;-0.2892;
435.9000;0.1465;-0.2917;
436.2000;0.1425;-0.2892;
436.5000;0.1457;-0.2793;
436.8000;0.1441;-0.2842;
437.1000;0.1376;-0.2992;
437.4000;0.1457;-0.2793;
437.7000;0.1457;-0.2793;
438.0000;0.1514;-0.2643;
438.3000;0.1457;-0.2867;
438.6000;0.1441;-0.2842;
438.9000;0.1481;-0.2793;
439.2000;0.1441;-0.2967;
439.5000;0.1473;-0.2992;
439.8000;0.1465;-0.3042;
440.1000;0.1457;-0.2967;
440.4000;0.1481;-0.2942;
440.7000;0.1465;-0.2942;
441.0000;0.1449;-0.2917;
441.3000;0.1408;-0.3017;
441.6000;0.1457;-0.2942;
441.9000;0.1433;-0.2967;
442.2000;0.1449;-0.2967;
442.5000;0.1457;-0.2867;
442.8000;0.1481;-0.2793;
443.1000;0.1441;-0.2867;
443.4000;0.1481;-0.2818;
443.7000;0.1457;-0.2842;
444.0000;0.1433;-0.2842;
444.3000;0.1465;-0.2768;
444.6000;0.1457;-0.2743;
444.9000;0.1465;-0.2643;
445.2000;0.1457;-0.2618;
445.5000;0.1433;-0.2693;
445.8000;0.1441;-0.2693;
446.1000;0.1449;-0.2668;
446.4000;0.1457;-0.2593;
446.7000;0.1441;-0.2693;
447.0000;0.1465;-0.2693;
447.3000;0.1473;-0.2718;
447.6000;0.1465;-0.2743;
447.9000;0.1465;-0.2668;
448.2000;0.1473;-0.2643;
448.5000;0.1449;-0.2593;
448.8000;0.1473;-0.2568;
449.1000;0.1481;-0.2593;
449.4000;0.1449;-0.2718;
449.7000;0.1457;-0.2718;
450.0000;0.1416;-0.2743;
450.3000;0.1449;-0.2643;
450.6000;0.1473;-0.2693;
450.9000;0.1457;-0.2718;
451.2000;0.1473;-0.2668;
451.5000;0.1473;-0.2768;
451.8000;0.1465;-0.2867;
452.1000;0.1449;-0.2892;
452.4000;0.1465;-0.2917;
452.7000;0.1481;-0.2992;
453.0000;0.1441;-0.3017;
453.3000;0.1457;-0.2917;
453.6000;0.1473;-0.2867;
453.9000;0.1473;-0.2917;
454.2000;0.1473;-0.2992;
454.5000;0.1506;-0.2917;
454.8000;0.1547;-0.2718;
455.1000;0.1449;-0.2942;
455.4000;0.1506;-0.2793;
455.7000;0.1449;-0.2793;
456.0000;0.1441;-0.2743;
456.3000;0.1473;-0.2668;
456.6000;0.1433;-0.2743;
456.9000;0.1449;-0.2693;
457.2000;0.1441;-0.2693;
457.5000;0.1343;-0.3042;
457.8000;0.1522;-0.2568;
458.1000;0.1457;-0.2718;
458.4000;0.1457;-0.2668;
458.7000;0.1457;-0.2643;
459.0000;0.1457;-0.2568;
459.3000;0.1481;-0.2543;
459.6000;0.1457;-0.2718;
459.9000;0.1473;-0.2618;
460.2000;0.1441;-0.2693;
460.5000;0.1465;-0.2668;
460.8000;0.1473;-0.2643;
461.1000;0.1441;-0.2768;
461.4000;0.1465;-0.2768;
461.7000;0.1449;-0.2867;
462.0000;0.1433;-0.2867;
462.3000;0.1449;-0.2793;
462.6000;0.1441;-0.2793;
462.9000;0.1441;-0.2693;
463.2000;0.1457;-0.2643;
463.5000;0.1457;-0.2668;
463.8000;0.1473;-0.2643;
464.1000;0.1449;-0.2618;
464.4000;0.1457;-0.2568;
464.7000;0.1457;-0.2618;
465.0000;0.1465;-0.2568;
465.3000;0.1457;-0.2643;
465.6000;0.1457;-0.2568;
465.9000;0.1441;-0.2593;
466.2000;0.1441;-0.2568;
466.5000;0.1408;-0.2668;
466.8000;0.1465;-0.2568;
467.1000;0.1457;-0.2643;
467.4000;0.1449;-0.2718;
467.7000;0.1571;-0.2419;
468.0000;0.1457;-0.2668;
468.3000;0.1473;-0.2643;
468.6000;0.1522;-0.2593;
468.9000;0.1465;-0.2643;
469.2000;0.1465;-0.2618;
469.5000;0.1368;-0.2842;
469.8000;0.1449;-0.2568;
470.1000;0.1465;-0.2568;
470.4000;0.1465;-0.2593;
470.7000;0.1457;-0.2693;
471.0000;0.1449;-0.2693;
471.3000;0.1449;-0.2693;
471.6000;0.1465;-0.2743;
471.9000;0.1449;-0.2743;
472.2000;0.1457;-0.2743;
472.5000;0.1465;-0.2793;
472.8000;0.1465;-0.2842;
473.1000;0.1481;-0.2693;
473.4000;0.1465;-0.2718;
473.7000;0.1465;-0.2693;
474.0000;0.1490;-0.2618;
474.3000;0.1490;-0.2743;
474.6000;0.1473;-0.2818;
474.9000;0.1457;-0.2892;
475.2000;0.1465;-0.2768;
475.5000;0.1490;-0.2718;
475.8000;0.1465;-0.2793;
476.1000;0.1449;-0.2718;
476.4000;0.1457;-0.2768;
476.7000;0.1457;-0.2768;
477.0000;0.1473;-0.2668;
477.3000;0.1457;-0.2593;
477.6000;0.1473;-0.2568;
477.9000;0.1457;-0.2643;
478.2000;0.1481;-0.2568;
478.5000;0.1465;-0.2643;
478.8000;0.1441;-0.2643;
479.1000;0.1441;-0.2593;
479.4000;0.1425;-0.2618;
479.7000;0.1473;-0.2518;
480.0000;0.1465;-0.2643;
480.3000;0.1457;-0.2618;
480.6000;0.1368;-0.2768;
480.9000;0.1490;-0.2493;
481.2000;0.1465;-0.2668;
481.5000;0.1449;-0.2743;
481.8000;0.1449;-0.2743;
482.1000;0.1473;-0.2743;
482.4000;0.1441;-0.2867;
482.7000;0.1457;-0.2867;
483.0000;0.1465;-0.2818;
483.3000;0.1465;-0.2867;
483.6000;0.1449;-0.2867;
483.9000;0.1449;-0.2892;
484.2000;0.1441;-0.2892;
484.5000;0.1457;-0.2942;
484.8000;0.1465;-0.2892;
485.1000;0.1449;-0.2743;
485.4000;0.1441;-0.2867;
485.7000;0.1473;-0.2867;
486.0000;0.1555;-0.2593;
486.3000;0.1457;-0.2892;
486.6000;0.1473;-0.2892;
486.9000;0.1481;-0.2892;
487.2000;0.1465;-0.2967;
487.5000;0.1473;-0.2942;
487.8000;0.1457;-0.2917;
488.1000;0.1473;-0.2793;
488.4000;0.1449;-0.2917;
488.7000;0.1473;-0.2768;
489.0000;0.1400;-0.2992;
489.3000;0.1465;-0.2867;
489.6000;0.1416;-0.2942;
489.9000;0.1498;-0.2768;
490.2000;0.1465;-0.2867;
490.5000;0.1449;-0.2818;
490.8000;0.1449;-0.2768;
491.1000;0.1465;-0.2768;
491.4000;0.1473;-0.2768;
491.7000;0.1368;-0.2992;
492.0000;0.1457;-0.2768;
492.3000;0.1465;-0.2718;
492.6000;0.1425;-0.2768;
492.9000;0.1449;-0.2693;
493.2000;0.1465;-0.2618;
493.5000;0.1457;-0.2593;
493.8000;0.1457;-0.2568;
494.1000;0.1457;-0.2593;
494.4000;0.1457;-0.2543;
494.7000;0.1449;-0.2643;
495.0000;0.1449;-0.2693;
495.3000;0.1433;-0.2643;
495.6000;0.1441;-0.2543;
495.9000;0.1473;-0.2618;
496.2000;0.1441;-0.2643;
496.5000;0.1465;-0.2518;
496.8000;0.1449;-0.2518;
497.1000;0.1465;-0.2493;
497.4000;0.1465;-0.2518;
497.7000;0.1449;-0.2618;
498.0000;0.1465;-0.2568;
498.3000;0.1465;-0.2593;
498.6000;0.1490;-0.2493;
498.9000;0.1457;-0.2543;
499.2000;0.1441;-0.2518;
499.5000;0.1416;-0.2568;
499.8000;0.1368;-0.2793;
500.1000;0.1457;-0.2568;
500.4000;0.1457;-0.2593;
500.7000;0.1457;-0.2643;
501.0000;0.1441;-0.2743;
501.3000;0.1457;-0.2743;
501.6000;0.1449;-0.2743;
501.9000;0.1441;-0.2768;
502.2000;0.1449;-0.2643;
502.5000;0.1481;-0.2643;
502.8000;0.1400;-0.2842;
503.1000;0.1481;-0.2768;
503.4000;0.1473;-0.2818;
503.7000;0.1449;-0.2768;
504.0000;0.1449;-0.2693;
504.3000;0.1457;-0.2718;
504.6000;0.1433;-0.2793;
504.9000;0.1473;-0.2743;
505.2000;0.1416;-0.3017;
505.5000;0.1473;-0.2892;
505.8000;0.1473;-0.2892;
506.1000;0.1506;-0.2842;
506.4000;0.1457;-0.2942;
506.7000;0.1473;-0.2793;
507.0000;0.1400;-0.3042;
507.3000;0.1449;-0.2892;
507.6000;0.1473;-0.2818;
507.9000;0.1465;-0.2917;
508.2000;0.1416;-0.3092;
508.5000;0.1481;-0.2917;
508.8000;0.1555;-0.2643;
509.1000;0.1449;-0.2892;
509.4000;0.1457;-0.2768;
509.7000;0.1449;-0.2768;
510.0000;0.1441;-0.2718;
510.3000;0.1457;-0.2768;
510.6000;0.1457;-0.2818;
510.9000;0.1465;-0.2743;
511.2000;0.1498;-0.2618;
511.5000;0.1441;-0.2743;
511.8000;0.1449;-0.2718;
512.1000;0.1449;-0.2668;
512.4000;0.1490;-0.2568;
512.7000;0.1465;-0.2693;
513.0000;0.1506;-0.2593;
513.3000;0.1473;-0.2693;
513.6000;0.1587;-0.2444;
513.9000;0.1425;-0.2818;
514.2000;0.1465;-0.2693;
514.5000;0.1465;-0.2693;
514.8000;0.1473;-0.2668;
515.1000;0.1473;-0.2618;
515.4000;0.1465;-0.2643;
515.7000;0.1441;-0.2668;
516.0000;0.1457;-0.2693;
516.3000;0.1473;-0.2718;
516.6000;0.1465;-0.2693;
516.9000;0.1433;-0.2718;
517.2000;0.1465;-0.2643;
517.5000;0.1433;-0.2643;
517.8000;0.1473;-0.2444;
518.1000;0.1473;-0.2493;
518.4000;0.1465;-0.2568;
518.7000;0.1481;-0.2543;
519.0000;0.1473;-0.2643;
519.3000;0.1465;-0.2668;
519.6000;0.1457;-0.2718;
519.9000;0.1490;-0.2668;
520.2000;0.1457;-0.2668;
520.5000;0.1449;-0.2593;
520.8000;0.1449;-0.2643;
521.1000;0.1465;-0.2618;
521.4000;0.1441;-0.2693;
521.7000;0.1457;-0.2568;
522.0000;0.1473;-0.2493;
522.3000;0.1433;-0.2568;
522.6000;0.1473;-0.2419;
522.9000;0.1490;-0.2419;
523.2000;0.1449;-0.2618;
523.5000;0.1481;-0.2593;
523.8000;0.1441;-0.2668;
524.1000;0.1465;-0.2568;
524.4000;0.1449;-0.2568;
524.7000;0.1433;-0.2568;
525.0000;0.1441;-0.2543;
525.3000;0.1449;-0.2543;
525.6000;0.1481;-0.2468;
525.9000;0.1473;-0.2518;
526.2000;0.1465;-0.2543;
526.5000;0.1465;-0.2543;
526.8000;0.1449;-0.2568;
527.1000;0.1571;-0.2269;
527.4000;0.1433;-0.2568;
527.7000;0.1465;-0.2518;
528.0000;0.1457;-0.2568;
528.3000;0.1408;-0.2743;
528.6000;0.1481;-0.2518;
528.9000;0.1465;-0.2543;
529.2000;0.1506;-0.2419;
529.5000;0.1465;-0.2419;
529.8000;0.1416;-0.2468;
530.1000;0.1473;-0.2344;
530.4000;0.1457;-0.2394;
530.7000;0.1473;-0.2344;
531.0000;0.1465;-0.2518;
531.3000;0.1465;-0.2468;
531.6000;0.1481;-0.2444;
531.9000;0.1473;-0.2518;
532.2000;0.1579;-0.2344;
532.5000;0.1465;-0.2593;
532.8000;0.1506;-0.2493;
533.1000;0.1465;-0.2718;
533.4000;0.1490;-0.2668;
533.7000;0.1457;-0.2618;
534.0000;0.1465;-0.2593;
534.3000;0.1465;-0.2643;
534.6000;0.1408;-0.2818;
534.9000;0.1449;-0.2593;
535.2000;0.1465;-0.2568;
535.5000;0.1425;-0.2618;
535.8000;0.1457;-0.2518;
536.1000;0.1441;-0.2518;
536.4000;0.1457;-0.2319;
536.7000;0.1457;-0.2344;
537.0000;0.1416;-0.2444;
537.3000;0.1441;-0.2394;
537.6000;0.1433;-0.2369;
537.9000;0.1498;-0.2294;
538.2000;0.1465;-0.2344;
538.5000;0.1449;-0.2419;
538.8000;0.1465;-0.2394;
539.1000;0.1457;-0.2369;
539.4000;0.1457;-0.2369;
539.7000;0.1465;-0.2369;
540.0000;0.1449;-0.2518;
540.3000;0.1441;-0.2593;
540.6000;0.1457;-0.2618;
540.9000;0.1449;-0.2593;
541.2000;0.1449;-0.2668;
541.5000;0.1457;-0.2618;
541.8000;0.1441;-0.2543;
542.1000;0.1441;-0.2543;
542.4000;0.1449;-0.2568;
542.7000;0.1441;-0.2518;
543.0000;0.1465;-0.2493;
543.3000;0.1457;-0.2593;
543.6000;0.1449;-0.2693;
543.9000;0.1441;-0.2693;
544.2000;0.1473;-0.2643;
544.5000;0.1449;-0.2643;
544.8000;0.1441;-0.2593;
545.1000;0.1449;-0.2593;
545.4000;0.1457;-0.2568;
545.7000;0.1449;-0.2543;
546.0000;0.1441;-0.2618;
546.3000;0.1465;-0.2593;
546.6000;0.1473;-0.2693;
546.9000;0.1416;-0.2768;
547.2000;0.1473;-0.2444;
547.5000;0.1498;-0.2344;
547.8000;0.1473;-0.2444;
548.1000;0.1465;-0.2493;
548.4000;0.1457;-0.2493;
548.7000;0.1449;-0.2618;
549.0000;0.1449;-0.2693;
549.3000;0.1473;-0.2643;
549.6000;0.1449;-0.2643;
549.9000;0.1449;-0.2643;
550.2000;0.1457;-0.2668;
550.5000;0.1449;-0.2618;
550.8000;0.1490;-0.2643;
551.1000;0.1441;-0.2693;
551.4000;0.1441;-0.2693;
551.7000;0.1457;-0.2693;
552.0000;0.1490;-0.2668;
552.3000;0.1441;-0.2718;
552.6000;0.1441;-0.2693;
552.9000;0.1408;-0.2867;
553.2000;0.1465;-0.2743;
553.5000;0.1481;-0.2768;
553.8000;0.1457;-0.2693;
554.1000;0.1400;-0.2743;
554.4000;0.1465;-0.2593;
554.7000;0.1465;-0.2518;
555.0000;0.1465;-0.2543;
555.3000;0.1465;-0.2618;
555.6000;0.1473;-0.2618;
555.9000;0.1457;-0.2743;
556.2000;0.1457;-0.2718;
556.5000;0.1457;-0.2668;
556.8000;0.1473;-0.2543;
557.1000;0.1473;-0.2518;
557.4000;0.1433;-0.2593;
557.7000;0.1481;-0.2468;
558.0000;0.1449;-0.2568;
558.3000;0.1457;-0.2468;
558.6000;0.1473;-0.2394;
558.9000;0.1530;-0.2269;
559.2000;0.1465;-0.2518;
559.5000;0.1465;-0.2269;
559.8000;0.1433;-0.2369;
560.1000;0.1457;-0.2294;
560.4000;0.1473;-0.2369;
560.7000;0.1538;-0.2119;
561.0000;0.1481;-0.2244;
561.3000;0.1433;-0.2294;
561.6000;0.1457;-0.2319;
561.9000;0.1465;-0.2369;
562.2000;0.1441;-0.2369;
562.5000;0.1441;-0.2319;
562.8000;0.1465;-0.2319;
563.1000;0.1449;-0.2369;
563.4000;0.1457;-0.2369;
563.7000;0.1449;-0.2294;
564.0000;0.1465;-0.2394;
564.3000;0.1465;-0.2394;
564.6000;0.1465;-0.2269;
564.9000;0.1465;-0.2269;
565.2000;0.1441;-0.2319;
565.5000;0.1465;-0.2269;
565.8000;0.1481;-0.2244;
566.1000;0.1473;-0.2319;
566.4000;0.1449;-0.2369;
566.7000;0.1465;-0.2369;
567.0000;0.1433;-0.2419;
567.3000;0.1465;-0.2344;
567.6000;0.1441;-0.2344;
567.9000;0.1498;-0.2194;
568.2000;0.1465;-0.2319;
568.5000;0.1481;-0.2369;
568.8000;0.1441;-0.2419;
569.1000;0.1457;-0.2344;
569.4000;0.1473;-0.2344;
569.7000;0.1538;-0.2219;
570.0000;0.1457;-0.2493;
570.3000;0.1465;-0.2543;
570.6000;0.1449;-0.2568;
570.9000;0.1465;-0.2618;
571.2000;0.1473;-0.2593;
571.5000;0.1465;-0.2668;
571.8000;0.1481;-0.2643;
572.1000;0.1457;-0.2668;
572.4000;0.1441;-0.2768;
572.7000;0.1449;-0.2768;
573.0000;0.1449;-0.2743;
573.3000;0.1465;-0.2693;
573.6000;0.1425;-0.2743;
573.9000;0.1449;-0.2593;
574.2000;0.1449;-0.2568;
574.5000;0.1425;-0.2668;
574.8000;0.1473;-0.2493;
575.1000;0.1465;-0.2543;
575.4000;0.1465;-0.2643;
575.7000;0.1465;-0.2618;
576.0000;0.1457;-0.2668;
576.3000;0.1457;-0.2743;
576.6000;0.1465;-0.2793;
576.9000;0.1449;-0.2842;
577.2000;0.1457;-0.2743;
577.5000;0.1449;-0.2842;
577.8000;0.1457;-0.2818;
578.1000;0.1457;-0.2867;
578.4000;0.1457;-0.2892;
578.7000;0.1473;-0.2842;
579.0000;0.1433;-0.2967;
579.3000;0.1449;-0.2917;
579.6000;0.1465;-0.2917;
579.9000;0.1473;-0.2768;
580.2000;0.1473;-0.2892;
580.5000;0.1416;-0.3117;
580.8000;0.1473;-0.2842;
581.1000;0.1449;-0.2867;
581.4000;0.1457;-0.2867;
581.7000;0.1465;-0.2842;
582.0000;0.1465;-0.2793;
582.3000;0.1465;-0.2718;
582.6000;0.1490;-0.2593;
582.9000;0.1449;-0.2618;
583.2000;0.1441;-0.2593;
583.5000;0.1449;-0.2568;
583.8000;0.1408;-0.2693;
584.1000;0.1457;-0.2618;
584.4000;0.1449;-0.2668;
584.7000;0.1473;-0.2668;
585.0000;0.1416;-0.2768;
585.3000;0.1465;-0.2668;
585.6000;0.1457;-0.2618;
585.9000;0.1449;-0.2668;
586.2000;0.1441;-0.2593;
586.5000;0.1433;-0.2568;
586.8000;0.1425;-0.2493;
587.1000;0.1465;-0.2468;
587.4000;0.1473;-0.2468;
587.7000;0.1449;-0.2493;
588.0000;0.1465;-0.2419;
588.3000;0.1416;-0.2593;
588.6000;0.1441;-0.2568;
588.9000;0.1449;-0.2568;
589.2000;0.1457;-0.2543;
589.5000;0.1441;-0.2568;
589.8000;0.1473;-0.2568;
590.1000;0.1449;-0.2643;
590.4000;0.1457;-0.2593;
590.7000;0.1473;-0.2568;
591.0000;0.1465;-0.2518;
591.3000;0.1449;-0.2493;
591.6000;0.1457;-0.2493;
591.9000;0.1441;-0.2693;
592.2000;0.1457;-0.2593;
592.5000;0.1457;-0.2543;
592.8000;0.1506;-0.2369;
593.1000;0.1449;-0.2593;
593.4000;0.1473;-0.2618;
593.7000;0.1449;-0.2618;
594.0000;0.1449;-0.2568;
594.3000;0.1425;-0.2668;
594.6000;0.1506;-0.2419;
594.9000;0.1473;-0.2543;
595.2000;0.1465;-0.2568;
595.5000;0.1457;-0.2518;
595.8000;0.1506;-0.2394;
596.1000;0.1425;-0.2643;
596.4000;0.1465;-0.2693;
596.7000;0.1465;-0.2743;
597.0000;0.1441;-0.2768;
597.3000;0.1490;-0.2568;
597.6000;0.1441;-0.2693;
597.9000;0.1465;-0.2693;
598.2000;0.1473;-0.2718;
598.5000;0.1441;-0.2718;
598.8000;0.1490;-0.2543;
599.1000;0.1465;-0.2593;
599.4000;0.1433;-0.2618;
599.7000;0.1465;-0.2543;
600.0000;0.1457;-0.2618;
600.3000;0.1441;-0.2743;
600.6000;0.1359;-0.2942;
600.9000;0.1433;-0.2942;
601.2000;0.1425;-0.3042;
601.5000;0.1457;-0.3117;
601.8000;0.1416;-0.3241;
602.1000;0.1384;-0.3441;
602.4000;0.1392;-0.3590;
602.7000;0.1368;-0.3840;
603.0000;0.1359;-0.3940;
603.3000;0.1359;-0.4039;
603.6000;0.1335;-0.4214;
603.9000;0.1359;-0.4264;
604.2000;0.1205;-0.4787;
604.5000;0.1433;-0.4363;
604.8000;0.1351;-0.4663;
605.1000;0.1327;-0.4787;
605.4000;0.1351;-0.4887;
605.7000;0.1343;-0.4912;
606.0000;0.1286;-0.5037;
606.3000;0.1311;-0.5037;
606.6000;0.1270;-0.5211;
606.9000;0.1319;-0.5062;
607.2000;0.1294;-0.5136;
607.5000;0.1311;-0.5136;
607.8000;0.1286;-0.5136;
608.1000;0.1294;-0.5111;
608.4000;0.1311;-0.5062;
608.7000;0.1302;-0.5161;
609.0000;0.1351;-0.5062;
609.3000;0.1302;-0.5161;
609.6000;0.1237;-0.5311;
609.9000;0.1302;-0.5186;
610.2000;0.1286;-0.5361;
610.5000;0.1327;-0.5261;
610.8000;0.1294;-0.5361;
611.1000;0.1311;-0.5336;
611.4000;0.1286;-0.5436;
611.7000;0.1368;-0.5261;
612.0000;0.1294;-0.5411;
612.3000;0.1286;-0.5411;
612.6000;0.1278;-0.5411;
612.9000;0.1327;-0.5361;
613.2000;0.1270;-0.5510;
613.5000;0.1294;-0.5411;
613.8000;0.1286;-0.5386;
614.1000;0.1294;-0.5336;
614.4000;0.1294;-0.5286;
614.7000;0.1302;-0.5211;
615.0000;0.1262;-0.5286;
615.3000;0.1286;-0.5386;
615.6000;0.1286;-0.5436;
615.9000;0.1278;-0.5460;
616.2000;0.1286;-0.5436;
616.5000;0.1294;-0.5485;
616.8000;0.1335;-0.5485;
617.1000;0.1262;-0.5785;
617.4000;0.1270;-0.5760;
617.7000;0.1278;-0.5660;
618.0000;0.1294;-0.5560;
618.3000;0.1262;-0.5585;
618.6000;0.1262;-0.5510;
618.9000;0.1237;-0.5585;
619.2000;0.1254;-0.5460;
619.5000;0.1278;-0.5411;
619.8000;0.1237;-0.5485;
620.1000;0.1213;-0.5560;
620.4000;0.1294;-0.5261;
620.7000;0.1311;-0.5161;
621.0000;0.1327;-0.5062;
621.3000;0.1270;-0.5286;
621.6000;0.1319;-0.5236;
621.9000;0.1286;-0.5411;
622.2000;0.1286;-0.5535;
622.5000;0.1278;-0.5585;
622.8000;0.1319;-0.5361;
623.1000;0.1311;-0.5336;
623.4000;0.1270;-0.5411;
623.7000;0.1286;-0.5361;
624.0000;0.1262;-0.5361;
624.3000;0.1311;-0.5261;
624.6000;0.1294;-0.5361;
624.9000;0.1286;-0.5361;
625.2000;0.1311;-0.5386;
625.5000;0.1278;-0.5510;
625.8000;0.1254;-0.5510;
626.1000;0.1286;-0.5361;
626.4000;0.1270;-0.5361;
626.7000;0.1245;-0.5361;
627.0000;0.1140;-0.5710;
627.3000;0.1245;-0.5460;
627.6000;0.1294;-0.5286;
627.9000;0.1278;-0.5311;
628.2000;0.1172;-0.5610;
628.5000;0.1278;-0.5336;
628.8000;0.1286;-0.5311;
629.1000;0.1262;-0.5485;
629.4000;0.1254;-0.5560;
629.7000;0.1286;-0.5460;
630.0000;0.1262;-0.5460;
630.3000;0.1270;-0.5386;
630.6000;0.1311;-0.5261;
630.9000;0.1270;-0.5311;
631.2000;0.1278;-0.5136;
631.5000;0.1270;-0.5186;
631.8000;0.1270;-0.5361;
632.1000;0.1262;-0.5436;
632.4000;0.1270;-0.5485;
632.7000;0.1262;-0.5460;
633.0000;0.1270;-0.5386;
633.3000;0.1286;-0.5361;
633.6000;0.1311;-0.5261;
633.9000;0.1278;-0.5286;
634.2000;0.1278;-0.5286;
634.5000;0.1286;-0.5336;
634.8000;0.1302;-0.5336;
635.1000;0.1294;-0.5436;
635.4000;0.1278;-0.5535;
635.7000;0.1311;-0.5460;
636.0000;0.1302;-0.5610;
636.3000;0.1270;-0.5735;
636.6000;0.1254;-0.5810;
636.9000;0.1311;-0.5710;
637.2000;0.1262;-0.5834;
637.5000;0.1286;-0.5785;
637.8000;0.1302;-0.5710;
638.1000;0.1294;-0.5660;
638.4000;0.1302;-0.5585;
638.7000;0.1294;-0.5560;
639.0000;0.1262;-0.5610;
639.3000;0.1302;-0.5460;
639.6000;0.1278;-0.5485;
639.9000;0.1270;-0.5411;
640.2000;0.1278;-0.5460;
640.5000;0.1278;-0.5535;
640.8000;0.1278;-0.5535;
641.1000;0.1286;-0.5485;
641.4000;0.1294;-0.5485;
641.7000;0.1294;-0.5485;
642.0000;0.1302;-0.5311;
642.3000;0.1205;-0.5510;
642.6000;0.1237;-0.5560;
642.9000;0.1213;-0.5685;
643.2000;0.1286;-0.5436;
643.5000;0.1311;-0.5361;
643.8000;0.1270;-0.5485;
644.1000;0.1359;-0.5236;
644.4000;0.1262;-0.5560;
644.7000;0.1294;-0.5460;
645.0000;0.1270;-0.5436;
645.3000;0.1311;-0.5336;
645.6000;0.1286;-0.5460;
645.9000;0.1278;-0.5510;
646.2000;0.1262;-0.5485;
646.5000;0.1270;-0.5560;
646.8000;0.1262;-0.5685;
647.1000;0.1254;-0.5660;
647.4000;0.1278;-0.5610;
647.7000;0.1270;-0.5660;
648.0000;0.1278;-0.5610;
648.3000;0.1221;-0.5635;
648.6000;0.1286;-0.5510;
648.9000;0.1262;-0.5560;
649.2000;0.1278;-0.5635;
649.5000;0.1286;-0.5635;
649.8000;0.1278;-0.5610;
650.1000;0.1294;-0.5510;
650.4000;0.1172;-0.5760;
650.7000;0.1254;-0.5610;
651.0000;0.1270;-0.5510;
651.3000;0.1254;-0.5510;
651.6000;0.1254;-0.5510;
651.9000;0.1254;-0.5361;
652.2000;0.1311;-0.5261;
652.5000;0.1262;-0.5485;
652.8000;0.1278;-0.5485;
653.1000;0.1270;-0.5386;
653.4000;0.1254;-0.5460;
653.7000;0.1262;-0.5485;
654.0000;0.1245;-0.5535;
654.3000;0.1270;-0.5460;
654.6000;0.1262;-0.5510;
654.9000;0.1254;-0.5535;
655.2000;0.1270;-0.5436;
655.5000;0.1262;-0.5535;
655.8000;0.1262;-0.5585;
656.1000;0.1262;-0.5560;
656.4000;0.1270;-0.5585;
656.7000;0.1221;-0.5710;
657.0000;0.1262;-0.5436;
657.3000;0.1278;-0.5436;
657.6000;0.1286;-0.5311;
657.9000;0.1278;-0.5460;
658.2000;0.1270;-0.5485;
658.5000;0.1286;-0.5510;
658.8000;0.1302;-0.5436;
659.1000;0.1286;-0.5460;
659.4000;0.1270;-0.5411;
659.7000;0.1262;-0.5411;
660.0000;0.1286;-0.5361;
660.3000;0.1245;-0.5560;
660.6000;0.1270;-0.5460;
660.9000;0.1262;-0.5510;
661.2000;0.1286;-0.5460;
661.5000;0.1286;-0.5436;
661.8000;0.1262;-0.5386;
662.1000;0.1254;-0.5460;
662.4000;0.1278;-0.5460;
662.7000;0.1254;-0.5460;
663.0000;0.1254;-0.5510;
663.3000;0.1270;-0.5485;
663.6000;0.1262;-0.5535;
663.9000;0.1278;-0.5460;
664.2000;0.1270;-0.5460;
664.5000;0.1254;-0.5510;
664.8000;0.1270;-0.5510;
665.1000;0.1262;-0.5535;
665.4000;0.1262;-0.5685;
665.7000;0.1262;-0.5635;
666.0000;0.1237;-0.5635;
666.3000;0.1245;-0.5560;
666.6000;0.1262;-0.5560;
666.9000;0.1270;-0.5585;
667.2000;0.1254;-0.5660;
667.5000;0.1302;-0.5510;
667.8000;0.1368;-0.5236;
668.1000;0.1335;-0.5261;
668.4000;0.1245;-0.5510;
668.7000;0.1294;-0.5436;
669.0000;0.1278;-0.5436;
669.3000;0.1286;-0.5361;
669.6000;0.1294;-0.5286;
669.9000;0.1319;-0.5261;
670.2000;0.1286;-0.5386;
670.5000;0.1278;-0.5361;
670.8000;0.1270;-0.5460;
671.1000;0.1294;-0.5485;
671.4000;0.1270;-0.5535;
671.7000;0.1254;-0.5560;
672.0000;0.1270;-0.5560;
672.3000;0.1262;-0.5535;
672.6000;0.1245;-0.5535;
672.9000;0.1245;-0.5485;
673.2000;0.1270;-0.5485;
673.5000;0.1262;-0.5460;
673.8000;0.1270;-0.5361;
674.1000;0.1270;-0.5336;
674.4000;0.1270;-0.5336;
674.7000;0.1286;-0.5336;
675.0000;0.1278;-0.5361;
675.3000;0.1286;-0.5336;
675.6000;0.1327;-0.5311;
675.9000;0.1254;-0.5535;
676.2000;0.1270;-0.5460;
676.5000;0.1262;-0.5510;
676.8000;0.1262;-0.5485;
677.1000;0.1254;-0.5485;
677.4000;0.1254;-0.5560;
677.7000;0.1278;-0.5510;
678.0000;0.1270;-0.5460;
678.3000;0.1270;-0.5460;
678.6000;0.1278;-0.5411;
678.9000;0.1302;-0.5311;
679.2000;0.1278;-0.5311;
679.5000;0.1262;-0.5361;
679.8000;0.1262;-0.5286;
680.1000;0.1278;-0.5261;
680.4000;0.1286;-0.5311;
680.7000;0.1262;-0.5411;
681.0000;0.1278;-0.5311;
681.3000;0.1278;-0.5460;
681.6000;0.1278;-0.5460;
681.9000;0.1262;-0.5485;
682.2000;0.1254;-0.5585;
682.5000;0.1262;-0.5610;
682.8000;0.1278;-0.5535;
683.1000;0.1245;-0.5560;
683.4000;0.1254;-0.5535;
683.7000;0.1343;-0.5286;
684.0000;0.1254;-0.5460;
684.3000;0.1294;-0.5411;
684.6000;0.1286;-0.5460;
684.9000;0.1286;-0.5560;
685.2000;0.1278;-0.5635;
685.5000;0.1302;-0.5535;
685.8000;0.1278;-0.5560;
686.1000;0.1327;-0.5460;
686.4000;0.1278;-0.5510;
686.7000;0.1278;-0.5510;
687.0000;0.1237;-0.5685;
687.3000;0.1270;-0.5535;
687.6000;0.1262;-0.5560;
687.9000;0.1278;-0.5610;
688.2000;0.1229;-0.5710;
688.5000;0.1270;-0.5660;
688.8000;0.1270;-0.5535;
689.1000;0.1278;-0.5485;
689.4000;0.1245;-0.5510;
689.7000;0.1270;-0.5436;
690.0000;0.1254;-0.5460;
690.3000;0.1278;-0.5411;
690.6000;0.1294;-0.5311;
690.9000;0.1262;-0.5386;
691.2000;0.1262;-0.5361;
691.5000;0.1262;-0.5386;
691.8000;0.1237;-0.5411;
692.1000;0.1270;-0.5411;
692.4000;0.1254;-0.5510;
692.7000;0.1245;-0.5535;
693.0000;0.1278;-0.5585;
693.3000;0.1270;-0.5560;
693.6000;0.1254;-0.5560;
693.9000;0.1278;-0.5485;
694.2000;0.1270;-0.5460;
694.5000;0.1270;-0.5485;
694.8000;0.1294;-0.5460;
695.1000;0.1286;-0.5560;
695.4000;0.1278;-0.5560;
695.7000;0.1286;-0.5585;
696.0000;0.1254;-0.5685;
696.3000;0.1286;-0.5660;
696.6000;0.1254;-0.5635;
696.9000;0.1294;-0.5585;
697.2000;0.1254;-0.5585;
697.5000;0.1262;-0.5485;
697.8000;0.1262;-0.5485;
698.1000;0.1286;-0.5485;
698.4000;0.1278;-0.5460;
698.7000;0.1229;-0.5510;
699.0000;0.1278;-0.5361;
699.3000;0.1278;-0.5485;
699.6000;0.1335;-0.5286;
699.9000;0.1262;-0.5460;
700.2000;0.1278;-0.5336;
700.5000;0.1213;-0.5485;
700.8000;0.1278;-0.5361;
701.1000;0.1343;-0.5236;
701.4000;0.1262;-0.5411;
701.7000;0.1221;-0.5585;
702.0000;0.1278;-0.5485;
702.3000;0.1254;-0.5635;
702.6000;0.1270;-0.5635;
702.9000;0.1262;-0.5660;
703.2000;0.1294;-0.5585;
703.5000;0.1270;-0.5560;
703.8000;0.1262;-0.5485;
704.1000;0.1278;-0.5411;
704.4000;0.1278;-0.5386;
704.7000;0.1262;-0.5436;
705.0000;0.1245;-0.5460;
705.3000;0.1302;-0.5436;
705.6000;0.1286;-0.5460;
705.9000;0.1294;-0.5436;
706.2000;0.1278;-0.5460;
706.5000;0.1270;-0.5510;
706.8000;0.1262;-0.5585;
707.1000;0.1270;-0.5585;
707.4000;0.1270;-0.5710;
707.7000;0.1294;-0.5760;
708.0000;0.1262;-0.5810;
708.3000;0.1286;-0.5834;
708.6000;0.1270;-0.5785;
708.9000;0.1270;-0.5660;
709.2000;0.1286;-0.5560;
709.5000;0.1270;-0.5610;
709.8000;0.1262;-0.5535;
710.1000;0.1278;-0.5485;
710.4000;0.1270;-0.5460;
710.7000;0.1262;-0.5436;
711.0000;0.1278;-0.5386;
711.3000;0.1221;-0.5436;
711.6000;0.1270;-0.5386;
711.9000;0.1254;-0.5460;
712.2000;0.1245;-0.5535;
712.5000;0.1294;-0.5436;
712.8000;0.1262;-0.5485;
713.1000;0.1245;-0.5535;
713.4000;0.1270;-0.5436;
713.7000;0.1262;-0.5460;
714.0000;0.1351;-0.5111;
714.3000;0.1221;-0.5485;
714.6000;0.1368;-0.5161;
714.9000;0.1278;-0.5510;
715.2000;0.1278;-0.5610;
715.5000;0.1262;-0.5610;
715.8000;0.1286;-0.5610;
716.1000;0.1286;-0.5635;
716.4000;0.1237;-0.5785;
716.7000;0.1262;-0.5660;
717.0000;0.1286;-0.5535;
717.3000;0.1270;-0.5585;
717.6000;0.1237;-0.5635;
717.9000;0.1262;-0.5585;
718.2000;0.1319;-0.5386;
718.5000;0.1302;-0.5510;
718.8000;0.1278;-0.5510;
719.1000;0.1262;-0.5485;
719.4000;0.1311;-0.5236;
719.7000;0.1245;-0.5411;
720.0000;0.1335;-0.5236;
720.3000;0.1270;-0.5361;
720.6000;0.1270;-0.5411;
720.9000;0.1278;-0.5386;
721.2000;0.1302;-0.5286;
721.5000;0.1286;-0.5460;
721.8000;0.1245;-0.5685;
722.1000;0.1270;-0.5710;
722.4000;0.1262;-0.5685;
722.7000;0.1254;-0.5635;
723.0000;0.1164;-0.5834;
723.3000;0.1270;-0.5485;
723.6000;0.1286;-0.5510;
723.9000;0.1205;-0.5710;
724.2000;0.1294;-0.5361;
724.5000;0.1286;-0.5460;
724.8000;0.1254;-0.5510;
725.1000;0.1180;-0.5685;
725.4000;0.1262;-0.5510;
725.7000;0.1188;-0.5760;
726.0000;0.1270;-0.5635;
726.3000;0.1294;-0.5685;
726.6000;0.1319;-0.5710;
726.9000;0.1270;-0.5859;
727.2000;0.1278;-0.5735;
727.5000;0.1278;-0.5760;
727.8000;0.1286;-0.5585;
728.1000;0.1270;-0.5585;
728.4000;0.1286;-0.5510;
728.7000;0.1302;-0.5460;
729.0000;0.1270;-0.5660;
729.3000;0.1294;-0.5635;
729.6000;0.1270;-0.5585;
729.9000;0.1302;-0.5535;
730.2000;0.1294;-0.5510;
730.5000;0.1262;-0.5535;
730.8000;0.1270;-0.5510;
731.1000;0.1262;-0.5560;
731.4000;0.1294;-0.5460;
731.7000;0.1262;-0.5535;
732.0000;0.1311;-0.5386;
732.3000;0.1270;-0.5485;
732.6000;0.1254;-0.5560;
732.9000;0.1294;-0.5510;
733.2000;0.1270;-0.5585;
733.5000;0.1262;-0.5610;
733.8000;0.1294;-0.5610;
734.1000;0.1286;-0.5660;
734.4000;0.1270;-0.5735;
734.7000;0.1294;-0.5685;
735.0000;0.1254;-0.5785;
735.3000;0.1278;-0.5710;
735.6000;0.1278;-0.5635;
735.9000;0.1278;-0.5610;
736.2000;0.1270;-0.5635;
736.5000;0.1262;-0.5560;
736.8000;0.1311;-0.5485;
737.1000;0.1278;-0.5585;
737.4000;0.1180;-0.5735;
737.7000;0.1270;-0.5535;
738.0000;0.1278;-0.5460;
738.3000;0.1237;-0.5460;
738.6000;0.1335;-0.5186;
738.9000;0.1278;-0.5211;
739.2000;0.1286;-0.5161;
739.5000;0.1262;-0.5286;
739.8000;0.1286;-0.5236;
740.1000;0.1302;-0.5236;
740.4000;0.1368;-0.5161;
740.7000;0.1278;-0.5336;
741.0000;0.1262;-0.5411;
741.3000;0.1278;-0.5436;
741.6000;0.1262;-0.5510;
741.9000;0.1270;-0.5535;
742.2000;0.1270;-0.5585;
742.5000;0.1286;-0.5610;
742.8000;0.1270;-0.5685;
743.1000;0.1327;-0.5510;
743.4000;0.1294;-0.5535;
743.7000;0.1327;-0.5361;
744.0000;0.1286;-0.5460;
744.3000;0.1237;-0.5635;
744.6000;0.1302;-0.5460;
744.9000;0.1254;-0.5585;
745.2000;0.1237;-0.5610;
745.5000;0.1270;-0.5485;
745.8000;0.1286;-0.5411;
746.1000;0.1254;-0.5485;
746.4000;0.1254;-0.5411;
746.7000;0.1327;-0.5211;
747.0000;0.1245;-0.5535;
747.3000;0.1237;-0.5535;
747.6000;0.1245;-0.5535;
747.9000;0.1254;-0.5560;
748.2000;0.1270;-0.5485;
748.5000;0.1262;-0.5535;
748.8000;0.1278;-0.5610;
749.1000;0.1254;-0.5710;
749.4000;0.1270;-0.5585;
749.7000;0.1254;-0.5635;
750.0000;0.1278;-0.5510;
750.3000;0.1286;-0.5560;
750.6000;0.1262;-0.5560;
750.9000;0.1262;-0.5436;
751.2000;0.1278;-0.5411;
751.5000;0.1278;-0.5535;
751.8000;0.1262;-0.5560;
752.1000;0.1278;-0.5510;
752.4000;0.1286;-0.5510;
752.7000;0.1294;-0.5610;
753.0000;0.1270;-0.5685;
753.3000;0.1270;-0.5610;
753.6000;0.1327;-0.5485;
753.9000;0.1278;-0.5535;
754.2000;0.1262;-0.5660;
754.5000;0.1262;-0.5660;
754.8000;0.1302;-0.5610;
755.1000;0.1294;-0.5535;
755.4000;0.1270;-0.5535;
755.7000;0.1262;-0.5485;
756.0000;0.1237;-0.5535;
756.3000;0.1254;-0.5560;
756.6000;0.1262;-0.5510;
756.9000;0.1254;-0.5535;
757.2000;0.1270;-0.5585;
757.5000;0.1213;-0.5760;
757.8000;0.1254;-0.5610;
758.1000;0.1254;-0.5710;
758.4000;0.1351;-0.5386;
758.7000;0.1262;-0.5485;
759.0000;0.1270;-0.5560;
759.3000;0.1188;-0.5785;
759.6000;0.1172;-0.6009;
759.9000;0.1254;-0.5685;
760.2000;0.1270;-0.5585;
760.5000;0.1327;-0.5460;
760.8000;0.1270;-0.5610;
761.1000;0.1335;-0.5411;
761.4000;0.1270;-0.5436;
761.7000;0.1278;-0.5411;
762.0000;0.1262;-0.5535;
762.3000;0.1270;-0.5560;
762.6000;0.1278;-0.5585;
762.9000;0.1286;-0.5560;
763.2000;0.1262;-0.5585;
763.5000;0.1221;-0.5610;
763.8000;0.1254;-0.5510;
764.1000;0.1294;-0.5336;
764.4000;0.1254;-0.5460;
764.7000;0.1302;-0.5336;
765.0000;0.1270;-0.5485;
765.3000;0.1294;-0.5411;
765.6000;0.1278;-0.5436;
765.9000;0.1286;-0.5411;
766.2000;0.1270;-0.5510;
766.5000;0.1262;-0.5610;
766.8000;0.1278;-0.5610;
767.1000;0.1254;-0.5560;
767.4000;0.1237;-0.5560;
767.7000;0.1237;-0.5585;
768.0000;0.1254;-0.5510;
768.3000;0.1262;-0.5535;
768.6000;0.1278;-0.5361;
768.9000;0.1278;-0.5336;
769.2000;0.1327;-0.5186;
769.5000;0.1278;-0.5311;
769.8000;0.1278;-0.5361;
770.1000;0.1254;-0.5485;
770.4000;0.1286;-0.5361;
770.7000;0.1286;-0.5336;
771.0000;0.1294;-0.5311;
771.3000;0.1278;-0.5311;
771.6000;0.1278;-0.5311;
771.9000;0.1278;-0.5411;
772.2000;0.1270;-0.5411;
772.5000;0.1286;-0.5411;
772.8000;0.1270;-0.5411;
773.1000;0.1270;-0.5386;
773.4000;0.1262;-0.5535;
773.7000;0.1278;-0.5460;
774.0000;0.1286;-0.5485;
774.3000;0.1294;-0.5361;
774.6000;0.1278;-0.5311;
774.9000;0.1254;-0.5411;
775.2000;0.1286;-0.5411;
775.5000;0.1286;-0.5485;
775.8000;0.1278;-0.5585;
776.1000;0.1286;-0.5585;
776.4000;0.1278;-0.5585;
776.7000;0.1262;-0.5535;
777.0000;0.1262;-0.5485;
777.3000;0.1270;-0.5436;
777.6000;0.1262;-0.5460;
777.9000;0.1278;-0.5460;
778.2000;0.1262;-0.5411;
778.5000;0.1286;-0.5336;
778.8000;0.1311;-0.5286;
779.1000;0.1278;-0.5386;
779.4000;0.1302;-0.5311;
779.7000;0.1335;-0.5161;
780.0000;0.1254;-0.5361;
780.3000;0.1254;-0.5436;
780.6000;0.1335;-0.5186;
780.9000;0.1278;-0.5311;
781.2000;0.1270;-0.5261;
781.5000;0.1262;-0.5261;
781.8000;0.1270;-0.5211;
782.1000;0.1311;-0.5086;
782.4000;0.1262;-0.5311;
782.7000;0.1245;-0.5436;
783.0000;0.1270;-0.5510;
783.3000;0.1205;-0.5635;
783.6000;0.1278;-0.5436;
783.9000;0.1262;-0.5460;
784.2000;0.1294;-0.5361;
784.5000;0.1140;-0.5735;
784.8000;0.1270;-0.5411;
785.1000;0.1270;-0.5460;
785.4000;0.1270;-0.5485;
785.7000;0.1294;-0.5460;
786.0000;0.1278;-0.5436;
786.3000;0.1262;-0.5485;
786.6000;0.1262;-0.5485;
786.9000;0.1294;-0.5386;
787.2000;0.1278;-0.5436;
787.5000;0.1270;-0.5436;
787.8000;0.1351;-0.5186;
788.1000;0.1270;-0.5436;
788.4000;0.1270;-0.5411;
788.7000;0.1237;-0.5485;
789.0000;0.1270;-0.5411;
789.3000;0.1262;-0.5336;
789.6000;0.1270;-0.5311;
789.9000;0.1270;-0.5286;
790.2000;0.1270;-0.5286;
790.5000;0.1302;-0.5211;
790.8000;0.1286;-0.5211;
791.1000;0.1254;-0.5336;
791.4000;0.1262;-0.5436;
791.7000;0.1278;-0.5535;
792.0000;0.1262;-0.5635;
792.3000;0.1237;-0.5685;
792.6000;0.1262;-0.5610;
792.9000;0.1262;-0.5535;
793.2000;0.1278;-0.5460;
793.5000;0.1278;-0.5560;
793.8000;0.1254;-0.5535;
794.1000;0.1278;-0.5485;
794.4000;0.1286;-0.5436;
794.7000;0.1286;-0.5411;
795.0000;0.1286;-0.5436;
795.3000;0.1270;-0.5411;
795.6000;0.1302;-0.5286;
795.9000;0.1302;-0.5286;
796.2000;0.1302;-0.5236;
796.5000;0.1278;-0.5211;
796.8000;0.1229;-0.5336;
797.1000;0.1302;-0.5136;
797.4000;0.1286;-0.5211;
797.7000;0.1270;-0.5311;
798.0000;0.1278;-0.5411;
798.3000;0.1262;-0.5386;
798.6000;0.1286;-0.5460;
798.9000;0.1262;-0.5585;
799.2000;0.1270;-0.5610;
799.5000;0.1278;-0.5535;
799.8000;0.1311;-0.5436;
800.1000;0.1278;-0.5510;
800.4000;0.1278;-0.5485;
800.7000;0.1262;-0.5560;
801.0000;0.1278;-0.5585;
801.3000;0.1294;-0.5460;
801.6000;0.1278;-0.5436;
801.9000;0.1262;-0.5436;
802.2000;0.1270;-0.5485;
802.5000;0.1245;-0.5610;
802.8000;0.1270;-0.5560;
803.1000;0.1221;-0.5685;
803.4000;0.1286;-0.5485;
803.7000;0.1302;-0.5436;
804.0000;0.1262;-0.5535;
804.3000;0.1278;-0.5510;
804.6000;0.1245;-0.5485;
804.9000;0.1294;-0.5336;
805.2000;0.1270;-0.5386;
805.5000;0.1237;-0.5460;
805.8000;0.1302;-0.5286;
806.1000;0.1270;-0.5311;
806.4000;0.1254;-0.5535;
806.7000;0.1286;-0.5485;
807.0000;0.1229;-0.5660;
807.3000;0.1180;-0.5810;
807.6000;0.1237;-0.5560;
807.9000;0.1254;-0.5460;
808.2000;0.1262;-0.5386;
808.5000;0.1229;-0.5635;
808.8000;0.1278;-0.5585;
809.1000;0.1294;-0.5485;
809.4000;0.1278;-0.5685;
809.7000;0.1294;-0.5560;
810.0000;0.1302;-0.5535;
810.3000;0.1270;-0.5535;
810.6000;0.1278;-0.5411;
810.9000;0.1270;-0.5460;
811.2000;0.1262;-0.5460;
811.5000;0.1270;-0.5510;
811.8000;0.1205;-0.5760;
812.1000;0.1270;-0.5610;
812.4000;0.1213;-0.5735;
812.7000;0.1262;-0.5660;
813.0000;0.1254;-0.5660;
813.3000;0.1254;-0.5560;
813.6000;0.1254;-0.5510;
813.9000;0.1262;-0.5460;
814.2000;0.1270;-0.5535;
814.5000;0.1270;-0.5510;
814.8000;0.1294;-0.5535;
815.1000;0.1262;-0.5585;
815.4000;0.1278;-0.5610;
815.7000;0.1254;-0.5685;
816.0000;0.1254;-0.5660;
816.3000;0.1286;-0.5660;
816.6000;0.1286;-0.5660;
816.9000;0.1286;-0.5585;
817.2000;0.1254;-0.5610;
817.5000;0.1286;-0.5485;
817.8000;0.1294;-0.5560;
818.1000;0.1245;-0.5635;
818.4000;0.1262;-0.5635;
818.7000;0.1270;-0.5560;
819.0000;0.1262;-0.5560;
819.3000;0.1278;-0.5535;
819.6000;0.1245;-0.5635;
819.9000;0.1335;-0.5436;
820.2000;0.1286;-0.5685;
820.5000;0.1286;-0.5685;
820.8000;0.1237;-0.5810;
821.1000;0.1278;-0.5610;
821.4000;0.1278;-0.5635;
821.7000;0.1302;-0.5585;
822.0000;0.1278;-0.5635;
822.3000;0.1262;-0.5685;
822.6000;0.1286;-0.5660;
822.9000;0.1278;-0.5710;
823.2000;0.1278;-0.5735;
823.5000;0.1254;-0.5785;
823.8000;0.1278;-0.5710;
824.1000;0.1278;-0.5660;
824.4000;0.1286;-0.5485;
824.7000;0.1270;-0.5585;
825.0000;0.1294;-0.5610;
825.3000;0.1262;-0.5560;
825.6000;0.1286;-0.5560;
825.9000;0.1262;-0.5610;
826.2000;0.1270;-0.5485;
826.5000;0.1286;-0.5411;
826.8000;0.1254;-0.5535;
827.1000;0.1270;-0.5560;
827.4000;0.1262;-0.5535;
827.7000;0.1335;-0.5436;
828.0000;0.1278;-0.5610;
828.3000;0.1254;-0.5635;
828.6000;0.1254;-0.5560;
828.9000;0.1262;-0.5510;
829.2000;0.1294;-0.5485;
829.5000;0.1278;-0.5436;
829.8000;0.1278;-0.5411;
830.1000;0.1327;-0.5336;
830.4000;0.1294;-0.5386;
830.7000;0.1335;-0.5361;
831.0000;0.1270;-0.5535;
831.3000;0.1262;-0.5610;
831.6000;0.1262;-0.5585;
831.9000;0.1270;-0.5535;
832.2000;0.1278;-0.5535;
832.5000;0.1270;-0.5510;
832.8000;0.1286;-0.5560;
833.1000;0.1237;-0.5635;
833.4000;0.1262;-0.5610;
833.7000;0.1270;-0.5585;
834.0000;0.1278;-0.5610;
834.3000;0.1286;-0.5685;
834.6000;0.1262;-0.5735;
834.9000;0.1229;-0.5810;
835.2000;0.1254;-0.5760;
835.5000;0.1286;-0.5685;
835.8000;0.1294;-0.5735;
836.1000;0.1262;-0.5810;
836.4000;0.1213;-0.5909;
836.7000;0.1262;-0.5760;
837.0000;0.1270;-0.5785;
837.3000;0.1254;-0.5735;
837.6000;0.1327;-0.5535;
837.9000;0.1270;-0.5735;
838.2000;0.1270;-0.5660;
838.5000;0.1270;-0.5760;
838.8000;0.1278;-0.5735;
839.1000;0.1270;-0.5785;
839.4000;0.1270;-0.5760;
839.7000;0.1262;-0.5735;
840.0000;0.1245;-0.5760;
840.3000;0.1262;-0.5785;
840.6000;0.1270;-0.5635;
840.9000;0.1245;-0.5710;
841.2000;0.1278;-0.5585;
841.5000;0.1270;-0.5685;
841.8000;0.1254;-0.5785;
842.1000;0.1351;-0.5560;
842.4000;0.1245;-0.5834;
842.7000;0.1294;-0.5610;
843.0000;0.1254;-0.5635;
843.3000;0.1254;-0.5585;
843.6000;0.1327;-0.5386;
843.9000;0.1221;-0.5560;
844.2000;0.1213;-0.5535;
844.5000;0.1254;-0.5535;
844.8000;0.1270;-0.5535;
845.1000;0.1237;-0.5660;
845.4000;0.1286;-0.5560;
845.7000;0.1278;-0.5510;
846.0000;0.1278;-0.5535;
846.3000;0.1270;-0.5535;
846.6000;0.1278;-0.5635;
846.9000;0.1245;-0.5635;
847.2000;0.1262;-0.5535;
847.5000;0.1254;-0.5635;
847.8000;0.1311;-0.5411;
848.1000;0.1278;-0.5560;
848.4000;0.1335;-0.5436;
848.7000;0.1237;-0.5735;
849.0000;0.1270;-0.5760;
849.3000;0.1278;-0.5710;
849.6000;0.1270;-0.5710;
849.9000;0.1262;-0.5735;
850.2000;0.1229;-0.5785;
850.5000;0.1262;-0.5834;
850.8000;0.1270;-0.5810;
851.1000;0.1286;-0.5810;
851.4000;0.1245;-0.5959;
851.7000;0.1245;-0.5934;
852.0000;0.1302;-0.5760;
852.3000;0.1254;-0.5810;
852.6000;0.1270;-0.5810;
852.9000;0.1286;-0.5710;
853.2000;0.1294;-0.5735;
853.5000;0.1270;-0.5834;
853.8000;0.1262;-0.5834;
854.1000;0.1278;-0.5810;
854.4000;0.1311;-0.5710;
854.7000;0.1302;-0.5810;
855.0000;0.1286;-0.5810;
855.3000;0.1270;-0.5810;
855.6000;0.1245;-0.5884;
855.9000;0.1286;-0.5810;
856.2000;0.1262;-0.5810;
856.5000;0.1270;-0.5859;
856.8000;0.1197;-0.6009;
857.1000;0.1359;-0.5460;
857.4000;0.1254;-0.5710;
857.7000;0.1270;-0.5710;
858.0000;0.1270;-0.5735;
858.3000;0.1286;-0.5635;
858.6000;0.1278;-0.5710;
858.9000;0.1270;-0.5685;
859.2000;0.1205;-0.5859;
859.5000;0.1262;-0.5760;
859.8000;0.1286;-0.5710;
860.1000;0.1270;-0.5710;
860.4000;0.1237;-0.5884;
860.7000;0.1294;-0.5810;
861.0000;0.1254;-0.5785;
861.3000;0.1270;-0.5735;
861.6000;0.1270;-0.5685;
861.9000;0.1286;-0.5585;
862.2000;0.1245;-0.5735;
862.5000;0.1180;-0.5884;
862.8000;0.1270;-0.5660;
863.1000;0.1254;-0.5660;
863.4000;0.1278;-0.5735;
863.7000;0.1286;-0.5785;
864.0000;0.1278;-0.5834;
864.3000;0.1278;-0.5909;
864.6000;0.1327;-0.5760;
864.9000;0.1294;-0.5884;
865.2000;0.1286;-0.5859;
865.5000;0.1270;-0.5810;
865.8000;0.1327;-0.5735;
866.1000;0.1294;-0.5785;
866.4000;0.1262;-0.5859;
866.7000;0.1286;-0.5834;
867.0000;0.1278;-0.5834;
867.3000;0.1254;-0.5735;
867.6000;0.1286;-0.5685;
867.9000;0.1270;-0.5760;
868.2000;0.1221;-0.5834;
868.5000;0.1262;-0.5710;
868.8000;0.1270;-0.5710;
869.1000;0.1351;-0.5460;
869.4000;0.1254;-0.5710;
869.7000;0.1359;-0.5485;
870.0000;0.1392;-0.5286;
870.3000;0.1278;-0.5585;
870.6000;0.1294;-0.5510;
870.9000;0.1294;-0.5510;
871.2000;0.1262;-0.5685;
871.5000;0.1286;-0.5685;
871.8000;0.1278;-0.5735;
872.1000;0.1270;-0.5685;
872.4000;0.1262;-0.5735;
872.7000;0.1270;-0.5760;
873.0000;0.1278;-0.5735;
873.3000;0.1254;-0.5859;
873.6000;0.1221;-0.5884;
873.9000;0.1254;-0.5909;
874.2000;0.1245;-0.5834;
874.5000;0.1270;-0.5834;
874.8000;0.1286;-0.5859;
875.1000;0.1302;-0.5685;
875.4000;0.1286;-0.5710;
875.7000;0.1262;-0.5785;
876.0000;0.1254;-0.5859;
876.3000;0.1270;-0.5685;
876.6000;0.1286;-0.5685;
876.9000;0.1359;-0.5460;
877.2000;0.1335;-0.5560;
877.5000;0.1221;-0.5785;
877.8000;0.1270;-0.5635;
878.1000;0.1262;-0.5710;
878.4000;0.1270;-0.5760;
878.7000;0.1278;-0.5685;
879.0000;0.1254;-0.5660;
879.3000;0.1237;-0.5685;
879.6000;0.1294;-0.5660;
879.9000;0.1294;-0.5660;
880.2000;0.1294;-0.5710;
880.5000;0.1254;-0.5834;
880.8000;0.1302;-0.5735;
881.1000;0.1343;-0.5585;
881.4000;0.1286;-0.5660;
881.7000;0.1368;-0.5411;
882.0000;0.1270;-0.5735;
882.3000;0.1221;-0.5834;
882.6000;0.1270;-0.5760;
882.9000;0.1262;-0.5735;
883.2000;0.1229;-0.5859;
883.5000;0.1278;-0.5735;
883.8000;0.1278;-0.5685;
884.1000;0.1286;-0.5660;
884.4000;0.1262;-0.5760;
884.7000;0.1278;-0.5735;
885.0000;0.1278;-0.5735;
885.3000;0.1262;-0.5760;
885.6000;0.1278;-0.5760;
885.9000;0.1311;-0.5710;
886.2000;0.1270;-0.5760;
886.5000;0.1270;-0.5785;
886.8000;0.1245;-0.5859;
887.1000;0.1278;-0.5810;
887.4000;0.1270;-0.5760;
887.7000;0.1278;-0.5785;
888.0000;0.1237;-0.5934;
888.3000;0.1278;-0.5785;
888.6000;0.1270;-0.5909;
888.9000;0.1278;-0.5760;
889.2000;0.1254;-0.5760;
889.5000;0.1294;-0.5660;
889.8000;0.1262;-0.5660;
890.1000;0.1270;-0.5735;
890.4000;0.1278;-0.5760;
890.7000;0.1254;-0.5834;
891.0000;0.1286;-0.5760;
891.3000;0.1278;-0.5760;
891.6000;0.1270;-0.5685;
891.9000;0.1131;-0.6109;
892.2000;0.1221;-0.5859;
892.5000;0.1254;-0.5984;
892.8000;0.1254;-0.6009;
893.1000;0.1270;-0.5884;
893.4000;0.1245;-0.5909;
893.7000;0.1254;-0.5934;
894.0000;0.1245;-0.5934;
894.3000;0.1254;-0.5884;
894.6000;0.1254;-0.5834;
894.9000;0.1278;-0.5735;
895.2000;0.1262;-0.5785;
895.5000;0.1278;-0.5760;
895.8000;0.1262;-0.5834;
896.1000;0.1262;-0.5785;
896.4000;0.1319;-0.5685;
896.7000;0.1262;-0.5884;
897.0000;0.1270;-0.5909;
897.3000;0.1302;-0.5785;
897.6000;0.1286;-0.5810;
897.9000;0.1311;-0.5685;
898.2000;0.1278;-0.5760;
898.5000;0.1245;-0.5810;
898.8000;0.1254;-0.5810;
899.1000;0.1262;-0.5735;
899.4000;0.1278;-0.5810;
899.7000;0.1294;-0.5760;
900.0000;0.1254;-0.5735;
900.3000;0.1359;-0.5510;
900.6000;0.1343;-0.5485;
900.9000;0.1278;-0.5635;
901.2000;0.1262;-0.5585;
901.5000;0.1262;-0.5585;
901.8000;0.1237;-0.5635;
902.1000;0.1270;-0.5585;
902.4000;0.1270;-0.5585;
902.7000;0.1262;-0.5436;
903.0000;0.1254;-0.5535;
903.3000;0.1286;-0.5535;
903.6000;0.1278;-0.5485;
903.9000;0.1278;-0.5485;
904.2000;0.1278;-0.5485;
904.5000;0.1278;-0.5460;
904.8000;0.1262;-0.5510;
905.1000;0.1262;-0.5560;
905.4000;0.1262;-0.5635;
905.7000;0.1278;-0.5585;
906.0000;0.1278;-0.5560;
906.3000;0.1245;-0.5735;
906.6000;0.1278;-0.5735;
906.9000;0.1262;-0.5810;
907.2000;0.1254;-0.5909;
907.5000;0.1262;-0.5959;
907.8000;0.1262;-0.5909;
908.1000;0.1262;-0.5810;
908.4000;0.1278;-0.5785;
908.7000;0.1262;-0.5859;
909.0000;0.1294;-0.5735;
909.3000;0.1229;-0.5859;
909.6000;0.1245;-0.5760;
909.9000;0.1270;-0.5710;
910.2000;0.1278;-0.5760;
910.5000;0.1270;-0.5760;
910.8000;0.1270;-0.5785;
911.1000;0.1262;-0.5859;
911.4000;0.1254;-0.5810;
911.7000;0.1278;-0.5685;
912.0000;0.1197;-0.5884;
912.3000;0.1229;-0.5859;
912.6000;0.1245;-0.5760;
912.9000;0.1254;-0.5760;
913.2000;0.1254;-0.5810;
913.5000;0.1262;-0.5735;
913.8000;0.1245;-0.5685;
914.1000;0.1213;-0.5635;
914.4000;0.1270;-0.5610;
914.7000;0.1270;-0.5585;
915.0000;0.1254;-0.5585;
915.3000;0.1262;-0.5510;
915.6000;0.1278;-0.5560;
915.9000;0.1278;-0.5585;
916.2000;0.1278;-0.5685;
916.5000;0.1278;-0.5710;
916.8000;0.1286;-0.5660;
917.1000;0.1294;-0.5660;
917.4000;0.1270;-0.5685;
917.7000;0.1262;-0.5710;
918.0000;0.1294;-0.5585;
918.3000;0.1262;-0.5635;
918.6000;0.1262;-0.5610;
918.9000;0.1254;-0.5635;
919.2000;0.1270;-0.5560;
919.5000;0.1262;-0.5635;
919.8000;0.1245;-0.5685;
920.1000;0.1270;-0.5635;
920.4000;0.1270;-0.5610;
920.7000;0.1278;-0.5660;
921.0000;0.1262;-0.5735;
921.3000;0.1262;-0.5685;
921.6000;0.1254;-0.5560;
921.9000;0.1262;-0.5560;
922.2000;0.1270;-0.5535;
922.5000;0.1270;-0.5585;
922.8000;0.1302;-0.5510;
923.1000;0.1278;-0.5560;
923.4000;0.1270;-0.5635;
923.7000;0.1254;-0.5710;
924.0000;0.1262;-0.5710;
924.3000;0.1262;-0.5660;
924.6000;0.1278;-0.5610;
924.9000;0.1270;-0.5585;
925.2000;0.1262;-0.5610;
925.5000;0.1237;-0.5710;
925.8000;0.1278;-0.5585;
926.1000;0.1278;-0.5560;
926.4000;0.1278;-0.5585;
926.7000;0.1286;-0.5635;
927.0000;0.1311;-0.5660;
927.3000;0.1254;-0.5760;
927.6000;0.1286;-0.5735;
927.9000;0.1294;-0.5710;
928.2000;0.1351;-0.5560;
928.5000;0.1368;-0.5485;
928.8000;0.1302;-0.5710;
929.1000;0.1294;-0.5735;
929.4000;0.1286;-0.5685;
929.7000;0.1278;-0.5685;
930.0000;0.1294;-0.5635;
930.3000;0.1205;-0.5834;
930.6000;0.1384;-0.5386;
930.9000;0.1286;-0.5685;
931.2000;0.1302;-0.5635;
931.5000;0.1278;-0.5660;
931.8000;0.1294;-0.5660;
932.1000;0.1278;-0.5635;
932.4000;0.1278;-0.5660;
932.7000;0.1262;-0.5710;
933.0000;0.1254;-0.5635;
933.3000;0.1286;-0.5585;
933.6000;0.1262;-0.5660;
933.9000;0.1294;-0.5585;
934.2000;0.1262;-0.5660;
934.5000;0.1278;-0.5585;
934.8000;0.1302;-0.5510;
935.1000;0.1270;-0.5535;
935.4000;0.1278;-0.5635;
935.7000;0.1335;-0.5460;
936.0000;0.1359;-0.5485;
936.3000;0.1294;-0.5610;
936.6000;0.1294;-0.5635;
936.9000;0.1286;-0.5535;
937.2000;0.1294;-0.5535;
937.5000;0.1245;-0.5585;
937.8000;0.1278;-0.5560;
938.1000;0.1270;-0.5585;
938.4000;0.1278;-0.5535;
938.7000;0.1270;-0.5535;
939.0000;0.1278;-0.5485;
939.3000;0.1278;-0.5510;
939.6000;0.1270;-0.5485;
939.9000;0.1262;-0.5485;
940.2000;0.1262;-0.5485;
940.5000;0.1262;-0.5510;
940.8000;0.1425;-0.5186;
941.1000;0.1278;-0.5760;
941.4000;0.1286;-0.5760;
941.7000;0.1254;-0.5760;
942.0000;0.1278;-0.5735;
942.3000;0.1270;-0.5610;
942.6000;0.1286;-0.5685;
942.9000;0.1311;-0.5535;
943.2000;0.1254;-0.5610;
943.5000;0.1278;-0.5585;
943.8000;0.1286;-0.5510;
944.1000;0.1400;-0.5136;
944.4000;0.1270;-0.5411;
944.7000;0.1270;-0.5411;
945.0000;0.1286;-0.5336;
945.3000;0.1237;-0.5460;
945.6000;0.1278;-0.5311;
945.9000;0.1188;-0.5535;
946.2000;0.1245;-0.5560;
946.5000;0.1262;-0.5660;
946.8000;0.1237;-0.5760;
947.1000;0.1270;-0.5660;
947.4000;0.1270;-0.5660;
947.7000;0.1254;-0.5735;
948.0000;0.1245;-0.5685;
948.3000;0.1278;-0.5585;
948.6000;0.1270;-0.5610;
948.9000;0.1164;-0.5735;
949.2000;0.1302;-0.5336;
949.5000;0.1254;-0.5535;
949.8000;0.1270;-0.5485;
950.1000;0.1254;-0.5560;
950.4000;0.1286;-0.5560;
950.7000;0.1197;-0.5760;
951.0000;0.1270;-0.5660;
951.3000;0.1262;-0.5635;
951.6000;0.1302;-0.5510;
951.9000;0.1254;-0.5535;
952.2000;0.1245;-0.5485;
952.5000;0.1270;-0.5485;
952.8000;0.1286;-0.5510;
953.1000;0.1270;-0.5635;
953.4000;0.1229;-0.5810;
953.7000;0.1254;-0.5685;
954.0000;0.1270;-0.5560;
954.3000;0.1294;-0.5560;
954.6000;0.1262;-0.5560;
954.9000;0.1278;-0.5535;
955.2000;0.1270;-0.5560;
955.5000;0.1262;-0.5535;
955.8000;0.1254;-0.5560;
956.1000;0.1245;-0.5585;
956.4000;0.1270;-0.5535;
956.7000;0.1294;-0.5460;
957.0000;0.1254;-0.5560;
957.3000;0.1286;-0.5485;
957.6000;0.1302;-0.5460;
957.9000;0.1294;-0.5510;
958.2000;0.1254;-0.5585;
958.5000;0.1278;-0.5510;
958.8000;0.1327;-0.5460;
959.1000;0.1270;-0.5510;
959.4000;0.1270;-0.5510;
959.7000;0.1294;-0.5510;
960.0000;0.1270;-0.5535;
960.3000;0.1262;-0.5560;
960.6000;0.1262;-0.5685;
960.9000;0.1278;-0.5585;
961.2000;0.1286;-0.5585;
961.5000;0.1302;-0.5485;
961.8000;0.1319;-0.5361;
962.1000;0.1262;-0.5560;
962.4000;0.1286;-0.5610;
962.7000;0.1237;-0.5685;
963.0000;0.1286;-0.5635;
963.3000;0.1254;-0.5735;
963.6000;0.1245;-0.5785;
963.9000;0.1278;-0.5785;
964.2000;0.1262;-0.5760;
964.5000;0.1213;-0.5859;
964.8000;0.1359;-0.5460;
965.1000;0.1278;-0.5710;
965.4000;0.1213;-0.5859;
965.7000;0.1229;-0.5735;
966.0000;0.1270;-0.5535;
966.3000;0.1237;-0.5635;
966.6000;0.1335;-0.5436;
966.9000;0.1278;-0.5660;
967.2000;0.1294;-0.5585;
967.5000;0.1237;-0.5735;
967.8000;0.1286;-0.5585;
968.1000;0.1229;-0.5635;
968.4000;0.1254;-0.5610;
968.7000;0.1327;-0.5436;
969.0000;0.1270;-0.5610;
969.3000;0.1262;-0.5660;
969.6000;0.1351;-0.5460;
969.9000;0.1262;-0.5735;
970.2000;0.1270;-0.5635;
970.5000;0.1270;-0.5635;
970.8000;0.1278;-0.5535;
971.1000;0.1294;-0.5535;
971.4000;0.1237;-0.5660;
971.7000;0.1278;-0.5585;
972.0000;0.1286;-0.5685;
972.3000;0.1376;-0.5411;
972.6000;0.1278;-0.5560;
972.9000;0.1254;-0.5635;
973.2000;0.1278;-0.5610;
973.5000;0.1286;-0.5635;
973.8000;0.1286;-0.5660;
974.1000;0.1286;-0.5560;
974.4000;0.1278;-0.5610;
974.7000;0.1294;-0.5660;
975.0000;0.1262;-0.5735;
975.3000;0.1270;-0.5710;
975.6000;0.1286;-0.5660;
975.9000;0.1270;-0.5635;
976.2000;0.1286;-0.5635;
976.5000;0.1278;-0.5760;
976.8000;0.1254;-0.5834;
977.1000;0.1286;-0.5685;
977.4000;0.1270;-0.5760;
977.7000;0.1278;-0.5735;
978.0000;0.1270;-0.5785;
978.3000;0.1278;-0.5810;
978.6000;0.1254;-0.5959;
978.9000;0.1245;-0.5984;
979.2000;0.1254;-0.5959;
979.5000;0.1278;-0.5810;
979.8000;0.1229;-0.5834;
980.1000;0.1270;-0.5710;
980.4000;0.1286;-0.5735;
980.7000;0.1221;-0.5909;
981.0000;0.1294;-0.5810;
981.3000;0.1278;-0.5909;
981.6000;0.1302;-0.5785;
981.9000;0.1294;-0.5710;
982.2000;0.1254;-0.5785;
982.5000;0.1294;-0.5610;
982.8000;0.1237;-0.5735;
983.1000;0.1319;-0.5485;
983.4000;0.1254;-0.5685;
983.7000;0.1254;-0.5660;
984.0000;0.1319;-0.5535;
984.3000;0.1245;-0.5760;
984.6000;0.1278;-0.5710;
984.9000;0.1278;-0.5660;
985.2000;0.1262;-0.5685;
985.5000;0.1262;-0.5585;
985.8000;0.1270;-0.5560;
986.1000;0.1213;-0.5884;
986.4000;0.1278;-0.5685;
986.7000;0.1302;-0.5585;
987.0000;0.1245;-0.5585;
987.3000;0.1278;-0.5585;
987.6000;0.1278;-0.5635;
987.9000;0.1286;-0.5585;
988.2000;0.1294;-0.5710;
988.5000;0.1213;-0.5959;
988.8000;0.1335;-0.5560;
989.1000;0.1278;-0.5760;
989.4000;0.1327;-0.5685;
989.7000;0.1270;-0.5785;
990.0000;0.1254;-0.5884;
990.3000;0.1270;-0.5884;
990.6000;0.1262;-0.5909;
990.9000;0.1262;-0.5859;
991.2000;0.1302;-0.5685;
991.5000;0.1262;-0.5760;
991.8000;0.1311;-0.5660;
992.1000;0.1327;-0.5510;
992.4000;0.1237;-0.5710;
992.7000;0.1254;-0.5685;
993.0000;0.1286;-0.5560;
993.3000;0.1270;-0.5735;
993.6000;0.1270;-0.5834;
993.9000;0.1327;-0.5635;
994.2000;0.1286;-0.5735;
994.5000;0.1237;-0.5834;
994.8000;0.1278;-0.5760;
995.1000;0.1270;-0.5785;
995.4000;0.1213;-0.6034;
995.7000;0.1302;-0.5760;
996.0000;0.1286;-0.5859;
996.3000;0.1278;-0.5785;
996.6000;0.1286;-0.5810;
996.9000;0.1302;-0.5760;
997.2000;0.1278;-0.5859;
997.5000;0.1254;-0.5934;
997.8000;0.1278;-0.5760;
998.1000;0.1270;-0.5710;
998.4000;0.1286;-0.5685;
998.7000;0.1302;-0.5760;
999.0000;0.1286;-0.5859;
999.3000;0.1270;-0.5859;
999.6000;0.1302;-0.5785;
999.9000;0.1270;-0.5884;
1000.2000;0.1262;-0.5859;
1000.5000;0.1319;-0.5660;
1000.8000;0.1254;-0.5810;
1001.1000;0.1254;-0.5710;
1001.4000;0.1270;-0.5810;
1001.7000;0.1294;-0.5785;
1002.0000;0.1286;-0.5834;
1002.3000;0.1270;-0.5884;
1002.6000;0.1294;-0.5909;
1002.9000;0.1254;-0.5859;
1003.2000;0.1262;-0.5785;
1003.5000;0.1262;-0.5785;
1003.8000;0.1254;-0.5810;
1004.1000;0.1254;-0.5710;
1004.4000;0.1286;-0.5660;
1004.7000;0.1262;-0.5710;
1005.0000;0.1278;-0.5685;
1005.3000;0.1254;-0.5810;
1005.6000;0.1278;-0.5760;
1005.9000;0.1262;-0.5710;
1006.2000;0.1270;-0.5760;
1006.5000;0.1294;-0.5735;
1006.8000;0.1319;-0.5635;
1007.1000;0.1237;-0.5810;
1007.4000;0.1286;-0.5710;
1007.7000;0.1237;-0.5710;
1008.0000;0.1205;-0.5834;
1008.3000;0.1270;-0.5635;
1008.6000;0.1286;-0.5635;
1008.9000;0.1254;-0.5760;
1009.2000;0.1319;-0.5610;
1009.5000;0.1262;-0.5710;
1009.8000;0.1311;-0.5560;
1010.1000;0.1262;-0.5585;
1010.4000;0.1270;-0.5510;
1010.7000;0.1286;-0.5485;
1011.0000;0.1286;-0.5635;
1011.3000;0.1294;-0.5635;
1011.6000;0.1286;-0.5635;
1011.9000;0.1286;-0.5610;
1012.2000;0.1278;-0.5610;
1012.5000;0.1278;-0.5560;
1012.8000;0.1319;-0.5585;
1013.1000;0.1286;-0.5710;
1013.4000;0.1294;-0.5610;
1013.7000;0.1286;-0.5710;
1014.0000;0.1286;-0.5710;
1014.3000;0.1286;-0.5635;
1014.6000;0.1278;-0.5635;
1014.9000;0.1286;-0.5660;
1015.2000;0.1270;-0.5735;
1015.5000;0.1278;-0.5660;
1015.8000;0.1278;-0.5635;
1016.1000;0.1335;-0.5560;
1016.4000;0.1262;-0.5735;
1016.7000;0.1286;-0.5685;
1017.0000;0.1286;-0.5685;
1017.3000;0.1237;-0.5710;
1017.6000;0.1302;-0.5535;
1017.9000;0.1254;-0.5610;
1018.2000;0.1245;-0.5685;
1018.5000;0.1286;-0.5635;
1018.8000;0.1294;-0.5610;
1019.1000;0.1262;-0.5635;
1019.4000;0.1270;-0.5610;
1019.7000;0.1294;-0.5585;
1020.0000;0.1262;-0.5635;
1020.3000;0.1270;-0.5560;
1020.6000;0.1278;-0.5610;
1020.9000;0.1205;-0.5735;
1021.2000;0.1237;-0.5610;
1021.5000;0.1278;-0.5485;
1021.8000;0.1262;-0.5585;
1022.1000;0.1294;-0.5560;
1022.4000;0.1294;-0.5535;
1022.7000;0.1286;-0.5560;
1023.0000;0.1294;-0.5535;
1023.3000;0.1278;-0.5585;
1023.6000;0.1302;-0.5460;
1023.9000;0.1286;-0.5560;
1024.2000;0.1278;-0.5710;
1024.5000;0.1270;-0.5884;
1024.8000;0.1294;-0.5735;
1025.1000;0.1278;-0.5760;
1025.4000;0.1262;-0.5710;
1025.7000;0.1294;-0.5585;
1026.0000;0.1286;-0.5585;
1026.3000;0.1278;-0.5635;
1026.6000;0.1278;-0.5660;
1026.9000;0.1270;-0.5660;
1027.2000;0.1286;-0.5635;
1027.5000;0.1278;-0.5710;
1027.8000;0.1270;-0.5760;
1028.1000;0.1262;-0.5760;
1028.4000;0.1262;-0.5760;
1028.7000;0.1278;-0.5760;
1029.0000;0.1262;-0.5785;
1029.3000;0.1262;-0.5810;
1029.6000;0.1262;-0.5810;
1029.9000;0.1286;-0.5735;
1030.2000;0.1286;-0.5635;
1030.5000;0.1262;-0.5685;
1030.8000;0.1237;-0.5785;
1031.1000;0.1262;-0.5834;
1031.4000;0.1286;-0.5685;
1031.7000;0.1286;-0.5685;
1032.0000;0.1270;-0.5834;
1032.3000;0.1286;-0.5785;
1032.6000;0.1278;-0.5785;
1032.9000;0.1278;-0.5760;
1033.2000;0.1262;-0.5785;
1033.5000;0.1270;-0.5735;
1033.8000;0.1327;-0.5585;
1034.1000;0.1278;-0.5685;
1034.4000;0.1270;-0.5735;
1034.7000;0.1302;-0.5635;
1035.0000;0.1262;-0.5610;
1035.3000;0.1286;-0.5560;
1035.6000;0.1294;-0.5436;
1035.9000;0.1286;-0.5535;
1036.2000;0.1278;-0.5635;
1036.5000;0.1278;-0.5660;
1036.8000;0.1254;-0.5660;
1037.1000;0.1294;-0.5660;
1037.4000;0.1278;-0.5710;
1037.7000;0.1278;-0.5560;
1038.0000;0.1270;-0.5560;
1038.3000;0.1262;-0.5535;
1038.6000;0.1221;-0.5710;
1038.9000;0.1294;-0.5560;
1039.2000;0.1278;-0.5560;
1039.5000;0.1286;-0.5560;
1039.8000;0.1294;-0.5560;
1040.1000;0.1392;-0.5336;
1040.4000;0.1262;-0.5685;
1040.7000;0.1278;-0.5710;
1041.0000;0.1376;-0.5460;
1041.3000;0.1335;-0.5560;
1041.6000;0.1262;-0.5710;
1041.9000;0.1270;-0.5635;
1042.2000;0.1311;-0.5485;
1042.5000;0.1286;-0.5560;
1042.8000;0.1294;-0.5660;
1043.1000;0.1262;-0.5785;
1043.4000;0.1262;-0.5785;
1043.7000;0.1270;-0.5685;
1044.0000;0.1270;-0.5635;
1044.3000;0.1278;-0.5710;
1044.6000;0.1270;-0.5810;
1044.9000;0.1262;-0.5834;
1045.2000;0.1229;-0.5959;
1045.5000;0.1294;-0.5859;
1045.8000;0.1262;-0.5859;
1046.1000;0.1270;-0.5760;
1046.4000;0.1286;-0.5760;
1046.7000;0.1262;-0.5785;
1047.0000;0.1262;-0.5810;
1047.3000;0.1254;-0.5735;
1047.6000;0.1270;-0.5660;
1047.9000;0.1262;-0.5685;
1048.2000;0.1327;-0.5460;
1048.5000;0.1286;-0.5710;
1048.8000;0.1286;-0.5660;
1049.1000;0.1302;-0.5685;
1049.4000;0.1327;-0.5610;
1049.7000;0.1270;-0.5735;
1050.0000;0.1319;-0.5685;
1050.3000;0.1278;-0.5785;
1050.6000;0.1254;-0.5810;
1050.9000;0.1270;-0.5760;
1051.2000;0.1286;-0.5760;
1051.5000;0.1278;-0.5785;
1051.8000;0.1294;-0.5785;
1052.1000;0.1270;-0.5785;
1052.4000;0.1278;-0.5834;
1052.7000;0.1278;-0.5810;
1053.0000;0.1278;-0.5785;
1053.3000;0.1254;-0.5859;
1053.6000;0.1262;-0.5834;
1053.9000;0.1311;-0.5735;
1054.2000;0.1262;-0.5760;
1054.5000;0.1254;-0.5810;
1054.8000;0.1262;-0.5810;
1055.1000;0.1270;-0.5810;
1055.4000;0.1262;-0.5810;
1055.7000;0.1270;-0.5760;
1056.0000;0.1205;-0.6034;
1056.3000;0.1262;-0.5909;
1056.6000;0.1278;-0.5884;
1056.9000;0.1270;-0.5859;
1057.2000;0.1262;-0.5859;
1057.5000;0.1278;-0.5785;
1057.8000;0.1294;-0.5810;
1058.1000;0.1278;-0.5834;
1058.4000;0.1286;-0.5810;
1058.7000;0.1278;-0.5735;
1059.0000;0.1262;-0.5710;
1059.3000;0.1278;-0.5610;
1059.6000;0.1254;-0.5685;
1059.9000;0.1270;-0.5610;
1060.2000;0.1229;-0.5785;
1060.5000;0.1294;-0.5635;
1060.8000;0.1270;-0.5610;
1061.1000;0.1262;-0.5610;
1061.4000;0.1262;-0.5535;
1061.7000;0.1302;-0.5635;
1062.0000;0.1237;-0.5810;
1062.3000;0.1270;-0.5610;
1062.6000;0.1237;-0.5810;
1062.9000;0.1237;-0.5859;
1063.2000;0.1221;-0.6084;
1063.5000;0.1302;-0.5934;
1063.8000;0.1270;-0.6034;
1064.1000;0.1343;-0.5810;
1064.4000;0.1254;-0.6034;
1064.7000;0.1270;-0.5909;
1065.0000;0.1245;-0.5934;
1065.3000;0.1327;-0.5785;
1065.6000;0.1221;-0.6034;
1065.9000;0.1294;-0.5834;
1066.2000;0.1254;-0.5909;
1066.5000;0.1294;-0.5735;
1066.8000;0.1294;-0.5785;
1067.1000;0.1294;-0.5859;
1067.4000;0.1245;-0.5984;
1067.7000;0.1278;-0.5959;
1068.0000;0.1278;-0.5984;
1068.3000;0.1270;-0.6034;
1068.6000;0.1278;-0.6059;
1068.9000;0.1270;-0.6059;
1069.2000;0.1278;-0.6009;
1069.5000;0.1286;-0.5934;
1069.8000;0.1270;-0.6009;
1070.1000;0.1270;-0.5984;
1070.4000;0.1278;-0.5934;
1070.7000;0.1278;-0.5834;
1071.0000;0.1262;-0.5884;
1071.3000;0.1302;-0.5810;
1071.6000;0.1302;-0.5710;
1071.9000;0.1294;-0.5810;
1072.2000;0.1278;-0.5859;
1072.5000;0.1286;-0.5934;
1072.8000;0.1254;-0.6084;
1073.1000;0.1270;-0.6034;
1073.4000;0.1286;-0.5934;
1073.7000;0.1278;-0.5959;
1074.0000;0.1262;-0.6034;
1074.3000;0.1270;-0.5959;
1074.6000;0.1311;-0.5785;
1074.9000;0.1311;-0.5785;
1075.2000;0.1254;-0.5909;
1075.5000;0.1237;-0.5859;
1075.8000;0.1262;-0.5785;
1076.1000;0.1262;-0.5884;
1076.4000;0.1262;-0.5934;
1076.7000;0.1319;-0.5834;
1077.0000;0.1302;-0.5909;
1077.3000;0.1286;-0.5859;
1077.6000;0.1278;-0.5760;
1077.9000;0.1237;-0.5834;
1078.2000;0.1286;-0.5685;
1078.5000;0.1286;-0.5685;
1078.8000;0.1311;-0.5710;
1079.1000;0.1278;-0.5834;
1079.4000;0.1302;-0.5785;
1079.7000;0.1270;-0.5859;
1080.0000;0.1278;-0.5909;
1080.3000;0.1311;-0.5859;
1080.6000;0.1311;-0.5834;
1080.9000;0.1270;-0.5959;
1081.2000;0.1270;-0.5909;
1081.5000;0.1270;-0.5909;
1081.8000;0.1262;-0.5884;
1082.1000;0.1286;-0.5959;
1082.4000;0.1286;-0.5934;
1082.7000;0.1335;-0.5685;
1083.0000;0.1302;-0.5710;
1083.3000;0.1254;-0.5884;
1083.6000;0.1245;-0.5834;
1083.9000;0.1278;-0.5760;
1084.2000;0.1319;-0.5635;
1084.5000;0.1278;-0.5660;
1084.8000;0.1278;-0.5635;
1085.1000;0.1286;-0.5635;
1085.4000;0.1294;-0.5635;
1085.7000;0.1286;-0.5710;
1086.0000;0.1237;-0.5834;
1086.3000;0.1278;-0.5834;
1086.6000;0.1270;-0.5884;
1086.9000;0.1286;-0.5735;
1087.2000;0.1286;-0.5710;
1087.5000;0.1254;-0.5760;
1087.8000;0.1327;-0.5535;
1088.1000;0.1278;-0.5635;
1088.4000;0.1270;-0.5685;
1088.7000;0.1270;-0.5685;
1089.0000;0.1278;-0.5635;
1089.3000;0.1164;-0.5884;
1089.6000;0.1278;-0.5535;
1089.9000;0.1286;-0.5660;
1090.2000;0.1262;-0.5735;
1090.5000;0.1359;-0.5535;
1090.8000;0.1286;-0.5785;
1091.1000;0.1270;-0.5785;
1091.4000;0.1270;-0.5834;
1091.7000;0.1278;-0.5884;
1092.0000;0.1311;-0.5834;
1092.3000;0.1270;-0.5984;
1092.6000;0.1278;-0.5959;
1092.9000;0.1270;-0.5959;
1093.2000;0.1302;-0.5810;
1093.5000;0.1286;-0.5984;
1093.8000;0.1278;-0.5984;
1094.1000;0.1270;-0.5934;
1094.4000;0.1270;-0.5859;
1094.7000;0.1278;-0.5735;
1095.0000;0.1278;-0.5660;
1095.3000;0.1270;-0.5660;
1095.6000;0.1254;-0.5635;
1095.9000;0.1245;-0.5685;
1096.2000;0.1270;-0.5685;
1096.5000;0.1262;-0.5810;
1096.8000;0.1254;-0.5760;
1097.1000;0.1270;-0.5710;
1097.4000;0.1294;-0.5610;
1097.7000;0.1270;-0.5535;
1098.0000;0.1262;-0.5610;
1098.3000;0.1262;-0.5660;
1098.6000;0.1262;-0.5710;
1098.9000;0.1278;-0.5660;
1099.2000;0.1278;-0.5685;
1099.5000;0.1270;-0.5760;
1099.8000;0.1262;-0.5785;
1100.1000;0.1302;-0.5685;
1100.4000;0.1270;-0.5834;
1100.7000;0.1368;-0.5485;
1101.0000;0.1311;-0.5535;
1101.3000;0.1294;-0.5635;
1101.6000;0.1343;-0.5535;
1101.9000;0.1278;-0.5685;
1102.2000;0.1278;-0.5735;
1102.5000;0.1286;-0.5710;
1102.8000;0.1286;-0.5735;
1103.1000;0.1270;-0.5859;
1103.4000;0.1286;-0.5884;
1103.7000;0.1294;-0.5834;
1104.0000;0.1294;-0.5859;
1104.3000;0.1311;-0.5735;
1104.6000;0.1278;-0.5735;
1104.9000;0.1294;-0.5685;
1105.2000;0.1294;-0.5635;
1105.5000;0.1286;-0.5660;
1105.8000;0.1270;-0.5635;
1106.1000;0.1311;-0.5585;
1106.4000;0.1286;-0.5685;
1106.7000;0.1278;-0.5785;
1107.0000;0.1254;-0.5810;
1107.3000;0.1278;-0.5710;
1107.6000;0.1286;-0.5735;
1107.9000;0.1278;-0.5760;
1108.2000;0.1245;-0.5785;
1108.5000;0.1254;-0.5810;
1108.8000;0.1262;-0.5660;
1109.1000;0.1278;-0.5660;
1109.4000;0.1245;-0.5760;
1109.7000;0.1262;-0.5735;
1110.0000;0.1254;-0.5785;
1110.3000;0.1205;-0.5909;
1110.6000;0.1270;-0.5859;
1110.9000;0.1278;-0.5735;
1111.2000;0.1270;-0.5785;
1111.5000;0.1286;-0.5760;
1111.8000;0.1270;-0.5834;
1112.1000;0.1254;-0.5710;
1112.4000;0.1335;-0.5535;
1112.7000;0.1278;-0.5685;
1113.0000;0.1254;-0.5685;
1113.3000;0.1311;-0.5660;
1113.6000;0.1254;-0.5810;
1113.9000;0.1270;-0.5735;
1114.2000;0.1294;-0.5710;
1114.5000;0.1262;-0.5685;
1114.8000;0.1278;-0.5635;
1115.1000;0.1270;-0.5660;
1115.4000;0.1270;-0.5635;
1115.7000;0.1270;-0.5735;
1116.0000;0.1270;-0.5710;
1116.3000;0.1270;-0.5685;
1116.6000;0.1262;-0.5735;
1116.9000;0.1278;-0.5610;
1117.2000;0.1262;-0.5610;
1117.5000;0.1270;-0.5585;
1117.8000;0.1278;-0.5585;
1118.1000;0.1270;-0.5535;
1118.4000;0.1302;-0.5485;
1118.7000;0.1270;-0.5610;
1119.0000;0.1262;-0.5685;
1119.3000;0.1270;-0.5660;
1119.6000;0.1270;-0.5660;
1119.9000;0.1245;-0.5735;
1120.2000;0.1278;-0.5710;
1120.5000;0.1286;-0.5710;
1120.8000;0.1302;-0.5635;
1121.1000;0.1294;-0.5660;
1121.4000;0.1270;-0.5685;
1121.7000;0.1278;-0.5585;
1122.0000;0.1213;-0.5685;
1122.3000;0.1286;-0.5560;
1122.6000;0.1270;-0.5585;
1122.9000;0.1286;-0.5560;
1123.2000;0.1245;-0.5735;
1123.5000;0.1302;-0.5710;
1123.8000;0.1188;-0.6034;
1124.1000;0.1229;-0.5934;
1124.4000;0.1302;-0.5735;
1124.7000;0.1278;-0.5760;
1125.0000;0.1278;-0.5710;
1125.3000;0.1278;-0.5760;
1125.6000;0.1237;-0.5959;
1125.9000;0.1278;-0.5884;
1126.2000;0.1270;-0.6009;
1126.5000;0.1343;-0.5785;
1126.8000;0.1286;-0.5909;
1127.1000;0.1245;-0.5984;
1127.4000;0.1270;-0.5884;
1127.7000;0.1294;-0.5685;
1128.0000;0.1270;-0.5685;
1128.3000;0.1270;-0.5585;
1128.6000;0.1262;-0.5735;
1128.9000;0.1278;-0.5760;
1129.2000;0.1319;-0.5685;
1129.5000;0.1262;-0.5810;
1129.8000;0.1286;-0.5834;
1130.1000;0.1254;-0.5909;
1130.4000;0.1278;-0.5810;
1130.7000;0.1270;-0.5810;
1131.0000;0.1270;-0.5834;
1131.3000;0.1245;-0.5859;
1131.6000;0.1254;-0.5785;
1131.9000;0.1262;-0.5710;
1132.2000;0.1294;-0.5610;
1132.5000;0.1262;-0.5685;
1132.8000;0.1270;-0.5685;
1133.1000;0.1294;-0.5660;
1133.4000;0.1270;-0.5735;
1133.7000;0.1278;-0.5685;
1134.0000;0.1270;-0.5660;
1134.3000;0.1270;-0.5660;
1134.6000;0.1294;-0.5585;
1134.9000;0.1286;-0.5660;
1135.2000;0.1278;-0.5685;
1135.5000;0.1294;-0.5660;
1135.8000;0.1254;-0.5710;
1136.1000;0.1270;-0.5710;
1136.4000;0.1278;-0.5785;
1136.7000;0.1278;-0.5685;
1137.0000;0.1278;-0.5660;
1137.3000;0.1286;-0.5710;
1137.6000;0.1278;-0.5710;
1137.9000;0.1278;-0.5760;
1138.2000;0.1286;-0.5810;
1138.5000;0.1270;-0.5859;
1138.8000;0.1294;-0.5834;
1139.1000;0.1270;-0.5785;
1139.4000;0.1327;-0.5610;
1139.7000;0.1286;-0.5735;
1140.0000;0.1286;-0.5760;
1140.3000;0.1229;-0.5909;
1140.6000;0.1262;-0.5760;
1140.9000;0.1286;-0.5610;
1141.2000;0.1180;-0.5834;
1141.5000;0.1294;-0.5560;
1141.8000;0.1262;-0.5660;
1142.1000;0.1254;-0.5660;
1142.4000;0.1278;-0.5635;
1142.7000;0.1286;-0.5710;
1143.0000;0.1311;-0.5685;
1143.3000;0.1270;-0.5785;
1143.6000;0.1270;-0.5810;
1143.9000;0.1286;-0.5660;
1144.2000;0.1294;-0.5660;
1144.5000;0.1278;-0.5760;
1144.8000;0.1270;-0.5810;
1145.1000;0.1270;-0.5834;
1145.4000;0.1262;-0.5785;
1145.7000;0.1286;-0.5685;
1146.0000;0.1302;-0.5710;
1146.3000;0.1262;-0.5760;
1146.6000;0.1286;-0.5685;
1146.9000;0.1270;-0.5635;
1147.2000;0.1278;-0.5685;
1147.5000;0.1286;-0.5560;
1147.8000;0.1221;-0.5735;
1148.1000;0.1270;-0.5685;
1148.4000;0.1278;-0.5760;
1148.7000;0.1278;-0.5735;
1149.0000;0.1270;-0.5710;
1149.3000;0.1294;-0.5635;
1149.6000;0.1270;-0.5685;
1149.9000;0.1262;-0.5710;
1150.2000;0.1262;-0.5710;
1150.5000;0.1254;-0.5710;
1150.8000;0.1311;-0.5635;
1151.1000;0.1245;-0.5760;
1151.4000;0.1278;-0.5735;
1151.7000;0.1270;-0.5710;
1152.0000;0.1278;-0.5785;
1152.3000;0.1270;-0.5760;
1152.6000;0.1286;-0.5710;
1152.9000;0.1335;-0.5585;
1153.2000;0.1286;-0.5760;
1153.5000;0.1270;-0.5685;
1153.8000;0.1262;-0.5635;
1154.1000;0.1278;-0.5585;
1154.4000;0.1278;-0.5610;
1154.7000;0.1286;-0.5635;
1155.0000;0.1262;-0.5660;
1155.3000;0.1278;-0.5610;
1155.6000;0.1262;-0.5735;
1155.9000;0.1270;-0.5735;
1156.2000;0.1254;-0.5785;
1156.5000;0.1278;-0.5735;
1156.8000;0.1286;-0.5710;
1157.1000;0.1262;-0.5735;
1157.4000;0.1294;-0.5685;
1157.7000;0.1286;-0.5760;
1158.0000;0.1270;-0.5760;
1158.3000;0.1294;-0.5660;
1158.6000;0.1335;-0.5535;
1158.9000;0.1286;-0.5735;
1159.2000;0.1278;-0.5810;
1159.5000;0.1294;-0.5685;
1159.8000;0.1262;-0.5735;
1160.1000;0.1270;-0.5785;
1160.4000;0.1254;-0.5834;
1160.7000;0.1294;-0.5710;
1161.0000;0.1286;-0.5785;
1161.3000;0.1254;-0.5785;
1161.6000;0.1245;-0.5785;
1161.9000;0.1270;-0.5710;
1162.2000;0.1270;-0.5660;
1162.5000;0.1294;-0.5710;
1162.8000;0.1286;-0.5710;
1163.1000;0.1278;-0.5635;
1163.4000;0.1262;-0.5660;
1163.7000;0.1294;-0.5685;
1164.0000;0.1270;-0.5710;
1164.3000;0.1221;-0.5735;
1164.6000;0.1278;-0.5610;
1164.9000;0.1311;-0.5535;
1165.2000;0.1262;-0.5710;
1165.5000;0.1278;-0.5735;
1165.8000;0.1262;-0.5859;
1166.1000;0.1270;-0.5884;
1166.4000;0.1262;-0.5859;
1166.7000;0.1286;-0.5785;
1167.0000;0.1278;-0.5685;
1167.3000;0.1286;-0.5760;
1167.6000;0.1278;-0.5785;
1167.9000;0.1294;-0.5685;
1168.2000;0.1221;-0.5785;
1168.5000;0.1286;-0.5585;
1168.8000;0.1278;-0.5560;
1169.1000;0.1286;-0.5510;
1169.4000;0.1262;-0.5485;
1169.7000;0.1172;-0.5735;
1170.0000;0.1327;-0.5361;
1170.3000;0.1270;-0.5585;
1170.6000;0.1262;-0.5710;
1170.9000;0.1278;-0.5635;
1171.2000;0.1262;-0.5660;
1171.5000;0.1278;-0.5635;
1171.8000;0.1294;-0.5560;
1172.1000;0.1286;-0.5685;
1172.4000;0.1278;-0.5660;
1172.7000;0.1278;-0.5710;
1173.0000;0.1262;-0.5635;
1173.3000;0.1254;-0.5560;
1173.6000;0.1294;-0.5535;
1173.9000;0.1302;-0.5510;
1174.2000;0.1294;-0.5560;
1174.5000;0.1286;-0.5510;
1174.8000;0.1311;-0.5510;
1175.1000;0.1270;-0.5660;
1175.4000;0.1270;-0.5635;
1175.7000;0.1278;-0.5660;
1176.0000;0.1294;-0.5710;
1176.3000;0.1294;-0.5685;
1176.6000;0.1270;-0.5760;
1176.9000;0.1278;-0.5710;
1177.2000;0.1278;-0.5660;
1177.5000;0.1302;-0.5610;
1177.8000;0.1270;-0.5585;
1178.1000;0.1294;-0.5585;
1178.4000;0.1270;-0.5585;
1178.7000;0.1319;-0.5411;
1179.0000;0.1270;-0.5535;
1179.3000;0.1270;-0.5560;
1179.6000;0.1286;-0.5485;
1179.9000;0.1351;-0.5436;
1180.2000;0.1294;-0.5610;
1180.5000;0.1245;-0.5859;
1180.8000;0.1270;-0.5884;
1181.1000;0.1302;-0.5735;
1181.4000;0.1278;-0.5810;
1181.7000;0.1270;-0.5884;
1182.0000;0.1262;-0.5934;
1182.3000;0.1311;-0.5834;
1182.6000;0.1278;-0.5884;
1182.9000;0.1270;-0.5884;
1183.2000;0.1278;-0.5959;
1183.5000;0.1254;-0.5884;
1183.8000;0.1286;-0.5810;
1184.1000;0.1270;-0.5735;
1184.4000;0.1262;-0.5834;
1184.7000;0.1302;-0.5859;
1185.0000;0.1262;-0.5834;
1185.3000;0.1278;-0.5760;
1185.6000;0.1278;-0.5785;
1185.9000;0.1172;-0.6084;
1186.2000;0.1286;-0.5785;
1186.5000;0.1294;-0.5735;
1186.8000;0.1270;-0.5834;
1187.1000;0.1254;-0.5934;
1187.4000;0.1278;-0.5834;
1187.7000;0.1294;-0.5834;
1188.0000;0.1278;-0.5884;
1188.3000;0.1245;-0.5959;
1188.6000;0.1294;-0.5884;
1188.9000;0.1278;-0.5934;
1189.2000;0.1294;-0.5959;
1189.5000;0.1270;-0.5909;
1189.8000;0.1278;-0.5859;
1190.1000;0.1262;-0.5934;
1190.4000;0.1294;-0.5810;
1190.7000;0.1262;-0.5834;
1191.0000;0.1245;-0.6009;
1191.3000;0.1278;-0.5909;
1191.6000;0.1278;-0.5884;
1191.9000;0.1270;-0.5909;
1192.2000;0.1278;-0.5984;
1192.5000;0.1278;-0.5959;
1192.8000;0.1286;-0.5909;
1193.1000;0.1262;-0.6009;
1193.4000;0.1254;-0.5984;
1193.7000;0.1254;-0.5959;
1194.0000;0.1237;-0.5934;
1194.3000;0.1270;-0.5934;
1194.6000;0.1302;-0.5810;
1194.9000;0.1254;-0.5834;
1195.2000;0.1278;-0.5810;
1195.5000;0.1270;-0.5884;
1195.8000;0.1278;-0.6059;
1196.1000;0.1278;-0.6034;
1196.4000;0.1286;-0.6034;
1196.7000;0.1286;-0.5909;
1197.0000;0.1237;-0.5984;
1197.3000;0.1262;-0.5884;
1197.6000;0.1286;-0.5735;
1197.9000;0.1302;-0.5735;
1198.2000;0.1286;-0.5760;
1198.5000;0.1286;-0.5834;
1198.8000;0.1286;-0.5810;
1199.1000;0.1302;-0.5785;
1199.4000;0.1262;-0.5810;
1199.7000;0.1270;-0.5760;
1200.0000;0.1270;-0.5685;
1200.3000;0.1262;-0.5710;
1200.6000;0.1278;-0.5710;
1200.9000;0.1270;-0.5834;
1201.2000;0.1286;-0.5735;
1201.5000;0.1368;-0.5485;
1201.8000;0.1294;-0.5760;
1202.1000;0.1254;-0.5785;
1202.4000;0.1237;-0.5834;
1202.7000;0.1302;-0.5685;
1203.0000;0.1278;-0.5735;
1203.3000;0.1294;-0.5760;
1203.6000;0.1270;-0.5834;
1203.9000;0.1286;-0.5859;
1204.2000;0.1262;-0.5760;
1204.5000;0.1278;-0.5735;
1204.8000;0.1278;-0.5785;
1205.1000;0.1278;-0.5760;
1205.4000;0.1245;-0.5810;
1205.7000;0.1327;-0.5685;
1206.0000;0.1286;-0.5760;
1206.3000;0.1400;-0.5485;
1206.6000;0.1302;-0.5660;
1206.9000;0.1286;-0.5710;
1207.2000;0.1278;-0.5710;
1207.5000;0.1278;-0.5710;
1207.8000;0.1278;-0.5735;
1208.1000;0.1286;-0.5834;
1208.4000;0.1294;-0.5810;
1208.7000;0.1335;-0.5660;
1209.0000;0.1327;-0.5660;
1209.3000;0.1286;-0.5735;
1209.6000;0.1270;-0.5760;
1209.9000;0.1286;-0.5685;
1210.2000;0.1311;-0.5610;
1210.5000;0.1286;-0.5610;
1210.8000;0.1270;-0.5610;
1211.1000;0.1286;-0.5610;
1211.4000;0.1286;-0.5660;
1211.7000;0.1278;-0.5660;
1212.0000;0.1294;-0.5535;
1212.3000;0.1278;-0.5560;
1212.6000;0.1270;-0.5560;
1212.9000;0.1254;-0.5660;
1213.2000;0.1278;-0.5685;
1213.5000;0.1286;-0.5760;
1213.8000;0.1270;-0.5760;
1214.1000;0.1254;-0.5710;
1214.4000;0.1262;-0.5735;
1214.7000;0.1278;-0.5710;
1215.0000;0.1254;-0.5710;
1215.3000;0.1254;-0.5735;
1215.6000;0.1294;-0.5635;
1215.9000;0.1278;-0.5710;
1216.2000;0.1302;-0.5660;
1216.5000;0.1221;-0.5834;
1216.8000;0.1270;-0.5760;
1217.1000;0.1286;-0.5660;
1217.4000;0.1262;-0.5785;
1217.7000;0.1262;-0.5735;
1218.0000;0.1376;-0.5411;
1218.3000;0.1278;-0.5660;
1218.6000;0.1254;-0.5685;
1218.9000;0.1368;-0.5386;
1219.2000;0.1254;-0.5660;
1219.5000;0.1286;-0.5660;
1219.8000;0.1270;-0.5685;
1220.1000;0.1254;-0.5760;
1220.4000;0.1270;-0.5810;
1220.7000;0.1319;-0.5660;
1221.0000;0.1286;-0.5685;
1221.3000;0.1294;-0.5610;
1221.6000;0.1270;-0.5710;
1221.9000;0.1302;-0.5660;
1222.2000;0.1286;-0.5660;
1222.5000;0.1270;-0.5710;
1222.8000;0.1270;-0.5760;
1223.1000;0.1278;-0.5760;
1223.4000;0.1286;-0.5810;
1223.7000;0.1270;-0.5785;
1224.0000;0.1254;-0.5810;
1224.3000;0.1237;-0.5934;
1224.6000;0.1254;-0.5909;
1224.9000;0.1262;-0.5884;
1225.2000;0.1278;-0.5959;
1225.5000;0.1270;-0.5959;
1225.8000;0.1262;-0.5984;
1226.1000;0.1278;-0.5909;
1226.4000;0.1270;-0.6034;
1226.7000;0.1262;-0.6009;
1227.0000;0.1302;-0.5884;
1227.3000;0.1278;-0.5934;
1227.6000;0.1278;-0.5934;
1227.9000;0.1278;-0.5884;
1228.2000;0.1262;-0.5834;
1228.5000;0.1278;-0.5710;
1228.8000;0.1262;-0.5660;
1229.1000;0.1270;-0.5685;
1229.4000;0.1254;-0.5760;
1229.7000;0.1294;-0.5635;
1230.0000;0.1254;-0.5660;
1230.3000;0.1254;-0.5735;
1230.6000;0.1278;-0.5710;
1230.9000;0.1270;-0.5785;
1231.2000;0.1221;-0.5959;
1231.5000;0.1302;-0.5735;
1231.8000;0.1278;-0.5785;
1232.1000;0.1384;-0.5336;
1232.4000;0.1327;-0.5560;
1232.7000;0.1294;-0.5660;
1233.0000;0.1294;-0.5685;
1233.3000;0.1278;-0.5760;
1233.6000;0.1286;-0.5785;
1233.9000;0.1302;-0.5710;
1234.2000;0.1270;-0.5834;
1234.5000;0.1270;-0.5785;
1234.8000;0.1278;-0.5785;
1235.1000;0.1262;-0.5810;
1235.4000;0.1262;-0.5710;
1235.7000;0.1254;-0.5760;
1236.0000;0.1294;-0.5560;
1236.3000;0.1286;-0.5610;
1236.6000;0.1278;-0.5635;
1236.9000;0.1294;-0.5635;
1237.2000;0.1286;-0.5585;
1237.5000;0.1302;-0.5535;
1237.8000;0.1294;-0.5535;
1238.1000;0.1302;-0.5560;
1238.4000;0.1294;-0.5635;
1238.7000;0.1286;-0.5660;
1239.0000;0.1278;-0.5660;
1239.3000;0.1270;-0.5685;
1239.6000;0.1278;-0.5685;
1239.9000;0.1327;-0.5635;
1240.2000;0.1270;-0.5859;
1240.5000;0.1245;-0.5760;
1240.8000;0.1270;-0.5760;
1241.1000;0.1278;-0.5660;
1241.4000;0.1286;-0.5585;
1241.7000;0.1262;-0.5560;
1242.0000;0.1286;-0.5485;
1242.3000;0.1302;-0.5510;
1242.6000;0.1286;-0.5610;
1242.9000;0.1278;-0.5660;
1243.2000;0.1286;-0.5660;
1243.5000;0.1294;-0.5635;
1243.8000;0.1294;-0.5635;
1244.1000;0.1262;-0.5735;
1244.4000;0.1270;-0.5660;
1244.7000;0.1270;-0.5560;
1245.0000;0.1254;-0.5660;
1245.3000;0.1278;-0.5510;
1245.6000;0.1286;-0.5485;
1245.9000;0.1286;-0.5560;
1246.2000;0.1278;-0.5585;
1246.5000;0.1270;-0.5585;
1246.8000;0.1245;-0.5610;
1247.1000;0.1294;-0.5535;
1247.4000;0.1286;-0.5610;
1247.7000;0.1311;-0.5510;
1248.0000;0.1294;-0.5585;
1248.3000;0.1270;-0.5660;
1248.6000;0.1278;-0.5610;
1248.9000;0.1294;-0.5535;
1249.2000;0.1302;-0.5460;
1249.5000;0.1278;-0.5560;
1249.8000;0.1294;-0.5560;
1250.1000;0.1278;-0.5660;
1250.4000;0.1262;-0.5685;
1250.7000;0.1270;-0.5560;
1251.0000;0.1278;-0.5560;
1251.3000;0.1302;-0.5485;
1251.6000;0.1270;-0.5535;
1251.9000;0.1294;-0.5485;
1252.2000;0.1286;-0.5535;
1252.5000;0.1278;-0.5610;
1252.8000;0.1278;-0.5635;
1253.1000;0.1262;-0.5660;
1253.4000;0.1278;-0.5635;
1253.7000;0.1286;-0.5635;
1254.0000;0.1262;-0.5710;
1254.3000;0.1294;-0.5560;
1254.6000;0.1262;-0.5660;
1254.9000;0.1278;-0.5660;
1255.2000;0.1245;-0.5735;
1255.5000;0.1245;-0.5710;
1255.8000;0.1302;-0.5635;
1256.1000;0.1302;-0.5685;
1256.4000;0.1262;-0.5735;
1256.7000;0.1262;-0.5710;
1257.0000;0.1302;-0.5560;
1257.3000;0.1254;-0.5685;
1257.6000;0.1278;-0.5635;
1257.9000;0.1278;-0.5685;
1258.2000;0.1270;-0.5735;
1258.5000;0.1294;-0.5685;
1258.8000;0.1302;-0.5560;
1259.1000;0.1262;-0.5710;
1259.4000;0.1270;-0.5735;
1259.7000;0.1286;-0.5635;
1260.0000;0.1278;-0.5610;
1260.3000;0.1286;-0.5585;
1260.6000;0.1270;-0.5660;
1260.9000;0.1294;-0.5585;
1261.2000;0.1270;-0.5560;
1261.5000;0.1270;-0.5685;
1261.8000;0.1262;-0.5760;
1262.1000;0.1254;-0.5785;
1262.4000;0.1294;-0.5760;
1262.7000;0.1286;-0.5760;
1263.0000;0.1270;-0.5685;
1263.3000;0.1278;-0.5660;
1263.6000;0.1286;-0.5710;
1263.9000;0.1286;-0.5760;
1264.2000;0.1221;-0.5834;
1264.5000;0.1286;-0.5685;
1264.8000;0.1270;-0.5735;
1265.1000;0.1278;-0.5685;
1265.4000;0.1221;-0.5760;
1265.7000;0.1359;-0.5286;
1266.0000;0.1270;-0.5535;
1266.3000;0.1278;-0.5436;
1266.6000;0.1278;-0.5361;
1266.9000;0.1278;-0.5411;
1267.2000;0.1286;-0.5585;
1267.5000;0.1278;-0.5510;
1267.8000;0.1286;-0.5560;
1268.1000;0.1254;-0.5710;
1268.4000;0.1278;-0.5710;
1268.7000;0.1270;-0.5635;
1269.0000;0.1351;-0.5485;
1269.3000;0.1278;-0.5710;
1269.6000;0.1302;-0.5735;
1269.9000;0.1278;-0.5785;
1270.2000;0.1286;-0.5785;
1270.5000;0.1278;-0.5685;
1270.8000;0.1254;-0.5710;
1271.1000;0.1237;-0.5710;
1271.4000;0.1245;-0.5710;
1271.7000;0.1262;-0.5685;
1272.0000;0.1270;-0.5660;
1272.3000;0.1262;-0.5710;
1272.6000;0.1278;-0.5685;
1272.9000;0.1294;-0.5660;
1273.2000;0.1262;-0.5660;
1273.5000;0.1229;-0.5810;
1273.8000;0.1278;-0.5560;
1274.1000;0.1302;-0.5436;
1274.4000;0.1270;-0.5510;
1274.7000;0.1319;-0.5436;
1275.0000;0.1245;-0.5660;
1275.3000;0.1197;-0.5785;
1275.6000;0.1278;-0.5610;
1275.9000;0.1286;-0.5610;
1276.2000;0.1286;-0.5610;
1276.5000;0.1270;-0.5560;
1276.8000;0.1245;-0.5635;
1277.1000;0.1270;-0.5560;
1277.4000;0.1278;-0.5485;
1277.7000;0.1164;-0.5710;
1278.0000;0.1278;-0.5411;
1278.3000;0.1262;-0.5436;
1278.6000;0.1286;-0.5361;
1278.9000;0.1262;-0.5361;
1279.2000;0.1270;-0.5361;
1279.5000;0.1270;-0.5460;
1279.8000;0.1254;-0.5510;
1280.1000;0.1319;-0.5485;
1280.4000;0.1270;-0.5635;
1280.7000;0.1278;-0.5660;
1281.0000;0.1270;-0.5735;
1281.3000;0.1278;-0.5635;
1281.6000;0.1278;-0.5685;
1281.9000;0.1286;-0.5635;
1282.2000;0.1278;-0.5635;
1282.5000;0.1262;-0.5610;
1282.8000;0.1311;-0.5535;
1283.1000;0.1286;-0.5635;
1283.4000;0.1262;-0.5685;
1283.7000;0.1278;-0.5610;
1284.0000;0.1262;-0.5660;
1284.3000;0.1278;-0.5610;
1284.6000;0.1254;-0.5685;
1284.9000;0.1270;-0.5635;
1285.2000;0.1278;-0.5585;
1285.5000;0.1278;-0.5610;
1285.8000;0.1294;-0.5560;
1286.1000;0.1270;-0.5660;
1286.4000;0.1270;-0.5685;
1286.7000;0.1278;-0.5735;
1287.0000;0.1229;-0.5785;
1287.3000;0.1245;-0.5685;
1287.6000;0.1245;-0.5635;
1287.9000;0.1294;-0.5585;
1288.2000;0.1311;-0.5585;
1288.5000;0.1278;-0.5660;
1288.8000;0.1270;-0.5610;
1289.1000;0.1311;-0.5460;
1289.4000;0.1278;-0.5610;
1289.7000;0.1254;-0.5685;
1290.0000;0.1262;-0.5685;
1290.3000;0.1254;-0.5685;
1290.6000;0.1270;-0.5685;
1290.9000;0.1286;-0.5635;
1291.2000;0.1270;-0.5710;
1291.5000;0.1302;-0.5710;
1291.8000;0.1286;-0.5735;
1292.1000;0.1262;-0.5834;
1292.4000;0.1286;-0.5760;
1292.7000;0.1302;-0.5610;
1293.0000;0.1286;-0.5610;
1293.3000;0.1319;-0.5560;
1293.6000;0.1294;-0.5685;
1293.9000;0.1278;-0.5834;
1294.2000;0.1311;-0.5834;
1294.5000;0.1270;-0.5909;
1294.8000;0.1278;-0.5909;
1295.1000;0.1311;-0.5785;
1295.4000;0.1245;-0.5959;
1295.7000;0.1278;-0.5810;
1296.0000;0.1254;-0.5810;
1296.3000;0.1254;-0.5810;
1296.6000;0.1278;-0.5710;
1296.9000;0.1278;-0.5834;
1297.2000;0.1294;-0.5834;
1297.5000;0.1311;-0.5685;
1297.8000;0.1278;-0.5785;
1298.1000;0.1286;-0.5810;
1298.4000;0.1197;-0.6009;
1298.7000;0.1254;-0.5760;
1299.0000;0.1278;-0.5810;
1299.3000;0.1164;-0.6059;
1299.6000;0.1286;-0.5685;
1299.9000;0.1294;-0.5685;
1300.2000;0.1278;-0.5660;
1300.5000;0.1327;-0.5436;
1300.8000;0.1270;-0.5585;
1301.1000;0.1384;-0.5336;
1301.4000;0.1278;-0.5660;
1301.7000;0.1294;-0.5560;
1302.0000;0.1286;-0.5635;
1302.3000;0.1278;-0.5610;
1302.6000;0.1294;-0.5585;
1302.9000;0.1262;-0.5560;
1303.2000;0.1270;-0.5535;
1303.5000;0.1278;-0.5735;
1303.8000;0.1286;-0.5735;
1304.1000;0.1278;-0.5735;
1304.4000;0.1359;-0.5485;
1304.7000;0.1270;-0.5710;
1305.0000;0.1270;-0.5685;
1305.3000;0.1278;-0.5660;
1305.6000;0.1270;-0.5635;
1305.9000;0.1286;-0.5560;
1306.2000;0.1286;-0.5535;
1306.5000;0.1270;-0.5610;
1306.8000;0.1286;-0.5510;
1307.1000;0.1294;-0.5361;
1307.4000;0.1286;-0.5311;
1307.7000;0.1278;-0.5411;
1308.0000;0.1254;-0.5560;
1308.3000;0.1286;-0.5660;
1308.6000;0.1335;-0.5510;
1308.9000;0.1245;-0.5635;
1309.2000;0.1254;-0.5660;
1309.5000;0.1286;-0.5585;
1309.8000;0.1327;-0.5560;
1310.1000;0.1205;-0.5810;
1310.4000;0.1294;-0.5535;
1310.7000;0.1278;-0.5560;
1311.0000;0.1302;-0.5585;
1311.3000;0.1270;-0.5735;
1311.6000;0.1262;-0.5710;
1311.9000;0.1221;-0.5810;
1312.2000;0.1278;-0.5685;
1312.5000;0.1270;-0.5710;
1312.8000;0.1278;-0.5635;
1313.1000;0.1278;-0.5685;
1313.4000;0.1278;-0.5785;
1313.7000;0.1286;-0.5710;
1314.0000;0.1262;-0.5710;
1314.3000;0.1245;-0.5710;
1314.6000;0.1237;-0.5834;
1314.9000;0.1302;-0.5660;
1315.2000;0.1254;-0.5610;
1315.5000;0.1286;-0.5460;
1315.8000;0.1270;-0.5560;
1316.1000;0.1286;-0.5510;
1316.4000;0.1286;-0.5510;
1316.7000;0.1270;-0.5585;
1317.0000;0.1262;-0.5560;
1317.3000;0.1262;-0.5560;
1317.6000;0.1278;-0.5560;
1317.9000;0.1270;-0.5610;
1318.2000;0.1262;-0.5635;
1318.5000;0.1270;-0.5660;
1318.8000;0.1205;-0.5834;
1319.1000;0.1278;-0.5785;
1319.4000;0.1262;-0.5884;
1319.7000;0.1270;-0.5810;
1320.0000;0.1286;-0.5834;
1320.3000;0.1286;-0.5735;
1320.6000;0.1254;-0.5710;
1320.9000;0.1286;-0.5610;
1321.2000;0.1278;-0.5660;
1321.5000;0.1245;-0.5710;
1321.8000;0.1278;-0.5660;
1322.1000;0.1278;-0.5685;
1322.4000;0.1294;-0.5685;
1322.7000;0.1270;-0.5710;
1323.0000;0.1262;-0.5685;
1323.3000;0.1286;-0.5660;
1323.6000;0.1278;-0.5660;
1323.9000;0.1254;-0.5710;
1324.2000;0.1270;-0.5710;
1324.5000;0.1384;-0.5560;
1324.8000;0.1278;-0.5810;
1325.1000;0.1278;-0.5834;
1325.4000;0.1270;-0.5785;
1325.7000;0.1254;-0.5884;
1326.0000;0.1278;-0.5735;
1326.3000;0.1262;-0.5760;
1326.6000;0.1254;-0.5760;
1326.9000;0.1270;-0.5735;
1327.2000;0.1245;-0.5760;
1327.5000;0.1270;-0.5834;
1327.8000;0.1164;-0.6109;
1328.1000;0.1278;-0.5760;
1328.4000;0.1270;-0.5735;
1328.7000;0.1221;-0.5810;
1329.0000;0.1351;-0.5585;
1329.3000;0.1286;-0.5735;
1329.6000;0.1262;-0.5834;
1329.9000;0.1302;-0.5735;
1330.2000;0.1278;-0.5834;
1330.5000;0.1286;-0.5834;
1330.8000;0.1262;-0.5760;
1331.1000;0.1245;-0.5785;
1331.4000;0.1270;-0.5785;
1331.7000;0.1254;-0.5810;
1332.0000;0.1262;-0.5884;
1332.3000;0.1270;-0.5859;
1332.6000;0.1172;-0.6084;
1332.9000;0.1278;-0.5834;
1333.2000;0.1278;-0.5810;
1333.5000;0.1294;-0.5810;
1333.8000;0.1302;-0.5785;
1334.1000;0.1286;-0.5785;
1334.4000;0.1294;-0.5760;
1334.7000;0.1286;-0.5785;
1335.0000;0.1294;-0.5785;
1335.3000;0.1278;-0.5859;
1335.6000;0.1286;-0.5810;
1335.9000;0.1335;-0.5635;
1336.2000;0.1286;-0.5810;
1336.5000;0.1270;-0.5859;
1336.8000;0.1278;-0.5760;
1337.1000;0.1262;-0.5810;
1337.4000;0.1270;-0.5760;
1337.7000;0.1229;-0.5834;
1338.0000;0.1294;-0.5685;
1338.3000;0.1270;-0.5785;
1338.6000;0.1302;-0.5635;
1338.9000;0.1278;-0.5635;
1339.2000;0.1278;-0.5660;
1339.5000;0.1270;-0.5635;
1339.8000;0.1278;-0.5585;
1340.1000;0.1262;-0.5635;
1340.4000;0.1262;-0.5685;
1340.7000;0.1254;-0.5635;
1341.0000;0.1262;-0.5660;
1341.3000;0.1270;-0.5710;
1341.6000;0.1278;-0.5685;
1341.9000;0.1286;-0.5760;
1342.2000;0.1262;-0.5685;
1342.5000;0.1278;-0.5660;
1342.8000;0.1278;-0.5735;
1343.1000;0.1286;-0.5685;
1343.4000;0.1294;-0.5685;
1343.7000;0.1270;-0.5735;
1344.0000;0.1286;-0.5710;
1344.3000;0.1270;-0.5785;
1344.6000;0.1270;-0.5760;
1344.9000;0.1286;-0.5710;
1345.2000;0.1302;-0.5685;
1345.5000;0.1262;-0.5710;
1345.8000;0.1262;-0.5785;
1346.1000;0.1270;-0.5710;
1346.4000;0.1245;-0.5710;
1346.7000;0.1270;-0.5685;
1347.0000;0.1221;-0.5710;
1347.3000;0.1237;-0.5660;
1347.6000;0.1278;-0.5610;
1347.9000;0.1229;-0.5760;
1348.2000;0.1270;-0.5685;
1348.5000;0.1294;-0.5660;
1348.8000;0.1278;-0.5660;
1349.1000;0.1254;-0.5685;
1349.4000;0.1270;-0.5710;
1349.7000;0.1286;-0.5685;
1350.0000;0.1237;-0.5859;
1350.3000;0.1278;-0.5710;
1350.6000;0.1262;-0.5660;
1350.9000;0.1278;-0.5660;
1351.2000;0.1327;-0.5585;
1351.5000;0.1262;-0.5660;
1351.8000;0.1278;-0.5685;
1352.1000;0.1286;-0.5710;
1352.4000;0.1286;-0.5685;
1352.7000;0.1278;-0.5710;
1353.0000;0.1302;-0.5635;
1353.3000;0.1302;-0.5660;
1353.6000;0.1278;-0.5660;
1353.9000;0.1278;-0.5710;
1354.2000;0.1278;-0.5710;
1354.5000;0.1302;-0.5685;
1354.8000;0.1278;-0.5710;
1355.1000;0.1254;-0.5785;
1355.4000;0.1286;-0.5810;
1355.7000;0.1221;-0.5934;
1356.0000;0.1278;-0.5810;
1356.3000;0.1245;-0.5934;
1356.6000;0.1262;-0.5884;
1356.9000;0.1286;-0.5859;
1357.2000;0.1294;-0.5934;
1357.5000;0.1262;-0.5959;
1357.8000;0.1270;-0.5959;
1358.1000;0.1270;-0.5984;
1358.4000;0.1270;-0.5934;
1358.7000;0.1278;-0.5834;
1359.0000;0.1254;-0.5859;
1359.3000;0.1294;-0.5685;
1359.6000;0.1262;-0.5685;
1359.9000;0.1270;-0.5660;
1360.2000;0.1286;-0.5585;
1360.5000;0.1286;-0.5635;
1360.8000;0.1245;-0.5785;
1361.1000;0.1278;-0.5710;
1361.4000;0.1294;-0.5710;
1361.7000;0.1286;-0.5735;
1362.0000;0.1286;-0.5660;
1362.3000;0.1254;-0.5710;
1362.6000;0.1294;-0.5635;
1362.9000;0.1294;-0.5560;
1363.2000;0.1286;-0.5635;
1363.5000;0.1311;-0.5610;
1363.8000;0.1270;-0.5710;
1364.1000;0.1294;-0.5660;
1364.4000;0.1302;-0.5710;
1364.7000;0.1302;-0.5735;
1365.0000;0.1294;-0.5685;
1365.3000;0.1278;-0.5760;
1365.6000;0.1278;-0.5685;
1365.9000;0.1270;-0.5760;
1366.2000;0.1278;-0.5834;
1366.5000;0.1254;-0.5859;
1366.8000;0.1270;-0.5834;
1367.1000;0.1245;-0.5859;
1367.4000;0.1286;-0.5685;
1367.7000;0.1278;-0.5560;
1368.0000;0.1286;-0.5585;
1368.3000;0.1278;-0.5685;
1368.6000;0.1278;-0.5685;
1368.9000;0.1294;-0.5585;
1369.2000;0.1294;-0.5635;
1369.5000;0.1278;-0.5635;
1369.8000;0.1278;-0.5685;
1370.1000;0.1359;-0.5361;
1370.4000;0.1286;-0.5560;
1370.7000;0.1270;-0.5610;
1371.0000;0.1254;-0.5660;
1371.3000;0.1262;-0.5685;
1371.6000;0.1278;-0.5660;
1371.9000;0.1351;-0.5535;
1372.2000;0.1270;-0.5785;
1372.5000;0.1262;-0.5810;
1372.8000;0.1270;-0.5710;
1373.1000;0.1270;-0.5685;
1373.4000;0.1254;-0.5660;
1373.7000;0.1278;-0.5610;
1374.0000;0.1245;-0.5685;
1374.3000;0.1294;-0.5635;
1374.6000;0.1294;-0.5660;
1374.9000;0.1311;-0.5585;
1375.2000;0.1302;-0.5535;
1375.5000;0.1278;-0.5560;
1375.8000;0.1294;-0.5560;
1376.1000;0.1270;-0.5560;
1376.4000;0.1278;-0.5560;
1376.7000;0.1262;-0.5635;
1377.0000;0.1286;-0.5535;
1377.3000;0.1270;-0.5510;
1377.6000;0.1245;-0.5610;
1377.9000;0.1294;-0.5411;
1378.2000;0.1286;-0.5460;
1378.5000;0.1286;-0.5560;
1378.8000;0.1286;-0.5635;
1379.1000;0.1270;-0.5710;
1379.4000;0.1270;-0.5710;
1379.7000;0.1270;-0.5735;
1380.0000;0.1254;-0.5834;
1380.3000;0.1270;-0.5810;
1380.6000;0.1286;-0.5810;
1380.9000;0.1294;-0.5735;
1381.2000;0.1351;-0.5485;
1381.5000;0.1278;-0.5710;
1381.8000;0.1294;-0.5660;
1382.1000;0.1213;-0.5909;
1382.4000;0.1237;-0.5834;
1382.7000;0.1245;-0.5810;
1383.0000;0.1278;-0.5710;
1383.3000;0.1254;-0.5760;
1383.6000;0.1229;-0.5785;
1383.9000;0.1278;-0.5710;
1384.2000;0.1237;-0.5834;
1384.5000;0.1262;-0.5785;
1384.8000;0.1278;-0.5710;
1385.1000;0.1278;-0.5785;
1385.4000;0.1278;-0.5710;
1385.7000;0.1286;-0.5635;
1386.0000;0.1229;-0.5760;
1386.3000;0.1221;-0.5735;
1386.6000;0.1262;-0.5585;
1386.9000;0.1294;-0.5535;
1387.2000;0.1294;-0.5510;
1387.5000;0.1294;-0.5585;
1387.8000;0.1270;-0.5610;
1388.1000;0.1294;-0.5610;
1388.4000;0.1237;-0.5859;
1388.7000;0.1278;-0.5735;
1389.0000;0.1302;-0.5685;
1389.3000;0.1294;-0.5635;
1389.6000;0.1262;-0.5685;
1389.9000;0.1311;-0.5585;
1390.2000;0.1294;-0.5685;
1390.5000;0.1286;-0.5710;
1390.8000;0.1278;-0.5610;
1391.1000;0.1327;-0.5510;
1391.4000;0.1294;-0.5660;
1391.7000;0.1278;-0.5610;
1392.0000;0.1278;-0.5485;
1392.3000;0.1213;-0.5660;
1392.6000;0.1286;-0.5535;
1392.9000;0.1294;-0.5585;
1393.2000;0.1270;-0.5635;
1393.5000;0.1335;-0.5436;
1393.8000;0.1278;-0.5535;
1394.1000;0.1302;-0.5485;
1394.4000;0.1294;-0.5535;
1394.7000;0.1221;-0.5610;
1395.0000;0.1262;-0.5510;
1395.3000;0.1270;-0.5510;
1395.6000;0.1278;-0.5535;
1395.9000;0.1286;-0.5560;
1396.2000;0.1262;-0.5585;
1396.5000;0.1278;-0.5560;
1396.8000;0.1327;-0.5411;
1397.1000;0.1286;-0.5560;
1397.4000;0.1302;-0.5460;
1397.7000;0.1351;-0.5311;
1398.0000;0.1254;-0.5510;
1398.3000;0.1286;-0.5485;
1398.6000;0.1270;-0.5535;
1398.9000;0.1286;-0.5460;
1399.2000;0.1294;-0.5485;
1399.5000;0.1270;-0.5460;
1399.8000;0.1270;-0.5411;
