time/ms;Fluo/V;P700 deltaI/I x10³;
-199.8000;0.1343;-0.5585;
-199.5000;0.1302;-0.5660;
-199.2000;0.1311;-0.5735;
-198.9000;0.1327;-0.5635;
-198.6000;0.1327;-0.5585;
-198.3000;0.1319;-0.5610;
-198.0000;0.1319;-0.5660;
-197.7000;0.1343;-0.5560;
-197.4000;0.1343;-0.5485;
-197.1000;0.1327;-0.5585;
-196.8000;0.1351;-0.5585;
-196.5000;0.1465;-0.5336;
-196.2000;0.1335;-0.5660;
-195.9000;0.1319;-0.5735;
-195.6000;0.1319;-0.5760;
-195.3000;0.1286;-0.5685;
-195.0000;0.1351;-0.5560;
-194.7000;0.1319;-0.5635;
-194.4000;0.1319;-0.5610;
-194.1000;0.1319;-0.5585;
-193.8000;0.1327;-0.5610;
-193.5000;0.1319;-0.5635;
-193.2000;0.1302;-0.5585;
-192.9000;0.1335;-0.5635;
-192.6000;0.1327;-0.5585;
-192.3000;0.1319;-0.5535;
-192.0000;0.1302;-0.5535;
-191.7000;0.1302;-0.5436;
-191.4000;0.1311;-0.5460;
-191.1000;0.1319;-0.5535;
-190.8000;0.1327;-0.5485;
-190.5000;0.1319;-0.5485;
-190.2000;0.1327;-0.5411;
-189.9000;0.1327;-0.5485;
-189.6000;0.1335;-0.5510;
-189.3000;0.1351;-0.5560;
-189.0000;0.1327;-0.5610;
-188.7000;0.1294;-0.5535;
-188.4000;0.1416;-0.5136;
-188.1000;0.1319;-0.5436;
-187.8000;0.1319;-0.5535;
-187.5000;0.1311;-0.5610;
-187.2000;0.1384;-0.5460;
-186.9000;0.1294;-0.5710;
-186.6000;0.1319;-0.5635;
-186.3000;0.1302;-0.5585;
-186.0000;0.1319;-0.5535;
-185.7000;0.1327;-0.5510;
-185.4000;0.1335;-0.5485;
-185.1000;0.1319;-0.5560;
-184.8000;0.1286;-0.5660;
-184.5000;0.1319;-0.5560;
-184.2000;0.1319;-0.5535;
-183.9000;0.1376;-0.5411;
-183.6000;0.1376;-0.5336;
-183.3000;0.1335;-0.5460;
-183.0000;0.1294;-0.5610;
-182.7000;0.1302;-0.5585;
-182.4000;0.1311;-0.5510;
-182.1000;0.1311;-0.5510;
-181.8000;0.1335;-0.5361;
-181.5000;0.1327;-0.5436;
-181.2000;0.1278;-0.5585;
-180.9000;0.1359;-0.5386;
-180.6000;0.1294;-0.5510;
-180.3000;0.1327;-0.5411;
-180.0000;0.1335;-0.5460;
-179.7000;0.1335;-0.5510;
-179.4000;0.1335;-0.5535;
-179.1000;0.1343;-0.5485;
-178.8000;0.1319;-0.5485;
-178.5000;0.1343;-0.5386;
-178.2000;0.1319;-0.5510;
-177.9000;0.1319;-0.5510;
-177.6000;0.1311;-0.5485;
-177.3000;0.1384;-0.5286;
-177.0000;0.1327;-0.5460;
-176.7000;0.1319;-0.5460;
-176.4000;0.1343;-0.5535;
-176.1000;0.1205;-0.5859;
-175.8000;0.1335;-0.5710;
-175.5000;0.1286;-0.5735;
-175.2000;0.1245;-0.5884;
-174.9000;0.1319;-0.5635;
-174.6000;0.1319;-0.5535;
-174.3000;0.1319;-0.5485;
-174.0000;0.1278;-0.5635;
-173.7000;0.1319;-0.5610;
-173.4000;0.1311;-0.5610;
-173.1000;0.1319;-0.5560;
-172.8000;0.1229;-0.5710;
-172.5000;0.1294;-0.5585;
-172.2000;0.1302;-0.5585;
-171.9000;0.1327;-0.5535;
-171.6000;0.1302;-0.5560;
-171.3000;0.1311;-0.5510;
-171.0000;0.1319;-0.5386;
-170.7000;0.1311;-0.5510;
-170.4000;0.1302;-0.5485;
-170.1000;0.1311;-0.5436;
-169.8000;0.1311;-0.5460;
-169.5000;0.1335;-0.5411;
-169.2000;0.1270;-0.5510;
-168.9000;0.1302;-0.5460;
-168.6000;0.1270;-0.5635;
-168.3000;0.1335;-0.5460;
-168.0000;0.1311;-0.5510;
-167.7000;0.1327;-0.5436;
-167.4000;0.1343;-0.5386;
-167.1000;0.1327;-0.5510;
-166.8000;0.1327;-0.5535;
-166.5000;0.1376;-0.5411;
-166.2000;0.1359;-0.5585;
-165.9000;0.1319;-0.5660;
-165.6000;0.1286;-0.5810;
-165.3000;0.1311;-0.5735;
-165.0000;0.1327;-0.5635;
-164.7000;0.1311;-0.5685;
-164.4000;0.1286;-0.5810;
-164.1000;0.1286;-0.5859;
-163.8000;0.1319;-0.5785;
-163.5000;0.1294;-0.5859;
-163.2000;0.1319;-0.5785;
-162.9000;0.1319;-0.5859;
-162.6000;0.1400;-0.5585;
-162.3000;0.1327;-0.5760;
-162.0000;0.1229;-0.6034;
-161.7000;0.1319;-0.5934;
-161.4000;0.1335;-0.5859;
-161.1000;0.1327;-0.5859;
-160.8000;0.1319;-0.5859;
-160.5000;0.1311;-0.5810;
-160.2000;0.1335;-0.5859;
-159.9000;0.1294;-0.5859;
-159.6000;0.1335;-0.5735;
-159.3000;0.1311;-0.5760;
-159.0000;0.1319;-0.5760;
-158.7000;0.1359;-0.5685;
-158.4000;0.1311;-0.5660;
-158.1000;0.1327;-0.5660;
-157.8000;0.1286;-0.5685;
-157.5000;0.1400;-0.5485;
-157.2000;0.1343;-0.5685;
-156.9000;0.1335;-0.5735;
-156.6000;0.1359;-0.5635;
-156.3000;0.1302;-0.5859;
-156.0000;0.1319;-0.5760;
-155.7000;0.1319;-0.5610;
-155.4000;0.1302;-0.5685;
-155.1000;0.1311;-0.5735;
-154.8000;0.1368;-0.5485;
-154.5000;0.1311;-0.5510;
-154.2000;0.1294;-0.5585;
-153.9000;0.1327;-0.5585;
-153.6000;0.1262;-0.5710;
-153.3000;0.1302;-0.5510;
-153.0000;0.1319;-0.5460;
-152.7000;0.1335;-0.5361;
-152.4000;0.1327;-0.5336;
-152.1000;0.1327;-0.5411;
-151.8000;0.1327;-0.5460;
-151.5000;0.1327;-0.5560;
-151.2000;0.1400;-0.5460;
-150.9000;0.1319;-0.5685;
-150.6000;0.1343;-0.5560;
-150.3000;0.1368;-0.5510;
-150.0000;0.1343;-0.5610;
-149.7000;0.1319;-0.5735;
-149.4000;0.1335;-0.5710;
-149.1000;0.1335;-0.5660;
-148.8000;0.1327;-0.5635;
-148.5000;0.1327;-0.5560;
-148.2000;0.1400;-0.5311;
-147.9000;0.1335;-0.5436;
-147.6000;0.1319;-0.5510;
-147.3000;0.1302;-0.5560;
-147.0000;0.1319;-0.5510;
-146.7000;0.1311;-0.5510;
-146.4000;0.1286;-0.5460;
-146.1000;0.1343;-0.5261;
-145.8000;0.1319;-0.5236;
-145.5000;0.1319;-0.5186;
-145.2000;0.1408;-0.5037;
-144.9000;0.1302;-0.5336;
-144.6000;0.1302;-0.5336;
-144.3000;0.1311;-0.5361;
-144.0000;0.1311;-0.5336;
-143.7000;0.1335;-0.5386;
-143.4000;0.1327;-0.5485;
-143.1000;0.1311;-0.5485;
-142.8000;0.1327;-0.5485;
-142.5000;0.1302;-0.5535;
-142.2000;0.1311;-0.5411;
-141.9000;0.1327;-0.5386;
-141.6000;0.1319;-0.5510;
-141.3000;0.1311;-0.5510;
-141.0000;0.1302;-0.5585;
-140.7000;0.1327;-0.5635;
-140.4000;0.1343;-0.5510;
-140.1000;0.1319;-0.5585;
-139.8000;0.1327;-0.5585;
-139.5000;0.1311;-0.5585;
-139.2000;0.1319;-0.5535;
-138.9000;0.1319;-0.5535;
-138.6000;0.1311;-0.5411;
-138.3000;0.1343;-0.5361;
-138.0000;0.1343;-0.5286;
-137.7000;0.1335;-0.5386;
-137.4000;0.1327;-0.5460;
-137.1000;0.1335;-0.5386;
-136.8000;0.1343;-0.5236;
-136.5000;0.1286;-0.5386;
-136.2000;0.1327;-0.5311;
-135.9000;0.1302;-0.5436;
-135.6000;0.1311;-0.5436;
-135.3000;0.1311;-0.5485;
-135.0000;0.1319;-0.5485;
-134.7000;0.1262;-0.5585;
-134.4000;0.1302;-0.5336;
-134.1000;0.1327;-0.5236;
-133.8000;0.1294;-0.5236;
-133.5000;0.1294;-0.5386;
-133.2000;0.1302;-0.5386;
-132.9000;0.1294;-0.5386;
-132.6000;0.1278;-0.5510;
-132.3000;0.1319;-0.5386;
-132.0000;0.1335;-0.5411;
-131.7000;0.1327;-0.5386;
-131.4000;0.1327;-0.5336;
-131.1000;0.1302;-0.5386;
-130.8000;0.1302;-0.5261;
-130.5000;0.1335;-0.5136;
-130.2000;0.1319;-0.5236;
-129.9000;0.1319;-0.5211;
-129.6000;0.1302;-0.5261;
-129.3000;0.1278;-0.5436;
-129.0000;0.1311;-0.5411;
-128.7000;0.1311;-0.5485;
-128.4000;0.1319;-0.5510;
-128.1000;0.1302;-0.5535;
-127.8000;0.1319;-0.5510;
-127.5000;0.1311;-0.5485;
-127.2000;0.1278;-0.5460;
-126.9000;0.1311;-0.5411;
-126.6000;0.1311;-0.5336;
-126.3000;0.1319;-0.5286;
-126.0000;0.1311;-0.5485;
-125.7000;0.1327;-0.5485;
-125.4000;0.1278;-0.5585;
-125.1000;0.1343;-0.5386;
-124.8000;0.1327;-0.5411;
-124.5000;0.1319;-0.5510;
-124.2000;0.1311;-0.5460;
-123.9000;0.1319;-0.5411;
-123.6000;0.1294;-0.5510;
-123.3000;0.1311;-0.5485;
-123.0000;0.1319;-0.5361;
-122.7000;0.1311;-0.5311;
-122.4000;0.1343;-0.5211;
-122.1000;0.1311;-0.5236;
-121.8000;0.1311;-0.5186;
-121.5000;0.1335;-0.5261;
-121.2000;0.1319;-0.5261;
-120.9000;0.1327;-0.5361;
-120.6000;0.1262;-0.5535;
-120.3000;0.1302;-0.5336;
-120.0000;0.1327;-0.5311;
-119.7000;0.1335;-0.5186;
-119.4000;0.1327;-0.5261;
-119.1000;0.1254;-0.5436;
-118.8000;0.1311;-0.5261;
-118.5000;0.1359;-0.5161;
-118.2000;0.1286;-0.5386;
-117.9000;0.1311;-0.5286;
-117.6000;0.1311;-0.5286;
-117.3000;0.1319;-0.5286;
-117.0000;0.1302;-0.5261;
-116.7000;0.1327;-0.5261;
-116.4000;0.1319;-0.5236;
-116.1000;0.1311;-0.5311;
-115.8000;0.1327;-0.5286;
-115.5000;0.1319;-0.5311;
-115.2000;0.1302;-0.5336;
-114.9000;0.1327;-0.5236;
-114.6000;0.1335;-0.5236;
-114.3000;0.1302;-0.5336;
-114.0000;0.1359;-0.5236;
-113.7000;0.1335;-0.5261;
-113.4000;0.1319;-0.5361;
-113.1000;0.1311;-0.5386;
-112.8000;0.1302;-0.5311;
-112.5000;0.1319;-0.5261;
-112.2000;0.1311;-0.5361;
-111.9000;0.1311;-0.5336;
-111.6000;0.1311;-0.5286;
-111.3000;0.1327;-0.5311;
-111.0000;0.1311;-0.5460;
-110.7000;0.1302;-0.5485;
-110.4000;0.1319;-0.5460;
-110.1000;0.1327;-0.5436;
-109.8000;0.1335;-0.5436;
-109.5000;0.1327;-0.5386;
-109.2000;0.1319;-0.5336;
-108.9000;0.1327;-0.5261;
-108.6000;0.1327;-0.5361;
-108.3000;0.1319;-0.5361;
-108.0000;0.1335;-0.5436;
-107.7000;0.1302;-0.5510;
-107.4000;0.1327;-0.5411;
-107.1000;0.1319;-0.5460;
-106.8000;0.1343;-0.5485;
-106.5000;0.1327;-0.5535;
-106.2000;0.1343;-0.5485;
-105.9000;0.1351;-0.5436;
-105.6000;0.1343;-0.5535;
-105.3000;0.1319;-0.5635;
-105.0000;0.1327;-0.5710;
-104.7000;0.1327;-0.5685;
-104.4000;0.1327;-0.5760;
-104.1000;0.1335;-0.5710;
-103.8000;0.1335;-0.5660;
-103.5000;0.1319;-0.5710;
-103.2000;0.1262;-0.5810;
-102.9000;0.1319;-0.5635;
-102.6000;0.1311;-0.5685;
-102.3000;0.1311;-0.5685;
-102.0000;0.1327;-0.5635;
-101.7000;0.1319;-0.5560;
-101.4000;0.1294;-0.5660;
-101.1000;0.1327;-0.5510;
-100.8000;0.1311;-0.5485;
-100.5000;0.1311;-0.5560;
-100.2000;0.1302;-0.5535;
-99.9000;0.1319;-0.5510;
-99.6000;0.1319;-0.5485;
-99.3000;0.1335;-0.5560;
-99.0000;0.1294;-0.5610;
-98.7000;0.1311;-0.5510;
-98.4000;0.1302;-0.5535;
-98.1000;0.1335;-0.5535;
-97.8000;0.1294;-0.5635;
-97.5000;0.1286;-0.5685;
-97.2000;0.1384;-0.5436;
-96.9000;0.1311;-0.5635;
-96.6000;0.1311;-0.5710;
-96.3000;0.1343;-0.5585;
-96.0000;0.1343;-0.5535;
-95.7000;0.1327;-0.5560;
-95.4000;0.1327;-0.5460;
-95.1000;0.1294;-0.5560;
-94.8000;0.1327;-0.5560;
-94.5000;0.1327;-0.5585;
-94.2000;0.1302;-0.5710;
-93.9000;0.1335;-0.5660;
-93.6000;0.1335;-0.5535;
-93.3000;0.1416;-0.5261;
-93.0000;0.1319;-0.5411;
-92.7000;0.1319;-0.5411;
-92.4000;0.1327;-0.5411;
-92.1000;0.1327;-0.5386;
-91.8000;0.1335;-0.5386;
-91.5000;0.1327;-0.5460;
-91.2000;0.1319;-0.5560;
-90.9000;0.1319;-0.5460;
-90.6000;0.1327;-0.5311;
-90.3000;0.1319;-0.5261;
-90.0000;0.1319;-0.5236;
-89.7000;0.1319;-0.5186;
-89.4000;0.1327;-0.5311;
-89.1000;0.1327;-0.5336;
-88.8000;0.1319;-0.5411;
-88.5000;0.1311;-0.5386;
-88.2000;0.1327;-0.5361;
-87.9000;0.1319;-0.5286;
-87.6000;0.1311;-0.5211;
-87.3000;0.1319;-0.5186;
-87.0000;0.1335;-0.5261;
-86.7000;0.1343;-0.5386;
-86.4000;0.1319;-0.5436;
-86.1000;0.1335;-0.5411;
-85.8000;0.1343;-0.5436;
-85.5000;0.1319;-0.5411;
-85.2000;0.1311;-0.5460;
-84.9000;0.1302;-0.5411;
-84.6000;0.1311;-0.5386;
-84.3000;0.1302;-0.5460;
-84.0000;0.1311;-0.5411;
-83.7000;0.1294;-0.5436;
-83.4000;0.1302;-0.5386;
-83.1000;0.1327;-0.5386;
-82.8000;0.1319;-0.5436;
-82.5000;0.1319;-0.5436;
-82.2000;0.1335;-0.5411;
-81.9000;0.1311;-0.5585;
-81.6000;0.1319;-0.5710;
-81.3000;0.1302;-0.5785;
-81.0000;0.1327;-0.5635;
-80.7000;0.1319;-0.5610;
-80.4000;0.1302;-0.5660;
-80.1000;0.1327;-0.5610;
-79.8000;0.1392;-0.5585;
-79.5000;0.1311;-0.5760;
-79.2000;0.1262;-0.5859;
-78.9000;0.1294;-0.5834;
-78.6000;0.1327;-0.5760;
-78.3000;0.1319;-0.5610;
-78.0000;0.1327;-0.5560;
-77.7000;0.1327;-0.5585;
-77.4000;0.1294;-0.5585;
-77.1000;0.1319;-0.5436;
-76.8000;0.1335;-0.5386;
-76.5000;0.1343;-0.5411;
-76.2000;0.1319;-0.5436;
-75.9000;0.1319;-0.5436;
-75.6000;0.1319;-0.5361;
-75.3000;0.1327;-0.5311;
-75.0000;0.1319;-0.5361;
-74.7000;0.1278;-0.5510;
-74.4000;0.1319;-0.5585;
-74.1000;0.1319;-0.5535;
-73.8000;0.1311;-0.5560;
-73.5000;0.1286;-0.5585;
-73.2000;0.1302;-0.5535;
-72.9000;0.1311;-0.5485;
-72.6000;0.1319;-0.5436;
-72.3000;0.1327;-0.5510;
-72.0000;0.1278;-0.5585;
-71.7000;0.1335;-0.5485;
-71.4000;0.1335;-0.5460;
-71.1000;0.1311;-0.5510;
-70.8000;0.1327;-0.5535;
-70.5000;0.1335;-0.5510;
-70.2000;0.1319;-0.5535;
-69.9000;0.1302;-0.5485;
-69.6000;0.1302;-0.5436;
-69.3000;0.1327;-0.5436;
-69.0000;0.1319;-0.5386;
-68.7000;0.1302;-0.5361;
-68.4000;0.1302;-0.5361;
-68.1000;0.1311;-0.5336;
-67.8000;0.1319;-0.5386;
-67.5000;0.1319;-0.5361;
-67.2000;0.1327;-0.5311;
-66.9000;0.1335;-0.5261;
-66.6000;0.1327;-0.5211;
-66.3000;0.1278;-0.5386;
-66.0000;0.1327;-0.5186;
-65.7000;0.1384;-0.5012;
-65.4000;0.1327;-0.5086;
-65.1000;0.1311;-0.5211;
-64.8000;0.1294;-0.5361;
-64.5000;0.1286;-0.5361;
-64.2000;0.1319;-0.5286;
-63.9000;0.1319;-0.5336;
-63.6000;0.1311;-0.5411;
-63.3000;0.1319;-0.5386;
-63.0000;0.1327;-0.5411;
-62.7000;0.1335;-0.5460;
-62.4000;0.1311;-0.5510;
-62.1000;0.1327;-0.5485;
-61.8000;0.1319;-0.5510;
-61.5000;0.1278;-0.5585;
-61.2000;0.1335;-0.5436;
-60.9000;0.1270;-0.5585;
-60.6000;0.1327;-0.5411;
-60.3000;0.1351;-0.5336;
-60.0000;0.1327;-0.5386;
-59.7000;0.1311;-0.5411;
-59.4000;0.1319;-0.5361;
-59.1000;0.1327;-0.5386;
-58.8000;0.1335;-0.5336;
-58.5000;0.1319;-0.5336;
-58.2000;0.1311;-0.5411;
-57.9000;0.1327;-0.5311;
-57.6000;0.1311;-0.5361;
-57.3000;0.1319;-0.5386;
-57.0000;0.1286;-0.5460;
-56.7000;0.1335;-0.5460;
-56.4000;0.1343;-0.5386;
-56.1000;0.1335;-0.5436;
-55.8000;0.1319;-0.5585;
-55.5000;0.1319;-0.5585;
-55.2000;0.1270;-0.5710;
-54.9000;0.1319;-0.5485;
-54.6000;0.1319;-0.5460;
-54.3000;0.1319;-0.5436;
-54.0000;0.1302;-0.5485;
-53.7000;0.1302;-0.5460;
-53.4000;0.1327;-0.5460;
-53.1000;0.1343;-0.5436;
-52.8000;0.1319;-0.5510;
-52.5000;0.1319;-0.5560;
-52.2000;0.1221;-0.5785;
-51.9000;0.1245;-0.5735;
-51.6000;0.1319;-0.5535;
-51.3000;0.1335;-0.5485;
-51.0000;0.1327;-0.5560;
-50.7000;0.1311;-0.5510;
-50.4000;0.1376;-0.5336;
-50.1000;0.1311;-0.5460;
-49.8000;0.1302;-0.5485;
-49.5000;0.1302;-0.5510;
-49.2000;0.1286;-0.5635;
-48.9000;0.1319;-0.5610;
-48.6000;0.1302;-0.5560;
-48.3000;0.1278;-0.5685;
-48.0000;0.1319;-0.5685;
-47.7000;0.1351;-0.5610;
-47.4000;0.1384;-0.5485;
-47.1000;0.1319;-0.5660;
-46.8000;0.1311;-0.5635;
-46.5000;0.1343;-0.5510;
-46.2000;0.1327;-0.5535;
-45.9000;0.1335;-0.5460;
-45.6000;0.1311;-0.5560;
-45.3000;0.1302;-0.5560;
-45.0000;0.1311;-0.5510;
-44.7000;0.1335;-0.5460;
-44.4000;0.1368;-0.5361;
-44.1000;0.1343;-0.5535;
-43.8000;0.1335;-0.5510;
-43.5000;0.1319;-0.5510;
-43.2000;0.1327;-0.5560;
-42.9000;0.1229;-0.5785;
-42.6000;0.1392;-0.5386;
-42.3000;0.1408;-0.5361;
-42.0000;0.1343;-0.5510;
-41.7000;0.1368;-0.5436;
-41.4000;0.1343;-0.5361;
-41.1000;0.1335;-0.5436;
-40.8000;0.1311;-0.5535;
-40.5000;0.1245;-0.5660;
-40.2000;0.1302;-0.5560;
-39.9000;0.1319;-0.5560;
-39.6000;0.1205;-0.5859;
-39.3000;0.1319;-0.5560;
-39.0000;0.1311;-0.5585;
-38.7000;0.1294;-0.5635;
-38.4000;0.1302;-0.5585;
-38.1000;0.1311;-0.5610;
-37.8000;0.1205;-0.5834;
-37.5000;0.1327;-0.5460;
-37.2000;0.1335;-0.5485;
-36.9000;0.1311;-0.5585;
-36.6000;0.1311;-0.5510;
-36.3000;0.1302;-0.5535;
-36.0000;0.1327;-0.5411;
-35.7000;0.1278;-0.5535;
-35.4000;0.1319;-0.5411;
-35.1000;0.1311;-0.5485;
-34.8000;0.1302;-0.5485;
-34.5000;0.1335;-0.5336;
-34.2000;0.1319;-0.5361;
-33.9000;0.1327;-0.5460;
-33.6000;0.1319;-0.5386;
-33.3000;0.1343;-0.5311;
-33.0000;0.1294;-0.5436;
-32.7000;0.1302;-0.5411;
-32.4000;0.1311;-0.5361;
-32.1000;0.1327;-0.5411;
-31.8000;0.1335;-0.5386;
-31.5000;0.1327;-0.5485;
-31.2000;0.1368;-0.5336;
-30.9000;0.1327;-0.5361;
-30.6000;0.1319;-0.5460;
-30.3000;0.1335;-0.5436;
-30.0000;0.1319;-0.5585;
-29.7000;0.1294;-0.5610;
-29.4000;0.1311;-0.5585;
-29.1000;0.1262;-0.5810;
-28.8000;0.1343;-0.5535;
-28.5000;0.1327;-0.5585;
-28.2000;0.1319;-0.5585;
-27.9000;0.1384;-0.5411;
-27.6000;0.1286;-0.5535;
-27.3000;0.1335;-0.5411;
-27.0000;0.1311;-0.5560;
-26.7000;0.1343;-0.5485;
-26.4000;0.1319;-0.5510;
-26.1000;0.1319;-0.5560;
-25.8000;0.1311;-0.5610;
-25.5000;0.1335;-0.5560;
-25.2000;0.1302;-0.5585;
-24.9000;0.1335;-0.5485;
-24.6000;0.1319;-0.5485;
-24.3000;0.1254;-0.5685;
-24.0000;0.1319;-0.5510;
-23.7000;0.1327;-0.5436;
-23.4000;0.1416;-0.5161;
-23.1000;0.1327;-0.5460;
-22.8000;0.1270;-0.5535;
-22.5000;0.1286;-0.5436;
-22.2000;0.1311;-0.5411;
-21.9000;0.1311;-0.5485;
-21.6000;0.1270;-0.5535;
-21.3000;0.1302;-0.5510;
-21.0000;0.1311;-0.5460;
-20.7000;0.1311;-0.5411;
-20.4000;0.1302;-0.5411;
-20.1000;0.1311;-0.5411;
-19.8000;0.1319;-0.5411;
-19.5000;0.1262;-0.5610;
-19.2000;0.1302;-0.5460;
-18.9000;0.1335;-0.5411;
-18.6000;0.1335;-0.5585;
-18.3000;0.1384;-0.5411;
-18.0000;0.1343;-0.5411;
-17.7000;0.1319;-0.5460;
-17.4000;0.1286;-0.5535;
-17.1000;0.1327;-0.5361;
-16.8000;0.1327;-0.5286;
-16.5000;0.1286;-0.5286;
-16.2000;0.1319;-0.5311;
-15.9000;0.1335;-0.5336;
-15.6000;0.1335;-0.5386;
-15.3000;0.1376;-0.5286;
-15.0000;0.1294;-0.5460;
-14.7000;0.1286;-0.5460;
-14.4000;0.1319;-0.5361;
-14.1000;0.1311;-0.5510;
-13.8000;0.1319;-0.5361;
-13.5000;0.1311;-0.5411;
-13.2000;0.1286;-0.5460;
-12.9000;0.1294;-0.5436;
-12.6000;0.1319;-0.5361;
-12.3000;0.1319;-0.5436;
-12.0000;0.1327;-0.5411;
-11.7000;0.1327;-0.5411;
-11.4000;0.1311;-0.5436;
-11.1000;0.1327;-0.5286;
-10.8000;0.1335;-0.5286;
-10.5000;0.1335;-0.5236;
-10.2000;0.1311;-0.5361;
-9.9000;0.1327;-0.5361;
-9.6000;0.1327;-0.5386;
-9.3000;0.1311;-0.5436;
-9.0000;0.1327;-0.5436;
-8.7000;0.1311;-0.5510;
-8.4000;0.1351;-0.5386;
-8.1000;0.1319;-0.5411;
-7.8000;0.1302;-0.5510;
-7.5000;0.1335;-0.5560;
-7.2000;0.1319;-0.5485;
-6.9000;0.1335;-0.5485;
-6.6000;0.1311;-0.5560;
-6.3000;0.1319;-0.5610;
-6.0000;0.1302;-0.5635;
-5.7000;0.1327;-0.5510;
-5.4000;0.1335;-0.5485;
-5.1000;0.1327;-0.5510;
-4.8000;0.1294;-0.5560;
-4.5000;0.1368;-0.5436;
-4.2000;0.1319;-0.5635;
-3.9000;0.1319;-0.5585;
-3.6000;0.1327;-0.5585;
-3.3000;0.1384;-0.5436;
-3.0000;0.1311;-0.5610;
-2.7000;0.1270;-0.5685;
-2.4000;0.1327;-0.5535;
-2.1000;0.1359;-0.5386;
-1.8000;0.1359;-0.5336;
-1.5000;0.1311;-0.5460;
-1.2000;0.1311;-0.5460;
-0.9000;0.1319;-0.5361;
-0.6000;0.1319;-0.5436;
-0.3000;0.1319;-0.5460;
0.0000;0.1319;-0.5460;
0.3000;0.1327;-0.5286;
0.6000;0.1335;-0.5086;
0.9000;0.1351;-0.4737;
1.2000;0.1359;-0.4463;
1.5000;0.1384;-0.4214;
1.8000;0.1392;-0.3964;
2.1000;0.1416;-0.3690;
2.4000;0.1433;-0.3491;
2.7000;0.1449;-0.3316;
3.0000;0.1449;-0.3241;
3.3000;0.1465;-0.3167;
3.6000;0.1441;-0.3142;
3.9000;0.1481;-0.2892;
4.2000;0.1457;-0.2867;
4.5000;0.1530;-0.2643;
4.8000;0.1498;-0.2743;
5.1000;0.1457;-0.2867;
5.4000;0.1490;-0.2793;
5.7000;0.1416;-0.2992;
6.0000;0.1490;-0.2743;
6.3000;0.1481;-0.2718;
6.6000;0.1490;-0.2718;
6.9000;0.1473;-0.2618;
7.2000;0.1498;-0.2518;
7.5000;0.1490;-0.2568;
7.8000;0.1481;-0.2618;
8.1000;0.1506;-0.2618;
8.4000;0.1506;-0.2543;
8.7000;0.1473;-0.2618;
9.0000;0.1481;-0.2643;
9.3000;0.1514;-0.2543;
9.6000;0.1506;-0.2668;
9.9000;0.1514;-0.2693;
10.2000;0.1490;-0.2842;
10.5000;0.1400;-0.3017;
10.8000;0.1506;-0.2693;
11.1000;0.1506;-0.2743;
11.4000;0.1506;-0.2743;
11.7000;0.1465;-0.2917;
12.0000;0.1506;-0.2793;
12.3000;0.1514;-0.2668;
12.6000;0.1498;-0.2743;
12.9000;0.1490;-0.2768;
13.2000;0.1530;-0.2668;
13.5000;0.1530;-0.2618;
13.8000;0.1514;-0.2543;
14.1000;0.1498;-0.2568;
14.4000;0.1498;-0.2593;
14.7000;0.1506;-0.2543;
15.0000;0.1498;-0.2668;
15.3000;0.1490;-0.2793;
15.6000;0.1514;-0.2743;
15.9000;0.1490;-0.2693;
16.2000;0.1498;-0.2618;
16.5000;0.1498;-0.2668;
16.8000;0.1473;-0.2743;
17.1000;0.1498;-0.2768;
17.4000;0.1522;-0.2643;
17.7000;0.1481;-0.2768;
18.0000;0.1563;-0.2643;
18.3000;0.1498;-0.2793;
18.6000;0.1498;-0.2768;
18.9000;0.1506;-0.2718;
19.2000;0.1441;-0.2892;
19.5000;0.1506;-0.2693;
19.8000;0.1563;-0.2518;
20.1000;0.1506;-0.2668;
20.4000;0.1481;-0.2668;
20.7000;0.1465;-0.2867;
21.0000;0.1506;-0.2942;
21.3000;0.1514;-0.2842;
21.6000;0.1506;-0.2867;
21.9000;0.1490;-0.2867;
22.2000;0.1506;-0.2842;
22.5000;0.1498;-0.2842;
22.8000;0.1490;-0.2768;
23.1000;0.1473;-0.2818;
23.4000;0.1514;-0.2768;
23.7000;0.1514;-0.2842;
24.0000;0.1490;-0.2892;
24.3000;0.1498;-0.2867;
24.6000;0.1514;-0.2793;
24.9000;0.1522;-0.2693;
25.2000;0.1498;-0.2842;
25.5000;0.1506;-0.2842;
25.8000;0.1514;-0.2743;
26.1000;0.1506;-0.2768;
26.4000;0.1571;-0.2518;
26.7000;0.1490;-0.2618;
27.0000;0.1481;-0.2643;
27.3000;0.1498;-0.2643;
27.6000;0.1481;-0.2718;
27.9000;0.1481;-0.2718;
28.2000;0.1473;-0.2768;
28.5000;0.1514;-0.2718;
28.8000;0.1498;-0.2743;
29.1000;0.1498;-0.2793;
29.4000;0.1490;-0.2768;
29.7000;0.1481;-0.2693;
30.0000;0.1514;-0.2618;
30.3000;0.1498;-0.2718;
30.6000;0.1506;-0.2793;
30.9000;0.1506;-0.2793;
31.2000;0.1481;-0.2768;
31.5000;0.1506;-0.2718;
31.8000;0.1481;-0.2793;
32.1000;0.1498;-0.2768;
32.4000;0.1506;-0.2743;
32.7000;0.1490;-0.2743;
33.0000;0.1490;-0.2693;
33.3000;0.1473;-0.2842;
33.6000;0.1481;-0.2718;
33.9000;0.1498;-0.2668;
34.2000;0.1481;-0.2743;
34.5000;0.1498;-0.2668;
34.8000;0.1481;-0.2593;
35.1000;0.1498;-0.2543;
35.4000;0.1498;-0.2618;
35.7000;0.1490;-0.2643;
36.0000;0.1506;-0.2618;
36.3000;0.1514;-0.2593;
36.6000;0.1498;-0.2618;
36.9000;0.1490;-0.2693;
37.2000;0.1498;-0.2643;
37.5000;0.1481;-0.2718;
37.8000;0.1416;-0.2942;
38.1000;0.1490;-0.2618;
38.4000;0.1490;-0.2643;
38.7000;0.1449;-0.2743;
39.0000;0.1506;-0.2543;
39.3000;0.1481;-0.2518;
39.6000;0.1506;-0.2394;
39.9000;0.1498;-0.2493;
40.2000;0.1506;-0.2543;
40.5000;0.1506;-0.2518;
40.8000;0.1490;-0.2593;
41.1000;0.1498;-0.2643;
41.4000;0.1498;-0.2618;
41.7000;0.1457;-0.2668;
42.0000;0.1490;-0.2668;
42.3000;0.1490;-0.2718;
42.6000;0.1481;-0.2768;
42.9000;0.1490;-0.2867;
43.2000;0.1530;-0.2917;
43.5000;0.1481;-0.3042;
43.8000;0.1481;-0.3067;
44.1000;0.1498;-0.3142;
44.4000;0.1481;-0.3067;
44.7000;0.1490;-0.3117;
45.0000;0.1498;-0.3042;
45.3000;0.1498;-0.2942;
45.6000;0.1498;-0.3017;
45.9000;0.1490;-0.2967;
46.2000;0.1498;-0.2942;
46.5000;0.1490;-0.2892;
46.8000;0.1490;-0.2867;
47.1000;0.1498;-0.2842;
47.4000;0.1473;-0.2867;
47.7000;0.1490;-0.2842;
48.0000;0.1498;-0.2892;
48.3000;0.1498;-0.2842;
48.6000;0.1490;-0.2942;
48.9000;0.1498;-0.2867;
49.2000;0.1490;-0.2818;
49.5000;0.1522;-0.2743;
49.8000;0.1498;-0.2842;
50.1000;0.1490;-0.2892;
50.4000;0.1498;-0.2942;
50.7000;0.1473;-0.2967;
51.0000;0.1481;-0.2992;
51.3000;0.1506;-0.2917;
51.6000;0.1506;-0.2892;
51.9000;0.1481;-0.3017;
52.2000;0.1538;-0.2793;
52.5000;0.1481;-0.2967;
52.8000;0.1498;-0.2992;
53.1000;0.1498;-0.3017;
53.4000;0.1490;-0.3042;
53.7000;0.1481;-0.3092;
54.0000;0.1498;-0.3067;
54.3000;0.1481;-0.3142;
54.6000;0.1465;-0.3142;
54.9000;0.1506;-0.2942;
55.2000;0.1490;-0.2867;
55.5000;0.1506;-0.2743;
55.8000;0.1481;-0.2793;
56.1000;0.1473;-0.2768;
56.4000;0.1490;-0.2743;
56.7000;0.1498;-0.2693;
57.0000;0.1490;-0.2618;
57.3000;0.1555;-0.2568;
57.6000;0.1498;-0.2743;
57.9000;0.1481;-0.2768;
58.2000;0.1498;-0.2718;
58.5000;0.1490;-0.2818;
58.8000;0.1473;-0.2892;
59.1000;0.1490;-0.2892;
59.4000;0.1498;-0.2942;
59.7000;0.1506;-0.2967;
60.0000;0.1506;-0.3042;
60.3000;0.1571;-0.2917;
60.6000;0.1433;-0.3216;
60.9000;0.1498;-0.3042;
61.2000;0.1465;-0.3067;
61.5000;0.1514;-0.2917;
61.8000;0.1506;-0.2942;
62.1000;0.1481;-0.3042;
62.4000;0.1498;-0.2942;
62.7000;0.1457;-0.2992;
63.0000;0.1498;-0.2967;
63.3000;0.1498;-0.3017;
63.6000;0.1514;-0.2917;
63.9000;0.1498;-0.2992;
64.2000;0.1514;-0.2892;
64.5000;0.1506;-0.2942;
64.8000;0.1514;-0.2942;
65.1000;0.1481;-0.2992;
65.4000;0.1473;-0.2942;
65.7000;0.1514;-0.2793;
66.0000;0.1481;-0.2818;
66.3000;0.1547;-0.2743;
66.6000;0.1490;-0.2942;
66.9000;0.1498;-0.2992;
67.2000;0.1522;-0.2867;
67.5000;0.1465;-0.3042;
67.8000;0.1490;-0.3042;
68.1000;0.1481;-0.3167;
68.4000;0.1433;-0.3316;
68.7000;0.1481;-0.3291;
69.0000;0.1538;-0.3142;
69.3000;0.1498;-0.3192;
69.6000;0.1481;-0.3241;
69.9000;0.1490;-0.3216;
70.2000;0.1490;-0.3216;
70.5000;0.1498;-0.3042;
70.8000;0.1498;-0.2992;
71.1000;0.1498;-0.2942;
71.4000;0.1498;-0.2867;
71.7000;0.1465;-0.2967;
72.0000;0.1498;-0.2967;
72.3000;0.1498;-0.2942;
72.6000;0.1465;-0.3017;
72.9000;0.1473;-0.2942;
73.2000;0.1481;-0.3017;
73.5000;0.1498;-0.2967;
73.8000;0.1481;-0.3092;
74.1000;0.1473;-0.3092;
74.4000;0.1498;-0.3017;
74.7000;0.1498;-0.3042;
75.0000;0.1506;-0.3092;
75.3000;0.1481;-0.3142;
75.6000;0.1538;-0.2942;
75.9000;0.1490;-0.2892;
76.2000;0.1465;-0.3017;
76.5000;0.1498;-0.2967;
76.8000;0.1506;-0.2917;
77.1000;0.1416;-0.3017;
77.4000;0.1498;-0.2967;
77.7000;0.1547;-0.2842;
78.0000;0.1490;-0.2992;
78.3000;0.1473;-0.3067;
78.6000;0.1473;-0.3067;
78.9000;0.1490;-0.2942;
79.2000;0.1490;-0.2842;
79.5000;0.1498;-0.2942;
79.8000;0.1506;-0.2992;
80.1000;0.1433;-0.3117;
80.4000;0.1481;-0.3017;
80.7000;0.1498;-0.3042;
81.0000;0.1473;-0.3117;
81.3000;0.1490;-0.3067;
81.6000;0.1490;-0.2967;
81.9000;0.1498;-0.2917;
82.2000;0.1587;-0.2693;
82.5000;0.1481;-0.2992;
82.8000;0.1457;-0.2967;
83.1000;0.1490;-0.2942;
83.4000;0.1465;-0.2992;
83.7000;0.1490;-0.3017;
84.0000;0.1490;-0.2992;
84.3000;0.1498;-0.2917;
84.6000;0.1490;-0.2793;
84.9000;0.1514;-0.2917;
85.2000;0.1498;-0.2842;
85.5000;0.1490;-0.2818;
85.8000;0.1490;-0.2793;
86.1000;0.1490;-0.2867;
86.4000;0.1473;-0.2967;
86.7000;0.1522;-0.2942;
87.0000;0.1490;-0.3067;
87.3000;0.1522;-0.2992;
87.6000;0.1506;-0.2992;
87.9000;0.1481;-0.3017;
88.2000;0.1498;-0.2967;
88.5000;0.1514;-0.2892;
88.8000;0.1514;-0.2917;
89.1000;0.1506;-0.2967;
89.4000;0.1490;-0.3017;
89.7000;0.1498;-0.2967;
90.0000;0.1490;-0.2942;
90.3000;0.1506;-0.2917;
90.6000;0.1490;-0.2867;
90.9000;0.1441;-0.3117;
91.2000;0.1506;-0.2967;
91.5000;0.1498;-0.2967;
91.8000;0.1408;-0.3167;
92.1000;0.1506;-0.2967;
92.4000;0.1473;-0.2967;
92.7000;0.1473;-0.2967;
93.0000;0.1490;-0.2967;
93.3000;0.1449;-0.3042;
93.6000;0.1538;-0.2818;
93.9000;0.1547;-0.2867;
94.2000;0.1506;-0.3067;
94.5000;0.1457;-0.3092;
94.8000;0.1498;-0.2892;
95.1000;0.1506;-0.2942;
95.4000;0.1498;-0.2917;
95.7000;0.1457;-0.2892;
96.0000;0.1473;-0.2842;
96.3000;0.1498;-0.2842;
96.6000;0.1490;-0.2892;
96.9000;0.1481;-0.2818;
97.2000;0.1490;-0.2768;
97.5000;0.1514;-0.2743;
97.8000;0.1506;-0.2842;
98.1000;0.1481;-0.2892;
98.4000;0.1490;-0.2917;
98.7000;0.1449;-0.3017;
99.0000;0.1498;-0.2942;
99.3000;0.1457;-0.2917;
99.6000;0.1563;-0.2668;
99.9000;0.1490;-0.2842;
100.2000;0.1490;-0.2892;
100.5000;0.1465;-0.3017;
100.8000;0.1473;-0.2967;
101.1000;0.1490;-0.2967;
101.4000;0.1514;-0.2793;
101.7000;0.1457;-0.2892;
102.0000;0.1481;-0.2793;
102.3000;0.1490;-0.2743;
102.6000;0.1473;-0.2867;
102.9000;0.1481;-0.2768;
103.2000;0.1473;-0.2842;
103.5000;0.1490;-0.2793;
103.8000;0.1514;-0.2842;
104.1000;0.1481;-0.2917;
104.4000;0.1441;-0.3017;
104.7000;0.1490;-0.2892;
105.0000;0.1441;-0.2967;
105.3000;0.1498;-0.2793;
105.6000;0.1490;-0.2768;
105.9000;0.1506;-0.2693;
106.2000;0.1490;-0.2718;
106.5000;0.1498;-0.2793;
106.8000;0.1514;-0.2793;
107.1000;0.1490;-0.2842;
107.4000;0.1481;-0.2743;
107.7000;0.1498;-0.2768;
108.0000;0.1481;-0.2892;
108.3000;0.1604;-0.2593;
108.6000;0.1481;-0.2917;
108.9000;0.1506;-0.2917;
109.2000;0.1481;-0.2967;
109.5000;0.1498;-0.2992;
109.8000;0.1563;-0.2818;
110.1000;0.1563;-0.2793;
110.4000;0.1481;-0.2942;
110.7000;0.1490;-0.2917;
111.0000;0.1457;-0.3017;
111.3000;0.1457;-0.3067;
111.6000;0.1473;-0.2992;
111.9000;0.1465;-0.3067;
112.2000;0.1498;-0.2967;
112.5000;0.1514;-0.2917;
112.8000;0.1449;-0.2992;
113.1000;0.1465;-0.3042;
113.4000;0.1547;-0.2842;
113.7000;0.1530;-0.2867;
114.0000;0.1498;-0.2842;
114.3000;0.1506;-0.2793;
114.6000;0.1473;-0.2867;
114.9000;0.1498;-0.2842;
115.2000;0.1481;-0.2842;
115.5000;0.1465;-0.2892;
115.8000;0.1433;-0.3042;
116.1000;0.1490;-0.3017;
116.4000;0.1449;-0.3092;
116.7000;0.1538;-0.2917;
117.0000;0.1490;-0.3117;
117.3000;0.1506;-0.2967;
117.6000;0.1490;-0.2892;
117.9000;0.1490;-0.2842;
118.2000;0.1441;-0.2992;
118.5000;0.1425;-0.3117;
118.8000;0.1481;-0.3017;
119.1000;0.1498;-0.2967;
119.4000;0.1498;-0.2867;
119.7000;0.1481;-0.2867;
120.0000;0.1506;-0.2793;
120.3000;0.1481;-0.2793;
120.6000;0.1490;-0.2842;
120.9000;0.1498;-0.2842;
121.2000;0.1490;-0.2842;
121.5000;0.1481;-0.2793;
121.8000;0.1481;-0.2818;
122.1000;0.1481;-0.2867;
122.4000;0.1498;-0.2793;
122.7000;0.1498;-0.2718;
123.0000;0.1473;-0.2718;
123.3000;0.1457;-0.2917;
123.6000;0.1538;-0.2718;
123.9000;0.1498;-0.2818;
124.2000;0.1506;-0.2768;
124.5000;0.1506;-0.2718;
124.8000;0.1514;-0.2693;
125.1000;0.1506;-0.2718;
125.4000;0.1481;-0.2768;
125.7000;0.1490;-0.2793;
126.0000;0.1481;-0.2818;
126.3000;0.1506;-0.2842;
126.6000;0.1498;-0.2768;
126.9000;0.1481;-0.2793;
127.2000;0.1473;-0.2892;
127.5000;0.1449;-0.2917;
127.8000;0.1506;-0.2793;
128.1000;0.1506;-0.2793;
128.4000;0.1481;-0.2867;
128.7000;0.1481;-0.2942;
129.0000;0.1530;-0.2743;
129.3000;0.1481;-0.2768;
129.6000;0.1481;-0.2743;
129.9000;0.1433;-0.2942;
130.2000;0.1490;-0.2793;
130.5000;0.1490;-0.2768;
130.8000;0.1506;-0.2768;
131.1000;0.1481;-0.2818;
131.4000;0.1490;-0.2867;
131.7000;0.1522;-0.2768;
132.0000;0.1481;-0.2867;
132.3000;0.1498;-0.2818;
132.6000;0.1538;-0.2743;
132.9000;0.1498;-0.2892;
133.2000;0.1514;-0.2867;
133.5000;0.1490;-0.2992;
133.8000;0.1506;-0.2942;
134.1000;0.1498;-0.2842;
134.4000;0.1498;-0.2942;
134.7000;0.1408;-0.3092;
135.0000;0.1490;-0.2867;
135.3000;0.1514;-0.2842;
135.6000;0.1506;-0.2793;
135.9000;0.1481;-0.2768;
136.2000;0.1490;-0.2593;
136.5000;0.1481;-0.2518;
136.8000;0.1473;-0.2518;
137.1000;0.1473;-0.2518;
137.4000;0.1481;-0.2593;
137.7000;0.1490;-0.2568;
138.0000;0.1481;-0.2618;
138.3000;0.1506;-0.2568;
138.6000;0.1498;-0.2593;
138.9000;0.1433;-0.2718;
139.2000;0.1473;-0.2568;
139.5000;0.1490;-0.2643;
139.8000;0.1506;-0.2618;
140.1000;0.1481;-0.2768;
140.4000;0.1490;-0.2818;
140.7000;0.1481;-0.2842;
141.0000;0.1457;-0.2942;
141.3000;0.1457;-0.2917;
141.6000;0.1457;-0.2942;
141.9000;0.1465;-0.3017;
142.2000;0.1490;-0.2892;
142.5000;0.1481;-0.2917;
142.8000;0.1481;-0.2818;
143.1000;0.1481;-0.2768;
143.4000;0.1473;-0.2693;
143.7000;0.1481;-0.2618;
144.0000;0.1473;-0.2643;
144.3000;0.1506;-0.2568;
144.6000;0.1530;-0.2568;
144.9000;0.1481;-0.2593;
145.2000;0.1490;-0.2543;
145.5000;0.1481;-0.2518;
145.8000;0.1490;-0.2593;
146.1000;0.1498;-0.2618;
146.4000;0.1490;-0.2593;
146.7000;0.1481;-0.2718;
147.0000;0.1498;-0.2818;
147.3000;0.1490;-0.2768;
147.6000;0.1530;-0.2618;
147.9000;0.1481;-0.2693;
148.2000;0.1514;-0.2618;
148.5000;0.1490;-0.2693;
148.8000;0.1490;-0.2568;
149.1000;0.1506;-0.2543;
149.4000;0.1514;-0.2468;
149.7000;0.1530;-0.2468;
150.0000;0.1490;-0.2618;
150.3000;0.1506;-0.2668;
150.6000;0.1506;-0.2643;
150.9000;0.1522;-0.2543;
151.2000;0.1481;-0.2593;
151.5000;0.1490;-0.2643;
151.8000;0.1538;-0.2568;
152.1000;0.1490;-0.2593;
152.4000;0.1481;-0.2618;
152.7000;0.1490;-0.2643;
153.0000;0.1490;-0.2693;
153.3000;0.1506;-0.2618;
153.6000;0.1498;-0.2643;
153.9000;0.1506;-0.2593;
154.2000;0.1481;-0.2718;
154.5000;0.1530;-0.2643;
154.8000;0.1498;-0.2818;
155.1000;0.1481;-0.2768;
155.4000;0.1481;-0.2768;
155.7000;0.1538;-0.2668;
156.0000;0.1473;-0.2818;
156.3000;0.1498;-0.2743;
156.6000;0.1506;-0.2768;
156.9000;0.1481;-0.2842;
157.2000;0.1498;-0.2867;
157.5000;0.1481;-0.3017;
157.8000;0.1490;-0.2917;
158.1000;0.1514;-0.2818;
158.4000;0.1490;-0.2768;
158.7000;0.1538;-0.2668;
159.0000;0.1490;-0.2867;
159.3000;0.1473;-0.2992;
159.6000;0.1498;-0.2967;
159.9000;0.1514;-0.2942;
160.2000;0.1506;-0.2842;
160.5000;0.1473;-0.2892;
160.8000;0.1490;-0.2892;
161.1000;0.1587;-0.2618;
161.4000;0.1490;-0.2842;
161.7000;0.1490;-0.2892;
162.0000;0.1481;-0.2942;
162.3000;0.1481;-0.2867;
162.6000;0.1441;-0.2917;
162.9000;0.1522;-0.2743;
163.2000;0.1481;-0.2768;
163.5000;0.1490;-0.2768;
163.8000;0.1490;-0.2768;
164.1000;0.1465;-0.2818;
164.4000;0.1490;-0.2818;
164.7000;0.1498;-0.2793;
165.0000;0.1506;-0.2892;
165.3000;0.1473;-0.2992;
165.6000;0.1490;-0.2992;
165.9000;0.1490;-0.2917;
166.2000;0.1490;-0.2892;
166.5000;0.1498;-0.2818;
166.8000;0.1449;-0.2892;
167.1000;0.1481;-0.2818;
167.4000;0.1498;-0.2718;
167.7000;0.1481;-0.2768;
168.0000;0.1490;-0.2718;
168.3000;0.1522;-0.2668;
168.6000;0.1506;-0.2768;
168.9000;0.1498;-0.2643;
169.2000;0.1498;-0.2593;
169.5000;0.1457;-0.2718;
169.8000;0.1490;-0.2768;
170.1000;0.1457;-0.2818;
170.4000;0.1481;-0.2693;
170.7000;0.1490;-0.2693;
171.0000;0.1465;-0.2668;
171.3000;0.1465;-0.2668;
171.6000;0.1506;-0.2668;
171.9000;0.1490;-0.2793;
172.2000;0.1457;-0.2992;
172.5000;0.1481;-0.2867;
172.8000;0.1490;-0.2743;
173.1000;0.1514;-0.2618;
173.4000;0.1490;-0.2543;
173.7000;0.1465;-0.2543;
174.0000;0.1498;-0.2493;
174.3000;0.1481;-0.2568;
174.6000;0.1481;-0.2568;
174.9000;0.1490;-0.2593;
175.2000;0.1514;-0.2568;
175.5000;0.1490;-0.2618;
175.8000;0.1449;-0.2668;
176.1000;0.1490;-0.2518;
176.4000;0.1490;-0.2568;
176.7000;0.1481;-0.2618;
177.0000;0.1514;-0.2568;
177.3000;0.1498;-0.2618;
177.6000;0.1498;-0.2618;
177.9000;0.1481;-0.2643;
178.2000;0.1481;-0.2718;
178.5000;0.1473;-0.2768;
178.8000;0.1498;-0.2718;
179.1000;0.1481;-0.2718;
179.4000;0.1481;-0.2743;
179.7000;0.1473;-0.2743;
180.0000;0.1514;-0.2643;
180.3000;0.1498;-0.2718;
180.6000;0.1522;-0.2693;
180.9000;0.1498;-0.2743;
181.2000;0.1481;-0.2768;
181.5000;0.1498;-0.2718;
181.8000;0.1498;-0.2693;
182.1000;0.1481;-0.2768;
182.4000;0.1490;-0.2743;
182.7000;0.1555;-0.2543;
183.0000;0.1498;-0.2718;
183.3000;0.1514;-0.2668;
183.6000;0.1530;-0.2493;
183.9000;0.1481;-0.2668;
184.2000;0.1514;-0.2568;
184.5000;0.1506;-0.2643;
184.8000;0.1481;-0.2693;
185.1000;0.1481;-0.2743;
185.4000;0.1465;-0.2668;
185.7000;0.1400;-0.2917;
186.0000;0.1490;-0.2618;
186.3000;0.1522;-0.2568;
186.6000;0.1481;-0.2693;
186.9000;0.1490;-0.2668;
187.2000;0.1449;-0.2693;
187.5000;0.1547;-0.2518;
187.8000;0.1465;-0.2768;
188.1000;0.1416;-0.2842;
188.4000;0.1473;-0.2693;
188.7000;0.1473;-0.2743;
189.0000;0.1490;-0.2743;
189.3000;0.1473;-0.2743;
189.6000;0.1449;-0.2867;
189.9000;0.1481;-0.2768;
190.2000;0.1498;-0.2793;
190.5000;0.1490;-0.2842;
190.8000;0.1481;-0.2818;
191.1000;0.1506;-0.2743;
191.4000;0.1490;-0.2793;
191.7000;0.1481;-0.2818;
192.0000;0.1490;-0.2818;
192.3000;0.1465;-0.2793;
192.6000;0.1498;-0.2643;
192.9000;0.1498;-0.2593;
193.2000;0.1506;-0.2643;
193.5000;0.1490;-0.2668;
193.8000;0.1490;-0.2593;
194.1000;0.1490;-0.2568;
194.4000;0.1490;-0.2543;
194.7000;0.1490;-0.2593;
195.0000;0.1490;-0.2593;
195.3000;0.1481;-0.2593;
195.6000;0.1473;-0.2568;
195.9000;0.1481;-0.2643;
196.2000;0.1481;-0.2693;
196.5000;0.1490;-0.2718;
196.8000;0.1498;-0.2718;
197.1000;0.1506;-0.2693;
197.4000;0.1457;-0.2643;
197.7000;0.1481;-0.2568;
198.0000;0.1481;-0.2543;
198.3000;0.1498;-0.2518;
198.6000;0.1473;-0.2643;
198.9000;0.1498;-0.2618;
199.2000;0.1465;-0.2743;
199.5000;0.1490;-0.2743;
199.8000;0.1490;-0.2668;
200.1000;0.1481;-0.2618;
200.4000;0.1547;-0.2394;
200.7000;0.1481;-0.2543;
201.0000;0.1571;-0.2319;
201.3000;0.1498;-0.2518;
201.6000;0.1530;-0.2369;
201.9000;0.1498;-0.2319;
202.2000;0.1530;-0.2269;
202.5000;0.1498;-0.2319;
202.8000;0.1514;-0.2394;
203.1000;0.1506;-0.2518;
203.4000;0.1498;-0.2518;
203.7000;0.1498;-0.2568;
204.0000;0.1490;-0.2643;
204.3000;0.1506;-0.2643;
204.6000;0.1498;-0.2493;
204.9000;0.1473;-0.2493;
205.2000;0.1530;-0.2319;
205.5000;0.1441;-0.2568;
205.8000;0.1457;-0.2693;
206.1000;0.1522;-0.2568;
206.4000;0.1530;-0.2618;
206.7000;0.1490;-0.2718;
207.0000;0.1498;-0.2768;
207.3000;0.1490;-0.2892;
207.6000;0.1490;-0.2793;
207.9000;0.1490;-0.2793;
208.2000;0.1416;-0.3017;
208.5000;0.1473;-0.2892;
208.8000;0.1538;-0.2668;
209.1000;0.1498;-0.2842;
209.4000;0.1400;-0.2992;
209.7000;0.1465;-0.2718;
210.0000;0.1473;-0.2818;
210.3000;0.1530;-0.2693;
210.6000;0.1481;-0.2842;
210.9000;0.1498;-0.2818;
211.2000;0.1498;-0.2743;
211.5000;0.1514;-0.2643;
211.8000;0.1498;-0.2668;
212.1000;0.1481;-0.2693;
212.4000;0.1457;-0.2718;
212.7000;0.1473;-0.2743;
213.0000;0.1490;-0.2693;
213.3000;0.1481;-0.2718;
213.6000;0.1506;-0.2643;
213.9000;0.1465;-0.2668;
214.2000;0.1473;-0.2743;
214.5000;0.1490;-0.2718;
214.8000;0.1465;-0.2842;
215.1000;0.1481;-0.2793;
215.4000;0.1481;-0.2718;
215.7000;0.1498;-0.2818;
216.0000;0.1498;-0.2842;
216.3000;0.1465;-0.2942;
216.6000;0.1498;-0.2942;
216.9000;0.1498;-0.2892;
217.2000;0.1473;-0.2917;
217.5000;0.1490;-0.2892;
217.8000;0.1481;-0.2942;
218.1000;0.1481;-0.3017;
218.4000;0.1498;-0.2967;
218.7000;0.1473;-0.3042;
219.0000;0.1473;-0.3117;
219.3000;0.1514;-0.2867;
219.6000;0.1490;-0.2842;
219.9000;0.1481;-0.2892;
220.2000;0.1457;-0.2942;
220.5000;0.1498;-0.2892;
220.8000;0.1481;-0.2917;
221.1000;0.1465;-0.2942;
221.4000;0.1490;-0.2917;
221.7000;0.1457;-0.2917;
222.0000;0.1490;-0.2867;
222.3000;0.1481;-0.2867;
222.6000;0.1481;-0.2867;
222.9000;0.1449;-0.2867;
223.2000;0.1481;-0.2867;
223.5000;0.1490;-0.2892;
223.8000;0.1457;-0.2967;
224.1000;0.1498;-0.2942;
224.4000;0.1481;-0.3042;
224.7000;0.1498;-0.3017;
225.0000;0.1481;-0.3067;
225.3000;0.1481;-0.3092;
225.6000;0.1498;-0.3017;
225.9000;0.1498;-0.2992;
226.2000;0.1514;-0.2967;
226.5000;0.1473;-0.2992;
226.8000;0.1498;-0.2867;
227.1000;0.1522;-0.2768;
227.4000;0.1490;-0.2842;
227.7000;0.1522;-0.2743;
228.0000;0.1481;-0.2818;
228.3000;0.1514;-0.2668;
228.6000;0.1457;-0.2818;
228.9000;0.1473;-0.2842;
229.2000;0.1563;-0.2668;
229.5000;0.1498;-0.2842;
229.8000;0.1522;-0.2793;
230.1000;0.1490;-0.2793;
230.4000;0.1481;-0.2818;
230.7000;0.1498;-0.2842;
231.0000;0.1514;-0.2818;
231.3000;0.1449;-0.2867;
231.6000;0.1441;-0.2818;
231.9000;0.1473;-0.2668;
232.2000;0.1481;-0.2668;
232.5000;0.1490;-0.2668;
232.8000;0.1506;-0.2543;
233.1000;0.1433;-0.2718;
233.4000;0.1465;-0.2618;
233.7000;0.1473;-0.2618;
234.0000;0.1473;-0.2643;
234.3000;0.1481;-0.2718;
234.6000;0.1457;-0.2743;
234.9000;0.1490;-0.2693;
235.2000;0.1490;-0.2718;
235.5000;0.1481;-0.2768;
235.8000;0.1481;-0.2793;
236.1000;0.1506;-0.2842;
236.4000;0.1490;-0.2867;
236.7000;0.1473;-0.2967;
237.0000;0.1498;-0.2967;
237.3000;0.1498;-0.3067;
237.6000;0.1587;-0.2743;
237.9000;0.1473;-0.3017;
238.2000;0.1449;-0.3017;
238.5000;0.1465;-0.2892;
238.8000;0.1481;-0.2818;
239.1000;0.1449;-0.2842;
239.4000;0.1473;-0.2842;
239.7000;0.1473;-0.2743;
240.0000;0.1481;-0.2718;
240.3000;0.1481;-0.2768;
240.6000;0.1490;-0.2693;
240.9000;0.1498;-0.2693;
241.2000;0.1506;-0.2643;
241.5000;0.1522;-0.2618;
241.8000;0.1490;-0.2693;
242.1000;0.1498;-0.2668;
242.4000;0.1490;-0.2593;
242.7000;0.1490;-0.2618;
243.0000;0.1481;-0.2568;
243.3000;0.1481;-0.2693;
243.6000;0.1506;-0.2618;
243.9000;0.1490;-0.2618;
244.2000;0.1481;-0.2618;
244.5000;0.1465;-0.2643;
244.8000;0.1449;-0.2718;
245.1000;0.1481;-0.2768;
245.4000;0.1457;-0.2917;
245.7000;0.1538;-0.2768;
246.0000;0.1490;-0.2743;
246.3000;0.1530;-0.2693;
246.6000;0.1498;-0.2942;
246.9000;0.1473;-0.2842;
247.2000;0.1506;-0.2867;
247.5000;0.1473;-0.2967;
247.8000;0.1506;-0.2967;
248.1000;0.1481;-0.3017;
248.4000;0.1481;-0.2967;
248.7000;0.1530;-0.2867;
249.0000;0.1498;-0.2867;
249.3000;0.1433;-0.2917;
249.6000;0.1481;-0.2793;
249.9000;0.1498;-0.2743;
250.2000;0.1498;-0.2718;
250.5000;0.1490;-0.2768;
250.8000;0.1571;-0.2468;
251.1000;0.1530;-0.2618;
251.4000;0.1498;-0.2668;
251.7000;0.1490;-0.2718;
252.0000;0.1498;-0.2643;
252.3000;0.1506;-0.2593;
252.6000;0.1490;-0.2668;
252.9000;0.1506;-0.2593;
253.2000;0.1481;-0.2618;
253.5000;0.1481;-0.2668;
253.8000;0.1498;-0.2643;
254.1000;0.1490;-0.2743;
254.4000;0.1490;-0.2793;
254.7000;0.1498;-0.2818;
255.0000;0.1490;-0.2768;
255.3000;0.1490;-0.2718;
255.6000;0.1400;-0.2942;
255.9000;0.1490;-0.2768;
256.2000;0.1506;-0.2743;
256.5000;0.1490;-0.2743;
256.8000;0.1481;-0.2718;
257.1000;0.1465;-0.2718;
257.4000;0.1465;-0.2643;
257.7000;0.1498;-0.2593;
258.0000;0.1473;-0.2743;
258.3000;0.1481;-0.2718;
258.6000;0.1481;-0.2818;
258.9000;0.1473;-0.2793;
259.2000;0.1490;-0.2743;
259.5000;0.1490;-0.2743;
259.8000;0.1481;-0.2718;
260.1000;0.1465;-0.2743;
260.4000;0.1490;-0.2718;
260.7000;0.1498;-0.2743;
261.0000;0.1481;-0.2693;
261.3000;0.1514;-0.2643;
261.6000;0.1514;-0.2618;
261.9000;0.1465;-0.2693;
262.2000;0.1481;-0.2568;
262.5000;0.1481;-0.2518;
262.8000;0.1490;-0.2493;
263.1000;0.1481;-0.2543;
263.4000;0.1441;-0.2718;
263.7000;0.1481;-0.2668;
264.0000;0.1490;-0.2693;
264.3000;0.1473;-0.2818;
264.6000;0.1473;-0.2818;
264.9000;0.1473;-0.2668;
265.2000;0.1490;-0.2643;
265.5000;0.1514;-0.2543;
265.8000;0.1498;-0.2693;
266.1000;0.1490;-0.2718;
266.4000;0.1490;-0.2693;
266.7000;0.1473;-0.2668;
267.0000;0.1473;-0.2468;
267.3000;0.1465;-0.2543;
267.6000;0.1490;-0.2518;
267.9000;0.1498;-0.2543;
268.2000;0.1481;-0.2543;
268.5000;0.1473;-0.2568;
268.8000;0.1465;-0.2493;
269.1000;0.1490;-0.2543;
269.4000;0.1481;-0.2643;
269.7000;0.1481;-0.2693;
270.0000;0.1490;-0.2693;
270.3000;0.1490;-0.2543;
270.6000;0.1498;-0.2593;
270.9000;0.1481;-0.2693;
271.2000;0.1481;-0.2793;
271.5000;0.1506;-0.2718;
271.8000;0.1481;-0.2818;
272.1000;0.1490;-0.2917;
272.4000;0.1481;-0.2917;
272.7000;0.1473;-0.2842;
273.0000;0.1465;-0.2917;
273.3000;0.1457;-0.2768;
273.6000;0.1449;-0.2793;
273.9000;0.1473;-0.2818;
274.2000;0.1506;-0.2768;
274.5000;0.1490;-0.2818;
274.8000;0.1498;-0.2743;
275.1000;0.1473;-0.2768;
275.4000;0.1473;-0.2743;
275.7000;0.1481;-0.2618;
276.0000;0.1498;-0.2543;
276.3000;0.1490;-0.2618;
276.6000;0.1433;-0.2842;
276.9000;0.1490;-0.2693;
277.2000;0.1481;-0.2693;
277.5000;0.1481;-0.2743;
277.8000;0.1490;-0.2818;
278.1000;0.1498;-0.2892;
278.4000;0.1498;-0.2867;
278.7000;0.1490;-0.2842;
279.0000;0.1490;-0.2768;
279.3000;0.1473;-0.2768;
279.6000;0.1481;-0.2718;
279.9000;0.1481;-0.2743;
280.2000;0.1490;-0.2718;
280.5000;0.1449;-0.2842;
280.8000;0.1490;-0.2793;
281.1000;0.1481;-0.2793;
281.4000;0.1481;-0.2818;
281.7000;0.1490;-0.2842;
282.0000;0.1457;-0.2967;
282.3000;0.1481;-0.2818;
282.6000;0.1457;-0.2917;
282.9000;0.1498;-0.2768;
283.2000;0.1481;-0.2693;
283.5000;0.1465;-0.2718;
283.8000;0.1481;-0.2643;
284.1000;0.1481;-0.2668;
284.4000;0.1490;-0.2668;
284.7000;0.1490;-0.2743;
285.0000;0.1481;-0.2768;
285.3000;0.1506;-0.2668;
285.6000;0.1449;-0.2768;
285.9000;0.1506;-0.2618;
286.2000;0.1481;-0.2693;
286.5000;0.1473;-0.2643;
286.8000;0.1498;-0.2618;
287.1000;0.1490;-0.2718;
287.4000;0.1490;-0.2718;
287.7000;0.1473;-0.2718;
288.0000;0.1473;-0.2768;
288.3000;0.1449;-0.2867;
288.6000;0.1473;-0.2867;
288.9000;0.1490;-0.2992;
289.2000;0.1481;-0.2967;
289.5000;0.1490;-0.2867;
289.8000;0.1498;-0.2793;
290.1000;0.1498;-0.2818;
290.4000;0.1498;-0.2867;
290.7000;0.1498;-0.2718;
291.0000;0.1433;-0.2917;
291.3000;0.1490;-0.2768;
291.6000;0.1530;-0.2643;
291.9000;0.1473;-0.2668;
292.2000;0.1465;-0.2668;
292.5000;0.1465;-0.2643;
292.8000;0.1465;-0.2718;
293.1000;0.1449;-0.2818;
293.4000;0.1481;-0.2743;
293.7000;0.1490;-0.2718;
294.0000;0.1465;-0.2693;
294.3000;0.1481;-0.2743;
294.6000;0.1473;-0.2743;
294.9000;0.1465;-0.2793;
295.2000;0.1441;-0.2743;
295.5000;0.1473;-0.2768;
295.8000;0.1473;-0.2743;
296.1000;0.1514;-0.2693;
296.4000;0.1490;-0.2743;
296.7000;0.1514;-0.2693;
297.0000;0.1465;-0.2842;
297.3000;0.1481;-0.2718;
297.6000;0.1490;-0.2768;
297.9000;0.1465;-0.2892;
298.2000;0.1481;-0.2892;
298.5000;0.1506;-0.2892;
298.8000;0.1473;-0.3017;
299.1000;0.1490;-0.2917;
299.4000;0.1514;-0.2842;
299.7000;0.1441;-0.2942;
300.0000;0.1498;-0.2867;
300.3000;0.1547;-0.2718;
300.6000;0.1490;-0.2867;
300.9000;0.1473;-0.2892;
301.2000;0.1514;-0.2842;
301.5000;0.1481;-0.2892;
301.8000;0.1522;-0.2718;
302.1000;0.1473;-0.2793;
302.4000;0.1433;-0.2967;
302.7000;0.1465;-0.2892;
303.0000;0.1481;-0.2967;
303.3000;0.1587;-0.2718;
303.6000;0.1481;-0.3067;
303.9000;0.1481;-0.3067;
304.2000;0.1490;-0.3042;
304.5000;0.1481;-0.2992;
304.8000;0.1498;-0.2992;
305.1000;0.1481;-0.3067;
305.4000;0.1490;-0.3017;
305.7000;0.1473;-0.2967;
306.0000;0.1498;-0.2917;
306.3000;0.1514;-0.2818;
306.6000;0.1555;-0.2768;
306.9000;0.1490;-0.2942;
307.2000;0.1457;-0.3042;
307.5000;0.1522;-0.2917;
307.8000;0.1498;-0.2967;
308.1000;0.1473;-0.3042;
308.4000;0.1490;-0.3067;
308.7000;0.1473;-0.3017;
309.0000;0.1473;-0.3042;
309.3000;0.1465;-0.2992;
309.6000;0.1481;-0.2967;
309.9000;0.1490;-0.2967;
310.2000;0.1441;-0.3017;
310.5000;0.1490;-0.2917;
310.8000;0.1490;-0.2892;
311.1000;0.1498;-0.2917;
311.4000;0.1481;-0.2842;
311.7000;0.1481;-0.2917;
312.0000;0.1490;-0.2818;
312.3000;0.1498;-0.2818;
312.6000;0.1481;-0.2768;
312.9000;0.1481;-0.2768;
313.2000;0.1481;-0.2818;
313.5000;0.1490;-0.2793;
313.8000;0.1481;-0.2917;
314.1000;0.1465;-0.3017;
314.4000;0.1490;-0.2992;
314.7000;0.1498;-0.2967;
315.0000;0.1473;-0.2942;
315.3000;0.1490;-0.2917;
315.6000;0.1490;-0.2892;
315.9000;0.1481;-0.2793;
316.2000;0.1457;-0.2768;
316.5000;0.1416;-0.2842;
316.8000;0.1457;-0.2718;
317.1000;0.1473;-0.2743;
317.4000;0.1473;-0.2718;
317.7000;0.1473;-0.2693;
318.0000;0.1490;-0.2693;
318.3000;0.1490;-0.2768;
318.6000;0.1490;-0.2743;
318.9000;0.1498;-0.2668;
319.2000;0.1457;-0.2668;
319.5000;0.1481;-0.2768;
319.8000;0.1481;-0.2768;
320.1000;0.1530;-0.2618;
320.4000;0.1481;-0.2643;
320.7000;0.1490;-0.2543;
321.0000;0.1473;-0.2568;
321.3000;0.1555;-0.2468;
321.6000;0.1465;-0.2643;
321.9000;0.1457;-0.2818;
322.2000;0.1457;-0.2842;
322.5000;0.1473;-0.2942;
322.8000;0.1490;-0.2967;
323.1000;0.1473;-0.3017;
323.4000;0.1473;-0.2967;
323.7000;0.1506;-0.2818;
324.0000;0.1473;-0.2842;
324.3000;0.1465;-0.2768;
324.6000;0.1465;-0.2743;
324.9000;0.1441;-0.2793;
325.2000;0.1449;-0.2842;
325.5000;0.1473;-0.2718;
325.8000;0.1425;-0.2842;
326.1000;0.1498;-0.2718;
326.4000;0.1481;-0.2693;
326.7000;0.1473;-0.2643;
327.0000;0.1481;-0.2643;
327.3000;0.1457;-0.2768;
327.6000;0.1473;-0.2718;
327.9000;0.1490;-0.2768;
328.2000;0.1547;-0.2518;
328.5000;0.1498;-0.2693;
328.8000;0.1457;-0.2718;
329.1000;0.1457;-0.2693;
329.4000;0.1465;-0.2643;
329.7000;0.1457;-0.2618;
330.0000;0.1481;-0.2518;
330.3000;0.1530;-0.2419;
330.6000;0.1473;-0.2618;
330.9000;0.1465;-0.2718;
331.2000;0.1449;-0.2743;
331.5000;0.1490;-0.2718;
331.8000;0.1490;-0.2693;
332.1000;0.1481;-0.2718;
332.4000;0.1481;-0.2793;
332.7000;0.1514;-0.2668;
333.0000;0.1481;-0.2718;
333.3000;0.1473;-0.2842;
333.6000;0.1481;-0.2818;
333.9000;0.1490;-0.2818;
334.2000;0.1473;-0.2793;
334.5000;0.1473;-0.2818;
334.8000;0.1473;-0.2768;
335.1000;0.1490;-0.2693;
335.4000;0.1481;-0.2668;
335.7000;0.1473;-0.2743;
336.0000;0.1473;-0.2718;
336.3000;0.1473;-0.2693;
336.6000;0.1473;-0.2768;
336.9000;0.1481;-0.2743;
337.2000;0.1457;-0.2842;
337.5000;0.1441;-0.2818;
337.8000;0.1433;-0.2842;
338.1000;0.1408;-0.2917;
338.4000;0.1481;-0.2743;
338.7000;0.1473;-0.2842;
339.0000;0.1490;-0.2867;
339.3000;0.1506;-0.2793;
339.6000;0.1408;-0.2942;
339.9000;0.1490;-0.2867;
340.2000;0.1498;-0.2867;
340.5000;0.1481;-0.2793;
340.8000;0.1481;-0.2818;
341.1000;0.1473;-0.2768;
341.4000;0.1498;-0.2618;
341.7000;0.1473;-0.2593;
342.0000;0.1465;-0.2568;
342.3000;0.1490;-0.2419;
342.6000;0.1473;-0.2394;
342.9000;0.1498;-0.2344;
343.2000;0.1490;-0.2493;
343.5000;0.1449;-0.2593;
343.8000;0.1481;-0.2493;
344.1000;0.1473;-0.2518;
344.4000;0.1514;-0.2444;
344.7000;0.1481;-0.2543;
345.0000;0.1514;-0.2419;
345.3000;0.1457;-0.2543;
345.6000;0.1481;-0.2518;
345.9000;0.1490;-0.2593;
346.2000;0.1457;-0.2668;
346.5000;0.1481;-0.2768;
346.8000;0.1490;-0.2892;
347.1000;0.1522;-0.2718;
347.4000;0.1481;-0.2867;
347.7000;0.1490;-0.2793;
348.0000;0.1481;-0.2718;
348.3000;0.1425;-0.2743;
348.6000;0.1473;-0.2693;
348.9000;0.1465;-0.2818;
349.2000;0.1416;-0.2917;
349.5000;0.1481;-0.2668;
349.8000;0.1579;-0.2518;
350.1000;0.1473;-0.2842;
350.4000;0.1473;-0.2892;
350.7000;0.1473;-0.2818;
351.0000;0.1473;-0.2842;
351.3000;0.1481;-0.2793;
351.6000;0.1490;-0.2793;
351.9000;0.1481;-0.2718;
352.2000;0.1481;-0.2743;
352.5000;0.1473;-0.2818;
352.8000;0.1490;-0.2768;
353.1000;0.1481;-0.2743;
353.4000;0.1473;-0.2768;
353.7000;0.1441;-0.2818;
354.0000;0.1490;-0.2743;
354.3000;0.1465;-0.2718;
354.6000;0.1457;-0.2818;
354.9000;0.1465;-0.2818;
355.2000;0.1481;-0.2768;
355.5000;0.1473;-0.2842;
355.8000;0.1408;-0.3042;
356.1000;0.1473;-0.2793;
356.4000;0.1473;-0.2668;
356.7000;0.1449;-0.2768;
357.0000;0.1473;-0.2668;
357.3000;0.1498;-0.2693;
357.6000;0.1416;-0.3017;
357.9000;0.1490;-0.2768;
358.2000;0.1473;-0.2818;
358.5000;0.1530;-0.2718;
358.8000;0.1465;-0.2793;
359.1000;0.1481;-0.2818;
359.4000;0.1465;-0.2842;
359.7000;0.1473;-0.2768;
360.0000;0.1481;-0.2867;
360.3000;0.1433;-0.3017;
360.6000;0.1433;-0.2942;
360.9000;0.1481;-0.2917;
361.2000;0.1449;-0.2942;
361.5000;0.1473;-0.2892;
361.8000;0.1465;-0.2917;
362.1000;0.1465;-0.2942;
362.4000;0.1473;-0.2967;
362.7000;0.1465;-0.3042;
363.0000;0.1441;-0.3142;
363.3000;0.1481;-0.2917;
363.6000;0.1465;-0.2992;
363.9000;0.1473;-0.2917;
364.2000;0.1490;-0.2892;
364.5000;0.1481;-0.2892;
364.8000;0.1457;-0.2892;
365.1000;0.1465;-0.2917;
365.4000;0.1473;-0.2942;
365.7000;0.1555;-0.2793;
366.0000;0.1490;-0.2992;
366.3000;0.1473;-0.3117;
366.6000;0.1481;-0.3167;
366.9000;0.1490;-0.3092;
367.2000;0.1530;-0.2967;
367.5000;0.1465;-0.3117;
367.8000;0.1481;-0.3092;
368.1000;0.1481;-0.3142;
368.4000;0.1490;-0.3042;
368.7000;0.1490;-0.3117;
369.0000;0.1490;-0.3092;
369.3000;0.1490;-0.3117;
369.6000;0.1481;-0.3067;
369.9000;0.1490;-0.3117;
370.2000;0.1473;-0.3092;
370.5000;0.1490;-0.3142;
370.8000;0.1498;-0.3067;
371.1000;0.1481;-0.3117;
371.4000;0.1465;-0.3167;
371.7000;0.1465;-0.3142;
372.0000;0.1490;-0.3017;
372.3000;0.1473;-0.2917;
372.6000;0.1473;-0.2818;
372.9000;0.1465;-0.2768;
373.2000;0.1473;-0.2793;
373.5000;0.1441;-0.2892;
373.8000;0.1457;-0.2842;
374.1000;0.1473;-0.2892;
374.4000;0.1514;-0.2768;
374.7000;0.1465;-0.2842;
375.0000;0.1473;-0.2768;
375.3000;0.1473;-0.2842;
375.6000;0.1481;-0.2793;
375.9000;0.1481;-0.2793;
376.2000;0.1498;-0.2743;
376.5000;0.1490;-0.2892;
376.8000;0.1481;-0.2867;
377.1000;0.1498;-0.2793;
377.4000;0.1506;-0.2668;
377.7000;0.1530;-0.2518;
378.0000;0.1481;-0.2618;
378.3000;0.1490;-0.2618;
378.6000;0.1506;-0.2493;
378.9000;0.1473;-0.2568;
379.2000;0.1465;-0.2718;
379.5000;0.1490;-0.2818;
379.8000;0.1465;-0.2842;
380.1000;0.1473;-0.2842;
380.4000;0.1481;-0.2867;
380.7000;0.1498;-0.2743;
381.0000;0.1481;-0.2793;
381.3000;0.1481;-0.2867;
381.6000;0.1481;-0.2768;
381.9000;0.1481;-0.2718;
382.2000;0.1481;-0.2718;
382.5000;0.1506;-0.2618;
382.8000;0.1490;-0.2743;
383.1000;0.1473;-0.2793;
383.4000;0.1473;-0.2793;
383.7000;0.1441;-0.2892;
384.0000;0.1473;-0.2917;
384.3000;0.1465;-0.2867;
384.6000;0.1473;-0.2768;
384.9000;0.1457;-0.2793;
385.2000;0.1457;-0.2743;
385.5000;0.1473;-0.2718;
385.8000;0.1481;-0.2718;
386.1000;0.1522;-0.2668;
386.4000;0.1473;-0.2718;
386.7000;0.1473;-0.2693;
387.0000;0.1481;-0.2668;
387.3000;0.1490;-0.2693;
387.6000;0.1473;-0.2693;
387.9000;0.1481;-0.2768;
388.2000;0.1481;-0.2743;
388.5000;0.1465;-0.2718;
388.8000;0.1481;-0.2668;
389.1000;0.1481;-0.2643;
389.4000;0.1449;-0.2668;
389.7000;0.1490;-0.2643;
390.0000;0.1481;-0.2693;
390.3000;0.1351;-0.3042;
390.6000;0.1473;-0.2867;
390.9000;0.1490;-0.2842;
391.2000;0.1579;-0.2593;
391.5000;0.1481;-0.2793;
391.8000;0.1490;-0.2768;
392.1000;0.1498;-0.2668;
392.4000;0.1506;-0.2693;
392.7000;0.1481;-0.2768;
393.0000;0.1498;-0.2668;
393.3000;0.1465;-0.2593;
393.6000;0.1490;-0.2543;
393.9000;0.1473;-0.2593;
394.2000;0.1465;-0.2568;
394.5000;0.1473;-0.2643;
394.8000;0.1473;-0.2693;
395.1000;0.1490;-0.2718;
395.4000;0.1506;-0.2643;
395.7000;0.1473;-0.2768;
396.0000;0.1473;-0.2818;
396.3000;0.1490;-0.2818;
396.6000;0.1498;-0.2892;
396.9000;0.1481;-0.2967;
397.2000;0.1498;-0.2967;
397.5000;0.1481;-0.3042;
397.8000;0.1490;-0.3017;
398.1000;0.1481;-0.3017;
398.4000;0.1538;-0.2842;
398.7000;0.1465;-0.2967;
399.0000;0.1481;-0.2942;
399.3000;0.1481;-0.2818;
399.6000;0.1481;-0.2743;
399.9000;0.1473;-0.2743;
400.2000;0.1481;-0.2743;
400.5000;0.1481;-0.2818;
400.8000;0.1457;-0.2917;
401.1000;0.1498;-0.2768;
401.4000;0.1498;-0.2693;
401.7000;0.1547;-0.2668;
402.0000;0.1498;-0.2818;
402.3000;0.1481;-0.2842;
402.6000;0.1481;-0.2718;
402.9000;0.1473;-0.2693;
403.2000;0.1449;-0.2793;
403.5000;0.1473;-0.2693;
403.8000;0.1481;-0.2668;
404.1000;0.1490;-0.2693;
404.4000;0.1457;-0.2693;
404.7000;0.1481;-0.2743;
405.0000;0.1481;-0.2793;
405.3000;0.1481;-0.2917;
405.6000;0.1473;-0.2892;
405.9000;0.1473;-0.2917;
406.2000;0.1490;-0.2917;
406.5000;0.1481;-0.2942;
406.8000;0.1481;-0.2942;
407.1000;0.1490;-0.2892;
407.4000;0.1490;-0.2793;
407.7000;0.1481;-0.2718;
408.0000;0.1481;-0.2718;
408.3000;0.1465;-0.2842;
408.6000;0.1481;-0.2793;
408.9000;0.1481;-0.2743;
409.2000;0.1473;-0.2743;
409.5000;0.1449;-0.2842;
409.8000;0.1465;-0.2867;
410.1000;0.1457;-0.2942;
410.4000;0.1465;-0.2967;
410.7000;0.1490;-0.2892;
411.0000;0.1473;-0.2967;
411.3000;0.1481;-0.2917;
411.6000;0.1481;-0.2892;
411.9000;0.1490;-0.2917;
412.2000;0.1481;-0.2842;
412.5000;0.1490;-0.2793;
412.8000;0.1522;-0.2668;
413.1000;0.1506;-0.2693;
413.4000;0.1481;-0.2668;
413.7000;0.1490;-0.2543;
414.0000;0.1514;-0.2618;
414.3000;0.1465;-0.2768;
414.6000;0.1498;-0.2643;
414.9000;0.1490;-0.2718;
415.2000;0.1490;-0.2668;
415.5000;0.1449;-0.2718;
415.8000;0.1473;-0.2518;
416.1000;0.1457;-0.2568;
416.4000;0.1490;-0.2444;
416.7000;0.1481;-0.2568;
417.0000;0.1498;-0.2493;
417.3000;0.1473;-0.2543;
417.6000;0.1555;-0.2369;
417.9000;0.1490;-0.2593;
418.2000;0.1498;-0.2643;
418.5000;0.1473;-0.2693;
418.8000;0.1400;-0.2917;
419.1000;0.1481;-0.2693;
419.4000;0.1473;-0.2793;
419.7000;0.1473;-0.2793;
420.0000;0.1441;-0.2867;
420.3000;0.1481;-0.2917;
420.6000;0.1490;-0.2892;
420.9000;0.1506;-0.2768;
421.2000;0.1498;-0.2818;
421.5000;0.1490;-0.2793;
421.8000;0.1481;-0.2693;
422.1000;0.1481;-0.2618;
422.4000;0.1490;-0.2593;
422.7000;0.1498;-0.2618;
423.0000;0.1465;-0.2718;
423.3000;0.1481;-0.2643;
423.6000;0.1473;-0.2693;
423.9000;0.1490;-0.2668;
424.2000;0.1457;-0.2793;
424.5000;0.1457;-0.2818;
424.8000;0.1473;-0.2892;
425.1000;0.1465;-0.2842;
425.4000;0.1465;-0.2867;
425.7000;0.1490;-0.2867;
426.0000;0.1490;-0.2842;
426.3000;0.1481;-0.2917;
426.6000;0.1457;-0.2892;
426.9000;0.1481;-0.2818;
427.2000;0.1481;-0.2967;
427.5000;0.1498;-0.2992;
427.8000;0.1465;-0.3092;
428.1000;0.1490;-0.3067;
428.4000;0.1522;-0.2992;
428.7000;0.1473;-0.3067;
429.0000;0.1457;-0.3042;
429.3000;0.1498;-0.2867;
429.6000;0.1473;-0.2842;
429.9000;0.1473;-0.2892;
430.2000;0.1498;-0.2793;
430.5000;0.1473;-0.2743;
430.8000;0.1490;-0.2668;
431.1000;0.1457;-0.2693;
431.4000;0.1473;-0.2693;
431.7000;0.1498;-0.2618;
432.0000;0.1481;-0.2693;
432.3000;0.1498;-0.2668;
432.6000;0.1481;-0.2668;
432.9000;0.1473;-0.2643;
433.2000;0.1506;-0.2593;
433.5000;0.1481;-0.2618;
433.8000;0.1465;-0.2618;
434.1000;0.1514;-0.2643;
434.4000;0.1490;-0.2793;
434.7000;0.1498;-0.2867;
435.0000;0.1498;-0.2768;
435.3000;0.1522;-0.2743;
435.6000;0.1498;-0.2743;
435.9000;0.1473;-0.2842;
436.2000;0.1530;-0.2643;
436.5000;0.1465;-0.2793;
436.8000;0.1498;-0.2842;
437.1000;0.1481;-0.2768;
437.4000;0.1481;-0.2768;
437.7000;0.1490;-0.2768;
438.0000;0.1473;-0.2768;
438.3000;0.1473;-0.2743;
438.6000;0.1490;-0.2743;
438.9000;0.1555;-0.2643;
439.2000;0.1490;-0.2818;
439.5000;0.1465;-0.2917;
439.8000;0.1473;-0.2892;
440.1000;0.1473;-0.2842;
440.4000;0.1392;-0.3167;
440.7000;0.1473;-0.2917;
441.0000;0.1473;-0.2942;
441.3000;0.1433;-0.2917;
441.6000;0.1441;-0.2917;
441.9000;0.1465;-0.2867;
442.2000;0.1449;-0.2842;
442.5000;0.1538;-0.2668;
442.8000;0.1481;-0.2768;
443.1000;0.1473;-0.2718;
443.4000;0.1481;-0.2718;
443.7000;0.1457;-0.2743;
444.0000;0.1408;-0.2867;
444.3000;0.1449;-0.2718;
444.6000;0.1490;-0.2618;
444.9000;0.1473;-0.2693;
445.2000;0.1449;-0.2718;
445.5000;0.1457;-0.2668;
445.8000;0.1490;-0.2643;
446.1000;0.1498;-0.2568;
446.4000;0.1481;-0.2568;
446.7000;0.1473;-0.2593;
447.0000;0.1490;-0.2618;
447.3000;0.1481;-0.2693;
447.6000;0.1490;-0.2693;
447.9000;0.1481;-0.2743;
448.2000;0.1473;-0.2768;
448.5000;0.1425;-0.2892;
448.8000;0.1416;-0.2793;
449.1000;0.1465;-0.2593;
449.4000;0.1457;-0.2593;
449.7000;0.1425;-0.2768;
450.0000;0.1473;-0.2693;
450.3000;0.1465;-0.2818;
450.6000;0.1490;-0.2693;
450.9000;0.1473;-0.2768;
451.2000;0.1473;-0.2818;
451.5000;0.1473;-0.2793;
451.8000;0.1481;-0.2793;
452.1000;0.1506;-0.2768;
452.4000;0.1473;-0.2793;
452.7000;0.1473;-0.2818;
453.0000;0.1490;-0.2643;
453.3000;0.1498;-0.2593;
453.6000;0.1465;-0.2593;
453.9000;0.1490;-0.2643;
454.2000;0.1473;-0.2643;
454.5000;0.1473;-0.2593;
454.8000;0.1473;-0.2593;
455.1000;0.1481;-0.2668;
455.4000;0.1473;-0.2693;
455.7000;0.1433;-0.2892;
456.0000;0.1490;-0.2718;
456.3000;0.1473;-0.2668;
456.6000;0.1481;-0.2618;
456.9000;0.1473;-0.2618;
457.2000;0.1473;-0.2568;
457.5000;0.1481;-0.2543;
457.8000;0.1425;-0.2718;
458.1000;0.1481;-0.2693;
458.4000;0.1514;-0.2668;
458.7000;0.1498;-0.2718;
459.0000;0.1506;-0.2693;
459.3000;0.1416;-0.2967;
459.6000;0.1465;-0.2942;
459.9000;0.1473;-0.2892;
460.2000;0.1473;-0.2967;
460.5000;0.1465;-0.2892;
460.8000;0.1498;-0.2842;
461.1000;0.1490;-0.2842;
461.4000;0.1433;-0.2892;
461.7000;0.1465;-0.2818;
462.0000;0.1473;-0.2768;
462.3000;0.1473;-0.2867;
462.6000;0.1481;-0.2768;
462.9000;0.1481;-0.2693;
463.2000;0.1490;-0.2718;
463.5000;0.1481;-0.2693;
463.8000;0.1481;-0.2768;
464.1000;0.1473;-0.2842;
464.4000;0.1481;-0.2818;
464.7000;0.1473;-0.2818;
465.0000;0.1481;-0.2842;
465.3000;0.1481;-0.2892;
465.6000;0.1449;-0.2967;
465.9000;0.1473;-0.2917;
466.2000;0.1473;-0.2917;
466.5000;0.1579;-0.2718;
466.8000;0.1506;-0.2768;
467.1000;0.1473;-0.2842;
467.4000;0.1498;-0.2818;
467.7000;0.1465;-0.2768;
468.0000;0.1473;-0.2793;
468.3000;0.1490;-0.2768;
468.6000;0.1490;-0.2818;
468.9000;0.1506;-0.2867;
469.2000;0.1481;-0.2967;
469.5000;0.1465;-0.3017;
469.8000;0.1498;-0.2842;
470.1000;0.1490;-0.2818;
470.4000;0.1481;-0.2818;
470.7000;0.1481;-0.2743;
471.0000;0.1481;-0.2768;
471.3000;0.1481;-0.2892;
471.6000;0.1579;-0.2568;
471.9000;0.1514;-0.2668;
472.2000;0.1481;-0.2743;
472.5000;0.1490;-0.2743;
472.8000;0.1498;-0.2793;
473.1000;0.1481;-0.2942;
473.4000;0.1530;-0.2818;
473.7000;0.1441;-0.3042;
474.0000;0.1498;-0.2743;
474.3000;0.1498;-0.2867;
474.6000;0.1392;-0.3142;
474.9000;0.1481;-0.2867;
475.2000;0.1425;-0.3017;
475.5000;0.1473;-0.2942;
475.8000;0.1481;-0.2917;
476.1000;0.1481;-0.2793;
476.4000;0.1473;-0.2793;
476.7000;0.1473;-0.2892;
477.0000;0.1457;-0.2892;
477.3000;0.1498;-0.2892;
477.6000;0.1498;-0.2992;
477.9000;0.1498;-0.2917;
478.2000;0.1481;-0.2842;
478.5000;0.1481;-0.2793;
478.8000;0.1490;-0.2917;
479.1000;0.1571;-0.2668;
479.4000;0.1530;-0.2867;
479.7000;0.1506;-0.3017;
480.0000;0.1481;-0.3117;
480.3000;0.1530;-0.3017;
480.6000;0.1481;-0.3092;
480.9000;0.1465;-0.3142;
481.2000;0.1498;-0.3092;
481.5000;0.1514;-0.3017;
481.8000;0.1498;-0.2917;
482.1000;0.1490;-0.2992;
482.4000;0.1530;-0.2892;
482.7000;0.1490;-0.2967;
483.0000;0.1473;-0.2942;
483.3000;0.1481;-0.2917;
483.6000;0.1481;-0.2942;
483.9000;0.1481;-0.2992;
484.2000;0.1473;-0.3042;
484.5000;0.1481;-0.3017;
484.8000;0.1457;-0.2967;
485.1000;0.1473;-0.2892;
485.4000;0.1481;-0.2793;
485.7000;0.1481;-0.2842;
486.0000;0.1473;-0.2842;
486.3000;0.1481;-0.2743;
486.6000;0.1441;-0.2818;
486.9000;0.1465;-0.2842;
487.2000;0.1538;-0.2643;
487.5000;0.1408;-0.3067;
487.8000;0.1490;-0.2917;
488.1000;0.1481;-0.3017;
488.4000;0.1547;-0.2867;
488.7000;0.1473;-0.3017;
489.0000;0.1490;-0.2967;
489.3000;0.1481;-0.2992;
489.6000;0.1473;-0.2992;
489.9000;0.1449;-0.3042;
490.2000;0.1490;-0.3092;
490.5000;0.1522;-0.2992;
490.8000;0.1490;-0.3117;
491.1000;0.1490;-0.3142;
491.4000;0.1473;-0.3167;
491.7000;0.1481;-0.3117;
492.0000;0.1473;-0.3117;
492.3000;0.1481;-0.2992;
492.6000;0.1498;-0.2867;
492.9000;0.1473;-0.2892;
493.2000;0.1465;-0.2867;
493.5000;0.1522;-0.2818;
493.8000;0.1433;-0.3017;
494.1000;0.1465;-0.2917;
494.4000;0.1490;-0.2842;
494.7000;0.1465;-0.2967;
495.0000;0.1449;-0.2867;
495.3000;0.1465;-0.2818;
495.6000;0.1514;-0.2743;
495.9000;0.1530;-0.2668;
496.2000;0.1506;-0.2818;
496.5000;0.1481;-0.2793;
496.8000;0.1449;-0.2867;
497.1000;0.1457;-0.2793;
497.4000;0.1425;-0.2743;
497.7000;0.1490;-0.2593;
498.0000;0.1449;-0.2743;
498.3000;0.1473;-0.2743;
498.6000;0.1579;-0.2518;
498.9000;0.1481;-0.2842;
499.2000;0.1514;-0.2793;
499.5000;0.1465;-0.2867;
499.8000;0.1481;-0.2917;
500.1000;0.1473;-0.3017;
500.4000;0.1449;-0.3042;
500.7000;0.1481;-0.2992;
501.0000;0.1490;-0.3017;
501.3000;0.1473;-0.2992;
501.6000;0.1490;-0.2917;
501.9000;0.1481;-0.2892;
502.2000;0.1506;-0.2818;
502.5000;0.1490;-0.2768;
502.8000;0.1538;-0.2618;
503.1000;0.1490;-0.2718;
503.4000;0.1498;-0.2743;
503.7000;0.1481;-0.2718;
504.0000;0.1481;-0.2818;
504.3000;0.1498;-0.2768;
504.6000;0.1481;-0.2867;
504.9000;0.1498;-0.2917;
505.2000;0.1473;-0.2917;
505.5000;0.1506;-0.2842;
505.8000;0.1465;-0.2793;
506.1000;0.1514;-0.2593;
506.4000;0.1498;-0.2668;
506.7000;0.1481;-0.2743;
507.0000;0.1481;-0.2743;
507.3000;0.1490;-0.2568;
507.6000;0.1473;-0.2618;
507.9000;0.1490;-0.2668;
508.2000;0.1473;-0.2643;
508.5000;0.1473;-0.2693;
508.8000;0.1465;-0.2693;
509.1000;0.1473;-0.2643;
509.4000;0.1441;-0.2543;
509.7000;0.1465;-0.2568;
510.0000;0.1465;-0.2643;
510.3000;0.1465;-0.2768;
510.6000;0.1473;-0.2793;
510.9000;0.1449;-0.2842;
511.2000;0.1457;-0.2842;
511.5000;0.1473;-0.2768;
511.8000;0.1473;-0.2743;
512.1000;0.1481;-0.2768;
512.4000;0.1490;-0.2693;
512.7000;0.1473;-0.2643;
513.0000;0.1498;-0.2643;
513.3000;0.1457;-0.2768;
513.6000;0.1457;-0.2892;
513.9000;0.1449;-0.2942;
514.2000;0.1481;-0.2917;
514.5000;0.1530;-0.2693;
514.8000;0.1457;-0.2892;
515.1000;0.1481;-0.2992;
515.4000;0.1473;-0.2992;
515.7000;0.1465;-0.2967;
516.0000;0.1498;-0.2892;
516.3000;0.1490;-0.2842;
516.6000;0.1473;-0.2793;
516.9000;0.1506;-0.2668;
517.2000;0.1481;-0.2768;
517.5000;0.1481;-0.2892;
517.8000;0.1481;-0.2818;
518.1000;0.1473;-0.2818;
518.4000;0.1498;-0.2818;
518.7000;0.1425;-0.2967;
519.0000;0.1490;-0.2892;
519.3000;0.1490;-0.2917;
519.6000;0.1481;-0.2992;
519.9000;0.1498;-0.2942;
520.2000;0.1481;-0.3017;
520.5000;0.1473;-0.3042;
520.8000;0.1490;-0.3042;
521.1000;0.1514;-0.2917;
521.4000;0.1449;-0.3142;
521.7000;0.1465;-0.3117;
522.0000;0.1481;-0.3042;
522.3000;0.1473;-0.3017;
522.6000;0.1473;-0.3042;
522.9000;0.1441;-0.3192;
523.2000;0.1473;-0.3067;
523.5000;0.1490;-0.2992;
523.8000;0.1481;-0.3142;
524.1000;0.1481;-0.3117;
524.4000;0.1514;-0.3067;
524.7000;0.1465;-0.3192;
525.0000;0.1425;-0.3167;
525.3000;0.1490;-0.2942;
525.6000;0.1408;-0.3216;
525.9000;0.1481;-0.3017;
526.2000;0.1457;-0.3042;
526.5000;0.1514;-0.2842;
526.8000;0.1481;-0.3017;
527.1000;0.1481;-0.2992;
527.4000;0.1506;-0.2917;
527.7000;0.1465;-0.3017;
528.0000;0.1481;-0.3017;
528.3000;0.1416;-0.3167;
528.6000;0.1555;-0.2793;
528.9000;0.1473;-0.3067;
529.2000;0.1481;-0.3042;
529.5000;0.1490;-0.2967;
529.8000;0.1473;-0.3117;
530.1000;0.1416;-0.3341;
530.4000;0.1441;-0.3241;
530.7000;0.1547;-0.2942;
531.0000;0.1473;-0.3092;
531.3000;0.1498;-0.3117;
531.6000;0.1457;-0.3117;
531.9000;0.1481;-0.2967;
532.2000;0.1441;-0.2992;
532.5000;0.1465;-0.2917;
532.8000;0.1473;-0.2867;
533.1000;0.1425;-0.2892;
533.4000;0.1457;-0.2892;
533.7000;0.1490;-0.2942;
534.0000;0.1473;-0.2942;
534.3000;0.1481;-0.2942;
534.6000;0.1490;-0.2892;
534.9000;0.1473;-0.2842;
535.2000;0.1498;-0.2818;
535.5000;0.1376;-0.3142;
535.8000;0.1465;-0.2867;
536.1000;0.1473;-0.2842;
536.4000;0.1465;-0.2867;
536.7000;0.1490;-0.2793;
537.0000;0.1473;-0.2842;
537.3000;0.1473;-0.2842;
537.6000;0.1481;-0.2867;
537.9000;0.1473;-0.2867;
538.2000;0.1490;-0.2917;
538.5000;0.1441;-0.3117;
538.8000;0.1473;-0.3017;
539.1000;0.1473;-0.2942;
539.4000;0.1481;-0.2892;
539.7000;0.1449;-0.2967;
540.0000;0.1465;-0.2992;
540.3000;0.1490;-0.2967;
540.6000;0.1530;-0.2793;
540.9000;0.1465;-0.2917;
541.2000;0.1498;-0.3017;
541.5000;0.1490;-0.2992;
541.8000;0.1498;-0.2942;
542.1000;0.1490;-0.3017;
542.4000;0.1473;-0.2992;
542.7000;0.1490;-0.2942;
543.0000;0.1481;-0.3067;
543.3000;0.1465;-0.3142;
543.6000;0.1522;-0.2992;
543.9000;0.1457;-0.3042;
544.2000;0.1481;-0.3092;
544.5000;0.1473;-0.3167;
544.8000;0.1465;-0.3117;
545.1000;0.1465;-0.3117;
545.4000;0.1498;-0.3067;
545.7000;0.1481;-0.2967;
546.0000;0.1465;-0.2992;
546.3000;0.1473;-0.2967;
546.6000;0.1465;-0.3092;
546.9000;0.1473;-0.3067;
547.2000;0.1408;-0.3192;
547.5000;0.1473;-0.3142;
547.8000;0.1481;-0.3167;
548.1000;0.1490;-0.3117;
548.4000;0.1490;-0.3042;
548.7000;0.1473;-0.2967;
549.0000;0.1506;-0.2917;
549.3000;0.1530;-0.2917;
549.6000;0.1433;-0.3266;
549.9000;0.1490;-0.3067;
550.2000;0.1498;-0.3017;
550.5000;0.1449;-0.3067;
550.8000;0.1465;-0.3067;
551.1000;0.1498;-0.3017;
551.4000;0.1457;-0.3067;
551.7000;0.1465;-0.3017;
552.0000;0.1465;-0.2942;
552.3000;0.1465;-0.2992;
552.6000;0.1465;-0.2942;
552.9000;0.1473;-0.2892;
553.2000;0.1465;-0.2942;
553.5000;0.1490;-0.2967;
553.8000;0.1481;-0.3017;
554.1000;0.1433;-0.2992;
554.4000;0.1465;-0.2967;
554.7000;0.1481;-0.2867;
555.0000;0.1465;-0.2818;
555.3000;0.1433;-0.2917;
555.6000;0.1506;-0.2818;
555.9000;0.1473;-0.2793;
556.2000;0.1425;-0.2867;
556.5000;0.1481;-0.2693;
556.8000;0.1490;-0.2768;
557.1000;0.1547;-0.2568;
557.4000;0.1473;-0.2743;
557.7000;0.1498;-0.2793;
558.0000;0.1481;-0.2842;
558.3000;0.1481;-0.2793;
558.6000;0.1465;-0.2768;
558.9000;0.1498;-0.2768;
559.2000;0.1490;-0.2818;
559.5000;0.1457;-0.2917;
559.8000;0.1490;-0.2892;
560.1000;0.1473;-0.2892;
560.4000;0.1465;-0.3017;
560.7000;0.1449;-0.2992;
561.0000;0.1473;-0.2967;
561.3000;0.1481;-0.2942;
561.6000;0.1490;-0.2892;
561.9000;0.1506;-0.2867;
562.2000;0.1465;-0.2917;
562.5000;0.1473;-0.2793;
562.8000;0.1473;-0.2867;
563.1000;0.1473;-0.2917;
563.4000;0.1481;-0.2917;
563.7000;0.1457;-0.2942;
564.0000;0.1490;-0.2867;
564.3000;0.1465;-0.2917;
564.6000;0.1498;-0.2842;
564.9000;0.1481;-0.2867;
565.2000;0.1481;-0.2967;
565.5000;0.1571;-0.2718;
565.8000;0.1408;-0.3192;
566.1000;0.1473;-0.3017;
566.4000;0.1465;-0.3042;
566.7000;0.1465;-0.2967;
567.0000;0.1457;-0.3017;
567.3000;0.1473;-0.2967;
567.6000;0.1368;-0.3241;
567.9000;0.1457;-0.2942;
568.2000;0.1498;-0.2768;
568.5000;0.1473;-0.2892;
568.8000;0.1457;-0.3017;
569.1000;0.1481;-0.2992;
569.4000;0.1490;-0.2942;
569.7000;0.1473;-0.2917;
570.0000;0.1473;-0.2917;
570.3000;0.1449;-0.2992;
570.6000;0.1465;-0.2967;
570.9000;0.1481;-0.2942;
571.2000;0.1457;-0.3117;
571.5000;0.1457;-0.3216;
571.8000;0.1416;-0.3266;
572.1000;0.1465;-0.3067;
572.4000;0.1473;-0.3067;
572.7000;0.1498;-0.2917;
573.0000;0.1490;-0.2917;
573.3000;0.1490;-0.2867;
573.6000;0.1473;-0.2892;
573.9000;0.1449;-0.3017;
574.2000;0.1490;-0.2942;
574.5000;0.1473;-0.2942;
574.8000;0.1433;-0.3017;
575.1000;0.1457;-0.2942;
575.4000;0.1481;-0.2917;
575.7000;0.1498;-0.2867;
576.0000;0.1449;-0.3017;
576.3000;0.1465;-0.3017;
576.6000;0.1449;-0.3092;
576.9000;0.1481;-0.3042;
577.2000;0.1481;-0.3092;
577.5000;0.1441;-0.3092;
577.8000;0.1465;-0.3067;
578.1000;0.1490;-0.2942;
578.4000;0.1481;-0.2892;
578.7000;0.1490;-0.2818;
579.0000;0.1473;-0.2793;
579.3000;0.1498;-0.2743;
579.6000;0.1473;-0.2842;
579.9000;0.1481;-0.2842;
580.2000;0.1449;-0.2842;
580.5000;0.1481;-0.2743;
580.8000;0.1465;-0.2743;
581.1000;0.1465;-0.2743;
581.4000;0.1506;-0.2643;
581.7000;0.1457;-0.2718;
582.0000;0.1481;-0.2668;
582.3000;0.1498;-0.2718;
582.6000;0.1522;-0.2618;
582.9000;0.1481;-0.2743;
583.2000;0.1473;-0.2693;
583.5000;0.1481;-0.2693;
583.8000;0.1457;-0.2718;
584.1000;0.1473;-0.2693;
584.4000;0.1490;-0.2643;
584.7000;0.1465;-0.2668;
585.0000;0.1465;-0.2743;
585.3000;0.1465;-0.2768;
585.6000;0.1481;-0.2793;
585.9000;0.1457;-0.2917;
586.2000;0.1465;-0.2942;
586.5000;0.1441;-0.2967;
586.8000;0.1473;-0.2892;
587.1000;0.1481;-0.2842;
587.4000;0.1465;-0.2892;
587.7000;0.1506;-0.2718;
588.0000;0.1481;-0.2693;
588.3000;0.1465;-0.2693;
588.6000;0.1490;-0.2643;
588.9000;0.1457;-0.2718;
589.2000;0.1465;-0.2693;
589.5000;0.1498;-0.2643;
589.8000;0.1457;-0.2693;
590.1000;0.1457;-0.2718;
590.4000;0.1490;-0.2593;
590.7000;0.1506;-0.2593;
591.0000;0.1490;-0.2668;
591.3000;0.1433;-0.2768;
591.6000;0.1457;-0.2693;
591.9000;0.1481;-0.2693;
592.2000;0.1473;-0.2768;
592.5000;0.1481;-0.2892;
592.8000;0.1473;-0.2942;
593.1000;0.1490;-0.2892;
593.4000;0.1481;-0.3067;
593.7000;0.1457;-0.3092;
594.0000;0.1481;-0.3117;
594.3000;0.1473;-0.3092;
594.6000;0.1481;-0.3017;
594.9000;0.1473;-0.3042;
595.2000;0.1457;-0.2992;
595.5000;0.1425;-0.3042;
595.8000;0.1457;-0.2967;
596.1000;0.1449;-0.2942;
596.4000;0.1555;-0.2693;
596.7000;0.1481;-0.2942;
597.0000;0.1498;-0.3017;
597.3000;0.1514;-0.2967;
597.6000;0.1465;-0.3017;
597.9000;0.1481;-0.3042;
598.2000;0.1522;-0.2967;
598.5000;0.1490;-0.3017;
598.8000;0.1473;-0.2967;
599.1000;0.1490;-0.2967;
599.4000;0.1481;-0.2992;
599.7000;0.1465;-0.2967;
600.0000;0.1473;-0.2967;
600.3000;0.1465;-0.3017;
600.6000;0.1433;-0.3167;
600.9000;0.1457;-0.3241;
601.2000;0.1441;-0.3366;
601.5000;0.1457;-0.3391;
601.8000;0.1425;-0.3615;
602.1000;0.1425;-0.3840;
602.4000;0.1392;-0.3989;
602.7000;0.1400;-0.4089;
603.0000;0.1376;-0.4264;
603.3000;0.1400;-0.4338;
603.6000;0.1433;-0.4388;
603.9000;0.1351;-0.4588;
604.2000;0.1368;-0.4613;
604.5000;0.1327;-0.4737;
604.8000;0.1351;-0.4837;
605.1000;0.1343;-0.4987;
605.4000;0.1408;-0.4837;
605.7000;0.1343;-0.5086;
606.0000;0.1335;-0.5136;
606.3000;0.1327;-0.5211;
606.6000;0.1359;-0.5111;
606.9000;0.1335;-0.5261;
607.2000;0.1335;-0.5286;
607.5000;0.1408;-0.5111;
607.8000;0.1319;-0.5436;
608.1000;0.1327;-0.5460;
608.4000;0.1319;-0.5460;
608.7000;0.1335;-0.5436;
609.0000;0.1311;-0.5460;
609.3000;0.1302;-0.5560;
609.6000;0.1294;-0.5610;
609.9000;0.1319;-0.5535;
610.2000;0.1294;-0.5610;
610.5000;0.1311;-0.5660;
610.8000;0.1294;-0.5760;
611.1000;0.1311;-0.5685;
611.4000;0.1302;-0.5660;
611.7000;0.1262;-0.5760;
612.0000;0.1294;-0.5685;
612.3000;0.1311;-0.5685;
612.6000;0.1294;-0.5635;
612.9000;0.1294;-0.5610;
613.2000;0.1302;-0.5485;
613.5000;0.1294;-0.5660;
613.8000;0.1294;-0.5635;
614.1000;0.1311;-0.5510;
614.4000;0.1327;-0.5535;
614.7000;0.1286;-0.5635;
615.0000;0.1294;-0.5560;
615.3000;0.1302;-0.5560;
615.6000;0.1294;-0.5560;
615.9000;0.1286;-0.5535;
616.2000;0.1311;-0.5436;
616.5000;0.1286;-0.5585;
616.8000;0.1286;-0.5585;
617.1000;0.1294;-0.5685;
617.4000;0.1302;-0.5635;
617.7000;0.1311;-0.5535;
618.0000;0.1311;-0.5485;
618.3000;0.1278;-0.5610;
618.6000;0.1335;-0.5485;
618.9000;0.1319;-0.5560;
619.2000;0.1368;-0.5510;
619.5000;0.1286;-0.5810;
619.8000;0.1286;-0.5785;
620.1000;0.1311;-0.5859;
620.4000;0.1302;-0.5834;
620.7000;0.1278;-0.5834;
621.0000;0.1294;-0.5760;
621.3000;0.1319;-0.5710;
621.6000;0.1294;-0.5810;
621.9000;0.1294;-0.5810;
622.2000;0.1294;-0.5810;
622.5000;0.1294;-0.5785;
622.8000;0.1359;-0.5585;
623.1000;0.1343;-0.5635;
623.4000;0.1286;-0.5810;
623.7000;0.1302;-0.5785;
624.0000;0.1416;-0.5535;
624.3000;0.1408;-0.5660;
624.6000;0.1319;-0.5810;
624.9000;0.1311;-0.5710;
625.2000;0.1270;-0.5785;
625.5000;0.1262;-0.5934;
625.8000;0.1311;-0.5959;
626.1000;0.1311;-0.5785;
626.4000;0.1302;-0.5785;
626.7000;0.1376;-0.5660;
627.0000;0.1294;-0.5909;
627.3000;0.1262;-0.5909;
627.6000;0.1351;-0.5735;
627.9000;0.1319;-0.5785;
628.2000;0.1311;-0.5785;
628.5000;0.1254;-0.5909;
628.8000;0.1286;-0.5735;
629.1000;0.1302;-0.5710;
629.4000;0.1294;-0.5735;
629.7000;0.1286;-0.5810;
630.0000;0.1302;-0.5760;
630.3000;0.1319;-0.5760;
630.6000;0.1319;-0.5685;
630.9000;0.1278;-0.5785;
631.2000;0.1278;-0.5834;
631.5000;0.1319;-0.5685;
631.8000;0.1311;-0.5810;
632.1000;0.1286;-0.5909;
632.4000;0.1311;-0.5884;
632.7000;0.1270;-0.5934;
633.0000;0.1294;-0.5859;
633.3000;0.1302;-0.5834;
633.6000;0.1278;-0.5834;
633.9000;0.1286;-0.5884;
634.2000;0.1278;-0.5834;
634.5000;0.1302;-0.5685;
634.8000;0.1278;-0.5785;
635.1000;0.1319;-0.5610;
635.4000;0.1294;-0.5635;
635.7000;0.1294;-0.5735;
636.0000;0.1278;-0.5710;
636.3000;0.1294;-0.5660;
636.6000;0.1294;-0.5685;
636.9000;0.1205;-0.5834;
637.2000;0.1294;-0.5635;
637.5000;0.1319;-0.5535;
637.8000;0.1286;-0.5560;
638.1000;0.1311;-0.5510;
638.4000;0.1302;-0.5585;
638.7000;0.1286;-0.5585;
639.0000;0.1392;-0.5336;
639.3000;0.1311;-0.5610;
639.6000;0.1302;-0.5610;
639.9000;0.1237;-0.5810;
640.2000;0.1254;-0.5760;
640.5000;0.1302;-0.5760;
640.8000;0.1278;-0.5884;
641.1000;0.1213;-0.6059;
641.4000;0.1180;-0.6084;
641.7000;0.1254;-0.5884;
642.0000;0.1270;-0.5785;
642.3000;0.1294;-0.5710;
642.6000;0.1286;-0.5735;
642.9000;0.1302;-0.5735;
643.2000;0.1262;-0.5760;
643.5000;0.1286;-0.5760;
643.8000;0.1294;-0.5710;
644.1000;0.1311;-0.5710;
644.4000;0.1294;-0.5735;
644.7000;0.1262;-0.5859;
645.0000;0.1229;-0.6134;
645.3000;0.1302;-0.5934;
645.6000;0.1286;-0.5934;
645.9000;0.1270;-0.6034;
646.2000;0.1270;-0.6034;
646.5000;0.1294;-0.5959;
646.8000;0.1245;-0.6059;
647.1000;0.1311;-0.5710;
647.4000;0.1262;-0.5810;
647.7000;0.1286;-0.5610;
648.0000;0.1319;-0.5560;
648.3000;0.1311;-0.5560;
648.6000;0.1245;-0.5760;
648.9000;0.1270;-0.5710;
649.2000;0.1262;-0.5810;
649.5000;0.1286;-0.5834;
649.8000;0.1294;-0.5859;
650.1000;0.1286;-0.5884;
650.4000;0.1270;-0.5834;
650.7000;0.1286;-0.5785;
651.0000;0.1262;-0.5909;
651.3000;0.1302;-0.5884;
651.6000;0.1278;-0.5859;
651.9000;0.1270;-0.5785;
652.2000;0.1286;-0.5685;
652.5000;0.1237;-0.5760;
652.8000;0.1262;-0.5710;
653.1000;0.1319;-0.5560;
653.4000;0.1294;-0.5635;
653.7000;0.1311;-0.5710;
654.0000;0.1294;-0.5735;
654.3000;0.1302;-0.5735;
654.6000;0.1278;-0.5760;
654.9000;0.1278;-0.5760;
655.2000;0.1221;-0.5959;
655.5000;0.1270;-0.5785;
655.8000;0.1294;-0.5785;
656.1000;0.1294;-0.5660;
656.4000;0.1262;-0.5660;
656.7000;0.1254;-0.5810;
657.0000;0.1278;-0.5735;
657.3000;0.1311;-0.5610;
657.6000;0.1302;-0.5585;
657.9000;0.1245;-0.5610;
658.2000;0.1286;-0.5560;
658.5000;0.1270;-0.5660;
658.8000;0.1294;-0.5710;
659.1000;0.1335;-0.5710;
659.4000;0.1286;-0.5760;
659.7000;0.1254;-0.5859;
660.0000;0.1286;-0.5785;
660.3000;0.1278;-0.5710;
660.6000;0.1319;-0.5660;
660.9000;0.1262;-0.5785;
661.2000;0.1270;-0.5685;
661.5000;0.1278;-0.5660;
661.8000;0.1270;-0.5560;
662.1000;0.1302;-0.5485;
662.4000;0.1319;-0.5635;
662.7000;0.1205;-0.6009;
663.0000;0.1286;-0.5834;
663.3000;0.1392;-0.5361;
663.6000;0.1351;-0.5485;
663.9000;0.1278;-0.5635;
664.2000;0.1237;-0.5735;
664.5000;0.1286;-0.5710;
664.8000;0.1245;-0.5785;
665.1000;0.1286;-0.5635;
665.4000;0.1286;-0.5585;
665.7000;0.1270;-0.5660;
666.0000;0.1286;-0.5660;
666.3000;0.1286;-0.5685;
666.6000;0.1270;-0.5735;
666.9000;0.1302;-0.5760;
667.2000;0.1278;-0.5810;
667.5000;0.1278;-0.5760;
667.8000;0.1262;-0.5760;
668.1000;0.1254;-0.5760;
668.4000;0.1302;-0.5585;
668.7000;0.1245;-0.5685;
669.0000;0.1270;-0.5560;
669.3000;0.1286;-0.5460;
669.6000;0.1270;-0.5585;
669.9000;0.1270;-0.5660;
670.2000;0.1278;-0.5610;
670.5000;0.1262;-0.5585;
670.8000;0.1278;-0.5610;
671.1000;0.1286;-0.5660;
671.4000;0.1286;-0.5660;
671.7000;0.1286;-0.5660;
672.0000;0.1270;-0.5685;
672.3000;0.1262;-0.5685;
672.6000;0.1270;-0.5660;
672.9000;0.1294;-0.5660;
673.2000;0.1302;-0.5635;
673.5000;0.1270;-0.5685;
673.8000;0.1302;-0.5635;
674.1000;0.1286;-0.5710;
674.4000;0.1286;-0.5685;
674.7000;0.1278;-0.5660;
675.0000;0.1294;-0.5660;
675.3000;0.1302;-0.5710;
675.6000;0.1278;-0.5735;
675.9000;0.1286;-0.5710;
676.2000;0.1294;-0.5710;
676.5000;0.1302;-0.5635;
676.8000;0.1302;-0.5635;
677.1000;0.1302;-0.5635;
677.4000;0.1311;-0.5635;
677.7000;0.1311;-0.5585;
678.0000;0.1286;-0.5635;
678.3000;0.1294;-0.5685;
678.6000;0.1302;-0.5685;
678.9000;0.1286;-0.5735;
679.2000;0.1262;-0.5710;
679.5000;0.1302;-0.5610;
679.8000;0.1343;-0.5560;
680.1000;0.1286;-0.5710;
680.4000;0.1286;-0.5685;
680.7000;0.1254;-0.5810;
681.0000;0.1294;-0.5859;
681.3000;0.1302;-0.5760;
681.6000;0.1278;-0.5710;
681.9000;0.1294;-0.5884;
682.2000;0.1294;-0.5859;
682.5000;0.1254;-0.5909;
682.8000;0.1294;-0.5785;
683.1000;0.1221;-0.5834;
683.4000;0.1278;-0.5760;
683.7000;0.1213;-0.5884;
684.0000;0.1254;-0.5710;
684.3000;0.1270;-0.5685;
684.6000;0.1294;-0.5685;
684.9000;0.1294;-0.5760;
685.2000;0.1286;-0.5760;
685.5000;0.1294;-0.5660;
685.8000;0.1270;-0.5735;
686.1000;0.1319;-0.5685;
686.4000;0.1286;-0.5834;
686.7000;0.1237;-0.5984;
687.0000;0.1294;-0.5934;
687.3000;0.1311;-0.5934;
687.6000;0.1294;-0.5884;
687.9000;0.1286;-0.5884;
688.2000;0.1286;-0.5859;
688.5000;0.1294;-0.5810;
688.8000;0.1286;-0.5810;
689.1000;0.1286;-0.5834;
689.4000;0.1294;-0.5834;
689.7000;0.1302;-0.5884;
690.0000;0.1302;-0.5909;
690.3000;0.1286;-0.5909;
690.6000;0.1302;-0.5934;
690.9000;0.1237;-0.6009;
691.2000;0.1302;-0.5785;
691.5000;0.1368;-0.5610;
691.8000;0.1278;-0.5810;
692.1000;0.1286;-0.5909;
692.4000;0.1278;-0.5909;
692.7000;0.1286;-0.5859;
693.0000;0.1270;-0.5785;
693.3000;0.1278;-0.5834;
693.6000;0.1278;-0.5859;
693.9000;0.1270;-0.5834;
694.2000;0.1302;-0.5735;
694.5000;0.1294;-0.5810;
694.8000;0.1294;-0.5909;
695.1000;0.1302;-0.5884;
695.4000;0.1286;-0.5859;
695.7000;0.1294;-0.5834;
696.0000;0.1294;-0.5834;
696.3000;0.1286;-0.5735;
696.6000;0.1294;-0.5735;
696.9000;0.1270;-0.5710;
697.2000;0.1262;-0.5735;
697.5000;0.1270;-0.5760;
697.8000;0.1311;-0.5760;
698.1000;0.1294;-0.5760;
698.4000;0.1270;-0.5859;
698.7000;0.1278;-0.5834;
699.0000;0.1286;-0.5785;
699.3000;0.1294;-0.5834;
699.6000;0.1229;-0.6059;
699.9000;0.1286;-0.5884;
700.2000;0.1302;-0.5810;
700.5000;0.1278;-0.5934;
700.8000;0.1270;-0.5934;
701.1000;0.1278;-0.5909;
701.4000;0.1294;-0.5834;
701.7000;0.1286;-0.5884;
702.0000;0.1245;-0.5984;
702.3000;0.1286;-0.5810;
702.6000;0.1270;-0.5834;
702.9000;0.1416;-0.5535;
703.2000;0.1294;-0.5760;
703.5000;0.1229;-0.5959;
703.8000;0.1286;-0.5834;
704.1000;0.1294;-0.5760;
704.4000;0.1270;-0.5785;
704.7000;0.1294;-0.5785;
705.0000;0.1294;-0.5834;
705.3000;0.1294;-0.5884;
705.6000;0.1278;-0.6034;
705.9000;0.1254;-0.6084;
706.2000;0.1286;-0.6009;
706.5000;0.1245;-0.6009;
706.8000;0.1294;-0.5959;
707.1000;0.1270;-0.5959;
707.4000;0.1278;-0.6084;
707.7000;0.1294;-0.6059;
708.0000;0.1286;-0.6009;
708.3000;0.1311;-0.5959;
708.6000;0.1278;-0.6009;
708.9000;0.1286;-0.5884;
709.2000;0.1278;-0.5810;
709.5000;0.1254;-0.5984;
709.8000;0.1270;-0.5984;
710.1000;0.1286;-0.5959;
710.4000;0.1319;-0.5959;
710.7000;0.1254;-0.6084;
711.0000;0.1278;-0.6084;
711.3000;0.1229;-0.6159;
711.6000;0.1286;-0.6009;
711.9000;0.1270;-0.6084;
712.2000;0.1262;-0.6134;
712.5000;0.1286;-0.6084;
712.8000;0.1286;-0.5959;
713.1000;0.1286;-0.5834;
713.4000;0.1278;-0.5834;
713.7000;0.1278;-0.5810;
714.0000;0.1270;-0.5785;
714.3000;0.1294;-0.5760;
714.6000;0.1270;-0.5859;
714.9000;0.1278;-0.5959;
715.2000;0.1278;-0.5959;
715.5000;0.1294;-0.5810;
715.8000;0.1278;-0.5785;
716.1000;0.1270;-0.5810;
716.4000;0.1278;-0.5685;
716.7000;0.1278;-0.5760;
717.0000;0.1294;-0.5834;
717.3000;0.1278;-0.5859;
717.6000;0.1311;-0.5834;
717.9000;0.1270;-0.5884;
718.2000;0.1294;-0.5859;
718.5000;0.1311;-0.5834;
718.8000;0.1278;-0.5959;
719.1000;0.1294;-0.5884;
719.4000;0.1302;-0.5959;
719.7000;0.1302;-0.5884;
720.0000;0.1270;-0.5859;
720.3000;0.1286;-0.5834;
720.6000;0.1294;-0.6009;
720.9000;0.1302;-0.5934;
721.2000;0.1286;-0.5959;
721.5000;0.1237;-0.6059;
721.8000;0.1286;-0.5909;
722.1000;0.1278;-0.5934;
722.4000;0.1262;-0.6009;
722.7000;0.1262;-0.5934;
723.0000;0.1286;-0.5834;
723.3000;0.1286;-0.5884;
723.6000;0.1245;-0.5984;
723.9000;0.1286;-0.5934;
724.2000;0.1294;-0.5984;
724.5000;0.1319;-0.5909;
724.8000;0.1286;-0.6009;
725.1000;0.1254;-0.6109;
725.4000;0.1294;-0.5959;
725.7000;0.1237;-0.6009;
726.0000;0.1270;-0.5884;
726.3000;0.1286;-0.5834;
726.6000;0.1270;-0.5884;
726.9000;0.1311;-0.5760;
727.2000;0.1286;-0.5710;
727.5000;0.1278;-0.5685;
727.8000;0.1286;-0.5710;
728.1000;0.1278;-0.5735;
728.4000;0.1294;-0.5685;
728.7000;0.1286;-0.5760;
729.0000;0.1327;-0.5710;
729.3000;0.1302;-0.5810;
729.6000;0.1286;-0.5834;
729.9000;0.1278;-0.5884;
730.2000;0.1302;-0.5834;
730.5000;0.1286;-0.5984;
730.8000;0.1294;-0.6034;
731.1000;0.1286;-0.6059;
731.4000;0.1262;-0.5984;
731.7000;0.1278;-0.5909;
732.0000;0.1278;-0.5785;
732.3000;0.1286;-0.5810;
732.6000;0.1262;-0.5859;
732.9000;0.1278;-0.5785;
733.2000;0.1359;-0.5535;
733.5000;0.1294;-0.5760;
733.8000;0.1286;-0.5710;
734.1000;0.1270;-0.5760;
734.4000;0.1262;-0.5710;
734.7000;0.1286;-0.5610;
735.0000;0.1286;-0.5760;
735.3000;0.1278;-0.5859;
735.6000;0.1294;-0.5859;
735.9000;0.1270;-0.5959;
736.2000;0.1262;-0.6034;
736.5000;0.1278;-0.6034;
736.8000;0.1237;-0.6109;
737.1000;0.1270;-0.5984;
737.4000;0.1262;-0.5909;
737.7000;0.1262;-0.5884;
738.0000;0.1278;-0.5884;
738.3000;0.1229;-0.6134;
738.6000;0.1294;-0.6034;
738.9000;0.1278;-0.6034;
739.2000;0.1286;-0.5984;
739.5000;0.1302;-0.5909;
739.8000;0.1278;-0.5884;
740.1000;0.1286;-0.5884;
740.4000;0.1278;-0.5909;
740.7000;0.1302;-0.5735;
741.0000;0.1262;-0.5810;
741.3000;0.1311;-0.5735;
741.6000;0.1278;-0.5735;
741.9000;0.1327;-0.5585;
742.2000;0.1286;-0.5685;
742.5000;0.1278;-0.5760;
742.8000;0.1294;-0.5810;
743.1000;0.1278;-0.5760;
743.4000;0.1286;-0.5785;
743.7000;0.1229;-0.5909;
744.0000;0.1392;-0.5411;
744.3000;0.1294;-0.5735;
744.6000;0.1254;-0.5859;
744.9000;0.1294;-0.5735;
745.2000;0.1294;-0.5735;
745.5000;0.1278;-0.5710;
745.8000;0.1302;-0.5735;
746.1000;0.1286;-0.5785;
746.4000;0.1294;-0.5760;
746.7000;0.1270;-0.5760;
747.0000;0.1278;-0.5710;
747.3000;0.1262;-0.5785;
747.6000;0.1294;-0.5685;
747.9000;0.1254;-0.5660;
748.2000;0.1294;-0.5585;
748.5000;0.1294;-0.5660;
748.8000;0.1294;-0.5685;
749.1000;0.1286;-0.5685;
749.4000;0.1286;-0.5685;
749.7000;0.1294;-0.5685;
750.0000;0.1278;-0.5735;
750.3000;0.1221;-0.5909;
750.6000;0.1278;-0.5810;
750.9000;0.1302;-0.5884;
751.2000;0.1286;-0.5909;
751.5000;0.1376;-0.5585;
751.8000;0.1327;-0.5685;
752.1000;0.1286;-0.5810;
752.4000;0.1294;-0.5760;
752.7000;0.1286;-0.5884;
753.0000;0.1270;-0.5859;
753.3000;0.1286;-0.5785;
753.6000;0.1294;-0.5660;
753.9000;0.1319;-0.5560;
754.2000;0.1302;-0.5485;
754.5000;0.1294;-0.5535;
754.8000;0.1302;-0.5510;
755.1000;0.1286;-0.5510;
755.4000;0.1294;-0.5560;
755.7000;0.1294;-0.5485;
756.0000;0.1302;-0.5510;
756.3000;0.1278;-0.5510;
756.6000;0.1294;-0.5436;
756.9000;0.1270;-0.5460;
757.2000;0.1262;-0.5560;
757.5000;0.1302;-0.5560;
757.8000;0.1286;-0.5635;
758.1000;0.1286;-0.5635;
758.4000;0.1270;-0.5660;
758.7000;0.1368;-0.5386;
759.0000;0.1278;-0.5560;
759.3000;0.1286;-0.5411;
759.6000;0.1294;-0.5411;
759.9000;0.1294;-0.5460;
760.2000;0.1302;-0.5510;
760.5000;0.1270;-0.5535;
760.8000;0.1286;-0.5485;
761.1000;0.1278;-0.5560;
761.4000;0.1286;-0.5585;
761.7000;0.1286;-0.5535;
762.0000;0.1270;-0.5560;
762.3000;0.1335;-0.5436;
762.6000;0.1311;-0.5585;
762.9000;0.1294;-0.5660;
763.2000;0.1270;-0.5710;
763.5000;0.1286;-0.5685;
763.8000;0.1302;-0.5660;
764.1000;0.1302;-0.5685;
764.4000;0.1294;-0.5710;
764.7000;0.1294;-0.5610;
765.0000;0.1278;-0.5660;
765.3000;0.1278;-0.5660;
765.6000;0.1294;-0.5685;
765.9000;0.1286;-0.5710;
766.2000;0.1278;-0.5635;
766.5000;0.1254;-0.5685;
766.8000;0.1343;-0.5485;
767.1000;0.1294;-0.5660;
767.4000;0.1286;-0.5660;
767.7000;0.1213;-0.5810;
768.0000;0.1270;-0.5610;
768.3000;0.1229;-0.5685;
768.6000;0.1294;-0.5635;
768.9000;0.1294;-0.5635;
769.2000;0.1294;-0.5560;
769.5000;0.1270;-0.5560;
769.8000;0.1254;-0.5660;
770.1000;0.1286;-0.5510;
770.4000;0.1221;-0.5735;
770.7000;0.1294;-0.5535;
771.0000;0.1286;-0.5660;
771.3000;0.1278;-0.5660;
771.6000;0.1302;-0.5660;
771.9000;0.1302;-0.5660;
772.2000;0.1278;-0.5810;
772.5000;0.1294;-0.5785;
772.8000;0.1294;-0.5810;
773.1000;0.1270;-0.5934;
773.4000;0.1302;-0.5884;
773.7000;0.1262;-0.6009;
774.0000;0.1319;-0.5984;
774.3000;0.1278;-0.6084;
774.6000;0.1270;-0.6134;
774.9000;0.1294;-0.6059;
775.2000;0.1302;-0.5959;
775.5000;0.1294;-0.6059;
775.8000;0.1278;-0.6034;
776.1000;0.1254;-0.5859;
776.4000;0.1294;-0.5760;
776.7000;0.1286;-0.5834;
777.0000;0.1359;-0.5760;
777.3000;0.1278;-0.5984;
777.6000;0.1294;-0.5909;
777.9000;0.1278;-0.5959;
778.2000;0.1286;-0.5934;
778.5000;0.1294;-0.5884;
778.8000;0.1302;-0.5785;
779.1000;0.1286;-0.5810;
779.4000;0.1302;-0.5735;
779.7000;0.1311;-0.5710;
780.0000;0.1311;-0.5685;
780.3000;0.1197;-0.5934;
780.6000;0.1311;-0.5585;
780.9000;0.1270;-0.5585;
781.2000;0.1270;-0.5660;
781.5000;0.1343;-0.5560;
781.8000;0.1278;-0.5735;
782.1000;0.1270;-0.5760;
782.4000;0.1286;-0.5660;
782.7000;0.1262;-0.5635;
783.0000;0.1294;-0.5660;
783.3000;0.1254;-0.5660;
783.6000;0.1286;-0.5610;
783.9000;0.1294;-0.5585;
784.2000;0.1294;-0.5535;
784.5000;0.1270;-0.5535;
784.8000;0.1262;-0.5685;
785.1000;0.1294;-0.5685;
785.4000;0.1294;-0.5760;
785.7000;0.1302;-0.5710;
786.0000;0.1278;-0.5785;
786.3000;0.1270;-0.5760;
786.6000;0.1294;-0.5735;
786.9000;0.1278;-0.5810;
787.2000;0.1270;-0.5735;
787.5000;0.1278;-0.5735;
787.8000;0.1278;-0.5685;
788.1000;0.1294;-0.5610;
788.4000;0.1270;-0.5635;
788.7000;0.1254;-0.5660;
789.0000;0.1311;-0.5510;
789.3000;0.1286;-0.5585;
789.6000;0.1286;-0.5585;
789.9000;0.1286;-0.5485;
790.2000;0.1278;-0.5460;
790.5000;0.1294;-0.5311;
790.8000;0.1294;-0.5311;
791.1000;0.1311;-0.5460;
791.4000;0.1278;-0.5535;
791.7000;0.1270;-0.5610;
792.0000;0.1286;-0.5510;
792.3000;0.1278;-0.5510;
792.6000;0.1311;-0.5411;
792.9000;0.1286;-0.5485;
793.2000;0.1286;-0.5560;
793.5000;0.1286;-0.5535;
793.8000;0.1278;-0.5485;
794.1000;0.1319;-0.5510;
794.4000;0.1327;-0.5485;
794.7000;0.1302;-0.5560;
795.0000;0.1286;-0.5660;
795.3000;0.1294;-0.5660;
795.6000;0.1311;-0.5585;
795.9000;0.1294;-0.5610;
796.2000;0.1294;-0.5610;
796.5000;0.1262;-0.5710;
796.8000;0.1278;-0.5710;
797.1000;0.1286;-0.5660;
797.4000;0.1294;-0.5660;
797.7000;0.1294;-0.5660;
798.0000;0.1294;-0.5685;
798.3000;0.1294;-0.5760;
798.6000;0.1270;-0.5884;
798.9000;0.1294;-0.5735;
799.2000;0.1311;-0.5735;
799.5000;0.1278;-0.5710;
799.8000;0.1294;-0.5660;
800.1000;0.1278;-0.5735;
800.4000;0.1311;-0.5710;
800.7000;0.1221;-0.5834;
801.0000;0.1229;-0.5735;
801.3000;0.1302;-0.5635;
801.6000;0.1351;-0.5535;
801.9000;0.1302;-0.5685;
802.2000;0.1286;-0.5685;
802.5000;0.1254;-0.5710;
802.8000;0.1278;-0.5610;
803.1000;0.1286;-0.5610;
803.4000;0.1302;-0.5485;
803.7000;0.1286;-0.5485;
804.0000;0.1302;-0.5460;
804.3000;0.1278;-0.5685;
804.6000;0.1294;-0.5660;
804.9000;0.1302;-0.5610;
805.2000;0.1351;-0.5460;
805.5000;0.1384;-0.5386;
805.8000;0.1286;-0.5760;
806.1000;0.1270;-0.5810;
806.4000;0.1270;-0.5834;
806.7000;0.1278;-0.5760;
807.0000;0.1294;-0.5760;
807.3000;0.1278;-0.5810;
807.6000;0.1270;-0.5859;
807.9000;0.1294;-0.5859;
808.2000;0.1278;-0.5785;
808.5000;0.1286;-0.5735;
808.8000;0.1286;-0.5660;
809.1000;0.1286;-0.5710;
809.4000;0.1278;-0.5710;
809.7000;0.1294;-0.5685;
810.0000;0.1311;-0.5735;
810.3000;0.1278;-0.5834;
810.6000;0.1319;-0.5660;
810.9000;0.1392;-0.5460;
811.2000;0.1286;-0.5760;
811.5000;0.1311;-0.5660;
811.8000;0.1302;-0.5710;
812.1000;0.1327;-0.5610;
812.4000;0.1286;-0.5685;
812.7000;0.1245;-0.5760;
813.0000;0.1286;-0.5710;
813.3000;0.1311;-0.5635;
813.6000;0.1302;-0.5585;
813.9000;0.1302;-0.5610;
814.2000;0.1278;-0.5685;
814.5000;0.1278;-0.5735;
814.8000;0.1302;-0.5760;
815.1000;0.1245;-0.5859;
815.4000;0.1286;-0.5735;
815.7000;0.1262;-0.5735;
816.0000;0.1278;-0.5760;
816.3000;0.1270;-0.5760;
816.6000;0.1368;-0.5560;
816.9000;0.1294;-0.5760;
817.2000;0.1319;-0.5760;
817.5000;0.1286;-0.5810;
817.8000;0.1384;-0.5560;
818.1000;0.1302;-0.5635;
818.4000;0.1335;-0.5635;
818.7000;0.1343;-0.5535;
819.0000;0.1286;-0.5760;
819.3000;0.1294;-0.5735;
819.6000;0.1294;-0.5660;
819.9000;0.1294;-0.5660;
820.2000;0.1302;-0.5660;
820.5000;0.1278;-0.5735;
820.8000;0.1294;-0.5760;
821.1000;0.1286;-0.5810;
821.4000;0.1286;-0.5810;
821.7000;0.1278;-0.5785;
822.0000;0.1286;-0.5859;
822.3000;0.1286;-0.5959;
822.6000;0.1286;-0.5959;
822.9000;0.1270;-0.5909;
823.2000;0.1278;-0.5859;
823.5000;0.1294;-0.5735;
823.8000;0.1213;-0.5934;
824.1000;0.1286;-0.5685;
824.4000;0.1278;-0.5685;
824.7000;0.1278;-0.5760;
825.0000;0.1286;-0.5834;
825.3000;0.1286;-0.5884;
825.6000;0.1270;-0.5909;
825.9000;0.1286;-0.5834;
826.2000;0.1327;-0.5710;
826.5000;0.1270;-0.5834;
826.8000;0.1278;-0.5909;
827.1000;0.1286;-0.5909;
827.4000;0.1302;-0.6009;
827.7000;0.1278;-0.6184;
828.0000;0.1286;-0.6084;
828.3000;0.1286;-0.6034;
828.6000;0.1262;-0.6084;
828.9000;0.1180;-0.6358;
829.2000;0.1278;-0.6109;
829.5000;0.1302;-0.5959;
829.8000;0.1270;-0.5984;
830.1000;0.1302;-0.5884;
830.4000;0.1262;-0.5859;
830.7000;0.1302;-0.5735;
831.0000;0.1270;-0.5884;
831.3000;0.1311;-0.5834;
831.6000;0.1294;-0.5834;
831.9000;0.1254;-0.5909;
832.2000;0.1270;-0.5810;
832.5000;0.1278;-0.5984;
832.8000;0.1278;-0.5934;
833.1000;0.1286;-0.5810;
833.4000;0.1302;-0.5785;
833.7000;0.1278;-0.5810;
834.0000;0.1286;-0.5884;
834.3000;0.1262;-0.5760;
834.6000;0.1278;-0.5660;
834.9000;0.1302;-0.5585;
835.2000;0.1278;-0.5585;
835.5000;0.1278;-0.5685;
835.8000;0.1262;-0.5685;
836.1000;0.1392;-0.5336;
836.4000;0.1294;-0.5660;
836.7000;0.1270;-0.5735;
837.0000;0.1286;-0.5635;
837.3000;0.1286;-0.5685;
837.6000;0.1205;-0.5959;
837.9000;0.1286;-0.5834;
838.2000;0.1286;-0.5834;
838.5000;0.1294;-0.5834;
838.8000;0.1376;-0.5660;
839.1000;0.1311;-0.5909;
839.4000;0.1278;-0.5984;
839.7000;0.1286;-0.5909;
840.0000;0.1254;-0.5959;
840.3000;0.1311;-0.5834;
840.6000;0.1294;-0.5884;
840.9000;0.1262;-0.5934;
841.2000;0.1294;-0.6009;
841.5000;0.1302;-0.5984;
841.8000;0.1286;-0.5984;
842.1000;0.1254;-0.5934;
842.4000;0.1294;-0.5785;
842.7000;0.1294;-0.5859;
843.0000;0.1294;-0.5810;
843.3000;0.1278;-0.5810;
843.6000;0.1286;-0.5785;
843.9000;0.1294;-0.5785;
844.2000;0.1286;-0.5760;
844.5000;0.1278;-0.5710;
844.8000;0.1302;-0.5585;
845.1000;0.1311;-0.5610;
845.4000;0.1286;-0.5685;
845.7000;0.1302;-0.5710;
846.0000;0.1270;-0.5884;
846.3000;0.1270;-0.5909;
846.6000;0.1270;-0.5959;
846.9000;0.1311;-0.5810;
847.2000;0.1278;-0.5834;
847.5000;0.1294;-0.5635;
847.8000;0.1319;-0.5635;
848.1000;0.1294;-0.5710;
848.4000;0.1237;-0.5909;
848.7000;0.1302;-0.5710;
849.0000;0.1311;-0.5585;
849.3000;0.1270;-0.5785;
849.6000;0.1294;-0.5710;
849.9000;0.1294;-0.5685;
850.2000;0.1254;-0.5735;
850.5000;0.1294;-0.5735;
850.8000;0.1270;-0.5810;
851.1000;0.1302;-0.5635;
851.4000;0.1262;-0.5735;
851.7000;0.1270;-0.5785;
852.0000;0.1294;-0.5735;
852.3000;0.1286;-0.5785;
852.6000;0.1294;-0.5834;
852.9000;0.1262;-0.5909;
853.2000;0.1294;-0.5810;
853.5000;0.1262;-0.5859;
853.8000;0.1302;-0.5760;
854.1000;0.1286;-0.5834;
854.4000;0.1319;-0.5810;
854.7000;0.1359;-0.5735;
855.0000;0.1294;-0.5884;
855.3000;0.1294;-0.5859;
855.6000;0.1286;-0.5785;
855.9000;0.1294;-0.5884;
856.2000;0.1286;-0.5859;
856.5000;0.1294;-0.5810;
856.8000;0.1311;-0.5710;
857.1000;0.1262;-0.5884;
857.4000;0.1302;-0.5884;
857.7000;0.1294;-0.5909;
858.0000;0.1311;-0.6009;
858.3000;0.1359;-0.5810;
858.6000;0.1286;-0.5909;
858.9000;0.1286;-0.5909;
859.2000;0.1245;-0.5934;
859.5000;0.1311;-0.5810;
859.8000;0.1286;-0.5834;
860.1000;0.1302;-0.5810;
860.4000;0.1302;-0.5834;
860.7000;0.1286;-0.5859;
861.0000;0.1294;-0.5810;
861.3000;0.1262;-0.5884;
861.6000;0.1311;-0.5685;
861.9000;0.1327;-0.5735;
862.2000;0.1286;-0.5785;
862.5000;0.1262;-0.5834;
862.8000;0.1262;-0.5785;
863.1000;0.1262;-0.5859;
863.4000;0.1294;-0.5909;
863.7000;0.1286;-0.5909;
864.0000;0.1278;-0.5859;
864.3000;0.1286;-0.5810;
864.6000;0.1278;-0.5884;
864.9000;0.1327;-0.5859;
865.2000;0.1286;-0.6009;
865.5000;0.1294;-0.5959;
865.8000;0.1286;-0.5959;
866.1000;0.1278;-0.6009;
866.4000;0.1294;-0.5959;
866.7000;0.1286;-0.5959;
867.0000;0.1286;-0.5934;
867.3000;0.1286;-0.5884;
867.6000;0.1237;-0.5984;
867.9000;0.1311;-0.5834;
868.2000;0.1286;-0.5810;
868.5000;0.1286;-0.5785;
868.8000;0.1254;-0.5884;
869.1000;0.1270;-0.5834;
869.4000;0.1311;-0.5810;
869.7000;0.1278;-0.5909;
870.0000;0.1286;-0.5959;
870.3000;0.1376;-0.5785;
870.6000;0.1294;-0.5760;
870.9000;0.1294;-0.5785;
871.2000;0.1286;-0.5834;
871.5000;0.1229;-0.6034;
871.8000;0.1262;-0.5984;
872.1000;0.1286;-0.5934;
872.4000;0.1262;-0.5959;
872.7000;0.1278;-0.5934;
873.0000;0.1286;-0.5934;
873.3000;0.1359;-0.5760;
873.6000;0.1278;-0.5909;
873.9000;0.1278;-0.5859;
874.2000;0.1294;-0.5760;
874.5000;0.1286;-0.5785;
874.8000;0.1294;-0.5810;
875.1000;0.1286;-0.5785;
875.4000;0.1335;-0.5610;
875.7000;0.1294;-0.5635;
876.0000;0.1311;-0.5635;
876.3000;0.1286;-0.5710;
876.6000;0.1278;-0.5710;
876.9000;0.1294;-0.5710;
877.2000;0.1286;-0.5735;
877.5000;0.1294;-0.5785;
877.8000;0.1294;-0.5859;
878.1000;0.1302;-0.5785;
878.4000;0.1294;-0.5710;
878.7000;0.1302;-0.5660;
879.0000;0.1270;-0.5810;
879.3000;0.1294;-0.5810;
879.6000;0.1278;-0.5834;
879.9000;0.1294;-0.5859;
880.2000;0.1294;-0.5785;
880.5000;0.1294;-0.5859;
880.8000;0.1319;-0.5859;
881.1000;0.1302;-0.5859;
881.4000;0.1302;-0.5834;
881.7000;0.1376;-0.5560;
882.0000;0.1294;-0.5884;
882.3000;0.1286;-0.5884;
882.6000;0.1294;-0.5909;
882.9000;0.1270;-0.5859;
883.2000;0.1311;-0.5785;
883.5000;0.1286;-0.5859;
883.8000;0.1245;-0.5859;
884.1000;0.1213;-0.5909;
884.4000;0.1343;-0.5610;
884.7000;0.1270;-0.5884;
885.0000;0.1294;-0.5810;
885.3000;0.1302;-0.5785;
885.6000;0.1213;-0.6084;
885.9000;0.1302;-0.5834;
886.2000;0.1286;-0.5834;
886.5000;0.1294;-0.5810;
886.8000;0.1302;-0.5760;
887.1000;0.1302;-0.5785;
887.4000;0.1302;-0.5810;
887.7000;0.1262;-0.5884;
888.0000;0.1286;-0.5810;
888.3000;0.1254;-0.5959;
888.6000;0.1294;-0.5909;
888.9000;0.1278;-0.5984;
889.2000;0.1245;-0.6059;
889.5000;0.1311;-0.5859;
889.8000;0.1302;-0.5909;
890.1000;0.1278;-0.5884;
890.4000;0.1278;-0.5934;
890.7000;0.1302;-0.5909;
891.0000;0.1270;-0.6084;
891.3000;0.1311;-0.5934;
891.6000;0.1311;-0.5909;
891.9000;0.1294;-0.5859;
892.2000;0.1343;-0.5685;
892.5000;0.1368;-0.5735;
892.8000;0.1294;-0.5909;
893.1000;0.1351;-0.5685;
893.4000;0.1294;-0.5785;
893.7000;0.1237;-0.5785;
894.0000;0.1286;-0.5635;
894.3000;0.1335;-0.5460;
894.6000;0.1262;-0.5660;
894.9000;0.1335;-0.5386;
895.2000;0.1270;-0.5610;
895.5000;0.1294;-0.5610;
895.8000;0.1294;-0.5585;
896.1000;0.1270;-0.5710;
896.4000;0.1335;-0.5635;
896.7000;0.1270;-0.5760;
897.0000;0.1311;-0.5685;
897.3000;0.1294;-0.5635;
897.6000;0.1278;-0.5585;
897.9000;0.1262;-0.5710;
898.2000;0.1270;-0.5660;
898.5000;0.1286;-0.5610;
898.8000;0.1270;-0.5610;
899.1000;0.1278;-0.5635;
899.4000;0.1319;-0.5610;
899.7000;0.1302;-0.5635;
900.0000;0.1302;-0.5560;
900.3000;0.1237;-0.5760;
900.6000;0.1294;-0.5585;
900.9000;0.1270;-0.5660;
901.2000;0.1302;-0.5635;
901.5000;0.1294;-0.5710;
901.8000;0.1294;-0.5660;
902.1000;0.1302;-0.5585;
902.4000;0.1294;-0.5685;
902.7000;0.1294;-0.5660;
903.0000;0.1286;-0.5760;
903.3000;0.1278;-0.5785;
903.6000;0.1311;-0.5760;
903.9000;0.1302;-0.5760;
904.2000;0.1254;-0.5834;
904.5000;0.1286;-0.5760;
904.8000;0.1278;-0.5859;
905.1000;0.1270;-0.5834;
905.4000;0.1254;-0.5909;
905.7000;0.1286;-0.5834;
906.0000;0.1286;-0.5760;
906.3000;0.1311;-0.5735;
906.6000;0.1302;-0.5859;
906.9000;0.1278;-0.5884;
907.2000;0.1302;-0.5785;
907.5000;0.1294;-0.5760;
907.8000;0.1294;-0.5760;
908.1000;0.1294;-0.5810;
908.4000;0.1311;-0.5735;
908.7000;0.1319;-0.5660;
909.0000;0.1278;-0.5735;
909.3000;0.1319;-0.5585;
909.6000;0.1254;-0.5660;
909.9000;0.1302;-0.5660;
910.2000;0.1278;-0.5785;
910.5000;0.1205;-0.6109;
910.8000;0.1278;-0.5909;
911.1000;0.1294;-0.5859;
911.4000;0.1286;-0.5760;
911.7000;0.1286;-0.5834;
912.0000;0.1262;-0.5859;
912.3000;0.1294;-0.5834;
912.6000;0.1294;-0.5884;
912.9000;0.1286;-0.5909;
913.2000;0.1319;-0.5884;
913.5000;0.1278;-0.5984;
913.8000;0.1278;-0.5984;
914.1000;0.1262;-0.6009;
914.4000;0.1286;-0.5959;
914.7000;0.1311;-0.5909;
915.0000;0.1278;-0.6009;
915.3000;0.1286;-0.6009;
915.6000;0.1294;-0.5909;
915.9000;0.1270;-0.5909;
916.2000;0.1302;-0.5785;
916.5000;0.1278;-0.5760;
916.8000;0.1278;-0.5710;
917.1000;0.1294;-0.5685;
917.4000;0.1294;-0.5685;
917.7000;0.1343;-0.5585;
918.0000;0.1286;-0.5735;
918.3000;0.1294;-0.5810;
918.6000;0.1302;-0.5710;
918.9000;0.1278;-0.5760;
919.2000;0.1302;-0.5710;
919.5000;0.1286;-0.5859;
919.8000;0.1294;-0.5909;
920.1000;0.1278;-0.5959;
920.4000;0.1302;-0.5859;
920.7000;0.1294;-0.5909;
921.0000;0.1286;-0.5884;
921.3000;0.1278;-0.5959;
921.6000;0.1294;-0.5959;
921.9000;0.1278;-0.5959;
922.2000;0.1286;-0.5834;
922.5000;0.1286;-0.5735;
922.8000;0.1327;-0.5585;
923.1000;0.1270;-0.5710;
923.4000;0.1278;-0.5610;
923.7000;0.1286;-0.5710;
924.0000;0.1311;-0.5735;
924.3000;0.1294;-0.5859;
924.6000;0.1278;-0.5884;
924.9000;0.1302;-0.5810;
925.2000;0.1311;-0.5859;
925.5000;0.1286;-0.5884;
925.8000;0.1286;-0.5834;
926.1000;0.1294;-0.5834;
926.4000;0.1254;-0.6034;
926.7000;0.1286;-0.5884;
927.0000;0.1286;-0.5760;
927.3000;0.1302;-0.5785;
927.6000;0.1302;-0.5785;
927.9000;0.1319;-0.5760;
928.2000;0.1302;-0.5785;
928.5000;0.1286;-0.5760;
928.8000;0.1286;-0.5785;
929.1000;0.1294;-0.5785;
929.4000;0.1327;-0.5834;
929.7000;0.1237;-0.6009;
930.0000;0.1286;-0.6009;
930.3000;0.1294;-0.5909;
930.6000;0.1319;-0.5810;
930.9000;0.1286;-0.5909;
931.2000;0.1335;-0.5834;
931.5000;0.1319;-0.5834;
931.8000;0.1286;-0.5984;
932.1000;0.1286;-0.6084;
932.4000;0.1262;-0.6134;
932.7000;0.1286;-0.6059;
933.0000;0.1278;-0.6034;
933.3000;0.1270;-0.6034;
933.6000;0.1359;-0.5735;
933.9000;0.1351;-0.5884;
934.2000;0.1302;-0.6009;
934.5000;0.1262;-0.5959;
934.8000;0.1286;-0.5909;
935.1000;0.1294;-0.5959;
935.4000;0.1294;-0.5859;
935.7000;0.1286;-0.5859;
936.0000;0.1294;-0.5884;
936.3000;0.1278;-0.5909;
936.6000;0.1294;-0.5834;
936.9000;0.1294;-0.5859;
937.2000;0.1278;-0.5810;
937.5000;0.1270;-0.5810;
937.8000;0.1286;-0.5785;
938.1000;0.1286;-0.5735;
938.4000;0.1286;-0.5660;
938.7000;0.1270;-0.5635;
939.0000;0.1278;-0.5710;
939.3000;0.1286;-0.5785;
939.6000;0.1286;-0.5685;
939.9000;0.1278;-0.5660;
940.2000;0.1270;-0.5635;
940.5000;0.1302;-0.5510;
940.8000;0.1262;-0.5510;
941.1000;0.1278;-0.5510;
941.4000;0.1278;-0.5510;
941.7000;0.1286;-0.5510;
942.0000;0.1294;-0.5535;
942.3000;0.1270;-0.5535;
942.6000;0.1286;-0.5510;
942.9000;0.1311;-0.5535;
943.2000;0.1286;-0.5660;
943.5000;0.1286;-0.5635;
943.8000;0.1294;-0.5635;
944.1000;0.1286;-0.5735;
944.4000;0.1262;-0.5859;
944.7000;0.1294;-0.5760;
945.0000;0.1278;-0.5859;
945.3000;0.1278;-0.5884;
945.6000;0.1294;-0.5785;
945.9000;0.1294;-0.5785;
946.2000;0.1294;-0.5810;
946.5000;0.1270;-0.5785;
946.8000;0.1302;-0.5710;
947.1000;0.1302;-0.5710;
947.4000;0.1319;-0.5610;
947.7000;0.1245;-0.5810;
948.0000;0.1319;-0.5685;
948.3000;0.1376;-0.5535;
948.6000;0.1294;-0.5760;
948.9000;0.1294;-0.5810;
949.2000;0.1327;-0.5735;
949.5000;0.1286;-0.5760;
949.8000;0.1278;-0.5810;
950.1000;0.1286;-0.5760;
950.4000;0.1262;-0.5834;
950.7000;0.1302;-0.5660;
951.0000;0.1278;-0.5710;
951.3000;0.1278;-0.5884;
951.6000;0.1237;-0.5959;
951.9000;0.1278;-0.5859;
952.2000;0.1294;-0.5884;
952.5000;0.1286;-0.5834;
952.8000;0.1294;-0.5660;
953.1000;0.1213;-0.5785;
953.4000;0.1335;-0.5460;
953.7000;0.1254;-0.5635;
954.0000;0.1286;-0.5685;
954.3000;0.1319;-0.5660;
954.6000;0.1311;-0.5710;
954.9000;0.1416;-0.5336;
955.2000;0.1302;-0.5710;
955.5000;0.1286;-0.5810;
955.8000;0.1286;-0.5810;
956.1000;0.1302;-0.5735;
956.4000;0.1368;-0.5535;
956.7000;0.1286;-0.5760;
957.0000;0.1286;-0.5735;
957.3000;0.1278;-0.5685;
957.6000;0.1286;-0.5635;
957.9000;0.1286;-0.5635;
958.2000;0.1278;-0.5635;
958.5000;0.1311;-0.5710;
958.8000;0.1343;-0.5710;
959.1000;0.1302;-0.5834;
959.4000;0.1286;-0.5884;
959.7000;0.1302;-0.5934;
960.0000;0.1294;-0.5934;
960.3000;0.1278;-0.5884;
960.6000;0.1294;-0.5810;
960.9000;0.1270;-0.5785;
961.2000;0.1278;-0.5710;
961.5000;0.1270;-0.5635;
961.8000;0.1270;-0.5685;
962.1000;0.1286;-0.5635;
962.4000;0.1302;-0.5685;
962.7000;0.1270;-0.5685;
963.0000;0.1286;-0.5735;
963.3000;0.1294;-0.5735;
963.6000;0.1294;-0.5834;
963.9000;0.1327;-0.5834;
964.2000;0.1294;-0.5909;
964.5000;0.1302;-0.5984;
964.8000;0.1286;-0.6059;
965.1000;0.1294;-0.6084;
965.4000;0.1278;-0.6034;
965.7000;0.1302;-0.5884;
966.0000;0.1327;-0.5735;
966.3000;0.1302;-0.5834;
966.6000;0.1262;-0.5959;
966.9000;0.1319;-0.5785;
967.2000;0.1237;-0.6009;
967.5000;0.1286;-0.5934;
967.8000;0.1286;-0.5934;
968.1000;0.1278;-0.5934;
968.4000;0.1311;-0.5785;
968.7000;0.1262;-0.5859;
969.0000;0.1270;-0.5934;
969.3000;0.1278;-0.5859;
969.6000;0.1311;-0.5859;
969.9000;0.1376;-0.5685;
970.2000;0.1286;-0.5984;
970.5000;0.1286;-0.5909;
970.8000;0.1286;-0.5884;
971.1000;0.1311;-0.5834;
971.4000;0.1384;-0.5610;
971.7000;0.1278;-0.5785;
972.0000;0.1286;-0.5685;
972.3000;0.1311;-0.5635;
972.6000;0.1278;-0.5685;
972.9000;0.1302;-0.5660;
973.2000;0.1278;-0.5785;
973.5000;0.1278;-0.5710;
973.8000;0.1294;-0.5660;
974.1000;0.1278;-0.5710;
974.4000;0.1286;-0.5635;
974.7000;0.1368;-0.5560;
975.0000;0.1286;-0.5735;
975.3000;0.1302;-0.5535;
975.6000;0.1278;-0.5635;
975.9000;0.1319;-0.5560;
976.2000;0.1294;-0.5760;
976.5000;0.1351;-0.5660;
976.8000;0.1286;-0.5884;
977.1000;0.1327;-0.5735;
977.4000;0.1294;-0.5760;
977.7000;0.1278;-0.5760;
978.0000;0.1254;-0.5859;
978.3000;0.1278;-0.5760;
978.6000;0.1294;-0.5685;
978.9000;0.1245;-0.5834;
979.2000;0.1278;-0.5760;
979.5000;0.1351;-0.5535;
979.8000;0.1270;-0.5735;
980.1000;0.1335;-0.5510;
980.4000;0.1286;-0.5660;
980.7000;0.1286;-0.5535;
981.0000;0.1237;-0.5710;
981.3000;0.1278;-0.5610;
981.6000;0.1286;-0.5560;
981.9000;0.1237;-0.5710;
982.2000;0.1286;-0.5585;
982.5000;0.1245;-0.5810;
982.8000;0.1286;-0.5660;
983.1000;0.1278;-0.5660;
983.4000;0.1302;-0.5685;
983.7000;0.1286;-0.5760;
984.0000;0.1302;-0.5710;
984.3000;0.1311;-0.5710;
984.6000;0.1270;-0.5909;
984.9000;0.1400;-0.5485;
985.2000;0.1245;-0.5934;
985.5000;0.1245;-0.5934;
985.8000;0.1286;-0.5984;
986.1000;0.1319;-0.5909;
986.4000;0.1294;-0.5959;
986.7000;0.1286;-0.5984;
987.0000;0.1319;-0.5909;
987.3000;0.1278;-0.6034;
987.6000;0.1270;-0.6034;
987.9000;0.1262;-0.5909;
988.2000;0.1221;-0.5959;
988.5000;0.1278;-0.5834;
988.8000;0.1302;-0.5735;
989.1000;0.1237;-0.5834;
989.4000;0.1294;-0.5660;
989.7000;0.1270;-0.5635;
990.0000;0.1343;-0.5510;
990.3000;0.1286;-0.5760;
990.6000;0.1302;-0.5710;
990.9000;0.1294;-0.5810;
991.2000;0.1286;-0.5735;
991.5000;0.1245;-0.5859;
991.8000;0.1286;-0.5735;
992.1000;0.1278;-0.5760;
992.4000;0.1286;-0.5735;
992.7000;0.1294;-0.5710;
993.0000;0.1286;-0.5710;
993.3000;0.1286;-0.5635;
993.6000;0.1294;-0.5660;
993.9000;0.1302;-0.5660;
994.2000;0.1286;-0.5610;
994.5000;0.1278;-0.5585;
994.8000;0.1302;-0.5635;
995.1000;0.1286;-0.5660;
995.4000;0.1286;-0.5610;
995.7000;0.1335;-0.5411;
996.0000;0.1278;-0.5535;
996.3000;0.1294;-0.5485;
996.6000;0.1278;-0.5510;
996.9000;0.1188;-0.5859;
997.2000;0.1294;-0.5660;
997.5000;0.1270;-0.5610;
997.8000;0.1335;-0.5585;
998.1000;0.1286;-0.5735;
998.4000;0.1221;-0.5934;
998.7000;0.1278;-0.5735;
999.0000;0.1294;-0.5635;
999.3000;0.1270;-0.5685;
999.6000;0.1270;-0.5760;
999.9000;0.1286;-0.5760;
1000.2000;0.1294;-0.5710;
1000.5000;0.1254;-0.5685;
1000.8000;0.1237;-0.5785;
1001.1000;0.1359;-0.5510;
1001.4000;0.1278;-0.5735;
1001.7000;0.1262;-0.5785;
1002.0000;0.1286;-0.5735;
1002.3000;0.1254;-0.5959;
1002.6000;0.1221;-0.6034;
1002.9000;0.1286;-0.5859;
1003.2000;0.1221;-0.6009;
1003.5000;0.1286;-0.5859;
1003.8000;0.1294;-0.5859;
1004.1000;0.1311;-0.5735;
1004.4000;0.1278;-0.5735;
1004.7000;0.1286;-0.5760;
1005.0000;0.1245;-0.5834;
1005.3000;0.1286;-0.5785;
1005.6000;0.1311;-0.5760;
1005.9000;0.1254;-0.5934;
1006.2000;0.1294;-0.5834;
1006.5000;0.1278;-0.5859;
1006.8000;0.1286;-0.5934;
1007.1000;0.1286;-0.5959;
1007.4000;0.1278;-0.5959;
1007.7000;0.1286;-0.5884;
1008.0000;0.1278;-0.5735;
1008.3000;0.1294;-0.5735;
1008.6000;0.1311;-0.5610;
1008.9000;0.1302;-0.5660;
1009.2000;0.1319;-0.5660;
1009.5000;0.1270;-0.5760;
1009.8000;0.1278;-0.5685;
1010.1000;0.1262;-0.5610;
1010.4000;0.1254;-0.5660;
1010.7000;0.1294;-0.5660;
1011.0000;0.1302;-0.5660;
1011.3000;0.1294;-0.5660;
1011.6000;0.1343;-0.5560;
1011.9000;0.1294;-0.5660;
1012.2000;0.1270;-0.5710;
1012.5000;0.1278;-0.5685;
1012.8000;0.1311;-0.5635;
1013.1000;0.1286;-0.5635;
1013.4000;0.1286;-0.5610;
1013.7000;0.1294;-0.5560;
1014.0000;0.1278;-0.5585;
1014.3000;0.1286;-0.5510;
1014.6000;0.1262;-0.5460;
1014.9000;0.1278;-0.5510;
1015.2000;0.1286;-0.5485;
1015.5000;0.1294;-0.5411;
1015.8000;0.1286;-0.5386;
1016.1000;0.1262;-0.5585;
1016.4000;0.1286;-0.5560;
1016.7000;0.1286;-0.5585;
1017.0000;0.1294;-0.5560;
1017.3000;0.1270;-0.5660;
1017.6000;0.1286;-0.5610;
1017.9000;0.1286;-0.5585;
1018.2000;0.1294;-0.5560;
1018.5000;0.1254;-0.5710;
1018.8000;0.1286;-0.5535;
1019.1000;0.1294;-0.5535;
1019.4000;0.1311;-0.5560;
1019.7000;0.1278;-0.5760;
1020.0000;0.1294;-0.5785;
1020.3000;0.1278;-0.5810;
1020.6000;0.1311;-0.5635;
1020.9000;0.1294;-0.5635;
1021.2000;0.1294;-0.5585;
1021.5000;0.1311;-0.5585;
1021.8000;0.1302;-0.5585;
1022.1000;0.1294;-0.5685;
1022.4000;0.1278;-0.5735;
1022.7000;0.1302;-0.5710;
1023.0000;0.1294;-0.5660;
1023.3000;0.1254;-0.5685;
1023.6000;0.1278;-0.5510;
1023.9000;0.1294;-0.5535;
1024.2000;0.1294;-0.5460;
1024.5000;0.1311;-0.5411;
1024.8000;0.1197;-0.5635;
1025.1000;0.1278;-0.5485;
1025.4000;0.1205;-0.5735;
1025.7000;0.1392;-0.5386;
1026.0000;0.1294;-0.5485;
1026.3000;0.1262;-0.5535;
1026.6000;0.1311;-0.5460;
1026.9000;0.1278;-0.5610;
1027.2000;0.1302;-0.5685;
1027.5000;0.1270;-0.5785;
1027.8000;0.1311;-0.5635;
1028.1000;0.1294;-0.5585;
1028.4000;0.1294;-0.5585;
1028.7000;0.1286;-0.5585;
1029.0000;0.1294;-0.5560;
1029.3000;0.1319;-0.5436;
1029.6000;0.1302;-0.5485;
1029.9000;0.1278;-0.5535;
1030.2000;0.1286;-0.5535;
1030.5000;0.1270;-0.5635;
1030.8000;0.1311;-0.5510;
1031.1000;0.1286;-0.5585;
1031.4000;0.1286;-0.5585;
1031.7000;0.1302;-0.5635;
1032.0000;0.1278;-0.5735;
1032.3000;0.1294;-0.5760;
1032.6000;0.1294;-0.5710;
1032.9000;0.1294;-0.5710;
1033.2000;0.1302;-0.5710;
1033.5000;0.1302;-0.5710;
1033.8000;0.1302;-0.5635;
1034.1000;0.1294;-0.5660;
1034.4000;0.1294;-0.5610;
1034.7000;0.1286;-0.5660;
1035.0000;0.1311;-0.5610;
1035.3000;0.1278;-0.5735;
1035.6000;0.1270;-0.5785;
1035.9000;0.1270;-0.5810;
1036.2000;0.1302;-0.5760;
1036.5000;0.1270;-0.5710;
1036.8000;0.1286;-0.5660;
1037.1000;0.1278;-0.5685;
1037.4000;0.1262;-0.5760;
1037.7000;0.1278;-0.5710;
1038.0000;0.1270;-0.5760;
1038.3000;0.1294;-0.5685;
1038.6000;0.1270;-0.5660;
1038.9000;0.1343;-0.5436;
1039.2000;0.1278;-0.5560;
1039.5000;0.1278;-0.5460;
1039.8000;0.1286;-0.5460;
1040.1000;0.1278;-0.5460;
1040.4000;0.1229;-0.5635;
1040.7000;0.1278;-0.5535;
1041.0000;0.1286;-0.5560;
1041.3000;0.1278;-0.5660;
1041.6000;0.1278;-0.5635;
1041.9000;0.1262;-0.5760;
1042.2000;0.1286;-0.5585;
1042.5000;0.1294;-0.5460;
1042.8000;0.1294;-0.5460;
1043.1000;0.1262;-0.5535;
1043.4000;0.1319;-0.5386;
1043.7000;0.1335;-0.5286;
1044.0000;0.1294;-0.5336;
1044.3000;0.1270;-0.5361;
1044.6000;0.1294;-0.5311;
1044.9000;0.1294;-0.5386;
1045.2000;0.1286;-0.5460;
1045.5000;0.1286;-0.5560;
1045.8000;0.1237;-0.5610;
1046.1000;0.1229;-0.5785;
1046.4000;0.1302;-0.5710;
1046.7000;0.1278;-0.5760;
1047.0000;0.1327;-0.5535;
1047.3000;0.1245;-0.5710;
1047.6000;0.1302;-0.5535;
1047.9000;0.1278;-0.5610;
1048.2000;0.1237;-0.5735;
1048.5000;0.1278;-0.5635;
1048.8000;0.1278;-0.5585;
1049.1000;0.1270;-0.5660;
1049.4000;0.1270;-0.5635;
1049.7000;0.1416;-0.5311;
1050.0000;0.1351;-0.5535;
1050.3000;0.1286;-0.5760;
1050.6000;0.1245;-0.5884;
1050.9000;0.1286;-0.5785;
1051.2000;0.1311;-0.5760;
1051.5000;0.1278;-0.5810;
1051.8000;0.1237;-0.6009;
1052.1000;0.1294;-0.5710;
1052.4000;0.1286;-0.5560;
1052.7000;0.1286;-0.5610;
1053.0000;0.1294;-0.5660;
1053.3000;0.1294;-0.5585;
1053.6000;0.1278;-0.5560;
1053.9000;0.1286;-0.5535;
1054.2000;0.1278;-0.5585;
1054.5000;0.1294;-0.5560;
1054.8000;0.1311;-0.5485;
1055.1000;0.1319;-0.5436;
1055.4000;0.1286;-0.5460;
1055.7000;0.1286;-0.5510;
1056.0000;0.1302;-0.5436;
1056.3000;0.1278;-0.5560;
1056.6000;0.1302;-0.5560;
1056.9000;0.1311;-0.5560;
1057.2000;0.1286;-0.5535;
1057.5000;0.1302;-0.5361;
1057.8000;0.1286;-0.5460;
1058.1000;0.1270;-0.5485;
1058.4000;0.1294;-0.5436;
1058.7000;0.1270;-0.5585;
1059.0000;0.1221;-0.5785;
1059.3000;0.1294;-0.5610;
1059.6000;0.1286;-0.5635;
1059.9000;0.1311;-0.5560;
1060.2000;0.1278;-0.5685;
1060.5000;0.1286;-0.5560;
1060.8000;0.1294;-0.5510;
1061.1000;0.1302;-0.5485;
1061.4000;0.1172;-0.5884;
1061.7000;0.1327;-0.5485;
1062.0000;0.1278;-0.5560;
1062.3000;0.1270;-0.5660;
1062.6000;0.1294;-0.5610;
1062.9000;0.1270;-0.5610;
1063.2000;0.1286;-0.5585;
1063.5000;0.1270;-0.5635;
1063.8000;0.1286;-0.5635;
1064.1000;0.1262;-0.5635;
1064.4000;0.1188;-0.5884;
1064.7000;0.1294;-0.5610;
1065.0000;0.1302;-0.5635;
1065.3000;0.1278;-0.5760;
1065.6000;0.1286;-0.5760;
1065.9000;0.1254;-0.5785;
1066.2000;0.1286;-0.5735;
1066.5000;0.1351;-0.5510;
1066.8000;0.1270;-0.5735;
1067.1000;0.1286;-0.5685;
1067.4000;0.1262;-0.5710;
1067.7000;0.1286;-0.5510;
1068.0000;0.1278;-0.5485;
1068.3000;0.1294;-0.5460;
1068.6000;0.1286;-0.5460;
1068.9000;0.1278;-0.5535;
1069.2000;0.1270;-0.5610;
1069.5000;0.1270;-0.5635;
1069.8000;0.1278;-0.5535;
1070.1000;0.1311;-0.5411;
1070.4000;0.1270;-0.5560;
1070.7000;0.1278;-0.5485;
1071.0000;0.1286;-0.5436;
1071.3000;0.1302;-0.5460;
1071.6000;0.1278;-0.5535;
1071.9000;0.1351;-0.5411;
1072.2000;0.1286;-0.5485;
1072.5000;0.1221;-0.5610;
1072.8000;0.1205;-0.5685;
1073.1000;0.1254;-0.5635;
1073.4000;0.1278;-0.5585;
1073.7000;0.1286;-0.5635;
1074.0000;0.1327;-0.5635;
1074.3000;0.1302;-0.5685;
1074.6000;0.1302;-0.5785;
1074.9000;0.1286;-0.5834;
1075.2000;0.1302;-0.5710;
1075.5000;0.1294;-0.5635;
1075.8000;0.1278;-0.5710;
1076.1000;0.1302;-0.5685;
1076.4000;0.1278;-0.5685;
1076.7000;0.1335;-0.5560;
1077.0000;0.1278;-0.5685;
1077.3000;0.1294;-0.5585;
1077.6000;0.1286;-0.5585;
1077.9000;0.1294;-0.5460;
1078.2000;0.1294;-0.5460;
1078.5000;0.1278;-0.5510;
1078.8000;0.1286;-0.5610;
1079.1000;0.1302;-0.5460;
1079.4000;0.1278;-0.5535;
1079.7000;0.1327;-0.5361;
1080.0000;0.1319;-0.5436;
1080.3000;0.1294;-0.5535;
1080.6000;0.1286;-0.5485;
1080.9000;0.1278;-0.5560;
1081.2000;0.1254;-0.5710;
1081.5000;0.1278;-0.5560;
1081.8000;0.1302;-0.5485;
1082.1000;0.1270;-0.5510;
1082.4000;0.1270;-0.5535;
1082.7000;0.1294;-0.5460;
1083.0000;0.1221;-0.5735;
1083.3000;0.1262;-0.5635;
1083.6000;0.1286;-0.5510;
1083.9000;0.1286;-0.5485;
1084.2000;0.1229;-0.5610;
1084.5000;0.1286;-0.5535;
1084.8000;0.1311;-0.5436;
1085.1000;0.1286;-0.5485;
1085.4000;0.1270;-0.5535;
1085.7000;0.1278;-0.5560;
1086.0000;0.1294;-0.5535;
1086.3000;0.1311;-0.5485;
1086.6000;0.1294;-0.5510;
1086.9000;0.1286;-0.5535;
1087.2000;0.1294;-0.5510;
1087.5000;0.1245;-0.5735;
1087.8000;0.1278;-0.5610;
1088.1000;0.1286;-0.5510;
1088.4000;0.1286;-0.5660;
1088.7000;0.1286;-0.5660;
1089.0000;0.1286;-0.5660;
1089.3000;0.1286;-0.5685;
1089.6000;0.1286;-0.5635;
1089.9000;0.1278;-0.5685;
1090.2000;0.1302;-0.5610;
1090.5000;0.1351;-0.5411;
1090.8000;0.1416;-0.5236;
1091.1000;0.1294;-0.5560;
1091.4000;0.1302;-0.5560;
1091.7000;0.1294;-0.5685;
1092.0000;0.1302;-0.5635;
1092.3000;0.1294;-0.5685;
1092.6000;0.1278;-0.5710;
1092.9000;0.1270;-0.5859;
1093.2000;0.1286;-0.5760;
1093.5000;0.1294;-0.5735;
1093.8000;0.1311;-0.5660;
1094.1000;0.1286;-0.5685;
1094.4000;0.1278;-0.5735;
1094.7000;0.1286;-0.5635;
1095.0000;0.1294;-0.5585;
1095.3000;0.1302;-0.5610;
1095.6000;0.1294;-0.5685;
1095.9000;0.1286;-0.5685;
1096.2000;0.1270;-0.5710;
1096.5000;0.1278;-0.5585;
1096.8000;0.1229;-0.5710;
1097.1000;0.1319;-0.5460;
1097.4000;0.1270;-0.5460;
1097.7000;0.1270;-0.5436;
1098.0000;0.1286;-0.5460;
1098.3000;0.1278;-0.5535;
1098.6000;0.1286;-0.5610;
1098.9000;0.1278;-0.5535;
1099.2000;0.1278;-0.5460;
1099.5000;0.1286;-0.5436;
1099.8000;0.1278;-0.5411;
1100.1000;0.1278;-0.5485;
1100.4000;0.1270;-0.5560;
1100.7000;0.1286;-0.5585;
1101.0000;0.1278;-0.5535;
1101.3000;0.1286;-0.5460;
1101.6000;0.1286;-0.5336;
1101.9000;0.1302;-0.5336;
1102.2000;0.1311;-0.5386;
1102.5000;0.1294;-0.5411;
1102.8000;0.1294;-0.5386;
1103.1000;0.1294;-0.5336;
1103.4000;0.1286;-0.5386;
1103.7000;0.1270;-0.5411;
1104.0000;0.1229;-0.5610;
1104.3000;0.1286;-0.5436;
1104.6000;0.1270;-0.5386;
1104.9000;0.1343;-0.5236;
1105.2000;0.1278;-0.5386;
1105.5000;0.1286;-0.5386;
1105.8000;0.1278;-0.5485;
1106.1000;0.1294;-0.5510;
1106.4000;0.1278;-0.5585;
1106.7000;0.1302;-0.5560;
1107.0000;0.1302;-0.5485;
1107.3000;0.1286;-0.5610;
1107.6000;0.1278;-0.5560;
1107.9000;0.1270;-0.5485;
1108.2000;0.1278;-0.5510;
1108.5000;0.1270;-0.5635;
1108.8000;0.1262;-0.5635;
1109.1000;0.1278;-0.5510;
1109.4000;0.1262;-0.5436;
1109.7000;0.1229;-0.5610;
1110.0000;0.1294;-0.5535;
1110.3000;0.1270;-0.5585;
1110.6000;0.1302;-0.5510;
1110.9000;0.1294;-0.5510;
1111.2000;0.1294;-0.5560;
1111.5000;0.1229;-0.5710;
1111.8000;0.1278;-0.5585;
1112.1000;0.1302;-0.5485;
1112.4000;0.1286;-0.5485;
1112.7000;0.1286;-0.5535;
1113.0000;0.1278;-0.5560;
1113.3000;0.1286;-0.5535;
1113.6000;0.1286;-0.5460;
1113.9000;0.1237;-0.5610;
1114.2000;0.1294;-0.5436;
1114.5000;0.1294;-0.5436;
1114.8000;0.1286;-0.5485;
1115.1000;0.1294;-0.5510;
1115.4000;0.1294;-0.5510;
1115.7000;0.1327;-0.5460;
1116.0000;0.1311;-0.5510;
1116.3000;0.1294;-0.5610;
1116.6000;0.1302;-0.5685;
1116.9000;0.1311;-0.5635;
1117.2000;0.1302;-0.5635;
1117.5000;0.1270;-0.5635;
1117.8000;0.1294;-0.5560;
1118.1000;0.1294;-0.5560;
1118.4000;0.1294;-0.5510;
1118.7000;0.1294;-0.5660;
1119.0000;0.1286;-0.5585;
1119.3000;0.1254;-0.5685;
1119.6000;0.1221;-0.5785;
1119.9000;0.1286;-0.5635;
1120.2000;0.1278;-0.5660;
1120.5000;0.1286;-0.5685;
1120.8000;0.1262;-0.5710;
1121.1000;0.1278;-0.5660;
1121.4000;0.1286;-0.5610;
1121.7000;0.1270;-0.5735;
1122.0000;0.1278;-0.5785;
1122.3000;0.1294;-0.5834;
1122.6000;0.1270;-0.5760;
1122.9000;0.1302;-0.5660;
1123.2000;0.1294;-0.5785;
1123.5000;0.1286;-0.5760;
1123.8000;0.1262;-0.5735;
1124.1000;0.1286;-0.5685;
1124.4000;0.1286;-0.5710;
1124.7000;0.1294;-0.5710;
1125.0000;0.1254;-0.5810;
1125.3000;0.1311;-0.5735;
1125.6000;0.1302;-0.5909;
1125.9000;0.1294;-0.5934;
1126.2000;0.1351;-0.5760;
1126.5000;0.1286;-0.5934;
1126.8000;0.1294;-0.5785;
1127.1000;0.1302;-0.5710;
1127.4000;0.1311;-0.5685;
1127.7000;0.1319;-0.5735;
1128.0000;0.1294;-0.5834;
1128.3000;0.1286;-0.5934;
1128.6000;0.1294;-0.5884;
1128.9000;0.1262;-0.5934;
1129.2000;0.1278;-0.5834;
1129.5000;0.1294;-0.5760;
1129.8000;0.1286;-0.5785;
1130.1000;0.1278;-0.5859;
1130.4000;0.1286;-0.5810;
1130.7000;0.1302;-0.5710;
1131.0000;0.1278;-0.5785;
1131.3000;0.1278;-0.5785;
1131.6000;0.1302;-0.5735;
1131.9000;0.1278;-0.5884;
1132.2000;0.1278;-0.5859;
1132.5000;0.1294;-0.5785;
1132.8000;0.1278;-0.5760;
1133.1000;0.1294;-0.5735;
1133.4000;0.1270;-0.5735;
1133.7000;0.1205;-0.5884;
1134.0000;0.1278;-0.5710;
1134.3000;0.1286;-0.5685;
1134.6000;0.1311;-0.5585;
1134.9000;0.1302;-0.5610;
1135.2000;0.1294;-0.5585;
1135.5000;0.1286;-0.5660;
1135.8000;0.1294;-0.5685;
1136.1000;0.1294;-0.5735;
1136.4000;0.1286;-0.5834;
1136.7000;0.1286;-0.5859;
1137.0000;0.1294;-0.5959;
1137.3000;0.1294;-0.5909;
1137.6000;0.1294;-0.5760;
1137.9000;0.1319;-0.5685;
1138.2000;0.1286;-0.5735;
1138.5000;0.1270;-0.5810;
1138.8000;0.1294;-0.5660;
1139.1000;0.1286;-0.5635;
1139.4000;0.1319;-0.5485;
1139.7000;0.1286;-0.5560;
1140.0000;0.1302;-0.5560;
1140.3000;0.1376;-0.5386;
1140.6000;0.1311;-0.5610;
1140.9000;0.1270;-0.5685;
1141.2000;0.1294;-0.5560;
1141.5000;0.1270;-0.5560;
1141.8000;0.1270;-0.5610;
1142.1000;0.1302;-0.5510;
1142.4000;0.1302;-0.5485;
1142.7000;0.1286;-0.5585;
1143.0000;0.1278;-0.5585;
1143.3000;0.1286;-0.5635;
1143.6000;0.1311;-0.5635;
1143.9000;0.1302;-0.5685;
1144.2000;0.1262;-0.5760;
1144.5000;0.1262;-0.5760;
1144.8000;0.1286;-0.5660;
1145.1000;0.1311;-0.5585;
1145.4000;0.1294;-0.5560;
1145.7000;0.1294;-0.5460;
1146.0000;0.1302;-0.5460;
1146.3000;0.1270;-0.5560;
1146.6000;0.1319;-0.5460;
1146.9000;0.1294;-0.5560;
1147.2000;0.1278;-0.5685;
1147.5000;0.1270;-0.5735;
1147.8000;0.1278;-0.5660;
1148.1000;0.1270;-0.5585;
1148.4000;0.1286;-0.5560;
1148.7000;0.1270;-0.5560;
1149.0000;0.1286;-0.5485;
1149.3000;0.1278;-0.5535;
1149.6000;0.1311;-0.5660;
1149.9000;0.1270;-0.5859;
1150.2000;0.1368;-0.5585;
1150.5000;0.1278;-0.5810;
1150.8000;0.1294;-0.5710;
1151.1000;0.1286;-0.5735;
1151.4000;0.1278;-0.5710;
1151.7000;0.1278;-0.5660;
1152.0000;0.1254;-0.5785;
1152.3000;0.1294;-0.5685;
1152.6000;0.1270;-0.5660;
1152.9000;0.1270;-0.5810;
1153.2000;0.1262;-0.5710;
1153.5000;0.1278;-0.5685;
1153.8000;0.1286;-0.5660;
1154.1000;0.1270;-0.5585;
1154.4000;0.1302;-0.5560;
1154.7000;0.1270;-0.5660;
1155.0000;0.1278;-0.5660;
1155.3000;0.1368;-0.5510;
1155.6000;0.1335;-0.5585;
1155.9000;0.1294;-0.5635;
1156.2000;0.1294;-0.5535;
1156.5000;0.1254;-0.5535;
1156.8000;0.1278;-0.5436;
1157.1000;0.1262;-0.5510;
1157.4000;0.1278;-0.5510;
1157.7000;0.1294;-0.5610;
1158.0000;0.1311;-0.5460;
1158.3000;0.1335;-0.5460;
1158.6000;0.1294;-0.5535;
1158.9000;0.1294;-0.5436;
1159.2000;0.1302;-0.5386;
1159.5000;0.1278;-0.5585;
1159.8000;0.1286;-0.5510;
1160.1000;0.1278;-0.5485;
1160.4000;0.1278;-0.5610;
1160.7000;0.1302;-0.5535;
1161.0000;0.1311;-0.5510;
1161.3000;0.1286;-0.5560;
1161.6000;0.1302;-0.5535;
1161.9000;0.1302;-0.5610;
1162.2000;0.1286;-0.5635;
1162.5000;0.1286;-0.5735;
1162.8000;0.1254;-0.5810;
1163.1000;0.1278;-0.5760;
1163.4000;0.1294;-0.5735;
1163.7000;0.1286;-0.5785;
1164.0000;0.1294;-0.5685;
1164.3000;0.1294;-0.5710;
1164.6000;0.1294;-0.5834;
1164.9000;0.1286;-0.5884;
1165.2000;0.1278;-0.5959;
1165.5000;0.1237;-0.6009;
1165.8000;0.1286;-0.5884;
1166.1000;0.1270;-0.5834;
1166.4000;0.1278;-0.5884;
1166.7000;0.1286;-0.5884;
1167.0000;0.1294;-0.5859;
1167.3000;0.1270;-0.5859;
1167.6000;0.1294;-0.5685;
1167.9000;0.1205;-0.5909;
1168.2000;0.1294;-0.5610;
1168.5000;0.1294;-0.5635;
1168.8000;0.1254;-0.5585;
1169.1000;0.1278;-0.5610;
1169.4000;0.1286;-0.5635;
1169.7000;0.1262;-0.5810;
1170.0000;0.1270;-0.5859;
1170.3000;0.1294;-0.5710;
1170.6000;0.1294;-0.5610;
1170.9000;0.1302;-0.5610;
1171.2000;0.1319;-0.5560;
1171.5000;0.1302;-0.5610;
1171.8000;0.1392;-0.5336;
1172.1000;0.1311;-0.5610;
1172.4000;0.1327;-0.5485;
1172.7000;0.1302;-0.5485;
1173.0000;0.1294;-0.5610;
1173.3000;0.1262;-0.5710;
1173.6000;0.1294;-0.5685;
1173.9000;0.1302;-0.5660;
1174.2000;0.1311;-0.5510;
1174.5000;0.1286;-0.5535;
1174.8000;0.1286;-0.5635;
1175.1000;0.1286;-0.5610;
1175.4000;0.1294;-0.5560;
1175.7000;0.1311;-0.5485;
1176.0000;0.1311;-0.5635;
1176.3000;0.1359;-0.5485;
1176.6000;0.1327;-0.5660;
1176.9000;0.1262;-0.5685;
1177.2000;0.1270;-0.5710;
1177.5000;0.1311;-0.5610;
1177.8000;0.1294;-0.5635;
1178.1000;0.1278;-0.5585;
1178.4000;0.1302;-0.5485;
1178.7000;0.1278;-0.5610;
1179.0000;0.1311;-0.5635;
1179.3000;0.1343;-0.5635;
1179.6000;0.1286;-0.5760;
1179.9000;0.1294;-0.5760;
1180.2000;0.1302;-0.5760;
1180.5000;0.1278;-0.5710;
1180.8000;0.1302;-0.5635;
1181.1000;0.1294;-0.5685;
1181.4000;0.1302;-0.5585;
1181.7000;0.1286;-0.5535;
1182.0000;0.1294;-0.5460;
1182.3000;0.1270;-0.5510;
1182.6000;0.1286;-0.5635;
1182.9000;0.1294;-0.5610;
1183.2000;0.1286;-0.5535;
1183.5000;0.1302;-0.5535;
1183.8000;0.1254;-0.5660;
1184.1000;0.1294;-0.5635;
1184.4000;0.1302;-0.5635;
1184.7000;0.1311;-0.5610;
1185.0000;0.1254;-0.5760;
1185.3000;0.1286;-0.5685;
1185.6000;0.1302;-0.5610;
1185.9000;0.1319;-0.5585;
1186.2000;0.1294;-0.5635;
1186.5000;0.1294;-0.5635;
1186.8000;0.1294;-0.5685;
1187.1000;0.1311;-0.5710;
1187.4000;0.1302;-0.5660;
1187.7000;0.1294;-0.5610;
1188.0000;0.1327;-0.5510;
1188.3000;0.1294;-0.5635;
1188.6000;0.1270;-0.5810;
1188.9000;0.1302;-0.5685;
1189.2000;0.1286;-0.5710;
1189.5000;0.1319;-0.5660;
1189.8000;0.1294;-0.5735;
1190.1000;0.1278;-0.5710;
1190.4000;0.1278;-0.5660;
1190.7000;0.1197;-0.5859;
1191.0000;0.1327;-0.5560;
1191.3000;0.1278;-0.5635;
1191.6000;0.1278;-0.5710;
1191.9000;0.1302;-0.5710;
1192.2000;0.1278;-0.5710;
1192.5000;0.1286;-0.5635;
1192.8000;0.1270;-0.5710;
1193.1000;0.1302;-0.5635;
1193.4000;0.1286;-0.5635;
1193.7000;0.1278;-0.5585;
1194.0000;0.1278;-0.5535;
1194.3000;0.1270;-0.5560;
1194.6000;0.1302;-0.5535;
1194.9000;0.1286;-0.5585;
1195.2000;0.1278;-0.5685;
1195.5000;0.1294;-0.5585;
1195.8000;0.1278;-0.5535;
1196.1000;0.1302;-0.5510;
1196.4000;0.1294;-0.5585;
1196.7000;0.1319;-0.5535;
1197.0000;0.1294;-0.5560;
1197.3000;0.1302;-0.5635;
1197.6000;0.1302;-0.5685;
1197.9000;0.1311;-0.5710;
1198.2000;0.1270;-0.5859;
1198.5000;0.1311;-0.5710;
1198.8000;0.1302;-0.5710;
1199.1000;0.1278;-0.5735;
1199.4000;0.1294;-0.5685;
1199.7000;0.1302;-0.5635;
1200.0000;0.1327;-0.5585;
1200.3000;0.1262;-0.5685;
1200.6000;0.1278;-0.5585;
1200.9000;0.1302;-0.5610;
1201.2000;0.1294;-0.5560;
1201.5000;0.1278;-0.5685;
1201.8000;0.1262;-0.5660;
1202.1000;0.1278;-0.5635;
1202.4000;0.1351;-0.5460;
1202.7000;0.1286;-0.5635;
1203.0000;0.1302;-0.5710;
1203.3000;0.1286;-0.5710;
1203.6000;0.1278;-0.5710;
1203.9000;0.1294;-0.5735;
1204.2000;0.1254;-0.5810;
1204.5000;0.1351;-0.5510;
1204.8000;0.1294;-0.5585;
1205.1000;0.1311;-0.5560;
1205.4000;0.1286;-0.5635;
1205.7000;0.1278;-0.5635;
1206.0000;0.1302;-0.5560;
1206.3000;0.1278;-0.5585;
1206.6000;0.1237;-0.5660;
1206.9000;0.1294;-0.5336;
1207.2000;0.1302;-0.5361;
1207.5000;0.1286;-0.5386;
1207.8000;0.1278;-0.5411;
1208.1000;0.1294;-0.5336;
1208.4000;0.1278;-0.5411;
1208.7000;0.1302;-0.5361;
1209.0000;0.1311;-0.5336;
1209.3000;0.1294;-0.5361;
1209.6000;0.1294;-0.5386;
1209.9000;0.1294;-0.5411;
1210.2000;0.1302;-0.5386;
1210.5000;0.1294;-0.5436;
1210.8000;0.1302;-0.5311;
1211.1000;0.1311;-0.5286;
1211.4000;0.1343;-0.5186;
1211.7000;0.1294;-0.5311;
1212.0000;0.1294;-0.5361;
1212.3000;0.1286;-0.5336;
1212.6000;0.1311;-0.5311;
1212.9000;0.1278;-0.5386;
1213.2000;0.1286;-0.5411;
1213.5000;0.1286;-0.5411;
1213.8000;0.1302;-0.5361;
1214.1000;0.1270;-0.5411;
1214.4000;0.1229;-0.5585;
1214.7000;0.1278;-0.5485;
1215.0000;0.1302;-0.5510;
1215.3000;0.1311;-0.5510;
1215.6000;0.1294;-0.5560;
1215.9000;0.1278;-0.5610;
1216.2000;0.1286;-0.5560;
1216.5000;0.1302;-0.5535;
1216.8000;0.1327;-0.5460;
1217.1000;0.1302;-0.5460;
1217.4000;0.1270;-0.5485;
1217.7000;0.1286;-0.5485;
1218.0000;0.1286;-0.5485;
1218.3000;0.1302;-0.5411;
1218.6000;0.1278;-0.5485;
1218.9000;0.1286;-0.5510;
1219.2000;0.1294;-0.5535;
1219.5000;0.1262;-0.5660;
1219.8000;0.1278;-0.5585;
1220.1000;0.1286;-0.5685;
1220.4000;0.1270;-0.5735;
1220.7000;0.1286;-0.5685;
1221.0000;0.1351;-0.5411;
1221.3000;0.1294;-0.5560;
1221.6000;0.1286;-0.5535;
1221.9000;0.1302;-0.5485;
1222.2000;0.1262;-0.5485;
1222.5000;0.1286;-0.5485;
1222.8000;0.1294;-0.5386;
1223.1000;0.1351;-0.5236;
1223.4000;0.1319;-0.5211;
1223.7000;0.1311;-0.5236;
1224.0000;0.1351;-0.5236;
1224.3000;0.1294;-0.5411;
1224.6000;0.1270;-0.5436;
1224.9000;0.1311;-0.5336;
1225.2000;0.1392;-0.5111;
1225.5000;0.1376;-0.5111;
1225.8000;0.1278;-0.5411;
1226.1000;0.1286;-0.5436;
1226.4000;0.1294;-0.5485;
1226.7000;0.1213;-0.5735;
1227.0000;0.1294;-0.5460;
1227.3000;0.1294;-0.5460;
1227.6000;0.1327;-0.5261;
1227.9000;0.1294;-0.5361;
1228.2000;0.1302;-0.5386;
1228.5000;0.1286;-0.5510;
1228.8000;0.1294;-0.5460;
1229.1000;0.1302;-0.5460;
1229.4000;0.1270;-0.5610;
1229.7000;0.1286;-0.5485;
1230.0000;0.1302;-0.5436;
1230.3000;0.1351;-0.5236;
1230.6000;0.1294;-0.5386;
1230.9000;0.1294;-0.5336;
1231.2000;0.1270;-0.5460;
1231.5000;0.1302;-0.5510;
1231.8000;0.1286;-0.5560;
1232.1000;0.1302;-0.5510;
1232.4000;0.1335;-0.5460;
1232.7000;0.1294;-0.5535;
1233.0000;0.1286;-0.5485;
1233.3000;0.1335;-0.5336;
1233.6000;0.1311;-0.5485;
1233.9000;0.1384;-0.5236;
1234.2000;0.1278;-0.5485;
1234.5000;0.1286;-0.5411;
1234.8000;0.1294;-0.5386;
1235.1000;0.1286;-0.5411;
1235.4000;0.1254;-0.5585;
1235.7000;0.1270;-0.5635;
1236.0000;0.1270;-0.5685;
1236.3000;0.1221;-0.5785;
1236.6000;0.1294;-0.5560;
1236.9000;0.1213;-0.5685;
1237.2000;0.1286;-0.5411;
1237.5000;0.1286;-0.5535;
1237.8000;0.1294;-0.5411;
1238.1000;0.1294;-0.5361;
1238.4000;0.1319;-0.5336;
1238.7000;0.1197;-0.5685;
1239.0000;0.1294;-0.5436;
1239.3000;0.1302;-0.5361;
1239.6000;0.1302;-0.5286;
1239.9000;0.1278;-0.5311;
1240.2000;0.1286;-0.5236;
1240.5000;0.1294;-0.5286;
1240.8000;0.1278;-0.5386;
1241.1000;0.1286;-0.5411;
1241.4000;0.1302;-0.5411;
1241.7000;0.1270;-0.5485;
1242.0000;0.1302;-0.5485;
1242.3000;0.1278;-0.5535;
1242.6000;0.1286;-0.5610;
1242.9000;0.1278;-0.5560;
1243.2000;0.1302;-0.5485;
1243.5000;0.1294;-0.5560;
1243.8000;0.1286;-0.5535;
1244.1000;0.1343;-0.5311;
1244.4000;0.1286;-0.5535;
1244.7000;0.1286;-0.5585;
1245.0000;0.1302;-0.5610;
1245.3000;0.1278;-0.5585;
1245.6000;0.1302;-0.5535;
1245.9000;0.1286;-0.5510;
1246.2000;0.1213;-0.5635;
1246.5000;0.1302;-0.5436;
1246.8000;0.1286;-0.5411;
1247.1000;0.1254;-0.5386;
1247.4000;0.1262;-0.5436;
1247.7000;0.1270;-0.5386;
1248.0000;0.1302;-0.5361;
1248.3000;0.1319;-0.5286;
1248.6000;0.1294;-0.5411;
1248.9000;0.1270;-0.5535;
1249.2000;0.1278;-0.5485;
1249.5000;0.1270;-0.5460;
1249.8000;0.1286;-0.5510;
1250.1000;0.1254;-0.5635;
1250.4000;0.1335;-0.5386;
1250.7000;0.1278;-0.5560;
1251.0000;0.1278;-0.5510;
1251.3000;0.1254;-0.5510;
1251.6000;0.1302;-0.5311;
1251.9000;0.1294;-0.5361;
1252.2000;0.1294;-0.5361;
1252.5000;0.1335;-0.5361;
1252.8000;0.1270;-0.5585;
1253.1000;0.1278;-0.5635;
1253.4000;0.1311;-0.5585;
1253.7000;0.1254;-0.5610;
1254.0000;0.1343;-0.5436;
1254.3000;0.1368;-0.5311;
1254.6000;0.1327;-0.5436;
1254.9000;0.1302;-0.5510;
1255.2000;0.1286;-0.5585;
1255.5000;0.1278;-0.5610;
1255.8000;0.1319;-0.5560;
1256.1000;0.1254;-0.5710;
1256.4000;0.1311;-0.5585;
1256.7000;0.1311;-0.5660;
1257.0000;0.1311;-0.5610;
1257.3000;0.1368;-0.5485;
1257.6000;0.1270;-0.5760;
1257.9000;0.1359;-0.5585;
1258.2000;0.1294;-0.5760;
1258.5000;0.1294;-0.5760;
1258.8000;0.1294;-0.5735;
1259.1000;0.1278;-0.5685;
1259.4000;0.1270;-0.5710;
1259.7000;0.1286;-0.5635;
1260.0000;0.1286;-0.5660;
1260.3000;0.1262;-0.5710;
1260.6000;0.1286;-0.5535;
1260.9000;0.1302;-0.5610;
1261.2000;0.1270;-0.5760;
1261.5000;0.1278;-0.5785;
1261.8000;0.1319;-0.5760;
1262.1000;0.1311;-0.5760;
1262.4000;0.1294;-0.5785;
1262.7000;0.1286;-0.5785;
1263.0000;0.1286;-0.5735;
1263.3000;0.1294;-0.5735;
1263.6000;0.1278;-0.5760;
1263.9000;0.1278;-0.5785;
1264.2000;0.1286;-0.5810;
1264.5000;0.1294;-0.5760;
1264.8000;0.1294;-0.5810;
1265.1000;0.1294;-0.5735;
1265.4000;0.1278;-0.5785;
1265.7000;0.1302;-0.5660;
1266.0000;0.1294;-0.5635;
1266.3000;0.1229;-0.5760;
1266.6000;0.1262;-0.5610;
1266.9000;0.1302;-0.5510;
1267.2000;0.1286;-0.5585;
1267.5000;0.1319;-0.5635;
1267.8000;0.1286;-0.5710;
1268.1000;0.1278;-0.5735;
1268.4000;0.1302;-0.5685;
1268.7000;0.1311;-0.5685;
1269.0000;0.1278;-0.5785;
1269.3000;0.1237;-0.5859;
1269.6000;0.1302;-0.5635;
1269.9000;0.1294;-0.5635;
1270.2000;0.1278;-0.5760;
1270.5000;0.1254;-0.5760;
1270.8000;0.1262;-0.5660;
1271.1000;0.1286;-0.5610;
1271.4000;0.1164;-0.5934;
1271.7000;0.1262;-0.5760;
1272.0000;0.1270;-0.5760;
1272.3000;0.1278;-0.5760;
1272.6000;0.1245;-0.5859;
1272.9000;0.1278;-0.5685;
1273.2000;0.1286;-0.5735;
1273.5000;0.1205;-0.5884;
1273.8000;0.1278;-0.5760;
1274.1000;0.1286;-0.5760;
1274.4000;0.1302;-0.5859;
1274.7000;0.1294;-0.5959;
1275.0000;0.1294;-0.5884;
1275.3000;0.1294;-0.5859;
1275.6000;0.1294;-0.5834;
1275.9000;0.1278;-0.5834;
1276.2000;0.1294;-0.5785;
1276.5000;0.1294;-0.5785;
1276.8000;0.1302;-0.5660;
1277.1000;0.1294;-0.5610;
1277.4000;0.1311;-0.5560;
1277.7000;0.1311;-0.5560;
1278.0000;0.1294;-0.5635;
1278.3000;0.1376;-0.5411;
1278.6000;0.1286;-0.5610;
1278.9000;0.1294;-0.5635;
1279.2000;0.1262;-0.5685;
1279.5000;0.1286;-0.5635;
1279.8000;0.1262;-0.5660;
1280.1000;0.1302;-0.5510;
1280.4000;0.1294;-0.5510;
1280.7000;0.1286;-0.5535;
1281.0000;0.1294;-0.5510;
1281.3000;0.1384;-0.5236;
1281.6000;0.1302;-0.5436;
1281.9000;0.1286;-0.5510;
1282.2000;0.1278;-0.5535;
1282.5000;0.1302;-0.5535;
1282.8000;0.1278;-0.5610;
1283.1000;0.1254;-0.5785;
1283.4000;0.1294;-0.5710;
1283.7000;0.1294;-0.5635;
1284.0000;0.1278;-0.5685;
1284.3000;0.1278;-0.5660;
1284.6000;0.1270;-0.5660;
1284.9000;0.1286;-0.5685;
1285.2000;0.1311;-0.5710;
1285.5000;0.1278;-0.5735;
1285.8000;0.1327;-0.5610;
1286.1000;0.1376;-0.5411;
1286.4000;0.1286;-0.5585;
1286.7000;0.1286;-0.5535;
1287.0000;0.1286;-0.5585;
1287.3000;0.1286;-0.5485;
1287.6000;0.1294;-0.5460;
1287.9000;0.1270;-0.5585;
1288.2000;0.1278;-0.5585;
1288.5000;0.1278;-0.5610;
1288.8000;0.1311;-0.5460;
1289.1000;0.1294;-0.5460;
1289.4000;0.1311;-0.5485;
1289.7000;0.1278;-0.5560;
1290.0000;0.1286;-0.5660;
1290.3000;0.1294;-0.5660;
1290.6000;0.1302;-0.5585;
1290.9000;0.1294;-0.5560;
1291.2000;0.1278;-0.5560;
1291.5000;0.1286;-0.5535;
1291.8000;0.1278;-0.5585;
1292.1000;0.1270;-0.5610;
1292.4000;0.1294;-0.5535;
1292.7000;0.1302;-0.5535;
1293.0000;0.1294;-0.5560;
1293.3000;0.1270;-0.5560;
1293.6000;0.1262;-0.5710;
1293.9000;0.1286;-0.5635;
1294.2000;0.1302;-0.5685;
1294.5000;0.1286;-0.5660;
1294.8000;0.1278;-0.5535;
1295.1000;0.1294;-0.5560;
1295.4000;0.1294;-0.5560;
1295.7000;0.1270;-0.5710;
1296.0000;0.1294;-0.5735;
1296.3000;0.1278;-0.5760;
1296.6000;0.1262;-0.5710;
1296.9000;0.1254;-0.5834;
1297.2000;0.1278;-0.5635;
1297.5000;0.1376;-0.5386;
1297.8000;0.1286;-0.5610;
1298.1000;0.1294;-0.5535;
1298.4000;0.1286;-0.5560;
1298.7000;0.1270;-0.5685;
1299.0000;0.1286;-0.5585;
1299.3000;0.1311;-0.5411;
1299.6000;0.1278;-0.5411;
1299.9000;0.1311;-0.5286;
1300.2000;0.1294;-0.5361;
1300.5000;0.1286;-0.5460;
1300.8000;0.1294;-0.5485;
1301.1000;0.1286;-0.5535;
1301.4000;0.1302;-0.5535;
1301.7000;0.1311;-0.5610;
1302.0000;0.1302;-0.5535;
1302.3000;0.1302;-0.5535;
1302.6000;0.1302;-0.5610;
1302.9000;0.1319;-0.5560;
1303.2000;0.1319;-0.5535;
1303.5000;0.1302;-0.5535;
1303.8000;0.1286;-0.5560;
1304.1000;0.1343;-0.5386;
1304.4000;0.1278;-0.5560;
1304.7000;0.1311;-0.5535;
1305.0000;0.1229;-0.5760;
1305.3000;0.1262;-0.5685;
1305.6000;0.1262;-0.5685;
1305.9000;0.1262;-0.5660;
1306.2000;0.1278;-0.5635;
1306.5000;0.1254;-0.5735;
1306.8000;0.1311;-0.5411;
1307.1000;0.1286;-0.5460;
1307.4000;0.1286;-0.5635;
1307.7000;0.1302;-0.5610;
1308.0000;0.1302;-0.5460;
1308.3000;0.1286;-0.5460;
1308.6000;0.1278;-0.5510;
1308.9000;0.1278;-0.5560;
1309.2000;0.1278;-0.5585;
1309.5000;0.1286;-0.5535;
1309.8000;0.1294;-0.5510;
1310.1000;0.1294;-0.5535;
1310.4000;0.1335;-0.5460;
1310.7000;0.1294;-0.5585;
1311.0000;0.1311;-0.5535;
1311.3000;0.1286;-0.5585;
1311.6000;0.1286;-0.5660;
1311.9000;0.1172;-0.5859;
1312.2000;0.1294;-0.5635;
1312.5000;0.1286;-0.5560;
1312.8000;0.1327;-0.5485;
1313.1000;0.1319;-0.5535;
1313.4000;0.1302;-0.5610;
1313.7000;0.1294;-0.5585;
1314.0000;0.1278;-0.5585;
1314.3000;0.1319;-0.5535;
1314.6000;0.1302;-0.5660;
1314.9000;0.1286;-0.5735;
1315.2000;0.1294;-0.5635;
1315.5000;0.1327;-0.5535;
1315.8000;0.1270;-0.5685;
1316.1000;0.1197;-0.5760;
1316.4000;0.1319;-0.5510;
1316.7000;0.1302;-0.5635;
1317.0000;0.1302;-0.5660;
1317.3000;0.1278;-0.5735;
1317.6000;0.1294;-0.5610;
1317.9000;0.1286;-0.5710;
1318.2000;0.1294;-0.5610;
1318.5000;0.1294;-0.5710;
1318.8000;0.1311;-0.5685;
1319.1000;0.1286;-0.5760;
1319.4000;0.1294;-0.5660;
1319.7000;0.1262;-0.5710;
1320.0000;0.1278;-0.5635;
1320.3000;0.1262;-0.5710;
1320.6000;0.1319;-0.5585;
1320.9000;0.1294;-0.5685;
1321.2000;0.1270;-0.5785;
1321.5000;0.1294;-0.5735;
1321.8000;0.1254;-0.5810;
1322.1000;0.1294;-0.5610;
1322.4000;0.1229;-0.5760;
1322.7000;0.1286;-0.5610;
1323.0000;0.1278;-0.5660;
1323.3000;0.1302;-0.5585;
1323.6000;0.1294;-0.5660;
1323.9000;0.1286;-0.5635;
1324.2000;0.1302;-0.5610;
1324.5000;0.1286;-0.5610;
1324.8000;0.1311;-0.5485;
1325.1000;0.1270;-0.5610;
1325.4000;0.1286;-0.5660;
1325.7000;0.1286;-0.5635;
1326.0000;0.1294;-0.5660;
1326.3000;0.1286;-0.5710;
1326.6000;0.1262;-0.5735;
1326.9000;0.1319;-0.5560;
1327.2000;0.1311;-0.5485;
1327.5000;0.1270;-0.5785;
1327.8000;0.1294;-0.5710;
1328.1000;0.1302;-0.5685;
1328.4000;0.1245;-0.5859;
1328.7000;0.1286;-0.5760;
1329.0000;0.1286;-0.5810;
1329.3000;0.1245;-0.5859;
1329.6000;0.1351;-0.5510;
1329.9000;0.1278;-0.5710;
1330.2000;0.1254;-0.5735;
1330.5000;0.1221;-0.5760;
1330.8000;0.1302;-0.5610;
1331.1000;0.1270;-0.5710;
1331.4000;0.1278;-0.5610;
1331.7000;0.1278;-0.5635;
1332.0000;0.1319;-0.5535;
1332.3000;0.1294;-0.5585;
1332.6000;0.1294;-0.5560;
1332.9000;0.1254;-0.5660;
1333.2000;0.1286;-0.5535;
1333.5000;0.1286;-0.5610;
1333.8000;0.1286;-0.5660;
1334.1000;0.1286;-0.5710;
1334.4000;0.1311;-0.5610;
1334.7000;0.1286;-0.5660;
1335.0000;0.1278;-0.5660;
1335.3000;0.1270;-0.5685;
1335.6000;0.1302;-0.5560;
1335.9000;0.1245;-0.5710;
1336.2000;0.1286;-0.5560;
1336.5000;0.1294;-0.5535;
1336.8000;0.1278;-0.5610;
1337.1000;0.1343;-0.5510;
1337.4000;0.1311;-0.5685;
1337.7000;0.1294;-0.5710;
1338.0000;0.1286;-0.5710;
1338.3000;0.1221;-0.5859;
1338.6000;0.1311;-0.5710;
1338.9000;0.1245;-0.5859;
1339.2000;0.1286;-0.5760;
1339.5000;0.1286;-0.5585;
1339.8000;0.1254;-0.5610;
1340.1000;0.1311;-0.5535;
1340.4000;0.1278;-0.5785;
1340.7000;0.1286;-0.5710;
1341.0000;0.1286;-0.5685;
1341.3000;0.1311;-0.5610;
1341.6000;0.1278;-0.5685;
1341.9000;0.1359;-0.5535;
1342.2000;0.1319;-0.5685;
1342.5000;0.1302;-0.5660;
1342.8000;0.1270;-0.5785;
1343.1000;0.1302;-0.5735;
1343.4000;0.1270;-0.5735;
1343.7000;0.1294;-0.5610;
1344.0000;0.1213;-0.5834;
1344.3000;0.1188;-0.5909;
1344.6000;0.1294;-0.5610;
1344.9000;0.1270;-0.5710;
1345.2000;0.1302;-0.5560;
1345.5000;0.1286;-0.5560;
1345.8000;0.1270;-0.5660;
1346.1000;0.1302;-0.5685;
1346.4000;0.1294;-0.5760;
1346.7000;0.1327;-0.5635;
1347.0000;0.1294;-0.5660;
1347.3000;0.1286;-0.5635;
1347.6000;0.1311;-0.5560;
1347.9000;0.1311;-0.5660;
1348.2000;0.1311;-0.5785;
1348.5000;0.1286;-0.5859;
1348.8000;0.1286;-0.5884;
1349.1000;0.1302;-0.5884;
1349.4000;0.1286;-0.5884;
1349.7000;0.1335;-0.5710;
1350.0000;0.1294;-0.5810;
1350.3000;0.1294;-0.5810;
1350.6000;0.1286;-0.5884;
1350.9000;0.1311;-0.5884;
1351.2000;0.1294;-0.5959;
1351.5000;0.1311;-0.5909;
1351.8000;0.1302;-0.5934;
1352.1000;0.1286;-0.5959;
1352.4000;0.1319;-0.5834;
1352.7000;0.1286;-0.5909;
1353.0000;0.1286;-0.5934;
1353.3000;0.1359;-0.5760;
1353.6000;0.1278;-0.5984;
1353.9000;0.1270;-0.5934;
1354.2000;0.1294;-0.5810;
1354.5000;0.1286;-0.5834;
1354.8000;0.1294;-0.5810;
1355.1000;0.1278;-0.5785;
1355.4000;0.1294;-0.5735;
1355.7000;0.1270;-0.5760;
1356.0000;0.1294;-0.5710;
1356.3000;0.1286;-0.5760;
1356.6000;0.1286;-0.5785;
1356.9000;0.1278;-0.5785;
1357.2000;0.1278;-0.5785;
1357.5000;0.1294;-0.5685;
1357.8000;0.1245;-0.5785;
1358.1000;0.1278;-0.5710;
1358.4000;0.1278;-0.5810;
1358.7000;0.1294;-0.5735;
1359.0000;0.1294;-0.5660;
1359.3000;0.1254;-0.5710;
1359.6000;0.1286;-0.5585;
1359.9000;0.1311;-0.5510;
1360.2000;0.1278;-0.5610;
1360.5000;0.1294;-0.5610;
1360.8000;0.1286;-0.5635;
1361.1000;0.1327;-0.5510;
1361.4000;0.1335;-0.5485;
1361.7000;0.1286;-0.5485;
1362.0000;0.1294;-0.5485;
1362.3000;0.1294;-0.5485;
1362.6000;0.1319;-0.5510;
1362.9000;0.1302;-0.5510;
1363.2000;0.1286;-0.5485;
1363.5000;0.1294;-0.5560;
1363.8000;0.1302;-0.5610;
1364.1000;0.1278;-0.5660;
1364.4000;0.1262;-0.5710;
1364.7000;0.1286;-0.5735;
1365.0000;0.1286;-0.5660;
1365.3000;0.1343;-0.5485;
1365.6000;0.1278;-0.5635;
1365.9000;0.1286;-0.5585;
1366.2000;0.1294;-0.5560;
1366.5000;0.1302;-0.5585;
1366.8000;0.1335;-0.5510;
1367.1000;0.1302;-0.5635;
1367.4000;0.1245;-0.5710;
1367.7000;0.1311;-0.5610;
1368.0000;0.1294;-0.5535;
1368.3000;0.1286;-0.5560;
1368.6000;0.1302;-0.5560;
1368.9000;0.1319;-0.5510;
1369.2000;0.1270;-0.5735;
1369.5000;0.1400;-0.5510;
1369.8000;0.1270;-0.5859;
1370.1000;0.1294;-0.5785;
1370.4000;0.1294;-0.5834;
1370.7000;0.1278;-0.5785;
1371.0000;0.1302;-0.5760;
1371.3000;0.1311;-0.5735;
1371.6000;0.1311;-0.5760;
1371.9000;0.1278;-0.5760;
1372.2000;0.1278;-0.5710;
1372.5000;0.1294;-0.5685;
1372.8000;0.1286;-0.5685;
1373.1000;0.1302;-0.5585;
1373.4000;0.1294;-0.5560;
1373.7000;0.1294;-0.5610;
1374.0000;0.1294;-0.5535;
1374.3000;0.1286;-0.5685;
1374.6000;0.1294;-0.5685;
1374.9000;0.1311;-0.5560;
1375.2000;0.1311;-0.5585;
1375.5000;0.1286;-0.5635;
1375.8000;0.1294;-0.5635;
1376.1000;0.1286;-0.5635;
1376.4000;0.1302;-0.5560;
1376.7000;0.1294;-0.5660;
1377.0000;0.1302;-0.5660;
1377.3000;0.1294;-0.5635;
1377.6000;0.1286;-0.5660;
1377.9000;0.1302;-0.5710;
1378.2000;0.1286;-0.5735;
1378.5000;0.1294;-0.5685;
1378.8000;0.1294;-0.5735;
1379.1000;0.1286;-0.5710;
1379.4000;0.1302;-0.5585;
1379.7000;0.1286;-0.5660;
1380.0000;0.1278;-0.5660;
1380.3000;0.1319;-0.5485;
1380.6000;0.1294;-0.5535;
1380.9000;0.1278;-0.5585;
1381.2000;0.1278;-0.5635;
1381.5000;0.1302;-0.5635;
1381.8000;0.1278;-0.5685;
1382.1000;0.1302;-0.5610;
1382.4000;0.1311;-0.5585;
1382.7000;0.1311;-0.5585;
1383.0000;0.1311;-0.5610;
1383.3000;0.1294;-0.5560;
1383.6000;0.1294;-0.5685;
1383.9000;0.1311;-0.5710;
1384.2000;0.1294;-0.5859;
1384.5000;0.1294;-0.5735;
1384.8000;0.1302;-0.5685;
1385.1000;0.1311;-0.5660;
1385.4000;0.1311;-0.5735;
1385.7000;0.1294;-0.5884;
1386.0000;0.1294;-0.5884;
1386.3000;0.1311;-0.5785;
1386.6000;0.1294;-0.5834;
1386.9000;0.1294;-0.5909;
1387.2000;0.1294;-0.5884;
1387.5000;0.1319;-0.5934;
1387.8000;0.1311;-0.5959;
1388.1000;0.1311;-0.5934;
1388.4000;0.1311;-0.5959;
1388.7000;0.1294;-0.6009;
1389.0000;0.1294;-0.5909;
1389.3000;0.1278;-0.5934;
1389.6000;0.1286;-0.5909;
1389.9000;0.1286;-0.5984;
1390.2000;0.1221;-0.6134;
1390.5000;0.1294;-0.5909;
1390.8000;0.1278;-0.5984;
1391.1000;0.1278;-0.6059;
1391.4000;0.1294;-0.5959;
1391.7000;0.1278;-0.5984;
1392.0000;0.1294;-0.6034;
1392.3000;0.1278;-0.6109;
1392.6000;0.1294;-0.6084;
1392.9000;0.1286;-0.5984;
1393.2000;0.1286;-0.5934;
1393.5000;0.1286;-0.5909;
1393.8000;0.1278;-0.5984;
1394.1000;0.1286;-0.5909;
1394.4000;0.1262;-0.5959;
1394.7000;0.1278;-0.5909;
1395.0000;0.1270;-0.5934;
1395.3000;0.1294;-0.5984;
1395.6000;0.1286;-0.6009;
1395.9000;0.1286;-0.6059;
1396.2000;0.1286;-0.6059;
1396.5000;0.1286;-0.6059;
1396.8000;0.1237;-0.6258;
1397.1000;0.1294;-0.6059;
1397.4000;0.1294;-0.6134;
1397.7000;0.1311;-0.6109;
1398.0000;0.1294;-0.6034;
1398.3000;0.1319;-0.6084;
1398.6000;0.1302;-0.6084;
1398.9000;0.1278;-0.6134;
1399.2000;0.1302;-0.5984;
1399.5000;0.1302;-0.6034;
1399.8000;0.1286;-0.6084;
