time/ms;Fluo/V;P700 deltaI/I x10³;
-199.8000;0.1311;-0.6558;
-199.5000;0.1319;-0.6533;
-199.2000;0.1335;-0.6458;
-198.9000;0.1311;-0.6583;
-198.6000;0.1311;-0.6632;
-198.3000;0.1311;-0.6632;
-198.0000;0.1327;-0.6607;
-197.7000;0.1311;-0.6682;
-197.4000;0.1302;-0.6682;
-197.1000;0.1311;-0.6782;
-196.8000;0.1294;-0.6782;
-196.5000;0.1343;-0.6707;
-196.2000;0.1359;-0.6508;
-195.9000;0.1335;-0.6408;
-195.6000;0.1319;-0.6433;
-195.3000;0.1319;-0.6508;
-195.0000;0.1311;-0.6533;
-194.7000;0.1311;-0.6508;
-194.4000;0.1302;-0.6508;
-194.1000;0.1254;-0.6707;
-193.8000;0.1294;-0.6558;
-193.5000;0.1311;-0.6483;
-193.2000;0.1319;-0.6358;
-192.9000;0.1294;-0.6358;
-192.6000;0.1319;-0.6208;
-192.3000;0.1302;-0.6258;
-192.0000;0.1311;-0.6283;
-191.7000;0.1327;-0.6333;
-191.4000;0.1294;-0.6358;
-191.1000;0.1294;-0.6308;
-190.8000;0.1319;-0.6208;
-190.5000;0.1319;-0.6233;
-190.2000;0.1327;-0.6184;
-189.9000;0.1319;-0.6258;
-189.6000;0.1311;-0.6308;
-189.3000;0.1302;-0.6333;
-189.0000;0.1327;-0.6308;
-188.7000;0.1311;-0.6333;
-188.4000;0.1294;-0.6308;
-188.1000;0.1302;-0.6333;
-187.8000;0.1302;-0.6333;
-187.5000;0.1311;-0.6333;
-187.2000;0.1335;-0.6358;
-186.9000;0.1319;-0.6458;
-186.6000;0.1311;-0.6383;
-186.3000;0.1319;-0.6308;
-186.0000;0.1343;-0.6233;
-185.7000;0.1327;-0.6308;
-185.4000;0.1302;-0.6383;
-185.1000;0.1319;-0.6333;
-184.8000;0.1302;-0.6408;
-184.5000;0.1302;-0.6408;
-184.2000;0.1319;-0.6483;
-183.9000;0.1294;-0.6558;
-183.6000;0.1319;-0.6483;
-183.3000;0.1311;-0.6458;
-183.0000;0.1319;-0.6533;
-182.7000;0.1319;-0.6657;
-182.4000;0.1351;-0.6558;
-182.1000;0.1302;-0.6632;
-181.8000;0.1311;-0.6607;
-181.5000;0.1319;-0.6583;
-181.2000;0.1319;-0.6508;
-180.9000;0.1376;-0.6358;
-180.6000;0.1311;-0.6508;
-180.3000;0.1311;-0.6508;
-180.0000;0.1335;-0.6458;
-179.7000;0.1319;-0.6433;
-179.4000;0.1302;-0.6458;
-179.1000;0.1319;-0.6458;
-178.8000;0.1311;-0.6483;
-178.5000;0.1319;-0.6558;
-178.2000;0.1327;-0.6657;
-177.9000;0.1311;-0.6707;
-177.6000;0.1335;-0.6607;
-177.3000;0.1270;-0.6632;
-177.0000;0.1335;-0.6458;
-176.7000;0.1327;-0.6408;
-176.4000;0.1343;-0.6358;
-176.1000;0.1294;-0.6483;
-175.8000;0.1294;-0.6607;
-175.5000;0.1294;-0.6583;
-175.2000;0.1302;-0.6533;
-174.9000;0.1343;-0.6483;
-174.6000;0.1311;-0.6583;
-174.3000;0.1343;-0.6533;
-174.0000;0.1311;-0.6583;
-173.7000;0.1302;-0.6533;
-173.4000;0.1319;-0.6458;
-173.1000;0.1294;-0.6508;
-172.8000;0.1270;-0.6657;
-172.5000;0.1319;-0.6558;
-172.2000;0.1327;-0.6458;
-171.9000;0.1327;-0.6383;
-171.6000;0.1311;-0.6433;
-171.3000;0.1319;-0.6433;
-171.0000;0.1319;-0.6358;
-170.7000;0.1376;-0.6208;
-170.4000;0.1311;-0.6408;
-170.1000;0.1254;-0.6632;
-169.8000;0.1229;-0.6657;
-169.5000;0.1343;-0.6208;
-169.2000;0.1286;-0.6358;
-168.9000;0.1335;-0.6333;
-168.6000;0.1425;-0.6084;
-168.3000;0.1294;-0.6408;
-168.0000;0.1311;-0.6558;
-167.7000;0.1343;-0.6533;
-167.4000;0.1311;-0.6682;
-167.1000;0.1319;-0.6632;
-166.8000;0.1286;-0.6657;
-166.5000;0.1311;-0.6682;
-166.2000;0.1311;-0.6657;
-165.9000;0.1335;-0.6483;
-165.6000;0.1302;-0.6458;
-165.3000;0.1286;-0.6383;
-165.0000;0.1327;-0.6283;
-164.7000;0.1351;-0.6159;
-164.4000;0.1311;-0.6258;
-164.1000;0.1302;-0.6283;
-163.8000;0.1286;-0.6408;
-163.5000;0.1294;-0.6458;
-163.2000;0.1327;-0.6283;
-162.9000;0.1294;-0.6358;
-162.6000;0.1327;-0.6308;
-162.3000;0.1311;-0.6333;
-162.0000;0.1302;-0.6333;
-161.7000;0.1335;-0.6358;
-161.4000;0.1294;-0.6458;
-161.1000;0.1319;-0.6458;
-160.8000;0.1319;-0.6508;
-160.5000;0.1319;-0.6408;
-160.2000;0.1319;-0.6458;
-159.9000;0.1311;-0.6508;
-159.6000;0.1327;-0.6483;
-159.3000;0.1343;-0.6408;
-159.0000;0.1319;-0.6533;
-158.7000;0.1376;-0.6408;
-158.4000;0.1319;-0.6483;
-158.1000;0.1311;-0.6533;
-157.8000;0.1294;-0.6583;
-157.5000;0.1311;-0.6607;
-157.2000;0.1302;-0.6558;
-156.9000;0.1368;-0.6308;
-156.6000;0.1311;-0.6408;
-156.3000;0.1311;-0.6383;
-156.0000;0.1311;-0.6358;
-155.7000;0.1286;-0.6458;
-155.4000;0.1408;-0.6184;
-155.1000;0.1302;-0.6533;
-154.8000;0.1245;-0.6657;
-154.5000;0.1311;-0.6433;
-154.2000;0.1302;-0.6458;
-153.9000;0.1319;-0.6458;
-153.6000;0.1327;-0.6508;
-153.3000;0.1319;-0.6433;
-153.0000;0.1311;-0.6458;
-152.7000;0.1319;-0.6383;
-152.4000;0.1319;-0.6383;
-152.1000;0.1327;-0.6333;
-151.8000;0.1319;-0.6383;
-151.5000;0.1302;-0.6258;
-151.2000;0.1302;-0.6258;
-150.9000;0.1319;-0.6258;
-150.6000;0.1294;-0.6358;
-150.3000;0.1302;-0.6433;
-150.0000;0.1319;-0.6433;
-149.7000;0.1351;-0.6358;
-149.4000;0.1319;-0.6458;
-149.1000;0.1335;-0.6358;
-148.8000;0.1327;-0.6358;
-148.5000;0.1294;-0.6408;
-148.2000;0.1327;-0.6258;
-147.9000;0.1311;-0.6383;
-147.6000;0.1319;-0.6383;
-147.3000;0.1278;-0.6508;
-147.0000;0.1335;-0.6308;
-146.7000;0.1294;-0.6333;
-146.4000;0.1335;-0.6308;
-146.1000;0.1335;-0.6283;
-145.8000;0.1351;-0.6258;
-145.5000;0.1335;-0.6308;
-145.2000;0.1335;-0.6333;
-144.9000;0.1294;-0.6483;
-144.6000;0.1376;-0.6208;
-144.3000;0.1319;-0.6333;
-144.0000;0.1302;-0.6358;
-143.7000;0.1319;-0.6358;
-143.4000;0.1319;-0.6308;
-143.1000;0.1327;-0.6283;
-142.8000;0.1302;-0.6383;
-142.5000;0.1343;-0.6084;
-142.2000;0.1327;-0.6233;
-141.9000;0.1319;-0.6184;
-141.6000;0.1319;-0.6208;
-141.3000;0.1294;-0.6233;
-141.0000;0.1302;-0.6233;
-140.7000;0.1302;-0.6333;
-140.4000;0.1343;-0.6208;
-140.1000;0.1343;-0.6134;
-139.8000;0.1311;-0.6233;
-139.5000;0.1327;-0.6258;
-139.2000;0.1278;-0.6408;
-138.9000;0.1311;-0.6383;
-138.6000;0.1368;-0.6258;
-138.3000;0.1302;-0.6408;
-138.0000;0.1327;-0.6383;
-137.7000;0.1343;-0.6358;
-137.4000;0.1327;-0.6433;
-137.1000;0.1343;-0.6333;
-136.8000;0.1311;-0.6358;
-136.5000;0.1327;-0.6283;
-136.2000;0.1319;-0.6358;
-135.9000;0.1270;-0.6632;
-135.6000;0.1311;-0.6508;
-135.3000;0.1245;-0.6583;
-135.0000;0.1319;-0.6408;
-134.7000;0.1311;-0.6508;
-134.4000;0.1311;-0.6508;
-134.1000;0.1294;-0.6458;
-133.8000;0.1302;-0.6308;
-133.5000;0.1319;-0.6358;
-133.2000;0.1302;-0.6408;
-132.9000;0.1311;-0.6458;
-132.6000;0.1311;-0.6408;
-132.3000;0.1294;-0.6508;
-132.0000;0.1335;-0.6433;
-131.7000;0.1351;-0.6458;
-131.4000;0.1335;-0.6533;
-131.1000;0.1302;-0.6558;
-130.8000;0.1327;-0.6483;
-130.5000;0.1327;-0.6458;
-130.2000;0.1319;-0.6408;
-129.9000;0.1319;-0.6358;
-129.6000;0.1319;-0.6333;
-129.3000;0.1311;-0.6383;
-129.0000;0.1319;-0.6508;
-128.7000;0.1311;-0.6458;
-128.4000;0.1278;-0.6533;
-128.1000;0.1327;-0.6358;
-127.8000;0.1302;-0.6333;
-127.5000;0.1302;-0.6358;
-127.2000;0.1327;-0.6358;
-126.9000;0.1335;-0.6383;
-126.6000;0.1319;-0.6358;
-126.3000;0.1319;-0.6433;
-126.0000;0.1343;-0.6383;
-125.7000;0.1400;-0.6159;
-125.4000;0.1311;-0.6333;
-125.1000;0.1327;-0.6333;
-124.8000;0.1319;-0.6358;
-124.5000;0.1319;-0.6358;
-124.2000;0.1343;-0.6283;
-123.9000;0.1319;-0.6283;
-123.6000;0.1311;-0.6258;
-123.3000;0.1335;-0.6283;
-123.0000;0.1335;-0.6258;
-122.7000;0.1359;-0.6084;
-122.4000;0.1311;-0.6233;
-122.1000;0.1294;-0.6333;
-121.8000;0.1335;-0.6258;
-121.5000;0.1384;-0.6159;
-121.2000;0.1327;-0.6333;
-120.9000;0.1294;-0.6358;
-120.6000;0.1319;-0.6283;
-120.3000;0.1359;-0.6233;
-120.0000;0.1286;-0.6533;
-119.7000;0.1302;-0.6433;
-119.4000;0.1294;-0.6483;
-119.1000;0.1286;-0.6508;
-118.8000;0.1302;-0.6583;
-118.5000;0.1302;-0.6632;
-118.2000;0.1335;-0.6458;
-117.9000;0.1319;-0.6558;
-117.6000;0.1311;-0.6533;
-117.3000;0.1335;-0.6383;
-117.0000;0.1302;-0.6408;
-116.7000;0.1319;-0.6358;
-116.4000;0.1319;-0.6383;
-116.1000;0.1327;-0.6458;
-115.8000;0.1319;-0.6483;
-115.5000;0.1319;-0.6483;
-115.2000;0.1335;-0.6383;
-114.9000;0.1294;-0.6458;
-114.6000;0.1286;-0.6483;
-114.3000;0.1319;-0.6358;
-114.0000;0.1343;-0.6258;
-113.7000;0.1359;-0.6208;
-113.4000;0.1319;-0.6308;
-113.1000;0.1270;-0.6408;
-112.8000;0.1319;-0.6283;
-112.5000;0.1335;-0.6333;
-112.2000;0.1302;-0.6408;
-111.9000;0.1319;-0.6433;
-111.6000;0.1319;-0.6458;
-111.3000;0.1319;-0.6533;
-111.0000;0.1302;-0.6607;
-110.7000;0.1319;-0.6632;
-110.4000;0.1319;-0.6583;
-110.1000;0.1327;-0.6483;
-109.8000;0.1294;-0.6458;
-109.5000;0.1311;-0.6358;
-109.2000;0.1302;-0.6333;
-108.9000;0.1311;-0.6333;
-108.6000;0.1302;-0.6308;
-108.3000;0.1311;-0.6308;
-108.0000;0.1294;-0.6358;
-107.7000;0.1327;-0.6258;
-107.4000;0.1319;-0.6333;
-107.1000;0.1319;-0.6258;
-106.8000;0.1302;-0.6308;
-106.5000;0.1351;-0.6233;
-106.2000;0.1311;-0.6258;
-105.9000;0.1311;-0.6333;
-105.6000;0.1319;-0.6358;
-105.3000;0.1368;-0.6208;
-105.0000;0.1359;-0.6233;
-104.7000;0.1343;-0.6308;
-104.4000;0.1327;-0.6383;
-104.1000;0.1319;-0.6383;
-103.8000;0.1327;-0.6533;
-103.5000;0.1343;-0.6508;
-103.2000;0.1319;-0.6533;
-102.9000;0.1335;-0.6458;
-102.6000;0.1319;-0.6408;
-102.3000;0.1335;-0.6358;
-102.0000;0.1319;-0.6383;
-101.7000;0.1294;-0.6408;
-101.4000;0.1302;-0.6433;
-101.1000;0.1327;-0.6408;
-100.8000;0.1335;-0.6508;
-100.5000;0.1311;-0.6508;
-100.2000;0.1335;-0.6383;
-99.9000;0.1335;-0.6283;
-99.6000;0.1368;-0.6208;
-99.3000;0.1335;-0.6283;
-99.0000;0.1327;-0.6333;
-98.7000;0.1335;-0.6283;
-98.4000;0.1311;-0.6308;
-98.1000;0.1294;-0.6358;
-97.8000;0.1311;-0.6333;
-97.5000;0.1311;-0.6383;
-97.2000;0.1270;-0.6383;
-96.9000;0.1311;-0.6233;
-96.6000;0.1286;-0.6283;
-96.3000;0.1286;-0.6258;
-96.0000;0.1319;-0.6308;
-95.7000;0.1319;-0.6358;
-95.4000;0.1302;-0.6308;
-95.1000;0.1343;-0.6333;
-94.8000;0.1327;-0.6383;
-94.5000;0.1311;-0.6333;
-94.2000;0.1327;-0.6308;
-93.9000;0.1311;-0.6308;
-93.6000;0.1311;-0.6308;
-93.3000;0.1286;-0.6358;
-93.0000;0.1311;-0.6258;
-92.7000;0.1311;-0.6308;
-92.4000;0.1311;-0.6308;
-92.1000;0.1302;-0.6408;
-91.8000;0.1319;-0.6333;
-91.5000;0.1319;-0.6408;
-91.2000;0.1311;-0.6433;
-90.9000;0.1327;-0.6333;
-90.6000;0.1278;-0.6458;
-90.3000;0.1262;-0.6408;
-90.0000;0.1286;-0.6333;
-89.7000;0.1278;-0.6333;
-89.4000;0.1311;-0.6333;
-89.1000;0.1311;-0.6408;
-88.8000;0.1302;-0.6508;
-88.5000;0.1311;-0.6508;
-88.2000;0.1294;-0.6483;
-87.9000;0.1311;-0.6358;
-87.6000;0.1311;-0.6283;
-87.3000;0.1319;-0.6233;
-87.0000;0.1294;-0.6358;
-86.7000;0.1302;-0.6233;
-86.4000;0.1302;-0.6159;
-86.1000;0.1302;-0.6184;
-85.8000;0.1294;-0.6283;
-85.5000;0.1302;-0.6233;
-85.2000;0.1302;-0.6283;
-84.9000;0.1311;-0.6258;
-84.6000;0.1327;-0.6233;
-84.3000;0.1302;-0.6283;
-84.0000;0.1294;-0.6258;
-83.7000;0.1319;-0.6283;
-83.4000;0.1319;-0.6258;
-83.1000;0.1335;-0.6208;
-82.8000;0.1311;-0.6159;
-82.5000;0.1335;-0.6184;
-82.2000;0.1302;-0.6184;
-81.9000;0.1302;-0.6184;
-81.6000;0.1302;-0.6208;
-81.3000;0.1327;-0.6134;
-81.0000;0.1311;-0.6233;
-80.7000;0.1278;-0.6333;
-80.4000;0.1319;-0.6258;
-80.1000;0.1327;-0.6258;
-79.8000;0.1335;-0.6283;
-79.5000;0.1327;-0.6283;
-79.2000;0.1335;-0.6333;
-78.9000;0.1254;-0.6583;
-78.6000;0.1311;-0.6458;
-78.3000;0.1327;-0.6383;
-78.0000;0.1311;-0.6483;
-77.7000;0.1319;-0.6358;
-77.4000;0.1327;-0.6283;
-77.1000;0.1327;-0.6333;
-76.8000;0.1319;-0.6233;
-76.5000;0.1294;-0.6283;
-76.2000;0.1319;-0.6308;
-75.9000;0.1319;-0.6308;
-75.6000;0.1302;-0.6258;
-75.3000;0.1302;-0.6283;
-75.0000;0.1311;-0.6233;
-74.7000;0.1335;-0.6258;
-74.4000;0.1335;-0.6208;
-74.1000;0.1311;-0.6333;
-73.8000;0.1302;-0.6383;
-73.5000;0.1302;-0.6383;
-73.2000;0.1319;-0.6433;
-72.9000;0.1254;-0.6533;
-72.6000;0.1311;-0.6383;
-72.3000;0.1237;-0.6508;
-72.0000;0.1302;-0.6433;
-71.7000;0.1311;-0.6333;
-71.4000;0.1311;-0.6358;
-71.1000;0.1327;-0.6283;
-70.8000;0.1327;-0.6283;
-70.5000;0.1343;-0.6159;
-70.2000;0.1327;-0.6184;
-69.9000;0.1319;-0.6134;
-69.6000;0.1319;-0.6184;
-69.3000;0.1327;-0.6109;
-69.0000;0.1302;-0.6159;
-68.7000;0.1319;-0.6208;
-68.4000;0.1302;-0.6233;
-68.1000;0.1319;-0.6109;
-67.8000;0.1311;-0.6208;
-67.5000;0.1311;-0.6233;
-67.2000;0.1319;-0.6233;
-66.9000;0.1416;-0.5959;
-66.6000;0.1302;-0.6258;
-66.3000;0.1302;-0.6283;
-66.0000;0.1376;-0.6184;
-65.7000;0.1343;-0.6333;
-65.4000;0.1311;-0.6358;
-65.1000;0.1335;-0.6333;
-64.8000;0.1319;-0.6358;
-64.5000;0.1319;-0.6383;
-64.2000;0.1302;-0.6383;
-63.9000;0.1311;-0.6333;
-63.6000;0.1311;-0.6333;
-63.3000;0.1335;-0.6358;
-63.0000;0.1327;-0.6533;
-62.7000;0.1278;-0.6533;
-62.4000;0.1319;-0.6458;
-62.1000;0.1327;-0.6408;
-61.8000;0.1335;-0.6333;
-61.5000;0.1302;-0.6358;
-61.2000;0.1311;-0.6333;
-60.9000;0.1327;-0.6258;
-60.6000;0.1327;-0.6159;
-60.3000;0.1302;-0.6159;
-60.0000;0.1311;-0.6184;
-59.7000;0.1327;-0.6208;
-59.4000;0.1311;-0.6308;
-59.1000;0.1294;-0.6458;
-58.8000;0.1311;-0.6333;
-58.5000;0.1319;-0.6333;
-58.2000;0.1343;-0.6208;
-57.9000;0.1335;-0.6184;
-57.6000;0.1302;-0.6258;
-57.3000;0.1278;-0.6358;
-57.0000;0.1327;-0.6308;
-56.7000;0.1359;-0.6233;
-56.4000;0.1327;-0.6233;
-56.1000;0.1319;-0.6208;
-55.8000;0.1319;-0.6208;
-55.5000;0.1327;-0.6184;
-55.2000;0.1319;-0.6258;
-54.9000;0.1319;-0.6333;
-54.6000;0.1302;-0.6408;
-54.3000;0.1311;-0.6408;
-54.0000;0.1270;-0.6433;
-53.7000;0.1449;-0.5984;
-53.4000;0.1327;-0.6283;
-53.1000;0.1319;-0.6283;
-52.8000;0.1311;-0.6258;
-52.5000;0.1278;-0.6383;
-52.2000;0.1327;-0.6258;
-51.9000;0.1319;-0.6333;
-51.6000;0.1327;-0.6333;
-51.3000;0.1311;-0.6333;
-51.0000;0.1311;-0.6408;
-50.7000;0.1270;-0.6607;
-50.4000;0.1302;-0.6458;
-50.1000;0.1311;-0.6408;
-49.8000;0.1351;-0.6258;
-49.5000;0.1319;-0.6258;
-49.2000;0.1302;-0.6283;
-48.9000;0.1351;-0.6159;
-48.6000;0.1319;-0.6258;
-48.3000;0.1302;-0.6208;
-48.0000;0.1311;-0.6258;
-47.7000;0.1319;-0.6383;
-47.4000;0.1278;-0.6483;
-47.1000;0.1311;-0.6358;
-46.8000;0.1319;-0.6333;
-46.5000;0.1327;-0.6184;
-46.2000;0.1335;-0.6159;
-45.9000;0.1368;-0.6159;
-45.6000;0.1327;-0.6283;
-45.3000;0.1327;-0.6283;
-45.0000;0.1335;-0.6184;
-44.7000;0.1327;-0.6109;
-44.4000;0.1319;-0.6134;
-44.1000;0.1319;-0.6159;
-43.8000;0.1368;-0.6159;
-43.5000;0.1335;-0.6308;
-43.2000;0.1359;-0.6283;
-42.9000;0.1319;-0.6483;
-42.6000;0.1433;-0.6084;
-42.3000;0.1294;-0.6283;
-42.0000;0.1335;-0.6233;
-41.7000;0.1254;-0.6383;
-41.4000;0.1311;-0.6184;
-41.1000;0.1319;-0.6208;
-40.8000;0.1311;-0.6109;
-40.5000;0.1335;-0.6034;
-40.2000;0.1311;-0.6159;
-39.9000;0.1302;-0.6034;
-39.6000;0.1294;-0.6084;
-39.3000;0.1335;-0.6084;
-39.0000;0.1302;-0.6109;
-38.7000;0.1319;-0.6109;
-38.4000;0.1319;-0.6134;
-38.1000;0.1302;-0.6184;
-37.8000;0.1311;-0.6184;
-37.5000;0.1327;-0.6109;
-37.2000;0.1319;-0.6109;
-36.9000;0.1221;-0.6333;
-36.6000;0.1351;-0.5959;
-36.3000;0.1302;-0.6159;
-36.0000;0.1311;-0.6258;
-35.7000;0.1311;-0.6283;
-35.4000;0.1278;-0.6383;
-35.1000;0.1286;-0.6333;
-34.8000;0.1311;-0.6159;
-34.5000;0.1302;-0.6159;
-34.2000;0.1311;-0.6134;
-33.9000;0.1286;-0.6283;
-33.6000;0.1302;-0.6283;
-33.3000;0.1327;-0.6308;
-33.0000;0.1335;-0.6233;
-32.7000;0.1327;-0.6333;
-32.4000;0.1343;-0.6283;
-32.1000;0.1311;-0.6408;
-31.8000;0.1343;-0.6333;
-31.5000;0.1302;-0.6358;
-31.2000;0.1319;-0.6233;
-30.9000;0.1311;-0.6308;
-30.6000;0.1286;-0.6308;
-30.3000;0.1335;-0.6233;
-30.0000;0.1335;-0.6283;
-29.7000;0.1384;-0.6184;
-29.4000;0.1335;-0.6333;
-29.1000;0.1286;-0.6433;
-28.8000;0.1327;-0.6308;
-28.5000;0.1319;-0.6258;
-28.2000;0.1311;-0.6233;
-27.9000;0.1327;-0.6184;
-27.6000;0.1359;-0.6159;
-27.3000;0.1319;-0.6208;
-27.0000;0.1311;-0.6333;
-26.7000;0.1319;-0.6283;
-26.4000;0.1302;-0.6383;
-26.1000;0.1294;-0.6383;
-25.8000;0.1335;-0.6283;
-25.5000;0.1319;-0.6333;
-25.2000;0.1311;-0.6433;
-24.9000;0.1343;-0.6408;
-24.6000;0.1335;-0.6433;
-24.3000;0.1351;-0.6383;
-24.0000;0.1302;-0.6533;
-23.7000;0.1327;-0.6508;
-23.4000;0.1384;-0.6358;
-23.1000;0.1311;-0.6458;
-22.8000;0.1302;-0.6458;
-22.5000;0.1311;-0.6408;
-22.2000;0.1408;-0.6109;
-21.9000;0.1335;-0.6333;
-21.6000;0.1335;-0.6383;
-21.3000;0.1359;-0.6233;
-21.0000;0.1351;-0.6233;
-20.7000;0.1213;-0.6508;
-20.4000;0.1319;-0.6308;
-20.1000;0.1335;-0.6258;
-19.8000;0.1302;-0.6308;
-19.5000;0.1327;-0.6283;
-19.2000;0.1311;-0.6258;
-18.9000;0.1327;-0.6258;
-18.6000;0.1343;-0.6308;
-18.3000;0.1368;-0.6233;
-18.0000;0.1319;-0.6308;
-17.7000;0.1327;-0.6333;
-17.4000;0.1311;-0.6333;
-17.1000;0.1302;-0.6408;
-16.8000;0.1302;-0.6433;
-16.5000;0.1335;-0.6333;
-16.2000;0.1327;-0.6308;
-15.9000;0.1335;-0.6283;
-15.6000;0.1319;-0.6308;
-15.3000;0.1311;-0.6358;
-15.0000;0.1368;-0.6233;
-14.7000;0.1302;-0.6333;
-14.4000;0.1319;-0.6308;
-14.1000;0.1319;-0.6333;
-13.8000;0.1319;-0.6283;
-13.5000;0.1351;-0.6233;
-13.2000;0.1327;-0.6233;
-12.9000;0.1319;-0.6258;
-12.6000;0.1302;-0.6333;
-12.3000;0.1245;-0.6508;
-12.0000;0.1327;-0.6433;
-11.7000;0.1311;-0.6408;
-11.4000;0.1327;-0.6383;
-11.1000;0.1327;-0.6383;
-10.8000;0.1262;-0.6508;
-10.5000;0.1327;-0.6184;
-10.2000;0.1319;-0.6233;
-9.9000;0.1319;-0.6283;
-9.6000;0.1327;-0.6283;
-9.3000;0.1351;-0.6283;
-9.0000;0.1376;-0.6233;
-8.7000;0.1359;-0.6283;
-8.4000;0.1311;-0.6333;
-8.1000;0.1319;-0.6408;
-7.8000;0.1319;-0.6408;
-7.5000;0.1302;-0.6408;
-7.2000;0.1319;-0.6383;
-6.9000;0.1311;-0.6483;
-6.6000;0.1294;-0.6533;
-6.3000;0.1302;-0.6533;
-6.0000;0.1319;-0.6383;
-5.7000;0.1311;-0.6433;
-5.4000;0.1311;-0.6358;
-5.1000;0.1302;-0.6333;
-4.8000;0.1319;-0.6383;
-4.5000;0.1302;-0.6383;
-4.2000;0.1254;-0.6483;
-3.9000;0.1327;-0.6333;
-3.6000;0.1319;-0.6258;
-3.3000;0.1294;-0.6258;
-3.0000;0.1327;-0.6233;
-2.7000;0.1343;-0.6308;
-2.4000;0.1262;-0.6508;
-2.1000;0.1311;-0.6483;
-1.8000;0.1319;-0.6458;
-1.5000;0.1311;-0.6458;
-1.2000;0.1311;-0.6383;
-0.9000;0.1335;-0.6308;
-0.6000;0.1311;-0.6308;
-0.3000;0.1319;-0.6283;
0.0000;0.1319;-0.6283;
0.3000;0.1359;-0.6258;
0.6000;0.1351;-0.6084;
0.9000;0.1392;-0.5785;
1.2000;0.1376;-0.5535;
1.5000;0.1408;-0.5286;
1.8000;0.1433;-0.4937;
2.1000;0.1416;-0.4762;
2.4000;0.1425;-0.4613;
2.7000;0.1441;-0.4413;
3.0000;0.1465;-0.4289;
3.3000;0.1441;-0.4189;
3.6000;0.1481;-0.3890;
3.9000;0.1530;-0.3765;
4.2000;0.1481;-0.3790;
4.5000;0.1506;-0.3665;
4.8000;0.1473;-0.3815;
5.1000;0.1498;-0.3840;
5.4000;0.1506;-0.3665;
5.7000;0.1506;-0.3615;
6.0000;0.1490;-0.3640;
6.3000;0.1498;-0.3590;
6.6000;0.1506;-0.3466;
6.9000;0.1514;-0.3541;
7.2000;0.1498;-0.3541;
7.5000;0.1514;-0.3516;
7.8000;0.1473;-0.3491;
8.1000;0.1498;-0.3316;
8.4000;0.1498;-0.3316;
8.7000;0.1514;-0.3341;
9.0000;0.1498;-0.3366;
9.3000;0.1498;-0.3441;
9.6000;0.1481;-0.3466;
9.9000;0.1506;-0.3441;
10.2000;0.1514;-0.3516;
10.5000;0.1514;-0.3516;
10.8000;0.1498;-0.3615;
11.1000;0.1490;-0.3665;
11.4000;0.1506;-0.3665;
11.7000;0.1522;-0.3566;
12.0000;0.1490;-0.3566;
12.3000;0.1498;-0.3541;
12.6000;0.1433;-0.3615;
12.9000;0.1514;-0.3466;
13.2000;0.1498;-0.3441;
13.5000;0.1498;-0.3491;
13.8000;0.1498;-0.3466;
14.1000;0.1506;-0.3491;
14.4000;0.1514;-0.3466;
14.7000;0.1506;-0.3491;
15.0000;0.1506;-0.3566;
15.3000;0.1473;-0.3566;
15.6000;0.1498;-0.3391;
15.9000;0.1506;-0.3391;
16.2000;0.1498;-0.3391;
16.5000;0.1498;-0.3416;
16.8000;0.1506;-0.3316;
17.1000;0.1522;-0.3241;
17.4000;0.1514;-0.3266;
17.7000;0.1506;-0.3216;
18.0000;0.1465;-0.3341;
18.3000;0.1473;-0.3391;
18.6000;0.1522;-0.3316;
18.9000;0.1490;-0.3441;
19.2000;0.1498;-0.3316;
19.5000;0.1522;-0.3266;
19.8000;0.1514;-0.3291;
20.1000;0.1498;-0.3291;
20.4000;0.1498;-0.3266;
20.7000;0.1547;-0.3117;
21.0000;0.1498;-0.3167;
21.3000;0.1506;-0.3167;
21.6000;0.1481;-0.3142;
21.9000;0.1555;-0.3067;
22.2000;0.1506;-0.3192;
22.5000;0.1506;-0.3216;
22.8000;0.1481;-0.3366;
23.1000;0.1522;-0.3266;
23.4000;0.1514;-0.3266;
23.7000;0.1506;-0.3192;
24.0000;0.1465;-0.3316;
24.3000;0.1506;-0.3142;
24.6000;0.1514;-0.3142;
24.9000;0.1538;-0.3117;
25.2000;0.1498;-0.3142;
25.5000;0.1506;-0.3017;
25.8000;0.1514;-0.3142;
26.1000;0.1506;-0.3241;
26.4000;0.1506;-0.3192;
26.7000;0.1506;-0.3192;
27.0000;0.1514;-0.3167;
27.3000;0.1522;-0.3241;
27.6000;0.1522;-0.3192;
27.9000;0.1490;-0.3316;
28.2000;0.1579;-0.2942;
28.5000;0.1514;-0.3092;
28.8000;0.1514;-0.3167;
29.1000;0.1571;-0.3142;
29.4000;0.1514;-0.3266;
29.7000;0.1514;-0.3241;
30.0000;0.1514;-0.3341;
30.3000;0.1522;-0.3291;
30.6000;0.1514;-0.3092;
30.9000;0.1530;-0.3117;
31.2000;0.1498;-0.3092;
31.5000;0.1498;-0.3167;
31.8000;0.1514;-0.3092;
32.1000;0.1506;-0.3142;
32.4000;0.1473;-0.3167;
32.7000;0.1547;-0.3042;
33.0000;0.1498;-0.3216;
33.3000;0.1498;-0.3167;
33.6000;0.1449;-0.3366;
33.9000;0.1498;-0.3266;
34.2000;0.1506;-0.3266;
34.5000;0.1465;-0.3441;
34.8000;0.1514;-0.3366;
35.1000;0.1433;-0.3615;
35.4000;0.1498;-0.3466;
35.7000;0.1498;-0.3466;
36.0000;0.1481;-0.3491;
36.3000;0.1514;-0.3441;
36.6000;0.1514;-0.3441;
36.9000;0.1506;-0.3416;
37.2000;0.1530;-0.3416;
37.5000;0.1522;-0.3341;
37.8000;0.1506;-0.3316;
38.1000;0.1465;-0.3391;
38.4000;0.1530;-0.3241;
38.7000;0.1514;-0.3416;
39.0000;0.1522;-0.3391;
39.3000;0.1595;-0.3192;
39.6000;0.1514;-0.3466;
39.9000;0.1514;-0.3416;
40.2000;0.1514;-0.3416;
40.5000;0.1530;-0.3491;
40.8000;0.1498;-0.3416;
41.1000;0.1506;-0.3391;
41.4000;0.1506;-0.3441;
41.7000;0.1506;-0.3316;
42.0000;0.1506;-0.3241;
42.3000;0.1473;-0.3341;
42.6000;0.1506;-0.3291;
42.9000;0.1498;-0.3291;
43.2000;0.1522;-0.3241;
43.5000;0.1514;-0.3192;
43.8000;0.1555;-0.3167;
44.1000;0.1498;-0.3291;
44.4000;0.1481;-0.3266;
44.7000;0.1506;-0.3167;
45.0000;0.1490;-0.3192;
45.3000;0.1514;-0.3192;
45.6000;0.1506;-0.3266;
45.9000;0.1522;-0.3142;
46.2000;0.1506;-0.3241;
46.5000;0.1514;-0.3192;
46.8000;0.1547;-0.2992;
47.1000;0.1506;-0.3167;
47.4000;0.1514;-0.3117;
47.7000;0.1522;-0.3117;
48.0000;0.1514;-0.3092;
48.3000;0.1473;-0.3216;
48.6000;0.1514;-0.3142;
48.9000;0.1514;-0.3067;
49.2000;0.1555;-0.2917;
49.5000;0.1514;-0.2992;
49.8000;0.1498;-0.3142;
50.1000;0.1481;-0.3216;
50.4000;0.1498;-0.3067;
50.7000;0.1481;-0.3067;
51.0000;0.1506;-0.3067;
51.3000;0.1498;-0.3042;
51.6000;0.1490;-0.3067;
51.9000;0.1490;-0.3092;
52.2000;0.1490;-0.3042;
52.5000;0.1514;-0.3067;
52.8000;0.1490;-0.3092;
53.1000;0.1514;-0.2992;
53.4000;0.1498;-0.3042;
53.7000;0.1514;-0.2967;
54.0000;0.1506;-0.3042;
54.3000;0.1604;-0.2743;
54.6000;0.1473;-0.3092;
54.9000;0.1498;-0.3067;
55.2000;0.1498;-0.3192;
55.5000;0.1498;-0.3266;
55.8000;0.1490;-0.3192;
56.1000;0.1514;-0.3117;
56.4000;0.1481;-0.3291;
56.7000;0.1473;-0.3291;
57.0000;0.1490;-0.3316;
57.3000;0.1498;-0.3241;
57.6000;0.1506;-0.3092;
57.9000;0.1522;-0.3067;
58.2000;0.1538;-0.3067;
58.5000;0.1400;-0.3391;
58.8000;0.1498;-0.3167;
59.1000;0.1465;-0.3216;
59.4000;0.1514;-0.3092;
59.7000;0.1498;-0.3017;
60.0000;0.1506;-0.3017;
60.3000;0.1498;-0.3067;
60.6000;0.1506;-0.3042;
60.9000;0.1514;-0.2967;
61.2000;0.1506;-0.3042;
61.5000;0.1522;-0.2992;
61.8000;0.1538;-0.2892;
62.1000;0.1563;-0.2892;
62.4000;0.1571;-0.2842;
62.7000;0.1498;-0.3017;
63.0000;0.1481;-0.3142;
63.3000;0.1506;-0.3092;
63.6000;0.1506;-0.3092;
63.9000;0.1506;-0.3092;
64.2000;0.1538;-0.3067;
64.5000;0.1522;-0.3142;
64.8000;0.1514;-0.3092;
65.1000;0.1514;-0.2992;
65.4000;0.1490;-0.3117;
65.7000;0.1506;-0.3017;
66.0000;0.1506;-0.2967;
66.3000;0.1514;-0.2917;
66.6000;0.1530;-0.2967;
66.9000;0.1514;-0.3092;
67.2000;0.1514;-0.3192;
67.5000;0.1514;-0.3241;
67.8000;0.1530;-0.3241;
68.1000;0.1498;-0.3316;
68.4000;0.1465;-0.3416;
68.7000;0.1514;-0.3266;
69.0000;0.1490;-0.3266;
69.3000;0.1490;-0.3266;
69.6000;0.1498;-0.3167;
69.9000;0.1490;-0.3017;
70.2000;0.1514;-0.2992;
70.5000;0.1506;-0.2992;
70.8000;0.1376;-0.3316;
71.1000;0.1498;-0.3117;
71.4000;0.1490;-0.3167;
71.7000;0.1514;-0.2992;
72.0000;0.1514;-0.3042;
72.3000;0.1538;-0.2967;
72.6000;0.1481;-0.3142;
72.9000;0.1498;-0.3092;
73.2000;0.1571;-0.2818;
73.5000;0.1498;-0.2992;
73.8000;0.1400;-0.3266;
74.1000;0.1522;-0.2992;
74.4000;0.1481;-0.3142;
74.7000;0.1506;-0.3092;
75.0000;0.1498;-0.3167;
75.3000;0.1473;-0.3266;
75.6000;0.1506;-0.3142;
75.9000;0.1425;-0.3341;
76.2000;0.1514;-0.3092;
76.5000;0.1498;-0.3142;
76.8000;0.1490;-0.3192;
77.1000;0.1490;-0.3216;
77.4000;0.1498;-0.3142;
77.7000;0.1481;-0.3167;
78.0000;0.1481;-0.3117;
78.3000;0.1522;-0.2967;
78.6000;0.1490;-0.3067;
78.9000;0.1481;-0.2992;
79.2000;0.1522;-0.2917;
79.5000;0.1498;-0.3017;
79.8000;0.1506;-0.3017;
80.1000;0.1465;-0.3167;
80.4000;0.1522;-0.3142;
80.7000;0.1433;-0.3366;
81.0000;0.1490;-0.3167;
81.3000;0.1481;-0.3266;
81.6000;0.1506;-0.3192;
81.9000;0.1506;-0.3142;
82.2000;0.1506;-0.3142;
82.5000;0.1490;-0.3192;
82.8000;0.1514;-0.3117;
83.1000;0.1498;-0.3042;
83.4000;0.1506;-0.3067;
83.7000;0.1498;-0.3042;
84.0000;0.1481;-0.2992;
84.3000;0.1490;-0.3042;
84.6000;0.1498;-0.3067;
84.9000;0.1514;-0.3092;
85.2000;0.1498;-0.3092;
85.5000;0.1457;-0.3291;
85.8000;0.1498;-0.3142;
86.1000;0.1514;-0.3067;
86.4000;0.1579;-0.2942;
86.7000;0.1514;-0.3167;
87.0000;0.1571;-0.2992;
87.3000;0.1498;-0.3192;
87.6000;0.1498;-0.3167;
87.9000;0.1498;-0.3241;
88.2000;0.1498;-0.3192;
88.5000;0.1498;-0.3241;
88.8000;0.1522;-0.3241;
89.1000;0.1481;-0.3341;
89.4000;0.1530;-0.3192;
89.7000;0.1490;-0.3241;
90.0000;0.1481;-0.3167;
90.3000;0.1457;-0.3266;
90.6000;0.1449;-0.3291;
90.9000;0.1481;-0.3216;
91.2000;0.1514;-0.3117;
91.5000;0.1465;-0.3266;
91.8000;0.1506;-0.3216;
92.1000;0.1498;-0.3316;
92.4000;0.1498;-0.3266;
92.7000;0.1538;-0.3142;
93.0000;0.1514;-0.3241;
93.3000;0.1490;-0.3366;
93.6000;0.1506;-0.3391;
93.9000;0.1441;-0.3466;
94.2000;0.1555;-0.3192;
94.5000;0.1506;-0.3291;
94.8000;0.1490;-0.3366;
95.1000;0.1514;-0.3266;
95.4000;0.1522;-0.3241;
95.7000;0.1506;-0.3291;
96.0000;0.1473;-0.3416;
96.3000;0.1514;-0.3266;
96.6000;0.1498;-0.3192;
96.9000;0.1457;-0.3291;
97.2000;0.1449;-0.3291;
97.5000;0.1498;-0.3266;
97.8000;0.1563;-0.3142;
98.1000;0.1506;-0.3316;
98.4000;0.1538;-0.3341;
98.7000;0.1498;-0.3341;
99.0000;0.1490;-0.3491;
99.3000;0.1473;-0.3541;
99.6000;0.1506;-0.3466;
99.9000;0.1587;-0.3216;
100.2000;0.1514;-0.3416;
100.5000;0.1506;-0.3466;
100.8000;0.1490;-0.3466;
101.1000;0.1498;-0.3566;
101.4000;0.1481;-0.3590;
101.7000;0.1522;-0.3516;
102.0000;0.1547;-0.3341;
102.3000;0.1522;-0.3391;
102.6000;0.1473;-0.3590;
102.9000;0.1506;-0.3615;
103.2000;0.1490;-0.3640;
103.5000;0.1522;-0.3441;
103.8000;0.1473;-0.3491;
104.1000;0.1481;-0.3516;
104.4000;0.1490;-0.3441;
104.7000;0.1506;-0.3316;
105.0000;0.1530;-0.3291;
105.3000;0.1506;-0.3441;
105.6000;0.1498;-0.3491;
105.9000;0.1514;-0.3366;
106.2000;0.1498;-0.3341;
106.5000;0.1530;-0.3291;
106.8000;0.1506;-0.3391;
107.1000;0.1490;-0.3316;
107.4000;0.1530;-0.3142;
107.7000;0.1498;-0.3266;
108.0000;0.1490;-0.3316;
108.3000;0.1530;-0.3241;
108.6000;0.1514;-0.3167;
108.9000;0.1490;-0.3241;
109.2000;0.1530;-0.3117;
109.5000;0.1498;-0.3192;
109.8000;0.1563;-0.3117;
110.1000;0.1506;-0.3341;
110.4000;0.1498;-0.3441;
110.7000;0.1498;-0.3491;
111.0000;0.1506;-0.3566;
111.3000;0.1498;-0.3541;
111.6000;0.1506;-0.3391;
111.9000;0.1514;-0.3216;
112.2000;0.1465;-0.3291;
112.5000;0.1433;-0.3316;
112.8000;0.1498;-0.3142;
113.1000;0.1490;-0.3192;
113.4000;0.1481;-0.3216;
113.7000;0.1490;-0.3167;
114.0000;0.1498;-0.3167;
114.3000;0.1522;-0.3167;
114.6000;0.1563;-0.3067;
114.9000;0.1498;-0.3216;
115.2000;0.1522;-0.3117;
115.5000;0.1547;-0.3117;
115.8000;0.1506;-0.3192;
116.1000;0.1522;-0.3167;
116.4000;0.1498;-0.3142;
116.7000;0.1547;-0.3017;
117.0000;0.1498;-0.3192;
117.3000;0.1506;-0.3192;
117.6000;0.1538;-0.3167;
117.9000;0.1490;-0.3241;
118.2000;0.1498;-0.3117;
118.5000;0.1498;-0.3017;
118.8000;0.1514;-0.2992;
119.1000;0.1506;-0.2992;
119.4000;0.1490;-0.3067;
119.7000;0.1506;-0.3067;
120.0000;0.1514;-0.2967;
120.3000;0.1506;-0.3017;
120.6000;0.1514;-0.3092;
120.9000;0.1481;-0.3167;
121.2000;0.1522;-0.3092;
121.5000;0.1506;-0.3117;
121.8000;0.1498;-0.3216;
122.1000;0.1481;-0.3316;
122.4000;0.1506;-0.3167;
122.7000;0.1506;-0.3192;
123.0000;0.1498;-0.3241;
123.3000;0.1498;-0.3241;
123.6000;0.1522;-0.3192;
123.9000;0.1514;-0.3216;
124.2000;0.1498;-0.3241;
124.5000;0.1490;-0.3192;
124.8000;0.1481;-0.3192;
125.1000;0.1506;-0.3291;
125.4000;0.1498;-0.3341;
125.7000;0.1506;-0.3266;
126.0000;0.1490;-0.3316;
126.3000;0.1522;-0.3142;
126.6000;0.1498;-0.3192;
126.9000;0.1506;-0.3117;
127.2000;0.1481;-0.3067;
127.5000;0.1506;-0.2942;
127.8000;0.1514;-0.2942;
128.1000;0.1490;-0.2992;
128.4000;0.1498;-0.2867;
128.7000;0.1538;-0.2743;
129.0000;0.1473;-0.2818;
129.3000;0.1490;-0.2942;
129.6000;0.1490;-0.3042;
129.9000;0.1498;-0.3092;
130.2000;0.1530;-0.3017;
130.5000;0.1506;-0.3092;
130.8000;0.1514;-0.3092;
131.1000;0.1514;-0.3142;
131.4000;0.1555;-0.3017;
131.7000;0.1522;-0.3067;
132.0000;0.1498;-0.3067;
132.3000;0.1555;-0.3017;
132.6000;0.1530;-0.3167;
132.9000;0.1547;-0.3042;
133.2000;0.1530;-0.3092;
133.5000;0.1506;-0.3067;
133.8000;0.1506;-0.3092;
134.1000;0.1490;-0.3192;
134.4000;0.1506;-0.3192;
134.7000;0.1498;-0.3167;
135.0000;0.1538;-0.3142;
135.3000;0.1449;-0.3416;
135.6000;0.1514;-0.3192;
135.9000;0.1514;-0.3192;
136.2000;0.1498;-0.3216;
136.5000;0.1408;-0.3466;
136.8000;0.1506;-0.3167;
137.1000;0.1473;-0.3241;
137.4000;0.1498;-0.3167;
137.7000;0.1506;-0.3192;
138.0000;0.1498;-0.3167;
138.3000;0.1498;-0.3192;
138.6000;0.1498;-0.3241;
138.9000;0.1490;-0.3291;
139.2000;0.1498;-0.3241;
139.5000;0.1498;-0.3366;
139.8000;0.1506;-0.3341;
140.1000;0.1506;-0.3366;
140.4000;0.1498;-0.3416;
140.7000;0.1522;-0.3441;
141.0000;0.1514;-0.3466;
141.3000;0.1498;-0.3516;
141.6000;0.1498;-0.3466;
141.9000;0.1506;-0.3391;
142.2000;0.1490;-0.3391;
142.5000;0.1506;-0.3341;
142.8000;0.1457;-0.3441;
143.1000;0.1498;-0.3316;
143.4000;0.1498;-0.3291;
143.7000;0.1490;-0.3366;
144.0000;0.1498;-0.3416;
144.3000;0.1490;-0.3366;
144.6000;0.1498;-0.3316;
144.9000;0.1498;-0.3391;
145.2000;0.1490;-0.3366;
145.5000;0.1481;-0.3391;
145.8000;0.1506;-0.3391;
146.1000;0.1481;-0.3566;
146.4000;0.1498;-0.3416;
146.7000;0.1530;-0.3316;
147.0000;0.1498;-0.3341;
147.3000;0.1473;-0.3316;
147.6000;0.1514;-0.3192;
147.9000;0.1514;-0.3192;
148.2000;0.1506;-0.3167;
148.5000;0.1457;-0.3341;
148.8000;0.1498;-0.3291;
149.1000;0.1522;-0.3266;
149.4000;0.1514;-0.3366;
149.7000;0.1449;-0.3516;
150.0000;0.1481;-0.3391;
150.3000;0.1506;-0.3341;
150.6000;0.1506;-0.3266;
150.9000;0.1400;-0.3466;
151.2000;0.1498;-0.3316;
151.5000;0.1522;-0.3266;
151.8000;0.1498;-0.3316;
152.1000;0.1506;-0.3266;
152.4000;0.1498;-0.3291;
152.7000;0.1522;-0.3216;
153.0000;0.1490;-0.3291;
153.3000;0.1506;-0.3241;
153.6000;0.1547;-0.3241;
153.9000;0.1530;-0.3216;
154.2000;0.1498;-0.3341;
154.5000;0.1506;-0.3216;
154.8000;0.1506;-0.3216;
155.1000;0.1481;-0.3291;
155.4000;0.1522;-0.3216;
155.7000;0.1506;-0.3391;
156.0000;0.1490;-0.3441;
156.3000;0.1498;-0.3391;
156.6000;0.1506;-0.3441;
156.9000;0.1530;-0.3316;
157.2000;0.1522;-0.3341;
157.5000;0.1498;-0.3341;
157.8000;0.1490;-0.3316;
158.1000;0.1506;-0.3291;
158.4000;0.1547;-0.3167;
158.7000;0.1506;-0.3266;
159.0000;0.1465;-0.3441;
159.3000;0.1498;-0.3366;
159.6000;0.1506;-0.3516;
159.9000;0.1514;-0.3441;
160.2000;0.1506;-0.3316;
160.5000;0.1506;-0.3216;
160.8000;0.1498;-0.3216;
161.1000;0.1506;-0.3216;
161.4000;0.1490;-0.3316;
161.7000;0.1490;-0.3366;
162.0000;0.1481;-0.3391;
162.3000;0.1490;-0.3291;
162.6000;0.1506;-0.3192;
162.9000;0.1498;-0.3167;
163.2000;0.1481;-0.3266;
163.5000;0.1490;-0.3192;
163.8000;0.1498;-0.3216;
164.1000;0.1481;-0.3192;
164.4000;0.1498;-0.3167;
164.7000;0.1514;-0.3192;
165.0000;0.1547;-0.3117;
165.3000;0.1498;-0.3192;
165.6000;0.1490;-0.3192;
165.9000;0.1490;-0.3167;
166.2000;0.1506;-0.3042;
166.5000;0.1481;-0.3117;
166.8000;0.1481;-0.3142;
167.1000;0.1506;-0.3092;
167.4000;0.1490;-0.3167;
167.7000;0.1408;-0.3416;
168.0000;0.1498;-0.3117;
168.3000;0.1498;-0.3017;
168.6000;0.1498;-0.2992;
168.9000;0.1522;-0.2942;
169.2000;0.1498;-0.2917;
169.5000;0.1506;-0.2942;
169.8000;0.1481;-0.3042;
170.1000;0.1506;-0.3117;
170.4000;0.1514;-0.3142;
170.7000;0.1530;-0.3092;
171.0000;0.1514;-0.3167;
171.3000;0.1498;-0.3142;
171.6000;0.1498;-0.3117;
171.9000;0.1506;-0.2992;
172.2000;0.1498;-0.3017;
172.5000;0.1514;-0.3092;
172.8000;0.1490;-0.3216;
173.1000;0.1481;-0.3291;
173.4000;0.1465;-0.3391;
173.7000;0.1490;-0.3341;
174.0000;0.1506;-0.3291;
174.3000;0.1498;-0.3291;
174.6000;0.1498;-0.3216;
174.9000;0.1498;-0.3341;
175.2000;0.1457;-0.3441;
175.5000;0.1408;-0.3665;
175.8000;0.1490;-0.3366;
176.1000;0.1441;-0.3491;
176.4000;0.1498;-0.3266;
176.7000;0.1563;-0.3167;
177.0000;0.1514;-0.3291;
177.3000;0.1498;-0.3241;
177.6000;0.1498;-0.3216;
177.9000;0.1490;-0.3316;
178.2000;0.1465;-0.3366;
178.5000;0.1506;-0.3316;
178.8000;0.1498;-0.3341;
179.1000;0.1514;-0.3266;
179.4000;0.1481;-0.3341;
179.7000;0.1530;-0.3241;
180.0000;0.1498;-0.3266;
180.3000;0.1498;-0.3266;
180.6000;0.1498;-0.3266;
180.9000;0.1490;-0.3291;
181.2000;0.1522;-0.3291;
181.5000;0.1490;-0.3341;
181.8000;0.1498;-0.3316;
182.1000;0.1481;-0.3366;
182.4000;0.1425;-0.3491;
182.7000;0.1490;-0.3266;
183.0000;0.1506;-0.3291;
183.3000;0.1506;-0.3316;
183.6000;0.1498;-0.3316;
183.9000;0.1506;-0.3266;
184.2000;0.1490;-0.3266;
184.5000;0.1490;-0.3241;
184.8000;0.1441;-0.3391;
185.1000;0.1465;-0.3316;
185.4000;0.1465;-0.3366;
185.7000;0.1514;-0.3366;
186.0000;0.1522;-0.3291;
186.3000;0.1498;-0.3266;
186.6000;0.1481;-0.3241;
186.9000;0.1506;-0.3241;
187.2000;0.1498;-0.3167;
187.5000;0.1506;-0.3216;
187.8000;0.1473;-0.3291;
188.1000;0.1473;-0.3366;
188.4000;0.1490;-0.3316;
188.7000;0.1473;-0.3466;
189.0000;0.1498;-0.3466;
189.3000;0.1490;-0.3416;
189.6000;0.1481;-0.3366;
189.9000;0.1490;-0.3366;
190.2000;0.1490;-0.3316;
190.5000;0.1490;-0.3216;
190.8000;0.1498;-0.3241;
191.1000;0.1490;-0.3291;
191.4000;0.1514;-0.3341;
191.7000;0.1506;-0.3391;
192.0000;0.1547;-0.3416;
192.3000;0.1514;-0.3541;
192.6000;0.1506;-0.3590;
192.9000;0.1490;-0.3615;
193.2000;0.1490;-0.3590;
193.5000;0.1481;-0.3491;
193.8000;0.1490;-0.3516;
194.1000;0.1547;-0.3341;
194.4000;0.1498;-0.3441;
194.7000;0.1449;-0.3466;
195.0000;0.1481;-0.3316;
195.3000;0.1441;-0.3441;
195.6000;0.1506;-0.3266;
195.9000;0.1490;-0.3266;
196.2000;0.1490;-0.3241;
196.5000;0.1514;-0.3192;
196.8000;0.1481;-0.3216;
197.1000;0.1498;-0.3167;
197.4000;0.1465;-0.3192;
197.7000;0.1498;-0.3117;
198.0000;0.1490;-0.3092;
198.3000;0.1587;-0.2793;
198.6000;0.1498;-0.3142;
198.9000;0.1490;-0.3241;
199.2000;0.1506;-0.3291;
199.5000;0.1506;-0.3316;
199.8000;0.1498;-0.3366;
200.1000;0.1465;-0.3391;
200.4000;0.1498;-0.3291;
200.7000;0.1433;-0.3441;
201.0000;0.1498;-0.3167;
201.3000;0.1498;-0.3067;
201.6000;0.1498;-0.3092;
201.9000;0.1498;-0.3117;
202.2000;0.1530;-0.3117;
202.5000;0.1498;-0.3167;
202.8000;0.1498;-0.3142;
203.1000;0.1449;-0.3316;
203.4000;0.1490;-0.3117;
203.7000;0.1490;-0.3092;
204.0000;0.1490;-0.3117;
204.3000;0.1506;-0.3142;
204.6000;0.1514;-0.3092;
204.9000;0.1490;-0.3167;
205.2000;0.1473;-0.3241;
205.5000;0.1506;-0.3192;
205.8000;0.1514;-0.3117;
206.1000;0.1481;-0.3117;
206.4000;0.1498;-0.3092;
206.7000;0.1465;-0.3142;
207.0000;0.1490;-0.2967;
207.3000;0.1498;-0.2992;
207.6000;0.1490;-0.3067;
207.9000;0.1498;-0.3042;
208.2000;0.1522;-0.2917;
208.5000;0.1490;-0.2992;
208.8000;0.1498;-0.3042;
209.1000;0.1449;-0.3192;
209.4000;0.1498;-0.3142;
209.7000;0.1506;-0.3241;
210.0000;0.1490;-0.3291;
210.3000;0.1514;-0.3291;
210.6000;0.1473;-0.3366;
210.9000;0.1506;-0.3266;
211.2000;0.1490;-0.3291;
211.5000;0.1506;-0.3341;
211.8000;0.1498;-0.3291;
212.1000;0.1498;-0.3192;
212.4000;0.1490;-0.3241;
212.7000;0.1490;-0.3241;
213.0000;0.1522;-0.3142;
213.3000;0.1506;-0.3241;
213.6000;0.1506;-0.3266;
213.9000;0.1514;-0.3216;
214.2000;0.1506;-0.3291;
214.5000;0.1490;-0.3291;
214.8000;0.1506;-0.3167;
215.1000;0.1506;-0.3067;
215.4000;0.1498;-0.3042;
215.7000;0.1514;-0.3042;
216.0000;0.1514;-0.3017;
216.3000;0.1522;-0.3117;
216.6000;0.1506;-0.3067;
216.9000;0.1481;-0.3167;
217.2000;0.1465;-0.3117;
217.5000;0.1498;-0.3117;
217.8000;0.1481;-0.3192;
218.1000;0.1490;-0.3266;
218.4000;0.1473;-0.3291;
218.7000;0.1498;-0.3266;
219.0000;0.1490;-0.3341;
219.3000;0.1490;-0.3316;
219.6000;0.1514;-0.3241;
219.9000;0.1490;-0.3291;
220.2000;0.1506;-0.3167;
220.5000;0.1514;-0.3216;
220.8000;0.1514;-0.3117;
221.1000;0.1465;-0.3241;
221.4000;0.1416;-0.3491;
221.7000;0.1506;-0.3291;
222.0000;0.1498;-0.3366;
222.3000;0.1490;-0.3316;
222.6000;0.1490;-0.3291;
222.9000;0.1481;-0.3366;
223.2000;0.1522;-0.3266;
223.5000;0.1498;-0.3216;
223.8000;0.1481;-0.3266;
224.1000;0.1490;-0.3241;
224.4000;0.1490;-0.3192;
224.7000;0.1490;-0.3192;
225.0000;0.1473;-0.3266;
225.3000;0.1490;-0.3241;
225.6000;0.1490;-0.3266;
225.9000;0.1481;-0.3316;
226.2000;0.1530;-0.3291;
226.5000;0.1473;-0.3466;
226.8000;0.1481;-0.3316;
227.1000;0.1425;-0.3516;
227.4000;0.1457;-0.3466;
227.7000;0.1506;-0.3216;
228.0000;0.1498;-0.3192;
228.3000;0.1425;-0.3466;
228.6000;0.1514;-0.3241;
228.9000;0.1498;-0.3416;
229.2000;0.1514;-0.3341;
229.5000;0.1490;-0.3341;
229.8000;0.1514;-0.3341;
230.1000;0.1538;-0.3366;
230.4000;0.1506;-0.3391;
230.7000;0.1490;-0.3341;
231.0000;0.1490;-0.3341;
231.3000;0.1506;-0.3341;
231.6000;0.1481;-0.3341;
231.9000;0.1498;-0.3241;
232.2000;0.1498;-0.3266;
232.5000;0.1490;-0.3291;
232.8000;0.1490;-0.3441;
233.1000;0.1498;-0.3366;
233.4000;0.1498;-0.3366;
233.7000;0.1506;-0.3291;
234.0000;0.1506;-0.3441;
234.3000;0.1506;-0.3466;
234.6000;0.1465;-0.3615;
234.9000;0.1498;-0.3491;
235.2000;0.1481;-0.3441;
235.5000;0.1498;-0.3291;
235.8000;0.1473;-0.3366;
236.1000;0.1481;-0.3341;
236.4000;0.1473;-0.3316;
236.7000;0.1498;-0.3316;
237.0000;0.1506;-0.3266;
237.3000;0.1506;-0.3192;
237.6000;0.1490;-0.3042;
237.9000;0.1514;-0.2942;
238.2000;0.1522;-0.2942;
238.5000;0.1490;-0.2992;
238.8000;0.1473;-0.3117;
239.1000;0.1506;-0.3167;
239.4000;0.1506;-0.3167;
239.7000;0.1433;-0.3391;
240.0000;0.1563;-0.3017;
240.3000;0.1498;-0.3266;
240.6000;0.1522;-0.3266;
240.9000;0.1498;-0.3391;
241.2000;0.1481;-0.3491;
241.5000;0.1481;-0.3441;
241.8000;0.1498;-0.3341;
242.1000;0.1490;-0.3291;
242.4000;0.1473;-0.3366;
242.7000;0.1481;-0.3241;
243.0000;0.1481;-0.3241;
243.3000;0.1400;-0.3541;
243.6000;0.1490;-0.3416;
243.9000;0.1473;-0.3541;
244.2000;0.1449;-0.3590;
244.5000;0.1563;-0.3316;
244.8000;0.1490;-0.3416;
245.1000;0.1465;-0.3441;
245.4000;0.1457;-0.3391;
245.7000;0.1604;-0.2992;
246.0000;0.1490;-0.3241;
246.3000;0.1490;-0.3216;
246.6000;0.1490;-0.3192;
246.9000;0.1514;-0.3092;
247.2000;0.1498;-0.3192;
247.5000;0.1490;-0.3167;
247.8000;0.1441;-0.3241;
248.1000;0.1498;-0.3117;
248.4000;0.1498;-0.3092;
248.7000;0.1490;-0.3117;
249.0000;0.1481;-0.3192;
249.3000;0.1490;-0.3042;
249.6000;0.1498;-0.3142;
249.9000;0.1498;-0.3167;
250.2000;0.1522;-0.3042;
250.5000;0.1498;-0.3117;
250.8000;0.1490;-0.3216;
251.1000;0.1498;-0.3142;
251.4000;0.1490;-0.3167;
251.7000;0.1506;-0.3167;
252.0000;0.1514;-0.3142;
252.3000;0.1506;-0.3142;
252.6000;0.1498;-0.3167;
252.9000;0.1481;-0.3142;
253.2000;0.1490;-0.3192;
253.5000;0.1514;-0.3192;
253.8000;0.1490;-0.3241;
254.1000;0.1481;-0.3291;
254.4000;0.1498;-0.3241;
254.7000;0.1490;-0.3192;
255.0000;0.1490;-0.3192;
255.3000;0.1473;-0.3266;
255.6000;0.1433;-0.3416;
255.9000;0.1506;-0.3241;
256.2000;0.1473;-0.3241;
256.5000;0.1490;-0.3142;
256.8000;0.1506;-0.3167;
257.1000;0.1522;-0.3192;
257.4000;0.1506;-0.3266;
257.7000;0.1498;-0.3316;
258.0000;0.1498;-0.3366;
258.3000;0.1514;-0.3266;
258.6000;0.1498;-0.3316;
258.9000;0.1498;-0.3341;
259.2000;0.1473;-0.3341;
259.5000;0.1490;-0.3241;
259.8000;0.1506;-0.3241;
260.1000;0.1490;-0.3241;
260.4000;0.1514;-0.3291;
260.7000;0.1530;-0.3216;
261.0000;0.1498;-0.3291;
261.3000;0.1514;-0.3266;
261.6000;0.1498;-0.3266;
261.9000;0.1490;-0.3291;
262.2000;0.1498;-0.3316;
262.5000;0.1514;-0.3366;
262.8000;0.1481;-0.3441;
263.1000;0.1449;-0.3516;
263.4000;0.1416;-0.3665;
263.7000;0.1506;-0.3541;
264.0000;0.1530;-0.3491;
264.3000;0.1481;-0.3590;
264.6000;0.1514;-0.3516;
264.9000;0.1514;-0.3466;
265.2000;0.1490;-0.3466;
265.5000;0.1498;-0.3466;
265.8000;0.1522;-0.3516;
266.1000;0.1506;-0.3516;
266.4000;0.1449;-0.3541;
266.7000;0.1522;-0.3341;
267.0000;0.1498;-0.3341;
267.3000;0.1522;-0.3391;
267.6000;0.1530;-0.3341;
267.9000;0.1490;-0.3341;
268.2000;0.1481;-0.3441;
268.5000;0.1498;-0.3391;
268.8000;0.1530;-0.3266;
269.1000;0.1514;-0.3366;
269.4000;0.1506;-0.3241;
269.7000;0.1514;-0.3192;
270.0000;0.1522;-0.3241;
270.3000;0.1514;-0.3266;
270.6000;0.1514;-0.3341;
270.9000;0.1490;-0.3466;
271.2000;0.1514;-0.3416;
271.5000;0.1514;-0.3466;
271.8000;0.1538;-0.3266;
272.1000;0.1514;-0.3366;
272.4000;0.1514;-0.3341;
272.7000;0.1506;-0.3366;
273.0000;0.1514;-0.3366;
273.3000;0.1530;-0.3316;
273.6000;0.1490;-0.3416;
273.9000;0.1522;-0.3341;
274.2000;0.1514;-0.3341;
274.5000;0.1498;-0.3366;
274.8000;0.1490;-0.3241;
275.1000;0.1498;-0.3241;
275.4000;0.1408;-0.3516;
275.7000;0.1595;-0.2992;
276.0000;0.1530;-0.3167;
276.3000;0.1506;-0.3142;
276.6000;0.1490;-0.3142;
276.9000;0.1498;-0.3167;
277.2000;0.1490;-0.3241;
277.5000;0.1498;-0.3266;
277.8000;0.1506;-0.3192;
278.1000;0.1490;-0.3216;
278.4000;0.1481;-0.3117;
278.7000;0.1506;-0.2967;
279.0000;0.1506;-0.2967;
279.3000;0.1490;-0.3117;
279.6000;0.1457;-0.3216;
279.9000;0.1457;-0.3167;
280.2000;0.1481;-0.3241;
280.5000;0.1490;-0.3316;
280.8000;0.1587;-0.3017;
281.1000;0.1506;-0.3266;
281.4000;0.1498;-0.3241;
281.7000;0.1481;-0.3341;
282.0000;0.1498;-0.3266;
282.3000;0.1498;-0.3291;
282.6000;0.1498;-0.3266;
282.9000;0.1473;-0.3416;
283.2000;0.1506;-0.3366;
283.5000;0.1465;-0.3516;
283.8000;0.1481;-0.3466;
284.1000;0.1473;-0.3441;
284.4000;0.1481;-0.3416;
284.7000;0.1473;-0.3491;
285.0000;0.1506;-0.3391;
285.3000;0.1490;-0.3341;
285.6000;0.1465;-0.3341;
285.9000;0.1498;-0.3341;
286.2000;0.1522;-0.3291;
286.5000;0.1498;-0.3441;
286.8000;0.1473;-0.3516;
287.1000;0.1563;-0.3266;
287.4000;0.1498;-0.3391;
287.7000;0.1441;-0.3516;
288.0000;0.1498;-0.3316;
288.3000;0.1498;-0.3291;
288.6000;0.1490;-0.3341;
288.9000;0.1490;-0.3291;
289.2000;0.1514;-0.3216;
289.5000;0.1506;-0.3266;
289.8000;0.1490;-0.3341;
290.1000;0.1498;-0.3316;
290.4000;0.1522;-0.3192;
290.7000;0.1481;-0.3316;
291.0000;0.1473;-0.3266;
291.3000;0.1481;-0.3316;
291.6000;0.1506;-0.3241;
291.9000;0.1433;-0.3416;
292.2000;0.1506;-0.3441;
292.5000;0.1506;-0.3441;
292.8000;0.1473;-0.3590;
293.1000;0.1498;-0.3391;
293.4000;0.1490;-0.3441;
293.7000;0.1498;-0.3466;
294.0000;0.1457;-0.3416;
294.3000;0.1490;-0.3441;
294.6000;0.1473;-0.3491;
294.9000;0.1465;-0.3466;
295.2000;0.1490;-0.3466;
295.5000;0.1490;-0.3391;
295.8000;0.1506;-0.3391;
296.1000;0.1490;-0.3441;
296.4000;0.1506;-0.3566;
296.7000;0.1498;-0.3590;
297.0000;0.1481;-0.3640;
297.3000;0.1506;-0.3615;
297.6000;0.1498;-0.3640;
297.9000;0.1465;-0.3715;
298.2000;0.1498;-0.3566;
298.5000;0.1441;-0.3665;
298.8000;0.1473;-0.3566;
299.1000;0.1465;-0.3665;
299.4000;0.1498;-0.3491;
299.7000;0.1473;-0.3441;
300.0000;0.1490;-0.3466;
300.3000;0.1481;-0.3466;
300.6000;0.1481;-0.3516;
300.9000;0.1490;-0.3466;
301.2000;0.1481;-0.3441;
301.5000;0.1490;-0.3491;
301.8000;0.1514;-0.3366;
302.1000;0.1465;-0.3366;
302.4000;0.1498;-0.3266;
302.7000;0.1481;-0.3291;
303.0000;0.1506;-0.3216;
303.3000;0.1481;-0.3391;
303.6000;0.1490;-0.3416;
303.9000;0.1481;-0.3416;
304.2000;0.1506;-0.3316;
304.5000;0.1498;-0.3366;
304.8000;0.1465;-0.3466;
305.1000;0.1490;-0.3341;
305.4000;0.1506;-0.3291;
305.7000;0.1522;-0.3291;
306.0000;0.1498;-0.3416;
306.3000;0.1498;-0.3316;
306.6000;0.1506;-0.3341;
306.9000;0.1506;-0.3391;
307.2000;0.1498;-0.3466;
307.5000;0.1490;-0.3366;
307.8000;0.1498;-0.3291;
308.1000;0.1506;-0.3192;
308.4000;0.1514;-0.3266;
308.7000;0.1490;-0.3316;
309.0000;0.1498;-0.3366;
309.3000;0.1498;-0.3391;
309.6000;0.1498;-0.3316;
309.9000;0.1490;-0.3341;
310.2000;0.1506;-0.3341;
310.5000;0.1498;-0.3341;
310.8000;0.1514;-0.3366;
311.1000;0.1490;-0.3291;
311.4000;0.1498;-0.3216;
311.7000;0.1490;-0.3216;
312.0000;0.1490;-0.3192;
312.3000;0.1530;-0.3117;
312.6000;0.1490;-0.3142;
312.9000;0.1490;-0.3117;
313.2000;0.1457;-0.3241;
313.5000;0.1498;-0.3167;
313.8000;0.1490;-0.3142;
314.1000;0.1481;-0.3167;
314.4000;0.1481;-0.3167;
314.7000;0.1481;-0.3092;
315.0000;0.1481;-0.3241;
315.3000;0.1481;-0.3266;
315.6000;0.1506;-0.3316;
315.9000;0.1538;-0.3241;
316.2000;0.1457;-0.3266;
316.5000;0.1506;-0.3142;
316.8000;0.1498;-0.3167;
317.1000;0.1498;-0.3241;
317.4000;0.1506;-0.3291;
317.7000;0.1506;-0.3316;
318.0000;0.1490;-0.3316;
318.3000;0.1481;-0.3416;
318.6000;0.1481;-0.3366;
318.9000;0.1490;-0.3341;
319.2000;0.1457;-0.3441;
319.5000;0.1457;-0.3316;
319.8000;0.1449;-0.3291;
320.1000;0.1506;-0.3291;
320.4000;0.1490;-0.3266;
320.7000;0.1498;-0.3391;
321.0000;0.1490;-0.3491;
321.3000;0.1498;-0.3466;
321.6000;0.1506;-0.3416;
321.9000;0.1490;-0.3516;
322.2000;0.1514;-0.3491;
322.5000;0.1481;-0.3590;
322.8000;0.1498;-0.3416;
323.1000;0.1490;-0.3516;
323.4000;0.1490;-0.3491;
323.7000;0.1514;-0.3466;
324.0000;0.1498;-0.3491;
324.3000;0.1481;-0.3566;
324.6000;0.1563;-0.3366;
324.9000;0.1538;-0.3341;
325.2000;0.1498;-0.3541;
325.5000;0.1506;-0.3491;
325.8000;0.1514;-0.3516;
326.1000;0.1522;-0.3366;
326.4000;0.1506;-0.3341;
326.7000;0.1441;-0.3640;
327.0000;0.1522;-0.3366;
327.3000;0.1514;-0.3266;
327.6000;0.1481;-0.3341;
327.9000;0.1514;-0.3266;
328.2000;0.1514;-0.3266;
328.5000;0.1498;-0.3416;
328.8000;0.1490;-0.3391;
329.1000;0.1530;-0.3266;
329.4000;0.1465;-0.3391;
329.7000;0.1498;-0.3341;
330.0000;0.1506;-0.3391;
330.3000;0.1490;-0.3341;
330.6000;0.1514;-0.3291;
330.9000;0.1506;-0.3366;
331.2000;0.1498;-0.3441;
331.5000;0.1506;-0.3416;
331.8000;0.1506;-0.3491;
332.1000;0.1490;-0.3541;
332.4000;0.1506;-0.3416;
332.7000;0.1522;-0.3316;
333.0000;0.1490;-0.3366;
333.3000;0.1465;-0.3341;
333.6000;0.1506;-0.3316;
333.9000;0.1498;-0.3341;
334.2000;0.1490;-0.3391;
334.5000;0.1490;-0.3341;
334.8000;0.1473;-0.3366;
335.1000;0.1506;-0.3316;
335.4000;0.1465;-0.3566;
335.7000;0.1490;-0.3541;
336.0000;0.1490;-0.3491;
336.3000;0.1490;-0.3416;
336.6000;0.1538;-0.3216;
336.9000;0.1498;-0.3341;
337.2000;0.1498;-0.3341;
337.5000;0.1416;-0.3441;
337.8000;0.1490;-0.3241;
338.1000;0.1498;-0.3291;
338.4000;0.1490;-0.3241;
338.7000;0.1498;-0.3241;
339.0000;0.1490;-0.3216;
339.3000;0.1506;-0.3192;
339.6000;0.1473;-0.3291;
339.9000;0.1490;-0.3266;
340.2000;0.1506;-0.3291;
340.5000;0.1481;-0.3341;
340.8000;0.1481;-0.3316;
341.1000;0.1522;-0.3241;
341.4000;0.1498;-0.3316;
341.7000;0.1376;-0.3690;
342.0000;0.1498;-0.3391;
342.3000;0.1571;-0.3167;
342.6000;0.1490;-0.3291;
342.9000;0.1465;-0.3341;
343.2000;0.1498;-0.3291;
343.5000;0.1498;-0.3291;
343.8000;0.1498;-0.3316;
344.1000;0.1506;-0.3291;
344.4000;0.1490;-0.3192;
344.7000;0.1514;-0.3117;
345.0000;0.1498;-0.3142;
345.3000;0.1490;-0.3167;
345.6000;0.1481;-0.3142;
345.9000;0.1506;-0.3167;
346.2000;0.1555;-0.3017;
346.5000;0.1498;-0.3192;
346.8000;0.1506;-0.3192;
347.1000;0.1506;-0.3216;
347.4000;0.1490;-0.3316;
347.7000;0.1514;-0.3316;
348.0000;0.1498;-0.3366;
348.3000;0.1514;-0.3341;
348.6000;0.1506;-0.3241;
348.9000;0.1498;-0.3192;
349.2000;0.1490;-0.3341;
349.5000;0.1481;-0.3441;
349.8000;0.1490;-0.3441;
350.1000;0.1481;-0.3316;
350.4000;0.1481;-0.3291;
350.7000;0.1481;-0.3316;
351.0000;0.1481;-0.3416;
351.3000;0.1490;-0.3416;
351.6000;0.1481;-0.3366;
351.9000;0.1490;-0.3391;
352.2000;0.1473;-0.3441;
352.5000;0.1481;-0.3416;
352.8000;0.1490;-0.3366;
353.1000;0.1490;-0.3366;
353.4000;0.1490;-0.3316;
353.7000;0.1457;-0.3366;
354.0000;0.1457;-0.3466;
354.3000;0.1481;-0.3491;
354.6000;0.1498;-0.3441;
354.9000;0.1473;-0.3541;
355.2000;0.1473;-0.3441;
355.5000;0.1490;-0.3391;
355.8000;0.1490;-0.3391;
356.1000;0.1498;-0.3341;
356.4000;0.1514;-0.3441;
356.7000;0.1514;-0.3491;
357.0000;0.1498;-0.3541;
357.3000;0.1498;-0.3491;
357.6000;0.1538;-0.3266;
357.9000;0.1481;-0.3341;
358.2000;0.1481;-0.3391;
358.5000;0.1498;-0.3316;
358.8000;0.1506;-0.3266;
359.1000;0.1490;-0.3366;
359.4000;0.1481;-0.3291;
359.7000;0.1449;-0.3391;
360.0000;0.1506;-0.3241;
360.3000;0.1481;-0.3291;
360.6000;0.1473;-0.3316;
360.9000;0.1473;-0.3316;
361.2000;0.1490;-0.3316;
361.5000;0.1481;-0.3391;
361.8000;0.1506;-0.3341;
362.1000;0.1490;-0.3391;
362.4000;0.1490;-0.3366;
362.7000;0.1498;-0.3366;
363.0000;0.1490;-0.3366;
363.3000;0.1481;-0.3516;
363.6000;0.1481;-0.3566;
363.9000;0.1449;-0.3566;
364.2000;0.1490;-0.3516;
364.5000;0.1490;-0.3441;
364.8000;0.1457;-0.3466;
365.1000;0.1490;-0.3366;
365.4000;0.1547;-0.3216;
365.7000;0.1473;-0.3316;
366.0000;0.1400;-0.3441;
366.3000;0.1506;-0.3142;
366.6000;0.1514;-0.3266;
366.9000;0.1425;-0.3541;
367.2000;0.1506;-0.3391;
367.5000;0.1506;-0.3416;
367.8000;0.1498;-0.3391;
368.1000;0.1498;-0.3466;
368.4000;0.1481;-0.3541;
368.7000;0.1498;-0.3441;
369.0000;0.1490;-0.3391;
369.3000;0.1498;-0.3316;
369.6000;0.1498;-0.3391;
369.9000;0.1473;-0.3516;
370.2000;0.1490;-0.3466;
370.5000;0.1522;-0.3366;
370.8000;0.1522;-0.3391;
371.1000;0.1490;-0.3541;
371.4000;0.1555;-0.3341;
371.7000;0.1514;-0.3466;
372.0000;0.1506;-0.3416;
372.3000;0.1498;-0.3366;
372.6000;0.1481;-0.3341;
372.9000;0.1498;-0.3291;
373.2000;0.1490;-0.3316;
373.5000;0.1457;-0.3441;
373.8000;0.1522;-0.3241;
374.1000;0.1490;-0.3316;
374.4000;0.1490;-0.3341;
374.7000;0.1481;-0.3466;
375.0000;0.1473;-0.3466;
375.3000;0.1490;-0.3441;
375.6000;0.1506;-0.3416;
375.9000;0.1490;-0.3516;
376.2000;0.1490;-0.3466;
376.5000;0.1481;-0.3366;
376.8000;0.1490;-0.3391;
377.1000;0.1506;-0.3316;
377.4000;0.1506;-0.3291;
377.7000;0.1490;-0.3291;
378.0000;0.1481;-0.3366;
378.3000;0.1514;-0.3391;
378.6000;0.1498;-0.3391;
378.9000;0.1490;-0.3341;
379.2000;0.1498;-0.3341;
379.5000;0.1481;-0.3366;
379.8000;0.1441;-0.3416;
380.1000;0.1506;-0.3316;
380.4000;0.1506;-0.3266;
380.7000;0.1506;-0.3241;
381.0000;0.1490;-0.3366;
381.3000;0.1498;-0.3366;
381.6000;0.1498;-0.3341;
381.9000;0.1498;-0.3291;
382.2000;0.1498;-0.3316;
382.5000;0.1530;-0.3216;
382.8000;0.1498;-0.3341;
383.1000;0.1490;-0.3291;
383.4000;0.1490;-0.3216;
383.7000;0.1473;-0.3266;
384.0000;0.1498;-0.3266;
384.3000;0.1490;-0.3291;
384.6000;0.1481;-0.3366;
384.9000;0.1481;-0.3391;
385.2000;0.1473;-0.3391;
385.5000;0.1481;-0.3266;
385.8000;0.1547;-0.3042;
386.1000;0.1498;-0.3167;
386.4000;0.1481;-0.3167;
386.7000;0.1490;-0.3216;
387.0000;0.1547;-0.3117;
387.3000;0.1481;-0.3266;
387.6000;0.1425;-0.3441;
387.9000;0.1490;-0.3266;
388.2000;0.1481;-0.3491;
388.5000;0.1473;-0.3516;
388.8000;0.1490;-0.3391;
389.1000;0.1490;-0.3391;
389.4000;0.1490;-0.3391;
389.7000;0.1498;-0.3491;
390.0000;0.1473;-0.3590;
390.3000;0.1490;-0.3491;
390.6000;0.1490;-0.3366;
390.9000;0.1498;-0.3366;
391.2000;0.1481;-0.3366;
391.5000;0.1563;-0.2992;
391.8000;0.1498;-0.3117;
392.1000;0.1498;-0.3117;
392.4000;0.1498;-0.3067;
392.7000;0.1481;-0.3117;
393.0000;0.1473;-0.3167;
393.3000;0.1498;-0.3167;
393.6000;0.1481;-0.3241;
393.9000;0.1481;-0.3266;
394.2000;0.1481;-0.3316;
394.5000;0.1498;-0.3366;
394.8000;0.1433;-0.3491;
395.1000;0.1481;-0.3316;
395.4000;0.1490;-0.3341;
395.7000;0.1555;-0.3167;
396.0000;0.1490;-0.3316;
396.3000;0.1579;-0.2992;
396.6000;0.1498;-0.3216;
396.9000;0.1506;-0.3117;
397.2000;0.1498;-0.3067;
397.5000;0.1498;-0.3142;
397.8000;0.1522;-0.3241;
398.1000;0.1498;-0.3391;
398.4000;0.1490;-0.3316;
398.7000;0.1506;-0.3266;
399.0000;0.1481;-0.3391;
399.3000;0.1473;-0.3291;
399.6000;0.1490;-0.3241;
399.9000;0.1457;-0.3291;
400.2000;0.1481;-0.3266;
400.5000;0.1473;-0.3316;
400.8000;0.1490;-0.3316;
401.1000;0.1481;-0.3366;
401.4000;0.1457;-0.3316;
401.7000;0.1481;-0.3241;
402.0000;0.1441;-0.3366;
402.3000;0.1498;-0.3216;
402.6000;0.1530;-0.3167;
402.9000;0.1490;-0.3216;
403.2000;0.1481;-0.3216;
403.5000;0.1514;-0.3117;
403.8000;0.1481;-0.3192;
404.1000;0.1490;-0.3316;
404.4000;0.1498;-0.3366;
404.7000;0.1481;-0.3366;
405.0000;0.1481;-0.3266;
405.3000;0.1490;-0.3266;
405.6000;0.1514;-0.3241;
405.9000;0.1498;-0.3316;
406.2000;0.1490;-0.3291;
406.5000;0.1457;-0.3366;
406.8000;0.1506;-0.3192;
407.1000;0.1498;-0.3266;
407.4000;0.1441;-0.3441;
407.7000;0.1498;-0.3266;
408.0000;0.1490;-0.3291;
408.3000;0.1498;-0.3266;
408.6000;0.1490;-0.3291;
408.9000;0.1514;-0.3216;
409.2000;0.1498;-0.3316;
409.5000;0.1481;-0.3316;
409.8000;0.1457;-0.3366;
410.1000;0.1465;-0.3366;
410.4000;0.1473;-0.3316;
410.7000;0.1465;-0.3291;
411.0000;0.1457;-0.3316;
411.3000;0.1473;-0.3366;
411.6000;0.1465;-0.3366;
411.9000;0.1465;-0.3241;
412.2000;0.1473;-0.3216;
412.5000;0.1473;-0.3192;
412.8000;0.1530;-0.3067;
413.1000;0.1457;-0.3366;
413.4000;0.1490;-0.3341;
413.7000;0.1506;-0.3291;
414.0000;0.1473;-0.3216;
414.3000;0.1457;-0.3216;
414.6000;0.1522;-0.3067;
414.9000;0.1490;-0.3117;
415.2000;0.1400;-0.3316;
415.5000;0.1498;-0.3142;
415.8000;0.1481;-0.3241;
416.1000;0.1506;-0.3241;
416.4000;0.1490;-0.3216;
416.7000;0.1481;-0.3266;
417.0000;0.1498;-0.3216;
417.3000;0.1481;-0.3192;
417.6000;0.1490;-0.3167;
417.9000;0.1490;-0.3067;
418.2000;0.1490;-0.3117;
418.5000;0.1506;-0.3042;
418.8000;0.1465;-0.3241;
419.1000;0.1490;-0.3192;
419.4000;0.1465;-0.3216;
419.7000;0.1490;-0.3142;
420.0000;0.1490;-0.3216;
420.3000;0.1498;-0.3291;
420.6000;0.1425;-0.3416;
420.9000;0.1490;-0.3341;
421.2000;0.1522;-0.3241;
421.5000;0.1490;-0.3391;
421.8000;0.1514;-0.3341;
422.1000;0.1522;-0.3316;
422.4000;0.1498;-0.3366;
422.7000;0.1481;-0.3316;
423.0000;0.1506;-0.3341;
423.3000;0.1473;-0.3541;
423.6000;0.1506;-0.3491;
423.9000;0.1514;-0.3391;
424.2000;0.1506;-0.3341;
424.5000;0.1522;-0.3391;
424.8000;0.1498;-0.3491;
425.1000;0.1498;-0.3391;
425.4000;0.1490;-0.3416;
425.7000;0.1498;-0.3491;
426.0000;0.1473;-0.3566;
426.3000;0.1530;-0.3391;
426.6000;0.1498;-0.3441;
426.9000;0.1498;-0.3416;
427.2000;0.1481;-0.3466;
427.5000;0.1490;-0.3366;
427.8000;0.1490;-0.3291;
428.1000;0.1457;-0.3416;
428.4000;0.1473;-0.3416;
428.7000;0.1538;-0.3192;
429.0000;0.1449;-0.3466;
429.3000;0.1473;-0.3416;
429.6000;0.1490;-0.3366;
429.9000;0.1522;-0.3366;
430.2000;0.1514;-0.3416;
430.5000;0.1498;-0.3516;
430.8000;0.1498;-0.3441;
431.1000;0.1547;-0.3241;
431.4000;0.1425;-0.3541;
431.7000;0.1506;-0.3291;
432.0000;0.1416;-0.3441;
432.3000;0.1490;-0.3291;
432.6000;0.1514;-0.3341;
432.9000;0.1547;-0.3241;
433.2000;0.1514;-0.3391;
433.5000;0.1506;-0.3341;
433.8000;0.1473;-0.3291;
434.1000;0.1514;-0.3167;
434.4000;0.1490;-0.3241;
434.7000;0.1506;-0.3241;
435.0000;0.1498;-0.3291;
435.3000;0.1449;-0.3391;
435.6000;0.1498;-0.3341;
435.9000;0.1506;-0.3291;
436.2000;0.1490;-0.3341;
436.5000;0.1490;-0.3391;
436.8000;0.1498;-0.3341;
437.1000;0.1530;-0.3316;
437.4000;0.1498;-0.3291;
437.7000;0.1506;-0.3167;
438.0000;0.1498;-0.3092;
438.3000;0.1416;-0.3291;
438.6000;0.1498;-0.3216;
438.9000;0.1441;-0.3391;
439.2000;0.1506;-0.3142;
439.5000;0.1490;-0.3192;
439.8000;0.1473;-0.3366;
440.1000;0.1506;-0.3341;
440.4000;0.1481;-0.3391;
440.7000;0.1481;-0.3291;
441.0000;0.1490;-0.3291;
441.3000;0.1498;-0.3341;
441.6000;0.1498;-0.3192;
441.9000;0.1506;-0.3092;
442.2000;0.1498;-0.3142;
442.5000;0.1498;-0.3167;
442.8000;0.1457;-0.3266;
443.1000;0.1506;-0.3241;
443.4000;0.1490;-0.3316;
443.7000;0.1481;-0.3391;
444.0000;0.1481;-0.3391;
444.3000;0.1490;-0.3416;
444.6000;0.1498;-0.3416;
444.9000;0.1555;-0.3291;
445.2000;0.1465;-0.3491;
445.5000;0.1481;-0.3391;
445.8000;0.1490;-0.3466;
446.1000;0.1473;-0.3491;
446.4000;0.1498;-0.3416;
446.7000;0.1506;-0.3341;
447.0000;0.1481;-0.3416;
447.3000;0.1498;-0.3341;
447.6000;0.1473;-0.3316;
447.9000;0.1473;-0.3266;
448.2000;0.1473;-0.3341;
448.5000;0.1498;-0.3291;
448.8000;0.1490;-0.3192;
449.1000;0.1506;-0.3142;
449.4000;0.1490;-0.3192;
449.7000;0.1490;-0.3142;
450.0000;0.1490;-0.3067;
450.3000;0.1498;-0.3067;
450.6000;0.1514;-0.3167;
450.9000;0.1514;-0.3216;
451.2000;0.1538;-0.3067;
451.5000;0.1481;-0.3167;
451.8000;0.1498;-0.3117;
452.1000;0.1490;-0.3117;
452.4000;0.1514;-0.3142;
452.7000;0.1490;-0.3192;
453.0000;0.1441;-0.3366;
453.3000;0.1522;-0.3216;
453.6000;0.1563;-0.3042;
453.9000;0.1498;-0.3192;
454.2000;0.1481;-0.3366;
454.5000;0.1506;-0.3216;
454.8000;0.1473;-0.3192;
455.1000;0.1490;-0.3117;
455.4000;0.1490;-0.3067;
455.7000;0.1481;-0.3092;
456.0000;0.1490;-0.3092;
456.3000;0.1498;-0.3042;
456.6000;0.1530;-0.3092;
456.9000;0.1498;-0.3241;
457.2000;0.1490;-0.3266;
457.5000;0.1522;-0.3142;
457.8000;0.1490;-0.3241;
458.1000;0.1522;-0.3241;
458.4000;0.1498;-0.3241;
458.7000;0.1530;-0.3216;
459.0000;0.1498;-0.3266;
459.3000;0.1481;-0.3316;
459.6000;0.1490;-0.3266;
459.9000;0.1498;-0.3241;
460.2000;0.1490;-0.3291;
460.5000;0.1498;-0.3366;
460.8000;0.1498;-0.3441;
461.1000;0.1490;-0.3516;
461.4000;0.1481;-0.3466;
461.7000;0.1498;-0.3441;
462.0000;0.1481;-0.3541;
462.3000;0.1538;-0.3366;
462.6000;0.1498;-0.3541;
462.9000;0.1490;-0.3516;
463.2000;0.1514;-0.3516;
463.5000;0.1514;-0.3516;
463.8000;0.1506;-0.3516;
464.1000;0.1498;-0.3516;
464.4000;0.1604;-0.3241;
464.7000;0.1506;-0.3566;
465.0000;0.1473;-0.3640;
465.3000;0.1481;-0.3541;
465.6000;0.1490;-0.3541;
465.9000;0.1498;-0.3516;
466.2000;0.1506;-0.3466;
466.5000;0.1481;-0.3441;
466.8000;0.1481;-0.3441;
467.1000;0.1490;-0.3366;
467.4000;0.1490;-0.3341;
467.7000;0.1481;-0.3316;
468.0000;0.1506;-0.3216;
468.3000;0.1498;-0.3117;
468.6000;0.1498;-0.3092;
468.9000;0.1481;-0.3017;
469.2000;0.1465;-0.3117;
469.5000;0.1490;-0.3117;
469.8000;0.1481;-0.3042;
470.1000;0.1514;-0.2967;
470.4000;0.1457;-0.3017;
470.7000;0.1473;-0.3142;
471.0000;0.1481;-0.3216;
471.3000;0.1490;-0.3266;
471.6000;0.1498;-0.3241;
471.9000;0.1506;-0.3192;
472.2000;0.1498;-0.3216;
472.5000;0.1522;-0.3216;
472.8000;0.1506;-0.3291;
473.1000;0.1506;-0.3266;
473.4000;0.1498;-0.3192;
473.7000;0.1473;-0.3192;
474.0000;0.1457;-0.3241;
474.3000;0.1490;-0.3167;
474.6000;0.1530;-0.3092;
474.9000;0.1506;-0.3216;
475.2000;0.1498;-0.3266;
475.5000;0.1457;-0.3366;
475.8000;0.1490;-0.3316;
476.1000;0.1490;-0.3341;
476.4000;0.1530;-0.3291;
476.7000;0.1498;-0.3416;
477.0000;0.1490;-0.3466;
477.3000;0.1506;-0.3391;
477.6000;0.1425;-0.3590;
477.9000;0.1490;-0.3366;
478.2000;0.1481;-0.3416;
478.5000;0.1498;-0.3366;
478.8000;0.1514;-0.3216;
479.1000;0.1481;-0.3241;
479.4000;0.1490;-0.3241;
479.7000;0.1481;-0.3291;
480.0000;0.1481;-0.3316;
480.3000;0.1481;-0.3241;
480.6000;0.1490;-0.3216;
480.9000;0.1498;-0.3216;
481.2000;0.1498;-0.3167;
481.5000;0.1571;-0.2992;
481.8000;0.1400;-0.3416;
482.1000;0.1490;-0.3216;
482.4000;0.1506;-0.3192;
482.7000;0.1506;-0.3241;
483.0000;0.1490;-0.3192;
483.3000;0.1498;-0.3216;
483.6000;0.1498;-0.3167;
483.9000;0.1490;-0.3092;
484.2000;0.1481;-0.3167;
484.5000;0.1498;-0.3216;
484.8000;0.1506;-0.3266;
485.1000;0.1490;-0.3192;
485.4000;0.1498;-0.3241;
485.7000;0.1473;-0.3216;
486.0000;0.1490;-0.3316;
486.3000;0.1481;-0.3266;
486.6000;0.1481;-0.3241;
486.9000;0.1490;-0.3241;
487.2000;0.1490;-0.3167;
487.5000;0.1538;-0.3042;
487.8000;0.1490;-0.3241;
488.1000;0.1481;-0.3316;
488.4000;0.1498;-0.3341;
488.7000;0.1498;-0.3341;
489.0000;0.1514;-0.3291;
489.3000;0.1498;-0.3266;
489.6000;0.1490;-0.3192;
489.9000;0.1481;-0.3142;
490.2000;0.1481;-0.3167;
490.5000;0.1465;-0.3192;
490.8000;0.1490;-0.3167;
491.1000;0.1498;-0.3167;
491.4000;0.1498;-0.3142;
491.7000;0.1498;-0.3067;
492.0000;0.1449;-0.3092;
492.3000;0.1473;-0.3192;
492.6000;0.1490;-0.3241;
492.9000;0.1498;-0.3241;
493.2000;0.1498;-0.3167;
493.5000;0.1465;-0.3142;
493.8000;0.1506;-0.3142;
494.1000;0.1465;-0.3216;
494.4000;0.1465;-0.3216;
494.7000;0.1522;-0.3092;
495.0000;0.1481;-0.3241;
495.3000;0.1522;-0.3067;
495.6000;0.1457;-0.3216;
495.9000;0.1481;-0.3117;
496.2000;0.1490;-0.3042;
496.5000;0.1481;-0.2967;
496.8000;0.1465;-0.3117;
497.1000;0.1490;-0.3092;
497.4000;0.1498;-0.3017;
497.7000;0.1481;-0.2942;
498.0000;0.1498;-0.2992;
498.3000;0.1514;-0.2967;
498.6000;0.1465;-0.3042;
498.9000;0.1579;-0.2718;
499.2000;0.1490;-0.2942;
499.5000;0.1498;-0.2867;
499.8000;0.1481;-0.2892;
500.1000;0.1473;-0.2842;
500.4000;0.1506;-0.2942;
500.7000;0.1465;-0.3117;
501.0000;0.1359;-0.3516;
501.3000;0.1490;-0.3167;
501.6000;0.1481;-0.3192;
501.9000;0.1473;-0.3167;
502.2000;0.1465;-0.3241;
502.5000;0.1481;-0.3167;
502.8000;0.1506;-0.3167;
503.1000;0.1490;-0.3142;
503.4000;0.1490;-0.3192;
503.7000;0.1522;-0.3266;
504.0000;0.1498;-0.3316;
504.3000;0.1506;-0.3216;
504.6000;0.1498;-0.3142;
504.9000;0.1490;-0.3042;
505.2000;0.1506;-0.2967;
505.5000;0.1465;-0.3017;
505.8000;0.1473;-0.3017;
506.1000;0.1490;-0.3017;
506.4000;0.1481;-0.2992;
506.7000;0.1490;-0.3067;
507.0000;0.1473;-0.3117;
507.3000;0.1441;-0.3192;
507.6000;0.1506;-0.3017;
507.9000;0.1522;-0.3017;
508.2000;0.1490;-0.3067;
508.5000;0.1555;-0.2917;
508.8000;0.1498;-0.2942;
509.1000;0.1481;-0.3042;
509.4000;0.1490;-0.3067;
509.7000;0.1490;-0.2967;
510.0000;0.1457;-0.2867;
510.3000;0.1498;-0.2842;
510.6000;0.1481;-0.2842;
510.9000;0.1465;-0.2892;
511.2000;0.1506;-0.2818;
511.5000;0.1498;-0.2917;
511.8000;0.1490;-0.2892;
512.1000;0.1498;-0.2917;
512.4000;0.1481;-0.3017;
512.7000;0.1490;-0.3017;
513.0000;0.1473;-0.2992;
513.3000;0.1538;-0.2917;
513.6000;0.1538;-0.2867;
513.9000;0.1522;-0.2842;
514.2000;0.1498;-0.2867;
514.5000;0.1490;-0.2867;
514.8000;0.1465;-0.2992;
515.1000;0.1433;-0.3117;
515.4000;0.1498;-0.2942;
515.7000;0.1490;-0.3042;
516.0000;0.1498;-0.3017;
516.3000;0.1457;-0.3117;
516.6000;0.1465;-0.3142;
516.9000;0.1498;-0.3117;
517.2000;0.1481;-0.3142;
517.5000;0.1481;-0.3117;
517.8000;0.1490;-0.3067;
518.1000;0.1522;-0.3042;
518.4000;0.1498;-0.3142;
518.7000;0.1490;-0.3117;
519.0000;0.1555;-0.2992;
519.3000;0.1498;-0.3216;
519.6000;0.1498;-0.3266;
519.9000;0.1457;-0.3341;
520.2000;0.1481;-0.3316;
520.5000;0.1506;-0.3316;
520.8000;0.1473;-0.3316;
521.1000;0.1465;-0.3316;
521.4000;0.1506;-0.3241;
521.7000;0.1506;-0.3291;
522.0000;0.1473;-0.3416;
522.3000;0.1506;-0.3291;
522.6000;0.1481;-0.3316;
522.9000;0.1506;-0.3216;
523.2000;0.1473;-0.3391;
523.5000;0.1530;-0.3266;
523.8000;0.1490;-0.3341;
524.1000;0.1473;-0.3341;
524.4000;0.1481;-0.3391;
524.7000;0.1506;-0.3341;
525.0000;0.1490;-0.3416;
525.3000;0.1498;-0.3366;
525.6000;0.1473;-0.3366;
525.9000;0.1514;-0.3216;
526.2000;0.1490;-0.3341;
526.5000;0.1498;-0.3341;
526.8000;0.1481;-0.3416;
527.1000;0.1473;-0.3391;
527.4000;0.1498;-0.3291;
527.7000;0.1498;-0.3366;
528.0000;0.1490;-0.3416;
528.3000;0.1490;-0.3316;
528.6000;0.1481;-0.3291;
528.9000;0.1498;-0.3291;
529.2000;0.1498;-0.3341;
529.5000;0.1490;-0.3391;
529.8000;0.1498;-0.3366;
530.1000;0.1498;-0.3366;
530.4000;0.1465;-0.3391;
530.7000;0.1490;-0.3416;
531.0000;0.1457;-0.3541;
531.3000;0.1473;-0.3541;
531.6000;0.1498;-0.3541;
531.9000;0.1449;-0.3615;
532.2000;0.1498;-0.3466;
532.5000;0.1481;-0.3391;
532.8000;0.1490;-0.3316;
533.1000;0.1498;-0.3316;
533.4000;0.1481;-0.3241;
533.7000;0.1481;-0.3241;
534.0000;0.1490;-0.3241;
534.3000;0.1490;-0.3216;
534.6000;0.1506;-0.3216;
534.9000;0.1498;-0.3366;
535.2000;0.1481;-0.3316;
535.5000;0.1481;-0.3316;
535.8000;0.1498;-0.3266;
536.1000;0.1490;-0.3341;
536.4000;0.1498;-0.3316;
536.7000;0.1555;-0.3117;
537.0000;0.1481;-0.3366;
537.3000;0.1457;-0.3366;
537.6000;0.1498;-0.3241;
537.9000;0.1481;-0.3291;
538.2000;0.1481;-0.3316;
538.5000;0.1498;-0.3316;
538.8000;0.1481;-0.3316;
539.1000;0.1490;-0.3291;
539.4000;0.1473;-0.3216;
539.7000;0.1498;-0.2992;
540.0000;0.1481;-0.2992;
540.3000;0.1465;-0.3067;
540.6000;0.1490;-0.2967;
540.9000;0.1506;-0.2967;
541.2000;0.1490;-0.3017;
541.5000;0.1481;-0.2967;
541.8000;0.1498;-0.2942;
542.1000;0.1490;-0.2917;
542.4000;0.1490;-0.2942;
542.7000;0.1490;-0.2992;
543.0000;0.1473;-0.2967;
543.3000;0.1481;-0.3017;
543.6000;0.1481;-0.2967;
543.9000;0.1498;-0.2892;
544.2000;0.1490;-0.3042;
544.5000;0.1498;-0.3042;
544.8000;0.1473;-0.3092;
545.1000;0.1530;-0.2992;
545.4000;0.1433;-0.3192;
545.7000;0.1457;-0.2992;
546.0000;0.1490;-0.2892;
546.3000;0.1465;-0.3042;
546.6000;0.1571;-0.2793;
546.9000;0.1490;-0.2942;
547.2000;0.1498;-0.3017;
547.5000;0.1473;-0.3117;
547.8000;0.1481;-0.3067;
548.1000;0.1441;-0.3316;
548.4000;0.1506;-0.3167;
548.7000;0.1441;-0.3316;
549.0000;0.1498;-0.3241;
549.3000;0.1490;-0.3241;
549.6000;0.1490;-0.3167;
549.9000;0.1498;-0.3117;
550.2000;0.1498;-0.3142;
550.5000;0.1465;-0.3241;
550.8000;0.1498;-0.3092;
551.1000;0.1481;-0.3117;
551.4000;0.1473;-0.3142;
551.7000;0.1481;-0.3117;
552.0000;0.1473;-0.3167;
552.3000;0.1490;-0.3092;
552.6000;0.1490;-0.3167;
552.9000;0.1449;-0.3291;
553.2000;0.1498;-0.3216;
553.5000;0.1481;-0.3266;
553.8000;0.1498;-0.3192;
554.1000;0.1473;-0.3192;
554.4000;0.1457;-0.3366;
554.7000;0.1465;-0.3241;
555.0000;0.1490;-0.3167;
555.3000;0.1481;-0.3142;
555.6000;0.1473;-0.3167;
555.9000;0.1465;-0.3192;
556.2000;0.1473;-0.3042;
556.5000;0.1465;-0.2992;
556.8000;0.1457;-0.3117;
557.1000;0.1506;-0.3017;
557.4000;0.1498;-0.3167;
557.7000;0.1457;-0.3192;
558.0000;0.1481;-0.3241;
558.3000;0.1490;-0.3316;
558.6000;0.1490;-0.3291;
558.9000;0.1506;-0.3167;
559.2000;0.1481;-0.3266;
559.5000;0.1490;-0.3241;
559.8000;0.1506;-0.3192;
560.1000;0.1490;-0.3167;
560.4000;0.1490;-0.3192;
560.7000;0.1481;-0.3216;
561.0000;0.1498;-0.3117;
561.3000;0.1506;-0.3067;
561.6000;0.1522;-0.3092;
561.9000;0.1498;-0.3117;
562.2000;0.1481;-0.3216;
562.5000;0.1473;-0.3291;
562.8000;0.1506;-0.3192;
563.1000;0.1481;-0.3216;
563.4000;0.1506;-0.3192;
563.7000;0.1506;-0.3216;
564.0000;0.1490;-0.3216;
564.3000;0.1473;-0.3291;
564.6000;0.1473;-0.3266;
564.9000;0.1490;-0.3216;
565.2000;0.1490;-0.3241;
565.5000;0.1473;-0.3366;
565.8000;0.1465;-0.3366;
566.1000;0.1490;-0.3266;
566.4000;0.1498;-0.3291;
566.7000;0.1514;-0.3241;
567.0000;0.1465;-0.3266;
567.3000;0.1449;-0.3266;
567.6000;0.1498;-0.3142;
567.9000;0.1506;-0.3266;
568.2000;0.1538;-0.3192;
568.5000;0.1441;-0.3416;
568.8000;0.1506;-0.3241;
569.1000;0.1473;-0.3216;
569.4000;0.1522;-0.3117;
569.7000;0.1506;-0.3117;
570.0000;0.1473;-0.3192;
570.3000;0.1595;-0.2942;
570.6000;0.1490;-0.3216;
570.9000;0.1498;-0.3142;
571.2000;0.1498;-0.3092;
571.5000;0.1514;-0.3092;
571.8000;0.1514;-0.3067;
572.1000;0.1481;-0.3142;
572.4000;0.1465;-0.3167;
572.7000;0.1522;-0.3067;
573.0000;0.1490;-0.3142;
573.3000;0.1506;-0.3117;
573.6000;0.1490;-0.3167;
573.9000;0.1506;-0.3142;
574.2000;0.1498;-0.3192;
574.5000;0.1481;-0.3142;
574.8000;0.1473;-0.3142;
575.1000;0.1490;-0.2992;
575.4000;0.1506;-0.2942;
575.7000;0.1498;-0.3017;
576.0000;0.1498;-0.3142;
576.3000;0.1473;-0.3241;
576.6000;0.1490;-0.3167;
576.9000;0.1490;-0.3142;
577.2000;0.1498;-0.3117;
577.5000;0.1506;-0.3117;
577.8000;0.1465;-0.3142;
578.1000;0.1498;-0.3092;
578.4000;0.1481;-0.3142;
578.7000;0.1490;-0.3117;
579.0000;0.1490;-0.3142;
579.3000;0.1473;-0.3117;
579.6000;0.1490;-0.3216;
579.9000;0.1481;-0.3167;
580.2000;0.1473;-0.3117;
580.5000;0.1481;-0.3167;
580.8000;0.1481;-0.3142;
581.1000;0.1473;-0.3167;
581.4000;0.1473;-0.3142;
581.7000;0.1473;-0.3241;
582.0000;0.1514;-0.3167;
582.3000;0.1490;-0.3167;
582.6000;0.1490;-0.3142;
582.9000;0.1465;-0.3167;
583.2000;0.1481;-0.3266;
583.5000;0.1465;-0.3291;
583.8000;0.1481;-0.3142;
584.1000;0.1481;-0.3142;
584.4000;0.1490;-0.3042;
584.7000;0.1481;-0.3092;
585.0000;0.1465;-0.3067;
585.3000;0.1498;-0.2942;
585.6000;0.1490;-0.2942;
585.9000;0.1490;-0.3017;
586.2000;0.1473;-0.3017;
586.5000;0.1481;-0.3017;
586.8000;0.1416;-0.3216;
587.1000;0.1465;-0.3017;
587.4000;0.1465;-0.3042;
587.7000;0.1506;-0.3017;
588.0000;0.1498;-0.3042;
588.3000;0.1473;-0.3067;
588.6000;0.1490;-0.2967;
588.9000;0.1457;-0.3092;
589.2000;0.1506;-0.2917;
589.5000;0.1465;-0.3142;
589.8000;0.1490;-0.3142;
590.1000;0.1498;-0.3067;
590.4000;0.1490;-0.3067;
590.7000;0.1481;-0.3241;
591.0000;0.1498;-0.3142;
591.3000;0.1473;-0.3167;
591.6000;0.1473;-0.3117;
591.9000;0.1490;-0.3017;
592.2000;0.1457;-0.2992;
592.5000;0.1449;-0.2967;
592.8000;0.1473;-0.2967;
593.1000;0.1473;-0.3142;
593.4000;0.1425;-0.3316;
593.7000;0.1490;-0.3167;
594.0000;0.1481;-0.3142;
594.3000;0.1514;-0.3017;
594.6000;0.1538;-0.2942;
594.9000;0.1400;-0.3241;
595.2000;0.1457;-0.3017;
595.5000;0.1449;-0.2967;
595.8000;0.1490;-0.2842;
596.1000;0.1473;-0.2818;
596.4000;0.1416;-0.2917;
596.7000;0.1473;-0.2892;
597.0000;0.1481;-0.2892;
597.3000;0.1457;-0.2942;
597.6000;0.1465;-0.2967;
597.9000;0.1473;-0.3017;
598.2000;0.1490;-0.2942;
598.5000;0.1473;-0.2967;
598.8000;0.1473;-0.2992;
599.1000;0.1481;-0.2967;
599.4000;0.1498;-0.2917;
599.7000;0.1473;-0.3067;
600.0000;0.1481;-0.3017;
600.3000;0.1514;-0.2917;
600.6000;0.1465;-0.3067;
600.9000;0.1457;-0.3216;
601.2000;0.1449;-0.3366;
601.5000;0.1530;-0.3466;
601.8000;0.1441;-0.3964;
602.1000;0.1449;-0.4014;
602.4000;0.1449;-0.4114;
602.7000;0.1408;-0.4388;
603.0000;0.1408;-0.4513;
603.3000;0.1400;-0.4613;
603.6000;0.1384;-0.4762;
603.9000;0.1384;-0.4862;
604.2000;0.1384;-0.4962;
604.5000;0.1359;-0.5062;
604.8000;0.1359;-0.5161;
605.1000;0.1392;-0.5186;
605.4000;0.1351;-0.5311;
605.7000;0.1359;-0.5311;
606.0000;0.1335;-0.5361;
606.3000;0.1294;-0.5460;
606.6000;0.1319;-0.5460;
606.9000;0.1359;-0.5386;
607.2000;0.1368;-0.5436;
607.5000;0.1311;-0.5585;
607.8000;0.1359;-0.5585;
608.1000;0.1335;-0.5635;
608.4000;0.1327;-0.5685;
608.7000;0.1359;-0.5610;
609.0000;0.1343;-0.5560;
609.3000;0.1294;-0.5710;
609.6000;0.1343;-0.5510;
609.9000;0.1335;-0.5610;
610.2000;0.1400;-0.5535;
610.5000;0.1335;-0.5710;
610.8000;0.1441;-0.5361;
611.1000;0.1343;-0.5660;
611.4000;0.1327;-0.5760;
611.7000;0.1425;-0.5460;
612.0000;0.1327;-0.5685;
612.3000;0.1335;-0.5735;
612.6000;0.1319;-0.5785;
612.9000;0.1327;-0.5785;
613.2000;0.1319;-0.5710;
613.5000;0.1368;-0.5635;
613.8000;0.1335;-0.5785;
614.1000;0.1311;-0.5859;
614.4000;0.1351;-0.5785;
614.7000;0.1368;-0.5760;
615.0000;0.1278;-0.6034;
615.3000;0.1343;-0.5884;
615.6000;0.1335;-0.6009;
615.9000;0.1351;-0.5959;
616.2000;0.1343;-0.5810;
616.5000;0.1311;-0.5834;
616.8000;0.1311;-0.5810;
617.1000;0.1319;-0.5710;
617.4000;0.1335;-0.5610;
617.7000;0.1311;-0.5585;
618.0000;0.1327;-0.5560;
618.3000;0.1302;-0.5635;
618.6000;0.1229;-0.5909;
618.9000;0.1319;-0.5760;
619.2000;0.1311;-0.5810;
619.5000;0.1311;-0.5760;
619.8000;0.1319;-0.5884;
620.1000;0.1319;-0.5859;
620.4000;0.1302;-0.5859;
620.7000;0.1286;-0.5959;
621.0000;0.1311;-0.5909;
621.3000;0.1311;-0.5859;
621.6000;0.1302;-0.5810;
621.9000;0.1311;-0.5710;
622.2000;0.1294;-0.5685;
622.5000;0.1327;-0.5785;
622.8000;0.1262;-0.5984;
623.1000;0.1302;-0.5760;
623.4000;0.1311;-0.5735;
623.7000;0.1335;-0.5660;
624.0000;0.1302;-0.5710;
624.3000;0.1286;-0.5785;
624.6000;0.1278;-0.5785;
624.9000;0.1286;-0.5760;
625.2000;0.1311;-0.5735;
625.5000;0.1294;-0.5685;
625.8000;0.1302;-0.5635;
626.1000;0.1343;-0.5460;
626.4000;0.1302;-0.5585;
626.7000;0.1286;-0.5710;
627.0000;0.1286;-0.5710;
627.3000;0.1294;-0.5660;
627.6000;0.1302;-0.5685;
627.9000;0.1311;-0.5760;
628.2000;0.1294;-0.5834;
628.5000;0.1311;-0.5810;
628.8000;0.1319;-0.5785;
629.1000;0.1278;-0.5934;
629.4000;0.1294;-0.5884;
629.7000;0.1311;-0.5834;
630.0000;0.1311;-0.5909;
630.3000;0.1286;-0.6009;
630.6000;0.1351;-0.5834;
630.9000;0.1302;-0.5959;
631.2000;0.1286;-0.5884;
631.5000;0.1302;-0.5859;
631.8000;0.1311;-0.5760;
632.1000;0.1270;-0.5735;
632.4000;0.1302;-0.5760;
632.7000;0.1319;-0.5735;
633.0000;0.1278;-0.5810;
633.3000;0.1302;-0.5660;
633.6000;0.1327;-0.5610;
633.9000;0.1319;-0.5785;
634.2000;0.1311;-0.5834;
634.5000;0.1311;-0.5834;
634.8000;0.1286;-0.5810;
635.1000;0.1319;-0.5710;
635.4000;0.1302;-0.5760;
635.7000;0.1327;-0.5810;
636.0000;0.1311;-0.5884;
636.3000;0.1286;-0.5859;
636.6000;0.1311;-0.5834;
636.9000;0.1311;-0.5810;
637.2000;0.1302;-0.5859;
637.5000;0.1302;-0.5810;
637.8000;0.1311;-0.5760;
638.1000;0.1311;-0.5760;
638.4000;0.1319;-0.5785;
638.7000;0.1319;-0.5710;
639.0000;0.1343;-0.5660;
639.3000;0.1351;-0.5635;
639.6000;0.1311;-0.5785;
639.9000;0.1302;-0.5810;
640.2000;0.1294;-0.5884;
640.5000;0.1302;-0.5859;
640.8000;0.1286;-0.5810;
641.1000;0.1311;-0.5810;
641.4000;0.1302;-0.5884;
641.7000;0.1294;-0.5909;
642.0000;0.1368;-0.5710;
642.3000;0.1286;-0.5884;
642.6000;0.1302;-0.5810;
642.9000;0.1302;-0.5834;
643.2000;0.1302;-0.5884;
643.5000;0.1327;-0.5834;
643.8000;0.1302;-0.5884;
644.1000;0.1351;-0.5810;
644.4000;0.1294;-0.5959;
644.7000;0.1294;-0.5909;
645.0000;0.1327;-0.5959;
645.3000;0.1408;-0.5685;
645.6000;0.1302;-0.5909;
645.9000;0.1286;-0.5959;
646.2000;0.1327;-0.5884;
646.5000;0.1311;-0.5934;
646.8000;0.1302;-0.6034;
647.1000;0.1311;-0.6084;
647.4000;0.1319;-0.6109;
647.7000;0.1311;-0.6059;
648.0000;0.1294;-0.6009;
648.3000;0.1286;-0.6034;
648.6000;0.1302;-0.6009;
648.9000;0.1278;-0.5909;
649.2000;0.1302;-0.5810;
649.5000;0.1319;-0.5810;
649.8000;0.1319;-0.5810;
650.1000;0.1302;-0.5760;
650.4000;0.1302;-0.5884;
650.7000;0.1294;-0.5909;
651.0000;0.1294;-0.5934;
651.3000;0.1311;-0.5884;
651.6000;0.1327;-0.5810;
651.9000;0.1302;-0.5810;
652.2000;0.1302;-0.5785;
652.5000;0.1311;-0.5685;
652.8000;0.1319;-0.5660;
653.1000;0.1319;-0.5660;
653.4000;0.1311;-0.5760;
653.7000;0.1302;-0.5810;
654.0000;0.1327;-0.5834;
654.3000;0.1311;-0.5909;
654.6000;0.1311;-0.5909;
654.9000;0.1311;-0.5909;
655.2000;0.1294;-0.5934;
655.5000;0.1319;-0.5760;
655.8000;0.1311;-0.5785;
656.1000;0.1294;-0.5884;
656.4000;0.1311;-0.5834;
656.7000;0.1286;-0.5834;
657.0000;0.1311;-0.5909;
657.3000;0.1270;-0.5984;
657.6000;0.1286;-0.5909;
657.9000;0.1311;-0.5810;
658.2000;0.1294;-0.5834;
658.5000;0.1270;-0.5859;
658.8000;0.1302;-0.5859;
659.1000;0.1327;-0.5810;
659.4000;0.1343;-0.5834;
659.7000;0.1311;-0.5959;
660.0000;0.1376;-0.5834;
660.3000;0.1376;-0.5685;
660.6000;0.1335;-0.5710;
660.9000;0.1319;-0.5834;
661.2000;0.1245;-0.6109;
661.5000;0.1311;-0.5934;
661.8000;0.1327;-0.5959;
662.1000;0.1351;-0.5934;
662.4000;0.1294;-0.5959;
662.7000;0.1384;-0.5685;
663.0000;0.1319;-0.5834;
663.3000;0.1278;-0.5909;
663.6000;0.1327;-0.5760;
663.9000;0.1319;-0.5735;
664.2000;0.1294;-0.5834;
664.5000;0.1311;-0.5834;
664.8000;0.1319;-0.5884;
665.1000;0.1327;-0.6059;
665.4000;0.1327;-0.5959;
665.7000;0.1319;-0.5934;
666.0000;0.1319;-0.5959;
666.3000;0.1343;-0.5810;
666.6000;0.1262;-0.6084;
666.9000;0.1278;-0.6009;
667.2000;0.1286;-0.5934;
667.5000;0.1351;-0.5760;
667.8000;0.1302;-0.5959;
668.1000;0.1311;-0.5859;
668.4000;0.1319;-0.5810;
668.7000;0.1327;-0.5735;
669.0000;0.1294;-0.5834;
669.3000;0.1343;-0.5685;
669.6000;0.1327;-0.5785;
669.9000;0.1302;-0.5934;
670.2000;0.1327;-0.5909;
670.5000;0.1294;-0.5984;
670.8000;0.1302;-0.6059;
671.1000;0.1302;-0.6084;
671.4000;0.1286;-0.6084;
671.7000;0.1327;-0.6084;
672.0000;0.1294;-0.6034;
672.3000;0.1311;-0.5934;
672.6000;0.1262;-0.6059;
672.9000;0.1311;-0.5984;
673.2000;0.1311;-0.5909;
673.5000;0.1327;-0.5934;
673.8000;0.1302;-0.5959;
674.1000;0.1278;-0.5984;
674.4000;0.1311;-0.5859;
674.7000;0.1294;-0.5984;
675.0000;0.1319;-0.5884;
675.3000;0.1302;-0.5959;
675.6000;0.1311;-0.5934;
675.9000;0.1343;-0.5909;
676.2000;0.1302;-0.6034;
676.5000;0.1278;-0.6034;
676.8000;0.1294;-0.5984;
677.1000;0.1262;-0.5984;
677.4000;0.1327;-0.6034;
677.7000;0.1237;-0.6283;
678.0000;0.1302;-0.5984;
678.3000;0.1327;-0.5884;
678.6000;0.1343;-0.5859;
678.9000;0.1302;-0.5909;
679.2000;0.1319;-0.5834;
679.5000;0.1327;-0.5785;
679.8000;0.1294;-0.5859;
680.1000;0.1311;-0.5959;
680.4000;0.1311;-0.5884;
680.7000;0.1335;-0.5909;
681.0000;0.1278;-0.5909;
681.3000;0.1368;-0.5710;
681.6000;0.1286;-0.5884;
681.9000;0.1311;-0.5834;
682.2000;0.1302;-0.5934;
682.5000;0.1319;-0.5859;
682.8000;0.1294;-0.5909;
683.1000;0.1319;-0.5884;
683.4000;0.1294;-0.5934;
683.7000;0.1294;-0.5859;
684.0000;0.1294;-0.5909;
684.3000;0.1286;-0.6009;
684.6000;0.1376;-0.5984;
684.9000;0.1294;-0.6134;
685.2000;0.1294;-0.6134;
685.5000;0.1221;-0.6233;
685.8000;0.1294;-0.6059;
686.1000;0.1319;-0.6084;
686.4000;0.1294;-0.6084;
686.7000;0.1286;-0.6109;
687.0000;0.1221;-0.6258;
687.3000;0.1319;-0.5934;
687.6000;0.1302;-0.5909;
687.9000;0.1327;-0.5810;
688.2000;0.1278;-0.5984;
688.5000;0.1327;-0.5834;
688.8000;0.1286;-0.5984;
689.1000;0.1327;-0.5984;
689.4000;0.1286;-0.6084;
689.7000;0.1319;-0.6009;
690.0000;0.1302;-0.6034;
690.3000;0.1286;-0.6034;
690.6000;0.1311;-0.5909;
690.9000;0.1302;-0.5934;
691.2000;0.1319;-0.5810;
691.5000;0.1294;-0.5834;
691.8000;0.1302;-0.5785;
692.1000;0.1302;-0.5785;
692.4000;0.1286;-0.5884;
692.7000;0.1286;-0.5909;
693.0000;0.1319;-0.5810;
693.3000;0.1319;-0.5785;
693.6000;0.1311;-0.5959;
693.9000;0.1302;-0.6034;
694.2000;0.1286;-0.6159;
694.5000;0.1294;-0.6159;
694.8000;0.1302;-0.6109;
695.1000;0.1294;-0.6159;
695.4000;0.1262;-0.6233;
695.7000;0.1278;-0.6208;
696.0000;0.1335;-0.6084;
696.3000;0.1425;-0.5859;
696.6000;0.1311;-0.6134;
696.9000;0.1302;-0.6184;
697.2000;0.1319;-0.6208;
697.5000;0.1319;-0.6134;
697.8000;0.1286;-0.6283;
698.1000;0.1311;-0.6208;
698.4000;0.1319;-0.6258;
698.7000;0.1319;-0.6208;
699.0000;0.1302;-0.6308;
699.3000;0.1294;-0.6184;
699.6000;0.1319;-0.6134;
699.9000;0.1311;-0.6034;
700.2000;0.1302;-0.6134;
700.5000;0.1311;-0.6109;
700.8000;0.1335;-0.5934;
701.1000;0.1351;-0.5859;
701.4000;0.1294;-0.6084;
701.7000;0.1294;-0.6034;
702.0000;0.1302;-0.6109;
702.3000;0.1319;-0.6134;
702.6000;0.1311;-0.6184;
702.9000;0.1213;-0.6333;
703.2000;0.1294;-0.6159;
703.5000;0.1302;-0.6034;
703.8000;0.1311;-0.5984;
704.1000;0.1319;-0.6009;
704.4000;0.1294;-0.5884;
704.7000;0.1294;-0.5909;
705.0000;0.1286;-0.5959;
705.3000;0.1302;-0.6009;
705.6000;0.1302;-0.6034;
705.9000;0.1311;-0.5909;
706.2000;0.1294;-0.6009;
706.5000;0.1302;-0.5984;
706.8000;0.1270;-0.6059;
707.1000;0.1311;-0.5934;
707.4000;0.1311;-0.5984;
707.7000;0.1302;-0.6009;
708.0000;0.1302;-0.6084;
708.3000;0.1311;-0.5984;
708.6000;0.1327;-0.5834;
708.9000;0.1311;-0.5909;
709.2000;0.1294;-0.5934;
709.5000;0.1294;-0.5959;
709.8000;0.1311;-0.5909;
710.1000;0.1302;-0.5859;
710.4000;0.1319;-0.5760;
710.7000;0.1343;-0.5660;
711.0000;0.1311;-0.5785;
711.3000;0.1294;-0.5909;
711.6000;0.1302;-0.5984;
711.9000;0.1278;-0.6084;
712.2000;0.1286;-0.6109;
712.5000;0.1384;-0.5859;
712.8000;0.1327;-0.5984;
713.1000;0.1311;-0.6059;
713.4000;0.1286;-0.6059;
713.7000;0.1311;-0.6059;
714.0000;0.1311;-0.6009;
714.3000;0.1294;-0.6034;
714.6000;0.1319;-0.5884;
714.9000;0.1311;-0.6034;
715.2000;0.1286;-0.5984;
715.5000;0.1302;-0.6009;
715.8000;0.1335;-0.5859;
716.1000;0.1294;-0.6034;
716.4000;0.1343;-0.6034;
716.7000;0.1286;-0.6184;
717.0000;0.1270;-0.6208;
717.3000;0.1286;-0.6159;
717.6000;0.1327;-0.6109;
717.9000;0.1327;-0.6159;
718.2000;0.1302;-0.6134;
718.5000;0.1294;-0.6109;
718.8000;0.1319;-0.6009;
719.1000;0.1294;-0.6084;
719.4000;0.1294;-0.6034;
719.7000;0.1302;-0.6034;
720.0000;0.1319;-0.6009;
720.3000;0.1294;-0.6084;
720.6000;0.1302;-0.6084;
720.9000;0.1311;-0.6009;
721.2000;0.1311;-0.6059;
721.5000;0.1319;-0.6034;
721.8000;0.1294;-0.5984;
722.1000;0.1311;-0.5909;
722.4000;0.1302;-0.5859;
722.7000;0.1302;-0.5909;
723.0000;0.1319;-0.5884;
723.3000;0.1286;-0.5959;
723.6000;0.1311;-0.5959;
723.9000;0.1319;-0.6009;
724.2000;0.1319;-0.5984;
724.5000;0.1327;-0.5934;
724.8000;0.1335;-0.5810;
725.1000;0.1245;-0.6009;
725.4000;0.1302;-0.5984;
725.7000;0.1302;-0.6084;
726.0000;0.1302;-0.6134;
726.3000;0.1302;-0.6109;
726.6000;0.1319;-0.6059;
726.9000;0.1262;-0.6109;
727.2000;0.1319;-0.5959;
727.5000;0.1319;-0.5984;
727.8000;0.1294;-0.6009;
728.1000;0.1294;-0.6084;
728.4000;0.1327;-0.6034;
728.7000;0.1311;-0.6059;
729.0000;0.1311;-0.6134;
729.3000;0.1311;-0.6208;
729.6000;0.1302;-0.6233;
729.9000;0.1270;-0.6258;
730.2000;0.1302;-0.6134;
730.5000;0.1270;-0.6159;
730.8000;0.1294;-0.6159;
731.1000;0.1286;-0.6059;
731.4000;0.1327;-0.6034;
731.7000;0.1327;-0.6009;
732.0000;0.1302;-0.5959;
732.3000;0.1311;-0.5909;
732.6000;0.1270;-0.5984;
732.9000;0.1302;-0.5909;
733.2000;0.1262;-0.5959;
733.5000;0.1311;-0.5859;
733.8000;0.1327;-0.5810;
734.1000;0.1302;-0.5959;
734.4000;0.1302;-0.6009;
734.7000;0.1311;-0.5959;
735.0000;0.1311;-0.6009;
735.3000;0.1335;-0.5959;
735.6000;0.1311;-0.6034;
735.9000;0.1302;-0.5984;
736.2000;0.1221;-0.6159;
736.5000;0.1311;-0.5884;
736.8000;0.1302;-0.5934;
737.1000;0.1311;-0.5934;
737.4000;0.1302;-0.6059;
737.7000;0.1302;-0.6009;
738.0000;0.1294;-0.5934;
738.3000;0.1359;-0.5760;
738.6000;0.1278;-0.5934;
738.9000;0.1294;-0.5934;
739.2000;0.1319;-0.5859;
739.5000;0.1319;-0.5959;
739.8000;0.1262;-0.6084;
740.1000;0.1302;-0.6109;
740.4000;0.1359;-0.5909;
740.7000;0.1319;-0.6009;
741.0000;0.1302;-0.5959;
741.3000;0.1302;-0.5884;
741.6000;0.1319;-0.5884;
741.9000;0.1294;-0.6034;
742.2000;0.1278;-0.6084;
742.5000;0.1294;-0.6084;
742.8000;0.1319;-0.6034;
743.1000;0.1319;-0.6034;
743.4000;0.1302;-0.6059;
743.7000;0.1294;-0.6084;
744.0000;0.1294;-0.6084;
744.3000;0.1294;-0.6059;
744.6000;0.1286;-0.6059;
744.9000;0.1302;-0.5984;
745.2000;0.1311;-0.5934;
745.5000;0.1319;-0.5984;
745.8000;0.1294;-0.6059;
746.1000;0.1302;-0.6059;
746.4000;0.1294;-0.6084;
746.7000;0.1302;-0.6059;
747.0000;0.1384;-0.5785;
747.3000;0.1311;-0.5909;
747.6000;0.1319;-0.5859;
747.9000;0.1302;-0.5859;
748.2000;0.1302;-0.5810;
748.5000;0.1294;-0.5859;
748.8000;0.1302;-0.5884;
749.1000;0.1286;-0.5984;
749.4000;0.1311;-0.5959;
749.7000;0.1302;-0.5959;
750.0000;0.1278;-0.6009;
750.3000;0.1319;-0.5859;
750.6000;0.1278;-0.5934;
750.9000;0.1286;-0.5909;
751.2000;0.1286;-0.6034;
751.5000;0.1254;-0.6159;
751.8000;0.1286;-0.6109;
752.1000;0.1180;-0.6358;
752.4000;0.1302;-0.6034;
752.7000;0.1229;-0.6208;
753.0000;0.1294;-0.6059;
753.3000;0.1302;-0.6059;
753.6000;0.1302;-0.6009;
753.9000;0.1302;-0.6084;
754.2000;0.1294;-0.6134;
754.5000;0.1335;-0.6059;
754.8000;0.1311;-0.6109;
755.1000;0.1302;-0.6134;
755.4000;0.1302;-0.6009;
755.7000;0.1319;-0.5934;
756.0000;0.1294;-0.5959;
756.3000;0.1302;-0.5909;
756.6000;0.1302;-0.6009;
756.9000;0.1286;-0.6009;
757.2000;0.1254;-0.6084;
757.5000;0.1319;-0.5984;
757.8000;0.1392;-0.5785;
758.1000;0.1327;-0.5834;
758.4000;0.1319;-0.5760;
758.7000;0.1311;-0.5735;
759.0000;0.1286;-0.5735;
759.3000;0.1335;-0.5710;
759.6000;0.1278;-0.5884;
759.9000;0.1368;-0.5585;
760.2000;0.1270;-0.5859;
760.5000;0.1457;-0.5436;
760.8000;0.1327;-0.5735;
761.1000;0.1327;-0.5735;
761.4000;0.1270;-0.5859;
761.7000;0.1302;-0.5810;
762.0000;0.1302;-0.5909;
762.3000;0.1294;-0.5934;
762.6000;0.1302;-0.5859;
762.9000;0.1327;-0.5810;
763.2000;0.1311;-0.5859;
763.5000;0.1286;-0.5884;
763.8000;0.1302;-0.5884;
764.1000;0.1311;-0.5884;
764.4000;0.1311;-0.5810;
764.7000;0.1278;-0.5909;
765.0000;0.1311;-0.5859;
765.3000;0.1319;-0.5810;
765.6000;0.1311;-0.5859;
765.9000;0.1351;-0.5785;
766.2000;0.1286;-0.6009;
766.5000;0.1319;-0.5959;
766.8000;0.1213;-0.6159;
767.1000;0.1319;-0.6009;
767.4000;0.1311;-0.5984;
767.7000;0.1270;-0.6059;
768.0000;0.1302;-0.5909;
768.3000;0.1311;-0.5834;
768.6000;0.1319;-0.5685;
768.9000;0.1335;-0.5660;
769.2000;0.1270;-0.5810;
769.5000;0.1311;-0.5760;
769.8000;0.1294;-0.5859;
770.1000;0.1286;-0.5859;
770.4000;0.1294;-0.5859;
770.7000;0.1286;-0.5909;
771.0000;0.1270;-0.5959;
771.3000;0.1319;-0.5909;
771.6000;0.1400;-0.5710;
771.9000;0.1294;-0.5959;
772.2000;0.1311;-0.5934;
772.5000;0.1286;-0.6034;
772.8000;0.1302;-0.6134;
773.1000;0.1376;-0.5959;
773.4000;0.1294;-0.6134;
773.7000;0.1302;-0.6184;
774.0000;0.1294;-0.6184;
774.3000;0.1311;-0.6159;
774.6000;0.1294;-0.6034;
774.9000;0.1319;-0.5984;
775.2000;0.1294;-0.6134;
775.5000;0.1294;-0.6283;
775.8000;0.1311;-0.6258;
776.1000;0.1384;-0.5934;
776.4000;0.1311;-0.6059;
776.7000;0.1302;-0.5959;
777.0000;0.1262;-0.6109;
777.3000;0.1278;-0.6283;
777.6000;0.1294;-0.6233;
777.9000;0.1294;-0.6184;
778.2000;0.1351;-0.6159;
778.5000;0.1343;-0.6283;
778.8000;0.1311;-0.6308;
779.1000;0.1311;-0.6233;
779.4000;0.1278;-0.6283;
779.7000;0.1327;-0.6059;
780.0000;0.1319;-0.6009;
780.3000;0.1319;-0.6034;
780.6000;0.1319;-0.5959;
780.9000;0.1302;-0.5934;
781.2000;0.1319;-0.5934;
781.5000;0.1327;-0.5959;
781.8000;0.1286;-0.6084;
782.1000;0.1254;-0.6134;
782.4000;0.1221;-0.6184;
782.7000;0.1319;-0.6034;
783.0000;0.1278;-0.6184;
783.3000;0.1270;-0.6233;
783.6000;0.1319;-0.6109;
783.9000;0.1311;-0.6159;
784.2000;0.1302;-0.6258;
784.5000;0.1408;-0.5984;
784.8000;0.1302;-0.6233;
785.1000;0.1311;-0.6184;
785.4000;0.1278;-0.6184;
785.7000;0.1319;-0.6184;
786.0000;0.1294;-0.6208;
786.3000;0.1335;-0.6034;
786.6000;0.1319;-0.6084;
786.9000;0.1319;-0.5959;
787.2000;0.1319;-0.5934;
787.5000;0.1286;-0.6084;
787.8000;0.1319;-0.6084;
788.1000;0.1278;-0.6109;
788.4000;0.1286;-0.6034;
788.7000;0.1286;-0.5984;
789.0000;0.1294;-0.5884;
789.3000;0.1278;-0.5984;
789.6000;0.1302;-0.6109;
789.9000;0.1302;-0.6059;
790.2000;0.1327;-0.5934;
790.5000;0.1311;-0.6059;
790.8000;0.1319;-0.5984;
791.1000;0.1327;-0.5984;
791.4000;0.1319;-0.6034;
791.7000;0.1319;-0.6009;
792.0000;0.1294;-0.6084;
792.3000;0.1278;-0.6084;
792.6000;0.1335;-0.5859;
792.9000;0.1368;-0.5934;
793.2000;0.1286;-0.6134;
793.5000;0.1311;-0.6059;
793.8000;0.1270;-0.6333;
794.1000;0.1384;-0.6134;
794.4000;0.1319;-0.6283;
794.7000;0.1311;-0.6258;
795.0000;0.1335;-0.6233;
795.3000;0.1319;-0.6283;
795.6000;0.1302;-0.6333;
795.9000;0.1384;-0.6084;
796.2000;0.1319;-0.6184;
796.5000;0.1327;-0.6109;
796.8000;0.1311;-0.6208;
797.1000;0.1335;-0.6134;
797.4000;0.1311;-0.6208;
797.7000;0.1302;-0.6208;
798.0000;0.1384;-0.5909;
798.3000;0.1286;-0.6134;
798.6000;0.1359;-0.5934;
798.9000;0.1294;-0.6059;
799.2000;0.1302;-0.6159;
799.5000;0.1319;-0.6109;
799.8000;0.1311;-0.6084;
800.1000;0.1384;-0.5959;
800.4000;0.1294;-0.6233;
800.7000;0.1311;-0.6233;
801.0000;0.1302;-0.6333;
801.3000;0.1319;-0.6258;
801.6000;0.1294;-0.6159;
801.9000;0.1335;-0.6059;
802.2000;0.1270;-0.6184;
802.5000;0.1278;-0.6059;
802.8000;0.1376;-0.5810;
803.1000;0.1294;-0.6009;
803.4000;0.1294;-0.6009;
803.7000;0.1294;-0.6059;
804.0000;0.1294;-0.6034;
804.3000;0.1302;-0.6109;
804.6000;0.1294;-0.6233;
804.9000;0.1319;-0.6208;
805.2000;0.1343;-0.6059;
805.5000;0.1311;-0.6084;
805.8000;0.1294;-0.6159;
806.1000;0.1302;-0.6159;
806.4000;0.1335;-0.6159;
806.7000;0.1286;-0.6233;
807.0000;0.1302;-0.6159;
807.3000;0.1270;-0.6208;
807.6000;0.1302;-0.6159;
807.9000;0.1311;-0.6134;
808.2000;0.1311;-0.6184;
808.5000;0.1294;-0.6283;
808.8000;0.1302;-0.6208;
809.1000;0.1294;-0.6208;
809.4000;0.1311;-0.6233;
809.7000;0.1319;-0.6208;
810.0000;0.1311;-0.6134;
810.3000;0.1311;-0.6184;
810.6000;0.1311;-0.6184;
810.9000;0.1294;-0.6258;
811.2000;0.1311;-0.6109;
811.5000;0.1425;-0.5735;
811.8000;0.1294;-0.6084;
812.1000;0.1311;-0.6134;
812.4000;0.1368;-0.6009;
812.7000;0.1286;-0.6233;
813.0000;0.1311;-0.6159;
813.3000;0.1327;-0.6134;
813.6000;0.1294;-0.6159;
813.9000;0.1302;-0.6184;
814.2000;0.1311;-0.6134;
814.5000;0.1335;-0.6283;
814.8000;0.1311;-0.6283;
815.1000;0.1302;-0.6258;
815.4000;0.1319;-0.6283;
815.7000;0.1294;-0.6358;
816.0000;0.1319;-0.6283;
816.3000;0.1294;-0.6408;
816.6000;0.1319;-0.6383;
816.9000;0.1302;-0.6358;
817.2000;0.1311;-0.6308;
817.5000;0.1359;-0.6258;
817.8000;0.1294;-0.6358;
818.1000;0.1343;-0.6258;
818.4000;0.1278;-0.6408;
818.7000;0.1270;-0.6408;
819.0000;0.1392;-0.6059;
819.3000;0.1286;-0.6308;
819.6000;0.1327;-0.6283;
819.9000;0.1311;-0.6358;
820.2000;0.1302;-0.6333;
820.5000;0.1286;-0.6408;
820.8000;0.1270;-0.6433;
821.1000;0.1302;-0.6333;
821.4000;0.1294;-0.6308;
821.7000;0.1294;-0.6308;
822.0000;0.1311;-0.6233;
822.3000;0.1278;-0.6358;
822.6000;0.1286;-0.6358;
822.9000;0.1294;-0.6208;
823.2000;0.1311;-0.6109;
823.5000;0.1294;-0.6109;
823.8000;0.1311;-0.6059;
824.1000;0.1311;-0.6034;
824.4000;0.1302;-0.6034;
824.7000;0.1294;-0.6084;
825.0000;0.1286;-0.6184;
825.3000;0.1197;-0.6458;
825.6000;0.1302;-0.6134;
825.9000;0.1302;-0.6134;
826.2000;0.1229;-0.6283;
826.5000;0.1294;-0.6109;
826.8000;0.1302;-0.6134;
827.1000;0.1302;-0.6134;
827.4000;0.1302;-0.6134;
827.7000;0.1302;-0.6233;
828.0000;0.1286;-0.6308;
828.3000;0.1302;-0.6258;
828.6000;0.1302;-0.6208;
828.9000;0.1229;-0.6208;
829.2000;0.1294;-0.5984;
829.5000;0.1294;-0.6159;
829.8000;0.1286;-0.6258;
830.1000;0.1286;-0.6258;
830.4000;0.1294;-0.6184;
830.7000;0.1319;-0.6184;
831.0000;0.1294;-0.6184;
831.3000;0.1278;-0.6283;
831.6000;0.1302;-0.6258;
831.9000;0.1294;-0.6208;
832.2000;0.1294;-0.6283;
832.5000;0.1245;-0.6433;
832.8000;0.1286;-0.6283;
833.1000;0.1278;-0.6333;
833.4000;0.1302;-0.6308;
833.7000;0.1302;-0.6308;
834.0000;0.1294;-0.6333;
834.3000;0.1335;-0.6233;
834.6000;0.1294;-0.6208;
834.9000;0.1311;-0.6233;
835.2000;0.1294;-0.6283;
835.5000;0.1302;-0.6208;
835.8000;0.1343;-0.6159;
836.1000;0.1311;-0.6208;
836.4000;0.1294;-0.6308;
836.7000;0.1302;-0.6258;
837.0000;0.1311;-0.6233;
837.3000;0.1286;-0.6233;
837.6000;0.1302;-0.6134;
837.9000;0.1294;-0.6184;
838.2000;0.1294;-0.6159;
838.5000;0.1302;-0.6208;
838.8000;0.1294;-0.6258;
839.1000;0.1286;-0.6258;
839.4000;0.1311;-0.6159;
839.7000;0.1319;-0.6159;
840.0000;0.1302;-0.6208;
840.3000;0.1286;-0.6233;
840.6000;0.1327;-0.6059;
840.9000;0.1319;-0.6134;
841.2000;0.1302;-0.6184;
841.5000;0.1286;-0.6283;
841.8000;0.1245;-0.6408;
842.1000;0.1278;-0.6233;
842.4000;0.1278;-0.6208;
842.7000;0.1286;-0.6258;
843.0000;0.1278;-0.6233;
843.3000;0.1327;-0.6134;
843.6000;0.1327;-0.6134;
843.9000;0.1286;-0.6233;
844.2000;0.1245;-0.6383;
844.5000;0.1294;-0.6233;
844.8000;0.1400;-0.5959;
845.1000;0.1294;-0.6184;
845.4000;0.1302;-0.6134;
845.7000;0.1302;-0.6084;
846.0000;0.1311;-0.6109;
846.3000;0.1302;-0.6159;
846.6000;0.1302;-0.6184;
846.9000;0.1311;-0.6059;
847.2000;0.1311;-0.6009;
847.5000;0.1302;-0.5984;
847.8000;0.1311;-0.5984;
848.1000;0.1294;-0.6034;
848.4000;0.1302;-0.6034;
848.7000;0.1311;-0.6034;
849.0000;0.1294;-0.6109;
849.3000;0.1294;-0.6233;
849.6000;0.1311;-0.6208;
849.9000;0.1311;-0.6134;
850.2000;0.1319;-0.6134;
850.5000;0.1311;-0.6134;
850.8000;0.1327;-0.6059;
851.1000;0.1335;-0.5984;
851.4000;0.1327;-0.6034;
851.7000;0.1311;-0.6009;
852.0000;0.1311;-0.5984;
852.3000;0.1319;-0.6059;
852.6000;0.1351;-0.5884;
852.9000;0.1327;-0.5984;
853.2000;0.1294;-0.6084;
853.5000;0.1302;-0.6034;
853.8000;0.1294;-0.6034;
854.1000;0.1302;-0.5959;
854.4000;0.1254;-0.6084;
854.7000;0.1188;-0.6308;
855.0000;0.1311;-0.6059;
855.3000;0.1327;-0.6009;
855.6000;0.1294;-0.6134;
855.9000;0.1302;-0.6134;
856.2000;0.1319;-0.6109;
856.5000;0.1302;-0.6034;
856.8000;0.1302;-0.6009;
857.1000;0.1311;-0.5884;
857.4000;0.1294;-0.6009;
857.7000;0.1302;-0.5959;
858.0000;0.1286;-0.5984;
858.3000;0.1286;-0.5959;
858.6000;0.1294;-0.5909;
858.9000;0.1302;-0.5909;
859.2000;0.1311;-0.5884;
859.5000;0.1311;-0.5884;
859.8000;0.1319;-0.5884;
860.1000;0.1302;-0.5934;
860.4000;0.1302;-0.5984;
860.7000;0.1311;-0.5909;
861.0000;0.1335;-0.5859;
861.3000;0.1262;-0.6059;
861.6000;0.1294;-0.5959;
861.9000;0.1311;-0.5934;
862.2000;0.1270;-0.5959;
862.5000;0.1311;-0.5884;
862.8000;0.1319;-0.5884;
863.1000;0.1311;-0.5834;
863.4000;0.1286;-0.5884;
863.7000;0.1286;-0.5884;
864.0000;0.1278;-0.5984;
864.3000;0.1294;-0.5984;
864.6000;0.1302;-0.5909;
864.9000;0.1294;-0.5834;
865.2000;0.1302;-0.5760;
865.5000;0.1294;-0.5834;
865.8000;0.1302;-0.5834;
866.1000;0.1335;-0.5660;
866.4000;0.1335;-0.5710;
866.7000;0.1302;-0.5785;
867.0000;0.1286;-0.5785;
867.3000;0.1302;-0.5760;
867.6000;0.1286;-0.5760;
867.9000;0.1319;-0.5760;
868.2000;0.1294;-0.5735;
868.5000;0.1294;-0.5735;
868.8000;0.1311;-0.5785;
869.1000;0.1286;-0.5909;
869.4000;0.1311;-0.5909;
869.7000;0.1278;-0.5959;
870.0000;0.1302;-0.5884;
870.3000;0.1319;-0.5909;
870.6000;0.1327;-0.5884;
870.9000;0.1286;-0.5834;
871.2000;0.1302;-0.5760;
871.5000;0.1319;-0.5710;
871.8000;0.1327;-0.5635;
872.1000;0.1294;-0.5785;
872.4000;0.1335;-0.5710;
872.7000;0.1327;-0.5760;
873.0000;0.1294;-0.5810;
873.3000;0.1302;-0.5834;
873.6000;0.1294;-0.5859;
873.9000;0.1319;-0.5810;
874.2000;0.1302;-0.5834;
874.5000;0.1311;-0.5760;
874.8000;0.1302;-0.5785;
875.1000;0.1319;-0.5760;
875.4000;0.1278;-0.5834;
875.7000;0.1302;-0.5810;
876.0000;0.1311;-0.5909;
876.3000;0.1302;-0.5909;
876.6000;0.1319;-0.5884;
876.9000;0.1311;-0.5884;
877.2000;0.1311;-0.5909;
877.5000;0.1311;-0.5934;
877.8000;0.1245;-0.6159;
878.1000;0.1286;-0.6109;
878.4000;0.1351;-0.5934;
878.7000;0.1311;-0.5959;
879.0000;0.1302;-0.5959;
879.3000;0.1376;-0.5760;
879.6000;0.1311;-0.5909;
879.9000;0.1327;-0.5884;
880.2000;0.1311;-0.6034;
880.5000;0.1302;-0.6009;
880.8000;0.1319;-0.5959;
881.1000;0.1302;-0.6059;
881.4000;0.1351;-0.5859;
881.7000;0.1302;-0.5984;
882.0000;0.1302;-0.5959;
882.3000;0.1286;-0.6034;
882.6000;0.1302;-0.6009;
882.9000;0.1286;-0.5984;
883.2000;0.1302;-0.5984;
883.5000;0.1286;-0.6009;
883.8000;0.1294;-0.6009;
884.1000;0.1302;-0.5959;
884.4000;0.1302;-0.5984;
884.7000;0.1302;-0.5984;
885.0000;0.1278;-0.5934;
885.3000;0.1319;-0.5884;
885.6000;0.1327;-0.5959;
885.9000;0.1302;-0.6059;
886.2000;0.1359;-0.5909;
886.5000;0.1319;-0.5984;
886.8000;0.1254;-0.6109;
887.1000;0.1400;-0.5859;
887.4000;0.1311;-0.6159;
887.7000;0.1302;-0.6084;
888.0000;0.1327;-0.6059;
888.3000;0.1335;-0.6059;
888.6000;0.1302;-0.6233;
888.9000;0.1335;-0.6159;
889.2000;0.1319;-0.6159;
889.5000;0.1335;-0.6059;
889.8000;0.1302;-0.6059;
890.1000;0.1302;-0.5984;
890.4000;0.1359;-0.5735;
890.7000;0.1351;-0.5660;
891.0000;0.1311;-0.5760;
891.3000;0.1311;-0.5760;
891.6000;0.1302;-0.5810;
891.9000;0.1229;-0.5959;
892.2000;0.1400;-0.5510;
892.5000;0.1302;-0.5785;
892.8000;0.1311;-0.5785;
893.1000;0.1311;-0.5810;
893.4000;0.1245;-0.6034;
893.7000;0.1294;-0.6009;
894.0000;0.1286;-0.6084;
894.3000;0.1270;-0.6034;
894.6000;0.1311;-0.6084;
894.9000;0.1302;-0.6159;
895.2000;0.1327;-0.6109;
895.5000;0.1311;-0.6084;
895.8000;0.1302;-0.6134;
896.1000;0.1335;-0.6084;
896.4000;0.1311;-0.6208;
896.7000;0.1311;-0.6258;
897.0000;0.1302;-0.6184;
897.3000;0.1286;-0.6308;
897.6000;0.1294;-0.6283;
897.9000;0.1311;-0.6184;
898.2000;0.1286;-0.6208;
898.5000;0.1319;-0.6134;
898.8000;0.1302;-0.6184;
899.1000;0.1294;-0.6134;
899.4000;0.1294;-0.6184;
899.7000;0.1278;-0.6134;
900.0000;0.1286;-0.6134;
900.3000;0.1302;-0.6009;
900.6000;0.1359;-0.5934;
900.9000;0.1302;-0.6159;
901.2000;0.1302;-0.6159;
901.5000;0.1302;-0.6159;
901.8000;0.1311;-0.6258;
902.1000;0.1327;-0.6184;
902.4000;0.1368;-0.6034;
902.7000;0.1294;-0.6233;
903.0000;0.1327;-0.6308;
903.3000;0.1319;-0.6358;
903.6000;0.1319;-0.6383;
903.9000;0.1311;-0.6283;
904.2000;0.1311;-0.6184;
904.5000;0.1221;-0.6283;
904.8000;0.1311;-0.5959;
905.1000;0.1286;-0.6009;
905.4000;0.1311;-0.6059;
905.7000;0.1311;-0.5909;
906.0000;0.1294;-0.5859;
906.3000;0.1319;-0.5760;
906.6000;0.1294;-0.5760;
906.9000;0.1351;-0.5685;
907.2000;0.1319;-0.5834;
907.5000;0.1311;-0.5909;
907.8000;0.1278;-0.6009;
908.1000;0.1278;-0.5959;
908.4000;0.1286;-0.5909;
908.7000;0.1311;-0.5785;
909.0000;0.1270;-0.5909;
909.3000;0.1327;-0.5710;
909.6000;0.1302;-0.5685;
909.9000;0.1351;-0.5685;
910.2000;0.1368;-0.5735;
910.5000;0.1319;-0.5760;
910.8000;0.1294;-0.5909;
911.1000;0.1254;-0.6059;
911.4000;0.1302;-0.5884;
911.7000;0.1335;-0.5834;
912.0000;0.1278;-0.5810;
912.3000;0.1343;-0.5735;
912.6000;0.1327;-0.5710;
912.9000;0.1319;-0.5710;
913.2000;0.1343;-0.5710;
913.5000;0.1302;-0.5785;
913.8000;0.1311;-0.5785;
914.1000;0.1302;-0.5909;
914.4000;0.1319;-0.5859;
914.7000;0.1311;-0.5735;
915.0000;0.1311;-0.5710;
915.3000;0.1319;-0.5685;
915.6000;0.1319;-0.5735;
915.9000;0.1302;-0.5785;
916.2000;0.1384;-0.5660;
916.5000;0.1311;-0.5760;
916.8000;0.1302;-0.5834;
917.1000;0.1294;-0.5859;
917.4000;0.1302;-0.5909;
917.7000;0.1302;-0.5884;
918.0000;0.1311;-0.5859;
918.3000;0.1343;-0.5785;
918.6000;0.1311;-0.5909;
918.9000;0.1327;-0.5810;
919.2000;0.1286;-0.5909;
919.5000;0.1302;-0.5834;
919.8000;0.1302;-0.5735;
920.1000;0.1302;-0.5760;
920.4000;0.1245;-0.5909;
920.7000;0.1286;-0.5859;
921.0000;0.1311;-0.5909;
921.3000;0.1302;-0.5884;
921.6000;0.1294;-0.5760;
921.9000;0.1311;-0.5710;
922.2000;0.1335;-0.5635;
922.5000;0.1294;-0.5735;
922.8000;0.1319;-0.5760;
923.1000;0.1335;-0.5710;
923.4000;0.1311;-0.5785;
923.7000;0.1294;-0.5834;
924.0000;0.1311;-0.5810;
924.3000;0.1311;-0.5859;
924.6000;0.1335;-0.5810;
924.9000;0.1302;-0.5934;
925.2000;0.1311;-0.5934;
925.5000;0.1254;-0.6009;
925.8000;0.1311;-0.5909;
926.1000;0.1286;-0.6009;
926.4000;0.1319;-0.5909;
926.7000;0.1359;-0.5810;
927.0000;0.1262;-0.6009;
927.3000;0.1302;-0.5934;
927.6000;0.1311;-0.5934;
927.9000;0.1294;-0.5984;
928.2000;0.1270;-0.6109;
928.5000;0.1302;-0.6034;
928.8000;0.1302;-0.6009;
929.1000;0.1368;-0.5735;
929.4000;0.1311;-0.5810;
929.7000;0.1294;-0.5859;
930.0000;0.1311;-0.5934;
930.3000;0.1294;-0.5984;
930.6000;0.1311;-0.6009;
930.9000;0.1311;-0.5934;
931.2000;0.1311;-0.5884;
931.5000;0.1311;-0.5785;
931.8000;0.1302;-0.5710;
932.1000;0.1302;-0.5660;
932.4000;0.1311;-0.5660;
932.7000;0.1294;-0.5785;
933.0000;0.1294;-0.5810;
933.3000;0.1302;-0.5785;
933.6000;0.1294;-0.5859;
933.9000;0.1351;-0.5785;
934.2000;0.1294;-0.5834;
934.5000;0.1286;-0.5859;
934.8000;0.1254;-0.5859;
935.1000;0.1319;-0.5810;
935.4000;0.1294;-0.5884;
935.7000;0.1302;-0.5934;
936.0000;0.1302;-0.5909;
936.3000;0.1302;-0.6009;
936.6000;0.1319;-0.5909;
936.9000;0.1343;-0.5834;
937.2000;0.1270;-0.5934;
937.5000;0.1294;-0.5984;
937.8000;0.1368;-0.5785;
938.1000;0.1302;-0.6059;
938.4000;0.1302;-0.5984;
938.7000;0.1302;-0.5984;
939.0000;0.1302;-0.6084;
939.3000;0.1302;-0.6034;
939.6000;0.1302;-0.6109;
939.9000;0.1302;-0.6184;
940.2000;0.1302;-0.6109;
940.5000;0.1294;-0.6009;
940.8000;0.1368;-0.5884;
941.1000;0.1335;-0.6034;
941.4000;0.1302;-0.6208;
941.7000;0.1311;-0.6084;
942.0000;0.1294;-0.6084;
942.3000;0.1311;-0.6084;
942.6000;0.1311;-0.5959;
942.9000;0.1286;-0.5984;
943.2000;0.1351;-0.5785;
943.5000;0.1302;-0.5959;
943.8000;0.1302;-0.5984;
944.1000;0.1294;-0.5909;
944.4000;0.1327;-0.5884;
944.7000;0.1302;-0.6009;
945.0000;0.1302;-0.6009;
945.3000;0.1335;-0.5934;
945.6000;0.1294;-0.6009;
945.9000;0.1319;-0.5984;
946.2000;0.1319;-0.6034;
946.5000;0.1311;-0.6109;
946.8000;0.1311;-0.6109;
947.1000;0.1311;-0.6009;
947.4000;0.1335;-0.5909;
947.7000;0.1311;-0.5934;
948.0000;0.1302;-0.5934;
948.3000;0.1319;-0.5810;
948.6000;0.1302;-0.5884;
948.9000;0.1359;-0.5834;
949.2000;0.1327;-0.5909;
949.5000;0.1319;-0.5909;
949.8000;0.1319;-0.5859;
950.1000;0.1319;-0.5810;
950.4000;0.1302;-0.5859;
950.7000;0.1302;-0.5859;
951.0000;0.1302;-0.5984;
951.3000;0.1286;-0.6059;
951.6000;0.1311;-0.5909;
951.9000;0.1302;-0.5934;
952.2000;0.1262;-0.6034;
952.5000;0.1311;-0.5959;
952.8000;0.1311;-0.6059;
953.1000;0.1302;-0.6009;
953.4000;0.1294;-0.6034;
953.7000;0.1335;-0.5934;
954.0000;0.1294;-0.5984;
954.3000;0.1327;-0.5909;
954.6000;0.1294;-0.5934;
954.9000;0.1311;-0.5760;
955.2000;0.1311;-0.5710;
955.5000;0.1319;-0.5685;
955.8000;0.1311;-0.5834;
956.1000;0.1294;-0.5810;
956.4000;0.1302;-0.5760;
956.7000;0.1302;-0.5934;
957.0000;0.1311;-0.5959;
957.3000;0.1319;-0.6009;
957.6000;0.1311;-0.6109;
957.9000;0.1286;-0.6159;
958.2000;0.1270;-0.6034;
958.5000;0.1278;-0.6009;
958.8000;0.1294;-0.6059;
959.1000;0.1302;-0.6034;
959.4000;0.1286;-0.6208;
959.7000;0.1294;-0.6159;
960.0000;0.1197;-0.6383;
960.3000;0.1327;-0.6134;
960.6000;0.1302;-0.6184;
960.9000;0.1311;-0.6109;
961.2000;0.1319;-0.6059;
961.5000;0.1294;-0.6134;
961.8000;0.1302;-0.6159;
962.1000;0.1286;-0.6208;
962.4000;0.1286;-0.6159;
962.7000;0.1302;-0.6059;
963.0000;0.1294;-0.6159;
963.3000;0.1270;-0.6208;
963.6000;0.1302;-0.6109;
963.9000;0.1302;-0.6134;
964.2000;0.1311;-0.6208;
964.5000;0.1319;-0.6184;
964.8000;0.1302;-0.6134;
965.1000;0.1311;-0.6034;
965.4000;0.1302;-0.5859;
965.7000;0.1351;-0.5810;
966.0000;0.1302;-0.5959;
966.3000;0.1302;-0.6059;
966.6000;0.1343;-0.5984;
966.9000;0.1302;-0.6034;
967.2000;0.1262;-0.6208;
967.5000;0.1302;-0.6084;
967.8000;0.1319;-0.6159;
968.1000;0.1327;-0.6184;
968.4000;0.1229;-0.6408;
968.7000;0.1294;-0.6134;
969.0000;0.1302;-0.6283;
969.3000;0.1327;-0.6283;
969.6000;0.1294;-0.6308;
969.9000;0.1327;-0.6159;
970.2000;0.1327;-0.6134;
970.5000;0.1302;-0.6109;
970.8000;0.1319;-0.6009;
971.1000;0.1319;-0.6034;
971.4000;0.1302;-0.6134;
971.7000;0.1319;-0.6059;
972.0000;0.1294;-0.6084;
972.3000;0.1319;-0.6084;
972.6000;0.1294;-0.6159;
972.9000;0.1286;-0.6059;
973.2000;0.1302;-0.6059;
973.5000;0.1294;-0.6009;
973.8000;0.1278;-0.6009;
974.1000;0.1311;-0.5934;
974.4000;0.1294;-0.6034;
974.7000;0.1319;-0.6084;
975.0000;0.1302;-0.6159;
975.3000;0.1319;-0.6109;
975.6000;0.1311;-0.6109;
975.9000;0.1311;-0.6134;
976.2000;0.1286;-0.6134;
976.5000;0.1311;-0.6034;
976.8000;0.1286;-0.6109;
977.1000;0.1319;-0.6084;
977.4000;0.1286;-0.6134;
977.7000;0.1311;-0.6034;
978.0000;0.1286;-0.6184;
978.3000;0.1302;-0.6109;
978.6000;0.1294;-0.6159;
978.9000;0.1311;-0.6208;
979.2000;0.1319;-0.6159;
979.5000;0.1294;-0.6283;
979.8000;0.1229;-0.6408;
980.1000;0.1278;-0.6308;
980.4000;0.1286;-0.6308;
980.7000;0.1311;-0.6283;
981.0000;0.1302;-0.6233;
981.3000;0.1302;-0.6184;
981.6000;0.1311;-0.6059;
981.9000;0.1270;-0.6159;
982.2000;0.1294;-0.6184;
982.5000;0.1319;-0.6184;
982.8000;0.1294;-0.6308;
983.1000;0.1449;-0.5884;
983.4000;0.1319;-0.6208;
983.7000;0.1311;-0.6258;
984.0000;0.1302;-0.6184;
984.3000;0.1351;-0.6134;
984.6000;0.1294;-0.6333;
984.9000;0.1327;-0.6258;
985.2000;0.1294;-0.6233;
985.5000;0.1311;-0.6134;
985.8000;0.1319;-0.6134;
986.1000;0.1302;-0.6134;
986.4000;0.1302;-0.6159;
986.7000;0.1311;-0.6109;
987.0000;0.1294;-0.6034;
987.3000;0.1302;-0.5909;
987.6000;0.1262;-0.5959;
987.9000;0.1311;-0.5785;
988.2000;0.1327;-0.5810;
988.5000;0.1294;-0.5859;
988.8000;0.1302;-0.5909;
989.1000;0.1294;-0.5884;
989.4000;0.1294;-0.5909;
989.7000;0.1319;-0.5909;
990.0000;0.1311;-0.5884;
990.3000;0.1368;-0.5710;
990.6000;0.1392;-0.5585;
990.9000;0.1311;-0.5834;
991.2000;0.1278;-0.5884;
991.5000;0.1408;-0.5560;
991.8000;0.1368;-0.5635;
992.1000;0.1319;-0.5785;
992.4000;0.1254;-0.6009;
992.7000;0.1311;-0.5884;
993.0000;0.1311;-0.5909;
993.3000;0.1286;-0.5884;
993.6000;0.1302;-0.5884;
993.9000;0.1294;-0.5959;
994.2000;0.1294;-0.5959;
994.5000;0.1319;-0.5909;
994.8000;0.1311;-0.6009;
995.1000;0.1294;-0.5959;
995.4000;0.1302;-0.6009;
995.7000;0.1302;-0.5984;
996.0000;0.1311;-0.5934;
996.3000;0.1237;-0.6059;
996.6000;0.1319;-0.5909;
996.9000;0.1319;-0.5959;
997.2000;0.1302;-0.5959;
997.5000;0.1221;-0.6134;
997.8000;0.1311;-0.5810;
998.1000;0.1416;-0.5585;
998.4000;0.1311;-0.5884;
998.7000;0.1359;-0.5785;
999.0000;0.1294;-0.5934;
999.3000;0.1327;-0.5884;
999.6000;0.1311;-0.5934;
999.9000;0.1327;-0.5959;
1000.2000;0.1327;-0.6034;
1000.5000;0.1302;-0.6059;
1000.8000;0.1302;-0.6084;
1001.1000;0.1278;-0.6159;
1001.4000;0.1302;-0.6109;
1001.7000;0.1302;-0.6084;
1002.0000;0.1286;-0.6034;
1002.3000;0.1351;-0.5859;
1002.6000;0.1270;-0.6109;
1002.9000;0.1335;-0.5959;
1003.2000;0.1278;-0.6034;
1003.5000;0.1302;-0.5984;
1003.8000;0.1294;-0.5859;
1004.1000;0.1327;-0.5834;
1004.4000;0.1302;-0.6009;
1004.7000;0.1311;-0.6084;
1005.0000;0.1311;-0.6059;
1005.3000;0.1205;-0.6383;
1005.6000;0.1294;-0.6059;
1005.9000;0.1311;-0.6034;
1006.2000;0.1302;-0.6034;
1006.5000;0.1311;-0.5984;
1006.8000;0.1311;-0.5959;
1007.1000;0.1311;-0.5934;
1007.4000;0.1286;-0.5984;
1007.7000;0.1327;-0.5859;
1008.0000;0.1311;-0.5909;
1008.3000;0.1294;-0.5959;
1008.6000;0.1311;-0.5909;
1008.9000;0.1302;-0.5959;
1009.2000;0.1311;-0.6034;
1009.5000;0.1294;-0.6084;
1009.8000;0.1311;-0.6009;
1010.1000;0.1302;-0.6134;
1010.4000;0.1294;-0.6159;
1010.7000;0.1311;-0.6159;
1011.0000;0.1286;-0.6258;
1011.3000;0.1327;-0.6059;
1011.6000;0.1311;-0.5984;
1011.9000;0.1294;-0.6084;
1012.2000;0.1302;-0.5934;
1012.5000;0.1294;-0.6009;
1012.8000;0.1294;-0.6009;
1013.1000;0.1286;-0.6059;
1013.4000;0.1286;-0.6059;
1013.7000;0.1311;-0.5959;
1014.0000;0.1311;-0.5934;
1014.3000;0.1327;-0.5859;
1014.6000;0.1351;-0.5810;
1014.9000;0.1311;-0.5810;
1015.2000;0.1311;-0.5735;
1015.5000;0.1351;-0.5635;
1015.8000;0.1327;-0.5785;
1016.1000;0.1311;-0.5834;
1016.4000;0.1335;-0.5834;
1016.7000;0.1278;-0.5909;
1017.0000;0.1302;-0.5884;
1017.3000;0.1311;-0.5810;
1017.6000;0.1376;-0.5585;
1017.9000;0.1319;-0.5735;
1018.2000;0.1311;-0.5760;
1018.5000;0.1262;-0.5934;
1018.8000;0.1319;-0.5785;
1019.1000;0.1270;-0.5884;
1019.4000;0.1254;-0.5984;
1019.7000;0.1294;-0.5934;
1020.0000;0.1278;-0.6009;
1020.3000;0.1294;-0.5959;
1020.6000;0.1319;-0.5959;
1020.9000;0.1302;-0.5959;
1021.2000;0.1311;-0.5909;
1021.5000;0.1311;-0.5810;
1021.8000;0.1294;-0.5810;
1022.1000;0.1343;-0.5710;
1022.4000;0.1294;-0.5884;
1022.7000;0.1302;-0.5884;
1023.0000;0.1286;-0.5859;
1023.3000;0.1327;-0.5760;
1023.6000;0.1286;-0.5909;
1023.9000;0.1311;-0.5909;
1024.2000;0.1302;-0.5909;
1024.5000;0.1286;-0.6009;
1024.8000;0.1302;-0.5984;
1025.1000;0.1311;-0.5934;
1025.4000;0.1302;-0.6034;
1025.7000;0.1294;-0.6009;
1026.0000;0.1270;-0.6159;
1026.3000;0.1311;-0.6109;
1026.6000;0.1311;-0.6109;
1026.9000;0.1294;-0.6109;
1027.2000;0.1302;-0.6084;
1027.5000;0.1302;-0.6059;
1027.8000;0.1302;-0.6059;
1028.1000;0.1311;-0.6034;
1028.4000;0.1294;-0.6034;
1028.7000;0.1294;-0.5984;
1029.0000;0.1311;-0.6009;
1029.3000;0.1319;-0.6084;
1029.6000;0.1294;-0.6159;
1029.9000;0.1384;-0.5934;
1030.2000;0.1302;-0.6034;
1030.5000;0.1311;-0.5984;
1030.8000;0.1302;-0.5934;
1031.1000;0.1311;-0.5959;
1031.4000;0.1319;-0.6059;
1031.7000;0.1319;-0.6034;
1032.0000;0.1302;-0.6109;
1032.3000;0.1294;-0.6084;
1032.6000;0.1311;-0.5959;
1032.9000;0.1311;-0.5934;
1033.2000;0.1311;-0.5909;
1033.5000;0.1294;-0.5959;
1033.8000;0.1302;-0.5984;
1034.1000;0.1327;-0.6009;
1034.4000;0.1302;-0.6009;
1034.7000;0.1294;-0.5934;
1035.0000;0.1294;-0.5884;
1035.3000;0.1319;-0.5810;
1035.6000;0.1311;-0.5859;
1035.9000;0.1319;-0.5834;
1036.2000;0.1335;-0.5810;
1036.5000;0.1302;-0.5884;
1036.8000;0.1311;-0.5884;
1037.1000;0.1302;-0.5909;
1037.4000;0.1327;-0.5859;
1037.7000;0.1302;-0.5959;
1038.0000;0.1286;-0.6059;
1038.3000;0.1286;-0.6059;
1038.6000;0.1351;-0.5834;
1038.9000;0.1302;-0.5959;
1039.2000;0.1327;-0.5884;
1039.5000;0.1319;-0.5934;
1039.8000;0.1311;-0.5984;
1040.1000;0.1311;-0.5959;
1040.4000;0.1213;-0.6159;
1040.7000;0.1311;-0.5859;
1041.0000;0.1294;-0.5884;
1041.3000;0.1294;-0.5810;
1041.6000;0.1319;-0.5810;
1041.9000;0.1294;-0.5934;
1042.2000;0.1376;-0.5810;
1042.5000;0.1270;-0.6084;
1042.8000;0.1302;-0.6059;
1043.1000;0.1302;-0.6059;
1043.4000;0.1229;-0.6184;
1043.7000;0.1302;-0.6009;
1044.0000;0.1286;-0.6084;
1044.3000;0.1278;-0.6184;
1044.6000;0.1311;-0.6134;
1044.9000;0.1311;-0.6159;
1045.2000;0.1311;-0.6159;
1045.5000;0.1392;-0.5934;
1045.8000;0.1359;-0.5984;
1046.1000;0.1319;-0.6059;
1046.4000;0.1302;-0.6084;
1046.7000;0.1311;-0.6059;
1047.0000;0.1319;-0.6134;
1047.3000;0.1335;-0.6159;
1047.6000;0.1302;-0.6308;
1047.9000;0.1319;-0.6233;
1048.2000;0.1286;-0.6208;
1048.5000;0.1294;-0.6208;
1048.8000;0.1278;-0.6258;
1049.1000;0.1319;-0.6134;
1049.4000;0.1278;-0.6159;
1049.7000;0.1302;-0.6184;
1050.0000;0.1294;-0.6109;
1050.3000;0.1392;-0.5685;
1050.6000;0.1319;-0.5859;
1050.9000;0.1302;-0.5934;
1051.2000;0.1270;-0.6208;
1051.5000;0.1319;-0.6134;
1051.8000;0.1302;-0.6258;
1052.1000;0.1311;-0.6383;
1052.4000;0.1302;-0.6283;
1052.7000;0.1311;-0.6283;
1053.0000;0.1302;-0.6283;
1053.3000;0.1311;-0.6233;
1053.6000;0.1294;-0.6333;
1053.9000;0.1302;-0.6258;
1054.2000;0.1311;-0.6233;
1054.5000;0.1302;-0.6109;
1054.8000;0.1294;-0.6084;
1055.1000;0.1302;-0.6134;
1055.4000;0.1311;-0.6034;
1055.7000;0.1319;-0.5859;
1056.0000;0.1294;-0.5959;
1056.3000;0.1294;-0.5934;
1056.6000;0.1311;-0.5934;
1056.9000;0.1302;-0.6009;
1057.2000;0.1392;-0.5735;
1057.5000;0.1302;-0.6059;
1057.8000;0.1254;-0.6258;
1058.1000;0.1311;-0.6009;
1058.4000;0.1311;-0.6009;
1058.7000;0.1278;-0.6109;
1059.0000;0.1294;-0.6034;
1059.3000;0.1270;-0.6184;
1059.6000;0.1294;-0.6134;
1059.9000;0.1311;-0.6084;
1060.2000;0.1245;-0.6159;
1060.5000;0.1286;-0.6109;
1060.8000;0.1294;-0.6059;
1061.1000;0.1302;-0.6009;
1061.4000;0.1311;-0.5984;
1061.7000;0.1286;-0.6084;
1062.0000;0.1327;-0.6034;
1062.3000;0.1270;-0.6184;
1062.6000;0.1311;-0.6184;
1062.9000;0.1302;-0.6159;
1063.2000;0.1319;-0.6159;
1063.5000;0.1311;-0.6233;
1063.8000;0.1254;-0.6358;
1064.1000;0.1294;-0.6159;
1064.4000;0.1311;-0.6084;
1064.7000;0.1319;-0.6184;
1065.0000;0.1302;-0.6208;
1065.3000;0.1294;-0.6258;
1065.6000;0.1302;-0.6233;
1065.9000;0.1302;-0.6159;
1066.2000;0.1302;-0.6159;
1066.5000;0.1319;-0.6184;
1066.8000;0.1327;-0.6159;
1067.1000;0.1237;-0.6458;
1067.4000;0.1311;-0.6433;
1067.7000;0.1302;-0.6533;
1068.0000;0.1294;-0.6433;
1068.3000;0.1311;-0.6308;
1068.6000;0.1311;-0.6233;
1068.9000;0.1294;-0.6258;
1069.2000;0.1294;-0.6333;
1069.5000;0.1294;-0.6283;
1069.8000;0.1294;-0.6283;
1070.1000;0.1327;-0.6184;
1070.4000;0.1302;-0.6233;
1070.7000;0.1319;-0.6109;
1071.0000;0.1311;-0.6034;
1071.3000;0.1319;-0.5909;
1071.6000;0.1311;-0.6009;
1071.9000;0.1302;-0.5959;
1072.2000;0.1425;-0.5635;
1072.5000;0.1335;-0.5909;
1072.8000;0.1302;-0.5984;
1073.1000;0.1319;-0.5959;
1073.4000;0.1335;-0.6009;
1073.7000;0.1335;-0.6009;
1074.0000;0.1311;-0.6134;
1074.3000;0.1270;-0.6184;
1074.6000;0.1311;-0.6109;
1074.9000;0.1270;-0.6258;
1075.2000;0.1245;-0.6408;
1075.5000;0.1319;-0.6134;
1075.8000;0.1302;-0.6084;
1076.1000;0.1359;-0.5909;
1076.4000;0.1327;-0.5984;
1076.7000;0.1311;-0.6034;
1077.0000;0.1302;-0.6009;
1077.3000;0.1311;-0.5959;
1077.6000;0.1319;-0.6009;
1077.9000;0.1392;-0.5710;
1078.2000;0.1311;-0.6034;
1078.5000;0.1319;-0.6009;
1078.8000;0.1335;-0.5984;
1079.1000;0.1302;-0.6034;
1079.4000;0.1294;-0.5959;
1079.7000;0.1311;-0.5909;
1080.0000;0.1343;-0.5934;
1080.3000;0.1311;-0.6034;
1080.6000;0.1335;-0.6009;
1080.9000;0.1302;-0.6034;
1081.2000;0.1254;-0.6134;
1081.5000;0.1302;-0.6059;
1081.8000;0.1286;-0.6233;
1082.1000;0.1311;-0.6283;
1082.4000;0.1286;-0.6358;
1082.7000;0.1286;-0.6358;
1083.0000;0.1213;-0.6508;
1083.3000;0.1343;-0.6233;
1083.6000;0.1319;-0.6233;
1083.9000;0.1302;-0.6233;
1084.2000;0.1311;-0.6283;
1084.5000;0.1286;-0.6283;
1084.8000;0.1278;-0.6233;
1085.1000;0.1302;-0.6159;
1085.4000;0.1327;-0.6084;
1085.7000;0.1294;-0.6208;
1086.0000;0.1286;-0.6208;
1086.3000;0.1286;-0.6208;
1086.6000;0.1335;-0.6059;
1086.9000;0.1294;-0.6159;
1087.2000;0.1384;-0.5884;
1087.5000;0.1319;-0.6134;
1087.8000;0.1278;-0.6258;
1088.1000;0.1311;-0.6159;
1088.4000;0.1302;-0.6109;
1088.7000;0.1311;-0.6084;
1089.0000;0.1294;-0.6233;
1089.3000;0.1335;-0.6084;
1089.6000;0.1311;-0.6159;
1089.9000;0.1294;-0.6258;
1090.2000;0.1294;-0.6208;
1090.5000;0.1302;-0.6159;
1090.8000;0.1327;-0.6159;
1091.1000;0.1319;-0.6109;
1091.4000;0.1311;-0.6034;
1091.7000;0.1294;-0.5984;
1092.0000;0.1278;-0.6034;
1092.3000;0.1278;-0.6109;
1092.6000;0.1311;-0.5959;
1092.9000;0.1311;-0.6084;
1093.2000;0.1302;-0.6084;
1093.5000;0.1335;-0.5884;
1093.8000;0.1302;-0.5834;
1094.1000;0.1286;-0.5959;
1094.4000;0.1319;-0.5884;
1094.7000;0.1237;-0.6034;
1095.0000;0.1319;-0.5859;
1095.3000;0.1302;-0.5934;
1095.6000;0.1335;-0.5959;
1095.9000;0.1311;-0.6009;
1096.2000;0.1302;-0.5984;
1096.5000;0.1311;-0.5934;
1096.8000;0.1278;-0.6084;
1097.1000;0.1278;-0.6159;
1097.4000;0.1302;-0.5934;
1097.7000;0.1294;-0.5959;
1098.0000;0.1278;-0.6059;
1098.3000;0.1327;-0.5934;
1098.6000;0.1302;-0.6084;
1098.9000;0.1286;-0.6134;
1099.2000;0.1294;-0.6258;
1099.5000;0.1302;-0.6084;
1099.8000;0.1262;-0.6034;
1100.1000;0.1327;-0.5810;
1100.4000;0.1294;-0.5984;
1100.7000;0.1302;-0.5959;
1101.0000;0.1359;-0.5810;
1101.3000;0.1319;-0.5909;
1101.6000;0.1302;-0.6009;
1101.9000;0.1302;-0.6084;
1102.2000;0.1302;-0.5984;
1102.5000;0.1311;-0.5959;
1102.8000;0.1302;-0.6034;
1103.1000;0.1302;-0.6009;
1103.4000;0.1302;-0.6009;
1103.7000;0.1319;-0.5934;
1104.0000;0.1319;-0.5834;
1104.3000;0.1294;-0.6009;
1104.6000;0.1351;-0.5834;
1104.9000;0.1343;-0.5859;
1105.2000;0.1254;-0.6109;
1105.5000;0.1302;-0.5934;
1105.8000;0.1327;-0.5934;
1106.1000;0.1302;-0.6084;
1106.4000;0.1221;-0.6258;
1106.7000;0.1294;-0.6034;
1107.0000;0.1311;-0.5984;
1107.3000;0.1286;-0.6009;
1107.6000;0.1319;-0.5909;
1107.9000;0.1278;-0.5959;
1108.2000;0.1368;-0.5760;
1108.5000;0.1270;-0.6159;
1108.8000;0.1294;-0.6059;
1109.1000;0.1311;-0.5959;
1109.4000;0.1237;-0.6184;
1109.7000;0.1311;-0.6034;
1110.0000;0.1327;-0.5884;
1110.3000;0.1302;-0.5959;
1110.6000;0.1368;-0.5660;
1110.9000;0.1294;-0.5710;
1111.2000;0.1302;-0.5685;
1111.5000;0.1245;-0.5909;
1111.8000;0.1319;-0.5785;
1112.1000;0.1262;-0.5810;
1112.4000;0.1302;-0.5785;
1112.7000;0.1302;-0.5760;
1113.0000;0.1351;-0.5585;
1113.3000;0.1311;-0.5710;
1113.6000;0.1294;-0.5760;
1113.9000;0.1327;-0.5710;
1114.2000;0.1311;-0.5859;
1114.5000;0.1335;-0.5810;
1114.8000;0.1302;-0.5884;
1115.1000;0.1319;-0.5959;
1115.4000;0.1335;-0.5909;
1115.7000;0.1311;-0.5959;
1116.0000;0.1368;-0.5760;
1116.3000;0.1327;-0.5859;
1116.6000;0.1319;-0.5785;
1116.9000;0.1327;-0.5760;
1117.2000;0.1319;-0.5909;
1117.5000;0.1302;-0.5959;
1117.8000;0.1302;-0.5884;
1118.1000;0.1319;-0.5810;
1118.4000;0.1270;-0.5834;
1118.7000;0.1294;-0.5785;
1119.0000;0.1302;-0.5685;
1119.3000;0.1319;-0.5685;
1119.6000;0.1311;-0.5785;
1119.9000;0.1294;-0.5810;
1120.2000;0.1302;-0.5859;
1120.5000;0.1319;-0.5834;
1120.8000;0.1245;-0.6034;
1121.1000;0.1302;-0.5909;
1121.4000;0.1311;-0.5884;
1121.7000;0.1319;-0.5785;
1122.0000;0.1278;-0.5859;
1122.3000;0.1302;-0.5760;
1122.6000;0.1311;-0.5760;
1122.9000;0.1294;-0.5859;
1123.2000;0.1319;-0.5834;
1123.5000;0.1294;-0.5884;
1123.8000;0.1302;-0.5984;
1124.1000;0.1327;-0.5884;
1124.4000;0.1294;-0.6059;
1124.7000;0.1327;-0.5934;
1125.0000;0.1286;-0.5984;
1125.3000;0.1311;-0.5909;
1125.6000;0.1302;-0.5909;
1125.9000;0.1319;-0.5884;
1126.2000;0.1294;-0.6009;
1126.5000;0.1319;-0.5959;
1126.8000;0.1311;-0.5959;
1127.1000;0.1302;-0.5884;
1127.4000;0.1311;-0.5934;
1127.7000;0.1302;-0.5959;
1128.0000;0.1302;-0.5984;
1128.3000;0.1319;-0.5909;
1128.6000;0.1294;-0.5984;
1128.9000;0.1294;-0.5984;
1129.2000;0.1302;-0.5984;
1129.5000;0.1302;-0.5959;
1129.8000;0.1302;-0.5984;
1130.1000;0.1302;-0.5859;
1130.4000;0.1319;-0.5834;
1130.7000;0.1302;-0.5810;
1131.0000;0.1302;-0.5884;
1131.3000;0.1302;-0.5959;
1131.6000;0.1319;-0.5959;
1131.9000;0.1327;-0.5984;
1132.2000;0.1302;-0.5834;
1132.5000;0.1311;-0.5785;
1132.8000;0.1311;-0.5834;
1133.1000;0.1294;-0.5884;
1133.4000;0.1319;-0.5934;
1133.7000;0.1294;-0.5909;
1134.0000;0.1278;-0.5984;
1134.3000;0.1262;-0.6134;
1134.6000;0.1294;-0.6034;
1134.9000;0.1376;-0.5785;
1135.2000;0.1311;-0.5909;
1135.5000;0.1384;-0.5810;
1135.8000;0.1270;-0.6059;
1136.1000;0.1302;-0.5984;
1136.4000;0.1335;-0.5934;
1136.7000;0.1302;-0.6034;
1137.0000;0.1278;-0.6059;
1137.3000;0.1270;-0.6059;
1137.6000;0.1294;-0.5934;
1137.9000;0.1270;-0.5984;
1138.2000;0.1254;-0.5984;
1138.5000;0.1311;-0.5859;
1138.8000;0.1319;-0.5859;
1139.1000;0.1286;-0.5959;
1139.4000;0.1294;-0.5934;
1139.7000;0.1319;-0.5909;
1140.0000;0.1302;-0.5884;
1140.3000;0.1278;-0.5909;
1140.6000;0.1302;-0.5884;
1140.9000;0.1311;-0.5834;
1141.2000;0.1302;-0.5810;
1141.5000;0.1302;-0.5760;
1141.8000;0.1286;-0.5834;
1142.1000;0.1294;-0.5884;
1142.4000;0.1302;-0.5909;
1142.7000;0.1302;-0.5884;
1143.0000;0.1302;-0.5859;
1143.3000;0.1319;-0.5785;
1143.6000;0.1311;-0.5785;
1143.9000;0.1286;-0.5859;
1144.2000;0.1294;-0.5884;
1144.5000;0.1311;-0.5884;
1144.8000;0.1311;-0.5934;
1145.1000;0.1294;-0.6009;
1145.4000;0.1319;-0.5909;
1145.7000;0.1294;-0.5859;
1146.0000;0.1335;-0.5760;
1146.3000;0.1319;-0.5760;
1146.6000;0.1302;-0.5785;
1146.9000;0.1343;-0.5735;
1147.2000;0.1327;-0.5760;
1147.5000;0.1302;-0.5785;
1147.8000;0.1311;-0.5760;
1148.1000;0.1302;-0.5785;
1148.4000;0.1294;-0.5785;
1148.7000;0.1302;-0.5834;
1149.0000;0.1302;-0.5909;
1149.3000;0.1270;-0.5934;
1149.6000;0.1302;-0.5760;
1149.9000;0.1286;-0.5760;
1150.2000;0.1245;-0.5959;
1150.5000;0.1311;-0.5884;
1150.8000;0.1286;-0.5984;
1151.1000;0.1335;-0.5859;
1151.4000;0.1302;-0.5934;
1151.7000;0.1286;-0.5859;
1152.0000;0.1319;-0.5735;
1152.3000;0.1319;-0.5760;
1152.6000;0.1302;-0.5710;
1152.9000;0.1311;-0.5760;
1153.2000;0.1302;-0.5884;
1153.5000;0.1319;-0.5735;
1153.8000;0.1319;-0.5834;
1154.1000;0.1319;-0.5959;
1154.4000;0.1302;-0.5884;
1154.7000;0.1278;-0.5834;
1155.0000;0.1294;-0.5909;
1155.3000;0.1319;-0.5884;
1155.6000;0.1319;-0.5884;
1155.9000;0.1294;-0.5934;
1156.2000;0.1262;-0.6009;
1156.5000;0.1311;-0.5834;
1156.8000;0.1294;-0.5959;
1157.1000;0.1319;-0.5884;
1157.4000;0.1311;-0.5884;
1157.7000;0.1311;-0.5934;
1158.0000;0.1351;-0.5810;
1158.3000;0.1327;-0.5810;
1158.6000;0.1319;-0.5884;
1158.9000;0.1319;-0.5959;
1159.2000;0.1335;-0.5984;
1159.5000;0.1237;-0.6184;
1159.8000;0.1286;-0.5984;
1160.1000;0.1319;-0.5859;
1160.4000;0.1302;-0.5959;
1160.7000;0.1311;-0.5909;
1161.0000;0.1302;-0.5909;
1161.3000;0.1302;-0.5884;
1161.6000;0.1319;-0.5909;
1161.9000;0.1392;-0.5685;
1162.2000;0.1408;-0.5610;
1162.5000;0.1311;-0.5834;
1162.8000;0.1319;-0.5909;
1163.1000;0.1319;-0.5834;
1163.4000;0.1311;-0.5834;
1163.7000;0.1319;-0.5834;
1164.0000;0.1343;-0.5810;
1164.3000;0.1311;-0.5884;
1164.6000;0.1302;-0.5934;
1164.9000;0.1302;-0.6009;
1165.2000;0.1302;-0.6059;
1165.5000;0.1302;-0.6059;
1165.8000;0.1286;-0.6208;
1166.1000;0.1368;-0.6034;
1166.4000;0.1327;-0.6159;
1166.7000;0.1302;-0.6283;
1167.0000;0.1294;-0.6233;
1167.3000;0.1302;-0.6258;
1167.6000;0.1319;-0.6208;
1167.9000;0.1294;-0.6109;
1168.2000;0.1262;-0.6109;
1168.5000;0.1286;-0.6084;
1168.8000;0.1286;-0.6034;
1169.1000;0.1294;-0.6009;
1169.4000;0.1294;-0.6034;
1169.7000;0.1319;-0.5909;
1170.0000;0.1278;-0.5959;
1170.3000;0.1294;-0.5934;
1170.6000;0.1311;-0.5934;
1170.9000;0.1302;-0.5909;
1171.2000;0.1311;-0.6059;
1171.5000;0.1311;-0.6034;
1171.8000;0.1319;-0.6034;
1172.1000;0.1302;-0.6059;
1172.4000;0.1262;-0.6109;
1172.7000;0.1319;-0.5984;
1173.0000;0.1311;-0.6009;
1173.3000;0.1270;-0.6059;
1173.6000;0.1294;-0.6059;
1173.9000;0.1302;-0.6009;
1174.2000;0.1262;-0.6109;
1174.5000;0.1286;-0.6034;
1174.8000;0.1286;-0.5984;
1175.1000;0.1302;-0.5984;
1175.4000;0.1302;-0.6059;
1175.7000;0.1302;-0.6134;
1176.0000;0.1311;-0.6084;
1176.3000;0.1254;-0.6109;
1176.6000;0.1302;-0.5984;
1176.9000;0.1294;-0.6034;
1177.2000;0.1270;-0.6109;
1177.5000;0.1278;-0.6134;
1177.8000;0.1319;-0.6134;
1178.1000;0.1311;-0.6084;
1178.4000;0.1302;-0.6084;
1178.7000;0.1294;-0.6109;
1179.0000;0.1319;-0.6109;
1179.3000;0.1294;-0.6134;
1179.6000;0.1286;-0.6134;
1179.9000;0.1302;-0.6134;
1180.2000;0.1359;-0.6034;
1180.5000;0.1294;-0.6084;
1180.8000;0.1294;-0.6159;
1181.1000;0.1294;-0.6109;
1181.4000;0.1311;-0.6009;
1181.7000;0.1319;-0.5884;
1182.0000;0.1359;-0.5810;
1182.3000;0.1311;-0.5909;
1182.6000;0.1319;-0.5884;
1182.9000;0.1319;-0.5959;
1183.2000;0.1327;-0.5959;
1183.5000;0.1302;-0.6109;
1183.8000;0.1311;-0.6034;
1184.1000;0.1294;-0.6009;
1184.4000;0.1302;-0.6009;
1184.7000;0.1343;-0.5934;
1185.0000;0.1302;-0.5984;
1185.3000;0.1302;-0.6059;
1185.6000;0.1319;-0.6059;
1185.9000;0.1319;-0.6059;
1186.2000;0.1286;-0.6084;
1186.5000;0.1319;-0.5959;
1186.8000;0.1327;-0.5984;
1187.1000;0.1335;-0.5959;
1187.4000;0.1319;-0.6059;
1187.7000;0.1311;-0.6034;
1188.0000;0.1311;-0.6059;
1188.3000;0.1343;-0.5984;
1188.6000;0.1302;-0.6134;
1188.9000;0.1302;-0.6084;
1189.2000;0.1327;-0.6009;
1189.5000;0.1327;-0.5959;
1189.8000;0.1302;-0.5934;
1190.1000;0.1302;-0.5959;
1190.4000;0.1319;-0.5959;
1190.7000;0.1311;-0.6009;
1191.0000;0.1302;-0.5934;
1191.3000;0.1278;-0.5959;
1191.6000;0.1311;-0.5909;
1191.9000;0.1302;-0.5810;
1192.2000;0.1294;-0.5785;
1192.5000;0.1302;-0.5909;
1192.8000;0.1311;-0.5934;
1193.1000;0.1302;-0.5834;
1193.4000;0.1294;-0.5834;
1193.7000;0.1351;-0.5785;
1194.0000;0.1286;-0.5934;
1194.3000;0.1302;-0.5834;
1194.6000;0.1294;-0.5785;
1194.9000;0.1245;-0.5934;
1195.2000;0.1294;-0.5884;
1195.5000;0.1319;-0.5859;
1195.8000;0.1311;-0.5959;
1196.1000;0.1294;-0.6009;
1196.4000;0.1270;-0.6009;
1196.7000;0.1319;-0.5884;
1197.0000;0.1327;-0.5859;
1197.3000;0.1359;-0.5859;
1197.6000;0.1311;-0.6034;
1197.9000;0.1319;-0.5909;
1198.2000;0.1319;-0.5984;
1198.5000;0.1294;-0.5934;
1198.8000;0.1311;-0.5810;
1199.1000;0.1294;-0.5884;
1199.4000;0.1262;-0.6084;
1199.7000;0.1319;-0.5984;
1200.0000;0.1311;-0.6084;
1200.3000;0.1302;-0.6208;
1200.6000;0.1302;-0.6134;
1200.9000;0.1286;-0.6084;
1201.2000;0.1294;-0.6084;
1201.5000;0.1302;-0.5959;
1201.8000;0.1294;-0.5859;
1202.1000;0.1311;-0.5785;
1202.4000;0.1294;-0.5810;
1202.7000;0.1302;-0.5859;
1203.0000;0.1311;-0.5710;
1203.3000;0.1327;-0.5785;
1203.6000;0.1311;-0.5834;
1203.9000;0.1319;-0.5785;
1204.2000;0.1278;-0.5909;
1204.5000;0.1311;-0.5834;
1204.8000;0.1311;-0.5810;
1205.1000;0.1302;-0.5859;
1205.4000;0.1270;-0.5959;
1205.7000;0.1294;-0.5785;
1206.0000;0.1294;-0.5810;
1206.3000;0.1302;-0.5834;
1206.6000;0.1311;-0.5760;
1206.9000;0.1286;-0.5810;
1207.2000;0.1302;-0.5660;
1207.5000;0.1286;-0.5785;
1207.8000;0.1302;-0.5859;
1208.1000;0.1278;-0.5934;
1208.4000;0.1302;-0.5859;
1208.7000;0.1294;-0.5859;
1209.0000;0.1319;-0.5785;
1209.3000;0.1286;-0.5834;
1209.6000;0.1302;-0.5884;
1209.9000;0.1302;-0.5909;
1210.2000;0.1319;-0.5834;
1210.5000;0.1311;-0.5785;
1210.8000;0.1302;-0.5859;
1211.1000;0.1311;-0.5785;
1211.4000;0.1311;-0.5810;
1211.7000;0.1294;-0.5760;
1212.0000;0.1311;-0.5735;
1212.3000;0.1278;-0.5909;
1212.6000;0.1278;-0.5959;
1212.9000;0.1311;-0.5909;
1213.2000;0.1311;-0.5859;
1213.5000;0.1311;-0.5859;
1213.8000;0.1327;-0.5884;
1214.1000;0.1286;-0.5934;
1214.4000;0.1302;-0.5934;
1214.7000;0.1286;-0.6059;
1215.0000;0.1302;-0.6034;
1215.3000;0.1262;-0.6109;
1215.6000;0.1319;-0.5909;
1215.9000;0.1302;-0.5934;
1216.2000;0.1351;-0.5834;
1216.5000;0.1319;-0.6059;
1216.8000;0.1302;-0.6134;
1217.1000;0.1319;-0.6009;
1217.4000;0.1311;-0.5984;
1217.7000;0.1270;-0.6134;
1218.0000;0.1311;-0.6009;
1218.3000;0.1302;-0.6084;
1218.6000;0.1335;-0.5984;
1218.9000;0.1278;-0.6134;
1219.2000;0.1311;-0.5984;
1219.5000;0.1302;-0.5984;
1219.8000;0.1327;-0.5934;
1220.1000;0.1319;-0.5959;
1220.4000;0.1294;-0.6084;
1220.7000;0.1294;-0.6084;
1221.0000;0.1319;-0.5934;
1221.3000;0.1311;-0.5934;
1221.6000;0.1311;-0.5859;
1221.9000;0.1286;-0.6009;
1222.2000;0.1294;-0.5810;
1222.5000;0.1302;-0.5859;
1222.8000;0.1311;-0.5884;
1223.1000;0.1311;-0.5934;
1223.4000;0.1359;-0.5760;
1223.7000;0.1319;-0.5909;
1224.0000;0.1359;-0.5834;
1224.3000;0.1302;-0.5984;
1224.6000;0.1302;-0.6009;
1224.9000;0.1311;-0.6009;
1225.2000;0.1302;-0.6034;
1225.5000;0.1319;-0.6009;
1225.8000;0.1327;-0.5959;
1226.1000;0.1294;-0.5934;
1226.4000;0.1302;-0.5984;
1226.7000;0.1319;-0.5984;
1227.0000;0.1294;-0.5984;
1227.3000;0.1311;-0.5984;
1227.6000;0.1197;-0.6283;
1227.9000;0.1302;-0.6009;
1228.2000;0.1302;-0.6034;
1228.5000;0.1335;-0.6059;
1228.8000;0.1335;-0.6084;
1229.1000;0.1302;-0.6109;
1229.4000;0.1294;-0.6134;
1229.7000;0.1302;-0.6159;
1230.0000;0.1311;-0.6283;
1230.3000;0.1311;-0.6258;
1230.6000;0.1237;-0.6408;
1230.9000;0.1286;-0.6208;
1231.2000;0.1278;-0.6084;
1231.5000;0.1286;-0.6109;
1231.8000;0.1335;-0.6084;
1232.1000;0.1335;-0.6059;
1232.4000;0.1319;-0.6084;
1232.7000;0.1327;-0.6009;
1233.0000;0.1302;-0.6134;
1233.3000;0.1351;-0.6084;
1233.6000;0.1311;-0.6109;
1233.9000;0.1311;-0.6159;
1234.2000;0.1319;-0.6159;
1234.5000;0.1311;-0.6184;
1234.8000;0.1294;-0.6333;
1235.1000;0.1237;-0.6483;
1235.4000;0.1294;-0.6358;
1235.7000;0.1286;-0.6358;
1236.0000;0.1311;-0.6308;
1236.3000;0.1327;-0.6159;
1236.6000;0.1294;-0.6184;
1236.9000;0.1302;-0.6233;
1237.2000;0.1302;-0.6208;
1237.5000;0.1302;-0.6258;
1237.8000;0.1294;-0.6283;
1238.1000;0.1302;-0.6233;
1238.4000;0.1311;-0.6159;
1238.7000;0.1335;-0.6059;
1239.0000;0.1327;-0.6034;
1239.3000;0.1270;-0.6159;
1239.6000;0.1294;-0.6034;
1239.9000;0.1319;-0.5909;
1240.2000;0.1319;-0.5984;
1240.5000;0.1302;-0.5934;
1240.8000;0.1311;-0.5934;
1241.1000;0.1302;-0.5884;
1241.4000;0.1302;-0.5934;
1241.7000;0.1294;-0.5884;
1242.0000;0.1319;-0.5810;
1242.3000;0.1294;-0.5785;
1242.6000;0.1319;-0.5735;
1242.9000;0.1311;-0.5810;
1243.2000;0.1311;-0.5934;
1243.5000;0.1286;-0.6009;
1243.8000;0.1311;-0.5934;
1244.1000;0.1319;-0.5785;
1244.4000;0.1302;-0.5909;
1244.7000;0.1343;-0.5810;
1245.0000;0.1270;-0.5984;
1245.3000;0.1311;-0.5859;
1245.6000;0.1270;-0.5984;
1245.9000;0.1311;-0.5959;
1246.2000;0.1302;-0.6059;
1246.5000;0.1319;-0.6059;
1246.8000;0.1319;-0.6084;
1247.1000;0.1327;-0.5959;
1247.4000;0.1302;-0.6034;
1247.7000;0.1302;-0.5984;
1248.0000;0.1302;-0.5884;
1248.3000;0.1351;-0.5760;
1248.6000;0.1270;-0.6009;
1248.9000;0.1343;-0.5859;
1249.2000;0.1302;-0.5984;
1249.5000;0.1294;-0.6034;
1249.8000;0.1335;-0.5834;
1250.1000;0.1294;-0.5834;
1250.4000;0.1302;-0.5834;
1250.7000;0.1294;-0.5810;
1251.0000;0.1319;-0.5859;
1251.3000;0.1359;-0.5884;
1251.6000;0.1302;-0.6134;
1251.9000;0.1335;-0.6059;
1252.2000;0.1302;-0.6109;
1252.5000;0.1278;-0.6233;
1252.8000;0.1343;-0.6034;
1253.1000;0.1254;-0.6233;
1253.4000;0.1286;-0.6233;
1253.7000;0.1302;-0.6134;
1254.0000;0.1319;-0.6159;
1254.3000;0.1311;-0.6208;
1254.6000;0.1311;-0.6159;
1254.9000;0.1319;-0.6109;
1255.2000;0.1327;-0.6009;
1255.5000;0.1351;-0.5984;
1255.8000;0.1205;-0.6383;
1256.1000;0.1327;-0.6084;
1256.4000;0.1311;-0.6084;
1256.7000;0.1302;-0.6159;
1257.0000;0.1302;-0.6134;
1257.3000;0.1311;-0.6034;
1257.6000;0.1294;-0.6109;
1257.9000;0.1319;-0.6009;
1258.2000;0.1311;-0.6109;
1258.5000;0.1311;-0.6159;
1258.8000;0.1311;-0.6184;
1259.1000;0.1319;-0.6283;
1259.4000;0.1319;-0.6283;
1259.7000;0.1302;-0.6184;
1260.0000;0.1302;-0.6233;
1260.3000;0.1327;-0.6283;
1260.6000;0.1319;-0.6283;
1260.9000;0.1294;-0.6333;
1261.2000;0.1294;-0.6308;
1261.5000;0.1311;-0.6283;
1261.8000;0.1319;-0.6258;
1262.1000;0.1302;-0.6308;
1262.4000;0.1327;-0.6184;
1262.7000;0.1302;-0.6159;
1263.0000;0.1327;-0.6208;
1263.3000;0.1319;-0.6184;
1263.6000;0.1327;-0.6208;
1263.9000;0.1302;-0.6233;
1264.2000;0.1302;-0.6208;
1264.5000;0.1335;-0.6208;
1264.8000;0.1302;-0.6208;
1265.1000;0.1302;-0.6208;
1265.4000;0.1302;-0.6208;
1265.7000;0.1311;-0.6134;
1266.0000;0.1302;-0.6109;
1266.3000;0.1319;-0.6084;
1266.6000;0.1311;-0.6059;
1266.9000;0.1400;-0.5785;
1267.2000;0.1254;-0.6233;
1267.5000;0.1302;-0.6134;
1267.8000;0.1319;-0.6159;
1268.1000;0.1319;-0.6208;
1268.4000;0.1327;-0.6184;
1268.7000;0.1302;-0.6208;
1269.0000;0.1286;-0.6233;
1269.3000;0.1311;-0.6208;
1269.6000;0.1311;-0.6109;
1269.9000;0.1294;-0.6084;
1270.2000;0.1286;-0.6109;
1270.5000;0.1302;-0.5959;
1270.8000;0.1311;-0.5934;
1271.1000;0.1384;-0.5785;
1271.4000;0.1302;-0.5984;
1271.7000;0.1351;-0.5909;
1272.0000;0.1302;-0.6009;
1272.3000;0.1319;-0.5934;
1272.6000;0.1294;-0.5859;
1272.9000;0.1286;-0.5834;
1273.2000;0.1286;-0.5909;
1273.5000;0.1327;-0.5810;
1273.8000;0.1245;-0.6034;
1274.1000;0.1311;-0.6009;
1274.4000;0.1302;-0.6084;
1274.7000;0.1311;-0.6134;
1275.0000;0.1351;-0.6059;
1275.3000;0.1302;-0.6109;
1275.6000;0.1327;-0.6159;
1275.9000;0.1311;-0.6184;
1276.2000;0.1294;-0.6159;
1276.5000;0.1302;-0.6134;
1276.8000;0.1311;-0.6134;
1277.1000;0.1294;-0.6134;
1277.4000;0.1311;-0.6034;
1277.7000;0.1302;-0.5984;
1278.0000;0.1311;-0.5984;
1278.3000;0.1327;-0.5884;
1278.6000;0.1302;-0.6009;
1278.9000;0.1294;-0.6134;
1279.2000;0.1278;-0.6258;
1279.5000;0.1302;-0.6184;
1279.8000;0.1311;-0.6184;
1280.1000;0.1327;-0.6109;
1280.4000;0.1302;-0.6109;
1280.7000;0.1302;-0.6109;
1281.0000;0.1311;-0.5984;
1281.3000;0.1302;-0.5934;
1281.6000;0.1294;-0.5909;
1281.9000;0.1286;-0.5884;
1282.2000;0.1286;-0.5934;
1282.5000;0.1319;-0.5859;
1282.8000;0.1302;-0.5934;
1283.1000;0.1343;-0.5909;
1283.4000;0.1311;-0.6009;
1283.7000;0.1319;-0.6134;
1284.0000;0.1327;-0.6134;
1284.3000;0.1319;-0.6109;
1284.6000;0.1286;-0.6159;
1284.9000;0.1278;-0.6059;
1285.2000;0.1335;-0.5834;
1285.5000;0.1302;-0.5909;
1285.8000;0.1302;-0.5909;
1286.1000;0.1319;-0.5884;
1286.4000;0.1302;-0.5834;
1286.7000;0.1311;-0.5810;
1287.0000;0.1302;-0.5810;
1287.3000;0.1294;-0.5834;
1287.6000;0.1319;-0.5834;
1287.9000;0.1294;-0.6009;
1288.2000;0.1237;-0.6134;
1288.5000;0.1319;-0.5884;
1288.8000;0.1311;-0.5884;
1289.1000;0.1327;-0.5810;
1289.4000;0.1262;-0.5884;
1289.7000;0.1311;-0.5810;
1290.0000;0.1311;-0.5859;
1290.3000;0.1343;-0.5760;
1290.6000;0.1294;-0.5859;
1290.9000;0.1245;-0.6009;
1291.2000;0.1327;-0.5785;
1291.5000;0.1262;-0.5834;
1291.8000;0.1302;-0.5760;
1292.1000;0.1319;-0.5685;
1292.4000;0.1335;-0.5660;
1292.7000;0.1319;-0.5735;
1293.0000;0.1294;-0.5760;
1293.3000;0.1302;-0.5834;
1293.6000;0.1311;-0.5735;
1293.9000;0.1302;-0.5710;
1294.2000;0.1286;-0.5884;
1294.5000;0.1302;-0.5884;
1294.8000;0.1319;-0.5810;
1295.1000;0.1319;-0.5884;
1295.4000;0.1319;-0.5934;
1295.7000;0.1294;-0.6059;
1296.0000;0.1319;-0.6009;
1296.3000;0.1319;-0.6034;
1296.6000;0.1294;-0.5959;
1296.9000;0.1327;-0.5884;
1297.2000;0.1311;-0.5959;
1297.5000;0.1319;-0.5909;
1297.8000;0.1302;-0.5984;
1298.1000;0.1302;-0.5834;
1298.4000;0.1319;-0.5834;
1298.7000;0.1319;-0.5859;
1299.0000;0.1302;-0.5735;
1299.3000;0.1278;-0.5810;
1299.6000;0.1294;-0.5685;
1299.9000;0.1294;-0.5735;
1300.2000;0.1335;-0.5735;
1300.5000;0.1294;-0.5959;
1300.8000;0.1294;-0.5909;
1301.1000;0.1294;-0.5909;
1301.4000;0.1262;-0.6034;
1301.7000;0.1270;-0.6059;
1302.0000;0.1278;-0.6084;
1302.3000;0.1311;-0.6009;
1302.6000;0.1302;-0.6059;
1302.9000;0.1302;-0.6034;
1303.2000;0.1327;-0.6034;
1303.5000;0.1408;-0.5785;
1303.8000;0.1237;-0.6258;
1304.1000;0.1302;-0.6109;
1304.4000;0.1319;-0.6034;
1304.7000;0.1311;-0.5959;
1305.0000;0.1302;-0.6009;
1305.3000;0.1335;-0.6034;
1305.6000;0.1286;-0.6184;
1305.9000;0.1294;-0.6184;
1306.2000;0.1286;-0.6134;
1306.5000;0.1302;-0.6059;
1306.8000;0.1368;-0.6009;
1307.1000;0.1286;-0.6134;
1307.4000;0.1335;-0.6034;
1307.7000;0.1311;-0.6084;
1308.0000;0.1311;-0.6034;
1308.3000;0.1327;-0.6059;
1308.6000;0.1286;-0.6184;
1308.9000;0.1319;-0.6134;
1309.2000;0.1294;-0.6084;
1309.5000;0.1294;-0.6109;
1309.8000;0.1311;-0.6208;
1310.1000;0.1302;-0.6233;
1310.4000;0.1286;-0.6283;
1310.7000;0.1351;-0.6159;
1311.0000;0.1294;-0.6283;
1311.3000;0.1311;-0.6258;
1311.6000;0.1311;-0.6258;
1311.9000;0.1302;-0.6233;
1312.2000;0.1302;-0.6208;
1312.5000;0.1319;-0.6208;
1312.8000;0.1286;-0.6308;
1313.1000;0.1311;-0.6283;
1313.4000;0.1319;-0.6233;
1313.7000;0.1359;-0.6084;
1314.0000;0.1319;-0.6184;
1314.3000;0.1302;-0.6184;
1314.6000;0.1294;-0.6134;
1314.9000;0.1327;-0.6009;
1315.2000;0.1286;-0.6134;
1315.5000;0.1319;-0.6109;
1315.8000;0.1294;-0.6159;
1316.1000;0.1278;-0.6184;
1316.4000;0.1245;-0.6308;
1316.7000;0.1302;-0.6159;
1317.0000;0.1311;-0.6233;
1317.3000;0.1311;-0.6258;
1317.6000;0.1286;-0.6233;
1317.9000;0.1294;-0.6283;
1318.2000;0.1319;-0.6208;
1318.5000;0.1311;-0.6233;
1318.8000;0.1237;-0.6408;
1319.1000;0.1319;-0.6159;
1319.4000;0.1286;-0.6208;
1319.7000;0.1311;-0.6233;
1320.0000;0.1286;-0.6258;
1320.3000;0.1311;-0.6258;
1320.6000;0.1278;-0.6283;
1320.9000;0.1327;-0.6159;
1321.2000;0.1294;-0.6233;
1321.5000;0.1359;-0.6084;
1321.8000;0.1319;-0.6208;
1322.1000;0.1319;-0.6208;
1322.4000;0.1254;-0.6258;
1322.7000;0.1319;-0.6109;
1323.0000;0.1327;-0.6059;
1323.3000;0.1278;-0.6233;
1323.6000;0.1294;-0.6134;
1323.9000;0.1359;-0.6009;
1324.2000;0.1311;-0.6184;
1324.5000;0.1302;-0.6184;
1324.8000;0.1294;-0.6233;
1325.1000;0.1286;-0.6333;
1325.4000;0.1327;-0.6184;
1325.7000;0.1319;-0.6109;
1326.0000;0.1294;-0.6084;
1326.3000;0.1302;-0.6109;
1326.6000;0.1319;-0.6034;
1326.9000;0.1294;-0.6059;
1327.2000;0.1294;-0.6034;
1327.5000;0.1294;-0.6134;
1327.8000;0.1351;-0.5934;
1328.1000;0.1302;-0.6034;
1328.4000;0.1294;-0.6134;
1328.7000;0.1311;-0.6134;
1329.0000;0.1319;-0.6084;
1329.3000;0.1368;-0.5984;
1329.6000;0.1319;-0.6109;
1329.9000;0.1327;-0.6059;
1330.2000;0.1205;-0.6258;
1330.5000;0.1319;-0.5884;
1330.8000;0.1319;-0.5959;
1331.1000;0.1294;-0.6059;
1331.4000;0.1319;-0.5959;
1331.7000;0.1302;-0.5909;
1332.0000;0.1327;-0.5909;
1332.3000;0.1302;-0.6059;
1332.6000;0.1286;-0.6009;
1332.9000;0.1302;-0.6059;
1333.2000;0.1286;-0.6109;
1333.5000;0.1286;-0.6059;
1333.8000;0.1302;-0.6059;
1334.1000;0.1294;-0.6159;
1334.4000;0.1278;-0.6233;
1334.7000;0.1294;-0.6233;
1335.0000;0.1262;-0.6283;
1335.3000;0.1294;-0.6134;
1335.6000;0.1286;-0.6084;
1335.9000;0.1302;-0.6109;
1336.2000;0.1311;-0.6233;
1336.5000;0.1319;-0.6159;
1336.8000;0.1311;-0.6333;
1337.1000;0.1335;-0.6308;
1337.4000;0.1270;-0.6483;
1337.7000;0.1311;-0.6383;
1338.0000;0.1294;-0.6408;
1338.3000;0.1311;-0.6308;
1338.6000;0.1302;-0.6258;
1338.9000;0.1294;-0.6258;
1339.2000;0.1319;-0.6134;
1339.5000;0.1302;-0.6109;
1339.8000;0.1319;-0.6084;
1340.1000;0.1302;-0.6059;
1340.4000;0.1294;-0.6134;
1340.7000;0.1311;-0.6159;
1341.0000;0.1278;-0.6134;
1341.3000;0.1327;-0.6134;
1341.6000;0.1311;-0.6258;
1341.9000;0.1278;-0.6383;
1342.2000;0.1319;-0.6283;
1342.5000;0.1294;-0.6333;
1342.8000;0.1319;-0.6184;
1343.1000;0.1286;-0.6184;
1343.4000;0.1302;-0.6184;
1343.7000;0.1286;-0.6233;
1344.0000;0.1278;-0.6184;
1344.3000;0.1278;-0.6134;
1344.6000;0.1311;-0.6109;
1344.9000;0.1400;-0.5884;
1345.2000;0.1302;-0.6109;
1345.5000;0.1262;-0.6159;
1345.8000;0.1286;-0.6084;
1346.1000;0.1311;-0.6059;
1346.4000;0.1351;-0.5934;
1346.7000;0.1335;-0.6009;
1347.0000;0.1254;-0.6159;
1347.3000;0.1270;-0.6109;
1347.6000;0.1302;-0.6009;
1347.9000;0.1327;-0.6034;
1348.2000;0.1319;-0.6009;
1348.5000;0.1311;-0.5984;
1348.8000;0.1311;-0.5984;
1349.1000;0.1319;-0.5959;
1349.4000;0.1319;-0.6059;
1349.7000;0.1319;-0.6009;
1350.0000;0.1302;-0.6184;
1350.3000;0.1319;-0.6109;
1350.6000;0.1311;-0.6159;
1350.9000;0.1311;-0.6159;
1351.2000;0.1319;-0.6134;
1351.5000;0.1302;-0.6208;
1351.8000;0.1270;-0.6308;
1352.1000;0.1311;-0.6184;
1352.4000;0.1302;-0.6159;
1352.7000;0.1335;-0.6134;
1353.0000;0.1327;-0.6084;
1353.3000;0.1327;-0.6009;
1353.6000;0.1319;-0.6134;
1353.9000;0.1311;-0.6184;
1354.2000;0.1286;-0.6333;
1354.5000;0.1311;-0.6258;
1354.8000;0.1311;-0.6233;
1355.1000;0.1319;-0.6208;
1355.4000;0.1311;-0.6208;
1355.7000;0.1302;-0.6184;
1356.0000;0.1319;-0.6134;
1356.3000;0.1311;-0.6208;
1356.6000;0.1294;-0.6258;
1356.9000;0.1294;-0.6308;
1357.2000;0.1311;-0.6233;
1357.5000;0.1311;-0.6208;
1357.8000;0.1311;-0.6109;
1358.1000;0.1311;-0.6034;
1358.4000;0.1286;-0.6084;
1358.7000;0.1335;-0.6009;
1359.0000;0.1311;-0.5984;
1359.3000;0.1286;-0.5959;
1359.6000;0.1311;-0.5834;
1359.9000;0.1278;-0.5909;
1360.2000;0.1302;-0.5909;
1360.5000;0.1294;-0.5834;
1360.8000;0.1335;-0.5810;
1361.1000;0.1302;-0.6009;
1361.4000;0.1286;-0.6084;
1361.7000;0.1335;-0.5984;
1362.0000;0.1392;-0.5834;
1362.3000;0.1311;-0.5984;
1362.6000;0.1311;-0.6009;
1362.9000;0.1319;-0.5984;
1363.2000;0.1416;-0.5785;
1363.5000;0.1302;-0.5984;
1363.8000;0.1319;-0.6009;
1364.1000;0.1213;-0.6308;
1364.4000;0.1294;-0.6059;
1364.7000;0.1351;-0.5934;
1365.0000;0.1302;-0.6084;
1365.3000;0.1302;-0.6134;
1365.6000;0.1311;-0.6059;
1365.9000;0.1327;-0.5934;
1366.2000;0.1319;-0.6009;
1366.5000;0.1294;-0.6084;
1366.8000;0.1302;-0.6109;
1367.1000;0.1302;-0.6109;
1367.4000;0.1262;-0.6258;
1367.7000;0.1319;-0.6084;
1368.0000;0.1311;-0.6109;
1368.3000;0.1335;-0.6084;
1368.6000;0.1319;-0.6159;
1368.9000;0.1384;-0.6034;
1369.2000;0.1270;-0.6308;
1369.5000;0.1319;-0.6109;
1369.8000;0.1319;-0.6084;
1370.1000;0.1335;-0.6134;
1370.4000;0.1245;-0.6333;
1370.7000;0.1311;-0.6258;
1371.0000;0.1278;-0.6308;
1371.3000;0.1302;-0.6208;
1371.6000;0.1270;-0.6233;
1371.9000;0.1319;-0.6134;
1372.2000;0.1302;-0.6134;
1372.5000;0.1319;-0.6084;
1372.8000;0.1302;-0.6184;
1373.1000;0.1311;-0.6184;
1373.4000;0.1311;-0.6109;
1373.7000;0.1319;-0.6134;
1374.0000;0.1294;-0.6233;
1374.3000;0.1302;-0.6258;
1374.6000;0.1286;-0.6283;
1374.9000;0.1286;-0.6333;
1375.2000;0.1270;-0.6333;
1375.5000;0.1302;-0.6159;
1375.8000;0.1286;-0.6184;
1376.1000;0.1311;-0.6184;
1376.4000;0.1311;-0.6184;
1376.7000;0.1245;-0.6233;
1377.0000;0.1327;-0.6084;
1377.3000;0.1335;-0.6009;
1377.6000;0.1302;-0.6034;
1377.9000;0.1302;-0.6134;
1378.2000;0.1286;-0.6208;
1378.5000;0.1294;-0.6009;
1378.8000;0.1302;-0.5934;
1379.1000;0.1302;-0.5984;
1379.4000;0.1294;-0.6159;
1379.7000;0.1311;-0.6159;
1380.0000;0.1335;-0.6034;
1380.3000;0.1335;-0.5934;
1380.6000;0.1302;-0.6034;
1380.9000;0.1311;-0.6059;
1381.2000;0.1302;-0.6159;
1381.5000;0.1327;-0.6109;
1381.8000;0.1302;-0.6159;
1382.1000;0.1319;-0.6109;
1382.4000;0.1302;-0.6134;
1382.7000;0.1311;-0.6034;
1383.0000;0.1270;-0.6159;
1383.3000;0.1351;-0.5909;
1383.6000;0.1368;-0.5909;
1383.9000;0.1335;-0.5959;
1384.2000;0.1286;-0.6059;
1384.5000;0.1294;-0.6134;
1384.8000;0.1311;-0.6109;
1385.1000;0.1294;-0.6159;
1385.4000;0.1302;-0.6308;
1385.7000;0.1311;-0.6333;
1386.0000;0.1294;-0.6433;
1386.3000;0.1319;-0.6408;
1386.6000;0.1335;-0.6258;
1386.9000;0.1311;-0.6258;
1387.2000;0.1311;-0.6258;
1387.5000;0.1327;-0.6208;
1387.8000;0.1311;-0.6134;
1388.1000;0.1327;-0.6109;
1388.4000;0.1294;-0.6159;
1388.7000;0.1294;-0.6159;
1389.0000;0.1294;-0.6159;
1389.3000;0.1319;-0.6134;
1389.6000;0.1294;-0.6109;
1389.9000;0.1294;-0.6084;
1390.2000;0.1343;-0.5984;
1390.5000;0.1319;-0.6184;
1390.8000;0.1294;-0.6308;
1391.1000;0.1172;-0.6607;
1391.4000;0.1311;-0.6233;
1391.7000;0.1302;-0.6358;
1392.0000;0.1213;-0.6508;
1392.3000;0.1311;-0.6308;
1392.6000;0.1327;-0.6308;
1392.9000;0.1294;-0.6258;
1393.2000;0.1384;-0.6084;
1393.5000;0.1294;-0.6283;
1393.8000;0.1311;-0.6308;
1394.1000;0.1237;-0.6458;
1394.4000;0.1302;-0.6333;
1394.7000;0.1311;-0.6408;
1395.0000;0.1327;-0.6483;
1395.3000;0.1319;-0.6383;
1395.6000;0.1302;-0.6408;
1395.9000;0.1319;-0.6408;
1396.2000;0.1311;-0.6458;
1396.5000;0.1302;-0.6383;
1396.8000;0.1302;-0.6458;
1397.1000;0.1286;-0.6433;
1397.4000;0.1294;-0.6333;
1397.7000;0.1311;-0.6258;
1398.0000;0.1359;-0.6059;
1398.3000;0.1302;-0.6333;
1398.6000;0.1302;-0.6308;
1398.9000;0.1286;-0.6458;
1399.2000;0.1376;-0.6283;
1399.5000;0.1311;-0.6458;
1399.8000;0.1319;-0.6458;
