time/ms;Fluo/V;P700 deltaI/I x10³;
-199.8000;0.1302;-0.5211;
-199.5000;0.1311;-0.5136;
-199.2000;0.1294;-0.5161;
-198.9000;0.1221;-0.5411;
-198.6000;0.1311;-0.5186;
-198.3000;0.1327;-0.5086;
-198.0000;0.1327;-0.5062;
-197.7000;0.1311;-0.5161;
-197.4000;0.1311;-0.5161;
-197.1000;0.1327;-0.5186;
-196.8000;0.1319;-0.5286;
-196.5000;0.1311;-0.5261;
-196.2000;0.1311;-0.5236;
-195.9000;0.1335;-0.5111;
-195.6000;0.1302;-0.5236;
-195.3000;0.1302;-0.5236;
-195.0000;0.1311;-0.5286;
-194.7000;0.1319;-0.5186;
-194.4000;0.1376;-0.5062;
-194.1000;0.1278;-0.5286;
-193.8000;0.1294;-0.5336;
-193.5000;0.1294;-0.5411;
-193.2000;0.1319;-0.5261;
-192.9000;0.1327;-0.5186;
-192.6000;0.1335;-0.5186;
-192.3000;0.1359;-0.5211;
-192.0000;0.1302;-0.5411;
-191.7000;0.1311;-0.5336;
-191.4000;0.1302;-0.5336;
-191.1000;0.1302;-0.5411;
-190.8000;0.1311;-0.5411;
-190.5000;0.1319;-0.5436;
-190.2000;0.1319;-0.5535;
-189.9000;0.1327;-0.5436;
-189.6000;0.1343;-0.5336;
-189.3000;0.1335;-0.5411;
-189.0000;0.1319;-0.5386;
-188.7000;0.1311;-0.5361;
-188.4000;0.1335;-0.5286;
-188.1000;0.1294;-0.5361;
-187.8000;0.1319;-0.5161;
-187.5000;0.1311;-0.5286;
-187.2000;0.1294;-0.5311;
-186.9000;0.1294;-0.5261;
-186.6000;0.1319;-0.5261;
-186.3000;0.1311;-0.5186;
-186.0000;0.1302;-0.5161;
-185.7000;0.1319;-0.5236;
-185.4000;0.1327;-0.5286;
-185.1000;0.1302;-0.5386;
-184.8000;0.1302;-0.5411;
-184.5000;0.1327;-0.5236;
-184.2000;0.1302;-0.5336;
-183.9000;0.1319;-0.5386;
-183.6000;0.1327;-0.5485;
-183.3000;0.1319;-0.5610;
-183.0000;0.1254;-0.5760;
-182.7000;0.1416;-0.5386;
-182.4000;0.1319;-0.5635;
-182.1000;0.1335;-0.5560;
-181.8000;0.1140;-0.5984;
-181.5000;0.1335;-0.5411;
-181.2000;0.1400;-0.5211;
-180.9000;0.1302;-0.5411;
-180.6000;0.1286;-0.5386;
-180.3000;0.1327;-0.5386;
-180.0000;0.1319;-0.5361;
-179.7000;0.1311;-0.5460;
-179.4000;0.1335;-0.5411;
-179.1000;0.1335;-0.5386;
-178.8000;0.1311;-0.5485;
-178.5000;0.1311;-0.5485;
-178.2000;0.1311;-0.5535;
-177.9000;0.1327;-0.5485;
-177.6000;0.1319;-0.5510;
-177.3000;0.1319;-0.5610;
-177.0000;0.1343;-0.5510;
-176.7000;0.1335;-0.5485;
-176.4000;0.1351;-0.5411;
-176.1000;0.1311;-0.5460;
-175.8000;0.1319;-0.5510;
-175.5000;0.1286;-0.5510;
-175.2000;0.1335;-0.5411;
-174.9000;0.1327;-0.5460;
-174.6000;0.1311;-0.5510;
-174.3000;0.1343;-0.5510;
-174.0000;0.1319;-0.5485;
-173.7000;0.1343;-0.5336;
-173.4000;0.1311;-0.5286;
-173.1000;0.1311;-0.5236;
-172.8000;0.1311;-0.5211;
-172.5000;0.1294;-0.5286;
-172.2000;0.1302;-0.5411;
-171.9000;0.1278;-0.5535;
-171.6000;0.1311;-0.5460;
-171.3000;0.1319;-0.5485;
-171.0000;0.1270;-0.5635;
-170.7000;0.1294;-0.5610;
-170.4000;0.1278;-0.5610;
-170.1000;0.1359;-0.5510;
-169.8000;0.1294;-0.5585;
-169.5000;0.1311;-0.5460;
-169.2000;0.1302;-0.5411;
-168.9000;0.1311;-0.5535;
-168.6000;0.1311;-0.5560;
-168.3000;0.1302;-0.5685;
-168.0000;0.1319;-0.5585;
-167.7000;0.1327;-0.5535;
-167.4000;0.1311;-0.5610;
-167.1000;0.1278;-0.5585;
-166.8000;0.1237;-0.5685;
-166.5000;0.1302;-0.5610;
-166.2000;0.1302;-0.5610;
-165.9000;0.1319;-0.5585;
-165.6000;0.1286;-0.5560;
-165.3000;0.1319;-0.5411;
-165.0000;0.1294;-0.5460;
-164.7000;0.1302;-0.5560;
-164.4000;0.1294;-0.5760;
-164.1000;0.1302;-0.5785;
-163.8000;0.1270;-0.5834;
-163.5000;0.1294;-0.5735;
-163.2000;0.1343;-0.5610;
-162.9000;0.1311;-0.5710;
-162.6000;0.1343;-0.5610;
-162.3000;0.1245;-0.5810;
-162.0000;0.1294;-0.5610;
-161.7000;0.1343;-0.5510;
-161.4000;0.1294;-0.5535;
-161.1000;0.1302;-0.5510;
-160.8000;0.1359;-0.5286;
-160.5000;0.1311;-0.5336;
-160.2000;0.1319;-0.5361;
-159.9000;0.1302;-0.5560;
-159.6000;0.1319;-0.5485;
-159.3000;0.1270;-0.5560;
-159.0000;0.1302;-0.5411;
-158.7000;0.1327;-0.5386;
-158.4000;0.1319;-0.5411;
-158.1000;0.1302;-0.5535;
-157.8000;0.1319;-0.5510;
-157.5000;0.1319;-0.5560;
-157.2000;0.1327;-0.5535;
-156.9000;0.1400;-0.5361;
-156.6000;0.1302;-0.5610;
-156.3000;0.1286;-0.5685;
-156.0000;0.1302;-0.5710;
-155.7000;0.1294;-0.5660;
-155.4000;0.1311;-0.5585;
-155.1000;0.1319;-0.5585;
-154.8000;0.1319;-0.5510;
-154.5000;0.1302;-0.5510;
-154.2000;0.1311;-0.5411;
-153.9000;0.1327;-0.5436;
-153.6000;0.1286;-0.5485;
-153.3000;0.1343;-0.5460;
-153.0000;0.1294;-0.5485;
-152.7000;0.1335;-0.5386;
-152.4000;0.1335;-0.5386;
-152.1000;0.1270;-0.5535;
-151.8000;0.1311;-0.5436;
-151.5000;0.1335;-0.5411;
-151.2000;0.1319;-0.5386;
-150.9000;0.1327;-0.5460;
-150.6000;0.1311;-0.5560;
-150.3000;0.1262;-0.5660;
-150.0000;0.1359;-0.5411;
-149.7000;0.1327;-0.5436;
-149.4000;0.1319;-0.5361;
-149.1000;0.1286;-0.5386;
-148.8000;0.1335;-0.5211;
-148.5000;0.1286;-0.5286;
-148.2000;0.1335;-0.5161;
-147.9000;0.1327;-0.5211;
-147.6000;0.1327;-0.5086;
-147.3000;0.1327;-0.5062;
-147.0000;0.1335;-0.5086;
-146.7000;0.1335;-0.5186;
-146.4000;0.1302;-0.5236;
-146.1000;0.1270;-0.5436;
-145.8000;0.1286;-0.5411;
-145.5000;0.1319;-0.5311;
-145.2000;0.1286;-0.5411;
-144.9000;0.1327;-0.5311;
-144.6000;0.1302;-0.5386;
-144.3000;0.1302;-0.5436;
-144.0000;0.1311;-0.5336;
-143.7000;0.1327;-0.5336;
-143.4000;0.1327;-0.5311;
-143.1000;0.1335;-0.5311;
-142.8000;0.1302;-0.5386;
-142.5000;0.1319;-0.5311;
-142.2000;0.1327;-0.5236;
-141.9000;0.1311;-0.5236;
-141.6000;0.1343;-0.5286;
-141.3000;0.1302;-0.5311;
-141.0000;0.1311;-0.5261;
-140.7000;0.1311;-0.5261;
-140.4000;0.1302;-0.5336;
-140.1000;0.1302;-0.5386;
-139.8000;0.1311;-0.5311;
-139.5000;0.1335;-0.5261;
-139.2000;0.1368;-0.5186;
-138.9000;0.1319;-0.5361;
-138.6000;0.1343;-0.5311;
-138.3000;0.1302;-0.5386;
-138.0000;0.1311;-0.5411;
-137.7000;0.1294;-0.5510;
-137.4000;0.1335;-0.5485;
-137.1000;0.1311;-0.5411;
-136.8000;0.1286;-0.5436;
-136.5000;0.1294;-0.5436;
-136.2000;0.1351;-0.5386;
-135.9000;0.1335;-0.5411;
-135.6000;0.1400;-0.5136;
-135.3000;0.1278;-0.5485;
-135.0000;0.1286;-0.5460;
-134.7000;0.1319;-0.5411;
-134.4000;0.1311;-0.5460;
-134.1000;0.1368;-0.5261;
-133.8000;0.1311;-0.5485;
-133.5000;0.1294;-0.5535;
-133.2000;0.1286;-0.5610;
-132.9000;0.1311;-0.5460;
-132.6000;0.1327;-0.5386;
-132.3000;0.1254;-0.5635;
-132.0000;0.1270;-0.5735;
-131.7000;0.1302;-0.5585;
-131.4000;0.1286;-0.5710;
-131.1000;0.1392;-0.5411;
-130.8000;0.1311;-0.5610;
-130.5000;0.1335;-0.5610;
-130.2000;0.1294;-0.5735;
-129.9000;0.1294;-0.5685;
-129.6000;0.1254;-0.5735;
-129.3000;0.1319;-0.5535;
-129.0000;0.1311;-0.5510;
-128.7000;0.1319;-0.5436;
-128.4000;0.1237;-0.5660;
-128.1000;0.1311;-0.5436;
-127.8000;0.1327;-0.5460;
-127.5000;0.1302;-0.5460;
-127.2000;0.1302;-0.5436;
-126.9000;0.1319;-0.5386;
-126.6000;0.1311;-0.5411;
-126.3000;0.1311;-0.5286;
-126.0000;0.1311;-0.5336;
-125.7000;0.1311;-0.5386;
-125.4000;0.1302;-0.5411;
-125.1000;0.1311;-0.5510;
-124.8000;0.1319;-0.5535;
-124.5000;0.1335;-0.5510;
-124.2000;0.1319;-0.5510;
-123.9000;0.1343;-0.5485;
-123.6000;0.1335;-0.5485;
-123.3000;0.1319;-0.5560;
-123.0000;0.1311;-0.5585;
-122.7000;0.1311;-0.5585;
-122.4000;0.1302;-0.5535;
-122.1000;0.1278;-0.5635;
-121.8000;0.1302;-0.5660;
-121.5000;0.1311;-0.5635;
-121.2000;0.1294;-0.5635;
-120.9000;0.1319;-0.5585;
-120.6000;0.1294;-0.5560;
-120.3000;0.1294;-0.5460;
-120.0000;0.1335;-0.5286;
-119.7000;0.1327;-0.5311;
-119.4000;0.1335;-0.5336;
-119.1000;0.1327;-0.5261;
-118.8000;0.1311;-0.5386;
-118.5000;0.1319;-0.5336;
-118.2000;0.1449;-0.5161;
-117.9000;0.1327;-0.5436;
-117.6000;0.1311;-0.5436;
-117.3000;0.1278;-0.5510;
-117.0000;0.1311;-0.5535;
-116.7000;0.1302;-0.5485;
-116.4000;0.1294;-0.5436;
-116.1000;0.1311;-0.5311;
-115.8000;0.1319;-0.5311;
-115.5000;0.1237;-0.5535;
-115.2000;0.1368;-0.5336;
-114.9000;0.1319;-0.5535;
-114.6000;0.1327;-0.5510;
-114.3000;0.1335;-0.5336;
-114.0000;0.1319;-0.5311;
-113.7000;0.1302;-0.5286;
-113.4000;0.1327;-0.5261;
-113.1000;0.1319;-0.5311;
-112.8000;0.1302;-0.5336;
-112.5000;0.1319;-0.5361;
-112.2000;0.1343;-0.5361;
-111.9000;0.1327;-0.5261;
-111.6000;0.1327;-0.5211;
-111.3000;0.1294;-0.5336;
-111.0000;0.1319;-0.5411;
-110.7000;0.1368;-0.5261;
-110.4000;0.1335;-0.5311;
-110.1000;0.1359;-0.5261;
-109.8000;0.1311;-0.5361;
-109.5000;0.1286;-0.5361;
-109.2000;0.1270;-0.5286;
-108.9000;0.1302;-0.5186;
-108.6000;0.1302;-0.5261;
-108.3000;0.1311;-0.5236;
-108.0000;0.1319;-0.5211;
-107.7000;0.1319;-0.5261;
-107.4000;0.1319;-0.5286;
-107.1000;0.1294;-0.5311;
-106.8000;0.1319;-0.5361;
-106.5000;0.1311;-0.5411;
-106.2000;0.1319;-0.5560;
-105.9000;0.1319;-0.5560;
-105.6000;0.1302;-0.5585;
-105.3000;0.1335;-0.5336;
-105.0000;0.1311;-0.5361;
-104.7000;0.1311;-0.5261;
-104.4000;0.1319;-0.5261;
-104.1000;0.1319;-0.5261;
-103.8000;0.1294;-0.5411;
-103.5000;0.1262;-0.5411;
-103.2000;0.1302;-0.5386;
-102.9000;0.1294;-0.5436;
-102.6000;0.1335;-0.5336;
-102.3000;0.1302;-0.5386;
-102.0000;0.1302;-0.5336;
-101.7000;0.1302;-0.5261;
-101.4000;0.1319;-0.5136;
-101.1000;0.1286;-0.5211;
-100.8000;0.1311;-0.5161;
-100.5000;0.1262;-0.5386;
-100.2000;0.1302;-0.5386;
-99.9000;0.1319;-0.5411;
-99.6000;0.1327;-0.5336;
-99.3000;0.1311;-0.5261;
-99.0000;0.1335;-0.5136;
-98.7000;0.1311;-0.5136;
-98.4000;0.1327;-0.5111;
-98.1000;0.1294;-0.5186;
-97.8000;0.1319;-0.5186;
-97.5000;0.1327;-0.5261;
-97.2000;0.1400;-0.5161;
-96.9000;0.1335;-0.5311;
-96.6000;0.1319;-0.5211;
-96.3000;0.1302;-0.5186;
-96.0000;0.1311;-0.5286;
-95.7000;0.1311;-0.5311;
-95.4000;0.1327;-0.5261;
-95.1000;0.1335;-0.5161;
-94.8000;0.1319;-0.5336;
-94.5000;0.1302;-0.5411;
-94.2000;0.1368;-0.5261;
-93.9000;0.1327;-0.5411;
-93.6000;0.1311;-0.5460;
-93.3000;0.1327;-0.5460;
-93.0000;0.1319;-0.5535;
-92.7000;0.1319;-0.5386;
-92.4000;0.1335;-0.5460;
-92.1000;0.1311;-0.5460;
-91.8000;0.1319;-0.5460;
-91.5000;0.1221;-0.5635;
-91.2000;0.1294;-0.5411;
-90.9000;0.1302;-0.5361;
-90.6000;0.1351;-0.5186;
-90.3000;0.1311;-0.5261;
-90.0000;0.1262;-0.5361;
-89.7000;0.1294;-0.5361;
-89.4000;0.1319;-0.5386;
-89.1000;0.1327;-0.5311;
-88.8000;0.1245;-0.5535;
-88.5000;0.1254;-0.5485;
-88.2000;0.1319;-0.5236;
-87.9000;0.1278;-0.5336;
-87.6000;0.1311;-0.5236;
-87.3000;0.1319;-0.5286;
-87.0000;0.1270;-0.5460;
-86.7000;0.1311;-0.5411;
-86.4000;0.1311;-0.5361;
-86.1000;0.1294;-0.5386;
-85.8000;0.1302;-0.5361;
-85.5000;0.1302;-0.5336;
-85.2000;0.1319;-0.5286;
-84.9000;0.1302;-0.5336;
-84.6000;0.1294;-0.5336;
-84.3000;0.1294;-0.5510;
-84.0000;0.1311;-0.5436;
-83.7000;0.1302;-0.5386;
-83.4000;0.1302;-0.5336;
-83.1000;0.1302;-0.5236;
-82.8000;0.1319;-0.5086;
-82.5000;0.1319;-0.5261;
-82.2000;0.1327;-0.5361;
-81.9000;0.1319;-0.5460;
-81.6000;0.1335;-0.5311;
-81.3000;0.1311;-0.5510;
-81.0000;0.1343;-0.5585;
-80.7000;0.1302;-0.5710;
-80.4000;0.1311;-0.5710;
-80.1000;0.1302;-0.5660;
-79.8000;0.1319;-0.5585;
-79.5000;0.1327;-0.5485;
-79.2000;0.1294;-0.5560;
-78.9000;0.1311;-0.5460;
-78.6000;0.1311;-0.5460;
-78.3000;0.1319;-0.5361;
-78.0000;0.1335;-0.5311;
-77.7000;0.1319;-0.5386;
-77.4000;0.1302;-0.5460;
-77.1000;0.1319;-0.5411;
-76.8000;0.1319;-0.5436;
-76.5000;0.1319;-0.5436;
-76.2000;0.1311;-0.5361;
-75.9000;0.1311;-0.5460;
-75.6000;0.1335;-0.5485;
-75.3000;0.1319;-0.5510;
-75.0000;0.1270;-0.5660;
-74.7000;0.1302;-0.5610;
-74.4000;0.1302;-0.5560;
-74.1000;0.1327;-0.5510;
-73.8000;0.1327;-0.5386;
-73.5000;0.1311;-0.5361;
-73.2000;0.1368;-0.5286;
-72.9000;0.1335;-0.5361;
-72.6000;0.1343;-0.5336;
-72.3000;0.1327;-0.5311;
-72.0000;0.1302;-0.5386;
-71.7000;0.1335;-0.5336;
-71.4000;0.1359;-0.5286;
-71.1000;0.1335;-0.5386;
-70.8000;0.1319;-0.5460;
-70.5000;0.1294;-0.5535;
-70.2000;0.1221;-0.5635;
-69.9000;0.1335;-0.5485;
-69.6000;0.1311;-0.5485;
-69.3000;0.1311;-0.5535;
-69.0000;0.1311;-0.5535;
-68.7000;0.1327;-0.5411;
-68.4000;0.1311;-0.5535;
-68.1000;0.1319;-0.5386;
-67.8000;0.1302;-0.5361;
-67.5000;0.1327;-0.5361;
-67.2000;0.1335;-0.5386;
-66.9000;0.1335;-0.5361;
-66.6000;0.1311;-0.5460;
-66.3000;0.1311;-0.5485;
-66.0000;0.1351;-0.5386;
-65.7000;0.1376;-0.5386;
-65.4000;0.1294;-0.5510;
-65.1000;0.1311;-0.5485;
-64.8000;0.1311;-0.5485;
-64.5000;0.1319;-0.5510;
-64.2000;0.1335;-0.5510;
-63.9000;0.1327;-0.5485;
-63.6000;0.1343;-0.5510;
-63.3000;0.1335;-0.5510;
-63.0000;0.1302;-0.5560;
-62.7000;0.1343;-0.5436;
-62.4000;0.1343;-0.5460;
-62.1000;0.1319;-0.5510;
-61.8000;0.1311;-0.5460;
-61.5000;0.1327;-0.5436;
-61.2000;0.1319;-0.5485;
-60.9000;0.1319;-0.5336;
-60.6000;0.1254;-0.5460;
-60.3000;0.1311;-0.5186;
-60.0000;0.1302;-0.5311;
-59.7000;0.1311;-0.5286;
-59.4000;0.1319;-0.5261;
-59.1000;0.1319;-0.5336;
-58.8000;0.1311;-0.5361;
-58.5000;0.1302;-0.5411;
-58.2000;0.1311;-0.5286;
-57.9000;0.1335;-0.5311;
-57.6000;0.1319;-0.5361;
-57.3000;0.1294;-0.5361;
-57.0000;0.1351;-0.5236;
-56.7000;0.1327;-0.5411;
-56.4000;0.1302;-0.5485;
-56.1000;0.1327;-0.5386;
-55.8000;0.1319;-0.5411;
-55.5000;0.1270;-0.5485;
-55.2000;0.1302;-0.5436;
-54.9000;0.1237;-0.5535;
-54.6000;0.1319;-0.5386;
-54.3000;0.1311;-0.5460;
-54.0000;0.1327;-0.5510;
-53.7000;0.1327;-0.5460;
-53.4000;0.1359;-0.5386;
-53.1000;0.1302;-0.5436;
-52.8000;0.1319;-0.5361;
-52.5000;0.1278;-0.5460;
-52.2000;0.1319;-0.5436;
-51.9000;0.1311;-0.5436;
-51.6000;0.1270;-0.5460;
-51.3000;0.1319;-0.5386;
-51.0000;0.1262;-0.5560;
-50.7000;0.1311;-0.5610;
-50.4000;0.1278;-0.5685;
-50.1000;0.1368;-0.5386;
-49.8000;0.1311;-0.5485;
-49.5000;0.1302;-0.5510;
-49.2000;0.1319;-0.5436;
-48.9000;0.1294;-0.5460;
-48.6000;0.1302;-0.5411;
-48.3000;0.1294;-0.5460;
-48.0000;0.1302;-0.5485;
-47.7000;0.1302;-0.5485;
-47.4000;0.1278;-0.5485;
-47.1000;0.1408;-0.5186;
-46.8000;0.1278;-0.5535;
-46.5000;0.1319;-0.5460;
-46.2000;0.1311;-0.5460;
-45.9000;0.1335;-0.5386;
-45.6000;0.1335;-0.5386;
-45.3000;0.1302;-0.5560;
-45.0000;0.1302;-0.5610;
-44.7000;0.1327;-0.5635;
-44.4000;0.1351;-0.5485;
-44.1000;0.1294;-0.5685;
-43.8000;0.1319;-0.5610;
-43.5000;0.1319;-0.5660;
-43.2000;0.1335;-0.5685;
-42.9000;0.1311;-0.5685;
-42.6000;0.1311;-0.5610;
-42.3000;0.1335;-0.5560;
-42.0000;0.1286;-0.5710;
-41.7000;0.1335;-0.5585;
-41.4000;0.1319;-0.5660;
-41.1000;0.1245;-0.5810;
-40.8000;0.1351;-0.5411;
-40.5000;0.1335;-0.5361;
-40.2000;0.1302;-0.5535;
-39.9000;0.1319;-0.5510;
-39.6000;0.1270;-0.5635;
-39.3000;0.1351;-0.5460;
-39.0000;0.1294;-0.5660;
-38.7000;0.1294;-0.5660;
-38.4000;0.1311;-0.5635;
-38.1000;0.1221;-0.5959;
-37.8000;0.1262;-0.5810;
-37.5000;0.1319;-0.5635;
-37.2000;0.1327;-0.5660;
-36.9000;0.1319;-0.5660;
-36.6000;0.1319;-0.5635;
-36.3000;0.1294;-0.5710;
-36.0000;0.1319;-0.5535;
-35.7000;0.1311;-0.5585;
-35.4000;0.1319;-0.5610;
-35.1000;0.1327;-0.5560;
-34.8000;0.1286;-0.5635;
-34.5000;0.1311;-0.5535;
-34.2000;0.1311;-0.5585;
-33.9000;0.1302;-0.5710;
-33.6000;0.1327;-0.5635;
-33.3000;0.1302;-0.5660;
-33.0000;0.1319;-0.5610;
-32.7000;0.1302;-0.5610;
-32.4000;0.1302;-0.5685;
-32.1000;0.1311;-0.5760;
-31.8000;0.1319;-0.5635;
-31.5000;0.1311;-0.5560;
-31.2000;0.1302;-0.5585;
-30.9000;0.1319;-0.5485;
-30.6000;0.1319;-0.5535;
-30.3000;0.1351;-0.5535;
-30.0000;0.1319;-0.5585;
-29.7000;0.1327;-0.5560;
-29.4000;0.1294;-0.5535;
-29.1000;0.1278;-0.5560;
-28.8000;0.1302;-0.5510;
-28.5000;0.1311;-0.5535;
-28.2000;0.1327;-0.5560;
-27.9000;0.1335;-0.5510;
-27.6000;0.1327;-0.5560;
-27.3000;0.1319;-0.5585;
-27.0000;0.1286;-0.5635;
-26.7000;0.1319;-0.5635;
-26.4000;0.1319;-0.5685;
-26.1000;0.1294;-0.5785;
-25.8000;0.1368;-0.5560;
-25.5000;0.1319;-0.5685;
-25.2000;0.1311;-0.5585;
-24.9000;0.1294;-0.5635;
-24.6000;0.1327;-0.5585;
-24.3000;0.1302;-0.5610;
-24.0000;0.1302;-0.5585;
-23.7000;0.1327;-0.5510;
-23.4000;0.1311;-0.5510;
-23.1000;0.1335;-0.5436;
-22.8000;0.1311;-0.5585;
-22.5000;0.1376;-0.5286;
-22.2000;0.1319;-0.5485;
-21.9000;0.1294;-0.5485;
-21.6000;0.1254;-0.5535;
-21.3000;0.1270;-0.5485;
-21.0000;0.1294;-0.5535;
-20.7000;0.1294;-0.5460;
-20.4000;0.1278;-0.5361;
-20.1000;0.1319;-0.5261;
-19.8000;0.1311;-0.5236;
-19.5000;0.1319;-0.5136;
-19.2000;0.1351;-0.5037;
-18.9000;0.1286;-0.5286;
-18.6000;0.1311;-0.5211;
-18.3000;0.1286;-0.5211;
-18.0000;0.1319;-0.5086;
-17.7000;0.1319;-0.5186;
-17.4000;0.1343;-0.5211;
-17.1000;0.1384;-0.5111;
-16.8000;0.1319;-0.5111;
-16.5000;0.1319;-0.4987;
-16.2000;0.1319;-0.4987;
-15.9000;0.1294;-0.5211;
-15.6000;0.1302;-0.5311;
-15.3000;0.1245;-0.5485;
-15.0000;0.1327;-0.5411;
-14.7000;0.1245;-0.5635;
-14.4000;0.1319;-0.5386;
-14.1000;0.1319;-0.5386;
-13.8000;0.1327;-0.5411;
-13.5000;0.1286;-0.5485;
-13.2000;0.1302;-0.5436;
-12.9000;0.1294;-0.5411;
-12.6000;0.1302;-0.5361;
-12.3000;0.1319;-0.5436;
-12.0000;0.1254;-0.5585;
-11.7000;0.1319;-0.5411;
-11.4000;0.1270;-0.5510;
-11.1000;0.1302;-0.5460;
-10.8000;0.1294;-0.5585;
-10.5000;0.1302;-0.5436;
-10.2000;0.1302;-0.5460;
-9.9000;0.1319;-0.5535;
-9.6000;0.1302;-0.5535;
-9.3000;0.1311;-0.5460;
-9.0000;0.1319;-0.5436;
-8.7000;0.1319;-0.5311;
-8.4000;0.1311;-0.5286;
-8.1000;0.1319;-0.5336;
-7.8000;0.1302;-0.5336;
-7.5000;0.1319;-0.5286;
-7.2000;0.1311;-0.5361;
-6.9000;0.1302;-0.5411;
-6.6000;0.1327;-0.5386;
-6.3000;0.1302;-0.5411;
-6.0000;0.1327;-0.5261;
-5.7000;0.1302;-0.5311;
-5.4000;0.1311;-0.5286;
-5.1000;0.1311;-0.5411;
-4.8000;0.1294;-0.5411;
-4.5000;0.1335;-0.5311;
-4.2000;0.1278;-0.5386;
-3.9000;0.1335;-0.5311;
-3.6000;0.1311;-0.5386;
-3.3000;0.1311;-0.5411;
-3.0000;0.1319;-0.5436;
-2.7000;0.1294;-0.5411;
-2.4000;0.1311;-0.5361;
-2.1000;0.1319;-0.5361;
-1.8000;0.1319;-0.5411;
-1.5000;0.1319;-0.5411;
-1.2000;0.1327;-0.5386;
-0.9000;0.1327;-0.5336;
-0.6000;0.1286;-0.5436;
-0.3000;0.1270;-0.5535;
0.0000;0.1270;-0.5535;
0.3000;0.1319;-0.5660;
0.6000;0.1327;-0.5261;
0.9000;0.1400;-0.4887;
1.2000;0.1408;-0.4663;
1.5000;0.1359;-0.4538;
1.8000;0.1416;-0.4089;
2.1000;0.1408;-0.3890;
2.4000;0.1433;-0.3790;
2.7000;0.1441;-0.3566;
3.0000;0.1408;-0.3466;
3.3000;0.1449;-0.3291;
3.6000;0.1506;-0.3067;
3.9000;0.1538;-0.2793;
4.2000;0.1465;-0.2942;
4.5000;0.1465;-0.2867;
4.8000;0.1465;-0.2793;
5.1000;0.1465;-0.2768;
5.4000;0.1465;-0.2768;
5.7000;0.1498;-0.2693;
6.0000;0.1481;-0.2793;
6.3000;0.1498;-0.2793;
6.6000;0.1506;-0.2718;
6.9000;0.1490;-0.2693;
7.2000;0.1498;-0.2668;
7.5000;0.1481;-0.2668;
7.8000;0.1481;-0.2618;
8.1000;0.1514;-0.2593;
8.4000;0.1425;-0.2818;
8.7000;0.1481;-0.2618;
9.0000;0.1498;-0.2593;
9.3000;0.1490;-0.2593;
9.6000;0.1481;-0.2618;
9.9000;0.1473;-0.2668;
10.2000;0.1441;-0.2718;
10.5000;0.1481;-0.2593;
10.8000;0.1481;-0.2593;
11.1000;0.1473;-0.2643;
11.4000;0.1481;-0.2618;
11.7000;0.1481;-0.2593;
12.0000;0.1473;-0.2593;
12.3000;0.1490;-0.2518;
12.6000;0.1490;-0.2468;
12.9000;0.1481;-0.2543;
13.2000;0.1481;-0.2568;
13.5000;0.1473;-0.2543;
13.8000;0.1481;-0.2568;
14.1000;0.1490;-0.2593;
14.4000;0.1465;-0.2643;
14.7000;0.1498;-0.2493;
15.0000;0.1498;-0.2518;
15.3000;0.1498;-0.2468;
15.6000;0.1481;-0.2444;
15.9000;0.1473;-0.2444;
16.2000;0.1498;-0.2419;
16.5000;0.1441;-0.2518;
16.8000;0.1506;-0.2319;
17.1000;0.1506;-0.2369;
17.4000;0.1441;-0.2518;
17.7000;0.1498;-0.2394;
18.0000;0.1490;-0.2319;
18.3000;0.1498;-0.2319;
18.6000;0.1481;-0.2394;
18.9000;0.1498;-0.2319;
19.2000;0.1547;-0.2269;
19.5000;0.1481;-0.2468;
19.8000;0.1490;-0.2468;
20.1000;0.1506;-0.2543;
20.4000;0.1433;-0.2668;
20.7000;0.1473;-0.2568;
21.0000;0.1481;-0.2518;
21.3000;0.1563;-0.2394;
21.6000;0.1416;-0.2842;
21.9000;0.1506;-0.2668;
22.2000;0.1473;-0.2743;
22.5000;0.1473;-0.2668;
22.8000;0.1481;-0.2643;
23.1000;0.1473;-0.2668;
23.4000;0.1538;-0.2493;
23.7000;0.1473;-0.2618;
24.0000;0.1506;-0.2468;
24.3000;0.1473;-0.2543;
24.6000;0.1481;-0.2493;
24.9000;0.1481;-0.2518;
25.2000;0.1481;-0.2518;
25.5000;0.1481;-0.2543;
25.8000;0.1473;-0.2568;
26.1000;0.1465;-0.2568;
26.4000;0.1481;-0.2394;
26.7000;0.1506;-0.2394;
27.0000;0.1498;-0.2444;
27.3000;0.1506;-0.2419;
27.6000;0.1481;-0.2493;
27.9000;0.1498;-0.2344;
28.2000;0.1514;-0.2269;
28.5000;0.1530;-0.2269;
28.8000;0.1498;-0.2369;
29.1000;0.1449;-0.2493;
29.4000;0.1481;-0.2493;
29.7000;0.1490;-0.2468;
30.0000;0.1481;-0.2468;
30.3000;0.1498;-0.2419;
30.6000;0.1490;-0.2394;
30.9000;0.1481;-0.2444;
31.2000;0.1506;-0.2319;
31.5000;0.1449;-0.2493;
31.8000;0.1481;-0.2444;
32.1000;0.1538;-0.2294;
32.4000;0.1473;-0.2518;
32.7000;0.1481;-0.2444;
33.0000;0.1490;-0.2344;
33.3000;0.1506;-0.2294;
33.6000;0.1457;-0.2369;
33.9000;0.1490;-0.2194;
34.2000;0.1506;-0.2119;
34.5000;0.1473;-0.2144;
34.8000;0.1506;-0.2094;
35.1000;0.1490;-0.2194;
35.4000;0.1522;-0.2219;
35.7000;0.1514;-0.2319;
36.0000;0.1506;-0.2394;
36.3000;0.1514;-0.2468;
36.6000;0.1490;-0.2468;
36.9000;0.1490;-0.2394;
37.2000;0.1490;-0.2419;
37.5000;0.1547;-0.2344;
37.8000;0.1481;-0.2468;
38.1000;0.1490;-0.2493;
38.4000;0.1490;-0.2419;
38.7000;0.1449;-0.2518;
39.0000;0.1473;-0.2444;
39.3000;0.1490;-0.2394;
39.6000;0.1473;-0.2419;
39.9000;0.1481;-0.2344;
40.2000;0.1506;-0.2394;
40.5000;0.1498;-0.2419;
40.8000;0.1498;-0.2419;
41.1000;0.1498;-0.2369;
41.4000;0.1481;-0.2419;
41.7000;0.1498;-0.2369;
42.0000;0.1490;-0.2444;
42.3000;0.1506;-0.2468;
42.6000;0.1465;-0.2618;
42.9000;0.1530;-0.2394;
43.2000;0.1514;-0.2369;
43.5000;0.1555;-0.2344;
43.8000;0.1498;-0.2518;
44.1000;0.1384;-0.2818;
44.4000;0.1481;-0.2419;
44.7000;0.1498;-0.2419;
45.0000;0.1457;-0.2468;
45.3000;0.1481;-0.2394;
45.6000;0.1457;-0.2468;
45.9000;0.1490;-0.2419;
46.2000;0.1481;-0.2493;
46.5000;0.1449;-0.2593;
46.8000;0.1490;-0.2468;
47.1000;0.1530;-0.2419;
47.4000;0.1481;-0.2518;
47.7000;0.1530;-0.2319;
48.0000;0.1506;-0.2294;
48.3000;0.1522;-0.2294;
48.6000;0.1506;-0.2369;
48.9000;0.1473;-0.2468;
49.2000;0.1498;-0.2444;
49.5000;0.1498;-0.2369;
49.8000;0.1490;-0.2344;
50.1000;0.1449;-0.2543;
50.4000;0.1481;-0.2468;
50.7000;0.1481;-0.2369;
51.0000;0.1490;-0.2219;
51.3000;0.1514;-0.2194;
51.6000;0.1465;-0.2269;
51.9000;0.1473;-0.2119;
52.2000;0.1481;-0.2119;
52.5000;0.1481;-0.2194;
52.8000;0.1481;-0.2194;
53.1000;0.1481;-0.2219;
53.4000;0.1522;-0.2094;
53.7000;0.1490;-0.2169;
54.0000;0.1490;-0.2119;
54.3000;0.1481;-0.2219;
54.6000;0.1481;-0.2319;
54.9000;0.1481;-0.2319;
55.2000;0.1481;-0.2319;
55.5000;0.1490;-0.2319;
55.8000;0.1473;-0.2369;
56.1000;0.1481;-0.2344;
56.4000;0.1498;-0.2294;
56.7000;0.1490;-0.2344;
57.0000;0.1473;-0.2369;
57.3000;0.1506;-0.2294;
57.6000;0.1506;-0.2269;
57.9000;0.1490;-0.2419;
58.2000;0.1563;-0.2294;
58.5000;0.1530;-0.2269;
58.8000;0.1481;-0.2369;
59.1000;0.1490;-0.2294;
59.4000;0.1481;-0.2344;
59.7000;0.1498;-0.2344;
60.0000;0.1547;-0.2169;
60.3000;0.1498;-0.2194;
60.6000;0.1465;-0.2419;
60.9000;0.1490;-0.2319;
61.2000;0.1490;-0.2319;
61.5000;0.1441;-0.2419;
61.8000;0.1490;-0.2294;
62.1000;0.1473;-0.2269;
62.4000;0.1490;-0.2219;
62.7000;0.1506;-0.2169;
63.0000;0.1506;-0.2144;
63.3000;0.1490;-0.2169;
63.6000;0.1498;-0.2194;
63.9000;0.1514;-0.2119;
64.2000;0.1498;-0.2119;
64.5000;0.1490;-0.2045;
64.8000;0.1498;-0.2094;
65.1000;0.1490;-0.2144;
65.4000;0.1498;-0.2194;
65.7000;0.1481;-0.2269;
66.0000;0.1481;-0.2269;
66.3000;0.1490;-0.2194;
66.6000;0.1481;-0.2294;
66.9000;0.1465;-0.2344;
67.2000;0.1514;-0.2244;
67.5000;0.1473;-0.2369;
67.8000;0.1481;-0.2269;
68.1000;0.1465;-0.2344;
68.4000;0.1449;-0.2419;
68.7000;0.1473;-0.2269;
69.0000;0.1481;-0.2294;
69.3000;0.1457;-0.2294;
69.6000;0.1465;-0.2294;
69.9000;0.1465;-0.2369;
70.2000;0.1498;-0.2294;
70.5000;0.1473;-0.2319;
70.8000;0.1473;-0.2269;
71.1000;0.1490;-0.2294;
71.4000;0.1481;-0.2269;
71.7000;0.1481;-0.2344;
72.0000;0.1473;-0.2419;
72.3000;0.1498;-0.2444;
72.6000;0.1481;-0.2394;
72.9000;0.1481;-0.2269;
73.2000;0.1498;-0.2294;
73.5000;0.1506;-0.2344;
73.8000;0.1506;-0.2369;
74.1000;0.1449;-0.2618;
74.4000;0.1473;-0.2419;
74.7000;0.1506;-0.2244;
75.0000;0.1514;-0.2219;
75.3000;0.1481;-0.2219;
75.6000;0.1490;-0.2144;
75.9000;0.1490;-0.2020;
76.2000;0.1490;-0.2020;
76.5000;0.1490;-0.2169;
76.8000;0.1481;-0.2244;
77.1000;0.1481;-0.2244;
77.4000;0.1514;-0.2219;
77.7000;0.1498;-0.2119;
78.0000;0.1555;-0.1920;
78.3000;0.1473;-0.2094;
78.6000;0.1481;-0.2045;
78.9000;0.1490;-0.1995;
79.2000;0.1498;-0.1995;
79.5000;0.1490;-0.2069;
79.8000;0.1490;-0.2169;
80.1000;0.1530;-0.2169;
80.4000;0.1481;-0.2319;
80.7000;0.1481;-0.2294;
81.0000;0.1490;-0.2269;
81.3000;0.1441;-0.2369;
81.6000;0.1481;-0.2369;
81.9000;0.1457;-0.2444;
82.2000;0.1473;-0.2468;
82.5000;0.1481;-0.2444;
82.8000;0.1473;-0.2394;
83.1000;0.1481;-0.2294;
83.4000;0.1490;-0.2169;
83.7000;0.1490;-0.2119;
84.0000;0.1514;-0.2020;
84.3000;0.1490;-0.2094;
84.6000;0.1490;-0.2194;
84.9000;0.1481;-0.2219;
85.2000;0.1538;-0.2069;
85.5000;0.1457;-0.2344;
85.8000;0.1490;-0.2294;
86.1000;0.1490;-0.2269;
86.4000;0.1449;-0.2244;
86.7000;0.1490;-0.2094;
87.0000;0.1490;-0.2069;
87.3000;0.1490;-0.2144;
87.6000;0.1522;-0.2094;
87.9000;0.1514;-0.2194;
88.2000;0.1498;-0.2244;
88.5000;0.1498;-0.2269;
88.8000;0.1473;-0.2319;
89.1000;0.1530;-0.2144;
89.4000;0.1514;-0.2219;
89.7000;0.1506;-0.2319;
90.0000;0.1498;-0.2344;
90.3000;0.1465;-0.2369;
90.6000;0.1481;-0.2394;
90.9000;0.1506;-0.2468;
91.2000;0.1481;-0.2493;
91.5000;0.1506;-0.2419;
91.8000;0.1498;-0.2394;
92.1000;0.1473;-0.2419;
92.4000;0.1441;-0.2344;
92.7000;0.1506;-0.2244;
93.0000;0.1465;-0.2394;
93.3000;0.1498;-0.2244;
93.6000;0.1498;-0.2194;
93.9000;0.1530;-0.2169;
94.2000;0.1490;-0.2319;
94.5000;0.1498;-0.2269;
94.8000;0.1481;-0.2319;
95.1000;0.1498;-0.2294;
95.4000;0.1481;-0.2269;
95.7000;0.1530;-0.2169;
96.0000;0.1473;-0.2319;
96.3000;0.1490;-0.2269;
96.6000;0.1473;-0.2219;
96.9000;0.1506;-0.2169;
97.2000;0.1481;-0.2194;
97.5000;0.1490;-0.2244;
97.8000;0.1490;-0.2269;
98.1000;0.1490;-0.2369;
98.4000;0.1506;-0.2419;
98.7000;0.1490;-0.2543;
99.0000;0.1498;-0.2593;
99.3000;0.1498;-0.2668;
99.6000;0.1490;-0.2618;
99.9000;0.1490;-0.2593;
100.2000;0.1473;-0.2543;
100.5000;0.1490;-0.2568;
100.8000;0.1514;-0.2543;
101.1000;0.1538;-0.2543;
101.4000;0.1498;-0.2593;
101.7000;0.1522;-0.2419;
102.0000;0.1506;-0.2518;
102.3000;0.1498;-0.2493;
102.6000;0.1506;-0.2294;
102.9000;0.1498;-0.2219;
103.2000;0.1498;-0.2294;
103.5000;0.1498;-0.2294;
103.8000;0.1571;-0.2194;
104.1000;0.1498;-0.2319;
104.4000;0.1498;-0.2419;
104.7000;0.1465;-0.2468;
105.0000;0.1490;-0.2593;
105.3000;0.1490;-0.2543;
105.6000;0.1473;-0.2518;
105.9000;0.1481;-0.2568;
106.2000;0.1473;-0.2618;
106.5000;0.1481;-0.2593;
106.8000;0.1481;-0.2693;
107.1000;0.1481;-0.2693;
107.4000;0.1490;-0.2668;
107.7000;0.1498;-0.2593;
108.0000;0.1498;-0.2643;
108.3000;0.1506;-0.2543;
108.6000;0.1530;-0.2493;
108.9000;0.1490;-0.2518;
109.2000;0.1498;-0.2568;
109.5000;0.1498;-0.2543;
109.8000;0.1514;-0.2543;
110.1000;0.1490;-0.2543;
110.4000;0.1481;-0.2493;
110.7000;0.1498;-0.2543;
111.0000;0.1473;-0.2643;
111.3000;0.1473;-0.2643;
111.6000;0.1481;-0.2668;
111.9000;0.1563;-0.2419;
112.2000;0.1506;-0.2518;
112.5000;0.1498;-0.2468;
112.8000;0.1465;-0.2493;
113.1000;0.1498;-0.2369;
113.4000;0.1490;-0.2369;
113.7000;0.1449;-0.2493;
114.0000;0.1506;-0.2394;
114.3000;0.1514;-0.2394;
114.6000;0.1514;-0.2543;
114.9000;0.1490;-0.2593;
115.2000;0.1490;-0.2593;
115.5000;0.1481;-0.2518;
115.8000;0.1506;-0.2468;
116.1000;0.1473;-0.2493;
116.4000;0.1416;-0.2668;
116.7000;0.1400;-0.2768;
117.0000;0.1498;-0.2543;
117.3000;0.1441;-0.2743;
117.6000;0.1473;-0.2543;
117.9000;0.1457;-0.2568;
118.2000;0.1481;-0.2568;
118.5000;0.1490;-0.2568;
118.8000;0.1498;-0.2543;
119.1000;0.1490;-0.2593;
119.4000;0.1579;-0.2344;
119.7000;0.1522;-0.2518;
120.0000;0.1498;-0.2568;
120.3000;0.1473;-0.2693;
120.6000;0.1498;-0.2643;
120.9000;0.1498;-0.2543;
121.2000;0.1481;-0.2568;
121.5000;0.1506;-0.2568;
121.8000;0.1498;-0.2568;
122.1000;0.1514;-0.2493;
122.4000;0.1481;-0.2618;
122.7000;0.1498;-0.2618;
123.0000;0.1473;-0.2593;
123.3000;0.1514;-0.2493;
123.6000;0.1481;-0.2568;
123.9000;0.1481;-0.2468;
124.2000;0.1481;-0.2419;
124.5000;0.1498;-0.2419;
124.8000;0.1490;-0.2419;
125.1000;0.1490;-0.2543;
125.4000;0.1481;-0.2518;
125.7000;0.1498;-0.2468;
126.0000;0.1490;-0.2468;
126.3000;0.1490;-0.2468;
126.6000;0.1457;-0.2568;
126.9000;0.1481;-0.2568;
127.2000;0.1481;-0.2468;
127.5000;0.1473;-0.2468;
127.8000;0.1473;-0.2444;
128.1000;0.1498;-0.2468;
128.4000;0.1481;-0.2468;
128.7000;0.1465;-0.2568;
129.0000;0.1473;-0.2468;
129.3000;0.1481;-0.2518;
129.6000;0.1408;-0.2743;
129.9000;0.1481;-0.2593;
130.2000;0.1490;-0.2593;
130.5000;0.1473;-0.2643;
130.8000;0.1408;-0.2942;
131.1000;0.1481;-0.2743;
131.4000;0.1498;-0.2543;
131.7000;0.1441;-0.2518;
132.0000;0.1498;-0.2369;
132.3000;0.1481;-0.2444;
132.6000;0.1498;-0.2444;
132.9000;0.1490;-0.2419;
133.2000;0.1498;-0.2269;
133.5000;0.1498;-0.2269;
133.8000;0.1481;-0.2369;
134.1000;0.1473;-0.2319;
134.4000;0.1481;-0.2269;
134.7000;0.1506;-0.2194;
135.0000;0.1481;-0.2294;
135.3000;0.1473;-0.2419;
135.6000;0.1465;-0.2444;
135.9000;0.1514;-0.2394;
136.2000;0.1481;-0.2468;
136.5000;0.1490;-0.2394;
136.8000;0.1433;-0.2543;
137.1000;0.1416;-0.2568;
137.4000;0.1473;-0.2344;
137.7000;0.1547;-0.2194;
138.0000;0.1481;-0.2294;
138.3000;0.1514;-0.2144;
138.6000;0.1473;-0.2344;
138.9000;0.1506;-0.2419;
139.2000;0.1473;-0.2493;
139.5000;0.1473;-0.2543;
139.8000;0.1481;-0.2618;
140.1000;0.1490;-0.2593;
140.4000;0.1473;-0.2643;
140.7000;0.1465;-0.2643;
141.0000;0.1547;-0.2369;
141.3000;0.1465;-0.2543;
141.6000;0.1465;-0.2543;
141.9000;0.1514;-0.2394;
142.2000;0.1376;-0.2867;
142.5000;0.1481;-0.2618;
142.8000;0.1473;-0.2568;
143.1000;0.1481;-0.2543;
143.4000;0.1473;-0.2468;
143.7000;0.1481;-0.2394;
144.0000;0.1490;-0.2419;
144.3000;0.1473;-0.2543;
144.6000;0.1481;-0.2618;
144.9000;0.1498;-0.2468;
145.2000;0.1490;-0.2518;
145.5000;0.1481;-0.2468;
145.8000;0.1490;-0.2419;
146.1000;0.1473;-0.2394;
146.4000;0.1473;-0.2468;
146.7000;0.1481;-0.2493;
147.0000;0.1433;-0.2543;
147.3000;0.1490;-0.2319;
147.6000;0.1368;-0.2568;
147.9000;0.1473;-0.2244;
148.2000;0.1490;-0.2169;
148.5000;0.1506;-0.2094;
148.8000;0.1473;-0.2269;
149.1000;0.1506;-0.2294;
149.4000;0.1433;-0.2419;
149.7000;0.1481;-0.2319;
150.0000;0.1481;-0.2294;
150.3000;0.1473;-0.2144;
150.6000;0.1530;-0.2069;
150.9000;0.1465;-0.2219;
151.2000;0.1473;-0.2144;
151.5000;0.1481;-0.2144;
151.8000;0.1481;-0.2094;
152.1000;0.1490;-0.2169;
152.4000;0.1473;-0.2144;
152.7000;0.1530;-0.2069;
153.0000;0.1514;-0.2094;
153.3000;0.1498;-0.2194;
153.6000;0.1538;-0.2219;
153.9000;0.1481;-0.2419;
154.2000;0.1490;-0.2468;
154.5000;0.1514;-0.2369;
154.8000;0.1473;-0.2493;
155.1000;0.1473;-0.2468;
155.4000;0.1498;-0.2394;
155.7000;0.1530;-0.2219;
156.0000;0.1547;-0.2169;
156.3000;0.1473;-0.2344;
156.6000;0.1498;-0.2244;
156.9000;0.1490;-0.2269;
157.2000;0.1481;-0.2319;
157.5000;0.1490;-0.2219;
157.8000;0.1490;-0.2294;
158.1000;0.1481;-0.2244;
158.4000;0.1490;-0.2144;
158.7000;0.1490;-0.2194;
159.0000;0.1481;-0.2244;
159.3000;0.1506;-0.2144;
159.6000;0.1465;-0.2244;
159.9000;0.1481;-0.2219;
160.2000;0.1498;-0.2144;
160.5000;0.1498;-0.2119;
160.8000;0.1481;-0.2244;
161.1000;0.1530;-0.2094;
161.4000;0.1473;-0.2294;
161.7000;0.1498;-0.2169;
162.0000;0.1449;-0.2319;
162.3000;0.1571;-0.1920;
162.6000;0.1481;-0.2169;
162.9000;0.1481;-0.2219;
163.2000;0.1481;-0.2244;
163.5000;0.1481;-0.2294;
163.8000;0.1490;-0.2244;
164.1000;0.1465;-0.2194;
164.4000;0.1498;-0.2244;
164.7000;0.1490;-0.2269;
165.0000;0.1481;-0.2244;
165.3000;0.1498;-0.2269;
165.6000;0.1457;-0.2344;
165.9000;0.1457;-0.2344;
166.2000;0.1514;-0.2219;
166.5000;0.1473;-0.2319;
166.8000;0.1465;-0.2419;
167.1000;0.1425;-0.2493;
167.4000;0.1473;-0.2369;
167.7000;0.1506;-0.2344;
168.0000;0.1490;-0.2394;
168.3000;0.1473;-0.2394;
168.6000;0.1481;-0.2269;
168.9000;0.1481;-0.2244;
169.2000;0.1506;-0.2219;
169.5000;0.1498;-0.2194;
169.8000;0.1481;-0.2244;
170.1000;0.1490;-0.2344;
170.4000;0.1490;-0.2394;
170.7000;0.1481;-0.2444;
171.0000;0.1465;-0.2394;
171.3000;0.1457;-0.2543;
171.6000;0.1490;-0.2493;
171.9000;0.1506;-0.2543;
172.2000;0.1490;-0.2643;
172.5000;0.1457;-0.2643;
172.8000;0.1481;-0.2543;
173.1000;0.1465;-0.2593;
173.4000;0.1465;-0.2643;
173.7000;0.1506;-0.2568;
174.0000;0.1481;-0.2593;
174.3000;0.1376;-0.2917;
174.6000;0.1547;-0.2444;
174.9000;0.1425;-0.2768;
175.2000;0.1457;-0.2618;
175.5000;0.1473;-0.2568;
175.8000;0.1498;-0.2444;
176.1000;0.1465;-0.2493;
176.4000;0.1465;-0.2394;
176.7000;0.1514;-0.2294;
177.0000;0.1473;-0.2468;
177.3000;0.1481;-0.2444;
177.6000;0.1498;-0.2419;
177.9000;0.1490;-0.2344;
178.2000;0.1473;-0.2394;
178.5000;0.1490;-0.2344;
178.8000;0.1400;-0.2693;
179.1000;0.1481;-0.2444;
179.4000;0.1490;-0.2394;
179.7000;0.1481;-0.2444;
180.0000;0.1481;-0.2518;
180.3000;0.1481;-0.2444;
180.6000;0.1498;-0.2394;
180.9000;0.1498;-0.2369;
181.2000;0.1481;-0.2369;
181.5000;0.1490;-0.2319;
181.8000;0.1408;-0.2568;
182.1000;0.1481;-0.2394;
182.4000;0.1481;-0.2344;
182.7000;0.1498;-0.2344;
183.0000;0.1506;-0.2244;
183.3000;0.1481;-0.2269;
183.6000;0.1457;-0.2294;
183.9000;0.1481;-0.2294;
184.2000;0.1514;-0.2244;
184.5000;0.1490;-0.2294;
184.8000;0.1490;-0.2294;
185.1000;0.1490;-0.2344;
185.4000;0.1465;-0.2419;
185.7000;0.1506;-0.2394;
186.0000;0.1490;-0.2394;
186.3000;0.1481;-0.2468;
186.6000;0.1473;-0.2444;
186.9000;0.1481;-0.2419;
187.2000;0.1481;-0.2468;
187.5000;0.1490;-0.2419;
187.8000;0.1481;-0.2568;
188.1000;0.1506;-0.2593;
188.4000;0.1473;-0.2718;
188.7000;0.1490;-0.2643;
189.0000;0.1498;-0.2593;
189.3000;0.1555;-0.2468;
189.6000;0.1481;-0.2568;
189.9000;0.1498;-0.2518;
190.2000;0.1457;-0.2643;
190.5000;0.1498;-0.2543;
190.8000;0.1481;-0.2593;
191.1000;0.1490;-0.2568;
191.4000;0.1473;-0.2618;
191.7000;0.1498;-0.2468;
192.0000;0.1457;-0.2543;
192.3000;0.1498;-0.2468;
192.6000;0.1449;-0.2668;
192.9000;0.1465;-0.2568;
193.2000;0.1465;-0.2568;
193.5000;0.1473;-0.2618;
193.8000;0.1481;-0.2568;
194.1000;0.1449;-0.2643;
194.4000;0.1498;-0.2593;
194.7000;0.1490;-0.2618;
195.0000;0.1538;-0.2518;
195.3000;0.1473;-0.2618;
195.6000;0.1481;-0.2568;
195.9000;0.1490;-0.2468;
196.2000;0.1490;-0.2493;
196.5000;0.1481;-0.2518;
196.8000;0.1481;-0.2543;
197.1000;0.1465;-0.2568;
197.4000;0.1481;-0.2444;
197.7000;0.1473;-0.2493;
198.0000;0.1465;-0.2518;
198.3000;0.1481;-0.2543;
198.6000;0.1506;-0.2593;
198.9000;0.1490;-0.2643;
199.2000;0.1498;-0.2543;
199.5000;0.1506;-0.2468;
199.8000;0.1490;-0.2493;
200.1000;0.1498;-0.2493;
200.4000;0.1473;-0.2493;
200.7000;0.1481;-0.2468;
201.0000;0.1498;-0.2493;
201.3000;0.1490;-0.2419;
201.6000;0.1473;-0.2518;
201.9000;0.1465;-0.2568;
202.2000;0.1473;-0.2643;
202.5000;0.1563;-0.2444;
202.8000;0.1441;-0.2768;
203.1000;0.1490;-0.2568;
203.4000;0.1490;-0.2618;
203.7000;0.1481;-0.2543;
204.0000;0.1481;-0.2568;
204.3000;0.1481;-0.2493;
204.6000;0.1506;-0.2394;
204.9000;0.1490;-0.2468;
205.2000;0.1481;-0.2643;
205.5000;0.1490;-0.2693;
205.8000;0.1506;-0.2643;
206.1000;0.1506;-0.2618;
206.4000;0.1473;-0.2768;
206.7000;0.1481;-0.2668;
207.0000;0.1490;-0.2668;
207.3000;0.1441;-0.2768;
207.6000;0.1522;-0.2543;
207.9000;0.1498;-0.2668;
208.2000;0.1490;-0.2668;
208.5000;0.1441;-0.2842;
208.8000;0.1514;-0.2543;
209.1000;0.1473;-0.2518;
209.4000;0.1514;-0.2319;
209.7000;0.1449;-0.2394;
210.0000;0.1473;-0.2419;
210.3000;0.1498;-0.2468;
210.6000;0.1547;-0.2194;
210.9000;0.1473;-0.2394;
211.2000;0.1473;-0.2394;
211.5000;0.1481;-0.2394;
211.8000;0.1473;-0.2419;
212.1000;0.1506;-0.2394;
212.4000;0.1498;-0.2369;
212.7000;0.1481;-0.2419;
213.0000;0.1465;-0.2493;
213.3000;0.1506;-0.2444;
213.6000;0.1498;-0.2518;
213.9000;0.1481;-0.2543;
214.2000;0.1473;-0.2568;
214.5000;0.1490;-0.2618;
214.8000;0.1506;-0.2568;
215.1000;0.1481;-0.2593;
215.4000;0.1490;-0.2518;
215.7000;0.1457;-0.2593;
216.0000;0.1481;-0.2543;
216.3000;0.1481;-0.2493;
216.6000;0.1481;-0.2493;
216.9000;0.1490;-0.2568;
217.2000;0.1498;-0.2518;
217.5000;0.1506;-0.2518;
217.8000;0.1490;-0.2593;
218.1000;0.1473;-0.2568;
218.4000;0.1481;-0.2518;
218.7000;0.1498;-0.2543;
219.0000;0.1473;-0.2493;
219.3000;0.1481;-0.2419;
219.6000;0.1498;-0.2369;
219.9000;0.1490;-0.2468;
220.2000;0.1481;-0.2468;
220.5000;0.1433;-0.2618;
220.8000;0.1473;-0.2593;
221.1000;0.1473;-0.2618;
221.4000;0.1473;-0.2693;
221.7000;0.1481;-0.2643;
222.0000;0.1473;-0.2693;
222.3000;0.1481;-0.2618;
222.6000;0.1481;-0.2643;
222.9000;0.1498;-0.2618;
223.2000;0.1481;-0.2668;
223.5000;0.1481;-0.2643;
223.8000;0.1506;-0.2568;
224.1000;0.1490;-0.2568;
224.4000;0.1481;-0.2643;
224.7000;0.1473;-0.2568;
225.0000;0.1481;-0.2618;
225.3000;0.1481;-0.2618;
225.6000;0.1481;-0.2643;
225.9000;0.1506;-0.2643;
226.2000;0.1498;-0.2618;
226.5000;0.1481;-0.2593;
226.8000;0.1490;-0.2568;
227.1000;0.1498;-0.2568;
227.4000;0.1498;-0.2518;
227.7000;0.1490;-0.2518;
228.0000;0.1498;-0.2568;
228.3000;0.1481;-0.2643;
228.6000;0.1506;-0.2618;
228.9000;0.1498;-0.2543;
229.2000;0.1514;-0.2543;
229.5000;0.1498;-0.2518;
229.8000;0.1490;-0.2568;
230.1000;0.1481;-0.2618;
230.4000;0.1490;-0.2668;
230.7000;0.1481;-0.2718;
231.0000;0.1465;-0.2842;
231.3000;0.1465;-0.2867;
231.6000;0.1457;-0.2818;
231.9000;0.1457;-0.2693;
232.2000;0.1498;-0.2593;
232.5000;0.1490;-0.2668;
232.8000;0.1538;-0.2468;
233.1000;0.1481;-0.2643;
233.4000;0.1465;-0.2668;
233.7000;0.1514;-0.2568;
234.0000;0.1490;-0.2568;
234.3000;0.1498;-0.2493;
234.6000;0.1547;-0.2294;
234.9000;0.1490;-0.2444;
235.2000;0.1465;-0.2568;
235.5000;0.1481;-0.2568;
235.8000;0.1473;-0.2618;
236.1000;0.1465;-0.2693;
236.4000;0.1490;-0.2593;
236.7000;0.1473;-0.2618;
237.0000;0.1514;-0.2394;
237.3000;0.1473;-0.2468;
237.6000;0.1465;-0.2493;
237.9000;0.1506;-0.2493;
238.2000;0.1473;-0.2543;
238.5000;0.1473;-0.2568;
238.8000;0.1473;-0.2693;
239.1000;0.1506;-0.2618;
239.4000;0.1490;-0.2693;
239.7000;0.1465;-0.2718;
240.0000;0.1473;-0.2668;
240.3000;0.1490;-0.2493;
240.6000;0.1457;-0.2543;
240.9000;0.1490;-0.2493;
241.2000;0.1481;-0.2468;
241.5000;0.1506;-0.2518;
241.8000;0.1490;-0.2518;
242.1000;0.1530;-0.2444;
242.4000;0.1473;-0.2518;
242.7000;0.1490;-0.2419;
243.0000;0.1579;-0.2194;
243.3000;0.1490;-0.2493;
243.6000;0.1465;-0.2593;
243.9000;0.1498;-0.2543;
244.2000;0.1522;-0.2518;
244.5000;0.1506;-0.2593;
244.8000;0.1490;-0.2518;
245.1000;0.1490;-0.2493;
245.4000;0.1490;-0.2493;
245.7000;0.1498;-0.2419;
246.0000;0.1433;-0.2643;
246.3000;0.1481;-0.2543;
246.6000;0.1538;-0.2369;
246.9000;0.1481;-0.2444;
247.2000;0.1481;-0.2419;
247.5000;0.1481;-0.2493;
247.8000;0.1490;-0.2593;
248.1000;0.1490;-0.2618;
248.4000;0.1481;-0.2693;
248.7000;0.1441;-0.2743;
249.0000;0.1441;-0.2793;
249.3000;0.1490;-0.2593;
249.6000;0.1465;-0.2543;
249.9000;0.1514;-0.2568;
250.2000;0.1490;-0.2543;
250.5000;0.1514;-0.2518;
250.8000;0.1490;-0.2468;
251.1000;0.1490;-0.2444;
251.4000;0.1490;-0.2444;
251.7000;0.1514;-0.2369;
252.0000;0.1416;-0.2643;
252.3000;0.1490;-0.2543;
252.6000;0.1481;-0.2718;
252.9000;0.1498;-0.2618;
253.2000;0.1490;-0.2518;
253.5000;0.1465;-0.2468;
253.8000;0.1490;-0.2419;
254.1000;0.1506;-0.2394;
254.4000;0.1490;-0.2369;
254.7000;0.1490;-0.2419;
255.0000;0.1490;-0.2493;
255.3000;0.1473;-0.2543;
255.6000;0.1481;-0.2493;
255.9000;0.1490;-0.2493;
256.2000;0.1498;-0.2444;
256.5000;0.1473;-0.2493;
256.8000;0.1490;-0.2468;
257.1000;0.1465;-0.2468;
257.4000;0.1473;-0.2468;
257.7000;0.1473;-0.2518;
258.0000;0.1498;-0.2468;
258.3000;0.1506;-0.2468;
258.6000;0.1473;-0.2468;
258.9000;0.1514;-0.2319;
259.2000;0.1490;-0.2468;
259.5000;0.1481;-0.2493;
259.8000;0.1490;-0.2444;
260.1000;0.1473;-0.2568;
260.4000;0.1514;-0.2518;
260.7000;0.1490;-0.2593;
261.0000;0.1473;-0.2693;
261.3000;0.1490;-0.2693;
261.6000;0.1481;-0.2718;
261.9000;0.1481;-0.2668;
262.2000;0.1481;-0.2718;
262.5000;0.1490;-0.2842;
262.8000;0.1506;-0.2818;
263.1000;0.1514;-0.2842;
263.4000;0.1449;-0.2818;
263.7000;0.1498;-0.2593;
264.0000;0.1425;-0.2842;
264.3000;0.1490;-0.2743;
264.6000;0.1530;-0.2643;
264.9000;0.1490;-0.2768;
265.2000;0.1481;-0.2693;
265.5000;0.1449;-0.2743;
265.8000;0.1473;-0.2718;
266.1000;0.1465;-0.2818;
266.4000;0.1473;-0.2718;
266.7000;0.1473;-0.2793;
267.0000;0.1441;-0.2867;
267.3000;0.1481;-0.2693;
267.6000;0.1473;-0.2718;
267.9000;0.1449;-0.2793;
268.2000;0.1490;-0.2693;
268.5000;0.1441;-0.2793;
268.8000;0.1473;-0.2643;
269.1000;0.1547;-0.2419;
269.4000;0.1522;-0.2468;
269.7000;0.1473;-0.2518;
270.0000;0.1433;-0.2618;
270.3000;0.1473;-0.2493;
270.6000;0.1604;-0.2194;
270.9000;0.1498;-0.2444;
271.2000;0.1441;-0.2668;
271.5000;0.1490;-0.2568;
271.8000;0.1490;-0.2543;
272.1000;0.1490;-0.2643;
272.4000;0.1481;-0.2743;
272.7000;0.1433;-0.2892;
273.0000;0.1547;-0.2518;
273.3000;0.1473;-0.2668;
273.6000;0.1473;-0.2593;
273.9000;0.1498;-0.2468;
274.2000;0.1490;-0.2568;
274.5000;0.1481;-0.2518;
274.8000;0.1547;-0.2344;
275.1000;0.1490;-0.2593;
275.4000;0.1473;-0.2643;
275.7000;0.1416;-0.2793;
276.0000;0.1473;-0.2643;
276.3000;0.1481;-0.2643;
276.6000;0.1481;-0.2568;
276.9000;0.1481;-0.2568;
277.2000;0.1481;-0.2618;
277.5000;0.1457;-0.2668;
277.8000;0.1490;-0.2643;
278.1000;0.1490;-0.2643;
278.4000;0.1522;-0.2668;
278.7000;0.1490;-0.2743;
279.0000;0.1490;-0.2718;
279.3000;0.1465;-0.2743;
279.6000;0.1433;-0.2793;
279.9000;0.1465;-0.2818;
280.2000;0.1473;-0.2842;
280.5000;0.1433;-0.2917;
280.8000;0.1473;-0.2867;
281.1000;0.1498;-0.2842;
281.4000;0.1481;-0.2793;
281.7000;0.1490;-0.2718;
282.0000;0.1490;-0.2743;
282.3000;0.1490;-0.2693;
282.6000;0.1498;-0.2718;
282.9000;0.1433;-0.2842;
283.2000;0.1490;-0.2668;
283.5000;0.1473;-0.2593;
283.8000;0.1498;-0.2518;
284.1000;0.1481;-0.2593;
284.4000;0.1498;-0.2568;
284.7000;0.1481;-0.2643;
285.0000;0.1498;-0.2718;
285.3000;0.1506;-0.2643;
285.6000;0.1473;-0.2718;
285.9000;0.1498;-0.2618;
286.2000;0.1473;-0.2743;
286.5000;0.1506;-0.2768;
286.8000;0.1457;-0.2842;
287.1000;0.1473;-0.2768;
287.4000;0.1490;-0.2743;
287.7000;0.1490;-0.2768;
288.0000;0.1481;-0.2718;
288.3000;0.1441;-0.2743;
288.6000;0.1490;-0.2618;
288.9000;0.1473;-0.2718;
289.2000;0.1433;-0.2842;
289.5000;0.1481;-0.2643;
289.8000;0.1506;-0.2593;
290.1000;0.1522;-0.2419;
290.4000;0.1441;-0.2768;
290.7000;0.1473;-0.2668;
291.0000;0.1498;-0.2618;
291.3000;0.1481;-0.2568;
291.6000;0.1473;-0.2593;
291.9000;0.1449;-0.2593;
292.2000;0.1473;-0.2493;
292.5000;0.1473;-0.2493;
292.8000;0.1457;-0.2518;
293.1000;0.1449;-0.2593;
293.4000;0.1481;-0.2468;
293.7000;0.1498;-0.2444;
294.0000;0.1465;-0.2468;
294.3000;0.1449;-0.2593;
294.6000;0.1473;-0.2543;
294.9000;0.1481;-0.2518;
295.2000;0.1481;-0.2593;
295.5000;0.1481;-0.2618;
295.8000;0.1490;-0.2593;
296.1000;0.1457;-0.2593;
296.4000;0.1481;-0.2518;
296.7000;0.1473;-0.2518;
297.0000;0.1498;-0.2444;
297.3000;0.1490;-0.2543;
297.6000;0.1506;-0.2369;
297.9000;0.1498;-0.2419;
298.2000;0.1490;-0.2419;
298.5000;0.1490;-0.2468;
298.8000;0.1473;-0.2518;
299.1000;0.1595;-0.2194;
299.4000;0.1498;-0.2369;
299.7000;0.1514;-0.2394;
300.0000;0.1498;-0.2269;
300.3000;0.1490;-0.2294;
300.6000;0.1547;-0.2269;
300.9000;0.1498;-0.2394;
301.2000;0.1473;-0.2444;
301.5000;0.1473;-0.2518;
301.8000;0.1579;-0.2169;
302.1000;0.1490;-0.2394;
302.4000;0.1514;-0.2319;
302.7000;0.1481;-0.2419;
303.0000;0.1457;-0.2444;
303.3000;0.1481;-0.2444;
303.6000;0.1457;-0.2518;
303.9000;0.1481;-0.2518;
304.2000;0.1506;-0.2543;
304.5000;0.1490;-0.2618;
304.8000;0.1457;-0.2693;
305.1000;0.1465;-0.2668;
305.4000;0.1441;-0.2768;
305.7000;0.1465;-0.2718;
306.0000;0.1465;-0.2743;
306.3000;0.1498;-0.2693;
306.6000;0.1441;-0.2768;
306.9000;0.1522;-0.2593;
307.2000;0.1465;-0.2768;
307.5000;0.1481;-0.2718;
307.8000;0.1506;-0.2593;
308.1000;0.1408;-0.2942;
308.4000;0.1481;-0.2693;
308.7000;0.1473;-0.2668;
309.0000;0.1498;-0.2568;
309.3000;0.1506;-0.2518;
309.6000;0.1490;-0.2543;
309.9000;0.1473;-0.2543;
310.2000;0.1449;-0.2618;
310.5000;0.1481;-0.2568;
310.8000;0.1481;-0.2493;
311.1000;0.1481;-0.2394;
311.4000;0.1481;-0.2419;
311.7000;0.1457;-0.2543;
312.0000;0.1506;-0.2369;
312.3000;0.1490;-0.2493;
312.6000;0.1490;-0.2518;
312.9000;0.1490;-0.2518;
313.2000;0.1457;-0.2543;
313.5000;0.1473;-0.2493;
313.8000;0.1490;-0.2468;
314.1000;0.1449;-0.2518;
314.4000;0.1514;-0.2369;
314.7000;0.1481;-0.2419;
315.0000;0.1465;-0.2419;
315.3000;0.1465;-0.2369;
315.6000;0.1465;-0.2444;
315.9000;0.1457;-0.2468;
316.2000;0.1498;-0.2319;
316.5000;0.1481;-0.2319;
316.8000;0.1473;-0.2319;
317.1000;0.1530;-0.2144;
317.4000;0.1473;-0.2294;
317.7000;0.1457;-0.2269;
318.0000;0.1490;-0.2369;
318.3000;0.1481;-0.2493;
318.6000;0.1473;-0.2568;
318.9000;0.1490;-0.2468;
319.2000;0.1498;-0.2468;
319.5000;0.1481;-0.2493;
319.8000;0.1498;-0.2518;
320.1000;0.1490;-0.2618;
320.4000;0.1498;-0.2693;
320.7000;0.1473;-0.2818;
321.0000;0.1498;-0.2793;
321.3000;0.1457;-0.2892;
321.6000;0.1449;-0.2793;
321.9000;0.1490;-0.2768;
322.2000;0.1481;-0.2768;
322.5000;0.1465;-0.2793;
322.8000;0.1498;-0.2668;
323.1000;0.1490;-0.2643;
323.4000;0.1465;-0.2568;
323.7000;0.1473;-0.2518;
324.0000;0.1490;-0.2468;
324.3000;0.1498;-0.2543;
324.6000;0.1538;-0.2543;
324.9000;0.1490;-0.2618;
325.2000;0.1481;-0.2568;
325.5000;0.1498;-0.2518;
325.8000;0.1465;-0.2593;
326.1000;0.1473;-0.2568;
326.4000;0.1506;-0.2468;
326.7000;0.1408;-0.2668;
327.0000;0.1473;-0.2493;
327.3000;0.1416;-0.2643;
327.6000;0.1457;-0.2643;
327.9000;0.1473;-0.2693;
328.2000;0.1473;-0.2668;
328.5000;0.1457;-0.2743;
328.8000;0.1457;-0.2718;
329.1000;0.1490;-0.2593;
329.4000;0.1481;-0.2543;
329.7000;0.1490;-0.2543;
330.0000;0.1473;-0.2568;
330.3000;0.1481;-0.2593;
330.6000;0.1498;-0.2718;
330.9000;0.1490;-0.2743;
331.2000;0.1498;-0.2743;
331.5000;0.1465;-0.2768;
331.8000;0.1481;-0.2643;
332.1000;0.1490;-0.2518;
332.4000;0.1490;-0.2468;
332.7000;0.1490;-0.2419;
333.0000;0.1481;-0.2444;
333.3000;0.1498;-0.2444;
333.6000;0.1473;-0.2444;
333.9000;0.1530;-0.2219;
334.2000;0.1481;-0.2344;
334.5000;0.1481;-0.2344;
334.8000;0.1481;-0.2394;
335.1000;0.1490;-0.2294;
335.4000;0.1473;-0.2294;
335.7000;0.1498;-0.2219;
336.0000;0.1481;-0.2344;
336.3000;0.1465;-0.2344;
336.6000;0.1465;-0.2394;
336.9000;0.1506;-0.2219;
337.2000;0.1481;-0.2344;
337.5000;0.1441;-0.2444;
337.8000;0.1563;-0.2194;
338.1000;0.1506;-0.2419;
338.4000;0.1530;-0.2394;
338.7000;0.1506;-0.2543;
339.0000;0.1481;-0.2543;
339.3000;0.1490;-0.2543;
339.6000;0.1481;-0.2444;
339.9000;0.1481;-0.2419;
340.2000;0.1481;-0.2444;
340.5000;0.1498;-0.2444;
340.8000;0.1473;-0.2518;
341.1000;0.1416;-0.2618;
341.4000;0.1473;-0.2493;
341.7000;0.1465;-0.2543;
342.0000;0.1490;-0.2518;
342.3000;0.1481;-0.2518;
342.6000;0.1441;-0.2643;
342.9000;0.1465;-0.2593;
343.2000;0.1433;-0.2568;
343.5000;0.1481;-0.2419;
343.8000;0.1481;-0.2444;
344.1000;0.1481;-0.2394;
344.4000;0.1490;-0.2444;
344.7000;0.1481;-0.2518;
345.0000;0.1498;-0.2369;
345.3000;0.1490;-0.2344;
345.6000;0.1465;-0.2518;
345.9000;0.1490;-0.2444;
346.2000;0.1490;-0.2344;
346.5000;0.1465;-0.2444;
346.8000;0.1473;-0.2394;
347.1000;0.1498;-0.2419;
347.4000;0.1465;-0.2493;
347.7000;0.1473;-0.2394;
348.0000;0.1473;-0.2369;
348.3000;0.1473;-0.2444;
348.6000;0.1457;-0.2518;
348.9000;0.1473;-0.2543;
349.2000;0.1481;-0.2518;
349.5000;0.1481;-0.2468;
349.8000;0.1490;-0.2518;
350.1000;0.1481;-0.2468;
350.4000;0.1481;-0.2543;
350.7000;0.1490;-0.2493;
351.0000;0.1473;-0.2518;
351.3000;0.1433;-0.2643;
351.6000;0.1473;-0.2543;
351.9000;0.1490;-0.2394;
352.2000;0.1498;-0.2419;
352.5000;0.1490;-0.2444;
352.8000;0.1490;-0.2319;
353.1000;0.1465;-0.2369;
353.4000;0.1441;-0.2518;
353.7000;0.1498;-0.2444;
354.0000;0.1473;-0.2543;
354.3000;0.1490;-0.2593;
354.6000;0.1506;-0.2618;
354.9000;0.1490;-0.2593;
355.2000;0.1498;-0.2543;
355.5000;0.1449;-0.2568;
355.8000;0.1481;-0.2543;
356.1000;0.1498;-0.2468;
356.4000;0.1473;-0.2568;
356.7000;0.1473;-0.2543;
357.0000;0.1490;-0.2593;
357.3000;0.1490;-0.2593;
357.6000;0.1490;-0.2518;
357.9000;0.1473;-0.2543;
358.2000;0.1481;-0.2518;
358.5000;0.1506;-0.2444;
358.8000;0.1481;-0.2543;
359.1000;0.1457;-0.2593;
359.4000;0.1481;-0.2568;
359.7000;0.1506;-0.2493;
360.0000;0.1490;-0.2518;
360.3000;0.1506;-0.2468;
360.6000;0.1490;-0.2568;
360.9000;0.1465;-0.2568;
361.2000;0.1522;-0.2419;
361.5000;0.1465;-0.2468;
361.8000;0.1457;-0.2493;
362.1000;0.1473;-0.2518;
362.4000;0.1425;-0.2643;
362.7000;0.1441;-0.2593;
363.0000;0.1481;-0.2419;
363.3000;0.1490;-0.2419;
363.6000;0.1465;-0.2419;
363.9000;0.1465;-0.2493;
364.2000;0.1481;-0.2493;
364.5000;0.1481;-0.2543;
364.8000;0.1465;-0.2643;
365.1000;0.1490;-0.2518;
365.4000;0.1473;-0.2543;
365.7000;0.1481;-0.2543;
366.0000;0.1538;-0.2444;
366.3000;0.1490;-0.2493;
366.6000;0.1506;-0.2493;
366.9000;0.1473;-0.2618;
367.2000;0.1538;-0.2493;
367.5000;0.1498;-0.2568;
367.8000;0.1530;-0.2543;
368.1000;0.1498;-0.2718;
368.4000;0.1457;-0.2743;
368.7000;0.1514;-0.2618;
369.0000;0.1490;-0.2718;
369.3000;0.1490;-0.2668;
369.6000;0.1490;-0.2693;
369.9000;0.1498;-0.2693;
370.2000;0.1490;-0.2768;
370.5000;0.1481;-0.2768;
370.8000;0.1465;-0.2743;
371.1000;0.1465;-0.2643;
371.4000;0.1490;-0.2543;
371.7000;0.1473;-0.2419;
372.0000;0.1514;-0.2294;
372.3000;0.1498;-0.2394;
372.6000;0.1465;-0.2394;
372.9000;0.1473;-0.2369;
373.2000;0.1490;-0.2369;
373.5000;0.1473;-0.2344;
373.8000;0.1481;-0.2394;
374.1000;0.1481;-0.2344;
374.4000;0.1473;-0.2394;
374.7000;0.1473;-0.2444;
375.0000;0.1530;-0.2144;
375.3000;0.1473;-0.2319;
375.6000;0.1490;-0.2219;
375.9000;0.1481;-0.2194;
376.2000;0.1481;-0.2219;
376.5000;0.1506;-0.2219;
376.8000;0.1481;-0.2419;
377.1000;0.1481;-0.2493;
377.4000;0.1457;-0.2518;
377.7000;0.1490;-0.2369;
378.0000;0.1522;-0.2294;
378.3000;0.1481;-0.2468;
378.6000;0.1530;-0.2294;
378.9000;0.1490;-0.2493;
379.2000;0.1506;-0.2568;
379.5000;0.1473;-0.2668;
379.8000;0.1506;-0.2618;
380.1000;0.1473;-0.2618;
380.4000;0.1481;-0.2593;
380.7000;0.1490;-0.2643;
381.0000;0.1506;-0.2618;
381.3000;0.1490;-0.2568;
381.6000;0.1498;-0.2444;
381.9000;0.1473;-0.2518;
382.2000;0.1465;-0.2568;
382.5000;0.1481;-0.2543;
382.8000;0.1498;-0.2518;
383.1000;0.1473;-0.2593;
383.4000;0.1465;-0.2568;
383.7000;0.1490;-0.2618;
384.0000;0.1547;-0.2468;
384.3000;0.1498;-0.2618;
384.6000;0.1490;-0.2618;
384.9000;0.1498;-0.2593;
385.2000;0.1481;-0.2718;
385.5000;0.1498;-0.2693;
385.8000;0.1481;-0.2618;
386.1000;0.1473;-0.2643;
386.4000;0.1547;-0.2593;
386.7000;0.1481;-0.2842;
387.0000;0.1490;-0.2892;
387.3000;0.1457;-0.2967;
387.6000;0.1481;-0.2942;
387.9000;0.1481;-0.2992;
388.2000;0.1473;-0.3017;
388.5000;0.1416;-0.3167;
388.8000;0.1457;-0.3017;
389.1000;0.1465;-0.2967;
389.4000;0.1498;-0.2867;
389.7000;0.1449;-0.2917;
390.0000;0.1498;-0.2743;
390.3000;0.1498;-0.2793;
390.6000;0.1490;-0.2793;
390.9000;0.1538;-0.2718;
391.2000;0.1490;-0.3067;
391.5000;0.1490;-0.3092;
391.8000;0.1595;-0.2768;
392.1000;0.1490;-0.3067;
392.4000;0.1506;-0.2942;
392.7000;0.1457;-0.2992;
393.0000;0.1441;-0.3042;
393.3000;0.1457;-0.3017;
393.6000;0.1449;-0.3142;
393.9000;0.1490;-0.2967;
394.2000;0.1473;-0.2967;
394.5000;0.1490;-0.2917;
394.8000;0.1465;-0.3092;
395.1000;0.1465;-0.3092;
395.4000;0.1473;-0.3117;
395.7000;0.1481;-0.3067;
396.0000;0.1465;-0.3017;
396.3000;0.1457;-0.3042;
396.6000;0.1481;-0.2892;
396.9000;0.1481;-0.2842;
397.2000;0.1465;-0.2793;
397.5000;0.1490;-0.2668;
397.8000;0.1473;-0.2818;
398.1000;0.1449;-0.2818;
398.4000;0.1473;-0.2818;
398.7000;0.1457;-0.2867;
399.0000;0.1449;-0.2917;
399.3000;0.1498;-0.2743;
399.6000;0.1473;-0.2842;
399.9000;0.1481;-0.2718;
400.2000;0.1481;-0.2718;
400.5000;0.1473;-0.2768;
400.8000;0.1498;-0.2743;
401.1000;0.1490;-0.2743;
401.4000;0.1457;-0.2842;
401.7000;0.1481;-0.2818;
402.0000;0.1490;-0.2793;
402.3000;0.1481;-0.2842;
402.6000;0.1579;-0.2593;
402.9000;0.1490;-0.2892;
403.2000;0.1490;-0.2942;
403.5000;0.1465;-0.2967;
403.8000;0.1465;-0.3017;
404.1000;0.1481;-0.3042;
404.4000;0.1481;-0.3042;
404.7000;0.1465;-0.3017;
405.0000;0.1465;-0.2867;
405.3000;0.1457;-0.2842;
405.6000;0.1473;-0.2818;
405.9000;0.1449;-0.2818;
406.2000;0.1481;-0.2768;
406.5000;0.1465;-0.2768;
406.8000;0.1490;-0.2693;
407.1000;0.1490;-0.2743;
407.4000;0.1481;-0.2768;
407.7000;0.1457;-0.2892;
408.0000;0.1522;-0.2593;
408.3000;0.1481;-0.2743;
408.6000;0.1490;-0.2743;
408.9000;0.1490;-0.2643;
409.2000;0.1465;-0.2743;
409.5000;0.1490;-0.2668;
409.8000;0.1490;-0.2643;
410.1000;0.1481;-0.2668;
410.4000;0.1481;-0.2568;
410.7000;0.1473;-0.2593;
411.0000;0.1416;-0.2768;
411.3000;0.1473;-0.2593;
411.6000;0.1490;-0.2493;
411.9000;0.1473;-0.2668;
412.2000;0.1481;-0.2743;
412.5000;0.1359;-0.3192;
412.8000;0.1473;-0.3017;
413.1000;0.1465;-0.3017;
413.4000;0.1490;-0.2892;
413.7000;0.1449;-0.2942;
414.0000;0.1481;-0.2867;
414.3000;0.1498;-0.2867;
414.6000;0.1498;-0.2842;
414.9000;0.1473;-0.2842;
415.2000;0.1481;-0.2793;
415.5000;0.1473;-0.2768;
415.8000;0.1449;-0.2892;
416.1000;0.1481;-0.2917;
416.4000;0.1490;-0.2842;
416.7000;0.1465;-0.2867;
417.0000;0.1490;-0.2793;
417.3000;0.1481;-0.2768;
417.6000;0.1498;-0.2743;
417.9000;0.1473;-0.2793;
418.2000;0.1490;-0.2818;
418.5000;0.1465;-0.2743;
418.8000;0.1465;-0.2743;
419.1000;0.1490;-0.2668;
419.4000;0.1481;-0.2643;
419.7000;0.1490;-0.2518;
420.0000;0.1465;-0.2568;
420.3000;0.1473;-0.2468;
420.6000;0.1490;-0.2394;
420.9000;0.1490;-0.2294;
421.2000;0.1465;-0.2344;
421.5000;0.1465;-0.2419;
421.8000;0.1449;-0.2518;
422.1000;0.1457;-0.2543;
422.4000;0.1514;-0.2468;
422.7000;0.1473;-0.2568;
423.0000;0.1490;-0.2568;
423.3000;0.1457;-0.2693;
423.6000;0.1498;-0.2693;
423.9000;0.1441;-0.2743;
424.2000;0.1465;-0.2693;
424.5000;0.1506;-0.2543;
424.8000;0.1457;-0.2568;
425.1000;0.1457;-0.2568;
425.4000;0.1490;-0.2493;
425.7000;0.1490;-0.2543;
426.0000;0.1481;-0.2593;
426.3000;0.1481;-0.2643;
426.6000;0.1473;-0.2593;
426.9000;0.1498;-0.2568;
427.2000;0.1457;-0.2643;
427.5000;0.1490;-0.2568;
427.8000;0.1473;-0.2643;
428.1000;0.1457;-0.2668;
428.4000;0.1490;-0.2618;
428.7000;0.1368;-0.2917;
429.0000;0.1473;-0.2643;
429.3000;0.1473;-0.2593;
429.6000;0.1490;-0.2518;
429.9000;0.1490;-0.2518;
430.2000;0.1481;-0.2518;
430.5000;0.1490;-0.2518;
430.8000;0.1498;-0.2468;
431.1000;0.1481;-0.2543;
431.4000;0.1498;-0.2568;
431.7000;0.1465;-0.2593;
432.0000;0.1481;-0.2468;
432.3000;0.1473;-0.2493;
432.6000;0.1498;-0.2493;
432.9000;0.1473;-0.2593;
433.2000;0.1522;-0.2468;
433.5000;0.1547;-0.2319;
433.8000;0.1449;-0.2593;
434.1000;0.1457;-0.2668;
434.4000;0.1473;-0.2618;
434.7000;0.1490;-0.2543;
435.0000;0.1481;-0.2568;
435.3000;0.1473;-0.2493;
435.6000;0.1522;-0.2444;
435.9000;0.1506;-0.2419;
436.2000;0.1522;-0.2394;
436.5000;0.1441;-0.2593;
436.8000;0.1473;-0.2518;
437.1000;0.1465;-0.2493;
437.4000;0.1473;-0.2468;
437.7000;0.1490;-0.2568;
438.0000;0.1473;-0.2718;
438.3000;0.1481;-0.2693;
438.6000;0.1498;-0.2793;
438.9000;0.1481;-0.2793;
439.2000;0.1465;-0.2793;
439.5000;0.1498;-0.2743;
439.8000;0.1498;-0.2768;
440.1000;0.1506;-0.2693;
440.4000;0.1490;-0.2693;
440.7000;0.1473;-0.2618;
441.0000;0.1490;-0.2593;
441.3000;0.1490;-0.2543;
441.6000;0.1481;-0.2543;
441.9000;0.1481;-0.2468;
442.2000;0.1457;-0.2543;
442.5000;0.1449;-0.2593;
442.8000;0.1449;-0.2643;
443.1000;0.1465;-0.2693;
443.4000;0.1490;-0.2693;
443.7000;0.1473;-0.2618;
444.0000;0.1473;-0.2543;
444.3000;0.1473;-0.2518;
444.6000;0.1473;-0.2593;
444.9000;0.1449;-0.2768;
445.2000;0.1457;-0.2818;
445.5000;0.1465;-0.2892;
445.8000;0.1481;-0.2842;
446.1000;0.1481;-0.2793;
446.4000;0.1481;-0.2768;
446.7000;0.1498;-0.2743;
447.0000;0.1514;-0.2718;
447.3000;0.1465;-0.2942;
447.6000;0.1490;-0.2892;
447.9000;0.1473;-0.2842;
448.2000;0.1473;-0.2892;
448.5000;0.1490;-0.2793;
448.8000;0.1481;-0.2892;
449.1000;0.1490;-0.2917;
449.4000;0.1481;-0.2942;
449.7000;0.1490;-0.2992;
450.0000;0.1506;-0.2942;
450.3000;0.1547;-0.2818;
450.6000;0.1465;-0.2992;
450.9000;0.1441;-0.3142;
451.2000;0.1473;-0.2992;
451.5000;0.1490;-0.2967;
451.8000;0.1498;-0.2992;
452.1000;0.1498;-0.2867;
452.4000;0.1457;-0.2867;
452.7000;0.1481;-0.2768;
453.0000;0.1490;-0.2768;
453.3000;0.1465;-0.2818;
453.6000;0.1498;-0.2693;
453.9000;0.1465;-0.2793;
454.2000;0.1465;-0.2818;
454.5000;0.1473;-0.2892;
454.8000;0.1481;-0.2842;
455.1000;0.1449;-0.2942;
455.4000;0.1506;-0.2818;
455.7000;0.1473;-0.2917;
456.0000;0.1457;-0.2917;
456.3000;0.1490;-0.2743;
456.6000;0.1481;-0.2842;
456.9000;0.1473;-0.2768;
457.2000;0.1506;-0.2718;
457.5000;0.1481;-0.2768;
457.8000;0.1490;-0.2743;
458.1000;0.1441;-0.2867;
458.4000;0.1481;-0.2693;
458.7000;0.1498;-0.2668;
459.0000;0.1416;-0.3017;
459.3000;0.1465;-0.2942;
459.6000;0.1465;-0.2967;
459.9000;0.1473;-0.2867;
460.2000;0.1473;-0.2842;
460.5000;0.1498;-0.2718;
460.8000;0.1473;-0.2668;
461.1000;0.1481;-0.2743;
461.4000;0.1490;-0.2693;
461.7000;0.1465;-0.2718;
462.0000;0.1481;-0.2693;
462.3000;0.1473;-0.2718;
462.6000;0.1506;-0.2643;
462.9000;0.1498;-0.2643;
463.2000;0.1473;-0.2693;
463.5000;0.1473;-0.2693;
463.8000;0.1490;-0.2693;
464.1000;0.1490;-0.2743;
464.4000;0.1473;-0.2718;
464.7000;0.1514;-0.2618;
465.0000;0.1490;-0.2768;
465.3000;0.1522;-0.2668;
465.6000;0.1490;-0.2668;
465.9000;0.1490;-0.2743;
466.2000;0.1465;-0.2768;
466.5000;0.1481;-0.2643;
466.8000;0.1490;-0.2618;
467.1000;0.1473;-0.2618;
467.4000;0.1473;-0.2643;
467.7000;0.1465;-0.2668;
468.0000;0.1473;-0.2618;
468.3000;0.1473;-0.2668;
468.6000;0.1473;-0.2668;
468.9000;0.1465;-0.2718;
469.2000;0.1449;-0.2743;
469.5000;0.1490;-0.2618;
469.8000;0.1481;-0.2668;
470.1000;0.1481;-0.2718;
470.4000;0.1490;-0.2693;
470.7000;0.1481;-0.2693;
471.0000;0.1473;-0.2593;
471.3000;0.1465;-0.2618;
471.6000;0.1481;-0.2668;
471.9000;0.1465;-0.2693;
472.2000;0.1465;-0.2718;
472.5000;0.1481;-0.2718;
472.8000;0.1481;-0.2643;
473.1000;0.1481;-0.2618;
473.4000;0.1498;-0.2568;
473.7000;0.1481;-0.2693;
474.0000;0.1481;-0.2768;
474.3000;0.1490;-0.2718;
474.6000;0.1506;-0.2743;
474.9000;0.1490;-0.2743;
475.2000;0.1490;-0.2668;
475.5000;0.1498;-0.2718;
475.8000;0.1481;-0.2768;
476.1000;0.1481;-0.2718;
476.4000;0.1465;-0.2818;
476.7000;0.1465;-0.2867;
477.0000;0.1473;-0.2892;
477.3000;0.1457;-0.2967;
477.6000;0.1481;-0.2842;
477.9000;0.1473;-0.2768;
478.2000;0.1473;-0.2768;
478.5000;0.1433;-0.2892;
478.8000;0.1449;-0.2917;
479.1000;0.1473;-0.2867;
479.4000;0.1490;-0.2743;
479.7000;0.1457;-0.2842;
480.0000;0.1441;-0.2793;
480.3000;0.1473;-0.2743;
480.6000;0.1506;-0.2618;
480.9000;0.1481;-0.2643;
481.2000;0.1481;-0.2643;
481.5000;0.1465;-0.2743;
481.8000;0.1490;-0.2643;
482.1000;0.1473;-0.2768;
482.4000;0.1465;-0.2818;
482.7000;0.1473;-0.2693;
483.0000;0.1457;-0.2643;
483.3000;0.1481;-0.2643;
483.6000;0.1392;-0.2867;
483.9000;0.1457;-0.2718;
484.2000;0.1473;-0.2668;
484.5000;0.1481;-0.2693;
484.8000;0.1490;-0.2718;
485.1000;0.1473;-0.2793;
485.4000;0.1490;-0.2743;
485.7000;0.1490;-0.2743;
486.0000;0.1481;-0.2793;
486.3000;0.1465;-0.2793;
486.6000;0.1490;-0.2693;
486.9000;0.1457;-0.2668;
487.2000;0.1465;-0.2668;
487.5000;0.1465;-0.2668;
487.8000;0.1457;-0.2693;
488.1000;0.1481;-0.2668;
488.4000;0.1490;-0.2543;
488.7000;0.1473;-0.2568;
489.0000;0.1465;-0.2568;
489.3000;0.1555;-0.2319;
489.6000;0.1481;-0.2618;
489.9000;0.1481;-0.2668;
490.2000;0.1465;-0.2668;
490.5000;0.1490;-0.2643;
490.8000;0.1506;-0.2618;
491.1000;0.1498;-0.2793;
491.4000;0.1481;-0.2842;
491.7000;0.1481;-0.2917;
492.0000;0.1465;-0.2892;
492.3000;0.1473;-0.2842;
492.6000;0.1498;-0.2768;
492.9000;0.1490;-0.2693;
493.2000;0.1481;-0.2743;
493.5000;0.1490;-0.2718;
493.8000;0.1457;-0.2842;
494.1000;0.1473;-0.2743;
494.4000;0.1473;-0.2668;
494.7000;0.1425;-0.2842;
495.0000;0.1449;-0.2743;
495.3000;0.1498;-0.2618;
495.6000;0.1457;-0.2818;
495.9000;0.1490;-0.2768;
496.2000;0.1481;-0.2867;
496.5000;0.1481;-0.2842;
496.8000;0.1490;-0.2743;
497.1000;0.1408;-0.2917;
497.4000;0.1441;-0.2867;
497.7000;0.1465;-0.2768;
498.0000;0.1457;-0.2768;
498.3000;0.1473;-0.2718;
498.6000;0.1473;-0.2693;
498.9000;0.1473;-0.2743;
499.2000;0.1449;-0.2768;
499.5000;0.1465;-0.2842;
499.8000;0.1514;-0.2743;
500.1000;0.1498;-0.2867;
500.4000;0.1490;-0.2867;
500.7000;0.1408;-0.3067;
501.0000;0.1465;-0.2768;
501.3000;0.1473;-0.2693;
501.6000;0.1416;-0.2892;
501.9000;0.1465;-0.2693;
502.2000;0.1473;-0.2718;
502.5000;0.1465;-0.2818;
502.8000;0.1473;-0.2867;
503.1000;0.1481;-0.2818;
503.4000;0.1490;-0.2818;
503.7000;0.1490;-0.2818;
504.0000;0.1498;-0.2793;
504.3000;0.1473;-0.2743;
504.6000;0.1481;-0.2693;
504.9000;0.1481;-0.2668;
505.2000;0.1481;-0.2668;
505.5000;0.1465;-0.2818;
505.8000;0.1481;-0.2842;
506.1000;0.1473;-0.2867;
506.4000;0.1473;-0.2992;
506.7000;0.1481;-0.2917;
507.0000;0.1473;-0.2867;
507.3000;0.1465;-0.2818;
507.6000;0.1457;-0.2867;
507.9000;0.1473;-0.2867;
508.2000;0.1449;-0.2867;
508.5000;0.1457;-0.2842;
508.8000;0.1465;-0.2793;
509.1000;0.1457;-0.2793;
509.4000;0.1457;-0.2793;
509.7000;0.1433;-0.2793;
510.0000;0.1473;-0.2718;
510.3000;0.1506;-0.2668;
510.6000;0.1481;-0.2793;
510.9000;0.1465;-0.2793;
511.2000;0.1498;-0.2643;
511.5000;0.1473;-0.2768;
511.8000;0.1457;-0.2917;
512.1000;0.1465;-0.2867;
512.4000;0.1530;-0.2693;
512.7000;0.1481;-0.2867;
513.0000;0.1473;-0.2867;
513.3000;0.1498;-0.2793;
513.6000;0.1481;-0.2892;
513.9000;0.1457;-0.2942;
514.2000;0.1473;-0.2917;
514.5000;0.1449;-0.2992;
514.8000;0.1449;-0.2917;
515.1000;0.1449;-0.2992;
515.4000;0.1465;-0.2992;
515.7000;0.1473;-0.3017;
516.0000;0.1465;-0.2942;
516.3000;0.1530;-0.2718;
516.6000;0.1481;-0.2793;
516.9000;0.1473;-0.2793;
517.2000;0.1441;-0.2818;
517.5000;0.1490;-0.2693;
517.8000;0.1473;-0.2842;
518.1000;0.1514;-0.2818;
518.4000;0.1449;-0.2793;
518.7000;0.1457;-0.2743;
519.0000;0.1465;-0.2743;
519.3000;0.1506;-0.2643;
519.6000;0.1465;-0.2668;
519.9000;0.1441;-0.2743;
520.2000;0.1481;-0.2618;
520.5000;0.1473;-0.2743;
520.8000;0.1506;-0.2718;
521.1000;0.1530;-0.2568;
521.4000;0.1490;-0.2718;
521.7000;0.1481;-0.2768;
522.0000;0.1457;-0.2892;
522.3000;0.1465;-0.2842;
522.6000;0.1465;-0.2892;
522.9000;0.1457;-0.2917;
523.2000;0.1473;-0.2892;
523.5000;0.1433;-0.2992;
523.8000;0.1465;-0.2842;
524.1000;0.1481;-0.2793;
524.4000;0.1457;-0.2942;
524.7000;0.1465;-0.2818;
525.0000;0.1400;-0.2942;
525.3000;0.1473;-0.2793;
525.6000;0.1433;-0.2867;
525.9000;0.1449;-0.2942;
526.2000;0.1457;-0.2818;
526.5000;0.1481;-0.2818;
526.8000;0.1433;-0.2768;
527.1000;0.1457;-0.2768;
527.4000;0.1465;-0.2693;
527.7000;0.1449;-0.2618;
528.0000;0.1498;-0.2568;
528.3000;0.1457;-0.2693;
528.6000;0.1465;-0.2718;
528.9000;0.1433;-0.2867;
529.2000;0.1530;-0.2668;
529.5000;0.1490;-0.2842;
529.8000;0.1490;-0.2942;
530.1000;0.1490;-0.2967;
530.4000;0.1514;-0.2842;
530.7000;0.1481;-0.2967;
531.0000;0.1473;-0.2917;
531.3000;0.1473;-0.2768;
531.6000;0.1481;-0.2818;
531.9000;0.1425;-0.2867;
532.2000;0.1563;-0.2493;
532.5000;0.1465;-0.2743;
532.8000;0.1481;-0.2718;
533.1000;0.1490;-0.2718;
533.4000;0.1506;-0.2818;
533.7000;0.1473;-0.2917;
534.0000;0.1473;-0.2917;
534.3000;0.1481;-0.2842;
534.6000;0.1457;-0.2867;
534.9000;0.1465;-0.2867;
535.2000;0.1490;-0.2892;
535.5000;0.1481;-0.2842;
535.8000;0.1465;-0.3017;
536.1000;0.1473;-0.3042;
536.4000;0.1473;-0.3042;
536.7000;0.1400;-0.3291;
537.0000;0.1481;-0.3042;
537.3000;0.1481;-0.2892;
537.6000;0.1579;-0.2643;
537.9000;0.1481;-0.2917;
538.2000;0.1490;-0.2892;
538.5000;0.1465;-0.2892;
538.8000;0.1433;-0.3017;
539.1000;0.1473;-0.2942;
539.4000;0.1473;-0.2917;
539.7000;0.1522;-0.2693;
540.0000;0.1514;-0.2768;
540.3000;0.1473;-0.2818;
540.6000;0.1465;-0.2693;
540.9000;0.1481;-0.2793;
541.2000;0.1465;-0.2842;
541.5000;0.1481;-0.2768;
541.8000;0.1522;-0.2668;
542.1000;0.1449;-0.2818;
542.4000;0.1449;-0.2743;
542.7000;0.1481;-0.2668;
543.0000;0.1465;-0.2743;
543.3000;0.1416;-0.2867;
543.6000;0.1449;-0.2892;
543.9000;0.1441;-0.2917;
544.2000;0.1465;-0.2892;
544.5000;0.1473;-0.2942;
544.8000;0.1465;-0.2992;
545.1000;0.1449;-0.3017;
545.4000;0.1473;-0.2917;
545.7000;0.1449;-0.2867;
546.0000;0.1441;-0.2892;
546.3000;0.1457;-0.2892;
546.6000;0.1433;-0.2967;
546.9000;0.1473;-0.2942;
547.2000;0.1457;-0.2967;
547.5000;0.1473;-0.2867;
547.8000;0.1433;-0.2793;
548.1000;0.1392;-0.2967;
548.4000;0.1473;-0.2768;
548.7000;0.1465;-0.2768;
549.0000;0.1441;-0.2892;
549.3000;0.1473;-0.2842;
549.6000;0.1425;-0.2992;
549.9000;0.1473;-0.2867;
550.2000;0.1465;-0.2942;
550.5000;0.1587;-0.2693;
550.8000;0.1433;-0.3042;
551.1000;0.1449;-0.2967;
551.4000;0.1490;-0.2942;
551.7000;0.1481;-0.2892;
552.0000;0.1490;-0.2892;
552.3000;0.1465;-0.3017;
552.6000;0.1465;-0.2992;
552.9000;0.1425;-0.3142;
553.2000;0.1522;-0.2842;
553.5000;0.1465;-0.3017;
553.8000;0.1490;-0.2967;
554.1000;0.1457;-0.2967;
554.4000;0.1490;-0.2917;
554.7000;0.1473;-0.2942;
555.0000;0.1457;-0.2967;
555.3000;0.1473;-0.2917;
555.6000;0.1465;-0.2917;
555.9000;0.1449;-0.2942;
556.2000;0.1481;-0.2793;
556.5000;0.1481;-0.2867;
556.8000;0.1457;-0.2967;
557.1000;0.1473;-0.2967;
557.4000;0.1473;-0.2942;
557.7000;0.1441;-0.2992;
558.0000;0.1441;-0.3042;
558.3000;0.1481;-0.3067;
558.6000;0.1449;-0.3092;
558.9000;0.1465;-0.2967;
559.2000;0.1473;-0.2917;
559.5000;0.1498;-0.2867;
559.8000;0.1457;-0.2967;
560.1000;0.1490;-0.2867;
560.4000;0.1538;-0.2768;
560.7000;0.1473;-0.2867;
561.0000;0.1465;-0.2892;
561.3000;0.1498;-0.2793;
561.6000;0.1465;-0.2793;
561.9000;0.1481;-0.2743;
562.2000;0.1457;-0.2793;
562.5000;0.1441;-0.2867;
562.8000;0.1481;-0.2793;
563.1000;0.1490;-0.2793;
563.4000;0.1425;-0.2967;
563.7000;0.1506;-0.2842;
564.0000;0.1449;-0.2917;
564.3000;0.1449;-0.2892;
564.6000;0.1473;-0.2818;
564.9000;0.1481;-0.2743;
565.2000;0.1563;-0.2493;
565.5000;0.1465;-0.2793;
565.8000;0.1465;-0.2768;
566.1000;0.1530;-0.2618;
566.4000;0.1465;-0.2842;
566.7000;0.1481;-0.2842;
567.0000;0.1384;-0.3017;
567.3000;0.1490;-0.2718;
567.6000;0.1457;-0.2842;
567.9000;0.1473;-0.2693;
568.2000;0.1449;-0.2793;
568.5000;0.1449;-0.2818;
568.8000;0.1473;-0.2892;
569.1000;0.1465;-0.2917;
569.4000;0.1433;-0.3017;
569.7000;0.1449;-0.2967;
570.0000;0.1465;-0.2967;
570.3000;0.1473;-0.2967;
570.6000;0.1587;-0.2643;
570.9000;0.1490;-0.2867;
571.2000;0.1473;-0.2842;
571.5000;0.1457;-0.2942;
571.8000;0.1490;-0.2892;
572.1000;0.1490;-0.2917;
572.4000;0.1555;-0.2643;
572.7000;0.1481;-0.2867;
573.0000;0.1490;-0.2892;
573.3000;0.1473;-0.2942;
573.6000;0.1449;-0.2967;
573.9000;0.1465;-0.2942;
574.2000;0.1522;-0.2793;
574.5000;0.1473;-0.2842;
574.8000;0.1490;-0.2743;
575.1000;0.1441;-0.2892;
575.4000;0.1465;-0.2818;
575.7000;0.1465;-0.2967;
576.0000;0.1481;-0.2842;
576.3000;0.1490;-0.2992;
576.6000;0.1506;-0.2867;
576.9000;0.1465;-0.3017;
577.2000;0.1465;-0.3017;
577.5000;0.1465;-0.2992;
577.8000;0.1465;-0.2992;
578.1000;0.1490;-0.3017;
578.4000;0.1465;-0.3117;
578.7000;0.1473;-0.2992;
579.0000;0.1457;-0.2992;
579.3000;0.1473;-0.2942;
579.6000;0.1481;-0.2942;
579.9000;0.1490;-0.3017;
580.2000;0.1473;-0.3117;
580.5000;0.1465;-0.3067;
580.8000;0.1490;-0.3017;
581.1000;0.1473;-0.2967;
581.4000;0.1498;-0.2967;
581.7000;0.1481;-0.3067;
582.0000;0.1498;-0.2992;
582.3000;0.1425;-0.3092;
582.6000;0.1481;-0.2892;
582.9000;0.1457;-0.2992;
583.2000;0.1473;-0.2867;
583.5000;0.1473;-0.2867;
583.8000;0.1481;-0.2743;
584.1000;0.1457;-0.2768;
584.4000;0.1465;-0.2818;
584.7000;0.1481;-0.2842;
585.0000;0.1473;-0.2892;
585.3000;0.1473;-0.2867;
585.6000;0.1465;-0.2942;
585.9000;0.1392;-0.3117;
586.2000;0.1457;-0.2867;
586.5000;0.1465;-0.2892;
586.8000;0.1465;-0.2818;
587.1000;0.1490;-0.2892;
587.4000;0.1481;-0.2842;
587.7000;0.1457;-0.2793;
588.0000;0.1433;-0.2793;
588.3000;0.1473;-0.2743;
588.6000;0.1449;-0.2793;
588.9000;0.1490;-0.2768;
589.2000;0.1522;-0.2693;
589.5000;0.1465;-0.2818;
589.8000;0.1481;-0.2917;
590.1000;0.1457;-0.2917;
590.4000;0.1490;-0.2818;
590.7000;0.1481;-0.2892;
591.0000;0.1465;-0.2892;
591.3000;0.1425;-0.3017;
591.6000;0.1449;-0.2967;
591.9000;0.1457;-0.2942;
592.2000;0.1473;-0.2992;
592.5000;0.1473;-0.2942;
592.8000;0.1473;-0.3067;
593.1000;0.1473;-0.3092;
593.4000;0.1449;-0.3042;
593.7000;0.1481;-0.2867;
594.0000;0.1473;-0.2892;
594.3000;0.1481;-0.2867;
594.6000;0.1416;-0.2967;
594.9000;0.1490;-0.2693;
595.2000;0.1481;-0.2643;
595.5000;0.1473;-0.2593;
595.8000;0.1465;-0.2693;
596.1000;0.1481;-0.2768;
596.4000;0.1465;-0.2693;
596.7000;0.1465;-0.2668;
597.0000;0.1490;-0.2643;
597.3000;0.1473;-0.2618;
597.6000;0.1481;-0.2593;
597.9000;0.1441;-0.2618;
598.2000;0.1473;-0.2643;
598.5000;0.1457;-0.2693;
598.8000;0.1457;-0.2768;
599.1000;0.1473;-0.2768;
599.4000;0.1473;-0.2768;
599.7000;0.1457;-0.2793;
600.0000;0.1416;-0.2967;
600.3000;0.1506;-0.2917;
600.6000;0.1449;-0.3092;
600.9000;0.1433;-0.3092;
601.2000;0.1449;-0.3192;
601.5000;0.1433;-0.3366;
601.8000;0.1441;-0.3590;
602.1000;0.1425;-0.3815;
602.4000;0.1408;-0.3989;
602.7000;0.1416;-0.4089;
603.0000;0.1400;-0.4214;
603.3000;0.1376;-0.4463;
603.6000;0.1376;-0.4513;
603.9000;0.1351;-0.4613;
604.2000;0.1376;-0.4737;
604.5000;0.1384;-0.4837;
604.8000;0.1359;-0.4962;
605.1000;0.1376;-0.4937;
605.4000;0.1302;-0.5111;
605.7000;0.1343;-0.4987;
606.0000;0.1327;-0.5012;
606.3000;0.1368;-0.4887;
606.6000;0.1311;-0.5136;
606.9000;0.1302;-0.5286;
607.2000;0.1327;-0.5286;
607.5000;0.1343;-0.5311;
607.8000;0.1335;-0.5336;
608.1000;0.1319;-0.5436;
608.4000;0.1335;-0.5436;
608.7000;0.1237;-0.5685;
609.0000;0.1270;-0.5635;
609.3000;0.1335;-0.5535;
609.6000;0.1319;-0.5560;
609.9000;0.1335;-0.5585;
610.2000;0.1311;-0.5610;
610.5000;0.1286;-0.5585;
610.8000;0.1311;-0.5510;
611.1000;0.1311;-0.5436;
611.4000;0.1311;-0.5386;
611.7000;0.1327;-0.5411;
612.0000;0.1294;-0.5560;
612.3000;0.1294;-0.5560;
612.6000;0.1311;-0.5510;
612.9000;0.1327;-0.5560;
613.2000;0.1302;-0.5685;
613.5000;0.1302;-0.5785;
613.8000;0.1311;-0.5735;
614.1000;0.1319;-0.5685;
614.4000;0.1311;-0.5710;
614.7000;0.1302;-0.5635;
615.0000;0.1278;-0.5660;
615.3000;0.1302;-0.5635;
615.6000;0.1270;-0.5660;
615.9000;0.1343;-0.5510;
616.2000;0.1302;-0.5610;
616.5000;0.1302;-0.5535;
616.8000;0.1311;-0.5510;
617.1000;0.1286;-0.5560;
617.4000;0.1294;-0.5460;
617.7000;0.1311;-0.5460;
618.0000;0.1302;-0.5535;
618.3000;0.1311;-0.5535;
618.6000;0.1270;-0.5610;
618.9000;0.1311;-0.5535;
619.2000;0.1286;-0.5685;
619.5000;0.1262;-0.5710;
619.8000;0.1270;-0.5660;
620.1000;0.1286;-0.5710;
620.4000;0.1311;-0.5760;
620.7000;0.1302;-0.5785;
621.0000;0.1294;-0.5735;
621.3000;0.1302;-0.5685;
621.6000;0.1311;-0.5660;
621.9000;0.1302;-0.5635;
622.2000;0.1286;-0.5735;
622.5000;0.1286;-0.5760;
622.8000;0.1286;-0.5760;
623.1000;0.1302;-0.5660;
623.4000;0.1294;-0.5635;
623.7000;0.1188;-0.5909;
624.0000;0.1311;-0.5610;
624.3000;0.1278;-0.5710;
624.6000;0.1278;-0.5685;
624.9000;0.1335;-0.5535;
625.2000;0.1286;-0.5785;
625.5000;0.1294;-0.5760;
625.8000;0.1294;-0.5859;
626.1000;0.1278;-0.5884;
626.4000;0.1319;-0.5710;
626.7000;0.1311;-0.5610;
627.0000;0.1270;-0.5660;
627.3000;0.1286;-0.5660;
627.6000;0.1294;-0.5585;
627.9000;0.1327;-0.5560;
628.2000;0.1294;-0.5660;
628.5000;0.1294;-0.5635;
628.8000;0.1294;-0.5635;
629.1000;0.1302;-0.5635;
629.4000;0.1302;-0.5610;
629.7000;0.1286;-0.5685;
630.0000;0.1278;-0.5635;
630.3000;0.1278;-0.5585;
630.6000;0.1319;-0.5535;
630.9000;0.1294;-0.5635;
631.2000;0.1278;-0.5785;
631.5000;0.1302;-0.5859;
631.8000;0.1302;-0.5984;
632.1000;0.1302;-0.6059;
632.4000;0.1286;-0.6109;
632.7000;0.1302;-0.6059;
633.0000;0.1286;-0.6184;
633.3000;0.1294;-0.6184;
633.6000;0.1286;-0.6184;
633.9000;0.1262;-0.6283;
634.2000;0.1278;-0.6333;
634.5000;0.1278;-0.6308;
634.8000;0.1294;-0.6283;
635.1000;0.1270;-0.6208;
635.4000;0.1278;-0.6109;
635.7000;0.1262;-0.6109;
636.0000;0.1302;-0.6009;
636.3000;0.1188;-0.6184;
636.6000;0.1286;-0.5834;
636.9000;0.1302;-0.5710;
637.2000;0.1278;-0.5810;
637.5000;0.1286;-0.5834;
637.8000;0.1270;-0.5959;
638.1000;0.1302;-0.5834;
638.4000;0.1262;-0.5934;
638.7000;0.1286;-0.5909;
639.0000;0.1294;-0.5859;
639.3000;0.1302;-0.5884;
639.6000;0.1294;-0.5909;
639.9000;0.1278;-0.5959;
640.2000;0.1278;-0.5934;
640.5000;0.1278;-0.5984;
640.8000;0.1294;-0.5909;
641.1000;0.1286;-0.5984;
641.4000;0.1294;-0.5834;
641.7000;0.1270;-0.5859;
642.0000;0.1286;-0.5760;
642.3000;0.1311;-0.5785;
642.6000;0.1278;-0.5834;
642.9000;0.1270;-0.5909;
643.2000;0.1229;-0.6009;
643.5000;0.1245;-0.5909;
643.8000;0.1327;-0.5735;
644.1000;0.1286;-0.5810;
644.4000;0.1286;-0.5909;
644.7000;0.1286;-0.5959;
645.0000;0.1351;-0.5785;
645.3000;0.1302;-0.5884;
645.6000;0.1351;-0.5810;
645.9000;0.1311;-0.5760;
646.2000;0.1376;-0.5535;
646.5000;0.1278;-0.5959;
646.8000;0.1286;-0.5909;
647.1000;0.1278;-0.5909;
647.4000;0.1294;-0.5884;
647.7000;0.1278;-0.5909;
648.0000;0.1343;-0.5834;
648.3000;0.1286;-0.5884;
648.6000;0.1311;-0.5735;
648.9000;0.1213;-0.5959;
649.2000;0.1286;-0.5785;
649.5000;0.1278;-0.5834;
649.8000;0.1286;-0.5810;
650.1000;0.1278;-0.5810;
650.4000;0.1262;-0.5810;
650.7000;0.1302;-0.5685;
651.0000;0.1278;-0.5834;
651.3000;0.1286;-0.5884;
651.6000;0.1262;-0.5984;
651.9000;0.1302;-0.5984;
652.2000;0.1286;-0.5984;
652.5000;0.1294;-0.5984;
652.8000;0.1302;-0.6009;
653.1000;0.1278;-0.6034;
653.4000;0.1294;-0.5934;
653.7000;0.1286;-0.5984;
654.0000;0.1286;-0.5934;
654.3000;0.1229;-0.6059;
654.6000;0.1384;-0.5610;
654.9000;0.1270;-0.5859;
655.2000;0.1254;-0.5909;
655.5000;0.1286;-0.5834;
655.8000;0.1278;-0.6009;
656.1000;0.1302;-0.6009;
656.4000;0.1302;-0.5984;
656.7000;0.1294;-0.6059;
657.0000;0.1319;-0.5984;
657.3000;0.1286;-0.6009;
657.6000;0.1368;-0.5834;
657.9000;0.1286;-0.6084;
658.2000;0.1286;-0.5959;
658.5000;0.1278;-0.5884;
658.8000;0.1302;-0.5735;
659.1000;0.1229;-0.5859;
659.4000;0.1351;-0.5635;
659.7000;0.1254;-0.5859;
660.0000;0.1302;-0.5834;
660.3000;0.1294;-0.5884;
660.6000;0.1278;-0.6034;
660.9000;0.1221;-0.6308;
661.2000;0.1302;-0.6134;
661.5000;0.1343;-0.5959;
661.8000;0.1245;-0.6134;
662.1000;0.1213;-0.6134;
662.4000;0.1294;-0.5909;
662.7000;0.1286;-0.5934;
663.0000;0.1311;-0.5810;
663.3000;0.1286;-0.5884;
663.6000;0.1270;-0.5959;
663.9000;0.1319;-0.5834;
664.2000;0.1254;-0.5959;
664.5000;0.1270;-0.5959;
664.8000;0.1286;-0.5909;
665.1000;0.1311;-0.5884;
665.4000;0.1270;-0.5834;
665.7000;0.1254;-0.5834;
666.0000;0.1262;-0.5760;
666.3000;0.1286;-0.5735;
666.6000;0.1319;-0.5535;
666.9000;0.1270;-0.5685;
667.2000;0.1335;-0.5510;
667.5000;0.1270;-0.5735;
667.8000;0.1286;-0.5834;
668.1000;0.1270;-0.5859;
668.4000;0.1245;-0.5884;
668.7000;0.1302;-0.5760;
669.0000;0.1270;-0.5834;
669.3000;0.1278;-0.5909;
669.6000;0.1229;-0.5984;
669.9000;0.1254;-0.5959;
670.2000;0.1286;-0.5884;
670.5000;0.1351;-0.5760;
670.8000;0.1213;-0.6059;
671.1000;0.1270;-0.5959;
671.4000;0.1270;-0.6034;
671.7000;0.1335;-0.5785;
672.0000;0.1270;-0.5984;
672.3000;0.1270;-0.6109;
672.6000;0.1286;-0.6134;
672.9000;0.1286;-0.6109;
673.2000;0.1286;-0.5959;
673.5000;0.1278;-0.6034;
673.8000;0.1302;-0.6009;
674.1000;0.1270;-0.6059;
674.4000;0.1294;-0.6009;
674.7000;0.1262;-0.6084;
675.0000;0.1286;-0.5984;
675.3000;0.1302;-0.5934;
675.6000;0.1278;-0.6084;
675.9000;0.1294;-0.6109;
676.2000;0.1302;-0.6084;
676.5000;0.1278;-0.6134;
676.8000;0.1278;-0.6134;
677.1000;0.1294;-0.5934;
677.4000;0.1302;-0.5884;
677.7000;0.1270;-0.5959;
678.0000;0.1286;-0.5859;
678.3000;0.1311;-0.5884;
678.6000;0.1262;-0.6034;
678.9000;0.1286;-0.5934;
679.2000;0.1254;-0.6134;
679.5000;0.1270;-0.6134;
679.8000;0.1270;-0.6059;
680.1000;0.1278;-0.6034;
680.4000;0.1270;-0.6009;
680.7000;0.1294;-0.5934;
681.0000;0.1262;-0.5934;
681.3000;0.1270;-0.5785;
681.6000;0.1278;-0.5810;
681.9000;0.1262;-0.5884;
682.2000;0.1351;-0.5710;
682.5000;0.1294;-0.5884;
682.8000;0.1286;-0.5934;
683.1000;0.1335;-0.5785;
683.4000;0.1213;-0.6159;
683.7000;0.1311;-0.5959;
684.0000;0.1294;-0.6034;
684.3000;0.1221;-0.6184;
684.6000;0.1254;-0.5984;
684.9000;0.1278;-0.5959;
685.2000;0.1270;-0.6134;
685.5000;0.1286;-0.6059;
685.8000;0.1286;-0.6084;
686.1000;0.1245;-0.6134;
686.4000;0.1245;-0.6109;
686.7000;0.1311;-0.5859;
687.0000;0.1278;-0.5934;
687.3000;0.1286;-0.5959;
687.6000;0.1302;-0.5909;
687.9000;0.1311;-0.5909;
688.2000;0.1286;-0.5984;
688.5000;0.1294;-0.5959;
688.8000;0.1278;-0.5934;
689.1000;0.1294;-0.5984;
689.4000;0.1384;-0.5785;
689.7000;0.1278;-0.6134;
690.0000;0.1278;-0.6134;
690.3000;0.1286;-0.6034;
690.6000;0.1286;-0.5984;
690.9000;0.1286;-0.5909;
691.2000;0.1294;-0.5959;
691.5000;0.1286;-0.5934;
691.8000;0.1359;-0.5685;
692.1000;0.1270;-0.5810;
692.4000;0.1278;-0.5859;
692.7000;0.1237;-0.5810;
693.0000;0.1286;-0.5785;
693.3000;0.1294;-0.5785;
693.6000;0.1237;-0.5834;
693.9000;0.1384;-0.5436;
694.2000;0.1286;-0.5760;
694.5000;0.1245;-0.5810;
694.8000;0.1278;-0.5859;
695.1000;0.1254;-0.5884;
695.4000;0.1262;-0.5785;
695.7000;0.1286;-0.5834;
696.0000;0.1278;-0.5785;
696.3000;0.1286;-0.5735;
696.6000;0.1278;-0.5785;
696.9000;0.1294;-0.5785;
697.2000;0.1262;-0.5810;
697.5000;0.1286;-0.5685;
697.8000;0.1254;-0.5710;
698.1000;0.1311;-0.5660;
698.4000;0.1294;-0.5710;
698.7000;0.1286;-0.5859;
699.0000;0.1270;-0.5909;
699.3000;0.1286;-0.5785;
699.6000;0.1270;-0.5859;
699.9000;0.1294;-0.5884;
700.2000;0.1286;-0.5884;
700.5000;0.1302;-0.5859;
700.8000;0.1294;-0.5859;
701.1000;0.1294;-0.5884;
701.4000;0.1286;-0.5884;
701.7000;0.1294;-0.5934;
702.0000;0.1302;-0.5859;
702.3000;0.1359;-0.5685;
702.6000;0.1270;-0.5884;
702.9000;0.1278;-0.5959;
703.2000;0.1278;-0.5909;
703.5000;0.1286;-0.5834;
703.8000;0.1270;-0.5810;
704.1000;0.1270;-0.5760;
704.4000;0.1278;-0.5760;
704.7000;0.1270;-0.5760;
705.0000;0.1221;-0.5934;
705.3000;0.1351;-0.5635;
705.6000;0.1302;-0.5710;
705.9000;0.1319;-0.5735;
706.2000;0.1319;-0.5660;
706.5000;0.1294;-0.5735;
706.8000;0.1286;-0.5710;
707.1000;0.1319;-0.5685;
707.4000;0.1286;-0.5834;
707.7000;0.1286;-0.5810;
708.0000;0.1286;-0.5834;
708.3000;0.1270;-0.5884;
708.6000;0.1286;-0.5859;
708.9000;0.1262;-0.5984;
709.2000;0.1286;-0.5934;
709.5000;0.1294;-0.5959;
709.8000;0.1294;-0.5984;
710.1000;0.1278;-0.5934;
710.4000;0.1294;-0.5834;
710.7000;0.1262;-0.5884;
711.0000;0.1294;-0.5884;
711.3000;0.1286;-0.5934;
711.6000;0.1294;-0.5959;
711.9000;0.1294;-0.5934;
712.2000;0.1286;-0.5934;
712.5000;0.1254;-0.6034;
712.8000;0.1294;-0.5934;
713.1000;0.1286;-0.5959;
713.4000;0.1286;-0.6034;
713.7000;0.1278;-0.6009;
714.0000;0.1278;-0.6009;
714.3000;0.1286;-0.5984;
714.6000;0.1286;-0.5984;
714.9000;0.1270;-0.6034;
715.2000;0.1286;-0.6059;
715.5000;0.1294;-0.6059;
715.8000;0.1270;-0.6084;
716.1000;0.1278;-0.6084;
716.4000;0.1294;-0.6109;
716.7000;0.1335;-0.5934;
717.0000;0.1286;-0.6109;
717.3000;0.1286;-0.6208;
717.6000;0.1278;-0.6258;
717.9000;0.1213;-0.6308;
718.2000;0.1286;-0.6134;
718.5000;0.1294;-0.6034;
718.8000;0.1278;-0.6059;
719.1000;0.1278;-0.6109;
719.4000;0.1262;-0.6109;
719.7000;0.1294;-0.6034;
720.0000;0.1286;-0.5934;
720.3000;0.1286;-0.6084;
720.6000;0.1319;-0.6084;
720.9000;0.1286;-0.6084;
721.2000;0.1294;-0.6109;
721.5000;0.1294;-0.6109;
721.8000;0.1302;-0.5959;
722.1000;0.1286;-0.5984;
722.4000;0.1335;-0.5909;
722.7000;0.1302;-0.6059;
723.0000;0.1302;-0.6059;
723.3000;0.1294;-0.6184;
723.6000;0.1294;-0.6109;
723.9000;0.1278;-0.6134;
724.2000;0.1262;-0.6159;
724.5000;0.1180;-0.6358;
724.8000;0.1294;-0.6059;
725.1000;0.1294;-0.5984;
725.4000;0.1213;-0.6159;
725.7000;0.1302;-0.5959;
726.0000;0.1254;-0.6059;
726.3000;0.1270;-0.6059;
726.6000;0.1286;-0.6084;
726.9000;0.1270;-0.6059;
727.2000;0.1286;-0.6034;
727.5000;0.1270;-0.5984;
727.8000;0.1302;-0.5934;
728.1000;0.1278;-0.5984;
728.4000;0.1286;-0.5959;
728.7000;0.1294;-0.6034;
729.0000;0.1302;-0.5984;
729.3000;0.1286;-0.6084;
729.6000;0.1278;-0.5959;
729.9000;0.1302;-0.5859;
730.2000;0.1351;-0.5760;
730.5000;0.1286;-0.5884;
730.8000;0.1278;-0.5934;
731.1000;0.1286;-0.5909;
731.4000;0.1286;-0.5909;
731.7000;0.1294;-0.5834;
732.0000;0.1302;-0.5859;
732.3000;0.1302;-0.5959;
732.6000;0.1278;-0.5959;
732.9000;0.1278;-0.5984;
733.2000;0.1278;-0.6084;
733.5000;0.1294;-0.5959;
733.8000;0.1278;-0.5984;
734.1000;0.1294;-0.5909;
734.4000;0.1270;-0.5884;
734.7000;0.1327;-0.5859;
735.0000;0.1294;-0.5984;
735.3000;0.1254;-0.6009;
735.6000;0.1180;-0.6208;
735.9000;0.1286;-0.5984;
736.2000;0.1294;-0.5909;
736.5000;0.1188;-0.6159;
736.8000;0.1262;-0.6009;
737.1000;0.1286;-0.5810;
737.4000;0.1302;-0.5760;
737.7000;0.1294;-0.5834;
738.0000;0.1286;-0.5810;
738.3000;0.1294;-0.5810;
738.6000;0.1294;-0.5834;
738.9000;0.1229;-0.6059;
739.2000;0.1270;-0.5934;
739.5000;0.1278;-0.5959;
739.8000;0.1302;-0.5785;
740.1000;0.1286;-0.5859;
740.4000;0.1286;-0.5909;
740.7000;0.1294;-0.5909;
741.0000;0.1294;-0.5934;
741.3000;0.1294;-0.5934;
741.6000;0.1294;-0.5884;
741.9000;0.1270;-0.5984;
742.2000;0.1286;-0.5909;
742.5000;0.1294;-0.5834;
742.8000;0.1286;-0.5884;
743.1000;0.1270;-0.5984;
743.4000;0.1278;-0.5884;
743.7000;0.1311;-0.5834;
744.0000;0.1278;-0.5884;
744.3000;0.1262;-0.5884;
744.6000;0.1286;-0.5785;
744.9000;0.1294;-0.5810;
745.2000;0.1294;-0.5785;
745.5000;0.1311;-0.5685;
745.8000;0.1311;-0.5660;
746.1000;0.1302;-0.5660;
746.4000;0.1359;-0.5510;
746.7000;0.1311;-0.5610;
747.0000;0.1302;-0.5560;
747.3000;0.1302;-0.5560;
747.6000;0.1311;-0.5510;
747.9000;0.1278;-0.5635;
748.2000;0.1294;-0.5560;
748.5000;0.1286;-0.5560;
748.8000;0.1286;-0.5585;
749.1000;0.1286;-0.5610;
749.4000;0.1270;-0.5685;
749.7000;0.1278;-0.5760;
750.0000;0.1286;-0.5760;
750.3000;0.1270;-0.5760;
750.6000;0.1335;-0.5660;
750.9000;0.1278;-0.5785;
751.2000;0.1294;-0.5660;
751.5000;0.1294;-0.5785;
751.8000;0.1302;-0.5760;
752.1000;0.1294;-0.5785;
752.4000;0.1294;-0.5884;
752.7000;0.1286;-0.5959;
753.0000;0.1294;-0.5785;
753.3000;0.1245;-0.5959;
753.6000;0.1286;-0.5834;
753.9000;0.1221;-0.5909;
754.2000;0.1254;-0.5909;
754.5000;0.1270;-0.5909;
754.8000;0.1270;-0.5959;
755.1000;0.1278;-0.6009;
755.4000;0.1278;-0.5934;
755.7000;0.1286;-0.5909;
756.0000;0.1302;-0.5884;
756.3000;0.1294;-0.5984;
756.6000;0.1286;-0.6009;
756.9000;0.1286;-0.6059;
757.2000;0.1294;-0.6034;
757.5000;0.1229;-0.6233;
757.8000;0.1294;-0.6084;
758.1000;0.1270;-0.6109;
758.4000;0.1319;-0.5984;
758.7000;0.1278;-0.6084;
759.0000;0.1286;-0.6009;
759.3000;0.1311;-0.5984;
759.6000;0.1278;-0.6009;
759.9000;0.1221;-0.6134;
760.2000;0.1294;-0.5934;
760.5000;0.1286;-0.5909;
760.8000;0.1294;-0.5834;
761.1000;0.1270;-0.5909;
761.4000;0.1302;-0.5909;
761.7000;0.1286;-0.5810;
762.0000;0.1294;-0.5685;
762.3000;0.1286;-0.5735;
762.6000;0.1294;-0.5785;
762.9000;0.1286;-0.5760;
763.2000;0.1262;-0.5785;
763.5000;0.1278;-0.5735;
763.8000;0.1294;-0.5685;
764.1000;0.1302;-0.5710;
764.4000;0.1286;-0.5760;
764.7000;0.1286;-0.5810;
765.0000;0.1302;-0.5760;
765.3000;0.1302;-0.5810;
765.6000;0.1286;-0.5884;
765.9000;0.1294;-0.5884;
766.2000;0.1278;-0.5834;
766.5000;0.1278;-0.5810;
766.8000;0.1286;-0.5859;
767.1000;0.1302;-0.5859;
767.4000;0.1278;-0.5934;
767.7000;0.1311;-0.5959;
768.0000;0.1294;-0.5884;
768.3000;0.1327;-0.5810;
768.6000;0.1311;-0.5810;
768.9000;0.1270;-0.5859;
769.2000;0.1278;-0.5959;
769.5000;0.1286;-0.6059;
769.8000;0.1294;-0.6134;
770.1000;0.1237;-0.6208;
770.4000;0.1286;-0.6084;
770.7000;0.1278;-0.6134;
771.0000;0.1262;-0.6134;
771.3000;0.1278;-0.6159;
771.6000;0.1294;-0.6084;
771.9000;0.1302;-0.6084;
772.2000;0.1294;-0.6059;
772.5000;0.1278;-0.5984;
772.8000;0.1302;-0.5934;
773.1000;0.1294;-0.5909;
773.4000;0.1286;-0.5884;
773.7000;0.1286;-0.5834;
774.0000;0.1270;-0.5959;
774.3000;0.1286;-0.5959;
774.6000;0.1294;-0.5959;
774.9000;0.1294;-0.6034;
775.2000;0.1286;-0.6034;
775.5000;0.1286;-0.5959;
775.8000;0.1294;-0.5959;
776.1000;0.1278;-0.6034;
776.4000;0.1278;-0.6034;
776.7000;0.1302;-0.5959;
777.0000;0.1197;-0.6233;
777.3000;0.1351;-0.5884;
777.6000;0.1302;-0.6059;
777.9000;0.1270;-0.6134;
778.2000;0.1302;-0.6109;
778.5000;0.1302;-0.6084;
778.8000;0.1294;-0.6059;
779.1000;0.1294;-0.6109;
779.4000;0.1254;-0.6208;
779.7000;0.1270;-0.6184;
780.0000;0.1294;-0.6109;
780.3000;0.1278;-0.6159;
780.6000;0.1278;-0.6159;
780.9000;0.1286;-0.6059;
781.2000;0.1270;-0.6059;
781.5000;0.1180;-0.6208;
781.8000;0.1278;-0.5984;
782.1000;0.1270;-0.5959;
782.4000;0.1172;-0.6308;
782.7000;0.1278;-0.6034;
783.0000;0.1294;-0.6034;
783.3000;0.1302;-0.6009;
783.6000;0.1278;-0.6084;
783.9000;0.1254;-0.6159;
784.2000;0.1286;-0.6208;
784.5000;0.1294;-0.6159;
784.8000;0.1262;-0.6208;
785.1000;0.1286;-0.6109;
785.4000;0.1270;-0.6009;
785.7000;0.1294;-0.5909;
786.0000;0.1254;-0.5984;
786.3000;0.1286;-0.5909;
786.6000;0.1270;-0.5909;
786.9000;0.1270;-0.5984;
787.2000;0.1270;-0.5984;
787.5000;0.1286;-0.5959;
787.8000;0.1270;-0.6084;
788.1000;0.1302;-0.6059;
788.4000;0.1278;-0.6084;
788.7000;0.1294;-0.6034;
789.0000;0.1302;-0.5959;
789.3000;0.1302;-0.5934;
789.6000;0.1302;-0.6034;
789.9000;0.1286;-0.6084;
790.2000;0.1294;-0.5909;
790.5000;0.1262;-0.5760;
790.8000;0.1286;-0.5685;
791.1000;0.1343;-0.5535;
791.4000;0.1302;-0.5585;
791.7000;0.1278;-0.5710;
792.0000;0.1311;-0.5785;
792.3000;0.1286;-0.5934;
792.6000;0.1294;-0.5884;
792.9000;0.1294;-0.5934;
793.2000;0.1294;-0.5909;
793.5000;0.1302;-0.5884;
793.8000;0.1294;-0.5934;
794.1000;0.1286;-0.5909;
794.4000;0.1278;-0.6034;
794.7000;0.1294;-0.5959;
795.0000;0.1262;-0.6084;
795.3000;0.1302;-0.5984;
795.6000;0.1286;-0.5959;
795.9000;0.1270;-0.5934;
796.2000;0.1311;-0.5810;
796.5000;0.1254;-0.5959;
796.8000;0.1286;-0.5834;
797.1000;0.1229;-0.5984;
797.4000;0.1294;-0.5834;
797.7000;0.1286;-0.5735;
798.0000;0.1343;-0.5610;
798.3000;0.1311;-0.5735;
798.6000;0.1286;-0.5785;
798.9000;0.1335;-0.5710;
799.2000;0.1286;-0.5859;
799.5000;0.1278;-0.5859;
799.8000;0.1294;-0.5859;
800.1000;0.1311;-0.5834;
800.4000;0.1294;-0.5909;
800.7000;0.1278;-0.5984;
801.0000;0.1294;-0.5959;
801.3000;0.1302;-0.6009;
801.6000;0.1368;-0.5884;
801.9000;0.1294;-0.5984;
802.2000;0.1294;-0.5909;
802.5000;0.1294;-0.5959;
802.8000;0.1286;-0.5959;
803.1000;0.1302;-0.5884;
803.4000;0.1262;-0.5934;
803.7000;0.1286;-0.5834;
804.0000;0.1278;-0.5934;
804.3000;0.1270;-0.5934;
804.6000;0.1270;-0.5959;
804.9000;0.1286;-0.5810;
805.2000;0.1294;-0.5735;
805.5000;0.1278;-0.5735;
805.8000;0.1278;-0.5810;
806.1000;0.1286;-0.5810;
806.4000;0.1294;-0.5785;
806.7000;0.1286;-0.5760;
807.0000;0.1294;-0.5785;
807.3000;0.1294;-0.5785;
807.6000;0.1294;-0.5909;
807.9000;0.1286;-0.5984;
808.2000;0.1311;-0.5884;
808.5000;0.1286;-0.5959;
808.8000;0.1319;-0.5909;
809.1000;0.1286;-0.5959;
809.4000;0.1302;-0.5984;
809.7000;0.1294;-0.5984;
810.0000;0.1270;-0.6059;
810.3000;0.1294;-0.5984;
810.6000;0.1294;-0.5909;
810.9000;0.1278;-0.5959;
811.2000;0.1286;-0.5909;
811.5000;0.1286;-0.5934;
811.8000;0.1294;-0.5984;
812.1000;0.1294;-0.5984;
812.4000;0.1302;-0.5984;
812.7000;0.1286;-0.5959;
813.0000;0.1270;-0.5859;
813.3000;0.1270;-0.5859;
813.6000;0.1286;-0.5735;
813.9000;0.1311;-0.5660;
814.2000;0.1302;-0.5685;
814.5000;0.1319;-0.5710;
814.8000;0.1262;-0.5859;
815.1000;0.1286;-0.5660;
815.4000;0.1270;-0.5660;
815.7000;0.1286;-0.5560;
816.0000;0.1270;-0.5510;
816.3000;0.1327;-0.5460;
816.6000;0.1286;-0.5585;
816.9000;0.1270;-0.5610;
817.2000;0.1294;-0.5535;
817.5000;0.1319;-0.5560;
817.8000;0.1262;-0.5710;
818.1000;0.1327;-0.5610;
818.4000;0.1311;-0.5610;
818.7000;0.1229;-0.5810;
819.0000;0.1302;-0.5635;
819.3000;0.1286;-0.5660;
819.6000;0.1294;-0.5585;
819.9000;0.1188;-0.5834;
820.2000;0.1278;-0.5635;
820.5000;0.1286;-0.5585;
820.8000;0.1262;-0.5735;
821.1000;0.1278;-0.5685;
821.4000;0.1286;-0.5585;
821.7000;0.1286;-0.5635;
822.0000;0.1294;-0.5560;
822.3000;0.1327;-0.5460;
822.6000;0.1302;-0.5485;
822.9000;0.1343;-0.5436;
823.2000;0.1286;-0.5635;
823.5000;0.1286;-0.5660;
823.8000;0.1286;-0.5760;
824.1000;0.1302;-0.5760;
824.4000;0.1278;-0.5909;
824.7000;0.1254;-0.6009;
825.0000;0.1278;-0.5884;
825.3000;0.1278;-0.5959;
825.6000;0.1286;-0.5959;
825.9000;0.1302;-0.5859;
826.2000;0.1286;-0.5810;
826.5000;0.1294;-0.5785;
826.8000;0.1262;-0.5834;
827.1000;0.1278;-0.5710;
827.4000;0.1294;-0.5710;
827.7000;0.1278;-0.5834;
828.0000;0.1302;-0.5735;
828.3000;0.1302;-0.5760;
828.6000;0.1278;-0.5934;
828.9000;0.1286;-0.5884;
829.2000;0.1286;-0.5859;
829.5000;0.1262;-0.6009;
829.8000;0.1294;-0.5909;
830.1000;0.1254;-0.5984;
830.4000;0.1270;-0.5934;
830.7000;0.1294;-0.5884;
831.0000;0.1286;-0.5859;
831.3000;0.1278;-0.5760;
831.6000;0.1343;-0.5560;
831.9000;0.1294;-0.5685;
832.2000;0.1302;-0.5660;
832.5000;0.1286;-0.5735;
832.8000;0.1294;-0.5760;
833.1000;0.1302;-0.5735;
833.4000;0.1286;-0.5760;
833.7000;0.1327;-0.5735;
834.0000;0.1278;-0.5859;
834.3000;0.1286;-0.5785;
834.6000;0.1302;-0.5834;
834.9000;0.1278;-0.5884;
835.2000;0.1311;-0.5810;
835.5000;0.1270;-0.5859;
835.8000;0.1286;-0.5834;
836.1000;0.1254;-0.5984;
836.4000;0.1278;-0.6059;
836.7000;0.1302;-0.6034;
837.0000;0.1237;-0.6208;
837.3000;0.1302;-0.6084;
837.6000;0.1286;-0.6159;
837.9000;0.1302;-0.6084;
838.2000;0.1286;-0.6109;
838.5000;0.1335;-0.5984;
838.8000;0.1294;-0.6009;
839.1000;0.1188;-0.6258;
839.4000;0.1270;-0.6184;
839.7000;0.1294;-0.6109;
840.0000;0.1286;-0.6084;
840.3000;0.1270;-0.6109;
840.6000;0.1229;-0.6134;
840.9000;0.1302;-0.5934;
841.2000;0.1278;-0.5909;
841.5000;0.1278;-0.5810;
841.8000;0.1311;-0.5760;
842.1000;0.1262;-0.5884;
842.4000;0.1302;-0.5859;
842.7000;0.1294;-0.5884;
843.0000;0.1302;-0.5859;
843.3000;0.1302;-0.5909;
843.6000;0.1311;-0.5909;
843.9000;0.1286;-0.5934;
844.2000;0.1254;-0.6009;
844.5000;0.1302;-0.5884;
844.8000;0.1294;-0.5810;
845.1000;0.1262;-0.5810;
845.4000;0.1286;-0.5760;
845.7000;0.1294;-0.5810;
846.0000;0.1302;-0.5834;
846.3000;0.1294;-0.5859;
846.6000;0.1278;-0.5884;
846.9000;0.1278;-0.5834;
847.2000;0.1294;-0.5785;
847.5000;0.1311;-0.5735;
847.8000;0.1294;-0.5760;
848.1000;0.1311;-0.5685;
848.4000;0.1270;-0.5735;
848.7000;0.1294;-0.5785;
849.0000;0.1311;-0.5685;
849.3000;0.1294;-0.5685;
849.6000;0.1270;-0.5735;
849.9000;0.1270;-0.5735;
850.2000;0.1262;-0.5760;
850.5000;0.1262;-0.5685;
850.8000;0.1278;-0.5710;
851.1000;0.1294;-0.5660;
851.4000;0.1286;-0.5710;
851.7000;0.1278;-0.5884;
852.0000;0.1237;-0.5934;
852.3000;0.1254;-0.5760;
852.6000;0.1270;-0.5834;
852.9000;0.1302;-0.5735;
853.2000;0.1302;-0.5785;
853.5000;0.1254;-0.5884;
853.8000;0.1270;-0.5884;
854.1000;0.1294;-0.5685;
854.4000;0.1319;-0.5585;
854.7000;0.1286;-0.5660;
855.0000;0.1286;-0.5685;
855.3000;0.1278;-0.5685;
855.6000;0.1302;-0.5585;
855.9000;0.1278;-0.5660;
856.2000;0.1286;-0.5660;
856.5000;0.1286;-0.5660;
856.8000;0.1294;-0.5560;
857.1000;0.1294;-0.5610;
857.4000;0.1254;-0.5685;
857.7000;0.1286;-0.5535;
858.0000;0.1294;-0.5510;
858.3000;0.1319;-0.5485;
858.6000;0.1286;-0.5535;
858.9000;0.1327;-0.5436;
859.2000;0.1294;-0.5510;
859.5000;0.1311;-0.5485;
859.8000;0.1270;-0.5535;
860.1000;0.1294;-0.5510;
860.4000;0.1270;-0.5585;
860.7000;0.1286;-0.5735;
861.0000;0.1302;-0.5660;
861.3000;0.1319;-0.5735;
861.6000;0.1294;-0.5859;
861.9000;0.1302;-0.5735;
862.2000;0.1286;-0.5685;
862.5000;0.1278;-0.5735;
862.8000;0.1205;-0.5909;
863.1000;0.1270;-0.5859;
863.4000;0.1294;-0.5834;
863.7000;0.1278;-0.5859;
864.0000;0.1188;-0.6109;
864.3000;0.1270;-0.5884;
864.6000;0.1278;-0.5785;
864.9000;0.1262;-0.5735;
865.2000;0.1270;-0.5710;
865.5000;0.1335;-0.5560;
865.8000;0.1270;-0.5710;
866.1000;0.1270;-0.5635;
866.4000;0.1278;-0.5610;
866.7000;0.1286;-0.5635;
867.0000;0.1286;-0.5585;
867.3000;0.1311;-0.5685;
867.6000;0.1262;-0.5810;
867.9000;0.1311;-0.5735;
868.2000;0.1302;-0.5685;
868.5000;0.1302;-0.5785;
868.8000;0.1286;-0.5834;
869.1000;0.1278;-0.5785;
869.4000;0.1278;-0.5810;
869.7000;0.1278;-0.5785;
870.0000;0.1229;-0.5959;
870.3000;0.1197;-0.5984;
870.6000;0.1302;-0.5585;
870.9000;0.1286;-0.5735;
871.2000;0.1278;-0.5810;
871.5000;0.1302;-0.5859;
871.8000;0.1302;-0.5834;
872.1000;0.1262;-0.5909;
872.4000;0.1254;-0.5859;
872.7000;0.1311;-0.5810;
873.0000;0.1311;-0.5834;
873.3000;0.1294;-0.5834;
873.6000;0.1392;-0.5610;
873.9000;0.1294;-0.5859;
874.2000;0.1278;-0.5735;
874.5000;0.1262;-0.5635;
874.8000;0.1311;-0.5560;
875.1000;0.1254;-0.5660;
875.4000;0.1278;-0.5560;
875.7000;0.1302;-0.5460;
876.0000;0.1302;-0.5535;
876.3000;0.1294;-0.5660;
876.6000;0.1278;-0.5710;
876.9000;0.1294;-0.5685;
877.2000;0.1294;-0.5735;
877.5000;0.1351;-0.5635;
877.8000;0.1302;-0.5884;
878.1000;0.1270;-0.5834;
878.4000;0.1302;-0.5760;
878.7000;0.1294;-0.5834;
879.0000;0.1286;-0.5785;
879.3000;0.1270;-0.5859;
879.6000;0.1302;-0.5785;
879.9000;0.1278;-0.5884;
880.2000;0.1270;-0.5909;
880.5000;0.1286;-0.5984;
880.8000;0.1286;-0.5984;
881.1000;0.1278;-0.5984;
881.4000;0.1302;-0.5859;
881.7000;0.1254;-0.5984;
882.0000;0.1319;-0.5785;
882.3000;0.1302;-0.5710;
882.6000;0.1294;-0.5685;
882.9000;0.1286;-0.5735;
883.2000;0.1286;-0.5710;
883.5000;0.1302;-0.5660;
883.8000;0.1327;-0.5635;
884.1000;0.1262;-0.5710;
884.4000;0.1311;-0.5610;
884.7000;0.1302;-0.5560;
885.0000;0.1343;-0.5460;
885.3000;0.1229;-0.5710;
885.6000;0.1286;-0.5635;
885.9000;0.1254;-0.5785;
886.2000;0.1286;-0.5735;
886.5000;0.1294;-0.5610;
886.8000;0.1270;-0.5660;
887.1000;0.1302;-0.5610;
887.4000;0.1294;-0.5585;
887.7000;0.1302;-0.5510;
888.0000;0.1254;-0.5560;
888.3000;0.1294;-0.5485;
888.6000;0.1286;-0.5560;
888.9000;0.1278;-0.5535;
889.2000;0.1286;-0.5510;
889.5000;0.1294;-0.5585;
889.8000;0.1278;-0.5685;
890.1000;0.1302;-0.5660;
890.4000;0.1262;-0.5785;
890.7000;0.1286;-0.5685;
891.0000;0.1286;-0.5610;
891.3000;0.1270;-0.5635;
891.6000;0.1278;-0.5635;
891.9000;0.1270;-0.5585;
892.2000;0.1319;-0.5560;
892.5000;0.1311;-0.5610;
892.8000;0.1302;-0.5460;
893.1000;0.1319;-0.5411;
893.4000;0.1302;-0.5436;
893.7000;0.1262;-0.5560;
894.0000;0.1188;-0.5760;
894.3000;0.1270;-0.5585;
894.6000;0.1270;-0.5660;
894.9000;0.1376;-0.5386;
895.2000;0.1262;-0.5685;
895.5000;0.1270;-0.5660;
895.8000;0.1294;-0.5560;
896.1000;0.1343;-0.5485;
896.4000;0.1278;-0.5610;
896.7000;0.1286;-0.5560;
897.0000;0.1294;-0.5585;
897.3000;0.1294;-0.5585;
897.6000;0.1319;-0.5535;
897.9000;0.1311;-0.5560;
898.2000;0.1294;-0.5585;
898.5000;0.1294;-0.5585;
898.8000;0.1286;-0.5660;
899.1000;0.1286;-0.5660;
899.4000;0.1294;-0.5635;
899.7000;0.1335;-0.5485;
900.0000;0.1270;-0.5735;
900.3000;0.1286;-0.5735;
900.6000;0.1286;-0.5760;
900.9000;0.1278;-0.5810;
901.2000;0.1278;-0.5710;
901.5000;0.1311;-0.5660;
901.8000;0.1302;-0.5710;
902.1000;0.1286;-0.5735;
902.4000;0.1262;-0.5735;
902.7000;0.1302;-0.5660;
903.0000;0.1302;-0.5610;
903.3000;0.1286;-0.5585;
903.6000;0.1286;-0.5585;
903.9000;0.1278;-0.5635;
904.2000;0.1270;-0.5859;
904.5000;0.1278;-0.5810;
904.8000;0.1294;-0.5834;
905.1000;0.1294;-0.5909;
905.4000;0.1278;-0.5909;
905.7000;0.1278;-0.5884;
906.0000;0.1270;-0.5735;
906.3000;0.1270;-0.5710;
906.6000;0.1278;-0.5710;
906.9000;0.1254;-0.5834;
907.2000;0.1286;-0.5760;
907.5000;0.1294;-0.5635;
907.8000;0.1302;-0.5635;
908.1000;0.1270;-0.5685;
908.4000;0.1311;-0.5635;
908.7000;0.1237;-0.5834;
909.0000;0.1327;-0.5635;
909.3000;0.1286;-0.5610;
909.6000;0.1278;-0.5660;
909.9000;0.1294;-0.5660;
910.2000;0.1205;-0.6009;
910.5000;0.1311;-0.5685;
910.8000;0.1270;-0.5785;
911.1000;0.1254;-0.5859;
911.4000;0.1270;-0.5785;
911.7000;0.1327;-0.5735;
912.0000;0.1229;-0.5884;
912.3000;0.1351;-0.5510;
912.6000;0.1286;-0.5735;
912.9000;0.1302;-0.5810;
913.2000;0.1294;-0.5859;
913.5000;0.1302;-0.5859;
913.8000;0.1254;-0.5959;
914.1000;0.1302;-0.5785;
914.4000;0.1278;-0.5785;
914.7000;0.1302;-0.5735;
915.0000;0.1311;-0.5735;
915.3000;0.1286;-0.5859;
915.6000;0.1302;-0.5785;
915.9000;0.1270;-0.5859;
916.2000;0.1294;-0.5859;
916.5000;0.1302;-0.5834;
916.8000;0.1302;-0.5785;
917.1000;0.1278;-0.5884;
917.4000;0.1294;-0.5735;
917.7000;0.1294;-0.5834;
918.0000;0.1237;-0.6034;
918.3000;0.1270;-0.5909;
918.6000;0.1294;-0.5735;
918.9000;0.1278;-0.5735;
919.2000;0.1294;-0.5710;
919.5000;0.1286;-0.5710;
919.8000;0.1270;-0.5660;
920.1000;0.1286;-0.5560;
920.4000;0.1294;-0.5585;
920.7000;0.1302;-0.5660;
921.0000;0.1286;-0.5635;
921.3000;0.1294;-0.5635;
921.6000;0.1294;-0.5610;
921.9000;0.1311;-0.5510;
922.2000;0.1319;-0.5510;
922.5000;0.1237;-0.5710;
922.8000;0.1302;-0.5585;
923.1000;0.1278;-0.5635;
923.4000;0.1294;-0.5610;
923.7000;0.1286;-0.5560;
924.0000;0.1302;-0.5560;
924.3000;0.1294;-0.5635;
924.6000;0.1302;-0.5585;
924.9000;0.1302;-0.5535;
925.2000;0.1286;-0.5535;
925.5000;0.1262;-0.5660;
925.8000;0.1302;-0.5685;
926.1000;0.1302;-0.5810;
926.4000;0.1262;-0.5984;
926.7000;0.1302;-0.5909;
927.0000;0.1286;-0.5909;
927.3000;0.1286;-0.5959;
927.6000;0.1294;-0.5984;
927.9000;0.1319;-0.5909;
928.2000;0.1294;-0.5909;
928.5000;0.1319;-0.5810;
928.8000;0.1302;-0.5785;
929.1000;0.1311;-0.5785;
929.4000;0.1319;-0.5785;
929.7000;0.1294;-0.5834;
930.0000;0.1262;-0.5909;
930.3000;0.1286;-0.5834;
930.6000;0.1286;-0.5834;
930.9000;0.1302;-0.5760;
931.2000;0.1286;-0.5760;
931.5000;0.1278;-0.5785;
931.8000;0.1294;-0.5735;
932.1000;0.1319;-0.5685;
932.4000;0.1327;-0.5635;
932.7000;0.1286;-0.5685;
933.0000;0.1205;-0.5884;
933.3000;0.1262;-0.5710;
933.6000;0.1311;-0.5560;
933.9000;0.1262;-0.5685;
934.2000;0.1286;-0.5685;
934.5000;0.1294;-0.5735;
934.8000;0.1311;-0.5735;
935.1000;0.1278;-0.5859;
935.4000;0.1270;-0.5909;
935.7000;0.1294;-0.5760;
936.0000;0.1294;-0.5810;
936.3000;0.1294;-0.5785;
936.6000;0.1286;-0.5810;
936.9000;0.1278;-0.5760;
937.2000;0.1286;-0.5735;
937.5000;0.1302;-0.5810;
937.8000;0.1262;-0.5909;
938.1000;0.1311;-0.5834;
938.4000;0.1302;-0.5810;
938.7000;0.1278;-0.5834;
939.0000;0.1302;-0.5810;
939.3000;0.1392;-0.5560;
939.6000;0.1302;-0.5785;
939.9000;0.1294;-0.5710;
940.2000;0.1294;-0.5760;
940.5000;0.1270;-0.5834;
940.8000;0.1294;-0.5735;
941.1000;0.1302;-0.5660;
941.4000;0.1286;-0.5685;
941.7000;0.1311;-0.5685;
942.0000;0.1311;-0.5810;
942.3000;0.1286;-0.5834;
942.6000;0.1254;-0.5859;
942.9000;0.1286;-0.5710;
943.2000;0.1294;-0.5660;
943.5000;0.1368;-0.5510;
943.8000;0.1278;-0.5710;
944.1000;0.1359;-0.5585;
944.4000;0.1294;-0.5810;
944.7000;0.1302;-0.5859;
945.0000;0.1286;-0.5859;
945.3000;0.1286;-0.5760;
945.6000;0.1278;-0.5785;
945.9000;0.1270;-0.5735;
946.2000;0.1286;-0.5685;
946.5000;0.1262;-0.5785;
946.8000;0.1294;-0.5760;
947.1000;0.1278;-0.5884;
947.4000;0.1302;-0.5884;
947.7000;0.1302;-0.5834;
948.0000;0.1286;-0.5859;
948.3000;0.1294;-0.5785;
948.6000;0.1302;-0.5660;
948.9000;0.1286;-0.5735;
949.2000;0.1302;-0.5685;
949.5000;0.1278;-0.5735;
949.8000;0.1254;-0.5785;
950.1000;0.1286;-0.5660;
950.4000;0.1286;-0.5585;
950.7000;0.1278;-0.5610;
951.0000;0.1270;-0.5660;
951.3000;0.1245;-0.5760;
951.6000;0.1262;-0.5710;
951.9000;0.1294;-0.5685;
952.2000;0.1294;-0.5710;
952.5000;0.1311;-0.5685;
952.8000;0.1262;-0.5760;
953.1000;0.1278;-0.5710;
953.4000;0.1278;-0.5710;
953.7000;0.1294;-0.5560;
954.0000;0.1278;-0.5585;
954.3000;0.1311;-0.5660;
954.6000;0.1294;-0.5760;
954.9000;0.1302;-0.5660;
955.2000;0.1294;-0.5735;
955.5000;0.1286;-0.5884;
955.8000;0.1286;-0.5859;
956.1000;0.1327;-0.5635;
956.4000;0.1278;-0.5685;
956.7000;0.1319;-0.5610;
957.0000;0.1213;-0.5810;
957.3000;0.1327;-0.5535;
957.6000;0.1278;-0.5660;
957.9000;0.1294;-0.5635;
958.2000;0.1327;-0.5485;
958.5000;0.1270;-0.5535;
958.8000;0.1302;-0.5535;
959.1000;0.1254;-0.5635;
959.4000;0.1384;-0.5386;
959.7000;0.1311;-0.5535;
960.0000;0.1294;-0.5535;
960.3000;0.1319;-0.5510;
960.6000;0.1278;-0.5585;
960.9000;0.1278;-0.5560;
961.2000;0.1294;-0.5510;
961.5000;0.1286;-0.5485;
961.8000;0.1294;-0.5510;
962.1000;0.1286;-0.5560;
962.4000;0.1302;-0.5585;
962.7000;0.1294;-0.5535;
963.0000;0.1294;-0.5560;
963.3000;0.1343;-0.5386;
963.6000;0.1270;-0.5560;
963.9000;0.1278;-0.5685;
964.2000;0.1294;-0.5610;
964.5000;0.1278;-0.5735;
964.8000;0.1286;-0.5635;
965.1000;0.1343;-0.5411;
965.4000;0.1262;-0.5610;
965.7000;0.1278;-0.5585;
966.0000;0.1286;-0.5610;
966.3000;0.1286;-0.5660;
966.6000;0.1237;-0.5810;
966.9000;0.1286;-0.5635;
967.2000;0.1294;-0.5635;
967.5000;0.1213;-0.5834;
967.8000;0.1278;-0.5760;
968.1000;0.1221;-0.5984;
968.4000;0.1221;-0.5959;
968.7000;0.1319;-0.5710;
969.0000;0.1270;-0.5810;
969.3000;0.1278;-0.5834;
969.6000;0.1180;-0.6159;
969.9000;0.1302;-0.5859;
970.2000;0.1270;-0.5909;
970.5000;0.1270;-0.5859;
970.8000;0.1302;-0.5710;
971.1000;0.1294;-0.5760;
971.4000;0.1278;-0.5760;
971.7000;0.1319;-0.5685;
972.0000;0.1302;-0.5660;
972.3000;0.1302;-0.5685;
972.6000;0.1294;-0.5685;
972.9000;0.1294;-0.5735;
973.2000;0.1302;-0.5810;
973.5000;0.1294;-0.5810;
973.8000;0.1270;-0.5810;
974.1000;0.1278;-0.5735;
974.4000;0.1302;-0.5710;
974.7000;0.1294;-0.5710;
975.0000;0.1286;-0.5660;
975.3000;0.1270;-0.5735;
975.6000;0.1294;-0.5760;
975.9000;0.1262;-0.5934;
976.2000;0.1262;-0.5834;
976.5000;0.1294;-0.5810;
976.8000;0.1286;-0.5785;
977.1000;0.1294;-0.5785;
977.4000;0.1286;-0.5710;
977.7000;0.1311;-0.5610;
978.0000;0.1286;-0.5735;
978.3000;0.1270;-0.5909;
978.6000;0.1278;-0.5909;
978.9000;0.1294;-0.5760;
979.2000;0.1270;-0.5760;
979.5000;0.1278;-0.5785;
979.8000;0.1278;-0.5859;
980.1000;0.1278;-0.5785;
980.4000;0.1286;-0.5735;
980.7000;0.1262;-0.5760;
981.0000;0.1286;-0.5785;
981.3000;0.1286;-0.5909;
981.6000;0.1270;-0.5859;
981.9000;0.1278;-0.5735;
982.2000;0.1294;-0.5735;
982.5000;0.1294;-0.5760;
982.8000;0.1294;-0.5810;
983.1000;0.1319;-0.5834;
983.4000;0.1254;-0.6084;
983.7000;0.1262;-0.6084;
984.0000;0.1302;-0.5909;
984.3000;0.1286;-0.5884;
984.6000;0.1311;-0.5785;
984.9000;0.1335;-0.5660;
985.2000;0.1302;-0.5635;
985.5000;0.1254;-0.5785;
985.8000;0.1286;-0.5859;
986.1000;0.1221;-0.5984;
986.4000;0.1262;-0.5959;
986.7000;0.1384;-0.5560;
987.0000;0.1245;-0.5859;
987.3000;0.1311;-0.5710;
987.6000;0.1286;-0.5785;
987.9000;0.1294;-0.5760;
988.2000;0.1343;-0.5660;
988.5000;0.1286;-0.5859;
988.8000;0.1286;-0.5859;
989.1000;0.1262;-0.5884;
989.4000;0.1278;-0.5785;
989.7000;0.1343;-0.5585;
990.0000;0.1302;-0.5685;
990.3000;0.1294;-0.5685;
990.6000;0.1335;-0.5660;
990.9000;0.1286;-0.5785;
991.2000;0.1286;-0.5760;
991.5000;0.1294;-0.5810;
991.8000;0.1311;-0.5735;
992.1000;0.1359;-0.5535;
992.4000;0.1221;-0.5859;
992.7000;0.1294;-0.5735;
993.0000;0.1294;-0.5710;
993.3000;0.1311;-0.5735;
993.6000;0.1319;-0.5635;
993.9000;0.1278;-0.5660;
994.2000;0.1311;-0.5635;
994.5000;0.1294;-0.5585;
994.8000;0.1311;-0.5560;
995.1000;0.1286;-0.5660;
995.4000;0.1286;-0.5660;
995.7000;0.1286;-0.5735;
996.0000;0.1302;-0.5710;
996.3000;0.1286;-0.5810;
996.6000;0.1278;-0.5934;
996.9000;0.1270;-0.6009;
997.2000;0.1294;-0.5884;
997.5000;0.1294;-0.5810;
997.8000;0.1294;-0.5834;
998.1000;0.1311;-0.5834;
998.4000;0.1311;-0.5834;
998.7000;0.1319;-0.5810;
999.0000;0.1311;-0.5810;
999.3000;0.1286;-0.5834;
999.6000;0.1319;-0.5834;
999.9000;0.1327;-0.5810;
1000.2000;0.1302;-0.5834;
1000.5000;0.1286;-0.5735;
1000.8000;0.1270;-0.5760;
1001.1000;0.1327;-0.5635;
1001.4000;0.1286;-0.5785;
1001.7000;0.1278;-0.5785;
1002.0000;0.1311;-0.5710;
1002.3000;0.1319;-0.5685;
1002.6000;0.1262;-0.5859;
1002.9000;0.1270;-0.5785;
1003.2000;0.1294;-0.5710;
1003.5000;0.1302;-0.5710;
1003.8000;0.1294;-0.5685;
1004.1000;0.1294;-0.5660;
1004.4000;0.1351;-0.5510;
1004.7000;0.1327;-0.5560;
1005.0000;0.1278;-0.5710;
1005.3000;0.1262;-0.5685;
1005.6000;0.1302;-0.5610;
1005.9000;0.1327;-0.5635;
1006.2000;0.1302;-0.5710;
1006.5000;0.1327;-0.5585;
1006.8000;0.1302;-0.5710;
1007.1000;0.1294;-0.5735;
1007.4000;0.1302;-0.5785;
1007.7000;0.1294;-0.5859;
1008.0000;0.1327;-0.5785;
1008.3000;0.1302;-0.5810;
1008.6000;0.1335;-0.5710;
1008.9000;0.1351;-0.5635;
1009.2000;0.1335;-0.5735;
1009.5000;0.1294;-0.5810;
1009.8000;0.1286;-0.5735;
1010.1000;0.1254;-0.5760;
1010.4000;0.1278;-0.5785;
1010.7000;0.1278;-0.5710;
1011.0000;0.1262;-0.5810;
1011.3000;0.1270;-0.5810;
1011.6000;0.1270;-0.5735;
1011.9000;0.1278;-0.5660;
1012.2000;0.1278;-0.5735;
1012.5000;0.1188;-0.6009;
1012.8000;0.1294;-0.5760;
1013.1000;0.1278;-0.5785;
1013.4000;0.1302;-0.5735;
1013.7000;0.1286;-0.5710;
1014.0000;0.1270;-0.5710;
1014.3000;0.1270;-0.5760;
1014.6000;0.1343;-0.5660;
1014.9000;0.1319;-0.5685;
1015.2000;0.1302;-0.5685;
1015.5000;0.1302;-0.5735;
1015.8000;0.1286;-0.5810;
1016.1000;0.1278;-0.5834;
1016.4000;0.1278;-0.5934;
1016.7000;0.1294;-0.5859;
1017.0000;0.1302;-0.5810;
1017.3000;0.1302;-0.5909;
1017.6000;0.1278;-0.5984;
1017.9000;0.1278;-0.5934;
1018.2000;0.1286;-0.5909;
1018.5000;0.1286;-0.5909;
1018.8000;0.1270;-0.5959;
1019.1000;0.1254;-0.6009;
1019.4000;0.1286;-0.5934;
1019.7000;0.1286;-0.5909;
1020.0000;0.1270;-0.5959;
1020.3000;0.1302;-0.5859;
1020.6000;0.1278;-0.5934;
1020.9000;0.1294;-0.5934;
1021.2000;0.1286;-0.6059;
1021.5000;0.1278;-0.6034;
1021.8000;0.1286;-0.5984;
1022.1000;0.1294;-0.5834;
1022.4000;0.1311;-0.5735;
1022.7000;0.1262;-0.5735;
1023.0000;0.1311;-0.5735;
1023.3000;0.1286;-0.5760;
1023.6000;0.1254;-0.5760;
1023.9000;0.1294;-0.5585;
1024.2000;0.1229;-0.5735;
1024.5000;0.1245;-0.5909;
1024.8000;0.1343;-0.5710;
1025.1000;0.1335;-0.5760;
1025.4000;0.1302;-0.5859;
1025.7000;0.1294;-0.5859;
1026.0000;0.1294;-0.5710;
1026.3000;0.1237;-0.5884;
1026.6000;0.1270;-0.5760;
1026.9000;0.1270;-0.5760;
1027.2000;0.1278;-0.5735;
1027.5000;0.1319;-0.5635;
1027.8000;0.1286;-0.5610;
1028.1000;0.1302;-0.5560;
1028.4000;0.1254;-0.5710;
1028.7000;0.1286;-0.5610;
1029.0000;0.1270;-0.5635;
1029.3000;0.1262;-0.5735;
1029.6000;0.1302;-0.5760;
1029.9000;0.1302;-0.5685;
1030.2000;0.1311;-0.5560;
1030.5000;0.1302;-0.5585;
1030.8000;0.1294;-0.5585;
1031.1000;0.1294;-0.5535;
1031.4000;0.1294;-0.5485;
1031.7000;0.1278;-0.5485;
1032.0000;0.1262;-0.5560;
1032.3000;0.1302;-0.5436;
1032.6000;0.1270;-0.5510;
1032.9000;0.1278;-0.5460;
1033.2000;0.1294;-0.5460;
1033.5000;0.1302;-0.5485;
1033.8000;0.1270;-0.5610;
1034.1000;0.1294;-0.5710;
1034.4000;0.1286;-0.5760;
1034.7000;0.1278;-0.5685;
1035.0000;0.1319;-0.5585;
1035.3000;0.1278;-0.5660;
1035.6000;0.1311;-0.5535;
1035.9000;0.1294;-0.5485;
1036.2000;0.1294;-0.5585;
1036.5000;0.1278;-0.5685;
1036.8000;0.1319;-0.5485;
1037.1000;0.1302;-0.5535;
1037.4000;0.1294;-0.5585;
1037.7000;0.1294;-0.5585;
1038.0000;0.1311;-0.5635;
1038.3000;0.1286;-0.5710;
1038.6000;0.1294;-0.5760;
1038.9000;0.1278;-0.5785;
1039.2000;0.1319;-0.5760;
1039.5000;0.1286;-0.5785;
1039.8000;0.1294;-0.5685;
1040.1000;0.1302;-0.5660;
1040.4000;0.1294;-0.5735;
1040.7000;0.1294;-0.5735;
1041.0000;0.1286;-0.5735;
1041.3000;0.1270;-0.5660;
1041.6000;0.1294;-0.5660;
1041.9000;0.1294;-0.5610;
1042.2000;0.1286;-0.5610;
1042.5000;0.1302;-0.5585;
1042.8000;0.1294;-0.5610;
1043.1000;0.1278;-0.5685;
1043.4000;0.1262;-0.5735;
1043.7000;0.1278;-0.5610;
1044.0000;0.1270;-0.5510;
1044.3000;0.1270;-0.5660;
1044.6000;0.1335;-0.5485;
1044.9000;0.1302;-0.5510;
1045.2000;0.1270;-0.5560;
1045.5000;0.1286;-0.5535;
1045.8000;0.1302;-0.5610;
1046.1000;0.1327;-0.5485;
1046.4000;0.1294;-0.5610;
1046.7000;0.1286;-0.5635;
1047.0000;0.1262;-0.5660;
1047.3000;0.1311;-0.5460;
1047.6000;0.1311;-0.5436;
1047.9000;0.1311;-0.5535;
1048.2000;0.1270;-0.5585;
1048.5000;0.1335;-0.5436;
1048.8000;0.1254;-0.5610;
1049.1000;0.1294;-0.5560;
1049.4000;0.1319;-0.5485;
1049.7000;0.1400;-0.5311;
1050.0000;0.1229;-0.5760;
1050.3000;0.1311;-0.5635;
1050.6000;0.1286;-0.5660;
1050.9000;0.1294;-0.5610;
1051.2000;0.1294;-0.5510;
1051.5000;0.1311;-0.5535;
1051.8000;0.1286;-0.5535;
1052.1000;0.1294;-0.5510;
1052.4000;0.1278;-0.5585;
1052.7000;0.1311;-0.5485;
1053.0000;0.1294;-0.5560;
1053.3000;0.1294;-0.5685;
1053.6000;0.1294;-0.5660;
1053.9000;0.1311;-0.5610;
1054.2000;0.1319;-0.5585;
1054.5000;0.1294;-0.5610;
1054.8000;0.1278;-0.5635;
1055.1000;0.1302;-0.5560;
1055.4000;0.1319;-0.5510;
1055.7000;0.1319;-0.5535;
1056.0000;0.1294;-0.5535;
1056.3000;0.1278;-0.5535;
1056.6000;0.1286;-0.5535;
1056.9000;0.1270;-0.5485;
1057.2000;0.1245;-0.5585;
1057.5000;0.1302;-0.5386;
1057.8000;0.1294;-0.5336;
1058.1000;0.1286;-0.5436;
1058.4000;0.1294;-0.5485;
1058.7000;0.1343;-0.5436;
1059.0000;0.1302;-0.5535;
1059.3000;0.1294;-0.5510;
1059.6000;0.1286;-0.5436;
1059.9000;0.1286;-0.5460;
1060.2000;0.1286;-0.5436;
1060.5000;0.1270;-0.5485;
1060.8000;0.1270;-0.5460;
1061.1000;0.1278;-0.5535;
1061.4000;0.1302;-0.5485;
1061.7000;0.1327;-0.5386;
1062.0000;0.1278;-0.5585;
1062.3000;0.1286;-0.5685;
1062.6000;0.1294;-0.5710;
1062.9000;0.1335;-0.5635;
1063.2000;0.1311;-0.5685;
1063.5000;0.1286;-0.5735;
1063.8000;0.1294;-0.5760;
1064.1000;0.1294;-0.5810;
1064.4000;0.1302;-0.5685;
1064.7000;0.1286;-0.5785;
1065.0000;0.1302;-0.5735;
1065.3000;0.1311;-0.5635;
1065.6000;0.1286;-0.5735;
1065.9000;0.1205;-0.5934;
1066.2000;0.1270;-0.5760;
1066.5000;0.1286;-0.5810;
1066.8000;0.1335;-0.5610;
1067.1000;0.1302;-0.5785;
1067.4000;0.1286;-0.5785;
1067.7000;0.1254;-0.5884;
1068.0000;0.1311;-0.5760;
1068.3000;0.1302;-0.5810;
1068.6000;0.1294;-0.5810;
1068.9000;0.1327;-0.5735;
1069.2000;0.1254;-0.5859;
1069.5000;0.1294;-0.5735;
1069.8000;0.1327;-0.5610;
1070.1000;0.1286;-0.5685;
1070.4000;0.1319;-0.5510;
1070.7000;0.1294;-0.5460;
1071.0000;0.1278;-0.5560;
1071.3000;0.1286;-0.5610;
1071.6000;0.1286;-0.5510;
1071.9000;0.1302;-0.5485;
1072.2000;0.1311;-0.5485;
1072.5000;0.1278;-0.5635;
1072.8000;0.1221;-0.5785;
1073.1000;0.1270;-0.5635;
1073.4000;0.1286;-0.5610;
1073.7000;0.1278;-0.5585;
1074.0000;0.1278;-0.5610;
1074.3000;0.1302;-0.5560;
1074.6000;0.1286;-0.5685;
1074.9000;0.1278;-0.5710;
1075.2000;0.1262;-0.5785;
1075.5000;0.1294;-0.5685;
1075.8000;0.1278;-0.5810;
1076.1000;0.1327;-0.5685;
1076.4000;0.1302;-0.5760;
1076.7000;0.1278;-0.5785;
1077.0000;0.1278;-0.5735;
1077.3000;0.1278;-0.5785;
1077.6000;0.1180;-0.6034;
1077.9000;0.1262;-0.5810;
1078.2000;0.1294;-0.5710;
1078.5000;0.1302;-0.5685;
1078.8000;0.1270;-0.5735;
1079.1000;0.1294;-0.5610;
1079.4000;0.1294;-0.5610;
1079.7000;0.1286;-0.5635;
1080.0000;0.1294;-0.5585;
1080.3000;0.1286;-0.5585;
1080.6000;0.1294;-0.5610;
1080.9000;0.1302;-0.5585;
1081.2000;0.1286;-0.5610;
1081.5000;0.1270;-0.5610;
1081.8000;0.1278;-0.5685;
1082.1000;0.1294;-0.5635;
1082.4000;0.1294;-0.5585;
1082.7000;0.1286;-0.5535;
1083.0000;0.1294;-0.5510;
1083.3000;0.1286;-0.5535;
1083.6000;0.1286;-0.5585;
1083.9000;0.1294;-0.5560;
1084.2000;0.1311;-0.5535;
1084.5000;0.1302;-0.5535;
1084.8000;0.1262;-0.5685;
1085.1000;0.1278;-0.5660;
1085.4000;0.1278;-0.5735;
1085.7000;0.1237;-0.5785;
1086.0000;0.1294;-0.5560;
1086.3000;0.1270;-0.5610;
1086.6000;0.1286;-0.5510;
1086.9000;0.1319;-0.5460;
1087.2000;0.1286;-0.5560;
1087.5000;0.1278;-0.5560;
1087.8000;0.1286;-0.5635;
1088.1000;0.1294;-0.5685;
1088.4000;0.1294;-0.5685;
1088.7000;0.1245;-0.5834;
1089.0000;0.1294;-0.5710;
1089.3000;0.1286;-0.5735;
1089.6000;0.1302;-0.5685;
1089.9000;0.1311;-0.5710;
1090.2000;0.1311;-0.5610;
1090.5000;0.1302;-0.5560;
1090.8000;0.1278;-0.5610;
1091.1000;0.1302;-0.5585;
1091.4000;0.1286;-0.5610;
1091.7000;0.1278;-0.5585;
1092.0000;0.1286;-0.5535;
1092.3000;0.1262;-0.5585;
1092.6000;0.1270;-0.5610;
1092.9000;0.1278;-0.5635;
1093.2000;0.1286;-0.5585;
1093.5000;0.1319;-0.5510;
1093.8000;0.1286;-0.5585;
1094.1000;0.1294;-0.5585;
1094.4000;0.1286;-0.5585;
1094.7000;0.1302;-0.5610;
1095.0000;0.1294;-0.5510;
1095.3000;0.1302;-0.5610;
1095.6000;0.1294;-0.5585;
1095.9000;0.1294;-0.5585;
1096.2000;0.1311;-0.5635;
1096.5000;0.1270;-0.5685;
1096.8000;0.1319;-0.5560;
1097.1000;0.1294;-0.5635;
1097.4000;0.1254;-0.5760;
1097.7000;0.1286;-0.5735;
1098.0000;0.1286;-0.5834;
1098.3000;0.1278;-0.5909;
1098.6000;0.1327;-0.5810;
1098.9000;0.1286;-0.5909;
1099.2000;0.1286;-0.5810;
1099.5000;0.1294;-0.5834;
1099.8000;0.1254;-0.6009;
1100.1000;0.1245;-0.6009;
1100.4000;0.1294;-0.5909;
1100.7000;0.1294;-0.5760;
1101.0000;0.1294;-0.5635;
1101.3000;0.1286;-0.5685;
1101.6000;0.1262;-0.5760;
1101.9000;0.1270;-0.5710;
1102.2000;0.1384;-0.5336;
1102.5000;0.1311;-0.5560;
1102.8000;0.1294;-0.5685;
1103.1000;0.1286;-0.5735;
1103.4000;0.1302;-0.5810;
1103.7000;0.1270;-0.5834;
1104.0000;0.1278;-0.5635;
1104.3000;0.1294;-0.5735;
1104.6000;0.1294;-0.5760;
1104.9000;0.1302;-0.5785;
1105.2000;0.1278;-0.5810;
1105.5000;0.1294;-0.5710;
1105.8000;0.1205;-0.5934;
1106.1000;0.1311;-0.5685;
1106.4000;0.1286;-0.5735;
1106.7000;0.1302;-0.5785;
1107.0000;0.1294;-0.5810;
1107.3000;0.1286;-0.5760;
1107.6000;0.1205;-0.5934;
1107.9000;0.1294;-0.5785;
1108.2000;0.1278;-0.5859;
1108.5000;0.1286;-0.5834;
1108.8000;0.1384;-0.5635;
1109.1000;0.1311;-0.5884;
1109.4000;0.1286;-0.5909;
1109.7000;0.1286;-0.5959;
1110.0000;0.1302;-0.6034;
1110.3000;0.1294;-0.6134;
1110.6000;0.1188;-0.6358;
1110.9000;0.1270;-0.6009;
1111.2000;0.1294;-0.5934;
1111.5000;0.1286;-0.5909;
1111.8000;0.1237;-0.5984;
1112.1000;0.1286;-0.5785;
1112.4000;0.1286;-0.5810;
1112.7000;0.1188;-0.6134;
1113.0000;0.1286;-0.5810;
1113.3000;0.1270;-0.5810;
1113.6000;0.1302;-0.5760;
1113.9000;0.1302;-0.5760;
1114.2000;0.1278;-0.6009;
1114.5000;0.1294;-0.5959;
1114.8000;0.1302;-0.5959;
1115.1000;0.1278;-0.5934;
1115.4000;0.1286;-0.5909;
1115.7000;0.1278;-0.5884;
1116.0000;0.1278;-0.5834;
1116.3000;0.1270;-0.5884;
1116.6000;0.1294;-0.5834;
1116.9000;0.1286;-0.5785;
1117.2000;0.1359;-0.5610;
1117.5000;0.1327;-0.5685;
1117.8000;0.1197;-0.5984;
1118.1000;0.1294;-0.5785;
1118.4000;0.1359;-0.5535;
1118.7000;0.1270;-0.5660;
1119.0000;0.1294;-0.5535;
1119.3000;0.1286;-0.5560;
1119.6000;0.1335;-0.5411;
1119.9000;0.1302;-0.5485;
1120.2000;0.1311;-0.5411;
1120.5000;0.1221;-0.5560;
1120.8000;0.1294;-0.5535;
1121.1000;0.1294;-0.5660;
1121.4000;0.1368;-0.5510;
1121.7000;0.1286;-0.5685;
1122.0000;0.1286;-0.5660;
1122.3000;0.1286;-0.5635;
1122.6000;0.1286;-0.5535;
1122.9000;0.1286;-0.5510;
1123.2000;0.1229;-0.5735;
1123.5000;0.1262;-0.5560;
1123.8000;0.1278;-0.5660;
1124.1000;0.1254;-0.5785;
1124.4000;0.1286;-0.5810;
1124.7000;0.1262;-0.5884;
1125.0000;0.1286;-0.5810;
1125.3000;0.1278;-0.5909;
1125.6000;0.1294;-0.5834;
1125.9000;0.1294;-0.5884;
1126.2000;0.1286;-0.5959;
1126.5000;0.1319;-0.5884;
1126.8000;0.1286;-0.5934;
1127.1000;0.1262;-0.5884;
1127.4000;0.1286;-0.5710;
1127.7000;0.1245;-0.5760;
1128.0000;0.1286;-0.5710;
1128.3000;0.1286;-0.5685;
1128.6000;0.1294;-0.5635;
1128.9000;0.1319;-0.5660;
1129.2000;0.1262;-0.5710;
1129.5000;0.1302;-0.5685;
1129.8000;0.1245;-0.5909;
1130.1000;0.1311;-0.5884;
1130.4000;0.1294;-0.5884;
1130.7000;0.1368;-0.5760;
1131.0000;0.1270;-0.5934;
1131.3000;0.1302;-0.5859;
1131.6000;0.1416;-0.5510;
1131.9000;0.1278;-0.5810;
1132.2000;0.1278;-0.5785;
1132.5000;0.1278;-0.5785;
1132.8000;0.1278;-0.5760;
1133.1000;0.1286;-0.5660;
1133.4000;0.1294;-0.5660;
1133.7000;0.1286;-0.5760;
1134.0000;0.1270;-0.5859;
1134.3000;0.1294;-0.5710;
1134.6000;0.1286;-0.5760;
1134.9000;0.1294;-0.5660;
1135.2000;0.1294;-0.5735;
1135.5000;0.1294;-0.5785;
1135.8000;0.1278;-0.5785;
1136.1000;0.1286;-0.5785;
1136.4000;0.1294;-0.5859;
1136.7000;0.1286;-0.5934;
1137.0000;0.1286;-0.5859;
1137.3000;0.1294;-0.5785;
1137.6000;0.1278;-0.5760;
1137.9000;0.1302;-0.5635;
1138.2000;0.1302;-0.5535;
1138.5000;0.1286;-0.5560;
1138.8000;0.1319;-0.5485;
1139.1000;0.1286;-0.5585;
1139.4000;0.1319;-0.5485;
1139.7000;0.1262;-0.5685;
1140.0000;0.1286;-0.5660;
1140.3000;0.1254;-0.5760;
1140.6000;0.1294;-0.5760;
1140.9000;0.1335;-0.5610;
1141.2000;0.1294;-0.5710;
1141.5000;0.1351;-0.5560;
1141.8000;0.1270;-0.5760;
1142.1000;0.1359;-0.5485;
1142.4000;0.1286;-0.5635;
1142.7000;0.1278;-0.5685;
1143.0000;0.1302;-0.5585;
1143.3000;0.1278;-0.5560;
1143.6000;0.1270;-0.5585;
1143.9000;0.1278;-0.5585;
1144.2000;0.1294;-0.5610;
1144.5000;0.1294;-0.5685;
1144.8000;0.1286;-0.5810;
1145.1000;0.1319;-0.5760;
1145.4000;0.1343;-0.5610;
1145.7000;0.1302;-0.5685;
1146.0000;0.1294;-0.5710;
1146.3000;0.1278;-0.5785;
1146.6000;0.1262;-0.5785;
1146.9000;0.1270;-0.5735;
1147.2000;0.1270;-0.5760;
1147.5000;0.1294;-0.5785;
1147.8000;0.1278;-0.5810;
1148.1000;0.1286;-0.5785;
1148.4000;0.1294;-0.5760;
1148.7000;0.1335;-0.5660;
1149.0000;0.1302;-0.5785;
1149.3000;0.1311;-0.5760;
1149.6000;0.1294;-0.5735;
1149.9000;0.1294;-0.5785;
1150.2000;0.1294;-0.5834;
1150.5000;0.1286;-0.5710;
1150.8000;0.1294;-0.5685;
1151.1000;0.1286;-0.5760;
1151.4000;0.1270;-0.5760;
1151.7000;0.1278;-0.5685;
1152.0000;0.1294;-0.5635;
1152.3000;0.1294;-0.5510;
1152.6000;0.1286;-0.5635;
1152.9000;0.1262;-0.5610;
1153.2000;0.1294;-0.5610;
1153.5000;0.1286;-0.5635;
1153.8000;0.1278;-0.5710;
1154.1000;0.1278;-0.5710;
1154.4000;0.1294;-0.5610;
1154.7000;0.1278;-0.5610;
1155.0000;0.1286;-0.5560;
1155.3000;0.1311;-0.5485;
1155.6000;0.1359;-0.5286;
1155.9000;0.1278;-0.5585;
1156.2000;0.1286;-0.5560;
1156.5000;0.1262;-0.5685;
1156.8000;0.1278;-0.5635;
1157.1000;0.1311;-0.5585;
1157.4000;0.1294;-0.5585;
1157.7000;0.1376;-0.5485;
1158.0000;0.1294;-0.5635;
1158.3000;0.1302;-0.5610;
1158.6000;0.1294;-0.5660;
1158.9000;0.1205;-0.5934;
1159.2000;0.1294;-0.5685;
1159.5000;0.1319;-0.5610;
1159.8000;0.1343;-0.5585;
1160.1000;0.1237;-0.5884;
1160.4000;0.1278;-0.5760;
1160.7000;0.1319;-0.5710;
1161.0000;0.1319;-0.5760;
1161.3000;0.1286;-0.5859;
1161.6000;0.1294;-0.5859;
1161.9000;0.1302;-0.5859;
1162.2000;0.1294;-0.5760;
1162.5000;0.1294;-0.5785;
1162.8000;0.1294;-0.5834;
1163.1000;0.1286;-0.5884;
1163.4000;0.1286;-0.5859;
1163.7000;0.1302;-0.5884;
1164.0000;0.1294;-0.5884;
1164.3000;0.1302;-0.5735;
1164.6000;0.1302;-0.5685;
1164.9000;0.1311;-0.5685;
1165.2000;0.1343;-0.5510;
1165.5000;0.1237;-0.5660;
1165.8000;0.1254;-0.5635;
1166.1000;0.1270;-0.5585;
1166.4000;0.1286;-0.5560;
1166.7000;0.1270;-0.5610;
1167.0000;0.1229;-0.5660;
1167.3000;0.1286;-0.5510;
1167.6000;0.1245;-0.5710;
1167.9000;0.1286;-0.5485;
1168.2000;0.1278;-0.5485;
1168.5000;0.1286;-0.5485;
1168.8000;0.1286;-0.5436;
1169.1000;0.1294;-0.5485;
1169.4000;0.1286;-0.5585;
1169.7000;0.1302;-0.5510;
1170.0000;0.1278;-0.5585;
1170.3000;0.1270;-0.5585;
1170.6000;0.1270;-0.5635;
1170.9000;0.1294;-0.5510;
1171.2000;0.1311;-0.5436;
1171.5000;0.1294;-0.5485;
1171.8000;0.1278;-0.5560;
1172.1000;0.1270;-0.5510;
1172.4000;0.1286;-0.5460;
1172.7000;0.1278;-0.5610;
1173.0000;0.1270;-0.5610;
1173.3000;0.1302;-0.5560;
1173.6000;0.1302;-0.5585;
1173.9000;0.1286;-0.5710;
1174.2000;0.1294;-0.5660;
1174.5000;0.1311;-0.5660;
1174.8000;0.1302;-0.5660;
1175.1000;0.1286;-0.5710;
1175.4000;0.1311;-0.5660;
1175.7000;0.1302;-0.5610;
1176.0000;0.1302;-0.5610;
1176.3000;0.1286;-0.5660;
1176.6000;0.1278;-0.5660;
1176.9000;0.1294;-0.5560;
1177.2000;0.1302;-0.5460;
1177.5000;0.1278;-0.5510;
1177.8000;0.1262;-0.5585;
1178.1000;0.1278;-0.5585;
1178.4000;0.1278;-0.5585;
1178.7000;0.1327;-0.5535;
1179.0000;0.1286;-0.5735;
1179.3000;0.1286;-0.5909;
1179.6000;0.1278;-0.5859;
1179.9000;0.1311;-0.5735;
1180.2000;0.1294;-0.5660;
1180.5000;0.1343;-0.5510;
1180.8000;0.1286;-0.5460;
1181.1000;0.1286;-0.5436;
1181.4000;0.1270;-0.5510;
1181.7000;0.1278;-0.5635;
1182.0000;0.1278;-0.5560;
1182.3000;0.1294;-0.5585;
1182.6000;0.1294;-0.5710;
1182.9000;0.1278;-0.5760;
1183.2000;0.1270;-0.5810;
1183.5000;0.1213;-0.5909;
1183.8000;0.1294;-0.5685;
1184.1000;0.1262;-0.5760;
1184.4000;0.1302;-0.5735;
1184.7000;0.1311;-0.5735;
1185.0000;0.1319;-0.5685;
1185.3000;0.1270;-0.5859;
1185.6000;0.1286;-0.5785;
1185.9000;0.1302;-0.5660;
1186.2000;0.1294;-0.5660;
1186.5000;0.1278;-0.5710;
1186.8000;0.1294;-0.5785;
1187.1000;0.1278;-0.5785;
1187.4000;0.1294;-0.5685;
1187.7000;0.1302;-0.5660;
1188.0000;0.1278;-0.5660;
1188.3000;0.1245;-0.5635;
1188.6000;0.1278;-0.5460;
1188.9000;0.1286;-0.5460;
1189.2000;0.1262;-0.5460;
1189.5000;0.1294;-0.5460;
1189.8000;0.1294;-0.5386;
1190.1000;0.1311;-0.5485;
1190.4000;0.1294;-0.5535;
1190.7000;0.1302;-0.5560;
1191.0000;0.1294;-0.5610;
1191.3000;0.1294;-0.5560;
1191.6000;0.1294;-0.5535;
1191.9000;0.1335;-0.5436;
1192.2000;0.1343;-0.5386;
1192.5000;0.1286;-0.5535;
1192.8000;0.1294;-0.5460;
1193.1000;0.1278;-0.5485;
1193.4000;0.1262;-0.5510;
1193.7000;0.1213;-0.5635;
1194.0000;0.1294;-0.5460;
1194.3000;0.1327;-0.5411;
1194.6000;0.1278;-0.5460;
1194.9000;0.1311;-0.5436;
1195.2000;0.1302;-0.5460;
1195.5000;0.1286;-0.5361;
1195.8000;0.1286;-0.5386;
1196.1000;0.1286;-0.5460;
1196.4000;0.1278;-0.5510;
1196.7000;0.1294;-0.5485;
1197.0000;0.1270;-0.5635;
1197.3000;0.1335;-0.5560;
1197.6000;0.1302;-0.5635;
1197.9000;0.1294;-0.5535;
1198.2000;0.1278;-0.5610;
1198.5000;0.1302;-0.5535;
1198.8000;0.1286;-0.5560;
1199.1000;0.1286;-0.5560;
1199.4000;0.1294;-0.5510;
1199.7000;0.1286;-0.5560;
1200.0000;0.1302;-0.5510;
1200.3000;0.1319;-0.5535;
1200.6000;0.1311;-0.5510;
1200.9000;0.1254;-0.5560;
1201.2000;0.1302;-0.5411;
1201.5000;0.1278;-0.5411;
1201.8000;0.1294;-0.5436;
1202.1000;0.1343;-0.5236;
1202.4000;0.1286;-0.5436;
1202.7000;0.1286;-0.5535;
1203.0000;0.1254;-0.5610;
1203.3000;0.1286;-0.5660;
1203.6000;0.1229;-0.5859;
1203.9000;0.1278;-0.5710;
1204.2000;0.1270;-0.5710;
1204.5000;0.1294;-0.5660;
1204.8000;0.1254;-0.5610;
1205.1000;0.1262;-0.5535;
1205.4000;0.1294;-0.5460;
1205.7000;0.1376;-0.5286;
1206.0000;0.1286;-0.5411;
1206.3000;0.1302;-0.5311;
1206.6000;0.1302;-0.5436;
1206.9000;0.1278;-0.5510;
1207.2000;0.1286;-0.5485;
1207.5000;0.1319;-0.5485;
1207.8000;0.1286;-0.5635;
1208.1000;0.1302;-0.5635;
1208.4000;0.1270;-0.5760;
1208.7000;0.1278;-0.5760;
1209.0000;0.1294;-0.5760;
1209.3000;0.1294;-0.5785;
1209.6000;0.1278;-0.5785;
1209.9000;0.1270;-0.5735;
1210.2000;0.1294;-0.5710;
1210.5000;0.1286;-0.5685;
1210.8000;0.1270;-0.5834;
1211.1000;0.1262;-0.5884;
1211.4000;0.1294;-0.5760;
1211.7000;0.1302;-0.5660;
1212.0000;0.1319;-0.5535;
1212.3000;0.1286;-0.5710;
1212.6000;0.1270;-0.5785;
1212.9000;0.1327;-0.5660;
1213.2000;0.1278;-0.5834;
1213.5000;0.1270;-0.5834;
1213.8000;0.1286;-0.5735;
1214.1000;0.1294;-0.5760;
1214.4000;0.1294;-0.5735;
1214.7000;0.1278;-0.5810;
1215.0000;0.1286;-0.5760;
1215.3000;0.1294;-0.5710;
1215.6000;0.1294;-0.5785;
1215.9000;0.1237;-0.5959;
1216.2000;0.1294;-0.5735;
1216.5000;0.1286;-0.5810;
1216.8000;0.1278;-0.5810;
1217.1000;0.1270;-0.5834;
1217.4000;0.1278;-0.5785;
1217.7000;0.1278;-0.5735;
1218.0000;0.1262;-0.5710;
1218.3000;0.1213;-0.5834;
1218.6000;0.1262;-0.5710;
1218.9000;0.1278;-0.5635;
1219.2000;0.1262;-0.5785;
1219.5000;0.1278;-0.5710;
1219.8000;0.1311;-0.5635;
1220.1000;0.1237;-0.5834;
1220.4000;0.1294;-0.5710;
1220.7000;0.1286;-0.5710;
1221.0000;0.1286;-0.5760;
1221.3000;0.1286;-0.5760;
1221.6000;0.1278;-0.5934;
1221.9000;0.1302;-0.5934;
1222.2000;0.1270;-0.5959;
1222.5000;0.1270;-0.5884;
1222.8000;0.1278;-0.5834;
1223.1000;0.1302;-0.5710;
1223.4000;0.1278;-0.5660;
1223.7000;0.1302;-0.5710;
1224.0000;0.1286;-0.5760;
1224.3000;0.1311;-0.5660;
1224.6000;0.1311;-0.5685;
1224.9000;0.1311;-0.5660;
1225.2000;0.1286;-0.5660;
1225.5000;0.1278;-0.5635;
1225.8000;0.1229;-0.5660;
1226.1000;0.1294;-0.5610;
1226.4000;0.1294;-0.5610;
1226.7000;0.1286;-0.5535;
1227.0000;0.1237;-0.5585;
1227.3000;0.1278;-0.5460;
1227.6000;0.1221;-0.5660;
1227.9000;0.1270;-0.5560;
1228.2000;0.1294;-0.5560;
1228.5000;0.1311;-0.5560;
1228.8000;0.1311;-0.5635;
1229.1000;0.1294;-0.5585;
1229.4000;0.1302;-0.5610;
1229.7000;0.1302;-0.5585;
1230.0000;0.1286;-0.5685;
1230.3000;0.1294;-0.5635;
1230.6000;0.1302;-0.5610;
1230.9000;0.1294;-0.5560;
1231.2000;0.1286;-0.5660;
1231.5000;0.1278;-0.5710;
1231.8000;0.1237;-0.5859;
1232.1000;0.1270;-0.5834;
1232.4000;0.1335;-0.5635;
1232.7000;0.1278;-0.5834;
1233.0000;0.1213;-0.6084;
1233.3000;0.1294;-0.5884;
1233.6000;0.1278;-0.5909;
1233.9000;0.1237;-0.5934;
1234.2000;0.1335;-0.5610;
1234.5000;0.1213;-0.5884;
1234.8000;0.1245;-0.5810;
1235.1000;0.1270;-0.5785;
1235.4000;0.1278;-0.5735;
1235.7000;0.1294;-0.5710;
1236.0000;0.1237;-0.5810;
1236.3000;0.1302;-0.5735;
1236.6000;0.1286;-0.5685;
1236.9000;0.1416;-0.5386;
1237.2000;0.1408;-0.5386;
1237.5000;0.1278;-0.5710;
1237.8000;0.1311;-0.5635;
1238.1000;0.1262;-0.5660;
1238.4000;0.1319;-0.5560;
1238.7000;0.1278;-0.5710;
1239.0000;0.1278;-0.5635;
1239.3000;0.1302;-0.5610;
1239.6000;0.1343;-0.5585;
1239.9000;0.1237;-0.5934;
1240.2000;0.1278;-0.5834;
1240.5000;0.1278;-0.5760;
1240.8000;0.1286;-0.5710;
1241.1000;0.1319;-0.5585;
1241.4000;0.1286;-0.5610;
1241.7000;0.1286;-0.5710;
1242.0000;0.1311;-0.5585;
1242.3000;0.1294;-0.5785;
1242.6000;0.1278;-0.5785;
1242.9000;0.1286;-0.5660;
1243.2000;0.1278;-0.5735;
1243.5000;0.1278;-0.5685;
1243.8000;0.1294;-0.5610;
1244.1000;0.1278;-0.5660;
1244.4000;0.1286;-0.5710;
1244.7000;0.1286;-0.5735;
1245.0000;0.1335;-0.5560;
1245.3000;0.1286;-0.5585;
1245.6000;0.1302;-0.5510;
1245.9000;0.1278;-0.5535;
1246.2000;0.1278;-0.5510;
1246.5000;0.1278;-0.5585;
1246.8000;0.1286;-0.5585;
1247.1000;0.1294;-0.5685;
1247.4000;0.1286;-0.5710;
1247.7000;0.1294;-0.5610;
1248.0000;0.1286;-0.5610;
1248.3000;0.1294;-0.5610;
1248.6000;0.1294;-0.5535;
1248.9000;0.1286;-0.5535;
1249.2000;0.1270;-0.5610;
1249.5000;0.1278;-0.5635;
1249.8000;0.1286;-0.5610;
1250.1000;0.1286;-0.5635;
1250.4000;0.1311;-0.5585;
1250.7000;0.1278;-0.5685;
1251.0000;0.1294;-0.5685;
1251.3000;0.1278;-0.5785;
1251.6000;0.1229;-0.5884;
1251.9000;0.1302;-0.5685;
1252.2000;0.1278;-0.5810;
1252.5000;0.1294;-0.5834;
1252.8000;0.1254;-0.5909;
1253.1000;0.1262;-0.5834;
1253.4000;0.1294;-0.5760;
1253.7000;0.1294;-0.5735;
1254.0000;0.1319;-0.5610;
1254.3000;0.1319;-0.5560;
1254.6000;0.1368;-0.5436;
1254.9000;0.1302;-0.5610;
1255.2000;0.1294;-0.5610;
1255.5000;0.1368;-0.5436;
1255.8000;0.1302;-0.5610;
1256.1000;0.1270;-0.5735;
1256.4000;0.1311;-0.5535;
1256.7000;0.1286;-0.5610;
1257.0000;0.1270;-0.5660;
1257.3000;0.1294;-0.5610;
1257.6000;0.1294;-0.5660;
1257.9000;0.1335;-0.5610;
1258.2000;0.1286;-0.5785;
1258.5000;0.1270;-0.5785;
1258.8000;0.1319;-0.5635;
1259.1000;0.1245;-0.5834;
1259.4000;0.1270;-0.5859;
1259.7000;0.1286;-0.5710;
1260.0000;0.1294;-0.5710;
1260.3000;0.1327;-0.5660;
1260.6000;0.1294;-0.5735;
1260.9000;0.1302;-0.5685;
1261.2000;0.1278;-0.5710;
1261.5000;0.1294;-0.5735;
1261.8000;0.1286;-0.5834;
1262.1000;0.1311;-0.5735;
1262.4000;0.1270;-0.5884;
1262.7000;0.1286;-0.5909;
1263.0000;0.1294;-0.5859;
1263.3000;0.1262;-0.5785;
1263.6000;0.1294;-0.5760;
1263.9000;0.1311;-0.5760;
1264.2000;0.1351;-0.5660;
1264.5000;0.1302;-0.5810;
1264.8000;0.1302;-0.5785;
1265.1000;0.1351;-0.5610;
1265.4000;0.1278;-0.5785;
1265.7000;0.1302;-0.5735;
1266.0000;0.1311;-0.5610;
1266.3000;0.1311;-0.5535;
1266.6000;0.1311;-0.5610;
1266.9000;0.1270;-0.5685;
1267.2000;0.1278;-0.5660;
1267.5000;0.1302;-0.5585;
1267.8000;0.1286;-0.5585;
1268.1000;0.1343;-0.5460;
1268.4000;0.1270;-0.5660;
1268.7000;0.1294;-0.5635;
1269.0000;0.1302;-0.5660;
1269.3000;0.1286;-0.5710;
1269.6000;0.1294;-0.5710;
1269.9000;0.1302;-0.5560;
1270.2000;0.1294;-0.5535;
1270.5000;0.1294;-0.5535;
1270.8000;0.1302;-0.5585;
1271.1000;0.1319;-0.5535;
1271.4000;0.1286;-0.5560;
1271.7000;0.1254;-0.5635;
1272.0000;0.1286;-0.5660;
1272.3000;0.1278;-0.5760;
1272.6000;0.1294;-0.5660;
1272.9000;0.1302;-0.5660;
1273.2000;0.1278;-0.5785;
1273.5000;0.1311;-0.5810;
1273.8000;0.1327;-0.5735;
1274.1000;0.1294;-0.5760;
1274.4000;0.1286;-0.5760;
1274.7000;0.1278;-0.5785;
1275.0000;0.1294;-0.5685;
1275.3000;0.1286;-0.5735;
1275.6000;0.1262;-0.5859;
1275.9000;0.1262;-0.5810;
1276.2000;0.1286;-0.5735;
1276.5000;0.1302;-0.5610;
1276.8000;0.1262;-0.5660;
1277.1000;0.1286;-0.5660;
1277.4000;0.1278;-0.5785;
1277.7000;0.1286;-0.5760;
1278.0000;0.1286;-0.5884;
1278.3000;0.1286;-0.5909;
1278.6000;0.1286;-0.5934;
1278.9000;0.1302;-0.5834;
1279.2000;0.1278;-0.5859;
1279.5000;0.1286;-0.5810;
1279.8000;0.1286;-0.5785;
1280.1000;0.1302;-0.5610;
1280.4000;0.1327;-0.5485;
1280.7000;0.1286;-0.5560;
1281.0000;0.1302;-0.5585;
1281.3000;0.1311;-0.5510;
1281.6000;0.1286;-0.5585;
1281.9000;0.1311;-0.5510;
1282.2000;0.1270;-0.5560;
1282.5000;0.1294;-0.5436;
1282.8000;0.1286;-0.5535;
1283.1000;0.1311;-0.5585;
1283.4000;0.1294;-0.5610;
1283.7000;0.1229;-0.5785;
1284.0000;0.1302;-0.5585;
1284.3000;0.1302;-0.5635;
1284.6000;0.1302;-0.5660;
1284.9000;0.1278;-0.5660;
1285.2000;0.1270;-0.5710;
1285.5000;0.1294;-0.5660;
1285.8000;0.1302;-0.5710;
1286.1000;0.1278;-0.5735;
1286.4000;0.1278;-0.5735;
1286.7000;0.1302;-0.5735;
1287.0000;0.1270;-0.5810;
1287.3000;0.1270;-0.5834;
1287.6000;0.1319;-0.5735;
1287.9000;0.1286;-0.5735;
1288.2000;0.1270;-0.5760;
1288.5000;0.1278;-0.5710;
1288.8000;0.1294;-0.5585;
1289.1000;0.1245;-0.5760;
1289.4000;0.1319;-0.5585;
1289.7000;0.1286;-0.5685;
1290.0000;0.1294;-0.5760;
1290.3000;0.1319;-0.5785;
1290.6000;0.1319;-0.5710;
1290.9000;0.1294;-0.5685;
1291.2000;0.1294;-0.5660;
1291.5000;0.1294;-0.5610;
1291.8000;0.1286;-0.5610;
1292.1000;0.1286;-0.5610;
1292.4000;0.1294;-0.5660;
1292.7000;0.1286;-0.5660;
1293.0000;0.1278;-0.5635;
1293.3000;0.1294;-0.5610;
1293.6000;0.1278;-0.5585;
1293.9000;0.1278;-0.5635;
1294.2000;0.1286;-0.5585;
1294.5000;0.1294;-0.5560;
1294.8000;0.1278;-0.5735;
1295.1000;0.1270;-0.5735;
1295.4000;0.1262;-0.5760;
1295.7000;0.1294;-0.5660;
1296.0000;0.1278;-0.5635;
1296.3000;0.1286;-0.5535;
1296.6000;0.1286;-0.5610;
1296.9000;0.1286;-0.5585;
1297.2000;0.1278;-0.5635;
1297.5000;0.1270;-0.5710;
1297.8000;0.1302;-0.5685;
1298.1000;0.1319;-0.5685;
1298.4000;0.1270;-0.5934;
1298.7000;0.1302;-0.5859;
1299.0000;0.1294;-0.5834;
1299.3000;0.1302;-0.5785;
1299.6000;0.1302;-0.5735;
1299.9000;0.1294;-0.5685;
1300.2000;0.1278;-0.5685;
1300.5000;0.1294;-0.5710;
1300.8000;0.1294;-0.5760;
1301.1000;0.1286;-0.5834;
1301.4000;0.1294;-0.5834;
1301.7000;0.1311;-0.5909;
1302.0000;0.1294;-0.5859;
1302.3000;0.1294;-0.5785;
1302.6000;0.1245;-0.5810;
1302.9000;0.1286;-0.5660;
1303.2000;0.1278;-0.5560;
1303.5000;0.1278;-0.5510;
1303.8000;0.1286;-0.5560;
1304.1000;0.1270;-0.5685;
1304.4000;0.1294;-0.5585;
1304.7000;0.1294;-0.5660;
1305.0000;0.1302;-0.5635;
1305.3000;0.1311;-0.5610;
1305.6000;0.1294;-0.5585;
1305.9000;0.1278;-0.5610;
1306.2000;0.1294;-0.5560;
1306.5000;0.1270;-0.5585;
1306.8000;0.1270;-0.5610;
1307.1000;0.1286;-0.5585;
1307.4000;0.1294;-0.5635;
1307.7000;0.1262;-0.5585;
1308.0000;0.1286;-0.5585;
1308.3000;0.1286;-0.5610;
1308.6000;0.1302;-0.5535;
1308.9000;0.1270;-0.5610;
1309.2000;0.1327;-0.5411;
1309.5000;0.1286;-0.5510;
1309.8000;0.1311;-0.5510;
1310.1000;0.1294;-0.5535;
1310.4000;0.1286;-0.5535;
1310.7000;0.1286;-0.5560;
1311.0000;0.1286;-0.5585;
1311.3000;0.1302;-0.5585;
1311.6000;0.1294;-0.5610;
1311.9000;0.1294;-0.5660;
1312.2000;0.1294;-0.5660;
1312.5000;0.1319;-0.5610;
1312.8000;0.1311;-0.5635;
1313.1000;0.1311;-0.5535;
1313.4000;0.1278;-0.5610;
1313.7000;0.1278;-0.5610;
1314.0000;0.1262;-0.5635;
1314.3000;0.1286;-0.5610;
1314.6000;0.1311;-0.5585;
1314.9000;0.1294;-0.5535;
1315.2000;0.1278;-0.5560;
1315.5000;0.1286;-0.5560;
1315.8000;0.1294;-0.5485;
1316.1000;0.1294;-0.5535;
1316.4000;0.1278;-0.5585;
1316.7000;0.1294;-0.5535;
1317.0000;0.1278;-0.5685;
1317.3000;0.1294;-0.5685;
1317.6000;0.1311;-0.5585;
1317.9000;0.1270;-0.5635;
1318.2000;0.1286;-0.5660;
1318.5000;0.1286;-0.5635;
1318.8000;0.1286;-0.5710;
1319.1000;0.1302;-0.5685;
1319.4000;0.1294;-0.5660;
1319.7000;0.1343;-0.5436;
1320.0000;0.1286;-0.5535;
1320.3000;0.1286;-0.5510;
1320.6000;0.1262;-0.5510;
1320.9000;0.1311;-0.5560;
1321.2000;0.1302;-0.5585;
1321.5000;0.1311;-0.5610;
1321.8000;0.1205;-0.5810;
1322.1000;0.1311;-0.5510;
1322.4000;0.1302;-0.5535;
1322.7000;0.1278;-0.5610;
1323.0000;0.1278;-0.5635;
1323.3000;0.1278;-0.5635;
1323.6000;0.1302;-0.5510;
1323.9000;0.1270;-0.5635;
1324.2000;0.1262;-0.5610;
1324.5000;0.1294;-0.5485;
1324.8000;0.1408;-0.5186;
1325.1000;0.1294;-0.5535;
1325.4000;0.1294;-0.5560;
1325.7000;0.1319;-0.5436;
1326.0000;0.1327;-0.5460;
1326.3000;0.1278;-0.5510;
1326.6000;0.1302;-0.5510;
1326.9000;0.1237;-0.5710;
1327.2000;0.1302;-0.5411;
1327.5000;0.1254;-0.5535;
1327.8000;0.1319;-0.5460;
1328.1000;0.1294;-0.5485;
1328.4000;0.1262;-0.5585;
1328.7000;0.1286;-0.5560;
1329.0000;0.1286;-0.5710;
1329.3000;0.1270;-0.5760;
1329.6000;0.1254;-0.5685;
1329.9000;0.1327;-0.5535;
1330.2000;0.1311;-0.5710;
1330.5000;0.1335;-0.5585;
1330.8000;0.1294;-0.5760;
1331.1000;0.1319;-0.5710;
1331.4000;0.1302;-0.5760;
1331.7000;0.1302;-0.5710;
1332.0000;0.1351;-0.5585;
1332.3000;0.1343;-0.5610;
1332.6000;0.1311;-0.5685;
1332.9000;0.1278;-0.5810;
1333.2000;0.1286;-0.5710;
1333.5000;0.1294;-0.5785;
1333.8000;0.1311;-0.5735;
1334.1000;0.1294;-0.5710;
1334.4000;0.1294;-0.5785;
1334.7000;0.1311;-0.5685;
1335.0000;0.1294;-0.5685;
1335.3000;0.1327;-0.5560;
1335.6000;0.1343;-0.5535;
1335.9000;0.1302;-0.5610;
1336.2000;0.1270;-0.5635;
1336.5000;0.1278;-0.5635;
1336.8000;0.1262;-0.5735;
1337.1000;0.1262;-0.5710;
1337.4000;0.1294;-0.5660;
1337.7000;0.1270;-0.5735;
1338.0000;0.1294;-0.5760;
1338.3000;0.1286;-0.5610;
1338.6000;0.1302;-0.5460;
1338.9000;0.1278;-0.5460;
1339.2000;0.1294;-0.5411;
1339.5000;0.1270;-0.5585;
1339.8000;0.1286;-0.5560;
1340.1000;0.1286;-0.5460;
1340.4000;0.1392;-0.5136;
1340.7000;0.1286;-0.5535;
1341.0000;0.1286;-0.5535;
1341.3000;0.1302;-0.5660;
1341.6000;0.1302;-0.5660;
1341.9000;0.1262;-0.5710;
1342.2000;0.1286;-0.5610;
1342.5000;0.1286;-0.5585;
1342.8000;0.1262;-0.5635;
1343.1000;0.1286;-0.5635;
1343.4000;0.1278;-0.5610;
1343.7000;0.1286;-0.5610;
1344.0000;0.1319;-0.5510;
1344.3000;0.1294;-0.5560;
1344.6000;0.1311;-0.5585;
1344.9000;0.1368;-0.5386;
1345.2000;0.1302;-0.5510;
1345.5000;0.1302;-0.5411;
1345.8000;0.1302;-0.5485;
1346.1000;0.1335;-0.5510;
1346.4000;0.1302;-0.5560;
1346.7000;0.1327;-0.5560;
1347.0000;0.1245;-0.5635;
1347.3000;0.1254;-0.5560;
1347.6000;0.1270;-0.5485;
1347.9000;0.1294;-0.5510;
1348.2000;0.1286;-0.5660;
1348.5000;0.1278;-0.5635;
1348.8000;0.1270;-0.5685;
1349.1000;0.1286;-0.5460;
1349.4000;0.1286;-0.5585;
1349.7000;0.1254;-0.5560;
1350.0000;0.1278;-0.5436;
1350.3000;0.1319;-0.5386;
1350.6000;0.1311;-0.5460;
1350.9000;0.1335;-0.5436;
1351.2000;0.1270;-0.5585;
1351.5000;0.1311;-0.5535;
1351.8000;0.1335;-0.5535;
1352.1000;0.1286;-0.5660;
1352.4000;0.1262;-0.5685;
1352.7000;0.1319;-0.5411;
1353.0000;0.1237;-0.5485;
1353.3000;0.1294;-0.5386;
1353.6000;0.1278;-0.5460;
1353.9000;0.1294;-0.5436;
1354.2000;0.1302;-0.5485;
1354.5000;0.1294;-0.5560;
1354.8000;0.1278;-0.5610;
1355.1000;0.1262;-0.5710;
1355.4000;0.1237;-0.5660;
1355.7000;0.1302;-0.5460;
1356.0000;0.1245;-0.5610;
1356.3000;0.1286;-0.5560;
1356.6000;0.1294;-0.5535;
1356.9000;0.1286;-0.5585;
1357.2000;0.1270;-0.5610;
1357.5000;0.1294;-0.5535;
1357.8000;0.1294;-0.5585;
1358.1000;0.1294;-0.5635;
1358.4000;0.1278;-0.5735;
1358.7000;0.1286;-0.5735;
1359.0000;0.1278;-0.5785;
1359.3000;0.1302;-0.5710;
1359.6000;0.1286;-0.5710;
1359.9000;0.1286;-0.5710;
1360.2000;0.1294;-0.5760;
1360.5000;0.1302;-0.5735;
1360.8000;0.1294;-0.5710;
1361.1000;0.1302;-0.5685;
1361.4000;0.1302;-0.5660;
1361.7000;0.1302;-0.5635;
1362.0000;0.1286;-0.5710;
1362.3000;0.1302;-0.5660;
1362.6000;0.1254;-0.5785;
1362.9000;0.1302;-0.5610;
1363.2000;0.1294;-0.5585;
1363.5000;0.1286;-0.5585;
1363.8000;0.1278;-0.5510;
1364.1000;0.1294;-0.5460;
1364.4000;0.1302;-0.5311;
1364.7000;0.1278;-0.5485;
1365.0000;0.1286;-0.5460;
1365.3000;0.1294;-0.5485;
1365.6000;0.1254;-0.5535;
1365.9000;0.1302;-0.5510;
1366.2000;0.1319;-0.5361;
1366.5000;0.1302;-0.5436;
1366.8000;0.1270;-0.5485;
1367.1000;0.1286;-0.5411;
1367.4000;0.1286;-0.5510;
1367.7000;0.1245;-0.5560;
1368.0000;0.1286;-0.5436;
1368.3000;0.1311;-0.5510;
1368.6000;0.1294;-0.5660;
1368.9000;0.1294;-0.5710;
1369.2000;0.1286;-0.5660;
1369.5000;0.1311;-0.5585;
1369.8000;0.1294;-0.5535;
1370.1000;0.1278;-0.5535;
1370.4000;0.1286;-0.5585;
1370.7000;0.1311;-0.5411;
1371.0000;0.1302;-0.5460;
1371.3000;0.1311;-0.5485;
1371.6000;0.1302;-0.5436;
1371.9000;0.1294;-0.5460;
1372.2000;0.1294;-0.5460;
1372.5000;0.1270;-0.5610;
1372.8000;0.1294;-0.5635;
1373.1000;0.1327;-0.5635;
1373.4000;0.1286;-0.5685;
1373.7000;0.1302;-0.5610;
1374.0000;0.1311;-0.5510;
1374.3000;0.1319;-0.5336;
1374.6000;0.1311;-0.5436;
1374.9000;0.1294;-0.5510;
1375.2000;0.1311;-0.5510;
1375.5000;0.1311;-0.5510;
1375.8000;0.1286;-0.5460;
1376.1000;0.1286;-0.5386;
1376.4000;0.1286;-0.5386;
1376.7000;0.1278;-0.5361;
1377.0000;0.1294;-0.5236;
1377.3000;0.1302;-0.5236;
1377.6000;0.1262;-0.5386;
1377.9000;0.1270;-0.5386;
1378.2000;0.1311;-0.5286;
1378.5000;0.1294;-0.5311;
1378.8000;0.1294;-0.5411;
1379.1000;0.1278;-0.5460;
1379.4000;0.1278;-0.5510;
1379.7000;0.1294;-0.5535;
1380.0000;0.1278;-0.5560;
1380.3000;0.1319;-0.5361;
1380.6000;0.1294;-0.5411;
1380.9000;0.1262;-0.5560;
1381.2000;0.1221;-0.5635;
1381.5000;0.1294;-0.5436;
1381.8000;0.1302;-0.5386;
1382.1000;0.1229;-0.5560;
1382.4000;0.1278;-0.5485;
1382.7000;0.1294;-0.5460;
1383.0000;0.1294;-0.5411;
1383.3000;0.1205;-0.5610;
1383.6000;0.1286;-0.5485;
1383.9000;0.1302;-0.5560;
1384.2000;0.1270;-0.5610;
1384.5000;0.1294;-0.5535;
1384.8000;0.1311;-0.5535;
1385.1000;0.1294;-0.5560;
1385.4000;0.1278;-0.5535;
1385.7000;0.1319;-0.5411;
1386.0000;0.1286;-0.5411;
1386.3000;0.1302;-0.5510;
1386.6000;0.1172;-0.5785;
1386.9000;0.1286;-0.5585;
1387.2000;0.1278;-0.5560;
1387.5000;0.1294;-0.5485;
1387.8000;0.1286;-0.5485;
1388.1000;0.1286;-0.5485;
1388.4000;0.1221;-0.5760;
1388.7000;0.1278;-0.5710;
1389.0000;0.1278;-0.5735;
1389.3000;0.1351;-0.5510;
1389.6000;0.1221;-0.5810;
1389.9000;0.1254;-0.5685;
1390.2000;0.1294;-0.5535;
1390.5000;0.1278;-0.5535;
1390.8000;0.1294;-0.5535;
1391.1000;0.1294;-0.5560;
1391.4000;0.1278;-0.5660;
1391.7000;0.1286;-0.5610;
1392.0000;0.1254;-0.5610;
1392.3000;0.1270;-0.5585;
1392.6000;0.1286;-0.5510;
1392.9000;0.1294;-0.5436;
1393.2000;0.1294;-0.5535;
1393.5000;0.1302;-0.5485;
1393.8000;0.1294;-0.5610;
1394.1000;0.1286;-0.5635;
1394.4000;0.1359;-0.5535;
1394.7000;0.1302;-0.5635;
1395.0000;0.1286;-0.5710;
1395.3000;0.1294;-0.5660;
1395.6000;0.1270;-0.5810;
1395.9000;0.1294;-0.5735;
1396.2000;0.1229;-0.5934;
1396.5000;0.1302;-0.5735;
1396.8000;0.1286;-0.5710;
1397.1000;0.1188;-0.6009;
1397.4000;0.1311;-0.5760;
1397.7000;0.1294;-0.5785;
1398.0000;0.1319;-0.5810;
1398.3000;0.1286;-0.5859;
1398.6000;0.1294;-0.5884;
1398.9000;0.1286;-0.5834;
1399.2000;0.1294;-0.5760;
1399.5000;0.1286;-0.5810;
1399.8000;0.1302;-0.5810;
