time/ms;Fluo/V;P700 deltaI/I x10³;
-199.8000;0.1319;-0.5735;
-199.5000;0.1319;-0.5760;
-199.2000;0.1311;-0.5859;
-198.9000;0.1327;-0.5810;
-198.6000;0.1327;-0.5909;
-198.3000;0.1319;-0.5834;
-198.0000;0.1327;-0.5834;
-197.7000;0.1327;-0.5810;
-197.4000;0.1327;-0.5760;
-197.1000;0.1343;-0.5760;
-196.8000;0.1286;-0.5934;
-196.5000;0.1327;-0.5909;
-196.2000;0.1327;-0.5909;
-195.9000;0.1311;-0.5884;
-195.6000;0.1311;-0.5909;
-195.3000;0.1319;-0.5859;
-195.0000;0.1302;-0.5934;
-194.7000;0.1319;-0.5909;
-194.4000;0.1311;-0.5934;
-194.1000;0.1254;-0.6109;
-193.8000;0.1311;-0.6034;
-193.5000;0.1335;-0.5984;
-193.2000;0.1319;-0.6084;
-192.9000;0.1311;-0.6084;
-192.6000;0.1311;-0.5984;
-192.3000;0.1368;-0.5785;
-192.0000;0.1270;-0.6084;
-191.7000;0.1302;-0.5884;
-191.4000;0.1294;-0.5884;
-191.1000;0.1302;-0.5834;
-190.8000;0.1311;-0.5785;
-190.5000;0.1294;-0.5735;
-190.2000;0.1311;-0.5660;
-189.9000;0.1311;-0.5710;
-189.6000;0.1302;-0.5635;
-189.3000;0.1311;-0.5585;
-189.0000;0.1319;-0.5510;
-188.7000;0.1302;-0.5610;
-188.4000;0.1311;-0.5710;
-188.1000;0.1319;-0.5760;
-187.8000;0.1319;-0.5785;
-187.5000;0.1311;-0.5834;
-187.2000;0.1319;-0.5785;
-186.9000;0.1302;-0.5760;
-186.6000;0.1311;-0.5710;
-186.3000;0.1302;-0.5610;
-186.0000;0.1343;-0.5535;
-185.7000;0.1302;-0.5635;
-185.4000;0.1302;-0.5510;
-185.1000;0.1319;-0.5411;
-184.8000;0.1311;-0.5460;
-184.5000;0.1319;-0.5460;
-184.2000;0.1294;-0.5610;
-183.9000;0.1278;-0.5735;
-183.6000;0.1327;-0.5685;
-183.3000;0.1319;-0.5810;
-183.0000;0.1302;-0.5859;
-182.7000;0.1311;-0.5785;
-182.4000;0.1319;-0.5810;
-182.1000;0.1278;-0.5834;
-181.8000;0.1294;-0.5810;
-181.5000;0.1294;-0.5710;
-181.2000;0.1311;-0.5610;
-180.9000;0.1335;-0.5535;
-180.6000;0.1302;-0.5660;
-180.3000;0.1302;-0.5735;
-180.0000;0.1327;-0.5735;
-179.7000;0.1327;-0.5710;
-179.4000;0.1327;-0.5810;
-179.1000;0.1302;-0.5810;
-178.8000;0.1311;-0.5760;
-178.5000;0.1311;-0.5760;
-178.2000;0.1359;-0.5685;
-177.9000;0.1319;-0.5760;
-177.6000;0.1302;-0.5859;
-177.3000;0.1294;-0.5909;
-177.0000;0.1376;-0.5735;
-176.7000;0.1311;-0.5959;
-176.4000;0.1311;-0.5834;
-176.1000;0.1270;-0.5959;
-175.8000;0.1327;-0.5785;
-175.5000;0.1302;-0.5934;
-175.2000;0.1343;-0.5859;
-174.9000;0.1302;-0.5834;
-174.6000;0.1319;-0.5810;
-174.3000;0.1311;-0.5810;
-174.0000;0.1311;-0.5810;
-173.7000;0.1221;-0.6009;
-173.4000;0.1286;-0.5710;
-173.1000;0.1319;-0.5660;
-172.8000;0.1270;-0.5660;
-172.5000;0.1294;-0.5585;
-172.2000;0.1302;-0.5610;
-171.9000;0.1302;-0.5610;
-171.6000;0.1359;-0.5485;
-171.3000;0.1311;-0.5710;
-171.0000;0.1302;-0.5810;
-170.7000;0.1465;-0.5311;
-170.4000;0.1221;-0.6059;
-170.1000;0.1311;-0.5810;
-169.8000;0.1302;-0.5859;
-169.5000;0.1319;-0.5834;
-169.2000;0.1302;-0.5909;
-168.9000;0.1294;-0.5884;
-168.6000;0.1319;-0.5785;
-168.3000;0.1327;-0.5710;
-168.0000;0.1319;-0.5685;
-167.7000;0.1245;-0.5810;
-167.4000;0.1311;-0.5660;
-167.1000;0.1302;-0.5735;
-166.8000;0.1294;-0.5810;
-166.5000;0.1327;-0.5884;
-166.2000;0.1311;-0.5934;
-165.9000;0.1302;-0.5834;
-165.6000;0.1311;-0.5785;
-165.3000;0.1311;-0.5859;
-165.0000;0.1294;-0.5859;
-164.7000;0.1311;-0.5810;
-164.4000;0.1302;-0.5810;
-164.1000;0.1294;-0.5959;
-163.8000;0.1302;-0.5984;
-163.5000;0.1311;-0.6009;
-163.2000;0.1294;-0.5959;
-162.9000;0.1311;-0.5735;
-162.6000;0.1311;-0.5735;
-162.3000;0.1343;-0.5685;
-162.0000;0.1302;-0.5834;
-161.7000;0.1327;-0.5859;
-161.4000;0.1286;-0.5909;
-161.1000;0.1286;-0.5909;
-160.8000;0.1311;-0.5760;
-160.5000;0.1335;-0.5710;
-160.2000;0.1294;-0.5810;
-159.9000;0.1286;-0.5834;
-159.6000;0.1302;-0.5785;
-159.3000;0.1294;-0.5859;
-159.0000;0.1327;-0.5760;
-158.7000;0.1286;-0.5859;
-158.4000;0.1302;-0.5710;
-158.1000;0.1311;-0.5760;
-157.8000;0.1294;-0.5834;
-157.5000;0.1302;-0.5810;
-157.2000;0.1302;-0.5909;
-156.9000;0.1311;-0.5984;
-156.6000;0.1327;-0.5959;
-156.3000;0.1294;-0.6109;
-156.0000;0.1286;-0.6159;
-155.7000;0.1270;-0.6208;
-155.4000;0.1302;-0.6109;
-155.1000;0.1311;-0.6084;
-154.8000;0.1294;-0.6159;
-154.5000;0.1343;-0.6059;
-154.2000;0.1319;-0.6084;
-153.9000;0.1294;-0.6084;
-153.6000;0.1319;-0.6084;
-153.3000;0.1311;-0.6059;
-153.0000;0.1319;-0.5884;
-152.7000;0.1294;-0.5909;
-152.4000;0.1286;-0.5934;
-152.1000;0.1294;-0.5959;
-151.8000;0.1286;-0.5934;
-151.5000;0.1311;-0.5810;
-151.2000;0.1327;-0.5810;
-150.9000;0.1294;-0.5810;
-150.6000;0.1286;-0.5909;
-150.3000;0.1319;-0.5884;
-150.0000;0.1351;-0.5810;
-149.7000;0.1319;-0.5934;
-149.4000;0.1311;-0.5884;
-149.1000;0.1245;-0.6009;
-148.8000;0.1302;-0.5884;
-148.5000;0.1351;-0.5735;
-148.2000;0.1302;-0.5810;
-147.9000;0.1262;-0.5735;
-147.6000;0.1278;-0.5710;
-147.3000;0.1302;-0.5710;
-147.0000;0.1302;-0.5635;
-146.7000;0.1302;-0.5610;
-146.4000;0.1262;-0.5685;
-146.1000;0.1343;-0.5535;
-145.8000;0.1294;-0.5660;
-145.5000;0.1311;-0.5710;
-145.2000;0.1294;-0.5810;
-144.9000;0.1319;-0.5785;
-144.6000;0.1294;-0.5834;
-144.3000;0.1302;-0.5735;
-144.0000;0.1319;-0.5735;
-143.7000;0.1254;-0.5834;
-143.4000;0.1302;-0.5660;
-143.1000;0.1327;-0.5635;
-142.8000;0.1335;-0.5585;
-142.5000;0.1319;-0.5585;
-142.2000;0.1302;-0.5660;
-141.9000;0.1302;-0.5785;
-141.6000;0.1319;-0.5810;
-141.3000;0.1319;-0.5760;
-141.0000;0.1311;-0.5760;
-140.7000;0.1335;-0.5610;
-140.4000;0.1416;-0.5460;
-140.1000;0.1311;-0.5635;
-139.8000;0.1319;-0.5560;
-139.5000;0.1327;-0.5485;
-139.2000;0.1319;-0.5535;
-138.9000;0.1376;-0.5361;
-138.6000;0.1335;-0.5535;
-138.3000;0.1311;-0.5635;
-138.0000;0.1351;-0.5560;
-137.7000;0.1311;-0.5635;
-137.4000;0.1302;-0.5560;
-137.1000;0.1294;-0.5710;
-136.8000;0.1319;-0.5785;
-136.5000;0.1311;-0.5735;
-136.2000;0.1294;-0.5710;
-135.9000;0.1319;-0.5685;
-135.6000;0.1319;-0.5785;
-135.3000;0.1327;-0.5760;
-135.0000;0.1319;-0.5785;
-134.7000;0.1270;-0.5984;
-134.4000;0.1302;-0.5785;
-134.1000;0.1278;-0.5735;
-133.8000;0.1319;-0.5635;
-133.5000;0.1286;-0.5710;
-133.2000;0.1302;-0.5660;
-132.9000;0.1327;-0.5585;
-132.6000;0.1351;-0.5485;
-132.3000;0.1262;-0.5834;
-132.0000;0.1327;-0.5710;
-131.7000;0.1286;-0.5710;
-131.4000;0.1245;-0.5785;
-131.1000;0.1335;-0.5585;
-130.8000;0.1302;-0.5610;
-130.5000;0.1278;-0.5460;
-130.2000;0.1311;-0.5436;
-129.9000;0.1286;-0.5635;
-129.6000;0.1311;-0.5585;
-129.3000;0.1327;-0.5510;
-129.0000;0.1311;-0.5510;
-128.7000;0.1327;-0.5535;
-128.4000;0.1302;-0.5610;
-128.1000;0.1286;-0.5685;
-127.8000;0.1351;-0.5585;
-127.5000;0.1286;-0.5760;
-127.2000;0.1351;-0.5685;
-126.9000;0.1302;-0.5710;
-126.6000;0.1294;-0.5735;
-126.3000;0.1294;-0.5685;
-126.0000;0.1311;-0.5685;
-125.7000;0.1245;-0.5859;
-125.4000;0.1319;-0.5735;
-125.1000;0.1335;-0.5710;
-124.8000;0.1311;-0.5760;
-124.5000;0.1359;-0.5685;
-124.2000;0.1319;-0.5710;
-123.9000;0.1294;-0.5785;
-123.6000;0.1319;-0.5760;
-123.3000;0.1343;-0.5635;
-123.0000;0.1302;-0.5685;
-122.7000;0.1302;-0.5685;
-122.4000;0.1311;-0.5735;
-122.1000;0.1286;-0.5760;
-121.8000;0.1278;-0.5810;
-121.5000;0.1302;-0.5760;
-121.2000;0.1294;-0.5760;
-120.9000;0.1294;-0.5735;
-120.6000;0.1294;-0.5660;
-120.3000;0.1311;-0.5560;
-120.0000;0.1327;-0.5535;
-119.7000;0.1319;-0.5585;
-119.4000;0.1319;-0.5560;
-119.1000;0.1311;-0.5635;
-118.8000;0.1327;-0.5610;
-118.5000;0.1311;-0.5760;
-118.2000;0.1311;-0.5810;
-117.9000;0.1351;-0.5685;
-117.6000;0.1286;-0.5785;
-117.3000;0.1319;-0.5710;
-117.0000;0.1302;-0.5810;
-116.7000;0.1294;-0.5834;
-116.4000;0.1229;-0.5959;
-116.1000;0.1294;-0.5834;
-115.8000;0.1319;-0.5984;
-115.5000;0.1311;-0.6009;
-115.2000;0.1327;-0.5959;
-114.9000;0.1319;-0.5884;
-114.6000;0.1351;-0.5760;
-114.3000;0.1302;-0.5859;
-114.0000;0.1311;-0.5810;
-113.7000;0.1311;-0.5834;
-113.4000;0.1294;-0.5934;
-113.1000;0.1319;-0.5810;
-112.8000;0.1294;-0.5884;
-112.5000;0.1343;-0.5660;
-112.2000;0.1327;-0.5735;
-111.9000;0.1294;-0.5760;
-111.6000;0.1416;-0.5460;
-111.3000;0.1319;-0.5685;
-111.0000;0.1327;-0.5685;
-110.7000;0.1351;-0.5585;
-110.4000;0.1335;-0.5635;
-110.1000;0.1302;-0.5685;
-109.8000;0.1327;-0.5660;
-109.5000;0.1359;-0.5610;
-109.2000;0.1302;-0.5785;
-108.9000;0.1294;-0.5735;
-108.6000;0.1254;-0.5810;
-108.3000;0.1319;-0.5760;
-108.0000;0.1311;-0.5760;
-107.7000;0.1311;-0.5760;
-107.4000;0.1311;-0.5785;
-107.1000;0.1343;-0.5685;
-106.8000;0.1384;-0.5535;
-106.5000;0.1343;-0.5735;
-106.2000;0.1311;-0.5760;
-105.9000;0.1327;-0.5635;
-105.6000;0.1302;-0.5760;
-105.3000;0.1294;-0.5760;
-105.0000;0.1319;-0.5785;
-104.7000;0.1294;-0.5810;
-104.4000;0.1302;-0.5859;
-104.1000;0.1302;-0.5934;
-103.8000;0.1327;-0.5859;
-103.5000;0.1302;-0.5810;
-103.2000;0.1311;-0.5685;
-102.9000;0.1311;-0.5760;
-102.6000;0.1351;-0.5610;
-102.3000;0.1311;-0.5710;
-102.0000;0.1262;-0.5859;
-101.7000;0.1278;-0.5760;
-101.4000;0.1302;-0.5685;
-101.1000;0.1311;-0.5635;
-100.8000;0.1286;-0.5735;
-100.5000;0.1262;-0.5859;
-100.2000;0.1294;-0.5934;
-99.9000;0.1408;-0.5635;
-99.6000;0.1311;-0.5859;
-99.3000;0.1327;-0.5834;
-99.0000;0.1335;-0.5859;
-98.7000;0.1335;-0.5859;
-98.4000;0.1319;-0.5810;
-98.1000;0.1302;-0.5810;
-97.8000;0.1302;-0.5810;
-97.5000;0.1311;-0.5760;
-97.2000;0.1327;-0.5834;
-96.9000;0.1302;-0.5909;
-96.6000;0.1302;-0.5859;
-96.3000;0.1286;-0.5884;
-96.0000;0.1311;-0.5735;
-95.7000;0.1327;-0.5735;
-95.4000;0.1327;-0.5760;
-95.1000;0.1319;-0.5760;
-94.8000;0.1343;-0.5685;
-94.5000;0.1343;-0.5660;
-94.2000;0.1359;-0.5585;
-93.9000;0.1294;-0.5785;
-93.6000;0.1319;-0.5785;
-93.3000;0.1294;-0.5760;
-93.0000;0.1327;-0.5710;
-92.7000;0.1319;-0.5635;
-92.4000;0.1188;-0.6009;
-92.1000;0.1327;-0.5685;
-91.8000;0.1302;-0.5660;
-91.5000;0.1319;-0.5635;
-91.2000;0.1302;-0.5660;
-90.9000;0.1311;-0.5610;
-90.6000;0.1319;-0.5635;
-90.3000;0.1311;-0.5660;
-90.0000;0.1302;-0.5685;
-89.7000;0.1278;-0.5635;
-89.4000;0.1311;-0.5510;
-89.1000;0.1302;-0.5485;
-88.8000;0.1319;-0.5436;
-88.5000;0.1302;-0.5460;
-88.2000;0.1319;-0.5411;
-87.9000;0.1302;-0.5411;
-87.6000;0.1302;-0.5560;
-87.3000;0.1302;-0.5660;
-87.0000;0.1294;-0.5810;
-86.7000;0.1311;-0.5710;
-86.4000;0.1311;-0.5660;
-86.1000;0.1319;-0.5685;
-85.8000;0.1302;-0.5660;
-85.5000;0.1302;-0.5635;
-85.2000;0.1302;-0.5685;
-84.9000;0.1294;-0.5635;
-84.6000;0.1311;-0.5585;
-84.3000;0.1302;-0.5610;
-84.0000;0.1302;-0.5635;
-83.7000;0.1311;-0.5760;
-83.4000;0.1311;-0.5660;
-83.1000;0.1319;-0.5535;
-82.8000;0.1294;-0.5610;
-82.5000;0.1302;-0.5510;
-82.2000;0.1327;-0.5386;
-81.9000;0.1376;-0.5261;
-81.6000;0.1302;-0.5460;
-81.3000;0.1311;-0.5485;
-81.0000;0.1311;-0.5485;
-80.7000;0.1327;-0.5460;
-80.4000;0.1302;-0.5610;
-80.1000;0.1319;-0.5535;
-79.8000;0.1319;-0.5560;
-79.5000;0.1294;-0.5610;
-79.2000;0.1319;-0.5635;
-78.9000;0.1302;-0.5685;
-78.6000;0.1376;-0.5560;
-78.3000;0.1302;-0.5710;
-78.0000;0.1343;-0.5635;
-77.7000;0.1213;-0.5909;
-77.4000;0.1294;-0.5760;
-77.1000;0.1302;-0.5685;
-76.8000;0.1319;-0.5660;
-76.5000;0.1335;-0.5760;
-76.2000;0.1302;-0.5810;
-75.9000;0.1351;-0.5710;
-75.6000;0.1400;-0.5485;
-75.3000;0.1319;-0.5660;
-75.0000;0.1335;-0.5610;
-74.7000;0.1319;-0.5660;
-74.4000;0.1302;-0.5660;
-74.1000;0.1335;-0.5560;
-73.8000;0.1319;-0.5560;
-73.5000;0.1359;-0.5535;
-73.2000;0.1319;-0.5635;
-72.9000;0.1335;-0.5610;
-72.6000;0.1294;-0.5660;
-72.3000;0.1319;-0.5610;
-72.0000;0.1311;-0.5685;
-71.7000;0.1319;-0.5735;
-71.4000;0.1302;-0.5810;
-71.1000;0.1302;-0.5859;
-70.8000;0.1294;-0.5859;
-70.5000;0.1319;-0.5660;
-70.2000;0.1327;-0.5585;
-69.9000;0.1319;-0.5635;
-69.6000;0.1294;-0.5685;
-69.3000;0.1302;-0.5660;
-69.0000;0.1311;-0.5585;
-68.7000;0.1294;-0.5585;
-68.4000;0.1335;-0.5560;
-68.1000;0.1343;-0.5560;
-67.8000;0.1319;-0.5660;
-67.5000;0.1294;-0.5685;
-67.2000;0.1319;-0.5735;
-66.9000;0.1311;-0.5685;
-66.6000;0.1343;-0.5535;
-66.3000;0.1319;-0.5610;
-66.0000;0.1302;-0.5785;
-65.7000;0.1335;-0.5760;
-65.4000;0.1335;-0.5685;
-65.1000;0.1319;-0.5710;
-64.8000;0.1335;-0.5635;
-64.5000;0.1319;-0.5610;
-64.2000;0.1319;-0.5610;
-63.9000;0.1359;-0.5460;
-63.6000;0.1319;-0.5510;
-63.3000;0.1302;-0.5585;
-63.0000;0.1302;-0.5635;
-62.7000;0.1335;-0.5535;
-62.4000;0.1294;-0.5635;
-62.1000;0.1294;-0.5635;
-61.8000;0.1302;-0.5635;
-61.5000;0.1302;-0.5660;
-61.2000;0.1319;-0.5660;
-60.9000;0.1294;-0.5685;
-60.6000;0.1311;-0.5710;
-60.3000;0.1302;-0.5735;
-60.0000;0.1311;-0.5710;
-59.7000;0.1278;-0.5859;
-59.4000;0.1302;-0.5834;
-59.1000;0.1311;-0.5710;
-58.8000;0.1327;-0.5685;
-58.5000;0.1311;-0.5834;
-58.2000;0.1319;-0.5859;
-57.9000;0.1335;-0.5909;
-57.6000;0.1319;-0.6059;
-57.3000;0.1286;-0.6109;
-57.0000;0.1311;-0.5984;
-56.7000;0.1319;-0.5934;
-56.4000;0.1302;-0.5984;
-56.1000;0.1302;-0.5909;
-55.8000;0.1311;-0.5934;
-55.5000;0.1327;-0.5934;
-55.2000;0.1311;-0.6009;
-54.9000;0.1311;-0.6034;
-54.6000;0.1270;-0.6034;
-54.3000;0.1311;-0.5959;
-54.0000;0.1351;-0.5834;
-53.7000;0.1205;-0.6208;
-53.4000;0.1311;-0.5959;
-53.1000;0.1327;-0.5810;
-52.8000;0.1319;-0.5810;
-52.5000;0.1286;-0.5834;
-52.2000;0.1294;-0.5884;
-51.9000;0.1254;-0.6084;
-51.6000;0.1319;-0.5959;
-51.3000;0.1302;-0.5959;
-51.0000;0.1311;-0.5959;
-50.7000;0.1270;-0.5884;
-50.4000;0.1302;-0.5859;
-50.1000;0.1311;-0.5884;
-49.8000;0.1319;-0.5909;
-49.5000;0.1302;-0.6009;
-49.2000;0.1351;-0.5884;
-48.9000;0.1335;-0.5934;
-48.6000;0.1302;-0.5934;
-48.3000;0.1302;-0.5934;
-48.0000;0.1311;-0.5810;
-47.7000;0.1319;-0.5735;
-47.4000;0.1294;-0.5760;
-47.1000;0.1286;-0.5785;
-46.8000;0.1294;-0.5735;
-46.5000;0.1294;-0.5785;
-46.2000;0.1245;-0.6009;
-45.9000;0.1302;-0.5884;
-45.6000;0.1286;-0.5859;
-45.3000;0.1302;-0.5859;
-45.0000;0.1311;-0.5884;
-44.7000;0.1319;-0.5810;
-44.4000;0.1302;-0.5859;
-44.1000;0.1294;-0.5959;
-43.8000;0.1302;-0.6009;
-43.5000;0.1319;-0.5959;
-43.2000;0.1294;-0.5984;
-42.9000;0.1286;-0.5934;
-42.6000;0.1335;-0.5834;
-42.3000;0.1294;-0.5884;
-42.0000;0.1294;-0.5934;
-41.7000;0.1270;-0.5934;
-41.4000;0.1311;-0.5934;
-41.1000;0.1319;-0.5884;
-40.8000;0.1343;-0.5909;
-40.5000;0.1294;-0.6059;
-40.2000;0.1335;-0.5959;
-39.9000;0.1384;-0.5810;
-39.6000;0.1359;-0.5760;
-39.3000;0.1302;-0.5785;
-39.0000;0.1286;-0.5834;
-38.7000;0.1286;-0.5785;
-38.4000;0.1286;-0.5760;
-38.1000;0.1294;-0.5859;
-37.8000;0.1319;-0.5785;
-37.5000;0.1319;-0.5710;
-37.2000;0.1327;-0.5735;
-36.9000;0.1327;-0.5760;
-36.6000;0.1302;-0.5884;
-36.3000;0.1302;-0.5810;
-36.0000;0.1294;-0.5785;
-35.7000;0.1343;-0.5610;
-35.4000;0.1294;-0.5735;
-35.1000;0.1319;-0.5760;
-34.8000;0.1302;-0.5710;
-34.5000;0.1302;-0.5660;
-34.2000;0.1311;-0.5710;
-33.9000;0.1392;-0.5510;
-33.6000;0.1302;-0.5760;
-33.3000;0.1311;-0.5785;
-33.0000;0.1286;-0.5810;
-32.7000;0.1278;-0.5834;
-32.4000;0.1302;-0.5810;
-32.1000;0.1311;-0.5934;
-31.8000;0.1311;-0.6009;
-31.5000;0.1302;-0.5984;
-31.2000;0.1311;-0.6009;
-30.9000;0.1319;-0.6009;
-30.6000;0.1270;-0.6134;
-30.3000;0.1327;-0.6034;
-30.0000;0.1327;-0.6034;
-29.7000;0.1311;-0.5984;
-29.4000;0.1319;-0.5959;
-29.1000;0.1319;-0.5909;
-28.8000;0.1221;-0.6134;
-28.5000;0.1319;-0.5785;
-28.2000;0.1311;-0.5785;
-27.9000;0.1311;-0.5810;
-27.6000;0.1302;-0.5834;
-27.3000;0.1311;-0.5710;
-27.0000;0.1311;-0.5735;
-26.7000;0.1311;-0.5760;
-26.4000;0.1335;-0.5735;
-26.1000;0.1278;-0.5810;
-25.8000;0.1343;-0.5710;
-25.5000;0.1319;-0.5785;
-25.2000;0.1311;-0.5785;
-24.9000;0.1294;-0.5859;
-24.6000;0.1311;-0.5859;
-24.3000;0.1319;-0.5834;
-24.0000;0.1311;-0.5834;
-23.7000;0.1311;-0.5710;
-23.4000;0.1319;-0.5660;
-23.1000;0.1311;-0.5735;
-22.8000;0.1319;-0.5760;
-22.5000;0.1262;-0.5884;
-22.2000;0.1262;-0.5884;
-21.9000;0.1311;-0.5735;
-21.6000;0.1319;-0.5585;
-21.3000;0.1302;-0.5635;
-21.0000;0.1302;-0.5785;
-20.7000;0.1294;-0.5785;
-20.4000;0.1302;-0.5710;
-20.1000;0.1286;-0.5785;
-19.8000;0.1302;-0.5685;
-19.5000;0.1302;-0.5635;
-19.2000;0.1294;-0.5585;
-18.9000;0.1319;-0.5610;
-18.6000;0.1278;-0.5685;
-18.3000;0.1302;-0.5660;
-18.0000;0.1302;-0.5710;
-17.7000;0.1294;-0.5710;
-17.4000;0.1294;-0.5710;
-17.1000;0.1311;-0.5710;
-16.8000;0.1311;-0.5660;
-16.5000;0.1286;-0.5760;
-16.2000;0.1294;-0.5685;
-15.9000;0.1335;-0.5510;
-15.6000;0.1294;-0.5610;
-15.3000;0.1286;-0.5610;
-15.0000;0.1270;-0.5685;
-14.7000;0.1302;-0.5610;
-14.4000;0.1302;-0.5635;
-14.1000;0.1302;-0.5660;
-13.8000;0.1262;-0.5735;
-13.5000;0.1294;-0.5660;
-13.2000;0.1319;-0.5510;
-12.9000;0.1294;-0.5560;
-12.6000;0.1319;-0.5510;
-12.3000;0.1319;-0.5485;
-12.0000;0.1311;-0.5436;
-11.7000;0.1278;-0.5411;
-11.4000;0.1319;-0.5361;
-11.1000;0.1302;-0.5460;
-10.8000;0.1311;-0.5510;
-10.5000;0.1311;-0.5560;
-10.2000;0.1294;-0.5510;
-9.9000;0.1294;-0.5535;
-9.6000;0.1319;-0.5535;
-9.3000;0.1311;-0.5510;
-9.0000;0.1302;-0.5585;
-8.7000;0.1319;-0.5585;
-8.4000;0.1270;-0.5810;
-8.1000;0.1311;-0.5660;
-7.8000;0.1311;-0.5710;
-7.5000;0.1294;-0.5685;
-7.2000;0.1311;-0.5710;
-6.9000;0.1262;-0.5760;
-6.6000;0.1294;-0.5735;
-6.3000;0.1294;-0.5685;
-6.0000;0.1286;-0.5760;
-5.7000;0.1311;-0.5760;
-5.4000;0.1294;-0.5859;
-5.1000;0.1294;-0.5884;
-4.8000;0.1286;-0.5859;
-4.5000;0.1335;-0.5685;
-4.2000;0.1335;-0.5760;
-3.9000;0.1311;-0.5785;
-3.6000;0.1286;-0.5785;
-3.3000;0.1213;-0.5909;
-3.0000;0.1319;-0.5485;
-2.7000;0.1311;-0.5510;
-2.4000;0.1327;-0.5510;
-2.1000;0.1311;-0.5535;
-1.8000;0.1311;-0.5510;
-1.5000;0.1270;-0.5660;
-1.2000;0.1311;-0.5560;
-0.9000;0.1311;-0.5660;
-0.6000;0.1302;-0.5660;
-0.3000;0.1319;-0.5610;
0.0000;0.1319;-0.5610;
0.3000;0.1302;-0.5336;
0.6000;0.1343;-0.5186;
0.9000;0.1368;-0.4962;
1.2000;0.1376;-0.4762;
1.5000;0.1376;-0.4563;
1.8000;0.1425;-0.4264;
2.1000;0.1416;-0.3964;
2.4000;0.1433;-0.3790;
2.7000;0.1433;-0.3740;
3.0000;0.1425;-0.3665;
3.3000;0.1465;-0.3416;
3.6000;0.1473;-0.3192;
3.9000;0.1457;-0.3142;
4.2000;0.1457;-0.3067;
4.5000;0.1425;-0.3042;
4.8000;0.1473;-0.2818;
5.1000;0.1490;-0.2818;
5.4000;0.1514;-0.2867;
5.7000;0.1473;-0.2892;
6.0000;0.1498;-0.2743;
6.3000;0.1547;-0.2568;
6.6000;0.1522;-0.2643;
6.9000;0.1490;-0.2842;
7.2000;0.1514;-0.2867;
7.5000;0.1506;-0.2967;
7.8000;0.1490;-0.2992;
8.1000;0.1498;-0.3017;
8.4000;0.1506;-0.2992;
8.7000;0.1498;-0.3067;
9.0000;0.1498;-0.3092;
9.3000;0.1498;-0.3092;
9.6000;0.1514;-0.2867;
9.9000;0.1522;-0.2818;
10.2000;0.1465;-0.2967;
10.5000;0.1514;-0.2768;
10.8000;0.1506;-0.2718;
11.1000;0.1514;-0.2668;
11.4000;0.1498;-0.2618;
11.7000;0.1490;-0.2568;
12.0000;0.1506;-0.2568;
12.3000;0.1555;-0.2394;
12.6000;0.1481;-0.2518;
12.9000;0.1498;-0.2593;
13.2000;0.1490;-0.2643;
13.5000;0.1530;-0.2693;
13.8000;0.1498;-0.2693;
14.1000;0.1473;-0.2768;
14.4000;0.1490;-0.2718;
14.7000;0.1514;-0.2718;
15.0000;0.1481;-0.2842;
15.3000;0.1604;-0.2493;
15.6000;0.1441;-0.2892;
15.9000;0.1506;-0.2693;
16.2000;0.1514;-0.2743;
16.5000;0.1506;-0.2718;
16.8000;0.1530;-0.2743;
17.1000;0.1522;-0.2743;
17.4000;0.1530;-0.2743;
17.7000;0.1563;-0.2643;
18.0000;0.1498;-0.2768;
18.3000;0.1506;-0.2842;
18.6000;0.1481;-0.2867;
18.9000;0.1514;-0.2768;
19.2000;0.1498;-0.2743;
19.5000;0.1522;-0.2768;
19.8000;0.1490;-0.2867;
20.1000;0.1481;-0.2867;
20.4000;0.1506;-0.2917;
20.7000;0.1498;-0.3017;
21.0000;0.1514;-0.3092;
21.3000;0.1530;-0.3067;
21.6000;0.1522;-0.3067;
21.9000;0.1514;-0.3117;
22.2000;0.1490;-0.3117;
22.5000;0.1579;-0.2917;
22.8000;0.1465;-0.3067;
23.1000;0.1481;-0.2942;
23.4000;0.1490;-0.2793;
23.7000;0.1465;-0.2917;
24.0000;0.1481;-0.2842;
24.3000;0.1473;-0.2892;
24.6000;0.1449;-0.2967;
24.9000;0.1490;-0.2842;
25.2000;0.1530;-0.2793;
25.5000;0.1563;-0.2743;
25.8000;0.1498;-0.2942;
26.1000;0.1498;-0.2992;
26.4000;0.1490;-0.2992;
26.7000;0.1506;-0.2892;
27.0000;0.1473;-0.2892;
27.3000;0.1530;-0.2693;
27.6000;0.1498;-0.2593;
27.9000;0.1490;-0.2643;
28.2000;0.1490;-0.2668;
28.5000;0.1595;-0.2468;
28.8000;0.1498;-0.2743;
29.1000;0.1481;-0.2842;
29.4000;0.1473;-0.2942;
29.7000;0.1498;-0.2842;
30.0000;0.1490;-0.2867;
30.3000;0.1473;-0.2917;
30.6000;0.1506;-0.2818;
30.9000;0.1490;-0.2743;
31.2000;0.1449;-0.2818;
31.5000;0.1498;-0.2693;
31.8000;0.1522;-0.2668;
32.1000;0.1522;-0.2593;
32.4000;0.1490;-0.2668;
32.7000;0.1514;-0.2668;
33.0000;0.1481;-0.2793;
33.3000;0.1481;-0.2768;
33.6000;0.1481;-0.2743;
33.9000;0.1498;-0.2668;
34.2000;0.1481;-0.2768;
34.5000;0.1473;-0.2818;
34.8000;0.1506;-0.2768;
35.1000;0.1408;-0.3067;
35.4000;0.1514;-0.2842;
35.7000;0.1473;-0.2967;
36.0000;0.1498;-0.2842;
36.3000;0.1530;-0.2693;
36.6000;0.1506;-0.2793;
36.9000;0.1498;-0.2967;
37.2000;0.1498;-0.3117;
37.5000;0.1522;-0.2992;
37.8000;0.1498;-0.3092;
38.1000;0.1490;-0.3142;
38.4000;0.1481;-0.3192;
38.7000;0.1514;-0.3142;
39.0000;0.1506;-0.3216;
39.3000;0.1547;-0.3042;
39.6000;0.1473;-0.3366;
39.9000;0.1490;-0.3241;
40.2000;0.1498;-0.3167;
40.5000;0.1530;-0.3142;
40.8000;0.1490;-0.3192;
41.1000;0.1498;-0.3167;
41.4000;0.1490;-0.3092;
41.7000;0.1506;-0.3092;
42.0000;0.1506;-0.3042;
42.3000;0.1612;-0.2818;
42.6000;0.1490;-0.3042;
42.9000;0.1481;-0.2992;
43.2000;0.1473;-0.3042;
43.5000;0.1506;-0.2892;
43.8000;0.1506;-0.2967;
44.1000;0.1506;-0.2967;
44.4000;0.1498;-0.3042;
44.7000;0.1498;-0.3067;
45.0000;0.1506;-0.3092;
45.3000;0.1498;-0.3067;
45.6000;0.1490;-0.3067;
45.9000;0.1498;-0.3067;
46.2000;0.1481;-0.3167;
46.5000;0.1490;-0.3167;
46.8000;0.1498;-0.3042;
47.1000;0.1579;-0.2917;
47.4000;0.1473;-0.3291;
47.7000;0.1506;-0.3142;
48.0000;0.1514;-0.3266;
48.3000;0.1490;-0.3416;
48.6000;0.1400;-0.3590;
48.9000;0.1490;-0.3316;
49.2000;0.1514;-0.3341;
49.5000;0.1498;-0.3366;
49.8000;0.1490;-0.3341;
50.1000;0.1506;-0.3291;
50.4000;0.1506;-0.3241;
50.7000;0.1514;-0.3341;
51.0000;0.1498;-0.3366;
51.3000;0.1473;-0.3266;
51.6000;0.1506;-0.3192;
51.9000;0.1481;-0.3192;
52.2000;0.1506;-0.3017;
52.5000;0.1481;-0.3067;
52.8000;0.1506;-0.3092;
53.1000;0.1522;-0.3117;
53.4000;0.1490;-0.3192;
53.7000;0.1490;-0.3167;
54.0000;0.1514;-0.3117;
54.3000;0.1481;-0.3266;
54.6000;0.1514;-0.3241;
54.9000;0.1522;-0.3291;
55.2000;0.1498;-0.3416;
55.5000;0.1498;-0.3391;
55.8000;0.1498;-0.3391;
56.1000;0.1506;-0.3241;
56.4000;0.1490;-0.3291;
56.7000;0.1498;-0.3167;
57.0000;0.1498;-0.3216;
57.3000;0.1490;-0.3366;
57.6000;0.1498;-0.3266;
57.9000;0.1563;-0.2992;
58.2000;0.1481;-0.3092;
58.5000;0.1506;-0.2942;
58.8000;0.1498;-0.2942;
59.1000;0.1506;-0.2892;
59.4000;0.1481;-0.2992;
59.7000;0.1481;-0.3092;
60.0000;0.1490;-0.3117;
60.3000;0.1498;-0.3042;
60.6000;0.1490;-0.3092;
60.9000;0.1490;-0.3216;
61.2000;0.1514;-0.3216;
61.5000;0.1506;-0.3192;
61.8000;0.1522;-0.3142;
62.1000;0.1506;-0.3092;
62.4000;0.1530;-0.3017;
62.7000;0.1465;-0.3192;
63.0000;0.1498;-0.3092;
63.3000;0.1522;-0.3092;
63.6000;0.1506;-0.3216;
63.9000;0.1490;-0.3092;
64.2000;0.1506;-0.3042;
64.5000;0.1498;-0.3092;
64.8000;0.1498;-0.3092;
65.1000;0.1465;-0.3241;
65.4000;0.1498;-0.3142;
65.7000;0.1506;-0.3092;
66.0000;0.1498;-0.3216;
66.3000;0.1490;-0.3142;
66.6000;0.1530;-0.2992;
66.9000;0.1498;-0.3117;
67.2000;0.1522;-0.2992;
67.5000;0.1498;-0.2967;
67.8000;0.1506;-0.2892;
68.1000;0.1522;-0.2867;
68.4000;0.1490;-0.2917;
68.7000;0.1490;-0.3017;
69.0000;0.1490;-0.3067;
69.3000;0.1490;-0.3092;
69.6000;0.1473;-0.3167;
69.9000;0.1498;-0.3117;
70.2000;0.1481;-0.3167;
70.5000;0.1490;-0.3142;
70.8000;0.1506;-0.3192;
71.1000;0.1522;-0.3192;
71.4000;0.1498;-0.3167;
71.7000;0.1571;-0.2917;
72.0000;0.1514;-0.3042;
72.3000;0.1522;-0.2992;
72.6000;0.1506;-0.2992;
72.9000;0.1498;-0.3017;
73.2000;0.1522;-0.2967;
73.5000;0.1506;-0.2917;
73.8000;0.1490;-0.2992;
74.1000;0.1490;-0.2992;
74.4000;0.1514;-0.2942;
74.7000;0.1514;-0.2867;
75.0000;0.1498;-0.2892;
75.3000;0.1490;-0.2867;
75.6000;0.1481;-0.2942;
75.9000;0.1498;-0.3042;
76.2000;0.1498;-0.3017;
76.5000;0.1457;-0.3067;
76.8000;0.1506;-0.2942;
77.1000;0.1490;-0.3017;
77.4000;0.1481;-0.3017;
77.7000;0.1490;-0.2992;
78.0000;0.1481;-0.3017;
78.3000;0.1498;-0.3017;
78.6000;0.1490;-0.3017;
78.9000;0.1490;-0.2917;
79.2000;0.1481;-0.3042;
79.5000;0.1498;-0.3017;
79.8000;0.1490;-0.2917;
80.1000;0.1490;-0.2942;
80.4000;0.1457;-0.2942;
80.7000;0.1490;-0.2892;
81.0000;0.1498;-0.2768;
81.3000;0.1490;-0.2892;
81.6000;0.1490;-0.2867;
81.9000;0.1473;-0.2867;
82.2000;0.1506;-0.2842;
82.5000;0.1490;-0.2867;
82.8000;0.1490;-0.2818;
83.1000;0.1490;-0.2842;
83.4000;0.1473;-0.2967;
83.7000;0.1506;-0.2967;
84.0000;0.1506;-0.2992;
84.3000;0.1530;-0.2917;
84.6000;0.1514;-0.2892;
84.9000;0.1514;-0.2892;
85.2000;0.1490;-0.2992;
85.5000;0.1490;-0.2967;
85.8000;0.1490;-0.2992;
86.1000;0.1506;-0.2967;
86.4000;0.1498;-0.2942;
86.7000;0.1490;-0.2967;
87.0000;0.1514;-0.2892;
87.3000;0.1498;-0.2967;
87.6000;0.1506;-0.2992;
87.9000;0.1490;-0.2992;
88.2000;0.1498;-0.2967;
88.5000;0.1506;-0.2942;
88.8000;0.1481;-0.3017;
89.1000;0.1481;-0.3142;
89.4000;0.1490;-0.3117;
89.7000;0.1514;-0.3117;
90.0000;0.1538;-0.3042;
90.3000;0.1490;-0.3192;
90.6000;0.1457;-0.3216;
90.9000;0.1457;-0.3167;
91.2000;0.1473;-0.3117;
91.5000;0.1481;-0.3142;
91.8000;0.1490;-0.3117;
92.1000;0.1498;-0.3167;
92.4000;0.1522;-0.3167;
92.7000;0.1555;-0.3067;
93.0000;0.1506;-0.3092;
93.3000;0.1465;-0.3092;
93.6000;0.1490;-0.3117;
93.9000;0.1473;-0.3167;
94.2000;0.1457;-0.3142;
94.5000;0.1351;-0.3266;
94.8000;0.1481;-0.2793;
95.1000;0.1481;-0.2718;
95.4000;0.1481;-0.2718;
95.7000;0.1490;-0.2643;
96.0000;0.1473;-0.2793;
96.3000;0.1473;-0.2818;
96.6000;0.1465;-0.2867;
96.9000;0.1498;-0.2793;
97.2000;0.1457;-0.2867;
97.5000;0.1490;-0.2643;
97.8000;0.1506;-0.2618;
98.1000;0.1498;-0.2693;
98.4000;0.1449;-0.2842;
98.7000;0.1498;-0.2718;
99.0000;0.1563;-0.2618;
99.3000;0.1481;-0.2942;
99.6000;0.1490;-0.2917;
99.9000;0.1490;-0.2967;
100.2000;0.1514;-0.2892;
100.5000;0.1481;-0.2967;
100.8000;0.1490;-0.2992;
101.1000;0.1473;-0.3042;
101.4000;0.1425;-0.3167;
101.7000;0.1498;-0.2942;
102.0000;0.1547;-0.2768;
102.3000;0.1490;-0.2942;
102.6000;0.1506;-0.2942;
102.9000;0.1498;-0.3017;
103.2000;0.1506;-0.3042;
103.5000;0.1473;-0.3092;
103.8000;0.1465;-0.3167;
104.1000;0.1506;-0.3092;
104.4000;0.1449;-0.3192;
104.7000;0.1473;-0.3092;
105.0000;0.1514;-0.2917;
105.3000;0.1498;-0.2942;
105.6000;0.1498;-0.2917;
105.9000;0.1530;-0.2842;
106.2000;0.1555;-0.2793;
106.5000;0.1465;-0.3117;
106.8000;0.1490;-0.3042;
107.1000;0.1490;-0.3042;
107.4000;0.1547;-0.2818;
107.7000;0.1498;-0.3017;
108.0000;0.1514;-0.3017;
108.3000;0.1473;-0.3142;
108.6000;0.1506;-0.3092;
108.9000;0.1514;-0.3067;
109.2000;0.1490;-0.3142;
109.5000;0.1481;-0.3042;
109.8000;0.1481;-0.2967;
110.1000;0.1490;-0.2992;
110.4000;0.1522;-0.2967;
110.7000;0.1473;-0.3067;
111.0000;0.1490;-0.3042;
111.3000;0.1490;-0.3092;
111.6000;0.1457;-0.3241;
111.9000;0.1514;-0.2942;
112.2000;0.1481;-0.2942;
112.5000;0.1425;-0.3092;
112.8000;0.1506;-0.2942;
113.1000;0.1498;-0.2942;
113.4000;0.1473;-0.2942;
113.7000;0.1490;-0.2842;
114.0000;0.1481;-0.2793;
114.3000;0.1481;-0.2818;
114.6000;0.1498;-0.2743;
114.9000;0.1506;-0.2842;
115.2000;0.1506;-0.2892;
115.5000;0.1490;-0.2917;
115.8000;0.1481;-0.2942;
116.1000;0.1506;-0.2892;
116.4000;0.1498;-0.2867;
116.7000;0.1514;-0.2967;
117.0000;0.1506;-0.2992;
117.3000;0.1506;-0.2917;
117.6000;0.1425;-0.3067;
117.9000;0.1506;-0.2768;
118.2000;0.1433;-0.2942;
118.5000;0.1481;-0.2867;
118.8000;0.1481;-0.2818;
119.1000;0.1490;-0.2768;
119.4000;0.1514;-0.2768;
119.7000;0.1506;-0.2842;
120.0000;0.1522;-0.2768;
120.3000;0.1490;-0.2818;
120.6000;0.1490;-0.2892;
120.9000;0.1490;-0.2917;
121.2000;0.1498;-0.2842;
121.5000;0.1530;-0.2818;
121.8000;0.1490;-0.2892;
122.1000;0.1498;-0.2892;
122.4000;0.1481;-0.2967;
122.7000;0.1481;-0.2992;
123.0000;0.1522;-0.2892;
123.3000;0.1498;-0.2967;
123.6000;0.1498;-0.2942;
123.9000;0.1498;-0.2818;
124.2000;0.1498;-0.2842;
124.5000;0.1498;-0.2818;
124.8000;0.1473;-0.2867;
125.1000;0.1490;-0.2867;
125.4000;0.1555;-0.2618;
125.7000;0.1481;-0.2793;
126.0000;0.1538;-0.2618;
126.3000;0.1473;-0.2693;
126.6000;0.1514;-0.2643;
126.9000;0.1506;-0.2718;
127.2000;0.1481;-0.2718;
127.5000;0.1506;-0.2643;
127.8000;0.1498;-0.2718;
128.1000;0.1498;-0.2818;
128.4000;0.1481;-0.2867;
128.7000;0.1490;-0.2768;
129.0000;0.1449;-0.2842;
129.3000;0.1498;-0.2693;
129.6000;0.1473;-0.2718;
129.9000;0.1563;-0.2493;
130.2000;0.1481;-0.2743;
130.5000;0.1514;-0.2668;
130.8000;0.1481;-0.2743;
131.1000;0.1481;-0.2793;
131.4000;0.1587;-0.2518;
131.7000;0.1498;-0.2818;
132.0000;0.1481;-0.2867;
132.3000;0.1490;-0.2917;
132.6000;0.1498;-0.2842;
132.9000;0.1522;-0.2793;
133.2000;0.1490;-0.2942;
133.5000;0.1498;-0.2967;
133.8000;0.1481;-0.2892;
134.1000;0.1473;-0.2917;
134.4000;0.1465;-0.2892;
134.7000;0.1490;-0.2892;
135.0000;0.1416;-0.3067;
135.3000;0.1498;-0.2867;
135.6000;0.1506;-0.2892;
135.9000;0.1465;-0.2942;
136.2000;0.1481;-0.2892;
136.5000;0.1457;-0.2917;
136.8000;0.1522;-0.2743;
137.1000;0.1481;-0.2892;
137.4000;0.1506;-0.2793;
137.7000;0.1473;-0.2818;
138.0000;0.1481;-0.2768;
138.3000;0.1498;-0.2718;
138.6000;0.1498;-0.2743;
138.9000;0.1481;-0.2793;
139.2000;0.1498;-0.2718;
139.5000;0.1490;-0.2743;
139.8000;0.1473;-0.2892;
140.1000;0.1555;-0.2718;
140.4000;0.1490;-0.2917;
140.7000;0.1498;-0.2942;
141.0000;0.1392;-0.3291;
141.3000;0.1506;-0.2967;
141.6000;0.1473;-0.2992;
141.9000;0.1506;-0.2917;
142.2000;0.1498;-0.2942;
142.5000;0.1465;-0.2967;
142.8000;0.1563;-0.2718;
143.1000;0.1498;-0.2942;
143.4000;0.1498;-0.2917;
143.7000;0.1498;-0.2917;
144.0000;0.1465;-0.2867;
144.3000;0.1465;-0.2842;
144.6000;0.1514;-0.2693;
144.9000;0.1506;-0.2668;
145.2000;0.1490;-0.2743;
145.5000;0.1506;-0.2743;
145.8000;0.1498;-0.2768;
146.1000;0.1490;-0.2793;
146.4000;0.1498;-0.2768;
146.7000;0.1514;-0.2768;
147.0000;0.1506;-0.2818;
147.3000;0.1563;-0.2743;
147.6000;0.1506;-0.2842;
147.9000;0.1506;-0.2892;
148.2000;0.1465;-0.2942;
148.5000;0.1506;-0.2867;
148.8000;0.1506;-0.2892;
149.1000;0.1481;-0.2967;
149.4000;0.1506;-0.2867;
149.7000;0.1490;-0.2917;
150.0000;0.1498;-0.2967;
150.3000;0.1498;-0.2942;
150.6000;0.1522;-0.2818;
150.9000;0.1498;-0.2818;
151.2000;0.1506;-0.2818;
151.5000;0.1498;-0.2842;
151.8000;0.1490;-0.2793;
152.1000;0.1506;-0.2818;
152.4000;0.1498;-0.2818;
152.7000;0.1473;-0.2842;
153.0000;0.1449;-0.2942;
153.3000;0.1563;-0.2668;
153.6000;0.1490;-0.2917;
153.9000;0.1498;-0.2917;
154.2000;0.1465;-0.2917;
154.5000;0.1457;-0.2917;
154.8000;0.1481;-0.2967;
155.1000;0.1473;-0.3067;
155.4000;0.1490;-0.3142;
155.7000;0.1530;-0.3092;
156.0000;0.1490;-0.3192;
156.3000;0.1481;-0.3117;
156.6000;0.1473;-0.3167;
156.9000;0.1465;-0.3117;
157.2000;0.1490;-0.3092;
157.5000;0.1465;-0.3117;
157.8000;0.1441;-0.3266;
158.1000;0.1506;-0.3092;
158.4000;0.1498;-0.3042;
158.7000;0.1506;-0.3042;
159.0000;0.1481;-0.3017;
159.3000;0.1449;-0.3092;
159.6000;0.1506;-0.2992;
159.9000;0.1278;-0.3566;
160.2000;0.1498;-0.3042;
160.5000;0.1498;-0.3042;
160.8000;0.1490;-0.2992;
161.1000;0.1481;-0.3042;
161.4000;0.1490;-0.2967;
161.7000;0.1490;-0.3067;
162.0000;0.1595;-0.2743;
162.3000;0.1498;-0.3042;
162.6000;0.1490;-0.2967;
162.9000;0.1473;-0.2967;
163.2000;0.1490;-0.3067;
163.5000;0.1481;-0.3241;
163.8000;0.1441;-0.3341;
164.1000;0.1498;-0.3142;
164.4000;0.1481;-0.3042;
164.7000;0.1490;-0.2942;
165.0000;0.1490;-0.2942;
165.3000;0.1408;-0.2967;
165.6000;0.1481;-0.2743;
165.9000;0.1490;-0.2668;
166.2000;0.1498;-0.2668;
166.5000;0.1498;-0.2668;
166.8000;0.1481;-0.2768;
167.1000;0.1498;-0.2768;
167.4000;0.1514;-0.2718;
167.7000;0.1490;-0.2793;
168.0000;0.1457;-0.2818;
168.3000;0.1514;-0.2668;
168.6000;0.1506;-0.2693;
168.9000;0.1506;-0.2718;
169.2000;0.1514;-0.2768;
169.5000;0.1490;-0.2818;
169.8000;0.1506;-0.2917;
170.1000;0.1506;-0.2892;
170.4000;0.1449;-0.3067;
170.7000;0.1498;-0.2942;
171.0000;0.1481;-0.3042;
171.3000;0.1506;-0.3042;
171.6000;0.1473;-0.3167;
171.9000;0.1514;-0.3167;
172.2000;0.1604;-0.2892;
172.5000;0.1506;-0.3017;
172.8000;0.1530;-0.2967;
173.1000;0.1481;-0.3017;
173.4000;0.1490;-0.2892;
173.7000;0.1514;-0.2818;
174.0000;0.1473;-0.2818;
174.3000;0.1481;-0.2892;
174.6000;0.1490;-0.2818;
174.9000;0.1490;-0.2867;
175.2000;0.1514;-0.2867;
175.5000;0.1465;-0.2992;
175.8000;0.1514;-0.2867;
176.1000;0.1506;-0.2867;
176.4000;0.1555;-0.2743;
176.7000;0.1506;-0.2942;
177.0000;0.1490;-0.3042;
177.3000;0.1498;-0.2992;
177.6000;0.1530;-0.2842;
177.9000;0.1498;-0.2917;
178.2000;0.1498;-0.2992;
178.5000;0.1481;-0.3117;
178.8000;0.1514;-0.2992;
179.1000;0.1522;-0.3042;
179.4000;0.1506;-0.3042;
179.7000;0.1457;-0.3067;
180.0000;0.1481;-0.2917;
180.3000;0.1481;-0.2917;
180.6000;0.1498;-0.2793;
180.9000;0.1522;-0.2743;
181.2000;0.1490;-0.2892;
181.5000;0.1465;-0.2917;
181.8000;0.1449;-0.2992;
182.1000;0.1490;-0.2917;
182.4000;0.1481;-0.2917;
182.7000;0.1498;-0.2793;
183.0000;0.1498;-0.2768;
183.3000;0.1481;-0.2743;
183.6000;0.1522;-0.2693;
183.9000;0.1490;-0.2793;
184.2000;0.1490;-0.2743;
184.5000;0.1490;-0.2718;
184.8000;0.1481;-0.2668;
185.1000;0.1481;-0.2593;
185.4000;0.1481;-0.2618;
185.7000;0.1490;-0.2718;
186.0000;0.1498;-0.2718;
186.3000;0.1481;-0.2892;
186.6000;0.1498;-0.2818;
186.9000;0.1490;-0.2718;
187.2000;0.1457;-0.2867;
187.5000;0.1498;-0.2793;
187.8000;0.1506;-0.2793;
188.1000;0.1498;-0.2818;
188.4000;0.1530;-0.2693;
188.7000;0.1457;-0.2867;
189.0000;0.1481;-0.2867;
189.3000;0.1457;-0.2842;
189.6000;0.1490;-0.2693;
189.9000;0.1481;-0.2718;
190.2000;0.1522;-0.2593;
190.5000;0.1481;-0.2618;
190.8000;0.1498;-0.2693;
191.1000;0.1465;-0.2917;
191.4000;0.1490;-0.2892;
191.7000;0.1506;-0.2743;
192.0000;0.1457;-0.2793;
192.3000;0.1473;-0.2743;
192.6000;0.1481;-0.2718;
192.9000;0.1481;-0.2842;
193.2000;0.1425;-0.2967;
193.5000;0.1490;-0.2818;
193.8000;0.1490;-0.2842;
194.1000;0.1457;-0.2967;
194.4000;0.1481;-0.2892;
194.7000;0.1481;-0.2743;
195.0000;0.1465;-0.2842;
195.3000;0.1441;-0.2892;
195.6000;0.1481;-0.2892;
195.9000;0.1490;-0.2942;
196.2000;0.1490;-0.2917;
196.5000;0.1522;-0.2793;
196.8000;0.1498;-0.2818;
197.1000;0.1481;-0.2818;
197.4000;0.1481;-0.2818;
197.7000;0.1457;-0.2892;
198.0000;0.1498;-0.2793;
198.3000;0.1473;-0.2867;
198.6000;0.1465;-0.2842;
198.9000;0.1490;-0.2867;
199.2000;0.1490;-0.2842;
199.5000;0.1465;-0.2892;
199.8000;0.1473;-0.2842;
200.1000;0.1449;-0.2842;
200.4000;0.1514;-0.2668;
200.7000;0.1514;-0.2718;
201.0000;0.1465;-0.2768;
201.3000;0.1498;-0.2718;
201.6000;0.1473;-0.2768;
201.9000;0.1506;-0.2668;
202.2000;0.1498;-0.2693;
202.5000;0.1425;-0.2892;
202.8000;0.1547;-0.2593;
203.1000;0.1490;-0.2718;
203.4000;0.1506;-0.2643;
203.7000;0.1498;-0.2668;
204.0000;0.1522;-0.2618;
204.3000;0.1530;-0.2643;
204.6000;0.1498;-0.2793;
204.9000;0.1522;-0.2743;
205.2000;0.1473;-0.2917;
205.5000;0.1506;-0.2793;
205.8000;0.1498;-0.2818;
206.1000;0.1481;-0.2842;
206.4000;0.1465;-0.2867;
206.7000;0.1473;-0.2892;
207.0000;0.1498;-0.2867;
207.3000;0.1473;-0.2992;
207.6000;0.1498;-0.3017;
207.9000;0.1473;-0.3017;
208.2000;0.1465;-0.3067;
208.5000;0.1449;-0.2967;
208.8000;0.1530;-0.2768;
209.1000;0.1538;-0.2618;
209.4000;0.1416;-0.2967;
209.7000;0.1473;-0.2793;
210.0000;0.1457;-0.2818;
210.3000;0.1465;-0.2793;
210.6000;0.1368;-0.3117;
210.9000;0.1498;-0.2768;
211.2000;0.1490;-0.2768;
211.5000;0.1555;-0.2593;
211.8000;0.1490;-0.2793;
212.1000;0.1473;-0.2768;
212.4000;0.1433;-0.2942;
212.7000;0.1473;-0.2793;
213.0000;0.1538;-0.2693;
213.3000;0.1481;-0.2842;
213.6000;0.1490;-0.2768;
213.9000;0.1498;-0.2768;
214.2000;0.1514;-0.2718;
214.5000;0.1481;-0.2842;
214.8000;0.1522;-0.2818;
215.1000;0.1449;-0.3017;
215.4000;0.1490;-0.2842;
215.7000;0.1490;-0.2818;
216.0000;0.1498;-0.2743;
216.3000;0.1498;-0.2693;
216.6000;0.1449;-0.2793;
216.9000;0.1473;-0.2693;
217.2000;0.1481;-0.2568;
217.5000;0.1490;-0.2668;
217.8000;0.1473;-0.2743;
218.1000;0.1490;-0.2668;
218.4000;0.1490;-0.2568;
218.7000;0.1481;-0.2668;
219.0000;0.1473;-0.2768;
219.3000;0.1473;-0.2793;
219.6000;0.1465;-0.2793;
219.9000;0.1481;-0.2842;
220.2000;0.1490;-0.2818;
220.5000;0.1490;-0.2917;
220.8000;0.1498;-0.2892;
221.1000;0.1498;-0.2917;
221.4000;0.1490;-0.2967;
221.7000;0.1498;-0.2992;
222.0000;0.1498;-0.2917;
222.3000;0.1498;-0.2867;
222.6000;0.1481;-0.2917;
222.9000;0.1481;-0.2917;
223.2000;0.1433;-0.3167;
223.5000;0.1473;-0.2942;
223.8000;0.1481;-0.2967;
224.1000;0.1465;-0.3017;
224.4000;0.1481;-0.2892;
224.7000;0.1449;-0.2892;
225.0000;0.1481;-0.2768;
225.3000;0.1473;-0.2693;
225.6000;0.1473;-0.2668;
225.9000;0.1498;-0.2618;
226.2000;0.1473;-0.2668;
226.5000;0.1498;-0.2643;
226.8000;0.1506;-0.2693;
227.1000;0.1481;-0.2768;
227.4000;0.1481;-0.2793;
227.7000;0.1498;-0.2818;
228.0000;0.1481;-0.2842;
228.3000;0.1441;-0.2867;
228.6000;0.1571;-0.2468;
228.9000;0.1457;-0.2793;
229.2000;0.1481;-0.2768;
229.5000;0.1506;-0.2618;
229.8000;0.1473;-0.2643;
230.1000;0.1473;-0.2618;
230.4000;0.1457;-0.2693;
230.7000;0.1498;-0.2693;
231.0000;0.1490;-0.2768;
231.3000;0.1473;-0.2917;
231.6000;0.1522;-0.2818;
231.9000;0.1506;-0.2892;
232.2000;0.1506;-0.2942;
232.5000;0.1481;-0.2917;
232.8000;0.1571;-0.2718;
233.1000;0.1481;-0.2967;
233.4000;0.1506;-0.2917;
233.7000;0.1392;-0.3192;
234.0000;0.1473;-0.2892;
234.3000;0.1449;-0.2917;
234.6000;0.1416;-0.3017;
234.9000;0.1490;-0.2768;
235.2000;0.1538;-0.2718;
235.5000;0.1547;-0.2718;
235.8000;0.1587;-0.2693;
236.1000;0.1473;-0.3017;
236.4000;0.1490;-0.2967;
236.7000;0.1530;-0.2793;
237.0000;0.1547;-0.2768;
237.3000;0.1490;-0.2842;
237.6000;0.1473;-0.2942;
237.9000;0.1441;-0.3142;
238.2000;0.1490;-0.2917;
238.5000;0.1498;-0.2892;
238.8000;0.1481;-0.2917;
239.1000;0.1473;-0.2818;
239.4000;0.1490;-0.2743;
239.7000;0.1490;-0.2743;
240.0000;0.1481;-0.2842;
240.3000;0.1490;-0.2867;
240.6000;0.1490;-0.2867;
240.9000;0.1506;-0.2818;
241.2000;0.1506;-0.2917;
241.5000;0.1473;-0.3017;
241.8000;0.1498;-0.3042;
242.1000;0.1506;-0.2917;
242.4000;0.1514;-0.2793;
242.7000;0.1473;-0.2818;
243.0000;0.1587;-0.2518;
243.3000;0.1498;-0.2718;
243.6000;0.1498;-0.2743;
243.9000;0.1498;-0.2793;
244.2000;0.1457;-0.2818;
244.5000;0.1490;-0.2768;
244.8000;0.1473;-0.2768;
245.1000;0.1506;-0.2718;
245.4000;0.1465;-0.2768;
245.7000;0.1481;-0.2718;
246.0000;0.1490;-0.2743;
246.3000;0.1457;-0.2917;
246.6000;0.1441;-0.3017;
246.9000;0.1457;-0.3042;
247.2000;0.1498;-0.2892;
247.5000;0.1465;-0.2917;
247.8000;0.1481;-0.2818;
248.1000;0.1490;-0.2743;
248.4000;0.1457;-0.2743;
248.7000;0.1473;-0.2743;
249.0000;0.1473;-0.2842;
249.3000;0.1547;-0.2693;
249.6000;0.1481;-0.2818;
249.9000;0.1473;-0.2768;
250.2000;0.1473;-0.2818;
250.5000;0.1473;-0.2768;
250.8000;0.1481;-0.2842;
251.1000;0.1473;-0.2867;
251.4000;0.1473;-0.2917;
251.7000;0.1481;-0.2917;
252.0000;0.1433;-0.2967;
252.3000;0.1465;-0.2917;
252.6000;0.1481;-0.2818;
252.9000;0.1530;-0.2693;
253.2000;0.1490;-0.2793;
253.5000;0.1498;-0.2818;
253.8000;0.1490;-0.2892;
254.1000;0.1506;-0.2768;
254.4000;0.1449;-0.2942;
254.7000;0.1449;-0.2867;
255.0000;0.1473;-0.2718;
255.3000;0.1490;-0.2618;
255.6000;0.1490;-0.2643;
255.9000;0.1473;-0.2718;
256.2000;0.1473;-0.2743;
256.5000;0.1490;-0.2693;
256.8000;0.1457;-0.2768;
257.1000;0.1481;-0.2768;
257.4000;0.1481;-0.2768;
257.7000;0.1465;-0.2842;
258.0000;0.1473;-0.2818;
258.3000;0.1490;-0.2768;
258.6000;0.1481;-0.2768;
258.9000;0.1473;-0.2793;
259.2000;0.1481;-0.2818;
259.5000;0.1465;-0.2793;
259.8000;0.1481;-0.2793;
260.1000;0.1579;-0.2543;
260.4000;0.1481;-0.2768;
260.7000;0.1481;-0.2793;
261.0000;0.1457;-0.2892;
261.3000;0.1498;-0.2768;
261.6000;0.1481;-0.2867;
261.9000;0.1481;-0.2992;
262.2000;0.1473;-0.2867;
262.5000;0.1490;-0.2867;
262.8000;0.1481;-0.2917;
263.1000;0.1481;-0.2818;
263.4000;0.1555;-0.2668;
263.7000;0.1490;-0.2718;
264.0000;0.1498;-0.2593;
264.3000;0.1490;-0.2593;
264.6000;0.1481;-0.2593;
264.9000;0.1490;-0.2668;
265.2000;0.1481;-0.2743;
265.5000;0.1473;-0.2718;
265.8000;0.1490;-0.2668;
266.1000;0.1473;-0.2718;
266.4000;0.1490;-0.2618;
266.7000;0.1490;-0.2643;
267.0000;0.1473;-0.2618;
267.3000;0.1506;-0.2593;
267.6000;0.1490;-0.2643;
267.9000;0.1522;-0.2493;
268.2000;0.1481;-0.2693;
268.5000;0.1473;-0.2768;
268.8000;0.1498;-0.2718;
269.1000;0.1473;-0.2793;
269.4000;0.1498;-0.2718;
269.7000;0.1481;-0.2768;
270.0000;0.1514;-0.2718;
270.3000;0.1498;-0.2743;
270.6000;0.1514;-0.2718;
270.9000;0.1481;-0.2768;
271.2000;0.1457;-0.2842;
271.5000;0.1490;-0.2693;
271.8000;0.1490;-0.2718;
272.1000;0.1490;-0.2618;
272.4000;0.1425;-0.2718;
272.7000;0.1481;-0.2668;
273.0000;0.1490;-0.2743;
273.3000;0.1490;-0.2743;
273.6000;0.1490;-0.2668;
273.9000;0.1465;-0.2618;
274.2000;0.1498;-0.2568;
274.5000;0.1481;-0.2668;
274.8000;0.1473;-0.2693;
275.1000;0.1473;-0.2668;
275.4000;0.1473;-0.2643;
275.7000;0.1449;-0.2568;
276.0000;0.1490;-0.2618;
276.3000;0.1522;-0.2568;
276.6000;0.1490;-0.2768;
276.9000;0.1498;-0.2743;
277.2000;0.1490;-0.2718;
277.5000;0.1490;-0.2693;
277.8000;0.1465;-0.2718;
278.1000;0.1490;-0.2718;
278.4000;0.1490;-0.2793;
278.7000;0.1481;-0.2818;
279.0000;0.1490;-0.2643;
279.3000;0.1498;-0.2593;
279.6000;0.1498;-0.2668;
279.9000;0.1506;-0.2743;
280.2000;0.1498;-0.2818;
280.5000;0.1490;-0.2743;
280.8000;0.1473;-0.2793;
281.1000;0.1555;-0.2668;
281.4000;0.1481;-0.2768;
281.7000;0.1498;-0.2743;
282.0000;0.1506;-0.2693;
282.3000;0.1498;-0.2768;
282.6000;0.1481;-0.2768;
282.9000;0.1498;-0.2743;
283.2000;0.1506;-0.2793;
283.5000;0.1490;-0.2793;
283.8000;0.1481;-0.2818;
284.1000;0.1490;-0.2818;
284.4000;0.1498;-0.2793;
284.7000;0.1490;-0.2842;
285.0000;0.1498;-0.2793;
285.3000;0.1514;-0.2768;
285.6000;0.1522;-0.2718;
285.9000;0.1490;-0.2842;
286.2000;0.1481;-0.2892;
286.5000;0.1498;-0.2768;
286.8000;0.1481;-0.2718;
287.1000;0.1465;-0.2743;
287.4000;0.1498;-0.2618;
287.7000;0.1506;-0.2568;
288.0000;0.1490;-0.2568;
288.3000;0.1490;-0.2543;
288.6000;0.1490;-0.2593;
288.9000;0.1481;-0.2543;
289.2000;0.1433;-0.2718;
289.5000;0.1490;-0.2568;
289.8000;0.1473;-0.2543;
290.1000;0.1465;-0.2568;
290.4000;0.1506;-0.2543;
290.7000;0.1506;-0.2593;
291.0000;0.1481;-0.2668;
291.3000;0.1498;-0.2593;
291.6000;0.1481;-0.2543;
291.9000;0.1481;-0.2568;
292.2000;0.1408;-0.2818;
292.5000;0.1498;-0.2693;
292.8000;0.1473;-0.2768;
293.1000;0.1457;-0.2818;
293.4000;0.1506;-0.2793;
293.7000;0.1490;-0.2793;
294.0000;0.1490;-0.2693;
294.3000;0.1490;-0.2618;
294.6000;0.1538;-0.2518;
294.9000;0.1473;-0.2668;
295.2000;0.1490;-0.2643;
295.5000;0.1481;-0.2668;
295.8000;0.1481;-0.2718;
296.1000;0.1498;-0.2643;
296.4000;0.1481;-0.2643;
296.7000;0.1481;-0.2668;
297.0000;0.1490;-0.2768;
297.3000;0.1481;-0.2693;
297.6000;0.1465;-0.2718;
297.9000;0.1498;-0.2643;
298.2000;0.1473;-0.2793;
298.5000;0.1490;-0.2743;
298.8000;0.1490;-0.2793;
299.1000;0.1555;-0.2693;
299.4000;0.1473;-0.2867;
299.7000;0.1571;-0.2618;
300.0000;0.1498;-0.2892;
300.3000;0.1490;-0.2842;
300.6000;0.1473;-0.2793;
300.9000;0.1490;-0.2718;
301.2000;0.1498;-0.2718;
301.5000;0.1481;-0.2842;
301.8000;0.1481;-0.2768;
302.1000;0.1465;-0.2768;
302.4000;0.1481;-0.2718;
302.7000;0.1465;-0.2743;
303.0000;0.1481;-0.2718;
303.3000;0.1490;-0.2693;
303.6000;0.1457;-0.2693;
303.9000;0.1490;-0.2643;
304.2000;0.1555;-0.2419;
304.5000;0.1490;-0.2618;
304.8000;0.1506;-0.2618;
305.1000;0.1490;-0.2718;
305.4000;0.1465;-0.2718;
305.7000;0.1465;-0.2867;
306.0000;0.1490;-0.2793;
306.3000;0.1465;-0.2743;
306.6000;0.1473;-0.2743;
306.9000;0.1490;-0.2593;
307.2000;0.1490;-0.2618;
307.5000;0.1490;-0.2693;
307.8000;0.1490;-0.2693;
308.1000;0.1490;-0.2668;
308.4000;0.1490;-0.2768;
308.7000;0.1490;-0.2743;
309.0000;0.1604;-0.2444;
309.3000;0.1547;-0.2618;
309.6000;0.1498;-0.2768;
309.9000;0.1473;-0.2842;
310.2000;0.1449;-0.2867;
310.5000;0.1481;-0.2768;
310.8000;0.1473;-0.2842;
311.1000;0.1473;-0.2793;
311.4000;0.1433;-0.2842;
311.7000;0.1490;-0.2768;
312.0000;0.1514;-0.2793;
312.3000;0.1490;-0.2867;
312.6000;0.1490;-0.2793;
312.9000;0.1498;-0.2867;
313.2000;0.1506;-0.2718;
313.5000;0.1490;-0.2743;
313.8000;0.1506;-0.2693;
314.1000;0.1506;-0.2718;
314.4000;0.1473;-0.2867;
314.7000;0.1506;-0.2793;
315.0000;0.1465;-0.2818;
315.3000;0.1473;-0.2793;
315.6000;0.1481;-0.2842;
315.9000;0.1481;-0.2793;
316.2000;0.1490;-0.2718;
316.5000;0.1473;-0.2793;
316.8000;0.1481;-0.2793;
317.1000;0.1457;-0.2768;
317.4000;0.1481;-0.2693;
317.7000;0.1473;-0.2842;
318.0000;0.1465;-0.2793;
318.3000;0.1481;-0.2768;
318.6000;0.1481;-0.2768;
318.9000;0.1498;-0.2743;
319.2000;0.1481;-0.2768;
319.5000;0.1481;-0.2743;
319.8000;0.1490;-0.2743;
320.1000;0.1457;-0.2668;
320.4000;0.1449;-0.2842;
320.7000;0.1490;-0.2892;
321.0000;0.1490;-0.2867;
321.3000;0.1498;-0.2768;
321.6000;0.1457;-0.2842;
321.9000;0.1425;-0.2917;
322.2000;0.1465;-0.2842;
322.5000;0.1506;-0.2818;
322.8000;0.1498;-0.2892;
323.1000;0.1473;-0.2942;
323.4000;0.1506;-0.2842;
323.7000;0.1465;-0.2942;
324.0000;0.1604;-0.2618;
324.3000;0.1514;-0.2768;
324.6000;0.1490;-0.2867;
324.9000;0.1481;-0.2917;
325.2000;0.1498;-0.2818;
325.5000;0.1498;-0.2842;
325.8000;0.1498;-0.2892;
326.1000;0.1498;-0.2917;
326.4000;0.1506;-0.2793;
326.7000;0.1392;-0.3117;
327.0000;0.1490;-0.2818;
327.3000;0.1490;-0.2867;
327.6000;0.1449;-0.2967;
327.9000;0.1481;-0.2892;
328.2000;0.1465;-0.2967;
328.5000;0.1473;-0.2967;
328.8000;0.1465;-0.3067;
329.1000;0.1490;-0.3067;
329.4000;0.1473;-0.3117;
329.7000;0.1490;-0.3092;
330.0000;0.1473;-0.3142;
330.3000;0.1498;-0.3017;
330.6000;0.1465;-0.3117;
330.9000;0.1506;-0.3042;
331.2000;0.1490;-0.2992;
331.5000;0.1465;-0.3142;
331.8000;0.1481;-0.3142;
332.1000;0.1457;-0.3216;
332.4000;0.1490;-0.3117;
332.7000;0.1457;-0.3192;
333.0000;0.1490;-0.3092;
333.3000;0.1490;-0.3092;
333.6000;0.1522;-0.3042;
333.9000;0.1514;-0.3067;
334.2000;0.1490;-0.3142;
334.5000;0.1481;-0.3192;
334.8000;0.1481;-0.3167;
335.1000;0.1498;-0.3117;
335.4000;0.1490;-0.3142;
335.7000;0.1473;-0.3192;
336.0000;0.1490;-0.3167;
336.3000;0.1498;-0.3092;
336.6000;0.1530;-0.3017;
336.9000;0.1473;-0.3067;
337.2000;0.1473;-0.3092;
337.5000;0.1498;-0.3042;
337.8000;0.1595;-0.2718;
338.1000;0.1473;-0.3017;
338.4000;0.1465;-0.3042;
338.7000;0.1473;-0.2967;
339.0000;0.1490;-0.2892;
339.3000;0.1490;-0.2892;
339.6000;0.1498;-0.2942;
339.9000;0.1473;-0.3017;
340.2000;0.1498;-0.2992;
340.5000;0.1506;-0.2967;
340.8000;0.1490;-0.2867;
341.1000;0.1465;-0.2867;
341.4000;0.1465;-0.2818;
341.7000;0.1506;-0.2818;
342.0000;0.1530;-0.2693;
342.3000;0.1522;-0.2693;
342.6000;0.1490;-0.2743;
342.9000;0.1490;-0.2693;
343.2000;0.1490;-0.2693;
343.5000;0.1392;-0.2992;
343.8000;0.1490;-0.2793;
344.1000;0.1506;-0.2768;
344.4000;0.1498;-0.2892;
344.7000;0.1481;-0.2818;
345.0000;0.1490;-0.2818;
345.3000;0.1498;-0.2942;
345.6000;0.1473;-0.2942;
345.9000;0.1490;-0.2842;
346.2000;0.1481;-0.2818;
346.5000;0.1490;-0.2842;
346.8000;0.1425;-0.3042;
347.1000;0.1481;-0.2917;
347.4000;0.1465;-0.2917;
347.7000;0.1498;-0.2892;
348.0000;0.1498;-0.2867;
348.3000;0.1481;-0.2942;
348.6000;0.1473;-0.3067;
348.9000;0.1481;-0.3042;
349.2000;0.1530;-0.3017;
349.5000;0.1481;-0.3117;
349.8000;0.1506;-0.3042;
350.1000;0.1481;-0.3092;
350.4000;0.1490;-0.2992;
350.7000;0.1587;-0.2693;
351.0000;0.1473;-0.3067;
351.3000;0.1522;-0.2967;
351.6000;0.1490;-0.3092;
351.9000;0.1490;-0.3142;
352.2000;0.1481;-0.3192;
352.5000;0.1490;-0.3142;
352.8000;0.1457;-0.3241;
353.1000;0.1498;-0.3167;
353.4000;0.1481;-0.3291;
353.7000;0.1481;-0.3291;
354.0000;0.1465;-0.3241;
354.3000;0.1506;-0.3092;
354.6000;0.1481;-0.3167;
354.9000;0.1449;-0.3291;
355.2000;0.1368;-0.3466;
355.5000;0.1498;-0.3092;
355.8000;0.1481;-0.3067;
356.1000;0.1465;-0.3042;
356.4000;0.1490;-0.3067;
356.7000;0.1481;-0.3017;
357.0000;0.1604;-0.2818;
357.3000;0.1481;-0.3117;
357.6000;0.1490;-0.3042;
357.9000;0.1490;-0.3092;
358.2000;0.1490;-0.3017;
358.5000;0.1490;-0.2967;
358.8000;0.1481;-0.2992;
359.1000;0.1490;-0.2992;
359.4000;0.1506;-0.2967;
359.7000;0.1490;-0.2992;
360.0000;0.1473;-0.3117;
360.3000;0.1530;-0.3042;
360.6000;0.1473;-0.3117;
360.9000;0.1530;-0.2967;
361.2000;0.1465;-0.3117;
361.5000;0.1473;-0.2992;
361.8000;0.1498;-0.2892;
362.1000;0.1490;-0.2917;
362.4000;0.1449;-0.2992;
362.7000;0.1481;-0.2967;
363.0000;0.1490;-0.2967;
363.3000;0.1433;-0.3092;
363.6000;0.1481;-0.2967;
363.9000;0.1490;-0.2892;
364.2000;0.1490;-0.2818;
364.5000;0.1514;-0.2818;
364.8000;0.1473;-0.2867;
365.1000;0.1465;-0.2917;
365.4000;0.1457;-0.2967;
365.7000;0.1555;-0.2668;
366.0000;0.1473;-0.2743;
366.3000;0.1441;-0.2793;
366.6000;0.1441;-0.2818;
366.9000;0.1441;-0.2842;
367.2000;0.1457;-0.2768;
367.5000;0.1473;-0.2867;
367.8000;0.1465;-0.2842;
368.1000;0.1473;-0.2793;
368.4000;0.1498;-0.2793;
368.7000;0.1498;-0.2967;
369.0000;0.1481;-0.3117;
369.3000;0.1481;-0.3092;
369.6000;0.1473;-0.3067;
369.9000;0.1490;-0.3017;
370.2000;0.1490;-0.3042;
370.5000;0.1473;-0.3216;
370.8000;0.1490;-0.3142;
371.1000;0.1481;-0.3167;
371.4000;0.1473;-0.3291;
371.7000;0.1481;-0.3291;
372.0000;0.1587;-0.2842;
372.3000;0.1490;-0.3142;
372.6000;0.1481;-0.3142;
372.9000;0.1481;-0.3092;
373.2000;0.1449;-0.3092;
373.5000;0.1490;-0.2992;
373.8000;0.1481;-0.2942;
374.1000;0.1522;-0.2818;
374.4000;0.1498;-0.2942;
374.7000;0.1538;-0.2917;
375.0000;0.1490;-0.2942;
375.3000;0.1481;-0.2917;
375.6000;0.1457;-0.2892;
375.9000;0.1498;-0.2768;
376.2000;0.1465;-0.2942;
376.5000;0.1457;-0.2967;
376.8000;0.1465;-0.2892;
377.1000;0.1498;-0.2942;
377.4000;0.1547;-0.2818;
377.7000;0.1490;-0.3017;
378.0000;0.1465;-0.3117;
378.3000;0.1481;-0.3067;
378.6000;0.1490;-0.3142;
378.9000;0.1481;-0.3142;
379.2000;0.1449;-0.3266;
379.5000;0.1481;-0.3042;
379.8000;0.1498;-0.2967;
380.1000;0.1490;-0.2967;
380.4000;0.1481;-0.2992;
380.7000;0.1481;-0.2967;
381.0000;0.1538;-0.2867;
381.3000;0.1408;-0.3167;
381.6000;0.1473;-0.2992;
381.9000;0.1481;-0.2917;
382.2000;0.1522;-0.2718;
382.5000;0.1481;-0.2743;
382.8000;0.1481;-0.2842;
383.1000;0.1473;-0.2867;
383.4000;0.1449;-0.2917;
383.7000;0.1498;-0.2743;
384.0000;0.1571;-0.2668;
384.3000;0.1481;-0.2793;
384.6000;0.1433;-0.2992;
384.9000;0.1506;-0.2892;
385.2000;0.1465;-0.2917;
385.5000;0.1457;-0.2942;
385.8000;0.1490;-0.2743;
386.1000;0.1490;-0.2743;
386.4000;0.1481;-0.2743;
386.7000;0.1481;-0.2818;
387.0000;0.1433;-0.2967;
387.3000;0.1490;-0.2892;
387.6000;0.1481;-0.2892;
387.9000;0.1473;-0.2917;
388.2000;0.1490;-0.2942;
388.5000;0.1473;-0.2917;
388.8000;0.1498;-0.2892;
389.1000;0.1481;-0.2892;
389.4000;0.1465;-0.2842;
389.7000;0.1498;-0.2743;
390.0000;0.1473;-0.2768;
390.3000;0.1498;-0.2743;
390.6000;0.1498;-0.2743;
390.9000;0.1473;-0.2768;
391.2000;0.1465;-0.2718;
391.5000;0.1490;-0.2768;
391.8000;0.1490;-0.2768;
392.1000;0.1481;-0.2768;
392.4000;0.1490;-0.2743;
392.7000;0.1506;-0.2743;
393.0000;0.1481;-0.2917;
393.3000;0.1481;-0.2942;
393.6000;0.1498;-0.2942;
393.9000;0.1498;-0.2942;
394.2000;0.1481;-0.2967;
394.5000;0.1473;-0.2992;
394.8000;0.1498;-0.2942;
395.1000;0.1506;-0.2942;
395.4000;0.1498;-0.2818;
395.7000;0.1441;-0.2967;
396.0000;0.1465;-0.2917;
396.3000;0.1498;-0.2793;
396.6000;0.1408;-0.2992;
396.9000;0.1473;-0.2842;
397.2000;0.1465;-0.2842;
397.5000;0.1490;-0.2768;
397.8000;0.1481;-0.2867;
398.1000;0.1490;-0.2867;
398.4000;0.1465;-0.2867;
398.7000;0.1473;-0.2892;
399.0000;0.1490;-0.2818;
399.3000;0.1490;-0.2743;
399.6000;0.1473;-0.2743;
399.9000;0.1457;-0.2668;
400.2000;0.1425;-0.2693;
400.5000;0.1481;-0.2618;
400.8000;0.1481;-0.2743;
401.1000;0.1473;-0.2718;
401.4000;0.1473;-0.2718;
401.7000;0.1498;-0.2668;
402.0000;0.1473;-0.2768;
402.3000;0.1473;-0.2892;
402.6000;0.1481;-0.2917;
402.9000;0.1473;-0.2867;
403.2000;0.1473;-0.2892;
403.5000;0.1481;-0.2942;
403.8000;0.1498;-0.2917;
404.1000;0.1490;-0.2867;
404.4000;0.1481;-0.2892;
404.7000;0.1473;-0.2917;
405.0000;0.1490;-0.2867;
405.3000;0.1481;-0.2917;
405.6000;0.1506;-0.2743;
405.9000;0.1490;-0.2693;
406.2000;0.1473;-0.2693;
406.5000;0.1490;-0.2743;
406.8000;0.1563;-0.2593;
407.1000;0.1473;-0.2793;
407.4000;0.1481;-0.2892;
407.7000;0.1498;-0.2867;
408.0000;0.1547;-0.2793;
408.3000;0.1473;-0.2967;
408.6000;0.1547;-0.2867;
408.9000;0.1473;-0.3042;
409.2000;0.1473;-0.2867;
409.5000;0.1465;-0.2892;
409.8000;0.1498;-0.2842;
410.1000;0.1465;-0.2842;
410.4000;0.1490;-0.2768;
410.7000;0.1481;-0.2793;
411.0000;0.1514;-0.2668;
411.3000;0.1490;-0.2818;
411.6000;0.1498;-0.2842;
411.9000;0.1481;-0.2867;
412.2000;0.1481;-0.2867;
412.5000;0.1457;-0.2942;
412.8000;0.1481;-0.2793;
413.1000;0.1465;-0.2793;
413.4000;0.1481;-0.2818;
413.7000;0.1433;-0.2942;
414.0000;0.1449;-0.2842;
414.3000;0.1465;-0.2867;
414.6000;0.1441;-0.2942;
414.9000;0.1481;-0.2892;
415.2000;0.1481;-0.2842;
415.5000;0.1473;-0.2793;
415.8000;0.1490;-0.2693;
416.1000;0.1490;-0.2718;
416.4000;0.1481;-0.2743;
416.7000;0.1514;-0.2718;
417.0000;0.1481;-0.2842;
417.3000;0.1481;-0.2892;
417.6000;0.1498;-0.2768;
417.9000;0.1490;-0.2768;
418.2000;0.1473;-0.2917;
418.5000;0.1481;-0.2842;
418.8000;0.1490;-0.2842;
419.1000;0.1571;-0.2618;
419.4000;0.1490;-0.2892;
419.7000;0.1400;-0.3092;
420.0000;0.1473;-0.2793;
420.3000;0.1457;-0.2892;
420.6000;0.1490;-0.2743;
420.9000;0.1498;-0.2718;
421.2000;0.1481;-0.2842;
421.5000;0.1498;-0.2818;
421.8000;0.1490;-0.2892;
422.1000;0.1416;-0.3216;
422.4000;0.1514;-0.2967;
422.7000;0.1498;-0.2867;
423.0000;0.1490;-0.2892;
423.3000;0.1481;-0.2917;
423.6000;0.1506;-0.2842;
423.9000;0.1490;-0.2793;
424.2000;0.1498;-0.2818;
424.5000;0.1498;-0.2842;
424.8000;0.1490;-0.2842;
425.1000;0.1490;-0.2867;
425.4000;0.1490;-0.2842;
425.7000;0.1490;-0.2867;
426.0000;0.1481;-0.2892;
426.3000;0.1490;-0.2917;
426.6000;0.1473;-0.2942;
426.9000;0.1514;-0.2867;
427.2000;0.1490;-0.2842;
427.5000;0.1481;-0.2867;
427.8000;0.1473;-0.2892;
428.1000;0.1490;-0.2917;
428.4000;0.1457;-0.2917;
428.7000;0.1465;-0.2867;
429.0000;0.1465;-0.2867;
429.3000;0.1481;-0.2793;
429.6000;0.1457;-0.2892;
429.9000;0.1465;-0.2917;
430.2000;0.1465;-0.2842;
430.5000;0.1473;-0.2917;
430.8000;0.1490;-0.2917;
431.1000;0.1547;-0.2668;
431.4000;0.1457;-0.2892;
431.7000;0.1441;-0.2818;
432.0000;0.1481;-0.2743;
432.3000;0.1473;-0.2718;
432.6000;0.1490;-0.2643;
432.9000;0.1481;-0.2693;
433.2000;0.1481;-0.2618;
433.5000;0.1530;-0.2518;
433.8000;0.1498;-0.2718;
434.1000;0.1473;-0.2718;
434.4000;0.1481;-0.2743;
434.7000;0.1481;-0.2793;
435.0000;0.1449;-0.2842;
435.3000;0.1522;-0.2718;
435.6000;0.1498;-0.2793;
435.9000;0.1481;-0.2842;
436.2000;0.1506;-0.2768;
436.5000;0.1408;-0.2992;
436.8000;0.1473;-0.2768;
437.1000;0.1490;-0.2768;
437.4000;0.1473;-0.2768;
437.7000;0.1481;-0.2768;
438.0000;0.1416;-0.3042;
438.3000;0.1481;-0.2793;
438.6000;0.1490;-0.2743;
438.9000;0.1457;-0.2867;
439.2000;0.1425;-0.2892;
439.5000;0.1481;-0.2768;
439.8000;0.1433;-0.2842;
440.1000;0.1481;-0.2818;
440.4000;0.1498;-0.2718;
440.7000;0.1473;-0.2793;
441.0000;0.1498;-0.2718;
441.3000;0.1457;-0.2917;
441.6000;0.1416;-0.2992;
441.9000;0.1473;-0.2917;
442.2000;0.1530;-0.2793;
442.5000;0.1473;-0.2917;
442.8000;0.1522;-0.2818;
443.1000;0.1490;-0.2942;
443.4000;0.1490;-0.2917;
443.7000;0.1481;-0.2917;
444.0000;0.1506;-0.2842;
444.3000;0.1441;-0.2992;
444.6000;0.1498;-0.2793;
444.9000;0.1490;-0.2842;
445.2000;0.1481;-0.2992;
445.5000;0.1498;-0.2967;
445.8000;0.1522;-0.2967;
446.1000;0.1481;-0.2942;
446.4000;0.1465;-0.2942;
446.7000;0.1490;-0.2842;
447.0000;0.1473;-0.2842;
447.3000;0.1490;-0.2743;
447.6000;0.1522;-0.2643;
447.9000;0.1490;-0.2718;
448.2000;0.1514;-0.2693;
448.5000;0.1506;-0.2668;
448.8000;0.1490;-0.2743;
449.1000;0.1498;-0.2718;
449.4000;0.1481;-0.2693;
449.7000;0.1490;-0.2593;
450.0000;0.1506;-0.2543;
450.3000;0.1506;-0.2518;
450.6000;0.1481;-0.2643;
450.9000;0.1563;-0.2468;
451.2000;0.1490;-0.2793;
451.5000;0.1449;-0.2892;
451.8000;0.1465;-0.2842;
452.1000;0.1465;-0.2818;
452.4000;0.1465;-0.2892;
452.7000;0.1457;-0.2992;
453.0000;0.1498;-0.2967;
453.3000;0.1449;-0.3067;
453.6000;0.1490;-0.2967;
453.9000;0.1465;-0.2992;
454.2000;0.1490;-0.2892;
454.5000;0.1465;-0.2917;
454.8000;0.1441;-0.3042;
455.1000;0.1522;-0.2768;
455.4000;0.1506;-0.2917;
455.7000;0.1498;-0.2942;
456.0000;0.1498;-0.2867;
456.3000;0.1481;-0.2917;
456.6000;0.1457;-0.2992;
456.9000;0.1416;-0.3092;
457.2000;0.1490;-0.2768;
457.5000;0.1481;-0.2768;
457.8000;0.1506;-0.2793;
458.1000;0.1498;-0.2867;
458.4000;0.1538;-0.2768;
458.7000;0.1498;-0.2867;
459.0000;0.1433;-0.2842;
459.3000;0.1433;-0.2818;
459.6000;0.1376;-0.2992;
459.9000;0.1490;-0.2693;
460.2000;0.1490;-0.2618;
460.5000;0.1449;-0.2768;
460.8000;0.1392;-0.2867;
461.1000;0.1481;-0.2668;
461.4000;0.1457;-0.2743;
461.7000;0.1481;-0.2693;
462.0000;0.1514;-0.2693;
462.3000;0.1473;-0.2867;
462.6000;0.1490;-0.2842;
462.9000;0.1490;-0.2768;
463.2000;0.1490;-0.2793;
463.5000;0.1498;-0.2818;
463.8000;0.1498;-0.2892;
464.1000;0.1514;-0.2892;
464.4000;0.1465;-0.2942;
464.7000;0.1612;-0.2643;
465.0000;0.1498;-0.3042;
465.3000;0.1490;-0.3042;
465.6000;0.1449;-0.3216;
465.9000;0.1473;-0.3117;
466.2000;0.1481;-0.3117;
466.5000;0.1481;-0.3067;
466.8000;0.1498;-0.3117;
467.1000;0.1416;-0.3291;
467.4000;0.1473;-0.3142;
467.7000;0.1481;-0.3092;
468.0000;0.1457;-0.3092;
468.3000;0.1473;-0.3117;
468.6000;0.1465;-0.3092;
468.9000;0.1498;-0.2992;
469.2000;0.1473;-0.2992;
469.5000;0.1473;-0.3092;
469.8000;0.1465;-0.3142;
470.1000;0.1498;-0.3092;
470.4000;0.1514;-0.2917;
470.7000;0.1465;-0.3142;
471.0000;0.1506;-0.2967;
471.3000;0.1506;-0.2992;
471.6000;0.1425;-0.3266;
471.9000;0.1481;-0.3067;
472.2000;0.1481;-0.2992;
472.5000;0.1473;-0.2942;
472.8000;0.1465;-0.2992;
473.1000;0.1481;-0.2942;
473.4000;0.1465;-0.3017;
473.7000;0.1473;-0.2942;
474.0000;0.1498;-0.2892;
474.3000;0.1473;-0.2917;
474.6000;0.1481;-0.2892;
474.9000;0.1465;-0.2942;
475.2000;0.1441;-0.3067;
475.5000;0.1481;-0.3017;
475.8000;0.1481;-0.2967;
476.1000;0.1530;-0.2842;
476.4000;0.1425;-0.3042;
476.7000;0.1490;-0.2768;
477.0000;0.1498;-0.2768;
477.3000;0.1473;-0.2892;
477.6000;0.1498;-0.2867;
477.9000;0.1473;-0.2917;
478.2000;0.1465;-0.2942;
478.5000;0.1481;-0.2917;
478.8000;0.1522;-0.2842;
479.1000;0.1473;-0.2917;
479.4000;0.1465;-0.2967;
479.7000;0.1465;-0.3067;
480.0000;0.1498;-0.3042;
480.3000;0.1490;-0.3142;
480.6000;0.1473;-0.3192;
480.9000;0.1522;-0.2992;
481.2000;0.1481;-0.2992;
481.5000;0.1506;-0.2892;
481.8000;0.1465;-0.3117;
482.1000;0.1465;-0.3092;
482.4000;0.1449;-0.3117;
482.7000;0.1465;-0.2992;
483.0000;0.1465;-0.3142;
483.3000;0.1465;-0.3142;
483.6000;0.1490;-0.3042;
483.9000;0.1490;-0.3017;
484.2000;0.1522;-0.3067;
484.5000;0.1481;-0.3216;
484.8000;0.1490;-0.3241;
485.1000;0.1506;-0.3067;
485.4000;0.1498;-0.3042;
485.7000;0.1441;-0.3192;
486.0000;0.1449;-0.3142;
486.3000;0.1490;-0.3017;
486.6000;0.1498;-0.2942;
486.9000;0.1498;-0.2942;
487.2000;0.1457;-0.3042;
487.5000;0.1481;-0.2892;
487.8000;0.1473;-0.2892;
488.1000;0.1481;-0.2818;
488.4000;0.1473;-0.2718;
488.7000;0.1433;-0.2793;
489.0000;0.1473;-0.2768;
489.3000;0.1498;-0.2643;
489.6000;0.1522;-0.2518;
489.9000;0.1498;-0.2643;
490.2000;0.1481;-0.2718;
490.5000;0.1481;-0.2818;
490.8000;0.1465;-0.3017;
491.1000;0.1465;-0.3017;
491.4000;0.1473;-0.2992;
491.7000;0.1473;-0.3042;
492.0000;0.1481;-0.2942;
492.3000;0.1522;-0.2892;
492.6000;0.1481;-0.3067;
492.9000;0.1481;-0.3092;
493.2000;0.1481;-0.3142;
493.5000;0.1457;-0.3092;
493.8000;0.1498;-0.3092;
494.1000;0.1473;-0.3142;
494.4000;0.1490;-0.3092;
494.7000;0.1465;-0.3092;
495.0000;0.1449;-0.3142;
495.3000;0.1465;-0.3167;
495.6000;0.1473;-0.3167;
495.9000;0.1481;-0.3092;
496.2000;0.1465;-0.2967;
496.5000;0.1481;-0.2967;
496.8000;0.1498;-0.2917;
497.1000;0.1473;-0.2992;
497.4000;0.1425;-0.3117;
497.7000;0.1473;-0.2942;
498.0000;0.1490;-0.2967;
498.3000;0.1392;-0.3291;
498.6000;0.1530;-0.2867;
498.9000;0.1465;-0.3017;
499.2000;0.1563;-0.2818;
499.5000;0.1506;-0.2842;
499.8000;0.1481;-0.2842;
500.1000;0.1473;-0.2867;
500.4000;0.1522;-0.2818;
500.7000;0.1473;-0.2942;
501.0000;0.1481;-0.2892;
501.3000;0.1465;-0.2967;
501.6000;0.1481;-0.2892;
501.9000;0.1481;-0.2867;
502.2000;0.1465;-0.2842;
502.5000;0.1481;-0.2867;
502.8000;0.1473;-0.2892;
503.1000;0.1465;-0.2917;
503.4000;0.1481;-0.2942;
503.7000;0.1425;-0.3142;
504.0000;0.1473;-0.2967;
504.3000;0.1498;-0.2967;
504.6000;0.1498;-0.2867;
504.9000;0.1490;-0.2867;
505.2000;0.1506;-0.2892;
505.5000;0.1514;-0.2892;
505.8000;0.1506;-0.2917;
506.1000;0.1555;-0.2743;
506.4000;0.1490;-0.2967;
506.7000;0.1514;-0.2917;
507.0000;0.1465;-0.3092;
507.3000;0.1490;-0.3042;
507.6000;0.1473;-0.3042;
507.9000;0.1473;-0.3042;
508.2000;0.1490;-0.3017;
508.5000;0.1506;-0.3042;
508.8000;0.1490;-0.3142;
509.1000;0.1384;-0.3466;
509.4000;0.1490;-0.3192;
509.7000;0.1481;-0.3092;
510.0000;0.1481;-0.3017;
510.3000;0.1473;-0.3142;
510.6000;0.1473;-0.3167;
510.9000;0.1498;-0.3067;
511.2000;0.1490;-0.2992;
511.5000;0.1490;-0.2917;
511.8000;0.1457;-0.2967;
512.1000;0.1473;-0.2867;
512.4000;0.1506;-0.2842;
512.7000;0.1457;-0.2818;
513.0000;0.1465;-0.2793;
513.3000;0.1465;-0.2718;
513.6000;0.1457;-0.2693;
513.9000;0.1433;-0.2842;
514.2000;0.1481;-0.2842;
514.5000;0.1498;-0.2867;
514.8000;0.1498;-0.2842;
515.1000;0.1506;-0.2867;
515.4000;0.1490;-0.2967;
515.7000;0.1498;-0.3067;
516.0000;0.1490;-0.3067;
516.3000;0.1498;-0.2967;
516.6000;0.1490;-0.2867;
516.9000;0.1490;-0.2917;
517.2000;0.1481;-0.2992;
517.5000;0.1481;-0.3042;
517.8000;0.1490;-0.3042;
518.1000;0.1473;-0.3117;
518.4000;0.1481;-0.3042;
518.7000;0.1498;-0.2967;
519.0000;0.1490;-0.2917;
519.3000;0.1547;-0.2793;
519.6000;0.1498;-0.2917;
519.9000;0.1490;-0.2967;
520.2000;0.1465;-0.2917;
520.5000;0.1457;-0.2992;
520.8000;0.1473;-0.2942;
521.1000;0.1498;-0.2867;
521.4000;0.1433;-0.3042;
521.7000;0.1498;-0.2892;
522.0000;0.1498;-0.2892;
522.3000;0.1481;-0.2992;
522.6000;0.1498;-0.2942;
522.9000;0.1481;-0.2917;
523.2000;0.1481;-0.2867;
523.5000;0.1465;-0.2867;
523.8000;0.1473;-0.2842;
524.1000;0.1473;-0.2967;
524.4000;0.1473;-0.3042;
524.7000;0.1473;-0.2992;
525.0000;0.1481;-0.3017;
525.3000;0.1490;-0.2967;
525.6000;0.1481;-0.2942;
525.9000;0.1587;-0.2593;
526.2000;0.1465;-0.2967;
526.5000;0.1473;-0.2892;
526.8000;0.1473;-0.2867;
527.1000;0.1498;-0.2768;
527.4000;0.1465;-0.2818;
527.7000;0.1490;-0.2818;
528.0000;0.1457;-0.2842;
528.3000;0.1465;-0.2917;
528.6000;0.1506;-0.2842;
528.9000;0.1506;-0.2867;
529.2000;0.1473;-0.2842;
529.5000;0.1490;-0.2768;
529.8000;0.1498;-0.2818;
530.1000;0.1481;-0.2892;
530.4000;0.1473;-0.2867;
530.7000;0.1433;-0.3042;
531.0000;0.1498;-0.2942;
531.3000;0.1473;-0.2967;
531.6000;0.1473;-0.2842;
531.9000;0.1473;-0.2818;
532.2000;0.1498;-0.2693;
532.5000;0.1465;-0.2768;
532.8000;0.1490;-0.2842;
533.1000;0.1506;-0.2718;
533.4000;0.1498;-0.2668;
533.7000;0.1473;-0.2743;
534.0000;0.1514;-0.2668;
534.3000;0.1473;-0.2867;
534.6000;0.1441;-0.2967;
534.9000;0.1522;-0.2793;
535.2000;0.1449;-0.2942;
535.5000;0.1498;-0.2818;
535.8000;0.1490;-0.2917;
536.1000;0.1514;-0.2892;
536.4000;0.1481;-0.3017;
536.7000;0.1538;-0.2867;
537.0000;0.1473;-0.3017;
537.3000;0.1514;-0.2917;
537.6000;0.1416;-0.3067;
537.9000;0.1473;-0.2992;
538.2000;0.1457;-0.2992;
538.5000;0.1481;-0.2992;
538.8000;0.1522;-0.2842;
539.1000;0.1481;-0.2917;
539.4000;0.1473;-0.2942;
539.7000;0.1490;-0.2793;
540.0000;0.1433;-0.2892;
540.3000;0.1490;-0.2818;
540.6000;0.1481;-0.2867;
540.9000;0.1457;-0.2842;
541.2000;0.1506;-0.2743;
541.5000;0.1481;-0.2793;
541.8000;0.1473;-0.2768;
542.1000;0.1465;-0.2892;
542.4000;0.1473;-0.2867;
542.7000;0.1473;-0.2867;
543.0000;0.1473;-0.2842;
543.3000;0.1457;-0.2967;
543.6000;0.1506;-0.2842;
543.9000;0.1465;-0.2917;
544.2000;0.1473;-0.2867;
544.5000;0.1457;-0.2842;
544.8000;0.1481;-0.2842;
545.1000;0.1498;-0.2718;
545.4000;0.1506;-0.2693;
545.7000;0.1506;-0.2668;
546.0000;0.1481;-0.2668;
546.3000;0.1490;-0.2693;
546.6000;0.1481;-0.2743;
546.9000;0.1481;-0.2793;
547.2000;0.1465;-0.2867;
547.5000;0.1433;-0.2992;
547.8000;0.1457;-0.2892;
548.1000;0.1449;-0.2917;
548.4000;0.1506;-0.2768;
548.7000;0.1481;-0.2842;
549.0000;0.1465;-0.2793;
549.3000;0.1457;-0.2867;
549.6000;0.1481;-0.2867;
549.9000;0.1522;-0.2693;
550.2000;0.1490;-0.2743;
550.5000;0.1400;-0.2942;
550.8000;0.1425;-0.2818;
551.1000;0.1433;-0.2743;
551.4000;0.1433;-0.2793;
551.7000;0.1473;-0.2618;
552.0000;0.1408;-0.2818;
552.3000;0.1441;-0.2743;
552.6000;0.1481;-0.2718;
552.9000;0.1473;-0.2768;
553.2000;0.1498;-0.2743;
553.5000;0.1359;-0.3067;
553.8000;0.1514;-0.2593;
554.1000;0.1490;-0.2718;
554.4000;0.1481;-0.2693;
554.7000;0.1481;-0.2693;
555.0000;0.1449;-0.2718;
555.3000;0.1506;-0.2543;
555.6000;0.1506;-0.2618;
555.9000;0.1473;-0.2718;
556.2000;0.1481;-0.2693;
556.5000;0.1400;-0.2818;
556.8000;0.1498;-0.2668;
557.1000;0.1384;-0.2917;
557.4000;0.1498;-0.2668;
557.7000;0.1465;-0.2818;
558.0000;0.1481;-0.2643;
558.3000;0.1522;-0.2593;
558.6000;0.1473;-0.2718;
558.9000;0.1473;-0.2842;
559.2000;0.1498;-0.2793;
559.5000;0.1498;-0.2842;
559.8000;0.1498;-0.2793;
560.1000;0.1481;-0.2842;
560.4000;0.1465;-0.2917;
560.7000;0.1498;-0.2892;
561.0000;0.1481;-0.2942;
561.3000;0.1481;-0.2892;
561.6000;0.1498;-0.2818;
561.9000;0.1481;-0.2818;
562.2000;0.1449;-0.2818;
562.5000;0.1490;-0.2743;
562.8000;0.1481;-0.2693;
563.1000;0.1481;-0.2643;
563.4000;0.1473;-0.2793;
563.7000;0.1473;-0.2892;
564.0000;0.1457;-0.2967;
564.3000;0.1555;-0.2668;
564.6000;0.1481;-0.2842;
564.9000;0.1490;-0.2818;
565.2000;0.1490;-0.2867;
565.5000;0.1506;-0.2842;
565.8000;0.1490;-0.2818;
566.1000;0.1490;-0.2818;
566.4000;0.1514;-0.2743;
566.7000;0.1481;-0.2768;
567.0000;0.1473;-0.2768;
567.3000;0.1481;-0.2693;
567.6000;0.1473;-0.2718;
567.9000;0.1514;-0.2643;
568.2000;0.1498;-0.2668;
568.5000;0.1481;-0.2693;
568.8000;0.1481;-0.2743;
569.1000;0.1473;-0.2842;
569.4000;0.1473;-0.2818;
569.7000;0.1481;-0.2917;
570.0000;0.1457;-0.2892;
570.3000;0.1457;-0.2967;
570.6000;0.1481;-0.2867;
570.9000;0.1538;-0.2693;
571.2000;0.1490;-0.2793;
571.5000;0.1490;-0.2693;
571.8000;0.1473;-0.2743;
572.1000;0.1498;-0.2718;
572.4000;0.1498;-0.2768;
572.7000;0.1465;-0.2793;
573.0000;0.1481;-0.2718;
573.3000;0.1425;-0.2768;
573.6000;0.1481;-0.2668;
573.9000;0.1473;-0.2718;
574.2000;0.1490;-0.2718;
574.5000;0.1571;-0.2543;
574.8000;0.1490;-0.2718;
575.1000;0.1506;-0.2668;
575.4000;0.1441;-0.2818;
575.7000;0.1481;-0.2718;
576.0000;0.1457;-0.2793;
576.3000;0.1481;-0.2743;
576.6000;0.1538;-0.2743;
576.9000;0.1506;-0.2793;
577.2000;0.1506;-0.2793;
577.5000;0.1498;-0.2892;
577.8000;0.1473;-0.2917;
578.1000;0.1530;-0.2768;
578.4000;0.1490;-0.2842;
578.7000;0.1514;-0.2743;
579.0000;0.1522;-0.2743;
579.3000;0.1490;-0.2818;
579.6000;0.1506;-0.2718;
579.9000;0.1481;-0.2768;
580.2000;0.1473;-0.2842;
580.5000;0.1490;-0.2718;
580.8000;0.1473;-0.2743;
581.1000;0.1473;-0.2693;
581.4000;0.1506;-0.2618;
581.7000;0.1481;-0.2593;
582.0000;0.1547;-0.2493;
582.3000;0.1457;-0.2768;
582.6000;0.1465;-0.2793;
582.9000;0.1473;-0.2867;
583.2000;0.1481;-0.2842;
583.5000;0.1481;-0.2942;
583.8000;0.1473;-0.2917;
584.1000;0.1481;-0.2867;
584.4000;0.1481;-0.2967;
584.7000;0.1490;-0.2917;
585.0000;0.1473;-0.3067;
585.3000;0.1481;-0.2942;
585.6000;0.1465;-0.2967;
585.9000;0.1425;-0.3142;
586.2000;0.1498;-0.3092;
586.5000;0.1473;-0.3167;
586.8000;0.1465;-0.3241;
587.1000;0.1481;-0.3142;
587.4000;0.1473;-0.3117;
587.7000;0.1490;-0.3092;
588.0000;0.1473;-0.3067;
588.3000;0.1425;-0.3117;
588.6000;0.1481;-0.2942;
588.9000;0.1481;-0.2892;
589.2000;0.1473;-0.2867;
589.5000;0.1490;-0.2867;
589.8000;0.1490;-0.2818;
590.1000;0.1481;-0.2842;
590.4000;0.1522;-0.2618;
590.7000;0.1473;-0.2668;
591.0000;0.1473;-0.2693;
591.3000;0.1441;-0.2668;
591.6000;0.1465;-0.2543;
591.9000;0.1449;-0.2593;
592.2000;0.1416;-0.2718;
592.5000;0.1457;-0.2593;
592.8000;0.1481;-0.2693;
593.1000;0.1449;-0.2718;
593.4000;0.1457;-0.2643;
593.7000;0.1481;-0.2743;
594.0000;0.1465;-0.2842;
594.3000;0.1481;-0.2867;
594.6000;0.1481;-0.2793;
594.9000;0.1490;-0.2793;
595.2000;0.1473;-0.2842;
595.5000;0.1481;-0.2768;
595.8000;0.1498;-0.2743;
596.1000;0.1498;-0.2718;
596.4000;0.1498;-0.2693;
596.7000;0.1473;-0.2768;
597.0000;0.1490;-0.2718;
597.3000;0.1490;-0.2643;
597.6000;0.1481;-0.2618;
597.9000;0.1506;-0.2593;
598.2000;0.1490;-0.2718;
598.5000;0.1571;-0.2568;
598.8000;0.1473;-0.2768;
599.1000;0.1457;-0.2793;
599.4000;0.1473;-0.2768;
599.7000;0.1481;-0.2718;
600.0000;0.1457;-0.2818;
600.3000;0.1465;-0.2768;
600.6000;0.1449;-0.2917;
600.9000;0.1465;-0.2992;
601.2000;0.1425;-0.3241;
601.5000;0.1433;-0.3341;
601.8000;0.1384;-0.3615;
602.1000;0.1408;-0.3690;
602.4000;0.1408;-0.3815;
602.7000;0.1384;-0.4039;
603.0000;0.1368;-0.4239;
603.3000;0.1384;-0.4363;
603.6000;0.1376;-0.4488;
603.9000;0.1376;-0.4588;
604.2000;0.1368;-0.4563;
604.5000;0.1351;-0.4762;
604.8000;0.1392;-0.4837;
605.1000;0.1343;-0.5012;
605.4000;0.1327;-0.5111;
605.7000;0.1384;-0.4962;
606.0000;0.1359;-0.4987;
606.3000;0.1335;-0.4937;
606.6000;0.1343;-0.5037;
606.9000;0.1302;-0.5161;
607.2000;0.1384;-0.5012;
607.5000;0.1319;-0.5086;
607.8000;0.1327;-0.5062;
608.1000;0.1368;-0.4937;
608.4000;0.1311;-0.5111;
608.7000;0.1319;-0.5186;
609.0000;0.1286;-0.5286;
609.3000;0.1311;-0.5311;
609.6000;0.1302;-0.5411;
609.9000;0.1311;-0.5386;
610.2000;0.1343;-0.5386;
610.5000;0.1294;-0.5386;
610.8000;0.1335;-0.5386;
611.1000;0.1311;-0.5411;
611.4000;0.1319;-0.5460;
611.7000;0.1311;-0.5610;
612.0000;0.1278;-0.5785;
612.3000;0.1302;-0.5710;
612.6000;0.1327;-0.5460;
612.9000;0.1335;-0.5460;
613.2000;0.1327;-0.5460;
613.5000;0.1335;-0.5460;
613.8000;0.1327;-0.5585;
614.1000;0.1311;-0.5660;
614.4000;0.1237;-0.5785;
614.7000;0.1294;-0.5710;
615.0000;0.1294;-0.5585;
615.3000;0.1302;-0.5560;
615.6000;0.1294;-0.5510;
615.9000;0.1286;-0.5336;
616.2000;0.1335;-0.5286;
616.5000;0.1294;-0.5411;
616.8000;0.1302;-0.5460;
617.1000;0.1294;-0.5436;
617.4000;0.1294;-0.5460;
617.7000;0.1294;-0.5460;
618.0000;0.1294;-0.5485;
618.3000;0.1302;-0.5460;
618.6000;0.1327;-0.5286;
618.9000;0.1319;-0.5336;
619.2000;0.1302;-0.5261;
619.5000;0.1359;-0.5111;
619.8000;0.1286;-0.5261;
620.1000;0.1302;-0.5236;
620.4000;0.1302;-0.5286;
620.7000;0.1302;-0.5336;
621.0000;0.1311;-0.5336;
621.3000;0.1302;-0.5386;
621.6000;0.1302;-0.5460;
621.9000;0.1278;-0.5560;
622.2000;0.1254;-0.5685;
622.5000;0.1278;-0.5660;
622.8000;0.1302;-0.5510;
623.1000;0.1294;-0.5460;
623.4000;0.1311;-0.5411;
623.7000;0.1311;-0.5510;
624.0000;0.1294;-0.5485;
624.3000;0.1311;-0.5485;
624.6000;0.1294;-0.5510;
624.9000;0.1221;-0.5760;
625.2000;0.1359;-0.5336;
625.5000;0.1302;-0.5485;
625.8000;0.1302;-0.5585;
626.1000;0.1302;-0.5610;
626.4000;0.1335;-0.5560;
626.7000;0.1270;-0.5660;
627.0000;0.1254;-0.5610;
627.3000;0.1270;-0.5635;
627.6000;0.1302;-0.5710;
627.9000;0.1311;-0.5710;
628.2000;0.1319;-0.5710;
628.5000;0.1294;-0.5785;
628.8000;0.1351;-0.5610;
629.1000;0.1302;-0.5785;
629.4000;0.1294;-0.5859;
629.7000;0.1294;-0.5834;
630.0000;0.1302;-0.5760;
630.3000;0.1278;-0.5834;
630.6000;0.1213;-0.6059;
630.9000;0.1302;-0.5859;
631.2000;0.1254;-0.5984;
631.5000;0.1286;-0.5785;
631.8000;0.1278;-0.5760;
632.1000;0.1286;-0.5735;
632.4000;0.1262;-0.5810;
632.7000;0.1278;-0.5685;
633.0000;0.1286;-0.5710;
633.3000;0.1278;-0.5635;
633.6000;0.1294;-0.5560;
633.9000;0.1286;-0.5585;
634.2000;0.1262;-0.5660;
634.5000;0.1278;-0.5735;
634.8000;0.1286;-0.5735;
635.1000;0.1286;-0.5710;
635.4000;0.1286;-0.5685;
635.7000;0.1311;-0.5685;
636.0000;0.1286;-0.5610;
636.3000;0.1286;-0.5610;
636.6000;0.1302;-0.5660;
636.9000;0.1294;-0.5760;
637.2000;0.1294;-0.5785;
637.5000;0.1294;-0.5884;
637.8000;0.1294;-0.5934;
638.1000;0.1302;-0.5934;
638.4000;0.1213;-0.6233;
638.7000;0.1278;-0.6009;
639.0000;0.1294;-0.5909;
639.3000;0.1311;-0.5810;
639.6000;0.1311;-0.5834;
639.9000;0.1302;-0.5834;
640.2000;0.1270;-0.5884;
640.5000;0.1294;-0.5884;
640.8000;0.1319;-0.5834;
641.1000;0.1270;-0.5884;
641.4000;0.1286;-0.5810;
641.7000;0.1311;-0.5710;
642.0000;0.1286;-0.5710;
642.3000;0.1294;-0.5635;
642.6000;0.1286;-0.5760;
642.9000;0.1278;-0.5884;
643.2000;0.1286;-0.5884;
643.5000;0.1278;-0.5834;
643.8000;0.1262;-0.5884;
644.1000;0.1278;-0.5760;
644.4000;0.1294;-0.5735;
644.7000;0.1254;-0.5810;
645.0000;0.1294;-0.5685;
645.3000;0.1286;-0.5635;
645.6000;0.1351;-0.5560;
645.9000;0.1294;-0.5760;
646.2000;0.1311;-0.5710;
646.5000;0.1286;-0.5635;
646.8000;0.1302;-0.5685;
647.1000;0.1302;-0.5710;
647.4000;0.1302;-0.5785;
647.7000;0.1302;-0.5785;
648.0000;0.1351;-0.5485;
648.3000;0.1311;-0.5610;
648.6000;0.1286;-0.5660;
648.9000;0.1302;-0.5585;
649.2000;0.1327;-0.5560;
649.5000;0.1294;-0.5685;
649.8000;0.1302;-0.5685;
650.1000;0.1335;-0.5585;
650.4000;0.1343;-0.5460;
650.7000;0.1351;-0.5535;
651.0000;0.1270;-0.5810;
651.3000;0.1294;-0.5834;
651.6000;0.1302;-0.5834;
651.9000;0.1319;-0.5710;
652.2000;0.1286;-0.5760;
652.5000;0.1294;-0.5760;
652.8000;0.1311;-0.5859;
653.1000;0.1278;-0.5984;
653.4000;0.1286;-0.5909;
653.7000;0.1237;-0.6109;
654.0000;0.1270;-0.5984;
654.3000;0.1294;-0.5859;
654.6000;0.1302;-0.5834;
654.9000;0.1278;-0.5760;
655.2000;0.1278;-0.5760;
655.5000;0.1294;-0.5760;
655.8000;0.1302;-0.5735;
656.1000;0.1286;-0.5735;
656.4000;0.1302;-0.5760;
656.7000;0.1294;-0.5760;
657.0000;0.1286;-0.5760;
657.3000;0.1286;-0.5760;
657.6000;0.1311;-0.5810;
657.9000;0.1286;-0.5785;
658.2000;0.1286;-0.5735;
658.5000;0.1294;-0.5710;
658.8000;0.1270;-0.5810;
659.1000;0.1302;-0.5685;
659.4000;0.1278;-0.5760;
659.7000;0.1294;-0.5760;
660.0000;0.1311;-0.5859;
660.3000;0.1302;-0.5810;
660.6000;0.1294;-0.5810;
660.9000;0.1311;-0.5710;
661.2000;0.1286;-0.5810;
661.5000;0.1294;-0.5884;
661.8000;0.1311;-0.5859;
662.1000;0.1319;-0.5810;
662.4000;0.1148;-0.6208;
662.7000;0.1302;-0.5810;
663.0000;0.1294;-0.5785;
663.3000;0.1311;-0.5760;
663.6000;0.1286;-0.5834;
663.9000;0.1278;-0.5884;
664.2000;0.1254;-0.5909;
664.5000;0.1278;-0.5859;
664.8000;0.1286;-0.5859;
665.1000;0.1254;-0.5909;
665.4000;0.1286;-0.5909;
665.7000;0.1245;-0.6059;
666.0000;0.1294;-0.5884;
666.3000;0.1278;-0.5934;
666.6000;0.1294;-0.5959;
666.9000;0.1302;-0.5959;
667.2000;0.1286;-0.5884;
667.5000;0.1278;-0.5810;
667.8000;0.1270;-0.5785;
668.1000;0.1327;-0.5710;
668.4000;0.1294;-0.5785;
668.7000;0.1294;-0.5685;
669.0000;0.1286;-0.5710;
669.3000;0.1262;-0.5760;
669.6000;0.1294;-0.5760;
669.9000;0.1311;-0.5834;
670.2000;0.1294;-0.5810;
670.5000;0.1311;-0.5735;
670.8000;0.1262;-0.5810;
671.1000;0.1294;-0.5685;
671.4000;0.1294;-0.5735;
671.7000;0.1286;-0.5785;
672.0000;0.1294;-0.5710;
672.3000;0.1335;-0.5635;
672.6000;0.1343;-0.5710;
672.9000;0.1286;-0.5834;
673.2000;0.1286;-0.5834;
673.5000;0.1319;-0.5710;
673.8000;0.1294;-0.5785;
674.1000;0.1278;-0.5760;
674.4000;0.1286;-0.5710;
674.7000;0.1254;-0.5785;
675.0000;0.1270;-0.5810;
675.3000;0.1197;-0.5934;
675.6000;0.1302;-0.5685;
675.9000;0.1294;-0.5660;
676.2000;0.1302;-0.5735;
676.5000;0.1294;-0.5760;
676.8000;0.1286;-0.5859;
677.1000;0.1294;-0.5760;
677.4000;0.1286;-0.5735;
677.7000;0.1311;-0.5660;
678.0000;0.1286;-0.5635;
678.3000;0.1286;-0.5610;
678.6000;0.1286;-0.5660;
678.9000;0.1302;-0.5585;
679.2000;0.1262;-0.5685;
679.5000;0.1294;-0.5660;
679.8000;0.1254;-0.5834;
680.1000;0.1286;-0.5735;
680.4000;0.1311;-0.5685;
680.7000;0.1286;-0.5810;
681.0000;0.1172;-0.6109;
681.3000;0.1294;-0.5735;
681.6000;0.1335;-0.5610;
681.9000;0.1302;-0.5710;
682.2000;0.1302;-0.5710;
682.5000;0.1327;-0.5635;
682.8000;0.1294;-0.5710;
683.1000;0.1294;-0.5635;
683.4000;0.1384;-0.5361;
683.7000;0.1302;-0.5735;
684.0000;0.1294;-0.5760;
684.3000;0.1311;-0.5710;
684.6000;0.1302;-0.5710;
684.9000;0.1294;-0.5660;
685.2000;0.1294;-0.5710;
685.5000;0.1408;-0.5311;
685.8000;0.1286;-0.5635;
686.1000;0.1286;-0.5685;
686.4000;0.1294;-0.5585;
686.7000;0.1286;-0.5735;
687.0000;0.1302;-0.5685;
687.3000;0.1278;-0.5710;
687.6000;0.1286;-0.5660;
687.9000;0.1311;-0.5635;
688.2000;0.1245;-0.5785;
688.5000;0.1262;-0.5760;
688.8000;0.1302;-0.5710;
689.1000;0.1302;-0.5785;
689.4000;0.1270;-0.5834;
689.7000;0.1278;-0.5810;
690.0000;0.1278;-0.5685;
690.3000;0.1286;-0.5560;
690.6000;0.1278;-0.5610;
690.9000;0.1254;-0.5735;
691.2000;0.1278;-0.5735;
691.5000;0.1302;-0.5685;
691.8000;0.1302;-0.5710;
692.1000;0.1286;-0.5785;
692.4000;0.1294;-0.5760;
692.7000;0.1302;-0.5735;
693.0000;0.1278;-0.5785;
693.3000;0.1294;-0.5859;
693.6000;0.1286;-0.5760;
693.9000;0.1286;-0.5660;
694.2000;0.1294;-0.5685;
694.5000;0.1294;-0.5610;
694.8000;0.1278;-0.5610;
695.1000;0.1270;-0.5710;
695.4000;0.1302;-0.5610;
695.7000;0.1302;-0.5635;
696.0000;0.1262;-0.5660;
696.3000;0.1302;-0.5585;
696.6000;0.1262;-0.5685;
696.9000;0.1286;-0.5535;
697.2000;0.1319;-0.5535;
697.5000;0.1319;-0.5585;
697.8000;0.1311;-0.5585;
698.1000;0.1270;-0.5635;
698.4000;0.1205;-0.5884;
698.7000;0.1270;-0.5635;
699.0000;0.1278;-0.5710;
699.3000;0.1278;-0.5760;
699.6000;0.1294;-0.5735;
699.9000;0.1278;-0.5710;
700.2000;0.1286;-0.5760;
700.5000;0.1278;-0.5685;
700.8000;0.1335;-0.5560;
701.1000;0.1245;-0.5635;
701.4000;0.1319;-0.5436;
701.7000;0.1294;-0.5411;
702.0000;0.1286;-0.5510;
702.3000;0.1270;-0.5660;
702.6000;0.1302;-0.5635;
702.9000;0.1311;-0.5735;
703.2000;0.1294;-0.5660;
703.5000;0.1278;-0.5710;
703.8000;0.1302;-0.5710;
704.1000;0.1237;-0.5859;
704.4000;0.1278;-0.5735;
704.7000;0.1343;-0.5560;
705.0000;0.1302;-0.5660;
705.3000;0.1294;-0.5635;
705.6000;0.1294;-0.5660;
705.9000;0.1302;-0.5635;
706.2000;0.1286;-0.5610;
706.5000;0.1311;-0.5485;
706.8000;0.1294;-0.5585;
707.1000;0.1311;-0.5660;
707.4000;0.1286;-0.5660;
707.7000;0.1302;-0.5535;
708.0000;0.1302;-0.5585;
708.3000;0.1311;-0.5610;
708.6000;0.1286;-0.5735;
708.9000;0.1343;-0.5585;
709.2000;0.1302;-0.5685;
709.5000;0.1294;-0.5685;
709.8000;0.1294;-0.5834;
710.1000;0.1286;-0.5959;
710.4000;0.1335;-0.5884;
710.7000;0.1311;-0.5884;
711.0000;0.1302;-0.5959;
711.3000;0.1294;-0.6009;
711.6000;0.1286;-0.5984;
711.9000;0.1311;-0.5934;
712.2000;0.1311;-0.5859;
712.5000;0.1278;-0.5909;
712.8000;0.1286;-0.5785;
713.1000;0.1286;-0.5785;
713.4000;0.1270;-0.5735;
713.7000;0.1270;-0.5710;
714.0000;0.1294;-0.5510;
714.3000;0.1302;-0.5535;
714.6000;0.1286;-0.5635;
714.9000;0.1270;-0.5785;
715.2000;0.1286;-0.5735;
715.5000;0.1237;-0.5909;
715.8000;0.1294;-0.5810;
716.1000;0.1286;-0.5834;
716.4000;0.1286;-0.5760;
716.7000;0.1319;-0.5560;
717.0000;0.1327;-0.5436;
717.3000;0.1302;-0.5560;
717.6000;0.1262;-0.5685;
717.9000;0.1294;-0.5560;
718.2000;0.1278;-0.5660;
718.5000;0.1237;-0.5785;
718.8000;0.1294;-0.5710;
719.1000;0.1351;-0.5635;
719.4000;0.1286;-0.5785;
719.7000;0.1294;-0.5834;
720.0000;0.1286;-0.5909;
720.3000;0.1278;-0.5959;
720.6000;0.1278;-0.5934;
720.9000;0.1302;-0.5785;
721.2000;0.1335;-0.5710;
721.5000;0.1286;-0.5810;
721.8000;0.1286;-0.5735;
722.1000;0.1302;-0.5685;
722.4000;0.1302;-0.5685;
722.7000;0.1262;-0.5834;
723.0000;0.1278;-0.5810;
723.3000;0.1286;-0.5859;
723.6000;0.1294;-0.5760;
723.9000;0.1294;-0.5834;
724.2000;0.1270;-0.5810;
724.5000;0.1302;-0.5710;
724.8000;0.1221;-0.5909;
725.1000;0.1302;-0.5660;
725.4000;0.1270;-0.5685;
725.7000;0.1286;-0.5685;
726.0000;0.1294;-0.5710;
726.3000;0.1335;-0.5585;
726.6000;0.1286;-0.5760;
726.9000;0.1286;-0.5660;
727.2000;0.1327;-0.5610;
727.5000;0.1286;-0.5735;
727.8000;0.1278;-0.5660;
728.1000;0.1286;-0.5585;
728.4000;0.1294;-0.5535;
728.7000;0.1286;-0.5585;
729.0000;0.1254;-0.5685;
729.3000;0.1294;-0.5585;
729.6000;0.1343;-0.5485;
729.9000;0.1286;-0.5635;
730.2000;0.1311;-0.5535;
730.5000;0.1302;-0.5560;
730.8000;0.1302;-0.5436;
731.1000;0.1286;-0.5510;
731.4000;0.1302;-0.5386;
731.7000;0.1294;-0.5560;
732.0000;0.1294;-0.5685;
732.3000;0.1286;-0.5760;
732.6000;0.1278;-0.5785;
732.9000;0.1278;-0.5735;
733.2000;0.1286;-0.5685;
733.5000;0.1270;-0.5710;
733.8000;0.1294;-0.5685;
734.1000;0.1254;-0.5834;
734.4000;0.1262;-0.5760;
734.7000;0.1286;-0.5635;
735.0000;0.1286;-0.5635;
735.3000;0.1311;-0.5610;
735.6000;0.1294;-0.5735;
735.9000;0.1302;-0.5710;
736.2000;0.1286;-0.5760;
736.5000;0.1294;-0.5785;
736.8000;0.1302;-0.5760;
737.1000;0.1286;-0.5710;
737.4000;0.1286;-0.5735;
737.7000;0.1294;-0.5710;
738.0000;0.1327;-0.5660;
738.3000;0.1286;-0.5760;
738.6000;0.1278;-0.5760;
738.9000;0.1327;-0.5735;
739.2000;0.1286;-0.5810;
739.5000;0.1278;-0.5785;
739.8000;0.1311;-0.5859;
740.1000;0.1319;-0.5810;
740.4000;0.1294;-0.5884;
740.7000;0.1302;-0.5934;
741.0000;0.1294;-0.5859;
741.3000;0.1302;-0.5884;
741.6000;0.1294;-0.5834;
741.9000;0.1286;-0.5909;
742.2000;0.1319;-0.5810;
742.5000;0.1319;-0.5810;
742.8000;0.1270;-0.5859;
743.1000;0.1294;-0.5884;
743.4000;0.1278;-0.5785;
743.7000;0.1302;-0.5635;
744.0000;0.1294;-0.5585;
744.3000;0.1270;-0.5635;
744.6000;0.1278;-0.5660;
744.9000;0.1286;-0.5610;
745.2000;0.1278;-0.5685;
745.5000;0.1286;-0.5710;
745.8000;0.1294;-0.5685;
746.1000;0.1319;-0.5685;
746.4000;0.1294;-0.5710;
746.7000;0.1278;-0.5735;
747.0000;0.1286;-0.5685;
747.3000;0.1164;-0.6034;
747.6000;0.1286;-0.5710;
747.9000;0.1335;-0.5660;
748.2000;0.1294;-0.5735;
748.5000;0.1278;-0.5735;
748.8000;0.1270;-0.5760;
749.1000;0.1343;-0.5660;
749.4000;0.1262;-0.5785;
749.7000;0.1294;-0.5660;
750.0000;0.1286;-0.5710;
750.3000;0.1294;-0.5735;
750.6000;0.1294;-0.5785;
750.9000;0.1302;-0.5710;
751.2000;0.1302;-0.5785;
751.5000;0.1302;-0.5859;
751.8000;0.1302;-0.5834;
752.1000;0.1286;-0.5884;
752.4000;0.1262;-0.5909;
752.7000;0.1278;-0.5735;
753.0000;0.1278;-0.5610;
753.3000;0.1286;-0.5610;
753.6000;0.1278;-0.5685;
753.9000;0.1286;-0.5660;
754.2000;0.1278;-0.5660;
754.5000;0.1335;-0.5585;
754.8000;0.1278;-0.5810;
755.1000;0.1319;-0.5685;
755.4000;0.1335;-0.5560;
755.7000;0.1319;-0.5535;
756.0000;0.1311;-0.5610;
756.3000;0.1302;-0.5660;
756.6000;0.1359;-0.5510;
756.9000;0.1294;-0.5785;
757.2000;0.1302;-0.5959;
757.5000;0.1327;-0.5959;
757.8000;0.1278;-0.5959;
758.1000;0.1262;-0.5834;
758.4000;0.1278;-0.5785;
758.7000;0.1311;-0.5710;
759.0000;0.1294;-0.5760;
759.3000;0.1278;-0.5810;
759.6000;0.1270;-0.5785;
759.9000;0.1286;-0.5859;
760.2000;0.1294;-0.5959;
760.5000;0.1270;-0.6034;
760.8000;0.1319;-0.5810;
761.1000;0.1302;-0.5884;
761.4000;0.1302;-0.5834;
761.7000;0.1302;-0.5810;
762.0000;0.1302;-0.5760;
762.3000;0.1278;-0.5834;
762.6000;0.1262;-0.5785;
762.9000;0.1278;-0.5710;
763.2000;0.1278;-0.5735;
763.5000;0.1278;-0.5735;
763.8000;0.1286;-0.5785;
764.1000;0.1294;-0.5884;
764.4000;0.1294;-0.5884;
764.7000;0.1245;-0.6009;
765.0000;0.1262;-0.5959;
765.3000;0.1278;-0.5859;
765.6000;0.1294;-0.5884;
765.9000;0.1294;-0.5859;
766.2000;0.1221;-0.6034;
766.5000;0.1286;-0.5810;
766.8000;0.1278;-0.5810;
767.1000;0.1286;-0.5760;
767.4000;0.1229;-0.5785;
767.7000;0.1302;-0.5535;
768.0000;0.1286;-0.5710;
768.3000;0.1278;-0.5760;
768.6000;0.1294;-0.5859;
768.9000;0.1286;-0.5859;
769.2000;0.1294;-0.5810;
769.5000;0.1262;-0.5859;
769.8000;0.1286;-0.6009;
770.1000;0.1286;-0.6009;
770.4000;0.1188;-0.6184;
770.7000;0.1254;-0.5909;
771.0000;0.1286;-0.5710;
771.3000;0.1384;-0.5386;
771.6000;0.1294;-0.5685;
771.9000;0.1270;-0.5710;
772.2000;0.1270;-0.5760;
772.5000;0.1294;-0.5660;
772.8000;0.1343;-0.5585;
773.1000;0.1278;-0.5735;
773.4000;0.1302;-0.5735;
773.7000;0.1254;-0.5859;
774.0000;0.1294;-0.5785;
774.3000;0.1286;-0.5785;
774.6000;0.1262;-0.5685;
774.9000;0.1286;-0.5635;
775.2000;0.1278;-0.5660;
775.5000;0.1278;-0.5660;
775.8000;0.1278;-0.5560;
776.1000;0.1302;-0.5560;
776.4000;0.1302;-0.5510;
776.7000;0.1302;-0.5560;
777.0000;0.1302;-0.5635;
777.3000;0.1294;-0.5785;
777.6000;0.1262;-0.5834;
777.9000;0.1302;-0.5660;
778.2000;0.1302;-0.5710;
778.5000;0.1327;-0.5685;
778.8000;0.1327;-0.5560;
779.1000;0.1351;-0.5535;
779.4000;0.1319;-0.5685;
779.7000;0.1302;-0.5685;
780.0000;0.1294;-0.5660;
780.3000;0.1262;-0.5535;
780.6000;0.1197;-0.5760;
780.9000;0.1302;-0.5635;
781.2000;0.1294;-0.5660;
781.5000;0.1278;-0.5635;
781.8000;0.1302;-0.5485;
782.1000;0.1270;-0.5660;
782.4000;0.1286;-0.5685;
782.7000;0.1278;-0.5760;
783.0000;0.1286;-0.5735;
783.3000;0.1254;-0.5834;
783.6000;0.1286;-0.5785;
783.9000;0.1245;-0.5959;
784.2000;0.1294;-0.5934;
784.5000;0.1270;-0.5909;
784.8000;0.1286;-0.5785;
785.1000;0.1286;-0.5760;
785.4000;0.1294;-0.5810;
785.7000;0.1286;-0.5859;
786.0000;0.1286;-0.5760;
786.3000;0.1294;-0.5785;
786.6000;0.1319;-0.5810;
786.9000;0.1319;-0.5810;
787.2000;0.1302;-0.5710;
787.5000;0.1302;-0.5735;
787.8000;0.1311;-0.5685;
788.1000;0.1270;-0.5735;
788.4000;0.1286;-0.5585;
788.7000;0.1278;-0.5735;
789.0000;0.1302;-0.5685;
789.3000;0.1302;-0.5685;
789.6000;0.1278;-0.5785;
789.9000;0.1302;-0.5735;
790.2000;0.1270;-0.5834;
790.5000;0.1294;-0.5760;
790.8000;0.1294;-0.5760;
791.1000;0.1286;-0.5859;
791.4000;0.1270;-0.5884;
791.7000;0.1278;-0.5834;
792.0000;0.1302;-0.5785;
792.3000;0.1286;-0.5934;
792.6000;0.1294;-0.5959;
792.9000;0.1294;-0.5909;
793.2000;0.1311;-0.5859;
793.5000;0.1286;-0.5959;
793.8000;0.1286;-0.5934;
794.1000;0.1286;-0.6034;
794.4000;0.1286;-0.5984;
794.7000;0.1278;-0.5859;
795.0000;0.1278;-0.5984;
795.3000;0.1180;-0.6258;
795.6000;0.1294;-0.6034;
795.9000;0.1278;-0.6084;
796.2000;0.1245;-0.6159;
796.5000;0.1294;-0.5959;
796.8000;0.1311;-0.5884;
797.1000;0.1278;-0.6009;
797.4000;0.1294;-0.5884;
797.7000;0.1286;-0.5884;
798.0000;0.1286;-0.5834;
798.3000;0.1270;-0.5859;
798.6000;0.1294;-0.5909;
798.9000;0.1294;-0.5884;
799.2000;0.1254;-0.5884;
799.5000;0.1294;-0.5884;
799.8000;0.1270;-0.6009;
800.1000;0.1270;-0.5959;
800.4000;0.1319;-0.5834;
800.7000;0.1319;-0.5760;
801.0000;0.1294;-0.5685;
801.3000;0.1270;-0.5685;
801.6000;0.1245;-0.5735;
801.9000;0.1294;-0.5685;
802.2000;0.1262;-0.5785;
802.5000;0.1286;-0.5810;
802.8000;0.1302;-0.5810;
803.1000;0.1302;-0.5884;
803.4000;0.1408;-0.5610;
803.7000;0.1302;-0.5884;
804.0000;0.1278;-0.5909;
804.3000;0.1302;-0.5785;
804.6000;0.1262;-0.5834;
804.9000;0.1319;-0.5710;
805.2000;0.1294;-0.5810;
805.5000;0.1294;-0.5859;
805.8000;0.1294;-0.5859;
806.1000;0.1262;-0.5884;
806.4000;0.1294;-0.5785;
806.7000;0.1286;-0.5810;
807.0000;0.1302;-0.5859;
807.3000;0.1311;-0.5884;
807.6000;0.1327;-0.5810;
807.9000;0.1286;-0.5884;
808.2000;0.1302;-0.5834;
808.5000;0.1302;-0.5859;
808.8000;0.1294;-0.5984;
809.1000;0.1286;-0.5984;
809.4000;0.1278;-0.5934;
809.7000;0.1327;-0.5884;
810.0000;0.1278;-0.5934;
810.3000;0.1294;-0.5859;
810.6000;0.1302;-0.5760;
810.9000;0.1278;-0.5909;
811.2000;0.1278;-0.5959;
811.5000;0.1294;-0.5909;
811.8000;0.1294;-0.5909;
812.1000;0.1278;-0.5934;
812.4000;0.1302;-0.5909;
812.7000;0.1311;-0.5834;
813.0000;0.1278;-0.5859;
813.3000;0.1294;-0.5834;
813.6000;0.1311;-0.5859;
813.9000;0.1311;-0.5934;
814.2000;0.1294;-0.6034;
814.5000;0.1294;-0.6084;
814.8000;0.1302;-0.6009;
815.1000;0.1245;-0.6159;
815.4000;0.1302;-0.5984;
815.7000;0.1286;-0.5934;
816.0000;0.1302;-0.5859;
816.3000;0.1245;-0.6084;
816.6000;0.1294;-0.6034;
816.9000;0.1294;-0.5959;
817.2000;0.1319;-0.5934;
817.5000;0.1286;-0.5884;
817.8000;0.1335;-0.5710;
818.1000;0.1294;-0.5884;
818.4000;0.1286;-0.5959;
818.7000;0.1311;-0.5959;
819.0000;0.1278;-0.6059;
819.3000;0.1286;-0.6034;
819.6000;0.1294;-0.6084;
819.9000;0.1254;-0.6208;
820.2000;0.1294;-0.6109;
820.5000;0.1359;-0.5834;
820.8000;0.1262;-0.6159;
821.1000;0.1294;-0.6059;
821.4000;0.1294;-0.6084;
821.7000;0.1237;-0.6134;
822.0000;0.1278;-0.5934;
822.3000;0.1294;-0.5909;
822.6000;0.1311;-0.5909;
822.9000;0.1302;-0.5959;
823.2000;0.1286;-0.6009;
823.5000;0.1254;-0.6059;
823.8000;0.1286;-0.6009;
824.1000;0.1278;-0.6084;
824.4000;0.1278;-0.6034;
824.7000;0.1270;-0.6109;
825.0000;0.1270;-0.6109;
825.3000;0.1294;-0.6034;
825.6000;0.1286;-0.5909;
825.9000;0.1254;-0.6034;
826.2000;0.1359;-0.5834;
826.5000;0.1286;-0.5984;
826.8000;0.1262;-0.6059;
827.1000;0.1270;-0.6109;
827.4000;0.1270;-0.6109;
827.7000;0.1286;-0.6109;
828.0000;0.1302;-0.6009;
828.3000;0.1213;-0.6109;
828.6000;0.1294;-0.5810;
828.9000;0.1270;-0.5810;
829.2000;0.1294;-0.5735;
829.5000;0.1319;-0.5685;
829.8000;0.1286;-0.5760;
830.1000;0.1278;-0.5735;
830.4000;0.1294;-0.5810;
830.7000;0.1237;-0.6009;
831.0000;0.1302;-0.5810;
831.3000;0.1319;-0.5710;
831.6000;0.1294;-0.5710;
831.9000;0.1294;-0.5735;
832.2000;0.1286;-0.5760;
832.5000;0.1270;-0.5760;
832.8000;0.1286;-0.5785;
833.1000;0.1311;-0.5710;
833.4000;0.1302;-0.5810;
833.7000;0.1229;-0.5984;
834.0000;0.1376;-0.5635;
834.3000;0.1294;-0.5834;
834.6000;0.1278;-0.5735;
834.9000;0.1302;-0.5560;
835.2000;0.1278;-0.5660;
835.5000;0.1286;-0.5660;
835.8000;0.1286;-0.5785;
836.1000;0.1302;-0.5834;
836.4000;0.1278;-0.5934;
836.7000;0.1311;-0.5909;
837.0000;0.1319;-0.5859;
837.3000;0.1254;-0.5984;
837.6000;0.1294;-0.5884;
837.9000;0.1270;-0.5959;
838.2000;0.1270;-0.5959;
838.5000;0.1286;-0.5909;
838.8000;0.1286;-0.5859;
839.1000;0.1286;-0.5760;
839.4000;0.1262;-0.5859;
839.7000;0.1311;-0.5810;
840.0000;0.1311;-0.5859;
840.3000;0.1335;-0.5710;
840.6000;0.1319;-0.5785;
840.9000;0.1278;-0.5834;
841.2000;0.1245;-0.5884;
841.5000;0.1278;-0.5810;
841.8000;0.1294;-0.5834;
842.1000;0.1278;-0.5760;
842.4000;0.1302;-0.5685;
842.7000;0.1286;-0.5685;
843.0000;0.1278;-0.5760;
843.3000;0.1278;-0.5785;
843.6000;0.1270;-0.5834;
843.9000;0.1286;-0.5760;
844.2000;0.1254;-0.5834;
844.5000;0.1294;-0.5710;
844.8000;0.1294;-0.5635;
845.1000;0.1294;-0.5585;
845.4000;0.1302;-0.5635;
845.7000;0.1286;-0.5760;
846.0000;0.1294;-0.5834;
846.3000;0.1294;-0.5934;
846.6000;0.1286;-0.5934;
846.9000;0.1286;-0.5959;
847.2000;0.1294;-0.5785;
847.5000;0.1302;-0.5760;
847.8000;0.1294;-0.5735;
848.1000;0.1286;-0.5810;
848.4000;0.1294;-0.5760;
848.7000;0.1302;-0.5760;
849.0000;0.1302;-0.5685;
849.3000;0.1311;-0.5660;
849.6000;0.1335;-0.5660;
849.9000;0.1294;-0.5710;
850.2000;0.1270;-0.5834;
850.5000;0.1278;-0.5810;
850.8000;0.1302;-0.5909;
851.1000;0.1294;-0.5834;
851.4000;0.1302;-0.5834;
851.7000;0.1278;-0.5810;
852.0000;0.1286;-0.5834;
852.3000;0.1294;-0.5785;
852.6000;0.1302;-0.5760;
852.9000;0.1294;-0.5859;
853.2000;0.1302;-0.5859;
853.5000;0.1278;-0.5909;
853.8000;0.1286;-0.5959;
854.1000;0.1294;-0.5909;
854.4000;0.1294;-0.5884;
854.7000;0.1302;-0.5934;
855.0000;0.1278;-0.5984;
855.3000;0.1294;-0.5959;
855.6000;0.1294;-0.5984;
855.9000;0.1286;-0.5959;
856.2000;0.1319;-0.5834;
856.5000;0.1302;-0.5934;
856.8000;0.1286;-0.5909;
857.1000;0.1221;-0.5984;
857.4000;0.1294;-0.5909;
857.7000;0.1311;-0.5909;
858.0000;0.1302;-0.6059;
858.3000;0.1294;-0.6034;
858.6000;0.1302;-0.5984;
858.9000;0.1343;-0.5909;
859.2000;0.1294;-0.6009;
859.5000;0.1311;-0.5934;
859.8000;0.1278;-0.6059;
860.1000;0.1278;-0.6034;
860.4000;0.1294;-0.5859;
860.7000;0.1270;-0.5934;
861.0000;0.1286;-0.5984;
861.3000;0.1237;-0.6134;
861.6000;0.1294;-0.5959;
861.9000;0.1294;-0.6059;
862.2000;0.1294;-0.6134;
862.5000;0.1205;-0.6258;
862.8000;0.1286;-0.6034;
863.1000;0.1254;-0.6208;
863.4000;0.1294;-0.6134;
863.7000;0.1286;-0.6159;
864.0000;0.1270;-0.6208;
864.3000;0.1286;-0.6109;
864.6000;0.1311;-0.5984;
864.9000;0.1278;-0.5984;
865.2000;0.1262;-0.6034;
865.5000;0.1286;-0.5984;
865.8000;0.1294;-0.5884;
866.1000;0.1302;-0.5934;
866.4000;0.1294;-0.6034;
866.7000;0.1294;-0.6109;
867.0000;0.1294;-0.6059;
867.3000;0.1302;-0.6084;
867.6000;0.1262;-0.6184;
867.9000;0.1327;-0.6109;
868.2000;0.1294;-0.6184;
868.5000;0.1302;-0.6134;
868.8000;0.1294;-0.6159;
869.1000;0.1270;-0.6333;
869.4000;0.1311;-0.6159;
869.7000;0.1278;-0.6159;
870.0000;0.1286;-0.6159;
870.3000;0.1270;-0.6208;
870.6000;0.1294;-0.6159;
870.9000;0.1311;-0.6034;
871.2000;0.1294;-0.6109;
871.5000;0.1311;-0.5959;
871.8000;0.1302;-0.6034;
872.1000;0.1294;-0.6009;
872.4000;0.1213;-0.6184;
872.7000;0.1294;-0.5859;
873.0000;0.1294;-0.5859;
873.3000;0.1319;-0.5909;
873.6000;0.1286;-0.5884;
873.9000;0.1286;-0.6034;
874.2000;0.1278;-0.6009;
874.5000;0.1286;-0.6059;
874.8000;0.1286;-0.6034;
875.1000;0.1294;-0.5934;
875.4000;0.1286;-0.5909;
875.7000;0.1270;-0.5834;
876.0000;0.1302;-0.5810;
876.3000;0.1278;-0.6034;
876.6000;0.1286;-0.5909;
876.9000;0.1302;-0.5884;
877.2000;0.1286;-0.5934;
877.5000;0.1278;-0.5959;
877.8000;0.1311;-0.5884;
878.1000;0.1286;-0.5959;
878.4000;0.1286;-0.6009;
878.7000;0.1335;-0.5884;
879.0000;0.1278;-0.5909;
879.3000;0.1286;-0.5909;
879.6000;0.1294;-0.5859;
879.9000;0.1294;-0.5884;
880.2000;0.1278;-0.5909;
880.5000;0.1302;-0.5884;
880.8000;0.1286;-0.5934;
881.1000;0.1294;-0.5934;
881.4000;0.1302;-0.5884;
881.7000;0.1311;-0.5909;
882.0000;0.1294;-0.5884;
882.3000;0.1302;-0.5810;
882.6000;0.1294;-0.5810;
882.9000;0.1286;-0.5884;
883.2000;0.1294;-0.5909;
883.5000;0.1294;-0.5934;
883.8000;0.1294;-0.5909;
884.1000;0.1302;-0.5909;
884.4000;0.1302;-0.5959;
884.7000;0.1294;-0.5984;
885.0000;0.1278;-0.5934;
885.3000;0.1286;-0.5959;
885.6000;0.1286;-0.5934;
885.9000;0.1262;-0.6084;
886.2000;0.1237;-0.6109;
886.5000;0.1286;-0.6009;
886.8000;0.1286;-0.6034;
887.1000;0.1319;-0.5934;
887.4000;0.1294;-0.5984;
887.7000;0.1278;-0.6084;
888.0000;0.1302;-0.6109;
888.3000;0.1302;-0.5959;
888.6000;0.1245;-0.6134;
888.9000;0.1254;-0.6084;
889.2000;0.1302;-0.6009;
889.5000;0.1294;-0.6084;
889.8000;0.1294;-0.6034;
890.1000;0.1262;-0.6034;
890.4000;0.1302;-0.6009;
890.7000;0.1302;-0.5959;
891.0000;0.1286;-0.5984;
891.3000;0.1311;-0.6034;
891.6000;0.1278;-0.6134;
891.9000;0.1302;-0.6084;
892.2000;0.1294;-0.6059;
892.5000;0.1335;-0.5909;
892.8000;0.1294;-0.6034;
893.1000;0.1319;-0.6184;
893.4000;0.1343;-0.6059;
893.7000;0.1302;-0.6109;
894.0000;0.1286;-0.6134;
894.3000;0.1172;-0.6308;
894.6000;0.1376;-0.5859;
894.9000;0.1294;-0.6109;
895.2000;0.1197;-0.6383;
895.5000;0.1408;-0.5884;
895.8000;0.1286;-0.6134;
896.1000;0.1294;-0.6134;
896.4000;0.1351;-0.5984;
896.7000;0.1311;-0.5984;
897.0000;0.1270;-0.6084;
897.3000;0.1294;-0.5934;
897.6000;0.1278;-0.5909;
897.9000;0.1302;-0.5834;
898.2000;0.1294;-0.5884;
898.5000;0.1302;-0.5884;
898.8000;0.1286;-0.5859;
899.1000;0.1311;-0.5834;
899.4000;0.1311;-0.5785;
899.7000;0.1254;-0.5909;
900.0000;0.1311;-0.5785;
900.3000;0.1311;-0.5785;
900.6000;0.1302;-0.5934;
900.9000;0.1359;-0.5735;
901.2000;0.1286;-0.5909;
901.5000;0.1302;-0.5884;
901.8000;0.1278;-0.5934;
902.1000;0.1294;-0.5934;
902.4000;0.1302;-0.5859;
902.7000;0.1351;-0.5834;
903.0000;0.1278;-0.6034;
903.3000;0.1294;-0.5984;
903.6000;0.1311;-0.5984;
903.9000;0.1319;-0.5859;
904.2000;0.1302;-0.5934;
904.5000;0.1270;-0.5959;
904.8000;0.1286;-0.5934;
905.1000;0.1286;-0.5934;
905.4000;0.1254;-0.6034;
905.7000;0.1286;-0.5909;
906.0000;0.1278;-0.5909;
906.3000;0.1302;-0.5909;
906.6000;0.1294;-0.5959;
906.9000;0.1270;-0.5984;
907.2000;0.1327;-0.5909;
907.5000;0.1302;-0.6009;
907.8000;0.1286;-0.6084;
908.1000;0.1294;-0.6034;
908.4000;0.1302;-0.6084;
908.7000;0.1311;-0.6084;
909.0000;0.1302;-0.6059;
909.3000;0.1229;-0.6159;
909.6000;0.1286;-0.5984;
909.9000;0.1294;-0.6009;
910.2000;0.1286;-0.6059;
910.5000;0.1286;-0.5884;
910.8000;0.1286;-0.5959;
911.1000;0.1278;-0.6059;
911.4000;0.1302;-0.6009;
911.7000;0.1286;-0.6059;
912.0000;0.1286;-0.6034;
912.3000;0.1278;-0.6034;
912.6000;0.1302;-0.5884;
912.9000;0.1278;-0.5934;
913.2000;0.1302;-0.5834;
913.5000;0.1262;-0.5984;
913.8000;0.1302;-0.5859;
914.1000;0.1286;-0.5810;
914.4000;0.1245;-0.5884;
914.7000;0.1286;-0.5884;
915.0000;0.1302;-0.5785;
915.3000;0.1245;-0.6009;
915.6000;0.1270;-0.6009;
915.9000;0.1343;-0.5760;
916.2000;0.1262;-0.6034;
916.5000;0.1286;-0.5959;
916.8000;0.1294;-0.5959;
917.1000;0.1286;-0.5984;
917.4000;0.1286;-0.6109;
917.7000;0.1270;-0.6159;
918.0000;0.1311;-0.6034;
918.3000;0.1229;-0.6159;
918.6000;0.1384;-0.5660;
918.9000;0.1278;-0.5959;
919.2000;0.1286;-0.5984;
919.5000;0.1278;-0.6059;
919.8000;0.1319;-0.6034;
920.1000;0.1270;-0.6134;
920.4000;0.1286;-0.6134;
920.7000;0.1294;-0.6184;
921.0000;0.1311;-0.6034;
921.3000;0.1302;-0.6034;
921.6000;0.1286;-0.5984;
921.9000;0.1278;-0.6159;
922.2000;0.1270;-0.6208;
922.5000;0.1278;-0.6233;
922.8000;0.1311;-0.6258;
923.1000;0.1311;-0.6258;
923.4000;0.1302;-0.6208;
923.7000;0.1294;-0.6184;
924.0000;0.1286;-0.6208;
924.3000;0.1294;-0.6308;
924.6000;0.1270;-0.6283;
924.9000;0.1286;-0.6283;
925.2000;0.1286;-0.6233;
925.5000;0.1294;-0.6258;
925.8000;0.1229;-0.6483;
926.1000;0.1270;-0.6383;
926.4000;0.1294;-0.6383;
926.7000;0.1294;-0.6358;
927.0000;0.1286;-0.6308;
927.3000;0.1262;-0.6433;
927.6000;0.1294;-0.6383;
927.9000;0.1294;-0.6383;
928.2000;0.1221;-0.6583;
928.5000;0.1302;-0.6358;
928.8000;0.1286;-0.6408;
929.1000;0.1319;-0.6184;
929.4000;0.1294;-0.6283;
929.7000;0.1351;-0.6059;
930.0000;0.1286;-0.6333;
930.3000;0.1294;-0.6258;
930.6000;0.1286;-0.6258;
930.9000;0.1270;-0.6283;
931.2000;0.1286;-0.6184;
931.5000;0.1302;-0.6009;
931.8000;0.1302;-0.5959;
932.1000;0.1319;-0.5834;
932.4000;0.1270;-0.6009;
932.7000;0.1294;-0.5959;
933.0000;0.1294;-0.5834;
933.3000;0.1278;-0.5884;
933.6000;0.1294;-0.5785;
933.9000;0.1302;-0.5834;
934.2000;0.1319;-0.5735;
934.5000;0.1286;-0.5909;
934.8000;0.1286;-0.6059;
935.1000;0.1254;-0.6208;
935.4000;0.1327;-0.5959;
935.7000;0.1278;-0.5959;
936.0000;0.1286;-0.6034;
936.3000;0.1294;-0.6009;
936.6000;0.1294;-0.5959;
936.9000;0.1319;-0.5984;
937.2000;0.1286;-0.6059;
937.5000;0.1270;-0.6084;
937.8000;0.1286;-0.5959;
938.1000;0.1311;-0.5859;
938.4000;0.1294;-0.5934;
938.7000;0.1270;-0.5984;
939.0000;0.1294;-0.5884;
939.3000;0.1286;-0.5909;
939.6000;0.1294;-0.5909;
939.9000;0.1311;-0.5909;
940.2000;0.1302;-0.5934;
940.5000;0.1294;-0.6009;
940.8000;0.1302;-0.5984;
941.1000;0.1294;-0.5959;
941.4000;0.1294;-0.6034;
941.7000;0.1302;-0.6034;
942.0000;0.1311;-0.5959;
942.3000;0.1262;-0.6034;
942.6000;0.1294;-0.5959;
942.9000;0.1278;-0.5884;
943.2000;0.1286;-0.5984;
943.5000;0.1270;-0.6059;
943.8000;0.1294;-0.6059;
944.1000;0.1311;-0.6009;
944.4000;0.1294;-0.6059;
944.7000;0.1286;-0.6159;
945.0000;0.1270;-0.6208;
945.3000;0.1294;-0.6084;
945.6000;0.1302;-0.6034;
945.9000;0.1286;-0.6109;
946.2000;0.1278;-0.6134;
946.5000;0.1229;-0.6159;
946.8000;0.1294;-0.5909;
947.1000;0.1311;-0.5884;
947.4000;0.1286;-0.5934;
947.7000;0.1294;-0.5884;
948.0000;0.1278;-0.5984;
948.3000;0.1294;-0.6009;
948.6000;0.1302;-0.5984;
948.9000;0.1294;-0.6009;
949.2000;0.1302;-0.5959;
949.5000;0.1311;-0.6034;
949.8000;0.1302;-0.5984;
950.1000;0.1270;-0.6034;
950.4000;0.1286;-0.6059;
950.7000;0.1335;-0.5984;
951.0000;0.1351;-0.5934;
951.3000;0.1294;-0.6059;
951.6000;0.1294;-0.6109;
951.9000;0.1294;-0.6134;
952.2000;0.1278;-0.6233;
952.5000;0.1278;-0.6233;
952.8000;0.1302;-0.6184;
953.1000;0.1213;-0.6358;
953.4000;0.1294;-0.6134;
953.7000;0.1302;-0.6084;
954.0000;0.1270;-0.6109;
954.3000;0.1302;-0.5984;
954.6000;0.1294;-0.6059;
954.9000;0.1278;-0.6059;
955.2000;0.1311;-0.6034;
955.5000;0.1327;-0.5984;
955.8000;0.1278;-0.6034;
956.1000;0.1286;-0.6009;
956.4000;0.1327;-0.5834;
956.7000;0.1302;-0.5909;
957.0000;0.1294;-0.5884;
957.3000;0.1278;-0.5859;
957.6000;0.1302;-0.5735;
957.9000;0.1294;-0.5785;
958.2000;0.1302;-0.5859;
958.5000;0.1302;-0.5810;
958.8000;0.1294;-0.5834;
959.1000;0.1286;-0.5959;
959.4000;0.1286;-0.6009;
959.7000;0.1302;-0.5959;
960.0000;0.1213;-0.6059;
960.3000;0.1286;-0.5884;
960.6000;0.1286;-0.5884;
960.9000;0.1278;-0.5859;
961.2000;0.1286;-0.5834;
961.5000;0.1294;-0.5735;
961.8000;0.1286;-0.5834;
962.1000;0.1294;-0.5934;
962.4000;0.1302;-0.5934;
962.7000;0.1294;-0.6034;
963.0000;0.1286;-0.6084;
963.3000;0.1294;-0.6134;
963.6000;0.1270;-0.6159;
963.9000;0.1245;-0.6208;
964.2000;0.1294;-0.6084;
964.5000;0.1286;-0.6109;
964.8000;0.1302;-0.6134;
965.1000;0.1294;-0.6159;
965.4000;0.1286;-0.6208;
965.7000;0.1286;-0.6184;
966.0000;0.1286;-0.6208;
966.3000;0.1302;-0.6159;
966.6000;0.1294;-0.6184;
966.9000;0.1278;-0.6159;
967.2000;0.1294;-0.6109;
967.5000;0.1302;-0.6084;
967.8000;0.1302;-0.6109;
968.1000;0.1278;-0.6134;
968.4000;0.1311;-0.5934;
968.7000;0.1319;-0.5859;
969.0000;0.1343;-0.5710;
969.3000;0.1311;-0.5735;
969.6000;0.1294;-0.5760;
969.9000;0.1270;-0.5810;
970.2000;0.1294;-0.5785;
970.5000;0.1311;-0.5685;
970.8000;0.1302;-0.5735;
971.1000;0.1319;-0.5685;
971.4000;0.1286;-0.5710;
971.7000;0.1327;-0.5560;
972.0000;0.1302;-0.5635;
972.3000;0.1278;-0.5735;
972.6000;0.1302;-0.5735;
972.9000;0.1286;-0.5735;
973.2000;0.1327;-0.5785;
973.5000;0.1294;-0.5834;
973.8000;0.1302;-0.5810;
974.1000;0.1319;-0.5735;
974.4000;0.1311;-0.5735;
974.7000;0.1286;-0.5810;
975.0000;0.1294;-0.5735;
975.3000;0.1278;-0.5735;
975.6000;0.1286;-0.5710;
975.9000;0.1294;-0.5735;
976.2000;0.1205;-0.5984;
976.5000;0.1294;-0.5685;
976.8000;0.1278;-0.5660;
977.1000;0.1254;-0.5810;
977.4000;0.1311;-0.5760;
977.7000;0.1294;-0.5834;
978.0000;0.1286;-0.5785;
978.3000;0.1278;-0.5834;
978.6000;0.1302;-0.5834;
978.9000;0.1311;-0.5834;
979.2000;0.1359;-0.5710;
979.5000;0.1294;-0.5909;
979.8000;0.1294;-0.5909;
980.1000;0.1270;-0.5959;
980.4000;0.1278;-0.5934;
980.7000;0.1278;-0.5735;
981.0000;0.1278;-0.5710;
981.3000;0.1294;-0.5785;
981.6000;0.1302;-0.5785;
981.9000;0.1286;-0.5810;
982.2000;0.1286;-0.5810;
982.5000;0.1270;-0.5785;
982.8000;0.1294;-0.5760;
983.1000;0.1270;-0.5785;
983.4000;0.1302;-0.5810;
983.7000;0.1294;-0.5810;
984.0000;0.1205;-0.6034;
984.3000;0.1294;-0.5810;
984.6000;0.1302;-0.5859;
984.9000;0.1286;-0.5760;
985.2000;0.1294;-0.5710;
985.5000;0.1270;-0.5859;
985.8000;0.1278;-0.5859;
986.1000;0.1294;-0.5810;
986.4000;0.1376;-0.5560;
986.7000;0.1286;-0.5834;
987.0000;0.1302;-0.5810;
987.3000;0.1302;-0.5785;
987.6000;0.1343;-0.5735;
987.9000;0.1311;-0.5810;
988.2000;0.1311;-0.5834;
988.5000;0.1213;-0.6109;
988.8000;0.1294;-0.5884;
989.1000;0.1319;-0.5760;
989.4000;0.1286;-0.5859;
989.7000;0.1270;-0.5834;
990.0000;0.1286;-0.5760;
990.3000;0.1270;-0.5834;
990.6000;0.1262;-0.5834;
990.9000;0.1294;-0.5834;
991.2000;0.1286;-0.5785;
991.5000;0.1302;-0.5760;
991.8000;0.1302;-0.5834;
992.1000;0.1286;-0.5834;
992.4000;0.1335;-0.5685;
992.7000;0.1311;-0.5760;
993.0000;0.1302;-0.5735;
993.3000;0.1286;-0.5710;
993.6000;0.1294;-0.5685;
993.9000;0.1294;-0.5760;
994.2000;0.1294;-0.5810;
994.5000;0.1286;-0.5884;
994.8000;0.1286;-0.5859;
995.1000;0.1270;-0.5884;
995.4000;0.1294;-0.5735;
995.7000;0.1286;-0.5810;
996.0000;0.1278;-0.5735;
996.3000;0.1278;-0.5685;
996.6000;0.1311;-0.5685;
996.9000;0.1278;-0.5710;
997.2000;0.1270;-0.5735;
997.5000;0.1270;-0.5710;
997.8000;0.1294;-0.5660;
998.1000;0.1270;-0.5785;
998.4000;0.1278;-0.5834;
998.7000;0.1302;-0.5760;
999.0000;0.1294;-0.5785;
999.3000;0.1302;-0.5834;
999.6000;0.1294;-0.5859;
999.9000;0.1294;-0.5834;
1000.2000;0.1278;-0.5984;
1000.5000;0.1278;-0.6059;
1000.8000;0.1270;-0.6009;
1001.1000;0.1237;-0.6159;
1001.4000;0.1270;-0.6009;
1001.7000;0.1294;-0.5984;
1002.0000;0.1392;-0.5760;
1002.3000;0.1294;-0.5884;
1002.6000;0.1302;-0.5810;
1002.9000;0.1278;-0.5859;
1003.2000;0.1319;-0.5785;
1003.5000;0.1254;-0.5909;
1003.8000;0.1294;-0.5810;
1004.1000;0.1335;-0.5760;
1004.4000;0.1311;-0.5810;
1004.7000;0.1286;-0.5909;
1005.0000;0.1286;-0.5834;
1005.3000;0.1294;-0.5834;
1005.6000;0.1270;-0.5859;
1005.9000;0.1286;-0.5785;
1006.2000;0.1270;-0.5785;
1006.5000;0.1278;-0.5735;
1006.8000;0.1302;-0.5710;
1007.1000;0.1278;-0.5710;
1007.4000;0.1302;-0.5685;
1007.7000;0.1311;-0.5710;
1008.0000;0.1311;-0.5685;
1008.3000;0.1302;-0.5710;
1008.6000;0.1278;-0.5760;
1008.9000;0.1311;-0.5760;
1009.2000;0.1302;-0.5735;
1009.5000;0.1311;-0.5660;
1009.8000;0.1302;-0.5660;
1010.1000;0.1278;-0.5884;
1010.4000;0.1294;-0.5810;
1010.7000;0.1262;-0.5984;
1011.0000;0.1286;-0.5959;
1011.3000;0.1270;-0.5984;
1011.6000;0.1311;-0.5884;
1011.9000;0.1278;-0.5909;
1012.2000;0.1286;-0.5934;
1012.5000;0.1302;-0.5884;
1012.8000;0.1286;-0.5909;
1013.1000;0.1270;-0.5909;
1013.4000;0.1286;-0.5859;
1013.7000;0.1294;-0.5884;
1014.0000;0.1351;-0.5735;
1014.3000;0.1311;-0.5934;
1014.6000;0.1294;-0.5884;
1014.9000;0.1294;-0.5810;
1015.2000;0.1311;-0.5635;
1015.5000;0.1294;-0.5610;
1015.8000;0.1245;-0.5785;
1016.1000;0.1286;-0.5760;
1016.4000;0.1237;-0.5934;
1016.7000;0.1278;-0.5859;
1017.0000;0.1278;-0.5934;
1017.3000;0.1286;-0.5859;
1017.6000;0.1262;-0.5959;
1017.9000;0.1294;-0.5859;
1018.2000;0.1302;-0.5884;
1018.5000;0.1302;-0.6009;
1018.8000;0.1302;-0.6059;
1019.1000;0.1294;-0.6134;
1019.4000;0.1294;-0.6084;
1019.7000;0.1311;-0.6034;
1020.0000;0.1302;-0.6059;
1020.3000;0.1188;-0.6333;
1020.6000;0.1384;-0.5760;
1020.9000;0.1294;-0.5984;
1021.2000;0.1270;-0.6084;
1021.5000;0.1278;-0.6059;
1021.8000;0.1311;-0.5984;
1022.1000;0.1270;-0.6059;
1022.4000;0.1302;-0.5984;
1022.7000;0.1286;-0.6084;
1023.0000;0.1311;-0.6009;
1023.3000;0.1359;-0.5859;
1023.6000;0.1359;-0.5934;
1023.9000;0.1294;-0.6184;
1024.2000;0.1302;-0.6184;
1024.5000;0.1335;-0.6159;
1024.8000;0.1302;-0.6233;
1025.1000;0.1319;-0.6233;
1025.4000;0.1245;-0.6333;
1025.7000;0.1294;-0.6059;
1026.0000;0.1294;-0.5984;
1026.3000;0.1286;-0.5984;
1026.6000;0.1270;-0.6034;
1026.9000;0.1286;-0.5984;
1027.2000;0.1294;-0.5934;
1027.5000;0.1384;-0.5660;
1027.8000;0.1286;-0.6009;
1028.1000;0.1278;-0.6009;
1028.4000;0.1351;-0.5909;
1028.7000;0.1294;-0.6109;
1029.0000;0.1286;-0.6159;
1029.3000;0.1286;-0.6159;
1029.6000;0.1319;-0.6059;
1029.9000;0.1286;-0.6134;
1030.2000;0.1286;-0.6184;
1030.5000;0.1286;-0.6233;
1030.8000;0.1286;-0.6258;
1031.1000;0.1302;-0.6233;
1031.4000;0.1311;-0.6258;
1031.7000;0.1302;-0.6283;
1032.0000;0.1294;-0.6333;
1032.3000;0.1311;-0.6283;
1032.6000;0.1286;-0.6233;
1032.9000;0.1286;-0.6159;
1033.2000;0.1294;-0.6059;
1033.5000;0.1351;-0.5984;
1033.8000;0.1294;-0.6134;
1034.1000;0.1294;-0.6208;
1034.4000;0.1327;-0.6059;
1034.7000;0.1311;-0.6159;
1035.0000;0.1286;-0.6233;
1035.3000;0.1302;-0.6184;
1035.6000;0.1302;-0.6109;
1035.9000;0.1311;-0.6109;
1036.2000;0.1278;-0.6208;
1036.5000;0.1302;-0.6208;
1036.8000;0.1286;-0.6184;
1037.1000;0.1270;-0.6159;
1037.4000;0.1327;-0.5984;
1037.7000;0.1278;-0.6109;
1038.0000;0.1294;-0.6059;
1038.3000;0.1311;-0.6084;
1038.6000;0.1311;-0.6059;
1038.9000;0.1294;-0.6109;
1039.2000;0.1294;-0.6034;
1039.5000;0.1286;-0.6009;
1039.8000;0.1294;-0.6109;
1040.1000;0.1286;-0.6159;
1040.4000;0.1278;-0.6233;
1040.7000;0.1278;-0.6208;
1041.0000;0.1278;-0.6159;
1041.3000;0.1262;-0.6283;
1041.6000;0.1278;-0.6184;
1041.9000;0.1286;-0.6233;
1042.2000;0.1302;-0.6184;
1042.5000;0.1294;-0.6184;
1042.8000;0.1294;-0.6208;
1043.1000;0.1302;-0.6134;
1043.4000;0.1205;-0.6333;
1043.7000;0.1302;-0.6084;
1044.0000;0.1327;-0.6034;
1044.3000;0.1270;-0.6109;
1044.6000;0.1302;-0.6084;
1044.9000;0.1294;-0.6134;
1045.2000;0.1302;-0.6034;
1045.5000;0.1294;-0.5959;
1045.8000;0.1286;-0.6009;
1046.1000;0.1286;-0.5959;
1046.4000;0.1254;-0.6009;
1046.7000;0.1311;-0.5884;
1047.0000;0.1359;-0.5710;
1047.3000;0.1286;-0.5909;
1047.6000;0.1286;-0.6009;
1047.9000;0.1294;-0.6084;
1048.2000;0.1286;-0.5984;
1048.5000;0.1311;-0.5934;
1048.8000;0.1294;-0.5934;
1049.1000;0.1286;-0.5934;
1049.4000;0.1278;-0.5934;
1049.7000;0.1278;-0.5909;
1050.0000;0.1327;-0.5760;
1050.3000;0.1254;-0.5934;
1050.6000;0.1294;-0.5959;
1050.9000;0.1254;-0.6134;
1051.2000;0.1254;-0.6233;
1051.5000;0.1278;-0.6208;
1051.8000;0.1278;-0.6283;
1052.1000;0.1254;-0.6258;
1052.4000;0.1294;-0.6109;
1052.7000;0.1311;-0.6009;
1053.0000;0.1302;-0.5984;
1053.3000;0.1286;-0.6109;
1053.6000;0.1294;-0.6109;
1053.9000;0.1319;-0.6109;
1054.2000;0.1286;-0.6159;
1054.5000;0.1294;-0.6134;
1054.8000;0.1278;-0.6208;
1055.1000;0.1311;-0.6283;
1055.4000;0.1294;-0.6358;
1055.7000;0.1294;-0.6308;
1056.0000;0.1262;-0.6358;
1056.3000;0.1294;-0.6308;
1056.6000;0.1302;-0.6208;
1056.9000;0.1302;-0.6283;
1057.2000;0.1278;-0.6408;
1057.5000;0.1262;-0.6433;
1057.8000;0.1294;-0.6283;
1058.1000;0.1286;-0.6308;
1058.4000;0.1319;-0.6208;
1058.7000;0.1294;-0.6233;
1059.0000;0.1278;-0.6258;
1059.3000;0.1294;-0.6134;
1059.6000;0.1278;-0.6159;
1059.9000;0.1286;-0.6233;
1060.2000;0.1294;-0.6258;
1060.5000;0.1294;-0.6208;
1060.8000;0.1302;-0.6233;
1061.1000;0.1294;-0.6184;
1061.4000;0.1294;-0.6184;
1061.7000;0.1294;-0.6258;
1062.0000;0.1294;-0.6233;
1062.3000;0.1335;-0.6084;
1062.6000;0.1302;-0.6109;
1062.9000;0.1302;-0.6184;
1063.2000;0.1294;-0.6208;
1063.5000;0.1286;-0.6233;
1063.8000;0.1270;-0.6283;
1064.1000;0.1278;-0.6283;
1064.4000;0.1327;-0.6159;
1064.7000;0.1311;-0.6184;
1065.0000;0.1286;-0.6109;
1065.3000;0.1319;-0.6059;
1065.6000;0.1270;-0.6059;
1065.9000;0.1262;-0.6059;
1066.2000;0.1335;-0.5909;
1066.5000;0.1294;-0.5959;
1066.8000;0.1311;-0.5959;
1067.1000;0.1262;-0.6109;
1067.4000;0.1302;-0.6034;
1067.7000;0.1311;-0.5934;
1068.0000;0.1270;-0.5959;
1068.3000;0.1294;-0.5884;
1068.6000;0.1254;-0.5984;
1068.9000;0.1286;-0.5909;
1069.2000;0.1302;-0.5884;
1069.5000;0.1302;-0.5859;
1069.8000;0.1286;-0.5909;
1070.1000;0.1294;-0.5909;
1070.4000;0.1294;-0.5884;
1070.7000;0.1286;-0.5909;
1071.0000;0.1294;-0.5984;
1071.3000;0.1408;-0.5685;
1071.6000;0.1294;-0.6084;
1071.9000;0.1302;-0.6059;
1072.2000;0.1294;-0.5984;
1072.5000;0.1278;-0.5984;
1072.8000;0.1302;-0.5859;
1073.1000;0.1359;-0.5785;
1073.4000;0.1294;-0.5959;
1073.7000;0.1270;-0.6034;
1074.0000;0.1302;-0.6009;
1074.3000;0.1286;-0.6084;
1074.6000;0.1278;-0.6059;
1074.9000;0.1262;-0.6009;
1075.2000;0.1286;-0.5859;
1075.5000;0.1286;-0.5834;
1075.8000;0.1294;-0.5834;
1076.1000;0.1245;-0.5934;
1076.4000;0.1262;-0.5834;
1076.7000;0.1302;-0.5909;
1077.0000;0.1294;-0.5934;
1077.3000;0.1294;-0.6034;
1077.6000;0.1302;-0.5984;
1077.9000;0.1302;-0.5934;
1078.2000;0.1302;-0.6009;
1078.5000;0.1270;-0.6059;
1078.8000;0.1311;-0.6059;
1079.1000;0.1286;-0.6159;
1079.4000;0.1392;-0.5859;
1079.7000;0.1294;-0.6084;
1080.0000;0.1311;-0.5984;
1080.3000;0.1286;-0.6009;
1080.6000;0.1278;-0.6034;
1080.9000;0.1286;-0.6009;
1081.2000;0.1286;-0.5984;
1081.5000;0.1302;-0.5959;
1081.8000;0.1286;-0.5984;
1082.1000;0.1302;-0.5984;
1082.4000;0.1302;-0.6009;
1082.7000;0.1278;-0.6084;
1083.0000;0.1302;-0.5934;
1083.3000;0.1311;-0.5859;
1083.6000;0.1327;-0.5760;
1083.9000;0.1311;-0.5785;
1084.2000;0.1319;-0.5685;
1084.5000;0.1294;-0.5760;
1084.8000;0.1294;-0.5834;
1085.1000;0.1294;-0.5934;
1085.4000;0.1286;-0.5959;
1085.7000;0.1270;-0.6059;
1086.0000;0.1294;-0.5934;
1086.3000;0.1278;-0.5984;
1086.6000;0.1294;-0.5934;
1086.9000;0.1262;-0.5934;
1087.2000;0.1294;-0.5884;
1087.5000;0.1302;-0.5909;
1087.8000;0.1294;-0.5909;
1088.1000;0.1327;-0.5909;
1088.4000;0.1294;-0.5984;
1088.7000;0.1278;-0.6009;
1089.0000;0.1311;-0.6009;
1089.3000;0.1319;-0.5959;
1089.6000;0.1294;-0.6009;
1089.9000;0.1286;-0.5909;
1090.2000;0.1302;-0.5884;
1090.5000;0.1351;-0.5810;
1090.8000;0.1302;-0.6034;
1091.1000;0.1335;-0.5909;
1091.4000;0.1311;-0.5984;
1091.7000;0.1294;-0.6084;
1092.0000;0.1302;-0.6034;
1092.3000;0.1278;-0.6084;
1092.6000;0.1286;-0.5984;
1092.9000;0.1278;-0.5884;
1093.2000;0.1311;-0.5810;
1093.5000;0.1254;-0.5859;
1093.8000;0.1286;-0.5760;
1094.1000;0.1254;-0.5859;
1094.4000;0.1278;-0.5834;
1094.7000;0.1286;-0.5859;
1095.0000;0.1294;-0.5859;
1095.3000;0.1262;-0.5934;
1095.6000;0.1294;-0.5934;
1095.9000;0.1286;-0.5909;
1096.2000;0.1270;-0.5934;
1096.5000;0.1294;-0.5934;
1096.8000;0.1286;-0.5934;
1097.1000;0.1278;-0.5934;
1097.4000;0.1286;-0.5959;
1097.7000;0.1343;-0.5785;
1098.0000;0.1286;-0.5884;
1098.3000;0.1311;-0.5735;
1098.6000;0.1327;-0.5685;
1098.9000;0.1302;-0.5785;
1099.2000;0.1286;-0.5884;
1099.5000;0.1294;-0.5834;
1099.8000;0.1278;-0.5884;
1100.1000;0.1229;-0.6109;
1100.4000;0.1294;-0.5934;
1100.7000;0.1278;-0.6034;
1101.0000;0.1294;-0.5909;
1101.3000;0.1286;-0.5909;
1101.6000;0.1286;-0.5859;
1101.9000;0.1311;-0.5760;
1102.2000;0.1278;-0.5735;
1102.5000;0.1343;-0.5635;
1102.8000;0.1278;-0.5810;
1103.1000;0.1294;-0.5810;
1103.4000;0.1351;-0.5685;
1103.7000;0.1294;-0.5909;
1104.0000;0.1286;-0.5934;
1104.3000;0.1294;-0.5934;
1104.6000;0.1359;-0.5909;
1104.9000;0.1254;-0.5984;
1105.2000;0.1294;-0.5810;
1105.5000;0.1286;-0.5834;
1105.8000;0.1311;-0.5859;
1106.1000;0.1278;-0.5810;
1106.4000;0.1359;-0.5660;
1106.7000;0.1270;-0.5810;
1107.0000;0.1302;-0.5710;
1107.3000;0.1311;-0.5685;
1107.6000;0.1302;-0.5610;
1107.9000;0.1376;-0.5361;
1108.2000;0.1311;-0.5560;
1108.5000;0.1351;-0.5436;
1108.8000;0.1311;-0.5610;
1109.1000;0.1294;-0.5685;
1109.4000;0.1254;-0.5810;
1109.7000;0.1311;-0.5660;
1110.0000;0.1302;-0.5660;
1110.3000;0.1302;-0.5560;
1110.6000;0.1286;-0.5560;
1110.9000;0.1311;-0.5635;
1111.2000;0.1286;-0.5685;
1111.5000;0.1270;-0.5685;
1111.8000;0.1270;-0.5735;
1112.1000;0.1270;-0.5760;
1112.4000;0.1335;-0.5610;
1112.7000;0.1294;-0.5810;
1113.0000;0.1294;-0.5785;
1113.3000;0.1294;-0.5834;
1113.6000;0.1278;-0.5884;
1113.9000;0.1278;-0.5909;
1114.2000;0.1286;-0.5984;
1114.5000;0.1286;-0.5934;
1114.8000;0.1311;-0.5810;
1115.1000;0.1302;-0.5785;
1115.4000;0.1302;-0.5909;
1115.7000;0.1270;-0.6034;
1116.0000;0.1294;-0.5859;
1116.3000;0.1286;-0.5859;
1116.6000;0.1262;-0.5959;
1116.9000;0.1286;-0.5859;
1117.2000;0.1278;-0.5834;
1117.5000;0.1335;-0.5710;
1117.8000;0.1327;-0.5859;
1118.1000;0.1278;-0.6084;
1118.4000;0.1294;-0.6109;
1118.7000;0.1311;-0.6084;
1119.0000;0.1294;-0.6059;
1119.3000;0.1286;-0.6134;
1119.6000;0.1294;-0.6084;
1119.9000;0.1319;-0.5934;
1120.2000;0.1270;-0.5984;
1120.5000;0.1286;-0.5959;
1120.8000;0.1294;-0.5909;
1121.1000;0.1302;-0.5859;
1121.4000;0.1245;-0.5959;
1121.7000;0.1237;-0.5934;
1122.0000;0.1270;-0.5810;
1122.3000;0.1270;-0.5909;
1122.6000;0.1270;-0.5859;
1122.9000;0.1286;-0.5859;
1123.2000;0.1302;-0.5785;
1123.5000;0.1294;-0.5785;
1123.8000;0.1302;-0.5859;
1124.1000;0.1327;-0.5959;
1124.4000;0.1286;-0.6009;
1124.7000;0.1302;-0.5959;
1125.0000;0.1294;-0.5909;
1125.3000;0.1311;-0.5810;
1125.6000;0.1343;-0.5785;
1125.9000;0.1270;-0.5934;
1126.2000;0.1286;-0.6009;
1126.5000;0.1327;-0.5859;
1126.8000;0.1278;-0.5984;
1127.1000;0.1254;-0.6084;
1127.4000;0.1278;-0.6009;
1127.7000;0.1294;-0.6009;
1128.0000;0.1286;-0.6134;
1128.3000;0.1286;-0.6059;
1128.6000;0.1302;-0.5959;
1128.9000;0.1294;-0.5984;
1129.2000;0.1294;-0.5984;
1129.5000;0.1294;-0.6009;
1129.8000;0.1311;-0.6009;
1130.1000;0.1286;-0.5909;
1130.4000;0.1311;-0.5760;
1130.7000;0.1270;-0.5859;
1131.0000;0.1302;-0.5834;
1131.3000;0.1302;-0.5834;
1131.6000;0.1302;-0.5859;
1131.9000;0.1270;-0.5934;
1132.2000;0.1327;-0.5884;
1132.5000;0.1294;-0.5884;
1132.8000;0.1286;-0.5909;
1133.1000;0.1286;-0.5909;
1133.4000;0.1278;-0.5909;
1133.7000;0.1311;-0.5710;
1134.0000;0.1294;-0.5760;
1134.3000;0.1302;-0.5785;
1134.6000;0.1319;-0.5685;
1134.9000;0.1302;-0.5859;
1135.2000;0.1270;-0.6109;
1135.5000;0.1278;-0.6134;
1135.8000;0.1311;-0.5959;
1136.1000;0.1302;-0.5934;
1136.4000;0.1294;-0.5984;
1136.7000;0.1254;-0.6134;
1137.0000;0.1286;-0.6009;
1137.3000;0.1286;-0.5934;
1137.6000;0.1294;-0.5909;
1137.9000;0.1302;-0.5909;
1138.2000;0.1319;-0.5984;
1138.5000;0.1294;-0.5934;
1138.8000;0.1286;-0.5884;
1139.1000;0.1286;-0.5884;
1139.4000;0.1294;-0.5884;
1139.7000;0.1319;-0.5859;
1140.0000;0.1294;-0.5934;
1140.3000;0.1294;-0.5984;
1140.6000;0.1294;-0.6109;
1140.9000;0.1270;-0.6084;
1141.2000;0.1254;-0.6084;
1141.5000;0.1294;-0.5984;
1141.8000;0.1294;-0.5884;
1142.1000;0.1343;-0.5710;
1142.4000;0.1278;-0.5810;
1142.7000;0.1254;-0.5834;
1143.0000;0.1319;-0.5685;
1143.3000;0.1311;-0.5685;
1143.6000;0.1286;-0.5635;
1143.9000;0.1302;-0.5610;
1144.2000;0.1319;-0.5660;
1144.5000;0.1278;-0.5760;
1144.8000;0.1254;-0.5785;
1145.1000;0.1286;-0.5760;
1145.4000;0.1262;-0.5859;
1145.7000;0.1302;-0.5810;
1146.0000;0.1319;-0.5785;
1146.3000;0.1294;-0.5760;
1146.6000;0.1302;-0.5760;
1146.9000;0.1302;-0.5635;
1147.2000;0.1294;-0.5710;
1147.5000;0.1286;-0.5785;
1147.8000;0.1294;-0.5760;
1148.1000;0.1254;-0.5859;
1148.4000;0.1294;-0.5884;
1148.7000;0.1278;-0.5884;
1149.0000;0.1311;-0.5785;
1149.3000;0.1311;-0.5660;
1149.6000;0.1311;-0.5660;
1149.9000;0.1294;-0.5735;
1150.2000;0.1294;-0.5610;
1150.5000;0.1302;-0.5610;
1150.8000;0.1294;-0.5635;
1151.1000;0.1237;-0.5710;
1151.4000;0.1278;-0.5585;
1151.7000;0.1286;-0.5585;
1152.0000;0.1294;-0.5660;
1152.3000;0.1311;-0.5560;
1152.6000;0.1294;-0.5610;
1152.9000;0.1376;-0.5411;
1153.2000;0.1270;-0.5560;
1153.5000;0.1311;-0.5485;
1153.8000;0.1294;-0.5585;
1154.1000;0.1294;-0.5485;
1154.4000;0.1335;-0.5411;
1154.7000;0.1302;-0.5585;
1155.0000;0.1278;-0.5685;
1155.3000;0.1302;-0.5710;
1155.6000;0.1286;-0.5810;
1155.9000;0.1245;-0.5884;
1156.2000;0.1254;-0.5934;
1156.5000;0.1270;-0.6009;
1156.8000;0.1302;-0.5909;
1157.1000;0.1302;-0.5884;
1157.4000;0.1262;-0.5934;
1157.7000;0.1286;-0.5859;
1158.0000;0.1286;-0.5785;
1158.3000;0.1286;-0.5735;
1158.6000;0.1343;-0.5560;
1158.9000;0.1294;-0.5685;
1159.2000;0.1270;-0.5884;
1159.5000;0.1270;-0.5834;
1159.8000;0.1294;-0.5760;
1160.1000;0.1302;-0.5735;
1160.4000;0.1311;-0.5635;
1160.7000;0.1351;-0.5485;
1161.0000;0.1311;-0.5660;
1161.3000;0.1327;-0.5760;
1161.6000;0.1286;-0.5785;
1161.9000;0.1262;-0.5785;
1162.2000;0.1416;-0.5386;
1162.5000;0.1302;-0.5710;
1162.8000;0.1302;-0.5710;
1163.1000;0.1368;-0.5560;
1163.4000;0.1302;-0.5834;
1163.7000;0.1302;-0.5834;
1164.0000;0.1278;-0.5859;
1164.3000;0.1294;-0.5735;
1164.6000;0.1245;-0.5884;
1164.9000;0.1286;-0.5785;
1165.2000;0.1351;-0.5610;
1165.5000;0.1319;-0.5660;
1165.8000;0.1286;-0.5760;
1166.1000;0.1254;-0.5909;
1166.4000;0.1278;-0.5934;
1166.7000;0.1294;-0.5834;
1167.0000;0.1294;-0.5760;
1167.3000;0.1302;-0.5660;
1167.6000;0.1294;-0.5660;
1167.9000;0.1286;-0.5760;
1168.2000;0.1319;-0.5710;
1168.5000;0.1254;-0.5834;
1168.8000;0.1286;-0.5710;
1169.1000;0.1311;-0.5785;
1169.4000;0.1302;-0.5785;
1169.7000;0.1294;-0.5710;
1170.0000;0.1294;-0.5735;
1170.3000;0.1294;-0.5685;
1170.6000;0.1302;-0.5685;
1170.9000;0.1278;-0.5834;
1171.2000;0.1286;-0.5884;
1171.5000;0.1278;-0.5959;
1171.8000;0.1294;-0.5934;
1172.1000;0.1286;-0.5909;
1172.4000;0.1278;-0.5859;
1172.7000;0.1278;-0.5834;
1173.0000;0.1278;-0.5834;
1173.3000;0.1302;-0.5785;
1173.6000;0.1351;-0.5635;
1173.9000;0.1286;-0.5760;
1174.2000;0.1286;-0.5834;
1174.5000;0.1270;-0.5884;
1174.8000;0.1294;-0.5884;
1175.1000;0.1286;-0.5859;
1175.4000;0.1311;-0.5909;
1175.7000;0.1327;-0.5909;
1176.0000;0.1294;-0.5909;
1176.3000;0.1302;-0.5785;
1176.6000;0.1254;-0.5959;
1176.9000;0.1302;-0.5909;
1177.2000;0.1302;-0.5884;
1177.5000;0.1302;-0.5834;
1177.8000;0.1302;-0.5810;
1178.1000;0.1286;-0.5859;
1178.4000;0.1335;-0.5785;
1178.7000;0.1294;-0.5934;
1179.0000;0.1294;-0.5884;
1179.3000;0.1286;-0.5884;
1179.6000;0.1327;-0.5859;
1179.9000;0.1294;-0.5884;
1180.2000;0.1294;-0.5909;
1180.5000;0.1286;-0.5859;
1180.8000;0.1278;-0.5934;
1181.1000;0.1311;-0.5735;
1181.4000;0.1278;-0.5785;
1181.7000;0.1270;-0.5859;
1182.0000;0.1286;-0.5909;
1182.3000;0.1392;-0.5585;
1182.6000;0.1278;-0.5810;
1182.9000;0.1278;-0.5834;
1183.2000;0.1294;-0.5834;
1183.5000;0.1311;-0.5909;
1183.8000;0.1311;-0.5859;
1184.1000;0.1311;-0.5959;
1184.4000;0.1302;-0.6059;
1184.7000;0.1286;-0.6084;
1185.0000;0.1294;-0.5959;
1185.3000;0.1278;-0.6034;
1185.6000;0.1327;-0.5984;
1185.9000;0.1302;-0.5934;
1186.2000;0.1311;-0.5834;
1186.5000;0.1311;-0.5884;
1186.8000;0.1286;-0.5984;
1187.1000;0.1286;-0.5959;
1187.4000;0.1311;-0.5934;
1187.7000;0.1319;-0.5810;
1188.0000;0.1286;-0.5909;
1188.3000;0.1294;-0.5884;
1188.6000;0.1294;-0.5909;
1188.9000;0.1302;-0.5859;
1189.2000;0.1286;-0.5834;
1189.5000;0.1254;-0.5760;
1189.8000;0.1286;-0.5710;
1190.1000;0.1286;-0.5810;
1190.4000;0.1286;-0.5834;
1190.7000;0.1294;-0.5735;
1191.0000;0.1286;-0.5710;
1191.3000;0.1270;-0.5735;
1191.6000;0.1278;-0.5735;
1191.9000;0.1229;-0.5934;
1192.2000;0.1278;-0.5735;
1192.5000;0.1286;-0.5735;
1192.8000;0.1286;-0.5834;
1193.1000;0.1302;-0.5810;
1193.4000;0.1278;-0.5834;
1193.7000;0.1286;-0.5834;
1194.0000;0.1286;-0.5884;
1194.3000;0.1302;-0.5909;
1194.6000;0.1335;-0.5884;
1194.9000;0.1311;-0.5984;
1195.2000;0.1286;-0.5909;
1195.5000;0.1294;-0.5859;
1195.8000;0.1294;-0.5859;
1196.1000;0.1294;-0.5660;
1196.4000;0.1286;-0.5610;
1196.7000;0.1286;-0.5635;
1197.0000;0.1286;-0.5760;
1197.3000;0.1294;-0.5710;
1197.6000;0.1343;-0.5535;
1197.9000;0.1270;-0.5735;
1198.2000;0.1286;-0.5610;
1198.5000;0.1400;-0.5261;
1198.8000;0.1302;-0.5535;
1199.1000;0.1254;-0.5660;
1199.4000;0.1302;-0.5535;
1199.7000;0.1302;-0.5585;
1200.0000;0.1302;-0.5735;
1200.3000;0.1302;-0.5810;
1200.6000;0.1286;-0.5934;
1200.9000;0.1302;-0.5934;
1201.2000;0.1286;-0.5859;
1201.5000;0.1294;-0.5859;
1201.8000;0.1278;-0.5909;
1202.1000;0.1278;-0.5884;
1202.4000;0.1229;-0.6034;
1202.7000;0.1245;-0.5934;
1203.0000;0.1286;-0.5810;
1203.3000;0.1311;-0.5760;
1203.6000;0.1311;-0.5810;
1203.9000;0.1294;-0.5884;
1204.2000;0.1245;-0.5984;
1204.5000;0.1286;-0.5810;
1204.8000;0.1302;-0.5735;
1205.1000;0.1302;-0.5735;
1205.4000;0.1294;-0.5685;
1205.7000;0.1302;-0.5710;
1206.0000;0.1302;-0.5735;
1206.3000;0.1302;-0.5760;
1206.6000;0.1302;-0.5735;
1206.9000;0.1294;-0.5884;
1207.2000;0.1294;-0.5934;
1207.5000;0.1286;-0.5959;
1207.8000;0.1262;-0.5884;
1208.1000;0.1335;-0.5610;
1208.4000;0.1188;-0.5934;
1208.7000;0.1302;-0.5660;
1209.0000;0.1294;-0.5710;
1209.3000;0.1270;-0.5785;
1209.6000;0.1319;-0.5710;
1209.9000;0.1286;-0.5810;
1210.2000;0.1359;-0.5660;
1210.5000;0.1327;-0.5760;
1210.8000;0.1294;-0.5859;
1211.1000;0.1294;-0.5760;
1211.4000;0.1286;-0.5660;
1211.7000;0.1335;-0.5535;
1212.0000;0.1302;-0.5610;
1212.3000;0.1262;-0.5685;
1212.6000;0.1302;-0.5685;
1212.9000;0.1286;-0.5735;
1213.2000;0.1286;-0.5735;
1213.5000;0.1311;-0.5585;
1213.8000;0.1270;-0.5610;
1214.1000;0.1302;-0.5535;
1214.4000;0.1311;-0.5510;
1214.7000;0.1197;-0.5810;
1215.0000;0.1302;-0.5535;
1215.3000;0.1302;-0.5411;
1215.6000;0.1286;-0.5411;
1215.9000;0.1278;-0.5485;
1216.2000;0.1343;-0.5261;
1216.5000;0.1294;-0.5510;
1216.8000;0.1286;-0.5535;
1217.1000;0.1294;-0.5510;
1217.4000;0.1302;-0.5585;
1217.7000;0.1294;-0.5635;
1218.0000;0.1294;-0.5585;
1218.3000;0.1278;-0.5660;
1218.6000;0.1327;-0.5535;
1218.9000;0.1294;-0.5685;
1219.2000;0.1302;-0.5660;
1219.5000;0.1319;-0.5560;
1219.8000;0.1302;-0.5685;
1220.1000;0.1270;-0.5735;
1220.4000;0.1278;-0.5785;
1220.7000;0.1294;-0.5760;
1221.0000;0.1302;-0.5810;
1221.3000;0.1294;-0.5735;
1221.6000;0.1270;-0.5760;
1221.9000;0.1351;-0.5535;
1222.2000;0.1311;-0.5710;
1222.5000;0.1294;-0.5735;
1222.8000;0.1302;-0.5735;
1223.1000;0.1294;-0.5760;
1223.4000;0.1294;-0.5660;
1223.7000;0.1278;-0.5635;
1224.0000;0.1245;-0.5710;
1224.3000;0.1278;-0.5560;
1224.6000;0.1237;-0.5710;
1224.9000;0.1286;-0.5660;
1225.2000;0.1286;-0.5685;
1225.5000;0.1294;-0.5685;
1225.8000;0.1278;-0.5810;
1226.1000;0.1302;-0.5760;
1226.4000;0.1286;-0.5760;
1226.7000;0.1302;-0.5635;
1227.0000;0.1270;-0.5660;
1227.3000;0.1254;-0.5735;
1227.6000;0.1302;-0.5685;
1227.9000;0.1286;-0.5760;
1228.2000;0.1286;-0.5710;
1228.5000;0.1294;-0.5735;
1228.8000;0.1294;-0.5635;
1229.1000;0.1294;-0.5585;
1229.4000;0.1311;-0.5535;
1229.7000;0.1294;-0.5610;
1230.0000;0.1262;-0.5635;
1230.3000;0.1294;-0.5585;
1230.6000;0.1286;-0.5585;
1230.9000;0.1270;-0.5560;
1231.2000;0.1294;-0.5535;
1231.5000;0.1302;-0.5535;
1231.8000;0.1270;-0.5610;
1232.1000;0.1311;-0.5535;
1232.4000;0.1180;-0.5834;
1232.7000;0.1286;-0.5535;
1233.0000;0.1327;-0.5460;
1233.3000;0.1294;-0.5635;
1233.6000;0.1311;-0.5610;
1233.9000;0.1302;-0.5710;
1234.2000;0.1351;-0.5560;
1234.5000;0.1343;-0.5436;
1234.8000;0.1327;-0.5535;
1235.1000;0.1311;-0.5685;
1235.4000;0.1311;-0.5635;
1235.7000;0.1302;-0.5610;
1236.0000;0.1302;-0.5660;
1236.3000;0.1286;-0.5710;
1236.6000;0.1319;-0.5685;
1236.9000;0.1294;-0.5735;
1237.2000;0.1327;-0.5610;
1237.5000;0.1221;-0.5810;
1237.8000;0.1294;-0.5635;
1238.1000;0.1254;-0.5785;
1238.4000;0.1278;-0.5760;
1238.7000;0.1262;-0.5810;
1239.0000;0.1262;-0.5859;
1239.3000;0.1302;-0.5710;
1239.6000;0.1286;-0.5585;
1239.9000;0.1286;-0.5635;
1240.2000;0.1294;-0.5610;
1240.5000;0.1286;-0.5660;
1240.8000;0.1294;-0.5635;
1241.1000;0.1294;-0.5685;
1241.4000;0.1278;-0.5685;
1241.7000;0.1286;-0.5585;
1242.0000;0.1294;-0.5535;
1242.3000;0.1286;-0.5510;
1242.6000;0.1343;-0.5386;
1242.9000;0.1311;-0.5485;
1243.2000;0.1286;-0.5485;
1243.5000;0.1286;-0.5460;
1243.8000;0.1286;-0.5386;
1244.1000;0.1286;-0.5460;
1244.4000;0.1302;-0.5386;
1244.7000;0.1286;-0.5485;
1245.0000;0.1294;-0.5460;
1245.3000;0.1294;-0.5510;
1245.6000;0.1359;-0.5336;
1245.9000;0.1294;-0.5585;
1246.2000;0.1278;-0.5660;
1246.5000;0.1286;-0.5585;
1246.8000;0.1262;-0.5610;
1247.1000;0.1270;-0.5585;
1247.4000;0.1286;-0.5610;
1247.7000;0.1286;-0.5635;
1248.0000;0.1294;-0.5610;
1248.3000;0.1319;-0.5560;
1248.6000;0.1262;-0.5735;
1248.9000;0.1278;-0.5685;
1249.2000;0.1286;-0.5610;
1249.5000;0.1294;-0.5610;
1249.8000;0.1302;-0.5635;
1250.1000;0.1286;-0.5635;
1250.4000;0.1327;-0.5560;
1250.7000;0.1319;-0.5610;
1251.0000;0.1294;-0.5610;
1251.3000;0.1270;-0.5660;
1251.6000;0.1278;-0.5660;
1251.9000;0.1368;-0.5460;
1252.2000;0.1286;-0.5735;
1252.5000;0.1278;-0.5710;
1252.8000;0.1278;-0.5760;
1253.1000;0.1302;-0.5810;
1253.4000;0.1319;-0.5810;
1253.7000;0.1294;-0.5909;
1254.0000;0.1311;-0.5810;
1254.3000;0.1286;-0.5760;
1254.6000;0.1311;-0.5610;
1254.9000;0.1286;-0.5660;
1255.2000;0.1311;-0.5585;
1255.5000;0.1278;-0.5585;
1255.8000;0.1294;-0.5635;
1256.1000;0.1311;-0.5635;
1256.4000;0.1311;-0.5610;
1256.7000;0.1311;-0.5685;
1257.0000;0.1311;-0.5610;
1257.3000;0.1254;-0.5810;
1257.6000;0.1368;-0.5585;
1257.9000;0.1294;-0.5810;
1258.2000;0.1270;-0.5934;
1258.5000;0.1311;-0.5934;
1258.8000;0.1302;-0.5909;
1259.1000;0.1319;-0.5785;
1259.4000;0.1302;-0.5810;
1259.7000;0.1302;-0.5810;
1260.0000;0.1302;-0.5810;
1260.3000;0.1335;-0.5760;
1260.6000;0.1311;-0.5834;
1260.9000;0.1311;-0.5735;
1261.2000;0.1335;-0.5510;
1261.5000;0.1302;-0.5685;
1261.8000;0.1278;-0.5710;
1262.1000;0.1302;-0.5660;
1262.4000;0.1286;-0.5760;
1262.7000;0.1270;-0.5859;
1263.0000;0.1302;-0.5710;
1263.3000;0.1311;-0.5610;
1263.6000;0.1311;-0.5560;
1263.9000;0.1311;-0.5510;
1264.2000;0.1302;-0.5535;
1264.5000;0.1311;-0.5560;
1264.8000;0.1302;-0.5610;
1265.1000;0.1311;-0.5635;
1265.4000;0.1286;-0.5710;
1265.7000;0.1294;-0.5735;
1266.0000;0.1311;-0.5660;
1266.3000;0.1311;-0.5685;
1266.6000;0.1286;-0.5834;
1266.9000;0.1294;-0.5760;
1267.2000;0.1302;-0.5810;
1267.5000;0.1294;-0.5834;
1267.8000;0.1294;-0.5884;
1268.1000;0.1245;-0.6034;
1268.4000;0.1319;-0.5810;
1268.7000;0.1286;-0.5934;
1269.0000;0.1351;-0.5685;
1269.3000;0.1286;-0.5859;
1269.6000;0.1294;-0.5859;
1269.9000;0.1302;-0.5859;
1270.2000;0.1302;-0.5760;
1270.5000;0.1302;-0.5610;
1270.8000;0.1294;-0.5660;
1271.1000;0.1286;-0.5710;
1271.4000;0.1319;-0.5685;
1271.7000;0.1278;-0.5834;
1272.0000;0.1278;-0.5859;
1272.3000;0.1302;-0.5884;
1272.6000;0.1311;-0.5859;
1272.9000;0.1294;-0.5859;
1273.2000;0.1286;-0.5884;
1273.5000;0.1294;-0.5834;
1273.8000;0.1294;-0.5785;
1274.1000;0.1286;-0.5909;
1274.4000;0.1286;-0.5909;
1274.7000;0.1302;-0.5859;
1275.0000;0.1311;-0.5810;
1275.3000;0.1319;-0.5735;
1275.6000;0.1302;-0.5735;
1275.9000;0.1294;-0.5760;
1276.2000;0.1237;-0.5959;
1276.5000;0.1278;-0.5859;
1276.8000;0.1294;-0.5909;
1277.1000;0.1278;-0.5909;
1277.4000;0.1294;-0.5884;
1277.7000;0.1294;-0.5785;
1278.0000;0.1270;-0.5859;
1278.3000;0.1278;-0.5834;
1278.6000;0.1294;-0.5710;
1278.9000;0.1278;-0.5735;
1279.2000;0.1368;-0.5460;
1279.5000;0.1286;-0.5660;
1279.8000;0.1311;-0.5735;
1280.1000;0.1311;-0.5760;
1280.4000;0.1294;-0.5785;
1280.7000;0.1286;-0.5810;
1281.0000;0.1294;-0.5834;
1281.3000;0.1294;-0.5834;
1281.6000;0.1278;-0.5810;
1281.9000;0.1294;-0.5810;
1282.2000;0.1286;-0.5810;
1282.5000;0.1311;-0.5785;
1282.8000;0.1294;-0.5834;
1283.1000;0.1294;-0.5785;
1283.4000;0.1286;-0.5834;
1283.7000;0.1270;-0.5810;
1284.0000;0.1302;-0.5610;
1284.3000;0.1319;-0.5585;
1284.6000;0.1278;-0.5685;
1284.9000;0.1294;-0.5660;
1285.2000;0.1311;-0.5660;
1285.5000;0.1311;-0.5710;
1285.8000;0.1294;-0.5834;
1286.1000;0.1286;-0.5909;
1286.4000;0.1311;-0.5834;
1286.7000;0.1294;-0.5959;
1287.0000;0.1319;-0.5909;
1287.3000;0.1278;-0.5959;
1287.6000;0.1286;-0.5909;
1287.9000;0.1294;-0.5909;
1288.2000;0.1278;-0.5909;
1288.5000;0.1270;-0.5884;
1288.8000;0.1294;-0.5909;
1289.1000;0.1335;-0.5785;
1289.4000;0.1376;-0.5610;
1289.7000;0.1221;-0.6109;
1290.0000;0.1311;-0.5810;
1290.3000;0.1278;-0.5909;
1290.6000;0.1286;-0.5834;
1290.9000;0.1229;-0.5909;
1291.2000;0.1286;-0.5710;
1291.5000;0.1278;-0.5760;
1291.8000;0.1294;-0.5760;
1292.1000;0.1286;-0.5785;
1292.4000;0.1278;-0.5710;
1292.7000;0.1302;-0.5710;
1293.0000;0.1319;-0.5585;
1293.3000;0.1278;-0.5685;
1293.6000;0.1302;-0.5585;
1293.9000;0.1286;-0.5610;
1294.2000;0.1270;-0.5635;
1294.5000;0.1286;-0.5660;
1294.8000;0.1286;-0.5660;
1295.1000;0.1278;-0.5660;
1295.4000;0.1286;-0.5660;
1295.7000;0.1278;-0.5685;
1296.0000;0.1294;-0.5660;
1296.3000;0.1294;-0.5660;
1296.6000;0.1294;-0.5610;
1296.9000;0.1302;-0.5610;
1297.2000;0.1294;-0.5710;
1297.5000;0.1294;-0.5735;
1297.8000;0.1302;-0.5660;
1298.1000;0.1294;-0.5710;
1298.4000;0.1351;-0.5560;
1298.7000;0.1278;-0.5710;
1299.0000;0.1311;-0.5685;
1299.3000;0.1319;-0.5685;
1299.6000;0.1294;-0.5685;
1299.9000;0.1311;-0.5760;
1300.2000;0.1311;-0.5710;
1300.5000;0.1327;-0.5685;
1300.8000;0.1294;-0.5735;
1301.1000;0.1368;-0.5560;
1301.4000;0.1302;-0.5685;
1301.7000;0.1319;-0.5685;
1302.0000;0.1302;-0.5735;
1302.3000;0.1311;-0.5760;
1302.6000;0.1302;-0.5810;
1302.9000;0.1311;-0.5909;
1303.2000;0.1319;-0.5834;
1303.5000;0.1302;-0.5834;
1303.8000;0.1278;-0.5859;
1304.1000;0.1294;-0.5785;
1304.4000;0.1270;-0.5710;
1304.7000;0.1294;-0.5635;
1305.0000;0.1286;-0.5685;
1305.3000;0.1286;-0.5710;
1305.6000;0.1302;-0.5660;
1305.9000;0.1278;-0.5710;
1306.2000;0.1270;-0.5710;
1306.5000;0.1229;-0.5934;
1306.8000;0.1286;-0.5810;
1307.1000;0.1278;-0.5934;
1307.4000;0.1311;-0.5884;
1307.7000;0.1294;-0.5810;
1308.0000;0.1294;-0.5760;
1308.3000;0.1294;-0.5760;
1308.6000;0.1278;-0.5785;
1308.9000;0.1278;-0.5785;
1309.2000;0.1294;-0.5760;
1309.5000;0.1294;-0.5710;
1309.8000;0.1286;-0.5710;
1310.1000;0.1278;-0.5660;
1310.4000;0.1311;-0.5535;
1310.7000;0.1286;-0.5710;
1311.0000;0.1302;-0.5660;
1311.3000;0.1311;-0.5635;
1311.6000;0.1278;-0.5760;
1311.9000;0.1311;-0.5635;
1312.2000;0.1302;-0.5685;
1312.5000;0.1278;-0.5710;
1312.8000;0.1294;-0.5660;
1313.1000;0.1254;-0.5810;
1313.4000;0.1302;-0.5735;
1313.7000;0.1302;-0.5735;
1314.0000;0.1335;-0.5660;
1314.3000;0.1302;-0.5685;
1314.6000;0.1270;-0.5660;
1314.9000;0.1294;-0.5610;
1315.2000;0.1294;-0.5610;
1315.5000;0.1302;-0.5635;
1315.8000;0.1294;-0.5635;
1316.1000;0.1302;-0.5660;
1316.4000;0.1311;-0.5685;
1316.7000;0.1294;-0.5735;
1317.0000;0.1319;-0.5685;
1317.3000;0.1286;-0.5834;
1317.6000;0.1294;-0.5760;
1317.9000;0.1286;-0.5760;
1318.2000;0.1302;-0.5710;
1318.5000;0.1294;-0.5660;
1318.8000;0.1311;-0.5560;
1319.1000;0.1286;-0.5635;
1319.4000;0.1294;-0.5635;
1319.7000;0.1294;-0.5585;
1320.0000;0.1311;-0.5485;
1320.3000;0.1302;-0.5460;
1320.6000;0.1294;-0.5485;
1320.9000;0.1302;-0.5560;
1321.2000;0.1294;-0.5535;
1321.5000;0.1286;-0.5510;
1321.8000;0.1286;-0.5485;
1322.1000;0.1302;-0.5535;
1322.4000;0.1294;-0.5610;
1322.7000;0.1294;-0.5735;
1323.0000;0.1278;-0.5959;
1323.3000;0.1294;-0.5959;
1323.6000;0.1311;-0.5859;
1323.9000;0.1286;-0.5934;
1324.2000;0.1270;-0.5984;
1324.5000;0.1311;-0.5834;
1324.8000;0.1270;-0.5909;
1325.1000;0.1294;-0.5909;
1325.4000;0.1311;-0.5884;
1325.7000;0.1302;-0.5984;
1326.0000;0.1302;-0.5984;
1326.3000;0.1278;-0.6084;
1326.6000;0.1286;-0.6084;
1326.9000;0.1311;-0.5959;
1327.2000;0.1302;-0.5909;
1327.5000;0.1302;-0.5884;
1327.8000;0.1286;-0.5934;
1328.1000;0.1262;-0.5984;
1328.4000;0.1327;-0.5785;
1328.7000;0.1278;-0.5909;
1329.0000;0.1278;-0.5959;
1329.3000;0.1262;-0.5984;
1329.6000;0.1262;-0.6034;
1329.9000;0.1319;-0.5959;
1330.2000;0.1286;-0.6009;
1330.5000;0.1335;-0.5909;
1330.8000;0.1302;-0.5984;
1331.1000;0.1302;-0.5959;
1331.4000;0.1294;-0.5959;
1331.7000;0.1286;-0.5884;
1332.0000;0.1302;-0.5859;
1332.3000;0.1327;-0.5735;
1332.6000;0.1302;-0.5785;
1332.9000;0.1278;-0.5859;
1333.2000;0.1294;-0.5785;
1333.5000;0.1294;-0.5859;
1333.8000;0.1286;-0.5834;
1334.1000;0.1302;-0.5760;
1334.4000;0.1294;-0.5884;
1334.7000;0.1311;-0.5859;
1335.0000;0.1278;-0.5934;
1335.3000;0.1286;-0.5934;
1335.6000;0.1294;-0.5959;
1335.9000;0.1327;-0.5959;
1336.2000;0.1319;-0.5909;
1336.5000;0.1294;-0.5959;
1336.8000;0.1294;-0.5760;
1337.1000;0.1302;-0.5710;
1337.4000;0.1270;-0.5785;
1337.7000;0.1294;-0.5760;
1338.0000;0.1302;-0.5785;
1338.3000;0.1270;-0.5859;
1338.6000;0.1302;-0.5710;
1338.9000;0.1229;-0.5934;
1339.2000;0.1294;-0.5884;
1339.5000;0.1319;-0.5810;
1339.8000;0.1311;-0.5785;
1340.1000;0.1319;-0.5810;
1340.4000;0.1294;-0.5760;
1340.7000;0.1286;-0.5785;
1341.0000;0.1302;-0.5735;
1341.3000;0.1327;-0.5760;
1341.6000;0.1319;-0.5760;
1341.9000;0.1311;-0.5735;
1342.2000;0.1319;-0.5685;
1342.5000;0.1302;-0.5760;
1342.8000;0.1294;-0.5760;
1343.1000;0.1270;-0.5810;
1343.4000;0.1294;-0.5785;
1343.7000;0.1319;-0.5810;
1344.0000;0.1294;-0.5735;
1344.3000;0.1286;-0.5735;
1344.6000;0.1286;-0.5859;
1344.9000;0.1311;-0.5934;
1345.2000;0.1319;-0.5934;
1345.5000;0.1319;-0.5959;
1345.8000;0.1302;-0.5934;
1346.1000;0.1311;-0.5909;
1346.4000;0.1311;-0.5934;
1346.7000;0.1286;-0.5984;
1347.0000;0.1270;-0.6059;
1347.3000;0.1294;-0.5984;
1347.6000;0.1286;-0.6009;
1347.9000;0.1254;-0.6059;
1348.2000;0.1197;-0.6233;
1348.5000;0.1294;-0.5859;
1348.8000;0.1311;-0.5909;
1349.1000;0.1319;-0.5859;
1349.4000;0.1270;-0.5934;
1349.7000;0.1294;-0.5884;
1350.0000;0.1368;-0.5710;
1350.3000;0.1270;-0.5884;
1350.6000;0.1302;-0.5884;
1350.9000;0.1302;-0.5959;
1351.2000;0.1400;-0.5710;
1351.5000;0.1229;-0.6059;
1351.8000;0.1302;-0.5785;
1352.1000;0.1270;-0.5785;
1352.4000;0.1319;-0.5635;
1352.7000;0.1221;-0.5810;
1353.0000;0.1286;-0.5610;
1353.3000;0.1311;-0.5560;
1353.6000;0.1262;-0.5760;
1353.9000;0.1286;-0.5810;
1354.2000;0.1311;-0.5810;
1354.5000;0.1302;-0.5810;
1354.8000;0.1294;-0.5834;
1355.1000;0.1311;-0.5810;
1355.4000;0.1294;-0.5785;
1355.7000;0.1327;-0.5660;
1356.0000;0.1294;-0.5685;
1356.3000;0.1335;-0.5560;
1356.6000;0.1294;-0.5585;
1356.9000;0.1286;-0.5635;
1357.2000;0.1286;-0.5585;
1357.5000;0.1302;-0.5485;
1357.8000;0.1294;-0.5585;
1358.1000;0.1278;-0.5685;
1358.4000;0.1278;-0.5735;
1358.7000;0.1262;-0.5735;
1359.0000;0.1343;-0.5535;
1359.3000;0.1302;-0.5735;
1359.6000;0.1327;-0.5859;
1359.9000;0.1302;-0.6059;
1360.2000;0.1327;-0.5909;
1360.5000;0.1311;-0.5909;
1360.8000;0.1294;-0.5984;
1361.1000;0.1286;-0.6009;
1361.4000;0.1302;-0.6059;
1361.7000;0.1286;-0.6009;
1362.0000;0.1278;-0.6034;
1362.3000;0.1286;-0.6034;
1362.6000;0.1294;-0.6009;
1362.9000;0.1286;-0.6034;
1363.2000;0.1270;-0.6084;
1363.5000;0.1302;-0.5959;
1363.8000;0.1294;-0.5959;
1364.1000;0.1254;-0.6034;
1364.4000;0.1262;-0.5959;
1364.7000;0.1262;-0.5909;
1365.0000;0.1294;-0.5884;
1365.3000;0.1254;-0.6009;
1365.6000;0.1302;-0.5884;
1365.9000;0.1270;-0.5884;
1366.2000;0.1245;-0.6034;
1366.5000;0.1294;-0.5884;
1366.8000;0.1294;-0.5810;
1367.1000;0.1262;-0.5859;
1367.4000;0.1270;-0.5884;
1367.7000;0.1294;-0.5859;
1368.0000;0.1213;-0.5959;
1368.3000;0.1270;-0.5909;
1368.6000;0.1270;-0.5934;
1368.9000;0.1278;-0.5884;
1369.2000;0.1351;-0.5610;
1369.5000;0.1294;-0.5785;
1369.8000;0.1294;-0.5810;
1370.1000;0.1311;-0.5735;
1370.4000;0.1302;-0.5785;
1370.7000;0.1294;-0.5810;
1371.0000;0.1327;-0.5834;
1371.3000;0.1302;-0.5884;
1371.6000;0.1294;-0.5859;
1371.9000;0.1270;-0.5934;
1372.2000;0.1376;-0.5660;
1372.5000;0.1278;-0.5934;
1372.8000;0.1294;-0.5859;
1373.1000;0.1270;-0.5884;
1373.4000;0.1278;-0.5859;
1373.7000;0.1262;-0.5884;
1374.0000;0.1294;-0.5834;
1374.3000;0.1311;-0.5785;
1374.6000;0.1286;-0.5909;
1374.9000;0.1270;-0.5884;
1375.2000;0.1286;-0.5859;
1375.5000;0.1343;-0.5660;
1375.8000;0.1302;-0.5785;
1376.1000;0.1311;-0.5760;
1376.4000;0.1311;-0.5610;
1376.7000;0.1294;-0.5660;
1377.0000;0.1311;-0.5660;
1377.3000;0.1286;-0.5660;
1377.6000;0.1262;-0.5760;
1377.9000;0.1302;-0.5660;
1378.2000;0.1245;-0.5884;
1378.5000;0.1278;-0.5785;
1378.8000;0.1294;-0.5735;
1379.1000;0.1294;-0.5710;
1379.4000;0.1302;-0.5735;
1379.7000;0.1286;-0.5760;
1380.0000;0.1278;-0.5710;
1380.3000;0.1270;-0.5685;
1380.6000;0.1294;-0.5660;
1380.9000;0.1319;-0.5635;
1381.2000;0.1294;-0.5785;
1381.5000;0.1302;-0.5834;
1381.8000;0.1302;-0.5785;
1382.1000;0.1254;-0.5959;
1382.4000;0.1311;-0.5834;
1382.7000;0.1302;-0.5810;
1383.0000;0.1311;-0.5735;
1383.3000;0.1302;-0.5710;
1383.6000;0.1278;-0.5660;
1383.9000;0.1311;-0.5660;
1384.2000;0.1294;-0.5610;
1384.5000;0.1302;-0.5660;
1384.8000;0.1311;-0.5710;
1385.1000;0.1302;-0.5610;
1385.4000;0.1294;-0.5560;
1385.7000;0.1294;-0.5485;
1386.0000;0.1286;-0.5510;
1386.3000;0.1286;-0.5485;
1386.6000;0.1294;-0.5535;
1386.9000;0.1294;-0.5535;
1387.2000;0.1302;-0.5560;
1387.5000;0.1311;-0.5610;
1387.8000;0.1294;-0.5735;
1388.1000;0.1302;-0.5660;
1388.4000;0.1294;-0.5710;
1388.7000;0.1278;-0.5735;
1389.0000;0.1294;-0.5560;
1389.3000;0.1319;-0.5485;
1389.6000;0.1311;-0.5510;
1389.9000;0.1294;-0.5485;
1390.2000;0.1229;-0.5735;
1390.5000;0.1286;-0.5535;
1390.8000;0.1311;-0.5485;
1391.1000;0.1311;-0.5485;
1391.4000;0.1294;-0.5560;
1391.7000;0.1294;-0.5560;
1392.0000;0.1294;-0.5585;
1392.3000;0.1294;-0.5535;
1392.6000;0.1302;-0.5535;
1392.9000;0.1286;-0.5610;
1393.2000;0.1286;-0.5510;
1393.5000;0.1278;-0.5585;
1393.8000;0.1286;-0.5485;
1394.1000;0.1302;-0.5610;
1394.4000;0.1294;-0.5635;
1394.7000;0.1286;-0.5710;
1395.0000;0.1311;-0.5660;
1395.3000;0.1278;-0.5710;
1395.6000;0.1311;-0.5685;
1395.9000;0.1302;-0.5610;
1396.2000;0.1294;-0.5610;
1396.5000;0.1294;-0.5560;
1396.8000;0.1286;-0.5560;
1397.1000;0.1302;-0.5535;
1397.4000;0.1294;-0.5585;
1397.7000;0.1302;-0.5660;
1398.0000;0.1294;-0.5635;
1398.3000;0.1294;-0.5560;
1398.6000;0.1302;-0.5560;
1398.9000;0.1294;-0.5660;
1399.2000;0.1278;-0.5735;
1399.5000;0.1294;-0.5635;
1399.8000;0.1343;-0.5510;
