time/ms;Fluo/V;P700 deltaI/I x10³;
-199.8000;0.1351;-0.4388;
-199.5000;0.1311;-0.4388;
-199.2000;0.1351;-0.4289;
-198.9000;0.1384;-0.4264;
-198.6000;0.1368;-0.4214;
-198.3000;0.1376;-0.4239;
-198.0000;0.1351;-0.4314;
-197.7000;0.1343;-0.4239;
-197.4000;0.1351;-0.4164;
-197.1000;0.1359;-0.4189;
-196.8000;0.1368;-0.4214;
-196.5000;0.1343;-0.4289;
-196.2000;0.1359;-0.4214;
-195.9000;0.1368;-0.4189;
-195.6000;0.1343;-0.4239;
-195.3000;0.1343;-0.4264;
-195.0000;0.1335;-0.4314;
-194.7000;0.1359;-0.4314;
-194.4000;0.1351;-0.4388;
-194.1000;0.1359;-0.4438;
-193.8000;0.1343;-0.4438;
-193.5000;0.1359;-0.4363;
-193.2000;0.1343;-0.4413;
-192.9000;0.1351;-0.4388;
-192.6000;0.1359;-0.4289;
-192.3000;0.1351;-0.4314;
-192.0000;0.1351;-0.4363;
-191.7000;0.1343;-0.4338;
-191.4000;0.1351;-0.4338;
-191.1000;0.1359;-0.4289;
-190.8000;0.1368;-0.4289;
-190.5000;0.1343;-0.4363;
-190.2000;0.1270;-0.4613;
-189.9000;0.1335;-0.4388;
-189.6000;0.1384;-0.4314;
-189.3000;0.1351;-0.4239;
-189.0000;0.1343;-0.4239;
-188.7000;0.1351;-0.4289;
-188.4000;0.1359;-0.4289;
-188.1000;0.1343;-0.4363;
-187.8000;0.1368;-0.4289;
-187.5000;0.1343;-0.4388;
-187.2000;0.1294;-0.4488;
-186.9000;0.1351;-0.4388;
-186.6000;0.1294;-0.4638;
-186.3000;0.1343;-0.4438;
-186.0000;0.1294;-0.4613;
-185.7000;0.1400;-0.4289;
-185.4000;0.1351;-0.4314;
-185.1000;0.1359;-0.4214;
-184.8000;0.1270;-0.4438;
-184.5000;0.1327;-0.4239;
-184.2000;0.1351;-0.4214;
-183.9000;0.1343;-0.4164;
-183.6000;0.1384;-0.4214;
-183.3000;0.1335;-0.4413;
-183.0000;0.1368;-0.4239;
-182.7000;0.1351;-0.4363;
-182.4000;0.1351;-0.4413;
-182.1000;0.1359;-0.4388;
-181.8000;0.1359;-0.4239;
-181.5000;0.1359;-0.4189;
-181.2000;0.1311;-0.4264;
-180.9000;0.1359;-0.4114;
-180.6000;0.1359;-0.4064;
-180.3000;0.1351;-0.4089;
-180.0000;0.1416;-0.3964;
-179.7000;0.1368;-0.4114;
-179.4000;0.1368;-0.4089;
-179.1000;0.1359;-0.4164;
-178.8000;0.1327;-0.4388;
-178.5000;0.1368;-0.4289;
-178.2000;0.1351;-0.4338;
-177.9000;0.1327;-0.4314;
-177.6000;0.1351;-0.4363;
-177.3000;0.1327;-0.4388;
-177.0000;0.1343;-0.4289;
-176.7000;0.1351;-0.4314;
-176.4000;0.1327;-0.4413;
-176.1000;0.1327;-0.4264;
-175.8000;0.1359;-0.4214;
-175.5000;0.1319;-0.4338;
-175.2000;0.1359;-0.4214;
-174.9000;0.1368;-0.4214;
-174.6000;0.1368;-0.4114;
-174.3000;0.1311;-0.4289;
-174.0000;0.1327;-0.4239;
-173.7000;0.1343;-0.4214;
-173.4000;0.1278;-0.4289;
-173.1000;0.1359;-0.4139;
-172.8000;0.1327;-0.4239;
-172.5000;0.1351;-0.4164;
-172.2000;0.1319;-0.4289;
-171.9000;0.1376;-0.4239;
-171.6000;0.1359;-0.4264;
-171.3000;0.1343;-0.4289;
-171.0000;0.1425;-0.4089;
-170.7000;0.1368;-0.4164;
-170.4000;0.1359;-0.4189;
-170.1000;0.1408;-0.4014;
-169.8000;0.1384;-0.4064;
-169.5000;0.1384;-0.4064;
-169.2000;0.1376;-0.4114;
-168.9000;0.1343;-0.4164;
-168.6000;0.1335;-0.4214;
-168.3000;0.1343;-0.4388;
-168.0000;0.1351;-0.4314;
-167.7000;0.1335;-0.4289;
-167.4000;0.1368;-0.4114;
-167.1000;0.1384;-0.3964;
-166.8000;0.1343;-0.4164;
-166.5000;0.1343;-0.4214;
-166.2000;0.1319;-0.4438;
-165.9000;0.1335;-0.4314;
-165.6000;0.1351;-0.4264;
-165.3000;0.1416;-0.4214;
-165.0000;0.1302;-0.4563;
-164.7000;0.1351;-0.4363;
-164.4000;0.1416;-0.4214;
-164.1000;0.1359;-0.4513;
-163.8000;0.1343;-0.4538;
-163.5000;0.1343;-0.4613;
-163.2000;0.1327;-0.4538;
-162.9000;0.1376;-0.4438;
-162.6000;0.1351;-0.4488;
-162.3000;0.1351;-0.4538;
-162.0000;0.1327;-0.4538;
-161.7000;0.1368;-0.4463;
-161.4000;0.1327;-0.4363;
-161.1000;0.1359;-0.4239;
-160.8000;0.1359;-0.4289;
-160.5000;0.1376;-0.4264;
-160.2000;0.1384;-0.4214;
-159.9000;0.1335;-0.4314;
-159.6000;0.1359;-0.4289;
-159.3000;0.1359;-0.4264;
-159.0000;0.1351;-0.4214;
-158.7000;0.1327;-0.4314;
-158.4000;0.1343;-0.4363;
-158.1000;0.1319;-0.4413;
-157.8000;0.1343;-0.4264;
-157.5000;0.1343;-0.4264;
-157.2000;0.1335;-0.4338;
-156.9000;0.1343;-0.4388;
-156.6000;0.1376;-0.4388;
-156.3000;0.1425;-0.4338;
-156.0000;0.1351;-0.4463;
-155.7000;0.1368;-0.4463;
-155.4000;0.1359;-0.4388;
-155.1000;0.1319;-0.4488;
-154.8000;0.1368;-0.4388;
-154.5000;0.1384;-0.4289;
-154.2000;0.1351;-0.4388;
-153.9000;0.1319;-0.4513;
-153.6000;0.1311;-0.4563;
-153.3000;0.1351;-0.4488;
-153.0000;0.1302;-0.4638;
-152.7000;0.1359;-0.4463;
-152.4000;0.1343;-0.4438;
-152.1000;0.1433;-0.4139;
-151.8000;0.1359;-0.4314;
-151.5000;0.1327;-0.4338;
-151.2000;0.1302;-0.4338;
-150.9000;0.1368;-0.4214;
-150.6000;0.1335;-0.4264;
-150.3000;0.1425;-0.4039;
-150.0000;0.1359;-0.4289;
-149.7000;0.1351;-0.4214;
-149.4000;0.1335;-0.4239;
-149.1000;0.1368;-0.4189;
-148.8000;0.1359;-0.4214;
-148.5000;0.1335;-0.4214;
-148.2000;0.1351;-0.4189;
-147.9000;0.1351;-0.4164;
-147.6000;0.1335;-0.4264;
-147.3000;0.1335;-0.4264;
-147.0000;0.1327;-0.4264;
-146.7000;0.1343;-0.4164;
-146.4000;0.1359;-0.4114;
-146.1000;0.1286;-0.4289;
-145.8000;0.1351;-0.4089;
-145.5000;0.1343;-0.4039;
-145.2000;0.1351;-0.4064;
-144.9000;0.1335;-0.4114;
-144.6000;0.1449;-0.3915;
-144.3000;0.1359;-0.4164;
-144.0000;0.1343;-0.4264;
-143.7000;0.1359;-0.4239;
-143.4000;0.1359;-0.4139;
-143.1000;0.1392;-0.3989;
-142.8000;0.1465;-0.3765;
-142.5000;0.1343;-0.4164;
-142.2000;0.1384;-0.4164;
-141.9000;0.1376;-0.4189;
-141.6000;0.1384;-0.4139;
-141.3000;0.1351;-0.4164;
-141.0000;0.1376;-0.4189;
-140.7000;0.1400;-0.4039;
-140.4000;0.1368;-0.4089;
-140.1000;0.1368;-0.4014;
-139.8000;0.1416;-0.3865;
-139.5000;0.1343;-0.4139;
-139.2000;0.1368;-0.4139;
-138.9000;0.1359;-0.4164;
-138.6000;0.1351;-0.4139;
-138.3000;0.1368;-0.4089;
-138.0000;0.1368;-0.4089;
-137.7000;0.1368;-0.4064;
-137.4000;0.1368;-0.4039;
-137.1000;0.1335;-0.4239;
-136.8000;0.1359;-0.4239;
-136.5000;0.1368;-0.4289;
-136.2000;0.1351;-0.4214;
-135.9000;0.1368;-0.4314;
-135.6000;0.1408;-0.4164;
-135.3000;0.1351;-0.4338;
-135.0000;0.1368;-0.4314;
-134.7000;0.1343;-0.4438;
-134.4000;0.1343;-0.4388;
-134.1000;0.1351;-0.4338;
-133.8000;0.1343;-0.4338;
-133.5000;0.1376;-0.4264;
-133.2000;0.1359;-0.4239;
-132.9000;0.1351;-0.4289;
-132.6000;0.1351;-0.4264;
-132.3000;0.1368;-0.4338;
-132.0000;0.1359;-0.4438;
-131.7000;0.1368;-0.4388;
-131.4000;0.1376;-0.4264;
-131.1000;0.1343;-0.4289;
-130.8000;0.1359;-0.4314;
-130.5000;0.1343;-0.4413;
-130.2000;0.1359;-0.4363;
-129.9000;0.1368;-0.4438;
-129.6000;0.1327;-0.4513;
-129.3000;0.1359;-0.4388;
-129.0000;0.1343;-0.4363;
-128.7000;0.1351;-0.4413;
-128.4000;0.1368;-0.4289;
-128.1000;0.1343;-0.4314;
-127.8000;0.1351;-0.4338;
-127.5000;0.1294;-0.4438;
-127.2000;0.1319;-0.4463;
-126.9000;0.1368;-0.4338;
-126.6000;0.1343;-0.4488;
-126.3000;0.1351;-0.4388;
-126.0000;0.1384;-0.4264;
-125.7000;0.1449;-0.4064;
-125.4000;0.1335;-0.4413;
-125.1000;0.1351;-0.4338;
-124.8000;0.1368;-0.4239;
-124.5000;0.1327;-0.4314;
-124.2000;0.1319;-0.4289;
-123.9000;0.1351;-0.4239;
-123.6000;0.1343;-0.4363;
-123.3000;0.1359;-0.4363;
-123.0000;0.1343;-0.4363;
-122.7000;0.1327;-0.4314;
-122.4000;0.1400;-0.4214;
-122.1000;0.1319;-0.4413;
-121.8000;0.1351;-0.4388;
-121.5000;0.1351;-0.4338;
-121.2000;0.1351;-0.4363;
-120.9000;0.1343;-0.4488;
-120.6000;0.1343;-0.4563;
-120.3000;0.1335;-0.4588;
-120.0000;0.1359;-0.4538;
-119.7000;0.1319;-0.4613;
-119.4000;0.1335;-0.4538;
-119.1000;0.1359;-0.4413;
-118.8000;0.1351;-0.4388;
-118.5000;0.1351;-0.4363;
-118.2000;0.1359;-0.4363;
-117.9000;0.1343;-0.4413;
-117.6000;0.1351;-0.4438;
-117.3000;0.1359;-0.4488;
-117.0000;0.1351;-0.4513;
-116.7000;0.1343;-0.4513;
-116.4000;0.1351;-0.4463;
-116.1000;0.1359;-0.4538;
-115.8000;0.1351;-0.4513;
-115.5000;0.1343;-0.4513;
-115.2000;0.1359;-0.4463;
-114.9000;0.1376;-0.4413;
-114.6000;0.1359;-0.4438;
-114.3000;0.1376;-0.4289;
-114.0000;0.1359;-0.4314;
-113.7000;0.1343;-0.4338;
-113.4000;0.1343;-0.4289;
-113.1000;0.1351;-0.4264;
-112.8000;0.1335;-0.4363;
-112.5000;0.1351;-0.4388;
-112.2000;0.1351;-0.4338;
-111.9000;0.1343;-0.4363;
-111.6000;0.1335;-0.4289;
-111.3000;0.1368;-0.4264;
-111.0000;0.1368;-0.4314;
-110.7000;0.1359;-0.4314;
-110.4000;0.1343;-0.4363;
-110.1000;0.1351;-0.4314;
-109.8000;0.1359;-0.4363;
-109.5000;0.1351;-0.4388;
-109.2000;0.1335;-0.4363;
-108.9000;0.1351;-0.4413;
-108.6000;0.1343;-0.4363;
-108.3000;0.1302;-0.4463;
-108.0000;0.1335;-0.4388;
-107.7000;0.1319;-0.4488;
-107.4000;0.1335;-0.4463;
-107.1000;0.1359;-0.4463;
-106.8000;0.1343;-0.4538;
-106.5000;0.1351;-0.4438;
-106.2000;0.1351;-0.4413;
-105.9000;0.1351;-0.4314;
-105.6000;0.1335;-0.4338;
-105.3000;0.1359;-0.4388;
-105.0000;0.1359;-0.4463;
-104.7000;0.1351;-0.4413;
-104.4000;0.1359;-0.4363;
-104.1000;0.1343;-0.4388;
-103.8000;0.1335;-0.4338;
-103.5000;0.1351;-0.4314;
-103.2000;0.1335;-0.4388;
-102.9000;0.1351;-0.4314;
-102.6000;0.1351;-0.4338;
-102.3000;0.1351;-0.4438;
-102.0000;0.1408;-0.4413;
-101.7000;0.1351;-0.4563;
-101.4000;0.1351;-0.4513;
-101.1000;0.1319;-0.4638;
-100.8000;0.1359;-0.4538;
-100.5000;0.1368;-0.4538;
-100.2000;0.1392;-0.4488;
-99.9000;0.1278;-0.4862;
-99.6000;0.1376;-0.4638;
-99.3000;0.1351;-0.4712;
-99.0000;0.1343;-0.4613;
-98.7000;0.1327;-0.4563;
-98.4000;0.1343;-0.4538;
-98.1000;0.1343;-0.4538;
-97.8000;0.1351;-0.4463;
-97.5000;0.1327;-0.4463;
-97.2000;0.1368;-0.4363;
-96.9000;0.1343;-0.4513;
-96.6000;0.1351;-0.4463;
-96.3000;0.1327;-0.4513;
-96.0000;0.1400;-0.4363;
-95.7000;0.1351;-0.4413;
-95.4000;0.1359;-0.4338;
-95.1000;0.1351;-0.4388;
-94.8000;0.1343;-0.4239;
-94.5000;0.1368;-0.4164;
-94.2000;0.1351;-0.4189;
-93.9000;0.1343;-0.4189;
-93.6000;0.1359;-0.4214;
-93.3000;0.1335;-0.4289;
-93.0000;0.1327;-0.4363;
-92.7000;0.1319;-0.4513;
-92.4000;0.1319;-0.4463;
-92.1000;0.1335;-0.4363;
-91.8000;0.1351;-0.4363;
-91.5000;0.1343;-0.4289;
-91.2000;0.1343;-0.4338;
-90.9000;0.1359;-0.4314;
-90.6000;0.1359;-0.4388;
-90.3000;0.1376;-0.4363;
-90.0000;0.1351;-0.4388;
-89.7000;0.1359;-0.4488;
-89.4000;0.1368;-0.4563;
-89.1000;0.1359;-0.4563;
-88.8000;0.1392;-0.4488;
-88.5000;0.1351;-0.4563;
-88.2000;0.1351;-0.4538;
-87.9000;0.1343;-0.4538;
-87.6000;0.1343;-0.4563;
-87.3000;0.1343;-0.4488;
-87.0000;0.1327;-0.4563;
-86.7000;0.1351;-0.4588;
-86.4000;0.1359;-0.4588;
-86.1000;0.1359;-0.4563;
-85.8000;0.1376;-0.4588;
-85.5000;0.1351;-0.4663;
-85.2000;0.1359;-0.4563;
-84.9000;0.1351;-0.4513;
-84.6000;0.1343;-0.4513;
-84.3000;0.1351;-0.4513;
-84.0000;0.1359;-0.4513;
-83.7000;0.1351;-0.4538;
-83.4000;0.1335;-0.4588;
-83.1000;0.1359;-0.4613;
-82.8000;0.1359;-0.4663;
-82.5000;0.1400;-0.4538;
-82.2000;0.1351;-0.4563;
-81.9000;0.1351;-0.4538;
-81.6000;0.1343;-0.4588;
-81.3000;0.1351;-0.4538;
-81.0000;0.1327;-0.4513;
-80.7000;0.1311;-0.4563;
-80.4000;0.1359;-0.4488;
-80.1000;0.1335;-0.4438;
-79.8000;0.1351;-0.4413;
-79.5000;0.1351;-0.4488;
-79.2000;0.1351;-0.4538;
-78.9000;0.1351;-0.4513;
-78.6000;0.1343;-0.4488;
-78.3000;0.1359;-0.4513;
-78.0000;0.1351;-0.4438;
-77.7000;0.1351;-0.4438;
-77.4000;0.1343;-0.4463;
-77.1000;0.1351;-0.4413;
-76.8000;0.1359;-0.4438;
-76.5000;0.1368;-0.4488;
-76.2000;0.1359;-0.4538;
-75.9000;0.1351;-0.4588;
-75.6000;0.1351;-0.4588;
-75.3000;0.1343;-0.4488;
-75.0000;0.1392;-0.4488;
-74.7000;0.1351;-0.4588;
-74.4000;0.1335;-0.4613;
-74.1000;0.1359;-0.4463;
-73.8000;0.1359;-0.4488;
-73.5000;0.1343;-0.4563;
-73.2000;0.1376;-0.4538;
-72.9000;0.1359;-0.4588;
-72.6000;0.1335;-0.4588;
-72.3000;0.1302;-0.4688;
-72.0000;0.1335;-0.4563;
-71.7000;0.1376;-0.4413;
-71.4000;0.1376;-0.4289;
-71.1000;0.1368;-0.4289;
-70.8000;0.1302;-0.4463;
-70.5000;0.1343;-0.4413;
-70.2000;0.1408;-0.4264;
-69.9000;0.1359;-0.4413;
-69.6000;0.1327;-0.4314;
-69.3000;0.1343;-0.4289;
-69.0000;0.1343;-0.4264;
-68.7000;0.1311;-0.4338;
-68.4000;0.1319;-0.4363;
-68.1000;0.1359;-0.4314;
-67.8000;0.1327;-0.4314;
-67.5000;0.1319;-0.4363;
-67.2000;0.1343;-0.4289;
-66.9000;0.1343;-0.4289;
-66.6000;0.1343;-0.4289;
-66.3000;0.1359;-0.4338;
-66.0000;0.1351;-0.4388;
-65.7000;0.1351;-0.4388;
-65.4000;0.1359;-0.4363;
-65.1000;0.1351;-0.4338;
-64.8000;0.1351;-0.4363;
-64.5000;0.1351;-0.4338;
-64.2000;0.1351;-0.4438;
-63.9000;0.1368;-0.4363;
-63.6000;0.1425;-0.4189;
-63.3000;0.1359;-0.4363;
-63.0000;0.1392;-0.4289;
-62.7000;0.1343;-0.4289;
-62.4000;0.1359;-0.4314;
-62.1000;0.1351;-0.4413;
-61.8000;0.1335;-0.4488;
-61.5000;0.1376;-0.4363;
-61.2000;0.1359;-0.4463;
-60.9000;0.1359;-0.4463;
-60.6000;0.1359;-0.4388;
-60.3000;0.1368;-0.4363;
-60.0000;0.1311;-0.4488;
-59.7000;0.1359;-0.4388;
-59.4000;0.1351;-0.4413;
-59.1000;0.1351;-0.4388;
-58.8000;0.1376;-0.4413;
-58.5000;0.1351;-0.4488;
-58.2000;0.1351;-0.4438;
-57.9000;0.1327;-0.4513;
-57.6000;0.1351;-0.4438;
-57.3000;0.1343;-0.4513;
-57.0000;0.1351;-0.4488;
-56.7000;0.1359;-0.4463;
-56.4000;0.1343;-0.4488;
-56.1000;0.1343;-0.4463;
-55.8000;0.1343;-0.4363;
-55.5000;0.1368;-0.4289;
-55.2000;0.1384;-0.4189;
-54.9000;0.1359;-0.4239;
-54.6000;0.1343;-0.4214;
-54.3000;0.1359;-0.4363;
-54.0000;0.1343;-0.4363;
-53.7000;0.1343;-0.4338;
-53.4000;0.1359;-0.4314;
-53.1000;0.1335;-0.4314;
-52.8000;0.1359;-0.4338;
-52.5000;0.1343;-0.4413;
-52.2000;0.1359;-0.4338;
-51.9000;0.1351;-0.4413;
-51.6000;0.1359;-0.4363;
-51.3000;0.1343;-0.4363;
-51.0000;0.1351;-0.4314;
-50.7000;0.1376;-0.4314;
-50.4000;0.1376;-0.4289;
-50.1000;0.1351;-0.4438;
-49.8000;0.1368;-0.4413;
-49.5000;0.1368;-0.4388;
-49.2000;0.1368;-0.4438;
-48.9000;0.1384;-0.4438;
-48.6000;0.1319;-0.4588;
-48.3000;0.1343;-0.4513;
-48.0000;0.1327;-0.4513;
-47.7000;0.1351;-0.4289;
-47.4000;0.1359;-0.4264;
-47.1000;0.1343;-0.4214;
-46.8000;0.1343;-0.4214;
-46.5000;0.1351;-0.4214;
-46.2000;0.1286;-0.4314;
-45.9000;0.1343;-0.4114;
-45.6000;0.1359;-0.4114;
-45.3000;0.1368;-0.4089;
-45.0000;0.1351;-0.4114;
-44.7000;0.1368;-0.4114;
-44.4000;0.1376;-0.4239;
-44.1000;0.1335;-0.4388;
-43.8000;0.1351;-0.4338;
-43.5000;0.1335;-0.4438;
-43.2000;0.1359;-0.4463;
-42.9000;0.1359;-0.4513;
-42.6000;0.1359;-0.4463;
-42.3000;0.1368;-0.4363;
-42.0000;0.1368;-0.4363;
-41.7000;0.1351;-0.4463;
-41.4000;0.1416;-0.4338;
-41.1000;0.1343;-0.4413;
-40.8000;0.1359;-0.4488;
-40.5000;0.1376;-0.4413;
-40.2000;0.1481;-0.4114;
-39.9000;0.1368;-0.4338;
-39.6000;0.1359;-0.4363;
-39.3000;0.1359;-0.4289;
-39.0000;0.1359;-0.4314;
-38.7000;0.1368;-0.4214;
-38.4000;0.1343;-0.4314;
-38.1000;0.1359;-0.4363;
-37.8000;0.1343;-0.4338;
-37.5000;0.1302;-0.4363;
-37.2000;0.1376;-0.4139;
-36.9000;0.1351;-0.4164;
-36.6000;0.1311;-0.4214;
-36.3000;0.1351;-0.4139;
-36.0000;0.1416;-0.4039;
-35.7000;0.1311;-0.4214;
-35.4000;0.1376;-0.4114;
-35.1000;0.1351;-0.4139;
-34.8000;0.1359;-0.4089;
-34.5000;0.1343;-0.4089;
-34.2000;0.1359;-0.3964;
-33.9000;0.1351;-0.4214;
-33.6000;0.1368;-0.4239;
-33.3000;0.1335;-0.4289;
-33.0000;0.1351;-0.4314;
-32.7000;0.1245;-0.4588;
-32.4000;0.1359;-0.4314;
-32.1000;0.1343;-0.4363;
-31.8000;0.1343;-0.4413;
-31.5000;0.1351;-0.4338;
-31.2000;0.1351;-0.4363;
-30.9000;0.1359;-0.4438;
-30.6000;0.1351;-0.4463;
-30.3000;0.1343;-0.4438;
-30.0000;0.1359;-0.4413;
-29.7000;0.1327;-0.4563;
-29.4000;0.1376;-0.4413;
-29.1000;0.1359;-0.4438;
-28.8000;0.1368;-0.4413;
-28.5000;0.1368;-0.4239;
-28.2000;0.1359;-0.4314;
-27.9000;0.1343;-0.4338;
-27.6000;0.1343;-0.4338;
-27.3000;0.1343;-0.4338;
-27.0000;0.1368;-0.4239;
-26.7000;0.1343;-0.4264;
-26.4000;0.1351;-0.4214;
-26.1000;0.1343;-0.4264;
-25.8000;0.1294;-0.4413;
-25.5000;0.1335;-0.4289;
-25.2000;0.1368;-0.4239;
-24.9000;0.1368;-0.4214;
-24.6000;0.1335;-0.4264;
-24.3000;0.1327;-0.4338;
-24.0000;0.1343;-0.4363;
-23.7000;0.1319;-0.4388;
-23.4000;0.1351;-0.4338;
-23.1000;0.1351;-0.4338;
-22.8000;0.1327;-0.4338;
-22.5000;0.1351;-0.4314;
-22.2000;0.1327;-0.4289;
-21.9000;0.1302;-0.4363;
-21.6000;0.1335;-0.4314;
-21.3000;0.1335;-0.4338;
-21.0000;0.1343;-0.4338;
-20.7000;0.1359;-0.4413;
-20.4000;0.1351;-0.4538;
-20.1000;0.1368;-0.4538;
-19.8000;0.1359;-0.4538;
-19.5000;0.1384;-0.4388;
-19.2000;0.1327;-0.4438;
-18.9000;0.1351;-0.4463;
-18.6000;0.1376;-0.4388;
-18.3000;0.1343;-0.4463;
-18.0000;0.1359;-0.4388;
-17.7000;0.1384;-0.4338;
-17.4000;0.1425;-0.4164;
-17.1000;0.1359;-0.4363;
-16.8000;0.1359;-0.4438;
-16.5000;0.1351;-0.4438;
-16.2000;0.1359;-0.4513;
-15.9000;0.1359;-0.4438;
-15.6000;0.1368;-0.4438;
-15.3000;0.1270;-0.4663;
-15.0000;0.1319;-0.4588;
-14.7000;0.1368;-0.4413;
-14.4000;0.1416;-0.4264;
-14.1000;0.1351;-0.4338;
-13.8000;0.1335;-0.4363;
-13.5000;0.1392;-0.4363;
-13.2000;0.1368;-0.4538;
-12.9000;0.1351;-0.4488;
-12.6000;0.1302;-0.4613;
-12.3000;0.1343;-0.4388;
-12.0000;0.1327;-0.4214;
-11.7000;0.1311;-0.4338;
-11.4000;0.1408;-0.4114;
-11.1000;0.1343;-0.4338;
-10.8000;0.1351;-0.4363;
-10.5000;0.1351;-0.4363;
-10.2000;0.1376;-0.4338;
-9.9000;0.1351;-0.4488;
-9.6000;0.1368;-0.4438;
-9.3000;0.1392;-0.4338;
-9.0000;0.1368;-0.4338;
-8.7000;0.1351;-0.4314;
-8.4000;0.1343;-0.4264;
-8.1000;0.1416;-0.4114;
-7.8000;0.1359;-0.4264;
-7.5000;0.1327;-0.4239;
-7.2000;0.1327;-0.4264;
-6.9000;0.1351;-0.4239;
-6.6000;0.1343;-0.4289;
-6.3000;0.1359;-0.4214;
-6.0000;0.1327;-0.4239;
-5.7000;0.1359;-0.4289;
-5.4000;0.1351;-0.4338;
-5.1000;0.1343;-0.4413;
-4.8000;0.1335;-0.4438;
-4.5000;0.1343;-0.4314;
-4.2000;0.1359;-0.4314;
-3.9000;0.1359;-0.4363;
-3.6000;0.1343;-0.4338;
-3.3000;0.1408;-0.4189;
-3.0000;0.1319;-0.4314;
-2.7000;0.1335;-0.4289;
-2.4000;0.1359;-0.4264;
-2.1000;0.1343;-0.4214;
-1.8000;0.1351;-0.4189;
-1.5000;0.1343;-0.4264;
-1.2000;0.1335;-0.4289;
-0.9000;0.1351;-0.4264;
-0.6000;0.1327;-0.4388;
-0.3000;0.1343;-0.4338;
0.0000;0.1343;-0.4338;
0.3000;0.1343;-0.4513;
0.6000;0.1376;-0.4264;
0.9000;0.1376;-0.4089;
1.2000;0.1392;-0.3890;
1.5000;0.1400;-0.3665;
1.8000;0.1416;-0.3366;
2.1000;0.1425;-0.3192;
2.4000;0.1433;-0.3042;
2.7000;0.1408;-0.3017;
3.0000;0.1425;-0.2842;
3.3000;0.1433;-0.2718;
3.6000;0.1449;-0.2618;
3.9000;0.1449;-0.2568;
4.2000;0.1433;-0.2568;
4.5000;0.1441;-0.2568;
4.8000;0.1441;-0.2543;
5.1000;0.1433;-0.2618;
5.4000;0.1441;-0.2543;
5.7000;0.1481;-0.2593;
6.0000;0.1441;-0.2643;
6.3000;0.1465;-0.2568;
6.6000;0.1555;-0.2294;
6.9000;0.1425;-0.2543;
7.2000;0.1473;-0.2394;
7.5000;0.1376;-0.2618;
7.8000;0.1457;-0.2419;
8.1000;0.1433;-0.2369;
8.4000;0.1433;-0.2319;
8.7000;0.1449;-0.2244;
9.0000;0.1449;-0.2269;
9.3000;0.1425;-0.2294;
9.6000;0.1457;-0.2219;
9.9000;0.1457;-0.2269;
10.2000;0.1449;-0.2244;
10.5000;0.1441;-0.2294;
10.8000;0.1433;-0.2369;
11.1000;0.1416;-0.2344;
11.4000;0.1465;-0.2144;
11.7000;0.1425;-0.2194;
12.0000;0.1433;-0.2294;
12.3000;0.1481;-0.2244;
12.6000;0.1433;-0.2369;
12.9000;0.1457;-0.2319;
13.2000;0.1416;-0.2419;
13.5000;0.1400;-0.2344;
13.8000;0.1425;-0.2194;
14.1000;0.1441;-0.2144;
14.4000;0.1457;-0.2219;
14.7000;0.1416;-0.2269;
15.0000;0.1351;-0.2444;
15.3000;0.1449;-0.2169;
15.6000;0.1441;-0.2194;
15.9000;0.1449;-0.2219;
16.2000;0.1465;-0.2219;
16.5000;0.1449;-0.2269;
16.8000;0.1441;-0.2319;
17.1000;0.1449;-0.2244;
17.4000;0.1449;-0.2319;
17.7000;0.1441;-0.2419;
18.0000;0.1441;-0.2394;
18.3000;0.1449;-0.2344;
18.6000;0.1465;-0.2369;
18.9000;0.1433;-0.2419;
19.2000;0.1481;-0.2369;
19.5000;0.1457;-0.2493;
19.8000;0.1449;-0.2518;
20.1000;0.1465;-0.2444;
20.4000;0.1457;-0.2369;
20.7000;0.1490;-0.2119;
21.0000;0.1441;-0.2319;
21.3000;0.1433;-0.2294;
21.6000;0.1433;-0.2344;
21.9000;0.1441;-0.2294;
22.2000;0.1433;-0.2269;
22.5000;0.1433;-0.2369;
22.8000;0.1416;-0.2394;
23.1000;0.1449;-0.2419;
23.4000;0.1449;-0.2419;
23.7000;0.1433;-0.2518;
24.0000;0.1465;-0.2468;
24.3000;0.1457;-0.2568;
24.6000;0.1481;-0.2468;
24.9000;0.1538;-0.2244;
25.2000;0.1425;-0.2518;
25.5000;0.1441;-0.2518;
25.8000;0.1441;-0.2468;
26.1000;0.1465;-0.2344;
26.4000;0.1506;-0.2094;
26.7000;0.1433;-0.2369;
27.0000;0.1449;-0.2294;
27.3000;0.1457;-0.2169;
27.6000;0.1416;-0.2269;
27.9000;0.1425;-0.2269;
28.2000;0.1449;-0.2169;
28.5000;0.1433;-0.2219;
28.8000;0.1449;-0.2144;
29.1000;0.1449;-0.2094;
29.4000;0.1441;-0.2169;
29.7000;0.1457;-0.2194;
30.0000;0.1465;-0.2468;
30.3000;0.1457;-0.2394;
30.6000;0.1408;-0.2493;
30.9000;0.1441;-0.2369;
31.2000;0.1457;-0.2294;
31.5000;0.1441;-0.2294;
31.8000;0.1441;-0.2319;
32.1000;0.1416;-0.2344;
32.4000;0.1441;-0.2244;
32.7000;0.1481;-0.2144;
33.0000;0.1465;-0.2269;
33.3000;0.1449;-0.2294;
33.6000;0.1449;-0.2319;
33.9000;0.1425;-0.2369;
34.2000;0.1449;-0.2244;
34.5000;0.1457;-0.2119;
34.8000;0.1425;-0.2194;
35.1000;0.1449;-0.2294;
35.4000;0.1441;-0.2294;
35.7000;0.1433;-0.2219;
36.0000;0.1433;-0.2319;
36.3000;0.1449;-0.2244;
36.6000;0.1441;-0.2319;
36.9000;0.1384;-0.2543;
37.2000;0.1441;-0.2369;
37.5000;0.1465;-0.2219;
37.8000;0.1457;-0.2219;
38.1000;0.1457;-0.2244;
38.4000;0.1457;-0.2219;
38.7000;0.1449;-0.2169;
39.0000;0.1441;-0.2144;
39.3000;0.1457;-0.2169;
39.6000;0.1425;-0.2294;
39.9000;0.1425;-0.2394;
40.2000;0.1457;-0.2244;
40.5000;0.1449;-0.2369;
40.8000;0.1433;-0.2518;
41.1000;0.1490;-0.2344;
41.4000;0.1449;-0.2344;
41.7000;0.1449;-0.2369;
42.0000;0.1457;-0.2344;
42.3000;0.1441;-0.2319;
42.6000;0.1449;-0.2269;
42.9000;0.1481;-0.2194;
43.2000;0.1433;-0.2344;
43.5000;0.1441;-0.2394;
43.8000;0.1441;-0.2244;
44.1000;0.1457;-0.2219;
44.4000;0.1433;-0.2294;
44.7000;0.1465;-0.2319;
45.0000;0.1465;-0.2344;
45.3000;0.1408;-0.2419;
45.6000;0.1457;-0.2269;
45.9000;0.1522;-0.1995;
46.2000;0.1392;-0.2294;
46.5000;0.1465;-0.2119;
46.8000;0.1457;-0.2194;
47.1000;0.1441;-0.2244;
47.4000;0.1441;-0.2319;
47.7000;0.1498;-0.2169;
48.0000;0.1473;-0.2244;
48.3000;0.1449;-0.2319;
48.6000;0.1449;-0.2344;
48.9000;0.1449;-0.2269;
49.2000;0.1449;-0.2344;
49.5000;0.1441;-0.2394;
49.8000;0.1465;-0.2394;
50.1000;0.1441;-0.2468;
50.4000;0.1465;-0.2468;
50.7000;0.1457;-0.2493;
51.0000;0.1457;-0.2444;
51.3000;0.1457;-0.2419;
51.6000;0.1457;-0.2369;
51.9000;0.1433;-0.2369;
52.2000;0.1449;-0.2394;
52.5000;0.1465;-0.2294;
52.8000;0.1416;-0.2369;
53.1000;0.1441;-0.2394;
53.4000;0.1408;-0.2444;
53.7000;0.1490;-0.2219;
54.0000;0.1433;-0.2394;
54.3000;0.1441;-0.2319;
54.6000;0.1457;-0.2169;
54.9000;0.1425;-0.2194;
55.2000;0.1457;-0.2144;
55.5000;0.1449;-0.2219;
55.8000;0.1433;-0.2344;
56.1000;0.1441;-0.2244;
56.4000;0.1481;-0.2144;
56.7000;0.1457;-0.2219;
57.0000;0.1457;-0.2219;
57.3000;0.1441;-0.2294;
57.6000;0.1425;-0.2319;
57.9000;0.1433;-0.2319;
58.2000;0.1441;-0.2319;
58.5000;0.1433;-0.2394;
58.8000;0.1433;-0.2444;
59.1000;0.1441;-0.2344;
59.4000;0.1441;-0.2294;
59.7000;0.1490;-0.2194;
60.0000;0.1425;-0.2394;
60.3000;0.1441;-0.2394;
60.6000;0.1473;-0.2294;
60.9000;0.1465;-0.2369;
61.2000;0.1457;-0.2444;
61.5000;0.1457;-0.2444;
61.8000;0.1457;-0.2369;
62.1000;0.1473;-0.2394;
62.4000;0.1457;-0.2394;
62.7000;0.1473;-0.2319;
63.0000;0.1433;-0.2344;
63.3000;0.1433;-0.2294;
63.6000;0.1441;-0.2169;
63.9000;0.1441;-0.2319;
64.2000;0.1441;-0.2419;
64.5000;0.1441;-0.2294;
64.8000;0.1473;-0.2294;
65.1000;0.1425;-0.2419;
65.4000;0.1465;-0.2294;
65.7000;0.1473;-0.2294;
66.0000;0.1465;-0.2244;
66.3000;0.1441;-0.2269;
66.6000;0.1449;-0.2219;
66.9000;0.1416;-0.2344;
67.2000;0.1449;-0.2294;
67.5000;0.1449;-0.2269;
67.8000;0.1433;-0.2319;
68.1000;0.1408;-0.2419;
68.4000;0.1433;-0.2394;
68.7000;0.1433;-0.2319;
69.0000;0.1441;-0.2369;
69.3000;0.1441;-0.2319;
69.6000;0.1441;-0.2369;
69.9000;0.1433;-0.2468;
70.2000;0.1441;-0.2394;
70.5000;0.1416;-0.2394;
70.8000;0.1441;-0.2344;
71.1000;0.1481;-0.2244;
71.4000;0.1433;-0.2394;
71.7000;0.1433;-0.2344;
72.0000;0.1457;-0.2319;
72.3000;0.1449;-0.2468;
72.6000;0.1384;-0.2518;
72.9000;0.1441;-0.2419;
73.2000;0.1457;-0.2444;
73.5000;0.1433;-0.2394;
73.8000;0.1441;-0.2468;
74.1000;0.1441;-0.2369;
74.4000;0.1457;-0.2294;
74.7000;0.1473;-0.2219;
75.0000;0.1449;-0.2319;
75.3000;0.1457;-0.2319;
75.6000;0.1449;-0.2369;
75.9000;0.1433;-0.2394;
76.2000;0.1449;-0.2244;
76.5000;0.1465;-0.2169;
76.8000;0.1465;-0.2144;
77.1000;0.1441;-0.2219;
77.4000;0.1465;-0.2219;
77.7000;0.1408;-0.2244;
78.0000;0.1425;-0.2294;
78.3000;0.1449;-0.2319;
78.6000;0.1433;-0.2319;
78.9000;0.1457;-0.2294;
79.2000;0.1441;-0.2419;
79.5000;0.1441;-0.2394;
79.8000;0.1408;-0.2369;
80.1000;0.1441;-0.2294;
80.4000;0.1449;-0.2294;
80.7000;0.1457;-0.2244;
81.0000;0.1449;-0.2319;
81.3000;0.1433;-0.2394;
81.6000;0.1449;-0.2369;
81.9000;0.1441;-0.2369;
82.2000;0.1408;-0.2493;
82.5000;0.1490;-0.2344;
82.8000;0.1408;-0.2543;
83.1000;0.1441;-0.2394;
83.4000;0.1343;-0.2668;
83.7000;0.1498;-0.2394;
84.0000;0.1425;-0.2643;
84.3000;0.1449;-0.2568;
84.6000;0.1449;-0.2468;
84.9000;0.1449;-0.2444;
85.2000;0.1457;-0.2468;
85.5000;0.1433;-0.2568;
85.8000;0.1457;-0.2593;
86.1000;0.1449;-0.2668;
86.4000;0.1449;-0.2568;
86.7000;0.1384;-0.2743;
87.0000;0.1465;-0.2493;
87.3000;0.1457;-0.2394;
87.6000;0.1433;-0.2468;
87.9000;0.1433;-0.2518;
88.2000;0.1433;-0.2394;
88.5000;0.1425;-0.2419;
88.8000;0.1449;-0.2244;
89.1000;0.1425;-0.2344;
89.4000;0.1449;-0.2294;
89.7000;0.1449;-0.2394;
90.0000;0.1441;-0.2568;
90.3000;0.1441;-0.2518;
90.6000;0.1457;-0.2444;
90.9000;0.1441;-0.2419;
91.2000;0.1457;-0.2419;
91.5000;0.1425;-0.2468;
91.8000;0.1449;-0.2394;
92.1000;0.1465;-0.2344;
92.4000;0.1433;-0.2369;
92.7000;0.1449;-0.2319;
93.0000;0.1457;-0.2319;
93.3000;0.1433;-0.2394;
93.6000;0.1449;-0.2394;
93.9000;0.1441;-0.2419;
94.2000;0.1433;-0.2444;
94.5000;0.1457;-0.2394;
94.8000;0.1465;-0.2419;
95.1000;0.1449;-0.2493;
95.4000;0.1514;-0.2319;
95.7000;0.1514;-0.2294;
96.0000;0.1457;-0.2419;
96.3000;0.1449;-0.2419;
96.6000;0.1465;-0.2319;
96.9000;0.1416;-0.2344;
97.2000;0.1441;-0.2169;
97.5000;0.1416;-0.2294;
97.8000;0.1433;-0.2269;
98.1000;0.1433;-0.2194;
98.4000;0.1433;-0.2219;
98.7000;0.1425;-0.2269;
99.0000;0.1449;-0.2269;
99.3000;0.1433;-0.2394;
99.6000;0.1449;-0.2369;
99.9000;0.1449;-0.2394;
100.2000;0.1457;-0.2444;
100.5000;0.1457;-0.2394;
100.8000;0.1449;-0.2444;
101.1000;0.1530;-0.2169;
101.4000;0.1441;-0.2294;
101.7000;0.1506;-0.2119;
102.0000;0.1449;-0.2269;
102.3000;0.1441;-0.2169;
102.6000;0.1433;-0.2219;
102.9000;0.1425;-0.2069;
103.2000;0.1433;-0.2119;
103.5000;0.1457;-0.2119;
103.8000;0.1433;-0.2219;
104.1000;0.1441;-0.2269;
104.4000;0.1433;-0.2294;
104.7000;0.1416;-0.2369;
105.0000;0.1457;-0.2244;
105.3000;0.1481;-0.2219;
105.6000;0.1441;-0.2344;
105.9000;0.1433;-0.2319;
106.2000;0.1441;-0.2369;
106.5000;0.1449;-0.2319;
106.8000;0.1441;-0.2369;
107.1000;0.1433;-0.2319;
107.4000;0.1457;-0.2244;
107.7000;0.1433;-0.2294;
108.0000;0.1441;-0.2344;
108.3000;0.1441;-0.2344;
108.6000;0.1457;-0.2319;
108.9000;0.1457;-0.2394;
109.2000;0.1433;-0.2369;
109.5000;0.1449;-0.2294;
109.8000;0.1449;-0.2194;
110.1000;0.1441;-0.2119;
110.4000;0.1457;-0.2144;
110.7000;0.1449;-0.2219;
111.0000;0.1441;-0.2144;
111.3000;0.1449;-0.2194;
111.6000;0.1441;-0.2144;
111.9000;0.1433;-0.2219;
112.2000;0.1441;-0.2194;
112.5000;0.1433;-0.2094;
112.8000;0.1441;-0.2094;
113.1000;0.1416;-0.2194;
113.4000;0.1441;-0.2169;
113.7000;0.1400;-0.2219;
114.0000;0.1425;-0.2169;
114.3000;0.1416;-0.2194;
114.6000;0.1449;-0.2069;
114.9000;0.1457;-0.2045;
115.2000;0.1433;-0.2169;
115.5000;0.1457;-0.2094;
115.8000;0.1449;-0.2144;
116.1000;0.1425;-0.2244;
116.4000;0.1449;-0.2169;
116.7000;0.1425;-0.2244;
117.0000;0.1465;-0.2045;
117.3000;0.1425;-0.2219;
117.6000;0.1441;-0.2269;
117.9000;0.1506;-0.2094;
118.2000;0.1351;-0.2468;
118.5000;0.1449;-0.2169;
118.8000;0.1441;-0.2194;
119.1000;0.1441;-0.2144;
119.4000;0.1416;-0.2094;
119.7000;0.1433;-0.2020;
120.0000;0.1457;-0.1970;
120.3000;0.1441;-0.2069;
120.6000;0.1351;-0.2319;
120.9000;0.1441;-0.2169;
121.2000;0.1425;-0.2319;
121.5000;0.1465;-0.2219;
121.8000;0.1473;-0.2244;
122.1000;0.1433;-0.2344;
122.4000;0.1425;-0.2394;
122.7000;0.1433;-0.2344;
123.0000;0.1449;-0.2244;
123.3000;0.1425;-0.2194;
123.6000;0.1408;-0.2244;
123.9000;0.1433;-0.2219;
124.2000;0.1433;-0.2194;
124.5000;0.1416;-0.2269;
124.8000;0.1441;-0.2144;
125.1000;0.1441;-0.2094;
125.4000;0.1457;-0.2094;
125.7000;0.1457;-0.2144;
126.0000;0.1441;-0.2194;
126.3000;0.1449;-0.2169;
126.6000;0.1457;-0.2169;
126.9000;0.1433;-0.2319;
127.2000;0.1449;-0.2319;
127.5000;0.1425;-0.2344;
127.8000;0.1433;-0.2319;
128.1000;0.1408;-0.2369;
128.4000;0.1433;-0.2344;
128.7000;0.1408;-0.2319;
129.0000;0.1408;-0.2244;
129.3000;0.1441;-0.2144;
129.6000;0.1433;-0.2119;
129.9000;0.1433;-0.2094;
130.2000;0.1449;-0.2119;
130.5000;0.1433;-0.2069;
130.8000;0.1425;-0.2144;
131.1000;0.1441;-0.2169;
131.4000;0.1441;-0.2194;
131.7000;0.1425;-0.2169;
132.0000;0.1433;-0.2169;
132.3000;0.1441;-0.2119;
132.6000;0.1433;-0.2094;
132.9000;0.1408;-0.2194;
133.2000;0.1433;-0.2169;
133.5000;0.1441;-0.2119;
133.8000;0.1425;-0.2069;
134.1000;0.1506;-0.1920;
134.4000;0.1441;-0.2119;
134.7000;0.1425;-0.2194;
135.0000;0.1441;-0.2194;
135.3000;0.1416;-0.2269;
135.6000;0.1449;-0.2294;
135.9000;0.1449;-0.2194;
136.2000;0.1449;-0.2219;
136.5000;0.1449;-0.2244;
136.8000;0.1449;-0.2319;
137.1000;0.1425;-0.2294;
137.4000;0.1457;-0.2094;
137.7000;0.1433;-0.2119;
138.0000;0.1408;-0.2269;
138.3000;0.1449;-0.2119;
138.6000;0.1433;-0.2094;
138.9000;0.1433;-0.2094;
139.2000;0.1433;-0.2069;
139.5000;0.1449;-0.2045;
139.8000;0.1449;-0.2094;
140.1000;0.1449;-0.2045;
140.4000;0.1441;-0.2020;
140.7000;0.1441;-0.1970;
141.0000;0.1433;-0.1995;
141.3000;0.1473;-0.1870;
141.6000;0.1465;-0.1945;
141.9000;0.1400;-0.2119;
142.2000;0.1400;-0.2119;
142.5000;0.1441;-0.2094;
142.8000;0.1433;-0.2194;
143.1000;0.1408;-0.2294;
143.4000;0.1441;-0.2144;
143.7000;0.1465;-0.2094;
144.0000;0.1555;-0.1870;
144.3000;0.1449;-0.2144;
144.6000;0.1433;-0.2244;
144.9000;0.1433;-0.2219;
145.2000;0.1433;-0.2244;
145.5000;0.1457;-0.2144;
145.8000;0.1441;-0.2144;
146.1000;0.1449;-0.2069;
146.4000;0.1441;-0.2069;
146.7000;0.1441;-0.2020;
147.0000;0.1465;-0.2020;
147.3000;0.1441;-0.2094;
147.6000;0.1441;-0.2244;
147.9000;0.1433;-0.2294;
148.2000;0.1441;-0.2394;
148.5000;0.1465;-0.2419;
148.8000;0.1433;-0.2493;
149.1000;0.1449;-0.2468;
149.4000;0.1425;-0.2444;
149.7000;0.1449;-0.2394;
150.0000;0.1441;-0.2444;
150.3000;0.1449;-0.2369;
150.6000;0.1441;-0.2369;
150.9000;0.1449;-0.2344;
151.2000;0.1465;-0.2244;
151.5000;0.1449;-0.2344;
151.8000;0.1433;-0.2394;
152.1000;0.1441;-0.2344;
152.4000;0.1449;-0.2394;
152.7000;0.1457;-0.2419;
153.0000;0.1465;-0.2394;
153.3000;0.1449;-0.2369;
153.6000;0.1457;-0.2319;
153.9000;0.1433;-0.2294;
154.2000;0.1416;-0.2319;
154.5000;0.1441;-0.2319;
154.8000;0.1433;-0.2244;
155.1000;0.1473;-0.2194;
155.4000;0.1449;-0.2269;
155.7000;0.1441;-0.2244;
156.0000;0.1449;-0.2244;
156.3000;0.1441;-0.2194;
156.6000;0.1392;-0.2319;
156.9000;0.1433;-0.2294;
157.2000;0.1441;-0.2244;
157.5000;0.1425;-0.2244;
157.8000;0.1433;-0.2194;
158.1000;0.1416;-0.2119;
158.4000;0.1457;-0.1995;
158.7000;0.1449;-0.2069;
159.0000;0.1433;-0.2094;
159.3000;0.1465;-0.2069;
159.6000;0.1433;-0.2169;
159.9000;0.1416;-0.2194;
160.2000;0.1425;-0.2119;
160.5000;0.1441;-0.1970;
160.8000;0.1441;-0.1945;
161.1000;0.1473;-0.1745;
161.4000;0.1481;-0.1895;
161.7000;0.1449;-0.2045;
162.0000;0.1481;-0.2045;
162.3000;0.1441;-0.2144;
162.6000;0.1408;-0.2219;
162.9000;0.1441;-0.2169;
163.2000;0.1433;-0.2069;
163.5000;0.1449;-0.1970;
163.8000;0.1425;-0.1995;
164.1000;0.1416;-0.2119;
164.4000;0.1433;-0.2069;
164.7000;0.1465;-0.2045;
165.0000;0.1449;-0.2144;
165.3000;0.1433;-0.2194;
165.6000;0.1416;-0.2194;
165.9000;0.1449;-0.2219;
166.2000;0.1441;-0.2269;
166.5000;0.1473;-0.2219;
166.8000;0.1457;-0.2319;
167.1000;0.1400;-0.2294;
167.4000;0.1457;-0.2119;
167.7000;0.1433;-0.2144;
168.0000;0.1441;-0.2094;
168.3000;0.1425;-0.2069;
168.6000;0.1433;-0.2094;
168.9000;0.1433;-0.2219;
169.2000;0.1441;-0.2269;
169.5000;0.1433;-0.2319;
169.8000;0.1514;-0.2069;
170.1000;0.1441;-0.2244;
170.4000;0.1449;-0.2319;
170.7000;0.1441;-0.2294;
171.0000;0.1359;-0.2394;
171.3000;0.1465;-0.2045;
171.6000;0.1384;-0.2294;
171.9000;0.1530;-0.1920;
172.2000;0.1457;-0.2219;
172.5000;0.1441;-0.2269;
172.8000;0.1433;-0.2294;
173.1000;0.1433;-0.2269;
173.4000;0.1433;-0.2269;
173.7000;0.1416;-0.2394;
174.0000;0.1384;-0.2394;
174.3000;0.1473;-0.2144;
174.6000;0.1449;-0.2294;
174.9000;0.1400;-0.2394;
175.2000;0.1441;-0.2194;
175.5000;0.1368;-0.2394;
175.8000;0.1441;-0.2194;
176.1000;0.1433;-0.2194;
176.4000;0.1514;-0.1945;
176.7000;0.1490;-0.2020;
177.0000;0.1441;-0.2194;
177.3000;0.1368;-0.2344;
177.6000;0.1400;-0.2244;
177.9000;0.1425;-0.2194;
178.2000;0.1416;-0.2269;
178.5000;0.1441;-0.2269;
178.8000;0.1465;-0.2219;
179.1000;0.1433;-0.2219;
179.4000;0.1449;-0.2194;
179.7000;0.1457;-0.2219;
180.0000;0.1449;-0.2169;
180.3000;0.1457;-0.2045;
180.6000;0.1449;-0.2094;
180.9000;0.1441;-0.2219;
181.2000;0.1433;-0.2219;
181.5000;0.1433;-0.2219;
181.8000;0.1433;-0.2344;
182.1000;0.1433;-0.2394;
182.4000;0.1441;-0.2369;
182.7000;0.1441;-0.2319;
183.0000;0.1441;-0.2344;
183.3000;0.1449;-0.2269;
183.6000;0.1449;-0.2294;
183.9000;0.1449;-0.2269;
184.2000;0.1433;-0.2269;
184.5000;0.1457;-0.2169;
184.8000;0.1433;-0.2169;
185.1000;0.1441;-0.2119;
185.4000;0.1457;-0.2144;
185.7000;0.1441;-0.2194;
186.0000;0.1441;-0.2219;
186.3000;0.1457;-0.2094;
186.6000;0.1433;-0.2144;
186.9000;0.1416;-0.2219;
187.2000;0.1416;-0.2244;
187.5000;0.1449;-0.2194;
187.8000;0.1433;-0.2244;
188.1000;0.1441;-0.2344;
188.4000;0.1465;-0.2294;
188.7000;0.1416;-0.2394;
189.0000;0.1433;-0.2394;
189.3000;0.1441;-0.2319;
189.6000;0.1433;-0.2344;
189.9000;0.1425;-0.2294;
190.2000;0.1400;-0.2344;
190.5000;0.1416;-0.2219;
190.8000;0.1416;-0.2169;
191.1000;0.1433;-0.2094;
191.4000;0.1425;-0.2045;
191.7000;0.1433;-0.1970;
192.0000;0.1433;-0.1995;
192.3000;0.1425;-0.2069;
192.6000;0.1441;-0.2069;
192.9000;0.1433;-0.2119;
193.2000;0.1441;-0.2119;
193.5000;0.1425;-0.2219;
193.8000;0.1425;-0.2169;
194.1000;0.1441;-0.2244;
194.4000;0.1416;-0.2319;
194.7000;0.1555;-0.1845;
195.0000;0.1433;-0.2119;
195.3000;0.1473;-0.2020;
195.6000;0.1457;-0.2045;
195.9000;0.1441;-0.2144;
196.2000;0.1441;-0.2094;
196.5000;0.1449;-0.2144;
196.8000;0.1433;-0.2194;
197.1000;0.1457;-0.2219;
197.4000;0.1368;-0.2394;
197.7000;0.1449;-0.2169;
198.0000;0.1433;-0.2269;
198.3000;0.1473;-0.2294;
198.6000;0.1425;-0.2344;
198.9000;0.1425;-0.2369;
199.2000;0.1449;-0.2294;
199.5000;0.1433;-0.2144;
199.8000;0.1433;-0.2069;
200.1000;0.1506;-0.1995;
200.4000;0.1449;-0.2144;
200.7000;0.1449;-0.2169;
201.0000;0.1433;-0.2294;
201.3000;0.1465;-0.2169;
201.6000;0.1457;-0.2294;
201.9000;0.1457;-0.2319;
202.2000;0.1441;-0.2294;
202.5000;0.1433;-0.2294;
202.8000;0.1449;-0.2269;
203.1000;0.1449;-0.2319;
203.4000;0.1433;-0.2269;
203.7000;0.1425;-0.2294;
204.0000;0.1449;-0.2294;
204.3000;0.1449;-0.2344;
204.6000;0.1416;-0.2394;
204.9000;0.1457;-0.2169;
205.2000;0.1433;-0.2094;
205.5000;0.1441;-0.2045;
205.8000;0.1490;-0.1920;
206.1000;0.1433;-0.2045;
206.4000;0.1425;-0.1995;
206.7000;0.1441;-0.2045;
207.0000;0.1433;-0.2119;
207.3000;0.1425;-0.2194;
207.6000;0.1449;-0.2194;
207.9000;0.1433;-0.2144;
208.2000;0.1449;-0.2069;
208.5000;0.1416;-0.2169;
208.8000;0.1433;-0.2144;
209.1000;0.1449;-0.2094;
209.4000;0.1449;-0.2119;
209.7000;0.1457;-0.2069;
210.0000;0.1449;-0.2045;
210.3000;0.1433;-0.2094;
210.6000;0.1457;-0.2094;
210.9000;0.1481;-0.2020;
211.2000;0.1433;-0.2119;
211.5000;0.1457;-0.2169;
211.8000;0.1425;-0.2344;
212.1000;0.1425;-0.2269;
212.4000;0.1433;-0.2269;
212.7000;0.1433;-0.2294;
213.0000;0.1449;-0.2219;
213.3000;0.1555;-0.1945;
213.6000;0.1433;-0.2294;
213.9000;0.1441;-0.2144;
214.2000;0.1400;-0.2369;
214.5000;0.1425;-0.2344;
214.8000;0.1433;-0.2319;
215.1000;0.1425;-0.2244;
215.4000;0.1392;-0.2344;
215.7000;0.1441;-0.2244;
216.0000;0.1449;-0.2194;
216.3000;0.1433;-0.2194;
216.6000;0.1408;-0.2344;
216.9000;0.1449;-0.2269;
217.2000;0.1449;-0.2269;
217.5000;0.1441;-0.2319;
217.8000;0.1441;-0.2319;
218.1000;0.1433;-0.2394;
218.4000;0.1425;-0.2394;
218.7000;0.1376;-0.2468;
219.0000;0.1425;-0.2344;
219.3000;0.1441;-0.2219;
219.6000;0.1449;-0.2144;
219.9000;0.1433;-0.2169;
220.2000;0.1400;-0.2244;
220.5000;0.1433;-0.2169;
220.8000;0.1449;-0.2119;
221.1000;0.1400;-0.2219;
221.4000;0.1441;-0.2169;
221.7000;0.1433;-0.2169;
222.0000;0.1433;-0.2020;
222.3000;0.1441;-0.1995;
222.6000;0.1416;-0.2194;
222.9000;0.1433;-0.2119;
223.2000;0.1433;-0.2094;
223.5000;0.1433;-0.2219;
223.8000;0.1441;-0.2294;
224.1000;0.1433;-0.2394;
224.4000;0.1449;-0.2269;
224.7000;0.1433;-0.2194;
225.0000;0.1490;-0.2094;
225.3000;0.1457;-0.2169;
225.6000;0.1433;-0.2244;
225.9000;0.1433;-0.2369;
226.2000;0.1441;-0.2419;
226.5000;0.1441;-0.2394;
226.8000;0.1506;-0.2169;
227.1000;0.1441;-0.2344;
227.4000;0.1449;-0.2369;
227.7000;0.1449;-0.2294;
228.0000;0.1433;-0.2269;
228.3000;0.1441;-0.2269;
228.6000;0.1425;-0.2344;
228.9000;0.1441;-0.2294;
229.2000;0.1563;-0.1920;
229.5000;0.1441;-0.2169;
229.8000;0.1441;-0.2169;
230.1000;0.1441;-0.2069;
230.4000;0.1441;-0.2119;
230.7000;0.1441;-0.2194;
231.0000;0.1457;-0.2319;
231.3000;0.1441;-0.2244;
231.6000;0.1441;-0.2119;
231.9000;0.1457;-0.2219;
232.2000;0.1408;-0.2344;
232.5000;0.1441;-0.2244;
232.8000;0.1449;-0.2219;
233.1000;0.1433;-0.2269;
233.4000;0.1368;-0.2369;
233.7000;0.1449;-0.2244;
234.0000;0.1433;-0.2269;
234.3000;0.1457;-0.2194;
234.6000;0.1441;-0.2194;
234.9000;0.1449;-0.2169;
235.2000;0.1449;-0.2219;
235.5000;0.1457;-0.2344;
235.8000;0.1425;-0.2419;
236.1000;0.1441;-0.2419;
236.4000;0.1465;-0.2244;
236.7000;0.1433;-0.2344;
237.0000;0.1457;-0.2344;
237.3000;0.1449;-0.2294;
237.6000;0.1441;-0.2219;
237.9000;0.1457;-0.2244;
238.2000;0.1408;-0.2269;
238.5000;0.1416;-0.2294;
238.8000;0.1416;-0.2344;
239.1000;0.1416;-0.2394;
239.4000;0.1425;-0.2369;
239.7000;0.1433;-0.2294;
240.0000;0.1506;-0.2069;
240.3000;0.1441;-0.2444;
240.6000;0.1449;-0.2419;
240.9000;0.1441;-0.2444;
241.2000;0.1457;-0.2369;
241.5000;0.1449;-0.2369;
241.8000;0.1441;-0.2419;
242.1000;0.1441;-0.2344;
242.4000;0.1457;-0.2369;
242.7000;0.1465;-0.2419;
243.0000;0.1449;-0.2493;
243.3000;0.1433;-0.2444;
243.6000;0.1506;-0.2219;
243.9000;0.1441;-0.2394;
244.2000;0.1457;-0.2344;
244.5000;0.1425;-0.2419;
244.8000;0.1441;-0.2394;
245.1000;0.1457;-0.2344;
245.4000;0.1457;-0.2344;
245.7000;0.1425;-0.2543;
246.0000;0.1457;-0.2369;
246.3000;0.1465;-0.2344;
246.6000;0.1449;-0.2394;
246.9000;0.1449;-0.2444;
247.2000;0.1441;-0.2344;
247.5000;0.1441;-0.2344;
247.8000;0.1433;-0.2344;
248.1000;0.1441;-0.2344;
248.4000;0.1433;-0.2419;
248.7000;0.1473;-0.2394;
249.0000;0.1433;-0.2444;
249.3000;0.1433;-0.2394;
249.6000;0.1433;-0.2419;
249.9000;0.1449;-0.2369;
250.2000;0.1457;-0.2319;
250.5000;0.1441;-0.2369;
250.8000;0.1441;-0.2394;
251.1000;0.1441;-0.2468;
251.4000;0.1457;-0.2444;
251.7000;0.1449;-0.2493;
252.0000;0.1368;-0.2618;
252.3000;0.1465;-0.2369;
252.6000;0.1425;-0.2444;
252.9000;0.1449;-0.2444;
253.2000;0.1441;-0.2419;
253.5000;0.1433;-0.2419;
253.8000;0.1457;-0.2244;
254.1000;0.1441;-0.2394;
254.4000;0.1433;-0.2344;
254.7000;0.1416;-0.2344;
255.0000;0.1441;-0.2219;
255.3000;0.1408;-0.2319;
255.6000;0.1441;-0.2344;
255.9000;0.1433;-0.2419;
256.2000;0.1441;-0.2419;
256.5000;0.1457;-0.2369;
256.8000;0.1384;-0.2618;
257.1000;0.1441;-0.2518;
257.4000;0.1465;-0.2543;
257.7000;0.1449;-0.2593;
258.0000;0.1449;-0.2618;
258.3000;0.1359;-0.2818;
258.6000;0.1441;-0.2518;
258.9000;0.1425;-0.2543;
259.2000;0.1449;-0.2444;
259.5000;0.1425;-0.2468;
259.8000;0.1425;-0.2468;
260.1000;0.1416;-0.2468;
260.4000;0.1433;-0.2468;
260.7000;0.1416;-0.2543;
261.0000;0.1441;-0.2394;
261.3000;0.1416;-0.2493;
261.6000;0.1441;-0.2444;
261.9000;0.1441;-0.2518;
262.2000;0.1522;-0.2394;
262.5000;0.1441;-0.2618;
262.8000;0.1433;-0.2618;
263.1000;0.1441;-0.2568;
263.4000;0.1425;-0.2593;
263.7000;0.1400;-0.2643;
264.0000;0.1441;-0.2543;
264.3000;0.1441;-0.2593;
264.6000;0.1425;-0.2518;
264.9000;0.1433;-0.2493;
265.2000;0.1425;-0.2468;
265.5000;0.1441;-0.2419;
265.8000;0.1441;-0.2493;
266.1000;0.1441;-0.2394;
266.4000;0.1433;-0.2394;
266.7000;0.1490;-0.2169;
267.0000;0.1433;-0.2319;
267.3000;0.1425;-0.2394;
267.6000;0.1408;-0.2518;
267.9000;0.1425;-0.2493;
268.2000;0.1449;-0.2444;
268.5000;0.1441;-0.2419;
268.8000;0.1433;-0.2419;
269.1000;0.1465;-0.2269;
269.4000;0.1449;-0.2344;
269.7000;0.1408;-0.2444;
270.0000;0.1433;-0.2394;
270.3000;0.1441;-0.2419;
270.6000;0.1498;-0.2319;
270.9000;0.1498;-0.2269;
271.2000;0.1441;-0.2294;
271.5000;0.1433;-0.2269;
271.8000;0.1449;-0.2294;
272.1000;0.1457;-0.2294;
272.4000;0.1441;-0.2369;
272.7000;0.1441;-0.2394;
273.0000;0.1433;-0.2468;
273.3000;0.1465;-0.2419;
273.6000;0.1425;-0.2568;
273.9000;0.1327;-0.2818;
274.2000;0.1433;-0.2543;
274.5000;0.1449;-0.2518;
274.8000;0.1433;-0.2543;
275.1000;0.1441;-0.2419;
275.4000;0.1441;-0.2468;
275.7000;0.1433;-0.2493;
276.0000;0.1425;-0.2394;
276.3000;0.1449;-0.2394;
276.6000;0.1392;-0.2518;
276.9000;0.1441;-0.2344;
277.2000;0.1425;-0.2369;
277.5000;0.1433;-0.2369;
277.8000;0.1449;-0.2294;
278.1000;0.1465;-0.2319;
278.4000;0.1433;-0.2369;
278.7000;0.1425;-0.2269;
279.0000;0.1433;-0.2269;
279.3000;0.1425;-0.2319;
279.6000;0.1425;-0.2369;
279.9000;0.1433;-0.2319;
280.2000;0.1473;-0.2269;
280.5000;0.1498;-0.2219;
280.8000;0.1368;-0.2543;
281.1000;0.1433;-0.2444;
281.4000;0.1425;-0.2419;
281.7000;0.1449;-0.2319;
282.0000;0.1441;-0.2394;
282.3000;0.1433;-0.2468;
282.6000;0.1416;-0.2493;
282.9000;0.1441;-0.2344;
283.2000;0.1441;-0.2344;
283.5000;0.1433;-0.2294;
283.8000;0.1441;-0.2269;
284.1000;0.1368;-0.2444;
284.4000;0.1538;-0.1970;
284.7000;0.1449;-0.2269;
285.0000;0.1425;-0.2294;
285.3000;0.1457;-0.2244;
285.6000;0.1449;-0.2319;
285.9000;0.1457;-0.2244;
286.2000;0.1481;-0.2094;
286.5000;0.1538;-0.1920;
286.8000;0.1506;-0.2020;
287.1000;0.1457;-0.2169;
287.4000;0.1441;-0.2369;
287.7000;0.1449;-0.2369;
288.0000;0.1384;-0.2468;
288.3000;0.1457;-0.2394;
288.6000;0.1441;-0.2369;
288.9000;0.1425;-0.2419;
289.2000;0.1425;-0.2468;
289.5000;0.1441;-0.2444;
289.8000;0.1433;-0.2369;
290.1000;0.1465;-0.2319;
290.4000;0.1425;-0.2369;
290.7000;0.1449;-0.2419;
291.0000;0.1441;-0.2394;
291.3000;0.1449;-0.2444;
291.6000;0.1449;-0.2419;
291.9000;0.1490;-0.2244;
292.2000;0.1457;-0.2344;
292.5000;0.1433;-0.2369;
292.8000;0.1441;-0.2394;
293.1000;0.1457;-0.2419;
293.4000;0.1441;-0.2444;
293.7000;0.1425;-0.2344;
294.0000;0.1433;-0.2244;
294.3000;0.1441;-0.2169;
294.6000;0.1441;-0.2069;
294.9000;0.1441;-0.2119;
295.2000;0.1441;-0.2144;
295.5000;0.1433;-0.2144;
295.8000;0.1457;-0.1970;
296.1000;0.1457;-0.1995;
296.4000;0.1449;-0.2020;
296.7000;0.1441;-0.1995;
297.0000;0.1449;-0.2045;
297.3000;0.1441;-0.2045;
297.6000;0.1481;-0.1945;
297.9000;0.1425;-0.2020;
298.2000;0.1441;-0.2045;
298.5000;0.1441;-0.1970;
298.8000;0.1416;-0.2069;
299.1000;0.1433;-0.2119;
299.4000;0.1433;-0.2045;
299.7000;0.1416;-0.2045;
300.0000;0.1441;-0.2045;
300.3000;0.1416;-0.2020;
300.6000;0.1433;-0.1995;
300.9000;0.1441;-0.1995;
301.2000;0.1441;-0.2045;
301.5000;0.1441;-0.2094;
301.8000;0.1441;-0.2144;
302.1000;0.1441;-0.2069;
302.4000;0.1441;-0.2144;
302.7000;0.1408;-0.2169;
303.0000;0.1441;-0.2169;
303.3000;0.1433;-0.2294;
303.6000;0.1449;-0.2269;
303.9000;0.1433;-0.2219;
304.2000;0.1392;-0.2444;
304.5000;0.1441;-0.2219;
304.8000;0.1441;-0.2269;
305.1000;0.1457;-0.2244;
305.4000;0.1425;-0.2244;
305.7000;0.1498;-0.1995;
306.0000;0.1449;-0.2219;
306.3000;0.1449;-0.2394;
306.6000;0.1425;-0.2444;
306.9000;0.1441;-0.2444;
307.2000;0.1441;-0.2369;
307.5000;0.1498;-0.2244;
307.8000;0.1465;-0.2319;
308.1000;0.1441;-0.2294;
308.4000;0.1433;-0.2194;
308.7000;0.1416;-0.2144;
309.0000;0.1449;-0.2045;
309.3000;0.1425;-0.2094;
309.6000;0.1392;-0.2244;
309.9000;0.1433;-0.2194;
310.2000;0.1433;-0.2144;
310.5000;0.1425;-0.2169;
310.8000;0.1441;-0.2194;
311.1000;0.1376;-0.2319;
311.4000;0.1457;-0.2094;
311.7000;0.1465;-0.2169;
312.0000;0.1433;-0.2219;
312.3000;0.1449;-0.2169;
312.6000;0.1433;-0.2194;
312.9000;0.1433;-0.2119;
313.2000;0.1425;-0.2119;
313.5000;0.1441;-0.2094;
313.8000;0.1433;-0.2119;
314.1000;0.1416;-0.2219;
314.4000;0.1433;-0.2194;
314.7000;0.1441;-0.2169;
315.0000;0.1416;-0.2169;
315.3000;0.1433;-0.2219;
315.6000;0.1449;-0.2294;
315.9000;0.1465;-0.2269;
316.2000;0.1449;-0.2319;
316.5000;0.1425;-0.2369;
316.8000;0.1416;-0.2269;
317.1000;0.1441;-0.2244;
317.4000;0.1449;-0.2194;
317.7000;0.1498;-0.2119;
318.0000;0.1416;-0.2194;
318.3000;0.1441;-0.2094;
318.6000;0.1481;-0.1895;
318.9000;0.1473;-0.1970;
319.2000;0.1441;-0.1995;
319.5000;0.1433;-0.2069;
319.8000;0.1433;-0.2094;
320.1000;0.1465;-0.2069;
320.4000;0.1392;-0.2219;
320.7000;0.1441;-0.2119;
321.0000;0.1449;-0.2169;
321.3000;0.1449;-0.2119;
321.6000;0.1441;-0.2045;
321.9000;0.1433;-0.2094;
322.2000;0.1441;-0.2144;
322.5000;0.1433;-0.2269;
322.8000;0.1449;-0.2194;
323.1000;0.1441;-0.2219;
323.4000;0.1441;-0.2144;
323.7000;0.1441;-0.2094;
324.0000;0.1425;-0.2169;
324.3000;0.1473;-0.2169;
324.6000;0.1425;-0.2269;
324.9000;0.1433;-0.2144;
325.2000;0.1433;-0.2194;
325.5000;0.1457;-0.2219;
325.8000;0.1441;-0.2269;
326.1000;0.1465;-0.2219;
326.4000;0.1490;-0.2094;
326.7000;0.1425;-0.2119;
327.0000;0.1473;-0.1895;
327.3000;0.1408;-0.2069;
327.6000;0.1433;-0.2020;
327.9000;0.1433;-0.1995;
328.2000;0.1416;-0.2069;
328.5000;0.1384;-0.2269;
328.8000;0.1441;-0.2144;
329.1000;0.1490;-0.2069;
329.4000;0.1416;-0.2244;
329.7000;0.1416;-0.2194;
330.0000;0.1465;-0.2144;
330.3000;0.1449;-0.2319;
330.6000;0.1359;-0.2543;
330.9000;0.1425;-0.2394;
331.2000;0.1506;-0.2169;
331.5000;0.1449;-0.2369;
331.8000;0.1433;-0.2419;
332.1000;0.1449;-0.2319;
332.4000;0.1433;-0.2269;
332.7000;0.1449;-0.2045;
333.0000;0.1449;-0.1995;
333.3000;0.1433;-0.2045;
333.6000;0.1441;-0.1995;
333.9000;0.1433;-0.2119;
334.2000;0.1490;-0.2020;
334.5000;0.1425;-0.2244;
334.8000;0.1433;-0.2119;
335.1000;0.1425;-0.2244;
335.4000;0.1449;-0.2144;
335.7000;0.1441;-0.2169;
336.0000;0.1425;-0.2194;
336.3000;0.1433;-0.2194;
336.6000;0.1441;-0.2269;
336.9000;0.1441;-0.2294;
337.2000;0.1441;-0.2169;
337.5000;0.1441;-0.2119;
337.8000;0.1441;-0.2194;
338.1000;0.1449;-0.2194;
338.4000;0.1433;-0.2319;
338.7000;0.1433;-0.2344;
339.0000;0.1433;-0.2319;
339.3000;0.1433;-0.2244;
339.6000;0.1449;-0.2169;
339.9000;0.1449;-0.2144;
340.2000;0.1441;-0.2194;
340.5000;0.1425;-0.2219;
340.8000;0.1457;-0.2144;
341.1000;0.1351;-0.2493;
341.4000;0.1408;-0.2369;
341.7000;0.1449;-0.2319;
342.0000;0.1433;-0.2369;
342.3000;0.1441;-0.2244;
342.6000;0.1465;-0.2219;
342.9000;0.1457;-0.2219;
343.2000;0.1449;-0.2319;
343.5000;0.1441;-0.2244;
343.8000;0.1433;-0.2194;
344.1000;0.1425;-0.2244;
344.4000;0.1433;-0.2269;
344.7000;0.1473;-0.2094;
345.0000;0.1465;-0.2119;
345.3000;0.1530;-0.1995;
345.6000;0.1449;-0.2144;
345.9000;0.1449;-0.2194;
346.2000;0.1441;-0.2194;
346.5000;0.1441;-0.2219;
346.8000;0.1514;-0.2069;
347.1000;0.1441;-0.2244;
347.4000;0.1449;-0.2244;
347.7000;0.1449;-0.2219;
348.0000;0.1457;-0.2144;
348.3000;0.1433;-0.2144;
348.6000;0.1433;-0.2094;
348.9000;0.1433;-0.2069;
349.2000;0.1392;-0.2194;
349.5000;0.1408;-0.2094;
349.8000;0.1457;-0.2020;
350.1000;0.1425;-0.2244;
350.4000;0.1481;-0.2194;
350.7000;0.1449;-0.2169;
351.0000;0.1425;-0.2219;
351.3000;0.1392;-0.2294;
351.6000;0.1392;-0.2244;
351.9000;0.1425;-0.2144;
352.2000;0.1408;-0.2294;
352.5000;0.1449;-0.2144;
352.8000;0.1425;-0.2144;
353.1000;0.1441;-0.2094;
353.4000;0.1473;-0.2069;
353.7000;0.1441;-0.2094;
354.0000;0.1384;-0.2269;
354.3000;0.1319;-0.2419;
354.6000;0.1425;-0.1995;
354.9000;0.1433;-0.2069;
355.2000;0.1400;-0.2169;
355.5000;0.1441;-0.2094;
355.8000;0.1425;-0.2069;
356.1000;0.1481;-0.1995;
356.4000;0.1425;-0.2169;
356.7000;0.1425;-0.2144;
357.0000;0.1433;-0.2219;
357.3000;0.1433;-0.2344;
357.6000;0.1506;-0.2269;
357.9000;0.1457;-0.2419;
358.2000;0.1490;-0.2319;
358.5000;0.1433;-0.2444;
358.8000;0.1473;-0.2369;
359.1000;0.1425;-0.2419;
359.4000;0.1441;-0.2394;
359.7000;0.1473;-0.2394;
360.0000;0.1514;-0.2119;
360.3000;0.1441;-0.2219;
360.6000;0.1400;-0.2344;
360.9000;0.1425;-0.2294;
361.2000;0.1449;-0.2244;
361.5000;0.1425;-0.2319;
361.8000;0.1425;-0.2319;
362.1000;0.1457;-0.2369;
362.4000;0.1433;-0.2344;
362.7000;0.1433;-0.2344;
363.0000;0.1441;-0.2369;
363.3000;0.1425;-0.2468;
363.6000;0.1498;-0.2369;
363.9000;0.1449;-0.2419;
364.2000;0.1433;-0.2369;
364.5000;0.1425;-0.2394;
364.8000;0.1441;-0.2344;
365.1000;0.1433;-0.2244;
365.4000;0.1498;-0.2045;
365.7000;0.1481;-0.2045;
366.0000;0.1441;-0.2169;
366.3000;0.1473;-0.2144;
366.6000;0.1441;-0.2219;
366.9000;0.1416;-0.2319;
367.2000;0.1441;-0.2269;
367.5000;0.1538;-0.1945;
367.8000;0.1465;-0.2144;
368.1000;0.1433;-0.2144;
368.4000;0.1392;-0.2194;
368.7000;0.1433;-0.2069;
369.0000;0.1433;-0.2244;
369.3000;0.1425;-0.2294;
369.6000;0.1433;-0.2294;
369.9000;0.1449;-0.2244;
370.2000;0.1457;-0.2169;
370.5000;0.1433;-0.2269;
370.8000;0.1441;-0.2319;
371.1000;0.1433;-0.2394;
371.4000;0.1433;-0.2294;
371.7000;0.1384;-0.2294;
372.0000;0.1457;-0.2045;
372.3000;0.1441;-0.2045;
372.6000;0.1441;-0.2169;
372.9000;0.1457;-0.2219;
373.2000;0.1433;-0.2294;
373.5000;0.1425;-0.2344;
373.8000;0.1384;-0.2468;
374.1000;0.1433;-0.2269;
374.4000;0.1449;-0.2219;
374.7000;0.1441;-0.2194;
375.0000;0.1416;-0.2369;
375.3000;0.1465;-0.2294;
375.6000;0.1416;-0.2344;
375.9000;0.1441;-0.2394;
376.2000;0.1465;-0.2244;
376.5000;0.1433;-0.2244;
376.8000;0.1465;-0.2119;
377.1000;0.1441;-0.2194;
377.4000;0.1425;-0.2319;
377.7000;0.1441;-0.2269;
378.0000;0.1441;-0.2244;
378.3000;0.1416;-0.2394;
378.6000;0.1449;-0.2419;
378.9000;0.1457;-0.2344;
379.2000;0.1441;-0.2319;
379.5000;0.1433;-0.2294;
379.8000;0.1392;-0.2419;
380.1000;0.1441;-0.2344;
380.4000;0.1425;-0.2344;
380.7000;0.1522;-0.2069;
381.0000;0.1457;-0.2219;
381.3000;0.1425;-0.2269;
381.6000;0.1441;-0.2269;
381.9000;0.1514;-0.2119;
382.2000;0.1425;-0.2269;
382.5000;0.1449;-0.2294;
382.8000;0.1449;-0.2294;
383.1000;0.1416;-0.2344;
383.4000;0.1441;-0.2244;
383.7000;0.1457;-0.2194;
384.0000;0.1433;-0.2194;
384.3000;0.1425;-0.2219;
384.6000;0.1449;-0.2269;
384.9000;0.1441;-0.2344;
385.2000;0.1433;-0.2369;
385.5000;0.1433;-0.2294;
385.8000;0.1408;-0.2419;
386.1000;0.1449;-0.2244;
386.4000;0.1433;-0.2219;
386.7000;0.1376;-0.2394;
387.0000;0.1433;-0.2269;
387.3000;0.1449;-0.2169;
387.6000;0.1506;-0.1995;
387.9000;0.1425;-0.2169;
388.2000;0.1441;-0.2169;
388.5000;0.1425;-0.2194;
388.8000;0.1368;-0.2394;
389.1000;0.1433;-0.2269;
389.4000;0.1457;-0.2269;
389.7000;0.1441;-0.2319;
390.0000;0.1506;-0.2119;
390.3000;0.1457;-0.2244;
390.6000;0.1384;-0.2543;
390.9000;0.1465;-0.2369;
391.2000;0.1449;-0.2319;
391.5000;0.1465;-0.2219;
391.8000;0.1416;-0.2394;
392.1000;0.1433;-0.2394;
392.4000;0.1425;-0.2369;
392.7000;0.1449;-0.2319;
393.0000;0.1473;-0.2294;
393.3000;0.1433;-0.2543;
393.6000;0.1449;-0.2493;
393.9000;0.1465;-0.2419;
394.2000;0.1408;-0.2543;
394.5000;0.1441;-0.2468;
394.8000;0.1457;-0.2369;
395.1000;0.1457;-0.2344;
395.4000;0.1441;-0.2369;
395.7000;0.1441;-0.2369;
396.0000;0.1416;-0.2394;
396.3000;0.1473;-0.2169;
396.6000;0.1408;-0.2194;
396.9000;0.1433;-0.2219;
397.2000;0.1449;-0.2069;
397.5000;0.1416;-0.2069;
397.8000;0.1538;-0.1720;
398.1000;0.1441;-0.2020;
398.4000;0.1416;-0.2119;
398.7000;0.1433;-0.2144;
399.0000;0.1449;-0.2144;
399.3000;0.1425;-0.2144;
399.6000;0.1441;-0.2119;
399.9000;0.1441;-0.2094;
400.2000;0.1392;-0.2219;
400.5000;0.1392;-0.2269;
400.8000;0.1408;-0.2269;
401.1000;0.1441;-0.2169;
401.4000;0.1433;-0.2269;
401.7000;0.1416;-0.2294;
402.0000;0.1473;-0.2094;
402.3000;0.1433;-0.2219;
402.6000;0.1473;-0.2219;
402.9000;0.1433;-0.2344;
403.2000;0.1384;-0.2444;
403.5000;0.1392;-0.2319;
403.8000;0.1441;-0.2119;
404.1000;0.1400;-0.2319;
404.4000;0.1441;-0.2269;
404.7000;0.1433;-0.2319;
405.0000;0.1481;-0.2119;
405.3000;0.1441;-0.2169;
405.6000;0.1425;-0.2294;
405.9000;0.1514;-0.2045;
406.2000;0.1441;-0.2169;
406.5000;0.1425;-0.2194;
406.8000;0.1433;-0.2144;
407.1000;0.1425;-0.2219;
407.4000;0.1425;-0.2294;
407.7000;0.1449;-0.2244;
408.0000;0.1416;-0.2244;
408.3000;0.1433;-0.2269;
408.6000;0.1441;-0.2244;
408.9000;0.1433;-0.2294;
409.2000;0.1425;-0.2344;
409.5000;0.1433;-0.2344;
409.8000;0.1433;-0.2344;
410.1000;0.1408;-0.2369;
410.4000;0.1425;-0.2344;
410.7000;0.1433;-0.2244;
411.0000;0.1425;-0.2344;
411.3000;0.1416;-0.2294;
411.6000;0.1441;-0.2219;
411.9000;0.1392;-0.2294;
412.2000;0.1433;-0.2244;
412.5000;0.1433;-0.2219;
412.8000;0.1449;-0.2144;
413.1000;0.1425;-0.2169;
413.4000;0.1441;-0.2344;
413.7000;0.1457;-0.2269;
414.0000;0.1433;-0.2394;
414.3000;0.1441;-0.2319;
414.6000;0.1441;-0.2269;
414.9000;0.1416;-0.2294;
415.2000;0.1441;-0.2219;
415.5000;0.1449;-0.2319;
415.8000;0.1457;-0.2269;
416.1000;0.1441;-0.2319;
416.4000;0.1359;-0.2543;
416.7000;0.1433;-0.2419;
417.0000;0.1498;-0.2294;
417.3000;0.1433;-0.2468;
417.6000;0.1457;-0.2369;
417.9000;0.1457;-0.2369;
418.2000;0.1449;-0.2394;
418.5000;0.1441;-0.2344;
418.8000;0.1449;-0.2269;
419.1000;0.1425;-0.2294;
419.4000;0.1416;-0.2319;
419.7000;0.1449;-0.2219;
420.0000;0.1416;-0.2369;
420.3000;0.1433;-0.2294;
420.6000;0.1449;-0.2244;
420.9000;0.1441;-0.2319;
421.2000;0.1433;-0.2319;
421.5000;0.1425;-0.2319;
421.8000;0.1449;-0.2344;
422.1000;0.1449;-0.2369;
422.4000;0.1433;-0.2468;
422.7000;0.1555;-0.2119;
423.0000;0.1425;-0.2543;
423.3000;0.1441;-0.2543;
423.6000;0.1457;-0.2444;
423.9000;0.1392;-0.2444;
424.2000;0.1425;-0.2344;
424.5000;0.1425;-0.2244;
424.8000;0.1416;-0.2294;
425.1000;0.1441;-0.2369;
425.4000;0.1425;-0.2369;
425.7000;0.1425;-0.2394;
426.0000;0.1425;-0.2444;
426.3000;0.1433;-0.2394;
426.6000;0.1481;-0.2244;
426.9000;0.1465;-0.2294;
427.2000;0.1433;-0.2394;
427.5000;0.1359;-0.2518;
427.8000;0.1449;-0.2294;
428.1000;0.1441;-0.2244;
428.4000;0.1441;-0.2244;
428.7000;0.1441;-0.2319;
429.0000;0.1343;-0.2593;
429.3000;0.1433;-0.2419;
429.6000;0.1425;-0.2419;
429.9000;0.1449;-0.2294;
430.2000;0.1441;-0.2319;
430.5000;0.1433;-0.2244;
430.8000;0.1433;-0.2244;
431.1000;0.1465;-0.1995;
431.4000;0.1425;-0.2169;
431.7000;0.1319;-0.2444;
432.0000;0.1433;-0.2144;
432.3000;0.1425;-0.2094;
432.6000;0.1441;-0.2094;
432.9000;0.1433;-0.2144;
433.2000;0.1441;-0.2119;
433.5000;0.1408;-0.2169;
433.8000;0.1441;-0.2094;
434.1000;0.1425;-0.2219;
434.4000;0.1433;-0.2169;
434.7000;0.1441;-0.2069;
435.0000;0.1425;-0.2169;
435.3000;0.1425;-0.2219;
435.6000;0.1416;-0.2244;
435.9000;0.1433;-0.2244;
436.2000;0.1416;-0.2419;
436.5000;0.1481;-0.2219;
436.8000;0.1433;-0.2244;
437.1000;0.1441;-0.2194;
437.4000;0.1481;-0.2094;
437.7000;0.1441;-0.2319;
438.0000;0.1449;-0.2294;
438.3000;0.1441;-0.2219;
438.6000;0.1433;-0.2269;
438.9000;0.1449;-0.2319;
439.2000;0.1433;-0.2394;
439.5000;0.1441;-0.2319;
439.8000;0.1425;-0.2294;
440.1000;0.1433;-0.2269;
440.4000;0.1449;-0.2244;
440.7000;0.1425;-0.2344;
441.0000;0.1425;-0.2319;
441.3000;0.1425;-0.2344;
441.6000;0.1408;-0.2419;
441.9000;0.1433;-0.2194;
442.2000;0.1408;-0.2219;
442.5000;0.1416;-0.2244;
442.8000;0.1416;-0.2219;
443.1000;0.1416;-0.2169;
443.4000;0.1506;-0.1920;
443.7000;0.1425;-0.2169;
444.0000;0.1425;-0.2069;
444.3000;0.1441;-0.1995;
444.6000;0.1490;-0.1870;
444.9000;0.1425;-0.2119;
445.2000;0.1433;-0.1995;
445.5000;0.1416;-0.2094;
445.8000;0.1425;-0.2119;
446.1000;0.1425;-0.2219;
446.4000;0.1433;-0.2219;
446.7000;0.1408;-0.2294;
447.0000;0.1441;-0.2194;
447.3000;0.1498;-0.2119;
447.6000;0.1433;-0.2319;
447.9000;0.1433;-0.2394;
448.2000;0.1359;-0.2618;
448.5000;0.1425;-0.2369;
448.8000;0.1425;-0.2269;
449.1000;0.1441;-0.2269;
449.4000;0.1433;-0.2319;
449.7000;0.1433;-0.2219;
450.0000;0.1433;-0.2344;
450.3000;0.1425;-0.2419;
450.6000;0.1441;-0.2444;
450.9000;0.1433;-0.2344;
451.2000;0.1441;-0.2269;
451.5000;0.1441;-0.2194;
451.8000;0.1416;-0.2219;
452.1000;0.1400;-0.2219;
452.4000;0.1449;-0.2045;
452.7000;0.1400;-0.2169;
453.0000;0.1441;-0.2045;
453.3000;0.1416;-0.2194;
453.6000;0.1433;-0.2194;
453.9000;0.1433;-0.2169;
454.2000;0.1400;-0.2269;
454.5000;0.1441;-0.2169;
454.8000;0.1457;-0.2144;
455.1000;0.1433;-0.2219;
455.4000;0.1457;-0.2194;
455.7000;0.1441;-0.2169;
456.0000;0.1425;-0.2169;
456.3000;0.1441;-0.2144;
456.6000;0.1538;-0.1845;
456.9000;0.1433;-0.2094;
457.2000;0.1441;-0.2069;
457.5000;0.1416;-0.2144;
457.8000;0.1473;-0.2144;
458.1000;0.1449;-0.2269;
458.4000;0.1441;-0.2269;
458.7000;0.1473;-0.2169;
459.0000;0.1465;-0.2144;
459.3000;0.1457;-0.2169;
459.6000;0.1441;-0.2194;
459.9000;0.1449;-0.2269;
460.2000;0.1433;-0.2444;
460.5000;0.1457;-0.2294;
460.8000;0.1433;-0.2319;
461.1000;0.1425;-0.2294;
461.4000;0.1457;-0.2144;
461.7000;0.1400;-0.2219;
462.0000;0.1392;-0.2294;
462.3000;0.1465;-0.2119;
462.6000;0.1433;-0.2144;
462.9000;0.1416;-0.2319;
463.2000;0.1449;-0.2194;
463.5000;0.1433;-0.2244;
463.8000;0.1449;-0.2144;
464.1000;0.1457;-0.2094;
464.4000;0.1384;-0.2269;
464.7000;0.1441;-0.2219;
465.0000;0.1449;-0.2369;
465.3000;0.1481;-0.2394;
465.6000;0.1441;-0.2419;
465.9000;0.1433;-0.2394;
466.2000;0.1425;-0.2394;
466.5000;0.1433;-0.2369;
466.8000;0.1441;-0.2444;
467.1000;0.1384;-0.2468;
467.4000;0.1376;-0.2444;
467.7000;0.1441;-0.2344;
468.0000;0.1433;-0.2294;
468.3000;0.1449;-0.2269;
468.6000;0.1449;-0.2194;
468.9000;0.1433;-0.2194;
469.2000;0.1457;-0.2194;
469.5000;0.1368;-0.2518;
469.8000;0.1433;-0.2319;
470.1000;0.1433;-0.2319;
470.4000;0.1465;-0.2269;
470.7000;0.1425;-0.2419;
471.0000;0.1441;-0.2394;
471.3000;0.1490;-0.2244;
471.6000;0.1400;-0.2294;
471.9000;0.1433;-0.2269;
472.2000;0.1506;-0.2144;
472.5000;0.1408;-0.2319;
472.8000;0.1449;-0.2244;
473.1000;0.1416;-0.2419;
473.4000;0.1416;-0.2394;
473.7000;0.1376;-0.2444;
474.0000;0.1433;-0.2369;
474.3000;0.1449;-0.2194;
474.6000;0.1433;-0.2244;
474.9000;0.1433;-0.2319;
475.2000;0.1433;-0.2319;
475.5000;0.1408;-0.2319;
475.8000;0.1457;-0.2169;
476.1000;0.1433;-0.2169;
476.4000;0.1433;-0.2119;
476.7000;0.1433;-0.2144;
477.0000;0.1425;-0.2144;
477.3000;0.1416;-0.2144;
477.6000;0.1449;-0.2020;
477.9000;0.1465;-0.1970;
478.2000;0.1416;-0.2094;
478.5000;0.1433;-0.1945;
478.8000;0.1425;-0.2020;
479.1000;0.1416;-0.1945;
479.4000;0.1384;-0.2119;
479.7000;0.1441;-0.2144;
480.0000;0.1457;-0.2144;
480.3000;0.1473;-0.2169;
480.6000;0.1416;-0.2244;
480.9000;0.1465;-0.2119;
481.2000;0.1416;-0.2269;
481.5000;0.1433;-0.2269;
481.8000;0.1433;-0.2244;
482.1000;0.1416;-0.2094;
482.4000;0.1457;-0.1970;
482.7000;0.1473;-0.1945;
483.0000;0.1538;-0.1720;
483.3000;0.1425;-0.1995;
483.6000;0.1433;-0.1995;
483.9000;0.1400;-0.2169;
484.2000;0.1433;-0.1995;
484.5000;0.1425;-0.2045;
484.8000;0.1408;-0.2094;
485.1000;0.1416;-0.2194;
485.4000;0.1425;-0.2194;
485.7000;0.1416;-0.2294;
486.0000;0.1449;-0.2294;
486.3000;0.1416;-0.2369;
486.6000;0.1441;-0.2369;
486.9000;0.1441;-0.2394;
487.2000;0.1441;-0.2394;
487.5000;0.1425;-0.2419;
487.8000;0.1441;-0.2269;
488.1000;0.1433;-0.2294;
488.4000;0.1457;-0.2244;
488.7000;0.1449;-0.2394;
489.0000;0.1433;-0.2444;
489.3000;0.1457;-0.2419;
489.6000;0.1514;-0.2269;
489.9000;0.1408;-0.2444;
490.2000;0.1433;-0.2344;
490.5000;0.1433;-0.2369;
490.8000;0.1449;-0.2369;
491.1000;0.1441;-0.2269;
491.4000;0.1425;-0.2219;
491.7000;0.1425;-0.2169;
492.0000;0.1441;-0.2144;
492.3000;0.1425;-0.2219;
492.6000;0.1359;-0.2419;
492.9000;0.1481;-0.2144;
493.2000;0.1425;-0.2319;
493.5000;0.1465;-0.2244;
493.8000;0.1433;-0.2219;
494.1000;0.1392;-0.2269;
494.4000;0.1433;-0.2144;
494.7000;0.1359;-0.2344;
495.0000;0.1408;-0.2244;
495.3000;0.1433;-0.2144;
495.6000;0.1416;-0.2219;
495.9000;0.1400;-0.2269;
496.2000;0.1425;-0.2294;
496.5000;0.1441;-0.2269;
496.8000;0.1425;-0.2269;
497.1000;0.1449;-0.2244;
497.4000;0.1433;-0.2244;
497.7000;0.1457;-0.2069;
498.0000;0.1457;-0.2069;
498.3000;0.1457;-0.2119;
498.6000;0.1343;-0.2419;
498.9000;0.1392;-0.2219;
499.2000;0.1408;-0.2094;
499.5000;0.1441;-0.2045;
499.8000;0.1433;-0.2144;
500.1000;0.1400;-0.2294;
500.4000;0.1433;-0.2219;
500.7000;0.1441;-0.2219;
501.0000;0.1425;-0.2244;
501.3000;0.1425;-0.2194;
501.6000;0.1449;-0.2069;
501.9000;0.1457;-0.2119;
502.2000;0.1441;-0.2119;
502.5000;0.1408;-0.2194;
502.8000;0.1433;-0.2244;
503.1000;0.1449;-0.2219;
503.4000;0.1441;-0.2169;
503.7000;0.1433;-0.2294;
504.0000;0.1416;-0.2269;
504.3000;0.1294;-0.2493;
504.6000;0.1441;-0.2169;
504.9000;0.1457;-0.2194;
505.2000;0.1433;-0.2244;
505.5000;0.1498;-0.2144;
505.8000;0.1441;-0.2369;
506.1000;0.1433;-0.2344;
506.4000;0.1449;-0.2244;
506.7000;0.1441;-0.2219;
507.0000;0.1441;-0.2144;
507.3000;0.1457;-0.2119;
507.6000;0.1441;-0.2244;
507.9000;0.1449;-0.2194;
508.2000;0.1449;-0.2144;
508.5000;0.1359;-0.2394;
508.8000;0.1433;-0.2294;
509.1000;0.1449;-0.2219;
509.4000;0.1433;-0.2219;
509.7000;0.1441;-0.2194;
510.0000;0.1441;-0.2194;
510.3000;0.1433;-0.2169;
510.6000;0.1408;-0.2169;
510.9000;0.1433;-0.2094;
511.2000;0.1416;-0.2094;
511.5000;0.1433;-0.2069;
511.8000;0.1441;-0.2094;
512.1000;0.1457;-0.1970;
512.4000;0.1408;-0.2069;
512.7000;0.1416;-0.2219;
513.0000;0.1416;-0.2144;
513.3000;0.1449;-0.2045;
513.6000;0.1449;-0.2094;
513.9000;0.1425;-0.2269;
514.2000;0.1433;-0.2344;
514.5000;0.1433;-0.2294;
514.8000;0.1457;-0.2244;
515.1000;0.1359;-0.2468;
515.4000;0.1465;-0.2144;
515.7000;0.1433;-0.2169;
516.0000;0.1416;-0.2169;
516.3000;0.1416;-0.2194;
516.6000;0.1343;-0.2493;
516.9000;0.1433;-0.2169;
517.2000;0.1425;-0.2219;
517.5000;0.1473;-0.2045;
517.8000;0.1408;-0.2219;
518.1000;0.1425;-0.2169;
518.4000;0.1425;-0.2069;
518.7000;0.1441;-0.2094;
519.0000;0.1441;-0.2119;
519.3000;0.1433;-0.2169;
519.6000;0.1425;-0.2045;
519.9000;0.1465;-0.1895;
520.2000;0.1441;-0.1970;
520.5000;0.1441;-0.2069;
520.8000;0.1465;-0.2020;
521.1000;0.1400;-0.2194;
521.4000;0.1433;-0.2144;
521.7000;0.1425;-0.2169;
522.0000;0.1433;-0.2194;
522.3000;0.1441;-0.2169;
522.6000;0.1441;-0.2169;
522.9000;0.1433;-0.2194;
523.2000;0.1433;-0.2219;
523.5000;0.1449;-0.2169;
523.8000;0.1441;-0.2269;
524.1000;0.1449;-0.2244;
524.4000;0.1425;-0.2294;
524.7000;0.1441;-0.2194;
525.0000;0.1449;-0.2294;
525.3000;0.1441;-0.2269;
525.6000;0.1425;-0.2294;
525.9000;0.1449;-0.2194;
526.2000;0.1441;-0.2194;
526.5000;0.1408;-0.2319;
526.8000;0.1416;-0.2244;
527.1000;0.1416;-0.2144;
527.4000;0.1433;-0.2094;
527.7000;0.1441;-0.2094;
528.0000;0.1425;-0.2069;
528.3000;0.1530;-0.1820;
528.6000;0.1425;-0.2094;
528.9000;0.1433;-0.2069;
529.2000;0.1441;-0.2094;
529.5000;0.1490;-0.1970;
529.8000;0.1441;-0.2094;
530.1000;0.1449;-0.2119;
530.4000;0.1441;-0.2119;
530.7000;0.1449;-0.2045;
531.0000;0.1457;-0.2119;
531.3000;0.1359;-0.2369;
531.6000;0.1416;-0.2219;
531.9000;0.1425;-0.2094;
532.2000;0.1441;-0.2069;
532.5000;0.1449;-0.2144;
532.8000;0.1433;-0.2269;
533.1000;0.1425;-0.2344;
533.4000;0.1425;-0.2244;
533.7000;0.1473;-0.2169;
534.0000;0.1433;-0.2244;
534.3000;0.1400;-0.2269;
534.6000;0.1433;-0.2244;
534.9000;0.1400;-0.2419;
535.2000;0.1481;-0.2219;
535.5000;0.1433;-0.2294;
535.8000;0.1449;-0.2294;
536.1000;0.1441;-0.2419;
536.4000;0.1408;-0.2468;
536.7000;0.1441;-0.2444;
537.0000;0.1433;-0.2419;
537.3000;0.1400;-0.2518;
537.6000;0.1408;-0.2468;
537.9000;0.1351;-0.2643;
538.2000;0.1506;-0.2269;
538.5000;0.1441;-0.2344;
538.8000;0.1498;-0.2219;
539.1000;0.1416;-0.2419;
539.4000;0.1392;-0.2493;
539.7000;0.1498;-0.2144;
540.0000;0.1433;-0.2219;
540.3000;0.1441;-0.2294;
540.6000;0.1481;-0.2169;
540.9000;0.1433;-0.2344;
541.2000;0.1457;-0.2344;
541.5000;0.1392;-0.2468;
541.8000;0.1416;-0.2419;
542.1000;0.1416;-0.2394;
542.4000;0.1425;-0.2344;
542.7000;0.1425;-0.2369;
543.0000;0.1441;-0.2319;
543.3000;0.1425;-0.2194;
543.6000;0.1538;-0.1945;
543.9000;0.1433;-0.2219;
544.2000;0.1441;-0.2269;
544.5000;0.1400;-0.2394;
544.8000;0.1465;-0.2144;
545.1000;0.1425;-0.2244;
545.4000;0.1441;-0.2269;
545.7000;0.1465;-0.2269;
546.0000;0.1530;-0.2045;
546.3000;0.1433;-0.2269;
546.6000;0.1408;-0.2319;
546.9000;0.1425;-0.2169;
547.2000;0.1457;-0.1970;
547.5000;0.1441;-0.2094;
547.8000;0.1425;-0.2244;
548.1000;0.1433;-0.2194;
548.4000;0.1441;-0.2294;
548.7000;0.1416;-0.2369;
549.0000;0.1441;-0.2319;
549.3000;0.1441;-0.2319;
549.6000;0.1425;-0.2344;
549.9000;0.1408;-0.2344;
550.2000;0.1425;-0.2319;
550.5000;0.1433;-0.2394;
550.8000;0.1449;-0.2444;
551.1000;0.1441;-0.2468;
551.4000;0.1441;-0.2543;
551.7000;0.1425;-0.2518;
552.0000;0.1449;-0.2319;
552.3000;0.1425;-0.2344;
552.6000;0.1465;-0.2269;
552.9000;0.1433;-0.2244;
553.2000;0.1433;-0.2194;
553.5000;0.1441;-0.2194;
553.8000;0.1457;-0.2194;
554.1000;0.1433;-0.2244;
554.4000;0.1408;-0.2344;
554.7000;0.1376;-0.2444;
555.0000;0.1416;-0.2444;
555.3000;0.1441;-0.2444;
555.6000;0.1433;-0.2419;
555.9000;0.1376;-0.2593;
556.2000;0.1433;-0.2419;
556.5000;0.1425;-0.2444;
556.8000;0.1441;-0.2294;
557.1000;0.1433;-0.2294;
557.4000;0.1433;-0.2319;
557.7000;0.1425;-0.2394;
558.0000;0.1425;-0.2344;
558.3000;0.1425;-0.2344;
558.6000;0.1433;-0.2419;
558.9000;0.1441;-0.2344;
559.2000;0.1449;-0.2369;
559.5000;0.1400;-0.2444;
559.8000;0.1465;-0.2369;
560.1000;0.1457;-0.2493;
560.4000;0.1425;-0.2568;
560.7000;0.1416;-0.2543;
561.0000;0.1416;-0.2444;
561.3000;0.1433;-0.2344;
561.6000;0.1408;-0.2344;
561.9000;0.1441;-0.2369;
562.2000;0.1433;-0.2344;
562.5000;0.1457;-0.2194;
562.8000;0.1441;-0.2344;
563.1000;0.1514;-0.2219;
563.4000;0.1416;-0.2444;
563.7000;0.1425;-0.2543;
564.0000;0.1465;-0.2444;
564.3000;0.1425;-0.2493;
564.6000;0.1522;-0.2244;
564.9000;0.1425;-0.2593;
565.2000;0.1449;-0.2593;
565.5000;0.1425;-0.2643;
565.8000;0.1408;-0.2593;
566.1000;0.1425;-0.2543;
566.4000;0.1416;-0.2543;
566.7000;0.1433;-0.2369;
567.0000;0.1408;-0.2468;
567.3000;0.1425;-0.2319;
567.6000;0.1449;-0.2244;
567.9000;0.1449;-0.2269;
568.2000;0.1400;-0.2394;
568.5000;0.1457;-0.2294;
568.8000;0.1498;-0.2244;
569.1000;0.1465;-0.2319;
569.4000;0.1465;-0.2294;
569.7000;0.1449;-0.2493;
570.0000;0.1457;-0.2444;
570.3000;0.1449;-0.2419;
570.6000;0.1441;-0.2419;
570.9000;0.1441;-0.2493;
571.2000;0.1408;-0.2493;
571.5000;0.1449;-0.2369;
571.8000;0.1441;-0.2344;
572.1000;0.1457;-0.2369;
572.4000;0.1490;-0.2344;
572.7000;0.1449;-0.2394;
573.0000;0.1425;-0.2369;
573.3000;0.1433;-0.2468;
573.6000;0.1433;-0.2493;
573.9000;0.1425;-0.2444;
574.2000;0.1457;-0.2518;
574.5000;0.1449;-0.2518;
574.8000;0.1449;-0.2419;
575.1000;0.1433;-0.2394;
575.4000;0.1490;-0.2194;
575.7000;0.1425;-0.2394;
576.0000;0.1433;-0.2394;
576.3000;0.1433;-0.2344;
576.6000;0.1425;-0.2294;
576.9000;0.1433;-0.2194;
577.2000;0.1425;-0.2194;
577.5000;0.1425;-0.2144;
577.8000;0.1449;-0.2069;
578.1000;0.1433;-0.2094;
578.4000;0.1425;-0.2194;
578.7000;0.1433;-0.2244;
579.0000;0.1433;-0.2269;
579.3000;0.1441;-0.2144;
579.6000;0.1449;-0.2069;
579.9000;0.1416;-0.2069;
580.2000;0.1449;-0.2069;
580.5000;0.1384;-0.2269;
580.8000;0.1408;-0.2194;
581.1000;0.1416;-0.2244;
581.4000;0.1416;-0.2294;
581.7000;0.1425;-0.2294;
582.0000;0.1457;-0.2194;
582.3000;0.1425;-0.2319;
582.6000;0.1416;-0.2294;
582.9000;0.1481;-0.2144;
583.2000;0.1441;-0.2319;
583.5000;0.1433;-0.2344;
583.8000;0.1441;-0.2344;
584.1000;0.1416;-0.2369;
584.4000;0.1441;-0.2194;
584.7000;0.1449;-0.2144;
585.0000;0.1425;-0.2094;
585.3000;0.1449;-0.1920;
585.6000;0.1425;-0.1920;
585.9000;0.1425;-0.2069;
586.2000;0.1449;-0.2069;
586.5000;0.1465;-0.2094;
586.8000;0.1441;-0.2119;
587.1000;0.1425;-0.2219;
587.4000;0.1425;-0.2219;
587.7000;0.1441;-0.2194;
588.0000;0.1416;-0.2169;
588.3000;0.1465;-0.2069;
588.6000;0.1457;-0.2194;
588.9000;0.1441;-0.2194;
589.2000;0.1449;-0.2144;
589.5000;0.1481;-0.2094;
589.8000;0.1441;-0.2219;
590.1000;0.1425;-0.2144;
590.4000;0.1441;-0.2144;
590.7000;0.1473;-0.1995;
591.0000;0.1408;-0.2119;
591.3000;0.1416;-0.2144;
591.6000;0.1416;-0.2144;
591.9000;0.1425;-0.2194;
592.2000;0.1514;-0.2020;
592.5000;0.1408;-0.2344;
592.8000;0.1425;-0.2344;
593.1000;0.1449;-0.2244;
593.4000;0.1433;-0.2294;
593.7000;0.1490;-0.2194;
594.0000;0.1449;-0.2394;
594.3000;0.1416;-0.2543;
594.6000;0.1441;-0.2444;
594.9000;0.1441;-0.2394;
595.2000;0.1465;-0.2369;
595.5000;0.1441;-0.2444;
595.8000;0.1449;-0.2444;
596.1000;0.1449;-0.2444;
596.4000;0.1433;-0.2419;
596.7000;0.1441;-0.2319;
597.0000;0.1416;-0.2419;
597.3000;0.1457;-0.2219;
597.6000;0.1408;-0.2244;
597.9000;0.1441;-0.2194;
598.2000;0.1465;-0.2169;
598.5000;0.1490;-0.2119;
598.8000;0.1425;-0.2194;
599.1000;0.1433;-0.2294;
599.4000;0.1392;-0.2294;
599.7000;0.1449;-0.2144;
600.0000;0.1384;-0.2294;
600.3000;0.1359;-0.2543;
600.6000;0.1416;-0.2543;
600.9000;0.1425;-0.2593;
601.2000;0.1465;-0.2618;
601.5000;0.1408;-0.2892;
601.8000;0.1400;-0.3117;
602.1000;0.1359;-0.3241;
602.4000;0.1359;-0.3491;
602.7000;0.1343;-0.3715;
603.0000;0.1343;-0.3790;
603.3000;0.1319;-0.3915;
603.6000;0.1343;-0.4014;
603.9000;0.1368;-0.4064;
604.2000;0.1302;-0.4289;
604.5000;0.1294;-0.4289;
604.8000;0.1286;-0.4338;
605.1000;0.1319;-0.4388;
605.4000;0.1286;-0.4463;
605.7000;0.1254;-0.4613;
606.0000;0.1311;-0.4488;
606.3000;0.1262;-0.4688;
606.6000;0.1278;-0.4688;
606.9000;0.1254;-0.4837;
607.2000;0.1286;-0.4737;
607.5000;0.1237;-0.4812;
607.8000;0.1270;-0.4688;
608.1000;0.1213;-0.4812;
608.4000;0.1286;-0.4688;
608.7000;0.1278;-0.4737;
609.0000;0.1254;-0.4837;
609.3000;0.1270;-0.4812;
609.6000;0.1270;-0.4887;
609.9000;0.1245;-0.4962;
610.2000;0.1270;-0.4912;
610.5000;0.1254;-0.4987;
610.8000;0.1245;-0.5062;
611.1000;0.1229;-0.5111;
611.4000;0.1180;-0.5211;
611.7000;0.1262;-0.5037;
612.0000;0.1245;-0.5086;
612.3000;0.1262;-0.5062;
612.6000;0.1278;-0.4962;
612.9000;0.1213;-0.5161;
613.2000;0.1286;-0.4912;
613.5000;0.1319;-0.4812;
613.8000;0.1245;-0.4962;
614.1000;0.1245;-0.4937;
614.4000;0.1254;-0.4937;
614.7000;0.1262;-0.4937;
615.0000;0.1408;-0.4588;
615.3000;0.1262;-0.4987;
615.6000;0.1245;-0.5111;
615.9000;0.1205;-0.5111;
616.2000;0.1254;-0.5037;
616.5000;0.1245;-0.5086;
616.8000;0.1237;-0.5186;
617.1000;0.1237;-0.5136;
617.4000;0.1254;-0.5062;
617.7000;0.1270;-0.5111;
618.0000;0.1221;-0.5161;
618.3000;0.1237;-0.5211;
618.6000;0.1262;-0.5186;
618.9000;0.1262;-0.5236;
619.2000;0.1278;-0.5136;
619.5000;0.1262;-0.5161;
619.8000;0.1262;-0.5111;
620.1000;0.1286;-0.5062;
620.4000;0.1270;-0.5062;
620.7000;0.1270;-0.5012;
621.0000;0.1245;-0.5086;
621.3000;0.1245;-0.4987;
621.6000;0.1262;-0.4912;
621.9000;0.1245;-0.4937;
622.2000;0.1262;-0.4937;
622.5000;0.1245;-0.4862;
622.8000;0.1245;-0.4887;
623.1000;0.1221;-0.4887;
623.4000;0.1286;-0.4912;
623.7000;0.1254;-0.5037;
624.0000;0.1245;-0.5111;
624.3000;0.1262;-0.5186;
624.6000;0.1278;-0.5261;
624.9000;0.1278;-0.5261;
625.2000;0.1262;-0.5211;
625.5000;0.1262;-0.5361;
625.8000;0.1245;-0.5386;
626.1000;0.1262;-0.5361;
626.4000;0.1229;-0.5361;
626.7000;0.1262;-0.5161;
627.0000;0.1254;-0.5286;
627.3000;0.1237;-0.5286;
627.6000;0.1254;-0.5211;
627.9000;0.1286;-0.5211;
628.2000;0.1245;-0.5386;
628.5000;0.1245;-0.5336;
628.8000;0.1262;-0.5236;
629.1000;0.1278;-0.5161;
629.4000;0.1254;-0.5286;
629.7000;0.1245;-0.5336;
630.0000;0.1245;-0.5361;
630.3000;0.1237;-0.5261;
630.6000;0.1237;-0.5336;
630.9000;0.1205;-0.5336;
631.2000;0.1237;-0.5336;
631.5000;0.1237;-0.5336;
631.8000;0.1237;-0.5336;
632.1000;0.1237;-0.5286;
632.4000;0.1205;-0.5460;
632.7000;0.1229;-0.5460;
633.0000;0.1286;-0.5211;
633.3000;0.1213;-0.5386;
633.6000;0.1229;-0.5286;
633.9000;0.1245;-0.5286;
634.2000;0.1294;-0.5111;
634.5000;0.1180;-0.5460;
634.8000;0.1245;-0.5211;
635.1000;0.1254;-0.5186;
635.4000;0.1229;-0.5161;
635.7000;0.1188;-0.5261;
636.0000;0.1237;-0.5161;
636.3000;0.1245;-0.5136;
636.6000;0.1245;-0.5136;
636.9000;0.1294;-0.5037;
637.2000;0.1221;-0.5361;
637.5000;0.1245;-0.5311;
637.8000;0.1245;-0.5311;
638.1000;0.1237;-0.5286;
638.4000;0.1229;-0.5186;
638.7000;0.1229;-0.5286;
639.0000;0.1237;-0.5261;
639.3000;0.1245;-0.5236;
639.6000;0.1245;-0.5236;
639.9000;0.1254;-0.5261;
640.2000;0.1245;-0.5286;
640.5000;0.1229;-0.5336;
640.8000;0.1237;-0.5411;
641.1000;0.1229;-0.5336;
641.4000;0.1245;-0.5286;
641.7000;0.1245;-0.5336;
642.0000;0.1254;-0.5411;
642.3000;0.1237;-0.5485;
642.6000;0.1245;-0.5485;
642.9000;0.1237;-0.5535;
643.2000;0.1237;-0.5510;
643.5000;0.1262;-0.5411;
643.8000;0.1229;-0.5535;
644.1000;0.1221;-0.5610;
644.4000;0.1254;-0.5535;
644.7000;0.1254;-0.5460;
645.0000;0.1245;-0.5485;
645.3000;0.1237;-0.5535;
645.6000;0.1254;-0.5535;
645.9000;0.1237;-0.5535;
646.2000;0.1237;-0.5535;
646.5000;0.1245;-0.5535;
646.8000;0.1245;-0.5535;
647.1000;0.1245;-0.5510;
647.4000;0.1213;-0.5560;
647.7000;0.1237;-0.5535;
648.0000;0.1237;-0.5460;
648.3000;0.1245;-0.5411;
648.6000;0.1254;-0.5361;
648.9000;0.1229;-0.5261;
649.2000;0.1262;-0.5161;
649.5000;0.1254;-0.5111;
649.8000;0.1245;-0.5186;
650.1000;0.1278;-0.5111;
650.4000;0.1262;-0.5136;
650.7000;0.1245;-0.5161;
651.0000;0.1237;-0.5311;
651.3000;0.1254;-0.5336;
651.6000;0.1254;-0.5186;
651.9000;0.1245;-0.5211;
652.2000;0.1245;-0.5311;
652.5000;0.1237;-0.5236;
652.8000;0.1205;-0.5286;
653.1000;0.1245;-0.5186;
653.4000;0.1245;-0.5336;
653.7000;0.1221;-0.5436;
654.0000;0.1197;-0.5411;
654.3000;0.1254;-0.5261;
654.6000;0.1302;-0.5062;
654.9000;0.1245;-0.5261;
655.2000;0.1294;-0.5286;
655.5000;0.1270;-0.5336;
655.8000;0.1254;-0.5485;
656.1000;0.1213;-0.5635;
656.4000;0.1254;-0.5460;
656.7000;0.1245;-0.5485;
657.0000;0.1262;-0.5411;
657.3000;0.1311;-0.5361;
657.6000;0.1237;-0.5436;
657.9000;0.1245;-0.5386;
658.2000;0.1254;-0.5361;
658.5000;0.1229;-0.5386;
658.8000;0.1229;-0.5386;
659.1000;0.1245;-0.5261;
659.4000;0.1270;-0.5236;
659.7000;0.1237;-0.5311;
660.0000;0.1229;-0.5361;
660.3000;0.1221;-0.5336;
660.6000;0.1229;-0.5336;
660.9000;0.1254;-0.5211;
661.2000;0.1237;-0.5236;
661.5000;0.1229;-0.5286;
661.8000;0.1188;-0.5336;
662.1000;0.1237;-0.5186;
662.4000;0.1229;-0.5311;
662.7000;0.1213;-0.5186;
663.0000;0.1229;-0.5211;
663.3000;0.1229;-0.5111;
663.6000;0.1286;-0.5012;
663.9000;0.1229;-0.5161;
664.2000;0.1270;-0.5086;
664.5000;0.1229;-0.5211;
664.8000;0.1270;-0.5111;
665.1000;0.1254;-0.5211;
665.4000;0.1245;-0.5161;
665.7000;0.1245;-0.5136;
666.0000;0.1270;-0.5136;
666.3000;0.1245;-0.5161;
666.6000;0.1229;-0.5211;
666.9000;0.1237;-0.5161;
667.2000;0.1229;-0.5211;
667.5000;0.1302;-0.4987;
667.8000;0.1221;-0.5161;
668.1000;0.1229;-0.5211;
668.4000;0.1254;-0.5136;
668.7000;0.1262;-0.5086;
669.0000;0.1245;-0.5062;
669.3000;0.1245;-0.4987;
669.6000;0.1245;-0.5086;
669.9000;0.1262;-0.5037;
670.2000;0.1254;-0.5136;
670.5000;0.1221;-0.5236;
670.8000;0.1245;-0.5186;
671.1000;0.1237;-0.5211;
671.4000;0.1245;-0.5136;
671.7000;0.1254;-0.5037;
672.0000;0.1237;-0.5161;
672.3000;0.1254;-0.5186;
672.6000;0.1245;-0.5236;
672.9000;0.1229;-0.5311;
673.2000;0.1262;-0.5286;
673.5000;0.1262;-0.5236;
673.8000;0.1213;-0.5361;
674.1000;0.1278;-0.5062;
674.4000;0.1221;-0.5261;
674.7000;0.1229;-0.5311;
675.0000;0.1237;-0.5236;
675.3000;0.1245;-0.5261;
675.6000;0.1262;-0.5336;
675.9000;0.1278;-0.5286;
676.2000;0.1254;-0.5286;
676.5000;0.1245;-0.5286;
676.8000;0.1213;-0.5386;
677.1000;0.1213;-0.5386;
677.4000;0.1254;-0.5311;
677.7000;0.1237;-0.5336;
678.0000;0.1229;-0.5386;
678.3000;0.1254;-0.5286;
678.6000;0.1262;-0.5311;
678.9000;0.1245;-0.5311;
679.2000;0.1245;-0.5460;
679.5000;0.1237;-0.5485;
679.8000;0.1245;-0.5411;
680.1000;0.1229;-0.5460;
680.4000;0.1229;-0.5485;
680.7000;0.1213;-0.5535;
681.0000;0.1213;-0.5510;
681.3000;0.1237;-0.5436;
681.6000;0.1237;-0.5336;
681.9000;0.1237;-0.5311;
682.2000;0.1245;-0.5161;
682.5000;0.1254;-0.5086;
682.8000;0.1245;-0.5037;
683.1000;0.1302;-0.4912;
683.4000;0.1237;-0.4987;
683.7000;0.1229;-0.5012;
684.0000;0.1229;-0.4987;
684.3000;0.1229;-0.4987;
684.6000;0.1254;-0.4937;
684.9000;0.1254;-0.5012;
685.2000;0.1197;-0.5136;
685.5000;0.1245;-0.5012;
685.8000;0.1237;-0.5086;
686.1000;0.1254;-0.5012;
686.4000;0.1245;-0.5012;
686.7000;0.1245;-0.4987;
687.0000;0.1327;-0.4862;
687.3000;0.1237;-0.5111;
687.6000;0.1237;-0.5186;
687.9000;0.1229;-0.5186;
688.2000;0.1229;-0.5211;
688.5000;0.1237;-0.5161;
688.8000;0.1245;-0.5286;
689.1000;0.1221;-0.5485;
689.4000;0.1254;-0.5386;
689.7000;0.1245;-0.5386;
690.0000;0.1237;-0.5336;
690.3000;0.1229;-0.5361;
690.6000;0.1237;-0.5261;
690.9000;0.1237;-0.5211;
691.2000;0.1245;-0.5186;
691.5000;0.1221;-0.5236;
691.8000;0.1229;-0.5211;
692.1000;0.1270;-0.5186;
692.4000;0.1229;-0.5311;
692.7000;0.1262;-0.5311;
693.0000;0.1229;-0.5311;
693.3000;0.1221;-0.5311;
693.6000;0.1237;-0.5186;
693.9000;0.1270;-0.5161;
694.2000;0.1237;-0.5311;
694.5000;0.1229;-0.5336;
694.8000;0.1262;-0.5286;
695.1000;0.1254;-0.5311;
695.4000;0.1237;-0.5311;
695.7000;0.1237;-0.5311;
696.0000;0.1254;-0.5311;
696.3000;0.1245;-0.5261;
696.6000;0.1254;-0.5161;
696.9000;0.1229;-0.5311;
697.2000;0.1221;-0.5311;
697.5000;0.1262;-0.5261;
697.8000;0.1254;-0.5361;
698.1000;0.1237;-0.5386;
698.4000;0.1254;-0.5286;
698.7000;0.1237;-0.5311;
699.0000;0.1205;-0.5361;
699.3000;0.1221;-0.5261;
699.6000;0.1221;-0.5261;
699.9000;0.1229;-0.5161;
700.2000;0.1254;-0.5161;
700.5000;0.1245;-0.5236;
700.8000;0.1270;-0.5211;
701.1000;0.1237;-0.5336;
701.4000;0.1245;-0.5436;
701.7000;0.1229;-0.5460;
702.0000;0.1205;-0.5535;
702.3000;0.1229;-0.5510;
702.6000;0.1229;-0.5386;
702.9000;0.1123;-0.5585;
703.2000;0.1180;-0.5411;
703.5000;0.1213;-0.5436;
703.8000;0.1221;-0.5411;
704.1000;0.1270;-0.5311;
704.4000;0.1221;-0.5361;
704.7000;0.1245;-0.5336;
705.0000;0.1311;-0.5211;
705.3000;0.1245;-0.5386;
705.6000;0.1254;-0.5311;
705.9000;0.1237;-0.5386;
706.2000;0.1254;-0.5386;
706.5000;0.1294;-0.5261;
706.8000;0.1213;-0.5510;
707.1000;0.1245;-0.5485;
707.4000;0.1245;-0.5411;
707.7000;0.1294;-0.5286;
708.0000;0.1140;-0.5710;
708.3000;0.1245;-0.5535;
708.6000;0.1221;-0.5635;
708.9000;0.1245;-0.5635;
709.2000;0.1254;-0.5485;
709.5000;0.1229;-0.5436;
709.8000;0.1229;-0.5460;
710.1000;0.1245;-0.5386;
710.4000;0.1245;-0.5411;
710.7000;0.1245;-0.5361;
711.0000;0.1254;-0.5286;
711.3000;0.1229;-0.5211;
711.6000;0.1245;-0.5286;
711.9000;0.1245;-0.5261;
712.2000;0.1221;-0.5336;
712.5000;0.1229;-0.5311;
712.8000;0.1245;-0.5236;
713.1000;0.1237;-0.5236;
713.4000;0.1237;-0.5236;
713.7000;0.1237;-0.5211;
714.0000;0.1245;-0.5136;
714.3000;0.1237;-0.5111;
714.6000;0.1237;-0.5111;
714.9000;0.1229;-0.5111;
715.2000;0.1237;-0.5111;
715.5000;0.1278;-0.5111;
715.8000;0.1237;-0.5261;
716.1000;0.1229;-0.5361;
716.4000;0.1237;-0.5311;
716.7000;0.1254;-0.5261;
717.0000;0.1221;-0.5361;
717.3000;0.1172;-0.5485;
717.6000;0.1245;-0.5236;
717.9000;0.1229;-0.5236;
718.2000;0.1213;-0.5261;
718.5000;0.1205;-0.5336;
718.8000;0.1221;-0.5336;
719.1000;0.1254;-0.5361;
719.4000;0.1237;-0.5386;
719.7000;0.1270;-0.5311;
720.0000;0.1213;-0.5361;
720.3000;0.1254;-0.5236;
720.6000;0.1221;-0.5236;
720.9000;0.1254;-0.5211;
721.2000;0.1254;-0.5336;
721.5000;0.1254;-0.5411;
721.8000;0.1237;-0.5386;
722.1000;0.1262;-0.5336;
722.4000;0.1237;-0.5411;
722.7000;0.1278;-0.5261;
723.0000;0.1245;-0.5336;
723.3000;0.1245;-0.5286;
723.6000;0.1213;-0.5386;
723.9000;0.1180;-0.5535;
724.2000;0.1254;-0.5411;
724.5000;0.1262;-0.5336;
724.8000;0.1254;-0.5411;
725.1000;0.1237;-0.5510;
725.4000;0.1237;-0.5436;
725.7000;0.1221;-0.5436;
726.0000;0.1319;-0.5111;
726.3000;0.1229;-0.5436;
726.6000;0.1270;-0.5336;
726.9000;0.1254;-0.5336;
727.2000;0.1245;-0.5361;
727.5000;0.1262;-0.5411;
727.8000;0.1245;-0.5361;
728.1000;0.1254;-0.5336;
728.4000;0.1237;-0.5386;
728.7000;0.1237;-0.5311;
729.0000;0.1213;-0.5311;
729.3000;0.1221;-0.5261;
729.6000;0.1254;-0.5286;
729.9000;0.1221;-0.5311;
730.2000;0.1229;-0.5336;
730.5000;0.1254;-0.5336;
730.8000;0.1262;-0.5286;
731.1000;0.1262;-0.5311;
731.4000;0.1254;-0.5236;
731.7000;0.1245;-0.5186;
732.0000;0.1221;-0.5186;
732.3000;0.1237;-0.5161;
732.6000;0.1229;-0.5136;
732.9000;0.1237;-0.5211;
733.2000;0.1245;-0.5211;
733.5000;0.1245;-0.5261;
733.8000;0.1205;-0.5485;
734.1000;0.1286;-0.5161;
734.4000;0.1245;-0.5261;
734.7000;0.1254;-0.5311;
735.0000;0.1245;-0.5336;
735.3000;0.1237;-0.5336;
735.6000;0.1229;-0.5436;
735.9000;0.1229;-0.5535;
736.2000;0.1237;-0.5510;
736.5000;0.1254;-0.5436;
736.8000;0.1237;-0.5460;
737.1000;0.1245;-0.5460;
737.4000;0.1245;-0.5510;
737.7000;0.1278;-0.5485;
738.0000;0.1245;-0.5610;
738.3000;0.1245;-0.5560;
738.6000;0.1229;-0.5735;
738.9000;0.1245;-0.5735;
739.2000;0.1237;-0.5685;
739.5000;0.1205;-0.5760;
739.8000;0.1254;-0.5635;
740.1000;0.1254;-0.5685;
740.4000;0.1229;-0.5685;
740.7000;0.1245;-0.5560;
741.0000;0.1262;-0.5535;
741.3000;0.1180;-0.5735;
741.6000;0.1245;-0.5485;
741.9000;0.1221;-0.5485;
742.2000;0.1254;-0.5411;
742.5000;0.1262;-0.5411;
742.8000;0.1302;-0.5211;
743.1000;0.1270;-0.5286;
743.4000;0.1245;-0.5361;
743.7000;0.1254;-0.5311;
744.0000;0.1237;-0.5386;
744.3000;0.1237;-0.5261;
744.6000;0.1254;-0.5161;
744.9000;0.1254;-0.5236;
745.2000;0.1229;-0.5236;
745.5000;0.1254;-0.5161;
745.8000;0.1245;-0.5161;
746.1000;0.1311;-0.4937;
746.4000;0.1262;-0.5161;
746.7000;0.1221;-0.5311;
747.0000;0.1278;-0.5261;
747.3000;0.1237;-0.5485;
747.6000;0.1237;-0.5485;
747.9000;0.1156;-0.5585;
748.2000;0.1245;-0.5436;
748.5000;0.1229;-0.5610;
748.8000;0.1237;-0.5560;
749.1000;0.1327;-0.5286;
749.4000;0.1213;-0.5660;
749.7000;0.1254;-0.5485;
750.0000;0.1221;-0.5560;
750.3000;0.1221;-0.5610;
750.6000;0.1229;-0.5585;
750.9000;0.1237;-0.5510;
751.2000;0.1237;-0.5585;
751.5000;0.1229;-0.5585;
751.8000;0.1245;-0.5510;
752.1000;0.1245;-0.5460;
752.4000;0.1237;-0.5460;
752.7000;0.1229;-0.5510;
753.0000;0.1245;-0.5485;
753.3000;0.1245;-0.5386;
753.6000;0.1229;-0.5386;
753.9000;0.1237;-0.5286;
754.2000;0.1270;-0.5261;
754.5000;0.1302;-0.5161;
754.8000;0.1294;-0.5186;
755.1000;0.1254;-0.5336;
755.4000;0.1245;-0.5386;
755.7000;0.1245;-0.5436;
756.0000;0.1270;-0.5336;
756.3000;0.1237;-0.5336;
756.6000;0.1229;-0.5336;
756.9000;0.1294;-0.5211;
757.2000;0.1229;-0.5336;
757.5000;0.1245;-0.5236;
757.8000;0.1221;-0.5186;
758.1000;0.1213;-0.5211;
758.4000;0.1229;-0.5311;
758.7000;0.1254;-0.5311;
759.0000;0.1245;-0.5361;
759.3000;0.1213;-0.5460;
759.6000;0.1221;-0.5386;
759.9000;0.1221;-0.5336;
760.2000;0.1237;-0.5311;
760.5000;0.1197;-0.5311;
760.8000;0.1229;-0.5211;
761.1000;0.1221;-0.5161;
761.4000;0.1197;-0.5261;
761.7000;0.1254;-0.5211;
762.0000;0.1221;-0.5261;
762.3000;0.1278;-0.5111;
762.6000;0.1205;-0.5211;
762.9000;0.1229;-0.5236;
763.2000;0.1237;-0.5236;
763.5000;0.1245;-0.5261;
763.8000;0.1245;-0.5286;
764.1000;0.1237;-0.5336;
764.4000;0.1245;-0.5286;
764.7000;0.1229;-0.5386;
765.0000;0.1245;-0.5286;
765.3000;0.1351;-0.5086;
765.6000;0.1221;-0.5460;
765.9000;0.1278;-0.5261;
766.2000;0.1262;-0.5261;
766.5000;0.1221;-0.5361;
766.8000;0.1270;-0.5311;
767.1000;0.1229;-0.5361;
767.4000;0.1245;-0.5261;
767.7000;0.1254;-0.5261;
768.0000;0.1237;-0.5311;
768.3000;0.1237;-0.5436;
768.6000;0.1270;-0.5361;
768.9000;0.1270;-0.5286;
769.2000;0.1254;-0.5211;
769.5000;0.1205;-0.5236;
769.8000;0.1221;-0.5111;
770.1000;0.1262;-0.5037;
770.4000;0.1262;-0.5062;
770.7000;0.1237;-0.5186;
771.0000;0.1197;-0.5311;
771.3000;0.1237;-0.5236;
771.6000;0.1229;-0.5311;
771.9000;0.1327;-0.5136;
772.2000;0.1245;-0.5286;
772.5000;0.1237;-0.5261;
772.8000;0.1245;-0.5311;
773.1000;0.1213;-0.5460;
773.4000;0.1262;-0.5286;
773.7000;0.1180;-0.5585;
774.0000;0.1245;-0.5436;
774.3000;0.1229;-0.5436;
774.6000;0.1237;-0.5485;
774.9000;0.1245;-0.5485;
775.2000;0.1205;-0.5535;
775.5000;0.1254;-0.5411;
775.8000;0.1229;-0.5485;
776.1000;0.1237;-0.5460;
776.4000;0.1237;-0.5411;
776.7000;0.1245;-0.5436;
777.0000;0.1197;-0.5510;
777.3000;0.1221;-0.5485;
777.6000;0.1245;-0.5436;
777.9000;0.1229;-0.5535;
778.2000;0.1245;-0.5485;
778.5000;0.1237;-0.5535;
778.8000;0.1245;-0.5535;
779.1000;0.1221;-0.5510;
779.4000;0.1237;-0.5411;
779.7000;0.1237;-0.5361;
780.0000;0.1254;-0.5386;
780.3000;0.1229;-0.5411;
780.6000;0.1221;-0.5386;
780.9000;0.1205;-0.5460;
781.2000;0.1237;-0.5336;
781.5000;0.1262;-0.5286;
781.8000;0.1254;-0.5261;
782.1000;0.1245;-0.5211;
782.4000;0.1245;-0.5286;
782.7000;0.1237;-0.5236;
783.0000;0.1237;-0.5211;
783.3000;0.1237;-0.5186;
783.6000;0.1237;-0.5186;
783.9000;0.1245;-0.5261;
784.2000;0.1254;-0.5261;
784.5000;0.1213;-0.5336;
784.8000;0.1229;-0.5336;
785.1000;0.1205;-0.5286;
785.4000;0.1270;-0.5161;
785.7000;0.1245;-0.5186;
786.0000;0.1237;-0.5236;
786.3000;0.1229;-0.5261;
786.6000;0.1229;-0.5261;
786.9000;0.1213;-0.5286;
787.2000;0.1262;-0.5261;
787.5000;0.1221;-0.5336;
787.8000;0.1254;-0.5336;
788.1000;0.1270;-0.5311;
788.4000;0.1237;-0.5460;
788.7000;0.1245;-0.5460;
789.0000;0.1229;-0.5535;
789.3000;0.1237;-0.5535;
789.6000;0.1245;-0.5585;
789.9000;0.1221;-0.5685;
790.2000;0.1294;-0.5485;
790.5000;0.1270;-0.5585;
790.8000;0.1262;-0.5535;
791.1000;0.1254;-0.5535;
791.4000;0.1254;-0.5510;
791.7000;0.1229;-0.5585;
792.0000;0.1278;-0.5610;
792.3000;0.1213;-0.5635;
792.6000;0.1229;-0.5560;
792.9000;0.1262;-0.5436;
793.2000;0.1229;-0.5485;
793.5000;0.1221;-0.5460;
793.8000;0.1245;-0.5411;
794.1000;0.1221;-0.5535;
794.4000;0.1237;-0.5460;
794.7000;0.1229;-0.5510;
795.0000;0.1294;-0.5261;
795.3000;0.1278;-0.5261;
795.6000;0.1237;-0.5411;
795.9000;0.1188;-0.5510;
796.2000;0.1237;-0.5460;
796.5000;0.1245;-0.5411;
796.8000;0.1343;-0.5062;
797.1000;0.1188;-0.5485;
797.4000;0.1237;-0.5361;
797.7000;0.1229;-0.5286;
798.0000;0.1245;-0.5361;
798.3000;0.1237;-0.5485;
798.6000;0.1237;-0.5485;
798.9000;0.1262;-0.5535;
799.2000;0.1262;-0.5560;
799.5000;0.1245;-0.5560;
799.8000;0.1270;-0.5535;
800.1000;0.1229;-0.5585;
800.4000;0.1254;-0.5485;
800.7000;0.1286;-0.5386;
801.0000;0.1237;-0.5485;
801.3000;0.1237;-0.5510;
801.6000;0.1237;-0.5560;
801.9000;0.1294;-0.5460;
802.2000;0.1237;-0.5660;
802.5000;0.1254;-0.5560;
802.8000;0.1262;-0.5535;
803.1000;0.1245;-0.5560;
803.4000;0.1278;-0.5411;
803.7000;0.1245;-0.5460;
804.0000;0.1237;-0.5510;
804.3000;0.1254;-0.5361;
804.6000;0.1270;-0.5336;
804.9000;0.1237;-0.5436;
805.2000;0.1319;-0.5236;
805.5000;0.1278;-0.5361;
805.8000;0.1254;-0.5336;
806.1000;0.1262;-0.5261;
806.4000;0.1221;-0.5361;
806.7000;0.1237;-0.5386;
807.0000;0.1245;-0.5311;
807.3000;0.1229;-0.5361;
807.6000;0.1221;-0.5436;
807.9000;0.1221;-0.5411;
808.2000;0.1245;-0.5411;
808.5000;0.1213;-0.5436;
808.8000;0.1294;-0.5186;
809.1000;0.1245;-0.5236;
809.4000;0.1245;-0.5161;
809.7000;0.1245;-0.5111;
810.0000;0.1245;-0.5136;
810.3000;0.1237;-0.5186;
810.6000;0.1245;-0.5186;
810.9000;0.1245;-0.5261;
811.2000;0.1254;-0.5236;
811.5000;0.1229;-0.5161;
811.8000;0.1343;-0.4837;
812.1000;0.1245;-0.5086;
812.4000;0.1188;-0.5286;
812.7000;0.1270;-0.5186;
813.0000;0.1229;-0.5361;
813.3000;0.1237;-0.5411;
813.6000;0.1197;-0.5635;
813.9000;0.1205;-0.5535;
814.2000;0.1237;-0.5436;
814.5000;0.1237;-0.5436;
814.8000;0.1327;-0.5261;
815.1000;0.1221;-0.5485;
815.4000;0.1221;-0.5560;
815.7000;0.1262;-0.5535;
816.0000;0.1229;-0.5635;
816.3000;0.1237;-0.5510;
816.6000;0.1205;-0.5560;
816.9000;0.1262;-0.5336;
817.2000;0.1237;-0.5485;
817.5000;0.1245;-0.5560;
817.8000;0.1213;-0.5585;
818.1000;0.1229;-0.5585;
818.4000;0.1270;-0.5585;
818.7000;0.1229;-0.5660;
819.0000;0.1205;-0.5610;
819.3000;0.1237;-0.5436;
819.6000;0.1245;-0.5386;
819.9000;0.1237;-0.5386;
820.2000;0.1221;-0.5485;
820.5000;0.1229;-0.5485;
820.8000;0.1245;-0.5436;
821.1000;0.1229;-0.5411;
821.4000;0.1229;-0.5485;
821.7000;0.1229;-0.5460;
822.0000;0.1319;-0.5311;
822.3000;0.1245;-0.5560;
822.6000;0.1164;-0.5834;
822.9000;0.1245;-0.5535;
823.2000;0.1180;-0.5760;
823.5000;0.1229;-0.5585;
823.8000;0.1262;-0.5510;
824.1000;0.1180;-0.5685;
824.4000;0.1262;-0.5386;
824.7000;0.1254;-0.5311;
825.0000;0.1302;-0.5211;
825.3000;0.1286;-0.5286;
825.6000;0.1254;-0.5336;
825.9000;0.1319;-0.5211;
826.2000;0.1245;-0.5336;
826.5000;0.1286;-0.5236;
826.8000;0.1172;-0.5485;
827.1000;0.1254;-0.5286;
827.4000;0.1254;-0.5336;
827.7000;0.1262;-0.5411;
828.0000;0.1245;-0.5436;
828.3000;0.1229;-0.5585;
828.6000;0.1286;-0.5535;
828.9000;0.1254;-0.5560;
829.2000;0.1254;-0.5610;
829.5000;0.1270;-0.5535;
829.8000;0.1213;-0.5660;
830.1000;0.1245;-0.5610;
830.4000;0.1245;-0.5635;
830.7000;0.1221;-0.5685;
831.0000;0.1254;-0.5560;
831.3000;0.1237;-0.5585;
831.6000;0.1245;-0.5610;
831.9000;0.1237;-0.5585;
832.2000;0.1221;-0.5585;
832.5000;0.1270;-0.5386;
832.8000;0.1262;-0.5535;
833.1000;0.1245;-0.5560;
833.4000;0.1254;-0.5560;
833.7000;0.1262;-0.5510;
834.0000;0.1245;-0.5535;
834.3000;0.1229;-0.5610;
834.6000;0.1254;-0.5585;
834.9000;0.1245;-0.5635;
835.2000;0.1254;-0.5660;
835.5000;0.1237;-0.5635;
835.8000;0.1221;-0.5710;
836.1000;0.1262;-0.5585;
836.4000;0.1245;-0.5610;
836.7000;0.1229;-0.5560;
837.0000;0.1237;-0.5610;
837.3000;0.1229;-0.5610;
837.6000;0.1229;-0.5610;
837.9000;0.1262;-0.5585;
838.2000;0.1221;-0.5585;
838.5000;0.1262;-0.5436;
838.8000;0.1229;-0.5436;
839.1000;0.1262;-0.5361;
839.4000;0.1237;-0.5411;
839.7000;0.1245;-0.5386;
840.0000;0.1262;-0.5286;
840.3000;0.1245;-0.5261;
840.6000;0.1254;-0.5211;
840.9000;0.1229;-0.5311;
841.2000;0.1254;-0.5311;
841.5000;0.1237;-0.5286;
841.8000;0.1254;-0.5286;
842.1000;0.1229;-0.5311;
842.4000;0.1229;-0.5311;
842.7000;0.1229;-0.5286;
843.0000;0.1229;-0.5286;
843.3000;0.1213;-0.5286;
843.6000;0.1245;-0.5211;
843.9000;0.1245;-0.5261;
844.2000;0.1254;-0.5261;
844.5000;0.1343;-0.5012;
844.8000;0.1245;-0.5336;
845.1000;0.1229;-0.5336;
845.4000;0.1245;-0.5411;
845.7000;0.1221;-0.5336;
846.0000;0.1180;-0.5460;
846.3000;0.1254;-0.5286;
846.6000;0.1245;-0.5261;
846.9000;0.1254;-0.5236;
847.2000;0.1262;-0.5236;
847.5000;0.1254;-0.5261;
847.8000;0.1245;-0.5261;
848.1000;0.1254;-0.5136;
848.4000;0.1245;-0.5211;
848.7000;0.1245;-0.5236;
849.0000;0.1229;-0.5336;
849.3000;0.1245;-0.5311;
849.6000;0.1245;-0.5386;
849.9000;0.1262;-0.5386;
850.2000;0.1245;-0.5436;
850.5000;0.1237;-0.5411;
850.8000;0.1237;-0.5361;
851.1000;0.1237;-0.5286;
851.4000;0.1229;-0.5311;
851.7000;0.1245;-0.5286;
852.0000;0.1237;-0.5311;
852.3000;0.1245;-0.5286;
852.6000;0.1254;-0.5286;
852.9000;0.1245;-0.5311;
853.2000;0.1237;-0.5361;
853.5000;0.1205;-0.5436;
853.8000;0.1221;-0.5386;
854.1000;0.1254;-0.5311;
854.4000;0.1262;-0.5411;
854.7000;0.1213;-0.5411;
855.0000;0.1262;-0.5211;
855.3000;0.1343;-0.4937;
855.6000;0.1254;-0.5286;
855.9000;0.1213;-0.5411;
856.2000;0.1254;-0.5286;
856.5000;0.1294;-0.5211;
856.8000;0.1270;-0.5361;
857.1000;0.1245;-0.5510;
857.4000;0.1302;-0.5411;
857.7000;0.1245;-0.5585;
858.0000;0.1213;-0.5685;
858.3000;0.1343;-0.5311;
858.6000;0.1245;-0.5535;
858.9000;0.1237;-0.5560;
859.2000;0.1237;-0.5660;
859.5000;0.1278;-0.5585;
859.8000;0.1237;-0.5685;
860.1000;0.1262;-0.5660;
860.4000;0.1254;-0.5585;
860.7000;0.1245;-0.5585;
861.0000;0.1229;-0.5585;
861.3000;0.1335;-0.5261;
861.6000;0.1237;-0.5510;
861.9000;0.1254;-0.5460;
862.2000;0.1237;-0.5485;
862.5000;0.1229;-0.5560;
862.8000;0.1221;-0.5510;
863.1000;0.1237;-0.5460;
863.4000;0.1237;-0.5436;
863.7000;0.1164;-0.5635;
864.0000;0.1245;-0.5411;
864.3000;0.1254;-0.5411;
864.6000;0.1197;-0.5436;
864.9000;0.1221;-0.5286;
865.2000;0.1319;-0.5037;
865.5000;0.1229;-0.5286;
865.8000;0.1229;-0.5361;
866.1000;0.1205;-0.5436;
866.4000;0.1245;-0.5336;
866.7000;0.1254;-0.5286;
867.0000;0.1245;-0.5261;
867.3000;0.1286;-0.5236;
867.6000;0.1237;-0.5311;
867.9000;0.1262;-0.5311;
868.2000;0.1245;-0.5336;
868.5000;0.1229;-0.5386;
868.8000;0.1254;-0.5286;
869.1000;0.1254;-0.5186;
869.4000;0.1229;-0.5261;
869.7000;0.1254;-0.5186;
870.0000;0.1237;-0.5361;
870.3000;0.1229;-0.5386;
870.6000;0.1319;-0.5136;
870.9000;0.1237;-0.5361;
871.2000;0.1229;-0.5236;
871.5000;0.1319;-0.5086;
871.8000;0.1197;-0.5411;
872.1000;0.1237;-0.5361;
872.4000;0.1245;-0.5261;
872.7000;0.1229;-0.5411;
873.0000;0.1254;-0.5411;
873.3000;0.1237;-0.5436;
873.6000;0.1302;-0.5236;
873.9000;0.1237;-0.5436;
874.2000;0.1237;-0.5535;
874.5000;0.1245;-0.5411;
874.8000;0.1229;-0.5411;
875.1000;0.1245;-0.5336;
875.4000;0.1254;-0.5311;
875.7000;0.1262;-0.5336;
876.0000;0.1254;-0.5286;
876.3000;0.1245;-0.5186;
876.6000;0.1237;-0.5186;
876.9000;0.1188;-0.5336;
877.2000;0.1221;-0.5286;
877.5000;0.1270;-0.5236;
877.8000;0.1221;-0.5361;
878.1000;0.1237;-0.5361;
878.4000;0.1237;-0.5510;
878.7000;0.1245;-0.5560;
879.0000;0.1221;-0.5560;
879.3000;0.1294;-0.5361;
879.6000;0.1245;-0.5411;
879.9000;0.1221;-0.5361;
880.2000;0.1237;-0.5336;
880.5000;0.1180;-0.5535;
880.8000;0.1262;-0.5286;
881.1000;0.1254;-0.5336;
881.4000;0.1229;-0.5460;
881.7000;0.1262;-0.5361;
882.0000;0.1229;-0.5386;
882.3000;0.1221;-0.5386;
882.6000;0.1205;-0.5411;
882.9000;0.1245;-0.5411;
883.2000;0.1270;-0.5386;
883.5000;0.1245;-0.5411;
883.8000;0.1245;-0.5361;
884.1000;0.1254;-0.5311;
884.4000;0.1254;-0.5236;
884.7000;0.1180;-0.5411;
885.0000;0.1254;-0.5336;
885.3000;0.1262;-0.5311;
885.6000;0.1262;-0.5161;
885.9000;0.1205;-0.5236;
886.2000;0.1270;-0.5062;
886.5000;0.1245;-0.5012;
886.8000;0.1245;-0.4937;
887.1000;0.1237;-0.4962;
887.4000;0.1237;-0.5062;
887.7000;0.1245;-0.5136;
888.0000;0.1237;-0.5186;
888.3000;0.1245;-0.5161;
888.6000;0.1213;-0.5261;
888.9000;0.1278;-0.5111;
889.2000;0.1278;-0.5111;
889.5000;0.1262;-0.5136;
889.8000;0.1245;-0.5186;
890.1000;0.1229;-0.5186;
890.4000;0.1180;-0.5411;
890.7000;0.1262;-0.5161;
891.0000;0.1237;-0.5161;
891.3000;0.1229;-0.5211;
891.6000;0.1245;-0.5211;
891.9000;0.1229;-0.5161;
892.2000;0.1237;-0.5211;
892.5000;0.1229;-0.5211;
892.8000;0.1254;-0.5261;
893.1000;0.1213;-0.5286;
893.4000;0.1237;-0.5211;
893.7000;0.1213;-0.5261;
894.0000;0.1245;-0.5186;
894.3000;0.1254;-0.5211;
894.6000;0.1262;-0.5186;
894.9000;0.1245;-0.5136;
895.2000;0.1245;-0.5111;
895.5000;0.1262;-0.5111;
895.8000;0.1302;-0.5012;
896.1000;0.1254;-0.5086;
896.4000;0.1229;-0.5086;
896.7000;0.1254;-0.5062;
897.0000;0.1148;-0.5311;
897.3000;0.1229;-0.5062;
897.6000;0.1254;-0.5037;
897.9000;0.1221;-0.5111;
898.2000;0.1229;-0.5086;
898.5000;0.1245;-0.5086;
898.8000;0.1311;-0.4937;
899.1000;0.1262;-0.5037;
899.4000;0.1245;-0.5062;
899.7000;0.1245;-0.5086;
900.0000;0.1245;-0.5136;
900.3000;0.1221;-0.5211;
900.6000;0.1245;-0.5261;
900.9000;0.1229;-0.5286;
901.2000;0.1254;-0.5186;
901.5000;0.1213;-0.5311;
901.8000;0.1205;-0.5211;
902.1000;0.1245;-0.5111;
902.4000;0.1229;-0.5286;
902.7000;0.1221;-0.5411;
903.0000;0.1245;-0.5336;
903.3000;0.1229;-0.5361;
903.6000;0.1245;-0.5336;
903.9000;0.1221;-0.5361;
904.2000;0.1245;-0.5311;
904.5000;0.1221;-0.5386;
904.8000;0.1237;-0.5336;
905.1000;0.1262;-0.5236;
905.4000;0.1237;-0.5111;
905.7000;0.1245;-0.5136;
906.0000;0.1254;-0.5211;
906.3000;0.1245;-0.5236;
906.6000;0.1237;-0.5311;
906.9000;0.1237;-0.5286;
907.2000;0.1221;-0.5236;
907.5000;0.1237;-0.5161;
907.8000;0.1245;-0.5086;
908.1000;0.1221;-0.5161;
908.4000;0.1254;-0.5086;
908.7000;0.1237;-0.5211;
909.0000;0.1254;-0.5236;
909.3000;0.1245;-0.5261;
909.6000;0.1294;-0.5086;
909.9000;0.1270;-0.5211;
910.2000;0.1237;-0.5261;
910.5000;0.1254;-0.5311;
910.8000;0.1262;-0.5286;
911.1000;0.1254;-0.5261;
911.4000;0.1245;-0.5236;
911.7000;0.1262;-0.5236;
912.0000;0.1237;-0.5286;
912.3000;0.1237;-0.5286;
912.6000;0.1254;-0.5211;
912.9000;0.1237;-0.5236;
913.2000;0.1237;-0.5161;
913.5000;0.1302;-0.5037;
913.8000;0.1229;-0.5236;
914.1000;0.1221;-0.5361;
914.4000;0.1270;-0.5261;
914.7000;0.1254;-0.5286;
915.0000;0.1237;-0.5286;
915.3000;0.1237;-0.5411;
915.6000;0.1245;-0.5386;
915.9000;0.1245;-0.5386;
916.2000;0.1245;-0.5361;
916.5000;0.1245;-0.5336;
916.8000;0.1221;-0.5361;
917.1000;0.1254;-0.5261;
917.4000;0.1286;-0.5186;
917.7000;0.1262;-0.5236;
918.0000;0.1294;-0.5161;
918.3000;0.1262;-0.5211;
918.6000;0.1237;-0.5236;
918.9000;0.1229;-0.5336;
919.2000;0.1237;-0.5361;
919.5000;0.1254;-0.5311;
919.8000;0.1254;-0.5261;
920.1000;0.1245;-0.5236;
920.4000;0.1286;-0.5086;
920.7000;0.1262;-0.5136;
921.0000;0.1229;-0.5186;
921.3000;0.1237;-0.5236;
921.6000;0.1245;-0.5236;
921.9000;0.1237;-0.5336;
922.2000;0.1262;-0.5311;
922.5000;0.1237;-0.5411;
922.8000;0.1229;-0.5485;
923.1000;0.1229;-0.5411;
923.4000;0.1205;-0.5386;
923.7000;0.1237;-0.5261;
924.0000;0.1245;-0.5336;
924.3000;0.1221;-0.5460;
924.6000;0.1286;-0.5386;
924.9000;0.1180;-0.5735;
925.2000;0.1254;-0.5485;
925.5000;0.1237;-0.5460;
925.8000;0.1205;-0.5510;
926.1000;0.1221;-0.5485;
926.4000;0.1254;-0.5510;
926.7000;0.1237;-0.5510;
927.0000;0.1254;-0.5510;
927.3000;0.1245;-0.5485;
927.6000;0.1262;-0.5436;
927.9000;0.1254;-0.5411;
928.2000;0.1237;-0.5485;
928.5000;0.1237;-0.5460;
928.8000;0.1262;-0.5411;
929.1000;0.1245;-0.5460;
929.4000;0.1237;-0.5436;
929.7000;0.1245;-0.5510;
930.0000;0.1278;-0.5386;
930.3000;0.1262;-0.5535;
930.6000;0.1245;-0.5685;
930.9000;0.1221;-0.5635;
931.2000;0.1245;-0.5460;
931.5000;0.1262;-0.5411;
931.8000;0.1245;-0.5510;
932.1000;0.1254;-0.5411;
932.4000;0.1229;-0.5361;
932.7000;0.1229;-0.5311;
933.0000;0.1213;-0.5336;
933.3000;0.1213;-0.5386;
933.6000;0.1221;-0.5411;
933.9000;0.1237;-0.5485;
934.2000;0.1245;-0.5485;
934.5000;0.1229;-0.5485;
934.8000;0.1237;-0.5411;
935.1000;0.1229;-0.5460;
935.4000;0.1237;-0.5436;
935.7000;0.1188;-0.5560;
936.0000;0.1262;-0.5361;
936.3000;0.1245;-0.5361;
936.6000;0.1254;-0.5411;
936.9000;0.1245;-0.5485;
937.2000;0.1245;-0.5485;
937.5000;0.1221;-0.5585;
937.8000;0.1245;-0.5485;
938.1000;0.1245;-0.5460;
938.4000;0.1262;-0.5436;
938.7000;0.1237;-0.5411;
939.0000;0.1237;-0.5361;
939.3000;0.1254;-0.5361;
939.6000;0.1311;-0.5136;
939.9000;0.1254;-0.5286;
940.2000;0.1262;-0.5236;
940.5000;0.1254;-0.5311;
940.8000;0.1262;-0.5286;
941.1000;0.1245;-0.5311;
941.4000;0.1254;-0.5286;
941.7000;0.1254;-0.5411;
942.0000;0.1213;-0.5510;
942.3000;0.1254;-0.5386;
942.6000;0.1237;-0.5411;
942.9000;0.1270;-0.5286;
943.2000;0.1245;-0.5311;
943.5000;0.1237;-0.5386;
943.8000;0.1237;-0.5535;
944.1000;0.1237;-0.5585;
944.4000;0.1245;-0.5585;
944.7000;0.1294;-0.5485;
945.0000;0.1286;-0.5460;
945.3000;0.1245;-0.5411;
945.6000;0.1254;-0.5411;
945.9000;0.1270;-0.5386;
946.2000;0.1245;-0.5336;
946.5000;0.1221;-0.5436;
946.8000;0.1237;-0.5436;
947.1000;0.1237;-0.5436;
947.4000;0.1237;-0.5411;
947.7000;0.1237;-0.5286;
948.0000;0.1302;-0.5111;
948.3000;0.1262;-0.5286;
948.6000;0.1221;-0.5386;
948.9000;0.1237;-0.5411;
949.2000;0.1245;-0.5510;
949.5000;0.1237;-0.5460;
949.8000;0.1180;-0.5535;
950.1000;0.1254;-0.5311;
950.4000;0.1254;-0.5261;
950.7000;0.1245;-0.5161;
951.0000;0.1286;-0.5136;
951.3000;0.1254;-0.5261;
951.6000;0.1237;-0.5186;
951.9000;0.1254;-0.5062;
952.2000;0.1245;-0.5136;
952.5000;0.1245;-0.5161;
952.8000;0.1245;-0.5211;
953.1000;0.1245;-0.5261;
953.4000;0.1237;-0.5336;
953.7000;0.1254;-0.5286;
954.0000;0.1254;-0.5261;
954.3000;0.1245;-0.5161;
954.6000;0.1237;-0.5111;
954.9000;0.1245;-0.5062;
955.2000;0.1229;-0.5186;
955.5000;0.1245;-0.5086;
955.8000;0.1205;-0.5261;
956.1000;0.1254;-0.5086;
956.4000;0.1245;-0.5136;
956.7000;0.1270;-0.5111;
957.0000;0.1229;-0.5211;
957.3000;0.1262;-0.5136;
957.6000;0.1221;-0.5186;
957.9000;0.1237;-0.5161;
958.2000;0.1245;-0.5086;
958.5000;0.1229;-0.5062;
958.8000;0.1245;-0.5111;
959.1000;0.1221;-0.5186;
959.4000;0.1254;-0.5211;
959.7000;0.1237;-0.5186;
960.0000;0.1229;-0.5111;
960.3000;0.1229;-0.5136;
960.6000;0.1229;-0.5136;
960.9000;0.1254;-0.5161;
961.2000;0.1245;-0.5211;
961.5000;0.1237;-0.5211;
961.8000;0.1262;-0.5161;
962.1000;0.1221;-0.5311;
962.4000;0.1254;-0.5261;
962.7000;0.1262;-0.5261;
963.0000;0.1237;-0.5211;
963.3000;0.1254;-0.5186;
963.6000;0.1229;-0.5236;
963.9000;0.1229;-0.5186;
964.2000;0.1229;-0.5186;
964.5000;0.1237;-0.5261;
964.8000;0.1245;-0.5311;
965.1000;0.1254;-0.5211;
965.4000;0.1245;-0.5211;
965.7000;0.1197;-0.5261;
966.0000;0.1270;-0.5037;
966.3000;0.1262;-0.5062;
966.6000;0.1245;-0.5136;
966.9000;0.1245;-0.5111;
967.2000;0.1254;-0.5261;
967.5000;0.1270;-0.5186;
967.8000;0.1262;-0.5186;
968.1000;0.1229;-0.5311;
968.4000;0.1262;-0.5236;
968.7000;0.1245;-0.5336;
969.0000;0.1237;-0.5286;
969.3000;0.1245;-0.5211;
969.6000;0.1237;-0.5236;
969.9000;0.1229;-0.5236;
970.2000;0.1254;-0.5136;
970.5000;0.1237;-0.5161;
970.8000;0.1270;-0.5111;
971.1000;0.1245;-0.5136;
971.4000;0.1237;-0.5261;
971.7000;0.1254;-0.5236;
972.0000;0.1188;-0.5261;
972.3000;0.1270;-0.5086;
972.6000;0.1237;-0.5136;
972.9000;0.1237;-0.5161;
973.2000;0.1245;-0.5211;
973.5000;0.1245;-0.5161;
973.8000;0.1351;-0.5037;
974.1000;0.1221;-0.5386;
974.4000;0.1254;-0.5311;
974.7000;0.1237;-0.5361;
975.0000;0.1245;-0.5411;
975.3000;0.1172;-0.5660;
975.6000;0.1254;-0.5460;
975.9000;0.1148;-0.5710;
976.2000;0.1245;-0.5510;
976.5000;0.1229;-0.5436;
976.8000;0.1229;-0.5535;
977.1000;0.1254;-0.5510;
977.4000;0.1237;-0.5560;
977.7000;0.1245;-0.5411;
978.0000;0.1278;-0.5286;
978.3000;0.1262;-0.5386;
978.6000;0.1270;-0.5311;
978.9000;0.1245;-0.5386;
979.2000;0.1245;-0.5460;
979.5000;0.1237;-0.5436;
979.8000;0.1237;-0.5411;
980.1000;0.1245;-0.5336;
980.4000;0.1237;-0.5386;
980.7000;0.1188;-0.5535;
981.0000;0.1254;-0.5311;
981.3000;0.1270;-0.5286;
981.6000;0.1213;-0.5361;
981.9000;0.1221;-0.5311;
982.2000;0.1245;-0.5286;
982.5000;0.1254;-0.5286;
982.8000;0.1254;-0.5311;
983.1000;0.1229;-0.5336;
983.4000;0.1286;-0.5211;
983.7000;0.1245;-0.5336;
984.0000;0.1229;-0.5436;
984.3000;0.1229;-0.5336;
984.6000;0.1294;-0.5136;
984.9000;0.1270;-0.5186;
985.2000;0.1254;-0.5286;
985.5000;0.1245;-0.5311;
985.8000;0.1237;-0.5361;
986.1000;0.1270;-0.5336;
986.4000;0.1245;-0.5361;
986.7000;0.1278;-0.5186;
987.0000;0.1359;-0.4962;
987.3000;0.1254;-0.5261;
987.6000;0.1245;-0.5311;
987.9000;0.1254;-0.5336;
988.2000;0.1229;-0.5386;
988.5000;0.1245;-0.5460;
988.8000;0.1237;-0.5411;
989.1000;0.1229;-0.5436;
989.4000;0.1262;-0.5460;
989.7000;0.1286;-0.5361;
990.0000;0.1229;-0.5436;
990.3000;0.1245;-0.5411;
990.6000;0.1237;-0.5411;
990.9000;0.1237;-0.5436;
991.2000;0.1254;-0.5311;
991.5000;0.1229;-0.5386;
991.8000;0.1237;-0.5361;
992.1000;0.1262;-0.5436;
992.4000;0.1262;-0.5460;
992.7000;0.1311;-0.5386;
993.0000;0.1262;-0.5560;
993.3000;0.1221;-0.5485;
993.6000;0.1213;-0.5535;
993.9000;0.1286;-0.5436;
994.2000;0.1237;-0.5436;
994.5000;0.1221;-0.5485;
994.8000;0.1254;-0.5386;
995.1000;0.1254;-0.5411;
995.4000;0.1286;-0.5311;
995.7000;0.1245;-0.5411;
996.0000;0.1245;-0.5460;
996.3000;0.1254;-0.5386;
996.6000;0.1237;-0.5336;
996.9000;0.1188;-0.5361;
997.2000;0.1245;-0.5186;
997.5000;0.1237;-0.5211;
997.8000;0.1229;-0.5211;
998.1000;0.1245;-0.5311;
998.4000;0.1148;-0.5585;
998.7000;0.1237;-0.5411;
999.0000;0.1237;-0.5436;
999.3000;0.1229;-0.5411;
999.6000;0.1254;-0.5485;
999.9000;0.1262;-0.5411;
1000.2000;0.1221;-0.5336;
1000.5000;0.1270;-0.5211;
1000.8000;0.1245;-0.5261;
1001.1000;0.1229;-0.5411;
1001.4000;0.1270;-0.5311;
1001.7000;0.1254;-0.5411;
1002.0000;0.1262;-0.5460;
1002.3000;0.1245;-0.5411;
1002.6000;0.1270;-0.5186;
1002.9000;0.1205;-0.5286;
1003.2000;0.1237;-0.5311;
1003.5000;0.1237;-0.5286;
1003.8000;0.1229;-0.5311;
1004.1000;0.1213;-0.5485;
1004.4000;0.1229;-0.5535;
1004.7000;0.1213;-0.5535;
1005.0000;0.1229;-0.5361;
1005.3000;0.1131;-0.5660;
1005.6000;0.1254;-0.5336;
1005.9000;0.1237;-0.5211;
1006.2000;0.1254;-0.5186;
1006.5000;0.1254;-0.5286;
1006.8000;0.1254;-0.5286;
1007.1000;0.1229;-0.5436;
1007.4000;0.1229;-0.5411;
1007.7000;0.1229;-0.5411;
1008.0000;0.1254;-0.5411;
1008.3000;0.1245;-0.5386;
1008.6000;0.1237;-0.5510;
1008.9000;0.1245;-0.5485;
1009.2000;0.1237;-0.5436;
1009.5000;0.1229;-0.5485;
1009.8000;0.1245;-0.5460;
1010.1000;0.1294;-0.5336;
1010.4000;0.1245;-0.5485;
1010.7000;0.1254;-0.5386;
1011.0000;0.1254;-0.5411;
1011.3000;0.1270;-0.5361;
1011.6000;0.1254;-0.5336;
1011.9000;0.1262;-0.5211;
1012.2000;0.1262;-0.5261;
1012.5000;0.1262;-0.5236;
1012.8000;0.1205;-0.5436;
1013.1000;0.1221;-0.5510;
1013.4000;0.1229;-0.5585;
1013.7000;0.1237;-0.5510;
1014.0000;0.1254;-0.5460;
1014.3000;0.1229;-0.5560;
1014.6000;0.1262;-0.5510;
1014.9000;0.1262;-0.5485;
1015.2000;0.1229;-0.5485;
1015.5000;0.1188;-0.5535;
1015.8000;0.1188;-0.5535;
1016.1000;0.1221;-0.5460;
1016.4000;0.1237;-0.5510;
1016.7000;0.1237;-0.5510;
1017.0000;0.1229;-0.5485;
1017.3000;0.1237;-0.5411;
1017.6000;0.1254;-0.5411;
1017.9000;0.1319;-0.5386;
1018.2000;0.1221;-0.5610;
1018.5000;0.1262;-0.5460;
1018.8000;0.1286;-0.5361;
1019.1000;0.1221;-0.5535;
1019.4000;0.1237;-0.5535;
1019.7000;0.1221;-0.5585;
1020.0000;0.1221;-0.5635;
1020.3000;0.1245;-0.5660;
1020.6000;0.1311;-0.5411;
1020.9000;0.1221;-0.5660;
1021.2000;0.1229;-0.5660;
1021.5000;0.1278;-0.5635;
1021.8000;0.1237;-0.5685;
1022.1000;0.1221;-0.5685;
1022.4000;0.1229;-0.5510;
1022.7000;0.1245;-0.5560;
1023.0000;0.1245;-0.5585;
1023.3000;0.1254;-0.5535;
1023.6000;0.1254;-0.5535;
1023.9000;0.1245;-0.5560;
1024.2000;0.1237;-0.5610;
1024.5000;0.1237;-0.5585;
1024.8000;0.1229;-0.5585;
1025.1000;0.1229;-0.5535;
1025.4000;0.1245;-0.5485;
1025.7000;0.1245;-0.5460;
1026.0000;0.1245;-0.5411;
1026.3000;0.1237;-0.5460;
1026.6000;0.1245;-0.5460;
1026.9000;0.1262;-0.5411;
1027.2000;0.1245;-0.5411;
1027.5000;0.1245;-0.5361;
1027.8000;0.1237;-0.5361;
1028.1000;0.1270;-0.5286;
1028.4000;0.1254;-0.5261;
1028.7000;0.1221;-0.5286;
1029.0000;0.1237;-0.5261;
1029.3000;0.1278;-0.5161;
1029.6000;0.1245;-0.5236;
1029.9000;0.1237;-0.5286;
1030.2000;0.1254;-0.5336;
1030.5000;0.1254;-0.5261;
1030.8000;0.1254;-0.5286;
1031.1000;0.1254;-0.5311;
1031.4000;0.1262;-0.5361;
1031.7000;0.1245;-0.5436;
1032.0000;0.1237;-0.5411;
1032.3000;0.1254;-0.5411;
1032.6000;0.1245;-0.5436;
1032.9000;0.1319;-0.5161;
1033.2000;0.1213;-0.5386;
1033.5000;0.1245;-0.5336;
1033.8000;0.1148;-0.5610;
1034.1000;0.1270;-0.5336;
1034.4000;0.1164;-0.5560;
1034.7000;0.1254;-0.5361;
1035.0000;0.1245;-0.5386;
1035.3000;0.1262;-0.5411;
1035.6000;0.1359;-0.5186;
1035.9000;0.1229;-0.5535;
1036.2000;0.1188;-0.5635;
1036.5000;0.1237;-0.5510;
1036.8000;0.1245;-0.5535;
1037.1000;0.1237;-0.5510;
1037.4000;0.1237;-0.5460;
1037.7000;0.1237;-0.5386;
1038.0000;0.1270;-0.5386;
1038.3000;0.1270;-0.5236;
1038.6000;0.1237;-0.5336;
1038.9000;0.1237;-0.5336;
1039.2000;0.1237;-0.5336;
1039.5000;0.1237;-0.5336;
1039.8000;0.1262;-0.5311;
1040.1000;0.1229;-0.5361;
1040.4000;0.1213;-0.5411;
1040.7000;0.1205;-0.5460;
1041.0000;0.1254;-0.5286;
1041.3000;0.1294;-0.5186;
1041.6000;0.1270;-0.5211;
1041.9000;0.1262;-0.5236;
1042.2000;0.1237;-0.5286;
1042.5000;0.1270;-0.5211;
1042.8000;0.1262;-0.5236;
1043.1000;0.1245;-0.5336;
1043.4000;0.1262;-0.5261;
1043.7000;0.1254;-0.5236;
1044.0000;0.1229;-0.5286;
1044.3000;0.1270;-0.5236;
1044.6000;0.1278;-0.5236;
1044.9000;0.1278;-0.5186;
1045.2000;0.1229;-0.5286;
1045.5000;0.1254;-0.5311;
1045.8000;0.1311;-0.5062;
1046.1000;0.1245;-0.5161;
1046.4000;0.1254;-0.5136;
1046.7000;0.1237;-0.5111;
1047.0000;0.1245;-0.5062;
1047.3000;0.1254;-0.5111;
1047.6000;0.1245;-0.5161;
1047.9000;0.1245;-0.5186;
1048.2000;0.1237;-0.5236;
1048.5000;0.1245;-0.5211;
1048.8000;0.1245;-0.5111;
1049.1000;0.1197;-0.5236;
1049.4000;0.1245;-0.5161;
1049.7000;0.1237;-0.5236;
1050.0000;0.1229;-0.5211;
1050.3000;0.1245;-0.5211;
1050.6000;0.1262;-0.5236;
1050.9000;0.1213;-0.5311;
1051.2000;0.1221;-0.5261;
1051.5000;0.1245;-0.5161;
1051.8000;0.1245;-0.5211;
1052.1000;0.1213;-0.5261;
1052.4000;0.1237;-0.5236;
1052.7000;0.1229;-0.5361;
1053.0000;0.1254;-0.5311;
1053.3000;0.1229;-0.5361;
1053.6000;0.1254;-0.5311;
1053.9000;0.1237;-0.5411;
1054.2000;0.1229;-0.5535;
1054.5000;0.1229;-0.5485;
1054.8000;0.1221;-0.5436;
1055.1000;0.1237;-0.5336;
1055.4000;0.1229;-0.5311;
1055.7000;0.1262;-0.5286;
1056.0000;0.1262;-0.5261;
1056.3000;0.1229;-0.5411;
1056.6000;0.1245;-0.5361;
1056.9000;0.1237;-0.5361;
1057.2000;0.1237;-0.5336;
1057.5000;0.1245;-0.5361;
1057.8000;0.1262;-0.5236;
1058.1000;0.1229;-0.5261;
1058.4000;0.1229;-0.5261;
1058.7000;0.1188;-0.5460;
1059.0000;0.1237;-0.5311;
1059.3000;0.1254;-0.5286;
1059.6000;0.1229;-0.5311;
1059.9000;0.1278;-0.5111;
1060.2000;0.1229;-0.5136;
1060.5000;0.1229;-0.5111;
1060.8000;0.1311;-0.4862;
1061.1000;0.1254;-0.5037;
1061.4000;0.1254;-0.5136;
1061.7000;0.1245;-0.5211;
1062.0000;0.1213;-0.5386;
1062.3000;0.1270;-0.5136;
1062.6000;0.1254;-0.5286;
1062.9000;0.1221;-0.5411;
1063.2000;0.1254;-0.5436;
1063.5000;0.1229;-0.5510;
1063.8000;0.1262;-0.5411;
1064.1000;0.1270;-0.5361;
1064.4000;0.1254;-0.5336;
1064.7000;0.1245;-0.5236;
1065.0000;0.1245;-0.5336;
1065.3000;0.1294;-0.5186;
1065.6000;0.1237;-0.5311;
1065.9000;0.1245;-0.5261;
1066.2000;0.1254;-0.5336;
1066.5000;0.1237;-0.5361;
1066.8000;0.1245;-0.5336;
1067.1000;0.1262;-0.5336;
1067.4000;0.1254;-0.5436;
1067.7000;0.1245;-0.5336;
1068.0000;0.1245;-0.5361;
1068.3000;0.1254;-0.5361;
1068.6000;0.1245;-0.5411;
1068.9000;0.1270;-0.5261;
1069.2000;0.1245;-0.5286;
1069.5000;0.1294;-0.5236;
1069.8000;0.1229;-0.5411;
1070.1000;0.1229;-0.5361;
1070.4000;0.1245;-0.5336;
1070.7000;0.1245;-0.5361;
1071.0000;0.1245;-0.5411;
1071.3000;0.1245;-0.5485;
1071.6000;0.1262;-0.5411;
1071.9000;0.1213;-0.5485;
1072.2000;0.1294;-0.5336;
1072.5000;0.1278;-0.5311;
1072.8000;0.1262;-0.5286;
1073.1000;0.1254;-0.5336;
1073.4000;0.1245;-0.5261;
1073.7000;0.1262;-0.5286;
1074.0000;0.1205;-0.5336;
1074.3000;0.1188;-0.5236;
1074.6000;0.1254;-0.5136;
1074.9000;0.1245;-0.5161;
1075.2000;0.1270;-0.5086;
1075.5000;0.1237;-0.5161;
1075.8000;0.1213;-0.5336;
1076.1000;0.1245;-0.5411;
1076.4000;0.1254;-0.5311;
1076.7000;0.1221;-0.5336;
1077.0000;0.1254;-0.5311;
1077.3000;0.1237;-0.5361;
1077.6000;0.1254;-0.5261;
1077.9000;0.1254;-0.5286;
1078.2000;0.1237;-0.5236;
1078.5000;0.1254;-0.5136;
1078.8000;0.1245;-0.5186;
1079.1000;0.1229;-0.5236;
1079.4000;0.1245;-0.5186;
1079.7000;0.1254;-0.5186;
1080.0000;0.1237;-0.5286;
1080.3000;0.1237;-0.5186;
1080.6000;0.1254;-0.5062;
1080.9000;0.1229;-0.5062;
1081.2000;0.1245;-0.4987;
1081.5000;0.1254;-0.5037;
1081.8000;0.1237;-0.5186;
1082.1000;0.1254;-0.5261;
1082.4000;0.1245;-0.5261;
1082.7000;0.1254;-0.5236;
1083.0000;0.1245;-0.5261;
1083.3000;0.1245;-0.5311;
1083.6000;0.1254;-0.5311;
1083.9000;0.1262;-0.5186;
1084.2000;0.1254;-0.5336;
1084.5000;0.1229;-0.5336;
1084.8000;0.1237;-0.5261;
1085.1000;0.1197;-0.5311;
1085.4000;0.1229;-0.5261;
1085.7000;0.1254;-0.5236;
1086.0000;0.1237;-0.5386;
1086.3000;0.1245;-0.5460;
1086.6000;0.1319;-0.5286;
1086.9000;0.1237;-0.5535;
1087.2000;0.1262;-0.5635;
1087.5000;0.1205;-0.5735;
1087.8000;0.1254;-0.5585;
1088.1000;0.1262;-0.5436;
1088.4000;0.1221;-0.5460;
1088.7000;0.1229;-0.5535;
1089.0000;0.1221;-0.5485;
1089.3000;0.1286;-0.5311;
1089.6000;0.1254;-0.5386;
1089.9000;0.1205;-0.5485;
1090.2000;0.1254;-0.5386;
1090.5000;0.1302;-0.5211;
1090.8000;0.1237;-0.5386;
1091.1000;0.1237;-0.5286;
1091.4000;0.1213;-0.5286;
1091.7000;0.1254;-0.5261;
1092.0000;0.1237;-0.5236;
1092.3000;0.1229;-0.5286;
1092.6000;0.1245;-0.5211;
1092.9000;0.1197;-0.5361;
1093.2000;0.1237;-0.5336;
1093.5000;0.1245;-0.5311;
1093.8000;0.1229;-0.5311;
1094.1000;0.1229;-0.5361;
1094.4000;0.1245;-0.5261;
1094.7000;0.1237;-0.5286;
1095.0000;0.1205;-0.5336;
1095.3000;0.1237;-0.5311;
1095.6000;0.1278;-0.5186;
1095.9000;0.1311;-0.5211;
1096.2000;0.1254;-0.5336;
1096.5000;0.1270;-0.5236;
1096.8000;0.1270;-0.5236;
1097.1000;0.1237;-0.5336;
1097.4000;0.1237;-0.5386;
1097.7000;0.1254;-0.5436;
1098.0000;0.1245;-0.5411;
1098.3000;0.1245;-0.5361;
1098.6000;0.1262;-0.5311;
1098.9000;0.1221;-0.5336;
1099.2000;0.1221;-0.5311;
1099.5000;0.1229;-0.5236;
1099.8000;0.1245;-0.5236;
1100.1000;0.1237;-0.5186;
1100.4000;0.1245;-0.5161;
1100.7000;0.1262;-0.5111;
1101.0000;0.1245;-0.5211;
1101.3000;0.1245;-0.5161;
1101.6000;0.1254;-0.5186;
1101.9000;0.1237;-0.5136;
1102.2000;0.1254;-0.5111;
1102.5000;0.1237;-0.5136;
1102.8000;0.1237;-0.5086;
1103.1000;0.1245;-0.5062;
1103.4000;0.1254;-0.4962;
1103.7000;0.1278;-0.4912;
1104.0000;0.1319;-0.4787;
1104.3000;0.1254;-0.5012;
1104.6000;0.1245;-0.5037;
1104.9000;0.1229;-0.5111;
1105.2000;0.1180;-0.5161;
1105.5000;0.1229;-0.4962;
1105.8000;0.1254;-0.4962;
1106.1000;0.1245;-0.5111;
1106.4000;0.1237;-0.5111;
1106.7000;0.1245;-0.5161;
1107.0000;0.1245;-0.5136;
1107.3000;0.1262;-0.5136;
1107.6000;0.1262;-0.5261;
1107.9000;0.1245;-0.5311;
1108.2000;0.1245;-0.5286;
1108.5000;0.1245;-0.5336;
1108.8000;0.1254;-0.5386;
1109.1000;0.1262;-0.5311;
1109.4000;0.1237;-0.5161;
1109.7000;0.1262;-0.5111;
1110.0000;0.1254;-0.5136;
1110.3000;0.1237;-0.5261;
1110.6000;0.1245;-0.5286;
1110.9000;0.1254;-0.5336;
1111.2000;0.1229;-0.5411;
1111.5000;0.1229;-0.5411;
1111.8000;0.1254;-0.5311;
1112.1000;0.1254;-0.5386;
1112.4000;0.1237;-0.5361;
1112.7000;0.1270;-0.5236;
1113.0000;0.1229;-0.5236;
1113.3000;0.1229;-0.5286;
1113.6000;0.1188;-0.5436;
1113.9000;0.1237;-0.5236;
1114.2000;0.1229;-0.5311;
1114.5000;0.1245;-0.5261;
1114.8000;0.1229;-0.5261;
1115.1000;0.1245;-0.5211;
1115.4000;0.1237;-0.5211;
1115.7000;0.1245;-0.5186;
1116.0000;0.1245;-0.5161;
1116.3000;0.1164;-0.5311;
1116.6000;0.1245;-0.5111;
1116.9000;0.1335;-0.4912;
1117.2000;0.1221;-0.5311;
1117.5000;0.1213;-0.5361;
1117.8000;0.1286;-0.5161;
1118.1000;0.1205;-0.5336;
1118.4000;0.1229;-0.5286;
1118.7000;0.1237;-0.5286;
1119.0000;0.1221;-0.5336;
1119.3000;0.1237;-0.5261;
1119.6000;0.1237;-0.5161;
1119.9000;0.1237;-0.5111;
1120.2000;0.1262;-0.5136;
1120.5000;0.1245;-0.5236;
1120.8000;0.1245;-0.5261;
1121.1000;0.1172;-0.5436;
1121.4000;0.1237;-0.5236;
1121.7000;0.1245;-0.5336;
1122.0000;0.1286;-0.5261;
1122.3000;0.1254;-0.5311;
1122.6000;0.1245;-0.5261;
1122.9000;0.1237;-0.5286;
1123.2000;0.1213;-0.5311;
1123.5000;0.1245;-0.5186;
1123.8000;0.1237;-0.5236;
1124.1000;0.1262;-0.5211;
1124.4000;0.1245;-0.5286;
1124.7000;0.1245;-0.5286;
1125.0000;0.1237;-0.5361;
1125.3000;0.1229;-0.5361;
1125.6000;0.1254;-0.5311;
1125.9000;0.1221;-0.5336;
1126.2000;0.1237;-0.5336;
1126.5000;0.1262;-0.5361;
1126.8000;0.1245;-0.5386;
1127.1000;0.1302;-0.5361;
1127.4000;0.1254;-0.5485;
1127.7000;0.1237;-0.5510;
1128.0000;0.1270;-0.5436;
1128.3000;0.1270;-0.5361;
1128.6000;0.1254;-0.5336;
1128.9000;0.1221;-0.5411;
1129.2000;0.1205;-0.5386;
1129.5000;0.1245;-0.5311;
1129.8000;0.1229;-0.5336;
1130.1000;0.1254;-0.5211;
1130.4000;0.1237;-0.5211;
1130.7000;0.1254;-0.5111;
1131.0000;0.1335;-0.4912;
1131.3000;0.1254;-0.5161;
1131.6000;0.1245;-0.5261;
1131.9000;0.1245;-0.5261;
1132.2000;0.1262;-0.5236;
1132.5000;0.1262;-0.5211;
1132.8000;0.1278;-0.5236;
1133.1000;0.1262;-0.5236;
1133.4000;0.1229;-0.5411;
1133.7000;0.1262;-0.5261;
1134.0000;0.1237;-0.5286;
1134.3000;0.1262;-0.5161;
1134.6000;0.1237;-0.5161;
1134.9000;0.1245;-0.5211;
1135.2000;0.1262;-0.5236;
1135.5000;0.1245;-0.5236;
1135.8000;0.1245;-0.5186;
1136.1000;0.1237;-0.5236;
1136.4000;0.1302;-0.5186;
1136.7000;0.1262;-0.5261;
1137.0000;0.1229;-0.5261;
1137.3000;0.1237;-0.5211;
1137.6000;0.1197;-0.5286;
1137.9000;0.1262;-0.5136;
1138.2000;0.1254;-0.5186;
1138.5000;0.1327;-0.4937;
1138.8000;0.1237;-0.5211;
1139.1000;0.1262;-0.5086;
1139.4000;0.1237;-0.5062;
1139.7000;0.1270;-0.4937;
1140.0000;0.1245;-0.5012;
1140.3000;0.1188;-0.5211;
1140.6000;0.1254;-0.4962;
1140.9000;0.1270;-0.5062;
1141.2000;0.1254;-0.5136;
1141.5000;0.1262;-0.5161;
1141.8000;0.1254;-0.5186;
1142.1000;0.1188;-0.5286;
1142.4000;0.1254;-0.5111;
1142.7000;0.1229;-0.5136;
1143.0000;0.1254;-0.5062;
1143.3000;0.1237;-0.5136;
1143.6000;0.1245;-0.5136;
1143.9000;0.1213;-0.5261;
1144.2000;0.1188;-0.5336;
1144.5000;0.1237;-0.5261;
1144.8000;0.1262;-0.5161;
1145.1000;0.1229;-0.5236;
1145.4000;0.1245;-0.5211;
1145.7000;0.1221;-0.5236;
1146.0000;0.1254;-0.5161;
1146.3000;0.1245;-0.5111;
1146.6000;0.1245;-0.5086;
1146.9000;0.1270;-0.5062;
1147.2000;0.1294;-0.5086;
1147.5000;0.1286;-0.5037;
1147.8000;0.1221;-0.5186;
1148.1000;0.1254;-0.5236;
1148.4000;0.1237;-0.5311;
1148.7000;0.1221;-0.5336;
1149.0000;0.1245;-0.5336;
1149.3000;0.1213;-0.5436;
1149.6000;0.1221;-0.5436;
1149.9000;0.1229;-0.5436;
1150.2000;0.1278;-0.5336;
1150.5000;0.1237;-0.5436;
1150.8000;0.1262;-0.5386;
1151.1000;0.1286;-0.5261;
1151.4000;0.1262;-0.5336;
1151.7000;0.1262;-0.5336;
1152.0000;0.1262;-0.5286;
1152.3000;0.1254;-0.5236;
1152.6000;0.1229;-0.5336;
1152.9000;0.1245;-0.5286;
1153.2000;0.1254;-0.5311;
1153.5000;0.1254;-0.5311;
1153.8000;0.1245;-0.5311;
1154.1000;0.1245;-0.5286;
1154.4000;0.1237;-0.5336;
1154.7000;0.1229;-0.5386;
1155.0000;0.1229;-0.5411;
1155.3000;0.1245;-0.5361;
1155.6000;0.1254;-0.5436;
1155.9000;0.1254;-0.5436;
1156.2000;0.1254;-0.5411;
1156.5000;0.1254;-0.5436;
1156.8000;0.1319;-0.5186;
1157.1000;0.1254;-0.5336;
1157.4000;0.1237;-0.5336;
1157.7000;0.1237;-0.5361;
1158.0000;0.1229;-0.5311;
1158.3000;0.1245;-0.5161;
1158.6000;0.1221;-0.5286;
1158.9000;0.1254;-0.5211;
1159.2000;0.1270;-0.5261;
1159.5000;0.1229;-0.5386;
1159.8000;0.1180;-0.5460;
1160.1000;0.1221;-0.5386;
1160.4000;0.1262;-0.5386;
1160.7000;0.1254;-0.5236;
1161.0000;0.1245;-0.5186;
1161.3000;0.1245;-0.5186;
1161.6000;0.1254;-0.5186;
1161.9000;0.1221;-0.5286;
1162.2000;0.1245;-0.5261;
1162.5000;0.1213;-0.5386;
1162.8000;0.1237;-0.5236;
1163.1000;0.1229;-0.5136;
1163.4000;0.1245;-0.5136;
1163.7000;0.1262;-0.5136;
1164.0000;0.1262;-0.5086;
1164.3000;0.1237;-0.5211;
1164.6000;0.1262;-0.5161;
1164.9000;0.1237;-0.5186;
1165.2000;0.1294;-0.4987;
1165.5000;0.1262;-0.5037;
1165.8000;0.1237;-0.5037;
1166.1000;0.1229;-0.5062;
1166.4000;0.1254;-0.4987;
1166.7000;0.1286;-0.4937;
1167.0000;0.1262;-0.5012;
1167.3000;0.1229;-0.5161;
1167.6000;0.1262;-0.5136;
1167.9000;0.1221;-0.5211;
1168.2000;0.1245;-0.5186;
1168.5000;0.1254;-0.5161;
1168.8000;0.1156;-0.5361;
1169.1000;0.1237;-0.5186;
1169.4000;0.1237;-0.5186;
1169.7000;0.1245;-0.5161;
1170.0000;0.1237;-0.5161;
1170.3000;0.1254;-0.5111;
1170.6000;0.1262;-0.5211;
1170.9000;0.1237;-0.5336;
1171.2000;0.1237;-0.5286;
1171.5000;0.1302;-0.5111;
1171.8000;0.1278;-0.5086;
1172.1000;0.1254;-0.5062;
1172.4000;0.1245;-0.5136;
1172.7000;0.1221;-0.5086;
1173.0000;0.1245;-0.5086;
1173.3000;0.1229;-0.5186;
1173.6000;0.1254;-0.5136;
1173.9000;0.1245;-0.5261;
1174.2000;0.1245;-0.5186;
1174.5000;0.1237;-0.5062;
1174.8000;0.1197;-0.5236;
1175.1000;0.1262;-0.5062;
1175.4000;0.1237;-0.5111;
1175.7000;0.1335;-0.4912;
1176.0000;0.1262;-0.5136;
1176.3000;0.1229;-0.5261;
1176.6000;0.1229;-0.5386;
1176.9000;0.1278;-0.5286;
1177.2000;0.1254;-0.5361;
1177.5000;0.1245;-0.5311;
1177.8000;0.1237;-0.5311;
1178.1000;0.1254;-0.5261;
1178.4000;0.1245;-0.5286;
1178.7000;0.1229;-0.5286;
1179.0000;0.1245;-0.5211;
1179.3000;0.1245;-0.5186;
1179.6000;0.1245;-0.5236;
1179.9000;0.1221;-0.5261;
1180.2000;0.1237;-0.5311;
1180.5000;0.1245;-0.5261;
1180.8000;0.1237;-0.5236;
1181.1000;0.1262;-0.5161;
1181.4000;0.1245;-0.5186;
1181.7000;0.1254;-0.5186;
1182.0000;0.1213;-0.5236;
1182.3000;0.1270;-0.5186;
1182.6000;0.1221;-0.5311;
1182.9000;0.1229;-0.5311;
1183.2000;0.1237;-0.5311;
1183.5000;0.1245;-0.5161;
1183.8000;0.1237;-0.5111;
1184.1000;0.1237;-0.5211;
1184.4000;0.1245;-0.5211;
1184.7000;0.1188;-0.5411;
1185.0000;0.1254;-0.5161;
1185.3000;0.1229;-0.5186;
1185.6000;0.1262;-0.5161;
1185.9000;0.1262;-0.5111;
1186.2000;0.1245;-0.5236;
1186.5000;0.1229;-0.5236;
1186.8000;0.1262;-0.5211;
1187.1000;0.1278;-0.5136;
1187.4000;0.1237;-0.5236;
1187.7000;0.1254;-0.5161;
1188.0000;0.1245;-0.5161;
1188.3000;0.1278;-0.5186;
1188.6000;0.1254;-0.5261;
1188.9000;0.1254;-0.5236;
1189.2000;0.1237;-0.5311;
1189.5000;0.1245;-0.5286;
1189.8000;0.1237;-0.5236;
1190.1000;0.1262;-0.5211;
1190.4000;0.1213;-0.5361;
1190.7000;0.1254;-0.5236;
1191.0000;0.1343;-0.5086;
1191.3000;0.1262;-0.5286;
1191.6000;0.1237;-0.5311;
1191.9000;0.1254;-0.5311;
1192.2000;0.1270;-0.5286;
1192.5000;0.1237;-0.5261;
1192.8000;0.1197;-0.5386;
1193.1000;0.1254;-0.5211;
1193.4000;0.1270;-0.5161;
1193.7000;0.1229;-0.5236;
1194.0000;0.1245;-0.5236;
1194.3000;0.1245;-0.5236;
1194.6000;0.1237;-0.5311;
1194.9000;0.1229;-0.5361;
1195.2000;0.1229;-0.5386;
1195.5000;0.1245;-0.5436;
1195.8000;0.1237;-0.5386;
1196.1000;0.1237;-0.5311;
1196.4000;0.1254;-0.5186;
1196.7000;0.1245;-0.5211;
1197.0000;0.1245;-0.5136;
1197.3000;0.1245;-0.5186;
1197.6000;0.1245;-0.5311;
1197.9000;0.1229;-0.5411;
1198.2000;0.1237;-0.5436;
1198.5000;0.1237;-0.5485;
1198.8000;0.1245;-0.5386;
1199.1000;0.1221;-0.5510;
1199.4000;0.1237;-0.5485;
1199.7000;0.1262;-0.5436;
1200.0000;0.1229;-0.5510;
1200.3000;0.1245;-0.5510;
1200.6000;0.1245;-0.5386;
1200.9000;0.1311;-0.5086;
1201.2000;0.1205;-0.5311;
1201.5000;0.1237;-0.5261;
1201.8000;0.1229;-0.5186;
1202.1000;0.1237;-0.5236;
1202.4000;0.1254;-0.5261;
1202.7000;0.1229;-0.5386;
1203.0000;0.1245;-0.5236;
1203.3000;0.1237;-0.5311;
1203.6000;0.1254;-0.5311;
1203.9000;0.1245;-0.5336;
1204.2000;0.1229;-0.5286;
1204.5000;0.1270;-0.5211;
1204.8000;0.1278;-0.5236;
1205.1000;0.1237;-0.5336;
1205.4000;0.1237;-0.5386;
1205.7000;0.1229;-0.5361;
1206.0000;0.1148;-0.5535;
1206.3000;0.1237;-0.5361;
1206.6000;0.1245;-0.5361;
1206.9000;0.1180;-0.5585;
1207.2000;0.1262;-0.5311;
1207.5000;0.1245;-0.5361;
1207.8000;0.1221;-0.5336;
1208.1000;0.1237;-0.5361;
1208.4000;0.1245;-0.5386;
1208.7000;0.1229;-0.5411;
1209.0000;0.1237;-0.5411;
1209.3000;0.1229;-0.5436;
1209.6000;0.1229;-0.5386;
1209.9000;0.1237;-0.5286;
1210.2000;0.1245;-0.5311;
1210.5000;0.1245;-0.5286;
1210.8000;0.1245;-0.5386;
1211.1000;0.1286;-0.5311;
1211.4000;0.1245;-0.5510;
1211.7000;0.1237;-0.5560;
1212.0000;0.1237;-0.5585;
1212.3000;0.1254;-0.5535;
1212.6000;0.1245;-0.5560;
1212.9000;0.1262;-0.5560;
1213.2000;0.1254;-0.5485;
1213.5000;0.1164;-0.5685;
1213.8000;0.1254;-0.5436;
1214.1000;0.1254;-0.5510;
1214.4000;0.1229;-0.5610;
1214.7000;0.1221;-0.5560;
1215.0000;0.1262;-0.5485;
1215.3000;0.1245;-0.5485;
1215.6000;0.1245;-0.5436;
1215.9000;0.1237;-0.5411;
1216.2000;0.1245;-0.5411;
1216.5000;0.1245;-0.5336;
1216.8000;0.1237;-0.5436;
1217.1000;0.1229;-0.5411;
1217.4000;0.1237;-0.5386;
1217.7000;0.1254;-0.5286;
1218.0000;0.1221;-0.5361;
1218.3000;0.1245;-0.5286;
1218.6000;0.1229;-0.5336;
1218.9000;0.1237;-0.5261;
1219.2000;0.1221;-0.5236;
1219.5000;0.1205;-0.5311;
1219.8000;0.1237;-0.5236;
1220.1000;0.1294;-0.5037;
1220.4000;0.1237;-0.5261;
1220.7000;0.1237;-0.5286;
1221.0000;0.1221;-0.5386;
1221.3000;0.1245;-0.5236;
1221.6000;0.1237;-0.5311;
1221.9000;0.1148;-0.5535;
1222.2000;0.1148;-0.5485;
1222.5000;0.1245;-0.5211;
1222.8000;0.1270;-0.5086;
1223.1000;0.1319;-0.5012;
1223.4000;0.1221;-0.5311;
1223.7000;0.1327;-0.5086;
1224.0000;0.1254;-0.5386;
1224.3000;0.1270;-0.5336;
1224.6000;0.1205;-0.5510;
1224.9000;0.1237;-0.5386;
1225.2000;0.1229;-0.5361;
1225.5000;0.1188;-0.5436;
1225.8000;0.1294;-0.5186;
1226.1000;0.1237;-0.5211;
1226.4000;0.1237;-0.5211;
1226.7000;0.1229;-0.5286;
1227.0000;0.1262;-0.5236;
1227.3000;0.1229;-0.5211;
1227.6000;0.1254;-0.5161;
1227.9000;0.1245;-0.5086;
1228.2000;0.1237;-0.5062;
1228.5000;0.1302;-0.4862;
1228.8000;0.1278;-0.4987;
1229.1000;0.1262;-0.5062;
1229.4000;0.1254;-0.5037;
1229.7000;0.1262;-0.5111;
1230.0000;0.1156;-0.5460;
1230.3000;0.1180;-0.5510;
1230.6000;0.1229;-0.5286;
1230.9000;0.1237;-0.5311;
1231.2000;0.1254;-0.5161;
1231.5000;0.1254;-0.5111;
1231.8000;0.1245;-0.5136;
1232.1000;0.1245;-0.5161;
1232.4000;0.1262;-0.5236;
1232.7000;0.1245;-0.5211;
1233.0000;0.1245;-0.5186;
1233.3000;0.1229;-0.5211;
1233.6000;0.1221;-0.5336;
1233.9000;0.1229;-0.5336;
1234.2000;0.1213;-0.5436;
1234.5000;0.1262;-0.5386;
1234.8000;0.1213;-0.5560;
1235.1000;0.1237;-0.5610;
1235.4000;0.1254;-0.5760;
1235.7000;0.1254;-0.5760;
1236.0000;0.1245;-0.5710;
1236.3000;0.1237;-0.5685;
1236.6000;0.1262;-0.5510;
1236.9000;0.1262;-0.5485;
1237.2000;0.1237;-0.5485;
1237.5000;0.1245;-0.5411;
1237.8000;0.1262;-0.5386;
1238.1000;0.1286;-0.5311;
1238.4000;0.1270;-0.5261;
1238.7000;0.1286;-0.5136;
1239.0000;0.1254;-0.5236;
1239.3000;0.1262;-0.5261;
1239.6000;0.1213;-0.5460;
1239.9000;0.1254;-0.5386;
1240.2000;0.1245;-0.5436;
1240.5000;0.1254;-0.5460;
1240.8000;0.1229;-0.5436;
1241.1000;0.1237;-0.5336;
1241.4000;0.1262;-0.5261;
1241.7000;0.1278;-0.5236;
1242.0000;0.1237;-0.5336;
1242.3000;0.1254;-0.5336;
1242.6000;0.1237;-0.5361;
1242.9000;0.1302;-0.5261;
1243.2000;0.1278;-0.5361;
1243.5000;0.1180;-0.5710;
1243.8000;0.1237;-0.5535;
1244.1000;0.1278;-0.5485;
1244.4000;0.1237;-0.5560;
1244.7000;0.1188;-0.5635;
1245.0000;0.1229;-0.5510;
1245.3000;0.1245;-0.5386;
1245.6000;0.1245;-0.5460;
1245.9000;0.1221;-0.5585;
1246.2000;0.1229;-0.5560;
1246.5000;0.1237;-0.5485;
1246.8000;0.1262;-0.5386;
1247.1000;0.1278;-0.5336;
1247.4000;0.1245;-0.5386;
1247.7000;0.1245;-0.5386;
1248.0000;0.1237;-0.5361;
1248.3000;0.1229;-0.5460;
1248.6000;0.1278;-0.5361;
1248.9000;0.1262;-0.5336;
1249.2000;0.1254;-0.5361;
1249.5000;0.1262;-0.5286;
1249.8000;0.1245;-0.5386;
1250.1000;0.1237;-0.5361;
1250.4000;0.1270;-0.5261;
1250.7000;0.1245;-0.5286;
1251.0000;0.1262;-0.5286;
1251.3000;0.1245;-0.5261;
1251.6000;0.1254;-0.5311;
1251.9000;0.1245;-0.5286;
1252.2000;0.1254;-0.5286;
1252.5000;0.1270;-0.5286;
1252.8000;0.1254;-0.5411;
1253.1000;0.1286;-0.5386;
1253.4000;0.1278;-0.5361;
1253.7000;0.1237;-0.5436;
1254.0000;0.1262;-0.5286;
1254.3000;0.1254;-0.5311;
1254.6000;0.1237;-0.5485;
1254.9000;0.1278;-0.5386;
1255.2000;0.1229;-0.5386;
1255.5000;0.1229;-0.5411;
1255.8000;0.1237;-0.5485;
1256.1000;0.1237;-0.5485;
1256.4000;0.1213;-0.5510;
1256.7000;0.1254;-0.5510;
1257.0000;0.1213;-0.5660;
1257.3000;0.1237;-0.5560;
1257.6000;0.1237;-0.5560;
1257.9000;0.1237;-0.5535;
1258.2000;0.1205;-0.5635;
1258.5000;0.1254;-0.5610;
1258.8000;0.1351;-0.5311;
1259.1000;0.1180;-0.5810;
1259.4000;0.1254;-0.5485;
1259.7000;0.1278;-0.5411;
1260.0000;0.1294;-0.5286;
1260.3000;0.1262;-0.5510;
1260.6000;0.1237;-0.5485;
1260.9000;0.1237;-0.5560;
1261.2000;0.1221;-0.5610;
1261.5000;0.1245;-0.5510;
1261.8000;0.1278;-0.5361;
1262.1000;0.1245;-0.5485;
1262.4000;0.1262;-0.5460;
1262.7000;0.1245;-0.5535;
1263.0000;0.1270;-0.5535;
1263.3000;0.1262;-0.5610;
1263.6000;0.1254;-0.5610;
1263.9000;0.1270;-0.5660;
1264.2000;0.1237;-0.5760;
1264.5000;0.1245;-0.5660;
1264.8000;0.1245;-0.5660;
1265.1000;0.1245;-0.5535;
1265.4000;0.1237;-0.5510;
1265.7000;0.1245;-0.5460;
1266.0000;0.1245;-0.5436;
1266.3000;0.1237;-0.5460;
1266.6000;0.1213;-0.5535;
1266.9000;0.1262;-0.5411;
1267.2000;0.1245;-0.5411;
1267.5000;0.1294;-0.5311;
1267.8000;0.1245;-0.5535;
1268.1000;0.1278;-0.5510;
1268.4000;0.1254;-0.5510;
1268.7000;0.1262;-0.5485;
1269.0000;0.1245;-0.5560;
1269.3000;0.1237;-0.5685;
1269.6000;0.1245;-0.5610;
1269.9000;0.1262;-0.5560;
1270.2000;0.1245;-0.5585;
1270.5000;0.1237;-0.5610;
1270.8000;0.1278;-0.5560;
1271.1000;0.1237;-0.5560;
1271.4000;0.1229;-0.5485;
1271.7000;0.1237;-0.5485;
1272.0000;0.1237;-0.5510;
1272.3000;0.1262;-0.5361;
1272.6000;0.1205;-0.5485;
1272.9000;0.1262;-0.5436;
1273.2000;0.1262;-0.5535;
1273.5000;0.1254;-0.5560;
1273.8000;0.1311;-0.5361;
1274.1000;0.1229;-0.5610;
1274.4000;0.1254;-0.5510;
1274.7000;0.1319;-0.5386;
1275.0000;0.1270;-0.5610;
1275.3000;0.1262;-0.5560;
1275.6000;0.1254;-0.5560;
1275.9000;0.1229;-0.5635;
1276.2000;0.1237;-0.5560;
1276.5000;0.1286;-0.5436;
1276.8000;0.1245;-0.5386;
1277.1000;0.1237;-0.5460;
1277.4000;0.1262;-0.5485;
1277.7000;0.1221;-0.5610;
1278.0000;0.1229;-0.5660;
1278.3000;0.1254;-0.5560;
1278.6000;0.1221;-0.5535;
1278.9000;0.1229;-0.5485;
1279.2000;0.1221;-0.5460;
1279.5000;0.1237;-0.5510;
1279.8000;0.1237;-0.5510;
1280.1000;0.1221;-0.5535;
1280.4000;0.1221;-0.5485;
1280.7000;0.1245;-0.5510;
1281.0000;0.1237;-0.5436;
1281.3000;0.1254;-0.5311;
1281.6000;0.1254;-0.5336;
1281.9000;0.1245;-0.5261;
1282.2000;0.1286;-0.5211;
1282.5000;0.1221;-0.5436;
1282.8000;0.1262;-0.5286;
1283.1000;0.1229;-0.5386;
1283.4000;0.1245;-0.5361;
1283.7000;0.1237;-0.5311;
1284.0000;0.1221;-0.5361;
1284.3000;0.1245;-0.5161;
1284.6000;0.1213;-0.5236;
1284.9000;0.1197;-0.5311;
1285.2000;0.1229;-0.5211;
1285.5000;0.1278;-0.5086;
1285.8000;0.1245;-0.5236;
1286.1000;0.1221;-0.5336;
1286.4000;0.1245;-0.5261;
1286.7000;0.1270;-0.5161;
1287.0000;0.1254;-0.5136;
1287.3000;0.1237;-0.5211;
1287.6000;0.1254;-0.5236;
1287.9000;0.1270;-0.5161;
1288.2000;0.1245;-0.5261;
1288.5000;0.1262;-0.5311;
1288.8000;0.1262;-0.5311;
1289.1000;0.1294;-0.5261;
1289.4000;0.1262;-0.5336;
1289.7000;0.1270;-0.5261;
1290.0000;0.1254;-0.5311;
1290.3000;0.1229;-0.5386;
1290.6000;0.1245;-0.5436;
1290.9000;0.1262;-0.5460;
1291.2000;0.1254;-0.5485;
1291.5000;0.1254;-0.5510;
1291.8000;0.1237;-0.5510;
1292.1000;0.1245;-0.5560;
1292.4000;0.1237;-0.5535;
1292.7000;0.1172;-0.5760;
1293.0000;0.1254;-0.5485;
1293.3000;0.1245;-0.5460;
1293.6000;0.1237;-0.5460;
1293.9000;0.1278;-0.5386;
1294.2000;0.1237;-0.5436;
1294.5000;0.1237;-0.5386;
1294.8000;0.1237;-0.5361;
1295.1000;0.1237;-0.5386;
1295.4000;0.1221;-0.5361;
1295.7000;0.1245;-0.5411;
1296.0000;0.1245;-0.5411;
1296.3000;0.1262;-0.5336;
1296.6000;0.1237;-0.5386;
1296.9000;0.1262;-0.5336;
1297.2000;0.1245;-0.5386;
1297.5000;0.1245;-0.5361;
1297.8000;0.1302;-0.5186;
1298.1000;0.1254;-0.5361;
1298.4000;0.1237;-0.5361;
1298.7000;0.1254;-0.5386;
1299.0000;0.1237;-0.5411;
1299.3000;0.1221;-0.5485;
1299.6000;0.1254;-0.5311;
1299.9000;0.1180;-0.5510;
1300.2000;0.1237;-0.5361;
1300.5000;0.1262;-0.5386;
1300.8000;0.1237;-0.5585;
1301.1000;0.1237;-0.5585;
1301.4000;0.1254;-0.5510;
1301.7000;0.1205;-0.5660;
1302.0000;0.1229;-0.5535;
1302.3000;0.1254;-0.5485;
1302.6000;0.1262;-0.5411;
1302.9000;0.1237;-0.5361;
1303.2000;0.1245;-0.5336;
1303.5000;0.1262;-0.5336;
1303.8000;0.1245;-0.5361;
1304.1000;0.1237;-0.5411;
1304.4000;0.1221;-0.5485;
1304.7000;0.1221;-0.5386;
1305.0000;0.1197;-0.5535;
1305.3000;0.1286;-0.5386;
1305.6000;0.1221;-0.5610;
1305.9000;0.1237;-0.5660;
1306.2000;0.1254;-0.5535;
1306.5000;0.1262;-0.5560;
1306.8000;0.1229;-0.5585;
1307.1000;0.1237;-0.5510;
1307.4000;0.1245;-0.5510;
1307.7000;0.1237;-0.5510;
1308.0000;0.1237;-0.5485;
1308.3000;0.1237;-0.5510;
1308.6000;0.1245;-0.5485;
1308.9000;0.1229;-0.5535;
1309.2000;0.1327;-0.5336;
1309.5000;0.1245;-0.5560;
1309.8000;0.1237;-0.5585;
1310.1000;0.1237;-0.5635;
1310.4000;0.1245;-0.5610;
1310.7000;0.1237;-0.5610;
1311.0000;0.1237;-0.5710;
1311.3000;0.1229;-0.5834;
1311.6000;0.1254;-0.5735;
1311.9000;0.1254;-0.5785;
1312.2000;0.1221;-0.5834;
1312.5000;0.1254;-0.5760;
1312.8000;0.1229;-0.5760;
1313.1000;0.1245;-0.5785;
1313.4000;0.1229;-0.5884;
1313.7000;0.1245;-0.5710;
1314.0000;0.1221;-0.5760;
1314.3000;0.1237;-0.5685;
1314.6000;0.1237;-0.5735;
1314.9000;0.1237;-0.5834;
1315.2000;0.1254;-0.5685;
1315.5000;0.1221;-0.5760;
1315.8000;0.1262;-0.5635;
1316.1000;0.1245;-0.5735;
1316.4000;0.1245;-0.5785;
1316.7000;0.1335;-0.5610;
1317.0000;0.1254;-0.5735;
1317.3000;0.1270;-0.5735;
1317.6000;0.1245;-0.5710;
1317.9000;0.1245;-0.5785;
1318.2000;0.1245;-0.5810;
1318.5000;0.1254;-0.5760;
1318.8000;0.1245;-0.5660;
1319.1000;0.1245;-0.5660;
1319.4000;0.1237;-0.5585;
1319.7000;0.1245;-0.5610;
1320.0000;0.1237;-0.5685;
1320.3000;0.1245;-0.5810;
1320.6000;0.1245;-0.5834;
1320.9000;0.1245;-0.5909;
1321.2000;0.1254;-0.5984;
1321.5000;0.1270;-0.5884;
1321.8000;0.1270;-0.5859;
1322.1000;0.1245;-0.5834;
1322.4000;0.1237;-0.5859;
1322.7000;0.1237;-0.5959;
1323.0000;0.1262;-0.5909;
1323.3000;0.1245;-0.5834;
1323.6000;0.1254;-0.5785;
1323.9000;0.1229;-0.5710;
1324.2000;0.1254;-0.5585;
1324.5000;0.1245;-0.5610;
1324.8000;0.1270;-0.5660;
1325.1000;0.1229;-0.5585;
1325.4000;0.1254;-0.5635;
1325.7000;0.1188;-0.5834;
1326.0000;0.1237;-0.5735;
1326.3000;0.1229;-0.5710;
1326.6000;0.1254;-0.5735;
1326.9000;0.1245;-0.5685;
1327.2000;0.1245;-0.5635;
1327.5000;0.1351;-0.5386;
1327.8000;0.1237;-0.5535;
1328.1000;0.1205;-0.5710;
1328.4000;0.1254;-0.5635;
1328.7000;0.1229;-0.5610;
1329.0000;0.1262;-0.5510;
1329.3000;0.1286;-0.5460;
1329.6000;0.1229;-0.5585;
1329.9000;0.1221;-0.5610;
1330.2000;0.1237;-0.5610;
1330.5000;0.1245;-0.5585;
1330.8000;0.1245;-0.5610;
1331.1000;0.1245;-0.5685;
1331.4000;0.1221;-0.5810;
1331.7000;0.1254;-0.5660;
1332.0000;0.1254;-0.5610;
1332.3000;0.1245;-0.5635;
1332.6000;0.1188;-0.5785;
1332.9000;0.1245;-0.5610;
1333.2000;0.1254;-0.5660;
1333.5000;0.1254;-0.5760;
1333.8000;0.1221;-0.5834;
1334.1000;0.1237;-0.5735;
1334.4000;0.1245;-0.5810;
1334.7000;0.1254;-0.5735;
1335.0000;0.1237;-0.5810;
1335.3000;0.1245;-0.5710;
1335.6000;0.1270;-0.5685;
1335.9000;0.1164;-0.5909;
1336.2000;0.1254;-0.5735;
1336.5000;0.1262;-0.5660;
1336.8000;0.1245;-0.5710;
1337.1000;0.1245;-0.5710;
1337.4000;0.1254;-0.5685;
1337.7000;0.1262;-0.5635;
1338.0000;0.1262;-0.5660;
1338.3000;0.1254;-0.5660;
1338.6000;0.1229;-0.5760;
1338.9000;0.1245;-0.5635;
1339.2000;0.1262;-0.5510;
1339.5000;0.1254;-0.5411;
1339.8000;0.1302;-0.5311;
1340.1000;0.1237;-0.5635;
1340.4000;0.1229;-0.5610;
1340.7000;0.1245;-0.5610;
1341.0000;0.1245;-0.5710;
1341.3000;0.1245;-0.5685;
1341.6000;0.1237;-0.5735;
1341.9000;0.1254;-0.5685;
1342.2000;0.1254;-0.5710;
1342.5000;0.1229;-0.5635;
1342.8000;0.1245;-0.5560;
1343.1000;0.1245;-0.5436;
1343.4000;0.1262;-0.5411;
1343.7000;0.1270;-0.5411;
1344.0000;0.1262;-0.5510;
1344.3000;0.1237;-0.5660;
1344.6000;0.1245;-0.5685;
1344.9000;0.1237;-0.5760;
1345.2000;0.1262;-0.5710;
1345.5000;0.1237;-0.5810;
1345.8000;0.1221;-0.5810;
1346.1000;0.1237;-0.5735;
1346.4000;0.1262;-0.5735;
1346.7000;0.1229;-0.5685;
1347.0000;0.1245;-0.5660;
1347.3000;0.1229;-0.5785;
1347.6000;0.1254;-0.5685;
1347.9000;0.1237;-0.5635;
1348.2000;0.1254;-0.5685;
1348.5000;0.1245;-0.5760;
1348.8000;0.1254;-0.5735;
1349.1000;0.1229;-0.5735;
1349.4000;0.1254;-0.5610;
1349.7000;0.1254;-0.5560;
1350.0000;0.1237;-0.5635;
1350.3000;0.1278;-0.5610;
1350.6000;0.1270;-0.5610;
1350.9000;0.1213;-0.5660;
1351.2000;0.1213;-0.5660;
1351.5000;0.1237;-0.5660;
1351.8000;0.1213;-0.5710;
1352.1000;0.1286;-0.5660;
1352.4000;0.1270;-0.5735;
1352.7000;0.1237;-0.5834;
1353.0000;0.1262;-0.5785;
1353.3000;0.1262;-0.5735;
1353.6000;0.1245;-0.5685;
1353.9000;0.1156;-0.5859;
1354.2000;0.1245;-0.5585;
1354.5000;0.1254;-0.5510;
1354.8000;0.1262;-0.5336;
1355.1000;0.1188;-0.5635;
1355.4000;0.1245;-0.5510;
1355.7000;0.1254;-0.5485;
1356.0000;0.1254;-0.5510;
1356.3000;0.1245;-0.5535;
1356.6000;0.1254;-0.5560;
1356.9000;0.1245;-0.5660;
1357.2000;0.1254;-0.5685;
1357.5000;0.1245;-0.5785;
1357.8000;0.1254;-0.5785;
1358.1000;0.1254;-0.5685;
1358.4000;0.1245;-0.5760;
1358.7000;0.1245;-0.5710;
1359.0000;0.1229;-0.5660;
1359.3000;0.1237;-0.5610;
1359.6000;0.1221;-0.5660;
1359.9000;0.1205;-0.5760;
1360.2000;0.1245;-0.5560;
1360.5000;0.1245;-0.5535;
1360.8000;0.1205;-0.5560;
1361.1000;0.1229;-0.5485;
1361.4000;0.1237;-0.5460;
1361.7000;0.1254;-0.5436;
1362.0000;0.1237;-0.5485;
1362.3000;0.1245;-0.5510;
1362.6000;0.1254;-0.5436;
1362.9000;0.1213;-0.5635;
1363.2000;0.1262;-0.5460;
1363.5000;0.1245;-0.5510;
1363.8000;0.1245;-0.5411;
1364.1000;0.1270;-0.5386;
1364.4000;0.1262;-0.5361;
1364.7000;0.1229;-0.5460;
1365.0000;0.1229;-0.5460;
1365.3000;0.1229;-0.5436;
1365.6000;0.1237;-0.5436;
1365.9000;0.1237;-0.5436;
1366.2000;0.1245;-0.5386;
1366.5000;0.1245;-0.5311;
1366.8000;0.1335;-0.5111;
1367.1000;0.1245;-0.5311;
1367.4000;0.1245;-0.5286;
1367.7000;0.1221;-0.5336;
1368.0000;0.1245;-0.5336;
1368.3000;0.1245;-0.5286;
1368.6000;0.1262;-0.5236;
1368.9000;0.1270;-0.5261;
1369.2000;0.1311;-0.5311;
1369.5000;0.1262;-0.5361;
1369.8000;0.1164;-0.5660;
1370.1000;0.1270;-0.5361;
1370.4000;0.1294;-0.5311;
1370.7000;0.1221;-0.5560;
1371.0000;0.1270;-0.5460;
1371.3000;0.1254;-0.5460;
1371.6000;0.1237;-0.5510;
1371.9000;0.1245;-0.5460;
1372.2000;0.1245;-0.5436;
1372.5000;0.1237;-0.5510;
1372.8000;0.1140;-0.5685;
1373.1000;0.1245;-0.5436;
1373.4000;0.1229;-0.5635;
1373.7000;0.1229;-0.5585;
1374.0000;0.1205;-0.5635;
1374.3000;0.1221;-0.5660;
1374.6000;0.1221;-0.5560;
1374.9000;0.1229;-0.5535;
1375.2000;0.1278;-0.5485;
1375.5000;0.1180;-0.5785;
1375.8000;0.1237;-0.5560;
1376.1000;0.1343;-0.5286;
1376.4000;0.1237;-0.5460;
1376.7000;0.1229;-0.5411;
1377.0000;0.1245;-0.5411;
1377.3000;0.1148;-0.5635;
1377.6000;0.1294;-0.5286;
1377.9000;0.1262;-0.5386;
1378.2000;0.1237;-0.5585;
1378.5000;0.1237;-0.5535;
1378.8000;0.1237;-0.5510;
1379.1000;0.1270;-0.5485;
1379.4000;0.1229;-0.5610;
1379.7000;0.1245;-0.5510;
1380.0000;0.1245;-0.5535;
1380.3000;0.1245;-0.5460;
1380.6000;0.1237;-0.5485;
1380.9000;0.1229;-0.5585;
1381.2000;0.1205;-0.5735;
1381.5000;0.1245;-0.5585;
1381.8000;0.1245;-0.5510;
1382.1000;0.1237;-0.5610;
1382.4000;0.1254;-0.5635;
1382.7000;0.1262;-0.5610;
1383.0000;0.1254;-0.5560;
1383.3000;0.1245;-0.5510;
1383.6000;0.1254;-0.5535;
1383.9000;0.1270;-0.5485;
1384.2000;0.1254;-0.5535;
1384.5000;0.1237;-0.5610;
1384.8000;0.1262;-0.5560;
1385.1000;0.1262;-0.5485;
1385.4000;0.1262;-0.5436;
1385.7000;0.1245;-0.5485;
1386.0000;0.1245;-0.5560;
1386.3000;0.1237;-0.5485;
1386.6000;0.1229;-0.5560;
1386.9000;0.1245;-0.5635;
1387.2000;0.1294;-0.5510;
1387.5000;0.1254;-0.5585;
1387.8000;0.1262;-0.5560;
1388.1000;0.1245;-0.5585;
1388.4000;0.1254;-0.5635;
1388.7000;0.1262;-0.5710;
1389.0000;0.1254;-0.5635;
1389.3000;0.1254;-0.5635;
1389.6000;0.1229;-0.5685;
1389.9000;0.1245;-0.5635;
1390.2000;0.1237;-0.5685;
1390.5000;0.1237;-0.5610;
1390.8000;0.1237;-0.5635;
1391.1000;0.1229;-0.5635;
1391.4000;0.1254;-0.5710;
1391.7000;0.1254;-0.5635;
1392.0000;0.1245;-0.5585;
1392.3000;0.1229;-0.5610;
1392.6000;0.1245;-0.5660;
1392.9000;0.1245;-0.5710;
1393.2000;0.1294;-0.5610;
1393.5000;0.1229;-0.5760;
1393.8000;0.1229;-0.5760;
1394.1000;0.1286;-0.5685;
1394.4000;0.1278;-0.5710;
1394.7000;0.1254;-0.5760;
1395.0000;0.1245;-0.5660;
1395.3000;0.1245;-0.5610;
1395.6000;0.1270;-0.5510;
1395.9000;0.1245;-0.5510;
1396.2000;0.1262;-0.5411;
1396.5000;0.1245;-0.5411;
1396.8000;0.1270;-0.5236;
1397.1000;0.1278;-0.5386;
1397.4000;0.1237;-0.5485;
1397.7000;0.1188;-0.5560;
1398.0000;0.1237;-0.5436;
1398.3000;0.1262;-0.5460;
1398.6000;0.1245;-0.5510;
1398.9000;0.1245;-0.5510;
1399.2000;0.1172;-0.5610;
1399.5000;0.1237;-0.5485;
1399.8000;0.1229;-0.5535;
