time/ms;Fluo/V;P700 deltaI/I x10³;
-199.8000;0.1351;-0.4688;
-199.5000;0.1351;-0.4762;
-199.2000;0.1335;-0.4787;
-198.9000;0.1351;-0.4787;
-198.6000;0.1286;-0.4987;
-198.3000;0.1351;-0.4837;
-198.0000;0.1343;-0.4837;
-197.7000;0.1343;-0.4962;
-197.4000;0.1343;-0.4912;
-197.1000;0.1351;-0.4862;
-196.8000;0.1359;-0.4762;
-196.5000;0.1343;-0.4762;
-196.2000;0.1400;-0.4638;
-195.9000;0.1359;-0.4787;
-195.6000;0.1359;-0.4762;
-195.3000;0.1351;-0.4737;
-195.0000;0.1343;-0.4712;
-194.7000;0.1368;-0.4638;
-194.4000;0.1359;-0.4688;
-194.1000;0.1335;-0.4737;
-193.8000;0.1343;-0.4862;
-193.5000;0.1335;-0.4862;
-193.2000;0.1335;-0.4887;
-192.9000;0.1343;-0.4887;
-192.6000;0.1335;-0.4812;
-192.3000;0.1335;-0.4837;
-192.0000;0.1351;-0.4787;
-191.7000;0.1359;-0.4837;
-191.4000;0.1335;-0.4737;
-191.1000;0.1343;-0.4737;
-190.8000;0.1343;-0.4712;
-190.5000;0.1335;-0.4787;
-190.2000;0.1351;-0.4837;
-189.9000;0.1359;-0.4912;
-189.6000;0.1359;-0.4912;
-189.3000;0.1351;-0.4962;
-189.0000;0.1368;-0.4837;
-188.7000;0.1319;-0.5012;
-188.4000;0.1294;-0.5111;
-188.1000;0.1351;-0.5012;
-187.8000;0.1343;-0.4937;
-187.5000;0.1343;-0.4962;
-187.2000;0.1335;-0.4887;
-186.9000;0.1343;-0.4837;
-186.6000;0.1335;-0.4712;
-186.3000;0.1351;-0.4737;
-186.0000;0.1359;-0.4712;
-185.7000;0.1351;-0.4613;
-185.4000;0.1359;-0.4588;
-185.1000;0.1335;-0.4712;
-184.8000;0.1368;-0.4787;
-184.5000;0.1294;-0.5012;
-184.2000;0.1343;-0.4912;
-183.9000;0.1359;-0.4887;
-183.6000;0.1490;-0.4588;
-183.3000;0.1359;-0.4887;
-183.0000;0.1359;-0.4912;
-182.7000;0.1327;-0.5062;
-182.4000;0.1335;-0.4987;
-182.1000;0.1343;-0.4987;
-181.8000;0.1335;-0.4937;
-181.5000;0.1359;-0.4837;
-181.2000;0.1327;-0.4937;
-180.9000;0.1351;-0.4937;
-180.6000;0.1343;-0.4987;
-180.3000;0.1343;-0.5012;
-180.0000;0.1351;-0.5062;
-179.7000;0.1335;-0.4987;
-179.4000;0.1351;-0.4912;
-179.1000;0.1351;-0.4862;
-178.8000;0.1359;-0.4962;
-178.5000;0.1359;-0.4937;
-178.2000;0.1351;-0.4912;
-177.9000;0.1319;-0.4962;
-177.6000;0.1319;-0.4937;
-177.3000;0.1278;-0.5062;
-177.0000;0.1335;-0.4912;
-176.7000;0.1368;-0.4937;
-176.4000;0.1286;-0.5111;
-176.1000;0.1351;-0.4887;
-175.8000;0.1351;-0.4862;
-175.5000;0.1368;-0.4862;
-175.2000;0.1343;-0.4887;
-174.9000;0.1335;-0.4837;
-174.6000;0.1416;-0.4638;
-174.3000;0.1343;-0.4887;
-174.0000;0.1351;-0.4937;
-173.7000;0.1335;-0.4962;
-173.4000;0.1278;-0.5261;
-173.1000;0.1335;-0.5037;
-172.8000;0.1335;-0.4962;
-172.5000;0.1351;-0.4862;
-172.2000;0.1335;-0.4912;
-171.9000;0.1335;-0.4887;
-171.6000;0.1351;-0.4787;
-171.3000;0.1343;-0.4737;
-171.0000;0.1343;-0.4737;
-170.7000;0.1335;-0.4737;
-170.4000;0.1408;-0.4663;
-170.1000;0.1335;-0.4812;
-169.8000;0.1343;-0.4887;
-169.5000;0.1400;-0.4688;
-169.2000;0.1254;-0.4987;
-168.9000;0.1376;-0.4737;
-168.6000;0.1351;-0.4837;
-168.3000;0.1294;-0.4987;
-168.0000;0.1343;-0.4737;
-167.7000;0.1319;-0.4762;
-167.4000;0.1351;-0.4663;
-167.1000;0.1327;-0.4638;
-166.8000;0.1351;-0.4663;
-166.5000;0.1368;-0.4762;
-166.2000;0.1335;-0.4812;
-165.9000;0.1351;-0.4712;
-165.6000;0.1359;-0.4688;
-165.3000;0.1359;-0.4663;
-165.0000;0.1359;-0.4737;
-164.7000;0.1359;-0.4737;
-164.4000;0.1343;-0.4688;
-164.1000;0.1376;-0.4613;
-163.8000;0.1368;-0.4688;
-163.5000;0.1359;-0.4787;
-163.2000;0.1351;-0.4862;
-162.9000;0.1359;-0.4812;
-162.6000;0.1351;-0.4787;
-162.3000;0.1449;-0.4613;
-162.0000;0.1343;-0.4912;
-161.7000;0.1335;-0.4887;
-161.4000;0.1335;-0.4862;
-161.1000;0.1351;-0.4812;
-160.8000;0.1343;-0.4862;
-160.5000;0.1319;-0.4962;
-160.2000;0.1335;-0.4887;
-159.9000;0.1343;-0.4987;
-159.6000;0.1408;-0.4937;
-159.3000;0.1368;-0.5086;
-159.0000;0.1351;-0.5037;
-158.7000;0.1278;-0.5261;
-158.4000;0.1481;-0.4787;
-158.1000;0.1368;-0.5136;
-157.8000;0.1359;-0.5062;
-157.5000;0.1400;-0.4862;
-157.2000;0.1368;-0.4987;
-156.9000;0.1343;-0.4987;
-156.6000;0.1311;-0.5111;
-156.3000;0.1351;-0.5086;
-156.0000;0.1343;-0.5086;
-155.7000;0.1327;-0.5136;
-155.4000;0.1327;-0.5136;
-155.1000;0.1351;-0.5012;
-154.8000;0.1359;-0.4987;
-154.5000;0.1359;-0.5037;
-154.2000;0.1368;-0.5037;
-153.9000;0.1351;-0.5037;
-153.6000;0.1319;-0.5111;
-153.3000;0.1335;-0.5062;
-153.0000;0.1327;-0.5012;
-152.7000;0.1351;-0.5062;
-152.4000;0.1351;-0.5086;
-152.1000;0.1335;-0.5161;
-151.8000;0.1286;-0.5311;
-151.5000;0.1311;-0.5211;
-151.2000;0.1302;-0.5261;
-150.9000;0.1302;-0.5286;
-150.6000;0.1335;-0.5236;
-150.3000;0.1302;-0.5436;
-150.0000;0.1359;-0.5336;
-149.7000;0.1400;-0.5161;
-149.4000;0.1351;-0.5286;
-149.1000;0.1327;-0.5386;
-148.8000;0.1359;-0.5186;
-148.5000;0.1335;-0.5211;
-148.2000;0.1343;-0.5186;
-147.9000;0.1327;-0.5236;
-147.6000;0.1368;-0.5111;
-147.3000;0.1343;-0.5161;
-147.0000;0.1335;-0.5136;
-146.7000;0.1335;-0.5186;
-146.4000;0.1368;-0.5136;
-146.1000;0.1359;-0.5186;
-145.8000;0.1327;-0.5236;
-145.5000;0.1302;-0.5311;
-145.2000;0.1359;-0.5186;
-144.9000;0.1351;-0.5261;
-144.6000;0.1327;-0.5211;
-144.3000;0.1400;-0.5062;
-144.0000;0.1343;-0.5086;
-143.7000;0.1335;-0.5161;
-143.4000;0.1359;-0.5136;
-143.1000;0.1335;-0.5111;
-142.8000;0.1335;-0.5111;
-142.5000;0.1335;-0.5086;
-142.2000;0.1359;-0.4962;
-141.9000;0.1351;-0.5086;
-141.6000;0.1359;-0.5012;
-141.3000;0.1351;-0.4937;
-141.0000;0.1351;-0.5012;
-140.7000;0.1343;-0.5012;
-140.4000;0.1335;-0.5062;
-140.1000;0.1351;-0.5012;
-139.8000;0.1343;-0.5062;
-139.5000;0.1343;-0.5111;
-139.2000;0.1359;-0.5062;
-138.9000;0.1408;-0.4987;
-138.6000;0.1368;-0.5037;
-138.3000;0.1343;-0.5136;
-138.0000;0.1335;-0.5211;
-137.7000;0.1343;-0.5111;
-137.4000;0.1368;-0.5062;
-137.1000;0.1368;-0.5012;
-136.8000;0.1359;-0.4937;
-136.5000;0.1343;-0.4887;
-136.2000;0.1368;-0.4837;
-135.9000;0.1368;-0.4837;
-135.6000;0.1359;-0.4862;
-135.3000;0.1343;-0.4937;
-135.0000;0.1351;-0.4987;
-134.7000;0.1384;-0.4912;
-134.4000;0.1343;-0.4912;
-134.1000;0.1343;-0.4987;
-133.8000;0.1359;-0.4937;
-133.5000;0.1376;-0.4862;
-133.2000;0.1351;-0.4937;
-132.9000;0.1351;-0.4962;
-132.6000;0.1343;-0.4987;
-132.3000;0.1351;-0.4912;
-132.0000;0.1351;-0.4862;
-131.7000;0.1351;-0.4862;
-131.4000;0.1351;-0.4887;
-131.1000;0.1351;-0.4937;
-130.8000;0.1359;-0.4937;
-130.5000;0.1351;-0.4937;
-130.2000;0.1302;-0.5012;
-129.9000;0.1368;-0.4887;
-129.6000;0.1368;-0.4887;
-129.3000;0.1359;-0.4912;
-129.0000;0.1351;-0.4987;
-128.7000;0.1351;-0.5062;
-128.4000;0.1351;-0.5136;
-128.1000;0.1368;-0.5086;
-127.8000;0.1376;-0.5012;
-127.5000;0.1351;-0.5012;
-127.2000;0.1343;-0.5012;
-126.9000;0.1335;-0.5012;
-126.6000;0.1302;-0.5062;
-126.3000;0.1311;-0.5086;
-126.0000;0.1343;-0.5062;
-125.7000;0.1351;-0.5012;
-125.4000;0.1416;-0.4862;
-125.1000;0.1351;-0.5012;
-124.8000;0.1343;-0.5062;
-124.5000;0.1359;-0.5037;
-124.2000;0.1270;-0.5336;
-123.9000;0.1351;-0.5211;
-123.6000;0.1327;-0.5386;
-123.3000;0.1319;-0.5386;
-123.0000;0.1343;-0.5361;
-122.7000;0.1351;-0.5361;
-122.4000;0.1351;-0.5286;
-122.1000;0.1351;-0.5286;
-121.8000;0.1327;-0.5361;
-121.5000;0.1319;-0.5336;
-121.2000;0.1368;-0.5236;
-120.9000;0.1392;-0.5136;
-120.6000;0.1376;-0.5161;
-120.3000;0.1327;-0.5261;
-120.0000;0.1359;-0.5186;
-119.7000;0.1327;-0.5261;
-119.4000;0.1368;-0.5111;
-119.1000;0.1408;-0.4912;
-118.8000;0.1400;-0.4937;
-118.5000;0.1368;-0.5037;
-118.2000;0.1245;-0.5286;
-117.9000;0.1351;-0.4987;
-117.6000;0.1213;-0.5411;
-117.3000;0.1376;-0.4937;
-117.0000;0.1343;-0.5062;
-116.7000;0.1335;-0.5136;
-116.4000;0.1351;-0.5111;
-116.1000;0.1270;-0.5361;
-115.8000;0.1319;-0.5211;
-115.5000;0.1351;-0.5161;
-115.2000;0.1327;-0.5261;
-114.9000;0.1351;-0.5086;
-114.6000;0.1335;-0.5037;
-114.3000;0.1335;-0.5012;
-114.0000;0.1311;-0.5062;
-113.7000;0.1351;-0.5086;
-113.4000;0.1311;-0.5236;
-113.1000;0.1343;-0.5261;
-112.8000;0.1311;-0.5336;
-112.5000;0.1302;-0.5261;
-112.2000;0.1368;-0.5111;
-111.9000;0.1351;-0.5062;
-111.6000;0.1343;-0.5086;
-111.3000;0.1343;-0.5037;
-111.0000;0.1343;-0.4962;
-110.7000;0.1327;-0.4962;
-110.4000;0.1351;-0.4962;
-110.1000;0.1335;-0.5037;
-109.8000;0.1359;-0.5012;
-109.5000;0.1335;-0.5037;
-109.2000;0.1368;-0.4912;
-108.9000;0.1368;-0.4962;
-108.6000;0.1327;-0.4987;
-108.3000;0.1351;-0.4887;
-108.0000;0.1343;-0.4937;
-107.7000;0.1327;-0.5012;
-107.4000;0.1343;-0.5012;
-107.1000;0.1343;-0.4962;
-106.8000;0.1351;-0.4962;
-106.5000;0.1343;-0.5012;
-106.2000;0.1335;-0.4987;
-105.9000;0.1351;-0.4987;
-105.6000;0.1343;-0.5062;
-105.3000;0.1343;-0.5111;
-105.0000;0.1392;-0.5012;
-104.7000;0.1327;-0.5136;
-104.4000;0.1368;-0.5062;
-104.1000;0.1335;-0.5211;
-103.8000;0.1335;-0.5161;
-103.5000;0.1343;-0.5161;
-103.2000;0.1433;-0.4937;
-102.9000;0.1335;-0.5186;
-102.6000;0.1343;-0.5211;
-102.3000;0.1262;-0.5411;
-102.0000;0.1335;-0.5261;
-101.7000;0.1359;-0.5186;
-101.4000;0.1327;-0.5236;
-101.1000;0.1319;-0.5286;
-100.8000;0.1351;-0.5111;
-100.5000;0.1311;-0.5086;
-100.2000;0.1351;-0.5037;
-99.9000;0.1384;-0.4962;
-99.6000;0.1351;-0.4937;
-99.3000;0.1343;-0.4937;
-99.0000;0.1351;-0.4837;
-98.7000;0.1343;-0.4937;
-98.4000;0.1351;-0.4962;
-98.1000;0.1335;-0.5012;
-97.8000;0.1343;-0.4937;
-97.5000;0.1319;-0.4987;
-97.2000;0.1343;-0.4837;
-96.9000;0.1376;-0.4787;
-96.6000;0.1343;-0.4912;
-96.3000;0.1376;-0.4912;
-96.0000;0.1335;-0.5012;
-95.7000;0.1400;-0.4912;
-95.4000;0.1368;-0.5012;
-95.1000;0.1351;-0.5012;
-94.8000;0.1254;-0.5286;
-94.5000;0.1302;-0.5236;
-94.2000;0.1343;-0.5211;
-93.9000;0.1343;-0.5211;
-93.6000;0.1351;-0.5062;
-93.3000;0.1327;-0.5111;
-93.0000;0.1335;-0.5111;
-92.7000;0.1327;-0.5186;
-92.4000;0.1319;-0.5236;
-92.1000;0.1319;-0.5211;
-91.8000;0.1335;-0.5186;
-91.5000;0.1335;-0.5136;
-91.2000;0.1335;-0.5012;
-90.9000;0.1335;-0.4987;
-90.6000;0.1335;-0.4962;
-90.3000;0.1351;-0.5037;
-90.0000;0.1343;-0.5062;
-89.7000;0.1327;-0.5136;
-89.4000;0.1368;-0.4962;
-89.1000;0.1351;-0.5062;
-88.8000;0.1335;-0.5161;
-88.5000;0.1335;-0.5136;
-88.2000;0.1335;-0.5161;
-87.9000;0.1384;-0.5037;
-87.6000;0.1343;-0.5136;
-87.3000;0.1359;-0.5062;
-87.0000;0.1335;-0.4912;
-86.7000;0.1335;-0.4862;
-86.4000;0.1351;-0.4762;
-86.1000;0.1351;-0.4812;
-85.8000;0.1319;-0.4912;
-85.5000;0.1343;-0.4912;
-85.2000;0.1351;-0.4912;
-84.9000;0.1335;-0.4937;
-84.6000;0.1335;-0.4987;
-84.3000;0.1343;-0.4912;
-84.0000;0.1359;-0.4912;
-83.7000;0.1359;-0.4937;
-83.4000;0.1335;-0.4887;
-83.1000;0.1359;-0.4837;
-82.8000;0.1359;-0.4887;
-82.5000;0.1359;-0.4937;
-82.2000;0.1327;-0.5086;
-81.9000;0.1359;-0.5086;
-81.6000;0.1335;-0.5161;
-81.3000;0.1351;-0.5161;
-81.0000;0.1359;-0.5136;
-80.7000;0.1359;-0.5136;
-80.4000;0.1351;-0.5136;
-80.1000;0.1343;-0.5136;
-79.8000;0.1376;-0.5062;
-79.5000;0.1425;-0.4937;
-79.2000;0.1319;-0.5161;
-78.9000;0.1335;-0.5012;
-78.6000;0.1416;-0.4837;
-78.3000;0.1335;-0.5086;
-78.0000;0.1343;-0.5086;
-77.7000;0.1400;-0.4862;
-77.4000;0.1351;-0.4912;
-77.1000;0.1368;-0.4887;
-76.8000;0.1359;-0.4912;
-76.5000;0.1359;-0.4862;
-76.2000;0.1343;-0.4887;
-75.9000;0.1327;-0.5012;
-75.6000;0.1335;-0.5012;
-75.3000;0.1351;-0.5012;
-75.0000;0.1368;-0.4987;
-74.7000;0.1351;-0.4962;
-74.4000;0.1335;-0.5037;
-74.1000;0.1368;-0.5012;
-73.8000;0.1327;-0.5062;
-73.5000;0.1343;-0.5012;
-73.2000;0.1368;-0.4987;
-72.9000;0.1343;-0.5086;
-72.6000;0.1359;-0.5111;
-72.3000;0.1319;-0.5186;
-72.0000;0.1335;-0.5186;
-71.7000;0.1343;-0.5111;
-71.4000;0.1343;-0.5161;
-71.1000;0.1351;-0.5136;
-70.8000;0.1335;-0.5111;
-70.5000;0.1351;-0.5111;
-70.2000;0.1359;-0.5037;
-69.9000;0.1343;-0.4987;
-69.6000;0.1351;-0.4912;
-69.3000;0.1343;-0.4812;
-69.0000;0.1327;-0.4887;
-68.7000;0.1351;-0.4887;
-68.4000;0.1335;-0.5012;
-68.1000;0.1343;-0.5111;
-67.8000;0.1343;-0.5111;
-67.5000;0.1327;-0.5111;
-67.2000;0.1319;-0.5136;
-66.9000;0.1335;-0.5062;
-66.6000;0.1351;-0.4962;
-66.3000;0.1335;-0.4887;
-66.0000;0.1359;-0.4787;
-65.7000;0.1368;-0.4787;
-65.4000;0.1351;-0.4837;
-65.1000;0.1351;-0.4762;
-64.8000;0.1343;-0.4663;
-64.5000;0.1351;-0.4613;
-64.2000;0.1343;-0.4812;
-63.9000;0.1319;-0.4912;
-63.6000;0.1359;-0.4987;
-63.3000;0.1400;-0.4912;
-63.0000;0.1351;-0.5086;
-62.7000;0.1351;-0.5086;
-62.4000;0.1368;-0.5086;
-62.1000;0.1343;-0.5037;
-61.8000;0.1327;-0.5136;
-61.5000;0.1343;-0.5136;
-61.2000;0.1359;-0.5086;
-60.9000;0.1368;-0.5086;
-60.6000;0.1351;-0.5136;
-60.3000;0.1351;-0.5161;
-60.0000;0.1335;-0.5111;
-59.7000;0.1351;-0.5012;
-59.4000;0.1351;-0.4912;
-59.1000;0.1359;-0.4912;
-58.8000;0.1359;-0.4912;
-58.5000;0.1319;-0.5062;
-58.2000;0.1327;-0.5037;
-57.9000;0.1327;-0.4912;
-57.6000;0.1319;-0.4887;
-57.3000;0.1351;-0.4762;
-57.0000;0.1351;-0.4737;
-56.7000;0.1335;-0.4837;
-56.4000;0.1376;-0.4787;
-56.1000;0.1359;-0.4837;
-55.8000;0.1351;-0.4887;
-55.5000;0.1319;-0.5012;
-55.2000;0.1351;-0.4987;
-54.9000;0.1351;-0.4987;
-54.6000;0.1359;-0.5012;
-54.3000;0.1351;-0.5086;
-54.0000;0.1351;-0.5086;
-53.7000;0.1343;-0.5086;
-53.4000;0.1351;-0.5012;
-53.1000;0.1351;-0.5086;
-52.8000;0.1311;-0.5236;
-52.5000;0.1286;-0.5236;
-52.2000;0.1302;-0.5161;
-51.9000;0.1359;-0.5086;
-51.6000;0.1351;-0.4987;
-51.3000;0.1376;-0.4987;
-51.0000;0.1327;-0.5062;
-50.7000;0.1368;-0.5012;
-50.4000;0.1351;-0.5062;
-50.1000;0.1351;-0.5037;
-49.8000;0.1343;-0.5111;
-49.5000;0.1376;-0.5161;
-49.2000;0.1343;-0.5136;
-48.9000;0.1351;-0.5086;
-48.6000;0.1343;-0.5136;
-48.3000;0.1302;-0.5161;
-48.0000;0.1335;-0.5111;
-47.7000;0.1343;-0.5062;
-47.4000;0.1351;-0.5086;
-47.1000;0.1343;-0.5086;
-46.8000;0.1335;-0.5037;
-46.5000;0.1319;-0.5111;
-46.2000;0.1286;-0.5161;
-45.9000;0.1335;-0.5111;
-45.6000;0.1335;-0.5186;
-45.3000;0.1319;-0.5186;
-45.0000;0.1351;-0.5111;
-44.7000;0.1343;-0.5037;
-44.4000;0.1286;-0.5161;
-44.1000;0.1351;-0.5012;
-43.8000;0.1319;-0.5037;
-43.5000;0.1351;-0.4987;
-43.2000;0.1351;-0.5012;
-42.9000;0.1343;-0.5037;
-42.6000;0.1343;-0.5037;
-42.3000;0.1319;-0.5211;
-42.0000;0.1343;-0.5086;
-41.7000;0.1319;-0.5037;
-41.4000;0.1319;-0.5086;
-41.1000;0.1343;-0.5037;
-40.8000;0.1359;-0.5037;
-40.5000;0.1327;-0.5037;
-40.2000;0.1359;-0.4962;
-39.9000;0.1294;-0.5161;
-39.6000;0.1335;-0.5062;
-39.3000;0.1343;-0.5012;
-39.0000;0.1335;-0.4912;
-38.7000;0.1359;-0.4862;
-38.4000;0.1270;-0.5111;
-38.1000;0.1351;-0.4862;
-37.8000;0.1335;-0.4962;
-37.5000;0.1368;-0.4912;
-37.2000;0.1343;-0.5012;
-36.9000;0.1359;-0.4987;
-36.6000;0.1351;-0.4987;
-36.3000;0.1359;-0.4937;
-36.0000;0.1335;-0.4937;
-35.7000;0.1351;-0.4962;
-35.4000;0.1343;-0.5012;
-35.1000;0.1343;-0.4987;
-34.8000;0.1408;-0.4837;
-34.5000;0.1343;-0.5012;
-34.2000;0.1327;-0.5037;
-33.9000;0.1343;-0.5062;
-33.6000;0.1343;-0.5111;
-33.3000;0.1335;-0.5236;
-33.0000;0.1351;-0.5236;
-32.7000;0.1311;-0.5336;
-32.4000;0.1327;-0.5236;
-32.1000;0.1416;-0.4987;
-31.8000;0.1368;-0.4962;
-31.5000;0.1400;-0.4812;
-31.2000;0.1343;-0.4962;
-30.9000;0.1351;-0.4962;
-30.6000;0.1335;-0.4862;
-30.3000;0.1359;-0.4837;
-30.0000;0.1343;-0.4937;
-29.7000;0.1449;-0.4638;
-29.4000;0.1351;-0.4862;
-29.1000;0.1278;-0.5012;
-28.8000;0.1433;-0.4663;
-28.5000;0.1351;-0.4912;
-28.2000;0.1368;-0.4862;
-27.9000;0.1351;-0.4937;
-27.6000;0.1302;-0.5062;
-27.3000;0.1392;-0.4862;
-27.0000;0.1319;-0.5086;
-26.7000;0.1384;-0.5037;
-26.4000;0.1368;-0.5012;
-26.1000;0.1335;-0.5186;
-25.8000;0.1294;-0.5161;
-25.5000;0.1335;-0.5086;
-25.2000;0.1327;-0.5012;
-24.9000;0.1343;-0.4937;
-24.6000;0.1302;-0.5111;
-24.3000;0.1327;-0.5111;
-24.0000;0.1351;-0.4987;
-23.7000;0.1359;-0.4987;
-23.4000;0.1343;-0.4937;
-23.1000;0.1311;-0.5012;
-22.8000;0.1376;-0.4887;
-22.5000;0.1335;-0.5086;
-22.2000;0.1327;-0.4987;
-21.9000;0.1327;-0.4937;
-21.6000;0.1359;-0.4862;
-21.3000;0.1343;-0.4937;
-21.0000;0.1335;-0.4937;
-20.7000;0.1351;-0.4962;
-20.4000;0.1425;-0.4787;
-20.1000;0.1351;-0.5086;
-19.8000;0.1343;-0.5136;
-19.5000;0.1351;-0.5012;
-19.2000;0.1359;-0.4912;
-18.9000;0.1368;-0.4862;
-18.6000;0.1351;-0.4962;
-18.3000;0.1376;-0.4987;
-18.0000;0.1376;-0.4962;
-17.7000;0.1368;-0.5012;
-17.4000;0.1311;-0.5037;
-17.1000;0.1343;-0.5012;
-16.8000;0.1343;-0.4937;
-16.5000;0.1351;-0.5012;
-16.2000;0.1343;-0.4962;
-15.9000;0.1359;-0.4962;
-15.6000;0.1368;-0.4987;
-15.3000;0.1384;-0.5012;
-15.0000;0.1351;-0.5111;
-14.7000;0.1327;-0.5136;
-14.4000;0.1351;-0.5086;
-14.1000;0.1335;-0.5037;
-13.8000;0.1368;-0.4887;
-13.5000;0.1368;-0.4862;
-13.2000;0.1441;-0.4812;
-12.9000;0.1343;-0.5062;
-12.6000;0.1343;-0.4987;
-12.3000;0.1343;-0.4987;
-12.0000;0.1351;-0.4987;
-11.7000;0.1351;-0.4962;
-11.4000;0.1400;-0.4837;
-11.1000;0.1351;-0.5012;
-10.8000;0.1359;-0.4962;
-10.5000;0.1359;-0.4887;
-10.2000;0.1392;-0.4837;
-9.9000;0.1368;-0.4887;
-9.6000;0.1351;-0.4987;
-9.3000;0.1327;-0.5086;
-9.0000;0.1262;-0.5236;
-8.7000;0.1343;-0.5062;
-8.4000;0.1343;-0.4962;
-8.1000;0.1335;-0.4937;
-7.8000;0.1343;-0.4912;
-7.5000;0.1343;-0.4862;
-7.2000;0.1302;-0.4962;
-6.9000;0.1335;-0.4812;
-6.6000;0.1327;-0.4862;
-6.3000;0.1359;-0.4688;
-6.0000;0.1335;-0.4787;
-5.7000;0.1416;-0.4688;
-5.4000;0.1343;-0.4912;
-5.1000;0.1392;-0.4837;
-4.8000;0.1384;-0.4887;
-4.5000;0.1351;-0.4987;
-4.2000;0.1351;-0.4887;
-3.9000;0.1433;-0.4638;
-3.6000;0.1408;-0.4663;
-3.3000;0.1416;-0.4688;
-3.0000;0.1359;-0.4937;
-2.7000;0.1384;-0.4862;
-2.4000;0.1392;-0.4887;
-2.1000;0.1368;-0.4912;
-1.8000;0.1286;-0.5086;
-1.5000;0.1343;-0.4962;
-1.2000;0.1294;-0.5062;
-0.9000;0.1311;-0.4987;
-0.6000;0.1335;-0.4862;
-0.3000;0.1343;-0.4862;
0.0000;0.1343;-0.4862;
0.3000;0.1425;-0.4837;
0.6000;0.1376;-0.4688;
0.9000;0.1392;-0.4413;
1.2000;0.1400;-0.4089;
1.5000;0.1416;-0.3815;
1.8000;0.1416;-0.3590;
2.1000;0.1449;-0.3316;
2.4000;0.1441;-0.3216;
2.7000;0.1465;-0.3042;
3.0000;0.1457;-0.3092;
3.3000;0.1465;-0.2967;
3.6000;0.1425;-0.2967;
3.9000;0.1457;-0.2768;
4.2000;0.1473;-0.2818;
4.5000;0.1522;-0.2593;
4.8000;0.1498;-0.2643;
5.1000;0.1465;-0.2568;
5.4000;0.1481;-0.2618;
5.7000;0.1465;-0.2618;
6.0000;0.1473;-0.2543;
6.3000;0.1481;-0.2593;
6.6000;0.1473;-0.2668;
6.9000;0.1465;-0.2618;
7.2000;0.1538;-0.2344;
7.5000;0.1490;-0.2394;
7.8000;0.1449;-0.2468;
8.1000;0.1465;-0.2468;
8.4000;0.1481;-0.2419;
8.7000;0.1465;-0.2419;
9.0000;0.1465;-0.2444;
9.3000;0.1481;-0.2468;
9.6000;0.1465;-0.2518;
9.9000;0.1473;-0.2493;
10.2000;0.1473;-0.2468;
10.5000;0.1465;-0.2444;
10.8000;0.1465;-0.2518;
11.1000;0.1481;-0.2444;
11.4000;0.1481;-0.2444;
11.7000;0.1481;-0.2468;
12.0000;0.1473;-0.2468;
12.3000;0.1465;-0.2444;
12.6000;0.1538;-0.2319;
12.9000;0.1490;-0.2369;
13.2000;0.1481;-0.2394;
13.5000;0.1433;-0.2369;
13.8000;0.1547;-0.2045;
14.1000;0.1481;-0.2219;
14.4000;0.1498;-0.2169;
14.7000;0.1368;-0.2618;
15.0000;0.1473;-0.2444;
15.3000;0.1490;-0.2444;
15.6000;0.1547;-0.2294;
15.9000;0.1481;-0.2518;
16.2000;0.1441;-0.2643;
16.5000;0.1506;-0.2369;
16.8000;0.1457;-0.2394;
17.1000;0.1481;-0.2369;
17.4000;0.1473;-0.2419;
17.7000;0.1473;-0.2369;
18.0000;0.1490;-0.2344;
18.3000;0.1522;-0.2294;
18.6000;0.1465;-0.2419;
18.9000;0.1465;-0.2419;
19.2000;0.1473;-0.2493;
19.5000;0.1473;-0.2518;
19.8000;0.1465;-0.2618;
20.1000;0.1490;-0.2618;
20.4000;0.1498;-0.2518;
20.7000;0.1490;-0.2593;
21.0000;0.1457;-0.2693;
21.3000;0.1490;-0.2618;
21.6000;0.1473;-0.2618;
21.9000;0.1481;-0.2618;
22.2000;0.1490;-0.2543;
22.5000;0.1579;-0.2319;
22.8000;0.1441;-0.2643;
23.1000;0.1490;-0.2518;
23.4000;0.1481;-0.2518;
23.7000;0.1490;-0.2493;
24.0000;0.1481;-0.2493;
24.3000;0.1449;-0.2444;
24.6000;0.1473;-0.2444;
24.9000;0.1473;-0.2468;
25.2000;0.1481;-0.2444;
25.5000;0.1490;-0.2369;
25.8000;0.1473;-0.2369;
26.1000;0.1481;-0.2344;
26.4000;0.1490;-0.2319;
26.7000;0.1473;-0.2344;
27.0000;0.1490;-0.2319;
27.3000;0.1473;-0.2394;
27.6000;0.1481;-0.2369;
27.9000;0.1481;-0.2419;
28.2000;0.1481;-0.2493;
28.5000;0.1481;-0.2444;
28.8000;0.1473;-0.2468;
29.1000;0.1481;-0.2444;
29.4000;0.1473;-0.2344;
29.7000;0.1481;-0.2344;
30.0000;0.1481;-0.2419;
30.3000;0.1490;-0.2493;
30.6000;0.1498;-0.2444;
30.9000;0.1473;-0.2518;
31.2000;0.1498;-0.2369;
31.5000;0.1433;-0.2419;
31.8000;0.1481;-0.2244;
32.1000;0.1481;-0.2319;
32.4000;0.1473;-0.2319;
32.7000;0.1498;-0.2169;
33.0000;0.1473;-0.2219;
33.3000;0.1481;-0.2169;
33.6000;0.1449;-0.2294;
33.9000;0.1457;-0.2319;
34.2000;0.1481;-0.2394;
34.5000;0.1457;-0.2444;
34.8000;0.1408;-0.2618;
35.1000;0.1457;-0.2468;
35.4000;0.1490;-0.2394;
35.7000;0.1481;-0.2419;
36.0000;0.1481;-0.2518;
36.3000;0.1449;-0.2618;
36.6000;0.1498;-0.2493;
36.9000;0.1481;-0.2518;
37.2000;0.1473;-0.2518;
37.5000;0.1433;-0.2543;
37.8000;0.1473;-0.2543;
38.1000;0.1490;-0.2543;
38.4000;0.1473;-0.2543;
38.7000;0.1457;-0.2593;
39.0000;0.1457;-0.2593;
39.3000;0.1506;-0.2493;
39.6000;0.1457;-0.2593;
39.9000;0.1465;-0.2643;
40.2000;0.1465;-0.2643;
40.5000;0.1490;-0.2643;
40.8000;0.1481;-0.2593;
41.1000;0.1481;-0.2643;
41.4000;0.1490;-0.2568;
41.7000;0.1490;-0.2568;
42.0000;0.1473;-0.2568;
42.3000;0.1425;-0.2668;
42.6000;0.1433;-0.2568;
42.9000;0.1457;-0.2543;
43.2000;0.1490;-0.2493;
43.5000;0.1473;-0.2493;
43.8000;0.1449;-0.2568;
44.1000;0.1465;-0.2543;
44.4000;0.1400;-0.2743;
44.7000;0.1441;-0.2568;
45.0000;0.1473;-0.2568;
45.3000;0.1473;-0.2593;
45.6000;0.1490;-0.2593;
45.9000;0.1465;-0.2568;
46.2000;0.1473;-0.2618;
46.5000;0.1465;-0.2593;
46.8000;0.1473;-0.2568;
47.1000;0.1490;-0.2568;
47.4000;0.1449;-0.2743;
47.7000;0.1481;-0.2718;
48.0000;0.1465;-0.2668;
48.3000;0.1481;-0.2668;
48.6000;0.1490;-0.2568;
48.9000;0.1473;-0.2568;
49.2000;0.1490;-0.2618;
49.5000;0.1473;-0.2643;
49.8000;0.1473;-0.2718;
50.1000;0.1457;-0.2618;
50.4000;0.1465;-0.2518;
50.7000;0.1563;-0.2194;
51.0000;0.1465;-0.2419;
51.3000;0.1473;-0.2468;
51.6000;0.1481;-0.2518;
51.9000;0.1481;-0.2493;
52.2000;0.1481;-0.2518;
52.5000;0.1506;-0.2444;
52.8000;0.1473;-0.2543;
53.1000;0.1457;-0.2568;
53.4000;0.1465;-0.2543;
53.7000;0.1465;-0.2468;
54.0000;0.1490;-0.2493;
54.3000;0.1473;-0.2518;
54.6000;0.1555;-0.2344;
54.9000;0.1441;-0.2568;
55.2000;0.1490;-0.2468;
55.5000;0.1441;-0.2593;
55.8000;0.1481;-0.2518;
56.1000;0.1473;-0.2568;
56.4000;0.1465;-0.2618;
56.7000;0.1481;-0.2543;
57.0000;0.1481;-0.2593;
57.3000;0.1498;-0.2419;
57.6000;0.1490;-0.2468;
57.9000;0.1465;-0.2468;
58.2000;0.1465;-0.2369;
58.5000;0.1465;-0.2344;
58.8000;0.1457;-0.2269;
59.1000;0.1490;-0.2219;
59.4000;0.1473;-0.2219;
59.7000;0.1473;-0.2344;
60.0000;0.1473;-0.2269;
60.3000;0.1481;-0.2244;
60.6000;0.1457;-0.2269;
60.9000;0.1457;-0.2344;
61.2000;0.1465;-0.2294;
61.5000;0.1473;-0.2294;
61.8000;0.1481;-0.2269;
62.1000;0.1481;-0.2319;
62.4000;0.1498;-0.2319;
62.7000;0.1465;-0.2369;
63.0000;0.1457;-0.2543;
63.3000;0.1473;-0.2518;
63.6000;0.1481;-0.2518;
63.9000;0.1465;-0.2444;
64.2000;0.1481;-0.2444;
64.5000;0.1473;-0.2419;
64.8000;0.1473;-0.2419;
65.1000;0.1490;-0.2394;
65.4000;0.1490;-0.2419;
65.7000;0.1490;-0.2568;
66.0000;0.1514;-0.2518;
66.3000;0.1481;-0.2593;
66.6000;0.1514;-0.2543;
66.9000;0.1498;-0.2618;
67.2000;0.1490;-0.2618;
67.5000;0.1506;-0.2468;
67.8000;0.1490;-0.2493;
68.1000;0.1465;-0.2518;
68.4000;0.1425;-0.2668;
68.7000;0.1457;-0.2593;
69.0000;0.1465;-0.2593;
69.3000;0.1473;-0.2618;
69.6000;0.1433;-0.2643;
69.9000;0.1498;-0.2518;
70.2000;0.1473;-0.2543;
70.5000;0.1498;-0.2543;
70.8000;0.1498;-0.2543;
71.1000;0.1481;-0.2643;
71.4000;0.1473;-0.2543;
71.7000;0.1473;-0.2568;
72.0000;0.1481;-0.2543;
72.3000;0.1481;-0.2493;
72.6000;0.1481;-0.2419;
72.9000;0.1465;-0.2344;
73.2000;0.1457;-0.2468;
73.5000;0.1416;-0.2668;
73.8000;0.1481;-0.2593;
74.1000;0.1457;-0.2643;
74.4000;0.1457;-0.2543;
74.7000;0.1490;-0.2518;
75.0000;0.1473;-0.2419;
75.3000;0.1465;-0.2369;
75.6000;0.1465;-0.2269;
75.9000;0.1465;-0.2319;
76.2000;0.1408;-0.2493;
76.5000;0.1465;-0.2369;
76.8000;0.1465;-0.2419;
77.1000;0.1473;-0.2419;
77.4000;0.1465;-0.2419;
77.7000;0.1547;-0.2144;
78.0000;0.1481;-0.2394;
78.3000;0.1457;-0.2468;
78.6000;0.1490;-0.2468;
78.9000;0.1481;-0.2394;
79.2000;0.1490;-0.2344;
79.5000;0.1457;-0.2444;
79.8000;0.1490;-0.2319;
80.1000;0.1481;-0.2419;
80.4000;0.1441;-0.2468;
80.7000;0.1473;-0.2369;
81.0000;0.1481;-0.2369;
81.3000;0.1481;-0.2394;
81.6000;0.1465;-0.2468;
81.9000;0.1465;-0.2369;
82.2000;0.1457;-0.2468;
82.5000;0.1490;-0.2369;
82.8000;0.1490;-0.2369;
83.1000;0.1457;-0.2518;
83.4000;0.1433;-0.2568;
83.7000;0.1498;-0.2444;
84.0000;0.1481;-0.2493;
84.3000;0.1449;-0.2593;
84.6000;0.1490;-0.2518;
84.9000;0.1498;-0.2518;
85.2000;0.1465;-0.2668;
85.5000;0.1490;-0.2618;
85.8000;0.1481;-0.2593;
86.1000;0.1465;-0.2568;
86.4000;0.1449;-0.2444;
86.7000;0.1473;-0.2344;
87.0000;0.1433;-0.2468;
87.3000;0.1473;-0.2319;
87.6000;0.1514;-0.2244;
87.9000;0.1481;-0.2194;
88.2000;0.1449;-0.2344;
88.5000;0.1481;-0.2344;
88.8000;0.1457;-0.2369;
89.1000;0.1481;-0.2344;
89.4000;0.1473;-0.2444;
89.7000;0.1481;-0.2369;
90.0000;0.1481;-0.2369;
90.3000;0.1571;-0.2119;
90.6000;0.1465;-0.2444;
90.9000;0.1449;-0.2468;
91.2000;0.1473;-0.2444;
91.5000;0.1587;-0.2169;
91.8000;0.1465;-0.2568;
92.1000;0.1457;-0.2568;
92.4000;0.1473;-0.2643;
92.7000;0.1449;-0.2693;
93.0000;0.1465;-0.2718;
93.3000;0.1473;-0.2693;
93.6000;0.1473;-0.2618;
93.9000;0.1481;-0.2568;
94.2000;0.1465;-0.2568;
94.5000;0.1473;-0.2518;
94.8000;0.1465;-0.2518;
95.1000;0.1465;-0.2568;
95.4000;0.1433;-0.2643;
95.7000;0.1473;-0.2543;
96.0000;0.1457;-0.2568;
96.3000;0.1481;-0.2468;
96.6000;0.1457;-0.2518;
96.9000;0.1473;-0.2493;
97.2000;0.1498;-0.2468;
97.5000;0.1473;-0.2468;
97.8000;0.1441;-0.2668;
98.1000;0.1457;-0.2543;
98.4000;0.1473;-0.2568;
98.7000;0.1538;-0.2294;
99.0000;0.1506;-0.2444;
99.3000;0.1473;-0.2394;
99.6000;0.1465;-0.2394;
99.9000;0.1465;-0.2468;
100.2000;0.1473;-0.2468;
100.5000;0.1465;-0.2518;
100.8000;0.1465;-0.2518;
101.1000;0.1457;-0.2518;
101.4000;0.1473;-0.2493;
101.7000;0.1473;-0.2518;
102.0000;0.1481;-0.2518;
102.3000;0.1465;-0.2568;
102.6000;0.1465;-0.2568;
102.9000;0.1400;-0.2718;
103.2000;0.1465;-0.2618;
103.5000;0.1457;-0.2643;
103.8000;0.1457;-0.2643;
104.1000;0.1481;-0.2593;
104.4000;0.1506;-0.2593;
104.7000;0.1449;-0.2718;
105.0000;0.1465;-0.2643;
105.3000;0.1481;-0.2618;
105.6000;0.1481;-0.2618;
105.9000;0.1473;-0.2618;
106.2000;0.1433;-0.2668;
106.5000;0.1465;-0.2618;
106.8000;0.1473;-0.2568;
107.1000;0.1416;-0.2718;
107.4000;0.1481;-0.2543;
107.7000;0.1441;-0.2643;
108.0000;0.1441;-0.2668;
108.3000;0.1465;-0.2568;
108.6000;0.1400;-0.2593;
108.9000;0.1449;-0.2444;
109.2000;0.1441;-0.2543;
109.5000;0.1465;-0.2518;
109.8000;0.1457;-0.2593;
110.1000;0.1416;-0.2842;
110.4000;0.1465;-0.2693;
110.7000;0.1490;-0.2493;
111.0000;0.1481;-0.2468;
111.3000;0.1433;-0.2518;
111.6000;0.1351;-0.2668;
111.9000;0.1473;-0.2419;
112.2000;0.1538;-0.2294;
112.5000;0.1457;-0.2518;
112.8000;0.1473;-0.2493;
113.1000;0.1449;-0.2444;
113.4000;0.1473;-0.2394;
113.7000;0.1449;-0.2468;
114.0000;0.1449;-0.2518;
114.3000;0.1457;-0.2518;
114.6000;0.1465;-0.2518;
114.9000;0.1457;-0.2518;
115.2000;0.1465;-0.2468;
115.5000;0.1465;-0.2468;
115.8000;0.1441;-0.2493;
116.1000;0.1465;-0.2369;
116.4000;0.1465;-0.2394;
116.7000;0.1490;-0.2269;
117.0000;0.1473;-0.2319;
117.3000;0.1473;-0.2369;
117.6000;0.1473;-0.2369;
117.9000;0.1473;-0.2419;
118.2000;0.1465;-0.2468;
118.5000;0.1473;-0.2543;
118.8000;0.1473;-0.2568;
119.1000;0.1465;-0.2543;
119.4000;0.1425;-0.2693;
119.7000;0.1473;-0.2593;
120.0000;0.1465;-0.2568;
120.3000;0.1465;-0.2543;
120.6000;0.1522;-0.2319;
120.9000;0.1481;-0.2369;
121.2000;0.1465;-0.2369;
121.5000;0.1465;-0.2444;
121.8000;0.1457;-0.2444;
122.1000;0.1481;-0.2394;
122.4000;0.1449;-0.2493;
122.7000;0.1457;-0.2568;
123.0000;0.1473;-0.2568;
123.3000;0.1522;-0.2344;
123.6000;0.1481;-0.2444;
123.9000;0.1465;-0.2468;
124.2000;0.1490;-0.2543;
124.5000;0.1416;-0.2793;
124.8000;0.1473;-0.2643;
125.1000;0.1465;-0.2618;
125.4000;0.1481;-0.2568;
125.7000;0.1457;-0.2618;
126.0000;0.1481;-0.2444;
126.3000;0.1457;-0.2419;
126.6000;0.1457;-0.2444;
126.9000;0.1490;-0.2419;
127.2000;0.1522;-0.2444;
127.5000;0.1465;-0.2543;
127.8000;0.1473;-0.2493;
128.1000;0.1490;-0.2468;
128.4000;0.1473;-0.2643;
128.7000;0.1481;-0.2618;
129.0000;0.1457;-0.2618;
129.3000;0.1498;-0.2543;
129.6000;0.1490;-0.2518;
129.9000;0.1473;-0.2518;
130.2000;0.1465;-0.2568;
130.5000;0.1473;-0.2518;
130.8000;0.1465;-0.2493;
131.1000;0.1465;-0.2468;
131.4000;0.1481;-0.2419;
131.7000;0.1457;-0.2493;
132.0000;0.1481;-0.2468;
132.3000;0.1481;-0.2518;
132.6000;0.1481;-0.2543;
132.9000;0.1449;-0.2643;
133.2000;0.1465;-0.2643;
133.5000;0.1457;-0.2518;
133.8000;0.1449;-0.2518;
134.1000;0.1465;-0.2468;
134.4000;0.1490;-0.2493;
134.7000;0.1433;-0.2593;
135.0000;0.1498;-0.2493;
135.3000;0.1457;-0.2543;
135.6000;0.1449;-0.2593;
135.9000;0.1473;-0.2643;
136.2000;0.1408;-0.2743;
136.5000;0.1473;-0.2493;
136.8000;0.1392;-0.2693;
137.1000;0.1465;-0.2518;
137.4000;0.1433;-0.2643;
137.7000;0.1465;-0.2668;
138.0000;0.1473;-0.2568;
138.3000;0.1481;-0.2568;
138.6000;0.1481;-0.2643;
138.9000;0.1481;-0.2668;
139.2000;0.1481;-0.2668;
139.5000;0.1441;-0.2693;
139.8000;0.1473;-0.2493;
140.1000;0.1481;-0.2468;
140.4000;0.1441;-0.2493;
140.7000;0.1465;-0.2419;
141.0000;0.1490;-0.2468;
141.3000;0.1473;-0.2468;
141.6000;0.1465;-0.2468;
141.9000;0.1481;-0.2468;
142.2000;0.1490;-0.2444;
142.5000;0.1490;-0.2518;
142.8000;0.1522;-0.2493;
143.1000;0.1481;-0.2668;
143.4000;0.1506;-0.2593;
143.7000;0.1490;-0.2593;
144.0000;0.1473;-0.2668;
144.3000;0.1473;-0.2693;
144.6000;0.1425;-0.2743;
144.9000;0.1481;-0.2518;
145.2000;0.1465;-0.2543;
145.5000;0.1473;-0.2593;
145.8000;0.1449;-0.2568;
146.1000;0.1416;-0.2593;
146.4000;0.1465;-0.2518;
146.7000;0.1481;-0.2493;
147.0000;0.1473;-0.2493;
147.3000;0.1490;-0.2444;
147.6000;0.1449;-0.2568;
147.9000;0.1441;-0.2618;
148.2000;0.1563;-0.2344;
148.5000;0.1465;-0.2618;
148.8000;0.1481;-0.2593;
149.1000;0.1465;-0.2643;
149.4000;0.1473;-0.2618;
149.7000;0.1514;-0.2568;
150.0000;0.1465;-0.2768;
150.3000;0.1457;-0.2718;
150.6000;0.1481;-0.2693;
150.9000;0.1481;-0.2718;
151.2000;0.1481;-0.2693;
151.5000;0.1433;-0.2618;
151.8000;0.1465;-0.2543;
152.1000;0.1490;-0.2419;
152.4000;0.1441;-0.2543;
152.7000;0.1465;-0.2468;
153.0000;0.1457;-0.2593;
153.3000;0.1522;-0.2394;
153.6000;0.1465;-0.2543;
153.9000;0.1457;-0.2568;
154.2000;0.1473;-0.2543;
154.5000;0.1473;-0.2543;
154.8000;0.1579;-0.2194;
155.1000;0.1473;-0.2493;
155.4000;0.1522;-0.2344;
155.7000;0.1465;-0.2419;
156.0000;0.1465;-0.2369;
156.3000;0.1490;-0.2319;
156.6000;0.1457;-0.2319;
156.9000;0.1481;-0.2244;
157.2000;0.1449;-0.2319;
157.5000;0.1473;-0.2319;
157.8000;0.1473;-0.2294;
158.1000;0.1457;-0.2369;
158.4000;0.1457;-0.2444;
158.7000;0.1498;-0.2344;
159.0000;0.1457;-0.2369;
159.3000;0.1457;-0.2394;
159.6000;0.1449;-0.2394;
159.9000;0.1449;-0.2369;
160.2000;0.1449;-0.2319;
160.5000;0.1425;-0.2518;
160.8000;0.1465;-0.2294;
161.1000;0.1465;-0.2244;
161.4000;0.1473;-0.2219;
161.7000;0.1457;-0.2294;
162.0000;0.1490;-0.2319;
162.3000;0.1465;-0.2344;
162.6000;0.1490;-0.2344;
162.9000;0.1465;-0.2369;
163.2000;0.1465;-0.2419;
163.5000;0.1465;-0.2468;
163.8000;0.1473;-0.2493;
164.1000;0.1465;-0.2468;
164.4000;0.1473;-0.2319;
164.7000;0.1457;-0.2319;
165.0000;0.1498;-0.2219;
165.3000;0.1473;-0.2219;
165.6000;0.1490;-0.2219;
165.9000;0.1514;-0.2194;
166.2000;0.1449;-0.2319;
166.5000;0.1433;-0.2369;
166.8000;0.1400;-0.2518;
167.1000;0.1465;-0.2294;
167.4000;0.1465;-0.2369;
167.7000;0.1465;-0.2444;
168.0000;0.1530;-0.2294;
168.3000;0.1473;-0.2518;
168.6000;0.1490;-0.2543;
168.9000;0.1473;-0.2618;
169.2000;0.1465;-0.2643;
169.5000;0.1441;-0.2693;
169.8000;0.1457;-0.2693;
170.1000;0.1441;-0.2643;
170.4000;0.1490;-0.2543;
170.7000;0.1449;-0.2643;
171.0000;0.1433;-0.2643;
171.3000;0.1498;-0.2493;
171.6000;0.1481;-0.2543;
171.9000;0.1481;-0.2593;
172.2000;0.1457;-0.2693;
172.5000;0.1473;-0.2693;
172.8000;0.1473;-0.2693;
173.1000;0.1465;-0.2643;
173.4000;0.1465;-0.2643;
173.7000;0.1481;-0.2568;
174.0000;0.1465;-0.2643;
174.3000;0.1473;-0.2643;
174.6000;0.1465;-0.2743;
174.9000;0.1457;-0.2693;
175.2000;0.1481;-0.2618;
175.5000;0.1473;-0.2568;
175.8000;0.1465;-0.2593;
176.1000;0.1481;-0.2668;
176.4000;0.1514;-0.2568;
176.7000;0.1498;-0.2643;
177.0000;0.1481;-0.2593;
177.3000;0.1473;-0.2593;
177.6000;0.1490;-0.2518;
177.9000;0.1481;-0.2543;
178.2000;0.1473;-0.2718;
178.5000;0.1538;-0.2369;
178.8000;0.1481;-0.2543;
179.1000;0.1506;-0.2593;
179.4000;0.1441;-0.2743;
179.7000;0.1457;-0.2618;
180.0000;0.1457;-0.2543;
180.3000;0.1490;-0.2394;
180.6000;0.1465;-0.2518;
180.9000;0.1457;-0.2618;
181.2000;0.1465;-0.2593;
181.5000;0.1408;-0.2693;
181.8000;0.1473;-0.2518;
182.1000;0.1490;-0.2518;
182.4000;0.1473;-0.2568;
182.7000;0.1473;-0.2568;
183.0000;0.1481;-0.2643;
183.3000;0.1457;-0.2693;
183.6000;0.1506;-0.2493;
183.9000;0.1473;-0.2618;
184.2000;0.1473;-0.2643;
184.5000;0.1465;-0.2668;
184.8000;0.1441;-0.2718;
185.1000;0.1457;-0.2718;
185.4000;0.1530;-0.2444;
185.7000;0.1473;-0.2643;
186.0000;0.1449;-0.2793;
186.3000;0.1465;-0.2718;
186.6000;0.1465;-0.2693;
186.9000;0.1473;-0.2593;
187.2000;0.1457;-0.2668;
187.5000;0.1465;-0.2668;
187.8000;0.1481;-0.2593;
188.1000;0.1473;-0.2543;
188.4000;0.1473;-0.2518;
188.7000;0.1490;-0.2518;
189.0000;0.1457;-0.2568;
189.3000;0.1473;-0.2518;
189.6000;0.1465;-0.2518;
189.9000;0.1473;-0.2568;
190.2000;0.1465;-0.2593;
190.5000;0.1465;-0.2593;
190.8000;0.1473;-0.2618;
191.1000;0.1473;-0.2618;
191.4000;0.1490;-0.2668;
191.7000;0.1490;-0.2668;
192.0000;0.1481;-0.2618;
192.3000;0.1481;-0.2693;
192.6000;0.1473;-0.2668;
192.9000;0.1473;-0.2693;
193.2000;0.1481;-0.2718;
193.5000;0.1473;-0.2793;
193.8000;0.1473;-0.2768;
194.1000;0.1449;-0.2718;
194.4000;0.1473;-0.2643;
194.7000;0.1465;-0.2643;
195.0000;0.1457;-0.2693;
195.3000;0.1441;-0.2668;
195.6000;0.1473;-0.2643;
195.9000;0.1457;-0.2593;
196.2000;0.1441;-0.2543;
196.5000;0.1457;-0.2568;
196.8000;0.1481;-0.2493;
197.1000;0.1465;-0.2593;
197.4000;0.1425;-0.2693;
197.7000;0.1465;-0.2668;
198.0000;0.1465;-0.2693;
198.3000;0.1490;-0.2668;
198.6000;0.1449;-0.2768;
198.9000;0.1457;-0.2743;
199.2000;0.1449;-0.2743;
199.5000;0.1481;-0.2743;
199.8000;0.1473;-0.2743;
200.1000;0.1465;-0.2768;
200.4000;0.1555;-0.2419;
200.7000;0.1481;-0.2643;
201.0000;0.1473;-0.2693;
201.3000;0.1498;-0.2568;
201.6000;0.1481;-0.2518;
201.9000;0.1473;-0.2543;
202.2000;0.1473;-0.2568;
202.5000;0.1506;-0.2568;
202.8000;0.1481;-0.2668;
203.1000;0.1441;-0.2743;
203.4000;0.1514;-0.2568;
203.7000;0.1473;-0.2543;
204.0000;0.1433;-0.2643;
204.3000;0.1522;-0.2394;
204.6000;0.1481;-0.2493;
204.9000;0.1473;-0.2444;
205.2000;0.1433;-0.2543;
205.5000;0.1408;-0.2518;
205.8000;0.1465;-0.2419;
206.1000;0.1425;-0.2568;
206.4000;0.1449;-0.2568;
206.7000;0.1465;-0.2593;
207.0000;0.1481;-0.2568;
207.3000;0.1473;-0.2643;
207.6000;0.1481;-0.2543;
207.9000;0.1465;-0.2419;
208.2000;0.1481;-0.2394;
208.5000;0.1408;-0.2618;
208.8000;0.1457;-0.2543;
209.1000;0.1457;-0.2468;
209.4000;0.1449;-0.2444;
209.7000;0.1473;-0.2344;
210.0000;0.1465;-0.2518;
210.3000;0.1433;-0.2568;
210.6000;0.1449;-0.2568;
210.9000;0.1473;-0.2568;
211.2000;0.1465;-0.2518;
211.5000;0.1449;-0.2543;
211.8000;0.1465;-0.2543;
212.1000;0.1481;-0.2568;
212.4000;0.1473;-0.2518;
212.7000;0.1465;-0.2493;
213.0000;0.1473;-0.2444;
213.3000;0.1457;-0.2493;
213.6000;0.1473;-0.2344;
213.9000;0.1449;-0.2444;
214.2000;0.1449;-0.2518;
214.5000;0.1481;-0.2444;
214.8000;0.1481;-0.2419;
215.1000;0.1457;-0.2593;
215.4000;0.1449;-0.2593;
215.7000;0.1481;-0.2493;
216.0000;0.1465;-0.2568;
216.3000;0.1465;-0.2468;
216.6000;0.1457;-0.2468;
216.9000;0.1473;-0.2518;
217.2000;0.1465;-0.2543;
217.5000;0.1433;-0.2593;
217.8000;0.1473;-0.2444;
218.1000;0.1368;-0.2643;
218.4000;0.1481;-0.2444;
218.7000;0.1481;-0.2419;
219.0000;0.1457;-0.2543;
219.3000;0.1457;-0.2468;
219.6000;0.1465;-0.2468;
219.9000;0.1465;-0.2593;
220.2000;0.1449;-0.2643;
220.5000;0.1441;-0.2593;
220.8000;0.1457;-0.2568;
221.1000;0.1481;-0.2518;
221.4000;0.1465;-0.2493;
221.7000;0.1465;-0.2618;
222.0000;0.1481;-0.2493;
222.3000;0.1498;-0.2419;
222.6000;0.1514;-0.2319;
222.9000;0.1473;-0.2419;
223.2000;0.1473;-0.2493;
223.5000;0.1473;-0.2568;
223.8000;0.1449;-0.2543;
224.1000;0.1498;-0.2493;
224.4000;0.1457;-0.2668;
224.7000;0.1408;-0.2768;
225.0000;0.1425;-0.2743;
225.3000;0.1441;-0.2668;
225.6000;0.1449;-0.2568;
225.9000;0.1465;-0.2518;
226.2000;0.1473;-0.2568;
226.5000;0.1457;-0.2568;
226.8000;0.1465;-0.2643;
227.1000;0.1473;-0.2643;
227.4000;0.1465;-0.2668;
227.7000;0.1465;-0.2568;
228.0000;0.1465;-0.2468;
228.3000;0.1465;-0.2444;
228.6000;0.1441;-0.2468;
228.9000;0.1465;-0.2493;
229.2000;0.1400;-0.2643;
229.5000;0.1481;-0.2419;
229.8000;0.1473;-0.2468;
230.1000;0.1441;-0.2493;
230.4000;0.1449;-0.2493;
230.7000;0.1449;-0.2518;
231.0000;0.1457;-0.2543;
231.3000;0.1490;-0.2419;
231.6000;0.1481;-0.2419;
231.9000;0.1473;-0.2493;
232.2000;0.1481;-0.2493;
232.5000;0.1522;-0.2319;
232.8000;0.1465;-0.2593;
233.1000;0.1465;-0.2643;
233.4000;0.1465;-0.2643;
233.7000;0.1449;-0.2718;
234.0000;0.1457;-0.2643;
234.3000;0.1465;-0.2643;
234.6000;0.1433;-0.2718;
234.9000;0.1449;-0.2643;
235.2000;0.1449;-0.2643;
235.5000;0.1376;-0.2917;
235.8000;0.1457;-0.2668;
236.1000;0.1465;-0.2593;
236.4000;0.1498;-0.2543;
236.7000;0.1457;-0.2643;
237.0000;0.1457;-0.2593;
237.3000;0.1457;-0.2593;
237.6000;0.1490;-0.2444;
237.9000;0.1465;-0.2568;
238.2000;0.1481;-0.2593;
238.5000;0.1416;-0.2693;
238.8000;0.1449;-0.2543;
239.1000;0.1473;-0.2493;
239.4000;0.1433;-0.2543;
239.7000;0.1441;-0.2493;
240.0000;0.1473;-0.2369;
240.3000;0.1498;-0.2344;
240.6000;0.1392;-0.2618;
240.9000;0.1441;-0.2543;
241.2000;0.1441;-0.2568;
241.5000;0.1441;-0.2568;
241.8000;0.1481;-0.2468;
242.1000;0.1457;-0.2518;
242.4000;0.1465;-0.2568;
242.7000;0.1457;-0.2593;
243.0000;0.1465;-0.2618;
243.3000;0.1457;-0.2568;
243.6000;0.1441;-0.2568;
243.9000;0.1457;-0.2518;
244.2000;0.1457;-0.2518;
244.5000;0.1433;-0.2618;
244.8000;0.1425;-0.2593;
245.1000;0.1449;-0.2493;
245.4000;0.1465;-0.2493;
245.7000;0.1465;-0.2543;
246.0000;0.1457;-0.2518;
246.3000;0.1498;-0.2468;
246.6000;0.1490;-0.2668;
246.9000;0.1449;-0.2693;
247.2000;0.1457;-0.2668;
247.5000;0.1465;-0.2543;
247.8000;0.1465;-0.2543;
248.1000;0.1465;-0.2344;
248.4000;0.1465;-0.2344;
248.7000;0.1368;-0.2618;
249.0000;0.1457;-0.2369;
249.3000;0.1514;-0.2294;
249.6000;0.1457;-0.2444;
249.9000;0.1498;-0.2294;
250.2000;0.1465;-0.2394;
250.5000;0.1481;-0.2468;
250.8000;0.1473;-0.2493;
251.1000;0.1473;-0.2518;
251.4000;0.1473;-0.2419;
251.7000;0.1441;-0.2394;
252.0000;0.1457;-0.2319;
252.3000;0.1441;-0.2344;
252.6000;0.1457;-0.2419;
252.9000;0.1481;-0.2344;
253.2000;0.1449;-0.2369;
253.5000;0.1481;-0.2394;
253.8000;0.1457;-0.2468;
254.1000;0.1457;-0.2493;
254.4000;0.1433;-0.2593;
254.7000;0.1465;-0.2568;
255.0000;0.1473;-0.2618;
255.3000;0.1457;-0.2693;
255.6000;0.1465;-0.2643;
255.9000;0.1490;-0.2543;
256.2000;0.1465;-0.2568;
256.5000;0.1457;-0.2568;
256.8000;0.1498;-0.2468;
257.1000;0.1473;-0.2543;
257.4000;0.1473;-0.2643;
257.7000;0.1473;-0.2643;
258.0000;0.1473;-0.2593;
258.3000;0.1457;-0.2618;
258.6000;0.1473;-0.2543;
258.9000;0.1457;-0.2568;
259.2000;0.1449;-0.2593;
259.5000;0.1433;-0.2693;
259.8000;0.1481;-0.2593;
260.1000;0.1457;-0.2568;
260.4000;0.1465;-0.2618;
260.7000;0.1457;-0.2618;
261.0000;0.1457;-0.2718;
261.3000;0.1433;-0.2718;
261.6000;0.1490;-0.2493;
261.9000;0.1490;-0.2468;
262.2000;0.1481;-0.2493;
262.5000;0.1490;-0.2493;
262.8000;0.1457;-0.2493;
263.1000;0.1481;-0.2468;
263.4000;0.1449;-0.2518;
263.7000;0.1441;-0.2543;
264.0000;0.1425;-0.2468;
264.3000;0.1481;-0.2269;
264.6000;0.1441;-0.2319;
264.9000;0.1465;-0.2269;
265.2000;0.1425;-0.2419;
265.5000;0.1465;-0.2419;
265.8000;0.1465;-0.2468;
266.1000;0.1522;-0.2419;
266.4000;0.1449;-0.2543;
266.7000;0.1457;-0.2518;
267.0000;0.1376;-0.2768;
267.3000;0.1465;-0.2593;
267.6000;0.1449;-0.2668;
267.9000;0.1481;-0.2618;
268.2000;0.1490;-0.2518;
268.5000;0.1506;-0.2444;
268.8000;0.1449;-0.2568;
269.1000;0.1465;-0.2568;
269.4000;0.1465;-0.2568;
269.7000;0.1449;-0.2618;
270.0000;0.1465;-0.2568;
270.3000;0.1473;-0.2468;
270.6000;0.1465;-0.2468;
270.9000;0.1473;-0.2419;
271.2000;0.1498;-0.2269;
271.5000;0.1465;-0.2369;
271.8000;0.1457;-0.2319;
272.1000;0.1571;-0.2094;
272.4000;0.1441;-0.2444;
272.7000;0.1481;-0.2444;
273.0000;0.1481;-0.2493;
273.3000;0.1465;-0.2444;
273.6000;0.1506;-0.2319;
273.9000;0.1465;-0.2369;
274.2000;0.1457;-0.2369;
274.5000;0.1465;-0.2344;
274.8000;0.1465;-0.2444;
275.1000;0.1433;-0.2593;
275.4000;0.1473;-0.2493;
275.7000;0.1465;-0.2518;
276.0000;0.1457;-0.2593;
276.3000;0.1473;-0.2618;
276.6000;0.1473;-0.2568;
276.9000;0.1465;-0.2518;
277.2000;0.1473;-0.2468;
277.5000;0.1506;-0.2419;
277.8000;0.1473;-0.2593;
278.1000;0.1490;-0.2493;
278.4000;0.1465;-0.2518;
278.7000;0.1465;-0.2543;
279.0000;0.1473;-0.2543;
279.3000;0.1449;-0.2618;
279.6000;0.1465;-0.2593;
279.9000;0.1473;-0.2543;
280.2000;0.1465;-0.2618;
280.5000;0.1465;-0.2593;
280.8000;0.1465;-0.2568;
281.1000;0.1473;-0.2518;
281.4000;0.1481;-0.2419;
281.7000;0.1465;-0.2468;
282.0000;0.1514;-0.2319;
282.3000;0.1473;-0.2394;
282.6000;0.1465;-0.2518;
282.9000;0.1457;-0.2568;
283.2000;0.1473;-0.2468;
283.5000;0.1473;-0.2493;
283.8000;0.1473;-0.2444;
284.1000;0.1457;-0.2493;
284.4000;0.1449;-0.2493;
284.7000;0.1449;-0.2444;
285.0000;0.1538;-0.2294;
285.3000;0.1457;-0.2493;
285.6000;0.1449;-0.2568;
285.9000;0.1506;-0.2419;
286.2000;0.1530;-0.2319;
286.5000;0.1457;-0.2493;
286.8000;0.1457;-0.2468;
287.1000;0.1514;-0.2294;
287.4000;0.1481;-0.2419;
287.7000;0.1490;-0.2394;
288.0000;0.1433;-0.2568;
288.3000;0.1465;-0.2518;
288.6000;0.1457;-0.2618;
288.9000;0.1465;-0.2518;
289.2000;0.1457;-0.2543;
289.5000;0.1449;-0.2593;
289.8000;0.1449;-0.2568;
290.1000;0.1449;-0.2618;
290.4000;0.1441;-0.2693;
290.7000;0.1465;-0.2718;
291.0000;0.1441;-0.2693;
291.3000;0.1433;-0.2568;
291.6000;0.1465;-0.2593;
291.9000;0.1465;-0.2543;
292.2000;0.1514;-0.2394;
292.5000;0.1530;-0.2369;
292.8000;0.1449;-0.2593;
293.1000;0.1457;-0.2593;
293.4000;0.1506;-0.2518;
293.7000;0.1465;-0.2568;
294.0000;0.1457;-0.2493;
294.3000;0.1392;-0.2643;
294.6000;0.1449;-0.2543;
294.9000;0.1449;-0.2568;
295.2000;0.1498;-0.2543;
295.5000;0.1449;-0.2668;
295.8000;0.1457;-0.2668;
296.1000;0.1473;-0.2668;
296.4000;0.1490;-0.2618;
296.7000;0.1449;-0.2718;
297.0000;0.1457;-0.2593;
297.3000;0.1522;-0.2444;
297.6000;0.1473;-0.2618;
297.9000;0.1449;-0.2593;
298.2000;0.1441;-0.2518;
298.5000;0.1457;-0.2468;
298.8000;0.1514;-0.2244;
299.1000;0.1457;-0.2369;
299.4000;0.1457;-0.2419;
299.7000;0.1441;-0.2468;
300.0000;0.1547;-0.2244;
300.3000;0.1522;-0.2369;
300.6000;0.1457;-0.2618;
300.9000;0.1579;-0.2219;
301.2000;0.1457;-0.2419;
301.5000;0.1498;-0.2294;
301.8000;0.1441;-0.2493;
302.1000;0.1473;-0.2394;
302.4000;0.1465;-0.2394;
302.7000;0.1457;-0.2419;
303.0000;0.1498;-0.2344;
303.3000;0.1473;-0.2369;
303.6000;0.1506;-0.2369;
303.9000;0.1473;-0.2518;
304.2000;0.1473;-0.2543;
304.5000;0.1473;-0.2568;
304.8000;0.1465;-0.2568;
305.1000;0.1449;-0.2668;
305.4000;0.1473;-0.2568;
305.7000;0.1473;-0.2518;
306.0000;0.1473;-0.2568;
306.3000;0.1481;-0.2543;
306.6000;0.1457;-0.2543;
306.9000;0.1465;-0.2444;
307.2000;0.1465;-0.2444;
307.5000;0.1473;-0.2518;
307.8000;0.1441;-0.2618;
308.1000;0.1498;-0.2419;
308.4000;0.1473;-0.2419;
308.7000;0.1465;-0.2493;
309.0000;0.1465;-0.2444;
309.3000;0.1473;-0.2518;
309.6000;0.1465;-0.2518;
309.9000;0.1392;-0.2818;
310.2000;0.1473;-0.2518;
310.5000;0.1490;-0.2518;
310.8000;0.1465;-0.2518;
311.1000;0.1490;-0.2369;
311.4000;0.1457;-0.2369;
311.7000;0.1433;-0.2419;
312.0000;0.1457;-0.2294;
312.3000;0.1465;-0.2194;
312.6000;0.1449;-0.2394;
312.9000;0.1522;-0.2244;
313.2000;0.1449;-0.2394;
313.5000;0.1490;-0.2344;
313.8000;0.1457;-0.2419;
314.1000;0.1449;-0.2444;
314.4000;0.1441;-0.2468;
314.7000;0.1457;-0.2468;
315.0000;0.1457;-0.2419;
315.3000;0.1457;-0.2419;
315.6000;0.1441;-0.2419;
315.9000;0.1465;-0.2468;
316.2000;0.1457;-0.2444;
316.5000;0.1416;-0.2468;
316.8000;0.1433;-0.2394;
317.1000;0.1433;-0.2543;
317.4000;0.1425;-0.2518;
317.7000;0.1457;-0.2543;
318.0000;0.1514;-0.2394;
318.3000;0.1433;-0.2593;
318.6000;0.1498;-0.2444;
318.9000;0.1498;-0.2419;
319.2000;0.1465;-0.2468;
319.5000;0.1465;-0.2668;
319.8000;0.1538;-0.2419;
320.1000;0.1449;-0.2668;
320.4000;0.1457;-0.2693;
320.7000;0.1457;-0.2618;
321.0000;0.1425;-0.2643;
321.3000;0.1530;-0.2369;
321.6000;0.1465;-0.2543;
321.9000;0.1441;-0.2618;
322.2000;0.1473;-0.2593;
322.5000;0.1481;-0.2618;
322.8000;0.1506;-0.2593;
323.1000;0.1490;-0.2593;
323.4000;0.1457;-0.2618;
323.7000;0.1465;-0.2568;
324.0000;0.1490;-0.2518;
324.3000;0.1555;-0.2419;
324.6000;0.1465;-0.2668;
324.9000;0.1481;-0.2743;
325.2000;0.1490;-0.2668;
325.5000;0.1473;-0.2668;
325.8000;0.1465;-0.2618;
326.1000;0.1457;-0.2593;
326.4000;0.1473;-0.2493;
326.7000;0.1457;-0.2493;
327.0000;0.1481;-0.2444;
327.3000;0.1465;-0.2618;
327.6000;0.1490;-0.2543;
327.9000;0.1481;-0.2518;
328.2000;0.1473;-0.2518;
328.5000;0.1457;-0.2643;
328.8000;0.1425;-0.2793;
329.1000;0.1473;-0.2668;
329.4000;0.1473;-0.2593;
329.7000;0.1457;-0.2543;
330.0000;0.1441;-0.2593;
330.3000;0.1449;-0.2618;
330.6000;0.1465;-0.2543;
330.9000;0.1449;-0.2543;
331.2000;0.1465;-0.2518;
331.5000;0.1457;-0.2568;
331.8000;0.1465;-0.2518;
332.1000;0.1530;-0.2319;
332.4000;0.1465;-0.2593;
332.7000;0.1408;-0.2743;
333.0000;0.1465;-0.2743;
333.3000;0.1490;-0.2643;
333.6000;0.1547;-0.2394;
333.9000;0.1514;-0.2493;
334.2000;0.1490;-0.2543;
334.5000;0.1473;-0.2518;
334.8000;0.1490;-0.2444;
335.1000;0.1449;-0.2693;
335.4000;0.1465;-0.2618;
335.7000;0.1425;-0.2693;
336.0000;0.1449;-0.2668;
336.3000;0.1465;-0.2643;
336.6000;0.1490;-0.2643;
336.9000;0.1465;-0.2718;
337.2000;0.1449;-0.2793;
337.5000;0.1481;-0.2693;
337.8000;0.1433;-0.2793;
338.1000;0.1465;-0.2693;
338.4000;0.1433;-0.2818;
338.7000;0.1465;-0.2892;
339.0000;0.1473;-0.2793;
339.3000;0.1457;-0.2818;
339.6000;0.1473;-0.2718;
339.9000;0.1465;-0.2593;
340.2000;0.1473;-0.2593;
340.5000;0.1449;-0.2493;
340.8000;0.1441;-0.2543;
341.1000;0.1449;-0.2593;
341.4000;0.1473;-0.2568;
341.7000;0.1425;-0.2818;
342.0000;0.1457;-0.2618;
342.3000;0.1473;-0.2543;
342.6000;0.1506;-0.2493;
342.9000;0.1481;-0.2543;
343.2000;0.1465;-0.2568;
343.5000;0.1457;-0.2568;
343.8000;0.1522;-0.2394;
344.1000;0.1473;-0.2518;
344.4000;0.1465;-0.2543;
344.7000;0.1416;-0.2693;
345.0000;0.1457;-0.2543;
345.3000;0.1449;-0.2444;
345.6000;0.1457;-0.2369;
345.9000;0.1441;-0.2444;
346.2000;0.1441;-0.2493;
346.5000;0.1473;-0.2493;
346.8000;0.1457;-0.2618;
347.1000;0.1457;-0.2643;
347.4000;0.1465;-0.2618;
347.7000;0.1506;-0.2444;
348.0000;0.1457;-0.2518;
348.3000;0.1449;-0.2618;
348.6000;0.1416;-0.2743;
348.9000;0.1457;-0.2693;
349.2000;0.1433;-0.2768;
349.5000;0.1481;-0.2593;
349.8000;0.1473;-0.2643;
350.1000;0.1433;-0.2743;
350.4000;0.1457;-0.2693;
350.7000;0.1433;-0.2768;
351.0000;0.1449;-0.2743;
351.3000;0.1441;-0.2743;
351.6000;0.1457;-0.2668;
351.9000;0.1465;-0.2643;
352.2000;0.1465;-0.2693;
352.5000;0.1490;-0.2668;
352.8000;0.1465;-0.2668;
353.1000;0.1490;-0.2568;
353.4000;0.1473;-0.2618;
353.7000;0.1465;-0.2768;
354.0000;0.1449;-0.2892;
354.3000;0.1473;-0.2842;
354.6000;0.1481;-0.2768;
354.9000;0.1473;-0.2693;
355.2000;0.1457;-0.2618;
355.5000;0.1481;-0.2618;
355.8000;0.1473;-0.2618;
356.1000;0.1449;-0.2643;
356.4000;0.1465;-0.2643;
356.7000;0.1465;-0.2643;
357.0000;0.1514;-0.2493;
357.3000;0.1465;-0.2668;
357.6000;0.1425;-0.2793;
357.9000;0.1416;-0.2793;
358.2000;0.1441;-0.2693;
358.5000;0.1457;-0.2693;
358.8000;0.1449;-0.2718;
359.1000;0.1392;-0.2917;
359.4000;0.1465;-0.2693;
359.7000;0.1465;-0.2768;
360.0000;0.1425;-0.2917;
360.3000;0.1416;-0.2992;
360.6000;0.1481;-0.2768;
360.9000;0.1457;-0.2818;
361.2000;0.1433;-0.2942;
361.5000;0.1465;-0.2917;
361.8000;0.1465;-0.2793;
362.1000;0.1473;-0.2718;
362.4000;0.1465;-0.2743;
362.7000;0.1473;-0.2718;
363.0000;0.1457;-0.2768;
363.3000;0.1457;-0.2818;
363.6000;0.1425;-0.2892;
363.9000;0.1441;-0.2842;
364.2000;0.1465;-0.2768;
364.5000;0.1433;-0.2818;
364.8000;0.1441;-0.2718;
365.1000;0.1457;-0.2743;
365.4000;0.1473;-0.2718;
365.7000;0.1481;-0.2693;
366.0000;0.1481;-0.2668;
366.3000;0.1473;-0.2743;
366.6000;0.1465;-0.2743;
366.9000;0.1473;-0.2718;
367.2000;0.1481;-0.2668;
367.5000;0.1506;-0.2568;
367.8000;0.1506;-0.2618;
368.1000;0.1457;-0.2668;
368.4000;0.1465;-0.2668;
368.7000;0.1473;-0.2718;
369.0000;0.1449;-0.2818;
369.3000;0.1465;-0.2793;
369.6000;0.1416;-0.2892;
369.9000;0.1457;-0.2793;
370.2000;0.1481;-0.2743;
370.5000;0.1465;-0.2743;
370.8000;0.1457;-0.2818;
371.1000;0.1465;-0.2718;
371.4000;0.1449;-0.2768;
371.7000;0.1457;-0.2793;
372.0000;0.1473;-0.2842;
372.3000;0.1473;-0.2693;
372.6000;0.1465;-0.2768;
372.9000;0.1490;-0.2618;
373.2000;0.1449;-0.2693;
373.5000;0.1465;-0.2668;
373.8000;0.1481;-0.2718;
374.1000;0.1449;-0.2718;
374.4000;0.1481;-0.2668;
374.7000;0.1465;-0.2618;
375.0000;0.1506;-0.2593;
375.3000;0.1457;-0.2668;
375.6000;0.1457;-0.2668;
375.9000;0.1441;-0.2618;
376.2000;0.1465;-0.2593;
376.5000;0.1457;-0.2643;
376.8000;0.1457;-0.2668;
377.1000;0.1457;-0.2718;
377.4000;0.1449;-0.2793;
377.7000;0.1473;-0.2768;
378.0000;0.1465;-0.2818;
378.3000;0.1481;-0.2793;
378.6000;0.1473;-0.2793;
378.9000;0.1425;-0.2942;
379.2000;0.1473;-0.2818;
379.5000;0.1473;-0.2768;
379.8000;0.1465;-0.2743;
380.1000;0.1473;-0.2693;
380.4000;0.1490;-0.2668;
380.7000;0.1457;-0.2768;
381.0000;0.1579;-0.2444;
381.3000;0.1465;-0.2593;
381.6000;0.1457;-0.2518;
381.9000;0.1481;-0.2493;
382.2000;0.1473;-0.2543;
382.5000;0.1457;-0.2618;
382.8000;0.1457;-0.2668;
383.1000;0.1449;-0.2743;
383.4000;0.1441;-0.2668;
383.7000;0.1457;-0.2643;
384.0000;0.1498;-0.2593;
384.3000;0.1465;-0.2693;
384.6000;0.1465;-0.2718;
384.9000;0.1481;-0.2718;
385.2000;0.1481;-0.2618;
385.5000;0.1530;-0.2518;
385.8000;0.1457;-0.2818;
386.1000;0.1457;-0.2892;
386.4000;0.1571;-0.2493;
386.7000;0.1538;-0.2593;
387.0000;0.1473;-0.2718;
387.3000;0.1457;-0.2668;
387.6000;0.1465;-0.2568;
387.9000;0.1449;-0.2593;
388.2000;0.1449;-0.2568;
388.5000;0.1547;-0.2244;
388.8000;0.1481;-0.2444;
389.1000;0.1490;-0.2444;
389.4000;0.1481;-0.2518;
389.7000;0.1465;-0.2493;
390.0000;0.1425;-0.2543;
390.3000;0.1465;-0.2518;
390.6000;0.1481;-0.2419;
390.9000;0.1481;-0.2419;
391.2000;0.1449;-0.2518;
391.5000;0.1481;-0.2468;
391.8000;0.1498;-0.2444;
392.1000;0.1465;-0.2468;
392.4000;0.1449;-0.2493;
392.7000;0.1457;-0.2568;
393.0000;0.1473;-0.2593;
393.3000;0.1473;-0.2593;
393.6000;0.1522;-0.2394;
393.9000;0.1465;-0.2543;
394.2000;0.1473;-0.2493;
394.5000;0.1457;-0.2394;
394.8000;0.1465;-0.2444;
395.1000;0.1530;-0.2369;
395.4000;0.1433;-0.2718;
395.7000;0.1473;-0.2668;
396.0000;0.1449;-0.2743;
396.3000;0.1457;-0.2793;
396.6000;0.1457;-0.2842;
396.9000;0.1433;-0.2842;
397.2000;0.1449;-0.2718;
397.5000;0.1457;-0.2718;
397.8000;0.1473;-0.2593;
398.1000;0.1490;-0.2618;
398.4000;0.1465;-0.2593;
398.7000;0.1457;-0.2593;
399.0000;0.1473;-0.2593;
399.3000;0.1481;-0.2593;
399.6000;0.1465;-0.2668;
399.9000;0.1481;-0.2543;
400.2000;0.1465;-0.2618;
400.5000;0.1465;-0.2593;
400.8000;0.1473;-0.2568;
401.1000;0.1465;-0.2593;
401.4000;0.1481;-0.2568;
401.7000;0.1514;-0.2369;
402.0000;0.1465;-0.2493;
402.3000;0.1465;-0.2419;
402.6000;0.1481;-0.2493;
402.9000;0.1481;-0.2493;
403.2000;0.1571;-0.2194;
403.5000;0.1465;-0.2493;
403.8000;0.1473;-0.2419;
404.1000;0.1514;-0.2468;
404.4000;0.1473;-0.2543;
404.7000;0.1457;-0.2593;
405.0000;0.1465;-0.2593;
405.3000;0.1457;-0.2693;
405.6000;0.1449;-0.2693;
405.9000;0.1408;-0.2768;
406.2000;0.1384;-0.2867;
406.5000;0.1457;-0.2668;
406.8000;0.1465;-0.2743;
407.1000;0.1457;-0.2793;
407.4000;0.1481;-0.2768;
407.7000;0.1294;-0.3241;
408.0000;0.1481;-0.2643;
408.3000;0.1376;-0.2967;
408.6000;0.1481;-0.2718;
408.9000;0.1481;-0.2718;
409.2000;0.1473;-0.2743;
409.5000;0.1441;-0.2743;
409.8000;0.1465;-0.2643;
410.1000;0.1481;-0.2718;
410.4000;0.1465;-0.2668;
410.7000;0.1457;-0.2618;
411.0000;0.1473;-0.2618;
411.3000;0.1465;-0.2668;
411.6000;0.1457;-0.2768;
411.9000;0.1473;-0.2768;
412.2000;0.1465;-0.2793;
412.5000;0.1506;-0.2718;
412.8000;0.1457;-0.2668;
413.1000;0.1473;-0.2593;
413.4000;0.1481;-0.2593;
413.7000;0.1490;-0.2593;
414.0000;0.1465;-0.2618;
414.3000;0.1473;-0.2543;
414.6000;0.1481;-0.2593;
414.9000;0.1481;-0.2593;
415.2000;0.1457;-0.2668;
415.5000;0.1457;-0.2693;
415.8000;0.1481;-0.2643;
416.1000;0.1481;-0.2593;
416.4000;0.1473;-0.2643;
416.7000;0.1465;-0.2693;
417.0000;0.1481;-0.2668;
417.3000;0.1514;-0.2618;
417.6000;0.1506;-0.2568;
417.9000;0.1490;-0.2543;
418.2000;0.1465;-0.2668;
418.5000;0.1498;-0.2493;
418.8000;0.1465;-0.2593;
419.1000;0.1465;-0.2643;
419.4000;0.1490;-0.2593;
419.7000;0.1449;-0.2643;
420.0000;0.1449;-0.2568;
420.3000;0.1449;-0.2593;
420.6000;0.1522;-0.2344;
420.9000;0.1473;-0.2468;
421.2000;0.1441;-0.2468;
421.5000;0.1433;-0.2493;
421.8000;0.1441;-0.2593;
422.1000;0.1465;-0.2618;
422.4000;0.1457;-0.2593;
422.7000;0.1457;-0.2593;
423.0000;0.1490;-0.2593;
423.3000;0.1473;-0.2668;
423.6000;0.1481;-0.2643;
423.9000;0.1514;-0.2593;
424.2000;0.1481;-0.2693;
424.5000;0.1457;-0.2718;
424.8000;0.1457;-0.2743;
425.1000;0.1465;-0.2818;
425.4000;0.1433;-0.2967;
425.7000;0.1465;-0.2842;
426.0000;0.1457;-0.2793;
426.3000;0.1449;-0.2743;
426.6000;0.1465;-0.2693;
426.9000;0.1473;-0.2668;
427.2000;0.1506;-0.2468;
427.5000;0.1473;-0.2643;
427.8000;0.1449;-0.2743;
428.1000;0.1457;-0.2693;
428.4000;0.1425;-0.2768;
428.7000;0.1465;-0.2743;
429.0000;0.1457;-0.2793;
429.3000;0.1571;-0.2493;
429.6000;0.1457;-0.2718;
429.9000;0.1465;-0.2768;
430.2000;0.1465;-0.2793;
430.5000;0.1416;-0.2867;
430.8000;0.1473;-0.2743;
431.1000;0.1449;-0.2793;
431.4000;0.1457;-0.2718;
431.7000;0.1457;-0.2718;
432.0000;0.1465;-0.2693;
432.3000;0.1335;-0.3017;
432.6000;0.1408;-0.2743;
432.9000;0.1449;-0.2618;
433.2000;0.1481;-0.2568;
433.5000;0.1481;-0.2543;
433.8000;0.1465;-0.2543;
434.1000;0.1457;-0.2543;
434.4000;0.1465;-0.2468;
434.7000;0.1457;-0.2493;
435.0000;0.1441;-0.2518;
435.3000;0.1449;-0.2419;
435.6000;0.1465;-0.2518;
435.9000;0.1400;-0.2643;
436.2000;0.1481;-0.2468;
436.5000;0.1473;-0.2468;
436.8000;0.1473;-0.2493;
437.1000;0.1498;-0.2444;
437.4000;0.1449;-0.2419;
437.7000;0.1441;-0.2518;
438.0000;0.1473;-0.2419;
438.3000;0.1481;-0.2369;
438.6000;0.1465;-0.2444;
438.9000;0.1481;-0.2468;
439.2000;0.1457;-0.2543;
439.5000;0.1457;-0.2493;
439.8000;0.1441;-0.2618;
440.1000;0.1506;-0.2518;
440.4000;0.1457;-0.2718;
440.7000;0.1441;-0.2618;
441.0000;0.1457;-0.2593;
441.3000;0.1473;-0.2444;
441.6000;0.1425;-0.2419;
441.9000;0.1441;-0.2344;
442.2000;0.1465;-0.2394;
442.5000;0.1449;-0.2444;
442.8000;0.1449;-0.2543;
443.1000;0.1425;-0.2643;
443.4000;0.1457;-0.2568;
443.7000;0.1465;-0.2668;
444.0000;0.1490;-0.2568;
444.3000;0.1457;-0.2643;
444.6000;0.1449;-0.2643;
444.9000;0.1457;-0.2643;
445.2000;0.1441;-0.2668;
445.5000;0.1441;-0.2643;
445.8000;0.1457;-0.2643;
446.1000;0.1473;-0.2643;
446.4000;0.1473;-0.2743;
446.7000;0.1457;-0.2768;
447.0000;0.1449;-0.2842;
447.3000;0.1457;-0.2743;
447.6000;0.1473;-0.2668;
447.9000;0.1465;-0.2668;
448.2000;0.1498;-0.2468;
448.5000;0.1473;-0.2444;
448.8000;0.1473;-0.2444;
449.1000;0.1522;-0.2394;
449.4000;0.1465;-0.2593;
449.7000;0.1498;-0.2568;
450.0000;0.1555;-0.2468;
450.3000;0.1490;-0.2668;
450.6000;0.1457;-0.2618;
450.9000;0.1449;-0.2593;
451.2000;0.1465;-0.2543;
451.5000;0.1441;-0.2618;
451.8000;0.1490;-0.2468;
452.1000;0.1457;-0.2518;
452.4000;0.1465;-0.2468;
452.7000;0.1465;-0.2493;
453.0000;0.1376;-0.2718;
453.3000;0.1392;-0.2768;
453.6000;0.1457;-0.2543;
453.9000;0.1538;-0.2518;
454.2000;0.1425;-0.2818;
454.5000;0.1473;-0.2668;
454.8000;0.1449;-0.2718;
455.1000;0.1457;-0.2718;
455.4000;0.1408;-0.2917;
455.7000;0.1457;-0.2793;
456.0000;0.1449;-0.2818;
456.3000;0.1490;-0.2593;
456.6000;0.1465;-0.2643;
456.9000;0.1449;-0.2593;
457.2000;0.1457;-0.2593;
457.5000;0.1465;-0.2568;
457.8000;0.1457;-0.2593;
458.1000;0.1473;-0.2543;
458.4000;0.1465;-0.2493;
458.7000;0.1473;-0.2419;
459.0000;0.1457;-0.2468;
459.3000;0.1473;-0.2543;
459.6000;0.1457;-0.2593;
459.9000;0.1481;-0.2718;
460.2000;0.1481;-0.2718;
460.5000;0.1449;-0.2743;
460.8000;0.1473;-0.2693;
461.1000;0.1465;-0.2768;
461.4000;0.1449;-0.2793;
461.7000;0.1473;-0.2743;
462.0000;0.1457;-0.2818;
462.3000;0.1449;-0.2818;
462.6000;0.1481;-0.2743;
462.9000;0.1530;-0.2543;
463.2000;0.1457;-0.2793;
463.5000;0.1457;-0.2793;
463.8000;0.1465;-0.2718;
464.1000;0.1473;-0.2593;
464.4000;0.1498;-0.2518;
464.7000;0.1457;-0.2568;
465.0000;0.1433;-0.2618;
465.3000;0.1481;-0.2518;
465.6000;0.1449;-0.2593;
465.9000;0.1465;-0.2518;
466.2000;0.1449;-0.2493;
466.5000;0.1457;-0.2518;
466.8000;0.1449;-0.2444;
467.1000;0.1441;-0.2419;
467.4000;0.1392;-0.2568;
467.7000;0.1522;-0.2244;
468.0000;0.1449;-0.2369;
468.3000;0.1457;-0.2493;
468.6000;0.1441;-0.2518;
468.9000;0.1473;-0.2468;
469.2000;0.1465;-0.2468;
469.5000;0.1425;-0.2493;
469.8000;0.1441;-0.2468;
470.1000;0.1473;-0.2493;
470.4000;0.1465;-0.2394;
470.7000;0.1416;-0.2518;
471.0000;0.1457;-0.2493;
471.3000;0.1457;-0.2493;
471.6000;0.1465;-0.2444;
471.9000;0.1441;-0.2419;
472.2000;0.1433;-0.2394;
472.5000;0.1465;-0.2369;
472.8000;0.1498;-0.2294;
473.1000;0.1481;-0.2394;
473.4000;0.1449;-0.2543;
473.7000;0.1400;-0.2693;
474.0000;0.1433;-0.2643;
474.3000;0.1457;-0.2518;
474.6000;0.1457;-0.2568;
474.9000;0.1481;-0.2593;
475.2000;0.1416;-0.2768;
475.5000;0.1473;-0.2643;
475.8000;0.1449;-0.2693;
476.1000;0.1530;-0.2518;
476.4000;0.1449;-0.2768;
476.7000;0.1441;-0.2743;
477.0000;0.1408;-0.2842;
477.3000;0.1449;-0.2743;
477.6000;0.1457;-0.2693;
477.9000;0.1465;-0.2618;
478.2000;0.1449;-0.2618;
478.5000;0.1441;-0.2668;
478.8000;0.1433;-0.2643;
479.1000;0.1449;-0.2618;
479.4000;0.1473;-0.2643;
479.7000;0.1433;-0.2668;
480.0000;0.1441;-0.2618;
480.3000;0.1473;-0.2568;
480.6000;0.1449;-0.2593;
480.9000;0.1441;-0.2668;
481.2000;0.1441;-0.2693;
481.5000;0.1465;-0.2743;
481.8000;0.1425;-0.2917;
482.1000;0.1481;-0.2693;
482.4000;0.1514;-0.2543;
482.7000;0.1457;-0.2743;
483.0000;0.1465;-0.2768;
483.3000;0.1449;-0.2668;
483.6000;0.1465;-0.2618;
483.9000;0.1465;-0.2593;
484.2000;0.1481;-0.2593;
484.5000;0.1465;-0.2593;
484.8000;0.1473;-0.2543;
485.1000;0.1481;-0.2568;
485.4000;0.1449;-0.2618;
485.7000;0.1473;-0.2568;
486.0000;0.1465;-0.2618;
486.3000;0.1449;-0.2718;
486.6000;0.1457;-0.2618;
486.9000;0.1473;-0.2518;
487.2000;0.1490;-0.2444;
487.5000;0.1457;-0.2394;
487.8000;0.1473;-0.2394;
488.1000;0.1449;-0.2369;
488.4000;0.1416;-0.2518;
488.7000;0.1465;-0.2468;
489.0000;0.1449;-0.2618;
489.3000;0.1392;-0.2768;
489.6000;0.1538;-0.2394;
489.9000;0.1481;-0.2518;
490.2000;0.1441;-0.2518;
490.5000;0.1490;-0.2493;
490.8000;0.1465;-0.2593;
491.1000;0.1384;-0.2892;
491.4000;0.1465;-0.2643;
491.7000;0.1441;-0.2668;
492.0000;0.1400;-0.2743;
492.3000;0.1457;-0.2618;
492.6000;0.1449;-0.2643;
492.9000;0.1465;-0.2643;
493.2000;0.1473;-0.2643;
493.5000;0.1490;-0.2618;
493.8000;0.1457;-0.2693;
494.1000;0.1465;-0.2718;
494.4000;0.1481;-0.2668;
494.7000;0.1530;-0.2468;
495.0000;0.1465;-0.2593;
495.3000;0.1457;-0.2568;
495.6000;0.1481;-0.2543;
495.9000;0.1433;-0.2718;
496.2000;0.1481;-0.2718;
496.5000;0.1433;-0.2818;
496.8000;0.1465;-0.2693;
497.1000;0.1465;-0.2668;
497.4000;0.1457;-0.2693;
497.7000;0.1473;-0.2643;
498.0000;0.1433;-0.2718;
498.3000;0.1498;-0.2543;
498.6000;0.1457;-0.2618;
498.9000;0.1481;-0.2518;
499.2000;0.1530;-0.2294;
499.5000;0.1441;-0.2518;
499.8000;0.1465;-0.2468;
500.1000;0.1457;-0.2568;
500.4000;0.1457;-0.2643;
500.7000;0.1465;-0.2593;
501.0000;0.1473;-0.2543;
501.3000;0.1449;-0.2668;
501.6000;0.1465;-0.2568;
501.9000;0.1433;-0.2643;
502.2000;0.1408;-0.2693;
502.5000;0.1465;-0.2593;
502.8000;0.1441;-0.2593;
503.1000;0.1465;-0.2518;
503.4000;0.1481;-0.2468;
503.7000;0.1457;-0.2493;
504.0000;0.1449;-0.2593;
504.3000;0.1457;-0.2668;
504.6000;0.1473;-0.2643;
504.9000;0.1473;-0.2743;
505.2000;0.1449;-0.2793;
505.5000;0.1441;-0.2892;
505.8000;0.1457;-0.2842;
506.1000;0.1473;-0.2768;
506.4000;0.1425;-0.2917;
506.7000;0.1481;-0.2718;
507.0000;0.1408;-0.2818;
507.3000;0.1457;-0.2693;
507.6000;0.1441;-0.2818;
507.9000;0.1465;-0.2643;
508.2000;0.1473;-0.2643;
508.5000;0.1481;-0.2468;
508.8000;0.1465;-0.2468;
509.1000;0.1473;-0.2419;
509.4000;0.1408;-0.2593;
509.7000;0.1465;-0.2394;
510.0000;0.1449;-0.2369;
510.3000;0.1433;-0.2394;
510.6000;0.1449;-0.2319;
510.9000;0.1506;-0.2219;
511.2000;0.1449;-0.2394;
511.5000;0.1441;-0.2344;
511.8000;0.1449;-0.2369;
512.1000;0.1441;-0.2394;
512.4000;0.1457;-0.2419;
512.7000;0.1425;-0.2643;
513.0000;0.1441;-0.2668;
513.3000;0.1465;-0.2593;
513.6000;0.1449;-0.2593;
513.9000;0.1473;-0.2568;
514.2000;0.1465;-0.2593;
514.5000;0.1441;-0.2568;
514.8000;0.1465;-0.2543;
515.1000;0.1506;-0.2493;
515.4000;0.1473;-0.2568;
515.7000;0.1465;-0.2593;
516.0000;0.1433;-0.2643;
516.3000;0.1465;-0.2468;
516.6000;0.1457;-0.2419;
516.9000;0.1441;-0.2419;
517.2000;0.1457;-0.2468;
517.5000;0.1457;-0.2493;
517.8000;0.1465;-0.2493;
518.1000;0.1473;-0.2493;
518.4000;0.1490;-0.2468;
518.7000;0.1555;-0.2244;
519.0000;0.1465;-0.2568;
519.3000;0.1506;-0.2419;
519.6000;0.1490;-0.2468;
519.9000;0.1490;-0.2444;
520.2000;0.1506;-0.2369;
520.5000;0.1473;-0.2493;
520.8000;0.1465;-0.2493;
521.1000;0.1498;-0.2444;
521.4000;0.1481;-0.2518;
521.7000;0.1441;-0.2618;
522.0000;0.1465;-0.2618;
522.3000;0.1441;-0.2618;
522.6000;0.1457;-0.2518;
522.9000;0.1465;-0.2568;
523.2000;0.1465;-0.2543;
523.5000;0.1449;-0.2518;
523.8000;0.1490;-0.2419;
524.1000;0.1506;-0.2468;
524.4000;0.1392;-0.2743;
524.7000;0.1457;-0.2618;
525.0000;0.1465;-0.2568;
525.3000;0.1514;-0.2369;
525.6000;0.1441;-0.2593;
525.9000;0.1433;-0.2543;
526.2000;0.1465;-0.2493;
526.5000;0.1465;-0.2543;
526.8000;0.1441;-0.2568;
527.1000;0.1449;-0.2643;
527.4000;0.1416;-0.2842;
527.7000;0.1449;-0.2818;
528.0000;0.1457;-0.2793;
528.3000;0.1498;-0.2693;
528.6000;0.1481;-0.2718;
528.9000;0.1473;-0.2668;
529.2000;0.1473;-0.2743;
529.5000;0.1473;-0.2793;
529.8000;0.1498;-0.2743;
530.1000;0.1481;-0.2917;
530.4000;0.1481;-0.2942;
530.7000;0.1465;-0.2917;
531.0000;0.1498;-0.2743;
531.3000;0.1473;-0.2768;
531.6000;0.1457;-0.2768;
531.9000;0.1465;-0.2743;
532.2000;0.1449;-0.2718;
532.5000;0.1465;-0.2743;
532.8000;0.1457;-0.2668;
533.1000;0.1465;-0.2693;
533.4000;0.1473;-0.2668;
533.7000;0.1481;-0.2593;
534.0000;0.1465;-0.2643;
534.3000;0.1441;-0.2718;
534.6000;0.1457;-0.2743;
534.9000;0.1449;-0.2743;
535.2000;0.1465;-0.2593;
535.5000;0.1465;-0.2593;
535.8000;0.1457;-0.2568;
536.1000;0.1449;-0.2518;
536.4000;0.1457;-0.2468;
536.7000;0.1400;-0.2593;
537.0000;0.1433;-0.2593;
537.3000;0.1449;-0.2668;
537.6000;0.1465;-0.2668;
537.9000;0.1465;-0.2718;
538.2000;0.1473;-0.2693;
538.5000;0.1449;-0.2718;
538.8000;0.1465;-0.2618;
539.1000;0.1368;-0.2917;
539.4000;0.1449;-0.2668;
539.7000;0.1457;-0.2568;
540.0000;0.1457;-0.2568;
540.3000;0.1457;-0.2543;
540.6000;0.1481;-0.2444;
540.9000;0.1449;-0.2593;
541.2000;0.1473;-0.2518;
541.5000;0.1400;-0.2668;
541.8000;0.1441;-0.2593;
542.1000;0.1473;-0.2643;
542.4000;0.1441;-0.2668;
542.7000;0.1457;-0.2518;
543.0000;0.1473;-0.2543;
543.3000;0.1449;-0.2593;
543.6000;0.1506;-0.2468;
543.9000;0.1530;-0.2419;
544.2000;0.1481;-0.2518;
544.5000;0.1538;-0.2294;
544.8000;0.1457;-0.2444;
545.1000;0.1433;-0.2593;
545.4000;0.1416;-0.2643;
545.7000;0.1457;-0.2468;
546.0000;0.1457;-0.2518;
546.3000;0.1441;-0.2518;
546.6000;0.1473;-0.2369;
546.9000;0.1457;-0.2444;
547.2000;0.1441;-0.2394;
547.5000;0.1538;-0.2244;
547.8000;0.1449;-0.2518;
548.1000;0.1473;-0.2444;
548.4000;0.1433;-0.2518;
548.7000;0.1449;-0.2444;
549.0000;0.1465;-0.2444;
549.3000;0.1441;-0.2543;
549.6000;0.1441;-0.2543;
549.9000;0.1457;-0.2493;
550.2000;0.1449;-0.2444;
550.5000;0.1457;-0.2419;
550.8000;0.1433;-0.2568;
551.1000;0.1457;-0.2444;
551.4000;0.1457;-0.2493;
551.7000;0.1457;-0.2568;
552.0000;0.1457;-0.2543;
552.3000;0.1465;-0.2468;
552.6000;0.1465;-0.2444;
552.9000;0.1481;-0.2444;
553.2000;0.1490;-0.2468;
553.5000;0.1481;-0.2419;
553.8000;0.1490;-0.2369;
554.1000;0.1498;-0.2394;
554.4000;0.1490;-0.2493;
554.7000;0.1465;-0.2568;
555.0000;0.1465;-0.2493;
555.3000;0.1449;-0.2543;
555.6000;0.1481;-0.2394;
555.9000;0.1457;-0.2444;
556.2000;0.1449;-0.2468;
556.5000;0.1449;-0.2543;
556.8000;0.1465;-0.2518;
557.1000;0.1449;-0.2618;
557.4000;0.1465;-0.2618;
557.7000;0.1457;-0.2593;
558.0000;0.1473;-0.2593;
558.3000;0.1457;-0.2568;
558.6000;0.1433;-0.2593;
558.9000;0.1465;-0.2593;
559.2000;0.1457;-0.2643;
559.5000;0.1481;-0.2493;
559.8000;0.1376;-0.2818;
560.1000;0.1449;-0.2593;
560.4000;0.1465;-0.2693;
560.7000;0.1457;-0.2743;
561.0000;0.1473;-0.2643;
561.3000;0.1449;-0.2793;
561.6000;0.1473;-0.2718;
561.9000;0.1465;-0.2643;
562.2000;0.1538;-0.2269;
562.5000;0.1433;-0.2593;
562.8000;0.1490;-0.2394;
563.1000;0.1473;-0.2543;
563.4000;0.1433;-0.2618;
563.7000;0.1481;-0.2543;
564.0000;0.1368;-0.2842;
564.3000;0.1433;-0.2643;
564.6000;0.1481;-0.2468;
564.9000;0.1433;-0.2543;
565.2000;0.1351;-0.2718;
565.5000;0.1457;-0.2394;
565.8000;0.1498;-0.2219;
566.1000;0.1449;-0.2468;
566.4000;0.1457;-0.2543;
566.7000;0.1498;-0.2394;
567.0000;0.1514;-0.2419;
567.3000;0.1416;-0.2693;
567.6000;0.1441;-0.2518;
567.9000;0.1498;-0.2419;
568.2000;0.1449;-0.2593;
568.5000;0.1473;-0.2593;
568.8000;0.1457;-0.2593;
569.1000;0.1449;-0.2493;
569.4000;0.1465;-0.2468;
569.7000;0.1465;-0.2444;
570.0000;0.1449;-0.2493;
570.3000;0.1441;-0.2444;
570.6000;0.1465;-0.2468;
570.9000;0.1449;-0.2493;
571.2000;0.1449;-0.2493;
571.5000;0.1416;-0.2543;
571.8000;0.1425;-0.2543;
572.1000;0.1457;-0.2394;
572.4000;0.1441;-0.2493;
572.7000;0.1449;-0.2468;
573.0000;0.1457;-0.2543;
573.3000;0.1433;-0.2543;
573.6000;0.1457;-0.2419;
573.9000;0.1481;-0.2369;
574.2000;0.1457;-0.2419;
574.5000;0.1473;-0.2319;
574.8000;0.1457;-0.2369;
575.1000;0.1449;-0.2419;
575.4000;0.1425;-0.2543;
575.7000;0.1465;-0.2518;
576.0000;0.1457;-0.2444;
576.3000;0.1465;-0.2344;
576.6000;0.1473;-0.2294;
576.9000;0.1449;-0.2394;
577.2000;0.1465;-0.2444;
577.5000;0.1473;-0.2444;
577.8000;0.1522;-0.2394;
578.1000;0.1473;-0.2543;
578.4000;0.1481;-0.2444;
578.7000;0.1481;-0.2394;
579.0000;0.1449;-0.2394;
579.3000;0.1465;-0.2319;
579.6000;0.1457;-0.2369;
579.9000;0.1441;-0.2419;
580.2000;0.1425;-0.2419;
580.5000;0.1473;-0.2269;
580.8000;0.1433;-0.2369;
581.1000;0.1481;-0.2244;
581.4000;0.1433;-0.2518;
581.7000;0.1449;-0.2518;
582.0000;0.1465;-0.2419;
582.3000;0.1449;-0.2468;
582.6000;0.1506;-0.2394;
582.9000;0.1433;-0.2618;
583.2000;0.1481;-0.2543;
583.5000;0.1490;-0.2593;
583.8000;0.1457;-0.2643;
584.1000;0.1465;-0.2568;
584.4000;0.1465;-0.2568;
584.7000;0.1473;-0.2444;
585.0000;0.1473;-0.2394;
585.3000;0.1457;-0.2493;
585.6000;0.1498;-0.2468;
585.9000;0.1457;-0.2493;
586.2000;0.1481;-0.2394;
586.5000;0.1465;-0.2419;
586.8000;0.1449;-0.2444;
587.1000;0.1400;-0.2643;
587.4000;0.1457;-0.2593;
587.7000;0.1449;-0.2618;
588.0000;0.1473;-0.2568;
588.3000;0.1465;-0.2518;
588.6000;0.1457;-0.2568;
588.9000;0.1465;-0.2493;
589.2000;0.1457;-0.2518;
589.5000;0.1465;-0.2568;
589.8000;0.1481;-0.2543;
590.1000;0.1416;-0.2718;
590.4000;0.1465;-0.2668;
590.7000;0.1441;-0.2718;
591.0000;0.1457;-0.2693;
591.3000;0.1465;-0.2668;
591.6000;0.1457;-0.2618;
591.9000;0.1392;-0.2793;
592.2000;0.1457;-0.2643;
592.5000;0.1449;-0.2693;
592.8000;0.1449;-0.2668;
593.1000;0.1506;-0.2568;
593.4000;0.1473;-0.2543;
593.7000;0.1473;-0.2518;
594.0000;0.1465;-0.2593;
594.3000;0.1449;-0.2518;
594.6000;0.1441;-0.2493;
594.9000;0.1465;-0.2369;
595.2000;0.1481;-0.2294;
595.5000;0.1465;-0.2294;
595.8000;0.1457;-0.2319;
596.1000;0.1465;-0.2344;
596.4000;0.1457;-0.2269;
596.7000;0.1441;-0.2269;
597.0000;0.1441;-0.2319;
597.3000;0.1457;-0.2169;
597.6000;0.1416;-0.2319;
597.9000;0.1441;-0.2319;
598.2000;0.1457;-0.2394;
598.5000;0.1441;-0.2419;
598.8000;0.1473;-0.2319;
599.1000;0.1441;-0.2369;
599.4000;0.1538;-0.2069;
599.7000;0.1506;-0.2244;
600.0000;0.1465;-0.2444;
600.3000;0.1441;-0.2518;
600.6000;0.1441;-0.2618;
600.9000;0.1425;-0.2867;
601.2000;0.1457;-0.2942;
601.5000;0.1416;-0.3216;
601.8000;0.1392;-0.3441;
602.1000;0.1376;-0.3690;
602.4000;0.1425;-0.3765;
602.7000;0.1400;-0.3964;
603.0000;0.1351;-0.4164;
603.3000;0.1335;-0.4289;
603.6000;0.1351;-0.4214;
603.9000;0.1343;-0.4314;
604.2000;0.1335;-0.4513;
604.5000;0.1327;-0.4588;
604.8000;0.1343;-0.4588;
605.1000;0.1343;-0.4663;
605.4000;0.1278;-0.4887;
605.7000;0.1319;-0.4762;
606.0000;0.1335;-0.4712;
606.3000;0.1359;-0.4663;
606.6000;0.1302;-0.4812;
606.9000;0.1294;-0.4787;
607.2000;0.1302;-0.4812;
607.5000;0.1319;-0.4862;
607.8000;0.1311;-0.4912;
608.1000;0.1286;-0.5111;
608.4000;0.1311;-0.5161;
608.7000;0.1302;-0.5136;
609.0000;0.1302;-0.5136;
609.3000;0.1311;-0.5062;
609.6000;0.1278;-0.5161;
609.9000;0.1302;-0.5136;
610.2000;0.1311;-0.5236;
610.5000;0.1286;-0.5336;
610.8000;0.1294;-0.5411;
611.1000;0.1302;-0.5336;
611.4000;0.1294;-0.5336;
611.7000;0.1286;-0.5311;
612.0000;0.1286;-0.5311;
612.3000;0.1286;-0.5460;
612.6000;0.1286;-0.5436;
612.9000;0.1302;-0.5336;
613.2000;0.1278;-0.5411;
613.5000;0.1270;-0.5411;
613.8000;0.1270;-0.5311;
614.1000;0.1286;-0.5311;
614.4000;0.1286;-0.5261;
614.7000;0.1278;-0.5236;
615.0000;0.1286;-0.5211;
615.3000;0.1262;-0.5286;
615.6000;0.1278;-0.5261;
615.9000;0.1278;-0.5236;
616.2000;0.1327;-0.5186;
616.5000;0.1254;-0.5361;
616.8000;0.1278;-0.5386;
617.1000;0.1270;-0.5261;
617.4000;0.1270;-0.5236;
617.7000;0.1286;-0.5361;
618.0000;0.1278;-0.5386;
618.3000;0.1286;-0.5336;
618.6000;0.1254;-0.5361;
618.9000;0.1262;-0.5460;
619.2000;0.1245;-0.5610;
619.5000;0.1237;-0.5635;
619.8000;0.1286;-0.5560;
620.1000;0.1286;-0.5535;
620.4000;0.1294;-0.5485;
620.7000;0.1262;-0.5535;
621.0000;0.1286;-0.5510;
621.3000;0.1278;-0.5436;
621.6000;0.1294;-0.5460;
621.9000;0.1327;-0.5311;
622.2000;0.1262;-0.5411;
622.5000;0.1335;-0.5311;
622.8000;0.1286;-0.5411;
623.1000;0.1270;-0.5460;
623.4000;0.1286;-0.5485;
623.7000;0.1270;-0.5485;
624.0000;0.1270;-0.5535;
624.3000;0.1302;-0.5485;
624.6000;0.1327;-0.5436;
624.9000;0.1229;-0.5635;
625.2000;0.1270;-0.5585;
625.5000;0.1270;-0.5610;
625.8000;0.1270;-0.5585;
626.1000;0.1270;-0.5685;
626.4000;0.1294;-0.5635;
626.7000;0.1278;-0.5535;
627.0000;0.1270;-0.5535;
627.3000;0.1286;-0.5436;
627.6000;0.1278;-0.5361;
627.9000;0.1351;-0.5211;
628.2000;0.1302;-0.5386;
628.5000;0.1278;-0.5510;
628.8000;0.1270;-0.5510;
629.1000;0.1335;-0.5460;
629.4000;0.1302;-0.5660;
629.7000;0.1286;-0.5685;
630.0000;0.1262;-0.5760;
630.3000;0.1254;-0.5859;
630.6000;0.1294;-0.5710;
630.9000;0.1262;-0.5760;
631.2000;0.1302;-0.5660;
631.5000;0.1270;-0.5810;
631.8000;0.1286;-0.5735;
632.1000;0.1270;-0.5785;
632.4000;0.1245;-0.5909;
632.7000;0.1245;-0.5810;
633.0000;0.1188;-0.6009;
633.3000;0.1262;-0.5710;
633.6000;0.1221;-0.5810;
633.9000;0.1262;-0.5859;
634.2000;0.1254;-0.5859;
634.5000;0.1286;-0.5760;
634.8000;0.1270;-0.5834;
635.1000;0.1254;-0.5909;
635.4000;0.1294;-0.5834;
635.7000;0.1278;-0.5859;
636.0000;0.1254;-0.5884;
636.3000;0.1302;-0.5735;
636.6000;0.1237;-0.5834;
636.9000;0.1270;-0.5785;
637.2000;0.1278;-0.5785;
637.5000;0.1270;-0.5760;
637.8000;0.1237;-0.5760;
638.1000;0.1319;-0.5535;
638.4000;0.1278;-0.5660;
638.7000;0.1286;-0.5585;
639.0000;0.1270;-0.5585;
639.3000;0.1221;-0.5610;
639.6000;0.1286;-0.5535;
639.9000;0.1319;-0.5436;
640.2000;0.1245;-0.5635;
640.5000;0.1270;-0.5560;
640.8000;0.1229;-0.5660;
641.1000;0.1270;-0.5610;
641.4000;0.1270;-0.5685;
641.7000;0.1270;-0.5760;
642.0000;0.1237;-0.5884;
642.3000;0.1221;-0.5884;
642.6000;0.1278;-0.5760;
642.9000;0.1319;-0.5560;
643.2000;0.1286;-0.5610;
643.5000;0.1262;-0.5635;
643.8000;0.1311;-0.5560;
644.1000;0.1262;-0.5685;
644.4000;0.1327;-0.5510;
644.7000;0.1270;-0.5760;
645.0000;0.1278;-0.5760;
645.3000;0.1311;-0.5560;
645.6000;0.1262;-0.5710;
645.9000;0.1262;-0.5859;
646.2000;0.1262;-0.5909;
646.5000;0.1237;-0.5984;
646.8000;0.1270;-0.5884;
647.1000;0.1278;-0.5760;
647.4000;0.1302;-0.5710;
647.7000;0.1262;-0.5735;
648.0000;0.1270;-0.5760;
648.3000;0.1262;-0.5710;
648.6000;0.1294;-0.5635;
648.9000;0.1278;-0.5635;
649.2000;0.1278;-0.5685;
649.5000;0.1278;-0.5735;
649.8000;0.1294;-0.5760;
650.1000;0.1278;-0.5785;
650.4000;0.1221;-0.5959;
650.7000;0.1327;-0.5660;
651.0000;0.1294;-0.5785;
651.3000;0.1335;-0.5660;
651.6000;0.1270;-0.5735;
651.9000;0.1286;-0.5685;
652.2000;0.1278;-0.5660;
652.5000;0.1262;-0.5685;
652.8000;0.1254;-0.5710;
653.1000;0.1262;-0.5660;
653.4000;0.1286;-0.5585;
653.7000;0.1270;-0.5585;
654.0000;0.1237;-0.5785;
654.3000;0.1270;-0.5834;
654.6000;0.1262;-0.5884;
654.9000;0.1245;-0.5909;
655.2000;0.1262;-0.5810;
655.5000;0.1262;-0.5785;
655.8000;0.1262;-0.5859;
656.1000;0.1278;-0.5884;
656.4000;0.1245;-0.5959;
656.7000;0.1262;-0.5909;
657.0000;0.1262;-0.5959;
657.3000;0.1278;-0.6009;
657.6000;0.1245;-0.6159;
657.9000;0.1286;-0.5959;
658.2000;0.1237;-0.6034;
658.5000;0.1302;-0.5735;
658.8000;0.1270;-0.5735;
659.1000;0.1254;-0.5760;
659.4000;0.1286;-0.5735;
659.7000;0.1254;-0.5810;
660.0000;0.1302;-0.5660;
660.3000;0.1278;-0.5735;
660.6000;0.1254;-0.5585;
660.9000;0.1384;-0.5286;
661.2000;0.1311;-0.5560;
661.5000;0.1188;-0.5884;
661.8000;0.1262;-0.5685;
662.1000;0.1270;-0.5685;
662.4000;0.1213;-0.5934;
662.7000;0.1278;-0.5735;
663.0000;0.1278;-0.5735;
663.3000;0.1270;-0.5760;
663.6000;0.1237;-0.5834;
663.9000;0.1229;-0.5834;
664.2000;0.1270;-0.5735;
664.5000;0.1343;-0.5510;
664.8000;0.1270;-0.5660;
665.1000;0.1262;-0.5635;
665.4000;0.1229;-0.5810;
665.7000;0.1262;-0.5635;
666.0000;0.1262;-0.5685;
666.3000;0.1270;-0.5735;
666.6000;0.1270;-0.5710;
666.9000;0.1270;-0.5685;
667.2000;0.1270;-0.5585;
667.5000;0.1311;-0.5510;
667.8000;0.1245;-0.5685;
668.1000;0.1245;-0.5710;
668.4000;0.1278;-0.5560;
668.7000;0.1270;-0.5610;
669.0000;0.1335;-0.5535;
669.3000;0.1286;-0.5710;
669.6000;0.1286;-0.5660;
669.9000;0.1286;-0.5660;
670.2000;0.1286;-0.5635;
670.5000;0.1270;-0.5660;
670.8000;0.1270;-0.5610;
671.1000;0.1262;-0.5585;
671.4000;0.1278;-0.5660;
671.7000;0.1270;-0.5735;
672.0000;0.1278;-0.5660;
672.3000;0.1278;-0.5585;
672.6000;0.1302;-0.5610;
672.9000;0.1270;-0.5735;
673.2000;0.1270;-0.5685;
673.5000;0.1270;-0.5685;
673.8000;0.1254;-0.5785;
674.1000;0.1205;-0.5884;
674.4000;0.1286;-0.5710;
674.7000;0.1262;-0.5735;
675.0000;0.1278;-0.5735;
675.3000;0.1262;-0.5810;
675.6000;0.1311;-0.5735;
675.9000;0.1286;-0.5834;
676.2000;0.1335;-0.5660;
676.5000;0.1286;-0.5735;
676.8000;0.1278;-0.5735;
677.1000;0.1262;-0.5810;
677.4000;0.1311;-0.5610;
677.7000;0.1270;-0.5710;
678.0000;0.1221;-0.5810;
678.3000;0.1262;-0.5834;
678.6000;0.1262;-0.5785;
678.9000;0.1254;-0.5810;
679.2000;0.1254;-0.5760;
679.5000;0.1205;-0.5859;
679.8000;0.1270;-0.5635;
680.1000;0.1278;-0.5560;
680.4000;0.1221;-0.5660;
680.7000;0.1254;-0.5585;
681.0000;0.1254;-0.5610;
681.3000;0.1278;-0.5535;
681.6000;0.1245;-0.5560;
681.9000;0.1229;-0.5660;
682.2000;0.1294;-0.5560;
682.5000;0.1254;-0.5585;
682.8000;0.1262;-0.5610;
683.1000;0.1254;-0.5685;
683.4000;0.1262;-0.5710;
683.7000;0.1286;-0.5635;
684.0000;0.1286;-0.5585;
684.3000;0.1278;-0.5560;
684.6000;0.1270;-0.5685;
684.9000;0.1294;-0.5685;
685.2000;0.1270;-0.5710;
685.5000;0.1270;-0.5785;
685.8000;0.1262;-0.5884;
686.1000;0.1180;-0.6084;
686.4000;0.1262;-0.5810;
686.7000;0.1262;-0.5810;
687.0000;0.1254;-0.5884;
687.3000;0.1270;-0.5834;
687.6000;0.1278;-0.5735;
687.9000;0.1262;-0.5710;
688.2000;0.1270;-0.5760;
688.5000;0.1245;-0.5785;
688.8000;0.1270;-0.5760;
689.1000;0.1262;-0.5810;
689.4000;0.1254;-0.5760;
689.7000;0.1254;-0.5735;
690.0000;0.1359;-0.5411;
690.3000;0.1270;-0.5735;
690.6000;0.1237;-0.5810;
690.9000;0.1262;-0.5810;
691.2000;0.1254;-0.5859;
691.5000;0.1270;-0.5859;
691.8000;0.1262;-0.5909;
692.1000;0.1262;-0.5834;
692.4000;0.1311;-0.5635;
692.7000;0.1286;-0.5760;
693.0000;0.1254;-0.5735;
693.3000;0.1270;-0.5660;
693.6000;0.1262;-0.5710;
693.9000;0.1262;-0.5735;
694.2000;0.1286;-0.5685;
694.5000;0.1278;-0.5685;
694.8000;0.1270;-0.5635;
695.1000;0.1278;-0.5735;
695.4000;0.1311;-0.5710;
695.7000;0.1270;-0.5785;
696.0000;0.1262;-0.5735;
696.3000;0.1278;-0.5710;
696.6000;0.1319;-0.5585;
696.9000;0.1262;-0.5710;
697.2000;0.1245;-0.5785;
697.5000;0.1302;-0.5660;
697.8000;0.1270;-0.5785;
698.1000;0.1311;-0.5710;
698.4000;0.1229;-0.5859;
698.7000;0.1254;-0.5884;
699.0000;0.1262;-0.5934;
699.3000;0.1294;-0.5785;
699.6000;0.1270;-0.5884;
699.9000;0.1237;-0.5909;
700.2000;0.1254;-0.5810;
700.5000;0.1262;-0.5810;
700.8000;0.1270;-0.5660;
701.1000;0.1262;-0.5685;
701.4000;0.1245;-0.5760;
701.7000;0.1254;-0.5760;
702.0000;0.1270;-0.5685;
702.3000;0.1245;-0.5685;
702.6000;0.1270;-0.5585;
702.9000;0.1180;-0.5810;
703.2000;0.1180;-0.5785;
703.5000;0.1237;-0.5685;
703.8000;0.1278;-0.5685;
704.1000;0.1262;-0.5760;
704.4000;0.1270;-0.5760;
704.7000;0.1294;-0.5710;
705.0000;0.1254;-0.5760;
705.3000;0.1270;-0.5660;
705.6000;0.1311;-0.5560;
705.9000;0.1229;-0.5735;
706.2000;0.1254;-0.5685;
706.5000;0.1262;-0.5710;
706.8000;0.1262;-0.5710;
707.1000;0.1262;-0.5735;
707.4000;0.1254;-0.5735;
707.7000;0.1294;-0.5685;
708.0000;0.1270;-0.5785;
708.3000;0.1270;-0.5735;
708.6000;0.1294;-0.5635;
708.9000;0.1237;-0.5785;
709.2000;0.1294;-0.5585;
709.5000;0.1278;-0.5635;
709.8000;0.1286;-0.5535;
710.1000;0.1213;-0.5735;
710.4000;0.1229;-0.5735;
710.7000;0.1294;-0.5610;
711.0000;0.1278;-0.5635;
711.3000;0.1205;-0.5884;
711.6000;0.1254;-0.5810;
711.9000;0.1254;-0.5735;
712.2000;0.1254;-0.5760;
712.5000;0.1221;-0.5834;
712.8000;0.1172;-0.5959;
713.1000;0.1270;-0.5660;
713.4000;0.1278;-0.5560;
713.7000;0.1278;-0.5710;
714.0000;0.1262;-0.5735;
714.3000;0.1213;-0.5760;
714.6000;0.1294;-0.5610;
714.9000;0.1270;-0.5760;
715.2000;0.1294;-0.5760;
715.5000;0.1278;-0.5735;
715.8000;0.1286;-0.5660;
716.1000;0.1254;-0.5660;
716.4000;0.1245;-0.5685;
716.7000;0.1270;-0.5610;
717.0000;0.1278;-0.5685;
717.3000;0.1262;-0.5760;
717.6000;0.1254;-0.5710;
717.9000;0.1294;-0.5710;
718.2000;0.1311;-0.5710;
718.5000;0.1294;-0.5760;
718.8000;0.1213;-0.5984;
719.1000;0.1237;-0.5909;
719.4000;0.1278;-0.5735;
719.7000;0.1278;-0.5859;
720.0000;0.1278;-0.5909;
720.3000;0.1278;-0.5859;
720.6000;0.1262;-0.5810;
720.9000;0.1270;-0.5834;
721.2000;0.1270;-0.5810;
721.5000;0.1254;-0.5810;
721.8000;0.1237;-0.5909;
722.1000;0.1262;-0.5834;
722.4000;0.1262;-0.5984;
722.7000;0.1270;-0.5909;
723.0000;0.1286;-0.5735;
723.3000;0.1286;-0.5660;
723.6000;0.1270;-0.5610;
723.9000;0.1270;-0.5660;
724.2000;0.1245;-0.5735;
724.5000;0.1286;-0.5660;
724.8000;0.1262;-0.5710;
725.1000;0.1278;-0.5585;
725.4000;0.1262;-0.5610;
725.7000;0.1254;-0.5560;
726.0000;0.1270;-0.5485;
726.3000;0.1270;-0.5510;
726.6000;0.1262;-0.5560;
726.9000;0.1237;-0.5610;
727.2000;0.1302;-0.5436;
727.5000;0.1262;-0.5610;
727.8000;0.1294;-0.5660;
728.1000;0.1294;-0.5685;
728.4000;0.1270;-0.5735;
728.7000;0.1294;-0.5710;
729.0000;0.1245;-0.5760;
729.3000;0.1270;-0.5610;
729.6000;0.1245;-0.5710;
729.9000;0.1343;-0.5485;
730.2000;0.1262;-0.5710;
730.5000;0.1270;-0.5685;
730.8000;0.1270;-0.5760;
731.1000;0.1286;-0.5660;
731.4000;0.1221;-0.5834;
731.7000;0.1270;-0.5635;
732.0000;0.1254;-0.5660;
732.3000;0.1270;-0.5610;
732.6000;0.1254;-0.5660;
732.9000;0.1270;-0.5660;
733.2000;0.1278;-0.5585;
733.5000;0.1286;-0.5560;
733.8000;0.1270;-0.5785;
734.1000;0.1278;-0.5810;
734.4000;0.1254;-0.5785;
734.7000;0.1270;-0.5735;
735.0000;0.1302;-0.5685;
735.3000;0.1270;-0.5735;
735.6000;0.1262;-0.5610;
735.9000;0.1262;-0.5635;
736.2000;0.1311;-0.5535;
736.5000;0.1262;-0.5535;
736.8000;0.1262;-0.5610;
737.1000;0.1270;-0.5610;
737.4000;0.1294;-0.5386;
737.7000;0.1245;-0.5535;
738.0000;0.1270;-0.5610;
738.3000;0.1278;-0.5485;
738.6000;0.1294;-0.5460;
738.9000;0.1245;-0.5585;
739.2000;0.1262;-0.5585;
739.5000;0.1270;-0.5560;
739.8000;0.1270;-0.5660;
740.1000;0.1278;-0.5535;
740.4000;0.1270;-0.5660;
740.7000;0.1327;-0.5560;
741.0000;0.1270;-0.5710;
741.3000;0.1278;-0.5635;
741.6000;0.1278;-0.5535;
741.9000;0.1254;-0.5560;
742.2000;0.1270;-0.5485;
742.5000;0.1278;-0.5485;
742.8000;0.1262;-0.5460;
743.1000;0.1262;-0.5436;
743.4000;0.1278;-0.5485;
743.7000;0.1270;-0.5510;
744.0000;0.1270;-0.5460;
744.3000;0.1278;-0.5460;
744.6000;0.1229;-0.5560;
744.9000;0.1270;-0.5411;
745.2000;0.1180;-0.5685;
745.5000;0.1205;-0.5660;
745.8000;0.1262;-0.5535;
746.1000;0.1213;-0.5660;
746.4000;0.1278;-0.5485;
746.7000;0.1213;-0.5610;
747.0000;0.1254;-0.5436;
747.3000;0.1254;-0.5411;
747.6000;0.1270;-0.5386;
747.9000;0.1270;-0.5411;
748.2000;0.1245;-0.5510;
748.5000;0.1254;-0.5485;
748.8000;0.1278;-0.5535;
749.1000;0.1262;-0.5635;
749.4000;0.1278;-0.5560;
749.7000;0.1254;-0.5560;
750.0000;0.1294;-0.5510;
750.3000;0.1270;-0.5560;
750.6000;0.1319;-0.5436;
750.9000;0.1254;-0.5635;
751.2000;0.1286;-0.5510;
751.5000;0.1221;-0.5760;
751.8000;0.1270;-0.5585;
752.1000;0.1270;-0.5635;
752.4000;0.1254;-0.5660;
752.7000;0.1270;-0.5610;
753.0000;0.1245;-0.5660;
753.3000;0.1245;-0.5685;
753.6000;0.1294;-0.5610;
753.9000;0.1262;-0.5535;
754.2000;0.1286;-0.5610;
754.5000;0.1278;-0.5635;
754.8000;0.1262;-0.5585;
755.1000;0.1294;-0.5510;
755.4000;0.1172;-0.5884;
755.7000;0.1278;-0.5510;
756.0000;0.1286;-0.5485;
756.3000;0.1343;-0.5436;
756.6000;0.1262;-0.5535;
756.9000;0.1156;-0.5760;
757.2000;0.1221;-0.5560;
757.5000;0.1270;-0.5361;
757.8000;0.1270;-0.5411;
758.1000;0.1262;-0.5510;
758.4000;0.1254;-0.5535;
758.7000;0.1278;-0.5535;
759.0000;0.1270;-0.5460;
759.3000;0.1254;-0.5460;
759.6000;0.1254;-0.5560;
759.9000;0.1254;-0.5510;
760.2000;0.1270;-0.5510;
760.5000;0.1254;-0.5560;
760.8000;0.1221;-0.5685;
761.1000;0.1262;-0.5535;
761.4000;0.1245;-0.5685;
761.7000;0.1278;-0.5685;
762.0000;0.1254;-0.5710;
762.3000;0.1270;-0.5535;
762.6000;0.1286;-0.5510;
762.9000;0.1270;-0.5510;
763.2000;0.1286;-0.5560;
763.5000;0.1278;-0.5660;
763.8000;0.1278;-0.5635;
764.1000;0.1294;-0.5610;
764.4000;0.1262;-0.5635;
764.7000;0.1278;-0.5535;
765.0000;0.1270;-0.5535;
765.3000;0.1270;-0.5535;
765.6000;0.1286;-0.5510;
765.9000;0.1286;-0.5510;
766.2000;0.1278;-0.5535;
766.5000;0.1270;-0.5510;
766.8000;0.1270;-0.5535;
767.1000;0.1254;-0.5585;
767.4000;0.1262;-0.5585;
767.7000;0.1286;-0.5585;
768.0000;0.1278;-0.5535;
768.3000;0.1245;-0.5660;
768.6000;0.1213;-0.5710;
768.9000;0.1245;-0.5685;
769.2000;0.1270;-0.5635;
769.5000;0.1278;-0.5660;
769.8000;0.1262;-0.5660;
770.1000;0.1270;-0.5585;
770.4000;0.1278;-0.5560;
770.7000;0.1254;-0.5660;
771.0000;0.1262;-0.5635;
771.3000;0.1254;-0.5585;
771.6000;0.1237;-0.5635;
771.9000;0.1302;-0.5436;
772.2000;0.1245;-0.5610;
772.5000;0.1254;-0.5610;
772.8000;0.1270;-0.5610;
773.1000;0.1294;-0.5660;
773.4000;0.1270;-0.5685;
773.7000;0.1270;-0.5710;
774.0000;0.1262;-0.5785;
774.3000;0.1254;-0.5785;
774.6000;0.1319;-0.5685;
774.9000;0.1270;-0.5760;
775.2000;0.1294;-0.5735;
775.5000;0.1286;-0.5785;
775.8000;0.1254;-0.5760;
776.1000;0.1278;-0.5785;
776.4000;0.1302;-0.5635;
776.7000;0.1270;-0.5610;
777.0000;0.1270;-0.5660;
777.3000;0.1278;-0.5635;
777.6000;0.1164;-0.5959;
777.9000;0.1254;-0.5710;
778.2000;0.1270;-0.5660;
778.5000;0.1254;-0.5735;
778.8000;0.1286;-0.5560;
779.1000;0.1278;-0.5460;
779.4000;0.1262;-0.5535;
779.7000;0.1270;-0.5510;
780.0000;0.1237;-0.5635;
780.3000;0.1270;-0.5635;
780.6000;0.1270;-0.5660;
780.9000;0.1262;-0.5635;
781.2000;0.1245;-0.5685;
781.5000;0.1229;-0.5785;
781.8000;0.1294;-0.5685;
782.1000;0.1245;-0.5785;
782.4000;0.1254;-0.5660;
782.7000;0.1262;-0.5710;
783.0000;0.1286;-0.5585;
783.3000;0.1262;-0.5660;
783.6000;0.1262;-0.5585;
783.9000;0.1180;-0.5810;
784.2000;0.1270;-0.5585;
784.5000;0.1254;-0.5610;
784.8000;0.1262;-0.5660;
785.1000;0.1254;-0.5735;
785.4000;0.1319;-0.5585;
785.7000;0.1278;-0.5710;
786.0000;0.1262;-0.5735;
786.3000;0.1262;-0.5685;
786.6000;0.1270;-0.5685;
786.9000;0.1245;-0.5735;
787.2000;0.1294;-0.5685;
787.5000;0.1229;-0.5859;
787.8000;0.1270;-0.5710;
788.1000;0.1286;-0.5660;
788.4000;0.1278;-0.5735;
788.7000;0.1270;-0.5735;
789.0000;0.1278;-0.5660;
789.3000;0.1278;-0.5610;
789.6000;0.1254;-0.5660;
789.9000;0.1270;-0.5585;
790.2000;0.1270;-0.5510;
790.5000;0.1319;-0.5411;
790.8000;0.1286;-0.5610;
791.1000;0.1286;-0.5660;
791.4000;0.1270;-0.5735;
791.7000;0.1359;-0.5510;
792.0000;0.1262;-0.5760;
792.3000;0.1335;-0.5535;
792.6000;0.1278;-0.5660;
792.9000;0.1270;-0.5685;
793.2000;0.1270;-0.5660;
793.5000;0.1262;-0.5660;
793.8000;0.1262;-0.5610;
794.1000;0.1270;-0.5535;
794.4000;0.1262;-0.5635;
794.7000;0.1278;-0.5510;
795.0000;0.1270;-0.5510;
795.3000;0.1368;-0.5261;
795.6000;0.1270;-0.5535;
795.9000;0.1245;-0.5685;
796.2000;0.1262;-0.5685;
796.5000;0.1270;-0.5685;
796.8000;0.1278;-0.5635;
797.1000;0.1245;-0.5660;
797.4000;0.1262;-0.5660;
797.7000;0.1270;-0.5610;
798.0000;0.1262;-0.5560;
798.3000;0.1286;-0.5535;
798.6000;0.1262;-0.5635;
798.9000;0.1245;-0.5660;
799.2000;0.1262;-0.5585;
799.5000;0.1262;-0.5685;
799.8000;0.1319;-0.5535;
800.1000;0.1278;-0.5635;
800.4000;0.1270;-0.5635;
800.7000;0.1278;-0.5610;
801.0000;0.1262;-0.5635;
801.3000;0.1270;-0.5560;
801.6000;0.1270;-0.5535;
801.9000;0.1262;-0.5510;
802.2000;0.1278;-0.5485;
802.5000;0.1229;-0.5685;
802.8000;0.1278;-0.5560;
803.1000;0.1221;-0.5660;
803.4000;0.1294;-0.5436;
803.7000;0.1294;-0.5436;
804.0000;0.1294;-0.5485;
804.3000;0.1245;-0.5610;
804.6000;0.1270;-0.5535;
804.9000;0.1278;-0.5560;
805.2000;0.1286;-0.5535;
805.5000;0.1188;-0.5635;
805.8000;0.1278;-0.5336;
806.1000;0.1270;-0.5411;
806.4000;0.1278;-0.5436;
806.7000;0.1245;-0.5460;
807.0000;0.1213;-0.5535;
807.3000;0.1245;-0.5510;
807.6000;0.1254;-0.5560;
807.9000;0.1262;-0.5610;
808.2000;0.1262;-0.5585;
808.5000;0.1302;-0.5411;
808.8000;0.1254;-0.5560;
809.1000;0.1278;-0.5535;
809.4000;0.1351;-0.5336;
809.7000;0.1254;-0.5660;
810.0000;0.1278;-0.5635;
810.3000;0.1278;-0.5610;
810.6000;0.1294;-0.5635;
810.9000;0.1270;-0.5735;
811.2000;0.1278;-0.5685;
811.5000;0.1270;-0.5710;
811.8000;0.1262;-0.5685;
812.1000;0.1286;-0.5560;
812.4000;0.1311;-0.5460;
812.7000;0.1278;-0.5635;
813.0000;0.1237;-0.5735;
813.3000;0.1254;-0.5710;
813.6000;0.1262;-0.5760;
813.9000;0.1302;-0.5660;
814.2000;0.1254;-0.5884;
814.5000;0.1302;-0.5810;
814.8000;0.1262;-0.5909;
815.1000;0.1294;-0.5810;
815.4000;0.1262;-0.5884;
815.7000;0.1205;-0.5959;
816.0000;0.1286;-0.5660;
816.3000;0.1286;-0.5560;
816.6000;0.1213;-0.5685;
816.9000;0.1262;-0.5660;
817.2000;0.1245;-0.5685;
817.5000;0.1262;-0.5610;
817.8000;0.1254;-0.5635;
818.1000;0.1245;-0.5710;
818.4000;0.1262;-0.5660;
818.7000;0.1237;-0.5660;
819.0000;0.1278;-0.5635;
819.3000;0.1254;-0.5735;
819.6000;0.1278;-0.5635;
819.9000;0.1270;-0.5660;
820.2000;0.1278;-0.5635;
820.5000;0.1245;-0.5610;
820.8000;0.1262;-0.5560;
821.1000;0.1302;-0.5560;
821.4000;0.1254;-0.5535;
821.7000;0.1294;-0.5510;
822.0000;0.1262;-0.5535;
822.3000;0.1262;-0.5610;
822.6000;0.1270;-0.5685;
822.9000;0.1245;-0.5710;
823.2000;0.1262;-0.5710;
823.5000;0.1262;-0.5685;
823.8000;0.1262;-0.5660;
824.1000;0.1262;-0.5610;
824.4000;0.1294;-0.5585;
824.7000;0.1286;-0.5560;
825.0000;0.1278;-0.5585;
825.3000;0.1270;-0.5660;
825.6000;0.1254;-0.5685;
825.9000;0.1213;-0.5710;
826.2000;0.1254;-0.5535;
826.5000;0.1270;-0.5485;
826.8000;0.1262;-0.5460;
827.1000;0.1254;-0.5485;
827.4000;0.1180;-0.5735;
827.7000;0.1270;-0.5510;
828.0000;0.1278;-0.5585;
828.3000;0.1237;-0.5660;
828.6000;0.1245;-0.5660;
828.9000;0.1368;-0.5261;
829.2000;0.1254;-0.5535;
829.5000;0.1262;-0.5535;
829.8000;0.1368;-0.5286;
830.1000;0.1286;-0.5610;
830.4000;0.1302;-0.5485;
830.7000;0.1294;-0.5560;
831.0000;0.1286;-0.5535;
831.3000;0.1245;-0.5635;
831.6000;0.1302;-0.5510;
831.9000;0.1245;-0.5735;
832.2000;0.1262;-0.5635;
832.5000;0.1262;-0.5610;
832.8000;0.1229;-0.5735;
833.1000;0.1262;-0.5560;
833.4000;0.1262;-0.5535;
833.7000;0.1270;-0.5485;
834.0000;0.1294;-0.5510;
834.3000;0.1254;-0.5635;
834.6000;0.1278;-0.5560;
834.9000;0.1262;-0.5660;
835.2000;0.1278;-0.5710;
835.5000;0.1245;-0.5735;
835.8000;0.1286;-0.5635;
836.1000;0.1262;-0.5635;
836.4000;0.1262;-0.5635;
836.7000;0.1278;-0.5610;
837.0000;0.1262;-0.5610;
837.3000;0.1278;-0.5560;
837.6000;0.1270;-0.5535;
837.9000;0.1254;-0.5535;
838.2000;0.1270;-0.5510;
838.5000;0.1262;-0.5535;
838.8000;0.1270;-0.5560;
839.1000;0.1254;-0.5560;
839.4000;0.1270;-0.5585;
839.7000;0.1278;-0.5635;
840.0000;0.1270;-0.5610;
840.3000;0.1278;-0.5610;
840.6000;0.1262;-0.5585;
840.9000;0.1270;-0.5635;
841.2000;0.1270;-0.5635;
841.5000;0.1254;-0.5585;
841.8000;0.1262;-0.5585;
842.1000;0.1245;-0.5735;
842.4000;0.1262;-0.5710;
842.7000;0.1229;-0.5760;
843.0000;0.1262;-0.5760;
843.3000;0.1254;-0.5785;
843.6000;0.1254;-0.5834;
843.9000;0.1254;-0.5760;
844.2000;0.1278;-0.5735;
844.5000;0.1254;-0.5760;
844.8000;0.1270;-0.5810;
845.1000;0.1278;-0.5859;
845.4000;0.1294;-0.5760;
845.7000;0.1262;-0.5735;
846.0000;0.1278;-0.5710;
846.3000;0.1294;-0.5560;
846.6000;0.1270;-0.5560;
846.9000;0.1294;-0.5510;
847.2000;0.1319;-0.5460;
847.5000;0.1229;-0.5785;
847.8000;0.1221;-0.5884;
848.1000;0.1270;-0.5710;
848.4000;0.1254;-0.5685;
848.7000;0.1278;-0.5635;
849.0000;0.1278;-0.5660;
849.3000;0.1302;-0.5585;
849.6000;0.1327;-0.5560;
849.9000;0.1278;-0.5735;
850.2000;0.1245;-0.5735;
850.5000;0.1278;-0.5685;
850.8000;0.1213;-0.5834;
851.1000;0.1278;-0.5785;
851.4000;0.1270;-0.5735;
851.7000;0.1270;-0.5785;
852.0000;0.1278;-0.5834;
852.3000;0.1319;-0.5685;
852.6000;0.1262;-0.5859;
852.9000;0.1221;-0.5909;
853.2000;0.1245;-0.5760;
853.5000;0.1286;-0.5685;
853.8000;0.1221;-0.5884;
854.1000;0.1262;-0.5834;
854.4000;0.1262;-0.5760;
854.7000;0.1213;-0.5934;
855.0000;0.1254;-0.5710;
855.3000;0.1294;-0.5660;
855.6000;0.1278;-0.5685;
855.9000;0.1278;-0.5710;
856.2000;0.1270;-0.5660;
856.5000;0.1262;-0.5735;
856.8000;0.1270;-0.5735;
857.1000;0.1254;-0.5710;
857.4000;0.1278;-0.5635;
857.7000;0.1262;-0.5635;
858.0000;0.1278;-0.5735;
858.3000;0.1278;-0.5785;
858.6000;0.1270;-0.5710;
858.9000;0.1278;-0.5635;
859.2000;0.1237;-0.5685;
859.5000;0.1262;-0.5760;
859.8000;0.1278;-0.5710;
860.1000;0.1254;-0.5710;
860.4000;0.1278;-0.5610;
860.7000;0.1270;-0.5660;
861.0000;0.1262;-0.5660;
861.3000;0.1270;-0.5760;
861.6000;0.1262;-0.5685;
861.9000;0.1270;-0.5710;
862.2000;0.1229;-0.5685;
862.5000;0.1262;-0.5610;
862.8000;0.1302;-0.5610;
863.1000;0.1343;-0.5560;
863.4000;0.1254;-0.5710;
863.7000;0.1237;-0.5735;
864.0000;0.1262;-0.5660;
864.3000;0.1254;-0.5685;
864.6000;0.1278;-0.5660;
864.9000;0.1254;-0.5685;
865.2000;0.1270;-0.5660;
865.5000;0.1286;-0.5585;
865.8000;0.1278;-0.5585;
866.1000;0.1254;-0.5760;
866.4000;0.1245;-0.5735;
866.7000;0.1327;-0.5585;
867.0000;0.1254;-0.5735;
867.3000;0.1278;-0.5685;
867.6000;0.1245;-0.5859;
867.9000;0.1262;-0.5909;
868.2000;0.1254;-0.5984;
868.5000;0.1254;-0.5984;
868.8000;0.1343;-0.5760;
869.1000;0.1278;-0.5934;
869.4000;0.1262;-0.5984;
869.7000;0.1294;-0.5934;
870.0000;0.1270;-0.5984;
870.3000;0.1262;-0.5884;
870.6000;0.1270;-0.5810;
870.9000;0.1286;-0.5834;
871.2000;0.1237;-0.5884;
871.5000;0.1270;-0.5834;
871.8000;0.1245;-0.5834;
872.1000;0.1278;-0.5760;
872.4000;0.1278;-0.5785;
872.7000;0.1254;-0.5810;
873.0000;0.1262;-0.5735;
873.3000;0.1311;-0.5610;
873.6000;0.1262;-0.5735;
873.9000;0.1262;-0.5785;
874.2000;0.1237;-0.5810;
874.5000;0.1294;-0.5735;
874.8000;0.1278;-0.5735;
875.1000;0.1270;-0.5735;
875.4000;0.1254;-0.5760;
875.7000;0.1327;-0.5610;
876.0000;0.1278;-0.5710;
876.3000;0.1270;-0.5735;
876.6000;0.1245;-0.5884;
876.9000;0.1270;-0.5909;
877.2000;0.1262;-0.5934;
877.5000;0.1237;-0.6009;
877.8000;0.1164;-0.6233;
878.1000;0.1262;-0.6034;
878.4000;0.1237;-0.6084;
878.7000;0.1262;-0.6084;
879.0000;0.1270;-0.6009;
879.3000;0.1254;-0.5959;
879.6000;0.1245;-0.5909;
879.9000;0.1302;-0.5610;
880.2000;0.1270;-0.5660;
880.5000;0.1213;-0.5859;
880.8000;0.1359;-0.5560;
881.1000;0.1270;-0.5785;
881.4000;0.1286;-0.5685;
881.7000;0.1278;-0.5685;
882.0000;0.1278;-0.5685;
882.3000;0.1294;-0.5710;
882.6000;0.1254;-0.5735;
882.9000;0.1229;-0.5760;
883.2000;0.1294;-0.5610;
883.5000;0.1278;-0.5735;
883.8000;0.1262;-0.5735;
884.1000;0.1254;-0.5785;
884.4000;0.1278;-0.5710;
884.7000;0.1262;-0.5710;
885.0000;0.1262;-0.5735;
885.3000;0.1245;-0.5810;
885.6000;0.1262;-0.5760;
885.9000;0.1262;-0.5760;
886.2000;0.1262;-0.5735;
886.5000;0.1237;-0.5909;
886.8000;0.1237;-0.5884;
887.1000;0.1262;-0.5934;
887.4000;0.1262;-0.5810;
887.7000;0.1237;-0.5934;
888.0000;0.1262;-0.5884;
888.3000;0.1254;-0.5959;
888.6000;0.1262;-0.5909;
888.9000;0.1286;-0.5810;
889.2000;0.1254;-0.5834;
889.5000;0.1262;-0.5810;
889.8000;0.1270;-0.5760;
890.1000;0.1278;-0.5785;
890.4000;0.1278;-0.5859;
890.7000;0.1278;-0.5909;
891.0000;0.1270;-0.5834;
891.3000;0.1294;-0.5785;
891.6000;0.1254;-0.5859;
891.9000;0.1270;-0.5735;
892.2000;0.1229;-0.5785;
892.5000;0.1278;-0.5610;
892.8000;0.1262;-0.5660;
893.1000;0.1245;-0.5710;
893.4000;0.1278;-0.5660;
893.7000;0.1254;-0.5710;
894.0000;0.1237;-0.5760;
894.3000;0.1278;-0.5760;
894.6000;0.1278;-0.5859;
894.9000;0.1302;-0.5735;
895.2000;0.1278;-0.5884;
895.5000;0.1286;-0.5884;
895.8000;0.1262;-0.5909;
896.1000;0.1172;-0.6109;
896.4000;0.1278;-0.5810;
896.7000;0.1245;-0.5785;
897.0000;0.1286;-0.5685;
897.3000;0.1286;-0.5560;
897.6000;0.1286;-0.5585;
897.9000;0.1335;-0.5485;
898.2000;0.1278;-0.5560;
898.5000;0.1270;-0.5660;
898.8000;0.1286;-0.5635;
899.1000;0.1262;-0.5685;
899.4000;0.1327;-0.5535;
899.7000;0.1262;-0.5735;
900.0000;0.1262;-0.5685;
900.3000;0.1286;-0.5685;
900.6000;0.1262;-0.5810;
900.9000;0.1262;-0.5685;
901.2000;0.1278;-0.5660;
901.5000;0.1245;-0.5710;
901.8000;0.1278;-0.5585;
902.1000;0.1245;-0.5585;
902.4000;0.1278;-0.5560;
902.7000;0.1270;-0.5660;
903.0000;0.1245;-0.5660;
903.3000;0.1270;-0.5585;
903.6000;0.1254;-0.5585;
903.9000;0.1278;-0.5560;
904.2000;0.1270;-0.5560;
904.5000;0.1245;-0.5610;
904.8000;0.1262;-0.5585;
905.1000;0.1294;-0.5560;
905.4000;0.1270;-0.5635;
905.7000;0.1254;-0.5610;
906.0000;0.1278;-0.5610;
906.3000;0.1278;-0.5635;
906.6000;0.1278;-0.5685;
906.9000;0.1286;-0.5685;
907.2000;0.1278;-0.5710;
907.5000;0.1286;-0.5660;
907.8000;0.1245;-0.5760;
908.1000;0.1278;-0.5635;
908.4000;0.1254;-0.5660;
908.7000;0.1245;-0.5660;
909.0000;0.1270;-0.5635;
909.3000;0.1262;-0.5610;
909.6000;0.1262;-0.5635;
909.9000;0.1254;-0.5635;
910.2000;0.1270;-0.5585;
910.5000;0.1262;-0.5635;
910.8000;0.1278;-0.5510;
911.1000;0.1262;-0.5411;
911.4000;0.1286;-0.5386;
911.7000;0.1262;-0.5411;
912.0000;0.1262;-0.5386;
912.3000;0.1245;-0.5361;
912.6000;0.1262;-0.5261;
912.9000;0.1270;-0.5361;
913.2000;0.1270;-0.5336;
913.5000;0.1262;-0.5311;
913.8000;0.1245;-0.5411;
914.1000;0.1278;-0.5286;
914.4000;0.1294;-0.5311;
914.7000;0.1245;-0.5411;
915.0000;0.1286;-0.5411;
915.3000;0.1262;-0.5436;
915.6000;0.1262;-0.5510;
915.9000;0.1278;-0.5460;
916.2000;0.1270;-0.5386;
916.5000;0.1278;-0.5411;
916.8000;0.1270;-0.5361;
917.1000;0.1254;-0.5460;
917.4000;0.1262;-0.5510;
917.7000;0.1311;-0.5361;
918.0000;0.1294;-0.5510;
918.3000;0.1270;-0.5535;
918.6000;0.1270;-0.5535;
918.9000;0.1286;-0.5535;
919.2000;0.1245;-0.5535;
919.5000;0.1262;-0.5436;
919.8000;0.1262;-0.5386;
920.1000;0.1205;-0.5585;
920.4000;0.1302;-0.5386;
920.7000;0.1278;-0.5510;
921.0000;0.1286;-0.5560;
921.3000;0.1278;-0.5610;
921.6000;0.1294;-0.5560;
921.9000;0.1197;-0.5760;
922.2000;0.1254;-0.5635;
922.5000;0.1221;-0.5834;
922.8000;0.1311;-0.5585;
923.1000;0.1254;-0.5735;
923.4000;0.1229;-0.5810;
923.7000;0.1270;-0.5585;
924.0000;0.1278;-0.5610;
924.3000;0.1270;-0.5610;
924.6000;0.1286;-0.5585;
924.9000;0.1180;-0.5785;
925.2000;0.1278;-0.5560;
925.5000;0.1278;-0.5485;
925.8000;0.1286;-0.5510;
926.1000;0.1286;-0.5535;
926.4000;0.1270;-0.5610;
926.7000;0.1262;-0.5660;
927.0000;0.1278;-0.5610;
927.3000;0.1237;-0.5785;
927.6000;0.1254;-0.5810;
927.9000;0.1278;-0.5660;
928.2000;0.1294;-0.5610;
928.5000;0.1286;-0.5510;
928.8000;0.1294;-0.5510;
929.1000;0.1270;-0.5535;
929.4000;0.1270;-0.5560;
929.7000;0.1278;-0.5510;
930.0000;0.1262;-0.5510;
930.3000;0.1294;-0.5535;
930.6000;0.1221;-0.5810;
930.9000;0.1270;-0.5685;
931.2000;0.1262;-0.5685;
931.5000;0.1294;-0.5560;
931.8000;0.1278;-0.5510;
932.1000;0.1286;-0.5460;
932.4000;0.1262;-0.5560;
932.7000;0.1270;-0.5585;
933.0000;0.1294;-0.5460;
933.3000;0.1229;-0.5535;
933.6000;0.1278;-0.5361;
933.9000;0.1254;-0.5411;
934.2000;0.1237;-0.5436;
934.5000;0.1245;-0.5460;
934.8000;0.1262;-0.5460;
935.1000;0.1254;-0.5485;
935.4000;0.1278;-0.5460;
935.7000;0.1343;-0.5286;
936.0000;0.1254;-0.5510;
936.3000;0.1262;-0.5436;
936.6000;0.1270;-0.5436;
936.9000;0.1278;-0.5485;
937.2000;0.1270;-0.5510;
937.5000;0.1262;-0.5585;
937.8000;0.1270;-0.5585;
938.1000;0.1270;-0.5610;
938.4000;0.1262;-0.5585;
938.7000;0.1254;-0.5660;
939.0000;0.1294;-0.5610;
939.3000;0.1245;-0.5610;
939.6000;0.1278;-0.5485;
939.9000;0.1270;-0.5560;
940.2000;0.1270;-0.5535;
940.5000;0.1270;-0.5610;
940.8000;0.1302;-0.5535;
941.1000;0.1278;-0.5685;
941.4000;0.1278;-0.5760;
941.7000;0.1278;-0.5685;
942.0000;0.1278;-0.5560;
942.3000;0.1254;-0.5635;
942.6000;0.1294;-0.5585;
942.9000;0.1270;-0.5660;
943.2000;0.1270;-0.5610;
943.5000;0.1254;-0.5660;
943.8000;0.1237;-0.5610;
944.1000;0.1254;-0.5510;
944.4000;0.1237;-0.5535;
944.7000;0.1294;-0.5436;
945.0000;0.1278;-0.5460;
945.3000;0.1229;-0.5635;
945.6000;0.1229;-0.5760;
945.9000;0.1254;-0.5685;
946.2000;0.1278;-0.5535;
946.5000;0.1254;-0.5510;
946.8000;0.1311;-0.5336;
947.1000;0.1270;-0.5361;
947.4000;0.1245;-0.5460;
947.7000;0.1270;-0.5560;
948.0000;0.1311;-0.5535;
948.3000;0.1213;-0.5660;
948.6000;0.1262;-0.5510;
948.9000;0.1262;-0.5510;
949.2000;0.1262;-0.5485;
949.5000;0.1270;-0.5460;
949.8000;0.1278;-0.5535;
950.1000;0.1262;-0.5560;
950.4000;0.1254;-0.5510;
950.7000;0.1302;-0.5411;
951.0000;0.1278;-0.5411;
951.3000;0.1262;-0.5436;
951.6000;0.1270;-0.5510;
951.9000;0.1270;-0.5485;
952.2000;0.1278;-0.5460;
952.5000;0.1237;-0.5560;
952.8000;0.1262;-0.5535;
953.1000;0.1245;-0.5510;
953.4000;0.1262;-0.5460;
953.7000;0.1254;-0.5485;
954.0000;0.1270;-0.5485;
954.3000;0.1270;-0.5436;
954.6000;0.1278;-0.5411;
954.9000;0.1270;-0.5411;
955.2000;0.1237;-0.5535;
955.5000;0.1270;-0.5386;
955.8000;0.1278;-0.5286;
956.1000;0.1270;-0.5361;
956.4000;0.1262;-0.5336;
956.7000;0.1262;-0.5361;
957.0000;0.1286;-0.5286;
957.3000;0.1270;-0.5361;
957.6000;0.1237;-0.5460;
957.9000;0.1270;-0.5436;
958.2000;0.1262;-0.5510;
958.5000;0.1286;-0.5535;
958.8000;0.1270;-0.5560;
959.1000;0.1229;-0.5635;
959.4000;0.1278;-0.5460;
959.7000;0.1262;-0.5560;
960.0000;0.1278;-0.5535;
960.3000;0.1278;-0.5510;
960.6000;0.1278;-0.5610;
960.9000;0.1302;-0.5635;
961.2000;0.1278;-0.5760;
961.5000;0.1294;-0.5735;
961.8000;0.1270;-0.5834;
962.1000;0.1286;-0.5810;
962.4000;0.1270;-0.5760;
962.7000;0.1278;-0.5785;
963.0000;0.1270;-0.5735;
963.3000;0.1278;-0.5810;
963.6000;0.1278;-0.5785;
963.9000;0.1237;-0.5859;
964.2000;0.1254;-0.5810;
964.5000;0.1286;-0.5710;
964.8000;0.1286;-0.5685;
965.1000;0.1262;-0.5859;
965.4000;0.1254;-0.5909;
965.7000;0.1294;-0.5760;
966.0000;0.1278;-0.5610;
966.3000;0.1286;-0.5610;
966.6000;0.1286;-0.5610;
966.9000;0.1270;-0.5585;
967.2000;0.1294;-0.5510;
967.5000;0.1278;-0.5560;
967.8000;0.1278;-0.5585;
968.1000;0.1262;-0.5635;
968.4000;0.1205;-0.5834;
968.7000;0.1254;-0.5685;
969.0000;0.1278;-0.5635;
969.3000;0.1254;-0.5710;
969.6000;0.1229;-0.5785;
969.9000;0.1213;-0.5785;
970.2000;0.1278;-0.5660;
970.5000;0.1237;-0.5635;
970.8000;0.1270;-0.5585;
971.1000;0.1286;-0.5610;
971.4000;0.1286;-0.5560;
971.7000;0.1278;-0.5585;
972.0000;0.1286;-0.5560;
972.3000;0.1294;-0.5560;
972.6000;0.1278;-0.5510;
972.9000;0.1319;-0.5386;
973.2000;0.1278;-0.5610;
973.5000;0.1245;-0.5610;
973.8000;0.1237;-0.5635;
974.1000;0.1270;-0.5660;
974.4000;0.1278;-0.5685;
974.7000;0.1262;-0.5560;
975.0000;0.1270;-0.5635;
975.3000;0.1302;-0.5610;
975.6000;0.1254;-0.5685;
975.9000;0.1286;-0.5660;
976.2000;0.1286;-0.5735;
976.5000;0.1286;-0.5785;
976.8000;0.1270;-0.5909;
977.1000;0.1270;-0.6009;
977.4000;0.1278;-0.5909;
977.7000;0.1262;-0.5785;
978.0000;0.1270;-0.5610;
978.3000;0.1254;-0.5635;
978.6000;0.1302;-0.5585;
978.9000;0.1278;-0.5585;
979.2000;0.1262;-0.5635;
979.5000;0.1254;-0.5685;
979.8000;0.1278;-0.5685;
980.1000;0.1286;-0.5560;
980.4000;0.1278;-0.5560;
980.7000;0.1286;-0.5560;
981.0000;0.1311;-0.5585;
981.3000;0.1286;-0.5660;
981.6000;0.1311;-0.5610;
981.9000;0.1278;-0.5710;
982.2000;0.1278;-0.5685;
982.5000;0.1188;-0.5909;
982.8000;0.1278;-0.5685;
983.1000;0.1294;-0.5585;
983.4000;0.1245;-0.5560;
983.7000;0.1245;-0.5510;
984.0000;0.1270;-0.5386;
984.3000;0.1254;-0.5585;
984.6000;0.1278;-0.5510;
984.9000;0.1262;-0.5510;
985.2000;0.1278;-0.5535;
985.5000;0.1270;-0.5560;
985.8000;0.1278;-0.5560;
986.1000;0.1278;-0.5535;
986.4000;0.1278;-0.5535;
986.7000;0.1286;-0.5485;
987.0000;0.1270;-0.5460;
987.3000;0.1294;-0.5460;
987.6000;0.1286;-0.5485;
987.9000;0.1254;-0.5585;
988.2000;0.1294;-0.5535;
988.5000;0.1245;-0.5585;
988.8000;0.1262;-0.5510;
989.1000;0.1262;-0.5485;
989.4000;0.1254;-0.5535;
989.7000;0.1286;-0.5436;
990.0000;0.1237;-0.5460;
990.3000;0.1343;-0.5236;
990.6000;0.1262;-0.5386;
990.9000;0.1278;-0.5336;
991.2000;0.1294;-0.5436;
991.5000;0.1294;-0.5311;
991.8000;0.1270;-0.5361;
992.1000;0.1254;-0.5460;
992.4000;0.1270;-0.5361;
992.7000;0.1245;-0.5510;
993.0000;0.1262;-0.5585;
993.3000;0.1262;-0.5560;
993.6000;0.1270;-0.5610;
993.9000;0.1262;-0.5660;
994.2000;0.1262;-0.5710;
994.5000;0.1286;-0.5660;
994.8000;0.1286;-0.5735;
995.1000;0.1262;-0.5785;
995.4000;0.1286;-0.5834;
995.7000;0.1278;-0.5660;
996.0000;0.1254;-0.5560;
996.3000;0.1286;-0.5436;
996.6000;0.1286;-0.5436;
996.9000;0.1270;-0.5336;
997.2000;0.1262;-0.5336;
997.5000;0.1237;-0.5361;
997.8000;0.1278;-0.5361;
998.1000;0.1278;-0.5436;
998.4000;0.1278;-0.5510;
998.7000;0.1254;-0.5535;
999.0000;0.1270;-0.5436;
999.3000;0.1270;-0.5510;
999.6000;0.1229;-0.5660;
999.9000;0.1262;-0.5585;
1000.2000;0.1335;-0.5436;
1000.5000;0.1311;-0.5436;
1000.8000;0.1294;-0.5485;
1001.1000;0.1294;-0.5485;
1001.4000;0.1278;-0.5510;
1001.7000;0.1286;-0.5585;
1002.0000;0.1270;-0.5610;
1002.3000;0.1254;-0.5635;
1002.6000;0.1237;-0.5535;
1002.9000;0.1278;-0.5411;
1003.2000;0.1270;-0.5535;
1003.5000;0.1172;-0.5735;
1003.8000;0.1270;-0.5560;
1004.1000;0.1262;-0.5560;
1004.4000;0.1286;-0.5535;
1004.7000;0.1237;-0.5560;
1005.0000;0.1254;-0.5585;
1005.3000;0.1278;-0.5460;
1005.6000;0.1229;-0.5510;
1005.9000;0.1270;-0.5485;
1006.2000;0.1262;-0.5635;
1006.5000;0.1262;-0.5610;
1006.8000;0.1278;-0.5585;
1007.1000;0.1254;-0.5834;
1007.4000;0.1237;-0.5785;
1007.7000;0.1229;-0.5884;
1008.0000;0.1278;-0.5810;
1008.3000;0.1286;-0.5760;
1008.6000;0.1262;-0.5760;
1008.9000;0.1188;-0.5884;
1009.2000;0.1262;-0.5685;
1009.5000;0.1278;-0.5635;
1009.8000;0.1237;-0.5710;
1010.1000;0.1245;-0.5785;
1010.4000;0.1254;-0.5785;
1010.7000;0.1335;-0.5635;
1011.0000;0.1278;-0.5685;
1011.3000;0.1262;-0.5735;
1011.6000;0.1302;-0.5560;
1011.9000;0.1237;-0.5660;
1012.2000;0.1270;-0.5585;
1012.5000;0.1229;-0.5735;
1012.8000;0.1262;-0.5635;
1013.1000;0.1221;-0.5760;
1013.4000;0.1270;-0.5635;
1013.7000;0.1262;-0.5685;
1014.0000;0.1327;-0.5485;
1014.3000;0.1262;-0.5560;
1014.6000;0.1270;-0.5585;
1014.9000;0.1319;-0.5485;
1015.2000;0.1270;-0.5635;
1015.5000;0.1254;-0.5560;
1015.8000;0.1270;-0.5610;
1016.1000;0.1270;-0.5635;
1016.4000;0.1270;-0.5685;
1016.7000;0.1270;-0.5635;
1017.0000;0.1270;-0.5710;
1017.3000;0.1270;-0.5660;
1017.6000;0.1270;-0.5710;
1017.9000;0.1254;-0.5959;
1018.2000;0.1270;-0.5909;
1018.5000;0.1262;-0.5785;
1018.8000;0.1319;-0.5485;
1019.1000;0.1254;-0.5660;
1019.4000;0.1286;-0.5535;
1019.7000;0.1278;-0.5510;
1020.0000;0.1270;-0.5585;
1020.3000;0.1278;-0.5560;
1020.6000;0.1294;-0.5436;
1020.9000;0.1294;-0.5460;
1021.2000;0.1311;-0.5510;
1021.5000;0.1278;-0.5510;
1021.8000;0.1294;-0.5436;
1022.1000;0.1278;-0.5336;
1022.4000;0.1278;-0.5361;
1022.7000;0.1270;-0.5386;
1023.0000;0.1262;-0.5510;
1023.3000;0.1278;-0.5560;
1023.6000;0.1278;-0.5560;
1023.9000;0.1278;-0.5535;
1024.2000;0.1254;-0.5560;
1024.5000;0.1278;-0.5510;
1024.8000;0.1286;-0.5560;
1025.1000;0.1302;-0.5485;
1025.4000;0.1286;-0.5635;
1025.7000;0.1270;-0.5660;
1026.0000;0.1278;-0.5660;
1026.3000;0.1278;-0.5660;
1026.6000;0.1262;-0.5685;
1026.9000;0.1254;-0.5660;
1027.2000;0.1286;-0.5535;
1027.5000;0.1270;-0.5685;
1027.8000;0.1254;-0.5710;
1028.1000;0.1294;-0.5660;
1028.4000;0.1254;-0.5710;
1028.7000;0.1270;-0.5685;
1029.0000;0.1286;-0.5635;
1029.3000;0.1286;-0.5710;
1029.6000;0.1270;-0.5710;
1029.9000;0.1262;-0.5685;
1030.2000;0.1262;-0.5735;
1030.5000;0.1278;-0.5660;
1030.8000;0.1343;-0.5460;
1031.1000;0.1270;-0.5635;
1031.4000;0.1254;-0.5635;
1031.7000;0.1278;-0.5585;
1032.0000;0.1270;-0.5660;
1032.3000;0.1278;-0.5635;
1032.6000;0.1286;-0.5560;
1032.9000;0.1254;-0.5610;
1033.2000;0.1262;-0.5560;
1033.5000;0.1278;-0.5510;
1033.8000;0.1294;-0.5460;
1034.1000;0.1262;-0.5510;
1034.4000;0.1294;-0.5460;
1034.7000;0.1319;-0.5411;
1035.0000;0.1286;-0.5510;
1035.3000;0.1286;-0.5585;
1035.6000;0.1270;-0.5635;
1035.9000;0.1270;-0.5685;
1036.2000;0.1205;-0.5959;
1036.5000;0.1254;-0.5834;
1036.8000;0.1286;-0.5710;
1037.1000;0.1270;-0.5660;
1037.4000;0.1278;-0.5610;
1037.7000;0.1262;-0.5610;
1038.0000;0.1278;-0.5585;
1038.3000;0.1286;-0.5610;
1038.6000;0.1286;-0.5535;
1038.9000;0.1262;-0.5660;
1039.2000;0.1245;-0.5685;
1039.5000;0.1245;-0.5735;
1039.8000;0.1278;-0.5660;
1040.1000;0.1262;-0.5760;
1040.4000;0.1229;-0.5834;
1040.7000;0.1286;-0.5635;
1041.0000;0.1229;-0.5785;
1041.3000;0.1237;-0.5785;
1041.6000;0.1311;-0.5535;
1041.9000;0.1229;-0.5610;
1042.2000;0.1270;-0.5560;
1042.5000;0.1270;-0.5685;
1042.8000;0.1245;-0.5735;
1043.1000;0.1254;-0.5735;
1043.4000;0.1270;-0.5735;
1043.7000;0.1262;-0.5810;
1044.0000;0.1270;-0.5710;
1044.3000;0.1278;-0.5760;
1044.6000;0.1327;-0.5585;
1044.9000;0.1286;-0.5535;
1045.2000;0.1254;-0.5635;
1045.5000;0.1245;-0.5710;
1045.8000;0.1254;-0.5660;
1046.1000;0.1278;-0.5585;
1046.4000;0.1286;-0.5610;
1046.7000;0.1270;-0.5635;
1047.0000;0.1286;-0.5485;
1047.3000;0.1270;-0.5436;
1047.6000;0.1278;-0.5485;
1047.9000;0.1278;-0.5510;
1048.2000;0.1270;-0.5560;
1048.5000;0.1262;-0.5560;
1048.8000;0.1262;-0.5560;
1049.1000;0.1262;-0.5585;
1049.4000;0.1262;-0.5535;
1049.7000;0.1270;-0.5436;
1050.0000;0.1278;-0.5411;
1050.3000;0.1270;-0.5510;
1050.6000;0.1319;-0.5361;
1050.9000;0.1270;-0.5535;
1051.2000;0.1262;-0.5460;
1051.5000;0.1335;-0.5286;
1051.8000;0.1278;-0.5460;
1052.1000;0.1270;-0.5585;
1052.4000;0.1278;-0.5535;
1052.7000;0.1286;-0.5535;
1053.0000;0.1278;-0.5535;
1053.3000;0.1254;-0.5585;
1053.6000;0.1270;-0.5660;
1053.9000;0.1254;-0.5610;
1054.2000;0.1254;-0.5485;
1054.5000;0.1254;-0.5460;
1054.8000;0.1327;-0.5386;
1055.1000;0.1286;-0.5460;
1055.4000;0.1262;-0.5510;
1055.7000;0.1294;-0.5436;
1056.0000;0.1270;-0.5485;
1056.3000;0.1270;-0.5510;
1056.6000;0.1213;-0.5610;
1056.9000;0.1286;-0.5411;
1057.2000;0.1278;-0.5411;
1057.5000;0.1278;-0.5460;
1057.8000;0.1254;-0.5560;
1058.1000;0.1278;-0.5585;
1058.4000;0.1311;-0.5510;
1058.7000;0.1286;-0.5710;
1059.0000;0.1294;-0.5635;
1059.3000;0.1262;-0.5685;
1059.6000;0.1343;-0.5460;
1059.9000;0.1205;-0.5760;
1060.2000;0.1270;-0.5535;
1060.5000;0.1270;-0.5510;
1060.8000;0.1237;-0.5535;
1061.1000;0.1278;-0.5386;
1061.4000;0.1278;-0.5436;
1061.7000;0.1278;-0.5535;
1062.0000;0.1270;-0.5585;
1062.3000;0.1319;-0.5510;
1062.6000;0.1278;-0.5635;
1062.9000;0.1254;-0.5735;
1063.2000;0.1254;-0.5834;
1063.5000;0.1245;-0.5810;
1063.8000;0.1262;-0.5834;
1064.1000;0.1262;-0.5785;
1064.4000;0.1180;-0.5984;
1064.7000;0.1237;-0.5710;
1065.0000;0.1262;-0.5660;
1065.3000;0.1294;-0.5485;
1065.6000;0.1254;-0.5535;
1065.9000;0.1262;-0.5560;
1066.2000;0.1270;-0.5510;
1066.5000;0.1262;-0.5560;
1066.8000;0.1278;-0.5585;
1067.1000;0.1278;-0.5710;
1067.4000;0.1262;-0.5685;
1067.7000;0.1262;-0.5685;
1068.0000;0.1270;-0.5710;
1068.3000;0.1254;-0.5760;
1068.6000;0.1270;-0.5710;
1068.9000;0.1254;-0.5710;
1069.2000;0.1270;-0.5635;
1069.5000;0.1286;-0.5610;
1069.8000;0.1286;-0.5635;
1070.1000;0.1270;-0.5685;
1070.4000;0.1286;-0.5635;
1070.7000;0.1278;-0.5635;
1071.0000;0.1286;-0.5610;
1071.3000;0.1278;-0.5510;
1071.6000;0.1302;-0.5411;
1071.9000;0.1278;-0.5510;
1072.2000;0.1245;-0.5535;
1072.5000;0.1294;-0.5436;
1072.8000;0.1278;-0.5585;
1073.1000;0.1254;-0.5610;
1073.4000;0.1278;-0.5510;
1073.7000;0.1262;-0.5460;
1074.0000;0.1262;-0.5436;
1074.3000;0.1262;-0.5436;
1074.6000;0.1229;-0.5585;
1074.9000;0.1270;-0.5535;
1075.2000;0.1270;-0.5485;
1075.5000;0.1270;-0.5560;
1075.8000;0.1270;-0.5685;
1076.1000;0.1278;-0.5660;
1076.4000;0.1254;-0.5685;
1076.7000;0.1221;-0.5710;
1077.0000;0.1278;-0.5560;
1077.3000;0.1254;-0.5635;
1077.6000;0.1254;-0.5685;
1077.9000;0.1319;-0.5560;
1078.2000;0.1270;-0.5635;
1078.5000;0.1294;-0.5510;
1078.8000;0.1286;-0.5485;
1079.1000;0.1254;-0.5535;
1079.4000;0.1262;-0.5460;
1079.7000;0.1245;-0.5510;
1080.0000;0.1262;-0.5460;
1080.3000;0.1270;-0.5510;
1080.6000;0.1213;-0.5710;
1080.9000;0.1197;-0.5760;
1081.2000;0.1237;-0.5660;
1081.5000;0.1278;-0.5585;
1081.8000;0.1286;-0.5560;
1082.1000;0.1278;-0.5560;
1082.4000;0.1302;-0.5560;
1082.7000;0.1254;-0.5610;
1083.0000;0.1278;-0.5610;
1083.3000;0.1278;-0.5560;
1083.6000;0.1245;-0.5660;
1083.9000;0.1221;-0.5735;
1084.2000;0.1294;-0.5660;
1084.5000;0.1270;-0.5735;
1084.8000;0.1254;-0.5735;
1085.1000;0.1254;-0.5560;
1085.4000;0.1294;-0.5411;
1085.7000;0.1245;-0.5485;
1086.0000;0.1311;-0.5386;
1086.3000;0.1270;-0.5460;
1086.6000;0.1237;-0.5560;
1086.9000;0.1270;-0.5336;
1087.2000;0.1294;-0.5386;
1087.5000;0.1237;-0.5560;
1087.8000;0.1270;-0.5386;
1088.1000;0.1278;-0.5460;
1088.4000;0.1278;-0.5436;
1088.7000;0.1262;-0.5311;
1089.0000;0.1278;-0.5311;
1089.3000;0.1278;-0.5336;
1089.6000;0.1262;-0.5460;
1089.9000;0.1245;-0.5510;
1090.2000;0.1254;-0.5560;
1090.5000;0.1286;-0.5361;
1090.8000;0.1278;-0.5411;
1091.1000;0.1270;-0.5386;
1091.4000;0.1278;-0.5436;
1091.7000;0.1278;-0.5436;
1092.0000;0.1270;-0.5436;
1092.3000;0.1254;-0.5535;
1092.6000;0.1278;-0.5560;
1092.9000;0.1245;-0.5685;
1093.2000;0.1262;-0.5735;
1093.5000;0.1262;-0.5735;
1093.8000;0.1270;-0.5735;
1094.1000;0.1221;-0.5859;
1094.4000;0.1270;-0.5685;
1094.7000;0.1278;-0.5535;
1095.0000;0.1270;-0.5485;
1095.3000;0.1245;-0.5560;
1095.6000;0.1254;-0.5510;
1095.9000;0.1270;-0.5460;
1096.2000;0.1319;-0.5311;
1096.5000;0.1286;-0.5336;
1096.8000;0.1278;-0.5411;
1097.1000;0.1359;-0.5186;
1097.4000;0.1270;-0.5510;
1097.7000;0.1237;-0.5635;
1098.0000;0.1245;-0.5560;
1098.3000;0.1294;-0.5361;
1098.6000;0.1221;-0.5510;
1098.9000;0.1254;-0.5436;
1099.2000;0.1270;-0.5386;
1099.5000;0.1278;-0.5361;
1099.8000;0.1294;-0.5311;
1100.1000;0.1278;-0.5361;
1100.4000;0.1270;-0.5311;
1100.7000;0.1262;-0.5286;
1101.0000;0.1286;-0.5261;
1101.3000;0.1278;-0.5386;
1101.6000;0.1286;-0.5436;
1101.9000;0.1262;-0.5510;
1102.2000;0.1270;-0.5460;
1102.5000;0.1270;-0.5436;
1102.8000;0.1278;-0.5311;
1103.1000;0.1319;-0.5236;
1103.4000;0.1278;-0.5311;
1103.7000;0.1311;-0.5336;
1104.0000;0.1262;-0.5411;
1104.3000;0.1278;-0.5460;
1104.6000;0.1278;-0.5585;
1104.9000;0.1286;-0.5610;
1105.2000;0.1270;-0.5585;
1105.5000;0.1278;-0.5535;
1105.8000;0.1302;-0.5485;
1106.1000;0.1270;-0.5436;
1106.4000;0.1270;-0.5560;
1106.7000;0.1294;-0.5610;
1107.0000;0.1302;-0.5635;
1107.3000;0.1213;-0.5884;
1107.6000;0.1294;-0.5710;
1107.9000;0.1286;-0.5760;
1108.2000;0.1278;-0.5685;
1108.5000;0.1278;-0.5685;
1108.8000;0.1262;-0.5859;
1109.1000;0.1254;-0.5859;
1109.4000;0.1425;-0.5436;
1109.7000;0.1270;-0.5834;
1110.0000;0.1262;-0.5735;
1110.3000;0.1270;-0.5685;
1110.6000;0.1286;-0.5810;
1110.9000;0.1270;-0.5834;
1111.2000;0.1262;-0.5735;
1111.5000;0.1262;-0.5685;
1111.8000;0.1213;-0.5735;
1112.1000;0.1278;-0.5585;
1112.4000;0.1359;-0.5436;
1112.7000;0.1270;-0.5685;
1113.0000;0.1245;-0.5735;
1113.3000;0.1262;-0.5710;
1113.6000;0.1262;-0.5585;
1113.9000;0.1254;-0.5460;
1114.2000;0.1270;-0.5386;
1114.5000;0.1262;-0.5460;
1114.8000;0.1254;-0.5485;
1115.1000;0.1278;-0.5436;
1115.4000;0.1278;-0.5436;
1115.7000;0.1319;-0.5361;
1116.0000;0.1278;-0.5485;
1116.3000;0.1262;-0.5585;
1116.6000;0.1262;-0.5635;
1116.9000;0.1270;-0.5485;
1117.2000;0.1286;-0.5485;
1117.5000;0.1262;-0.5585;
1117.8000;0.1197;-0.5810;
1118.1000;0.1270;-0.5685;
1118.4000;0.1254;-0.5760;
1118.7000;0.1245;-0.5810;
1119.0000;0.1254;-0.5760;
1119.3000;0.1302;-0.5660;
1119.6000;0.1286;-0.5735;
1119.9000;0.1254;-0.5834;
1120.2000;0.1197;-0.5909;
1120.5000;0.1270;-0.5735;
1120.8000;0.1270;-0.5760;
1121.1000;0.1270;-0.5710;
1121.4000;0.1270;-0.5560;
1121.7000;0.1270;-0.5560;
1122.0000;0.1270;-0.5510;
1122.3000;0.1254;-0.5436;
1122.6000;0.1278;-0.5411;
1122.9000;0.1270;-0.5411;
1123.2000;0.1278;-0.5535;
1123.5000;0.1254;-0.5560;
1123.8000;0.1270;-0.5485;
1124.1000;0.1229;-0.5610;
1124.4000;0.1270;-0.5585;
1124.7000;0.1311;-0.5535;
1125.0000;0.1278;-0.5510;
1125.3000;0.1278;-0.5460;
1125.6000;0.1237;-0.5685;
1125.9000;0.1254;-0.5735;
1126.2000;0.1294;-0.5560;
1126.5000;0.1262;-0.5585;
1126.8000;0.1262;-0.5610;
1127.1000;0.1270;-0.5460;
1127.4000;0.1262;-0.5436;
1127.7000;0.1221;-0.5635;
1128.0000;0.1278;-0.5510;
1128.3000;0.1278;-0.5485;
1128.6000;0.1278;-0.5535;
1128.9000;0.1262;-0.5610;
1129.2000;0.1237;-0.5610;
1129.5000;0.1270;-0.5460;
1129.8000;0.1270;-0.5460;
1130.1000;0.1270;-0.5411;
1130.4000;0.1245;-0.5436;
1130.7000;0.1294;-0.5311;
1131.0000;0.1286;-0.5460;
1131.3000;0.1311;-0.5411;
1131.6000;0.1270;-0.5411;
1131.9000;0.1254;-0.5411;
1132.2000;0.1286;-0.5411;
1132.5000;0.1270;-0.5460;
1132.8000;0.1245;-0.5610;
1133.1000;0.1294;-0.5436;
1133.4000;0.1262;-0.5510;
1133.7000;0.1270;-0.5411;
1134.0000;0.1205;-0.5560;
1134.3000;0.1270;-0.5436;
1134.6000;0.1319;-0.5286;
1134.9000;0.1294;-0.5361;
1135.2000;0.1278;-0.5311;
1135.5000;0.1319;-0.5261;
1135.8000;0.1270;-0.5336;
1136.1000;0.1262;-0.5386;
1136.4000;0.1278;-0.5411;
1136.7000;0.1270;-0.5460;
1137.0000;0.1286;-0.5510;
1137.3000;0.1278;-0.5560;
1137.6000;0.1278;-0.5610;
1137.9000;0.1270;-0.5685;
1138.2000;0.1270;-0.5685;
1138.5000;0.1278;-0.5585;
1138.8000;0.1262;-0.5610;
1139.1000;0.1286;-0.5535;
1139.4000;0.1254;-0.5610;
1139.7000;0.1270;-0.5535;
1140.0000;0.1270;-0.5460;
1140.3000;0.1278;-0.5436;
1140.6000;0.1286;-0.5436;
1140.9000;0.1270;-0.5436;
1141.2000;0.1262;-0.5560;
1141.5000;0.1286;-0.5535;
1141.8000;0.1278;-0.5510;
1142.1000;0.1278;-0.5411;
1142.4000;0.1270;-0.5336;
1142.7000;0.1262;-0.5336;
1143.0000;0.1278;-0.5286;
1143.3000;0.1245;-0.5386;
1143.6000;0.1286;-0.5311;
1143.9000;0.1262;-0.5436;
1144.2000;0.1278;-0.5485;
1144.5000;0.1245;-0.5560;
1144.8000;0.1262;-0.5460;
1145.1000;0.1262;-0.5336;
1145.4000;0.1278;-0.5286;
1145.7000;0.1278;-0.5336;
1146.0000;0.1270;-0.5361;
1146.3000;0.1262;-0.5485;
1146.6000;0.1270;-0.5411;
1146.9000;0.1278;-0.5361;
1147.2000;0.1278;-0.5361;
1147.5000;0.1286;-0.5311;
1147.8000;0.1319;-0.5361;
1148.1000;0.1254;-0.5436;
1148.4000;0.1286;-0.5436;
1148.7000;0.1270;-0.5535;
1149.0000;0.1278;-0.5485;
1149.3000;0.1278;-0.5386;
1149.6000;0.1221;-0.5535;
1149.9000;0.1278;-0.5361;
1150.2000;0.1254;-0.5336;
1150.5000;0.1302;-0.5286;
1150.8000;0.1302;-0.5211;
1151.1000;0.1270;-0.5261;
1151.4000;0.1327;-0.5261;
1151.7000;0.1229;-0.5485;
1152.0000;0.1270;-0.5460;
1152.3000;0.1229;-0.5460;
1152.6000;0.1302;-0.5386;
1152.9000;0.1294;-0.5386;
1153.2000;0.1294;-0.5336;
1153.5000;0.1294;-0.5436;
1153.8000;0.1270;-0.5485;
1154.1000;0.1254;-0.5560;
1154.4000;0.1270;-0.5361;
1154.7000;0.1254;-0.5386;
1155.0000;0.1245;-0.5336;
1155.3000;0.1278;-0.5236;
1155.6000;0.1286;-0.5211;
1155.9000;0.1319;-0.5111;
1156.2000;0.1278;-0.5211;
1156.5000;0.1221;-0.5336;
1156.8000;0.1311;-0.5136;
1157.1000;0.1262;-0.5286;
1157.4000;0.1213;-0.5361;
1157.7000;0.1245;-0.5336;
1158.0000;0.1245;-0.5311;
1158.3000;0.1213;-0.5485;
1158.6000;0.1254;-0.5436;
1158.9000;0.1254;-0.5411;
1159.2000;0.1270;-0.5460;
1159.5000;0.1270;-0.5535;
1159.8000;0.1254;-0.5535;
1160.1000;0.1262;-0.5535;
1160.4000;0.1245;-0.5535;
1160.7000;0.1197;-0.5685;
1161.0000;0.1294;-0.5485;
1161.3000;0.1254;-0.5585;
1161.6000;0.1286;-0.5535;
1161.9000;0.1294;-0.5535;
1162.2000;0.1270;-0.5485;
1162.5000;0.1254;-0.5460;
1162.8000;0.1262;-0.5535;
1163.1000;0.1254;-0.5535;
1163.4000;0.1262;-0.5510;
1163.7000;0.1270;-0.5510;
1164.0000;0.1262;-0.5560;
1164.3000;0.1319;-0.5361;
1164.6000;0.1270;-0.5436;
1164.9000;0.1278;-0.5460;
1165.2000;0.1278;-0.5411;
1165.5000;0.1278;-0.5411;
1165.8000;0.1311;-0.5336;
1166.1000;0.1278;-0.5361;
1166.4000;0.1286;-0.5436;
1166.7000;0.1270;-0.5436;
1167.0000;0.1254;-0.5386;
1167.3000;0.1278;-0.5386;
1167.6000;0.1286;-0.5411;
1167.9000;0.1245;-0.5436;
1168.2000;0.1270;-0.5361;
1168.5000;0.1229;-0.5436;
1168.8000;0.1286;-0.5311;
1169.1000;0.1254;-0.5361;
1169.4000;0.1278;-0.5286;
1169.7000;0.1213;-0.5485;
1170.0000;0.1237;-0.5411;
1170.3000;0.1254;-0.5460;
1170.6000;0.1286;-0.5361;
1170.9000;0.1359;-0.5186;
1171.2000;0.1286;-0.5510;
1171.5000;0.1262;-0.5610;
1171.8000;0.1286;-0.5535;
1172.1000;0.1237;-0.5485;
1172.4000;0.1262;-0.5485;
1172.7000;0.1180;-0.5685;
1173.0000;0.1197;-0.5585;
1173.3000;0.1319;-0.5286;
1173.6000;0.1245;-0.5485;
1173.9000;0.1197;-0.5660;
1174.2000;0.1270;-0.5510;
1174.5000;0.1294;-0.5436;
1174.8000;0.1286;-0.5485;
1175.1000;0.1270;-0.5535;
1175.4000;0.1278;-0.5585;
1175.7000;0.1245;-0.5635;
1176.0000;0.1270;-0.5485;
1176.3000;0.1254;-0.5535;
1176.6000;0.1254;-0.5361;
1176.9000;0.1262;-0.5336;
1177.2000;0.1270;-0.5386;
1177.5000;0.1262;-0.5411;
1177.8000;0.1262;-0.5386;
1178.1000;0.1262;-0.5436;
1178.4000;0.1302;-0.5336;
1178.7000;0.1254;-0.5510;
1179.0000;0.1254;-0.5560;
1179.3000;0.1262;-0.5585;
1179.6000;0.1278;-0.5460;
1179.9000;0.1278;-0.5510;
1180.2000;0.1278;-0.5535;
1180.5000;0.1270;-0.5460;
1180.8000;0.1270;-0.5386;
1181.1000;0.1262;-0.5460;
1181.4000;0.1262;-0.5535;
1181.7000;0.1205;-0.5660;
1182.0000;0.1311;-0.5436;
1182.3000;0.1262;-0.5535;
1182.6000;0.1270;-0.5610;
1182.9000;0.1270;-0.5560;
1183.2000;0.1294;-0.5485;
1183.5000;0.1286;-0.5460;
1183.8000;0.1286;-0.5560;
1184.1000;0.1262;-0.5510;
1184.4000;0.1254;-0.5485;
1184.7000;0.1302;-0.5311;
1185.0000;0.1262;-0.5361;
1185.3000;0.1270;-0.5336;
1185.6000;0.1278;-0.5361;
1185.9000;0.1254;-0.5460;
1186.2000;0.1278;-0.5386;
1186.5000;0.1294;-0.5361;
1186.8000;0.1254;-0.5485;
1187.1000;0.1278;-0.5386;
1187.4000;0.1286;-0.5436;
1187.7000;0.1270;-0.5510;
1188.0000;0.1270;-0.5411;
1188.3000;0.1368;-0.5286;
1188.6000;0.1245;-0.5560;
1188.9000;0.1262;-0.5585;
1189.2000;0.1311;-0.5585;
1189.5000;0.1368;-0.5411;
1189.8000;0.1294;-0.5635;
1190.1000;0.1302;-0.5485;
1190.4000;0.1286;-0.5535;
1190.7000;0.1278;-0.5560;
1191.0000;0.1286;-0.5535;
1191.3000;0.1262;-0.5585;
1191.6000;0.1278;-0.5610;
1191.9000;0.1270;-0.5635;
1192.2000;0.1294;-0.5510;
1192.5000;0.1319;-0.5436;
1192.8000;0.1237;-0.5760;
1193.1000;0.1262;-0.5685;
1193.4000;0.1254;-0.5635;
1193.7000;0.1221;-0.5610;
1194.0000;0.1311;-0.5336;
1194.3000;0.1270;-0.5460;
1194.6000;0.1335;-0.5336;
1194.9000;0.1286;-0.5485;
1195.2000;0.1270;-0.5485;
1195.5000;0.1262;-0.5610;
1195.8000;0.1270;-0.5560;
1196.1000;0.1270;-0.5510;
1196.4000;0.1294;-0.5485;
1196.7000;0.1172;-0.5710;
1197.0000;0.1262;-0.5436;
1197.3000;0.1270;-0.5510;
1197.6000;0.1286;-0.5436;
1197.9000;0.1286;-0.5510;
1198.2000;0.1237;-0.5610;
1198.5000;0.1343;-0.5361;
1198.8000;0.1278;-0.5510;
1199.1000;0.1278;-0.5460;
1199.4000;0.1286;-0.5535;
1199.7000;0.1286;-0.5560;
1200.0000;0.1270;-0.5635;
1200.3000;0.1245;-0.5810;
1200.6000;0.1245;-0.5834;
1200.9000;0.1278;-0.5810;
1201.2000;0.1286;-0.5810;
1201.5000;0.1311;-0.5710;
1201.8000;0.1254;-0.5810;
1202.1000;0.1237;-0.5785;
1202.4000;0.1270;-0.5710;
1202.7000;0.1286;-0.5710;
1203.0000;0.1270;-0.5760;
1203.3000;0.1302;-0.5685;
1203.6000;0.1286;-0.5685;
1203.9000;0.1270;-0.5685;
1204.2000;0.1278;-0.5610;
1204.5000;0.1278;-0.5660;
1204.8000;0.1286;-0.5610;
1205.1000;0.1278;-0.5685;
1205.4000;0.1278;-0.5635;
1205.7000;0.1229;-0.5685;
1206.0000;0.1278;-0.5510;
1206.3000;0.1254;-0.5436;
1206.6000;0.1229;-0.5436;
1206.9000;0.1286;-0.5361;
1207.2000;0.1270;-0.5460;
1207.5000;0.1278;-0.5460;
1207.8000;0.1270;-0.5510;
1208.1000;0.1302;-0.5460;
1208.4000;0.1278;-0.5510;
1208.7000;0.1270;-0.5485;
1209.0000;0.1254;-0.5411;
1209.3000;0.1254;-0.5436;
1209.6000;0.1270;-0.5535;
1209.9000;0.1262;-0.5535;
1210.2000;0.1270;-0.5436;
1210.5000;0.1278;-0.5386;
1210.8000;0.1278;-0.5361;
1211.1000;0.1286;-0.5361;
1211.4000;0.1311;-0.5286;
1211.7000;0.1278;-0.5311;
1212.0000;0.1270;-0.5460;
1212.3000;0.1180;-0.5760;
1212.6000;0.1270;-0.5535;
1212.9000;0.1270;-0.5460;
1213.2000;0.1302;-0.5336;
1213.5000;0.1270;-0.5460;
1213.8000;0.1278;-0.5535;
1214.1000;0.1359;-0.5311;
1214.4000;0.1286;-0.5460;
1214.7000;0.1286;-0.5585;
1215.0000;0.1270;-0.5635;
1215.3000;0.1302;-0.5485;
1215.6000;0.1286;-0.5560;
1215.9000;0.1278;-0.5560;
1216.2000;0.1286;-0.5535;
1216.5000;0.1286;-0.5485;
1216.8000;0.1254;-0.5411;
1217.1000;0.1286;-0.5311;
1217.4000;0.1286;-0.5311;
1217.7000;0.1286;-0.5336;
1218.0000;0.1286;-0.5311;
1218.3000;0.1270;-0.5336;
1218.6000;0.1221;-0.5460;
1218.9000;0.1237;-0.5535;
1219.2000;0.1311;-0.5336;
1219.5000;0.1294;-0.5311;
1219.8000;0.1286;-0.5311;
1220.1000;0.1286;-0.5211;
1220.4000;0.1278;-0.5186;
1220.7000;0.1254;-0.5336;
1221.0000;0.1286;-0.5336;
1221.3000;0.1254;-0.5286;
1221.6000;0.1294;-0.5211;
1221.9000;0.1270;-0.5286;
1222.2000;0.1270;-0.5261;
1222.5000;0.1262;-0.5286;
1222.8000;0.1172;-0.5460;
1223.1000;0.1262;-0.5311;
1223.4000;0.1286;-0.5361;
1223.7000;0.1213;-0.5510;
1224.0000;0.1278;-0.5386;
1224.3000;0.1213;-0.5510;
1224.6000;0.1270;-0.5336;
1224.9000;0.1278;-0.5361;
1225.2000;0.1294;-0.5311;
1225.5000;0.1270;-0.5386;
1225.8000;0.1262;-0.5436;
1226.1000;0.1254;-0.5361;
1226.4000;0.1302;-0.5086;
1226.7000;0.1213;-0.5286;
1227.0000;0.1245;-0.5211;
1227.3000;0.1254;-0.5311;
1227.6000;0.1262;-0.5311;
1227.9000;0.1254;-0.5286;
1228.2000;0.1254;-0.5236;
1228.5000;0.1262;-0.5286;
1228.8000;0.1457;-0.4812;
1229.1000;0.1278;-0.5311;
1229.4000;0.1262;-0.5311;
1229.7000;0.1262;-0.5361;
1230.0000;0.1278;-0.5386;
1230.3000;0.1270;-0.5485;
1230.6000;0.1270;-0.5460;
1230.9000;0.1278;-0.5510;
1231.2000;0.1286;-0.5411;
1231.5000;0.1237;-0.5510;
1231.8000;0.1286;-0.5386;
1232.1000;0.1302;-0.5411;
1232.4000;0.1286;-0.5485;
1232.7000;0.1254;-0.5560;
1233.0000;0.1270;-0.5510;
1233.3000;0.1270;-0.5460;
1233.6000;0.1254;-0.5485;
1233.9000;0.1294;-0.5436;
1234.2000;0.1278;-0.5485;
1234.5000;0.1286;-0.5386;
1234.8000;0.1335;-0.5236;
1235.1000;0.1262;-0.5436;
1235.4000;0.1270;-0.5436;
1235.7000;0.1302;-0.5460;
1236.0000;0.1278;-0.5535;
1236.3000;0.1270;-0.5485;
1236.6000;0.1278;-0.5510;
1236.9000;0.1286;-0.5510;
1237.2000;0.1294;-0.5485;
1237.5000;0.1286;-0.5460;
1237.8000;0.1254;-0.5460;
1238.1000;0.1294;-0.5411;
1238.4000;0.1278;-0.5386;
1238.7000;0.1270;-0.5411;
1239.0000;0.1278;-0.5361;
1239.3000;0.1311;-0.5336;
1239.6000;0.1278;-0.5485;
1239.9000;0.1286;-0.5386;
1240.2000;0.1270;-0.5386;
1240.5000;0.1302;-0.5261;
1240.8000;0.1278;-0.5336;
1241.1000;0.1278;-0.5436;
1241.4000;0.1294;-0.5460;
1241.7000;0.1270;-0.5485;
1242.0000;0.1262;-0.5510;
1242.3000;0.1286;-0.5460;
1242.6000;0.1270;-0.5510;
1242.9000;0.1319;-0.5311;
1243.2000;0.1262;-0.5436;
1243.5000;0.1270;-0.5361;
1243.8000;0.1245;-0.5411;
1244.1000;0.1286;-0.5286;
1244.4000;0.1294;-0.5236;
1244.7000;0.1270;-0.5236;
1245.0000;0.1270;-0.5136;
1245.3000;0.1278;-0.5211;
1245.6000;0.1286;-0.5211;
1245.9000;0.1278;-0.5336;
1246.2000;0.1262;-0.5411;
1246.5000;0.1294;-0.5460;
1246.8000;0.1302;-0.5485;
1247.1000;0.1286;-0.5610;
1247.4000;0.1237;-0.5610;
1247.7000;0.1351;-0.5336;
1248.0000;0.1294;-0.5460;
1248.3000;0.1262;-0.5460;
1248.6000;0.1270;-0.5460;
1248.9000;0.1270;-0.5411;
1249.2000;0.1237;-0.5485;
1249.5000;0.1270;-0.5411;
1249.8000;0.1319;-0.5311;
1250.1000;0.1278;-0.5386;
1250.4000;0.1254;-0.5560;
1250.7000;0.1270;-0.5535;
1251.0000;0.1286;-0.5485;
1251.3000;0.1254;-0.5460;
1251.6000;0.1262;-0.5436;
1251.9000;0.1278;-0.5436;
1252.2000;0.1270;-0.5436;
1252.5000;0.1294;-0.5361;
1252.8000;0.1270;-0.5386;
1253.1000;0.1270;-0.5436;
1253.4000;0.1278;-0.5386;
1253.7000;0.1270;-0.5286;
1254.0000;0.1262;-0.5311;
1254.3000;0.1270;-0.5311;
1254.6000;0.1286;-0.5261;
1254.9000;0.1286;-0.5211;
1255.2000;0.1262;-0.5286;
1255.5000;0.1245;-0.5311;
1255.8000;0.1262;-0.5311;
1256.1000;0.1286;-0.5261;
1256.4000;0.1294;-0.5186;
1256.7000;0.1286;-0.5161;
1257.0000;0.1278;-0.5236;
1257.3000;0.1245;-0.5211;
1257.6000;0.1229;-0.5236;
1257.9000;0.1262;-0.5186;
1258.2000;0.1311;-0.5062;
1258.5000;0.1270;-0.5186;
1258.8000;0.1180;-0.5386;
1259.1000;0.1262;-0.5261;
1259.4000;0.1245;-0.5311;
1259.7000;0.1254;-0.5261;
1260.0000;0.1286;-0.5211;
1260.3000;0.1262;-0.5261;
1260.6000;0.1197;-0.5436;
1260.9000;0.1278;-0.5261;
1261.2000;0.1262;-0.5361;
1261.5000;0.1270;-0.5311;
1261.8000;0.1262;-0.5361;
1262.1000;0.1286;-0.5336;
1262.4000;0.1270;-0.5361;
1262.7000;0.1254;-0.5361;
1263.0000;0.1278;-0.5311;
1263.3000;0.1278;-0.5311;
1263.6000;0.1294;-0.5311;
1263.9000;0.1270;-0.5336;
1264.2000;0.1262;-0.5361;
1264.5000;0.1368;-0.5111;
1264.8000;0.1237;-0.5560;
1265.1000;0.1270;-0.5436;
1265.4000;0.1286;-0.5311;
1265.7000;0.1302;-0.5311;
1266.0000;0.1278;-0.5311;
1266.3000;0.1294;-0.5361;
1266.6000;0.1278;-0.5436;
1266.9000;0.1262;-0.5460;
1267.2000;0.1302;-0.5361;
1267.5000;0.1278;-0.5460;
1267.8000;0.1278;-0.5485;
1268.1000;0.1278;-0.5460;
1268.4000;0.1278;-0.5485;
1268.7000;0.1270;-0.5460;
1269.0000;0.1262;-0.5436;
1269.3000;0.1262;-0.5460;
1269.6000;0.1286;-0.5361;
1269.9000;0.1270;-0.5411;
1270.2000;0.1278;-0.5336;
1270.5000;0.1270;-0.5311;
1270.8000;0.1237;-0.5411;
1271.1000;0.1294;-0.5261;
1271.4000;0.1278;-0.5311;
1271.7000;0.1262;-0.5361;
1272.0000;0.1270;-0.5361;
1272.3000;0.1327;-0.5161;
1272.6000;0.1270;-0.5286;
1272.9000;0.1311;-0.5186;
1273.2000;0.1270;-0.5236;
1273.5000;0.1294;-0.5161;
1273.8000;0.1237;-0.5336;
1274.1000;0.1286;-0.5336;
1274.4000;0.1270;-0.5411;
1274.7000;0.1262;-0.5485;
1275.0000;0.1237;-0.5610;
1275.3000;0.1254;-0.5510;
1275.6000;0.1245;-0.5585;
1275.9000;0.1254;-0.5460;
1276.2000;0.1254;-0.5436;
1276.5000;0.1270;-0.5411;
1276.8000;0.1286;-0.5386;
1277.1000;0.1286;-0.5436;
1277.4000;0.1237;-0.5510;
1277.7000;0.1286;-0.5336;
1278.0000;0.1294;-0.5336;
1278.3000;0.1270;-0.5361;
1278.6000;0.1254;-0.5411;
1278.9000;0.1270;-0.5386;
1279.2000;0.1245;-0.5535;
1279.5000;0.1254;-0.5460;
1279.8000;0.1270;-0.5510;
1280.1000;0.1270;-0.5535;
1280.4000;0.1286;-0.5510;
1280.7000;0.1294;-0.5510;
1281.0000;0.1262;-0.5610;
1281.3000;0.1278;-0.5560;
1281.6000;0.1270;-0.5560;
1281.9000;0.1286;-0.5560;
1282.2000;0.1237;-0.5660;
1282.5000;0.1294;-0.5460;
1282.8000;0.1311;-0.5436;
1283.1000;0.1278;-0.5460;
1283.4000;0.1286;-0.5411;
1283.7000;0.1294;-0.5411;
1284.0000;0.1270;-0.5485;
1284.3000;0.1262;-0.5510;
1284.6000;0.1237;-0.5560;
1284.9000;0.1229;-0.5585;
1285.2000;0.1270;-0.5485;
1285.5000;0.1278;-0.5460;
1285.8000;0.1262;-0.5485;
1286.1000;0.1262;-0.5436;
1286.4000;0.1270;-0.5311;
1286.7000;0.1270;-0.5336;
1287.0000;0.1278;-0.5336;
1287.3000;0.1335;-0.5236;
1287.6000;0.1286;-0.5386;
1287.9000;0.1213;-0.5460;
1288.2000;0.1262;-0.5485;
1288.5000;0.1294;-0.5411;
1288.8000;0.1254;-0.5460;
1289.1000;0.1245;-0.5485;
1289.4000;0.1254;-0.5411;
1289.7000;0.1245;-0.5411;
1290.0000;0.1270;-0.5361;
1290.3000;0.1237;-0.5436;
1290.6000;0.1294;-0.5436;
1290.9000;0.1270;-0.5485;
1291.2000;0.1262;-0.5460;
1291.5000;0.1229;-0.5436;
1291.8000;0.1278;-0.5311;
1292.1000;0.1294;-0.5286;
1292.4000;0.1319;-0.5161;
1292.7000;0.1286;-0.5236;
1293.0000;0.1278;-0.5361;
1293.3000;0.1319;-0.5361;
1293.6000;0.1302;-0.5436;
1293.9000;0.1294;-0.5361;
1294.2000;0.1270;-0.5411;
1294.5000;0.1327;-0.5286;
1294.8000;0.1262;-0.5386;
1295.1000;0.1270;-0.5411;
1295.4000;0.1278;-0.5436;
1295.7000;0.1270;-0.5560;
1296.0000;0.1262;-0.5535;
1296.3000;0.1319;-0.5436;
1296.6000;0.1286;-0.5535;
1296.9000;0.1278;-0.5610;
1297.2000;0.1262;-0.5635;
1297.5000;0.1270;-0.5411;
1297.8000;0.1262;-0.5510;
1298.1000;0.1270;-0.5485;
1298.4000;0.1286;-0.5460;
1298.7000;0.1262;-0.5660;
1299.0000;0.1270;-0.5560;
1299.3000;0.1278;-0.5485;
1299.6000;0.1254;-0.5535;
1299.9000;0.1254;-0.5510;
1300.2000;0.1262;-0.5535;
1300.5000;0.1286;-0.5560;
1300.8000;0.1262;-0.5660;
1301.1000;0.1262;-0.5660;
1301.4000;0.1270;-0.5635;
1301.7000;0.1262;-0.5685;
1302.0000;0.1262;-0.5635;
1302.3000;0.1286;-0.5510;
1302.6000;0.1254;-0.5535;
1302.9000;0.1237;-0.5560;
1303.2000;0.1262;-0.5436;
1303.5000;0.1278;-0.5436;
1303.8000;0.1270;-0.5460;
1304.1000;0.1278;-0.5535;
1304.4000;0.1278;-0.5535;
1304.7000;0.1197;-0.5735;
1305.0000;0.1294;-0.5460;
1305.3000;0.1319;-0.5460;
1305.6000;0.1286;-0.5361;
1305.9000;0.1270;-0.5485;
1306.2000;0.1197;-0.5859;
1306.5000;0.1278;-0.5710;
1306.8000;0.1286;-0.5760;
1307.1000;0.1278;-0.5834;
1307.4000;0.1270;-0.5810;
1307.7000;0.1205;-0.5909;
1308.0000;0.1254;-0.5710;
1308.3000;0.1368;-0.5411;
1308.6000;0.1286;-0.5535;
1308.9000;0.1262;-0.5535;
1309.2000;0.1262;-0.5510;
1309.5000;0.1262;-0.5610;
1309.8000;0.1237;-0.5610;
1310.1000;0.1262;-0.5510;
1310.4000;0.1229;-0.5610;
1310.7000;0.1270;-0.5585;
1311.0000;0.1335;-0.5436;
1311.3000;0.1245;-0.5560;
1311.6000;0.1270;-0.5411;
1311.9000;0.1278;-0.5485;
1312.2000;0.1254;-0.5535;
1312.5000;0.1245;-0.5585;
1312.8000;0.1254;-0.5610;
1313.1000;0.1351;-0.5411;
1313.4000;0.1294;-0.5610;
1313.7000;0.1376;-0.5286;
1314.0000;0.1294;-0.5485;
1314.3000;0.1245;-0.5585;
1314.6000;0.1270;-0.5535;
1314.9000;0.1262;-0.5485;
1315.2000;0.1270;-0.5361;
1315.5000;0.1254;-0.5436;
1315.8000;0.1254;-0.5535;
1316.1000;0.1278;-0.5560;
1316.4000;0.1262;-0.5585;
1316.7000;0.1270;-0.5535;
1317.0000;0.1294;-0.5510;
1317.3000;0.1270;-0.5510;
1317.6000;0.1319;-0.5211;
1317.9000;0.1278;-0.5336;
1318.2000;0.1221;-0.5411;
1318.5000;0.1311;-0.5261;
1318.8000;0.1270;-0.5336;
1319.1000;0.1270;-0.5386;
1319.4000;0.1262;-0.5386;
1319.7000;0.1294;-0.5311;
1320.0000;0.1262;-0.5386;
1320.3000;0.1254;-0.5386;
1320.6000;0.1254;-0.5460;
1320.9000;0.1245;-0.5560;
1321.2000;0.1270;-0.5635;
1321.5000;0.1278;-0.5510;
1321.8000;0.1286;-0.5436;
1322.1000;0.1270;-0.5460;
1322.4000;0.1270;-0.5460;
1322.7000;0.1270;-0.5460;
1323.0000;0.1278;-0.5485;
1323.3000;0.1270;-0.5436;
1323.6000;0.1278;-0.5485;
1323.9000;0.1262;-0.5635;
1324.2000;0.1237;-0.5710;
1324.5000;0.1278;-0.5710;
1324.8000;0.1262;-0.5685;
1325.1000;0.1302;-0.5460;
1325.4000;0.1254;-0.5535;
1325.7000;0.1237;-0.5660;
1326.0000;0.1262;-0.5560;
1326.3000;0.1311;-0.5535;
1326.6000;0.1392;-0.5361;
1326.9000;0.1262;-0.5585;
1327.2000;0.1278;-0.5635;
1327.5000;0.1262;-0.5635;
1327.8000;0.1270;-0.5560;
1328.1000;0.1262;-0.5560;
1328.4000;0.1286;-0.5510;
1328.7000;0.1343;-0.5336;
1329.0000;0.1278;-0.5535;
1329.3000;0.1262;-0.5560;
1329.6000;0.1254;-0.5585;
1329.9000;0.1278;-0.5510;
1330.2000;0.1254;-0.5685;
1330.5000;0.1286;-0.5710;
1330.8000;0.1278;-0.5710;
1331.1000;0.1270;-0.5685;
1331.4000;0.1270;-0.5635;
1331.7000;0.1221;-0.5735;
1332.0000;0.1262;-0.5660;
1332.3000;0.1254;-0.5685;
1332.6000;0.1286;-0.5560;
1332.9000;0.1270;-0.5460;
1333.2000;0.1278;-0.5535;
1333.5000;0.1262;-0.5585;
1333.8000;0.1270;-0.5535;
1334.1000;0.1213;-0.5760;
1334.4000;0.1278;-0.5585;
1334.7000;0.1278;-0.5585;
1335.0000;0.1327;-0.5436;
1335.3000;0.1294;-0.5585;
1335.6000;0.1286;-0.5560;
1335.9000;0.1262;-0.5635;
1336.2000;0.1254;-0.5635;
1336.5000;0.1262;-0.5685;
1336.8000;0.1270;-0.5760;
1337.1000;0.1262;-0.5760;
1337.4000;0.1270;-0.5710;
1337.7000;0.1286;-0.5610;
1338.0000;0.1270;-0.5660;
1338.3000;0.1245;-0.5710;
1338.6000;0.1278;-0.5685;
1338.9000;0.1294;-0.5710;
1339.2000;0.1262;-0.5810;
1339.5000;0.1302;-0.5735;
1339.8000;0.1262;-0.5810;
1340.1000;0.1254;-0.5859;
1340.4000;0.1245;-0.5909;
1340.7000;0.1262;-0.5934;
1341.0000;0.1294;-0.5984;
1341.3000;0.1278;-0.5934;
1341.6000;0.1270;-0.5934;
1341.9000;0.1311;-0.5710;
1342.2000;0.1294;-0.5760;
1342.5000;0.1262;-0.5810;
1342.8000;0.1254;-0.5810;
1343.1000;0.1278;-0.5859;
1343.4000;0.1254;-0.5884;
1343.7000;0.1254;-0.5884;
1344.0000;0.1270;-0.5834;
1344.3000;0.1302;-0.5785;
1344.6000;0.1254;-0.5909;
1344.9000;0.1188;-0.6159;
1345.2000;0.1262;-0.5934;
1345.5000;0.1286;-0.5785;
1345.8000;0.1351;-0.5585;
1346.1000;0.1262;-0.5834;
1346.4000;0.1229;-0.5834;
1346.7000;0.1245;-0.5735;
1347.0000;0.1270;-0.5635;
1347.3000;0.1286;-0.5635;
1347.6000;0.1286;-0.5685;
1347.9000;0.1262;-0.5660;
1348.2000;0.1270;-0.5685;
1348.5000;0.1270;-0.5685;
1348.8000;0.1278;-0.5685;
1349.1000;0.1213;-0.5660;
1349.4000;0.1254;-0.5560;
1349.7000;0.1270;-0.5635;
1350.0000;0.1286;-0.5535;
1350.3000;0.1262;-0.5585;
1350.6000;0.1278;-0.5660;
1350.9000;0.1286;-0.5635;
1351.2000;0.1294;-0.5610;
1351.5000;0.1302;-0.5560;
1351.8000;0.1286;-0.5585;
1352.1000;0.1270;-0.5585;
1352.4000;0.1286;-0.5485;
1352.7000;0.1237;-0.5535;
1353.0000;0.1294;-0.5411;
1353.3000;0.1278;-0.5485;
1353.6000;0.1327;-0.5411;
1353.9000;0.1262;-0.5685;
1354.2000;0.1262;-0.5635;
1354.5000;0.1164;-0.5884;
1354.8000;0.1270;-0.5560;
1355.1000;0.1270;-0.5535;
1355.4000;0.1254;-0.5510;
1355.7000;0.1270;-0.5460;
1356.0000;0.1311;-0.5436;
1356.3000;0.1270;-0.5535;
1356.6000;0.1327;-0.5386;
1356.9000;0.1278;-0.5460;
1357.2000;0.1278;-0.5460;
1357.5000;0.1278;-0.5386;
1357.8000;0.1270;-0.5485;
1358.1000;0.1327;-0.5361;
1358.4000;0.1286;-0.5485;
1358.7000;0.1294;-0.5535;
1359.0000;0.1278;-0.5535;
1359.3000;0.1254;-0.5685;
1359.6000;0.1270;-0.5660;
1359.9000;0.1294;-0.5535;
1360.2000;0.1270;-0.5685;
1360.5000;0.1278;-0.5560;
1360.8000;0.1294;-0.5560;
1361.1000;0.1213;-0.5735;
1361.4000;0.1229;-0.5660;
1361.7000;0.1262;-0.5585;
1362.0000;0.1245;-0.5660;
1362.3000;0.1270;-0.5610;
1362.6000;0.1286;-0.5710;
1362.9000;0.1302;-0.5710;
1363.2000;0.1294;-0.5610;
1363.5000;0.1270;-0.5635;
1363.8000;0.1286;-0.5635;
1364.1000;0.1278;-0.5560;
1364.4000;0.1286;-0.5460;
1364.7000;0.1278;-0.5485;
1365.0000;0.1254;-0.5510;
1365.3000;0.1213;-0.5585;
1365.6000;0.1262;-0.5411;
1365.9000;0.1302;-0.5386;
1366.2000;0.1335;-0.5311;
1366.5000;0.1392;-0.5086;
1366.8000;0.1270;-0.5585;
1367.1000;0.1294;-0.5510;
1367.4000;0.1278;-0.5485;
1367.7000;0.1278;-0.5436;
1368.0000;0.1286;-0.5485;
1368.3000;0.1270;-0.5535;
1368.6000;0.1278;-0.5710;
1368.9000;0.1262;-0.5760;
1369.2000;0.1278;-0.5760;
1369.5000;0.1286;-0.5834;
1369.8000;0.1270;-0.5909;
1370.1000;0.1270;-0.5934;
1370.4000;0.1278;-0.5909;
1370.7000;0.1270;-0.5884;
1371.0000;0.1270;-0.5859;
1371.3000;0.1278;-0.5760;
1371.6000;0.1286;-0.5735;
1371.9000;0.1245;-0.5610;
1372.2000;0.1270;-0.5560;
1372.5000;0.1359;-0.5311;
1372.8000;0.1270;-0.5560;
1373.1000;0.1311;-0.5560;
1373.4000;0.1262;-0.5610;
1373.7000;0.1278;-0.5510;
1374.0000;0.1286;-0.5510;
1374.3000;0.1278;-0.5560;
1374.6000;0.1270;-0.5585;
1374.9000;0.1262;-0.5460;
1375.2000;0.1286;-0.5485;
1375.5000;0.1262;-0.5485;
1375.8000;0.1270;-0.5535;
1376.1000;0.1270;-0.5560;
1376.4000;0.1294;-0.5460;
1376.7000;0.1286;-0.5510;
1377.0000;0.1270;-0.5660;
1377.3000;0.1262;-0.5610;
1377.6000;0.1262;-0.5510;
1377.9000;0.1286;-0.5411;
1378.2000;0.1270;-0.5485;
1378.5000;0.1254;-0.5610;
1378.8000;0.1286;-0.5610;
1379.1000;0.1311;-0.5535;
1379.4000;0.1254;-0.5635;
1379.7000;0.1286;-0.5660;
1380.0000;0.1254;-0.5735;
1380.3000;0.1262;-0.5685;
1380.6000;0.1262;-0.5735;
1380.9000;0.1302;-0.5710;
1381.2000;0.1278;-0.5735;
1381.5000;0.1221;-0.5934;
1381.8000;0.1294;-0.5760;
1382.1000;0.1286;-0.5710;
1382.4000;0.1270;-0.5760;
1382.7000;0.1278;-0.5810;
1383.0000;0.1286;-0.5810;
1383.3000;0.1286;-0.5810;
1383.6000;0.1270;-0.5760;
1383.9000;0.1270;-0.5785;
1384.2000;0.1286;-0.5735;
1384.5000;0.1286;-0.5710;
1384.8000;0.1286;-0.5660;
1385.1000;0.1262;-0.5710;
1385.4000;0.1262;-0.5685;
1385.7000;0.1270;-0.5685;
1386.0000;0.1262;-0.5735;
1386.3000;0.1254;-0.5685;
1386.6000;0.1270;-0.5610;
1386.9000;0.1278;-0.5635;
1387.2000;0.1278;-0.5610;
1387.5000;0.1278;-0.5610;
1387.8000;0.1270;-0.5685;
1388.1000;0.1270;-0.5610;
1388.4000;0.1262;-0.5660;
1388.7000;0.1262;-0.5710;
1389.0000;0.1286;-0.5710;
1389.3000;0.1262;-0.5735;
1389.6000;0.1237;-0.5785;
1389.9000;0.1254;-0.5710;
1390.2000;0.1254;-0.5760;
1390.5000;0.1262;-0.5660;
1390.8000;0.1270;-0.5585;
1391.1000;0.1254;-0.5685;
1391.4000;0.1270;-0.5610;
1391.7000;0.1270;-0.5535;
1392.0000;0.1278;-0.5510;
1392.3000;0.1286;-0.5535;
1392.6000;0.1270;-0.5635;
1392.9000;0.1278;-0.5735;
1393.2000;0.1278;-0.5760;
1393.5000;0.1286;-0.5735;
1393.8000;0.1270;-0.5834;
1394.1000;0.1270;-0.5760;
1394.4000;0.1254;-0.5660;
1394.7000;0.1286;-0.5585;
1395.0000;0.1262;-0.5510;
1395.3000;0.1278;-0.5510;
1395.6000;0.1294;-0.5635;
1395.9000;0.1262;-0.5760;
1396.2000;0.1270;-0.5760;
1396.5000;0.1286;-0.5710;
1396.8000;0.1278;-0.5760;
1397.1000;0.1262;-0.5760;
1397.4000;0.1270;-0.5710;
1397.7000;0.1262;-0.5735;
1398.0000;0.1294;-0.5710;
1398.3000;0.1262;-0.5884;
1398.6000;0.1294;-0.5810;
1398.9000;0.1278;-0.5859;
1399.2000;0.1278;-0.5785;
1399.5000;0.1286;-0.5785;
1399.8000;0.1286;-0.5785;
