time/ms;Fluo/V;P700 deltaI/I x10³;
-199.8000;0.1368;-0.3915;
-199.5000;0.1343;-0.3964;
-199.2000;0.1351;-0.4064;
-198.9000;0.1368;-0.4064;
-198.6000;0.1400;-0.4164;
-198.3000;0.1368;-0.4289;
-198.0000;0.1368;-0.4314;
-197.7000;0.1294;-0.4413;
-197.4000;0.1335;-0.4239;
-197.1000;0.1351;-0.4264;
-196.8000;0.1351;-0.4314;
-196.5000;0.1359;-0.4214;
-196.2000;0.1319;-0.4264;
-195.9000;0.1343;-0.4089;
-195.6000;0.1392;-0.3940;
-195.3000;0.1351;-0.4039;
-195.0000;0.1343;-0.3989;
-194.7000;0.1351;-0.4014;
-194.4000;0.1359;-0.4114;
-194.1000;0.1351;-0.4139;
-193.8000;0.1384;-0.4039;
-193.5000;0.1368;-0.4089;
-193.2000;0.1343;-0.4114;
-192.9000;0.1368;-0.4114;
-192.6000;0.1384;-0.4164;
-192.3000;0.1351;-0.4314;
-192.0000;0.1359;-0.4264;
-191.7000;0.1327;-0.4214;
-191.4000;0.1359;-0.4139;
-191.1000;0.1359;-0.4139;
-190.8000;0.1368;-0.4114;
-190.5000;0.1376;-0.4089;
-190.2000;0.1335;-0.4264;
-189.9000;0.1368;-0.4114;
-189.6000;0.1359;-0.4164;
-189.3000;0.1262;-0.4413;
-189.0000;0.1368;-0.4089;
-188.7000;0.1425;-0.3890;
-188.4000;0.1343;-0.4089;
-188.1000;0.1368;-0.3989;
-187.8000;0.1335;-0.3989;
-187.5000;0.1351;-0.3940;
-187.2000;0.1368;-0.3940;
-186.9000;0.1368;-0.4039;
-186.6000;0.1376;-0.4089;
-186.3000;0.1384;-0.3989;
-186.0000;0.1376;-0.4039;
-185.7000;0.1359;-0.4014;
-185.4000;0.1351;-0.4139;
-185.1000;0.1376;-0.3989;
-184.8000;0.1351;-0.4039;
-184.5000;0.1359;-0.4014;
-184.2000;0.1359;-0.4114;
-183.9000;0.1327;-0.4139;
-183.6000;0.1351;-0.4089;
-183.3000;0.1359;-0.4114;
-183.0000;0.1351;-0.4064;
-182.7000;0.1351;-0.4064;
-182.4000;0.1351;-0.4139;
-182.1000;0.1368;-0.4189;
-181.8000;0.1359;-0.4239;
-181.5000;0.1368;-0.4264;
-181.2000;0.1335;-0.4314;
-180.9000;0.1368;-0.4164;
-180.6000;0.1351;-0.4089;
-180.3000;0.1343;-0.4064;
-180.0000;0.1343;-0.4139;
-179.7000;0.1376;-0.4114;
-179.4000;0.1343;-0.4164;
-179.1000;0.1351;-0.4114;
-178.8000;0.1351;-0.4064;
-178.5000;0.1351;-0.3989;
-178.2000;0.1359;-0.3964;
-177.9000;0.1351;-0.4064;
-177.6000;0.1368;-0.4039;
-177.3000;0.1335;-0.4114;
-177.0000;0.1359;-0.4089;
-176.7000;0.1384;-0.4039;
-176.4000;0.1343;-0.4189;
-176.1000;0.1368;-0.4064;
-175.8000;0.1343;-0.4014;
-175.5000;0.1359;-0.4014;
-175.2000;0.1351;-0.4089;
-174.9000;0.1351;-0.4064;
-174.6000;0.1335;-0.4114;
-174.3000;0.1359;-0.4039;
-174.0000;0.1351;-0.4064;
-173.7000;0.1376;-0.4039;
-173.4000;0.1327;-0.4139;
-173.1000;0.1351;-0.4164;
-172.8000;0.1368;-0.4164;
-172.5000;0.1359;-0.4139;
-172.2000;0.1368;-0.4139;
-171.9000;0.1368;-0.4164;
-171.6000;0.1359;-0.4114;
-171.3000;0.1368;-0.4039;
-171.0000;0.1343;-0.4039;
-170.7000;0.1351;-0.3989;
-170.4000;0.1384;-0.3964;
-170.1000;0.1359;-0.3989;
-169.8000;0.1351;-0.4039;
-169.5000;0.1343;-0.4039;
-169.2000;0.1351;-0.4014;
-168.9000;0.1376;-0.3989;
-168.6000;0.1343;-0.4014;
-168.3000;0.1359;-0.4039;
-168.0000;0.1351;-0.3989;
-167.7000;0.1351;-0.4064;
-167.4000;0.1351;-0.4114;
-167.1000;0.1359;-0.3940;
-166.8000;0.1368;-0.3940;
-166.5000;0.1359;-0.3940;
-166.2000;0.1343;-0.3840;
-165.9000;0.1335;-0.3815;
-165.6000;0.1384;-0.3715;
-165.3000;0.1351;-0.3740;
-165.0000;0.1368;-0.3665;
-164.7000;0.1343;-0.3815;
-164.4000;0.1359;-0.3890;
-164.1000;0.1327;-0.4014;
-163.8000;0.1368;-0.3865;
-163.5000;0.1368;-0.3940;
-163.2000;0.1343;-0.4014;
-162.9000;0.1384;-0.3890;
-162.6000;0.1351;-0.4014;
-162.3000;0.1351;-0.4064;
-162.0000;0.1319;-0.4139;
-161.7000;0.1335;-0.4064;
-161.4000;0.1335;-0.4014;
-161.1000;0.1359;-0.3940;
-160.8000;0.1359;-0.3940;
-160.5000;0.1335;-0.4114;
-160.2000;0.1368;-0.4014;
-159.9000;0.1351;-0.4089;
-159.6000;0.1408;-0.3940;
-159.3000;0.1335;-0.4089;
-159.0000;0.1359;-0.3964;
-158.7000;0.1368;-0.3915;
-158.4000;0.1359;-0.3890;
-158.1000;0.1343;-0.3890;
-157.8000;0.1294;-0.4064;
-157.5000;0.1368;-0.3890;
-157.2000;0.1327;-0.3989;
-156.9000;0.1376;-0.3865;
-156.6000;0.1408;-0.3790;
-156.3000;0.1368;-0.3964;
-156.0000;0.1351;-0.3964;
-155.7000;0.1343;-0.4014;
-155.4000;0.1343;-0.3964;
-155.1000;0.1359;-0.3989;
-154.8000;0.1376;-0.4014;
-154.5000;0.1376;-0.4014;
-154.2000;0.1368;-0.4039;
-153.9000;0.1400;-0.3915;
-153.6000;0.1343;-0.4014;
-153.3000;0.1327;-0.4014;
-153.0000;0.1343;-0.3989;
-152.7000;0.1343;-0.4139;
-152.4000;0.1351;-0.4114;
-152.1000;0.1359;-0.4039;
-151.8000;0.1343;-0.4014;
-151.5000;0.1343;-0.4014;
-151.2000;0.1343;-0.4014;
-150.9000;0.1343;-0.4164;
-150.6000;0.1327;-0.4239;
-150.3000;0.1343;-0.4139;
-150.0000;0.1343;-0.4114;
-149.7000;0.1368;-0.4039;
-149.4000;0.1359;-0.4014;
-149.1000;0.1343;-0.4089;
-148.8000;0.1343;-0.4114;
-148.5000;0.1343;-0.4064;
-148.2000;0.1351;-0.4164;
-147.9000;0.1351;-0.4214;
-147.6000;0.1368;-0.4089;
-147.3000;0.1327;-0.4164;
-147.0000;0.1351;-0.4189;
-146.7000;0.1359;-0.4139;
-146.4000;0.1311;-0.4189;
-146.1000;0.1343;-0.4089;
-145.8000;0.1359;-0.4114;
-145.5000;0.1343;-0.4164;
-145.2000;0.1359;-0.4164;
-144.9000;0.1368;-0.4139;
-144.6000;0.1368;-0.4139;
-144.3000;0.1302;-0.4264;
-144.0000;0.1368;-0.4039;
-143.7000;0.1343;-0.4114;
-143.4000;0.1359;-0.4139;
-143.1000;0.1376;-0.4064;
-142.8000;0.1359;-0.4039;
-142.5000;0.1359;-0.4014;
-142.2000;0.1416;-0.3890;
-141.9000;0.1359;-0.3964;
-141.6000;0.1335;-0.4164;
-141.3000;0.1335;-0.4214;
-141.0000;0.1359;-0.4139;
-140.7000;0.1359;-0.4089;
-140.4000;0.1368;-0.4089;
-140.1000;0.1408;-0.4014;
-139.8000;0.1376;-0.4064;
-139.5000;0.1359;-0.4189;
-139.2000;0.1376;-0.4164;
-138.9000;0.1335;-0.4289;
-138.6000;0.1343;-0.4264;
-138.3000;0.1376;-0.4139;
-138.0000;0.1368;-0.4139;
-137.7000;0.1351;-0.4264;
-137.4000;0.1368;-0.4114;
-137.1000;0.1343;-0.4189;
-136.8000;0.1368;-0.4164;
-136.5000;0.1270;-0.4338;
-136.2000;0.1359;-0.4164;
-135.9000;0.1351;-0.4189;
-135.6000;0.1351;-0.4189;
-135.3000;0.1351;-0.4239;
-135.0000;0.1343;-0.4289;
-134.7000;0.1327;-0.4189;
-134.4000;0.1359;-0.4064;
-134.1000;0.1335;-0.4164;
-133.8000;0.1416;-0.3964;
-133.5000;0.1351;-0.4064;
-133.2000;0.1376;-0.3989;
-132.9000;0.1351;-0.4014;
-132.6000;0.1335;-0.4014;
-132.3000;0.1343;-0.4114;
-132.0000;0.1294;-0.4214;
-131.7000;0.1351;-0.4039;
-131.4000;0.1359;-0.4039;
-131.1000;0.1433;-0.3890;
-130.8000;0.1359;-0.3989;
-130.5000;0.1351;-0.4064;
-130.2000;0.1359;-0.4089;
-129.9000;0.1335;-0.4239;
-129.6000;0.1359;-0.4239;
-129.3000;0.1359;-0.4164;
-129.0000;0.1400;-0.4039;
-128.7000;0.1327;-0.4064;
-128.4000;0.1335;-0.4064;
-128.1000;0.1343;-0.4089;
-127.8000;0.1327;-0.4064;
-127.5000;0.1351;-0.4064;
-127.2000;0.1376;-0.4064;
-126.9000;0.1368;-0.4114;
-126.6000;0.1376;-0.3989;
-126.3000;0.1376;-0.4014;
-126.0000;0.1376;-0.3989;
-125.7000;0.1384;-0.3964;
-125.4000;0.1359;-0.4064;
-125.1000;0.1335;-0.4139;
-124.8000;0.1335;-0.4114;
-124.5000;0.1335;-0.4039;
-124.2000;0.1359;-0.4089;
-123.9000;0.1359;-0.4164;
-123.6000;0.1359;-0.4089;
-123.3000;0.1368;-0.4114;
-123.0000;0.1368;-0.4114;
-122.7000;0.1376;-0.4214;
-122.4000;0.1351;-0.4363;
-122.1000;0.1368;-0.4164;
-121.8000;0.1376;-0.4114;
-121.5000;0.1368;-0.4264;
-121.2000;0.1351;-0.4189;
-120.9000;0.1368;-0.4089;
-120.6000;0.1368;-0.4189;
-120.3000;0.1416;-0.4089;
-120.0000;0.1319;-0.4289;
-119.7000;0.1368;-0.4164;
-119.4000;0.1351;-0.4164;
-119.1000;0.1343;-0.4164;
-118.8000;0.1343;-0.4089;
-118.5000;0.1368;-0.4089;
-118.2000;0.1311;-0.4264;
-117.9000;0.1368;-0.4189;
-117.6000;0.1351;-0.4139;
-117.3000;0.1335;-0.4139;
-117.0000;0.1441;-0.3915;
-116.7000;0.1351;-0.4114;
-116.4000;0.1368;-0.4089;
-116.1000;0.1359;-0.3989;
-115.8000;0.1368;-0.3915;
-115.5000;0.1359;-0.3989;
-115.2000;0.1351;-0.3989;
-114.9000;0.1384;-0.3989;
-114.6000;0.1351;-0.4114;
-114.3000;0.1351;-0.4039;
-114.0000;0.1359;-0.3989;
-113.7000;0.1351;-0.4014;
-113.4000;0.1343;-0.4089;
-113.1000;0.1368;-0.3915;
-112.8000;0.1376;-0.3890;
-112.5000;0.1351;-0.3890;
-112.2000;0.1359;-0.3840;
-111.9000;0.1408;-0.3765;
-111.6000;0.1376;-0.3865;
-111.3000;0.1368;-0.3840;
-111.0000;0.1327;-0.4039;
-110.7000;0.1368;-0.4039;
-110.4000;0.1343;-0.4114;
-110.1000;0.1351;-0.4139;
-109.8000;0.1351;-0.4039;
-109.5000;0.1368;-0.4039;
-109.2000;0.1359;-0.4089;
-108.9000;0.1351;-0.4164;
-108.6000;0.1359;-0.4214;
-108.3000;0.1311;-0.4264;
-108.0000;0.1359;-0.4089;
-107.7000;0.1351;-0.4089;
-107.4000;0.1368;-0.4064;
-107.1000;0.1351;-0.4089;
-106.8000;0.1359;-0.3940;
-106.5000;0.1368;-0.3940;
-106.2000;0.1270;-0.4139;
-105.9000;0.1359;-0.3840;
-105.6000;0.1376;-0.3740;
-105.3000;0.1368;-0.3840;
-105.0000;0.1351;-0.3865;
-104.7000;0.1335;-0.3890;
-104.4000;0.1351;-0.3890;
-104.1000;0.1368;-0.3890;
-103.8000;0.1278;-0.4189;
-103.5000;0.1351;-0.4064;
-103.2000;0.1343;-0.4039;
-102.9000;0.1343;-0.3964;
-102.6000;0.1368;-0.3964;
-102.3000;0.1359;-0.4014;
-102.0000;0.1368;-0.4064;
-101.7000;0.1359;-0.4114;
-101.4000;0.1327;-0.4264;
-101.1000;0.1392;-0.4064;
-100.8000;0.1278;-0.4388;
-100.5000;0.1368;-0.4064;
-100.2000;0.1327;-0.4139;
-99.9000;0.1351;-0.4114;
-99.6000;0.1351;-0.4064;
-99.3000;0.1359;-0.3964;
-99.0000;0.1319;-0.4014;
-98.7000;0.1368;-0.3890;
-98.4000;0.1368;-0.3840;
-98.1000;0.1302;-0.3989;
-97.8000;0.1335;-0.3890;
-97.5000;0.1319;-0.3964;
-97.2000;0.1376;-0.3865;
-96.9000;0.1311;-0.4064;
-96.6000;0.1343;-0.3989;
-96.3000;0.1359;-0.4014;
-96.0000;0.1359;-0.4114;
-95.7000;0.1400;-0.3964;
-95.4000;0.1368;-0.4139;
-95.1000;0.1351;-0.4264;
-94.8000;0.1376;-0.4189;
-94.5000;0.1343;-0.4239;
-94.2000;0.1343;-0.4239;
-93.9000;0.1351;-0.4139;
-93.6000;0.1359;-0.4114;
-93.3000;0.1351;-0.4139;
-93.0000;0.1368;-0.4064;
-92.7000;0.1335;-0.4114;
-92.4000;0.1368;-0.4139;
-92.1000;0.1343;-0.4189;
-91.8000;0.1351;-0.4214;
-91.5000;0.1368;-0.4214;
-91.2000;0.1376;-0.4164;
-90.9000;0.1368;-0.4189;
-90.6000;0.1343;-0.4338;
-90.3000;0.1351;-0.4264;
-90.0000;0.1376;-0.4064;
-89.7000;0.1359;-0.4164;
-89.4000;0.1351;-0.4214;
-89.1000;0.1368;-0.4089;
-88.8000;0.1368;-0.4039;
-88.5000;0.1376;-0.3989;
-88.2000;0.1343;-0.4164;
-87.9000;0.1335;-0.4064;
-87.6000;0.1343;-0.3989;
-87.3000;0.1376;-0.3915;
-87.0000;0.1351;-0.4064;
-86.7000;0.1416;-0.3915;
-86.4000;0.1425;-0.3890;
-86.1000;0.1392;-0.3940;
-85.8000;0.1449;-0.3765;
-85.5000;0.1343;-0.4089;
-85.2000;0.1433;-0.3840;
-84.9000;0.1368;-0.4114;
-84.6000;0.1335;-0.4114;
-84.3000;0.1327;-0.4139;
-84.0000;0.1351;-0.4089;
-83.7000;0.1359;-0.4114;
-83.4000;0.1351;-0.4189;
-83.1000;0.1359;-0.4164;
-82.8000;0.1359;-0.4089;
-82.5000;0.1368;-0.4089;
-82.2000;0.1384;-0.4114;
-81.9000;0.1351;-0.4164;
-81.6000;0.1368;-0.4114;
-81.3000;0.1351;-0.4114;
-81.0000;0.1368;-0.3964;
-80.7000;0.1359;-0.4064;
-80.4000;0.1376;-0.4089;
-80.1000;0.1335;-0.4239;
-79.8000;0.1368;-0.4314;
-79.5000;0.1351;-0.4314;
-79.2000;0.1343;-0.4363;
-78.9000;0.1368;-0.4289;
-78.6000;0.1376;-0.4314;
-78.3000;0.1343;-0.4363;
-78.0000;0.1343;-0.4363;
-77.7000;0.1368;-0.4264;
-77.4000;0.1376;-0.4264;
-77.1000;0.1368;-0.4289;
-76.8000;0.1368;-0.4289;
-76.5000;0.1359;-0.4239;
-76.2000;0.1359;-0.4114;
-75.9000;0.1368;-0.4039;
-75.6000;0.1343;-0.4114;
-75.3000;0.1351;-0.4139;
-75.0000;0.1343;-0.4089;
-74.7000;0.1376;-0.3989;
-74.4000;0.1376;-0.3890;
-74.1000;0.1343;-0.4089;
-73.8000;0.1359;-0.4014;
-73.5000;0.1368;-0.3989;
-73.2000;0.1368;-0.3964;
-72.9000;0.1376;-0.4039;
-72.6000;0.1351;-0.4039;
-72.3000;0.1286;-0.4189;
-72.0000;0.1368;-0.3989;
-71.7000;0.1359;-0.3989;
-71.4000;0.1376;-0.3940;
-71.1000;0.1351;-0.4039;
-70.8000;0.1441;-0.3815;
-70.5000;0.1359;-0.3915;
-70.2000;0.1351;-0.3890;
-69.9000;0.1376;-0.3815;
-69.6000;0.1384;-0.3715;
-69.3000;0.1359;-0.3865;
-69.0000;0.1400;-0.3940;
-68.7000;0.1335;-0.4114;
-68.4000;0.1368;-0.3964;
-68.1000;0.1343;-0.4089;
-67.8000;0.1400;-0.3915;
-67.5000;0.1359;-0.4014;
-67.2000;0.1368;-0.4089;
-66.9000;0.1392;-0.4064;
-66.6000;0.1457;-0.3865;
-66.3000;0.1343;-0.4189;
-66.0000;0.1359;-0.4114;
-65.7000;0.1335;-0.4089;
-65.4000;0.1343;-0.4039;
-65.1000;0.1351;-0.3964;
-64.8000;0.1278;-0.4164;
-64.5000;0.1278;-0.4289;
-64.2000;0.1335;-0.4114;
-63.9000;0.1343;-0.3989;
-63.6000;0.1351;-0.4089;
-63.3000;0.1368;-0.4089;
-63.0000;0.1384;-0.4089;
-62.7000;0.1376;-0.4114;
-62.4000;0.1384;-0.4014;
-62.1000;0.1400;-0.3915;
-61.8000;0.1343;-0.3940;
-61.5000;0.1368;-0.3815;
-61.2000;0.1376;-0.3740;
-60.9000;0.1368;-0.3815;
-60.6000;0.1368;-0.3890;
-60.3000;0.1311;-0.4089;
-60.0000;0.1351;-0.4139;
-59.7000;0.1351;-0.4139;
-59.4000;0.1376;-0.4089;
-59.1000;0.1343;-0.4089;
-58.8000;0.1368;-0.4064;
-58.5000;0.1351;-0.4114;
-58.2000;0.1376;-0.4089;
-57.9000;0.1351;-0.4189;
-57.6000;0.1343;-0.4139;
-57.3000;0.1351;-0.4089;
-57.0000;0.1368;-0.3989;
-56.7000;0.1376;-0.4064;
-56.4000;0.1351;-0.4114;
-56.1000;0.1351;-0.4214;
-55.8000;0.1343;-0.4264;
-55.5000;0.1335;-0.4214;
-55.2000;0.1302;-0.4413;
-54.9000;0.1343;-0.4189;
-54.6000;0.1351;-0.4189;
-54.3000;0.1335;-0.4189;
-54.0000;0.1368;-0.4139;
-53.7000;0.1359;-0.4114;
-53.4000;0.1359;-0.4089;
-53.1000;0.1359;-0.4114;
-52.8000;0.1368;-0.4114;
-52.5000;0.1335;-0.4264;
-52.2000;0.1400;-0.4139;
-51.9000;0.1368;-0.4089;
-51.6000;0.1368;-0.3989;
-51.3000;0.1351;-0.4164;
-51.0000;0.1319;-0.4214;
-50.7000;0.1376;-0.4089;
-50.4000;0.1416;-0.3915;
-50.1000;0.1359;-0.4139;
-49.8000;0.1359;-0.4214;
-49.5000;0.1343;-0.4289;
-49.2000;0.1351;-0.4214;
-48.9000;0.1359;-0.4139;
-48.6000;0.1343;-0.4164;
-48.3000;0.1368;-0.4164;
-48.0000;0.1319;-0.4289;
-47.7000;0.1359;-0.4139;
-47.4000;0.1368;-0.4164;
-47.1000;0.1376;-0.4139;
-46.8000;0.1343;-0.4214;
-46.5000;0.1351;-0.4214;
-46.2000;0.1408;-0.4089;
-45.9000;0.1351;-0.4214;
-45.6000;0.1343;-0.4239;
-45.3000;0.1351;-0.4264;
-45.0000;0.1368;-0.4164;
-44.7000;0.1359;-0.4164;
-44.4000;0.1351;-0.4189;
-44.1000;0.1449;-0.3964;
-43.8000;0.1335;-0.4214;
-43.5000;0.1343;-0.4189;
-43.2000;0.1368;-0.4039;
-42.9000;0.1359;-0.4114;
-42.6000;0.1302;-0.4289;
-42.3000;0.1368;-0.4214;
-42.0000;0.1368;-0.4239;
-41.7000;0.1368;-0.4189;
-41.4000;0.1368;-0.4139;
-41.1000;0.1368;-0.4089;
-40.8000;0.1359;-0.4064;
-40.5000;0.1359;-0.4014;
-40.2000;0.1351;-0.4114;
-39.9000;0.1343;-0.4214;
-39.6000;0.1351;-0.4239;
-39.3000;0.1359;-0.4214;
-39.0000;0.1351;-0.4139;
-38.7000;0.1351;-0.3989;
-38.4000;0.1359;-0.3915;
-38.1000;0.1359;-0.3940;
-37.8000;0.1368;-0.4014;
-37.5000;0.1359;-0.3989;
-37.2000;0.1376;-0.3964;
-36.9000;0.1335;-0.4064;
-36.6000;0.1368;-0.4039;
-36.3000;0.1368;-0.4039;
-36.0000;0.1351;-0.4039;
-35.7000;0.1384;-0.4014;
-35.4000;0.1368;-0.4064;
-35.1000;0.1384;-0.3989;
-34.8000;0.1327;-0.4114;
-34.5000;0.1335;-0.4064;
-34.2000;0.1359;-0.4064;
-33.9000;0.1368;-0.4089;
-33.6000;0.1368;-0.4039;
-33.3000;0.1343;-0.4139;
-33.0000;0.1368;-0.4089;
-32.7000;0.1376;-0.3964;
-32.4000;0.1359;-0.3964;
-32.1000;0.1359;-0.3964;
-31.8000;0.1359;-0.4014;
-31.5000;0.1359;-0.3890;
-31.2000;0.1368;-0.3890;
-30.9000;0.1359;-0.3840;
-30.6000;0.1359;-0.3815;
-30.3000;0.1351;-0.3890;
-30.0000;0.1359;-0.3940;
-29.7000;0.1351;-0.3964;
-29.4000;0.1351;-0.4014;
-29.1000;0.1351;-0.4014;
-28.8000;0.1351;-0.4014;
-28.5000;0.1343;-0.4014;
-28.2000;0.1319;-0.4064;
-27.9000;0.1376;-0.3940;
-27.6000;0.1384;-0.3940;
-27.3000;0.1384;-0.3890;
-27.0000;0.1376;-0.3815;
-26.7000;0.1351;-0.3840;
-26.4000;0.1351;-0.3865;
-26.1000;0.1384;-0.3740;
-25.8000;0.1351;-0.3815;
-25.5000;0.1229;-0.4164;
-25.2000;0.1359;-0.3815;
-24.9000;0.1359;-0.3865;
-24.6000;0.1351;-0.3964;
-24.3000;0.1351;-0.3989;
-24.0000;0.1416;-0.3790;
-23.7000;0.1359;-0.3840;
-23.4000;0.1359;-0.3790;
-23.1000;0.1433;-0.3615;
-22.8000;0.1368;-0.3815;
-22.5000;0.1449;-0.3590;
-22.2000;0.1368;-0.3765;
-21.9000;0.1359;-0.3765;
-21.6000;0.1376;-0.3840;
-21.3000;0.1359;-0.3790;
-21.0000;0.1368;-0.3840;
-20.7000;0.1319;-0.3989;
-20.4000;0.1359;-0.3790;
-20.1000;0.1351;-0.3840;
-19.8000;0.1343;-0.3815;
-19.5000;0.1351;-0.3815;
-19.2000;0.1294;-0.4014;
-18.9000;0.1343;-0.4014;
-18.6000;0.1351;-0.3964;
-18.3000;0.1351;-0.3915;
-18.0000;0.1343;-0.3964;
-17.7000;0.1351;-0.3989;
-17.4000;0.1351;-0.4139;
-17.1000;0.1368;-0.4064;
-16.8000;0.1343;-0.4064;
-16.5000;0.1327;-0.4114;
-16.2000;0.1335;-0.4064;
-15.9000;0.1359;-0.3989;
-15.6000;0.1359;-0.3989;
-15.3000;0.1327;-0.4014;
-15.0000;0.1359;-0.3989;
-14.7000;0.1359;-0.3964;
-14.4000;0.1351;-0.3989;
-14.1000;0.1359;-0.3989;
-13.8000;0.1359;-0.3890;
-13.5000;0.1384;-0.3865;
-13.2000;0.1343;-0.4089;
-12.9000;0.1351;-0.3989;
-12.6000;0.1359;-0.4039;
-12.3000;0.1359;-0.4089;
-12.0000;0.1335;-0.4014;
-11.7000;0.1343;-0.3989;
-11.4000;0.1359;-0.3840;
-11.1000;0.1327;-0.3840;
-10.8000;0.1368;-0.3790;
-10.5000;0.1376;-0.3840;
-10.2000;0.1359;-0.3915;
-9.9000;0.1359;-0.3964;
-9.6000;0.1343;-0.4039;
-9.3000;0.1368;-0.3989;
-9.0000;0.1245;-0.4189;
-8.7000;0.1359;-0.4039;
-8.4000;0.1368;-0.4064;
-8.1000;0.1351;-0.4139;
-7.8000;0.1359;-0.4139;
-7.5000;0.1376;-0.3989;
-7.2000;0.1351;-0.4014;
-6.9000;0.1351;-0.4039;
-6.6000;0.1359;-0.3940;
-6.3000;0.1359;-0.3940;
-6.0000;0.1351;-0.4014;
-5.7000;0.1327;-0.4014;
-5.4000;0.1351;-0.3940;
-5.1000;0.1351;-0.3915;
-4.8000;0.1245;-0.4239;
-4.5000;0.1376;-0.3940;
-4.2000;0.1359;-0.4014;
-3.9000;0.1343;-0.4064;
-3.6000;0.1368;-0.3964;
-3.3000;0.1400;-0.3940;
-3.0000;0.1343;-0.4139;
-2.7000;0.1376;-0.4089;
-2.4000;0.1327;-0.4264;
-2.1000;0.1392;-0.4064;
-1.8000;0.1311;-0.4264;
-1.5000;0.1368;-0.4164;
-1.2000;0.1359;-0.4139;
-0.9000;0.1376;-0.4064;
-0.6000;0.1384;-0.4064;
-0.3000;0.1392;-0.4039;
0.0000;0.1392;-0.4039;
0.3000;0.1384;-0.4014;
0.6000;0.1368;-0.3940;
0.9000;0.1384;-0.3665;
1.2000;0.1376;-0.3541;
1.5000;0.1359;-0.3466;
1.8000;0.1384;-0.3291;
2.1000;0.1368;-0.3167;
2.4000;0.1416;-0.2967;
2.7000;0.1416;-0.2818;
3.0000;0.1425;-0.2718;
3.3000;0.1449;-0.2618;
3.6000;0.1449;-0.2593;
3.9000;0.1408;-0.2718;
4.2000;0.1425;-0.2668;
4.5000;0.1416;-0.2643;
4.8000;0.1392;-0.2518;
5.1000;0.1416;-0.2518;
5.4000;0.1384;-0.2444;
5.7000;0.1392;-0.2444;
6.0000;0.1425;-0.2369;
6.3000;0.1433;-0.2369;
6.6000;0.1441;-0.2344;
6.9000;0.1416;-0.2319;
7.2000;0.1376;-0.2369;
7.5000;0.1441;-0.2144;
7.8000;0.1538;-0.1995;
8.1000;0.1416;-0.2344;
8.4000;0.1433;-0.2219;
8.7000;0.1368;-0.2419;
9.0000;0.1441;-0.2144;
9.3000;0.1441;-0.2144;
9.6000;0.1441;-0.2194;
9.9000;0.1384;-0.2394;
10.2000;0.1433;-0.2319;
10.5000;0.1441;-0.2319;
10.8000;0.1392;-0.2394;
11.1000;0.1425;-0.2169;
11.4000;0.1433;-0.2219;
11.7000;0.1457;-0.2094;
12.0000;0.1433;-0.2119;
12.3000;0.1425;-0.2094;
12.6000;0.1433;-0.2194;
12.9000;0.1433;-0.2269;
13.2000;0.1433;-0.2369;
13.5000;0.1433;-0.2244;
13.8000;0.1449;-0.2169;
14.1000;0.1498;-0.2045;
14.4000;0.1433;-0.2169;
14.7000;0.1416;-0.2269;
15.0000;0.1416;-0.2344;
15.3000;0.1433;-0.2344;
15.6000;0.1449;-0.2269;
15.9000;0.1441;-0.2269;
16.2000;0.1433;-0.2294;
16.5000;0.1449;-0.2319;
16.8000;0.1433;-0.2394;
17.1000;0.1416;-0.2468;
17.4000;0.1416;-0.2518;
17.7000;0.1441;-0.2468;
18.0000;0.1441;-0.2394;
18.3000;0.1441;-0.2319;
18.6000;0.1408;-0.2419;
18.9000;0.1433;-0.2344;
19.2000;0.1400;-0.2493;
19.5000;0.1490;-0.2269;
19.8000;0.1441;-0.2369;
20.1000;0.1408;-0.2369;
20.4000;0.1433;-0.2394;
20.7000;0.1425;-0.2444;
21.0000;0.1490;-0.2169;
21.3000;0.1416;-0.2269;
21.6000;0.1425;-0.2269;
21.9000;0.1416;-0.2244;
22.2000;0.1384;-0.2344;
22.5000;0.1384;-0.2394;
22.8000;0.1441;-0.2294;
23.1000;0.1498;-0.2094;
23.4000;0.1433;-0.2244;
23.7000;0.1425;-0.2294;
24.0000;0.1449;-0.2194;
24.3000;0.1400;-0.2269;
24.6000;0.1425;-0.2144;
24.9000;0.1400;-0.2194;
25.2000;0.1425;-0.2219;
25.5000;0.1425;-0.2219;
25.8000;0.1449;-0.2169;
26.1000;0.1392;-0.2269;
26.4000;0.1473;-0.2045;
26.7000;0.1416;-0.2144;
27.0000;0.1416;-0.2219;
27.3000;0.1433;-0.2319;
27.6000;0.1425;-0.2369;
27.9000;0.1457;-0.2244;
28.2000;0.1327;-0.2543;
28.5000;0.1433;-0.2244;
28.8000;0.1416;-0.2344;
29.1000;0.1408;-0.2344;
29.4000;0.1425;-0.2269;
29.7000;0.1359;-0.2444;
30.0000;0.1416;-0.2269;
30.3000;0.1416;-0.2319;
30.6000;0.1425;-0.2319;
30.9000;0.1433;-0.2319;
31.2000;0.1416;-0.2369;
31.5000;0.1433;-0.2269;
31.8000;0.1425;-0.2319;
32.1000;0.1408;-0.2394;
32.4000;0.1408;-0.2444;
32.7000;0.1416;-0.2319;
33.0000;0.1433;-0.2319;
33.3000;0.1425;-0.2319;
33.6000;0.1416;-0.2244;
33.9000;0.1433;-0.2294;
34.2000;0.1441;-0.2244;
34.5000;0.1441;-0.2319;
34.8000;0.1449;-0.2369;
35.1000;0.1368;-0.2444;
35.4000;0.1433;-0.2194;
35.7000;0.1433;-0.2169;
36.0000;0.1441;-0.2169;
36.3000;0.1441;-0.2144;
36.6000;0.1433;-0.2119;
36.9000;0.1416;-0.2144;
37.2000;0.1433;-0.2144;
37.5000;0.1441;-0.2094;
37.8000;0.1425;-0.2144;
38.1000;0.1441;-0.2169;
38.4000;0.1425;-0.2219;
38.7000;0.1425;-0.2219;
39.0000;0.1425;-0.2094;
39.3000;0.1416;-0.2094;
39.6000;0.1449;-0.2020;
39.9000;0.1449;-0.2069;
40.2000;0.1408;-0.2094;
40.5000;0.1425;-0.1970;
40.8000;0.1425;-0.1995;
41.1000;0.1433;-0.2020;
41.4000;0.1425;-0.2020;
41.7000;0.1400;-0.2119;
42.0000;0.1433;-0.2094;
42.3000;0.1449;-0.2045;
42.6000;0.1400;-0.2194;
42.9000;0.1433;-0.2169;
43.2000;0.1441;-0.2219;
43.5000;0.1441;-0.2144;
43.8000;0.1384;-0.2294;
44.1000;0.1433;-0.2094;
44.4000;0.1408;-0.2144;
44.7000;0.1425;-0.2244;
45.0000;0.1433;-0.2169;
45.3000;0.1457;-0.2094;
45.6000;0.1416;-0.2294;
45.9000;0.1416;-0.2169;
46.2000;0.1441;-0.2144;
46.5000;0.1433;-0.2194;
46.8000;0.1433;-0.2219;
47.1000;0.1416;-0.2294;
47.4000;0.1457;-0.2294;
47.7000;0.1449;-0.2294;
48.0000;0.1425;-0.2269;
48.3000;0.1384;-0.2344;
48.6000;0.1433;-0.2069;
48.9000;0.1416;-0.2094;
49.2000;0.1425;-0.2094;
49.5000;0.1441;-0.2119;
49.8000;0.1433;-0.2169;
50.1000;0.1449;-0.2144;
50.4000;0.1490;-0.2094;
50.7000;0.1425;-0.2344;
51.0000;0.1425;-0.2344;
51.3000;0.1400;-0.2419;
51.6000;0.1547;-0.2094;
51.9000;0.1416;-0.2444;
52.2000;0.1441;-0.2394;
52.5000;0.1514;-0.2169;
52.8000;0.1408;-0.2468;
53.1000;0.1392;-0.2444;
53.4000;0.1441;-0.2394;
53.7000;0.1416;-0.2493;
54.0000;0.1416;-0.2493;
54.3000;0.1433;-0.2419;
54.6000;0.1433;-0.2344;
54.9000;0.1441;-0.2194;
55.2000;0.1441;-0.2244;
55.5000;0.1425;-0.2344;
55.8000;0.1449;-0.2294;
56.1000;0.1449;-0.2294;
56.4000;0.1408;-0.2394;
56.7000;0.1425;-0.2319;
57.0000;0.1457;-0.2219;
57.3000;0.1449;-0.2294;
57.6000;0.1433;-0.2344;
57.9000;0.1425;-0.2244;
58.2000;0.1425;-0.2194;
58.5000;0.1441;-0.2244;
58.8000;0.1449;-0.2294;
59.1000;0.1425;-0.2394;
59.4000;0.1441;-0.2319;
59.7000;0.1425;-0.2419;
60.0000;0.1465;-0.2394;
60.3000;0.1433;-0.2444;
60.6000;0.1425;-0.2394;
60.9000;0.1416;-0.2344;
61.2000;0.1449;-0.2269;
61.5000;0.1408;-0.2394;
61.8000;0.1408;-0.2394;
62.1000;0.1408;-0.2394;
62.4000;0.1449;-0.2344;
62.7000;0.1433;-0.2419;
63.0000;0.1384;-0.2593;
63.3000;0.1425;-0.2493;
63.6000;0.1465;-0.2493;
63.9000;0.1449;-0.2468;
64.2000;0.1311;-0.2743;
64.5000;0.1416;-0.2543;
64.8000;0.1425;-0.2493;
65.1000;0.1498;-0.2394;
65.4000;0.1400;-0.2643;
65.7000;0.1384;-0.2693;
66.0000;0.1441;-0.2543;
66.3000;0.1441;-0.2568;
66.6000;0.1473;-0.2419;
66.9000;0.1416;-0.2618;
67.2000;0.1425;-0.2518;
67.5000;0.1408;-0.2493;
67.8000;0.1441;-0.2344;
68.1000;0.1441;-0.2369;
68.4000;0.1441;-0.2269;
68.7000;0.1473;-0.2094;
69.0000;0.1473;-0.2144;
69.3000;0.1433;-0.2094;
69.6000;0.1506;-0.1845;
69.9000;0.1441;-0.2045;
70.2000;0.1441;-0.2094;
70.5000;0.1425;-0.2269;
70.8000;0.1408;-0.2344;
71.1000;0.1433;-0.2269;
71.4000;0.1433;-0.2269;
71.7000;0.1425;-0.2194;
72.0000;0.1425;-0.2169;
72.3000;0.1425;-0.2169;
72.6000;0.1433;-0.2045;
72.9000;0.1441;-0.2020;
73.2000;0.1441;-0.2020;
73.5000;0.1433;-0.2045;
73.8000;0.1441;-0.2045;
74.1000;0.1416;-0.2045;
74.4000;0.1433;-0.2119;
74.7000;0.1441;-0.2119;
75.0000;0.1433;-0.2094;
75.3000;0.1433;-0.2119;
75.6000;0.1465;-0.2069;
75.9000;0.1425;-0.2119;
76.2000;0.1433;-0.1970;
76.5000;0.1457;-0.1945;
76.8000;0.1441;-0.1970;
77.1000;0.1441;-0.1920;
77.4000;0.1416;-0.1920;
77.7000;0.1416;-0.1945;
78.0000;0.1408;-0.1970;
78.3000;0.1433;-0.2069;
78.6000;0.1433;-0.2069;
78.9000;0.1449;-0.2144;
79.2000;0.1408;-0.2294;
79.5000;0.1425;-0.2219;
79.8000;0.1425;-0.2144;
80.1000;0.1425;-0.2119;
80.4000;0.1425;-0.2144;
80.7000;0.1408;-0.2219;
81.0000;0.1433;-0.2169;
81.3000;0.1416;-0.2144;
81.6000;0.1425;-0.2094;
81.9000;0.1425;-0.2119;
82.2000;0.1416;-0.2144;
82.5000;0.1425;-0.2144;
82.8000;0.1425;-0.2094;
83.1000;0.1441;-0.2069;
83.4000;0.1441;-0.2169;
83.7000;0.1433;-0.2169;
84.0000;0.1449;-0.2119;
84.3000;0.1433;-0.2144;
84.6000;0.1433;-0.2169;
84.9000;0.1433;-0.2219;
85.2000;0.1433;-0.2069;
85.5000;0.1449;-0.2020;
85.8000;0.1433;-0.2119;
86.1000;0.1441;-0.2094;
86.4000;0.1465;-0.2194;
86.7000;0.1441;-0.2219;
87.0000;0.1433;-0.2194;
87.3000;0.1376;-0.2344;
87.6000;0.1400;-0.2294;
87.9000;0.1416;-0.2219;
88.2000;0.1433;-0.2144;
88.5000;0.1416;-0.2244;
88.8000;0.1425;-0.2194;
89.1000;0.1416;-0.2119;
89.4000;0.1441;-0.2045;
89.7000;0.1425;-0.2119;
90.0000;0.1408;-0.2169;
90.3000;0.1449;-0.2119;
90.6000;0.1449;-0.2169;
90.9000;0.1392;-0.2369;
91.2000;0.1400;-0.2394;
91.5000;0.1473;-0.2094;
91.8000;0.1433;-0.2169;
92.1000;0.1400;-0.2194;
92.4000;0.1416;-0.2194;
92.7000;0.1481;-0.1995;
93.0000;0.1473;-0.1970;
93.3000;0.1441;-0.2069;
93.6000;0.1425;-0.2094;
93.9000;0.1441;-0.2045;
94.2000;0.1449;-0.1920;
94.5000;0.1425;-0.1970;
94.8000;0.1433;-0.1945;
95.1000;0.1433;-0.1945;
95.4000;0.1441;-0.1945;
95.7000;0.1425;-0.1895;
96.0000;0.1416;-0.1970;
96.3000;0.1425;-0.1920;
96.6000;0.1441;-0.1845;
96.9000;0.1425;-0.1895;
97.2000;0.1433;-0.1895;
97.5000;0.1433;-0.1970;
97.8000;0.1441;-0.1970;
98.1000;0.1425;-0.1920;
98.4000;0.1441;-0.1895;
98.7000;0.1425;-0.1820;
99.0000;0.1433;-0.1795;
99.3000;0.1449;-0.1820;
99.6000;0.1433;-0.1895;
99.9000;0.1425;-0.1945;
100.2000;0.1425;-0.2045;
100.5000;0.1425;-0.2094;
100.8000;0.1425;-0.2069;
101.1000;0.1425;-0.2045;
101.4000;0.1416;-0.2020;
101.7000;0.1400;-0.1995;
102.0000;0.1425;-0.2069;
102.3000;0.1425;-0.2094;
102.6000;0.1433;-0.2094;
102.9000;0.1441;-0.1995;
103.2000;0.1416;-0.2045;
103.5000;0.1433;-0.2045;
103.8000;0.1425;-0.2020;
104.1000;0.1449;-0.1895;
104.4000;0.1433;-0.1945;
104.7000;0.1425;-0.1920;
105.0000;0.1400;-0.2144;
105.3000;0.1425;-0.1995;
105.6000;0.1433;-0.1995;
105.9000;0.1433;-0.1970;
106.2000;0.1416;-0.2020;
106.5000;0.1433;-0.1870;
106.8000;0.1433;-0.1970;
107.1000;0.1408;-0.2094;
107.4000;0.1449;-0.1920;
107.7000;0.1416;-0.2094;
108.0000;0.1433;-0.2094;
108.3000;0.1433;-0.2045;
108.6000;0.1408;-0.2094;
108.9000;0.1441;-0.2045;
109.2000;0.1433;-0.2069;
109.5000;0.1425;-0.2144;
109.8000;0.1425;-0.2169;
110.1000;0.1425;-0.2194;
110.4000;0.1416;-0.2194;
110.7000;0.1425;-0.2144;
111.0000;0.1425;-0.2094;
111.3000;0.1425;-0.2119;
111.6000;0.1425;-0.2069;
111.9000;0.1408;-0.2094;
112.2000;0.1416;-0.2094;
112.5000;0.1416;-0.2144;
112.8000;0.1416;-0.2144;
113.1000;0.1433;-0.2194;
113.4000;0.1441;-0.2169;
113.7000;0.1433;-0.2244;
114.0000;0.1400;-0.2369;
114.3000;0.1433;-0.2294;
114.6000;0.1441;-0.2169;
114.9000;0.1473;-0.2020;
115.2000;0.1441;-0.1995;
115.5000;0.1408;-0.2119;
115.8000;0.1473;-0.2045;
116.1000;0.1465;-0.2094;
116.4000;0.1425;-0.2169;
116.7000;0.1441;-0.2144;
117.0000;0.1449;-0.2144;
117.3000;0.1433;-0.2194;
117.6000;0.1425;-0.2169;
117.9000;0.1408;-0.2194;
118.2000;0.1457;-0.2045;
118.5000;0.1449;-0.2094;
118.8000;0.1433;-0.1995;
119.1000;0.1416;-0.1995;
119.4000;0.1441;-0.1945;
119.7000;0.1449;-0.2045;
120.0000;0.1530;-0.1895;
120.3000;0.1449;-0.2094;
120.6000;0.1416;-0.2219;
120.9000;0.1416;-0.2069;
121.2000;0.1416;-0.2045;
121.5000;0.1408;-0.2069;
121.8000;0.1425;-0.1970;
122.1000;0.1441;-0.1920;
122.4000;0.1425;-0.1945;
122.7000;0.1425;-0.2045;
123.0000;0.1441;-0.1995;
123.3000;0.1433;-0.2020;
123.6000;0.1433;-0.2045;
123.9000;0.1441;-0.1945;
124.2000;0.1400;-0.2069;
124.5000;0.1433;-0.2119;
124.8000;0.1433;-0.2194;
125.1000;0.1481;-0.2144;
125.4000;0.1416;-0.2244;
125.7000;0.1416;-0.2244;
126.0000;0.1400;-0.2394;
126.3000;0.1433;-0.2294;
126.6000;0.1408;-0.2344;
126.9000;0.1416;-0.2219;
127.2000;0.1425;-0.2119;
127.5000;0.1425;-0.2144;
127.8000;0.1335;-0.2294;
128.1000;0.1359;-0.2294;
128.4000;0.1416;-0.2144;
128.7000;0.1425;-0.2094;
129.0000;0.1433;-0.1945;
129.3000;0.1425;-0.2045;
129.6000;0.1433;-0.2069;
129.9000;0.1433;-0.1995;
130.2000;0.1433;-0.1995;
130.5000;0.1425;-0.1970;
130.8000;0.1416;-0.2045;
131.1000;0.1433;-0.2020;
131.4000;0.1392;-0.2144;
131.7000;0.1408;-0.2094;
132.0000;0.1400;-0.2094;
132.3000;0.1408;-0.2144;
132.6000;0.1433;-0.2020;
132.9000;0.1433;-0.1995;
133.2000;0.1425;-0.1920;
133.5000;0.1449;-0.1870;
133.8000;0.1433;-0.1995;
134.1000;0.1416;-0.2045;
134.4000;0.1368;-0.2144;
134.7000;0.1441;-0.2020;
135.0000;0.1441;-0.1970;
135.3000;0.1441;-0.1895;
135.6000;0.1441;-0.1870;
135.9000;0.1408;-0.1945;
136.2000;0.1400;-0.2069;
136.5000;0.1433;-0.1970;
136.8000;0.1416;-0.2094;
137.1000;0.1416;-0.2045;
137.4000;0.1433;-0.2020;
137.7000;0.1433;-0.2045;
138.0000;0.1425;-0.2119;
138.3000;0.1425;-0.2119;
138.6000;0.1408;-0.2194;
138.9000;0.1433;-0.2045;
139.2000;0.1400;-0.2119;
139.5000;0.1441;-0.2069;
139.8000;0.1441;-0.2119;
140.1000;0.1441;-0.2169;
140.4000;0.1408;-0.2144;
140.7000;0.1416;-0.2045;
141.0000;0.1359;-0.2244;
141.3000;0.1368;-0.2244;
141.6000;0.1433;-0.2069;
141.9000;0.1441;-0.2020;
142.2000;0.1457;-0.1895;
142.5000;0.1498;-0.1745;
142.8000;0.1449;-0.1795;
143.1000;0.1416;-0.1920;
143.4000;0.1408;-0.1795;
143.7000;0.1425;-0.1795;
144.0000;0.1433;-0.1720;
144.3000;0.1416;-0.1845;
144.6000;0.1425;-0.1895;
144.9000;0.1441;-0.1870;
145.2000;0.1425;-0.1920;
145.5000;0.1433;-0.1895;
145.8000;0.1441;-0.1845;
146.1000;0.1425;-0.1845;
146.4000;0.1514;-0.1646;
146.7000;0.1425;-0.1970;
147.0000;0.1408;-0.1945;
147.3000;0.1425;-0.1945;
147.6000;0.1433;-0.1995;
147.9000;0.1433;-0.1995;
148.2000;0.1425;-0.1920;
148.5000;0.1433;-0.1920;
148.8000;0.1425;-0.1945;
149.1000;0.1425;-0.1895;
149.4000;0.1425;-0.1770;
149.7000;0.1433;-0.1770;
150.0000;0.1441;-0.1820;
150.3000;0.1465;-0.1745;
150.6000;0.1416;-0.1945;
150.9000;0.1408;-0.1970;
151.2000;0.1408;-0.1945;
151.5000;0.1425;-0.1845;
151.8000;0.1400;-0.1870;
152.1000;0.1400;-0.1920;
152.4000;0.1416;-0.1945;
152.7000;0.1368;-0.2119;
153.0000;0.1449;-0.1895;
153.3000;0.1416;-0.1970;
153.6000;0.1433;-0.1970;
153.9000;0.1433;-0.1995;
154.2000;0.1433;-0.1895;
154.5000;0.1433;-0.1845;
154.8000;0.1425;-0.1870;
155.1000;0.1425;-0.1895;
155.4000;0.1425;-0.1845;
155.7000;0.1416;-0.1995;
156.0000;0.1408;-0.2045;
156.3000;0.1416;-0.2069;
156.6000;0.1433;-0.2069;
156.9000;0.1408;-0.2119;
157.2000;0.1481;-0.1945;
157.5000;0.1425;-0.1945;
157.8000;0.1400;-0.1995;
158.1000;0.1457;-0.1745;
158.4000;0.1425;-0.1870;
158.7000;0.1433;-0.1945;
159.0000;0.1408;-0.1970;
159.3000;0.1457;-0.1895;
159.6000;0.1359;-0.2069;
159.9000;0.1408;-0.1920;
160.2000;0.1351;-0.2020;
160.5000;0.1425;-0.1895;
160.8000;0.1433;-0.1920;
161.1000;0.1416;-0.1920;
161.4000;0.1425;-0.1945;
161.7000;0.1514;-0.1671;
162.0000;0.1457;-0.1870;
162.3000;0.1433;-0.1920;
162.6000;0.1416;-0.1995;
162.9000;0.1441;-0.2119;
163.2000;0.1425;-0.2069;
163.5000;0.1359;-0.2294;
163.8000;0.1433;-0.2094;
164.1000;0.1449;-0.2020;
164.4000;0.1441;-0.2020;
164.7000;0.1449;-0.2020;
165.0000;0.1425;-0.2069;
165.3000;0.1441;-0.2020;
165.6000;0.1441;-0.1995;
165.9000;0.1441;-0.2045;
166.2000;0.1425;-0.2045;
166.5000;0.1481;-0.1995;
166.8000;0.1416;-0.2045;
167.1000;0.1416;-0.2094;
167.4000;0.1376;-0.2269;
167.7000;0.1416;-0.2219;
168.0000;0.1433;-0.2269;
168.3000;0.1449;-0.2244;
168.6000;0.1425;-0.2269;
168.9000;0.1400;-0.2344;
169.2000;0.1425;-0.2294;
169.5000;0.1425;-0.2319;
169.8000;0.1425;-0.2294;
170.1000;0.1425;-0.2244;
170.4000;0.1400;-0.2294;
170.7000;0.1408;-0.2269;
171.0000;0.1392;-0.2294;
171.3000;0.1408;-0.2169;
171.6000;0.1392;-0.2194;
171.9000;0.1400;-0.2144;
172.2000;0.1425;-0.2144;
172.5000;0.1416;-0.2194;
172.8000;0.1433;-0.2169;
173.1000;0.1425;-0.2194;
173.4000;0.1441;-0.2144;
173.7000;0.1416;-0.2169;
174.0000;0.1449;-0.2094;
174.3000;0.1449;-0.2069;
174.6000;0.1449;-0.2045;
174.9000;0.1425;-0.2094;
175.2000;0.1465;-0.2020;
175.5000;0.1433;-0.2069;
175.8000;0.1416;-0.2144;
176.1000;0.1408;-0.2144;
176.4000;0.1433;-0.2144;
176.7000;0.1400;-0.2144;
177.0000;0.1384;-0.2219;
177.3000;0.1457;-0.1995;
177.6000;0.1441;-0.2045;
177.9000;0.1441;-0.2144;
178.2000;0.1392;-0.2194;
178.5000;0.1425;-0.2094;
178.8000;0.1441;-0.2094;
179.1000;0.1449;-0.1970;
179.4000;0.1433;-0.2045;
179.7000;0.1457;-0.1945;
180.0000;0.1481;-0.1945;
180.3000;0.1376;-0.2194;
180.6000;0.1433;-0.2144;
180.9000;0.1433;-0.2119;
181.2000;0.1416;-0.2169;
181.5000;0.1425;-0.2094;
181.8000;0.1400;-0.2344;
182.1000;0.1481;-0.2119;
182.4000;0.1457;-0.2144;
182.7000;0.1400;-0.2319;
183.0000;0.1425;-0.2169;
183.3000;0.1433;-0.2094;
183.6000;0.1433;-0.2119;
183.9000;0.1449;-0.2069;
184.2000;0.1376;-0.2269;
184.5000;0.1351;-0.2444;
184.8000;0.1425;-0.2169;
185.1000;0.1425;-0.2169;
185.4000;0.1425;-0.2094;
185.7000;0.1408;-0.2069;
186.0000;0.1425;-0.2119;
186.3000;0.1449;-0.2219;
186.6000;0.1376;-0.2269;
186.9000;0.1425;-0.2045;
187.2000;0.1425;-0.2020;
187.5000;0.1416;-0.2094;
187.8000;0.1441;-0.2045;
188.1000;0.1433;-0.2094;
188.4000;0.1425;-0.2144;
188.7000;0.1441;-0.2194;
189.0000;0.1425;-0.2269;
189.3000;0.1392;-0.2319;
189.6000;0.1441;-0.2194;
189.9000;0.1425;-0.2169;
190.2000;0.1433;-0.2169;
190.5000;0.1433;-0.2294;
190.8000;0.1457;-0.2194;
191.1000;0.1416;-0.2244;
191.4000;0.1416;-0.2194;
191.7000;0.1400;-0.2219;
192.0000;0.1416;-0.2144;
192.3000;0.1441;-0.2144;
192.6000;0.1433;-0.2219;
192.9000;0.1408;-0.2194;
193.2000;0.1425;-0.2069;
193.5000;0.1408;-0.2194;
193.8000;0.1425;-0.2219;
194.1000;0.1433;-0.2244;
194.4000;0.1416;-0.2294;
194.7000;0.1425;-0.2319;
195.0000;0.1416;-0.2319;
195.3000;0.1433;-0.2219;
195.6000;0.1433;-0.2219;
195.9000;0.1425;-0.2169;
196.2000;0.1441;-0.2069;
196.5000;0.1416;-0.2069;
196.8000;0.1392;-0.2119;
197.1000;0.1425;-0.2094;
197.4000;0.1433;-0.2045;
197.7000;0.1457;-0.2069;
198.0000;0.1416;-0.2219;
198.3000;0.1416;-0.2194;
198.6000;0.1449;-0.2069;
198.9000;0.1416;-0.2069;
199.2000;0.1433;-0.2119;
199.5000;0.1449;-0.2094;
199.8000;0.1490;-0.2020;
200.1000;0.1343;-0.2344;
200.4000;0.1416;-0.2194;
200.7000;0.1416;-0.2144;
201.0000;0.1441;-0.2144;
201.3000;0.1425;-0.2169;
201.6000;0.1441;-0.2069;
201.9000;0.1392;-0.2219;
202.2000;0.1400;-0.2144;
202.5000;0.1449;-0.2144;
202.8000;0.1433;-0.2244;
203.1000;0.1359;-0.2394;
203.4000;0.1425;-0.2219;
203.7000;0.1416;-0.2344;
204.0000;0.1416;-0.2319;
204.3000;0.1433;-0.2244;
204.6000;0.1392;-0.2319;
204.9000;0.1408;-0.2144;
205.2000;0.1425;-0.2119;
205.5000;0.1416;-0.2144;
205.8000;0.1392;-0.2219;
206.1000;0.1416;-0.2169;
206.4000;0.1368;-0.2344;
206.7000;0.1400;-0.2244;
207.0000;0.1465;-0.2045;
207.3000;0.1384;-0.2144;
207.6000;0.1408;-0.2069;
207.9000;0.1392;-0.2094;
208.2000;0.1408;-0.2020;
208.5000;0.1416;-0.2045;
208.8000;0.1416;-0.2045;
209.1000;0.1416;-0.2119;
209.4000;0.1408;-0.2194;
209.7000;0.1343;-0.2344;
210.0000;0.1416;-0.2069;
210.3000;0.1433;-0.2119;
210.6000;0.1433;-0.2244;
210.9000;0.1425;-0.2369;
211.2000;0.1441;-0.2294;
211.5000;0.1433;-0.2219;
211.8000;0.1433;-0.2219;
212.1000;0.1408;-0.2219;
212.4000;0.1449;-0.2169;
212.7000;0.1473;-0.2144;
213.0000;0.1425;-0.2269;
213.3000;0.1433;-0.2144;
213.6000;0.1433;-0.2219;
213.9000;0.1433;-0.2219;
214.2000;0.1449;-0.2219;
214.5000;0.1449;-0.2244;
214.8000;0.1416;-0.2294;
215.1000;0.1425;-0.2269;
215.4000;0.1425;-0.2219;
215.7000;0.1433;-0.2194;
216.0000;0.1408;-0.2219;
216.3000;0.1425;-0.2169;
216.6000;0.1425;-0.2294;
216.9000;0.1408;-0.2169;
217.2000;0.1425;-0.2119;
217.5000;0.1425;-0.1970;
217.8000;0.1433;-0.1995;
218.1000;0.1441;-0.1995;
218.4000;0.1408;-0.2069;
218.7000;0.1425;-0.1995;
219.0000;0.1449;-0.1920;
219.3000;0.1425;-0.1945;
219.6000;0.1433;-0.2045;
219.9000;0.1400;-0.2119;
220.2000;0.1416;-0.2119;
220.5000;0.1416;-0.2045;
220.8000;0.1376;-0.2119;
221.1000;0.1400;-0.1970;
221.4000;0.1416;-0.1945;
221.7000;0.1425;-0.1945;
222.0000;0.1384;-0.1970;
222.3000;0.1392;-0.1920;
222.6000;0.1425;-0.1795;
222.9000;0.1416;-0.1870;
223.2000;0.1384;-0.1995;
223.5000;0.1425;-0.1845;
223.8000;0.1457;-0.1870;
224.1000;0.1441;-0.1895;
224.4000;0.1433;-0.1995;
224.7000;0.1392;-0.2045;
225.0000;0.1433;-0.1970;
225.3000;0.1425;-0.1945;
225.6000;0.1449;-0.1845;
225.9000;0.1425;-0.1920;
226.2000;0.1416;-0.1870;
226.5000;0.1376;-0.2094;
226.8000;0.1425;-0.2094;
227.1000;0.1441;-0.2094;
227.4000;0.1441;-0.2119;
227.7000;0.1416;-0.2020;
228.0000;0.1416;-0.1970;
228.3000;0.1384;-0.2020;
228.6000;0.1441;-0.1895;
228.9000;0.1433;-0.1795;
229.2000;0.1416;-0.1920;
229.5000;0.1433;-0.1920;
229.8000;0.1408;-0.1970;
230.1000;0.1433;-0.1920;
230.4000;0.1416;-0.1945;
230.7000;0.1425;-0.1920;
231.0000;0.1449;-0.1795;
231.3000;0.1449;-0.1795;
231.6000;0.1425;-0.1895;
231.9000;0.1473;-0.1845;
232.2000;0.1449;-0.1920;
232.5000;0.1400;-0.1920;
232.8000;0.1441;-0.1895;
233.1000;0.1457;-0.1770;
233.4000;0.1433;-0.1745;
233.7000;0.1408;-0.1795;
234.0000;0.1433;-0.1720;
234.3000;0.1408;-0.1770;
234.6000;0.1506;-0.1596;
234.9000;0.1416;-0.1895;
235.2000;0.1449;-0.1870;
235.5000;0.1408;-0.1920;
235.8000;0.1449;-0.1895;
236.1000;0.1384;-0.2045;
236.4000;0.1490;-0.1720;
236.7000;0.1400;-0.1870;
237.0000;0.1433;-0.1745;
237.3000;0.1425;-0.1720;
237.6000;0.1416;-0.1695;
237.9000;0.1384;-0.1870;
238.2000;0.1465;-0.1596;
238.5000;0.1416;-0.1745;
238.8000;0.1425;-0.1770;
239.1000;0.1392;-0.1870;
239.4000;0.1408;-0.1795;
239.7000;0.1425;-0.1770;
240.0000;0.1368;-0.1945;
240.3000;0.1425;-0.1820;
240.6000;0.1416;-0.1970;
240.9000;0.1441;-0.1895;
241.2000;0.1425;-0.1945;
241.5000;0.1408;-0.2020;
241.8000;0.1416;-0.1995;
242.1000;0.1384;-0.2119;
242.4000;0.1465;-0.1895;
242.7000;0.1416;-0.2094;
243.0000;0.1465;-0.1970;
243.3000;0.1449;-0.2045;
243.6000;0.1425;-0.2020;
243.9000;0.1408;-0.2045;
244.2000;0.1433;-0.2069;
244.5000;0.1433;-0.2094;
244.8000;0.1490;-0.1870;
245.1000;0.1433;-0.2119;
245.4000;0.1433;-0.2069;
245.7000;0.1416;-0.2144;
246.0000;0.1433;-0.2169;
246.3000;0.1425;-0.2144;
246.6000;0.1425;-0.2169;
246.9000;0.1245;-0.2593;
247.2000;0.1416;-0.2169;
247.5000;0.1376;-0.2294;
247.8000;0.1368;-0.2344;
248.1000;0.1416;-0.2319;
248.4000;0.1416;-0.2269;
248.7000;0.1408;-0.2219;
249.0000;0.1425;-0.2119;
249.3000;0.1416;-0.2144;
249.6000;0.1433;-0.2069;
249.9000;0.1433;-0.1995;
250.2000;0.1433;-0.2045;
250.5000;0.1481;-0.1970;
250.8000;0.1416;-0.2020;
251.1000;0.1408;-0.1895;
251.4000;0.1425;-0.1820;
251.7000;0.1425;-0.1845;
252.0000;0.1441;-0.1870;
252.3000;0.1416;-0.1995;
252.6000;0.1425;-0.2045;
252.9000;0.1425;-0.1970;
253.2000;0.1449;-0.1795;
253.5000;0.1425;-0.1795;
253.8000;0.1416;-0.1870;
254.1000;0.1433;-0.1870;
254.4000;0.1441;-0.1945;
254.7000;0.1433;-0.1920;
255.0000;0.1408;-0.1970;
255.3000;0.1538;-0.1571;
255.6000;0.1425;-0.1870;
255.9000;0.1441;-0.1820;
256.2000;0.1425;-0.1895;
256.5000;0.1441;-0.1770;
256.8000;0.1441;-0.1795;
257.1000;0.1425;-0.1745;
257.4000;0.1335;-0.1995;
257.7000;0.1433;-0.1795;
258.0000;0.1465;-0.1770;
258.3000;0.1433;-0.1845;
258.6000;0.1384;-0.1870;
258.9000;0.1433;-0.1745;
259.2000;0.1433;-0.1745;
259.5000;0.1433;-0.1720;
259.8000;0.1416;-0.1745;
260.1000;0.1425;-0.1795;
260.4000;0.1425;-0.1795;
260.7000;0.1433;-0.1745;
261.0000;0.1425;-0.1695;
261.3000;0.1408;-0.1671;
261.6000;0.1425;-0.1646;
261.9000;0.1416;-0.1720;
262.2000;0.1384;-0.1646;
262.5000;0.1425;-0.1671;
262.8000;0.1441;-0.1671;
263.1000;0.1408;-0.1770;
263.4000;0.1481;-0.1571;
263.7000;0.1416;-0.1745;
264.0000;0.1433;-0.1795;
264.3000;0.1449;-0.1671;
264.6000;0.1441;-0.1745;
264.9000;0.1400;-0.1770;
265.2000;0.1392;-0.1695;
265.5000;0.1408;-0.1745;
265.8000;0.1408;-0.1720;
266.1000;0.1400;-0.1820;
266.4000;0.1416;-0.1845;
266.7000;0.1425;-0.1845;
267.0000;0.1425;-0.1845;
267.3000;0.1400;-0.1945;
267.6000;0.1408;-0.1895;
267.9000;0.1400;-0.1845;
268.2000;0.1408;-0.1920;
268.5000;0.1441;-0.1795;
268.8000;0.1433;-0.1945;
269.1000;0.1425;-0.1895;
269.4000;0.1433;-0.1845;
269.7000;0.1425;-0.1870;
270.0000;0.1433;-0.1895;
270.3000;0.1351;-0.2169;
270.6000;0.1441;-0.1895;
270.9000;0.1384;-0.2020;
271.2000;0.1433;-0.1895;
271.5000;0.1416;-0.1995;
271.8000;0.1416;-0.2119;
272.1000;0.1425;-0.2144;
272.4000;0.1441;-0.2020;
272.7000;0.1433;-0.2045;
273.0000;0.1425;-0.2094;
273.3000;0.1498;-0.1870;
273.6000;0.1384;-0.2144;
273.9000;0.1408;-0.2119;
274.2000;0.1400;-0.2069;
274.5000;0.1457;-0.1945;
274.8000;0.1514;-0.1870;
275.1000;0.1457;-0.1845;
275.4000;0.1376;-0.2069;
275.7000;0.1449;-0.1895;
276.0000;0.1408;-0.1970;
276.3000;0.1441;-0.1845;
276.6000;0.1408;-0.1995;
276.9000;0.1400;-0.1970;
277.2000;0.1425;-0.1895;
277.5000;0.1400;-0.1995;
277.8000;0.1433;-0.1945;
278.1000;0.1498;-0.1795;
278.4000;0.1408;-0.1995;
278.7000;0.1400;-0.1995;
279.0000;0.1416;-0.2045;
279.3000;0.1425;-0.2069;
279.6000;0.1425;-0.2094;
279.9000;0.1441;-0.1970;
280.2000;0.1425;-0.1970;
280.5000;0.1368;-0.2069;
280.8000;0.1416;-0.1945;
281.1000;0.1425;-0.1920;
281.4000;0.1408;-0.1895;
281.7000;0.1449;-0.1795;
282.0000;0.1416;-0.2020;
282.3000;0.1433;-0.1995;
282.6000;0.1433;-0.2045;
282.9000;0.1416;-0.2069;
283.2000;0.1425;-0.1920;
283.5000;0.1433;-0.1945;
283.8000;0.1408;-0.1920;
284.1000;0.1449;-0.1720;
284.4000;0.1408;-0.1870;
284.7000;0.1433;-0.1795;
285.0000;0.1433;-0.1795;
285.3000;0.1416;-0.1845;
285.6000;0.1416;-0.1870;
285.9000;0.1408;-0.1920;
286.2000;0.1433;-0.1970;
286.5000;0.1416;-0.1970;
286.8000;0.1408;-0.1920;
287.1000;0.1408;-0.1945;
287.4000;0.1416;-0.1970;
287.7000;0.1400;-0.1920;
288.0000;0.1408;-0.1870;
288.3000;0.1392;-0.1820;
288.6000;0.1408;-0.1795;
288.9000;0.1416;-0.1870;
289.2000;0.1425;-0.1845;
289.5000;0.1408;-0.1895;
289.8000;0.1416;-0.1970;
290.1000;0.1400;-0.1995;
290.4000;0.1416;-0.1895;
290.7000;0.1359;-0.2020;
291.0000;0.1416;-0.1845;
291.3000;0.1425;-0.1895;
291.6000;0.1449;-0.1820;
291.9000;0.1408;-0.1895;
292.2000;0.1481;-0.1695;
292.5000;0.1425;-0.1845;
292.8000;0.1408;-0.1870;
293.1000;0.1400;-0.1970;
293.4000;0.1473;-0.1920;
293.7000;0.1449;-0.1945;
294.0000;0.1433;-0.1970;
294.3000;0.1425;-0.2020;
294.6000;0.1449;-0.1895;
294.9000;0.1498;-0.1720;
295.2000;0.1425;-0.1945;
295.5000;0.1408;-0.1995;
295.8000;0.1441;-0.1995;
296.1000;0.1441;-0.2094;
296.4000;0.1425;-0.2069;
296.7000;0.1498;-0.1945;
297.0000;0.1425;-0.2069;
297.3000;0.1433;-0.1995;
297.6000;0.1473;-0.2020;
297.9000;0.1425;-0.2144;
298.2000;0.1441;-0.2094;
298.5000;0.1481;-0.1970;
298.8000;0.1433;-0.2069;
299.1000;0.1457;-0.1920;
299.4000;0.1376;-0.2144;
299.7000;0.1408;-0.1970;
300.0000;0.1433;-0.1895;
300.3000;0.1408;-0.1895;
300.6000;0.1408;-0.1945;
300.9000;0.1457;-0.1895;
301.2000;0.1457;-0.1870;
301.5000;0.1408;-0.2069;
301.8000;0.1441;-0.1970;
302.1000;0.1425;-0.1995;
302.4000;0.1416;-0.2045;
302.7000;0.1449;-0.1920;
303.0000;0.1433;-0.2020;
303.3000;0.1441;-0.1970;
303.6000;0.1425;-0.1970;
303.9000;0.1368;-0.2094;
304.2000;0.1425;-0.1895;
304.5000;0.1368;-0.2069;
304.8000;0.1441;-0.1920;
305.1000;0.1408;-0.1945;
305.4000;0.1449;-0.1995;
305.7000;0.1433;-0.2069;
306.0000;0.1441;-0.2069;
306.3000;0.1408;-0.2244;
306.6000;0.1457;-0.2194;
306.9000;0.1425;-0.2319;
307.2000;0.1408;-0.2244;
307.5000;0.1400;-0.2219;
307.8000;0.1433;-0.2219;
308.1000;0.1408;-0.2294;
308.4000;0.1441;-0.2144;
308.7000;0.1416;-0.2169;
309.0000;0.1400;-0.2194;
309.3000;0.1425;-0.2045;
309.6000;0.1392;-0.2169;
309.9000;0.1408;-0.2045;
310.2000;0.1416;-0.2094;
310.5000;0.1441;-0.2020;
310.8000;0.1416;-0.2045;
311.1000;0.1408;-0.2169;
311.4000;0.1416;-0.2169;
311.7000;0.1408;-0.2169;
312.0000;0.1368;-0.2244;
312.3000;0.1408;-0.2194;
312.6000;0.1408;-0.2119;
312.9000;0.1449;-0.2020;
313.2000;0.1425;-0.2119;
313.5000;0.1416;-0.2194;
313.8000;0.1384;-0.2294;
314.1000;0.1425;-0.2244;
314.4000;0.1408;-0.2294;
314.7000;0.1400;-0.2294;
315.0000;0.1416;-0.2244;
315.3000;0.1368;-0.2344;
315.6000;0.1425;-0.2169;
315.9000;0.1359;-0.2294;
316.2000;0.1400;-0.2244;
316.5000;0.1425;-0.2144;
316.8000;0.1416;-0.2144;
317.1000;0.1433;-0.2169;
317.4000;0.1416;-0.2144;
317.7000;0.1425;-0.2194;
318.0000;0.1425;-0.2169;
318.3000;0.1449;-0.2094;
318.6000;0.1408;-0.2169;
318.9000;0.1408;-0.2194;
319.2000;0.1416;-0.2169;
319.5000;0.1416;-0.2194;
319.8000;0.1400;-0.2169;
320.1000;0.1327;-0.2493;
320.4000;0.1433;-0.2269;
320.7000;0.1416;-0.2344;
321.0000;0.1416;-0.2244;
321.3000;0.1416;-0.2194;
321.6000;0.1400;-0.2094;
321.9000;0.1416;-0.2094;
322.2000;0.1416;-0.2119;
322.5000;0.1449;-0.2045;
322.8000;0.1416;-0.2194;
323.1000;0.1425;-0.2219;
323.4000;0.1416;-0.2244;
323.7000;0.1416;-0.2269;
324.0000;0.1416;-0.2269;
324.3000;0.1425;-0.2219;
324.6000;0.1433;-0.2094;
324.9000;0.1425;-0.2045;
325.2000;0.1416;-0.1945;
325.5000;0.1408;-0.1995;
325.8000;0.1408;-0.2020;
326.1000;0.1376;-0.2169;
326.4000;0.1425;-0.2045;
326.7000;0.1425;-0.2069;
327.0000;0.1433;-0.2269;
327.3000;0.1433;-0.2219;
327.6000;0.1384;-0.2369;
327.9000;0.1416;-0.2244;
328.2000;0.1441;-0.2244;
328.5000;0.1473;-0.2069;
328.8000;0.1425;-0.2169;
329.1000;0.1425;-0.2144;
329.4000;0.1425;-0.2094;
329.7000;0.1433;-0.2045;
330.0000;0.1433;-0.2020;
330.3000;0.1425;-0.1995;
330.6000;0.1433;-0.2045;
330.9000;0.1449;-0.2020;
331.2000;0.1416;-0.2069;
331.5000;0.1376;-0.2144;
331.8000;0.1408;-0.2045;
332.1000;0.1408;-0.2169;
332.4000;0.1506;-0.1870;
332.7000;0.1392;-0.2219;
333.0000;0.1416;-0.2144;
333.3000;0.1416;-0.2144;
333.6000;0.1408;-0.2020;
333.9000;0.1416;-0.1995;
334.2000;0.1425;-0.2020;
334.5000;0.1416;-0.2119;
334.8000;0.1408;-0.2069;
335.1000;0.1408;-0.2069;
335.4000;0.1425;-0.2069;
335.7000;0.1425;-0.2020;
336.0000;0.1441;-0.1920;
336.3000;0.1441;-0.1970;
336.6000;0.1433;-0.2144;
336.9000;0.1425;-0.2144;
337.2000;0.1416;-0.2194;
337.5000;0.1416;-0.2244;
337.8000;0.1408;-0.2244;
338.1000;0.1425;-0.2169;
338.4000;0.1449;-0.2045;
338.7000;0.1384;-0.2194;
339.0000;0.1433;-0.2020;
339.3000;0.1408;-0.2045;
339.6000;0.1441;-0.1920;
339.9000;0.1392;-0.2069;
340.2000;0.1425;-0.1970;
340.5000;0.1457;-0.1970;
340.8000;0.1416;-0.2045;
341.1000;0.1433;-0.2094;
341.4000;0.1433;-0.2144;
341.7000;0.1425;-0.2144;
342.0000;0.1425;-0.2094;
342.3000;0.1425;-0.2020;
342.6000;0.1416;-0.2169;
342.9000;0.1408;-0.2119;
343.2000;0.1449;-0.2045;
343.5000;0.1433;-0.2119;
343.8000;0.1481;-0.1945;
344.1000;0.1425;-0.2119;
344.4000;0.1425;-0.2119;
344.7000;0.1400;-0.2194;
345.0000;0.1376;-0.2269;
345.3000;0.1433;-0.2244;
345.6000;0.1425;-0.2319;
345.9000;0.1441;-0.2169;
346.2000;0.1302;-0.2518;
346.5000;0.1416;-0.2169;
346.8000;0.1416;-0.2194;
347.1000;0.1400;-0.2269;
347.4000;0.1416;-0.2294;
347.7000;0.1416;-0.2244;
348.0000;0.1416;-0.2169;
348.3000;0.1416;-0.2269;
348.6000;0.1408;-0.2219;
348.9000;0.1425;-0.2119;
349.2000;0.1400;-0.2169;
349.5000;0.1408;-0.2194;
349.8000;0.1433;-0.2194;
350.1000;0.1465;-0.2094;
350.4000;0.1392;-0.2219;
350.7000;0.1433;-0.2194;
351.0000;0.1490;-0.2045;
351.3000;0.1433;-0.2194;
351.6000;0.1408;-0.2344;
351.9000;0.1433;-0.2219;
352.2000;0.1441;-0.2244;
352.5000;0.1433;-0.2194;
352.8000;0.1425;-0.2294;
353.1000;0.1425;-0.2344;
353.4000;0.1416;-0.2319;
353.7000;0.1433;-0.2194;
354.0000;0.1425;-0.2094;
354.3000;0.1425;-0.2069;
354.6000;0.1343;-0.2244;
354.9000;0.1416;-0.2045;
355.2000;0.1433;-0.2020;
355.5000;0.1490;-0.1895;
355.8000;0.1433;-0.2069;
356.1000;0.1416;-0.2020;
356.4000;0.1416;-0.2045;
356.7000;0.1416;-0.2169;
357.0000;0.1425;-0.2194;
357.3000;0.1416;-0.2244;
357.6000;0.1400;-0.2169;
357.9000;0.1392;-0.2194;
358.2000;0.1416;-0.2045;
358.5000;0.1416;-0.2045;
358.8000;0.1384;-0.2219;
359.1000;0.1416;-0.2119;
359.4000;0.1392;-0.2119;
359.7000;0.1400;-0.2069;
360.0000;0.1416;-0.2045;
360.3000;0.1457;-0.1995;
360.6000;0.1416;-0.2045;
360.9000;0.1416;-0.2069;
361.2000;0.1408;-0.2119;
361.5000;0.1416;-0.2045;
361.8000;0.1376;-0.2169;
362.1000;0.1408;-0.2045;
362.4000;0.1416;-0.1970;
362.7000;0.1425;-0.1970;
363.0000;0.1416;-0.1995;
363.3000;0.1408;-0.2119;
363.6000;0.1433;-0.2169;
363.9000;0.1449;-0.2069;
364.2000;0.1425;-0.2144;
364.5000;0.1433;-0.2144;
364.8000;0.1433;-0.2119;
365.1000;0.1457;-0.2144;
365.4000;0.1449;-0.2194;
365.7000;0.1441;-0.2269;
366.0000;0.1425;-0.2369;
366.3000;0.1441;-0.2344;
366.6000;0.1425;-0.2344;
366.9000;0.1433;-0.2244;
367.2000;0.1408;-0.2194;
367.5000;0.1416;-0.2144;
367.8000;0.1416;-0.2119;
368.1000;0.1400;-0.2144;
368.4000;0.1425;-0.2144;
368.7000;0.1425;-0.2094;
369.0000;0.1433;-0.2169;
369.3000;0.1449;-0.2094;
369.6000;0.1368;-0.2244;
369.9000;0.1425;-0.2144;
370.2000;0.1465;-0.2094;
370.5000;0.1425;-0.2169;
370.8000;0.1408;-0.2169;
371.1000;0.1473;-0.1995;
371.4000;0.1416;-0.2119;
371.7000;0.1433;-0.2069;
372.0000;0.1416;-0.2119;
372.3000;0.1376;-0.2344;
372.6000;0.1408;-0.2144;
372.9000;0.1433;-0.2094;
373.2000;0.1376;-0.2169;
373.5000;0.1400;-0.1995;
373.8000;0.1408;-0.1870;
374.1000;0.1449;-0.1795;
374.4000;0.1433;-0.1845;
374.7000;0.1441;-0.1845;
375.0000;0.1441;-0.1895;
375.3000;0.1441;-0.1845;
375.6000;0.1392;-0.1895;
375.9000;0.1449;-0.1770;
376.2000;0.1425;-0.1795;
376.5000;0.1433;-0.1770;
376.8000;0.1433;-0.1845;
377.1000;0.1425;-0.1820;
377.4000;0.1449;-0.1770;
377.7000;0.1433;-0.1895;
378.0000;0.1457;-0.1745;
378.3000;0.1408;-0.1820;
378.6000;0.1400;-0.1845;
378.9000;0.1416;-0.1845;
379.2000;0.1392;-0.1895;
379.5000;0.1416;-0.1945;
379.8000;0.1408;-0.1895;
380.1000;0.1400;-0.1820;
380.4000;0.1416;-0.1820;
380.7000;0.1425;-0.1695;
381.0000;0.1392;-0.1770;
381.3000;0.1416;-0.1695;
381.6000;0.1416;-0.1745;
381.9000;0.1416;-0.1720;
382.2000;0.1384;-0.1870;
382.5000;0.1416;-0.1745;
382.8000;0.1425;-0.1770;
383.1000;0.1392;-0.1845;
383.4000;0.1351;-0.1945;
383.7000;0.1408;-0.1820;
384.0000;0.1416;-0.1820;
384.3000;0.1433;-0.1845;
384.6000;0.1416;-0.1995;
384.9000;0.1400;-0.2119;
385.2000;0.1384;-0.2119;
385.5000;0.1425;-0.2045;
385.8000;0.1392;-0.2094;
386.1000;0.1359;-0.2144;
386.4000;0.1400;-0.2069;
386.7000;0.1433;-0.2045;
387.0000;0.1400;-0.2094;
387.3000;0.1449;-0.2020;
387.6000;0.1433;-0.2069;
387.9000;0.1433;-0.2069;
388.2000;0.1400;-0.2119;
388.5000;0.1408;-0.2045;
388.8000;0.1408;-0.1995;
389.1000;0.1416;-0.1970;
389.4000;0.1416;-0.1945;
389.7000;0.1416;-0.1995;
390.0000;0.1400;-0.2194;
390.3000;0.1392;-0.2269;
390.6000;0.1416;-0.2069;
390.9000;0.1400;-0.2119;
391.2000;0.1449;-0.2069;
391.5000;0.1400;-0.2119;
391.8000;0.1416;-0.2045;
392.1000;0.1506;-0.1820;
392.4000;0.1408;-0.2119;
392.7000;0.1425;-0.2094;
393.0000;0.1416;-0.2094;
393.3000;0.1433;-0.2020;
393.6000;0.1425;-0.1995;
393.9000;0.1408;-0.1995;
394.2000;0.1433;-0.1970;
394.5000;0.1416;-0.2020;
394.8000;0.1408;-0.2045;
395.1000;0.1425;-0.2045;
395.4000;0.1416;-0.1995;
395.7000;0.1441;-0.1945;
396.0000;0.1416;-0.2020;
396.3000;0.1392;-0.2169;
396.6000;0.1457;-0.1945;
396.9000;0.1416;-0.2020;
397.2000;0.1433;-0.2020;
397.5000;0.1319;-0.2394;
397.8000;0.1416;-0.2119;
398.1000;0.1441;-0.2045;
398.4000;0.1433;-0.2069;
398.7000;0.1408;-0.2144;
399.0000;0.1408;-0.2020;
399.3000;0.1433;-0.1945;
399.6000;0.1400;-0.1970;
399.9000;0.1416;-0.1945;
400.2000;0.1392;-0.1970;
400.5000;0.1416;-0.1995;
400.8000;0.1400;-0.2045;
401.1000;0.1490;-0.1870;
401.4000;0.1416;-0.2069;
401.7000;0.1425;-0.2020;
402.0000;0.1465;-0.1920;
402.3000;0.1416;-0.2045;
402.6000;0.1343;-0.2219;
402.9000;0.1416;-0.1920;
403.2000;0.1400;-0.1945;
403.5000;0.1408;-0.1845;
403.8000;0.1416;-0.1870;
404.1000;0.1408;-0.1845;
404.4000;0.1416;-0.1870;
404.7000;0.1400;-0.1820;
405.0000;0.1473;-0.1720;
405.3000;0.1441;-0.1895;
405.6000;0.1441;-0.1945;
405.9000;0.1416;-0.1895;
406.2000;0.1416;-0.1870;
406.5000;0.1416;-0.1895;
406.8000;0.1416;-0.1970;
407.1000;0.1359;-0.2144;
407.4000;0.1425;-0.1995;
407.7000;0.1400;-0.1970;
408.0000;0.1425;-0.1970;
408.3000;0.1416;-0.2045;
408.6000;0.1433;-0.1995;
408.9000;0.1449;-0.1895;
409.2000;0.1433;-0.1995;
409.5000;0.1425;-0.2045;
409.8000;0.1416;-0.2069;
410.1000;0.1384;-0.2219;
410.4000;0.1408;-0.2169;
410.7000;0.1433;-0.2094;
411.0000;0.1449;-0.2144;
411.3000;0.1490;-0.1970;
411.6000;0.1408;-0.2169;
411.9000;0.1400;-0.2219;
412.2000;0.1425;-0.2144;
412.5000;0.1408;-0.2194;
412.8000;0.1416;-0.2169;
413.1000;0.1400;-0.2069;
413.4000;0.1433;-0.1995;
413.7000;0.1433;-0.2094;
414.0000;0.1416;-0.2144;
414.3000;0.1465;-0.1995;
414.6000;0.1425;-0.2119;
414.9000;0.1433;-0.2094;
415.2000;0.1441;-0.2069;
415.5000;0.1449;-0.2020;
415.8000;0.1416;-0.2094;
416.1000;0.1457;-0.2020;
416.4000;0.1384;-0.2169;
416.7000;0.1441;-0.2094;
417.0000;0.1433;-0.2045;
417.3000;0.1416;-0.1995;
417.6000;0.1408;-0.1945;
417.9000;0.1408;-0.1920;
418.2000;0.1400;-0.2045;
418.5000;0.1433;-0.1995;
418.8000;0.1441;-0.1995;
419.1000;0.1457;-0.1920;
419.4000;0.1441;-0.2045;
419.7000;0.1433;-0.2045;
420.0000;0.1425;-0.2069;
420.3000;0.1449;-0.2045;
420.6000;0.1433;-0.2169;
420.9000;0.1433;-0.2169;
421.2000;0.1441;-0.2144;
421.5000;0.1441;-0.2020;
421.8000;0.1433;-0.1995;
422.1000;0.1408;-0.1995;
422.4000;0.1408;-0.2045;
422.7000;0.1425;-0.2020;
423.0000;0.1425;-0.1970;
423.3000;0.1425;-0.1995;
423.6000;0.1433;-0.1945;
423.9000;0.1425;-0.1945;
424.2000;0.1425;-0.1820;
424.5000;0.1425;-0.1845;
424.8000;0.1425;-0.1820;
425.1000;0.1416;-0.1745;
425.4000;0.1457;-0.1671;
425.7000;0.1449;-0.1820;
426.0000;0.1408;-0.1845;
426.3000;0.1416;-0.1820;
426.6000;0.1400;-0.1845;
426.9000;0.1425;-0.1845;
427.2000;0.1441;-0.1870;
427.5000;0.1392;-0.1995;
427.8000;0.1425;-0.1920;
428.1000;0.1425;-0.1820;
428.4000;0.1408;-0.1770;
428.7000;0.1449;-0.1671;
429.0000;0.1425;-0.1845;
429.3000;0.1359;-0.2020;
429.6000;0.1400;-0.1895;
429.9000;0.1408;-0.1870;
430.2000;0.1441;-0.1695;
430.5000;0.1400;-0.1795;
430.8000;0.1408;-0.1895;
431.1000;0.1490;-0.1596;
431.4000;0.1416;-0.1920;
431.7000;0.1449;-0.1845;
432.0000;0.1425;-0.1820;
432.3000;0.1400;-0.1845;
432.6000;0.1392;-0.1870;
432.9000;0.1425;-0.1795;
433.2000;0.1433;-0.1770;
433.5000;0.1408;-0.1945;
433.8000;0.1384;-0.1945;
434.1000;0.1400;-0.1945;
434.4000;0.1416;-0.1945;
434.7000;0.1425;-0.1945;
435.0000;0.1408;-0.1920;
435.3000;0.1416;-0.1945;
435.6000;0.1433;-0.1895;
435.9000;0.1416;-0.1895;
436.2000;0.1425;-0.1920;
436.5000;0.1441;-0.1845;
436.8000;0.1433;-0.1845;
437.1000;0.1425;-0.1795;
437.4000;0.1449;-0.1770;
437.7000;0.1416;-0.1845;
438.0000;0.1433;-0.1820;
438.3000;0.1416;-0.1970;
438.6000;0.1400;-0.2020;
438.9000;0.1425;-0.1870;
439.2000;0.1416;-0.1870;
439.5000;0.1416;-0.1895;
439.8000;0.1433;-0.1845;
440.1000;0.1441;-0.1795;
440.4000;0.1408;-0.1895;
440.7000;0.1441;-0.1845;
441.0000;0.1441;-0.1970;
441.3000;0.1433;-0.1970;
441.6000;0.1433;-0.1970;
441.9000;0.1416;-0.2069;
442.2000;0.1425;-0.2094;
442.5000;0.1433;-0.2020;
442.8000;0.1416;-0.2094;
443.1000;0.1416;-0.2119;
443.4000;0.1408;-0.2169;
443.7000;0.1400;-0.2219;
444.0000;0.1425;-0.2194;
444.3000;0.1416;-0.2194;
444.6000;0.1449;-0.2069;
444.9000;0.1400;-0.2169;
445.2000;0.1416;-0.2144;
445.5000;0.1392;-0.2169;
445.8000;0.1433;-0.2069;
446.1000;0.1425;-0.2169;
446.4000;0.1522;-0.1720;
446.7000;0.1425;-0.2020;
447.0000;0.1392;-0.2045;
447.3000;0.1425;-0.1995;
447.6000;0.1408;-0.1945;
447.9000;0.1433;-0.1995;
448.2000;0.1441;-0.1995;
448.5000;0.1425;-0.2020;
448.8000;0.1416;-0.2020;
449.1000;0.1416;-0.1970;
449.4000;0.1416;-0.2020;
449.7000;0.1416;-0.2020;
450.0000;0.1416;-0.2069;
450.3000;0.1441;-0.2045;
450.6000;0.1457;-0.1995;
450.9000;0.1498;-0.1945;
451.2000;0.1457;-0.2094;
451.5000;0.1408;-0.2119;
451.8000;0.1441;-0.2045;
452.1000;0.1400;-0.2144;
452.4000;0.1400;-0.2119;
452.7000;0.1425;-0.1895;
453.0000;0.1416;-0.1870;
453.3000;0.1433;-0.1695;
453.6000;0.1400;-0.1820;
453.9000;0.1416;-0.1895;
454.2000;0.1449;-0.1795;
454.5000;0.1425;-0.1795;
454.8000;0.1408;-0.1870;
455.1000;0.1416;-0.1920;
455.4000;0.1376;-0.2020;
455.7000;0.1433;-0.1970;
456.0000;0.1416;-0.1920;
456.3000;0.1416;-0.1920;
456.6000;0.1425;-0.1995;
456.9000;0.1425;-0.2069;
457.2000;0.1416;-0.2020;
457.5000;0.1425;-0.2045;
457.8000;0.1384;-0.2020;
458.1000;0.1416;-0.2094;
458.4000;0.1408;-0.2094;
458.7000;0.1400;-0.2069;
459.0000;0.1351;-0.2144;
459.3000;0.1408;-0.1995;
459.6000;0.1408;-0.2045;
459.9000;0.1408;-0.2069;
460.2000;0.1408;-0.2045;
460.5000;0.1416;-0.2020;
460.8000;0.1441;-0.1945;
461.1000;0.1433;-0.1895;
461.4000;0.1408;-0.1945;
461.7000;0.1433;-0.1895;
462.0000;0.1425;-0.1870;
462.3000;0.1465;-0.1770;
462.6000;0.1416;-0.1920;
462.9000;0.1425;-0.1995;
463.2000;0.1408;-0.1995;
463.5000;0.1376;-0.2119;
463.8000;0.1416;-0.2094;
464.1000;0.1416;-0.2119;
464.4000;0.1441;-0.2119;
464.7000;0.1416;-0.2094;
465.0000;0.1416;-0.2119;
465.3000;0.1465;-0.1970;
465.6000;0.1416;-0.2045;
465.9000;0.1425;-0.1970;
466.2000;0.1425;-0.1970;
466.5000;0.1441;-0.1845;
466.8000;0.1433;-0.1820;
467.1000;0.1400;-0.1845;
467.4000;0.1416;-0.1845;
467.7000;0.1433;-0.1870;
468.0000;0.1416;-0.1845;
468.3000;0.1441;-0.1870;
468.6000;0.1351;-0.2294;
468.9000;0.1400;-0.2269;
469.2000;0.1392;-0.2319;
469.5000;0.1433;-0.2194;
469.8000;0.1400;-0.2244;
470.1000;0.1416;-0.2244;
470.4000;0.1465;-0.2144;
470.7000;0.1433;-0.2169;
471.0000;0.1433;-0.2144;
471.3000;0.1416;-0.2094;
471.6000;0.1400;-0.2045;
471.9000;0.1392;-0.2020;
472.2000;0.1433;-0.1920;
472.5000;0.1425;-0.1920;
472.8000;0.1408;-0.1945;
473.1000;0.1400;-0.2069;
473.4000;0.1400;-0.2169;
473.7000;0.1433;-0.2069;
474.0000;0.1425;-0.1995;
474.3000;0.1416;-0.2045;
474.6000;0.1400;-0.2094;
474.9000;0.1425;-0.1995;
475.2000;0.1425;-0.2020;
475.5000;0.1433;-0.2069;
475.8000;0.1433;-0.2020;
476.1000;0.1416;-0.1970;
476.4000;0.1425;-0.1920;
476.7000;0.1416;-0.1870;
477.0000;0.1425;-0.1820;
477.3000;0.1457;-0.1671;
477.6000;0.1400;-0.1795;
477.9000;0.1433;-0.1720;
478.2000;0.1400;-0.1820;
478.5000;0.1416;-0.1845;
478.8000;0.1449;-0.1720;
479.1000;0.1359;-0.2045;
479.4000;0.1465;-0.1895;
479.7000;0.1392;-0.2045;
480.0000;0.1425;-0.1970;
480.3000;0.1400;-0.1995;
480.6000;0.1416;-0.1820;
480.9000;0.1408;-0.1845;
481.2000;0.1416;-0.1870;
481.5000;0.1441;-0.1845;
481.8000;0.1408;-0.1845;
482.1000;0.1400;-0.1995;
482.4000;0.1441;-0.1920;
482.7000;0.1416;-0.2119;
483.0000;0.1408;-0.2045;
483.3000;0.1376;-0.2144;
483.6000;0.1416;-0.2094;
483.9000;0.1400;-0.2094;
484.2000;0.1392;-0.2094;
484.5000;0.1408;-0.2119;
484.8000;0.1400;-0.2119;
485.1000;0.1416;-0.1995;
485.4000;0.1416;-0.2020;
485.7000;0.1416;-0.2069;
486.0000;0.1368;-0.2144;
486.3000;0.1433;-0.2020;
486.6000;0.1408;-0.2094;
486.9000;0.1433;-0.2020;
487.2000;0.1425;-0.1970;
487.5000;0.1490;-0.1695;
487.8000;0.1408;-0.1895;
488.1000;0.1408;-0.1995;
488.4000;0.1441;-0.1870;
488.7000;0.1408;-0.1870;
489.0000;0.1441;-0.1795;
489.3000;0.1416;-0.1870;
489.6000;0.1449;-0.1820;
489.9000;0.1457;-0.1895;
490.2000;0.1416;-0.2020;
490.5000;0.1327;-0.2269;
490.8000;0.1416;-0.1945;
491.1000;0.1425;-0.1945;
491.4000;0.1384;-0.2045;
491.7000;0.1433;-0.1945;
492.0000;0.1433;-0.2094;
492.3000;0.1425;-0.2194;
492.6000;0.1416;-0.2269;
492.9000;0.1408;-0.2169;
493.2000;0.1408;-0.2144;
493.5000;0.1425;-0.2069;
493.8000;0.1416;-0.1970;
494.1000;0.1449;-0.1870;
494.4000;0.1400;-0.1870;
494.7000;0.1416;-0.1920;
495.0000;0.1433;-0.1895;
495.3000;0.1465;-0.1695;
495.6000;0.1400;-0.1920;
495.9000;0.1425;-0.2020;
496.2000;0.1335;-0.2344;
496.5000;0.1392;-0.2119;
496.8000;0.1392;-0.2144;
497.1000;0.1294;-0.2419;
497.4000;0.1400;-0.2069;
497.7000;0.1392;-0.2045;
498.0000;0.1408;-0.2045;
498.3000;0.1457;-0.1920;
498.6000;0.1408;-0.2069;
498.9000;0.1392;-0.2119;
499.2000;0.1392;-0.2119;
499.5000;0.1416;-0.1995;
499.8000;0.1416;-0.2045;
500.1000;0.1376;-0.2069;
500.4000;0.1416;-0.2045;
500.7000;0.1392;-0.1995;
501.0000;0.1498;-0.1646;
501.3000;0.1433;-0.1845;
501.6000;0.1416;-0.1845;
501.9000;0.1416;-0.1845;
502.2000;0.1481;-0.1546;
502.5000;0.1416;-0.1646;
502.8000;0.1416;-0.1770;
503.1000;0.1400;-0.1945;
503.4000;0.1425;-0.1920;
503.7000;0.1433;-0.1920;
504.0000;0.1425;-0.1995;
504.3000;0.1416;-0.1970;
504.6000;0.1425;-0.2020;
504.9000;0.1449;-0.1920;
505.2000;0.1473;-0.1745;
505.5000;0.1425;-0.1870;
505.8000;0.1408;-0.1970;
506.1000;0.1416;-0.1970;
506.4000;0.1416;-0.1945;
506.7000;0.1457;-0.1895;
507.0000;0.1441;-0.1870;
507.3000;0.1392;-0.1870;
507.6000;0.1425;-0.1820;
507.9000;0.1481;-0.1695;
508.2000;0.1408;-0.1920;
508.5000;0.1416;-0.1945;
508.8000;0.1433;-0.1920;
509.1000;0.1392;-0.1920;
509.4000;0.1416;-0.2069;
509.7000;0.1408;-0.2219;
510.0000;0.1425;-0.2244;
510.3000;0.1392;-0.2344;
510.6000;0.1433;-0.2244;
510.9000;0.1490;-0.2144;
511.2000;0.1416;-0.2344;
511.5000;0.1441;-0.2194;
511.8000;0.1408;-0.2294;
512.1000;0.1425;-0.2169;
512.4000;0.1433;-0.2144;
512.7000;0.1425;-0.2194;
513.0000;0.1408;-0.2194;
513.3000;0.1368;-0.2344;
513.6000;0.1384;-0.2294;
513.9000;0.1441;-0.2069;
514.2000;0.1425;-0.2094;
514.5000;0.1425;-0.2094;
514.8000;0.1449;-0.2094;
515.1000;0.1457;-0.2169;
515.4000;0.1441;-0.2144;
515.7000;0.1441;-0.2020;
516.0000;0.1416;-0.2069;
516.3000;0.1473;-0.1870;
516.6000;0.1433;-0.1920;
516.9000;0.1425;-0.1945;
517.2000;0.1425;-0.1920;
517.5000;0.1457;-0.1895;
517.8000;0.1441;-0.1845;
518.1000;0.1441;-0.1920;
518.4000;0.1416;-0.1945;
518.7000;0.1425;-0.1945;
519.0000;0.1416;-0.1995;
519.3000;0.1368;-0.2144;
519.6000;0.1416;-0.2069;
519.9000;0.1449;-0.1845;
520.2000;0.1408;-0.1945;
520.5000;0.1408;-0.1920;
520.8000;0.1384;-0.1945;
521.1000;0.1416;-0.1895;
521.4000;0.1400;-0.1945;
521.7000;0.1408;-0.1920;
522.0000;0.1392;-0.1995;
522.3000;0.1400;-0.2020;
522.6000;0.1433;-0.2045;
522.9000;0.1416;-0.2069;
523.2000;0.1376;-0.2194;
523.5000;0.1376;-0.2244;
523.8000;0.1400;-0.2169;
524.1000;0.1408;-0.2169;
524.4000;0.1416;-0.2144;
524.7000;0.1392;-0.2244;
525.0000;0.1433;-0.2094;
525.3000;0.1416;-0.2069;
525.6000;0.1416;-0.2045;
525.9000;0.1416;-0.2094;
526.2000;0.1481;-0.1945;
526.5000;0.1425;-0.2069;
526.8000;0.1416;-0.1995;
527.1000;0.1408;-0.2045;
527.4000;0.1384;-0.2194;
527.7000;0.1400;-0.2144;
528.0000;0.1425;-0.2069;
528.3000;0.1400;-0.2094;
528.6000;0.1408;-0.2169;
528.9000;0.1425;-0.2194;
529.2000;0.1392;-0.2144;
529.5000;0.1408;-0.2119;
529.8000;0.1416;-0.2169;
530.1000;0.1425;-0.2119;
530.4000;0.1433;-0.1995;
530.7000;0.1425;-0.1995;
531.0000;0.1433;-0.1945;
531.3000;0.1416;-0.1845;
531.6000;0.1425;-0.1895;
531.9000;0.1408;-0.1945;
532.2000;0.1425;-0.1920;
532.5000;0.1441;-0.1920;
532.8000;0.1408;-0.2020;
533.1000;0.1433;-0.1920;
533.4000;0.1400;-0.1970;
533.7000;0.1425;-0.1845;
534.0000;0.1425;-0.1795;
534.3000;0.1359;-0.1945;
534.6000;0.1408;-0.1845;
534.9000;0.1416;-0.1845;
535.2000;0.1408;-0.1895;
535.5000;0.1425;-0.1870;
535.8000;0.1408;-0.1895;
536.1000;0.1351;-0.1970;
536.4000;0.1408;-0.1920;
536.7000;0.1416;-0.1870;
537.0000;0.1416;-0.1845;
537.3000;0.1457;-0.1820;
537.6000;0.1433;-0.1895;
537.9000;0.1408;-0.2020;
538.2000;0.1416;-0.2069;
538.5000;0.1457;-0.1945;
538.8000;0.1416;-0.1995;
539.1000;0.1449;-0.1845;
539.4000;0.1400;-0.2020;
539.7000;0.1441;-0.1870;
540.0000;0.1465;-0.1945;
540.3000;0.1392;-0.1995;
540.6000;0.1433;-0.1895;
540.9000;0.1449;-0.1945;
541.2000;0.1416;-0.2045;
541.5000;0.1384;-0.2169;
541.8000;0.1425;-0.2069;
542.1000;0.1433;-0.2045;
542.4000;0.1416;-0.2069;
542.7000;0.1416;-0.2069;
543.0000;0.1392;-0.2144;
543.3000;0.1425;-0.2069;
543.6000;0.1408;-0.2144;
543.9000;0.1400;-0.2169;
544.2000;0.1425;-0.2094;
544.5000;0.1416;-0.2169;
544.8000;0.1408;-0.2169;
545.1000;0.1416;-0.2144;
545.4000;0.1400;-0.2194;
545.7000;0.1359;-0.2369;
546.0000;0.1433;-0.2194;
546.3000;0.1400;-0.2294;
546.6000;0.1416;-0.2144;
546.9000;0.1433;-0.2169;
547.2000;0.1433;-0.2144;
547.5000;0.1425;-0.2119;
547.8000;0.1408;-0.2194;
548.1000;0.1425;-0.2144;
548.4000;0.1425;-0.2144;
548.7000;0.1408;-0.2194;
549.0000;0.1400;-0.2269;
549.3000;0.1441;-0.2144;
549.6000;0.1425;-0.2144;
549.9000;0.1425;-0.2194;
550.2000;0.1538;-0.1945;
550.5000;0.1416;-0.2194;
550.8000;0.1416;-0.2194;
551.1000;0.1416;-0.2269;
551.4000;0.1408;-0.2194;
551.7000;0.1359;-0.2244;
552.0000;0.1433;-0.2094;
552.3000;0.1416;-0.2169;
552.6000;0.1416;-0.2194;
552.9000;0.1416;-0.2169;
553.2000;0.1425;-0.2269;
553.5000;0.1433;-0.2269;
553.8000;0.1416;-0.2319;
554.1000;0.1392;-0.2344;
554.4000;0.1416;-0.2394;
554.7000;0.1473;-0.2119;
555.0000;0.1408;-0.2194;
555.3000;0.1408;-0.2119;
555.6000;0.1408;-0.1995;
555.9000;0.1449;-0.1895;
556.2000;0.1433;-0.1945;
556.5000;0.1425;-0.1895;
556.8000;0.1416;-0.1895;
557.1000;0.1425;-0.1845;
557.4000;0.1433;-0.1795;
557.7000;0.1425;-0.1870;
558.0000;0.1425;-0.1795;
558.3000;0.1441;-0.1820;
558.6000;0.1416;-0.1945;
558.9000;0.1416;-0.2020;
559.2000;0.1400;-0.2069;
559.5000;0.1425;-0.2069;
559.8000;0.1416;-0.2069;
560.1000;0.1425;-0.2069;
560.4000;0.1408;-0.2020;
560.7000;0.1441;-0.1945;
561.0000;0.1441;-0.1995;
561.3000;0.1408;-0.2144;
561.6000;0.1457;-0.2020;
561.9000;0.1359;-0.2194;
562.2000;0.1400;-0.2069;
562.5000;0.1441;-0.1945;
562.8000;0.1408;-0.2020;
563.1000;0.1416;-0.1870;
563.4000;0.1425;-0.1870;
563.7000;0.1441;-0.1820;
564.0000;0.1522;-0.1596;
564.3000;0.1425;-0.1920;
564.6000;0.1498;-0.1695;
564.9000;0.1425;-0.1870;
565.2000;0.1416;-0.1895;
565.5000;0.1416;-0.1870;
565.8000;0.1384;-0.2045;
566.1000;0.1425;-0.1920;
566.4000;0.1416;-0.2094;
566.7000;0.1416;-0.2119;
567.0000;0.1457;-0.2045;
567.3000;0.1441;-0.2094;
567.6000;0.1416;-0.2144;
567.9000;0.1441;-0.2045;
568.2000;0.1425;-0.2194;
568.5000;0.1441;-0.2119;
568.8000;0.1433;-0.2094;
569.1000;0.1416;-0.2144;
569.4000;0.1416;-0.2144;
569.7000;0.1538;-0.1870;
570.0000;0.1449;-0.2045;
570.3000;0.1384;-0.2119;
570.6000;0.1425;-0.2169;
570.9000;0.1400;-0.2244;
571.2000;0.1457;-0.2144;
571.5000;0.1408;-0.2269;
571.8000;0.1433;-0.2269;
572.1000;0.1425;-0.2244;
572.4000;0.1441;-0.2119;
572.7000;0.1416;-0.2144;
573.0000;0.1425;-0.2045;
573.3000;0.1457;-0.1920;
573.6000;0.1441;-0.1895;
573.9000;0.1441;-0.1870;
574.2000;0.1294;-0.2269;
574.5000;0.1408;-0.1995;
574.8000;0.1425;-0.1995;
575.1000;0.1433;-0.2020;
575.4000;0.1376;-0.2169;
575.7000;0.1433;-0.2020;
576.0000;0.1408;-0.2045;
576.3000;0.1433;-0.2020;
576.6000;0.1416;-0.1970;
576.9000;0.1433;-0.1895;
577.2000;0.1425;-0.1870;
577.5000;0.1441;-0.1895;
577.8000;0.1425;-0.1970;
578.1000;0.1425;-0.1970;
578.4000;0.1433;-0.1995;
578.7000;0.1433;-0.1970;
579.0000;0.1441;-0.1970;
579.3000;0.1416;-0.2069;
579.6000;0.1416;-0.2094;
579.9000;0.1490;-0.1845;
580.2000;0.1400;-0.2094;
580.5000;0.1359;-0.2294;
580.8000;0.1416;-0.2144;
581.1000;0.1425;-0.2119;
581.4000;0.1425;-0.2045;
581.7000;0.1441;-0.2020;
582.0000;0.1465;-0.1945;
582.3000;0.1498;-0.1795;
582.6000;0.1433;-0.2020;
582.9000;0.1392;-0.2194;
583.2000;0.1433;-0.2045;
583.5000;0.1473;-0.1895;
583.8000;0.1433;-0.2045;
584.1000;0.1433;-0.2020;
584.4000;0.1433;-0.1970;
584.7000;0.1400;-0.1995;
585.0000;0.1416;-0.1920;
585.3000;0.1490;-0.1720;
585.6000;0.1425;-0.1870;
585.9000;0.1408;-0.1945;
586.2000;0.1408;-0.1945;
586.5000;0.1481;-0.1770;
586.8000;0.1425;-0.1995;
587.1000;0.1465;-0.1995;
587.4000;0.1425;-0.2119;
587.7000;0.1416;-0.2119;
588.0000;0.1425;-0.1995;
588.3000;0.1376;-0.2119;
588.6000;0.1408;-0.2020;
588.9000;0.1392;-0.2020;
589.2000;0.1425;-0.1895;
589.5000;0.1400;-0.1895;
589.8000;0.1441;-0.1795;
590.1000;0.1425;-0.1920;
590.4000;0.1433;-0.1970;
590.7000;0.1416;-0.2020;
591.0000;0.1425;-0.1970;
591.3000;0.1408;-0.2094;
591.6000;0.1408;-0.2169;
591.9000;0.1449;-0.1920;
592.2000;0.1416;-0.1920;
592.5000;0.1425;-0.1895;
592.8000;0.1416;-0.1945;
593.1000;0.1384;-0.2045;
593.4000;0.1425;-0.2020;
593.7000;0.1416;-0.2020;
594.0000;0.1416;-0.1995;
594.3000;0.1400;-0.1920;
594.6000;0.1408;-0.1895;
594.9000;0.1425;-0.1845;
595.2000;0.1425;-0.1895;
595.5000;0.1441;-0.1845;
595.8000;0.1400;-0.1845;
596.1000;0.1465;-0.1745;
596.4000;0.1368;-0.1970;
596.7000;0.1376;-0.1995;
597.0000;0.1465;-0.1770;
597.3000;0.1392;-0.1870;
597.6000;0.1416;-0.1895;
597.9000;0.1416;-0.1945;
598.2000;0.1433;-0.1970;
598.5000;0.1400;-0.1995;
598.8000;0.1416;-0.1920;
599.1000;0.1441;-0.1745;
599.4000;0.1433;-0.1795;
599.7000;0.1465;-0.1795;
600.0000;0.1392;-0.2020;
600.3000;0.1433;-0.2119;
600.6000;0.1408;-0.2294;
600.9000;0.1416;-0.2394;
601.2000;0.1384;-0.2568;
601.5000;0.1400;-0.2668;
601.8000;0.1408;-0.2793;
602.1000;0.1368;-0.2967;
602.4000;0.1351;-0.3117;
602.7000;0.1335;-0.3316;
603.0000;0.1351;-0.3516;
603.3000;0.1327;-0.3690;
603.6000;0.1311;-0.3740;
603.9000;0.1319;-0.3790;
604.2000;0.1311;-0.3989;
604.5000;0.1237;-0.4164;
604.8000;0.1294;-0.4014;
605.1000;0.1270;-0.4089;
605.4000;0.1262;-0.4139;
605.7000;0.1278;-0.4239;
606.0000;0.1245;-0.4388;
606.3000;0.1278;-0.4214;
606.6000;0.1229;-0.4338;
606.9000;0.1262;-0.4289;
607.2000;0.1229;-0.4388;
607.5000;0.1164;-0.4638;
607.8000;0.1270;-0.4438;
608.1000;0.1278;-0.4413;
608.4000;0.1278;-0.4488;
608.7000;0.1278;-0.4538;
609.0000;0.1245;-0.4613;
609.3000;0.1229;-0.4638;
609.6000;0.1254;-0.4613;
609.9000;0.1262;-0.4488;
610.2000;0.1254;-0.4438;
610.5000;0.1245;-0.4488;
610.8000;0.1229;-0.4638;
611.1000;0.1213;-0.4787;
611.4000;0.1254;-0.4737;
611.7000;0.1254;-0.4688;
612.0000;0.1278;-0.4737;
612.3000;0.1237;-0.4762;
612.6000;0.1245;-0.4688;
612.9000;0.1245;-0.4712;
613.2000;0.1237;-0.4712;
613.5000;0.1245;-0.4712;
613.8000;0.1229;-0.4712;
614.1000;0.1254;-0.4663;
614.4000;0.1205;-0.4762;
614.7000;0.1229;-0.4712;
615.0000;0.1254;-0.4638;
615.3000;0.1237;-0.4688;
615.6000;0.1237;-0.4737;
615.9000;0.1245;-0.4762;
616.2000;0.1245;-0.4787;
616.5000;0.1229;-0.4912;
616.8000;0.1229;-0.4887;
617.1000;0.1221;-0.4987;
617.4000;0.1237;-0.4937;
617.7000;0.1229;-0.4912;
618.0000;0.1213;-0.4962;
618.3000;0.1286;-0.4762;
618.6000;0.1221;-0.4812;
618.9000;0.1221;-0.4812;
619.2000;0.1156;-0.4937;
619.5000;0.1221;-0.4712;
619.8000;0.1213;-0.4538;
620.1000;0.1164;-0.4737;
620.4000;0.1172;-0.4737;
620.7000;0.1229;-0.4688;
621.0000;0.1270;-0.4638;
621.3000;0.1164;-0.4812;
621.6000;0.1229;-0.4737;
621.9000;0.1245;-0.4663;
622.2000;0.1270;-0.4588;
622.5000;0.1254;-0.4737;
622.8000;0.1245;-0.4762;
623.1000;0.1237;-0.4712;
623.4000;0.1245;-0.4762;
623.7000;0.1237;-0.4787;
624.0000;0.1221;-0.4837;
624.3000;0.1237;-0.4737;
624.6000;0.1245;-0.4712;
624.9000;0.1237;-0.4737;
625.2000;0.1221;-0.4737;
625.5000;0.1229;-0.4812;
625.8000;0.1237;-0.4862;
626.1000;0.1245;-0.4812;
626.4000;0.1237;-0.4812;
626.7000;0.1245;-0.4887;
627.0000;0.1237;-0.4912;
627.3000;0.1254;-0.4887;
627.6000;0.1237;-0.4862;
627.9000;0.1221;-0.4962;
628.2000;0.1245;-0.4762;
628.5000;0.1245;-0.4762;
628.8000;0.1229;-0.4787;
629.1000;0.1229;-0.4812;
629.4000;0.1262;-0.4737;
629.7000;0.1172;-0.4987;
630.0000;0.1229;-0.4862;
630.3000;0.1229;-0.4887;
630.6000;0.1197;-0.5037;
630.9000;0.1245;-0.4962;
631.2000;0.1213;-0.4937;
631.5000;0.1229;-0.4887;
631.8000;0.1237;-0.4837;
632.1000;0.1237;-0.4737;
632.4000;0.1254;-0.4638;
632.7000;0.1262;-0.4638;
633.0000;0.1254;-0.4613;
633.3000;0.1205;-0.4812;
633.6000;0.1254;-0.4712;
633.9000;0.1213;-0.4837;
634.2000;0.1286;-0.4638;
634.5000;0.1237;-0.4812;
634.8000;0.1229;-0.4837;
635.1000;0.1148;-0.5136;
635.4000;0.1205;-0.4987;
635.7000;0.1221;-0.4962;
636.0000;0.1245;-0.4812;
636.3000;0.1245;-0.4762;
636.6000;0.1245;-0.4837;
636.9000;0.1237;-0.4837;
637.2000;0.1164;-0.5062;
637.5000;0.1237;-0.4912;
637.8000;0.1229;-0.4937;
638.1000;0.1229;-0.5012;
638.4000;0.1245;-0.5062;
638.7000;0.1221;-0.5136;
639.0000;0.1197;-0.5086;
639.3000;0.1188;-0.5111;
639.6000;0.1254;-0.4862;
639.9000;0.1229;-0.4862;
640.2000;0.1188;-0.4912;
640.5000;0.1213;-0.4787;
640.8000;0.1237;-0.4688;
641.1000;0.1221;-0.4787;
641.4000;0.1213;-0.4737;
641.7000;0.1237;-0.4787;
642.0000;0.1229;-0.4912;
642.3000;0.1205;-0.5111;
642.6000;0.1237;-0.4987;
642.9000;0.1237;-0.4987;
643.2000;0.1205;-0.5111;
643.5000;0.1237;-0.5037;
643.8000;0.1229;-0.5062;
644.1000;0.1237;-0.5062;
644.4000;0.1229;-0.5111;
644.7000;0.1221;-0.5037;
645.0000;0.1286;-0.4862;
645.3000;0.1237;-0.5062;
645.6000;0.1221;-0.5111;
645.9000;0.1221;-0.5111;
646.2000;0.1229;-0.5062;
646.5000;0.1221;-0.5161;
646.8000;0.1229;-0.5086;
647.1000;0.1229;-0.5086;
647.4000;0.1254;-0.4937;
647.7000;0.1245;-0.4912;
648.0000;0.1262;-0.4862;
648.3000;0.1213;-0.4987;
648.6000;0.1245;-0.4962;
648.9000;0.1205;-0.4987;
649.2000;0.1221;-0.4987;
649.5000;0.1213;-0.4937;
649.8000;0.1229;-0.4937;
650.1000;0.1229;-0.4887;
650.4000;0.1237;-0.4887;
650.7000;0.1229;-0.4887;
651.0000;0.1221;-0.4837;
651.3000;0.1205;-0.4937;
651.6000;0.1237;-0.4887;
651.9000;0.1221;-0.5012;
652.2000;0.1229;-0.5012;
652.5000;0.1229;-0.4987;
652.8000;0.1229;-0.4937;
653.1000;0.1188;-0.4987;
653.4000;0.1205;-0.4962;
653.7000;0.1237;-0.4862;
654.0000;0.1213;-0.4812;
654.3000;0.1270;-0.4613;
654.6000;0.1213;-0.4712;
654.9000;0.1229;-0.4712;
655.2000;0.1197;-0.4762;
655.5000;0.1188;-0.4737;
655.8000;0.1205;-0.4837;
656.1000;0.1245;-0.4663;
656.4000;0.1286;-0.4688;
656.7000;0.1237;-0.4762;
657.0000;0.1245;-0.4712;
657.3000;0.1237;-0.4688;
657.6000;0.1237;-0.4638;
657.9000;0.1229;-0.4737;
658.2000;0.1229;-0.4762;
658.5000;0.1164;-0.4962;
658.8000;0.1221;-0.4837;
659.1000;0.1245;-0.4837;
659.4000;0.1221;-0.4912;
659.7000;0.1213;-0.4912;
660.0000;0.1213;-0.4887;
660.3000;0.1319;-0.4787;
660.6000;0.1237;-0.5012;
660.9000;0.1213;-0.5086;
661.2000;0.1229;-0.4987;
661.5000;0.1229;-0.4962;
661.8000;0.1229;-0.4862;
662.1000;0.1229;-0.4837;
662.4000;0.1270;-0.4688;
662.7000;0.1245;-0.4638;
663.0000;0.1221;-0.4737;
663.3000;0.1213;-0.4812;
663.6000;0.1205;-0.4762;
663.9000;0.1221;-0.4737;
664.2000;0.1213;-0.4787;
664.5000;0.1229;-0.4812;
664.8000;0.1221;-0.4962;
665.1000;0.1213;-0.4887;
665.4000;0.1237;-0.4837;
665.7000;0.1205;-0.4962;
666.0000;0.1237;-0.5012;
666.3000;0.1213;-0.5012;
666.6000;0.1213;-0.4937;
666.9000;0.1237;-0.4937;
667.2000;0.1229;-0.4962;
667.5000;0.1221;-0.4937;
667.8000;0.1221;-0.4837;
668.1000;0.1237;-0.4762;
668.4000;0.1221;-0.4912;
668.7000;0.1229;-0.4762;
669.0000;0.1229;-0.4837;
669.3000;0.1107;-0.5211;
669.6000;0.1205;-0.4962;
669.9000;0.1213;-0.5062;
670.2000;0.1229;-0.5086;
670.5000;0.1254;-0.4962;
670.8000;0.1221;-0.4987;
671.1000;0.1213;-0.4987;
671.4000;0.1213;-0.4912;
671.7000;0.1237;-0.4912;
672.0000;0.1229;-0.4912;
672.3000;0.1245;-0.4912;
672.6000;0.1245;-0.4912;
672.9000;0.1237;-0.4887;
673.2000;0.1229;-0.4912;
673.5000;0.1245;-0.4962;
673.8000;0.1237;-0.4962;
674.1000;0.1213;-0.5012;
674.4000;0.1115;-0.5286;
674.7000;0.1221;-0.4887;
675.0000;0.1213;-0.4837;
675.3000;0.1229;-0.4812;
675.6000;0.1229;-0.4887;
675.9000;0.1221;-0.4862;
676.2000;0.1237;-0.4837;
676.5000;0.1221;-0.4887;
676.8000;0.1229;-0.4962;
677.1000;0.1221;-0.5086;
677.4000;0.1229;-0.5136;
677.7000;0.1245;-0.5086;
678.0000;0.1245;-0.5012;
678.3000;0.1197;-0.5111;
678.6000;0.1205;-0.5086;
678.9000;0.1180;-0.5161;
679.2000;0.1262;-0.4962;
679.5000;0.1245;-0.5012;
679.8000;0.1237;-0.4962;
680.1000;0.1237;-0.4962;
680.4000;0.1262;-0.4912;
680.7000;0.1229;-0.4987;
681.0000;0.1205;-0.5086;
681.3000;0.1229;-0.5086;
681.6000;0.1229;-0.5086;
681.9000;0.1237;-0.5161;
682.2000;0.1221;-0.5211;
682.5000;0.1213;-0.5236;
682.8000;0.1197;-0.5311;
683.1000;0.1237;-0.5111;
683.4000;0.1213;-0.5136;
683.7000;0.1213;-0.5161;
684.0000;0.1221;-0.5186;
684.3000;0.1205;-0.5186;
684.6000;0.1221;-0.5111;
684.9000;0.1221;-0.5161;
685.2000;0.1229;-0.5161;
685.5000;0.1237;-0.5186;
685.8000;0.1229;-0.5211;
686.1000;0.1213;-0.5211;
686.4000;0.1221;-0.5236;
686.7000;0.1229;-0.5211;
687.0000;0.1213;-0.5286;
687.3000;0.1229;-0.5211;
687.6000;0.1221;-0.5311;
687.9000;0.1197;-0.5311;
688.2000;0.1229;-0.5186;
688.5000;0.1237;-0.5161;
688.8000;0.1205;-0.5161;
689.1000;0.1107;-0.5386;
689.4000;0.1237;-0.5111;
689.7000;0.1229;-0.5286;
690.0000;0.1188;-0.5336;
690.3000;0.1213;-0.5161;
690.6000;0.1229;-0.5062;
690.9000;0.1237;-0.5037;
691.2000;0.1221;-0.5161;
691.5000;0.1188;-0.5261;
691.8000;0.1245;-0.5136;
692.1000;0.1229;-0.5086;
692.4000;0.1221;-0.5086;
692.7000;0.1221;-0.5161;
693.0000;0.1262;-0.5086;
693.3000;0.1221;-0.5111;
693.6000;0.1213;-0.5086;
693.9000;0.1229;-0.5062;
694.2000;0.1237;-0.5136;
694.5000;0.1229;-0.5186;
694.8000;0.1229;-0.5136;
695.1000;0.1131;-0.5411;
695.4000;0.1197;-0.5336;
695.7000;0.1221;-0.5136;
696.0000;0.1270;-0.5012;
696.3000;0.1205;-0.5161;
696.6000;0.1213;-0.5136;
696.9000;0.1221;-0.5136;
697.2000;0.1229;-0.5136;
697.5000;0.1245;-0.5111;
697.8000;0.1221;-0.5211;
698.1000;0.1229;-0.5186;
698.4000;0.1221;-0.5336;
698.7000;0.1319;-0.5037;
699.0000;0.1245;-0.5161;
699.3000;0.1221;-0.5186;
699.6000;0.1254;-0.5062;
699.9000;0.1221;-0.5111;
700.2000;0.1229;-0.5062;
700.5000;0.1205;-0.5086;
700.8000;0.1237;-0.5161;
701.1000;0.1221;-0.5136;
701.4000;0.1229;-0.5012;
701.7000;0.1188;-0.5136;
702.0000;0.1205;-0.5012;
702.3000;0.1229;-0.4937;
702.6000;0.1213;-0.5062;
702.9000;0.1229;-0.5062;
703.2000;0.1245;-0.5062;
703.5000;0.1221;-0.5186;
703.8000;0.1221;-0.5111;
704.1000;0.1205;-0.5136;
704.4000;0.1229;-0.5136;
704.7000;0.1221;-0.5161;
705.0000;0.1237;-0.5037;
705.3000;0.1221;-0.5111;
705.6000;0.1172;-0.5311;
705.9000;0.1229;-0.5111;
706.2000;0.1237;-0.5111;
706.5000;0.1229;-0.5111;
706.8000;0.1286;-0.5012;
707.1000;0.1221;-0.5211;
707.4000;0.1213;-0.5136;
707.7000;0.1221;-0.5136;
708.0000;0.1262;-0.5062;
708.3000;0.1237;-0.5062;
708.6000;0.1237;-0.5086;
708.9000;0.1229;-0.5037;
709.2000;0.1172;-0.5062;
709.5000;0.1237;-0.4937;
709.8000;0.1294;-0.4737;
710.1000;0.1197;-0.4987;
710.4000;0.1164;-0.5086;
710.7000;0.1205;-0.4962;
711.0000;0.1164;-0.5037;
711.3000;0.1205;-0.5012;
711.6000;0.1237;-0.4787;
711.9000;0.1205;-0.4837;
712.2000;0.1205;-0.4887;
712.5000;0.1205;-0.4912;
712.8000;0.1221;-0.4912;
713.1000;0.1254;-0.4787;
713.4000;0.1221;-0.4937;
713.7000;0.1245;-0.4887;
714.0000;0.1311;-0.4663;
714.3000;0.1197;-0.5012;
714.6000;0.1229;-0.4962;
714.9000;0.1180;-0.5111;
715.2000;0.1327;-0.4737;
715.5000;0.1205;-0.5062;
715.8000;0.1205;-0.5086;
716.1000;0.1254;-0.4862;
716.4000;0.1229;-0.4862;
716.7000;0.1221;-0.4862;
717.0000;0.1213;-0.4887;
717.3000;0.1302;-0.4887;
717.6000;0.1197;-0.5062;
717.9000;0.1188;-0.5037;
718.2000;0.1229;-0.4887;
718.5000;0.1229;-0.4987;
718.8000;0.1213;-0.5062;
719.1000;0.1278;-0.4887;
719.4000;0.1237;-0.4962;
719.7000;0.1254;-0.4987;
720.0000;0.1229;-0.5086;
720.3000;0.1213;-0.5037;
720.6000;0.1221;-0.5012;
720.9000;0.1197;-0.5161;
721.2000;0.1221;-0.5086;
721.5000;0.1278;-0.4962;
721.8000;0.1229;-0.5037;
722.1000;0.1254;-0.4937;
722.4000;0.1229;-0.4962;
722.7000;0.1197;-0.5037;
723.0000;0.1221;-0.4912;
723.3000;0.1221;-0.5012;
723.6000;0.1245;-0.4937;
723.9000;0.1205;-0.5012;
724.2000;0.1245;-0.4987;
724.5000;0.1221;-0.5062;
724.8000;0.1221;-0.5012;
725.1000;0.1188;-0.5037;
725.4000;0.1319;-0.4638;
725.7000;0.1221;-0.4937;
726.0000;0.1205;-0.4962;
726.3000;0.1229;-0.4837;
726.6000;0.1213;-0.4987;
726.9000;0.1213;-0.5012;
727.2000;0.1278;-0.4837;
727.5000;0.1245;-0.4837;
727.8000;0.1237;-0.4812;
728.1000;0.1034;-0.5286;
728.4000;0.1213;-0.4912;
728.7000;0.1229;-0.4937;
729.0000;0.1188;-0.4987;
729.3000;0.1221;-0.4862;
729.6000;0.1237;-0.4912;
729.9000;0.1229;-0.4937;
730.2000;0.1197;-0.4887;
730.5000;0.1229;-0.4912;
730.8000;0.1237;-0.5012;
731.1000;0.1221;-0.4887;
731.4000;0.1237;-0.4937;
731.7000;0.1205;-0.5062;
732.0000;0.1245;-0.4987;
732.3000;0.1197;-0.5136;
732.6000;0.1229;-0.5062;
732.9000;0.1221;-0.5012;
733.2000;0.1237;-0.4987;
733.5000;0.1213;-0.5062;
733.8000;0.1229;-0.4987;
734.1000;0.1237;-0.4987;
734.4000;0.1229;-0.4962;
734.7000;0.1229;-0.4937;
735.0000;0.1245;-0.4962;
735.3000;0.1221;-0.5037;
735.6000;0.1221;-0.5012;
735.9000;0.1197;-0.5037;
736.2000;0.1245;-0.5012;
736.5000;0.1229;-0.5161;
736.8000;0.1197;-0.5336;
737.1000;0.1229;-0.5236;
737.4000;0.1245;-0.5136;
737.7000;0.1237;-0.4987;
738.0000;0.1188;-0.5136;
738.3000;0.1221;-0.5062;
738.6000;0.1221;-0.5062;
738.9000;0.1229;-0.5037;
739.2000;0.1188;-0.5111;
739.5000;0.1205;-0.5086;
739.8000;0.1229;-0.5062;
740.1000;0.1221;-0.5111;
740.4000;0.1221;-0.5236;
740.7000;0.1229;-0.5261;
741.0000;0.1221;-0.5186;
741.3000;0.1237;-0.5161;
741.6000;0.1229;-0.5161;
741.9000;0.1237;-0.5086;
742.2000;0.1213;-0.5161;
742.5000;0.1319;-0.4912;
742.8000;0.1229;-0.5261;
743.1000;0.1221;-0.5286;
743.4000;0.1229;-0.5186;
743.7000;0.1229;-0.5236;
744.0000;0.1245;-0.5211;
744.3000;0.1156;-0.5436;
744.6000;0.1221;-0.5236;
744.9000;0.1237;-0.5211;
745.2000;0.1237;-0.5161;
745.5000;0.1237;-0.5111;
745.8000;0.1180;-0.5286;
746.1000;0.1213;-0.5111;
746.4000;0.1221;-0.5111;
746.7000;0.1229;-0.5086;
747.0000;0.1237;-0.5062;
747.3000;0.1229;-0.5111;
747.6000;0.1254;-0.5012;
747.9000;0.1245;-0.5086;
748.2000;0.1229;-0.5062;
748.5000;0.1229;-0.5062;
748.8000;0.1278;-0.4887;
749.1000;0.1245;-0.5111;
749.4000;0.1188;-0.5311;
749.7000;0.1237;-0.5261;
750.0000;0.1213;-0.5161;
750.3000;0.1205;-0.5211;
750.6000;0.1221;-0.5186;
750.9000;0.1172;-0.5261;
751.2000;0.1229;-0.5062;
751.5000;0.1286;-0.4887;
751.8000;0.1229;-0.5111;
752.1000;0.1107;-0.5411;
752.4000;0.1188;-0.5211;
752.7000;0.1237;-0.5062;
753.0000;0.1245;-0.5012;
753.3000;0.1286;-0.4887;
753.6000;0.1237;-0.4862;
753.9000;0.1205;-0.4912;
754.2000;0.1237;-0.4887;
754.5000;0.1229;-0.4887;
754.8000;0.1221;-0.4937;
755.1000;0.1205;-0.5037;
755.4000;0.1205;-0.4962;
755.7000;0.1229;-0.4962;
756.0000;0.1245;-0.5037;
756.3000;0.1237;-0.5086;
756.6000;0.1229;-0.5086;
756.9000;0.1229;-0.5086;
757.2000;0.1262;-0.4912;
757.5000;0.1213;-0.5086;
757.8000;0.1221;-0.5136;
758.1000;0.1229;-0.5111;
758.4000;0.1221;-0.5161;
758.7000;0.1245;-0.5111;
759.0000;0.1245;-0.5062;
759.3000;0.1164;-0.5211;
759.6000;0.1205;-0.4987;
759.9000;0.1319;-0.4737;
760.2000;0.1213;-0.5086;
760.5000;0.1229;-0.5037;
760.8000;0.1205;-0.5111;
761.1000;0.1197;-0.5186;
761.4000;0.1213;-0.5111;
761.7000;0.1213;-0.5086;
762.0000;0.1197;-0.5211;
762.3000;0.1197;-0.5236;
762.6000;0.1188;-0.5211;
762.9000;0.1205;-0.5062;
763.2000;0.1213;-0.5062;
763.5000;0.1221;-0.5012;
763.8000;0.1221;-0.5012;
764.1000;0.1213;-0.5012;
764.4000;0.1221;-0.5012;
764.7000;0.1229;-0.4987;
765.0000;0.1213;-0.5012;
765.3000;0.1221;-0.4937;
765.6000;0.1213;-0.4962;
765.9000;0.1229;-0.4962;
766.2000;0.1213;-0.5062;
766.5000;0.1229;-0.5111;
766.8000;0.1254;-0.5111;
767.1000;0.1229;-0.5037;
767.4000;0.1188;-0.5161;
767.7000;0.1229;-0.4987;
768.0000;0.1237;-0.5012;
768.3000;0.1229;-0.4937;
768.6000;0.1237;-0.4937;
768.9000;0.1229;-0.4937;
769.2000;0.1237;-0.4912;
769.5000;0.1245;-0.4962;
769.8000;0.1229;-0.5012;
770.1000;0.1213;-0.5086;
770.4000;0.1229;-0.5062;
770.7000;0.1229;-0.5086;
771.0000;0.1254;-0.5062;
771.3000;0.1229;-0.5111;
771.6000;0.1229;-0.5062;
771.9000;0.1254;-0.5062;
772.2000;0.1221;-0.5111;
772.5000;0.1229;-0.5161;
772.8000;0.1254;-0.5086;
773.1000;0.1229;-0.5136;
773.4000;0.1221;-0.5136;
773.7000;0.1237;-0.5111;
774.0000;0.1237;-0.5062;
774.3000;0.1270;-0.4962;
774.6000;0.1286;-0.5012;
774.9000;0.1286;-0.5037;
775.2000;0.1229;-0.5037;
775.5000;0.1245;-0.5012;
775.8000;0.1237;-0.5062;
776.1000;0.1221;-0.5111;
776.4000;0.1254;-0.5037;
776.7000;0.1221;-0.5111;
777.0000;0.1229;-0.5111;
777.3000;0.1245;-0.5136;
777.6000;0.1229;-0.5186;
777.9000;0.1245;-0.5062;
778.2000;0.1229;-0.5136;
778.5000;0.1229;-0.5186;
778.8000;0.1229;-0.5261;
779.1000;0.1237;-0.5336;
779.4000;0.1229;-0.5361;
779.7000;0.1229;-0.5286;
780.0000;0.1237;-0.5211;
780.3000;0.1229;-0.5211;
780.6000;0.1221;-0.5111;
780.9000;0.1229;-0.5136;
781.2000;0.1221;-0.5111;
781.5000;0.1229;-0.5037;
781.8000;0.1213;-0.5037;
782.1000;0.1221;-0.4987;
782.4000;0.1229;-0.5111;
782.7000;0.1221;-0.5062;
783.0000;0.1221;-0.5062;
783.3000;0.1245;-0.4962;
783.6000;0.1245;-0.5111;
783.9000;0.1221;-0.5286;
784.2000;0.1213;-0.5311;
784.5000;0.1245;-0.5261;
784.8000;0.1245;-0.5211;
785.1000;0.1229;-0.5211;
785.4000;0.1205;-0.5161;
785.7000;0.1237;-0.5136;
786.0000;0.1205;-0.5161;
786.3000;0.1213;-0.5136;
786.6000;0.1205;-0.5236;
786.9000;0.1148;-0.5336;
787.2000;0.1221;-0.5136;
787.5000;0.1180;-0.5311;
787.8000;0.1237;-0.5211;
788.1000;0.1213;-0.5286;
788.4000;0.1254;-0.5086;
788.7000;0.1237;-0.5161;
789.0000;0.1180;-0.5186;
789.3000;0.1221;-0.5062;
789.6000;0.1229;-0.5111;
789.9000;0.1221;-0.5037;
790.2000;0.1229;-0.5037;
790.5000;0.1221;-0.5062;
790.8000;0.1229;-0.5012;
791.1000;0.1245;-0.4937;
791.4000;0.1197;-0.5037;
791.7000;0.1221;-0.4862;
792.0000;0.1237;-0.4862;
792.3000;0.1221;-0.4912;
792.6000;0.1229;-0.4987;
792.9000;0.1229;-0.4987;
793.2000;0.1254;-0.5062;
793.5000;0.1229;-0.5086;
793.8000;0.1221;-0.5136;
794.1000;0.1213;-0.5186;
794.4000;0.1221;-0.5136;
794.7000;0.1229;-0.5211;
795.0000;0.1237;-0.5186;
795.3000;0.1188;-0.5336;
795.6000;0.1221;-0.5211;
795.9000;0.1229;-0.5211;
796.2000;0.1156;-0.5386;
796.5000;0.1205;-0.5211;
796.8000;0.1213;-0.5161;
797.1000;0.1221;-0.5211;
797.4000;0.1213;-0.5111;
797.7000;0.1221;-0.5086;
798.0000;0.1229;-0.5037;
798.3000;0.1229;-0.5086;
798.6000;0.1245;-0.5136;
798.9000;0.1254;-0.5161;
799.2000;0.1237;-0.5136;
799.5000;0.1319;-0.4937;
799.8000;0.1245;-0.5236;
800.1000;0.1237;-0.5361;
800.4000;0.1237;-0.5336;
800.7000;0.1229;-0.5261;
801.0000;0.1213;-0.5286;
801.3000;0.1205;-0.5286;
801.6000;0.1229;-0.5211;
801.9000;0.1205;-0.5261;
802.2000;0.1237;-0.5236;
802.5000;0.1229;-0.5336;
802.8000;0.1229;-0.5361;
803.1000;0.1229;-0.5411;
803.4000;0.1221;-0.5386;
803.7000;0.1237;-0.5311;
804.0000;0.1229;-0.5336;
804.3000;0.1237;-0.5311;
804.6000;0.1213;-0.5286;
804.9000;0.1229;-0.5311;
805.2000;0.1213;-0.5336;
805.5000;0.1221;-0.5236;
805.8000;0.1213;-0.5261;
806.1000;0.1221;-0.5211;
806.4000;0.1262;-0.5211;
806.7000;0.1229;-0.5411;
807.0000;0.1237;-0.5510;
807.3000;0.1221;-0.5485;
807.6000;0.1229;-0.5386;
807.9000;0.1229;-0.5386;
808.2000;0.1237;-0.5336;
808.5000;0.1221;-0.5311;
808.8000;0.1237;-0.5236;
809.1000;0.1221;-0.5361;
809.4000;0.1156;-0.5460;
809.7000;0.1205;-0.5361;
810.0000;0.1213;-0.5361;
810.3000;0.1205;-0.5336;
810.6000;0.1221;-0.5361;
810.9000;0.1205;-0.5361;
811.2000;0.1213;-0.5211;
811.5000;0.1205;-0.5261;
811.8000;0.1319;-0.4987;
812.1000;0.1245;-0.5186;
812.4000;0.1229;-0.5136;
812.7000;0.1229;-0.5186;
813.0000;0.1213;-0.5286;
813.3000;0.1245;-0.5161;
813.6000;0.1229;-0.5236;
813.9000;0.1229;-0.5261;
814.2000;0.1213;-0.5261;
814.5000;0.1335;-0.5012;
814.8000;0.1213;-0.5311;
815.1000;0.1229;-0.5261;
815.4000;0.1205;-0.5386;
815.7000;0.1237;-0.5336;
816.0000;0.1270;-0.5136;
816.3000;0.1221;-0.5236;
816.6000;0.1205;-0.5311;
816.9000;0.1221;-0.5161;
817.2000;0.1205;-0.5111;
817.5000;0.1229;-0.5037;
817.8000;0.1237;-0.5211;
818.1000;0.1245;-0.5136;
818.4000;0.1229;-0.5186;
818.7000;0.1237;-0.5236;
819.0000;0.1245;-0.5311;
819.3000;0.1229;-0.5361;
819.6000;0.1229;-0.5336;
819.9000;0.1278;-0.5161;
820.2000;0.1221;-0.5286;
820.5000;0.1229;-0.5311;
820.8000;0.1213;-0.5336;
821.1000;0.1221;-0.5336;
821.4000;0.1213;-0.5361;
821.7000;0.1229;-0.5336;
822.0000;0.1254;-0.5311;
822.3000;0.1164;-0.5535;
822.6000;0.1237;-0.5386;
822.9000;0.1327;-0.5161;
823.2000;0.1229;-0.5585;
823.5000;0.1229;-0.5510;
823.8000;0.1245;-0.5485;
824.1000;0.1229;-0.5460;
824.4000;0.1237;-0.5336;
824.7000;0.1205;-0.5436;
825.0000;0.1221;-0.5336;
825.3000;0.1327;-0.5062;
825.6000;0.1229;-0.5336;
825.9000;0.1188;-0.5361;
826.2000;0.1205;-0.5236;
826.5000;0.1213;-0.5286;
826.8000;0.1213;-0.5386;
827.1000;0.1221;-0.5336;
827.4000;0.1229;-0.5286;
827.7000;0.1237;-0.5286;
828.0000;0.1254;-0.5261;
828.3000;0.1245;-0.5236;
828.6000;0.1237;-0.5311;
828.9000;0.1237;-0.5311;
829.2000;0.1229;-0.5261;
829.5000;0.1245;-0.5161;
829.8000;0.1229;-0.5086;
830.1000;0.1254;-0.4937;
830.4000;0.1245;-0.4887;
830.7000;0.1221;-0.4937;
831.0000;0.1213;-0.5012;
831.3000;0.1229;-0.5037;
831.6000;0.1229;-0.5062;
831.9000;0.1237;-0.5062;
832.2000;0.1213;-0.5012;
832.5000;0.1221;-0.4987;
832.8000;0.1213;-0.5012;
833.1000;0.1237;-0.4937;
833.4000;0.1205;-0.4937;
833.7000;0.1245;-0.4812;
834.0000;0.1245;-0.4862;
834.3000;0.1254;-0.4887;
834.6000;0.1221;-0.4937;
834.9000;0.1245;-0.4912;
835.2000;0.1229;-0.4912;
835.5000;0.1254;-0.4937;
835.8000;0.1213;-0.5012;
836.1000;0.1213;-0.5012;
836.4000;0.1156;-0.5261;
836.7000;0.1229;-0.5037;
837.0000;0.1221;-0.5086;
837.3000;0.1221;-0.5012;
837.6000;0.1237;-0.5037;
837.9000;0.1229;-0.5111;
838.2000;0.1221;-0.5037;
838.5000;0.1254;-0.4812;
838.8000;0.1188;-0.5086;
839.1000;0.1229;-0.4962;
839.4000;0.1237;-0.4837;
839.7000;0.1245;-0.4787;
840.0000;0.1229;-0.4837;
840.3000;0.1245;-0.4787;
840.6000;0.1237;-0.4762;
840.9000;0.1237;-0.4912;
841.2000;0.1335;-0.4638;
841.5000;0.1115;-0.5211;
841.8000;0.1262;-0.4837;
842.1000;0.1278;-0.4787;
842.4000;0.1270;-0.4887;
842.7000;0.1213;-0.5086;
843.0000;0.1254;-0.5012;
843.3000;0.1180;-0.5211;
843.6000;0.1229;-0.5186;
843.9000;0.1148;-0.5436;
844.2000;0.1245;-0.5111;
844.5000;0.1311;-0.4962;
844.8000;0.1221;-0.5136;
845.1000;0.1221;-0.5161;
845.4000;0.1197;-0.5261;
845.7000;0.1237;-0.5136;
846.0000;0.1188;-0.5361;
846.3000;0.1188;-0.5411;
846.6000;0.1335;-0.5037;
846.9000;0.1229;-0.5386;
847.2000;0.1237;-0.5236;
847.5000;0.1237;-0.5286;
847.8000;0.1205;-0.5361;
848.1000;0.1254;-0.5161;
848.4000;0.1237;-0.5086;
848.7000;0.1237;-0.5111;
849.0000;0.1229;-0.5186;
849.3000;0.1180;-0.5211;
849.6000;0.1254;-0.5062;
849.9000;0.1229;-0.5111;
850.2000;0.1188;-0.5236;
850.5000;0.1221;-0.5136;
850.8000;0.1213;-0.5161;
851.1000;0.1237;-0.5161;
851.4000;0.1221;-0.5161;
851.7000;0.1245;-0.5086;
852.0000;0.1221;-0.5161;
852.3000;0.1148;-0.5336;
852.6000;0.1221;-0.5236;
852.9000;0.1205;-0.5311;
853.2000;0.1213;-0.5336;
853.5000;0.1237;-0.5236;
853.8000;0.1245;-0.5211;
854.1000;0.1213;-0.5161;
854.4000;0.1237;-0.5111;
854.7000;0.1278;-0.4962;
855.0000;0.1213;-0.5136;
855.3000;0.1229;-0.5186;
855.6000;0.1229;-0.5186;
855.9000;0.1229;-0.5136;
856.2000;0.1213;-0.5286;
856.5000;0.1237;-0.5361;
856.8000;0.1213;-0.5485;
857.1000;0.1221;-0.5436;
857.4000;0.1229;-0.5411;
857.7000;0.1221;-0.5386;
858.0000;0.1254;-0.5286;
858.3000;0.1237;-0.5311;
858.6000;0.1319;-0.5111;
858.9000;0.1221;-0.5286;
859.2000;0.1213;-0.5261;
859.5000;0.1197;-0.5311;
859.8000;0.1221;-0.5311;
860.1000;0.1237;-0.5286;
860.4000;0.1221;-0.5136;
860.7000;0.1262;-0.5037;
861.0000;0.1270;-0.5012;
861.3000;0.1237;-0.5161;
861.6000;0.1205;-0.5261;
861.9000;0.1229;-0.5161;
862.2000;0.1245;-0.5161;
862.5000;0.1221;-0.5286;
862.8000;0.1229;-0.5336;
863.1000;0.1237;-0.5261;
863.4000;0.1221;-0.5186;
863.7000;0.1254;-0.5062;
864.0000;0.1229;-0.5086;
864.3000;0.1213;-0.5161;
864.6000;0.1213;-0.5111;
864.9000;0.1197;-0.5211;
865.2000;0.1229;-0.5261;
865.5000;0.1254;-0.5236;
865.8000;0.1229;-0.5286;
866.1000;0.1229;-0.5311;
866.4000;0.1213;-0.5361;
866.7000;0.1221;-0.5436;
867.0000;0.1270;-0.5311;
867.3000;0.1221;-0.5510;
867.6000;0.1254;-0.5535;
867.9000;0.1180;-0.5635;
868.2000;0.1237;-0.5485;
868.5000;0.1270;-0.5311;
868.8000;0.1245;-0.5311;
869.1000;0.1229;-0.5311;
869.4000;0.1270;-0.5111;
869.7000;0.1245;-0.5136;
870.0000;0.1245;-0.5161;
870.3000;0.1237;-0.5211;
870.6000;0.1229;-0.5161;
870.9000;0.1245;-0.5111;
871.2000;0.1221;-0.5161;
871.5000;0.1229;-0.5211;
871.8000;0.1221;-0.5286;
872.1000;0.1229;-0.5161;
872.4000;0.1245;-0.5161;
872.7000;0.1229;-0.5236;
873.0000;0.1221;-0.5236;
873.3000;0.1229;-0.5236;
873.6000;0.1270;-0.5111;
873.9000;0.1245;-0.5286;
874.2000;0.1237;-0.5311;
874.5000;0.1229;-0.5361;
874.8000;0.1221;-0.5286;
875.1000;0.1221;-0.5211;
875.4000;0.1237;-0.5211;
875.7000;0.1213;-0.5236;
876.0000;0.1221;-0.5111;
876.3000;0.1213;-0.5012;
876.6000;0.1180;-0.5161;
876.9000;0.1229;-0.5111;
877.2000;0.1197;-0.5136;
877.5000;0.1213;-0.5136;
877.8000;0.1237;-0.5186;
878.1000;0.1221;-0.5261;
878.4000;0.1205;-0.5361;
878.7000;0.1229;-0.5311;
879.0000;0.1229;-0.5211;
879.3000;0.1229;-0.5086;
879.6000;0.1237;-0.5086;
879.9000;0.1237;-0.5161;
880.2000;0.1229;-0.5161;
880.5000;0.1213;-0.5161;
880.8000;0.1229;-0.5086;
881.1000;0.1205;-0.5062;
881.4000;0.1221;-0.4937;
881.7000;0.1213;-0.5037;
882.0000;0.1221;-0.4962;
882.3000;0.1254;-0.4887;
882.6000;0.1237;-0.4937;
882.9000;0.1221;-0.4962;
883.2000;0.1254;-0.4912;
883.5000;0.1205;-0.4962;
883.8000;0.1221;-0.5037;
884.1000;0.1237;-0.4987;
884.4000;0.1229;-0.5086;
884.7000;0.1229;-0.5111;
885.0000;0.1278;-0.5012;
885.3000;0.1229;-0.5161;
885.6000;0.1229;-0.5062;
885.9000;0.1188;-0.5111;
886.2000;0.1221;-0.5062;
886.5000;0.1237;-0.5062;
886.8000;0.1221;-0.5111;
887.1000;0.1205;-0.5161;
887.4000;0.1237;-0.5062;
887.7000;0.1237;-0.5086;
888.0000;0.1229;-0.5161;
888.3000;0.1237;-0.5161;
888.6000;0.1237;-0.5236;
888.9000;0.1245;-0.5161;
889.2000;0.1229;-0.5236;
889.5000;0.1221;-0.5186;
889.8000;0.1221;-0.5161;
890.1000;0.1229;-0.5136;
890.4000;0.1270;-0.5037;
890.7000;0.1213;-0.5211;
891.0000;0.1188;-0.5311;
891.3000;0.1294;-0.4987;
891.6000;0.1237;-0.5111;
891.9000;0.1229;-0.5136;
892.2000;0.1237;-0.5037;
892.5000;0.1237;-0.5062;
892.8000;0.1237;-0.5086;
893.1000;0.1221;-0.5161;
893.4000;0.1221;-0.5012;
893.7000;0.1270;-0.4837;
894.0000;0.1229;-0.4887;
894.3000;0.1229;-0.4937;
894.6000;0.1237;-0.4912;
894.9000;0.1229;-0.4937;
895.2000;0.1229;-0.4962;
895.5000;0.1237;-0.4912;
895.8000;0.1205;-0.5012;
896.1000;0.1213;-0.5111;
896.4000;0.1197;-0.5161;
896.7000;0.1245;-0.5086;
897.0000;0.1229;-0.5186;
897.3000;0.1197;-0.5261;
897.6000;0.1213;-0.5261;
897.9000;0.1237;-0.5236;
898.2000;0.1205;-0.5136;
898.5000;0.1221;-0.5161;
898.8000;0.1229;-0.5211;
899.1000;0.1221;-0.5161;
899.4000;0.1180;-0.5261;
899.7000;0.1205;-0.5286;
900.0000;0.1205;-0.5261;
900.3000;0.1311;-0.4912;
900.6000;0.1229;-0.5161;
900.9000;0.1188;-0.5211;
901.2000;0.1229;-0.5086;
901.5000;0.1245;-0.4987;
901.8000;0.1221;-0.5037;
902.1000;0.1188;-0.5086;
902.4000;0.1245;-0.4962;
902.7000;0.1221;-0.4937;
903.0000;0.1229;-0.4912;
903.3000;0.1229;-0.4887;
903.6000;0.1270;-0.4887;
903.9000;0.1319;-0.4762;
904.2000;0.1229;-0.4962;
904.5000;0.1221;-0.5111;
904.8000;0.1213;-0.5136;
905.1000;0.1221;-0.5136;
905.4000;0.1221;-0.5086;
905.7000;0.1229;-0.5111;
906.0000;0.1229;-0.5236;
906.3000;0.1148;-0.5361;
906.6000;0.1262;-0.4962;
906.9000;0.1221;-0.5086;
907.2000;0.1213;-0.5086;
907.5000;0.1286;-0.4887;
907.8000;0.1237;-0.5012;
908.1000;0.1221;-0.5136;
908.4000;0.1262;-0.4987;
908.7000;0.1229;-0.5037;
909.0000;0.1140;-0.5236;
909.3000;0.1221;-0.4962;
909.6000;0.1278;-0.4862;
909.9000;0.1221;-0.5012;
910.2000;0.1221;-0.5037;
910.5000;0.1237;-0.5012;
910.8000;0.1229;-0.4937;
911.1000;0.1221;-0.5012;
911.4000;0.1213;-0.5062;
911.7000;0.1213;-0.5062;
912.0000;0.1229;-0.5037;
912.3000;0.1188;-0.5161;
912.6000;0.1205;-0.5136;
912.9000;0.1221;-0.5086;
913.2000;0.1213;-0.5062;
913.5000;0.1205;-0.5111;
913.8000;0.1213;-0.5136;
914.1000;0.1205;-0.5136;
914.4000;0.1237;-0.5062;
914.7000;0.1221;-0.5037;
915.0000;0.1229;-0.5012;
915.3000;0.1262;-0.4987;
915.6000;0.1245;-0.5037;
915.9000;0.1221;-0.4887;
916.2000;0.1221;-0.4912;
916.5000;0.1213;-0.4987;
916.8000;0.1229;-0.4987;
917.1000;0.1221;-0.4887;
917.4000;0.1237;-0.4962;
917.7000;0.1237;-0.5062;
918.0000;0.1237;-0.5012;
918.3000;0.1254;-0.4912;
918.6000;0.1237;-0.4962;
918.9000;0.1237;-0.5012;
919.2000;0.1245;-0.5086;
919.5000;0.1254;-0.4962;
919.8000;0.1237;-0.5086;
920.1000;0.1221;-0.5186;
920.4000;0.1213;-0.5236;
920.7000;0.1245;-0.5161;
921.0000;0.1245;-0.5186;
921.3000;0.1221;-0.5086;
921.6000;0.1237;-0.5086;
921.9000;0.1262;-0.5062;
922.2000;0.1245;-0.5037;
922.5000;0.1229;-0.5136;
922.8000;0.1237;-0.5161;
923.1000;0.1213;-0.5086;
923.4000;0.1164;-0.5136;
923.7000;0.1205;-0.5037;
924.0000;0.1229;-0.5012;
924.3000;0.1213;-0.5037;
924.6000;0.1229;-0.5012;
924.9000;0.1245;-0.5037;
925.2000;0.1237;-0.4987;
925.5000;0.1229;-0.5037;
925.8000;0.1221;-0.5161;
926.1000;0.1237;-0.5136;
926.4000;0.1197;-0.5186;
926.7000;0.1237;-0.5136;
927.0000;0.1205;-0.5186;
927.3000;0.1205;-0.5161;
927.6000;0.1229;-0.5086;
927.9000;0.1205;-0.5062;
928.2000;0.1213;-0.4987;
928.5000;0.1205;-0.4887;
928.8000;0.1188;-0.4937;
929.1000;0.1229;-0.4887;
929.4000;0.1245;-0.4887;
929.7000;0.1254;-0.4887;
930.0000;0.1229;-0.4912;
930.3000;0.1213;-0.4912;
930.6000;0.1237;-0.4787;
930.9000;0.1229;-0.4787;
931.2000;0.1335;-0.4538;
931.5000;0.1237;-0.4737;
931.8000;0.1197;-0.4862;
932.1000;0.1221;-0.4912;
932.4000;0.1221;-0.4937;
932.7000;0.1221;-0.4912;
933.0000;0.1213;-0.4862;
933.3000;0.1286;-0.4638;
933.6000;0.1237;-0.4837;
933.9000;0.1221;-0.4862;
934.2000;0.1221;-0.4812;
934.5000;0.1213;-0.4812;
934.8000;0.1245;-0.4737;
935.1000;0.1237;-0.4762;
935.4000;0.1237;-0.4787;
935.7000;0.1197;-0.4837;
936.0000;0.1229;-0.4688;
936.3000;0.1237;-0.4638;
936.6000;0.1229;-0.4638;
936.9000;0.1213;-0.4712;
937.2000;0.1229;-0.4762;
937.5000;0.1221;-0.4812;
937.8000;0.1237;-0.4812;
938.1000;0.1262;-0.4737;
938.4000;0.1229;-0.4862;
938.7000;0.1205;-0.4887;
939.0000;0.1188;-0.4862;
939.3000;0.1213;-0.4812;
939.6000;0.1302;-0.4638;
939.9000;0.1237;-0.4812;
940.2000;0.1205;-0.4937;
940.5000;0.1188;-0.5086;
940.8000;0.1213;-0.4987;
941.1000;0.1278;-0.4837;
941.4000;0.1229;-0.4887;
941.7000;0.1229;-0.4862;
942.0000;0.1188;-0.4787;
942.3000;0.1205;-0.4737;
942.6000;0.1213;-0.4688;
942.9000;0.1229;-0.4688;
943.2000;0.1172;-0.4787;
943.5000;0.1237;-0.4638;
943.8000;0.1221;-0.4638;
944.1000;0.1197;-0.4812;
944.4000;0.1213;-0.4862;
944.7000;0.1229;-0.4862;
945.0000;0.1237;-0.4862;
945.3000;0.1221;-0.4912;
945.6000;0.1205;-0.4937;
945.9000;0.1237;-0.4962;
946.2000;0.1221;-0.4987;
946.5000;0.1229;-0.5012;
946.8000;0.1237;-0.5037;
947.1000;0.1245;-0.4937;
947.4000;0.1229;-0.4837;
947.7000;0.1221;-0.4787;
948.0000;0.1197;-0.4887;
948.3000;0.1221;-0.4812;
948.6000;0.1221;-0.4937;
948.9000;0.1262;-0.4862;
949.2000;0.1245;-0.4887;
949.5000;0.1237;-0.4987;
949.8000;0.1229;-0.5111;
950.1000;0.1245;-0.5086;
950.4000;0.1237;-0.5012;
950.7000;0.1221;-0.4987;
951.0000;0.1229;-0.4962;
951.3000;0.1237;-0.4937;
951.6000;0.1205;-0.5062;
951.9000;0.1221;-0.4987;
952.2000;0.1164;-0.5161;
952.5000;0.1245;-0.4837;
952.8000;0.1221;-0.4987;
953.1000;0.1221;-0.5062;
953.4000;0.1245;-0.4937;
953.7000;0.1245;-0.4887;
954.0000;0.1237;-0.5037;
954.3000;0.1213;-0.5111;
954.6000;0.1237;-0.4937;
954.9000;0.1254;-0.4837;
955.2000;0.1237;-0.4887;
955.5000;0.1229;-0.4862;
955.8000;0.1229;-0.4887;
956.1000;0.1197;-0.4937;
956.4000;0.1229;-0.4862;
956.7000;0.1213;-0.5086;
957.0000;0.1205;-0.5136;
957.3000;0.1213;-0.5086;
957.6000;0.1229;-0.5012;
957.9000;0.1237;-0.4987;
958.2000;0.1221;-0.5136;
958.5000;0.1262;-0.5037;
958.8000;0.1245;-0.5161;
959.1000;0.1245;-0.5161;
959.4000;0.1237;-0.5062;
959.7000;0.1188;-0.5261;
960.0000;0.1197;-0.5211;
960.3000;0.1254;-0.4962;
960.6000;0.1254;-0.4962;
960.9000;0.1180;-0.5086;
961.2000;0.1221;-0.4987;
961.5000;0.1229;-0.4987;
961.8000;0.1221;-0.4987;
962.1000;0.1197;-0.5211;
962.4000;0.1180;-0.5211;
962.7000;0.1172;-0.5236;
963.0000;0.1286;-0.4987;
963.3000;0.1197;-0.5236;
963.6000;0.1254;-0.5186;
963.9000;0.1254;-0.5236;
964.2000;0.1245;-0.5286;
964.5000;0.1237;-0.5286;
964.8000;0.1229;-0.5236;
965.1000;0.1229;-0.5261;
965.4000;0.1229;-0.5261;
965.7000;0.1237;-0.5286;
966.0000;0.1221;-0.5236;
966.3000;0.1229;-0.5161;
966.6000;0.1237;-0.5136;
966.9000;0.1229;-0.5111;
967.2000;0.1205;-0.5062;
967.5000;0.1213;-0.5062;
967.8000;0.1229;-0.5086;
968.1000;0.1229;-0.5037;
968.4000;0.1237;-0.5136;
968.7000;0.1221;-0.5186;
969.0000;0.1245;-0.5161;
969.3000;0.1245;-0.5086;
969.6000;0.1237;-0.5012;
969.9000;0.1229;-0.5062;
970.2000;0.1188;-0.5111;
970.5000;0.1221;-0.4962;
970.8000;0.1205;-0.5012;
971.1000;0.1221;-0.5111;
971.4000;0.1205;-0.5111;
971.7000;0.1213;-0.5012;
972.0000;0.1197;-0.5012;
972.3000;0.1213;-0.4987;
972.6000;0.1197;-0.5062;
972.9000;0.1237;-0.4987;
973.2000;0.1213;-0.5111;
973.5000;0.1213;-0.5161;
973.8000;0.1213;-0.5111;
974.1000;0.1237;-0.5086;
974.4000;0.1180;-0.5186;
974.7000;0.1237;-0.5111;
975.0000;0.1148;-0.5261;
975.3000;0.1311;-0.4862;
975.6000;0.1229;-0.5161;
975.9000;0.1205;-0.5161;
976.2000;0.1262;-0.4987;
976.5000;0.1205;-0.5136;
976.8000;0.1311;-0.4887;
977.1000;0.1229;-0.5186;
977.4000;0.1205;-0.5311;
977.7000;0.1237;-0.5161;
978.0000;0.1319;-0.4987;
978.3000;0.1335;-0.5037;
978.6000;0.1221;-0.5361;
978.9000;0.1294;-0.5236;
979.2000;0.1229;-0.5386;
979.5000;0.1229;-0.5361;
979.8000;0.1229;-0.5386;
980.1000;0.1237;-0.5336;
980.4000;0.1221;-0.5386;
980.7000;0.1245;-0.5386;
981.0000;0.1237;-0.5436;
981.3000;0.1237;-0.5286;
981.6000;0.1237;-0.5236;
981.9000;0.1311;-0.5086;
982.2000;0.1245;-0.5161;
982.5000;0.1262;-0.5186;
982.8000;0.1213;-0.5236;
983.1000;0.1213;-0.5286;
983.4000;0.1237;-0.5161;
983.7000;0.1221;-0.5311;
984.0000;0.1278;-0.5211;
984.3000;0.1237;-0.5261;
984.6000;0.1229;-0.5186;
984.9000;0.1221;-0.5311;
985.2000;0.1229;-0.5336;
985.5000;0.1254;-0.5286;
985.8000;0.1237;-0.5336;
986.1000;0.1188;-0.5510;
986.4000;0.1245;-0.5311;
986.7000;0.1213;-0.5361;
987.0000;0.1221;-0.5336;
987.3000;0.1221;-0.5286;
987.6000;0.1221;-0.5361;
987.9000;0.1237;-0.5286;
988.2000;0.1245;-0.5161;
988.5000;0.1229;-0.5261;
988.8000;0.1237;-0.5311;
989.1000;0.1294;-0.5086;
989.4000;0.1229;-0.5261;
989.7000;0.1237;-0.5161;
990.0000;0.1205;-0.5136;
990.3000;0.1229;-0.5111;
990.6000;0.1213;-0.5136;
990.9000;0.1213;-0.5136;
991.2000;0.1221;-0.5012;
991.5000;0.1237;-0.4962;
991.8000;0.1221;-0.4987;
992.1000;0.1229;-0.4962;
992.4000;0.1278;-0.4862;
992.7000;0.1221;-0.5086;
993.0000;0.1221;-0.5037;
993.3000;0.1172;-0.5136;
993.6000;0.1229;-0.5086;
993.9000;0.1229;-0.5037;
994.2000;0.1205;-0.5161;
994.5000;0.1229;-0.5111;
994.8000;0.1229;-0.5062;
995.1000;0.1237;-0.5012;
995.4000;0.1205;-0.5086;
995.7000;0.1213;-0.5012;
996.0000;0.1245;-0.4862;
996.3000;0.1180;-0.4962;
996.6000;0.1221;-0.4862;
996.9000;0.1221;-0.4887;
997.2000;0.1221;-0.4987;
997.5000;0.1237;-0.5037;
997.8000;0.1221;-0.5062;
998.1000;0.1156;-0.5261;
998.4000;0.1237;-0.5136;
998.7000;0.1213;-0.5186;
999.0000;0.1237;-0.5062;
999.3000;0.1229;-0.5062;
999.6000;0.1229;-0.5111;
999.9000;0.1221;-0.5086;
1000.2000;0.1229;-0.4987;
1000.5000;0.1213;-0.4987;
1000.8000;0.1180;-0.5037;
1001.1000;0.1262;-0.4887;
1001.4000;0.1172;-0.5086;
1001.7000;0.1221;-0.4987;
1002.0000;0.1221;-0.4987;
1002.3000;0.1221;-0.4987;
1002.6000;0.1213;-0.5111;
1002.9000;0.1205;-0.5062;
1003.2000;0.1188;-0.5136;
1003.5000;0.1221;-0.5012;
1003.8000;0.1180;-0.5261;
1004.1000;0.1221;-0.5062;
1004.4000;0.1221;-0.5037;
1004.7000;0.1254;-0.4987;
1005.0000;0.1237;-0.4987;
1005.3000;0.1229;-0.4987;
1005.6000;0.1221;-0.5012;
1005.9000;0.1229;-0.5037;
1006.2000;0.1221;-0.4987;
1006.5000;0.1205;-0.4962;
1006.8000;0.1197;-0.5037;
1007.1000;0.1270;-0.5012;
1007.4000;0.1213;-0.5062;
1007.7000;0.1221;-0.4987;
1008.0000;0.1213;-0.5062;
1008.3000;0.1188;-0.5136;
1008.6000;0.1221;-0.5136;
1008.9000;0.1237;-0.5086;
1009.2000;0.1229;-0.5136;
1009.5000;0.1237;-0.5111;
1009.8000;0.1237;-0.5136;
1010.1000;0.1229;-0.5086;
1010.4000;0.1229;-0.5086;
1010.7000;0.1237;-0.5086;
1011.0000;0.1237;-0.5037;
1011.3000;0.1237;-0.5062;
1011.6000;0.1221;-0.5111;
1011.9000;0.1221;-0.5086;
1012.2000;0.1245;-0.5161;
1012.5000;0.1237;-0.5136;
1012.8000;0.1229;-0.5086;
1013.1000;0.1237;-0.5161;
1013.4000;0.1237;-0.5161;
1013.7000;0.1254;-0.5062;
1014.0000;0.1221;-0.5086;
1014.3000;0.1229;-0.5086;
1014.6000;0.1221;-0.5012;
1014.9000;0.1237;-0.5037;
1015.2000;0.1213;-0.5161;
1015.5000;0.1213;-0.5236;
1015.8000;0.1229;-0.5311;
1016.1000;0.1229;-0.5311;
1016.4000;0.1229;-0.5286;
1016.7000;0.1237;-0.5311;
1017.0000;0.1213;-0.5286;
1017.3000;0.1294;-0.5161;
1017.6000;0.1237;-0.5311;
1017.9000;0.1205;-0.5311;
1018.2000;0.1213;-0.5186;
1018.5000;0.1237;-0.5012;
1018.8000;0.1237;-0.5111;
1019.1000;0.1221;-0.5161;
1019.4000;0.1229;-0.5136;
1019.7000;0.1205;-0.5236;
1020.0000;0.1245;-0.5186;
1020.3000;0.1229;-0.5161;
1020.6000;0.1221;-0.5161;
1020.9000;0.1180;-0.5311;
1021.2000;0.1237;-0.5261;
1021.5000;0.1237;-0.5386;
1021.8000;0.1237;-0.5460;
1022.1000;0.1335;-0.5186;
1022.4000;0.1197;-0.5585;
1022.7000;0.1221;-0.5460;
1023.0000;0.1278;-0.5261;
1023.3000;0.1197;-0.5485;
1023.6000;0.1221;-0.5386;
1023.9000;0.1237;-0.5236;
1024.2000;0.1221;-0.5311;
1024.5000;0.1229;-0.5286;
1024.8000;0.1221;-0.5361;
1025.1000;0.1213;-0.5261;
1025.4000;0.1262;-0.5161;
1025.7000;0.1245;-0.5161;
1026.0000;0.1254;-0.5111;
1026.3000;0.1229;-0.5161;
1026.6000;0.1237;-0.5111;
1026.9000;0.1221;-0.5186;
1027.2000;0.1245;-0.5261;
1027.5000;0.1237;-0.5261;
1027.8000;0.1229;-0.5261;
1028.1000;0.1180;-0.5361;
1028.4000;0.1221;-0.5161;
1028.7000;0.1245;-0.5136;
1029.0000;0.1237;-0.5186;
1029.3000;0.1205;-0.5311;
1029.6000;0.1237;-0.5236;
1029.9000;0.1221;-0.5261;
1030.2000;0.1180;-0.5386;
1030.5000;0.1229;-0.5236;
1030.8000;0.1229;-0.5311;
1031.1000;0.1213;-0.5361;
1031.4000;0.1197;-0.5336;
1031.7000;0.1229;-0.5336;
1032.0000;0.1213;-0.5361;
1032.3000;0.1237;-0.5286;
1032.6000;0.1213;-0.5311;
1032.9000;0.1148;-0.5386;
1033.2000;0.1213;-0.5286;
1033.5000;0.1205;-0.5286;
1033.8000;0.1245;-0.5286;
1034.1000;0.1221;-0.5236;
1034.4000;0.1213;-0.5186;
1034.7000;0.1221;-0.5211;
1035.0000;0.1254;-0.5136;
1035.3000;0.1213;-0.5236;
1035.6000;0.1254;-0.5186;
1035.9000;0.1115;-0.5535;
1036.2000;0.1205;-0.5236;
1036.5000;0.1213;-0.5211;
1036.8000;0.1221;-0.5261;
1037.1000;0.1229;-0.5261;
1037.4000;0.1221;-0.5211;
1037.7000;0.1229;-0.5261;
1038.0000;0.1221;-0.5236;
1038.3000;0.1237;-0.5211;
1038.6000;0.1237;-0.5186;
1038.9000;0.1237;-0.5161;
1039.2000;0.1229;-0.5186;
1039.5000;0.1213;-0.5211;
1039.8000;0.1213;-0.5161;
1040.1000;0.1229;-0.5161;
1040.4000;0.1229;-0.5186;
1040.7000;0.1229;-0.5236;
1041.0000;0.1245;-0.5186;
1041.3000;0.1229;-0.5311;
1041.6000;0.1245;-0.5411;
1041.9000;0.1229;-0.5460;
1042.2000;0.1205;-0.5485;
1042.5000;0.1229;-0.5560;
1042.8000;0.1229;-0.5560;
1043.1000;0.1213;-0.5485;
1043.4000;0.1213;-0.5460;
1043.7000;0.1213;-0.5386;
1044.0000;0.1237;-0.5361;
1044.3000;0.1213;-0.5336;
1044.6000;0.1213;-0.5361;
1044.9000;0.1221;-0.5311;
1045.2000;0.1229;-0.5286;
1045.5000;0.1205;-0.5261;
1045.8000;0.1254;-0.5211;
1046.1000;0.1237;-0.5261;
1046.4000;0.1221;-0.5336;
1046.7000;0.1237;-0.5261;
1047.0000;0.1229;-0.5236;
1047.3000;0.1237;-0.5261;
1047.6000;0.1197;-0.5411;
1047.9000;0.1229;-0.5236;
1048.2000;0.1156;-0.5336;
1048.5000;0.1221;-0.5086;
1048.8000;0.1221;-0.5136;
1049.1000;0.1335;-0.4912;
1049.4000;0.1229;-0.5086;
1049.7000;0.1237;-0.5136;
1050.0000;0.1229;-0.5286;
1050.3000;0.1213;-0.5236;
1050.6000;0.1237;-0.5111;
1050.9000;0.1156;-0.5361;
1051.2000;0.1221;-0.5086;
1051.5000;0.1213;-0.5136;
1051.8000;0.1254;-0.5037;
1052.1000;0.1237;-0.5136;
1052.4000;0.1229;-0.5211;
1052.7000;0.1229;-0.5236;
1053.0000;0.1237;-0.5186;
1053.3000;0.1229;-0.5086;
1053.6000;0.1180;-0.5161;
1053.9000;0.1164;-0.5261;
1054.2000;0.1245;-0.5111;
1054.5000;0.1197;-0.5236;
1054.8000;0.1229;-0.5236;
1055.1000;0.1131;-0.5510;
1055.4000;0.1278;-0.5086;
1055.7000;0.1245;-0.5261;
1056.0000;0.1245;-0.5311;
1056.3000;0.1221;-0.5211;
1056.6000;0.1319;-0.5086;
1056.9000;0.1262;-0.5136;
1057.2000;0.1245;-0.5136;
1057.5000;0.1213;-0.5211;
1057.8000;0.1229;-0.5136;
1058.1000;0.1237;-0.5211;
1058.4000;0.1213;-0.5211;
1058.7000;0.1221;-0.5236;
1059.0000;0.1213;-0.5186;
1059.3000;0.1245;-0.5062;
1059.6000;0.1237;-0.5136;
1059.9000;0.1237;-0.5136;
1060.2000;0.1237;-0.5186;
1060.5000;0.1229;-0.5186;
1060.8000;0.1213;-0.5286;
1061.1000;0.1213;-0.5211;
1061.4000;0.1213;-0.5286;
1061.7000;0.1221;-0.5261;
1062.0000;0.1245;-0.5161;
1062.3000;0.1221;-0.5161;
1062.6000;0.1213;-0.5136;
1062.9000;0.1213;-0.5161;
1063.2000;0.1254;-0.5062;
1063.5000;0.1229;-0.5161;
1063.8000;0.1229;-0.5261;
1064.1000;0.1229;-0.5236;
1064.4000;0.1302;-0.5161;
1064.7000;0.1245;-0.5336;
1065.0000;0.1237;-0.5336;
1065.3000;0.1237;-0.5411;
1065.6000;0.1245;-0.5261;
1065.9000;0.1229;-0.5311;
1066.2000;0.1245;-0.5261;
1066.5000;0.1229;-0.5236;
1066.8000;0.1237;-0.5161;
1067.1000;0.1229;-0.5062;
1067.4000;0.1205;-0.5086;
1067.7000;0.1254;-0.4937;
1068.0000;0.1229;-0.4937;
1068.3000;0.1278;-0.4762;
1068.6000;0.1237;-0.4912;
1068.9000;0.1213;-0.4987;
1069.2000;0.1237;-0.4987;
1069.5000;0.1229;-0.5086;
1069.8000;0.1245;-0.5012;
1070.1000;0.1221;-0.5037;
1070.4000;0.1213;-0.5012;
1070.7000;0.1180;-0.5111;
1071.0000;0.1229;-0.5012;
1071.3000;0.1229;-0.4987;
1071.6000;0.1343;-0.4762;
1071.9000;0.1237;-0.4962;
1072.2000;0.1270;-0.4962;
1072.5000;0.1237;-0.5086;
1072.8000;0.1245;-0.5086;
1073.1000;0.1245;-0.5111;
1073.4000;0.1245;-0.5161;
1073.7000;0.1237;-0.5161;
1074.0000;0.1262;-0.5136;
1074.3000;0.1213;-0.5211;
1074.6000;0.1221;-0.5311;
1074.9000;0.1237;-0.5186;
1075.2000;0.1164;-0.5411;
1075.5000;0.1188;-0.5411;
1075.8000;0.1311;-0.5111;
1076.1000;0.1286;-0.5111;
1076.4000;0.1237;-0.5186;
1076.7000;0.1213;-0.5086;
1077.0000;0.1229;-0.4987;
1077.3000;0.1270;-0.4837;
1077.6000;0.1205;-0.5086;
1077.9000;0.1254;-0.4937;
1078.2000;0.1262;-0.4937;
1078.5000;0.1188;-0.5136;
1078.8000;0.1229;-0.5111;
1079.1000;0.1107;-0.5436;
1079.4000;0.1180;-0.5361;
1079.7000;0.1229;-0.5361;
1080.0000;0.1237;-0.5386;
1080.3000;0.1237;-0.5436;
1080.6000;0.1213;-0.5510;
1080.9000;0.1262;-0.5336;
1081.2000;0.1229;-0.5286;
1081.5000;0.1229;-0.5236;
1081.8000;0.1205;-0.5261;
1082.1000;0.1221;-0.5311;
1082.4000;0.1237;-0.5361;
1082.7000;0.1205;-0.5436;
1083.0000;0.1205;-0.5361;
1083.3000;0.1205;-0.5211;
1083.6000;0.1213;-0.5186;
1083.9000;0.1270;-0.4987;
1084.2000;0.1229;-0.5136;
1084.5000;0.1245;-0.5136;
1084.8000;0.1188;-0.5261;
1085.1000;0.1229;-0.5136;
1085.4000;0.1221;-0.5161;
1085.7000;0.1270;-0.5111;
1086.0000;0.1221;-0.5111;
1086.3000;0.1237;-0.5012;
1086.6000;0.1254;-0.5012;
1086.9000;0.1221;-0.5062;
1087.2000;0.1254;-0.5037;
1087.5000;0.1229;-0.5062;
1087.8000;0.1197;-0.5136;
1088.1000;0.1180;-0.5286;
1088.4000;0.1197;-0.5286;
1088.7000;0.1278;-0.5062;
1089.0000;0.1213;-0.5236;
1089.3000;0.1254;-0.5186;
1089.6000;0.1229;-0.5236;
1089.9000;0.1237;-0.5111;
1090.2000;0.1237;-0.5037;
1090.5000;0.1213;-0.5136;
1090.8000;0.1213;-0.5136;
1091.1000;0.1188;-0.5136;
1091.4000;0.1180;-0.5136;
1091.7000;0.1213;-0.5086;
1092.0000;0.1229;-0.5037;
1092.3000;0.1335;-0.4812;
1092.6000;0.1229;-0.5062;
1092.9000;0.1254;-0.5111;
1093.2000;0.1229;-0.5161;
1093.5000;0.1221;-0.5136;
1093.8000;0.1237;-0.5136;
1094.1000;0.1237;-0.5236;
1094.4000;0.1327;-0.5086;
1094.7000;0.1213;-0.5336;
1095.0000;0.1311;-0.5037;
1095.3000;0.1221;-0.5336;
1095.6000;0.1278;-0.5236;
1095.9000;0.1254;-0.5286;
1096.2000;0.1229;-0.5411;
1096.5000;0.1213;-0.5336;
1096.8000;0.1197;-0.5411;
1097.1000;0.1245;-0.5336;
1097.4000;0.1213;-0.5436;
1097.7000;0.1229;-0.5411;
1098.0000;0.1229;-0.5311;
1098.3000;0.1188;-0.5311;
1098.6000;0.1245;-0.5236;
1098.9000;0.1197;-0.5286;
1099.2000;0.1270;-0.5062;
1099.5000;0.1229;-0.5211;
1099.8000;0.1254;-0.5111;
1100.1000;0.1262;-0.5012;
1100.4000;0.1237;-0.5211;
1100.7000;0.1237;-0.5161;
1101.0000;0.1229;-0.5186;
1101.3000;0.1245;-0.5161;
1101.6000;0.1254;-0.5186;
1101.9000;0.1205;-0.5336;
1102.2000;0.1237;-0.5211;
1102.5000;0.1237;-0.5111;
1102.8000;0.1229;-0.5086;
1103.1000;0.1221;-0.5136;
1103.4000;0.1229;-0.5111;
1103.7000;0.1229;-0.5086;
1104.0000;0.1229;-0.5086;
1104.3000;0.1188;-0.5161;
1104.6000;0.1213;-0.5236;
1104.9000;0.1221;-0.5136;
1105.2000;0.1229;-0.5012;
1105.5000;0.1213;-0.5012;
1105.8000;0.1229;-0.5012;
1106.1000;0.1229;-0.5062;
1106.4000;0.1237;-0.5037;
1106.7000;0.1237;-0.5111;
1107.0000;0.1245;-0.5062;
1107.3000;0.1254;-0.5012;
1107.6000;0.1229;-0.5086;
1107.9000;0.1262;-0.5086;
1108.2000;0.1270;-0.4987;
1108.5000;0.1237;-0.5161;
1108.8000;0.1237;-0.5236;
1109.1000;0.1245;-0.5236;
1109.4000;0.1245;-0.5311;
1109.7000;0.1237;-0.5336;
1110.0000;0.1254;-0.5311;
1110.3000;0.1229;-0.5460;
1110.6000;0.1237;-0.5460;
1110.9000;0.1254;-0.5411;
1111.2000;0.1311;-0.5236;
1111.5000;0.1237;-0.5336;
1111.8000;0.1229;-0.5211;
1112.1000;0.1213;-0.5186;
1112.4000;0.1221;-0.5136;
1112.7000;0.1229;-0.5236;
1113.0000;0.1229;-0.5236;
1113.3000;0.1270;-0.5136;
1113.6000;0.1229;-0.5211;
1113.9000;0.1221;-0.5161;
1114.2000;0.1213;-0.5211;
1114.5000;0.1221;-0.5286;
1114.8000;0.1237;-0.5211;
1115.1000;0.1205;-0.5311;
1115.4000;0.1237;-0.5186;
1115.7000;0.1237;-0.5261;
1116.0000;0.1229;-0.5311;
1116.3000;0.1254;-0.5336;
1116.6000;0.1254;-0.5411;
1116.9000;0.1229;-0.5411;
1117.2000;0.1229;-0.5411;
1117.5000;0.1237;-0.5386;
1117.8000;0.1221;-0.5361;
1118.1000;0.1156;-0.5460;
1118.4000;0.1237;-0.5261;
1118.7000;0.1245;-0.5261;
1119.0000;0.1245;-0.5211;
1119.3000;0.1237;-0.5211;
1119.6000;0.1237;-0.5186;
1119.9000;0.1237;-0.5111;
1120.2000;0.1237;-0.5062;
1120.5000;0.1245;-0.5037;
1120.8000;0.1213;-0.5086;
1121.1000;0.1221;-0.5111;
1121.4000;0.1237;-0.5161;
1121.7000;0.1229;-0.5211;
1122.0000;0.1237;-0.5286;
1122.3000;0.1221;-0.5236;
1122.6000;0.1221;-0.5361;
1122.9000;0.1221;-0.5336;
1123.2000;0.1229;-0.5236;
1123.5000;0.1237;-0.5311;
1123.8000;0.1229;-0.5311;
1124.1000;0.1237;-0.5336;
1124.4000;0.1229;-0.5336;
1124.7000;0.1213;-0.5386;
1125.0000;0.1221;-0.5336;
1125.3000;0.1237;-0.5411;
1125.6000;0.1245;-0.5311;
1125.9000;0.1213;-0.5336;
1126.2000;0.1229;-0.5286;
1126.5000;0.1245;-0.5261;
1126.8000;0.1237;-0.5386;
1127.1000;0.1229;-0.5436;
1127.4000;0.1229;-0.5510;
1127.7000;0.1221;-0.5436;
1128.0000;0.1221;-0.5436;
1128.3000;0.1245;-0.5386;
1128.6000;0.1237;-0.5460;
1128.9000;0.1229;-0.5411;
1129.2000;0.1229;-0.5436;
1129.5000;0.1237;-0.5436;
1129.8000;0.1237;-0.5361;
1130.1000;0.1229;-0.5336;
1130.4000;0.1229;-0.5311;
1130.7000;0.1245;-0.5361;
1131.0000;0.1229;-0.5261;
1131.3000;0.1302;-0.5186;
1131.6000;0.1229;-0.5460;
1131.9000;0.1245;-0.5411;
1132.2000;0.1188;-0.5510;
1132.5000;0.1245;-0.5361;
1132.8000;0.1254;-0.5286;
1133.1000;0.1229;-0.5211;
1133.4000;0.1237;-0.5236;
1133.7000;0.1205;-0.5286;
1134.0000;0.1229;-0.5211;
1134.3000;0.1229;-0.5186;
1134.6000;0.1237;-0.5361;
1134.9000;0.1229;-0.5311;
1135.2000;0.1270;-0.5161;
1135.5000;0.1237;-0.5111;
1135.8000;0.1245;-0.5136;
1136.1000;0.1213;-0.5186;
1136.4000;0.1237;-0.5086;
1136.7000;0.1221;-0.5161;
1137.0000;0.1237;-0.5086;
1137.3000;0.1221;-0.5086;
1137.6000;0.1197;-0.5161;
1137.9000;0.1229;-0.5136;
1138.2000;0.1213;-0.5236;
1138.5000;0.1221;-0.5311;
1138.8000;0.1221;-0.5311;
1139.1000;0.1221;-0.5336;
1139.4000;0.1229;-0.5436;
1139.7000;0.1237;-0.5460;
1140.0000;0.1221;-0.5386;
1140.3000;0.1205;-0.5485;
1140.6000;0.1245;-0.5386;
1140.9000;0.1245;-0.5311;
1141.2000;0.1270;-0.5186;
1141.5000;0.1286;-0.5211;
1141.8000;0.1254;-0.5161;
1142.1000;0.1237;-0.5336;
1142.4000;0.1237;-0.5336;
1142.7000;0.1237;-0.5336;
1143.0000;0.1237;-0.5386;
1143.3000;0.1229;-0.5361;
1143.6000;0.1229;-0.5311;
1143.9000;0.1172;-0.5411;
1144.2000;0.1229;-0.5336;
1144.5000;0.1245;-0.5336;
1144.8000;0.1237;-0.5411;
1145.1000;0.1245;-0.5411;
1145.4000;0.1245;-0.5436;
1145.7000;0.1237;-0.5485;
1146.0000;0.1229;-0.5436;
1146.3000;0.1278;-0.5261;
1146.6000;0.1213;-0.5460;
1146.9000;0.1221;-0.5436;
1147.2000;0.1197;-0.5510;
1147.5000;0.1229;-0.5386;
1147.8000;0.1213;-0.5411;
1148.1000;0.1213;-0.5361;
1148.4000;0.1221;-0.5386;
1148.7000;0.1221;-0.5311;
1149.0000;0.1221;-0.5261;
1149.3000;0.1335;-0.4937;
1149.6000;0.1213;-0.5286;
1149.9000;0.1221;-0.5311;
1150.2000;0.1278;-0.5136;
1150.5000;0.1205;-0.5261;
1150.8000;0.1237;-0.5211;
1151.1000;0.1245;-0.5186;
1151.4000;0.1270;-0.5186;
1151.7000;0.1172;-0.5386;
1152.0000;0.1262;-0.5211;
1152.3000;0.1245;-0.5261;
1152.6000;0.1197;-0.5261;
1152.9000;0.1213;-0.5236;
1153.2000;0.1205;-0.5186;
1153.5000;0.1237;-0.5286;
1153.8000;0.1237;-0.5286;
1154.1000;0.1237;-0.5286;
1154.4000;0.1229;-0.5361;
1154.7000;0.1237;-0.5361;
1155.0000;0.1221;-0.5361;
1155.3000;0.1205;-0.5386;
1155.6000;0.1237;-0.5336;
1155.9000;0.1245;-0.5361;
1156.2000;0.1237;-0.5436;
1156.5000;0.1221;-0.5436;
1156.8000;0.1245;-0.5411;
1157.1000;0.1229;-0.5336;
1157.4000;0.1270;-0.5261;
1157.7000;0.1213;-0.5311;
1158.0000;0.1205;-0.5361;
1158.3000;0.1221;-0.5211;
1158.6000;0.1229;-0.5161;
1158.9000;0.1229;-0.5211;
1159.2000;0.1197;-0.5361;
1159.5000;0.1221;-0.5361;
1159.8000;0.1237;-0.5236;
1160.1000;0.1229;-0.5236;
1160.4000;0.1221;-0.5336;
1160.7000;0.1237;-0.5411;
1161.0000;0.1237;-0.5311;
1161.3000;0.1237;-0.5261;
1161.6000;0.1213;-0.5336;
1161.9000;0.1229;-0.5311;
1162.2000;0.1229;-0.5311;
1162.5000;0.1237;-0.5311;
1162.8000;0.1221;-0.5311;
1163.1000;0.1213;-0.5361;
1163.4000;0.1245;-0.5211;
1163.7000;0.1221;-0.5236;
1164.0000;0.1213;-0.5286;
1164.3000;0.1237;-0.5236;
1164.6000;0.1245;-0.5211;
1164.9000;0.1197;-0.5311;
1165.2000;0.1221;-0.5336;
1165.5000;0.1221;-0.5336;
1165.8000;0.1213;-0.5236;
1166.1000;0.1245;-0.5111;
1166.4000;0.1229;-0.5161;
1166.7000;0.1221;-0.5211;
1167.0000;0.1286;-0.5186;
1167.3000;0.1229;-0.5261;
1167.6000;0.1229;-0.5186;
1167.9000;0.1229;-0.5111;
1168.2000;0.1237;-0.5086;
1168.5000;0.1237;-0.5161;
1168.8000;0.1205;-0.5361;
1169.1000;0.1213;-0.5336;
1169.4000;0.1302;-0.5062;
1169.7000;0.1237;-0.5236;
1170.0000;0.1229;-0.5236;
1170.3000;0.1237;-0.5111;
1170.6000;0.1197;-0.5062;
1170.9000;0.1302;-0.4737;
1171.2000;0.1197;-0.5037;
1171.5000;0.1221;-0.5086;
1171.8000;0.1262;-0.5037;
1172.1000;0.1221;-0.5086;
1172.4000;0.1262;-0.5012;
1172.7000;0.1221;-0.5211;
1173.0000;0.1237;-0.5286;
1173.3000;0.1229;-0.5261;
1173.6000;0.1229;-0.5186;
1173.9000;0.1237;-0.5336;
1174.2000;0.1221;-0.5336;
1174.5000;0.1262;-0.5236;
1174.8000;0.1237;-0.5236;
1175.1000;0.1254;-0.5186;
1175.4000;0.1229;-0.5211;
1175.7000;0.1262;-0.5136;
1176.0000;0.1229;-0.5136;
1176.3000;0.1245;-0.5012;
1176.6000;0.1229;-0.5037;
1176.9000;0.1213;-0.5037;
1177.2000;0.1221;-0.5037;
1177.5000;0.1221;-0.4987;
1177.8000;0.1237;-0.4987;
1178.1000;0.1237;-0.5012;
1178.4000;0.1229;-0.5062;
1178.7000;0.1221;-0.5136;
1179.0000;0.1221;-0.5111;
1179.3000;0.1188;-0.5161;
1179.6000;0.1221;-0.5062;
1179.9000;0.1188;-0.5161;
1180.2000;0.1213;-0.5186;
1180.5000;0.1221;-0.5161;
1180.8000;0.1229;-0.5062;
1181.1000;0.1335;-0.4862;
1181.4000;0.1237;-0.5161;
1181.7000;0.1229;-0.5186;
1182.0000;0.1229;-0.5161;
1182.3000;0.1213;-0.5236;
1182.6000;0.1237;-0.5186;
1182.9000;0.1205;-0.5311;
1183.2000;0.1229;-0.5286;
1183.5000;0.1213;-0.5336;
1183.8000;0.1237;-0.5336;
1184.1000;0.1270;-0.5211;
1184.4000;0.1213;-0.5411;
1184.7000;0.1221;-0.5386;
1185.0000;0.1254;-0.5311;
1185.3000;0.1237;-0.5261;
1185.6000;0.1229;-0.5211;
1185.9000;0.1229;-0.5286;
1186.2000;0.1188;-0.5261;
1186.5000;0.1270;-0.5211;
1186.8000;0.1237;-0.5261;
1187.1000;0.1107;-0.5610;
1187.4000;0.1213;-0.5336;
1187.7000;0.1237;-0.5261;
1188.0000;0.1188;-0.5361;
1188.3000;0.1205;-0.5261;
1188.6000;0.1205;-0.5286;
1188.9000;0.1237;-0.5211;
1189.2000;0.1278;-0.5161;
1189.5000;0.1221;-0.5311;
1189.8000;0.1254;-0.5236;
1190.1000;0.1197;-0.5386;
1190.4000;0.1237;-0.5161;
1190.7000;0.1221;-0.5161;
1191.0000;0.1278;-0.5062;
1191.3000;0.1213;-0.5111;
1191.6000;0.1221;-0.5161;
1191.9000;0.1213;-0.5286;
1192.2000;0.1229;-0.5211;
1192.5000;0.1229;-0.5211;
1192.8000;0.1237;-0.5261;
1193.1000;0.1221;-0.5311;
1193.4000;0.1213;-0.5261;
1193.7000;0.1197;-0.5311;
1194.0000;0.1311;-0.5037;
1194.3000;0.1197;-0.5411;
1194.6000;0.1221;-0.5311;
1194.9000;0.1229;-0.5261;
1195.2000;0.1197;-0.5386;
1195.5000;0.1221;-0.5311;
1195.8000;0.1237;-0.5336;
1196.1000;0.1221;-0.5411;
1196.4000;0.1237;-0.5311;
1196.7000;0.1213;-0.5211;
1197.0000;0.1229;-0.5111;
1197.3000;0.1156;-0.5311;
1197.6000;0.1213;-0.5111;
1197.9000;0.1237;-0.5086;
1198.2000;0.1213;-0.5111;
1198.5000;0.1213;-0.5161;
1198.8000;0.1245;-0.5111;
1199.1000;0.1229;-0.5236;
1199.4000;0.1262;-0.5136;
1199.7000;0.1229;-0.5211;
1200.0000;0.1229;-0.5111;
1200.3000;0.1237;-0.5086;
1200.6000;0.1254;-0.5161;
1200.9000;0.1237;-0.5136;
1201.2000;0.1229;-0.5086;
1201.5000;0.1221;-0.5136;
1201.8000;0.1237;-0.5012;
1202.1000;0.1221;-0.5111;
1202.4000;0.1254;-0.5037;
1202.7000;0.1229;-0.5086;
1203.0000;0.1237;-0.5037;
1203.3000;0.1254;-0.5037;
1203.6000;0.1229;-0.5136;
1203.9000;0.1229;-0.5161;
1204.2000;0.1221;-0.5211;
1204.5000;0.1221;-0.5161;
1204.8000;0.1205;-0.5161;
1205.1000;0.1197;-0.5286;
1205.4000;0.1213;-0.5261;
1205.7000;0.1237;-0.5186;
1206.0000;0.1229;-0.5136;
1206.3000;0.1254;-0.5037;
1206.6000;0.1221;-0.5136;
1206.9000;0.1237;-0.5012;
1207.2000;0.1221;-0.5012;
1207.5000;0.1197;-0.5037;
1207.8000;0.1205;-0.5037;
1208.1000;0.1245;-0.4912;
1208.4000;0.1188;-0.5037;
1208.7000;0.1213;-0.5037;
1209.0000;0.1237;-0.4987;
1209.3000;0.1237;-0.5037;
1209.6000;0.1237;-0.5012;
1209.9000;0.1213;-0.4962;
1210.2000;0.1180;-0.5062;
1210.5000;0.1164;-0.5136;
1210.8000;0.1262;-0.4912;
1211.1000;0.1213;-0.5012;
1211.4000;0.1351;-0.4588;
1211.7000;0.1254;-0.4962;
1212.0000;0.1237;-0.5062;
1212.3000;0.1229;-0.5161;
1212.6000;0.1237;-0.5161;
1212.9000;0.1245;-0.5161;
1213.2000;0.1245;-0.5136;
1213.5000;0.1245;-0.5086;
1213.8000;0.1237;-0.5211;
1214.1000;0.1221;-0.5211;
1214.4000;0.1237;-0.5261;
1214.7000;0.1278;-0.5161;
1215.0000;0.1221;-0.5336;
1215.3000;0.1229;-0.5336;
1215.6000;0.1237;-0.5286;
1215.9000;0.1254;-0.5261;
1216.2000;0.1237;-0.5311;
1216.5000;0.1205;-0.5361;
1216.8000;0.1237;-0.5311;
1217.1000;0.1262;-0.5261;
1217.4000;0.1262;-0.5336;
1217.7000;0.1221;-0.5436;
1218.0000;0.1237;-0.5510;
1218.3000;0.1229;-0.5485;
1218.6000;0.1278;-0.5286;
1218.9000;0.1229;-0.5386;
1219.2000;0.1229;-0.5411;
1219.5000;0.1237;-0.5411;
1219.8000;0.1254;-0.5386;
1220.1000;0.1213;-0.5460;
1220.4000;0.1245;-0.5460;
1220.7000;0.1245;-0.5485;
1221.0000;0.1237;-0.5485;
1221.3000;0.1229;-0.5411;
1221.6000;0.1237;-0.5436;
1221.9000;0.1229;-0.5510;
1222.2000;0.1237;-0.5460;
1222.5000;0.1237;-0.5436;
1222.8000;0.1229;-0.5460;
1223.1000;0.1237;-0.5436;
1223.4000;0.1229;-0.5510;
1223.7000;0.1221;-0.5436;
1224.0000;0.1237;-0.5311;
1224.3000;0.1205;-0.5386;
1224.6000;0.1213;-0.5261;
1224.9000;0.1245;-0.5211;
1225.2000;0.1245;-0.5186;
1225.5000;0.1221;-0.5336;
1225.8000;0.1229;-0.5336;
1226.1000;0.1205;-0.5386;
1226.4000;0.1156;-0.5485;
1226.7000;0.1229;-0.5261;
1227.0000;0.1229;-0.5311;
1227.3000;0.1221;-0.5336;
1227.6000;0.1221;-0.5311;
1227.9000;0.1197;-0.5411;
1228.2000;0.1229;-0.5336;
1228.5000;0.1229;-0.5386;
1228.8000;0.1245;-0.5336;
1229.1000;0.1213;-0.5436;
1229.4000;0.1229;-0.5386;
1229.7000;0.1229;-0.5386;
1230.0000;0.1205;-0.5436;
1230.3000;0.1229;-0.5411;
1230.6000;0.1237;-0.5336;
1230.9000;0.1197;-0.5436;
1231.2000;0.1229;-0.5386;
1231.5000;0.1245;-0.5336;
1231.8000;0.1327;-0.5161;
1232.1000;0.1278;-0.5261;
1232.4000;0.1245;-0.5411;
1232.7000;0.1229;-0.5535;
1233.0000;0.1237;-0.5560;
1233.3000;0.1237;-0.5485;
1233.6000;0.1237;-0.5510;
1233.9000;0.1237;-0.5585;
1234.2000;0.1229;-0.5585;
1234.5000;0.1254;-0.5485;
1234.8000;0.1237;-0.5535;
1235.1000;0.1221;-0.5585;
1235.4000;0.1229;-0.5485;
1235.7000;0.1229;-0.5436;
1236.0000;0.1229;-0.5386;
1236.3000;0.1221;-0.5411;
1236.6000;0.1229;-0.5336;
1236.9000;0.1205;-0.5386;
1237.2000;0.1294;-0.5111;
1237.5000;0.1229;-0.5311;
1237.8000;0.1229;-0.5311;
1238.1000;0.1229;-0.5286;
1238.4000;0.1237;-0.5161;
1238.7000;0.1245;-0.5161;
1239.0000;0.1237;-0.5062;
1239.3000;0.1213;-0.5186;
1239.6000;0.1229;-0.5062;
1239.9000;0.1245;-0.5037;
1240.2000;0.1221;-0.5136;
1240.5000;0.1221;-0.5136;
1240.8000;0.1237;-0.5161;
1241.1000;0.1221;-0.5161;
1241.4000;0.1237;-0.5136;
1241.7000;0.1221;-0.5161;
1242.0000;0.1221;-0.5261;
1242.3000;0.1205;-0.5386;
1242.6000;0.1245;-0.5236;
1242.9000;0.1229;-0.5161;
1243.2000;0.1213;-0.5161;
1243.5000;0.1229;-0.5086;
1243.8000;0.1213;-0.5086;
1244.1000;0.1221;-0.5161;
1244.4000;0.1221;-0.5161;
1244.7000;0.1205;-0.5161;
1245.0000;0.1213;-0.5161;
1245.3000;0.1245;-0.5062;
1245.6000;0.1221;-0.5062;
1245.9000;0.1237;-0.5012;
1246.2000;0.1229;-0.5062;
1246.5000;0.1270;-0.4962;
1246.8000;0.1237;-0.5062;
1247.1000;0.1229;-0.4987;
1247.4000;0.1319;-0.4787;
1247.7000;0.1221;-0.5086;
1248.0000;0.1221;-0.5111;
1248.3000;0.1221;-0.5161;
1248.6000;0.1221;-0.5111;
1248.9000;0.1229;-0.5086;
1249.2000;0.1172;-0.5186;
1249.5000;0.1213;-0.5111;
1249.8000;0.1221;-0.4987;
1250.1000;0.1237;-0.5012;
1250.4000;0.1213;-0.5062;
1250.7000;0.1197;-0.5062;
1251.0000;0.1221;-0.5037;
1251.3000;0.1221;-0.5111;
1251.6000;0.1221;-0.5136;
1251.9000;0.1229;-0.5086;
1252.2000;0.1213;-0.5136;
1252.5000;0.1245;-0.5136;
1252.8000;0.1254;-0.5037;
1253.1000;0.1188;-0.5211;
1253.4000;0.1221;-0.5136;
1253.7000;0.1213;-0.5062;
1254.0000;0.1221;-0.5086;
1254.3000;0.1205;-0.5062;
1254.6000;0.1221;-0.5111;
1254.9000;0.1237;-0.5086;
1255.2000;0.1245;-0.4987;
1255.5000;0.1229;-0.5086;
1255.8000;0.1245;-0.5062;
1256.1000;0.1237;-0.5136;
1256.4000;0.1245;-0.5136;
1256.7000;0.1245;-0.5086;
1257.0000;0.1254;-0.5186;
1257.3000;0.1213;-0.5336;
1257.6000;0.1237;-0.5236;
1257.9000;0.1245;-0.5186;
1258.2000;0.1229;-0.5136;
1258.5000;0.1229;-0.5186;
1258.8000;0.1245;-0.5211;
1259.1000;0.1254;-0.5236;
1259.4000;0.1221;-0.5261;
1259.7000;0.1213;-0.5311;
1260.0000;0.1237;-0.5286;
1260.3000;0.1237;-0.5386;
1260.6000;0.1237;-0.5311;
1260.9000;0.1197;-0.5386;
1261.2000;0.1254;-0.5211;
1261.5000;0.1270;-0.5086;
1261.8000;0.1270;-0.5111;
1262.1000;0.1221;-0.5236;
1262.4000;0.1237;-0.5261;
1262.7000;0.1237;-0.5261;
1263.0000;0.1237;-0.5286;
1263.3000;0.1262;-0.5211;
1263.6000;0.1229;-0.5261;
1263.9000;0.1221;-0.5311;
1264.2000;0.1229;-0.5286;
1264.5000;0.1213;-0.5361;
1264.8000;0.1213;-0.5261;
1265.1000;0.1197;-0.5361;
1265.4000;0.1245;-0.5261;
1265.7000;0.1221;-0.5311;
1266.0000;0.1229;-0.5361;
1266.3000;0.1237;-0.5386;
1266.6000;0.1254;-0.5336;
1266.9000;0.1148;-0.5585;
1267.2000;0.1270;-0.5286;
1267.5000;0.1229;-0.5386;
1267.8000;0.1245;-0.5336;
1268.1000;0.1245;-0.5311;
1268.4000;0.1221;-0.5361;
1268.7000;0.1221;-0.5436;
1269.0000;0.1229;-0.5411;
1269.3000;0.1229;-0.5485;
1269.6000;0.1245;-0.5286;
1269.9000;0.1221;-0.5336;
1270.2000;0.1229;-0.5361;
1270.5000;0.1205;-0.5411;
1270.8000;0.1237;-0.5286;
1271.1000;0.1229;-0.5136;
1271.4000;0.1221;-0.5136;
1271.7000;0.1229;-0.5211;
1272.0000;0.1197;-0.5286;
1272.3000;0.1172;-0.5361;
1272.6000;0.1270;-0.5062;
1272.9000;0.1237;-0.5136;
1273.2000;0.1229;-0.5261;
1273.5000;0.1237;-0.5411;
1273.8000;0.1229;-0.5436;
1274.1000;0.1221;-0.5336;
1274.4000;0.1205;-0.5436;
1274.7000;0.1213;-0.5336;
1275.0000;0.1229;-0.5211;
1275.3000;0.1213;-0.5311;
1275.6000;0.1229;-0.5261;
1275.9000;0.1221;-0.5286;
1276.2000;0.1229;-0.5311;
1276.5000;0.1237;-0.5386;
1276.8000;0.1237;-0.5460;
1277.1000;0.1221;-0.5411;
1277.4000;0.1229;-0.5485;
1277.7000;0.1229;-0.5386;
1278.0000;0.1148;-0.5560;
1278.3000;0.1270;-0.5211;
1278.6000;0.1245;-0.5386;
1278.9000;0.1221;-0.5510;
1279.2000;0.1278;-0.5386;
1279.5000;0.1221;-0.5460;
1279.8000;0.1205;-0.5560;
1280.1000;0.1327;-0.5211;
1280.4000;0.1229;-0.5436;
1280.7000;0.1245;-0.5361;
1281.0000;0.1327;-0.5062;
1281.3000;0.1221;-0.5261;
1281.6000;0.1245;-0.5236;
1281.9000;0.1221;-0.5361;
1282.2000;0.1213;-0.5436;
1282.5000;0.1213;-0.5585;
1282.8000;0.1278;-0.5411;
1283.1000;0.1245;-0.5411;
1283.4000;0.1221;-0.5311;
1283.7000;0.1221;-0.5361;
1284.0000;0.1156;-0.5635;
1284.3000;0.1229;-0.5485;
1284.6000;0.1197;-0.5585;
1284.9000;0.1262;-0.5510;
1285.2000;0.1205;-0.5735;
1285.5000;0.1229;-0.5660;
1285.8000;0.1123;-0.5859;
1286.1000;0.1197;-0.5685;
1286.4000;0.1237;-0.5585;
1286.7000;0.1262;-0.5660;
1287.0000;0.1237;-0.5685;
1287.3000;0.1237;-0.5560;
1287.6000;0.1237;-0.5560;
1287.9000;0.1221;-0.5685;
1288.2000;0.1229;-0.5685;
1288.5000;0.1245;-0.5710;
1288.8000;0.1237;-0.5735;
1289.1000;0.1229;-0.5710;
1289.4000;0.1221;-0.5710;
1289.7000;0.1245;-0.5685;
1290.0000;0.1245;-0.5685;
1290.3000;0.1221;-0.5710;
1290.6000;0.1229;-0.5585;
1290.9000;0.1245;-0.5535;
1291.2000;0.1221;-0.5610;
1291.5000;0.1237;-0.5560;
1291.8000;0.1229;-0.5585;
1292.1000;0.1245;-0.5460;
1292.4000;0.1221;-0.5411;
1292.7000;0.1229;-0.5460;
1293.0000;0.1245;-0.5460;
1293.3000;0.1229;-0.5485;
1293.6000;0.1229;-0.5411;
1293.9000;0.1245;-0.5336;
1294.2000;0.1245;-0.5386;
1294.5000;0.1254;-0.5336;
1294.8000;0.1254;-0.5411;
1295.1000;0.1229;-0.5485;
1295.4000;0.1245;-0.5436;
1295.7000;0.1237;-0.5311;
1296.0000;0.1237;-0.5286;
1296.3000;0.1237;-0.5336;
1296.6000;0.1254;-0.5386;
1296.9000;0.1294;-0.5211;
1297.2000;0.1229;-0.5460;
1297.5000;0.1229;-0.5436;
1297.8000;0.1245;-0.5361;
1298.1000;0.1229;-0.5386;
1298.4000;0.1213;-0.5460;
1298.7000;0.1221;-0.5411;
1299.0000;0.1254;-0.5261;
1299.3000;0.1205;-0.5386;
1299.6000;0.1229;-0.5386;
1299.9000;0.1213;-0.5460;
1300.2000;0.1213;-0.5535;
1300.5000;0.1245;-0.5510;
1300.8000;0.1254;-0.5510;
1301.1000;0.1245;-0.5436;
1301.4000;0.1221;-0.5535;
1301.7000;0.1254;-0.5485;
1302.0000;0.1229;-0.5411;
1302.3000;0.1221;-0.5336;
1302.6000;0.1213;-0.5361;
1302.9000;0.1213;-0.5386;
1303.2000;0.1294;-0.5236;
1303.5000;0.1278;-0.5261;
1303.8000;0.1237;-0.5311;
1304.1000;0.1180;-0.5386;
1304.4000;0.1172;-0.5361;
1304.7000;0.1237;-0.5311;
1305.0000;0.1205;-0.5286;
1305.3000;0.1245;-0.5136;
1305.6000;0.1213;-0.5236;
1305.9000;0.1221;-0.5211;
1306.2000;0.1245;-0.5136;
1306.5000;0.1262;-0.5136;
1306.8000;0.1278;-0.5186;
1307.1000;0.1245;-0.5236;
1307.4000;0.1237;-0.5386;
1307.7000;0.1229;-0.5311;
1308.0000;0.1237;-0.5211;
1308.3000;0.1237;-0.5136;
1308.6000;0.1221;-0.5186;
1308.9000;0.1221;-0.5136;
1309.2000;0.1221;-0.5161;
1309.5000;0.1221;-0.5261;
1309.8000;0.1205;-0.5236;
1310.1000;0.1278;-0.5111;
1310.4000;0.1229;-0.5261;
1310.7000;0.1245;-0.5186;
1311.0000;0.1262;-0.5186;
1311.3000;0.1245;-0.5286;
1311.6000;0.1229;-0.5211;
1311.9000;0.1237;-0.5261;
1312.2000;0.1229;-0.5336;
1312.5000;0.1237;-0.5336;
1312.8000;0.1229;-0.5261;
1313.1000;0.1237;-0.5161;
1313.4000;0.1229;-0.5161;
1313.7000;0.1229;-0.5161;
1314.0000;0.1237;-0.5136;
1314.3000;0.1237;-0.5236;
1314.6000;0.1221;-0.5261;
1314.9000;0.1237;-0.5311;
1315.2000;0.1254;-0.5311;
1315.5000;0.1213;-0.5411;
1315.8000;0.1229;-0.5361;
1316.1000;0.1262;-0.5261;
1316.4000;0.1278;-0.5236;
1316.7000;0.1237;-0.5311;
1317.0000;0.1205;-0.5361;
1317.3000;0.1245;-0.5261;
1317.6000;0.1262;-0.5286;
1317.9000;0.1229;-0.5311;
1318.2000;0.1245;-0.5211;
1318.5000;0.1213;-0.5311;
1318.8000;0.1205;-0.5386;
1319.1000;0.1197;-0.5510;
1319.4000;0.1286;-0.5286;
1319.7000;0.1237;-0.5411;
1320.0000;0.1254;-0.5311;
1320.3000;0.1140;-0.5610;
1320.6000;0.1245;-0.5336;
1320.9000;0.1213;-0.5361;
1321.2000;0.1221;-0.5261;
1321.5000;0.1188;-0.5236;
1321.8000;0.1213;-0.5311;
1322.1000;0.1245;-0.5236;
1322.4000;0.1229;-0.5261;
1322.7000;0.1237;-0.5236;
1323.0000;0.1213;-0.5261;
1323.3000;0.1205;-0.5286;
1323.6000;0.1229;-0.5186;
1323.9000;0.1237;-0.5186;
1324.2000;0.1237;-0.5211;
1324.5000;0.1180;-0.5361;
1324.8000;0.1237;-0.5161;
1325.1000;0.1254;-0.5261;
1325.4000;0.1229;-0.5286;
1325.7000;0.1278;-0.5261;
1326.0000;0.1221;-0.5411;
1326.3000;0.1237;-0.5460;
1326.6000;0.1245;-0.5436;
1326.9000;0.1237;-0.5485;
1327.2000;0.1229;-0.5510;
1327.5000;0.1245;-0.5485;
1327.8000;0.1221;-0.5386;
1328.1000;0.1237;-0.5361;
1328.4000;0.1180;-0.5485;
1328.7000;0.1237;-0.5361;
1329.0000;0.1221;-0.5411;
1329.3000;0.1221;-0.5411;
1329.6000;0.1213;-0.5460;
1329.9000;0.1221;-0.5411;
1330.2000;0.1221;-0.5485;
1330.5000;0.1270;-0.5361;
1330.8000;0.1229;-0.5411;
1331.1000;0.1262;-0.5436;
1331.4000;0.1245;-0.5485;
1331.7000;0.1245;-0.5510;
1332.0000;0.1245;-0.5535;
1332.3000;0.1205;-0.5560;
1332.6000;0.1254;-0.5510;
1332.9000;0.1229;-0.5510;
1333.2000;0.1221;-0.5485;
1333.5000;0.1221;-0.5485;
1333.8000;0.1237;-0.5585;
1334.1000;0.1237;-0.5610;
1334.4000;0.1221;-0.5510;
1334.7000;0.1229;-0.5485;
1335.0000;0.1254;-0.5311;
1335.3000;0.1237;-0.5286;
1335.6000;0.1229;-0.5336;
1335.9000;0.1254;-0.5311;
1336.2000;0.1221;-0.5436;
1336.5000;0.1262;-0.5311;
1336.8000;0.1245;-0.5460;
1337.1000;0.1262;-0.5485;
1337.4000;0.1197;-0.5585;
1337.7000;0.1245;-0.5460;
1338.0000;0.1229;-0.5510;
1338.3000;0.1262;-0.5411;
1338.6000;0.1221;-0.5535;
1338.9000;0.1237;-0.5411;
1339.2000;0.1262;-0.5386;
1339.5000;0.1237;-0.5436;
1339.8000;0.1213;-0.5361;
1340.1000;0.1205;-0.5411;
1340.4000;0.1270;-0.5336;
1340.7000;0.1237;-0.5485;
1341.0000;0.1237;-0.5460;
1341.3000;0.1229;-0.5485;
1341.6000;0.1278;-0.5460;
1341.9000;0.1237;-0.5610;
1342.2000;0.1237;-0.5610;
1342.5000;0.1229;-0.5635;
1342.8000;0.1245;-0.5585;
1343.1000;0.1237;-0.5710;
1343.4000;0.1156;-0.5909;
1343.7000;0.1205;-0.5735;
1344.0000;0.1221;-0.5635;
1344.3000;0.1237;-0.5510;
1344.6000;0.1221;-0.5460;
1344.9000;0.1140;-0.5660;
1345.2000;0.1221;-0.5460;
1345.5000;0.1254;-0.5311;
1345.8000;0.1229;-0.5311;
1346.1000;0.1237;-0.5286;
1346.4000;0.1237;-0.5286;
1346.7000;0.1245;-0.5386;
1347.0000;0.1221;-0.5510;
1347.3000;0.1237;-0.5336;
1347.6000;0.1237;-0.5361;
1347.9000;0.1172;-0.5510;
1348.2000;0.1188;-0.5361;
1348.5000;0.1254;-0.5236;
1348.8000;0.1254;-0.5286;
1349.1000;0.1262;-0.5286;
1349.4000;0.1237;-0.5336;
1349.7000;0.1229;-0.5311;
1350.0000;0.1245;-0.5311;
1350.3000;0.1237;-0.5336;
1350.6000;0.1254;-0.5286;
1350.9000;0.1229;-0.5311;
1351.2000;0.1237;-0.5311;
1351.5000;0.1237;-0.5211;
1351.8000;0.1221;-0.5236;
1352.1000;0.1221;-0.5211;
1352.4000;0.1237;-0.5062;
1352.7000;0.1278;-0.4962;
1353.0000;0.1188;-0.5186;
1353.3000;0.1213;-0.5186;
1353.6000;0.1229;-0.5136;
1353.9000;0.1229;-0.5086;
1354.2000;0.1229;-0.5062;
1354.5000;0.1221;-0.5111;
1354.8000;0.1213;-0.5136;
1355.1000;0.1262;-0.5086;
1355.4000;0.1221;-0.5186;
1355.7000;0.1229;-0.5186;
1356.0000;0.1213;-0.5261;
1356.3000;0.1164;-0.5386;
1356.6000;0.1221;-0.5161;
1356.9000;0.1172;-0.5411;
1357.2000;0.1221;-0.5236;
1357.5000;0.1278;-0.5161;
1357.8000;0.1229;-0.5286;
1358.1000;0.1229;-0.5186;
1358.4000;0.1229;-0.5186;
1358.7000;0.1229;-0.5186;
1359.0000;0.1205;-0.5186;
1359.3000;0.1262;-0.5037;
1359.6000;0.1245;-0.4937;
1359.9000;0.1213;-0.5012;
1360.2000;0.1180;-0.5186;
1360.5000;0.1262;-0.4987;
1360.8000;0.1229;-0.5086;
1361.1000;0.1237;-0.5037;
1361.4000;0.1229;-0.5086;
1361.7000;0.1221;-0.5111;
1362.0000;0.1245;-0.5086;
1362.3000;0.1237;-0.5186;
1362.6000;0.1205;-0.5261;
1362.9000;0.1229;-0.5311;
1363.2000;0.1237;-0.5386;
1363.5000;0.1221;-0.5485;
1363.8000;0.1221;-0.5386;
1364.1000;0.1229;-0.5311;
1364.4000;0.1237;-0.5236;
1364.7000;0.1229;-0.5211;
1365.0000;0.1237;-0.5161;
1365.3000;0.1237;-0.5186;
1365.6000;0.1221;-0.5261;
1365.9000;0.1229;-0.5286;
1366.2000;0.1213;-0.5286;
1366.5000;0.1172;-0.5386;
1366.8000;0.1213;-0.5236;
1367.1000;0.1254;-0.5186;
1367.4000;0.1286;-0.5111;
1367.7000;0.1245;-0.5286;
1368.0000;0.1245;-0.5186;
1368.3000;0.1205;-0.5286;
1368.6000;0.1229;-0.5236;
1368.9000;0.1156;-0.5336;
1369.2000;0.1213;-0.5336;
1369.5000;0.1245;-0.5186;
1369.8000;0.1245;-0.5086;
1370.1000;0.1140;-0.5436;
1370.4000;0.1245;-0.5111;
1370.7000;0.1319;-0.4937;
1371.0000;0.1188;-0.5261;
1371.3000;0.1254;-0.5136;
1371.6000;0.1237;-0.5136;
1371.9000;0.1229;-0.5186;
1372.2000;0.1245;-0.5161;
1372.5000;0.1237;-0.5161;
1372.8000;0.1278;-0.5062;
1373.1000;0.1221;-0.5211;
1373.4000;0.1237;-0.5236;
1373.7000;0.1254;-0.5186;
1374.0000;0.1229;-0.5286;
1374.3000;0.1229;-0.5211;
1374.6000;0.1245;-0.5062;
1374.9000;0.1221;-0.5211;
1375.2000;0.1229;-0.5086;
1375.5000;0.1229;-0.5186;
1375.8000;0.1229;-0.5161;
1376.1000;0.1229;-0.5136;
1376.4000;0.1237;-0.5161;
1376.7000;0.1237;-0.5161;
1377.0000;0.1172;-0.5411;
1377.3000;0.1213;-0.5211;
1377.6000;0.1197;-0.5211;
1377.9000;0.1237;-0.5062;
1378.2000;0.1278;-0.5086;
1378.5000;0.1229;-0.5211;
1378.8000;0.1278;-0.5111;
1379.1000;0.1270;-0.5086;
1379.4000;0.1197;-0.5236;
1379.7000;0.1245;-0.5161;
1380.0000;0.1254;-0.5211;
1380.3000;0.1294;-0.5161;
1380.6000;0.1286;-0.5286;
1380.9000;0.1237;-0.5436;
1381.2000;0.1180;-0.5510;
1381.5000;0.1262;-0.5361;
1381.8000;0.1229;-0.5411;
1382.1000;0.1237;-0.5460;
1382.4000;0.1213;-0.5510;
1382.7000;0.1229;-0.5510;
1383.0000;0.1197;-0.5535;
1383.3000;0.1254;-0.5436;
1383.6000;0.1221;-0.5485;
1383.9000;0.1213;-0.5361;
1384.2000;0.1221;-0.5386;
1384.5000;0.1221;-0.5361;
1384.8000;0.1254;-0.5261;
1385.1000;0.1205;-0.5261;
1385.4000;0.1221;-0.5286;
1385.7000;0.1213;-0.5286;
1386.0000;0.1262;-0.5136;
1386.3000;0.1229;-0.5261;
1386.6000;0.1229;-0.5286;
1386.9000;0.1237;-0.5336;
1387.2000;0.1164;-0.5510;
1387.5000;0.1229;-0.5436;
1387.8000;0.1205;-0.5436;
1388.1000;0.1254;-0.5336;
1388.4000;0.1221;-0.5386;
1388.7000;0.1245;-0.5311;
1389.0000;0.1221;-0.5361;
1389.3000;0.1254;-0.5411;
1389.6000;0.1221;-0.5460;
1389.9000;0.1245;-0.5386;
1390.2000;0.1237;-0.5311;
1390.5000;0.1262;-0.5186;
1390.8000;0.1221;-0.5311;
1391.1000;0.1221;-0.5436;
1391.4000;0.1254;-0.5286;
1391.7000;0.1245;-0.5386;
1392.0000;0.1237;-0.5361;
1392.3000;0.1148;-0.5585;
1392.6000;0.1254;-0.5336;
1392.9000;0.1229;-0.5361;
1393.2000;0.1205;-0.5311;
1393.5000;0.1237;-0.5286;
1393.8000;0.1294;-0.5236;
1394.1000;0.1221;-0.5436;
1394.4000;0.1245;-0.5361;
1394.7000;0.1221;-0.5436;
1395.0000;0.1213;-0.5485;
1395.3000;0.1205;-0.5610;
1395.6000;0.1213;-0.5585;
1395.9000;0.1237;-0.5386;
1396.2000;0.1245;-0.5261;
1396.5000;0.1254;-0.5236;
1396.8000;0.1229;-0.5311;
1397.1000;0.1245;-0.5286;
1397.4000;0.1245;-0.5136;
1397.7000;0.1237;-0.5111;
1398.0000;0.1245;-0.5086;
1398.3000;0.1245;-0.5012;
1398.6000;0.1245;-0.4962;
1398.9000;0.1237;-0.5012;
1399.2000;0.1180;-0.5211;
1399.5000;0.1245;-0.5136;
1399.8000;0.1245;-0.5111;
