time/ms;Fluo/V;P700 deltaI/I x10³;
-199.8000;0.1335;-0.6283;
-199.5000;0.1311;-0.6333;
-199.2000;0.1351;-0.6308;
-198.9000;0.1351;-0.6283;
-198.6000;0.1327;-0.6258;
-198.3000;0.1319;-0.6208;
-198.0000;0.1327;-0.6184;
-197.7000;0.1327;-0.6208;
-197.4000;0.1319;-0.6184;
-197.1000;0.1327;-0.6208;
-196.8000;0.1327;-0.6134;
-196.5000;0.1327;-0.6034;
-196.2000;0.1327;-0.5959;
-195.9000;0.1254;-0.6134;
-195.6000;0.1335;-0.5859;
-195.3000;0.1343;-0.5959;
-195.0000;0.1335;-0.6009;
-194.7000;0.1392;-0.5934;
-194.4000;0.1327;-0.6034;
-194.1000;0.1351;-0.6059;
-193.8000;0.1335;-0.6084;
-193.5000;0.1506;-0.5585;
-193.2000;0.1327;-0.6184;
-192.9000;0.1311;-0.6208;
-192.6000;0.1351;-0.6159;
-192.3000;0.1327;-0.6208;
-192.0000;0.1335;-0.6184;
-191.7000;0.1286;-0.6258;
-191.4000;0.1327;-0.6258;
-191.1000;0.1343;-0.6333;
-190.8000;0.1327;-0.6258;
-190.5000;0.1343;-0.6159;
-190.2000;0.1327;-0.6208;
-189.9000;0.1327;-0.6184;
-189.6000;0.1343;-0.6184;
-189.3000;0.1335;-0.6233;
-189.0000;0.1343;-0.6109;
-188.7000;0.1343;-0.6034;
-188.4000;0.1343;-0.6059;
-188.1000;0.1327;-0.6134;
-187.8000;0.1327;-0.6134;
-187.5000;0.1319;-0.6134;
-187.2000;0.1343;-0.6009;
-186.9000;0.1302;-0.6109;
-186.6000;0.1270;-0.6134;
-186.3000;0.1400;-0.5785;
-186.0000;0.1319;-0.5884;
-185.7000;0.1311;-0.5909;
-185.4000;0.1359;-0.5884;
-185.1000;0.1327;-0.6009;
-184.8000;0.1319;-0.6059;
-184.5000;0.1416;-0.5810;
-184.2000;0.1311;-0.6184;
-183.9000;0.1351;-0.6184;
-183.6000;0.1319;-0.6208;
-183.3000;0.1359;-0.6009;
-183.0000;0.1368;-0.5959;
-182.7000;0.1335;-0.6184;
-182.4000;0.1270;-0.6383;
-182.1000;0.1278;-0.6283;
-181.8000;0.1311;-0.6208;
-181.5000;0.1237;-0.6508;
-181.2000;0.1262;-0.6483;
-180.9000;0.1197;-0.6583;
-180.6000;0.1343;-0.6233;
-180.3000;0.1335;-0.6233;
-180.0000;0.1319;-0.6308;
-179.7000;0.1319;-0.6184;
-179.4000;0.1319;-0.6258;
-179.1000;0.1335;-0.6208;
-178.8000;0.1351;-0.6184;
-178.5000;0.1351;-0.6134;
-178.2000;0.1335;-0.6134;
-177.9000;0.1319;-0.6159;
-177.6000;0.1376;-0.5959;
-177.3000;0.1335;-0.6109;
-177.0000;0.1286;-0.6233;
-176.7000;0.1302;-0.6059;
-176.4000;0.1351;-0.5909;
-176.1000;0.1327;-0.5959;
-175.8000;0.1327;-0.6009;
-175.5000;0.1351;-0.5909;
-175.2000;0.1294;-0.5909;
-174.9000;0.1335;-0.5909;
-174.6000;0.1327;-0.5984;
-174.3000;0.1327;-0.6134;
-174.0000;0.1327;-0.6134;
-173.7000;0.1327;-0.6109;
-173.4000;0.1262;-0.6208;
-173.1000;0.1327;-0.6009;
-172.8000;0.1335;-0.6009;
-172.5000;0.1319;-0.6084;
-172.2000;0.1335;-0.6034;
-171.9000;0.1327;-0.6034;
-171.6000;0.1351;-0.5959;
-171.3000;0.1335;-0.5959;
-171.0000;0.1335;-0.5959;
-170.7000;0.1351;-0.5984;
-170.4000;0.1343;-0.6009;
-170.1000;0.1302;-0.6059;
-169.8000;0.1343;-0.5884;
-169.5000;0.1294;-0.5959;
-169.2000;0.1343;-0.5834;
-168.9000;0.1351;-0.5859;
-168.6000;0.1384;-0.5859;
-168.3000;0.1368;-0.5984;
-168.0000;0.1335;-0.6009;
-167.7000;0.1319;-0.6059;
-167.4000;0.1286;-0.6184;
-167.1000;0.1278;-0.6159;
-166.8000;0.1343;-0.6059;
-166.5000;0.1376;-0.6109;
-166.2000;0.1335;-0.6159;
-165.9000;0.1343;-0.6134;
-165.6000;0.1351;-0.6084;
-165.3000;0.1368;-0.6034;
-165.0000;0.1368;-0.6059;
-164.7000;0.1368;-0.6109;
-164.4000;0.1335;-0.6059;
-164.1000;0.1335;-0.6034;
-163.8000;0.1245;-0.6184;
-163.5000;0.1359;-0.5984;
-163.2000;0.1319;-0.6084;
-162.9000;0.1286;-0.6109;
-162.6000;0.1270;-0.6184;
-162.3000;0.1343;-0.5984;
-162.0000;0.1327;-0.6009;
-161.7000;0.1327;-0.6009;
-161.4000;0.1286;-0.6084;
-161.1000;0.1335;-0.6034;
-160.8000;0.1335;-0.5984;
-160.5000;0.1343;-0.5909;
-160.2000;0.1335;-0.6034;
-159.9000;0.1319;-0.5959;
-159.6000;0.1368;-0.5834;
-159.3000;0.1286;-0.6134;
-159.0000;0.1254;-0.6258;
-158.7000;0.1359;-0.6059;
-158.4000;0.1335;-0.6134;
-158.1000;0.1327;-0.6084;
-157.8000;0.1335;-0.6034;
-157.5000;0.1294;-0.6059;
-157.2000;0.1335;-0.5984;
-156.9000;0.1335;-0.6084;
-156.6000;0.1351;-0.6134;
-156.3000;0.1335;-0.6109;
-156.0000;0.1343;-0.6034;
-155.7000;0.1351;-0.6009;
-155.4000;0.1319;-0.6109;
-155.1000;0.1343;-0.6034;
-154.8000;0.1302;-0.6084;
-154.5000;0.1335;-0.6034;
-154.2000;0.1335;-0.6084;
-153.9000;0.1311;-0.6159;
-153.6000;0.1335;-0.6109;
-153.3000;0.1327;-0.6159;
-153.0000;0.1319;-0.6159;
-152.7000;0.1319;-0.6184;
-152.4000;0.1343;-0.6034;
-152.1000;0.1335;-0.6084;
-151.8000;0.1359;-0.6084;
-151.5000;0.1335;-0.6233;
-151.2000;0.1335;-0.6159;
-150.9000;0.1368;-0.6084;
-150.6000;0.1343;-0.6084;
-150.3000;0.1335;-0.6109;
-150.0000;0.1327;-0.6258;
-149.7000;0.1351;-0.6109;
-149.4000;0.1368;-0.6084;
-149.1000;0.1335;-0.6134;
-148.8000;0.1392;-0.6034;
-148.5000;0.1327;-0.6233;
-148.2000;0.1335;-0.6258;
-147.9000;0.1335;-0.6159;
-147.6000;0.1359;-0.6134;
-147.3000;0.1351;-0.6258;
-147.0000;0.1376;-0.6208;
-146.7000;0.1351;-0.6233;
-146.4000;0.1335;-0.6283;
-146.1000;0.1327;-0.6283;
-145.8000;0.1416;-0.6059;
-145.5000;0.1335;-0.6233;
-145.2000;0.1327;-0.6258;
-144.9000;0.1335;-0.6208;
-144.6000;0.1311;-0.6258;
-144.3000;0.1335;-0.6159;
-144.0000;0.1327;-0.6159;
-143.7000;0.1359;-0.6084;
-143.4000;0.1319;-0.6134;
-143.1000;0.1335;-0.6009;
-142.8000;0.1351;-0.6109;
-142.5000;0.1335;-0.6134;
-142.2000;0.1335;-0.6084;
-141.9000;0.1327;-0.5984;
-141.6000;0.1359;-0.5959;
-141.3000;0.1327;-0.6034;
-141.0000;0.1302;-0.6059;
-140.7000;0.1335;-0.5984;
-140.4000;0.1319;-0.5959;
-140.1000;0.1327;-0.5909;
-139.8000;0.1319;-0.6059;
-139.5000;0.1343;-0.6034;
-139.2000;0.1335;-0.6109;
-138.9000;0.1327;-0.6084;
-138.6000;0.1376;-0.5909;
-138.3000;0.1319;-0.6009;
-138.0000;0.1327;-0.5984;
-137.7000;0.1262;-0.6109;
-137.4000;0.1327;-0.5909;
-137.1000;0.1327;-0.5884;
-136.8000;0.1376;-0.5735;
-136.5000;0.1327;-0.5810;
-136.2000;0.1368;-0.5760;
-135.9000;0.1319;-0.5834;
-135.6000;0.1278;-0.5934;
-135.3000;0.1311;-0.5859;
-135.0000;0.1319;-0.5859;
-134.7000;0.1311;-0.6084;
-134.4000;0.1319;-0.6084;
-134.1000;0.1416;-0.5884;
-133.8000;0.1311;-0.6034;
-133.5000;0.1311;-0.6059;
-133.2000;0.1286;-0.6009;
-132.9000;0.1343;-0.5884;
-132.6000;0.1245;-0.6134;
-132.3000;0.1343;-0.5884;
-132.0000;0.1351;-0.5909;
-131.7000;0.1311;-0.6084;
-131.4000;0.1319;-0.6059;
-131.1000;0.1441;-0.5760;
-130.8000;0.1319;-0.6059;
-130.5000;0.1278;-0.6184;
-130.2000;0.1311;-0.6134;
-129.9000;0.1319;-0.6134;
-129.6000;0.1294;-0.6134;
-129.3000;0.1319;-0.6084;
-129.0000;0.1327;-0.6109;
-128.7000;0.1327;-0.6134;
-128.4000;0.1319;-0.6109;
-128.1000;0.1319;-0.6134;
-127.8000;0.1351;-0.6258;
-127.5000;0.1359;-0.6184;
-127.2000;0.1327;-0.6208;
-126.9000;0.1368;-0.6134;
-126.6000;0.1343;-0.6208;
-126.3000;0.1335;-0.6134;
-126.0000;0.1351;-0.6059;
-125.7000;0.1343;-0.6109;
-125.4000;0.1425;-0.5834;
-125.1000;0.1335;-0.6059;
-124.8000;0.1335;-0.6184;
-124.5000;0.1327;-0.6258;
-124.2000;0.1327;-0.6233;
-123.9000;0.1335;-0.6233;
-123.6000;0.1343;-0.6208;
-123.3000;0.1311;-0.6258;
-123.0000;0.1335;-0.6184;
-122.7000;0.1368;-0.6059;
-122.4000;0.1319;-0.6084;
-122.1000;0.1327;-0.6109;
-121.8000;0.1311;-0.6084;
-121.5000;0.1335;-0.5934;
-121.2000;0.1351;-0.6009;
-120.9000;0.1327;-0.6159;
-120.6000;0.1327;-0.6308;
-120.3000;0.1319;-0.6184;
-120.0000;0.1311;-0.6233;
-119.7000;0.1335;-0.6134;
-119.4000;0.1335;-0.6084;
-119.1000;0.1335;-0.6059;
-118.8000;0.1351;-0.6084;
-118.5000;0.1319;-0.6159;
-118.2000;0.1359;-0.5959;
-117.9000;0.1319;-0.5959;
-117.6000;0.1343;-0.5959;
-117.3000;0.1302;-0.5959;
-117.0000;0.1343;-0.5884;
-116.7000;0.1343;-0.5884;
-116.4000;0.1319;-0.5810;
-116.1000;0.1343;-0.5710;
-115.8000;0.1302;-0.5760;
-115.5000;0.1343;-0.5710;
-115.2000;0.1302;-0.5884;
-114.9000;0.1384;-0.5660;
-114.6000;0.1327;-0.5785;
-114.3000;0.1311;-0.5834;
-114.0000;0.1237;-0.6059;
-113.7000;0.1327;-0.5959;
-113.4000;0.1311;-0.6009;
-113.1000;0.1311;-0.6034;
-112.8000;0.1351;-0.5984;
-112.5000;0.1327;-0.5984;
-112.2000;0.1343;-0.5810;
-111.9000;0.1343;-0.5710;
-111.6000;0.1302;-0.5810;
-111.3000;0.1278;-0.6009;
-111.0000;0.1319;-0.5884;
-110.7000;0.1335;-0.5909;
-110.4000;0.1335;-0.6009;
-110.1000;0.1368;-0.5859;
-109.8000;0.1335;-0.5884;
-109.5000;0.1319;-0.5859;
-109.2000;0.1376;-0.5785;
-108.9000;0.1327;-0.5959;
-108.6000;0.1311;-0.6084;
-108.3000;0.1319;-0.6034;
-108.0000;0.1319;-0.6059;
-107.7000;0.1327;-0.6009;
-107.4000;0.1392;-0.5909;
-107.1000;0.1311;-0.6084;
-106.8000;0.1335;-0.6134;
-106.5000;0.1229;-0.6358;
-106.2000;0.1425;-0.5810;
-105.9000;0.1335;-0.6059;
-105.6000;0.1294;-0.6109;
-105.3000;0.1359;-0.5959;
-105.0000;0.1351;-0.5984;
-104.7000;0.1343;-0.6009;
-104.4000;0.1335;-0.6059;
-104.1000;0.1327;-0.5909;
-103.8000;0.1335;-0.5884;
-103.5000;0.1351;-0.5810;
-103.2000;0.1335;-0.5710;
-102.9000;0.1335;-0.5810;
-102.6000;0.1319;-0.5909;
-102.3000;0.1335;-0.5909;
-102.0000;0.1302;-0.6134;
-101.7000;0.1327;-0.5959;
-101.4000;0.1343;-0.5859;
-101.1000;0.1319;-0.5959;
-100.8000;0.1311;-0.6034;
-100.5000;0.1351;-0.5934;
-100.2000;0.1319;-0.5984;
-99.9000;0.1327;-0.6034;
-99.6000;0.1302;-0.5909;
-99.3000;0.1335;-0.5760;
-99.0000;0.1302;-0.5959;
-98.7000;0.1327;-0.5884;
-98.4000;0.1311;-0.6009;
-98.1000;0.1319;-0.6034;
-97.8000;0.1327;-0.6059;
-97.5000;0.1335;-0.6084;
-97.2000;0.1302;-0.6208;
-96.9000;0.1335;-0.6059;
-96.6000;0.1335;-0.6034;
-96.3000;0.1335;-0.6084;
-96.0000;0.1319;-0.6084;
-95.7000;0.1327;-0.6084;
-95.4000;0.1327;-0.6059;
-95.1000;0.1343;-0.6109;
-94.8000;0.1319;-0.6208;
-94.5000;0.1319;-0.6208;
-94.2000;0.1319;-0.6208;
-93.9000;0.1319;-0.6134;
-93.6000;0.1335;-0.6109;
-93.3000;0.1335;-0.6134;
-93.0000;0.1376;-0.6084;
-92.7000;0.1319;-0.6084;
-92.4000;0.1351;-0.5934;
-92.1000;0.1335;-0.6084;
-91.8000;0.1327;-0.6109;
-91.5000;0.1311;-0.6159;
-91.2000;0.1327;-0.6233;
-90.9000;0.1343;-0.6134;
-90.6000;0.1343;-0.6184;
-90.3000;0.1319;-0.6159;
-90.0000;0.1335;-0.6109;
-89.7000;0.1335;-0.5959;
-89.4000;0.1327;-0.5984;
-89.1000;0.1335;-0.5984;
-88.8000;0.1262;-0.6134;
-88.5000;0.1327;-0.6009;
-88.2000;0.1335;-0.6134;
-87.9000;0.1327;-0.6134;
-87.6000;0.1311;-0.6159;
-87.3000;0.1335;-0.6109;
-87.0000;0.1327;-0.6134;
-86.7000;0.1327;-0.6184;
-86.4000;0.1335;-0.6134;
-86.1000;0.1311;-0.6208;
-85.8000;0.1335;-0.6134;
-85.5000;0.1327;-0.6159;
-85.2000;0.1343;-0.6059;
-84.9000;0.1311;-0.6159;
-84.6000;0.1319;-0.6208;
-84.3000;0.1302;-0.6134;
-84.0000;0.1319;-0.6134;
-83.7000;0.1335;-0.6109;
-83.4000;0.1351;-0.5959;
-83.1000;0.1311;-0.6034;
-82.8000;0.1327;-0.6084;
-82.5000;0.1351;-0.6009;
-82.2000;0.1368;-0.5909;
-81.9000;0.1343;-0.5984;
-81.6000;0.1319;-0.6084;
-81.3000;0.1327;-0.6159;
-81.0000;0.1294;-0.6258;
-80.7000;0.1319;-0.6233;
-80.4000;0.1286;-0.6333;
-80.1000;0.1343;-0.6159;
-79.8000;0.1319;-0.6059;
-79.5000;0.1319;-0.5984;
-79.2000;0.1319;-0.5934;
-78.9000;0.1319;-0.5959;
-78.6000;0.1319;-0.6034;
-78.3000;0.1327;-0.6084;
-78.0000;0.1359;-0.6059;
-77.7000;0.1319;-0.6184;
-77.4000;0.1319;-0.6109;
-77.1000;0.1335;-0.6109;
-76.8000;0.1311;-0.6109;
-76.5000;0.1311;-0.6084;
-76.2000;0.1327;-0.6034;
-75.9000;0.1319;-0.6084;
-75.6000;0.1327;-0.5984;
-75.3000;0.1294;-0.6059;
-75.0000;0.1319;-0.6009;
-74.7000;0.1327;-0.5984;
-74.4000;0.1335;-0.6034;
-74.1000;0.1319;-0.6159;
-73.8000;0.1319;-0.6159;
-73.5000;0.1294;-0.6208;
-73.2000;0.1335;-0.6109;
-72.9000;0.1311;-0.6184;
-72.6000;0.1327;-0.6109;
-72.3000;0.1335;-0.6084;
-72.0000;0.1376;-0.6009;
-71.7000;0.1327;-0.6134;
-71.4000;0.1335;-0.6134;
-71.1000;0.1319;-0.6059;
-70.8000;0.1335;-0.5984;
-70.5000;0.1335;-0.6009;
-70.2000;0.1335;-0.5959;
-69.9000;0.1319;-0.5934;
-69.6000;0.1351;-0.5934;
-69.3000;0.1327;-0.6009;
-69.0000;0.1327;-0.5984;
-68.7000;0.1425;-0.5785;
-68.4000;0.1327;-0.5984;
-68.1000;0.1335;-0.5934;
-67.8000;0.1335;-0.5984;
-67.5000;0.1327;-0.6009;
-67.2000;0.1278;-0.6184;
-66.9000;0.1351;-0.5984;
-66.6000;0.1335;-0.6159;
-66.3000;0.1327;-0.6134;
-66.0000;0.1416;-0.5859;
-65.7000;0.1335;-0.6109;
-65.4000;0.1335;-0.6184;
-65.1000;0.1319;-0.6258;
-64.8000;0.1319;-0.6258;
-64.5000;0.1311;-0.6258;
-64.2000;0.1335;-0.6109;
-63.9000;0.1335;-0.6059;
-63.6000;0.1311;-0.6109;
-63.3000;0.1319;-0.6009;
-63.0000;0.1319;-0.6109;
-62.7000;0.1319;-0.6208;
-62.4000;0.1343;-0.6208;
-62.1000;0.1351;-0.6084;
-61.8000;0.1327;-0.6034;
-61.5000;0.1343;-0.6034;
-61.2000;0.1327;-0.6084;
-60.9000;0.1343;-0.6009;
-60.6000;0.1278;-0.6308;
-60.3000;0.1335;-0.6109;
-60.0000;0.1335;-0.6184;
-59.7000;0.1319;-0.6358;
-59.4000;0.1327;-0.6308;
-59.1000;0.1343;-0.6233;
-58.8000;0.1343;-0.6258;
-58.5000;0.1359;-0.6184;
-58.2000;0.1237;-0.6358;
-57.9000;0.1335;-0.6084;
-57.6000;0.1335;-0.6034;
-57.3000;0.1319;-0.6059;
-57.0000;0.1343;-0.6109;
-56.7000;0.1335;-0.6109;
-56.4000;0.1335;-0.6134;
-56.1000;0.1335;-0.6208;
-55.8000;0.1343;-0.6084;
-55.5000;0.1319;-0.6134;
-55.2000;0.1327;-0.6233;
-54.9000;0.1351;-0.6208;
-54.6000;0.1311;-0.6308;
-54.3000;0.1368;-0.6109;
-54.0000;0.1286;-0.6258;
-53.7000;0.1319;-0.6159;
-53.4000;0.1286;-0.6258;
-53.1000;0.1311;-0.6233;
-52.8000;0.1343;-0.6159;
-52.5000;0.1441;-0.5859;
-52.2000;0.1343;-0.6059;
-51.9000;0.1327;-0.6159;
-51.6000;0.1335;-0.6134;
-51.3000;0.1343;-0.5959;
-51.0000;0.1311;-0.6109;
-50.7000;0.1335;-0.6134;
-50.4000;0.1327;-0.6109;
-50.1000;0.1327;-0.6034;
-49.8000;0.1294;-0.6084;
-49.5000;0.1302;-0.6084;
-49.2000;0.1278;-0.6258;
-48.9000;0.1335;-0.6134;
-48.6000;0.1327;-0.6208;
-48.3000;0.1319;-0.6308;
-48.0000;0.1327;-0.6258;
-47.7000;0.1327;-0.6184;
-47.4000;0.1335;-0.6184;
-47.1000;0.1335;-0.6184;
-46.8000;0.1343;-0.6208;
-46.5000;0.1351;-0.6208;
-46.2000;0.1335;-0.6308;
-45.9000;0.1335;-0.6308;
-45.6000;0.1327;-0.6333;
-45.3000;0.1311;-0.6308;
-45.0000;0.1327;-0.6358;
-44.7000;0.1262;-0.6558;
-44.4000;0.1327;-0.6283;
-44.1000;0.1368;-0.6208;
-43.8000;0.1245;-0.6558;
-43.5000;0.1351;-0.6184;
-43.2000;0.1319;-0.6233;
-42.9000;0.1343;-0.6159;
-42.6000;0.1335;-0.6084;
-42.3000;0.1351;-0.6109;
-42.0000;0.1327;-0.6159;
-41.7000;0.1335;-0.6109;
-41.4000;0.1368;-0.5959;
-41.1000;0.1351;-0.6084;
-40.8000;0.1327;-0.6159;
-40.5000;0.1343;-0.6109;
-40.2000;0.1319;-0.6258;
-39.9000;0.1335;-0.6159;
-39.6000;0.1335;-0.6184;
-39.3000;0.1368;-0.6109;
-39.0000;0.1335;-0.6109;
-38.7000;0.1327;-0.6159;
-38.4000;0.1343;-0.6034;
-38.1000;0.1294;-0.6233;
-37.8000;0.1302;-0.6208;
-37.5000;0.1327;-0.6134;
-37.2000;0.1319;-0.6134;
-36.9000;0.1327;-0.6034;
-36.6000;0.1327;-0.5959;
-36.3000;0.1343;-0.5959;
-36.0000;0.1343;-0.5859;
-35.7000;0.1319;-0.5909;
-35.4000;0.1343;-0.5859;
-35.1000;0.1311;-0.5859;
-34.8000;0.1384;-0.5760;
-34.5000;0.1343;-0.5959;
-34.2000;0.1351;-0.5984;
-33.9000;0.1335;-0.6034;
-33.6000;0.1335;-0.6109;
-33.3000;0.1319;-0.6059;
-33.0000;0.1327;-0.6059;
-32.7000;0.1384;-0.5909;
-32.4000;0.1327;-0.6009;
-32.1000;0.1319;-0.6109;
-31.8000;0.1311;-0.6134;
-31.5000;0.1343;-0.6009;
-31.2000;0.1327;-0.6059;
-30.9000;0.1335;-0.6034;
-30.6000;0.1392;-0.5859;
-30.3000;0.1335;-0.6034;
-30.0000;0.1245;-0.6283;
-29.7000;0.1343;-0.6134;
-29.4000;0.1343;-0.6134;
-29.1000;0.1327;-0.6159;
-28.8000;0.1319;-0.6233;
-28.5000;0.1335;-0.6208;
-28.2000;0.1294;-0.6208;
-27.9000;0.1319;-0.6134;
-27.6000;0.1392;-0.5959;
-27.3000;0.1335;-0.6034;
-27.0000;0.1302;-0.6233;
-26.7000;0.1319;-0.6233;
-26.4000;0.1319;-0.6233;
-26.1000;0.1335;-0.6208;
-25.8000;0.1311;-0.6258;
-25.5000;0.1335;-0.6258;
-25.2000;0.1343;-0.6258;
-24.9000;0.1351;-0.6383;
-24.6000;0.1351;-0.6408;
-24.3000;0.1327;-0.6433;
-24.0000;0.1327;-0.6358;
-23.7000;0.1311;-0.6358;
-23.4000;0.1311;-0.6358;
-23.1000;0.1327;-0.6308;
-22.8000;0.1278;-0.6408;
-22.5000;0.1343;-0.6208;
-22.2000;0.1351;-0.6109;
-21.9000;0.1335;-0.6134;
-21.6000;0.1376;-0.6009;
-21.3000;0.1311;-0.6159;
-21.0000;0.1327;-0.6208;
-20.7000;0.1343;-0.6109;
-20.4000;0.1319;-0.6134;
-20.1000;0.1262;-0.6308;
-19.8000;0.1302;-0.6233;
-19.5000;0.1319;-0.6233;
-19.2000;0.1319;-0.6258;
-18.9000;0.1319;-0.6333;
-18.6000;0.1294;-0.6358;
-18.3000;0.1343;-0.6134;
-18.0000;0.1327;-0.6134;
-17.7000;0.1335;-0.6184;
-17.4000;0.1270;-0.6308;
-17.1000;0.1351;-0.6159;
-16.8000;0.1327;-0.6184;
-16.5000;0.1368;-0.6034;
-16.2000;0.1343;-0.6059;
-15.9000;0.1335;-0.6084;
-15.6000;0.1335;-0.6059;
-15.3000;0.1343;-0.6009;
-15.0000;0.1359;-0.6009;
-14.7000;0.1327;-0.6034;
-14.4000;0.1335;-0.5959;
-14.1000;0.1327;-0.6109;
-13.8000;0.1335;-0.6059;
-13.5000;0.1335;-0.6084;
-13.2000;0.1343;-0.6084;
-12.9000;0.1392;-0.5859;
-12.6000;0.1343;-0.5934;
-12.3000;0.1335;-0.6084;
-12.0000;0.1343;-0.6109;
-11.7000;0.1351;-0.6084;
-11.4000;0.1368;-0.6109;
-11.1000;0.1335;-0.6208;
-10.8000;0.1319;-0.6258;
-10.5000;0.1319;-0.6233;
-10.2000;0.1327;-0.6159;
-9.9000;0.1319;-0.6184;
-9.6000;0.1327;-0.6208;
-9.3000;0.1311;-0.6308;
-9.0000;0.1392;-0.6034;
-8.7000;0.1351;-0.6134;
-8.4000;0.1343;-0.6059;
-8.1000;0.1327;-0.6134;
-7.8000;0.1319;-0.6109;
-7.5000;0.1302;-0.6208;
-7.2000;0.1351;-0.6134;
-6.9000;0.1335;-0.6233;
-6.6000;0.1343;-0.6233;
-6.3000;0.1368;-0.6159;
-6.0000;0.1327;-0.6283;
-5.7000;0.1343;-0.6233;
-5.4000;0.1327;-0.6208;
-5.1000;0.1343;-0.6084;
-4.8000;0.1311;-0.6109;
-4.5000;0.1327;-0.5984;
-4.2000;0.1327;-0.5959;
-3.9000;0.1359;-0.5834;
-3.6000;0.1327;-0.5959;
-3.3000;0.1343;-0.5859;
-3.0000;0.1343;-0.5909;
-2.7000;0.1335;-0.5934;
-2.4000;0.1319;-0.5909;
-2.1000;0.1311;-0.5909;
-1.8000;0.1327;-0.5934;
-1.5000;0.1335;-0.5934;
-1.2000;0.1311;-0.6034;
-0.9000;0.1319;-0.5810;
-0.6000;0.1343;-0.5810;
-0.3000;0.1343;-0.5834;
0.0000;0.1343;-0.5834;
0.3000;0.1319;-0.6134;
0.6000;0.1351;-0.5810;
0.9000;0.1327;-0.5635;
1.2000;0.1376;-0.5261;
1.5000;0.1392;-0.4912;
1.8000;0.1408;-0.4737;
2.1000;0.1408;-0.4613;
2.4000;0.1425;-0.4538;
2.7000;0.1449;-0.4363;
3.0000;0.1457;-0.4239;
3.3000;0.1441;-0.4264;
3.6000;0.1449;-0.4214;
3.9000;0.1465;-0.4064;
4.2000;0.1481;-0.3865;
4.5000;0.1465;-0.3790;
4.8000;0.1481;-0.3715;
5.1000;0.1465;-0.3740;
5.4000;0.1498;-0.3665;
5.7000;0.1490;-0.3640;
6.0000;0.1490;-0.3715;
6.3000;0.1490;-0.3740;
6.6000;0.1490;-0.3665;
6.9000;0.1514;-0.3590;
7.2000;0.1514;-0.3541;
7.5000;0.1514;-0.3566;
7.8000;0.1522;-0.3466;
8.1000;0.1506;-0.3541;
8.4000;0.1473;-0.3665;
8.7000;0.1555;-0.3416;
9.0000;0.1506;-0.3541;
9.3000;0.1490;-0.3541;
9.6000;0.1457;-0.3690;
9.9000;0.1506;-0.3566;
10.2000;0.1473;-0.3566;
10.5000;0.1595;-0.3241;
10.8000;0.1506;-0.3516;
11.1000;0.1490;-0.3466;
11.4000;0.1481;-0.3491;
11.7000;0.1514;-0.3416;
12.0000;0.1514;-0.3466;
12.3000;0.1506;-0.3566;
12.6000;0.1465;-0.3690;
12.9000;0.1481;-0.3566;
13.2000;0.1514;-0.3466;
13.5000;0.1498;-0.3491;
13.8000;0.1490;-0.3541;
14.1000;0.1490;-0.3441;
14.4000;0.1506;-0.3366;
14.7000;0.1498;-0.3316;
15.0000;0.1498;-0.3341;
15.3000;0.1498;-0.3391;
15.6000;0.1538;-0.3241;
15.9000;0.1530;-0.3291;
16.2000;0.1514;-0.3416;
16.5000;0.1400;-0.3665;
16.8000;0.1506;-0.3366;
17.1000;0.1563;-0.3241;
17.4000;0.1514;-0.3341;
17.7000;0.1457;-0.3566;
18.0000;0.1490;-0.3491;
18.3000;0.1498;-0.3441;
18.6000;0.1514;-0.3391;
18.9000;0.1498;-0.3341;
19.2000;0.1506;-0.3266;
19.5000;0.1506;-0.3366;
19.8000;0.1530;-0.3316;
20.1000;0.1457;-0.3491;
20.4000;0.1498;-0.3341;
20.7000;0.1490;-0.3441;
21.0000;0.1514;-0.3441;
21.3000;0.1506;-0.3516;
21.6000;0.1506;-0.3416;
21.9000;0.1514;-0.3416;
22.2000;0.1506;-0.3516;
22.5000;0.1506;-0.3566;
22.8000;0.1465;-0.3665;
23.1000;0.1522;-0.3441;
23.4000;0.1506;-0.3416;
23.7000;0.1498;-0.3466;
24.0000;0.1490;-0.3416;
24.3000;0.1498;-0.3316;
24.6000;0.1506;-0.3316;
24.9000;0.1376;-0.3516;
25.2000;0.1490;-0.3241;
25.5000;0.1514;-0.3341;
25.8000;0.1555;-0.3192;
26.1000;0.1490;-0.3416;
26.4000;0.1498;-0.3391;
26.7000;0.1490;-0.3366;
27.0000;0.1506;-0.3416;
27.3000;0.1514;-0.3491;
27.6000;0.1506;-0.3516;
27.9000;0.1506;-0.3516;
28.2000;0.1514;-0.3341;
28.5000;0.1514;-0.3291;
28.8000;0.1506;-0.3391;
29.1000;0.1514;-0.3416;
29.4000;0.1506;-0.3441;
29.7000;0.1514;-0.3391;
30.0000;0.1522;-0.3266;
30.3000;0.1506;-0.3316;
30.6000;0.1498;-0.3341;
30.9000;0.1465;-0.3366;
31.2000;0.1490;-0.3266;
31.5000;0.1547;-0.3142;
31.8000;0.1490;-0.3366;
32.1000;0.1514;-0.3216;
32.4000;0.1538;-0.3167;
32.7000;0.1506;-0.3266;
33.0000;0.1498;-0.3266;
33.3000;0.1498;-0.3216;
33.6000;0.1530;-0.3142;
33.9000;0.1514;-0.3167;
34.2000;0.1571;-0.3017;
34.5000;0.1538;-0.3092;
34.8000;0.1506;-0.3266;
35.1000;0.1563;-0.3092;
35.4000;0.1498;-0.3291;
35.7000;0.1498;-0.3291;
36.0000;0.1506;-0.3291;
36.3000;0.1506;-0.3291;
36.6000;0.1538;-0.3216;
36.9000;0.1473;-0.3341;
37.2000;0.1498;-0.3316;
37.5000;0.1441;-0.3441;
37.8000;0.1506;-0.3216;
38.1000;0.1481;-0.3316;
38.4000;0.1498;-0.3291;
38.7000;0.1555;-0.3167;
39.0000;0.1490;-0.3391;
39.3000;0.1498;-0.3391;
39.6000;0.1473;-0.3466;
39.9000;0.1514;-0.3316;
40.2000;0.1506;-0.3366;
40.5000;0.1465;-0.3516;
40.8000;0.1481;-0.3491;
41.1000;0.1490;-0.3466;
41.4000;0.1498;-0.3391;
41.7000;0.1490;-0.3391;
42.0000;0.1498;-0.3391;
42.3000;0.1506;-0.3391;
42.6000;0.1490;-0.3416;
42.9000;0.1522;-0.3341;
43.2000;0.1498;-0.3366;
43.5000;0.1498;-0.3416;
43.8000;0.1514;-0.3316;
44.1000;0.1514;-0.3391;
44.4000;0.1498;-0.3416;
44.7000;0.1498;-0.3491;
45.0000;0.1538;-0.3366;
45.3000;0.1490;-0.3466;
45.6000;0.1506;-0.3416;
45.9000;0.1490;-0.3466;
46.2000;0.1506;-0.3416;
46.5000;0.1506;-0.3516;
46.8000;0.1498;-0.3516;
47.1000;0.1514;-0.3416;
47.4000;0.1490;-0.3341;
47.7000;0.1498;-0.3291;
48.0000;0.1498;-0.3216;
48.3000;0.1498;-0.3241;
48.6000;0.1481;-0.3391;
48.9000;0.1506;-0.3316;
49.2000;0.1514;-0.3266;
49.5000;0.1506;-0.3216;
49.8000;0.1506;-0.3241;
50.1000;0.1514;-0.3291;
50.4000;0.1481;-0.3366;
50.7000;0.1506;-0.3416;
51.0000;0.1490;-0.3516;
51.3000;0.1506;-0.3566;
51.6000;0.1506;-0.3541;
51.9000;0.1441;-0.3715;
52.2000;0.1498;-0.3466;
52.5000;0.1498;-0.3416;
52.8000;0.1506;-0.3541;
53.1000;0.1490;-0.3590;
53.4000;0.1547;-0.3441;
53.7000;0.1506;-0.3441;
54.0000;0.1514;-0.3341;
54.3000;0.1490;-0.3366;
54.6000;0.1506;-0.3341;
54.9000;0.1547;-0.3216;
55.2000;0.1506;-0.3316;
55.5000;0.1514;-0.3266;
55.8000;0.1498;-0.3416;
56.1000;0.1481;-0.3491;
56.4000;0.1457;-0.3491;
56.7000;0.1514;-0.3291;
57.0000;0.1481;-0.3416;
57.3000;0.1506;-0.3441;
57.6000;0.1514;-0.3466;
57.9000;0.1490;-0.3516;
58.2000;0.1514;-0.3466;
58.5000;0.1441;-0.3640;
58.8000;0.1465;-0.3640;
59.1000;0.1481;-0.3491;
59.4000;0.1514;-0.3466;
59.7000;0.1530;-0.3441;
60.0000;0.1522;-0.3391;
60.3000;0.1498;-0.3441;
60.6000;0.1506;-0.3491;
60.9000;0.1506;-0.3516;
61.2000;0.1490;-0.3590;
61.5000;0.1490;-0.3516;
61.8000;0.1506;-0.3541;
62.1000;0.1481;-0.3590;
62.4000;0.1498;-0.3541;
62.7000;0.1506;-0.3566;
63.0000;0.1490;-0.3615;
63.3000;0.1506;-0.3541;
63.6000;0.1457;-0.3541;
63.9000;0.1490;-0.3416;
64.2000;0.1498;-0.3416;
64.5000;0.1506;-0.3366;
64.8000;0.1506;-0.3416;
65.1000;0.1490;-0.3516;
65.4000;0.1506;-0.3391;
65.7000;0.1514;-0.3516;
66.0000;0.1498;-0.3615;
66.3000;0.1490;-0.3690;
66.6000;0.1514;-0.3590;
66.9000;0.1514;-0.3640;
67.2000;0.1498;-0.3665;
67.5000;0.1506;-0.3640;
67.8000;0.1490;-0.3665;
68.1000;0.1490;-0.3640;
68.4000;0.1506;-0.3615;
68.7000;0.1514;-0.3516;
69.0000;0.1514;-0.3466;
69.3000;0.1587;-0.3167;
69.6000;0.1506;-0.3291;
69.9000;0.1530;-0.3341;
70.2000;0.1490;-0.3391;
70.5000;0.1522;-0.3341;
70.8000;0.1538;-0.3416;
71.1000;0.1522;-0.3466;
71.4000;0.1530;-0.3366;
71.7000;0.1481;-0.3491;
72.0000;0.1506;-0.3466;
72.3000;0.1506;-0.3366;
72.6000;0.1506;-0.3341;
72.9000;0.1498;-0.3441;
73.2000;0.1514;-0.3466;
73.5000;0.1514;-0.3491;
73.8000;0.1498;-0.3541;
74.1000;0.1490;-0.3615;
74.4000;0.1490;-0.3590;
74.7000;0.1522;-0.3391;
75.0000;0.1530;-0.3416;
75.3000;0.1538;-0.3416;
75.6000;0.1473;-0.3466;
75.9000;0.1506;-0.3441;
76.2000;0.1506;-0.3391;
76.5000;0.1457;-0.3541;
76.8000;0.1490;-0.3391;
77.1000;0.1481;-0.3441;
77.4000;0.1498;-0.3466;
77.7000;0.1490;-0.3366;
78.0000;0.1522;-0.3192;
78.3000;0.1457;-0.3416;
78.6000;0.1457;-0.3566;
78.9000;0.1498;-0.3466;
79.2000;0.1522;-0.3391;
79.5000;0.1449;-0.3566;
79.8000;0.1498;-0.3491;
80.1000;0.1465;-0.3541;
80.4000;0.1465;-0.3516;
80.7000;0.1498;-0.3441;
81.0000;0.1506;-0.3466;
81.3000;0.1522;-0.3441;
81.6000;0.1433;-0.3590;
81.9000;0.1506;-0.3341;
82.2000;0.1498;-0.3366;
82.5000;0.1481;-0.3366;
82.8000;0.1604;-0.2967;
83.1000;0.1481;-0.3366;
83.4000;0.1481;-0.3341;
83.7000;0.1498;-0.3416;
84.0000;0.1490;-0.3441;
84.3000;0.1579;-0.3266;
84.6000;0.1490;-0.3541;
84.9000;0.1498;-0.3541;
85.2000;0.1498;-0.3416;
85.5000;0.1514;-0.3366;
85.8000;0.1481;-0.3441;
86.1000;0.1498;-0.3491;
86.4000;0.1571;-0.3366;
86.7000;0.1506;-0.3640;
87.0000;0.1506;-0.3715;
87.3000;0.1490;-0.3566;
87.6000;0.1506;-0.3516;
87.9000;0.1571;-0.3366;
88.2000;0.1506;-0.3441;
88.5000;0.1498;-0.3366;
88.8000;0.1498;-0.3391;
89.1000;0.1498;-0.3341;
89.4000;0.1514;-0.3416;
89.7000;0.1506;-0.3466;
90.0000;0.1530;-0.3491;
90.3000;0.1514;-0.3491;
90.6000;0.1514;-0.3441;
90.9000;0.1522;-0.3341;
91.2000;0.1530;-0.3341;
91.5000;0.1481;-0.3466;
91.8000;0.1498;-0.3491;
92.1000;0.1465;-0.3590;
92.4000;0.1506;-0.3466;
92.7000;0.1490;-0.3491;
93.0000;0.1514;-0.3366;
93.3000;0.1498;-0.3316;
93.6000;0.1498;-0.3266;
93.9000;0.1514;-0.3192;
94.2000;0.1522;-0.3316;
94.5000;0.1514;-0.3341;
94.8000;0.1416;-0.3665;
95.1000;0.1506;-0.3491;
95.4000;0.1498;-0.3566;
95.7000;0.1514;-0.3466;
96.0000;0.1498;-0.3466;
96.3000;0.1498;-0.3516;
96.6000;0.1506;-0.3541;
96.9000;0.1506;-0.3590;
97.2000;0.1579;-0.3341;
97.5000;0.1490;-0.3615;
97.8000;0.1522;-0.3566;
98.1000;0.1530;-0.3516;
98.4000;0.1465;-0.3590;
98.7000;0.1506;-0.3590;
99.0000;0.1514;-0.3491;
99.3000;0.1481;-0.3566;
99.6000;0.1555;-0.3291;
99.9000;0.1538;-0.3416;
100.2000;0.1506;-0.3391;
100.5000;0.1498;-0.3441;
100.8000;0.1481;-0.3441;
101.1000;0.1498;-0.3416;
101.4000;0.1457;-0.3566;
101.7000;0.1498;-0.3590;
102.0000;0.1498;-0.3715;
102.3000;0.1498;-0.3740;
102.6000;0.1530;-0.3640;
102.9000;0.1498;-0.3665;
103.2000;0.1498;-0.3590;
103.5000;0.1490;-0.3615;
103.8000;0.1498;-0.3516;
104.1000;0.1514;-0.3441;
104.4000;0.1530;-0.3366;
104.7000;0.1408;-0.3765;
105.0000;0.1490;-0.3640;
105.3000;0.1498;-0.3566;
105.6000;0.1522;-0.3491;
105.9000;0.1522;-0.3466;
106.2000;0.1490;-0.3541;
106.5000;0.1498;-0.3665;
106.8000;0.1498;-0.3590;
107.1000;0.1490;-0.3640;
107.4000;0.1563;-0.3516;
107.7000;0.1530;-0.3590;
108.0000;0.1490;-0.3640;
108.3000;0.1498;-0.3566;
108.6000;0.1490;-0.3590;
108.9000;0.1498;-0.3665;
109.2000;0.1555;-0.3615;
109.5000;0.1449;-0.3840;
109.8000;0.1514;-0.3815;
110.1000;0.1514;-0.3865;
110.4000;0.1498;-0.3890;
110.7000;0.1433;-0.4014;
111.0000;0.1563;-0.3690;
111.3000;0.1473;-0.3765;
111.6000;0.1530;-0.3665;
111.9000;0.1481;-0.3715;
112.2000;0.1433;-0.3790;
112.5000;0.1522;-0.3566;
112.8000;0.1473;-0.3590;
113.1000;0.1481;-0.3516;
113.4000;0.1506;-0.3366;
113.7000;0.1506;-0.3316;
114.0000;0.1530;-0.3316;
114.3000;0.1441;-0.3541;
114.6000;0.1506;-0.3366;
114.9000;0.1530;-0.3291;
115.2000;0.1490;-0.3466;
115.5000;0.1498;-0.3491;
115.8000;0.1481;-0.3590;
116.1000;0.1506;-0.3590;
116.4000;0.1498;-0.3615;
116.7000;0.1490;-0.3715;
117.0000;0.1547;-0.3541;
117.3000;0.1498;-0.3516;
117.6000;0.1498;-0.3516;
117.9000;0.1465;-0.3640;
118.2000;0.1506;-0.3541;
118.5000;0.1506;-0.3590;
118.8000;0.1522;-0.3590;
119.1000;0.1514;-0.3566;
119.4000;0.1433;-0.3690;
119.7000;0.1498;-0.3491;
120.0000;0.1490;-0.3566;
120.3000;0.1490;-0.3566;
120.6000;0.1490;-0.3541;
120.9000;0.1514;-0.3516;
121.2000;0.1506;-0.3566;
121.5000;0.1514;-0.3566;
121.8000;0.1498;-0.3665;
122.1000;0.1506;-0.3590;
122.4000;0.1498;-0.3615;
122.7000;0.1481;-0.3615;
123.0000;0.1498;-0.3541;
123.3000;0.1514;-0.3491;
123.6000;0.1490;-0.3541;
123.9000;0.1506;-0.3541;
124.2000;0.1579;-0.3391;
124.5000;0.1490;-0.3590;
124.8000;0.1506;-0.3491;
125.1000;0.1530;-0.3566;
125.4000;0.1416;-0.3964;
125.7000;0.1498;-0.3715;
126.0000;0.1514;-0.3640;
126.3000;0.1522;-0.3541;
126.6000;0.1522;-0.3566;
126.9000;0.1473;-0.3665;
127.2000;0.1481;-0.3640;
127.5000;0.1498;-0.3690;
127.8000;0.1538;-0.3566;
128.1000;0.1538;-0.3466;
128.4000;0.1498;-0.3491;
128.7000;0.1490;-0.3516;
129.0000;0.1522;-0.3491;
129.3000;0.1449;-0.3815;
129.6000;0.1490;-0.3690;
129.9000;0.1506;-0.3590;
130.2000;0.1530;-0.3541;
130.5000;0.1547;-0.3516;
130.8000;0.1498;-0.3665;
131.1000;0.1481;-0.3715;
131.4000;0.1522;-0.3615;
131.7000;0.1530;-0.3615;
132.0000;0.1490;-0.3640;
132.3000;0.1490;-0.3765;
132.6000;0.1481;-0.3815;
132.9000;0.1514;-0.3640;
133.2000;0.1514;-0.3690;
133.5000;0.1433;-0.3865;
133.8000;0.1506;-0.3690;
134.1000;0.1506;-0.3715;
134.4000;0.1490;-0.3665;
134.7000;0.1506;-0.3690;
135.0000;0.1498;-0.3715;
135.3000;0.1498;-0.3541;
135.6000;0.1506;-0.3466;
135.9000;0.1514;-0.3416;
136.2000;0.1490;-0.3516;
136.5000;0.1490;-0.3416;
136.8000;0.1481;-0.3416;
137.1000;0.1490;-0.3516;
137.4000;0.1498;-0.3566;
137.7000;0.1506;-0.3466;
138.0000;0.1506;-0.3466;
138.3000;0.1498;-0.3541;
138.6000;0.1514;-0.3516;
138.9000;0.1579;-0.3366;
139.2000;0.1506;-0.3590;
139.5000;0.1514;-0.3516;
139.8000;0.1498;-0.3590;
140.1000;0.1498;-0.3516;
140.4000;0.1522;-0.3416;
140.7000;0.1506;-0.3391;
141.0000;0.1498;-0.3366;
141.3000;0.1498;-0.3366;
141.6000;0.1498;-0.3266;
141.9000;0.1506;-0.3192;
142.2000;0.1506;-0.3291;
142.5000;0.1498;-0.3167;
142.8000;0.1392;-0.3441;
143.1000;0.1506;-0.3266;
143.4000;0.1490;-0.3316;
143.7000;0.1514;-0.3291;
144.0000;0.1481;-0.3391;
144.3000;0.1514;-0.3316;
144.6000;0.1498;-0.3316;
144.9000;0.1498;-0.3341;
145.2000;0.1506;-0.3441;
145.5000;0.1522;-0.3441;
145.8000;0.1514;-0.3366;
146.1000;0.1490;-0.3441;
146.4000;0.1481;-0.3566;
146.7000;0.1490;-0.3491;
147.0000;0.1555;-0.3291;
147.3000;0.1490;-0.3391;
147.6000;0.1498;-0.3316;
147.9000;0.1498;-0.3366;
148.2000;0.1514;-0.3341;
148.5000;0.1490;-0.3416;
148.8000;0.1514;-0.3391;
149.1000;0.1506;-0.3341;
149.4000;0.1538;-0.3216;
149.7000;0.1506;-0.3216;
150.0000;0.1506;-0.3291;
150.3000;0.1498;-0.3391;
150.6000;0.1498;-0.3391;
150.9000;0.1498;-0.3391;
151.2000;0.1490;-0.3391;
151.5000;0.1498;-0.3416;
151.8000;0.1498;-0.3441;
152.1000;0.1473;-0.3491;
152.4000;0.1481;-0.3615;
152.7000;0.1490;-0.3665;
153.0000;0.1514;-0.3566;
153.3000;0.1498;-0.3615;
153.6000;0.1490;-0.3615;
153.9000;0.1498;-0.3640;
154.2000;0.1498;-0.3740;
154.5000;0.1522;-0.3615;
154.8000;0.1498;-0.3615;
155.1000;0.1490;-0.3615;
155.4000;0.1498;-0.3491;
155.7000;0.1498;-0.3491;
156.0000;0.1481;-0.3416;
156.3000;0.1473;-0.3416;
156.6000;0.1506;-0.3366;
156.9000;0.1490;-0.3341;
157.2000;0.1506;-0.3366;
157.5000;0.1514;-0.3441;
157.8000;0.1498;-0.3566;
158.1000;0.1481;-0.3566;
158.4000;0.1514;-0.3491;
158.7000;0.1506;-0.3516;
159.0000;0.1506;-0.3566;
159.3000;0.1514;-0.3541;
159.6000;0.1498;-0.3615;
159.9000;0.1498;-0.3566;
160.2000;0.1498;-0.3491;
160.5000;0.1498;-0.3391;
160.8000;0.1506;-0.3291;
161.1000;0.1514;-0.3316;
161.4000;0.1490;-0.3416;
161.7000;0.1498;-0.3341;
162.0000;0.1514;-0.3316;
162.3000;0.1579;-0.3142;
162.6000;0.1498;-0.3416;
162.9000;0.1498;-0.3491;
163.2000;0.1498;-0.3491;
163.5000;0.1441;-0.3690;
163.8000;0.1481;-0.3566;
164.1000;0.1506;-0.3491;
164.4000;0.1490;-0.3640;
164.7000;0.1514;-0.3615;
165.0000;0.1514;-0.3491;
165.3000;0.1506;-0.3516;
165.6000;0.1506;-0.3516;
165.9000;0.1465;-0.3665;
166.2000;0.1498;-0.3615;
166.5000;0.1506;-0.3640;
166.8000;0.1441;-0.3790;
167.1000;0.1481;-0.3665;
167.4000;0.1498;-0.3615;
167.7000;0.1490;-0.3615;
168.0000;0.1498;-0.3590;
168.3000;0.1425;-0.3790;
168.6000;0.1465;-0.3690;
168.9000;0.1490;-0.3615;
169.2000;0.1514;-0.3516;
169.5000;0.1547;-0.3316;
169.8000;0.1506;-0.3291;
170.1000;0.1481;-0.3341;
170.4000;0.1433;-0.3640;
170.7000;0.1490;-0.3416;
171.0000;0.1490;-0.3416;
171.3000;0.1498;-0.3491;
171.6000;0.1392;-0.3865;
171.9000;0.1538;-0.3341;
172.2000;0.1490;-0.3416;
172.5000;0.1490;-0.3291;
172.8000;0.1465;-0.3316;
173.1000;0.1587;-0.3042;
173.4000;0.1571;-0.3117;
173.7000;0.1449;-0.3441;
174.0000;0.1449;-0.3416;
174.3000;0.1490;-0.3291;
174.6000;0.1514;-0.3266;
174.9000;0.1498;-0.3341;
175.2000;0.1538;-0.3266;
175.5000;0.1522;-0.3416;
175.8000;0.1498;-0.3441;
176.1000;0.1514;-0.3416;
176.4000;0.1498;-0.3491;
176.7000;0.1498;-0.3516;
177.0000;0.1481;-0.3590;
177.3000;0.1506;-0.3441;
177.6000;0.1490;-0.3441;
177.9000;0.1498;-0.3341;
178.2000;0.1473;-0.3466;
178.5000;0.1514;-0.3366;
178.8000;0.1506;-0.3391;
179.1000;0.1449;-0.3566;
179.4000;0.1481;-0.3566;
179.7000;0.1490;-0.3566;
180.0000;0.1498;-0.3516;
180.3000;0.1522;-0.3391;
180.6000;0.1481;-0.3516;
180.9000;0.1490;-0.3391;
181.2000;0.1595;-0.3067;
181.5000;0.1498;-0.3416;
181.8000;0.1490;-0.3441;
182.1000;0.1433;-0.3590;
182.4000;0.1473;-0.3516;
182.7000;0.1490;-0.3341;
183.0000;0.1481;-0.3391;
183.3000;0.1490;-0.3391;
183.6000;0.1490;-0.3366;
183.9000;0.1490;-0.3441;
184.2000;0.1514;-0.3441;
184.5000;0.1481;-0.3441;
184.8000;0.1481;-0.3491;
185.1000;0.1490;-0.3516;
185.4000;0.1522;-0.3466;
185.7000;0.1490;-0.3441;
186.0000;0.1490;-0.3441;
186.3000;0.1514;-0.3391;
186.6000;0.1506;-0.3541;
186.9000;0.1514;-0.3541;
187.2000;0.1506;-0.3441;
187.5000;0.1400;-0.3715;
187.8000;0.1481;-0.3516;
188.1000;0.1506;-0.3590;
188.4000;0.1465;-0.3640;
188.7000;0.1498;-0.3566;
189.0000;0.1506;-0.3491;
189.3000;0.1555;-0.3416;
189.6000;0.1465;-0.3466;
189.9000;0.1514;-0.3391;
190.2000;0.1547;-0.3291;
190.5000;0.1522;-0.3341;
190.8000;0.1473;-0.3615;
191.1000;0.1498;-0.3541;
191.4000;0.1498;-0.3516;
191.7000;0.1498;-0.3590;
192.0000;0.1506;-0.3615;
192.3000;0.1473;-0.3765;
192.6000;0.1473;-0.3640;
192.9000;0.1473;-0.3615;
193.2000;0.1490;-0.3690;
193.5000;0.1465;-0.3790;
193.8000;0.1506;-0.3690;
194.1000;0.1473;-0.3840;
194.4000;0.1498;-0.3865;
194.7000;0.1522;-0.3715;
195.0000;0.1498;-0.3715;
195.3000;0.1506;-0.3715;
195.6000;0.1473;-0.3790;
195.9000;0.1490;-0.3715;
196.2000;0.1498;-0.3640;
196.5000;0.1481;-0.3566;
196.8000;0.1490;-0.3566;
197.1000;0.1441;-0.3640;
197.4000;0.1481;-0.3615;
197.7000;0.1481;-0.3665;
198.0000;0.1498;-0.3740;
198.3000;0.1490;-0.3765;
198.6000;0.1441;-0.3865;
198.9000;0.1506;-0.3690;
199.2000;0.1498;-0.3740;
199.5000;0.1514;-0.3690;
199.8000;0.1465;-0.3790;
200.1000;0.1490;-0.3740;
200.4000;0.1506;-0.3690;
200.7000;0.1465;-0.3740;
201.0000;0.1490;-0.3715;
201.3000;0.1522;-0.3566;
201.6000;0.1498;-0.3690;
201.9000;0.1481;-0.3715;
202.2000;0.1473;-0.3665;
202.5000;0.1506;-0.3590;
202.8000;0.1514;-0.3640;
203.1000;0.1514;-0.3765;
203.4000;0.1481;-0.3865;
203.7000;0.1481;-0.3840;
204.0000;0.1506;-0.3790;
204.3000;0.1514;-0.3790;
204.6000;0.1481;-0.3840;
204.9000;0.1498;-0.3840;
205.2000;0.1498;-0.3840;
205.5000;0.1506;-0.3790;
205.8000;0.1490;-0.3740;
206.1000;0.1457;-0.3865;
206.4000;0.1490;-0.3840;
206.7000;0.1481;-0.3915;
207.0000;0.1481;-0.3915;
207.3000;0.1506;-0.3740;
207.6000;0.1498;-0.3690;
207.9000;0.1481;-0.3765;
208.2000;0.1506;-0.3740;
208.5000;0.1498;-0.3815;
208.8000;0.1498;-0.3865;
209.1000;0.1514;-0.3840;
209.4000;0.1498;-0.3840;
209.7000;0.1506;-0.3765;
210.0000;0.1506;-0.3790;
210.3000;0.1547;-0.3690;
210.6000;0.1498;-0.3840;
210.9000;0.1555;-0.3790;
211.2000;0.1506;-0.3915;
211.5000;0.1465;-0.4039;
211.8000;0.1506;-0.3940;
212.1000;0.1498;-0.3915;
212.4000;0.1522;-0.3840;
212.7000;0.1498;-0.3890;
213.0000;0.1571;-0.3765;
213.3000;0.1571;-0.3840;
213.6000;0.1481;-0.3890;
213.9000;0.1498;-0.3790;
214.2000;0.1490;-0.3865;
214.5000;0.1506;-0.3865;
214.8000;0.1514;-0.3765;
215.1000;0.1506;-0.3765;
215.4000;0.1522;-0.3790;
215.7000;0.1498;-0.3865;
216.0000;0.1555;-0.3765;
216.3000;0.1506;-0.3740;
216.6000;0.1506;-0.3790;
216.9000;0.1514;-0.3740;
217.2000;0.1490;-0.3890;
217.5000;0.1490;-0.3840;
217.8000;0.1538;-0.3840;
218.1000;0.1498;-0.3890;
218.4000;0.1481;-0.3790;
218.7000;0.1449;-0.3790;
219.0000;0.1514;-0.3590;
219.3000;0.1506;-0.3590;
219.6000;0.1433;-0.3815;
219.9000;0.1498;-0.3640;
220.2000;0.1514;-0.3690;
220.5000;0.1498;-0.3740;
220.8000;0.1530;-0.3715;
221.1000;0.1449;-0.3890;
221.4000;0.1481;-0.3840;
221.7000;0.1498;-0.3840;
222.0000;0.1498;-0.3890;
222.3000;0.1473;-0.3915;
222.6000;0.1498;-0.3890;
222.9000;0.1506;-0.3765;
223.2000;0.1506;-0.3715;
223.5000;0.1490;-0.3740;
223.8000;0.1506;-0.3640;
224.1000;0.1473;-0.3790;
224.4000;0.1490;-0.3715;
224.7000;0.1514;-0.3665;
225.0000;0.1498;-0.3665;
225.3000;0.1498;-0.3690;
225.6000;0.1506;-0.3740;
225.9000;0.1490;-0.3815;
226.2000;0.1473;-0.3915;
226.5000;0.1449;-0.3940;
226.8000;0.1490;-0.3865;
227.1000;0.1490;-0.3890;
227.4000;0.1481;-0.3890;
227.7000;0.1473;-0.3790;
228.0000;0.1514;-0.3790;
228.3000;0.1498;-0.3840;
228.6000;0.1506;-0.3865;
228.9000;0.1506;-0.3915;
229.2000;0.1506;-0.3840;
229.5000;0.1490;-0.3840;
229.8000;0.1514;-0.3890;
230.1000;0.1498;-0.3890;
230.4000;0.1473;-0.3915;
230.7000;0.1514;-0.3815;
231.0000;0.1506;-0.3740;
231.3000;0.1506;-0.3790;
231.6000;0.1498;-0.3740;
231.9000;0.1441;-0.3815;
232.2000;0.1473;-0.3690;
232.5000;0.1473;-0.3690;
232.8000;0.1465;-0.3790;
233.1000;0.1481;-0.3815;
233.4000;0.1498;-0.3740;
233.7000;0.1506;-0.3715;
234.0000;0.1449;-0.3790;
234.3000;0.1481;-0.3815;
234.6000;0.1498;-0.3790;
234.9000;0.1490;-0.3840;
235.2000;0.1498;-0.3840;
235.5000;0.1392;-0.4189;
235.8000;0.1498;-0.3840;
236.1000;0.1522;-0.3665;
236.4000;0.1506;-0.3690;
236.7000;0.1490;-0.3665;
237.0000;0.1481;-0.3740;
237.3000;0.1473;-0.3765;
237.6000;0.1481;-0.3865;
237.9000;0.1473;-0.3840;
238.2000;0.1498;-0.3815;
238.5000;0.1481;-0.3815;
238.8000;0.1506;-0.3790;
239.1000;0.1481;-0.3765;
239.4000;0.1490;-0.3815;
239.7000;0.1481;-0.3765;
240.0000;0.1490;-0.3740;
240.3000;0.1490;-0.3690;
240.6000;0.1481;-0.3640;
240.9000;0.1498;-0.3566;
241.2000;0.1481;-0.3590;
241.5000;0.1481;-0.3566;
241.8000;0.1433;-0.3665;
242.1000;0.1481;-0.3541;
242.4000;0.1490;-0.3566;
242.7000;0.1498;-0.3590;
243.0000;0.1498;-0.3665;
243.3000;0.1498;-0.3690;
243.6000;0.1547;-0.3640;
243.9000;0.1506;-0.3690;
244.2000;0.1506;-0.3715;
244.5000;0.1506;-0.3765;
244.8000;0.1506;-0.3715;
245.1000;0.1490;-0.3690;
245.4000;0.1506;-0.3640;
245.7000;0.1473;-0.3690;
246.0000;0.1490;-0.3765;
246.3000;0.1506;-0.3715;
246.6000;0.1555;-0.3541;
246.9000;0.1490;-0.3715;
247.2000;0.1498;-0.3690;
247.5000;0.1498;-0.3690;
247.8000;0.1481;-0.3690;
248.1000;0.1481;-0.3740;
248.4000;0.1498;-0.3765;
248.7000;0.1490;-0.3890;
249.0000;0.1514;-0.3815;
249.3000;0.1481;-0.3940;
249.6000;0.1530;-0.3790;
249.9000;0.1506;-0.3840;
250.2000;0.1490;-0.3840;
250.5000;0.1490;-0.3815;
250.8000;0.1498;-0.3790;
251.1000;0.1498;-0.3740;
251.4000;0.1481;-0.3715;
251.7000;0.1498;-0.3640;
252.0000;0.1490;-0.3715;
252.3000;0.1490;-0.3765;
252.6000;0.1465;-0.3815;
252.9000;0.1490;-0.3790;
253.2000;0.1473;-0.3715;
253.5000;0.1449;-0.3740;
253.8000;0.1506;-0.3615;
254.1000;0.1490;-0.3715;
254.4000;0.1514;-0.3690;
254.7000;0.1498;-0.3690;
255.0000;0.1514;-0.3690;
255.3000;0.1506;-0.3740;
255.6000;0.1498;-0.3740;
255.9000;0.1506;-0.3765;
256.2000;0.1514;-0.3640;
256.5000;0.1498;-0.3690;
256.8000;0.1490;-0.3740;
257.1000;0.1547;-0.3715;
257.4000;0.1506;-0.3840;
257.7000;0.1498;-0.3915;
258.0000;0.1473;-0.3890;
258.3000;0.1457;-0.3915;
258.6000;0.1498;-0.3690;
258.9000;0.1506;-0.3790;
259.2000;0.1490;-0.3740;
259.5000;0.1481;-0.3765;
259.8000;0.1490;-0.3715;
260.1000;0.1514;-0.3690;
260.4000;0.1473;-0.3690;
260.7000;0.1506;-0.3665;
261.0000;0.1514;-0.3690;
261.3000;0.1498;-0.3740;
261.6000;0.1514;-0.3640;
261.9000;0.1490;-0.3615;
262.2000;0.1473;-0.3665;
262.5000;0.1498;-0.3615;
262.8000;0.1490;-0.3640;
263.1000;0.1490;-0.3640;
263.4000;0.1490;-0.3690;
263.7000;0.1490;-0.3615;
264.0000;0.1490;-0.3566;
264.3000;0.1490;-0.3516;
264.6000;0.1473;-0.3516;
264.9000;0.1522;-0.3391;
265.2000;0.1563;-0.3266;
265.5000;0.1490;-0.3441;
265.8000;0.1490;-0.3441;
266.1000;0.1506;-0.3416;
266.4000;0.1506;-0.3491;
266.7000;0.1506;-0.3466;
267.0000;0.1490;-0.3491;
267.3000;0.1514;-0.3516;
267.6000;0.1514;-0.3566;
267.9000;0.1506;-0.3566;
268.2000;0.1490;-0.3590;
268.5000;0.1498;-0.3491;
268.8000;0.1498;-0.3491;
269.1000;0.1490;-0.3516;
269.4000;0.1498;-0.3491;
269.7000;0.1498;-0.3541;
270.0000;0.1465;-0.3590;
270.3000;0.1506;-0.3516;
270.6000;0.1465;-0.3715;
270.9000;0.1490;-0.3690;
271.2000;0.1481;-0.3715;
271.5000;0.1514;-0.3541;
271.8000;0.1481;-0.3566;
272.1000;0.1498;-0.3541;
272.4000;0.1473;-0.3590;
272.7000;0.1522;-0.3491;
273.0000;0.1506;-0.3615;
273.3000;0.1490;-0.3640;
273.6000;0.1433;-0.3765;
273.9000;0.1481;-0.3566;
274.2000;0.1490;-0.3590;
274.5000;0.1457;-0.3690;
274.8000;0.1473;-0.3590;
275.1000;0.1498;-0.3541;
275.4000;0.1490;-0.3566;
275.7000;0.1481;-0.3441;
276.0000;0.1490;-0.3416;
276.3000;0.1473;-0.3466;
276.6000;0.1490;-0.3416;
276.9000;0.1514;-0.3391;
277.2000;0.1498;-0.3416;
277.5000;0.1498;-0.3441;
277.8000;0.1481;-0.3516;
278.1000;0.1490;-0.3441;
278.4000;0.1506;-0.3316;
278.7000;0.1490;-0.3341;
279.0000;0.1465;-0.3341;
279.3000;0.1490;-0.3241;
279.6000;0.1498;-0.3241;
279.9000;0.1498;-0.3192;
280.2000;0.1506;-0.3092;
280.5000;0.1506;-0.3092;
280.8000;0.1547;-0.3117;
281.1000;0.1530;-0.3216;
281.4000;0.1563;-0.3241;
281.7000;0.1522;-0.3216;
282.0000;0.1457;-0.3291;
282.3000;0.1449;-0.3416;
282.6000;0.1498;-0.3341;
282.9000;0.1506;-0.3316;
283.2000;0.1490;-0.3366;
283.5000;0.1490;-0.3366;
283.8000;0.1498;-0.3316;
284.1000;0.1481;-0.3341;
284.4000;0.1506;-0.3316;
284.7000;0.1490;-0.3341;
285.0000;0.1490;-0.3391;
285.3000;0.1498;-0.3341;
285.6000;0.1498;-0.3341;
285.9000;0.1506;-0.3341;
286.2000;0.1547;-0.3192;
286.5000;0.1563;-0.3266;
286.8000;0.1473;-0.3516;
287.1000;0.1498;-0.3466;
287.4000;0.1473;-0.3566;
287.7000;0.1490;-0.3590;
288.0000;0.1481;-0.3541;
288.3000;0.1490;-0.3566;
288.6000;0.1465;-0.3590;
288.9000;0.1490;-0.3590;
289.2000;0.1433;-0.3690;
289.5000;0.1498;-0.3466;
289.8000;0.1490;-0.3466;
290.1000;0.1506;-0.3516;
290.4000;0.1498;-0.3491;
290.7000;0.1481;-0.3566;
291.0000;0.1514;-0.3516;
291.3000;0.1498;-0.3541;
291.6000;0.1490;-0.3441;
291.9000;0.1498;-0.3391;
292.2000;0.1498;-0.3491;
292.5000;0.1465;-0.3566;
292.8000;0.1571;-0.3291;
293.1000;0.1530;-0.3316;
293.4000;0.1498;-0.3416;
293.7000;0.1481;-0.3416;
294.0000;0.1490;-0.3341;
294.3000;0.1490;-0.3391;
294.6000;0.1473;-0.3541;
294.9000;0.1498;-0.3441;
295.2000;0.1530;-0.3416;
295.5000;0.1498;-0.3391;
295.8000;0.1498;-0.3366;
296.1000;0.1498;-0.3341;
296.4000;0.1498;-0.3341;
296.7000;0.1490;-0.3366;
297.0000;0.1514;-0.3341;
297.3000;0.1449;-0.3541;
297.6000;0.1498;-0.3341;
297.9000;0.1490;-0.3316;
298.2000;0.1522;-0.3216;
298.5000;0.1481;-0.3341;
298.8000;0.1473;-0.3391;
299.1000;0.1620;-0.3042;
299.4000;0.1490;-0.3416;
299.7000;0.1490;-0.3541;
300.0000;0.1498;-0.3466;
300.3000;0.1522;-0.3441;
300.6000;0.1514;-0.3366;
300.9000;0.1522;-0.3291;
301.2000;0.1522;-0.3266;
301.5000;0.1457;-0.3416;
301.8000;0.1538;-0.3241;
302.1000;0.1481;-0.3291;
302.4000;0.1490;-0.3241;
302.7000;0.1481;-0.3241;
303.0000;0.1506;-0.3216;
303.3000;0.1506;-0.3167;
303.6000;0.1498;-0.3266;
303.9000;0.1498;-0.3366;
304.2000;0.1465;-0.3391;
304.5000;0.1490;-0.3391;
304.8000;0.1392;-0.3566;
305.1000;0.1498;-0.3391;
305.4000;0.1473;-0.3416;
305.7000;0.1506;-0.3341;
306.0000;0.1481;-0.3366;
306.3000;0.1481;-0.3391;
306.6000;0.1481;-0.3441;
306.9000;0.1514;-0.3466;
307.2000;0.1498;-0.3590;
307.5000;0.1522;-0.3416;
307.8000;0.1490;-0.3566;
308.1000;0.1579;-0.3291;
308.4000;0.1457;-0.3590;
308.7000;0.1498;-0.3590;
309.0000;0.1490;-0.3590;
309.3000;0.1481;-0.3516;
309.6000;0.1473;-0.3516;
309.9000;0.1490;-0.3566;
310.2000;0.1490;-0.3566;
310.5000;0.1490;-0.3516;
310.8000;0.1514;-0.3466;
311.1000;0.1490;-0.3566;
311.4000;0.1498;-0.3566;
311.7000;0.1498;-0.3491;
312.0000;0.1555;-0.3391;
312.3000;0.1449;-0.3715;
312.6000;0.1481;-0.3541;
312.9000;0.1481;-0.3491;
313.2000;0.1449;-0.3590;
313.5000;0.1506;-0.3416;
313.8000;0.1514;-0.3366;
314.1000;0.1457;-0.3690;
314.4000;0.1449;-0.3665;
314.7000;0.1465;-0.3590;
315.0000;0.1506;-0.3441;
315.3000;0.1490;-0.3516;
315.6000;0.1514;-0.3391;
315.9000;0.1498;-0.3416;
316.2000;0.1506;-0.3441;
316.5000;0.1498;-0.3416;
316.8000;0.1506;-0.3391;
317.1000;0.1506;-0.3416;
317.4000;0.1498;-0.3466;
317.7000;0.1481;-0.3416;
318.0000;0.1465;-0.3441;
318.3000;0.1473;-0.3366;
318.6000;0.1433;-0.3491;
318.9000;0.1490;-0.3316;
319.2000;0.1498;-0.3341;
319.5000;0.1408;-0.3566;
319.8000;0.1490;-0.3341;
320.1000;0.1498;-0.3266;
320.4000;0.1490;-0.3391;
320.7000;0.1490;-0.3441;
321.0000;0.1506;-0.3541;
321.3000;0.1449;-0.3615;
321.6000;0.1465;-0.3665;
321.9000;0.1490;-0.3690;
322.2000;0.1433;-0.3715;
322.5000;0.1490;-0.3541;
322.8000;0.1490;-0.3615;
323.1000;0.1481;-0.3690;
323.4000;0.1498;-0.3640;
323.7000;0.1490;-0.3566;
324.0000;0.1481;-0.3665;
324.3000;0.1490;-0.3590;
324.6000;0.1490;-0.3516;
324.9000;0.1490;-0.3615;
325.2000;0.1481;-0.3665;
325.5000;0.1481;-0.3665;
325.8000;0.1441;-0.3765;
326.1000;0.1498;-0.3541;
326.4000;0.1498;-0.3541;
326.7000;0.1506;-0.3491;
327.0000;0.1498;-0.3441;
327.3000;0.1506;-0.3341;
327.6000;0.1490;-0.3441;
327.9000;0.1530;-0.3466;
328.2000;0.1481;-0.3665;
328.5000;0.1498;-0.3615;
328.8000;0.1449;-0.3790;
329.1000;0.1498;-0.3590;
329.4000;0.1481;-0.3491;
329.7000;0.1506;-0.3416;
330.0000;0.1506;-0.3341;
330.3000;0.1506;-0.3291;
330.6000;0.1490;-0.3341;
330.9000;0.1506;-0.3291;
331.2000;0.1506;-0.3341;
331.5000;0.1538;-0.3241;
331.8000;0.1490;-0.3341;
332.1000;0.1498;-0.3341;
332.4000;0.1481;-0.3266;
332.7000;0.1490;-0.3291;
333.0000;0.1490;-0.3316;
333.3000;0.1481;-0.3291;
333.6000;0.1481;-0.3391;
333.9000;0.1490;-0.3341;
334.2000;0.1481;-0.3391;
334.5000;0.1416;-0.3541;
334.8000;0.1498;-0.3316;
335.1000;0.1498;-0.3366;
335.4000;0.1384;-0.3665;
335.7000;0.1490;-0.3391;
336.0000;0.1490;-0.3241;
336.3000;0.1490;-0.3391;
336.6000;0.1514;-0.3466;
336.9000;0.1473;-0.3665;
337.2000;0.1490;-0.3541;
337.5000;0.1490;-0.3541;
337.8000;0.1498;-0.3416;
338.1000;0.1481;-0.3441;
338.4000;0.1498;-0.3491;
338.7000;0.1481;-0.3491;
339.0000;0.1481;-0.3491;
339.3000;0.1498;-0.3391;
339.6000;0.1473;-0.3416;
339.9000;0.1473;-0.3366;
340.2000;0.1498;-0.3316;
340.5000;0.1490;-0.3366;
340.8000;0.1490;-0.3441;
341.1000;0.1473;-0.3541;
341.4000;0.1481;-0.3566;
341.7000;0.1481;-0.3615;
342.0000;0.1490;-0.3541;
342.3000;0.1498;-0.3491;
342.6000;0.1457;-0.3566;
342.9000;0.1498;-0.3341;
343.2000;0.1490;-0.3341;
343.5000;0.1498;-0.3316;
343.8000;0.1481;-0.3341;
344.1000;0.1490;-0.3341;
344.4000;0.1498;-0.3316;
344.7000;0.1498;-0.3366;
345.0000;0.1490;-0.3391;
345.3000;0.1481;-0.3366;
345.6000;0.1490;-0.3391;
345.9000;0.1490;-0.3216;
346.2000;0.1481;-0.3167;
346.5000;0.1506;-0.3167;
346.8000;0.1498;-0.3341;
347.1000;0.1481;-0.3416;
347.4000;0.1433;-0.3665;
347.7000;0.1498;-0.3566;
348.0000;0.1481;-0.3665;
348.3000;0.1457;-0.3790;
348.6000;0.1490;-0.3740;
348.9000;0.1481;-0.3715;
349.2000;0.1481;-0.3715;
349.5000;0.1506;-0.3640;
349.8000;0.1498;-0.3541;
350.1000;0.1506;-0.3491;
350.4000;0.1506;-0.3391;
350.7000;0.1498;-0.3366;
351.0000;0.1530;-0.3266;
351.3000;0.1441;-0.3491;
351.6000;0.1490;-0.3416;
351.9000;0.1498;-0.3391;
352.2000;0.1473;-0.3391;
352.5000;0.1506;-0.3341;
352.8000;0.1522;-0.3441;
353.1000;0.1490;-0.3491;
353.4000;0.1416;-0.3665;
353.7000;0.1481;-0.3516;
354.0000;0.1498;-0.3441;
354.3000;0.1506;-0.3391;
354.6000;0.1498;-0.3441;
354.9000;0.1506;-0.3341;
355.2000;0.1498;-0.3316;
355.5000;0.1465;-0.3416;
355.8000;0.1490;-0.3416;
356.1000;0.1498;-0.3391;
356.4000;0.1498;-0.3316;
356.7000;0.1498;-0.3241;
357.0000;0.1514;-0.3216;
357.3000;0.1506;-0.3291;
357.6000;0.1441;-0.3516;
357.9000;0.1490;-0.3341;
358.2000;0.1490;-0.3391;
358.5000;0.1490;-0.3366;
358.8000;0.1490;-0.3441;
359.1000;0.1425;-0.3566;
359.4000;0.1400;-0.3566;
359.7000;0.1498;-0.3241;
360.0000;0.1506;-0.3117;
360.3000;0.1522;-0.3042;
360.6000;0.1563;-0.2992;
360.9000;0.1506;-0.3067;
361.2000;0.1506;-0.3067;
361.5000;0.1481;-0.3167;
361.8000;0.1514;-0.3142;
362.1000;0.1514;-0.3167;
362.4000;0.1538;-0.3117;
362.7000;0.1514;-0.3192;
363.0000;0.1498;-0.3241;
363.3000;0.1506;-0.3366;
363.6000;0.1498;-0.3391;
363.9000;0.1498;-0.3341;
364.2000;0.1490;-0.3341;
364.5000;0.1490;-0.3391;
364.8000;0.1490;-0.3441;
365.1000;0.1514;-0.3366;
365.4000;0.1490;-0.3541;
365.7000;0.1506;-0.3366;
366.0000;0.1522;-0.3291;
366.3000;0.1481;-0.3341;
366.6000;0.1433;-0.3491;
366.9000;0.1498;-0.3341;
367.2000;0.1481;-0.3416;
367.5000;0.1506;-0.3241;
367.8000;0.1490;-0.3291;
368.1000;0.1514;-0.3216;
368.4000;0.1457;-0.3391;
368.7000;0.1473;-0.3416;
369.0000;0.1490;-0.3316;
369.3000;0.1473;-0.3266;
369.6000;0.1473;-0.3316;
369.9000;0.1506;-0.3291;
370.2000;0.1490;-0.3341;
370.5000;0.1490;-0.3466;
370.8000;0.1490;-0.3416;
371.1000;0.1498;-0.3366;
371.4000;0.1425;-0.3491;
371.7000;0.1498;-0.3266;
372.0000;0.1506;-0.3167;
372.3000;0.1514;-0.3216;
372.6000;0.1490;-0.3266;
372.9000;0.1473;-0.3291;
373.2000;0.1490;-0.3291;
373.5000;0.1481;-0.3441;
373.8000;0.1490;-0.3391;
374.1000;0.1506;-0.3416;
374.4000;0.1514;-0.3366;
374.7000;0.1490;-0.3441;
375.0000;0.1522;-0.3316;
375.3000;0.1498;-0.3266;
375.6000;0.1498;-0.3291;
375.9000;0.1473;-0.3441;
376.2000;0.1514;-0.3391;
376.5000;0.1481;-0.3291;
376.8000;0.1490;-0.3241;
377.1000;0.1490;-0.3316;
377.4000;0.1457;-0.3316;
377.7000;0.1473;-0.3316;
378.0000;0.1481;-0.3192;
378.3000;0.1490;-0.3241;
378.6000;0.1473;-0.3241;
378.9000;0.1481;-0.3266;
379.2000;0.1457;-0.3216;
379.5000;0.1465;-0.3266;
379.8000;0.1473;-0.3266;
380.1000;0.1473;-0.3216;
380.4000;0.1481;-0.3192;
380.7000;0.1490;-0.3117;
381.0000;0.1490;-0.3067;
381.3000;0.1481;-0.3167;
381.6000;0.1481;-0.3092;
381.9000;0.1490;-0.3042;
382.2000;0.1498;-0.3067;
382.5000;0.1433;-0.3266;
382.8000;0.1473;-0.3167;
383.1000;0.1498;-0.3192;
383.4000;0.1457;-0.3316;
383.7000;0.1490;-0.3241;
384.0000;0.1481;-0.3241;
384.3000;0.1441;-0.3316;
384.6000;0.1498;-0.3167;
384.9000;0.1473;-0.3266;
385.2000;0.1473;-0.3266;
385.5000;0.1490;-0.3266;
385.8000;0.1490;-0.3291;
386.1000;0.1571;-0.3067;
386.4000;0.1506;-0.3316;
386.7000;0.1498;-0.3366;
387.0000;0.1473;-0.3416;
387.3000;0.1514;-0.3316;
387.6000;0.1490;-0.3216;
387.9000;0.1481;-0.3192;
388.2000;0.1473;-0.3241;
388.5000;0.1506;-0.3241;
388.8000;0.1481;-0.3216;
389.1000;0.1498;-0.3316;
389.4000;0.1481;-0.3391;
389.7000;0.1481;-0.3366;
390.0000;0.1481;-0.3391;
390.3000;0.1490;-0.3516;
390.6000;0.1490;-0.3541;
390.9000;0.1490;-0.3516;
391.2000;0.1530;-0.3416;
391.5000;0.1490;-0.3466;
391.8000;0.1498;-0.3391;
392.1000;0.1481;-0.3391;
392.4000;0.1498;-0.3391;
392.7000;0.1473;-0.3491;
393.0000;0.1498;-0.3541;
393.3000;0.1490;-0.3590;
393.6000;0.1490;-0.3590;
393.9000;0.1522;-0.3541;
394.2000;0.1490;-0.3615;
394.5000;0.1473;-0.3640;
394.8000;0.1514;-0.3516;
395.1000;0.1490;-0.3541;
395.4000;0.1481;-0.3441;
395.7000;0.1506;-0.3466;
396.0000;0.1498;-0.3416;
396.3000;0.1514;-0.3391;
396.6000;0.1506;-0.3441;
396.9000;0.1457;-0.3640;
397.2000;0.1490;-0.3590;
397.5000;0.1514;-0.3541;
397.8000;0.1441;-0.3690;
398.1000;0.1473;-0.3590;
398.4000;0.1604;-0.3291;
398.7000;0.1506;-0.3491;
399.0000;0.1490;-0.3391;
399.3000;0.1481;-0.3391;
399.6000;0.1490;-0.3316;
399.9000;0.1481;-0.3291;
400.2000;0.1514;-0.3241;
400.5000;0.1481;-0.3266;
400.8000;0.1498;-0.3192;
401.1000;0.1498;-0.3241;
401.4000;0.1498;-0.3341;
401.7000;0.1481;-0.3366;
402.0000;0.1481;-0.3441;
402.3000;0.1498;-0.3516;
402.6000;0.1498;-0.3590;
402.9000;0.1481;-0.3541;
403.2000;0.1490;-0.3516;
403.5000;0.1490;-0.3491;
403.8000;0.1490;-0.3566;
404.1000;0.1481;-0.3590;
404.4000;0.1514;-0.3491;
404.7000;0.1481;-0.3566;
405.0000;0.1473;-0.3491;
405.3000;0.1498;-0.3416;
405.6000;0.1481;-0.3416;
405.9000;0.1490;-0.3366;
406.2000;0.1555;-0.3167;
406.5000;0.1498;-0.3341;
406.8000;0.1481;-0.3441;
407.1000;0.1547;-0.3366;
407.4000;0.1481;-0.3516;
407.7000;0.1490;-0.3516;
408.0000;0.1449;-0.3466;
408.3000;0.1473;-0.3391;
408.6000;0.1506;-0.3291;
408.9000;0.1530;-0.3142;
409.2000;0.1481;-0.3167;
409.5000;0.1490;-0.3216;
409.8000;0.1473;-0.3216;
410.1000;0.1481;-0.3291;
410.4000;0.1514;-0.3266;
410.7000;0.1547;-0.3316;
411.0000;0.1498;-0.3416;
411.3000;0.1514;-0.3516;
411.6000;0.1481;-0.3690;
411.9000;0.1481;-0.3615;
412.2000;0.1457;-0.3715;
412.5000;0.1498;-0.3640;
412.8000;0.1498;-0.3615;
413.1000;0.1490;-0.3665;
413.4000;0.1481;-0.3640;
413.7000;0.1490;-0.3541;
414.0000;0.1490;-0.3541;
414.3000;0.1490;-0.3466;
414.6000;0.1481;-0.3590;
414.9000;0.1473;-0.3566;
415.2000;0.1498;-0.3491;
415.5000;0.1457;-0.3516;
415.8000;0.1465;-0.3441;
416.1000;0.1498;-0.3366;
416.4000;0.1490;-0.3316;
416.7000;0.1481;-0.3391;
417.0000;0.1465;-0.3441;
417.3000;0.1490;-0.3441;
417.6000;0.1498;-0.3391;
417.9000;0.1465;-0.3516;
418.2000;0.1490;-0.3541;
418.5000;0.1498;-0.3590;
418.8000;0.1522;-0.3491;
419.1000;0.1498;-0.3516;
419.4000;0.1490;-0.3466;
419.7000;0.1490;-0.3541;
420.0000;0.1498;-0.3541;
420.3000;0.1473;-0.3541;
420.6000;0.1498;-0.3541;
420.9000;0.1498;-0.3541;
421.2000;0.1481;-0.3566;
421.5000;0.1498;-0.3491;
421.8000;0.1628;-0.3167;
422.1000;0.1498;-0.3491;
422.4000;0.1538;-0.3341;
422.7000;0.1490;-0.3491;
423.0000;0.1498;-0.3516;
423.3000;0.1490;-0.3516;
423.6000;0.1465;-0.3516;
423.9000;0.1506;-0.3491;
424.2000;0.1514;-0.3491;
424.5000;0.1506;-0.3516;
424.8000;0.1514;-0.3466;
425.1000;0.1490;-0.3466;
425.4000;0.1498;-0.3441;
425.7000;0.1490;-0.3491;
426.0000;0.1481;-0.3466;
426.3000;0.1473;-0.3566;
426.6000;0.1473;-0.3665;
426.9000;0.1498;-0.3491;
427.2000;0.1498;-0.3566;
427.5000;0.1490;-0.3516;
427.8000;0.1498;-0.3541;
428.1000;0.1498;-0.3466;
428.4000;0.1498;-0.3441;
428.7000;0.1449;-0.3416;
429.0000;0.1498;-0.3266;
429.3000;0.1514;-0.3216;
429.6000;0.1473;-0.3241;
429.9000;0.1498;-0.3266;
430.2000;0.1514;-0.3266;
430.5000;0.1490;-0.3416;
430.8000;0.1506;-0.3441;
431.1000;0.1490;-0.3491;
431.4000;0.1506;-0.3491;
431.7000;0.1506;-0.3441;
432.0000;0.1514;-0.3466;
432.3000;0.1538;-0.3416;
432.6000;0.1506;-0.3466;
432.9000;0.1481;-0.3466;
433.2000;0.1547;-0.3291;
433.5000;0.1465;-0.3590;
433.8000;0.1481;-0.3566;
434.1000;0.1481;-0.3516;
434.4000;0.1555;-0.3391;
434.7000;0.1473;-0.3566;
435.0000;0.1449;-0.3590;
435.3000;0.1498;-0.3441;
435.6000;0.1481;-0.3491;
435.9000;0.1490;-0.3466;
436.2000;0.1441;-0.3590;
436.5000;0.1408;-0.3640;
436.8000;0.1506;-0.3366;
437.1000;0.1498;-0.3366;
437.4000;0.1547;-0.3316;
437.7000;0.1522;-0.3391;
438.0000;0.1481;-0.3441;
438.3000;0.1522;-0.3416;
438.6000;0.1465;-0.3615;
438.9000;0.1473;-0.3566;
439.2000;0.1514;-0.3516;
439.5000;0.1465;-0.3640;
439.8000;0.1465;-0.3590;
440.1000;0.1481;-0.3491;
440.4000;0.1490;-0.3541;
440.7000;0.1498;-0.3590;
441.0000;0.1490;-0.3541;
441.3000;0.1587;-0.3266;
441.6000;0.1538;-0.3291;
441.9000;0.1441;-0.3466;
442.2000;0.1473;-0.3416;
442.5000;0.1490;-0.3441;
442.8000;0.1473;-0.3366;
443.1000;0.1473;-0.3441;
443.4000;0.1481;-0.3441;
443.7000;0.1481;-0.3466;
444.0000;0.1490;-0.3516;
444.3000;0.1490;-0.3590;
444.6000;0.1498;-0.3640;
444.9000;0.1490;-0.3640;
445.2000;0.1473;-0.3665;
445.5000;0.1563;-0.3466;
445.8000;0.1473;-0.3590;
446.1000;0.1481;-0.3566;
446.4000;0.1490;-0.3640;
446.7000;0.1506;-0.3590;
447.0000;0.1538;-0.3491;
447.3000;0.1457;-0.3665;
447.6000;0.1490;-0.3590;
447.9000;0.1506;-0.3566;
448.2000;0.1490;-0.3491;
448.5000;0.1490;-0.3491;
448.8000;0.1481;-0.3541;
449.1000;0.1490;-0.3566;
449.4000;0.1449;-0.3665;
449.7000;0.1465;-0.3740;
450.0000;0.1481;-0.3740;
450.3000;0.1481;-0.3615;
450.6000;0.1498;-0.3416;
450.9000;0.1490;-0.3416;
451.2000;0.1465;-0.3590;
451.5000;0.1498;-0.3516;
451.8000;0.1506;-0.3491;
452.1000;0.1522;-0.3491;
452.4000;0.1481;-0.3640;
452.7000;0.1473;-0.3690;
453.0000;0.1522;-0.3541;
453.3000;0.1473;-0.3665;
453.6000;0.1465;-0.3690;
453.9000;0.1481;-0.3640;
454.2000;0.1473;-0.3615;
454.5000;0.1490;-0.3590;
454.8000;0.1490;-0.3491;
455.1000;0.1490;-0.3391;
455.4000;0.1498;-0.3341;
455.7000;0.1481;-0.3391;
456.0000;0.1498;-0.3391;
456.3000;0.1506;-0.3391;
456.6000;0.1490;-0.3366;
456.9000;0.1490;-0.3441;
457.2000;0.1498;-0.3466;
457.5000;0.1530;-0.3366;
457.8000;0.1498;-0.3441;
458.1000;0.1490;-0.3491;
458.4000;0.1498;-0.3416;
458.7000;0.1530;-0.3441;
459.0000;0.1481;-0.3615;
459.3000;0.1498;-0.3541;
459.6000;0.1506;-0.3516;
459.9000;0.1506;-0.3441;
460.2000;0.1506;-0.3366;
460.5000;0.1506;-0.3366;
460.8000;0.1498;-0.3366;
461.1000;0.1514;-0.3341;
461.4000;0.1490;-0.3441;
461.7000;0.1490;-0.3491;
462.0000;0.1498;-0.3441;
462.3000;0.1514;-0.3266;
462.6000;0.1481;-0.3366;
462.9000;0.1490;-0.3316;
463.2000;0.1400;-0.3441;
463.5000;0.1506;-0.3216;
463.8000;0.1522;-0.3266;
464.1000;0.1481;-0.3416;
464.4000;0.1490;-0.3441;
464.7000;0.1506;-0.3391;
465.0000;0.1506;-0.3466;
465.3000;0.1490;-0.3615;
465.6000;0.1473;-0.3541;
465.9000;0.1506;-0.3541;
466.2000;0.1498;-0.3491;
466.5000;0.1481;-0.3516;
466.8000;0.1473;-0.3615;
467.1000;0.1490;-0.3541;
467.4000;0.1473;-0.3715;
467.7000;0.1465;-0.3740;
468.0000;0.1465;-0.3765;
468.3000;0.1481;-0.3840;
468.6000;0.1530;-0.3765;
468.9000;0.1465;-0.3865;
469.2000;0.1465;-0.3740;
469.5000;0.1490;-0.3640;
469.8000;0.1490;-0.3665;
470.1000;0.1473;-0.3665;
470.4000;0.1481;-0.3590;
470.7000;0.1490;-0.3566;
471.0000;0.1498;-0.3491;
471.3000;0.1481;-0.3615;
471.6000;0.1498;-0.3466;
471.9000;0.1473;-0.3466;
472.2000;0.1490;-0.3366;
472.5000;0.1514;-0.3266;
472.8000;0.1481;-0.3291;
473.1000;0.1481;-0.3366;
473.4000;0.1490;-0.3266;
473.7000;0.1473;-0.3266;
474.0000;0.1457;-0.3391;
474.3000;0.1465;-0.3441;
474.6000;0.1490;-0.3416;
474.9000;0.1490;-0.3391;
475.2000;0.1457;-0.3416;
475.5000;0.1473;-0.3366;
475.8000;0.1473;-0.3316;
476.1000;0.1473;-0.3366;
476.4000;0.1416;-0.3516;
476.7000;0.1481;-0.3391;
477.0000;0.1490;-0.3391;
477.3000;0.1490;-0.3366;
477.6000;0.1498;-0.3366;
477.9000;0.1481;-0.3341;
478.2000;0.1490;-0.3341;
478.5000;0.1498;-0.3391;
478.8000;0.1449;-0.3590;
479.1000;0.1490;-0.3466;
479.4000;0.1465;-0.3466;
479.7000;0.1490;-0.3416;
480.0000;0.1481;-0.3366;
480.3000;0.1506;-0.3366;
480.6000;0.1473;-0.3441;
480.9000;0.1490;-0.3416;
481.2000;0.1506;-0.3341;
481.5000;0.1506;-0.3366;
481.8000;0.1490;-0.3341;
482.1000;0.1490;-0.3366;
482.4000;0.1481;-0.3441;
482.7000;0.1490;-0.3466;
483.0000;0.1481;-0.3391;
483.3000;0.1473;-0.3441;
483.6000;0.1481;-0.3441;
483.9000;0.1481;-0.3466;
484.2000;0.1514;-0.3366;
484.5000;0.1473;-0.3416;
484.8000;0.1506;-0.3291;
485.1000;0.1457;-0.3441;
485.4000;0.1481;-0.3441;
485.7000;0.1481;-0.3491;
486.0000;0.1481;-0.3466;
486.3000;0.1530;-0.3391;
486.6000;0.1490;-0.3466;
486.9000;0.1506;-0.3466;
487.2000;0.1481;-0.3541;
487.5000;0.1506;-0.3516;
487.8000;0.1498;-0.3466;
488.1000;0.1490;-0.3366;
488.4000;0.1481;-0.3366;
488.7000;0.1498;-0.3366;
489.0000;0.1498;-0.3341;
489.3000;0.1481;-0.3366;
489.6000;0.1473;-0.3441;
489.9000;0.1506;-0.3466;
490.2000;0.1490;-0.3516;
490.5000;0.1473;-0.3541;
490.8000;0.1514;-0.3366;
491.1000;0.1506;-0.3366;
491.4000;0.1498;-0.3416;
491.7000;0.1490;-0.3391;
492.0000;0.1490;-0.3391;
492.3000;0.1473;-0.3366;
492.6000;0.1481;-0.3316;
492.9000;0.1384;-0.3541;
493.2000;0.1490;-0.3341;
493.5000;0.1490;-0.3316;
493.8000;0.1481;-0.3391;
494.1000;0.1498;-0.3366;
494.4000;0.1473;-0.3466;
494.7000;0.1433;-0.3566;
495.0000;0.1481;-0.3466;
495.3000;0.1490;-0.3466;
495.6000;0.1433;-0.3566;
495.9000;0.1490;-0.3341;
496.2000;0.1490;-0.3391;
496.5000;0.1481;-0.3366;
496.8000;0.1465;-0.3416;
497.1000;0.1481;-0.3241;
497.4000;0.1416;-0.3291;
497.7000;0.1465;-0.3216;
498.0000;0.1481;-0.3167;
498.3000;0.1490;-0.3241;
498.6000;0.1522;-0.3341;
498.9000;0.1498;-0.3416;
499.2000;0.1490;-0.3466;
499.5000;0.1473;-0.3541;
499.8000;0.1481;-0.3541;
500.1000;0.1490;-0.3566;
500.4000;0.1498;-0.3516;
500.7000;0.1481;-0.3541;
501.0000;0.1441;-0.3640;
501.3000;0.1490;-0.3491;
501.6000;0.1481;-0.3416;
501.9000;0.1514;-0.3316;
502.2000;0.1481;-0.3366;
502.5000;0.1498;-0.3341;
502.8000;0.1498;-0.3316;
503.1000;0.1490;-0.3291;
503.4000;0.1498;-0.3341;
503.7000;0.1473;-0.3441;
504.0000;0.1490;-0.3341;
504.3000;0.1498;-0.3341;
504.6000;0.1481;-0.3341;
504.9000;0.1481;-0.3366;
505.2000;0.1465;-0.3391;
505.5000;0.1473;-0.3192;
505.8000;0.1473;-0.3192;
506.1000;0.1481;-0.3216;
506.4000;0.1506;-0.3117;
506.7000;0.1490;-0.3241;
507.0000;0.1465;-0.3266;
507.3000;0.1449;-0.3366;
507.6000;0.1490;-0.3216;
507.9000;0.1490;-0.3142;
508.2000;0.1530;-0.3067;
508.5000;0.1481;-0.3241;
508.8000;0.1473;-0.3216;
509.1000;0.1490;-0.3167;
509.4000;0.1481;-0.3241;
509.7000;0.1481;-0.3291;
510.0000;0.1490;-0.3341;
510.3000;0.1473;-0.3416;
510.6000;0.1506;-0.3391;
510.9000;0.1498;-0.3416;
511.2000;0.1473;-0.3466;
511.5000;0.1490;-0.3341;
511.8000;0.1490;-0.3341;
512.1000;0.1490;-0.3391;
512.4000;0.1490;-0.3466;
512.7000;0.1481;-0.3516;
513.0000;0.1490;-0.3491;
513.3000;0.1563;-0.3291;
513.6000;0.1506;-0.3316;
513.9000;0.1465;-0.3316;
514.2000;0.1506;-0.3266;
514.5000;0.1490;-0.3291;
514.8000;0.1498;-0.3291;
515.1000;0.1457;-0.3366;
515.4000;0.1506;-0.3266;
515.7000;0.1498;-0.3266;
516.0000;0.1490;-0.3216;
516.3000;0.1433;-0.3391;
516.6000;0.1522;-0.3216;
516.9000;0.1506;-0.3266;
517.2000;0.1392;-0.3491;
517.5000;0.1473;-0.3266;
517.8000;0.1481;-0.3341;
518.1000;0.1481;-0.3291;
518.4000;0.1506;-0.3291;
518.7000;0.1587;-0.3067;
519.0000;0.1490;-0.3316;
519.3000;0.1473;-0.3316;
519.6000;0.1481;-0.3291;
519.9000;0.1490;-0.3216;
520.2000;0.1490;-0.3241;
520.5000;0.1506;-0.3266;
520.8000;0.1538;-0.3167;
521.1000;0.1498;-0.3241;
521.4000;0.1465;-0.3441;
521.7000;0.1465;-0.3491;
522.0000;0.1433;-0.3541;
522.3000;0.1490;-0.3341;
522.6000;0.1490;-0.3366;
522.9000;0.1481;-0.3366;
523.2000;0.1571;-0.3042;
523.5000;0.1473;-0.3241;
523.8000;0.1530;-0.3241;
524.1000;0.1506;-0.3341;
524.4000;0.1481;-0.3516;
524.7000;0.1538;-0.3316;
525.0000;0.1498;-0.3416;
525.3000;0.1490;-0.3491;
525.6000;0.1481;-0.3541;
525.9000;0.1514;-0.3541;
526.2000;0.1473;-0.3541;
526.5000;0.1490;-0.3566;
526.8000;0.1506;-0.3466;
527.1000;0.1490;-0.3491;
527.4000;0.1490;-0.3466;
527.7000;0.1498;-0.3491;
528.0000;0.1490;-0.3541;
528.3000;0.1473;-0.3590;
528.6000;0.1441;-0.3815;
528.9000;0.1498;-0.3615;
529.2000;0.1490;-0.3516;
529.5000;0.1481;-0.3466;
529.8000;0.1481;-0.3466;
530.1000;0.1465;-0.3541;
530.4000;0.1490;-0.3516;
530.7000;0.1449;-0.3541;
531.0000;0.1473;-0.3416;
531.3000;0.1547;-0.3192;
531.6000;0.1449;-0.3341;
531.9000;0.1481;-0.3366;
532.2000;0.1498;-0.3341;
532.5000;0.1498;-0.3391;
532.8000;0.1473;-0.3491;
533.1000;0.1498;-0.3366;
533.4000;0.1506;-0.3416;
533.7000;0.1481;-0.3466;
534.0000;0.1538;-0.3366;
534.3000;0.1530;-0.3416;
534.6000;0.1473;-0.3516;
534.9000;0.1498;-0.3491;
535.2000;0.1465;-0.3615;
535.5000;0.1490;-0.3665;
535.8000;0.1490;-0.3615;
536.1000;0.1538;-0.3466;
536.4000;0.1465;-0.3640;
536.7000;0.1465;-0.3590;
537.0000;0.1473;-0.3615;
537.3000;0.1441;-0.3715;
537.6000;0.1473;-0.3665;
537.9000;0.1473;-0.3740;
538.2000;0.1490;-0.3740;
538.5000;0.1498;-0.3765;
538.8000;0.1490;-0.3815;
539.1000;0.1481;-0.3815;
539.4000;0.1481;-0.3815;
539.7000;0.1506;-0.3715;
540.0000;0.1498;-0.3690;
540.3000;0.1481;-0.3615;
540.6000;0.1457;-0.3566;
540.9000;0.1506;-0.3441;
541.2000;0.1490;-0.3466;
541.5000;0.1522;-0.3391;
541.8000;0.1457;-0.3566;
542.1000;0.1473;-0.3566;
542.4000;0.1481;-0.3590;
542.7000;0.1490;-0.3615;
543.0000;0.1481;-0.3690;
543.3000;0.1473;-0.3690;
543.6000;0.1465;-0.3715;
543.9000;0.1490;-0.3615;
544.2000;0.1465;-0.3566;
544.5000;0.1498;-0.3541;
544.8000;0.1514;-0.3491;
545.1000;0.1498;-0.3491;
545.4000;0.1481;-0.3541;
545.7000;0.1473;-0.3466;
546.0000;0.1473;-0.3391;
546.3000;0.1481;-0.3241;
546.6000;0.1473;-0.3291;
546.9000;0.1465;-0.3291;
547.2000;0.1522;-0.3192;
547.5000;0.1465;-0.3341;
547.8000;0.1473;-0.3316;
548.1000;0.1481;-0.3316;
548.4000;0.1465;-0.3316;
548.7000;0.1465;-0.3341;
549.0000;0.1481;-0.3416;
549.3000;0.1449;-0.3640;
549.6000;0.1425;-0.3590;
549.9000;0.1481;-0.3466;
550.2000;0.1465;-0.3516;
550.5000;0.1481;-0.3516;
550.8000;0.1465;-0.3516;
551.1000;0.1441;-0.3640;
551.4000;0.1498;-0.3590;
551.7000;0.1498;-0.3615;
552.0000;0.1481;-0.3615;
552.3000;0.1465;-0.3615;
552.6000;0.1506;-0.3441;
552.9000;0.1490;-0.3416;
553.2000;0.1498;-0.3441;
553.5000;0.1595;-0.3241;
553.8000;0.1481;-0.3516;
554.1000;0.1506;-0.3441;
554.4000;0.1514;-0.3391;
554.7000;0.1490;-0.3416;
555.0000;0.1498;-0.3391;
555.3000;0.1481;-0.3416;
555.6000;0.1498;-0.3416;
555.9000;0.1473;-0.3441;
556.2000;0.1498;-0.3441;
556.5000;0.1481;-0.3366;
556.8000;0.1473;-0.3366;
557.1000;0.1473;-0.3291;
557.4000;0.1481;-0.3266;
557.7000;0.1481;-0.3341;
558.0000;0.1498;-0.3341;
558.3000;0.1481;-0.3416;
558.6000;0.1481;-0.3441;
558.9000;0.1490;-0.3391;
559.2000;0.1490;-0.3466;
559.5000;0.1441;-0.3541;
559.8000;0.1498;-0.3391;
560.1000;0.1506;-0.3491;
560.4000;0.1441;-0.3615;
560.7000;0.1481;-0.3516;
561.0000;0.1498;-0.3466;
561.3000;0.1498;-0.3441;
561.6000;0.1449;-0.3590;
561.9000;0.1481;-0.3491;
562.2000;0.1473;-0.3466;
562.5000;0.1481;-0.3341;
562.8000;0.1490;-0.3366;
563.1000;0.1498;-0.3366;
563.4000;0.1506;-0.3416;
563.7000;0.1490;-0.3341;
564.0000;0.1481;-0.3391;
564.3000;0.1481;-0.3416;
564.6000;0.1449;-0.3491;
564.9000;0.1490;-0.3391;
565.2000;0.1465;-0.3541;
565.5000;0.1498;-0.3466;
565.8000;0.1433;-0.3640;
566.1000;0.1498;-0.3516;
566.4000;0.1433;-0.3715;
566.7000;0.1481;-0.3541;
567.0000;0.1481;-0.3491;
567.3000;0.1498;-0.3391;
567.6000;0.1465;-0.3516;
567.9000;0.1498;-0.3366;
568.2000;0.1490;-0.3416;
568.5000;0.1465;-0.3541;
568.8000;0.1490;-0.3491;
569.1000;0.1457;-0.3590;
569.4000;0.1538;-0.3366;
569.7000;0.1481;-0.3516;
570.0000;0.1481;-0.3615;
570.3000;0.1457;-0.3665;
570.6000;0.1490;-0.3516;
570.9000;0.1481;-0.3615;
571.2000;0.1522;-0.3491;
571.5000;0.1506;-0.3541;
571.8000;0.1490;-0.3590;
572.1000;0.1506;-0.3491;
572.4000;0.1408;-0.3690;
572.7000;0.1481;-0.3590;
573.0000;0.1563;-0.3441;
573.3000;0.1547;-0.3466;
573.6000;0.1498;-0.3640;
573.9000;0.1506;-0.3640;
574.2000;0.1490;-0.3665;
574.5000;0.1514;-0.3640;
574.8000;0.1473;-0.3665;
575.1000;0.1498;-0.3541;
575.4000;0.1506;-0.3566;
575.7000;0.1490;-0.3491;
576.0000;0.1473;-0.3516;
576.3000;0.1465;-0.3491;
576.6000;0.1506;-0.3441;
576.9000;0.1498;-0.3416;
577.2000;0.1473;-0.3516;
577.5000;0.1490;-0.3391;
577.8000;0.1481;-0.3366;
578.1000;0.1506;-0.3366;
578.4000;0.1498;-0.3466;
578.7000;0.1506;-0.3441;
579.0000;0.1465;-0.3516;
579.3000;0.1498;-0.3416;
579.6000;0.1498;-0.3416;
579.9000;0.1498;-0.3491;
580.2000;0.1473;-0.3541;
580.5000;0.1473;-0.3516;
580.8000;0.1473;-0.3566;
581.1000;0.1481;-0.3615;
581.4000;0.1522;-0.3541;
581.7000;0.1490;-0.3615;
582.0000;0.1490;-0.3590;
582.3000;0.1498;-0.3665;
582.6000;0.1506;-0.3615;
582.9000;0.1473;-0.3615;
583.2000;0.1457;-0.3715;
583.5000;0.1498;-0.3566;
583.8000;0.1481;-0.3615;
584.1000;0.1481;-0.3516;
584.4000;0.1498;-0.3441;
584.7000;0.1473;-0.3466;
585.0000;0.1465;-0.3391;
585.3000;0.1473;-0.3541;
585.6000;0.1490;-0.3516;
585.9000;0.1481;-0.3541;
586.2000;0.1481;-0.3491;
586.5000;0.1490;-0.3341;
586.8000;0.1522;-0.3266;
587.1000;0.1490;-0.3391;
587.4000;0.1506;-0.3366;
587.7000;0.1481;-0.3441;
588.0000;0.1490;-0.3466;
588.3000;0.1579;-0.3316;
588.6000;0.1473;-0.3466;
588.9000;0.1498;-0.3466;
589.2000;0.1457;-0.3516;
589.5000;0.1425;-0.3541;
589.8000;0.1473;-0.3391;
590.1000;0.1465;-0.3491;
590.4000;0.1538;-0.3341;
590.7000;0.1490;-0.3466;
591.0000;0.1465;-0.3615;
591.3000;0.1473;-0.3640;
591.6000;0.1457;-0.3665;
591.9000;0.1481;-0.3615;
592.2000;0.1498;-0.3566;
592.5000;0.1481;-0.3615;
592.8000;0.1498;-0.3640;
593.1000;0.1538;-0.3590;
593.4000;0.1498;-0.3665;
593.7000;0.1490;-0.3590;
594.0000;0.1490;-0.3566;
594.3000;0.1473;-0.3441;
594.6000;0.1473;-0.3366;
594.9000;0.1490;-0.3516;
595.2000;0.1563;-0.3316;
595.5000;0.1473;-0.3590;
595.8000;0.1498;-0.3416;
596.1000;0.1490;-0.3541;
596.4000;0.1530;-0.3466;
596.7000;0.1490;-0.3466;
597.0000;0.1498;-0.3416;
597.3000;0.1490;-0.3391;
597.6000;0.1473;-0.3441;
597.9000;0.1481;-0.3466;
598.2000;0.1473;-0.3491;
598.5000;0.1506;-0.3541;
598.8000;0.1490;-0.3615;
599.1000;0.1376;-0.3890;
599.4000;0.1473;-0.3640;
599.7000;0.1490;-0.3615;
600.0000;0.1449;-0.3640;
600.3000;0.1416;-0.3865;
600.6000;0.1473;-0.3590;
600.9000;0.1465;-0.3640;
601.2000;0.1457;-0.3815;
601.5000;0.1473;-0.3964;
601.8000;0.1457;-0.4139;
602.1000;0.1425;-0.4463;
602.4000;0.1425;-0.4638;
602.7000;0.1416;-0.4737;
603.0000;0.1400;-0.4762;
603.3000;0.1416;-0.4837;
603.6000;0.1416;-0.4912;
603.9000;0.1376;-0.4962;
604.2000;0.1368;-0.5136;
604.5000;0.1392;-0.5062;
604.8000;0.1368;-0.5261;
605.1000;0.1359;-0.5386;
605.4000;0.1302;-0.5635;
605.7000;0.1359;-0.5560;
606.0000;0.1359;-0.5735;
606.3000;0.1359;-0.5710;
606.6000;0.1343;-0.5735;
606.9000;0.1351;-0.5660;
607.2000;0.1351;-0.5760;
607.5000;0.1335;-0.5834;
607.8000;0.1359;-0.5859;
608.1000;0.1351;-0.5785;
608.4000;0.1343;-0.5685;
608.7000;0.1343;-0.5710;
609.0000;0.1335;-0.5710;
609.3000;0.1359;-0.5685;
609.6000;0.1351;-0.5660;
609.9000;0.1351;-0.5710;
610.2000;0.1335;-0.5710;
610.5000;0.1343;-0.5710;
610.8000;0.1335;-0.5635;
611.1000;0.1408;-0.5510;
611.4000;0.1343;-0.5735;
611.7000;0.1335;-0.5710;
612.0000;0.1335;-0.5735;
612.3000;0.1368;-0.5635;
612.6000;0.1351;-0.5685;
612.9000;0.1343;-0.5760;
613.2000;0.1302;-0.5834;
613.5000;0.1335;-0.5760;
613.8000;0.1343;-0.5660;
614.1000;0.1311;-0.5810;
614.4000;0.1335;-0.5834;
614.7000;0.1302;-0.6009;
615.0000;0.1311;-0.5934;
615.3000;0.1302;-0.5934;
615.6000;0.1262;-0.5934;
615.9000;0.1327;-0.5785;
616.2000;0.1319;-0.5735;
616.5000;0.1343;-0.5685;
616.8000;0.1237;-0.5959;
617.1000;0.1335;-0.5635;
617.4000;0.1335;-0.5685;
617.7000;0.1319;-0.5810;
618.0000;0.1335;-0.5859;
618.3000;0.1319;-0.5909;
618.6000;0.1327;-0.5859;
618.9000;0.1335;-0.5834;
619.2000;0.1351;-0.5834;
619.5000;0.1335;-0.5859;
619.8000;0.1319;-0.5884;
620.1000;0.1319;-0.5859;
620.4000;0.1327;-0.5859;
620.7000;0.1319;-0.5834;
621.0000;0.1319;-0.5710;
621.3000;0.1400;-0.5610;
621.6000;0.1319;-0.5834;
621.9000;0.1384;-0.5685;
622.2000;0.1302;-0.5909;
622.5000;0.1311;-0.5934;
622.8000;0.1343;-0.5834;
623.1000;0.1327;-0.5785;
623.4000;0.1335;-0.5810;
623.7000;0.1335;-0.5859;
624.0000;0.1327;-0.5909;
624.3000;0.1343;-0.5859;
624.6000;0.1392;-0.5760;
624.9000;0.1327;-0.5959;
625.2000;0.1351;-0.5934;
625.5000;0.1327;-0.5934;
625.8000;0.1319;-0.5909;
626.1000;0.1327;-0.5884;
626.4000;0.1351;-0.5785;
626.7000;0.1319;-0.5909;
627.0000;0.1327;-0.5909;
627.3000;0.1302;-0.5959;
627.6000;0.1319;-0.5810;
627.9000;0.1327;-0.5760;
628.2000;0.1294;-0.5859;
628.5000;0.1319;-0.5909;
628.8000;0.1343;-0.5959;
629.1000;0.1294;-0.6159;
629.4000;0.1327;-0.5934;
629.7000;0.1319;-0.5934;
630.0000;0.1327;-0.5959;
630.3000;0.1449;-0.5585;
630.6000;0.1319;-0.5884;
630.9000;0.1319;-0.5909;
631.2000;0.1319;-0.6009;
631.5000;0.1400;-0.5810;
631.8000;0.1302;-0.6059;
632.1000;0.1319;-0.6034;
632.4000;0.1343;-0.5934;
632.7000;0.1327;-0.6034;
633.0000;0.1270;-0.6184;
633.3000;0.1327;-0.5959;
633.6000;0.1327;-0.5984;
633.9000;0.1335;-0.5984;
634.2000;0.1343;-0.5959;
634.5000;0.1335;-0.5884;
634.8000;0.1327;-0.5934;
635.1000;0.1327;-0.5984;
635.4000;0.1335;-0.5934;
635.7000;0.1335;-0.5909;
636.0000;0.1319;-0.5984;
636.3000;0.1351;-0.5959;
636.6000;0.1327;-0.5984;
636.9000;0.1311;-0.5934;
637.2000;0.1311;-0.5884;
637.5000;0.1327;-0.5934;
637.8000;0.1319;-0.5934;
638.1000;0.1245;-0.6159;
638.4000;0.1311;-0.6059;
638.7000;0.1327;-0.6009;
639.0000;0.1327;-0.5934;
639.3000;0.1327;-0.5909;
639.6000;0.1319;-0.5984;
639.9000;0.1327;-0.5959;
640.2000;0.1343;-0.5859;
640.5000;0.1335;-0.5909;
640.8000;0.1311;-0.5909;
641.1000;0.1376;-0.5660;
641.4000;0.1335;-0.5785;
641.7000;0.1294;-0.6009;
642.0000;0.1327;-0.5884;
642.3000;0.1327;-0.5810;
642.6000;0.1302;-0.5859;
642.9000;0.1319;-0.5884;
643.2000;0.1327;-0.5859;
643.5000;0.1327;-0.5934;
643.8000;0.1319;-0.5834;
644.1000;0.1302;-0.5859;
644.4000;0.1343;-0.5859;
644.7000;0.1311;-0.5934;
645.0000;0.1327;-0.5984;
645.3000;0.1335;-0.5909;
645.6000;0.1368;-0.5810;
645.9000;0.1327;-0.5909;
646.2000;0.1278;-0.6059;
646.5000;0.1408;-0.5735;
646.8000;0.1319;-0.5984;
647.1000;0.1311;-0.5934;
647.4000;0.1294;-0.5959;
647.7000;0.1302;-0.6009;
648.0000;0.1327;-0.5909;
648.3000;0.1286;-0.5884;
648.6000;0.1311;-0.5834;
648.9000;0.1335;-0.5834;
649.2000;0.1327;-0.6009;
649.5000;0.1327;-0.6109;
649.8000;0.1319;-0.6109;
650.1000;0.1327;-0.6034;
650.4000;0.1319;-0.6109;
650.7000;0.1311;-0.6109;
651.0000;0.1335;-0.5959;
651.3000;0.1286;-0.6159;
651.6000;0.1311;-0.6134;
651.9000;0.1319;-0.6084;
652.2000;0.1319;-0.6134;
652.5000;0.1302;-0.6184;
652.8000;0.1311;-0.6208;
653.1000;0.1254;-0.6308;
653.4000;0.1319;-0.6109;
653.7000;0.1335;-0.6059;
654.0000;0.1335;-0.6059;
654.3000;0.1400;-0.6009;
654.6000;0.1311;-0.6258;
654.9000;0.1311;-0.6258;
655.2000;0.1286;-0.6258;
655.5000;0.1311;-0.6134;
655.8000;0.1327;-0.6109;
656.1000;0.1384;-0.5934;
656.4000;0.1302;-0.6109;
656.7000;0.1335;-0.6059;
657.0000;0.1311;-0.6009;
657.3000;0.1311;-0.6059;
657.6000;0.1319;-0.6034;
657.9000;0.1343;-0.5984;
658.2000;0.1311;-0.6059;
658.5000;0.1319;-0.5934;
658.8000;0.1327;-0.5884;
659.1000;0.1351;-0.5859;
659.4000;0.1416;-0.5610;
659.7000;0.1278;-0.5934;
660.0000;0.1302;-0.5810;
660.3000;0.1311;-0.5785;
660.6000;0.1343;-0.5760;
660.9000;0.1335;-0.5884;
661.2000;0.1319;-0.5834;
661.5000;0.1327;-0.5934;
661.8000;0.1319;-0.5984;
662.1000;0.1359;-0.5884;
662.4000;0.1311;-0.5959;
662.7000;0.1335;-0.6034;
663.0000;0.1335;-0.6009;
663.3000;0.1335;-0.6009;
663.6000;0.1286;-0.6134;
663.9000;0.1294;-0.6134;
664.2000;0.1319;-0.6084;
664.5000;0.1319;-0.6084;
664.8000;0.1311;-0.6109;
665.1000;0.1311;-0.6134;
665.4000;0.1302;-0.6084;
665.7000;0.1319;-0.6084;
666.0000;0.1294;-0.6134;
666.3000;0.1319;-0.6034;
666.6000;0.1278;-0.6034;
666.9000;0.1335;-0.5934;
667.2000;0.1319;-0.5934;
667.5000;0.1343;-0.5909;
667.8000;0.1327;-0.6009;
668.1000;0.1327;-0.6034;
668.4000;0.1335;-0.6034;
668.7000;0.1319;-0.6134;
669.0000;0.1319;-0.6159;
669.3000;0.1278;-0.6308;
669.6000;0.1294;-0.6283;
669.9000;0.1302;-0.6208;
670.2000;0.1286;-0.6233;
670.5000;0.1319;-0.6159;
670.8000;0.1327;-0.6184;
671.1000;0.1302;-0.6308;
671.4000;0.1319;-0.6258;
671.7000;0.1319;-0.6208;
672.0000;0.1327;-0.6134;
672.3000;0.1392;-0.6009;
672.6000;0.1327;-0.6233;
672.9000;0.1302;-0.6233;
673.2000;0.1392;-0.5959;
673.5000;0.1327;-0.6034;
673.8000;0.1302;-0.6084;
674.1000;0.1302;-0.6059;
674.4000;0.1294;-0.6134;
674.7000;0.1286;-0.6208;
675.0000;0.1311;-0.6233;
675.3000;0.1294;-0.6358;
675.6000;0.1343;-0.6184;
675.9000;0.1311;-0.6208;
676.2000;0.1311;-0.6159;
676.5000;0.1327;-0.6084;
676.8000;0.1319;-0.6159;
677.1000;0.1319;-0.6134;
677.4000;0.1311;-0.6134;
677.7000;0.1327;-0.6233;
678.0000;0.1335;-0.6159;
678.3000;0.1319;-0.6233;
678.6000;0.1327;-0.6233;
678.9000;0.1270;-0.6358;
679.2000;0.1327;-0.6084;
679.5000;0.1327;-0.6084;
679.8000;0.1343;-0.6084;
680.1000;0.1319;-0.6184;
680.4000;0.1302;-0.6184;
680.7000;0.1319;-0.6109;
681.0000;0.1319;-0.6109;
681.3000;0.1302;-0.6208;
681.6000;0.1278;-0.6308;
681.9000;0.1302;-0.6208;
682.2000;0.1343;-0.6109;
682.5000;0.1254;-0.6283;
682.8000;0.1319;-0.6059;
683.1000;0.1311;-0.6084;
683.4000;0.1335;-0.6059;
683.7000;0.1335;-0.6034;
684.0000;0.1343;-0.5934;
684.3000;0.1311;-0.5984;
684.6000;0.1294;-0.6084;
684.9000;0.1368;-0.5909;
685.2000;0.1302;-0.6059;
685.5000;0.1294;-0.6084;
685.8000;0.1311;-0.6134;
686.1000;0.1327;-0.5984;
686.4000;0.1311;-0.6084;
686.7000;0.1294;-0.6084;
687.0000;0.1311;-0.6034;
687.3000;0.1270;-0.6009;
687.6000;0.1311;-0.5834;
687.9000;0.1319;-0.5934;
688.2000;0.1319;-0.5934;
688.5000;0.1335;-0.5934;
688.8000;0.1311;-0.5984;
689.1000;0.1335;-0.5884;
689.4000;0.1278;-0.6109;
689.7000;0.1335;-0.6059;
690.0000;0.1278;-0.6109;
690.3000;0.1376;-0.5884;
690.6000;0.1311;-0.6034;
690.9000;0.1311;-0.6034;
691.2000;0.1319;-0.6059;
691.5000;0.1311;-0.6034;
691.8000;0.1319;-0.6134;
692.1000;0.1286;-0.6258;
692.4000;0.1327;-0.6059;
692.7000;0.1319;-0.6084;
693.0000;0.1335;-0.6009;
693.3000;0.1319;-0.6084;
693.6000;0.1302;-0.6159;
693.9000;0.1327;-0.6233;
694.2000;0.1376;-0.6034;
694.5000;0.1327;-0.6233;
694.8000;0.1319;-0.6233;
695.1000;0.1311;-0.6184;
695.4000;0.1311;-0.6258;
695.7000;0.1319;-0.6258;
696.0000;0.1343;-0.6184;
696.3000;0.1319;-0.6184;
696.6000;0.1311;-0.6233;
696.9000;0.1335;-0.6109;
697.2000;0.1311;-0.6109;
697.5000;0.1319;-0.6159;
697.8000;0.1286;-0.6283;
698.1000;0.1327;-0.6208;
698.4000;0.1319;-0.6184;
698.7000;0.1311;-0.6258;
699.0000;0.1335;-0.6134;
699.3000;0.1319;-0.6109;
699.6000;0.1327;-0.6084;
699.9000;0.1327;-0.6134;
700.2000;0.1335;-0.6159;
700.5000;0.1302;-0.6233;
700.8000;0.1343;-0.6184;
701.1000;0.1327;-0.6208;
701.4000;0.1302;-0.6258;
701.7000;0.1327;-0.6184;
702.0000;0.1302;-0.6184;
702.3000;0.1335;-0.6109;
702.6000;0.1302;-0.6109;
702.9000;0.1294;-0.6134;
703.2000;0.1302;-0.6184;
703.5000;0.1319;-0.6258;
703.8000;0.1294;-0.6358;
704.1000;0.1278;-0.6408;
704.4000;0.1302;-0.6333;
704.7000;0.1319;-0.6358;
705.0000;0.1343;-0.6283;
705.3000;0.1311;-0.6233;
705.6000;0.1294;-0.6258;
705.9000;0.1311;-0.6333;
706.2000;0.1319;-0.6358;
706.5000;0.1270;-0.6458;
706.8000;0.1319;-0.6283;
707.1000;0.1319;-0.6184;
707.4000;0.1335;-0.6159;
707.7000;0.1311;-0.6184;
708.0000;0.1294;-0.6233;
708.3000;0.1302;-0.6283;
708.6000;0.1319;-0.6258;
708.9000;0.1311;-0.6283;
709.2000;0.1319;-0.6333;
709.5000;0.1311;-0.6358;
709.8000;0.1294;-0.6408;
710.1000;0.1359;-0.6258;
710.4000;0.1294;-0.6458;
710.7000;0.1311;-0.6358;
711.0000;0.1311;-0.6258;
711.3000;0.1335;-0.6233;
711.6000;0.1311;-0.6308;
711.9000;0.1335;-0.6233;
712.2000;0.1327;-0.6134;
712.5000;0.1433;-0.5810;
712.8000;0.1327;-0.6059;
713.1000;0.1327;-0.6109;
713.4000;0.1319;-0.6159;
713.7000;0.1335;-0.6184;
714.0000;0.1319;-0.6184;
714.3000;0.1408;-0.5984;
714.6000;0.1343;-0.6159;
714.9000;0.1319;-0.6159;
715.2000;0.1327;-0.6134;
715.5000;0.1327;-0.6159;
715.8000;0.1311;-0.6184;
716.1000;0.1335;-0.6184;
716.4000;0.1343;-0.6233;
716.7000;0.1319;-0.6308;
717.0000;0.1319;-0.6159;
717.3000;0.1311;-0.6233;
717.6000;0.1327;-0.6283;
717.9000;0.1319;-0.6283;
718.2000;0.1302;-0.6258;
718.5000;0.1278;-0.6283;
718.8000;0.1327;-0.6184;
719.1000;0.1311;-0.6184;
719.4000;0.1327;-0.6134;
719.7000;0.1319;-0.6159;
720.0000;0.1319;-0.6233;
720.3000;0.1343;-0.6184;
720.6000;0.1327;-0.6159;
720.9000;0.1335;-0.6184;
721.2000;0.1335;-0.6159;
721.5000;0.1262;-0.6358;
721.8000;0.1319;-0.6184;
722.1000;0.1343;-0.6208;
722.4000;0.1359;-0.6109;
722.7000;0.1327;-0.6184;
723.0000;0.1343;-0.6134;
723.3000;0.1327;-0.6134;
723.6000;0.1327;-0.6109;
723.9000;0.1343;-0.6084;
724.2000;0.1335;-0.6184;
724.5000;0.1311;-0.6233;
724.8000;0.1327;-0.6308;
725.1000;0.1327;-0.6358;
725.4000;0.1335;-0.6308;
725.7000;0.1327;-0.6308;
726.0000;0.1327;-0.6233;
726.3000;0.1327;-0.6233;
726.6000;0.1327;-0.6159;
726.9000;0.1311;-0.6159;
727.2000;0.1319;-0.6208;
727.5000;0.1319;-0.6233;
727.8000;0.1327;-0.6283;
728.1000;0.1327;-0.6383;
728.4000;0.1327;-0.6283;
728.7000;0.1319;-0.6333;
729.0000;0.1302;-0.6383;
729.3000;0.1311;-0.6208;
729.6000;0.1319;-0.6109;
729.9000;0.1327;-0.6059;
730.2000;0.1311;-0.6109;
730.5000;0.1327;-0.6034;
730.8000;0.1311;-0.6084;
731.1000;0.1294;-0.6059;
731.4000;0.1302;-0.6034;
731.7000;0.1335;-0.5984;
732.0000;0.1311;-0.6134;
732.3000;0.1302;-0.6084;
732.6000;0.1335;-0.6034;
732.9000;0.1229;-0.6358;
733.2000;0.1327;-0.6034;
733.5000;0.1327;-0.6109;
733.8000;0.1327;-0.6109;
734.1000;0.1311;-0.6134;
734.4000;0.1327;-0.6283;
734.7000;0.1311;-0.6258;
735.0000;0.1278;-0.6283;
735.3000;0.1311;-0.6159;
735.6000;0.1319;-0.6109;
735.9000;0.1294;-0.6184;
736.2000;0.1311;-0.6159;
736.5000;0.1384;-0.5834;
736.8000;0.1335;-0.6059;
737.1000;0.1245;-0.6283;
737.4000;0.1311;-0.6134;
737.7000;0.1319;-0.6159;
738.0000;0.1343;-0.6134;
738.3000;0.1311;-0.6233;
738.6000;0.1327;-0.6184;
738.9000;0.1319;-0.6283;
739.2000;0.1343;-0.6184;
739.5000;0.1327;-0.6184;
739.8000;0.1319;-0.6258;
740.1000;0.1319;-0.6233;
740.4000;0.1416;-0.6009;
740.7000;0.1335;-0.6258;
741.0000;0.1319;-0.6333;
741.3000;0.1270;-0.6632;
741.6000;0.1384;-0.6358;
741.9000;0.1286;-0.6458;
742.2000;0.1376;-0.6233;
742.5000;0.1335;-0.6358;
742.8000;0.1319;-0.6408;
743.1000;0.1327;-0.6383;
743.4000;0.1311;-0.6458;
743.7000;0.1319;-0.6483;
744.0000;0.1327;-0.6508;
744.3000;0.1327;-0.6508;
744.6000;0.1335;-0.6508;
744.9000;0.1311;-0.6583;
745.2000;0.1319;-0.6583;
745.5000;0.1311;-0.6558;
745.8000;0.1327;-0.6433;
746.1000;0.1335;-0.6333;
746.4000;0.1319;-0.6383;
746.7000;0.1319;-0.6358;
747.0000;0.1343;-0.6233;
747.3000;0.1335;-0.6283;
747.6000;0.1351;-0.6358;
747.9000;0.1335;-0.6458;
748.2000;0.1327;-0.6433;
748.5000;0.1327;-0.6383;
748.8000;0.1302;-0.6483;
749.1000;0.1343;-0.6383;
749.4000;0.1327;-0.6408;
749.7000;0.1327;-0.6383;
750.0000;0.1327;-0.6383;
750.3000;0.1319;-0.6308;
750.6000;0.1335;-0.6283;
750.9000;0.1327;-0.6258;
751.2000;0.1319;-0.6283;
751.5000;0.1302;-0.6458;
751.8000;0.1327;-0.6458;
752.1000;0.1343;-0.6333;
752.4000;0.1286;-0.6383;
752.7000;0.1327;-0.6208;
753.0000;0.1319;-0.6208;
753.3000;0.1319;-0.6159;
753.6000;0.1270;-0.6283;
753.9000;0.1302;-0.6233;
754.2000;0.1327;-0.6184;
754.5000;0.1311;-0.6184;
754.8000;0.1327;-0.6134;
755.1000;0.1327;-0.6208;
755.4000;0.1319;-0.6308;
755.7000;0.1319;-0.6233;
756.0000;0.1359;-0.6159;
756.3000;0.1302;-0.6184;
756.6000;0.1302;-0.6159;
756.9000;0.1302;-0.6283;
757.2000;0.1335;-0.6134;
757.5000;0.1335;-0.6059;
757.8000;0.1327;-0.6059;
758.1000;0.1294;-0.6109;
758.4000;0.1368;-0.6009;
758.7000;0.1327;-0.6208;
759.0000;0.1319;-0.6333;
759.3000;0.1343;-0.6283;
759.6000;0.1327;-0.6333;
759.9000;0.1286;-0.6383;
760.2000;0.1327;-0.6208;
760.5000;0.1319;-0.6233;
760.8000;0.1319;-0.6233;
761.1000;0.1311;-0.6208;
761.4000;0.1319;-0.6233;
761.7000;0.1302;-0.6258;
762.0000;0.1319;-0.6258;
762.3000;0.1335;-0.6208;
762.6000;0.1319;-0.6208;
762.9000;0.1319;-0.6184;
763.2000;0.1400;-0.6034;
763.5000;0.1327;-0.6159;
763.8000;0.1335;-0.6184;
764.1000;0.1311;-0.6258;
764.4000;0.1302;-0.6408;
764.7000;0.1319;-0.6333;
765.0000;0.1278;-0.6458;
765.3000;0.1327;-0.6208;
765.6000;0.1319;-0.6134;
765.9000;0.1319;-0.6159;
766.2000;0.1319;-0.6159;
766.5000;0.1270;-0.6258;
766.8000;0.1319;-0.6109;
767.1000;0.1319;-0.6184;
767.4000;0.1311;-0.6134;
767.7000;0.1311;-0.6084;
768.0000;0.1311;-0.6059;
768.3000;0.1311;-0.5984;
768.6000;0.1327;-0.6009;
768.9000;0.1327;-0.6134;
769.2000;0.1359;-0.6134;
769.5000;0.1302;-0.6208;
769.8000;0.1327;-0.6084;
770.1000;0.1311;-0.6134;
770.4000;0.1335;-0.6009;
770.7000;0.1311;-0.6134;
771.0000;0.1327;-0.6084;
771.3000;0.1368;-0.5984;
771.6000;0.1319;-0.6208;
771.9000;0.1327;-0.6258;
772.2000;0.1319;-0.6308;
772.5000;0.1335;-0.6333;
772.8000;0.1319;-0.6283;
773.1000;0.1311;-0.6333;
773.4000;0.1335;-0.6383;
773.7000;0.1359;-0.6283;
774.0000;0.1319;-0.6458;
774.3000;0.1319;-0.6433;
774.6000;0.1270;-0.6508;
774.9000;0.1311;-0.6358;
775.2000;0.1311;-0.6408;
775.5000;0.1286;-0.6533;
775.8000;0.1327;-0.6408;
776.1000;0.1311;-0.6308;
776.4000;0.1335;-0.6333;
776.7000;0.1376;-0.6233;
777.0000;0.1327;-0.6358;
777.3000;0.1311;-0.6433;
777.6000;0.1270;-0.6508;
777.9000;0.1327;-0.6333;
778.2000;0.1311;-0.6308;
778.5000;0.1270;-0.6358;
778.8000;0.1343;-0.6134;
779.1000;0.1343;-0.6159;
779.4000;0.1433;-0.5884;
779.7000;0.1327;-0.6134;
780.0000;0.1311;-0.6184;
780.3000;0.1319;-0.6208;
780.6000;0.1343;-0.6084;
780.9000;0.1294;-0.6159;
781.2000;0.1311;-0.6084;
781.5000;0.1327;-0.6159;
781.8000;0.1302;-0.6233;
782.1000;0.1278;-0.6283;
782.4000;0.1327;-0.6184;
782.7000;0.1319;-0.6208;
783.0000;0.1311;-0.6159;
783.3000;0.1311;-0.6233;
783.6000;0.1311;-0.6258;
783.9000;0.1335;-0.6184;
784.2000;0.1294;-0.6233;
784.5000;0.1286;-0.6308;
784.8000;0.1319;-0.6159;
785.1000;0.1343;-0.6059;
785.4000;0.1311;-0.6084;
785.7000;0.1311;-0.6009;
786.0000;0.1319;-0.6034;
786.3000;0.1335;-0.6009;
786.6000;0.1359;-0.5959;
786.9000;0.1311;-0.6009;
787.2000;0.1311;-0.6084;
787.5000;0.1335;-0.5959;
787.8000;0.1311;-0.6059;
788.1000;0.1302;-0.6109;
788.4000;0.1262;-0.6184;
788.7000;0.1335;-0.6009;
789.0000;0.1294;-0.6134;
789.3000;0.1327;-0.6059;
789.6000;0.1311;-0.6159;
789.9000;0.1327;-0.6208;
790.2000;0.1335;-0.6208;
790.5000;0.1319;-0.6358;
790.8000;0.1311;-0.6308;
791.1000;0.1302;-0.6283;
791.4000;0.1311;-0.6184;
791.7000;0.1270;-0.6233;
792.0000;0.1286;-0.6208;
792.3000;0.1319;-0.6134;
792.6000;0.1286;-0.6184;
792.9000;0.1327;-0.6134;
793.2000;0.1319;-0.6333;
793.5000;0.1359;-0.6159;
793.8000;0.1327;-0.6184;
794.1000;0.1229;-0.6533;
794.4000;0.1392;-0.6034;
794.7000;0.1327;-0.6184;
795.0000;0.1319;-0.6184;
795.3000;0.1335;-0.6184;
795.6000;0.1327;-0.6283;
795.9000;0.1311;-0.6383;
796.2000;0.1311;-0.6308;
796.5000;0.1327;-0.6208;
796.8000;0.1327;-0.6283;
797.1000;0.1302;-0.6333;
797.4000;0.1319;-0.6283;
797.7000;0.1311;-0.6233;
798.0000;0.1311;-0.6208;
798.3000;0.1311;-0.6333;
798.6000;0.1294;-0.6308;
798.9000;0.1343;-0.6308;
799.2000;0.1343;-0.6408;
799.5000;0.1359;-0.6308;
799.8000;0.1319;-0.6358;
800.1000;0.1327;-0.6233;
800.4000;0.1335;-0.6184;
800.7000;0.1368;-0.6109;
801.0000;0.1294;-0.6308;
801.3000;0.1376;-0.6059;
801.6000;0.1327;-0.6258;
801.9000;0.1335;-0.6184;
802.2000;0.1311;-0.6184;
802.5000;0.1319;-0.6084;
802.8000;0.1327;-0.6084;
803.1000;0.1319;-0.6208;
803.4000;0.1319;-0.6159;
803.7000;0.1327;-0.6184;
804.0000;0.1327;-0.6184;
804.3000;0.1311;-0.6109;
804.6000;0.1351;-0.6034;
804.9000;0.1302;-0.6159;
805.2000;0.1327;-0.6109;
805.5000;0.1351;-0.5984;
805.8000;0.1319;-0.5934;
806.1000;0.1335;-0.5859;
806.4000;0.1359;-0.5760;
806.7000;0.1319;-0.5934;
807.0000;0.1319;-0.5959;
807.3000;0.1311;-0.6009;
807.6000;0.1319;-0.6059;
807.9000;0.1229;-0.6333;
808.2000;0.1343;-0.6109;
808.5000;0.1335;-0.6184;
808.8000;0.1319;-0.6283;
809.1000;0.1327;-0.6233;
809.4000;0.1294;-0.6233;
809.7000;0.1327;-0.6208;
810.0000;0.1319;-0.6184;
810.3000;0.1327;-0.6208;
810.6000;0.1302;-0.6258;
810.9000;0.1319;-0.6208;
811.2000;0.1335;-0.6233;
811.5000;0.1294;-0.6308;
811.8000;0.1327;-0.6333;
812.1000;0.1327;-0.6383;
812.4000;0.1351;-0.6184;
812.7000;0.1319;-0.6208;
813.0000;0.1319;-0.6159;
813.3000;0.1327;-0.6084;
813.6000;0.1294;-0.6109;
813.9000;0.1327;-0.5959;
814.2000;0.1311;-0.5934;
814.5000;0.1335;-0.5810;
814.8000;0.1335;-0.5810;
815.1000;0.1335;-0.5934;
815.4000;0.1311;-0.6134;
815.7000;0.1311;-0.6059;
816.0000;0.1294;-0.6134;
816.3000;0.1311;-0.6208;
816.6000;0.1311;-0.6208;
816.9000;0.1311;-0.6208;
817.2000;0.1335;-0.6134;
817.5000;0.1392;-0.6034;
817.8000;0.1319;-0.6184;
818.1000;0.1351;-0.6084;
818.4000;0.1311;-0.6159;
818.7000;0.1327;-0.6208;
819.0000;0.1294;-0.6308;
819.3000;0.1343;-0.6233;
819.6000;0.1327;-0.6383;
819.9000;0.1311;-0.6383;
820.2000;0.1335;-0.6258;
820.5000;0.1343;-0.6233;
820.8000;0.1335;-0.6184;
821.1000;0.1262;-0.6333;
821.4000;0.1335;-0.6159;
821.7000;0.1311;-0.6208;
822.0000;0.1400;-0.5984;
822.3000;0.1270;-0.6358;
822.6000;0.1319;-0.6308;
822.9000;0.1319;-0.6358;
823.2000;0.1319;-0.6258;
823.5000;0.1278;-0.6333;
823.8000;0.1286;-0.6283;
824.1000;0.1384;-0.6009;
824.4000;0.1302;-0.6283;
824.7000;0.1319;-0.6233;
825.0000;0.1327;-0.6308;
825.3000;0.1343;-0.6233;
825.6000;0.1302;-0.6358;
825.9000;0.1319;-0.6408;
826.2000;0.1278;-0.6508;
826.5000;0.1319;-0.6408;
826.8000;0.1319;-0.6433;
827.1000;0.1335;-0.6308;
827.4000;0.1319;-0.6308;
827.7000;0.1311;-0.6358;
828.0000;0.1302;-0.6408;
828.3000;0.1335;-0.6184;
828.6000;0.1319;-0.6233;
828.9000;0.1335;-0.6258;
829.2000;0.1319;-0.6283;
829.5000;0.1335;-0.6208;
829.8000;0.1335;-0.6184;
830.1000;0.1319;-0.6208;
830.4000;0.1311;-0.6308;
830.7000;0.1335;-0.6233;
831.0000;0.1221;-0.6483;
831.3000;0.1311;-0.6208;
831.6000;0.1343;-0.6084;
831.9000;0.1319;-0.6184;
832.2000;0.1319;-0.6184;
832.5000;0.1343;-0.6208;
832.8000;0.1294;-0.6233;
833.1000;0.1319;-0.6059;
833.4000;0.1327;-0.5959;
833.7000;0.1319;-0.5984;
834.0000;0.1302;-0.5984;
834.3000;0.1319;-0.5934;
834.6000;0.1327;-0.5834;
834.9000;0.1327;-0.5884;
835.2000;0.1335;-0.6009;
835.5000;0.1343;-0.6034;
835.8000;0.1302;-0.6159;
836.1000;0.1311;-0.6134;
836.4000;0.1368;-0.5909;
836.7000;0.1335;-0.6059;
837.0000;0.1286;-0.6109;
837.3000;0.1327;-0.6034;
837.6000;0.1302;-0.6134;
837.9000;0.1319;-0.6134;
838.2000;0.1319;-0.6184;
838.5000;0.1319;-0.6208;
838.8000;0.1319;-0.6159;
839.1000;0.1335;-0.6134;
839.4000;0.1286;-0.6184;
839.7000;0.1319;-0.6009;
840.0000;0.1270;-0.6084;
840.3000;0.1351;-0.6034;
840.6000;0.1262;-0.6283;
840.9000;0.1311;-0.6084;
841.2000;0.1286;-0.6059;
841.5000;0.1368;-0.5785;
841.8000;0.1311;-0.5984;
842.1000;0.1286;-0.6084;
842.4000;0.1302;-0.6208;
842.7000;0.1335;-0.6059;
843.0000;0.1254;-0.6233;
843.3000;0.1319;-0.6059;
843.6000;0.1327;-0.6084;
843.9000;0.1327;-0.6009;
844.2000;0.1335;-0.6009;
844.5000;0.1319;-0.5959;
844.8000;0.1327;-0.6009;
845.1000;0.1270;-0.6258;
845.4000;0.1311;-0.6258;
845.7000;0.1311;-0.6283;
846.0000;0.1270;-0.6358;
846.3000;0.1311;-0.6258;
846.6000;0.1311;-0.6233;
846.9000;0.1327;-0.6233;
847.2000;0.1319;-0.6283;
847.5000;0.1327;-0.6233;
847.8000;0.1311;-0.6308;
848.1000;0.1359;-0.6233;
848.4000;0.1327;-0.6283;
848.7000;0.1319;-0.6283;
849.0000;0.1335;-0.6258;
849.3000;0.1327;-0.6233;
849.6000;0.1319;-0.6283;
849.9000;0.1327;-0.6283;
850.2000;0.1327;-0.6308;
850.5000;0.1319;-0.6358;
850.8000;0.1311;-0.6433;
851.1000;0.1327;-0.6358;
851.4000;0.1319;-0.6408;
851.7000;0.1319;-0.6358;
852.0000;0.1302;-0.6408;
852.3000;0.1319;-0.6308;
852.6000;0.1327;-0.6258;
852.9000;0.1311;-0.6258;
853.2000;0.1286;-0.6358;
853.5000;0.1327;-0.6233;
853.8000;0.1327;-0.6258;
854.1000;0.1319;-0.6233;
854.4000;0.1400;-0.6059;
854.7000;0.1335;-0.6258;
855.0000;0.1319;-0.6258;
855.3000;0.1327;-0.6159;
855.6000;0.1294;-0.6233;
855.9000;0.1327;-0.6134;
856.2000;0.1351;-0.6084;
856.5000;0.1335;-0.6084;
856.8000;0.1311;-0.6059;
857.1000;0.1335;-0.6009;
857.4000;0.1319;-0.6059;
857.7000;0.1343;-0.5984;
858.0000;0.1311;-0.6134;
858.3000;0.1302;-0.6233;
858.6000;0.1311;-0.6233;
858.9000;0.1327;-0.6258;
859.2000;0.1319;-0.6258;
859.5000;0.1335;-0.6184;
859.8000;0.1343;-0.6184;
860.1000;0.1343;-0.6184;
860.4000;0.1335;-0.6109;
860.7000;0.1302;-0.6184;
861.0000;0.1319;-0.6208;
861.3000;0.1327;-0.6184;
861.6000;0.1311;-0.6184;
861.9000;0.1319;-0.6233;
862.2000;0.1221;-0.6458;
862.5000;0.1319;-0.6159;
862.8000;0.1319;-0.6134;
863.1000;0.1327;-0.6059;
863.4000;0.1368;-0.6059;
863.7000;0.1335;-0.6084;
864.0000;0.1319;-0.6084;
864.3000;0.1368;-0.5934;
864.6000;0.1368;-0.5934;
864.9000;0.1311;-0.6034;
865.2000;0.1302;-0.6059;
865.5000;0.1335;-0.6134;
865.8000;0.1327;-0.6258;
866.1000;0.1311;-0.6383;
866.4000;0.1302;-0.6333;
866.7000;0.1327;-0.6184;
867.0000;0.1319;-0.6208;
867.3000;0.1327;-0.6159;
867.6000;0.1319;-0.6134;
867.9000;0.1327;-0.6159;
868.2000;0.1311;-0.6208;
868.5000;0.1327;-0.6084;
868.8000;0.1335;-0.6109;
869.1000;0.1425;-0.5884;
869.4000;0.1392;-0.5934;
869.7000;0.1368;-0.5934;
870.0000;0.1294;-0.6159;
870.3000;0.1343;-0.6009;
870.6000;0.1270;-0.6184;
870.9000;0.1302;-0.6134;
871.2000;0.1302;-0.6109;
871.5000;0.1359;-0.5959;
871.8000;0.1327;-0.6084;
872.1000;0.1302;-0.6159;
872.4000;0.1311;-0.6134;
872.7000;0.1327;-0.5984;
873.0000;0.1319;-0.5959;
873.3000;0.1319;-0.6034;
873.6000;0.1319;-0.6059;
873.9000;0.1229;-0.6258;
874.2000;0.1327;-0.6009;
874.5000;0.1327;-0.6134;
874.8000;0.1319;-0.6084;
875.1000;0.1343;-0.5909;
875.4000;0.1327;-0.5934;
875.7000;0.1335;-0.5810;
876.0000;0.1359;-0.5760;
876.3000;0.1335;-0.5834;
876.6000;0.1319;-0.5859;
876.9000;0.1311;-0.5859;
877.2000;0.1376;-0.5760;
877.5000;0.1335;-0.5859;
877.8000;0.1311;-0.5810;
878.1000;0.1302;-0.5859;
878.4000;0.1359;-0.5685;
878.7000;0.1319;-0.5859;
879.0000;0.1302;-0.5859;
879.3000;0.1319;-0.5834;
879.6000;0.1319;-0.5959;
879.9000;0.1335;-0.5834;
880.2000;0.1335;-0.5909;
880.5000;0.1311;-0.5909;
880.8000;0.1302;-0.5934;
881.1000;0.1319;-0.5934;
881.4000;0.1319;-0.5909;
881.7000;0.1327;-0.5934;
882.0000;0.1311;-0.5959;
882.3000;0.1311;-0.5959;
882.6000;0.1278;-0.6159;
882.9000;0.1319;-0.6084;
883.2000;0.1311;-0.6059;
883.5000;0.1319;-0.6109;
883.8000;0.1335;-0.6034;
884.1000;0.1319;-0.6059;
884.4000;0.1294;-0.6034;
884.7000;0.1335;-0.5984;
885.0000;0.1327;-0.5909;
885.3000;0.1319;-0.5834;
885.6000;0.1327;-0.5810;
885.9000;0.1319;-0.5834;
886.2000;0.1302;-0.5834;
886.5000;0.1302;-0.5909;
886.8000;0.1343;-0.5735;
887.1000;0.1311;-0.5810;
887.4000;0.1319;-0.5834;
887.7000;0.1229;-0.6034;
888.0000;0.1294;-0.5884;
888.3000;0.1368;-0.5785;
888.6000;0.1311;-0.5984;
888.9000;0.1286;-0.6084;
889.2000;0.1319;-0.6034;
889.5000;0.1384;-0.5934;
889.8000;0.1319;-0.5959;
890.1000;0.1327;-0.5959;
890.4000;0.1319;-0.5984;
890.7000;0.1311;-0.6109;
891.0000;0.1327;-0.6159;
891.3000;0.1384;-0.5984;
891.6000;0.1327;-0.6159;
891.9000;0.1335;-0.6159;
892.2000;0.1311;-0.6134;
892.5000;0.1311;-0.6184;
892.8000;0.1327;-0.6059;
893.1000;0.1384;-0.5934;
893.4000;0.1319;-0.6059;
893.7000;0.1311;-0.6084;
894.0000;0.1302;-0.6109;
894.3000;0.1302;-0.6109;
894.6000;0.1400;-0.5834;
894.9000;0.1254;-0.6208;
895.2000;0.1425;-0.5710;
895.5000;0.1425;-0.5735;
895.8000;0.1327;-0.5934;
896.1000;0.1359;-0.5834;
896.4000;0.1319;-0.5834;
896.7000;0.1343;-0.5760;
897.0000;0.1302;-0.6009;
897.3000;0.1311;-0.5909;
897.6000;0.1319;-0.5884;
897.9000;0.1294;-0.5959;
898.2000;0.1327;-0.5834;
898.5000;0.1351;-0.5934;
898.8000;0.1311;-0.6034;
899.1000;0.1335;-0.5934;
899.4000;0.1311;-0.6009;
899.7000;0.1335;-0.5984;
900.0000;0.1327;-0.6084;
900.3000;0.1319;-0.6109;
900.6000;0.1319;-0.6134;
900.9000;0.1335;-0.6184;
901.2000;0.1286;-0.6383;
901.5000;0.1311;-0.6283;
901.8000;0.1319;-0.6258;
902.1000;0.1311;-0.6184;
902.4000;0.1294;-0.6109;
902.7000;0.1327;-0.6059;
903.0000;0.1302;-0.6109;
903.3000;0.1311;-0.6084;
903.6000;0.1335;-0.5959;
903.9000;0.1311;-0.6009;
904.2000;0.1335;-0.5984;
904.5000;0.1327;-0.5984;
904.8000;0.1302;-0.6109;
905.1000;0.1327;-0.6109;
905.4000;0.1319;-0.6084;
905.7000;0.1319;-0.6184;
906.0000;0.1319;-0.6109;
906.3000;0.1319;-0.6009;
906.6000;0.1327;-0.6034;
906.9000;0.1335;-0.5959;
907.2000;0.1335;-0.5909;
907.5000;0.1384;-0.5834;
907.8000;0.1319;-0.6159;
908.1000;0.1311;-0.6208;
908.4000;0.1302;-0.6184;
908.7000;0.1400;-0.5909;
909.0000;0.1302;-0.6134;
909.3000;0.1311;-0.6159;
909.6000;0.1286;-0.6333;
909.9000;0.1335;-0.6233;
910.2000;0.1319;-0.6333;
910.5000;0.1294;-0.6458;
910.8000;0.1311;-0.6333;
911.1000;0.1335;-0.6283;
911.4000;0.1319;-0.6233;
911.7000;0.1311;-0.6109;
912.0000;0.1311;-0.6134;
912.3000;0.1343;-0.6084;
912.6000;0.1294;-0.6283;
912.9000;0.1327;-0.6159;
913.2000;0.1319;-0.6109;
913.5000;0.1319;-0.5984;
913.8000;0.1376;-0.5834;
914.1000;0.1327;-0.6009;
914.4000;0.1319;-0.6084;
914.7000;0.1392;-0.5909;
915.0000;0.1319;-0.6009;
915.3000;0.1343;-0.5959;
915.6000;0.1343;-0.6034;
915.9000;0.1327;-0.6109;
916.2000;0.1335;-0.6109;
916.5000;0.1294;-0.6184;
916.8000;0.1302;-0.6084;
917.1000;0.1286;-0.6159;
917.4000;0.1319;-0.6084;
917.7000;0.1319;-0.6059;
918.0000;0.1302;-0.6084;
918.3000;0.1302;-0.6109;
918.6000;0.1376;-0.5884;
918.9000;0.1319;-0.6009;
919.2000;0.1327;-0.6109;
919.5000;0.1408;-0.5984;
919.8000;0.1368;-0.6084;
920.1000;0.1302;-0.6109;
920.4000;0.1327;-0.6009;
920.7000;0.1311;-0.6034;
921.0000;0.1335;-0.5984;
921.3000;0.1335;-0.5959;
921.6000;0.1327;-0.6084;
921.9000;0.1384;-0.5934;
922.2000;0.1335;-0.6134;
922.5000;0.1327;-0.6159;
922.8000;0.1311;-0.6184;
923.1000;0.1302;-0.6258;
923.4000;0.1311;-0.6258;
923.7000;0.1319;-0.6208;
924.0000;0.1302;-0.6283;
924.3000;0.1311;-0.6233;
924.6000;0.1319;-0.6134;
924.9000;0.1311;-0.6059;
925.2000;0.1229;-0.6159;
925.5000;0.1294;-0.6034;
925.8000;0.1327;-0.5884;
926.1000;0.1327;-0.5810;
926.4000;0.1229;-0.6134;
926.7000;0.1319;-0.5934;
927.0000;0.1302;-0.6034;
927.3000;0.1294;-0.6034;
927.6000;0.1311;-0.5959;
927.9000;0.1319;-0.5959;
928.2000;0.1319;-0.5984;
928.5000;0.1311;-0.5934;
928.8000;0.1327;-0.5959;
929.1000;0.1351;-0.5785;
929.4000;0.1335;-0.5859;
929.7000;0.1327;-0.5859;
930.0000;0.1319;-0.5884;
930.3000;0.1319;-0.6009;
930.6000;0.1319;-0.6059;
930.9000;0.1335;-0.5984;
931.2000;0.1327;-0.6034;
931.5000;0.1343;-0.6059;
931.8000;0.1327;-0.6059;
932.1000;0.1319;-0.6084;
932.4000;0.1311;-0.6109;
932.7000;0.1327;-0.6134;
933.0000;0.1270;-0.6258;
933.3000;0.1245;-0.6308;
933.6000;0.1245;-0.6433;
933.9000;0.1335;-0.6258;
934.2000;0.1343;-0.6208;
934.5000;0.1278;-0.6258;
934.8000;0.1319;-0.6134;
935.1000;0.1335;-0.6184;
935.4000;0.1319;-0.6084;
935.7000;0.1327;-0.6134;
936.0000;0.1311;-0.6184;
936.3000;0.1302;-0.6208;
936.6000;0.1229;-0.6433;
936.9000;0.1327;-0.6233;
937.2000;0.1327;-0.6233;
937.5000;0.1327;-0.6109;
937.8000;0.1294;-0.6208;
938.1000;0.1319;-0.6109;
938.4000;0.1319;-0.5984;
938.7000;0.1311;-0.6084;
939.0000;0.1335;-0.5984;
939.3000;0.1351;-0.5959;
939.6000;0.1319;-0.6134;
939.9000;0.1302;-0.6134;
940.2000;0.1319;-0.6084;
940.5000;0.1343;-0.6034;
940.8000;0.1335;-0.6084;
941.1000;0.1302;-0.6084;
941.4000;0.1311;-0.6059;
941.7000;0.1359;-0.5984;
942.0000;0.1311;-0.6109;
942.3000;0.1311;-0.6059;
942.6000;0.1319;-0.6159;
942.9000;0.1319;-0.6159;
943.2000;0.1311;-0.6233;
943.5000;0.1327;-0.6258;
943.8000;0.1319;-0.6258;
944.1000;0.1237;-0.6458;
944.4000;0.1319;-0.6233;
944.7000;0.1343;-0.6134;
945.0000;0.1319;-0.6208;
945.3000;0.1327;-0.6159;
945.6000;0.1327;-0.6184;
945.9000;0.1327;-0.6159;
946.2000;0.1368;-0.6084;
946.5000;0.1319;-0.6159;
946.8000;0.1311;-0.6233;
947.1000;0.1311;-0.6233;
947.4000;0.1327;-0.6159;
947.7000;0.1335;-0.6159;
948.0000;0.1302;-0.6159;
948.3000;0.1302;-0.6184;
948.6000;0.1327;-0.6134;
948.9000;0.1327;-0.6159;
949.2000;0.1294;-0.6258;
949.5000;0.1327;-0.6134;
949.8000;0.1302;-0.6159;
950.1000;0.1311;-0.6109;
950.4000;0.1343;-0.5959;
950.7000;0.1351;-0.5959;
951.0000;0.1311;-0.6059;
951.3000;0.1368;-0.5884;
951.6000;0.1351;-0.5884;
951.9000;0.1359;-0.5959;
952.2000;0.1262;-0.6134;
952.5000;0.1327;-0.6159;
952.8000;0.1311;-0.6059;
953.1000;0.1335;-0.5984;
953.4000;0.1254;-0.6134;
953.7000;0.1311;-0.6059;
954.0000;0.1319;-0.6109;
954.3000;0.1335;-0.6109;
954.6000;0.1311;-0.6134;
954.9000;0.1319;-0.6134;
955.2000;0.1335;-0.6084;
955.5000;0.1376;-0.6084;
955.8000;0.1319;-0.6134;
956.1000;0.1327;-0.6084;
956.4000;0.1335;-0.6059;
956.7000;0.1319;-0.6084;
957.0000;0.1327;-0.6159;
957.3000;0.1319;-0.6159;
957.6000;0.1327;-0.6159;
957.9000;0.1319;-0.6208;
958.2000;0.1343;-0.6084;
958.5000;0.1311;-0.6084;
958.8000;0.1335;-0.5884;
959.1000;0.1311;-0.5959;
959.4000;0.1311;-0.5934;
959.7000;0.1319;-0.6009;
960.0000;0.1319;-0.6109;
960.3000;0.1302;-0.6208;
960.6000;0.1327;-0.6159;
960.9000;0.1319;-0.6159;
961.2000;0.1359;-0.6084;
961.5000;0.1311;-0.6258;
961.8000;0.1327;-0.6258;
962.1000;0.1327;-0.6233;
962.4000;0.1319;-0.6358;
962.7000;0.1384;-0.6109;
963.0000;0.1319;-0.6283;
963.3000;0.1416;-0.6034;
963.6000;0.1335;-0.6258;
963.9000;0.1335;-0.6258;
964.2000;0.1319;-0.6258;
964.5000;0.1319;-0.6308;
964.8000;0.1319;-0.6283;
965.1000;0.1270;-0.6283;
965.4000;0.1319;-0.6208;
965.7000;0.1335;-0.6159;
966.0000;0.1319;-0.6109;
966.3000;0.1327;-0.6109;
966.6000;0.1327;-0.6084;
966.9000;0.1351;-0.5909;
967.2000;0.1327;-0.5909;
967.5000;0.1343;-0.5884;
967.8000;0.1327;-0.6009;
968.1000;0.1343;-0.5984;
968.4000;0.1343;-0.5984;
968.7000;0.1311;-0.6208;
969.0000;0.1327;-0.6159;
969.3000;0.1327;-0.6184;
969.6000;0.1335;-0.6184;
969.9000;0.1302;-0.6308;
970.2000;0.1286;-0.6383;
970.5000;0.1359;-0.6233;
970.8000;0.1319;-0.6184;
971.1000;0.1335;-0.6283;
971.4000;0.1343;-0.6233;
971.7000;0.1335;-0.6258;
972.0000;0.1319;-0.6184;
972.3000;0.1343;-0.6084;
972.6000;0.1319;-0.6034;
972.9000;0.1319;-0.6034;
973.2000;0.1302;-0.6059;
973.5000;0.1294;-0.6134;
973.8000;0.1368;-0.5959;
974.1000;0.1311;-0.6109;
974.4000;0.1343;-0.6184;
974.7000;0.1311;-0.6233;
975.0000;0.1327;-0.6283;
975.3000;0.1302;-0.6283;
975.6000;0.1335;-0.6184;
975.9000;0.1327;-0.6109;
976.2000;0.1302;-0.6283;
976.5000;0.1343;-0.6233;
976.8000;0.1286;-0.6408;
977.1000;0.1343;-0.6184;
977.4000;0.1335;-0.6283;
977.7000;0.1327;-0.6258;
978.0000;0.1270;-0.6408;
978.3000;0.1327;-0.6258;
978.6000;0.1319;-0.6208;
978.9000;0.1319;-0.6184;
979.2000;0.1311;-0.6258;
979.5000;0.1327;-0.6184;
979.8000;0.1335;-0.6159;
980.1000;0.1335;-0.6208;
980.4000;0.1335;-0.6208;
980.7000;0.1311;-0.6258;
981.0000;0.1327;-0.6283;
981.3000;0.1286;-0.6308;
981.6000;0.1343;-0.6134;
981.9000;0.1311;-0.6258;
982.2000;0.1384;-0.6059;
982.5000;0.1311;-0.6208;
982.8000;0.1302;-0.6258;
983.1000;0.1319;-0.6208;
983.4000;0.1327;-0.6283;
983.7000;0.1319;-0.6233;
984.0000;0.1368;-0.6109;
984.3000;0.1327;-0.6208;
984.6000;0.1335;-0.6283;
984.9000;0.1327;-0.6358;
985.2000;0.1327;-0.6358;
985.5000;0.1368;-0.6134;
985.8000;0.1327;-0.6233;
986.1000;0.1335;-0.6159;
986.4000;0.1335;-0.6134;
986.7000;0.1335;-0.6084;
987.0000;0.1262;-0.6159;
987.3000;0.1286;-0.6109;
987.6000;0.1343;-0.5934;
987.9000;0.1302;-0.6034;
988.2000;0.1319;-0.5909;
988.5000;0.1311;-0.5934;
988.8000;0.1343;-0.5934;
989.1000;0.1343;-0.5859;
989.4000;0.1311;-0.5909;
989.7000;0.1319;-0.5909;
990.0000;0.1368;-0.5884;
990.3000;0.1327;-0.5934;
990.6000;0.1335;-0.5984;
990.9000;0.1294;-0.6184;
991.2000;0.1327;-0.6134;
991.5000;0.1319;-0.6233;
991.8000;0.1221;-0.6508;
992.1000;0.1343;-0.6159;
992.4000;0.1319;-0.6233;
992.7000;0.1335;-0.6208;
993.0000;0.1319;-0.6208;
993.3000;0.1335;-0.6109;
993.6000;0.1319;-0.6134;
993.9000;0.1327;-0.6009;
994.2000;0.1319;-0.6009;
994.5000;0.1311;-0.6034;
994.8000;0.1343;-0.6059;
995.1000;0.1327;-0.6109;
995.4000;0.1294;-0.6184;
995.7000;0.1311;-0.6109;
996.0000;0.1319;-0.6109;
996.3000;0.1368;-0.5934;
996.6000;0.1319;-0.6134;
996.9000;0.1221;-0.6483;
997.2000;0.1302;-0.6258;
997.5000;0.1302;-0.6184;
997.8000;0.1319;-0.6258;
998.1000;0.1302;-0.6308;
998.4000;0.1319;-0.6233;
998.7000;0.1327;-0.6159;
999.0000;0.1359;-0.5984;
999.3000;0.1335;-0.6109;
999.6000;0.1294;-0.6283;
999.9000;0.1327;-0.6258;
1000.2000;0.1327;-0.6333;
1000.5000;0.1311;-0.6383;
1000.8000;0.1311;-0.6383;
1001.1000;0.1319;-0.6333;
1001.4000;0.1343;-0.6258;
1001.7000;0.1384;-0.6233;
1002.0000;0.1319;-0.6258;
1002.3000;0.1335;-0.6233;
1002.6000;0.1343;-0.6134;
1002.9000;0.1302;-0.6084;
1003.2000;0.1311;-0.6034;
1003.5000;0.1311;-0.6084;
1003.8000;0.1327;-0.5934;
1004.1000;0.1335;-0.5934;
1004.4000;0.1368;-0.5884;
1004.7000;0.1343;-0.5984;
1005.0000;0.1302;-0.6084;
1005.3000;0.1335;-0.6009;
1005.6000;0.1302;-0.6134;
1005.9000;0.1311;-0.6084;
1006.2000;0.1294;-0.6134;
1006.5000;0.1351;-0.6109;
1006.8000;0.1319;-0.6184;
1007.1000;0.1384;-0.6009;
1007.4000;0.1302;-0.6233;
1007.7000;0.1335;-0.6159;
1008.0000;0.1335;-0.6208;
1008.3000;0.1351;-0.6233;
1008.6000;0.1319;-0.6308;
1008.9000;0.1343;-0.6358;
1009.2000;0.1286;-0.6508;
1009.5000;0.1351;-0.6408;
1009.8000;0.1302;-0.6483;
1010.1000;0.1327;-0.6333;
1010.4000;0.1343;-0.6333;
1010.7000;0.1319;-0.6383;
1011.0000;0.1319;-0.6433;
1011.3000;0.1319;-0.6383;
1011.6000;0.1278;-0.6583;
1011.9000;0.1351;-0.6308;
1012.2000;0.1327;-0.6283;
1012.5000;0.1254;-0.6458;
1012.8000;0.1392;-0.6009;
1013.1000;0.1327;-0.6184;
1013.4000;0.1319;-0.6233;
1013.7000;0.1327;-0.6308;
1014.0000;0.1335;-0.6233;
1014.3000;0.1327;-0.6258;
1014.6000;0.1327;-0.6358;
1014.9000;0.1343;-0.6333;
1015.2000;0.1319;-0.6208;
1015.5000;0.1294;-0.6333;
1015.8000;0.1319;-0.6258;
1016.1000;0.1311;-0.6308;
1016.4000;0.1319;-0.6333;
1016.7000;0.1335;-0.6283;
1017.0000;0.1294;-0.6383;
1017.3000;0.1311;-0.6358;
1017.6000;0.1311;-0.6333;
1017.9000;0.1368;-0.6258;
1018.2000;0.1302;-0.6333;
1018.5000;0.1294;-0.6308;
1018.8000;0.1319;-0.6233;
1019.1000;0.1286;-0.6258;
1019.4000;0.1335;-0.6109;
1019.7000;0.1311;-0.6233;
1020.0000;0.1327;-0.6233;
1020.3000;0.1319;-0.6258;
1020.6000;0.1327;-0.6184;
1020.9000;0.1351;-0.6084;
1021.2000;0.1294;-0.6159;
1021.5000;0.1335;-0.6159;
1021.8000;0.1327;-0.6159;
1022.1000;0.1311;-0.6184;
1022.4000;0.1311;-0.6184;
1022.7000;0.1302;-0.6109;
1023.0000;0.1270;-0.6134;
1023.3000;0.1319;-0.6059;
1023.6000;0.1311;-0.6059;
1023.9000;0.1311;-0.6009;
1024.2000;0.1343;-0.5934;
1024.5000;0.1319;-0.6034;
1024.8000;0.1302;-0.6059;
1025.1000;0.1319;-0.5984;
1025.4000;0.1319;-0.5934;
1025.7000;0.1278;-0.6059;
1026.0000;0.1311;-0.5984;
1026.3000;0.1376;-0.5859;
1026.6000;0.1319;-0.6109;
1026.9000;0.1327;-0.6184;
1027.2000;0.1311;-0.6208;
1027.5000;0.1311;-0.6184;
1027.8000;0.1368;-0.5984;
1028.1000;0.1319;-0.6059;
1028.4000;0.1319;-0.6034;
1028.7000;0.1270;-0.6059;
1029.0000;0.1237;-0.6233;
1029.3000;0.1351;-0.5984;
1029.6000;0.1278;-0.6184;
1029.9000;0.1343;-0.6084;
1030.2000;0.1351;-0.6059;
1030.5000;0.1335;-0.6059;
1030.8000;0.1376;-0.6059;
1031.1000;0.1180;-0.6458;
1031.4000;0.1319;-0.6208;
1031.7000;0.1319;-0.6208;
1032.0000;0.1302;-0.6283;
1032.3000;0.1302;-0.6233;
1032.6000;0.1311;-0.6208;
1032.9000;0.1302;-0.6208;
1033.2000;0.1335;-0.6084;
1033.5000;0.1319;-0.6134;
1033.8000;0.1302;-0.6184;
1034.1000;0.1311;-0.6184;
1034.4000;0.1327;-0.6084;
1034.7000;0.1311;-0.6109;
1035.0000;0.1311;-0.6159;
1035.3000;0.1327;-0.6134;
1035.6000;0.1327;-0.6184;
1035.9000;0.1319;-0.6233;
1036.2000;0.1254;-0.6308;
1036.5000;0.1319;-0.6233;
1036.8000;0.1327;-0.6109;
1037.1000;0.1335;-0.6134;
1037.4000;0.1335;-0.6109;
1037.7000;0.1311;-0.6134;
1038.0000;0.1319;-0.6109;
1038.3000;0.1327;-0.5984;
1038.6000;0.1311;-0.5984;
1038.9000;0.1278;-0.6059;
1039.2000;0.1311;-0.6034;
1039.5000;0.1311;-0.6084;
1039.8000;0.1311;-0.6109;
1040.1000;0.1319;-0.6034;
1040.4000;0.1335;-0.6109;
1040.7000;0.1319;-0.6184;
1041.0000;0.1319;-0.6258;
1041.3000;0.1278;-0.6433;
1041.6000;0.1327;-0.6258;
1041.9000;0.1311;-0.6208;
1042.2000;0.1319;-0.6258;
1042.5000;0.1286;-0.6283;
1042.8000;0.1335;-0.6159;
1043.1000;0.1319;-0.6184;
1043.4000;0.1343;-0.6109;
1043.7000;0.1302;-0.6208;
1044.0000;0.1302;-0.6233;
1044.3000;0.1351;-0.6109;
1044.6000;0.1319;-0.6159;
1044.9000;0.1327;-0.6233;
1045.2000;0.1343;-0.6159;
1045.5000;0.1327;-0.6208;
1045.8000;0.1327;-0.6134;
1046.1000;0.1302;-0.6084;
1046.4000;0.1335;-0.6109;
1046.7000;0.1319;-0.6258;
1047.0000;0.1351;-0.6208;
1047.3000;0.1351;-0.6208;
1047.6000;0.1327;-0.6283;
1047.9000;0.1294;-0.6383;
1048.2000;0.1319;-0.6233;
1048.5000;0.1351;-0.6159;
1048.8000;0.1311;-0.6208;
1049.1000;0.1311;-0.6109;
1049.4000;0.1319;-0.6059;
1049.7000;0.1197;-0.6458;
1050.0000;0.1286;-0.6208;
1050.3000;0.1319;-0.6159;
1050.6000;0.1302;-0.6233;
1050.9000;0.1311;-0.6258;
1051.2000;0.1359;-0.6208;
1051.5000;0.1327;-0.6233;
1051.8000;0.1319;-0.6233;
1052.1000;0.1416;-0.6059;
1052.4000;0.1343;-0.6233;
1052.7000;0.1319;-0.6383;
1053.0000;0.1343;-0.6308;
1053.3000;0.1327;-0.6283;
1053.6000;0.1294;-0.6308;
1053.9000;0.1319;-0.6159;
1054.2000;0.1311;-0.6109;
1054.5000;0.1319;-0.6109;
1054.8000;0.1335;-0.6009;
1055.1000;0.1327;-0.5959;
1055.4000;0.1319;-0.5959;
1055.7000;0.1327;-0.5959;
1056.0000;0.1343;-0.5934;
1056.3000;0.1311;-0.5909;
1056.6000;0.1319;-0.5984;
1056.9000;0.1376;-0.5834;
1057.2000;0.1245;-0.6159;
1057.5000;0.1311;-0.6034;
1057.8000;0.1335;-0.5959;
1058.1000;0.1368;-0.5834;
1058.4000;0.1319;-0.6009;
1058.7000;0.1311;-0.6159;
1059.0000;0.1311;-0.6159;
1059.3000;0.1319;-0.6134;
1059.6000;0.1343;-0.6059;
1059.9000;0.1335;-0.6134;
1060.2000;0.1311;-0.6134;
1060.5000;0.1335;-0.6059;
1060.8000;0.1319;-0.6134;
1061.1000;0.1311;-0.6059;
1061.4000;0.1319;-0.6084;
1061.7000;0.1351;-0.6159;
1062.0000;0.1302;-0.6258;
1062.3000;0.1254;-0.6333;
1062.6000;0.1319;-0.6184;
1062.9000;0.1351;-0.6184;
1063.2000;0.1335;-0.6208;
1063.5000;0.1335;-0.6184;
1063.8000;0.1335;-0.6184;
1064.1000;0.1302;-0.6208;
1064.4000;0.1302;-0.6233;
1064.7000;0.1335;-0.6184;
1065.0000;0.1302;-0.6184;
1065.3000;0.1311;-0.6159;
1065.6000;0.1311;-0.6134;
1065.9000;0.1294;-0.6059;
1066.2000;0.1302;-0.6159;
1066.5000;0.1343;-0.6009;
1066.8000;0.1327;-0.5909;
1067.1000;0.1327;-0.5884;
1067.4000;0.1311;-0.5984;
1067.7000;0.1319;-0.6084;
1068.0000;0.1311;-0.6184;
1068.3000;0.1302;-0.6184;
1068.6000;0.1302;-0.6184;
1068.9000;0.1319;-0.6208;
1069.2000;0.1335;-0.6084;
1069.5000;0.1302;-0.6109;
1069.8000;0.1327;-0.6059;
1070.1000;0.1335;-0.6059;
1070.4000;0.1327;-0.6084;
1070.7000;0.1327;-0.6034;
1071.0000;0.1335;-0.5959;
1071.3000;0.1327;-0.6009;
1071.6000;0.1376;-0.5909;
1071.9000;0.1335;-0.6009;
1072.2000;0.1319;-0.6084;
1072.5000;0.1319;-0.6059;
1072.8000;0.1343;-0.6059;
1073.1000;0.1319;-0.6034;
1073.4000;0.1311;-0.6134;
1073.7000;0.1286;-0.6258;
1074.0000;0.1416;-0.5934;
1074.3000;0.1376;-0.6034;
1074.6000;0.1327;-0.6134;
1074.9000;0.1335;-0.6134;
1075.2000;0.1319;-0.6184;
1075.5000;0.1327;-0.6134;
1075.8000;0.1262;-0.6308;
1076.1000;0.1343;-0.6084;
1076.4000;0.1311;-0.6134;
1076.7000;0.1327;-0.6059;
1077.0000;0.1319;-0.6159;
1077.3000;0.1311;-0.6109;
1077.6000;0.1311;-0.6109;
1077.9000;0.1327;-0.6084;
1078.2000;0.1311;-0.6184;
1078.5000;0.1302;-0.6109;
1078.8000;0.1327;-0.6109;
1079.1000;0.1327;-0.6084;
1079.4000;0.1327;-0.6109;
1079.7000;0.1327;-0.6208;
1080.0000;0.1335;-0.6159;
1080.3000;0.1359;-0.6084;
1080.6000;0.1335;-0.6134;
1080.9000;0.1327;-0.6084;
1081.2000;0.1343;-0.6009;
1081.5000;0.1335;-0.5934;
1081.8000;0.1327;-0.5884;
1082.1000;0.1302;-0.6009;
1082.4000;0.1319;-0.5959;
1082.7000;0.1302;-0.6034;
1083.0000;0.1327;-0.6109;
1083.3000;0.1327;-0.6134;
1083.6000;0.1319;-0.6134;
1083.9000;0.1319;-0.6208;
1084.2000;0.1311;-0.6184;
1084.5000;0.1302;-0.6184;
1084.8000;0.1335;-0.6034;
1085.1000;0.1343;-0.5984;
1085.4000;0.1311;-0.5959;
1085.7000;0.1327;-0.5984;
1086.0000;0.1327;-0.6034;
1086.3000;0.1327;-0.6009;
1086.6000;0.1335;-0.6059;
1086.9000;0.1335;-0.6134;
1087.2000;0.1311;-0.6134;
1087.5000;0.1311;-0.6034;
1087.8000;0.1302;-0.6134;
1088.1000;0.1294;-0.6084;
1088.4000;0.1311;-0.6059;
1088.7000;0.1319;-0.6109;
1089.0000;0.1294;-0.6159;
1089.3000;0.1302;-0.6184;
1089.6000;0.1311;-0.6208;
1089.9000;0.1359;-0.6059;
1090.2000;0.1319;-0.6208;
1090.5000;0.1335;-0.6258;
1090.8000;0.1311;-0.6258;
1091.1000;0.1319;-0.6233;
1091.4000;0.1319;-0.6333;
1091.7000;0.1319;-0.6208;
1092.0000;0.1302;-0.6208;
1092.3000;0.1319;-0.6084;
1092.6000;0.1319;-0.6159;
1092.9000;0.1311;-0.6208;
1093.2000;0.1302;-0.6258;
1093.5000;0.1319;-0.6233;
1093.8000;0.1311;-0.6258;
1094.1000;0.1343;-0.6159;
1094.4000;0.1311;-0.6258;
1094.7000;0.1262;-0.6508;
1095.0000;0.1286;-0.6233;
1095.3000;0.1327;-0.6184;
1095.6000;0.1286;-0.6258;
1095.9000;0.1368;-0.5984;
1096.2000;0.1319;-0.6233;
1096.5000;0.1311;-0.6208;
1096.8000;0.1319;-0.6134;
1097.1000;0.1351;-0.6034;
1097.4000;0.1311;-0.6159;
1097.7000;0.1311;-0.6208;
1098.0000;0.1319;-0.6109;
1098.3000;0.1302;-0.6184;
1098.6000;0.1311;-0.6034;
1098.9000;0.1311;-0.6084;
1099.2000;0.1327;-0.6184;
1099.5000;0.1319;-0.6184;
1099.8000;0.1335;-0.6134;
1100.1000;0.1311;-0.6134;
1100.4000;0.1408;-0.5834;
1100.7000;0.1335;-0.5984;
1101.0000;0.1368;-0.5859;
1101.3000;0.1302;-0.6034;
1101.6000;0.1319;-0.6009;
1101.9000;0.1335;-0.5884;
1102.2000;0.1319;-0.5909;
1102.5000;0.1319;-0.5959;
1102.8000;0.1441;-0.5685;
1103.1000;0.1221;-0.6233;
1103.4000;0.1319;-0.5984;
1103.7000;0.1327;-0.6034;
1104.0000;0.1302;-0.6134;
1104.3000;0.1311;-0.6009;
1104.6000;0.1294;-0.6084;
1104.9000;0.1319;-0.5959;
1105.2000;0.1319;-0.6009;
1105.5000;0.1319;-0.6034;
1105.8000;0.1319;-0.5884;
1106.1000;0.1311;-0.5859;
1106.4000;0.1351;-0.5884;
1106.7000;0.1319;-0.6084;
1107.0000;0.1327;-0.6208;
1107.3000;0.1319;-0.6283;
1107.6000;0.1335;-0.6184;
1107.9000;0.1335;-0.6184;
1108.2000;0.1319;-0.6159;
1108.5000;0.1335;-0.6134;
1108.8000;0.1311;-0.6184;
1109.1000;0.1376;-0.6059;
1109.4000;0.1376;-0.6034;
1109.7000;0.1327;-0.6059;
1110.0000;0.1319;-0.6109;
1110.3000;0.1327;-0.6034;
1110.6000;0.1286;-0.6109;
1110.9000;0.1302;-0.6009;
1111.2000;0.1319;-0.6009;
1111.5000;0.1319;-0.6034;
1111.8000;0.1319;-0.6034;
1112.1000;0.1343;-0.5959;
1112.4000;0.1327;-0.6034;
1112.7000;0.1286;-0.6134;
1113.0000;0.1319;-0.6034;
1113.3000;0.1335;-0.5959;
1113.6000;0.1327;-0.6059;
1113.9000;0.1311;-0.6134;
1114.2000;0.1335;-0.6034;
1114.5000;0.1327;-0.5984;
1114.8000;0.1343;-0.6009;
1115.1000;0.1311;-0.6159;
1115.4000;0.1327;-0.6134;
1115.7000;0.1319;-0.6184;
1116.0000;0.1213;-0.6383;
1116.3000;0.1327;-0.6034;
1116.6000;0.1368;-0.5884;
1116.9000;0.1294;-0.6084;
1117.2000;0.1302;-0.6009;
1117.5000;0.1335;-0.5984;
1117.8000;0.1408;-0.5710;
1118.1000;0.1319;-0.5934;
1118.4000;0.1311;-0.6009;
1118.7000;0.1343;-0.6034;
1119.0000;0.1262;-0.6233;
1119.3000;0.1278;-0.6134;
1119.6000;0.1286;-0.6184;
1119.9000;0.1311;-0.6134;
1120.2000;0.1311;-0.6134;
1120.5000;0.1254;-0.6308;
1120.8000;0.1441;-0.5834;
1121.1000;0.1351;-0.5984;
1121.4000;0.1319;-0.5984;
1121.7000;0.1343;-0.5959;
1122.0000;0.1327;-0.6009;
1122.3000;0.1327;-0.6059;
1122.6000;0.1319;-0.6134;
1122.9000;0.1343;-0.6134;
1123.2000;0.1384;-0.5909;
1123.5000;0.1311;-0.6059;
1123.8000;0.1327;-0.6009;
1124.1000;0.1327;-0.6034;
1124.4000;0.1376;-0.5884;
1124.7000;0.1311;-0.6109;
1125.0000;0.1327;-0.6159;
1125.3000;0.1319;-0.6134;
1125.6000;0.1351;-0.6159;
1125.9000;0.1319;-0.6283;
1126.2000;0.1335;-0.6159;
1126.5000;0.1327;-0.6258;
1126.8000;0.1311;-0.6233;
1127.1000;0.1327;-0.6258;
1127.4000;0.1302;-0.6283;
1127.7000;0.1311;-0.6283;
1128.0000;0.1335;-0.6258;
1128.3000;0.1302;-0.6159;
1128.6000;0.1294;-0.6184;
1128.9000;0.1286;-0.6233;
1129.2000;0.1294;-0.6134;
1129.5000;0.1294;-0.6233;
1129.8000;0.1311;-0.6233;
1130.1000;0.1311;-0.6258;
1130.4000;0.1327;-0.6208;
1130.7000;0.1319;-0.6208;
1131.0000;0.1286;-0.6308;
1131.3000;0.1311;-0.6333;
1131.6000;0.1343;-0.6184;
1131.9000;0.1327;-0.6208;
1132.2000;0.1311;-0.6308;
1132.5000;0.1335;-0.6308;
1132.8000;0.1311;-0.6333;
1133.1000;0.1302;-0.6308;
1133.4000;0.1327;-0.6184;
1133.7000;0.1311;-0.6308;
1134.0000;0.1425;-0.6009;
1134.3000;0.1343;-0.6084;
1134.6000;0.1311;-0.6134;
1134.9000;0.1335;-0.6059;
1135.2000;0.1302;-0.6134;
1135.5000;0.1319;-0.6159;
1135.8000;0.1319;-0.6184;
1136.1000;0.1319;-0.6233;
1136.4000;0.1221;-0.6458;
1136.7000;0.1319;-0.6308;
1137.0000;0.1302;-0.6408;
1137.3000;0.1343;-0.6308;
1137.6000;0.1335;-0.6283;
1137.9000;0.1311;-0.6308;
1138.2000;0.1327;-0.6258;
1138.5000;0.1335;-0.6283;
1138.8000;0.1351;-0.6308;
1139.1000;0.1327;-0.6458;
1139.4000;0.1302;-0.6408;
1139.7000;0.1335;-0.6283;
1140.0000;0.1319;-0.6283;
1140.3000;0.1327;-0.6159;
1140.6000;0.1311;-0.6333;
1140.9000;0.1302;-0.6383;
1141.2000;0.1335;-0.6333;
1141.5000;0.1335;-0.6358;
1141.8000;0.1319;-0.6383;
1142.1000;0.1311;-0.6333;
1142.4000;0.1319;-0.6283;
1142.7000;0.1319;-0.6333;
1143.0000;0.1327;-0.6308;
1143.3000;0.1359;-0.6208;
1143.6000;0.1351;-0.6208;
1143.9000;0.1319;-0.6233;
1144.2000;0.1343;-0.6134;
1144.5000;0.1368;-0.6184;
1144.8000;0.1311;-0.6333;
1145.1000;0.1335;-0.6283;
1145.4000;0.1327;-0.6184;
1145.7000;0.1327;-0.6159;
1146.0000;0.1302;-0.6184;
1146.3000;0.1327;-0.6109;
1146.6000;0.1319;-0.6159;
1146.9000;0.1359;-0.6034;
1147.2000;0.1262;-0.6308;
1147.5000;0.1327;-0.6159;
1147.8000;0.1319;-0.6159;
1148.1000;0.1327;-0.6159;
1148.4000;0.1311;-0.6184;
1148.7000;0.1335;-0.6084;
1149.0000;0.1384;-0.5934;
1149.3000;0.1335;-0.6109;
1149.6000;0.1311;-0.6084;
1149.9000;0.1311;-0.6109;
1150.2000;0.1311;-0.6208;
1150.5000;0.1335;-0.6134;
1150.8000;0.1294;-0.6184;
1151.1000;0.1302;-0.6159;
1151.4000;0.1335;-0.6109;
1151.7000;0.1311;-0.6184;
1152.0000;0.1327;-0.6084;
1152.3000;0.1368;-0.6059;
1152.6000;0.1335;-0.6109;
1152.9000;0.1319;-0.6134;
1153.2000;0.1294;-0.6159;
1153.5000;0.1319;-0.6134;
1153.8000;0.1311;-0.6084;
1154.1000;0.1327;-0.6034;
1154.4000;0.1302;-0.6034;
1154.7000;0.1311;-0.6009;
1155.0000;0.1327;-0.5884;
1155.3000;0.1302;-0.5884;
1155.6000;0.1294;-0.5884;
1155.9000;0.1319;-0.5810;
1156.2000;0.1311;-0.5934;
1156.5000;0.1311;-0.5984;
1156.8000;0.1327;-0.6084;
1157.1000;0.1335;-0.6109;
1157.4000;0.1335;-0.6084;
1157.7000;0.1335;-0.6009;
1158.0000;0.1359;-0.5984;
1158.3000;0.1319;-0.6134;
1158.6000;0.1294;-0.6208;
1158.9000;0.1327;-0.6134;
1159.2000;0.1359;-0.6084;
1159.5000;0.1319;-0.6208;
1159.8000;0.1327;-0.6258;
1160.1000;0.1319;-0.6283;
1160.4000;0.1205;-0.6508;
1160.7000;0.1327;-0.6208;
1161.0000;0.1335;-0.6233;
1161.3000;0.1311;-0.6333;
1161.6000;0.1327;-0.6358;
1161.9000;0.1327;-0.6308;
1162.2000;0.1319;-0.6283;
1162.5000;0.1335;-0.6283;
1162.8000;0.1319;-0.6208;
1163.1000;0.1319;-0.6233;
1163.4000;0.1319;-0.6258;
1163.7000;0.1302;-0.6233;
1164.0000;0.1311;-0.6208;
1164.3000;0.1311;-0.6184;
1164.6000;0.1278;-0.6258;
1164.9000;0.1311;-0.6134;
1165.2000;0.1335;-0.6134;
1165.5000;0.1343;-0.6109;
1165.8000;0.1294;-0.6159;
1166.1000;0.1319;-0.6134;
1166.4000;0.1335;-0.6109;
1166.7000;0.1319;-0.6134;
1167.0000;0.1311;-0.6134;
1167.3000;0.1327;-0.6208;
1167.6000;0.1335;-0.6233;
1167.9000;0.1302;-0.6283;
1168.2000;0.1319;-0.6233;
1168.5000;0.1311;-0.6109;
1168.8000;0.1311;-0.6159;
1169.1000;0.1368;-0.6059;
1169.4000;0.1294;-0.6258;
1169.7000;0.1311;-0.6258;
1170.0000;0.1221;-0.6558;
1170.3000;0.1319;-0.6208;
1170.6000;0.1311;-0.6258;
1170.9000;0.1327;-0.6233;
1171.2000;0.1319;-0.6283;
1171.5000;0.1319;-0.6383;
1171.8000;0.1335;-0.6333;
1172.1000;0.1335;-0.6258;
1172.4000;0.1319;-0.6159;
1172.7000;0.1311;-0.6109;
1173.0000;0.1319;-0.5934;
1173.3000;0.1335;-0.5934;
1173.6000;0.1319;-0.5934;
1173.9000;0.1319;-0.5934;
1174.2000;0.1294;-0.6034;
1174.5000;0.1294;-0.6084;
1174.8000;0.1294;-0.6009;
1175.1000;0.1311;-0.6009;
1175.4000;0.1319;-0.5984;
1175.7000;0.1319;-0.5984;
1176.0000;0.1327;-0.6059;
1176.3000;0.1327;-0.6084;
1176.6000;0.1327;-0.6009;
1176.9000;0.1221;-0.6258;
1177.2000;0.1327;-0.6009;
1177.5000;0.1319;-0.6208;
1177.8000;0.1294;-0.6308;
1178.1000;0.1311;-0.6258;
1178.4000;0.1335;-0.6159;
1178.7000;0.1286;-0.6333;
1179.0000;0.1319;-0.6283;
1179.3000;0.1278;-0.6333;
1179.6000;0.1311;-0.6258;
1179.9000;0.1351;-0.6159;
1180.2000;0.1311;-0.6258;
1180.5000;0.1319;-0.6159;
1180.8000;0.1311;-0.6208;
1181.1000;0.1294;-0.6308;
1181.4000;0.1302;-0.6283;
1181.7000;0.1302;-0.6283;
1182.0000;0.1335;-0.6208;
1182.3000;0.1286;-0.6408;
1182.6000;0.1343;-0.6308;
1182.9000;0.1302;-0.6408;
1183.2000;0.1335;-0.6433;
1183.5000;0.1327;-0.6408;
1183.8000;0.1327;-0.6333;
1184.1000;0.1335;-0.6333;
1184.4000;0.1335;-0.6308;
1184.7000;0.1319;-0.6308;
1185.0000;0.1311;-0.6283;
1185.3000;0.1311;-0.6358;
1185.6000;0.1351;-0.6208;
1185.9000;0.1327;-0.6258;
1186.2000;0.1319;-0.6208;
1186.5000;0.1294;-0.6358;
1186.8000;0.1294;-0.6358;
1187.1000;0.1319;-0.6159;
1187.4000;0.1311;-0.6109;
1187.7000;0.1335;-0.6084;
1188.0000;0.1343;-0.6109;
1188.3000;0.1335;-0.6233;
1188.6000;0.1327;-0.6283;
1188.9000;0.1376;-0.6134;
1189.2000;0.1319;-0.6233;
1189.5000;0.1319;-0.6308;
1189.8000;0.1335;-0.6258;
1190.1000;0.1286;-0.6283;
1190.4000;0.1319;-0.6084;
1190.7000;0.1327;-0.6159;
1191.0000;0.1327;-0.6208;
1191.3000;0.1319;-0.6184;
1191.6000;0.1327;-0.6134;
1191.9000;0.1335;-0.6208;
1192.2000;0.1319;-0.6184;
1192.5000;0.1302;-0.6184;
1192.8000;0.1319;-0.6308;
1193.1000;0.1294;-0.6308;
1193.4000;0.1319;-0.6283;
1193.7000;0.1294;-0.6358;
1194.0000;0.1278;-0.6408;
1194.3000;0.1376;-0.6134;
1194.6000;0.1319;-0.6283;
1194.9000;0.1311;-0.6233;
1195.2000;0.1327;-0.6184;
1195.5000;0.1311;-0.6283;
1195.8000;0.1327;-0.6233;
1196.1000;0.1343;-0.6233;
1196.4000;0.1311;-0.6333;
1196.7000;0.1376;-0.6184;
1197.0000;0.1368;-0.6208;
1197.3000;0.1302;-0.6283;
1197.6000;0.1319;-0.6184;
1197.9000;0.1294;-0.6233;
1198.2000;0.1449;-0.5834;
1198.5000;0.1351;-0.6059;
1198.8000;0.1302;-0.6184;
1199.1000;0.1311;-0.6034;
1199.4000;0.1335;-0.5934;
1199.7000;0.1319;-0.5984;
1200.0000;0.1311;-0.6109;
1200.3000;0.1311;-0.6208;
1200.6000;0.1327;-0.6184;
1200.9000;0.1327;-0.6208;
1201.2000;0.1335;-0.6208;
1201.5000;0.1319;-0.6283;
1201.8000;0.1335;-0.6233;
1202.1000;0.1319;-0.6208;
1202.4000;0.1384;-0.6059;
1202.7000;0.1335;-0.6134;
1203.0000;0.1311;-0.6184;
1203.3000;0.1327;-0.6009;
1203.6000;0.1343;-0.5984;
1203.9000;0.1416;-0.5834;
1204.2000;0.1327;-0.6159;
1204.5000;0.1343;-0.6134;
1204.8000;0.1319;-0.6208;
1205.1000;0.1351;-0.6184;
1205.4000;0.1319;-0.6208;
1205.7000;0.1302;-0.6233;
1206.0000;0.1319;-0.6233;
1206.3000;0.1327;-0.6159;
1206.6000;0.1327;-0.6233;
1206.9000;0.1327;-0.6208;
1207.2000;0.1343;-0.6134;
1207.5000;0.1335;-0.6184;
1207.8000;0.1319;-0.6308;
1208.1000;0.1278;-0.6408;
1208.4000;0.1384;-0.6159;
1208.7000;0.1319;-0.6333;
1209.0000;0.1311;-0.6358;
1209.3000;0.1311;-0.6408;
1209.6000;0.1319;-0.6433;
1209.9000;0.1311;-0.6358;
1210.2000;0.1311;-0.6358;
1210.5000;0.1311;-0.6408;
1210.8000;0.1335;-0.6258;
1211.1000;0.1294;-0.6233;
1211.4000;0.1270;-0.6408;
1211.7000;0.1172;-0.6707;
1212.0000;0.1335;-0.6233;
1212.3000;0.1286;-0.6258;
1212.6000;0.1335;-0.6184;
1212.9000;0.1327;-0.6233;
1213.2000;0.1302;-0.6208;
1213.5000;0.1368;-0.6109;
1213.8000;0.1335;-0.6233;
1214.1000;0.1327;-0.6208;
1214.4000;0.1319;-0.6258;
1214.7000;0.1327;-0.6159;
1215.0000;0.1368;-0.6009;
1215.3000;0.1335;-0.6159;
1215.6000;0.1319;-0.6184;
1215.9000;0.1302;-0.6208;
1216.2000;0.1319;-0.6208;
1216.5000;0.1245;-0.6383;
1216.8000;0.1335;-0.6159;
1217.1000;0.1180;-0.6508;
1217.4000;0.1327;-0.6159;
1217.7000;0.1319;-0.6159;
1218.0000;0.1319;-0.6084;
1218.3000;0.1311;-0.6184;
1218.6000;0.1327;-0.6184;
1218.9000;0.1319;-0.6159;
1219.2000;0.1359;-0.5984;
1219.5000;0.1319;-0.6059;
1219.8000;0.1294;-0.6134;
1220.1000;0.1351;-0.6059;
1220.4000;0.1319;-0.6233;
1220.7000;0.1286;-0.6358;
1221.0000;0.1319;-0.6233;
1221.3000;0.1319;-0.6333;
1221.6000;0.1319;-0.6358;
1221.9000;0.1319;-0.6283;
1222.2000;0.1327;-0.6208;
1222.5000;0.1311;-0.6333;
1222.8000;0.1311;-0.6333;
1223.1000;0.1311;-0.6283;
1223.4000;0.1319;-0.6283;
1223.7000;0.1319;-0.6283;
1224.0000;0.1311;-0.6233;
1224.3000;0.1311;-0.6208;
1224.6000;0.1311;-0.6258;
1224.9000;0.1237;-0.6408;
1225.2000;0.1311;-0.6184;
1225.5000;0.1327;-0.6059;
1225.8000;0.1319;-0.6084;
1226.1000;0.1416;-0.5785;
1226.4000;0.1335;-0.5959;
1226.7000;0.1335;-0.5934;
1227.0000;0.1319;-0.6009;
1227.3000;0.1302;-0.6009;
1227.6000;0.1311;-0.6009;
1227.9000;0.1335;-0.5884;
1228.2000;0.1335;-0.5934;
1228.5000;0.1319;-0.5959;
1228.8000;0.1319;-0.6009;
1229.1000;0.1319;-0.6059;
1229.4000;0.1384;-0.5909;
1229.7000;0.1311;-0.6009;
1230.0000;0.1335;-0.6109;
1230.3000;0.1335;-0.6084;
1230.6000;0.1343;-0.6109;
1230.9000;0.1368;-0.5959;
1231.2000;0.1351;-0.6084;
1231.5000;0.1359;-0.6109;
1231.8000;0.1327;-0.6159;
1232.1000;0.1319;-0.6184;
1232.4000;0.1359;-0.5959;
1232.7000;0.1327;-0.6034;
1233.0000;0.1335;-0.5909;
1233.3000;0.1319;-0.5959;
1233.6000;0.1302;-0.6009;
1233.9000;0.1221;-0.6258;
1234.2000;0.1351;-0.5959;
1234.5000;0.1433;-0.5859;
1234.8000;0.1351;-0.5984;
1235.1000;0.1302;-0.6009;
1235.4000;0.1327;-0.5959;
1235.7000;0.1335;-0.5959;
1236.0000;0.1343;-0.5884;
1236.3000;0.1343;-0.5859;
1236.6000;0.1335;-0.5909;
1236.9000;0.1311;-0.5859;
1237.2000;0.1319;-0.5909;
1237.5000;0.1294;-0.6059;
1237.8000;0.1311;-0.5959;
1238.1000;0.1319;-0.5984;
1238.4000;0.1351;-0.5909;
1238.7000;0.1319;-0.5959;
1239.0000;0.1327;-0.5959;
1239.3000;0.1311;-0.5984;
1239.6000;0.1311;-0.6059;
1239.9000;0.1319;-0.6034;
1240.2000;0.1343;-0.6009;
1240.5000;0.1319;-0.6109;
1240.8000;0.1392;-0.5859;
1241.1000;0.1302;-0.6059;
1241.4000;0.1343;-0.5884;
1241.7000;0.1343;-0.5934;
1242.0000;0.1311;-0.6034;
1242.3000;0.1319;-0.5934;
1242.6000;0.1327;-0.6034;
1242.9000;0.1335;-0.5959;
1243.2000;0.1302;-0.5934;
1243.5000;0.1343;-0.5934;
1243.8000;0.1327;-0.5859;
1244.1000;0.1311;-0.5959;
1244.4000;0.1294;-0.6109;
1244.7000;0.1319;-0.6084;
1245.0000;0.1327;-0.6084;
1245.3000;0.1319;-0.6084;
1245.6000;0.1327;-0.6034;
1245.9000;0.1319;-0.5984;
1246.2000;0.1319;-0.6059;
1246.5000;0.1319;-0.6084;
1246.8000;0.1343;-0.6009;
1247.1000;0.1327;-0.6109;
1247.4000;0.1343;-0.6059;
1247.7000;0.1311;-0.6084;
1248.0000;0.1327;-0.6034;
1248.3000;0.1351;-0.5959;
1248.6000;0.1335;-0.6084;
1248.9000;0.1327;-0.6159;
1249.2000;0.1311;-0.6208;
1249.5000;0.1311;-0.6184;
1249.8000;0.1343;-0.6084;
1250.1000;0.1327;-0.6184;
1250.4000;0.1327;-0.6159;
1250.7000;0.1327;-0.6109;
1251.0000;0.1335;-0.6084;
1251.3000;0.1384;-0.6109;
1251.6000;0.1294;-0.6333;
1251.9000;0.1319;-0.6233;
1252.2000;0.1319;-0.6283;
1252.5000;0.1327;-0.6283;
1252.8000;0.1327;-0.6258;
1253.1000;0.1351;-0.6109;
1253.4000;0.1319;-0.6283;
1253.7000;0.1311;-0.6308;
1254.0000;0.1278;-0.6333;
1254.3000;0.1335;-0.6184;
1254.6000;0.1351;-0.6258;
1254.9000;0.1327;-0.6258;
1255.2000;0.1327;-0.6283;
1255.5000;0.1327;-0.6159;
1255.8000;0.1270;-0.6283;
1256.1000;0.1311;-0.6233;
1256.4000;0.1311;-0.6233;
1256.7000;0.1319;-0.6308;
1257.0000;0.1335;-0.6233;
1257.3000;0.1376;-0.6184;
1257.6000;0.1311;-0.6308;
1257.9000;0.1359;-0.6159;
1258.2000;0.1311;-0.6258;
1258.5000;0.1237;-0.6358;
1258.8000;0.1343;-0.5984;
1259.1000;0.1294;-0.6134;
1259.4000;0.1319;-0.6084;
1259.7000;0.1327;-0.6109;
1260.0000;0.1302;-0.6184;
1260.3000;0.1302;-0.6009;
1260.6000;0.1327;-0.5884;
1260.9000;0.1343;-0.5909;
1261.2000;0.1302;-0.6109;
1261.5000;0.1327;-0.6208;
1261.8000;0.1311;-0.6233;
1262.1000;0.1327;-0.6283;
1262.4000;0.1319;-0.6283;
1262.7000;0.1327;-0.6258;
1263.0000;0.1335;-0.6208;
1263.3000;0.1335;-0.6109;
1263.6000;0.1327;-0.6134;
1263.9000;0.1343;-0.6034;
1264.2000;0.1327;-0.6109;
1264.5000;0.1327;-0.6134;
1264.8000;0.1359;-0.6084;
1265.1000;0.1327;-0.6159;
1265.4000;0.1311;-0.6184;
1265.7000;0.1311;-0.6109;
1266.0000;0.1319;-0.6059;
1266.3000;0.1384;-0.5884;
1266.6000;0.1343;-0.6059;
1266.9000;0.1302;-0.6159;
1267.2000;0.1343;-0.6159;
1267.5000;0.1319;-0.6233;
1267.8000;0.1327;-0.6308;
1268.1000;0.1327;-0.6258;
1268.4000;0.1351;-0.6184;
1268.7000;0.1319;-0.6208;
1269.0000;0.1319;-0.6109;
1269.3000;0.1327;-0.6109;
1269.6000;0.1327;-0.6134;
1269.9000;0.1359;-0.6134;
1270.2000;0.1311;-0.6184;
1270.5000;0.1319;-0.6159;
1270.8000;0.1351;-0.6059;
1271.1000;0.1319;-0.6134;
1271.4000;0.1302;-0.6134;
1271.7000;0.1335;-0.6159;
1272.0000;0.1359;-0.6059;
1272.3000;0.1311;-0.6134;
1272.6000;0.1270;-0.6184;
1272.9000;0.1327;-0.6009;
1273.2000;0.1327;-0.5984;
1273.5000;0.1327;-0.6084;
1273.8000;0.1343;-0.6084;
1274.1000;0.1311;-0.6184;
1274.4000;0.1327;-0.6134;
1274.7000;0.1319;-0.6084;
1275.0000;0.1343;-0.6109;
1275.3000;0.1376;-0.6059;
1275.6000;0.1286;-0.6283;
1275.9000;0.1327;-0.6208;
1276.2000;0.1327;-0.6258;
1276.5000;0.1302;-0.6308;
1276.8000;0.1311;-0.6258;
1277.1000;0.1335;-0.6208;
1277.4000;0.1343;-0.6184;
1277.7000;0.1335;-0.6233;
1278.0000;0.1327;-0.6258;
1278.3000;0.1335;-0.6233;
1278.6000;0.1311;-0.6333;
1278.9000;0.1311;-0.6458;
1279.2000;0.1327;-0.6308;
1279.5000;0.1327;-0.6408;
1279.8000;0.1335;-0.6358;
1280.1000;0.1319;-0.6308;
1280.4000;0.1319;-0.6283;
1280.7000;0.1319;-0.6258;
1281.0000;0.1319;-0.6233;
1281.3000;0.1327;-0.6208;
1281.6000;0.1319;-0.6258;
1281.9000;0.1311;-0.6258;
1282.2000;0.1319;-0.6159;
1282.5000;0.1254;-0.6433;
1282.8000;0.1319;-0.6283;
1283.1000;0.1335;-0.6208;
1283.4000;0.1294;-0.6184;
1283.7000;0.1319;-0.6159;
1284.0000;0.1351;-0.6159;
1284.3000;0.1359;-0.6159;
1284.6000;0.1319;-0.6159;
1284.9000;0.1302;-0.6208;
1285.2000;0.1302;-0.6159;
1285.5000;0.1319;-0.6159;
1285.8000;0.1425;-0.5884;
1286.1000;0.1319;-0.6159;
1286.4000;0.1319;-0.6159;
1286.7000;0.1335;-0.6134;
1287.0000;0.1262;-0.6433;
1287.3000;0.1311;-0.6408;
1287.6000;0.1319;-0.6358;
1287.9000;0.1302;-0.6483;
1288.2000;0.1286;-0.6458;
1288.5000;0.1343;-0.6458;
1288.8000;0.1327;-0.6483;
1289.1000;0.1376;-0.6358;
1289.4000;0.1319;-0.6458;
1289.7000;0.1327;-0.6408;
1290.0000;0.1343;-0.6333;
1290.3000;0.1335;-0.6233;
1290.6000;0.1335;-0.6084;
1290.9000;0.1319;-0.6208;
1291.2000;0.1319;-0.6208;
1291.5000;0.1327;-0.6208;
1291.8000;0.1311;-0.6159;
1292.1000;0.1278;-0.6184;
1292.4000;0.1311;-0.6109;
1292.7000;0.1302;-0.6159;
1293.0000;0.1327;-0.6034;
1293.3000;0.1302;-0.6134;
1293.6000;0.1327;-0.6109;
1293.9000;0.1319;-0.6084;
1294.2000;0.1319;-0.6134;
1294.5000;0.1311;-0.6184;
1294.8000;0.1319;-0.6258;
1295.1000;0.1343;-0.6283;
1295.4000;0.1327;-0.6358;
1295.7000;0.1302;-0.6358;
1296.0000;0.1319;-0.6308;
1296.3000;0.1311;-0.6333;
1296.6000;0.1327;-0.6283;
1296.9000;0.1311;-0.6208;
1297.2000;0.1294;-0.6134;
1297.5000;0.1343;-0.6009;
1297.8000;0.1327;-0.5959;
1298.1000;0.1327;-0.6009;
1298.4000;0.1319;-0.6034;
1298.7000;0.1311;-0.6184;
1299.0000;0.1319;-0.6184;
1299.3000;0.1400;-0.5909;
1299.6000;0.1302;-0.6134;
1299.9000;0.1311;-0.6184;
1300.2000;0.1327;-0.6084;
1300.5000;0.1311;-0.6059;
1300.8000;0.1302;-0.6159;
1301.1000;0.1286;-0.6159;
1301.4000;0.1319;-0.6134;
1301.7000;0.1400;-0.5984;
1302.0000;0.1311;-0.6159;
1302.3000;0.1327;-0.6134;
1302.6000;0.1392;-0.5909;
1302.9000;0.1327;-0.6109;
1303.2000;0.1302;-0.6134;
1303.5000;0.1335;-0.6009;
1303.8000;0.1327;-0.6009;
1304.1000;0.1359;-0.5959;
1304.4000;0.1343;-0.6084;
1304.7000;0.1327;-0.6134;
1305.0000;0.1327;-0.6109;
1305.3000;0.1335;-0.6134;
1305.6000;0.1311;-0.6184;
1305.9000;0.1327;-0.6134;
1306.2000;0.1327;-0.6134;
1306.5000;0.1327;-0.6084;
1306.8000;0.1327;-0.6134;
1307.1000;0.1327;-0.6109;
1307.4000;0.1311;-0.6134;
1307.7000;0.1327;-0.6109;
1308.0000;0.1351;-0.6084;
1308.3000;0.1294;-0.6233;
1308.6000;0.1327;-0.6233;
1308.9000;0.1343;-0.6208;
1309.2000;0.1335;-0.6233;
1309.5000;0.1319;-0.6308;
1309.8000;0.1302;-0.6333;
1310.1000;0.1359;-0.6134;
1310.4000;0.1335;-0.6109;
1310.7000;0.1319;-0.6159;
1311.0000;0.1311;-0.6208;
1311.3000;0.1327;-0.6184;
1311.6000;0.1319;-0.6233;
1311.9000;0.1327;-0.6208;
1312.2000;0.1319;-0.6258;
1312.5000;0.1294;-0.6408;
1312.8000;0.1302;-0.6308;
1313.1000;0.1319;-0.6233;
1313.4000;0.1311;-0.6184;
1313.7000;0.1335;-0.6084;
1314.0000;0.1319;-0.6084;
1314.3000;0.1327;-0.6009;
1314.6000;0.1319;-0.5984;
1314.9000;0.1343;-0.6009;
1315.2000;0.1327;-0.6084;
1315.5000;0.1319;-0.6159;
1315.8000;0.1327;-0.6159;
1316.1000;0.1302;-0.6159;
1316.4000;0.1351;-0.6034;
1316.7000;0.1319;-0.6109;
1317.0000;0.1327;-0.6059;
1317.3000;0.1335;-0.5984;
1317.6000;0.1311;-0.6109;
1317.9000;0.1327;-0.6184;
1318.2000;0.1319;-0.6134;
1318.5000;0.1351;-0.6034;
1318.8000;0.1319;-0.6184;
1319.1000;0.1335;-0.6233;
1319.4000;0.1311;-0.6159;
1319.7000;0.1351;-0.6134;
1320.0000;0.1294;-0.6308;
1320.3000;0.1311;-0.6233;
1320.6000;0.1327;-0.6208;
1320.9000;0.1294;-0.6333;
1321.2000;0.1319;-0.6333;
1321.5000;0.1286;-0.6308;
1321.8000;0.1384;-0.6059;
1322.1000;0.1319;-0.6208;
1322.4000;0.1327;-0.6184;
1322.7000;0.1319;-0.6233;
1323.0000;0.1335;-0.6258;
1323.3000;0.1335;-0.6184;
1323.6000;0.1319;-0.6208;
1323.9000;0.1294;-0.6258;
1324.2000;0.1327;-0.6208;
1324.5000;0.1319;-0.6109;
1324.8000;0.1319;-0.6159;
1325.1000;0.1319;-0.6159;
1325.4000;0.1294;-0.6233;
1325.7000;0.1343;-0.6159;
1326.0000;0.1302;-0.6184;
1326.3000;0.1335;-0.5934;
1326.6000;0.1327;-0.6034;
1326.9000;0.1359;-0.5909;
1327.2000;0.1343;-0.5934;
1327.5000;0.1278;-0.6084;
1327.8000;0.1327;-0.5984;
1328.1000;0.1327;-0.5959;
1328.4000;0.1351;-0.5884;
1328.7000;0.1327;-0.5934;
1329.0000;0.1294;-0.5959;
1329.3000;0.1286;-0.6034;
1329.6000;0.1335;-0.5984;
1329.9000;0.1351;-0.5934;
1330.2000;0.1302;-0.6034;
1330.5000;0.1416;-0.5810;
1330.8000;0.1302;-0.6134;
1331.1000;0.1311;-0.6084;
1331.4000;0.1327;-0.5959;
1331.7000;0.1311;-0.6134;
1332.0000;0.1327;-0.6134;
1332.3000;0.1262;-0.6233;
1332.6000;0.1327;-0.6159;
1332.9000;0.1327;-0.6109;
1333.2000;0.1229;-0.6383;
1333.5000;0.1319;-0.6283;
1333.8000;0.1319;-0.6233;
1334.1000;0.1335;-0.6233;
1334.4000;0.1335;-0.6283;
1334.7000;0.1319;-0.6358;
1335.0000;0.1311;-0.6408;
1335.3000;0.1359;-0.6358;
1335.6000;0.1319;-0.6383;
1335.9000;0.1311;-0.6383;
1336.2000;0.1319;-0.6283;
1336.5000;0.1319;-0.6258;
1336.8000;0.1359;-0.6159;
1337.1000;0.1286;-0.6358;
1337.4000;0.1319;-0.6383;
1337.7000;0.1335;-0.6358;
1338.0000;0.1343;-0.6308;
1338.3000;0.1359;-0.6233;
1338.6000;0.1343;-0.6258;
1338.9000;0.1319;-0.6283;
1339.2000;0.1327;-0.6208;
1339.5000;0.1327;-0.6159;
1339.8000;0.1335;-0.6159;
1340.1000;0.1327;-0.6208;
1340.4000;0.1302;-0.6283;
1340.7000;0.1335;-0.6308;
1341.0000;0.1302;-0.6383;
1341.3000;0.1319;-0.6358;
1341.6000;0.1335;-0.6208;
1341.9000;0.1335;-0.6208;
1342.2000;0.1384;-0.6059;
1342.5000;0.1278;-0.6383;
1342.8000;0.1311;-0.6208;
1343.1000;0.1311;-0.6184;
1343.4000;0.1327;-0.6184;
1343.7000;0.1327;-0.6208;
1344.0000;0.1311;-0.6283;
1344.3000;0.1327;-0.6233;
1344.6000;0.1343;-0.6283;
1344.9000;0.1311;-0.6333;
1345.2000;0.1278;-0.6358;
1345.5000;0.1351;-0.6159;
1345.8000;0.1302;-0.6233;
1346.1000;0.1327;-0.6084;
1346.4000;0.1392;-0.5884;
1346.7000;0.1302;-0.6134;
1347.0000;0.1335;-0.6084;
1347.3000;0.1319;-0.6184;
1347.6000;0.1327;-0.6134;
1347.9000;0.1319;-0.6233;
1348.2000;0.1286;-0.6308;
1348.5000;0.1294;-0.6208;
1348.8000;0.1319;-0.6159;
1349.1000;0.1311;-0.6159;
1349.4000;0.1294;-0.6233;
1349.7000;0.1319;-0.6184;
1350.0000;0.1311;-0.6333;
1350.3000;0.1294;-0.6408;
1350.6000;0.1294;-0.6408;
1350.9000;0.1319;-0.6408;
1351.2000;0.1327;-0.6283;
1351.5000;0.1327;-0.6258;
1351.8000;0.1319;-0.6308;
1352.1000;0.1335;-0.6358;
1352.4000;0.1302;-0.6358;
1352.7000;0.1319;-0.6358;
1353.0000;0.1327;-0.6358;
1353.3000;0.1335;-0.6333;
1353.6000;0.1343;-0.6383;
1353.9000;0.1327;-0.6283;
1354.2000;0.1311;-0.6184;
1354.5000;0.1368;-0.6034;
1354.8000;0.1327;-0.6109;
1355.1000;0.1327;-0.6084;
1355.4000;0.1311;-0.6258;
1355.7000;0.1311;-0.6233;
1356.0000;0.1335;-0.6233;
1356.3000;0.1327;-0.6283;
1356.6000;0.1319;-0.6258;
1356.9000;0.1319;-0.6208;
1357.2000;0.1294;-0.6283;
1357.5000;0.1319;-0.6233;
1357.8000;0.1311;-0.6258;
1358.1000;0.1327;-0.6333;
1358.4000;0.1319;-0.6383;
1358.7000;0.1335;-0.6333;
1359.0000;0.1327;-0.6333;
1359.3000;0.1319;-0.6408;
1359.6000;0.1327;-0.6458;
1359.9000;0.1302;-0.6483;
1360.2000;0.1302;-0.6458;
1360.5000;0.1311;-0.6383;
1360.8000;0.1294;-0.6358;
1361.1000;0.1327;-0.6258;
1361.4000;0.1327;-0.6358;
1361.7000;0.1335;-0.6358;
1362.0000;0.1327;-0.6333;
1362.3000;0.1327;-0.6308;
1362.6000;0.1327;-0.6208;
1362.9000;0.1311;-0.6184;
1363.2000;0.1343;-0.6134;
1363.5000;0.1335;-0.6134;
1363.8000;0.1343;-0.6034;
1364.1000;0.1270;-0.6184;
1364.4000;0.1335;-0.6059;
1364.7000;0.1335;-0.6059;
1365.0000;0.1335;-0.6034;
1365.3000;0.1286;-0.6283;
1365.6000;0.1302;-0.6258;
1365.9000;0.1311;-0.6208;
1366.2000;0.1327;-0.6208;
1366.5000;0.1311;-0.6184;
1366.8000;0.1302;-0.6134;
1367.1000;0.1319;-0.6084;
1367.4000;0.1359;-0.5859;
1367.7000;0.1319;-0.5834;
1368.0000;0.1319;-0.5909;
1368.3000;0.1376;-0.5834;
1368.6000;0.1335;-0.6009;
1368.9000;0.1359;-0.5984;
1369.2000;0.1302;-0.6159;
1369.5000;0.1327;-0.6109;
1369.8000;0.1335;-0.6034;
1370.1000;0.1311;-0.6034;
1370.4000;0.1335;-0.5984;
1370.7000;0.1302;-0.6034;
1371.0000;0.1311;-0.6034;
1371.3000;0.1294;-0.6109;
1371.6000;0.1311;-0.6109;
1371.9000;0.1311;-0.6134;
1372.2000;0.1359;-0.6059;
1372.5000;0.1335;-0.6109;
1372.8000;0.1319;-0.6184;
1373.1000;0.1319;-0.6109;
1373.4000;0.1319;-0.6184;
1373.7000;0.1351;-0.6134;
1374.0000;0.1327;-0.6109;
1374.3000;0.1302;-0.6134;
1374.6000;0.1335;-0.6059;
1374.9000;0.1335;-0.6109;
1375.2000;0.1311;-0.6134;
1375.5000;0.1327;-0.5984;
1375.8000;0.1327;-0.6034;
1376.1000;0.1359;-0.5909;
1376.4000;0.1327;-0.5909;
1376.7000;0.1319;-0.5984;
1377.0000;0.1319;-0.6084;
1377.3000;0.1351;-0.5934;
1377.6000;0.1335;-0.5959;
1377.9000;0.1335;-0.6009;
1378.2000;0.1335;-0.5934;
1378.5000;0.1327;-0.6009;
1378.8000;0.1327;-0.6009;
1379.1000;0.1400;-0.5810;
1379.4000;0.1311;-0.6034;
1379.7000;0.1311;-0.6084;
1380.0000;0.1343;-0.5959;
1380.3000;0.1335;-0.5984;
1380.6000;0.1278;-0.6084;
1380.9000;0.1311;-0.6084;
1381.2000;0.1335;-0.5934;
1381.5000;0.1327;-0.6009;
1381.8000;0.1319;-0.5934;
1382.1000;0.1327;-0.5984;
1382.4000;0.1319;-0.5934;
1382.7000;0.1311;-0.5984;
1383.0000;0.1327;-0.5984;
1383.3000;0.1327;-0.5810;
1383.6000;0.1327;-0.5810;
1383.9000;0.1319;-0.5785;
1384.2000;0.1286;-0.5934;
1384.5000;0.1319;-0.5859;
1384.8000;0.1319;-0.5934;
1385.1000;0.1327;-0.5909;
1385.4000;0.1294;-0.6059;
1385.7000;0.1327;-0.6134;
1386.0000;0.1311;-0.6208;
1386.3000;0.1335;-0.6084;
1386.6000;0.1302;-0.6184;
1386.9000;0.1351;-0.5959;
1387.2000;0.1343;-0.5959;
1387.5000;0.1343;-0.6059;
1387.8000;0.1327;-0.6258;
1388.1000;0.1335;-0.6208;
1388.4000;0.1319;-0.6184;
1388.7000;0.1416;-0.6009;
1389.0000;0.1335;-0.6184;
1389.3000;0.1384;-0.6034;
1389.6000;0.1319;-0.6159;
1389.9000;0.1351;-0.6134;
1390.2000;0.1335;-0.6134;
1390.5000;0.1311;-0.6208;
1390.8000;0.1327;-0.6258;
1391.1000;0.1319;-0.6333;
1391.4000;0.1294;-0.6433;
1391.7000;0.1335;-0.6358;
1392.0000;0.1319;-0.6283;
1392.3000;0.1311;-0.6184;
1392.6000;0.1286;-0.6283;
1392.9000;0.1392;-0.5984;
1393.2000;0.1319;-0.6208;
1393.5000;0.1311;-0.6233;
1393.8000;0.1319;-0.6233;
1394.1000;0.1311;-0.6184;
1394.4000;0.1376;-0.6084;
1394.7000;0.1294;-0.6208;
1395.0000;0.1327;-0.6159;
1395.3000;0.1335;-0.6109;
1395.6000;0.1311;-0.6109;
1395.9000;0.1327;-0.6109;
1396.2000;0.1319;-0.6034;
1396.5000;0.1294;-0.6084;
1396.8000;0.1343;-0.5959;
1397.1000;0.1311;-0.5859;
1397.4000;0.1311;-0.5785;
1397.7000;0.1376;-0.5660;
1398.0000;0.1335;-0.5710;
1398.3000;0.1335;-0.5660;
1398.6000;0.1254;-0.5884;
1398.9000;0.1335;-0.5710;
1399.2000;0.1319;-0.5785;
1399.5000;0.1425;-0.5685;
1399.8000;0.1335;-0.5909;
