time/ms;Fluo/V;P700 deltaI/I x10³;
-199.8000;0.1221;8.7348;
-199.5000;0.1286;8.7516;
-199.2000;0.1294;8.7492;
-198.9000;0.1294;8.7540;
-198.6000;0.1229;8.7372;
-198.3000;0.1262;8.7348;
-198.0000;0.1270;8.7372;
-197.7000;0.1213;8.7061;
-197.4000;0.1270;8.7252;
-197.1000;0.1270;8.7252;
-196.8000;0.1286;8.7300;
-196.5000;0.1262;8.7228;
-196.2000;0.1278;8.7324;
-195.9000;0.1286;8.7324;
-195.6000;0.1286;8.7372;
-195.3000;0.1254;8.7252;
-195.0000;0.1270;8.7276;
-194.7000;0.1262;8.7300;
-194.4000;0.1278;8.7252;
-194.1000;0.1294;8.7252;
-193.8000;0.1254;8.7228;
-193.5000;0.1278;8.7228;
-193.2000;0.1278;8.7228;
-192.9000;0.1278;8.7252;
-192.6000;0.1262;8.7109;
-192.3000;0.1278;8.7204;
-192.0000;0.1319;8.7276;
-191.7000;0.1270;8.7109;
-191.4000;0.1270;8.7132;
-191.1000;0.1270;8.7109;
-190.8000;0.1278;8.7204;
-190.5000;0.1262;8.7228;
-190.2000;0.1270;8.7252;
-189.9000;0.1278;8.7156;
-189.6000;0.1262;8.7109;
-189.3000;0.1213;8.6965;
-189.0000;0.1237;8.7061;
-188.7000;0.1270;8.7132;
-188.4000;0.1262;8.7276;
-188.1000;0.1278;8.7300;
-187.8000;0.1270;8.7396;
-187.5000;0.1302;8.7516;
-187.2000;0.1254;8.7468;
-186.9000;0.1270;8.7564;
-186.6000;0.1262;8.7540;
-186.3000;0.1262;8.7540;
-186.0000;0.1262;8.7564;
-185.7000;0.1278;8.7564;
-185.4000;0.1270;8.7468;
-185.1000;0.1286;8.7444;
-184.8000;0.1278;8.7420;
-184.5000;0.1286;8.7396;
-184.2000;0.1245;8.7348;
-183.9000;0.1286;8.7372;
-183.6000;0.1286;8.7324;
-183.3000;0.1262;8.7276;
-183.0000;0.1262;8.7252;
-182.7000;0.1278;8.7252;
-182.4000;0.1237;8.7109;
-182.1000;0.1286;8.7156;
-181.8000;0.1278;8.7085;
-181.5000;0.1270;8.7085;
-181.2000;0.1278;8.7180;
-180.9000;0.1245;8.7156;
-180.6000;0.1270;8.7252;
-180.3000;0.1254;8.7204;
-180.0000;0.1254;8.7228;
-179.7000;0.1294;8.7396;
-179.4000;0.1270;8.7372;
-179.1000;0.1286;8.7492;
-178.8000;0.1294;8.7492;
-178.5000;0.1270;8.7492;
-178.2000;0.1278;8.7468;
-177.9000;0.1270;8.7492;
-177.6000;0.1270;8.7348;
-177.3000;0.1229;8.7252;
-177.0000;0.1270;8.7300;
-176.7000;0.1302;8.7420;
-176.4000;0.1278;8.7348;
-176.1000;0.1270;8.7276;
-175.8000;0.1254;8.7180;
-175.5000;0.1270;8.7252;
-175.2000;0.1270;8.7348;
-174.9000;0.1254;8.7372;
-174.6000;0.1278;8.7468;
-174.3000;0.1254;8.7396;
-174.0000;0.1254;8.7372;
-173.7000;0.1245;8.7396;
-173.4000;0.1270;8.7372;
-173.1000;0.1286;8.7372;
-172.8000;0.1294;8.7396;
-172.5000;0.1286;8.7468;
-172.2000;0.1286;8.7420;
-171.9000;0.1270;8.7444;
-171.6000;0.1286;8.7540;
-171.3000;0.1254;8.7492;
-171.0000;0.1245;8.7468;
-170.7000;0.1245;8.7492;
-170.4000;0.1254;8.7468;
-170.1000;0.1270;8.7492;
-169.8000;0.1245;8.7420;
-169.5000;0.1254;8.7324;
-169.2000;0.1262;8.7348;
-168.9000;0.1278;8.7372;
-168.6000;0.1286;8.7300;
-168.3000;0.1270;8.7324;
-168.0000;0.1245;8.7252;
-167.7000;0.1286;8.7324;
-167.4000;0.1270;8.7372;
-167.1000;0.1270;8.7372;
-166.8000;0.1335;8.7516;
-166.5000;0.1294;8.7420;
-166.2000;0.1270;8.7372;
-165.9000;0.1278;8.7300;
-165.6000;0.1245;8.7300;
-165.3000;0.1205;8.7348;
-165.0000;0.1254;8.7468;
-164.7000;0.1237;8.7420;
-164.4000;0.1286;8.7588;
-164.1000;0.1245;8.7492;
-163.8000;0.1254;8.7468;
-163.5000;0.1270;8.7300;
-163.2000;0.1270;8.7396;
-162.9000;0.1270;8.7372;
-162.6000;0.1262;8.7252;
-162.3000;0.1270;8.7372;
-162.0000;0.1302;8.7468;
-161.7000;0.1270;8.7420;
-161.4000;0.1278;8.7372;
-161.1000;0.1335;8.7492;
-160.8000;0.1254;8.7276;
-160.5000;0.1254;8.7300;
-160.2000;0.1270;8.7348;
-159.9000;0.1262;8.7444;
-159.6000;0.1278;8.7444;
-159.3000;0.1262;8.7396;
-159.0000;0.1262;8.7396;
-158.7000;0.1270;8.7396;
-158.4000;0.1254;8.7348;
-158.1000;0.1278;8.7396;
-157.8000;0.1270;8.7420;
-157.5000;0.1278;8.7444;
-157.2000;0.1286;8.7372;
-156.9000;0.1278;8.7492;
-156.6000;0.1197;8.7252;
-156.3000;0.1302;8.7516;
-156.0000;0.1262;8.7372;
-155.7000;0.1286;8.7396;
-155.4000;0.1311;8.7420;
-155.1000;0.1254;8.7300;
-154.8000;0.1286;8.7348;
-154.5000;0.1221;8.7109;
-154.2000;0.1270;8.7300;
-153.9000;0.1278;8.7252;
-153.6000;0.1286;8.7276;
-153.3000;0.1294;8.7228;
-153.0000;0.1262;8.7204;
-152.7000;0.1262;8.7252;
-152.4000;0.1278;8.7276;
-152.1000;0.1270;8.7252;
-151.8000;0.1245;8.7276;
-151.5000;0.1180;8.7156;
-151.2000;0.1262;8.7396;
-150.9000;0.1286;8.7372;
-150.6000;0.1229;8.7276;
-150.3000;0.1254;8.7396;
-150.0000;0.1270;8.7492;
-149.7000;0.1294;8.7636;
-149.4000;0.1278;8.7492;
-149.1000;0.1270;8.7444;
-148.8000;0.1286;8.7276;
-148.5000;0.1286;8.7276;
-148.2000;0.1270;8.7252;
-147.9000;0.1286;8.7276;
-147.6000;0.1262;8.7252;
-147.3000;0.1278;8.7324;
-147.0000;0.1270;8.7348;
-146.7000;0.1254;8.7252;
-146.4000;0.1262;8.7180;
-146.1000;0.1270;8.7156;
-145.8000;0.1270;8.7228;
-145.5000;0.1270;8.7276;
-145.2000;0.1270;8.7276;
-144.9000;0.1270;8.7324;
-144.6000;0.1270;8.7180;
-144.3000;0.1262;8.7228;
-144.0000;0.1262;8.7252;
-143.7000;0.1286;8.7252;
-143.4000;0.1302;8.7372;
-143.1000;0.1286;8.7300;
-142.8000;0.1270;8.7300;
-142.5000;0.1286;8.7348;
-142.2000;0.1294;8.7444;
-141.9000;0.1286;8.7396;
-141.6000;0.1270;8.7300;
-141.3000;0.1245;8.7252;
-141.0000;0.1254;8.7204;
-140.7000;0.1286;8.7348;
-140.4000;0.1294;8.7324;
-140.1000;0.1278;8.7204;
-139.8000;0.1384;8.7516;
-139.5000;0.1302;8.7252;
-139.2000;0.1368;8.7516;
-138.9000;0.1270;8.7252;
-138.6000;0.1262;8.7300;
-138.3000;0.1278;8.7444;
-138.0000;0.1327;8.7540;
-137.7000;0.1270;8.7372;
-137.4000;0.1254;8.7300;
-137.1000;0.1286;8.7396;
-136.8000;0.1286;8.7372;
-136.5000;0.1262;8.7204;
-136.2000;0.1262;8.7228;
-135.9000;0.1270;8.7228;
-135.6000;0.1254;8.7252;
-135.3000;0.1262;8.7348;
-135.0000;0.1254;8.7348;
-134.7000;0.1278;8.7348;
-134.4000;0.1278;8.7420;
-134.1000;0.1270;8.7420;
-133.8000;0.1270;8.7324;
-133.5000;0.1262;8.7372;
-133.2000;0.1229;8.7228;
-132.9000;0.1270;8.7228;
-132.6000;0.1262;8.7324;
-132.3000;0.1286;8.7324;
-132.0000;0.1286;8.7252;
-131.7000;0.1278;8.7180;
-131.4000;0.1286;8.7228;
-131.1000;0.1262;8.7252;
-130.8000;0.1262;8.7300;
-130.5000;0.1311;8.7444;
-130.2000;0.1278;8.7396;
-129.9000;0.1262;8.7348;
-129.6000;0.1286;8.7228;
-129.3000;0.1270;8.7204;
-129.0000;0.1270;8.7156;
-128.7000;0.1205;8.7037;
-128.4000;0.1229;8.7156;
-128.1000;0.1270;8.7228;
-127.8000;0.1286;8.7300;
-127.5000;0.1294;8.7300;
-127.2000;0.1286;8.7276;
-126.9000;0.1286;8.7300;
-126.6000;0.1278;8.7348;
-126.3000;0.1254;8.7228;
-126.0000;0.1278;8.7252;
-125.7000;0.1278;8.7300;
-125.4000;0.1221;8.7252;
-125.1000;0.1278;8.7420;
-124.8000;0.1270;8.7444;
-124.5000;0.1278;8.7516;
-124.2000;0.1270;8.7276;
-123.9000;0.1237;8.7300;
-123.6000;0.1254;8.7276;
-123.3000;0.1278;8.7324;
-123.0000;0.1286;8.7396;
-122.7000;0.1278;8.7348;
-122.4000;0.1221;8.7180;
-122.1000;0.1311;8.7420;
-121.8000;0.1327;8.7348;
-121.5000;0.1254;8.7276;
-121.2000;0.1270;8.7276;
-120.9000;0.1294;8.7276;
-120.6000;0.1278;8.7180;
-120.3000;0.1262;8.7109;
-120.0000;0.1262;8.7132;
-119.7000;0.1237;8.7037;
-119.4000;0.1262;8.7180;
-119.1000;0.1270;8.7180;
-118.8000;0.1254;8.7109;
-118.5000;0.1229;8.7132;
-118.2000;0.1262;8.7228;
-117.9000;0.1278;8.7180;
-117.6000;0.1311;8.7276;
-117.3000;0.1270;8.7132;
-117.0000;0.1237;8.7085;
-116.7000;0.1278;8.7180;
-116.4000;0.1270;8.7132;
-116.1000;0.1278;8.7156;
-115.8000;0.1278;8.7204;
-115.5000;0.1286;8.7300;
-115.2000;0.1221;8.7228;
-114.9000;0.1245;8.7156;
-114.6000;0.1245;8.7204;
-114.3000;0.1245;8.7228;
-114.0000;0.1262;8.7300;
-113.7000;0.1270;8.7300;
-113.4000;0.1270;8.7300;
-113.1000;0.1278;8.7276;
-112.8000;0.1278;8.7276;
-112.5000;0.1278;8.7324;
-112.2000;0.1351;8.7564;
-111.9000;0.1278;8.7372;
-111.6000;0.1254;8.7300;
-111.3000;0.1278;8.7252;
-111.0000;0.1278;8.7204;
-110.7000;0.1278;8.7156;
-110.4000;0.1294;8.7300;
-110.1000;0.1254;8.7228;
-109.8000;0.1302;8.7396;
-109.5000;0.1245;8.7204;
-109.2000;0.1368;8.7444;
-108.9000;0.1270;8.7228;
-108.6000;0.1278;8.7276;
-108.3000;0.1254;8.7324;
-108.0000;0.1262;8.7348;
-107.7000;0.1262;8.7276;
-107.4000;0.1286;8.7252;
-107.1000;0.1270;8.7228;
-106.8000;0.1278;8.7324;
-106.5000;0.1278;8.7348;
-106.2000;0.1278;8.7300;
-105.9000;0.1262;8.7300;
-105.6000;0.1278;8.7348;
-105.3000;0.1270;8.7372;
-105.0000;0.1262;8.7252;
-104.7000;0.1262;8.7300;
-104.4000;0.1262;8.7300;
-104.1000;0.1270;8.7228;
-103.8000;0.1311;8.7420;
-103.5000;0.1335;8.7516;
-103.2000;0.1278;8.7396;
-102.9000;0.1278;8.7396;
-102.6000;0.1286;8.7348;
-102.3000;0.1294;8.7420;
-102.0000;0.1270;8.7444;
-101.7000;0.1286;8.7420;
-101.4000;0.1302;8.7420;
-101.1000;0.1262;8.7276;
-100.8000;0.1270;8.7252;
-100.5000;0.1327;8.7276;
-100.2000;0.1254;8.7109;
-99.9000;0.1270;8.7109;
-99.6000;0.1270;8.7109;
-99.3000;0.1270;8.7085;
-99.0000;0.1270;8.7109;
-98.7000;0.1262;8.7061;
-98.4000;0.1245;8.6989;
-98.1000;0.1213;8.6821;
-97.8000;0.1270;8.6941;
-97.5000;0.1278;8.7037;
-97.2000;0.1286;8.7132;
-96.9000;0.1294;8.7132;
-96.6000;0.1278;8.7156;
-96.3000;0.1270;8.7228;
-96.0000;0.1245;8.7228;
-95.7000;0.1270;8.7276;
-95.4000;0.1270;8.7372;
-95.1000;0.1278;8.7324;
-94.8000;0.1270;8.7228;
-94.5000;0.1262;8.7276;
-94.2000;0.1302;8.7396;
-93.9000;0.1270;8.7348;
-93.6000;0.1262;8.7348;
-93.3000;0.1262;8.7420;
-93.0000;0.1294;8.7540;
-92.7000;0.1262;8.7468;
-92.4000;0.1254;8.7444;
-92.1000;0.1278;8.7468;
-91.8000;0.1278;8.7420;
-91.5000;0.1311;8.7540;
-91.2000;0.1237;8.7468;
-90.9000;0.1270;8.7660;
-90.6000;0.1286;8.7684;
-90.3000;0.1351;8.7756;
-90.0000;0.1213;8.7396;
-89.7000;0.1254;8.7516;
-89.4000;0.1286;8.7564;
-89.1000;0.1270;8.7468;
-88.8000;0.1286;8.7420;
-88.5000;0.1286;8.7396;
-88.2000;0.1286;8.7396;
-87.9000;0.1286;8.7420;
-87.6000;0.1286;8.7444;
-87.3000;0.1286;8.7396;
-87.0000;0.1254;8.7444;
-86.7000;0.1278;8.7444;
-86.4000;0.1270;8.7492;
-86.1000;0.1302;8.7492;
-85.8000;0.1237;8.7348;
-85.5000;0.1278;8.7420;
-85.2000;0.1254;8.7348;
-84.9000;0.1262;8.7372;
-84.6000;0.1270;8.7468;
-84.3000;0.1286;8.7444;
-84.0000;0.1262;8.7372;
-83.7000;0.1286;8.7420;
-83.4000;0.1270;8.7444;
-83.1000;0.1262;8.7492;
-82.8000;0.1302;8.7660;
-82.5000;0.1270;8.7540;
-82.2000;0.1237;8.7348;
-81.9000;0.1270;8.7372;
-81.6000;0.1270;8.7324;
-81.3000;0.1278;8.7372;
-81.0000;0.1245;8.7228;
-80.7000;0.1278;8.7300;
-80.4000;0.1278;8.7396;
-80.1000;0.1245;8.7276;
-79.8000;0.1262;8.7300;
-79.5000;0.1286;8.7276;
-79.2000;0.1286;8.7348;
-78.9000;0.1270;8.7348;
-78.6000;0.1278;8.7348;
-78.3000;0.1254;8.7276;
-78.0000;0.1270;8.7252;
-77.7000;0.1270;8.7276;
-77.4000;0.1254;8.7252;
-77.1000;0.1262;8.7300;
-76.8000;0.1254;8.7300;
-76.5000;0.1278;8.7276;
-76.2000;0.1188;8.7061;
-75.9000;0.1278;8.7276;
-75.6000;0.1278;8.7228;
-75.3000;0.1213;8.7132;
-75.0000;0.1270;8.7228;
-74.7000;0.1270;8.7300;
-74.4000;0.1286;8.7276;
-74.1000;0.1351;8.7540;
-73.8000;0.1335;8.7540;
-73.5000;0.1237;8.7348;
-73.2000;0.1270;8.7468;
-72.9000;0.1262;8.7444;
-72.6000;0.1286;8.7588;
-72.3000;0.1270;8.7588;
-72.0000;0.1262;8.7516;
-71.7000;0.1254;8.7540;
-71.4000;0.1237;8.7444;
-71.1000;0.1254;8.7492;
-70.8000;0.1213;8.7372;
-70.5000;0.1270;8.7516;
-70.2000;0.1237;8.7516;
-69.9000;0.1262;8.7492;
-69.6000;0.1278;8.7468;
-69.3000;0.1278;8.7468;
-69.0000;0.1245;8.7420;
-68.7000;0.1278;8.7420;
-68.4000;0.1278;8.7516;
-68.1000;0.1270;8.7492;
-67.8000;0.1262;8.7492;
-67.5000;0.1270;8.7492;
-67.2000;0.1197;8.7396;
-66.9000;0.1278;8.7660;
-66.6000;0.1319;8.7732;
-66.3000;0.1286;8.7756;
-66.0000;0.1376;8.7995;
-65.7000;0.1270;8.7684;
-65.4000;0.1270;8.7588;
-65.1000;0.1270;8.7540;
-64.8000;0.1343;8.7636;
-64.5000;0.1229;8.7324;
-64.2000;0.1286;8.7516;
-63.9000;0.1221;8.7444;
-63.6000;0.1237;8.7588;
-63.3000;0.1294;8.7660;
-63.0000;0.1270;8.7540;
-62.7000;0.1254;8.7492;
-62.4000;0.1294;8.7588;
-62.1000;0.1286;8.7636;
-61.8000;0.1262;8.7468;
-61.5000;0.1286;8.7420;
-61.2000;0.1294;8.7396;
-60.9000;0.1270;8.7348;
-60.6000;0.1319;8.7444;
-60.3000;0.1286;8.7396;
-60.0000;0.1270;8.7348;
-59.7000;0.1286;8.7444;
-59.4000;0.1262;8.7348;
-59.1000;0.1270;8.7468;
-58.8000;0.1254;8.7444;
-58.5000;0.1343;8.7708;
-58.2000;0.1270;8.7636;
-57.9000;0.1270;8.7564;
-57.6000;0.1262;8.7540;
-57.3000;0.1278;8.7636;
-57.0000;0.1294;8.7660;
-56.7000;0.1302;8.7708;
-56.4000;0.1286;8.7732;
-56.1000;0.1286;8.7564;
-55.8000;0.1278;8.7612;
-55.5000;0.1270;8.7636;
-55.2000;0.1302;8.7708;
-54.9000;0.1278;8.7612;
-54.6000;0.1270;8.7588;
-54.3000;0.1278;8.7564;
-54.0000;0.1286;8.7588;
-53.7000;0.1262;8.7468;
-53.4000;0.1254;8.7420;
-53.1000;0.1270;8.7468;
-52.8000;0.1335;8.7660;
-52.5000;0.1278;8.7492;
-52.2000;0.1270;8.7492;
-51.9000;0.1327;8.7660;
-51.6000;0.1278;8.7540;
-51.3000;0.1368;8.7779;
-51.0000;0.1327;8.7588;
-50.7000;0.1254;8.7444;
-50.4000;0.1294;8.7564;
-50.1000;0.1270;8.7516;
-49.8000;0.1188;8.7228;
-49.5000;0.1262;8.7420;
-49.2000;0.1286;8.7348;
-48.9000;0.1270;8.7228;
-48.6000;0.1262;8.7132;
-48.3000;0.1254;8.7132;
-48.0000;0.1286;8.7180;
-47.7000;0.1270;8.7156;
-47.4000;0.1286;8.7228;
-47.1000;0.1262;8.7252;
-46.8000;0.1229;8.7180;
-46.5000;0.1278;8.7300;
-46.2000;0.1278;8.7324;
-45.9000;0.1262;8.7324;
-45.6000;0.1343;8.7492;
-45.3000;0.1286;8.7300;
-45.0000;0.1319;8.7396;
-44.7000;0.1270;8.7276;
-44.4000;0.1262;8.7276;
-44.1000;0.1245;8.7204;
-43.8000;0.1286;8.7420;
-43.5000;0.1286;8.7396;
-43.2000;0.1254;8.7300;
-42.9000;0.1286;8.7324;
-42.6000;0.1254;8.7252;
-42.3000;0.1278;8.7324;
-42.0000;0.1270;8.7372;
-41.7000;0.1286;8.7468;
-41.4000;0.1294;8.7612;
-41.1000;0.1270;8.7516;
-40.8000;0.1245;8.7492;
-40.5000;0.1254;8.7468;
-40.2000;0.1286;8.7420;
-39.9000;0.1302;8.7348;
-39.6000;0.1270;8.7348;
-39.3000;0.1294;8.7396;
-39.0000;0.1270;8.7396;
-38.7000;0.1302;8.7420;
-38.4000;0.1384;8.7684;
-38.1000;0.1270;8.7396;
-37.8000;0.1286;8.7420;
-37.5000;0.1302;8.7444;
-37.2000;0.1270;8.7420;
-36.9000;0.1286;8.7540;
-36.6000;0.1278;8.7516;
-36.3000;0.1278;8.7492;
-36.0000;0.1262;8.7444;
-35.7000;0.1278;8.7492;
-35.4000;0.1237;8.7468;
-35.1000;0.1278;8.7540;
-34.8000;0.1262;8.7444;
-34.5000;0.1245;8.7372;
-34.2000;0.1286;8.7492;
-33.9000;0.1270;8.7396;
-33.6000;0.1319;8.7564;
-33.3000;0.1286;8.7492;
-33.0000;0.1270;8.7444;
-32.7000;0.1286;8.7444;
-32.4000;0.1270;8.7396;
-32.1000;0.1229;8.7348;
-31.8000;0.1294;8.7492;
-31.5000;0.1229;8.7300;
-31.2000;0.1278;8.7420;
-30.9000;0.1254;8.7372;
-30.6000;0.1278;8.7468;
-30.3000;0.1327;8.7540;
-30.0000;0.1270;8.7420;
-29.7000;0.1278;8.7396;
-29.4000;0.1262;8.7396;
-29.1000;0.1205;8.7276;
-28.8000;0.1270;8.7444;
-28.5000;0.1245;8.7492;
-28.2000;0.1262;8.7516;
-27.9000;0.1213;8.7468;
-27.6000;0.1270;8.7564;
-27.3000;0.1254;8.7492;
-27.0000;0.1262;8.7396;
-26.7000;0.1286;8.7420;
-26.4000;0.1262;8.7228;
-26.1000;0.1278;8.7204;
-25.8000;0.1229;8.7132;
-25.5000;0.1270;8.7324;
-25.2000;0.1286;8.7324;
-24.9000;0.1302;8.7372;
-24.6000;0.1254;8.7300;
-24.3000;0.1245;8.7420;
-24.0000;0.1270;8.7420;
-23.7000;0.1278;8.7468;
-23.4000;0.1262;8.7444;
-23.1000;0.1286;8.7444;
-22.8000;0.1278;8.7324;
-22.5000;0.1278;8.7252;
-22.2000;0.1278;8.7300;
-21.9000;0.1270;8.7300;
-21.6000;0.1278;8.7252;
-21.3000;0.1286;8.7228;
-21.0000;0.1213;8.7061;
-20.7000;0.1270;8.7204;
-20.4000;0.1270;8.7300;
-20.1000;0.1302;8.7348;
-19.8000;0.1278;8.7324;
-19.5000;0.1270;8.7252;
-19.2000;0.1254;8.7324;
-18.9000;0.1278;8.7252;
-18.6000;0.1254;8.7252;
-18.3000;0.1254;8.7348;
-18.0000;0.1254;8.7348;
-17.7000;0.1213;8.7204;
-17.4000;0.1197;8.7156;
-17.1000;0.1278;8.7324;
-16.8000;0.1278;8.7252;
-16.5000;0.1286;8.7300;
-16.2000;0.1294;8.7276;
-15.9000;0.1286;8.7204;
-15.6000;0.1286;8.7252;
-15.3000;0.1262;8.7204;
-15.0000;0.1278;8.7276;
-14.7000;0.1278;8.7276;
-14.4000;0.1286;8.7276;
-14.1000;0.1270;8.7252;
-13.8000;0.1286;8.7300;
-13.5000;0.1286;8.7324;
-13.2000;0.1270;8.7228;
-12.9000;0.1278;8.7156;
-12.6000;0.1237;8.7132;
-12.3000;0.1286;8.7276;
-12.0000;0.1270;8.7348;
-11.7000;0.1270;8.7348;
-11.4000;0.1278;8.7372;
-11.1000;0.1302;8.7372;
-10.8000;0.1294;8.7276;
-10.5000;0.1237;8.7252;
-10.2000;0.1254;8.7252;
-9.9000;0.1237;8.7204;
-9.6000;0.1270;8.7300;
-9.3000;0.1262;8.7252;
-9.0000;0.1262;8.7300;
-8.7000;0.1302;8.7468;
-8.4000;0.1270;8.7396;
-8.1000;0.1254;8.7348;
-7.8000;0.1262;8.7372;
-7.5000;0.1270;8.7324;
-7.2000;0.1302;8.7300;
-6.9000;0.1302;8.7276;
-6.6000;0.1270;8.7324;
-6.3000;0.1359;8.7492;
-6.0000;0.1262;8.7252;
-5.7000;0.1286;8.7300;
-5.4000;0.1278;8.7228;
-5.1000;0.1278;8.7204;
-4.8000;0.1270;8.7156;
-4.5000;0.1270;8.7252;
-4.2000;0.1254;8.7252;
-3.9000;0.1254;8.7180;
-3.6000;0.1278;8.7204;
-3.3000;0.1254;8.7156;
-3.0000;0.1262;8.7228;
-2.7000;0.1221;8.7228;
-2.4000;0.1270;8.7300;
-2.1000;0.1270;8.7348;
-1.8000;0.1237;8.7348;
-1.5000;0.1278;8.7348;
-1.2000;0.1294;8.7420;
-0.9000;0.1278;8.7468;
-0.6000;0.1254;8.7492;
-0.3000;0.1221;8.7420;
0.0000;0.1221;8.7420;
0.3000;0.1286;8.7228;
0.6000;0.1245;8.7228;
0.9000;0.1294;8.7396;
1.2000;0.1294;8.7444;
1.5000;0.1327;8.7660;
1.8000;0.1343;8.7779;
2.1000;0.1327;8.7803;
2.4000;0.1335;8.7827;
2.7000;0.1286;8.7875;
3.0000;0.1319;8.7995;
3.3000;0.1359;8.8187;
3.6000;0.1416;8.8379;
3.9000;0.1335;8.8043;
4.2000;0.1343;8.8043;
4.5000;0.1359;8.8091;
4.8000;0.1376;8.8115;
5.1000;0.1343;8.8091;
5.4000;0.1368;8.8163;
5.7000;0.1359;8.8067;
6.0000;0.1359;8.8091;
6.3000;0.1343;8.8091;
6.6000;0.1319;8.8115;
6.9000;0.1351;8.8235;
7.2000;0.1400;8.8331;
7.5000;0.1351;8.8211;
7.8000;0.1343;8.8163;
8.1000;0.1351;8.8187;
8.4000;0.1408;8.8307;
8.7000;0.1343;8.8211;
9.0000;0.1335;8.8235;
9.3000;0.1376;8.8379;
9.6000;0.1351;8.8283;
9.9000;0.1368;8.8235;
10.2000;0.1319;8.8163;
10.5000;0.1359;8.8163;
10.8000;0.1351;8.8019;
11.1000;0.1327;8.8043;
11.4000;0.1392;8.8187;
11.7000;0.1368;8.8187;
12.0000;0.1335;8.8163;
12.3000;0.1351;8.8187;
12.6000;0.1343;8.8139;
12.9000;0.1343;8.8259;
13.2000;0.1368;8.8379;
13.5000;0.1368;8.8355;
13.8000;0.1351;8.8379;
14.1000;0.1368;8.8403;
14.4000;0.1384;8.8355;
14.7000;0.1359;8.8355;
15.0000;0.1368;8.8259;
15.3000;0.1335;8.8211;
15.6000;0.1376;8.8355;
15.9000;0.1343;8.8211;
16.2000;0.1351;8.8187;
16.5000;0.1368;8.8235;
16.8000;0.1302;8.8163;
17.1000;0.1384;8.8307;
17.4000;0.1343;8.8187;
17.7000;0.1359;8.8211;
18.0000;0.1351;8.8187;
18.3000;0.1359;8.8187;
18.6000;0.1319;8.8115;
18.9000;0.1384;8.8355;
19.2000;0.1376;8.8403;
19.5000;0.1351;8.8331;
19.8000;0.1343;8.8235;
20.1000;0.1278;8.8043;
20.4000;0.1335;8.8235;
20.7000;0.1351;8.8211;
21.0000;0.1368;8.8283;
21.3000;0.1359;8.8235;
21.6000;0.1368;8.8307;
21.9000;0.1351;8.8403;
22.2000;0.1351;8.8259;
22.5000;0.1327;8.8307;
22.8000;0.1351;8.8379;
23.1000;0.1359;8.8450;
23.4000;0.1359;8.8355;
23.7000;0.1376;8.8427;
24.0000;0.1368;8.8427;
24.3000;0.1351;8.8450;
24.6000;0.1384;8.8474;
24.9000;0.1359;8.8403;
25.2000;0.1368;8.8379;
25.5000;0.1368;8.8379;
25.8000;0.1368;8.8379;
26.1000;0.1359;8.8355;
26.4000;0.1368;8.8331;
26.7000;0.1376;8.8355;
27.0000;0.1368;8.8355;
27.3000;0.1351;8.8235;
27.6000;0.1392;8.8331;
27.9000;0.1384;8.8259;
28.2000;0.1335;8.8163;
28.5000;0.1400;8.8427;
28.8000;0.1376;8.8427;
29.1000;0.1351;8.8355;
29.4000;0.1368;8.8355;
29.7000;0.1384;8.8283;
30.0000;0.1368;8.8307;
30.3000;0.1351;8.8427;
30.6000;0.1376;8.8522;
30.9000;0.1392;8.8522;
31.2000;0.1376;8.8427;
31.5000;0.1368;8.8403;
31.8000;0.1359;8.8355;
32.1000;0.1368;8.8403;
32.4000;0.1392;8.8450;
32.7000;0.1351;8.8307;
33.0000;0.1343;8.8259;
33.3000;0.1368;8.8331;
33.6000;0.1343;8.8283;
33.9000;0.1376;8.8259;
34.2000;0.1376;8.8211;
34.5000;0.1384;8.8235;
34.8000;0.1359;8.8187;
35.1000;0.1376;8.8307;
35.4000;0.1368;8.8283;
35.7000;0.1359;8.8259;
36.0000;0.1343;8.8307;
36.3000;0.1368;8.8379;
36.6000;0.1359;8.8450;
36.9000;0.1351;8.8546;
37.2000;0.1384;8.8666;
37.5000;0.1368;8.8546;
37.8000;0.1384;8.8570;
38.1000;0.1384;8.8522;
38.4000;0.1368;8.8474;
38.7000;0.1384;8.8450;
39.0000;0.1384;8.8474;
39.3000;0.1392;8.8450;
39.6000;0.1343;8.8355;
39.9000;0.1384;8.8474;
40.2000;0.1384;8.8331;
40.5000;0.1376;8.8259;
40.8000;0.1376;8.8259;
41.1000;0.1416;8.8403;
41.4000;0.1335;8.8307;
41.7000;0.1359;8.8474;
42.0000;0.1441;8.8546;
42.3000;0.1368;8.8427;
42.6000;0.1408;8.8546;
42.9000;0.1359;8.8427;
43.2000;0.1376;8.8450;
43.5000;0.1376;8.8522;
43.8000;0.1392;8.8546;
44.1000;0.1384;8.8570;
44.4000;0.1400;8.8666;
44.7000;0.1392;8.8642;
45.0000;0.1376;8.8498;
45.3000;0.1408;8.8546;
45.6000;0.1416;8.8474;
45.9000;0.1368;8.8427;
46.2000;0.1392;8.8522;
46.5000;0.1392;8.8570;
46.8000;0.1359;8.8522;
47.1000;0.1384;8.8498;
47.4000;0.1384;8.8546;
47.7000;0.1384;8.8594;
48.0000;0.1327;8.8474;
48.3000;0.1368;8.8618;
48.6000;0.1368;8.8666;
48.9000;0.1376;8.8714;
49.2000;0.1359;8.8546;
49.5000;0.1400;8.8474;
49.8000;0.1392;8.8522;
50.1000;0.1392;8.8570;
50.4000;0.1376;8.8522;
50.7000;0.1384;8.8522;
51.0000;0.1376;8.8522;
51.3000;0.1384;8.8522;
51.6000;0.1368;8.8450;
51.9000;0.1384;8.8379;
52.2000;0.1400;8.8379;
52.5000;0.1392;8.8450;
52.8000;0.1392;8.8403;
53.1000;0.1392;8.8427;
53.4000;0.1368;8.8403;
53.7000;0.1384;8.8450;
54.0000;0.1384;8.8427;
54.3000;0.1368;8.8403;
54.6000;0.1400;8.8474;
54.9000;0.1376;8.8450;
55.2000;0.1384;8.8427;
55.5000;0.1384;8.8522;
55.8000;0.1368;8.8450;
56.1000;0.1392;8.8498;
56.4000;0.1278;8.8187;
56.7000;0.1425;8.8474;
57.0000;0.1368;8.8379;
57.3000;0.1368;8.8307;
57.6000;0.1327;8.8163;
57.9000;0.1384;8.8331;
58.2000;0.1359;8.8283;
58.5000;0.1351;8.8283;
58.8000;0.1368;8.8331;
59.1000;0.1335;8.8307;
59.4000;0.1400;8.8474;
59.7000;0.1343;8.8427;
60.0000;0.1400;8.8666;
60.3000;0.1384;8.8666;
60.6000;0.1359;8.8546;
60.9000;0.1384;8.8546;
61.2000;0.1400;8.8594;
61.5000;0.1335;8.8379;
61.8000;0.1473;8.8642;
62.1000;0.1384;8.8427;
62.4000;0.1359;8.8307;
62.7000;0.1384;8.8403;
63.0000;0.1400;8.8450;
63.3000;0.1392;8.8427;
63.6000;0.1416;8.8450;
63.9000;0.1327;8.8187;
64.2000;0.1368;8.8355;
64.5000;0.1473;8.8642;
64.8000;0.1392;8.8474;
65.1000;0.1408;8.8522;
65.4000;0.1384;8.8474;
65.7000;0.1433;8.8498;
66.0000;0.1368;8.8331;
66.3000;0.1384;8.8355;
66.6000;0.1392;8.8403;
66.9000;0.1368;8.8331;
67.2000;0.1376;8.8403;
67.5000;0.1368;8.8307;
67.8000;0.1376;8.8331;
68.1000;0.1351;8.8355;
68.4000;0.1384;8.8450;
68.7000;0.1376;8.8403;
69.0000;0.1400;8.8474;
69.3000;0.1376;8.8379;
69.6000;0.1368;8.8427;
69.9000;0.1384;8.8403;
70.2000;0.1392;8.8427;
70.5000;0.1392;8.8522;
70.8000;0.1376;8.8474;
71.1000;0.1384;8.8498;
71.4000;0.1408;8.8522;
71.7000;0.1400;8.8594;
72.0000;0.1400;8.8522;
72.3000;0.1392;8.8546;
72.6000;0.1416;8.8594;
72.9000;0.1416;8.8546;
73.2000;0.1400;8.8474;
73.5000;0.1392;8.8427;
73.8000;0.1408;8.8474;
74.1000;0.1408;8.8546;
74.4000;0.1392;8.8474;
74.7000;0.1392;8.8474;
75.0000;0.1384;8.8498;
75.3000;0.1392;8.8522;
75.6000;0.1400;8.8498;
75.9000;0.1392;8.8427;
76.2000;0.1416;8.8474;
76.5000;0.1392;8.8427;
76.8000;0.1392;8.8355;
77.1000;0.1384;8.8259;
77.4000;0.1408;8.8331;
77.7000;0.1384;8.8211;
78.0000;0.1376;8.8307;
78.3000;0.1392;8.8259;
78.6000;0.1400;8.8283;
78.9000;0.1400;8.8283;
79.2000;0.1408;8.8307;
79.5000;0.1408;8.8379;
79.8000;0.1392;8.8450;
80.1000;0.1392;8.8427;
80.4000;0.1392;8.8403;
80.7000;0.1408;8.8450;
81.0000;0.1400;8.8450;
81.3000;0.1376;8.8498;
81.6000;0.1400;8.8546;
81.9000;0.1400;8.8546;
82.2000;0.1384;8.8450;
82.5000;0.1376;8.8307;
82.8000;0.1384;8.8355;
83.1000;0.1376;8.8331;
83.4000;0.1376;8.8283;
83.7000;0.1376;8.8355;
84.0000;0.1384;8.8427;
84.3000;0.1351;8.8427;
84.6000;0.1400;8.8427;
84.9000;0.1400;8.8450;
85.2000;0.1384;8.8474;
85.5000;0.1400;8.8522;
85.8000;0.1384;8.8450;
86.1000;0.1384;8.8474;
86.4000;0.1376;8.8403;
86.7000;0.1376;8.8379;
87.0000;0.1408;8.8427;
87.3000;0.1376;8.8379;
87.6000;0.1384;8.8427;
87.9000;0.1441;8.8522;
88.2000;0.1384;8.8331;
88.5000;0.1416;8.8450;
88.8000;0.1392;8.8450;
89.1000;0.1376;8.8427;
89.4000;0.1376;8.8403;
89.7000;0.1392;8.8379;
90.0000;0.1351;8.8187;
90.3000;0.1408;8.8283;
90.6000;0.1408;8.8307;
90.9000;0.1376;8.8259;
91.2000;0.1392;8.8307;
91.5000;0.1368;8.8283;
91.8000;0.1384;8.8355;
92.1000;0.1392;8.8379;
92.4000;0.1392;8.8355;
92.7000;0.1384;8.8355;
93.0000;0.1457;8.8522;
93.3000;0.1392;8.8427;
93.6000;0.1384;8.8450;
93.9000;0.1351;8.8427;
94.2000;0.1376;8.8379;
94.5000;0.1376;8.8331;
94.8000;0.1384;8.8331;
95.1000;0.1384;8.8355;
95.4000;0.1368;8.8331;
95.7000;0.1400;8.8474;
96.0000;0.1392;8.8474;
96.3000;0.1384;8.8427;
96.6000;0.1392;8.8427;
96.9000;0.1376;8.8379;
97.2000;0.1384;8.8331;
97.5000;0.1400;8.8331;
97.8000;0.1392;8.8307;
98.1000;0.1416;8.8355;
98.4000;0.1384;8.8283;
98.7000;0.1392;8.8355;
99.0000;0.1400;8.8379;
99.3000;0.1376;8.8283;
99.6000;0.1408;8.8307;
99.9000;0.1400;8.8331;
100.2000;0.1392;8.8379;
100.5000;0.1392;8.8331;
100.8000;0.1441;8.8427;
101.1000;0.1384;8.8307;
101.4000;0.1425;8.8355;
101.7000;0.1392;8.8331;
102.0000;0.1416;8.8427;
102.3000;0.1376;8.8427;
102.6000;0.1384;8.8427;
102.9000;0.1376;8.8427;
103.2000;0.1376;8.8427;
103.5000;0.1376;8.8403;
103.8000;0.1384;8.8427;
104.1000;0.1351;8.8355;
104.4000;0.1368;8.8403;
104.7000;0.1384;8.8522;
105.0000;0.1392;8.8474;
105.3000;0.1343;8.8307;
105.6000;0.1376;8.8355;
105.9000;0.1416;8.8498;
106.2000;0.1425;8.8498;
106.5000;0.1359;8.8355;
106.8000;0.1376;8.8403;
107.1000;0.1376;8.8355;
107.4000;0.1376;8.8355;
107.7000;0.1376;8.8355;
108.0000;0.1384;8.8379;
108.3000;0.1384;8.8403;
108.6000;0.1384;8.8403;
108.9000;0.1384;8.8379;
109.2000;0.1384;8.8427;
109.5000;0.1376;8.8498;
109.8000;0.1400;8.8594;
110.1000;0.1368;8.8570;
110.4000;0.1376;8.8522;
110.7000;0.1351;8.8450;
111.0000;0.1392;8.8666;
111.3000;0.1392;8.8618;
111.6000;0.1384;8.8594;
111.9000;0.1425;8.8714;
112.2000;0.1465;8.8810;
112.5000;0.1408;8.8594;
112.8000;0.1384;8.8427;
113.1000;0.1392;8.8427;
113.4000;0.1384;8.8331;
113.7000;0.1400;8.8379;
114.0000;0.1368;8.8283;
114.3000;0.1425;8.8259;
114.6000;0.1376;8.8139;
114.9000;0.1514;8.8618;
115.2000;0.1311;8.8115;
115.5000;0.1392;8.8331;
115.8000;0.1376;8.8307;
116.1000;0.1392;8.8331;
116.4000;0.1384;8.8403;
116.7000;0.1392;8.8403;
117.0000;0.1384;8.8427;
117.3000;0.1408;8.8522;
117.6000;0.1408;8.8546;
117.9000;0.1392;8.8450;
118.2000;0.1400;8.8498;
118.5000;0.1400;8.8474;
118.8000;0.1384;8.8403;
119.1000;0.1400;8.8331;
119.4000;0.1384;8.8307;
119.7000;0.1384;8.8259;
120.0000;0.1384;8.8259;
120.3000;0.1400;8.8283;
120.6000;0.1384;8.8163;
120.9000;0.1376;8.8283;
121.2000;0.1425;8.8379;
121.5000;0.1408;8.8403;
121.8000;0.1384;8.8307;
122.1000;0.1433;8.8450;
122.4000;0.1384;8.8355;
122.7000;0.1400;8.8403;
123.0000;0.1376;8.8379;
123.3000;0.1359;8.8307;
123.6000;0.1376;8.8355;
123.9000;0.1392;8.8403;
124.2000;0.1384;8.8355;
124.5000;0.1425;8.8522;
124.8000;0.1376;8.8403;
125.1000;0.1400;8.8403;
125.4000;0.1384;8.8403;
125.7000;0.1359;8.8307;
126.0000;0.1376;8.8379;
126.3000;0.1408;8.8331;
126.6000;0.1425;8.8450;
126.9000;0.1392;8.8307;
127.2000;0.1384;8.8307;
127.5000;0.1359;8.8307;
127.8000;0.1408;8.8355;
128.1000;0.1376;8.8187;
128.4000;0.1376;8.8187;
128.7000;0.1376;8.8235;
129.0000;0.1400;8.8259;
129.3000;0.1449;8.8307;
129.6000;0.1400;8.8259;
129.9000;0.1376;8.8259;
130.2000;0.1400;8.8427;
130.5000;0.1498;8.8642;
130.8000;0.1392;8.8355;
131.1000;0.1408;8.8379;
131.4000;0.1400;8.8307;
131.7000;0.1441;8.8474;
132.0000;0.1359;8.8331;
132.3000;0.1384;8.8403;
132.6000;0.1343;8.8283;
132.9000;0.1384;8.8379;
133.2000;0.1392;8.8355;
133.5000;0.1376;8.8307;
133.8000;0.1449;8.8522;
134.1000;0.1416;8.8379;
134.4000;0.1408;8.8235;
134.7000;0.1416;8.8163;
135.0000;0.1392;8.8115;
135.3000;0.1400;8.8235;
135.6000;0.1392;8.8211;
135.9000;0.1392;8.8235;
136.2000;0.1392;8.8235;
136.5000;0.1400;8.8235;
136.8000;0.1408;8.8283;
137.1000;0.1392;8.8259;
137.4000;0.1368;8.8283;
137.7000;0.1384;8.8211;
138.0000;0.1408;8.8187;
138.3000;0.1368;8.8067;
138.6000;0.1376;8.8091;
138.9000;0.1368;8.8091;
139.2000;0.1384;8.8211;
139.5000;0.1384;8.8379;
139.8000;0.1392;8.8498;
140.1000;0.1384;8.8427;
140.4000;0.1392;8.8355;
140.7000;0.1392;8.8331;
141.0000;0.1384;8.8283;
141.3000;0.1384;8.8427;
141.6000;0.1392;8.8379;
141.9000;0.1408;8.8355;
142.2000;0.1400;8.8379;
142.5000;0.1416;8.8474;
142.8000;0.1400;8.8450;
143.1000;0.1400;8.8427;
143.4000;0.1327;8.8139;
143.7000;0.1392;8.8283;
144.0000;0.1384;8.8355;
144.3000;0.1400;8.8379;
144.6000;0.1384;8.8331;
144.9000;0.1408;8.8403;
145.2000;0.1392;8.8403;
145.5000;0.1408;8.8474;
145.8000;0.1359;8.8331;
146.1000;0.1392;8.8450;
146.4000;0.1376;8.8498;
146.7000;0.1376;8.8474;
147.0000;0.1400;8.8498;
147.3000;0.1408;8.8498;
147.6000;0.1392;8.8474;
147.9000;0.1376;8.8450;
148.2000;0.1400;8.8474;
148.5000;0.1400;8.8427;
148.8000;0.1376;8.8331;
149.1000;0.1384;8.8379;
149.4000;0.1392;8.8379;
149.7000;0.1376;8.8379;
150.0000;0.1392;8.8450;
150.3000;0.1481;8.8690;
150.6000;0.1416;8.8546;
150.9000;0.1400;8.8522;
151.2000;0.1384;8.8474;
151.5000;0.1392;8.8474;
151.8000;0.1416;8.8450;
152.1000;0.1376;8.8331;
152.4000;0.1319;8.8187;
152.7000;0.1408;8.8427;
153.0000;0.1400;8.8450;
153.3000;0.1408;8.8427;
153.6000;0.1416;8.8427;
153.9000;0.1376;8.8403;
154.2000;0.1400;8.8379;
154.5000;0.1416;8.8427;
154.8000;0.1392;8.8379;
155.1000;0.1392;8.8427;
155.4000;0.1400;8.8474;
155.7000;0.1481;8.8642;
156.0000;0.1359;8.8355;
156.3000;0.1400;8.8498;
156.6000;0.1408;8.8642;
156.9000;0.1327;8.8403;
157.2000;0.1392;8.8522;
157.5000;0.1400;8.8522;
157.8000;0.1408;8.8546;
158.1000;0.1433;8.8618;
158.4000;0.1376;8.8379;
158.7000;0.1392;8.8427;
159.0000;0.1384;8.8427;
159.3000;0.1343;8.8331;
159.6000;0.1400;8.8379;
159.9000;0.1376;8.8450;
160.2000;0.1400;8.8427;
160.5000;0.1392;8.8403;
160.8000;0.1400;8.8403;
161.1000;0.1384;8.8379;
161.4000;0.1408;8.8450;
161.7000;0.1376;8.8331;
162.0000;0.1416;8.8450;
162.3000;0.1376;8.8355;
162.6000;0.1376;8.8379;
162.9000;0.1368;8.8379;
163.2000;0.1376;8.8474;
163.5000;0.1400;8.8474;
163.8000;0.1392;8.8450;
164.1000;0.1368;8.8331;
164.4000;0.1384;8.8355;
164.7000;0.1368;8.8235;
165.0000;0.1368;8.8211;
165.3000;0.1376;8.8235;
165.6000;0.1376;8.8307;
165.9000;0.1400;8.8283;
166.2000;0.1392;8.8331;
166.5000;0.1400;8.8307;
166.8000;0.1392;8.8283;
167.1000;0.1392;8.8307;
167.4000;0.1400;8.8307;
167.7000;0.1400;8.8379;
168.0000;0.1392;8.8379;
168.3000;0.1384;8.8403;
168.6000;0.1408;8.8450;
168.9000;0.1408;8.8403;
169.2000;0.1400;8.8355;
169.5000;0.1400;8.8307;
169.8000;0.1368;8.8187;
170.1000;0.1392;8.8211;
170.4000;0.1327;8.8163;
170.7000;0.1359;8.8283;
171.0000;0.1400;8.8331;
171.3000;0.1384;8.8283;
171.6000;0.1433;8.8403;
171.9000;0.1376;8.8259;
172.2000;0.1392;8.8331;
172.5000;0.1319;8.8139;
172.8000;0.1343;8.8187;
173.1000;0.1392;8.8307;
173.4000;0.1384;8.8307;
173.7000;0.1400;8.8379;
174.0000;0.1376;8.8331;
174.3000;0.1384;8.8331;
174.6000;0.1384;8.8379;
174.9000;0.1392;8.8307;
175.2000;0.1384;8.8259;
175.5000;0.1376;8.8211;
175.8000;0.1384;8.8187;
176.1000;0.1400;8.8235;
176.4000;0.1400;8.8307;
176.7000;0.1376;8.8283;
177.0000;0.1400;8.8211;
177.3000;0.1400;8.8211;
177.6000;0.1351;8.8187;
177.9000;0.1392;8.8211;
178.2000;0.1392;8.8187;
178.5000;0.1400;8.8259;
178.8000;0.1392;8.8331;
179.1000;0.1376;8.8187;
179.4000;0.1392;8.8163;
179.7000;0.1376;8.8163;
180.0000;0.1351;8.8139;
180.3000;0.1384;8.8235;
180.6000;0.1392;8.8307;
180.9000;0.1343;8.8163;
181.2000;0.1433;8.8307;
181.5000;0.1392;8.8259;
181.8000;0.1392;8.8235;
182.1000;0.1359;8.8307;
182.4000;0.1392;8.8355;
182.7000;0.1359;8.8235;
183.0000;0.1351;8.8163;
183.3000;0.1400;8.8235;
183.6000;0.1400;8.8235;
183.9000;0.1400;8.8235;
184.2000;0.1416;8.8259;
184.5000;0.1384;8.8259;
184.8000;0.1384;8.8283;
185.1000;0.1392;8.8307;
185.4000;0.1368;8.8211;
185.7000;0.1384;8.8307;
186.0000;0.1392;8.8283;
186.3000;0.1400;8.8307;
186.6000;0.1392;8.8235;
186.9000;0.1384;8.8283;
187.2000;0.1408;8.8331;
187.5000;0.1416;8.8307;
187.8000;0.1368;8.8163;
188.1000;0.1473;8.8355;
188.4000;0.1400;8.8211;
188.7000;0.1384;8.8115;
189.0000;0.1457;8.8283;
189.3000;0.1416;8.8259;
189.6000;0.1392;8.8163;
189.9000;0.1400;8.8163;
190.2000;0.1416;8.8235;
190.5000;0.1400;8.8259;
190.8000;0.1384;8.8163;
191.1000;0.1392;8.8187;
191.4000;0.1416;8.8235;
191.7000;0.1392;8.8211;
192.0000;0.1408;8.8235;
192.3000;0.1400;8.8259;
192.6000;0.1433;8.8283;
192.9000;0.1425;8.8163;
193.2000;0.1392;8.8163;
193.5000;0.1359;8.8139;
193.8000;0.1465;8.8379;
194.1000;0.1400;8.8091;
194.4000;0.1408;8.8067;
194.7000;0.1400;8.8091;
195.0000;0.1384;8.8019;
195.3000;0.1376;8.8043;
195.6000;0.1368;8.8115;
195.9000;0.1384;8.8211;
196.2000;0.1384;8.8283;
196.5000;0.1392;8.8235;
196.8000;0.1376;8.8211;
197.1000;0.1359;8.8067;
197.4000;0.1384;8.7995;
197.7000;0.1384;8.8091;
198.0000;0.1359;8.8115;
198.3000;0.1359;8.8163;
198.6000;0.1433;8.8331;
198.9000;0.1368;8.8307;
199.2000;0.1384;8.8355;
199.5000;0.1376;8.8379;
199.8000;0.1384;8.8403;
200.1000;0.1343;8.8379;
200.4000;0.1400;8.8427;
200.7000;0.1392;8.8427;
201.0000;0.1384;8.8379;
201.3000;0.1392;8.8403;
201.6000;0.1384;8.8450;
201.9000;0.1400;8.8498;
202.2000;0.1408;8.8498;
202.5000;0.1408;8.8546;
202.8000;0.1416;8.8522;
203.1000;0.1302;8.8259;
203.4000;0.1384;8.8522;
203.7000;0.1376;8.8594;
204.0000;0.1433;8.8690;
204.3000;0.1400;8.8570;
204.6000;0.1384;8.8498;
204.9000;0.1384;8.8570;
205.2000;0.1392;8.8570;
205.5000;0.1400;8.8618;
205.8000;0.1408;8.8618;
206.1000;0.1392;8.8594;
206.4000;0.1376;8.8594;
206.7000;0.1351;8.8474;
207.0000;0.1376;8.8474;
207.3000;0.1327;8.8379;
207.6000;0.1425;8.8666;
207.9000;0.1400;8.8570;
208.2000;0.1425;8.8618;
208.5000;0.1384;8.8450;
208.8000;0.1392;8.8498;
209.1000;0.1368;8.8498;
209.4000;0.1384;8.8618;
209.7000;0.1384;8.8570;
210.0000;0.1400;8.8642;
210.3000;0.1384;8.8546;
210.6000;0.1400;8.8546;
210.9000;0.1368;8.8522;
211.2000;0.1408;8.8570;
211.5000;0.1384;8.8450;
211.8000;0.1368;8.8450;
212.1000;0.1392;8.8474;
212.4000;0.1400;8.8355;
212.7000;0.1400;8.8259;
213.0000;0.1400;8.8187;
213.3000;0.1384;8.8187;
213.6000;0.1376;8.8235;
213.9000;0.1384;8.8259;
214.2000;0.1400;8.8403;
214.5000;0.1400;8.8403;
214.8000;0.1376;8.8427;
215.1000;0.1400;8.8427;
215.4000;0.1400;8.8450;
215.7000;0.1416;8.8522;
216.0000;0.1400;8.8355;
216.3000;0.1416;8.8427;
216.6000;0.1465;8.8522;
216.9000;0.1408;8.8403;
217.2000;0.1416;8.8427;
217.5000;0.1392;8.8498;
217.8000;0.1425;8.8570;
218.1000;0.1400;8.8498;
218.4000;0.1392;8.8450;
218.7000;0.1392;8.8450;
219.0000;0.1376;8.8379;
219.3000;0.1416;8.8379;
219.6000;0.1408;8.8379;
219.9000;0.1408;8.8450;
220.2000;0.1376;8.8379;
220.5000;0.1368;8.8355;
220.8000;0.1400;8.8403;
221.1000;0.1408;8.8379;
221.4000;0.1392;8.8307;
221.7000;0.1384;8.8259;
222.0000;0.1384;8.8307;
222.3000;0.1416;8.8331;
222.6000;0.1400;8.8331;
222.9000;0.1400;8.8403;
223.2000;0.1408;8.8379;
223.5000;0.1359;8.8259;
223.8000;0.1368;8.8235;
224.1000;0.1408;8.8331;
224.4000;0.1376;8.8379;
224.7000;0.1400;8.8355;
225.0000;0.1376;8.8331;
225.3000;0.1376;8.8235;
225.6000;0.1392;8.8283;
225.9000;0.1359;8.8115;
226.2000;0.1425;8.8307;
226.5000;0.1368;8.8283;
226.8000;0.1416;8.8450;
227.1000;0.1392;8.8403;
227.4000;0.1368;8.8355;
227.7000;0.1498;8.8618;
228.0000;0.1441;8.8474;
228.3000;0.1384;8.8355;
228.6000;0.1416;8.8379;
228.9000;0.1400;8.8331;
229.2000;0.1368;8.8379;
229.5000;0.1408;8.8450;
229.8000;0.1400;8.8427;
230.1000;0.1392;8.8403;
230.4000;0.1400;8.8450;
230.7000;0.1384;8.8403;
231.0000;0.1376;8.8355;
231.3000;0.1408;8.8427;
231.6000;0.1384;8.8355;
231.9000;0.1384;8.8355;
232.2000;0.1384;8.8355;
232.5000;0.1376;8.8331;
232.8000;0.1392;8.8331;
233.1000;0.1384;8.8331;
233.4000;0.1392;8.8403;
233.7000;0.1384;8.8331;
234.0000;0.1400;8.8379;
234.3000;0.1384;8.8331;
234.6000;0.1376;8.8283;
234.9000;0.1392;8.8403;
235.2000;0.1368;8.8307;
235.5000;0.1376;8.8379;
235.8000;0.1416;8.8403;
236.1000;0.1408;8.8474;
236.4000;0.1400;8.8427;
236.7000;0.1392;8.8355;
237.0000;0.1384;8.8307;
237.3000;0.1408;8.8450;
237.6000;0.1408;8.8498;
237.9000;0.1384;8.8546;
238.2000;0.1408;8.8546;
238.5000;0.1400;8.8522;
238.8000;0.1376;8.8474;
239.1000;0.1351;8.8522;
239.4000;0.1368;8.8642;
239.7000;0.1384;8.8690;
240.0000;0.1384;8.8594;
240.3000;0.1400;8.8546;
240.6000;0.1376;8.8450;
240.9000;0.1368;8.8450;
241.2000;0.1384;8.8474;
241.5000;0.1376;8.8403;
241.8000;0.1384;8.8474;
242.1000;0.1384;8.8546;
242.4000;0.1343;8.8474;
242.7000;0.1368;8.8522;
243.0000;0.1384;8.8474;
243.3000;0.1392;8.8618;
243.6000;0.1400;8.8570;
243.9000;0.1376;8.8427;
244.2000;0.1400;8.8379;
244.5000;0.1343;8.8235;
244.8000;0.1449;8.8474;
245.1000;0.1376;8.8211;
245.4000;0.1384;8.8139;
245.7000;0.1400;8.8187;
246.0000;0.1384;8.8115;
246.3000;0.1400;8.8307;
246.6000;0.1392;8.8379;
246.9000;0.1384;8.8379;
247.2000;0.1481;8.8570;
247.5000;0.1376;8.8235;
247.8000;0.1392;8.8283;
248.1000;0.1376;8.8283;
248.4000;0.1384;8.8379;
248.7000;0.1449;8.8498;
249.0000;0.1368;8.8355;
249.3000;0.1376;8.8403;
249.6000;0.1351;8.8331;
249.9000;0.1384;8.8403;
250.2000;0.1376;8.8403;
250.5000;0.1433;8.8498;
250.8000;0.1384;8.8307;
251.1000;0.1384;8.8307;
251.4000;0.1392;8.8379;
251.7000;0.1384;8.8283;
252.0000;0.1392;8.8331;
252.3000;0.1384;8.8331;
252.6000;0.1392;8.8379;
252.9000;0.1408;8.8331;
253.2000;0.1376;8.8283;
253.5000;0.1408;8.8427;
253.8000;0.1408;8.8498;
254.1000;0.1368;8.8427;
254.4000;0.1408;8.8546;
254.7000;0.1449;8.8642;
255.0000;0.1408;8.8403;
255.3000;0.1400;8.8403;
255.6000;0.1392;8.8522;
255.9000;0.1384;8.8450;
256.2000;0.1400;8.8403;
256.5000;0.1384;8.8355;
256.8000;0.1408;8.8427;
257.1000;0.1376;8.8427;
257.4000;0.1384;8.8450;
257.7000;0.1400;8.8474;
258.0000;0.1400;8.8474;
258.3000;0.1384;8.8427;
258.6000;0.1376;8.8450;
258.9000;0.1392;8.8498;
259.2000;0.1392;8.8522;
259.5000;0.1392;8.8546;
259.8000;0.1384;8.8522;
260.1000;0.1392;8.8546;
260.4000;0.1400;8.8546;
260.7000;0.1376;8.8498;
261.0000;0.1400;8.8546;
261.3000;0.1368;8.8498;
261.6000;0.1392;8.8546;
261.9000;0.1294;8.8355;
262.2000;0.1408;8.8690;
262.5000;0.1392;8.8642;
262.8000;0.1343;8.8546;
263.1000;0.1368;8.8546;
263.4000;0.1335;8.8474;
263.7000;0.1392;8.8594;
264.0000;0.1359;8.8570;
264.3000;0.1392;8.8642;
264.6000;0.1302;8.8379;
264.9000;0.1368;8.8570;
265.2000;0.1368;8.8522;
265.5000;0.1376;8.8594;
265.8000;0.1384;8.8546;
266.1000;0.1368;8.8498;
266.4000;0.1400;8.8474;
266.7000;0.1416;8.8474;
267.0000;0.1408;8.8450;
267.3000;0.1368;8.8307;
267.6000;0.1400;8.8283;
267.9000;0.1384;8.8163;
268.2000;0.1392;8.8187;
268.5000;0.1408;8.8211;
268.8000;0.1408;8.8355;
269.1000;0.1408;8.8474;
269.4000;0.1384;8.8427;
269.7000;0.1368;8.8498;
270.0000;0.1359;8.8522;
270.3000;0.1433;8.8642;
270.6000;0.1400;8.8522;
270.9000;0.1392;8.8427;
271.2000;0.1441;8.8498;
271.5000;0.1400;8.8450;
271.8000;0.1400;8.8474;
272.1000;0.1376;8.8450;
272.4000;0.1416;8.8642;
272.7000;0.1392;8.8642;
273.0000;0.1311;8.8474;
273.3000;0.1408;8.8666;
273.6000;0.1408;8.8618;
273.9000;0.1368;8.8594;
274.2000;0.1384;8.8690;
274.5000;0.1384;8.8666;
274.8000;0.1384;8.8690;
275.1000;0.1384;8.8690;
275.4000;0.1408;8.8666;
275.7000;0.1384;8.8570;
276.0000;0.1343;8.8427;
276.3000;0.1400;8.8427;
276.6000;0.1408;8.8427;
276.9000;0.1408;8.8450;
277.2000;0.1400;8.8450;
277.5000;0.1384;8.8427;
277.8000;0.1400;8.8498;
278.1000;0.1416;8.8642;
278.4000;0.1368;8.8570;
278.7000;0.1376;8.8546;
279.0000;0.1392;8.8642;
279.3000;0.1392;8.8642;
279.6000;0.1408;8.8642;
279.9000;0.1400;8.8690;
280.2000;0.1400;8.8594;
280.5000;0.1384;8.8546;
280.8000;0.1400;8.8570;
281.1000;0.1368;8.8403;
281.4000;0.1392;8.8450;
281.7000;0.1392;8.8450;
282.0000;0.1400;8.8498;
282.3000;0.1416;8.8570;
282.6000;0.1359;8.8498;
282.9000;0.1392;8.8642;
283.2000;0.1384;8.8618;
283.5000;0.1376;8.8594;
283.8000;0.1368;8.8546;
284.1000;0.1384;8.8594;
284.4000;0.1384;8.8618;
284.7000;0.1392;8.8594;
285.0000;0.1400;8.8618;
285.3000;0.1384;8.8570;
285.6000;0.1408;8.8570;
285.9000;0.1384;8.8570;
286.2000;0.1343;8.8379;
286.5000;0.1376;8.8570;
286.8000;0.1392;8.8666;
287.1000;0.1392;8.8570;
287.4000;0.1425;8.8570;
287.7000;0.1400;8.8474;
288.0000;0.1400;8.8450;
288.3000;0.1384;8.8450;
288.6000;0.1384;8.8522;
288.9000;0.1384;8.8522;
289.2000;0.1416;8.8450;
289.5000;0.1376;8.8307;
289.8000;0.1392;8.8307;
290.1000;0.1400;8.8211;
290.4000;0.1384;8.8235;
290.7000;0.1449;8.8379;
291.0000;0.1384;8.8187;
291.3000;0.1368;8.8187;
291.6000;0.1368;8.8211;
291.9000;0.1400;8.8283;
292.2000;0.1408;8.8307;
292.5000;0.1392;8.8307;
292.8000;0.1384;8.8427;
293.1000;0.1400;8.8498;
293.4000;0.1384;8.8498;
293.7000;0.1400;8.8546;
294.0000;0.1376;8.8427;
294.3000;0.1392;8.8379;
294.6000;0.1392;8.8379;
294.9000;0.1384;8.8427;
295.2000;0.1392;8.8450;
295.5000;0.1376;8.8570;
295.8000;0.1384;8.8594;
296.1000;0.1376;8.8570;
296.4000;0.1376;8.8546;
296.7000;0.1392;8.8522;
297.0000;0.1400;8.8522;
297.3000;0.1376;8.8474;
297.6000;0.1392;8.8498;
297.9000;0.1416;8.8498;
298.2000;0.1376;8.8379;
298.5000;0.1400;8.8355;
298.8000;0.1384;8.8187;
299.1000;0.1359;8.8091;
299.4000;0.1400;8.8115;
299.7000;0.1392;8.8163;
300.0000;0.1376;8.8211;
300.3000;0.1392;8.8307;
300.6000;0.1384;8.8331;
300.9000;0.1457;8.8498;
301.2000;0.1384;8.8283;
301.5000;0.1351;8.8259;
301.8000;0.1392;8.8403;
302.1000;0.1384;8.8355;
302.4000;0.1416;8.8403;
302.7000;0.1376;8.8450;
303.0000;0.1384;8.8618;
303.3000;0.1400;8.8690;
303.6000;0.1368;8.8714;
303.9000;0.1392;8.8858;
304.2000;0.1368;8.8738;
304.5000;0.1302;8.8450;
304.8000;0.1368;8.8522;
305.1000;0.1384;8.8570;
305.4000;0.1384;8.8570;
305.7000;0.1368;8.8522;
306.0000;0.1392;8.8474;
306.3000;0.1392;8.8450;
306.6000;0.1376;8.8546;
306.9000;0.1376;8.8594;
307.2000;0.1408;8.8642;
307.5000;0.1384;8.8618;
307.8000;0.1384;8.8642;
308.1000;0.1376;8.8450;
308.4000;0.1359;8.8450;
308.7000;0.1384;8.8474;
309.0000;0.1400;8.8522;
309.3000;0.1392;8.8474;
309.6000;0.1400;8.8618;
309.9000;0.1384;8.8618;
310.2000;0.1392;8.8666;
310.5000;0.1376;8.8522;
310.8000;0.1376;8.8594;
311.1000;0.1384;8.8618;
311.4000;0.1449;8.8690;
311.7000;0.1392;8.8570;
312.0000;0.1376;8.8546;
312.3000;0.1384;8.8618;
312.6000;0.1376;8.8618;
312.9000;0.1384;8.8618;
313.2000;0.1384;8.8546;
313.5000;0.1376;8.8594;
313.8000;0.1368;8.8522;
314.1000;0.1384;8.8498;
314.4000;0.1384;8.8498;
314.7000;0.1376;8.8498;
315.0000;0.1376;8.8498;
315.3000;0.1351;8.8403;
315.6000;0.1392;8.8331;
315.9000;0.1384;8.8331;
316.2000;0.1351;8.8331;
316.5000;0.1376;8.8427;
316.8000;0.1392;8.8450;
317.1000;0.1384;8.8522;
317.4000;0.1392;8.8570;
317.7000;0.1351;8.8427;
318.0000;0.1392;8.8450;
318.3000;0.1384;8.8331;
318.6000;0.1384;8.8187;
318.9000;0.1376;8.8211;
319.2000;0.1376;8.8331;
319.5000;0.1376;8.8427;
319.8000;0.1392;8.8450;
320.1000;0.1384;8.8450;
320.4000;0.1392;8.8450;
320.7000;0.1311;8.8307;
321.0000;0.1376;8.8498;
321.3000;0.1376;8.8474;
321.6000;0.1392;8.8498;
321.9000;0.1408;8.8403;
322.2000;0.1384;8.8403;
322.5000;0.1335;8.8307;
322.8000;0.1433;8.8522;
323.1000;0.1392;8.8379;
323.4000;0.1368;8.8450;
323.7000;0.1408;8.8474;
324.0000;0.1376;8.8403;
324.3000;0.1392;8.8355;
324.6000;0.1400;8.8307;
324.9000;0.1400;8.8235;
325.2000;0.1400;8.8259;
325.5000;0.1400;8.8187;
325.8000;0.1376;8.8211;
326.1000;0.1384;8.8235;
326.4000;0.1400;8.8283;
326.7000;0.1400;8.8379;
327.0000;0.1384;8.8379;
327.3000;0.1359;8.8307;
327.6000;0.1408;8.8403;
327.9000;0.1408;8.8379;
328.2000;0.1392;8.8307;
328.5000;0.1490;8.8498;
328.8000;0.1400;8.8235;
329.1000;0.1359;8.8235;
329.4000;0.1392;8.8259;
329.7000;0.1384;8.8307;
330.0000;0.1376;8.8259;
330.3000;0.1368;8.8355;
330.6000;0.1384;8.8379;
330.9000;0.1351;8.8427;
331.2000;0.1376;8.8570;
331.5000;0.1408;8.8666;
331.8000;0.1368;8.8690;
332.1000;0.1359;8.8618;
332.4000;0.1384;8.8570;
332.7000;0.1392;8.8522;
333.0000;0.1376;8.8403;
333.3000;0.1392;8.8498;
333.6000;0.1376;8.8331;
333.9000;0.1384;8.8283;
334.2000;0.1416;8.8307;
334.5000;0.1400;8.8331;
334.8000;0.1376;8.8307;
335.1000;0.1392;8.8379;
335.4000;0.1392;8.8355;
335.7000;0.1392;8.8427;
336.0000;0.1392;8.8450;
336.3000;0.1368;8.8427;
336.6000;0.1392;8.8522;
336.9000;0.1392;8.8546;
337.2000;0.1392;8.8522;
337.5000;0.1416;8.8570;
337.8000;0.1400;8.8498;
338.1000;0.1392;8.8522;
338.4000;0.1359;8.8474;
338.7000;0.1376;8.8594;
339.0000;0.1392;8.8762;
339.3000;0.1351;8.8570;
339.6000;0.1408;8.8618;
339.9000;0.1384;8.8498;
340.2000;0.1457;8.8546;
340.5000;0.1457;8.8594;
340.8000;0.1392;8.8379;
341.1000;0.1408;8.8450;
341.4000;0.1400;8.8474;
341.7000;0.1522;8.8810;
342.0000;0.1311;8.8283;
342.3000;0.1376;8.8474;
342.6000;0.1384;8.8474;
342.9000;0.1384;8.8498;
343.2000;0.1368;8.8403;
343.5000;0.1449;8.8642;
343.8000;0.1392;8.8594;
344.1000;0.1408;8.8618;
344.4000;0.1400;8.8594;
344.7000;0.1368;8.8498;
345.0000;0.1368;8.8450;
345.3000;0.1384;8.8355;
345.6000;0.1400;8.8379;
345.9000;0.1384;8.8307;
346.2000;0.1359;8.8307;
346.5000;0.1449;8.8594;
346.8000;0.1376;8.8427;
347.1000;0.1449;8.8666;
347.4000;0.1376;8.8546;
347.7000;0.1400;8.8570;
348.0000;0.1351;8.8427;
348.3000;0.1400;8.8522;
348.6000;0.1384;8.8474;
348.9000;0.1392;8.8498;
349.2000;0.1400;8.8427;
349.5000;0.1327;8.8307;
349.8000;0.1384;8.8403;
350.1000;0.1400;8.8427;
350.4000;0.1384;8.8450;
350.7000;0.1376;8.8427;
351.0000;0.1359;8.8379;
351.3000;0.1400;8.8450;
351.6000;0.1400;8.8474;
351.9000;0.1433;8.8522;
352.2000;0.1376;8.8379;
352.5000;0.1457;8.8522;
352.8000;0.1376;8.8307;
353.1000;0.1400;8.8331;
353.4000;0.1384;8.8259;
353.7000;0.1376;8.8307;
354.0000;0.1376;8.8307;
354.3000;0.1408;8.8379;
354.6000;0.1433;8.8498;
354.9000;0.1392;8.8355;
355.2000;0.1359;8.8259;
355.5000;0.1368;8.8331;
355.8000;0.1351;8.8259;
356.1000;0.1343;8.8187;
356.4000;0.1376;8.8283;
356.7000;0.1368;8.8211;
357.0000;0.1392;8.8283;
357.3000;0.1384;8.8235;
357.6000;0.1392;8.8187;
357.9000;0.1384;8.8211;
358.2000;0.1384;8.8235;
358.5000;0.1327;8.8043;
358.8000;0.1384;8.8163;
359.1000;0.1376;8.8139;
359.4000;0.1376;8.8211;
359.7000;0.1376;8.8211;
360.0000;0.1384;8.8259;
360.3000;0.1384;8.8259;
360.6000;0.1359;8.8259;
360.9000;0.1376;8.8379;
361.2000;0.1416;8.8474;
361.5000;0.1392;8.8474;
361.8000;0.1376;8.8379;
362.1000;0.1384;8.8355;
362.4000;0.1481;8.8522;
362.7000;0.1392;8.8211;
363.0000;0.1368;8.8259;
363.3000;0.1384;8.8331;
363.6000;0.1335;8.8331;
363.9000;0.1400;8.8427;
364.2000;0.1327;8.8259;
364.5000;0.1433;8.8498;
364.8000;0.1376;8.8331;
365.1000;0.1392;8.8331;
365.4000;0.1400;8.8331;
365.7000;0.1359;8.8331;
366.0000;0.1376;8.8307;
366.3000;0.1368;8.8307;
366.6000;0.1351;8.8187;
366.9000;0.1384;8.8211;
367.2000;0.1392;8.8163;
367.5000;0.1392;8.8187;
367.8000;0.1384;8.8139;
368.1000;0.1384;8.8091;
368.4000;0.1392;8.8187;
368.7000;0.1384;8.8235;
369.0000;0.1400;8.8283;
369.3000;0.1392;8.8259;
369.6000;0.1416;8.8355;
369.9000;0.1392;8.8307;
370.2000;0.1376;8.8331;
370.5000;0.1392;8.8403;
370.8000;0.1392;8.8403;
371.1000;0.1392;8.8403;
371.4000;0.1376;8.8355;
371.7000;0.1384;8.8355;
372.0000;0.1481;8.8570;
372.3000;0.1449;8.8522;
372.6000;0.1392;8.8403;
372.9000;0.1433;8.8522;
373.2000;0.1425;8.8474;
373.5000;0.1384;8.8379;
373.8000;0.1392;8.8427;
374.1000;0.1392;8.8379;
374.4000;0.1384;8.8331;
374.7000;0.1392;8.8379;
375.0000;0.1416;8.8522;
375.3000;0.1384;8.8450;
375.6000;0.1392;8.8403;
375.9000;0.1384;8.8450;
376.2000;0.1408;8.8450;
376.5000;0.1376;8.8403;
376.8000;0.1392;8.8331;
377.1000;0.1400;8.8259;
377.4000;0.1392;8.8331;
377.7000;0.1384;8.8259;
378.0000;0.1384;8.8187;
378.3000;0.1457;8.8307;
378.6000;0.1408;8.8283;
378.9000;0.1384;8.8235;
379.2000;0.1392;8.8283;
379.5000;0.1368;8.8259;
379.8000;0.1359;8.8163;
380.1000;0.1408;8.8307;
380.4000;0.1351;8.8211;
380.7000;0.1376;8.8307;
381.0000;0.1376;8.8259;
381.3000;0.1376;8.8283;
381.6000;0.1433;8.8474;
381.9000;0.1384;8.8379;
382.2000;0.1327;8.8235;
382.5000;0.1368;8.8379;
382.8000;0.1376;8.8283;
383.1000;0.1368;8.8235;
383.4000;0.1376;8.8283;
383.7000;0.1392;8.8379;
384.0000;0.1376;8.8403;
384.3000;0.1384;8.8474;
384.6000;0.1392;8.8427;
384.9000;0.1400;8.8474;
385.2000;0.1400;8.8450;
385.5000;0.1376;8.8355;
385.8000;0.1376;8.8379;
386.1000;0.1376;8.8355;
386.4000;0.1400;8.8283;
386.7000;0.1392;8.8187;
387.0000;0.1368;8.8139;
387.3000;0.1384;8.8259;
387.6000;0.1384;8.8259;
387.9000;0.1327;8.8091;
388.2000;0.1376;8.8139;
388.5000;0.1400;8.8187;
388.8000;0.1368;8.8139;
389.1000;0.1376;8.8211;
389.4000;0.1392;8.8235;
389.7000;0.1392;8.8283;
390.0000;0.1392;8.8307;
390.3000;0.1400;8.8331;
390.6000;0.1384;8.8331;
390.9000;0.1376;8.8355;
391.2000;0.1376;8.8450;
391.5000;0.1384;8.8379;
391.8000;0.1359;8.8283;
392.1000;0.1376;8.8283;
392.4000;0.1376;8.8283;
392.7000;0.1384;8.8259;
393.0000;0.1392;8.8235;
393.3000;0.1400;8.8187;
393.6000;0.1416;8.8235;
393.9000;0.1465;8.8355;
394.2000;0.1400;8.8211;
394.5000;0.1368;8.8187;
394.8000;0.1376;8.8187;
395.1000;0.1408;8.8259;
395.4000;0.1400;8.8259;
395.7000;0.1376;8.8187;
396.0000;0.1433;8.8331;
396.3000;0.1376;8.8187;
396.6000;0.1376;8.8163;
396.9000;0.1384;8.8235;
397.2000;0.1376;8.8211;
397.5000;0.1351;8.8187;
397.8000;0.1416;8.8331;
398.1000;0.1400;8.8211;
398.4000;0.1408;8.8139;
398.7000;0.1392;8.8115;
399.0000;0.1359;8.8139;
399.3000;0.1384;8.8211;
399.6000;0.1400;8.8283;
399.9000;0.1384;8.8331;
400.2000;0.1416;8.8474;
400.5000;0.1408;8.8379;
400.8000;0.1400;8.8427;
401.1000;0.1376;8.8331;
401.4000;0.1359;8.8259;
401.7000;0.1376;8.8211;
402.0000;0.1343;8.8091;
402.3000;0.1384;8.8163;
402.6000;0.1368;8.8163;
402.9000;0.1400;8.8211;
403.2000;0.1449;8.8355;
403.5000;0.1416;8.8331;
403.8000;0.1359;8.8283;
404.1000;0.1368;8.8283;
404.4000;0.1384;8.8211;
404.7000;0.1400;8.8307;
405.0000;0.1368;8.8331;
405.3000;0.1400;8.8474;
405.6000;0.1433;8.8546;
405.9000;0.1376;8.8379;
406.2000;0.1351;8.8331;
406.5000;0.1384;8.8427;
406.8000;0.1392;8.8355;
407.1000;0.1384;8.8355;
407.4000;0.1368;8.8283;
407.7000;0.1416;8.8403;
408.0000;0.1408;8.8307;
408.3000;0.1400;8.8355;
408.6000;0.1400;8.8403;
408.9000;0.1400;8.8403;
409.2000;0.1392;8.8403;
409.5000;0.1392;8.8427;
409.8000;0.1408;8.8570;
410.1000;0.1400;8.8498;
410.4000;0.1384;8.8594;
410.7000;0.1384;8.8594;
411.0000;0.1392;8.8546;
411.3000;0.1392;8.8522;
411.6000;0.1392;8.8403;
411.9000;0.1392;8.8427;
412.2000;0.1400;8.8355;
412.5000;0.1392;8.8187;
412.8000;0.1392;8.8235;
413.1000;0.1400;8.8235;
413.4000;0.1392;8.8211;
413.7000;0.1335;8.8211;
414.0000;0.1376;8.8331;
414.3000;0.1376;8.8355;
414.6000;0.1376;8.8355;
414.9000;0.1368;8.8235;
415.2000;0.1368;8.8235;
415.5000;0.1392;8.8403;
415.8000;0.1408;8.8403;
416.1000;0.1376;8.8355;
416.4000;0.1368;8.8283;
416.7000;0.1376;8.8403;
417.0000;0.1376;8.8427;
417.3000;0.1384;8.8427;
417.6000;0.1376;8.8450;
417.9000;0.1359;8.8331;
418.2000;0.1384;8.8403;
418.5000;0.1400;8.8355;
418.8000;0.1376;8.8331;
419.1000;0.1392;8.8307;
419.4000;0.1392;8.8355;
419.7000;0.1376;8.8259;
420.0000;0.1351;8.8187;
420.3000;0.1359;8.8259;
420.6000;0.1376;8.8235;
420.9000;0.1376;8.8259;
421.2000;0.1376;8.8331;
421.5000;0.1384;8.8331;
421.8000;0.1384;8.8450;
422.1000;0.1376;8.8450;
422.4000;0.1408;8.8474;
422.7000;0.1376;8.8427;
423.0000;0.1376;8.8474;
423.3000;0.1400;8.8594;
423.6000;0.1376;8.8570;
423.9000;0.1376;8.8522;
424.2000;0.1392;8.8427;
424.5000;0.1384;8.8403;
424.8000;0.1392;8.8403;
425.1000;0.1384;8.8403;
425.4000;0.1368;8.8307;
425.7000;0.1359;8.8427;
426.0000;0.1392;8.8522;
426.3000;0.1376;8.8474;
426.6000;0.1384;8.8427;
426.9000;0.1408;8.8474;
427.2000;0.1359;8.8307;
427.5000;0.1392;8.8427;
427.8000;0.1343;8.8403;
428.1000;0.1384;8.8642;
428.4000;0.1384;8.8666;
428.7000;0.1408;8.8738;
429.0000;0.1384;8.8666;
429.3000;0.1408;8.8714;
429.6000;0.1400;8.8690;
429.9000;0.1400;8.8642;
430.2000;0.1384;8.8594;
430.5000;0.1400;8.8618;
430.8000;0.1425;8.8666;
431.1000;0.1465;8.8762;
431.4000;0.1384;8.8498;
431.7000;0.1400;8.8546;
432.0000;0.1392;8.8474;
432.3000;0.1392;8.8546;
432.6000;0.1376;8.8498;
432.9000;0.1368;8.8522;
433.2000;0.1384;8.8522;
433.5000;0.1384;8.8546;
433.8000;0.1376;8.8546;
434.1000;0.1392;8.8570;
434.4000;0.1392;8.8594;
434.7000;0.1400;8.8618;
435.0000;0.1384;8.8594;
435.3000;0.1400;8.8618;
435.6000;0.1376;8.8546;
435.9000;0.1376;8.8618;
436.2000;0.1368;8.8642;
436.5000;0.1376;8.8618;
436.8000;0.1368;8.8594;
437.1000;0.1408;8.8594;
437.4000;0.1392;8.8570;
437.7000;0.1368;8.8522;
438.0000;0.1392;8.8546;
438.3000;0.1368;8.8498;
438.6000;0.1392;8.8546;
438.9000;0.1425;8.8570;
439.2000;0.1392;8.8474;
439.5000;0.1408;8.8474;
439.8000;0.1384;8.8498;
440.1000;0.1384;8.8498;
440.4000;0.1384;8.8522;
440.7000;0.1392;8.8570;
441.0000;0.1400;8.8618;
441.3000;0.1384;8.8498;
441.6000;0.1376;8.8546;
441.9000;0.1343;8.8355;
442.2000;0.1384;8.8427;
442.5000;0.1384;8.8427;
442.8000;0.1408;8.8474;
443.1000;0.1359;8.8474;
443.4000;0.1392;8.8498;
443.7000;0.1376;8.8498;
444.0000;0.1392;8.8570;
444.3000;0.1368;8.8498;
444.6000;0.1384;8.8522;
444.9000;0.1376;8.8498;
445.2000;0.1384;8.8546;
445.5000;0.1425;8.8642;
445.8000;0.1384;8.8546;
446.1000;0.1384;8.8546;
446.4000;0.1392;8.8522;
446.7000;0.1376;8.8594;
447.0000;0.1384;8.8618;
447.3000;0.1376;8.8570;
447.6000;0.1408;8.8618;
447.9000;0.1392;8.8546;
448.2000;0.1384;8.8522;
448.5000;0.1376;8.8666;
448.8000;0.1392;8.8642;
449.1000;0.1359;8.8522;
449.4000;0.1376;8.8498;
449.7000;0.1392;8.8594;
450.0000;0.1400;8.8522;
450.3000;0.1392;8.8474;
450.6000;0.1359;8.8403;
450.9000;0.1392;8.8498;
451.2000;0.1392;8.8498;
451.5000;0.1376;8.8450;
451.8000;0.1376;8.8450;
452.1000;0.1359;8.8379;
452.4000;0.1376;8.8427;
452.7000;0.1376;8.8355;
453.0000;0.1392;8.8403;
453.3000;0.1384;8.8403;
453.6000;0.1384;8.8474;
453.9000;0.1343;8.8450;
454.2000;0.1384;8.8474;
454.5000;0.1384;8.8427;
454.8000;0.1392;8.8427;
455.1000;0.1384;8.8474;
455.4000;0.1376;8.8474;
455.7000;0.1384;8.8450;
456.0000;0.1376;8.8427;
456.3000;0.1384;8.8427;
456.6000;0.1384;8.8450;
456.9000;0.1384;8.8450;
457.2000;0.1351;8.8403;
457.5000;0.1376;8.8427;
457.8000;0.1408;8.8427;
458.1000;0.1384;8.8307;
458.4000;0.1384;8.8355;
458.7000;0.1368;8.8379;
459.0000;0.1384;8.8427;
459.3000;0.1376;8.8355;
459.6000;0.1392;8.8403;
459.9000;0.1343;8.8283;
460.2000;0.1392;8.8474;
460.5000;0.1400;8.8522;
460.8000;0.1384;8.8546;
461.1000;0.1400;8.8522;
461.4000;0.1400;8.8498;
461.7000;0.1392;8.8450;
462.0000;0.1384;8.8450;
462.3000;0.1376;8.8427;
462.6000;0.1392;8.8427;
462.9000;0.1376;8.8331;
463.2000;0.1376;8.8355;
463.5000;0.1376;8.8403;
463.8000;0.1376;8.8450;
464.1000;0.1392;8.8498;
464.4000;0.1384;8.8498;
464.7000;0.1359;8.8474;
465.0000;0.1392;8.8474;
465.3000;0.1351;8.8379;
465.6000;0.1384;8.8427;
465.9000;0.1368;8.8355;
466.2000;0.1376;8.8283;
466.5000;0.1384;8.8259;
466.8000;0.1384;8.8379;
467.1000;0.1400;8.8427;
467.4000;0.1392;8.8379;
467.7000;0.1457;8.8642;
468.0000;0.1392;8.8474;
468.3000;0.1368;8.8474;
468.6000;0.1359;8.8450;
468.9000;0.1376;8.8450;
469.2000;0.1384;8.8450;
469.5000;0.1351;8.8498;
469.8000;0.1376;8.8546;
470.1000;0.1368;8.8498;
470.4000;0.1376;8.8450;
470.7000;0.1327;8.8379;
471.0000;0.1368;8.8379;
471.3000;0.1376;8.8474;
471.6000;0.1408;8.8450;
471.9000;0.1368;8.8355;
472.2000;0.1392;8.8331;
472.5000;0.1376;8.8379;
472.8000;0.1441;8.8450;
473.1000;0.1392;8.8307;
473.4000;0.1343;8.8259;
473.7000;0.1408;8.8522;
474.0000;0.1376;8.8427;
474.3000;0.1400;8.8450;
474.6000;0.1384;8.8355;
474.9000;0.1359;8.8235;
475.2000;0.1408;8.8379;
475.5000;0.1384;8.8307;
475.8000;0.1400;8.8331;
476.1000;0.1392;8.8427;
476.4000;0.1408;8.8498;
476.7000;0.1400;8.8546;
477.0000;0.1392;8.8546;
477.3000;0.1400;8.8427;
477.6000;0.1384;8.8355;
477.9000;0.1400;8.8450;
478.2000;0.1376;8.8379;
478.5000;0.1457;8.8594;
478.8000;0.1392;8.8403;
479.1000;0.1368;8.8474;
479.4000;0.1392;8.8570;
479.7000;0.1359;8.8594;
480.0000;0.1376;8.8642;
480.3000;0.1376;8.8594;
480.6000;0.1368;8.8594;
480.9000;0.1392;8.8666;
481.2000;0.1376;8.8618;
481.5000;0.1392;8.8642;
481.8000;0.1384;8.8618;
482.1000;0.1392;8.8594;
482.4000;0.1384;8.8570;
482.7000;0.1392;8.8618;
483.0000;0.1384;8.8618;
483.3000;0.1384;8.8570;
483.6000;0.1384;8.8522;
483.9000;0.1368;8.8498;
484.2000;0.1376;8.8427;
484.5000;0.1343;8.8450;
484.8000;0.1425;8.8666;
485.1000;0.1384;8.8618;
485.4000;0.1416;8.8738;
485.7000;0.1400;8.8714;
486.0000;0.1368;8.8618;
486.3000;0.1376;8.8642;
486.6000;0.1376;8.8570;
486.9000;0.1392;8.8594;
487.2000;0.1368;8.8594;
487.5000;0.1368;8.8594;
487.8000;0.1376;8.8546;
488.1000;0.1376;8.8546;
488.4000;0.1449;8.8690;
488.7000;0.1368;8.8474;
489.0000;0.1376;8.8546;
489.3000;0.1384;8.8594;
489.6000;0.1376;8.8618;
489.9000;0.1376;8.8690;
490.2000;0.1376;8.8666;
490.5000;0.1327;8.8522;
490.8000;0.1408;8.8714;
491.1000;0.1376;8.8714;
491.4000;0.1376;8.8642;
491.7000;0.1368;8.8594;
492.0000;0.1392;8.8714;
492.3000;0.1376;8.8762;
492.6000;0.1384;8.8762;
492.9000;0.1319;8.8594;
493.2000;0.1376;8.8810;
493.5000;0.1392;8.8882;
493.8000;0.1351;8.8834;
494.1000;0.1368;8.8882;
494.4000;0.1400;8.8858;
494.7000;0.1343;8.8666;
495.0000;0.1376;8.8738;
495.3000;0.1384;8.8810;
495.6000;0.1457;8.9002;
495.9000;0.1408;8.8834;
496.2000;0.1392;8.8714;
496.5000;0.1368;8.8618;
496.8000;0.1392;8.8642;
497.1000;0.1392;8.8594;
497.4000;0.1392;8.8738;
497.7000;0.1384;8.8690;
498.0000;0.1400;8.8738;
498.3000;0.1400;8.8762;
498.6000;0.1368;8.8666;
498.9000;0.1376;8.8618;
499.2000;0.1392;8.8666;
499.5000;0.1384;8.8618;
499.8000;0.1392;8.8618;
500.1000;0.1392;8.8570;
500.4000;0.1392;8.8618;
500.7000;0.1376;8.8714;
501.0000;0.1392;8.8714;
501.3000;0.1368;8.8666;
501.6000;0.1392;8.8786;
501.9000;0.1335;8.8618;
502.2000;0.1384;8.8714;
502.5000;0.1400;8.8714;
502.8000;0.1384;8.8690;
503.1000;0.1384;8.8642;
503.4000;0.1376;8.8714;
503.7000;0.1359;8.8642;
504.0000;0.1368;8.8618;
504.3000;0.1400;8.8738;
504.6000;0.1376;8.8642;
504.9000;0.1384;8.8642;
505.2000;0.1392;8.8690;
505.5000;0.1376;8.8642;
505.8000;0.1392;8.8594;
506.1000;0.1400;8.8642;
506.4000;0.1368;8.8618;
506.7000;0.1376;8.8690;
507.0000;0.1425;8.8834;
507.3000;0.1400;8.8738;
507.6000;0.1384;8.8786;
507.9000;0.1368;8.8738;
508.2000;0.1384;8.8786;
508.5000;0.1376;8.8690;
508.8000;0.1392;8.8786;
509.1000;0.1335;8.8642;
509.4000;0.1384;8.8762;
509.7000;0.1376;8.8738;
510.0000;0.1384;8.8762;
510.3000;0.1343;8.8570;
510.6000;0.1384;8.8666;
510.9000;0.1392;8.8762;
511.2000;0.1441;8.8858;
511.5000;0.1433;8.8834;
511.8000;0.1400;8.8666;
512.1000;0.1416;8.8762;
512.4000;0.1384;8.8618;
512.7000;0.1384;8.8570;
513.0000;0.1376;8.8594;
513.3000;0.1392;8.8666;
513.6000;0.1392;8.8714;
513.9000;0.1433;8.8858;
514.2000;0.1319;8.8594;
514.5000;0.1376;8.8714;
514.8000;0.1416;8.8762;
515.1000;0.1416;8.8714;
515.4000;0.1384;8.8594;
515.7000;0.1376;8.8594;
516.0000;0.1384;8.8642;
516.3000;0.1368;8.8666;
516.6000;0.1400;8.8714;
516.9000;0.1376;8.8642;
517.2000;0.1376;8.8618;
517.5000;0.1416;8.8738;
517.8000;0.1392;8.8618;
518.1000;0.1376;8.8546;
518.4000;0.1392;8.8522;
518.7000;0.1384;8.8450;
519.0000;0.1392;8.8594;
519.3000;0.1376;8.8546;
519.6000;0.1384;8.8642;
519.9000;0.1376;8.8618;
520.2000;0.1400;8.8642;
520.5000;0.1392;8.8570;
520.8000;0.1376;8.8570;
521.1000;0.1376;8.8642;
521.4000;0.1384;8.8618;
521.7000;0.1400;8.8642;
522.0000;0.1400;8.8666;
522.3000;0.1392;8.8714;
522.6000;0.1384;8.8714;
522.9000;0.1408;8.8714;
523.2000;0.1400;8.8738;
523.5000;0.1359;8.8618;
523.8000;0.1384;8.8642;
524.1000;0.1376;8.8642;
524.4000;0.1384;8.8762;
524.7000;0.1376;8.8762;
525.0000;0.1392;8.8786;
525.3000;0.1392;8.8858;
525.6000;0.1376;8.8786;
525.9000;0.1359;8.8666;
526.2000;0.1400;8.8714;
526.5000;0.1384;8.8762;
526.8000;0.1392;8.8762;
527.1000;0.1368;8.8642;
527.4000;0.1400;8.8690;
527.7000;0.1384;8.8690;
528.0000;0.1376;8.8666;
528.3000;0.1359;8.8618;
528.6000;0.1376;8.8618;
528.9000;0.1376;8.8594;
529.2000;0.1384;8.8642;
529.5000;0.1384;8.8690;
529.8000;0.1327;8.8642;
530.1000;0.1400;8.8738;
530.4000;0.1457;8.8882;
530.7000;0.1359;8.8594;
531.0000;0.1384;8.8690;
531.3000;0.1392;8.8738;
531.6000;0.1368;8.8618;
531.9000;0.1384;8.8738;
532.2000;0.1384;8.8714;
532.5000;0.1416;8.8810;
532.8000;0.1384;8.8786;
533.1000;0.1400;8.8882;
533.4000;0.1359;8.8738;
533.7000;0.1384;8.8762;
534.0000;0.1351;8.8762;
534.3000;0.1384;8.8858;
534.6000;0.1400;8.8978;
534.9000;0.1400;8.8954;
535.2000;0.1392;8.8954;
535.5000;0.1368;8.8882;
535.8000;0.1384;8.8930;
536.1000;0.1376;8.8858;
536.4000;0.1368;8.8762;
536.7000;0.1384;8.8738;
537.0000;0.1335;8.8618;
537.3000;0.1384;8.8738;
537.6000;0.1368;8.8762;
537.9000;0.1392;8.8834;
538.2000;0.1392;8.8810;
538.5000;0.1351;8.8786;
538.8000;0.1376;8.8834;
539.1000;0.1384;8.8858;
539.4000;0.1368;8.8834;
539.7000;0.1400;8.8786;
540.0000;0.1368;8.8690;
540.3000;0.1302;8.8594;
540.6000;0.1400;8.8762;
540.9000;0.1400;8.8666;
541.2000;0.1384;8.8690;
541.5000;0.1392;8.8834;
541.8000;0.1384;8.8810;
542.1000;0.1384;8.8690;
542.4000;0.1392;8.8666;
542.7000;0.1392;8.8690;
543.0000;0.1376;8.8738;
543.3000;0.1384;8.8738;
543.6000;0.1376;8.8762;
543.9000;0.1392;8.8810;
544.2000;0.1384;8.8738;
544.5000;0.1400;8.8690;
544.8000;0.1319;8.8570;
545.1000;0.1384;8.8810;
545.4000;0.1408;8.8858;
545.7000;0.1392;8.8786;
546.0000;0.1376;8.8882;
546.3000;0.1384;8.8810;
546.6000;0.1343;8.8762;
546.9000;0.1408;8.8954;
547.2000;0.1384;8.8906;
547.5000;0.1376;8.8858;
547.8000;0.1400;8.8858;
548.1000;0.1433;8.8978;
548.4000;0.1359;8.8786;
548.7000;0.1359;8.8738;
549.0000;0.1376;8.8738;
549.3000;0.1384;8.8810;
549.6000;0.1384;8.8810;
549.9000;0.1302;8.8618;
550.2000;0.1376;8.8810;
550.5000;0.1400;8.8954;
550.8000;0.1400;8.8906;
551.1000;0.1400;8.8858;
551.4000;0.1384;8.8738;
551.7000;0.1359;8.8642;
552.0000;0.1376;8.8642;
552.3000;0.1384;8.8762;
552.6000;0.1376;8.8762;
552.9000;0.1359;8.8642;
553.2000;0.1400;8.8810;
553.5000;0.1384;8.8786;
553.8000;0.1392;8.8738;
554.1000;0.1302;8.8498;
554.4000;0.1368;8.8690;
554.7000;0.1376;8.8714;
555.0000;0.1408;8.8858;
555.3000;0.1343;8.8690;
555.6000;0.1400;8.8810;
555.9000;0.1343;8.8690;
556.2000;0.1392;8.8714;
556.5000;0.1384;8.8762;
556.8000;0.1392;8.8762;
557.1000;0.1392;8.8786;
557.4000;0.1384;8.8786;
557.7000;0.1392;8.8810;
558.0000;0.1408;8.8930;
558.3000;0.1384;8.8882;
558.6000;0.1433;8.8954;
558.9000;0.1359;8.8834;
559.2000;0.1376;8.8810;
559.5000;0.1311;8.8618;
559.8000;0.1368;8.8666;
560.1000;0.1368;8.8618;
560.4000;0.1368;8.8642;
560.7000;0.1384;8.8714;
561.0000;0.1384;8.8690;
561.3000;0.1384;8.8714;
561.6000;0.1376;8.8690;
561.9000;0.1376;8.8618;
562.2000;0.1376;8.8618;
562.5000;0.1384;8.8546;
562.8000;0.1384;8.8522;
563.1000;0.1392;8.8498;
563.4000;0.1408;8.8594;
563.7000;0.1392;8.8546;
564.0000;0.1392;8.8498;
564.3000;0.1384;8.8498;
564.6000;0.1384;8.8427;
564.9000;0.1384;8.8427;
565.2000;0.1400;8.8522;
565.5000;0.1368;8.8522;
565.8000;0.1359;8.8522;
566.1000;0.1392;8.8642;
566.4000;0.1392;8.8642;
566.7000;0.1368;8.8594;
567.0000;0.1392;8.8594;
567.3000;0.1384;8.8450;
567.6000;0.1392;8.8403;
567.9000;0.1392;8.8403;
568.2000;0.1400;8.8522;
568.5000;0.1368;8.8474;
568.8000;0.1376;8.8427;
569.1000;0.1392;8.8474;
569.4000;0.1408;8.8546;
569.7000;0.1392;8.8522;
570.0000;0.1392;8.8618;
570.3000;0.1392;8.8642;
570.6000;0.1311;8.8474;
570.9000;0.1400;8.8642;
571.2000;0.1368;8.8594;
571.5000;0.1384;8.8666;
571.8000;0.1327;8.8570;
572.1000;0.1449;8.8810;
572.4000;0.1400;8.8738;
572.7000;0.1359;8.8594;
573.0000;0.1351;8.8570;
573.3000;0.1359;8.8522;
573.6000;0.1376;8.8474;
573.9000;0.1400;8.8570;
574.2000;0.1368;8.8498;
574.5000;0.1376;8.8594;
574.8000;0.1392;8.8714;
575.1000;0.1384;8.8738;
575.4000;0.1392;8.8762;
575.7000;0.1319;8.8594;
576.0000;0.1384;8.8618;
576.3000;0.1392;8.8570;
576.6000;0.1392;8.8522;
576.9000;0.1400;8.8522;
577.2000;0.1416;8.8570;
577.5000;0.1384;8.8570;
577.8000;0.1384;8.8498;
578.1000;0.1384;8.8498;
578.4000;0.1384;8.8450;
578.7000;0.1400;8.8474;
579.0000;0.1392;8.8450;
579.3000;0.1400;8.8427;
579.6000;0.1392;8.8498;
579.9000;0.1400;8.8570;
580.2000;0.1433;8.8594;
580.5000;0.1368;8.8427;
580.8000;0.1425;8.8498;
581.1000;0.1384;8.8427;
581.4000;0.1376;8.8379;
581.7000;0.1376;8.8379;
582.0000;0.1408;8.8594;
582.3000;0.1368;8.8546;
582.6000;0.1408;8.8618;
582.9000;0.1441;8.8762;
583.2000;0.1376;8.8594;
583.5000;0.1449;8.8714;
583.8000;0.1392;8.8642;
584.1000;0.1376;8.8618;
584.4000;0.1392;8.8570;
584.7000;0.1384;8.8546;
585.0000;0.1376;8.8522;
585.3000;0.1376;8.8570;
585.6000;0.1392;8.8642;
585.9000;0.1376;8.8642;
586.2000;0.1408;8.8690;
586.5000;0.1343;8.8450;
586.8000;0.1441;8.8666;
587.1000;0.1384;8.8594;
587.4000;0.1376;8.8642;
587.7000;0.1400;8.8642;
588.0000;0.1384;8.8618;
588.3000;0.1384;8.8594;
588.6000;0.1416;8.8666;
588.9000;0.1416;8.8642;
589.2000;0.1392;8.8618;
589.5000;0.1433;8.8690;
589.8000;0.1294;8.8427;
590.1000;0.1376;8.8618;
590.4000;0.1392;8.8690;
590.7000;0.1368;8.8618;
591.0000;0.1368;8.8690;
591.3000;0.1392;8.8762;
591.6000;0.1335;8.8642;
591.9000;0.1392;8.8666;
592.2000;0.1392;8.8738;
592.5000;0.1384;8.8666;
592.8000;0.1376;8.8762;
593.1000;0.1384;8.8786;
593.4000;0.1392;8.8714;
593.7000;0.1400;8.8714;
594.0000;0.1384;8.8666;
594.3000;0.1384;8.8594;
594.6000;0.1343;8.8403;
594.9000;0.1376;8.8498;
595.2000;0.1376;8.8522;
595.5000;0.1392;8.8642;
595.8000;0.1376;8.8642;
596.1000;0.1376;8.8618;
596.4000;0.1376;8.8690;
596.7000;0.1392;8.8666;
597.0000;0.1376;8.8570;
597.3000;0.1408;8.8618;
597.6000;0.1384;8.8546;
597.9000;0.1392;8.8618;
598.2000;0.1376;8.8546;
598.5000;0.1376;8.8450;
598.8000;0.1359;8.8403;
599.1000;0.1368;8.8450;
599.4000;0.1392;8.8474;
599.7000;0.1359;8.8450;
600.0000;0.1368;8.8427;
600.3000;0.1416;8.8427;
600.6000;0.1359;8.8355;
600.9000;0.1351;8.8211;
601.2000;0.1343;8.8235;
601.5000;0.1351;8.8163;
601.8000;0.1359;8.8139;
602.1000;0.1327;8.7995;
602.4000;0.1327;8.7851;
602.7000;0.1359;8.7923;
603.0000;0.1335;8.7756;
603.3000;0.1302;8.7636;
603.6000;0.1286;8.7420;
603.9000;0.1302;8.7540;
604.2000;0.1311;8.7588;
604.5000;0.1311;8.7588;
604.8000;0.1351;8.7612;
605.1000;0.1278;8.7468;
605.4000;0.1286;8.7468;
605.7000;0.1188;8.7228;
606.0000;0.1254;8.7348;
606.3000;0.1245;8.7300;
606.6000;0.1254;8.7276;
606.9000;0.1254;8.7180;
607.2000;0.1245;8.7085;
607.5000;0.1359;8.7468;
607.8000;0.1254;8.7252;
608.1000;0.1254;8.7252;
608.4000;0.1302;8.7348;
608.7000;0.1254;8.7276;
609.0000;0.1237;8.7252;
609.3000;0.1229;8.7204;
609.6000;0.1254;8.7228;
609.9000;0.1237;8.7228;
610.2000;0.1237;8.7228;
610.5000;0.1213;8.7204;
610.8000;0.1197;8.7132;
611.1000;0.1254;8.7276;
611.4000;0.1213;8.7180;
611.7000;0.1205;8.7156;
612.0000;0.1221;8.7156;
612.3000;0.1205;8.7085;
612.6000;0.1237;8.7204;
612.9000;0.1213;8.7109;
613.2000;0.1221;8.7132;
613.5000;0.1229;8.7156;
613.8000;0.1205;8.7061;
614.1000;0.1213;8.7109;
614.4000;0.1164;8.7061;
614.7000;0.1180;8.7180;
615.0000;0.1188;8.7204;
615.3000;0.1221;8.7180;
615.6000;0.1237;8.7204;
615.9000;0.1180;8.7132;
616.2000;0.1188;8.7180;
616.5000;0.1164;8.7204;
616.8000;0.1188;8.7252;
617.1000;0.1180;8.7132;
617.4000;0.1180;8.7085;
617.7000;0.1188;8.6965;
618.0000;0.1180;8.6941;
618.3000;0.1197;8.6941;
618.6000;0.1180;8.7013;
618.9000;0.1164;8.7013;
619.2000;0.1164;8.7037;
619.5000;0.1172;8.7061;
619.8000;0.1205;8.7204;
620.1000;0.1148;8.7132;
620.4000;0.1172;8.7252;
620.7000;0.1156;8.7252;
621.0000;0.1156;8.7156;
621.3000;0.1172;8.7252;
621.6000;0.1164;8.7204;
621.9000;0.1180;8.7132;
622.2000;0.1180;8.7013;
622.5000;0.1156;8.6941;
622.8000;0.1172;8.6965;
623.1000;0.1213;8.7156;
623.4000;0.1164;8.6989;
623.7000;0.1172;8.7061;
624.0000;0.1172;8.7061;
624.3000;0.1164;8.7061;
624.6000;0.1164;8.7085;
624.9000;0.1156;8.7061;
625.2000;0.1213;8.7132;
625.5000;0.1115;8.6869;
625.8000;0.1188;8.7109;
626.1000;0.1213;8.7132;
626.4000;0.1221;8.7109;
626.7000;0.1164;8.6917;
627.0000;0.1172;8.6917;
627.3000;0.1156;8.6845;
627.6000;0.1180;8.6869;
627.9000;0.1131;8.6845;
628.2000;0.1164;8.6893;
628.5000;0.1205;8.6941;
628.8000;0.1091;8.6773;
629.1000;0.1164;8.6989;
629.4000;0.1164;8.6941;
629.7000;0.1140;8.6941;
630.0000;0.1115;8.6965;
630.3000;0.1148;8.6965;
630.6000;0.1197;8.6989;
630.9000;0.1140;8.6989;
631.2000;0.1148;8.7037;
631.5000;0.1115;8.6965;
631.8000;0.1123;8.6917;
632.1000;0.1140;8.6941;
632.4000;0.1164;8.6989;
632.7000;0.1164;8.6917;
633.0000;0.1123;8.6893;
633.3000;0.1156;8.7013;
633.6000;0.1140;8.7013;
633.9000;0.1140;8.7013;
634.2000;0.1140;8.7013;
634.5000;0.1115;8.6869;
634.8000;0.1115;8.6797;
635.1000;0.1123;8.6749;
635.4000;0.1131;8.6869;
635.7000;0.1148;8.6869;
636.0000;0.1140;8.6869;
636.3000;0.1140;8.6797;
636.6000;0.1148;8.6821;
636.9000;0.1107;8.6749;
637.2000;0.1148;8.6821;
637.5000;0.1140;8.6725;
637.8000;0.1148;8.6797;
638.1000;0.1148;8.6845;
638.4000;0.1140;8.6869;
638.7000;0.1107;8.6749;
639.0000;0.1131;8.6821;
639.3000;0.1123;8.6845;
639.6000;0.1140;8.6869;
639.9000;0.1148;8.6917;
640.2000;0.1131;8.6845;
640.5000;0.1123;8.6845;
640.8000;0.1140;8.6869;
641.1000;0.1131;8.6941;
641.4000;0.1123;8.6941;
641.7000;0.1123;8.6869;
642.0000;0.1131;8.6773;
642.3000;0.1131;8.6845;
642.6000;0.1140;8.6965;
642.9000;0.1131;8.7037;
643.2000;0.1131;8.7013;
643.5000;0.1140;8.7013;
643.8000;0.1107;8.6917;
644.1000;0.1123;8.6893;
644.4000;0.1131;8.6917;
644.7000;0.1107;8.6845;
645.0000;0.1131;8.6869;
645.3000;0.1099;8.6749;
645.6000;0.1131;8.6821;
645.9000;0.1131;8.6701;
646.2000;0.1140;8.6677;
646.5000;0.1123;8.6629;
646.8000;0.1115;8.6605;
647.1000;0.1115;8.6653;
647.4000;0.1123;8.6629;
647.7000;0.1099;8.6605;
648.0000;0.1123;8.6653;
648.3000;0.1148;8.6701;
648.6000;0.1148;8.6677;
648.9000;0.1115;8.6677;
649.2000;0.1123;8.6701;
649.5000;0.1099;8.6653;
649.8000;0.1107;8.6581;
650.1000;0.1123;8.6605;
650.4000;0.1107;8.6629;
650.7000;0.1091;8.6581;
651.0000;0.1099;8.6677;
651.3000;0.1180;8.6917;
651.6000;0.1131;8.6773;
651.9000;0.1058;8.6605;
652.2000;0.1131;8.6797;
652.5000;0.1107;8.6773;
652.8000;0.1050;8.6557;
653.1000;0.1107;8.6749;
653.4000;0.1115;8.6821;
653.7000;0.1123;8.6821;
654.0000;0.1123;8.6821;
654.3000;0.1107;8.6845;
654.6000;0.1042;8.6677;
654.9000;0.1107;8.6941;
655.2000;0.1107;8.6989;
655.5000;0.1099;8.6989;
655.8000;0.1107;8.7013;
656.1000;0.1131;8.6941;
656.4000;0.1115;8.6869;
656.7000;0.1091;8.6797;
657.0000;0.1115;8.6893;
657.3000;0.1115;8.6797;
657.6000;0.1123;8.6845;
657.9000;0.1107;8.6917;
658.2000;0.1107;8.6941;
658.5000;0.1099;8.6965;
658.8000;0.1115;8.6917;
659.1000;0.1197;8.7156;
659.4000;0.1123;8.6893;
659.7000;0.1131;8.6941;
660.0000;0.1115;8.6989;
660.3000;0.1091;8.6965;
660.6000;0.1107;8.7013;
660.9000;0.1099;8.6941;
661.2000;0.1099;8.6893;
661.5000;0.1131;8.6893;
661.8000;0.1026;8.6581;
662.1000;0.1115;8.6821;
662.4000;0.1123;8.6941;
662.7000;0.1091;8.6989;
663.0000;0.1123;8.7037;
663.3000;0.1131;8.6989;
663.6000;0.1123;8.6989;
663.9000;0.1123;8.7085;
664.2000;0.1107;8.7037;
664.5000;0.1115;8.7109;
664.8000;0.1099;8.7013;
665.1000;0.1115;8.6941;
665.4000;0.1115;8.7061;
665.7000;0.1091;8.7013;
666.0000;0.1107;8.6965;
666.3000;0.1115;8.6989;
666.6000;0.1099;8.6869;
666.9000;0.1123;8.6941;
667.2000;0.1066;8.6797;
667.5000;0.1099;8.6893;
667.8000;0.1115;8.6869;
668.1000;0.1123;8.6893;
668.4000;0.1107;8.6869;
668.7000;0.1107;8.6869;
669.0000;0.1115;8.6917;
669.3000;0.1123;8.6893;
669.6000;0.1115;8.6845;
669.9000;0.1107;8.6701;
670.2000;0.1074;8.6701;
670.5000;0.1099;8.6893;
670.8000;0.1107;8.6941;
671.1000;0.1091;8.6941;
671.4000;0.1107;8.6869;
671.7000;0.1123;8.6917;
672.0000;0.1115;8.6941;
672.3000;0.1083;8.7013;
672.6000;0.1091;8.7132;
672.9000;0.1107;8.7085;
673.2000;0.1099;8.7061;
673.5000;0.1099;8.7061;
673.8000;0.1115;8.7109;
674.1000;0.1156;8.7156;
674.4000;0.1107;8.7109;
674.7000;0.1099;8.7013;
675.0000;0.1026;8.6821;
675.3000;0.1107;8.7085;
675.6000;0.1115;8.7085;
675.9000;0.1083;8.6965;
676.2000;0.1107;8.6893;
676.5000;0.1107;8.6845;
676.8000;0.1018;8.6581;
677.1000;0.1107;8.6773;
677.4000;0.1074;8.6725;
677.7000;0.1099;8.6653;
678.0000;0.1099;8.6701;
678.3000;0.1164;8.6845;
678.6000;0.1099;8.6629;
678.9000;0.1099;8.6629;
679.2000;0.1099;8.6581;
679.5000;0.1099;8.6581;
679.8000;0.1107;8.6677;
680.1000;0.1099;8.6629;
680.4000;0.1107;8.6677;
680.7000;0.1115;8.6629;
681.0000;0.1131;8.6581;
681.3000;0.1083;8.6533;
681.6000;0.1140;8.6749;
681.9000;0.1099;8.6749;
682.2000;0.1107;8.6797;
682.5000;0.1107;8.6821;
682.8000;0.1123;8.6749;
683.1000;0.1107;8.6725;
683.4000;0.1026;8.6485;
683.7000;0.1131;8.6773;
684.0000;0.1140;8.6773;
684.3000;0.1099;8.6725;
684.6000;0.1026;8.6629;
684.9000;0.1058;8.6749;
685.2000;0.1123;8.6893;
685.5000;0.1083;8.6869;
685.8000;0.1091;8.6917;
686.1000;0.1083;8.6917;
686.4000;0.1131;8.7013;
686.7000;0.1074;8.6893;
687.0000;0.1091;8.6917;
687.3000;0.1115;8.6917;
687.6000;0.1066;8.6845;
687.9000;0.1074;8.6965;
688.2000;0.1091;8.6917;
688.5000;0.1107;8.6941;
688.8000;0.1099;8.7013;
689.1000;0.1091;8.6989;
689.4000;0.1091;8.7061;
689.7000;0.1091;8.7061;
690.0000;0.1099;8.7132;
690.3000;0.1099;8.7180;
690.6000;0.1115;8.7156;
690.9000;0.1107;8.7085;
691.2000;0.1066;8.7013;
691.5000;0.1058;8.6965;
691.8000;0.1099;8.7061;
692.1000;0.1066;8.6941;
692.4000;0.1091;8.6941;
692.7000;0.1058;8.6941;
693.0000;0.1083;8.7037;
693.3000;0.1099;8.7132;
693.6000;0.1066;8.7085;
693.9000;0.1091;8.7156;
694.2000;0.1066;8.7132;
694.5000;0.1091;8.7109;
694.8000;0.1083;8.7085;
695.1000;0.1083;8.7156;
695.4000;0.1091;8.7109;
695.7000;0.1058;8.6989;
696.0000;0.1083;8.7061;
696.3000;0.1083;8.7085;
696.6000;0.1058;8.7037;
696.9000;0.1091;8.7061;
697.2000;0.1107;8.7109;
697.5000;0.1058;8.7037;
697.8000;0.1099;8.7156;
698.1000;0.1091;8.7085;
698.4000;0.1107;8.7085;
698.7000;0.1099;8.6989;
699.0000;0.1091;8.6869;
699.3000;0.1091;8.6821;
699.6000;0.1083;8.6821;
699.9000;0.1099;8.6845;
700.2000;0.1091;8.6821;
700.5000;0.1091;8.6773;
700.8000;0.1083;8.6773;
701.1000;0.1066;8.6797;
701.4000;0.1115;8.6965;
701.7000;0.1099;8.6869;
702.0000;0.1083;8.6845;
702.3000;0.1042;8.6821;
702.6000;0.1083;8.6917;
702.9000;0.1066;8.6869;
703.2000;0.1099;8.7013;
703.5000;0.1074;8.6965;
703.8000;0.1091;8.7061;
704.1000;0.1091;8.7204;
704.4000;0.1107;8.7348;
704.7000;0.1083;8.7276;
705.0000;0.1099;8.7228;
705.3000;0.1083;8.7276;
705.6000;0.1115;8.7444;
705.9000;0.1091;8.7372;
706.2000;0.1107;8.7372;
706.5000;0.1083;8.7300;
706.8000;0.1099;8.7444;
707.1000;0.1091;8.7396;
707.4000;0.1050;8.7324;
707.7000;0.1091;8.7420;
708.0000;0.1083;8.7348;
708.3000;0.1115;8.7516;
708.6000;0.1083;8.7444;
708.9000;0.1074;8.7492;
709.2000;0.1050;8.7348;
709.5000;0.1091;8.7444;
709.8000;0.1107;8.7420;
710.1000;0.1091;8.7396;
710.4000;0.1058;8.7252;
710.7000;0.1026;8.7252;
711.0000;0.1091;8.7324;
711.3000;0.1099;8.7396;
711.6000;0.1083;8.7276;
711.9000;0.1066;8.7252;
712.2000;0.1091;8.7300;
712.5000;0.1099;8.7324;
712.8000;0.1083;8.7324;
713.1000;0.1099;8.7492;
713.4000;0.1091;8.7396;
713.7000;0.1091;8.7300;
714.0000;0.1083;8.7276;
714.3000;0.1083;8.7396;
714.6000;0.1091;8.7348;
714.9000;0.1091;8.7324;
715.2000;0.1083;8.7300;
715.5000;0.1123;8.7420;
715.8000;0.1099;8.7396;
716.1000;0.1115;8.7348;
716.4000;0.1140;8.7372;
716.7000;0.1074;8.7276;
717.0000;0.1074;8.7252;
717.3000;0.1188;8.7516;
717.6000;0.1107;8.7324;
717.9000;0.1058;8.7252;
718.2000;0.1083;8.7372;
718.5000;0.1099;8.7396;
718.8000;0.1083;8.7348;
719.1000;0.1083;8.7276;
719.4000;0.1050;8.7085;
719.7000;0.1091;8.7132;
720.0000;0.1074;8.7132;
720.3000;0.1001;8.7037;
720.6000;0.1123;8.7324;
720.9000;0.1123;8.7348;
721.2000;0.1099;8.7276;
721.5000;0.1058;8.7228;
721.8000;0.1058;8.7252;
722.1000;0.1074;8.7300;
722.4000;0.1066;8.7252;
722.7000;0.1107;8.7396;
723.0000;0.1066;8.7300;
723.3000;0.1074;8.7228;
723.6000;0.1074;8.7252;
723.9000;0.1091;8.7228;
724.2000;0.1074;8.7204;
724.5000;0.1099;8.7276;
724.8000;0.1074;8.7300;
725.1000;0.1099;8.7396;
725.4000;0.1083;8.7276;
725.7000;0.1091;8.7396;
726.0000;0.1091;8.7372;
726.3000;0.1131;8.7516;
726.6000;0.1091;8.7420;
726.9000;0.1074;8.7372;
727.2000;0.1074;8.7396;
727.5000;0.1091;8.7468;
727.8000;0.1091;8.7492;
728.1000;0.1091;8.7468;
728.4000;0.1074;8.7516;
728.7000;0.1091;8.7588;
729.0000;0.1091;8.7612;
729.3000;0.1091;8.7516;
729.6000;0.1099;8.7492;
729.9000;0.1091;8.7516;
730.2000;0.1107;8.7540;
730.5000;0.1083;8.7468;
730.8000;0.1099;8.7516;
731.1000;0.1074;8.7396;
731.4000;0.1107;8.7564;
731.7000;0.1066;8.7564;
732.0000;0.1050;8.7564;
732.3000;0.1074;8.7636;
732.6000;0.1074;8.7468;
732.9000;0.1074;8.7372;
733.2000;0.1058;8.7348;
733.5000;0.1083;8.7516;
733.8000;0.1107;8.7516;
734.1000;0.1083;8.7420;
734.4000;0.1115;8.7492;
734.7000;0.1083;8.7396;
735.0000;0.1083;8.7372;
735.3000;0.1115;8.7348;
735.6000;0.1074;8.7300;
735.9000;0.1074;8.7276;
736.2000;0.1066;8.7372;
736.5000;0.1091;8.7444;
736.8000;0.1042;8.7324;
737.1000;0.1083;8.7444;
737.4000;0.1066;8.7420;
737.7000;0.1115;8.7516;
738.0000;0.1074;8.7420;
738.3000;0.1074;8.7372;
738.6000;0.1066;8.7348;
738.9000;0.1083;8.7492;
739.2000;0.1066;8.7564;
739.5000;0.1058;8.7492;
739.8000;0.1083;8.7516;
740.1000;0.1083;8.7468;
740.4000;0.1050;8.7396;
740.7000;0.1066;8.7420;
741.0000;0.1066;8.7420;
741.3000;0.1018;8.7156;
741.6000;0.1091;8.7204;
741.9000;0.1099;8.7252;
742.2000;0.1083;8.7252;
742.5000;0.1066;8.7276;
742.8000;0.1074;8.7348;
743.1000;0.1091;8.7372;
743.4000;0.1091;8.7396;
743.7000;0.1058;8.7252;
744.0000;0.1123;8.7372;
744.3000;0.1050;8.7324;
744.6000;0.1058;8.7396;
744.9000;0.1083;8.7516;
745.2000;0.1066;8.7492;
745.5000;0.1042;8.7420;
745.8000;0.1164;8.7732;
746.1000;0.1083;8.7468;
746.4000;0.1148;8.7540;
746.7000;0.1050;8.7300;
747.0000;0.1091;8.7300;
747.3000;0.1083;8.7372;
747.6000;0.1066;8.7420;
747.9000;0.1066;8.7372;
748.2000;0.1074;8.7492;
748.5000;0.1083;8.7420;
748.8000;0.1107;8.7348;
749.1000;0.1083;8.7300;
749.4000;0.1083;8.7324;
749.7000;0.1083;8.7324;
750.0000;0.1066;8.7348;
750.3000;0.1091;8.7372;
750.6000;0.1099;8.7324;
750.9000;0.1083;8.7276;
751.2000;0.1083;8.7252;
751.5000;0.1074;8.7252;
751.8000;0.1074;8.7252;
752.1000;0.1091;8.7300;
752.4000;0.1058;8.7252;
752.7000;0.1074;8.7204;
753.0000;0.1074;8.7204;
753.3000;0.1074;8.7204;
753.6000;0.1066;8.7180;
753.9000;0.1091;8.7085;
754.2000;0.1083;8.7037;
754.5000;0.1074;8.7109;
754.8000;0.1140;8.7348;
755.1000;0.1099;8.7204;
755.4000;0.1058;8.7109;
755.7000;0.1091;8.7156;
756.0000;0.1083;8.7132;
756.3000;0.1083;8.7132;
756.6000;0.1074;8.7132;
756.9000;0.1074;8.7132;
757.2000;0.1091;8.7156;
757.5000;0.1083;8.7132;
757.8000;0.1058;8.7061;
758.1000;0.1074;8.7132;
758.4000;0.1066;8.7204;
758.7000;0.1066;8.7204;
759.0000;0.1074;8.7276;
759.3000;0.1066;8.7228;
759.6000;0.1099;8.7252;
759.9000;0.1083;8.7276;
760.2000;0.1050;8.7252;
760.5000;0.1074;8.7228;
760.8000;0.1091;8.7228;
761.1000;0.1066;8.7300;
761.4000;0.1107;8.7348;
761.7000;0.1009;8.7132;
762.0000;0.1083;8.7228;
762.3000;0.1083;8.7228;
762.6000;0.1058;8.7109;
762.9000;0.1074;8.7109;
763.2000;0.1156;8.7228;
763.5000;0.1074;8.7061;
763.8000;0.1074;8.7061;
764.1000;0.1066;8.7061;
764.4000;0.1091;8.7085;
764.7000;0.1091;8.7109;
765.0000;0.1083;8.7204;
765.3000;0.1083;8.7204;
765.6000;0.1091;8.7252;
765.9000;0.1091;8.7228;
766.2000;0.1083;8.7228;
766.5000;0.1074;8.7228;
766.8000;0.1050;8.7109;
767.1000;0.1083;8.7180;
767.4000;0.1123;8.7252;
767.7000;0.1066;8.7156;
768.0000;0.1058;8.7037;
768.3000;0.1050;8.7037;
768.6000;0.1066;8.6989;
768.9000;0.1074;8.6965;
769.2000;0.1066;8.6965;
769.5000;0.1074;8.7037;
769.8000;0.1091;8.7252;
770.1000;0.1066;8.7252;
770.4000;0.1115;8.7396;
770.7000;0.1018;8.7085;
771.0000;0.1066;8.7252;
771.3000;0.1066;8.7252;
771.6000;0.1066;8.7252;
771.9000;0.1074;8.7252;
772.2000;0.1083;8.7300;
772.5000;0.1066;8.7228;
772.8000;0.1058;8.7228;
773.1000;0.1083;8.7300;
773.4000;0.1074;8.7252;
773.7000;0.1115;8.7372;
774.0000;0.1074;8.7204;
774.3000;0.1074;8.7180;
774.6000;0.1083;8.7204;
774.9000;0.1083;8.7204;
775.2000;0.1083;8.7228;
775.5000;0.1083;8.7276;
775.8000;0.1058;8.7300;
776.1000;0.1099;8.7300;
776.4000;0.1074;8.7276;
776.7000;0.1091;8.7300;
777.0000;0.1066;8.7252;
777.3000;0.1091;8.7228;
777.6000;0.1083;8.7204;
777.9000;0.1050;8.7156;
778.2000;0.1058;8.7156;
778.5000;0.1066;8.7132;
778.8000;0.1066;8.7156;
779.1000;0.1066;8.7156;
779.4000;0.1074;8.7252;
779.7000;0.1066;8.7180;
780.0000;0.1099;8.7252;
780.3000;0.1058;8.7228;
780.6000;0.1099;8.7300;
780.9000;0.1074;8.7252;
781.2000;0.1083;8.7348;
781.5000;0.1058;8.7276;
781.8000;0.1074;8.7276;
782.1000;0.1074;8.7276;
782.4000;0.1083;8.7204;
782.7000;0.1066;8.7204;
783.0000;0.1066;8.7204;
783.3000;0.1083;8.7372;
783.6000;0.1091;8.7372;
783.9000;0.1066;8.7300;
784.2000;0.1050;8.7252;
784.5000;0.1058;8.7228;
784.8000;0.1083;8.7348;
785.1000;0.1091;8.7276;
785.4000;0.1066;8.7324;
785.7000;0.1050;8.7348;
786.0000;0.1074;8.7324;
786.3000;0.1066;8.7252;
786.6000;0.1083;8.7228;
786.9000;0.1074;8.7228;
787.2000;0.1058;8.7252;
787.5000;0.1050;8.7252;
787.8000;0.1066;8.7348;
788.1000;0.1050;8.7324;
788.4000;0.1066;8.7324;
788.7000;0.1083;8.7348;
789.0000;0.1058;8.7252;
789.3000;0.0969;8.6989;
789.6000;0.1066;8.7156;
789.9000;0.1091;8.7132;
790.2000;0.1083;8.7156;
790.5000;0.1091;8.7276;
790.8000;0.1066;8.7180;
791.1000;0.1099;8.7300;
791.4000;0.1099;8.7324;
791.7000;0.1083;8.7348;
792.0000;0.1074;8.7300;
792.3000;0.1074;8.7372;
792.6000;0.1083;8.7324;
792.9000;0.1050;8.7204;
793.2000;0.1066;8.7324;
793.5000;0.1083;8.7372;
793.8000;0.1058;8.7276;
794.1000;0.1066;8.7300;
794.4000;0.1074;8.7324;
794.7000;0.1001;8.7180;
795.0000;0.1066;8.7300;
795.3000;0.1083;8.7300;
795.6000;0.1050;8.7180;
795.9000;0.1066;8.7228;
796.2000;0.1083;8.7252;
796.5000;0.1066;8.7180;
796.8000;0.1026;8.7132;
797.1000;0.1074;8.7276;
797.4000;0.1083;8.7228;
797.7000;0.1099;8.7372;
798.0000;0.1042;8.7276;
798.3000;0.1034;8.7300;
798.6000;0.1050;8.7252;
798.9000;0.1066;8.7324;
799.2000;0.1058;8.7252;
799.5000;0.1066;8.7252;
799.8000;0.0985;8.7061;
800.1000;0.1034;8.7156;
800.4000;0.1001;8.7061;
800.7000;0.1042;8.7109;
801.0000;0.1058;8.7180;
801.3000;0.1074;8.7276;
801.6000;0.1042;8.7204;
801.9000;0.1074;8.7276;
802.2000;0.1083;8.7252;
802.5000;0.1066;8.7204;
802.8000;0.1074;8.7204;
803.1000;0.1058;8.7180;
803.4000;0.1058;8.7276;
803.7000;0.1083;8.7348;
804.0000;0.1074;8.7420;
804.3000;0.1066;8.7516;
804.6000;0.1131;8.7612;
804.9000;0.1074;8.7420;
805.2000;0.1042;8.7252;
805.5000;0.1091;8.7396;
805.8000;0.1074;8.7300;
806.1000;0.1058;8.7252;
806.4000;0.1083;8.7204;
806.7000;0.1091;8.7276;
807.0000;0.1066;8.7180;
807.3000;0.1083;8.7228;
807.6000;0.1074;8.7204;
807.9000;0.1074;8.7156;
808.2000;0.1074;8.7132;
808.5000;0.1050;8.7132;
808.8000;0.1001;8.7085;
809.1000;0.1066;8.7300;
809.4000;0.1083;8.7228;
809.7000;0.1083;8.7276;
810.0000;0.1074;8.7324;
810.3000;0.1115;8.7444;
810.6000;0.1083;8.7444;
810.9000;0.1058;8.7396;
811.2000;0.1050;8.7372;
811.5000;0.1050;8.7348;
811.8000;0.1066;8.7300;
812.1000;0.1066;8.7324;
812.4000;0.1018;8.7204;
812.7000;0.1050;8.7276;
813.0000;0.1083;8.7348;
813.3000;0.1018;8.7132;
813.6000;0.1074;8.7372;
813.9000;0.1042;8.7276;
814.2000;0.1050;8.7324;
814.5000;0.1034;8.7348;
814.8000;0.1107;8.7516;
815.1000;0.1050;8.7324;
815.4000;0.0969;8.7085;
815.7000;0.1066;8.7348;
816.0000;0.1074;8.7444;
816.3000;0.1140;8.7564;
816.6000;0.1083;8.7300;
816.9000;0.1148;8.7492;
817.2000;0.1074;8.7300;
817.5000;0.1066;8.7228;
817.8000;0.1091;8.7324;
818.1000;0.1091;8.7228;
818.4000;0.1058;8.7109;
818.7000;0.1058;8.7132;
819.0000;0.1074;8.7252;
819.3000;0.1042;8.7109;
819.6000;0.1074;8.7061;
819.9000;0.1058;8.7037;
820.2000;0.1066;8.7061;
820.5000;0.1074;8.7156;
820.8000;0.1091;8.7276;
821.1000;0.1066;8.7252;
821.4000;0.1074;8.7276;
821.7000;0.1083;8.7300;
822.0000;0.1074;8.7300;
822.3000;0.1050;8.7228;
822.6000;0.1074;8.7252;
822.9000;0.1091;8.7348;
823.2000;0.1074;8.7324;
823.5000;0.1066;8.7300;
823.8000;0.1066;8.7396;
824.1000;0.1091;8.7420;
824.4000;0.1074;8.7372;
824.7000;0.1058;8.7324;
825.0000;0.1074;8.7372;
825.3000;0.1091;8.7444;
825.6000;0.1066;8.7396;
825.9000;0.1083;8.7444;
826.2000;0.1074;8.7444;
826.5000;0.1091;8.7492;
826.8000;0.1058;8.7300;
827.1000;0.1099;8.7300;
827.4000;0.1066;8.7156;
827.7000;0.1058;8.7204;
828.0000;0.1058;8.7252;
828.3000;0.1066;8.7324;
828.6000;0.1058;8.7348;
828.9000;0.1164;8.7708;
829.2000;0.1050;8.7324;
829.5000;0.1074;8.7348;
829.8000;0.1091;8.7372;
830.1000;0.1066;8.7372;
830.4000;0.1083;8.7372;
830.7000;0.1066;8.7348;
831.0000;0.1083;8.7396;
831.3000;0.1042;8.7324;
831.6000;0.1066;8.7372;
831.9000;0.1131;8.7492;
832.2000;0.1107;8.7396;
832.5000;0.1050;8.7324;
832.8000;0.1083;8.7396;
833.1000;0.0977;8.7156;
833.4000;0.1180;8.7684;
833.7000;0.1074;8.7372;
834.0000;0.1083;8.7228;
834.3000;0.1083;8.7252;
834.6000;0.1058;8.7252;
834.9000;0.1107;8.7396;
835.2000;0.1058;8.7324;
835.5000;0.1042;8.7252;
835.8000;0.1058;8.7228;
836.1000;0.1066;8.7228;
836.4000;0.1050;8.7324;
836.7000;0.1058;8.7300;
837.0000;0.1066;8.7324;
837.3000;0.1115;8.7444;
837.6000;0.1009;8.7180;
837.9000;0.1009;8.7228;
838.2000;0.1083;8.7420;
838.5000;0.1050;8.7396;
838.8000;0.1074;8.7420;
839.1000;0.1066;8.7420;
839.4000;0.1058;8.7372;
839.7000;0.1074;8.7396;
840.0000;0.1107;8.7420;
840.3000;0.1058;8.7300;
840.6000;0.1083;8.7276;
840.9000;0.1066;8.7228;
841.2000;0.1050;8.7228;
841.5000;0.1066;8.7300;
841.8000;0.1083;8.7300;
842.1000;0.1058;8.7180;
842.4000;0.1058;8.7132;
842.7000;0.1066;8.7132;
843.0000;0.1034;8.7085;
843.3000;0.1058;8.7037;
843.6000;0.1050;8.7013;
843.9000;0.1066;8.7013;
844.2000;0.1066;8.6965;
844.5000;0.1066;8.7061;
844.8000;0.1066;8.7013;
845.1000;0.1066;8.6965;
845.4000;0.1099;8.6989;
845.7000;0.1083;8.6989;
846.0000;0.1091;8.6989;
846.3000;0.1074;8.7037;
846.6000;0.1091;8.7085;
846.9000;0.1083;8.7156;
847.2000;0.1074;8.7180;
847.5000;0.1083;8.7228;
847.8000;0.1026;8.7109;
848.1000;0.1058;8.7204;
848.4000;0.1066;8.7180;
848.7000;0.1058;8.7180;
849.0000;0.1050;8.7156;
849.3000;0.1066;8.7228;
849.6000;0.1083;8.7300;
849.9000;0.1058;8.7348;
850.2000;0.1058;8.7324;
850.5000;0.1058;8.7228;
850.8000;0.1074;8.7396;
851.1000;0.1074;8.7348;
851.4000;0.1042;8.7276;
851.7000;0.1018;8.7180;
852.0000;0.1066;8.7276;
852.3000;0.1066;8.7252;
852.6000;0.1074;8.7300;
852.9000;0.1091;8.7252;
853.2000;0.1074;8.7204;
853.5000;0.1050;8.7061;
853.8000;0.1042;8.6965;
854.1000;0.1050;8.6965;
854.4000;0.1026;8.6869;
854.7000;0.1083;8.7085;
855.0000;0.1066;8.7085;
855.3000;0.1058;8.7109;
855.6000;0.1074;8.7132;
855.9000;0.1050;8.7013;
856.2000;0.1099;8.7061;
856.5000;0.1042;8.6893;
856.8000;0.1058;8.6965;
857.1000;0.1083;8.7013;
857.4000;0.1083;8.7061;
857.7000;0.1074;8.7013;
858.0000;0.1066;8.7061;
858.3000;0.1066;8.7132;
858.6000;0.1066;8.7180;
858.9000;0.1107;8.7324;
859.2000;0.1115;8.7348;
859.5000;0.1034;8.7132;
859.8000;0.1083;8.7180;
860.1000;0.1066;8.7109;
860.4000;0.1083;8.7132;
860.7000;0.1099;8.7204;
861.0000;0.1074;8.7180;
861.3000;0.1066;8.7204;
861.6000;0.1083;8.7204;
861.9000;0.1050;8.7109;
862.2000;0.1074;8.7085;
862.5000;0.1148;8.7396;
862.8000;0.1074;8.7228;
863.1000;0.1066;8.7156;
863.4000;0.1058;8.7061;
863.7000;0.1066;8.7061;
864.0000;0.1066;8.7156;
864.3000;0.1066;8.7180;
864.6000;0.1083;8.7276;
864.9000;0.1066;8.7228;
865.2000;0.1066;8.7109;
865.5000;0.1091;8.7156;
865.8000;0.1083;8.7132;
866.1000;0.1058;8.7085;
866.4000;0.1050;8.7085;
866.7000;0.1074;8.7109;
867.0000;0.1066;8.7109;
867.3000;0.1066;8.7109;
867.6000;0.1091;8.7180;
867.9000;0.1083;8.7109;
868.2000;0.1066;8.7132;
868.5000;0.1066;8.7132;
868.8000;0.1115;8.7228;
869.1000;0.1074;8.7132;
869.4000;0.1083;8.7180;
869.7000;0.1066;8.7204;
870.0000;0.1083;8.7204;
870.3000;0.1074;8.7156;
870.6000;0.1083;8.7132;
870.9000;0.1115;8.7204;
871.2000;0.1058;8.7228;
871.5000;0.1083;8.7276;
871.8000;0.1172;8.7588;
872.1000;0.1074;8.7372;
872.4000;0.1066;8.7348;
872.7000;0.1091;8.7396;
873.0000;0.1074;8.7324;
873.3000;0.1034;8.7204;
873.6000;0.1083;8.7204;
873.9000;0.1099;8.7252;
874.2000;0.1091;8.7156;
874.5000;0.1066;8.7109;
874.8000;0.1091;8.7156;
875.1000;0.1042;8.7132;
875.4000;0.1066;8.7276;
875.7000;0.1091;8.7276;
876.0000;0.1066;8.7204;
876.3000;0.1083;8.7180;
876.6000;0.1066;8.7156;
876.9000;0.1050;8.7204;
877.2000;0.1099;8.7348;
877.5000;0.1123;8.7444;
877.8000;0.1083;8.7468;
878.1000;0.1066;8.7420;
878.4000;0.1058;8.7348;
878.7000;0.1058;8.7324;
879.0000;0.1050;8.7180;
879.3000;0.1058;8.7228;
879.6000;0.1050;8.7180;
879.9000;0.1066;8.7228;
880.2000;0.1107;8.7348;
880.5000;0.1066;8.7228;
880.8000;0.1083;8.7252;
881.1000;0.1058;8.7109;
881.4000;0.1066;8.7061;
881.7000;0.1066;8.6989;
882.0000;0.1058;8.7013;
882.3000;0.1074;8.6965;
882.6000;0.1074;8.7085;
882.9000;0.1066;8.7109;
883.2000;0.1115;8.7204;
883.5000;0.1066;8.7180;
883.8000;0.1058;8.7156;
884.1000;0.1050;8.7085;
884.4000;0.1066;8.7085;
884.7000;0.1042;8.7037;
885.0000;0.1050;8.7061;
885.3000;0.1091;8.7109;
885.6000;0.1050;8.7132;
885.9000;0.1050;8.7180;
886.2000;0.1066;8.7180;
886.5000;0.1066;8.7180;
886.8000;0.1083;8.7228;
887.1000;0.1148;8.7324;
887.4000;0.1058;8.7061;
887.7000;0.1050;8.7109;
888.0000;0.1066;8.7180;
888.3000;0.1074;8.7252;
888.6000;0.1058;8.7228;
888.9000;0.1066;8.7180;
889.2000;0.1042;8.7061;
889.5000;0.1058;8.7061;
889.8000;0.1018;8.7085;
890.1000;0.1026;8.7061;
890.4000;0.1083;8.7180;
890.7000;0.1074;8.7132;
891.0000;0.1083;8.7156;
891.3000;0.1058;8.7132;
891.6000;0.1058;8.7156;
891.9000;0.1091;8.7156;
892.2000;0.1083;8.7061;
892.5000;0.1058;8.7037;
892.8000;0.1083;8.7132;
893.1000;0.1083;8.7085;
893.4000;0.1074;8.7109;
893.7000;0.1058;8.6989;
894.0000;0.1050;8.6893;
894.3000;0.1074;8.6941;
894.6000;0.1074;8.6917;
894.9000;0.1058;8.6869;
895.2000;0.1066;8.6845;
895.5000;0.1083;8.6989;
895.8000;0.1050;8.6965;
896.1000;0.1058;8.6917;
896.4000;0.1058;8.6965;
896.7000;0.1066;8.7085;
897.0000;0.1083;8.7085;
897.3000;0.1058;8.7109;
897.6000;0.1131;8.7156;
897.9000;0.1058;8.7109;
898.2000;0.1091;8.7252;
898.5000;0.1074;8.7204;
898.8000;0.1050;8.7132;
899.1000;0.1066;8.7228;
899.4000;0.1034;8.7156;
899.7000;0.1026;8.7132;
900.0000;0.1058;8.7228;
900.3000;0.1058;8.7228;
900.6000;0.1066;8.7252;
900.9000;0.1083;8.7228;
901.2000;0.1066;8.7204;
901.5000;0.1058;8.7252;
901.8000;0.1050;8.7276;
902.1000;0.1083;8.7300;
902.4000;0.0985;8.7037;
902.7000;0.1034;8.7156;
903.0000;0.1058;8.7252;
903.3000;0.1140;8.7372;
903.6000;0.1074;8.7252;
903.9000;0.1058;8.7204;
904.2000;0.1034;8.7252;
904.5000;0.1058;8.7276;
904.8000;0.1074;8.7228;
905.1000;0.1050;8.7252;
905.4000;0.1066;8.7276;
905.7000;0.1091;8.7372;
906.0000;0.1083;8.7444;
906.3000;0.1074;8.7420;
906.6000;0.1066;8.7348;
906.9000;0.1074;8.7324;
907.2000;0.1074;8.7468;
907.5000;0.1050;8.7468;
907.8000;0.1074;8.7492;
908.1000;0.1058;8.7468;
908.4000;0.1050;8.7468;
908.7000;0.1180;8.7827;
909.0000;0.1058;8.7564;
909.3000;0.1099;8.7612;
909.6000;0.1091;8.7492;
909.9000;0.1066;8.7444;
910.2000;0.1074;8.7468;
910.5000;0.1026;8.7444;
910.8000;0.1058;8.7468;
911.1000;0.1074;8.7300;
911.4000;0.1066;8.7276;
911.7000;0.1042;8.7228;
912.0000;0.1074;8.7276;
912.3000;0.1074;8.7300;
912.6000;0.1107;8.7468;
912.9000;0.1058;8.7420;
913.2000;0.1083;8.7492;
913.5000;0.1050;8.7300;
913.8000;0.1066;8.7204;
914.1000;0.1018;8.7109;
914.4000;0.1066;8.7252;
914.7000;0.1074;8.7300;
915.0000;0.1074;8.7276;
915.3000;0.1074;8.7348;
915.6000;0.0977;8.6989;
915.9000;0.1066;8.7132;
916.2000;0.1083;8.7204;
916.5000;0.1066;8.7252;
916.8000;0.1099;8.7276;
917.1000;0.1042;8.7180;
917.4000;0.1074;8.7348;
917.7000;0.1074;8.7276;
918.0000;0.1034;8.7109;
918.3000;0.0993;8.6869;
918.6000;0.1091;8.7109;
918.9000;0.1050;8.7132;
919.2000;0.1066;8.7228;
919.5000;0.1050;8.7156;
919.8000;0.1066;8.7109;
920.1000;0.1050;8.7156;
920.4000;0.1066;8.7156;
920.7000;0.1058;8.7132;
921.0000;0.1058;8.7132;
921.3000;0.1066;8.7085;
921.6000;0.1058;8.7061;
921.9000;0.1050;8.7132;
922.2000;0.1083;8.7180;
922.5000;0.1042;8.7109;
922.8000;0.1058;8.7132;
923.1000;0.1050;8.7228;
923.4000;0.1058;8.7252;
923.7000;0.1066;8.7132;
924.0000;0.1066;8.7156;
924.3000;0.1050;8.7085;
924.6000;0.0985;8.7037;
924.9000;0.1066;8.7348;
925.2000;0.1074;8.7372;
925.5000;0.1042;8.7300;
925.8000;0.1042;8.7324;
926.1000;0.1050;8.7276;
926.4000;0.1026;8.7252;
926.7000;0.1058;8.7300;
927.0000;0.1058;8.7204;
927.3000;0.1058;8.7180;
927.6000;0.1074;8.7228;
927.9000;0.1066;8.7204;
928.2000;0.1034;8.7180;
928.5000;0.1058;8.7156;
928.8000;0.1066;8.7156;
929.1000;0.1034;8.7085;
929.4000;0.1034;8.7013;
929.7000;0.1050;8.7061;
930.0000;0.1050;8.7109;
930.3000;0.1050;8.7156;
930.6000;0.1042;8.6989;
930.9000;0.1058;8.7085;
931.2000;0.1066;8.7180;
931.5000;0.1034;8.7109;
931.8000;0.1066;8.7156;
932.1000;0.1050;8.7156;
932.4000;0.1091;8.7300;
932.7000;0.1058;8.7276;
933.0000;0.1058;8.7252;
933.3000;0.1074;8.7372;
933.6000;0.1042;8.7252;
933.9000;0.1058;8.7348;
934.2000;0.1058;8.7324;
934.5000;0.0993;8.7204;
934.8000;0.1050;8.7348;
935.1000;0.1058;8.7372;
935.4000;0.1042;8.7348;
935.7000;0.1050;8.7372;
936.0000;0.1042;8.7276;
936.3000;0.1050;8.7300;
936.6000;0.1131;8.7516;
936.9000;0.1083;8.7324;
937.2000;0.1107;8.7420;
937.5000;0.1066;8.7228;
937.8000;0.1066;8.7204;
938.1000;0.1066;8.7180;
938.4000;0.1058;8.7156;
938.7000;0.1058;8.7204;
939.0000;0.1066;8.7252;
939.3000;0.1083;8.7324;
939.6000;0.1034;8.7252;
939.9000;0.1058;8.7324;
940.2000;0.1066;8.7444;
940.5000;0.1083;8.7444;
940.8000;0.1058;8.7300;
941.1000;0.1050;8.7276;
941.4000;0.1042;8.7276;
941.7000;0.1058;8.7276;
942.0000;0.1042;8.7300;
942.3000;0.1074;8.7396;
942.6000;0.1066;8.7348;
942.9000;0.1091;8.7348;
943.2000;0.1066;8.7276;
943.5000;0.1034;8.7204;
943.8000;0.1042;8.7252;
944.1000;0.1091;8.7324;
944.4000;0.1058;8.7300;
944.7000;0.0993;8.7156;
945.0000;0.1050;8.7276;
945.3000;0.1058;8.7276;
945.6000;0.1034;8.7300;
945.9000;0.1050;8.7300;
946.2000;0.1058;8.7204;
946.5000;0.1050;8.7037;
946.8000;0.1058;8.7013;
947.1000;0.1074;8.7013;
947.4000;0.1083;8.7109;
947.7000;0.1058;8.7156;
948.0000;0.1066;8.7228;
948.3000;0.1042;8.7276;
948.6000;0.1066;8.7324;
948.9000;0.1140;8.7468;
949.2000;0.1018;8.7132;
949.5000;0.1091;8.7324;
949.8000;0.1058;8.7300;
950.1000;0.1050;8.7324;
950.4000;0.1050;8.7252;
950.7000;0.0985;8.7109;
951.0000;0.1050;8.7300;
951.3000;0.1091;8.7420;
951.6000;0.1074;8.7372;
951.9000;0.1058;8.7204;
952.2000;0.1058;8.7228;
952.5000;0.1099;8.7276;
952.8000;0.1107;8.7204;
953.1000;0.1099;8.7252;
953.4000;0.1066;8.7252;
953.7000;0.1083;8.7204;
954.0000;0.1131;8.7396;
954.3000;0.1066;8.7324;
954.6000;0.1074;8.7444;
954.9000;0.1066;8.7492;
955.2000;0.1074;8.7420;
955.5000;0.1164;8.7588;
955.8000;0.1058;8.7348;
956.1000;0.1066;8.7372;
956.4000;0.1018;8.7276;
956.7000;0.1034;8.7324;
957.0000;0.1026;8.7348;
957.3000;0.1058;8.7348;
957.6000;0.1058;8.7324;
957.9000;0.1058;8.7228;
958.2000;0.1083;8.7300;
958.5000;0.1050;8.7156;
958.8000;0.1066;8.7252;
959.1000;0.1074;8.7276;
959.4000;0.1074;8.7180;
959.7000;0.1083;8.7228;
960.0000;0.1058;8.7180;
960.3000;0.1058;8.7228;
960.6000;0.1083;8.7276;
960.9000;0.1091;8.7300;
961.2000;0.1066;8.7300;
961.5000;0.1058;8.7204;
961.8000;0.1066;8.7061;
962.1000;0.1066;8.7061;
962.4000;0.1058;8.7180;
962.7000;0.1009;8.7132;
963.0000;0.1034;8.7300;
963.3000;0.1074;8.7396;
963.6000;0.1164;8.7588;
963.9000;0.1066;8.7372;
964.2000;0.1066;8.7348;
964.5000;0.1058;8.7372;
964.8000;0.1091;8.7372;
965.1000;0.1034;8.7252;
965.4000;0.1050;8.7228;
965.7000;0.1074;8.7324;
966.0000;0.1042;8.7228;
966.3000;0.1050;8.7228;
966.6000;0.1066;8.7276;
966.9000;0.1083;8.7300;
967.2000;0.1083;8.7372;
967.5000;0.1083;8.7420;
967.8000;0.1058;8.7372;
968.1000;0.1050;8.7444;
968.4000;0.1074;8.7564;
968.7000;0.1042;8.7420;
969.0000;0.1034;8.7492;
969.3000;0.1050;8.7468;
969.6000;0.1058;8.7420;
969.9000;0.0993;8.7276;
970.2000;0.1034;8.7324;
970.5000;0.1058;8.7372;
970.8000;0.1050;8.7324;
971.1000;0.1050;8.7396;
971.4000;0.1042;8.7444;
971.7000;0.1034;8.7396;
972.0000;0.1050;8.7420;
972.3000;0.1066;8.7612;
972.6000;0.1066;8.7516;
972.9000;0.1050;8.7492;
973.2000;0.1050;8.7516;
973.5000;0.1058;8.7420;
973.8000;0.1034;8.7348;
974.1000;0.1050;8.7492;
974.4000;0.1058;8.7564;
974.7000;0.1058;8.7492;
975.0000;0.1050;8.7492;
975.3000;0.1074;8.7492;
975.6000;0.1050;8.7420;
975.9000;0.1131;8.7540;
976.2000;0.1115;8.7540;
976.5000;0.1066;8.7252;
976.8000;0.1074;8.7300;
977.1000;0.1058;8.7324;
977.4000;0.1074;8.7420;
977.7000;0.1066;8.7396;
978.0000;0.1026;8.7276;
978.3000;0.1066;8.7324;
978.6000;0.1066;8.7276;
978.9000;0.1066;8.7348;
979.2000;0.1074;8.7444;
979.5000;0.1066;8.7492;
979.8000;0.1042;8.7564;
980.1000;0.1042;8.7612;
980.4000;0.1066;8.7516;
980.7000;0.1074;8.7468;
981.0000;0.1058;8.7468;
981.3000;0.1050;8.7444;
981.6000;0.1058;8.7396;
981.9000;0.1058;8.7420;
982.2000;0.1123;8.7540;
982.5000;0.1050;8.7492;
982.8000;0.1042;8.7468;
983.1000;0.1050;8.7468;
983.4000;0.1050;8.7492;
983.7000;0.1009;8.7300;
984.0000;0.1066;8.7396;
984.3000;0.1058;8.7324;
984.6000;0.1074;8.7372;
984.9000;0.1074;8.7300;
985.2000;0.1091;8.7300;
985.5000;0.1058;8.7228;
985.8000;0.0993;8.7085;
986.1000;0.1058;8.7228;
986.4000;0.1099;8.7228;
986.7000;0.1066;8.7228;
987.0000;0.1050;8.7180;
987.3000;0.1042;8.7061;
987.6000;0.1034;8.7037;
987.9000;0.1074;8.7156;
988.2000;0.1099;8.7228;
988.5000;0.1042;8.7156;
988.8000;0.1066;8.7324;
989.1000;0.1058;8.7252;
989.4000;0.1107;8.7372;
989.7000;0.1026;8.7228;
990.0000;0.1066;8.7300;
990.3000;0.1050;8.7276;
990.6000;0.1066;8.7276;
990.9000;0.1074;8.7324;
991.2000;0.1074;8.7372;
991.5000;0.1074;8.7420;
991.8000;0.1058;8.7420;
992.1000;0.1074;8.7420;
992.4000;0.1083;8.7420;
992.7000;0.1123;8.7444;
993.0000;0.1083;8.7372;
993.3000;0.1058;8.7276;
993.6000;0.1083;8.7252;
993.9000;0.1099;8.7372;
994.2000;0.1058;8.7300;
994.5000;0.1058;8.7228;
994.8000;0.1058;8.7180;
995.1000;0.1026;8.7252;
995.4000;0.1074;8.7300;
995.7000;0.1058;8.7324;
996.0000;0.1050;8.7300;
996.3000;0.1066;8.7300;
996.6000;0.1083;8.7156;
996.9000;0.1066;8.7132;
997.2000;0.1074;8.7252;
997.5000;0.1091;8.7252;
997.8000;0.1058;8.7204;
998.1000;0.1058;8.7228;
998.4000;0.1066;8.7348;
998.7000;0.1091;8.7420;
999.0000;0.1058;8.7324;
999.3000;0.1042;8.7324;
999.6000;0.1066;8.7324;
999.9000;0.1058;8.7324;
1000.2000;0.1058;8.7252;
1000.5000;0.1058;8.7300;
1000.8000;0.1050;8.7300;
1001.1000;0.1050;8.7324;
1001.4000;0.1050;8.7348;
1001.7000;0.0985;8.7156;
1002.0000;0.1058;8.7252;
1002.3000;0.1058;8.7204;
1002.6000;0.1058;8.7324;
1002.9000;0.1074;8.7468;
1003.2000;0.1042;8.7468;
1003.5000;0.1058;8.7396;
1003.8000;0.1099;8.7468;
1004.1000;0.1099;8.7372;
1004.4000;0.1066;8.7276;
1004.7000;0.1066;8.7276;
1005.0000;0.1074;8.7228;
1005.3000;0.1050;8.7252;
1005.6000;0.1018;8.7180;
1005.9000;0.1058;8.7276;
1006.2000;0.1058;8.7324;
1006.5000;0.1074;8.7372;
1006.8000;0.1083;8.7228;
1007.1000;0.1050;8.7156;
1007.4000;0.1074;8.7228;
1007.7000;0.1066;8.7228;
1008.0000;0.1058;8.7228;
1008.3000;0.1066;8.7324;
1008.6000;0.1066;8.7252;
1008.9000;0.1074;8.7252;
1009.2000;0.0993;8.7132;
1009.5000;0.1042;8.7204;
1009.8000;0.1058;8.7252;
1010.1000;0.1066;8.7300;
1010.4000;0.1066;8.7396;
1010.7000;0.1066;8.7324;
1011.0000;0.1066;8.7300;
1011.3000;0.1058;8.7276;
1011.6000;0.1099;8.7492;
1011.9000;0.1074;8.7468;
1012.2000;0.1058;8.7396;
1012.5000;0.1058;8.7372;
1012.8000;0.1091;8.7396;
1013.1000;0.1050;8.7348;
1013.4000;0.1042;8.7348;
1013.7000;0.1058;8.7348;
1014.0000;0.1058;8.7228;
1014.3000;0.1140;8.7444;
1014.6000;0.1026;8.7180;
1014.9000;0.1042;8.7228;
1015.2000;0.1066;8.7276;
1015.5000;0.1156;8.7516;
1015.8000;0.1066;8.7252;
1016.1000;0.1091;8.7276;
1016.4000;0.1083;8.7276;
1016.7000;0.1058;8.7252;
1017.0000;0.1066;8.7348;
1017.3000;0.1050;8.7324;
1017.6000;0.1066;8.7516;
1017.9000;0.1083;8.7516;
1018.2000;0.1066;8.7492;
1018.5000;0.1066;8.7540;
1018.8000;0.1115;8.7756;
1019.1000;0.1058;8.7492;
1019.4000;0.1091;8.7564;
1019.7000;0.1058;8.7492;
1020.0000;0.1042;8.7396;
1020.3000;0.1042;8.7444;
1020.6000;0.1058;8.7492;
1020.9000;0.1058;8.7492;
1021.2000;0.1042;8.7372;
1021.5000;0.1042;8.7300;
1021.8000;0.1074;8.7396;
1022.1000;0.1066;8.7468;
1022.4000;0.1091;8.7564;
1022.7000;0.1074;8.7588;
1023.0000;0.1083;8.7540;
1023.3000;0.1099;8.7516;
1023.6000;0.1058;8.7444;
1023.9000;0.1099;8.7468;
1024.2000;0.1050;8.7300;
1024.5000;0.1042;8.7348;
1024.8000;0.1083;8.7372;
1025.1000;0.1050;8.7372;
1025.4000;0.1074;8.7444;
1025.7000;0.1026;8.7276;
1026.0000;0.1074;8.7420;
1026.3000;0.1050;8.7396;
1026.6000;0.1034;8.7324;
1026.9000;0.1066;8.7372;
1027.2000;0.1083;8.7348;
1027.5000;0.1042;8.7252;
1027.8000;0.1140;8.7516;
1028.1000;0.1066;8.7324;
1028.4000;0.1066;8.7420;
1028.7000;0.1066;8.7468;
1029.0000;0.1050;8.7420;
1029.3000;0.1058;8.7468;
1029.6000;0.1058;8.7492;
1029.9000;0.1099;8.7588;
1030.2000;0.1050;8.7444;
1030.5000;0.1074;8.7468;
1030.8000;0.1058;8.7396;
1031.1000;0.1083;8.7396;
1031.4000;0.1066;8.7300;
1031.7000;0.1001;8.7156;
1032.0000;0.1066;8.7324;
1032.3000;0.1083;8.7420;
1032.6000;0.1074;8.7468;
1032.9000;0.1074;8.7444;
1033.2000;0.1123;8.7564;
1033.5000;0.1091;8.7492;
1033.8000;0.1091;8.7372;
1034.1000;0.1131;8.7324;
1034.4000;0.1074;8.7228;
1034.7000;0.1091;8.7276;
1035.0000;0.1066;8.7204;
1035.3000;0.1083;8.7300;
1035.6000;0.1042;8.7156;
1035.9000;0.1083;8.7109;
1036.2000;0.1058;8.6965;
1036.5000;0.1050;8.6821;
1036.8000;0.1058;8.6917;
1037.1000;0.1050;8.6941;
1037.4000;0.1066;8.7085;
1037.7000;0.1050;8.7061;
1038.0000;0.1050;8.7037;
1038.3000;0.1083;8.7109;
1038.6000;0.1066;8.7061;
1038.9000;0.1091;8.7132;
1039.2000;0.1058;8.7037;
1039.5000;0.1083;8.7085;
1039.8000;0.1042;8.6941;
1040.1000;0.1042;8.6989;
1040.4000;0.1058;8.7037;
1040.7000;0.1042;8.7085;
1041.0000;0.1066;8.7132;
1041.3000;0.1042;8.6965;
1041.6000;0.1042;8.6869;
1041.9000;0.1050;8.6893;
1042.2000;0.1058;8.6989;
1042.5000;0.0993;8.6893;
1042.8000;0.1058;8.7061;
1043.1000;0.1018;8.6989;
1043.4000;0.1050;8.7085;
1043.7000;0.1042;8.7156;
1044.0000;0.1074;8.7132;
1044.3000;0.1018;8.7013;
1044.6000;0.1099;8.7252;
1044.9000;0.1066;8.7085;
1045.2000;0.1058;8.7013;
1045.5000;0.1066;8.7037;
1045.8000;0.1034;8.6965;
1046.1000;0.1066;8.7109;
1046.4000;0.1074;8.7156;
1046.7000;0.1050;8.7109;
1047.0000;0.1066;8.7324;
1047.3000;0.1034;8.7444;
1047.6000;0.1050;8.7468;
1047.9000;0.1058;8.7492;
1048.2000;0.1050;8.7420;
1048.5000;0.1140;8.7588;
1048.8000;0.1026;8.7228;
1049.1000;0.1050;8.7276;
1049.4000;0.1018;8.7204;
1049.7000;0.1050;8.7228;
1050.0000;0.1066;8.7228;
1050.3000;0.1074;8.7324;
1050.6000;0.0977;8.7109;
1050.9000;0.1058;8.7276;
1051.2000;0.1083;8.7252;
1051.5000;0.1058;8.7252;
1051.8000;0.1083;8.7204;
1052.1000;0.1074;8.7204;
1052.4000;0.1050;8.7156;
1052.7000;0.1058;8.7204;
1053.0000;0.1050;8.7132;
1053.3000;0.1066;8.7204;
1053.6000;0.1050;8.7228;
1053.9000;0.1058;8.7252;
1054.2000;0.1058;8.7324;
1054.5000;0.1074;8.7324;
1054.8000;0.1091;8.7372;
1055.1000;0.1066;8.7204;
1055.4000;0.1042;8.7132;
1055.7000;0.0993;8.7061;
1056.0000;0.1074;8.7372;
1056.3000;0.1074;8.7372;
1056.6000;0.1042;8.7372;
1056.9000;0.1058;8.7348;
1057.2000;0.1058;8.7348;
1057.5000;0.1042;8.7348;
1057.8000;0.1050;8.7324;
1058.1000;0.1066;8.7372;
1058.4000;0.1050;8.7300;
1058.7000;0.1042;8.7204;
1059.0000;0.1050;8.7180;
1059.3000;0.1050;8.7037;
1059.6000;0.1042;8.6965;
1059.9000;0.1066;8.7085;
1060.2000;0.1058;8.7061;
1060.5000;0.1050;8.7085;
1060.8000;0.1001;8.6917;
1061.1000;0.1066;8.7061;
1061.4000;0.1115;8.7180;
1061.7000;0.0977;8.6845;
1062.0000;0.1074;8.7109;
1062.3000;0.1050;8.6989;
1062.6000;0.1042;8.7061;
1062.9000;0.1042;8.7061;
1063.2000;0.1074;8.7180;
1063.5000;0.1050;8.7085;
1063.8000;0.1131;8.7276;
1064.1000;0.1091;8.7228;
1064.4000;0.1083;8.7324;
1064.7000;0.1058;8.7228;
1065.0000;0.1042;8.7228;
1065.3000;0.1107;8.7348;
1065.6000;0.1074;8.7324;
1065.9000;0.1058;8.7228;
1066.2000;0.1115;8.7420;
1066.5000;0.1042;8.7228;
1066.8000;0.1050;8.7204;
1067.1000;0.1058;8.7180;
1067.4000;0.1018;8.7132;
1067.7000;0.1066;8.7228;
1068.0000;0.1058;8.7276;
1068.3000;0.1058;8.7300;
1068.6000;0.1074;8.7276;
1068.9000;0.1099;8.7396;
1069.2000;0.1083;8.7252;
1069.5000;0.1058;8.7228;
1069.8000;0.1042;8.7204;
1070.1000;0.1066;8.7204;
1070.4000;0.1066;8.7180;
1070.7000;0.1099;8.7156;
1071.0000;0.1066;8.7061;
1071.3000;0.1058;8.7109;
1071.6000;0.1058;8.7109;
1071.9000;0.1058;8.7180;
1072.2000;0.1058;8.7156;
1072.5000;0.1074;8.7324;
1072.8000;0.1066;8.7252;
1073.1000;0.1066;8.7300;
1073.4000;0.1066;8.7348;
1073.7000;0.1050;8.7444;
1074.0000;0.1066;8.7420;
1074.3000;0.1066;8.7396;
1074.6000;0.1131;8.7492;
1074.9000;0.1066;8.7276;
1075.2000;0.1058;8.7252;
1075.5000;0.1074;8.7348;
1075.8000;0.1074;8.7348;
1076.1000;0.1034;8.7276;
1076.4000;0.1066;8.7372;
1076.7000;0.1001;8.7228;
1077.0000;0.1050;8.7396;
1077.3000;0.1083;8.7468;
1077.6000;0.1034;8.7300;
1077.9000;0.1091;8.7396;
1078.2000;0.1050;8.7276;
1078.5000;0.1066;8.7276;
1078.8000;0.1050;8.7252;
1079.1000;0.1074;8.7348;
1079.4000;0.1091;8.7396;
1079.7000;0.0952;8.7061;
1080.0000;0.1074;8.7252;
1080.3000;0.1042;8.7228;
1080.6000;0.1091;8.7396;
1080.9000;0.1066;8.7372;
1081.2000;0.1058;8.7372;
1081.5000;0.1050;8.7252;
1081.8000;0.1042;8.7228;
1082.1000;0.1058;8.7228;
1082.4000;0.1050;8.7132;
1082.7000;0.1009;8.7013;
1083.0000;0.1066;8.7156;
1083.3000;0.1058;8.7252;
1083.6000;0.1042;8.7276;
1083.9000;0.1099;8.7348;
1084.2000;0.1091;8.7228;
1084.5000;0.1034;8.7085;
1084.8000;0.1107;8.7228;
1085.1000;0.1066;8.7132;
1085.4000;0.1074;8.7156;
1085.7000;0.1026;8.7109;
1086.0000;0.1058;8.7252;
1086.3000;0.1042;8.7228;
1086.6000;0.1083;8.7372;
1086.9000;0.1058;8.7276;
1087.2000;0.1058;8.7276;
1087.5000;0.1042;8.7276;
1087.8000;0.1058;8.7300;
1088.1000;0.1074;8.7276;
1088.4000;0.1058;8.7228;
1088.7000;0.1066;8.7204;
1089.0000;0.1050;8.7204;
1089.3000;0.1066;8.7228;
1089.6000;0.1066;8.7156;
1089.9000;0.1042;8.7180;
1090.2000;0.1074;8.7276;
1090.5000;0.1066;8.7348;
1090.8000;0.1058;8.7276;
1091.1000;0.1066;8.7324;
1091.4000;0.1042;8.7252;
1091.7000;0.1066;8.7300;
1092.0000;0.1050;8.7156;
1092.3000;0.1058;8.7180;
1092.6000;0.1042;8.7180;
1092.9000;0.1042;8.7276;
1093.2000;0.1058;8.7348;
1093.5000;0.1066;8.7252;
1093.8000;0.1042;8.7180;
1094.1000;0.1058;8.7156;
1094.4000;0.1058;8.7180;
1094.7000;0.1026;8.7109;
1095.0000;0.1050;8.7156;
1095.3000;0.1050;8.7204;
1095.6000;0.1042;8.7156;
1095.9000;0.1050;8.7109;
1096.2000;0.1066;8.7156;
1096.5000;0.1058;8.7132;
1096.8000;0.1074;8.7085;
1097.1000;0.1034;8.7061;
1097.4000;0.1066;8.7085;
1097.7000;0.1042;8.7156;
1098.0000;0.1058;8.7180;
1098.3000;0.1058;8.7252;
1098.6000;0.1050;8.7252;
1098.9000;0.1042;8.7276;
1099.2000;0.1074;8.7276;
1099.5000;0.1058;8.7204;
1099.8000;0.1083;8.7252;
1100.1000;0.1050;8.7156;
1100.4000;0.1058;8.7252;
1100.7000;0.1066;8.7300;
1101.0000;0.1074;8.7300;
1101.3000;0.1050;8.7300;
1101.6000;0.1050;8.7324;
1101.9000;0.1058;8.7444;
1102.2000;0.1074;8.7492;
1102.5000;0.1050;8.7444;
1102.8000;0.1083;8.7348;
1103.1000;0.1131;8.7396;
1103.4000;0.1091;8.7324;
1103.7000;0.1058;8.7324;
1104.0000;0.1050;8.7228;
1104.3000;0.1066;8.7348;
1104.6000;0.1074;8.7492;
1104.9000;0.1066;8.7492;
1105.2000;0.1050;8.7444;
1105.5000;0.1058;8.7420;
1105.8000;0.1066;8.7516;
1106.1000;0.1074;8.7516;
1106.4000;0.1066;8.7540;
1106.7000;0.1050;8.7492;
1107.0000;0.1058;8.7492;
1107.3000;0.1058;8.7420;
1107.6000;0.1066;8.7396;
1107.9000;0.1018;8.7252;
1108.2000;0.1066;8.7324;
1108.5000;0.1042;8.7300;
1108.8000;0.1026;8.7228;
1109.1000;0.1042;8.7300;
1109.4000;0.1058;8.7348;
1109.7000;0.1074;8.7396;
1110.0000;0.1066;8.7396;
1110.3000;0.1148;8.7708;
1110.6000;0.1083;8.7492;
1110.9000;0.1058;8.7444;
1111.2000;0.1083;8.7516;
1111.5000;0.1050;8.7348;
1111.8000;0.1042;8.7228;
1112.1000;0.1042;8.7252;
1112.4000;0.1050;8.7252;
1112.7000;0.1074;8.7276;
1113.0000;0.1058;8.7252;
1113.3000;0.1074;8.7228;
1113.6000;0.1058;8.7180;
1113.9000;0.1058;8.7132;
1114.2000;0.1050;8.7109;
1114.5000;0.1026;8.7061;
1114.8000;0.1058;8.7132;
1115.1000;0.1058;8.7180;
1115.4000;0.1042;8.7180;
1115.7000;0.1148;8.7324;
1116.0000;0.1083;8.7228;
1116.3000;0.1058;8.7252;
1116.6000;0.1042;8.7156;
1116.9000;0.0952;8.6941;
1117.2000;0.1066;8.7252;
1117.5000;0.1042;8.7132;
1117.8000;0.1074;8.7228;
1118.1000;0.1042;8.7180;
1118.4000;0.1074;8.7204;
1118.7000;0.1058;8.7252;
1119.0000;0.1066;8.7204;
1119.3000;0.1058;8.7204;
1119.6000;0.1066;8.7300;
1119.9000;0.1066;8.7348;
1120.2000;0.1091;8.7372;
1120.5000;0.1058;8.7372;
1120.8000;0.1026;8.7252;
1121.1000;0.1083;8.7324;
1121.4000;0.1042;8.7228;
1121.7000;0.1058;8.7180;
1122.0000;0.1066;8.7204;
1122.3000;0.1058;8.7156;
1122.6000;0.1074;8.7180;
1122.9000;0.1083;8.7204;
1123.2000;0.1099;8.7300;
1123.5000;0.1058;8.7252;
1123.8000;0.1001;8.7085;
1124.1000;0.1066;8.7180;
1124.4000;0.1083;8.7132;
1124.7000;0.1058;8.7132;
1125.0000;0.1107;8.7228;
1125.3000;0.1066;8.7037;
1125.6000;0.1066;8.7061;
1125.9000;0.1050;8.6965;
1126.2000;0.1042;8.6869;
1126.5000;0.1058;8.6893;
1126.8000;0.1066;8.6869;
1127.1000;0.1066;8.6917;
1127.4000;0.1050;8.6893;
1127.7000;0.1050;8.6869;
1128.0000;0.1050;8.6869;
1128.3000;0.0993;8.6821;
1128.6000;0.1018;8.6869;
1128.9000;0.1058;8.6965;
1129.2000;0.1066;8.6965;
1129.5000;0.1058;8.7013;
1129.8000;0.1058;8.7109;
1130.1000;0.1107;8.7252;
1130.4000;0.1050;8.7156;
1130.7000;0.1058;8.7061;
1131.0000;0.1050;8.7085;
1131.3000;0.1026;8.7037;
1131.6000;0.1042;8.7085;
1131.9000;0.1058;8.7132;
1132.2000;0.1026;8.7109;
1132.5000;0.1050;8.7180;
1132.8000;0.1034;8.7132;
1133.1000;0.1042;8.7228;
1133.4000;0.1058;8.7228;
1133.7000;0.1026;8.7228;
1134.0000;0.1050;8.7300;
1134.3000;0.1066;8.7324;
1134.6000;0.1123;8.7348;
1134.9000;0.1042;8.7132;
1135.2000;0.1034;8.7180;
1135.5000;0.1050;8.7252;
1135.8000;0.1066;8.7252;
1136.1000;0.1050;8.7204;
1136.4000;0.1058;8.7228;
1136.7000;0.1058;8.7180;
1137.0000;0.1050;8.7109;
1137.3000;0.1058;8.7109;
1137.6000;0.1074;8.7085;
1137.9000;0.1058;8.7156;
1138.2000;0.1083;8.7204;
1138.5000;0.1066;8.7156;
1138.8000;0.1058;8.7156;
1139.1000;0.1074;8.7204;
1139.4000;0.1034;8.7204;
1139.7000;0.1050;8.7180;
1140.0000;0.1050;8.7156;
1140.3000;0.1058;8.7180;
1140.6000;0.1066;8.7228;
1140.9000;0.1050;8.7085;
1141.2000;0.1050;8.7037;
1141.5000;0.1131;8.7180;
1141.8000;0.1042;8.6965;
1142.1000;0.1042;8.7085;
1142.4000;0.1050;8.7156;
1142.7000;0.1050;8.7252;
1143.0000;0.0985;8.7156;
1143.3000;0.1050;8.7276;
1143.6000;0.1074;8.7420;
1143.9000;0.1058;8.7372;
1144.2000;0.1042;8.7252;
1144.5000;0.1074;8.7252;
1144.8000;0.1050;8.7180;
1145.1000;0.1058;8.7109;
1145.4000;0.1058;8.7156;
1145.7000;0.1050;8.7228;
1146.0000;0.1074;8.7252;
1146.3000;0.1066;8.7228;
1146.6000;0.1074;8.7132;
1146.9000;0.1058;8.7109;
1147.2000;0.1050;8.7109;
1147.5000;0.1066;8.7037;
1147.8000;0.1042;8.7061;
1148.1000;0.1050;8.7061;
1148.4000;0.1074;8.7037;
1148.7000;0.1099;8.7156;
1149.0000;0.1058;8.7085;
1149.3000;0.1074;8.7132;
1149.6000;0.1042;8.6965;
1149.9000;0.1066;8.6989;
1150.2000;0.0985;8.6821;
1150.5000;0.1131;8.7109;
1150.8000;0.1083;8.7037;
1151.1000;0.1050;8.7109;
1151.4000;0.1034;8.7085;
1151.7000;0.1050;8.7156;
1152.0000;0.1050;8.7156;
1152.3000;0.1058;8.7228;
1152.6000;0.1034;8.7132;
1152.9000;0.1042;8.7061;
1153.2000;0.1091;8.7156;
1153.5000;0.1058;8.7109;
1153.8000;0.1050;8.7132;
1154.1000;0.1066;8.7204;
1154.4000;0.1091;8.7276;
1154.7000;0.1026;8.7085;
1155.0000;0.1050;8.7013;
1155.3000;0.1058;8.7037;
1155.6000;0.1083;8.7013;
1155.9000;0.1115;8.7132;
1156.2000;0.1042;8.6917;
1156.5000;0.1074;8.7037;
1156.8000;0.1083;8.7085;
1157.1000;0.1050;8.7132;
1157.4000;0.1066;8.7109;
1157.7000;0.1050;8.7109;
1158.0000;0.1058;8.7180;
1158.3000;0.1026;8.7156;
1158.6000;0.1034;8.7156;
1158.9000;0.1091;8.7300;
1159.2000;0.1001;8.7132;
1159.5000;0.1091;8.7348;
1159.8000;0.1058;8.7276;
1160.1000;0.1066;8.7348;
1160.4000;0.1066;8.7348;
1160.7000;0.1058;8.7348;
1161.0000;0.1083;8.7396;
1161.3000;0.1050;8.7300;
1161.6000;0.1018;8.7228;
1161.9000;0.1066;8.7396;
1162.2000;0.1034;8.7276;
1162.5000;0.1050;8.7324;
1162.8000;0.1058;8.7420;
1163.1000;0.1050;8.7348;
1163.4000;0.1058;8.7372;
1163.7000;0.1066;8.7420;
1164.0000;0.1074;8.7396;
1164.3000;0.1066;8.7444;
1164.6000;0.1050;8.7492;
1164.9000;0.1050;8.7492;
1165.2000;0.1058;8.7516;
1165.5000;0.1066;8.7564;
1165.8000;0.1050;8.7444;
1166.1000;0.1042;8.7372;
1166.4000;0.1042;8.7324;
1166.7000;0.1115;8.7540;
1167.0000;0.1009;8.7228;
1167.3000;0.1050;8.7324;
1167.6000;0.1050;8.7324;
1167.9000;0.1034;8.7300;
1168.2000;0.1042;8.7300;
1168.5000;0.1074;8.7348;
1168.8000;0.1091;8.7420;
1169.1000;0.1050;8.7276;
1169.4000;0.1066;8.7252;
1169.7000;0.1083;8.7204;
1170.0000;0.1042;8.7156;
1170.3000;0.1083;8.7324;
1170.6000;0.1050;8.7276;
1170.9000;0.1058;8.7300;
1171.2000;0.1066;8.7324;
1171.5000;0.1066;8.7252;
1171.8000;0.1042;8.7276;
1172.1000;0.1066;8.7396;
1172.4000;0.1066;8.7420;
1172.7000;0.1066;8.7372;
1173.0000;0.1050;8.7348;
1173.3000;0.1042;8.7396;
1173.6000;0.1066;8.7468;
1173.9000;0.1050;8.7468;
1174.2000;0.1050;8.7468;
1174.5000;0.1050;8.7516;
1174.8000;0.1058;8.7540;
1175.1000;0.1050;8.7492;
1175.4000;0.1026;8.7468;
1175.7000;0.1026;8.7348;
1176.0000;0.1066;8.7444;
1176.3000;0.1042;8.7468;
1176.6000;0.1001;8.7324;
1176.9000;0.1099;8.7396;
1177.2000;0.1050;8.7276;
1177.5000;0.1050;8.7276;
1177.8000;0.1058;8.7252;
1178.1000;0.1058;8.7276;
1178.4000;0.1058;8.7180;
1178.7000;0.1058;8.7085;
1179.0000;0.1058;8.7132;
1179.3000;0.1050;8.7180;
1179.6000;0.1172;8.7492;
1179.9000;0.1042;8.7324;
1180.2000;0.1009;8.7252;
1180.5000;0.1058;8.7420;
1180.8000;0.1074;8.7444;
1181.1000;0.1083;8.7444;
1181.4000;0.1050;8.7396;
1181.7000;0.1050;8.7324;
1182.0000;0.1066;8.7324;
1182.3000;0.1066;8.7324;
1182.6000;0.0977;8.7061;
1182.9000;0.1018;8.7180;
1183.2000;0.1066;8.7204;
1183.5000;0.1042;8.7156;
1183.8000;0.1050;8.7109;
1184.1000;0.1058;8.7156;
1184.4000;0.1050;8.7228;
1184.7000;0.1066;8.7252;
1185.0000;0.1066;8.7324;
1185.3000;0.1018;8.7204;
1185.6000;0.1042;8.7276;
1185.9000;0.1083;8.7300;
1186.2000;0.1066;8.7348;
1186.5000;0.1034;8.7324;
1186.8000;0.1050;8.7324;
1187.1000;0.1058;8.7300;
1187.4000;0.1074;8.7420;
1187.7000;0.1050;8.7420;
1188.0000;0.1058;8.7300;
1188.3000;0.1058;8.7348;
1188.6000;0.1050;8.7372;
1188.9000;0.1058;8.7444;
1189.2000;0.1058;8.7444;
1189.5000;0.1066;8.7396;
1189.8000;0.1107;8.7564;
1190.1000;0.1058;8.7444;
1190.4000;0.1050;8.7396;
1190.7000;0.1091;8.7516;
1191.0000;0.1091;8.7444;
1191.3000;0.1074;8.7468;
1191.6000;0.1042;8.7324;
1191.9000;0.1050;8.7372;
1192.2000;0.1091;8.7468;
1192.5000;0.1083;8.7444;
1192.8000;0.1050;8.7420;
1193.1000;0.1050;8.7396;
1193.4000;0.1074;8.7396;
1193.7000;0.1074;8.7372;
1194.0000;0.1066;8.7372;
1194.3000;0.1066;8.7324;
1194.6000;0.1066;8.7252;
1194.9000;0.1058;8.7109;
1195.2000;0.1066;8.7180;
1195.5000;0.1058;8.7132;
1195.8000;0.1034;8.7061;
1196.1000;0.1050;8.7109;
1196.4000;0.1083;8.7109;
1196.7000;0.1066;8.7132;
1197.0000;0.1058;8.7252;
1197.3000;0.1091;8.7276;
1197.6000;0.1074;8.7132;
1197.9000;0.1091;8.7180;
1198.2000;0.1058;8.7132;
1198.5000;0.1115;8.7348;
1198.8000;0.1107;8.7348;
1199.1000;0.1058;8.7252;
1199.4000;0.0985;8.7085;
1199.7000;0.1042;8.7252;
1200.0000;0.1042;8.7324;
1200.3000;0.1050;8.7300;
1200.6000;0.1050;8.7276;
1200.9000;0.1034;8.7252;
1201.2000;0.1066;8.7324;
1201.5000;0.1018;8.7252;
1201.8000;0.1074;8.7420;
1202.1000;0.1058;8.7348;
1202.4000;0.1107;8.7444;
1202.7000;0.1066;8.7372;
1203.0000;0.1026;8.7300;
1203.3000;0.1050;8.7324;
1203.6000;0.1050;8.7300;
1203.9000;0.1050;8.7324;
1204.2000;0.1058;8.7300;
1204.5000;0.1066;8.7348;
1204.8000;0.1066;8.7324;
1205.1000;0.1074;8.7420;
1205.4000;0.1083;8.7372;
1205.7000;0.1034;8.7228;
1206.0000;0.1066;8.7276;
1206.3000;0.1042;8.7324;
1206.6000;0.1058;8.7300;
1206.9000;0.1066;8.7324;
1207.2000;0.1042;8.7324;
1207.5000;0.1074;8.7396;
1207.8000;0.1066;8.7324;
1208.1000;0.1058;8.7180;
1208.4000;0.1058;8.7204;
1208.7000;0.1050;8.7324;
1209.0000;0.1034;8.7324;
1209.3000;0.1050;8.7348;
1209.6000;0.1050;8.7348;
1209.9000;0.1042;8.7372;
1210.2000;0.1066;8.7420;
1210.5000;0.1074;8.7444;
1210.8000;0.1099;8.7492;
1211.1000;0.1058;8.7420;
1211.4000;0.1058;8.7396;
1211.7000;0.1001;8.7252;
1212.0000;0.1058;8.7444;
1212.3000;0.1058;8.7444;
1212.6000;0.1066;8.7396;
1212.9000;0.1050;8.7348;
1213.2000;0.1050;8.7324;
1213.5000;0.1042;8.7228;
1213.8000;0.1050;8.7204;
1214.1000;0.1050;8.7276;
1214.4000;0.1058;8.7300;
1214.7000;0.1058;8.7348;
1215.0000;0.1034;8.7204;
1215.3000;0.1074;8.7300;
1215.6000;0.1058;8.7228;
1215.9000;0.1066;8.7300;
1216.2000;0.1050;8.7228;
1216.5000;0.1074;8.7348;
1216.8000;0.1042;8.7324;
1217.1000;0.0993;8.7228;
1217.4000;0.1034;8.7300;
1217.7000;0.1050;8.7276;
1218.0000;0.1034;8.7156;
1218.3000;0.1042;8.7180;
1218.6000;0.1050;8.7180;
1218.9000;0.1050;8.7228;
1219.2000;0.1042;8.7132;
1219.5000;0.1042;8.7132;
1219.8000;0.1074;8.7204;
1220.1000;0.1058;8.7156;
1220.4000;0.1074;8.7156;
1220.7000;0.1083;8.7156;
1221.0000;0.1066;8.7109;
1221.3000;0.1066;8.7037;
1221.6000;0.1058;8.6965;
1221.9000;0.1058;8.7037;
1222.2000;0.1148;8.7300;
1222.5000;0.1058;8.7132;
1222.8000;0.1050;8.7156;
1223.1000;0.1066;8.7204;
1223.4000;0.1042;8.7252;
1223.7000;0.1042;8.7300;
1224.0000;0.1058;8.7396;
1224.3000;0.1066;8.7444;
1224.6000;0.1099;8.7540;
1224.9000;0.1066;8.7396;
1225.2000;0.1066;8.7372;
1225.5000;0.1066;8.7420;
1225.8000;0.1066;8.7396;
1226.1000;0.1066;8.7468;
1226.4000;0.1074;8.7492;
1226.7000;0.1058;8.7492;
1227.0000;0.1058;8.7516;
1227.3000;0.1115;8.7636;
1227.6000;0.1058;8.7612;
1227.9000;0.1050;8.7516;
1228.2000;0.1050;8.7540;
1228.5000;0.1042;8.7396;
1228.8000;0.1058;8.7396;
1229.1000;0.1058;8.7372;
1229.4000;0.1123;8.7540;
1229.7000;0.1066;8.7324;
1230.0000;0.1042;8.7396;
1230.3000;0.1066;8.7444;
1230.6000;0.1083;8.7588;
1230.9000;0.1066;8.7516;
1231.2000;0.1042;8.7444;
1231.5000;0.1083;8.7516;
1231.8000;0.1058;8.7444;
1232.1000;0.1074;8.7492;
1232.4000;0.1058;8.7372;
1232.7000;0.1001;8.7228;
1233.0000;0.1058;8.7372;
1233.3000;0.1050;8.7324;
1233.6000;0.1018;8.7252;
1233.9000;0.1042;8.7396;
1234.2000;0.1066;8.7492;
1234.5000;0.1009;8.7324;
1234.8000;0.1058;8.7492;
1235.1000;0.1042;8.7396;
1235.4000;0.1050;8.7468;
1235.7000;0.1066;8.7468;
1236.0000;0.1058;8.7420;
1236.3000;0.1050;8.7468;
1236.6000;0.1074;8.7564;
1236.9000;0.1066;8.7612;
1237.2000;0.1050;8.7588;
1237.5000;0.1058;8.7588;
1237.8000;0.1034;8.7516;
1238.1000;0.1026;8.7588;
1238.4000;0.1009;8.7468;
1238.7000;0.1050;8.7420;
1239.0000;0.1050;8.7396;
1239.3000;0.1066;8.7468;
1239.6000;0.1058;8.7396;
1239.9000;0.1058;8.7516;
1240.2000;0.1066;8.7492;
1240.5000;0.1034;8.7348;
1240.8000;0.1050;8.7420;
1241.1000;0.1058;8.7468;
1241.4000;0.1083;8.7492;
1241.7000;0.1083;8.7516;
1242.0000;0.1058;8.7468;
1242.3000;0.1042;8.7516;
1242.6000;0.1050;8.7516;
1242.9000;0.1050;8.7492;
1243.2000;0.1058;8.7468;
1243.5000;0.1042;8.7444;
1243.8000;0.1050;8.7444;
1244.1000;0.1034;8.7396;
1244.4000;0.1050;8.7516;
1244.7000;0.1058;8.7468;
1245.0000;0.1058;8.7516;
1245.3000;0.1042;8.7444;
1245.6000;0.1050;8.7444;
1245.9000;0.1058;8.7348;
1246.2000;0.1042;8.7276;
1246.5000;0.1074;8.7444;
1246.8000;0.1066;8.7420;
1247.1000;0.1066;8.7564;
1247.4000;0.1034;8.7492;
1247.7000;0.1050;8.7612;
1248.0000;0.1050;8.7540;
1248.3000;0.1091;8.7540;
1248.6000;0.1018;8.7348;
1248.9000;0.1042;8.7444;
1249.2000;0.1026;8.7420;
1249.5000;0.1066;8.7468;
1249.8000;0.1050;8.7444;
1250.1000;0.1066;8.7372;
1250.4000;0.1042;8.7300;
1250.7000;0.1074;8.7396;
1251.0000;0.1074;8.7372;
1251.3000;0.1107;8.7516;
1251.6000;0.1099;8.7444;
1251.9000;0.1066;8.7444;
1252.2000;0.1018;8.7252;
1252.5000;0.1042;8.7324;
1252.8000;0.1050;8.7396;
1253.1000;0.1058;8.7396;
1253.4000;0.1009;8.7324;
1253.7000;0.1091;8.7444;
1254.0000;0.1026;8.7252;
1254.3000;0.1042;8.7252;
1254.6000;0.1074;8.7420;
1254.9000;0.1058;8.7468;
1255.2000;0.1050;8.7372;
1255.5000;0.1066;8.7468;
1255.8000;0.1066;8.7468;
1256.1000;0.1042;8.7420;
1256.4000;0.1050;8.7444;
1256.7000;0.1050;8.7444;
1257.0000;0.1058;8.7540;
1257.3000;0.1066;8.7516;
1257.6000;0.1074;8.7540;
1257.9000;0.1058;8.7468;
1258.2000;0.1066;8.7444;
1258.5000;0.1050;8.7444;
1258.8000;0.1050;8.7372;
1259.1000;0.1058;8.7372;
1259.4000;0.1066;8.7396;
1259.7000;0.1074;8.7420;
1260.0000;0.1066;8.7396;
1260.3000;0.1042;8.7372;
1260.6000;0.1066;8.7348;
1260.9000;0.1050;8.7396;
1261.2000;0.1074;8.7420;
1261.5000;0.1091;8.7492;
1261.8000;0.1074;8.7492;
1262.1000;0.1050;8.7516;
1262.4000;0.1083;8.7612;
1262.7000;0.1091;8.7612;
1263.0000;0.1058;8.7588;
1263.3000;0.1074;8.7612;
1263.6000;0.1050;8.7612;
1263.9000;0.1058;8.7564;
1264.2000;0.1042;8.7444;
1264.5000;0.1058;8.7420;
1264.8000;0.1058;8.7420;
1265.1000;0.1066;8.7396;
1265.4000;0.1042;8.7372;
1265.7000;0.1050;8.7372;
1266.0000;0.1050;8.7420;
1266.3000;0.1066;8.7468;
1266.6000;0.1066;8.7444;
1266.9000;0.1050;8.7324;
1267.2000;0.1066;8.7372;
1267.5000;0.1083;8.7396;
1267.8000;0.1066;8.7372;
1268.1000;0.1042;8.7372;
1268.4000;0.1042;8.7468;
1268.7000;0.1050;8.7348;
1269.0000;0.1050;8.7276;
1269.3000;0.1058;8.7204;
1269.6000;0.1050;8.7252;
1269.9000;0.1058;8.7276;
1270.2000;0.1066;8.7420;
1270.5000;0.1050;8.7324;
1270.8000;0.1074;8.7396;
1271.1000;0.1058;8.7348;
1271.4000;0.1058;8.7396;
1271.7000;0.1058;8.7396;
1272.0000;0.1066;8.7468;
1272.3000;0.1058;8.7468;
1272.6000;0.1050;8.7612;
1272.9000;0.1058;8.7636;
1273.2000;0.1074;8.7684;
1273.5000;0.1066;8.7708;
1273.8000;0.1058;8.7684;
1274.1000;0.1083;8.7612;
1274.4000;0.1050;8.7564;
1274.7000;0.1107;8.7732;
1275.0000;0.1058;8.7612;
1275.3000;0.1066;8.7564;
1275.6000;0.1058;8.7516;
1275.9000;0.1050;8.7324;
1276.2000;0.1034;8.7300;
1276.5000;0.1074;8.7300;
1276.8000;0.1107;8.7420;
1277.1000;0.1066;8.7252;
1277.4000;0.1042;8.7228;
1277.7000;0.1058;8.7204;
1278.0000;0.1058;8.7204;
1278.3000;0.1042;8.7180;
1278.6000;0.1050;8.7252;
1278.9000;0.1058;8.7180;
1279.2000;0.1050;8.7156;
1279.5000;0.1034;8.7085;
1279.8000;0.1042;8.7109;
1280.1000;0.1042;8.7180;
1280.4000;0.1050;8.7252;
1280.7000;0.1026;8.7132;
1281.0000;0.1058;8.7276;
1281.3000;0.1083;8.7396;
1281.6000;0.1074;8.7348;
1281.9000;0.1058;8.7252;
1282.2000;0.1042;8.7252;
1282.5000;0.1058;8.7204;
1282.8000;0.1058;8.7228;
1283.1000;0.1066;8.7180;
1283.4000;0.1066;8.7180;
1283.7000;0.1034;8.7156;
1284.0000;0.1066;8.7228;
1284.3000;0.1083;8.7276;
1284.6000;0.1058;8.7204;
1284.9000;0.1066;8.7252;
1285.2000;0.1074;8.7228;
1285.5000;0.1074;8.7204;
1285.8000;0.1042;8.7228;
1286.1000;0.1058;8.7228;
1286.4000;0.1091;8.7348;
1286.7000;0.1050;8.7252;
1287.0000;0.1034;8.7276;
1287.3000;0.1107;8.7468;
1287.6000;0.1034;8.7348;
1287.9000;0.1074;8.7348;
1288.2000;0.1009;8.7204;
1288.5000;0.1058;8.7372;
1288.8000;0.1050;8.7372;
1289.1000;0.1074;8.7492;
1289.4000;0.1123;8.7612;
1289.7000;0.1034;8.7276;
1290.0000;0.1050;8.7396;
1290.3000;0.1050;8.7348;
1290.6000;0.1026;8.7348;
1290.9000;0.1042;8.7324;
1291.2000;0.1066;8.7300;
1291.5000;0.1018;8.7204;
1291.8000;0.1066;8.7276;
1292.1000;0.1042;8.7252;
1292.4000;0.1083;8.7420;
1292.7000;0.1050;8.7252;
1293.0000;0.1066;8.7276;
1293.3000;0.1058;8.7276;
1293.6000;0.1091;8.7324;
1293.9000;0.1074;8.7324;
1294.2000;0.1074;8.7300;
1294.5000;0.1083;8.7276;
1294.8000;0.1058;8.7276;
1295.1000;0.1050;8.7300;
1295.4000;0.1066;8.7228;
1295.7000;0.1058;8.7228;
1296.0000;0.1042;8.7204;
1296.3000;0.1091;8.7348;
1296.6000;0.1083;8.7348;
1296.9000;0.1074;8.7324;
1297.2000;0.1058;8.7180;
1297.5000;0.1066;8.7276;
1297.8000;0.1074;8.7252;
1298.1000;0.1066;8.7156;
1298.4000;0.1050;8.7180;
1298.7000;0.1050;8.7156;
1299.0000;0.1050;8.7156;
1299.3000;0.1058;8.7204;
1299.6000;0.1074;8.7252;
1299.9000;0.1042;8.7180;
1300.2000;0.1050;8.7228;
1300.5000;0.1058;8.7204;
1300.8000;0.1083;8.7276;
1301.1000;0.1058;8.7276;
1301.4000;0.1074;8.7396;
1301.7000;0.1074;8.7396;
1302.0000;0.1091;8.7396;
1302.3000;0.1058;8.7252;
1302.6000;0.1058;8.7276;
1302.9000;0.1050;8.7276;
1303.2000;0.1083;8.7300;
1303.5000;0.1066;8.7276;
1303.8000;0.1042;8.7276;
1304.1000;0.1058;8.7252;
1304.4000;0.1042;8.7252;
1304.7000;0.1050;8.7300;
1305.0000;0.1018;8.7204;
1305.3000;0.1066;8.7300;
1305.6000;0.1066;8.7348;
1305.9000;0.1050;8.7300;
1306.2000;0.1050;8.7276;
1306.5000;0.1034;8.7276;
1306.8000;0.1066;8.7252;
1307.1000;0.1042;8.7252;
1307.4000;0.1050;8.7180;
1307.7000;0.1034;8.7204;
1308.0000;0.1083;8.7348;
1308.3000;0.1018;8.7204;
1308.6000;0.1058;8.7372;
1308.9000;0.1050;8.7324;
1309.2000;0.1042;8.7300;
1309.5000;0.1066;8.7300;
1309.8000;0.1066;8.7348;
1310.1000;0.1034;8.7276;
1310.4000;0.1123;8.7516;
1310.7000;0.1050;8.7372;
1311.0000;0.1172;8.7492;
1311.3000;0.1001;8.7085;
1311.6000;0.1140;8.7468;
1311.9000;0.1091;8.7252;
1312.2000;0.0985;8.7085;
1312.5000;0.1042;8.7156;
1312.8000;0.1058;8.7085;
1313.1000;0.1066;8.7085;
1313.4000;0.1066;8.7156;
1313.7000;0.1058;8.7252;
1314.0000;0.1074;8.7204;
1314.3000;0.1042;8.7180;
1314.6000;0.1058;8.7156;
1314.9000;0.1001;8.6965;
1315.2000;0.1058;8.7085;
1315.5000;0.1026;8.6917;
1315.8000;0.1066;8.6917;
1316.1000;0.1050;8.6869;
1316.4000;0.1058;8.6917;
1316.7000;0.1083;8.7109;
1317.0000;0.1074;8.7180;
1317.3000;0.1091;8.7180;
1317.6000;0.1018;8.7109;
1317.9000;0.1115;8.7396;
1318.2000;0.1091;8.7324;
1318.5000;0.1058;8.7348;
1318.8000;0.1066;8.7420;
1319.1000;0.1058;8.7420;
1319.4000;0.1066;8.7468;
1319.7000;0.1074;8.7468;
1320.0000;0.0993;8.7132;
1320.3000;0.1058;8.7276;
1320.6000;0.1074;8.7204;
1320.9000;0.1074;8.7276;
1321.2000;0.1034;8.7085;
1321.5000;0.1026;8.6989;
1321.8000;0.1058;8.6989;
1322.1000;0.1050;8.7109;
1322.4000;0.1083;8.7156;
1322.7000;0.1050;8.7061;
1323.0000;0.1066;8.7109;
1323.3000;0.1058;8.7132;
1323.6000;0.1058;8.7180;
1323.9000;0.1042;8.7085;
1324.2000;0.1058;8.7109;
1324.5000;0.1066;8.7109;
1324.8000;0.1034;8.7037;
1325.1000;0.1042;8.7061;
1325.4000;0.1066;8.7156;
1325.7000;0.1042;8.7228;
1326.0000;0.1066;8.7252;
1326.3000;0.1050;8.7276;
1326.6000;0.1058;8.7324;
1326.9000;0.1050;8.7396;
1327.2000;0.1058;8.7396;
1327.5000;0.1074;8.7372;
1327.8000;0.0993;8.7156;
1328.1000;0.1050;8.7300;
1328.4000;0.1066;8.7420;
1328.7000;0.1050;8.7396;
1329.0000;0.1107;8.7420;
1329.3000;0.1042;8.7252;
1329.6000;0.1026;8.7252;
1329.9000;0.1074;8.7396;
1330.2000;0.1042;8.7324;
1330.5000;0.1026;8.7324;
1330.8000;0.1042;8.7300;
1331.1000;0.1050;8.7204;
1331.4000;0.1058;8.7204;
1331.7000;0.1074;8.7300;
1332.0000;0.1083;8.7156;
1332.3000;0.1050;8.7132;
1332.6000;0.1074;8.7228;
1332.9000;0.1148;8.7324;
1333.2000;0.1091;8.7204;
1333.5000;0.1058;8.7180;
1333.8000;0.1042;8.7204;
1334.1000;0.1131;8.7348;
1334.4000;0.1083;8.7204;
1334.7000;0.1042;8.7180;
1335.0000;0.1123;8.7348;
1335.3000;0.1066;8.7132;
1335.6000;0.1066;8.7156;
1335.9000;0.1050;8.7180;
1336.2000;0.1050;8.7156;
1336.5000;0.1050;8.7085;
1336.8000;0.1050;8.7061;
1337.1000;0.1042;8.7109;
1337.4000;0.1042;8.7061;
1337.7000;0.1074;8.7276;
1338.0000;0.1074;8.7324;
1338.3000;0.1042;8.7156;
1338.6000;0.1042;8.7180;
1338.9000;0.0993;8.6965;
1339.2000;0.1050;8.7085;
1339.5000;0.1034;8.7013;
1339.8000;0.1050;8.7180;
1340.1000;0.1074;8.7132;
1340.4000;0.1058;8.7156;
1340.7000;0.0993;8.7013;
1341.0000;0.1066;8.7109;
1341.3000;0.1074;8.7204;
1341.6000;0.1058;8.7228;
1341.9000;0.0993;8.7109;
1342.2000;0.1091;8.7420;
1342.5000;0.1050;8.7228;
1342.8000;0.1083;8.7300;
1343.1000;0.1083;8.7372;
1343.4000;0.1131;8.7420;
1343.7000;0.1083;8.7396;
1344.0000;0.1083;8.7420;
1344.3000;0.1066;8.7372;
1344.6000;0.1042;8.7396;
1344.9000;0.1050;8.7468;
1345.2000;0.1058;8.7444;
1345.5000;0.1107;8.7468;
1345.8000;0.1074;8.7348;
1346.1000;0.1074;8.7444;
1346.4000;0.1083;8.7492;
1346.7000;0.1083;8.7396;
1347.0000;0.1009;8.7276;
1347.3000;0.1058;8.7396;
1347.6000;0.1074;8.7468;
1347.9000;0.1066;8.7420;
1348.2000;0.1058;8.7396;
1348.5000;0.1018;8.7324;
1348.8000;0.1058;8.7492;
1349.1000;0.1058;8.7492;
1349.4000;0.1050;8.7516;
1349.7000;0.1050;8.7492;
1350.0000;0.1058;8.7468;
1350.3000;0.1066;8.7348;
1350.6000;0.1074;8.7324;
1350.9000;0.1042;8.7180;
1351.2000;0.1042;8.7276;
1351.5000;0.1058;8.7372;
1351.8000;0.1001;8.7348;
1352.1000;0.1058;8.7468;
1352.4000;0.1042;8.7420;
1352.7000;0.1050;8.7468;
1353.0000;0.1074;8.7492;
1353.3000;0.1058;8.7444;
1353.6000;0.1058;8.7444;
1353.9000;0.1050;8.7348;
1354.2000;0.1074;8.7396;
1354.5000;0.1042;8.7228;
1354.8000;0.1058;8.7228;
1355.1000;0.1066;8.7276;
1355.4000;0.1083;8.7300;
1355.7000;0.1074;8.7324;
1356.0000;0.1050;8.7324;
1356.3000;0.1058;8.7348;
1356.6000;0.1083;8.7420;
1356.9000;0.1042;8.7252;
1357.2000;0.1058;8.7252;
1357.5000;0.1042;8.7252;
1357.8000;0.1050;8.7228;
1358.1000;0.1034;8.7228;
1358.4000;0.1001;8.7085;
1358.7000;0.1042;8.7109;
1359.0000;0.1050;8.6965;
1359.3000;0.1083;8.6965;
1359.6000;0.1042;8.6893;
1359.9000;0.1042;8.6845;
1360.2000;0.1042;8.6989;
1360.5000;0.1042;8.7085;
1360.8000;0.1058;8.7156;
1361.1000;0.1042;8.7156;
1361.4000;0.1018;8.7109;
1361.7000;0.1042;8.7156;
1362.0000;0.1083;8.7300;
1362.3000;0.1042;8.7276;
1362.6000;0.1066;8.7444;
1362.9000;0.1050;8.7396;
1363.2000;0.1034;8.7252;
1363.5000;0.1058;8.7228;
1363.8000;0.1042;8.7180;
1364.1000;0.1050;8.7180;
1364.4000;0.1050;8.7109;
1364.7000;0.1058;8.7109;
1365.0000;0.1042;8.7109;
1365.3000;0.1042;8.7156;
1365.6000;0.1042;8.7132;
1365.9000;0.1026;8.7109;
1366.2000;0.1042;8.7132;
1366.5000;0.1001;8.7109;
1366.8000;0.1050;8.7252;
1367.1000;0.1074;8.7348;
1367.4000;0.1107;8.7372;
1367.7000;0.1050;8.7300;
1368.0000;0.1066;8.7276;
1368.3000;0.1066;8.7204;
1368.6000;0.1058;8.7156;
1368.9000;0.1066;8.7180;
1369.2000;0.1042;8.7180;
1369.5000;0.1074;8.7228;
1369.8000;0.1058;8.7156;
1370.1000;0.1026;8.7085;
1370.4000;0.1058;8.7300;
1370.7000;0.1058;8.7228;
1371.0000;0.1066;8.7252;
1371.3000;0.1066;8.7156;
1371.6000;0.1058;8.7156;
1371.9000;0.1066;8.7252;
1372.2000;0.1050;8.7276;
1372.5000;0.1074;8.7372;
1372.8000;0.1058;8.7348;
1373.1000;0.1058;8.7252;
1373.4000;0.1058;8.7180;
1373.7000;0.1058;8.7156;
1374.0000;0.1058;8.7228;
1374.3000;0.1066;8.7252;
1374.6000;0.1050;8.7204;
1374.9000;0.1074;8.7300;
1375.2000;0.1083;8.7300;
1375.5000;0.1058;8.7276;
1375.8000;0.1066;8.7324;
1376.1000;0.1050;8.7252;
1376.4000;0.1042;8.7324;
1376.7000;0.1083;8.7492;
1377.0000;0.1083;8.7564;
1377.3000;0.1058;8.7516;
1377.6000;0.1066;8.7300;
1377.9000;0.1074;8.7300;
1378.2000;0.1091;8.7348;
1378.5000;0.1066;8.7396;
1378.8000;0.1034;8.7372;
1379.1000;0.1042;8.7324;
1379.4000;0.1074;8.7372;
1379.7000;0.1091;8.7348;
1380.0000;0.1083;8.7348;
1380.3000;0.1026;8.7276;
1380.6000;0.1009;8.7252;
1380.9000;0.0993;8.7228;
1381.2000;0.1091;8.7468;
1381.5000;0.1034;8.7300;
1381.8000;0.1058;8.7300;
1382.1000;0.1058;8.7276;
1382.4000;0.1058;8.7180;
1382.7000;0.1058;8.7156;
1383.0000;0.1050;8.7109;
1383.3000;0.1050;8.7109;
1383.6000;0.1042;8.7156;
1383.9000;0.1026;8.7109;
1384.2000;0.1034;8.7061;
1384.5000;0.1066;8.7156;
1384.8000;0.1058;8.7156;
1385.1000;0.1058;8.7132;
1385.4000;0.1050;8.7204;
1385.7000;0.1050;8.7180;
1386.0000;0.1058;8.7276;
1386.3000;0.1050;8.7228;
1386.6000;0.1042;8.7180;
1386.9000;0.1066;8.7204;
1387.2000;0.1066;8.7300;
1387.5000;0.1066;8.7324;
1387.8000;0.1074;8.7348;
1388.1000;0.1058;8.7420;
1388.4000;0.1066;8.7492;
1388.7000;0.1050;8.7348;
1389.0000;0.1066;8.7396;
1389.3000;0.0985;8.7300;
1389.6000;0.1058;8.7516;
1389.9000;0.1058;8.7372;
1390.2000;0.1123;8.7420;
1390.5000;0.1018;8.7252;
1390.8000;0.1074;8.7348;
1391.1000;0.1074;8.7372;
1391.4000;0.1058;8.7372;
1391.7000;0.1042;8.7324;
1392.0000;0.1058;8.7372;
1392.3000;0.1042;8.7396;
1392.6000;0.1034;8.7396;
1392.9000;0.1050;8.7444;
1393.2000;0.1050;8.7492;
1393.5000;0.1050;8.7468;
1393.8000;0.1050;8.7396;
1394.1000;0.1050;8.7300;
1394.4000;0.1058;8.7276;
1394.7000;0.1074;8.7300;
1395.0000;0.1050;8.7276;
1395.3000;0.1042;8.7204;
1395.6000;0.1058;8.7252;
1395.9000;0.1034;8.7252;
1396.2000;0.1083;8.7396;
1396.5000;0.1034;8.7348;
1396.8000;0.1050;8.7348;
1397.1000;0.1066;8.7372;
1397.4000;0.1042;8.7228;
1397.7000;0.1050;8.7276;
1398.0000;0.1050;8.7252;
1398.3000;0.1058;8.7324;
1398.6000;0.1066;8.7420;
1398.9000;0.1066;8.7372;
1399.2000;0.1034;8.7324;
1399.5000;0.1050;8.7396;
1399.8000;0.1066;8.7468;
