time/ms;Fluo/V;P700 deltaI/I x10³;
-199.8000;0.1278;8.7612;
-199.5000;0.1294;8.7588;
-199.2000;0.1294;8.7612;
-198.9000;0.1278;8.7516;
-198.6000;0.1270;8.7612;
-198.3000;0.1294;8.7708;
-198.0000;0.1311;8.7732;
-197.7000;0.1294;8.7636;
-197.4000;0.1278;8.7660;
-197.1000;0.1302;8.7708;
-196.8000;0.1286;8.7540;
-196.5000;0.1262;8.7516;
-196.2000;0.1286;8.7540;
-195.9000;0.1278;8.7564;
-195.6000;0.1286;8.7588;
-195.3000;0.1286;8.7732;
-195.0000;0.1294;8.7779;
-194.7000;0.1286;8.7756;
-194.4000;0.1278;8.7732;
-194.1000;0.1294;8.7732;
-193.8000;0.1278;8.7708;
-193.5000;0.1286;8.7684;
-193.2000;0.1294;8.7612;
-192.9000;0.1286;8.7660;
-192.6000;0.1302;8.7732;
-192.3000;0.1286;8.7660;
-192.0000;0.1286;8.7660;
-191.7000;0.1286;8.7612;
-191.4000;0.1294;8.7636;
-191.1000;0.1278;8.7540;
-190.8000;0.1278;8.7516;
-190.5000;0.1286;8.7612;
-190.2000;0.1294;8.7636;
-189.9000;0.1278;8.7636;
-189.6000;0.1270;8.7636;
-189.3000;0.1294;8.7588;
-189.0000;0.1286;8.7540;
-188.7000;0.1294;8.7612;
-188.4000;0.1278;8.7612;
-188.1000;0.1286;8.7708;
-187.8000;0.1294;8.7803;
-187.5000;0.1286;8.7756;
-187.2000;0.1278;8.7732;
-186.9000;0.1294;8.7803;
-186.6000;0.1286;8.7756;
-186.3000;0.1294;8.7612;
-186.0000;0.1302;8.7612;
-185.7000;0.1262;8.7612;
-185.4000;0.1294;8.7684;
-185.1000;0.1294;8.7660;
-184.8000;0.1286;8.7684;
-184.5000;0.1278;8.7660;
-184.2000;0.1294;8.7684;
-183.9000;0.1286;8.7588;
-183.6000;0.1302;8.7564;
-183.3000;0.1278;8.7540;
-183.0000;0.1294;8.7588;
-182.7000;0.1294;8.7684;
-182.4000;0.1278;8.7684;
-182.1000;0.1286;8.7588;
-181.8000;0.1278;8.7612;
-181.5000;0.1286;8.7708;
-181.2000;0.1278;8.7756;
-180.9000;0.1237;8.7708;
-180.6000;0.1286;8.7732;
-180.3000;0.1311;8.7779;
-180.0000;0.1278;8.7708;
-179.7000;0.1286;8.7636;
-179.4000;0.1286;8.7684;
-179.1000;0.1286;8.7732;
-178.8000;0.1311;8.7779;
-178.5000;0.1286;8.7732;
-178.2000;0.1286;8.7851;
-177.9000;0.1302;8.7947;
-177.6000;0.1278;8.7899;
-177.3000;0.1286;8.7851;
-177.0000;0.1294;8.7851;
-176.7000;0.1302;8.7923;
-176.4000;0.1302;8.7827;
-176.1000;0.1294;8.7779;
-175.8000;0.1286;8.7779;
-175.5000;0.1262;8.7756;
-175.2000;0.1278;8.7827;
-174.9000;0.1294;8.7779;
-174.6000;0.1294;8.7756;
-174.3000;0.1278;8.7779;
-174.0000;0.1302;8.7803;
-173.7000;0.1278;8.7732;
-173.4000;0.1278;8.7732;
-173.1000;0.1286;8.7851;
-172.8000;0.1254;8.7708;
-172.5000;0.1302;8.7779;
-172.2000;0.1278;8.7756;
-171.9000;0.1343;8.7875;
-171.6000;0.1286;8.7684;
-171.3000;0.1286;8.7564;
-171.0000;0.1286;8.7492;
-170.7000;0.1286;8.7564;
-170.4000;0.1286;8.7588;
-170.1000;0.1286;8.7492;
-169.8000;0.1294;8.7516;
-169.5000;0.1319;8.7588;
-169.2000;0.1278;8.7372;
-168.9000;0.1278;8.7444;
-168.6000;0.1302;8.7420;
-168.3000;0.1278;8.7492;
-168.0000;0.1294;8.7540;
-167.7000;0.1294;8.7540;
-167.4000;0.1343;8.7708;
-167.1000;0.1302;8.7564;
-166.8000;0.1286;8.7516;
-166.5000;0.1294;8.7564;
-166.2000;0.1294;8.7588;
-165.9000;0.1302;8.7540;
-165.6000;0.1294;8.7468;
-165.3000;0.1254;8.7420;
-165.0000;0.1302;8.7396;
-164.7000;0.1278;8.7324;
-164.4000;0.1294;8.7348;
-164.1000;0.1286;8.7396;
-163.8000;0.1319;8.7660;
-163.5000;0.1180;8.7324;
-163.2000;0.1294;8.7564;
-162.9000;0.1229;8.7348;
-162.6000;0.1294;8.7732;
-162.3000;0.1302;8.7779;
-162.0000;0.1278;8.7827;
-161.7000;0.1286;8.7708;
-161.4000;0.1286;8.7708;
-161.1000;0.1294;8.7636;
-160.8000;0.1278;8.7612;
-160.5000;0.1294;8.7588;
-160.2000;0.1302;8.7588;
-159.9000;0.1311;8.7612;
-159.6000;0.1294;8.7636;
-159.3000;0.1294;8.7612;
-159.0000;0.1278;8.7612;
-158.7000;0.1286;8.7708;
-158.4000;0.1302;8.7803;
-158.1000;0.1278;8.7756;
-157.8000;0.1294;8.7708;
-157.5000;0.1270;8.7708;
-157.2000;0.1294;8.7684;
-156.9000;0.1327;8.7684;
-156.6000;0.1286;8.7564;
-156.3000;0.1286;8.7516;
-156.0000;0.1302;8.7564;
-155.7000;0.1278;8.7540;
-155.4000;0.1294;8.7612;
-155.1000;0.1294;8.7612;
-154.8000;0.1327;8.7779;
-154.5000;0.1237;8.7660;
-154.2000;0.1278;8.7827;
-153.9000;0.1302;8.7947;
-153.6000;0.1294;8.7875;
-153.3000;0.1302;8.7851;
-153.0000;0.1311;8.7827;
-152.7000;0.1294;8.7684;
-152.4000;0.1278;8.7636;
-152.1000;0.1319;8.7684;
-151.8000;0.1302;8.7636;
-151.5000;0.1294;8.7636;
-151.2000;0.1311;8.7684;
-150.9000;0.1311;8.7732;
-150.6000;0.1286;8.7708;
-150.3000;0.1270;8.7588;
-150.0000;0.1270;8.7636;
-149.7000;0.1205;8.7516;
-149.4000;0.1270;8.7660;
-149.1000;0.1270;8.7588;
-148.8000;0.1221;8.7468;
-148.5000;0.1278;8.7660;
-148.2000;0.1245;8.7588;
-147.9000;0.1278;8.7684;
-147.6000;0.1229;8.7516;
-147.3000;0.1254;8.7588;
-147.0000;0.1311;8.7636;
-146.7000;0.1302;8.7612;
-146.4000;0.1294;8.7636;
-146.1000;0.1286;8.7612;
-145.8000;0.1343;8.7732;
-145.5000;0.1302;8.7540;
-145.2000;0.1270;8.7564;
-144.9000;0.1278;8.7636;
-144.6000;0.1286;8.7684;
-144.3000;0.1311;8.7779;
-144.0000;0.1262;8.7708;
-143.7000;0.1278;8.7708;
-143.4000;0.1278;8.7779;
-143.1000;0.1319;8.7923;
-142.8000;0.1335;8.7923;
-142.5000;0.1270;8.7756;
-142.2000;0.1319;8.7779;
-141.9000;0.1302;8.7660;
-141.6000;0.1286;8.7612;
-141.3000;0.1286;8.7588;
-141.0000;0.1343;8.7732;
-140.7000;0.1278;8.7540;
-140.4000;0.1311;8.7588;
-140.1000;0.1286;8.7516;
-139.8000;0.1294;8.7564;
-139.5000;0.1262;8.7420;
-139.2000;0.1335;8.7732;
-138.9000;0.1302;8.7732;
-138.6000;0.1302;8.7708;
-138.3000;0.1278;8.7612;
-138.0000;0.1311;8.7612;
-137.7000;0.1286;8.7588;
-137.4000;0.1278;8.7564;
-137.1000;0.1278;8.7612;
-136.8000;0.1294;8.7708;
-136.5000;0.1319;8.7732;
-136.2000;0.1311;8.7636;
-135.9000;0.1278;8.7588;
-135.6000;0.1311;8.7612;
-135.3000;0.1302;8.7540;
-135.0000;0.1294;8.7588;
-134.7000;0.1262;8.7516;
-134.4000;0.1311;8.7684;
-134.1000;0.1286;8.7660;
-133.8000;0.1319;8.7708;
-133.5000;0.1319;8.7660;
-133.2000;0.1302;8.7588;
-132.9000;0.1311;8.7588;
-132.6000;0.1286;8.7612;
-132.3000;0.1270;8.7684;
-132.0000;0.1294;8.7803;
-131.7000;0.1278;8.7708;
-131.4000;0.1278;8.7660;
-131.1000;0.1270;8.7516;
-130.8000;0.1270;8.7516;
-130.5000;0.1245;8.7540;
-130.2000;0.1286;8.7564;
-129.9000;0.1270;8.7564;
-129.6000;0.1286;8.7612;
-129.3000;0.1311;8.7684;
-129.0000;0.1302;8.7612;
-128.7000;0.1270;8.7468;
-128.4000;0.1311;8.7588;
-128.1000;0.1294;8.7564;
-127.8000;0.1294;8.7468;
-127.5000;0.1286;8.7396;
-127.2000;0.1311;8.7444;
-126.9000;0.1286;8.7492;
-126.6000;0.1278;8.7564;
-126.3000;0.1270;8.7540;
-126.0000;0.1270;8.7564;
-125.7000;0.1286;8.7684;
-125.4000;0.1286;8.7708;
-125.1000;0.1302;8.7708;
-124.8000;0.1286;8.7636;
-124.5000;0.1262;8.7588;
-124.2000;0.1254;8.7540;
-123.9000;0.1278;8.7684;
-123.6000;0.1270;8.7636;
-123.3000;0.1286;8.7708;
-123.0000;0.1278;8.7684;
-122.7000;0.1302;8.7612;
-122.4000;0.1286;8.7516;
-122.1000;0.1294;8.7516;
-121.8000;0.1294;8.7516;
-121.5000;0.1286;8.7588;
-121.2000;0.1294;8.7636;
-120.9000;0.1262;8.7468;
-120.6000;0.1197;8.7228;
-120.3000;0.1286;8.7540;
-120.0000;0.1302;8.7636;
-119.7000;0.1254;8.7540;
-119.4000;0.1270;8.7612;
-119.1000;0.1294;8.7636;
-118.8000;0.1254;8.7420;
-118.5000;0.1286;8.7516;
-118.2000;0.1302;8.7564;
-117.9000;0.1294;8.7516;
-117.6000;0.1343;8.7540;
-117.3000;0.1294;8.7492;
-117.0000;0.1286;8.7468;
-116.7000;0.1286;8.7468;
-116.4000;0.1294;8.7516;
-116.1000;0.1294;8.7444;
-115.8000;0.1286;8.7468;
-115.5000;0.1302;8.7444;
-115.2000;0.1294;8.7468;
-114.9000;0.1343;8.7588;
-114.6000;0.1359;8.7612;
-114.3000;0.1278;8.7372;
-114.0000;0.1254;8.7444;
-113.7000;0.1254;8.7444;
-113.4000;0.1270;8.7444;
-113.1000;0.1278;8.7492;
-112.8000;0.1294;8.7588;
-112.5000;0.1294;8.7636;
-112.2000;0.1294;8.7636;
-111.9000;0.1286;8.7684;
-111.6000;0.1335;8.7684;
-111.3000;0.1294;8.7492;
-111.0000;0.1294;8.7492;
-110.7000;0.1302;8.7516;
-110.4000;0.1311;8.7516;
-110.1000;0.1302;8.7468;
-109.8000;0.1286;8.7444;
-109.5000;0.1270;8.7468;
-109.2000;0.1286;8.7540;
-108.9000;0.1278;8.7564;
-108.6000;0.1311;8.7612;
-108.3000;0.1270;8.7492;
-108.0000;0.1286;8.7540;
-107.7000;0.1270;8.7516;
-107.4000;0.1278;8.7564;
-107.1000;0.1286;8.7540;
-106.8000;0.1302;8.7564;
-106.5000;0.1327;8.7612;
-106.2000;0.1302;8.7636;
-105.9000;0.1294;8.7636;
-105.6000;0.1254;8.7564;
-105.3000;0.1302;8.7588;
-105.0000;0.1286;8.7516;
-104.7000;0.1335;8.7588;
-104.4000;0.1302;8.7564;
-104.1000;0.1278;8.7540;
-103.8000;0.1294;8.7540;
-103.5000;0.1270;8.7492;
-103.2000;0.1376;8.7899;
-102.9000;0.1294;8.7636;
-102.6000;0.1302;8.7660;
-102.3000;0.1294;8.7612;
-102.0000;0.1335;8.7779;
-101.7000;0.1302;8.7660;
-101.4000;0.1311;8.7708;
-101.1000;0.1270;8.7636;
-100.8000;0.1270;8.7684;
-100.5000;0.1294;8.7708;
-100.2000;0.1286;8.7588;
-99.9000;0.1278;8.7564;
-99.6000;0.1270;8.7516;
-99.3000;0.1278;8.7564;
-99.0000;0.1302;8.7636;
-98.7000;0.1311;8.7612;
-98.4000;0.1319;8.7588;
-98.1000;0.1302;8.7492;
-97.8000;0.1302;8.7516;
-97.5000;0.1335;8.7588;
-97.2000;0.1254;8.7420;
-96.9000;0.1302;8.7660;
-96.6000;0.1254;8.7588;
-96.3000;0.1302;8.7660;
-96.0000;0.1294;8.7684;
-95.7000;0.1286;8.7588;
-95.4000;0.1286;8.7660;
-95.1000;0.1294;8.7779;
-94.8000;0.1294;8.7612;
-94.5000;0.1286;8.7540;
-94.2000;0.1254;8.7420;
-93.9000;0.1294;8.7564;
-93.6000;0.1278;8.7540;
-93.3000;0.1286;8.7612;
-93.0000;0.1294;8.7612;
-92.7000;0.1294;8.7636;
-92.4000;0.1311;8.7636;
-92.1000;0.1311;8.7636;
-91.8000;0.1294;8.7636;
-91.5000;0.1302;8.7732;
-91.2000;0.1311;8.7803;
-90.9000;0.1286;8.7732;
-90.6000;0.1343;8.7803;
-90.3000;0.1286;8.7612;
-90.0000;0.1286;8.7540;
-89.7000;0.1286;8.7468;
-89.4000;0.1286;8.7468;
-89.1000;0.1294;8.7540;
-88.8000;0.1278;8.7588;
-88.5000;0.1294;8.7612;
-88.2000;0.1286;8.7660;
-87.9000;0.1278;8.7660;
-87.6000;0.1294;8.7660;
-87.3000;0.1286;8.7636;
-87.0000;0.1294;8.7564;
-86.7000;0.1278;8.7516;
-86.4000;0.1294;8.7516;
-86.1000;0.1286;8.7468;
-85.8000;0.1286;8.7396;
-85.5000;0.1270;8.7324;
-85.2000;0.1270;8.7324;
-84.9000;0.1294;8.7420;
-84.6000;0.1286;8.7348;
-84.3000;0.1278;8.7348;
-84.0000;0.1254;8.7324;
-83.7000;0.1286;8.7372;
-83.4000;0.1294;8.7492;
-83.1000;0.1286;8.7540;
-82.8000;0.1262;8.7636;
-82.5000;0.1278;8.7779;
-82.2000;0.1294;8.7803;
-81.9000;0.1278;8.7779;
-81.6000;0.1286;8.7708;
-81.3000;0.1286;8.7732;
-81.0000;0.1327;8.7732;
-80.7000;0.1278;8.7588;
-80.4000;0.1270;8.7564;
-80.1000;0.1278;8.7684;
-79.8000;0.1278;8.7684;
-79.5000;0.1278;8.7684;
-79.2000;0.1294;8.7612;
-78.9000;0.1262;8.7588;
-78.6000;0.1286;8.7636;
-78.3000;0.1294;8.7732;
-78.0000;0.1245;8.7756;
-77.7000;0.1270;8.7899;
-77.4000;0.1302;8.7923;
-77.1000;0.1254;8.7732;
-76.8000;0.1302;8.7827;
-76.5000;0.1278;8.7779;
-76.2000;0.1286;8.7827;
-75.9000;0.1278;8.7779;
-75.6000;0.1294;8.7756;
-75.3000;0.1294;8.7732;
-75.0000;0.1278;8.7732;
-74.7000;0.1286;8.7708;
-74.4000;0.1286;8.7636;
-74.1000;0.1294;8.7588;
-73.8000;0.1294;8.7468;
-73.5000;0.1319;8.7564;
-73.2000;0.1294;8.7636;
-72.9000;0.1270;8.7660;
-72.6000;0.1294;8.7756;
-72.3000;0.1294;8.7684;
-72.0000;0.1302;8.7708;
-71.7000;0.1286;8.7684;
-71.4000;0.1286;8.7708;
-71.1000;0.1294;8.7756;
-70.8000;0.1302;8.7684;
-70.5000;0.1294;8.7636;
-70.2000;0.1286;8.7588;
-69.9000;0.1270;8.7588;
-69.6000;0.1278;8.7540;
-69.3000;0.1294;8.7612;
-69.0000;0.1270;8.7636;
-68.7000;0.1278;8.7636;
-68.4000;0.1278;8.7684;
-68.1000;0.1294;8.7732;
-67.8000;0.1286;8.7660;
-67.5000;0.1278;8.7708;
-67.2000;0.1294;8.7779;
-66.9000;0.1302;8.7827;
-66.6000;0.1302;8.7827;
-66.3000;0.1294;8.7827;
-66.0000;0.1205;8.7564;
-65.7000;0.1294;8.7779;
-65.4000;0.1294;8.7756;
-65.1000;0.1278;8.7684;
-64.8000;0.1302;8.7708;
-64.5000;0.1311;8.7660;
-64.2000;0.1302;8.7684;
-63.9000;0.1302;8.7708;
-63.6000;0.1302;8.7708;
-63.3000;0.1302;8.7732;
-63.0000;0.1311;8.7779;
-62.7000;0.1294;8.7779;
-62.4000;0.1294;8.7756;
-62.1000;0.1302;8.7732;
-61.8000;0.1294;8.7684;
-61.5000;0.1302;8.7779;
-61.2000;0.1311;8.7803;
-60.9000;0.1302;8.7684;
-60.6000;0.1302;8.7708;
-60.3000;0.1294;8.7732;
-60.0000;0.1270;8.7636;
-59.7000;0.1294;8.7732;
-59.4000;0.1311;8.7875;
-59.1000;0.1286;8.7875;
-58.8000;0.1294;8.7803;
-58.5000;0.1302;8.7779;
-58.2000;0.1302;8.7756;
-57.9000;0.1294;8.7779;
-57.6000;0.1294;8.7779;
-57.3000;0.1286;8.7708;
-57.0000;0.1335;8.7803;
-56.7000;0.1311;8.7779;
-56.4000;0.1278;8.7708;
-56.1000;0.1294;8.7779;
-55.8000;0.1262;8.7732;
-55.5000;0.1286;8.7708;
-55.2000;0.1294;8.7756;
-54.9000;0.1270;8.7660;
-54.6000;0.1278;8.7660;
-54.3000;0.1278;8.7756;
-54.0000;0.1286;8.7827;
-53.7000;0.1286;8.7827;
-53.4000;0.1278;8.7779;
-53.1000;0.1270;8.7803;
-52.8000;0.1294;8.7779;
-52.5000;0.1294;8.7660;
-52.2000;0.1278;8.7612;
-51.9000;0.1294;8.7684;
-51.6000;0.1294;8.7708;
-51.3000;0.1294;8.7708;
-51.0000;0.1278;8.7660;
-50.7000;0.1286;8.7684;
-50.4000;0.1294;8.7732;
-50.1000;0.1286;8.7708;
-49.8000;0.1294;8.7708;
-49.5000;0.1286;8.7732;
-49.2000;0.1294;8.7732;
-48.9000;0.1286;8.7756;
-48.6000;0.1294;8.7756;
-48.3000;0.1343;8.7899;
-48.0000;0.1311;8.7803;
-47.7000;0.1294;8.7803;
-47.4000;0.1286;8.7803;
-47.1000;0.1294;8.7803;
-46.8000;0.1302;8.7803;
-46.5000;0.1302;8.7803;
-46.2000;0.1294;8.7779;
-45.9000;0.1286;8.7756;
-45.6000;0.1286;8.7803;
-45.3000;0.1335;8.7971;
-45.0000;0.1302;8.7827;
-44.7000;0.1286;8.7827;
-44.4000;0.1278;8.7803;
-44.1000;0.1294;8.7803;
-43.8000;0.1294;8.7708;
-43.5000;0.1294;8.7660;
-43.2000;0.1286;8.7636;
-42.9000;0.1237;8.7612;
-42.6000;0.1286;8.7684;
-42.3000;0.1286;8.7636;
-42.0000;0.1302;8.7708;
-41.7000;0.1286;8.7732;
-41.4000;0.1286;8.7708;
-41.1000;0.1302;8.7756;
-40.8000;0.1286;8.7756;
-40.5000;0.1294;8.7779;
-40.2000;0.1294;8.7732;
-39.9000;0.1319;8.7732;
-39.6000;0.1278;8.7588;
-39.3000;0.1294;8.7636;
-39.0000;0.1302;8.7708;
-38.7000;0.1294;8.7756;
-38.4000;0.1205;8.7468;
-38.1000;0.1286;8.7684;
-37.8000;0.1294;8.7779;
-37.5000;0.1286;8.7732;
-37.2000;0.1294;8.7827;
-36.9000;0.1335;8.7899;
-36.6000;0.1302;8.7899;
-36.3000;0.1311;8.7851;
-36.0000;0.1278;8.7756;
-35.7000;0.1302;8.7875;
-35.4000;0.1302;8.7971;
-35.1000;0.1311;8.7947;
-34.8000;0.1278;8.7851;
-34.5000;0.1286;8.7899;
-34.2000;0.1294;8.7851;
-33.9000;0.1319;8.7923;
-33.6000;0.1311;8.7803;
-33.3000;0.1294;8.7732;
-33.0000;0.1327;8.7827;
-32.7000;0.1294;8.7732;
-32.4000;0.1294;8.7756;
-32.1000;0.1319;8.7827;
-31.8000;0.1302;8.7851;
-31.5000;0.1335;8.7947;
-31.2000;0.1400;8.8115;
-30.9000;0.1408;8.8067;
-30.6000;0.1294;8.7851;
-30.3000;0.1294;8.7803;
-30.0000;0.1311;8.7803;
-29.7000;0.1302;8.7779;
-29.4000;0.1311;8.7756;
-29.1000;0.1302;8.7803;
-28.8000;0.1262;8.7708;
-28.5000;0.1286;8.7684;
-28.2000;0.1294;8.7756;
-27.9000;0.1286;8.7756;
-27.6000;0.1294;8.7803;
-27.3000;0.1294;8.7875;
-27.0000;0.1278;8.7851;
-26.7000;0.1327;8.7947;
-26.4000;0.1270;8.7803;
-26.1000;0.1286;8.7779;
-25.8000;0.1294;8.7756;
-25.5000;0.1286;8.7756;
-25.2000;0.1311;8.7779;
-24.9000;0.1262;8.7708;
-24.6000;0.1302;8.7732;
-24.3000;0.1278;8.7732;
-24.0000;0.1278;8.7756;
-23.7000;0.1278;8.7732;
-23.4000;0.1286;8.7684;
-23.1000;0.1319;8.7827;
-22.8000;0.1294;8.7779;
-22.5000;0.1262;8.7684;
-22.2000;0.1294;8.7708;
-21.9000;0.1278;8.7660;
-21.6000;0.1302;8.7684;
-21.3000;0.1294;8.7684;
-21.0000;0.1311;8.7708;
-20.7000;0.1335;8.7756;
-20.4000;0.1294;8.7660;
-20.1000;0.1294;8.7636;
-19.8000;0.1294;8.7684;
-19.5000;0.1205;8.7444;
-19.2000;0.1302;8.7636;
-18.9000;0.1278;8.7660;
-18.6000;0.1302;8.7708;
-18.3000;0.1294;8.7732;
-18.0000;0.1286;8.7803;
-17.7000;0.1254;8.7779;
-17.4000;0.1286;8.7923;
-17.1000;0.1294;8.7875;
-16.8000;0.1286;8.7851;
-16.5000;0.1262;8.7779;
-16.2000;0.1302;8.7851;
-15.9000;0.1294;8.7851;
-15.6000;0.1294;8.7827;
-15.3000;0.1302;8.7827;
-15.0000;0.1286;8.7803;
-14.7000;0.1311;8.7827;
-14.4000;0.1359;8.7875;
-14.1000;0.1319;8.7756;
-13.8000;0.1302;8.7732;
-13.5000;0.1311;8.7899;
-13.2000;0.1335;8.7971;
-12.9000;0.1286;8.7875;
-12.6000;0.1254;8.7827;
-12.3000;0.1294;8.7947;
-12.0000;0.1311;8.7875;
-11.7000;0.1327;8.7899;
-11.4000;0.1335;8.7899;
-11.1000;0.1311;8.7803;
-10.8000;0.1302;8.7708;
-10.5000;0.1286;8.7660;
-10.2000;0.1294;8.7708;
-9.9000;0.1335;8.7779;
-9.6000;0.1286;8.7684;
-9.3000;0.1270;8.7588;
-9.0000;0.1278;8.7612;
-8.7000;0.1270;8.7588;
-8.4000;0.1262;8.7612;
-8.1000;0.1270;8.7636;
-7.8000;0.1278;8.7636;
-7.5000;0.1286;8.7708;
-7.2000;0.1302;8.7756;
-6.9000;0.1351;8.7875;
-6.6000;0.1294;8.7803;
-6.3000;0.1294;8.7803;
-6.0000;0.1302;8.7779;
-5.7000;0.1270;8.7684;
-5.4000;0.1286;8.7564;
-5.1000;0.1311;8.7660;
-4.8000;0.1335;8.7803;
-4.5000;0.1335;8.7875;
-4.2000;0.1294;8.7732;
-3.9000;0.1294;8.7779;
-3.6000;0.1302;8.7851;
-3.3000;0.1294;8.7803;
-3.0000;0.1319;8.7899;
-2.7000;0.1311;8.7851;
-2.4000;0.1319;8.7923;
-2.1000;0.1278;8.7779;
-1.8000;0.1311;8.7803;
-1.5000;0.1351;8.7779;
-1.2000;0.1294;8.7564;
-0.9000;0.1327;8.7636;
-0.6000;0.1311;8.7516;
-0.3000;0.1319;8.7492;
0.0000;0.1319;8.7492;
0.3000;0.1294;8.7061;
0.6000;0.1327;8.7228;
0.9000;0.1278;8.7276;
1.2000;0.1302;8.7468;
1.5000;0.1368;8.7803;
1.8000;0.1343;8.7851;
2.1000;0.1302;8.7971;
2.4000;0.1376;8.8283;
2.7000;0.1351;8.8235;
3.0000;0.1335;8.8259;
3.3000;0.1302;8.8235;
3.6000;0.1327;8.8403;
3.9000;0.1343;8.8450;
4.2000;0.1351;8.8474;
4.5000;0.1359;8.8474;
4.8000;0.1368;8.8522;
5.1000;0.1359;8.8546;
5.4000;0.1319;8.8474;
5.7000;0.1351;8.8618;
6.0000;0.1319;8.8546;
6.3000;0.1327;8.8546;
6.6000;0.1359;8.8714;
6.9000;0.1359;8.8834;
7.2000;0.1359;8.8762;
7.5000;0.1368;8.8738;
7.8000;0.1343;8.8618;
8.1000;0.1343;8.8642;
8.4000;0.1319;8.8594;
8.7000;0.1351;8.8594;
9.0000;0.1343;8.8546;
9.3000;0.1368;8.8618;
9.6000;0.1335;8.8546;
9.9000;0.1327;8.8570;
10.2000;0.1368;8.8666;
10.5000;0.1416;8.8882;
10.8000;0.1335;8.8666;
11.1000;0.1351;8.8738;
11.4000;0.1359;8.8810;
11.7000;0.1384;8.8882;
12.0000;0.1359;8.8834;
12.3000;0.1335;8.8714;
12.6000;0.1335;8.8618;
12.9000;0.1359;8.8666;
13.2000;0.1359;8.8738;
13.5000;0.1368;8.8810;
13.8000;0.1359;8.8786;
14.1000;0.1359;8.8858;
14.4000;0.1335;8.8786;
14.7000;0.1368;8.8882;
15.0000;0.1408;8.8930;
15.3000;0.1335;8.8762;
15.6000;0.1351;8.8858;
15.9000;0.1359;8.8954;
16.2000;0.1368;8.8882;
16.5000;0.1351;8.8762;
16.8000;0.1376;8.8834;
17.1000;0.1368;8.8858;
17.4000;0.1335;8.8738;
17.7000;0.1343;8.8834;
18.0000;0.1441;8.9050;
18.3000;0.1359;8.8882;
18.6000;0.1384;8.9002;
18.9000;0.1376;8.9026;
19.2000;0.1351;8.8858;
19.5000;0.1376;8.8930;
19.8000;0.1343;8.8882;
20.1000;0.1376;8.8858;
20.4000;0.1351;8.8762;
20.7000;0.1359;8.8762;
21.0000;0.1368;8.8810;
21.3000;0.1359;8.8810;
21.6000;0.1359;8.8882;
21.9000;0.1376;8.8858;
22.2000;0.1359;8.8834;
22.5000;0.1376;8.8834;
22.8000;0.1368;8.8930;
23.1000;0.1376;8.8858;
23.4000;0.1376;8.8858;
23.7000;0.1327;8.8738;
24.0000;0.1368;8.8762;
24.3000;0.1384;8.8690;
24.6000;0.1368;8.8642;
24.9000;0.1376;8.8642;
25.2000;0.1351;8.8570;
25.5000;0.1425;8.8714;
25.8000;0.1359;8.8570;
26.1000;0.1376;8.8666;
26.4000;0.1368;8.8738;
26.7000;0.1359;8.8690;
27.0000;0.1351;8.8714;
27.3000;0.1368;8.8762;
27.6000;0.1359;8.8690;
27.9000;0.1351;8.8642;
28.2000;0.1368;8.8738;
28.5000;0.1376;8.8690;
28.8000;0.1376;8.8762;
29.1000;0.1368;8.8834;
29.4000;0.1384;8.8978;
29.7000;0.1376;8.8954;
30.0000;0.1359;8.8930;
30.3000;0.1376;8.8930;
30.6000;0.1351;8.8786;
30.9000;0.1343;8.8738;
31.2000;0.1359;8.8738;
31.5000;0.1351;8.8786;
31.8000;0.1368;8.8690;
32.1000;0.1368;8.8666;
32.4000;0.1359;8.8642;
32.7000;0.1359;8.8570;
33.0000;0.1359;8.8570;
33.3000;0.1368;8.8618;
33.6000;0.1368;8.8690;
33.9000;0.1376;8.8690;
34.2000;0.1359;8.8714;
34.5000;0.1359;8.8762;
34.8000;0.1359;8.8762;
35.1000;0.1368;8.8786;
35.4000;0.1351;8.8834;
35.7000;0.1368;8.8858;
36.0000;0.1327;8.8714;
36.3000;0.1368;8.8882;
36.6000;0.1359;8.8882;
36.9000;0.1335;8.8834;
37.2000;0.1368;8.9002;
37.5000;0.1376;8.9026;
37.8000;0.1351;8.8978;
38.1000;0.1351;8.9002;
38.4000;0.1368;8.8954;
38.7000;0.1376;8.8954;
39.0000;0.1351;8.8858;
39.3000;0.1368;8.8882;
39.6000;0.1359;8.8882;
39.9000;0.1376;8.8882;
40.2000;0.1359;8.8834;
40.5000;0.1376;8.8858;
40.8000;0.1359;8.8930;
41.1000;0.1359;8.8906;
41.4000;0.1368;8.8906;
41.7000;0.1408;8.9050;
42.0000;0.1351;8.8930;
42.3000;0.1384;8.8978;
42.6000;0.1359;8.8906;
42.9000;0.1335;8.8762;
43.2000;0.1368;8.8786;
43.5000;0.1368;8.8858;
43.8000;0.1384;8.8906;
44.1000;0.1376;8.8906;
44.4000;0.1359;8.8906;
44.7000;0.1368;8.8906;
45.0000;0.1376;8.8882;
45.3000;0.1359;8.8930;
45.6000;0.1343;8.8930;
45.9000;0.1359;8.8930;
46.2000;0.1368;8.8858;
46.5000;0.1384;8.8762;
46.8000;0.1368;8.8642;
47.1000;0.1368;8.8594;
47.4000;0.1392;8.8618;
47.7000;0.1368;8.8570;
48.0000;0.1384;8.8546;
48.3000;0.1376;8.8570;
48.6000;0.1392;8.8642;
48.9000;0.1400;8.8642;
49.2000;0.1376;8.8570;
49.5000;0.1376;8.8690;
49.8000;0.1392;8.8690;
50.1000;0.1384;8.8714;
50.4000;0.1384;8.8738;
50.7000;0.1376;8.8690;
51.0000;0.1408;8.8786;
51.3000;0.1384;8.8738;
51.6000;0.1376;8.8666;
51.9000;0.1368;8.8618;
52.2000;0.1368;8.8546;
52.5000;0.1384;8.8522;
52.8000;0.1384;8.8570;
53.1000;0.1392;8.8498;
53.4000;0.1384;8.8522;
53.7000;0.1368;8.8594;
54.0000;0.1359;8.8570;
54.3000;0.1368;8.8570;
54.6000;0.1368;8.8618;
54.9000;0.1368;8.8546;
55.2000;0.1376;8.8474;
55.5000;0.1384;8.8450;
55.8000;0.1359;8.8427;
56.1000;0.1359;8.8522;
56.4000;0.1384;8.8546;
56.7000;0.1376;8.8642;
57.0000;0.1359;8.8594;
57.3000;0.1368;8.8666;
57.6000;0.1392;8.8738;
57.9000;0.1368;8.8714;
58.2000;0.1400;8.8762;
58.5000;0.1368;8.8738;
58.8000;0.1376;8.8714;
59.1000;0.1376;8.8786;
59.4000;0.1376;8.8642;
59.7000;0.1376;8.8594;
60.0000;0.1359;8.8642;
60.3000;0.1376;8.8714;
60.6000;0.1368;8.8618;
60.9000;0.1368;8.8666;
61.2000;0.1368;8.8666;
61.5000;0.1359;8.8594;
61.8000;0.1368;8.8618;
62.1000;0.1359;8.8594;
62.4000;0.1368;8.8522;
62.7000;0.1368;8.8546;
63.0000;0.1376;8.8618;
63.3000;0.1376;8.8666;
63.6000;0.1384;8.8618;
63.9000;0.1376;8.8570;
64.2000;0.1376;8.8642;
64.5000;0.1392;8.8714;
64.8000;0.1376;8.8714;
65.1000;0.1384;8.8690;
65.4000;0.1392;8.8642;
65.7000;0.1376;8.8666;
66.0000;0.1368;8.8570;
66.3000;0.1368;8.8546;
66.6000;0.1384;8.8546;
66.9000;0.1359;8.8594;
67.2000;0.1368;8.8642;
67.5000;0.1384;8.8642;
67.8000;0.1400;8.8642;
68.1000;0.1376;8.8498;
68.4000;0.1368;8.8498;
68.7000;0.1359;8.8474;
69.0000;0.1392;8.8450;
69.3000;0.1384;8.8450;
69.6000;0.1368;8.8427;
69.9000;0.1368;8.8498;
70.2000;0.1384;8.8546;
70.5000;0.1376;8.8522;
70.8000;0.1368;8.8355;
71.1000;0.1376;8.8379;
71.4000;0.1376;8.8403;
71.7000;0.1368;8.8450;
72.0000;0.1384;8.8522;
72.3000;0.1311;8.8403;
72.6000;0.1368;8.8546;
72.9000;0.1376;8.8570;
73.2000;0.1359;8.8498;
73.5000;0.1351;8.8546;
73.8000;0.1368;8.8594;
74.1000;0.1359;8.8642;
74.4000;0.1392;8.8714;
74.7000;0.1392;8.8714;
75.0000;0.1376;8.8786;
75.3000;0.1376;8.8882;
75.6000;0.1376;8.8906;
75.9000;0.1376;8.8858;
76.2000;0.1368;8.8762;
76.5000;0.1368;8.8690;
76.8000;0.1433;8.8858;
77.1000;0.1400;8.8666;
77.4000;0.1368;8.8522;
77.7000;0.1376;8.8570;
78.0000;0.1359;8.8570;
78.3000;0.1368;8.8642;
78.6000;0.1368;8.8618;
78.9000;0.1392;8.8666;
79.2000;0.1343;8.8570;
79.5000;0.1376;8.8618;
79.8000;0.1351;8.8570;
80.1000;0.1351;8.8522;
80.4000;0.1376;8.8618;
80.7000;0.1433;8.8786;
81.0000;0.1400;8.8642;
81.3000;0.1376;8.8618;
81.6000;0.1400;8.8666;
81.9000;0.1376;8.8618;
82.2000;0.1343;8.8474;
82.5000;0.1368;8.8570;
82.8000;0.1359;8.8666;
83.1000;0.1408;8.8834;
83.4000;0.1392;8.8786;
83.7000;0.1359;8.8690;
84.0000;0.1359;8.8666;
84.3000;0.1392;8.8738;
84.6000;0.1384;8.8738;
84.9000;0.1368;8.8618;
85.2000;0.1392;8.8762;
85.5000;0.1384;8.8786;
85.8000;0.1384;8.8786;
86.1000;0.1376;8.8762;
86.4000;0.1376;8.8762;
86.7000;0.1441;8.8930;
87.0000;0.1400;8.8762;
87.3000;0.1425;8.8810;
87.6000;0.1376;8.8714;
87.9000;0.1384;8.8786;
88.2000;0.1384;8.8738;
88.5000;0.1359;8.8738;
88.8000;0.1384;8.8786;
89.1000;0.1433;8.8930;
89.4000;0.1384;8.8834;
89.7000;0.1368;8.8786;
90.0000;0.1376;8.8738;
90.3000;0.1359;8.8714;
90.6000;0.1368;8.8738;
90.9000;0.1481;8.9026;
91.2000;0.1376;8.8738;
91.5000;0.1376;8.8738;
91.8000;0.1384;8.8786;
92.1000;0.1368;8.8810;
92.4000;0.1359;8.8714;
92.7000;0.1359;8.8690;
93.0000;0.1376;8.8786;
93.3000;0.1351;8.8738;
93.6000;0.1384;8.8714;
93.9000;0.1392;8.8714;
94.2000;0.1351;8.8594;
94.5000;0.1376;8.8714;
94.8000;0.1359;8.8738;
95.1000;0.1441;8.8882;
95.4000;0.1319;8.8570;
95.7000;0.1368;8.8666;
96.0000;0.1368;8.8738;
96.3000;0.1408;8.8810;
96.6000;0.1433;8.8978;
96.9000;0.1368;8.8858;
97.2000;0.1392;8.8858;
97.5000;0.1376;8.8858;
97.8000;0.1416;8.8954;
98.1000;0.1376;8.8834;
98.4000;0.1376;8.8690;
98.7000;0.1368;8.8618;
99.0000;0.1408;8.8786;
99.3000;0.1376;8.8810;
99.6000;0.1351;8.8786;
99.9000;0.1368;8.8834;
100.2000;0.1335;8.8690;
100.5000;0.1359;8.8738;
100.8000;0.1335;8.8666;
101.1000;0.1384;8.8690;
101.4000;0.1392;8.8762;
101.7000;0.1376;8.8690;
102.0000;0.1384;8.8786;
102.3000;0.1327;8.8618;
102.6000;0.1368;8.8714;
102.9000;0.1384;8.8714;
103.2000;0.1425;8.8738;
103.5000;0.1384;8.8642;
103.8000;0.1359;8.8594;
104.1000;0.1351;8.8546;
104.4000;0.1335;8.8498;
104.7000;0.1376;8.8546;
105.0000;0.1392;8.8618;
105.3000;0.1408;8.8666;
105.6000;0.1416;8.8666;
105.9000;0.1408;8.8618;
106.2000;0.1351;8.8522;
106.5000;0.1376;8.8594;
106.8000;0.1368;8.8570;
107.1000;0.1368;8.8474;
107.4000;0.1384;8.8498;
107.7000;0.1400;8.8522;
108.0000;0.1400;8.8450;
108.3000;0.1384;8.8498;
108.6000;0.1376;8.8498;
108.9000;0.1392;8.8498;
109.2000;0.1441;8.8618;
109.5000;0.1376;8.8498;
109.8000;0.1400;8.8498;
110.1000;0.1368;8.8450;
110.4000;0.1368;8.8498;
110.7000;0.1392;8.8546;
111.0000;0.1376;8.8570;
111.3000;0.1441;8.8738;
111.6000;0.1376;8.8570;
111.9000;0.1351;8.8498;
112.2000;0.1376;8.8522;
112.5000;0.1335;8.8427;
112.8000;0.1384;8.8546;
113.1000;0.1343;8.8427;
113.4000;0.1384;8.8546;
113.7000;0.1400;8.8618;
114.0000;0.1368;8.8570;
114.3000;0.1359;8.8594;
114.6000;0.1376;8.8690;
114.9000;0.1384;8.8738;
115.2000;0.1392;8.8762;
115.5000;0.1368;8.8618;
115.8000;0.1392;8.8714;
116.1000;0.1376;8.8666;
116.4000;0.1384;8.8810;
116.7000;0.1376;8.8762;
117.0000;0.1384;8.8810;
117.3000;0.1335;8.8618;
117.6000;0.1384;8.8714;
117.9000;0.1392;8.8786;
118.2000;0.1368;8.8714;
118.5000;0.1286;8.8594;
118.8000;0.1384;8.8714;
119.1000;0.1376;8.8690;
119.4000;0.1376;8.8642;
119.7000;0.1376;8.8594;
120.0000;0.1384;8.8618;
120.3000;0.1376;8.8642;
120.6000;0.1376;8.8714;
120.9000;0.1400;8.8786;
121.2000;0.1368;8.8714;
121.5000;0.1376;8.8810;
121.8000;0.1376;8.8786;
122.1000;0.1359;8.8738;
122.4000;0.1392;8.8738;
122.7000;0.1376;8.8786;
123.0000;0.1433;8.8882;
123.3000;0.1384;8.8714;
123.6000;0.1384;8.8738;
123.9000;0.1376;8.8810;
124.2000;0.1384;8.8810;
124.5000;0.1376;8.8642;
124.8000;0.1376;8.8546;
125.1000;0.1400;8.8594;
125.4000;0.1425;8.8642;
125.7000;0.1376;8.8498;
126.0000;0.1425;8.8666;
126.3000;0.1392;8.8618;
126.6000;0.1384;8.8666;
126.9000;0.1376;8.8642;
127.2000;0.1384;8.8570;
127.5000;0.1384;8.8594;
127.8000;0.1384;8.8594;
128.1000;0.1368;8.8618;
128.4000;0.1376;8.8666;
128.7000;0.1376;8.8642;
129.0000;0.1384;8.8642;
129.3000;0.1392;8.8594;
129.6000;0.1294;8.8355;
129.9000;0.1392;8.8594;
130.2000;0.1400;8.8738;
130.5000;0.1368;8.8762;
130.8000;0.1384;8.8666;
131.1000;0.1351;8.8618;
131.4000;0.1384;8.8762;
131.7000;0.1384;8.8738;
132.0000;0.1376;8.8618;
132.3000;0.1368;8.8738;
132.6000;0.1368;8.8786;
132.9000;0.1311;8.8666;
133.2000;0.1368;8.8666;
133.5000;0.1359;8.8666;
133.8000;0.1425;8.8738;
134.1000;0.1376;8.8594;
134.4000;0.1359;8.8618;
134.7000;0.1368;8.8690;
135.0000;0.1286;8.8522;
135.3000;0.1376;8.8786;
135.6000;0.1400;8.8810;
135.9000;0.1425;8.8858;
136.2000;0.1376;8.8666;
136.5000;0.1392;8.8666;
136.8000;0.1376;8.8666;
137.1000;0.1376;8.8642;
137.4000;0.1376;8.8666;
137.7000;0.1376;8.8642;
138.0000;0.1384;8.8546;
138.3000;0.1376;8.8474;
138.6000;0.1368;8.8450;
138.9000;0.1392;8.8546;
139.2000;0.1400;8.8642;
139.5000;0.1359;8.8546;
139.8000;0.1392;8.8594;
140.1000;0.1376;8.8570;
140.4000;0.1408;8.8618;
140.7000;0.1416;8.8570;
141.0000;0.1400;8.8522;
141.3000;0.1400;8.8450;
141.6000;0.1384;8.8450;
141.9000;0.1400;8.8379;
142.2000;0.1400;8.8427;
142.5000;0.1392;8.8403;
142.8000;0.1384;8.8331;
143.1000;0.1392;8.8450;
143.4000;0.1376;8.8474;
143.7000;0.1384;8.8522;
144.0000;0.1351;8.8450;
144.3000;0.1408;8.8546;
144.6000;0.1376;8.8522;
144.9000;0.1384;8.8522;
145.2000;0.1400;8.8618;
145.5000;0.1408;8.8690;
145.8000;0.1392;8.8666;
146.1000;0.1368;8.8594;
146.4000;0.1384;8.8618;
146.7000;0.1376;8.8546;
147.0000;0.1400;8.8594;
147.3000;0.1384;8.8618;
147.6000;0.1343;8.8546;
147.9000;0.1376;8.8690;
148.2000;0.1384;8.8714;
148.5000;0.1368;8.8594;
148.8000;0.1359;8.8522;
149.1000;0.1384;8.8570;
149.4000;0.1359;8.8522;
149.7000;0.1376;8.8570;
150.0000;0.1376;8.8570;
150.3000;0.1359;8.8546;
150.6000;0.1368;8.8570;
150.9000;0.1392;8.8666;
151.2000;0.1376;8.8570;
151.5000;0.1416;8.8714;
151.8000;0.1376;8.8690;
152.1000;0.1400;8.8786;
152.4000;0.1384;8.8786;
152.7000;0.1384;8.8738;
153.0000;0.1343;8.8594;
153.3000;0.1392;8.8714;
153.6000;0.1368;8.8618;
153.9000;0.1384;8.8618;
154.2000;0.1359;8.8570;
154.5000;0.1368;8.8594;
154.8000;0.1408;8.8714;
155.1000;0.1376;8.8642;
155.4000;0.1368;8.8642;
155.7000;0.1384;8.8642;
156.0000;0.1368;8.8450;
156.3000;0.1384;8.8594;
156.6000;0.1384;8.8666;
156.9000;0.1416;8.8834;
157.2000;0.1376;8.8714;
157.5000;0.1368;8.8666;
157.8000;0.1351;8.8642;
158.1000;0.1425;8.8858;
158.4000;0.1384;8.8714;
158.7000;0.1359;8.8666;
159.0000;0.1368;8.8618;
159.3000;0.1368;8.8618;
159.6000;0.1384;8.8690;
159.9000;0.1376;8.8618;
160.2000;0.1368;8.8666;
160.5000;0.1376;8.8666;
160.8000;0.1400;8.8714;
161.1000;0.1392;8.8690;
161.4000;0.1368;8.8666;
161.7000;0.1376;8.8738;
162.0000;0.1384;8.8762;
162.3000;0.1392;8.8858;
162.6000;0.1343;8.8762;
162.9000;0.1368;8.8834;
163.2000;0.1368;8.8738;
163.5000;0.1425;8.8786;
163.8000;0.1392;8.8642;
164.1000;0.1327;8.8594;
164.4000;0.1392;8.8786;
164.7000;0.1376;8.8714;
165.0000;0.1384;8.8690;
165.3000;0.1376;8.8642;
165.6000;0.1392;8.8762;
165.9000;0.1384;8.8810;
166.2000;0.1368;8.8810;
166.5000;0.1359;8.8810;
166.8000;0.1384;8.8834;
167.1000;0.1376;8.8786;
167.4000;0.1376;8.8762;
167.7000;0.1376;8.8666;
168.0000;0.1392;8.8690;
168.3000;0.1384;8.8618;
168.6000;0.1384;8.8642;
168.9000;0.1376;8.8642;
169.2000;0.1376;8.8738;
169.5000;0.1392;8.8786;
169.8000;0.1400;8.8810;
170.1000;0.1392;8.8762;
170.4000;0.1376;8.8714;
170.7000;0.1400;8.8666;
171.0000;0.1368;8.8594;
171.3000;0.1392;8.8594;
171.6000;0.1359;8.8474;
171.9000;0.1368;8.8546;
172.2000;0.1384;8.8522;
172.5000;0.1376;8.8427;
172.8000;0.1376;8.8427;
173.1000;0.1351;8.8450;
173.4000;0.1384;8.8427;
173.7000;0.1376;8.8427;
174.0000;0.1384;8.8474;
174.3000;0.1376;8.8498;
174.6000;0.1368;8.8522;
174.9000;0.1392;8.8618;
175.2000;0.1400;8.8642;
175.5000;0.1368;8.8570;
175.8000;0.1384;8.8570;
176.1000;0.1384;8.8546;
176.4000;0.1392;8.8618;
176.7000;0.1376;8.8570;
177.0000;0.1376;8.8522;
177.3000;0.1392;8.8618;
177.6000;0.1392;8.8522;
177.9000;0.1368;8.8450;
178.2000;0.1319;8.8331;
178.5000;0.1376;8.8427;
178.8000;0.1376;8.8474;
179.1000;0.1384;8.8403;
179.4000;0.1384;8.8450;
179.7000;0.1384;8.8570;
180.0000;0.1392;8.8618;
180.3000;0.1368;8.8546;
180.6000;0.1368;8.8570;
180.9000;0.1376;8.8618;
181.2000;0.1433;8.8810;
181.5000;0.1376;8.8786;
181.8000;0.1376;8.8762;
182.1000;0.1392;8.8738;
182.4000;0.1392;8.8762;
182.7000;0.1359;8.8714;
183.0000;0.1384;8.8738;
183.3000;0.1376;8.8810;
183.6000;0.1359;8.8690;
183.9000;0.1384;8.8714;
184.2000;0.1327;8.8546;
184.5000;0.1368;8.8666;
184.8000;0.1392;8.8810;
185.1000;0.1392;8.8810;
185.4000;0.1368;8.8714;
185.7000;0.1376;8.8810;
186.0000;0.1368;8.8810;
186.3000;0.1384;8.8786;
186.6000;0.1376;8.8690;
186.9000;0.1376;8.8666;
187.2000;0.1368;8.8618;
187.5000;0.1376;8.8642;
187.8000;0.1384;8.8690;
188.1000;0.1392;8.8690;
188.4000;0.1368;8.8642;
188.7000;0.1376;8.8642;
189.0000;0.1376;8.8642;
189.3000;0.1376;8.8690;
189.6000;0.1294;8.8570;
189.9000;0.1376;8.8714;
190.2000;0.1384;8.8762;
190.5000;0.1359;8.8666;
190.8000;0.1465;8.8978;
191.1000;0.1351;8.8738;
191.4000;0.1384;8.8786;
191.7000;0.1457;8.9074;
192.0000;0.1351;8.8834;
192.3000;0.1368;8.8858;
192.6000;0.1327;8.8690;
192.9000;0.1384;8.8786;
193.2000;0.1376;8.8714;
193.5000;0.1392;8.8714;
193.8000;0.1368;8.8690;
194.1000;0.1368;8.8666;
194.4000;0.1368;8.8618;
194.7000;0.1376;8.8690;
195.0000;0.1368;8.8738;
195.3000;0.1384;8.8762;
195.6000;0.1384;8.8714;
195.9000;0.1376;8.8618;
196.2000;0.1368;8.8642;
196.5000;0.1425;8.8714;
196.8000;0.1343;8.8642;
197.1000;0.1376;8.8690;
197.4000;0.1368;8.8666;
197.7000;0.1433;8.8810;
198.0000;0.1376;8.8666;
198.3000;0.1384;8.8666;
198.6000;0.1343;8.8498;
198.9000;0.1441;8.8714;
199.2000;0.1408;8.8642;
199.5000;0.1400;8.8618;
199.8000;0.1351;8.8570;
200.1000;0.1368;8.8522;
200.4000;0.1351;8.8403;
200.7000;0.1376;8.8498;
201.0000;0.1392;8.8450;
201.3000;0.1351;8.8403;
201.6000;0.1376;8.8522;
201.9000;0.1376;8.8498;
202.2000;0.1278;8.8331;
202.5000;0.1368;8.8570;
202.8000;0.1294;8.8450;
203.1000;0.1319;8.8498;
203.4000;0.1392;8.8594;
203.7000;0.1376;8.8498;
204.0000;0.1376;8.8450;
204.3000;0.1286;8.8235;
204.6000;0.1351;8.8474;
204.9000;0.1384;8.8498;
205.2000;0.1368;8.8570;
205.5000;0.1384;8.8594;
205.8000;0.1343;8.8450;
206.1000;0.1327;8.8427;
206.4000;0.1392;8.8594;
206.7000;0.1359;8.8594;
207.0000;0.1392;8.8666;
207.3000;0.1327;8.8522;
207.6000;0.1384;8.8522;
207.9000;0.1384;8.8474;
208.2000;0.1384;8.8522;
208.5000;0.1376;8.8474;
208.8000;0.1343;8.8474;
209.1000;0.1359;8.8498;
209.4000;0.1400;8.8594;
209.7000;0.1408;8.8522;
210.0000;0.1368;8.8474;
210.3000;0.1449;8.8714;
210.6000;0.1384;8.8690;
210.9000;0.1368;8.8594;
211.2000;0.1433;8.8810;
211.5000;0.1376;8.8666;
211.8000;0.1384;8.8618;
212.1000;0.1376;8.8594;
212.4000;0.1368;8.8546;
212.7000;0.1359;8.8522;
213.0000;0.1359;8.8546;
213.3000;0.1376;8.8522;
213.6000;0.1359;8.8474;
213.9000;0.1376;8.8546;
214.2000;0.1376;8.8546;
214.5000;0.1384;8.8594;
214.8000;0.1376;8.8618;
215.1000;0.1343;8.8522;
215.4000;0.1392;8.8594;
215.7000;0.1384;8.8594;
216.0000;0.1376;8.8642;
216.3000;0.1433;8.8858;
216.6000;0.1384;8.8786;
216.9000;0.1400;8.8882;
217.2000;0.1400;8.8786;
217.5000;0.1384;8.8786;
217.8000;0.1392;8.8834;
218.1000;0.1425;8.8954;
218.4000;0.1384;8.8930;
218.7000;0.1416;8.9098;
219.0000;0.1433;8.9026;
219.3000;0.1400;8.8930;
219.6000;0.1376;8.8858;
219.9000;0.1368;8.8738;
220.2000;0.1368;8.8714;
220.5000;0.1392;8.8618;
220.8000;0.1384;8.8666;
221.1000;0.1384;8.8714;
221.4000;0.1286;8.8498;
221.7000;0.1327;8.8570;
222.0000;0.1368;8.8618;
222.3000;0.1319;8.8546;
222.6000;0.1351;8.8594;
222.9000;0.1376;8.8666;
223.2000;0.1351;8.8522;
223.5000;0.1392;8.8570;
223.8000;0.1392;8.8570;
224.1000;0.1368;8.8522;
224.4000;0.1368;8.8594;
224.7000;0.1392;8.8618;
225.0000;0.1376;8.8522;
225.3000;0.1335;8.8403;
225.6000;0.1441;8.8714;
225.9000;0.1368;8.8714;
226.2000;0.1376;8.8762;
226.5000;0.1376;8.8714;
226.8000;0.1376;8.8690;
227.1000;0.1392;8.8690;
227.4000;0.1392;8.8618;
227.7000;0.1351;8.8522;
228.0000;0.1400;8.8498;
228.3000;0.1359;8.8450;
228.6000;0.1392;8.8546;
228.9000;0.1384;8.8522;
229.2000;0.1302;8.8355;
229.5000;0.1384;8.8546;
229.8000;0.1392;8.8594;
230.1000;0.1359;8.8570;
230.4000;0.1408;8.8714;
230.7000;0.1384;8.8618;
231.0000;0.1392;8.8690;
231.3000;0.1384;8.8786;
231.6000;0.1359;8.8786;
231.9000;0.1327;8.8594;
232.2000;0.1376;8.8762;
232.5000;0.1319;8.8618;
232.8000;0.1368;8.8714;
233.1000;0.1351;8.8666;
233.4000;0.1384;8.8738;
233.7000;0.1376;8.8642;
234.0000;0.1351;8.8498;
234.3000;0.1368;8.8570;
234.6000;0.1392;8.8618;
234.9000;0.1376;8.8546;
235.2000;0.1376;8.8474;
235.5000;0.1384;8.8594;
235.8000;0.1392;8.8594;
236.1000;0.1384;8.8570;
236.4000;0.1384;8.8474;
236.7000;0.1384;8.8450;
237.0000;0.1384;8.8379;
237.3000;0.1392;8.8498;
237.6000;0.1400;8.8474;
237.9000;0.1368;8.8450;
238.2000;0.1376;8.8522;
238.5000;0.1368;8.8522;
238.8000;0.1376;8.8546;
239.1000;0.1359;8.8498;
239.4000;0.1351;8.8594;
239.7000;0.1368;8.8642;
240.0000;0.1384;8.8618;
240.3000;0.1376;8.8570;
240.6000;0.1384;8.8594;
240.9000;0.1400;8.8618;
241.2000;0.1376;8.8570;
241.5000;0.1376;8.8570;
241.8000;0.1384;8.8666;
242.1000;0.1400;8.8714;
242.4000;0.1457;8.8882;
242.7000;0.1392;8.8786;
243.0000;0.1433;8.8834;
243.3000;0.1392;8.8810;
243.6000;0.1400;8.8810;
243.9000;0.1416;8.8858;
244.2000;0.1384;8.8906;
244.5000;0.1335;8.8786;
244.8000;0.1392;8.8834;
245.1000;0.1392;8.8786;
245.4000;0.1425;8.8810;
245.7000;0.1400;8.8762;
246.0000;0.1384;8.8714;
246.3000;0.1384;8.8714;
246.6000;0.1392;8.8834;
246.9000;0.1441;8.8882;
247.2000;0.1376;8.8690;
247.5000;0.1400;8.8714;
247.8000;0.1359;8.8618;
248.1000;0.1384;8.8618;
248.4000;0.1376;8.8690;
248.7000;0.1384;8.8714;
249.0000;0.1278;8.8594;
249.3000;0.1376;8.8714;
249.6000;0.1368;8.8690;
249.9000;0.1368;8.8642;
250.2000;0.1376;8.8738;
250.5000;0.1376;8.8738;
250.8000;0.1359;8.8618;
251.1000;0.1368;8.8570;
251.4000;0.1359;8.8522;
251.7000;0.1376;8.8522;
252.0000;0.1368;8.8450;
252.3000;0.1400;8.8594;
252.6000;0.1368;8.8594;
252.9000;0.1368;8.8570;
253.2000;0.1384;8.8570;
253.5000;0.1408;8.8618;
253.8000;0.1384;8.8570;
254.1000;0.1392;8.8594;
254.4000;0.1376;8.8642;
254.7000;0.1384;8.8666;
255.0000;0.1384;8.8642;
255.3000;0.1376;8.8618;
255.6000;0.1343;8.8594;
255.9000;0.1400;8.8786;
256.2000;0.1384;8.8762;
256.5000;0.1384;8.8714;
256.8000;0.1392;8.8858;
257.1000;0.1359;8.8834;
257.4000;0.1359;8.8786;
257.7000;0.1392;8.8810;
258.0000;0.1392;8.8738;
258.3000;0.1368;8.8786;
258.6000;0.1392;8.8786;
258.9000;0.1392;8.8786;
259.2000;0.1376;8.8594;
259.5000;0.1319;8.8474;
259.8000;0.1376;8.8618;
260.1000;0.1327;8.8522;
260.4000;0.1351;8.8642;
260.7000;0.1368;8.8714;
261.0000;0.1359;8.8762;
261.3000;0.1384;8.8786;
261.6000;0.1376;8.8762;
261.9000;0.1392;8.8738;
262.2000;0.1384;8.8738;
262.5000;0.1384;8.8714;
262.8000;0.1392;8.8810;
263.1000;0.1376;8.8786;
263.4000;0.1368;8.8786;
263.7000;0.1392;8.8762;
264.0000;0.1368;8.8714;
264.3000;0.1400;8.8834;
264.6000;0.1400;8.8738;
264.9000;0.1368;8.8690;
265.2000;0.1384;8.8762;
265.5000;0.1384;8.8810;
265.8000;0.1384;8.8738;
266.1000;0.1368;8.8738;
266.4000;0.1376;8.8786;
266.7000;0.1392;8.8786;
267.0000;0.1368;8.8690;
267.3000;0.1376;8.8762;
267.6000;0.1392;8.8954;
267.9000;0.1384;8.8978;
268.2000;0.1400;8.9026;
268.5000;0.1392;8.8906;
268.8000;0.1392;8.9002;
269.1000;0.1376;8.8906;
269.4000;0.1400;8.8882;
269.7000;0.1376;8.8834;
270.0000;0.1376;8.8930;
270.3000;0.1368;8.8906;
270.6000;0.1368;8.8930;
270.9000;0.1335;8.8762;
271.2000;0.1384;8.8882;
271.5000;0.1376;8.8834;
271.8000;0.1384;8.8858;
272.1000;0.1368;8.8762;
272.4000;0.1376;8.8834;
272.7000;0.1376;8.8882;
273.0000;0.1351;8.8858;
273.3000;0.1368;8.8786;
273.6000;0.1376;8.8810;
273.9000;0.1408;8.8882;
274.2000;0.1368;8.8786;
274.5000;0.1302;8.8594;
274.8000;0.1368;8.8762;
275.1000;0.1359;8.8762;
275.4000;0.1368;8.8786;
275.7000;0.1376;8.8738;
276.0000;0.1376;8.8690;
276.3000;0.1384;8.8714;
276.6000;0.1392;8.8714;
276.9000;0.1392;8.8714;
277.2000;0.1368;8.8642;
277.5000;0.1376;8.8666;
277.8000;0.1384;8.8714;
278.1000;0.1376;8.8642;
278.4000;0.1368;8.8594;
278.7000;0.1368;8.8570;
279.0000;0.1368;8.8594;
279.3000;0.1368;8.8570;
279.6000;0.1359;8.8450;
279.9000;0.1368;8.8403;
280.2000;0.1359;8.8403;
280.5000;0.1400;8.8546;
280.8000;0.1384;8.8474;
281.1000;0.1376;8.8427;
281.4000;0.1392;8.8450;
281.7000;0.1392;8.8570;
282.0000;0.1400;8.8522;
282.3000;0.1384;8.8570;
282.6000;0.1384;8.8570;
282.9000;0.1384;8.8498;
283.2000;0.1400;8.8666;
283.5000;0.1384;8.8666;
283.8000;0.1359;8.8618;
284.1000;0.1392;8.8714;
284.4000;0.1392;8.8714;
284.7000;0.1384;8.8762;
285.0000;0.1376;8.8834;
285.3000;0.1376;8.8810;
285.6000;0.1368;8.8786;
285.9000;0.1359;8.8762;
286.2000;0.1368;8.8690;
286.5000;0.1359;8.8762;
286.8000;0.1384;8.8738;
287.1000;0.1376;8.8666;
287.4000;0.1384;8.8786;
287.7000;0.1359;8.8762;
288.0000;0.1408;8.8882;
288.3000;0.1384;8.8858;
288.6000;0.1359;8.8738;
288.9000;0.1384;8.8858;
289.2000;0.1359;8.8810;
289.5000;0.1433;8.8906;
289.8000;0.1368;8.8810;
290.1000;0.1376;8.8762;
290.4000;0.1376;8.8642;
290.7000;0.1384;8.8762;
291.0000;0.1400;8.8834;
291.3000;0.1368;8.8738;
291.6000;0.1384;8.8738;
291.9000;0.1392;8.8690;
292.2000;0.1392;8.8666;
292.5000;0.1368;8.8642;
292.8000;0.1376;8.8618;
293.1000;0.1392;8.8690;
293.4000;0.1384;8.8642;
293.7000;0.1368;8.8594;
294.0000;0.1351;8.8738;
294.3000;0.1368;8.8810;
294.6000;0.1376;8.8762;
294.9000;0.1376;8.8690;
295.2000;0.1359;8.8690;
295.5000;0.1368;8.8666;
295.8000;0.1384;8.8738;
296.1000;0.1376;8.8714;
296.4000;0.1376;8.8714;
296.7000;0.1392;8.8810;
297.0000;0.1392;8.8762;
297.3000;0.1384;8.8786;
297.6000;0.1376;8.8714;
297.9000;0.1376;8.8690;
298.2000;0.1384;8.8762;
298.5000;0.1384;8.8810;
298.8000;0.1368;8.8762;
299.1000;0.1359;8.8738;
299.4000;0.1384;8.8738;
299.7000;0.1376;8.8714;
300.0000;0.1359;8.8714;
300.3000;0.1384;8.8786;
300.6000;0.1384;8.8834;
300.9000;0.1392;8.8786;
301.2000;0.1384;8.8714;
301.5000;0.1343;8.8666;
301.8000;0.1376;8.8786;
302.1000;0.1384;8.8834;
302.4000;0.1376;8.8882;
302.7000;0.1376;8.8858;
303.0000;0.1376;8.8906;
303.3000;0.1384;8.8834;
303.6000;0.1384;8.8834;
303.9000;0.1368;8.8762;
304.2000;0.1368;8.8786;
304.5000;0.1384;8.8762;
304.8000;0.1416;8.8930;
305.1000;0.1384;8.8930;
305.4000;0.1351;8.8834;
305.7000;0.1376;8.8906;
306.0000;0.1359;8.8978;
306.3000;0.1359;8.8954;
306.6000;0.1359;8.8906;
306.9000;0.1368;8.8906;
307.2000;0.1376;8.8858;
307.5000;0.1351;8.8858;
307.8000;0.1392;8.8978;
308.1000;0.1335;8.8882;
308.4000;0.1416;8.9074;
308.7000;0.1384;8.9002;
309.0000;0.1359;8.8930;
309.3000;0.1376;8.8858;
309.6000;0.1254;8.8450;
309.9000;0.1376;8.8738;
310.2000;0.1408;8.8858;
310.5000;0.1359;8.8786;
310.8000;0.1311;8.8570;
311.1000;0.1376;8.8714;
311.4000;0.1376;8.8786;
311.7000;0.1392;8.8834;
312.0000;0.1392;8.8810;
312.3000;0.1384;8.8714;
312.6000;0.1359;8.8618;
312.9000;0.1302;8.8498;
313.2000;0.1368;8.8786;
313.5000;0.1368;8.8810;
313.8000;0.1416;8.8858;
314.1000;0.1392;8.8858;
314.4000;0.1400;8.8882;
314.7000;0.1359;8.8714;
315.0000;0.1343;8.8714;
315.3000;0.1351;8.8714;
315.6000;0.1384;8.8690;
315.9000;0.1368;8.8618;
316.2000;0.1376;8.8738;
316.5000;0.1376;8.8786;
316.8000;0.1384;8.8762;
317.1000;0.1392;8.8810;
317.4000;0.1368;8.8810;
317.7000;0.1425;8.8882;
318.0000;0.1368;8.8714;
318.3000;0.1368;8.8714;
318.6000;0.1384;8.8738;
318.9000;0.1327;8.8546;
319.2000;0.1384;8.8714;
319.5000;0.1368;8.8690;
319.8000;0.1376;8.8810;
320.1000;0.1376;8.8834;
320.4000;0.1392;8.8882;
320.7000;0.1433;8.9002;
321.0000;0.1359;8.8834;
321.3000;0.1376;8.8858;
321.6000;0.1416;8.8954;
321.9000;0.1335;8.8714;
322.2000;0.1425;8.8978;
322.5000;0.1384;8.8858;
322.8000;0.1351;8.8762;
323.1000;0.1376;8.8738;
323.4000;0.1368;8.8738;
323.7000;0.1408;8.8762;
324.0000;0.1408;8.8666;
324.3000;0.1359;8.8498;
324.6000;0.1376;8.8427;
324.9000;0.1392;8.8522;
325.2000;0.1425;8.8642;
325.5000;0.1327;8.8427;
325.8000;0.1376;8.8474;
326.1000;0.1392;8.8522;
326.4000;0.1351;8.8522;
326.7000;0.1343;8.8427;
327.0000;0.1319;8.8450;
327.3000;0.1384;8.8618;
327.6000;0.1449;8.8834;
327.9000;0.1368;8.8714;
328.2000;0.1368;8.8762;
328.5000;0.1384;8.8738;
328.8000;0.1368;8.8714;
329.1000;0.1376;8.8786;
329.4000;0.1302;8.8570;
329.7000;0.1351;8.8594;
330.0000;0.1368;8.8546;
330.3000;0.1416;8.8690;
330.6000;0.1400;8.8666;
330.9000;0.1368;8.8642;
331.2000;0.1359;8.8642;
331.5000;0.1416;8.8786;
331.8000;0.1376;8.8738;
332.1000;0.1416;8.8786;
332.4000;0.1376;8.8642;
332.7000;0.1359;8.8642;
333.0000;0.1302;8.8570;
333.3000;0.1376;8.8810;
333.6000;0.1408;8.8858;
333.9000;0.1368;8.8786;
334.2000;0.1359;8.8690;
334.5000;0.1368;8.8666;
334.8000;0.1425;8.8738;
335.1000;0.1327;8.8498;
335.4000;0.1433;8.8786;
335.7000;0.1368;8.8690;
336.0000;0.1351;8.8666;
336.3000;0.1376;8.8714;
336.6000;0.1392;8.8666;
336.9000;0.1376;8.8666;
337.2000;0.1351;8.8666;
337.5000;0.1376;8.8786;
337.8000;0.1400;8.8858;
338.1000;0.1416;8.8858;
338.4000;0.1425;8.8858;
338.7000;0.1359;8.8786;
339.0000;0.1278;8.8498;
339.3000;0.1416;8.8834;
339.6000;0.1376;8.8810;
339.9000;0.1384;8.8930;
340.2000;0.1376;8.8882;
340.5000;0.1376;8.8834;
340.8000;0.1384;8.8786;
341.1000;0.1384;8.8738;
341.4000;0.1392;8.8786;
341.7000;0.1384;8.8786;
342.0000;0.1335;8.8666;
342.3000;0.1392;8.8666;
342.6000;0.1376;8.8666;
342.9000;0.1416;8.8810;
343.2000;0.1392;8.8690;
343.5000;0.1368;8.8690;
343.8000;0.1384;8.8738;
344.1000;0.1392;8.8738;
344.4000;0.1400;8.8738;
344.7000;0.1359;8.8666;
345.0000;0.1392;8.8690;
345.3000;0.1384;8.8714;
345.6000;0.1368;8.8690;
345.9000;0.1384;8.8714;
346.2000;0.1392;8.8714;
346.5000;0.1384;8.8666;
346.8000;0.1376;8.8642;
347.1000;0.1392;8.8690;
347.4000;0.1368;8.8690;
347.7000;0.1433;8.8858;
348.0000;0.1457;8.8930;
348.3000;0.1343;8.8690;
348.6000;0.1384;8.8762;
348.9000;0.1384;8.8834;
349.2000;0.1481;8.9121;
349.5000;0.1376;8.8882;
349.8000;0.1359;8.8858;
350.1000;0.1392;8.8978;
350.4000;0.1327;8.8834;
350.7000;0.1359;8.8978;
351.0000;0.1392;8.9050;
351.3000;0.1384;8.9074;
351.6000;0.1359;8.8954;
351.9000;0.1376;8.8930;
352.2000;0.1376;8.8858;
352.5000;0.1359;8.8666;
352.8000;0.1392;8.8810;
353.1000;0.1400;8.8882;
353.4000;0.1351;8.8810;
353.7000;0.1392;8.8834;
354.0000;0.1392;8.8834;
354.3000;0.1368;8.8786;
354.6000;0.1384;8.8858;
354.9000;0.1351;8.8834;
355.2000;0.1351;8.8858;
355.5000;0.1384;8.8882;
355.8000;0.1384;8.8834;
356.1000;0.1465;8.9050;
356.4000;0.1376;8.8906;
356.7000;0.1359;8.8930;
357.0000;0.1368;8.9026;
357.3000;0.1359;8.9002;
357.6000;0.1376;8.9002;
357.9000;0.1384;8.9074;
358.2000;0.1400;8.9098;
358.5000;0.1335;8.9050;
358.8000;0.1400;8.9169;
359.1000;0.1416;8.9121;
359.4000;0.1441;8.9193;
359.7000;0.1351;8.8978;
360.0000;0.1359;8.8954;
360.3000;0.1384;8.8930;
360.6000;0.1359;8.8762;
360.9000;0.1376;8.8810;
361.2000;0.1368;8.8882;
361.5000;0.1384;8.8954;
361.8000;0.1368;8.8930;
362.1000;0.1376;8.9002;
362.4000;0.1368;8.8906;
362.7000;0.1384;8.8858;
363.0000;0.1376;8.8882;
363.3000;0.1384;8.8858;
363.6000;0.1392;8.8906;
363.9000;0.1327;8.8738;
364.2000;0.1384;8.8882;
364.5000;0.1392;8.8858;
364.8000;0.1392;8.8882;
365.1000;0.1392;8.8930;
365.4000;0.1400;8.8930;
365.7000;0.1408;8.8978;
366.0000;0.1376;8.8834;
366.3000;0.1384;8.8906;
366.6000;0.1376;8.8858;
366.9000;0.1368;8.8834;
367.2000;0.1376;8.8930;
367.5000;0.1351;8.8906;
367.8000;0.1368;8.8906;
368.1000;0.1376;8.8978;
368.4000;0.1384;8.8978;
368.7000;0.1376;8.8906;
369.0000;0.1376;8.8978;
369.3000;0.1392;8.9074;
369.6000;0.1351;8.9002;
369.9000;0.1384;8.9026;
370.2000;0.1376;8.9026;
370.5000;0.1384;8.9026;
370.8000;0.1368;8.9026;
371.1000;0.1384;8.9098;
371.4000;0.1368;8.9002;
371.7000;0.1384;8.8906;
372.0000;0.1433;8.9002;
372.3000;0.1359;8.8882;
372.6000;0.1368;8.8954;
372.9000;0.1384;8.9002;
373.2000;0.1351;8.8906;
373.5000;0.1384;8.8930;
373.8000;0.1368;8.8930;
374.1000;0.1392;8.8834;
374.4000;0.1368;8.8810;
374.7000;0.1384;8.8930;
375.0000;0.1384;8.8930;
375.3000;0.1376;8.8978;
375.6000;0.1368;8.8906;
375.9000;0.1400;8.8954;
376.2000;0.1368;8.8882;
376.5000;0.1376;8.8906;
376.8000;0.1359;8.8882;
377.1000;0.1376;8.9002;
377.4000;0.1384;8.9074;
377.7000;0.1376;8.9050;
378.0000;0.1384;8.9121;
378.3000;0.1368;8.9050;
378.6000;0.1384;8.8954;
378.9000;0.1392;8.8978;
379.2000;0.1384;8.9026;
379.5000;0.1392;8.9050;
379.8000;0.1400;8.9074;
380.1000;0.1400;8.9074;
380.4000;0.1392;8.9050;
380.7000;0.1384;8.9026;
381.0000;0.1392;8.8930;
381.3000;0.1376;8.8858;
381.6000;0.1384;8.8834;
381.9000;0.1376;8.8690;
382.2000;0.1384;8.8570;
382.5000;0.1384;8.8546;
382.8000;0.1392;8.8570;
383.1000;0.1368;8.8570;
383.4000;0.1384;8.8642;
383.7000;0.1384;8.8618;
384.0000;0.1392;8.8618;
384.3000;0.1400;8.8594;
384.6000;0.1376;8.8570;
384.9000;0.1384;8.8570;
385.2000;0.1368;8.8594;
385.5000;0.1368;8.8642;
385.8000;0.1384;8.8666;
386.1000;0.1384;8.8738;
386.4000;0.1359;8.8690;
386.7000;0.1359;8.8714;
387.0000;0.1359;8.8714;
387.3000;0.1368;8.8786;
387.6000;0.1384;8.8786;
387.9000;0.1376;8.8786;
388.2000;0.1294;8.8522;
388.5000;0.1384;8.8810;
388.8000;0.1384;8.8786;
389.1000;0.1376;8.8834;
389.4000;0.1376;8.8882;
389.7000;0.1359;8.8930;
390.0000;0.1384;8.8906;
390.3000;0.1376;8.8786;
390.6000;0.1368;8.8786;
390.9000;0.1376;8.8858;
391.2000;0.1368;8.8810;
391.5000;0.1368;8.8810;
391.8000;0.1359;8.8882;
392.1000;0.1376;8.8882;
392.4000;0.1376;8.8858;
392.7000;0.1376;8.8882;
393.0000;0.1335;8.8690;
393.3000;0.1384;8.8882;
393.6000;0.1400;8.8858;
393.9000;0.1384;8.8882;
394.2000;0.1392;8.8930;
394.5000;0.1368;8.8834;
394.8000;0.1384;8.8810;
395.1000;0.1376;8.8762;
395.4000;0.1368;8.8738;
395.7000;0.1368;8.8714;
396.0000;0.1359;8.8618;
396.3000;0.1368;8.8738;
396.6000;0.1433;8.8906;
396.9000;0.1351;8.8786;
397.2000;0.1376;8.8762;
397.5000;0.1384;8.8690;
397.8000;0.1400;8.8714;
398.1000;0.1368;8.8714;
398.4000;0.1368;8.8642;
398.7000;0.1384;8.8690;
399.0000;0.1302;8.8427;
399.3000;0.1376;8.8522;
399.6000;0.1384;8.8522;
399.9000;0.1400;8.8642;
400.2000;0.1408;8.8666;
400.5000;0.1376;8.8594;
400.8000;0.1376;8.8642;
401.1000;0.1384;8.8714;
401.4000;0.1384;8.8786;
401.7000;0.1376;8.8834;
402.0000;0.1343;8.8762;
402.3000;0.1368;8.8714;
402.6000;0.1359;8.8642;
402.9000;0.1416;8.8738;
403.2000;0.1368;8.8690;
403.5000;0.1376;8.8666;
403.8000;0.1441;8.8762;
404.1000;0.1368;8.8666;
404.4000;0.1392;8.8786;
404.7000;0.1400;8.8810;
405.0000;0.1376;8.8762;
405.3000;0.1384;8.8810;
405.6000;0.1359;8.8810;
405.9000;0.1441;8.8930;
406.2000;0.1376;8.8738;
406.5000;0.1368;8.8834;
406.8000;0.1376;8.8882;
407.1000;0.1359;8.8834;
407.4000;0.1359;8.8714;
407.7000;0.1368;8.8714;
408.0000;0.1376;8.8714;
408.3000;0.1368;8.8594;
408.6000;0.1376;8.8642;
408.9000;0.1376;8.8666;
409.2000;0.1368;8.8546;
409.5000;0.1368;8.8522;
409.8000;0.1376;8.8570;
410.1000;0.1368;8.8618;
410.4000;0.1376;8.8618;
410.7000;0.1368;8.8642;
411.0000;0.1376;8.8618;
411.3000;0.1368;8.8666;
411.6000;0.1368;8.8690;
411.9000;0.1351;8.8666;
412.2000;0.1359;8.8570;
412.5000;0.1376;8.8522;
412.8000;0.1368;8.8498;
413.1000;0.1359;8.8474;
413.4000;0.1359;8.8546;
413.7000;0.1368;8.8618;
414.0000;0.1351;8.8570;
414.3000;0.1376;8.8690;
414.6000;0.1376;8.8642;
414.9000;0.1376;8.8642;
415.2000;0.1384;8.8618;
415.5000;0.1441;8.8786;
415.8000;0.1368;8.8642;
416.1000;0.1327;8.8570;
416.4000;0.1368;8.8714;
416.7000;0.1376;8.8786;
417.0000;0.1376;8.8834;
417.3000;0.1376;8.8714;
417.6000;0.1368;8.8762;
417.9000;0.1376;8.8858;
418.2000;0.1368;8.8906;
418.5000;0.1376;8.8906;
418.8000;0.1368;8.8930;
419.1000;0.1376;8.8978;
419.4000;0.1302;8.8738;
419.7000;0.1368;8.8834;
420.0000;0.1376;8.8786;
420.3000;0.1359;8.8786;
420.6000;0.1384;8.8834;
420.9000;0.1359;8.8738;
421.2000;0.1359;8.8762;
421.5000;0.1368;8.8714;
421.8000;0.1368;8.8786;
422.1000;0.1441;8.8930;
422.4000;0.1368;8.8762;
422.7000;0.1376;8.8666;
423.0000;0.1368;8.8690;
423.3000;0.1384;8.8762;
423.6000;0.1376;8.8810;
423.9000;0.1368;8.8738;
424.2000;0.1392;8.8786;
424.5000;0.1392;8.8666;
424.8000;0.1343;8.8498;
425.1000;0.1376;8.8570;
425.4000;0.1384;8.8618;
425.7000;0.1384;8.8690;
426.0000;0.1384;8.8810;
426.3000;0.1359;8.8762;
426.6000;0.1384;8.8738;
426.9000;0.1351;8.8690;
427.2000;0.1368;8.8690;
427.5000;0.1376;8.8618;
427.8000;0.1376;8.8522;
428.1000;0.1319;8.8474;
428.4000;0.1384;8.8594;
428.7000;0.1343;8.8522;
429.0000;0.1368;8.8618;
429.3000;0.1368;8.8642;
429.6000;0.1368;8.8714;
429.9000;0.1392;8.8882;
430.2000;0.1368;8.8786;
430.5000;0.1392;8.8786;
430.8000;0.1376;8.8714;
431.1000;0.1335;8.8618;
431.4000;0.1416;8.8858;
431.7000;0.1384;8.8762;
432.0000;0.1392;8.8714;
432.3000;0.1343;8.8690;
432.6000;0.1327;8.8618;
432.9000;0.1392;8.8834;
433.2000;0.1376;8.8882;
433.5000;0.1384;8.8882;
433.8000;0.1392;8.8882;
434.1000;0.1416;8.8858;
434.4000;0.1392;8.8810;
434.7000;0.1311;8.8618;
435.0000;0.1376;8.8834;
435.3000;0.1368;8.8786;
435.6000;0.1368;8.8786;
435.9000;0.1376;8.8786;
436.2000;0.1359;8.8714;
436.5000;0.1384;8.8738;
436.8000;0.1359;8.8738;
437.1000;0.1400;8.8810;
437.4000;0.1294;8.8570;
437.7000;0.1335;8.8642;
438.0000;0.1392;8.8786;
438.3000;0.1416;8.8858;
438.6000;0.1359;8.8834;
438.9000;0.1376;8.8786;
439.2000;0.1359;8.8762;
439.5000;0.1376;8.8810;
439.8000;0.1384;8.8810;
440.1000;0.1368;8.8714;
440.4000;0.1368;8.8642;
440.7000;0.1392;8.8738;
441.0000;0.1359;8.8690;
441.3000;0.1376;8.8642;
441.6000;0.1343;8.8522;
441.9000;0.1359;8.8594;
442.2000;0.1384;8.8714;
442.5000;0.1351;8.8618;
442.8000;0.1392;8.8786;
443.1000;0.1392;8.8810;
443.4000;0.1473;8.9098;
443.7000;0.1335;8.8738;
444.0000;0.1376;8.8906;
444.3000;0.1416;8.8954;
444.6000;0.1359;8.8786;
444.9000;0.1392;8.8906;
445.2000;0.1400;8.8858;
445.5000;0.1392;8.8786;
445.8000;0.1416;8.8858;
446.1000;0.1392;8.8882;
446.4000;0.1359;8.8786;
446.7000;0.1359;8.8714;
447.0000;0.1400;8.8762;
447.3000;0.1359;8.8762;
447.6000;0.1368;8.8762;
447.9000;0.1368;8.8786;
448.2000;0.1368;8.8738;
448.5000;0.1384;8.8690;
448.8000;0.1302;8.8522;
449.1000;0.1368;8.8690;
449.4000;0.1384;8.8666;
449.7000;0.1351;8.8498;
450.0000;0.1408;8.8714;
450.3000;0.1368;8.8522;
450.6000;0.1384;8.8474;
450.9000;0.1327;8.8355;
451.2000;0.1400;8.8594;
451.5000;0.1368;8.8522;
451.8000;0.1400;8.8594;
452.1000;0.1376;8.8522;
452.4000;0.1351;8.8570;
452.7000;0.1368;8.8666;
453.0000;0.1384;8.8714;
453.3000;0.1368;8.8786;
453.6000;0.1416;8.8978;
453.9000;0.1368;8.8906;
454.2000;0.1368;8.8858;
454.5000;0.1392;8.8882;
454.8000;0.1368;8.8906;
455.1000;0.1408;8.8954;
455.4000;0.1376;8.8810;
455.7000;0.1376;8.8882;
456.0000;0.1376;8.8954;
456.3000;0.1416;8.9026;
456.6000;0.1368;8.8858;
456.9000;0.1327;8.8738;
457.2000;0.1425;8.8882;
457.5000;0.1368;8.8762;
457.8000;0.1335;8.8618;
458.1000;0.1376;8.8762;
458.4000;0.1384;8.8762;
458.7000;0.1441;8.8834;
459.0000;0.1368;8.8690;
459.3000;0.1368;8.8714;
459.6000;0.1368;8.8666;
459.9000;0.1384;8.8738;
460.2000;0.1384;8.8690;
460.5000;0.1384;8.8690;
460.8000;0.1376;8.8618;
461.1000;0.1416;8.8786;
461.4000;0.1384;8.8714;
461.7000;0.1376;8.8690;
462.0000;0.1376;8.8666;
462.3000;0.1384;8.8690;
462.6000;0.1351;8.8714;
462.9000;0.1376;8.8810;
463.2000;0.1376;8.8834;
463.5000;0.1384;8.8834;
463.8000;0.1311;8.8594;
464.1000;0.1400;8.8834;
464.4000;0.1384;8.8786;
464.7000;0.1392;8.8714;
465.0000;0.1416;8.8690;
465.3000;0.1359;8.8594;
465.6000;0.1384;8.8714;
465.9000;0.1384;8.8618;
466.2000;0.1327;8.8546;
466.5000;0.1400;8.8738;
466.8000;0.1359;8.8762;
467.1000;0.1392;8.8810;
467.4000;0.1384;8.8786;
467.7000;0.1376;8.8834;
468.0000;0.1368;8.8834;
468.3000;0.1368;8.8858;
468.6000;0.1384;8.8954;
468.9000;0.1384;8.9002;
469.2000;0.1376;8.8978;
469.5000;0.1351;8.9026;
469.8000;0.1400;8.9121;
470.1000;0.1400;8.9121;
470.4000;0.1392;8.9026;
470.7000;0.1343;8.8858;
471.0000;0.1376;8.9002;
471.3000;0.1376;8.9002;
471.6000;0.1368;8.8930;
471.9000;0.1359;8.8834;
472.2000;0.1368;8.8714;
472.5000;0.1376;8.8786;
472.8000;0.1376;8.8762;
473.1000;0.1376;8.8762;
473.4000;0.1392;8.8858;
473.7000;0.1384;8.8858;
474.0000;0.1384;8.8930;
474.3000;0.1384;8.8858;
474.6000;0.1384;8.8906;
474.9000;0.1384;8.8930;
475.2000;0.1384;8.8930;
475.5000;0.1376;8.8930;
475.8000;0.1376;8.8834;
476.1000;0.1376;8.8810;
476.4000;0.1376;8.8834;
476.7000;0.1376;8.8690;
477.0000;0.1351;8.8642;
477.3000;0.1368;8.8642;
477.6000;0.1392;8.8618;
477.9000;0.1368;8.8642;
478.2000;0.1359;8.8642;
478.5000;0.1359;8.8618;
478.8000;0.1351;8.8642;
479.1000;0.1368;8.8690;
479.4000;0.1376;8.8714;
479.7000;0.1384;8.8738;
480.0000;0.1384;8.8714;
480.3000;0.1376;8.8690;
480.6000;0.1384;8.8714;
480.9000;0.1384;8.8690;
481.2000;0.1376;8.8762;
481.5000;0.1368;8.8810;
481.8000;0.1384;8.8882;
482.1000;0.1368;8.8762;
482.4000;0.1368;8.8762;
482.7000;0.1359;8.8762;
483.0000;0.1384;8.8858;
483.3000;0.1359;8.8786;
483.6000;0.1368;8.8858;
483.9000;0.1351;8.8810;
484.2000;0.1392;8.8882;
484.5000;0.1376;8.8786;
484.8000;0.1376;8.8858;
485.1000;0.1384;8.8810;
485.4000;0.1368;8.8834;
485.7000;0.1376;8.8810;
486.0000;0.1384;8.8978;
486.3000;0.1376;8.8954;
486.6000;0.1376;8.8882;
486.9000;0.1392;8.8858;
487.2000;0.1368;8.8786;
487.5000;0.1376;8.8882;
487.8000;0.1392;8.8882;
488.1000;0.1392;8.8762;
488.4000;0.1368;8.8762;
488.7000;0.1359;8.8810;
489.0000;0.1368;8.8834;
489.3000;0.1384;8.8930;
489.6000;0.1359;8.8906;
489.9000;0.1384;8.8930;
490.2000;0.1368;8.8858;
490.5000;0.1376;8.8978;
490.8000;0.1376;8.9002;
491.1000;0.1376;8.8954;
491.4000;0.1376;8.8906;
491.7000;0.1376;8.8954;
492.0000;0.1473;8.9145;
492.3000;0.1368;8.8882;
492.6000;0.1368;8.8930;
492.9000;0.1376;8.8954;
493.2000;0.1384;8.9002;
493.5000;0.1359;8.8882;
493.8000;0.1359;8.8930;
494.1000;0.1359;8.8906;
494.4000;0.1384;8.8978;
494.7000;0.1376;8.9002;
495.0000;0.1368;8.9002;
495.3000;0.1376;8.8954;
495.6000;0.1384;8.8906;
495.9000;0.1359;8.8858;
496.2000;0.1376;8.8882;
496.5000;0.1400;8.9002;
496.8000;0.1368;8.8882;
497.1000;0.1368;8.8930;
497.4000;0.1376;8.8954;
497.7000;0.1359;8.8930;
498.0000;0.1376;8.8978;
498.3000;0.1376;8.8954;
498.6000;0.1376;8.8906;
498.9000;0.1368;8.9002;
499.2000;0.1368;8.9002;
499.5000;0.1376;8.9026;
499.8000;0.1351;8.8954;
500.1000;0.1384;8.9026;
500.4000;0.1368;8.8906;
500.7000;0.1384;8.8858;
501.0000;0.1376;8.8858;
501.3000;0.1368;8.8858;
501.6000;0.1376;8.8834;
501.9000;0.1376;8.8786;
502.2000;0.1384;8.8690;
502.5000;0.1368;8.8618;
502.8000;0.1376;8.8570;
503.1000;0.1376;8.8618;
503.4000;0.1368;8.8690;
503.7000;0.1376;8.8690;
504.0000;0.1359;8.8714;
504.3000;0.1376;8.8786;
504.6000;0.1368;8.8690;
504.9000;0.1351;8.8714;
505.2000;0.1359;8.8810;
505.5000;0.1359;8.8810;
505.8000;0.1384;8.8882;
506.1000;0.1376;8.8834;
506.4000;0.1368;8.8786;
506.7000;0.1368;8.8810;
507.0000;0.1376;8.8930;
507.3000;0.1368;8.8882;
507.6000;0.1368;8.8930;
507.9000;0.1368;8.8858;
508.2000;0.1359;8.8906;
508.5000;0.1376;8.8930;
508.8000;0.1368;8.8834;
509.1000;0.1376;8.8762;
509.4000;0.1351;8.8642;
509.7000;0.1384;8.8570;
510.0000;0.1376;8.8642;
510.3000;0.1368;8.8690;
510.6000;0.1368;8.8690;
510.9000;0.1384;8.8642;
511.2000;0.1368;8.8642;
511.5000;0.1376;8.8738;
511.8000;0.1359;8.8714;
512.1000;0.1351;8.8666;
512.4000;0.1376;8.8690;
512.7000;0.1359;8.8666;
513.0000;0.1311;8.8570;
513.3000;0.1376;8.8690;
513.6000;0.1376;8.8714;
513.9000;0.1368;8.8714;
514.2000;0.1368;8.8762;
514.5000;0.1368;8.8762;
514.8000;0.1384;8.8858;
515.1000;0.1376;8.8858;
515.4000;0.1400;8.8906;
515.7000;0.1376;8.8834;
516.0000;0.1351;8.8714;
516.3000;0.1359;8.8810;
516.6000;0.1359;8.8834;
516.9000;0.1376;8.8786;
517.2000;0.1465;8.9026;
517.5000;0.1359;8.8786;
517.8000;0.1376;8.8738;
518.1000;0.1400;8.8762;
518.4000;0.1376;8.8714;
518.7000;0.1384;8.8786;
519.0000;0.1376;8.8858;
519.3000;0.1384;8.8858;
519.6000;0.1376;8.8882;
519.9000;0.1400;8.8978;
520.2000;0.1408;8.9050;
520.5000;0.1368;8.9002;
520.8000;0.1384;8.9098;
521.1000;0.1343;8.9026;
521.4000;0.1359;8.8882;
521.7000;0.1376;8.8906;
522.0000;0.1368;8.8882;
522.3000;0.1376;8.8930;
522.6000;0.1400;8.8906;
522.9000;0.1400;8.8930;
523.2000;0.1368;8.8858;
523.5000;0.1368;8.8858;
523.8000;0.1384;8.8882;
524.1000;0.1368;8.8858;
524.4000;0.1368;8.8858;
524.7000;0.1368;8.8954;
525.0000;0.1359;8.9002;
525.3000;0.1359;8.9002;
525.6000;0.1351;8.8882;
525.9000;0.1392;8.8978;
526.2000;0.1392;8.8954;
526.5000;0.1408;8.8906;
526.8000;0.1392;8.8882;
527.1000;0.1384;8.8882;
527.4000;0.1408;8.8906;
527.7000;0.1319;8.8738;
528.0000;0.1368;8.8954;
528.3000;0.1335;8.8906;
528.6000;0.1425;8.9074;
528.9000;0.1376;8.8978;
529.2000;0.1351;8.8978;
529.5000;0.1335;8.8930;
529.8000;0.1392;8.9098;
530.1000;0.1376;8.9145;
530.4000;0.1384;8.9050;
530.7000;0.1368;8.9026;
531.0000;0.1376;8.9050;
531.3000;0.1384;8.9145;
531.6000;0.1368;8.9121;
531.9000;0.1384;8.9169;
532.2000;0.1368;8.9098;
532.5000;0.1392;8.9050;
532.8000;0.1376;8.8954;
533.1000;0.1368;8.8954;
533.4000;0.1270;8.8642;
533.7000;0.1384;8.8930;
534.0000;0.1376;8.8906;
534.3000;0.1376;8.8810;
534.6000;0.1392;8.8834;
534.9000;0.1384;8.8906;
535.2000;0.1376;8.8978;
535.5000;0.1335;8.8906;
535.8000;0.1359;8.9002;
536.1000;0.1343;8.8954;
536.4000;0.1368;8.9050;
536.7000;0.1368;8.8930;
537.0000;0.1376;8.9026;
537.3000;0.1359;8.9050;
537.6000;0.1368;8.9002;
537.9000;0.1368;8.8930;
538.2000;0.1351;8.8906;
538.5000;0.1376;8.8930;
538.8000;0.1384;8.8906;
539.1000;0.1359;8.8810;
539.4000;0.1359;8.8810;
539.7000;0.1319;8.8786;
540.0000;0.1368;8.8930;
540.3000;0.1384;8.8954;
540.6000;0.1498;8.9145;
540.9000;0.1376;8.8882;
541.2000;0.1376;8.8882;
541.5000;0.1384;8.9002;
541.8000;0.1376;8.8954;
542.1000;0.1368;8.8834;
542.4000;0.1359;8.8858;
542.7000;0.1368;8.8930;
543.0000;0.1368;8.9002;
543.3000;0.1278;8.8786;
543.6000;0.1351;8.8930;
543.9000;0.1376;8.8930;
544.2000;0.1376;8.9002;
544.5000;0.1376;8.8954;
544.8000;0.1376;8.8930;
545.1000;0.1302;8.8762;
545.4000;0.1368;8.8930;
545.7000;0.1384;8.8930;
546.0000;0.1384;8.8930;
546.3000;0.1368;8.8906;
546.6000;0.1343;8.8810;
546.9000;0.1376;8.8882;
547.2000;0.1376;8.8978;
547.5000;0.1400;8.9002;
547.8000;0.1359;8.8954;
548.1000;0.1376;8.8954;
548.4000;0.1368;8.8906;
548.7000;0.1425;8.9169;
549.0000;0.1408;8.9217;
549.3000;0.1343;8.9026;
549.6000;0.1392;8.9145;
549.9000;0.1376;8.9026;
550.2000;0.1376;8.9002;
550.5000;0.1376;8.9026;
550.8000;0.1384;8.9002;
551.1000;0.1506;8.9337;
551.4000;0.1384;8.8978;
551.7000;0.1392;8.9050;
552.0000;0.1368;8.8978;
552.3000;0.1278;8.8690;
552.6000;0.1392;8.8978;
552.9000;0.1368;8.8882;
553.2000;0.1368;8.8858;
553.5000;0.1376;8.8858;
553.8000;0.1376;8.8882;
554.1000;0.1384;8.8978;
554.4000;0.1368;8.8978;
554.7000;0.1425;8.9145;
555.0000;0.1376;8.9026;
555.3000;0.1359;8.8978;
555.6000;0.1392;8.9026;
555.9000;0.1392;8.8906;
556.2000;0.1384;8.8978;
556.5000;0.1392;8.8978;
556.8000;0.1384;8.8930;
557.1000;0.1392;8.8906;
557.4000;0.1351;8.8858;
557.7000;0.1376;8.8930;
558.0000;0.1376;8.8882;
558.3000;0.1433;8.9002;
558.6000;0.1400;8.8882;
558.9000;0.1343;8.8738;
559.2000;0.1343;8.8834;
559.5000;0.1359;8.8906;
559.8000;0.1392;8.8954;
560.1000;0.1359;8.8978;
560.4000;0.1392;8.9050;
560.7000;0.1368;8.8978;
561.0000;0.1368;8.8954;
561.3000;0.1376;8.8834;
561.6000;0.1441;8.8930;
561.9000;0.1376;8.8930;
562.2000;0.1359;8.8882;
562.5000;0.1359;8.8810;
562.8000;0.1351;8.8834;
563.1000;0.1343;8.8882;
563.4000;0.1368;8.8930;
563.7000;0.1368;8.8882;
564.0000;0.1368;8.8882;
564.3000;0.1343;8.9050;
564.6000;0.1376;8.9002;
564.9000;0.1368;8.8786;
565.2000;0.1376;8.8810;
565.5000;0.1359;8.8834;
565.8000;0.1384;8.8858;
566.1000;0.1327;8.8666;
566.4000;0.1392;8.8762;
566.7000;0.1368;8.8810;
567.0000;0.1441;8.8978;
567.3000;0.1368;8.8858;
567.6000;0.1400;8.8810;
567.9000;0.1359;8.8786;
568.2000;0.1368;8.8738;
568.5000;0.1368;8.8858;
568.8000;0.1359;8.8834;
569.1000;0.1368;8.8786;
569.4000;0.1319;8.8666;
569.7000;0.1400;8.8858;
570.0000;0.1392;8.8810;
570.3000;0.1376;8.8834;
570.6000;0.1376;8.8834;
570.9000;0.1400;8.8906;
571.2000;0.1376;8.8954;
571.5000;0.1384;8.8906;
571.8000;0.1384;8.8906;
572.1000;0.1368;8.8834;
572.4000;0.1327;8.8714;
572.7000;0.1359;8.8786;
573.0000;0.1359;8.8882;
573.3000;0.1384;8.8882;
573.6000;0.1359;8.8834;
573.9000;0.1392;8.8978;
574.2000;0.1351;8.8906;
574.5000;0.1376;8.8906;
574.8000;0.1368;8.8906;
575.1000;0.1416;8.8906;
575.4000;0.1368;8.8738;
575.7000;0.1416;8.8954;
576.0000;0.1392;8.8858;
576.3000;0.1384;8.8906;
576.6000;0.1376;8.8882;
576.9000;0.1384;8.8954;
577.2000;0.1408;8.9098;
577.5000;0.1433;8.9193;
577.8000;0.1376;8.8978;
578.1000;0.1384;8.9002;
578.4000;0.1376;8.8954;
578.7000;0.1343;8.8786;
579.0000;0.1368;8.8810;
579.3000;0.1359;8.8834;
579.6000;0.1384;8.8810;
579.9000;0.1376;8.8834;
580.2000;0.1368;8.8858;
580.5000;0.1351;8.8858;
580.8000;0.1368;8.8834;
581.1000;0.1473;8.9098;
581.4000;0.1384;8.8882;
581.7000;0.1392;8.8954;
582.0000;0.1384;8.8978;
582.3000;0.1376;8.8858;
582.6000;0.1368;8.8858;
582.9000;0.1392;8.8906;
583.2000;0.1408;8.8954;
583.5000;0.1392;8.8954;
583.8000;0.1384;8.8978;
584.1000;0.1425;8.9121;
584.4000;0.1368;8.8978;
584.7000;0.1408;8.9050;
585.0000;0.1392;8.9050;
585.3000;0.1351;8.8978;
585.6000;0.1376;8.8954;
585.9000;0.1376;8.9002;
586.2000;0.1408;8.9050;
586.5000;0.1384;8.8954;
586.8000;0.1376;8.8930;
587.1000;0.1376;8.8930;
587.4000;0.1359;8.8954;
587.7000;0.1392;8.8930;
588.0000;0.1368;8.8882;
588.3000;0.1327;8.8738;
588.6000;0.1384;8.8978;
588.9000;0.1392;8.8906;
589.2000;0.1376;8.8882;
589.5000;0.1408;8.8930;
589.8000;0.1368;8.8906;
590.1000;0.1368;8.8954;
590.4000;0.1376;8.8882;
590.7000;0.1368;8.8882;
591.0000;0.1425;8.8906;
591.3000;0.1368;8.8762;
591.6000;0.1343;8.8690;
591.9000;0.1384;8.8786;
592.2000;0.1368;8.8714;
592.5000;0.1359;8.8690;
592.8000;0.1368;8.8666;
593.1000;0.1368;8.8762;
593.4000;0.1359;8.8810;
593.7000;0.1376;8.8810;
594.0000;0.1376;8.8810;
594.3000;0.1359;8.8762;
594.6000;0.1368;8.8834;
594.9000;0.1376;8.8834;
595.2000;0.1368;8.8738;
595.5000;0.1368;8.8762;
595.8000;0.1376;8.8762;
596.1000;0.1376;8.8786;
596.4000;0.1384;8.8858;
596.7000;0.1368;8.8930;
597.0000;0.1368;8.8882;
597.3000;0.1376;8.8834;
597.6000;0.1368;8.8738;
597.9000;0.1359;8.8714;
598.2000;0.1384;8.8762;
598.5000;0.1368;8.8642;
598.8000;0.1384;8.8690;
599.1000;0.1473;8.8834;
599.4000;0.1359;8.8594;
599.7000;0.1392;8.8762;
600.0000;0.1351;8.8786;
600.3000;0.1376;8.8738;
600.6000;0.1384;8.8762;
600.9000;0.1351;8.8642;
601.2000;0.1368;8.8642;
601.5000;0.1376;8.8594;
601.8000;0.1351;8.8546;
602.1000;0.1343;8.8427;
602.4000;0.1343;8.8379;
602.7000;0.1319;8.8307;
603.0000;0.1311;8.8331;
603.3000;0.1302;8.8211;
603.6000;0.1302;8.8187;
603.9000;0.1278;8.8115;
604.2000;0.1286;8.8043;
604.5000;0.1286;8.7947;
604.8000;0.1270;8.7923;
605.1000;0.1286;8.7971;
605.4000;0.1270;8.8019;
605.7000;0.1278;8.7995;
606.0000;0.1254;8.7971;
606.3000;0.1254;8.7923;
606.6000;0.1262;8.7875;
606.9000;0.1254;8.7851;
607.2000;0.1229;8.7779;
607.5000;0.1270;8.7851;
607.8000;0.1245;8.7803;
608.1000;0.1229;8.7803;
608.4000;0.1221;8.7803;
608.7000;0.1213;8.7803;
609.0000;0.1237;8.7827;
609.3000;0.1213;8.7779;
609.6000;0.1221;8.7803;
609.9000;0.1213;8.7851;
610.2000;0.1205;8.7851;
610.5000;0.1221;8.7851;
610.8000;0.1221;8.7803;
611.1000;0.1237;8.7779;
611.4000;0.1213;8.7684;
611.7000;0.1221;8.7660;
612.0000;0.1221;8.7684;
612.3000;0.1197;8.7612;
612.6000;0.1213;8.7588;
612.9000;0.1197;8.7540;
613.2000;0.1197;8.7540;
613.5000;0.1188;8.7468;
613.8000;0.1197;8.7492;
614.1000;0.1188;8.7372;
614.4000;0.1180;8.7324;
614.7000;0.1180;8.7348;
615.0000;0.1180;8.7300;
615.3000;0.1205;8.7276;
615.6000;0.1156;8.7132;
615.9000;0.1180;8.7276;
616.2000;0.1188;8.7300;
616.5000;0.1188;8.7372;
616.8000;0.1172;8.7348;
617.1000;0.1172;8.7348;
617.4000;0.1172;8.7372;
617.7000;0.1188;8.7300;
618.0000;0.1180;8.7252;
618.3000;0.1180;8.7204;
618.6000;0.1164;8.7300;
618.9000;0.1180;8.7300;
619.2000;0.1172;8.7300;
619.5000;0.1164;8.7180;
619.8000;0.1172;8.7204;
620.1000;0.1164;8.7132;
620.4000;0.1205;8.7276;
620.7000;0.1172;8.7276;
621.0000;0.1213;8.7396;
621.3000;0.1172;8.7276;
621.6000;0.1164;8.7252;
621.9000;0.1156;8.7180;
622.2000;0.1156;8.7228;
622.5000;0.1172;8.7324;
622.8000;0.1180;8.7372;
623.1000;0.1156;8.7324;
623.4000;0.1164;8.7300;
623.7000;0.1172;8.7300;
624.0000;0.1148;8.7324;
624.3000;0.1156;8.7300;
624.6000;0.1164;8.7372;
624.9000;0.1148;8.7300;
625.2000;0.1148;8.7228;
625.5000;0.1180;8.7228;
625.8000;0.1140;8.7228;
626.1000;0.1131;8.7228;
626.4000;0.1123;8.7180;
626.7000;0.1156;8.7132;
627.0000;0.1172;8.7204;
627.3000;0.1140;8.7204;
627.6000;0.1156;8.7252;
627.9000;0.1148;8.7180;
628.2000;0.1148;8.7204;
628.5000;0.1148;8.7228;
628.8000;0.1140;8.7252;
629.1000;0.1140;8.7300;
629.4000;0.1172;8.7348;
629.7000;0.1140;8.7324;
630.0000;0.1140;8.7252;
630.3000;0.1156;8.7228;
630.6000;0.1140;8.7156;
630.9000;0.1148;8.7204;
631.2000;0.1188;8.7420;
631.5000;0.1172;8.7420;
631.8000;0.1188;8.7468;
632.1000;0.1148;8.7348;
632.4000;0.1140;8.7324;
632.7000;0.1140;8.7252;
633.0000;0.1156;8.7252;
633.3000;0.1123;8.7180;
633.6000;0.1123;8.7132;
633.9000;0.1140;8.7156;
634.2000;0.1131;8.7085;
634.5000;0.1140;8.7085;
634.8000;0.1131;8.7061;
635.1000;0.1107;8.7061;
635.4000;0.1131;8.7180;
635.7000;0.1164;8.7324;
636.0000;0.1140;8.7252;
636.3000;0.1140;8.7300;
636.6000;0.1107;8.7276;
636.9000;0.1140;8.7348;
637.2000;0.1123;8.7252;
637.5000;0.1213;8.7516;
637.8000;0.1123;8.7204;
638.1000;0.1164;8.7372;
638.4000;0.1115;8.7228;
638.7000;0.1115;8.7300;
639.0000;0.1123;8.7324;
639.3000;0.1131;8.7324;
639.6000;0.1140;8.7348;
639.9000;0.1131;8.7348;
640.2000;0.1123;8.7372;
640.5000;0.1156;8.7516;
640.8000;0.1148;8.7468;
641.1000;0.1115;8.7348;
641.4000;0.1115;8.7300;
641.7000;0.1131;8.7396;
642.0000;0.1180;8.7636;
642.3000;0.1123;8.7468;
642.6000;0.1115;8.7372;
642.9000;0.1140;8.7372;
643.2000;0.1107;8.7276;
643.5000;0.1123;8.7252;
643.8000;0.1115;8.7204;
644.1000;0.1115;8.7324;
644.4000;0.1140;8.7372;
644.7000;0.1123;8.7396;
645.0000;0.1115;8.7300;
645.3000;0.1123;8.7324;
645.6000;0.1131;8.7300;
645.9000;0.1123;8.7252;
646.2000;0.1123;8.7276;
646.5000;0.1131;8.7396;
646.8000;0.1123;8.7372;
647.1000;0.1131;8.7396;
647.4000;0.1123;8.7348;
647.7000;0.1123;8.7396;
648.0000;0.1123;8.7300;
648.3000;0.1115;8.7276;
648.6000;0.1140;8.7348;
648.9000;0.1123;8.7276;
649.2000;0.1115;8.7228;
649.5000;0.1115;8.7228;
649.8000;0.1123;8.7276;
650.1000;0.1083;8.7228;
650.4000;0.1131;8.7276;
650.7000;0.1115;8.7180;
651.0000;0.1140;8.7228;
651.3000;0.1115;8.7156;
651.6000;0.1123;8.7180;
651.9000;0.1115;8.7180;
652.2000;0.1115;8.7276;
652.5000;0.1123;8.7396;
652.8000;0.1091;8.7324;
653.1000;0.1099;8.7252;
653.4000;0.1115;8.7372;
653.7000;0.1115;8.7396;
654.0000;0.1107;8.7348;
654.3000;0.1107;8.7348;
654.6000;0.1131;8.7468;
654.9000;0.1099;8.7420;
655.2000;0.1107;8.7348;
655.5000;0.1115;8.7348;
655.8000;0.1115;8.7420;
656.1000;0.1123;8.7420;
656.4000;0.1107;8.7372;
656.7000;0.1107;8.7348;
657.0000;0.1107;8.7324;
657.3000;0.1058;8.7228;
657.6000;0.1083;8.7228;
657.9000;0.1091;8.7252;
658.2000;0.1083;8.7228;
658.5000;0.1091;8.7252;
658.8000;0.1091;8.7228;
659.1000;0.1099;8.7204;
659.4000;0.1083;8.7132;
659.7000;0.1091;8.7061;
660.0000;0.1091;8.7085;
660.3000;0.1099;8.7085;
660.6000;0.1091;8.7132;
660.9000;0.1115;8.7156;
661.2000;0.1066;8.7061;
661.5000;0.1107;8.7132;
661.8000;0.1091;8.7085;
662.1000;0.1083;8.7109;
662.4000;0.1018;8.7037;
662.7000;0.1197;8.7420;
663.0000;0.1099;8.7156;
663.3000;0.1123;8.7300;
663.6000;0.1123;8.7300;
663.9000;0.1099;8.7276;
664.2000;0.1107;8.7180;
664.5000;0.1115;8.7276;
664.8000;0.1148;8.7492;
665.1000;0.1164;8.7588;
665.4000;0.1213;8.7660;
665.7000;0.1123;8.7468;
666.0000;0.1107;8.7396;
666.3000;0.1107;8.7372;
666.6000;0.1066;8.7300;
666.9000;0.1099;8.7444;
667.2000;0.1156;8.7612;
667.5000;0.1115;8.7420;
667.8000;0.1099;8.7324;
668.1000;0.1107;8.7300;
668.4000;0.1083;8.7300;
668.7000;0.1066;8.7300;
669.0000;0.1099;8.7468;
669.3000;0.1123;8.7516;
669.6000;0.1050;8.7348;
669.9000;0.1115;8.7540;
670.2000;0.1066;8.7348;
670.5000;0.1083;8.7276;
670.8000;0.1074;8.7276;
671.1000;0.1091;8.7252;
671.4000;0.1107;8.7396;
671.7000;0.1091;8.7300;
672.0000;0.1091;8.7252;
672.3000;0.1107;8.7420;
672.6000;0.1107;8.7396;
672.9000;0.1091;8.7300;
673.2000;0.1074;8.7252;
673.5000;0.1107;8.7300;
673.8000;0.1115;8.7372;
674.1000;0.1074;8.7228;
674.4000;0.1074;8.7300;
674.7000;0.1115;8.7468;
675.0000;0.1083;8.7420;
675.3000;0.1083;8.7420;
675.6000;0.1066;8.7348;
675.9000;0.1074;8.7396;
676.2000;0.1066;8.7348;
676.5000;0.1107;8.7348;
676.8000;0.1091;8.7252;
677.1000;0.1115;8.7324;
677.4000;0.1050;8.7061;
677.7000;0.1083;8.7109;
678.0000;0.1066;8.7085;
678.3000;0.1083;8.7228;
678.6000;0.1083;8.7300;
678.9000;0.1099;8.7324;
679.2000;0.1107;8.7276;
679.5000;0.1058;8.7156;
679.8000;0.1066;8.7180;
680.1000;0.1148;8.7468;
680.4000;0.1066;8.7324;
680.7000;0.1066;8.7300;
681.0000;0.1074;8.7228;
681.3000;0.1074;8.7300;
681.6000;0.1131;8.7492;
681.9000;0.1099;8.7348;
682.2000;0.1083;8.7372;
682.5000;0.1091;8.7492;
682.8000;0.1107;8.7468;
683.1000;0.1058;8.7276;
683.4000;0.1074;8.7276;
683.7000;0.1099;8.7324;
684.0000;0.1083;8.7300;
684.3000;0.1123;8.7396;
684.6000;0.1099;8.7324;
684.9000;0.1099;8.7444;
685.2000;0.1058;8.7348;
685.5000;0.1091;8.7444;
685.8000;0.1050;8.7348;
686.1000;0.1091;8.7468;
686.4000;0.1115;8.7516;
686.7000;0.1074;8.7540;
687.0000;0.1091;8.7540;
687.3000;0.1083;8.7492;
687.6000;0.1091;8.7516;
687.9000;0.1091;8.7636;
688.2000;0.1115;8.7708;
688.5000;0.1123;8.7660;
688.8000;0.1050;8.7444;
689.1000;0.1099;8.7564;
689.4000;0.1083;8.7468;
689.7000;0.1091;8.7516;
690.0000;0.1083;8.7540;
690.3000;0.1083;8.7444;
690.6000;0.1099;8.7468;
690.9000;0.1066;8.7468;
691.2000;0.1074;8.7492;
691.5000;0.1074;8.7444;
691.8000;0.1091;8.7420;
692.1000;0.1091;8.7348;
692.4000;0.1083;8.7324;
692.7000;0.1115;8.7420;
693.0000;0.1099;8.7300;
693.3000;0.1099;8.7324;
693.6000;0.1066;8.7252;
693.9000;0.1066;8.7252;
694.2000;0.1074;8.7348;
694.5000;0.1083;8.7372;
694.8000;0.1042;8.7324;
695.1000;0.1083;8.7420;
695.4000;0.1091;8.7444;
695.7000;0.1083;8.7588;
696.0000;0.1074;8.7612;
696.3000;0.1099;8.7636;
696.6000;0.1083;8.7540;
696.9000;0.1148;8.7684;
697.2000;0.1099;8.7564;
697.5000;0.1099;8.7636;
697.8000;0.1091;8.7660;
698.1000;0.1026;8.7540;
698.4000;0.1115;8.7779;
698.7000;0.1115;8.7803;
699.0000;0.1083;8.7803;
699.3000;0.1123;8.7899;
699.6000;0.1123;8.7851;
699.9000;0.1099;8.7660;
700.2000;0.1026;8.7516;
700.5000;0.1164;8.7779;
700.8000;0.1058;8.7540;
701.1000;0.1107;8.7660;
701.4000;0.1066;8.7612;
701.7000;0.1066;8.7612;
702.0000;0.1099;8.7756;
702.3000;0.1091;8.7732;
702.6000;0.1066;8.7636;
702.9000;0.1083;8.7636;
703.2000;0.1123;8.7779;
703.5000;0.1066;8.7660;
703.8000;0.1066;8.7636;
704.1000;0.1115;8.7756;
704.4000;0.1074;8.7684;
704.7000;0.1083;8.7564;
705.0000;0.1074;8.7492;
705.3000;0.1091;8.7516;
705.6000;0.1131;8.7660;
705.9000;0.1099;8.7516;
706.2000;0.1091;8.7540;
706.5000;0.1091;8.7636;
706.8000;0.1091;8.7660;
707.1000;0.1091;8.7636;
707.4000;0.1091;8.7492;
707.7000;0.1091;8.7540;
708.0000;0.1091;8.7492;
708.3000;0.1115;8.7588;
708.6000;0.1074;8.7492;
708.9000;0.1083;8.7540;
709.2000;0.1083;8.7564;
709.5000;0.1074;8.7540;
709.8000;0.1066;8.7492;
710.1000;0.1091;8.7540;
710.4000;0.1066;8.7564;
710.7000;0.1091;8.7588;
711.0000;0.1091;8.7612;
711.3000;0.1050;8.7564;
711.6000;0.1074;8.7612;
711.9000;0.1172;8.7803;
712.2000;0.1058;8.7396;
712.5000;0.1083;8.7372;
712.8000;0.1058;8.7276;
713.1000;0.1074;8.7396;
713.4000;0.1083;8.7492;
713.7000;0.1091;8.7516;
714.0000;0.1058;8.7348;
714.3000;0.1058;8.7372;
714.6000;0.1074;8.7492;
714.9000;0.1066;8.7420;
715.2000;0.1083;8.7396;
715.5000;0.1066;8.7444;
715.8000;0.1083;8.7444;
716.1000;0.1107;8.7516;
716.4000;0.1058;8.7516;
716.7000;0.1058;8.7516;
717.0000;0.1083;8.7612;
717.3000;0.1074;8.7564;
717.6000;0.1074;8.7516;
717.9000;0.1066;8.7444;
718.2000;0.1091;8.7492;
718.5000;0.1091;8.7492;
718.8000;0.1066;8.7516;
719.1000;0.1058;8.7372;
719.4000;0.1083;8.7372;
719.7000;0.1074;8.7396;
720.0000;0.1074;8.7396;
720.3000;0.1074;8.7420;
720.6000;0.1066;8.7348;
720.9000;0.1091;8.7396;
721.2000;0.1091;8.7372;
721.5000;0.1058;8.7276;
721.8000;0.1074;8.7324;
722.1000;0.1091;8.7420;
722.4000;0.1083;8.7348;
722.7000;0.1074;8.7276;
723.0000;0.1083;8.7348;
723.3000;0.1074;8.7372;
723.6000;0.1083;8.7420;
723.9000;0.1091;8.7444;
724.2000;0.1091;8.7468;
724.5000;0.1091;8.7492;
724.8000;0.1099;8.7444;
725.1000;0.1091;8.7396;
725.4000;0.1066;8.7348;
725.7000;0.1091;8.7468;
726.0000;0.1083;8.7348;
726.3000;0.1058;8.7348;
726.6000;0.1083;8.7372;
726.9000;0.1091;8.7372;
727.2000;0.1083;8.7348;
727.5000;0.1066;8.7420;
727.8000;0.1074;8.7444;
728.1000;0.1058;8.7372;
728.4000;0.1091;8.7492;
728.7000;0.1083;8.7420;
729.0000;0.1066;8.7396;
729.3000;0.1091;8.7516;
729.6000;0.1091;8.7564;
729.9000;0.1074;8.7588;
730.2000;0.1066;8.7564;
730.5000;0.1058;8.7564;
730.8000;0.1066;8.7516;
731.1000;0.1083;8.7588;
731.4000;0.1018;8.7372;
731.7000;0.1066;8.7516;
732.0000;0.1066;8.7540;
732.3000;0.1164;8.7756;
732.6000;0.1074;8.7492;
732.9000;0.1066;8.7444;
733.2000;0.1083;8.7492;
733.5000;0.1074;8.7420;
733.8000;0.1066;8.7444;
734.1000;0.1066;8.7492;
734.4000;0.1058;8.7492;
734.7000;0.1058;8.7468;
735.0000;0.1074;8.7468;
735.3000;0.1091;8.7540;
735.6000;0.1058;8.7396;
735.9000;0.1066;8.7444;
736.2000;0.1042;8.7396;
736.5000;0.1050;8.7468;
736.8000;0.1074;8.7540;
737.1000;0.1083;8.7588;
737.4000;0.1099;8.7636;
737.7000;0.1026;8.7348;
738.0000;0.1074;8.7444;
738.3000;0.1074;8.7468;
738.6000;0.1091;8.7540;
738.9000;0.1074;8.7540;
739.2000;0.1058;8.7540;
739.5000;0.1066;8.7540;
739.8000;0.1074;8.7492;
740.1000;0.1066;8.7468;
740.4000;0.1058;8.7492;
740.7000;0.1107;8.7564;
741.0000;0.1009;8.7252;
741.3000;0.1091;8.7396;
741.6000;0.1131;8.7396;
741.9000;0.1066;8.7300;
742.2000;0.1115;8.7396;
742.5000;0.1140;8.7492;
742.8000;0.1083;8.7348;
743.1000;0.1074;8.7420;
743.4000;0.1050;8.7348;
743.7000;0.1074;8.7444;
744.0000;0.1074;8.7444;
744.3000;0.1066;8.7420;
744.6000;0.1058;8.7348;
744.9000;0.1066;8.7228;
745.2000;0.1066;8.7324;
745.5000;0.0993;8.7109;
745.8000;0.1034;8.7252;
746.1000;0.1009;8.7180;
746.4000;0.1172;8.7636;
746.7000;0.1042;8.7300;
747.0000;0.1083;8.7468;
747.3000;0.1172;8.7612;
747.6000;0.1058;8.7396;
747.9000;0.1066;8.7396;
748.2000;0.1074;8.7444;
748.5000;0.1083;8.7492;
748.8000;0.1083;8.7564;
749.1000;0.1083;8.7564;
749.4000;0.1058;8.7468;
749.7000;0.1074;8.7492;
750.0000;0.1058;8.7540;
750.3000;0.1083;8.7564;
750.6000;0.1066;8.7564;
750.9000;0.1066;8.7564;
751.2000;0.1066;8.7612;
751.5000;0.1083;8.7540;
751.8000;0.1099;8.7516;
752.1000;0.1066;8.7444;
752.4000;0.1074;8.7492;
752.7000;0.1074;8.7564;
753.0000;0.1066;8.7540;
753.3000;0.1066;8.7444;
753.6000;0.1050;8.7324;
753.9000;0.1083;8.7420;
754.2000;0.1091;8.7444;
754.5000;0.1140;8.7756;
754.8000;0.1074;8.7540;
755.1000;0.1131;8.7708;
755.4000;0.1058;8.7468;
755.7000;0.1050;8.7516;
756.0000;0.1066;8.7516;
756.3000;0.1058;8.7492;
756.6000;0.1050;8.7492;
756.9000;0.1083;8.7612;
757.2000;0.1066;8.7492;
757.5000;0.1074;8.7516;
757.8000;0.1066;8.7540;
758.1000;0.1050;8.7444;
758.4000;0.1066;8.7468;
758.7000;0.1115;8.7516;
759.0000;0.1074;8.7468;
759.3000;0.1074;8.7540;
759.6000;0.1066;8.7564;
759.9000;0.1066;8.7636;
760.2000;0.1050;8.7660;
760.5000;0.1099;8.7732;
760.8000;0.1074;8.7660;
761.1000;0.1058;8.7588;
761.4000;0.1074;8.7612;
761.7000;0.0985;8.7276;
762.0000;0.1091;8.7516;
762.3000;0.1074;8.7468;
762.6000;0.1074;8.7468;
762.9000;0.1091;8.7540;
763.2000;0.1066;8.7444;
763.5000;0.1099;8.7564;
763.8000;0.1074;8.7588;
764.1000;0.1074;8.7636;
764.4000;0.1083;8.7660;
764.7000;0.1058;8.7660;
765.0000;0.1074;8.7636;
765.3000;0.1091;8.7708;
765.6000;0.1074;8.7684;
765.9000;0.1083;8.7636;
766.2000;0.1034;8.7492;
766.5000;0.1066;8.7444;
766.8000;0.1074;8.7492;
767.1000;0.1099;8.7540;
767.4000;0.1058;8.7300;
767.7000;0.1074;8.7444;
768.0000;0.1083;8.7468;
768.3000;0.1058;8.7348;
768.6000;0.1083;8.7396;
768.9000;0.1074;8.7300;
769.2000;0.1083;8.7252;
769.5000;0.1083;8.7276;
769.8000;0.1058;8.7252;
770.1000;0.1066;8.7276;
770.4000;0.1148;8.7540;
770.7000;0.1066;8.7420;
771.0000;0.1074;8.7492;
771.3000;0.1050;8.7588;
771.6000;0.1083;8.7636;
771.9000;0.1066;8.7540;
772.2000;0.1001;8.7396;
772.5000;0.1074;8.7564;
772.8000;0.1066;8.7540;
773.1000;0.1050;8.7492;
773.4000;0.1083;8.7468;
773.7000;0.1058;8.7372;
774.0000;0.1066;8.7324;
774.3000;0.1058;8.7372;
774.6000;0.1050;8.7444;
774.9000;0.1066;8.7492;
775.2000;0.1066;8.7540;
775.5000;0.1083;8.7540;
775.8000;0.1066;8.7468;
776.1000;0.1058;8.7372;
776.4000;0.1058;8.7396;
776.7000;0.1066;8.7492;
777.0000;0.1066;8.7420;
777.3000;0.1074;8.7444;
777.6000;0.1156;8.7636;
777.9000;0.1083;8.7420;
778.2000;0.1115;8.7516;
778.5000;0.1099;8.7444;
778.8000;0.1091;8.7468;
779.1000;0.1074;8.7468;
779.4000;0.1083;8.7348;
779.7000;0.1091;8.7372;
780.0000;0.1091;8.7444;
780.3000;0.1083;8.7396;
780.6000;0.1083;8.7420;
780.9000;0.1074;8.7468;
781.2000;0.1074;8.7348;
781.5000;0.1099;8.7348;
781.8000;0.1074;8.7276;
782.1000;0.1066;8.7228;
782.4000;0.1074;8.7276;
782.7000;0.1034;8.7204;
783.0000;0.1074;8.7300;
783.3000;0.1091;8.7276;
783.6000;0.1066;8.7228;
783.9000;0.1083;8.7228;
784.2000;0.1083;8.7324;
784.5000;0.1091;8.7444;
784.8000;0.1083;8.7396;
785.1000;0.1074;8.7396;
785.4000;0.1066;8.7348;
785.7000;0.1042;8.7276;
786.0000;0.1074;8.7348;
786.3000;0.1066;8.7396;
786.6000;0.1074;8.7372;
786.9000;0.1074;8.7396;
787.2000;0.1091;8.7468;
787.5000;0.1066;8.7396;
787.8000;0.1074;8.7396;
788.1000;0.1099;8.7540;
788.4000;0.1091;8.7540;
788.7000;0.1074;8.7468;
789.0000;0.1074;8.7396;
789.3000;0.1074;8.7396;
789.6000;0.1058;8.7372;
789.9000;0.1050;8.7420;
790.2000;0.1058;8.7420;
790.5000;0.1074;8.7396;
790.8000;0.1050;8.7372;
791.1000;0.1066;8.7396;
791.4000;0.1058;8.7348;
791.7000;0.1058;8.7324;
792.0000;0.1083;8.7468;
792.3000;0.1058;8.7324;
792.6000;0.1099;8.7324;
792.9000;0.1083;8.7348;
793.2000;0.1066;8.7348;
793.5000;0.1018;8.7276;
793.8000;0.1083;8.7468;
794.1000;0.1066;8.7420;
794.4000;0.1050;8.7468;
794.7000;0.1066;8.7516;
795.0000;0.1074;8.7444;
795.3000;0.1042;8.7444;
795.6000;0.1050;8.7468;
795.9000;0.1066;8.7516;
796.2000;0.0993;8.7348;
796.5000;0.1058;8.7492;
796.8000;0.1066;8.7540;
797.1000;0.1066;8.7612;
797.4000;0.1066;8.7588;
797.7000;0.1050;8.7564;
798.0000;0.1066;8.7516;
798.3000;0.1074;8.7492;
798.6000;0.1074;8.7612;
798.9000;0.1050;8.7612;
799.2000;0.1034;8.7612;
799.5000;0.1107;8.7779;
799.8000;0.1050;8.7636;
800.1000;0.1050;8.7684;
800.4000;0.1058;8.7540;
800.7000;0.1083;8.7636;
801.0000;0.1066;8.7492;
801.3000;0.1083;8.7540;
801.6000;0.1066;8.7468;
801.9000;0.1074;8.7468;
802.2000;0.1066;8.7492;
802.5000;0.1091;8.7468;
802.8000;0.1042;8.7348;
803.1000;0.1042;8.7348;
803.4000;0.1083;8.7564;
803.7000;0.1066;8.7492;
804.0000;0.1066;8.7444;
804.3000;0.1066;8.7492;
804.6000;0.1066;8.7444;
804.9000;0.1066;8.7444;
805.2000;0.1083;8.7516;
805.5000;0.1058;8.7492;
805.8000;0.1042;8.7540;
806.1000;0.1058;8.7540;
806.4000;0.1066;8.7444;
806.7000;0.1066;8.7444;
807.0000;0.1050;8.7348;
807.3000;0.1074;8.7444;
807.6000;0.1066;8.7396;
807.9000;0.1066;8.7300;
808.2000;0.1156;8.7588;
808.5000;0.1058;8.7324;
808.8000;0.1066;8.7420;
809.1000;0.1058;8.7420;
809.4000;0.0985;8.7180;
809.7000;0.1083;8.7468;
810.0000;0.1074;8.7420;
810.3000;0.1074;8.7396;
810.6000;0.1050;8.7276;
810.9000;0.1074;8.7372;
811.2000;0.1066;8.7420;
811.5000;0.1058;8.7396;
811.8000;0.1099;8.7636;
812.1000;0.1074;8.7516;
812.4000;0.1050;8.7492;
812.7000;0.1083;8.7420;
813.0000;0.1058;8.7276;
813.3000;0.0969;8.7013;
813.6000;0.1115;8.7372;
813.9000;0.1034;8.7300;
814.2000;0.1058;8.7396;
814.5000;0.1066;8.7276;
814.8000;0.1042;8.7276;
815.1000;0.1066;8.7420;
815.4000;0.1099;8.7492;
815.7000;0.1050;8.7396;
816.0000;0.1058;8.7396;
816.3000;0.1131;8.7540;
816.6000;0.1083;8.7444;
816.9000;0.1001;8.7252;
817.2000;0.1066;8.7468;
817.5000;0.1074;8.7540;
817.8000;0.1074;8.7540;
818.1000;0.1074;8.7372;
818.4000;0.1074;8.7324;
818.7000;0.1066;8.7420;
819.0000;0.1034;8.7348;
819.3000;0.1058;8.7396;
819.6000;0.1018;8.7300;
819.9000;0.1066;8.7468;
820.2000;0.1083;8.7396;
820.5000;0.1074;8.7420;
820.8000;0.1083;8.7444;
821.1000;0.1074;8.7492;
821.4000;0.1066;8.7492;
821.7000;0.1066;8.7492;
822.0000;0.1066;8.7492;
822.3000;0.1058;8.7468;
822.6000;0.1074;8.7420;
822.9000;0.1074;8.7444;
823.2000;0.1066;8.7348;
823.5000;0.1034;8.7180;
823.8000;0.1018;8.7156;
824.1000;0.1050;8.7276;
824.4000;0.1074;8.7396;
824.7000;0.1058;8.7324;
825.0000;0.1074;8.7468;
825.3000;0.1083;8.7636;
825.6000;0.1074;8.7660;
825.9000;0.1042;8.7612;
826.2000;0.1058;8.7564;
826.5000;0.1066;8.7492;
826.8000;0.1058;8.7372;
827.1000;0.1058;8.7324;
827.4000;0.1074;8.7468;
827.7000;0.1050;8.7444;
828.0000;0.1066;8.7420;
828.3000;0.1058;8.7420;
828.6000;0.1083;8.7492;
828.9000;0.1066;8.7492;
829.2000;0.1066;8.7420;
829.5000;0.0993;8.7348;
829.8000;0.1058;8.7612;
830.1000;0.1058;8.7612;
830.4000;0.1083;8.7684;
830.7000;0.1009;8.7540;
831.0000;0.1058;8.7492;
831.3000;0.1066;8.7612;
831.6000;0.1058;8.7636;
831.9000;0.1107;8.7732;
832.2000;0.1091;8.7636;
832.5000;0.1050;8.7396;
832.8000;0.1074;8.7396;
833.1000;0.1091;8.7348;
833.4000;0.1058;8.7324;
833.7000;0.1066;8.7348;
834.0000;0.1083;8.7396;
834.3000;0.1091;8.7516;
834.6000;0.1058;8.7444;
834.9000;0.1140;8.7588;
835.2000;0.1066;8.7444;
835.5000;0.1050;8.7420;
835.8000;0.1034;8.7348;
836.1000;0.1074;8.7420;
836.4000;0.1058;8.7372;
836.7000;0.1018;8.7276;
837.0000;0.1066;8.7300;
837.3000;0.1107;8.7492;
837.6000;0.1099;8.7492;
837.9000;0.1058;8.7420;
838.2000;0.0969;8.7204;
838.5000;0.0993;8.7180;
838.8000;0.1018;8.7324;
839.1000;0.1042;8.7372;
839.4000;0.1099;8.7540;
839.7000;0.1066;8.7444;
840.0000;0.1050;8.7420;
840.3000;0.1058;8.7612;
840.6000;0.1172;8.7827;
840.9000;0.1066;8.7468;
841.2000;0.1050;8.7348;
841.5000;0.1058;8.7372;
841.8000;0.1066;8.7348;
842.1000;0.1074;8.7276;
842.4000;0.1058;8.7228;
842.7000;0.1066;8.7276;
843.0000;0.1050;8.7300;
843.3000;0.1058;8.7276;
843.6000;0.1018;8.7180;
843.9000;0.1074;8.7396;
844.2000;0.1083;8.7396;
844.5000;0.1074;8.7324;
844.8000;0.1058;8.7396;
845.1000;0.1050;8.7420;
845.4000;0.0993;8.7348;
845.7000;0.1074;8.7516;
846.0000;0.1066;8.7540;
846.3000;0.1042;8.7564;
846.6000;0.1050;8.7588;
846.9000;0.1066;8.7636;
847.2000;0.1058;8.7540;
847.5000;0.1074;8.7396;
847.8000;0.1074;8.7372;
848.1000;0.1083;8.7444;
848.4000;0.1083;8.7516;
848.7000;0.1066;8.7420;
849.0000;0.1066;8.7492;
849.3000;0.1074;8.7612;
849.6000;0.1050;8.7492;
849.9000;0.1034;8.7540;
850.2000;0.1066;8.7564;
850.5000;0.1066;8.7660;
850.8000;0.1058;8.7660;
851.1000;0.1083;8.7612;
851.4000;0.1050;8.7564;
851.7000;0.1123;8.7756;
852.0000;0.1066;8.7636;
852.3000;0.1050;8.7444;
852.6000;0.1066;8.7420;
852.9000;0.1058;8.7396;
853.2000;0.1091;8.7612;
853.5000;0.1018;8.7444;
853.8000;0.1066;8.7516;
854.1000;0.1058;8.7492;
854.4000;0.1058;8.7564;
854.7000;0.1026;8.7612;
855.0000;0.1066;8.7636;
855.3000;0.1099;8.7732;
855.6000;0.1050;8.7564;
855.9000;0.1074;8.7612;
856.2000;0.1058;8.7612;
856.5000;0.1066;8.7636;
856.8000;0.1083;8.7540;
857.1000;0.1050;8.7540;
857.4000;0.1050;8.7516;
857.7000;0.1066;8.7492;
858.0000;0.1058;8.7444;
858.3000;0.1050;8.7372;
858.6000;0.1058;8.7420;
858.9000;0.1058;8.7444;
859.2000;0.0977;8.7204;
859.5000;0.1009;8.7276;
859.8000;0.1066;8.7396;
860.1000;0.1083;8.7444;
860.4000;0.1074;8.7444;
860.7000;0.1058;8.7396;
861.0000;0.1042;8.7444;
861.3000;0.1042;8.7468;
861.6000;0.1042;8.7444;
861.9000;0.1058;8.7396;
862.2000;0.1066;8.7516;
862.5000;0.1066;8.7540;
862.8000;0.1042;8.7540;
863.1000;0.1001;8.7444;
863.4000;0.1083;8.7564;
863.7000;0.1050;8.7516;
864.0000;0.1050;8.7492;
864.3000;0.0977;8.7300;
864.6000;0.1058;8.7492;
864.9000;0.1050;8.7492;
865.2000;0.1042;8.7492;
865.5000;0.1058;8.7444;
865.8000;0.1058;8.7516;
866.1000;0.1074;8.7540;
866.4000;0.1042;8.7540;
866.7000;0.1074;8.7540;
867.0000;0.1050;8.7516;
867.3000;0.1050;8.7468;
867.6000;0.1058;8.7492;
867.9000;0.1034;8.7468;
868.2000;0.1091;8.7684;
868.5000;0.1050;8.7732;
868.8000;0.1066;8.7803;
869.1000;0.1026;8.7636;
869.4000;0.1042;8.7588;
869.7000;0.1066;8.7516;
870.0000;0.1058;8.7468;
870.3000;0.1050;8.7516;
870.6000;0.1099;8.7708;
870.9000;0.1074;8.7684;
871.2000;0.1074;8.7779;
871.5000;0.1066;8.7636;
871.8000;0.1083;8.7636;
872.1000;0.1083;8.7516;
872.4000;0.1050;8.7444;
872.7000;0.1058;8.7444;
873.0000;0.1058;8.7492;
873.3000;0.1058;8.7540;
873.6000;0.1091;8.7660;
873.9000;0.1074;8.7708;
874.2000;0.1050;8.7660;
874.5000;0.1034;8.7636;
874.8000;0.1058;8.7612;
875.1000;0.1058;8.7612;
875.4000;0.1058;8.7612;
875.7000;0.1107;8.7827;
876.0000;0.1074;8.7660;
876.3000;0.1083;8.7684;
876.6000;0.1058;8.7708;
876.9000;0.1115;8.7875;
877.2000;0.1107;8.7851;
877.5000;0.1058;8.7684;
877.8000;0.1042;8.7684;
878.1000;0.1074;8.7684;
878.4000;0.1050;8.7660;
878.7000;0.1058;8.7779;
879.0000;0.1050;8.7732;
879.3000;0.1050;8.7684;
879.6000;0.1058;8.7684;
879.9000;0.1066;8.7708;
880.2000;0.1009;8.7540;
880.5000;0.1050;8.7660;
880.8000;0.1058;8.7612;
881.1000;0.1099;8.7732;
881.4000;0.1074;8.7636;
881.7000;0.1066;8.7636;
882.0000;0.1042;8.7516;
882.3000;0.1026;8.7468;
882.6000;0.1058;8.7516;
882.9000;0.1058;8.7588;
883.2000;0.1074;8.7612;
883.5000;0.1050;8.7636;
883.8000;0.1074;8.7588;
884.1000;0.1042;8.7420;
884.4000;0.1050;8.7420;
884.7000;0.0985;8.7324;
885.0000;0.1066;8.7564;
885.3000;0.1074;8.7612;
885.6000;0.1034;8.7468;
885.9000;0.1050;8.7444;
886.2000;0.1058;8.7468;
886.5000;0.1074;8.7516;
886.8000;0.1042;8.7420;
887.1000;0.1009;8.7348;
887.4000;0.1042;8.7444;
887.7000;0.1050;8.7492;
888.0000;0.1034;8.7444;
888.3000;0.1042;8.7564;
888.6000;0.1058;8.7732;
888.9000;0.1066;8.7708;
889.2000;0.1066;8.7684;
889.5000;0.1058;8.7588;
889.8000;0.1058;8.7612;
890.1000;0.1050;8.7540;
890.4000;0.1074;8.7516;
890.7000;0.1050;8.7420;
891.0000;0.1058;8.7444;
891.3000;0.1066;8.7516;
891.6000;0.1091;8.7564;
891.9000;0.1066;8.7468;
892.2000;0.1074;8.7468;
892.5000;0.1042;8.7420;
892.8000;0.1058;8.7396;
893.1000;0.1066;8.7468;
893.4000;0.1042;8.7564;
893.7000;0.1058;8.7684;
894.0000;0.1042;8.7612;
894.3000;0.1074;8.7636;
894.6000;0.1099;8.7660;
894.9000;0.1058;8.7564;
895.2000;0.1083;8.7636;
895.5000;0.1074;8.7636;
895.8000;0.1050;8.7588;
896.1000;0.1066;8.7684;
896.4000;0.1091;8.7803;
896.7000;0.1058;8.7684;
897.0000;0.1074;8.7660;
897.3000;0.1058;8.7684;
897.6000;0.1058;8.7660;
897.9000;0.1058;8.7732;
898.2000;0.1050;8.7612;
898.5000;0.1058;8.7540;
898.8000;0.1058;8.7468;
899.1000;0.1058;8.7492;
899.4000;0.1107;8.7492;
899.7000;0.1115;8.7444;
900.0000;0.1042;8.7324;
900.3000;0.1083;8.7396;
900.6000;0.1058;8.7420;
900.9000;0.1058;8.7492;
901.2000;0.1107;8.7660;
901.5000;0.1107;8.7588;
901.8000;0.1058;8.7516;
902.1000;0.1058;8.7516;
902.4000;0.1034;8.7348;
902.7000;0.1074;8.7396;
903.0000;0.1074;8.7492;
903.3000;0.1091;8.7468;
903.6000;0.1074;8.7348;
903.9000;0.1091;8.7420;
904.2000;0.1066;8.7420;
904.5000;0.1066;8.7468;
904.8000;0.1074;8.7420;
905.1000;0.1050;8.7468;
905.4000;0.1091;8.7564;
905.7000;0.1066;8.7444;
906.0000;0.1115;8.7516;
906.3000;0.1083;8.7468;
906.6000;0.1058;8.7420;
906.9000;0.1099;8.7540;
907.2000;0.1058;8.7492;
907.5000;0.1050;8.7492;
907.8000;0.1115;8.7588;
908.1000;0.1050;8.7492;
908.4000;0.1066;8.7444;
908.7000;0.1123;8.7516;
909.0000;0.1066;8.7324;
909.3000;0.0993;8.7180;
909.6000;0.1058;8.7324;
909.9000;0.1066;8.7348;
910.2000;0.1050;8.7396;
910.5000;0.1026;8.7180;
910.8000;0.1058;8.7324;
911.1000;0.1066;8.7276;
911.4000;0.1034;8.7348;
911.7000;0.1074;8.7396;
912.0000;0.1058;8.7372;
912.3000;0.0977;8.7228;
912.6000;0.1058;8.7372;
912.9000;0.1074;8.7348;
913.2000;0.1050;8.7252;
913.5000;0.1050;8.7109;
913.8000;0.1058;8.7204;
914.1000;0.1050;8.7228;
914.4000;0.1066;8.7348;
914.7000;0.1058;8.7420;
915.0000;0.1066;8.7372;
915.3000;0.1066;8.7348;
915.6000;0.1083;8.7396;
915.9000;0.1074;8.7420;
916.2000;0.1042;8.7396;
916.5000;0.1042;8.7372;
916.8000;0.1034;8.7372;
917.1000;0.1091;8.7444;
917.4000;0.1058;8.7420;
917.7000;0.1066;8.7444;
918.0000;0.1009;8.7300;
918.3000;0.1050;8.7396;
918.6000;0.1050;8.7348;
918.9000;0.1066;8.7348;
919.2000;0.1066;8.7372;
919.5000;0.1058;8.7372;
919.8000;0.1074;8.7492;
920.1000;0.1058;8.7468;
920.4000;0.1042;8.7444;
920.7000;0.1066;8.7540;
921.0000;0.1066;8.7540;
921.3000;0.1058;8.7468;
921.6000;0.1018;8.7372;
921.9000;0.1042;8.7396;
922.2000;0.1148;8.7732;
922.5000;0.1034;8.7420;
922.8000;0.1034;8.7420;
923.1000;0.1042;8.7492;
923.4000;0.1034;8.7396;
923.7000;0.1058;8.7324;
924.0000;0.1018;8.7252;
924.3000;0.1058;8.7492;
924.6000;0.1058;8.7540;
924.9000;0.1099;8.7660;
925.2000;0.1115;8.7756;
925.5000;0.1050;8.7756;
925.8000;0.1066;8.7803;
926.1000;0.1066;8.7684;
926.4000;0.1058;8.7612;
926.7000;0.1034;8.7516;
927.0000;0.1009;8.7348;
927.3000;0.1074;8.7516;
927.6000;0.1050;8.7492;
927.9000;0.1042;8.7516;
928.2000;0.1058;8.7468;
928.5000;0.1074;8.7540;
928.8000;0.1091;8.7516;
929.1000;0.1018;8.7348;
929.4000;0.1099;8.7636;
929.7000;0.1050;8.7468;
930.0000;0.1074;8.7468;
930.3000;0.1091;8.7588;
930.6000;0.1099;8.7564;
930.9000;0.1050;8.7468;
931.2000;0.1034;8.7324;
931.5000;0.1034;8.7300;
931.8000;0.0961;8.7180;
932.1000;0.1050;8.7468;
932.4000;0.1042;8.7516;
932.7000;0.1034;8.7516;
933.0000;0.1042;8.7468;
933.3000;0.1050;8.7516;
933.6000;0.1050;8.7516;
933.9000;0.1042;8.7492;
934.2000;0.1050;8.7420;
934.5000;0.1050;8.7348;
934.8000;0.1099;8.7516;
935.1000;0.1058;8.7444;
935.4000;0.1050;8.7492;
935.7000;0.1042;8.7420;
936.0000;0.1066;8.7324;
936.3000;0.1115;8.7348;
936.6000;0.1050;8.7180;
936.9000;0.1058;8.7228;
937.2000;0.1074;8.7276;
937.5000;0.1042;8.7228;
937.8000;0.1050;8.7228;
938.1000;0.1058;8.7276;
938.4000;0.1066;8.7252;
938.7000;0.1066;8.7348;
939.0000;0.1066;8.7396;
939.3000;0.1074;8.7492;
939.6000;0.1115;8.7564;
939.9000;0.1083;8.7420;
940.2000;0.1042;8.7372;
940.5000;0.1058;8.7396;
940.8000;0.1066;8.7348;
941.1000;0.1074;8.7444;
941.4000;0.1083;8.7468;
941.7000;0.1058;8.7372;
942.0000;0.1083;8.7444;
942.3000;0.1058;8.7468;
942.6000;0.1066;8.7492;
942.9000;0.1042;8.7564;
943.2000;0.1066;8.7564;
943.5000;0.1034;8.7492;
943.8000;0.1066;8.7540;
944.1000;0.1058;8.7516;
944.4000;0.1083;8.7468;
944.7000;0.1066;8.7348;
945.0000;0.1066;8.7372;
945.3000;0.1115;8.7636;
945.6000;0.1164;8.7851;
945.9000;0.1050;8.7588;
946.2000;0.1050;8.7516;
946.5000;0.1026;8.7564;
946.8000;0.1050;8.7564;
947.1000;0.1074;8.7468;
947.4000;0.0977;8.7276;
947.7000;0.1018;8.7396;
948.0000;0.1042;8.7348;
948.3000;0.1018;8.7276;
948.6000;0.1107;8.7444;
948.9000;0.1058;8.7348;
949.2000;0.1034;8.7300;
949.5000;0.1058;8.7444;
949.8000;0.1058;8.7396;
950.1000;0.1164;8.7636;
950.4000;0.1026;8.7324;
950.7000;0.1066;8.7444;
951.0000;0.1091;8.7492;
951.3000;0.1050;8.7348;
951.6000;0.1009;8.7204;
951.9000;0.1066;8.7444;
952.2000;0.1026;8.7396;
952.5000;0.1066;8.7396;
952.8000;0.1074;8.7540;
953.1000;0.1107;8.7684;
953.4000;0.1083;8.7708;
953.7000;0.1074;8.7612;
954.0000;0.1074;8.7564;
954.3000;0.1074;8.7492;
954.6000;0.1074;8.7492;
954.9000;0.1066;8.7396;
955.2000;0.1026;8.7228;
955.5000;0.1026;8.7276;
955.8000;0.1050;8.7324;
956.1000;0.1050;8.7372;
956.4000;0.1050;8.7420;
956.7000;0.1050;8.7420;
957.0000;0.1058;8.7348;
957.3000;0.1058;8.7396;
957.6000;0.1050;8.7372;
957.9000;0.1050;8.7324;
958.2000;0.1050;8.7300;
958.5000;0.1074;8.7348;
958.8000;0.1050;8.7348;
959.1000;0.1058;8.7468;
959.4000;0.1066;8.7516;
959.7000;0.1058;8.7516;
960.0000;0.1066;8.7612;
960.3000;0.1066;8.7636;
960.6000;0.1074;8.7684;
960.9000;0.1058;8.7612;
961.2000;0.1058;8.7660;
961.5000;0.1058;8.7612;
961.8000;0.1066;8.7612;
962.1000;0.1148;8.7803;
962.4000;0.1042;8.7564;
962.7000;0.1066;8.7660;
963.0000;0.1058;8.7684;
963.3000;0.1058;8.7756;
963.6000;0.1074;8.7684;
963.9000;0.1091;8.7732;
964.2000;0.1083;8.7732;
964.5000;0.1115;8.7803;
964.8000;0.1066;8.7636;
965.1000;0.1050;8.7684;
965.4000;0.1074;8.7708;
965.7000;0.1066;8.7684;
966.0000;0.1058;8.7732;
966.3000;0.1083;8.7779;
966.6000;0.1083;8.7875;
966.9000;0.1066;8.7779;
967.2000;0.1026;8.7756;
967.5000;0.1074;8.7875;
967.8000;0.1066;8.7827;
968.1000;0.1042;8.7851;
968.4000;0.1066;8.7851;
968.7000;0.1058;8.7779;
969.0000;0.1042;8.7779;
969.3000;0.1026;8.7684;
969.6000;0.1058;8.7708;
969.9000;0.1099;8.7779;
970.2000;0.0985;8.7540;
970.5000;0.1034;8.7684;
970.8000;0.1058;8.7708;
971.1000;0.1034;8.7732;
971.4000;0.1083;8.7851;
971.7000;0.1099;8.7827;
972.0000;0.1074;8.7756;
972.3000;0.1050;8.7732;
972.6000;0.1099;8.7827;
972.9000;0.1074;8.7732;
973.2000;0.1026;8.7588;
973.5000;0.1058;8.7588;
973.8000;0.1066;8.7588;
974.1000;0.1058;8.7492;
974.4000;0.1091;8.7468;
974.7000;0.1058;8.7468;
975.0000;0.1066;8.7420;
975.3000;0.1042;8.7324;
975.6000;0.1074;8.7348;
975.9000;0.1050;8.7372;
976.2000;0.1050;8.7348;
976.5000;0.1083;8.7324;
976.8000;0.1074;8.7324;
977.1000;0.1058;8.7324;
977.4000;0.1107;8.7420;
977.7000;0.1042;8.7300;
978.0000;0.1050;8.7372;
978.3000;0.1123;8.7492;
978.6000;0.1042;8.7228;
978.9000;0.1026;8.7180;
979.2000;0.1066;8.7276;
979.5000;0.1066;8.7300;
979.8000;0.1042;8.7324;
980.1000;0.1050;8.7396;
980.4000;0.1050;8.7468;
980.7000;0.1058;8.7468;
981.0000;0.1058;8.7468;
981.3000;0.1066;8.7468;
981.6000;0.1083;8.7516;
981.9000;0.1009;8.7420;
982.2000;0.1066;8.7636;
982.5000;0.1018;8.7564;
982.8000;0.1050;8.7660;
983.1000;0.1066;8.7756;
983.4000;0.1034;8.7588;
983.7000;0.1050;8.7612;
984.0000;0.1058;8.7564;
984.3000;0.1042;8.7492;
984.6000;0.1058;8.7636;
984.9000;0.1050;8.7564;
985.2000;0.1074;8.7564;
985.5000;0.1074;8.7564;
985.8000;0.1083;8.7636;
986.1000;0.1164;8.7827;
986.4000;0.1058;8.7540;
986.7000;0.1066;8.7540;
987.0000;0.1018;8.7348;
987.3000;0.1066;8.7420;
987.6000;0.1066;8.7468;
987.9000;0.1066;8.7492;
988.2000;0.1083;8.7516;
988.5000;0.1001;8.7276;
988.8000;0.1050;8.7372;
989.1000;0.1074;8.7348;
989.4000;0.1066;8.7420;
989.7000;0.1066;8.7492;
990.0000;0.1066;8.7348;
990.3000;0.1083;8.7372;
990.6000;0.1066;8.7276;
990.9000;0.1050;8.7324;
991.2000;0.1074;8.7372;
991.5000;0.1050;8.7396;
991.8000;0.1074;8.7420;
992.1000;0.1066;8.7396;
992.4000;0.1083;8.7372;
992.7000;0.1050;8.7300;
993.0000;0.1058;8.7468;
993.3000;0.1042;8.7420;
993.6000;0.1058;8.7444;
993.9000;0.1034;8.7324;
994.2000;0.1058;8.7444;
994.5000;0.1074;8.7444;
994.8000;0.1058;8.7540;
995.1000;0.1083;8.7540;
995.4000;0.1066;8.7540;
995.7000;0.1066;8.7588;
996.0000;0.1066;8.7516;
996.3000;0.1058;8.7492;
996.6000;0.1050;8.7492;
996.9000;0.1058;8.7636;
997.2000;0.1058;8.7588;
997.5000;0.1058;8.7564;
997.8000;0.1074;8.7564;
998.1000;0.1058;8.7420;
998.4000;0.1066;8.7516;
998.7000;0.1066;8.7420;
999.0000;0.1123;8.7420;
999.3000;0.1148;8.7564;
999.6000;0.1083;8.7348;
999.9000;0.1066;8.7420;
1000.2000;0.1058;8.7372;
1000.5000;0.1099;8.7516;
1000.8000;0.1058;8.7420;
1001.1000;0.1083;8.7564;
1001.4000;0.1042;8.7492;
1001.7000;0.1050;8.7516;
1002.0000;0.1074;8.7636;
1002.3000;0.1066;8.7588;
1002.6000;0.1058;8.7492;
1002.9000;0.1050;8.7540;
1003.2000;0.1042;8.7564;
1003.5000;0.1026;8.7420;
1003.8000;0.1058;8.7396;
1004.1000;0.1042;8.7396;
1004.4000;0.1066;8.7420;
1004.7000;0.1058;8.7444;
1005.0000;0.1058;8.7516;
1005.3000;0.1058;8.7492;
1005.6000;0.1083;8.7516;
1005.9000;0.1066;8.7492;
1006.2000;0.1058;8.7612;
1006.5000;0.1083;8.7660;
1006.8000;0.1058;8.7612;
1007.1000;0.1066;8.7708;
1007.4000;0.1083;8.7732;
1007.7000;0.1066;8.7732;
1008.0000;0.1058;8.7708;
1008.3000;0.1050;8.7684;
1008.6000;0.1066;8.7708;
1008.9000;0.1066;8.7756;
1009.2000;0.1066;8.7851;
1009.5000;0.0993;8.7684;
1009.8000;0.1058;8.7827;
1010.1000;0.1058;8.7779;
1010.4000;0.1066;8.7732;
1010.7000;0.1058;8.7708;
1011.0000;0.1066;8.7684;
1011.3000;0.1066;8.7684;
1011.6000;0.1050;8.7684;
1011.9000;0.1074;8.7756;
1012.2000;0.1074;8.7779;
1012.5000;0.1066;8.7732;
1012.8000;0.1066;8.7660;
1013.1000;0.1066;8.7708;
1013.4000;0.1066;8.7756;
1013.7000;0.1050;8.7732;
1014.0000;0.1066;8.7779;
1014.3000;0.1042;8.7732;
1014.6000;0.1050;8.7827;
1014.9000;0.1058;8.7827;
1015.2000;0.1058;8.7779;
1015.5000;0.1058;8.7756;
1015.8000;0.1050;8.7708;
1016.1000;0.1066;8.7732;
1016.4000;0.1066;8.7684;
1016.7000;0.1042;8.7564;
1017.0000;0.1058;8.7684;
1017.3000;0.1066;8.7756;
1017.6000;0.1074;8.7732;
1017.9000;0.1009;8.7636;
1018.2000;0.1058;8.7732;
1018.5000;0.1050;8.7708;
1018.8000;0.1091;8.7636;
1019.1000;0.1058;8.7564;
1019.4000;0.1066;8.7540;
1019.7000;0.1050;8.7516;
1020.0000;0.1083;8.7588;
1020.3000;0.1066;8.7492;
1020.6000;0.1050;8.7516;
1020.9000;0.1042;8.7468;
1021.2000;0.1074;8.7444;
1021.5000;0.1083;8.7420;
1021.8000;0.1026;8.7372;
1022.1000;0.1123;8.7564;
1022.4000;0.1107;8.7468;
1022.7000;0.1018;8.7204;
1023.0000;0.1074;8.7396;
1023.3000;0.1034;8.7300;
1023.6000;0.1050;8.7420;
1023.9000;0.1058;8.7420;
1024.2000;0.1042;8.7348;
1024.5000;0.1058;8.7396;
1024.8000;0.1074;8.7468;
1025.1000;0.0969;8.7228;
1025.4000;0.0993;8.7348;
1025.7000;0.1050;8.7612;
1026.0000;0.1050;8.7564;
1026.3000;0.1074;8.7516;
1026.6000;0.1066;8.7492;
1026.9000;0.1058;8.7444;
1027.2000;0.1066;8.7444;
1027.5000;0.1050;8.7372;
1027.8000;0.1066;8.7396;
1028.1000;0.0985;8.7156;
1028.4000;0.1026;8.7300;
1028.7000;0.1050;8.7372;
1029.0000;0.1009;8.7324;
1029.3000;0.1050;8.7492;
1029.6000;0.1050;8.7516;
1029.9000;0.1148;8.7779;
1030.2000;0.1066;8.7564;
1030.5000;0.1058;8.7588;
1030.8000;0.1066;8.7588;
1031.1000;0.1058;8.7540;
1031.4000;0.1058;8.7564;
1031.7000;0.1050;8.7636;
1032.0000;0.1050;8.7660;
1032.3000;0.1058;8.7564;
1032.6000;0.1066;8.7468;
1032.9000;0.1050;8.7348;
1033.2000;0.1058;8.7372;
1033.5000;0.1074;8.7348;
1033.8000;0.1066;8.7372;
1034.1000;0.1034;8.7276;
1034.4000;0.1042;8.7300;
1034.7000;0.1026;8.7276;
1035.0000;0.1050;8.7300;
1035.3000;0.1042;8.7324;
1035.6000;0.1058;8.7420;
1035.9000;0.1058;8.7348;
1036.2000;0.1058;8.7300;
1036.5000;0.1074;8.7420;
1036.8000;0.1066;8.7420;
1037.1000;0.1042;8.7420;
1037.4000;0.1050;8.7372;
1037.7000;0.1074;8.7516;
1038.0000;0.1058;8.7540;
1038.3000;0.1034;8.7612;
1038.6000;0.1066;8.7588;
1038.9000;0.1042;8.7468;
1039.2000;0.1042;8.7516;
1039.5000;0.1042;8.7516;
1039.8000;0.1026;8.7444;
1040.1000;0.1018;8.7468;
1040.4000;0.1009;8.7396;
1040.7000;0.1042;8.7516;
1041.0000;0.1091;8.7636;
1041.3000;0.1074;8.7636;
1041.6000;0.1009;8.7468;
1041.9000;0.1066;8.7636;
1042.2000;0.1074;8.7492;
1042.5000;0.1058;8.7468;
1042.8000;0.1074;8.7492;
1043.1000;0.1066;8.7468;
1043.4000;0.1091;8.7516;
1043.7000;0.1083;8.7444;
1044.0000;0.1026;8.7276;
1044.3000;0.1083;8.7396;
1044.6000;0.1066;8.7252;
1044.9000;0.1058;8.7228;
1045.2000;0.1042;8.7300;
1045.5000;0.1066;8.7396;
1045.8000;0.1050;8.7324;
1046.1000;0.1050;8.7348;
1046.4000;0.1066;8.7396;
1046.7000;0.1107;8.7492;
1047.0000;0.1042;8.7396;
1047.3000;0.1009;8.7300;
1047.6000;0.1050;8.7444;
1047.9000;0.1050;8.7492;
1048.2000;0.1058;8.7492;
1048.5000;0.1050;8.7324;
1048.8000;0.1026;8.7276;
1049.1000;0.1083;8.7444;
1049.4000;0.1058;8.7324;
1049.7000;0.1083;8.7348;
1050.0000;0.1026;8.7228;
1050.3000;0.1058;8.7228;
1050.6000;0.1066;8.7228;
1050.9000;0.1058;8.7252;
1051.2000;0.1066;8.7324;
1051.5000;0.1074;8.7156;
1051.8000;0.1066;8.7228;
1052.1000;0.1066;8.7396;
1052.4000;0.1042;8.7444;
1052.7000;0.1050;8.7444;
1053.0000;0.1083;8.7444;
1053.3000;0.1050;8.7324;
1053.6000;0.1058;8.7324;
1053.9000;0.1050;8.7276;
1054.2000;0.1042;8.7420;
1054.5000;0.1107;8.7588;
1054.8000;0.1050;8.7420;
1055.1000;0.1058;8.7348;
1055.4000;0.1042;8.7348;
1055.7000;0.1066;8.7324;
1056.0000;0.1074;8.7276;
1056.3000;0.1050;8.7276;
1056.6000;0.1099;8.7372;
1056.9000;0.1083;8.7300;
1057.2000;0.1066;8.7324;
1057.5000;0.1058;8.7252;
1057.8000;0.1066;8.7372;
1058.1000;0.1066;8.7300;
1058.4000;0.1066;8.7372;
1058.7000;0.1042;8.7396;
1059.0000;0.1058;8.7348;
1059.3000;0.1058;8.7348;
1059.6000;0.1074;8.7348;
1059.9000;0.1066;8.7420;
1060.2000;0.1074;8.7372;
1060.5000;0.1050;8.7396;
1060.8000;0.1066;8.7396;
1061.1000;0.1058;8.7420;
1061.4000;0.1058;8.7348;
1061.7000;0.1107;8.7468;
1062.0000;0.1074;8.7372;
1062.3000;0.1083;8.7396;
1062.6000;0.1050;8.7324;
1062.9000;0.1042;8.7276;
1063.2000;0.1042;8.7252;
1063.5000;0.1066;8.7348;
1063.8000;0.1042;8.7228;
1064.1000;0.1074;8.7372;
1064.4000;0.1018;8.7276;
1064.7000;0.1140;8.7612;
1065.0000;0.1115;8.7516;
1065.3000;0.1050;8.7324;
1065.6000;0.1050;8.7444;
1065.9000;0.1058;8.7564;
1066.2000;0.1123;8.7660;
1066.5000;0.1066;8.7564;
1066.8000;0.1050;8.7444;
1067.1000;0.1091;8.7564;
1067.4000;0.1083;8.7396;
1067.7000;0.1050;8.7252;
1068.0000;0.1066;8.7252;
1068.3000;0.1058;8.7276;
1068.6000;0.1131;8.7420;
1068.9000;0.1050;8.7204;
1069.2000;0.1099;8.7348;
1069.5000;0.1058;8.7348;
1069.8000;0.1066;8.7396;
1070.1000;0.1074;8.7396;
1070.4000;0.1034;8.7372;
1070.7000;0.1066;8.7444;
1071.0000;0.1050;8.7372;
1071.3000;0.1018;8.7276;
1071.6000;0.1042;8.7324;
1071.9000;0.1066;8.7420;
1072.2000;0.1058;8.7348;
1072.5000;0.1050;8.7252;
1072.8000;0.1058;8.7252;
1073.1000;0.1050;8.7228;
1073.4000;0.1034;8.7156;
1073.7000;0.1050;8.7180;
1074.0000;0.1042;8.7156;
1074.3000;0.1058;8.7348;
1074.6000;0.1042;8.7396;
1074.9000;0.1050;8.7372;
1075.2000;0.1074;8.7468;
1075.5000;0.1050;8.7348;
1075.8000;0.1050;8.7444;
1076.1000;0.1058;8.7396;
1076.4000;0.1074;8.7396;
1076.7000;0.1042;8.7348;
1077.0000;0.1083;8.7396;
1077.3000;0.1083;8.7444;
1077.6000;0.1066;8.7444;
1077.9000;0.1050;8.7396;
1078.2000;0.1050;8.7324;
1078.5000;0.1018;8.7276;
1078.8000;0.1058;8.7372;
1079.1000;0.1058;8.7372;
1079.4000;0.1050;8.7324;
1079.7000;0.1058;8.7396;
1080.0000;0.1066;8.7396;
1080.3000;0.1058;8.7420;
1080.6000;0.1091;8.7564;
1080.9000;0.1058;8.7540;
1081.2000;0.1058;8.7660;
1081.5000;0.1050;8.7588;
1081.8000;0.1050;8.7540;
1082.1000;0.1034;8.7588;
1082.4000;0.1050;8.7516;
1082.7000;0.1042;8.7612;
1083.0000;0.1050;8.7564;
1083.3000;0.1018;8.7540;
1083.6000;0.1050;8.7564;
1083.9000;0.1066;8.7564;
1084.2000;0.1042;8.7540;
1084.5000;0.1050;8.7588;
1084.8000;0.1042;8.7588;
1085.1000;0.1066;8.7516;
1085.4000;0.1050;8.7492;
1085.7000;0.1026;8.7444;
1086.0000;0.1058;8.7540;
1086.3000;0.0961;8.7228;
1086.6000;0.0961;8.7180;
1086.9000;0.1058;8.7396;
1087.2000;0.1026;8.7300;
1087.5000;0.1058;8.7300;
1087.8000;0.1074;8.7324;
1088.1000;0.1050;8.7276;
1088.4000;0.1058;8.7252;
1088.7000;0.1091;8.7300;
1089.0000;0.1034;8.7228;
1089.3000;0.1042;8.7180;
1089.6000;0.1050;8.7156;
1089.9000;0.1074;8.7204;
1090.2000;0.1050;8.7156;
1090.5000;0.1050;8.7228;
1090.8000;0.1066;8.7324;
1091.1000;0.0952;8.7085;
1091.4000;0.1058;8.7324;
1091.7000;0.1058;8.7228;
1092.0000;0.1050;8.7276;
1092.3000;0.1050;8.7324;
1092.6000;0.1066;8.7372;
1092.9000;0.1050;8.7324;
1093.2000;0.1050;8.7300;
1093.5000;0.1042;8.7276;
1093.8000;0.1050;8.7348;
1094.1000;0.1050;8.7300;
1094.4000;0.1058;8.7204;
1094.7000;0.1034;8.7180;
1095.0000;0.1058;8.7252;
1095.3000;0.1066;8.7204;
1095.6000;0.1050;8.7180;
1095.9000;0.1058;8.7156;
1096.2000;0.1050;8.7252;
1096.5000;0.1091;8.7468;
1096.8000;0.1066;8.7444;
1097.1000;0.1058;8.7468;
1097.4000;0.1074;8.7492;
1097.7000;0.1066;8.7444;
1098.0000;0.1066;8.7420;
1098.3000;0.1050;8.7372;
1098.6000;0.1074;8.7444;
1098.9000;0.1066;8.7420;
1099.2000;0.1066;8.7420;
1099.5000;0.1107;8.7612;
1099.8000;0.1058;8.7468;
1100.1000;0.1042;8.7444;
1100.4000;0.1042;8.7444;
1100.7000;0.1058;8.7468;
1101.0000;0.1058;8.7492;
1101.3000;0.1066;8.7516;
1101.6000;0.1074;8.7564;
1101.9000;0.1074;8.7564;
1102.2000;0.1042;8.7468;
1102.5000;0.1066;8.7564;
1102.8000;0.1042;8.7564;
1103.1000;0.1058;8.7636;
1103.4000;0.1058;8.7588;
1103.7000;0.1042;8.7444;
1104.0000;0.1042;8.7420;
1104.3000;0.1050;8.7468;
1104.6000;0.1042;8.7420;
1104.9000;0.1058;8.7420;
1105.2000;0.1058;8.7420;
1105.5000;0.1066;8.7420;
1105.8000;0.1050;8.7372;
1106.1000;0.1050;8.7444;
1106.4000;0.1026;8.7348;
1106.7000;0.1050;8.7444;
1107.0000;0.1050;8.7372;
1107.3000;0.1058;8.7300;
1107.6000;0.1050;8.7300;
1107.9000;0.1066;8.7372;
1108.2000;0.1066;8.7372;
1108.5000;0.1058;8.7372;
1108.8000;0.1058;8.7396;
1109.1000;0.1066;8.7396;
1109.4000;0.1058;8.7492;
1109.7000;0.1042;8.7396;
1110.0000;0.1066;8.7516;
1110.3000;0.1058;8.7420;
1110.6000;0.1074;8.7396;
1110.9000;0.1066;8.7204;
1111.2000;0.1066;8.7228;
1111.5000;0.1050;8.7204;
1111.8000;0.1074;8.7228;
1112.1000;0.1058;8.7180;
1112.4000;0.1074;8.7204;
1112.7000;0.1123;8.7300;
1113.0000;0.1083;8.7132;
1113.3000;0.1058;8.7204;
1113.6000;0.1058;8.7204;
1113.9000;0.1148;8.7444;
1114.2000;0.1034;8.7204;
1114.5000;0.1042;8.7156;
1114.8000;0.1042;8.7132;
1115.1000;0.1042;8.7085;
1115.4000;0.1034;8.7109;
1115.7000;0.1050;8.7180;
1116.0000;0.1058;8.7204;
1116.3000;0.1066;8.7228;
1116.6000;0.1058;8.7204;
1116.9000;0.1050;8.7132;
1117.2000;0.1042;8.7085;
1117.5000;0.1042;8.7085;
1117.8000;0.1066;8.7156;
1118.1000;0.1042;8.7252;
1118.4000;0.1066;8.7348;
1118.7000;0.1042;8.7276;
1119.0000;0.1050;8.7276;
1119.3000;0.1042;8.7276;
1119.6000;0.1034;8.7228;
1119.9000;0.1074;8.7324;
1120.2000;0.1042;8.7132;
1120.5000;0.1050;8.7085;
1120.8000;0.1066;8.7228;
1121.1000;0.1066;8.7300;
1121.4000;0.1042;8.7276;
1121.7000;0.1058;8.7324;
1122.0000;0.1066;8.7324;
1122.3000;0.1058;8.7300;
1122.6000;0.1058;8.7324;
1122.9000;0.1083;8.7372;
1123.2000;0.1083;8.7324;
1123.5000;0.1042;8.7300;
1123.8000;0.1066;8.7324;
1124.1000;0.1050;8.7372;
1124.4000;0.1083;8.7492;
1124.7000;0.1083;8.7468;
1125.0000;0.1066;8.7420;
1125.3000;0.1058;8.7372;
1125.6000;0.1042;8.7372;
1125.9000;0.1058;8.7444;
1126.2000;0.1050;8.7372;
1126.5000;0.1123;8.7564;
1126.8000;0.1058;8.7396;
1127.1000;0.1058;8.7420;
1127.4000;0.1058;8.7444;
1127.7000;0.1042;8.7444;
1128.0000;0.1050;8.7396;
1128.3000;0.1066;8.7420;
1128.6000;0.1050;8.7444;
1128.9000;0.1042;8.7372;
1129.2000;0.1018;8.7444;
1129.5000;0.1042;8.7420;
1129.8000;0.1042;8.7396;
1130.1000;0.1042;8.7372;
1130.4000;0.1042;8.7516;
1130.7000;0.1050;8.7468;
1131.0000;0.1050;8.7468;
1131.3000;0.1050;8.7540;
1131.6000;0.1058;8.7588;
1131.9000;0.1042;8.7492;
1132.2000;0.1042;8.7540;
1132.5000;0.1107;8.7636;
1132.8000;0.1050;8.7564;
1133.1000;0.1066;8.7588;
1133.4000;0.1050;8.7564;
1133.7000;0.1066;8.7564;
1134.0000;0.1042;8.7588;
1134.3000;0.1034;8.7588;
1134.6000;0.1050;8.7636;
1134.9000;0.1083;8.7636;
1135.2000;0.1050;8.7564;
1135.5000;0.1034;8.7516;
1135.8000;0.1050;8.7540;
1136.1000;0.1066;8.7660;
1136.4000;0.1058;8.7636;
1136.7000;0.1091;8.7684;
1137.0000;0.1107;8.7684;
1137.3000;0.1099;8.7588;
1137.6000;0.1066;8.7420;
1137.9000;0.1058;8.7420;
1138.2000;0.1018;8.7396;
1138.5000;0.1034;8.7420;
1138.8000;0.1050;8.7444;
1139.1000;0.1058;8.7348;
1139.4000;0.1066;8.7348;
1139.7000;0.1066;8.7300;
1140.0000;0.1058;8.7228;
1140.3000;0.1018;8.7156;
1140.6000;0.1050;8.7204;
1140.9000;0.1050;8.7204;
1141.2000;0.1058;8.7252;
1141.5000;0.1050;8.7132;
1141.8000;0.1026;8.6989;
1142.1000;0.1026;8.7061;
1142.4000;0.1131;8.7420;
1142.7000;0.1074;8.7324;
1143.0000;0.1026;8.7228;
1143.3000;0.1058;8.7252;
1143.6000;0.1066;8.7396;
1143.9000;0.1034;8.7300;
1144.2000;0.1058;8.7276;
1144.5000;0.1026;8.7252;
1144.8000;0.1115;8.7444;
1145.1000;0.1009;8.7180;
1145.4000;0.1058;8.7324;
1145.7000;0.1034;8.7252;
1146.0000;0.1074;8.7372;
1146.3000;0.1050;8.7396;
1146.6000;0.1099;8.7540;
1146.9000;0.1050;8.7348;
1147.2000;0.1058;8.7372;
1147.5000;0.1066;8.7420;
1147.8000;0.1058;8.7396;
1148.1000;0.1066;8.7372;
1148.4000;0.1066;8.7300;
1148.7000;0.1066;8.7300;
1149.0000;0.1074;8.7276;
1149.3000;0.1058;8.7276;
1149.6000;0.1074;8.7324;
1149.9000;0.1066;8.7372;
1150.2000;0.1066;8.7348;
1150.5000;0.1066;8.7324;
1150.8000;0.1042;8.7324;
1151.1000;0.1058;8.7372;
1151.4000;0.1042;8.7300;
1151.7000;0.1058;8.7204;
1152.0000;0.1058;8.7276;
1152.3000;0.1050;8.7324;
1152.6000;0.1083;8.7348;
1152.9000;0.1050;8.7252;
1153.2000;0.1018;8.7156;
1153.5000;0.1042;8.7276;
1153.8000;0.1066;8.7372;
1154.1000;0.1091;8.7420;
1154.4000;0.1091;8.7444;
1154.7000;0.1083;8.7372;
1155.0000;0.1042;8.7228;
1155.3000;0.1042;8.7372;
1155.6000;0.1018;8.7348;
1155.9000;0.1042;8.7444;
1156.2000;0.1050;8.7468;
1156.5000;0.1034;8.7372;
1156.8000;0.1042;8.7396;
1157.1000;0.1026;8.7372;
1157.4000;0.1074;8.7492;
1157.7000;0.1115;8.7540;
1158.0000;0.1074;8.7396;
1158.3000;0.1066;8.7348;
1158.6000;0.1074;8.7324;
1158.9000;0.1074;8.7276;
1159.2000;0.1091;8.7276;
1159.5000;0.1066;8.7276;
1159.8000;0.1058;8.7324;
1160.1000;0.1058;8.7324;
1160.4000;0.1058;8.7372;
1160.7000;0.1042;8.7348;
1161.0000;0.1107;8.7564;
1161.3000;0.1140;8.7803;
1161.6000;0.1066;8.7564;
1161.9000;0.1042;8.7516;
1162.2000;0.1099;8.7756;
1162.5000;0.1074;8.7636;
1162.8000;0.1050;8.7612;
1163.1000;0.1058;8.7636;
1163.4000;0.0993;8.7444;
1163.7000;0.1034;8.7468;
1164.0000;0.1074;8.7588;
1164.3000;0.1066;8.7612;
1164.6000;0.1042;8.7444;
1164.9000;0.1058;8.7444;
1165.2000;0.1066;8.7492;
1165.5000;0.1042;8.7444;
1165.8000;0.1066;8.7444;
1166.1000;0.1042;8.7348;
1166.4000;0.1034;8.7252;
1166.7000;0.1058;8.7276;
1167.0000;0.1058;8.7109;
1167.3000;0.1066;8.7156;
1167.6000;0.1058;8.7228;
1167.9000;0.1074;8.7300;
1168.2000;0.1074;8.7324;
1168.5000;0.1058;8.7324;
1168.8000;0.1099;8.7492;
1169.1000;0.1074;8.7396;
1169.4000;0.1123;8.7588;
1169.7000;0.1026;8.7516;
1170.0000;0.1066;8.7660;
1170.3000;0.1050;8.7588;
1170.6000;0.1074;8.7540;
1170.9000;0.1050;8.7324;
1171.2000;0.1050;8.7348;
1171.5000;0.1083;8.7396;
1171.8000;0.1074;8.7300;
1172.1000;0.1050;8.7324;
1172.4000;0.1066;8.7468;
1172.7000;0.1066;8.7444;
1173.0000;0.1083;8.7468;
1173.3000;0.1066;8.7468;
1173.6000;0.1074;8.7444;
1173.9000;0.1058;8.7420;
1174.2000;0.1083;8.7564;
1174.5000;0.1066;8.7492;
1174.8000;0.1050;8.7492;
1175.1000;0.1009;8.7420;
1175.4000;0.1066;8.7468;
1175.7000;0.1050;8.7396;
1176.0000;0.1050;8.7372;
1176.3000;0.1042;8.7348;
1176.6000;0.1058;8.7300;
1176.9000;0.1050;8.7420;
1177.2000;0.1050;8.7444;
1177.5000;0.1083;8.7564;
1177.8000;0.1042;8.7492;
1178.1000;0.1034;8.7444;
1178.4000;0.1115;8.7756;
1178.7000;0.1058;8.7684;
1179.0000;0.1058;8.7660;
1179.3000;0.1099;8.7708;
1179.6000;0.0985;8.7492;
1179.9000;0.1034;8.7612;
1180.2000;0.1083;8.7708;
1180.5000;0.1058;8.7492;
1180.8000;0.1026;8.7444;
1181.1000;0.1050;8.7468;
1181.4000;0.1066;8.7372;
1181.7000;0.1066;8.7420;
1182.0000;0.1034;8.7324;
1182.3000;0.1042;8.7420;
1182.6000;0.1058;8.7396;
1182.9000;0.1083;8.7540;
1183.2000;0.1083;8.7588;
1183.5000;0.1050;8.7564;
1183.8000;0.1074;8.7684;
1184.1000;0.1066;8.7756;
1184.4000;0.1058;8.7708;
1184.7000;0.1050;8.7660;
1185.0000;0.1050;8.7636;
1185.3000;0.1058;8.7636;
1185.6000;0.1074;8.7708;
1185.9000;0.1066;8.7660;
1186.2000;0.1058;8.7612;
1186.5000;0.1074;8.7588;
1186.8000;0.1083;8.7612;
1187.1000;0.1058;8.7540;
1187.4000;0.1131;8.7636;
1187.7000;0.1042;8.7372;
1188.0000;0.1074;8.7444;
1188.3000;0.1074;8.7444;
1188.6000;0.1058;8.7420;
1188.9000;0.1058;8.7492;
1189.2000;0.1066;8.7516;
1189.5000;0.1083;8.7492;
1189.8000;0.1050;8.7468;
1190.1000;0.1058;8.7516;
1190.4000;0.1042;8.7444;
1190.7000;0.1058;8.7444;
1191.0000;0.1050;8.7396;
1191.3000;0.1042;8.7396;
1191.6000;0.1050;8.7444;
1191.9000;0.1034;8.7372;
1192.2000;0.1074;8.7468;
1192.5000;0.1091;8.7564;
1192.8000;0.1066;8.7516;
1193.1000;0.1091;8.7612;
1193.4000;0.1050;8.7612;
1193.7000;0.1091;8.7708;
1194.0000;0.1058;8.7564;
1194.3000;0.1058;8.7492;
1194.6000;0.1042;8.7468;
1194.9000;0.1058;8.7468;
1195.2000;0.1042;8.7372;
1195.5000;0.1115;8.7468;
1195.8000;0.1058;8.7324;
1196.1000;0.1034;8.7348;
1196.4000;0.1099;8.7540;
1196.7000;0.1050;8.7396;
1197.0000;0.1050;8.7492;
1197.3000;0.1107;8.7564;
1197.6000;0.1058;8.7396;
1197.9000;0.1050;8.7300;
1198.2000;0.1131;8.7540;
1198.5000;0.1050;8.7420;
1198.8000;0.1050;8.7372;
1199.1000;0.1066;8.7444;
1199.4000;0.1066;8.7516;
1199.7000;0.1074;8.7612;
1200.0000;0.1074;8.7660;
1200.3000;0.1074;8.7708;
1200.6000;0.1058;8.7636;
1200.9000;0.1058;8.7564;
1201.2000;0.1058;8.7564;
1201.5000;0.1042;8.7492;
1201.8000;0.1042;8.7492;
1202.1000;0.1066;8.7492;
1202.4000;0.1042;8.7444;
1202.7000;0.1066;8.7516;
1203.0000;0.1042;8.7516;
1203.3000;0.1050;8.7612;
1203.6000;0.1050;8.7660;
1203.9000;0.1058;8.7636;
1204.2000;0.0977;8.7324;
1204.5000;0.1074;8.7588;
1204.8000;0.1074;8.7564;
1205.1000;0.1050;8.7516;
1205.4000;0.1042;8.7420;
1205.7000;0.1058;8.7492;
1206.0000;0.1050;8.7324;
1206.3000;0.1034;8.7300;
1206.6000;0.1058;8.7276;
1206.9000;0.1042;8.7276;
1207.2000;0.1050;8.7348;
1207.5000;0.1050;8.7348;
1207.8000;0.1050;8.7396;
1208.1000;0.1042;8.7396;
1208.4000;0.1066;8.7492;
1208.7000;0.1050;8.7492;
1209.0000;0.1050;8.7540;
1209.3000;0.1042;8.7492;
1209.6000;0.1074;8.7540;
1209.9000;0.1066;8.7540;
1210.2000;0.1058;8.7468;
1210.5000;0.1001;8.7372;
1210.8000;0.1074;8.7516;
1211.1000;0.1058;8.7492;
1211.4000;0.1058;8.7540;
1211.7000;0.1042;8.7588;
1212.0000;0.1058;8.7660;
1212.3000;0.1058;8.7708;
1212.6000;0.1050;8.7660;
1212.9000;0.1050;8.7660;
1213.2000;0.1042;8.7636;
1213.5000;0.1058;8.7684;
1213.8000;0.1058;8.7684;
1214.1000;0.1058;8.7636;
1214.4000;0.1074;8.7779;
1214.7000;0.1042;8.7732;
1215.0000;0.1074;8.7732;
1215.3000;0.1083;8.7779;
1215.6000;0.1091;8.7779;
1215.9000;0.1074;8.7732;
1216.2000;0.1074;8.7756;
1216.5000;0.1058;8.7756;
1216.8000;0.1058;8.7732;
1217.1000;0.1083;8.7684;
1217.4000;0.1018;8.7588;
1217.7000;0.1066;8.7636;
1218.0000;0.1058;8.7660;
1218.3000;0.1058;8.7636;
1218.6000;0.0985;8.7444;
1218.9000;0.1058;8.7588;
1219.2000;0.1066;8.7540;
1219.5000;0.1050;8.7516;
1219.8000;0.1042;8.7588;
1220.1000;0.1058;8.7636;
1220.4000;0.1018;8.7564;
1220.7000;0.1058;8.7636;
1221.0000;0.1058;8.7684;
1221.3000;0.1018;8.7588;
1221.6000;0.1058;8.7684;
1221.9000;0.1050;8.7612;
1222.2000;0.1083;8.7684;
1222.5000;0.1042;8.7636;
1222.8000;0.1066;8.7708;
1223.1000;0.1042;8.7564;
1223.4000;0.1050;8.7588;
1223.7000;0.1074;8.7636;
1224.0000;0.1074;8.7684;
1224.3000;0.1058;8.7636;
1224.6000;0.1050;8.7612;
1224.9000;0.1066;8.7612;
1225.2000;0.1066;8.7612;
1225.5000;0.1074;8.7444;
1225.8000;0.1066;8.7348;
1226.1000;0.1074;8.7372;
1226.4000;0.1058;8.7468;
1226.7000;0.1058;8.7444;
1227.0000;0.1074;8.7444;
1227.3000;0.1042;8.7468;
1227.6000;0.1050;8.7516;
1227.9000;0.1058;8.7636;
1228.2000;0.0985;8.7372;
1228.5000;0.0993;8.7372;
1228.8000;0.1050;8.7540;
1229.1000;0.0977;8.7372;
1229.4000;0.1042;8.7588;
1229.7000;0.1050;8.7516;
1230.0000;0.1074;8.7564;
1230.3000;0.1058;8.7516;
1230.6000;0.1034;8.7444;
1230.9000;0.1066;8.7492;
1231.2000;0.1050;8.7492;
1231.5000;0.1050;8.7492;
1231.8000;0.1058;8.7540;
1232.1000;0.1042;8.7444;
1232.4000;0.1042;8.7468;
1232.7000;0.1058;8.7492;
1233.0000;0.1050;8.7492;
1233.3000;0.1009;8.7372;
1233.6000;0.1058;8.7468;
1233.9000;0.1074;8.7468;
1234.2000;0.1066;8.7420;
1234.5000;0.1058;8.7468;
1234.8000;0.1042;8.7396;
1235.1000;0.1066;8.7444;
1235.4000;0.1083;8.7444;
1235.7000;0.1050;8.7300;
1236.0000;0.1042;8.7252;
1236.3000;0.1074;8.7324;
1236.6000;0.1058;8.7348;
1236.9000;0.1058;8.7444;
1237.2000;0.1050;8.7492;
1237.5000;0.1042;8.7540;
1237.8000;0.1050;8.7444;
1238.1000;0.1058;8.7468;
1238.4000;0.1042;8.7396;
1238.7000;0.1066;8.7516;
1239.0000;0.1066;8.7516;
1239.3000;0.1058;8.7468;
1239.6000;0.1050;8.7444;
1239.9000;0.1058;8.7468;
1240.2000;0.1066;8.7468;
1240.5000;0.1083;8.7516;
1240.8000;0.1050;8.7516;
1241.1000;0.1058;8.7612;
1241.4000;0.0993;8.7516;
1241.7000;0.1058;8.7588;
1242.0000;0.1058;8.7516;
1242.3000;0.1050;8.7468;
1242.6000;0.1042;8.7564;
1242.9000;0.1050;8.7636;
1243.2000;0.1083;8.7732;
1243.5000;0.1034;8.7564;
1243.8000;0.1066;8.7660;
1244.1000;0.1050;8.7636;
1244.4000;0.1066;8.7636;
1244.7000;0.1034;8.7612;
1245.0000;0.1042;8.7588;
1245.3000;0.1066;8.7612;
1245.6000;0.1058;8.7588;
1245.9000;0.1066;8.7612;
1246.2000;0.1074;8.7516;
1246.5000;0.1099;8.7588;
1246.8000;0.1050;8.7492;
1247.1000;0.1074;8.7492;
1247.4000;0.1074;8.7612;
1247.7000;0.0985;8.7420;
1248.0000;0.0993;8.7492;
1248.3000;0.1058;8.7660;
1248.6000;0.1034;8.7612;
1248.9000;0.1066;8.7588;
1249.2000;0.1050;8.7636;
1249.5000;0.1066;8.7636;
1249.8000;0.1042;8.7588;
1250.1000;0.1042;8.7540;
1250.4000;0.1050;8.7444;
1250.7000;0.1050;8.7324;
1251.0000;0.1058;8.7396;
1251.3000;0.1050;8.7324;
1251.6000;0.1058;8.7372;
1251.9000;0.1050;8.7420;
1252.2000;0.1034;8.7420;
1252.5000;0.1001;8.7324;
1252.8000;0.1042;8.7444;
1253.1000;0.1018;8.7372;
1253.4000;0.1050;8.7372;
1253.7000;0.1050;8.7324;
1254.0000;0.1042;8.7348;
1254.3000;0.1058;8.7492;
1254.6000;0.1066;8.7444;
1254.9000;0.1042;8.7420;
1255.2000;0.1050;8.7468;
1255.5000;0.1050;8.7492;
1255.8000;0.1050;8.7516;
1256.1000;0.1042;8.7468;
1256.4000;0.1050;8.7492;
1256.7000;0.1042;8.7516;
1257.0000;0.1034;8.7468;
1257.3000;0.1050;8.7540;
1257.6000;0.1074;8.7708;
1257.9000;0.1066;8.7660;
1258.2000;0.1074;8.7660;
1258.5000;0.1066;8.7612;
1258.8000;0.1066;8.7660;
1259.1000;0.1091;8.7779;
1259.4000;0.1042;8.7612;
1259.7000;0.1050;8.7540;
1260.0000;0.1050;8.7540;
1260.3000;0.1066;8.7564;
1260.6000;0.1074;8.7588;
1260.9000;0.1066;8.7636;
1261.2000;0.1058;8.7540;
1261.5000;0.1058;8.7444;
1261.8000;0.1042;8.7420;
1262.1000;0.1066;8.7444;
1262.4000;0.1050;8.7420;
1262.7000;0.1034;8.7396;
1263.0000;0.1042;8.7348;
1263.3000;0.1001;8.7180;
1263.6000;0.1050;8.7348;
1263.9000;0.1050;8.7372;
1264.2000;0.1018;8.7324;
1264.5000;0.1058;8.7420;
1264.8000;0.1091;8.7468;
1265.1000;0.1074;8.7348;
1265.4000;0.1083;8.7300;
1265.7000;0.1050;8.7252;
1266.0000;0.1091;8.7324;
1266.3000;0.1050;8.7300;
1266.6000;0.1026;8.7252;
1266.9000;0.1042;8.7324;
1267.2000;0.1050;8.7420;
1267.5000;0.1050;8.7396;
1267.8000;0.1042;8.7396;
1268.1000;0.1026;8.7372;
1268.4000;0.1148;8.7636;
1268.7000;0.1050;8.7396;
1269.0000;0.1066;8.7348;
1269.3000;0.1042;8.7228;
1269.6000;0.1026;8.7204;
1269.9000;0.1066;8.7276;
1270.2000;0.1026;8.7204;
1270.5000;0.0993;8.7156;
1270.8000;0.1058;8.7372;
1271.1000;0.1066;8.7372;
1271.4000;0.1050;8.7300;
1271.7000;0.0993;8.7204;
1272.0000;0.1042;8.7348;
1272.3000;0.1050;8.7300;
1272.6000;0.1042;8.7324;
1272.9000;0.1034;8.7252;
1273.2000;0.1026;8.7300;
1273.5000;0.1058;8.7324;
1273.8000;0.1050;8.7300;
1274.1000;0.1026;8.7300;
1274.4000;0.1050;8.7444;
1274.7000;0.1083;8.7420;
1275.0000;0.1066;8.7420;
1275.3000;0.1058;8.7444;
1275.6000;0.1050;8.7492;
1275.9000;0.1042;8.7516;
1276.2000;0.1058;8.7564;
1276.5000;0.1083;8.7636;
1276.8000;0.1050;8.7660;
1277.1000;0.1066;8.7588;
1277.4000;0.1066;8.7708;
1277.7000;0.1058;8.7636;
1278.0000;0.1042;8.7540;
1278.3000;0.1034;8.7588;
1278.6000;0.1042;8.7564;
1278.9000;0.1042;8.7492;
1279.2000;0.1018;8.7444;
1279.5000;0.1074;8.7444;
1279.8000;0.1066;8.7396;
1280.1000;0.1066;8.7396;
1280.4000;0.1058;8.7348;
1280.7000;0.1050;8.7396;
1281.0000;0.1050;8.7396;
1281.3000;0.1058;8.7492;
1281.6000;0.1058;8.7468;
1281.9000;0.1050;8.7468;
1282.2000;0.1042;8.7396;
1282.5000;0.1034;8.7420;
1282.8000;0.1123;8.7660;
1283.1000;0.1099;8.7684;
1283.4000;0.1050;8.7588;
1283.7000;0.1066;8.7492;
1284.0000;0.1050;8.7444;
1284.3000;0.0985;8.7156;
1284.6000;0.1083;8.7372;
1284.9000;0.1140;8.7588;
1285.2000;0.1074;8.7540;
1285.5000;0.1091;8.7636;
1285.8000;0.1058;8.7564;
1286.1000;0.1050;8.7588;
1286.4000;0.1066;8.7660;
1286.7000;0.1009;8.7564;
1287.0000;0.1042;8.7540;
1287.3000;0.1042;8.7540;
1287.6000;0.0993;8.7444;
1287.9000;0.1042;8.7420;
1288.2000;0.0993;8.7276;
1288.5000;0.1042;8.7396;
1288.8000;0.1050;8.7396;
1289.1000;0.1099;8.7468;
1289.4000;0.1034;8.7324;
1289.7000;0.1074;8.7396;
1290.0000;0.1066;8.7396;
1290.3000;0.1050;8.7444;
1290.6000;0.1058;8.7516;
1290.9000;0.1058;8.7492;
1291.2000;0.0961;8.7324;
1291.5000;0.1042;8.7540;
1291.8000;0.1074;8.7564;
1292.1000;0.1066;8.7468;
1292.4000;0.1066;8.7372;
1292.7000;0.1066;8.7348;
1293.0000;0.1058;8.7228;
1293.3000;0.1050;8.7180;
1293.6000;0.1083;8.7372;
1293.9000;0.1058;8.7396;
1294.2000;0.1066;8.7396;
1294.5000;0.1099;8.7348;
1294.8000;0.1042;8.7252;
1295.1000;0.1066;8.7372;
1295.4000;0.1058;8.7420;
1295.7000;0.1026;8.7348;
1296.0000;0.1042;8.7396;
1296.3000;0.1091;8.7540;
1296.6000;0.1026;8.7396;
1296.9000;0.1050;8.7420;
1297.2000;0.1042;8.7444;
1297.5000;0.1042;8.7372;
1297.8000;0.1074;8.7420;
1298.1000;0.1074;8.7372;
1298.4000;0.1050;8.7372;
1298.7000;0.1058;8.7540;
1299.0000;0.1058;8.7516;
1299.3000;0.1042;8.7492;
1299.6000;0.1058;8.7492;
1299.9000;0.1018;8.7372;
1300.2000;0.1066;8.7588;
1300.5000;0.1066;8.7612;
1300.8000;0.1058;8.7636;
1301.1000;0.1026;8.7564;
1301.4000;0.1058;8.7564;
1301.7000;0.1099;8.7708;
1302.0000;0.1042;8.7636;
1302.3000;0.1042;8.7612;
1302.6000;0.1058;8.7516;
1302.9000;0.1066;8.7444;
1303.2000;0.1042;8.7372;
1303.5000;0.1066;8.7396;
1303.8000;0.1050;8.7444;
1304.1000;0.1066;8.7564;
1304.4000;0.1042;8.7468;
1304.7000;0.1083;8.7564;
1305.0000;0.1042;8.7420;
1305.3000;0.1066;8.7492;
1305.6000;0.1034;8.7444;
1305.9000;0.1066;8.7564;
1306.2000;0.1066;8.7540;
1306.5000;0.1074;8.7564;
1306.8000;0.1074;8.7516;
1307.1000;0.1050;8.7372;
1307.4000;0.1042;8.7348;
1307.7000;0.1091;8.7444;
1308.0000;0.1058;8.7396;
1308.3000;0.1058;8.7444;
1308.6000;0.1034;8.7420;
1308.9000;0.1034;8.7444;
1309.2000;0.1050;8.7468;
1309.5000;0.1018;8.7420;
1309.8000;0.1058;8.7516;
1310.1000;0.1058;8.7492;
1310.4000;0.1074;8.7516;
1310.7000;0.1058;8.7516;
1311.0000;0.1066;8.7444;
1311.3000;0.1034;8.7348;
1311.6000;0.1018;8.7300;
1311.9000;0.0993;8.7228;
1312.2000;0.1042;8.7300;
1312.5000;0.1050;8.7324;
1312.8000;0.1058;8.7396;
1313.1000;0.1058;8.7396;
1313.4000;0.1066;8.7420;
1313.7000;0.1058;8.7420;
1314.0000;0.1066;8.7516;
1314.3000;0.1050;8.7396;
1314.6000;0.1074;8.7444;
1314.9000;0.1066;8.7396;
1315.2000;0.1042;8.7324;
1315.5000;0.1042;8.7396;
1315.8000;0.1050;8.7348;
1316.1000;0.1074;8.7300;
1316.4000;0.1066;8.7276;
1316.7000;0.1058;8.7252;
1317.0000;0.1066;8.7228;
1317.3000;0.1074;8.7348;
1317.6000;0.1042;8.7324;
1317.9000;0.1058;8.7372;
1318.2000;0.1074;8.7420;
1318.5000;0.1058;8.7324;
1318.8000;0.1058;8.7396;
1319.1000;0.1050;8.7468;
1319.4000;0.1058;8.7492;
1319.7000;0.1074;8.7516;
1320.0000;0.1009;8.7396;
1320.3000;0.1066;8.7588;
1320.6000;0.1066;8.7588;
1320.9000;0.1058;8.7588;
1321.2000;0.1058;8.7492;
1321.5000;0.1042;8.7468;
1321.8000;0.1058;8.7468;
1322.1000;0.1083;8.7420;
1322.4000;0.1050;8.7276;
1322.7000;0.1066;8.7372;
1323.0000;0.1066;8.7444;
1323.3000;0.1115;8.7564;
1323.6000;0.1058;8.7468;
1323.9000;0.1066;8.7468;
1324.2000;0.1066;8.7372;
1324.5000;0.1058;8.7420;
1324.8000;0.1042;8.7468;
1325.1000;0.1050;8.7372;
1325.4000;0.1001;8.7276;
1325.7000;0.1050;8.7348;
1326.0000;0.0985;8.7204;
1326.3000;0.1034;8.7372;
1326.6000;0.1042;8.7444;
1326.9000;0.1050;8.7372;
1327.2000;0.1066;8.7372;
1327.5000;0.1050;8.7300;
1327.8000;0.1058;8.7204;
1328.1000;0.1026;8.7204;
1328.4000;0.0993;8.7109;
1328.7000;0.1066;8.7324;
1329.0000;0.1066;8.7348;
1329.3000;0.1042;8.7300;
1329.6000;0.1074;8.7324;
1329.9000;0.1058;8.7276;
1330.2000;0.1058;8.7276;
1330.5000;0.1018;8.7228;
1330.8000;0.1058;8.7420;
1331.1000;0.1050;8.7372;
1331.4000;0.1009;8.7180;
1331.7000;0.1034;8.7300;
1332.0000;0.1066;8.7348;
1332.3000;0.1042;8.7324;
1332.6000;0.1026;8.7300;
1332.9000;0.1042;8.7300;
1333.2000;0.1050;8.7324;
1333.5000;0.1066;8.7372;
1333.8000;0.1058;8.7396;
1334.1000;0.1058;8.7396;
1334.4000;0.1042;8.7396;
1334.7000;0.1058;8.7348;
1335.0000;0.1050;8.7324;
1335.3000;0.1050;8.7348;
1335.6000;0.1050;8.7396;
1335.9000;0.1050;8.7372;
1336.2000;0.1026;8.7300;
1336.5000;0.1034;8.7324;
1336.8000;0.1058;8.7348;
1337.1000;0.1050;8.7324;
1337.4000;0.1058;8.7252;
1337.7000;0.1058;8.7156;
1338.0000;0.1034;8.7132;
1338.3000;0.1001;8.7037;
1338.6000;0.1058;8.7228;
1338.9000;0.1058;8.7252;
1339.2000;0.1058;8.7228;
1339.5000;0.1066;8.7300;
1339.8000;0.1042;8.7276;
1340.1000;0.1074;8.7348;
1340.4000;0.1050;8.7276;
1340.7000;0.1058;8.7372;
1341.0000;0.1058;8.7396;
1341.3000;0.1058;8.7324;
1341.6000;0.1042;8.7252;
1341.9000;0.1042;8.7252;
1342.2000;0.1066;8.7348;
1342.5000;0.1074;8.7372;
1342.8000;0.1001;8.7252;
1343.1000;0.1083;8.7348;
1343.4000;0.1050;8.7300;
1343.7000;0.1042;8.7444;
1344.0000;0.0961;8.7156;
1344.3000;0.1066;8.7444;
1344.6000;0.1074;8.7564;
1344.9000;0.1066;8.7444;
1345.2000;0.1026;8.7228;
1345.5000;0.1058;8.7492;
1345.8000;0.1050;8.7492;
1346.1000;0.1018;8.7396;
1346.4000;0.1074;8.7468;
1346.7000;0.1066;8.7372;
1347.0000;0.0977;8.7085;
1347.3000;0.1099;8.7324;
1347.6000;0.1074;8.7276;
1347.9000;0.1042;8.7348;
1348.2000;0.1058;8.7420;
1348.5000;0.1058;8.7348;
1348.8000;0.1083;8.7300;
1349.1000;0.1058;8.7324;
1349.4000;0.1042;8.7420;
1349.7000;0.1050;8.7516;
1350.0000;0.1050;8.7612;
1350.3000;0.1156;8.7827;
1350.6000;0.1034;8.7516;
1350.9000;0.1058;8.7588;
1351.2000;0.1074;8.7612;
1351.5000;0.1107;8.7708;
1351.8000;0.1083;8.7612;
1352.1000;0.1058;8.7420;
1352.4000;0.1123;8.7540;
1352.7000;0.1066;8.7252;
1353.0000;0.1058;8.7300;
1353.3000;0.1066;8.7372;
1353.6000;0.1074;8.7444;
1353.9000;0.1050;8.7372;
1354.2000;0.1050;8.7372;
1354.5000;0.1050;8.7276;
1354.8000;0.1083;8.7420;
1355.1000;0.1074;8.7444;
1355.4000;0.1107;8.7588;
1355.7000;0.1001;8.7396;
1356.0000;0.1083;8.7708;
1356.3000;0.1058;8.7588;
1356.6000;0.1050;8.7708;
1356.9000;0.1058;8.7636;
1357.2000;0.1018;8.7444;
1357.5000;0.1058;8.7516;
1357.8000;0.1074;8.7516;
1358.1000;0.1050;8.7468;
1358.4000;0.1042;8.7444;
1358.7000;0.1058;8.7492;
1359.0000;0.1042;8.7444;
1359.3000;0.1034;8.7396;
1359.6000;0.1050;8.7420;
1359.9000;0.0993;8.7348;
1360.2000;0.1058;8.7420;
1360.5000;0.1042;8.7396;
1360.8000;0.1058;8.7540;
1361.1000;0.1001;8.7444;
1361.4000;0.1050;8.7516;
1361.7000;0.1066;8.7516;
1362.0000;0.1083;8.7588;
1362.3000;0.1026;8.7444;
1362.6000;0.1050;8.7468;
1362.9000;0.1050;8.7492;
1363.2000;0.1091;8.7684;
1363.5000;0.1001;8.7444;
1363.8000;0.1050;8.7492;
1364.1000;0.1058;8.7588;
1364.4000;0.1009;8.7516;
1364.7000;0.1042;8.7636;
1365.0000;0.1066;8.7660;
1365.3000;0.1066;8.7636;
1365.6000;0.1148;8.7851;
1365.9000;0.1018;8.7468;
1366.2000;0.1066;8.7612;
1366.5000;0.1066;8.7660;
1366.8000;0.1058;8.7660;
1367.1000;0.1091;8.7684;
1367.4000;0.1050;8.7636;
1367.7000;0.1050;8.7588;
1368.0000;0.1066;8.7660;
1368.3000;0.1034;8.7588;
1368.6000;0.1018;8.7516;
1368.9000;0.1074;8.7684;
1369.2000;0.1050;8.7636;
1369.5000;0.1026;8.7588;
1369.8000;0.1066;8.7660;
1370.1000;0.0993;8.7468;
1370.4000;0.1074;8.7660;
1370.7000;0.1050;8.7612;
1371.0000;0.1131;8.7708;
1371.3000;0.1026;8.7444;
1371.6000;0.1074;8.7588;
1371.9000;0.1050;8.7612;
1372.2000;0.1074;8.7564;
1372.5000;0.1058;8.7492;
1372.8000;0.1050;8.7468;
1373.1000;0.1042;8.7468;
1373.4000;0.1058;8.7540;
1373.7000;0.1042;8.7660;
1374.0000;0.1058;8.7684;
1374.3000;0.1091;8.7756;
1374.6000;0.1050;8.7684;
1374.9000;0.1107;8.7875;
1375.2000;0.1034;8.7803;
1375.5000;0.1042;8.7851;
1375.8000;0.1034;8.7756;
1376.1000;0.1058;8.7756;
1376.4000;0.1042;8.7684;
1376.7000;0.1066;8.7660;
1377.0000;0.1050;8.7684;
1377.3000;0.1058;8.7636;
1377.6000;0.1042;8.7516;
1377.9000;0.1091;8.7660;
1378.2000;0.1074;8.7540;
1378.5000;0.1066;8.7540;
1378.8000;0.1050;8.7540;
1379.1000;0.1042;8.7660;
1379.4000;0.1050;8.7756;
1379.7000;0.1050;8.7684;
1380.0000;0.1058;8.7660;
1380.3000;0.1050;8.7540;
1380.6000;0.1058;8.7396;
1380.9000;0.1107;8.7540;
1381.2000;0.1083;8.7492;
1381.5000;0.1164;8.7708;
1381.8000;0.1074;8.7564;
1382.1000;0.0928;8.7180;
1382.4000;0.1058;8.7468;
1382.7000;0.1026;8.7444;
1383.0000;0.1091;8.7660;
1383.3000;0.1083;8.7564;
1383.6000;0.1074;8.7564;
1383.9000;0.1050;8.7468;
1384.2000;0.1058;8.7516;
1384.5000;0.1083;8.7636;
1384.8000;0.1066;8.7612;
1385.1000;0.1034;8.7564;
1385.4000;0.1042;8.7588;
1385.7000;0.1050;8.7612;
1386.0000;0.1066;8.7612;
1386.3000;0.1042;8.7540;
1386.6000;0.1131;8.7756;
1386.9000;0.1066;8.7540;
1387.2000;0.1042;8.7564;
1387.5000;0.1050;8.7660;
1387.8000;0.1050;8.7660;
1388.1000;0.1050;8.7612;
1388.4000;0.1050;8.7516;
1388.7000;0.1074;8.7468;
1389.0000;0.1091;8.7516;
1389.3000;0.1050;8.7420;
1389.6000;0.1074;8.7444;
1389.9000;0.1050;8.7396;
1390.2000;0.1018;8.7300;
1390.5000;0.1058;8.7444;
1390.8000;0.1050;8.7372;
1391.1000;0.1050;8.7444;
1391.4000;0.1058;8.7540;
1391.7000;0.1050;8.7660;
1392.0000;0.1058;8.7636;
1392.3000;0.1042;8.7660;
1392.6000;0.1034;8.7564;
1392.9000;0.1018;8.7516;
1393.2000;0.1066;8.7756;
1393.5000;0.1058;8.7732;
1393.8000;0.1042;8.7636;
1394.1000;0.1058;8.7588;
1394.4000;0.1050;8.7588;
1394.7000;0.1050;8.7588;
1395.0000;0.1050;8.7540;
1395.3000;0.1050;8.7492;
1395.6000;0.0977;8.7300;
1395.9000;0.1058;8.7444;
1396.2000;0.0993;8.7252;
1396.5000;0.1034;8.7324;
1396.8000;0.1034;8.7300;
1397.1000;0.1042;8.7372;
1397.4000;0.1050;8.7348;
1397.7000;0.1050;8.7444;
1398.0000;0.1042;8.7492;
1398.3000;0.1050;8.7492;
1398.6000;0.1050;8.7492;
1398.9000;0.1001;8.7300;
1399.2000;0.1050;8.7420;
1399.5000;0.1066;8.7444;
1399.8000;0.1042;8.7348;
