time/ms;Fluo/V;P700 deltaI/I x10³;
-199.8000;0.4135;0.9971;
-199.5000;0.4160;0.9996;
-199.2000;0.4176;1.0070;
-198.9000;0.4168;1.0094;
-198.6000;0.4151;0.9996;
-198.3000;0.4143;1.0020;
-198.0000;0.4151;0.9996;
-197.7000;0.4160;1.0094;
-197.4000;0.4143;1.0045;
-197.1000;0.4143;0.9946;
-196.8000;0.4151;1.0020;
-196.5000;0.4160;0.9971;
-196.2000;0.4151;1.0020;
-195.9000;0.4151;1.0020;
-195.6000;0.4135;0.9971;
-195.3000;0.4160;1.0020;
-195.0000;0.4176;1.0045;
-194.7000;0.4168;1.0094;
-194.4000;0.4160;1.0070;
-194.1000;0.4184;1.0193;
-193.8000;0.4151;1.0144;
-193.5000;0.4168;1.0169;
-193.2000;0.4168;1.0070;
-192.9000;0.4168;1.0070;
-192.6000;0.4160;1.0070;
-192.3000;0.4168;1.0045;
-192.0000;0.4151;1.0020;
-191.7000;0.4168;1.0119;
-191.4000;0.4168;1.0094;
-191.1000;0.4160;1.0119;
-190.8000;0.4143;1.0119;
-190.5000;0.4151;1.0169;
-190.2000;0.4160;1.0193;
-189.9000;0.4176;1.0169;
-189.6000;0.4176;1.0119;
-189.3000;0.4168;1.0045;
-189.0000;0.4176;1.0070;
-188.7000;0.4184;1.0020;
-188.4000;0.4168;1.0070;
-188.1000;0.4160;1.0119;
-187.8000;0.4160;1.0193;
-187.5000;0.4160;1.0218;
-187.2000;0.4176;1.0169;
-186.9000;0.4160;1.0094;
-186.6000;0.4160;1.0070;
-186.3000;0.4160;1.0045;
-186.0000;0.4176;1.0119;
-185.7000;0.4168;1.0144;
-185.4000;0.4160;1.0119;
-185.1000;0.4168;1.0119;
-184.8000;0.4176;1.0119;
-184.5000;0.4151;1.0094;
-184.2000;0.4151;1.0144;
-183.9000;0.4143;1.0144;
-183.6000;0.4168;1.0218;
-183.3000;0.4160;1.0119;
-183.0000;0.4160;1.0045;
-182.7000;0.4151;0.9946;
-182.4000;0.4176;0.9897;
-182.1000;0.4168;0.9872;
-181.8000;0.4184;0.9897;
-181.5000;0.4168;0.9872;
-181.2000;0.4143;0.9848;
-180.9000;0.4168;0.9897;
-180.6000;0.4143;0.9897;
-180.3000;0.4151;0.9774;
-180.0000;0.4143;0.9749;
-179.7000;0.4160;0.9872;
-179.4000;0.4160;0.9897;
-179.1000;0.4168;0.9897;
-178.8000;0.4151;0.9848;
-178.5000;0.4168;0.9922;
-178.2000;0.4168;0.9872;
-177.9000;0.4225;0.9996;
-177.6000;0.4225;1.0045;
-177.3000;0.4168;0.9897;
-177.0000;0.4168;0.9996;
-176.7000;0.4160;1.0020;
-176.4000;0.4168;0.9946;
-176.1000;0.4160;0.9971;
-175.8000;0.4168;0.9996;
-175.5000;0.4160;0.9922;
-175.2000;0.4160;0.9897;
-174.9000;0.4151;0.9848;
-174.6000;0.4151;0.9798;
-174.3000;0.4151;0.9798;
-174.0000;0.4160;0.9823;
-173.7000;0.4160;0.9897;
-173.4000;0.4160;0.9848;
-173.1000;0.4249;1.0119;
-172.8000;0.4184;0.9946;
-172.5000;0.4168;0.9971;
-172.2000;0.4208;0.9996;
-171.9000;0.4176;0.9922;
-171.6000;0.4135;0.9848;
-171.3000;0.4160;0.9897;
-171.0000;0.4103;0.9798;
-170.7000;0.4160;0.9971;
-170.4000;0.4184;0.9946;
-170.1000;0.4143;0.9848;
-169.8000;0.4160;0.9872;
-169.5000;0.4160;0.9897;
-169.2000;0.4176;0.9922;
-168.9000;0.4151;0.9872;
-168.6000;0.4127;0.9897;
-168.3000;0.4160;0.9996;
-168.0000;0.4151;0.9946;
-167.7000;0.4160;0.9996;
-167.4000;0.4143;0.9971;
-167.1000;0.4143;1.0020;
-166.8000;0.4151;1.0094;
-166.5000;0.4265;1.0391;
-166.2000;0.4168;1.0070;
-165.9000;0.4168;1.0045;
-165.6000;0.4184;1.0020;
-165.3000;0.4160;0.9971;
-165.0000;0.4151;0.9946;
-164.7000;0.4168;1.0020;
-164.4000;0.4168;1.0094;
-164.1000;0.4160;1.0144;
-163.8000;0.4135;1.0045;
-163.5000;0.4160;1.0119;
-163.2000;0.4135;0.9996;
-162.9000;0.4160;0.9996;
-162.6000;0.4143;0.9996;
-162.3000;0.4160;0.9996;
-162.0000;0.4151;0.9946;
-161.7000;0.4176;1.0020;
-161.4000;0.4176;1.0045;
-161.1000;0.4151;0.9922;
-160.8000;0.4135;0.9774;
-160.5000;0.4168;0.9872;
-160.2000;0.4176;0.9848;
-159.9000;0.4168;0.9798;
-159.6000;0.4176;0.9823;
-159.3000;0.4168;0.9774;
-159.0000;0.4176;0.9675;
-158.7000;0.4160;0.9724;
-158.4000;0.4127;0.9749;
-158.1000;0.4151;0.9798;
-157.8000;0.4151;0.9848;
-157.5000;0.4176;0.9872;
-157.2000;0.4127;0.9774;
-156.9000;0.4135;0.9848;
-156.6000;0.4168;0.9774;
-156.3000;0.4184;0.9872;
-156.0000;0.4176;0.9774;
-155.7000;0.4176;0.9798;
-155.4000;0.4160;0.9700;
-155.1000;0.4168;0.9774;
-154.8000;0.4184;0.9823;
-154.5000;0.4184;0.9848;
-154.2000;0.4208;0.9922;
-153.9000;0.4176;0.9922;
-153.6000;0.4168;0.9922;
-153.3000;0.4184;0.9872;
-153.0000;0.4168;0.9774;
-152.7000;0.4086;0.9601;
-152.4000;0.4143;0.9650;
-152.1000;0.4168;0.9675;
-151.8000;0.4192;0.9724;
-151.5000;0.4160;0.9724;
-151.2000;0.4119;0.9626;
-150.9000;0.4176;0.9724;
-150.6000;0.4176;0.9700;
-150.3000;0.4176;0.9675;
-150.0000;0.4168;0.9700;
-149.7000;0.4160;0.9774;
-149.4000;0.4143;0.9724;
-149.1000;0.4151;0.9601;
-148.8000;0.4176;0.9749;
-148.5000;0.4127;0.9700;
-148.2000;0.4160;0.9798;
-147.9000;0.4160;0.9774;
-147.6000;0.4168;0.9774;
-147.3000;0.4127;0.9798;
-147.0000;0.4160;0.9798;
-146.7000;0.4176;0.9897;
-146.4000;0.4151;0.9897;
-146.1000;0.4184;0.9922;
-145.8000;0.4176;0.9848;
-145.5000;0.4143;0.9724;
-145.2000;0.4143;0.9774;
-144.9000;0.4143;0.9724;
-144.6000;0.4168;0.9798;
-144.3000;0.4151;0.9798;
-144.0000;0.4160;0.9774;
-143.7000;0.4151;0.9823;
-143.4000;0.4160;0.9872;
-143.1000;0.4160;0.9971;
-142.8000;0.4151;0.9946;
-142.5000;0.4176;1.0045;
-142.2000;0.4184;1.0094;
-141.9000;0.4168;1.0045;
-141.6000;0.4176;0.9996;
-141.3000;0.4143;0.9922;
-141.0000;0.4160;0.9872;
-140.7000;0.4192;0.9897;
-140.4000;0.4176;0.9848;
-140.1000;0.4143;0.9848;
-139.8000;0.4127;0.9798;
-139.5000;0.4119;0.9872;
-139.2000;0.4119;0.9971;
-138.9000;0.4143;0.9872;
-138.6000;0.4127;0.9798;
-138.3000;0.4168;0.9946;
-138.0000;0.4176;0.9996;
-137.7000;0.4241;1.0169;
-137.4000;0.4135;0.9996;
-137.1000;0.4160;1.0119;
-136.8000;0.4160;1.0020;
-136.5000;0.4111;0.9749;
-136.2000;0.4160;0.9922;
-135.9000;0.4143;0.9872;
-135.6000;0.4176;0.9897;
-135.3000;0.4176;0.9946;
-135.0000;0.4160;0.9848;
-134.7000;0.4151;0.9897;
-134.4000;0.4160;0.9946;
-134.1000;0.4160;0.9922;
-133.8000;0.4168;0.9971;
-133.5000;0.4168;0.9996;
-133.2000;0.4151;1.0045;
-132.9000;0.4168;1.0119;
-132.6000;0.4151;1.0144;
-132.3000;0.4160;1.0045;
-132.0000;0.4184;1.0119;
-131.7000;0.4119;0.9946;
-131.4000;0.4168;1.0045;
-131.1000;0.4176;0.9971;
-130.8000;0.4176;0.9922;
-130.5000;0.4168;0.9971;
-130.2000;0.4184;1.0045;
-129.9000;0.4168;1.0020;
-129.6000;0.4151;1.0020;
-129.3000;0.4176;1.0045;
-129.0000;0.4151;0.9946;
-128.7000;0.4168;0.9946;
-128.4000;0.4160;0.9872;
-128.1000;0.4168;0.9971;
-127.8000;0.4168;1.0045;
-127.5000;0.4160;1.0020;
-127.2000;0.4160;1.0020;
-126.9000;0.4160;1.0070;
-126.6000;0.4160;1.0144;
-126.3000;0.4176;1.0218;
-126.0000;0.4127;1.0119;
-125.7000;0.4135;1.0218;
-125.4000;0.4143;1.0144;
-125.1000;0.4143;1.0144;
-124.8000;0.4143;1.0070;
-124.5000;0.4168;1.0119;
-124.2000;0.4143;0.9946;
-123.9000;0.4151;0.9848;
-123.6000;0.4160;0.9823;
-123.3000;0.4176;0.9823;
-123.0000;0.4151;0.9823;
-122.7000;0.4184;0.9848;
-122.4000;0.4143;0.9823;
-122.1000;0.4151;0.9823;
-121.8000;0.4160;0.9922;
-121.5000;0.4176;0.9971;
-121.2000;0.4184;0.9996;
-120.9000;0.4176;0.9946;
-120.6000;0.4176;0.9996;
-120.3000;0.4176;0.9996;
-120.0000;0.4168;1.0045;
-119.7000;0.4111;0.9922;
-119.4000;0.4168;1.0045;
-119.1000;0.4151;0.9971;
-118.8000;0.4143;0.9872;
-118.5000;0.4151;0.9848;
-118.2000;0.4062;0.9626;
-117.9000;0.4119;0.9823;
-117.6000;0.4143;0.9798;
-117.3000;0.4168;0.9946;
-117.0000;0.4127;0.9823;
-116.7000;0.4225;1.0070;
-116.4000;0.4135;0.9872;
-116.1000;0.4176;0.9897;
-115.8000;0.4160;0.9823;
-115.5000;0.4160;0.9798;
-115.2000;0.4160;0.9848;
-114.9000;0.4070;0.9650;
-114.6000;0.4127;0.9897;
-114.3000;0.4127;1.0020;
-114.0000;0.4151;1.0020;
-113.7000;0.4143;0.9946;
-113.4000;0.4241;1.0094;
-113.1000;0.4200;0.9922;
-112.8000;0.4176;0.9848;
-112.5000;0.4160;0.9798;
-112.2000;0.4192;0.9971;
-111.9000;0.4241;1.0193;
-111.6000;0.4160;0.9946;
-111.3000;0.4168;0.9897;
-111.0000;0.4176;0.9897;
-110.7000;0.4143;0.9823;
-110.4000;0.4151;0.9798;
-110.1000;0.4127;0.9823;
-109.8000;0.4160;0.9971;
-109.5000;0.4151;0.9922;
-109.2000;0.4160;0.9922;
-108.9000;0.4168;0.9946;
-108.6000;0.4176;0.9848;
-108.3000;0.4184;0.9922;
-108.0000;0.4168;0.9922;
-107.7000;0.4151;0.9922;
-107.4000;0.4192;0.9946;
-107.1000;0.4160;0.9872;
-106.8000;0.4192;0.9971;
-106.5000;0.4192;0.9922;
-106.2000;0.4192;1.0070;
-105.9000;0.4160;1.0094;
-105.6000;0.4192;1.0045;
-105.3000;0.4168;1.0070;
-105.0000;0.4225;1.0218;
-104.7000;0.4176;1.0020;
-104.4000;0.4151;0.9971;
-104.1000;0.4160;0.9971;
-103.8000;0.4151;0.9872;
-103.5000;0.4151;0.9897;
-103.2000;0.4103;0.9848;
-102.9000;0.4160;0.9971;
-102.6000;0.4127;0.9946;
-102.3000;0.4135;0.9971;
-102.0000;0.4160;1.0070;
-101.7000;0.4103;0.9823;
-101.4000;0.4143;0.9848;
-101.1000;0.4143;0.9872;
-100.8000;0.4127;0.9897;
-100.5000;0.4151;0.9922;
-100.2000;0.4168;0.9946;
-99.9000;0.4151;0.9946;
-99.6000;0.4168;0.9946;
-99.3000;0.4168;0.9996;
-99.0000;0.4160;1.0045;
-98.7000;0.4143;0.9922;
-98.4000;0.4151;0.9922;
-98.1000;0.4160;0.9798;
-97.8000;0.4151;0.9700;
-97.5000;0.4160;0.9675;
-97.2000;0.4143;0.9650;
-96.9000;0.4151;0.9700;
-96.6000;0.4168;0.9675;
-96.3000;0.4208;0.9774;
-96.0000;0.4160;0.9650;
-95.7000;0.4200;0.9823;
-95.4000;0.4070;0.9502;
-95.1000;0.4143;0.9700;
-94.8000;0.4168;0.9650;
-94.5000;0.4168;0.9675;
-94.2000;0.4127;0.9626;
-93.9000;0.4103;0.9601;
-93.6000;0.4168;0.9774;
-93.3000;0.4160;0.9749;
-93.0000;0.4168;0.9922;
-92.7000;0.4176;0.9946;
-92.4000;0.4160;0.9897;
-92.1000;0.4160;0.9897;
-91.8000;0.4119;0.9872;
-91.5000;0.4127;0.9946;
-91.2000;0.4168;1.0020;
-90.9000;0.4135;0.9946;
-90.6000;0.4143;0.9922;
-90.3000;0.4168;0.9996;
-90.0000;0.4151;0.9897;
-89.7000;0.4151;0.9946;
-89.4000;0.4143;0.9971;
-89.1000;0.4143;1.0045;
-88.8000;0.4208;1.0169;
-88.5000;0.4160;1.0094;
-88.2000;0.4168;1.0020;
-87.9000;0.4160;0.9897;
-87.6000;0.4168;0.9897;
-87.3000;0.4176;0.9872;
-87.0000;0.4176;0.9946;
-86.7000;0.4168;0.9897;
-86.4000;0.4168;0.9897;
-86.1000;0.4176;0.9872;
-85.8000;0.4168;0.9848;
-85.5000;0.4168;0.9823;
-85.2000;0.4176;0.9848;
-84.9000;0.4184;0.9971;
-84.6000;0.4168;0.9897;
-84.3000;0.4135;0.9823;
-84.0000;0.4160;0.9922;
-83.7000;0.4176;0.9848;
-83.4000;0.4208;0.9872;
-83.1000;0.4184;0.9848;
-82.8000;0.4184;0.9823;
-82.5000;0.4160;0.9774;
-82.2000;0.4160;0.9798;
-81.9000;0.4160;0.9823;
-81.6000;0.4160;0.9798;
-81.3000;0.4168;0.9823;
-81.0000;0.4160;0.9922;
-80.7000;0.4184;0.9946;
-80.4000;0.4151;0.9897;
-80.1000;0.4103;0.9823;
-79.8000;0.4143;0.9996;
-79.5000;0.4127;1.0045;
-79.2000;0.4062;0.9823;
-78.9000;0.4143;0.9946;
-78.6000;0.4184;0.9946;
-78.3000;0.4184;0.9946;
-78.0000;0.4176;0.9922;
-77.7000;0.4127;0.9848;
-77.4000;0.4200;0.9996;
-77.1000;0.4143;0.9897;
-76.8000;0.4241;1.0169;
-76.5000;0.4176;1.0045;
-76.2000;0.4168;1.0020;
-75.9000;0.4168;0.9946;
-75.6000;0.4168;0.9922;
-75.3000;0.4135;0.9946;
-75.0000;0.4143;0.9946;
-74.7000;0.4160;0.9971;
-74.4000;0.4160;0.9897;
-74.1000;0.4168;0.9897;
-73.8000;0.4176;0.9946;
-73.5000;0.4168;0.9996;
-73.2000;0.4168;0.9971;
-72.9000;0.4176;0.9996;
-72.6000;0.4192;0.9946;
-72.3000;0.4184;0.9946;
-72.0000;0.4184;0.9897;
-71.7000;0.4168;0.9897;
-71.4000;0.4151;0.9823;
-71.1000;0.4151;0.9798;
-70.8000;0.4103;0.9724;
-70.5000;0.4135;0.9946;
-70.2000;0.4160;1.0144;
-69.9000;0.4143;1.0218;
-69.6000;0.4168;1.0317;
-69.3000;0.4168;1.0267;
-69.0000;0.4160;1.0144;
-68.7000;0.4176;1.0094;
-68.4000;0.4168;1.0070;
-68.1000;0.4143;1.0020;
-67.8000;0.4176;1.0070;
-67.5000;0.4160;1.0045;
-67.2000;0.4168;1.0094;
-66.9000;0.4160;1.0193;
-66.6000;0.4168;1.0243;
-66.3000;0.4160;1.0193;
-66.0000;0.4160;1.0193;
-65.7000;0.4176;1.0119;
-65.4000;0.4168;1.0144;
-65.1000;0.4176;1.0144;
-64.8000;0.4160;1.0020;
-64.5000;0.4119;0.9971;
-64.2000;0.4151;0.9996;
-63.9000;0.4168;1.0045;
-63.6000;0.4176;1.0094;
-63.3000;0.4160;1.0020;
-63.0000;0.4168;1.0045;
-62.7000;0.4160;1.0020;
-62.4000;0.4184;1.0020;
-62.1000;0.4176;0.9946;
-61.8000;0.4192;1.0020;
-61.5000;0.4225;1.0094;
-61.2000;0.4119;0.9897;
-60.9000;0.4176;1.0045;
-60.6000;0.4176;1.0020;
-60.3000;0.4192;1.0045;
-60.0000;0.4168;1.0094;
-59.7000;0.4200;1.0119;
-59.4000;0.4151;1.0045;
-59.1000;0.4168;0.9996;
-58.8000;0.4176;0.9996;
-58.5000;0.4160;1.0020;
-58.2000;0.4217;1.0094;
-57.9000;0.4176;0.9996;
-57.6000;0.4176;0.9996;
-57.3000;0.4184;1.0020;
-57.0000;0.4151;0.9971;
-56.7000;0.4151;0.9971;
-56.4000;0.4143;0.9922;
-56.1000;0.4168;0.9996;
-55.8000;0.4160;0.9922;
-55.5000;0.4168;0.9996;
-55.2000;0.4176;1.0020;
-54.9000;0.4168;1.0045;
-54.6000;0.4160;1.0045;
-54.3000;0.4151;0.9971;
-54.0000;0.4168;0.9996;
-53.7000;0.4192;1.0070;
-53.4000;0.4168;0.9946;
-53.1000;0.4176;0.9971;
-52.8000;0.4168;0.9971;
-52.5000;0.4151;0.9996;
-52.2000;0.4176;1.0020;
-51.9000;0.4160;0.9971;
-51.6000;0.4151;0.9922;
-51.3000;0.4176;1.0094;
-51.0000;0.4160;1.0020;
-50.7000;0.4160;1.0119;
-50.4000;0.4184;1.0193;
-50.1000;0.4168;1.0169;
-49.8000;0.4176;1.0292;
-49.5000;0.4151;1.0243;
-49.2000;0.4151;1.0243;
-48.9000;0.4168;1.0317;
-48.6000;0.4135;1.0317;
-48.3000;0.4176;1.0341;
-48.0000;0.4143;1.0341;
-47.7000;0.4160;1.0366;
-47.4000;0.4151;1.0292;
-47.1000;0.4176;1.0243;
-46.8000;0.4143;1.0193;
-46.5000;0.4143;1.0144;
-46.2000;0.4184;1.0094;
-45.9000;0.4160;0.9996;
-45.6000;0.4160;0.9922;
-45.3000;0.4151;0.9996;
-45.0000;0.4143;1.0070;
-44.7000;0.4168;1.0094;
-44.4000;0.4143;1.0070;
-44.1000;0.4160;0.9897;
-43.8000;0.4168;0.9971;
-43.5000;0.4184;1.0045;
-43.2000;0.4168;1.0045;
-42.9000;0.4176;0.9996;
-42.6000;0.4151;0.9897;
-42.3000;0.4176;0.9971;
-42.0000;0.4176;0.9996;
-41.7000;0.4143;1.0020;
-41.4000;0.4160;1.0119;
-41.1000;0.4168;1.0169;
-40.8000;0.4176;1.0119;
-40.5000;0.4103;0.9897;
-40.2000;0.4151;0.9996;
-39.9000;0.4143;0.9971;
-39.6000;0.4160;0.9996;
-39.3000;0.4184;0.9996;
-39.0000;0.4168;0.9922;
-38.7000;0.4151;0.9922;
-38.4000;0.4160;1.0020;
-38.1000;0.4192;1.0070;
-37.8000;0.4176;0.9971;
-37.5000;0.4160;0.9946;
-37.2000;0.4168;0.9946;
-36.9000;0.4176;0.9922;
-36.6000;0.4184;0.9922;
-36.3000;0.4184;0.9897;
-36.0000;0.4176;0.9897;
-35.7000;0.4241;0.9971;
-35.4000;0.4176;0.9848;
-35.1000;0.4160;0.9823;
-34.8000;0.4135;0.9774;
-34.5000;0.4176;0.9897;
-34.2000;0.4160;0.9946;
-33.9000;0.4119;0.9897;
-33.6000;0.4160;1.0020;
-33.3000;0.4160;1.0094;
-33.0000;0.4168;1.0045;
-32.7000;0.4151;0.9996;
-32.4000;0.4143;0.9946;
-32.1000;0.4168;1.0020;
-31.8000;0.4168;1.0094;
-31.5000;0.4135;1.0020;
-31.2000;0.4176;1.0144;
-30.9000;0.4160;1.0045;
-30.6000;0.4160;0.9922;
-30.3000;0.4160;0.9872;
-30.0000;0.4151;0.9823;
-29.7000;0.4151;0.9922;
-29.4000;0.4143;0.9922;
-29.1000;0.4225;1.0070;
-28.8000;0.4160;0.9872;
-28.5000;0.4143;0.9823;
-28.2000;0.4151;0.9749;
-27.9000;0.4168;0.9749;
-27.6000;0.4168;0.9872;
-27.3000;0.4176;0.9946;
-27.0000;0.4160;0.9897;
-26.7000;0.4168;0.9971;
-26.4000;0.4168;0.9971;
-26.1000;0.4176;0.9922;
-25.8000;0.4184;0.9946;
-25.5000;0.4200;0.9946;
-25.2000;0.4127;0.9848;
-24.9000;0.4160;0.9823;
-24.6000;0.4192;0.9946;
-24.3000;0.4168;0.9946;
-24.0000;0.4168;0.9946;
-23.7000;0.4143;0.9946;
-23.4000;0.4160;0.9922;
-23.1000;0.4160;0.9922;
-22.8000;0.4143;0.9897;
-22.5000;0.4168;0.9946;
-22.2000;0.4135;0.9823;
-21.9000;0.4160;0.9848;
-21.6000;0.4086;0.9749;
-21.3000;0.4168;0.9946;
-21.0000;0.4176;0.9848;
-20.7000;0.4168;0.9848;
-20.4000;0.4160;0.9872;
-20.1000;0.4151;0.9897;
-19.8000;0.4151;0.9922;
-19.5000;0.4160;1.0070;
-19.2000;0.4119;0.9872;
-18.9000;0.4184;0.9996;
-18.6000;0.4160;0.9946;
-18.3000;0.4168;0.9848;
-18.0000;0.4151;0.9823;
-17.7000;0.4160;0.9872;
-17.4000;0.4160;0.9897;
-17.1000;0.4151;0.9946;
-16.8000;0.4143;0.9946;
-16.5000;0.4111;0.9922;
-16.2000;0.4176;1.0020;
-15.9000;0.4168;0.9971;
-15.6000;0.4160;0.9823;
-15.3000;0.4143;0.9675;
-15.0000;0.4184;0.9749;
-14.7000;0.4135;0.9749;
-14.4000;0.4184;0.9823;
-14.1000;0.4200;0.9798;
-13.8000;0.4160;0.9675;
-13.5000;0.4168;0.9700;
-13.2000;0.4160;0.9749;
-12.9000;0.4160;0.9675;
-12.6000;0.4143;0.9700;
-12.3000;0.4168;0.9823;
-12.0000;0.4151;0.9798;
-11.7000;0.4103;0.9675;
-11.4000;0.4143;0.9798;
-11.1000;0.4151;0.9848;
-10.8000;0.4192;0.9922;
-10.5000;0.4200;0.9922;
-10.2000;0.4151;0.9724;
-9.9000;0.4151;0.9798;
-9.6000;0.4176;0.9774;
-9.3000;0.4176;0.9798;
-9.0000;0.4151;0.9798;
-8.7000;0.4135;0.9971;
-8.4000;0.4160;0.9971;
-8.1000;0.4160;0.9897;
-7.8000;0.4135;0.9774;
-7.5000;0.4151;0.9749;
-7.2000;0.4192;0.9872;
-6.9000;0.4160;0.9774;
-6.6000;0.4160;0.9823;
-6.3000;0.4151;0.9675;
-6.0000;0.4143;0.9675;
-5.7000;0.4160;0.9749;
-5.4000;0.4176;0.9700;
-5.1000;0.4143;0.9601;
-4.8000;0.4151;0.9626;
-4.5000;0.4160;0.9749;
-4.2000;0.4151;0.9798;
-3.9000;0.4160;0.9872;
-3.6000;0.4192;0.9922;
-3.3000;0.4160;0.9823;
-3.0000;0.4184;0.9872;
-2.7000;0.4217;0.9922;
-2.4000;0.4160;0.9823;
-2.1000;0.4274;1.0070;
-1.8000;0.4168;0.9724;
-1.5000;0.4160;0.9601;
-1.2000;0.4184;0.9774;
-0.9000;0.4143;0.9650;
-0.6000;0.4151;0.9749;
-0.3000;0.4151;0.9774;
0.0000;0.4151;0.9774;
0.3000;0.4257;0.9848;
0.6000;0.4396;1.0094;
0.9000;0.4648;1.0712;
1.2000;0.4656;1.0810;
1.5000;0.4746;1.1106;
1.8000;0.4794;1.1378;
2.1000;0.4884;1.1674;
2.4000;0.4900;1.1748;
2.7000;0.4949;1.1872;
3.0000;0.4957;1.1872;
3.3000;0.4998;1.2044;
3.6000;0.4998;1.2094;
3.9000;0.5047;1.2168;
4.2000;0.5022;1.2118;
4.5000;0.5112;1.2415;
4.8000;0.5088;1.2390;
5.1000;0.5096;1.2390;
5.4000;0.5120;1.2439;
5.7000;0.5136;1.2464;
6.0000;0.5144;1.2563;
6.3000;0.5169;1.2587;
6.6000;0.5120;1.2612;
6.9000;0.5161;1.2686;
7.2000;0.5201;1.2785;
7.5000;0.5177;1.2785;
7.8000;0.5193;1.2785;
8.1000;0.5201;1.2785;
8.4000;0.5218;1.2785;
8.7000;0.5226;1.2809;
9.0000;0.5226;1.2686;
9.3000;0.5218;1.2735;
9.6000;0.5226;1.2834;
9.9000;0.5250;1.2957;
10.2000;0.5250;1.2908;
10.5000;0.5226;1.2883;
10.8000;0.5250;1.2859;
11.1000;0.5291;1.3007;
11.4000;0.5258;1.2834;
11.7000;0.5275;1.2760;
12.0000;0.5275;1.2785;
12.3000;0.5307;1.2859;
12.6000;0.5291;1.2883;
12.9000;0.5275;1.2883;
13.2000;0.5340;1.3081;
13.5000;0.5299;1.3032;
13.8000;0.5299;1.3032;
14.1000;0.5299;1.3106;
14.4000;0.5307;1.3106;
14.7000;0.5324;1.3081;
15.0000;0.5389;1.3254;
15.3000;0.5315;1.3056;
15.6000;0.5299;1.2933;
15.9000;0.5332;1.3007;
16.2000;0.5364;1.2982;
16.5000;0.5340;1.2933;
16.8000;0.5332;1.2834;
17.1000;0.5348;1.2957;
17.4000;0.5315;1.2933;
17.7000;0.5356;1.2982;
18.0000;0.5324;1.2834;
18.3000;0.5332;1.2785;
18.6000;0.5332;1.2785;
18.9000;0.5372;1.2957;
19.2000;0.5332;1.2834;
19.5000;0.5356;1.2883;
19.8000;0.5340;1.2883;
20.1000;0.5348;1.2883;
20.4000;0.5356;1.2933;
20.7000;0.5413;1.3032;
21.0000;0.5364;1.2883;
21.3000;0.5446;1.3081;
21.6000;0.5421;1.3032;
21.9000;0.5421;1.2957;
22.2000;0.5372;1.2883;
22.5000;0.5389;1.2883;
22.8000;0.5372;1.2883;
23.1000;0.5397;1.2908;
23.4000;0.5470;1.3106;
23.7000;0.5340;1.2760;
24.0000;0.5397;1.2834;
24.3000;0.5413;1.2834;
24.6000;0.5405;1.2809;
24.9000;0.5429;1.2859;
25.2000;0.5397;1.2785;
25.5000;0.5413;1.2686;
25.8000;0.5405;1.2587;
26.1000;0.5405;1.2637;
26.4000;0.5348;1.2563;
26.7000;0.5381;1.2661;
27.0000;0.5389;1.2785;
27.3000;0.5389;1.2735;
27.6000;0.5405;1.2711;
27.9000;0.5421;1.2711;
28.2000;0.5413;1.2637;
28.5000;0.5381;1.2538;
28.8000;0.5446;1.2711;
29.1000;0.5438;1.2735;
29.4000;0.5454;1.2859;
29.7000;0.5421;1.2735;
30.0000;0.5429;1.2711;
30.3000;0.5405;1.2686;
30.6000;0.5438;1.2908;
30.9000;0.5446;1.2982;
31.2000;0.5421;1.2908;
31.5000;0.5454;1.3032;
31.8000;0.5438;1.3007;
32.1000;0.5421;1.2957;
32.4000;0.5462;1.3007;
32.7000;0.5438;1.3007;
33.0000;0.5413;1.2957;
33.3000;0.5438;1.3056;
33.6000;0.5438;1.3007;
33.9000;0.5421;1.2957;
34.2000;0.5421;1.2908;
34.5000;0.5446;1.2859;
34.8000;0.5429;1.2809;
35.1000;0.5429;1.2785;
35.4000;0.5438;1.2711;
35.7000;0.5397;1.2612;
36.0000;0.5438;1.2809;
36.3000;0.5413;1.2883;
36.6000;0.5389;1.2834;
36.9000;0.5438;1.2982;
37.2000;0.5446;1.2859;
37.5000;0.5389;1.2785;
37.8000;0.5356;1.2711;
38.1000;0.5397;1.2785;
38.4000;0.5446;1.2883;
38.7000;0.5438;1.2760;
39.0000;0.5397;1.2661;
39.3000;0.5462;1.2883;
39.6000;0.5519;1.3180;
39.9000;0.5478;1.3130;
40.2000;0.5446;1.3032;
40.5000;0.5454;1.2957;
40.8000;0.5446;1.2908;
41.1000;0.5470;1.2933;
41.4000;0.5462;1.3056;
41.7000;0.5454;1.2957;
42.0000;0.5462;1.3007;
42.3000;0.5462;1.2957;
42.6000;0.5454;1.3032;
42.9000;0.5470;1.3081;
43.2000;0.5405;1.2883;
43.5000;0.5454;1.2933;
43.8000;0.5462;1.2982;
44.1000;0.5519;1.3180;
44.4000;0.5462;1.2957;
44.7000;0.5446;1.2957;
45.0000;0.5470;1.2908;
45.3000;0.5429;1.2809;
45.6000;0.5381;1.2711;
45.9000;0.5454;1.2982;
46.2000;0.5429;1.2908;
46.5000;0.5462;1.2957;
46.8000;0.5446;1.2908;
47.1000;0.5454;1.2957;
47.4000;0.5421;1.2957;
47.7000;0.5462;1.2982;
48.0000;0.5462;1.2908;
48.3000;0.5446;1.2908;
48.6000;0.5446;1.2908;
48.9000;0.5462;1.2982;
49.2000;0.5438;1.2933;
49.5000;0.5454;1.3032;
49.8000;0.5462;1.3056;
50.1000;0.5462;1.3106;
50.4000;0.5478;1.3056;
50.7000;0.5454;1.2908;
51.0000;0.5462;1.2908;
51.3000;0.5462;1.2933;
51.6000;0.5438;1.2760;
51.9000;0.5470;1.2809;
52.2000;0.5454;1.2834;
52.5000;0.5470;1.2933;
52.8000;0.5486;1.3081;
53.1000;0.5470;1.3130;
53.4000;0.5462;1.3155;
53.7000;0.5372;1.2933;
54.0000;0.5478;1.3155;
54.3000;0.5486;1.3155;
54.6000;0.5446;1.3056;
54.9000;0.5478;1.2957;
55.2000;0.5486;1.2957;
55.5000;0.5462;1.2933;
55.8000;0.5511;1.2982;
56.1000;0.5454;1.2908;
56.4000;0.5462;1.2859;
56.7000;0.5446;1.2809;
57.0000;0.5470;1.2957;
57.3000;0.5486;1.3032;
57.6000;0.5478;1.2933;
57.9000;0.5495;1.3032;
58.2000;0.5478;1.3032;
58.5000;0.5454;1.3007;
58.8000;0.5478;1.3032;
59.1000;0.5470;1.3007;
59.4000;0.5462;1.2933;
59.7000;0.5470;1.2908;
60.0000;0.5429;1.2834;
60.3000;0.5543;1.3204;
60.6000;0.5511;1.3106;
60.9000;0.5446;1.2908;
61.2000;0.5470;1.2883;
61.5000;0.5478;1.2982;
61.8000;0.5413;1.2859;
62.1000;0.5478;1.3032;
62.4000;0.5454;1.2982;
62.7000;0.5486;1.3032;
63.0000;0.5478;1.2982;
63.3000;0.5486;1.2908;
63.6000;0.5486;1.2933;
63.9000;0.5478;1.2883;
64.2000;0.5478;1.2809;
64.5000;0.5543;1.2982;
64.8000;0.5486;1.2735;
65.1000;0.5470;1.2587;
65.4000;0.5495;1.2686;
65.7000;0.5478;1.2587;
66.0000;0.5478;1.2538;
66.3000;0.5470;1.2464;
66.6000;0.5438;1.2439;
66.9000;0.5462;1.2612;
67.2000;0.5478;1.2735;
67.5000;0.5454;1.2637;
67.8000;0.5454;1.2637;
68.1000;0.5478;1.2760;
68.4000;0.5503;1.2834;
68.7000;0.5462;1.2809;
69.0000;0.5470;1.2883;
69.3000;0.5462;1.2908;
69.6000;0.5511;1.3007;
69.9000;0.5478;1.2859;
70.2000;0.5470;1.2760;
70.5000;0.5478;1.2809;
70.8000;0.5478;1.2908;
71.1000;0.5478;1.2908;
71.4000;0.5478;1.2933;
71.7000;0.5486;1.3056;
72.0000;0.5478;1.2982;
72.3000;0.5486;1.3032;
72.6000;0.5543;1.3180;
72.9000;0.5462;1.2908;
73.2000;0.5470;1.2957;
73.5000;0.5470;1.3056;
73.8000;0.5478;1.3032;
74.1000;0.5470;1.3130;
74.4000;0.5462;1.3180;
74.7000;0.5454;1.3106;
75.0000;0.5478;1.3180;
75.3000;0.5478;1.3155;
75.6000;0.5519;1.3180;
75.9000;0.5478;1.3081;
76.2000;0.5478;1.3056;
76.5000;0.5486;1.3056;
76.8000;0.5478;1.2957;
77.1000;0.5462;1.2883;
77.4000;0.5495;1.2933;
77.7000;0.5470;1.2908;
78.0000;0.5470;1.2933;
78.3000;0.5454;1.2957;
78.6000;0.5486;1.3007;
78.9000;0.5478;1.2908;
79.2000;0.5478;1.2883;
79.5000;0.5470;1.2957;
79.8000;0.5462;1.2957;
80.1000;0.5478;1.3032;
80.4000;0.5503;1.3081;
80.7000;0.5478;1.3081;
81.0000;0.5478;1.2982;
81.3000;0.5486;1.2982;
81.6000;0.5495;1.2859;
81.9000;0.5462;1.2735;
82.2000;0.5478;1.2760;
82.5000;0.5535;1.2933;
82.8000;0.5495;1.2785;
83.1000;0.5470;1.2809;
83.4000;0.5438;1.2859;
83.7000;0.5486;1.2982;
84.0000;0.5495;1.2933;
84.3000;0.5495;1.2933;
84.6000;0.5486;1.2933;
84.9000;0.5486;1.2859;
85.2000;0.5495;1.2982;
85.5000;0.5470;1.2908;
85.8000;0.5495;1.2859;
86.1000;0.5462;1.2883;
86.4000;0.5421;1.2785;
86.7000;0.5486;1.2908;
87.0000;0.5478;1.2785;
87.3000;0.5462;1.2735;
87.6000;0.5446;1.2686;
87.9000;0.5495;1.2859;
88.2000;0.5429;1.2809;
88.5000;0.5478;1.2933;
88.8000;0.5478;1.2982;
89.1000;0.5486;1.3007;
89.4000;0.5446;1.2908;
89.7000;0.5478;1.2957;
90.0000;0.5462;1.2957;
90.3000;0.5486;1.2982;
90.6000;0.5446;1.2834;
90.9000;0.5470;1.2859;
91.2000;0.5413;1.2735;
91.5000;0.5429;1.2809;
91.8000;0.5486;1.2883;
92.1000;0.5560;1.3155;
92.4000;0.5478;1.3007;
92.7000;0.5462;1.3032;
93.0000;0.5486;1.3056;
93.3000;0.5470;1.3032;
93.6000;0.5438;1.2957;
93.9000;0.5462;1.3007;
94.2000;0.5478;1.3081;
94.5000;0.5438;1.2982;
94.8000;0.5519;1.3204;
95.1000;0.5470;1.3130;
95.4000;0.5486;1.3081;
95.7000;0.5462;1.2859;
96.0000;0.5503;1.2933;
96.3000;0.5486;1.2933;
96.6000;0.5495;1.2908;
96.9000;0.5495;1.2908;
97.2000;0.5495;1.2908;
97.5000;0.5454;1.2785;
97.8000;0.5478;1.2859;
98.1000;0.5454;1.2711;
98.4000;0.5551;1.2908;
98.7000;0.5478;1.2711;
99.0000;0.5478;1.2785;
99.3000;0.5478;1.2686;
99.6000;0.5470;1.2735;
99.9000;0.5470;1.2711;
100.2000;0.5462;1.2735;
100.5000;0.5535;1.2859;
100.8000;0.5495;1.2834;
101.1000;0.5511;1.2859;
101.4000;0.5486;1.2809;
101.7000;0.5462;1.2711;
102.0000;0.5478;1.2785;
102.3000;0.5503;1.2834;
102.6000;0.5495;1.2834;
102.9000;0.5470;1.2859;
103.2000;0.5470;1.2883;
103.5000;0.5527;1.2957;
103.8000;0.5478;1.2933;
104.1000;0.5454;1.2883;
104.4000;0.5470;1.2957;
104.7000;0.5486;1.2957;
105.0000;0.5462;1.2957;
105.3000;0.5486;1.2908;
105.6000;0.5478;1.2883;
105.9000;0.5495;1.2859;
106.2000;0.5446;1.2760;
106.5000;0.5503;1.2982;
106.8000;0.5454;1.2834;
107.1000;0.5486;1.2883;
107.4000;0.5495;1.2859;
107.7000;0.5495;1.2908;
108.0000;0.5478;1.2933;
108.3000;0.5495;1.3007;
108.6000;0.5495;1.3032;
108.9000;0.5495;1.3032;
109.2000;0.5446;1.2883;
109.5000;0.5478;1.2883;
109.8000;0.5413;1.2735;
110.1000;0.5503;1.2982;
110.4000;0.5486;1.3007;
110.7000;0.5495;1.3056;
111.0000;0.5486;1.3106;
111.3000;0.5511;1.3155;
111.6000;0.5495;1.3180;
111.9000;0.5470;1.3130;
112.2000;0.5584;1.3402;
112.5000;0.5503;1.3106;
112.8000;0.5511;1.3032;
113.1000;0.5503;1.3032;
113.4000;0.5454;1.2859;
113.7000;0.5495;1.2957;
114.0000;0.5503;1.2908;
114.3000;0.5486;1.2933;
114.6000;0.5495;1.2908;
114.9000;0.5495;1.2859;
115.2000;0.5462;1.2883;
115.5000;0.5495;1.2933;
115.8000;0.5486;1.2883;
116.1000;0.5560;1.3081;
116.4000;0.5478;1.2982;
116.7000;0.5495;1.3007;
117.0000;0.5486;1.3007;
117.3000;0.5478;1.3081;
117.6000;0.5478;1.3056;
117.9000;0.5478;1.3056;
118.2000;0.5470;1.3056;
118.5000;0.5503;1.3007;
118.8000;0.5454;1.2908;
119.1000;0.5486;1.2982;
119.4000;0.5478;1.2982;
119.7000;0.5478;1.2883;
120.0000;0.5470;1.2834;
120.3000;0.5486;1.2883;
120.6000;0.5478;1.2859;
120.9000;0.5495;1.2908;
121.2000;0.5486;1.2809;
121.5000;0.5486;1.2809;
121.8000;0.5519;1.2834;
122.1000;0.5478;1.2809;
122.4000;0.5478;1.2785;
122.7000;0.5478;1.2908;
123.0000;0.5470;1.2933;
123.3000;0.5478;1.2834;
123.6000;0.5470;1.2883;
123.9000;0.5486;1.2933;
124.2000;0.5470;1.2883;
124.5000;0.5478;1.2883;
124.8000;0.5551;1.2982;
125.1000;0.5478;1.2785;
125.4000;0.5495;1.2834;
125.7000;0.5470;1.2760;
126.0000;0.5478;1.2785;
126.3000;0.5478;1.2785;
126.6000;0.5511;1.2908;
126.9000;0.5478;1.2908;
127.2000;0.5486;1.2859;
127.5000;0.5454;1.2785;
127.8000;0.5462;1.2883;
128.1000;0.5478;1.2957;
128.4000;0.5454;1.2785;
128.7000;0.5470;1.2785;
129.0000;0.5495;1.2883;
129.3000;0.5511;1.2908;
129.6000;0.5486;1.2834;
129.9000;0.5486;1.2809;
130.2000;0.5486;1.2834;
130.5000;0.5478;1.2785;
130.8000;0.5486;1.2834;
131.1000;0.5486;1.2834;
131.4000;0.5511;1.2957;
131.7000;0.5519;1.2908;
132.0000;0.5495;1.2883;
132.3000;0.5454;1.2883;
132.6000;0.5519;1.2933;
132.9000;0.5486;1.3007;
133.2000;0.5519;1.3081;
133.5000;0.5486;1.3007;
133.8000;0.5551;1.3204;
134.1000;0.5462;1.2933;
134.4000;0.5527;1.3032;
134.7000;0.5511;1.3032;
135.0000;0.5486;1.2957;
135.3000;0.5486;1.3081;
135.6000;0.5495;1.3155;
135.9000;0.5495;1.3155;
136.2000;0.5600;1.3426;
136.5000;0.5503;1.3081;
136.8000;0.5462;1.2908;
137.1000;0.5446;1.2809;
137.4000;0.5495;1.2859;
137.7000;0.5486;1.2785;
138.0000;0.5495;1.2760;
138.3000;0.5478;1.2760;
138.6000;0.5486;1.2859;
138.9000;0.5478;1.2908;
139.2000;0.5478;1.2957;
139.5000;0.5429;1.2809;
139.8000;0.5486;1.2957;
140.1000;0.5478;1.2933;
140.4000;0.5454;1.2735;
140.7000;0.5470;1.2785;
141.0000;0.5446;1.2735;
141.3000;0.5495;1.2760;
141.6000;0.5551;1.2957;
141.9000;0.5478;1.2834;
142.2000;0.5486;1.2908;
142.5000;0.5527;1.2883;
142.8000;0.5470;1.2785;
143.1000;0.5470;1.2760;
143.4000;0.5462;1.2686;
143.7000;0.5478;1.2711;
144.0000;0.5486;1.2711;
144.3000;0.5462;1.2661;
144.6000;0.5438;1.2513;
144.9000;0.5446;1.2464;
145.2000;0.5511;1.2563;
145.5000;0.5495;1.2538;
145.8000;0.5429;1.2415;
146.1000;0.5486;1.2587;
146.4000;0.5495;1.2661;
146.7000;0.5495;1.2637;
147.0000;0.5495;1.2587;
147.3000;0.5486;1.2513;
147.6000;0.5519;1.2513;
147.9000;0.5446;1.2365;
148.2000;0.5486;1.2513;
148.5000;0.5478;1.2538;
148.8000;0.5486;1.2637;
149.1000;0.5478;1.2637;
149.4000;0.5478;1.2538;
149.7000;0.5551;1.2661;
150.0000;0.5495;1.2563;
150.3000;0.5470;1.2538;
150.6000;0.5527;1.2686;
150.9000;0.5486;1.2587;
151.2000;0.5486;1.2513;
151.5000;0.5495;1.2538;
151.8000;0.5519;1.2513;
152.1000;0.5470;1.2464;
152.4000;0.5470;1.2563;
152.7000;0.5478;1.2661;
153.0000;0.5495;1.2711;
153.3000;0.5429;1.2439;
153.6000;0.5438;1.2661;
153.9000;0.5486;1.2834;
154.2000;0.5495;1.2760;
154.5000;0.5495;1.2661;
154.8000;0.5486;1.2686;
155.1000;0.5486;1.2760;
155.4000;0.5495;1.2785;
155.7000;0.5470;1.2785;
156.0000;0.5486;1.2711;
156.3000;0.5527;1.2760;
156.6000;0.5470;1.2612;
156.9000;0.5486;1.2686;
157.2000;0.5486;1.2735;
157.5000;0.5478;1.2760;
157.8000;0.5503;1.2957;
158.1000;0.5495;1.2883;
158.4000;0.5486;1.2859;
158.7000;0.5478;1.2834;
159.0000;0.5495;1.2957;
159.3000;0.5486;1.2834;
159.6000;0.5486;1.2859;
159.9000;0.5478;1.2957;
160.2000;0.5486;1.3032;
160.5000;0.5478;1.3007;
160.8000;0.5486;1.3056;
161.1000;0.5478;1.3032;
161.4000;0.5519;1.3081;
161.7000;0.5495;1.3056;
162.0000;0.5486;1.2982;
162.3000;0.5478;1.2982;
162.6000;0.5478;1.2933;
162.9000;0.5486;1.2883;
163.2000;0.5470;1.2859;
163.5000;0.5486;1.2809;
163.8000;0.5462;1.2686;
164.1000;0.5486;1.2785;
164.4000;0.5470;1.2637;
164.7000;0.5503;1.2711;
165.0000;0.5495;1.2686;
165.3000;0.5478;1.2661;
165.6000;0.5486;1.2661;
165.9000;0.5503;1.2735;
166.2000;0.5478;1.2637;
166.5000;0.5486;1.2760;
166.8000;0.5511;1.2785;
167.1000;0.5495;1.2785;
167.4000;0.5470;1.2809;
167.7000;0.5486;1.2760;
168.0000;0.5486;1.2711;
168.3000;0.5478;1.2661;
168.6000;0.5486;1.2735;
168.9000;0.5486;1.2735;
169.2000;0.5478;1.2661;
169.5000;0.5486;1.2735;
169.8000;0.5478;1.2686;
170.1000;0.5486;1.2637;
170.4000;0.5478;1.2637;
170.7000;0.5478;1.2612;
171.0000;0.5495;1.2711;
171.3000;0.5495;1.2686;
171.6000;0.5486;1.2785;
171.9000;0.5405;1.2612;
172.2000;0.5495;1.2982;
172.5000;0.5478;1.3106;
172.8000;0.5519;1.3229;
173.1000;0.5470;1.3204;
173.4000;0.5478;1.3229;
173.7000;0.5568;1.3500;
174.0000;0.5478;1.3303;
174.3000;0.5543;1.3451;
174.6000;0.5438;1.3106;
174.9000;0.5486;1.3204;
175.2000;0.5486;1.3155;
175.5000;0.5486;1.3106;
175.8000;0.5446;1.2957;
176.1000;0.5495;1.3032;
176.4000;0.5470;1.2933;
176.7000;0.5478;1.2933;
177.0000;0.5470;1.2809;
177.3000;0.5438;1.2686;
177.6000;0.5511;1.2908;
177.9000;0.5470;1.2760;
178.2000;0.5478;1.2661;
178.5000;0.5495;1.2587;
178.8000;0.5495;1.2587;
179.1000;0.5486;1.2563;
179.4000;0.5486;1.2637;
179.7000;0.5486;1.2711;
180.0000;0.5495;1.2735;
180.3000;0.5405;1.2587;
180.6000;0.5495;1.2834;
180.9000;0.5486;1.2711;
181.2000;0.5503;1.2735;
181.5000;0.5511;1.2735;
181.8000;0.5486;1.2735;
182.1000;0.5495;1.2883;
182.4000;0.5470;1.2834;
182.7000;0.5495;1.2883;
183.0000;0.5421;1.2711;
183.3000;0.5486;1.2834;
183.6000;0.5503;1.2809;
183.9000;0.5495;1.2760;
184.2000;0.5560;1.2933;
184.5000;0.5462;1.2587;
184.8000;0.5478;1.2686;
185.1000;0.5478;1.2760;
185.4000;0.5503;1.2809;
185.7000;0.5470;1.2760;
186.0000;0.5495;1.2760;
186.3000;0.5478;1.2686;
186.6000;0.5503;1.2711;
186.9000;0.5470;1.2661;
187.2000;0.5478;1.2735;
187.5000;0.5486;1.2834;
187.8000;0.5446;1.2859;
188.1000;0.5495;1.2982;
188.4000;0.5421;1.2661;
188.7000;0.5511;1.2859;
189.0000;0.5495;1.2834;
189.3000;0.5470;1.2834;
189.6000;0.5397;1.2637;
189.9000;0.5470;1.2883;
190.2000;0.5495;1.2933;
190.5000;0.5543;1.2859;
190.8000;0.5478;1.2686;
191.1000;0.5478;1.2711;
191.4000;0.5486;1.2735;
191.7000;0.5495;1.2785;
192.0000;0.5495;1.2711;
192.3000;0.5503;1.2735;
192.6000;0.5462;1.2785;
192.9000;0.5543;1.3007;
193.2000;0.5486;1.2908;
193.5000;0.5592;1.3204;
193.8000;0.5478;1.2933;
194.1000;0.5486;1.2908;
194.4000;0.5495;1.2933;
194.7000;0.5462;1.2785;
195.0000;0.5486;1.2809;
195.3000;0.5486;1.2859;
195.6000;0.5486;1.2908;
195.9000;0.5429;1.2760;
196.2000;0.5503;1.2908;
196.5000;0.5560;1.2982;
196.8000;0.5495;1.2834;
197.1000;0.5495;1.2785;
197.4000;0.5462;1.2711;
197.7000;0.5478;1.2686;
198.0000;0.5486;1.2661;
198.3000;0.5511;1.2612;
198.6000;0.5495;1.2563;
198.9000;0.5486;1.2513;
199.2000;0.5486;1.2563;
199.5000;0.5486;1.2538;
199.8000;0.5503;1.2711;
200.1000;0.5486;1.2735;
200.4000;0.5495;1.2711;
200.7000;0.5486;1.2587;
201.0000;0.5503;1.2637;
201.3000;0.5478;1.2637;
201.6000;0.5462;1.2637;
201.9000;0.5470;1.2637;
202.2000;0.5503;1.2711;
202.5000;0.5478;1.2735;
202.8000;0.5503;1.2686;
203.1000;0.5486;1.2661;
203.4000;0.5421;1.2513;
203.7000;0.5478;1.2587;
204.0000;0.5576;1.2711;
204.3000;0.5478;1.2538;
204.6000;0.5478;1.2686;
204.9000;0.5495;1.2760;
205.2000;0.5470;1.2809;
205.5000;0.5478;1.2957;
205.8000;0.5470;1.2982;
206.1000;0.5495;1.3081;
206.4000;0.5478;1.3032;
206.7000;0.5470;1.2859;
207.0000;0.5470;1.3007;
207.3000;0.5503;1.3007;
207.6000;0.5486;1.2982;
207.9000;0.5470;1.2957;
208.2000;0.5356;1.2637;
208.5000;0.5478;1.2859;
208.8000;0.5511;1.2834;
209.1000;0.5495;1.2809;
209.4000;0.5462;1.2735;
209.7000;0.5470;1.2785;
210.0000;0.5495;1.2809;
210.3000;0.5486;1.2785;
210.6000;0.5511;1.2760;
210.9000;0.5478;1.2735;
211.2000;0.5486;1.2760;
211.5000;0.5519;1.2859;
211.8000;0.5495;1.2809;
212.1000;0.5462;1.2661;
212.4000;0.5495;1.2785;
212.7000;0.5486;1.2711;
213.0000;0.5551;1.2883;
213.3000;0.5486;1.2661;
213.6000;0.5470;1.2661;
213.9000;0.5495;1.2661;
214.2000;0.5486;1.2563;
214.5000;0.5503;1.2637;
214.8000;0.5486;1.2711;
215.1000;0.5495;1.2711;
215.4000;0.5511;1.2661;
215.7000;0.5495;1.2563;
216.0000;0.5486;1.2587;
216.3000;0.5511;1.2637;
216.6000;0.5478;1.2612;
216.9000;0.5486;1.2661;
217.2000;0.5470;1.2538;
217.5000;0.5495;1.2587;
217.8000;0.5486;1.2587;
218.1000;0.5478;1.2587;
218.4000;0.5470;1.2538;
218.7000;0.5462;1.2587;
219.0000;0.5486;1.2538;
219.3000;0.5495;1.2563;
219.6000;0.5486;1.2489;
219.9000;0.5495;1.2563;
220.2000;0.5511;1.2612;
220.5000;0.5560;1.2686;
220.8000;0.5495;1.2513;
221.1000;0.5470;1.2464;
221.4000;0.5462;1.2513;
221.7000;0.5486;1.2563;
222.0000;0.5486;1.2587;
222.3000;0.5495;1.2661;
222.6000;0.5478;1.2686;
222.9000;0.5470;1.2637;
223.2000;0.5470;1.2661;
223.5000;0.5462;1.2612;
223.8000;0.5478;1.2711;
224.1000;0.5478;1.2785;
224.4000;0.5438;1.2661;
224.7000;0.5495;1.2908;
225.0000;0.5495;1.2982;
225.3000;0.5527;1.3032;
225.6000;0.5486;1.2933;
225.9000;0.5470;1.2785;
226.2000;0.5478;1.2735;
226.5000;0.5495;1.2711;
226.8000;0.5486;1.2637;
227.1000;0.5503;1.2735;
227.4000;0.5486;1.2612;
227.7000;0.5470;1.2661;
228.0000;0.5478;1.2711;
228.3000;0.5511;1.2785;
228.6000;0.5527;1.2883;
228.9000;0.5543;1.2908;
229.2000;0.5462;1.2735;
229.5000;0.5486;1.2859;
229.8000;0.5527;1.3007;
230.1000;0.5470;1.2834;
230.4000;0.5454;1.2785;
230.7000;0.5429;1.2735;
231.0000;0.5503;1.2859;
231.3000;0.5527;1.2834;
231.6000;0.5495;1.2760;
231.9000;0.5495;1.2711;
232.2000;0.5462;1.2686;
232.5000;0.5438;1.2637;
232.8000;0.5486;1.2760;
233.1000;0.5519;1.2809;
233.4000;0.5535;1.2933;
233.7000;0.5486;1.2735;
234.0000;0.5486;1.2661;
234.3000;0.5486;1.2711;
234.6000;0.5486;1.2760;
234.9000;0.5486;1.2711;
235.2000;0.5478;1.2711;
235.5000;0.5478;1.2661;
235.8000;0.5486;1.2760;
236.1000;0.5495;1.2834;
236.4000;0.5486;1.2859;
236.7000;0.5478;1.2859;
237.0000;0.5495;1.2908;
237.3000;0.5495;1.2908;
237.6000;0.5495;1.2883;
237.9000;0.5454;1.2760;
238.2000;0.5495;1.2908;
238.5000;0.5486;1.2883;
238.8000;0.5478;1.2809;
239.1000;0.5486;1.2760;
239.4000;0.5486;1.2760;
239.7000;0.5478;1.2785;
240.0000;0.5478;1.2760;
240.3000;0.5470;1.2760;
240.6000;0.5495;1.2785;
240.9000;0.5519;1.2908;
241.2000;0.5495;1.2908;
241.5000;0.5495;1.2908;
241.8000;0.5486;1.2760;
242.1000;0.5486;1.2760;
242.4000;0.5519;1.2883;
242.7000;0.5478;1.2637;
243.0000;0.5486;1.2711;
243.3000;0.5486;1.2785;
243.6000;0.5503;1.2760;
243.9000;0.5413;1.2612;
244.2000;0.5470;1.2834;
244.5000;0.5470;1.2760;
244.8000;0.5470;1.2686;
245.1000;0.5470;1.2661;
245.4000;0.5495;1.2735;
245.7000;0.5462;1.2637;
246.0000;0.5478;1.2612;
246.3000;0.5470;1.2587;
246.6000;0.5495;1.2686;
246.9000;0.5486;1.2661;
247.2000;0.5486;1.2711;
247.5000;0.5421;1.2538;
247.8000;0.5470;1.2661;
248.1000;0.5486;1.2760;
248.4000;0.5470;1.2637;
248.7000;0.5511;1.2809;
249.0000;0.5495;1.2785;
249.3000;0.5486;1.2735;
249.6000;0.5454;1.2637;
249.9000;0.5470;1.2637;
250.2000;0.5462;1.2612;
250.5000;0.5478;1.2711;
250.8000;0.5478;1.2735;
251.1000;0.5454;1.2711;
251.4000;0.5470;1.2686;
251.7000;0.5576;1.2859;
252.0000;0.5462;1.2538;
252.3000;0.5543;1.2661;
252.6000;0.5470;1.2513;
252.9000;0.5495;1.2587;
253.2000;0.5511;1.2637;
253.5000;0.5478;1.2612;
253.8000;0.5470;1.2661;
254.1000;0.5454;1.2686;
254.4000;0.5495;1.2686;
254.7000;0.5470;1.2587;
255.0000;0.5486;1.2563;
255.3000;0.5495;1.2563;
255.6000;0.5495;1.2563;
255.9000;0.5478;1.2612;
256.2000;0.5462;1.2563;
256.5000;0.5478;1.2612;
256.8000;0.5462;1.2637;
257.1000;0.5478;1.2587;
257.4000;0.5381;1.2390;
257.7000;0.5478;1.2760;
258.0000;0.5470;1.2760;
258.3000;0.5486;1.2760;
258.6000;0.5478;1.2661;
258.9000;0.5470;1.2711;
259.2000;0.5478;1.2760;
259.5000;0.5478;1.2735;
259.8000;0.5495;1.2686;
260.1000;0.5478;1.2612;
260.4000;0.5470;1.2661;
260.7000;0.5478;1.2711;
261.0000;0.5495;1.2711;
261.3000;0.5470;1.2735;
261.6000;0.5478;1.2785;
261.9000;0.5478;1.2760;
262.2000;0.5486;1.2711;
262.5000;0.5511;1.2711;
262.8000;0.5486;1.2686;
263.1000;0.5486;1.2661;
263.4000;0.5495;1.2686;
263.7000;0.5486;1.2711;
264.0000;0.5495;1.2637;
264.3000;0.5503;1.2711;
264.6000;0.5503;1.2760;
264.9000;0.5478;1.2661;
265.2000;0.5462;1.2612;
265.5000;0.5470;1.2637;
265.8000;0.5478;1.2612;
266.1000;0.5478;1.2686;
266.4000;0.5454;1.2637;
266.7000;0.5503;1.2735;
267.0000;0.5495;1.2760;
267.3000;0.5511;1.2883;
267.6000;0.5438;1.2735;
267.9000;0.5429;1.2661;
268.2000;0.5462;1.2661;
268.5000;0.5495;1.2735;
268.8000;0.5478;1.2760;
269.1000;0.5454;1.2686;
269.4000;0.5495;1.2612;
269.7000;0.5495;1.2637;
270.0000;0.5478;1.2612;
270.3000;0.5503;1.2661;
270.6000;0.5446;1.2563;
270.9000;0.5519;1.2760;
271.2000;0.5478;1.2661;
271.5000;0.5503;1.2711;
271.8000;0.5495;1.2587;
272.1000;0.5478;1.2637;
272.4000;0.5608;1.2933;
272.7000;0.5478;1.2735;
273.0000;0.5495;1.2686;
273.3000;0.5486;1.2661;
273.6000;0.5470;1.2587;
273.9000;0.5486;1.2612;
274.2000;0.5495;1.2637;
274.5000;0.5446;1.2513;
274.8000;0.5486;1.2587;
275.1000;0.5486;1.2587;
275.4000;0.5470;1.2563;
275.7000;0.5470;1.2489;
276.0000;0.5495;1.2612;
276.3000;0.5486;1.2612;
276.6000;0.5495;1.2587;
276.9000;0.5503;1.2612;
277.2000;0.5478;1.2513;
277.5000;0.5503;1.2538;
277.8000;0.5495;1.2612;
278.1000;0.5486;1.2513;
278.4000;0.5511;1.2612;
278.7000;0.5486;1.2563;
279.0000;0.5478;1.2587;
279.3000;0.5486;1.2661;
279.6000;0.5503;1.2661;
279.9000;0.5478;1.2661;
280.2000;0.5478;1.2612;
280.5000;0.5470;1.2661;
280.8000;0.5470;1.2661;
281.1000;0.5462;1.2735;
281.4000;0.5462;1.2809;
281.7000;0.5478;1.2809;
282.0000;0.5478;1.2809;
282.3000;0.5478;1.2735;
282.6000;0.5511;1.2859;
282.9000;0.5470;1.2785;
283.2000;0.5470;1.2809;
283.5000;0.5462;1.2883;
283.8000;0.5462;1.2834;
284.1000;0.5470;1.2760;
284.4000;0.5470;1.2834;
284.7000;0.5470;1.2711;
285.0000;0.5470;1.2760;
285.3000;0.5486;1.2785;
285.6000;0.5478;1.2785;
285.9000;0.5470;1.2785;
286.2000;0.5503;1.2760;
286.5000;0.5535;1.2735;
286.8000;0.5486;1.2587;
287.1000;0.5486;1.2637;
287.4000;0.5495;1.2637;
287.7000;0.5633;1.3106;
288.0000;0.5495;1.2686;
288.3000;0.5503;1.2661;
288.6000;0.5535;1.2785;
288.9000;0.5470;1.2612;
289.2000;0.5495;1.2661;
289.5000;0.5405;1.2513;
289.8000;0.5519;1.2809;
290.1000;0.5486;1.2809;
290.4000;0.5519;1.2908;
290.7000;0.5486;1.2785;
291.0000;0.5478;1.2661;
291.3000;0.5454;1.2612;
291.6000;0.5495;1.2711;
291.9000;0.5486;1.2711;
292.2000;0.5413;1.2513;
292.5000;0.5486;1.2661;
292.8000;0.5486;1.2637;
293.1000;0.5495;1.2587;
293.4000;0.5511;1.2489;
293.7000;0.5495;1.2415;
294.0000;0.5527;1.2612;
294.3000;0.5495;1.2587;
294.6000;0.5495;1.2587;
294.9000;0.5495;1.2513;
295.2000;0.5470;1.2587;
295.5000;0.5478;1.2686;
295.8000;0.5478;1.2563;
296.1000;0.5478;1.2513;
296.4000;0.5470;1.2513;
296.7000;0.5470;1.2538;
297.0000;0.5478;1.2563;
297.3000;0.5462;1.2538;
297.6000;0.5462;1.2637;
297.9000;0.5470;1.2612;
298.2000;0.5527;1.2587;
298.5000;0.5495;1.2464;
298.8000;0.5462;1.2464;
299.1000;0.5478;1.2489;
299.4000;0.5486;1.2587;
299.7000;0.5462;1.2612;
300.0000;0.5478;1.2735;
300.3000;0.5470;1.2785;
300.6000;0.5438;1.2785;
300.9000;0.5470;1.2957;
301.2000;0.5478;1.2957;
301.5000;0.5470;1.2859;
301.8000;0.5462;1.2735;
302.1000;0.5470;1.2809;
302.4000;0.5486;1.2883;
302.7000;0.5519;1.2982;
303.0000;0.5478;1.2785;
303.3000;0.5486;1.2760;
303.6000;0.5543;1.2908;
303.9000;0.5478;1.2661;
304.2000;0.5470;1.2637;
304.5000;0.5470;1.2686;
304.8000;0.5527;1.2834;
305.1000;0.5478;1.2711;
305.4000;0.5478;1.2661;
305.7000;0.5478;1.2587;
306.0000;0.5478;1.2637;
306.3000;0.5478;1.2637;
306.6000;0.5478;1.2661;
306.9000;0.5478;1.2563;
307.2000;0.5478;1.2538;
307.5000;0.5486;1.2538;
307.8000;0.5478;1.2489;
308.1000;0.5486;1.2464;
308.4000;0.5503;1.2587;
308.7000;0.5454;1.2563;
309.0000;0.5478;1.2637;
309.3000;0.5478;1.2587;
309.6000;0.5478;1.2637;
309.9000;0.5478;1.2686;
310.2000;0.5478;1.2612;
310.5000;0.5478;1.2538;
310.8000;0.5511;1.2538;
311.1000;0.5486;1.2538;
311.4000;0.5495;1.2686;
311.7000;0.5462;1.2637;
312.0000;0.5470;1.2735;
312.3000;0.5503;1.2661;
312.6000;0.5527;1.2711;
312.9000;0.5470;1.2612;
313.2000;0.5486;1.2637;
313.5000;0.5495;1.2661;
313.8000;0.5486;1.2711;
314.1000;0.5470;1.2661;
314.4000;0.5478;1.2686;
314.7000;0.5478;1.2711;
315.0000;0.5446;1.2637;
315.3000;0.5478;1.2834;
315.6000;0.5486;1.2834;
315.9000;0.5486;1.2933;
316.2000;0.5495;1.2859;
316.5000;0.5519;1.2834;
316.8000;0.5486;1.2760;
317.1000;0.5470;1.2785;
317.4000;0.5462;1.2735;
317.7000;0.5478;1.2809;
318.0000;0.5486;1.2711;
318.3000;0.5478;1.2661;
318.6000;0.5478;1.2686;
318.9000;0.5478;1.2711;
319.2000;0.5486;1.2735;
319.5000;0.5421;1.2513;
319.8000;0.5486;1.2760;
320.1000;0.5486;1.2834;
320.4000;0.5486;1.2834;
320.7000;0.5486;1.2809;
321.0000;0.5478;1.2809;
321.3000;0.5495;1.2809;
321.6000;0.5486;1.2809;
321.9000;0.5503;1.2834;
322.2000;0.5486;1.2785;
322.5000;0.5495;1.2933;
322.8000;0.5486;1.2933;
323.1000;0.5470;1.2883;
323.4000;0.5470;1.2883;
323.7000;0.5462;1.2785;
324.0000;0.5486;1.2735;
324.3000;0.5519;1.2883;
324.6000;0.5478;1.2735;
324.9000;0.5470;1.2785;
325.2000;0.5438;1.2735;
325.5000;0.5454;1.2735;
325.8000;0.5478;1.2834;
326.1000;0.5551;1.3007;
326.4000;0.5478;1.2883;
326.7000;0.5470;1.2834;
327.0000;0.5495;1.2785;
327.3000;0.5584;1.3130;
327.6000;0.5527;1.2933;
327.9000;0.5478;1.2760;
328.2000;0.5503;1.2735;
328.5000;0.5478;1.2711;
328.8000;0.5478;1.2661;
329.1000;0.5478;1.2587;
329.4000;0.5495;1.2563;
329.7000;0.5446;1.2612;
330.0000;0.5495;1.2711;
330.3000;0.5495;1.2760;
330.6000;0.5486;1.2686;
330.9000;0.5486;1.2809;
331.2000;0.5495;1.2859;
331.5000;0.5478;1.2711;
331.8000;0.5470;1.2711;
332.1000;0.5486;1.2735;
332.4000;0.5486;1.2686;
332.7000;0.5486;1.2760;
333.0000;0.5495;1.2686;
333.3000;0.5486;1.2711;
333.6000;0.5486;1.2735;
333.9000;0.5551;1.2809;
334.2000;0.5486;1.2760;
334.5000;0.5478;1.2735;
334.8000;0.5486;1.2735;
335.1000;0.5478;1.2686;
335.4000;0.5478;1.2735;
335.7000;0.5429;1.2563;
336.0000;0.5478;1.2637;
336.3000;0.5462;1.2587;
336.6000;0.5470;1.2587;
336.9000;0.5429;1.2489;
337.2000;0.5486;1.2612;
337.5000;0.5495;1.2612;
337.8000;0.5519;1.2735;
338.1000;0.5478;1.2735;
338.4000;0.5478;1.2686;
338.7000;0.5478;1.2661;
339.0000;0.5478;1.2735;
339.3000;0.5454;1.2711;
339.6000;0.5462;1.2809;
339.9000;0.5478;1.2883;
340.2000;0.5470;1.2785;
340.5000;0.5495;1.2809;
340.8000;0.5470;1.2785;
341.1000;0.5470;1.2834;
341.4000;0.5478;1.2883;
341.7000;0.5478;1.2809;
342.0000;0.5486;1.2711;
342.3000;0.5503;1.2859;
342.6000;0.5478;1.2760;
342.9000;0.5478;1.2809;
343.2000;0.5495;1.2859;
343.5000;0.5486;1.2908;
343.8000;0.5478;1.2908;
344.1000;0.5486;1.2859;
344.4000;0.5454;1.2785;
344.7000;0.5470;1.2859;
345.0000;0.5486;1.2859;
345.3000;0.5503;1.2859;
345.6000;0.5535;1.2957;
345.9000;0.5495;1.2883;
346.2000;0.5470;1.2859;
346.5000;0.5543;1.2859;
346.8000;0.5429;1.2563;
347.1000;0.5478;1.2661;
347.4000;0.5478;1.2686;
347.7000;0.5486;1.2785;
348.0000;0.5486;1.2686;
348.3000;0.5519;1.2735;
348.6000;0.5503;1.2735;
348.9000;0.5495;1.2686;
349.2000;0.5429;1.2612;
349.5000;0.5470;1.2735;
349.8000;0.5478;1.2760;
350.1000;0.5543;1.2908;
350.4000;0.5454;1.2760;
350.7000;0.5462;1.2834;
351.0000;0.5470;1.2908;
351.3000;0.5462;1.2908;
351.6000;0.5503;1.3056;
351.9000;0.5486;1.2982;
352.2000;0.5478;1.3007;
352.5000;0.5478;1.2982;
352.8000;0.5486;1.2859;
353.1000;0.5519;1.2908;
353.4000;0.5486;1.2834;
353.7000;0.5478;1.2859;
354.0000;0.5470;1.2834;
354.3000;0.5495;1.2834;
354.6000;0.5535;1.2933;
354.9000;0.5478;1.2760;
355.2000;0.5495;1.2834;
355.5000;0.5478;1.2883;
355.8000;0.5462;1.2760;
356.1000;0.5478;1.2735;
356.4000;0.5470;1.2760;
356.7000;0.5478;1.2834;
357.0000;0.5592;1.3130;
357.3000;0.5478;1.2760;
357.6000;0.5478;1.2735;
357.9000;0.5454;1.2686;
358.2000;0.5470;1.2785;
358.5000;0.5495;1.2883;
358.8000;0.5486;1.2834;
359.1000;0.5397;1.2711;
359.4000;0.5495;1.2957;
359.7000;0.5438;1.2859;
360.0000;0.5584;1.3180;
360.3000;0.5495;1.2933;
360.6000;0.5478;1.2809;
360.9000;0.5486;1.2686;
361.2000;0.5446;1.2637;
361.5000;0.5470;1.2735;
361.8000;0.5495;1.2883;
362.1000;0.5478;1.2785;
362.4000;0.5462;1.2735;
362.7000;0.5397;1.2563;
363.0000;0.5519;1.2933;
363.3000;0.5470;1.2834;
363.6000;0.5495;1.2933;
363.9000;0.5535;1.3081;
364.2000;0.5454;1.2834;
364.5000;0.5486;1.2785;
364.8000;0.5495;1.2735;
365.1000;0.5454;1.2637;
365.4000;0.5511;1.2785;
365.7000;0.5495;1.2711;
366.0000;0.5478;1.2760;
366.3000;0.5470;1.2711;
366.6000;0.5470;1.2834;
366.9000;0.5535;1.3056;
367.2000;0.5462;1.2809;
367.5000;0.5462;1.2686;
367.8000;0.5511;1.2760;
368.1000;0.5470;1.2735;
368.4000;0.5486;1.2735;
368.7000;0.5454;1.2661;
369.0000;0.5486;1.2711;
369.3000;0.5462;1.2735;
369.6000;0.5478;1.2760;
369.9000;0.5478;1.2637;
370.2000;0.5462;1.2711;
370.5000;0.5470;1.2661;
370.8000;0.5462;1.2735;
371.1000;0.5486;1.2809;
371.4000;0.5462;1.2735;
371.7000;0.5470;1.2661;
372.0000;0.5486;1.2686;
372.3000;0.5495;1.2809;
372.6000;0.5519;1.2834;
372.9000;0.5478;1.2735;
373.2000;0.5462;1.2735;
373.5000;0.5478;1.2785;
373.8000;0.5462;1.2735;
374.1000;0.5478;1.2735;
374.4000;0.5470;1.2637;
374.7000;0.5462;1.2785;
375.0000;0.5429;1.2760;
375.3000;0.5462;1.2883;
375.6000;0.5462;1.2859;
375.9000;0.5478;1.2859;
376.2000;0.5495;1.2883;
376.5000;0.5462;1.2760;
376.8000;0.5478;1.2735;
377.1000;0.5495;1.2785;
377.4000;0.5503;1.2859;
377.7000;0.5495;1.2785;
378.0000;0.5486;1.2809;
378.3000;0.5470;1.2834;
378.6000;0.5478;1.2933;
378.9000;0.5470;1.2859;
379.2000;0.5478;1.2834;
379.5000;0.5462;1.2735;
379.8000;0.5486;1.2711;
380.1000;0.5446;1.2661;
380.4000;0.5462;1.2711;
380.7000;0.5470;1.2612;
381.0000;0.5446;1.2538;
381.3000;0.5478;1.2587;
381.6000;0.5429;1.2439;
381.9000;0.5519;1.2637;
382.2000;0.5478;1.2587;
382.5000;0.5527;1.2760;
382.8000;0.5511;1.2785;
383.1000;0.5470;1.2686;
383.4000;0.5486;1.2760;
383.7000;0.5470;1.2834;
384.0000;0.5462;1.2760;
384.3000;0.5462;1.2735;
384.6000;0.5470;1.2711;
384.9000;0.5421;1.2489;
385.2000;0.5478;1.2760;
385.5000;0.5486;1.2760;
385.8000;0.5503;1.2834;
386.1000;0.5462;1.2686;
386.4000;0.5503;1.2686;
386.7000;0.5503;1.2612;
387.0000;0.5495;1.2587;
387.3000;0.5495;1.2513;
387.6000;0.5470;1.2513;
387.9000;0.5560;1.2711;
388.2000;0.5454;1.2489;
388.5000;0.5462;1.2513;
388.8000;0.5470;1.2538;
389.1000;0.5495;1.2587;
389.4000;0.5446;1.2538;
389.7000;0.5462;1.2637;
390.0000;0.5486;1.2711;
390.3000;0.5478;1.2735;
390.6000;0.5495;1.2711;
390.9000;0.5478;1.2612;
391.2000;0.5454;1.2563;
391.5000;0.5454;1.2563;
391.8000;0.5495;1.2711;
392.1000;0.5478;1.2686;
392.4000;0.5478;1.2686;
392.7000;0.5470;1.2686;
393.0000;0.5486;1.2760;
393.3000;0.5470;1.2735;
393.6000;0.5486;1.2785;
393.9000;0.5470;1.2809;
394.2000;0.5486;1.2686;
394.5000;0.5486;1.2711;
394.8000;0.5470;1.2711;
395.1000;0.5478;1.2661;
395.4000;0.5478;1.2612;
395.7000;0.5486;1.2686;
396.0000;0.5470;1.2661;
396.3000;0.5454;1.2686;
396.6000;0.5462;1.2587;
396.9000;0.5486;1.2711;
397.2000;0.5503;1.2686;
397.5000;0.5454;1.2587;
397.8000;0.5462;1.2686;
398.1000;0.5503;1.2637;
398.4000;0.5495;1.2661;
398.7000;0.5495;1.2711;
399.0000;0.5478;1.2735;
399.3000;0.5462;1.2711;
399.6000;0.5486;1.2785;
399.9000;0.5478;1.2735;
400.2000;0.5462;1.2735;
400.5000;0.5478;1.2711;
400.8000;0.5478;1.2735;
401.1000;0.5478;1.2760;
401.4000;0.5478;1.2711;
401.7000;0.5446;1.2587;
402.0000;0.5495;1.2711;
402.3000;0.5486;1.2563;
402.6000;0.5429;1.2340;
402.9000;0.5438;1.2390;
403.2000;0.5478;1.2489;
403.5000;0.5478;1.2439;
403.8000;0.5486;1.2538;
404.1000;0.5478;1.2563;
404.4000;0.5470;1.2563;
404.7000;0.5462;1.2612;
405.0000;0.5478;1.2661;
405.3000;0.5470;1.2563;
405.6000;0.5462;1.2538;
405.9000;0.5511;1.2711;
406.2000;0.5470;1.2637;
406.5000;0.5478;1.2661;
406.8000;0.5429;1.2612;
407.1000;0.5462;1.2711;
407.4000;0.5478;1.2760;
407.7000;0.5454;1.2760;
408.0000;0.5470;1.2834;
408.3000;0.5462;1.2760;
408.6000;0.5470;1.2735;
408.9000;0.5543;1.3007;
409.2000;0.5478;1.2735;
409.5000;0.5462;1.2612;
409.8000;0.5486;1.2711;
410.1000;0.5495;1.2735;
410.4000;0.5486;1.2735;
410.7000;0.5495;1.2809;
411.0000;0.5511;1.2883;
411.3000;0.5454;1.2711;
411.6000;0.5495;1.2834;
411.9000;0.5486;1.2809;
412.2000;0.5486;1.2785;
412.5000;0.5495;1.2661;
412.8000;0.5486;1.2637;
413.1000;0.5495;1.2686;
413.4000;0.5543;1.2859;
413.7000;0.5470;1.2711;
414.0000;0.5478;1.2711;
414.3000;0.5462;1.2711;
414.6000;0.5478;1.2760;
414.9000;0.5462;1.2661;
415.2000;0.5478;1.2661;
415.5000;0.5446;1.2587;
415.8000;0.5478;1.2661;
416.1000;0.5486;1.2661;
416.4000;0.5535;1.2957;
416.7000;0.5478;1.2834;
417.0000;0.5478;1.2809;
417.3000;0.5495;1.2760;
417.6000;0.5446;1.2760;
417.9000;0.5478;1.2859;
418.2000;0.5462;1.2785;
418.5000;0.5389;1.2587;
418.8000;0.5413;1.2538;
419.1000;0.5478;1.2661;
419.4000;0.5486;1.2760;
419.7000;0.5454;1.2711;
420.0000;0.5495;1.2760;
420.3000;0.5478;1.2834;
420.6000;0.5495;1.2834;
420.9000;0.5486;1.2711;
421.2000;0.5478;1.2711;
421.5000;0.5421;1.2489;
421.8000;0.5478;1.2686;
422.1000;0.5495;1.2686;
422.4000;0.5462;1.2612;
422.7000;0.5478;1.2637;
423.0000;0.5462;1.2686;
423.3000;0.5478;1.2612;
423.6000;0.5438;1.2513;
423.9000;0.5470;1.2587;
424.2000;0.5462;1.2637;
424.5000;0.5551;1.2834;
424.8000;0.5454;1.2587;
425.1000;0.5478;1.2637;
425.4000;0.5478;1.2661;
425.7000;0.5478;1.2735;
426.0000;0.5486;1.2711;
426.3000;0.5486;1.2735;
426.6000;0.5486;1.2661;
426.9000;0.5454;1.2563;
427.2000;0.5478;1.2711;
427.5000;0.5470;1.2661;
427.8000;0.5462;1.2612;
428.1000;0.5470;1.2686;
428.4000;0.5462;1.2735;
428.7000;0.5462;1.2686;
429.0000;0.5454;1.2686;
429.3000;0.5470;1.2686;
429.6000;0.5495;1.2785;
429.9000;0.5478;1.2760;
430.2000;0.5486;1.2785;
430.5000;0.5462;1.2735;
430.8000;0.5470;1.2809;
431.1000;0.5470;1.2785;
431.4000;0.5454;1.2785;
431.7000;0.5470;1.2711;
432.0000;0.5495;1.2760;
432.3000;0.5495;1.2809;
432.6000;0.5470;1.2785;
432.9000;0.5470;1.2859;
433.2000;0.5478;1.2859;
433.5000;0.5470;1.2809;
433.8000;0.5470;1.2785;
434.1000;0.5454;1.2735;
434.4000;0.5438;1.2661;
434.7000;0.5470;1.2711;
435.0000;0.5470;1.2785;
435.3000;0.5486;1.2834;
435.6000;0.5478;1.2859;
435.9000;0.5495;1.2957;
436.2000;0.5470;1.3007;
436.5000;0.5446;1.2908;
436.8000;0.5462;1.2883;
437.1000;0.5470;1.2957;
437.4000;0.5470;1.2933;
437.7000;0.5462;1.3007;
438.0000;0.5470;1.2982;
438.3000;0.5454;1.2883;
438.6000;0.5478;1.2883;
438.9000;0.5478;1.2859;
439.2000;0.5486;1.2760;
439.5000;0.5446;1.2637;
439.8000;0.5462;1.2735;
440.1000;0.5478;1.2834;
440.4000;0.5478;1.2883;
440.7000;0.5478;1.2859;
441.0000;0.5486;1.2760;
441.3000;0.5470;1.2809;
441.6000;0.5470;1.2735;
441.9000;0.5446;1.2637;
442.2000;0.5478;1.2711;
442.5000;0.5495;1.2785;
442.8000;0.5486;1.2760;
443.1000;0.5462;1.2711;
443.4000;0.5470;1.2711;
443.7000;0.5478;1.2760;
444.0000;0.5503;1.2686;
444.3000;0.5478;1.2538;
444.6000;0.5462;1.2390;
444.9000;0.5470;1.2439;
445.2000;0.5495;1.2612;
445.5000;0.5486;1.2538;
445.8000;0.5454;1.2365;
446.1000;0.5478;1.2464;
446.4000;0.5470;1.2464;
446.7000;0.5454;1.2464;
447.0000;0.5478;1.2513;
447.3000;0.5486;1.2489;
447.6000;0.5438;1.2415;
447.9000;0.5486;1.2587;
448.2000;0.5462;1.2489;
448.5000;0.5486;1.2587;
448.8000;0.5462;1.2538;
449.1000;0.5478;1.2538;
449.4000;0.5478;1.2513;
449.7000;0.5486;1.2538;
450.0000;0.5519;1.2538;
450.3000;0.5470;1.2439;
450.6000;0.5470;1.2489;
450.9000;0.5486;1.2513;
451.2000;0.5470;1.2489;
451.5000;0.5486;1.2513;
451.8000;0.5511;1.2489;
452.1000;0.5470;1.2464;
452.4000;0.5486;1.2563;
452.7000;0.5486;1.2563;
453.0000;0.5438;1.2513;
453.3000;0.5478;1.2735;
453.6000;0.5470;1.2809;
453.9000;0.5495;1.2785;
454.2000;0.5470;1.2686;
454.5000;0.5478;1.2612;
454.8000;0.5478;1.2587;
455.1000;0.5486;1.2587;
455.4000;0.5478;1.2563;
455.7000;0.5486;1.2464;
456.0000;0.5470;1.2464;
456.3000;0.5495;1.2661;
456.6000;0.5486;1.2612;
456.9000;0.5470;1.2612;
457.2000;0.5462;1.2711;
457.5000;0.5478;1.2809;
457.8000;0.5470;1.2735;
458.1000;0.5503;1.2859;
458.4000;0.5495;1.2859;
458.7000;0.5372;1.2439;
459.0000;0.5462;1.2735;
459.3000;0.5413;1.2563;
459.6000;0.5470;1.2612;
459.9000;0.5478;1.2587;
460.2000;0.5486;1.2538;
460.5000;0.5478;1.2563;
460.8000;0.5486;1.2587;
461.1000;0.5462;1.2538;
461.4000;0.5478;1.2563;
461.7000;0.5486;1.2661;
462.0000;0.5478;1.2563;
462.3000;0.5429;1.2489;
462.6000;0.5478;1.2637;
462.9000;0.5454;1.2711;
463.2000;0.5495;1.2834;
463.5000;0.5486;1.2834;
463.8000;0.5478;1.2711;
464.1000;0.5462;1.2760;
464.4000;0.5462;1.2834;
464.7000;0.5486;1.2908;
465.0000;0.5446;1.2785;
465.3000;0.5446;1.2809;
465.6000;0.5478;1.2785;
465.9000;0.5470;1.2735;
466.2000;0.5462;1.2735;
466.5000;0.5478;1.2834;
466.8000;0.5486;1.2883;
467.1000;0.5478;1.2834;
467.4000;0.5486;1.2908;
467.7000;0.5495;1.2859;
468.0000;0.5495;1.2809;
468.3000;0.5495;1.2785;
468.6000;0.5495;1.2735;
468.9000;0.5478;1.2686;
469.2000;0.5462;1.2661;
469.5000;0.5478;1.2760;
469.8000;0.5495;1.2785;
470.1000;0.5503;1.2859;
470.4000;0.5462;1.2785;
470.7000;0.5470;1.2883;
471.0000;0.5486;1.2883;
471.3000;0.5486;1.2859;
471.6000;0.5495;1.2859;
471.9000;0.5462;1.2933;
472.2000;0.5486;1.2908;
472.5000;0.5462;1.2859;
472.8000;0.5495;1.2834;
473.1000;0.5503;1.2834;
473.4000;0.5478;1.2809;
473.7000;0.5421;1.2661;
474.0000;0.5470;1.2735;
474.3000;0.5462;1.2809;
474.6000;0.5470;1.2883;
474.9000;0.5568;1.3204;
475.2000;0.5503;1.3081;
475.5000;0.5470;1.2982;
475.8000;0.5429;1.2859;
476.1000;0.5470;1.2908;
476.4000;0.5470;1.2982;
476.7000;0.5454;1.3007;
477.0000;0.5519;1.3056;
477.3000;0.5478;1.3007;
477.6000;0.5495;1.3007;
477.9000;0.5478;1.2957;
478.2000;0.5503;1.2982;
478.5000;0.5478;1.2933;
478.8000;0.5486;1.2908;
479.1000;0.5551;1.3007;
479.4000;0.5462;1.2760;
479.7000;0.5470;1.2859;
480.0000;0.5470;1.2933;
480.3000;0.5470;1.2933;
480.6000;0.5446;1.2908;
480.9000;0.5454;1.2809;
481.2000;0.5478;1.2908;
481.5000;0.5454;1.2785;
481.8000;0.5470;1.2760;
482.1000;0.5438;1.2661;
482.4000;0.5470;1.2711;
482.7000;0.5478;1.2735;
483.0000;0.5478;1.2612;
483.3000;0.5413;1.2538;
483.6000;0.5462;1.2661;
483.9000;0.5413;1.2563;
484.2000;0.5560;1.2982;
484.5000;0.5486;1.2735;
484.8000;0.5462;1.2735;
485.1000;0.5462;1.2785;
485.4000;0.5478;1.2785;
485.7000;0.5462;1.2711;
486.0000;0.5462;1.2637;
486.3000;0.5454;1.2661;
486.6000;0.5486;1.2809;
486.9000;0.5478;1.2760;
487.2000;0.5454;1.2785;
487.5000;0.5462;1.2785;
487.8000;0.5486;1.2883;
488.1000;0.5470;1.2859;
488.4000;0.5454;1.2760;
488.7000;0.5470;1.2883;
489.0000;0.5470;1.2957;
489.3000;0.5486;1.2982;
489.6000;0.5470;1.2908;
489.9000;0.5478;1.2859;
490.2000;0.5486;1.2933;
490.5000;0.5495;1.2834;
490.8000;0.5527;1.2933;
491.1000;0.5495;1.2883;
491.4000;0.5495;1.2933;
491.7000;0.5527;1.3032;
492.0000;0.5560;1.3180;
492.3000;0.5478;1.2933;
492.6000;0.5462;1.2809;
492.9000;0.5454;1.2785;
493.2000;0.5462;1.2735;
493.5000;0.5470;1.2760;
493.8000;0.5470;1.2735;
494.1000;0.5470;1.2711;
494.4000;0.5486;1.2686;
494.7000;0.5413;1.2415;
495.0000;0.5462;1.2587;
495.3000;0.5478;1.2661;
495.6000;0.5486;1.2686;
495.9000;0.5503;1.2661;
496.2000;0.5470;1.2563;
496.5000;0.5478;1.2587;
496.8000;0.5511;1.2760;
497.1000;0.5405;1.2513;
497.4000;0.5462;1.2637;
497.7000;0.5438;1.2612;
498.0000;0.5454;1.2686;
498.3000;0.5478;1.2735;
498.6000;0.5446;1.2637;
498.9000;0.5470;1.2735;
499.2000;0.5478;1.2760;
499.5000;0.5503;1.2785;
499.8000;0.5535;1.2834;
500.1000;0.5543;1.2933;
500.4000;0.5462;1.2686;
500.7000;0.5454;1.2612;
501.0000;0.5470;1.2612;
501.3000;0.5486;1.2686;
501.6000;0.5470;1.2661;
501.9000;0.5429;1.2612;
502.2000;0.5560;1.3032;
502.5000;0.5478;1.2883;
502.8000;0.5478;1.2809;
503.1000;0.5429;1.2686;
503.4000;0.5503;1.2883;
503.7000;0.5462;1.2686;
504.0000;0.5478;1.2612;
504.3000;0.5495;1.2686;
504.6000;0.5470;1.2661;
504.9000;0.5478;1.2686;
505.2000;0.5478;1.2661;
505.5000;0.5462;1.2661;
505.8000;0.5470;1.2760;
506.1000;0.5486;1.2809;
506.4000;0.5470;1.2809;
506.7000;0.5470;1.2883;
507.0000;0.5486;1.2883;
507.3000;0.5478;1.2809;
507.6000;0.5462;1.2834;
507.9000;0.5486;1.2859;
508.2000;0.5462;1.2859;
508.5000;0.5478;1.2883;
508.8000;0.5478;1.2859;
509.1000;0.5478;1.2908;
509.4000;0.5462;1.2957;
509.7000;0.5503;1.2982;
510.0000;0.5495;1.2933;
510.3000;0.5478;1.2883;
510.6000;0.5486;1.2982;
510.9000;0.5486;1.3081;
511.2000;0.5478;1.3081;
511.5000;0.5478;1.3056;
511.8000;0.5470;1.2957;
512.1000;0.5462;1.2908;
512.4000;0.5511;1.2908;
512.7000;0.5495;1.2908;
513.0000;0.5486;1.2933;
513.3000;0.5470;1.2760;
513.6000;0.5462;1.2760;
513.9000;0.5454;1.2735;
514.2000;0.5462;1.2760;
514.5000;0.5405;1.2612;
514.8000;0.5470;1.2760;
515.1000;0.5470;1.2834;
515.4000;0.5413;1.2612;
515.7000;0.5495;1.2809;
516.0000;0.5454;1.2785;
516.3000;0.5454;1.2809;
516.6000;0.5527;1.2883;
516.9000;0.5470;1.2686;
517.2000;0.5454;1.2661;
517.5000;0.5503;1.2760;
517.8000;0.5470;1.2637;
518.1000;0.5470;1.2735;
518.4000;0.5462;1.2735;
518.7000;0.5454;1.2834;
519.0000;0.5470;1.2957;
519.3000;0.5462;1.2859;
519.6000;0.5470;1.2908;
519.9000;0.5462;1.2834;
520.2000;0.5486;1.2883;
520.5000;0.5495;1.2982;
520.8000;0.5470;1.2834;
521.1000;0.5478;1.2834;
521.4000;0.5478;1.2809;
521.7000;0.5503;1.2834;
522.0000;0.5486;1.2809;
522.3000;0.5462;1.2809;
522.6000;0.5478;1.2809;
522.9000;0.5503;1.2908;
523.2000;0.5462;1.2834;
523.5000;0.5454;1.2785;
523.8000;0.5454;1.2785;
524.1000;0.5478;1.2809;
524.4000;0.5478;1.2859;
524.7000;0.5446;1.2834;
525.0000;0.5478;1.2908;
525.3000;0.5454;1.2785;
525.6000;0.5446;1.2908;
525.9000;0.5462;1.2883;
526.2000;0.5478;1.2933;
526.5000;0.5486;1.2957;
526.8000;0.5519;1.3032;
527.1000;0.5397;1.2760;
527.4000;0.5478;1.2883;
527.7000;0.5478;1.2933;
528.0000;0.5454;1.2933;
528.3000;0.5438;1.2883;
528.6000;0.5478;1.2957;
528.9000;0.5446;1.2933;
529.2000;0.5470;1.2933;
529.5000;0.5478;1.2859;
529.8000;0.5470;1.2760;
530.1000;0.5470;1.2735;
530.4000;0.5446;1.2637;
530.7000;0.5470;1.2711;
531.0000;0.5462;1.2760;
531.3000;0.5405;1.2686;
531.6000;0.5454;1.2933;
531.9000;0.5446;1.2834;
532.2000;0.5470;1.2957;
532.5000;0.5462;1.2933;
532.8000;0.5470;1.2957;
533.1000;0.5454;1.2982;
533.4000;0.5429;1.2957;
533.7000;0.5478;1.2908;
534.0000;0.5470;1.2908;
534.3000;0.5462;1.2933;
534.6000;0.5470;1.2908;
534.9000;0.5503;1.3106;
535.2000;0.5429;1.2859;
535.5000;0.5454;1.2933;
535.8000;0.5470;1.2908;
536.1000;0.5462;1.2933;
536.4000;0.5478;1.2908;
536.7000;0.5470;1.2957;
537.0000;0.5454;1.2933;
537.3000;0.5446;1.2908;
537.6000;0.5429;1.2883;
537.9000;0.5462;1.2957;
538.2000;0.5495;1.3056;
538.5000;0.5454;1.2957;
538.8000;0.5478;1.2908;
539.1000;0.5478;1.2957;
539.4000;0.5462;1.2957;
539.7000;0.5421;1.2859;
540.0000;0.5470;1.2908;
540.3000;0.5462;1.2809;
540.6000;0.5478;1.2735;
540.9000;0.5486;1.2735;
541.2000;0.5470;1.2661;
541.5000;0.5470;1.2785;
541.8000;0.5470;1.2785;
542.1000;0.5438;1.2760;
542.4000;0.5470;1.2883;
542.7000;0.5560;1.3155;
543.0000;0.5454;1.2859;
543.3000;0.5478;1.2933;
543.6000;0.5470;1.2957;
543.9000;0.5478;1.3032;
544.2000;0.5486;1.2982;
544.5000;0.5478;1.2957;
544.8000;0.5486;1.2883;
545.1000;0.5486;1.2859;
545.4000;0.5486;1.2760;
545.7000;0.5470;1.2637;
546.0000;0.5470;1.2637;
546.3000;0.5478;1.2711;
546.6000;0.5470;1.2612;
546.9000;0.5446;1.2513;
547.2000;0.5478;1.2785;
547.5000;0.5462;1.2785;
547.8000;0.5503;1.2785;
548.1000;0.5462;1.2735;
548.4000;0.5454;1.2809;
548.7000;0.5462;1.2883;
549.0000;0.5478;1.2859;
549.3000;0.5478;1.2834;
549.6000;0.5462;1.2834;
549.9000;0.5462;1.2809;
550.2000;0.5462;1.2760;
550.5000;0.5405;1.2563;
550.8000;0.5470;1.2760;
551.1000;0.5462;1.2785;
551.4000;0.5486;1.2785;
551.7000;0.5470;1.2809;
552.0000;0.5470;1.2735;
552.3000;0.5462;1.2711;
552.6000;0.5478;1.2637;
552.9000;0.5478;1.2612;
553.2000;0.5429;1.2489;
553.5000;0.5462;1.2637;
553.8000;0.5454;1.2563;
554.1000;0.5470;1.2612;
554.4000;0.5454;1.2637;
554.7000;0.5470;1.2686;
555.0000;0.5478;1.2661;
555.3000;0.5527;1.2785;
555.6000;0.5495;1.2711;
555.9000;0.5478;1.2612;
556.2000;0.5527;1.2735;
556.5000;0.5421;1.2513;
556.8000;0.5568;1.2908;
557.1000;0.5478;1.2785;
557.4000;0.5462;1.2760;
557.7000;0.5470;1.2785;
558.0000;0.5470;1.2760;
558.3000;0.5503;1.2834;
558.6000;0.5470;1.2785;
558.9000;0.5478;1.2834;
559.2000;0.5478;1.2711;
559.5000;0.5462;1.2637;
559.8000;0.5478;1.2637;
560.1000;0.5462;1.2686;
560.4000;0.5478;1.2760;
560.7000;0.5478;1.2785;
561.0000;0.5495;1.2785;
561.3000;0.5470;1.2735;
561.6000;0.5413;1.2587;
561.9000;0.5462;1.2760;
562.2000;0.5486;1.2859;
562.5000;0.5486;1.2859;
562.8000;0.5454;1.2834;
563.1000;0.5470;1.2908;
563.4000;0.5478;1.2883;
563.7000;0.5478;1.2957;
564.0000;0.5478;1.3056;
564.3000;0.5478;1.3106;
564.6000;0.5511;1.3155;
564.9000;0.5478;1.3056;
565.2000;0.5470;1.3032;
565.5000;0.5462;1.2957;
565.8000;0.5486;1.3007;
566.1000;0.5470;1.2957;
566.4000;0.5462;1.2933;
566.7000;0.5478;1.2933;
567.0000;0.5486;1.2982;
567.3000;0.5470;1.2908;
567.6000;0.5470;1.2933;
567.9000;0.5470;1.2834;
568.2000;0.5478;1.2859;
568.5000;0.5495;1.2933;
568.8000;0.5438;1.2735;
569.1000;0.5470;1.2785;
569.4000;0.5495;1.2859;
569.7000;0.5495;1.2859;
570.0000;0.5470;1.2785;
570.3000;0.5462;1.2834;
570.6000;0.5462;1.2883;
570.9000;0.5478;1.2908;
571.2000;0.5462;1.2883;
571.5000;0.5462;1.2908;
571.8000;0.5413;1.2735;
572.1000;0.5462;1.2908;
572.4000;0.5470;1.2982;
572.7000;0.5478;1.3032;
573.0000;0.5462;1.2933;
573.3000;0.5470;1.2933;
573.6000;0.5454;1.3056;
573.9000;0.5462;1.3056;
574.2000;0.5454;1.3032;
574.5000;0.5470;1.3032;
574.8000;0.5454;1.2933;
575.1000;0.5454;1.2933;
575.4000;0.5446;1.2908;
575.7000;0.5454;1.2957;
576.0000;0.5454;1.2982;
576.3000;0.5495;1.3032;
576.6000;0.5462;1.2809;
576.9000;0.5462;1.2735;
577.2000;0.5495;1.2760;
577.5000;0.5486;1.2760;
577.8000;0.5462;1.2809;
578.1000;0.5454;1.2735;
578.4000;0.5462;1.2760;
578.7000;0.5470;1.2785;
579.0000;0.5478;1.2859;
579.3000;0.5454;1.2834;
579.6000;0.5454;1.2735;
579.9000;0.5486;1.2883;
580.2000;0.5470;1.2933;
580.5000;0.5470;1.2957;
580.8000;0.5462;1.2908;
581.1000;0.5470;1.2908;
581.4000;0.5470;1.2883;
581.7000;0.5478;1.2859;
582.0000;0.5470;1.2785;
582.3000;0.5454;1.2785;
582.6000;0.5462;1.2809;
582.9000;0.5454;1.2735;
583.2000;0.5462;1.2859;
583.5000;0.5462;1.2834;
583.8000;0.5462;1.2760;
584.1000;0.5454;1.2686;
584.4000;0.5462;1.2587;
584.7000;0.5470;1.2637;
585.0000;0.5470;1.2637;
585.3000;0.5470;1.2735;
585.6000;0.5470;1.2834;
585.9000;0.5454;1.2834;
586.2000;0.5438;1.2834;
586.5000;0.5470;1.2933;
586.8000;0.5438;1.2785;
587.1000;0.5486;1.2809;
587.4000;0.5462;1.2883;
587.7000;0.5470;1.2933;
588.0000;0.5470;1.2982;
588.3000;0.5470;1.2982;
588.6000;0.5462;1.2933;
588.9000;0.5429;1.2957;
589.2000;0.5486;1.3130;
589.5000;0.5405;1.2908;
589.8000;0.5478;1.3130;
590.1000;0.5486;1.3106;
590.4000;0.5478;1.3106;
590.7000;0.5495;1.3081;
591.0000;0.5454;1.2859;
591.3000;0.5527;1.3106;
591.6000;0.5486;1.2982;
591.9000;0.5478;1.2982;
592.2000;0.5503;1.3032;
592.5000;0.5446;1.2982;
592.8000;0.5462;1.3081;
593.1000;0.5576;1.3229;
593.4000;0.5438;1.2859;
593.7000;0.5413;1.2883;
594.0000;0.5478;1.2933;
594.3000;0.5462;1.2933;
594.6000;0.5503;1.3032;
594.9000;0.5462;1.2933;
595.2000;0.5429;1.2859;
595.5000;0.5446;1.2933;
595.8000;0.5470;1.2982;
596.1000;0.5438;1.2883;
596.4000;0.5503;1.3081;
596.7000;0.5446;1.2982;
597.0000;0.5486;1.3056;
597.3000;0.5511;1.3081;
597.6000;0.5446;1.2908;
597.9000;0.5478;1.3007;
598.2000;0.5454;1.2957;
598.5000;0.5462;1.2908;
598.8000;0.5511;1.2933;
599.1000;0.5486;1.2834;
599.4000;0.5519;1.2859;
599.7000;0.5478;1.2883;
600.0000;0.5470;1.2809;
600.3000;0.5470;1.2834;
600.6000;0.5470;1.2735;
600.9000;0.5446;1.2538;
601.2000;0.5429;1.2390;
601.5000;0.5421;1.2291;
601.8000;0.5356;1.2094;
602.1000;0.5315;1.1872;
602.4000;0.5275;1.1649;
602.7000;0.5242;1.1526;
603.0000;0.5193;1.1353;
603.3000;0.5120;1.1131;
603.6000;0.5153;1.1156;
603.9000;0.5128;1.0983;
604.2000;0.5096;1.0860;
604.5000;0.5071;1.0761;
604.8000;0.5039;1.0687;
605.1000;0.4974;1.0563;
605.4000;0.4990;1.0539;
605.7000;0.4974;1.0514;
606.0000;0.4965;1.0341;
606.3000;0.4949;1.0292;
606.6000;0.4892;1.0243;
606.9000;0.4933;1.0391;
607.2000;0.4917;1.0341;
607.5000;0.4876;1.0267;
607.8000;0.4860;1.0317;
608.1000;0.4827;1.0243;
608.4000;0.4819;1.0243;
608.7000;0.4835;1.0317;
609.0000;0.4819;1.0144;
609.3000;0.4770;1.0070;
609.6000;0.4794;1.0144;
609.9000;0.4746;1.0070;
610.2000;0.4737;1.0045;
610.5000;0.4697;0.9971;
610.8000;0.4713;1.0094;
611.1000;0.4705;1.0070;
611.4000;0.4672;1.0045;
611.7000;0.4583;0.9872;
612.0000;0.4746;1.0218;
612.3000;0.4656;1.0119;
612.6000;0.4558;0.9872;
612.9000;0.4640;1.0045;
613.2000;0.4599;0.9996;
613.5000;0.4615;1.0045;
613.8000;0.4583;1.0020;
614.1000;0.4558;0.9996;
614.4000;0.4558;1.0020;
614.7000;0.4518;0.9897;
615.0000;0.4558;0.9996;
615.3000;0.4550;0.9996;
615.6000;0.4550;1.0119;
615.9000;0.4542;1.0119;
616.2000;0.4485;0.9897;
616.5000;0.4518;0.9946;
616.8000;0.4493;0.9872;
617.1000;0.4510;1.0020;
617.4000;0.4477;0.9971;
617.7000;0.4453;0.9848;
618.0000;0.4485;0.9897;
618.3000;0.4485;0.9922;
618.6000;0.4461;0.9971;
618.9000;0.4453;0.9996;
619.2000;0.4387;0.9823;
619.5000;0.4420;0.9872;
619.8000;0.4428;0.9848;
620.1000;0.4412;0.9823;
620.4000;0.4420;0.9872;
620.7000;0.4387;0.9774;
621.0000;0.4379;0.9798;
621.3000;0.4387;0.9724;
621.6000;0.4363;0.9601;
621.9000;0.4371;0.9724;
622.2000;0.4355;0.9626;
622.5000;0.4363;0.9675;
622.8000;0.4363;0.9700;
623.1000;0.4355;0.9650;
623.4000;0.4339;0.9675;
623.7000;0.4339;0.9700;
624.0000;0.4347;0.9823;
624.3000;0.4322;0.9675;
624.6000;0.4322;0.9576;
624.9000;0.4298;0.9527;
625.2000;0.4363;0.9700;
625.5000;0.4355;0.9675;
625.8000;0.4290;0.9428;
626.1000;0.4274;0.9428;
626.4000;0.4274;0.9502;
626.7000;0.4274;0.9552;
627.0000;0.4282;0.9576;
627.3000;0.4265;0.9576;
627.6000;0.4257;0.9527;
627.9000;0.4274;0.9552;
628.2000;0.4274;0.9453;
628.5000;0.4290;0.9552;
628.8000;0.4282;0.9552;
629.1000;0.4249;0.9428;
629.4000;0.4225;0.9403;
629.7000;0.4241;0.9626;
630.0000;0.4249;0.9675;
630.3000;0.4225;0.9650;
630.6000;0.4225;0.9724;
630.9000;0.4217;0.9724;
631.2000;0.4217;0.9774;
631.5000;0.4208;0.9774;
631.8000;0.4151;0.9675;
632.1000;0.4208;0.9872;
632.4000;0.4200;0.9848;
632.7000;0.4249;0.9897;
633.0000;0.4208;0.9749;
633.3000;0.4168;0.9724;
633.6000;0.4192;0.9798;
633.9000;0.4184;0.9798;
634.2000;0.4200;0.9922;
634.5000;0.4176;0.9872;
634.8000;0.4176;0.9897;
635.1000;0.4184;0.9971;
635.4000;0.4054;0.9601;
635.7000;0.4151;0.9848;
636.0000;0.4168;0.9897;
636.3000;0.4168;0.9798;
636.6000;0.4168;0.9774;
636.9000;0.4143;0.9749;
637.2000;0.4135;0.9749;
637.5000;0.4192;0.9872;
637.8000;0.4135;0.9650;
638.1000;0.4143;0.9650;
638.4000;0.4135;0.9749;
638.7000;0.4119;0.9749;
639.0000;0.4135;0.9749;
639.3000;0.4135;0.9823;
639.6000;0.4119;0.9774;
639.9000;0.4143;0.9774;
640.2000;0.4103;0.9724;
640.5000;0.4078;0.9749;
640.8000;0.4103;0.9798;
641.1000;0.4086;0.9724;
641.4000;0.4119;0.9774;
641.7000;0.4086;0.9675;
642.0000;0.4070;0.9700;
642.3000;0.4119;0.9848;
642.6000;0.4127;0.9848;
642.9000;0.4070;0.9724;
643.2000;0.4062;0.9675;
643.5000;0.4094;0.9675;
643.8000;0.3989;0.9428;
644.1000;0.4062;0.9576;
644.4000;0.4103;0.9823;
644.7000;0.4062;0.9922;
645.0000;0.4062;0.9872;
645.3000;0.4070;0.9823;
645.6000;0.4070;0.9774;
645.9000;0.4086;0.9848;
646.2000;0.3989;0.9576;
646.5000;0.4062;0.9823;
646.8000;0.4046;0.9774;
647.1000;0.4046;0.9798;
647.4000;0.4070;0.9848;
647.7000;0.4037;0.9798;
648.0000;0.4046;0.9774;
648.3000;0.4013;0.9576;
648.6000;0.4029;0.9576;
648.9000;0.4054;0.9626;
649.2000;0.4054;0.9601;
649.5000;0.4054;0.9650;
649.8000;0.4037;0.9650;
650.1000;0.4054;0.9724;
650.4000;0.4046;0.9823;
650.7000;0.4013;0.9675;
651.0000;0.4054;0.9798;
651.3000;0.4037;0.9798;
651.6000;0.4046;0.9749;
651.9000;0.4037;0.9675;
652.2000;0.4046;0.9749;
652.5000;0.4037;0.9650;
652.8000;0.4046;0.9650;
653.1000;0.4021;0.9626;
653.4000;0.4005;0.9601;
653.7000;0.3997;0.9527;
654.0000;0.4013;0.9428;
654.3000;0.4005;0.9428;
654.6000;0.4005;0.9502;
654.9000;0.4005;0.9527;
655.2000;0.3997;0.9576;
655.5000;0.3989;0.9601;
655.8000;0.3997;0.9527;
656.1000;0.4005;0.9626;
656.4000;0.4029;0.9700;
656.7000;0.4021;0.9626;
657.0000;0.3980;0.9527;
657.3000;0.4005;0.9650;
657.6000;0.4013;0.9576;
657.9000;0.3997;0.9527;
658.2000;0.4029;0.9700;
658.5000;0.3972;0.9650;
658.8000;0.3989;0.9650;
659.1000;0.3997;0.9749;
659.4000;0.3989;0.9650;
659.7000;0.3980;0.9675;
660.0000;0.3964;0.9700;
660.3000;0.3964;0.9700;
660.6000;0.4037;0.9872;
660.9000;0.3980;0.9724;
661.2000;0.3972;0.9798;
661.5000;0.3956;0.9700;
661.8000;0.3956;0.9700;
662.1000;0.3980;0.9774;
662.4000;0.3989;0.9749;
662.7000;0.3948;0.9675;
663.0000;0.3923;0.9650;
663.3000;0.3989;0.9749;
663.6000;0.3964;0.9650;
663.9000;0.3956;0.9650;
664.2000;0.3989;0.9626;
664.5000;0.3964;0.9502;
664.8000;0.3964;0.9502;
665.1000;0.3956;0.9403;
665.4000;0.3972;0.9428;
665.7000;0.3989;0.9552;
666.0000;0.3980;0.9650;
666.3000;0.3980;0.9626;
666.6000;0.3948;0.9601;
666.9000;0.3972;0.9650;
667.2000;0.3948;0.9428;
667.5000;0.3964;0.9527;
667.8000;0.3948;0.9502;
668.1000;0.3956;0.9502;
668.4000;0.3932;0.9403;
668.7000;0.4005;0.9552;
669.0000;0.3923;0.9329;
669.3000;0.3948;0.9403;
669.6000;0.3948;0.9527;
669.9000;0.3932;0.9552;
670.2000;0.3932;0.9576;
670.5000;0.3956;0.9552;
670.8000;0.3948;0.9477;
671.1000;0.3932;0.9453;
671.4000;0.4013;0.9552;
671.7000;0.3940;0.9428;
672.0000;0.3940;0.9453;
672.3000;0.3956;0.9527;
672.6000;0.3956;0.9552;
672.9000;0.3858;0.9255;
673.2000;0.3932;0.9453;
673.5000;0.3940;0.9552;
673.8000;0.3932;0.9477;
674.1000;0.3940;0.9453;
674.4000;0.3956;0.9477;
674.7000;0.3940;0.9428;
675.0000;0.3915;0.9403;
675.3000;0.3915;0.9453;
675.6000;0.3932;0.9453;
675.9000;0.3907;0.9379;
676.2000;0.3923;0.9379;
676.5000;0.3923;0.9403;
676.8000;0.3923;0.9379;
677.1000;0.3899;0.9453;
677.4000;0.3923;0.9477;
677.7000;0.3907;0.9428;
678.0000;0.3923;0.9527;
678.3000;0.3915;0.9527;
678.6000;0.3923;0.9552;
678.9000;0.3932;0.9576;
679.2000;0.3940;0.9601;
679.5000;0.3932;0.9700;
679.8000;0.3964;0.9848;
680.1000;0.3932;0.9774;
680.4000;0.3923;0.9724;
680.7000;0.3907;0.9700;
681.0000;0.3907;0.9749;
681.3000;0.3899;0.9724;
681.6000;0.3850;0.9403;
681.9000;0.3915;0.9576;
682.2000;0.3891;0.9601;
682.5000;0.3915;0.9700;
682.8000;0.3932;0.9650;
683.1000;0.3940;0.9527;
683.4000;0.3883;0.9403;
683.7000;0.3899;0.9552;
684.0000;0.3915;0.9626;
684.3000;0.3891;0.9552;
684.6000;0.3883;0.9576;
684.9000;0.3899;0.9601;
685.2000;0.3915;0.9626;
685.5000;0.3899;0.9527;
685.8000;0.3907;0.9601;
686.1000;0.3899;0.9601;
686.4000;0.3915;0.9601;
686.7000;0.3915;0.9552;
687.0000;0.3899;0.9552;
687.3000;0.3915;0.9552;
687.6000;0.3891;0.9403;
687.9000;0.3932;0.9453;
688.2000;0.3875;0.9379;
688.5000;0.3923;0.9576;
688.8000;0.3948;0.9675;
689.1000;0.3891;0.9403;
689.4000;0.3883;0.9305;
689.7000;0.3923;0.9502;
690.0000;0.3907;0.9428;
690.3000;0.3907;0.9502;
690.6000;0.3883;0.9477;
690.9000;0.3948;0.9724;
691.2000;0.3980;0.9749;
691.5000;0.3907;0.9601;
691.8000;0.3867;0.9453;
692.1000;0.3867;0.9453;
692.4000;0.3899;0.9477;
692.7000;0.3891;0.9527;
693.0000;0.3899;0.9626;
693.3000;0.3940;0.9650;
693.6000;0.3907;0.9601;
693.9000;0.3972;0.9798;
694.2000;0.3875;0.9626;
694.5000;0.3858;0.9552;
694.8000;0.3883;0.9650;
695.1000;0.3875;0.9675;
695.4000;0.3907;0.9749;
695.7000;0.3891;0.9724;
696.0000;0.3875;0.9798;
696.3000;0.3899;0.9774;
696.6000;0.3875;0.9675;
696.9000;0.3899;0.9650;
697.2000;0.3875;0.9527;
697.5000;0.3777;0.9255;
697.8000;0.3883;0.9527;
698.1000;0.3907;0.9576;
698.4000;0.3875;0.9477;
698.7000;0.3867;0.9379;
699.0000;0.3867;0.9379;
699.3000;0.3907;0.9576;
699.6000;0.3891;0.9527;
699.9000;0.3867;0.9428;
700.2000;0.3867;0.9379;
700.5000;0.3867;0.9453;
700.8000;0.3891;0.9626;
701.1000;0.3883;0.9552;
701.4000;0.3875;0.9650;
701.7000;0.3907;0.9675;
702.0000;0.3867;0.9527;
702.3000;0.3858;0.9527;
702.6000;0.3875;0.9477;
702.9000;0.3875;0.9477;
703.2000;0.3899;0.9552;
703.5000;0.3858;0.9453;
703.8000;0.3850;0.9428;
704.1000;0.3867;0.9379;
704.4000;0.3891;0.9428;
704.7000;0.3867;0.9552;
705.0000;0.3850;0.9552;
705.3000;0.3850;0.9601;
705.6000;0.3842;0.9552;
705.9000;0.3867;0.9601;
706.2000;0.3875;0.9576;
706.5000;0.3834;0.9403;
706.8000;0.3867;0.9552;
707.1000;0.3850;0.9502;
707.4000;0.3834;0.9477;
707.7000;0.3867;0.9626;
708.0000;0.3867;0.9576;
708.3000;0.3915;0.9650;
708.6000;0.3850;0.9428;
708.9000;0.3850;0.9403;
709.2000;0.3850;0.9428;
709.5000;0.3875;0.9477;
709.8000;0.3850;0.9477;
710.1000;0.3834;0.9428;
710.4000;0.3842;0.9379;
710.7000;0.3842;0.9354;
711.0000;0.3858;0.9428;
711.3000;0.3867;0.9403;
711.6000;0.3867;0.9428;
711.9000;0.3899;0.9576;
712.2000;0.3858;0.9502;
712.5000;0.3932;0.9724;
712.8000;0.3883;0.9576;
713.1000;0.3858;0.9576;
713.4000;0.3875;0.9626;
713.7000;0.3899;0.9650;
714.0000;0.3834;0.9527;
714.3000;0.3891;0.9724;
714.6000;0.3858;0.9700;
714.9000;0.3850;0.9700;
715.2000;0.3858;0.9700;
715.5000;0.3915;0.9872;
715.8000;0.3826;0.9576;
716.1000;0.3842;0.9601;
716.4000;0.3867;0.9749;
716.7000;0.3850;0.9675;
717.0000;0.3834;0.9626;
717.3000;0.3867;0.9724;
717.6000;0.3875;0.9650;
717.9000;0.3875;0.9601;
718.2000;0.3940;0.9798;
718.5000;0.3867;0.9749;
718.8000;0.3842;0.9700;
719.1000;0.3834;0.9650;
719.4000;0.3842;0.9650;
719.7000;0.3834;0.9601;
720.0000;0.3842;0.9552;
720.3000;0.3761;0.9403;
720.6000;0.3842;0.9601;
720.9000;0.3810;0.9552;
721.2000;0.3867;0.9675;
721.5000;0.3858;0.9626;
721.8000;0.3834;0.9601;
722.1000;0.3858;0.9626;
722.4000;0.3842;0.9527;
722.7000;0.3850;0.9576;
723.0000;0.3842;0.9527;
723.3000;0.3834;0.9552;
723.6000;0.3842;0.9527;
723.9000;0.3858;0.9601;
724.2000;0.3867;0.9552;
724.5000;0.3850;0.9379;
724.8000;0.3826;0.9379;
725.1000;0.3834;0.9305;
725.4000;0.3842;0.9354;
725.7000;0.3842;0.9329;
726.0000;0.3842;0.9354;
726.3000;0.3818;0.9403;
726.6000;0.3834;0.9527;
726.9000;0.3907;0.9724;
727.2000;0.3842;0.9552;
727.5000;0.3826;0.9601;
727.8000;0.3810;0.9552;
728.1000;0.3932;0.9922;
728.4000;0.3907;0.9922;
728.7000;0.3858;0.9724;
729.0000;0.3850;0.9576;
729.3000;0.3818;0.9453;
729.6000;0.3964;0.9897;
729.9000;0.3834;0.9502;
730.2000;0.3842;0.9453;
730.5000;0.3842;0.9527;
730.8000;0.3826;0.9477;
731.1000;0.3826;0.9527;
731.4000;0.3834;0.9477;
731.7000;0.3850;0.9527;
732.0000;0.3842;0.9477;
732.3000;0.3834;0.9502;
732.6000;0.3834;0.9502;
732.9000;0.3834;0.9601;
733.2000;0.3842;0.9675;
733.5000;0.3826;0.9724;
733.8000;0.3818;0.9675;
734.1000;0.3834;0.9626;
734.4000;0.3842;0.9749;
734.7000;0.3826;0.9724;
735.0000;0.3818;0.9749;
735.3000;0.3858;0.9872;
735.6000;0.3826;0.9897;
735.9000;0.3850;0.9897;
736.2000;0.3858;0.9922;
736.5000;0.3850;0.9897;
736.8000;0.3834;0.9798;
737.1000;0.3834;0.9798;
737.4000;0.3834;0.9700;
737.7000;0.3818;0.9650;
738.0000;0.3850;0.9700;
738.3000;0.3858;0.9675;
738.6000;0.3826;0.9576;
738.9000;0.3834;0.9626;
739.2000;0.3834;0.9675;
739.5000;0.3834;0.9650;
739.8000;0.3875;0.9823;
740.1000;0.3826;0.9798;
740.4000;0.3875;0.9922;
740.7000;0.3826;0.9897;
741.0000;0.3834;0.9798;
741.3000;0.3801;0.9724;
741.6000;0.3826;0.9774;
741.9000;0.3834;0.9774;
742.2000;0.3826;0.9774;
742.5000;0.3834;0.9700;
742.8000;0.3834;0.9700;
743.1000;0.3810;0.9749;
743.4000;0.3744;0.9552;
743.7000;0.3818;0.9724;
744.0000;0.3810;0.9675;
744.3000;0.3826;0.9700;
744.6000;0.3810;0.9749;
744.9000;0.3810;0.9823;
745.2000;0.3826;0.9798;
745.5000;0.3834;0.9724;
745.8000;0.3810;0.9700;
746.1000;0.3826;0.9724;
746.4000;0.3875;0.9798;
746.7000;0.3842;0.9749;
747.0000;0.3842;0.9700;
747.3000;0.3826;0.9576;
747.6000;0.3826;0.9552;
747.9000;0.3826;0.9552;
748.2000;0.3842;0.9552;
748.5000;0.3826;0.9527;
748.8000;0.3818;0.9403;
749.1000;0.3834;0.9453;
749.4000;0.3826;0.9453;
749.7000;0.3818;0.9453;
750.0000;0.3777;0.9403;
750.3000;0.3818;0.9552;
750.6000;0.3818;0.9552;
750.9000;0.3842;0.9576;
751.2000;0.3850;0.9527;
751.5000;0.3834;0.9453;
751.8000;0.3842;0.9552;
752.1000;0.3858;0.9552;
752.4000;0.3834;0.9453;
752.7000;0.3842;0.9502;
753.0000;0.3810;0.9379;
753.3000;0.3915;0.9650;
753.6000;0.3818;0.9428;
753.9000;0.3826;0.9477;
754.2000;0.3842;0.9477;
754.5000;0.3810;0.9305;
754.8000;0.3769;0.9181;
755.1000;0.3785;0.9305;
755.4000;0.3801;0.9305;
755.7000;0.3810;0.9379;
756.0000;0.3826;0.9354;
756.3000;0.3826;0.9329;
756.6000;0.3834;0.9280;
756.9000;0.3826;0.9280;
757.2000;0.3834;0.9305;
757.5000;0.3826;0.9354;
757.8000;0.3826;0.9354;
758.1000;0.3834;0.9379;
758.4000;0.3818;0.9329;
758.7000;0.3826;0.9305;
759.0000;0.3818;0.9280;
759.3000;0.3834;0.9379;
759.6000;0.3818;0.9403;
759.9000;0.3826;0.9428;
760.2000;0.3818;0.9379;
760.5000;0.3834;0.9354;
760.8000;0.3801;0.9305;
761.1000;0.3826;0.9305;
761.4000;0.3810;0.9329;
761.7000;0.3834;0.9453;
762.0000;0.3818;0.9403;
762.3000;0.3850;0.9453;
762.6000;0.3818;0.9379;
762.9000;0.3867;0.9502;
763.2000;0.3826;0.9428;
763.5000;0.3826;0.9477;
763.8000;0.3818;0.9502;
764.1000;0.3818;0.9477;
764.4000;0.3826;0.9453;
764.7000;0.3834;0.9403;
765.0000;0.3801;0.9428;
765.3000;0.3842;0.9477;
765.6000;0.3801;0.9354;
765.9000;0.3842;0.9428;
766.2000;0.3818;0.9428;
766.5000;0.3810;0.9354;
766.8000;0.3810;0.9305;
767.1000;0.3801;0.9329;
767.4000;0.3728;0.9206;
767.7000;0.3801;0.9428;
768.0000;0.3801;0.9403;
768.3000;0.3842;0.9502;
768.6000;0.3818;0.9453;
768.9000;0.3810;0.9502;
769.2000;0.3818;0.9502;
769.5000;0.3826;0.9477;
769.8000;0.3818;0.9428;
770.1000;0.3810;0.9428;
770.4000;0.3834;0.9527;
770.7000;0.3826;0.9502;
771.0000;0.3818;0.9576;
771.3000;0.3826;0.9626;
771.6000;0.3793;0.9527;
771.9000;0.3818;0.9626;
772.2000;0.3810;0.9552;
772.5000;0.3793;0.9502;
772.8000;0.3818;0.9576;
773.1000;0.3810;0.9477;
773.4000;0.3826;0.9552;
773.7000;0.3858;0.9552;
774.0000;0.3793;0.9403;
774.3000;0.3810;0.9403;
774.6000;0.3818;0.9354;
774.9000;0.3826;0.9305;
775.2000;0.3818;0.9280;
775.5000;0.3818;0.9280;
775.8000;0.3801;0.9231;
776.1000;0.3785;0.9255;
776.4000;0.3810;0.9329;
776.7000;0.3753;0.9181;
777.0000;0.3801;0.9354;
777.3000;0.3810;0.9453;
777.6000;0.3785;0.9428;
777.9000;0.3801;0.9477;
778.2000;0.3810;0.9601;
778.5000;0.3810;0.9601;
778.8000;0.3834;0.9626;
779.1000;0.3728;0.9428;
779.4000;0.3777;0.9650;
779.7000;0.3810;0.9626;
780.0000;0.3867;0.9823;
780.3000;0.3810;0.9576;
780.6000;0.3793;0.9527;
780.9000;0.3769;0.9453;
781.2000;0.3810;0.9601;
781.5000;0.3777;0.9453;
781.8000;0.3810;0.9502;
782.1000;0.3793;0.9453;
782.4000;0.3826;0.9477;
782.7000;0.3801;0.9329;
783.0000;0.3818;0.9428;
783.3000;0.3785;0.9428;
783.6000;0.3801;0.9477;
783.9000;0.3801;0.9477;
784.2000;0.3826;0.9502;
784.5000;0.3801;0.9403;
784.8000;0.3810;0.9453;
785.1000;0.3818;0.9552;
785.4000;0.3850;0.9576;
785.7000;0.3826;0.9527;
786.0000;0.3850;0.9552;
786.3000;0.3842;0.9527;
786.6000;0.3818;0.9403;
786.9000;0.3810;0.9428;
787.2000;0.3736;0.9305;
787.5000;0.3810;0.9576;
787.8000;0.3801;0.9576;
788.1000;0.3826;0.9502;
788.4000;0.3834;0.9527;
788.7000;0.3785;0.9453;
789.0000;0.3818;0.9428;
789.3000;0.3793;0.9453;
789.6000;0.3818;0.9576;
789.9000;0.3810;0.9502;
790.2000;0.3810;0.9477;
790.5000;0.3818;0.9502;
790.8000;0.3818;0.9552;
791.1000;0.3801;0.9502;
791.4000;0.3858;0.9700;
791.7000;0.3810;0.9626;
792.0000;0.3834;0.9650;
792.3000;0.3793;0.9552;
792.6000;0.3785;0.9552;
792.9000;0.3801;0.9527;
793.2000;0.3810;0.9502;
793.5000;0.3883;0.9650;
793.8000;0.3801;0.9453;
794.1000;0.3793;0.9552;
794.4000;0.3777;0.9477;
794.7000;0.3793;0.9552;
795.0000;0.3793;0.9650;
795.3000;0.3826;0.9650;
795.6000;0.3777;0.9527;
795.9000;0.3826;0.9601;
796.2000;0.3810;0.9527;
796.5000;0.3818;0.9527;
796.8000;0.3826;0.9527;
797.1000;0.3826;0.9527;
797.4000;0.3785;0.9477;
797.7000;0.3810;0.9527;
798.0000;0.3842;0.9576;
798.3000;0.3793;0.9453;
798.6000;0.3769;0.9305;
798.9000;0.3785;0.9231;
799.2000;0.3801;0.9379;
799.5000;0.3810;0.9502;
799.8000;0.3769;0.9379;
800.1000;0.3826;0.9502;
800.4000;0.3801;0.9403;
800.7000;0.3793;0.9502;
801.0000;0.3801;0.9601;
801.3000;0.3793;0.9626;
801.6000;0.3801;0.9650;
801.9000;0.3785;0.9724;
802.2000;0.3826;0.9749;
802.5000;0.3818;0.9700;
802.8000;0.3720;0.9453;
803.1000;0.3810;0.9626;
803.4000;0.3801;0.9576;
803.7000;0.3793;0.9527;
804.0000;0.3769;0.9576;
804.3000;0.3793;0.9650;
804.6000;0.3793;0.9650;
804.9000;0.3810;0.9700;
805.2000;0.3785;0.9626;
805.5000;0.3777;0.9700;
805.8000;0.3793;0.9700;
806.1000;0.3801;0.9700;
806.4000;0.3793;0.9700;
806.7000;0.3785;0.9774;
807.0000;0.3793;0.9774;
807.3000;0.3826;0.9922;
807.6000;0.3793;0.9922;
807.9000;0.3801;0.9897;
808.2000;0.3810;0.9798;
808.5000;0.3810;0.9724;
808.8000;0.3793;0.9626;
809.1000;0.3810;0.9552;
809.4000;0.3761;0.9379;
809.7000;0.3818;0.9626;
810.0000;0.3826;0.9724;
810.3000;0.3842;0.9749;
810.6000;0.3801;0.9552;
810.9000;0.3801;0.9552;
811.2000;0.3801;0.9527;
811.5000;0.3818;0.9576;
811.8000;0.3810;0.9576;
812.1000;0.3801;0.9576;
812.4000;0.3858;0.9749;
812.7000;0.3818;0.9650;
813.0000;0.3801;0.9626;
813.3000;0.3818;0.9626;
813.6000;0.3785;0.9477;
813.9000;0.3842;0.9601;
814.2000;0.3801;0.9527;
814.5000;0.3834;0.9601;
814.8000;0.3858;0.9724;
815.1000;0.3801;0.9601;
815.4000;0.3801;0.9527;
815.7000;0.3810;0.9601;
816.0000;0.3785;0.9626;
816.3000;0.3810;0.9626;
816.6000;0.3810;0.9749;
816.9000;0.3801;0.9724;
817.2000;0.3810;0.9650;
817.5000;0.3810;0.9552;
817.8000;0.3810;0.9552;
818.1000;0.3785;0.9379;
818.4000;0.3785;0.9453;
818.7000;0.3810;0.9527;
819.0000;0.3801;0.9477;
819.3000;0.3801;0.9527;
819.6000;0.3801;0.9453;
819.9000;0.3793;0.9428;
820.2000;0.3801;0.9502;
820.5000;0.3793;0.9453;
820.8000;0.3785;0.9403;
821.1000;0.3801;0.9453;
821.4000;0.3801;0.9428;
821.7000;0.3793;0.9576;
822.0000;0.3801;0.9552;
822.3000;0.3793;0.9477;
822.6000;0.3810;0.9527;
822.9000;0.3834;0.9601;
823.2000;0.3793;0.9428;
823.5000;0.3793;0.9329;
823.8000;0.3810;0.9354;
824.1000;0.3793;0.9280;
824.4000;0.3899;0.9527;
824.7000;0.3801;0.9329;
825.0000;0.3793;0.9354;
825.3000;0.3793;0.9403;
825.6000;0.3810;0.9477;
825.9000;0.3793;0.9403;
826.2000;0.3801;0.9453;
826.5000;0.3801;0.9403;
826.8000;0.3801;0.9379;
827.1000;0.3793;0.9379;
827.4000;0.3785;0.9280;
827.7000;0.3785;0.9255;
828.0000;0.3826;0.9354;
828.3000;0.3801;0.9329;
828.6000;0.3785;0.9354;
828.9000;0.3785;0.9379;
829.2000;0.3801;0.9329;
829.5000;0.3793;0.9354;
829.8000;0.3793;0.9403;
830.1000;0.3793;0.9428;
830.4000;0.3842;0.9601;
830.7000;0.3801;0.9601;
831.0000;0.3728;0.9428;
831.3000;0.3810;0.9576;
831.6000;0.3777;0.9453;
831.9000;0.3801;0.9552;
832.2000;0.3769;0.9502;
832.5000;0.3810;0.9626;
832.8000;0.3785;0.9650;
833.1000;0.3793;0.9576;
833.4000;0.3801;0.9453;
833.7000;0.3793;0.9403;
834.0000;0.3818;0.9576;
834.3000;0.3850;0.9675;
834.6000;0.3801;0.9576;
834.9000;0.3810;0.9700;
835.2000;0.3785;0.9626;
835.5000;0.3793;0.9552;
835.8000;0.3793;0.9552;
836.1000;0.3818;0.9626;
836.4000;0.3793;0.9502;
836.7000;0.3793;0.9477;
837.0000;0.3810;0.9502;
837.3000;0.3785;0.9502;
837.6000;0.3793;0.9626;
837.9000;0.3753;0.9428;
838.2000;0.3793;0.9552;
838.5000;0.3826;0.9626;
838.8000;0.3785;0.9626;
839.1000;0.3777;0.9626;
839.4000;0.3793;0.9626;
839.7000;0.3810;0.9798;
840.0000;0.3777;0.9823;
840.3000;0.3907;1.0094;
840.6000;0.3810;0.9848;
840.9000;0.3826;0.9996;
841.2000;0.3785;0.9946;
841.5000;0.3793;0.9848;
841.8000;0.3793;0.9823;
842.1000;0.3785;0.9823;
842.4000;0.3696;0.9552;
842.7000;0.3704;0.9576;
843.0000;0.3785;0.9675;
843.3000;0.3777;0.9675;
843.6000;0.3753;0.9675;
843.9000;0.3785;0.9724;
844.2000;0.3769;0.9700;
844.5000;0.3793;0.9774;
844.8000;0.3793;0.9872;
845.1000;0.3785;0.9872;
845.4000;0.3801;0.9749;
845.7000;0.3818;0.9774;
846.0000;0.3793;0.9749;
846.3000;0.3777;0.9626;
846.6000;0.3834;0.9823;
846.9000;0.3801;0.9798;
847.2000;0.3801;0.9774;
847.5000;0.3777;0.9724;
847.8000;0.3818;0.9872;
848.1000;0.3744;0.9724;
848.4000;0.3801;0.9798;
848.7000;0.3801;0.9798;
849.0000;0.3793;0.9724;
849.3000;0.3785;0.9774;
849.6000;0.3777;0.9922;
849.9000;0.3793;0.9922;
850.2000;0.3793;0.9774;
850.5000;0.3826;0.9823;
850.8000;0.3769;0.9576;
851.1000;0.3801;0.9700;
851.4000;0.3810;0.9774;
851.7000;0.3793;0.9724;
852.0000;0.3793;0.9798;
852.3000;0.3785;0.9749;
852.6000;0.3753;0.9700;
852.9000;0.3801;0.9798;
853.2000;0.3801;0.9774;
853.5000;0.3793;0.9848;
853.8000;0.3793;0.9724;
854.1000;0.3801;0.9774;
854.4000;0.3801;0.9724;
854.7000;0.3818;0.9675;
855.0000;0.3793;0.9626;
855.3000;0.3793;0.9477;
855.6000;0.3801;0.9403;
855.9000;0.3785;0.9403;
856.2000;0.3785;0.9453;
856.5000;0.3785;0.9502;
856.8000;0.3801;0.9650;
857.1000;0.3793;0.9675;
857.4000;0.3785;0.9700;
857.7000;0.3810;0.9823;
858.0000;0.3810;0.9848;
858.3000;0.3801;0.9872;
858.6000;0.3744;0.9749;
858.9000;0.3834;1.0020;
859.2000;0.3793;0.9872;
859.5000;0.3858;1.0020;
859.8000;0.3777;0.9872;
860.1000;0.3785;0.9922;
860.4000;0.3826;0.9996;
860.7000;0.3834;0.9971;
861.0000;0.3785;0.9848;
861.3000;0.3769;0.9897;
861.6000;0.3834;0.9922;
861.9000;0.3777;0.9823;
862.2000;0.3777;0.9798;
862.5000;0.3793;0.9798;
862.8000;0.3777;0.9724;
863.1000;0.3793;0.9848;
863.4000;0.3810;0.9848;
863.7000;0.3785;0.9872;
864.0000;0.3777;0.9848;
864.3000;0.3793;0.9946;
864.6000;0.3785;0.9848;
864.9000;0.3785;0.9774;
865.2000;0.3777;0.9700;
865.5000;0.3793;0.9823;
865.8000;0.3793;0.9798;
866.1000;0.3785;0.9724;
866.4000;0.3712;0.9527;
866.7000;0.3761;0.9675;
867.0000;0.3793;0.9774;
867.3000;0.3801;0.9700;
867.6000;0.3761;0.9675;
867.9000;0.3801;0.9823;
868.2000;0.3801;0.9897;
868.5000;0.3801;0.9823;
868.8000;0.3818;0.9922;
869.1000;0.3793;0.9897;
869.4000;0.3761;0.9848;
869.7000;0.3728;0.9626;
870.0000;0.3793;0.9700;
870.3000;0.3801;0.9749;
870.6000;0.3801;0.9749;
870.9000;0.3785;0.9774;
871.2000;0.3785;0.9724;
871.5000;0.3744;0.9601;
871.8000;0.3801;0.9749;
872.1000;0.3753;0.9650;
872.4000;0.3785;0.9700;
872.7000;0.3785;0.9675;
873.0000;0.3785;0.9749;
873.3000;0.3753;0.9774;
873.6000;0.3769;0.9724;
873.9000;0.3769;0.9700;
874.2000;0.3769;0.9626;
874.5000;0.3793;0.9749;
874.8000;0.3793;0.9774;
875.1000;0.3769;0.9749;
875.4000;0.3785;0.9749;
875.7000;0.3769;0.9798;
876.0000;0.3785;0.9872;
876.3000;0.3785;0.9922;
876.6000;0.3793;0.9922;
876.9000;0.3785;0.9971;
877.2000;0.3769;0.9946;
877.5000;0.3769;0.9946;
877.8000;0.3785;0.9897;
878.1000;0.3777;0.9823;
878.4000;0.3801;0.9897;
878.7000;0.3785;0.9897;
879.0000;0.3785;0.9823;
879.3000;0.3777;0.9774;
879.6000;0.3793;0.9872;
879.9000;0.3818;0.9897;
880.2000;0.3850;0.9946;
880.5000;0.3810;0.9823;
880.8000;0.3793;0.9823;
881.1000;0.3801;0.9798;
881.4000;0.3850;0.9823;
881.7000;0.3801;0.9749;
882.0000;0.3785;0.9749;
882.3000;0.3785;0.9823;
882.6000;0.3810;0.9798;
882.9000;0.3785;0.9798;
883.2000;0.3785;0.9848;
883.5000;0.3785;0.9749;
883.8000;0.3785;0.9700;
884.1000;0.3801;0.9798;
884.4000;0.3818;0.9922;
884.7000;0.3785;0.9798;
885.0000;0.3793;0.9823;
885.3000;0.3842;0.9897;
885.6000;0.3761;0.9700;
885.9000;0.3785;0.9774;
886.2000;0.3793;0.9798;
886.5000;0.3761;0.9700;
886.8000;0.3793;0.9749;
887.1000;0.3785;0.9798;
887.4000;0.3793;0.9823;
887.7000;0.3801;0.9823;
888.0000;0.3793;0.9675;
888.3000;0.3801;0.9749;
888.6000;0.3858;0.9872;
888.9000;0.3769;0.9650;
889.2000;0.3777;0.9700;
889.5000;0.3793;0.9774;
889.8000;0.3785;0.9700;
890.1000;0.3785;0.9798;
890.4000;0.3801;0.9823;
890.7000;0.3777;0.9823;
891.0000;0.3769;0.9774;
891.3000;0.3777;0.9798;
891.6000;0.3785;0.9749;
891.9000;0.3777;0.9724;
892.2000;0.3777;0.9749;
892.5000;0.3785;0.9626;
892.8000;0.3826;0.9700;
893.1000;0.3826;0.9798;
893.4000;0.3785;0.9724;
893.7000;0.3785;0.9749;
894.0000;0.3793;0.9724;
894.3000;0.3793;0.9724;
894.6000;0.3801;0.9675;
894.9000;0.3753;0.9576;
895.2000;0.3793;0.9650;
895.5000;0.3785;0.9749;
895.8000;0.3915;1.0169;
896.1000;0.3753;0.9749;
896.4000;0.3793;0.9872;
896.7000;0.3793;0.9872;
897.0000;0.3720;0.9700;
897.3000;0.3785;0.9897;
897.6000;0.3769;0.9774;
897.9000;0.3785;0.9749;
898.2000;0.3761;0.9700;
898.5000;0.3785;0.9749;
898.8000;0.3744;0.9724;
899.1000;0.3663;0.9576;
899.4000;0.3793;0.9872;
899.7000;0.3793;0.9897;
900.0000;0.3777;0.9848;
900.3000;0.3793;0.9823;
900.6000;0.3810;0.9798;
900.9000;0.3785;0.9823;
901.2000;0.3793;0.9897;
901.5000;0.3801;0.9872;
901.8000;0.3769;0.9823;
902.1000;0.3769;0.9897;
902.4000;0.3810;0.9922;
902.7000;0.3793;0.9774;
903.0000;0.3785;0.9774;
903.3000;0.3834;0.9823;
903.6000;0.3777;0.9749;
903.9000;0.3769;0.9774;
904.2000;0.3777;0.9749;
904.5000;0.3777;0.9749;
904.8000;0.3793;0.9749;
905.1000;0.3785;0.9724;
905.4000;0.3818;0.9774;
905.7000;0.3801;0.9798;
906.0000;0.3761;0.9798;
906.3000;0.3720;0.9650;
906.6000;0.3785;0.9823;
906.9000;0.3785;0.9848;
907.2000;0.3736;0.9700;
907.5000;0.3777;0.9774;
907.8000;0.3793;0.9897;
908.1000;0.3785;0.9872;
908.4000;0.3785;0.9848;
908.7000;0.3785;0.9798;
909.0000;0.3761;0.9626;
909.3000;0.3785;0.9700;
909.6000;0.3785;0.9675;
909.9000;0.3777;0.9576;
910.2000;0.3769;0.9601;
910.5000;0.3777;0.9675;
910.8000;0.3769;0.9749;
911.1000;0.3777;0.9724;
911.4000;0.3777;0.9798;
911.7000;0.3761;0.9823;
912.0000;0.3793;0.9897;
912.3000;0.3769;0.9996;
912.6000;0.3777;1.0020;
912.9000;0.3801;1.0045;
913.2000;0.3801;1.0094;
913.5000;0.3785;0.9922;
913.8000;0.3785;0.9872;
914.1000;0.3793;0.9823;
914.4000;0.3777;0.9774;
914.7000;0.3801;0.9848;
915.0000;0.3793;0.9872;
915.3000;0.3769;0.9823;
915.6000;0.3769;0.9848;
915.9000;0.3810;0.9922;
916.2000;0.3793;0.9823;
916.5000;0.3753;0.9675;
916.8000;0.3761;0.9823;
917.1000;0.3777;0.9848;
917.4000;0.3834;0.9946;
917.7000;0.3744;0.9774;
918.0000;0.3777;0.9848;
918.3000;0.3777;0.9848;
918.6000;0.3793;0.9897;
918.9000;0.3761;0.9823;
919.2000;0.3785;0.9848;
919.5000;0.3777;0.9675;
919.8000;0.3867;0.9971;
920.1000;0.3842;0.9897;
920.4000;0.3769;0.9724;
920.7000;0.3801;0.9774;
921.0000;0.3761;0.9749;
921.3000;0.3785;0.9749;
921.6000;0.3785;0.9823;
921.9000;0.3769;0.9848;
922.2000;0.3753;0.9749;
922.5000;0.3891;1.0070;
922.8000;0.3801;0.9798;
923.1000;0.3801;0.9823;
923.4000;0.3761;0.9798;
923.7000;0.3777;0.9798;
924.0000;0.3761;0.9774;
924.3000;0.3777;0.9774;
924.6000;0.3761;0.9798;
924.9000;0.3777;0.9823;
925.2000;0.3777;0.9848;
925.5000;0.3793;0.9749;
925.8000;0.3777;0.9675;
926.1000;0.3777;0.9700;
926.4000;0.3761;0.9749;
926.7000;0.3793;0.9749;
927.0000;0.3777;0.9798;
927.3000;0.3753;0.9749;
927.6000;0.3761;0.9700;
927.9000;0.3793;0.9774;
928.2000;0.3793;0.9823;
928.5000;0.3769;0.9848;
928.8000;0.3785;0.9848;
929.1000;0.3793;0.9848;
929.4000;0.3858;0.9922;
929.7000;0.3793;0.9798;
930.0000;0.3793;0.9848;
930.3000;0.3777;0.9724;
930.6000;0.3810;0.9552;
930.9000;0.3793;0.9527;
931.2000;0.3785;0.9527;
931.5000;0.3777;0.9700;
931.8000;0.3761;0.9700;
932.1000;0.3769;0.9749;
932.4000;0.3777;0.9798;
932.7000;0.3769;0.9798;
933.0000;0.3769;0.9798;
933.3000;0.3818;0.9897;
933.6000;0.3744;0.9749;
933.9000;0.3801;0.9872;
934.2000;0.3769;0.9798;
934.5000;0.3736;0.9749;
934.8000;0.3769;0.9848;
935.1000;0.3761;0.9724;
935.4000;0.3777;0.9774;
935.7000;0.3736;0.9749;
936.0000;0.3777;0.9922;
936.3000;0.3769;0.9848;
936.6000;0.3761;0.9774;
936.9000;0.3785;0.9749;
937.2000;0.3769;0.9724;
937.5000;0.3769;0.9650;
937.8000;0.3777;0.9650;
938.1000;0.3801;0.9774;
938.4000;0.3793;0.9798;
938.7000;0.3761;0.9823;
939.0000;0.3777;0.9946;
939.3000;0.3785;0.9922;
939.6000;0.3883;1.0169;
939.9000;0.3793;0.9798;
940.2000;0.3736;0.9601;
940.5000;0.3744;0.9626;
940.8000;0.3793;0.9798;
941.1000;0.3769;0.9774;
941.4000;0.3744;0.9675;
941.7000;0.3785;0.9774;
942.0000;0.3785;0.9823;
942.3000;0.3785;0.9848;
942.6000;0.3769;0.9848;
942.9000;0.3793;0.9823;
943.2000;0.3785;0.9848;
943.5000;0.3777;0.9823;
943.8000;0.3785;0.9823;
944.1000;0.3801;0.9774;
944.4000;0.3785;0.9774;
944.7000;0.3777;0.9774;
945.0000;0.3777;0.9774;
945.3000;0.3769;0.9798;
945.6000;0.3769;0.9823;
945.9000;0.3753;0.9823;
946.2000;0.3769;0.9872;
946.5000;0.3761;0.9872;
946.8000;0.3736;0.9872;
947.1000;0.3769;0.9922;
947.4000;0.3801;0.9946;
947.7000;0.3801;0.9996;
948.0000;0.3801;0.9971;
948.3000;0.3785;0.9897;
948.6000;0.3785;0.9848;
948.9000;0.3761;0.9774;
949.2000;0.3801;0.9798;
949.5000;0.3785;0.9774;
949.8000;0.3769;0.9823;
950.1000;0.3777;0.9798;
950.4000;0.3777;0.9774;
950.7000;0.3777;0.9675;
951.0000;0.3777;0.9675;
951.3000;0.3810;0.9700;
951.6000;0.3801;0.9724;
951.9000;0.3753;0.9650;
952.2000;0.3810;0.9823;
952.5000;0.3769;0.9724;
952.8000;0.3793;0.9798;
953.1000;0.3769;0.9798;
953.4000;0.3810;0.9946;
953.7000;0.3777;0.9848;
954.0000;0.3801;0.9946;
954.3000;0.3785;0.9848;
954.6000;0.3793;0.9823;
954.9000;0.3761;0.9749;
955.2000;0.3777;0.9848;
955.5000;0.3867;1.0144;
955.8000;0.3777;0.9700;
956.1000;0.3777;0.9576;
956.4000;0.3761;0.9552;
956.7000;0.3679;0.9453;
957.0000;0.3761;0.9798;
957.3000;0.3761;0.9774;
957.6000;0.3793;0.9946;
957.9000;0.3818;1.0070;
958.2000;0.3769;0.9946;
958.5000;0.3769;0.9922;
958.8000;0.3769;0.9946;
959.1000;0.3769;0.9872;
959.4000;0.3761;0.9848;
959.7000;0.3801;0.9971;
960.0000;0.3777;0.9971;
960.3000;0.3785;0.9946;
960.6000;0.3793;0.9922;
960.9000;0.3769;0.9798;
961.2000;0.3777;0.9798;
961.5000;0.3793;0.9798;
961.8000;0.3728;0.9576;
962.1000;0.3769;0.9749;
962.4000;0.3753;0.9650;
962.7000;0.3769;0.9724;
963.0000;0.3769;0.9724;
963.3000;0.3793;0.9823;
963.6000;0.3761;0.9749;
963.9000;0.3777;0.9823;
964.2000;0.3818;0.9897;
964.5000;0.3761;0.9823;
964.8000;0.3777;0.9798;
965.1000;0.3785;0.9897;
965.4000;0.3785;0.9848;
965.7000;0.3761;0.9798;
966.0000;0.3753;0.9774;
966.3000;0.3753;0.9774;
966.6000;0.3769;0.9774;
966.9000;0.3785;0.9798;
967.2000;0.3826;0.9946;
967.5000;0.3761;0.9848;
967.8000;0.3777;0.9872;
968.1000;0.3769;0.9872;
968.4000;0.3785;0.9872;
968.7000;0.3769;0.9823;
969.0000;0.3769;0.9749;
969.3000;0.3777;0.9675;
969.6000;0.3777;0.9774;
969.9000;0.3785;0.9823;
970.2000;0.3712;0.9576;
970.5000;0.3761;0.9724;
970.8000;0.3793;0.9848;
971.1000;0.3769;0.9823;
971.4000;0.3785;0.9848;
971.7000;0.3793;0.9823;
972.0000;0.3785;0.9897;
972.3000;0.3769;0.9922;
972.6000;0.3785;1.0020;
972.9000;0.3777;0.9996;
973.2000;0.3785;0.9971;
973.5000;0.3793;0.9996;
973.8000;0.3785;1.0020;
974.1000;0.3785;0.9971;
974.4000;0.3777;0.9996;
974.7000;0.3777;1.0070;
975.0000;0.3785;1.0119;
975.3000;0.3777;1.0094;
975.6000;0.3777;1.0094;
975.9000;0.3785;1.0094;
976.2000;0.3818;1.0094;
976.5000;0.3744;0.9872;
976.8000;0.3785;0.9971;
977.1000;0.3769;0.9946;
977.4000;0.3793;0.9946;
977.7000;0.3761;0.9823;
978.0000;0.3761;0.9848;
978.3000;0.3777;0.9823;
978.6000;0.3769;0.9922;
978.9000;0.3753;0.9897;
979.2000;0.3736;0.9749;
979.5000;0.3785;0.9922;
979.8000;0.3777;0.9897;
980.1000;0.3793;0.9872;
980.4000;0.3810;1.0045;
980.7000;0.3761;0.9922;
981.0000;0.3785;0.9946;
981.3000;0.3785;0.9897;
981.6000;0.3761;0.9848;
981.9000;0.3785;0.9774;
982.2000;0.3761;0.9724;
982.5000;0.3785;0.9823;
982.8000;0.3785;0.9774;
983.1000;0.3777;0.9675;
983.4000;0.3777;0.9724;
983.7000;0.3793;0.9798;
984.0000;0.3785;0.9848;
984.3000;0.3785;0.9872;
984.6000;0.3769;0.9823;
984.9000;0.3785;0.9774;
985.2000;0.3793;0.9749;
985.5000;0.3785;0.9798;
985.8000;0.3810;0.9848;
986.1000;0.3801;0.9848;
986.4000;0.3793;0.9922;
986.7000;0.3793;0.9971;
987.0000;0.3785;0.9922;
987.3000;0.3793;0.9848;
987.6000;0.3761;0.9798;
987.9000;0.3793;0.9749;
988.2000;0.3761;0.9724;
988.5000;0.3777;0.9749;
988.8000;0.3769;0.9774;
989.1000;0.3793;0.9774;
989.4000;0.3793;0.9798;
989.7000;0.3867;1.0070;
990.0000;0.3761;0.9798;
990.3000;0.3785;0.9774;
990.6000;0.3777;0.9700;
990.9000;0.3769;0.9601;
991.2000;0.3785;0.9700;
991.5000;0.3777;0.9848;
991.8000;0.3736;0.9798;
992.1000;0.3777;0.9823;
992.4000;0.3777;0.9823;
992.7000;0.3793;0.9774;
993.0000;0.3777;0.9749;
993.3000;0.3761;0.9724;
993.6000;0.3785;0.9798;
993.9000;0.3769;0.9774;
994.2000;0.3785;0.9774;
994.5000;0.3785;0.9823;
994.8000;0.3769;0.9798;
995.1000;0.3769;0.9798;
995.4000;0.3785;0.9798;
995.7000;0.3753;0.9749;
996.0000;0.3785;0.9823;
996.3000;0.3810;0.9823;
996.6000;0.3777;0.9576;
996.9000;0.3785;0.9650;
997.2000;0.3769;0.9626;
997.5000;0.3777;0.9675;
997.8000;0.3777;0.9749;
998.1000;0.3810;0.9798;
998.4000;0.3793;0.9724;
998.7000;0.3769;0.9749;
999.0000;0.3777;0.9749;
999.3000;0.3761;0.9749;
999.6000;0.3834;0.9872;
999.9000;0.3761;0.9675;
1000.2000;0.3753;0.9601;
1000.5000;0.3826;0.9774;
1000.8000;0.3777;0.9626;
1001.1000;0.3769;0.9650;
1001.4000;0.3761;0.9650;
1001.7000;0.3712;0.9527;
1002.0000;0.3769;0.9650;
1002.3000;0.3777;0.9700;
1002.6000;0.3777;0.9700;
1002.9000;0.3793;0.9724;
1003.2000;0.3842;0.9749;
1003.5000;0.3785;0.9552;
1003.8000;0.3785;0.9650;
1004.1000;0.3761;0.9650;
1004.4000;0.3785;0.9798;
1004.7000;0.3777;0.9724;
1005.0000;0.3769;0.9700;
1005.3000;0.3744;0.9724;
1005.6000;0.3744;0.9823;
1005.9000;0.3761;0.9848;
1006.2000;0.3769;0.9872;
1006.5000;0.3712;0.9675;
1006.8000;0.3785;0.9897;
1007.1000;0.3777;0.9724;
1007.4000;0.3793;0.9774;
1007.7000;0.3769;0.9700;
1008.0000;0.3712;0.9601;
1008.3000;0.3777;0.9774;
1008.6000;0.3785;0.9848;
1008.9000;0.3801;0.9848;
1009.2000;0.3785;0.9798;
1009.5000;0.3777;0.9774;
1009.8000;0.3793;0.9872;
1010.1000;0.3777;0.9872;
1010.4000;0.3777;0.9872;
1010.7000;0.3769;0.9872;
1011.0000;0.3769;0.9872;
1011.3000;0.3753;0.9724;
1011.6000;0.3777;0.9823;
1011.9000;0.3753;0.9774;
1012.2000;0.3777;0.9798;
1012.5000;0.3769;0.9774;
1012.8000;0.3728;0.9749;
1013.1000;0.3671;0.9477;
1013.4000;0.3777;0.9749;
1013.7000;0.3777;0.9749;
1014.0000;0.3801;0.9897;
1014.3000;0.3801;0.9848;
1014.6000;0.3712;0.9626;
1014.9000;0.3801;0.9823;
1015.2000;0.3785;0.9823;
1015.5000;0.3777;0.9774;
1015.8000;0.3777;0.9724;
1016.1000;0.3777;0.9650;
1016.4000;0.3761;0.9626;
1016.7000;0.3769;0.9552;
1017.0000;0.3769;0.9502;
1017.3000;0.3777;0.9527;
1017.6000;0.3777;0.9477;
1017.9000;0.3687;0.9157;
1018.2000;0.3753;0.9305;
1018.5000;0.3785;0.9354;
1018.8000;0.3753;0.9379;
1019.1000;0.3769;0.9502;
1019.4000;0.3761;0.9576;
1019.7000;0.3720;0.9502;
1020.0000;0.3858;0.9922;
1020.3000;0.3785;0.9774;
1020.6000;0.3785;0.9823;
1020.9000;0.3875;1.0045;
1021.2000;0.3785;0.9774;
1021.5000;0.3793;0.9749;
1021.8000;0.3712;0.9502;
1022.1000;0.3785;0.9626;
1022.4000;0.3793;0.9650;
1022.7000;0.3777;0.9626;
1023.0000;0.3769;0.9576;
1023.3000;0.3753;0.9527;
1023.6000;0.3785;0.9527;
1023.9000;0.3761;0.9428;
1024.2000;0.3793;0.9453;
1024.5000;0.3761;0.9379;
1024.8000;0.3728;0.9305;
1025.1000;0.3793;0.9576;
1025.4000;0.3777;0.9601;
1025.7000;0.3761;0.9453;
1026.0000;0.3761;0.9428;
1026.3000;0.3777;0.9552;
1026.6000;0.3736;0.9428;
1026.9000;0.3801;0.9601;
1027.2000;0.3769;0.9576;
1027.5000;0.3761;0.9502;
1027.8000;0.3777;0.9477;
1028.1000;0.3769;0.9477;
1028.4000;0.3753;0.9428;
1028.7000;0.3769;0.9453;
1029.0000;0.3777;0.9527;
1029.3000;0.3777;0.9527;
1029.6000;0.3753;0.9477;
1029.9000;0.3761;0.9527;
1030.2000;0.3761;0.9477;
1030.5000;0.3777;0.9552;
1030.8000;0.3793;0.9576;
1031.1000;0.3761;0.9502;
1031.4000;0.3761;0.9527;
1031.7000;0.3777;0.9601;
1032.0000;0.3785;0.9601;
1032.3000;0.3761;0.9527;
1032.6000;0.3769;0.9601;
1032.9000;0.3785;0.9601;
1033.2000;0.3834;0.9675;
1033.5000;0.3712;0.9280;
1033.8000;0.3744;0.9280;
1034.1000;0.3769;0.9403;
1034.4000;0.3793;0.9502;
1034.7000;0.3785;0.9502;
1035.0000;0.3777;0.9477;
1035.3000;0.3712;0.9280;
1035.6000;0.3704;0.9329;
1035.9000;0.3810;0.9576;
1036.2000;0.3818;0.9527;
1036.5000;0.3704;0.9305;
1036.8000;0.3810;0.9700;
1037.1000;0.3777;0.9626;
1037.4000;0.3777;0.9626;
1037.7000;0.3785;0.9650;
1038.0000;0.3769;0.9477;
1038.3000;0.3793;0.9502;
1038.6000;0.3777;0.9403;
1038.9000;0.3793;0.9379;
1039.2000;0.3777;0.9354;
1039.5000;0.3777;0.9329;
1039.8000;0.3777;0.9329;
1040.1000;0.3785;0.9354;
1040.4000;0.3761;0.9280;
1040.7000;0.3769;0.9354;
1041.0000;0.3769;0.9379;
1041.3000;0.3761;0.9428;
1041.6000;0.3785;0.9453;
1041.9000;0.3769;0.9428;
1042.2000;0.3793;0.9502;
1042.5000;0.3785;0.9601;
1042.8000;0.3810;0.9749;
1043.1000;0.3777;0.9675;
1043.4000;0.3793;0.9700;
1043.7000;0.3753;0.9650;
1044.0000;0.3761;0.9650;
1044.3000;0.3769;0.9675;
1044.6000;0.3810;0.9749;
1044.9000;0.3736;0.9527;
1045.2000;0.3810;0.9749;
1045.5000;0.3769;0.9626;
1045.8000;0.3777;0.9502;
1046.1000;0.3785;0.9527;
1046.4000;0.3769;0.9502;
1046.7000;0.3761;0.9502;
1047.0000;0.3671;0.9305;
1047.3000;0.3744;0.9527;
1047.6000;0.3793;0.9626;
1047.9000;0.3826;0.9749;
1048.2000;0.3785;0.9650;
1048.5000;0.3761;0.9601;
1048.8000;0.3769;0.9576;
1049.1000;0.3753;0.9601;
1049.4000;0.3818;0.9872;
1049.7000;0.3744;0.9650;
1050.0000;0.3777;0.9675;
1050.3000;0.3761;0.9724;
1050.6000;0.3761;0.9675;
1050.9000;0.3761;0.9749;
1051.2000;0.3769;0.9749;
1051.5000;0.3810;0.9897;
1051.8000;0.3753;0.9724;
1052.1000;0.3777;0.9749;
1052.4000;0.3753;0.9675;
1052.7000;0.3777;0.9626;
1053.0000;0.3785;0.9675;
1053.3000;0.3769;0.9650;
1053.6000;0.3744;0.9552;
1053.9000;0.3777;0.9626;
1054.2000;0.3761;0.9552;
1054.5000;0.3744;0.9477;
1054.8000;0.3728;0.9576;
1055.1000;0.3777;0.9626;
1055.4000;0.3761;0.9576;
1055.7000;0.3769;0.9601;
1056.0000;0.3744;0.9576;
1056.3000;0.3785;0.9626;
1056.6000;0.3777;0.9626;
1056.9000;0.3744;0.9527;
1057.2000;0.3761;0.9527;
1057.5000;0.3801;0.9502;
1057.8000;0.3777;0.9329;
1058.1000;0.3777;0.9403;
1058.4000;0.3761;0.9403;
1058.7000;0.3720;0.9280;
1059.0000;0.3785;0.9477;
1059.3000;0.3793;0.9527;
1059.6000;0.3720;0.9379;
1059.9000;0.3777;0.9477;
1060.2000;0.3777;0.9453;
1060.5000;0.3761;0.9453;
1060.8000;0.3769;0.9552;
1061.1000;0.3785;0.9477;
1061.4000;0.3793;0.9502;
1061.7000;0.3753;0.9354;
1062.0000;0.3761;0.9428;
1062.3000;0.3818;0.9453;
1062.6000;0.3712;0.9157;
1062.9000;0.3777;0.9329;
1063.2000;0.3777;0.9231;
1063.5000;0.3777;0.9280;
1063.8000;0.3777;0.9231;
1064.1000;0.3793;0.9231;
1064.4000;0.3769;0.9157;
1064.7000;0.3777;0.9157;
1065.0000;0.3769;0.9107;
1065.3000;0.3769;0.9083;
1065.6000;0.3793;0.9132;
1065.9000;0.3769;0.9083;
1066.2000;0.3777;0.9132;
1066.5000;0.3753;0.9157;
1066.8000;0.3801;0.9255;
1067.1000;0.3785;0.9231;
1067.4000;0.3777;0.9329;
1067.7000;0.3777;0.9354;
1068.0000;0.3777;0.9379;
1068.3000;0.3777;0.9329;
1068.6000;0.3777;0.9305;
1068.9000;0.3769;0.9305;
1069.2000;0.3785;0.9403;
1069.5000;0.3744;0.9453;
1069.8000;0.3785;0.9601;
1070.1000;0.3785;0.9576;
1070.4000;0.3679;0.9354;
1070.7000;0.3785;0.9650;
1071.0000;0.3769;0.9428;
1071.3000;0.3777;0.9527;
1071.6000;0.3793;0.9453;
1071.9000;0.3793;0.9428;
1072.2000;0.3785;0.9379;
1072.5000;0.3696;0.9132;
1072.8000;0.3761;0.9329;
1073.1000;0.3753;0.9329;
1073.4000;0.3810;0.9527;
1073.7000;0.3777;0.9403;
1074.0000;0.3769;0.9403;
1074.3000;0.3777;0.9453;
1074.6000;0.3769;0.9453;
1074.9000;0.3777;0.9403;
1075.2000;0.3777;0.9477;
1075.5000;0.3761;0.9527;
1075.8000;0.3777;0.9626;
1076.1000;0.3777;0.9650;
1076.4000;0.3777;0.9675;
1076.7000;0.3736;0.9527;
1077.0000;0.3753;0.9453;
1077.3000;0.3777;0.9453;
1077.6000;0.3777;0.9403;
1077.9000;0.3785;0.9379;
1078.2000;0.3793;0.9379;
1078.5000;0.3736;0.9181;
1078.8000;0.3769;0.9181;
1079.1000;0.3777;0.9157;
1079.4000;0.3777;0.9231;
1079.7000;0.3769;0.9231;
1080.0000;0.3761;0.9255;
1080.3000;0.3785;0.9305;
1080.6000;0.3769;0.9329;
1080.9000;0.3785;0.9354;
1081.2000;0.3801;0.9403;
1081.5000;0.3801;0.9403;
1081.8000;0.3793;0.9379;
1082.1000;0.3793;0.9403;
1082.4000;0.3785;0.9403;
1082.7000;0.3793;0.9379;
1083.0000;0.3777;0.9428;
1083.3000;0.3777;0.9403;
1083.6000;0.3753;0.9403;
1083.9000;0.3785;0.9552;
1084.2000;0.3785;0.9502;
1084.5000;0.3761;0.9453;
1084.8000;0.3769;0.9477;
1085.1000;0.3728;0.9403;
1085.4000;0.3761;0.9453;
1085.7000;0.3769;0.9502;
1086.0000;0.3777;0.9626;
1086.3000;0.3867;0.9848;
1086.6000;0.3785;0.9601;
1086.9000;0.3769;0.9576;
1087.2000;0.3777;0.9552;
1087.5000;0.3801;0.9552;
1087.8000;0.3785;0.9527;
1088.1000;0.3769;0.9477;
1088.4000;0.3769;0.9576;
1088.7000;0.3793;0.9700;
1089.0000;0.3777;0.9601;
1089.3000;0.3777;0.9576;
1089.6000;0.3769;0.9626;
1089.9000;0.3769;0.9576;
1090.2000;0.3769;0.9552;
1090.5000;0.3753;0.9477;
1090.8000;0.3761;0.9527;
1091.1000;0.3785;0.9626;
1091.4000;0.3761;0.9650;
1091.7000;0.3761;0.9675;
1092.0000;0.3761;0.9626;
1092.3000;0.3785;0.9700;
1092.6000;0.3785;0.9700;
1092.9000;0.3753;0.9626;
1093.2000;0.3761;0.9576;
1093.5000;0.3753;0.9675;
1093.8000;0.3769;0.9774;
1094.1000;0.3785;0.9774;
1094.4000;0.3769;0.9749;
1094.7000;0.3777;0.9724;
1095.0000;0.3777;0.9675;
1095.3000;0.3712;0.9502;
1095.6000;0.3728;0.9576;
1095.9000;0.3753;0.9552;
1096.2000;0.3769;0.9552;
1096.5000;0.3785;0.9675;
1096.8000;0.3769;0.9700;
1097.1000;0.3761;0.9724;
1097.4000;0.3744;0.9626;
1097.7000;0.3753;0.9749;
1098.0000;0.3785;0.9848;
1098.3000;0.3785;0.9872;
1098.6000;0.3834;0.9946;
1098.9000;0.3769;0.9798;
1099.2000;0.3761;0.9798;
1099.5000;0.3777;0.9897;
1099.8000;0.3761;0.9897;
1100.1000;0.3777;0.9848;
1100.4000;0.3777;0.9724;
1100.7000;0.3875;0.9971;
1101.0000;0.3753;0.9749;
1101.3000;0.3753;0.9650;
1101.6000;0.3777;0.9650;
1101.9000;0.3785;0.9724;
1102.2000;0.3769;0.9700;
1102.5000;0.3736;0.9650;
1102.8000;0.3769;0.9650;
1103.1000;0.3785;0.9675;
1103.4000;0.3769;0.9675;
1103.7000;0.3801;0.9798;
1104.0000;0.3769;0.9724;
1104.3000;0.3777;0.9626;
1104.6000;0.3785;0.9626;
1104.9000;0.3687;0.9379;
1105.2000;0.3769;0.9601;
1105.5000;0.3769;0.9626;
1105.8000;0.3785;0.9700;
1106.1000;0.3744;0.9650;
1106.4000;0.3785;0.9700;
1106.7000;0.3769;0.9700;
1107.0000;0.3769;0.9527;
1107.3000;0.3785;0.9527;
1107.6000;0.3777;0.9527;
1107.9000;0.3777;0.9552;
1108.2000;0.3769;0.9601;
1108.5000;0.3793;0.9601;
1108.8000;0.3753;0.9477;
1109.1000;0.3769;0.9428;
1109.4000;0.3801;0.9428;
1109.7000;0.3810;0.9453;
1110.0000;0.3769;0.9403;
1110.3000;0.3761;0.9428;
1110.6000;0.3769;0.9329;
1110.9000;0.3769;0.9354;
1111.2000;0.3777;0.9552;
1111.5000;0.3736;0.9428;
1111.8000;0.3769;0.9354;
1112.1000;0.3769;0.9354;
1112.4000;0.3769;0.9379;
1112.7000;0.3793;0.9428;
1113.0000;0.3753;0.9379;
1113.3000;0.3777;0.9379;
1113.6000;0.3801;0.9477;
1113.9000;0.3777;0.9403;
1114.2000;0.3777;0.9502;
1114.5000;0.3785;0.9576;
1114.8000;0.3769;0.9428;
1115.1000;0.3785;0.9453;
1115.4000;0.3777;0.9502;
1115.7000;0.3761;0.9453;
1116.0000;0.3777;0.9428;
1116.3000;0.3769;0.9552;
1116.6000;0.3769;0.9502;
1116.9000;0.3777;0.9552;
1117.2000;0.3769;0.9576;
1117.5000;0.3777;0.9601;
1117.8000;0.3777;0.9601;
1118.1000;0.3769;0.9626;
1118.4000;0.3761;0.9774;
1118.7000;0.3696;0.9527;
1119.0000;0.3761;0.9675;
1119.3000;0.3655;0.9552;
1119.6000;0.3753;0.9823;
1119.9000;0.3777;0.9872;
1120.2000;0.3793;0.9897;
1120.5000;0.3777;0.9724;
1120.8000;0.3761;0.9675;
1121.1000;0.3769;0.9700;
1121.4000;0.3785;0.9724;
1121.7000;0.3761;0.9675;
1122.0000;0.3769;0.9650;
1122.3000;0.3761;0.9601;
1122.6000;0.3744;0.9502;
1122.9000;0.3785;0.9626;
1123.2000;0.3777;0.9724;
1123.5000;0.3785;0.9675;
1123.8000;0.3785;0.9700;
1124.1000;0.3793;0.9724;
1124.4000;0.3777;0.9823;
1124.7000;0.3753;0.9823;
1125.0000;0.3777;0.9823;
1125.3000;0.3801;0.9848;
1125.6000;0.3777;0.9823;
1125.9000;0.3793;0.9823;
1126.2000;0.3769;0.9749;
1126.5000;0.3793;0.9823;
1126.8000;0.3842;0.9971;
1127.1000;0.3769;0.9848;
1127.4000;0.3785;0.9798;
1127.7000;0.3793;0.9823;
1128.0000;0.3785;0.9872;
1128.3000;0.3785;0.9848;
1128.6000;0.3785;0.9823;
1128.9000;0.3761;0.9774;
1129.2000;0.3818;0.9798;
1129.5000;0.3769;0.9700;
1129.8000;0.3850;0.9971;
1130.1000;0.3785;0.9823;
1130.4000;0.3769;0.9724;
1130.7000;0.3769;0.9675;
1131.0000;0.3785;0.9650;
1131.3000;0.3753;0.9576;
1131.6000;0.3761;0.9601;
1131.9000;0.3785;0.9798;
1132.2000;0.3753;0.9749;
1132.5000;0.3761;0.9700;
1132.8000;0.3777;0.9749;
1133.1000;0.3761;0.9724;
1133.4000;0.3769;0.9798;
1133.7000;0.3744;0.9626;
1134.0000;0.3753;0.9675;
1134.3000;0.3769;0.9749;
1134.6000;0.3834;0.9996;
1134.9000;0.3769;0.9848;
1135.2000;0.3777;0.9872;
1135.5000;0.3777;0.9922;
1135.8000;0.3663;0.9576;
1136.1000;0.3769;0.9798;
1136.4000;0.3777;0.9774;
1136.7000;0.3777;0.9749;
1137.0000;0.3769;0.9798;
1137.3000;0.3769;0.9700;
1137.6000;0.3761;0.9675;
1137.9000;0.3761;0.9650;
1138.2000;0.3785;0.9724;
1138.5000;0.3834;0.9823;
1138.8000;0.3785;0.9700;
1139.1000;0.3777;0.9650;
1139.4000;0.3801;0.9774;
1139.7000;0.3777;0.9749;
1140.0000;0.3769;0.9774;
1140.3000;0.3777;0.9749;
1140.6000;0.3761;0.9724;
1140.9000;0.3736;0.9650;
1141.2000;0.3744;0.9601;
1141.5000;0.3777;0.9626;
1141.8000;0.3785;0.9700;
1142.1000;0.3777;0.9724;
1142.4000;0.3826;0.9897;
1142.7000;0.3777;0.9848;
1143.0000;0.3769;0.9872;
1143.3000;0.3744;0.9798;
1143.6000;0.3736;0.9724;
1143.9000;0.3753;0.9749;
1144.2000;0.3761;0.9724;
1144.5000;0.3761;0.9700;
1144.8000;0.3753;0.9700;
1145.1000;0.3753;0.9675;
1145.4000;0.3761;0.9675;
1145.7000;0.3753;0.9626;
1146.0000;0.3777;0.9749;
1146.3000;0.3834;0.9897;
1146.6000;0.3785;0.9774;
1146.9000;0.3753;0.9700;
1147.2000;0.3785;0.9749;
1147.5000;0.3785;0.9749;
1147.8000;0.3777;0.9774;
1148.1000;0.3777;0.9626;
1148.4000;0.3785;0.9626;
1148.7000;0.3785;0.9601;
1149.0000;0.3801;0.9724;
1149.3000;0.3761;0.9724;
1149.6000;0.3769;0.9749;
1149.9000;0.3777;0.9724;
1150.2000;0.3777;0.9749;
1150.5000;0.3777;0.9700;
1150.8000;0.3785;0.9749;
1151.1000;0.3761;0.9675;
1151.4000;0.3785;0.9724;
1151.7000;0.3761;0.9650;
1152.0000;0.3761;0.9675;
1152.3000;0.3769;0.9798;
1152.6000;0.3777;0.9848;
1152.9000;0.3753;0.9823;
1153.2000;0.3761;0.9848;
1153.5000;0.3777;0.9848;
1153.8000;0.3785;0.9897;
1154.1000;0.3769;0.9897;
1154.4000;0.3769;0.9922;
1154.7000;0.3785;0.9922;
1155.0000;0.3793;0.9971;
1155.3000;0.3793;0.9971;
1155.6000;0.3761;0.9897;
1155.9000;0.3785;0.9996;
1156.2000;0.3785;1.0020;
1156.5000;0.3769;1.0020;
1156.8000;0.3761;0.9897;
1157.1000;0.3753;0.9823;
1157.4000;0.3777;0.9774;
1157.7000;0.3850;0.9971;
1158.0000;0.3785;0.9774;
1158.3000;0.3736;0.9700;
1158.6000;0.3769;0.9798;
1158.9000;0.3769;0.9724;
1159.2000;0.3777;0.9798;
1159.5000;0.3769;0.9774;
1159.8000;0.3826;0.9922;
1160.1000;0.3777;0.9897;
1160.4000;0.3744;0.9848;
1160.7000;0.3769;0.9946;
1161.0000;0.3753;0.9897;
1161.3000;0.3761;0.9897;
1161.6000;0.3793;0.9897;
1161.9000;0.3761;0.9823;
1162.2000;0.3818;0.9823;
1162.5000;0.3736;0.9650;
1162.8000;0.3769;0.9700;
1163.1000;0.3769;0.9700;
1163.4000;0.3761;0.9650;
1163.7000;0.3769;0.9700;
1164.0000;0.3769;0.9700;
1164.3000;0.3785;0.9675;
1164.6000;0.3793;0.9576;
1164.9000;0.3777;0.9626;
1165.2000;0.3736;0.9626;
1165.5000;0.3761;0.9700;
1165.8000;0.3834;0.9946;
1166.1000;0.3769;0.9700;
1166.4000;0.3769;0.9601;
1166.7000;0.3785;0.9749;
1167.0000;0.3785;0.9724;
1167.3000;0.3736;0.9477;
1167.6000;0.3736;0.9502;
1167.9000;0.3761;0.9601;
1168.2000;0.3785;0.9650;
1168.5000;0.3736;0.9601;
1168.8000;0.3744;0.9626;
1169.1000;0.3777;0.9700;
1169.4000;0.3769;0.9823;
1169.7000;0.3793;0.9872;
1170.0000;0.3769;0.9848;
1170.3000;0.3883;1.0070;
1170.6000;0.3777;0.9774;
1170.9000;0.3777;0.9724;
1171.2000;0.3769;0.9724;
1171.5000;0.3777;0.9749;
1171.8000;0.3769;0.9897;
1172.1000;0.3761;0.9798;
1172.4000;0.3769;0.9823;
1172.7000;0.3761;0.9897;
1173.0000;0.3761;0.9872;
1173.3000;0.3810;0.9946;
1173.6000;0.3777;0.9848;
1173.9000;0.3777;0.9922;
1174.2000;0.3744;0.9922;
1174.5000;0.3769;0.9996;
1174.8000;0.3769;1.0070;
1175.1000;0.3753;1.0020;
1175.4000;0.3777;0.9996;
1175.7000;0.3769;1.0045;
1176.0000;0.3769;1.0144;
1176.3000;0.3777;1.0144;
1176.6000;0.3785;1.0193;
1176.9000;0.3785;1.0070;
1177.2000;0.3769;0.9897;
1177.5000;0.3769;0.9848;
1177.8000;0.3801;0.9946;
1178.1000;0.3777;0.9823;
1178.4000;0.3801;0.9823;
1178.7000;0.3761;0.9700;
1179.0000;0.3761;0.9675;
1179.3000;0.3777;0.9724;
1179.6000;0.3785;0.9774;
1179.9000;0.3777;0.9774;
1180.2000;0.3761;0.9798;
1180.5000;0.3744;0.9774;
1180.8000;0.3744;0.9749;
1181.1000;0.3793;0.9823;
1181.4000;0.3744;0.9774;
1181.7000;0.3785;0.9897;
1182.0000;0.3785;0.9922;
1182.3000;0.3769;0.9872;
1182.6000;0.3777;0.9823;
1182.9000;0.3761;0.9749;
1183.2000;0.3744;0.9872;
1183.5000;0.3744;0.9823;
1183.8000;0.3761;0.9848;
1184.1000;0.3753;0.9922;
1184.4000;0.3761;0.9922;
1184.7000;0.3769;0.9946;
1185.0000;0.3777;0.9971;
1185.3000;0.3810;0.9946;
1185.6000;0.3785;0.9848;
1185.9000;0.3769;0.9848;
1186.2000;0.3761;0.9848;
1186.5000;0.3777;0.9823;
1186.8000;0.3744;0.9848;
1187.1000;0.3769;0.9798;
1187.4000;0.3777;0.9823;
1187.7000;0.3785;0.9798;
1188.0000;0.3777;0.9848;
1188.3000;0.3769;0.9798;
1188.6000;0.3769;0.9798;
1188.9000;0.3793;0.9897;
1189.2000;0.3785;0.9872;
1189.5000;0.3769;0.9848;
1189.8000;0.3720;0.9626;
1190.1000;0.3785;0.9774;
1190.4000;0.3720;0.9576;
1190.7000;0.3736;0.9650;
1191.0000;0.3785;0.9700;
1191.3000;0.3769;0.9675;
1191.6000;0.3687;0.9379;
1191.9000;0.3744;0.9428;
1192.2000;0.3761;0.9576;
1192.5000;0.3850;0.9897;
1192.8000;0.3777;0.9724;
1193.1000;0.3769;0.9724;
1193.4000;0.3744;0.9601;
1193.7000;0.3842;0.9848;
1194.0000;0.3785;0.9774;
1194.3000;0.3769;0.9774;
1194.6000;0.3769;0.9774;
1194.9000;0.3777;0.9749;
1195.2000;0.3744;0.9798;
1195.5000;0.3761;0.9774;
1195.8000;0.3769;0.9823;
1196.1000;0.3777;0.9872;
1196.4000;0.3769;0.9848;
1196.7000;0.3785;0.9897;
1197.0000;0.3761;0.9823;
1197.3000;0.3769;0.9798;
1197.6000;0.3769;0.9724;
1197.9000;0.3777;0.9823;
1198.2000;0.3793;0.9872;
1198.5000;0.3793;0.9872;
1198.8000;0.3769;0.9897;
1199.1000;0.3850;1.0020;
1199.4000;0.3785;0.9823;
1199.7000;0.3769;0.9872;
1200.0000;0.3769;0.9798;
1200.3000;0.3753;0.9675;
1200.6000;0.3793;0.9749;
1200.9000;0.3761;0.9798;
1201.2000;0.3769;0.9774;
1201.5000;0.3777;0.9823;
1201.8000;0.3753;0.9798;
1202.1000;0.3769;0.9872;
1202.4000;0.3744;0.9848;
1202.7000;0.3793;0.9872;
1203.0000;0.3761;0.9823;
1203.3000;0.3761;0.9724;
1203.6000;0.3777;0.9650;
1203.9000;0.3777;0.9650;
1204.2000;0.3769;0.9650;
1204.5000;0.3793;0.9700;
1204.8000;0.3769;0.9675;
1205.1000;0.3777;0.9650;
1205.4000;0.3761;0.9675;
1205.7000;0.3777;0.9675;
1206.0000;0.3785;0.9576;
1206.3000;0.3826;0.9749;
1206.6000;0.3761;0.9527;
1206.9000;0.3769;0.9552;
1207.2000;0.3769;0.9626;
1207.5000;0.3785;0.9700;
1207.8000;0.3761;0.9626;
1208.1000;0.3769;0.9700;
1208.4000;0.3736;0.9650;
1208.7000;0.3753;0.9675;
1209.0000;0.3769;0.9724;
1209.3000;0.3777;0.9724;
1209.6000;0.3761;0.9626;
1209.9000;0.3785;0.9626;
1210.2000;0.3785;0.9700;
1210.5000;0.3810;0.9774;
1210.8000;0.3777;0.9724;
1211.1000;0.3785;0.9749;
1211.4000;0.3801;0.9922;
1211.7000;0.3785;0.9872;
1212.0000;0.3753;0.9823;
1212.3000;0.3720;0.9774;
1212.6000;0.3818;0.9897;
1212.9000;0.3712;0.9626;
1213.2000;0.3704;0.9477;
1213.5000;0.3777;0.9749;
1213.8000;0.3761;0.9700;
1214.1000;0.3785;0.9749;
1214.4000;0.3761;0.9872;
1214.7000;0.3777;0.9897;
1215.0000;0.3777;0.9872;
1215.3000;0.3785;0.9823;
1215.6000;0.3744;0.9774;
1215.9000;0.3810;0.9848;
1216.2000;0.3777;0.9774;
1216.5000;0.3720;0.9626;
1216.8000;0.3753;0.9675;
1217.1000;0.3777;0.9823;
1217.4000;0.3777;0.9823;
1217.7000;0.3850;0.9996;
1218.0000;0.3744;0.9650;
1218.3000;0.3744;0.9700;
1218.6000;0.3777;0.9798;
1218.9000;0.3777;0.9700;
1219.2000;0.3736;0.9601;
1219.5000;0.3761;0.9527;
1219.8000;0.3769;0.9453;
1220.1000;0.3769;0.9552;
1220.4000;0.3753;0.9453;
1220.7000;0.3753;0.9354;
1221.0000;0.3761;0.9379;
1221.3000;0.3777;0.9403;
1221.6000;0.3777;0.9428;
1221.9000;0.3769;0.9403;
1222.2000;0.3793;0.9626;
1222.5000;0.3769;0.9527;
1222.8000;0.3753;0.9576;
1223.1000;0.3761;0.9675;
1223.4000;0.3753;0.9724;
1223.7000;0.3761;0.9774;
1224.0000;0.3777;0.9749;
1224.3000;0.3785;0.9774;
1224.6000;0.3761;0.9774;
1224.9000;0.3769;0.9700;
1225.2000;0.3785;0.9798;
1225.5000;0.3810;0.9872;
1225.8000;0.3777;0.9872;
1226.1000;0.3785;0.9897;
1226.4000;0.3769;0.9946;
1226.7000;0.3769;0.9897;
1227.0000;0.3769;0.9872;
1227.3000;0.3769;0.9823;
1227.6000;0.3777;0.9848;
1227.9000;0.3777;0.9798;
1228.2000;0.3769;0.9724;
1228.5000;0.3769;0.9675;
1228.8000;0.3818;0.9823;
1229.1000;0.3793;0.9700;
1229.4000;0.3785;0.9749;
1229.7000;0.3753;0.9650;
1230.0000;0.3793;0.9724;
1230.3000;0.3744;0.9552;
1230.6000;0.3761;0.9477;
1230.9000;0.3793;0.9626;
1231.2000;0.3777;0.9552;
1231.5000;0.3777;0.9675;
1231.8000;0.3769;0.9700;
1232.1000;0.3761;0.9576;
1232.4000;0.3736;0.9453;
1232.7000;0.3785;0.9601;
1233.0000;0.3785;0.9626;
1233.3000;0.3769;0.9552;
1233.6000;0.3744;0.9502;
1233.9000;0.3761;0.9502;
1234.2000;0.3777;0.9626;
1234.5000;0.3761;0.9552;
1234.8000;0.3818;0.9749;
1235.1000;0.3761;0.9576;
1235.4000;0.3801;0.9798;
1235.7000;0.3777;0.9749;
1236.0000;0.3744;0.9626;
1236.3000;0.3753;0.9527;
1236.6000;0.3777;0.9601;
1236.9000;0.3785;0.9477;
1237.2000;0.3753;0.9329;
1237.5000;0.3826;0.9601;
1237.8000;0.3785;0.9552;
1238.1000;0.3777;0.9477;
1238.4000;0.3793;0.9552;
1238.7000;0.3777;0.9576;
1239.0000;0.3769;0.9552;
1239.3000;0.3769;0.9552;
1239.6000;0.3761;0.9552;
1239.9000;0.3761;0.9502;
1240.2000;0.3769;0.9477;
1240.5000;0.3777;0.9502;
1240.8000;0.3769;0.9502;
1241.1000;0.3761;0.9502;
1241.4000;0.3777;0.9527;
1241.7000;0.3761;0.9453;
1242.0000;0.3777;0.9453;
1242.3000;0.3785;0.9403;
1242.6000;0.3777;0.9379;
1242.9000;0.3761;0.9428;
1243.2000;0.3785;0.9626;
1243.5000;0.3793;0.9724;
1243.8000;0.3810;0.9749;
1244.1000;0.3761;0.9552;
1244.4000;0.3761;0.9502;
1244.7000;0.3785;0.9527;
1245.0000;0.3761;0.9527;
1245.3000;0.3728;0.9354;
1245.6000;0.3761;0.9379;
1245.9000;0.3793;0.9502;
1246.2000;0.3785;0.9453;
1246.5000;0.3785;0.9601;
1246.8000;0.3785;0.9650;
1247.1000;0.3818;0.9700;
1247.4000;0.3761;0.9576;
1247.7000;0.3810;0.9552;
1248.0000;0.3769;0.9502;
1248.3000;0.3769;0.9477;
1248.6000;0.3777;0.9502;
1248.9000;0.3785;0.9453;
1249.2000;0.3736;0.9379;
1249.5000;0.3769;0.9502;
1249.8000;0.3761;0.9552;
1250.1000;0.3769;0.9552;
1250.4000;0.3769;0.9477;
1250.7000;0.3826;0.9552;
1251.0000;0.3785;0.9477;
1251.3000;0.3793;0.9527;
1251.6000;0.3753;0.9354;
1251.9000;0.3744;0.9403;
1252.2000;0.3753;0.9527;
1252.5000;0.3728;0.9453;
1252.8000;0.3793;0.9601;
1253.1000;0.3761;0.9552;
1253.4000;0.3801;0.9675;
1253.7000;0.3777;0.9576;
1254.0000;0.3761;0.9601;
1254.3000;0.3769;0.9626;
1254.6000;0.3785;0.9650;
1254.9000;0.3785;0.9601;
1255.2000;0.3801;0.9626;
1255.5000;0.3777;0.9527;
1255.8000;0.3785;0.9502;
1256.1000;0.3761;0.9477;
1256.4000;0.3785;0.9601;
1256.7000;0.3728;0.9477;
1257.0000;0.3769;0.9502;
1257.3000;0.3753;0.9354;
1257.6000;0.3777;0.9305;
1257.9000;0.3769;0.9403;
1258.2000;0.3777;0.9403;
1258.5000;0.3777;0.9453;
1258.8000;0.3736;0.9477;
1259.1000;0.3785;0.9552;
1259.4000;0.3777;0.9552;
1259.7000;0.3777;0.9477;
1260.0000;0.3777;0.9453;
1260.3000;0.3826;0.9576;
1260.6000;0.3777;0.9601;
1260.9000;0.3761;0.9552;
1261.2000;0.3744;0.9552;
1261.5000;0.3728;0.9477;
1261.8000;0.3696;0.9379;
1262.1000;0.3769;0.9502;
1262.4000;0.3793;0.9576;
1262.7000;0.3777;0.9576;
1263.0000;0.3801;0.9650;
1263.3000;0.3744;0.9403;
1263.6000;0.3728;0.9231;
1263.9000;0.3769;0.9354;
1264.2000;0.3785;0.9379;
1264.5000;0.3834;0.9552;
1264.8000;0.3777;0.9354;
1265.1000;0.3744;0.9354;
1265.4000;0.3777;0.9477;
1265.7000;0.3777;0.9576;
1266.0000;0.3769;0.9477;
1266.3000;0.3761;0.9428;
1266.6000;0.3769;0.9428;
1266.9000;0.3769;0.9379;
1267.2000;0.3769;0.9428;
1267.5000;0.3769;0.9403;
1267.8000;0.3777;0.9379;
1268.1000;0.3769;0.9403;
1268.4000;0.3785;0.9552;
1268.7000;0.3769;0.9527;
1269.0000;0.3761;0.9576;
1269.3000;0.3769;0.9552;
1269.6000;0.3785;0.9552;
1269.9000;0.3769;0.9601;
1270.2000;0.3777;0.9502;
1270.5000;0.3769;0.9403;
1270.8000;0.3777;0.9453;
1271.1000;0.3769;0.9453;
1271.4000;0.3744;0.9453;
1271.7000;0.3769;0.9576;
1272.0000;0.3785;0.9626;
1272.3000;0.3769;0.9502;
1272.6000;0.3777;0.9527;
1272.9000;0.3769;0.9477;
1273.2000;0.3850;0.9626;
1273.5000;0.3769;0.9403;
1273.8000;0.3769;0.9477;
1274.1000;0.3769;0.9552;
1274.4000;0.3769;0.9502;
1274.7000;0.3736;0.9379;
1275.0000;0.3753;0.9379;
1275.3000;0.3761;0.9305;
1275.6000;0.3810;0.9576;
1275.9000;0.3769;0.9453;
1276.2000;0.3753;0.9453;
1276.5000;0.3842;0.9700;
1276.8000;0.3769;0.9626;
1277.1000;0.3761;0.9527;
1277.4000;0.3761;0.9502;
1277.7000;0.3761;0.9502;
1278.0000;0.3810;0.9626;
1278.3000;0.3769;0.9527;
1278.6000;0.3769;0.9453;
1278.9000;0.3761;0.9354;
1279.2000;0.3761;0.9354;
1279.5000;0.3687;0.9107;
1279.8000;0.3777;0.9453;
1280.1000;0.3753;0.9354;
1280.4000;0.3736;0.9329;
1280.7000;0.3769;0.9379;
1281.0000;0.3785;0.9477;
1281.3000;0.3761;0.9379;
1281.6000;0.3761;0.9527;
1281.9000;0.3769;0.9626;
1282.2000;0.3785;0.9724;
1282.5000;0.3777;0.9724;
1282.8000;0.3769;0.9700;
1283.1000;0.3769;0.9675;
1283.4000;0.3834;0.9749;
1283.7000;0.3769;0.9552;
1284.0000;0.3769;0.9527;
1284.3000;0.3728;0.9477;
1284.6000;0.3777;0.9527;
1284.9000;0.3858;0.9700;
1285.2000;0.3769;0.9403;
1285.5000;0.3785;0.9527;
1285.8000;0.3769;0.9601;
1286.1000;0.3777;0.9601;
1286.4000;0.3777;0.9650;
1286.7000;0.3769;0.9675;
1287.0000;0.3736;0.9601;
1287.3000;0.3753;0.9601;
1287.6000;0.3736;0.9552;
1287.9000;0.3867;0.9897;
1288.2000;0.3753;0.9601;
1288.5000;0.3761;0.9576;
1288.8000;0.3761;0.9527;
1289.1000;0.3777;0.9527;
1289.4000;0.3761;0.9502;
1289.7000;0.3769;0.9477;
1290.0000;0.3761;0.9502;
1290.3000;0.3777;0.9552;
1290.6000;0.3769;0.9527;
1290.9000;0.3769;0.9527;
1291.2000;0.3769;0.9527;
1291.5000;0.3769;0.9626;
1291.8000;0.3769;0.9626;
1292.1000;0.3761;0.9527;
1292.4000;0.3761;0.9626;
1292.7000;0.3801;0.9749;
1293.0000;0.3777;0.9724;
1293.3000;0.3777;0.9749;
1293.6000;0.3769;0.9798;
1293.9000;0.3769;0.9798;
1294.2000;0.3818;0.9897;
1294.5000;0.3785;0.9749;
1294.8000;0.3769;0.9675;
1295.1000;0.3777;0.9724;
1295.4000;0.3793;0.9675;
1295.7000;0.3785;0.9749;
1296.0000;0.3777;0.9724;
1296.3000;0.3769;0.9774;
1296.6000;0.3761;0.9798;
1296.9000;0.3753;0.9798;
1297.2000;0.3761;0.9848;
1297.5000;0.3744;0.9798;
1297.8000;0.3769;0.9823;
1298.1000;0.3769;0.9774;
1298.4000;0.3761;0.9675;
1298.7000;0.3769;0.9749;
1299.0000;0.3769;0.9823;
1299.3000;0.3777;0.9774;
1299.6000;0.3826;0.9897;
1299.9000;0.3761;0.9848;
1300.2000;0.3769;0.9971;
1300.5000;0.3793;0.9946;
1300.8000;0.3785;0.9872;
1301.1000;0.3769;0.9700;
1301.4000;0.3818;0.9823;
1301.7000;0.3810;0.9848;
1302.0000;0.3736;0.9700;
1302.3000;0.3744;0.9626;
1302.6000;0.3753;0.9650;
1302.9000;0.3736;0.9724;
1303.2000;0.3777;0.9872;
1303.5000;0.3753;0.9823;
1303.8000;0.3769;0.9848;
1304.1000;0.3744;0.9798;
1304.4000;0.3826;0.9946;
1304.7000;0.3769;0.9774;
1305.0000;0.3777;0.9650;
1305.3000;0.3867;0.9996;
1305.6000;0.3777;0.9848;
1305.9000;0.3793;0.9922;
1306.2000;0.3761;0.9823;
1306.5000;0.3761;0.9749;
1306.8000;0.3769;0.9774;
1307.1000;0.3761;0.9576;
1307.4000;0.3728;0.9477;
1307.7000;0.3753;0.9527;
1308.0000;0.3777;0.9527;
1308.3000;0.3810;0.9576;
1308.6000;0.3704;0.9428;
1308.9000;0.3744;0.9502;
1309.2000;0.3744;0.9552;
1309.5000;0.3801;0.9675;
1309.8000;0.3744;0.9601;
1310.1000;0.3753;0.9576;
1310.4000;0.3769;0.9675;
1310.7000;0.3826;0.9848;
1311.0000;0.3777;0.9749;
1311.3000;0.3761;0.9650;
1311.6000;0.3777;0.9724;
1311.9000;0.3777;0.9700;
1312.2000;0.3777;0.9749;
1312.5000;0.3769;0.9675;
1312.8000;0.3736;0.9650;
1313.1000;0.3769;0.9749;
1313.4000;0.3777;0.9798;
1313.7000;0.3761;0.9798;
1314.0000;0.3777;0.9774;
1314.3000;0.3785;0.9798;
1314.6000;0.3777;0.9922;
1314.9000;0.3793;0.9872;
1315.2000;0.3785;0.9823;
1315.5000;0.3761;0.9823;
1315.8000;0.3761;0.9848;
1316.1000;0.3777;0.9823;
1316.4000;0.3785;0.9872;
1316.7000;0.3744;0.9749;
1317.0000;0.3793;0.9749;
1317.3000;0.3704;0.9502;
1317.6000;0.3785;0.9675;
1317.9000;0.3777;0.9675;
1318.2000;0.3761;0.9601;
1318.5000;0.3777;0.9650;
1318.8000;0.3777;0.9650;
1319.1000;0.3801;0.9749;
1319.4000;0.3769;0.9724;
1319.7000;0.3769;0.9774;
1320.0000;0.3761;0.9798;
1320.3000;0.3818;0.9922;
1320.6000;0.3753;0.9798;
1320.9000;0.3744;0.9823;
1321.2000;0.3769;0.9823;
1321.5000;0.3777;0.9724;
1321.8000;0.3761;0.9552;
1322.1000;0.3761;0.9576;
1322.4000;0.3777;0.9552;
1322.7000;0.3761;0.9626;
1323.0000;0.3785;0.9798;
1323.3000;0.3769;0.9798;
1323.6000;0.3769;0.9823;
1323.9000;0.3761;0.9872;
1324.2000;0.3744;0.9798;
1324.5000;0.3777;0.9823;
1324.8000;0.3720;0.9675;
1325.1000;0.3753;0.9848;
1325.4000;0.3826;0.9922;
1325.7000;0.3777;0.9872;
1326.0000;0.3761;0.9922;
1326.3000;0.3761;0.9996;
1326.6000;0.3826;1.0144;
1326.9000;0.3777;0.9872;
1327.2000;0.3769;0.9774;
1327.5000;0.3793;0.9872;
1327.8000;0.3777;0.9897;
1328.1000;0.3793;0.9774;
1328.4000;0.3769;0.9749;
1328.7000;0.3761;0.9724;
1329.0000;0.3785;0.9774;
1329.3000;0.3818;0.9946;
1329.6000;0.3753;0.9823;
1329.9000;0.3769;0.9774;
1330.2000;0.3769;0.9675;
1330.5000;0.3769;0.9749;
1330.8000;0.3753;0.9823;
1331.1000;0.3753;0.9774;
1331.4000;0.3753;0.9798;
1331.7000;0.3777;0.9848;
1332.0000;0.3761;0.9724;
1332.3000;0.3753;0.9675;
1332.6000;0.3761;0.9675;
1332.9000;0.3769;0.9724;
1333.2000;0.3753;0.9650;
1333.5000;0.3761;0.9774;
1333.8000;0.3769;0.9724;
1334.1000;0.3777;0.9700;
1334.4000;0.3769;0.9626;
1334.7000;0.3769;0.9650;
1335.0000;0.3753;0.9724;
1335.3000;0.3753;0.9650;
1335.6000;0.3777;0.9626;
1335.9000;0.3761;0.9700;
1336.2000;0.3761;0.9848;
1336.5000;0.3769;0.9798;
1336.8000;0.3777;0.9823;
1337.1000;0.3777;0.9872;
1337.4000;0.3769;0.9946;
1337.7000;0.3777;0.9848;
1338.0000;0.3769;0.9848;
1338.3000;0.3777;0.9897;
1338.6000;0.3777;0.9946;
1338.9000;0.3769;0.9922;
1339.2000;0.3793;0.9971;
1339.5000;0.3785;0.9996;
1339.8000;0.3777;0.9971;
1340.1000;0.3753;0.9971;
1340.4000;0.3769;1.0020;
1340.7000;0.3761;0.9971;
1341.0000;0.3793;0.9946;
1341.3000;0.3777;0.9922;
1341.6000;0.3785;0.9897;
1341.9000;0.3769;0.9749;
1342.2000;0.3801;0.9872;
1342.5000;0.3777;0.9823;
1342.8000;0.3769;0.9749;
1343.1000;0.3728;0.9700;
1343.4000;0.3777;0.9798;
1343.7000;0.3777;0.9872;
1344.0000;0.3761;0.9872;
1344.3000;0.3785;0.9922;
1344.6000;0.3777;0.9872;
1344.9000;0.3777;0.9922;
1345.2000;0.3769;0.9897;
1345.5000;0.3777;0.9897;
1345.8000;0.3769;0.9848;
1346.1000;0.3761;0.9922;
1346.4000;0.3777;0.9922;
1346.7000;0.3761;0.9872;
1347.0000;0.3753;0.9971;
1347.3000;0.3769;0.9946;
1347.6000;0.3696;0.9774;
1347.9000;0.3777;1.0070;
1348.2000;0.3761;1.0045;
1348.5000;0.3769;1.0119;
1348.8000;0.3761;1.0119;
1349.1000;0.3777;1.0169;
1349.4000;0.3761;1.0094;
1349.7000;0.3777;1.0045;
1350.0000;0.3785;0.9996;
1350.3000;0.3785;0.9848;
1350.6000;0.3761;0.9724;
1350.9000;0.3834;0.9872;
1351.2000;0.3753;0.9675;
1351.5000;0.3761;0.9749;
1351.8000;0.3769;0.9724;
1352.1000;0.3769;0.9724;
1352.4000;0.3753;0.9823;
1352.7000;0.3793;0.9848;
1353.0000;0.3769;0.9798;
1353.3000;0.3777;0.9774;
1353.6000;0.3785;0.9872;
1353.9000;0.3761;0.9823;
1354.2000;0.3769;0.9823;
1354.5000;0.3769;0.9749;
1354.8000;0.3761;0.9749;
1355.1000;0.3769;0.9774;
1355.4000;0.3777;0.9774;
1355.7000;0.3826;0.9774;
1356.0000;0.3785;0.9626;
1356.3000;0.3777;0.9650;
1356.6000;0.3769;0.9576;
1356.9000;0.3744;0.9650;
1357.2000;0.3785;0.9798;
1357.5000;0.3769;0.9749;
1357.8000;0.3785;0.9724;
1358.1000;0.3761;0.9675;
1358.4000;0.3777;0.9700;
1358.7000;0.3761;0.9675;
1359.0000;0.3761;0.9601;
1359.3000;0.3761;0.9552;
1359.6000;0.3753;0.9552;
1359.9000;0.3736;0.9527;
1360.2000;0.3744;0.9502;
1360.5000;0.3769;0.9650;
1360.8000;0.3753;0.9650;
1361.1000;0.3769;0.9724;
1361.4000;0.3761;0.9724;
1361.7000;0.3801;0.9798;
1362.0000;0.3785;0.9823;
1362.3000;0.3793;0.9848;
1362.6000;0.3761;0.9897;
1362.9000;0.3769;0.9798;
1363.2000;0.3704;0.9724;
1363.5000;0.3744;0.9922;
1363.8000;0.3785;0.9922;
1364.1000;0.3801;0.9971;
1364.4000;0.3769;0.9848;
1364.7000;0.3769;0.9774;
1365.0000;0.3744;0.9774;
1365.3000;0.3834;0.9946;
1365.6000;0.3777;0.9848;
1365.9000;0.3736;0.9798;
1366.2000;0.3753;0.9971;
1366.5000;0.3761;0.9897;
1366.8000;0.3785;0.9922;
1367.1000;0.3777;0.9872;
1367.4000;0.3777;0.9946;
1367.7000;0.3736;0.9872;
1368.0000;0.3736;0.9872;
1368.3000;0.3753;0.9823;
1368.6000;0.3801;0.9872;
1368.9000;0.3761;0.9774;
1369.2000;0.3753;0.9798;
1369.5000;0.3761;0.9798;
1369.8000;0.3761;0.9724;
1370.1000;0.3753;0.9724;
1370.4000;0.3769;0.9823;
1370.7000;0.3777;0.9848;
1371.0000;0.3761;0.9872;
1371.3000;0.3761;0.9823;
1371.6000;0.3801;0.9922;
1371.9000;0.3769;0.9848;
1372.2000;0.3785;0.9946;
1372.5000;0.3810;0.9971;
1372.8000;0.3777;0.9872;
1373.1000;0.3785;0.9872;
1373.4000;0.3785;0.9798;
1373.7000;0.3753;0.9897;
1374.0000;0.3777;0.9922;
1374.3000;0.3785;0.9971;
1374.6000;0.3671;0.9724;
1374.9000;0.3769;0.9996;
1375.2000;0.3753;0.9897;
1375.5000;0.3769;0.9946;
1375.8000;0.3736;0.9897;
1376.1000;0.3728;0.9749;
1376.4000;0.3769;0.9749;
1376.7000;0.3883;1.0020;
1377.0000;0.3744;0.9626;
1377.3000;0.3777;0.9626;
1377.6000;0.3761;0.9626;
1377.9000;0.3736;0.9700;
1378.2000;0.3753;0.9749;
1378.5000;0.3777;0.9848;
1378.8000;0.3728;0.9724;
1379.1000;0.3744;0.9798;
1379.4000;0.3826;1.0020;
1379.7000;0.3785;1.0020;
1380.0000;0.3769;0.9946;
1380.3000;0.3785;0.9872;
1380.6000;0.3761;0.9897;
1380.9000;0.3744;0.9971;
1381.2000;0.3769;0.9897;
1381.5000;0.3744;0.9823;
1381.8000;0.3793;0.9848;
1382.1000;0.3785;0.9675;
1382.4000;0.3769;0.9576;
1382.7000;0.3785;0.9626;
1383.0000;0.3744;0.9675;
1383.3000;0.3769;0.9823;
1383.6000;0.3761;0.9823;
1383.9000;0.3769;0.9897;
1384.2000;0.3769;0.9897;
1384.5000;0.3744;0.9823;
1384.8000;0.3744;0.9798;
1385.1000;0.3785;0.9848;
1385.4000;0.3777;0.9749;
1385.7000;0.3777;0.9675;
1386.0000;0.3785;0.9724;
1386.3000;0.3744;0.9626;
1386.6000;0.3761;0.9774;
1386.9000;0.3753;0.9774;
1387.2000;0.3769;0.9897;
1387.5000;0.3777;0.9872;
1387.8000;0.3736;0.9675;
1388.1000;0.3761;0.9724;
1388.4000;0.3777;0.9749;
1388.7000;0.3744;0.9675;
1389.0000;0.3793;0.9798;
1389.3000;0.3736;0.9650;
1389.6000;0.3753;0.9724;
1389.9000;0.3769;0.9749;
1390.2000;0.3769;0.9798;
1390.5000;0.3793;0.9946;
1390.8000;0.3753;0.9848;
1391.1000;0.3753;0.9872;
1391.4000;0.3761;0.9823;
1391.7000;0.3753;0.9848;
1392.0000;0.3744;0.9872;
1392.3000;0.3744;0.9872;
1392.6000;0.3761;0.9946;
1392.9000;0.3761;0.9922;
1393.2000;0.3753;0.9872;
1393.5000;0.3777;0.9848;
1393.8000;0.3769;0.9872;
1394.1000;0.3777;0.9823;
1394.4000;0.3769;0.9798;
1394.7000;0.3761;0.9872;
1395.0000;0.3769;0.9872;
1395.3000;0.3687;0.9724;
1395.6000;0.3785;0.9946;
1395.9000;0.3753;0.9872;
1396.2000;0.3769;0.9774;
1396.5000;0.3769;0.9774;
1396.8000;0.3801;0.9774;
1397.1000;0.3761;0.9700;
1397.4000;0.3777;0.9724;
1397.7000;0.3761;0.9675;
1398.0000;0.3728;0.9527;
1398.3000;0.3769;0.9576;
1398.6000;0.3753;0.9576;
1398.9000;0.3744;0.9601;
1399.2000;0.3777;0.9749;
1399.5000;0.3744;0.9601;
1399.8000;0.3842;0.9897;
