time/ms;Fluo/V;P700 deltaI/I x10³;
-199.8000;0.3655;0.9502;
-199.5000;0.3671;0.9477;
-199.2000;0.3647;0.9428;
-198.9000;0.3647;0.9453;
-198.6000;0.3663;0.9601;
-198.3000;0.3647;0.9601;
-198.0000;0.3647;0.9502;
-197.7000;0.3655;0.9552;
-197.4000;0.3639;0.9477;
-197.1000;0.3655;0.9453;
-196.8000;0.3630;0.9477;
-196.5000;0.3639;0.9527;
-196.2000;0.3663;0.9576;
-195.9000;0.3647;0.9552;
-195.6000;0.3639;0.9428;
-195.3000;0.3639;0.9305;
-195.0000;0.3671;0.9329;
-194.7000;0.3663;0.9255;
-194.4000;0.3663;0.9255;
-194.1000;0.3647;0.9255;
-193.8000;0.3655;0.9255;
-193.5000;0.3663;0.9379;
-193.2000;0.3557;0.9206;
-192.9000;0.3622;0.9477;
-192.6000;0.3696;0.9576;
-192.3000;0.3671;0.9403;
-192.0000;0.3663;0.9428;
-191.7000;0.3655;0.9403;
-191.4000;0.3639;0.9379;
-191.1000;0.3769;0.9724;
-190.8000;0.3639;0.9477;
-190.5000;0.3663;0.9379;
-190.2000;0.3639;0.9453;
-189.9000;0.3573;0.9354;
-189.6000;0.3671;0.9626;
-189.3000;0.3687;0.9724;
-189.0000;0.3647;0.9650;
-188.7000;0.3639;0.9774;
-188.4000;0.3663;0.9798;
-188.1000;0.3647;0.9872;
-187.8000;0.3655;0.9996;
-187.5000;0.3655;0.9897;
-187.2000;0.3663;0.9848;
-186.9000;0.3655;0.9798;
-186.6000;0.3614;0.9700;
-186.3000;0.3655;0.9749;
-186.0000;0.3630;0.9700;
-185.7000;0.3655;0.9700;
-185.4000;0.3622;0.9700;
-185.1000;0.3630;0.9675;
-184.8000;0.3655;0.9724;
-184.5000;0.3655;0.9700;
-184.2000;0.3663;0.9700;
-183.9000;0.3630;0.9552;
-183.6000;0.3549;0.9329;
-183.3000;0.3671;0.9576;
-183.0000;0.3663;0.9552;
-182.7000;0.3647;0.9477;
-182.4000;0.3655;0.9675;
-182.1000;0.3655;0.9700;
-181.8000;0.3655;0.9749;
-181.5000;0.3663;0.9798;
-181.2000;0.3655;0.9774;
-180.9000;0.3647;0.9823;
-180.6000;0.3663;0.9700;
-180.3000;0.3647;0.9700;
-180.0000;0.3639;0.9626;
-179.7000;0.3647;0.9576;
-179.4000;0.3647;0.9527;
-179.1000;0.3655;0.9477;
-178.8000;0.3671;0.9477;
-178.5000;0.3606;0.9379;
-178.2000;0.3639;0.9453;
-177.9000;0.3671;0.9477;
-177.6000;0.3647;0.9428;
-177.3000;0.3655;0.9379;
-177.0000;0.3655;0.9354;
-176.7000;0.3655;0.9453;
-176.4000;0.3696;0.9576;
-176.1000;0.3663;0.9527;
-175.8000;0.3671;0.9650;
-175.5000;0.3590;0.9502;
-175.2000;0.3663;0.9675;
-174.9000;0.3704;0.9724;
-174.6000;0.3647;0.9552;
-174.3000;0.3647;0.9601;
-174.0000;0.3647;0.9601;
-173.7000;0.3647;0.9502;
-173.4000;0.3655;0.9502;
-173.1000;0.3655;0.9502;
-172.8000;0.3655;0.9527;
-172.5000;0.3712;0.9650;
-172.2000;0.3639;0.9403;
-171.9000;0.3655;0.9502;
-171.6000;0.3671;0.9477;
-171.3000;0.3671;0.9552;
-171.0000;0.3671;0.9527;
-170.7000;0.3663;0.9428;
-170.4000;0.3671;0.9453;
-170.1000;0.3671;0.9379;
-169.8000;0.3663;0.9428;
-169.5000;0.3606;0.9280;
-169.2000;0.3647;0.9502;
-168.9000;0.3647;0.9502;
-168.6000;0.3647;0.9552;
-168.3000;0.3647;0.9576;
-168.0000;0.3630;0.9527;
-167.7000;0.3696;0.9626;
-167.4000;0.3663;0.9601;
-167.1000;0.3655;0.9576;
-166.8000;0.3663;0.9527;
-166.5000;0.3639;0.9477;
-166.2000;0.3663;0.9675;
-165.9000;0.3679;0.9724;
-165.6000;0.3663;0.9774;
-165.3000;0.3671;0.9774;
-165.0000;0.3671;0.9724;
-164.7000;0.3671;0.9724;
-164.4000;0.3614;0.9576;
-164.1000;0.3663;0.9502;
-163.8000;0.3671;0.9552;
-163.5000;0.3639;0.9477;
-163.2000;0.3663;0.9477;
-162.9000;0.3647;0.9329;
-162.6000;0.3696;0.9428;
-162.3000;0.3696;0.9502;
-162.0000;0.3671;0.9354;
-161.7000;0.3582;0.9132;
-161.4000;0.3647;0.9305;
-161.1000;0.3687;0.9403;
-160.8000;0.3639;0.9280;
-160.5000;0.3663;0.9453;
-160.2000;0.3655;0.9453;
-159.9000;0.3663;0.9502;
-159.6000;0.3655;0.9477;
-159.3000;0.3639;0.9379;
-159.0000;0.3647;0.9428;
-158.7000;0.3671;0.9477;
-158.4000;0.3639;0.9428;
-158.1000;0.3712;0.9527;
-157.8000;0.3647;0.9428;
-157.5000;0.3663;0.9477;
-157.2000;0.3647;0.9403;
-156.9000;0.3655;0.9453;
-156.6000;0.3655;0.9453;
-156.3000;0.3704;0.9626;
-156.0000;0.3671;0.9552;
-155.7000;0.3671;0.9675;
-155.4000;0.3647;0.9724;
-155.1000;0.3639;0.9601;
-154.8000;0.3663;0.9700;
-154.5000;0.3769;0.9971;
-154.2000;0.3639;0.9700;
-153.9000;0.3663;0.9724;
-153.6000;0.3639;0.9576;
-153.3000;0.3712;0.9626;
-153.0000;0.3696;0.9601;
-152.7000;0.3671;0.9527;
-152.4000;0.3663;0.9477;
-152.1000;0.3679;0.9428;
-151.8000;0.3630;0.9354;
-151.5000;0.3639;0.9428;
-151.2000;0.3655;0.9502;
-150.9000;0.3663;0.9477;
-150.6000;0.3663;0.9527;
-150.3000;0.3663;0.9576;
-150.0000;0.3663;0.9626;
-149.7000;0.3655;0.9626;
-149.4000;0.3655;0.9576;
-149.1000;0.3647;0.9601;
-148.8000;0.3655;0.9576;
-148.5000;0.3590;0.9354;
-148.2000;0.3655;0.9576;
-147.9000;0.3655;0.9601;
-147.6000;0.3679;0.9724;
-147.3000;0.3622;0.9552;
-147.0000;0.3679;0.9650;
-146.7000;0.3671;0.9601;
-146.4000;0.3663;0.9552;
-146.1000;0.3647;0.9552;
-145.8000;0.3639;0.9453;
-145.5000;0.3679;0.9477;
-145.2000;0.3655;0.9403;
-144.9000;0.3639;0.9280;
-144.6000;0.3647;0.9305;
-144.3000;0.3671;0.9453;
-144.0000;0.3647;0.9453;
-143.7000;0.3606;0.9329;
-143.4000;0.3598;0.9329;
-143.1000;0.3704;0.9527;
-142.8000;0.3696;0.9527;
-142.5000;0.3655;0.9403;
-142.2000;0.3671;0.9428;
-141.9000;0.3687;0.9428;
-141.6000;0.3655;0.9329;
-141.3000;0.3663;0.9403;
-141.0000;0.3655;0.9453;
-140.7000;0.3622;0.9403;
-140.4000;0.3663;0.9502;
-140.1000;0.3663;0.9527;
-139.8000;0.3687;0.9527;
-139.5000;0.3696;0.9576;
-139.2000;0.3696;0.9502;
-138.9000;0.3655;0.9403;
-138.6000;0.3744;0.9724;
-138.3000;0.3671;0.9477;
-138.0000;0.3671;0.9477;
-137.7000;0.3753;0.9700;
-137.4000;0.3655;0.9428;
-137.1000;0.3671;0.9477;
-136.8000;0.3696;0.9650;
-136.5000;0.3671;0.9626;
-136.2000;0.3679;0.9675;
-135.9000;0.3647;0.9601;
-135.6000;0.3590;0.9453;
-135.3000;0.3655;0.9552;
-135.0000;0.3663;0.9527;
-134.7000;0.3687;0.9576;
-134.4000;0.3647;0.9477;
-134.1000;0.3663;0.9477;
-133.8000;0.3687;0.9403;
-133.5000;0.3671;0.9428;
-133.2000;0.3655;0.9403;
-132.9000;0.3671;0.9477;
-132.6000;0.3671;0.9576;
-132.3000;0.3663;0.9453;
-132.0000;0.3679;0.9527;
-131.7000;0.3671;0.9428;
-131.4000;0.3671;0.9453;
-131.1000;0.3687;0.9502;
-130.8000;0.3655;0.9453;
-130.5000;0.3696;0.9527;
-130.2000;0.3655;0.9477;
-129.9000;0.3671;0.9403;
-129.6000;0.3671;0.9477;
-129.3000;0.3663;0.9477;
-129.0000;0.3663;0.9477;
-128.7000;0.3655;0.9477;
-128.4000;0.3663;0.9477;
-128.1000;0.3663;0.9502;
-127.8000;0.3687;0.9601;
-127.5000;0.3679;0.9650;
-127.2000;0.3679;0.9477;
-126.9000;0.3671;0.9601;
-126.6000;0.3679;0.9576;
-126.3000;0.3663;0.9552;
-126.0000;0.3679;0.9601;
-125.7000;0.3679;0.9650;
-125.4000;0.3679;0.9724;
-125.1000;0.3679;0.9650;
-124.8000;0.3663;0.9650;
-124.5000;0.3671;0.9552;
-124.2000;0.3655;0.9477;
-123.9000;0.3753;0.9700;
-123.6000;0.3679;0.9552;
-123.3000;0.3736;0.9552;
-123.0000;0.3671;0.9305;
-122.7000;0.3720;0.9428;
-122.4000;0.3679;0.9305;
-122.1000;0.3679;0.9280;
-121.8000;0.3687;0.9354;
-121.5000;0.3704;0.9527;
-121.2000;0.3679;0.9552;
-120.9000;0.3679;0.9626;
-120.6000;0.3712;0.9576;
-120.3000;0.3679;0.9576;
-120.0000;0.3679;0.9502;
-119.7000;0.3671;0.9453;
-119.4000;0.3663;0.9453;
-119.1000;0.3663;0.9477;
-118.8000;0.3655;0.9453;
-118.5000;0.3671;0.9428;
-118.2000;0.3696;0.9502;
-117.9000;0.3785;0.9724;
-117.6000;0.3736;0.9650;
-117.3000;0.3671;0.9576;
-117.0000;0.3671;0.9527;
-116.7000;0.3728;0.9700;
-116.4000;0.3687;0.9552;
-116.1000;0.3671;0.9527;
-115.8000;0.3671;0.9527;
-115.5000;0.3679;0.9626;
-115.2000;0.3655;0.9552;
-114.9000;0.3655;0.9576;
-114.6000;0.3655;0.9527;
-114.3000;0.3671;0.9428;
-114.0000;0.3671;0.9403;
-113.7000;0.3720;0.9552;
-113.4000;0.3671;0.9403;
-113.1000;0.3679;0.9527;
-112.8000;0.3671;0.9576;
-112.5000;0.3655;0.9601;
-112.2000;0.3671;0.9552;
-111.9000;0.3655;0.9576;
-111.6000;0.3671;0.9601;
-111.3000;0.3655;0.9576;
-111.0000;0.3679;0.9552;
-110.7000;0.3679;0.9552;
-110.4000;0.3647;0.9428;
-110.1000;0.3655;0.9477;
-109.8000;0.3663;0.9453;
-109.5000;0.3744;0.9626;
-109.2000;0.3679;0.9527;
-108.9000;0.3687;0.9403;
-108.6000;0.3679;0.9403;
-108.3000;0.3663;0.9354;
-108.0000;0.3679;0.9428;
-107.7000;0.3687;0.9428;
-107.4000;0.3679;0.9453;
-107.1000;0.3663;0.9428;
-106.8000;0.3655;0.9379;
-106.5000;0.3696;0.9527;
-106.2000;0.3679;0.9576;
-105.9000;0.3671;0.9601;
-105.6000;0.3663;0.9527;
-105.3000;0.3687;0.9601;
-105.0000;0.3647;0.9477;
-104.7000;0.3687;0.9527;
-104.4000;0.3671;0.9502;
-104.1000;0.3671;0.9527;
-103.8000;0.3663;0.9477;
-103.5000;0.3720;0.9626;
-103.2000;0.3663;0.9527;
-102.9000;0.3679;0.9527;
-102.6000;0.3696;0.9601;
-102.3000;0.3687;0.9552;
-102.0000;0.3704;0.9576;
-101.7000;0.3630;0.9428;
-101.4000;0.3687;0.9601;
-101.1000;0.3671;0.9477;
-100.8000;0.3663;0.9502;
-100.5000;0.3663;0.9626;
-100.2000;0.3663;0.9576;
-99.9000;0.3679;0.9650;
-99.6000;0.3671;0.9601;
-99.3000;0.3606;0.9502;
-99.0000;0.3663;0.9675;
-98.7000;0.3671;0.9848;
-98.4000;0.3679;0.9823;
-98.1000;0.3728;0.9946;
-97.8000;0.3671;0.9823;
-97.5000;0.3687;0.9823;
-97.2000;0.3671;0.9798;
-96.9000;0.3671;0.9774;
-96.6000;0.3663;0.9823;
-96.3000;0.3696;0.9848;
-96.0000;0.3687;0.9774;
-95.7000;0.3679;0.9675;
-95.4000;0.3679;0.9576;
-95.1000;0.3679;0.9601;
-94.8000;0.3622;0.9502;
-94.5000;0.3679;0.9552;
-94.2000;0.3679;0.9552;
-93.9000;0.3630;0.9453;
-93.6000;0.3696;0.9601;
-93.3000;0.3679;0.9527;
-93.0000;0.3696;0.9576;
-92.7000;0.3671;0.9502;
-92.4000;0.3655;0.9453;
-92.1000;0.3655;0.9329;
-91.8000;0.3687;0.9502;
-91.5000;0.3696;0.9502;
-91.2000;0.3679;0.9502;
-90.9000;0.3655;0.9403;
-90.6000;0.3687;0.9403;
-90.3000;0.3671;0.9428;
-90.0000;0.3696;0.9552;
-89.7000;0.3679;0.9576;
-89.4000;0.3728;0.9749;
-89.1000;0.3679;0.9601;
-88.8000;0.3679;0.9502;
-88.5000;0.3696;0.9626;
-88.2000;0.3696;0.9650;
-87.9000;0.3671;0.9675;
-87.6000;0.3753;0.9823;
-87.3000;0.3679;0.9626;
-87.0000;0.3704;0.9675;
-86.7000;0.3663;0.9626;
-86.4000;0.3679;0.9601;
-86.1000;0.3687;0.9626;
-85.8000;0.3696;0.9700;
-85.5000;0.3728;0.9724;
-85.2000;0.3696;0.9650;
-84.9000;0.3639;0.9552;
-84.6000;0.3663;0.9700;
-84.3000;0.3696;0.9724;
-84.0000;0.3679;0.9675;
-83.7000;0.3679;0.9601;
-83.4000;0.3647;0.9477;
-83.1000;0.3679;0.9576;
-82.8000;0.3647;0.9428;
-82.5000;0.3801;0.9774;
-82.2000;0.3647;0.9477;
-81.9000;0.3696;0.9576;
-81.6000;0.3712;0.9552;
-81.3000;0.3704;0.9626;
-81.0000;0.3777;0.9848;
-80.7000;0.3696;0.9650;
-80.4000;0.3687;0.9650;
-80.1000;0.3704;0.9700;
-79.8000;0.3753;0.9897;
-79.5000;0.3696;0.9798;
-79.2000;0.3679;0.9798;
-78.9000;0.3712;0.9823;
-78.6000;0.3687;0.9749;
-78.3000;0.3679;0.9626;
-78.0000;0.3687;0.9626;
-77.7000;0.3679;0.9675;
-77.4000;0.3704;0.9552;
-77.1000;0.3687;0.9379;
-76.8000;0.3696;0.9403;
-76.5000;0.3687;0.9354;
-76.2000;0.3696;0.9379;
-75.9000;0.3671;0.9329;
-75.6000;0.3663;0.9354;
-75.3000;0.3712;0.9502;
-75.0000;0.3687;0.9552;
-74.7000;0.3696;0.9601;
-74.4000;0.3720;0.9626;
-74.1000;0.3696;0.9626;
-73.8000;0.3679;0.9601;
-73.5000;0.3671;0.9453;
-73.2000;0.3704;0.9576;
-72.9000;0.3687;0.9552;
-72.6000;0.3671;0.9428;
-72.3000;0.3712;0.9428;
-72.0000;0.3679;0.9428;
-71.7000;0.3679;0.9354;
-71.4000;0.3687;0.9477;
-71.1000;0.3687;0.9502;
-70.8000;0.3687;0.9527;
-70.5000;0.3696;0.9453;
-70.2000;0.3687;0.9379;
-69.9000;0.3704;0.9453;
-69.6000;0.3679;0.9403;
-69.3000;0.3663;0.9403;
-69.0000;0.3687;0.9428;
-68.7000;0.3687;0.9453;
-68.4000;0.3630;0.9403;
-68.1000;0.3639;0.9379;
-67.8000;0.3671;0.9527;
-67.5000;0.3647;0.9379;
-67.2000;0.3679;0.9477;
-66.9000;0.3704;0.9601;
-66.6000;0.3696;0.9552;
-66.3000;0.3744;0.9700;
-66.0000;0.3696;0.9477;
-65.7000;0.3687;0.9527;
-65.4000;0.3687;0.9477;
-65.1000;0.3696;0.9527;
-64.8000;0.3679;0.9453;
-64.5000;0.3679;0.9379;
-64.2000;0.3590;0.9157;
-63.9000;0.3704;0.9453;
-63.6000;0.3679;0.9403;
-63.3000;0.3696;0.9403;
-63.0000;0.3712;0.9453;
-62.7000;0.3704;0.9552;
-62.4000;0.3663;0.9453;
-62.1000;0.3761;0.9601;
-61.8000;0.3687;0.9403;
-61.5000;0.3744;0.9477;
-61.2000;0.3720;0.9379;
-60.9000;0.3712;0.9379;
-60.6000;0.3704;0.9354;
-60.3000;0.3704;0.9403;
-60.0000;0.3712;0.9329;
-59.7000;0.3704;0.9329;
-59.4000;0.3696;0.9280;
-59.1000;0.3696;0.9305;
-58.8000;0.3744;0.9379;
-58.5000;0.3704;0.9305;
-58.2000;0.3696;0.9206;
-57.9000;0.3696;0.9206;
-57.6000;0.3712;0.9280;
-57.3000;0.3687;0.9305;
-57.0000;0.3696;0.9403;
-56.7000;0.3696;0.9329;
-56.4000;0.3687;0.9305;
-56.1000;0.3728;0.9354;
-55.8000;0.3696;0.9206;
-55.5000;0.3696;0.9231;
-55.2000;0.3704;0.9354;
-54.9000;0.3687;0.9255;
-54.6000;0.3736;0.9379;
-54.3000;0.3712;0.9379;
-54.0000;0.3712;0.9477;
-53.7000;0.3712;0.9552;
-53.4000;0.3720;0.9601;
-53.1000;0.3679;0.9552;
-52.8000;0.3696;0.9453;
-52.5000;0.3696;0.9576;
-52.2000;0.3704;0.9675;
-51.9000;0.3704;0.9626;
-51.6000;0.3606;0.9354;
-51.3000;0.3679;0.9552;
-51.0000;0.3704;0.9527;
-50.7000;0.3704;0.9453;
-50.4000;0.3687;0.9354;
-50.1000;0.3696;0.9354;
-49.8000;0.3712;0.9354;
-49.5000;0.3728;0.9453;
-49.2000;0.3720;0.9477;
-48.9000;0.3679;0.9354;
-48.6000;0.3687;0.9379;
-48.3000;0.3728;0.9379;
-48.0000;0.3728;0.9255;
-47.7000;0.3704;0.9280;
-47.4000;0.3720;0.9453;
-47.1000;0.3720;0.9477;
-46.8000;0.3663;0.9231;
-46.5000;0.3696;0.9305;
-46.2000;0.3687;0.9305;
-45.9000;0.3696;0.9379;
-45.6000;0.3655;0.9181;
-45.3000;0.3639;0.9157;
-45.0000;0.3696;0.9305;
-44.7000;0.3606;0.9083;
-44.4000;0.3639;0.9157;
-44.1000;0.3696;0.9305;
-43.8000;0.3679;0.9280;
-43.5000;0.3704;0.9329;
-43.2000;0.3744;0.9453;
-42.9000;0.3712;0.9403;
-42.6000;0.3687;0.9157;
-42.3000;0.3687;0.9107;
-42.0000;0.3704;0.9231;
-41.7000;0.3720;0.9255;
-41.4000;0.3712;0.9231;
-41.1000;0.3712;0.9354;
-40.8000;0.3696;0.9305;
-40.5000;0.3704;0.9305;
-40.2000;0.3720;0.9428;
-39.9000;0.3696;0.9428;
-39.6000;0.3704;0.9403;
-39.3000;0.3712;0.9305;
-39.0000;0.3712;0.9354;
-38.7000;0.3712;0.9379;
-38.4000;0.3696;0.9354;
-38.1000;0.3704;0.9379;
-37.8000;0.3720;0.9403;
-37.5000;0.3720;0.9329;
-37.2000;0.3696;0.9354;
-36.9000;0.3712;0.9453;
-36.6000;0.3720;0.9502;
-36.3000;0.3720;0.9502;
-36.0000;0.3704;0.9576;
-35.7000;0.3720;0.9552;
-35.4000;0.3712;0.9552;
-35.1000;0.3720;0.9626;
-34.8000;0.3696;0.9601;
-34.5000;0.3696;0.9601;
-34.2000;0.3696;0.9576;
-33.9000;0.3712;0.9576;
-33.6000;0.3696;0.9477;
-33.3000;0.3655;0.9231;
-33.0000;0.3720;0.9379;
-32.7000;0.3720;0.9477;
-32.4000;0.3712;0.9453;
-32.1000;0.3720;0.9477;
-31.8000;0.3630;0.9305;
-31.5000;0.3704;0.9453;
-31.2000;0.3728;0.9453;
-30.9000;0.3712;0.9428;
-30.6000;0.3712;0.9403;
-30.3000;0.3712;0.9403;
-30.0000;0.3712;0.9403;
-29.7000;0.3687;0.9280;
-29.4000;0.3687;0.9181;
-29.1000;0.3704;0.9231;
-28.8000;0.3728;0.9354;
-28.5000;0.3696;0.9255;
-28.2000;0.3712;0.9329;
-27.9000;0.3801;0.9650;
-27.6000;0.3761;0.9552;
-27.3000;0.3712;0.9403;
-27.0000;0.3720;0.9403;
-26.7000;0.3696;0.9403;
-26.4000;0.3728;0.9403;
-26.1000;0.3720;0.9502;
-25.8000;0.3687;0.9379;
-25.5000;0.3687;0.9428;
-25.2000;0.3720;0.9477;
-24.9000;0.3785;0.9552;
-24.6000;0.3712;0.9379;
-24.3000;0.3712;0.9354;
-24.0000;0.3736;0.9305;
-23.7000;0.3728;0.9206;
-23.4000;0.3696;0.9083;
-23.1000;0.3687;0.9157;
-22.8000;0.3753;0.9379;
-22.5000;0.3663;0.9132;
-22.2000;0.3712;0.9379;
-21.9000;0.3720;0.9403;
-21.6000;0.3696;0.9280;
-21.3000;0.3712;0.9255;
-21.0000;0.3720;0.9354;
-20.7000;0.3630;0.9181;
-20.4000;0.3728;0.9379;
-20.1000;0.3728;0.9354;
-19.8000;0.3720;0.9305;
-19.5000;0.3744;0.9403;
-19.2000;0.3687;0.9329;
-18.9000;0.3704;0.9379;
-18.6000;0.3736;0.9477;
-18.3000;0.3720;0.9379;
-18.0000;0.3720;0.9305;
-17.7000;0.3728;0.9280;
-17.4000;0.3728;0.9354;
-17.1000;0.3728;0.9379;
-16.8000;0.3712;0.9231;
-16.5000;0.3720;0.9231;
-16.2000;0.3728;0.9231;
-15.9000;0.3720;0.9305;
-15.6000;0.3736;0.9354;
-15.3000;0.3679;0.9255;
-15.0000;0.3720;0.9453;
-14.7000;0.3712;0.9527;
-14.4000;0.3728;0.9576;
-14.1000;0.3736;0.9576;
-13.8000;0.3712;0.9576;
-13.5000;0.3704;0.9576;
-13.2000;0.3720;0.9552;
-12.9000;0.3728;0.9453;
-12.6000;0.3728;0.9379;
-12.3000;0.3704;0.9231;
-12.0000;0.3736;0.9305;
-11.7000;0.3720;0.9305;
-11.4000;0.3720;0.9329;
-11.1000;0.3712;0.9255;
-10.8000;0.3696;0.9329;
-10.5000;0.3712;0.9329;
-10.2000;0.3712;0.9428;
-9.9000;0.3720;0.9354;
-9.6000;0.3712;0.9255;
-9.3000;0.3744;0.9305;
-9.0000;0.3801;0.9379;
-8.7000;0.3728;0.9107;
-8.4000;0.3720;0.9181;
-8.1000;0.3720;0.9305;
-7.8000;0.3720;0.9354;
-7.5000;0.3744;0.9428;
-7.2000;0.3712;0.9329;
-6.9000;0.3712;0.9280;
-6.6000;0.3728;0.9354;
-6.3000;0.3704;0.9181;
-6.0000;0.3720;0.9181;
-5.7000;0.3720;0.9181;
-5.4000;0.3736;0.9206;
-5.1000;0.3720;0.9231;
-4.8000;0.3704;0.9231;
-4.5000;0.3720;0.9231;
-4.2000;0.3712;0.9157;
-3.9000;0.3744;0.9280;
-3.6000;0.3736;0.9231;
-3.3000;0.3744;0.9231;
-3.0000;0.3728;0.9083;
-2.7000;0.3736;0.9181;
-2.4000;0.3736;0.9157;
-2.1000;0.3736;0.9181;
-1.8000;0.3728;0.9206;
-1.5000;0.3744;0.9379;
-1.2000;0.3728;0.9329;
-0.9000;0.3761;0.9428;
-0.6000;0.3736;0.9329;
-0.3000;0.3736;0.9403;
0.0000;0.3736;0.9403;
0.3000;0.3858;0.9379;
0.6000;0.4070;0.9650;
0.9000;0.4225;0.9971;
1.2000;0.4420;1.0440;
1.5000;0.4461;1.0539;
1.8000;0.4558;1.0860;
2.1000;0.4615;1.1057;
2.4000;0.4689;1.1180;
2.7000;0.4737;1.1329;
3.0000;0.4778;1.1403;
3.3000;0.4794;1.1427;
3.6000;0.4811;1.1526;
3.9000;0.4868;1.1649;
4.2000;0.4876;1.1723;
4.5000;0.4900;1.1748;
4.8000;0.4917;1.1748;
5.1000;0.4941;1.1896;
5.4000;0.4957;1.1946;
5.7000;0.4990;1.1995;
6.0000;0.4974;1.2020;
6.3000;0.5006;1.1896;
6.6000;0.5022;1.1896;
6.9000;0.5022;1.1896;
7.2000;0.5063;1.1946;
7.5000;0.5071;1.2069;
7.8000;0.5063;1.2069;
8.1000;0.5071;1.1946;
8.4000;0.5104;1.1970;
8.7000;0.5079;1.1921;
9.0000;0.5161;1.2168;
9.3000;0.5120;1.2020;
9.6000;0.5120;1.1970;
9.9000;0.5128;1.1995;
10.2000;0.5128;1.2020;
10.5000;0.5136;1.1970;
10.8000;0.5153;1.1946;
11.1000;0.5112;1.1896;
11.4000;0.5161;1.1970;
11.7000;0.5193;1.2069;
12.0000;0.5169;1.2069;
12.3000;0.5177;1.2143;
12.6000;0.5161;1.2143;
12.9000;0.5193;1.2168;
13.2000;0.5201;1.2143;
13.5000;0.5218;1.2118;
13.8000;0.5128;1.1921;
14.1000;0.5210;1.2094;
14.4000;0.5258;1.2217;
14.7000;0.5234;1.2168;
15.0000;0.5242;1.2094;
15.3000;0.5234;1.2044;
15.6000;0.5242;1.1946;
15.9000;0.5250;1.1946;
16.2000;0.5234;1.2020;
16.5000;0.5258;1.2044;
16.8000;0.5267;1.2094;
17.1000;0.5250;1.2044;
17.4000;0.5250;1.2020;
17.7000;0.5283;1.2020;
18.0000;0.5283;1.1872;
18.3000;0.5299;1.1822;
18.6000;0.5291;1.1872;
18.9000;0.5307;1.1872;
19.2000;0.5307;1.1822;
19.5000;0.5324;1.1872;
19.8000;0.5332;1.1847;
20.1000;0.5324;1.1896;
20.4000;0.5356;1.1970;
20.7000;0.5332;1.1896;
21.0000;0.5340;1.1822;
21.3000;0.5340;1.1773;
21.6000;0.5340;1.1773;
21.9000;0.5381;1.1970;
22.2000;0.5340;1.1921;
22.5000;0.5348;1.1822;
22.8000;0.5356;1.1872;
23.1000;0.5348;1.1970;
23.4000;0.5364;1.1970;
23.7000;0.5372;1.1946;
24.0000;0.5356;1.1970;
24.3000;0.5372;1.2020;
24.6000;0.5340;1.1872;
24.9000;0.5372;1.1970;
25.2000;0.5372;1.1995;
25.5000;0.5389;1.2069;
25.8000;0.5372;1.1946;
26.1000;0.5372;1.1896;
26.4000;0.5429;1.2069;
26.7000;0.5389;1.1896;
27.0000;0.5372;1.1872;
27.3000;0.5405;1.1921;
27.6000;0.5381;1.1946;
27.9000;0.5372;1.1970;
28.2000;0.5397;1.1995;
28.5000;0.5381;1.1970;
28.8000;0.5405;1.2020;
29.1000;0.5397;1.1946;
29.4000;0.5405;1.2020;
29.7000;0.5413;1.2069;
30.0000;0.5397;1.2069;
30.3000;0.5405;1.2094;
30.6000;0.5389;1.2020;
30.9000;0.5421;1.2118;
31.2000;0.5429;1.2118;
31.5000;0.5413;1.2069;
31.8000;0.5405;1.2044;
32.1000;0.5429;1.2118;
32.4000;0.5429;1.2143;
32.7000;0.5429;1.2168;
33.0000;0.5438;1.2217;
33.3000;0.5421;1.2192;
33.6000;0.5421;1.2168;
33.9000;0.5421;1.2094;
34.2000;0.5429;1.2094;
34.5000;0.5413;1.1970;
34.8000;0.5429;1.1970;
35.1000;0.5421;1.1970;
35.4000;0.5421;1.1970;
35.7000;0.5462;1.2143;
36.0000;0.5446;1.2069;
36.3000;0.5438;1.1995;
36.6000;0.5381;1.1822;
36.9000;0.5446;1.1995;
37.2000;0.5438;1.1970;
37.5000;0.5446;1.1995;
37.8000;0.5429;1.1970;
38.1000;0.5429;1.1946;
38.4000;0.5438;1.1946;
38.7000;0.5446;1.1946;
39.0000;0.5438;1.1970;
39.3000;0.5503;1.2168;
39.6000;0.5446;1.2044;
39.9000;0.5454;1.2094;
40.2000;0.5462;1.2118;
40.5000;0.5454;1.2118;
40.8000;0.5454;1.2044;
41.1000;0.5462;1.2044;
41.4000;0.5478;1.2044;
41.7000;0.5462;1.2020;
42.0000;0.5462;1.1995;
42.3000;0.5454;1.1970;
42.6000;0.5438;1.1921;
42.9000;0.5470;1.2020;
43.2000;0.5454;1.1995;
43.5000;0.5478;1.1896;
43.8000;0.5470;1.1797;
44.1000;0.5478;1.1748;
44.4000;0.5438;1.1625;
44.7000;0.5446;1.1699;
45.0000;0.5462;1.1822;
45.3000;0.5486;1.1946;
45.6000;0.5486;1.1970;
45.9000;0.5462;1.1946;
46.2000;0.5462;1.1921;
46.5000;0.5478;1.1921;
46.8000;0.5478;1.1970;
47.1000;0.5560;1.2242;
47.4000;0.5519;1.2143;
47.7000;0.5462;1.2044;
48.0000;0.5462;1.1970;
48.3000;0.5470;1.1946;
48.6000;0.5495;1.1995;
48.9000;0.5486;1.1970;
49.2000;0.5470;1.1995;
49.5000;0.5486;1.1995;
49.8000;0.5600;1.2168;
50.1000;0.5478;1.1872;
50.4000;0.5503;1.1896;
50.7000;0.5495;1.1847;
51.0000;0.5478;1.1773;
51.3000;0.5486;1.1748;
51.6000;0.5470;1.1649;
51.9000;0.5478;1.1674;
52.2000;0.5495;1.1699;
52.5000;0.5438;1.1575;
52.8000;0.5486;1.1723;
53.1000;0.5503;1.1748;
53.4000;0.5495;1.1773;
53.7000;0.5478;1.1797;
54.0000;0.5495;1.1748;
54.3000;0.5486;1.1674;
54.6000;0.5486;1.1674;
54.9000;0.5503;1.1625;
55.2000;0.5503;1.1674;
55.5000;0.5486;1.1625;
55.8000;0.5503;1.1674;
56.1000;0.5519;1.1748;
56.4000;0.5486;1.1699;
56.7000;0.5495;1.1748;
57.0000;0.5503;1.1748;
57.3000;0.5486;1.1773;
57.6000;0.5486;1.1797;
57.9000;0.5478;1.1946;
58.2000;0.5511;1.2094;
58.5000;0.5495;1.2094;
58.8000;0.5503;1.2020;
59.1000;0.5438;1.1822;
59.4000;0.5503;1.1970;
59.7000;0.5519;1.1995;
60.0000;0.5495;1.1970;
60.3000;0.5503;1.1970;
60.6000;0.5478;1.1896;
60.9000;0.5511;1.1921;
61.2000;0.5486;1.1822;
61.5000;0.5446;1.1723;
61.8000;0.5503;1.1872;
62.1000;0.5519;1.1896;
62.4000;0.5503;1.1847;
62.7000;0.5503;1.1896;
63.0000;0.5495;1.1847;
63.3000;0.5519;1.1946;
63.6000;0.5519;1.1921;
63.9000;0.5511;1.1896;
64.2000;0.5503;1.1921;
64.5000;0.5503;1.1896;
64.8000;0.5495;1.1797;
65.1000;0.5511;1.1872;
65.4000;0.5503;1.1896;
65.7000;0.5511;1.2020;
66.0000;0.5543;1.2118;
66.3000;0.5535;1.2069;
66.6000;0.5486;1.1773;
66.9000;0.5503;1.1896;
67.2000;0.5503;1.1946;
67.5000;0.5511;1.1946;
67.8000;0.5543;1.2044;
68.1000;0.5584;1.2118;
68.4000;0.5462;1.1847;
68.7000;0.5511;1.1896;
69.0000;0.5519;1.2020;
69.3000;0.5527;1.2044;
69.6000;0.5527;1.1921;
69.9000;0.5527;1.1896;
70.2000;0.5511;1.1822;
70.5000;0.5511;1.1748;
70.8000;0.5535;1.1797;
71.1000;0.5527;1.1847;
71.4000;0.5543;1.1921;
71.7000;0.5551;1.1822;
72.0000;0.5576;1.1921;
72.3000;0.5543;1.1797;
72.6000;0.5503;1.1674;
72.9000;0.5519;1.1649;
73.2000;0.5511;1.1625;
73.5000;0.5503;1.1600;
73.8000;0.5519;1.1699;
74.1000;0.5535;1.1797;
74.4000;0.5527;1.1748;
74.7000;0.5535;1.1773;
75.0000;0.5527;1.1847;
75.3000;0.5511;1.1896;
75.6000;0.5503;1.1896;
75.9000;0.5527;1.1847;
76.2000;0.5511;1.1797;
76.5000;0.5560;1.1946;
76.8000;0.5527;1.1773;
77.1000;0.5519;1.1847;
77.4000;0.5535;1.1822;
77.7000;0.5535;1.1773;
78.0000;0.5535;1.1773;
78.3000;0.5511;1.1847;
78.6000;0.5560;1.1921;
78.9000;0.5527;1.1896;
79.2000;0.5576;1.1921;
79.5000;0.5519;1.1773;
79.8000;0.5584;1.1970;
80.1000;0.5543;1.1970;
80.4000;0.5560;1.1995;
80.7000;0.5478;1.1872;
81.0000;0.5535;1.1946;
81.3000;0.5519;1.1946;
81.6000;0.5486;1.1847;
81.9000;0.5527;1.1921;
82.2000;0.5462;1.1748;
82.5000;0.5527;1.1896;
82.8000;0.5551;1.1946;
83.1000;0.5519;1.1872;
83.4000;0.5584;1.2094;
83.7000;0.5454;1.1723;
84.0000;0.5535;1.1921;
84.3000;0.5527;1.1970;
84.6000;0.5446;1.1748;
84.9000;0.5519;1.1970;
85.2000;0.5503;1.1970;
85.5000;0.5535;1.1970;
85.8000;0.5527;1.1946;
86.1000;0.5560;1.2020;
86.4000;0.5584;1.2069;
86.7000;0.5535;1.1872;
87.0000;0.5543;1.1797;
87.3000;0.5543;1.1699;
87.6000;0.5543;1.1797;
87.9000;0.5551;1.1822;
88.2000;0.5519;1.1797;
88.5000;0.5543;1.1748;
88.8000;0.5438;1.1403;
89.1000;0.5511;1.1674;
89.4000;0.5560;1.1822;
89.7000;0.5527;1.1748;
90.0000;0.5527;1.1773;
90.3000;0.5527;1.1723;
90.6000;0.5551;1.1822;
90.9000;0.5519;1.1773;
91.2000;0.5592;1.2020;
91.5000;0.5543;1.1921;
91.8000;0.5543;1.1921;
92.1000;0.5478;1.1872;
92.4000;0.5543;1.1946;
92.7000;0.5519;1.1921;
93.0000;0.5560;1.2044;
93.3000;0.5568;1.2069;
93.6000;0.5543;1.1970;
93.9000;0.5543;1.1970;
94.2000;0.5462;1.1797;
94.5000;0.5519;1.1946;
94.8000;0.5535;1.1970;
95.1000;0.5584;1.2143;
95.4000;0.5535;1.2020;
95.7000;0.5519;1.1995;
96.0000;0.5535;1.1921;
96.3000;0.5543;1.1896;
96.6000;0.5527;1.1797;
96.9000;0.5535;1.1748;
97.2000;0.5551;1.1797;
97.5000;0.5503;1.1699;
97.8000;0.5535;1.1896;
98.1000;0.5551;1.1921;
98.4000;0.5568;1.1921;
98.7000;0.5551;1.1872;
99.0000;0.5551;1.1872;
99.3000;0.5551;1.1921;
99.6000;0.5543;1.1896;
99.9000;0.5568;1.1872;
100.2000;0.5543;1.1748;
100.5000;0.5600;1.1822;
100.8000;0.5560;1.1773;
101.1000;0.5543;1.1699;
101.4000;0.5560;1.1847;
101.7000;0.5560;1.1847;
102.0000;0.5551;1.1822;
102.3000;0.5568;1.1822;
102.6000;0.5568;1.1970;
102.9000;0.5592;1.2044;
103.2000;0.5543;1.1896;
103.5000;0.5535;1.1896;
103.8000;0.5551;1.1921;
104.1000;0.5543;1.1872;
104.4000;0.5527;1.1797;
104.7000;0.5543;1.1847;
105.0000;0.5519;1.1723;
105.3000;0.5527;1.1773;
105.6000;0.5560;1.1946;
105.9000;0.5551;1.1921;
106.2000;0.5535;1.1946;
106.5000;0.5551;1.1896;
106.8000;0.5543;1.1822;
107.1000;0.5560;1.1921;
107.4000;0.5551;1.1921;
107.7000;0.5551;1.1822;
108.0000;0.5551;1.1822;
108.3000;0.5543;1.1773;
108.6000;0.5551;1.1748;
108.9000;0.5560;1.1699;
109.2000;0.5633;1.1921;
109.5000;0.5568;1.1872;
109.8000;0.5543;1.1921;
110.1000;0.5560;1.1896;
110.4000;0.5551;1.1847;
110.7000;0.5551;1.1773;
111.0000;0.5543;1.1847;
111.3000;0.5560;1.1847;
111.6000;0.5551;1.1872;
111.9000;0.5568;1.1921;
112.2000;0.5560;1.1847;
112.5000;0.5551;1.1872;
112.8000;0.5560;1.1847;
113.1000;0.5560;1.1797;
113.4000;0.5560;1.1822;
113.7000;0.5568;1.1896;
114.0000;0.5568;1.1847;
114.3000;0.5551;1.1822;
114.6000;0.5560;1.1847;
114.9000;0.5551;1.1896;
115.2000;0.5568;1.1896;
115.5000;0.5568;1.1748;
115.8000;0.5560;1.1723;
116.1000;0.5560;1.1748;
116.4000;0.5560;1.1748;
116.7000;0.5543;1.1723;
117.0000;0.5543;1.1748;
117.3000;0.5543;1.1797;
117.6000;0.5543;1.1773;
117.9000;0.5551;1.1797;
118.2000;0.5568;1.1699;
118.5000;0.5551;1.1649;
118.8000;0.5568;1.1649;
119.1000;0.5560;1.1699;
119.4000;0.5568;1.1748;
119.7000;0.5568;1.1773;
120.0000;0.5560;1.1723;
120.3000;0.5535;1.1575;
120.6000;0.5560;1.1600;
120.9000;0.5560;1.1674;
121.2000;0.5543;1.1674;
121.5000;0.5543;1.1699;
121.8000;0.5560;1.1699;
122.1000;0.5543;1.1723;
122.4000;0.5535;1.1674;
122.7000;0.5568;1.1773;
123.0000;0.5543;1.1649;
123.3000;0.5568;1.1748;
123.6000;0.5543;1.1773;
123.9000;0.5600;1.1896;
124.2000;0.5551;1.1872;
124.5000;0.5584;1.1946;
124.8000;0.5592;1.1946;
125.1000;0.5576;1.1921;
125.4000;0.5560;1.1797;
125.7000;0.5584;1.1822;
126.0000;0.5543;1.1723;
126.3000;0.5551;1.1723;
126.6000;0.5576;1.1773;
126.9000;0.5560;1.1822;
127.2000;0.5576;1.1872;
127.5000;0.5551;1.1847;
127.8000;0.5568;1.1946;
128.1000;0.5543;1.1797;
128.4000;0.5551;1.1822;
128.7000;0.5551;1.1773;
129.0000;0.5551;1.1797;
129.3000;0.5576;1.1773;
129.6000;0.5568;1.1723;
129.9000;0.5560;1.1822;
130.2000;0.5625;1.2069;
130.5000;0.5560;1.1921;
130.8000;0.5568;1.1946;
131.1000;0.5568;1.1995;
131.4000;0.5576;1.2020;
131.7000;0.5560;1.1970;
132.0000;0.5560;1.1896;
132.3000;0.5568;1.1822;
132.6000;0.5576;1.1822;
132.9000;0.5535;1.1748;
133.2000;0.5592;1.1921;
133.5000;0.5625;1.1970;
133.8000;0.5584;1.1847;
134.1000;0.5560;1.1797;
134.4000;0.5551;1.1797;
134.7000;0.5551;1.1872;
135.0000;0.5568;1.1872;
135.3000;0.5568;1.1822;
135.6000;0.5568;1.1797;
135.9000;0.5560;1.1872;
136.2000;0.5592;1.1921;
136.5000;0.5568;1.1872;
136.8000;0.5527;1.1847;
137.1000;0.5576;1.1946;
137.4000;0.5576;1.1872;
137.7000;0.5576;1.1847;
138.0000;0.5592;1.1847;
138.3000;0.5551;1.1822;
138.6000;0.5576;1.1872;
138.9000;0.5560;1.1822;
139.2000;0.5560;1.1797;
139.5000;0.5568;1.1797;
139.8000;0.5519;1.1699;
140.1000;0.5641;1.2069;
140.4000;0.5560;1.1921;
140.7000;0.5551;1.1822;
141.0000;0.5551;1.1797;
141.3000;0.5584;1.1822;
141.6000;0.5584;1.1797;
141.9000;0.5568;1.1847;
142.2000;0.5535;1.1847;
142.5000;0.5551;1.1847;
142.8000;0.5560;1.1822;
143.1000;0.5560;1.1748;
143.4000;0.5568;1.1723;
143.7000;0.5551;1.1723;
144.0000;0.5633;1.1970;
144.3000;0.5568;1.1872;
144.6000;0.5551;1.1921;
144.9000;0.5551;1.1896;
145.2000;0.5568;1.1896;
145.5000;0.5560;1.1921;
145.8000;0.5478;1.1649;
146.1000;0.5560;1.1872;
146.4000;0.5560;1.1872;
146.7000;0.5576;1.1872;
147.0000;0.5568;1.1896;
147.3000;0.5576;1.1822;
147.6000;0.5495;1.1649;
147.9000;0.5576;1.1872;
148.2000;0.5576;1.1822;
148.5000;0.5592;1.1946;
148.8000;0.5600;1.2020;
149.1000;0.5576;1.1946;
149.4000;0.5576;1.1872;
149.7000;0.5584;1.1921;
150.0000;0.5584;1.1847;
150.3000;0.5576;1.1995;
150.6000;0.5584;1.1921;
150.9000;0.5543;1.1723;
151.2000;0.5576;1.1847;
151.5000;0.5576;1.1748;
151.8000;0.5560;1.1699;
152.1000;0.5584;1.1748;
152.4000;0.5576;1.1723;
152.7000;0.5568;1.1847;
153.0000;0.5576;1.1872;
153.3000;0.5568;1.1896;
153.6000;0.5576;1.1921;
153.9000;0.5543;1.1847;
154.2000;0.5584;1.2044;
154.5000;0.5560;1.1946;
154.8000;0.5584;1.2020;
155.1000;0.5560;1.1995;
155.4000;0.5527;1.1921;
155.7000;0.5592;1.2020;
156.0000;0.5560;1.1946;
156.3000;0.5568;1.1896;
156.6000;0.5568;1.1847;
156.9000;0.5560;1.1847;
157.2000;0.5576;1.1872;
157.5000;0.5568;1.1970;
157.8000;0.5560;1.1995;
158.1000;0.5560;1.2094;
158.4000;0.5551;1.1995;
158.7000;0.5551;1.1946;
159.0000;0.5584;1.2020;
159.3000;0.5568;1.1921;
159.6000;0.5576;1.1896;
159.9000;0.5560;1.1748;
160.2000;0.5543;1.1748;
160.5000;0.5568;1.1723;
160.8000;0.5503;1.1551;
161.1000;0.5576;1.1847;
161.4000;0.5568;1.1797;
161.7000;0.5568;1.1797;
162.0000;0.5560;1.1773;
162.3000;0.5568;1.1723;
162.6000;0.5551;1.1699;
162.9000;0.5576;1.1600;
163.2000;0.5535;1.1477;
163.5000;0.5551;1.1501;
163.8000;0.5543;1.1427;
164.1000;0.5568;1.1452;
164.4000;0.5446;1.1230;
164.7000;0.5560;1.1575;
165.0000;0.5625;1.1748;
165.3000;0.5608;1.1674;
165.6000;0.5617;1.1748;
165.9000;0.5592;1.1748;
166.2000;0.5592;1.1723;
166.5000;0.5608;1.1699;
166.8000;0.5584;1.1649;
167.1000;0.5568;1.1501;
167.4000;0.5568;1.1526;
167.7000;0.5568;1.1600;
168.0000;0.5568;1.1674;
168.3000;0.5568;1.1699;
168.6000;0.5592;1.1847;
168.9000;0.5551;1.1773;
169.2000;0.5584;1.1822;
169.5000;0.5568;1.1773;
169.8000;0.5576;1.1773;
170.1000;0.5584;1.1822;
170.4000;0.5592;1.1872;
170.7000;0.5576;1.1847;
171.0000;0.5551;1.1847;
171.3000;0.5568;1.1896;
171.6000;0.5560;1.1822;
171.9000;0.5576;1.1748;
172.2000;0.5551;1.1674;
172.5000;0.5600;1.1822;
172.8000;0.5576;1.1699;
173.1000;0.5576;1.1699;
173.4000;0.5535;1.1625;
173.7000;0.5551;1.1723;
174.0000;0.5592;1.1822;
174.3000;0.5592;1.1872;
174.6000;0.5576;1.1847;
174.9000;0.5584;1.1970;
175.2000;0.5584;1.1970;
175.5000;0.5568;1.1995;
175.8000;0.5560;1.1921;
176.1000;0.5551;1.1847;
176.4000;0.5633;1.2044;
176.7000;0.5584;1.1970;
177.0000;0.5576;1.1970;
177.3000;0.5543;1.1822;
177.6000;0.5592;1.1921;
177.9000;0.5576;1.1995;
178.2000;0.5560;1.1872;
178.5000;0.5560;1.1748;
178.8000;0.5543;1.1674;
179.1000;0.5568;1.1797;
179.4000;0.5551;1.1748;
179.7000;0.5568;1.1699;
180.0000;0.5576;1.1748;
180.3000;0.5592;1.1797;
180.6000;0.5584;1.1872;
180.9000;0.5576;1.1822;
181.2000;0.5649;1.1995;
181.5000;0.5592;1.1773;
181.8000;0.5592;1.1773;
182.1000;0.5600;1.1921;
182.4000;0.5568;1.1822;
182.7000;0.5568;1.1773;
183.0000;0.5584;1.1797;
183.3000;0.5608;1.1896;
183.6000;0.5608;1.1921;
183.9000;0.5576;1.1896;
184.2000;0.5551;1.1946;
184.5000;0.5568;1.1946;
184.8000;0.5560;1.1970;
185.1000;0.5592;1.2044;
185.4000;0.5576;1.2069;
185.7000;0.5576;1.2094;
186.0000;0.5576;1.1921;
186.3000;0.5511;1.1699;
186.6000;0.5576;1.1921;
186.9000;0.5576;1.1946;
187.2000;0.5568;1.1847;
187.5000;0.5600;1.1872;
187.8000;0.5576;1.1797;
188.1000;0.5592;1.1847;
188.4000;0.5592;1.1723;
188.7000;0.5584;1.1649;
189.0000;0.5551;1.1600;
189.3000;0.5584;1.1649;
189.6000;0.5576;1.1748;
189.9000;0.5560;1.1748;
190.2000;0.5633;1.1970;
190.5000;0.5551;1.1773;
190.8000;0.5560;1.1723;
191.1000;0.5584;1.1847;
191.4000;0.5551;1.1748;
191.7000;0.5608;1.1822;
192.0000;0.5576;1.1822;
192.3000;0.5584;1.1896;
192.6000;0.5584;1.1847;
192.9000;0.5576;1.1896;
193.2000;0.5576;1.1847;
193.5000;0.5584;1.1921;
193.8000;0.5560;1.1921;
194.1000;0.5568;1.1872;
194.4000;0.5576;1.1896;
194.7000;0.5592;1.1970;
195.0000;0.5584;1.1921;
195.3000;0.5584;1.1822;
195.6000;0.5568;1.1847;
195.9000;0.5625;1.1946;
196.2000;0.5576;1.1773;
196.5000;0.5592;1.1773;
196.8000;0.5543;1.1699;
197.1000;0.5568;1.1773;
197.4000;0.5560;1.1773;
197.7000;0.5584;1.1723;
198.0000;0.5551;1.1649;
198.3000;0.5592;1.1699;
198.6000;0.5568;1.1723;
198.9000;0.5584;1.1723;
199.2000;0.5560;1.1699;
199.5000;0.5576;1.1699;
199.8000;0.5576;1.1649;
200.1000;0.5560;1.1649;
200.4000;0.5568;1.1699;
200.7000;0.5535;1.1674;
201.0000;0.5568;1.1773;
201.3000;0.5503;1.1699;
201.6000;0.5584;1.1921;
201.9000;0.5568;1.1896;
202.2000;0.5576;1.1946;
202.5000;0.5592;1.1872;
202.8000;0.5568;1.1872;
203.1000;0.5551;1.1773;
203.4000;0.5527;1.1699;
203.7000;0.5568;1.1773;
204.0000;0.5584;1.1896;
204.3000;0.5576;1.1946;
204.6000;0.5543;1.1847;
204.9000;0.5568;1.1847;
205.2000;0.5568;1.1896;
205.5000;0.5543;1.1872;
205.8000;0.5568;1.1847;
206.1000;0.5592;1.1896;
206.4000;0.5568;1.1822;
206.7000;0.5568;1.1847;
207.0000;0.5560;1.1822;
207.3000;0.5543;1.1847;
207.6000;0.5568;1.1896;
207.9000;0.5576;1.1797;
208.2000;0.5560;1.1797;
208.5000;0.5576;1.1723;
208.8000;0.5568;1.1625;
209.1000;0.5568;1.1625;
209.4000;0.5576;1.1575;
209.7000;0.5560;1.1575;
210.0000;0.5584;1.1674;
210.3000;0.5617;1.1723;
210.6000;0.5584;1.1723;
210.9000;0.5592;1.1723;
211.2000;0.5560;1.1773;
211.5000;0.5592;1.1822;
211.8000;0.5608;1.1797;
212.1000;0.5584;1.1797;
212.4000;0.5568;1.1773;
212.7000;0.5633;1.1872;
213.0000;0.5576;1.1797;
213.3000;0.5551;1.1723;
213.6000;0.5625;1.1970;
213.9000;0.5576;1.1896;
214.2000;0.5584;1.1822;
214.5000;0.5527;1.1551;
214.8000;0.5560;1.1649;
215.1000;0.5568;1.1699;
215.4000;0.5592;1.1773;
215.7000;0.5568;1.1723;
216.0000;0.5576;1.1797;
216.3000;0.5592;1.1797;
216.6000;0.5600;1.1896;
216.9000;0.5568;1.1822;
217.2000;0.5576;1.1822;
217.5000;0.5560;1.1797;
217.8000;0.5568;1.1822;
218.1000;0.5551;1.1797;
218.4000;0.5584;1.1847;
218.7000;0.5568;1.1822;
219.0000;0.5584;1.1822;
219.3000;0.5560;1.1748;
219.6000;0.5592;1.1773;
219.9000;0.5600;1.1748;
220.2000;0.5568;1.1699;
220.5000;0.5576;1.1847;
220.8000;0.5592;1.1995;
221.1000;0.5576;1.2020;
221.4000;0.5592;1.2094;
221.7000;0.5560;1.2020;
222.0000;0.5568;1.2044;
222.3000;0.5584;1.2044;
222.6000;0.5543;1.1896;
222.9000;0.5543;1.1797;
223.2000;0.5486;1.1649;
223.5000;0.5560;1.1822;
223.8000;0.5560;1.1773;
224.1000;0.5560;1.1699;
224.4000;0.5560;1.1797;
224.7000;0.5560;1.1822;
225.0000;0.5551;1.1847;
225.3000;0.5519;1.1748;
225.6000;0.5568;1.1921;
225.9000;0.5584;1.1970;
226.2000;0.5568;1.1822;
226.5000;0.5633;1.1995;
226.8000;0.5641;1.1946;
227.1000;0.5576;1.1847;
227.4000;0.5674;1.2094;
227.7000;0.5560;1.1822;
228.0000;0.5576;1.1773;
228.3000;0.5568;1.1773;
228.6000;0.5560;1.1748;
228.9000;0.5576;1.1797;
229.2000;0.5576;1.1872;
229.5000;0.5592;1.1896;
229.8000;0.5576;1.1847;
230.1000;0.5584;1.1773;
230.4000;0.5568;1.1773;
230.7000;0.5568;1.1822;
231.0000;0.5576;1.1847;
231.3000;0.5576;1.1847;
231.6000;0.5584;1.1921;
231.9000;0.5519;1.1748;
232.2000;0.5576;1.1847;
232.5000;0.5576;1.1921;
232.8000;0.5576;1.1896;
233.1000;0.5576;1.2020;
233.4000;0.5584;1.2118;
233.7000;0.5649;1.2242;
234.0000;0.5576;1.2168;
234.3000;0.5608;1.2192;
234.6000;0.5576;1.2020;
234.9000;0.5568;1.1946;
235.2000;0.5568;1.1970;
235.5000;0.5568;1.1970;
235.8000;0.5560;1.1896;
236.1000;0.5576;1.1921;
236.4000;0.5576;1.1970;
236.7000;0.5576;1.2020;
237.0000;0.5617;1.2094;
237.3000;0.5576;1.2094;
237.6000;0.5543;1.2020;
237.9000;0.5584;1.1995;
238.2000;0.5584;1.1970;
238.5000;0.5551;1.1896;
238.8000;0.5592;1.1995;
239.1000;0.5584;1.1995;
239.4000;0.5568;1.1896;
239.7000;0.5560;1.1872;
240.0000;0.5568;1.1872;
240.3000;0.5568;1.1896;
240.6000;0.5560;1.1946;
240.9000;0.5576;1.1970;
241.2000;0.5584;1.2094;
241.5000;0.5576;1.2044;
241.8000;0.5625;1.2020;
242.1000;0.5584;1.1896;
242.4000;0.5584;1.1847;
242.7000;0.5584;1.1847;
243.0000;0.5592;1.1896;
243.3000;0.5592;1.1946;
243.6000;0.5584;1.1847;
243.9000;0.5576;1.1847;
244.2000;0.5592;1.1872;
244.5000;0.5495;1.1699;
244.8000;0.5576;1.1896;
245.1000;0.5641;1.2020;
245.4000;0.5592;1.1921;
245.7000;0.5576;1.1946;
246.0000;0.5535;1.1872;
246.3000;0.5560;1.1872;
246.6000;0.5592;1.1946;
246.9000;0.5576;1.1970;
247.2000;0.5568;1.1946;
247.5000;0.5576;1.1946;
247.8000;0.5543;1.1921;
248.1000;0.5633;1.2094;
248.4000;0.5617;1.2044;
248.7000;0.5617;1.2118;
249.0000;0.5584;1.1970;
249.3000;0.5551;1.1896;
249.6000;0.5568;1.1970;
249.9000;0.5543;1.1946;
250.2000;0.5560;1.1970;
250.5000;0.5584;1.1995;
250.8000;0.5576;1.1995;
251.1000;0.5568;1.1970;
251.4000;0.5568;1.1896;
251.7000;0.5568;1.1946;
252.0000;0.5503;1.1773;
252.3000;0.5568;1.1946;
252.6000;0.5560;1.1946;
252.9000;0.5560;1.1946;
253.2000;0.5584;1.1970;
253.5000;0.5568;1.1896;
253.8000;0.5584;1.1946;
254.1000;0.5584;1.1921;
254.4000;0.5560;1.1921;
254.7000;0.5584;1.2069;
255.0000;0.5584;1.2069;
255.3000;0.5568;1.1995;
255.6000;0.5576;1.1995;
255.9000;0.5568;1.1970;
256.2000;0.5584;1.1995;
256.5000;0.5527;1.1896;
256.8000;0.5584;1.1946;
257.1000;0.5576;1.1896;
257.4000;0.5560;1.1847;
257.7000;0.5568;1.1896;
258.0000;0.5584;1.1946;
258.3000;0.5568;1.1896;
258.6000;0.5576;1.1896;
258.9000;0.5576;1.1921;
259.2000;0.5576;1.1970;
259.5000;0.5608;1.2143;
259.8000;0.5584;1.2094;
260.1000;0.5560;1.2069;
260.4000;0.5576;1.1995;
260.7000;0.5560;1.1921;
261.0000;0.5584;1.1946;
261.3000;0.5568;1.1896;
261.6000;0.5527;1.1822;
261.9000;0.5576;1.1995;
262.2000;0.5592;1.2118;
262.5000;0.5560;1.2020;
262.8000;0.5568;1.1921;
263.1000;0.5576;1.1946;
263.4000;0.5568;1.1872;
263.7000;0.5592;1.1921;
264.0000;0.5576;1.1847;
264.3000;0.5584;1.1896;
264.6000;0.5568;1.1896;
264.9000;0.5633;1.2020;
265.2000;0.5592;1.1946;
265.5000;0.5576;1.1970;
265.8000;0.5576;1.1872;
266.1000;0.5576;1.1970;
266.4000;0.5576;1.1970;
266.7000;0.5576;1.1896;
267.0000;0.5568;1.1896;
267.3000;0.5584;1.1872;
267.6000;0.5560;1.1773;
267.9000;0.5584;1.1847;
268.2000;0.5592;1.1896;
268.5000;0.5584;1.1872;
268.8000;0.5576;1.1773;
269.1000;0.5551;1.1773;
269.4000;0.5568;1.1797;
269.7000;0.5576;1.1822;
270.0000;0.5511;1.1723;
270.3000;0.5568;1.1896;
270.6000;0.5584;1.1872;
270.9000;0.5568;1.1847;
271.2000;0.5576;1.1921;
271.5000;0.5576;1.1896;
271.8000;0.5584;1.1970;
272.1000;0.5511;1.1822;
272.4000;0.5462;1.1600;
272.7000;0.5576;1.1773;
273.0000;0.5576;1.1872;
273.3000;0.5592;1.1847;
273.6000;0.5568;1.1822;
273.9000;0.5568;1.1822;
274.2000;0.5568;1.1797;
274.5000;0.5527;1.1748;
274.8000;0.5633;1.2044;
275.1000;0.5568;1.1946;
275.4000;0.5576;1.1995;
275.7000;0.5576;1.2020;
276.0000;0.5543;1.1896;
276.3000;0.5576;1.1995;
276.6000;0.5600;1.2044;
276.9000;0.5568;1.1896;
277.2000;0.5576;1.1896;
277.5000;0.5560;1.1872;
277.8000;0.5495;1.1748;
278.1000;0.5551;1.1921;
278.4000;0.5568;1.1970;
278.7000;0.5551;1.1921;
279.0000;0.5568;1.1995;
279.3000;0.5592;1.1995;
279.6000;0.5592;1.1946;
279.9000;0.5568;1.1822;
280.2000;0.5625;1.1970;
280.5000;0.5551;1.1773;
280.8000;0.5560;1.1723;
281.1000;0.5511;1.1600;
281.4000;0.5576;1.1748;
281.7000;0.5584;1.1748;
282.0000;0.5584;1.1748;
282.3000;0.5633;1.1896;
282.6000;0.5503;1.1625;
282.9000;0.5584;1.1797;
283.2000;0.5527;1.1649;
283.5000;0.5625;1.1872;
283.8000;0.5576;1.1674;
284.1000;0.5568;1.1625;
284.4000;0.5576;1.1699;
284.7000;0.5495;1.1452;
285.0000;0.5568;1.1649;
285.3000;0.5576;1.1699;
285.6000;0.5478;1.1501;
285.9000;0.5576;1.1699;
286.2000;0.5560;1.1699;
286.5000;0.5625;1.1872;
286.8000;0.5568;1.1748;
287.1000;0.5576;1.1723;
287.4000;0.5584;1.1723;
287.7000;0.5551;1.1773;
288.0000;0.5568;1.1773;
288.3000;0.5576;1.1773;
288.6000;0.5568;1.1723;
288.9000;0.5568;1.1723;
289.2000;0.5568;1.1748;
289.5000;0.5592;1.1847;
289.8000;0.5617;1.1872;
290.1000;0.5584;1.1797;
290.4000;0.5568;1.1822;
290.7000;0.5592;1.1970;
291.0000;0.5576;1.1896;
291.3000;0.5568;1.1921;
291.6000;0.5560;1.1946;
291.9000;0.5560;1.1946;
292.2000;0.5592;1.2044;
292.5000;0.5568;1.2044;
292.8000;0.5551;1.1896;
293.1000;0.5600;1.2143;
293.4000;0.5592;1.2069;
293.7000;0.5657;1.2192;
294.0000;0.5592;1.2020;
294.3000;0.5584;1.2020;
294.6000;0.5560;1.1946;
294.9000;0.5551;1.1822;
295.2000;0.5600;1.1847;
295.5000;0.5584;1.1847;
295.8000;0.5633;1.1946;
296.1000;0.5535;1.1625;
296.4000;0.5462;1.1501;
296.7000;0.5584;1.1797;
297.0000;0.5617;1.1896;
297.3000;0.5576;1.1847;
297.6000;0.5584;1.1970;
297.9000;0.5568;1.1847;
298.2000;0.5617;1.1946;
298.5000;0.5568;1.1822;
298.8000;0.5551;1.1797;
299.1000;0.5576;1.1822;
299.4000;0.5576;1.1797;
299.7000;0.5584;1.1872;
300.0000;0.5568;1.1946;
300.3000;0.5551;1.1921;
300.6000;0.5551;1.1921;
300.9000;0.5543;1.1896;
301.2000;0.5576;1.2168;
301.5000;0.5519;1.2044;
301.8000;0.5576;1.2044;
302.1000;0.5543;1.1970;
302.4000;0.5568;1.2044;
302.7000;0.5633;1.2242;
303.0000;0.5543;1.2020;
303.3000;0.5608;1.2168;
303.6000;0.5568;1.2069;
303.9000;0.5560;1.2094;
304.2000;0.5560;1.1995;
304.5000;0.5551;1.1946;
304.8000;0.5584;1.2044;
305.1000;0.5551;1.1995;
305.4000;0.5568;1.2044;
305.7000;0.5576;1.2094;
306.0000;0.5576;1.2069;
306.3000;0.5527;1.1946;
306.6000;0.5657;1.2291;
306.9000;0.5568;1.1970;
307.2000;0.5641;1.2192;
307.5000;0.5560;1.1970;
307.8000;0.5560;1.1970;
308.1000;0.5560;1.1921;
308.4000;0.5584;1.1921;
308.7000;0.5584;1.1946;
309.0000;0.5568;1.1921;
309.3000;0.5568;1.1921;
309.6000;0.5584;1.1896;
309.9000;0.5592;1.1946;
310.2000;0.5584;1.1896;
310.5000;0.5584;1.1970;
310.8000;0.5576;1.1896;
311.1000;0.5560;1.1847;
311.4000;0.5560;1.1921;
311.7000;0.5568;1.1970;
312.0000;0.5576;1.2094;
312.3000;0.5560;1.2118;
312.6000;0.5527;1.2020;
312.9000;0.5584;1.2069;
313.2000;0.5576;1.2020;
313.5000;0.5560;1.1970;
313.8000;0.5608;1.2118;
314.1000;0.5576;1.1921;
314.4000;0.5584;1.1995;
314.7000;0.5568;1.2044;
315.0000;0.5560;1.1995;
315.3000;0.5551;1.1872;
315.6000;0.5608;1.1946;
315.9000;0.5568;1.1872;
316.2000;0.5568;1.1797;
316.5000;0.5560;1.1847;
316.8000;0.5617;1.1872;
317.1000;0.5584;1.1872;
317.4000;0.5568;1.1921;
317.7000;0.5535;1.1872;
318.0000;0.5568;1.1970;
318.3000;0.5568;1.2044;
318.6000;0.5478;1.1970;
318.9000;0.5543;1.2118;
319.2000;0.5551;1.2094;
319.5000;0.5560;1.2069;
319.8000;0.5600;1.2118;
320.1000;0.5568;1.1970;
320.4000;0.5657;1.2217;
320.7000;0.5584;1.1896;
321.0000;0.5584;1.1946;
321.3000;0.5584;1.1995;
321.6000;0.5568;1.2069;
321.9000;0.5568;1.2143;
322.2000;0.5576;1.2143;
322.5000;0.5568;1.2118;
322.8000;0.5584;1.2020;
323.1000;0.5560;1.1970;
323.4000;0.5568;1.1946;
323.7000;0.5568;1.1995;
324.0000;0.5584;1.2094;
324.3000;0.5625;1.2217;
324.6000;0.5560;1.2044;
324.9000;0.5568;1.1970;
325.2000;0.5560;1.1970;
325.5000;0.5560;1.1872;
325.8000;0.5551;1.1847;
326.1000;0.5560;1.1872;
326.4000;0.5551;1.1921;
326.7000;0.5584;1.1970;
327.0000;0.5576;1.1921;
327.3000;0.5543;1.1921;
327.6000;0.5576;1.1995;
327.9000;0.5551;1.1872;
328.2000;0.5568;1.1946;
328.5000;0.5560;1.2044;
328.8000;0.5560;1.2044;
329.1000;0.5535;1.2020;
329.4000;0.5551;1.2143;
329.7000;0.5568;1.2094;
330.0000;0.5568;1.2143;
330.3000;0.5551;1.2192;
330.6000;0.5543;1.2217;
330.9000;0.5568;1.2242;
331.2000;0.5584;1.2266;
331.5000;0.5551;1.2118;
331.8000;0.5551;1.2143;
332.1000;0.5551;1.2217;
332.4000;0.5560;1.2192;
332.7000;0.5560;1.2118;
333.0000;0.5584;1.2168;
333.3000;0.5576;1.2143;
333.6000;0.5576;1.2168;
333.9000;0.5568;1.2143;
334.2000;0.5551;1.2143;
334.5000;0.5560;1.2118;
334.8000;0.5560;1.2020;
335.1000;0.5592;1.2168;
335.4000;0.5584;1.2291;
335.7000;0.5568;1.2266;
336.0000;0.5568;1.2242;
336.3000;0.5584;1.2217;
336.6000;0.5568;1.2168;
336.9000;0.5568;1.2118;
337.2000;0.5551;1.2044;
337.5000;0.5576;1.2094;
337.8000;0.5633;1.2242;
338.1000;0.5560;1.2118;
338.4000;0.5568;1.2217;
338.7000;0.5600;1.2291;
339.0000;0.5511;1.2044;
339.3000;0.5568;1.2217;
339.6000;0.5551;1.2143;
339.9000;0.5551;1.2242;
340.2000;0.5560;1.2242;
340.5000;0.5568;1.2242;
340.8000;0.5592;1.2242;
341.1000;0.5625;1.2365;
341.4000;0.5568;1.2217;
341.7000;0.5576;1.2168;
342.0000;0.5543;1.2168;
342.3000;0.5592;1.2266;
342.6000;0.5560;1.2168;
342.9000;0.5584;1.2316;
343.2000;0.5625;1.2464;
343.5000;0.5527;1.2266;
343.8000;0.5568;1.2340;
344.1000;0.5674;1.2612;
344.4000;0.5568;1.2316;
344.7000;0.5560;1.2340;
345.0000;0.5576;1.2390;
345.3000;0.5608;1.2538;
345.6000;0.5568;1.2439;
345.9000;0.5551;1.2365;
346.2000;0.5568;1.2365;
346.5000;0.5568;1.2291;
346.8000;0.5576;1.2340;
347.1000;0.5560;1.2316;
347.4000;0.5568;1.2242;
347.7000;0.5584;1.2217;
348.0000;0.5584;1.2316;
348.3000;0.5568;1.2316;
348.6000;0.5576;1.2340;
348.9000;0.5617;1.2439;
349.2000;0.5560;1.2291;
349.5000;0.5576;1.2340;
349.8000;0.5560;1.2242;
350.1000;0.5560;1.2217;
350.4000;0.5568;1.2316;
350.7000;0.5568;1.2365;
351.0000;0.5551;1.2291;
351.3000;0.5560;1.2217;
351.6000;0.5551;1.2266;
351.9000;0.5568;1.2217;
352.2000;0.5560;1.2291;
352.5000;0.5527;1.2242;
352.8000;0.5551;1.2340;
353.1000;0.5551;1.2340;
353.4000;0.5503;1.2242;
353.7000;0.5543;1.2291;
354.0000;0.5568;1.2242;
354.3000;0.5551;1.2242;
354.6000;0.5568;1.2266;
354.9000;0.5568;1.2192;
355.2000;0.5543;1.2217;
355.5000;0.5495;1.2168;
355.8000;0.5568;1.2365;
356.1000;0.5576;1.2390;
356.4000;0.5551;1.2266;
356.7000;0.5535;1.2118;
357.0000;0.5584;1.2217;
357.3000;0.5584;1.2316;
357.6000;0.5560;1.2192;
357.9000;0.5511;1.2020;
358.2000;0.5576;1.2291;
358.5000;0.5584;1.2266;
358.8000;0.5674;1.2464;
359.1000;0.5576;1.2242;
359.4000;0.5568;1.2168;
359.7000;0.5584;1.2242;
360.0000;0.5560;1.2242;
360.3000;0.5551;1.2242;
360.6000;0.5560;1.2316;
360.9000;0.5584;1.2291;
361.2000;0.5568;1.2316;
361.5000;0.5568;1.2291;
361.8000;0.5560;1.2168;
362.1000;0.5551;1.2118;
362.4000;0.5560;1.2168;
362.7000;0.5560;1.2118;
363.0000;0.5551;1.2094;
363.3000;0.5560;1.2020;
363.6000;0.5568;1.2020;
363.9000;0.5560;1.2118;
364.2000;0.5568;1.2044;
364.5000;0.5551;1.2020;
364.8000;0.5543;1.1995;
365.1000;0.5568;1.2118;
365.4000;0.5560;1.2143;
365.7000;0.5560;1.2118;
366.0000;0.5649;1.2340;
366.3000;0.5568;1.2143;
366.6000;0.5560;1.2069;
366.9000;0.5560;1.2069;
367.2000;0.5551;1.2143;
367.5000;0.5568;1.2217;
367.8000;0.5560;1.2192;
368.1000;0.5568;1.2192;
368.4000;0.5576;1.2242;
368.7000;0.5576;1.2192;
369.0000;0.5560;1.2143;
369.3000;0.5584;1.2242;
369.6000;0.5576;1.2242;
369.9000;0.5527;1.2118;
370.2000;0.5568;1.2168;
370.5000;0.5560;1.2217;
370.8000;0.5543;1.2217;
371.1000;0.5560;1.2266;
371.4000;0.5560;1.2143;
371.7000;0.5584;1.2094;
372.0000;0.5617;1.2168;
372.3000;0.5560;1.2094;
372.6000;0.5584;1.2192;
372.9000;0.5584;1.2217;
373.2000;0.5568;1.2094;
373.5000;0.5568;1.2094;
373.8000;0.5568;1.2192;
374.1000;0.5568;1.2217;
374.4000;0.5576;1.2217;
374.7000;0.5560;1.2192;
375.0000;0.5568;1.2316;
375.3000;0.5584;1.2291;
375.6000;0.5560;1.2242;
375.9000;0.5568;1.2266;
376.2000;0.5568;1.2242;
376.5000;0.5584;1.2242;
376.8000;0.5576;1.2242;
377.1000;0.5576;1.2217;
377.4000;0.5576;1.2094;
377.7000;0.5568;1.2020;
378.0000;0.5592;1.2069;
378.3000;0.5576;1.2020;
378.6000;0.5519;1.1921;
378.9000;0.5560;1.2069;
379.2000;0.5584;1.2168;
379.5000;0.5576;1.2143;
379.8000;0.5551;1.2094;
380.1000;0.5568;1.2168;
380.4000;0.5527;1.2094;
380.7000;0.5617;1.2266;
381.0000;0.5551;1.2143;
381.3000;0.5551;1.2217;
381.6000;0.5568;1.2266;
381.9000;0.5592;1.2316;
382.2000;0.5576;1.2291;
382.5000;0.5568;1.2192;
382.8000;0.5560;1.2168;
383.1000;0.5568;1.2217;
383.4000;0.5568;1.2266;
383.7000;0.5551;1.2143;
384.0000;0.5568;1.2192;
384.3000;0.5568;1.2118;
384.6000;0.5568;1.2192;
384.9000;0.5576;1.2266;
385.2000;0.5568;1.2291;
385.5000;0.5560;1.2192;
385.8000;0.5560;1.2118;
386.1000;0.5543;1.2118;
386.4000;0.5568;1.2192;
386.7000;0.5560;1.2192;
387.0000;0.5576;1.2168;
387.3000;0.5568;1.2168;
387.6000;0.5560;1.2168;
387.9000;0.5649;1.2464;
388.2000;0.5560;1.2217;
388.5000;0.5568;1.2242;
388.8000;0.5568;1.2168;
389.1000;0.5560;1.2217;
389.4000;0.5600;1.2365;
389.7000;0.5576;1.2266;
390.0000;0.5543;1.2143;
390.3000;0.5560;1.2168;
390.6000;0.5560;1.2192;
390.9000;0.5641;1.2415;
391.2000;0.5486;1.2094;
391.5000;0.5649;1.2587;
391.8000;0.5551;1.2340;
392.1000;0.5543;1.2316;
392.4000;0.5560;1.2365;
392.7000;0.5592;1.2439;
393.0000;0.5551;1.2390;
393.3000;0.5503;1.2291;
393.6000;0.5551;1.2415;
393.9000;0.5551;1.2415;
394.2000;0.5543;1.2390;
394.5000;0.5543;1.2464;
394.8000;0.5519;1.2365;
395.1000;0.5568;1.2415;
395.4000;0.5560;1.2415;
395.7000;0.5551;1.2415;
396.0000;0.5560;1.2415;
396.3000;0.5625;1.2464;
396.6000;0.5560;1.2340;
396.9000;0.5568;1.2415;
397.2000;0.5560;1.2390;
397.5000;0.5527;1.2340;
397.8000;0.5600;1.2489;
398.1000;0.5568;1.2439;
398.4000;0.5551;1.2439;
398.7000;0.5560;1.2563;
399.0000;0.5568;1.2686;
399.3000;0.5576;1.2686;
399.6000;0.5560;1.2563;
399.9000;0.5560;1.2538;
400.2000;0.5560;1.2538;
400.5000;0.5551;1.2513;
400.8000;0.5560;1.2538;
401.1000;0.5584;1.2612;
401.4000;0.5543;1.2390;
401.7000;0.5551;1.2365;
402.0000;0.5560;1.2340;
402.3000;0.5608;1.2365;
402.6000;0.5511;1.2143;
402.9000;0.5576;1.2316;
403.2000;0.5560;1.2316;
403.5000;0.5568;1.2340;
403.8000;0.5568;1.2390;
404.1000;0.5608;1.2538;
404.4000;0.5576;1.2415;
404.7000;0.5665;1.2735;
405.0000;0.5568;1.2439;
405.3000;0.5576;1.2415;
405.6000;0.5560;1.2365;
405.9000;0.5584;1.2464;
406.2000;0.5584;1.2439;
406.5000;0.5568;1.2489;
406.8000;0.5568;1.2439;
407.1000;0.5560;1.2439;
407.4000;0.5568;1.2513;
407.7000;0.5600;1.2489;
408.0000;0.5576;1.2390;
408.3000;0.5584;1.2415;
408.6000;0.5592;1.2390;
408.9000;0.5551;1.2217;
409.2000;0.5568;1.2143;
409.5000;0.5551;1.2118;
409.8000;0.5584;1.2266;
410.1000;0.5568;1.2192;
410.4000;0.5503;1.2069;
410.7000;0.5560;1.2266;
411.0000;0.5576;1.2291;
411.3000;0.5568;1.2291;
411.6000;0.5617;1.2415;
411.9000;0.5592;1.2316;
412.2000;0.5608;1.2390;
412.5000;0.5568;1.2242;
412.8000;0.5568;1.2266;
413.1000;0.5568;1.2365;
413.4000;0.5560;1.2291;
413.7000;0.5560;1.2365;
414.0000;0.5584;1.2365;
414.3000;0.5617;1.2464;
414.6000;0.5560;1.2340;
414.9000;0.5560;1.2316;
415.2000;0.5543;1.2192;
415.5000;0.5576;1.2291;
415.8000;0.5560;1.2266;
416.1000;0.5568;1.2266;
416.4000;0.5560;1.2266;
416.7000;0.5576;1.2365;
417.0000;0.5535;1.2340;
417.3000;0.5519;1.2316;
417.6000;0.5551;1.2415;
417.9000;0.5617;1.2513;
418.2000;0.5560;1.2291;
418.5000;0.5519;1.2242;
418.8000;0.5682;1.2587;
419.1000;0.5560;1.2291;
419.4000;0.5568;1.2266;
419.7000;0.5560;1.2291;
420.0000;0.5560;1.2217;
420.3000;0.5592;1.2266;
420.6000;0.5551;1.2143;
420.9000;0.5543;1.2044;
421.2000;0.5551;1.2044;
421.5000;0.5576;1.2118;
421.8000;0.5551;1.2094;
422.1000;0.5560;1.2044;
422.4000;0.5535;1.1921;
422.7000;0.5519;1.1847;
423.0000;0.5568;1.1921;
423.3000;0.5576;1.1970;
423.6000;0.5568;1.2020;
423.9000;0.5576;1.2094;
424.2000;0.5551;1.2094;
424.5000;0.5576;1.2192;
424.8000;0.5584;1.2291;
425.1000;0.5551;1.2217;
425.4000;0.5560;1.2217;
425.7000;0.5576;1.2242;
426.0000;0.5560;1.2217;
426.3000;0.5551;1.2266;
426.6000;0.5560;1.2266;
426.9000;0.5551;1.2242;
427.2000;0.5560;1.2340;
427.5000;0.5568;1.2340;
427.8000;0.5551;1.2316;
428.1000;0.5511;1.2242;
428.4000;0.5560;1.2415;
428.7000;0.5560;1.2365;
429.0000;0.5560;1.2266;
429.3000;0.5551;1.2217;
429.6000;0.5543;1.2192;
429.9000;0.5584;1.2192;
430.2000;0.5568;1.2168;
430.5000;0.5576;1.2192;
430.8000;0.5576;1.2143;
431.1000;0.5568;1.2044;
431.4000;0.5551;1.1872;
431.7000;0.5568;1.1872;
432.0000;0.5584;1.1970;
432.3000;0.5568;1.2069;
432.6000;0.5568;1.2020;
432.9000;0.5568;1.2094;
433.2000;0.5608;1.2291;
433.5000;0.5600;1.2415;
433.8000;0.5576;1.2365;
434.1000;0.5519;1.2242;
434.4000;0.5600;1.2415;
434.7000;0.5576;1.2415;
435.0000;0.5641;1.2563;
435.3000;0.5543;1.2316;
435.6000;0.5560;1.2390;
435.9000;0.5576;1.2439;
436.2000;0.5551;1.2415;
436.5000;0.5576;1.2489;
436.8000;0.5560;1.2316;
437.1000;0.5633;1.2464;
437.4000;0.5592;1.2390;
437.7000;0.5560;1.2390;
438.0000;0.5584;1.2513;
438.3000;0.5568;1.2464;
438.6000;0.5576;1.2464;
438.9000;0.5584;1.2464;
439.2000;0.5560;1.2390;
439.5000;0.5503;1.2291;
439.8000;0.5568;1.2464;
440.1000;0.5568;1.2513;
440.4000;0.5551;1.2415;
440.7000;0.5560;1.2365;
441.0000;0.5608;1.2439;
441.3000;0.5568;1.2340;
441.6000;0.5560;1.2415;
441.9000;0.5551;1.2390;
442.2000;0.5560;1.2365;
442.5000;0.5568;1.2439;
442.8000;0.5568;1.2390;
443.1000;0.5568;1.2439;
443.4000;0.5633;1.2637;
443.7000;0.5576;1.2538;
444.0000;0.5576;1.2513;
444.3000;0.5568;1.2538;
444.6000;0.5568;1.2439;
444.9000;0.5576;1.2340;
445.2000;0.5568;1.2316;
445.5000;0.5592;1.2316;
445.8000;0.5576;1.2340;
446.1000;0.5568;1.2266;
446.4000;0.5576;1.2291;
446.7000;0.5576;1.2340;
447.0000;0.5568;1.2340;
447.3000;0.5568;1.2365;
447.6000;0.5543;1.2365;
447.9000;0.5551;1.2340;
448.2000;0.5576;1.2439;
448.5000;0.5551;1.2439;
448.8000;0.5551;1.2316;
449.1000;0.5543;1.2316;
449.4000;0.5568;1.2340;
449.7000;0.5551;1.2340;
450.0000;0.5543;1.2242;
450.3000;0.5560;1.2291;
450.6000;0.5576;1.2242;
450.9000;0.5617;1.2291;
451.2000;0.5568;1.2143;
451.5000;0.5568;1.1995;
451.8000;0.5560;1.1995;
452.1000;0.5617;1.2143;
452.4000;0.5576;1.2168;
452.7000;0.5560;1.2069;
453.0000;0.5535;1.2020;
453.3000;0.5576;1.2094;
453.6000;0.5568;1.2094;
453.9000;0.5568;1.2118;
454.2000;0.5576;1.2242;
454.5000;0.5568;1.2192;
454.8000;0.5568;1.2217;
455.1000;0.5551;1.2168;
455.4000;0.5535;1.2118;
455.7000;0.5568;1.2192;
456.0000;0.5568;1.2217;
456.3000;0.5584;1.2192;
456.6000;0.5568;1.2242;
456.9000;0.5568;1.2168;
457.2000;0.5625;1.2291;
457.5000;0.5535;1.2143;
457.8000;0.5560;1.2192;
458.1000;0.5584;1.2316;
458.4000;0.5568;1.2365;
458.7000;0.5560;1.2266;
459.0000;0.5511;1.2192;
459.3000;0.5568;1.2365;
459.6000;0.5568;1.2316;
459.9000;0.5543;1.2217;
460.2000;0.5568;1.2242;
460.5000;0.5551;1.2094;
460.8000;0.5519;1.2069;
461.1000;0.5560;1.2118;
461.4000;0.5584;1.2192;
461.7000;0.5560;1.2192;
462.0000;0.5543;1.2192;
462.3000;0.5568;1.2242;
462.6000;0.5576;1.2291;
462.9000;0.5560;1.2192;
463.2000;0.5568;1.2217;
463.5000;0.5568;1.2316;
463.8000;0.5568;1.2340;
464.1000;0.5551;1.2316;
464.4000;0.5551;1.2316;
464.7000;0.5560;1.2316;
465.0000;0.5568;1.2316;
465.3000;0.5592;1.2291;
465.6000;0.5576;1.2217;
465.9000;0.5535;1.2118;
466.2000;0.5568;1.2168;
466.5000;0.5535;1.2168;
466.8000;0.5649;1.2415;
467.1000;0.5584;1.2143;
467.4000;0.5584;1.2192;
467.7000;0.5560;1.2168;
468.0000;0.5576;1.2217;
468.3000;0.5560;1.2242;
468.6000;0.5576;1.2217;
468.9000;0.5584;1.2242;
469.2000;0.5592;1.2316;
469.5000;0.5576;1.2291;
469.8000;0.5576;1.2291;
470.1000;0.5592;1.2266;
470.4000;0.5576;1.2168;
470.7000;0.5617;1.2168;
471.0000;0.5568;1.2069;
471.3000;0.5576;1.2143;
471.6000;0.5584;1.2217;
471.9000;0.5568;1.2242;
472.2000;0.5665;1.2563;
472.5000;0.5608;1.2340;
472.8000;0.5576;1.2365;
473.1000;0.5584;1.2439;
473.4000;0.5576;1.2415;
473.7000;0.5568;1.2390;
474.0000;0.5584;1.2439;
474.3000;0.5584;1.2365;
474.6000;0.5592;1.2415;
474.9000;0.5551;1.2291;
475.2000;0.5551;1.2291;
475.5000;0.5560;1.2291;
475.8000;0.5568;1.2291;
476.1000;0.5560;1.2291;
476.4000;0.5543;1.2316;
476.7000;0.5560;1.2415;
477.0000;0.5560;1.2390;
477.3000;0.5551;1.2365;
477.6000;0.5560;1.2415;
477.9000;0.5568;1.2439;
478.2000;0.5560;1.2365;
478.5000;0.5568;1.2390;
478.8000;0.5560;1.2390;
479.1000;0.5576;1.2316;
479.4000;0.5584;1.2316;
479.7000;0.5584;1.2415;
480.0000;0.5584;1.2464;
480.3000;0.5592;1.2439;
480.6000;0.5560;1.2390;
480.9000;0.5592;1.2291;
481.2000;0.5584;1.2266;
481.5000;0.5576;1.2266;
481.8000;0.5592;1.2242;
482.1000;0.5576;1.2266;
482.4000;0.5560;1.2192;
482.7000;0.5584;1.2217;
483.0000;0.5551;1.2168;
483.3000;0.5560;1.2242;
483.6000;0.5576;1.2291;
483.9000;0.5576;1.2242;
484.2000;0.5584;1.2242;
484.5000;0.5584;1.2118;
484.8000;0.5568;1.2044;
485.1000;0.5568;1.2044;
485.4000;0.5576;1.2094;
485.7000;0.5568;1.2118;
486.0000;0.5568;1.2192;
486.3000;0.5560;1.2242;
486.6000;0.5551;1.2266;
486.9000;0.5543;1.2192;
487.2000;0.5576;1.2415;
487.5000;0.5560;1.2266;
487.8000;0.5560;1.2316;
488.1000;0.5551;1.2291;
488.4000;0.5576;1.2390;
488.7000;0.5592;1.2340;
489.0000;0.5568;1.2291;
489.3000;0.5495;1.1995;
489.6000;0.5568;1.2266;
489.9000;0.5576;1.2266;
490.2000;0.5560;1.2340;
490.5000;0.5535;1.2266;
490.8000;0.5568;1.2390;
491.1000;0.5543;1.2266;
491.4000;0.5551;1.2365;
491.7000;0.5649;1.2587;
492.0000;0.5584;1.2489;
492.3000;0.5568;1.2390;
492.6000;0.5568;1.2316;
492.9000;0.5543;1.2266;
493.2000;0.5568;1.2340;
493.5000;0.5576;1.2365;
493.8000;0.5560;1.2266;
494.1000;0.5551;1.2168;
494.4000;0.5584;1.2217;
494.7000;0.5568;1.2266;
495.0000;0.5600;1.2365;
495.3000;0.5576;1.2390;
495.6000;0.5511;1.2266;
495.9000;0.5576;1.2439;
496.2000;0.5592;1.2464;
496.5000;0.5560;1.2340;
496.8000;0.5519;1.2266;
497.1000;0.5527;1.2242;
497.4000;0.5568;1.2365;
497.7000;0.5560;1.2365;
498.0000;0.5584;1.2340;
498.3000;0.5576;1.2316;
498.6000;0.5551;1.2390;
498.9000;0.5551;1.2316;
499.2000;0.5560;1.2390;
499.5000;0.5560;1.2415;
499.8000;0.5600;1.2489;
500.1000;0.5633;1.2587;
500.4000;0.5560;1.2340;
500.7000;0.5576;1.2316;
501.0000;0.5568;1.2390;
501.3000;0.5568;1.2390;
501.6000;0.5568;1.2415;
501.9000;0.5560;1.2439;
502.2000;0.5568;1.2464;
502.5000;0.5584;1.2563;
502.8000;0.5592;1.2637;
503.1000;0.5560;1.2489;
503.4000;0.5560;1.2538;
503.7000;0.5535;1.2489;
504.0000;0.5576;1.2513;
504.3000;0.5527;1.2365;
504.6000;0.5592;1.2464;
504.9000;0.5576;1.2415;
505.2000;0.5584;1.2464;
505.5000;0.5568;1.2415;
505.8000;0.5527;1.2365;
506.1000;0.5568;1.2513;
506.4000;0.5576;1.2563;
506.7000;0.5584;1.2587;
507.0000;0.5551;1.2513;
507.3000;0.5576;1.2513;
507.6000;0.5576;1.2489;
507.9000;0.5584;1.2489;
508.2000;0.5576;1.2415;
508.5000;0.5576;1.2390;
508.8000;0.5592;1.2415;
509.1000;0.5503;1.2143;
509.4000;0.5560;1.2291;
509.7000;0.5592;1.2316;
510.0000;0.5551;1.2266;
510.3000;0.5608;1.2390;
510.6000;0.5592;1.2291;
510.9000;0.5560;1.2291;
511.2000;0.5560;1.2217;
511.5000;0.5600;1.2291;
511.8000;0.5576;1.2242;
512.1000;0.5568;1.2242;
512.4000;0.5551;1.2217;
512.7000;0.5584;1.2340;
513.0000;0.5576;1.2291;
513.3000;0.5568;1.2291;
513.6000;0.5576;1.2291;
513.9000;0.5576;1.2340;
514.2000;0.5576;1.2464;
514.5000;0.5592;1.2390;
514.8000;0.5568;1.2192;
515.1000;0.5568;1.2217;
515.4000;0.5568;1.2242;
515.7000;0.5560;1.2168;
516.0000;0.5584;1.2118;
516.3000;0.5600;1.2168;
516.6000;0.5600;1.2094;
516.9000;0.5584;1.2118;
517.2000;0.5584;1.2094;
517.5000;0.5600;1.2118;
517.8000;0.5592;1.2143;
518.1000;0.5576;1.2118;
518.4000;0.5600;1.2217;
518.7000;0.5600;1.2242;
519.0000;0.5584;1.2192;
519.3000;0.5584;1.2192;
519.6000;0.5584;1.2168;
519.9000;0.5600;1.2069;
520.2000;0.5560;1.2020;
520.5000;0.5560;1.2094;
520.8000;0.5568;1.2192;
521.1000;0.5576;1.2192;
521.4000;0.5543;1.2168;
521.7000;0.5511;1.2044;
522.0000;0.5576;1.2168;
522.3000;0.5568;1.2143;
522.6000;0.5576;1.2069;
522.9000;0.5568;1.2069;
523.2000;0.5576;1.2266;
523.5000;0.5576;1.2316;
523.8000;0.5560;1.2242;
524.1000;0.5617;1.2390;
524.4000;0.5584;1.2266;
524.7000;0.5560;1.2291;
525.0000;0.5568;1.2266;
525.3000;0.5560;1.2242;
525.6000;0.5560;1.2217;
525.9000;0.5568;1.2217;
526.2000;0.5568;1.2143;
526.5000;0.5560;1.2192;
526.8000;0.5576;1.2266;
527.1000;0.5568;1.2291;
527.4000;0.5592;1.2291;
527.7000;0.5584;1.2316;
528.0000;0.5584;1.2266;
528.3000;0.5600;1.2242;
528.6000;0.5584;1.2242;
528.9000;0.5584;1.2266;
529.2000;0.5543;1.2192;
529.5000;0.5576;1.2168;
529.8000;0.5568;1.2118;
530.1000;0.5592;1.2168;
530.4000;0.5568;1.2168;
530.7000;0.5535;1.2118;
531.0000;0.5551;1.2242;
531.3000;0.5657;1.2489;
531.6000;0.5584;1.2365;
531.9000;0.5576;1.2365;
532.2000;0.5584;1.2390;
532.5000;0.5568;1.2316;
532.8000;0.5576;1.2340;
533.1000;0.5568;1.2340;
533.4000;0.5478;1.2044;
533.7000;0.5576;1.2340;
534.0000;0.5584;1.2365;
534.3000;0.5625;1.2513;
534.6000;0.5576;1.2439;
534.9000;0.5592;1.2439;
535.2000;0.5584;1.2415;
535.5000;0.5584;1.2390;
535.8000;0.5576;1.2365;
536.1000;0.5560;1.2316;
536.4000;0.5560;1.2365;
536.7000;0.5568;1.2365;
537.0000;0.5584;1.2439;
537.3000;0.5568;1.2464;
537.6000;0.5592;1.2587;
537.9000;0.5568;1.2439;
538.2000;0.5576;1.2415;
538.5000;0.5576;1.2390;
538.8000;0.5560;1.2415;
539.1000;0.5560;1.2415;
539.4000;0.5503;1.2217;
539.7000;0.5568;1.2291;
540.0000;0.5576;1.2291;
540.3000;0.5568;1.2291;
540.6000;0.5592;1.2316;
540.9000;0.5584;1.2316;
541.2000;0.5568;1.2192;
541.5000;0.5560;1.2242;
541.8000;0.5584;1.2217;
542.1000;0.5617;1.2291;
542.4000;0.5576;1.2168;
542.7000;0.5608;1.2217;
543.0000;0.5600;1.2291;
543.3000;0.5584;1.2242;
543.6000;0.5592;1.2217;
543.9000;0.5584;1.2192;
544.2000;0.5592;1.2266;
544.5000;0.5592;1.2266;
544.8000;0.5592;1.2217;
545.1000;0.5584;1.2217;
545.4000;0.5584;1.2217;
545.7000;0.5592;1.2266;
546.0000;0.5568;1.2192;
546.3000;0.5560;1.2266;
546.6000;0.5560;1.2266;
546.9000;0.5568;1.2266;
547.2000;0.5592;1.2340;
547.5000;0.5592;1.2390;
547.8000;0.5560;1.2316;
548.1000;0.5560;1.2316;
548.4000;0.5584;1.2266;
548.7000;0.5584;1.2242;
549.0000;0.5551;1.2168;
549.3000;0.5584;1.2242;
549.6000;0.5560;1.2266;
549.9000;0.5551;1.2242;
550.2000;0.5649;1.2538;
550.5000;0.5592;1.2390;
550.8000;0.5543;1.2266;
551.1000;0.5535;1.2291;
551.4000;0.5600;1.2390;
551.7000;0.5584;1.2316;
552.0000;0.5584;1.2415;
552.3000;0.5592;1.2390;
552.6000;0.5576;1.2365;
552.9000;0.5584;1.2390;
553.2000;0.5584;1.2266;
553.5000;0.5608;1.2291;
553.8000;0.5584;1.2266;
554.1000;0.5608;1.2340;
554.4000;0.5633;1.2340;
554.7000;0.5584;1.2217;
555.0000;0.5584;1.2291;
555.3000;0.5584;1.2340;
555.6000;0.5584;1.2365;
555.9000;0.5592;1.2390;
556.2000;0.5584;1.2365;
556.5000;0.5584;1.2415;
556.8000;0.5560;1.2316;
557.1000;0.5576;1.2316;
557.4000;0.5584;1.2365;
557.7000;0.5608;1.2415;
558.0000;0.5568;1.2242;
558.3000;0.5576;1.2291;
558.6000;0.5568;1.2291;
558.9000;0.5600;1.2365;
559.2000;0.5584;1.2291;
559.5000;0.5568;1.2316;
559.8000;0.5584;1.2390;
560.1000;0.5584;1.2439;
560.4000;0.5592;1.2340;
560.7000;0.5576;1.2340;
561.0000;0.5576;1.2340;
561.3000;0.5568;1.2316;
561.6000;0.5576;1.2291;
561.9000;0.5576;1.2266;
562.2000;0.5584;1.2489;
562.5000;0.5568;1.2489;
562.8000;0.5576;1.2489;
563.1000;0.5568;1.2513;
563.4000;0.5576;1.2538;
563.7000;0.5592;1.2538;
564.0000;0.5576;1.2538;
564.3000;0.5584;1.2390;
564.6000;0.5560;1.2340;
564.9000;0.5584;1.2365;
565.2000;0.5576;1.2365;
565.5000;0.5576;1.2390;
565.8000;0.5576;1.2415;
566.1000;0.5568;1.2390;
566.4000;0.5576;1.2415;
566.7000;0.5568;1.2316;
567.0000;0.5568;1.2340;
567.3000;0.5551;1.2365;
567.6000;0.5560;1.2464;
567.9000;0.5560;1.2464;
568.2000;0.5568;1.2489;
568.5000;0.5568;1.2489;
568.8000;0.5568;1.2513;
569.1000;0.5600;1.2563;
569.4000;0.5568;1.2415;
569.7000;0.5576;1.2489;
570.0000;0.5551;1.2489;
570.3000;0.5584;1.2513;
570.6000;0.5568;1.2439;
570.9000;0.5592;1.2464;
571.2000;0.5551;1.2365;
571.5000;0.5584;1.2513;
571.8000;0.5608;1.2489;
572.1000;0.5576;1.2415;
572.4000;0.5584;1.2390;
572.7000;0.5584;1.2489;
573.0000;0.5568;1.2439;
573.3000;0.5568;1.2439;
573.6000;0.5584;1.2415;
573.9000;0.5617;1.2489;
574.2000;0.5527;1.2340;
574.5000;0.5576;1.2464;
574.8000;0.5592;1.2563;
575.1000;0.5608;1.2637;
575.4000;0.5600;1.2563;
575.7000;0.5535;1.2365;
576.0000;0.5592;1.2439;
576.3000;0.5600;1.2489;
576.6000;0.5560;1.2415;
576.9000;0.5527;1.2242;
577.2000;0.5617;1.2464;
577.5000;0.5584;1.2489;
577.8000;0.5674;1.2735;
578.1000;0.5495;1.2217;
578.4000;0.5576;1.2390;
578.7000;0.5568;1.2415;
579.0000;0.5625;1.2587;
579.3000;0.5584;1.2489;
579.6000;0.5592;1.2489;
579.9000;0.5592;1.2489;
580.2000;0.5568;1.2464;
580.5000;0.5584;1.2489;
580.8000;0.5649;1.2612;
581.1000;0.5568;1.2340;
581.4000;0.5584;1.2415;
581.7000;0.5592;1.2489;
582.0000;0.5592;1.2538;
582.3000;0.5625;1.2686;
582.6000;0.5576;1.2661;
582.9000;0.5584;1.2612;
583.2000;0.5584;1.2686;
583.5000;0.5568;1.2637;
583.8000;0.5584;1.2563;
584.1000;0.5592;1.2489;
584.4000;0.5592;1.2415;
584.7000;0.5592;1.2464;
585.0000;0.5543;1.2340;
585.3000;0.5617;1.2489;
585.6000;0.5576;1.2316;
585.9000;0.5600;1.2390;
586.2000;0.5584;1.2340;
586.5000;0.5600;1.2365;
586.8000;0.5592;1.2365;
587.1000;0.5592;1.2365;
587.4000;0.5576;1.2316;
587.7000;0.5584;1.2365;
588.0000;0.5584;1.2316;
588.3000;0.5592;1.2316;
588.6000;0.5576;1.2217;
588.9000;0.5576;1.2242;
589.2000;0.5576;1.2217;
589.5000;0.5600;1.2340;
589.8000;0.5633;1.2439;
590.1000;0.5584;1.2266;
590.4000;0.5576;1.2242;
590.7000;0.5584;1.2192;
591.0000;0.5592;1.2291;
591.3000;0.5576;1.2242;
591.6000;0.5584;1.2316;
591.9000;0.5592;1.2340;
592.2000;0.5617;1.2390;
592.5000;0.5584;1.2291;
592.8000;0.5592;1.2340;
593.1000;0.5576;1.2316;
593.4000;0.5584;1.2316;
593.7000;0.5576;1.2340;
594.0000;0.5560;1.2316;
594.3000;0.5568;1.2365;
594.6000;0.5551;1.2415;
594.9000;0.5576;1.2513;
595.2000;0.5568;1.2390;
595.5000;0.5560;1.2390;
595.8000;0.5543;1.2340;
596.1000;0.5633;1.2513;
596.4000;0.5576;1.2489;
596.7000;0.5584;1.2489;
597.0000;0.5576;1.2538;
597.3000;0.5576;1.2439;
597.6000;0.5592;1.2513;
597.9000;0.5576;1.2563;
598.2000;0.5584;1.2563;
598.5000;0.5584;1.2513;
598.8000;0.5568;1.2489;
599.1000;0.5568;1.2587;
599.4000;0.5584;1.2612;
599.7000;0.5560;1.2587;
600.0000;0.5503;1.2464;
600.3000;0.5600;1.2513;
600.6000;0.5584;1.2365;
600.9000;0.5560;1.2242;
601.2000;0.5535;1.2168;
601.5000;0.5503;1.1970;
601.8000;0.5478;1.1921;
602.1000;0.5389;1.1773;
602.4000;0.5413;1.1773;
602.7000;0.5324;1.1427;
603.0000;0.5315;1.1304;
603.3000;0.5283;1.1156;
603.6000;0.5250;1.1131;
603.9000;0.5210;1.1082;
604.2000;0.5177;1.0983;
604.5000;0.5161;1.0860;
604.8000;0.5128;1.0736;
605.1000;0.5096;1.0613;
605.4000;0.5039;1.0489;
605.7000;0.5071;1.0514;
606.0000;0.5039;1.0391;
606.3000;0.5014;1.0292;
606.6000;0.4933;1.0169;
606.9000;0.5039;1.0415;
607.2000;0.4965;1.0267;
607.5000;0.4965;1.0341;
607.8000;0.4965;1.0317;
608.1000;0.4900;1.0144;
608.4000;0.4876;1.0070;
608.7000;0.4868;1.0094;
609.0000;0.4843;1.0144;
609.3000;0.4835;1.0070;
609.6000;0.4843;1.0070;
609.9000;0.4811;0.9971;
610.2000;0.4803;0.9996;
610.5000;0.4803;1.0045;
610.8000;0.4762;1.0020;
611.1000;0.4770;1.0094;
611.4000;0.4746;1.0020;
611.7000;0.4729;0.9971;
612.0000;0.4729;0.9971;
612.3000;0.4689;0.9872;
612.6000;0.4689;0.9897;
612.9000;0.4672;0.9897;
613.2000;0.4656;0.9872;
613.5000;0.4583;0.9675;
613.8000;0.4632;0.9897;
614.1000;0.4591;0.9872;
614.4000;0.4615;0.9922;
614.7000;0.4615;0.9823;
615.0000;0.4591;0.9848;
615.3000;0.4591;0.9897;
615.6000;0.4550;0.9872;
615.9000;0.4575;0.9946;
616.2000;0.4558;0.9897;
616.5000;0.4575;0.9848;
616.8000;0.4575;0.9823;
617.1000;0.4550;0.9798;
617.4000;0.4493;0.9774;
617.7000;0.4534;0.9848;
618.0000;0.4518;0.9798;
618.3000;0.4518;0.9872;
618.6000;0.4493;0.9897;
618.9000;0.4501;0.9897;
619.2000;0.4485;0.9922;
619.5000;0.4469;0.9872;
619.8000;0.4461;0.9848;
620.1000;0.4444;0.9848;
620.4000;0.4469;0.9872;
620.7000;0.4444;0.9897;
621.0000;0.4453;0.9922;
621.3000;0.4428;0.9872;
621.6000;0.4420;0.9798;
621.9000;0.4412;0.9700;
622.2000;0.4436;0.9798;
622.5000;0.4396;0.9650;
622.8000;0.4379;0.9626;
623.1000;0.4428;0.9798;
623.4000;0.4420;0.9823;
623.7000;0.4469;0.9922;
624.0000;0.4363;0.9700;
624.3000;0.4387;0.9749;
624.6000;0.4330;0.9601;
624.9000;0.4306;0.9527;
625.2000;0.4371;0.9700;
625.5000;0.4330;0.9601;
625.8000;0.4306;0.9502;
626.1000;0.4322;0.9576;
626.4000;0.4314;0.9601;
626.7000;0.4298;0.9527;
627.0000;0.4306;0.9576;
627.3000;0.4306;0.9601;
627.6000;0.4265;0.9453;
627.9000;0.4274;0.9502;
628.2000;0.4274;0.9477;
628.5000;0.4257;0.9453;
628.8000;0.4249;0.9428;
629.1000;0.4282;0.9527;
629.4000;0.4265;0.9527;
629.7000;0.4257;0.9502;
630.0000;0.4200;0.9403;
630.3000;0.4249;0.9477;
630.6000;0.4241;0.9453;
630.9000;0.4249;0.9477;
631.2000;0.4249;0.9428;
631.5000;0.4249;0.9502;
631.8000;0.4208;0.9379;
632.1000;0.4233;0.9453;
632.4000;0.4233;0.9502;
632.7000;0.4225;0.9527;
633.0000;0.4274;0.9601;
633.3000;0.4208;0.9379;
633.6000;0.4208;0.9428;
633.9000;0.4200;0.9552;
634.2000;0.4184;0.9527;
634.5000;0.4208;0.9502;
634.8000;0.4208;0.9552;
635.1000;0.4184;0.9502;
635.4000;0.4184;0.9527;
635.7000;0.4200;0.9601;
636.0000;0.4160;0.9502;
636.3000;0.4151;0.9601;
636.6000;0.4160;0.9626;
636.9000;0.4151;0.9576;
637.2000;0.4135;0.9527;
637.5000;0.4184;0.9552;
637.8000;0.4151;0.9453;
638.1000;0.4143;0.9403;
638.4000;0.4151;0.9502;
638.7000;0.4249;0.9724;
639.0000;0.4135;0.9453;
639.3000;0.4135;0.9379;
639.6000;0.4192;0.9552;
639.9000;0.4103;0.9329;
640.2000;0.4119;0.9379;
640.5000;0.3980;0.9181;
640.8000;0.4103;0.9552;
641.1000;0.4103;0.9477;
641.4000;0.4127;0.9502;
641.7000;0.4103;0.9428;
642.0000;0.4094;0.9477;
642.3000;0.4103;0.9552;
642.6000;0.4078;0.9453;
642.9000;0.4094;0.9428;
643.2000;0.4070;0.9428;
643.5000;0.4070;0.9403;
643.8000;0.4111;0.9576;
644.1000;0.4078;0.9552;
644.4000;0.4062;0.9477;
644.7000;0.4078;0.9428;
645.0000;0.4070;0.9552;
645.3000;0.4094;0.9650;
645.6000;0.4111;0.9675;
645.9000;0.4086;0.9601;
646.2000;0.4021;0.9305;
646.5000;0.4062;0.9428;
646.8000;0.4054;0.9403;
647.1000;0.4094;0.9552;
647.4000;0.4054;0.9453;
647.7000;0.4062;0.9552;
648.0000;0.4046;0.9552;
648.3000;0.4054;0.9601;
648.6000;0.4062;0.9601;
648.9000;0.4046;0.9576;
649.2000;0.4029;0.9527;
649.5000;0.4054;0.9527;
649.8000;0.4046;0.9428;
650.1000;0.4103;0.9576;
650.4000;0.4078;0.9552;
650.7000;0.4029;0.9477;
651.0000;0.4029;0.9502;
651.3000;0.3858;0.9132;
651.6000;0.4021;0.9601;
651.9000;0.4013;0.9502;
652.2000;0.4029;0.9576;
652.5000;0.4005;0.9576;
652.8000;0.4005;0.9749;
653.1000;0.4029;0.9724;
653.4000;0.3940;0.9576;
653.7000;0.3997;0.9798;
654.0000;0.4013;0.9774;
654.3000;0.4005;0.9823;
654.6000;0.3997;0.9872;
654.9000;0.3980;0.9749;
655.2000;0.3989;0.9724;
655.5000;0.3989;0.9724;
655.8000;0.3980;0.9700;
656.1000;0.3972;0.9601;
656.4000;0.3989;0.9626;
656.7000;0.3972;0.9601;
657.0000;0.3989;0.9650;
657.3000;0.3997;0.9700;
657.6000;0.3972;0.9576;
657.9000;0.3972;0.9502;
658.2000;0.3980;0.9428;
658.5000;0.3972;0.9477;
658.8000;0.3972;0.9527;
659.1000;0.3989;0.9552;
659.4000;0.3972;0.9601;
659.7000;0.3980;0.9700;
660.0000;0.3972;0.9774;
660.3000;0.3980;0.9823;
660.6000;0.3956;0.9675;
660.9000;0.3972;0.9749;
661.2000;0.3989;0.9823;
661.5000;0.3997;0.9872;
661.8000;0.3956;0.9798;
662.1000;0.3980;0.9774;
662.4000;0.3948;0.9700;
662.7000;0.3940;0.9601;
663.0000;0.3956;0.9626;
663.3000;0.3964;0.9601;
663.6000;0.3956;0.9700;
663.9000;0.3948;0.9774;
664.2000;0.3989;0.9946;
664.5000;0.3989;0.9897;
664.8000;0.3956;0.9848;
665.1000;0.3940;0.9823;
665.4000;0.3842;0.9552;
665.7000;0.3915;0.9724;
666.0000;0.3932;0.9724;
666.3000;0.3940;0.9798;
666.6000;0.3923;0.9749;
666.9000;0.3899;0.9724;
667.2000;0.3923;0.9798;
667.5000;0.3932;0.9848;
667.8000;0.3964;0.9946;
668.1000;0.3923;0.9798;
668.4000;0.3907;0.9724;
668.7000;0.3907;0.9724;
669.0000;0.3948;0.9774;
669.3000;0.3915;0.9848;
669.6000;0.3923;0.9872;
669.9000;0.3948;0.9897;
670.2000;0.3932;0.9848;
670.5000;0.3923;0.9798;
670.8000;0.3850;0.9601;
671.1000;0.3932;0.9848;
671.4000;0.3923;0.9774;
671.7000;0.3907;0.9724;
672.0000;0.3899;0.9552;
672.3000;0.3915;0.9650;
672.6000;0.3997;0.9946;
672.9000;0.3907;0.9700;
673.2000;0.3932;0.9724;
673.5000;0.3907;0.9700;
673.8000;0.3899;0.9700;
674.1000;0.3907;0.9798;
674.4000;0.3899;0.9774;
674.7000;0.3956;0.9946;
675.0000;0.3899;0.9774;
675.3000;0.3907;0.9700;
675.6000;0.3907;0.9724;
675.9000;0.3899;0.9700;
676.2000;0.3899;0.9675;
676.5000;0.3891;0.9650;
676.8000;0.3867;0.9502;
677.1000;0.3883;0.9576;
677.4000;0.3899;0.9675;
677.7000;0.3883;0.9601;
678.0000;0.3899;0.9626;
678.3000;0.3883;0.9576;
678.6000;0.3842;0.9329;
678.9000;0.3883;0.9428;
679.2000;0.3883;0.9527;
679.5000;0.3899;0.9552;
679.8000;0.3891;0.9576;
680.1000;0.3883;0.9552;
680.4000;0.3867;0.9527;
680.7000;0.3932;0.9626;
681.0000;0.3907;0.9576;
681.3000;0.3899;0.9576;
681.6000;0.3915;0.9576;
681.9000;0.3883;0.9502;
682.2000;0.3850;0.9527;
682.5000;0.3883;0.9477;
682.8000;0.3883;0.9477;
683.1000;0.3818;0.9329;
683.4000;0.3842;0.9305;
683.7000;0.3883;0.9477;
684.0000;0.3867;0.9502;
684.3000;0.3810;0.9379;
684.6000;0.3891;0.9601;
684.9000;0.3834;0.9453;
685.2000;0.3883;0.9576;
685.5000;0.3858;0.9527;
685.8000;0.3867;0.9477;
686.1000;0.3875;0.9576;
686.4000;0.3761;0.9305;
686.7000;0.3850;0.9601;
687.0000;0.3875;0.9675;
687.3000;0.3842;0.9552;
687.6000;0.3867;0.9700;
687.9000;0.3826;0.9675;
688.2000;0.3867;0.9774;
688.5000;0.3867;0.9798;
688.8000;0.3858;0.9626;
689.1000;0.3842;0.9552;
689.4000;0.3850;0.9626;
689.7000;0.3842;0.9650;
690.0000;0.3826;0.9576;
690.3000;0.3842;0.9626;
690.6000;0.3858;0.9650;
690.9000;0.3842;0.9552;
691.2000;0.3858;0.9724;
691.5000;0.3850;0.9798;
691.8000;0.3850;0.9798;
692.1000;0.3875;0.9823;
692.4000;0.3842;0.9798;
692.7000;0.3907;0.9872;
693.0000;0.3858;0.9700;
693.3000;0.3834;0.9576;
693.6000;0.3867;0.9502;
693.9000;0.3907;0.9626;
694.2000;0.3826;0.9527;
694.5000;0.3842;0.9527;
694.8000;0.3842;0.9502;
695.1000;0.3907;0.9675;
695.4000;0.3793;0.9477;
695.7000;0.3850;0.9626;
696.0000;0.3761;0.9379;
696.3000;0.3842;0.9626;
696.6000;0.3842;0.9576;
696.9000;0.3826;0.9552;
697.2000;0.3834;0.9675;
697.5000;0.3867;0.9724;
697.8000;0.3834;0.9675;
698.1000;0.3875;0.9724;
698.4000;0.3867;0.9675;
698.7000;0.3875;0.9700;
699.0000;0.3834;0.9576;
699.3000;0.3850;0.9650;
699.6000;0.3842;0.9724;
699.9000;0.3842;0.9626;
700.2000;0.3834;0.9576;
700.5000;0.3818;0.9502;
700.8000;0.3834;0.9428;
701.1000;0.3842;0.9477;
701.4000;0.3818;0.9428;
701.7000;0.3842;0.9428;
702.0000;0.3899;0.9724;
702.3000;0.3883;0.9724;
702.6000;0.3842;0.9626;
702.9000;0.3891;0.9650;
703.2000;0.3826;0.9403;
703.5000;0.3858;0.9403;
703.8000;0.3842;0.9403;
704.1000;0.3842;0.9428;
704.4000;0.3818;0.9428;
704.7000;0.3834;0.9527;
705.0000;0.3834;0.9477;
705.3000;0.3826;0.9502;
705.6000;0.3834;0.9502;
705.9000;0.3842;0.9428;
706.2000;0.3842;0.9453;
706.5000;0.3826;0.9403;
706.8000;0.3834;0.9477;
707.1000;0.3850;0.9502;
707.4000;0.3826;0.9502;
707.7000;0.3842;0.9552;
708.0000;0.3842;0.9477;
708.3000;0.3826;0.9552;
708.6000;0.3826;0.9552;
708.9000;0.3834;0.9552;
709.2000;0.3769;0.9379;
709.5000;0.3850;0.9626;
709.8000;0.3883;0.9552;
710.1000;0.3883;0.9601;
710.4000;0.3850;0.9576;
710.7000;0.3858;0.9626;
711.0000;0.3818;0.9626;
711.3000;0.3834;0.9700;
711.6000;0.3801;0.9576;
711.9000;0.3826;0.9626;
712.2000;0.3826;0.9502;
712.5000;0.3801;0.9502;
712.8000;0.3834;0.9626;
713.1000;0.3818;0.9626;
713.4000;0.3826;0.9675;
713.7000;0.3818;0.9626;
714.0000;0.3826;0.9700;
714.3000;0.3801;0.9650;
714.6000;0.3818;0.9774;
714.9000;0.3801;0.9823;
715.2000;0.3801;0.9823;
715.5000;0.3810;0.9798;
715.8000;0.3810;0.9848;
716.1000;0.3818;0.9823;
716.4000;0.3810;0.9749;
716.7000;0.3801;0.9724;
717.0000;0.3810;0.9798;
717.3000;0.3826;0.9848;
717.6000;0.3826;0.9749;
717.9000;0.3785;0.9700;
718.2000;0.3826;0.9823;
718.5000;0.3826;0.9823;
718.8000;0.3801;0.9848;
719.1000;0.3801;0.9897;
719.4000;0.3858;0.9946;
719.7000;0.3810;0.9823;
720.0000;0.3810;0.9897;
720.3000;0.3810;0.9872;
720.6000;0.3810;0.9897;
720.9000;0.3834;0.9946;
721.2000;0.3785;0.9774;
721.5000;0.3793;0.9798;
721.8000;0.3793;0.9724;
722.1000;0.3801;0.9798;
722.4000;0.3793;0.9774;
722.7000;0.3818;0.9749;
723.0000;0.3785;0.9700;
723.3000;0.3842;0.9798;
723.6000;0.3810;0.9798;
723.9000;0.3793;0.9724;
724.2000;0.3810;0.9872;
724.5000;0.3793;0.9774;
724.8000;0.3801;0.9798;
725.1000;0.3801;0.9774;
725.4000;0.3777;0.9823;
725.7000;0.3801;0.9798;
726.0000;0.3801;0.9872;
726.3000;0.3826;0.9798;
726.6000;0.3793;0.9724;
726.9000;0.3810;0.9774;
727.2000;0.3810;0.9749;
727.5000;0.3818;0.9798;
727.8000;0.3793;0.9700;
728.1000;0.3801;0.9724;
728.4000;0.3785;0.9774;
728.7000;0.3818;0.9823;
729.0000;0.3793;0.9798;
729.3000;0.3777;0.9724;
729.6000;0.3793;0.9626;
729.9000;0.3810;0.9675;
730.2000;0.3793;0.9650;
730.5000;0.3810;0.9626;
730.8000;0.3810;0.9724;
731.1000;0.3850;0.9848;
731.4000;0.3801;0.9774;
731.7000;0.3834;0.9774;
732.0000;0.3793;0.9724;
732.3000;0.3858;0.9996;
732.6000;0.3801;0.9774;
732.9000;0.3826;0.9897;
733.2000;0.3793;0.9823;
733.5000;0.3850;0.9971;
733.8000;0.3785;0.9823;
734.1000;0.3785;0.9872;
734.4000;0.3769;0.9798;
734.7000;0.3810;0.9848;
735.0000;0.3777;0.9774;
735.3000;0.3753;0.9749;
735.6000;0.3810;0.9848;
735.9000;0.3769;0.9700;
736.2000;0.3793;0.9675;
736.5000;0.3818;0.9675;
736.8000;0.3801;0.9724;
737.1000;0.3785;0.9626;
737.4000;0.3810;0.9700;
737.7000;0.3793;0.9626;
738.0000;0.3801;0.9774;
738.3000;0.3801;0.9675;
738.6000;0.3785;0.9675;
738.9000;0.3801;0.9749;
739.2000;0.3818;0.9823;
739.5000;0.3801;0.9823;
739.8000;0.3785;0.9798;
740.1000;0.3777;0.9798;
740.4000;0.3793;0.9897;
740.7000;0.3777;0.9724;
741.0000;0.3793;0.9749;
741.3000;0.3818;0.9848;
741.6000;0.3858;0.9897;
741.9000;0.3801;0.9798;
742.2000;0.3801;0.9774;
742.5000;0.3793;0.9774;
742.8000;0.3801;0.9798;
743.1000;0.3793;0.9774;
743.4000;0.3801;0.9749;
743.7000;0.3810;0.9724;
744.0000;0.3777;0.9749;
744.3000;0.3793;0.9724;
744.6000;0.3728;0.9552;
744.9000;0.3704;0.9527;
745.2000;0.3720;0.9552;
745.5000;0.3810;0.9724;
745.8000;0.3712;0.9453;
746.1000;0.3810;0.9650;
746.4000;0.3785;0.9626;
746.7000;0.3793;0.9576;
747.0000;0.3753;0.9453;
747.3000;0.3761;0.9453;
747.6000;0.3793;0.9428;
747.9000;0.3736;0.9354;
748.2000;0.3744;0.9477;
748.5000;0.3793;0.9601;
748.8000;0.3801;0.9675;
749.1000;0.3785;0.9626;
749.4000;0.3785;0.9601;
749.7000;0.3785;0.9527;
750.0000;0.3785;0.9552;
750.3000;0.3777;0.9527;
750.6000;0.3696;0.9280;
750.9000;0.3801;0.9477;
751.2000;0.3801;0.9552;
751.5000;0.3801;0.9601;
751.8000;0.3777;0.9626;
752.1000;0.3785;0.9626;
752.4000;0.3801;0.9576;
752.7000;0.3785;0.9527;
753.0000;0.3785;0.9527;
753.3000;0.3785;0.9576;
753.6000;0.3810;0.9552;
753.9000;0.3777;0.9527;
754.2000;0.3793;0.9650;
754.5000;0.3801;0.9798;
754.8000;0.3761;0.9749;
755.1000;0.3785;0.9798;
755.4000;0.3777;0.9724;
755.7000;0.3793;0.9774;
756.0000;0.3793;0.9798;
756.3000;0.3818;0.9823;
756.6000;0.3793;0.9626;
756.9000;0.3785;0.9650;
757.2000;0.3785;0.9749;
757.5000;0.3777;0.9749;
757.8000;0.3761;0.9749;
758.1000;0.3785;0.9848;
758.4000;0.3777;0.9798;
758.7000;0.3785;0.9724;
759.0000;0.3761;0.9601;
759.3000;0.3777;0.9527;
759.6000;0.3769;0.9601;
759.9000;0.3785;0.9576;
760.2000;0.3753;0.9601;
760.5000;0.3834;0.9798;
760.8000;0.3785;0.9675;
761.1000;0.3785;0.9700;
761.4000;0.3818;0.9724;
761.7000;0.3777;0.9724;
762.0000;0.3793;0.9798;
762.3000;0.3769;0.9823;
762.6000;0.3826;0.9946;
762.9000;0.3761;0.9872;
763.2000;0.3793;0.9922;
763.5000;0.3801;0.9922;
763.8000;0.3728;0.9675;
764.1000;0.3777;0.9774;
764.4000;0.3777;0.9774;
764.7000;0.3875;0.9848;
765.0000;0.3875;0.9823;
765.3000;0.3769;0.9527;
765.6000;0.3785;0.9527;
765.9000;0.3728;0.9453;
766.2000;0.3785;0.9601;
766.5000;0.3785;0.9576;
766.8000;0.3785;0.9576;
767.1000;0.3769;0.9601;
767.4000;0.3785;0.9576;
767.7000;0.3785;0.9601;
768.0000;0.3704;0.9354;
768.3000;0.3761;0.9453;
768.6000;0.3753;0.9502;
768.9000;0.3777;0.9428;
769.2000;0.3777;0.9502;
769.5000;0.3777;0.9477;
769.8000;0.3777;0.9601;
770.1000;0.3785;0.9626;
770.4000;0.3761;0.9576;
770.7000;0.3777;0.9601;
771.0000;0.3826;0.9700;
771.3000;0.3777;0.9576;
771.6000;0.3777;0.9527;
771.9000;0.3785;0.9527;
772.2000;0.3777;0.9576;
772.5000;0.3793;0.9626;
772.8000;0.3801;0.9724;
773.1000;0.3777;0.9650;
773.4000;0.3769;0.9626;
773.7000;0.3777;0.9675;
774.0000;0.3777;0.9626;
774.3000;0.3777;0.9552;
774.6000;0.3736;0.9477;
774.9000;0.3769;0.9477;
775.2000;0.3785;0.9552;
775.5000;0.3777;0.9527;
775.8000;0.3785;0.9428;
776.1000;0.3761;0.9428;
776.4000;0.3753;0.9379;
776.7000;0.3785;0.9477;
777.0000;0.3793;0.9601;
777.3000;0.3793;0.9626;
777.6000;0.3753;0.9477;
777.9000;0.3793;0.9576;
778.2000;0.3899;0.9897;
778.5000;0.3769;0.9650;
778.8000;0.3769;0.9650;
779.1000;0.3744;0.9601;
779.4000;0.3793;0.9700;
779.7000;0.3793;0.9675;
780.0000;0.3761;0.9576;
780.3000;0.3785;0.9576;
780.6000;0.3753;0.9527;
780.9000;0.3777;0.9601;
781.2000;0.3753;0.9601;
781.5000;0.3761;0.9626;
781.8000;0.3785;0.9798;
782.1000;0.3785;0.9650;
782.4000;0.3761;0.9626;
782.7000;0.3785;0.9650;
783.0000;0.3801;0.9700;
783.3000;0.3736;0.9675;
783.6000;0.3777;0.9700;
783.9000;0.3769;0.9700;
784.2000;0.3785;0.9675;
784.5000;0.3777;0.9823;
784.8000;0.3761;0.9848;
785.1000;0.3769;0.9848;
785.4000;0.3785;0.9823;
785.7000;0.3785;0.9823;
786.0000;0.3769;0.9774;
786.3000;0.3785;0.9724;
786.6000;0.3793;0.9724;
786.9000;0.3793;0.9749;
787.2000;0.3769;0.9626;
787.5000;0.3785;0.9576;
787.8000;0.3777;0.9576;
788.1000;0.3810;0.9626;
788.4000;0.3777;0.9552;
788.7000;0.3785;0.9552;
789.0000;0.3777;0.9552;
789.3000;0.3777;0.9527;
789.6000;0.3712;0.9305;
789.9000;0.3744;0.9453;
790.2000;0.3801;0.9626;
790.5000;0.3769;0.9527;
790.8000;0.3769;0.9552;
791.1000;0.3769;0.9601;
791.4000;0.3753;0.9552;
791.7000;0.3744;0.9453;
792.0000;0.3753;0.9502;
792.3000;0.3769;0.9502;
792.6000;0.3769;0.9576;
792.9000;0.3801;0.9601;
793.2000;0.3777;0.9626;
793.5000;0.3785;0.9700;
793.8000;0.3761;0.9650;
794.1000;0.3761;0.9675;
794.4000;0.3761;0.9675;
794.7000;0.3736;0.9601;
795.0000;0.3761;0.9675;
795.3000;0.3761;0.9774;
795.6000;0.3761;0.9774;
795.9000;0.3753;0.9675;
796.2000;0.3761;0.9823;
796.5000;0.3753;0.9798;
796.8000;0.3704;0.9626;
797.1000;0.3769;0.9749;
797.4000;0.3777;0.9675;
797.7000;0.3753;0.9650;
798.0000;0.3769;0.9675;
798.3000;0.3777;0.9576;
798.6000;0.3769;0.9552;
798.9000;0.3777;0.9626;
799.2000;0.3769;0.9650;
799.5000;0.3761;0.9724;
799.8000;0.3736;0.9700;
800.1000;0.3753;0.9823;
800.4000;0.3761;0.9848;
800.7000;0.3769;0.9872;
801.0000;0.3753;0.9798;
801.3000;0.3753;0.9724;
801.6000;0.3769;0.9798;
801.9000;0.3744;0.9749;
802.2000;0.3753;0.9823;
802.5000;0.3761;0.9774;
802.8000;0.3761;0.9749;
803.1000;0.3818;0.9798;
803.4000;0.3777;0.9626;
803.7000;0.3761;0.9626;
804.0000;0.3777;0.9848;
804.3000;0.3769;0.9848;
804.6000;0.3753;0.9823;
804.9000;0.3785;0.9946;
805.2000;0.3834;1.0094;
805.5000;0.3769;0.9872;
805.8000;0.3769;0.9749;
806.1000;0.3761;0.9650;
806.4000;0.3744;0.9700;
806.7000;0.3736;0.9774;
807.0000;0.3744;0.9823;
807.3000;0.3744;0.9823;
807.6000;0.3753;0.9872;
807.9000;0.3769;0.9897;
808.2000;0.3769;0.9848;
808.5000;0.3753;0.9700;
808.8000;0.3753;0.9675;
809.1000;0.3769;0.9650;
809.4000;0.3810;0.9700;
809.7000;0.3777;0.9675;
810.0000;0.3785;0.9774;
810.3000;0.3744;0.9601;
810.6000;0.3769;0.9650;
810.9000;0.3769;0.9601;
811.2000;0.3744;0.9576;
811.5000;0.3769;0.9650;
811.8000;0.3769;0.9749;
812.1000;0.3761;0.9798;
812.4000;0.3777;0.9848;
812.7000;0.3785;0.9897;
813.0000;0.3736;0.9823;
813.3000;0.3761;0.9996;
813.6000;0.3744;0.9872;
813.9000;0.3753;0.9774;
814.2000;0.3769;0.9749;
814.5000;0.3777;0.9798;
814.8000;0.3777;0.9774;
815.1000;0.3744;0.9675;
815.4000;0.3744;0.9576;
815.7000;0.3769;0.9576;
816.0000;0.3761;0.9675;
816.3000;0.3744;0.9675;
816.6000;0.3761;0.9749;
816.9000;0.3785;0.9774;
817.2000;0.3769;0.9724;
817.5000;0.3736;0.9626;
817.8000;0.3696;0.9477;
818.1000;0.3753;0.9601;
818.4000;0.3736;0.9552;
818.7000;0.3753;0.9675;
819.0000;0.3753;0.9650;
819.3000;0.3744;0.9650;
819.6000;0.3769;0.9626;
819.9000;0.3744;0.9576;
820.2000;0.3753;0.9675;
820.5000;0.3777;0.9724;
820.8000;0.3753;0.9626;
821.1000;0.3753;0.9601;
821.4000;0.3712;0.9527;
821.7000;0.3810;0.9848;
822.0000;0.3761;0.9798;
822.3000;0.3769;0.9724;
822.6000;0.3744;0.9650;
822.9000;0.3761;0.9724;
823.2000;0.3761;0.9650;
823.5000;0.3736;0.9527;
823.8000;0.3785;0.9650;
824.1000;0.3761;0.9576;
824.4000;0.3753;0.9502;
824.7000;0.3769;0.9477;
825.0000;0.3769;0.9477;
825.3000;0.3744;0.9502;
825.6000;0.3679;0.9280;
825.9000;0.3769;0.9527;
826.2000;0.3744;0.9552;
826.5000;0.3777;0.9700;
826.8000;0.3777;0.9601;
827.1000;0.3785;0.9798;
827.4000;0.3777;0.9848;
827.7000;0.3769;0.9774;
828.0000;0.3769;0.9749;
828.3000;0.3753;0.9724;
828.6000;0.3704;0.9552;
828.9000;0.3736;0.9576;
829.2000;0.3753;0.9675;
829.5000;0.3736;0.9650;
829.8000;0.3769;0.9700;
830.1000;0.3753;0.9724;
830.4000;0.3753;0.9749;
830.7000;0.3761;0.9848;
831.0000;0.3761;0.9971;
831.3000;0.3777;1.0070;
831.6000;0.3753;0.9996;
831.9000;0.3761;0.9971;
832.2000;0.3753;0.9922;
832.5000;0.3769;0.9922;
832.8000;0.3744;0.9872;
833.1000;0.3761;0.9946;
833.4000;0.3761;0.9996;
833.7000;0.3753;0.9996;
834.0000;0.3761;0.9922;
834.3000;0.3753;0.9823;
834.6000;0.3867;1.0094;
834.9000;0.3769;0.9798;
835.2000;0.3753;0.9749;
835.5000;0.3761;0.9823;
835.8000;0.3761;0.9922;
836.1000;0.3761;0.9971;
836.4000;0.3761;1.0020;
836.7000;0.3753;0.9971;
837.0000;0.3753;1.0020;
837.3000;0.3753;0.9946;
837.6000;0.3761;0.9996;
837.9000;0.3769;0.9946;
838.2000;0.3753;0.9897;
838.5000;0.3744;0.9996;
838.8000;0.3736;0.9946;
839.1000;0.3753;0.9897;
839.4000;0.3810;0.9971;
839.7000;0.3744;0.9798;
840.0000;0.3777;0.9823;
840.3000;0.3769;0.9872;
840.6000;0.3761;0.9922;
840.9000;0.3728;0.9872;
841.2000;0.3744;0.9897;
841.5000;0.3753;0.9848;
841.8000;0.3736;0.9774;
842.1000;0.3736;0.9774;
842.4000;0.3744;0.9823;
842.7000;0.3728;0.9823;
843.0000;0.3761;0.9897;
843.3000;0.3753;0.9872;
843.6000;0.3761;0.9872;
843.9000;0.3753;0.9774;
844.2000;0.3769;0.9798;
844.5000;0.3761;0.9897;
844.8000;0.3753;0.9848;
845.1000;0.3744;0.9774;
845.4000;0.3769;0.9774;
845.7000;0.3753;0.9774;
846.0000;0.3736;0.9872;
846.3000;0.3785;1.0020;
846.6000;0.3753;0.9971;
846.9000;0.3761;0.9897;
847.2000;0.3753;0.9798;
847.5000;0.3769;0.9724;
847.8000;0.3753;0.9774;
848.1000;0.3761;0.9724;
848.4000;0.3761;0.9823;
848.7000;0.3744;0.9798;
849.0000;0.3769;0.9823;
849.3000;0.3769;0.9872;
849.6000;0.3753;0.9946;
849.9000;0.3720;0.9872;
850.2000;0.3793;1.0144;
850.5000;0.3753;1.0094;
850.8000;0.3777;1.0119;
851.1000;0.3753;1.0169;
851.4000;0.3744;1.0020;
851.7000;0.3777;1.0020;
852.0000;0.3744;0.9996;
852.3000;0.3744;0.9946;
852.6000;0.3769;0.9946;
852.9000;0.3744;0.9798;
853.2000;0.3744;0.9774;
853.5000;0.3753;0.9774;
853.8000;0.3761;0.9774;
854.1000;0.3736;0.9724;
854.4000;0.3753;0.9724;
854.7000;0.3728;0.9675;
855.0000;0.3728;0.9675;
855.3000;0.3744;0.9650;
855.6000;0.3761;0.9650;
855.9000;0.3810;0.9848;
856.2000;0.3753;0.9774;
856.5000;0.3744;0.9724;
856.8000;0.3744;0.9700;
857.1000;0.3736;0.9700;
857.4000;0.3761;0.9724;
857.7000;0.3753;0.9700;
858.0000;0.3753;0.9675;
858.3000;0.3736;0.9700;
858.6000;0.3736;0.9700;
858.9000;0.3842;0.9971;
859.2000;0.3753;0.9700;
859.5000;0.3736;0.9601;
859.8000;0.3785;0.9798;
860.1000;0.3761;0.9872;
860.4000;0.3728;0.9724;
860.7000;0.3753;0.9774;
861.0000;0.3818;0.9946;
861.3000;0.3769;0.9774;
861.6000;0.3744;0.9724;
861.9000;0.3761;0.9749;
862.2000;0.3753;0.9872;
862.5000;0.3687;0.9675;
862.8000;0.3744;0.9848;
863.1000;0.3736;0.9823;
863.4000;0.3712;0.9823;
863.7000;0.3761;0.9971;
864.0000;0.3761;0.9946;
864.3000;0.3728;0.9823;
864.6000;0.3761;0.9848;
864.9000;0.3769;0.9798;
865.2000;0.3761;0.9774;
865.5000;0.3769;0.9749;
865.8000;0.3769;0.9798;
866.1000;0.3777;0.9823;
866.4000;0.3671;0.9626;
866.7000;0.3761;0.9823;
867.0000;0.3834;1.0020;
867.3000;0.3744;0.9798;
867.6000;0.3801;0.9897;
867.9000;0.3736;0.9749;
868.2000;0.3728;0.9749;
868.5000;0.3769;0.9872;
868.8000;0.3761;0.9897;
869.1000;0.3761;0.9872;
869.4000;0.3818;0.9872;
869.7000;0.3769;0.9700;
870.0000;0.3777;0.9724;
870.3000;0.3769;0.9774;
870.6000;0.3785;0.9848;
870.9000;0.3769;0.9749;
871.2000;0.3744;0.9675;
871.5000;0.3826;0.9922;
871.8000;0.3785;0.9922;
872.1000;0.3761;0.9971;
872.4000;0.3769;0.9971;
872.7000;0.3761;0.9897;
873.0000;0.3761;0.9922;
873.3000;0.3777;0.9996;
873.6000;0.3744;0.9971;
873.9000;0.3769;1.0070;
874.2000;0.3761;1.0020;
874.5000;0.3785;1.0045;
874.8000;0.3744;0.9922;
875.1000;0.3655;0.9724;
875.4000;0.3761;0.9946;
875.7000;0.3769;0.9922;
876.0000;0.3753;0.9897;
876.3000;0.3712;0.9848;
876.6000;0.3663;0.9798;
876.9000;0.3744;0.9971;
877.2000;0.3761;0.9922;
877.5000;0.3769;0.9922;
877.8000;0.3761;0.9897;
878.1000;0.3777;0.9946;
878.4000;0.3769;0.9971;
878.7000;0.3744;0.9946;
879.0000;0.3753;0.9971;
879.3000;0.3744;0.9897;
879.6000;0.3761;0.9946;
879.9000;0.3736;0.9848;
880.2000;0.3801;0.9897;
880.5000;0.3769;0.9798;
880.8000;0.3793;0.9872;
881.1000;0.3753;0.9798;
881.4000;0.3753;0.9724;
881.7000;0.3818;0.9848;
882.0000;0.3777;0.9749;
882.3000;0.3736;0.9675;
882.6000;0.3777;0.9724;
882.9000;0.3753;0.9700;
883.2000;0.3769;0.9749;
883.5000;0.3744;0.9724;
883.8000;0.3744;0.9724;
884.1000;0.3753;0.9823;
884.4000;0.3777;0.9897;
884.7000;0.3753;0.9848;
885.0000;0.3769;0.9749;
885.3000;0.3793;0.9798;
885.6000;0.3785;0.9724;
885.9000;0.3769;0.9724;
886.2000;0.3753;0.9774;
886.5000;0.3736;0.9724;
886.8000;0.3753;0.9798;
887.1000;0.3736;0.9774;
887.4000;0.3728;0.9675;
887.7000;0.3753;0.9774;
888.0000;0.3753;0.9724;
888.3000;0.3753;0.9749;
888.6000;0.3753;0.9823;
888.9000;0.3720;0.9650;
889.2000;0.3769;0.9872;
889.5000;0.3810;0.9946;
889.8000;0.3769;0.9848;
890.1000;0.3744;0.9700;
890.4000;0.3744;0.9724;
890.7000;0.3728;0.9774;
891.0000;0.3761;0.9922;
891.3000;0.3753;0.9872;
891.6000;0.3744;0.9823;
891.9000;0.3761;0.9872;
892.2000;0.3769;0.9922;
892.5000;0.3777;0.9922;
892.8000;0.3761;0.9922;
893.1000;0.3761;0.9971;
893.4000;0.3769;0.9872;
893.7000;0.3753;0.9749;
894.0000;0.3761;0.9749;
894.3000;0.3761;0.9700;
894.6000;0.3785;0.9650;
894.9000;0.3769;0.9700;
895.2000;0.3753;0.9675;
895.5000;0.3761;0.9749;
895.8000;0.3793;0.9922;
896.1000;0.3696;0.9626;
896.4000;0.3728;0.9798;
896.7000;0.3801;0.9971;
897.0000;0.3744;0.9946;
897.3000;0.3744;0.9971;
897.6000;0.3728;0.9946;
897.9000;0.3785;1.0070;
898.2000;0.3728;0.9897;
898.5000;0.3744;0.9971;
898.8000;0.3785;0.9946;
899.1000;0.3753;0.9823;
899.4000;0.3761;0.9823;
899.7000;0.3753;0.9922;
900.0000;0.3744;0.9996;
900.3000;0.3761;1.0070;
900.6000;0.3753;1.0094;
900.9000;0.3761;0.9996;
901.2000;0.3744;0.9823;
901.5000;0.3777;0.9848;
901.8000;0.3769;0.9897;
902.1000;0.3761;0.9848;
902.4000;0.3761;0.9971;
902.7000;0.3793;1.0094;
903.0000;0.3736;0.9872;
903.3000;0.3769;0.9897;
903.6000;0.3785;1.0020;
903.9000;0.3769;1.0045;
904.2000;0.3761;1.0094;
904.5000;0.3744;1.0070;
904.8000;0.3761;1.0144;
905.1000;0.3777;1.0218;
905.4000;0.3753;1.0119;
905.7000;0.3728;1.0094;
906.0000;0.3769;1.0193;
906.3000;0.3761;1.0070;
906.6000;0.3744;0.9971;
906.9000;0.3769;0.9996;
907.2000;0.3744;0.9872;
907.5000;0.3834;1.0119;
907.8000;0.3761;0.9971;
908.1000;0.3769;1.0020;
908.4000;0.3785;1.0020;
908.7000;0.3720;0.9872;
909.0000;0.3769;0.9996;
909.3000;0.3728;0.9872;
909.6000;0.3761;0.9971;
909.9000;0.3744;0.9971;
910.2000;0.3761;1.0070;
910.5000;0.3744;1.0094;
910.8000;0.3785;1.0119;
911.1000;0.3744;0.9996;
911.4000;0.3744;0.9848;
911.7000;0.3777;0.9946;
912.0000;0.3744;0.9996;
912.3000;0.3753;0.9946;
912.6000;0.3769;1.0144;
912.9000;0.3761;1.0119;
913.2000;0.3761;1.0020;
913.5000;0.3753;0.9971;
913.8000;0.3777;1.0020;
914.1000;0.3761;0.9848;
914.4000;0.3753;0.9848;
914.7000;0.3769;0.9946;
915.0000;0.3744;0.9971;
915.3000;0.3753;1.0094;
915.6000;0.3744;1.0094;
915.9000;0.3736;1.0020;
916.2000;0.3753;0.9996;
916.5000;0.3753;0.9971;
916.8000;0.3761;1.0020;
917.1000;0.3769;0.9897;
917.4000;0.3769;0.9848;
917.7000;0.3736;0.9798;
918.0000;0.3761;0.9848;
918.3000;0.3761;0.9823;
918.6000;0.3761;0.9848;
918.9000;0.3769;0.9848;
919.2000;0.3753;0.9749;
919.5000;0.3785;0.9872;
919.8000;0.3696;0.9601;
920.1000;0.3777;0.9774;
920.4000;0.3761;0.9774;
920.7000;0.3753;0.9823;
921.0000;0.3761;0.9774;
921.3000;0.3728;0.9576;
921.6000;0.3761;0.9626;
921.9000;0.3793;0.9650;
922.2000;0.3810;0.9724;
922.5000;0.3769;0.9576;
922.8000;0.3753;0.9527;
923.1000;0.3753;0.9650;
923.4000;0.3744;0.9774;
923.7000;0.3761;0.9724;
924.0000;0.3744;0.9626;
924.3000;0.3704;0.9552;
924.6000;0.3761;0.9724;
924.9000;0.3728;0.9650;
925.2000;0.3736;0.9774;
925.5000;0.3728;0.9774;
925.8000;0.3736;0.9774;
926.1000;0.3744;0.9749;
926.4000;0.3720;0.9700;
926.7000;0.3834;0.9971;
927.0000;0.3744;0.9749;
927.3000;0.3769;0.9872;
927.6000;0.3696;0.9650;
927.9000;0.3753;0.9774;
928.2000;0.3842;0.9996;
928.5000;0.3753;0.9774;
928.8000;0.3744;0.9749;
929.1000;0.3761;0.9798;
929.4000;0.3769;0.9774;
929.7000;0.3761;0.9749;
930.0000;0.3744;0.9774;
930.3000;0.3761;0.9823;
930.6000;0.3744;0.9724;
930.9000;0.3736;0.9749;
931.2000;0.3761;0.9798;
931.5000;0.3753;0.9774;
931.8000;0.3761;0.9749;
932.1000;0.3744;0.9749;
932.4000;0.3761;0.9774;
932.7000;0.3744;0.9749;
933.0000;0.3761;0.9823;
933.3000;0.3761;0.9798;
933.6000;0.3744;0.9749;
933.9000;0.3671;0.9675;
934.2000;0.3736;0.9897;
934.5000;0.3736;0.9798;
934.8000;0.3753;0.9798;
935.1000;0.3761;0.9823;
935.4000;0.3744;0.9749;
935.7000;0.3744;0.9675;
936.0000;0.3769;0.9823;
936.3000;0.3744;0.9823;
936.6000;0.3761;0.9872;
936.9000;0.3639;0.9576;
937.2000;0.3753;0.9872;
937.5000;0.3761;0.9922;
937.8000;0.3785;0.9872;
938.1000;0.3744;0.9774;
938.4000;0.3761;0.9872;
938.7000;0.3761;0.9897;
939.0000;0.3761;0.9922;
939.3000;0.3761;0.9848;
939.6000;0.3753;0.9848;
939.9000;0.3769;0.9971;
940.2000;0.3744;0.9848;
940.5000;0.3744;0.9675;
940.8000;0.3744;0.9675;
941.1000;0.3753;0.9724;
941.4000;0.3761;0.9724;
941.7000;0.3753;0.9798;
942.0000;0.3769;0.9823;
942.3000;0.3744;0.9798;
942.6000;0.3761;0.9848;
942.9000;0.3769;0.9922;
943.2000;0.3761;0.9996;
943.5000;0.3753;0.9996;
943.8000;0.3769;1.0169;
944.1000;0.3818;1.0193;
944.4000;0.3728;0.9922;
944.7000;0.3753;0.9897;
945.0000;0.3753;0.9798;
945.3000;0.3761;0.9823;
945.6000;0.3761;0.9848;
945.9000;0.3761;0.9823;
946.2000;0.3753;0.9823;
946.5000;0.3753;0.9724;
946.8000;0.3753;0.9675;
947.1000;0.3744;0.9724;
947.4000;0.3744;0.9848;
947.7000;0.3777;0.9897;
948.0000;0.3769;0.9897;
948.3000;0.3761;0.9897;
948.6000;0.3736;0.9897;
948.9000;0.3753;0.9996;
949.2000;0.3777;0.9996;
949.5000;0.3793;1.0045;
949.8000;0.3744;0.9872;
950.1000;0.3753;0.9897;
950.4000;0.3753;0.9848;
950.7000;0.3777;0.9823;
951.0000;0.3761;0.9798;
951.3000;0.3761;0.9749;
951.6000;0.3744;0.9774;
951.9000;0.3761;0.9823;
952.2000;0.3761;0.9774;
952.5000;0.3753;0.9650;
952.8000;0.3753;0.9675;
953.1000;0.3761;0.9626;
953.4000;0.3793;0.9650;
953.7000;0.3744;0.9576;
954.0000;0.3761;0.9552;
954.3000;0.3785;0.9576;
954.6000;0.3769;0.9552;
954.9000;0.3744;0.9576;
955.2000;0.3785;0.9675;
955.5000;0.3761;0.9601;
955.8000;0.3769;0.9675;
956.1000;0.3769;0.9675;
956.4000;0.3753;0.9650;
956.7000;0.3736;0.9700;
957.0000;0.3744;0.9724;
957.3000;0.3753;0.9724;
957.6000;0.3728;0.9650;
957.9000;0.3793;0.9798;
958.2000;0.3744;0.9601;
958.5000;0.3736;0.9601;
958.8000;0.3744;0.9601;
959.1000;0.3753;0.9428;
959.4000;0.3753;0.9379;
959.7000;0.3761;0.9403;
960.0000;0.3696;0.9255;
960.3000;0.3753;0.9527;
960.6000;0.3753;0.9527;
960.9000;0.3753;0.9552;
961.2000;0.3761;0.9601;
961.5000;0.3753;0.9576;
961.8000;0.3728;0.9650;
962.1000;0.3761;0.9774;
962.4000;0.3753;0.9774;
962.7000;0.3769;0.9872;
963.0000;0.3736;0.9749;
963.3000;0.3753;0.9798;
963.6000;0.3753;0.9724;
963.9000;0.3769;0.9700;
964.2000;0.3785;0.9700;
964.5000;0.3769;0.9724;
964.8000;0.3777;0.9650;
965.1000;0.3761;0.9626;
965.4000;0.3736;0.9453;
965.7000;0.3769;0.9453;
966.0000;0.3769;0.9552;
966.3000;0.3785;0.9626;
966.6000;0.3769;0.9576;
966.9000;0.3744;0.9601;
967.2000;0.3704;0.9502;
967.5000;0.3769;0.9749;
967.8000;0.3777;0.9724;
968.1000;0.3712;0.9576;
968.4000;0.3744;0.9749;
968.7000;0.3761;0.9798;
969.0000;0.3753;0.9897;
969.3000;0.3810;1.0094;
969.6000;0.3761;0.9946;
969.9000;0.3744;0.9848;
970.2000;0.3744;0.9724;
970.5000;0.3761;0.9749;
970.8000;0.3736;0.9626;
971.1000;0.3753;0.9700;
971.4000;0.3769;0.9774;
971.7000;0.3793;0.9749;
972.0000;0.3761;0.9650;
972.3000;0.3753;0.9601;
972.6000;0.3769;0.9650;
972.9000;0.3777;0.9724;
973.2000;0.3761;0.9774;
973.5000;0.3785;0.9848;
973.8000;0.3810;0.9946;
974.1000;0.3769;0.9823;
974.4000;0.3777;0.9848;
974.7000;0.3728;0.9675;
975.0000;0.3777;0.9724;
975.3000;0.3720;0.9527;
975.6000;0.3744;0.9626;
975.9000;0.3850;0.9996;
976.2000;0.3744;0.9700;
976.5000;0.3655;0.9453;
976.8000;0.3704;0.9502;
977.1000;0.3761;0.9749;
977.4000;0.3777;0.9724;
977.7000;0.3769;0.9675;
978.0000;0.3671;0.9428;
978.3000;0.3728;0.9477;
978.6000;0.3753;0.9502;
978.9000;0.3728;0.9428;
979.2000;0.3761;0.9626;
979.5000;0.3761;0.9601;
979.8000;0.3761;0.9724;
980.1000;0.3753;0.9749;
980.4000;0.3761;0.9749;
980.7000;0.3744;0.9700;
981.0000;0.3777;0.9650;
981.3000;0.3744;0.9650;
981.6000;0.3736;0.9675;
981.9000;0.3753;0.9774;
982.2000;0.3777;0.9823;
982.5000;0.3850;1.0070;
982.8000;0.3761;0.9872;
983.1000;0.3769;0.9897;
983.4000;0.3834;1.0045;
983.7000;0.3777;0.9823;
984.0000;0.3769;0.9848;
984.3000;0.3785;0.9946;
984.6000;0.3867;1.0119;
984.9000;0.3761;0.9872;
985.2000;0.3736;0.9848;
985.5000;0.3761;0.9848;
985.8000;0.3785;0.9946;
986.1000;0.3753;0.9897;
986.4000;0.3744;1.0020;
986.7000;0.3777;1.0045;
987.0000;0.3777;0.9996;
987.3000;0.3744;0.9897;
987.6000;0.3777;0.9946;
987.9000;0.3753;0.9823;
988.2000;0.3753;0.9626;
988.5000;0.3769;0.9601;
988.8000;0.3761;0.9576;
989.1000;0.3744;0.9626;
989.4000;0.3785;0.9650;
989.7000;0.3769;0.9675;
990.0000;0.3777;0.9848;
990.3000;0.3801;0.9946;
990.6000;0.3744;0.9724;
990.9000;0.3753;0.9798;
991.2000;0.3801;0.9922;
991.5000;0.3753;0.9774;
991.8000;0.3761;0.9823;
992.1000;0.3744;0.9798;
992.4000;0.3761;0.9798;
992.7000;0.3663;0.9576;
993.0000;0.3753;0.9823;
993.3000;0.3728;0.9700;
993.6000;0.3769;0.9848;
993.9000;0.3777;0.9848;
994.2000;0.3753;0.9798;
994.5000;0.3769;0.9848;
994.8000;0.3777;0.9848;
995.1000;0.3769;0.9872;
995.4000;0.3744;0.9823;
995.7000;0.3744;0.9774;
996.0000;0.3744;0.9798;
996.3000;0.3744;0.9798;
996.6000;0.3744;0.9749;
996.9000;0.3744;0.9675;
997.2000;0.3744;0.9724;
997.5000;0.3761;0.9675;
997.8000;0.3761;0.9626;
998.1000;0.3728;0.9552;
998.4000;0.3736;0.9601;
998.7000;0.3720;0.9428;
999.0000;0.3761;0.9477;
999.3000;0.3777;0.9527;
999.6000;0.3761;0.9527;
999.9000;0.3761;0.9601;
1000.2000;0.3769;0.9749;
1000.5000;0.3777;0.9798;
1000.8000;0.3744;0.9774;
1001.1000;0.3761;0.9872;
1001.4000;0.3793;0.9971;
1001.7000;0.3761;0.9848;
1002.0000;0.3744;0.9922;
1002.3000;0.3728;0.9872;
1002.6000;0.3744;0.9897;
1002.9000;0.3753;0.9946;
1003.2000;0.3687;0.9774;
1003.5000;0.3753;0.9922;
1003.8000;0.3736;0.9872;
1004.1000;0.3753;0.9946;
1004.4000;0.3736;0.9848;
1004.7000;0.3753;0.9897;
1005.0000;0.3777;0.9922;
1005.3000;0.3696;0.9798;
1005.6000;0.3753;0.9897;
1005.9000;0.3777;0.9897;
1006.2000;0.3769;0.9872;
1006.5000;0.3744;0.9823;
1006.8000;0.3769;0.9872;
1007.1000;0.3753;0.9848;
1007.4000;0.3753;0.9872;
1007.7000;0.3744;0.9848;
1008.0000;0.3769;0.9996;
1008.3000;0.3769;0.9946;
1008.6000;0.3793;0.9872;
1008.9000;0.3704;0.9774;
1009.2000;0.3736;0.9848;
1009.5000;0.3728;0.9675;
1009.8000;0.3753;0.9675;
1010.1000;0.3753;0.9724;
1010.4000;0.3744;0.9823;
1010.7000;0.3753;0.9798;
1011.0000;0.3769;0.9774;
1011.3000;0.3761;0.9872;
1011.6000;0.3761;0.9774;
1011.9000;0.3753;0.9724;
1012.2000;0.3744;0.9700;
1012.5000;0.3736;0.9749;
1012.8000;0.3744;0.9823;
1013.1000;0.3785;0.9946;
1013.4000;0.3761;0.9922;
1013.7000;0.3687;0.9675;
1014.0000;0.3769;0.9848;
1014.3000;0.3753;0.9823;
1014.6000;0.3753;0.9798;
1014.9000;0.3744;0.9774;
1015.2000;0.3696;0.9700;
1015.5000;0.3769;0.9897;
1015.8000;0.3834;1.0094;
1016.1000;0.3810;0.9971;
1016.4000;0.3753;0.9774;
1016.7000;0.3769;0.9823;
1017.0000;0.3769;0.9872;
1017.3000;0.3769;0.9798;
1017.6000;0.3761;0.9798;
1017.9000;0.3753;0.9872;
1018.2000;0.3777;0.9922;
1018.5000;0.3744;0.9823;
1018.8000;0.3761;0.9971;
1019.1000;0.3769;0.9946;
1019.4000;0.3753;0.9946;
1019.7000;0.3810;1.0020;
1020.0000;0.3744;0.9823;
1020.3000;0.3753;0.9823;
1020.6000;0.3744;0.9823;
1020.9000;0.3753;0.9872;
1021.2000;0.3769;0.9946;
1021.5000;0.3753;0.9946;
1021.8000;0.3777;1.0020;
1022.1000;0.3769;0.9971;
1022.4000;0.3769;0.9922;
1022.7000;0.3761;0.9922;
1023.0000;0.3777;0.9897;
1023.3000;0.3744;0.9872;
1023.6000;0.3761;0.9946;
1023.9000;0.3696;0.9774;
1024.2000;0.3736;0.9798;
1024.5000;0.3736;0.9774;
1024.8000;0.3696;0.9477;
1025.1000;0.3753;0.9724;
1025.4000;0.3769;0.9700;
1025.7000;0.3761;0.9749;
1026.0000;0.3753;0.9798;
1026.3000;0.3744;0.9724;
1026.6000;0.3761;0.9626;
1026.9000;0.3761;0.9626;
1027.2000;0.3744;0.9626;
1027.5000;0.3769;0.9700;
1027.8000;0.3704;0.9453;
1028.1000;0.3761;0.9576;
1028.4000;0.3687;0.9477;
1028.7000;0.3753;0.9626;
1029.0000;0.3777;0.9626;
1029.3000;0.3736;0.9576;
1029.6000;0.3818;0.9798;
1029.9000;0.3671;0.9453;
1030.2000;0.3720;0.9552;
1030.5000;0.3728;0.9552;
1030.8000;0.3720;0.9675;
1031.1000;0.3753;0.9700;
1031.4000;0.3744;0.9650;
1031.7000;0.3744;0.9774;
1032.0000;0.3736;0.9675;
1032.3000;0.3736;0.9749;
1032.6000;0.3744;0.9700;
1032.9000;0.3753;0.9774;
1033.2000;0.3744;0.9749;
1033.5000;0.3761;0.9774;
1033.8000;0.3753;0.9946;
1034.1000;0.3777;0.9922;
1034.4000;0.3769;0.9946;
1034.7000;0.3744;0.9922;
1035.0000;0.3761;0.9946;
1035.3000;0.3753;0.9897;
1035.6000;0.3761;0.9897;
1035.9000;0.3753;0.9971;
1036.2000;0.3753;0.9971;
1036.5000;0.3777;1.0020;
1036.8000;0.3761;0.9872;
1037.1000;0.3761;0.9872;
1037.4000;0.3736;0.9798;
1037.7000;0.3761;0.9749;
1038.0000;0.3744;0.9749;
1038.3000;0.3801;0.9724;
1038.6000;0.3793;0.9601;
1038.9000;0.3777;0.9626;
1039.2000;0.3744;0.9527;
1039.5000;0.3753;0.9552;
1039.8000;0.3761;0.9626;
1040.1000;0.3736;0.9626;
1040.4000;0.3753;0.9650;
1040.7000;0.3753;0.9626;
1041.0000;0.3744;0.9576;
1041.3000;0.3753;0.9601;
1041.6000;0.3761;0.9675;
1041.9000;0.3736;0.9576;
1042.2000;0.3753;0.9576;
1042.5000;0.3761;0.9576;
1042.8000;0.3777;0.9552;
1043.1000;0.3769;0.9576;
1043.4000;0.3769;0.9601;
1043.7000;0.3875;0.9897;
1044.0000;0.3769;0.9650;
1044.3000;0.3785;0.9675;
1044.6000;0.3761;0.9700;
1044.9000;0.3753;0.9601;
1045.2000;0.3761;0.9675;
1045.5000;0.3785;0.9749;
1045.8000;0.3826;0.9848;
1046.1000;0.3761;0.9576;
1046.4000;0.3753;0.9527;
1046.7000;0.3785;0.9601;
1047.0000;0.3753;0.9527;
1047.3000;0.3744;0.9527;
1047.6000;0.3761;0.9650;
1047.9000;0.3753;0.9601;
1048.2000;0.3769;0.9626;
1048.5000;0.3777;0.9650;
1048.8000;0.3744;0.9626;
1049.1000;0.3769;0.9700;
1049.4000;0.3753;0.9749;
1049.7000;0.3761;0.9823;
1050.0000;0.3744;0.9724;
1050.3000;0.3753;0.9650;
1050.6000;0.3736;0.9700;
1050.9000;0.3753;0.9675;
1051.2000;0.3753;0.9650;
1051.5000;0.3769;0.9675;
1051.8000;0.3818;0.9798;
1052.1000;0.3777;0.9700;
1052.4000;0.3744;0.9626;
1052.7000;0.3744;0.9749;
1053.0000;0.3761;0.9823;
1053.3000;0.3761;0.9749;
1053.6000;0.3744;0.9675;
1053.9000;0.3736;0.9576;
1054.2000;0.3744;0.9477;
1054.5000;0.3801;0.9675;
1054.8000;0.3753;0.9601;
1055.1000;0.3761;0.9675;
1055.4000;0.3769;0.9700;
1055.7000;0.3753;0.9675;
1056.0000;0.3777;0.9700;
1056.3000;0.3753;0.9576;
1056.6000;0.3761;0.9527;
1056.9000;0.3761;0.9601;
1057.2000;0.3761;0.9576;
1057.5000;0.3769;0.9626;
1057.8000;0.3761;0.9724;
1058.1000;0.3761;0.9798;
1058.4000;0.3761;0.9724;
1058.7000;0.3744;0.9650;
1059.0000;0.3761;0.9650;
1059.3000;0.3728;0.9626;
1059.6000;0.3785;0.9897;
1059.9000;0.3736;0.9848;
1060.2000;0.3753;0.9971;
1060.5000;0.3769;0.9922;
1060.8000;0.3761;0.9774;
1061.1000;0.3769;0.9848;
1061.4000;0.3753;0.9798;
1061.7000;0.3826;0.9971;
1062.0000;0.3761;0.9798;
1062.3000;0.3761;0.9774;
1062.6000;0.3761;0.9749;
1062.9000;0.3761;0.9774;
1063.2000;0.3769;0.9798;
1063.5000;0.3753;0.9724;
1063.8000;0.3785;0.9774;
1064.1000;0.3744;0.9650;
1064.4000;0.3761;0.9650;
1064.7000;0.3777;0.9626;
1065.0000;0.3761;0.9601;
1065.3000;0.3753;0.9576;
1065.6000;0.3753;0.9552;
1065.9000;0.3736;0.9527;
1066.2000;0.3769;0.9626;
1066.5000;0.3769;0.9650;
1066.8000;0.3769;0.9650;
1067.1000;0.3761;0.9626;
1067.4000;0.3769;0.9576;
1067.7000;0.3753;0.9552;
1068.0000;0.3753;0.9601;
1068.3000;0.3753;0.9552;
1068.6000;0.3753;0.9552;
1068.9000;0.3801;0.9601;
1069.2000;0.3761;0.9527;
1069.5000;0.3753;0.9527;
1069.8000;0.3801;0.9650;
1070.1000;0.3753;0.9626;
1070.4000;0.3761;0.9675;
1070.7000;0.3842;0.9774;
1071.0000;0.3769;0.9626;
1071.3000;0.3777;0.9626;
1071.6000;0.3744;0.9576;
1071.9000;0.3753;0.9650;
1072.2000;0.3744;0.9675;
1072.5000;0.3769;0.9700;
1072.8000;0.3785;0.9650;
1073.1000;0.3769;0.9675;
1073.4000;0.3761;0.9798;
1073.7000;0.3867;1.0070;
1074.0000;0.3777;0.9848;
1074.3000;0.3769;0.9798;
1074.6000;0.3761;0.9749;
1074.9000;0.3761;0.9724;
1075.2000;0.3769;0.9724;
1075.5000;0.3769;0.9749;
1075.8000;0.3769;0.9749;
1076.1000;0.3736;0.9724;
1076.4000;0.3761;0.9724;
1076.7000;0.3744;0.9724;
1077.0000;0.3744;0.9774;
1077.3000;0.3704;0.9724;
1077.6000;0.3769;0.9798;
1077.9000;0.3769;0.9848;
1078.2000;0.3753;0.9922;
1078.5000;0.3761;0.9922;
1078.8000;0.3720;0.9872;
1079.1000;0.3761;1.0020;
1079.4000;0.3769;1.0020;
1079.7000;0.3769;0.9996;
1080.0000;0.3761;0.9922;
1080.3000;0.3753;0.9897;
1080.6000;0.3761;0.9848;
1080.9000;0.3761;0.9823;
1081.2000;0.3761;0.9798;
1081.5000;0.3753;0.9724;
1081.8000;0.3753;0.9724;
1082.1000;0.3744;0.9675;
1082.4000;0.3753;0.9724;
1082.7000;0.3687;0.9552;
1083.0000;0.3769;0.9823;
1083.3000;0.3753;0.9774;
1083.6000;0.3696;0.9601;
1083.9000;0.3753;0.9749;
1084.2000;0.3728;0.9724;
1084.5000;0.3744;0.9774;
1084.8000;0.3793;0.9922;
1085.1000;0.3753;0.9774;
1085.4000;0.3736;0.9798;
1085.7000;0.3744;0.9798;
1086.0000;0.3753;0.9848;
1086.3000;0.3801;1.0045;
1086.6000;0.3728;0.9823;
1086.9000;0.3761;0.9897;
1087.2000;0.3769;0.9996;
1087.5000;0.3744;0.9823;
1087.8000;0.3744;0.9872;
1088.1000;0.3753;0.9922;
1088.4000;0.3769;0.9848;
1088.7000;0.3761;0.9872;
1089.0000;0.3761;0.9872;
1089.3000;0.3769;0.9946;
1089.6000;0.3761;0.9897;
1089.9000;0.3810;0.9946;
1090.2000;0.3769;0.9872;
1090.5000;0.3769;0.9848;
1090.8000;0.3761;0.9724;
1091.1000;0.3761;0.9774;
1091.4000;0.3753;0.9872;
1091.7000;0.3761;0.9946;
1092.0000;0.3769;0.9946;
1092.3000;0.3769;0.9897;
1092.6000;0.3753;0.9798;
1092.9000;0.3753;0.9749;
1093.2000;0.3769;0.9749;
1093.5000;0.3728;0.9650;
1093.8000;0.3753;0.9823;
1094.1000;0.3753;0.9848;
1094.4000;0.3761;0.9823;
1094.7000;0.3736;0.9798;
1095.0000;0.3777;0.9897;
1095.3000;0.3753;0.9798;
1095.6000;0.3761;0.9823;
1095.9000;0.3753;0.9823;
1096.2000;0.3761;0.9897;
1096.5000;0.3744;0.9798;
1096.8000;0.3785;0.9946;
1097.1000;0.3753;0.9897;
1097.4000;0.3769;0.9897;
1097.7000;0.3769;0.9946;
1098.0000;0.3744;0.9798;
1098.3000;0.3736;0.9749;
1098.6000;0.3769;0.9848;
1098.9000;0.3761;0.9848;
1099.2000;0.3736;0.9798;
1099.5000;0.3704;0.9700;
1099.8000;0.3736;0.9749;
1100.1000;0.3753;0.9774;
1100.4000;0.3753;0.9774;
1100.7000;0.3753;0.9700;
1101.0000;0.3753;0.9576;
1101.3000;0.3736;0.9601;
1101.6000;0.3769;0.9700;
1101.9000;0.3753;0.9749;
1102.2000;0.3744;0.9724;
1102.5000;0.3728;0.9675;
1102.8000;0.3753;0.9798;
1103.1000;0.3736;0.9823;
1103.4000;0.3744;0.9774;
1103.7000;0.3769;0.9798;
1104.0000;0.3761;0.9897;
1104.3000;0.3777;0.9971;
1104.6000;0.3753;0.9971;
1104.9000;0.3761;0.9897;
1105.2000;0.3744;0.9774;
1105.5000;0.3753;0.9872;
1105.8000;0.3785;0.9823;
1106.1000;0.3793;0.9823;
1106.4000;0.3801;0.9700;
1106.7000;0.3744;0.9650;
1107.0000;0.3769;0.9700;
1107.3000;0.3704;0.9601;
1107.6000;0.3761;0.9872;
1107.9000;0.3769;0.9872;
1108.2000;0.3769;0.9897;
1108.5000;0.3704;0.9724;
1108.8000;0.3769;0.9897;
1109.1000;0.3769;0.9922;
1109.4000;0.3769;0.9872;
1109.7000;0.3785;0.9922;
1110.0000;0.3761;0.9897;
1110.3000;0.3818;1.0020;
1110.6000;0.3753;0.9774;
1110.9000;0.3785;0.9675;
1111.2000;0.3736;0.9552;
1111.5000;0.3769;0.9527;
1111.8000;0.3761;0.9453;
1112.1000;0.3769;0.9453;
1112.4000;0.3761;0.9527;
1112.7000;0.3720;0.9502;
1113.0000;0.3744;0.9601;
1113.3000;0.3801;0.9700;
1113.6000;0.3777;0.9749;
1113.9000;0.3753;0.9724;
1114.2000;0.3744;0.9774;
1114.5000;0.3761;0.9848;
1114.8000;0.3753;0.9897;
1115.1000;0.3761;0.9897;
1115.4000;0.3753;0.9798;
1115.7000;0.3777;0.9823;
1116.0000;0.3761;0.9675;
1116.3000;0.3761;0.9626;
1116.6000;0.3761;0.9675;
1116.9000;0.3744;0.9650;
1117.2000;0.3704;0.9576;
1117.5000;0.3720;0.9774;
1117.8000;0.3744;0.9848;
1118.1000;0.3761;0.9823;
1118.4000;0.3736;0.9798;
1118.7000;0.3753;0.9971;
1119.0000;0.3753;0.9922;
1119.3000;0.3761;0.9848;
1119.6000;0.3769;0.9922;
1119.9000;0.3769;0.9823;
1120.2000;0.3744;0.9848;
1120.5000;0.3793;0.9996;
1120.8000;0.3793;1.0020;
1121.1000;0.3753;0.9848;
1121.4000;0.3777;0.9872;
1121.7000;0.3753;0.9798;
1122.0000;0.3769;0.9774;
1122.3000;0.3736;0.9774;
1122.6000;0.3704;0.9675;
1122.9000;0.3679;0.9576;
1123.2000;0.3761;0.9798;
1123.5000;0.3753;0.9798;
1123.8000;0.3712;0.9724;
1124.1000;0.3769;0.9897;
1124.4000;0.3679;0.9675;
1124.7000;0.3753;0.9897;
1125.0000;0.3777;0.9872;
1125.3000;0.3769;0.9798;
1125.6000;0.3769;0.9774;
1125.9000;0.3777;0.9749;
1126.2000;0.3753;0.9650;
1126.5000;0.3753;0.9626;
1126.8000;0.3777;0.9724;
1127.1000;0.3761;0.9700;
1127.4000;0.3761;0.9650;
1127.7000;0.3761;0.9700;
1128.0000;0.3744;0.9700;
1128.3000;0.3753;0.9724;
1128.6000;0.3761;0.9798;
1128.9000;0.3744;0.9749;
1129.2000;0.3777;0.9872;
1129.5000;0.3753;0.9774;
1129.8000;0.3761;0.9700;
1130.1000;0.3753;0.9675;
1130.4000;0.3761;0.9724;
1130.7000;0.3777;0.9650;
1131.0000;0.3785;0.9700;
1131.3000;0.3761;0.9650;
1131.6000;0.3777;0.9675;
1131.9000;0.3761;0.9749;
1132.2000;0.3696;0.9552;
1132.5000;0.3761;0.9700;
1132.8000;0.3761;0.9650;
1133.1000;0.3769;0.9724;
1133.4000;0.3769;0.9724;
1133.7000;0.3793;0.9749;
1134.0000;0.3777;0.9774;
1134.3000;0.3769;0.9650;
1134.6000;0.3777;0.9601;
1134.9000;0.3777;0.9601;
1135.2000;0.3728;0.9477;
1135.5000;0.3777;0.9749;
1135.8000;0.3744;0.9650;
1136.1000;0.3769;0.9650;
1136.4000;0.3867;0.9922;
1136.7000;0.3753;0.9650;
1137.0000;0.3777;0.9700;
1137.3000;0.3769;0.9650;
1137.6000;0.3744;0.9626;
1137.9000;0.3744;0.9650;
1138.2000;0.3761;0.9626;
1138.5000;0.3769;0.9601;
1138.8000;0.3744;0.9576;
1139.1000;0.3753;0.9626;
1139.4000;0.3744;0.9650;
1139.7000;0.3793;0.9774;
1140.0000;0.3793;0.9774;
1140.3000;0.3761;0.9724;
1140.6000;0.3753;0.9848;
1140.9000;0.3744;0.9700;
1141.2000;0.3744;0.9576;
1141.5000;0.3712;0.9477;
1141.8000;0.3728;0.9626;
1142.1000;0.3736;0.9576;
1142.4000;0.3744;0.9626;
1142.7000;0.3753;0.9576;
1143.0000;0.3736;0.9527;
1143.3000;0.3769;0.9601;
1143.6000;0.3753;0.9626;
1143.9000;0.3753;0.9527;
1144.2000;0.3785;0.9601;
1144.5000;0.3744;0.9477;
1144.8000;0.3736;0.9477;
1145.1000;0.3769;0.9502;
1145.4000;0.3761;0.9552;
1145.7000;0.3769;0.9675;
1146.0000;0.3777;0.9700;
1146.3000;0.3777;0.9774;
1146.6000;0.3744;0.9675;
1146.9000;0.3801;0.9774;
1147.2000;0.3744;0.9675;
1147.5000;0.3744;0.9626;
1147.8000;0.3753;0.9724;
1148.1000;0.3753;0.9700;
1148.4000;0.3761;0.9774;
1148.7000;0.3720;0.9650;
1149.0000;0.3671;0.9626;
1149.3000;0.3761;0.9823;
1149.6000;0.3777;0.9872;
1149.9000;0.3769;0.9848;
1150.2000;0.3761;0.9897;
1150.5000;0.3785;1.0045;
1150.8000;0.3769;0.9922;
1151.1000;0.3761;0.9823;
1151.4000;0.3761;0.9774;
1151.7000;0.3777;0.9749;
1152.0000;0.3777;0.9749;
1152.3000;0.3785;0.9700;
1152.6000;0.3744;0.9650;
1152.9000;0.3753;0.9626;
1153.2000;0.3728;0.9601;
1153.5000;0.3761;0.9626;
1153.8000;0.3769;0.9724;
1154.1000;0.3761;0.9700;
1154.4000;0.3769;0.9774;
1154.7000;0.3769;0.9872;
1155.0000;0.3744;0.9749;
1155.3000;0.3736;0.9798;
1155.6000;0.3769;0.9872;
1155.9000;0.3761;0.9823;
1156.2000;0.3785;0.9897;
1156.5000;0.3753;0.9848;
1156.8000;0.3801;0.9971;
1157.1000;0.3818;1.0045;
1157.4000;0.3769;0.9872;
1157.7000;0.3761;0.9823;
1158.0000;0.3744;0.9749;
1158.3000;0.3753;0.9798;
1158.6000;0.3761;0.9724;
1158.9000;0.3736;0.9527;
1159.2000;0.3769;0.9650;
1159.5000;0.3744;0.9675;
1159.8000;0.3753;0.9675;
1160.1000;0.3761;0.9798;
1160.4000;0.3712;0.9700;
1160.7000;0.3818;0.9922;
1161.0000;0.3777;0.9897;
1161.3000;0.3753;0.9823;
1161.6000;0.3777;0.9946;
1161.9000;0.3720;0.9823;
1162.2000;0.3744;0.9946;
1162.5000;0.3736;0.9946;
1162.8000;0.3761;0.9946;
1163.1000;0.3744;0.9848;
1163.4000;0.3761;0.9897;
1163.7000;0.3761;0.9872;
1164.0000;0.3769;0.9922;
1164.3000;0.3753;0.9872;
1164.6000;0.3744;0.9774;
1164.9000;0.3728;0.9700;
1165.2000;0.3761;0.9848;
1165.5000;0.3744;0.9823;
1165.8000;0.3753;0.9922;
1166.1000;0.3777;0.9996;
1166.4000;0.3744;0.9946;
1166.7000;0.3761;0.9823;
1167.0000;0.3744;0.9823;
1167.3000;0.3761;0.9798;
1167.6000;0.3744;0.9724;
1167.9000;0.3761;0.9823;
1168.2000;0.3753;0.9774;
1168.5000;0.3769;0.9872;
1168.8000;0.3761;0.9675;
1169.1000;0.3753;0.9700;
1169.4000;0.3769;0.9848;
1169.7000;0.3744;0.9724;
1170.0000;0.3744;0.9798;
1170.3000;0.3785;0.9823;
1170.6000;0.3736;0.9774;
1170.9000;0.3744;0.9749;
1171.2000;0.3753;0.9798;
1171.5000;0.3769;0.9897;
1171.8000;0.3785;0.9971;
1172.1000;0.3736;0.9798;
1172.4000;0.3761;0.9897;
1172.7000;0.3744;0.9897;
1173.0000;0.3753;0.9922;
1173.3000;0.3793;1.0020;
1173.6000;0.3744;0.9848;
1173.9000;0.3761;0.9897;
1174.2000;0.3753;0.9897;
1174.5000;0.3769;0.9897;
1174.8000;0.3761;0.9897;
1175.1000;0.3761;0.9872;
1175.4000;0.3761;0.9848;
1175.7000;0.3736;0.9897;
1176.0000;0.3753;0.9996;
1176.3000;0.3777;1.0020;
1176.6000;0.3769;1.0045;
1176.9000;0.3753;0.9922;
1177.2000;0.3810;0.9971;
1177.5000;0.3647;0.9502;
1177.8000;0.3753;0.9848;
1178.1000;0.3753;0.9922;
1178.4000;0.3744;0.9922;
1178.7000;0.3744;0.9848;
1179.0000;0.3777;0.9897;
1179.3000;0.3696;0.9724;
1179.6000;0.3761;0.9922;
1179.9000;0.3744;0.9848;
1180.2000;0.3761;0.9823;
1180.5000;0.3801;0.9848;
1180.8000;0.3744;0.9749;
1181.1000;0.3753;0.9872;
1181.4000;0.3696;0.9749;
1181.7000;0.3761;0.9922;
1182.0000;0.3793;0.9946;
1182.3000;0.3744;0.9848;
1182.6000;0.3761;0.9897;
1182.9000;0.3785;1.0020;
1183.2000;0.3769;0.9996;
1183.5000;0.3753;0.9897;
1183.8000;0.3761;0.9848;
1184.1000;0.3753;0.9872;
1184.4000;0.3785;0.9946;
1184.7000;0.3769;0.9946;
1185.0000;0.3753;0.9996;
1185.3000;0.3736;0.9897;
1185.6000;0.3720;0.9774;
1185.9000;0.3761;0.9971;
1186.2000;0.3769;0.9971;
1186.5000;0.3769;0.9971;
1186.8000;0.3736;0.9946;
1187.1000;0.3810;1.0119;
1187.4000;0.3769;1.0070;
1187.7000;0.3712;0.9872;
1188.0000;0.3769;0.9946;
1188.3000;0.3769;0.9971;
1188.6000;0.3753;0.9996;
1188.9000;0.3793;1.0045;
1189.2000;0.3753;0.9897;
1189.5000;0.3704;0.9749;
1189.8000;0.3728;0.9823;
1190.1000;0.3769;0.9946;
1190.4000;0.3761;0.9897;
1190.7000;0.3785;0.9996;
1191.0000;0.3777;0.9922;
1191.3000;0.3785;0.9922;
1191.6000;0.3769;0.9897;
1191.9000;0.3761;0.9897;
1192.2000;0.3769;0.9946;
1192.5000;0.3753;0.9897;
1192.8000;0.3761;0.9946;
1193.1000;0.3736;1.0020;
1193.4000;0.3761;1.0020;
1193.7000;0.3761;0.9971;
1194.0000;0.3744;0.9922;
1194.3000;0.3761;1.0045;
1194.6000;0.3753;0.9922;
1194.9000;0.3761;0.9872;
1195.2000;0.3785;0.9848;
1195.5000;0.3753;0.9848;
1195.8000;0.3777;0.9946;
1196.1000;0.3785;1.0045;
1196.4000;0.3793;1.0045;
1196.7000;0.3777;0.9971;
1197.0000;0.3769;0.9872;
1197.3000;0.3712;0.9650;
1197.6000;0.3769;0.9774;
1197.9000;0.3744;0.9774;
1198.2000;0.3769;0.9848;
1198.5000;0.3769;0.9971;
1198.8000;0.3793;1.0045;
1199.1000;0.3785;0.9996;
1199.4000;0.3826;1.0070;
1199.7000;0.3761;0.9872;
1200.0000;0.3761;0.9922;
1200.3000;0.3704;0.9774;
1200.6000;0.3769;0.9971;
1200.9000;0.3753;0.9922;
1201.2000;0.3761;0.9946;
1201.5000;0.3769;1.0020;
1201.8000;0.3761;0.9946;
1202.1000;0.3736;0.9922;
1202.4000;0.3769;0.9922;
1202.7000;0.3761;0.9897;
1203.0000;0.3761;0.9897;
1203.3000;0.3720;0.9798;
1203.6000;0.3826;0.9996;
1203.9000;0.3769;0.9798;
1204.2000;0.3769;0.9922;
1204.5000;0.3785;0.9922;
1204.8000;0.3753;0.9823;
1205.1000;0.3761;0.9872;
1205.4000;0.3769;0.9872;
1205.7000;0.3753;0.9798;
1206.0000;0.3753;0.9724;
1206.3000;0.3777;0.9798;
1206.6000;0.3761;0.9798;
1206.9000;0.3761;0.9897;
1207.2000;0.3785;0.9897;
1207.5000;0.3769;0.9848;
1207.8000;0.3769;0.9872;
1208.1000;0.3753;0.9823;
1208.4000;0.3826;1.0045;
1208.7000;0.3744;0.9848;
1209.0000;0.3761;0.9823;
1209.3000;0.3875;1.0218;
1209.6000;0.3761;0.9872;
1209.9000;0.3712;0.9724;
1210.2000;0.3761;0.9774;
1210.5000;0.3744;0.9848;
1210.8000;0.3687;0.9823;
1211.1000;0.3736;0.9897;
1211.4000;0.3744;0.9872;
1211.7000;0.3761;0.9798;
1212.0000;0.3769;0.9774;
1212.3000;0.3753;0.9798;
1212.6000;0.3777;0.9897;
1212.9000;0.3826;0.9996;
1213.2000;0.3761;0.9848;
1213.5000;0.3769;0.9946;
1213.8000;0.3744;0.9848;
1214.1000;0.3785;0.9996;
1214.4000;0.3753;0.9946;
1214.7000;0.3769;0.9996;
1215.0000;0.3777;0.9848;
1215.3000;0.3785;0.9872;
1215.6000;0.3777;0.9848;
1215.9000;0.3801;0.9897;
1216.2000;0.3761;0.9774;
1216.5000;0.3793;0.9971;
1216.8000;0.3696;0.9774;
1217.1000;0.3753;0.9922;
1217.4000;0.3753;1.0045;
1217.7000;0.3761;0.9996;
1218.0000;0.3793;0.9971;
1218.3000;0.3744;0.9798;
1218.6000;0.3753;0.9848;
1218.9000;0.3769;0.9922;
1219.2000;0.3785;0.9872;
1219.5000;0.3850;1.0119;
1219.8000;0.3769;0.9946;
1220.1000;0.3769;1.0020;
1220.4000;0.3753;0.9848;
1220.7000;0.3744;0.9922;
1221.0000;0.3736;0.9798;
1221.3000;0.3744;0.9897;
1221.6000;0.3744;0.9922;
1221.9000;0.3761;0.9996;
1222.2000;0.3769;0.9971;
1222.5000;0.3744;0.9946;
1222.8000;0.3753;0.9848;
1223.1000;0.3777;0.9897;
1223.4000;0.3793;0.9872;
1223.7000;0.3761;0.9774;
1224.0000;0.3769;0.9724;
1224.3000;0.3777;0.9724;
1224.6000;0.3761;0.9650;
1224.9000;0.3769;0.9749;
1225.2000;0.3753;0.9823;
1225.5000;0.3875;1.0094;
1225.8000;0.3761;0.9774;
1226.1000;0.3753;0.9798;
1226.4000;0.3744;0.9798;
1226.7000;0.3704;0.9650;
1227.0000;0.3744;0.9700;
1227.3000;0.3736;0.9650;
1227.6000;0.3777;0.9724;
1227.9000;0.3769;0.9774;
1228.2000;0.3761;0.9774;
1228.5000;0.3761;0.9749;
1228.8000;0.3769;0.9823;
1229.1000;0.3769;0.9724;
1229.4000;0.3753;0.9700;
1229.7000;0.3753;0.9700;
1230.0000;0.3769;0.9700;
1230.3000;0.3761;0.9650;
1230.6000;0.3777;0.9675;
1230.9000;0.3777;0.9774;
1231.2000;0.3761;0.9675;
1231.5000;0.3761;0.9675;
1231.8000;0.3793;0.9823;
1232.1000;0.3769;0.9798;
1232.4000;0.3793;0.9724;
1232.7000;0.3777;0.9576;
1233.0000;0.3753;0.9552;
1233.3000;0.3793;0.9700;
1233.6000;0.3769;0.9700;
1233.9000;0.3736;0.9626;
1234.2000;0.3753;0.9675;
1234.5000;0.3744;0.9650;
1234.8000;0.3801;0.9848;
1235.1000;0.3793;0.9872;
1235.4000;0.3728;0.9700;
1235.7000;0.3761;0.9848;
1236.0000;0.3712;0.9774;
1236.3000;0.3753;0.9823;
1236.6000;0.3753;0.9749;
1236.9000;0.3753;0.9749;
1237.2000;0.3761;0.9724;
1237.5000;0.3744;0.9675;
1237.8000;0.3769;0.9798;
1238.1000;0.3736;0.9774;
1238.4000;0.3744;0.9848;
1238.7000;0.3769;0.9848;
1239.0000;0.3761;0.9798;
1239.3000;0.3753;0.9700;
1239.6000;0.3777;0.9774;
1239.9000;0.3785;0.9823;
1240.2000;0.3785;0.9848;
1240.5000;0.3744;0.9798;
1240.8000;0.3761;0.9774;
1241.1000;0.3777;0.9823;
1241.4000;0.3785;0.9823;
1241.7000;0.3736;0.9700;
1242.0000;0.3712;0.9552;
1242.3000;0.3761;0.9700;
1242.6000;0.3761;0.9724;
1242.9000;0.3769;0.9724;
1243.2000;0.3793;0.9749;
1243.5000;0.3793;0.9700;
1243.8000;0.3801;0.9749;
1244.1000;0.3769;0.9650;
1244.4000;0.3777;0.9724;
1244.7000;0.3826;0.9946;
1245.0000;0.3761;0.9798;
1245.3000;0.3769;0.9848;
1245.6000;0.3793;0.9798;
1245.9000;0.3744;0.9774;
1246.2000;0.3728;0.9749;
1246.5000;0.3769;0.9798;
1246.8000;0.3777;0.9897;
1247.1000;0.3736;0.9774;
1247.4000;0.3753;0.9823;
1247.7000;0.3761;0.9922;
1248.0000;0.3769;0.9946;
1248.3000;0.3761;0.9897;
1248.6000;0.3744;0.9922;
1248.9000;0.3753;0.9897;
1249.2000;0.3761;0.9922;
1249.5000;0.3769;0.9922;
1249.8000;0.3744;0.9798;
1250.1000;0.3753;0.9848;
1250.4000;0.3818;1.0020;
1250.7000;0.3785;0.9971;
1251.0000;0.3777;0.9922;
1251.3000;0.3785;0.9946;
1251.6000;0.3761;0.9946;
1251.9000;0.3761;0.9971;
1252.2000;0.3777;1.0020;
1252.5000;0.3753;0.9946;
1252.8000;0.3679;0.9700;
1253.1000;0.3777;0.9996;
1253.4000;0.3777;1.0020;
1253.7000;0.3801;1.0119;
1254.0000;0.3761;1.0070;
1254.3000;0.3761;1.0094;
1254.6000;0.3785;1.0094;
1254.9000;0.3753;0.9971;
1255.2000;0.3761;0.9946;
1255.5000;0.3761;0.9996;
1255.8000;0.3883;1.0267;
1256.1000;0.3744;0.9971;
1256.4000;0.3801;1.0144;
1256.7000;0.3777;1.0119;
1257.0000;0.3810;1.0218;
1257.3000;0.3785;1.0193;
1257.6000;0.3761;1.0045;
1257.9000;0.3761;0.9971;
1258.2000;0.3769;0.9922;
1258.5000;0.3785;0.9922;
1258.8000;0.3858;0.9996;
1259.1000;0.3801;0.9848;
1259.4000;0.3801;0.9922;
1259.7000;0.3777;0.9872;
1260.0000;0.3777;0.9798;
1260.3000;0.3769;0.9823;
1260.6000;0.3810;0.9872;
1260.9000;0.3753;0.9724;
1261.2000;0.3753;0.9774;
1261.5000;0.3777;0.9848;
1261.8000;0.3777;0.9823;
1262.1000;0.3769;0.9897;
1262.4000;0.3777;0.9996;
1262.7000;0.3744;0.9848;
1263.0000;0.3761;0.9798;
1263.3000;0.3777;0.9798;
1263.6000;0.3777;0.9848;
1263.9000;0.3793;0.9848;
1264.2000;0.3761;0.9749;
1264.5000;0.3777;0.9823;
1264.8000;0.3769;0.9774;
1265.1000;0.3785;0.9700;
1265.4000;0.3769;0.9601;
1265.7000;0.3744;0.9527;
1266.0000;0.3761;0.9601;
1266.3000;0.3777;0.9601;
1266.6000;0.3769;0.9650;
1266.9000;0.3761;0.9675;
1267.2000;0.3728;0.9527;
1267.5000;0.3761;0.9576;
1267.8000;0.3761;0.9626;
1268.1000;0.3753;0.9601;
1268.4000;0.3769;0.9650;
1268.7000;0.3744;0.9650;
1269.0000;0.3769;0.9798;
1269.3000;0.3744;0.9749;
1269.6000;0.3753;0.9823;
1269.9000;0.3769;0.9798;
1270.2000;0.3753;0.9700;
1270.5000;0.3753;0.9724;
1270.8000;0.3753;0.9749;
1271.1000;0.3753;0.9823;
1271.4000;0.3744;0.9872;
1271.7000;0.3753;0.9848;
1272.0000;0.3744;0.9872;
1272.3000;0.3736;0.9823;
1272.6000;0.3761;0.9848;
1272.9000;0.3769;0.9872;
1273.2000;0.3761;0.9848;
1273.5000;0.3761;0.9823;
1273.8000;0.3785;0.9897;
1274.1000;0.3744;0.9675;
1274.4000;0.3785;0.9774;
1274.7000;0.3777;0.9749;
1275.0000;0.3769;0.9823;
1275.3000;0.3777;0.9946;
1275.6000;0.3769;0.9971;
1275.9000;0.3761;0.9897;
1276.2000;0.3769;0.9897;
1276.5000;0.3761;0.9971;
1276.8000;0.3769;0.9996;
1277.1000;0.3793;1.0070;
1277.4000;0.3744;0.9946;
1277.7000;0.3744;0.9922;
1278.0000;0.3736;0.9798;
1278.3000;0.3769;0.9823;
1278.6000;0.3785;0.9872;
1278.9000;0.3753;0.9848;
1279.2000;0.3777;0.9848;
1279.5000;0.3769;0.9798;
1279.8000;0.3769;0.9823;
1280.1000;0.3761;0.9823;
1280.4000;0.3736;0.9798;
1280.7000;0.3761;0.9872;
1281.0000;0.3769;0.9897;
1281.3000;0.3769;0.9922;
1281.6000;0.3777;1.0020;
1281.9000;0.3761;1.0070;
1282.2000;0.3777;1.0094;
1282.5000;0.3769;0.9971;
1282.8000;0.3801;1.0045;
1283.1000;0.3777;0.9922;
1283.4000;0.3761;0.9922;
1283.7000;0.3761;0.9922;
1284.0000;0.3736;0.9872;
1284.3000;0.3736;0.9798;
1284.6000;0.3744;0.9774;
1284.9000;0.3744;0.9774;
1285.2000;0.3753;0.9774;
1285.5000;0.3761;0.9823;
1285.8000;0.3793;0.9872;
1286.1000;0.3777;0.9774;
1286.4000;0.3785;0.9774;
1286.7000;0.3712;0.9502;
1287.0000;0.3785;0.9724;
1287.3000;0.3777;0.9749;
1287.6000;0.3777;0.9700;
1287.9000;0.3753;0.9601;
1288.2000;0.3761;0.9650;
1288.5000;0.3777;0.9724;
1288.8000;0.3785;0.9798;
1289.1000;0.3777;0.9872;
1289.4000;0.3793;0.9872;
1289.7000;0.3785;0.9922;
1290.0000;0.3769;0.9897;
1290.3000;0.3777;0.9946;
1290.6000;0.3761;0.9946;
1290.9000;0.3785;0.9922;
1291.2000;0.3753;0.9946;
1291.5000;0.3785;0.9996;
1291.8000;0.3744;0.9922;
1292.1000;0.3769;0.9971;
1292.4000;0.3761;0.9971;
1292.7000;0.3769;0.9922;
1293.0000;0.3753;0.9996;
1293.3000;0.3753;0.9996;
1293.6000;0.3777;1.0045;
1293.9000;0.3769;0.9996;
1294.2000;0.3777;0.9996;
1294.5000;0.3753;0.9897;
1294.8000;0.3744;0.9946;
1295.1000;0.3777;0.9946;
1295.4000;0.3728;0.9774;
1295.7000;0.3753;0.9798;
1296.0000;0.3785;0.9823;
1296.3000;0.3785;0.9774;
1296.6000;0.3769;0.9823;
1296.9000;0.3777;0.9872;
1297.2000;0.3761;0.9897;
1297.5000;0.3793;0.9971;
1297.8000;0.3744;0.9922;
1298.1000;0.3761;0.9922;
1298.4000;0.3777;0.9897;
1298.7000;0.3753;0.9872;
1299.0000;0.3761;0.9848;
1299.3000;0.3818;1.0094;
1299.6000;0.3753;0.9897;
1299.9000;0.3785;0.9872;
1300.2000;0.3777;0.9897;
1300.5000;0.3679;0.9774;
1300.8000;0.3753;0.9996;
1301.1000;0.3769;0.9996;
1301.4000;0.3769;0.9996;
1301.7000;0.3777;0.9996;
1302.0000;0.3777;0.9971;
1302.3000;0.3785;0.9996;
1302.6000;0.3793;0.9946;
1302.9000;0.3777;0.9897;
1303.2000;0.3687;0.9650;
1303.5000;0.3777;0.9749;
1303.8000;0.3801;0.9774;
1304.1000;0.3744;0.9724;
1304.4000;0.3761;0.9798;
1304.7000;0.3777;0.9823;
1305.0000;0.3736;0.9724;
1305.3000;0.3785;0.9675;
1305.6000;0.3761;0.9675;
1305.9000;0.3753;0.9700;
1306.2000;0.3761;0.9749;
1306.5000;0.3744;0.9774;
1306.8000;0.3769;0.9872;
1307.1000;0.3769;0.9897;
1307.4000;0.3712;0.9922;
1307.7000;0.3753;0.9996;
1308.0000;0.3769;0.9996;
1308.3000;0.3761;0.9897;
1308.6000;0.3785;0.9897;
1308.9000;0.3769;0.9848;
1309.2000;0.3777;0.9798;
1309.5000;0.3761;0.9872;
1309.8000;0.3753;1.0020;
1310.1000;0.3761;0.9996;
1310.4000;0.3761;0.9946;
1310.7000;0.3744;0.9798;
1311.0000;0.3769;0.9749;
1311.3000;0.3753;0.9798;
1311.6000;0.3801;0.9946;
1311.9000;0.3753;0.9872;
1312.2000;0.3769;0.9823;
1312.5000;0.3679;0.9650;
1312.8000;0.3761;0.9872;
1313.1000;0.3761;0.9774;
1313.4000;0.3785;0.9774;
1313.7000;0.3777;0.9749;
1314.0000;0.3769;0.9700;
1314.3000;0.3793;0.9700;
1314.6000;0.3753;0.9502;
1314.9000;0.3769;0.9527;
1315.2000;0.3761;0.9626;
1315.5000;0.3777;0.9626;
1315.8000;0.3785;0.9724;
1316.1000;0.3769;0.9749;
1316.4000;0.3777;0.9675;
1316.7000;0.3761;0.9601;
1317.0000;0.3761;0.9552;
1317.3000;0.3769;0.9675;
1317.6000;0.3948;1.0045;
1317.9000;0.3753;0.9403;
1318.2000;0.3777;0.9502;
1318.5000;0.3777;0.9527;
1318.8000;0.3810;0.9601;
1319.1000;0.3777;0.9527;
1319.4000;0.3761;0.9552;
1319.7000;0.3777;0.9527;
1320.0000;0.3761;0.9675;
1320.3000;0.3687;0.9650;
1320.6000;0.3769;0.9823;
1320.9000;0.3761;0.9798;
1321.2000;0.3761;0.9823;
1321.5000;0.3785;0.9848;
1321.8000;0.3704;0.9774;
1322.1000;0.3761;0.9872;
1322.4000;0.3769;0.9897;
1322.7000;0.3777;0.9946;
1323.0000;0.3761;0.9872;
1323.3000;0.3801;0.9897;
1323.6000;0.3777;0.9823;
1323.9000;0.3801;0.9774;
1324.2000;0.3777;0.9749;
1324.5000;0.3744;0.9724;
1324.8000;0.3785;0.9848;
1325.1000;0.3769;0.9848;
1325.4000;0.3785;0.9848;
1325.7000;0.3777;0.9798;
1326.0000;0.3777;0.9798;
1326.3000;0.3744;0.9650;
1326.6000;0.3769;0.9626;
1326.9000;0.3834;0.9848;
1327.2000;0.3769;0.9774;
1327.5000;0.3834;0.9971;
1327.8000;0.3777;0.9798;
1328.1000;0.3777;0.9749;
1328.4000;0.3761;0.9774;
1328.7000;0.3769;0.9700;
1329.0000;0.3753;0.9650;
1329.3000;0.3850;0.9823;
1329.6000;0.3761;0.9601;
1329.9000;0.3663;0.9379;
1330.2000;0.3801;0.9700;
1330.5000;0.3801;0.9749;
1330.8000;0.3777;0.9626;
1331.1000;0.3777;0.9552;
1331.4000;0.3777;0.9527;
1331.7000;0.3761;0.9527;
1332.0000;0.3744;0.9527;
1332.3000;0.3761;0.9601;
1332.6000;0.3769;0.9650;
1332.9000;0.3777;0.9774;
1333.2000;0.3753;0.9724;
1333.5000;0.3744;0.9700;
1333.8000;0.3687;0.9601;
1334.1000;0.3753;0.9798;
1334.4000;0.3761;0.9774;
1334.7000;0.3744;0.9700;
1335.0000;0.3696;0.9477;
1335.3000;0.3769;0.9650;
1335.6000;0.3777;0.9749;
1335.9000;0.3671;0.9527;
1336.2000;0.3753;0.9724;
1336.5000;0.3761;0.9675;
1336.8000;0.3712;0.9477;
1337.1000;0.3761;0.9552;
1337.4000;0.3761;0.9527;
1337.7000;0.3785;0.9527;
1338.0000;0.3777;0.9502;
1338.3000;0.3777;0.9552;
1338.6000;0.3777;0.9502;
1338.9000;0.3793;0.9626;
1339.2000;0.3753;0.9601;
1339.5000;0.3785;0.9749;
1339.8000;0.3769;0.9650;
1340.1000;0.3785;0.9798;
1340.4000;0.3785;0.9848;
1340.7000;0.3777;0.9774;
1341.0000;0.3761;0.9724;
1341.3000;0.3793;0.9724;
1341.6000;0.3777;0.9749;
1341.9000;0.3777;0.9774;
1342.2000;0.3785;0.9774;
1342.5000;0.3761;0.9774;
1342.8000;0.3793;0.9823;
1343.1000;0.3785;0.9774;
1343.4000;0.3842;0.9971;
1343.7000;0.3720;0.9700;
1344.0000;0.3777;0.9798;
1344.3000;0.3736;0.9724;
1344.6000;0.3769;0.9724;
1344.9000;0.3769;0.9675;
1345.2000;0.3777;0.9749;
1345.5000;0.3761;0.9823;
1345.8000;0.3753;0.9774;
1346.1000;0.3769;0.9922;
1346.4000;0.3720;0.9922;
1346.7000;0.3777;1.0094;
1347.0000;0.3769;1.0070;
1347.3000;0.3769;1.0070;
1347.6000;0.3744;0.9946;
1347.9000;0.3736;0.9922;
1348.2000;0.3753;0.9897;
1348.5000;0.3810;1.0020;
1348.8000;0.3801;0.9996;
1349.1000;0.3777;1.0020;
1349.4000;0.3744;0.9971;
1349.7000;0.3712;0.9897;
1350.0000;0.3777;0.9971;
1350.3000;0.3785;0.9971;
1350.6000;0.3761;0.9872;
1350.9000;0.3720;0.9823;
1351.2000;0.3769;0.9872;
1351.5000;0.3744;0.9872;
1351.8000;0.3826;0.9897;
1352.1000;0.3687;0.9576;
1352.4000;0.3761;0.9872;
1352.7000;0.3753;0.9897;
1353.0000;0.3850;1.0193;
1353.3000;0.3744;0.9897;
1353.6000;0.3777;0.9848;
1353.9000;0.3744;0.9700;
1354.2000;0.3793;0.9897;
1354.5000;0.3785;0.9848;
1354.8000;0.3785;0.9872;
1355.1000;0.3769;0.9872;
1355.4000;0.3777;0.9749;
1355.7000;0.3761;0.9749;
1356.0000;0.3769;0.9724;
1356.3000;0.3744;0.9650;
1356.6000;0.3753;0.9700;
1356.9000;0.3801;0.9848;
1357.2000;0.3777;0.9774;
1357.5000;0.3761;0.9724;
1357.8000;0.3761;0.9675;
1358.1000;0.3777;0.9798;
1358.4000;0.3720;0.9650;
1358.7000;0.3679;0.9700;
1359.0000;0.3744;0.9848;
1359.3000;0.3761;0.9872;
1359.6000;0.3842;1.0094;
1359.9000;0.3712;0.9823;
1360.2000;0.3777;0.9971;
1360.5000;0.3761;0.9872;
1360.8000;0.3736;0.9872;
1361.1000;0.3761;0.9971;
1361.4000;0.3761;1.0020;
1361.7000;0.3769;1.0020;
1362.0000;0.3769;0.9922;
1362.3000;0.3769;0.9922;
1362.6000;0.3753;0.9971;
1362.9000;0.3753;0.9971;
1363.2000;0.3761;0.9897;
1363.5000;0.3793;0.9996;
1363.8000;0.3793;0.9946;
1364.1000;0.3777;0.9774;
1364.4000;0.3793;0.9798;
1364.7000;0.3761;0.9823;
1365.0000;0.3769;0.9823;
1365.3000;0.3777;0.9724;
1365.6000;0.3753;0.9700;
1365.9000;0.3769;0.9749;
1366.2000;0.3793;0.9774;
1366.5000;0.3761;0.9749;
1366.8000;0.3769;0.9724;
1367.1000;0.3761;0.9724;
1367.4000;0.3769;0.9798;
1367.7000;0.3793;0.9897;
1368.0000;0.3793;0.9848;
1368.3000;0.3761;0.9749;
1368.6000;0.3818;0.9897;
1368.9000;0.3753;0.9823;
1369.2000;0.3785;0.9798;
1369.5000;0.3777;0.9798;
1369.8000;0.3753;0.9823;
1370.1000;0.3769;0.9823;
1370.4000;0.3777;0.9922;
1370.7000;0.3777;0.9996;
1371.0000;0.3769;1.0020;
1371.3000;0.3785;1.0020;
1371.6000;0.3777;0.9996;
1371.9000;0.3777;0.9946;
1372.2000;0.3761;0.9897;
1372.5000;0.3769;0.9922;
1372.8000;0.3769;0.9897;
1373.1000;0.3769;0.9922;
1373.4000;0.3769;0.9946;
1373.7000;0.3785;0.9922;
1374.0000;0.3810;1.0020;
1374.3000;0.3728;0.9922;
1374.6000;0.3769;0.9946;
1374.9000;0.3720;0.9848;
1375.2000;0.3769;0.9946;
1375.5000;0.3769;0.9872;
1375.8000;0.3761;0.9823;
1376.1000;0.3769;0.9823;
1376.4000;0.3834;1.0094;
1376.7000;0.3785;1.0020;
1377.0000;0.3753;0.9922;
1377.3000;0.3761;0.9946;
1377.6000;0.3753;0.9971;
1377.9000;0.3785;1.0020;
1378.2000;0.3777;0.9996;
1378.5000;0.3761;0.9922;
1378.8000;0.3769;0.9897;
1379.1000;0.3785;0.9922;
1379.4000;0.3769;0.9798;
1379.7000;0.3769;0.9700;
1380.0000;0.3777;0.9749;
1380.3000;0.3761;0.9626;
1380.6000;0.3753;0.9675;
1380.9000;0.3769;0.9601;
1381.2000;0.3777;0.9700;
1381.5000;0.3793;0.9798;
1381.8000;0.3769;0.9700;
1382.1000;0.3818;0.9798;
1382.4000;0.3736;0.9601;
1382.7000;0.3769;0.9675;
1383.0000;0.3777;0.9675;
1383.3000;0.3761;0.9774;
1383.6000;0.3785;0.9798;
1383.9000;0.3761;0.9774;
1384.2000;0.3777;0.9774;
1384.5000;0.3777;0.9848;
1384.8000;0.3761;0.9798;
1385.1000;0.3761;0.9724;
1385.4000;0.3777;0.9749;
1385.7000;0.3777;0.9897;
1386.0000;0.3777;0.9872;
1386.3000;0.3761;0.9897;
1386.6000;0.3801;1.0020;
1386.9000;0.3793;0.9971;
1387.2000;0.3883;1.0169;
1387.5000;0.3777;0.9823;
1387.8000;0.3834;0.9872;
1388.1000;0.3785;0.9774;
1388.4000;0.3801;0.9774;
1388.7000;0.3777;0.9626;
1389.0000;0.3769;0.9650;
1389.3000;0.3769;0.9675;
1389.6000;0.3777;0.9700;
1389.9000;0.3761;0.9749;
1390.2000;0.3777;0.9700;
1390.5000;0.3769;0.9872;
1390.8000;0.3801;0.9996;
1391.1000;0.3842;1.0144;
1391.4000;0.3785;0.9971;
1391.7000;0.3785;0.9922;
1392.0000;0.3818;1.0070;
1392.3000;0.3777;0.9922;
1392.6000;0.3777;0.9922;
1392.9000;0.3777;0.9848;
1393.2000;0.3769;0.9872;
1393.5000;0.3777;0.9946;
1393.8000;0.3777;0.9946;
1394.1000;0.3769;0.9872;
1394.4000;0.3793;0.9946;
1394.7000;0.3769;0.9823;
1395.0000;0.3777;0.9848;
1395.3000;0.3769;0.9848;
1395.6000;0.3769;0.9774;
1395.9000;0.3793;0.9774;
1396.2000;0.3769;0.9749;
1396.5000;0.3777;0.9774;
1396.8000;0.3769;0.9774;
1397.1000;0.3785;0.9848;
1397.4000;0.3785;0.9897;
1397.7000;0.3769;0.9823;
1398.0000;0.3769;0.9724;
1398.3000;0.3753;0.9774;
1398.6000;0.3753;0.9823;
1398.9000;0.3769;0.9823;
1399.2000;0.3761;0.9848;
1399.5000;0.3769;0.9897;
1399.8000;0.3777;0.9872;
