time/ms;Fluo/V;P700 deltaI/I x10³;
-199.8000;0.3785;0.9798;
-199.5000;0.3793;0.9749;
-199.2000;0.3810;0.9823;
-198.9000;0.3785;0.9798;
-198.6000;0.3761;0.9774;
-198.3000;0.3801;0.9823;
-198.0000;0.3793;0.9823;
-197.7000;0.3785;0.9774;
-197.4000;0.3785;0.9749;
-197.1000;0.3793;0.9798;
-196.8000;0.3777;0.9823;
-196.5000;0.3793;0.9798;
-196.2000;0.3801;0.9798;
-195.9000;0.3793;0.9749;
-195.6000;0.3842;0.9848;
-195.3000;0.3777;0.9774;
-195.0000;0.3793;0.9823;
-194.7000;0.3801;0.9872;
-194.4000;0.3704;0.9626;
-194.1000;0.3810;0.9872;
-193.8000;0.3793;0.9774;
-193.5000;0.3801;0.9848;
-193.2000;0.3801;0.9872;
-192.9000;0.3793;0.9897;
-192.6000;0.3818;0.9946;
-192.3000;0.3899;1.0119;
-192.0000;0.3785;0.9823;
-191.7000;0.3793;0.9848;
-191.4000;0.3728;0.9700;
-191.1000;0.3785;0.9848;
-190.8000;0.3801;0.9922;
-190.5000;0.3850;0.9897;
-190.2000;0.3801;0.9749;
-189.9000;0.3769;0.9724;
-189.6000;0.3793;0.9774;
-189.3000;0.3801;0.9823;
-189.0000;0.3810;0.9823;
-188.7000;0.3858;1.0020;
-188.4000;0.3801;0.9798;
-188.1000;0.3785;0.9700;
-187.8000;0.3810;0.9823;
-187.5000;0.3801;0.9724;
-187.2000;0.3810;0.9749;
-186.9000;0.3793;0.9650;
-186.6000;0.3793;0.9798;
-186.3000;0.3777;0.9774;
-186.0000;0.3793;0.9848;
-185.7000;0.3801;0.9872;
-185.4000;0.3826;0.9996;
-185.1000;0.3801;0.9897;
-184.8000;0.3712;0.9774;
-184.5000;0.3785;0.9922;
-184.2000;0.3777;0.9848;
-183.9000;0.3810;0.9823;
-183.6000;0.3818;0.9774;
-183.3000;0.3793;0.9774;
-183.0000;0.3801;0.9749;
-182.7000;0.3818;0.9700;
-182.4000;0.3834;0.9675;
-182.1000;0.3793;0.9700;
-181.8000;0.3793;0.9700;
-181.5000;0.3777;0.9675;
-181.2000;0.3907;1.0144;
-180.9000;0.3785;0.9897;
-180.6000;0.3793;0.9823;
-180.3000;0.3785;0.9798;
-180.0000;0.3801;0.9798;
-179.7000;0.3818;0.9798;
-179.4000;0.3907;0.9996;
-179.1000;0.3785;0.9626;
-178.8000;0.3810;0.9724;
-178.5000;0.3801;0.9650;
-178.2000;0.3810;0.9700;
-177.9000;0.3753;0.9552;
-177.6000;0.3793;0.9749;
-177.3000;0.3826;0.9798;
-177.0000;0.3810;0.9774;
-176.7000;0.3826;0.9798;
-176.4000;0.3818;0.9848;
-176.1000;0.3826;0.9848;
-175.8000;0.3801;0.9749;
-175.5000;0.3826;0.9823;
-175.2000;0.3801;0.9848;
-174.9000;0.3793;0.9724;
-174.6000;0.3801;0.9700;
-174.3000;0.3793;0.9650;
-174.0000;0.3801;0.9724;
-173.7000;0.3785;0.9675;
-173.4000;0.3793;0.9650;
-173.1000;0.3801;0.9774;
-172.8000;0.3793;0.9774;
-172.5000;0.3818;0.9848;
-172.2000;0.3793;0.9749;
-171.9000;0.3736;0.9477;
-171.6000;0.3801;0.9601;
-171.3000;0.3793;0.9576;
-171.0000;0.3785;0.9502;
-170.7000;0.3810;0.9576;
-170.4000;0.3801;0.9601;
-170.1000;0.3801;0.9576;
-169.8000;0.3810;0.9576;
-169.5000;0.3793;0.9428;
-169.2000;0.3793;0.9502;
-168.9000;0.3785;0.9477;
-168.6000;0.3810;0.9502;
-168.3000;0.3810;0.9527;
-168.0000;0.3801;0.9502;
-167.7000;0.3785;0.9502;
-167.4000;0.3834;0.9650;
-167.1000;0.3810;0.9724;
-166.8000;0.3818;0.9650;
-166.5000;0.3810;0.9601;
-166.2000;0.3793;0.9576;
-165.9000;0.3801;0.9626;
-165.6000;0.3850;0.9749;
-165.3000;0.3720;0.9527;
-165.0000;0.3785;0.9700;
-164.7000;0.3793;0.9749;
-164.4000;0.3785;0.9749;
-164.1000;0.3793;0.9798;
-163.8000;0.3753;0.9601;
-163.5000;0.3793;0.9675;
-163.2000;0.3777;0.9477;
-162.9000;0.3785;0.9477;
-162.6000;0.3793;0.9552;
-162.3000;0.3728;0.9354;
-162.0000;0.3818;0.9626;
-161.7000;0.3818;0.9626;
-161.4000;0.3810;0.9552;
-161.1000;0.3785;0.9428;
-160.8000;0.3777;0.9354;
-160.5000;0.3801;0.9329;
-160.2000;0.3826;0.9403;
-159.9000;0.3785;0.9329;
-159.6000;0.3818;0.9428;
-159.3000;0.3810;0.9403;
-159.0000;0.3793;0.9403;
-158.7000;0.3720;0.9157;
-158.4000;0.3785;0.9329;
-158.1000;0.3801;0.9354;
-157.8000;0.3801;0.9329;
-157.5000;0.3769;0.9231;
-157.2000;0.3793;0.9255;
-156.9000;0.3818;0.9379;
-156.6000;0.3769;0.9305;
-156.3000;0.3769;0.9354;
-156.0000;0.3810;0.9428;
-155.7000;0.3736;0.9305;
-155.4000;0.3785;0.9453;
-155.1000;0.3818;0.9502;
-154.8000;0.3801;0.9527;
-154.5000;0.3696;0.9280;
-154.2000;0.3753;0.9527;
-153.9000;0.3810;0.9675;
-153.6000;0.3810;0.9774;
-153.3000;0.3801;0.9798;
-153.0000;0.3793;0.9872;
-152.7000;0.3793;0.9872;
-152.4000;0.3793;0.9897;
-152.1000;0.3801;0.9897;
-151.8000;0.3785;0.9872;
-151.5000;0.3785;0.9946;
-151.2000;0.3793;0.9922;
-150.9000;0.3777;0.9872;
-150.6000;0.3810;0.9922;
-150.3000;0.3785;0.9897;
-150.0000;0.3769;0.9897;
-149.7000;0.3777;0.9922;
-149.4000;0.3810;0.9971;
-149.1000;0.3793;0.9922;
-148.8000;0.3826;0.9946;
-148.5000;0.3810;0.9774;
-148.2000;0.3891;1.0020;
-147.9000;0.3793;0.9848;
-147.6000;0.3842;0.9946;
-147.3000;0.3793;0.9823;
-147.0000;0.3801;0.9848;
-146.7000;0.3810;0.9798;
-146.4000;0.3793;0.9724;
-146.1000;0.3810;0.9749;
-145.8000;0.3810;0.9749;
-145.5000;0.3793;0.9749;
-145.2000;0.3810;0.9774;
-144.9000;0.3810;0.9798;
-144.6000;0.3891;1.0144;
-144.3000;0.3801;0.9848;
-144.0000;0.3810;0.9774;
-143.7000;0.3810;0.9848;
-143.4000;0.3810;0.9872;
-143.1000;0.3777;0.9823;
-142.8000;0.3801;0.9848;
-142.5000;0.3785;0.9798;
-142.2000;0.3818;0.9872;
-141.9000;0.3810;0.9774;
-141.6000;0.3810;0.9774;
-141.3000;0.3818;0.9848;
-141.0000;0.3753;0.9601;
-140.7000;0.3793;0.9675;
-140.4000;0.3793;0.9774;
-140.1000;0.3696;0.9576;
-139.8000;0.3777;0.9749;
-139.5000;0.3704;0.9527;
-139.2000;0.3712;0.9552;
-138.9000;0.3810;0.9848;
-138.6000;0.3801;0.9872;
-138.3000;0.3842;0.9996;
-138.0000;0.3785;0.9897;
-137.7000;0.3810;0.9946;
-137.4000;0.3834;0.9946;
-137.1000;0.3826;0.9946;
-136.8000;0.3810;0.9946;
-136.5000;0.3801;0.9848;
-136.2000;0.3793;0.9798;
-135.9000;0.3801;0.9774;
-135.6000;0.3801;0.9724;
-135.3000;0.3777;0.9650;
-135.0000;0.3818;0.9774;
-134.7000;0.3801;0.9700;
-134.4000;0.3842;0.9700;
-134.1000;0.3793;0.9601;
-133.8000;0.3785;0.9724;
-133.5000;0.3793;0.9774;
-133.2000;0.3777;0.9601;
-132.9000;0.3793;0.9626;
-132.6000;0.3769;0.9650;
-132.3000;0.3761;0.9675;
-132.0000;0.3801;0.9724;
-131.7000;0.3826;0.9798;
-131.4000;0.3891;0.9897;
-131.1000;0.3801;0.9626;
-130.8000;0.3793;0.9552;
-130.5000;0.3810;0.9650;
-130.2000;0.3810;0.9576;
-129.9000;0.3858;0.9700;
-129.6000;0.3793;0.9552;
-129.3000;0.3801;0.9576;
-129.0000;0.3785;0.9576;
-128.7000;0.3793;0.9601;
-128.4000;0.3785;0.9700;
-128.1000;0.3842;0.9922;
-127.8000;0.3793;0.9724;
-127.5000;0.3793;0.9724;
-127.2000;0.3769;0.9601;
-126.9000;0.3777;0.9724;
-126.6000;0.3801;0.9749;
-126.3000;0.3785;0.9774;
-126.0000;0.3810;0.9774;
-125.7000;0.3793;0.9774;
-125.4000;0.3818;0.9774;
-125.1000;0.3818;0.9774;
-124.8000;0.3801;0.9626;
-124.5000;0.3793;0.9626;
-124.2000;0.3785;0.9576;
-123.9000;0.3810;0.9626;
-123.6000;0.3810;0.9675;
-123.3000;0.3923;0.9922;
-123.0000;0.3818;0.9700;
-122.7000;0.3818;0.9700;
-122.4000;0.3793;0.9626;
-122.1000;0.3769;0.9527;
-121.8000;0.3793;0.9650;
-121.5000;0.3728;0.9576;
-121.2000;0.3826;0.9848;
-120.9000;0.3858;0.9946;
-120.6000;0.3867;0.9922;
-120.3000;0.3801;0.9774;
-120.0000;0.3834;0.9848;
-119.7000;0.3793;0.9724;
-119.4000;0.3801;0.9823;
-119.1000;0.3761;0.9749;
-118.8000;0.3801;0.9774;
-118.5000;0.3826;0.9872;
-118.2000;0.3785;0.9749;
-117.9000;0.3793;0.9798;
-117.6000;0.3818;0.9872;
-117.3000;0.3834;0.9848;
-117.0000;0.3785;0.9724;
-116.7000;0.3793;0.9749;
-116.4000;0.3801;0.9724;
-116.1000;0.3753;0.9675;
-115.8000;0.3801;0.9798;
-115.5000;0.3785;0.9724;
-115.2000;0.3777;0.9700;
-114.9000;0.3810;0.9650;
-114.6000;0.3810;0.9601;
-114.3000;0.3818;0.9700;
-114.0000;0.3785;0.9650;
-113.7000;0.3826;0.9700;
-113.4000;0.3785;0.9626;
-113.1000;0.3801;0.9626;
-112.8000;0.3793;0.9650;
-112.5000;0.3801;0.9675;
-112.2000;0.3777;0.9650;
-111.9000;0.3801;0.9650;
-111.6000;0.3891;0.9946;
-111.3000;0.3810;0.9650;
-111.0000;0.3801;0.9675;
-110.7000;0.3818;0.9700;
-110.4000;0.3785;0.9601;
-110.1000;0.3810;0.9675;
-109.8000;0.3793;0.9675;
-109.5000;0.3801;0.9774;
-109.2000;0.3777;0.9601;
-108.9000;0.3785;0.9700;
-108.6000;0.3801;0.9798;
-108.3000;0.3793;0.9798;
-108.0000;0.3769;0.9798;
-107.7000;0.3793;0.9798;
-107.4000;0.3907;1.0045;
-107.1000;0.3793;0.9675;
-106.8000;0.3679;0.9379;
-106.5000;0.3785;0.9601;
-106.2000;0.3842;0.9724;
-105.9000;0.3769;0.9700;
-105.6000;0.3842;0.9872;
-105.3000;0.3761;0.9675;
-105.0000;0.3826;0.9774;
-104.7000;0.3810;0.9675;
-104.4000;0.3785;0.9650;
-104.1000;0.3785;0.9552;
-103.8000;0.3793;0.9552;
-103.5000;0.3761;0.9453;
-103.2000;0.3801;0.9576;
-102.9000;0.3793;0.9477;
-102.6000;0.3793;0.9650;
-102.3000;0.3777;0.9700;
-102.0000;0.3777;0.9700;
-101.7000;0.3793;0.9774;
-101.4000;0.3793;0.9749;
-101.1000;0.3785;0.9724;
-100.8000;0.3793;0.9576;
-100.5000;0.3793;0.9675;
-100.2000;0.3720;0.9527;
-99.9000;0.3858;0.9798;
-99.6000;0.3810;0.9626;
-99.3000;0.3793;0.9650;
-99.0000;0.3801;0.9675;
-98.7000;0.3810;0.9700;
-98.4000;0.3818;0.9798;
-98.1000;0.3818;0.9798;
-97.8000;0.3810;0.9774;
-97.5000;0.3777;0.9798;
-97.2000;0.3793;0.9922;
-96.9000;0.3801;0.9922;
-96.6000;0.3818;1.0020;
-96.3000;0.3761;0.9848;
-96.0000;0.3810;0.9922;
-95.7000;0.3793;0.9872;
-95.4000;0.3810;0.9872;
-95.1000;0.3801;0.9823;
-94.8000;0.3793;0.9897;
-94.5000;0.3769;0.9897;
-94.2000;0.3793;0.9971;
-93.9000;0.3810;0.9996;
-93.6000;0.3793;0.9971;
-93.3000;0.3793;0.9996;
-93.0000;0.3818;1.0070;
-92.7000;0.3785;0.9946;
-92.4000;0.3744;0.9823;
-92.1000;0.3777;0.9872;
-91.8000;0.3793;0.9897;
-91.5000;0.3793;1.0045;
-91.2000;0.3793;0.9996;
-90.9000;0.3785;0.9971;
-90.6000;0.3850;1.0045;
-90.3000;0.3834;0.9922;
-90.0000;0.3801;0.9823;
-89.7000;0.3793;0.9946;
-89.4000;0.3793;0.9946;
-89.1000;0.3801;0.9823;
-88.8000;0.3826;0.9798;
-88.5000;0.3793;0.9823;
-88.2000;0.3793;0.9848;
-87.9000;0.3801;0.9897;
-87.6000;0.3818;1.0045;
-87.3000;0.3883;1.0218;
-87.0000;0.3793;0.9996;
-86.7000;0.3793;0.9971;
-86.4000;0.3753;0.9922;
-86.1000;0.3810;0.9971;
-85.8000;0.3810;0.9971;
-85.5000;0.3810;0.9946;
-85.2000;0.3793;0.9946;
-84.9000;0.3810;0.9946;
-84.6000;0.3793;0.9823;
-84.3000;0.3753;0.9724;
-84.0000;0.3801;0.9946;
-83.7000;0.3777;0.9946;
-83.4000;0.3801;0.9971;
-83.1000;0.3818;0.9946;
-82.8000;0.3777;0.9872;
-82.5000;0.3810;0.9897;
-82.2000;0.3785;0.9724;
-81.9000;0.3785;0.9798;
-81.6000;0.3785;0.9823;
-81.3000;0.3801;0.9897;
-81.0000;0.3801;0.9971;
-80.7000;0.3777;0.9897;
-80.4000;0.3761;0.9872;
-80.1000;0.3769;0.9823;
-79.8000;0.3793;0.9872;
-79.5000;0.3793;0.9823;
-79.2000;0.3818;0.9897;
-78.9000;0.3801;0.9872;
-78.6000;0.3801;0.9897;
-78.3000;0.3810;0.9922;
-78.0000;0.3777;0.9872;
-77.7000;0.3793;0.9922;
-77.4000;0.3793;0.9848;
-77.1000;0.3801;0.9798;
-76.8000;0.3826;0.9946;
-76.5000;0.3793;0.9971;
-76.2000;0.3769;0.9922;
-75.9000;0.3818;0.9946;
-75.6000;0.3801;0.9798;
-75.3000;0.3810;0.9724;
-75.0000;0.3793;0.9601;
-74.7000;0.3801;0.9527;
-74.4000;0.3793;0.9453;
-74.1000;0.3818;0.9576;
-73.8000;0.3793;0.9552;
-73.5000;0.3777;0.9502;
-73.2000;0.3810;0.9576;
-72.9000;0.3801;0.9601;
-72.6000;0.3793;0.9626;
-72.3000;0.3801;0.9749;
-72.0000;0.3801;0.9848;
-71.7000;0.3744;0.9724;
-71.4000;0.3712;0.9675;
-71.1000;0.3785;0.9848;
-70.8000;0.3818;0.9922;
-70.5000;0.3777;0.9749;
-70.2000;0.3793;0.9700;
-69.9000;0.3777;0.9700;
-69.6000;0.3777;0.9700;
-69.3000;0.3785;0.9798;
-69.0000;0.3793;0.9774;
-68.7000;0.3801;0.9798;
-68.4000;0.3899;1.0045;
-68.1000;0.3793;0.9872;
-67.8000;0.3785;0.9946;
-67.5000;0.3834;1.0045;
-67.2000;0.3810;0.9897;
-66.9000;0.3793;0.9798;
-66.6000;0.3785;0.9774;
-66.3000;0.3826;0.9872;
-66.0000;0.3810;0.9872;
-65.7000;0.3793;0.9922;
-65.4000;0.3801;0.9922;
-65.1000;0.3801;0.9798;
-64.8000;0.3785;0.9675;
-64.5000;0.3810;0.9749;
-64.2000;0.3834;0.9724;
-63.9000;0.3793;0.9650;
-63.6000;0.3801;0.9724;
-63.3000;0.3810;0.9749;
-63.0000;0.3793;0.9798;
-62.7000;0.3801;0.9872;
-62.4000;0.3834;0.9946;
-62.1000;0.3801;0.9848;
-61.8000;0.3826;0.9749;
-61.5000;0.3801;0.9749;
-61.2000;0.3720;0.9626;
-60.9000;0.3842;0.9872;
-60.6000;0.3801;0.9798;
-60.3000;0.3801;0.9798;
-60.0000;0.3810;0.9798;
-59.7000;0.3858;0.9872;
-59.4000;0.3810;0.9700;
-59.1000;0.3810;0.9601;
-58.8000;0.3818;0.9626;
-58.5000;0.3793;0.9626;
-58.2000;0.3785;0.9650;
-57.9000;0.3801;0.9700;
-57.6000;0.3785;0.9650;
-57.3000;0.3793;0.9626;
-57.0000;0.3785;0.9576;
-56.7000;0.3826;0.9675;
-56.4000;0.3801;0.9626;
-56.1000;0.3712;0.9428;
-55.8000;0.3801;0.9626;
-55.5000;0.3785;0.9601;
-55.2000;0.3810;0.9650;
-54.9000;0.3801;0.9601;
-54.6000;0.3810;0.9675;
-54.3000;0.3785;0.9774;
-54.0000;0.3801;0.9749;
-53.7000;0.3810;0.9724;
-53.4000;0.3810;0.9724;
-53.1000;0.3753;0.9552;
-52.8000;0.3793;0.9626;
-52.5000;0.3834;0.9724;
-52.2000;0.3810;0.9724;
-51.9000;0.3793;0.9675;
-51.6000;0.3777;0.9601;
-51.3000;0.3818;0.9576;
-51.0000;0.3793;0.9552;
-50.7000;0.3785;0.9552;
-50.4000;0.3785;0.9552;
-50.1000;0.3818;0.9576;
-49.8000;0.3801;0.9527;
-49.5000;0.3777;0.9403;
-49.2000;0.3785;0.9453;
-48.9000;0.3801;0.9576;
-48.6000;0.3818;0.9601;
-48.3000;0.3810;0.9626;
-48.0000;0.3810;0.9675;
-47.7000;0.3793;0.9650;
-47.4000;0.3801;0.9601;
-47.1000;0.3793;0.9626;
-46.8000;0.3801;0.9601;
-46.5000;0.3761;0.9527;
-46.2000;0.3785;0.9626;
-45.9000;0.3793;0.9650;
-45.6000;0.3793;0.9626;
-45.3000;0.3793;0.9675;
-45.0000;0.3785;0.9724;
-44.7000;0.3810;0.9724;
-44.4000;0.3891;0.9971;
-44.1000;0.3810;0.9774;
-43.8000;0.3777;0.9650;
-43.5000;0.3801;0.9650;
-43.2000;0.3793;0.9626;
-42.9000;0.3801;0.9675;
-42.6000;0.3777;0.9650;
-42.3000;0.3842;0.9774;
-42.0000;0.3801;0.9626;
-41.7000;0.3810;0.9700;
-41.4000;0.3801;0.9724;
-41.1000;0.3801;0.9798;
-40.8000;0.3810;0.9749;
-40.5000;0.3801;0.9798;
-40.2000;0.3769;0.9552;
-39.9000;0.3810;0.9626;
-39.6000;0.3810;0.9576;
-39.3000;0.3793;0.9650;
-39.0000;0.3801;0.9700;
-38.7000;0.3801;0.9650;
-38.4000;0.3818;0.9774;
-38.1000;0.3810;0.9724;
-37.8000;0.3842;0.9798;
-37.5000;0.3793;0.9576;
-37.2000;0.3801;0.9576;
-36.9000;0.3785;0.9650;
-36.6000;0.3793;0.9601;
-36.3000;0.3810;0.9601;
-36.0000;0.3785;0.9527;
-35.7000;0.3810;0.9650;
-35.4000;0.3785;0.9552;
-35.1000;0.3785;0.9552;
-34.8000;0.3777;0.9626;
-34.5000;0.3761;0.9576;
-34.2000;0.3728;0.9502;
-33.9000;0.3826;0.9724;
-33.6000;0.3793;0.9601;
-33.3000;0.3793;0.9650;
-33.0000;0.3834;0.9872;
-32.7000;0.3801;0.9774;
-32.4000;0.3785;0.9774;
-32.1000;0.3818;0.9848;
-31.8000;0.3801;0.9626;
-31.5000;0.3810;0.9576;
-31.2000;0.3801;0.9576;
-30.9000;0.3785;0.9601;
-30.6000;0.3793;0.9601;
-30.3000;0.3810;0.9576;
-30.0000;0.3801;0.9576;
-29.7000;0.3793;0.9527;
-29.4000;0.3801;0.9403;
-29.1000;0.3867;0.9576;
-28.8000;0.3785;0.9305;
-28.5000;0.3793;0.9354;
-28.2000;0.3793;0.9453;
-27.9000;0.3826;0.9477;
-27.6000;0.3785;0.9428;
-27.3000;0.3793;0.9502;
-27.0000;0.3801;0.9601;
-26.7000;0.3850;0.9700;
-26.4000;0.3801;0.9576;
-26.1000;0.3810;0.9552;
-25.8000;0.3793;0.9453;
-25.5000;0.3785;0.9379;
-25.2000;0.3810;0.9502;
-24.9000;0.3801;0.9477;
-24.6000;0.3793;0.9552;
-24.3000;0.3850;0.9724;
-24.0000;0.3810;0.9576;
-23.7000;0.3785;0.9477;
-23.4000;0.3793;0.9576;
-23.1000;0.3785;0.9650;
-22.8000;0.3793;0.9700;
-22.5000;0.3801;0.9749;
-22.2000;0.3793;0.9823;
-21.9000;0.3801;0.9823;
-21.6000;0.3842;0.9897;
-21.3000;0.3753;0.9675;
-21.0000;0.3801;0.9749;
-20.7000;0.3785;0.9675;
-20.4000;0.3793;0.9700;
-20.1000;0.3818;0.9774;
-19.8000;0.3801;0.9749;
-19.5000;0.3810;0.9798;
-19.2000;0.3801;0.9700;
-18.9000;0.3810;0.9724;
-18.6000;0.3834;0.9872;
-18.3000;0.3769;0.9700;
-18.0000;0.3801;0.9774;
-17.7000;0.3801;0.9897;
-17.4000;0.3801;0.9897;
-17.1000;0.3785;0.9823;
-16.8000;0.3785;0.9848;
-16.5000;0.3801;0.9798;
-16.2000;0.3842;0.9922;
-15.9000;0.3801;0.9897;
-15.6000;0.3777;0.9848;
-15.3000;0.3793;0.9922;
-15.0000;0.3834;1.0020;
-14.7000;0.3777;0.9823;
-14.4000;0.3810;0.9749;
-14.1000;0.3793;0.9774;
-13.8000;0.3810;0.9724;
-13.5000;0.3785;0.9552;
-13.2000;0.3801;0.9650;
-12.9000;0.3801;0.9650;
-12.6000;0.3810;0.9724;
-12.3000;0.3834;0.9774;
-12.0000;0.3810;0.9774;
-11.7000;0.3801;0.9724;
-11.4000;0.3785;0.9675;
-11.1000;0.3785;0.9724;
-10.8000;0.3793;0.9724;
-10.5000;0.3769;0.9576;
-10.2000;0.3810;0.9823;
-9.9000;0.3793;0.9798;
-9.6000;0.3801;0.9774;
-9.3000;0.3785;0.9601;
-9.0000;0.3801;0.9650;
-8.7000;0.3826;0.9675;
-8.4000;0.3793;0.9724;
-8.1000;0.3899;0.9946;
-7.8000;0.3801;0.9626;
-7.5000;0.3785;0.9527;
-7.2000;0.3818;0.9601;
-6.9000;0.3777;0.9502;
-6.6000;0.3769;0.9453;
-6.3000;0.3785;0.9477;
-6.0000;0.3793;0.9453;
-5.7000;0.3793;0.9403;
-5.4000;0.3810;0.9453;
-5.1000;0.3801;0.9453;
-4.8000;0.3785;0.9379;
-4.5000;0.3801;0.9477;
-4.2000;0.3793;0.9453;
-3.9000;0.3801;0.9453;
-3.6000;0.3810;0.9403;
-3.3000;0.3801;0.9477;
-3.0000;0.3793;0.9601;
-2.7000;0.3753;0.9552;
-2.4000;0.3810;0.9675;
-2.1000;0.3769;0.9650;
-1.8000;0.3801;0.9749;
-1.5000;0.3769;0.9650;
-1.2000;0.3769;0.9650;
-0.9000;0.3785;0.9601;
-0.6000;0.3793;0.9576;
-0.3000;0.3785;0.9552;
0.0000;0.3785;0.9552;
0.3000;0.3940;0.9724;
0.6000;0.4135;1.0169;
0.9000;0.4306;1.0539;
1.2000;0.4436;1.0761;
1.5000;0.4493;1.0934;
1.8000;0.4640;1.1353;
2.1000;0.4681;1.1600;
2.4000;0.4754;1.1674;
2.7000;0.4778;1.1872;
3.0000;0.4827;1.2020;
3.3000;0.4892;1.2217;
3.6000;0.4876;1.2094;
3.9000;0.4917;1.2192;
4.2000;0.4925;1.2217;
4.5000;0.4949;1.2291;
4.8000;0.4982;1.2340;
5.1000;0.4998;1.2415;
5.4000;0.5014;1.2464;
5.7000;0.5047;1.2464;
6.0000;0.5047;1.2464;
6.3000;0.5055;1.2513;
6.6000;0.5079;1.2661;
6.9000;0.5079;1.2711;
7.2000;0.5104;1.2686;
7.5000;0.5153;1.2711;
7.8000;0.5071;1.2415;
8.1000;0.5120;1.2489;
8.4000;0.5153;1.2513;
8.7000;0.5153;1.2587;
9.0000;0.5218;1.2760;
9.3000;0.5153;1.2513;
9.6000;0.5193;1.2711;
9.9000;0.5210;1.2686;
10.2000;0.5193;1.2711;
10.5000;0.5210;1.2686;
10.8000;0.5218;1.2686;
11.1000;0.5234;1.2711;
11.4000;0.5234;1.2809;
11.7000;0.5226;1.2760;
12.0000;0.5234;1.2711;
12.3000;0.5193;1.2587;
12.6000;0.5250;1.2834;
12.9000;0.5299;1.3007;
13.2000;0.5258;1.2859;
13.5000;0.5275;1.2809;
13.8000;0.5267;1.2661;
14.1000;0.5275;1.2612;
14.4000;0.5267;1.2587;
14.7000;0.5356;1.2834;
15.0000;0.5307;1.2612;
15.3000;0.5242;1.2464;
15.6000;0.5332;1.2785;
15.9000;0.5348;1.2711;
16.2000;0.5340;1.2637;
16.5000;0.5332;1.2661;
16.8000;0.5275;1.2587;
17.1000;0.5356;1.2760;
17.4000;0.5340;1.2563;
17.7000;0.5356;1.2587;
18.0000;0.5332;1.2686;
18.3000;0.5356;1.2735;
18.6000;0.5397;1.2933;
18.9000;0.5389;1.2859;
19.2000;0.5389;1.2809;
19.5000;0.5405;1.2760;
19.8000;0.5413;1.2686;
20.1000;0.5397;1.2587;
20.4000;0.5429;1.2587;
20.7000;0.5421;1.2587;
21.0000;0.5389;1.2538;
21.3000;0.5397;1.2538;
21.6000;0.5413;1.2439;
21.9000;0.5421;1.2464;
22.2000;0.5413;1.2415;
22.5000;0.5429;1.2489;
22.8000;0.5413;1.2513;
23.1000;0.5429;1.2513;
23.4000;0.5405;1.2513;
23.7000;0.5429;1.2464;
24.0000;0.5421;1.2464;
24.3000;0.5429;1.2513;
24.6000;0.5438;1.2563;
24.9000;0.5438;1.2587;
25.2000;0.5438;1.2587;
25.5000;0.5446;1.2637;
25.8000;0.5454;1.2711;
26.1000;0.5446;1.2859;
26.4000;0.5470;1.2883;
26.7000;0.5462;1.2834;
27.0000;0.5478;1.2834;
27.3000;0.5470;1.2785;
27.6000;0.5454;1.2735;
27.9000;0.5486;1.2711;
28.2000;0.5478;1.2612;
28.5000;0.5478;1.2563;
28.8000;0.5486;1.2661;
29.1000;0.5486;1.2661;
29.4000;0.5503;1.2563;
29.7000;0.5462;1.2489;
30.0000;0.5478;1.2563;
30.3000;0.5495;1.2513;
30.6000;0.5486;1.2464;
30.9000;0.5470;1.2439;
31.2000;0.5495;1.2538;
31.5000;0.5486;1.2513;
31.8000;0.5511;1.2711;
32.1000;0.5495;1.2612;
32.4000;0.5462;1.2563;
32.7000;0.5551;1.2809;
33.0000;0.5511;1.2686;
33.3000;0.5495;1.2661;
33.6000;0.5519;1.2661;
33.9000;0.5560;1.2686;
34.2000;0.5478;1.2415;
34.5000;0.5519;1.2563;
34.8000;0.5503;1.2538;
35.1000;0.5511;1.2513;
35.4000;0.5511;1.2439;
35.7000;0.5527;1.2489;
36.0000;0.5535;1.2563;
36.3000;0.5535;1.2587;
36.6000;0.5503;1.2464;
36.9000;0.5503;1.2464;
37.2000;0.5527;1.2587;
37.5000;0.5527;1.2538;
37.8000;0.5462;1.2390;
38.1000;0.5478;1.2464;
38.4000;0.5511;1.2587;
38.7000;0.5535;1.2538;
39.0000;0.5511;1.2340;
39.3000;0.5551;1.2390;
39.6000;0.5527;1.2365;
39.9000;0.5535;1.2439;
40.2000;0.5495;1.2415;
40.5000;0.5551;1.2489;
40.8000;0.5535;1.2563;
41.1000;0.5503;1.2538;
41.4000;0.5486;1.2464;
41.7000;0.5519;1.2587;
42.0000;0.5543;1.2612;
42.3000;0.5543;1.2735;
42.6000;0.5535;1.2834;
42.9000;0.5535;1.2859;
43.2000;0.5543;1.2859;
43.5000;0.5535;1.2859;
43.8000;0.5535;1.2785;
44.1000;0.5543;1.2834;
44.4000;0.5535;1.2859;
44.7000;0.5543;1.2883;
45.0000;0.5551;1.2809;
45.3000;0.5527;1.2661;
45.6000;0.5527;1.2538;
45.9000;0.5535;1.2563;
46.2000;0.5551;1.2587;
46.5000;0.5592;1.2735;
46.8000;0.5560;1.2661;
47.1000;0.5543;1.2563;
47.4000;0.5568;1.2612;
47.7000;0.5527;1.2513;
48.0000;0.5568;1.2538;
48.3000;0.5560;1.2538;
48.6000;0.5608;1.2612;
48.9000;0.5535;1.2390;
49.2000;0.5527;1.2489;
49.5000;0.5551;1.2612;
49.8000;0.5551;1.2661;
50.1000;0.5543;1.2637;
50.4000;0.5560;1.2735;
50.7000;0.5519;1.2563;
51.0000;0.5551;1.2686;
51.3000;0.5576;1.2735;
51.6000;0.5560;1.2760;
51.9000;0.5551;1.2686;
52.2000;0.5503;1.2513;
52.5000;0.5568;1.2637;
52.8000;0.5543;1.2538;
53.1000;0.5543;1.2587;
53.4000;0.5568;1.2587;
53.7000;0.5568;1.2587;
54.0000;0.5568;1.2587;
54.3000;0.5560;1.2439;
54.6000;0.5560;1.2513;
54.9000;0.5584;1.2587;
55.2000;0.5576;1.2686;
55.5000;0.5633;1.2859;
55.8000;0.5592;1.2809;
56.1000;0.5568;1.2834;
56.4000;0.5560;1.2711;
56.7000;0.5576;1.2711;
57.0000;0.5568;1.2760;
57.3000;0.5568;1.2760;
57.6000;0.5625;1.2982;
57.9000;0.5560;1.2859;
58.2000;0.5584;1.2859;
58.5000;0.5568;1.2809;
58.8000;0.5568;1.2785;
59.1000;0.5576;1.2735;
59.4000;0.5625;1.2785;
59.7000;0.5568;1.2661;
60.0000;0.5568;1.2612;
60.3000;0.5568;1.2637;
60.6000;0.5568;1.2587;
60.9000;0.5560;1.2587;
61.2000;0.5592;1.2661;
61.5000;0.5568;1.2637;
61.8000;0.5568;1.2686;
62.1000;0.5535;1.2637;
62.4000;0.5535;1.2587;
62.7000;0.5560;1.2612;
63.0000;0.5584;1.2612;
63.3000;0.5568;1.2563;
63.6000;0.5560;1.2587;
63.9000;0.5576;1.2711;
64.2000;0.5568;1.2686;
64.5000;0.5568;1.2711;
64.8000;0.5584;1.2686;
65.1000;0.5576;1.2661;
65.4000;0.5560;1.2563;
65.7000;0.5576;1.2587;
66.0000;0.5576;1.2661;
66.3000;0.5568;1.2612;
66.6000;0.5568;1.2612;
66.9000;0.5568;1.2563;
67.2000;0.5568;1.2587;
67.5000;0.5568;1.2587;
67.8000;0.5568;1.2661;
68.1000;0.5576;1.2785;
68.4000;0.5592;1.2834;
68.7000;0.5543;1.2711;
69.0000;0.5592;1.2809;
69.3000;0.5576;1.2760;
69.6000;0.5584;1.2785;
69.9000;0.5584;1.2834;
70.2000;0.5592;1.2834;
70.5000;0.5551;1.2834;
70.8000;0.5576;1.2809;
71.1000;0.5592;1.2883;
71.4000;0.5576;1.2859;
71.7000;0.5560;1.2809;
72.0000;0.5592;1.2785;
72.3000;0.5576;1.2686;
72.6000;0.5682;1.2859;
72.9000;0.5576;1.2563;
73.2000;0.5592;1.2612;
73.5000;0.5584;1.2587;
73.8000;0.5592;1.2587;
74.1000;0.5576;1.2489;
74.4000;0.5584;1.2513;
74.7000;0.5633;1.2637;
75.0000;0.5576;1.2489;
75.3000;0.5560;1.2513;
75.6000;0.5576;1.2612;
75.9000;0.5568;1.2661;
76.2000;0.5584;1.2785;
76.5000;0.5568;1.2760;
76.8000;0.5617;1.2834;
77.1000;0.5568;1.2563;
77.4000;0.5576;1.2563;
77.7000;0.5592;1.2661;
78.0000;0.5568;1.2563;
78.3000;0.5543;1.2513;
78.6000;0.5576;1.2612;
78.9000;0.5584;1.2612;
79.2000;0.5592;1.2686;
79.5000;0.5600;1.2735;
79.8000;0.5600;1.2785;
80.1000;0.5576;1.2834;
80.4000;0.5568;1.2785;
80.7000;0.5576;1.2735;
81.0000;0.5584;1.2735;
81.3000;0.5576;1.2612;
81.6000;0.5576;1.2563;
81.9000;0.5592;1.2637;
82.2000;0.5543;1.2538;
82.5000;0.5584;1.2587;
82.8000;0.5584;1.2587;
83.1000;0.5584;1.2464;
83.4000;0.5568;1.2390;
83.7000;0.5568;1.2489;
84.0000;0.5600;1.2587;
84.3000;0.5584;1.2563;
84.6000;0.5576;1.2637;
84.9000;0.5584;1.2637;
85.2000;0.5592;1.2711;
85.5000;0.5568;1.2760;
85.8000;0.5568;1.2785;
86.1000;0.5592;1.2785;
86.4000;0.5543;1.2612;
86.7000;0.5576;1.2661;
87.0000;0.5592;1.2612;
87.3000;0.5511;1.2415;
87.6000;0.5617;1.2612;
87.9000;0.5608;1.2538;
88.2000;0.5600;1.2538;
88.5000;0.5608;1.2513;
88.8000;0.5535;1.2291;
89.1000;0.5600;1.2538;
89.4000;0.5608;1.2538;
89.7000;0.5608;1.2587;
90.0000;0.5617;1.2563;
90.3000;0.5600;1.2489;
90.6000;0.5592;1.2415;
90.9000;0.5584;1.2365;
91.2000;0.5600;1.2464;
91.5000;0.5608;1.2538;
91.8000;0.5568;1.2513;
92.1000;0.5576;1.2538;
92.4000;0.5584;1.2513;
92.7000;0.5551;1.2365;
93.0000;0.5584;1.2415;
93.3000;0.5560;1.2390;
93.6000;0.5576;1.2489;
93.9000;0.5568;1.2489;
94.2000;0.5584;1.2587;
94.5000;0.5551;1.2513;
94.8000;0.5576;1.2612;
95.1000;0.5584;1.2661;
95.4000;0.5600;1.2661;
95.7000;0.5608;1.2587;
96.0000;0.5592;1.2513;
96.3000;0.5674;1.2735;
96.6000;0.5665;1.2661;
96.9000;0.5608;1.2464;
97.2000;0.5584;1.2340;
97.5000;0.5592;1.2390;
97.8000;0.5592;1.2365;
98.1000;0.5592;1.2390;
98.4000;0.5584;1.2390;
98.7000;0.5592;1.2439;
99.0000;0.5568;1.2415;
99.3000;0.5600;1.2513;
99.6000;0.5608;1.2513;
99.9000;0.5584;1.2464;
100.2000;0.5584;1.2513;
100.5000;0.5674;1.2661;
100.8000;0.5608;1.2538;
101.1000;0.5592;1.2464;
101.4000;0.5584;1.2390;
101.7000;0.5600;1.2365;
102.0000;0.5600;1.2439;
102.3000;0.5600;1.2390;
102.6000;0.5600;1.2390;
102.9000;0.5584;1.2513;
103.2000;0.5600;1.2612;
103.5000;0.5608;1.2563;
103.8000;0.5576;1.2464;
104.1000;0.5600;1.2563;
104.4000;0.5584;1.2612;
104.7000;0.5600;1.2735;
105.0000;0.5535;1.2661;
105.3000;0.5592;1.2809;
105.6000;0.5600;1.2834;
105.9000;0.5584;1.2711;
106.2000;0.5576;1.2637;
106.5000;0.5576;1.2661;
106.8000;0.5608;1.2637;
107.1000;0.5576;1.2538;
107.4000;0.5633;1.2686;
107.7000;0.5608;1.2464;
108.0000;0.5600;1.2415;
108.3000;0.5535;1.2192;
108.6000;0.5608;1.2390;
108.9000;0.5576;1.2464;
109.2000;0.5592;1.2513;
109.5000;0.5608;1.2538;
109.8000;0.5641;1.2538;
110.1000;0.5608;1.2563;
110.4000;0.5584;1.2612;
110.7000;0.5568;1.2587;
111.0000;0.5568;1.2686;
111.3000;0.5633;1.2859;
111.6000;0.5568;1.2711;
111.9000;0.5543;1.2538;
112.2000;0.5608;1.2711;
112.5000;0.5617;1.2785;
112.8000;0.5600;1.2711;
113.1000;0.5600;1.2834;
113.4000;0.5617;1.2834;
113.7000;0.5535;1.2464;
114.0000;0.5608;1.2711;
114.3000;0.5576;1.2686;
114.6000;0.5592;1.2785;
114.9000;0.5617;1.2859;
115.2000;0.5608;1.2760;
115.5000;0.5551;1.2612;
115.8000;0.5592;1.2859;
116.1000;0.5584;1.2933;
116.4000;0.5600;1.2982;
116.7000;0.5592;1.2933;
117.0000;0.5584;1.2883;
117.3000;0.5592;1.2785;
117.6000;0.5600;1.2785;
117.9000;0.5731;1.3106;
118.2000;0.5568;1.2760;
118.5000;0.5600;1.2859;
118.8000;0.5608;1.2859;
119.1000;0.5600;1.2760;
119.4000;0.5592;1.2809;
119.7000;0.5608;1.2760;
120.0000;0.5617;1.2686;
120.3000;0.5576;1.2686;
120.6000;0.5568;1.2661;
120.9000;0.5592;1.2760;
121.2000;0.5592;1.2711;
121.5000;0.5608;1.2661;
121.8000;0.5600;1.2612;
122.1000;0.5584;1.2513;
122.4000;0.5592;1.2513;
122.7000;0.5592;1.2587;
123.0000;0.5608;1.2711;
123.3000;0.5576;1.2637;
123.6000;0.5584;1.2711;
123.9000;0.5608;1.2760;
124.2000;0.5625;1.2809;
124.5000;0.5617;1.2809;
124.8000;0.5592;1.2809;
125.1000;0.5584;1.2785;
125.4000;0.5617;1.2809;
125.7000;0.5568;1.2686;
126.0000;0.5592;1.2785;
126.3000;0.5608;1.2908;
126.6000;0.5592;1.2859;
126.9000;0.5584;1.2809;
127.2000;0.5592;1.2809;
127.5000;0.5576;1.2834;
127.8000;0.5714;1.3180;
128.1000;0.5600;1.2859;
128.4000;0.5600;1.2859;
128.7000;0.5551;1.2587;
129.0000;0.5633;1.2785;
129.3000;0.5617;1.2760;
129.6000;0.5568;1.2587;
129.9000;0.5617;1.2661;
130.2000;0.5584;1.2637;
130.5000;0.5608;1.2735;
130.8000;0.5625;1.2735;
131.1000;0.5617;1.2587;
131.4000;0.5617;1.2538;
131.7000;0.5617;1.2563;
132.0000;0.5608;1.2711;
132.3000;0.5543;1.2587;
132.6000;0.5568;1.2637;
132.9000;0.5592;1.2587;
133.2000;0.5608;1.2587;
133.5000;0.5600;1.2637;
133.8000;0.5584;1.2612;
134.1000;0.5592;1.2612;
134.4000;0.5592;1.2612;
134.7000;0.5600;1.2661;
135.0000;0.5600;1.2661;
135.3000;0.5584;1.2686;
135.6000;0.5608;1.2711;
135.9000;0.5608;1.2612;
136.2000;0.5617;1.2612;
136.5000;0.5600;1.2612;
136.8000;0.5608;1.2686;
137.1000;0.5617;1.2661;
137.4000;0.5600;1.2661;
137.7000;0.5600;1.2563;
138.0000;0.5608;1.2489;
138.3000;0.5617;1.2587;
138.6000;0.5617;1.2711;
138.9000;0.5608;1.2686;
139.2000;0.5592;1.2735;
139.5000;0.5617;1.2760;
139.8000;0.5584;1.2686;
140.1000;0.5560;1.2637;
140.4000;0.5617;1.2735;
140.7000;0.5592;1.2785;
141.0000;0.5608;1.2883;
141.3000;0.5592;1.2834;
141.6000;0.5568;1.2809;
141.9000;0.5592;1.2883;
142.2000;0.5608;1.2957;
142.5000;0.5600;1.2859;
142.8000;0.5584;1.2834;
143.1000;0.5608;1.2933;
143.4000;0.5608;1.2982;
143.7000;0.5584;1.2908;
144.0000;0.5592;1.2859;
144.3000;0.5600;1.2883;
144.6000;0.5617;1.2809;
144.9000;0.5608;1.2760;
145.2000;0.5592;1.2711;
145.5000;0.5592;1.2809;
145.8000;0.5625;1.2859;
146.1000;0.5617;1.2785;
146.4000;0.5608;1.2809;
146.7000;0.5576;1.2686;
147.0000;0.5625;1.2760;
147.3000;0.5617;1.2637;
147.6000;0.5625;1.2686;
147.9000;0.5551;1.2439;
148.2000;0.5617;1.2612;
148.5000;0.5625;1.2637;
148.8000;0.5674;1.2834;
149.1000;0.5608;1.2513;
149.4000;0.5608;1.2587;
149.7000;0.5617;1.2735;
150.0000;0.5608;1.2735;
150.3000;0.5617;1.2760;
150.6000;0.5608;1.2809;
150.9000;0.5600;1.2735;
151.2000;0.5617;1.2735;
151.5000;0.5617;1.2686;
151.8000;0.5600;1.2587;
152.1000;0.5608;1.2637;
152.4000;0.5600;1.2661;
152.7000;0.5608;1.2637;
153.0000;0.5600;1.2637;
153.3000;0.5592;1.2612;
153.6000;0.5617;1.2760;
153.9000;0.5608;1.2637;
154.2000;0.5625;1.2711;
154.5000;0.5600;1.2711;
154.8000;0.5592;1.2735;
155.1000;0.5600;1.2711;
155.4000;0.5592;1.2612;
155.7000;0.5592;1.2538;
156.0000;0.5592;1.2489;
156.3000;0.5600;1.2489;
156.6000;0.5657;1.2686;
156.9000;0.5584;1.2513;
157.2000;0.5600;1.2489;
157.5000;0.5600;1.2464;
157.8000;0.5617;1.2513;
158.1000;0.5608;1.2538;
158.4000;0.5592;1.2538;
158.7000;0.5617;1.2637;
159.0000;0.5608;1.2612;
159.3000;0.5608;1.2612;
159.6000;0.5608;1.2587;
159.9000;0.5511;1.2365;
160.2000;0.5608;1.2637;
160.5000;0.5608;1.2612;
160.8000;0.5608;1.2587;
161.1000;0.5560;1.2464;
161.4000;0.5503;1.2365;
161.7000;0.5600;1.2760;
162.0000;0.5608;1.2834;
162.3000;0.5608;1.2809;
162.6000;0.5600;1.2760;
162.9000;0.5608;1.2760;
163.2000;0.5617;1.2661;
163.5000;0.5584;1.2563;
163.8000;0.5600;1.2637;
164.1000;0.5608;1.2612;
164.4000;0.5641;1.2538;
164.7000;0.5625;1.2489;
165.0000;0.5592;1.2439;
165.3000;0.5617;1.2415;
165.6000;0.5633;1.2464;
165.9000;0.5617;1.2340;
166.2000;0.5592;1.2340;
166.5000;0.5633;1.2513;
166.8000;0.5600;1.2415;
167.1000;0.5600;1.2612;
167.4000;0.5600;1.2711;
167.7000;0.5584;1.2637;
168.0000;0.5592;1.2661;
168.3000;0.5608;1.2661;
168.6000;0.5617;1.2587;
168.9000;0.5600;1.2538;
169.2000;0.5600;1.2563;
169.5000;0.5617;1.2612;
169.8000;0.5600;1.2686;
170.1000;0.5584;1.2661;
170.4000;0.5600;1.2686;
170.7000;0.5608;1.2686;
171.0000;0.5584;1.2637;
171.3000;0.5617;1.2686;
171.6000;0.5600;1.2711;
171.9000;0.5543;1.2464;
172.2000;0.5600;1.2661;
172.5000;0.5600;1.2661;
172.8000;0.5617;1.2711;
173.1000;0.5600;1.2637;
173.4000;0.5600;1.2661;
173.7000;0.5600;1.2612;
174.0000;0.5568;1.2513;
174.3000;0.5674;1.2760;
174.6000;0.5600;1.2612;
174.9000;0.5608;1.2686;
175.2000;0.5568;1.2538;
175.5000;0.5625;1.2612;
175.8000;0.5576;1.2563;
176.1000;0.5576;1.2563;
176.4000;0.5592;1.2513;
176.7000;0.5600;1.2637;
177.0000;0.5600;1.2612;
177.3000;0.5600;1.2711;
177.6000;0.5600;1.2760;
177.9000;0.5584;1.2809;
178.2000;0.5584;1.2760;
178.5000;0.5592;1.2735;
178.8000;0.5608;1.2711;
179.1000;0.5617;1.2686;
179.4000;0.5592;1.2661;
179.7000;0.5600;1.2735;
180.0000;0.5617;1.2686;
180.3000;0.5527;1.2464;
180.6000;0.5568;1.2513;
180.9000;0.5608;1.2612;
181.2000;0.5617;1.2587;
181.5000;0.5617;1.2637;
181.8000;0.5600;1.2612;
182.1000;0.5657;1.2735;
182.4000;0.5608;1.2735;
182.7000;0.5608;1.2809;
183.0000;0.5592;1.2809;
183.3000;0.5592;1.2809;
183.6000;0.5608;1.2834;
183.9000;0.5608;1.2760;
184.2000;0.5592;1.2711;
184.5000;0.5608;1.2785;
184.8000;0.5584;1.2661;
185.1000;0.5608;1.2785;
185.4000;0.5600;1.2686;
185.7000;0.5592;1.2735;
186.0000;0.5600;1.2760;
186.3000;0.5617;1.2859;
186.6000;0.5576;1.2735;
186.9000;0.5608;1.2785;
187.2000;0.5600;1.2809;
187.5000;0.5617;1.2809;
187.8000;0.5625;1.2883;
188.1000;0.5608;1.2908;
188.4000;0.5617;1.2957;
188.7000;0.5657;1.2957;
189.0000;0.5617;1.2809;
189.3000;0.5617;1.2834;
189.6000;0.5584;1.2735;
189.9000;0.5600;1.2760;
190.2000;0.5608;1.2661;
190.5000;0.5600;1.2637;
190.8000;0.5617;1.2637;
191.1000;0.5600;1.2612;
191.4000;0.5592;1.2735;
191.7000;0.5592;1.2686;
192.0000;0.5584;1.2612;
192.3000;0.5584;1.2538;
192.6000;0.5617;1.2612;
192.9000;0.5608;1.2587;
193.2000;0.5617;1.2612;
193.5000;0.5600;1.2711;
193.8000;0.5625;1.2809;
194.1000;0.5608;1.2834;
194.4000;0.5600;1.2760;
194.7000;0.5608;1.2686;
195.0000;0.5592;1.2612;
195.3000;0.5600;1.2637;
195.6000;0.5608;1.2637;
195.9000;0.5600;1.2563;
196.2000;0.5600;1.2513;
196.5000;0.5617;1.2513;
196.8000;0.5576;1.2439;
197.1000;0.5592;1.2563;
197.4000;0.5633;1.2686;
197.7000;0.5608;1.2637;
198.0000;0.5560;1.2513;
198.3000;0.5617;1.2735;
198.6000;0.5600;1.2637;
198.9000;0.5592;1.2587;
199.2000;0.5568;1.2563;
199.5000;0.5608;1.2711;
199.8000;0.5633;1.2859;
200.1000;0.5608;1.2785;
200.4000;0.5551;1.2587;
200.7000;0.5625;1.2785;
201.0000;0.5649;1.2711;
201.3000;0.5608;1.2661;
201.6000;0.5633;1.2760;
201.9000;0.5633;1.2686;
202.2000;0.5698;1.2785;
202.5000;0.5625;1.2587;
202.8000;0.5592;1.2538;
203.1000;0.5600;1.2563;
203.4000;0.5600;1.2587;
203.7000;0.5617;1.2637;
204.0000;0.5551;1.2489;
204.3000;0.5600;1.2612;
204.6000;0.5576;1.2513;
204.9000;0.5608;1.2513;
205.2000;0.5600;1.2513;
205.5000;0.5592;1.2513;
205.8000;0.5584;1.2415;
206.1000;0.5600;1.2489;
206.4000;0.5568;1.2415;
206.7000;0.5617;1.2538;
207.0000;0.5600;1.2538;
207.3000;0.5608;1.2538;
207.6000;0.5641;1.2661;
207.9000;0.5592;1.2489;
208.2000;0.5584;1.2415;
208.5000;0.5625;1.2563;
208.8000;0.5600;1.2513;
209.1000;0.5592;1.2587;
209.4000;0.5633;1.2661;
209.7000;0.5568;1.2538;
210.0000;0.5608;1.2686;
210.3000;0.5608;1.2661;
210.6000;0.5617;1.2711;
210.9000;0.5625;1.2785;
211.2000;0.5665;1.2933;
211.5000;0.5633;1.2760;
211.8000;0.5625;1.2637;
212.1000;0.5617;1.2587;
212.4000;0.5625;1.2587;
212.7000;0.5535;1.2340;
213.0000;0.5608;1.2513;
213.3000;0.5600;1.2587;
213.6000;0.5625;1.2637;
213.9000;0.5608;1.2612;
214.2000;0.5608;1.2637;
214.5000;0.5576;1.2563;
214.8000;0.5600;1.2637;
215.1000;0.5617;1.2587;
215.4000;0.5617;1.2538;
215.7000;0.5592;1.2563;
216.0000;0.5625;1.2686;
216.3000;0.5617;1.2760;
216.6000;0.5600;1.2637;
216.9000;0.5617;1.2711;
217.2000;0.5608;1.2711;
217.5000;0.5600;1.2661;
217.8000;0.5608;1.2735;
218.1000;0.5608;1.2612;
218.4000;0.5608;1.2612;
218.7000;0.5633;1.2661;
219.0000;0.5714;1.3032;
219.3000;0.5600;1.2661;
219.6000;0.5592;1.2513;
219.9000;0.5608;1.2489;
220.2000;0.5576;1.2489;
220.5000;0.5592;1.2489;
220.8000;0.5600;1.2513;
221.1000;0.5625;1.2538;
221.4000;0.5633;1.2538;
221.7000;0.5674;1.2686;
222.0000;0.5617;1.2538;
222.3000;0.5600;1.2538;
222.6000;0.5641;1.2612;
222.9000;0.5617;1.2587;
223.2000;0.5608;1.2612;
223.5000;0.5641;1.2735;
223.8000;0.5608;1.2735;
224.1000;0.5641;1.2859;
224.4000;0.5608;1.2760;
224.7000;0.5608;1.2686;
225.0000;0.5608;1.2760;
225.3000;0.5665;1.2908;
225.6000;0.5625;1.2809;
225.9000;0.5608;1.2809;
226.2000;0.5576;1.2661;
226.5000;0.5608;1.2760;
226.8000;0.5600;1.2834;
227.1000;0.5633;1.2957;
227.4000;0.5625;1.2883;
227.7000;0.5641;1.2957;
228.0000;0.5649;1.3032;
228.3000;0.5592;1.2859;
228.6000;0.5560;1.2735;
228.9000;0.5592;1.2785;
229.2000;0.5608;1.2785;
229.5000;0.5551;1.2587;
229.8000;0.5600;1.2637;
230.1000;0.5617;1.2661;
230.4000;0.5600;1.2612;
230.7000;0.5682;1.2908;
231.0000;0.5665;1.2809;
231.3000;0.5535;1.2439;
231.6000;0.5600;1.2563;
231.9000;0.5625;1.2686;
232.2000;0.5690;1.2834;
232.5000;0.5600;1.2612;
232.8000;0.5608;1.2612;
233.1000;0.5608;1.2637;
233.4000;0.5576;1.2612;
233.7000;0.5600;1.2563;
234.0000;0.5633;1.2711;
234.3000;0.5617;1.2563;
234.6000;0.5617;1.2587;
234.9000;0.5617;1.2735;
235.2000;0.5560;1.2612;
235.5000;0.5625;1.2785;
235.8000;0.5608;1.2711;
236.1000;0.5608;1.2686;
236.4000;0.5625;1.2711;
236.7000;0.5600;1.2661;
237.0000;0.5633;1.2735;
237.3000;0.5617;1.2760;
237.6000;0.5608;1.2711;
237.9000;0.5617;1.2785;
238.2000;0.5592;1.2686;
238.5000;0.5608;1.2735;
238.8000;0.5617;1.2760;
239.1000;0.5584;1.2686;
239.4000;0.5600;1.2735;
239.7000;0.5608;1.2686;
240.0000;0.5600;1.2661;
240.3000;0.5576;1.2612;
240.6000;0.5617;1.2760;
240.9000;0.5617;1.2809;
241.2000;0.5617;1.2883;
241.5000;0.5608;1.2933;
241.8000;0.5600;1.2908;
242.1000;0.5600;1.2908;
242.4000;0.5625;1.2933;
242.7000;0.5608;1.2933;
243.0000;0.5600;1.2859;
243.3000;0.5608;1.2933;
243.6000;0.5682;1.3007;
243.9000;0.5617;1.2785;
244.2000;0.5608;1.2686;
244.5000;0.5608;1.2760;
244.8000;0.5617;1.2859;
245.1000;0.5617;1.2834;
245.4000;0.5633;1.2809;
245.7000;0.5584;1.2735;
246.0000;0.5568;1.2735;
246.3000;0.5600;1.2883;
246.6000;0.5600;1.2859;
246.9000;0.5600;1.2834;
247.2000;0.5617;1.2859;
247.5000;0.5608;1.2834;
247.8000;0.5674;1.2982;
248.1000;0.5608;1.2834;
248.4000;0.5608;1.2834;
248.7000;0.5560;1.2809;
249.0000;0.5576;1.2859;
249.3000;0.5641;1.2982;
249.6000;0.5600;1.2760;
249.9000;0.5592;1.2711;
250.2000;0.5592;1.2809;
250.5000;0.5592;1.2735;
250.8000;0.5600;1.2760;
251.1000;0.5625;1.2760;
251.4000;0.5600;1.2735;
251.7000;0.5600;1.2735;
252.0000;0.5600;1.2661;
252.3000;0.5560;1.2587;
252.6000;0.5625;1.2735;
252.9000;0.5617;1.2711;
253.2000;0.5608;1.2563;
253.5000;0.5608;1.2587;
253.8000;0.5608;1.2735;
254.1000;0.5617;1.2711;
254.4000;0.5617;1.2735;
254.7000;0.5608;1.2686;
255.0000;0.5608;1.2661;
255.3000;0.5608;1.2612;
255.6000;0.5608;1.2489;
255.9000;0.5608;1.2538;
256.2000;0.5608;1.2661;
256.5000;0.5600;1.2489;
256.8000;0.5617;1.2489;
257.1000;0.5608;1.2538;
257.4000;0.5600;1.2563;
257.7000;0.5617;1.2489;
258.0000;0.5617;1.2415;
258.3000;0.5600;1.2390;
258.6000;0.5600;1.2513;
258.9000;0.5617;1.2587;
259.2000;0.5617;1.2612;
259.5000;0.5625;1.2587;
259.8000;0.5600;1.2538;
260.1000;0.5617;1.2661;
260.4000;0.5600;1.2563;
260.7000;0.5617;1.2538;
261.0000;0.5608;1.2612;
261.3000;0.5600;1.2563;
261.6000;0.5608;1.2538;
261.9000;0.5617;1.2637;
262.2000;0.5600;1.2637;
262.5000;0.5608;1.2538;
262.8000;0.5617;1.2563;
263.1000;0.5608;1.2637;
263.4000;0.5617;1.2686;
263.7000;0.5617;1.2612;
264.0000;0.5633;1.2711;
264.3000;0.5617;1.2711;
264.6000;0.5608;1.2686;
264.9000;0.5592;1.2735;
265.2000;0.5608;1.2785;
265.5000;0.5625;1.2785;
265.8000;0.5617;1.2760;
266.1000;0.5600;1.2735;
266.4000;0.5617;1.2760;
266.7000;0.5649;1.2760;
267.0000;0.5617;1.2637;
267.3000;0.5600;1.2563;
267.6000;0.5568;1.2439;
267.9000;0.5592;1.2489;
268.2000;0.5600;1.2464;
268.5000;0.5600;1.2439;
268.8000;0.5592;1.2415;
269.1000;0.5600;1.2390;
269.4000;0.5608;1.2390;
269.7000;0.5657;1.2489;
270.0000;0.5600;1.2439;
270.3000;0.5657;1.2612;
270.6000;0.5600;1.2513;
270.9000;0.5625;1.2637;
271.2000;0.5608;1.2563;
271.5000;0.5608;1.2563;
271.8000;0.5608;1.2464;
272.1000;0.5592;1.2464;
272.4000;0.5617;1.2637;
272.7000;0.5608;1.2661;
273.0000;0.5617;1.2612;
273.3000;0.5617;1.2612;
273.6000;0.5584;1.2563;
273.9000;0.5600;1.2563;
274.2000;0.5600;1.2563;
274.5000;0.5625;1.2612;
274.8000;0.5617;1.2612;
275.1000;0.5543;1.2489;
275.4000;0.5600;1.2612;
275.7000;0.5608;1.2612;
276.0000;0.5625;1.2711;
276.3000;0.5608;1.2735;
276.6000;0.5576;1.2637;
276.9000;0.5560;1.2661;
277.2000;0.5617;1.2809;
277.5000;0.5600;1.2760;
277.8000;0.5608;1.2711;
278.1000;0.5600;1.2587;
278.4000;0.5592;1.2587;
278.7000;0.5600;1.2563;
279.0000;0.5592;1.2563;
279.3000;0.5584;1.2538;
279.6000;0.5608;1.2587;
279.9000;0.5608;1.2563;
280.2000;0.5617;1.2439;
280.5000;0.5641;1.2538;
280.8000;0.5600;1.2415;
281.1000;0.5617;1.2513;
281.4000;0.5617;1.2538;
281.7000;0.5625;1.2587;
282.0000;0.5625;1.2563;
282.3000;0.5608;1.2587;
282.6000;0.5649;1.2612;
282.9000;0.5625;1.2587;
283.2000;0.5617;1.2489;
283.5000;0.5608;1.2538;
283.8000;0.5608;1.2563;
284.1000;0.5592;1.2563;
284.4000;0.5625;1.2711;
284.7000;0.5600;1.2661;
285.0000;0.5600;1.2686;
285.3000;0.5608;1.2686;
285.6000;0.5608;1.2637;
285.9000;0.5592;1.2686;
286.2000;0.5600;1.2661;
286.5000;0.5608;1.2637;
286.8000;0.5617;1.2587;
287.1000;0.5608;1.2637;
287.4000;0.5608;1.2612;
287.7000;0.5608;1.2612;
288.0000;0.5576;1.2563;
288.3000;0.5625;1.2637;
288.6000;0.5625;1.2612;
288.9000;0.5617;1.2612;
289.2000;0.5600;1.2661;
289.5000;0.5600;1.2686;
289.8000;0.5584;1.2612;
290.1000;0.5576;1.2489;
290.4000;0.5608;1.2563;
290.7000;0.5625;1.2513;
291.0000;0.5568;1.2340;
291.3000;0.5608;1.2489;
291.6000;0.5633;1.2612;
291.9000;0.5600;1.2587;
292.2000;0.5617;1.2637;
292.5000;0.5608;1.2637;
292.8000;0.5617;1.2711;
293.1000;0.5608;1.2711;
293.4000;0.5617;1.2637;
293.7000;0.5617;1.2563;
294.0000;0.5625;1.2612;
294.3000;0.5625;1.2711;
294.6000;0.5600;1.2637;
294.9000;0.5608;1.2661;
295.2000;0.5568;1.2513;
295.5000;0.5617;1.2563;
295.8000;0.5600;1.2563;
296.1000;0.5633;1.2612;
296.4000;0.5592;1.2513;
296.7000;0.5617;1.2538;
297.0000;0.5641;1.2711;
297.3000;0.5600;1.2587;
297.6000;0.5625;1.2686;
297.9000;0.5608;1.2735;
298.2000;0.5600;1.2711;
298.5000;0.5608;1.2637;
298.8000;0.5592;1.2563;
299.1000;0.5600;1.2489;
299.4000;0.5617;1.2538;
299.7000;0.5600;1.2587;
300.0000;0.5551;1.2489;
300.3000;0.5592;1.2587;
300.6000;0.5592;1.2686;
300.9000;0.5592;1.2661;
301.2000;0.5625;1.2735;
301.5000;0.5608;1.2711;
301.8000;0.5600;1.2760;
302.1000;0.5608;1.2711;
302.4000;0.5617;1.2735;
302.7000;0.5608;1.2711;
303.0000;0.5617;1.2661;
303.3000;0.5617;1.2612;
303.6000;0.5625;1.2563;
303.9000;0.5617;1.2587;
304.2000;0.5608;1.2587;
304.5000;0.5600;1.2587;
304.8000;0.5617;1.2563;
305.1000;0.5600;1.2563;
305.4000;0.5608;1.2587;
305.7000;0.5617;1.2587;
306.0000;0.5633;1.2587;
306.3000;0.5617;1.2513;
306.6000;0.5608;1.2464;
306.9000;0.5617;1.2489;
307.2000;0.5625;1.2464;
307.5000;0.5698;1.2637;
307.8000;0.5584;1.2415;
308.1000;0.5584;1.2538;
308.4000;0.5608;1.2612;
308.7000;0.5608;1.2661;
309.0000;0.5625;1.2612;
309.3000;0.5600;1.2587;
309.6000;0.5551;1.2513;
309.9000;0.5600;1.2686;
310.2000;0.5600;1.2735;
310.5000;0.5608;1.2785;
310.8000;0.5592;1.2686;
311.1000;0.5592;1.2612;
311.4000;0.5608;1.2587;
311.7000;0.5600;1.2612;
312.0000;0.5617;1.2637;
312.3000;0.5617;1.2637;
312.6000;0.5625;1.2735;
312.9000;0.5608;1.2711;
313.2000;0.5576;1.2686;
313.5000;0.5608;1.2834;
313.8000;0.5600;1.2735;
314.1000;0.5600;1.2760;
314.4000;0.5584;1.2637;
314.7000;0.5592;1.2686;
315.0000;0.5633;1.2785;
315.3000;0.5617;1.2686;
315.6000;0.5592;1.2513;
315.9000;0.5608;1.2489;
316.2000;0.5608;1.2489;
316.5000;0.5608;1.2439;
316.8000;0.5608;1.2439;
317.1000;0.5608;1.2464;
317.4000;0.5608;1.2612;
317.7000;0.5641;1.2686;
318.0000;0.5641;1.2735;
318.3000;0.5592;1.2760;
318.6000;0.5584;1.2711;
318.9000;0.5625;1.2735;
319.2000;0.5617;1.2686;
319.5000;0.5576;1.2637;
319.8000;0.5600;1.2661;
320.1000;0.5560;1.2513;
320.4000;0.5592;1.2661;
320.7000;0.5584;1.2686;
321.0000;0.5592;1.2661;
321.3000;0.5633;1.2834;
321.6000;0.5592;1.2785;
321.9000;0.5714;1.3081;
322.2000;0.5576;1.2735;
322.5000;0.5625;1.2883;
322.8000;0.5617;1.2859;
323.1000;0.5625;1.2982;
323.4000;0.5600;1.2957;
323.7000;0.5600;1.2834;
324.0000;0.5625;1.2982;
324.3000;0.5608;1.2957;
324.6000;0.5592;1.2883;
324.9000;0.5584;1.2760;
325.2000;0.5568;1.2686;
325.5000;0.5617;1.2785;
325.8000;0.5608;1.2760;
326.1000;0.5576;1.2760;
326.4000;0.5608;1.2834;
326.7000;0.5641;1.2883;
327.0000;0.5617;1.2809;
327.3000;0.5608;1.2908;
327.6000;0.5617;1.2957;
327.9000;0.5608;1.2933;
328.2000;0.5625;1.2908;
328.5000;0.5674;1.3007;
328.8000;0.5535;1.2686;
329.1000;0.5625;1.2908;
329.4000;0.5625;1.2957;
329.7000;0.5608;1.2834;
330.0000;0.5625;1.2883;
330.3000;0.5641;1.2933;
330.6000;0.5608;1.2859;
330.9000;0.5682;1.2957;
331.2000;0.5600;1.2686;
331.5000;0.5608;1.2661;
331.8000;0.5617;1.2538;
332.1000;0.5617;1.2538;
332.4000;0.5641;1.2563;
332.7000;0.5617;1.2587;
333.0000;0.5608;1.2563;
333.3000;0.5617;1.2661;
333.6000;0.5592;1.2637;
333.9000;0.5608;1.2760;
334.2000;0.5592;1.2711;
334.5000;0.5608;1.2809;
334.8000;0.5617;1.2834;
335.1000;0.5633;1.2883;
335.4000;0.5617;1.2933;
335.7000;0.5600;1.2908;
336.0000;0.5665;1.3081;
336.3000;0.5649;1.3007;
336.6000;0.5608;1.2809;
336.9000;0.5617;1.2834;
337.2000;0.5608;1.2883;
337.5000;0.5608;1.2859;
337.8000;0.5657;1.2908;
338.1000;0.5560;1.2637;
338.4000;0.5608;1.2711;
338.7000;0.5633;1.2760;
339.0000;0.5625;1.2711;
339.3000;0.5617;1.2735;
339.6000;0.5584;1.2612;
339.9000;0.5527;1.2489;
340.2000;0.5568;1.2785;
340.5000;0.5584;1.2834;
340.8000;0.5600;1.2809;
341.1000;0.5608;1.2908;
341.4000;0.5551;1.2809;
341.7000;0.5551;1.2809;
342.0000;0.5592;1.2883;
342.3000;0.5617;1.2908;
342.6000;0.5600;1.2883;
342.9000;0.5625;1.2785;
343.2000;0.5592;1.2735;
343.5000;0.5560;1.2637;
343.8000;0.5592;1.2760;
344.1000;0.5592;1.2760;
344.4000;0.5600;1.2785;
344.7000;0.5600;1.2735;
345.0000;0.5608;1.2760;
345.3000;0.5592;1.2834;
345.6000;0.5576;1.2859;
345.9000;0.5608;1.2883;
346.2000;0.5633;1.2908;
346.5000;0.5551;1.2735;
346.8000;0.5617;1.2834;
347.1000;0.5608;1.2859;
347.4000;0.5608;1.2883;
347.7000;0.5592;1.2834;
348.0000;0.5633;1.2982;
348.3000;0.5706;1.3254;
348.6000;0.5592;1.2957;
348.9000;0.5608;1.2957;
349.2000;0.5608;1.2957;
349.5000;0.5617;1.2883;
349.8000;0.5617;1.2834;
350.1000;0.5617;1.2834;
350.4000;0.5600;1.2908;
350.7000;0.5608;1.2933;
351.0000;0.5617;1.3056;
351.3000;0.5608;1.3056;
351.6000;0.5617;1.3056;
351.9000;0.5617;1.3007;
352.2000;0.5600;1.2908;
352.5000;0.5625;1.2982;
352.8000;0.5560;1.2859;
353.1000;0.5608;1.2957;
353.4000;0.5592;1.2859;
353.7000;0.5633;1.2908;
354.0000;0.5568;1.2711;
354.3000;0.5625;1.2834;
354.6000;0.5649;1.2933;
354.9000;0.5600;1.2834;
355.2000;0.5625;1.2933;
355.5000;0.5600;1.2785;
355.8000;0.5617;1.2760;
356.1000;0.5584;1.2661;
356.4000;0.5608;1.2711;
356.7000;0.5568;1.2661;
357.0000;0.5600;1.2711;
357.3000;0.5584;1.2661;
357.6000;0.5576;1.2711;
357.9000;0.5584;1.2809;
358.2000;0.5617;1.2982;
358.5000;0.5617;1.2982;
358.8000;0.5592;1.2908;
359.1000;0.5665;1.3229;
359.4000;0.5608;1.2957;
359.7000;0.5551;1.2785;
360.0000;0.5592;1.2834;
360.3000;0.5633;1.3007;
360.6000;0.5641;1.3007;
360.9000;0.5608;1.2957;
361.2000;0.5600;1.2859;
361.5000;0.5592;1.2785;
361.8000;0.5617;1.2883;
362.1000;0.5608;1.2809;
362.4000;0.5633;1.2834;
362.7000;0.5584;1.2686;
363.0000;0.5617;1.2785;
363.3000;0.5617;1.2809;
363.6000;0.5584;1.2785;
363.9000;0.5600;1.2785;
364.2000;0.5584;1.2760;
364.5000;0.5625;1.2883;
364.8000;0.5600;1.2883;
365.1000;0.5600;1.2933;
365.4000;0.5600;1.2883;
365.7000;0.5592;1.2957;
366.0000;0.5625;1.3081;
366.3000;0.5649;1.3007;
366.6000;0.5617;1.2933;
366.9000;0.5617;1.3032;
367.2000;0.5600;1.3032;
367.5000;0.5584;1.3056;
367.8000;0.5608;1.3007;
368.1000;0.5633;1.3180;
368.4000;0.5592;1.3032;
368.7000;0.5608;1.2908;
369.0000;0.5592;1.2809;
369.3000;0.5592;1.2785;
369.6000;0.5617;1.2785;
369.9000;0.5576;1.2735;
370.2000;0.5625;1.2785;
370.5000;0.5600;1.2785;
370.8000;0.5617;1.2883;
371.1000;0.5625;1.2933;
371.4000;0.5600;1.3056;
371.7000;0.5592;1.2982;
372.0000;0.5649;1.3056;
372.3000;0.5592;1.2957;
372.6000;0.5633;1.3007;
372.9000;0.5600;1.2957;
373.2000;0.5608;1.2982;
373.5000;0.5608;1.2933;
373.8000;0.5600;1.2908;
374.1000;0.5617;1.2933;
374.4000;0.5600;1.2908;
374.7000;0.5600;1.2933;
375.0000;0.5625;1.3007;
375.3000;0.5608;1.2933;
375.6000;0.5551;1.2859;
375.9000;0.5608;1.2982;
376.2000;0.5600;1.2957;
376.5000;0.5592;1.2883;
376.8000;0.5600;1.2859;
377.1000;0.5657;1.2982;
377.4000;0.5608;1.2859;
377.7000;0.5560;1.2735;
378.0000;0.5608;1.2933;
378.3000;0.5608;1.2933;
378.6000;0.5560;1.2760;
378.9000;0.5608;1.2883;
379.2000;0.5608;1.2908;
379.5000;0.5649;1.2957;
379.8000;0.5608;1.2859;
380.1000;0.5617;1.2883;
380.4000;0.5600;1.2859;
380.7000;0.5657;1.3032;
381.0000;0.5592;1.2859;
381.3000;0.5608;1.2982;
381.6000;0.5617;1.2982;
381.9000;0.5592;1.2957;
382.2000;0.5584;1.2908;
382.5000;0.5600;1.2908;
382.8000;0.5600;1.2982;
383.1000;0.5600;1.2908;
383.4000;0.5600;1.2908;
383.7000;0.5674;1.3007;
384.0000;0.5657;1.2982;
384.3000;0.5617;1.2834;
384.6000;0.5633;1.2785;
384.9000;0.5600;1.2711;
385.2000;0.5608;1.2760;
385.5000;0.5608;1.2760;
385.8000;0.5600;1.2711;
386.1000;0.5625;1.2883;
386.4000;0.5617;1.2760;
386.7000;0.5625;1.2760;
387.0000;0.5608;1.2711;
387.3000;0.5608;1.2735;
387.6000;0.5608;1.2686;
387.9000;0.5617;1.2760;
388.2000;0.5617;1.2661;
388.5000;0.5617;1.2661;
388.8000;0.5617;1.2637;
389.1000;0.5625;1.2661;
389.4000;0.5600;1.2686;
389.7000;0.5617;1.2735;
390.0000;0.5592;1.2735;
390.3000;0.5543;1.2612;
390.6000;0.5568;1.2711;
390.9000;0.5600;1.2785;
391.2000;0.5584;1.2760;
391.5000;0.5665;1.2933;
391.8000;0.5600;1.2834;
392.1000;0.5706;1.3155;
392.4000;0.5600;1.2760;
392.7000;0.5625;1.2785;
393.0000;0.5608;1.2735;
393.3000;0.5600;1.2735;
393.6000;0.5592;1.2735;
393.9000;0.5617;1.2735;
394.2000;0.5617;1.2760;
394.5000;0.5511;1.2415;
394.8000;0.5600;1.2661;
395.1000;0.5535;1.2489;
395.4000;0.5600;1.2587;
395.7000;0.5617;1.2612;
396.0000;0.5584;1.2439;
396.3000;0.5576;1.2439;
396.6000;0.5608;1.2538;
396.9000;0.5576;1.2513;
397.2000;0.5584;1.2464;
397.5000;0.5568;1.2489;
397.8000;0.5625;1.2587;
398.1000;0.5617;1.2686;
398.4000;0.5600;1.2735;
398.7000;0.5608;1.2785;
399.0000;0.5592;1.2711;
399.3000;0.5625;1.2612;
399.6000;0.5584;1.2489;
399.9000;0.5608;1.2563;
400.2000;0.5592;1.2489;
400.5000;0.5617;1.2612;
400.8000;0.5617;1.2637;
401.1000;0.5641;1.2760;
401.4000;0.5600;1.2661;
401.7000;0.5584;1.2587;
402.0000;0.5617;1.2661;
402.3000;0.5600;1.2686;
402.6000;0.5584;1.2637;
402.9000;0.5617;1.2587;
403.2000;0.5608;1.2489;
403.5000;0.5617;1.2464;
403.8000;0.5617;1.2563;
404.1000;0.5576;1.2587;
404.4000;0.5592;1.2612;
404.7000;0.5600;1.2735;
405.0000;0.5608;1.2735;
405.3000;0.5617;1.2809;
405.6000;0.5584;1.2735;
405.9000;0.5625;1.2859;
406.2000;0.5617;1.2809;
406.5000;0.5608;1.2711;
406.8000;0.5600;1.2785;
407.1000;0.5600;1.2859;
407.4000;0.5600;1.2760;
407.7000;0.5600;1.2760;
408.0000;0.5600;1.2809;
408.3000;0.5592;1.2859;
408.6000;0.5608;1.2809;
408.9000;0.5608;1.2735;
409.2000;0.5600;1.2587;
409.5000;0.5617;1.2538;
409.8000;0.5625;1.2612;
410.1000;0.5617;1.2563;
410.4000;0.5625;1.2735;
410.7000;0.5600;1.2809;
411.0000;0.5592;1.2834;
411.3000;0.5617;1.2883;
411.6000;0.5600;1.2760;
411.9000;0.5608;1.2661;
412.2000;0.5617;1.2587;
412.5000;0.5608;1.2563;
412.8000;0.5600;1.2513;
413.1000;0.5600;1.2464;
413.4000;0.5592;1.2439;
413.7000;0.5625;1.2489;
414.0000;0.5600;1.2489;
414.3000;0.5551;1.2365;
414.6000;0.5600;1.2340;
414.9000;0.5608;1.2464;
415.2000;0.5592;1.2439;
415.5000;0.5560;1.2390;
415.8000;0.5600;1.2439;
416.1000;0.5592;1.2513;
416.4000;0.5674;1.2760;
416.7000;0.5608;1.2587;
417.0000;0.5551;1.2340;
417.3000;0.5568;1.2365;
417.6000;0.5592;1.2340;
417.9000;0.5584;1.2266;
418.2000;0.5600;1.2390;
418.5000;0.5698;1.2711;
418.8000;0.5608;1.2365;
419.1000;0.5608;1.2439;
419.4000;0.5543;1.2291;
419.7000;0.5592;1.2390;
420.0000;0.5617;1.2489;
420.3000;0.5600;1.2563;
420.6000;0.5592;1.2489;
420.9000;0.5592;1.2513;
421.2000;0.5608;1.2661;
421.5000;0.5608;1.2711;
421.8000;0.5592;1.2760;
422.1000;0.5600;1.2661;
422.4000;0.5600;1.2637;
422.7000;0.5600;1.2587;
423.0000;0.5600;1.2637;
423.3000;0.5617;1.2587;
423.6000;0.5617;1.2686;
423.9000;0.5625;1.2760;
424.2000;0.5608;1.2711;
424.5000;0.5617;1.2785;
424.8000;0.5617;1.2760;
425.1000;0.5617;1.2711;
425.4000;0.5608;1.2661;
425.7000;0.5592;1.2563;
426.0000;0.5608;1.2661;
426.3000;0.5584;1.2711;
426.6000;0.5600;1.2834;
426.9000;0.5568;1.2686;
427.2000;0.5608;1.2711;
427.5000;0.5600;1.2760;
427.8000;0.5617;1.2809;
428.1000;0.5608;1.2809;
428.4000;0.5592;1.2711;
428.7000;0.5617;1.2908;
429.0000;0.5592;1.2933;
429.3000;0.5608;1.2982;
429.6000;0.5625;1.3007;
429.9000;0.5682;1.3155;
430.2000;0.5600;1.2908;
430.5000;0.5633;1.2933;
430.8000;0.5608;1.2859;
431.1000;0.5600;1.2785;
431.4000;0.5600;1.2785;
431.7000;0.5535;1.2637;
432.0000;0.5608;1.2883;
432.3000;0.5608;1.2908;
432.6000;0.5592;1.2883;
432.9000;0.5600;1.2957;
433.2000;0.5584;1.2908;
433.5000;0.5592;1.2883;
433.8000;0.5617;1.2933;
434.1000;0.5592;1.2834;
434.4000;0.5600;1.2834;
434.7000;0.5617;1.2834;
435.0000;0.5617;1.2809;
435.3000;0.5600;1.2859;
435.6000;0.5608;1.2933;
435.9000;0.5617;1.2957;
436.2000;0.5592;1.2859;
436.5000;0.5625;1.2908;
436.8000;0.5608;1.2859;
437.1000;0.5608;1.2859;
437.4000;0.5600;1.2859;
437.7000;0.5584;1.2760;
438.0000;0.5682;1.2908;
438.3000;0.5674;1.2859;
438.6000;0.5608;1.2711;
438.9000;0.5641;1.2809;
439.2000;0.5576;1.2760;
439.5000;0.5682;1.3056;
439.8000;0.5617;1.2908;
440.1000;0.5535;1.2637;
440.4000;0.5600;1.2785;
440.7000;0.5617;1.2883;
441.0000;0.5600;1.2735;
441.3000;0.5608;1.2834;
441.6000;0.5584;1.2834;
441.9000;0.5592;1.2834;
442.2000;0.5592;1.2908;
442.5000;0.5576;1.2883;
442.8000;0.5592;1.2785;
443.1000;0.5592;1.2785;
443.4000;0.5600;1.2859;
443.7000;0.5617;1.2785;
444.0000;0.5608;1.2711;
444.3000;0.5600;1.2735;
444.6000;0.5617;1.2760;
444.9000;0.5600;1.2711;
445.2000;0.5608;1.2785;
445.5000;0.5576;1.2686;
445.8000;0.5600;1.2760;
446.1000;0.5592;1.2735;
446.4000;0.5608;1.2809;
446.7000;0.5592;1.2735;
447.0000;0.5600;1.2834;
447.3000;0.5600;1.2809;
447.6000;0.5584;1.2809;
447.9000;0.5551;1.2686;
448.2000;0.5584;1.2760;
448.5000;0.5576;1.2686;
448.8000;0.5617;1.2711;
449.1000;0.5600;1.2760;
449.4000;0.5584;1.2785;
449.7000;0.5543;1.2711;
450.0000;0.5617;1.2908;
450.3000;0.5617;1.2859;
450.6000;0.5592;1.2760;
450.9000;0.5608;1.2760;
451.2000;0.5608;1.2686;
451.5000;0.5608;1.2686;
451.8000;0.5608;1.2735;
452.1000;0.5649;1.2933;
452.4000;0.5600;1.2809;
452.7000;0.5592;1.2760;
453.0000;0.5633;1.2957;
453.3000;0.5600;1.2809;
453.6000;0.5576;1.2785;
453.9000;0.5698;1.3081;
454.2000;0.5519;1.2612;
454.5000;0.5600;1.2859;
454.8000;0.5592;1.2785;
455.1000;0.5641;1.2859;
455.4000;0.5625;1.2859;
455.7000;0.5625;1.2859;
456.0000;0.5576;1.2760;
456.3000;0.5584;1.2760;
456.6000;0.5519;1.2612;
456.9000;0.5600;1.2834;
457.2000;0.5608;1.2809;
457.5000;0.5600;1.2735;
457.8000;0.5641;1.2908;
458.1000;0.5617;1.2834;
458.4000;0.5592;1.2686;
458.7000;0.5600;1.2686;
459.0000;0.5592;1.2563;
459.3000;0.5617;1.2686;
459.6000;0.5584;1.2735;
459.9000;0.5600;1.2834;
460.2000;0.5633;1.2809;
460.5000;0.5617;1.2809;
460.8000;0.5592;1.2711;
461.1000;0.5543;1.2538;
461.4000;0.5600;1.2661;
461.7000;0.5763;1.3032;
462.0000;0.5625;1.2661;
462.3000;0.5608;1.2686;
462.6000;0.5600;1.2735;
462.9000;0.5600;1.2859;
463.2000;0.5503;1.2587;
463.5000;0.5592;1.2785;
463.8000;0.5592;1.2735;
464.1000;0.5535;1.2612;
464.4000;0.5608;1.2686;
464.7000;0.5584;1.2612;
465.0000;0.5592;1.2686;
465.3000;0.5600;1.2735;
465.6000;0.5649;1.2883;
465.9000;0.5608;1.2711;
466.2000;0.5625;1.2711;
466.5000;0.5592;1.2587;
466.8000;0.5617;1.2686;
467.1000;0.5625;1.2735;
467.4000;0.5584;1.2735;
467.7000;0.5617;1.2760;
468.0000;0.5625;1.2711;
468.3000;0.5633;1.2760;
468.6000;0.5633;1.2785;
468.9000;0.5600;1.2711;
469.2000;0.5665;1.2933;
469.5000;0.5608;1.2661;
469.8000;0.5600;1.2661;
470.1000;0.5584;1.2538;
470.4000;0.5584;1.2538;
470.7000;0.5617;1.2612;
471.0000;0.5584;1.2587;
471.3000;0.5600;1.2612;
471.6000;0.5600;1.2661;
471.9000;0.5592;1.2587;
472.2000;0.5592;1.2513;
472.5000;0.5576;1.2390;
472.8000;0.5592;1.2365;
473.1000;0.5617;1.2291;
473.4000;0.5617;1.2316;
473.7000;0.5698;1.2563;
474.0000;0.5617;1.2439;
474.3000;0.5592;1.2439;
474.6000;0.5608;1.2587;
474.9000;0.5608;1.2587;
475.2000;0.5617;1.2612;
475.5000;0.5600;1.2538;
475.8000;0.5608;1.2513;
476.1000;0.5617;1.2612;
476.4000;0.5600;1.2587;
476.7000;0.5568;1.2415;
477.0000;0.5543;1.2365;
477.3000;0.5592;1.2513;
477.6000;0.5576;1.2513;
477.9000;0.5592;1.2563;
478.2000;0.5568;1.2538;
478.5000;0.5600;1.2612;
478.8000;0.5625;1.2661;
479.1000;0.5560;1.2489;
479.4000;0.5600;1.2735;
479.7000;0.5600;1.2908;
480.0000;0.5519;1.2686;
480.3000;0.5592;1.2957;
480.6000;0.5543;1.2834;
480.9000;0.5600;1.3007;
481.2000;0.5584;1.3056;
481.5000;0.5600;1.3056;
481.8000;0.5551;1.2933;
482.1000;0.5592;1.3130;
482.4000;0.5576;1.3106;
482.7000;0.5600;1.3106;
483.0000;0.5625;1.3155;
483.3000;0.5600;1.3007;
483.6000;0.5608;1.3007;
483.9000;0.5625;1.3056;
484.2000;0.5617;1.3032;
484.5000;0.5625;1.3032;
484.8000;0.5608;1.3155;
485.1000;0.5600;1.3180;
485.4000;0.5608;1.3081;
485.7000;0.5608;1.3081;
486.0000;0.5592;1.2957;
486.3000;0.5608;1.2908;
486.6000;0.5731;1.3328;
486.9000;0.5592;1.2982;
487.2000;0.5600;1.2859;
487.5000;0.5560;1.2735;
487.8000;0.5608;1.2883;
488.1000;0.5592;1.2859;
488.4000;0.5608;1.2834;
488.7000;0.5617;1.2957;
489.0000;0.5617;1.2933;
489.3000;0.5600;1.2908;
489.6000;0.5584;1.2883;
489.9000;0.5511;1.2538;
490.2000;0.5617;1.2735;
490.5000;0.5600;1.2834;
490.8000;0.5592;1.2883;
491.1000;0.5600;1.2933;
491.4000;0.5584;1.2933;
491.7000;0.5633;1.3007;
492.0000;0.5617;1.2883;
492.3000;0.5600;1.2859;
492.6000;0.5641;1.2982;
492.9000;0.5617;1.2883;
493.2000;0.5608;1.2883;
493.5000;0.5608;1.2834;
493.8000;0.5608;1.2859;
494.1000;0.5625;1.2933;
494.4000;0.5608;1.2982;
494.7000;0.5576;1.2933;
495.0000;0.5584;1.2957;
495.3000;0.5600;1.2859;
495.6000;0.5600;1.2933;
495.9000;0.5608;1.2957;
496.2000;0.5625;1.3007;
496.5000;0.5576;1.2933;
496.8000;0.5633;1.3056;
497.1000;0.5617;1.2908;
497.4000;0.5592;1.2908;
497.7000;0.5617;1.2883;
498.0000;0.5600;1.2834;
498.3000;0.5600;1.2711;
498.6000;0.5608;1.2711;
498.9000;0.5592;1.2711;
499.2000;0.5608;1.2661;
499.5000;0.5633;1.2809;
499.8000;0.5617;1.2834;
500.1000;0.5576;1.2686;
500.4000;0.5600;1.2859;
500.7000;0.5600;1.2760;
501.0000;0.5600;1.2686;
501.3000;0.5633;1.2785;
501.6000;0.5608;1.2661;
501.9000;0.5592;1.2612;
502.2000;0.5625;1.2612;
502.5000;0.5625;1.2612;
502.8000;0.5600;1.2735;
503.1000;0.5600;1.2711;
503.4000;0.5649;1.2883;
503.7000;0.5617;1.2809;
504.0000;0.5600;1.2834;
504.3000;0.5608;1.2760;
504.6000;0.5608;1.2735;
504.9000;0.5608;1.2735;
505.2000;0.5592;1.2637;
505.5000;0.5600;1.2612;
505.8000;0.5617;1.2760;
506.1000;0.5608;1.2859;
506.4000;0.5617;1.2908;
506.7000;0.5576;1.2809;
507.0000;0.5617;1.2760;
507.3000;0.5600;1.2735;
507.6000;0.5584;1.2785;
507.9000;0.5592;1.2785;
508.2000;0.5592;1.2785;
508.5000;0.5543;1.2637;
508.8000;0.5600;1.2883;
509.1000;0.5617;1.2859;
509.4000;0.5682;1.3007;
509.7000;0.5592;1.2760;
510.0000;0.5535;1.2563;
510.3000;0.5592;1.2785;
510.6000;0.5600;1.2785;
510.9000;0.5600;1.2686;
511.2000;0.5608;1.2760;
511.5000;0.5600;1.2735;
511.8000;0.5600;1.2735;
512.1000;0.5584;1.2686;
512.4000;0.5600;1.2809;
512.7000;0.5625;1.2834;
513.0000;0.5600;1.2711;
513.3000;0.5600;1.2686;
513.6000;0.5633;1.2760;
513.9000;0.5649;1.2883;
514.2000;0.5608;1.2859;
514.5000;0.5625;1.2760;
514.8000;0.5608;1.2760;
515.1000;0.5608;1.2785;
515.4000;0.5600;1.2735;
515.7000;0.5568;1.2661;
516.0000;0.5576;1.2809;
516.3000;0.5617;1.2859;
516.6000;0.5560;1.2686;
516.9000;0.5592;1.2735;
517.2000;0.5608;1.2809;
517.5000;0.5592;1.2883;
517.8000;0.5592;1.2859;
518.1000;0.5592;1.2859;
518.4000;0.5617;1.2859;
518.7000;0.5600;1.2834;
519.0000;0.5608;1.2883;
519.3000;0.5600;1.2883;
519.6000;0.5576;1.2859;
519.9000;0.5592;1.2809;
520.2000;0.5617;1.2859;
520.5000;0.5592;1.2711;
520.8000;0.5584;1.2711;
521.1000;0.5592;1.2711;
521.4000;0.5657;1.2859;
521.7000;0.5568;1.2489;
522.0000;0.5592;1.2612;
522.3000;0.5592;1.2637;
522.6000;0.5584;1.2587;
522.9000;0.5608;1.2686;
523.2000;0.5608;1.2661;
523.5000;0.5592;1.2711;
523.8000;0.5584;1.2760;
524.1000;0.5617;1.2760;
524.4000;0.5592;1.2686;
524.7000;0.5600;1.2686;
525.0000;0.5608;1.2711;
525.3000;0.5608;1.2735;
525.6000;0.5592;1.2661;
525.9000;0.5600;1.2711;
526.2000;0.5600;1.2760;
526.5000;0.5608;1.2711;
526.8000;0.5600;1.2735;
527.1000;0.5592;1.2637;
527.4000;0.5584;1.2612;
527.7000;0.5600;1.2661;
528.0000;0.5576;1.2538;
528.3000;0.5608;1.2563;
528.6000;0.5600;1.2513;
528.9000;0.5551;1.2340;
529.2000;0.5592;1.2415;
529.5000;0.5617;1.2415;
529.8000;0.5551;1.2266;
530.1000;0.5576;1.2316;
530.4000;0.5625;1.2489;
530.7000;0.5600;1.2513;
531.0000;0.5641;1.2686;
531.3000;0.5592;1.2563;
531.6000;0.5584;1.2513;
531.9000;0.5608;1.2637;
532.2000;0.5592;1.2661;
532.5000;0.5649;1.2834;
532.8000;0.5608;1.2735;
533.1000;0.5592;1.2711;
533.4000;0.5617;1.2686;
533.7000;0.5600;1.2538;
534.0000;0.5608;1.2587;
534.3000;0.5584;1.2587;
534.6000;0.5633;1.2711;
534.9000;0.5608;1.2661;
535.2000;0.5608;1.2711;
535.5000;0.5584;1.2612;
535.8000;0.5600;1.2711;
536.1000;0.5617;1.2760;
536.4000;0.5584;1.2612;
536.7000;0.5584;1.2612;
537.0000;0.5576;1.2587;
537.3000;0.5600;1.2612;
537.6000;0.5584;1.2538;
537.9000;0.5600;1.2587;
538.2000;0.5584;1.2489;
538.5000;0.5592;1.2612;
538.8000;0.5584;1.2513;
539.1000;0.5584;1.2513;
539.4000;0.5617;1.2661;
539.7000;0.5600;1.2711;
540.0000;0.5600;1.2883;
540.3000;0.5584;1.2883;
540.6000;0.5576;1.2933;
540.9000;0.5600;1.2908;
541.2000;0.5617;1.2957;
541.5000;0.5600;1.2859;
541.8000;0.5625;1.2883;
542.1000;0.5584;1.2883;
542.4000;0.5576;1.2908;
542.7000;0.5600;1.2957;
543.0000;0.5584;1.2883;
543.3000;0.5600;1.2957;
543.6000;0.5600;1.2883;
543.9000;0.5592;1.2785;
544.2000;0.5592;1.2760;
544.5000;0.5600;1.2785;
544.8000;0.5560;1.2711;
545.1000;0.5682;1.2883;
545.4000;0.5617;1.2711;
545.7000;0.5584;1.2686;
546.0000;0.5584;1.2760;
546.3000;0.5617;1.2883;
546.6000;0.5608;1.2883;
546.9000;0.5592;1.2859;
547.2000;0.5576;1.2735;
547.5000;0.5592;1.2785;
547.8000;0.5641;1.2859;
548.1000;0.5625;1.2809;
548.4000;0.5600;1.2834;
548.7000;0.5551;1.2587;
549.0000;0.5698;1.3081;
549.3000;0.5527;1.2612;
549.6000;0.5592;1.2735;
549.9000;0.5568;1.2661;
550.2000;0.5535;1.2612;
550.5000;0.5608;1.2834;
550.8000;0.5503;1.2686;
551.1000;0.5690;1.3130;
551.4000;0.5568;1.2883;
551.7000;0.5690;1.3229;
552.0000;0.5722;1.3328;
552.3000;0.5592;1.2933;
552.6000;0.5608;1.3007;
552.9000;0.5600;1.2908;
553.2000;0.5576;1.2686;
553.5000;0.5576;1.2587;
553.8000;0.5617;1.2637;
554.1000;0.5608;1.2587;
554.4000;0.5608;1.2513;
554.7000;0.5568;1.2415;
555.0000;0.5592;1.2415;
555.3000;0.5584;1.2340;
555.6000;0.5617;1.2439;
555.9000;0.5649;1.2587;
556.2000;0.5576;1.2390;
556.5000;0.5592;1.2415;
556.8000;0.5608;1.2439;
557.1000;0.5608;1.2439;
557.4000;0.5608;1.2415;
557.7000;0.5600;1.2464;
558.0000;0.5608;1.2513;
558.3000;0.5665;1.2686;
558.6000;0.5584;1.2439;
558.9000;0.5568;1.2390;
559.2000;0.5608;1.2489;
559.5000;0.5584;1.2340;
559.8000;0.5600;1.2489;
560.1000;0.5568;1.2464;
560.4000;0.5592;1.2538;
560.7000;0.5584;1.2513;
561.0000;0.5568;1.2390;
561.3000;0.5576;1.2415;
561.6000;0.5584;1.2489;
561.9000;0.5600;1.2538;
562.2000;0.5608;1.2587;
562.5000;0.5592;1.2587;
562.8000;0.5600;1.2612;
563.1000;0.5617;1.2686;
563.4000;0.5617;1.2735;
563.7000;0.5592;1.2711;
564.0000;0.5560;1.2661;
564.3000;0.5625;1.2834;
564.6000;0.5576;1.2661;
564.9000;0.5568;1.2637;
565.2000;0.5608;1.2760;
565.5000;0.5608;1.2735;
565.8000;0.5600;1.2735;
566.1000;0.5568;1.2563;
566.4000;0.5592;1.2563;
566.7000;0.5519;1.2489;
567.0000;0.5600;1.2686;
567.3000;0.5600;1.2612;
567.6000;0.5584;1.2661;
567.9000;0.5592;1.2612;
568.2000;0.5592;1.2513;
568.5000;0.5625;1.2587;
568.8000;0.5576;1.2563;
569.1000;0.5600;1.2760;
569.4000;0.5592;1.2735;
569.7000;0.5592;1.2760;
570.0000;0.5503;1.2464;
570.3000;0.5592;1.2809;
570.6000;0.5576;1.2760;
570.9000;0.5568;1.2686;
571.2000;0.5584;1.2760;
571.5000;0.5592;1.2637;
571.8000;0.5519;1.2365;
572.1000;0.5592;1.2489;
572.4000;0.5600;1.2563;
572.7000;0.5657;1.2637;
573.0000;0.5600;1.2538;
573.3000;0.5584;1.2513;
573.6000;0.5625;1.2513;
573.9000;0.5608;1.2513;
574.2000;0.5592;1.2439;
574.5000;0.5608;1.2415;
574.8000;0.5600;1.2513;
575.1000;0.5617;1.2538;
575.4000;0.5584;1.2563;
575.7000;0.5576;1.2538;
576.0000;0.5608;1.2587;
576.3000;0.5600;1.2563;
576.6000;0.5584;1.2612;
576.9000;0.5592;1.2587;
577.2000;0.5600;1.2612;
577.5000;0.5576;1.2587;
577.8000;0.5592;1.2538;
578.1000;0.5600;1.2563;
578.4000;0.5592;1.2587;
578.7000;0.5600;1.2563;
579.0000;0.5600;1.2513;
579.3000;0.5600;1.2587;
579.6000;0.5608;1.2587;
579.9000;0.5592;1.2513;
580.2000;0.5600;1.2563;
580.5000;0.5625;1.2686;
580.8000;0.5584;1.2711;
581.1000;0.5600;1.2760;
581.4000;0.5592;1.2735;
581.7000;0.5592;1.2735;
582.0000;0.5600;1.2760;
582.3000;0.5592;1.2735;
582.6000;0.5592;1.2809;
582.9000;0.5600;1.2834;
583.2000;0.5600;1.2735;
583.5000;0.5600;1.2834;
583.8000;0.5592;1.2834;
584.1000;0.5592;1.2809;
584.4000;0.5592;1.2809;
584.7000;0.5600;1.2785;
585.0000;0.5551;1.2637;
585.3000;0.5617;1.2834;
585.6000;0.5568;1.2686;
585.9000;0.5617;1.2785;
586.2000;0.5608;1.2785;
586.5000;0.5584;1.2711;
586.8000;0.5617;1.2711;
587.1000;0.5584;1.2538;
587.4000;0.5592;1.2563;
587.7000;0.5584;1.2513;
588.0000;0.5592;1.2538;
588.3000;0.5608;1.2563;
588.6000;0.5608;1.2538;
588.9000;0.5625;1.2464;
589.2000;0.5608;1.2513;
589.5000;0.5608;1.2489;
589.8000;0.5608;1.2390;
590.1000;0.5600;1.2365;
590.4000;0.5617;1.2513;
590.7000;0.5608;1.2513;
591.0000;0.5600;1.2612;
591.3000;0.5600;1.2612;
591.6000;0.5600;1.2538;
591.9000;0.5592;1.2563;
592.2000;0.5608;1.2735;
592.5000;0.5608;1.2686;
592.8000;0.5608;1.2686;
593.1000;0.5617;1.2711;
593.4000;0.5608;1.2563;
593.7000;0.5551;1.2439;
594.0000;0.5592;1.2587;
594.3000;0.5608;1.2661;
594.6000;0.5600;1.2661;
594.9000;0.5584;1.2587;
595.2000;0.5576;1.2587;
595.5000;0.5576;1.2637;
595.8000;0.5592;1.2686;
596.1000;0.5584;1.2760;
596.4000;0.5576;1.2760;
596.7000;0.5592;1.2686;
597.0000;0.5600;1.2661;
597.3000;0.5568;1.2587;
597.6000;0.5600;1.2735;
597.9000;0.5592;1.2686;
598.2000;0.5608;1.2637;
598.5000;0.5617;1.2760;
598.8000;0.5584;1.2661;
599.1000;0.5584;1.2661;
599.4000;0.5592;1.2686;
599.7000;0.5592;1.2735;
600.0000;0.5600;1.2686;
600.3000;0.5592;1.2711;
600.6000;0.5592;1.2661;
600.9000;0.5592;1.2415;
601.2000;0.5568;1.2291;
601.5000;0.5519;1.2094;
601.8000;0.5560;1.2118;
602.1000;0.5454;1.1822;
602.4000;0.5389;1.1551;
602.7000;0.5413;1.1501;
603.0000;0.5389;1.1378;
603.3000;0.5364;1.1329;
603.6000;0.5315;1.1230;
603.9000;0.5275;1.1131;
604.2000;0.5275;1.1131;
604.5000;0.5250;1.0934;
604.8000;0.5258;1.0860;
605.1000;0.5177;1.0687;
605.4000;0.5112;1.0613;
605.7000;0.5153;1.0736;
606.0000;0.5112;1.0687;
606.3000;0.5104;1.0662;
606.6000;0.5055;1.0588;
606.9000;0.5039;1.0539;
607.2000;0.5039;1.0514;
607.5000;0.5047;1.0440;
607.8000;0.5022;1.0341;
608.1000;0.5014;1.0341;
608.4000;0.4990;1.0440;
608.7000;0.4974;1.0391;
609.0000;0.4941;1.0317;
609.3000;0.4957;1.0415;
609.6000;0.4835;1.0119;
609.9000;0.4917;1.0267;
610.2000;0.4892;1.0317;
610.5000;0.4884;1.0243;
610.8000;0.4860;1.0169;
611.1000;0.4843;1.0144;
611.4000;0.4843;1.0094;
611.7000;0.4884;1.0119;
612.0000;0.4811;1.0045;
612.3000;0.4835;1.0119;
612.6000;0.4827;1.0169;
612.9000;0.4794;1.0094;
613.2000;0.4786;1.0144;
613.5000;0.4754;0.9971;
613.8000;0.4770;0.9922;
614.1000;0.4721;0.9946;
614.4000;0.4713;0.9971;
614.7000;0.4697;0.9971;
615.0000;0.4737;1.0094;
615.3000;0.4746;1.0169;
615.6000;0.4697;0.9971;
615.9000;0.4672;0.9946;
616.2000;0.4697;1.0020;
616.5000;0.4664;0.9946;
616.8000;0.4664;0.9922;
617.1000;0.4624;0.9848;
617.4000;0.4648;1.0020;
617.7000;0.4624;0.9996;
618.0000;0.4607;0.9922;
618.3000;0.4632;0.9996;
618.6000;0.4607;0.9922;
618.9000;0.4607;0.9897;
619.2000;0.4607;1.0020;
619.5000;0.4591;0.9996;
619.8000;0.4583;0.9996;
620.1000;0.4575;0.9971;
620.4000;0.4567;0.9823;
620.7000;0.4567;0.9700;
621.0000;0.4526;0.9601;
621.3000;0.4534;0.9626;
621.6000;0.4526;0.9650;
621.9000;0.4526;0.9552;
622.2000;0.4493;0.9477;
622.5000;0.4510;0.9527;
622.8000;0.4510;0.9576;
623.1000;0.4518;0.9724;
623.4000;0.4510;0.9724;
623.7000;0.4469;0.9749;
624.0000;0.4469;0.9872;
624.3000;0.4510;0.9897;
624.6000;0.4477;0.9798;
624.9000;0.4444;0.9724;
625.2000;0.4461;0.9724;
625.5000;0.4567;0.9996;
625.8000;0.4444;0.9700;
626.1000;0.4444;0.9675;
626.4000;0.4371;0.9453;
626.7000;0.4428;0.9700;
627.0000;0.4428;0.9749;
627.3000;0.4420;0.9749;
627.6000;0.4444;0.9749;
627.9000;0.4396;0.9724;
628.2000;0.4379;0.9724;
628.5000;0.4420;0.9774;
628.8000;0.4387;0.9724;
629.1000;0.4371;0.9724;
629.4000;0.4387;0.9774;
629.7000;0.4387;0.9650;
630.0000;0.4347;0.9650;
630.3000;0.4444;0.9996;
630.6000;0.4396;0.9872;
630.9000;0.4290;0.9601;
631.2000;0.4379;0.9774;
631.5000;0.4355;0.9700;
631.8000;0.4347;0.9700;
632.1000;0.4265;0.9601;
632.4000;0.4339;0.9626;
632.7000;0.4298;0.9650;
633.0000;0.4322;0.9848;
633.3000;0.4306;0.9848;
633.6000;0.4282;0.9872;
633.9000;0.4306;0.9848;
634.2000;0.4290;0.9774;
634.5000;0.4306;0.9724;
634.8000;0.4298;0.9675;
635.1000;0.4233;0.9527;
635.4000;0.4274;0.9626;
635.7000;0.4282;0.9626;
636.0000;0.4274;0.9576;
636.3000;0.4282;0.9626;
636.6000;0.4257;0.9552;
636.9000;0.4298;0.9700;
637.2000;0.4217;0.9527;
637.5000;0.4257;0.9576;
637.8000;0.4306;0.9724;
638.1000;0.4282;0.9749;
638.4000;0.4249;0.9774;
638.7000;0.4241;0.9774;
639.0000;0.4241;0.9798;
639.3000;0.4241;0.9823;
639.6000;0.4208;0.9848;
639.9000;0.4241;0.9971;
640.2000;0.4225;0.9946;
640.5000;0.4208;0.9774;
640.8000;0.4208;0.9774;
641.1000;0.4217;0.9749;
641.4000;0.4217;0.9749;
641.7000;0.4322;0.9996;
642.0000;0.4217;0.9626;
642.3000;0.4225;0.9650;
642.6000;0.4208;0.9700;
642.9000;0.4225;0.9774;
643.2000;0.4217;0.9922;
643.5000;0.4208;0.9848;
643.8000;0.4217;0.9848;
644.1000;0.4176;0.9774;
644.4000;0.4176;0.9798;
644.7000;0.4200;0.9848;
645.0000;0.4160;0.9724;
645.3000;0.4135;0.9650;
645.6000;0.4151;0.9700;
645.9000;0.4168;0.9774;
646.2000;0.4176;0.9798;
646.5000;0.4135;0.9724;
646.8000;0.4151;0.9798;
647.1000;0.4143;0.9872;
647.4000;0.4078;0.9774;
647.7000;0.4151;0.9996;
648.0000;0.4143;0.9922;
648.3000;0.4160;0.9946;
648.6000;0.4143;1.0020;
648.9000;0.4143;0.9996;
649.2000;0.4160;0.9996;
649.5000;0.4151;0.9946;
649.8000;0.4143;0.9897;
650.1000;0.4217;1.0119;
650.4000;0.4111;0.9724;
650.7000;0.4111;0.9848;
651.0000;0.4119;0.9897;
651.3000;0.4143;0.9897;
651.6000;0.4135;0.9798;
651.9000;0.4135;0.9848;
652.2000;0.4127;0.9848;
652.5000;0.4103;0.9798;
652.8000;0.4119;0.9774;
653.1000;0.4135;0.9774;
653.4000;0.4200;0.9996;
653.7000;0.4094;0.9675;
654.0000;0.4119;0.9675;
654.3000;0.4111;0.9724;
654.6000;0.4135;0.9848;
654.9000;0.4103;0.9724;
655.2000;0.4070;0.9576;
655.5000;0.4094;0.9626;
655.8000;0.4070;0.9601;
656.1000;0.4086;0.9650;
656.4000;0.4094;0.9749;
656.7000;0.4094;0.9848;
657.0000;0.4086;0.9872;
657.3000;0.4062;0.9848;
657.6000;0.4086;0.9946;
657.9000;0.4078;1.0020;
658.2000;0.4086;1.0045;
658.5000;0.4070;0.9996;
658.8000;0.4062;0.9971;
659.1000;0.4054;0.9971;
659.4000;0.4070;0.9971;
659.7000;0.4062;0.9946;
660.0000;0.4062;0.9996;
660.3000;0.4062;0.9946;
660.6000;0.4070;0.9848;
660.9000;0.4062;0.9774;
661.2000;0.4086;0.9848;
661.5000;0.4062;0.9897;
661.8000;0.4054;0.9872;
662.1000;0.4062;0.9872;
662.4000;0.4054;0.9897;
662.7000;0.4046;0.9897;
663.0000;0.4046;0.9922;
663.3000;0.4046;0.9971;
663.6000;0.4054;0.9996;
663.9000;0.4054;0.9996;
664.2000;0.4046;0.9922;
664.5000;0.4046;0.9872;
664.8000;0.4127;1.0094;
665.1000;0.4046;0.9897;
665.4000;0.4029;0.9872;
665.7000;0.4037;0.9922;
666.0000;0.4070;0.9946;
666.3000;0.4054;0.9922;
666.6000;0.4029;0.9897;
666.9000;0.4086;0.9971;
667.2000;0.4037;0.9848;
667.5000;0.4029;0.9848;
667.8000;0.4021;0.9848;
668.1000;0.3997;0.9798;
668.4000;0.4029;0.9872;
668.7000;0.4021;0.9823;
669.0000;0.4005;0.9749;
669.3000;0.4054;0.9823;
669.6000;0.4021;0.9749;
669.9000;0.4029;0.9872;
670.2000;0.4029;0.9848;
670.5000;0.4021;0.9823;
670.8000;0.4021;0.9798;
671.1000;0.4013;0.9675;
671.4000;0.3964;0.9576;
671.7000;0.4021;0.9749;
672.0000;0.3989;0.9848;
672.3000;0.4005;0.9872;
672.6000;0.4013;0.9946;
672.9000;0.4005;0.9897;
673.2000;0.4005;0.9897;
673.5000;0.3989;0.9922;
673.8000;0.3997;0.9971;
674.1000;0.3997;0.9996;
674.4000;0.3964;1.0020;
674.7000;0.4062;1.0292;
675.0000;0.4013;1.0094;
675.3000;0.3989;1.0020;
675.6000;0.4005;1.0020;
675.9000;0.3972;0.9922;
676.2000;0.3997;0.9946;
676.5000;0.3997;0.9996;
676.8000;0.3989;0.9946;
677.1000;0.3940;0.9922;
677.4000;0.4005;1.0020;
677.7000;0.3989;1.0045;
678.0000;0.4029;1.0218;
678.3000;0.3989;0.9996;
678.6000;0.3989;1.0020;
678.9000;0.3972;0.9946;
679.2000;0.3980;0.9922;
679.5000;0.3980;0.9946;
679.8000;0.3964;0.9897;
680.1000;0.3989;0.9996;
680.4000;0.3956;0.9897;
680.7000;0.3940;0.9872;
681.0000;0.3989;1.0045;
681.3000;0.3972;1.0070;
681.6000;0.4037;1.0169;
681.9000;0.3980;1.0045;
682.2000;0.3964;1.0070;
682.5000;0.3972;1.0020;
682.8000;0.3964;1.0045;
683.1000;0.3980;1.0119;
683.4000;0.3964;1.0070;
683.7000;0.3948;1.0119;
684.0000;0.3989;1.0193;
684.3000;0.3980;1.0070;
684.6000;0.4021;1.0144;
684.9000;0.3980;0.9996;
685.2000;0.3964;0.9922;
685.5000;0.3972;0.9971;
685.8000;0.3948;0.9848;
686.1000;0.3964;0.9946;
686.4000;0.3980;0.9971;
686.7000;0.3948;0.9897;
687.0000;0.3980;0.9897;
687.3000;0.3972;0.9848;
687.6000;0.3956;0.9774;
687.9000;0.3956;0.9823;
688.2000;0.3923;0.9724;
688.5000;0.3956;0.9798;
688.8000;0.3932;0.9798;
689.1000;0.3940;0.9848;
689.4000;0.3948;0.9922;
689.7000;0.3899;0.9872;
690.0000;0.3964;1.0045;
690.3000;0.3948;1.0094;
690.6000;0.3980;1.0119;
690.9000;0.3956;1.0070;
691.2000;0.3948;0.9971;
691.5000;0.3956;0.9922;
691.8000;0.3899;0.9700;
692.1000;0.3964;0.9774;
692.4000;0.3948;0.9700;
692.7000;0.3948;0.9724;
693.0000;0.3932;0.9823;
693.3000;0.3923;0.9872;
693.6000;0.3940;0.9897;
693.9000;0.3932;0.9872;
694.2000;0.3956;1.0020;
694.5000;0.3989;1.0070;
694.8000;0.3948;0.9946;
695.1000;0.3923;0.9724;
695.4000;0.3932;0.9650;
695.7000;0.3932;0.9552;
696.0000;0.3940;0.9626;
696.3000;0.3907;0.9675;
696.6000;0.3940;0.9798;
696.9000;0.3932;0.9774;
697.2000;0.3997;0.9897;
697.5000;0.3940;0.9675;
697.8000;0.3932;0.9798;
698.1000;0.3940;0.9823;
698.4000;0.3940;0.9774;
698.7000;0.3956;0.9749;
699.0000;0.3932;0.9749;
699.3000;0.3940;0.9724;
699.6000;0.3948;0.9650;
699.9000;0.3915;0.9700;
700.2000;0.3932;0.9700;
700.5000;0.3923;0.9650;
700.8000;0.4037;0.9922;
701.1000;0.3915;0.9724;
701.4000;0.3956;0.9823;
701.7000;0.3907;0.9848;
702.0000;0.3923;0.9848;
702.3000;0.3923;0.9700;
702.6000;0.3907;0.9724;
702.9000;0.3891;0.9700;
703.2000;0.3932;0.9749;
703.5000;0.3940;0.9848;
703.8000;0.3948;0.9971;
704.1000;0.3932;0.9897;
704.4000;0.3923;0.9848;
704.7000;0.3891;0.9700;
705.0000;0.3907;0.9848;
705.3000;0.3923;0.9922;
705.6000;0.3907;1.0020;
705.9000;0.3883;0.9971;
706.2000;0.3907;1.0070;
706.5000;0.3875;0.9922;
706.8000;0.3907;0.9971;
707.1000;0.3915;0.9897;
707.4000;0.3907;0.9872;
707.7000;0.3891;0.9774;
708.0000;0.3907;0.9724;
708.3000;0.3891;0.9626;
708.6000;0.3899;0.9774;
708.9000;0.3907;0.9922;
709.2000;0.3915;0.9971;
709.5000;0.3923;1.0020;
709.8000;0.3899;0.9996;
710.1000;0.3907;0.9996;
710.4000;0.3907;0.9897;
710.7000;0.3899;0.9823;
711.0000;0.3899;0.9774;
711.3000;0.3915;0.9823;
711.6000;0.3899;0.9872;
711.9000;0.3907;0.9872;
712.2000;0.3907;0.9823;
712.5000;0.3899;0.9848;
712.8000;0.3899;0.9774;
713.1000;0.3891;0.9700;
713.4000;0.3907;0.9749;
713.7000;0.3891;0.9700;
714.0000;0.3915;0.9700;
714.3000;0.3891;0.9675;
714.6000;0.3883;0.9626;
714.9000;0.3875;0.9650;
715.2000;0.3907;0.9798;
715.5000;0.3883;0.9749;
715.8000;0.3907;0.9626;
716.1000;0.3907;0.9552;
716.4000;0.3867;0.9576;
716.7000;0.3899;0.9650;
717.0000;0.3964;0.9971;
717.3000;0.3883;0.9823;
717.6000;0.3891;0.9848;
717.9000;0.3875;0.9798;
718.2000;0.3875;0.9823;
718.5000;0.3867;0.9872;
718.8000;0.3907;1.0020;
719.1000;0.3883;0.9996;
719.4000;0.3867;0.9946;
719.7000;0.3899;0.9971;
720.0000;0.3915;0.9971;
720.3000;0.3899;0.9922;
720.6000;0.3883;0.9798;
720.9000;0.3891;0.9823;
721.2000;0.3915;0.9897;
721.5000;0.3923;0.9946;
721.8000;0.3867;0.9872;
722.1000;0.3932;0.9996;
722.4000;0.3899;0.9848;
722.7000;0.3907;0.9774;
723.0000;0.3923;0.9946;
723.3000;0.3891;0.9872;
723.6000;0.3834;0.9724;
723.9000;0.3883;0.9798;
724.2000;0.3883;0.9798;
724.5000;0.3883;0.9872;
724.8000;0.3899;0.9897;
725.1000;0.3875;0.9798;
725.4000;0.3891;0.9946;
725.7000;0.3923;1.0070;
726.0000;0.3932;1.0094;
726.3000;0.3883;1.0045;
726.6000;0.3915;1.0070;
726.9000;0.3842;0.9922;
727.2000;0.3883;1.0045;
727.5000;0.3891;1.0020;
727.8000;0.3834;0.9749;
728.1000;0.3883;0.9897;
728.4000;0.3883;0.9848;
728.7000;0.3899;0.9897;
729.0000;0.3867;0.9848;
729.3000;0.3883;0.9798;
729.6000;0.3907;0.9749;
729.9000;0.3875;0.9724;
730.2000;0.3867;0.9774;
730.5000;0.3850;0.9749;
730.8000;0.3875;0.9798;
731.1000;0.3875;0.9700;
731.4000;0.3907;0.9823;
731.7000;0.3956;0.9996;
732.0000;0.3899;0.9872;
732.3000;0.3907;0.9946;
732.6000;0.3932;0.9946;
732.9000;0.3891;0.9897;
733.2000;0.3875;0.9774;
733.5000;0.3891;0.9774;
733.8000;0.3883;0.9774;
734.1000;0.3867;0.9798;
734.4000;0.3883;0.9848;
734.7000;0.3875;0.9897;
735.0000;0.3858;0.9848;
735.3000;0.3842;0.9774;
735.6000;0.3899;0.9848;
735.9000;0.3867;0.9749;
736.2000;0.3850;0.9749;
736.5000;0.3867;0.9749;
736.8000;0.3850;0.9798;
737.1000;0.3867;0.9823;
737.4000;0.3883;0.9823;
737.7000;0.3875;0.9823;
738.0000;0.3875;0.9848;
738.3000;0.3867;0.9848;
738.6000;0.3883;0.9922;
738.9000;0.3850;0.9872;
739.2000;0.3850;0.9971;
739.5000;0.3842;0.9872;
739.8000;0.3826;0.9798;
740.1000;0.3867;0.9897;
740.4000;0.3818;0.9774;
740.7000;0.3850;0.9823;
741.0000;0.3867;0.9798;
741.3000;0.3826;0.9823;
741.6000;0.3850;0.9848;
741.9000;0.3867;0.9798;
742.2000;0.3875;0.9774;
742.5000;0.3891;0.9724;
742.8000;0.3867;0.9626;
743.1000;0.3867;0.9675;
743.4000;0.3842;0.9700;
743.7000;0.3826;0.9601;
744.0000;0.3875;0.9675;
744.3000;0.3834;0.9601;
744.6000;0.3883;0.9749;
744.9000;0.3891;0.9872;
745.2000;0.3875;0.9798;
745.5000;0.3883;0.9774;
745.8000;0.3858;0.9724;
746.1000;0.3867;0.9749;
746.4000;0.3818;0.9675;
746.7000;0.3842;0.9700;
747.0000;0.3834;0.9626;
747.3000;0.3883;0.9774;
747.6000;0.3956;0.9971;
747.9000;0.3850;0.9749;
748.2000;0.3842;0.9675;
748.5000;0.3842;0.9675;
748.8000;0.3867;0.9774;
749.1000;0.3867;0.9700;
749.4000;0.3842;0.9675;
749.7000;0.3769;0.9502;
750.0000;0.3858;0.9774;
750.3000;0.3875;0.9700;
750.6000;0.3842;0.9700;
750.9000;0.3858;0.9774;
751.2000;0.3834;0.9700;
751.5000;0.3858;0.9675;
751.8000;0.3858;0.9576;
752.1000;0.3834;0.9477;
752.4000;0.3850;0.9502;
752.7000;0.3858;0.9626;
753.0000;0.3875;0.9700;
753.3000;0.3875;0.9724;
753.6000;0.3891;0.9749;
753.9000;0.3867;0.9724;
754.2000;0.3867;0.9675;
754.5000;0.3842;0.9650;
754.8000;0.3850;0.9601;
755.1000;0.3867;0.9601;
755.4000;0.3858;0.9576;
755.7000;0.3850;0.9576;
756.0000;0.3858;0.9626;
756.3000;0.3858;0.9576;
756.6000;0.3850;0.9576;
756.9000;0.3915;0.9724;
757.2000;0.3858;0.9552;
757.5000;0.3818;0.9453;
757.8000;0.3875;0.9477;
758.1000;0.3858;0.9453;
758.4000;0.3858;0.9502;
758.7000;0.3867;0.9601;
759.0000;0.3858;0.9552;
759.3000;0.3867;0.9650;
759.6000;0.3858;0.9724;
759.9000;0.3842;0.9700;
760.2000;0.3883;0.9774;
760.5000;0.3875;0.9798;
760.8000;0.3899;0.9823;
761.1000;0.3858;0.9749;
761.4000;0.3858;0.9749;
761.7000;0.3850;0.9774;
762.0000;0.3883;0.9872;
762.3000;0.3875;0.9848;
762.6000;0.3858;0.9749;
762.9000;0.3858;0.9749;
763.2000;0.3801;0.9601;
763.5000;0.3891;0.9971;
763.8000;0.3875;0.9897;
764.1000;0.3850;0.9848;
764.4000;0.3769;0.9552;
764.7000;0.3858;0.9724;
765.0000;0.3850;0.9700;
765.3000;0.3842;0.9700;
765.6000;0.3858;0.9724;
765.9000;0.3899;0.9872;
766.2000;0.3858;0.9774;
766.5000;0.3826;0.9700;
766.8000;0.3834;0.9872;
767.1000;0.3858;1.0020;
767.4000;0.3818;0.9872;
767.7000;0.3858;0.9971;
768.0000;0.3842;0.9946;
768.3000;0.3907;0.9996;
768.6000;0.3891;0.9946;
768.9000;0.3858;0.9922;
769.2000;0.3858;0.9823;
769.5000;0.3850;0.9798;
769.8000;0.3867;0.9823;
770.1000;0.3867;0.9897;
770.4000;0.3858;0.9897;
770.7000;0.3867;0.9872;
771.0000;0.3858;0.9897;
771.3000;0.3850;0.9872;
771.6000;0.3858;0.9971;
771.9000;0.3826;0.9996;
772.2000;0.3842;0.9996;
772.5000;0.3932;1.0218;
772.8000;0.3842;0.9848;
773.1000;0.3818;0.9922;
773.4000;0.3867;1.0070;
773.7000;0.3899;1.0169;
774.0000;0.3818;0.9946;
774.3000;0.3826;0.9996;
774.6000;0.3842;0.9922;
774.9000;0.3842;0.9872;
775.2000;0.3858;0.9946;
775.5000;0.3842;0.9946;
775.8000;0.3842;0.9946;
776.1000;0.3842;0.9996;
776.4000;0.3850;1.0020;
776.7000;0.3899;1.0218;
777.0000;0.3810;0.9946;
777.3000;0.3834;0.9971;
777.6000;0.3883;1.0119;
777.9000;0.3850;1.0045;
778.2000;0.3858;1.0020;
778.5000;0.3858;1.0045;
778.8000;0.3842;0.9971;
779.1000;0.3867;1.0020;
779.4000;0.3834;1.0020;
779.7000;0.3826;1.0045;
780.0000;0.3834;1.0045;
780.3000;0.3858;1.0020;
780.6000;0.3842;0.9946;
780.9000;0.3834;0.9971;
781.2000;0.3842;1.0045;
781.5000;0.3736;0.9823;
781.8000;0.3850;1.0070;
782.1000;0.3867;1.0094;
782.4000;0.3842;1.0020;
782.7000;0.3850;0.9971;
783.0000;0.3753;0.9650;
783.3000;0.3842;0.9823;
783.6000;0.3826;0.9774;
783.9000;0.3842;0.9774;
784.2000;0.3858;0.9872;
784.5000;0.3850;0.9946;
784.8000;0.3842;1.0020;
785.1000;0.3850;0.9996;
785.4000;0.3842;0.9971;
785.7000;0.3842;1.0045;
786.0000;0.3842;0.9996;
786.3000;0.3834;1.0045;
786.6000;0.3850;1.0094;
786.9000;0.3793;0.9996;
787.2000;0.3850;1.0045;
787.5000;0.3842;1.0169;
787.8000;0.3834;1.0094;
788.1000;0.3834;1.0070;
788.4000;0.3834;1.0119;
788.7000;0.3834;1.0020;
789.0000;0.3834;1.0020;
789.3000;0.3842;1.0119;
789.6000;0.3842;1.0144;
789.9000;0.3826;1.0119;
790.2000;0.3834;1.0070;
790.5000;0.3834;1.0045;
790.8000;0.3842;1.0119;
791.1000;0.3834;1.0094;
791.4000;0.3810;1.0169;
791.7000;0.3891;1.0341;
792.0000;0.3826;1.0070;
792.3000;0.3875;1.0169;
792.6000;0.3850;1.0169;
792.9000;0.3842;1.0243;
793.2000;0.3842;1.0366;
793.5000;0.3850;1.0391;
793.8000;0.3818;1.0169;
794.1000;0.3842;1.0218;
794.4000;0.3858;1.0341;
794.7000;0.3899;1.0292;
795.0000;0.3834;1.0094;
795.3000;0.3826;1.0070;
795.6000;0.3956;1.0440;
795.9000;0.3818;1.0169;
796.2000;0.3842;1.0094;
796.5000;0.3858;1.0144;
796.8000;0.3826;1.0144;
797.1000;0.3826;1.0169;
797.4000;0.3842;1.0317;
797.7000;0.3801;1.0119;
798.0000;0.3769;0.9946;
798.3000;0.3826;1.0218;
798.6000;0.3826;1.0267;
798.9000;0.3923;1.0588;
799.2000;0.3810;1.0193;
799.5000;0.3761;1.0045;
799.8000;0.3834;1.0169;
800.1000;0.3826;1.0218;
800.4000;0.3834;1.0169;
800.7000;0.3793;1.0070;
801.0000;0.3842;1.0144;
801.3000;0.3834;1.0094;
801.6000;0.3801;0.9996;
801.9000;0.3826;0.9922;
802.2000;0.3834;0.9823;
802.5000;0.3810;0.9823;
802.8000;0.3834;0.9946;
803.1000;0.3818;0.9946;
803.4000;0.3834;0.9996;
803.7000;0.3842;0.9996;
804.0000;0.3842;1.0070;
804.3000;0.3818;0.9996;
804.6000;0.3858;1.0094;
804.9000;0.3842;1.0020;
805.2000;0.3826;1.0070;
805.5000;0.3810;1.0020;
805.8000;0.3842;0.9996;
806.1000;0.3834;1.0070;
806.4000;0.3810;1.0045;
806.7000;0.3834;1.0094;
807.0000;0.3867;1.0292;
807.3000;0.3793;1.0070;
807.6000;0.3842;1.0144;
807.9000;0.3818;0.9971;
808.2000;0.3826;1.0020;
808.5000;0.3826;1.0070;
808.8000;0.3842;1.0169;
809.1000;0.3818;1.0119;
809.4000;0.3810;1.0193;
809.7000;0.3834;1.0267;
810.0000;0.3834;1.0193;
810.3000;0.3826;1.0045;
810.6000;0.3842;1.0144;
810.9000;0.3826;1.0094;
811.2000;0.3834;1.0243;
811.5000;0.3834;1.0292;
811.8000;0.3785;1.0144;
812.1000;0.3818;1.0144;
812.4000;0.3826;1.0119;
812.7000;0.3801;1.0020;
813.0000;0.3834;1.0045;
813.3000;0.3810;0.9946;
813.6000;0.3842;0.9996;
813.9000;0.3793;0.9700;
814.2000;0.3826;0.9749;
814.5000;0.3826;0.9724;
814.8000;0.3842;0.9749;
815.1000;0.3826;0.9700;
815.4000;0.3907;0.9872;
815.7000;0.3801;0.9601;
816.0000;0.3826;0.9675;
816.3000;0.3834;0.9749;
816.6000;0.3867;0.9872;
816.9000;0.3842;0.9700;
817.2000;0.3842;0.9650;
817.5000;0.3818;0.9626;
817.8000;0.3826;0.9798;
818.1000;0.3834;0.9823;
818.4000;0.3932;1.0045;
818.7000;0.3842;0.9823;
819.0000;0.3891;0.9946;
819.3000;0.3834;0.9823;
819.6000;0.3842;0.9774;
819.9000;0.3834;0.9774;
820.2000;0.3826;0.9700;
820.5000;0.3842;0.9798;
820.8000;0.3818;0.9798;
821.1000;0.3818;0.9872;
821.4000;0.3842;0.9872;
821.7000;0.3850;0.9823;
822.0000;0.3736;0.9502;
822.3000;0.3826;0.9724;
822.6000;0.3850;0.9848;
822.9000;0.3826;0.9774;
823.2000;0.3801;0.9872;
823.5000;0.3826;0.9897;
823.8000;0.3818;0.9823;
824.1000;0.3842;0.9823;
824.4000;0.3777;0.9675;
824.7000;0.3834;0.9922;
825.0000;0.3850;1.0045;
825.3000;0.3826;0.9971;
825.6000;0.3834;0.9922;
825.9000;0.3867;1.0070;
826.2000;0.3761;0.9798;
826.5000;0.3891;1.0193;
826.8000;0.3834;0.9946;
827.1000;0.3858;0.9848;
827.4000;0.3826;0.9798;
827.7000;0.3826;0.9848;
828.0000;0.3850;0.9922;
828.3000;0.3842;0.9848;
828.6000;0.3858;0.9971;
828.9000;0.3842;0.9971;
829.2000;0.3850;0.9971;
829.5000;0.3858;0.9996;
829.8000;0.3810;0.9922;
830.1000;0.3834;0.9996;
830.4000;0.3858;1.0020;
830.7000;0.3826;0.9996;
831.0000;0.3834;0.9971;
831.3000;0.3826;0.9823;
831.6000;0.3842;0.9946;
831.9000;0.3850;1.0045;
832.2000;0.3956;1.0267;
832.5000;0.3785;0.9823;
832.8000;0.3826;0.9897;
833.1000;0.3834;0.9823;
833.4000;0.3932;1.0045;
833.7000;0.3834;0.9749;
834.0000;0.3834;0.9774;
834.3000;0.3834;0.9823;
834.6000;0.3834;0.9872;
834.9000;0.3834;0.9922;
835.2000;0.3810;0.9848;
835.5000;0.3834;0.9848;
835.8000;0.3826;0.9798;
836.1000;0.3818;0.9798;
836.4000;0.3744;0.9576;
836.7000;0.3834;0.9798;
837.0000;0.3818;0.9798;
837.3000;0.3818;0.9848;
837.6000;0.3850;1.0020;
837.9000;0.3801;0.9971;
838.2000;0.3834;1.0070;
838.5000;0.3923;1.0267;
838.8000;0.3842;1.0070;
839.1000;0.3850;1.0020;
839.4000;0.3793;0.9897;
839.7000;0.3818;0.9971;
840.0000;0.3826;1.0045;
840.3000;0.3834;1.0045;
840.6000;0.3769;0.9848;
840.9000;0.3842;0.9922;
841.2000;0.3842;0.9922;
841.5000;0.3826;0.9922;
841.8000;0.3818;0.9922;
842.1000;0.3769;0.9922;
842.4000;0.3842;1.0193;
842.7000;0.3826;1.0094;
843.0000;0.3810;0.9922;
843.3000;0.3818;0.9872;
843.6000;0.3818;0.9897;
843.9000;0.3842;0.9848;
844.2000;0.3842;0.9848;
844.5000;0.3826;0.9897;
844.8000;0.3842;0.9996;
845.1000;0.3850;0.9971;
845.4000;0.3842;1.0020;
845.7000;0.3834;0.9922;
846.0000;0.3818;0.9897;
846.3000;0.3810;0.9897;
846.6000;0.3810;0.9872;
846.9000;0.3818;0.9823;
847.2000;0.3801;0.9675;
847.5000;0.3810;0.9675;
847.8000;0.3826;0.9626;
848.1000;0.3818;0.9650;
848.4000;0.3810;0.9724;
848.7000;0.3818;0.9823;
849.0000;0.3818;0.9872;
849.3000;0.3875;1.0045;
849.6000;0.3818;0.9897;
849.9000;0.3818;0.9922;
850.2000;0.3826;0.9971;
850.5000;0.3842;0.9872;
850.8000;0.3777;0.9650;
851.1000;0.3818;0.9798;
851.4000;0.3761;0.9626;
851.7000;0.3818;0.9872;
852.0000;0.3801;0.9897;
852.3000;0.3801;0.9848;
852.6000;0.3810;0.9897;
852.9000;0.3850;1.0045;
853.2000;0.3842;0.9996;
853.5000;0.3826;0.9823;
853.8000;0.3834;0.9971;
854.1000;0.3842;1.0070;
854.4000;0.3818;0.9922;
854.7000;0.3826;0.9971;
855.0000;0.3826;1.0045;
855.3000;0.3842;0.9996;
855.6000;0.3810;0.9946;
855.9000;0.3810;0.9897;
856.2000;0.3818;0.9774;
856.5000;0.3801;0.9749;
856.8000;0.3818;0.9749;
857.1000;0.3826;0.9774;
857.4000;0.3818;0.9823;
857.7000;0.3818;0.9897;
858.0000;0.3801;0.9897;
858.3000;0.3826;0.9946;
858.6000;0.3834;1.0020;
858.9000;0.3801;0.9996;
859.2000;0.3826;1.0020;
859.5000;0.3826;0.9996;
859.8000;0.3818;0.9922;
860.1000;0.3842;0.9872;
860.4000;0.3842;0.9848;
860.7000;0.3834;0.9848;
861.0000;0.3818;0.9749;
861.3000;0.3826;0.9700;
861.6000;0.3834;0.9798;
861.9000;0.3818;0.9872;
862.2000;0.3842;0.9872;
862.5000;0.3867;0.9971;
862.8000;0.3818;0.9848;
863.1000;0.3818;0.9798;
863.4000;0.3818;0.9798;
863.7000;0.3834;0.9872;
864.0000;0.3818;0.9922;
864.3000;0.3834;0.9897;
864.6000;0.3810;0.9749;
864.9000;0.3818;0.9774;
865.2000;0.3826;0.9749;
865.5000;0.3834;0.9798;
865.8000;0.3834;0.9823;
866.1000;0.3818;0.9749;
866.4000;0.3826;0.9798;
866.7000;0.3810;0.9724;
867.0000;0.3826;0.9601;
867.3000;0.3850;0.9675;
867.6000;0.3801;0.9601;
867.9000;0.3834;0.9552;
868.2000;0.3810;0.9527;
868.5000;0.3818;0.9477;
868.8000;0.3810;0.9453;
869.1000;0.3818;0.9502;
869.4000;0.3810;0.9477;
869.7000;0.3826;0.9650;
870.0000;0.3834;0.9724;
870.3000;0.3801;0.9650;
870.6000;0.3826;0.9700;
870.9000;0.3818;0.9798;
871.2000;0.3875;0.9872;
871.5000;0.3826;0.9749;
871.8000;0.3826;0.9774;
872.1000;0.3834;0.9798;
872.4000;0.3850;0.9823;
872.7000;0.3818;0.9675;
873.0000;0.3818;0.9626;
873.3000;0.3810;0.9601;
873.6000;0.3777;0.9675;
873.9000;0.3834;0.9848;
874.2000;0.3810;0.9798;
874.5000;0.3793;0.9675;
874.8000;0.3826;0.9848;
875.1000;0.3899;1.0045;
875.4000;0.3818;0.9922;
875.7000;0.3810;0.9897;
876.0000;0.3867;1.0020;
876.3000;0.3842;0.9996;
876.6000;0.3810;0.9897;
876.9000;0.3793;0.9774;
877.2000;0.3850;0.9872;
877.5000;0.3826;0.9872;
877.8000;0.3850;0.9996;
878.1000;0.3858;1.0070;
878.4000;0.3793;0.9823;
878.7000;0.3818;0.9823;
879.0000;0.3826;0.9774;
879.3000;0.3834;0.9724;
879.6000;0.3810;0.9650;
879.9000;0.3704;0.9453;
880.2000;0.3810;0.9675;
880.5000;0.3834;0.9823;
880.8000;0.3826;0.9897;
881.1000;0.3818;0.9996;
881.4000;0.3826;1.0020;
881.7000;0.3826;0.9996;
882.0000;0.3810;0.9922;
882.3000;0.3826;0.9922;
882.6000;0.3834;0.9848;
882.9000;0.3826;0.9897;
883.2000;0.3826;0.9946;
883.5000;0.3818;0.9996;
883.8000;0.3826;1.0094;
884.1000;0.3810;1.0094;
884.4000;0.3818;1.0119;
884.7000;0.3810;1.0094;
885.0000;0.3826;1.0045;
885.3000;0.3818;0.9971;
885.6000;0.3826;0.9996;
885.9000;0.3801;1.0020;
886.2000;0.3801;0.9996;
886.5000;0.3915;1.0169;
886.8000;0.3810;0.9823;
887.1000;0.3818;0.9798;
887.4000;0.3818;0.9774;
887.7000;0.3818;0.9848;
888.0000;0.3826;0.9823;
888.3000;0.3842;0.9872;
888.6000;0.3826;0.9872;
888.9000;0.3850;0.9897;
889.2000;0.3826;0.9848;
889.5000;0.3842;0.9749;
889.8000;0.3907;0.9922;
890.1000;0.3818;0.9675;
890.4000;0.3826;0.9749;
890.7000;0.3834;0.9675;
891.0000;0.3842;0.9774;
891.3000;0.3810;0.9650;
891.6000;0.3793;0.9552;
891.9000;0.3793;0.9650;
892.2000;0.3777;0.9552;
892.5000;0.3810;0.9527;
892.8000;0.3801;0.9477;
893.1000;0.3818;0.9576;
893.4000;0.3834;0.9626;
893.7000;0.3883;0.9823;
894.0000;0.3810;0.9601;
894.3000;0.3826;0.9724;
894.6000;0.3761;0.9650;
894.9000;0.3777;0.9798;
895.2000;0.3826;0.9946;
895.5000;0.3736;0.9700;
895.8000;0.3810;0.9897;
896.1000;0.3842;0.9848;
896.4000;0.3850;0.9872;
896.7000;0.3687;0.9502;
897.0000;0.3818;0.9798;
897.3000;0.3818;0.9724;
897.6000;0.3923;0.9996;
897.9000;0.3801;0.9724;
898.2000;0.3834;0.9798;
898.5000;0.3818;0.9675;
898.8000;0.3818;0.9650;
899.1000;0.3834;0.9774;
899.4000;0.3810;0.9724;
899.7000;0.3826;0.9774;
900.0000;0.3858;0.9971;
900.3000;0.3810;0.9872;
900.6000;0.3826;0.9798;
900.9000;0.3858;0.9872;
901.2000;0.3810;0.9872;
901.5000;0.3818;0.9823;
901.8000;0.3818;0.9823;
902.1000;0.3826;0.9798;
902.4000;0.3818;0.9774;
902.7000;0.3818;0.9724;
903.0000;0.3810;0.9774;
903.3000;0.3769;0.9675;
903.6000;0.3801;0.9675;
903.9000;0.3810;0.9774;
904.2000;0.3810;0.9872;
904.5000;0.3818;0.9897;
904.8000;0.3810;0.9897;
905.1000;0.3834;0.9946;
905.4000;0.3850;0.9996;
905.7000;0.3818;0.9922;
906.0000;0.3818;0.9872;
906.3000;0.3858;0.9971;
906.6000;0.3810;0.9897;
906.9000;0.3801;0.9848;
907.2000;0.3818;0.9872;
907.5000;0.3761;0.9724;
907.8000;0.3810;0.9823;
908.1000;0.3785;0.9798;
908.4000;0.3842;0.9897;
908.7000;0.3801;0.9724;
909.0000;0.3826;0.9749;
909.3000;0.3810;0.9749;
909.6000;0.3793;0.9749;
909.9000;0.3826;0.9774;
910.2000;0.3810;0.9724;
910.5000;0.3801;0.9650;
910.8000;0.3826;0.9724;
911.1000;0.3801;0.9724;
911.4000;0.3810;0.9749;
911.7000;0.3858;0.9897;
912.0000;0.3818;0.9774;
912.3000;0.3818;0.9971;
912.6000;0.3867;1.0119;
912.9000;0.3826;0.9946;
913.2000;0.3818;0.9872;
913.5000;0.3875;0.9946;
913.8000;0.3728;0.9675;
914.1000;0.3810;0.9872;
914.4000;0.3818;0.9823;
914.7000;0.3810;0.9724;
915.0000;0.3842;0.9749;
915.3000;0.3793;0.9675;
915.6000;0.3858;0.9823;
915.9000;0.3810;0.9724;
916.2000;0.3818;0.9798;
916.5000;0.3761;0.9724;
916.8000;0.3769;0.9724;
917.1000;0.3810;0.9823;
917.4000;0.3810;0.9798;
917.7000;0.3818;0.9749;
918.0000;0.3818;0.9724;
918.3000;0.3810;0.9700;
918.6000;0.3801;0.9724;
918.9000;0.3810;0.9848;
919.2000;0.3761;0.9798;
919.5000;0.3785;0.9922;
919.8000;0.3826;0.9848;
920.1000;0.3810;0.9823;
920.4000;0.3801;0.9798;
920.7000;0.3744;0.9626;
921.0000;0.3810;0.9798;
921.3000;0.3818;0.9848;
921.6000;0.3875;0.9922;
921.9000;0.3826;0.9823;
922.2000;0.3810;0.9798;
922.5000;0.3826;0.9798;
922.8000;0.3826;0.9700;
923.1000;0.3834;0.9675;
923.4000;0.3834;0.9675;
923.7000;0.3842;0.9897;
924.0000;0.3834;0.9922;
924.3000;0.3826;0.9946;
924.6000;0.3810;0.9922;
924.9000;0.3834;0.9996;
925.2000;0.3826;0.9946;
925.5000;0.3818;0.9897;
925.8000;0.3793;0.9872;
926.1000;0.3826;0.9798;
926.4000;0.3826;0.9798;
926.7000;0.3818;0.9749;
927.0000;0.3761;0.9626;
927.3000;0.3810;0.9798;
927.6000;0.3818;0.9798;
927.9000;0.3801;0.9700;
928.2000;0.3826;0.9749;
928.5000;0.3834;0.9700;
928.8000;0.3801;0.9700;
929.1000;0.3818;0.9774;
929.4000;0.3850;0.9872;
929.7000;0.3818;0.9774;
930.0000;0.3736;0.9552;
930.3000;0.3850;0.9823;
930.6000;0.3818;0.9749;
930.9000;0.3818;0.9798;
931.2000;0.3818;0.9724;
931.5000;0.3793;0.9650;
931.8000;0.3810;0.9700;
932.1000;0.3801;0.9675;
932.4000;0.3777;0.9527;
932.7000;0.3826;0.9724;
933.0000;0.3826;0.9798;
933.3000;0.3810;0.9798;
933.6000;0.3850;0.9946;
933.9000;0.3801;0.9798;
934.2000;0.3818;0.9798;
934.5000;0.3753;0.9675;
934.8000;0.3801;0.9774;
935.1000;0.3801;0.9749;
935.4000;0.3818;0.9700;
935.7000;0.3793;0.9601;
936.0000;0.3826;0.9626;
936.3000;0.3826;0.9650;
936.6000;0.3850;0.9601;
936.9000;0.3826;0.9552;
937.2000;0.3826;0.9527;
937.5000;0.3858;0.9650;
937.8000;0.3818;0.9700;
938.1000;0.3818;0.9823;
938.4000;0.3818;0.9774;
938.7000;0.3826;0.9749;
939.0000;0.3842;0.9749;
939.3000;0.3818;0.9700;
939.6000;0.3818;0.9749;
939.9000;0.3801;0.9724;
940.2000;0.3810;0.9749;
940.5000;0.3818;0.9675;
940.8000;0.3818;0.9724;
941.1000;0.3736;0.9527;
941.4000;0.3818;0.9798;
941.7000;0.3801;0.9700;
942.0000;0.3834;0.9700;
942.3000;0.3769;0.9477;
942.6000;0.3842;0.9576;
942.9000;0.3810;0.9552;
943.2000;0.3818;0.9552;
943.5000;0.3818;0.9626;
943.8000;0.3826;0.9650;
944.1000;0.3842;0.9724;
944.4000;0.3793;0.9798;
944.7000;0.3826;0.9897;
945.0000;0.3818;0.9848;
945.3000;0.3801;0.9749;
945.6000;0.3810;0.9774;
945.9000;0.3801;0.9798;
946.2000;0.3818;0.9774;
946.5000;0.3818;0.9749;
946.8000;0.3810;0.9774;
947.1000;0.3801;0.9774;
947.4000;0.3826;0.9798;
947.7000;0.3842;0.9798;
948.0000;0.3826;0.9724;
948.3000;0.3818;0.9675;
948.6000;0.3793;0.9700;
948.9000;0.3793;0.9626;
949.2000;0.3810;0.9749;
949.5000;0.3810;0.9749;
949.8000;0.3818;0.9823;
950.1000;0.3826;0.9922;
950.4000;0.3834;0.9897;
950.7000;0.3818;0.9798;
951.0000;0.3818;0.9774;
951.3000;0.3826;0.9774;
951.6000;0.3826;0.9823;
951.9000;0.3818;0.9774;
952.2000;0.3810;0.9724;
952.5000;0.3785;0.9601;
952.8000;0.3810;0.9700;
953.1000;0.3801;0.9700;
953.4000;0.3720;0.9527;
953.7000;0.3777;0.9626;
954.0000;0.3850;0.9749;
954.3000;0.3842;0.9749;
954.6000;0.3826;0.9700;
954.9000;0.3801;0.9527;
955.2000;0.3826;0.9724;
955.5000;0.3801;0.9749;
955.8000;0.3761;0.9650;
956.1000;0.3801;0.9897;
956.4000;0.3850;0.9946;
956.7000;0.3810;0.9971;
957.0000;0.3826;0.9971;
957.3000;0.3810;0.9823;
957.6000;0.3785;0.9724;
957.9000;0.3818;0.9798;
958.2000;0.3810;0.9798;
958.5000;0.3810;0.9749;
958.8000;0.3818;0.9724;
959.1000;0.3810;0.9650;
959.4000;0.3793;0.9477;
959.7000;0.3810;0.9477;
960.0000;0.3842;0.9552;
960.3000;0.3818;0.9601;
960.6000;0.3826;0.9650;
960.9000;0.3826;0.9576;
961.2000;0.3818;0.9502;
961.5000;0.3818;0.9552;
961.8000;0.3842;0.9576;
962.1000;0.3826;0.9576;
962.4000;0.3810;0.9552;
962.7000;0.3818;0.9675;
963.0000;0.3810;0.9700;
963.3000;0.3834;0.9749;
963.6000;0.3793;0.9724;
963.9000;0.3834;0.9798;
964.2000;0.3810;0.9724;
964.5000;0.3826;0.9798;
964.8000;0.3842;0.9848;
965.1000;0.3810;0.9749;
965.4000;0.3858;0.9823;
965.7000;0.3834;0.9749;
966.0000;0.3834;0.9724;
966.3000;0.3826;0.9724;
966.6000;0.3818;0.9650;
966.9000;0.3834;0.9749;
967.2000;0.3834;0.9823;
967.5000;0.3826;0.9848;
967.8000;0.3810;0.9848;
968.1000;0.3818;0.9798;
968.4000;0.3810;0.9798;
968.7000;0.3801;0.9872;
969.0000;0.3826;0.9848;
969.3000;0.3826;0.9848;
969.6000;0.3818;0.9823;
969.9000;0.3826;0.9897;
970.2000;0.3810;0.9823;
970.5000;0.3818;0.9897;
970.8000;0.3810;0.9872;
971.1000;0.3826;0.9823;
971.4000;0.3826;0.9897;
971.7000;0.3818;0.9897;
972.0000;0.3810;0.9848;
972.3000;0.3826;0.9848;
972.6000;0.3826;0.9798;
972.9000;0.3826;0.9724;
973.2000;0.3769;0.9502;
973.5000;0.3834;0.9626;
973.8000;0.3850;0.9700;
974.1000;0.3818;0.9650;
974.4000;0.3785;0.9576;
974.7000;0.3834;0.9749;
975.0000;0.3810;0.9700;
975.3000;0.3810;0.9675;
975.6000;0.3801;0.9700;
975.9000;0.3858;0.9848;
976.2000;0.3810;0.9823;
976.5000;0.3793;0.9749;
976.8000;0.3810;0.9724;
977.1000;0.3801;0.9724;
977.4000;0.3818;0.9798;
977.7000;0.3826;0.9823;
978.0000;0.3801;0.9749;
978.3000;0.3810;0.9848;
978.6000;0.3834;0.9946;
978.9000;0.3818;0.9922;
979.2000;0.3801;0.9897;
979.5000;0.3810;0.9872;
979.8000;0.3858;1.0070;
980.1000;0.3826;0.9996;
980.4000;0.3834;1.0020;
980.7000;0.3785;0.9798;
981.0000;0.3801;0.9922;
981.3000;0.3810;0.9922;
981.6000;0.3801;0.9823;
981.9000;0.3801;0.9823;
982.2000;0.3801;0.9774;
982.5000;0.3801;0.9724;
982.8000;0.3826;0.9774;
983.1000;0.3720;0.9502;
983.4000;0.3810;0.9675;
983.7000;0.3826;0.9749;
984.0000;0.3834;0.9675;
984.3000;0.3818;0.9576;
984.6000;0.3793;0.9675;
984.9000;0.3818;0.9724;
985.2000;0.3810;0.9823;
985.5000;0.3810;0.9872;
985.8000;0.3793;0.9774;
986.1000;0.3793;0.9675;
986.4000;0.3842;0.9823;
986.7000;0.3826;0.9700;
987.0000;0.3818;0.9552;
987.3000;0.3785;0.9527;
987.6000;0.3793;0.9477;
987.9000;0.3818;0.9576;
988.2000;0.3801;0.9552;
988.5000;0.3793;0.9601;
988.8000;0.3891;0.9946;
989.1000;0.3810;0.9749;
989.4000;0.3793;0.9749;
989.7000;0.3818;0.9774;
990.0000;0.3810;0.9823;
990.3000;0.3785;0.9922;
990.6000;0.3801;0.9798;
990.9000;0.3769;0.9650;
991.2000;0.3801;0.9675;
991.5000;0.3785;0.9724;
991.8000;0.3842;0.9823;
992.1000;0.3793;0.9700;
992.4000;0.3801;0.9724;
992.7000;0.3826;0.9774;
993.0000;0.3818;0.9774;
993.3000;0.3834;0.9749;
993.6000;0.3826;0.9650;
993.9000;0.3818;0.9601;
994.2000;0.3818;0.9724;
994.5000;0.3801;0.9650;
994.8000;0.3826;0.9700;
995.1000;0.3826;0.9749;
995.4000;0.3826;0.9749;
995.7000;0.3826;0.9675;
996.0000;0.3818;0.9626;
996.3000;0.3826;0.9502;
996.6000;0.3810;0.9403;
996.9000;0.3801;0.9403;
997.2000;0.3842;0.9626;
997.5000;0.3801;0.9527;
997.8000;0.3810;0.9502;
998.1000;0.3720;0.9329;
998.4000;0.3810;0.9700;
998.7000;0.3810;0.9724;
999.0000;0.3793;0.9675;
999.3000;0.3810;0.9626;
999.6000;0.3818;0.9675;
999.9000;0.3818;0.9724;
1000.2000;0.3810;0.9675;
1000.5000;0.3801;0.9724;
1000.8000;0.3801;0.9774;
1001.1000;0.3810;0.9872;
1001.4000;0.3793;0.9897;
1001.7000;0.3810;0.9946;
1002.0000;0.3826;0.9922;
1002.3000;0.3923;1.0169;
1002.6000;0.3810;0.9922;
1002.9000;0.3793;0.9823;
1003.2000;0.3818;0.9774;
1003.5000;0.3834;0.9798;
1003.8000;0.3777;0.9675;
1004.1000;0.3834;0.9798;
1004.4000;0.3818;0.9724;
1004.7000;0.3777;0.9650;
1005.0000;0.3761;0.9527;
1005.3000;0.3826;0.9724;
1005.6000;0.3785;0.9601;
1005.9000;0.3801;0.9601;
1006.2000;0.3826;0.9675;
1006.5000;0.3818;0.9552;
1006.8000;0.3793;0.9552;
1007.1000;0.3826;0.9650;
1007.4000;0.3818;0.9700;
1007.7000;0.3801;0.9774;
1008.0000;0.3810;0.9798;
1008.3000;0.3801;0.9724;
1008.6000;0.3818;0.9774;
1008.9000;0.3801;0.9724;
1009.2000;0.3810;0.9749;
1009.5000;0.3801;0.9774;
1009.8000;0.3801;0.9749;
1010.1000;0.3818;0.9848;
1010.4000;0.3842;0.9897;
1010.7000;0.3810;0.9798;
1011.0000;0.3769;0.9700;
1011.3000;0.3761;0.9626;
1011.6000;0.3810;0.9749;
1011.9000;0.3777;0.9724;
1012.2000;0.3810;0.9749;
1012.5000;0.3785;0.9601;
1012.8000;0.3818;0.9749;
1013.1000;0.3818;0.9823;
1013.4000;0.3810;0.9848;
1013.7000;0.3785;0.9724;
1014.0000;0.3818;0.9848;
1014.3000;0.3793;0.9897;
1014.6000;0.3818;1.0045;
1014.9000;0.3793;0.9897;
1015.2000;0.3801;0.9971;
1015.5000;0.3818;0.9872;
1015.8000;0.3818;0.9872;
1016.1000;0.3785;0.9749;
1016.4000;0.3818;0.9848;
1016.7000;0.3818;0.9848;
1017.0000;0.3801;0.9872;
1017.3000;0.3793;0.9848;
1017.6000;0.3818;0.9946;
1017.9000;0.3810;0.9897;
1018.2000;0.3818;0.9848;
1018.5000;0.3744;0.9650;
1018.8000;0.3793;0.9872;
1019.1000;0.3818;0.9922;
1019.4000;0.3818;0.9897;
1019.7000;0.3818;0.9774;
1020.0000;0.3810;0.9848;
1020.3000;0.3801;0.9798;
1020.6000;0.3858;0.9946;
1020.9000;0.3818;0.9798;
1021.2000;0.3801;0.9848;
1021.5000;0.3834;0.9848;
1021.8000;0.3818;0.9724;
1022.1000;0.3826;0.9700;
1022.4000;0.3818;0.9675;
1022.7000;0.3801;0.9749;
1023.0000;0.3810;0.9922;
1023.3000;0.3818;0.9872;
1023.6000;0.3777;0.9700;
1023.9000;0.3801;0.9774;
1024.2000;0.3793;0.9823;
1024.5000;0.3818;0.9848;
1024.8000;0.3777;0.9700;
1025.1000;0.3801;0.9724;
1025.4000;0.3810;0.9774;
1025.7000;0.3801;0.9650;
1026.0000;0.3753;0.9576;
1026.3000;0.3842;0.9724;
1026.6000;0.3769;0.9650;
1026.9000;0.3801;0.9675;
1027.2000;0.3801;0.9700;
1027.5000;0.3818;0.9823;
1027.8000;0.3826;0.9848;
1028.1000;0.3834;0.9848;
1028.4000;0.3834;0.9971;
1028.7000;0.3810;0.9971;
1029.0000;0.3818;0.9848;
1029.3000;0.3842;0.9897;
1029.6000;0.3777;0.9823;
1029.9000;0.3826;0.9971;
1030.2000;0.3810;0.9922;
1030.5000;0.3810;0.9872;
1030.8000;0.3801;0.9848;
1031.1000;0.3793;0.9650;
1031.4000;0.3801;0.9601;
1031.7000;0.3826;0.9749;
1032.0000;0.3826;0.9749;
1032.3000;0.3826;0.9749;
1032.6000;0.3810;0.9724;
1032.9000;0.3810;0.9749;
1033.2000;0.3810;0.9774;
1033.5000;0.3810;0.9798;
1033.8000;0.3818;0.9848;
1034.1000;0.3793;0.9749;
1034.4000;0.3818;0.9798;
1034.7000;0.3834;0.9798;
1035.0000;0.3810;0.9724;
1035.3000;0.3801;0.9675;
1035.6000;0.3801;0.9700;
1035.9000;0.3785;0.9675;
1036.2000;0.3801;0.9724;
1036.5000;0.3810;0.9724;
1036.8000;0.3785;0.9700;
1037.1000;0.3761;0.9675;
1037.4000;0.3834;0.9848;
1037.7000;0.3810;0.9823;
1038.0000;0.3801;0.9798;
1038.3000;0.3810;0.9823;
1038.6000;0.3793;0.9798;
1038.9000;0.3818;0.9848;
1039.2000;0.3850;0.9872;
1039.5000;0.3801;0.9724;
1039.8000;0.3826;0.9749;
1040.1000;0.3826;0.9626;
1040.4000;0.3810;0.9576;
1040.7000;0.3810;0.9626;
1041.0000;0.3842;0.9700;
1041.3000;0.3753;0.9502;
1041.6000;0.3801;0.9700;
1041.9000;0.3810;0.9749;
1042.2000;0.3818;0.9848;
1042.5000;0.3826;0.9823;
1042.8000;0.3810;0.9724;
1043.1000;0.3818;0.9774;
1043.4000;0.3810;0.9823;
1043.7000;0.3899;1.0070;
1044.0000;0.3801;0.9922;
1044.3000;0.3818;0.9971;
1044.6000;0.3826;0.9897;
1044.9000;0.3834;0.9872;
1045.2000;0.3826;0.9872;
1045.5000;0.3915;1.0070;
1045.8000;0.3810;0.9798;
1046.1000;0.3834;0.9798;
1046.4000;0.3793;0.9749;
1046.7000;0.3810;0.9749;
1047.0000;0.3826;0.9848;
1047.3000;0.3875;0.9971;
1047.6000;0.3826;0.9774;
1047.9000;0.3810;0.9700;
1048.2000;0.3793;0.9675;
1048.5000;0.3826;0.9897;
1048.8000;0.3834;0.9922;
1049.1000;0.3801;0.9848;
1049.4000;0.3891;1.0094;
1049.7000;0.3801;0.9922;
1050.0000;0.3785;0.9922;
1050.3000;0.3818;0.9922;
1050.6000;0.3785;0.9798;
1050.9000;0.3785;0.9897;
1051.2000;0.3810;0.9872;
1051.5000;0.3818;0.9897;
1051.8000;0.3834;0.9971;
1052.1000;0.3793;0.9971;
1052.4000;0.3793;1.0070;
1052.7000;0.3801;1.0169;
1053.0000;0.3818;1.0144;
1053.3000;0.3818;1.0144;
1053.6000;0.3736;0.9848;
1053.9000;0.3728;0.9823;
1054.2000;0.3801;0.9946;
1054.5000;0.3875;1.0045;
1054.8000;0.3810;0.9897;
1055.1000;0.3810;0.9774;
1055.4000;0.3826;0.9749;
1055.7000;0.3801;0.9848;
1056.0000;0.3810;0.9996;
1056.3000;0.3818;0.9996;
1056.6000;0.3810;0.9946;
1056.9000;0.3826;1.0094;
1057.2000;0.3826;1.0094;
1057.5000;0.3810;0.9946;
1057.8000;0.3826;1.0020;
1058.1000;0.3801;0.9946;
1058.4000;0.3801;0.9946;
1058.7000;0.3858;1.0045;
1059.0000;0.3801;0.9848;
1059.3000;0.3785;0.9848;
1059.6000;0.3785;0.9848;
1059.9000;0.3793;0.9798;
1060.2000;0.3728;0.9700;
1060.5000;0.3818;0.9897;
1060.8000;0.3818;0.9872;
1061.1000;0.3801;0.9823;
1061.4000;0.3810;0.9848;
1061.7000;0.3801;0.9897;
1062.0000;0.3801;0.9872;
1062.3000;0.3801;0.9872;
1062.6000;0.3810;0.9996;
1062.9000;0.3810;1.0020;
1063.2000;0.3826;0.9996;
1063.5000;0.3826;1.0119;
1063.8000;0.3818;1.0045;
1064.1000;0.3801;1.0020;
1064.4000;0.3818;1.0070;
1064.7000;0.3801;1.0045;
1065.0000;0.3810;1.0045;
1065.3000;0.3907;1.0292;
1065.6000;0.3810;0.9971;
1065.9000;0.3826;1.0045;
1066.2000;0.3810;0.9897;
1066.5000;0.3834;0.9872;
1066.8000;0.3818;0.9848;
1067.1000;0.3818;0.9897;
1067.4000;0.3793;0.9897;
1067.7000;0.3801;0.9897;
1068.0000;0.3761;0.9724;
1068.3000;0.3834;0.9946;
1068.6000;0.3785;0.9897;
1068.9000;0.3793;0.9897;
1069.2000;0.3793;0.9823;
1069.5000;0.3826;0.9946;
1069.8000;0.3810;0.9922;
1070.1000;0.3810;0.9946;
1070.4000;0.3744;0.9749;
1070.7000;0.3801;0.9897;
1071.0000;0.3826;0.9922;
1071.3000;0.3801;1.0020;
1071.6000;0.3818;1.0020;
1071.9000;0.3834;1.0020;
1072.2000;0.3793;0.9897;
1072.5000;0.3801;0.9922;
1072.8000;0.3753;0.9848;
1073.1000;0.3801;0.9971;
1073.4000;0.3826;1.0045;
1073.7000;0.3826;1.0020;
1074.0000;0.3810;0.9946;
1074.3000;0.3810;0.9872;
1074.6000;0.3858;0.9996;
1074.9000;0.3842;0.9971;
1075.2000;0.3810;0.9774;
1075.5000;0.3891;0.9946;
1075.8000;0.3810;0.9724;
1076.1000;0.3818;0.9774;
1076.4000;0.3793;0.9774;
1076.7000;0.3818;0.9823;
1077.0000;0.3744;0.9700;
1077.3000;0.3818;0.9848;
1077.6000;0.3810;0.9872;
1077.9000;0.3761;0.9700;
1078.2000;0.3810;0.9848;
1078.5000;0.3810;0.9823;
1078.8000;0.3818;0.9848;
1079.1000;0.3810;0.9774;
1079.4000;0.3810;0.9823;
1079.7000;0.3818;0.9823;
1080.0000;0.3818;0.9848;
1080.3000;0.3818;0.9798;
1080.6000;0.3810;0.9774;
1080.9000;0.3826;0.9872;
1081.2000;0.3834;0.9872;
1081.5000;0.3801;0.9798;
1081.8000;0.3810;0.9774;
1082.1000;0.3818;0.9848;
1082.4000;0.3801;0.9798;
1082.7000;0.3826;0.9872;
1083.0000;0.3842;0.9897;
1083.3000;0.3810;0.9848;
1083.6000;0.3785;0.9700;
1083.9000;0.3810;0.9798;
1084.2000;0.3810;0.9848;
1084.5000;0.3826;0.9872;
1084.8000;0.3842;0.9848;
1085.1000;0.3801;0.9774;
1085.4000;0.3826;0.9848;
1085.7000;0.3801;0.9798;
1086.0000;0.3834;0.9823;
1086.3000;0.3834;0.9798;
1086.6000;0.3801;0.9700;
1086.9000;0.3826;0.9700;
1087.2000;0.3801;0.9626;
1087.5000;0.3810;0.9700;
1087.8000;0.3818;0.9774;
1088.1000;0.3801;0.9848;
1088.4000;0.3818;0.9798;
1088.7000;0.3810;0.9823;
1089.0000;0.3842;0.9922;
1089.3000;0.3801;0.9823;
1089.6000;0.3810;0.9798;
1089.9000;0.3736;0.9626;
1090.2000;0.3818;0.9897;
1090.5000;0.3834;0.9872;
1090.8000;0.3801;0.9749;
1091.1000;0.3826;0.9798;
1091.4000;0.3810;0.9798;
1091.7000;0.3810;0.9897;
1092.0000;0.3826;0.9897;
1092.3000;0.3801;0.9749;
1092.6000;0.3810;0.9774;
1092.9000;0.3793;0.9798;
1093.2000;0.3793;0.9724;
1093.5000;0.3842;0.9897;
1093.8000;0.3801;0.9774;
1094.1000;0.3793;0.9774;
1094.4000;0.3753;0.9724;
1094.7000;0.3810;0.9823;
1095.0000;0.3777;0.9601;
1095.3000;0.3801;0.9675;
1095.6000;0.3793;0.9626;
1095.9000;0.3793;0.9650;
1096.2000;0.3793;0.9700;
1096.5000;0.3801;0.9774;
1096.8000;0.3777;0.9552;
1097.1000;0.3842;0.9700;
1097.4000;0.3834;0.9601;
1097.7000;0.3810;0.9626;
1098.0000;0.3810;0.9675;
1098.3000;0.3818;0.9774;
1098.6000;0.3744;0.9650;
1098.9000;0.3793;0.9823;
1099.2000;0.3810;0.9872;
1099.5000;0.3801;0.9922;
1099.8000;0.3826;0.9996;
1100.1000;0.3826;0.9946;
1100.4000;0.3818;0.9897;
1100.7000;0.3842;0.9971;
1101.0000;0.3793;0.9872;
1101.3000;0.3818;0.9971;
1101.6000;0.3915;1.0317;
1101.9000;0.3810;0.9946;
1102.2000;0.3810;0.9897;
1102.5000;0.3801;0.9897;
1102.8000;0.3777;0.9823;
1103.1000;0.3826;0.9897;
1103.4000;0.3777;0.9798;
1103.7000;0.3818;0.9946;
1104.0000;0.3834;0.9922;
1104.3000;0.3826;0.9848;
1104.6000;0.3842;0.9872;
1104.9000;0.3834;0.9872;
1105.2000;0.3728;0.9774;
1105.5000;0.3834;1.0045;
1105.8000;0.3818;0.9922;
1106.1000;0.3777;0.9724;
1106.4000;0.3793;0.9724;
1106.7000;0.3818;0.9724;
1107.0000;0.3736;0.9453;
1107.3000;0.3867;0.9823;
1107.6000;0.3810;0.9700;
1107.9000;0.3818;0.9700;
1108.2000;0.3826;0.9724;
1108.5000;0.3785;0.9724;
1108.8000;0.3818;0.9798;
1109.1000;0.3801;0.9724;
1109.4000;0.3818;0.9922;
1109.7000;0.3826;0.9897;
1110.0000;0.3818;0.9872;
1110.3000;0.3907;1.0094;
1110.6000;0.3793;0.9724;
1110.9000;0.3818;0.9774;
1111.2000;0.3810;0.9650;
1111.5000;0.3818;0.9675;
1111.8000;0.3818;0.9749;
1112.1000;0.3834;0.9700;
1112.4000;0.3810;0.9650;
1112.7000;0.3826;0.9774;
1113.0000;0.3810;0.9823;
1113.3000;0.3826;0.9749;
1113.6000;0.3793;0.9650;
1113.9000;0.3899;1.0070;
1114.2000;0.3818;0.9823;
1114.5000;0.3818;0.9823;
1114.8000;0.3793;0.9749;
1115.1000;0.3801;0.9675;
1115.4000;0.3818;0.9675;
1115.7000;0.3801;0.9675;
1116.0000;0.3810;0.9774;
1116.3000;0.3801;0.9774;
1116.6000;0.3785;0.9749;
1116.9000;0.3810;0.9946;
1117.2000;0.3785;0.9897;
1117.5000;0.3801;0.9922;
1117.8000;0.3810;0.9971;
1118.1000;0.3842;1.0070;
1118.4000;0.3818;1.0020;
1118.7000;0.3834;1.0094;
1119.0000;0.3826;1.0045;
1119.3000;0.3793;0.9922;
1119.6000;0.3818;0.9971;
1119.9000;0.3801;0.9971;
1120.2000;0.3793;0.9922;
1120.5000;0.3810;0.9996;
1120.8000;0.3810;1.0020;
1121.1000;0.3801;0.9872;
1121.4000;0.3793;0.9749;
1121.7000;0.3810;0.9774;
1122.0000;0.3801;0.9749;
1122.3000;0.3801;0.9700;
1122.6000;0.3785;0.9724;
1122.9000;0.3842;0.9774;
1123.2000;0.3810;0.9798;
1123.5000;0.3850;0.9897;
1123.8000;0.3810;0.9848;
1124.1000;0.3810;0.9897;
1124.4000;0.3834;0.9922;
1124.7000;0.3818;0.9946;
1125.0000;0.3785;0.9897;
1125.3000;0.3810;0.9872;
1125.6000;0.3810;0.9971;
1125.9000;0.3785;0.9897;
1126.2000;0.3818;0.9922;
1126.5000;0.3826;0.9922;
1126.8000;0.3801;0.9774;
1127.1000;0.3834;0.9897;
1127.4000;0.3810;0.9897;
1127.7000;0.3793;0.9872;
1128.0000;0.3810;0.9971;
1128.3000;0.3793;0.9922;
1128.6000;0.3801;0.9996;
1128.9000;0.3793;0.9897;
1129.2000;0.3818;0.9971;
1129.5000;0.3834;1.0020;
1129.8000;0.3940;1.0292;
1130.1000;0.3818;0.9946;
1130.4000;0.3801;0.9798;
1130.7000;0.3736;0.9453;
1131.0000;0.3793;0.9576;
1131.3000;0.3801;0.9601;
1131.6000;0.3818;0.9552;
1131.9000;0.3801;0.9552;
1132.2000;0.3801;0.9675;
1132.5000;0.3777;0.9774;
1132.8000;0.3801;0.9798;
1133.1000;0.3818;0.9774;
1133.4000;0.3810;0.9724;
1133.7000;0.3777;0.9527;
1134.0000;0.3777;0.9477;
1134.3000;0.3810;0.9576;
1134.6000;0.3826;0.9601;
1134.9000;0.3801;0.9552;
1135.2000;0.3793;0.9601;
1135.5000;0.3793;0.9675;
1135.8000;0.3818;0.9700;
1136.1000;0.3834;0.9774;
1136.4000;0.3810;0.9774;
1136.7000;0.3793;0.9700;
1137.0000;0.3810;0.9798;
1137.3000;0.3810;0.9749;
1137.6000;0.3785;0.9749;
1137.9000;0.3826;0.9872;
1138.2000;0.3826;0.9872;
1138.5000;0.3793;0.9798;
1138.8000;0.3801;0.9724;
1139.1000;0.3793;0.9626;
1139.4000;0.3834;0.9724;
1139.7000;0.3753;0.9576;
1140.0000;0.3769;0.9749;
1140.3000;0.3810;0.9897;
1140.6000;0.3785;0.9848;
1140.9000;0.3793;0.9823;
1141.2000;0.3818;0.9774;
1141.5000;0.3761;0.9626;
1141.8000;0.3810;0.9749;
1142.1000;0.3801;0.9798;
1142.4000;0.3801;0.9872;
1142.7000;0.3785;0.9650;
1143.0000;0.3777;0.9774;
1143.3000;0.3785;0.9848;
1143.6000;0.3810;0.9823;
1143.9000;0.3818;0.9872;
1144.2000;0.3793;0.9872;
1144.5000;0.3761;0.9749;
1144.8000;0.3810;0.9872;
1145.1000;0.3769;0.9823;
1145.4000;0.3785;0.9848;
1145.7000;0.3793;0.9823;
1146.0000;0.3818;0.9897;
1146.3000;0.3818;0.9848;
1146.6000;0.3801;0.9823;
1146.9000;0.3826;0.9946;
1147.2000;0.3810;0.9946;
1147.5000;0.3891;1.0119;
1147.8000;0.3810;0.9897;
1148.1000;0.3818;0.9774;
1148.4000;0.3810;0.9749;
1148.7000;0.3818;0.9848;
1149.0000;0.3818;0.9848;
1149.3000;0.3801;0.9724;
1149.6000;0.3793;0.9848;
1149.9000;0.3801;0.9848;
1150.2000;0.3818;0.9946;
1150.5000;0.3801;0.9971;
1150.8000;0.3801;1.0045;
1151.1000;0.3801;1.0144;
1151.4000;0.3818;1.0094;
1151.7000;0.3842;1.0243;
1152.0000;0.3785;1.0070;
1152.3000;0.3810;1.0045;
1152.6000;0.3810;0.9946;
1152.9000;0.3826;0.9922;
1153.2000;0.3801;0.9922;
1153.5000;0.3801;0.9872;
1153.8000;0.3793;0.9971;
1154.1000;0.3810;0.9971;
1154.4000;0.3818;0.9848;
1154.7000;0.3801;0.9675;
1155.0000;0.3818;0.9650;
1155.3000;0.3753;0.9552;
1155.6000;0.3801;0.9774;
1155.9000;0.3858;1.0020;
1156.2000;0.3810;0.9848;
1156.5000;0.3818;0.9971;
1156.8000;0.3801;0.9996;
1157.1000;0.3826;0.9996;
1157.4000;0.3818;0.9946;
1157.7000;0.3810;0.9946;
1158.0000;0.3883;0.9946;
1158.3000;0.3810;0.9749;
1158.6000;0.3801;0.9774;
1158.9000;0.3801;0.9823;
1159.2000;0.3818;0.9872;
1159.5000;0.3834;0.9798;
1159.8000;0.3810;0.9749;
1160.1000;0.3826;0.9798;
1160.4000;0.3826;0.9774;
1160.7000;0.3842;0.9724;
1161.0000;0.3818;0.9675;
1161.3000;0.3785;0.9576;
1161.6000;0.3818;0.9626;
1161.9000;0.3818;0.9650;
1162.2000;0.3793;0.9601;
1162.5000;0.3858;0.9724;
1162.8000;0.3826;0.9675;
1163.1000;0.3801;0.9527;
1163.4000;0.3842;0.9576;
1163.7000;0.3810;0.9724;
1164.0000;0.3801;0.9774;
1164.3000;0.3777;0.9749;
1164.6000;0.3810;0.9872;
1164.9000;0.3801;0.9996;
1165.2000;0.3801;1.0045;
1165.5000;0.3801;0.9946;
1165.8000;0.3810;0.9848;
1166.1000;0.3801;0.9848;
1166.4000;0.3753;0.9724;
1166.7000;0.3818;0.9798;
1167.0000;0.3818;0.9798;
1167.3000;0.3826;0.9724;
1167.6000;0.3810;0.9675;
1167.9000;0.3801;0.9650;
1168.2000;0.3818;0.9650;
1168.5000;0.3785;0.9502;
1168.8000;0.3810;0.9527;
1169.1000;0.3818;0.9576;
1169.4000;0.3801;0.9527;
1169.7000;0.3801;0.9576;
1170.0000;0.3834;0.9626;
1170.3000;0.3801;0.9576;
1170.6000;0.3785;0.9626;
1170.9000;0.3801;0.9724;
1171.2000;0.3818;0.9798;
1171.5000;0.3842;0.9774;
1171.8000;0.3818;0.9749;
1172.1000;0.3818;0.9798;
1172.4000;0.3818;0.9724;
1172.7000;0.3842;0.9848;
1173.0000;0.3818;0.9798;
1173.3000;0.3810;0.9848;
1173.6000;0.3818;0.9848;
1173.9000;0.3842;0.9823;
1174.2000;0.3818;0.9675;
1174.5000;0.3793;0.9527;
1174.8000;0.3801;0.9576;
1175.1000;0.3826;0.9626;
1175.4000;0.3793;0.9576;
1175.7000;0.3801;0.9552;
1176.0000;0.3793;0.9601;
1176.3000;0.3801;0.9552;
1176.6000;0.3818;0.9601;
1176.9000;0.3769;0.9477;
1177.2000;0.3785;0.9477;
1177.5000;0.3785;0.9502;
1177.8000;0.3785;0.9650;
1178.1000;0.3793;0.9700;
1178.4000;0.3801;0.9724;
1178.7000;0.3850;0.9848;
1179.0000;0.3801;0.9724;
1179.3000;0.3793;0.9700;
1179.6000;0.3818;0.9724;
1179.9000;0.3810;0.9650;
1180.2000;0.3818;0.9700;
1180.5000;0.3785;0.9650;
1180.8000;0.3801;0.9650;
1181.1000;0.3801;0.9601;
1181.4000;0.3777;0.9576;
1181.7000;0.3810;0.9700;
1182.0000;0.3810;0.9650;
1182.3000;0.3793;0.9626;
1182.6000;0.3801;0.9675;
1182.9000;0.3801;0.9774;
1183.2000;0.3810;0.9774;
1183.5000;0.3793;0.9724;
1183.8000;0.3793;0.9700;
1184.1000;0.3818;0.9724;
1184.4000;0.3834;0.9650;
1184.7000;0.3842;0.9601;
1185.0000;0.3818;0.9502;
1185.3000;0.3826;0.9502;
1185.6000;0.3907;0.9774;
1185.9000;0.3850;0.9675;
1186.2000;0.3818;0.9527;
1186.5000;0.3728;0.9403;
1186.8000;0.3810;0.9626;
1187.1000;0.3810;0.9675;
1187.4000;0.3753;0.9527;
1187.7000;0.3793;0.9552;
1188.0000;0.3810;0.9576;
1188.3000;0.3801;0.9527;
1188.6000;0.3810;0.9552;
1188.9000;0.3810;0.9576;
1189.2000;0.3785;0.9527;
1189.5000;0.3801;0.9576;
1189.8000;0.3818;0.9626;
1190.1000;0.3850;0.9774;
1190.4000;0.3801;0.9552;
1190.7000;0.3818;0.9576;
1191.0000;0.3785;0.9576;
1191.3000;0.3793;0.9601;
1191.6000;0.3801;0.9576;
1191.9000;0.3810;0.9552;
1192.2000;0.3810;0.9675;
1192.5000;0.3801;0.9700;
1192.8000;0.3810;0.9700;
1193.1000;0.3801;0.9675;
1193.4000;0.3810;0.9749;
1193.7000;0.3801;0.9700;
1194.0000;0.3810;0.9848;
1194.3000;0.3818;0.9798;
1194.6000;0.3801;0.9749;
1194.9000;0.3810;0.9823;
1195.2000;0.3834;0.9922;
1195.5000;0.3826;0.9848;
1195.8000;0.3850;0.9872;
1196.1000;0.3810;0.9675;
1196.4000;0.3818;0.9749;
1196.7000;0.3826;0.9749;
1197.0000;0.3801;0.9700;
1197.3000;0.3834;0.9601;
1197.6000;0.3834;0.9675;
1197.9000;0.3810;0.9700;
1198.2000;0.3818;0.9798;
1198.5000;0.3801;0.9700;
1198.8000;0.3793;0.9675;
1199.1000;0.3793;0.9675;
1199.4000;0.3810;0.9798;
1199.7000;0.3801;0.9823;
1200.0000;0.3793;0.9823;
1200.3000;0.3736;0.9626;
1200.6000;0.3810;0.9749;
1200.9000;0.3850;0.9897;
1201.2000;0.3801;0.9872;
1201.5000;0.3793;0.9971;
1201.8000;0.3801;0.9946;
1202.1000;0.3793;0.9922;
1202.4000;0.3810;0.9946;
1202.7000;0.3712;0.9774;
1203.0000;0.3785;0.9971;
1203.3000;0.3720;0.9650;
1203.6000;0.3834;0.9971;
1203.9000;0.3850;0.9946;
1204.2000;0.3793;0.9848;
1204.5000;0.3818;0.9823;
1204.8000;0.3818;0.9897;
1205.1000;0.3793;0.9872;
1205.4000;0.3834;0.9922;
1205.7000;0.3883;1.0094;
1206.0000;0.3793;0.9848;
1206.3000;0.3801;0.9798;
1206.6000;0.3793;0.9724;
1206.9000;0.3810;0.9724;
1207.2000;0.3801;0.9626;
1207.5000;0.3801;0.9527;
1207.8000;0.3810;0.9601;
1208.1000;0.3793;0.9552;
1208.4000;0.3810;0.9626;
1208.7000;0.3810;0.9675;
1209.0000;0.3810;0.9798;
1209.3000;0.3801;0.9749;
1209.6000;0.3801;0.9798;
1209.9000;0.3801;0.9774;
1210.2000;0.3810;0.9823;
1210.5000;0.3793;0.9749;
1210.8000;0.3801;0.9823;
1211.1000;0.3801;0.9774;
1211.4000;0.3793;0.9798;
1211.7000;0.3801;0.9897;
1212.0000;0.3793;0.9823;
1212.3000;0.3810;0.9848;
1212.6000;0.3810;0.9848;
1212.9000;0.3801;0.9774;
1213.2000;0.3810;0.9823;
1213.5000;0.3842;0.9946;
1213.8000;0.3818;1.0020;
1214.1000;0.3826;1.0020;
1214.4000;0.3810;0.9971;
1214.7000;0.3785;0.9872;
1215.0000;0.3818;0.9823;
1215.3000;0.3867;0.9971;
1215.6000;0.3826;0.9848;
1215.9000;0.3810;0.9922;
1216.2000;0.3818;0.9946;
1216.5000;0.3801;0.9798;
1216.8000;0.3736;0.9675;
1217.1000;0.3769;0.9749;
1217.4000;0.3793;0.9897;
1217.7000;0.3818;0.9922;
1218.0000;0.3810;0.9897;
1218.3000;0.3801;0.9848;
1218.6000;0.3818;0.9897;
1218.9000;0.3810;0.9848;
1219.2000;0.3826;0.9872;
1219.5000;0.3801;0.9922;
1219.8000;0.3850;0.9996;
1220.1000;0.3834;1.0020;
1220.4000;0.3810;0.9946;
1220.7000;0.3818;0.9946;
1221.0000;0.3801;0.9897;
1221.3000;0.3785;0.9798;
1221.6000;0.3810;0.9823;
1221.9000;0.3810;0.9872;
1222.2000;0.3793;0.9848;
1222.5000;0.3810;0.9971;
1222.8000;0.3842;1.0070;
1223.1000;0.3810;0.9922;
1223.4000;0.3842;0.9996;
1223.7000;0.3810;0.9922;
1224.0000;0.3810;0.9971;
1224.3000;0.3858;1.0094;
1224.6000;0.3801;0.9897;
1224.9000;0.3801;0.9946;
1225.2000;0.3810;0.9897;
1225.5000;0.3826;0.9897;
1225.8000;0.3810;0.9823;
1226.1000;0.3728;0.9601;
1226.4000;0.3720;0.9650;
1226.7000;0.3818;0.9823;
1227.0000;0.3793;0.9823;
1227.3000;0.3777;0.9749;
1227.6000;0.3777;0.9798;
1227.9000;0.3818;0.9848;
1228.2000;0.3785;0.9774;
1228.5000;0.3818;0.9823;
1228.8000;0.3810;0.9798;
1229.1000;0.3801;0.9749;
1229.4000;0.3834;0.9675;
1229.7000;0.3769;0.9576;
1230.0000;0.3801;0.9749;
1230.3000;0.3810;0.9749;
1230.6000;0.3858;0.9897;
1230.9000;0.3793;0.9700;
1231.2000;0.3826;0.9700;
1231.5000;0.3801;0.9626;
1231.8000;0.3818;0.9650;
1232.1000;0.3834;0.9650;
1232.4000;0.3826;0.9700;
1232.7000;0.3858;0.9798;
1233.0000;0.3769;0.9601;
1233.3000;0.3793;0.9774;
1233.6000;0.3810;0.9798;
1233.9000;0.3793;0.9823;
1234.2000;0.3785;0.9872;
1234.5000;0.3793;0.9774;
1234.8000;0.3818;0.9724;
1235.1000;0.3867;0.9848;
1235.4000;0.3793;0.9650;
1235.7000;0.3810;0.9650;
1236.0000;0.3818;0.9700;
1236.3000;0.3810;0.9626;
1236.6000;0.3842;0.9675;
1236.9000;0.3810;0.9576;
1237.2000;0.3826;0.9552;
1237.5000;0.3777;0.9453;
1237.8000;0.3801;0.9453;
1238.1000;0.3818;0.9477;
1238.4000;0.3980;0.9897;
1238.7000;0.3867;0.9650;
1239.0000;0.3818;0.9552;
1239.3000;0.3785;0.9601;
1239.6000;0.3793;0.9576;
1239.9000;0.3777;0.9576;
1240.2000;0.3801;0.9700;
1240.5000;0.3793;0.9675;
1240.8000;0.3801;0.9675;
1241.1000;0.3818;0.9700;
1241.4000;0.3801;0.9724;
1241.7000;0.3793;0.9700;
1242.0000;0.3826;0.9774;
1242.3000;0.3810;0.9823;
1242.6000;0.3810;0.9848;
1242.9000;0.3793;0.9798;
1243.2000;0.3810;0.9798;
1243.5000;0.3810;0.9798;
1243.8000;0.3826;0.9897;
1244.1000;0.3801;0.9774;
1244.4000;0.3818;0.9823;
1244.7000;0.3810;0.9798;
1245.0000;0.3810;0.9724;
1245.3000;0.3826;0.9724;
1245.6000;0.3850;0.9798;
1245.9000;0.3842;0.9872;
1246.2000;0.3834;0.9823;
1246.5000;0.3810;0.9774;
1246.8000;0.3834;0.9774;
1247.1000;0.3810;0.9798;
1247.4000;0.3785;0.9872;
1247.7000;0.3810;0.9946;
1248.0000;0.3769;0.9848;
1248.3000;0.3793;0.9872;
1248.6000;0.3777;0.9823;
1248.9000;0.3793;0.9848;
1249.2000;0.3777;0.9798;
1249.5000;0.3801;0.9848;
1249.8000;0.3810;0.9823;
1250.1000;0.3810;0.9922;
1250.4000;0.3818;0.9848;
1250.7000;0.3769;0.9724;
1251.0000;0.3801;0.9700;
1251.3000;0.3801;0.9724;
1251.6000;0.3818;0.9700;
1251.9000;0.3826;0.9724;
1252.2000;0.3801;0.9650;
1252.5000;0.3850;0.9749;
1252.8000;0.3826;0.9823;
1253.1000;0.3793;0.9774;
1253.4000;0.3834;0.9823;
1253.7000;0.3810;0.9675;
1254.0000;0.3777;0.9675;
1254.3000;0.3818;0.9724;
1254.6000;0.3793;0.9700;
1254.9000;0.3801;0.9774;
1255.2000;0.3761;0.9700;
1255.5000;0.3810;0.9823;
1255.8000;0.3761;0.9724;
1256.1000;0.3793;0.9774;
1256.4000;0.3826;0.9848;
1256.7000;0.3826;0.9897;
1257.0000;0.3842;0.9946;
1257.3000;0.3801;0.9897;
1257.6000;0.3777;0.9724;
1257.9000;0.3810;0.9823;
1258.2000;0.3818;0.9897;
1258.5000;0.3826;0.9922;
1258.8000;0.3769;0.9724;
1259.1000;0.3769;0.9848;
1259.4000;0.3850;1.0094;
1259.7000;0.3801;0.9897;
1260.0000;0.3810;0.9897;
1260.3000;0.3818;0.9872;
1260.6000;0.3842;1.0045;
1260.9000;0.3818;0.9946;
1261.2000;0.3801;0.9823;
1261.5000;0.3801;0.9872;
1261.8000;0.3826;0.9922;
1262.1000;0.3818;0.9897;
1262.4000;0.3818;0.9946;
1262.7000;0.3769;0.9872;
1263.0000;0.3810;0.9996;
1263.3000;0.3810;0.9971;
1263.6000;0.3915;1.0144;
1263.9000;0.3810;0.9774;
1264.2000;0.3818;0.9798;
1264.5000;0.3761;0.9650;
1264.8000;0.3818;0.9749;
1265.1000;0.3810;0.9724;
1265.4000;0.3801;0.9552;
1265.7000;0.3834;0.9650;
1266.0000;0.3818;0.9700;
1266.3000;0.3818;0.9774;
1266.6000;0.3826;0.9774;
1266.9000;0.3818;0.9749;
1267.2000;0.3810;0.9700;
1267.5000;0.3801;0.9650;
1267.8000;0.3810;0.9700;
1268.1000;0.3810;0.9724;
1268.4000;0.3826;0.9700;
1268.7000;0.3834;0.9626;
1269.0000;0.3923;0.9897;
1269.3000;0.3810;0.9576;
1269.6000;0.3810;0.9650;
1269.9000;0.3793;0.9552;
1270.2000;0.3826;0.9626;
1270.5000;0.3810;0.9626;
1270.8000;0.3801;0.9576;
1271.1000;0.3818;0.9502;
1271.4000;0.3826;0.9527;
1271.7000;0.3810;0.9552;
1272.0000;0.3793;0.9502;
1272.3000;0.3810;0.9601;
1272.6000;0.3826;0.9650;
1272.9000;0.3810;0.9552;
1273.2000;0.3793;0.9502;
1273.5000;0.3826;0.9675;
1273.8000;0.3793;0.9576;
1274.1000;0.3810;0.9626;
1274.4000;0.3793;0.9576;
1274.7000;0.3810;0.9552;
1275.0000;0.3818;0.9626;
1275.3000;0.3810;0.9527;
1275.6000;0.3793;0.9453;
1275.9000;0.3810;0.9428;
1276.2000;0.3818;0.9477;
1276.5000;0.3826;0.9502;
1276.8000;0.3818;0.9502;
1277.1000;0.3810;0.9453;
1277.4000;0.3793;0.9477;
1277.7000;0.3785;0.9502;
1278.0000;0.3793;0.9428;
1278.3000;0.3810;0.9477;
1278.6000;0.3793;0.9428;
1278.9000;0.3834;0.9576;
1279.2000;0.3818;0.9527;
1279.5000;0.3850;0.9601;
1279.8000;0.3810;0.9477;
1280.1000;0.3810;0.9576;
1280.4000;0.3834;0.9601;
1280.7000;0.3818;0.9502;
1281.0000;0.3810;0.9527;
1281.3000;0.3826;0.9403;
1281.6000;0.3785;0.9354;
1281.9000;0.3793;0.9354;
1282.2000;0.3793;0.9379;
1282.5000;0.3818;0.9453;
1282.8000;0.3801;0.9403;
1283.1000;0.3785;0.9453;
1283.4000;0.3744;0.9329;
1283.7000;0.3777;0.9477;
1284.0000;0.3793;0.9576;
1284.3000;0.3728;0.9403;
1284.6000;0.3793;0.9552;
1284.9000;0.3777;0.9477;
1285.2000;0.3818;0.9675;
1285.5000;0.3818;0.9675;
1285.8000;0.3818;0.9724;
1286.1000;0.3793;0.9626;
1286.4000;0.3826;0.9724;
1286.7000;0.3801;0.9601;
1287.0000;0.3810;0.9552;
1287.3000;0.3793;0.9601;
1287.6000;0.3793;0.9576;
1287.9000;0.3801;0.9552;
1288.2000;0.3801;0.9527;
1288.5000;0.3810;0.9601;
1288.8000;0.3744;0.9428;
1289.1000;0.3810;0.9552;
1289.4000;0.3785;0.9527;
1289.7000;0.3785;0.9527;
1290.0000;0.3810;0.9576;
1290.3000;0.3801;0.9650;
1290.6000;0.3810;0.9650;
1290.9000;0.3842;0.9823;
1291.2000;0.3810;0.9798;
1291.5000;0.3810;0.9897;
1291.8000;0.3818;0.9848;
1292.1000;0.3801;0.9774;
1292.4000;0.3818;0.9774;
1292.7000;0.3810;0.9798;
1293.0000;0.3810;0.9774;
1293.3000;0.3826;0.9872;
1293.6000;0.3818;0.9724;
1293.9000;0.3801;0.9675;
1294.2000;0.3801;0.9650;
1294.5000;0.3826;0.9724;
1294.8000;0.3793;0.9650;
1295.1000;0.3785;0.9626;
1295.4000;0.3793;0.9675;
1295.7000;0.3793;0.9724;
1296.0000;0.3810;0.9626;
1296.3000;0.3793;0.9601;
1296.6000;0.3810;0.9700;
1296.9000;0.3810;0.9798;
1297.2000;0.3818;0.9872;
1297.5000;0.3818;0.9897;
1297.8000;0.3801;0.9848;
1298.1000;0.3810;0.9823;
1298.4000;0.3810;0.9848;
1298.7000;0.3883;1.0020;
1299.0000;0.3801;0.9823;
1299.3000;0.3818;0.9798;
1299.6000;0.3826;0.9848;
1299.9000;0.3793;0.9724;
1300.2000;0.3801;0.9724;
1300.5000;0.3810;0.9774;
1300.8000;0.3818;0.9700;
1301.1000;0.3810;0.9798;
1301.4000;0.3793;0.9724;
1301.7000;0.3793;0.9650;
1302.0000;0.3818;0.9724;
1302.3000;0.3810;0.9872;
1302.6000;0.3793;0.9798;
1302.9000;0.3818;0.9848;
1303.2000;0.3826;0.9848;
1303.5000;0.3818;0.9798;
1303.8000;0.3793;0.9774;
1304.1000;0.3793;0.9798;
1304.4000;0.3801;0.9823;
1304.7000;0.3818;0.9798;
1305.0000;0.3810;0.9848;
1305.3000;0.3793;0.9922;
1305.6000;0.3801;0.9823;
1305.9000;0.3810;0.9798;
1306.2000;0.3793;0.9774;
1306.5000;0.3826;0.9922;
1306.8000;0.3826;0.9922;
1307.1000;0.3801;0.9872;
1307.4000;0.3801;0.9872;
1307.7000;0.3793;0.9798;
1308.0000;0.3826;0.9848;
1308.3000;0.3818;0.9749;
1308.6000;0.3810;0.9724;
1308.9000;0.3810;0.9700;
1309.2000;0.3826;0.9675;
1309.5000;0.3801;0.9675;
1309.8000;0.3801;0.9650;
1310.1000;0.3818;0.9601;
1310.4000;0.3826;0.9626;
1310.7000;0.3793;0.9601;
1311.0000;0.3818;0.9502;
1311.3000;0.3818;0.9576;
1311.6000;0.3801;0.9650;
1311.9000;0.3810;0.9650;
1312.2000;0.3801;0.9675;
1312.5000;0.3810;0.9749;
1312.8000;0.3818;0.9724;
1313.1000;0.3801;0.9650;
1313.4000;0.3801;0.9650;
1313.7000;0.3793;0.9724;
1314.0000;0.3826;0.9872;
1314.3000;0.3801;0.9823;
1314.6000;0.3785;0.9675;
1314.9000;0.3818;0.9675;
1315.2000;0.3793;0.9601;
1315.5000;0.3818;0.9798;
1315.8000;0.3826;0.9700;
1316.1000;0.3818;0.9675;
1316.4000;0.3850;0.9675;
1316.7000;0.3818;0.9626;
1317.0000;0.3801;0.9601;
1317.3000;0.3818;0.9477;
1317.6000;0.3826;0.9379;
1317.9000;0.3761;0.9354;
1318.2000;0.3793;0.9403;
1318.5000;0.3785;0.9403;
1318.8000;0.3810;0.9428;
1319.1000;0.3810;0.9379;
1319.4000;0.3810;0.9403;
1319.7000;0.3801;0.9403;
1320.0000;0.3818;0.9428;
1320.3000;0.3818;0.9428;
1320.6000;0.3801;0.9428;
1320.9000;0.3793;0.9403;
1321.2000;0.3801;0.9403;
1321.5000;0.3801;0.9502;
1321.8000;0.3793;0.9502;
1322.1000;0.3810;0.9576;
1322.4000;0.3801;0.9601;
1322.7000;0.3801;0.9749;
1323.0000;0.3810;0.9872;
1323.3000;0.3793;0.9897;
1323.6000;0.3793;0.9897;
1323.9000;0.3801;0.9897;
1324.2000;0.3818;0.9897;
1324.5000;0.3769;0.9798;
1324.8000;0.3801;0.9872;
1325.1000;0.3801;0.9848;
1325.4000;0.3826;0.9872;
1325.7000;0.3801;0.9872;
1326.0000;0.3793;0.9798;
1326.3000;0.3793;0.9823;
1326.6000;0.3744;0.9675;
1326.9000;0.3793;0.9724;
1327.2000;0.3801;0.9601;
1327.5000;0.3744;0.9477;
1327.8000;0.3801;0.9576;
1328.1000;0.3826;0.9502;
1328.4000;0.3810;0.9527;
1328.7000;0.3801;0.9576;
1329.0000;0.3801;0.9552;
1329.3000;0.3769;0.9527;
1329.6000;0.3818;0.9700;
1329.9000;0.3801;0.9601;
1330.2000;0.3858;0.9749;
1330.5000;0.3826;0.9626;
1330.8000;0.3801;0.9576;
1331.1000;0.3834;0.9626;
1331.4000;0.3810;0.9700;
1331.7000;0.3810;0.9675;
1332.0000;0.3818;0.9601;
1332.3000;0.3785;0.9552;
1332.6000;0.3801;0.9576;
1332.9000;0.3744;0.9477;
1333.2000;0.3826;0.9675;
1333.5000;0.3793;0.9626;
1333.8000;0.3793;0.9626;
1334.1000;0.3793;0.9724;
1334.4000;0.3810;0.9823;
1334.7000;0.3793;0.9848;
1335.0000;0.3810;0.9897;
1335.3000;0.3793;0.9848;
1335.6000;0.3818;0.9922;
1335.9000;0.3826;0.9922;
1336.2000;0.3793;0.9872;
1336.5000;0.3801;0.9872;
1336.8000;0.3801;0.9848;
1337.1000;0.3818;0.9872;
1337.4000;0.3810;0.9724;
1337.7000;0.3818;0.9749;
1338.0000;0.3785;0.9749;
1338.3000;0.3810;0.9823;
1338.6000;0.3826;0.9897;
1338.9000;0.3793;0.9848;
1339.2000;0.3785;0.9897;
1339.5000;0.3801;0.9848;
1339.8000;0.3810;0.9897;
1340.1000;0.3818;0.9872;
1340.4000;0.3753;0.9749;
1340.7000;0.3777;0.9774;
1341.0000;0.3801;0.9897;
1341.3000;0.3810;0.9848;
1341.6000;0.3810;0.9774;
1341.9000;0.3801;0.9848;
1342.2000;0.3858;1.0020;
1342.5000;0.3810;0.9823;
1342.8000;0.3810;0.9872;
1343.1000;0.3842;0.9996;
1343.4000;0.3818;0.9971;
1343.7000;0.3810;0.9996;
1344.0000;0.3785;0.9922;
1344.3000;0.3826;0.9848;
1344.6000;0.3785;0.9724;
1344.9000;0.3810;0.9774;
1345.2000;0.3801;0.9774;
1345.5000;0.3801;0.9798;
1345.8000;0.3801;0.9774;
1346.1000;0.3793;0.9872;
1346.4000;0.3801;0.9946;
1346.7000;0.3810;1.0094;
1347.0000;0.3810;1.0070;
1347.3000;0.3834;0.9996;
1347.6000;0.3826;0.9971;
1347.9000;0.3810;0.9922;
1348.2000;0.3801;0.9971;
1348.5000;0.3761;0.9774;
1348.8000;0.3826;0.9946;
1349.1000;0.3875;0.9971;
1349.4000;0.3826;0.9724;
1349.7000;0.3801;0.9601;
1350.0000;0.3793;0.9527;
1350.3000;0.3785;0.9552;
1350.6000;0.3818;0.9650;
1350.9000;0.3793;0.9527;
1351.2000;0.3785;0.9576;
1351.5000;0.3818;0.9749;
1351.8000;0.3818;0.9675;
1352.1000;0.3818;0.9749;
1352.4000;0.3810;0.9823;
1352.7000;0.3810;0.9774;
1353.0000;0.3785;0.9724;
1353.3000;0.3810;0.9749;
1353.6000;0.3793;0.9724;
1353.9000;0.3899;1.0045;
1354.2000;0.3818;0.9823;
1354.5000;0.3761;0.9675;
1354.8000;0.3793;0.9749;
1355.1000;0.3810;0.9774;
1355.4000;0.3769;0.9650;
1355.7000;0.3761;0.9601;
1356.0000;0.3793;0.9724;
1356.3000;0.3801;0.9872;
1356.6000;0.3769;0.9774;
1356.9000;0.3769;0.9872;
1357.2000;0.3801;0.9946;
1357.5000;0.3810;1.0020;
1357.8000;0.3801;1.0020;
1358.1000;0.3850;1.0119;
1358.4000;0.3818;1.0045;
1358.7000;0.3793;1.0094;
1359.0000;0.3867;1.0193;
1359.3000;0.3818;1.0070;
1359.6000;0.3818;0.9946;
1359.9000;0.3834;0.9922;
1360.2000;0.3826;0.9922;
1360.5000;0.3818;0.9946;
1360.8000;0.3761;0.9848;
1361.1000;0.3826;1.0045;
1361.4000;0.3801;1.0045;
1361.7000;0.3777;0.9996;
1362.0000;0.3793;0.9946;
1362.3000;0.3793;0.9897;
1362.6000;0.3793;0.9872;
1362.9000;0.3801;0.9872;
1363.2000;0.3810;0.9946;
1363.5000;0.3801;0.9946;
1363.8000;0.3818;1.0070;
1364.1000;0.3810;0.9996;
1364.4000;0.3810;0.9946;
1364.7000;0.3801;0.9848;
1365.0000;0.3761;0.9823;
1365.3000;0.3793;0.9872;
1365.6000;0.3810;0.9897;
1365.9000;0.3818;0.9774;
1366.2000;0.3801;0.9774;
1366.5000;0.3801;0.9897;
1366.8000;0.3810;0.9872;
1367.1000;0.3818;0.9971;
1367.4000;0.3801;0.9971;
1367.7000;0.3810;1.0045;
1368.0000;0.3801;0.9971;
1368.3000;0.3875;1.0218;
1368.6000;0.3818;1.0119;
1368.9000;0.3801;1.0094;
1369.2000;0.3801;0.9996;
1369.5000;0.3785;0.9872;
1369.8000;0.3818;0.9922;
1370.1000;0.3769;0.9749;
1370.4000;0.3801;0.9823;
1370.7000;0.3777;0.9798;
1371.0000;0.3793;0.9774;
1371.3000;0.3818;0.9798;
1371.6000;0.3793;0.9749;
1371.9000;0.3793;0.9749;
1372.2000;0.3810;0.9724;
1372.5000;0.3834;0.9700;
1372.8000;0.3875;0.9774;
1373.1000;0.3810;0.9552;
1373.4000;0.3793;0.9552;
1373.7000;0.3810;0.9601;
1374.0000;0.3875;0.9774;
1374.3000;0.3818;0.9552;
1374.6000;0.3810;0.9552;
1374.9000;0.3785;0.9453;
1375.2000;0.3818;0.9576;
1375.5000;0.3907;0.9848;
1375.8000;0.3818;0.9749;
1376.1000;0.3826;0.9872;
1376.4000;0.3875;1.0045;
1376.7000;0.3810;0.9897;
1377.0000;0.3818;0.9872;
1377.3000;0.3793;0.9823;
1377.6000;0.3801;0.9971;
1377.9000;0.3810;1.0070;
1378.2000;0.3834;1.0193;
1378.5000;0.3801;0.9996;
1378.8000;0.3818;1.0070;
1379.1000;0.3810;1.0020;
1379.4000;0.3793;0.9946;
1379.7000;0.3915;1.0267;
1380.0000;0.3810;1.0045;
1380.3000;0.3801;1.0045;
1380.6000;0.3810;0.9971;
1380.9000;0.3793;0.9872;
1381.2000;0.3801;0.9823;
1381.5000;0.3810;0.9823;
1381.8000;0.3712;0.9552;
1382.1000;0.3793;0.9749;
1382.4000;0.3793;0.9626;
1382.7000;0.3810;0.9774;
1383.0000;0.3801;0.9724;
1383.3000;0.3810;0.9724;
1383.6000;0.3818;0.9774;
1383.9000;0.3810;0.9798;
1384.2000;0.3810;0.9798;
1384.5000;0.3826;0.9823;
1384.8000;0.3810;0.9700;
1385.1000;0.3793;0.9601;
1385.4000;0.3826;0.9650;
1385.7000;0.3801;0.9650;
1386.0000;0.3801;0.9774;
1386.3000;0.3834;0.9798;
1386.6000;0.3777;0.9798;
1386.9000;0.3826;0.9872;
1387.2000;0.3793;0.9798;
1387.5000;0.3818;0.9946;
1387.8000;0.3818;0.9798;
1388.1000;0.3826;0.9700;
1388.4000;0.3793;0.9700;
1388.7000;0.3785;0.9650;
1389.0000;0.3810;0.9700;
1389.3000;0.3810;0.9650;
1389.6000;0.3810;0.9675;
1389.9000;0.3826;0.9650;
1390.2000;0.3810;0.9700;
1390.5000;0.3818;0.9848;
1390.8000;0.3801;0.9946;
1391.1000;0.3810;0.9922;
1391.4000;0.3801;0.9823;
1391.7000;0.3801;0.9749;
1392.0000;0.3810;0.9798;
1392.3000;0.3818;0.9872;
1392.6000;0.3793;0.9872;
1392.9000;0.3801;0.9848;
1393.2000;0.3810;0.9946;
1393.5000;0.3785;0.9872;
1393.8000;0.3810;0.9872;
1394.1000;0.3826;0.9897;
1394.4000;0.3801;0.9823;
1394.7000;0.3834;0.9872;
1395.0000;0.3793;0.9749;
1395.3000;0.3801;0.9700;
1395.6000;0.3801;0.9749;
1395.9000;0.3696;0.9379;
1396.2000;0.3793;0.9700;
1396.5000;0.3826;0.9724;
1396.8000;0.3793;0.9749;
1397.1000;0.3810;0.9650;
1397.4000;0.3810;0.9601;
1397.7000;0.3793;0.9626;
1398.0000;0.3818;0.9650;
1398.3000;0.3826;0.9675;
1398.6000;0.3826;0.9700;
1398.9000;0.3818;0.9675;
1399.2000;0.3810;0.9650;
1399.5000;0.3810;0.9700;
1399.8000;0.3810;0.9650;
