time/ms;Fluo/V;P700 deltaI/I x10³;
-199.8000;0.4477;0.9971;
-199.5000;0.4485;0.9971;
-199.2000;0.4477;0.9971;
-198.9000;0.4485;1.0020;
-198.6000;0.4501;1.0144;
-198.3000;0.4501;1.0094;
-198.0000;0.4477;1.0020;
-197.7000;0.4493;0.9946;
-197.4000;0.4493;0.9922;
-197.1000;0.4501;0.9922;
-196.8000;0.4493;0.9946;
-196.5000;0.4493;0.9897;
-196.2000;0.4493;0.9872;
-195.9000;0.4493;0.9872;
-195.6000;0.4493;0.9848;
-195.3000;0.4469;0.9872;
-195.0000;0.4485;0.9971;
-194.7000;0.4485;1.0045;
-194.4000;0.4477;1.0045;
-194.1000;0.4477;0.9996;
-193.8000;0.4469;0.9922;
-193.5000;0.4420;0.9774;
-193.2000;0.4477;0.9897;
-192.9000;0.4477;0.9848;
-192.6000;0.4477;0.9823;
-192.3000;0.4485;0.9897;
-192.0000;0.4485;0.9823;
-191.7000;0.4485;0.9798;
-191.4000;0.4477;0.9823;
-191.1000;0.4477;0.9872;
-190.8000;0.4477;0.9823;
-190.5000;0.4485;0.9823;
-190.2000;0.4485;0.9823;
-189.9000;0.4485;0.9897;
-189.6000;0.4469;0.9872;
-189.3000;0.4493;0.9922;
-189.0000;0.4477;0.9922;
-188.7000;0.4477;0.9897;
-188.4000;0.4461;0.9823;
-188.1000;0.4493;0.9971;
-187.8000;0.4461;0.9823;
-187.5000;0.4469;0.9823;
-187.2000;0.4493;0.9897;
-186.9000;0.4485;0.9897;
-186.6000;0.4510;0.9946;
-186.3000;0.4493;0.9946;
-186.0000;0.4485;0.9823;
-185.7000;0.4493;0.9897;
-185.4000;0.4477;0.9798;
-185.1000;0.4477;0.9798;
-184.8000;0.4453;0.9724;
-184.5000;0.4461;0.9798;
-184.2000;0.4469;0.9823;
-183.9000;0.4469;0.9971;
-183.6000;0.4461;0.9897;
-183.3000;0.4477;0.9848;
-183.0000;0.4485;0.9774;
-182.7000;0.4485;0.9798;
-182.4000;0.4477;0.9823;
-182.1000;0.4444;0.9848;
-181.8000;0.4485;0.9971;
-181.5000;0.4485;0.9946;
-181.2000;0.4493;0.9996;
-180.9000;0.4485;1.0020;
-180.6000;0.4510;1.0094;
-180.3000;0.4501;1.0020;
-180.0000;0.4501;0.9971;
-179.7000;0.4493;0.9922;
-179.4000;0.4518;1.0045;
-179.1000;0.4485;0.9971;
-178.8000;0.4477;0.9946;
-178.5000;0.4493;0.9996;
-178.2000;0.4469;0.9897;
-177.9000;0.4469;0.9897;
-177.6000;0.4485;0.9971;
-177.3000;0.4477;0.9946;
-177.0000;0.4510;0.9971;
-176.7000;0.4493;0.9897;
-176.4000;0.4461;0.9872;
-176.1000;0.4485;0.9922;
-175.8000;0.4477;0.9971;
-175.5000;0.4518;1.0169;
-175.2000;0.4493;1.0094;
-174.9000;0.4461;1.0045;
-174.6000;0.4526;1.0193;
-174.3000;0.4477;1.0094;
-174.0000;0.4387;0.9897;
-173.7000;0.4485;1.0193;
-173.4000;0.4477;1.0119;
-173.1000;0.4436;0.9996;
-172.8000;0.4428;1.0020;
-172.5000;0.4469;1.0169;
-172.2000;0.4493;1.0094;
-171.9000;0.4477;1.0045;
-171.6000;0.4493;1.0169;
-171.3000;0.4526;1.0243;
-171.0000;0.4461;1.0169;
-170.7000;0.4493;1.0292;
-170.4000;0.4485;1.0243;
-170.1000;0.4485;1.0243;
-169.8000;0.4469;1.0169;
-169.5000;0.4485;1.0144;
-169.2000;0.4510;1.0070;
-168.9000;0.4493;0.9996;
-168.6000;0.4477;0.9922;
-168.3000;0.4477;0.9971;
-168.0000;0.4485;0.9971;
-167.7000;0.4485;1.0020;
-167.4000;0.4493;1.0020;
-167.1000;0.4510;0.9897;
-166.8000;0.4501;0.9872;
-166.5000;0.4493;0.9946;
-166.2000;0.4461;0.9996;
-165.9000;0.4485;1.0169;
-165.6000;0.4485;1.0119;
-165.3000;0.4493;1.0119;
-165.0000;0.4526;1.0341;
-164.7000;0.4501;1.0193;
-164.4000;0.4477;1.0144;
-164.1000;0.4477;1.0094;
-163.8000;0.4485;1.0119;
-163.5000;0.4485;1.0119;
-163.2000;0.4485;1.0119;
-162.9000;0.4477;1.0020;
-162.6000;0.4485;1.0119;
-162.3000;0.4501;1.0094;
-162.0000;0.4501;1.0119;
-161.7000;0.4453;1.0094;
-161.4000;0.4477;1.0070;
-161.1000;0.4526;1.0267;
-160.8000;0.4469;1.0070;
-160.5000;0.4469;1.0193;
-160.2000;0.4461;1.0193;
-159.9000;0.4469;1.0292;
-159.6000;0.4518;1.0366;
-159.3000;0.4485;1.0218;
-159.0000;0.4485;1.0193;
-158.7000;0.4485;1.0292;
-158.4000;0.4518;1.0366;
-158.1000;0.4493;1.0243;
-157.8000;0.4477;1.0144;
-157.5000;0.4501;1.0119;
-157.2000;0.4485;1.0119;
-156.9000;0.4493;1.0218;
-156.6000;0.4461;1.0070;
-156.3000;0.4485;1.0020;
-156.0000;0.4444;0.9971;
-155.7000;0.4485;1.0094;
-155.4000;0.4477;1.0070;
-155.1000;0.4461;1.0070;
-154.8000;0.4469;1.0094;
-154.5000;0.4485;1.0144;
-154.2000;0.4510;1.0267;
-153.9000;0.4477;1.0144;
-153.6000;0.4461;1.0094;
-153.3000;0.4501;1.0119;
-153.0000;0.4477;1.0045;
-152.7000;0.4501;1.0045;
-152.4000;0.4493;1.0094;
-152.1000;0.4501;1.0020;
-151.8000;0.4485;0.9996;
-151.5000;0.4477;1.0144;
-151.2000;0.4485;1.0218;
-150.9000;0.4501;1.0292;
-150.6000;0.4493;1.0267;
-150.3000;0.4477;1.0094;
-150.0000;0.4461;0.9996;
-149.7000;0.4469;0.9971;
-149.4000;0.4477;0.9971;
-149.1000;0.4461;0.9897;
-148.8000;0.4469;0.9996;
-148.5000;0.4420;0.9922;
-148.2000;0.4477;1.0094;
-147.9000;0.4477;1.0193;
-147.6000;0.4461;1.0169;
-147.3000;0.4412;1.0070;
-147.0000;0.4493;1.0243;
-146.7000;0.4485;1.0045;
-146.4000;0.4477;1.0020;
-146.1000;0.4477;0.9971;
-145.8000;0.4469;1.0020;
-145.5000;0.4477;1.0119;
-145.2000;0.4518;1.0292;
-144.9000;0.4493;1.0193;
-144.6000;0.4485;1.0218;
-144.3000;0.4469;1.0169;
-144.0000;0.4477;1.0169;
-143.7000;0.4485;1.0070;
-143.4000;0.4550;1.0267;
-143.1000;0.4583;1.0341;
-142.8000;0.4477;1.0144;
-142.5000;0.4477;1.0119;
-142.2000;0.4444;0.9946;
-141.9000;0.4485;1.0070;
-141.6000;0.4404;0.9922;
-141.3000;0.4485;1.0243;
-141.0000;0.4510;1.0267;
-140.7000;0.4461;1.0119;
-140.4000;0.4493;1.0218;
-140.1000;0.4485;1.0094;
-139.8000;0.4477;1.0094;
-139.5000;0.4493;1.0045;
-139.2000;0.4558;1.0267;
-138.9000;0.4485;1.0020;
-138.6000;0.4477;1.0070;
-138.3000;0.4469;1.0169;
-138.0000;0.4436;1.0144;
-137.7000;0.4461;1.0218;
-137.4000;0.4453;1.0070;
-137.1000;0.4477;1.0094;
-136.8000;0.4493;1.0070;
-136.5000;0.4444;0.9872;
-136.2000;0.4461;0.9946;
-135.9000;0.4485;0.9971;
-135.6000;0.4469;0.9996;
-135.3000;0.4485;0.9971;
-135.0000;0.4477;0.9946;
-134.7000;0.4501;0.9922;
-134.4000;0.4469;0.9872;
-134.1000;0.4461;0.9897;
-133.8000;0.4469;0.9971;
-133.5000;0.4493;1.0045;
-133.2000;0.4485;1.0094;
-132.9000;0.4477;1.0094;
-132.6000;0.4485;1.0020;
-132.3000;0.4493;0.9996;
-132.0000;0.4501;1.0070;
-131.7000;0.4469;0.9996;
-131.4000;0.4485;0.9946;
-131.1000;0.4485;0.9922;
-130.8000;0.4436;0.9774;
-130.5000;0.4485;0.9946;
-130.2000;0.4469;0.9971;
-129.9000;0.4477;0.9971;
-129.6000;0.4493;0.9996;
-129.3000;0.4493;1.0070;
-129.0000;0.4453;1.0045;
-128.7000;0.4461;0.9946;
-128.4000;0.4485;0.9971;
-128.1000;0.4485;0.9971;
-127.8000;0.4461;0.9946;
-127.5000;0.4485;1.0119;
-127.2000;0.4469;1.0070;
-126.9000;0.4501;1.0119;
-126.6000;0.4501;1.0169;
-126.3000;0.4444;0.9922;
-126.0000;0.4485;1.0070;
-125.7000;0.4485;1.0070;
-125.4000;0.4477;0.9996;
-125.1000;0.4428;0.9774;
-124.8000;0.4477;0.9872;
-124.5000;0.4477;0.9922;
-124.2000;0.4534;0.9897;
-123.9000;0.4461;0.9823;
-123.6000;0.4469;0.9922;
-123.3000;0.4510;1.0020;
-123.0000;0.4485;0.9872;
-122.7000;0.4485;0.9897;
-122.4000;0.4534;1.0045;
-122.1000;0.4485;0.9872;
-121.8000;0.4453;0.9848;
-121.5000;0.4461;0.9922;
-121.2000;0.4477;0.9946;
-120.9000;0.4453;0.9823;
-120.6000;0.4485;0.9848;
-120.3000;0.4485;0.9823;
-120.0000;0.4477;0.9872;
-119.7000;0.4501;0.9872;
-119.4000;0.4493;0.9798;
-119.1000;0.4493;0.9798;
-118.8000;0.4485;0.9774;
-118.5000;0.4485;0.9872;
-118.2000;0.4444;0.9897;
-117.9000;0.4501;1.0020;
-117.6000;0.4469;0.9922;
-117.3000;0.4493;0.9996;
-117.0000;0.4526;1.0094;
-116.7000;0.4485;0.9946;
-116.4000;0.4485;0.9996;
-116.1000;0.4493;1.0020;
-115.8000;0.4461;0.9897;
-115.5000;0.4493;0.9946;
-115.2000;0.4485;0.9922;
-114.9000;0.4583;1.0144;
-114.6000;0.4469;0.9897;
-114.3000;0.4485;0.9922;
-114.0000;0.4477;0.9848;
-113.7000;0.4485;0.9872;
-113.4000;0.4493;0.9946;
-113.1000;0.4469;0.9872;
-112.8000;0.4534;0.9971;
-112.5000;0.4485;0.9922;
-112.2000;0.4477;0.9848;
-111.9000;0.4469;0.9897;
-111.6000;0.4542;1.0045;
-111.3000;0.4477;0.9848;
-111.0000;0.4436;0.9675;
-110.7000;0.4469;0.9823;
-110.4000;0.4428;0.9675;
-110.1000;0.4453;0.9774;
-109.8000;0.4469;0.9798;
-109.5000;0.4477;0.9946;
-109.2000;0.4436;0.9922;
-108.9000;0.4485;1.0144;
-108.6000;0.4501;1.0218;
-108.3000;0.4510;1.0243;
-108.0000;0.4469;1.0243;
-107.7000;0.4428;1.0094;
-107.4000;0.4510;1.0341;
-107.1000;0.4477;1.0391;
-106.8000;0.4477;1.0415;
-106.5000;0.4550;1.0539;
-106.2000;0.4526;1.0391;
-105.9000;0.4485;1.0267;
-105.6000;0.4420;1.0045;
-105.3000;0.4485;1.0119;
-105.0000;0.4469;1.0045;
-104.7000;0.4469;1.0045;
-104.4000;0.4396;0.9897;
-104.1000;0.4542;1.0243;
-103.8000;0.4583;1.0391;
-103.5000;0.4493;1.0045;
-103.2000;0.4493;1.0070;
-102.9000;0.4477;1.0045;
-102.6000;0.4469;0.9971;
-102.3000;0.4355;0.9700;
-102.0000;0.4469;1.0045;
-101.7000;0.4493;1.0094;
-101.4000;0.4493;1.0070;
-101.1000;0.4477;1.0119;
-100.8000;0.4469;1.0193;
-100.5000;0.4461;1.0144;
-100.2000;0.4477;1.0218;
-99.9000;0.4469;1.0193;
-99.6000;0.4469;1.0144;
-99.3000;0.4485;1.0144;
-99.0000;0.4453;1.0119;
-98.7000;0.4477;1.0169;
-98.4000;0.4477;1.0144;
-98.1000;0.4469;0.9996;
-97.8000;0.4485;1.0020;
-97.5000;0.4485;1.0020;
-97.2000;0.4485;1.0045;
-96.9000;0.4485;1.0070;
-96.6000;0.4461;1.0045;
-96.3000;0.4493;1.0070;
-96.0000;0.4493;1.0119;
-95.7000;0.4534;1.0243;
-95.4000;0.4493;1.0119;
-95.1000;0.4469;1.0020;
-94.8000;0.4485;0.9996;
-94.5000;0.4469;0.9996;
-94.2000;0.4420;0.9872;
-93.9000;0.4387;0.9774;
-93.6000;0.4485;1.0070;
-93.3000;0.4485;1.0094;
-93.0000;0.4469;1.0144;
-92.7000;0.4542;1.0317;
-92.4000;0.4510;1.0193;
-92.1000;0.4485;1.0218;
-91.8000;0.4493;1.0144;
-91.5000;0.4477;1.0020;
-91.2000;0.4469;0.9996;
-90.9000;0.4493;0.9971;
-90.6000;0.4485;0.9971;
-90.3000;0.4485;0.9946;
-90.0000;0.4477;0.9946;
-89.7000;0.4493;0.9946;
-89.4000;0.4493;0.9996;
-89.1000;0.4477;0.9946;
-88.8000;0.4477;0.9971;
-88.5000;0.4477;1.0045;
-88.2000;0.4477;1.0144;
-87.9000;0.4469;1.0119;
-87.6000;0.4469;1.0144;
-87.3000;0.4469;1.0144;
-87.0000;0.4477;1.0144;
-86.7000;0.4485;1.0094;
-86.4000;0.4444;0.9922;
-86.1000;0.4477;0.9996;
-85.8000;0.4485;1.0020;
-85.5000;0.4501;1.0094;
-85.2000;0.4477;1.0070;
-84.9000;0.4461;0.9971;
-84.6000;0.4477;0.9971;
-84.3000;0.4485;1.0070;
-84.0000;0.4477;1.0094;
-83.7000;0.4477;1.0045;
-83.4000;0.4436;0.9872;
-83.1000;0.4477;1.0020;
-82.8000;0.4477;1.0070;
-82.5000;0.4485;1.0070;
-82.2000;0.4493;1.0144;
-81.9000;0.4510;1.0193;
-81.6000;0.4477;1.0094;
-81.3000;0.4501;1.0020;
-81.0000;0.4461;0.9922;
-80.7000;0.4501;1.0020;
-80.4000;0.4510;1.0094;
-80.1000;0.4420;0.9749;
-79.8000;0.4501;0.9971;
-79.5000;0.4493;0.9971;
-79.2000;0.4485;0.9946;
-78.9000;0.4469;0.9823;
-78.6000;0.4477;0.9897;
-78.3000;0.4501;0.9872;
-78.0000;0.4485;0.9922;
-77.7000;0.4493;0.9971;
-77.4000;0.4404;0.9897;
-77.1000;0.4485;1.0094;
-76.8000;0.4485;1.0045;
-76.5000;0.4510;1.0070;
-76.2000;0.4526;1.0119;
-75.9000;0.4518;1.0070;
-75.6000;0.4575;1.0243;
-75.3000;0.4501;1.0020;
-75.0000;0.4477;1.0045;
-74.7000;0.4485;1.0020;
-74.4000;0.4461;0.9971;
-74.1000;0.4493;1.0094;
-73.8000;0.4477;1.0119;
-73.5000;0.4510;1.0045;
-73.2000;0.4477;0.9922;
-72.9000;0.4493;1.0020;
-72.6000;0.4485;0.9996;
-72.3000;0.4461;1.0020;
-72.0000;0.4485;1.0119;
-71.7000;0.4518;1.0243;
-71.4000;0.4493;1.0243;
-71.1000;0.4485;1.0218;
-70.8000;0.4477;1.0144;
-70.5000;0.4469;1.0119;
-70.2000;0.4493;1.0094;
-69.9000;0.4477;1.0020;
-69.6000;0.4485;1.0045;
-69.3000;0.4485;1.0094;
-69.0000;0.4485;1.0070;
-68.7000;0.4493;1.0144;
-68.4000;0.4485;1.0193;
-68.1000;0.4493;1.0169;
-67.8000;0.4461;1.0119;
-67.5000;0.4461;1.0070;
-67.2000;0.4477;1.0070;
-66.9000;0.4477;0.9996;
-66.6000;0.4477;1.0070;
-66.3000;0.4469;1.0070;
-66.0000;0.4477;1.0070;
-65.7000;0.4444;1.0020;
-65.4000;0.4501;1.0267;
-65.1000;0.4469;1.0119;
-64.8000;0.4485;1.0094;
-64.5000;0.4469;0.9996;
-64.2000;0.4404;0.9848;
-63.9000;0.4461;1.0144;
-63.6000;0.4469;1.0070;
-63.3000;0.4477;0.9996;
-63.0000;0.4534;1.0144;
-62.7000;0.4485;1.0070;
-62.4000;0.4501;1.0119;
-62.1000;0.4501;1.0144;
-61.8000;0.4575;1.0341;
-61.5000;0.4453;1.0020;
-61.2000;0.4550;1.0193;
-60.9000;0.4485;1.0144;
-60.6000;0.4493;1.0144;
-60.3000;0.4485;1.0119;
-60.0000;0.4477;1.0070;
-59.7000;0.4493;1.0119;
-59.4000;0.4501;1.0243;
-59.1000;0.4485;1.0218;
-58.8000;0.4469;1.0193;
-58.5000;0.4477;1.0144;
-58.2000;0.4485;1.0218;
-57.9000;0.4477;1.0169;
-57.6000;0.4493;1.0144;
-57.3000;0.4477;1.0119;
-57.0000;0.4485;1.0193;
-56.7000;0.4485;1.0218;
-56.4000;0.4477;1.0193;
-56.1000;0.4469;1.0144;
-55.8000;0.4485;1.0144;
-55.5000;0.4485;1.0070;
-55.2000;0.4501;1.0094;
-54.9000;0.4477;1.0045;
-54.6000;0.4469;1.0045;
-54.3000;0.4444;1.0169;
-54.0000;0.4493;1.0292;
-53.7000;0.4485;1.0317;
-53.4000;0.4493;1.0292;
-53.1000;0.4493;1.0341;
-52.8000;0.4493;1.0391;
-52.5000;0.4469;1.0243;
-52.2000;0.4493;1.0218;
-51.9000;0.4428;1.0094;
-51.6000;0.4477;1.0169;
-51.3000;0.4501;1.0243;
-51.0000;0.4453;1.0020;
-50.7000;0.4493;1.0119;
-50.4000;0.4469;1.0070;
-50.1000;0.4485;1.0045;
-49.8000;0.4477;1.0020;
-49.5000;0.4444;0.9996;
-49.2000;0.4534;1.0169;
-48.9000;0.4477;1.0020;
-48.6000;0.4477;1.0094;
-48.3000;0.4485;1.0020;
-48.0000;0.4412;0.9996;
-47.7000;0.4485;1.0169;
-47.4000;0.4501;1.0094;
-47.1000;0.4477;1.0045;
-46.8000;0.4510;1.0045;
-46.5000;0.4518;0.9971;
-46.2000;0.4453;0.9897;
-45.9000;0.4461;0.9946;
-45.6000;0.4404;0.9724;
-45.3000;0.4501;1.0020;
-45.0000;0.4485;0.9848;
-44.7000;0.4493;0.9848;
-44.4000;0.4485;0.9872;
-44.1000;0.4493;0.9971;
-43.8000;0.4469;0.9897;
-43.5000;0.4469;1.0020;
-43.2000;0.4526;1.0144;
-42.9000;0.4485;1.0020;
-42.6000;0.4493;1.0094;
-42.3000;0.4485;1.0218;
-42.0000;0.4469;1.0243;
-41.7000;0.4477;1.0218;
-41.4000;0.4469;1.0218;
-41.1000;0.4469;1.0218;
-40.8000;0.4526;1.0292;
-40.5000;0.4485;1.0218;
-40.2000;0.4469;1.0193;
-39.9000;0.4469;1.0267;
-39.6000;0.4477;1.0243;
-39.3000;0.4469;1.0169;
-39.0000;0.4469;1.0218;
-38.7000;0.4501;1.0218;
-38.4000;0.4461;0.9971;
-38.1000;0.4477;1.0119;
-37.8000;0.4510;1.0292;
-37.5000;0.4501;1.0243;
-37.2000;0.4469;1.0119;
-36.9000;0.4526;1.0169;
-36.6000;0.4485;1.0094;
-36.3000;0.4485;1.0169;
-36.0000;0.4510;1.0317;
-35.7000;0.4493;1.0169;
-35.4000;0.4469;1.0119;
-35.1000;0.4485;1.0020;
-34.8000;0.4501;1.0094;
-34.5000;0.4477;1.0094;
-34.2000;0.4477;1.0070;
-33.9000;0.4518;1.0119;
-33.6000;0.4469;1.0045;
-33.3000;0.4469;1.0045;
-33.0000;0.4469;1.0070;
-32.7000;0.4469;1.0020;
-32.4000;0.4469;1.0045;
-32.1000;0.4477;1.0020;
-31.8000;0.4477;0.9946;
-31.5000;0.4526;1.0045;
-31.2000;0.4477;0.9996;
-30.9000;0.4485;0.9946;
-30.6000;0.4493;0.9996;
-30.3000;0.4485;0.9897;
-30.0000;0.4485;0.9971;
-29.7000;0.4501;0.9971;
-29.4000;0.4493;0.9946;
-29.1000;0.4501;0.9971;
-28.8000;0.4461;0.9971;
-28.5000;0.4469;0.9922;
-28.2000;0.4510;0.9996;
-27.9000;0.4436;0.9774;
-27.6000;0.4477;0.9798;
-27.3000;0.4412;0.9724;
-27.0000;0.4485;1.0020;
-26.7000;0.4453;0.9996;
-26.4000;0.4469;1.0020;
-26.1000;0.4501;1.0094;
-25.8000;0.4485;1.0045;
-25.5000;0.4485;0.9971;
-25.2000;0.4485;0.9922;
-24.9000;0.4485;0.9897;
-24.6000;0.4501;1.0020;
-24.3000;0.4493;1.0020;
-24.0000;0.4493;1.0094;
-23.7000;0.4493;1.0045;
-23.4000;0.4501;0.9996;
-23.1000;0.4493;0.9922;
-22.8000;0.4444;0.9922;
-22.5000;0.4461;0.9971;
-22.2000;0.4461;0.9996;
-21.9000;0.4453;0.9971;
-21.6000;0.4575;1.0243;
-21.3000;0.4469;0.9922;
-21.0000;0.4461;0.9897;
-20.7000;0.4469;0.9971;
-20.4000;0.4477;0.9946;
-20.1000;0.4477;0.9971;
-19.8000;0.4477;1.0020;
-19.5000;0.4444;0.9922;
-19.2000;0.4461;1.0020;
-18.9000;0.4485;0.9971;
-18.6000;0.4461;0.9971;
-18.3000;0.4461;1.0045;
-18.0000;0.4510;1.0218;
-17.7000;0.4461;1.0094;
-17.4000;0.4412;0.9946;
-17.1000;0.4485;1.0169;
-16.8000;0.4436;0.9971;
-16.5000;0.4501;1.0070;
-16.2000;0.4518;1.0045;
-15.9000;0.4518;0.9996;
-15.6000;0.4461;0.9823;
-15.3000;0.4453;0.9823;
-15.0000;0.4477;0.9922;
-14.7000;0.4461;0.9996;
-14.4000;0.4501;1.0144;
-14.1000;0.4501;1.0267;
-13.8000;0.4493;1.0218;
-13.5000;0.4477;1.0169;
-13.2000;0.4485;1.0218;
-12.9000;0.4493;1.0243;
-12.6000;0.4444;1.0070;
-12.3000;0.4485;1.0292;
-12.0000;0.4493;1.0243;
-11.7000;0.4485;1.0243;
-11.4000;0.4542;1.0391;
-11.1000;0.4477;1.0243;
-10.8000;0.4469;1.0094;
-10.5000;0.4501;1.0144;
-10.2000;0.4485;1.0070;
-9.9000;0.4477;1.0070;
-9.6000;0.4469;1.0070;
-9.3000;0.4493;1.0094;
-9.0000;0.4469;1.0119;
-8.7000;0.4469;0.9996;
-8.4000;0.4461;1.0020;
-8.1000;0.4469;1.0020;
-7.8000;0.4477;1.0020;
-7.5000;0.4493;1.0169;
-7.2000;0.4477;1.0094;
-6.9000;0.4469;1.0070;
-6.6000;0.4469;1.0094;
-6.3000;0.4558;1.0317;
-6.0000;0.4477;1.0169;
-5.7000;0.4477;1.0144;
-5.4000;0.4477;1.0243;
-5.1000;0.4485;1.0193;
-4.8000;0.4501;1.0267;
-4.5000;0.4461;1.0169;
-4.2000;0.4469;1.0218;
-3.9000;0.4477;1.0119;
-3.6000;0.4501;1.0144;
-3.3000;0.4493;1.0169;
-3.0000;0.4477;1.0144;
-2.7000;0.4493;1.0169;
-2.4000;0.4493;1.0193;
-2.1000;0.4501;1.0267;
-1.8000;0.4485;1.0243;
-1.5000;0.4477;1.0267;
-1.2000;0.4501;1.0366;
-0.9000;0.4485;1.0218;
-0.6000;0.4501;1.0292;
-0.3000;0.4518;1.0366;
0.0000;0.4518;1.0366;
0.3000;0.4567;1.0193;
0.6000;0.4681;1.0391;
0.9000;0.4786;1.0712;
1.2000;0.4835;1.0909;
1.5000;0.4933;1.1279;
1.8000;0.5055;1.1797;
2.1000;0.4998;1.1699;
2.4000;0.5031;1.1773;
2.7000;0.5079;1.1995;
3.0000;0.5088;1.2143;
3.3000;0.5104;1.2217;
3.6000;0.5120;1.2266;
3.9000;0.5153;1.2316;
4.2000;0.5144;1.2365;
4.5000;0.5153;1.2390;
4.8000;0.5185;1.2464;
5.1000;0.5201;1.2538;
5.4000;0.5193;1.2489;
5.7000;0.5201;1.2538;
6.0000;0.5201;1.2538;
6.3000;0.5324;1.2957;
6.6000;0.5234;1.2735;
6.9000;0.5226;1.2785;
7.2000;0.5226;1.2809;
7.5000;0.5283;1.2834;
7.8000;0.5226;1.2735;
8.1000;0.5250;1.2711;
8.4000;0.5283;1.2785;
8.7000;0.5234;1.2686;
9.0000;0.5307;1.2834;
9.3000;0.5299;1.2809;
9.6000;0.5299;1.2785;
9.9000;0.5283;1.2735;
10.2000;0.5291;1.2686;
10.5000;0.5258;1.2637;
10.8000;0.5307;1.2563;
11.1000;0.5307;1.2513;
11.4000;0.5250;1.2464;
11.7000;0.5291;1.2637;
12.0000;0.5315;1.2735;
12.3000;0.5324;1.2661;
12.6000;0.5307;1.2637;
12.9000;0.5299;1.2661;
13.2000;0.5315;1.2686;
13.5000;0.5275;1.2612;
13.8000;0.5364;1.2859;
14.1000;0.5340;1.2785;
14.4000;0.5315;1.2661;
14.7000;0.5364;1.2711;
15.0000;0.5332;1.2686;
15.3000;0.5348;1.2785;
15.6000;0.5340;1.2834;
15.9000;0.5454;1.3130;
16.2000;0.5348;1.2883;
16.5000;0.5348;1.2859;
16.8000;0.5324;1.2711;
17.1000;0.5315;1.2735;
17.4000;0.5340;1.2686;
17.7000;0.5364;1.2637;
18.0000;0.5356;1.2637;
18.3000;0.5364;1.2735;
18.6000;0.5364;1.2711;
18.9000;0.5372;1.2809;
19.2000;0.5397;1.2834;
19.5000;0.5397;1.2859;
19.8000;0.5356;1.2686;
20.1000;0.5389;1.2711;
20.4000;0.5372;1.2711;
20.7000;0.5332;1.2563;
21.0000;0.5372;1.2612;
21.3000;0.5372;1.2661;
21.6000;0.5381;1.2735;
21.9000;0.5315;1.2661;
22.2000;0.5405;1.2834;
22.5000;0.5429;1.2859;
22.8000;0.5372;1.2785;
23.1000;0.5405;1.2834;
23.4000;0.5348;1.2612;
23.7000;0.5381;1.2760;
24.0000;0.5397;1.2760;
24.3000;0.5381;1.2760;
24.6000;0.5381;1.2661;
24.9000;0.5413;1.2809;
25.2000;0.5397;1.2711;
25.5000;0.5421;1.2834;
25.8000;0.5405;1.2883;
26.1000;0.5421;1.2982;
26.4000;0.5413;1.2859;
26.7000;0.5413;1.2834;
27.0000;0.5405;1.2883;
27.3000;0.5405;1.2883;
27.6000;0.5405;1.2859;
27.9000;0.5405;1.2933;
28.2000;0.5405;1.2883;
28.5000;0.5413;1.2933;
28.8000;0.5413;1.2933;
29.1000;0.5389;1.2809;
29.4000;0.5397;1.2883;
29.7000;0.5446;1.3081;
30.0000;0.5413;1.2982;
30.3000;0.5413;1.2883;
30.6000;0.5438;1.2908;
30.9000;0.5413;1.2785;
31.2000;0.5421;1.2859;
31.5000;0.5413;1.2834;
31.8000;0.5421;1.2859;
32.1000;0.5405;1.2834;
32.4000;0.5421;1.2933;
32.7000;0.5495;1.3106;
33.0000;0.5421;1.2859;
33.3000;0.5421;1.2859;
33.6000;0.5381;1.2785;
33.9000;0.5421;1.2809;
34.2000;0.5429;1.2686;
34.5000;0.5454;1.2859;
34.8000;0.5421;1.2735;
35.1000;0.5429;1.2760;
35.4000;0.5429;1.2785;
35.7000;0.5413;1.2760;
36.0000;0.5429;1.2760;
36.3000;0.5438;1.2883;
36.6000;0.5446;1.2933;
36.9000;0.5429;1.2883;
37.2000;0.5429;1.2908;
37.5000;0.5446;1.2908;
37.8000;0.5438;1.2883;
38.1000;0.5438;1.2809;
38.4000;0.5429;1.2735;
38.7000;0.5421;1.2760;
39.0000;0.5429;1.2785;
39.3000;0.5429;1.2785;
39.6000;0.5421;1.2735;
39.9000;0.5332;1.2489;
40.2000;0.5478;1.2859;
40.5000;0.5446;1.2686;
40.8000;0.5421;1.2612;
41.1000;0.5405;1.2612;
41.4000;0.5429;1.2711;
41.7000;0.5429;1.2760;
42.0000;0.5429;1.2785;
42.3000;0.5462;1.2933;
42.6000;0.5438;1.2834;
42.9000;0.5438;1.2809;
43.2000;0.5446;1.2809;
43.5000;0.5446;1.2859;
43.8000;0.5429;1.2834;
44.1000;0.5446;1.2760;
44.4000;0.5454;1.2809;
44.7000;0.5446;1.2785;
45.0000;0.5421;1.2834;
45.3000;0.5429;1.2809;
45.6000;0.5478;1.2933;
45.9000;0.5397;1.2686;
46.2000;0.5438;1.2809;
46.5000;0.5405;1.2686;
46.8000;0.5462;1.2859;
47.1000;0.5462;1.2859;
47.4000;0.5503;1.2933;
47.7000;0.5446;1.2809;
48.0000;0.5511;1.2908;
48.3000;0.5446;1.2637;
48.6000;0.5454;1.2637;
48.9000;0.5462;1.2711;
49.2000;0.5454;1.2686;
49.5000;0.5454;1.2735;
49.8000;0.5429;1.2785;
50.1000;0.5438;1.2735;
50.4000;0.5446;1.2612;
50.7000;0.5446;1.2563;
51.0000;0.5438;1.2538;
51.3000;0.5454;1.2735;
51.6000;0.5446;1.2785;
51.9000;0.5454;1.2883;
52.2000;0.5446;1.2933;
52.5000;0.5446;1.2883;
52.8000;0.5478;1.2883;
53.1000;0.5462;1.2883;
53.4000;0.5470;1.2933;
53.7000;0.5478;1.2908;
54.0000;0.5438;1.2908;
54.3000;0.5446;1.2982;
54.6000;0.5454;1.3007;
54.9000;0.5454;1.3007;
55.2000;0.5454;1.2933;
55.5000;0.5462;1.2859;
55.8000;0.5519;1.3007;
56.1000;0.5438;1.2809;
56.4000;0.5438;1.2809;
56.7000;0.5454;1.2933;
57.0000;0.5462;1.2933;
57.3000;0.5446;1.2982;
57.6000;0.5454;1.2982;
57.9000;0.5446;1.3007;
58.2000;0.5446;1.3056;
58.5000;0.5470;1.3081;
58.8000;0.5470;1.3032;
59.1000;0.5454;1.2957;
59.4000;0.5470;1.3081;
59.7000;0.5446;1.3081;
60.0000;0.5438;1.2957;
60.3000;0.5446;1.2957;
60.6000;0.5429;1.2957;
60.9000;0.5421;1.2908;
61.2000;0.5446;1.3007;
61.5000;0.5421;1.2908;
61.8000;0.5421;1.2982;
62.1000;0.5446;1.3032;
62.4000;0.5429;1.3032;
62.7000;0.5405;1.2957;
63.0000;0.5454;1.3081;
63.3000;0.5446;1.3106;
63.6000;0.5478;1.3254;
63.9000;0.5535;1.3402;
64.2000;0.5438;1.3032;
64.5000;0.5405;1.2809;
64.8000;0.5462;1.2883;
65.1000;0.5446;1.2859;
65.4000;0.5446;1.2834;
65.7000;0.5446;1.2760;
66.0000;0.5421;1.2735;
66.3000;0.5446;1.2809;
66.6000;0.5446;1.2834;
66.9000;0.5429;1.2834;
67.2000;0.5413;1.2785;
67.5000;0.5438;1.2908;
67.8000;0.5421;1.2908;
68.1000;0.5438;1.2957;
68.4000;0.5454;1.3056;
68.7000;0.5446;1.3056;
69.0000;0.5486;1.3229;
69.3000;0.5446;1.3056;
69.6000;0.5446;1.2933;
69.9000;0.5421;1.2785;
70.2000;0.5454;1.2883;
70.5000;0.5454;1.2883;
70.8000;0.5389;1.2735;
71.1000;0.5478;1.2908;
71.4000;0.5462;1.2957;
71.7000;0.5446;1.2859;
72.0000;0.5397;1.2785;
72.3000;0.5421;1.2908;
72.6000;0.5446;1.3032;
72.9000;0.5462;1.3007;
73.2000;0.5462;1.2957;
73.5000;0.5429;1.2785;
73.8000;0.5454;1.2785;
74.1000;0.5446;1.2760;
74.4000;0.5446;1.2735;
74.7000;0.5438;1.2686;
75.0000;0.5446;1.2760;
75.3000;0.5462;1.2735;
75.6000;0.5421;1.2760;
75.9000;0.5454;1.2859;
76.2000;0.5462;1.2957;
76.5000;0.5478;1.2957;
76.8000;0.5470;1.2859;
77.1000;0.5478;1.2711;
77.4000;0.5429;1.2735;
77.7000;0.5462;1.2785;
78.0000;0.5462;1.2735;
78.3000;0.5454;1.2809;
78.6000;0.5470;1.2933;
78.9000;0.5478;1.2859;
79.2000;0.5462;1.2957;
79.5000;0.5438;1.2859;
79.8000;0.5421;1.2834;
80.1000;0.5486;1.2982;
80.4000;0.5446;1.2957;
80.7000;0.5495;1.3155;
81.0000;0.5470;1.3032;
81.3000;0.5454;1.2982;
81.6000;0.5446;1.2933;
81.9000;0.5462;1.2908;
82.2000;0.5478;1.2933;
82.5000;0.5421;1.2785;
82.8000;0.5413;1.2883;
83.1000;0.5446;1.3007;
83.4000;0.5462;1.2957;
83.7000;0.5462;1.2957;
84.0000;0.5462;1.2957;
84.3000;0.5470;1.2908;
84.6000;0.5462;1.2859;
84.9000;0.5454;1.2883;
85.2000;0.5470;1.2883;
85.5000;0.5454;1.2883;
85.8000;0.5462;1.2933;
86.1000;0.5446;1.2933;
86.4000;0.5446;1.2982;
86.7000;0.5364;1.2883;
87.0000;0.5462;1.2957;
87.3000;0.5470;1.2933;
87.6000;0.5356;1.2637;
87.9000;0.5438;1.2760;
88.2000;0.5462;1.2834;
88.5000;0.5560;1.3056;
88.8000;0.5462;1.2785;
89.1000;0.5421;1.2711;
89.4000;0.5446;1.2785;
89.7000;0.5446;1.2809;
90.0000;0.5397;1.2785;
90.3000;0.5446;1.2859;
90.6000;0.5462;1.2785;
90.9000;0.5454;1.2785;
91.2000;0.5470;1.2735;
91.5000;0.5454;1.2711;
91.8000;0.5462;1.2563;
92.1000;0.5462;1.2637;
92.4000;0.5462;1.2637;
92.7000;0.5454;1.2661;
93.0000;0.5446;1.2686;
93.3000;0.5462;1.2760;
93.6000;0.5446;1.2686;
93.9000;0.5462;1.2612;
94.2000;0.5438;1.2587;
94.5000;0.5446;1.2661;
94.8000;0.5454;1.2612;
95.1000;0.5486;1.2587;
95.4000;0.5454;1.2563;
95.7000;0.5438;1.2612;
96.0000;0.5421;1.2563;
96.3000;0.5429;1.2538;
96.6000;0.5438;1.2686;
96.9000;0.5438;1.2809;
97.2000;0.5519;1.2982;
97.5000;0.5462;1.2809;
97.8000;0.5438;1.2686;
98.1000;0.5446;1.2711;
98.4000;0.5454;1.2735;
98.7000;0.5413;1.2637;
99.0000;0.5446;1.2686;
99.3000;0.5454;1.2711;
99.6000;0.5454;1.2686;
99.9000;0.5429;1.2637;
100.2000;0.5470;1.2859;
100.5000;0.5446;1.2809;
100.8000;0.5462;1.2933;
101.1000;0.5454;1.2908;
101.4000;0.5454;1.2785;
101.7000;0.5429;1.2711;
102.0000;0.5438;1.2686;
102.3000;0.5454;1.2637;
102.6000;0.5478;1.2735;
102.9000;0.5421;1.2612;
103.2000;0.5470;1.2637;
103.5000;0.5446;1.2587;
103.8000;0.5446;1.2637;
104.1000;0.5478;1.2785;
104.4000;0.5446;1.2686;
104.7000;0.5462;1.2785;
105.0000;0.5462;1.2735;
105.3000;0.5462;1.2809;
105.6000;0.5462;1.2859;
105.9000;0.5446;1.2809;
106.2000;0.5535;1.2933;
106.5000;0.5478;1.2834;
106.8000;0.5421;1.2686;
107.1000;0.5454;1.2883;
107.4000;0.5348;1.2661;
107.7000;0.5405;1.2834;
108.0000;0.5462;1.2908;
108.3000;0.5462;1.2982;
108.6000;0.5454;1.2883;
108.9000;0.5470;1.2883;
109.2000;0.5462;1.2957;
109.5000;0.5454;1.2883;
109.8000;0.5478;1.2883;
110.1000;0.5454;1.2711;
110.4000;0.5462;1.2735;
110.7000;0.5454;1.2760;
111.0000;0.5454;1.2760;
111.3000;0.5462;1.2760;
111.6000;0.5429;1.2637;
111.9000;0.5446;1.2661;
112.2000;0.5454;1.2637;
112.5000;0.5438;1.2661;
112.8000;0.5454;1.2735;
113.1000;0.5535;1.2957;
113.4000;0.5478;1.2711;
113.7000;0.5446;1.2612;
114.0000;0.5454;1.2612;
114.3000;0.5421;1.2513;
114.6000;0.5454;1.2538;
114.9000;0.5446;1.2489;
115.2000;0.5429;1.2538;
115.5000;0.5454;1.2612;
115.8000;0.5470;1.2587;
116.1000;0.5454;1.2563;
116.4000;0.5421;1.2489;
116.7000;0.5438;1.2612;
117.0000;0.5446;1.2686;
117.3000;0.5446;1.2637;
117.6000;0.5446;1.2538;
117.9000;0.5429;1.2415;
118.2000;0.5462;1.2513;
118.5000;0.5438;1.2415;
118.8000;0.5462;1.2538;
119.1000;0.5470;1.2563;
119.4000;0.5462;1.2612;
119.7000;0.5462;1.2711;
120.0000;0.5429;1.2661;
120.3000;0.5438;1.2711;
120.6000;0.5478;1.2785;
120.9000;0.5454;1.2686;
121.2000;0.5462;1.2735;
121.5000;0.5421;1.2612;
121.8000;0.5454;1.2711;
122.1000;0.5454;1.2637;
122.4000;0.5446;1.2711;
122.7000;0.5454;1.2711;
123.0000;0.5446;1.2637;
123.3000;0.5454;1.2637;
123.6000;0.5397;1.2587;
123.9000;0.5560;1.3056;
124.2000;0.5446;1.2785;
124.5000;0.5405;1.2735;
124.8000;0.5462;1.2834;
125.1000;0.5446;1.2859;
125.4000;0.5438;1.2834;
125.7000;0.5413;1.2735;
126.0000;0.5462;1.2834;
126.3000;0.5446;1.2834;
126.6000;0.5381;1.2686;
126.9000;0.5462;1.2908;
127.2000;0.5446;1.2809;
127.5000;0.5462;1.2785;
127.8000;0.5519;1.2908;
128.1000;0.5454;1.2686;
128.4000;0.5446;1.2587;
128.7000;0.5446;1.2637;
129.0000;0.5535;1.2908;
129.3000;0.5438;1.2661;
129.6000;0.5405;1.2612;
129.9000;0.5454;1.2785;
130.2000;0.5438;1.2883;
130.5000;0.5462;1.2883;
130.8000;0.5446;1.2834;
131.1000;0.5454;1.2859;
131.4000;0.5462;1.2883;
131.7000;0.5438;1.2809;
132.0000;0.5462;1.2834;
132.3000;0.5478;1.2957;
132.6000;0.5462;1.2809;
132.9000;0.5462;1.2711;
133.2000;0.5421;1.2711;
133.5000;0.5438;1.2859;
133.8000;0.5438;1.2760;
134.1000;0.5470;1.2834;
134.4000;0.5446;1.2661;
134.7000;0.5429;1.2686;
135.0000;0.5438;1.2809;
135.3000;0.5405;1.2735;
135.6000;0.5446;1.2809;
135.9000;0.5446;1.2809;
136.2000;0.5446;1.2859;
136.5000;0.5462;1.3007;
136.8000;0.5462;1.3007;
137.1000;0.5438;1.2883;
137.4000;0.5413;1.2760;
137.7000;0.5454;1.2760;
138.0000;0.5462;1.2785;
138.3000;0.5454;1.2859;
138.6000;0.5454;1.2760;
138.9000;0.5462;1.2612;
139.2000;0.5462;1.2711;
139.5000;0.5470;1.2661;
139.8000;0.5446;1.2612;
140.1000;0.5478;1.2686;
140.4000;0.5462;1.2661;
140.7000;0.5462;1.2735;
141.0000;0.5438;1.2735;
141.3000;0.5478;1.2834;
141.6000;0.5446;1.2785;
141.9000;0.5462;1.2883;
142.2000;0.5446;1.2883;
142.5000;0.5462;1.2834;
142.8000;0.5462;1.2908;
143.1000;0.5454;1.2933;
143.4000;0.5446;1.2957;
143.7000;0.5470;1.2982;
144.0000;0.5462;1.2933;
144.3000;0.5495;1.2908;
144.6000;0.5429;1.2735;
144.9000;0.5454;1.2735;
145.2000;0.5438;1.2637;
145.5000;0.5462;1.2760;
145.8000;0.5413;1.2661;
146.1000;0.5446;1.2760;
146.4000;0.5454;1.2686;
146.7000;0.5413;1.2612;
147.0000;0.5462;1.2760;
147.3000;0.5454;1.2735;
147.6000;0.5446;1.2785;
147.9000;0.5454;1.2933;
148.2000;0.5446;1.2834;
148.5000;0.5454;1.2908;
148.8000;0.5446;1.2957;
149.1000;0.5503;1.3155;
149.4000;0.5470;1.2957;
149.7000;0.5470;1.2834;
150.0000;0.5462;1.2735;
150.3000;0.5454;1.2637;
150.6000;0.5429;1.2587;
150.9000;0.5454;1.2760;
151.2000;0.5438;1.2735;
151.5000;0.5421;1.2686;
151.8000;0.5438;1.2637;
152.1000;0.5462;1.2563;
152.4000;0.5381;1.2340;
152.7000;0.5454;1.2538;
153.0000;0.5454;1.2489;
153.3000;0.5503;1.2563;
153.6000;0.5470;1.2538;
153.9000;0.5446;1.2612;
154.2000;0.5454;1.2686;
154.5000;0.5462;1.2760;
154.8000;0.5470;1.2760;
155.1000;0.5462;1.2711;
155.4000;0.5446;1.2637;
155.7000;0.5438;1.2612;
156.0000;0.5446;1.2735;
156.3000;0.5438;1.2711;
156.6000;0.5446;1.2711;
156.9000;0.5446;1.2661;
157.2000;0.5454;1.2637;
157.5000;0.5429;1.2513;
157.8000;0.5421;1.2439;
158.1000;0.5438;1.2513;
158.4000;0.5446;1.2612;
158.7000;0.5438;1.2661;
159.0000;0.5454;1.2785;
159.3000;0.5446;1.2908;
159.6000;0.5438;1.2933;
159.9000;0.5470;1.2957;
160.2000;0.5438;1.2809;
160.5000;0.5454;1.2883;
160.8000;0.5454;1.2933;
161.1000;0.5470;1.3032;
161.4000;0.5438;1.2933;
161.7000;0.5454;1.2859;
162.0000;0.5438;1.2760;
162.3000;0.5478;1.2809;
162.6000;0.5446;1.2760;
162.9000;0.5454;1.2760;
163.2000;0.5438;1.2760;
163.5000;0.5454;1.2785;
163.8000;0.5454;1.2760;
164.1000;0.5454;1.2735;
164.4000;0.5446;1.2785;
164.7000;0.5454;1.2785;
165.0000;0.5478;1.2908;
165.3000;0.5495;1.2883;
165.6000;0.5438;1.2711;
165.9000;0.5462;1.2785;
166.2000;0.5454;1.2785;
166.5000;0.5381;1.2686;
166.8000;0.5454;1.2785;
167.1000;0.5454;1.2711;
167.4000;0.5438;1.2760;
167.7000;0.5478;1.2834;
168.0000;0.5429;1.2686;
168.3000;0.5454;1.2711;
168.6000;0.5454;1.2760;
168.9000;0.5454;1.2735;
169.2000;0.5454;1.2661;
169.5000;0.5470;1.2563;
169.8000;0.5470;1.2513;
170.1000;0.5470;1.2513;
170.4000;0.5446;1.2538;
170.7000;0.5486;1.2711;
171.0000;0.5454;1.2637;
171.3000;0.5454;1.2563;
171.6000;0.5462;1.2587;
171.9000;0.5438;1.2365;
172.2000;0.5462;1.2439;
172.5000;0.5462;1.2489;
172.8000;0.5454;1.2538;
173.1000;0.5446;1.2563;
173.4000;0.5438;1.2538;
173.7000;0.5446;1.2637;
174.0000;0.5446;1.2612;
174.3000;0.5438;1.2587;
174.6000;0.5454;1.2637;
174.9000;0.5438;1.2612;
175.2000;0.5446;1.2587;
175.5000;0.5454;1.2686;
175.8000;0.5438;1.2587;
176.1000;0.5446;1.2513;
176.4000;0.5446;1.2538;
176.7000;0.5454;1.2563;
177.0000;0.5462;1.2513;
177.3000;0.5462;1.2464;
177.6000;0.5446;1.2489;
177.9000;0.5470;1.2538;
178.2000;0.5462;1.2464;
178.5000;0.5446;1.2415;
178.8000;0.5503;1.2563;
179.1000;0.5438;1.2365;
179.4000;0.5454;1.2266;
179.7000;0.5446;1.2242;
180.0000;0.5438;1.2217;
180.3000;0.5446;1.2242;
180.6000;0.5454;1.2340;
180.9000;0.5438;1.2316;
181.2000;0.5315;1.2094;
181.5000;0.5438;1.2439;
181.8000;0.5511;1.2686;
182.1000;0.5446;1.2563;
182.4000;0.5446;1.2686;
182.7000;0.5446;1.2612;
183.0000;0.5454;1.2637;
183.3000;0.5454;1.2538;
183.6000;0.5446;1.2489;
183.9000;0.5405;1.2365;
184.2000;0.5446;1.2365;
184.5000;0.5454;1.2439;
184.8000;0.5438;1.2464;
185.1000;0.5446;1.2513;
185.4000;0.5446;1.2563;
185.7000;0.5454;1.2513;
186.0000;0.5511;1.2563;
186.3000;0.5421;1.2439;
186.6000;0.5462;1.2538;
186.9000;0.5438;1.2464;
187.2000;0.5454;1.2439;
187.5000;0.5454;1.2365;
187.8000;0.5454;1.2439;
188.1000;0.5446;1.2464;
188.4000;0.5454;1.2513;
188.7000;0.5446;1.2513;
189.0000;0.5438;1.2464;
189.3000;0.5454;1.2489;
189.6000;0.5454;1.2538;
189.9000;0.5470;1.2538;
190.2000;0.5462;1.2489;
190.5000;0.5454;1.2390;
190.8000;0.5446;1.2390;
191.1000;0.5454;1.2365;
191.4000;0.5446;1.2365;
191.7000;0.5446;1.2390;
192.0000;0.5438;1.2415;
192.3000;0.5446;1.2415;
192.6000;0.5446;1.2390;
192.9000;0.5446;1.2439;
193.2000;0.5462;1.2538;
193.5000;0.5470;1.2612;
193.8000;0.5462;1.2587;
194.1000;0.5446;1.2439;
194.4000;0.5438;1.2365;
194.7000;0.5454;1.2464;
195.0000;0.5446;1.2489;
195.3000;0.5446;1.2489;
195.6000;0.5438;1.2513;
195.9000;0.5454;1.2563;
196.2000;0.5438;1.2587;
196.5000;0.5429;1.2513;
196.8000;0.5421;1.2513;
197.1000;0.5462;1.2587;
197.4000;0.5446;1.2489;
197.7000;0.5511;1.2661;
198.0000;0.5454;1.2612;
198.3000;0.5429;1.2735;
198.6000;0.5446;1.2809;
198.9000;0.5429;1.2735;
199.2000;0.5429;1.2785;
199.5000;0.5462;1.2859;
199.8000;0.5454;1.2834;
200.1000;0.5454;1.2859;
200.4000;0.5560;1.3056;
200.7000;0.5446;1.2883;
201.0000;0.5462;1.2883;
201.3000;0.5486;1.2933;
201.6000;0.5421;1.2785;
201.9000;0.5462;1.2859;
202.2000;0.5511;1.3032;
202.5000;0.5470;1.2933;
202.8000;0.5389;1.2686;
203.1000;0.5446;1.2883;
203.4000;0.5446;1.2933;
203.7000;0.5454;1.2982;
204.0000;0.5462;1.3007;
204.3000;0.5470;1.2957;
204.6000;0.5454;1.2908;
204.9000;0.5429;1.2883;
205.2000;0.5454;1.2933;
205.5000;0.5454;1.2908;
205.8000;0.5446;1.2760;
206.1000;0.5429;1.2612;
206.4000;0.5446;1.2686;
206.7000;0.5470;1.2637;
207.0000;0.5438;1.2587;
207.3000;0.5438;1.2637;
207.6000;0.5454;1.2637;
207.9000;0.5495;1.2735;
208.2000;0.5446;1.2563;
208.5000;0.5462;1.2637;
208.8000;0.5519;1.2809;
209.1000;0.5462;1.2711;
209.4000;0.5446;1.2711;
209.7000;0.5438;1.2711;
210.0000;0.5454;1.2711;
210.3000;0.5446;1.2661;
210.6000;0.5462;1.2760;
210.9000;0.5470;1.2760;
211.2000;0.5454;1.2661;
211.5000;0.5454;1.2735;
211.8000;0.5446;1.2809;
212.1000;0.5438;1.2760;
212.4000;0.5446;1.2760;
212.7000;0.5446;1.2735;
213.0000;0.5438;1.2785;
213.3000;0.5438;1.2809;
213.6000;0.5438;1.2735;
213.9000;0.5421;1.2711;
214.2000;0.5446;1.2883;
214.5000;0.5543;1.3155;
214.8000;0.5446;1.2834;
215.1000;0.5462;1.2809;
215.4000;0.5462;1.2859;
215.7000;0.5446;1.2785;
216.0000;0.5470;1.2760;
216.3000;0.5454;1.2809;
216.6000;0.5429;1.2711;
216.9000;0.5470;1.2785;
217.2000;0.5454;1.2661;
217.5000;0.5389;1.2513;
217.8000;0.5389;1.2563;
218.1000;0.5446;1.2711;
218.4000;0.5446;1.2661;
218.7000;0.5405;1.2538;
219.0000;0.5462;1.2637;
219.3000;0.5454;1.2563;
219.6000;0.5470;1.2735;
219.9000;0.5421;1.2637;
220.2000;0.5438;1.2711;
220.5000;0.5429;1.2686;
220.8000;0.5446;1.2661;
221.1000;0.5446;1.2661;
221.4000;0.5462;1.2637;
221.7000;0.5462;1.2637;
222.0000;0.5438;1.2661;
222.3000;0.5462;1.2686;
222.6000;0.5429;1.2587;
222.9000;0.5397;1.2489;
223.2000;0.5446;1.2563;
223.5000;0.5446;1.2612;
223.8000;0.5454;1.2735;
224.1000;0.5438;1.2785;
224.4000;0.5397;1.2735;
224.7000;0.5478;1.3032;
225.0000;0.5470;1.3081;
225.3000;0.5438;1.2933;
225.6000;0.5413;1.2933;
225.9000;0.5438;1.3056;
226.2000;0.5438;1.2982;
226.5000;0.5462;1.3007;
226.8000;0.5470;1.2957;
227.1000;0.5470;1.2982;
227.4000;0.5446;1.2982;
227.7000;0.5454;1.2883;
228.0000;0.5429;1.2908;
228.3000;0.5462;1.2933;
228.6000;0.5454;1.2809;
228.9000;0.5438;1.2785;
229.2000;0.5446;1.2834;
229.5000;0.5478;1.2859;
229.8000;0.5470;1.2785;
230.1000;0.5438;1.2809;
230.4000;0.5446;1.2908;
230.7000;0.5446;1.2809;
231.0000;0.5462;1.2785;
231.3000;0.5454;1.2785;
231.6000;0.5454;1.2834;
231.9000;0.5462;1.2834;
232.2000;0.5438;1.2859;
232.5000;0.5462;1.2908;
232.8000;0.5454;1.2859;
233.1000;0.5478;1.2859;
233.4000;0.5454;1.2834;
233.7000;0.5462;1.2834;
234.0000;0.5446;1.2809;
234.3000;0.5478;1.2933;
234.6000;0.5462;1.2859;
234.9000;0.5486;1.2908;
235.2000;0.5454;1.2859;
235.5000;0.5446;1.2785;
235.8000;0.5446;1.2809;
236.1000;0.5503;1.2883;
236.4000;0.5470;1.2785;
236.7000;0.5486;1.2834;
237.0000;0.5454;1.2834;
237.3000;0.5454;1.2834;
237.6000;0.5470;1.2883;
237.9000;0.5470;1.2834;
238.2000;0.5478;1.2908;
238.5000;0.5454;1.2809;
238.8000;0.5446;1.2809;
239.1000;0.5478;1.2834;
239.4000;0.5470;1.2785;
239.7000;0.5486;1.2859;
240.0000;0.5454;1.2760;
240.3000;0.5446;1.2711;
240.6000;0.5470;1.2760;
240.9000;0.5446;1.2686;
241.2000;0.5446;1.2760;
241.5000;0.5470;1.2785;
241.8000;0.5551;1.3007;
242.1000;0.5486;1.2883;
242.4000;0.5454;1.2760;
242.7000;0.5462;1.2785;
243.0000;0.5462;1.2859;
243.3000;0.5397;1.2661;
243.6000;0.5486;1.2982;
243.9000;0.5495;1.3056;
244.2000;0.5446;1.2982;
244.5000;0.5462;1.2982;
244.8000;0.5421;1.2834;
245.1000;0.5446;1.2859;
245.4000;0.5405;1.2809;
245.7000;0.5470;1.2834;
246.0000;0.5446;1.2711;
246.3000;0.5438;1.2760;
246.6000;0.5454;1.2883;
246.9000;0.5454;1.2859;
247.2000;0.5438;1.2834;
247.5000;0.5470;1.2933;
247.8000;0.5438;1.2883;
248.1000;0.5462;1.2883;
248.4000;0.5446;1.2957;
248.7000;0.5462;1.2933;
249.0000;0.5478;1.3007;
249.3000;0.5462;1.3007;
249.6000;0.5462;1.2933;
249.9000;0.5454;1.2859;
250.2000;0.5446;1.2809;
250.5000;0.5462;1.2883;
250.8000;0.5454;1.2809;
251.1000;0.5446;1.2785;
251.4000;0.5446;1.2760;
251.7000;0.5495;1.2883;
252.0000;0.5454;1.2834;
252.3000;0.5462;1.2908;
252.6000;0.5446;1.2957;
252.9000;0.5454;1.2957;
253.2000;0.5454;1.3007;
253.5000;0.5470;1.3007;
253.8000;0.5438;1.2883;
254.1000;0.5462;1.2908;
254.4000;0.5470;1.2933;
254.7000;0.5470;1.2908;
255.0000;0.5446;1.2834;
255.3000;0.5462;1.2809;
255.6000;0.5446;1.2785;
255.9000;0.5454;1.2809;
256.2000;0.5462;1.2760;
256.5000;0.5446;1.2760;
256.8000;0.5470;1.2809;
257.1000;0.5438;1.2711;
257.4000;0.5470;1.2735;
257.7000;0.5438;1.2711;
258.0000;0.5446;1.2711;
258.3000;0.5560;1.3007;
258.6000;0.5470;1.2686;
258.9000;0.5454;1.2711;
259.2000;0.5446;1.2711;
259.5000;0.5470;1.2760;
259.8000;0.5470;1.2760;
260.1000;0.5462;1.2834;
260.4000;0.5454;1.2809;
260.7000;0.5462;1.2982;
261.0000;0.5429;1.2908;
261.3000;0.5446;1.2908;
261.6000;0.5389;1.2637;
261.9000;0.5454;1.2933;
262.2000;0.5446;1.2957;
262.5000;0.5446;1.2933;
262.8000;0.5446;1.2908;
263.1000;0.5421;1.2735;
263.4000;0.5454;1.2760;
263.7000;0.5324;1.2513;
264.0000;0.5429;1.2859;
264.3000;0.5446;1.2883;
264.6000;0.5462;1.2982;
264.9000;0.5454;1.3007;
265.2000;0.5446;1.2982;
265.5000;0.5421;1.2957;
265.8000;0.5454;1.3007;
266.1000;0.5576;1.3254;
266.4000;0.5454;1.3007;
266.7000;0.5470;1.3032;
267.0000;0.5413;1.2809;
267.3000;0.5511;1.3032;
267.6000;0.5511;1.3106;
267.9000;0.5438;1.2982;
268.2000;0.5438;1.3056;
268.5000;0.5446;1.2982;
268.8000;0.5454;1.2957;
269.1000;0.5446;1.2883;
269.4000;0.5429;1.2908;
269.7000;0.5438;1.2834;
270.0000;0.5446;1.2834;
270.3000;0.5446;1.2785;
270.6000;0.5454;1.2760;
270.9000;0.5438;1.2711;
271.2000;0.5446;1.2711;
271.5000;0.5462;1.2735;
271.8000;0.5454;1.2686;
272.1000;0.5446;1.2661;
272.4000;0.5462;1.2711;
272.7000;0.5421;1.2760;
273.0000;0.5446;1.2883;
273.3000;0.5446;1.2859;
273.6000;0.5446;1.2908;
273.9000;0.5381;1.2859;
274.2000;0.5503;1.3007;
274.5000;0.5454;1.2809;
274.8000;0.5462;1.2883;
275.1000;0.5438;1.2735;
275.4000;0.5438;1.2711;
275.7000;0.5446;1.2637;
276.0000;0.5470;1.2735;
276.3000;0.5438;1.2735;
276.6000;0.5462;1.2760;
276.9000;0.5438;1.2735;
277.2000;0.5454;1.2809;
277.5000;0.5446;1.2785;
277.8000;0.5470;1.2760;
278.1000;0.5446;1.2661;
278.4000;0.5454;1.2711;
278.7000;0.5446;1.2883;
279.0000;0.5438;1.2957;
279.3000;0.5421;1.2859;
279.6000;0.5429;1.2908;
279.9000;0.5429;1.2982;
280.2000;0.5429;1.2982;
280.5000;0.5429;1.3007;
280.8000;0.5462;1.2982;
281.1000;0.5454;1.2933;
281.4000;0.5446;1.2883;
281.7000;0.5446;1.2859;
282.0000;0.5462;1.2957;
282.3000;0.5462;1.2834;
282.6000;0.5454;1.2809;
282.9000;0.5462;1.2760;
283.2000;0.5470;1.2735;
283.5000;0.5462;1.2859;
283.8000;0.5446;1.2883;
284.1000;0.5462;1.2957;
284.4000;0.5470;1.2883;
284.7000;0.5438;1.2785;
285.0000;0.5478;1.2859;
285.3000;0.5429;1.2735;
285.6000;0.5446;1.2711;
285.9000;0.5454;1.2809;
286.2000;0.5438;1.2760;
286.5000;0.5429;1.2735;
286.8000;0.5462;1.2834;
287.1000;0.5454;1.2859;
287.4000;0.5454;1.2760;
287.7000;0.5478;1.2785;
288.0000;0.5511;1.2908;
288.3000;0.5397;1.2661;
288.6000;0.5429;1.2883;
288.9000;0.5438;1.2982;
289.2000;0.5438;1.2957;
289.5000;0.5454;1.3032;
289.8000;0.5511;1.3180;
290.1000;0.5413;1.2908;
290.4000;0.5446;1.2957;
290.7000;0.5446;1.2834;
291.0000;0.5470;1.2859;
291.3000;0.5446;1.2859;
291.6000;0.5446;1.2809;
291.9000;0.5446;1.2711;
292.2000;0.5438;1.2785;
292.5000;0.5438;1.2735;
292.8000;0.5454;1.2834;
293.1000;0.5454;1.2834;
293.4000;0.5470;1.2883;
293.7000;0.5454;1.2809;
294.0000;0.5495;1.2908;
294.3000;0.5446;1.2785;
294.6000;0.5478;1.2809;
294.9000;0.5446;1.2760;
295.2000;0.5438;1.2637;
295.5000;0.5462;1.2637;
295.8000;0.5429;1.2489;
296.1000;0.5438;1.2390;
296.4000;0.5446;1.2316;
296.7000;0.5413;1.2094;
297.0000;0.5454;1.2242;
297.3000;0.5446;1.2291;
297.6000;0.5454;1.2415;
297.9000;0.5429;1.2390;
298.2000;0.5438;1.2464;
298.5000;0.5446;1.2439;
298.8000;0.5397;1.2415;
299.1000;0.5446;1.2489;
299.4000;0.5446;1.2415;
299.7000;0.5446;1.2464;
300.0000;0.5446;1.2563;
300.3000;0.5429;1.2538;
300.6000;0.5438;1.2538;
300.9000;0.5470;1.2612;
301.2000;0.5446;1.2538;
301.5000;0.5438;1.2538;
301.8000;0.5429;1.2513;
302.1000;0.5495;1.2711;
302.4000;0.5454;1.2711;
302.7000;0.5429;1.2785;
303.0000;0.5446;1.2908;
303.3000;0.5429;1.2908;
303.6000;0.5446;1.2982;
303.9000;0.5486;1.3056;
304.2000;0.5446;1.2982;
304.5000;0.5429;1.2933;
304.8000;0.5454;1.2982;
305.1000;0.5438;1.2957;
305.4000;0.5462;1.3081;
305.7000;0.5438;1.2908;
306.0000;0.5372;1.2661;
306.3000;0.5429;1.2735;
306.6000;0.5470;1.2834;
306.9000;0.5454;1.2834;
307.2000;0.5454;1.2785;
307.5000;0.5454;1.2883;
307.8000;0.5397;1.2859;
308.1000;0.5470;1.2982;
308.4000;0.5446;1.2883;
308.7000;0.5462;1.2859;
309.0000;0.5446;1.2809;
309.3000;0.5438;1.2809;
309.6000;0.5413;1.2686;
309.9000;0.5429;1.2686;
310.2000;0.5438;1.2735;
310.5000;0.5478;1.2785;
310.8000;0.5421;1.2637;
311.1000;0.5438;1.2711;
311.4000;0.5462;1.2834;
311.7000;0.5503;1.2957;
312.0000;0.5454;1.2859;
312.3000;0.5438;1.2735;
312.6000;0.5438;1.2686;
312.9000;0.5462;1.2661;
313.2000;0.5568;1.3007;
313.5000;0.5429;1.2760;
313.8000;0.5364;1.2612;
314.1000;0.5413;1.2809;
314.4000;0.5429;1.2859;
314.7000;0.5446;1.2933;
315.0000;0.5429;1.2908;
315.3000;0.5429;1.2908;
315.6000;0.5551;1.3204;
315.9000;0.5511;1.3130;
316.2000;0.5543;1.3229;
316.5000;0.5438;1.2908;
316.8000;0.5446;1.2859;
317.1000;0.5535;1.2957;
317.4000;0.5397;1.2538;
317.7000;0.5454;1.2760;
318.0000;0.5470;1.2908;
318.3000;0.5454;1.2883;
318.6000;0.5462;1.2982;
318.9000;0.5429;1.2908;
319.2000;0.5446;1.2859;
319.5000;0.5462;1.2809;
319.8000;0.5519;1.2982;
320.1000;0.5429;1.2735;
320.4000;0.5446;1.2785;
320.7000;0.5446;1.2859;
321.0000;0.5454;1.2809;
321.3000;0.5438;1.2933;
321.6000;0.5446;1.2933;
321.9000;0.5511;1.3056;
322.2000;0.5454;1.2883;
322.5000;0.5454;1.2933;
322.8000;0.5454;1.3007;
323.1000;0.5470;1.3007;
323.4000;0.5462;1.2982;
323.7000;0.5454;1.2859;
324.0000;0.5503;1.2908;
324.3000;0.5429;1.2711;
324.6000;0.5429;1.2563;
324.9000;0.5446;1.2563;
325.2000;0.5446;1.2489;
325.5000;0.5454;1.2587;
325.8000;0.5462;1.2587;
326.1000;0.5446;1.2612;
326.4000;0.5446;1.2637;
326.7000;0.5421;1.2711;
327.0000;0.5446;1.2834;
327.3000;0.5438;1.2785;
327.6000;0.5438;1.2637;
327.9000;0.5438;1.2587;
328.2000;0.5446;1.2661;
328.5000;0.5413;1.2587;
328.8000;0.5438;1.2661;
329.1000;0.5438;1.2760;
329.4000;0.5429;1.2735;
329.7000;0.5438;1.2760;
330.0000;0.5478;1.2834;
330.3000;0.5389;1.2612;
330.6000;0.5429;1.2735;
330.9000;0.5446;1.2785;
331.2000;0.5438;1.2809;
331.5000;0.5446;1.2834;
331.8000;0.5421;1.2760;
332.1000;0.5421;1.2760;
332.4000;0.5446;1.2735;
332.7000;0.5446;1.2859;
333.0000;0.5462;1.2809;
333.3000;0.5438;1.2834;
333.6000;0.5446;1.2859;
333.9000;0.5495;1.2957;
334.2000;0.5462;1.2883;
334.5000;0.5413;1.2661;
334.8000;0.5462;1.2711;
335.1000;0.5446;1.2661;
335.4000;0.5438;1.2686;
335.7000;0.5299;1.2291;
336.0000;0.5405;1.2735;
336.3000;0.5511;1.2933;
336.6000;0.5462;1.2735;
336.9000;0.5438;1.2612;
337.2000;0.5429;1.2661;
337.5000;0.5438;1.2735;
337.8000;0.5478;1.2785;
338.1000;0.5495;1.2834;
338.4000;0.5454;1.2735;
338.7000;0.5438;1.2785;
339.0000;0.5478;1.2883;
339.3000;0.5462;1.2834;
339.6000;0.5429;1.2809;
339.9000;0.5446;1.2785;
340.2000;0.5462;1.2859;
340.5000;0.5438;1.2760;
340.8000;0.5454;1.2661;
341.1000;0.5454;1.2686;
341.4000;0.5519;1.2883;
341.7000;0.5446;1.2735;
342.0000;0.5438;1.2760;
342.3000;0.5438;1.2661;
342.6000;0.5421;1.2538;
342.9000;0.5470;1.2661;
343.2000;0.5429;1.2686;
343.5000;0.5438;1.2809;
343.8000;0.5454;1.2735;
344.1000;0.5438;1.2760;
344.4000;0.5429;1.2785;
344.7000;0.5438;1.2760;
345.0000;0.5462;1.2785;
345.3000;0.5454;1.2785;
345.6000;0.5438;1.2735;
345.9000;0.5462;1.2760;
346.2000;0.5454;1.2785;
346.5000;0.5446;1.2785;
346.8000;0.5454;1.2859;
347.1000;0.5421;1.2834;
347.4000;0.5421;1.2809;
347.7000;0.5429;1.2883;
348.0000;0.5421;1.2859;
348.3000;0.5413;1.2883;
348.6000;0.5413;1.2883;
348.9000;0.5429;1.2883;
349.2000;0.5446;1.2933;
349.5000;0.5446;1.2933;
349.8000;0.5454;1.2859;
350.1000;0.5446;1.2859;
350.4000;0.5429;1.2834;
350.7000;0.5462;1.2859;
351.0000;0.5446;1.2809;
351.3000;0.5446;1.2785;
351.6000;0.5454;1.2760;
351.9000;0.5429;1.2785;
352.2000;0.5446;1.2834;
352.5000;0.5446;1.2859;
352.8000;0.5454;1.2859;
353.1000;0.5438;1.2834;
353.4000;0.5543;1.3130;
353.7000;0.5454;1.2834;
354.0000;0.5462;1.2859;
354.3000;0.5495;1.2908;
354.6000;0.5462;1.2809;
354.9000;0.5511;1.2933;
355.2000;0.5446;1.2809;
355.5000;0.5511;1.3007;
355.8000;0.5446;1.2785;
356.1000;0.5462;1.2809;
356.4000;0.5462;1.2735;
356.7000;0.5397;1.2587;
357.0000;0.5446;1.2661;
357.3000;0.5429;1.2686;
357.6000;0.5438;1.2735;
357.9000;0.5446;1.2785;
358.2000;0.5446;1.2785;
358.5000;0.5429;1.2760;
358.8000;0.5429;1.2735;
359.1000;0.5486;1.2883;
359.4000;0.5438;1.2785;
359.7000;0.5511;1.2957;
360.0000;0.5438;1.2735;
360.3000;0.5470;1.2785;
360.6000;0.5462;1.2661;
360.9000;0.5462;1.2735;
361.2000;0.5543;1.3007;
361.5000;0.5446;1.2760;
361.8000;0.5438;1.2760;
362.1000;0.5429;1.2785;
362.4000;0.5446;1.2735;
362.7000;0.5446;1.2760;
363.0000;0.5356;1.2587;
363.3000;0.5429;1.2760;
363.6000;0.5462;1.2834;
363.9000;0.5446;1.2809;
364.2000;0.5438;1.2711;
364.5000;0.5429;1.2661;
364.8000;0.5429;1.2612;
365.1000;0.5438;1.2711;
365.4000;0.5429;1.2834;
365.7000;0.5478;1.2908;
366.0000;0.5446;1.2859;
366.3000;0.5454;1.2809;
366.6000;0.5438;1.2760;
366.9000;0.5446;1.2834;
367.2000;0.5421;1.2859;
367.5000;0.5429;1.2834;
367.8000;0.5438;1.2859;
368.1000;0.5429;1.2760;
368.4000;0.5446;1.2785;
368.7000;0.5454;1.2735;
369.0000;0.5421;1.2735;
369.3000;0.5429;1.2686;
369.6000;0.5421;1.2661;
369.9000;0.5446;1.2686;
370.2000;0.5470;1.2686;
370.5000;0.5454;1.2612;
370.8000;0.5438;1.2489;
371.1000;0.5454;1.2587;
371.4000;0.5446;1.2661;
371.7000;0.5454;1.2661;
372.0000;0.5454;1.2686;
372.3000;0.5446;1.2661;
372.6000;0.5446;1.2735;
372.9000;0.5454;1.2883;
373.2000;0.5551;1.3180;
373.5000;0.5462;1.3007;
373.8000;0.5470;1.2933;
374.1000;0.5446;1.2785;
374.4000;0.5421;1.2809;
374.7000;0.5429;1.2760;
375.0000;0.5421;1.2785;
375.3000;0.5495;1.2982;
375.6000;0.5454;1.2834;
375.9000;0.5495;1.3007;
376.2000;0.5446;1.2908;
376.5000;0.5454;1.2834;
376.8000;0.5486;1.2908;
377.1000;0.5438;1.2883;
377.4000;0.5405;1.2809;
377.7000;0.5454;1.2982;
378.0000;0.5454;1.3032;
378.3000;0.5446;1.3081;
378.6000;0.5462;1.3056;
378.9000;0.5454;1.2908;
379.2000;0.5495;1.3007;
379.5000;0.5421;1.2834;
379.8000;0.5438;1.2809;
380.1000;0.5462;1.2834;
380.4000;0.5413;1.2661;
380.7000;0.5405;1.2661;
381.0000;0.5446;1.2785;
381.3000;0.5446;1.2809;
381.6000;0.5438;1.2760;
381.9000;0.5421;1.2760;
382.2000;0.5397;1.2785;
382.5000;0.5438;1.2834;
382.8000;0.5438;1.2809;
383.1000;0.5454;1.2760;
383.4000;0.5446;1.2785;
383.7000;0.5454;1.2908;
384.0000;0.5438;1.2834;
384.3000;0.5429;1.2785;
384.6000;0.5413;1.2809;
384.9000;0.5429;1.2785;
385.2000;0.5438;1.2711;
385.5000;0.5438;1.2760;
385.8000;0.5438;1.2711;
386.1000;0.5446;1.2760;
386.4000;0.5429;1.2735;
386.7000;0.5446;1.2785;
387.0000;0.5454;1.2883;
387.3000;0.5438;1.2785;
387.6000;0.5446;1.2809;
387.9000;0.5446;1.2711;
388.2000;0.5446;1.2686;
388.5000;0.5340;1.2340;
388.8000;0.5429;1.2637;
389.1000;0.5438;1.2612;
389.4000;0.5454;1.2637;
389.7000;0.5462;1.2661;
390.0000;0.5478;1.2735;
390.3000;0.5470;1.2711;
390.6000;0.5454;1.2661;
390.9000;0.5454;1.2735;
391.2000;0.5470;1.2760;
391.5000;0.5446;1.2686;
391.8000;0.5429;1.2686;
392.1000;0.5429;1.2760;
392.4000;0.5454;1.2809;
392.7000;0.5446;1.2711;
393.0000;0.5429;1.2661;
393.3000;0.5462;1.2686;
393.6000;0.5462;1.2809;
393.9000;0.5446;1.2809;
394.2000;0.5462;1.2834;
394.5000;0.5454;1.2834;
394.8000;0.5438;1.2785;
395.1000;0.5438;1.2834;
395.4000;0.5438;1.2859;
395.7000;0.5405;1.2612;
396.0000;0.5389;1.2637;
396.3000;0.5429;1.2711;
396.6000;0.5446;1.2711;
396.9000;0.5405;1.2661;
397.2000;0.5421;1.2760;
397.5000;0.5446;1.2809;
397.8000;0.5421;1.2883;
398.1000;0.5421;1.2834;
398.4000;0.5462;1.2957;
398.7000;0.5446;1.3007;
399.0000;0.5462;1.3032;
399.3000;0.5413;1.2883;
399.6000;0.5454;1.3007;
399.9000;0.5438;1.2908;
400.2000;0.5413;1.2883;
400.5000;0.5478;1.3130;
400.8000;0.5429;1.2957;
401.1000;0.5429;1.2933;
401.4000;0.5381;1.2711;
401.7000;0.5438;1.2809;
402.0000;0.5438;1.2760;
402.3000;0.5438;1.2834;
402.6000;0.5429;1.2735;
402.9000;0.5405;1.2563;
403.2000;0.5389;1.2513;
403.5000;0.5348;1.2464;
403.8000;0.5429;1.2612;
404.1000;0.5429;1.2587;
404.4000;0.5446;1.2661;
404.7000;0.5446;1.2735;
405.0000;0.5429;1.2686;
405.3000;0.5454;1.2735;
405.6000;0.5438;1.2637;
405.9000;0.5438;1.2587;
406.2000;0.5446;1.2637;
406.5000;0.5438;1.2513;
406.8000;0.5462;1.2563;
407.1000;0.5364;1.2340;
407.4000;0.5429;1.2538;
407.7000;0.5454;1.2563;
408.0000;0.5454;1.2563;
408.3000;0.5438;1.2538;
408.6000;0.5446;1.2563;
408.9000;0.5429;1.2538;
409.2000;0.5356;1.2415;
409.5000;0.5446;1.2661;
409.8000;0.5438;1.2661;
410.1000;0.5397;1.2513;
410.4000;0.5462;1.2587;
410.7000;0.5446;1.2563;
411.0000;0.5486;1.2637;
411.3000;0.5446;1.2587;
411.6000;0.5511;1.2834;
411.9000;0.5454;1.2809;
412.2000;0.5454;1.2686;
412.5000;0.5462;1.2612;
412.8000;0.5454;1.2637;
413.1000;0.5454;1.2637;
413.4000;0.5495;1.2809;
413.7000;0.5446;1.2661;
414.0000;0.5381;1.2489;
414.3000;0.5454;1.2735;
414.6000;0.5486;1.2859;
414.9000;0.5446;1.2760;
415.2000;0.5454;1.2760;
415.5000;0.5454;1.2809;
415.8000;0.5462;1.2785;
416.1000;0.5446;1.2834;
416.4000;0.5462;1.2982;
416.7000;0.5446;1.2933;
417.0000;0.5446;1.2908;
417.3000;0.5429;1.2834;
417.6000;0.5446;1.2859;
417.9000;0.5381;1.2686;
418.2000;0.5438;1.2834;
418.5000;0.5454;1.2859;
418.8000;0.5454;1.2785;
419.1000;0.5454;1.2883;
419.4000;0.5438;1.2908;
419.7000;0.5446;1.2809;
420.0000;0.5438;1.2735;
420.3000;0.5438;1.2809;
420.6000;0.5413;1.2760;
420.9000;0.5462;1.2883;
421.2000;0.5446;1.2809;
421.5000;0.5446;1.2760;
421.8000;0.5462;1.2834;
422.1000;0.5462;1.2735;
422.4000;0.5462;1.2735;
422.7000;0.5446;1.2686;
423.0000;0.5446;1.2735;
423.3000;0.5462;1.2735;
423.6000;0.5438;1.2661;
423.9000;0.5446;1.2637;
424.2000;0.5446;1.2637;
424.5000;0.5438;1.2735;
424.8000;0.5446;1.2661;
425.1000;0.5438;1.2760;
425.4000;0.5429;1.2637;
425.7000;0.5397;1.2637;
426.0000;0.5421;1.2711;
426.3000;0.5438;1.2785;
426.6000;0.5421;1.2809;
426.9000;0.5438;1.2834;
427.2000;0.5429;1.2785;
427.5000;0.5462;1.2809;
427.8000;0.5438;1.2760;
428.1000;0.5421;1.2711;
428.4000;0.5405;1.2661;
428.7000;0.5462;1.2859;
429.0000;0.5429;1.2760;
429.3000;0.5446;1.2859;
429.6000;0.5381;1.2686;
429.9000;0.5454;1.2834;
430.2000;0.5503;1.2883;
430.5000;0.5421;1.2735;
430.8000;0.5486;1.2834;
431.1000;0.5438;1.2735;
431.4000;0.5438;1.2686;
431.7000;0.5421;1.2661;
432.0000;0.5454;1.2760;
432.3000;0.5421;1.2686;
432.6000;0.5446;1.2711;
432.9000;0.5429;1.2809;
433.2000;0.5470;1.2908;
433.5000;0.5438;1.2760;
433.8000;0.5470;1.2760;
434.1000;0.5429;1.2711;
434.4000;0.5470;1.2834;
434.7000;0.5462;1.2735;
435.0000;0.5470;1.2883;
435.3000;0.5446;1.2834;
435.6000;0.5486;1.2957;
435.9000;0.5462;1.2859;
436.2000;0.5438;1.2785;
436.5000;0.5438;1.2760;
436.8000;0.5405;1.2612;
437.1000;0.5405;1.2538;
437.4000;0.5413;1.2587;
437.7000;0.5429;1.2661;
438.0000;0.5421;1.2563;
438.3000;0.5438;1.2563;
438.6000;0.5429;1.2464;
438.9000;0.5446;1.2612;
439.2000;0.5454;1.2612;
439.5000;0.5438;1.2563;
439.8000;0.5454;1.2612;
440.1000;0.5446;1.2686;
440.4000;0.5429;1.2661;
440.7000;0.5446;1.2711;
441.0000;0.5413;1.2513;
441.3000;0.5454;1.2563;
441.6000;0.5438;1.2538;
441.9000;0.5429;1.2661;
442.2000;0.5446;1.2637;
442.5000;0.5429;1.2637;
442.8000;0.5454;1.2735;
443.1000;0.5429;1.2859;
443.4000;0.5429;1.2957;
443.7000;0.5438;1.2859;
444.0000;0.5372;1.2686;
444.3000;0.5446;1.2908;
444.6000;0.5462;1.2908;
444.9000;0.5454;1.2908;
445.2000;0.5454;1.2933;
445.5000;0.5438;1.2859;
445.8000;0.5429;1.2834;
446.1000;0.5495;1.2933;
446.4000;0.5470;1.2908;
446.7000;0.5454;1.2834;
447.0000;0.5397;1.2661;
447.3000;0.5429;1.2661;
447.6000;0.5438;1.2612;
447.9000;0.5478;1.2735;
448.2000;0.5446;1.2686;
448.5000;0.5413;1.2563;
448.8000;0.5454;1.2637;
449.1000;0.5454;1.2686;
449.4000;0.5495;1.2760;
449.7000;0.5429;1.2637;
450.0000;0.5413;1.2637;
450.3000;0.5454;1.2760;
450.6000;0.5429;1.2760;
450.9000;0.5429;1.2760;
451.2000;0.5438;1.2785;
451.5000;0.5372;1.2587;
451.8000;0.5421;1.2760;
452.1000;0.5470;1.2883;
452.4000;0.5429;1.2785;
452.7000;0.5438;1.2735;
453.0000;0.5429;1.2760;
453.3000;0.5429;1.2686;
453.6000;0.5446;1.2735;
453.9000;0.5429;1.2587;
454.2000;0.5438;1.2711;
454.5000;0.5454;1.2686;
454.8000;0.5486;1.2785;
455.1000;0.5438;1.2711;
455.4000;0.5446;1.2711;
455.7000;0.5421;1.2809;
456.0000;0.5462;1.2908;
456.3000;0.5454;1.2883;
456.6000;0.5446;1.2908;
456.9000;0.5454;1.2908;
457.2000;0.5438;1.2883;
457.5000;0.5446;1.2908;
457.8000;0.5429;1.2859;
458.1000;0.5438;1.2809;
458.4000;0.5446;1.2760;
458.7000;0.5429;1.2661;
459.0000;0.5438;1.2711;
459.3000;0.5429;1.2686;
459.6000;0.5429;1.2686;
459.9000;0.5429;1.2686;
460.2000;0.5421;1.2612;
460.5000;0.5421;1.2563;
460.8000;0.5429;1.2612;
461.1000;0.5429;1.2637;
461.4000;0.5438;1.2637;
461.7000;0.5446;1.2661;
462.0000;0.5446;1.2686;
462.3000;0.5438;1.2785;
462.6000;0.5446;1.2883;
462.9000;0.5438;1.2735;
463.2000;0.5389;1.2686;
463.5000;0.5429;1.2859;
463.8000;0.5429;1.2785;
464.1000;0.5405;1.2686;
464.4000;0.5429;1.2760;
464.7000;0.5454;1.2859;
465.0000;0.5372;1.2711;
465.3000;0.5421;1.2785;
465.6000;0.5438;1.2760;
465.9000;0.5429;1.2637;
466.2000;0.5454;1.2563;
466.5000;0.5446;1.2489;
466.8000;0.5438;1.2464;
467.1000;0.5454;1.2538;
467.4000;0.5446;1.2563;
467.7000;0.5421;1.2538;
468.0000;0.5462;1.2686;
468.3000;0.5421;1.2563;
468.6000;0.5438;1.2661;
468.9000;0.5389;1.2563;
469.2000;0.5446;1.2661;
469.5000;0.5405;1.2563;
469.8000;0.5438;1.2637;
470.1000;0.5454;1.2612;
470.4000;0.5413;1.2563;
470.7000;0.5462;1.2587;
471.0000;0.5421;1.2513;
471.3000;0.5381;1.2439;
471.6000;0.5429;1.2563;
471.9000;0.5438;1.2563;
472.2000;0.5429;1.2513;
472.5000;0.5486;1.2637;
472.8000;0.5446;1.2513;
473.1000;0.5429;1.2464;
473.4000;0.5364;1.2217;
473.7000;0.5405;1.2291;
474.0000;0.5438;1.2365;
474.3000;0.5454;1.2415;
474.6000;0.5397;1.2415;
474.9000;0.5429;1.2489;
475.2000;0.5429;1.2489;
475.5000;0.5478;1.2612;
475.8000;0.5429;1.2563;
476.1000;0.5372;1.2439;
476.4000;0.5438;1.2587;
476.7000;0.5462;1.2637;
477.0000;0.5446;1.2563;
477.3000;0.5438;1.2686;
477.6000;0.5454;1.2809;
477.9000;0.5438;1.2809;
478.2000;0.5438;1.2760;
478.5000;0.5429;1.2785;
478.8000;0.5446;1.2760;
479.1000;0.5454;1.2834;
479.4000;0.5438;1.2785;
479.7000;0.5372;1.2612;
480.0000;0.5429;1.2785;
480.3000;0.5470;1.2908;
480.6000;0.5429;1.2809;
480.9000;0.5429;1.2760;
481.2000;0.5446;1.2711;
481.5000;0.5438;1.2612;
481.8000;0.5446;1.2661;
482.1000;0.5446;1.2563;
482.4000;0.5446;1.2538;
482.7000;0.5446;1.2538;
483.0000;0.5454;1.2563;
483.3000;0.5446;1.2637;
483.6000;0.5446;1.2735;
483.9000;0.5429;1.2587;
484.2000;0.5446;1.2513;
484.5000;0.5454;1.2612;
484.8000;0.5429;1.2637;
485.1000;0.5486;1.2809;
485.4000;0.5462;1.2809;
485.7000;0.5438;1.2686;
486.0000;0.5421;1.2661;
486.3000;0.5438;1.2711;
486.6000;0.5413;1.2661;
486.9000;0.5429;1.2735;
487.2000;0.5405;1.2735;
487.5000;0.5421;1.2735;
487.8000;0.5421;1.2760;
488.1000;0.5389;1.2686;
488.4000;0.5438;1.2834;
488.7000;0.5429;1.2883;
489.0000;0.5429;1.2859;
489.3000;0.5454;1.2859;
489.6000;0.5446;1.2809;
489.9000;0.5429;1.2637;
490.2000;0.5413;1.2563;
490.5000;0.5446;1.2686;
490.8000;0.5454;1.2711;
491.1000;0.5495;1.2834;
491.4000;0.5446;1.2760;
491.7000;0.5446;1.2711;
492.0000;0.5454;1.2686;
492.3000;0.5446;1.2711;
492.6000;0.5429;1.2834;
492.9000;0.5446;1.2859;
493.2000;0.5446;1.2957;
493.5000;0.5421;1.2957;
493.8000;0.5454;1.2908;
494.1000;0.5462;1.2809;
494.4000;0.5438;1.2637;
494.7000;0.5446;1.2686;
495.0000;0.5446;1.2612;
495.3000;0.5389;1.2513;
495.6000;0.5421;1.2563;
495.9000;0.5438;1.2612;
496.2000;0.5446;1.2563;
496.5000;0.5364;1.2316;
496.8000;0.5438;1.2439;
497.1000;0.5446;1.2464;
497.4000;0.5478;1.2587;
497.7000;0.5421;1.2415;
498.0000;0.5429;1.2365;
498.3000;0.5511;1.2513;
498.6000;0.5389;1.2217;
498.9000;0.5397;1.2266;
499.2000;0.5446;1.2365;
499.5000;0.5429;1.2415;
499.8000;0.5438;1.2340;
500.1000;0.5462;1.2439;
500.4000;0.5438;1.2538;
500.7000;0.5421;1.2538;
501.0000;0.5429;1.2538;
501.3000;0.5454;1.2637;
501.6000;0.5429;1.2563;
501.9000;0.5438;1.2513;
502.2000;0.5478;1.2563;
502.5000;0.5438;1.2538;
502.8000;0.5438;1.2563;
503.1000;0.5364;1.2513;
503.4000;0.5429;1.2686;
503.7000;0.5413;1.2711;
504.0000;0.5405;1.2735;
504.3000;0.5421;1.2760;
504.6000;0.5551;1.3007;
504.9000;0.5429;1.2563;
505.2000;0.5454;1.2637;
505.5000;0.5462;1.2612;
505.8000;0.5421;1.2587;
506.1000;0.5429;1.2563;
506.4000;0.5446;1.2587;
506.7000;0.5429;1.2513;
507.0000;0.5438;1.2563;
507.3000;0.5438;1.2513;
507.6000;0.5446;1.2587;
507.9000;0.5446;1.2661;
508.2000;0.5438;1.2661;
508.5000;0.5438;1.2661;
508.8000;0.5438;1.2612;
509.1000;0.5446;1.2563;
509.4000;0.5446;1.2513;
509.7000;0.5438;1.2587;
510.0000;0.5438;1.2587;
510.3000;0.5454;1.2711;
510.6000;0.5454;1.2686;
510.9000;0.5413;1.2513;
511.2000;0.5462;1.2612;
511.5000;0.5446;1.2513;
511.8000;0.5462;1.2513;
512.1000;0.5454;1.2464;
512.4000;0.5446;1.2538;
512.7000;0.5446;1.2587;
513.0000;0.5438;1.2587;
513.3000;0.5438;1.2513;
513.6000;0.5438;1.2538;
513.9000;0.5438;1.2612;
514.2000;0.5429;1.2538;
514.5000;0.5429;1.2612;
514.8000;0.5429;1.2612;
515.1000;0.5413;1.2489;
515.4000;0.5421;1.2464;
515.7000;0.5438;1.2612;
516.0000;0.5429;1.2563;
516.3000;0.5421;1.2612;
516.6000;0.5446;1.2637;
516.9000;0.5454;1.2661;
517.2000;0.5397;1.2513;
517.5000;0.5429;1.2538;
517.8000;0.5438;1.2538;
518.1000;0.5421;1.2563;
518.4000;0.5421;1.2587;
518.7000;0.5429;1.2612;
519.0000;0.5429;1.2563;
519.3000;0.5486;1.2637;
519.6000;0.5413;1.2538;
519.9000;0.5429;1.2661;
520.2000;0.5535;1.3007;
520.5000;0.5478;1.2834;
520.8000;0.5438;1.2711;
521.1000;0.5454;1.2809;
521.4000;0.5421;1.2686;
521.7000;0.5381;1.2538;
522.0000;0.5429;1.2587;
522.3000;0.5421;1.2489;
522.6000;0.5413;1.2513;
522.9000;0.5429;1.2587;
523.2000;0.5405;1.2489;
523.5000;0.5429;1.2587;
523.8000;0.5413;1.2513;
524.1000;0.5421;1.2587;
524.4000;0.5421;1.2612;
524.7000;0.5421;1.2612;
525.0000;0.5429;1.2538;
525.3000;0.5421;1.2563;
525.6000;0.5405;1.2489;
525.9000;0.5438;1.2538;
526.2000;0.5381;1.2365;
526.5000;0.5429;1.2415;
526.8000;0.5348;1.2242;
527.1000;0.5438;1.2464;
527.4000;0.5438;1.2415;
527.7000;0.5421;1.2415;
528.0000;0.5446;1.2513;
528.3000;0.5438;1.2489;
528.6000;0.5413;1.2415;
528.9000;0.5486;1.2612;
529.2000;0.5438;1.2538;
529.5000;0.5438;1.2587;
529.8000;0.5462;1.2637;
530.1000;0.5421;1.2563;
530.4000;0.5438;1.2587;
530.7000;0.5429;1.2686;
531.0000;0.5462;1.2809;
531.3000;0.5429;1.2686;
531.6000;0.5421;1.2612;
531.9000;0.5429;1.2538;
532.2000;0.5372;1.2415;
532.5000;0.5429;1.2587;
532.8000;0.5421;1.2587;
533.1000;0.5421;1.2661;
533.4000;0.5429;1.2686;
533.7000;0.5454;1.2711;
534.0000;0.5421;1.2661;
534.3000;0.5429;1.2661;
534.6000;0.5429;1.2735;
534.9000;0.5421;1.2686;
535.2000;0.5438;1.2760;
535.5000;0.5438;1.2735;
535.8000;0.5421;1.2563;
536.1000;0.5446;1.2587;
536.4000;0.5446;1.2563;
536.7000;0.5413;1.2513;
537.0000;0.5429;1.2513;
537.3000;0.5454;1.2587;
537.6000;0.5462;1.2661;
537.9000;0.5438;1.2538;
538.2000;0.5438;1.2513;
538.5000;0.5438;1.2390;
538.8000;0.5438;1.2390;
539.1000;0.5486;1.2513;
539.4000;0.5438;1.2415;
539.7000;0.5372;1.2266;
540.0000;0.5429;1.2513;
540.3000;0.5429;1.2513;
540.6000;0.5438;1.2587;
540.9000;0.5364;1.2439;
541.2000;0.5429;1.2538;
541.5000;0.5429;1.2587;
541.8000;0.5429;1.2637;
542.1000;0.5413;1.2637;
542.4000;0.5413;1.2711;
542.7000;0.5446;1.2735;
543.0000;0.5405;1.2686;
543.3000;0.5413;1.2735;
543.6000;0.5438;1.2785;
543.9000;0.5413;1.2637;
544.2000;0.5438;1.2711;
544.5000;0.5405;1.2612;
544.8000;0.5429;1.2661;
545.1000;0.5470;1.2809;
545.4000;0.5429;1.2711;
545.7000;0.5413;1.2612;
546.0000;0.5438;1.2686;
546.3000;0.5324;1.2316;
546.6000;0.5462;1.2612;
546.9000;0.5454;1.2587;
547.2000;0.5421;1.2587;
547.5000;0.5438;1.2637;
547.8000;0.5397;1.2489;
548.1000;0.5429;1.2637;
548.4000;0.5429;1.2612;
548.7000;0.5413;1.2489;
549.0000;0.5413;1.2587;
549.3000;0.5397;1.2612;
549.6000;0.5478;1.2785;
549.9000;0.5421;1.2587;
550.2000;0.5470;1.2711;
550.5000;0.5438;1.2711;
550.8000;0.5543;1.2933;
551.1000;0.5429;1.2661;
551.4000;0.5429;1.2587;
551.7000;0.5438;1.2637;
552.0000;0.5543;1.2859;
552.3000;0.5438;1.2587;
552.6000;0.5429;1.2587;
552.9000;0.5405;1.2563;
553.2000;0.5429;1.2587;
553.5000;0.5421;1.2513;
553.8000;0.5446;1.2563;
554.1000;0.5429;1.2563;
554.4000;0.5405;1.2538;
554.7000;0.5429;1.2587;
555.0000;0.5438;1.2686;
555.3000;0.5429;1.2711;
555.6000;0.5429;1.2735;
555.9000;0.5429;1.2760;
556.2000;0.5438;1.2735;
556.5000;0.5438;1.2785;
556.8000;0.5446;1.2760;
557.1000;0.5438;1.2686;
557.4000;0.5446;1.2563;
557.7000;0.5421;1.2513;
558.0000;0.5397;1.2563;
558.3000;0.5446;1.2587;
558.6000;0.5446;1.2538;
558.9000;0.5421;1.2415;
559.2000;0.5454;1.2439;
559.5000;0.5429;1.2464;
559.8000;0.5495;1.2711;
560.1000;0.5429;1.2587;
560.4000;0.5421;1.2513;
560.7000;0.5389;1.2439;
561.0000;0.5421;1.2563;
561.3000;0.5438;1.2661;
561.6000;0.5446;1.2661;
561.9000;0.5438;1.2637;
562.2000;0.5438;1.2735;
562.5000;0.5438;1.2686;
562.8000;0.5454;1.2686;
563.1000;0.5446;1.2637;
563.4000;0.5446;1.2661;
563.7000;0.5438;1.2711;
564.0000;0.5429;1.2637;
564.3000;0.5438;1.2637;
564.6000;0.5429;1.2686;
564.9000;0.5429;1.2686;
565.2000;0.5421;1.2686;
565.5000;0.5381;1.2612;
565.8000;0.5421;1.2735;
566.1000;0.5429;1.2661;
566.4000;0.5389;1.2563;
566.7000;0.5429;1.2661;
567.0000;0.5446;1.2785;
567.3000;0.5511;1.2982;
567.6000;0.5438;1.2834;
567.9000;0.5421;1.2809;
568.2000;0.5429;1.2933;
568.5000;0.5429;1.2859;
568.8000;0.5364;1.2735;
569.1000;0.5438;1.2809;
569.4000;0.5421;1.2809;
569.7000;0.5389;1.2735;
570.0000;0.5429;1.2785;
570.3000;0.5429;1.2760;
570.6000;0.5389;1.2661;
570.9000;0.5421;1.2785;
571.2000;0.5429;1.2735;
571.5000;0.5413;1.2711;
571.8000;0.5446;1.2785;
572.1000;0.5413;1.2735;
572.4000;0.5438;1.2760;
572.7000;0.5454;1.2908;
573.0000;0.5421;1.2859;
573.3000;0.5421;1.2834;
573.6000;0.5421;1.2834;
573.9000;0.5446;1.2908;
574.2000;0.5478;1.2859;
574.5000;0.5438;1.2711;
574.8000;0.5438;1.2735;
575.1000;0.5454;1.2735;
575.4000;0.5413;1.2735;
575.7000;0.5438;1.2661;
576.0000;0.5421;1.2538;
576.3000;0.5446;1.2464;
576.6000;0.5397;1.2365;
576.9000;0.5446;1.2365;
577.2000;0.5438;1.2390;
577.5000;0.5421;1.2390;
577.8000;0.5413;1.2365;
578.1000;0.5446;1.2415;
578.4000;0.5454;1.2439;
578.7000;0.5438;1.2390;
579.0000;0.5421;1.2390;
579.3000;0.5429;1.2439;
579.6000;0.5421;1.2489;
579.9000;0.5389;1.2513;
580.2000;0.5438;1.2587;
580.5000;0.5421;1.2563;
580.8000;0.5413;1.2464;
581.1000;0.5438;1.2513;
581.4000;0.5421;1.2513;
581.7000;0.5429;1.2513;
582.0000;0.5446;1.2563;
582.3000;0.5438;1.2538;
582.6000;0.5438;1.2513;
582.9000;0.5438;1.2612;
583.2000;0.5429;1.2612;
583.5000;0.5429;1.2538;
583.8000;0.5446;1.2563;
584.1000;0.5429;1.2538;
584.4000;0.5421;1.2538;
584.7000;0.5429;1.2489;
585.0000;0.5421;1.2489;
585.3000;0.5438;1.2513;
585.6000;0.5438;1.2513;
585.9000;0.5446;1.2538;
586.2000;0.5413;1.2439;
586.5000;0.5446;1.2513;
586.8000;0.5438;1.2464;
587.1000;0.5413;1.2415;
587.4000;0.5413;1.2340;
587.7000;0.5405;1.2266;
588.0000;0.5462;1.2439;
588.3000;0.5421;1.2390;
588.6000;0.5364;1.2266;
588.9000;0.5438;1.2538;
589.2000;0.5405;1.2538;
589.5000;0.5381;1.2538;
589.8000;0.5429;1.2760;
590.1000;0.5429;1.2637;
590.4000;0.5364;1.2464;
590.7000;0.5421;1.2637;
591.0000;0.5429;1.2735;
591.3000;0.5332;1.2587;
591.6000;0.5462;1.2785;
591.9000;0.5446;1.2711;
592.2000;0.5413;1.2563;
592.5000;0.5413;1.2513;
592.8000;0.5438;1.2612;
593.1000;0.5381;1.2340;
593.4000;0.5429;1.2464;
593.7000;0.5413;1.2390;
594.0000;0.5438;1.2415;
594.3000;0.5429;1.2365;
594.6000;0.5389;1.2340;
594.9000;0.5446;1.2439;
595.2000;0.5405;1.2266;
595.5000;0.5421;1.2365;
595.8000;0.5446;1.2439;
596.1000;0.5535;1.2785;
596.4000;0.5429;1.2489;
596.7000;0.5429;1.2563;
597.0000;0.5438;1.2612;
597.3000;0.5438;1.2686;
597.6000;0.5364;1.2538;
597.9000;0.5429;1.2711;
598.2000;0.5446;1.2637;
598.5000;0.5421;1.2661;
598.8000;0.5429;1.2637;
599.1000;0.5421;1.2563;
599.4000;0.5438;1.2637;
599.7000;0.5446;1.2711;
600.0000;0.5429;1.2735;
600.3000;0.5446;1.2637;
600.6000;0.5438;1.2538;
600.9000;0.5405;1.2390;
601.2000;0.5389;1.2242;
601.5000;0.5356;1.2143;
601.8000;0.5324;1.1995;
602.1000;0.5283;1.1748;
602.4000;0.5348;1.1822;
602.7000;0.5193;1.1403;
603.0000;0.5185;1.1329;
603.3000;0.5144;1.1205;
603.6000;0.5136;1.1057;
603.9000;0.5088;1.0934;
604.2000;0.5055;1.0835;
604.5000;0.5039;1.0810;
604.8000;0.4990;1.0835;
605.1000;0.4949;1.0712;
605.4000;0.4982;1.0761;
605.7000;0.4949;1.0637;
606.0000;0.4925;1.0539;
606.3000;0.4917;1.0440;
606.6000;0.4900;1.0465;
606.9000;0.4876;1.0366;
607.2000;0.4851;1.0341;
607.5000;0.4835;1.0341;
607.8000;0.4819;1.0292;
608.1000;0.4811;1.0193;
608.4000;0.4794;1.0169;
608.7000;0.4770;1.0169;
609.0000;0.4705;0.9996;
609.3000;0.4737;1.0119;
609.6000;0.4721;1.0193;
609.9000;0.4721;1.0144;
610.2000;0.4689;1.0045;
610.5000;0.4681;0.9996;
610.8000;0.4672;1.0020;
611.1000;0.4664;1.0094;
611.4000;0.4648;1.0094;
611.7000;0.4624;1.0169;
612.0000;0.4534;0.9897;
612.3000;0.4632;1.0218;
612.6000;0.4624;1.0070;
612.9000;0.4615;1.0020;
613.2000;0.4575;0.9823;
613.5000;0.4575;0.9774;
613.8000;0.4575;0.9774;
614.1000;0.4575;0.9823;
614.4000;0.4534;0.9774;
614.7000;0.4526;0.9700;
615.0000;0.4526;0.9848;
615.3000;0.4518;0.9823;
615.6000;0.4501;0.9774;
615.9000;0.4485;0.9749;
616.2000;0.4436;0.9601;
616.5000;0.4501;0.9774;
616.8000;0.4469;0.9774;
617.1000;0.4469;0.9724;
617.4000;0.4453;0.9798;
617.7000;0.4501;0.9971;
618.0000;0.4444;0.9798;
618.3000;0.4428;0.9700;
618.6000;0.4453;0.9798;
618.9000;0.4420;0.9724;
619.2000;0.4518;1.0020;
619.5000;0.4412;0.9749;
619.8000;0.4396;0.9774;
620.1000;0.4379;0.9749;
620.4000;0.4379;0.9650;
620.7000;0.4371;0.9626;
621.0000;0.4387;0.9700;
621.3000;0.4363;0.9626;
621.6000;0.4306;0.9601;
621.9000;0.4347;0.9675;
622.2000;0.4347;0.9700;
622.5000;0.4330;0.9626;
622.8000;0.4322;0.9650;
623.1000;0.4314;0.9675;
623.4000;0.4322;0.9749;
623.7000;0.4249;0.9552;
624.0000;0.4306;0.9774;
624.3000;0.4322;0.9774;
624.6000;0.4306;0.9749;
624.9000;0.4339;0.9798;
625.2000;0.4282;0.9700;
625.5000;0.4265;0.9675;
625.8000;0.4257;0.9626;
626.1000;0.4274;0.9601;
626.4000;0.4274;0.9601;
626.7000;0.4241;0.9601;
627.0000;0.4249;0.9576;
627.3000;0.4274;0.9601;
627.6000;0.4192;0.9354;
627.9000;0.4233;0.9502;
628.2000;0.4233;0.9601;
628.5000;0.4241;0.9650;
628.8000;0.4249;0.9749;
629.1000;0.4217;0.9774;
629.4000;0.4217;0.9872;
629.7000;0.4233;0.9946;
630.0000;0.4225;0.9922;
630.3000;0.4208;0.9749;
630.6000;0.4217;0.9601;
630.9000;0.4208;0.9601;
631.2000;0.4200;0.9552;
631.5000;0.4192;0.9502;
631.8000;0.4184;0.9477;
632.1000;0.4127;0.9305;
632.4000;0.4168;0.9477;
632.7000;0.4184;0.9527;
633.0000;0.4151;0.9453;
633.3000;0.4151;0.9601;
633.6000;0.4151;0.9626;
633.9000;0.4168;0.9576;
634.2000;0.4192;0.9650;
634.5000;0.4151;0.9552;
634.8000;0.4143;0.9552;
635.1000;0.4241;0.9823;
635.4000;0.4151;0.9650;
635.7000;0.4143;0.9626;
636.0000;0.4135;0.9453;
636.3000;0.4143;0.9453;
636.6000;0.4127;0.9502;
636.9000;0.4127;0.9502;
637.2000;0.4111;0.9453;
637.5000;0.4127;0.9552;
637.8000;0.4135;0.9576;
638.1000;0.4127;0.9552;
638.4000;0.4119;0.9527;
638.7000;0.4103;0.9453;
639.0000;0.4086;0.9453;
639.3000;0.4103;0.9453;
639.6000;0.4094;0.9477;
639.9000;0.4021;0.9305;
640.2000;0.4094;0.9453;
640.5000;0.4070;0.9379;
640.8000;0.4094;0.9477;
641.1000;0.4111;0.9453;
641.4000;0.4078;0.9527;
641.7000;0.4176;0.9675;
642.0000;0.4086;0.9453;
642.3000;0.4062;0.9477;
642.6000;0.4037;0.9329;
642.9000;0.4111;0.9428;
643.2000;0.4078;0.9428;
643.5000;0.4062;0.9428;
643.8000;0.4029;0.9453;
644.1000;0.4086;0.9626;
644.4000;0.4054;0.9552;
644.7000;0.4046;0.9552;
645.0000;0.4037;0.9477;
645.3000;0.4062;0.9552;
645.6000;0.4070;0.9453;
645.9000;0.4037;0.9354;
646.2000;0.4054;0.9428;
646.5000;0.4062;0.9453;
646.8000;0.4062;0.9453;
647.1000;0.4070;0.9502;
647.4000;0.4054;0.9428;
647.7000;0.4029;0.9428;
648.0000;0.4029;0.9453;
648.3000;0.4013;0.9354;
648.6000;0.4029;0.9379;
648.9000;0.4037;0.9329;
649.2000;0.4029;0.9477;
649.5000;0.4013;0.9527;
649.8000;0.4013;0.9527;
650.1000;0.4029;0.9552;
650.4000;0.4062;0.9576;
650.7000;0.4046;0.9552;
651.0000;0.3972;0.9329;
651.3000;0.4046;0.9552;
651.6000;0.4005;0.9428;
651.9000;0.4029;0.9552;
652.2000;0.4013;0.9626;
652.5000;0.4013;0.9650;
652.8000;0.3964;0.9576;
653.1000;0.4021;0.9675;
653.4000;0.4005;0.9675;
653.7000;0.4021;0.9700;
654.0000;0.4013;0.9576;
654.3000;0.4005;0.9502;
654.6000;0.3980;0.9552;
654.9000;0.4005;0.9601;
655.2000;0.4021;0.9626;
655.5000;0.4005;0.9576;
655.8000;0.3989;0.9552;
656.1000;0.3997;0.9626;
656.4000;0.3997;0.9724;
656.7000;0.4062;0.9922;
657.0000;0.3980;0.9724;
657.3000;0.3989;0.9749;
657.6000;0.4005;0.9798;
657.9000;0.3997;0.9749;
658.2000;0.4005;0.9774;
658.5000;0.3989;0.9798;
658.8000;0.4013;0.9774;
659.1000;0.3972;0.9724;
659.4000;0.3956;0.9601;
659.7000;0.3980;0.9626;
660.0000;0.3972;0.9552;
660.3000;0.3964;0.9428;
660.6000;0.3964;0.9477;
660.9000;0.3972;0.9477;
661.2000;0.3972;0.9453;
661.5000;0.3964;0.9453;
661.8000;0.3980;0.9552;
662.1000;0.3972;0.9552;
662.4000;0.3972;0.9626;
662.7000;0.4029;0.9897;
663.0000;0.3956;0.9675;
663.3000;0.3997;0.9823;
663.6000;0.4013;0.9897;
663.9000;0.3980;0.9798;
664.2000;0.3956;0.9675;
664.5000;0.3932;0.9650;
664.8000;0.3932;0.9650;
665.1000;0.3997;0.9798;
665.4000;0.3915;0.9552;
665.7000;0.3956;0.9552;
666.0000;0.3948;0.9552;
666.3000;0.3940;0.9502;
666.6000;0.3940;0.9428;
666.9000;0.3964;0.9453;
667.2000;0.3923;0.9329;
667.5000;0.3932;0.9403;
667.8000;0.3948;0.9477;
668.1000;0.3932;0.9477;
668.4000;0.3932;0.9552;
668.7000;0.3891;0.9477;
669.0000;0.3923;0.9576;
669.3000;0.3891;0.9477;
669.6000;0.3932;0.9502;
669.9000;0.3867;0.9280;
670.2000;0.3932;0.9453;
670.5000;0.3932;0.9502;
670.8000;0.3915;0.9453;
671.1000;0.3923;0.9527;
671.4000;0.3932;0.9626;
671.7000;0.3915;0.9552;
672.0000;0.3923;0.9626;
672.3000;0.3923;0.9749;
672.6000;0.3915;0.9823;
672.9000;0.3948;0.9848;
673.2000;0.3923;0.9749;
673.5000;0.3932;0.9749;
673.8000;0.3907;0.9700;
674.1000;0.3923;0.9700;
674.4000;0.3932;0.9724;
674.7000;0.3923;0.9576;
675.0000;0.3932;0.9576;
675.3000;0.3923;0.9453;
675.6000;0.3867;0.9354;
675.9000;0.3940;0.9527;
676.2000;0.3907;0.9576;
676.5000;0.3964;0.9675;
676.8000;0.3842;0.9428;
677.1000;0.3915;0.9601;
677.4000;0.3858;0.9428;
677.7000;0.3915;0.9576;
678.0000;0.3980;0.9774;
678.3000;0.3899;0.9527;
678.6000;0.3915;0.9576;
678.9000;0.3915;0.9502;
679.2000;0.3907;0.9477;
679.5000;0.3899;0.9502;
679.8000;0.3907;0.9576;
680.1000;0.3899;0.9700;
680.4000;0.3923;0.9650;
680.7000;0.3907;0.9552;
681.0000;0.3899;0.9527;
681.3000;0.3907;0.9552;
681.6000;0.3899;0.9428;
681.9000;0.3915;0.9354;
682.2000;0.3891;0.9379;
682.5000;0.3915;0.9576;
682.8000;0.3891;0.9601;
683.1000;0.3940;0.9749;
683.4000;0.3867;0.9527;
683.7000;0.3923;0.9650;
684.0000;0.3915;0.9576;
684.3000;0.3891;0.9576;
684.6000;0.3891;0.9601;
684.9000;0.3907;0.9675;
685.2000;0.3948;0.9626;
685.5000;0.3883;0.9576;
685.8000;0.3899;0.9601;
686.1000;0.3883;0.9601;
686.4000;0.3793;0.9453;
686.7000;0.3891;0.9724;
687.0000;0.3883;0.9675;
687.3000;0.3915;0.9650;
687.6000;0.3842;0.9477;
687.9000;0.3891;0.9477;
688.2000;0.3826;0.9379;
688.5000;0.3883;0.9502;
688.8000;0.3899;0.9601;
689.1000;0.3875;0.9552;
689.4000;0.3891;0.9650;
689.7000;0.3875;0.9601;
690.0000;0.3867;0.9502;
690.3000;0.3858;0.9502;
690.6000;0.3883;0.9453;
690.9000;0.3883;0.9403;
691.2000;0.3867;0.9329;
691.5000;0.3867;0.9280;
691.8000;0.3875;0.9305;
692.1000;0.3891;0.9280;
692.4000;0.3891;0.9354;
692.7000;0.3842;0.9255;
693.0000;0.3883;0.9329;
693.3000;0.3875;0.9305;
693.6000;0.3875;0.9329;
693.9000;0.3867;0.9403;
694.2000;0.3858;0.9477;
694.5000;0.3867;0.9453;
694.8000;0.3858;0.9403;
695.1000;0.3850;0.9354;
695.4000;0.3858;0.9403;
695.7000;0.3875;0.9403;
696.0000;0.3867;0.9502;
696.3000;0.3867;0.9527;
696.6000;0.3850;0.9428;
696.9000;0.3867;0.9527;
697.2000;0.3875;0.9601;
697.5000;0.3858;0.9527;
697.8000;0.3883;0.9502;
698.1000;0.3883;0.9477;
698.4000;0.3907;0.9502;
698.7000;0.3867;0.9552;
699.0000;0.3867;0.9601;
699.3000;0.3834;0.9601;
699.6000;0.3867;0.9453;
699.9000;0.3875;0.9477;
700.2000;0.3867;0.9403;
700.5000;0.3858;0.9502;
700.8000;0.3875;0.9576;
701.1000;0.3867;0.9527;
701.4000;0.3891;0.9552;
701.7000;0.3867;0.9477;
702.0000;0.3850;0.9477;
702.3000;0.3818;0.9453;
702.6000;0.3850;0.9527;
702.9000;0.3907;0.9626;
703.2000;0.3826;0.9403;
703.5000;0.3883;0.9601;
703.8000;0.3875;0.9650;
704.1000;0.3850;0.9576;
704.4000;0.3858;0.9453;
704.7000;0.3801;0.9379;
705.0000;0.3850;0.9453;
705.3000;0.3875;0.9527;
705.6000;0.3867;0.9403;
705.9000;0.3858;0.9379;
706.2000;0.3777;0.9181;
706.5000;0.3858;0.9403;
706.8000;0.3932;0.9601;
707.1000;0.3842;0.9428;
707.4000;0.3891;0.9527;
707.7000;0.3875;0.9527;
708.0000;0.3842;0.9403;
708.3000;0.3826;0.9305;
708.6000;0.3826;0.9379;
708.9000;0.3818;0.9354;
709.2000;0.3867;0.9477;
709.5000;0.3818;0.9255;
709.8000;0.3785;0.9107;
710.1000;0.3842;0.9280;
710.4000;0.3858;0.9231;
710.7000;0.3850;0.9231;
711.0000;0.3818;0.9280;
711.3000;0.3883;0.9453;
711.6000;0.3801;0.9280;
711.9000;0.3867;0.9527;
712.2000;0.3956;0.9823;
712.5000;0.3858;0.9502;
712.8000;0.3850;0.9502;
713.1000;0.3875;0.9626;
713.4000;0.3858;0.9552;
713.7000;0.3899;0.9601;
714.0000;0.3883;0.9428;
714.3000;0.3875;0.9527;
714.6000;0.3834;0.9502;
714.9000;0.3858;0.9502;
715.2000;0.3850;0.9477;
715.5000;0.3858;0.9477;
715.8000;0.3842;0.9428;
716.1000;0.3842;0.9379;
716.4000;0.3810;0.9305;
716.7000;0.3850;0.9280;
717.0000;0.3834;0.9255;
717.3000;0.3842;0.9280;
717.6000;0.3867;0.9379;
717.9000;0.3858;0.9280;
718.2000;0.3850;0.9305;
718.5000;0.3842;0.9428;
718.8000;0.3867;0.9453;
719.1000;0.3850;0.9403;
719.4000;0.3842;0.9379;
719.7000;0.3867;0.9453;
720.0000;0.3858;0.9403;
720.3000;0.3850;0.9379;
720.6000;0.3834;0.9329;
720.9000;0.3842;0.9379;
721.2000;0.3850;0.9354;
721.5000;0.3818;0.9428;
721.8000;0.3850;0.9403;
722.1000;0.3834;0.9552;
722.4000;0.3818;0.9477;
722.7000;0.3842;0.9453;
723.0000;0.3850;0.9477;
723.3000;0.3842;0.9453;
723.6000;0.3834;0.9428;
723.9000;0.3915;0.9626;
724.2000;0.3850;0.9428;
724.5000;0.3834;0.9403;
724.8000;0.3850;0.9403;
725.1000;0.3834;0.9379;
725.4000;0.3842;0.9329;
725.7000;0.3850;0.9329;
726.0000;0.3826;0.9280;
726.3000;0.3842;0.9379;
726.6000;0.3858;0.9453;
726.9000;0.3842;0.9428;
727.2000;0.3850;0.9428;
727.5000;0.3842;0.9527;
727.8000;0.3834;0.9552;
728.1000;0.3858;0.9552;
728.4000;0.3834;0.9453;
728.7000;0.3842;0.9428;
729.0000;0.3899;0.9601;
729.3000;0.3850;0.9453;
729.6000;0.3834;0.9477;
729.9000;0.3875;0.9552;
730.2000;0.3850;0.9576;
730.5000;0.3842;0.9527;
730.8000;0.3842;0.9477;
731.1000;0.3842;0.9477;
731.4000;0.3801;0.9428;
731.7000;0.3850;0.9502;
732.0000;0.3850;0.9576;
732.3000;0.3850;0.9527;
732.6000;0.3842;0.9428;
732.9000;0.3834;0.9403;
733.2000;0.3769;0.9255;
733.5000;0.3867;0.9354;
733.8000;0.3826;0.9157;
734.1000;0.3826;0.9132;
734.4000;0.3842;0.9280;
734.7000;0.3826;0.9206;
735.0000;0.3858;0.9280;
735.3000;0.3850;0.9305;
735.6000;0.3744;0.9058;
735.9000;0.3826;0.9354;
736.2000;0.3826;0.9379;
736.5000;0.3818;0.9255;
736.8000;0.3818;0.9255;
737.1000;0.3850;0.9305;
737.4000;0.3842;0.9181;
737.7000;0.3744;0.8885;
738.0000;0.3907;0.9428;
738.3000;0.3858;0.9329;
738.6000;0.3850;0.9354;
738.9000;0.3834;0.9305;
739.2000;0.3818;0.9280;
739.5000;0.3826;0.9255;
739.8000;0.3842;0.9329;
740.1000;0.3818;0.9231;
740.4000;0.3818;0.9280;
740.7000;0.3826;0.9305;
741.0000;0.3810;0.9329;
741.3000;0.3826;0.9428;
741.6000;0.3826;0.9379;
741.9000;0.3801;0.9280;
742.2000;0.3826;0.9255;
742.5000;0.3826;0.9305;
742.8000;0.3842;0.9354;
743.1000;0.3826;0.9329;
743.4000;0.3818;0.9305;
743.7000;0.3858;0.9280;
744.0000;0.3834;0.9231;
744.3000;0.3834;0.9231;
744.6000;0.3834;0.9231;
744.9000;0.3834;0.9305;
745.2000;0.3850;0.9379;
745.5000;0.3842;0.9329;
745.8000;0.3834;0.9403;
746.1000;0.3826;0.9403;
746.4000;0.3818;0.9379;
746.7000;0.3826;0.9329;
747.0000;0.3826;0.9428;
747.3000;0.3810;0.9477;
747.6000;0.3818;0.9552;
747.9000;0.3826;0.9552;
748.2000;0.3842;0.9552;
748.5000;0.3777;0.9453;
748.8000;0.3818;0.9453;
749.1000;0.3842;0.9477;
749.4000;0.3818;0.9453;
749.7000;0.3753;0.9206;
750.0000;0.3810;0.9280;
750.3000;0.3826;0.9305;
750.6000;0.3818;0.9231;
750.9000;0.3842;0.9157;
751.2000;0.3818;0.9107;
751.5000;0.3810;0.9206;
751.8000;0.3826;0.9280;
752.1000;0.3826;0.9305;
752.4000;0.3818;0.9255;
752.7000;0.3810;0.9206;
753.0000;0.3834;0.9255;
753.3000;0.3826;0.9280;
753.6000;0.3810;0.9280;
753.9000;0.3810;0.9329;
754.2000;0.3826;0.9428;
754.5000;0.3818;0.9453;
754.8000;0.3810;0.9403;
755.1000;0.3932;0.9650;
755.4000;0.3826;0.9329;
755.7000;0.3818;0.9255;
756.0000;0.3826;0.9280;
756.3000;0.3818;0.9255;
756.6000;0.3801;0.9181;
756.9000;0.3834;0.9305;
757.2000;0.3810;0.9305;
757.5000;0.3891;0.9379;
757.8000;0.3842;0.9157;
758.1000;0.3826;0.9280;
758.4000;0.3785;0.9181;
758.7000;0.3801;0.9181;
759.0000;0.3810;0.9305;
759.3000;0.3810;0.9305;
759.6000;0.3810;0.9280;
759.9000;0.3793;0.9231;
760.2000;0.3867;0.9403;
760.5000;0.3810;0.9231;
760.8000;0.3801;0.9329;
761.1000;0.3810;0.9354;
761.4000;0.3818;0.9379;
761.7000;0.3793;0.9305;
762.0000;0.3810;0.9354;
762.3000;0.3826;0.9403;
762.6000;0.3826;0.9329;
762.9000;0.3801;0.9305;
763.2000;0.3891;0.9477;
763.5000;0.3810;0.9329;
763.8000;0.3826;0.9453;
764.1000;0.3826;0.9477;
764.4000;0.3801;0.9428;
764.7000;0.3842;0.9502;
765.0000;0.3801;0.9453;
765.3000;0.3818;0.9552;
765.6000;0.3810;0.9601;
765.9000;0.3810;0.9601;
766.2000;0.3818;0.9700;
766.5000;0.3818;0.9700;
766.8000;0.3826;0.9650;
767.1000;0.3826;0.9576;
767.4000;0.3810;0.9552;
767.7000;0.3810;0.9527;
768.0000;0.3801;0.9502;
768.3000;0.3818;0.9552;
768.6000;0.3801;0.9477;
768.9000;0.3858;0.9576;
769.2000;0.3818;0.9626;
769.5000;0.3769;0.9477;
769.8000;0.3818;0.9601;
770.1000;0.3818;0.9527;
770.4000;0.3818;0.9502;
770.7000;0.3793;0.9453;
771.0000;0.3826;0.9626;
771.3000;0.3785;0.9552;
771.6000;0.3801;0.9601;
771.9000;0.3891;0.9774;
772.2000;0.3810;0.9502;
772.5000;0.3810;0.9502;
772.8000;0.3801;0.9552;
773.1000;0.3777;0.9502;
773.4000;0.3818;0.9650;
773.7000;0.3810;0.9626;
774.0000;0.3826;0.9650;
774.3000;0.3777;0.9453;
774.6000;0.3801;0.9502;
774.9000;0.3801;0.9502;
775.2000;0.3818;0.9477;
775.5000;0.3818;0.9403;
775.8000;0.3801;0.9379;
776.1000;0.3858;0.9502;
776.4000;0.3801;0.9403;
776.7000;0.3801;0.9403;
777.0000;0.3915;0.9724;
777.3000;0.3769;0.9354;
777.6000;0.3810;0.9502;
777.9000;0.3826;0.9601;
778.2000;0.3875;0.9650;
778.5000;0.3867;0.9576;
778.8000;0.3826;0.9477;
779.1000;0.3818;0.9477;
779.4000;0.3769;0.9329;
779.7000;0.3801;0.9477;
780.0000;0.3793;0.9453;
780.3000;0.3818;0.9552;
780.6000;0.3810;0.9502;
780.9000;0.3810;0.9502;
781.2000;0.3801;0.9502;
781.5000;0.3883;0.9700;
781.8000;0.3801;0.9576;
782.1000;0.3818;0.9650;
782.4000;0.3810;0.9700;
782.7000;0.3810;0.9724;
783.0000;0.3801;0.9675;
783.3000;0.3769;0.9576;
783.6000;0.3785;0.9650;
783.9000;0.3793;0.9749;
784.2000;0.3777;0.9576;
784.5000;0.3810;0.9552;
784.8000;0.3826;0.9601;
785.1000;0.3801;0.9477;
785.4000;0.3801;0.9477;
785.7000;0.3858;0.9626;
786.0000;0.3801;0.9576;
786.3000;0.3801;0.9601;
786.6000;0.3818;0.9626;
786.9000;0.3801;0.9650;
787.2000;0.3810;0.9700;
787.5000;0.3777;0.9552;
787.8000;0.3826;0.9626;
788.1000;0.3801;0.9502;
788.4000;0.3801;0.9477;
788.7000;0.3801;0.9403;
789.0000;0.3801;0.9329;
789.3000;0.3801;0.9305;
789.6000;0.3818;0.9379;
789.9000;0.3801;0.9329;
790.2000;0.3810;0.9379;
790.5000;0.3818;0.9428;
790.8000;0.3842;0.9527;
791.1000;0.3810;0.9428;
791.4000;0.3842;0.9477;
791.7000;0.3818;0.9428;
792.0000;0.3793;0.9379;
792.3000;0.3793;0.9379;
792.6000;0.3793;0.9403;
792.9000;0.3793;0.9379;
793.2000;0.3801;0.9354;
793.5000;0.3818;0.9403;
793.8000;0.3826;0.9477;
794.1000;0.3810;0.9502;
794.4000;0.3842;0.9576;
794.7000;0.3793;0.9502;
795.0000;0.3826;0.9675;
795.3000;0.3793;0.9650;
795.6000;0.3850;0.9774;
795.9000;0.3761;0.9527;
796.2000;0.3793;0.9477;
796.5000;0.3777;0.9453;
796.8000;0.3810;0.9576;
797.1000;0.3801;0.9601;
797.4000;0.3801;0.9552;
797.7000;0.3785;0.9477;
798.0000;0.3793;0.9453;
798.3000;0.3801;0.9502;
798.6000;0.3801;0.9552;
798.9000;0.3785;0.9329;
799.2000;0.3907;0.9601;
799.5000;0.3801;0.9255;
799.8000;0.3810;0.9181;
800.1000;0.3704;0.8959;
800.4000;0.3801;0.9280;
800.7000;0.3728;0.9231;
801.0000;0.3915;0.9700;
801.3000;0.3801;0.9379;
801.6000;0.3785;0.9403;
801.9000;0.3801;0.9379;
802.2000;0.3875;0.9502;
802.5000;0.3810;0.9502;
802.8000;0.3801;0.9477;
803.1000;0.3810;0.9477;
803.4000;0.3769;0.9305;
803.7000;0.3801;0.9403;
804.0000;0.3801;0.9403;
804.3000;0.3818;0.9502;
804.6000;0.3647;0.9132;
804.9000;0.3777;0.9527;
805.2000;0.3793;0.9477;
805.5000;0.3818;0.9453;
805.8000;0.3769;0.9305;
806.1000;0.3785;0.9354;
806.4000;0.3801;0.9354;
806.7000;0.3785;0.9354;
807.0000;0.3793;0.9354;
807.3000;0.3793;0.9305;
807.6000;0.3907;0.9626;
807.9000;0.3810;0.9477;
808.2000;0.3834;0.9552;
808.5000;0.3793;0.9428;
808.8000;0.3801;0.9477;
809.1000;0.3810;0.9527;
809.4000;0.3793;0.9477;
809.7000;0.3801;0.9552;
810.0000;0.3696;0.9305;
810.3000;0.3810;0.9428;
810.6000;0.3801;0.9354;
810.9000;0.3785;0.9329;
811.2000;0.3777;0.9379;
811.5000;0.3801;0.9305;
811.8000;0.3801;0.9329;
812.1000;0.3769;0.9255;
812.4000;0.3801;0.9379;
812.7000;0.3793;0.9379;
813.0000;0.3801;0.9428;
813.3000;0.3818;0.9527;
813.6000;0.3818;0.9576;
813.9000;0.3826;0.9527;
814.2000;0.3801;0.9453;
814.5000;0.3793;0.9453;
814.8000;0.3801;0.9453;
815.1000;0.3810;0.9453;
815.4000;0.3801;0.9403;
815.7000;0.3801;0.9379;
816.0000;0.3769;0.9329;
816.3000;0.3769;0.9403;
816.6000;0.3793;0.9453;
816.9000;0.3785;0.9527;
817.2000;0.3818;0.9552;
817.5000;0.3769;0.9403;
817.8000;0.3793;0.9576;
818.1000;0.3810;0.9477;
818.4000;0.3793;0.9403;
818.7000;0.3793;0.9502;
819.0000;0.3761;0.9552;
819.3000;0.3785;0.9576;
819.6000;0.3810;0.9626;
819.9000;0.3801;0.9552;
820.2000;0.3753;0.9502;
820.5000;0.3744;0.9428;
820.8000;0.3785;0.9576;
821.1000;0.3720;0.9428;
821.4000;0.3777;0.9576;
821.7000;0.3785;0.9601;
822.0000;0.3769;0.9502;
822.3000;0.3769;0.9502;
822.6000;0.3793;0.9453;
822.9000;0.3785;0.9379;
823.2000;0.3793;0.9453;
823.5000;0.3801;0.9428;
823.8000;0.3785;0.9403;
824.1000;0.3793;0.9403;
824.4000;0.3753;0.9305;
824.7000;0.3777;0.9305;
825.0000;0.3801;0.9231;
825.3000;0.3801;0.9231;
825.6000;0.3826;0.9354;
825.9000;0.3810;0.9428;
826.2000;0.3769;0.9379;
826.5000;0.3801;0.9453;
826.8000;0.3793;0.9354;
827.1000;0.3769;0.9453;
827.4000;0.3826;0.9724;
827.7000;0.3769;0.9576;
828.0000;0.3793;0.9576;
828.3000;0.3834;0.9552;
828.6000;0.3785;0.9379;
828.9000;0.3793;0.9428;
829.2000;0.3769;0.9354;
829.5000;0.3801;0.9477;
829.8000;0.3810;0.9403;
830.1000;0.3801;0.9453;
830.4000;0.3793;0.9502;
830.7000;0.3679;0.9231;
831.0000;0.3785;0.9552;
831.3000;0.3834;0.9626;
831.6000;0.3785;0.9527;
831.9000;0.3785;0.9428;
832.2000;0.3777;0.9428;
832.5000;0.3785;0.9428;
832.8000;0.3793;0.9379;
833.1000;0.3769;0.9305;
833.4000;0.3810;0.9379;
833.7000;0.3801;0.9453;
834.0000;0.3777;0.9477;
834.3000;0.3753;0.9453;
834.6000;0.3777;0.9527;
834.9000;0.3810;0.9576;
835.2000;0.3793;0.9527;
835.5000;0.3793;0.9477;
835.8000;0.3801;0.9552;
836.1000;0.3785;0.9552;
836.4000;0.3826;0.9675;
836.7000;0.3801;0.9650;
837.0000;0.3793;0.9700;
837.3000;0.3744;0.9527;
837.6000;0.3777;0.9576;
837.9000;0.3793;0.9527;
838.2000;0.3801;0.9477;
838.5000;0.3801;0.9502;
838.8000;0.3777;0.9477;
839.1000;0.3777;0.9527;
839.4000;0.3834;0.9626;
839.7000;0.3801;0.9552;
840.0000;0.3769;0.9552;
840.3000;0.3753;0.9527;
840.6000;0.3793;0.9552;
840.9000;0.3785;0.9477;
841.2000;0.3793;0.9527;
841.5000;0.3818;0.9626;
841.8000;0.3801;0.9552;
842.1000;0.3801;0.9576;
842.4000;0.3777;0.9502;
842.7000;0.3785;0.9552;
843.0000;0.3785;0.9527;
843.3000;0.3801;0.9576;
843.6000;0.3761;0.9477;
843.9000;0.3777;0.9502;
844.2000;0.3785;0.9552;
844.5000;0.3744;0.9379;
844.8000;0.3777;0.9601;
845.1000;0.3801;0.9626;
845.4000;0.3785;0.9502;
845.7000;0.3801;0.9601;
846.0000;0.3801;0.9601;
846.3000;0.3793;0.9453;
846.6000;0.3793;0.9477;
846.9000;0.3793;0.9576;
847.2000;0.3801;0.9700;
847.5000;0.3785;0.9675;
847.8000;0.3801;0.9724;
848.1000;0.3777;0.9601;
848.4000;0.3793;0.9601;
848.7000;0.3801;0.9626;
849.0000;0.3810;0.9675;
849.3000;0.3801;0.9650;
849.6000;0.3728;0.9477;
849.9000;0.3769;0.9576;
850.2000;0.3785;0.9601;
850.5000;0.3761;0.9477;
850.8000;0.3785;0.9527;
851.1000;0.3785;0.9576;
851.4000;0.3777;0.9601;
851.7000;0.3891;0.9897;
852.0000;0.3793;0.9675;
852.3000;0.3785;0.9749;
852.6000;0.3810;0.9774;
852.9000;0.3801;0.9601;
853.2000;0.3777;0.9527;
853.5000;0.3777;0.9477;
853.8000;0.3769;0.9428;
854.1000;0.3793;0.9527;
854.4000;0.3777;0.9502;
854.7000;0.3793;0.9502;
855.0000;0.3777;0.9477;
855.3000;0.3793;0.9552;
855.6000;0.3793;0.9527;
855.9000;0.3785;0.9527;
856.2000;0.3728;0.9354;
856.5000;0.3785;0.9428;
856.8000;0.3785;0.9502;
857.1000;0.3777;0.9527;
857.4000;0.3793;0.9626;
857.7000;0.3793;0.9576;
858.0000;0.3785;0.9527;
858.3000;0.3785;0.9502;
858.6000;0.3785;0.9477;
858.9000;0.3785;0.9403;
859.2000;0.3801;0.9428;
859.5000;0.3793;0.9403;
859.8000;0.3785;0.9428;
860.1000;0.3785;0.9453;
860.4000;0.3818;0.9576;
860.7000;0.3793;0.9527;
861.0000;0.3801;0.9502;
861.3000;0.3777;0.9502;
861.6000;0.3744;0.9379;
861.9000;0.3793;0.9477;
862.2000;0.3793;0.9502;
862.5000;0.3777;0.9552;
862.8000;0.3728;0.9428;
863.1000;0.3777;0.9453;
863.4000;0.3810;0.9428;
863.7000;0.3777;0.9379;
864.0000;0.3712;0.9255;
864.3000;0.3793;0.9453;
864.6000;0.3769;0.9403;
864.9000;0.3761;0.9477;
865.2000;0.3785;0.9502;
865.5000;0.3777;0.9403;
865.8000;0.3761;0.9453;
866.1000;0.3761;0.9403;
866.4000;0.3761;0.9403;
866.7000;0.3769;0.9453;
867.0000;0.3793;0.9403;
867.3000;0.3769;0.9403;
867.6000;0.3777;0.9428;
867.9000;0.3769;0.9329;
868.2000;0.3793;0.9379;
868.5000;0.3842;0.9576;
868.8000;0.3777;0.9379;
869.1000;0.3769;0.9428;
869.4000;0.3777;0.9379;
869.7000;0.3777;0.9379;
870.0000;0.3810;0.9428;
870.3000;0.3801;0.9379;
870.6000;0.3818;0.9403;
870.9000;0.3785;0.9329;
871.2000;0.3777;0.9379;
871.5000;0.3801;0.9329;
871.8000;0.3753;0.9305;
872.1000;0.3777;0.9329;
872.4000;0.3769;0.9206;
872.7000;0.3801;0.9255;
873.0000;0.3793;0.9354;
873.3000;0.3793;0.9280;
873.6000;0.3777;0.9231;
873.9000;0.3777;0.9329;
874.2000;0.3785;0.9403;
874.5000;0.3744;0.9280;
874.8000;0.3818;0.9502;
875.1000;0.3793;0.9428;
875.4000;0.3777;0.9379;
875.7000;0.3720;0.9231;
876.0000;0.3785;0.9280;
876.3000;0.3793;0.9379;
876.6000;0.3793;0.9403;
876.9000;0.3777;0.9428;
877.2000;0.3769;0.9379;
877.5000;0.3761;0.9403;
877.8000;0.3818;0.9527;
878.1000;0.3810;0.9527;
878.4000;0.3769;0.9527;
878.7000;0.3785;0.9626;
879.0000;0.3785;0.9576;
879.3000;0.3777;0.9477;
879.6000;0.3720;0.9379;
879.9000;0.3744;0.9477;
880.2000;0.3818;0.9626;
880.5000;0.3785;0.9552;
880.8000;0.3785;0.9576;
881.1000;0.3769;0.9601;
881.4000;0.3793;0.9576;
881.7000;0.3810;0.9626;
882.0000;0.3777;0.9576;
882.3000;0.3769;0.9626;
882.6000;0.3818;0.9700;
882.9000;0.3744;0.9453;
883.2000;0.3810;0.9576;
883.5000;0.3785;0.9453;
883.8000;0.3793;0.9453;
884.1000;0.3801;0.9552;
884.4000;0.3810;0.9675;
884.7000;0.3753;0.9576;
885.0000;0.3777;0.9626;
885.3000;0.3785;0.9700;
885.6000;0.3777;0.9724;
885.9000;0.3777;0.9749;
886.2000;0.3777;0.9700;
886.5000;0.3785;0.9700;
886.8000;0.3858;0.9897;
887.1000;0.3769;0.9626;
887.4000;0.3777;0.9626;
887.7000;0.3793;0.9576;
888.0000;0.3801;0.9724;
888.3000;0.3761;0.9675;
888.6000;0.3720;0.9428;
888.9000;0.3728;0.9527;
889.2000;0.3793;0.9626;
889.5000;0.3850;0.9774;
889.8000;0.3712;0.9329;
890.1000;0.3785;0.9428;
890.4000;0.3777;0.9477;
890.7000;0.3769;0.9527;
891.0000;0.3801;0.9675;
891.3000;0.3785;0.9626;
891.6000;0.3785;0.9576;
891.9000;0.3785;0.9601;
892.2000;0.3744;0.9502;
892.5000;0.3785;0.9650;
892.8000;0.3769;0.9626;
893.1000;0.3769;0.9650;
893.4000;0.3785;0.9700;
893.7000;0.3801;0.9675;
894.0000;0.3736;0.9576;
894.3000;0.3744;0.9552;
894.6000;0.3793;0.9626;
894.9000;0.3826;0.9798;
895.2000;0.3777;0.9675;
895.5000;0.3769;0.9626;
895.8000;0.3801;0.9675;
896.1000;0.3777;0.9576;
896.4000;0.3785;0.9700;
896.7000;0.3818;0.9724;
897.0000;0.3777;0.9749;
897.3000;0.3777;0.9626;
897.6000;0.3777;0.9601;
897.9000;0.3761;0.9576;
898.2000;0.3777;0.9601;
898.5000;0.3810;0.9576;
898.8000;0.3801;0.9502;
899.1000;0.3777;0.9428;
899.4000;0.3785;0.9502;
899.7000;0.3753;0.9527;
900.0000;0.3769;0.9576;
900.3000;0.3785;0.9626;
900.6000;0.3761;0.9527;
900.9000;0.3785;0.9527;
901.2000;0.3753;0.9477;
901.5000;0.3818;0.9675;
901.8000;0.3769;0.9527;
902.1000;0.3777;0.9527;
902.4000;0.3785;0.9576;
902.7000;0.3761;0.9527;
903.0000;0.3769;0.9502;
903.3000;0.3728;0.9379;
903.6000;0.3744;0.9477;
903.9000;0.3801;0.9675;
904.2000;0.3785;0.9650;
904.5000;0.3769;0.9626;
904.8000;0.3753;0.9626;
905.1000;0.3793;0.9749;
905.4000;0.3769;0.9626;
905.7000;0.3793;0.9724;
906.0000;0.3769;0.9675;
906.3000;0.3793;0.9552;
906.6000;0.3785;0.9552;
906.9000;0.3769;0.9601;
907.2000;0.3801;0.9650;
907.5000;0.3801;0.9650;
907.8000;0.3777;0.9601;
908.1000;0.3777;0.9601;
908.4000;0.3785;0.9601;
908.7000;0.3793;0.9700;
909.0000;0.3785;0.9650;
909.3000;0.3785;0.9626;
909.6000;0.3777;0.9552;
909.9000;0.3907;0.9872;
910.2000;0.3793;0.9527;
910.5000;0.3826;0.9650;
910.8000;0.3761;0.9428;
911.1000;0.3842;0.9675;
911.4000;0.3769;0.9576;
911.7000;0.3753;0.9552;
912.0000;0.3785;0.9576;
912.3000;0.3777;0.9502;
912.6000;0.3687;0.9255;
912.9000;0.3793;0.9428;
913.2000;0.3769;0.9403;
913.5000;0.3753;0.9428;
913.8000;0.3744;0.9477;
914.1000;0.3793;0.9527;
914.4000;0.3826;0.9675;
914.7000;0.3761;0.9527;
915.0000;0.3777;0.9552;
915.3000;0.3785;0.9552;
915.6000;0.3785;0.9502;
915.9000;0.3785;0.9453;
916.2000;0.3793;0.9502;
916.5000;0.3785;0.9552;
916.8000;0.3842;0.9576;
917.1000;0.3761;0.9403;
917.4000;0.3769;0.9428;
917.7000;0.3793;0.9502;
918.0000;0.3777;0.9428;
918.3000;0.3736;0.9305;
918.6000;0.3793;0.9502;
918.9000;0.3793;0.9502;
919.2000;0.3834;0.9576;
919.5000;0.3785;0.9502;
919.8000;0.3801;0.9552;
920.1000;0.3785;0.9601;
920.4000;0.3785;0.9626;
920.7000;0.3801;0.9576;
921.0000;0.3785;0.9552;
921.3000;0.3793;0.9700;
921.6000;0.3777;0.9675;
921.9000;0.3769;0.9626;
922.2000;0.3728;0.9453;
922.5000;0.3834;0.9724;
922.8000;0.3777;0.9502;
923.1000;0.3801;0.9502;
923.4000;0.3793;0.9453;
923.7000;0.3785;0.9453;
924.0000;0.3777;0.9403;
924.3000;0.3777;0.9502;
924.6000;0.3696;0.9305;
924.9000;0.3761;0.9527;
925.2000;0.3753;0.9477;
925.5000;0.3801;0.9379;
925.8000;0.3793;0.9280;
926.1000;0.3736;0.9231;
926.4000;0.3785;0.9305;
926.7000;0.3777;0.9280;
927.0000;0.3777;0.9403;
927.3000;0.3777;0.9453;
927.6000;0.3777;0.9428;
927.9000;0.3761;0.9354;
928.2000;0.3769;0.9428;
928.5000;0.3777;0.9552;
928.8000;0.3818;0.9650;
929.1000;0.3777;0.9601;
929.4000;0.3777;0.9576;
929.7000;0.3801;0.9749;
930.0000;0.3785;0.9724;
930.3000;0.3769;0.9774;
930.6000;0.3769;0.9823;
930.9000;0.3769;0.9798;
931.2000;0.3793;0.9724;
931.5000;0.3761;0.9675;
931.8000;0.3785;0.9724;
932.1000;0.3785;0.9724;
932.4000;0.3785;0.9724;
932.7000;0.3785;0.9724;
933.0000;0.3769;0.9650;
933.3000;0.3777;0.9626;
933.6000;0.3826;0.9650;
933.9000;0.3785;0.9552;
934.2000;0.3761;0.9601;
934.5000;0.3785;0.9675;
934.8000;0.3761;0.9650;
935.1000;0.3810;0.9724;
935.4000;0.3785;0.9675;
935.7000;0.3785;0.9700;
936.0000;0.3769;0.9724;
936.3000;0.3769;0.9798;
936.6000;0.3769;0.9749;
936.9000;0.3753;0.9626;
937.2000;0.3785;0.9626;
937.5000;0.3777;0.9650;
937.8000;0.3769;0.9626;
938.1000;0.3761;0.9552;
938.4000;0.3777;0.9552;
938.7000;0.3785;0.9601;
939.0000;0.3744;0.9477;
939.3000;0.3769;0.9453;
939.6000;0.3769;0.9552;
939.9000;0.3753;0.9626;
940.2000;0.3769;0.9675;
940.5000;0.3793;0.9650;
940.8000;0.3769;0.9675;
941.1000;0.3801;0.9749;
941.4000;0.3793;0.9675;
941.7000;0.3769;0.9527;
942.0000;0.3777;0.9428;
942.3000;0.3777;0.9354;
942.6000;0.3785;0.9428;
942.9000;0.3785;0.9453;
943.2000;0.3769;0.9453;
943.5000;0.3777;0.9403;
943.8000;0.3793;0.9477;
944.1000;0.3785;0.9527;
944.4000;0.3761;0.9453;
944.7000;0.3761;0.9453;
945.0000;0.3785;0.9453;
945.3000;0.3785;0.9354;
945.6000;0.3769;0.9231;
945.9000;0.3777;0.9231;
946.2000;0.3858;0.9379;
946.5000;0.3785;0.9206;
946.8000;0.3793;0.9305;
947.1000;0.3753;0.9305;
947.4000;0.3785;0.9527;
947.7000;0.3785;0.9527;
948.0000;0.3777;0.9477;
948.3000;0.3728;0.9354;
948.6000;0.3785;0.9552;
948.9000;0.3761;0.9552;
949.2000;0.3728;0.9502;
949.5000;0.3777;0.9601;
949.8000;0.3761;0.9527;
950.1000;0.3801;0.9576;
950.4000;0.3769;0.9477;
950.7000;0.3793;0.9601;
951.0000;0.3761;0.9552;
951.3000;0.3785;0.9626;
951.6000;0.3761;0.9576;
951.9000;0.3761;0.9527;
952.2000;0.3761;0.9552;
952.5000;0.3769;0.9601;
952.8000;0.3785;0.9601;
953.1000;0.3769;0.9576;
953.4000;0.3769;0.9527;
953.7000;0.3793;0.9626;
954.0000;0.3793;0.9576;
954.3000;0.3785;0.9601;
954.6000;0.3761;0.9502;
954.9000;0.3777;0.9403;
955.2000;0.3785;0.9527;
955.5000;0.3777;0.9552;
955.8000;0.3769;0.9626;
956.1000;0.3769;0.9601;
956.4000;0.3736;0.9601;
956.7000;0.3777;0.9700;
957.0000;0.3769;0.9650;
957.3000;0.3777;0.9650;
957.6000;0.3769;0.9650;
957.9000;0.3769;0.9724;
958.2000;0.3769;0.9626;
958.5000;0.3777;0.9626;
958.8000;0.3777;0.9724;
959.1000;0.3793;0.9798;
959.4000;0.3777;0.9798;
959.7000;0.3785;0.9823;
960.0000;0.3769;0.9922;
960.3000;0.3777;0.9798;
960.6000;0.3769;0.9749;
960.9000;0.3785;0.9774;
961.2000;0.3744;0.9626;
961.5000;0.3777;0.9626;
961.8000;0.3769;0.9675;
962.1000;0.3801;0.9774;
962.4000;0.3769;0.9650;
962.7000;0.3744;0.9552;
963.0000;0.3777;0.9453;
963.3000;0.3769;0.9379;
963.6000;0.3793;0.9428;
963.9000;0.3777;0.9428;
964.2000;0.3777;0.9527;
964.5000;0.3769;0.9428;
964.8000;0.3777;0.9453;
965.1000;0.3801;0.9552;
965.4000;0.3761;0.9601;
965.7000;0.3801;0.9675;
966.0000;0.3696;0.9477;
966.3000;0.3785;0.9675;
966.6000;0.3769;0.9675;
966.9000;0.3744;0.9650;
967.2000;0.3769;0.9626;
967.5000;0.3777;0.9650;
967.8000;0.3761;0.9576;
968.1000;0.3777;0.9552;
968.4000;0.3761;0.9527;
968.7000;0.3842;0.9601;
969.0000;0.3769;0.9502;
969.3000;0.3785;0.9552;
969.6000;0.3793;0.9601;
969.9000;0.3769;0.9626;
970.2000;0.3753;0.9675;
970.5000;0.3777;0.9724;
970.8000;0.3801;0.9823;
971.1000;0.3769;0.9650;
971.4000;0.3769;0.9601;
971.7000;0.3867;0.9872;
972.0000;0.3761;0.9552;
972.3000;0.3801;0.9601;
972.6000;0.3785;0.9626;
972.9000;0.3744;0.9576;
973.2000;0.3769;0.9576;
973.5000;0.3769;0.9527;
973.8000;0.3777;0.9403;
974.1000;0.3769;0.9329;
974.4000;0.3769;0.9354;
974.7000;0.3761;0.9453;
975.0000;0.3769;0.9453;
975.3000;0.3777;0.9379;
975.6000;0.3769;0.9453;
975.9000;0.3785;0.9552;
976.2000;0.3801;0.9453;
976.5000;0.3777;0.9354;
976.8000;0.3769;0.9354;
977.1000;0.3753;0.9305;
977.4000;0.3744;0.9329;
977.7000;0.3785;0.9403;
978.0000;0.3769;0.9453;
978.3000;0.3777;0.9453;
978.6000;0.3769;0.9477;
978.9000;0.3785;0.9477;
979.2000;0.3736;0.9428;
979.5000;0.3761;0.9477;
979.8000;0.3753;0.9527;
980.1000;0.3761;0.9477;
980.4000;0.3810;0.9576;
980.7000;0.3777;0.9428;
981.0000;0.3777;0.9477;
981.3000;0.3769;0.9502;
981.6000;0.3769;0.9552;
981.9000;0.3761;0.9601;
982.2000;0.3769;0.9650;
982.5000;0.3769;0.9601;
982.8000;0.3777;0.9626;
983.1000;0.3785;0.9626;
983.4000;0.3875;0.9798;
983.7000;0.3818;0.9700;
984.0000;0.3728;0.9477;
984.3000;0.3753;0.9477;
984.6000;0.3761;0.9502;
984.9000;0.3736;0.9428;
985.2000;0.3761;0.9428;
985.5000;0.3769;0.9453;
985.8000;0.3753;0.9403;
986.1000;0.3769;0.9502;
986.4000;0.3785;0.9552;
986.7000;0.3769;0.9552;
987.0000;0.3777;0.9453;
987.3000;0.3785;0.9453;
987.6000;0.3777;0.9354;
987.9000;0.3785;0.9428;
988.2000;0.3818;0.9502;
988.5000;0.3753;0.9379;
988.8000;0.3785;0.9453;
989.1000;0.3818;0.9477;
989.4000;0.3777;0.9428;
989.7000;0.3769;0.9477;
990.0000;0.3769;0.9502;
990.3000;0.3744;0.9453;
990.6000;0.3777;0.9552;
990.9000;0.3736;0.9453;
991.2000;0.3712;0.9280;
991.5000;0.3777;0.9453;
991.8000;0.3777;0.9502;
992.1000;0.3777;0.9527;
992.4000;0.3777;0.9601;
992.7000;0.3769;0.9601;
993.0000;0.3810;0.9650;
993.3000;0.3785;0.9502;
993.6000;0.3761;0.9453;
993.9000;0.3753;0.9477;
994.2000;0.3793;0.9576;
994.5000;0.3785;0.9552;
994.8000;0.3769;0.9477;
995.1000;0.3793;0.9477;
995.4000;0.3777;0.9477;
995.7000;0.3858;0.9749;
996.0000;0.3761;0.9552;
996.3000;0.3818;0.9601;
996.6000;0.3777;0.9552;
996.9000;0.3761;0.9601;
997.2000;0.3785;0.9749;
997.5000;0.3777;0.9774;
997.8000;0.3769;0.9774;
998.1000;0.3769;0.9848;
998.4000;0.3761;0.9724;
998.7000;0.3858;0.9996;
999.0000;0.3761;0.9724;
999.3000;0.3777;0.9798;
999.6000;0.3744;0.9724;
999.9000;0.3736;0.9749;
1000.2000;0.3769;0.9798;
1000.5000;0.3769;0.9724;
1000.8000;0.3785;0.9724;
1001.1000;0.3761;0.9700;
1001.4000;0.3753;0.9724;
1001.7000;0.3712;0.9700;
1002.0000;0.3736;0.9700;
1002.3000;0.3753;0.9700;
1002.6000;0.3744;0.9650;
1002.9000;0.3801;0.9848;
1003.2000;0.3753;0.9724;
1003.5000;0.3769;0.9798;
1003.8000;0.3769;0.9823;
1004.1000;0.3744;0.9724;
1004.4000;0.3761;0.9798;
1004.7000;0.3785;0.9848;
1005.0000;0.3728;0.9700;
1005.3000;0.3769;0.9700;
1005.6000;0.3753;0.9601;
1005.9000;0.3777;0.9626;
1006.2000;0.3793;0.9700;
1006.5000;0.3687;0.9453;
1006.8000;0.3720;0.9379;
1007.1000;0.3769;0.9477;
1007.4000;0.3769;0.9477;
1007.7000;0.3769;0.9428;
1008.0000;0.3793;0.9477;
1008.3000;0.3761;0.9428;
1008.6000;0.3793;0.9552;
1008.9000;0.3769;0.9502;
1009.2000;0.3785;0.9650;
1009.5000;0.3761;0.9552;
1009.8000;0.3777;0.9601;
1010.1000;0.3761;0.9428;
1010.4000;0.3777;0.9502;
1010.7000;0.3785;0.9576;
1011.0000;0.3801;0.9650;
1011.3000;0.3785;0.9527;
1011.6000;0.3818;0.9675;
1011.9000;0.3769;0.9477;
1012.2000;0.3785;0.9601;
1012.5000;0.3793;0.9626;
1012.8000;0.3753;0.9601;
1013.1000;0.3785;0.9601;
1013.4000;0.3736;0.9576;
1013.7000;0.3777;0.9552;
1014.0000;0.3761;0.9477;
1014.3000;0.3793;0.9527;
1014.6000;0.3744;0.9453;
1014.9000;0.3753;0.9527;
1015.2000;0.3785;0.9502;
1015.5000;0.3753;0.9552;
1015.8000;0.3736;0.9576;
1016.1000;0.3761;0.9675;
1016.4000;0.3834;0.9798;
1016.7000;0.3810;0.9675;
1017.0000;0.3785;0.9576;
1017.3000;0.3769;0.9527;
1017.6000;0.3728;0.9354;
1017.9000;0.3753;0.9379;
1018.2000;0.3736;0.9329;
1018.5000;0.3769;0.9354;
1018.8000;0.3777;0.9453;
1019.1000;0.3744;0.9502;
1019.4000;0.3761;0.9527;
1019.7000;0.3761;0.9527;
1020.0000;0.3769;0.9601;
1020.3000;0.3777;0.9626;
1020.6000;0.3785;0.9601;
1020.9000;0.3777;0.9527;
1021.2000;0.3753;0.9502;
1021.5000;0.3761;0.9552;
1021.8000;0.3712;0.9453;
1022.1000;0.3883;0.9897;
1022.4000;0.3785;0.9552;
1022.7000;0.3818;0.9626;
1023.0000;0.3720;0.9453;
1023.3000;0.3769;0.9453;
1023.6000;0.3777;0.9428;
1023.9000;0.3753;0.9477;
1024.2000;0.3793;0.9601;
1024.5000;0.3777;0.9601;
1024.8000;0.3785;0.9502;
1025.1000;0.3777;0.9477;
1025.4000;0.3785;0.9552;
1025.7000;0.3793;0.9601;
1026.0000;0.3810;0.9675;
1026.3000;0.3793;0.9675;
1026.6000;0.3777;0.9675;
1026.9000;0.3801;0.9749;
1027.2000;0.3793;0.9774;
1027.5000;0.3728;0.9675;
1027.8000;0.3777;0.9823;
1028.1000;0.3761;0.9724;
1028.4000;0.3753;0.9749;
1028.7000;0.3769;0.9798;
1029.0000;0.3769;0.9823;
1029.3000;0.3728;0.9724;
1029.6000;0.3761;0.9848;
1029.9000;0.3761;0.9823;
1030.2000;0.3777;0.9872;
1030.5000;0.3761;0.9848;
1030.8000;0.3761;0.9798;
1031.1000;0.3777;0.9724;
1031.4000;0.3777;0.9700;
1031.7000;0.3769;0.9700;
1032.0000;0.3744;0.9700;
1032.3000;0.3769;0.9774;
1032.6000;0.3744;0.9774;
1032.9000;0.3777;0.9774;
1033.2000;0.3744;0.9724;
1033.5000;0.3769;0.9823;
1033.8000;0.3777;0.9897;
1034.1000;0.3777;0.9897;
1034.4000;0.3793;0.9971;
1034.7000;0.3761;0.9823;
1035.0000;0.3769;0.9823;
1035.3000;0.3769;0.9798;
1035.6000;0.3761;0.9724;
1035.9000;0.3777;0.9700;
1036.2000;0.3777;0.9749;
1036.5000;0.3696;0.9477;
1036.8000;0.3769;0.9675;
1037.1000;0.3769;0.9626;
1037.4000;0.3793;0.9601;
1037.7000;0.3777;0.9576;
1038.0000;0.3777;0.9650;
1038.3000;0.3785;0.9650;
1038.6000;0.3801;0.9675;
1038.9000;0.3777;0.9675;
1039.2000;0.3769;0.9724;
1039.5000;0.3761;0.9675;
1039.8000;0.3761;0.9724;
1040.1000;0.3777;0.9700;
1040.4000;0.3769;0.9576;
1040.7000;0.3769;0.9650;
1041.0000;0.3785;0.9675;
1041.3000;0.3785;0.9675;
1041.6000;0.3769;0.9675;
1041.9000;0.3761;0.9724;
1042.2000;0.3753;0.9724;
1042.5000;0.3769;0.9700;
1042.8000;0.3769;0.9650;
1043.1000;0.3761;0.9601;
1043.4000;0.3761;0.9675;
1043.7000;0.3777;0.9749;
1044.0000;0.3777;0.9798;
1044.3000;0.3777;0.9823;
1044.6000;0.3793;0.9823;
1044.9000;0.3777;0.9724;
1045.2000;0.3769;0.9774;
1045.5000;0.3761;0.9823;
1045.8000;0.3744;0.9798;
1046.1000;0.3793;0.9897;
1046.4000;0.3777;0.9848;
1046.7000;0.3753;0.9774;
1047.0000;0.3769;0.9798;
1047.3000;0.3777;0.9749;
1047.6000;0.3801;0.9774;
1047.9000;0.3761;0.9724;
1048.2000;0.3793;0.9848;
1048.5000;0.3769;0.9798;
1048.8000;0.3801;0.9897;
1049.1000;0.3785;0.9774;
1049.4000;0.3769;0.9823;
1049.7000;0.3777;0.9848;
1050.0000;0.3777;0.9823;
1050.3000;0.3785;0.9872;
1050.6000;0.3769;0.9897;
1050.9000;0.3761;0.9872;
1051.2000;0.3785;0.9971;
1051.5000;0.3826;0.9946;
1051.8000;0.3761;0.9724;
1052.1000;0.3696;0.9576;
1052.4000;0.3753;0.9675;
1052.7000;0.3785;0.9675;
1053.0000;0.3736;0.9675;
1053.3000;0.3761;0.9700;
1053.6000;0.3753;0.9823;
1053.9000;0.3761;0.9922;
1054.2000;0.3769;0.9996;
1054.5000;0.3769;0.9996;
1054.8000;0.3744;0.9971;
1055.1000;0.3793;1.0045;
1055.4000;0.3753;0.9897;
1055.7000;0.3761;0.9848;
1056.0000;0.3761;0.9774;
1056.3000;0.3753;0.9626;
1056.6000;0.3769;0.9576;
1056.9000;0.3744;0.9552;
1057.2000;0.3769;0.9650;
1057.5000;0.3769;0.9626;
1057.8000;0.3761;0.9552;
1058.1000;0.3769;0.9576;
1058.4000;0.3761;0.9502;
1058.7000;0.3777;0.9527;
1059.0000;0.3785;0.9502;
1059.3000;0.3801;0.9576;
1059.6000;0.3769;0.9502;
1059.9000;0.3777;0.9502;
1060.2000;0.3834;0.9675;
1060.5000;0.3777;0.9576;
1060.8000;0.3810;0.9675;
1061.1000;0.3761;0.9626;
1061.4000;0.3761;0.9650;
1061.7000;0.3769;0.9626;
1062.0000;0.3753;0.9700;
1062.3000;0.3736;0.9552;
1062.6000;0.3761;0.9527;
1062.9000;0.3753;0.9477;
1063.2000;0.3769;0.9502;
1063.5000;0.3769;0.9502;
1063.8000;0.3769;0.9601;
1064.1000;0.3785;0.9675;
1064.4000;0.3769;0.9626;
1064.7000;0.3761;0.9626;
1065.0000;0.3769;0.9626;
1065.3000;0.3769;0.9724;
1065.6000;0.3761;0.9650;
1065.9000;0.3777;0.9675;
1066.2000;0.3834;0.9798;
1066.5000;0.3704;0.9477;
1066.8000;0.3777;0.9650;
1067.1000;0.3687;0.9379;
1067.4000;0.3761;0.9552;
1067.7000;0.3777;0.9527;
1068.0000;0.3761;0.9502;
1068.3000;0.3744;0.9552;
1068.6000;0.3720;0.9403;
1068.9000;0.3769;0.9527;
1069.2000;0.3696;0.9354;
1069.5000;0.3777;0.9502;
1069.8000;0.3826;0.9774;
1070.1000;0.3801;0.9700;
1070.4000;0.3769;0.9700;
1070.7000;0.3753;0.9798;
1071.0000;0.3801;0.9848;
1071.3000;0.3777;0.9897;
1071.6000;0.3769;0.9872;
1071.9000;0.3785;0.9823;
1072.2000;0.3777;0.9872;
1072.5000;0.3769;0.9823;
1072.8000;0.3785;0.9798;
1073.1000;0.3753;0.9724;
1073.4000;0.3858;0.9971;
1073.7000;0.3769;0.9675;
1074.0000;0.3777;0.9650;
1074.3000;0.3769;0.9700;
1074.6000;0.3753;0.9700;
1074.9000;0.3777;0.9724;
1075.2000;0.3769;0.9724;
1075.5000;0.3753;0.9552;
1075.8000;0.3777;0.9527;
1076.1000;0.3769;0.9675;
1076.4000;0.3777;0.9749;
1076.7000;0.3777;0.9576;
1077.0000;0.3785;0.9576;
1077.3000;0.3769;0.9527;
1077.6000;0.3785;0.9576;
1077.9000;0.3842;0.9774;
1078.2000;0.3761;0.9650;
1078.5000;0.3777;0.9576;
1078.8000;0.3753;0.9601;
1079.1000;0.3785;0.9675;
1079.4000;0.3728;0.9502;
1079.7000;0.3753;0.9453;
1080.0000;0.3736;0.9379;
1080.3000;0.3761;0.9453;
1080.6000;0.3769;0.9403;
1080.9000;0.3744;0.9379;
1081.2000;0.3769;0.9576;
1081.5000;0.3793;0.9650;
1081.8000;0.3769;0.9601;
1082.1000;0.3785;0.9650;
1082.4000;0.3785;0.9502;
1082.7000;0.3785;0.9626;
1083.0000;0.3769;0.9576;
1083.3000;0.3753;0.9477;
1083.6000;0.3785;0.9527;
1083.9000;0.3785;0.9428;
1084.2000;0.3744;0.9280;
1084.5000;0.3753;0.9354;
1084.8000;0.3761;0.9379;
1085.1000;0.3744;0.9280;
1085.4000;0.3769;0.9329;
1085.7000;0.3769;0.9354;
1086.0000;0.3761;0.9403;
1086.3000;0.3769;0.9403;
1086.6000;0.3769;0.9428;
1086.9000;0.3785;0.9477;
1087.2000;0.3769;0.9428;
1087.5000;0.3769;0.9453;
1087.8000;0.3761;0.9428;
1088.1000;0.3777;0.9552;
1088.4000;0.3753;0.9453;
1088.7000;0.3753;0.9502;
1089.0000;0.3744;0.9552;
1089.3000;0.3769;0.9650;
1089.6000;0.3744;0.9502;
1089.9000;0.3761;0.9502;
1090.2000;0.3761;0.9527;
1090.5000;0.3777;0.9626;
1090.8000;0.3744;0.9626;
1091.1000;0.3744;0.9601;
1091.4000;0.3736;0.9552;
1091.7000;0.3761;0.9626;
1092.0000;0.3769;0.9626;
1092.3000;0.3761;0.9700;
1092.6000;0.3744;0.9724;
1092.9000;0.3744;0.9774;
1093.2000;0.3736;0.9774;
1093.5000;0.3744;0.9848;
1093.8000;0.3753;0.9798;
1094.1000;0.3761;0.9749;
1094.4000;0.3761;0.9650;
1094.7000;0.3761;0.9626;
1095.0000;0.3769;0.9576;
1095.3000;0.3769;0.9552;
1095.6000;0.3736;0.9502;
1095.9000;0.3761;0.9626;
1096.2000;0.3753;0.9626;
1096.5000;0.3761;0.9626;
1096.8000;0.3728;0.9552;
1097.1000;0.3777;0.9700;
1097.4000;0.3761;0.9477;
1097.7000;0.3753;0.9379;
1098.0000;0.3793;0.9502;
1098.3000;0.3769;0.9453;
1098.6000;0.3769;0.9527;
1098.9000;0.3696;0.9354;
1099.2000;0.3744;0.9403;
1099.5000;0.3696;0.9379;
1099.8000;0.3769;0.9477;
1100.1000;0.3785;0.9477;
1100.4000;0.3769;0.9502;
1100.7000;0.3785;0.9527;
1101.0000;0.3818;0.9552;
1101.3000;0.3753;0.9453;
1101.6000;0.3793;0.9502;
1101.9000;0.3777;0.9453;
1102.2000;0.3769;0.9477;
1102.5000;0.3785;0.9403;
1102.8000;0.3777;0.9403;
1103.1000;0.3744;0.9379;
1103.4000;0.3777;0.9477;
1103.7000;0.3785;0.9527;
1104.0000;0.3769;0.9428;
1104.3000;0.3769;0.9428;
1104.6000;0.3769;0.9502;
1104.9000;0.3761;0.9675;
1105.2000;0.3712;0.9601;
1105.5000;0.3769;0.9626;
1105.8000;0.3728;0.9477;
1106.1000;0.3753;0.9453;
1106.4000;0.3728;0.9453;
1106.7000;0.3712;0.9354;
1107.0000;0.3769;0.9428;
1107.3000;0.3744;0.9379;
1107.6000;0.3720;0.9305;
1107.9000;0.3744;0.9329;
1108.2000;0.3744;0.9403;
1108.5000;0.3769;0.9354;
1108.8000;0.3867;0.9626;
1109.1000;0.3785;0.9329;
1109.4000;0.3793;0.9354;
1109.7000;0.3753;0.9329;
1110.0000;0.3769;0.9379;
1110.3000;0.3777;0.9428;
1110.6000;0.3744;0.9403;
1110.9000;0.3753;0.9453;
1111.2000;0.3761;0.9502;
1111.5000;0.3801;0.9626;
1111.8000;0.3777;0.9626;
1112.1000;0.3753;0.9626;
1112.4000;0.3769;0.9650;
1112.7000;0.3785;0.9650;
1113.0000;0.3785;0.9576;
1113.3000;0.3785;0.9552;
1113.6000;0.3867;0.9700;
1113.9000;0.3696;0.9379;
1114.2000;0.3753;0.9552;
1114.5000;0.3785;0.9477;
1114.8000;0.3712;0.9305;
1115.1000;0.3769;0.9428;
1115.4000;0.3769;0.9453;
1115.7000;0.3744;0.9329;
1116.0000;0.3769;0.9428;
1116.3000;0.3753;0.9428;
1116.6000;0.3777;0.9403;
1116.9000;0.3842;0.9527;
1117.2000;0.3753;0.9403;
1117.5000;0.3769;0.9453;
1117.8000;0.3687;0.9231;
1118.1000;0.3744;0.9453;
1118.4000;0.3744;0.9552;
1118.7000;0.3744;0.9477;
1119.0000;0.3761;0.9379;
1119.3000;0.3769;0.9379;
1119.6000;0.3761;0.9428;
1119.9000;0.3785;0.9527;
1120.2000;0.3777;0.9477;
1120.5000;0.3777;0.9502;
1120.8000;0.3777;0.9502;
1121.1000;0.3777;0.9576;
1121.4000;0.3785;0.9527;
1121.7000;0.3712;0.9305;
1122.0000;0.3785;0.9527;
1122.3000;0.3777;0.9527;
1122.6000;0.3818;0.9650;
1122.9000;0.3728;0.9428;
1123.2000;0.3753;0.9403;
1123.5000;0.3769;0.9502;
1123.8000;0.3867;0.9749;
1124.1000;0.3761;0.9477;
1124.4000;0.3761;0.9502;
1124.7000;0.3785;0.9626;
1125.0000;0.3761;0.9576;
1125.3000;0.3769;0.9601;
1125.6000;0.3736;0.9552;
1125.9000;0.3753;0.9477;
1126.2000;0.3769;0.9601;
1126.5000;0.3801;0.9749;
1126.8000;0.3720;0.9527;
1127.1000;0.3761;0.9576;
1127.4000;0.3761;0.9576;
1127.7000;0.3777;0.9601;
1128.0000;0.3753;0.9428;
1128.3000;0.3769;0.9502;
1128.6000;0.3761;0.9552;
1128.9000;0.3753;0.9527;
1129.2000;0.3777;0.9477;
1129.5000;0.3769;0.9453;
1129.8000;0.3834;0.9601;
1130.1000;0.3793;0.9453;
1130.4000;0.3761;0.9329;
1130.7000;0.3769;0.9403;
1131.0000;0.3753;0.9403;
1131.3000;0.3753;0.9453;
1131.6000;0.3818;0.9675;
1131.9000;0.3769;0.9650;
1132.2000;0.3761;0.9650;
1132.5000;0.3777;0.9675;
1132.8000;0.3777;0.9700;
1133.1000;0.3736;0.9675;
1133.4000;0.3753;0.9650;
1133.7000;0.3753;0.9626;
1134.0000;0.3777;0.9675;
1134.3000;0.3777;0.9675;
1134.6000;0.3785;0.9700;
1134.9000;0.3712;0.9576;
1135.2000;0.3728;0.9477;
1135.5000;0.3736;0.9576;
1135.8000;0.3736;0.9700;
1136.1000;0.3769;0.9774;
1136.4000;0.3761;0.9601;
1136.7000;0.3753;0.9601;
1137.0000;0.3753;0.9626;
1137.3000;0.3818;0.9798;
1137.6000;0.3785;0.9749;
1137.9000;0.3728;0.9626;
1138.2000;0.3761;0.9749;
1138.5000;0.3761;0.9774;
1138.8000;0.3744;0.9823;
1139.1000;0.3736;0.9798;
1139.4000;0.3769;0.9823;
1139.7000;0.3769;0.9823;
1140.0000;0.3834;0.9897;
1140.3000;0.3744;0.9774;
1140.6000;0.3761;0.9724;
1140.9000;0.3761;0.9650;
1141.2000;0.3761;0.9552;
1141.5000;0.3769;0.9527;
1141.8000;0.3753;0.9453;
1142.1000;0.3777;0.9477;
1142.4000;0.3785;0.9527;
1142.7000;0.3777;0.9527;
1143.0000;0.3769;0.9502;
1143.3000;0.3744;0.9477;
1143.6000;0.3777;0.9552;
1143.9000;0.3720;0.9502;
1144.2000;0.3769;0.9700;
1144.5000;0.3769;0.9700;
1144.8000;0.3744;0.9626;
1145.1000;0.3753;0.9626;
1145.4000;0.3777;0.9749;
1145.7000;0.3777;0.9724;
1146.0000;0.3761;0.9650;
1146.3000;0.3753;0.9749;
1146.6000;0.3818;0.9848;
1146.9000;0.3720;0.9552;
1147.2000;0.3753;0.9700;
1147.5000;0.3777;0.9798;
1147.8000;0.3867;1.0094;
1148.1000;0.3818;0.9922;
1148.4000;0.3761;0.9724;
1148.7000;0.3801;0.9749;
1149.0000;0.3793;0.9650;
1149.3000;0.3761;0.9675;
1149.6000;0.3769;0.9675;
1149.9000;0.3769;0.9601;
1150.2000;0.3769;0.9576;
1150.5000;0.3769;0.9700;
1150.8000;0.3761;0.9798;
1151.1000;0.3785;0.9798;
1151.4000;0.3801;0.9872;
1151.7000;0.3777;0.9798;
1152.0000;0.3769;0.9798;
1152.3000;0.3769;0.9848;
1152.6000;0.3777;0.9897;
1152.9000;0.3777;0.9798;
1153.2000;0.3753;0.9675;
1153.5000;0.3777;0.9650;
1153.8000;0.3761;0.9601;
1154.1000;0.3785;0.9675;
1154.4000;0.3777;0.9576;
1154.7000;0.3761;0.9576;
1155.0000;0.3777;0.9675;
1155.3000;0.3777;0.9749;
1155.6000;0.3777;0.9724;
1155.9000;0.3777;0.9749;
1156.2000;0.3761;0.9749;
1156.5000;0.3777;0.9823;
1156.8000;0.3777;0.9798;
1157.1000;0.3753;0.9774;
1157.4000;0.3753;0.9650;
1157.7000;0.3753;0.9626;
1158.0000;0.3761;0.9576;
1158.3000;0.3753;0.9527;
1158.6000;0.3744;0.9552;
1158.9000;0.3769;0.9502;
1159.2000;0.3769;0.9552;
1159.5000;0.3761;0.9576;
1159.8000;0.3753;0.9477;
1160.1000;0.3704;0.9379;
1160.4000;0.3744;0.9576;
1160.7000;0.3753;0.9675;
1161.0000;0.3753;0.9650;
1161.3000;0.3761;0.9576;
1161.6000;0.3744;0.9379;
1161.9000;0.3777;0.9428;
1162.2000;0.3728;0.9305;
1162.5000;0.3769;0.9428;
1162.8000;0.3785;0.9477;
1163.1000;0.3753;0.9477;
1163.4000;0.3769;0.9354;
1163.7000;0.3753;0.9379;
1164.0000;0.3858;0.9700;
1164.3000;0.3777;0.9552;
1164.6000;0.3769;0.9601;
1164.9000;0.3744;0.9576;
1165.2000;0.3744;0.9576;
1165.5000;0.3785;0.9749;
1165.8000;0.3753;0.9774;
1166.1000;0.3785;0.9798;
1166.4000;0.3785;0.9872;
1166.7000;0.3777;0.9848;
1167.0000;0.3761;0.9749;
1167.3000;0.3785;0.9774;
1167.6000;0.3744;0.9724;
1167.9000;0.3753;0.9724;
1168.2000;0.3744;0.9774;
1168.5000;0.3810;0.9848;
1168.8000;0.3761;0.9700;
1169.1000;0.3769;0.9626;
1169.4000;0.3761;0.9626;
1169.7000;0.3769;0.9724;
1170.0000;0.3761;0.9774;
1170.3000;0.3744;0.9626;
1170.6000;0.3818;0.9774;
1170.9000;0.3761;0.9626;
1171.2000;0.3753;0.9552;
1171.5000;0.3753;0.9552;
1171.8000;0.3769;0.9601;
1172.1000;0.3769;0.9502;
1172.4000;0.3769;0.9502;
1172.7000;0.3753;0.9453;
1173.0000;0.3761;0.9527;
1173.3000;0.3753;0.9502;
1173.6000;0.3769;0.9552;
1173.9000;0.3753;0.9527;
1174.2000;0.3761;0.9453;
1174.5000;0.3769;0.9502;
1174.8000;0.3761;0.9453;
1175.1000;0.3761;0.9576;
1175.4000;0.3744;0.9650;
1175.7000;0.3753;0.9675;
1176.0000;0.3769;0.9650;
1176.3000;0.3753;0.9650;
1176.6000;0.3761;0.9675;
1176.9000;0.3769;0.9700;
1177.2000;0.3793;0.9823;
1177.5000;0.3761;0.9823;
1177.8000;0.3761;0.9798;
1178.1000;0.3761;0.9848;
1178.4000;0.3769;0.9872;
1178.7000;0.3785;0.9848;
1179.0000;0.3777;0.9798;
1179.3000;0.3761;0.9724;
1179.6000;0.3769;0.9601;
1179.9000;0.3761;0.9650;
1180.2000;0.3753;0.9700;
1180.5000;0.3736;0.9601;
1180.8000;0.3769;0.9576;
1181.1000;0.3753;0.9477;
1181.4000;0.3777;0.9527;
1181.7000;0.3777;0.9502;
1182.0000;0.3769;0.9527;
1182.3000;0.3761;0.9477;
1182.6000;0.3769;0.9552;
1182.9000;0.3777;0.9552;
1183.2000;0.3769;0.9527;
1183.5000;0.3761;0.9527;
1183.8000;0.3777;0.9626;
1184.1000;0.3793;0.9650;
1184.4000;0.3761;0.9601;
1184.7000;0.3761;0.9724;
1185.0000;0.3753;0.9774;
1185.3000;0.3769;0.9724;
1185.6000;0.3761;0.9749;
1185.9000;0.3753;0.9774;
1186.2000;0.3687;0.9576;
1186.5000;0.3753;0.9749;
1186.8000;0.3753;0.9700;
1187.1000;0.3769;0.9626;
1187.4000;0.3769;0.9675;
1187.7000;0.3769;0.9774;
1188.0000;0.3720;0.9626;
1188.3000;0.3761;0.9626;
1188.6000;0.3777;0.9749;
1188.9000;0.3761;0.9848;
1189.2000;0.3761;0.9798;
1189.5000;0.3753;0.9798;
1189.8000;0.3720;0.9749;
1190.1000;0.3761;0.9823;
1190.4000;0.3769;0.9872;
1190.7000;0.3744;0.9798;
1191.0000;0.3761;0.9749;
1191.3000;0.3744;0.9675;
1191.6000;0.3769;0.9749;
1191.9000;0.3761;0.9626;
1192.2000;0.3761;0.9650;
1192.5000;0.3744;0.9700;
1192.8000;0.3769;0.9650;
1193.1000;0.3785;0.9749;
1193.4000;0.3761;0.9700;
1193.7000;0.3761;0.9749;
1194.0000;0.3761;0.9700;
1194.3000;0.3761;0.9700;
1194.6000;0.3761;0.9626;
1194.9000;0.3769;0.9576;
1195.2000;0.3753;0.9527;
1195.5000;0.3744;0.9502;
1195.8000;0.3769;0.9552;
1196.1000;0.3704;0.9502;
1196.4000;0.3736;0.9601;
1196.7000;0.3753;0.9675;
1197.0000;0.3769;0.9626;
1197.3000;0.3769;0.9552;
1197.6000;0.3753;0.9552;
1197.9000;0.3753;0.9527;
1198.2000;0.3785;0.9576;
1198.5000;0.3753;0.9428;
1198.8000;0.3769;0.9477;
1199.1000;0.3842;0.9848;
1199.4000;0.3761;0.9626;
1199.7000;0.3785;0.9576;
1200.0000;0.3769;0.9626;
1200.3000;0.3753;0.9675;
1200.6000;0.3769;0.9700;
1200.9000;0.3753;0.9700;
1201.2000;0.3753;0.9749;
1201.5000;0.3736;0.9749;
1201.8000;0.3769;0.9823;
1202.1000;0.3801;0.9946;
1202.4000;0.3744;0.9798;
1202.7000;0.3769;0.9798;
1203.0000;0.3712;0.9626;
1203.3000;0.3777;0.9798;
1203.6000;0.3761;0.9724;
1203.9000;0.3769;0.9724;
1204.2000;0.3744;0.9724;
1204.5000;0.3769;0.9774;
1204.8000;0.3801;0.9872;
1205.1000;0.3744;0.9675;
1205.4000;0.3761;0.9749;
1205.7000;0.3761;0.9823;
1206.0000;0.3761;0.9798;
1206.3000;0.3769;0.9774;
1206.6000;0.3761;0.9774;
1206.9000;0.3736;0.9749;
1207.2000;0.3753;0.9798;
1207.5000;0.3736;0.9749;
1207.8000;0.3753;0.9774;
1208.1000;0.3883;1.0119;
1208.4000;0.3744;0.9848;
1208.7000;0.3769;0.9848;
1209.0000;0.3761;0.9724;
1209.3000;0.3720;0.9552;
1209.6000;0.3761;0.9774;
1209.9000;0.3753;0.9897;
1210.2000;0.3753;0.9971;
1210.5000;0.3753;0.9897;
1210.8000;0.3744;0.9823;
1211.1000;0.3769;0.9872;
1211.4000;0.3769;0.9749;
1211.7000;0.3753;0.9700;
1212.0000;0.3769;0.9724;
1212.3000;0.3761;0.9626;
1212.6000;0.3761;0.9576;
1212.9000;0.3761;0.9626;
1213.2000;0.3761;0.9650;
1213.5000;0.3744;0.9650;
1213.8000;0.3826;0.9872;
1214.1000;0.3761;0.9650;
1214.4000;0.3761;0.9749;
1214.7000;0.3696;0.9502;
1215.0000;0.3736;0.9749;
1215.3000;0.3761;0.9749;
1215.6000;0.3769;0.9798;
1215.9000;0.3753;0.9724;
1216.2000;0.3769;0.9749;
1216.5000;0.3777;0.9774;
1216.8000;0.3777;0.9823;
1217.1000;0.3785;0.9872;
1217.4000;0.3785;0.9922;
1217.7000;0.3769;0.9897;
1218.0000;0.3712;0.9749;
1218.3000;0.3785;0.9946;
1218.6000;0.3769;0.9946;
1218.9000;0.3753;0.9872;
1219.2000;0.3777;0.9872;
1219.5000;0.3761;0.9823;
1219.8000;0.3753;0.9774;
1220.1000;0.3777;0.9872;
1220.4000;0.3769;0.9848;
1220.7000;0.3793;0.9872;
1221.0000;0.3744;0.9724;
1221.3000;0.3761;0.9749;
1221.6000;0.3777;0.9823;
1221.9000;0.3777;0.9823;
1222.2000;0.3728;0.9675;
1222.5000;0.3761;0.9700;
1222.8000;0.3720;0.9527;
1223.1000;0.3858;0.9922;
1223.4000;0.3769;0.9601;
1223.7000;0.3769;0.9601;
1224.0000;0.3736;0.9552;
1224.3000;0.3769;0.9626;
1224.6000;0.3753;0.9601;
1224.9000;0.3720;0.9502;
1225.2000;0.3744;0.9576;
1225.5000;0.3769;0.9601;
1225.8000;0.3655;0.9329;
1226.1000;0.3761;0.9601;
1226.4000;0.3769;0.9601;
1226.7000;0.3785;0.9675;
1227.0000;0.3744;0.9552;
1227.3000;0.3777;0.9601;
1227.6000;0.3769;0.9576;
1227.9000;0.3761;0.9650;
1228.2000;0.3777;0.9650;
1228.5000;0.3777;0.9650;
1228.8000;0.3761;0.9650;
1229.1000;0.3858;0.9897;
1229.4000;0.3753;0.9576;
1229.7000;0.3753;0.9502;
1230.0000;0.3777;0.9527;
1230.3000;0.3761;0.9601;
1230.6000;0.3793;0.9700;
1230.9000;0.3777;0.9749;
1231.2000;0.3744;0.9700;
1231.5000;0.3769;0.9724;
1231.8000;0.3728;0.9626;
1232.1000;0.3720;0.9675;
1232.4000;0.3769;0.9700;
1232.7000;0.3753;0.9601;
1233.0000;0.3761;0.9552;
1233.3000;0.3810;0.9626;
1233.6000;0.3753;0.9502;
1233.9000;0.3761;0.9576;
1234.2000;0.3769;0.9626;
1234.5000;0.3736;0.9626;
1234.8000;0.3744;0.9749;
1235.1000;0.3753;0.9626;
1235.4000;0.3736;0.9502;
1235.7000;0.3736;0.9576;
1236.0000;0.3777;0.9675;
1236.3000;0.3744;0.9626;
1236.6000;0.3753;0.9527;
1236.9000;0.3793;0.9626;
1237.2000;0.3761;0.9552;
1237.5000;0.3712;0.9453;
1237.8000;0.3744;0.9527;
1238.1000;0.3761;0.9502;
1238.4000;0.3777;0.9502;
1238.7000;0.3769;0.9576;
1239.0000;0.3761;0.9527;
1239.3000;0.3761;0.9502;
1239.6000;0.3736;0.9502;
1239.9000;0.3753;0.9552;
1240.2000;0.3736;0.9527;
1240.5000;0.3744;0.9601;
1240.8000;0.3687;0.9502;
1241.1000;0.3761;0.9601;
1241.4000;0.3744;0.9576;
1241.7000;0.3769;0.9601;
1242.0000;0.3769;0.9576;
1242.3000;0.3785;0.9626;
1242.6000;0.3810;0.9700;
1242.9000;0.3663;0.9379;
1243.2000;0.3761;0.9650;
1243.5000;0.3728;0.9502;
1243.8000;0.3801;0.9749;
1244.1000;0.3777;0.9700;
1244.4000;0.3769;0.9774;
1244.7000;0.3769;0.9823;
1245.0000;0.3769;0.9798;
1245.3000;0.3753;0.9774;
1245.6000;0.3736;0.9626;
1245.9000;0.3785;0.9774;
1246.2000;0.3744;0.9650;
1246.5000;0.3761;0.9626;
1246.8000;0.3753;0.9626;
1247.1000;0.3736;0.9552;
1247.4000;0.3744;0.9576;
1247.7000;0.3736;0.9576;
1248.0000;0.3753;0.9650;
1248.3000;0.3720;0.9552;
1248.6000;0.3769;0.9675;
1248.9000;0.3761;0.9675;
1249.2000;0.3761;0.9700;
1249.5000;0.3777;0.9675;
1249.8000;0.3753;0.9675;
1250.1000;0.3793;0.9798;
1250.4000;0.3769;0.9798;
1250.7000;0.3687;0.9675;
1251.0000;0.3753;0.9774;
1251.3000;0.3785;0.9798;
1251.6000;0.3761;0.9774;
1251.9000;0.3793;0.9872;
1252.2000;0.3826;1.0020;
1252.5000;0.3744;0.9823;
1252.8000;0.3769;0.9848;
1253.1000;0.3712;0.9675;
1253.4000;0.3753;0.9724;
1253.7000;0.3753;0.9675;
1254.0000;0.3761;0.9675;
1254.3000;0.3826;0.9897;
1254.6000;0.3793;0.9774;
1254.9000;0.3785;0.9724;
1255.2000;0.3777;0.9650;
1255.5000;0.3777;0.9626;
1255.8000;0.3769;0.9650;
1256.1000;0.3753;0.9601;
1256.4000;0.3769;0.9626;
1256.7000;0.3785;0.9650;
1257.0000;0.3858;0.9823;
1257.3000;0.3753;0.9527;
1257.6000;0.3753;0.9601;
1257.9000;0.3761;0.9650;
1258.2000;0.3769;0.9650;
1258.5000;0.3769;0.9700;
1258.8000;0.3736;0.9650;
1259.1000;0.3761;0.9724;
1259.4000;0.3753;0.9798;
1259.7000;0.3761;0.9798;
1260.0000;0.3753;0.9774;
1260.3000;0.3744;0.9749;
1260.6000;0.3769;0.9823;
1260.9000;0.3736;0.9700;
1261.2000;0.3769;0.9749;
1261.5000;0.3769;0.9724;
1261.8000;0.3769;0.9700;
1262.1000;0.3753;0.9749;
1262.4000;0.3753;0.9749;
1262.7000;0.3744;0.9724;
1263.0000;0.3753;0.9724;
1263.3000;0.3769;0.9724;
1263.6000;0.3753;0.9576;
1263.9000;0.3769;0.9626;
1264.2000;0.3753;0.9576;
1264.5000;0.3761;0.9700;
1264.8000;0.3736;0.9601;
1265.1000;0.3801;0.9675;
1265.4000;0.3793;0.9724;
1265.7000;0.3801;0.9700;
1266.0000;0.3785;0.9601;
1266.3000;0.3744;0.9453;
1266.6000;0.3761;0.9626;
1266.9000;0.3785;0.9675;
1267.2000;0.3793;0.9700;
1267.5000;0.3793;0.9724;
1267.8000;0.3761;0.9749;
1268.1000;0.3769;0.9724;
1268.4000;0.3793;0.9749;
1268.7000;0.3761;0.9675;
1269.0000;0.3753;0.9650;
1269.3000;0.3777;0.9675;
1269.6000;0.3777;0.9626;
1269.9000;0.3736;0.9552;
1270.2000;0.3769;0.9601;
1270.5000;0.3744;0.9626;
1270.8000;0.3753;0.9700;
1271.1000;0.3777;0.9675;
1271.4000;0.3801;0.9700;
1271.7000;0.3744;0.9477;
1272.0000;0.3753;0.9453;
1272.3000;0.3744;0.9329;
1272.6000;0.3769;0.9305;
1272.9000;0.3777;0.9329;
1273.2000;0.3704;0.9181;
1273.5000;0.3769;0.9379;
1273.8000;0.3769;0.9403;
1274.1000;0.3769;0.9403;
1274.4000;0.3826;0.9552;
1274.7000;0.3777;0.9428;
1275.0000;0.3753;0.9379;
1275.3000;0.3753;0.9502;
1275.6000;0.3818;0.9650;
1275.9000;0.3769;0.9527;
1276.2000;0.3744;0.9453;
1276.5000;0.3761;0.9428;
1276.8000;0.3761;0.9379;
1277.1000;0.3753;0.9403;
1277.4000;0.3777;0.9502;
1277.7000;0.3777;0.9477;
1278.0000;0.3753;0.9403;
1278.3000;0.3679;0.9107;
1278.6000;0.3785;0.9329;
1278.9000;0.3769;0.9280;
1279.2000;0.3728;0.9206;
1279.5000;0.3769;0.9305;
1279.8000;0.3769;0.9428;
1280.1000;0.3744;0.9428;
1280.4000;0.3761;0.9428;
1280.7000;0.3769;0.9403;
1281.0000;0.3720;0.9280;
1281.3000;0.3777;0.9477;
1281.6000;0.3793;0.9626;
1281.9000;0.3761;0.9502;
1282.2000;0.3761;0.9552;
1282.5000;0.3744;0.9453;
1282.8000;0.3769;0.9527;
1283.1000;0.3777;0.9576;
1283.4000;0.3761;0.9477;
1283.7000;0.3761;0.9502;
1284.0000;0.3785;0.9527;
1284.3000;0.3777;0.9502;
1284.6000;0.3801;0.9576;
1284.9000;0.3761;0.9527;
1285.2000;0.3785;0.9626;
1285.5000;0.3761;0.9527;
1285.8000;0.3777;0.9626;
1286.1000;0.3810;0.9675;
1286.4000;0.3761;0.9552;
1286.7000;0.3769;0.9552;
1287.0000;0.3761;0.9502;
1287.3000;0.3736;0.9403;
1287.6000;0.3777;0.9428;
1287.9000;0.3769;0.9477;
1288.2000;0.3785;0.9502;
1288.5000;0.3785;0.9502;
1288.8000;0.3769;0.9453;
1289.1000;0.3785;0.9527;
1289.4000;0.3761;0.9502;
1289.7000;0.3867;0.9749;
1290.0000;0.3769;0.9477;
1290.3000;0.3810;0.9527;
1290.6000;0.3777;0.9502;
1290.9000;0.3769;0.9428;
1291.2000;0.3769;0.9453;
1291.5000;0.3769;0.9453;
1291.8000;0.3793;0.9477;
1292.1000;0.3785;0.9527;
1292.4000;0.3777;0.9626;
1292.7000;0.3777;0.9650;
1293.0000;0.3777;0.9749;
1293.3000;0.3777;0.9650;
1293.6000;0.3777;0.9601;
1293.9000;0.3753;0.9502;
1294.2000;0.3810;0.9700;
1294.5000;0.3761;0.9626;
1294.8000;0.3777;0.9576;
1295.1000;0.3769;0.9576;
1295.4000;0.3769;0.9576;
1295.7000;0.3761;0.9502;
1296.0000;0.3687;0.9329;
1296.3000;0.3736;0.9428;
1296.6000;0.3761;0.9576;
1296.9000;0.3777;0.9650;
1297.2000;0.3744;0.9576;
1297.5000;0.3753;0.9576;
1297.8000;0.3720;0.9502;
1298.1000;0.3761;0.9428;
1298.4000;0.3753;0.9354;
1298.7000;0.3736;0.9379;
1299.0000;0.3761;0.9403;
1299.3000;0.3785;0.9428;
1299.6000;0.3769;0.9502;
1299.9000;0.3728;0.9354;
1300.2000;0.3769;0.9601;
1300.5000;0.3769;0.9724;
1300.8000;0.3785;0.9700;
1301.1000;0.3826;0.9724;
1301.4000;0.3761;0.9477;
1301.7000;0.3785;0.9601;
1302.0000;0.3785;0.9576;
1302.3000;0.3818;0.9601;
1302.6000;0.3753;0.9552;
1302.9000;0.3810;0.9675;
1303.2000;0.3777;0.9626;
1303.5000;0.3769;0.9601;
1303.8000;0.3712;0.9576;
1304.1000;0.3769;0.9675;
1304.4000;0.3761;0.9675;
1304.7000;0.3785;0.9675;
1305.0000;0.3769;0.9650;
1305.3000;0.3761;0.9576;
1305.6000;0.3777;0.9675;
1305.9000;0.3769;0.9650;
1306.2000;0.3744;0.9626;
1306.5000;0.3753;0.9675;
1306.8000;0.3753;0.9626;
1307.1000;0.3753;0.9626;
1307.4000;0.3769;0.9749;
1307.7000;0.3736;0.9749;
1308.0000;0.3736;0.9823;
1308.3000;0.3744;0.9823;
1308.6000;0.3777;0.9897;
1308.9000;0.3761;0.9848;
1309.2000;0.3736;0.9798;
1309.5000;0.3777;0.9848;
1309.8000;0.3769;0.9774;
1310.1000;0.3761;0.9724;
1310.4000;0.3753;0.9626;
1310.7000;0.3834;0.9848;
1311.0000;0.3736;0.9650;
1311.3000;0.3769;0.9700;
1311.6000;0.3777;0.9774;
1311.9000;0.3801;0.9823;
1312.2000;0.3761;0.9650;
1312.5000;0.3769;0.9700;
1312.8000;0.3753;0.9675;
1313.1000;0.3753;0.9576;
1313.4000;0.3744;0.9601;
1313.7000;0.3793;0.9626;
1314.0000;0.3753;0.9502;
1314.3000;0.3785;0.9576;
1314.6000;0.3753;0.9527;
1314.9000;0.3769;0.9527;
1315.2000;0.3761;0.9576;
1315.5000;0.3769;0.9626;
1315.8000;0.3769;0.9601;
1316.1000;0.3736;0.9502;
1316.4000;0.3753;0.9650;
1316.7000;0.3761;0.9650;
1317.0000;0.3761;0.9626;
1317.3000;0.3793;0.9675;
1317.6000;0.3761;0.9650;
1317.9000;0.3753;0.9601;
1318.2000;0.3777;0.9700;
1318.5000;0.3728;0.9576;
1318.8000;0.3777;0.9700;
1319.1000;0.3687;0.9502;
1319.4000;0.3818;0.9823;
1319.7000;0.3753;0.9749;
1320.0000;0.3842;1.0094;
1320.3000;0.3761;0.9872;
1320.6000;0.3744;0.9872;
1320.9000;0.3753;0.9996;
1321.2000;0.3761;1.0020;
1321.5000;0.3761;0.9996;
1321.8000;0.3744;0.9872;
1322.1000;0.3761;0.9872;
1322.4000;0.3753;0.9774;
1322.7000;0.3777;0.9922;
1323.0000;0.3744;0.9872;
1323.3000;0.3761;0.9872;
1323.6000;0.3761;0.9848;
1323.9000;0.3753;0.9823;
1324.2000;0.3761;0.9774;
1324.5000;0.3761;0.9848;
1324.8000;0.3761;0.9774;
1325.1000;0.3728;0.9774;
1325.4000;0.3753;0.9823;
1325.7000;0.3753;0.9848;
1326.0000;0.3753;0.9798;
1326.3000;0.3761;0.9774;
1326.6000;0.3769;0.9823;
1326.9000;0.3769;0.9798;
1327.2000;0.3696;0.9650;
1327.5000;0.3753;0.9897;
1327.8000;0.3761;0.9798;
1328.1000;0.3761;0.9872;
1328.4000;0.3769;0.9848;
1328.7000;0.3850;1.0070;
1329.0000;0.3769;0.9798;
1329.3000;0.3753;0.9823;
1329.6000;0.3761;0.9897;
1329.9000;0.3704;0.9798;
1330.2000;0.3761;0.9897;
1330.5000;0.3753;0.9823;
1330.8000;0.3744;0.9700;
1331.1000;0.3769;0.9650;
1331.4000;0.3744;0.9650;
1331.7000;0.3769;0.9675;
1332.0000;0.3793;0.9675;
1332.3000;0.3753;0.9576;
1332.6000;0.3818;0.9749;
1332.9000;0.3769;0.9700;
1333.2000;0.3769;0.9576;
1333.5000;0.3761;0.9552;
1333.8000;0.3753;0.9552;
1334.1000;0.3777;0.9650;
1334.4000;0.3769;0.9724;
1334.7000;0.3753;0.9798;
1335.0000;0.3777;0.9774;
1335.3000;0.3753;0.9700;
1335.6000;0.3753;0.9700;
1335.9000;0.3777;0.9700;
1336.2000;0.3761;0.9650;
1336.5000;0.3769;0.9774;
1336.8000;0.3753;0.9700;
1337.1000;0.3793;0.9897;
1337.4000;0.3761;0.9749;
1337.7000;0.3679;0.9601;
1338.0000;0.3744;0.9774;
1338.3000;0.3761;0.9823;
1338.6000;0.3761;0.9700;
1338.9000;0.3769;0.9749;
1339.2000;0.3761;0.9774;
1339.5000;0.3777;0.9823;
1339.8000;0.3761;0.9823;
1340.1000;0.3761;0.9749;
1340.4000;0.3785;0.9798;
1340.7000;0.3769;0.9872;
1341.0000;0.3753;0.9724;
1341.3000;0.3753;0.9774;
1341.6000;0.3598;0.9403;
1341.9000;0.3761;0.9749;
1342.2000;0.3736;0.9650;
1342.5000;0.3720;0.9576;
1342.8000;0.3679;0.9527;
1343.1000;0.3761;0.9724;
1343.4000;0.3736;0.9700;
1343.7000;0.3842;0.9996;
1344.0000;0.3810;0.9922;
1344.3000;0.3753;0.9700;
1344.6000;0.3728;0.9626;
1344.9000;0.3769;0.9724;
1345.2000;0.3753;0.9576;
1345.5000;0.3744;0.9626;
1345.8000;0.3744;0.9601;
1346.1000;0.3793;0.9650;
1346.4000;0.3777;0.9601;
1346.7000;0.3736;0.9552;
1347.0000;0.3753;0.9626;
1347.3000;0.3761;0.9601;
1347.6000;0.3761;0.9502;
1347.9000;0.3769;0.9502;
1348.2000;0.3801;0.9601;
1348.5000;0.3753;0.9502;
1348.8000;0.3761;0.9527;
1349.1000;0.3744;0.9601;
1349.4000;0.3753;0.9626;
1349.7000;0.3769;0.9626;
1350.0000;0.3753;0.9601;
1350.3000;0.3777;0.9650;
1350.6000;0.3753;0.9749;
1350.9000;0.3655;0.9477;
1351.2000;0.3712;0.9527;
1351.5000;0.3761;0.9626;
1351.8000;0.3769;0.9749;
1352.1000;0.3769;0.9798;
1352.4000;0.3785;0.9774;
1352.7000;0.3736;0.9626;
1353.0000;0.3744;0.9650;
1353.3000;0.3818;0.9823;
1353.6000;0.3785;0.9749;
1353.9000;0.3793;0.9798;
1354.2000;0.3777;0.9749;
1354.5000;0.3753;0.9724;
1354.8000;0.3785;0.9823;
1355.1000;0.3744;0.9675;
1355.4000;0.3753;0.9700;
1355.7000;0.3761;0.9700;
1356.0000;0.3753;0.9724;
1356.3000;0.3736;0.9724;
1356.6000;0.3753;0.9700;
1356.9000;0.3728;0.9897;
1357.2000;0.3769;0.9922;
1357.5000;0.3769;0.9897;
1357.8000;0.3744;0.9823;
1358.1000;0.3761;0.9848;
1358.4000;0.3753;0.9774;
1358.7000;0.3728;0.9675;
1359.0000;0.3744;0.9601;
1359.3000;0.3753;0.9626;
1359.6000;0.3777;0.9601;
1359.9000;0.3744;0.9527;
1360.2000;0.3785;0.9650;
1360.5000;0.3753;0.9650;
1360.8000;0.3761;0.9626;
1361.1000;0.3704;0.9502;
1361.4000;0.3744;0.9601;
1361.7000;0.3753;0.9675;
1362.0000;0.3761;0.9724;
1362.3000;0.3769;0.9675;
1362.6000;0.3842;0.9872;
1362.9000;0.3769;0.9626;
1363.2000;0.3769;0.9576;
1363.5000;0.3753;0.9527;
1363.8000;0.3753;0.9601;
1364.1000;0.3761;0.9675;
1364.4000;0.3744;0.9626;
1364.7000;0.3785;0.9675;
1365.0000;0.3753;0.9552;
1365.3000;0.3753;0.9650;
1365.6000;0.3744;0.9502;
1365.9000;0.3761;0.9576;
1366.2000;0.3736;0.9552;
1366.5000;0.3753;0.9477;
1366.8000;0.3687;0.9329;
1367.1000;0.3761;0.9527;
1367.4000;0.3753;0.9379;
1367.7000;0.3720;0.9403;
1368.0000;0.3761;0.9576;
1368.3000;0.3777;0.9675;
1368.6000;0.3769;0.9626;
1368.9000;0.3761;0.9626;
1369.2000;0.3761;0.9552;
1369.5000;0.3753;0.9552;
1369.8000;0.3744;0.9601;
1370.1000;0.3744;0.9650;
1370.4000;0.3777;0.9774;
1370.7000;0.3769;0.9700;
1371.0000;0.3761;0.9576;
1371.3000;0.3753;0.9576;
1371.6000;0.3744;0.9552;
1371.9000;0.3842;0.9774;
1372.2000;0.3761;0.9626;
1372.5000;0.3777;0.9601;
1372.8000;0.3761;0.9576;
1373.1000;0.3850;0.9798;
1373.4000;0.3777;0.9453;
1373.7000;0.3761;0.9379;
1374.0000;0.3761;0.9428;
1374.3000;0.3687;0.9329;
1374.6000;0.3793;0.9650;
1374.9000;0.3753;0.9552;
1375.2000;0.3777;0.9477;
1375.5000;0.3687;0.9255;
1375.8000;0.3769;0.9428;
1376.1000;0.3736;0.9428;
1376.4000;0.3761;0.9601;
1376.7000;0.3769;0.9576;
1377.0000;0.3679;0.9477;
1377.3000;0.3761;0.9724;
1377.6000;0.3753;0.9724;
1377.9000;0.3753;0.9724;
1378.2000;0.3769;0.9650;
1378.5000;0.3769;0.9650;
1378.8000;0.3753;0.9601;
1379.1000;0.3769;0.9552;
1379.4000;0.3753;0.9576;
1379.7000;0.3744;0.9626;
1380.0000;0.3761;0.9650;
1380.3000;0.3744;0.9576;
1380.6000;0.3712;0.9379;
1380.9000;0.3728;0.9477;
1381.2000;0.3744;0.9428;
1381.5000;0.3744;0.9453;
1381.8000;0.3736;0.9453;
1382.1000;0.3728;0.9403;
1382.4000;0.3761;0.9428;
1382.7000;0.3761;0.9428;
1383.0000;0.3753;0.9379;
1383.3000;0.3785;0.9576;
1383.6000;0.3761;0.9601;
1383.9000;0.3769;0.9576;
1384.2000;0.3769;0.9354;
1384.5000;0.3753;0.9305;
1384.8000;0.3753;0.9354;
1385.1000;0.3753;0.9231;
1385.4000;0.3761;0.9329;
1385.7000;0.3769;0.9305;
1386.0000;0.3744;0.9255;
1386.3000;0.3744;0.9231;
1386.6000;0.3761;0.9305;
1386.9000;0.3753;0.9305;
1387.2000;0.3761;0.9305;
1387.5000;0.3753;0.9280;
1387.8000;0.3753;0.9329;
1388.1000;0.3736;0.9403;
1388.4000;0.3753;0.9255;
1388.7000;0.3769;0.9329;
1389.0000;0.3761;0.9379;
1389.3000;0.3753;0.9379;
1389.6000;0.3777;0.9453;
1389.9000;0.3753;0.9477;
1390.2000;0.3753;0.9379;
1390.5000;0.3761;0.9477;
1390.8000;0.3753;0.9403;
1391.1000;0.3761;0.9428;
1391.4000;0.3769;0.9428;
1391.7000;0.3769;0.9379;
1392.0000;0.3761;0.9428;
1392.3000;0.3744;0.9354;
1392.6000;0.3753;0.9428;
1392.9000;0.3761;0.9552;
1393.2000;0.3753;0.9576;
1393.5000;0.3761;0.9626;
1393.8000;0.3753;0.9675;
1394.1000;0.3761;0.9675;
1394.4000;0.3761;0.9552;
1394.7000;0.3761;0.9576;
1395.0000;0.3744;0.9527;
1395.3000;0.3761;0.9576;
1395.6000;0.3769;0.9552;
1395.9000;0.3761;0.9502;
1396.2000;0.3769;0.9502;
1396.5000;0.3753;0.9552;
1396.8000;0.3769;0.9477;
1397.1000;0.3753;0.9428;
1397.4000;0.3818;0.9552;
1397.7000;0.3769;0.9329;
1398.0000;0.3777;0.9280;
1398.3000;0.3753;0.9329;
1398.6000;0.3769;0.9379;
1398.9000;0.3769;0.9305;
1399.2000;0.3777;0.9305;
1399.5000;0.3785;0.9280;
1399.8000;0.3769;0.9280;
