time/ms;Fluo/V;P700 deltaI/I x10³;
-199.8000;0.3923;0.9848;
-199.5000;0.3907;0.9922;
-199.2000;0.3932;0.9971;
-198.9000;0.3932;0.9971;
-198.6000;0.3932;1.0020;
-198.3000;0.3932;1.0070;
-198.0000;0.3932;1.0094;
-197.7000;0.3923;1.0045;
-197.4000;0.3940;1.0119;
-197.1000;0.3932;1.0119;
-196.8000;0.3964;1.0218;
-196.5000;0.3923;1.0193;
-196.2000;0.3948;1.0218;
-195.9000;0.3850;0.9971;
-195.6000;0.3915;1.0070;
-195.3000;0.3940;1.0070;
-195.0000;0.3932;1.0119;
-194.7000;0.3956;1.0070;
-194.4000;0.3940;1.0094;
-194.1000;0.3948;1.0119;
-193.8000;0.3932;0.9996;
-193.5000;0.3948;0.9996;
-193.2000;0.3948;0.9996;
-192.9000;0.3940;1.0070;
-192.6000;0.3940;1.0094;
-192.3000;0.4021;1.0169;
-192.0000;0.3940;0.9946;
-191.7000;0.3932;0.9971;
-191.4000;0.3932;0.9922;
-191.1000;0.3956;0.9946;
-190.8000;0.3940;0.9848;
-190.5000;0.3932;0.9897;
-190.2000;0.3932;0.9872;
-189.9000;0.3915;0.9872;
-189.6000;0.3923;0.9971;
-189.3000;0.3948;1.0020;
-189.0000;0.3883;0.9872;
-188.7000;0.3940;0.9971;
-188.4000;0.3883;0.9774;
-188.1000;0.3923;0.9798;
-187.8000;0.3915;0.9823;
-187.5000;0.3932;0.9996;
-187.2000;0.3932;0.9971;
-186.9000;0.3923;0.9971;
-186.6000;0.3932;0.9996;
-186.3000;0.3972;1.0144;
-186.0000;0.3932;0.9971;
-185.7000;0.3932;0.9872;
-185.4000;0.3932;0.9848;
-185.1000;0.3940;0.9922;
-184.8000;0.3899;0.9848;
-184.5000;0.3948;0.9996;
-184.2000;0.3948;1.0020;
-183.9000;0.3980;1.0144;
-183.6000;0.3867;0.9848;
-183.3000;0.3932;0.9996;
-183.0000;0.3940;0.9922;
-182.7000;0.3923;0.9848;
-182.4000;0.3956;0.9946;
-182.1000;0.3932;0.9872;
-181.8000;0.3940;0.9848;
-181.5000;0.3923;0.9823;
-181.2000;0.3956;0.9872;
-180.9000;0.3940;0.9872;
-180.6000;0.3932;0.9848;
-180.3000;0.3932;0.9823;
-180.0000;0.3932;0.9823;
-179.7000;0.3948;0.9848;
-179.4000;0.3956;0.9922;
-179.1000;0.3948;0.9897;
-178.8000;0.3980;0.9897;
-178.5000;0.3923;0.9872;
-178.2000;0.3923;0.9823;
-177.9000;0.3940;0.9774;
-177.6000;0.3997;0.9872;
-177.3000;0.4046;0.9946;
-177.0000;0.3956;0.9601;
-176.7000;0.3932;0.9626;
-176.4000;0.3948;0.9650;
-176.1000;0.3989;0.9848;
-175.8000;0.3907;0.9700;
-175.5000;0.3940;0.9872;
-175.2000;0.3948;0.9946;
-174.9000;0.3842;0.9650;
-174.6000;0.3932;0.9823;
-174.3000;0.3915;0.9798;
-174.0000;0.3956;0.9971;
-173.7000;0.3932;0.9872;
-173.4000;0.3923;0.9774;
-173.1000;0.3948;0.9749;
-172.8000;0.3956;0.9798;
-172.5000;0.3940;0.9798;
-172.2000;0.3972;0.9971;
-171.9000;0.3948;0.9823;
-171.6000;0.3964;0.9872;
-171.3000;0.3940;0.9724;
-171.0000;0.3932;0.9700;
-170.7000;0.3932;0.9724;
-170.4000;0.3932;0.9798;
-170.1000;0.3932;0.9823;
-169.8000;0.3826;0.9453;
-169.5000;0.3940;0.9650;
-169.2000;0.3932;0.9650;
-168.9000;0.3948;0.9774;
-168.6000;0.3932;0.9823;
-168.3000;0.3940;0.9922;
-168.0000;0.3923;0.9897;
-167.7000;0.3923;0.9897;
-167.4000;0.3948;0.9872;
-167.1000;0.3883;0.9675;
-166.8000;0.3940;0.9823;
-166.5000;0.3940;0.9823;
-166.2000;0.3932;0.9848;
-165.9000;0.3932;0.9922;
-165.6000;0.3956;1.0045;
-165.3000;0.3989;1.0144;
-165.0000;0.3980;1.0144;
-164.7000;0.3932;1.0094;
-164.4000;0.3899;0.9946;
-164.1000;0.3899;0.9922;
-163.8000;0.3858;0.9700;
-163.5000;0.3940;0.9897;
-163.2000;0.3915;0.9872;
-162.9000;0.3932;0.9922;
-162.6000;0.3956;0.9922;
-162.3000;0.3956;0.9922;
-162.0000;0.3940;0.9872;
-161.7000;0.3964;0.9971;
-161.4000;0.3940;0.9946;
-161.1000;0.3932;0.9922;
-160.8000;0.3948;0.9872;
-160.5000;0.3932;0.9897;
-160.2000;0.3940;0.9848;
-159.9000;0.3923;0.9848;
-159.6000;0.3891;0.9798;
-159.3000;0.3948;0.9848;
-159.0000;0.3907;0.9749;
-158.7000;0.3948;0.9749;
-158.4000;0.3932;0.9749;
-158.1000;0.3932;0.9749;
-157.8000;0.3932;0.9823;
-157.5000;0.3948;0.9872;
-157.2000;0.3948;0.9897;
-156.9000;0.3956;0.9897;
-156.6000;0.3940;0.9872;
-156.3000;0.3915;0.9798;
-156.0000;0.3964;0.9872;
-155.7000;0.3932;0.9798;
-155.4000;0.3915;0.9823;
-155.1000;0.3899;0.9774;
-154.8000;0.3923;0.9848;
-154.5000;0.3923;0.9823;
-154.2000;0.3915;0.9798;
-153.9000;0.3826;0.9477;
-153.6000;0.3932;0.9700;
-153.3000;0.3932;0.9774;
-153.0000;0.3940;0.9774;
-152.7000;0.3899;0.9576;
-152.4000;0.3907;0.9527;
-152.1000;0.3964;0.9650;
-151.8000;0.3940;0.9601;
-151.5000;0.3915;0.9626;
-151.2000;0.3915;0.9650;
-150.9000;0.3932;0.9724;
-150.6000;0.3948;0.9749;
-150.3000;0.3940;0.9774;
-150.0000;0.3940;0.9774;
-149.7000;0.3956;0.9774;
-149.4000;0.3948;0.9724;
-149.1000;0.3923;0.9700;
-148.8000;0.3932;0.9749;
-148.5000;0.3964;0.9798;
-148.2000;0.3940;0.9749;
-147.9000;0.3932;0.9675;
-147.6000;0.3940;0.9700;
-147.3000;0.3956;0.9848;
-147.0000;0.3932;0.9798;
-146.7000;0.3932;0.9749;
-146.4000;0.3899;0.9749;
-146.1000;0.3932;0.9823;
-145.8000;0.3915;0.9848;
-145.5000;0.3964;1.0045;
-145.2000;0.3948;0.9996;
-144.9000;0.3940;0.9946;
-144.6000;0.3940;0.9971;
-144.3000;0.3932;1.0045;
-144.0000;0.3932;1.0094;
-143.7000;0.3883;0.9971;
-143.4000;0.3932;1.0094;
-143.1000;0.3932;1.0020;
-142.8000;0.3932;1.0045;
-142.5000;0.3932;1.0094;
-142.2000;0.3923;1.0070;
-141.9000;0.3940;1.0045;
-141.6000;0.3948;0.9996;
-141.3000;0.3940;0.9946;
-141.0000;0.3940;0.9872;
-140.7000;0.3883;0.9675;
-140.4000;0.3923;0.9872;
-140.1000;0.3923;0.9823;
-139.8000;0.3923;0.9872;
-139.5000;0.3915;0.9872;
-139.2000;0.3956;0.9971;
-138.9000;0.3915;0.9848;
-138.6000;0.3940;0.9823;
-138.3000;0.3972;0.9897;
-138.0000;0.3940;0.9922;
-137.7000;0.3907;0.9823;
-137.4000;0.3940;0.9823;
-137.1000;0.3907;0.9798;
-136.8000;0.4021;1.0094;
-136.5000;0.3940;0.9823;
-136.2000;0.3899;0.9700;
-135.9000;0.3932;0.9798;
-135.6000;0.3932;0.9798;
-135.3000;0.3932;0.9749;
-135.0000;0.3940;0.9675;
-134.7000;0.3907;0.9601;
-134.4000;0.3923;0.9601;
-134.1000;0.3915;0.9527;
-133.8000;0.3948;0.9749;
-133.5000;0.3923;0.9700;
-133.2000;0.3972;0.9798;
-132.9000;0.3940;0.9749;
-132.6000;0.3932;0.9774;
-132.3000;0.3932;0.9774;
-132.0000;0.3883;0.9650;
-131.7000;0.3932;0.9774;
-131.4000;0.3915;0.9774;
-131.1000;0.3915;0.9749;
-130.8000;0.3899;0.9774;
-130.5000;0.3940;0.9946;
-130.2000;0.3923;0.9996;
-129.9000;0.3956;1.0020;
-129.6000;0.3915;0.9872;
-129.3000;0.3923;0.9848;
-129.0000;0.3932;0.9897;
-128.7000;0.3972;0.9922;
-128.4000;0.3907;0.9798;
-128.1000;0.3899;0.9749;
-127.8000;0.3940;0.9848;
-127.5000;0.3940;0.9897;
-127.2000;0.3948;0.9922;
-126.9000;0.3932;0.9872;
-126.6000;0.3940;0.9823;
-126.3000;0.3956;0.9872;
-126.0000;0.3948;0.9897;
-125.7000;0.3899;0.9798;
-125.4000;0.3948;0.9946;
-125.1000;0.4029;1.0218;
-124.8000;0.3907;0.9897;
-124.5000;0.3940;0.9897;
-124.2000;0.3915;0.9774;
-123.9000;0.3964;0.9823;
-123.6000;0.3948;0.9823;
-123.3000;0.3940;0.9897;
-123.0000;0.3923;0.9922;
-122.7000;0.3932;0.9946;
-122.4000;0.3932;0.9946;
-122.1000;0.3964;0.9922;
-121.8000;0.3867;0.9675;
-121.5000;0.3948;0.9971;
-121.2000;0.3940;0.9946;
-120.9000;0.3923;0.9872;
-120.6000;0.3948;0.9946;
-120.3000;0.3932;0.9996;
-120.0000;0.3940;1.0070;
-119.7000;0.3948;1.0094;
-119.4000;0.3842;0.9774;
-119.1000;0.3899;0.9897;
-118.8000;0.3923;0.9971;
-118.5000;0.3948;0.9996;
-118.2000;0.3940;0.9922;
-117.9000;0.3940;0.9872;
-117.6000;0.3948;1.0045;
-117.3000;0.3940;1.0070;
-117.0000;0.3915;1.0045;
-116.7000;0.3915;0.9996;
-116.4000;0.3964;1.0144;
-116.1000;0.3923;1.0020;
-115.8000;0.3923;0.9922;
-115.5000;0.3923;0.9848;
-115.2000;0.3948;0.9897;
-114.9000;0.3956;0.9848;
-114.6000;0.3867;0.9724;
-114.3000;0.3923;0.9848;
-114.0000;0.3932;0.9848;
-113.7000;0.3907;0.9774;
-113.4000;0.3932;0.9848;
-113.1000;0.3940;0.9848;
-112.8000;0.3907;0.9823;
-112.5000;0.3899;0.9798;
-112.2000;0.3826;0.9527;
-111.9000;0.3923;0.9774;
-111.6000;0.3899;0.9774;
-111.3000;0.3923;0.9823;
-111.0000;0.3932;0.9872;
-110.7000;0.3932;0.9971;
-110.4000;0.3948;0.9897;
-110.1000;0.3956;0.9848;
-109.8000;0.3956;0.9848;
-109.5000;0.3948;0.9872;
-109.2000;0.3923;0.9922;
-108.9000;0.3932;0.9946;
-108.6000;0.3940;0.9996;
-108.3000;0.3940;0.9971;
-108.0000;0.3915;0.9946;
-107.7000;0.3948;0.9971;
-107.4000;0.3932;1.0045;
-107.1000;0.4005;1.0193;
-106.8000;0.3948;0.9996;
-106.5000;0.3923;0.9996;
-106.2000;0.3923;1.0045;
-105.9000;0.3915;0.9996;
-105.6000;0.3940;0.9946;
-105.3000;0.3940;0.9922;
-105.0000;0.3883;0.9897;
-104.7000;0.3932;0.9922;
-104.4000;0.3907;0.9922;
-104.1000;0.3932;0.9946;
-103.8000;0.3907;0.9848;
-103.5000;0.3915;0.9897;
-103.2000;0.3907;0.9872;
-102.9000;0.3940;1.0020;
-102.6000;0.3940;1.0045;
-102.3000;0.3915;0.9897;
-102.0000;0.3915;0.9897;
-101.7000;0.3948;0.9798;
-101.4000;0.3915;0.9724;
-101.1000;0.3932;0.9675;
-100.8000;0.3915;0.9650;
-100.5000;0.3907;0.9650;
-100.2000;0.3907;0.9798;
-99.9000;0.3932;0.9872;
-99.6000;0.3932;0.9996;
-99.3000;0.3932;1.0070;
-99.0000;0.3948;1.0094;
-98.7000;0.3948;1.0144;
-98.4000;0.3948;1.0144;
-98.1000;0.3932;0.9922;
-97.8000;0.3907;0.9823;
-97.5000;0.3923;0.9897;
-97.2000;0.3972;1.0020;
-96.9000;0.3956;0.9946;
-96.6000;0.3932;0.9996;
-96.3000;0.3915;0.9872;
-96.0000;0.3940;0.9946;
-95.7000;0.3948;0.9848;
-95.4000;0.3940;0.9823;
-95.1000;0.3932;0.9848;
-94.8000;0.3923;0.9848;
-94.5000;0.3940;0.9946;
-94.2000;0.3932;0.9946;
-93.9000;0.3932;0.9946;
-93.6000;0.3940;0.9922;
-93.3000;0.3940;0.9897;
-93.0000;0.3891;0.9724;
-92.7000;0.3948;0.9872;
-92.4000;0.3940;0.9798;
-92.1000;0.3940;0.9724;
-91.8000;0.3932;0.9749;
-91.5000;0.3940;0.9675;
-91.2000;0.3989;0.9996;
-90.9000;0.3923;0.9798;
-90.6000;0.3932;0.9749;
-90.3000;0.3932;0.9848;
-90.0000;0.3956;0.9897;
-89.7000;0.3940;0.9922;
-89.4000;0.3932;0.9798;
-89.1000;0.3923;0.9774;
-88.8000;0.3940;0.9897;
-88.5000;0.3932;0.9798;
-88.2000;0.3932;0.9774;
-87.9000;0.3923;0.9774;
-87.6000;0.3923;0.9798;
-87.3000;0.3932;0.9798;
-87.0000;0.3932;0.9724;
-86.7000;0.3940;0.9749;
-86.4000;0.3923;0.9700;
-86.1000;0.3932;0.9700;
-85.8000;0.3956;0.9774;
-85.5000;0.3932;0.9798;
-85.2000;0.3907;0.9749;
-84.9000;0.3793;0.9477;
-84.6000;0.3923;0.9922;
-84.3000;0.3915;0.9922;
-84.0000;0.3948;1.0070;
-83.7000;0.3923;1.0020;
-83.4000;0.3932;1.0020;
-83.1000;0.3915;0.9996;
-82.8000;0.3907;0.9922;
-82.5000;0.3915;0.9922;
-82.2000;0.3932;0.9922;
-81.9000;0.3932;0.9971;
-81.6000;0.3923;0.9922;
-81.3000;0.3948;0.9946;
-81.0000;0.3875;0.9700;
-80.7000;0.3891;0.9798;
-80.4000;0.3932;0.9872;
-80.1000;0.3948;0.9872;
-79.8000;0.3989;1.0119;
-79.5000;0.3948;1.0045;
-79.2000;0.3940;1.0020;
-78.9000;0.3940;0.9996;
-78.6000;0.3932;1.0020;
-78.3000;0.3940;1.0094;
-78.0000;0.3932;1.0169;
-77.7000;0.3948;1.0169;
-77.4000;0.3915;0.9996;
-77.1000;0.3956;1.0119;
-76.8000;0.3980;1.0020;
-76.5000;0.3940;0.9897;
-76.2000;0.3948;0.9922;
-75.9000;0.3948;0.9971;
-75.6000;0.3964;1.0045;
-75.3000;0.3915;0.9946;
-75.0000;0.3923;0.9922;
-74.7000;0.3932;0.9996;
-74.4000;0.3972;0.9971;
-74.1000;0.3932;0.9897;
-73.8000;0.3940;0.9946;
-73.5000;0.3923;0.9922;
-73.2000;0.3875;0.9897;
-72.9000;0.3940;1.0070;
-72.6000;0.3948;1.0094;
-72.3000;0.3923;1.0045;
-72.0000;0.3948;1.0119;
-71.7000;0.3956;1.0144;
-71.4000;0.3923;1.0119;
-71.1000;0.3907;0.9996;
-70.8000;0.3940;1.0144;
-70.5000;0.3923;1.0193;
-70.2000;0.3940;1.0144;
-69.9000;0.3899;1.0045;
-69.6000;0.3923;0.9996;
-69.3000;0.3850;0.9798;
-69.0000;0.3923;0.9946;
-68.7000;0.3907;0.9872;
-68.4000;0.3932;0.9971;
-68.1000;0.3948;0.9996;
-67.8000;0.3923;1.0020;
-67.5000;0.3907;1.0020;
-67.2000;0.3932;1.0119;
-66.9000;0.3948;1.0119;
-66.6000;0.3940;1.0094;
-66.3000;0.3932;1.0045;
-66.0000;0.3907;0.9971;
-65.7000;0.3940;1.0020;
-65.4000;0.3940;1.0020;
-65.1000;0.3940;1.0045;
-64.8000;0.3932;1.0045;
-64.5000;0.4021;1.0267;
-64.2000;0.3915;0.9996;
-63.9000;0.3932;1.0094;
-63.6000;0.3964;1.0045;
-63.3000;0.3923;0.9996;
-63.0000;0.3907;0.9971;
-62.7000;0.3915;0.9996;
-62.4000;0.3940;0.9922;
-62.1000;0.3932;0.9848;
-61.8000;0.3923;0.9823;
-61.5000;0.3883;0.9823;
-61.2000;0.3923;0.9897;
-60.9000;0.3940;1.0045;
-60.6000;0.3907;0.9996;
-60.3000;0.3932;1.0045;
-60.0000;0.3842;0.9798;
-59.7000;0.3940;1.0119;
-59.4000;0.3915;1.0094;
-59.1000;0.3932;1.0045;
-58.8000;0.3932;0.9996;
-58.5000;0.3915;0.9946;
-58.2000;0.3940;1.0045;
-57.9000;0.3932;1.0020;
-57.6000;0.3940;1.0070;
-57.3000;0.3956;0.9996;
-57.0000;0.3948;0.9996;
-56.7000;0.3940;0.9996;
-56.4000;0.3907;1.0020;
-56.1000;0.3932;1.0094;
-55.8000;0.3964;1.0144;
-55.5000;0.3932;1.0020;
-55.2000;0.3964;1.0094;
-54.9000;0.3948;0.9996;
-54.6000;0.3940;0.9872;
-54.3000;0.3923;0.9823;
-54.0000;0.3932;0.9946;
-53.7000;0.3948;0.9946;
-53.4000;0.3915;0.9897;
-53.1000;0.3932;0.9922;
-52.8000;0.3923;0.9872;
-52.5000;0.3932;0.9897;
-52.2000;0.3940;0.9971;
-51.9000;0.3923;0.9872;
-51.6000;0.3932;0.9848;
-51.3000;0.3899;0.9848;
-51.0000;0.3940;0.9897;
-50.7000;0.3858;0.9700;
-50.4000;0.3997;1.0020;
-50.1000;0.3923;0.9872;
-49.8000;0.3923;0.9872;
-49.5000;0.3932;0.9872;
-49.2000;0.3940;0.9848;
-48.9000;0.3899;0.9848;
-48.6000;0.3932;0.9922;
-48.3000;0.3932;0.9946;
-48.0000;0.3932;0.9922;
-47.7000;0.3907;0.9848;
-47.4000;0.3972;0.9996;
-47.1000;0.3923;0.9922;
-46.8000;0.3932;0.9823;
-46.5000;0.3923;0.9798;
-46.2000;0.3932;0.9823;
-45.9000;0.3940;0.9749;
-45.6000;0.3940;0.9798;
-45.3000;0.3907;0.9774;
-45.0000;0.3980;0.9971;
-44.7000;0.3932;0.9897;
-44.4000;0.4054;1.0243;
-44.1000;0.3940;0.9946;
-43.8000;0.3972;1.0020;
-43.5000;0.3940;0.9946;
-43.2000;0.3932;0.9922;
-42.9000;0.3964;0.9922;
-42.6000;0.3932;0.9774;
-42.3000;0.3948;0.9823;
-42.0000;0.3932;0.9774;
-41.7000;0.3948;0.9823;
-41.4000;0.3940;0.9749;
-41.1000;0.3923;0.9650;
-40.8000;0.3923;0.9724;
-40.5000;0.3932;0.9798;
-40.2000;0.3948;0.9774;
-39.9000;0.3923;0.9749;
-39.6000;0.3915;0.9798;
-39.3000;0.3940;0.9897;
-39.0000;0.3923;0.9872;
-38.7000;0.3932;0.9823;
-38.4000;0.3932;0.9872;
-38.1000;0.3948;0.9848;
-37.8000;0.4005;1.0045;
-37.5000;0.3932;0.9946;
-37.2000;0.3842;0.9700;
-36.9000;0.3883;0.9872;
-36.6000;0.3948;1.0045;
-36.3000;0.3948;0.9971;
-36.0000;0.3915;0.9897;
-35.7000;0.3923;0.9872;
-35.4000;0.3956;0.9897;
-35.1000;0.3932;0.9848;
-34.8000;0.3891;0.9700;
-34.5000;0.3923;0.9872;
-34.2000;0.3932;0.9848;
-33.9000;0.3915;0.9823;
-33.6000;0.3932;0.9774;
-33.3000;0.3899;0.9675;
-33.0000;0.3923;0.9700;
-32.7000;0.3948;0.9675;
-32.4000;0.3923;0.9675;
-32.1000;0.3932;0.9774;
-31.8000;0.3923;0.9774;
-31.5000;0.3932;0.9724;
-31.2000;0.3940;0.9749;
-30.9000;0.3940;0.9774;
-30.6000;0.3923;0.9700;
-30.3000;0.3940;0.9724;
-30.0000;0.3964;0.9774;
-29.7000;0.3923;0.9774;
-29.4000;0.3932;0.9922;
-29.1000;0.3940;0.9897;
-28.8000;0.3940;0.9848;
-28.5000;0.3940;0.9848;
-28.2000;0.3980;0.9971;
-27.9000;0.3923;0.9848;
-27.6000;0.3883;0.9700;
-27.3000;0.3915;0.9700;
-27.0000;0.3940;0.9798;
-26.7000;0.4013;0.9922;
-26.4000;0.3940;0.9798;
-26.1000;0.3923;0.9798;
-25.8000;0.3989;0.9971;
-25.5000;0.3875;0.9650;
-25.2000;0.3964;0.9823;
-24.9000;0.3915;0.9650;
-24.6000;0.3923;0.9675;
-24.3000;0.3907;0.9626;
-24.0000;0.3932;0.9626;
-23.7000;0.3907;0.9650;
-23.4000;0.3923;0.9675;
-23.1000;0.3923;0.9774;
-22.8000;0.3923;0.9700;
-22.5000;0.3940;0.9798;
-22.2000;0.3923;0.9798;
-21.9000;0.3923;0.9798;
-21.6000;0.3940;0.9872;
-21.3000;0.3989;1.0094;
-21.0000;0.3932;0.9946;
-20.7000;0.3948;0.9897;
-20.4000;0.3956;0.9922;
-20.1000;0.3923;0.9872;
-19.8000;0.3956;0.9946;
-19.5000;0.3940;0.9872;
-19.2000;0.3940;0.9823;
-18.9000;0.3940;0.9848;
-18.6000;0.3964;0.9922;
-18.3000;0.3932;0.9724;
-18.0000;0.3948;0.9774;
-17.7000;0.3940;0.9848;
-17.4000;0.3915;0.9922;
-17.1000;0.3948;1.0020;
-16.8000;0.3980;1.0119;
-16.5000;0.3923;1.0020;
-16.2000;0.3932;0.9971;
-15.9000;0.3940;0.9946;
-15.6000;0.3875;0.9724;
-15.3000;0.3980;1.0020;
-15.0000;0.3932;0.9897;
-14.7000;0.3923;0.9872;
-14.4000;0.3932;0.9872;
-14.1000;0.3875;0.9724;
-13.8000;0.3932;0.9897;
-13.5000;0.3818;0.9576;
-13.2000;0.3948;0.9922;
-12.9000;0.3923;0.9897;
-12.6000;0.3899;0.9823;
-12.3000;0.3923;0.9897;
-12.0000;0.3932;0.9922;
-11.7000;0.3948;1.0045;
-11.4000;0.3923;0.9946;
-11.1000;0.3932;1.0020;
-10.8000;0.3940;0.9996;
-10.5000;0.3932;0.9946;
-10.2000;0.3932;0.9996;
-9.9000;0.3940;0.9971;
-9.6000;0.3948;0.9996;
-9.3000;0.3940;0.9922;
-9.0000;0.3940;0.9872;
-8.7000;0.3915;0.9848;
-8.4000;0.3940;0.9872;
-8.1000;0.3948;0.9749;
-7.8000;0.3932;0.9700;
-7.5000;0.3940;0.9749;
-7.2000;0.3940;0.9774;
-6.9000;0.3972;0.9922;
-6.6000;0.3940;0.9848;
-6.3000;0.3948;0.9848;
-6.0000;0.3932;0.9848;
-5.7000;0.3940;0.9823;
-5.4000;0.3948;0.9872;
-5.1000;0.3899;0.9897;
-4.8000;0.3923;0.9823;
-4.5000;0.3948;0.9798;
-4.2000;0.3923;0.9798;
-3.9000;0.3923;0.9848;
-3.6000;0.3923;0.9798;
-3.3000;0.3940;0.9774;
-3.0000;0.3923;0.9700;
-2.7000;0.3989;0.9946;
-2.4000;0.3956;0.9897;
-2.1000;0.3915;0.9848;
-1.8000;0.3932;0.9798;
-1.5000;0.3923;0.9774;
-1.2000;0.3940;0.9774;
-0.9000;0.3923;0.9700;
-0.6000;0.3956;0.9823;
-0.3000;0.3932;0.9848;
0.0000;0.3932;0.9848;
0.3000;0.4062;0.9971;
0.6000;0.4257;1.0366;
0.9000;0.4420;1.0687;
1.2000;0.4526;1.0934;
1.5000;0.4615;1.1180;
1.8000;0.4681;1.1353;
2.1000;0.4762;1.1625;
2.4000;0.4803;1.1797;
2.7000;0.4835;1.1921;
3.0000;0.4868;1.2020;
3.3000;0.4900;1.2192;
3.6000;0.4941;1.2266;
3.9000;0.4957;1.2291;
4.2000;0.4957;1.2340;
4.5000;0.5006;1.2513;
4.8000;0.5063;1.2612;
5.1000;0.5047;1.2612;
5.4000;0.5055;1.2637;
5.7000;0.5022;1.2563;
6.0000;0.5096;1.2637;
6.3000;0.5104;1.2661;
6.6000;0.5104;1.2637;
6.9000;0.5120;1.2711;
7.2000;0.5153;1.2859;
7.5000;0.5144;1.2834;
7.8000;0.5193;1.3032;
8.1000;0.5153;1.3007;
8.4000;0.5177;1.2933;
8.7000;0.5136;1.2957;
9.0000;0.5169;1.3130;
9.3000;0.5185;1.3155;
9.6000;0.5201;1.3229;
9.9000;0.5153;1.3056;
10.2000;0.5210;1.3056;
10.5000;0.5218;1.3007;
10.8000;0.5226;1.3007;
11.1000;0.5234;1.3081;
11.4000;0.5250;1.3081;
11.7000;0.5234;1.3032;
12.0000;0.5250;1.2957;
12.3000;0.5267;1.2933;
12.6000;0.5267;1.2982;
12.9000;0.5275;1.3032;
13.2000;0.5291;1.2957;
13.5000;0.5291;1.2908;
13.8000;0.5275;1.2883;
14.1000;0.5291;1.2933;
14.4000;0.5291;1.2859;
14.7000;0.5315;1.2982;
15.0000;0.5315;1.2933;
15.3000;0.5307;1.2834;
15.6000;0.5291;1.2834;
15.9000;0.5324;1.2883;
16.2000;0.5348;1.2933;
16.5000;0.5356;1.2883;
16.8000;0.5324;1.2760;
17.1000;0.5340;1.2785;
17.4000;0.5364;1.2908;
17.7000;0.5356;1.2908;
18.0000;0.5348;1.2834;
18.3000;0.5364;1.2809;
18.6000;0.5364;1.2809;
18.9000;0.5397;1.2883;
19.2000;0.5389;1.2809;
19.5000;0.5364;1.2809;
19.8000;0.5389;1.2908;
20.1000;0.5291;1.2686;
20.4000;0.5372;1.2735;
20.7000;0.5364;1.2711;
21.0000;0.5397;1.2735;
21.3000;0.5389;1.2686;
21.6000;0.5340;1.2637;
21.9000;0.5495;1.3081;
22.2000;0.5381;1.2711;
22.5000;0.5389;1.2711;
22.8000;0.5405;1.2637;
23.1000;0.5413;1.2661;
23.4000;0.5381;1.2661;
23.7000;0.5421;1.2686;
24.0000;0.5405;1.2637;
24.3000;0.5421;1.2637;
24.6000;0.5462;1.2711;
24.9000;0.5413;1.2538;
25.2000;0.5421;1.2587;
25.5000;0.5438;1.2637;
25.8000;0.5348;1.2365;
26.1000;0.5429;1.2637;
26.4000;0.5421;1.2612;
26.7000;0.5438;1.2637;
27.0000;0.5438;1.2809;
27.3000;0.5429;1.2785;
27.6000;0.5413;1.2760;
27.9000;0.5381;1.2587;
28.2000;0.5421;1.2612;
28.5000;0.5438;1.2637;
28.8000;0.5438;1.2686;
29.1000;0.5486;1.2785;
29.4000;0.5470;1.2809;
29.7000;0.5462;1.2760;
30.0000;0.5454;1.2686;
30.3000;0.5454;1.2661;
30.6000;0.5462;1.2637;
30.9000;0.5454;1.2661;
31.2000;0.5462;1.2661;
31.5000;0.5462;1.2661;
31.8000;0.5462;1.2686;
32.1000;0.5478;1.2735;
32.4000;0.5462;1.2686;
32.7000;0.5438;1.2538;
33.0000;0.5462;1.2587;
33.3000;0.5462;1.2612;
33.6000;0.5478;1.2661;
33.9000;0.5470;1.2587;
34.2000;0.5446;1.2489;
34.5000;0.5462;1.2612;
34.8000;0.5486;1.2661;
35.1000;0.5470;1.2661;
35.4000;0.5454;1.2637;
35.7000;0.5495;1.2612;
36.0000;0.5470;1.2513;
36.3000;0.5470;1.2587;
36.6000;0.5478;1.2587;
36.9000;0.5470;1.2637;
37.2000;0.5478;1.2711;
37.5000;0.5478;1.2785;
37.8000;0.5478;1.2760;
38.1000;0.5462;1.2711;
38.4000;0.5470;1.2711;
38.7000;0.5486;1.2637;
39.0000;0.5511;1.2686;
39.3000;0.5478;1.2637;
39.6000;0.5503;1.2760;
39.9000;0.5486;1.2661;
40.2000;0.5478;1.2612;
40.5000;0.5478;1.2612;
40.8000;0.5486;1.2735;
41.1000;0.5470;1.2735;
41.4000;0.5495;1.2785;
41.7000;0.5454;1.2711;
42.0000;0.5486;1.2735;
42.3000;0.5478;1.2686;
42.6000;0.5495;1.2637;
42.9000;0.5486;1.2538;
43.2000;0.5478;1.2563;
43.5000;0.5495;1.2637;
43.8000;0.5495;1.2637;
44.1000;0.5486;1.2612;
44.4000;0.5486;1.2563;
44.7000;0.5470;1.2538;
45.0000;0.5462;1.2513;
45.3000;0.5495;1.2587;
45.6000;0.5405;1.2266;
45.9000;0.5486;1.2390;
46.2000;0.5470;1.2489;
46.5000;0.5511;1.2587;
46.8000;0.5478;1.2563;
47.1000;0.5478;1.2587;
47.4000;0.5486;1.2513;
47.7000;0.5503;1.2661;
48.0000;0.5495;1.2711;
48.3000;0.5486;1.2563;
48.6000;0.5503;1.2612;
48.9000;0.5495;1.2735;
49.2000;0.5478;1.2711;
49.5000;0.5495;1.2785;
49.8000;0.5535;1.2760;
50.1000;0.5446;1.2587;
50.4000;0.5486;1.2686;
50.7000;0.5511;1.2735;
51.0000;0.5495;1.2809;
51.3000;0.5503;1.2834;
51.6000;0.5511;1.2859;
51.9000;0.5495;1.2809;
52.2000;0.5503;1.2809;
52.5000;0.5478;1.2735;
52.8000;0.5519;1.2809;
53.1000;0.5495;1.2711;
53.4000;0.5519;1.2735;
53.7000;0.5527;1.2785;
54.0000;0.5511;1.2711;
54.3000;0.5535;1.2735;
54.6000;0.5543;1.2809;
54.9000;0.5503;1.2711;
55.2000;0.5511;1.2711;
55.5000;0.5560;1.2760;
55.8000;0.5511;1.2686;
56.1000;0.5503;1.2661;
56.4000;0.5495;1.2587;
56.7000;0.5511;1.2587;
57.0000;0.5511;1.2538;
57.3000;0.5519;1.2612;
57.6000;0.5495;1.2612;
57.9000;0.5478;1.2661;
58.2000;0.5470;1.2612;
58.5000;0.5600;1.2859;
58.8000;0.5503;1.2538;
59.1000;0.5486;1.2464;
59.4000;0.5503;1.2489;
59.7000;0.5495;1.2612;
60.0000;0.5495;1.2661;
60.3000;0.5503;1.2612;
60.6000;0.5511;1.2612;
60.9000;0.5519;1.2612;
61.2000;0.5551;1.2735;
61.5000;0.5503;1.2661;
61.8000;0.5527;1.2785;
62.1000;0.5665;1.3180;
62.4000;0.5519;1.2834;
62.7000;0.5519;1.2859;
63.0000;0.5519;1.2735;
63.3000;0.5535;1.2661;
63.6000;0.5503;1.2587;
63.9000;0.5535;1.2686;
64.2000;0.5592;1.2883;
64.5000;0.5535;1.2711;
64.8000;0.5527;1.2686;
65.1000;0.5527;1.2735;
65.4000;0.5446;1.2563;
65.7000;0.5543;1.2859;
66.0000;0.5478;1.2563;
66.3000;0.5421;1.2464;
66.6000;0.5503;1.2612;
66.9000;0.5503;1.2637;
67.2000;0.5511;1.2760;
67.5000;0.5608;1.3056;
67.8000;0.5535;1.2908;
68.1000;0.5527;1.2859;
68.4000;0.5519;1.2785;
68.7000;0.5519;1.2834;
69.0000;0.5519;1.2859;
69.3000;0.5511;1.2760;
69.6000;0.5519;1.2760;
69.9000;0.5535;1.2834;
70.2000;0.5519;1.2809;
70.5000;0.5511;1.2809;
70.8000;0.5519;1.2834;
71.1000;0.5543;1.2760;
71.4000;0.5543;1.2785;
71.7000;0.5527;1.2735;
72.0000;0.5511;1.2834;
72.3000;0.5535;1.2859;
72.6000;0.5527;1.2785;
72.9000;0.5519;1.2834;
73.2000;0.5511;1.2809;
73.5000;0.5519;1.2785;
73.8000;0.5527;1.2735;
74.1000;0.5543;1.2785;
74.4000;0.5527;1.2834;
74.7000;0.5535;1.2883;
75.0000;0.5543;1.2933;
75.3000;0.5495;1.2859;
75.6000;0.5543;1.3081;
75.9000;0.5551;1.3204;
76.2000;0.5486;1.3007;
76.5000;0.5543;1.3130;
76.8000;0.5511;1.2957;
77.1000;0.5527;1.2957;
77.4000;0.5535;1.2883;
77.7000;0.5641;1.3155;
78.0000;0.5543;1.2859;
78.3000;0.5535;1.2883;
78.6000;0.5568;1.2982;
78.9000;0.5560;1.2908;
79.2000;0.5543;1.2859;
79.5000;0.5519;1.2834;
79.8000;0.5519;1.2785;
80.1000;0.5584;1.2908;
80.4000;0.5592;1.3007;
80.7000;0.5641;1.3180;
81.0000;0.5551;1.2982;
81.3000;0.5486;1.2933;
81.6000;0.5527;1.2982;
81.9000;0.5527;1.2957;
82.2000;0.5486;1.2809;
82.5000;0.5535;1.2957;
82.8000;0.5519;1.2957;
83.1000;0.5519;1.2908;
83.4000;0.5535;1.2933;
83.7000;0.5519;1.2908;
84.0000;0.5535;1.2957;
84.3000;0.5486;1.2859;
84.6000;0.5535;1.2957;
84.9000;0.5535;1.2908;
85.2000;0.5576;1.3032;
85.5000;0.5543;1.2933;
85.8000;0.5519;1.2982;
86.1000;0.5560;1.2982;
86.4000;0.5503;1.2809;
86.7000;0.5535;1.2785;
87.0000;0.5560;1.2760;
87.3000;0.5543;1.2760;
87.6000;0.5560;1.2834;
87.9000;0.5519;1.2760;
88.2000;0.5608;1.2957;
88.5000;0.5535;1.2785;
88.8000;0.5535;1.2809;
89.1000;0.5527;1.2785;
89.4000;0.5592;1.2883;
89.7000;0.5543;1.2711;
90.0000;0.5543;1.2735;
90.3000;0.5511;1.2637;
90.6000;0.5551;1.2760;
90.9000;0.5543;1.2661;
91.2000;0.5519;1.2587;
91.5000;0.5543;1.2637;
91.8000;0.5543;1.2785;
92.1000;0.5527;1.2637;
92.4000;0.5535;1.2563;
92.7000;0.5527;1.2563;
93.0000;0.5543;1.2711;
93.3000;0.5527;1.2661;
93.6000;0.5535;1.2760;
93.9000;0.5519;1.2686;
94.2000;0.5519;1.2735;
94.5000;0.5568;1.2809;
94.8000;0.5486;1.2661;
95.1000;0.5551;1.2809;
95.4000;0.5535;1.2785;
95.7000;0.5535;1.2711;
96.0000;0.5535;1.2735;
96.3000;0.5543;1.2735;
96.6000;0.5543;1.2686;
96.9000;0.5535;1.2513;
97.2000;0.5527;1.2538;
97.5000;0.5543;1.2563;
97.8000;0.5543;1.2612;
98.1000;0.5535;1.2612;
98.4000;0.5543;1.2661;
98.7000;0.5560;1.2735;
99.0000;0.5503;1.2563;
99.3000;0.5543;1.2612;
99.6000;0.5527;1.2686;
99.9000;0.5535;1.2686;
100.2000;0.5527;1.2563;
100.5000;0.5519;1.2637;
100.8000;0.5486;1.2661;
101.1000;0.5527;1.2785;
101.4000;0.5495;1.2661;
101.7000;0.5576;1.2735;
102.0000;0.5543;1.2637;
102.3000;0.5551;1.2612;
102.6000;0.5560;1.2563;
102.9000;0.5535;1.2513;
103.2000;0.5527;1.2489;
103.5000;0.5535;1.2464;
103.8000;0.5535;1.2538;
104.1000;0.5503;1.2489;
104.4000;0.5511;1.2513;
104.7000;0.5608;1.2735;
105.0000;0.5527;1.2489;
105.3000;0.5503;1.2513;
105.6000;0.5543;1.2735;
105.9000;0.5543;1.2859;
106.2000;0.5560;1.2908;
106.5000;0.5551;1.2957;
106.8000;0.5527;1.2834;
107.1000;0.5543;1.2809;
107.4000;0.5551;1.2809;
107.7000;0.5535;1.2735;
108.0000;0.5535;1.2587;
108.3000;0.5543;1.2538;
108.6000;0.5551;1.2563;
108.9000;0.5519;1.2489;
109.2000;0.5527;1.2538;
109.5000;0.5560;1.2686;
109.8000;0.5560;1.2735;
110.1000;0.5535;1.2686;
110.4000;0.5543;1.2711;
110.7000;0.5519;1.2760;
111.0000;0.5527;1.2933;
111.3000;0.5551;1.2908;
111.6000;0.5486;1.2686;
111.9000;0.5527;1.2785;
112.2000;0.5527;1.2785;
112.5000;0.5535;1.2809;
112.8000;0.5543;1.2883;
113.1000;0.5543;1.2859;
113.4000;0.5535;1.2859;
113.7000;0.5527;1.2859;
114.0000;0.5535;1.2982;
114.3000;0.5543;1.2957;
114.6000;0.5519;1.2933;
114.9000;0.5543;1.3007;
115.2000;0.5551;1.2957;
115.5000;0.5560;1.2982;
115.8000;0.5535;1.3007;
116.1000;0.5543;1.3056;
116.4000;0.5551;1.3056;
116.7000;0.5576;1.3155;
117.0000;0.5543;1.3007;
117.3000;0.5535;1.2908;
117.6000;0.5584;1.2933;
117.9000;0.5551;1.2908;
118.2000;0.5535;1.2908;
118.5000;0.5511;1.2933;
118.8000;0.5519;1.3081;
119.1000;0.5600;1.3328;
119.4000;0.5527;1.3180;
119.7000;0.5543;1.3229;
120.0000;0.5535;1.3180;
120.3000;0.5625;1.3451;
120.6000;0.5543;1.3180;
120.9000;0.5543;1.3130;
121.2000;0.5551;1.3180;
121.5000;0.5527;1.3032;
121.8000;0.5543;1.3007;
122.1000;0.5543;1.2859;
122.4000;0.5543;1.2809;
122.7000;0.5535;1.2760;
123.0000;0.5551;1.2785;
123.3000;0.5527;1.2760;
123.6000;0.5543;1.2760;
123.9000;0.5503;1.2661;
124.2000;0.5543;1.2785;
124.5000;0.5543;1.2785;
124.8000;0.5543;1.2809;
125.1000;0.5535;1.2735;
125.4000;0.5527;1.2711;
125.7000;0.5551;1.2735;
126.0000;0.5462;1.2439;
126.3000;0.5527;1.2661;
126.6000;0.5519;1.2587;
126.9000;0.5527;1.2661;
127.2000;0.5543;1.2711;
127.5000;0.5551;1.2760;
127.8000;0.5511;1.2711;
128.1000;0.5543;1.2735;
128.4000;0.5535;1.2859;
128.7000;0.5519;1.2809;
129.0000;0.5535;1.2760;
129.3000;0.5535;1.2760;
129.6000;0.5551;1.2908;
129.9000;0.5584;1.2982;
130.2000;0.5535;1.2711;
130.5000;0.5551;1.2711;
130.8000;0.5551;1.2785;
131.1000;0.5551;1.2834;
131.4000;0.5576;1.2957;
131.7000;0.5535;1.2883;
132.0000;0.5543;1.2883;
132.3000;0.5551;1.2834;
132.6000;0.5527;1.2760;
132.9000;0.5535;1.2785;
133.2000;0.5543;1.2809;
133.5000;0.5535;1.2859;
133.8000;0.5527;1.2809;
134.1000;0.5535;1.2760;
134.4000;0.5551;1.2735;
134.7000;0.5592;1.2957;
135.0000;0.5568;1.2982;
135.3000;0.5560;1.2908;
135.6000;0.5592;1.2933;
135.9000;0.5543;1.2809;
136.2000;0.5576;1.2957;
136.5000;0.5568;1.2908;
136.8000;0.5560;1.2785;
137.1000;0.5551;1.2735;
137.4000;0.5551;1.2735;
137.7000;0.5527;1.2711;
138.0000;0.5503;1.2637;
138.3000;0.5551;1.2711;
138.6000;0.5551;1.2785;
138.9000;0.5527;1.2661;
139.2000;0.5543;1.2686;
139.5000;0.5535;1.2661;
139.8000;0.5535;1.2661;
140.1000;0.5535;1.2587;
140.4000;0.5543;1.2637;
140.7000;0.5551;1.2760;
141.0000;0.5543;1.2785;
141.3000;0.5535;1.2785;
141.6000;0.5478;1.2661;
141.9000;0.5543;1.2637;
142.2000;0.5551;1.2612;
142.5000;0.5560;1.2587;
142.8000;0.5503;1.2513;
143.1000;0.5560;1.2735;
143.4000;0.5535;1.2612;
143.7000;0.5560;1.2686;
144.0000;0.5551;1.2637;
144.3000;0.5519;1.2612;
144.6000;0.5527;1.2760;
144.9000;0.5535;1.2760;
145.2000;0.5543;1.2735;
145.5000;0.5519;1.2760;
145.8000;0.5560;1.2859;
146.1000;0.5527;1.2834;
146.4000;0.5560;1.2957;
146.7000;0.5543;1.2883;
147.0000;0.5600;1.2933;
147.3000;0.5551;1.2735;
147.6000;0.5519;1.2711;
147.9000;0.5551;1.2760;
148.2000;0.5568;1.2785;
148.5000;0.5543;1.2760;
148.8000;0.5519;1.2711;
149.1000;0.5551;1.2859;
149.4000;0.5551;1.2859;
149.7000;0.5551;1.2834;
150.0000;0.5527;1.2735;
150.3000;0.5560;1.2785;
150.6000;0.5519;1.2785;
150.9000;0.5543;1.2809;
151.2000;0.5543;1.2834;
151.5000;0.5551;1.2834;
151.8000;0.5535;1.2859;
152.1000;0.5551;1.2883;
152.4000;0.5535;1.2760;
152.7000;0.5527;1.2686;
153.0000;0.5543;1.2686;
153.3000;0.5543;1.2637;
153.6000;0.5560;1.2785;
153.9000;0.5527;1.2661;
154.2000;0.5535;1.2735;
154.5000;0.5535;1.2834;
154.8000;0.5543;1.2859;
155.1000;0.5576;1.2933;
155.4000;0.5519;1.2883;
155.7000;0.5543;1.2859;
156.0000;0.5568;1.2859;
156.3000;0.5535;1.2859;
156.6000;0.5535;1.2809;
156.9000;0.5535;1.2809;
157.2000;0.5535;1.2809;
157.5000;0.5535;1.2809;
157.8000;0.5551;1.2785;
158.1000;0.5560;1.2809;
158.4000;0.5551;1.2760;
158.7000;0.5527;1.2612;
159.0000;0.5560;1.2735;
159.3000;0.5551;1.2809;
159.6000;0.5568;1.2908;
159.9000;0.5543;1.2883;
160.2000;0.5527;1.2883;
160.5000;0.5543;1.2933;
160.8000;0.5535;1.2957;
161.1000;0.5535;1.2957;
161.4000;0.5527;1.2859;
161.7000;0.5519;1.2834;
162.0000;0.5600;1.3081;
162.3000;0.5511;1.2982;
162.6000;0.5511;1.3056;
162.9000;0.5527;1.3106;
163.2000;0.5535;1.3056;
163.5000;0.5543;1.3007;
163.8000;0.5543;1.3081;
164.1000;0.5568;1.3180;
164.4000;0.5527;1.3155;
164.7000;0.5560;1.3204;
165.0000;0.5535;1.3155;
165.3000;0.5535;1.3081;
165.6000;0.5543;1.3130;
165.9000;0.5519;1.2957;
166.2000;0.5503;1.2859;
166.5000;0.5535;1.2982;
166.8000;0.5535;1.3081;
167.1000;0.5535;1.3130;
167.4000;0.5551;1.3106;
167.7000;0.5535;1.3130;
168.0000;0.5617;1.3328;
168.3000;0.5543;1.3081;
168.6000;0.5560;1.3056;
168.9000;0.5527;1.3007;
169.2000;0.5535;1.3056;
169.5000;0.5568;1.3180;
169.8000;0.5551;1.3032;
170.1000;0.5543;1.3007;
170.4000;0.5560;1.2982;
170.7000;0.5551;1.2883;
171.0000;0.5535;1.2834;
171.3000;0.5535;1.2834;
171.6000;0.5527;1.2883;
171.9000;0.5503;1.2735;
172.2000;0.5551;1.2933;
172.5000;0.5551;1.2957;
172.8000;0.5527;1.2859;
173.1000;0.5535;1.2785;
173.4000;0.5543;1.2834;
173.7000;0.5527;1.2785;
174.0000;0.5576;1.3007;
174.3000;0.5543;1.2883;
174.6000;0.5543;1.2834;
174.9000;0.5560;1.2809;
175.2000;0.5551;1.2785;
175.5000;0.5535;1.2686;
175.8000;0.5551;1.2760;
176.1000;0.5568;1.2809;
176.4000;0.5543;1.2760;
176.7000;0.5551;1.2711;
177.0000;0.5543;1.2711;
177.3000;0.5551;1.2760;
177.6000;0.5568;1.2809;
177.9000;0.5560;1.2760;
178.2000;0.5584;1.2735;
178.5000;0.5535;1.2612;
178.8000;0.5568;1.2711;
179.1000;0.5535;1.2711;
179.4000;0.5641;1.2982;
179.7000;0.5543;1.2686;
180.0000;0.5551;1.2686;
180.3000;0.5551;1.2661;
180.6000;0.5543;1.2587;
180.9000;0.5551;1.2587;
181.2000;0.5551;1.2563;
181.5000;0.5551;1.2587;
181.8000;0.5551;1.2612;
182.1000;0.5543;1.2637;
182.4000;0.5543;1.2686;
182.7000;0.5560;1.2785;
183.0000;0.5511;1.2735;
183.3000;0.5551;1.2809;
183.6000;0.5527;1.2785;
183.9000;0.5551;1.2908;
184.2000;0.5527;1.2957;
184.5000;0.5543;1.2908;
184.8000;0.5511;1.2859;
185.1000;0.5625;1.3081;
185.4000;0.5551;1.2908;
185.7000;0.5503;1.2834;
186.0000;0.5470;1.2686;
186.3000;0.5527;1.2859;
186.6000;0.5535;1.2933;
186.9000;0.5535;1.2859;
187.2000;0.5535;1.2834;
187.5000;0.5535;1.2760;
187.8000;0.5551;1.2859;
188.1000;0.5568;1.2859;
188.4000;0.5535;1.2735;
188.7000;0.5551;1.2834;
189.0000;0.5600;1.2957;
189.3000;0.5560;1.2859;
189.6000;0.5535;1.2834;
189.9000;0.5600;1.3007;
190.2000;0.5551;1.2883;
190.5000;0.5543;1.2908;
190.8000;0.5560;1.2982;
191.1000;0.5486;1.2883;
191.4000;0.5535;1.3056;
191.7000;0.5568;1.3180;
192.0000;0.5543;1.3056;
192.3000;0.5543;1.2957;
192.6000;0.5551;1.2908;
192.9000;0.5551;1.2908;
193.2000;0.5551;1.2933;
193.5000;0.5527;1.2908;
193.8000;0.5551;1.2982;
194.1000;0.5486;1.2859;
194.4000;0.5551;1.2933;
194.7000;0.5535;1.2859;
195.0000;0.5543;1.3007;
195.3000;0.5527;1.2883;
195.6000;0.5560;1.2957;
195.9000;0.5543;1.2809;
196.2000;0.5543;1.2859;
196.5000;0.5551;1.2933;
196.8000;0.5551;1.2933;
197.1000;0.5560;1.2933;
197.4000;0.5478;1.2735;
197.7000;0.5560;1.2883;
198.0000;0.5560;1.2883;
198.3000;0.5551;1.2859;
198.6000;0.5535;1.2809;
198.9000;0.5478;1.2809;
199.2000;0.5543;1.2933;
199.5000;0.5551;1.2933;
199.8000;0.5535;1.2859;
200.1000;0.5527;1.2785;
200.4000;0.5503;1.2760;
200.7000;0.5535;1.2933;
201.0000;0.5527;1.2957;
201.3000;0.5543;1.2957;
201.6000;0.5551;1.2982;
201.9000;0.5560;1.2982;
202.2000;0.5560;1.2982;
202.5000;0.5551;1.3056;
202.8000;0.5519;1.3056;
203.1000;0.5592;1.3303;
203.4000;0.5551;1.3130;
203.7000;0.5551;1.3032;
204.0000;0.5535;1.2982;
204.3000;0.5535;1.2933;
204.6000;0.5511;1.2908;
204.9000;0.5543;1.3081;
205.2000;0.5551;1.3081;
205.5000;0.5519;1.3056;
205.8000;0.5543;1.3106;
206.1000;0.5543;1.3130;
206.4000;0.5527;1.3056;
206.7000;0.5503;1.2908;
207.0000;0.5551;1.2957;
207.3000;0.5543;1.3056;
207.6000;0.5608;1.3254;
207.9000;0.5560;1.3056;
208.2000;0.5503;1.2883;
208.5000;0.5551;1.3007;
208.8000;0.5551;1.3032;
209.1000;0.5527;1.2957;
209.4000;0.5543;1.2957;
209.7000;0.5551;1.3032;
210.0000;0.5551;1.2883;
210.3000;0.5543;1.2760;
210.6000;0.5608;1.2834;
210.9000;0.5535;1.2711;
211.2000;0.5503;1.2686;
211.5000;0.5551;1.2908;
211.8000;0.5568;1.2908;
212.1000;0.5608;1.3032;
212.4000;0.5560;1.2933;
212.7000;0.5543;1.2908;
213.0000;0.5543;1.2982;
213.3000;0.5551;1.2933;
213.6000;0.5551;1.2834;
213.9000;0.5551;1.2883;
214.2000;0.5543;1.2933;
214.5000;0.5560;1.3007;
214.8000;0.5551;1.3032;
215.1000;0.5568;1.3106;
215.4000;0.5576;1.3229;
215.7000;0.5617;1.3303;
216.0000;0.5543;1.3106;
216.3000;0.5551;1.3106;
216.6000;0.5543;1.3106;
216.9000;0.5527;1.3056;
217.2000;0.5551;1.3032;
217.5000;0.5535;1.3007;
217.8000;0.5560;1.2908;
218.1000;0.5543;1.2859;
218.4000;0.5543;1.2859;
218.7000;0.5535;1.2760;
219.0000;0.5560;1.2908;
219.3000;0.5527;1.2908;
219.6000;0.5551;1.2883;
219.9000;0.5535;1.2834;
220.2000;0.5527;1.2785;
220.5000;0.5543;1.2809;
220.8000;0.5608;1.2859;
221.1000;0.5551;1.2686;
221.4000;0.5511;1.2587;
221.7000;0.5527;1.2612;
222.0000;0.5486;1.2538;
222.3000;0.5527;1.2563;
222.6000;0.5527;1.2686;
222.9000;0.5543;1.2661;
223.2000;0.5535;1.2612;
223.5000;0.5519;1.2711;
223.8000;0.5519;1.2686;
224.1000;0.5519;1.2735;
224.4000;0.5535;1.2785;
224.7000;0.5543;1.2785;
225.0000;0.5535;1.2809;
225.3000;0.5576;1.2834;
225.6000;0.5551;1.2760;
225.9000;0.5543;1.2760;
226.2000;0.5560;1.2859;
226.5000;0.5551;1.2908;
226.8000;0.5535;1.2908;
227.1000;0.5527;1.2982;
227.4000;0.5527;1.2883;
227.7000;0.5535;1.2785;
228.0000;0.5535;1.2785;
228.3000;0.5535;1.2785;
228.6000;0.5551;1.2859;
228.9000;0.5527;1.2711;
229.2000;0.5543;1.2760;
229.5000;0.5527;1.2735;
229.8000;0.5543;1.2661;
230.1000;0.5543;1.2760;
230.4000;0.5551;1.2735;
230.7000;0.5560;1.2834;
231.0000;0.5551;1.2735;
231.3000;0.5551;1.2735;
231.6000;0.5608;1.2908;
231.9000;0.5519;1.2587;
232.2000;0.5568;1.2637;
232.5000;0.5551;1.2612;
232.8000;0.5543;1.2563;
233.1000;0.5527;1.2464;
233.4000;0.5551;1.2612;
233.7000;0.5543;1.2587;
234.0000;0.5551;1.2637;
234.3000;0.5551;1.2612;
234.6000;0.5543;1.2661;
234.9000;0.5551;1.2735;
235.2000;0.5592;1.2809;
235.5000;0.5535;1.2612;
235.8000;0.5551;1.2587;
236.1000;0.5551;1.2637;
236.4000;0.5551;1.2637;
236.7000;0.5446;1.2513;
237.0000;0.5543;1.2785;
237.3000;0.5543;1.2883;
237.6000;0.5625;1.3180;
237.9000;0.5527;1.2957;
238.2000;0.5543;1.2957;
238.5000;0.5543;1.2982;
238.8000;0.5584;1.3130;
239.1000;0.5543;1.2933;
239.4000;0.5551;1.2933;
239.7000;0.5551;1.2933;
240.0000;0.5543;1.2933;
240.3000;0.5543;1.3007;
240.6000;0.5543;1.3032;
240.9000;0.5551;1.3032;
241.2000;0.5543;1.3106;
241.5000;0.5543;1.3007;
241.8000;0.5535;1.3032;
242.1000;0.5543;1.3056;
242.4000;0.5608;1.3180;
242.7000;0.5543;1.3056;
243.0000;0.5543;1.2908;
243.3000;0.5543;1.2908;
243.6000;0.5592;1.3056;
243.9000;0.5535;1.2883;
244.2000;0.5543;1.2933;
244.5000;0.5503;1.2785;
244.8000;0.5535;1.2735;
245.1000;0.5551;1.2711;
245.4000;0.5560;1.2587;
245.7000;0.5535;1.2464;
246.0000;0.5543;1.2489;
246.3000;0.5543;1.2538;
246.6000;0.5535;1.2563;
246.9000;0.5511;1.2489;
247.2000;0.5551;1.2464;
247.5000;0.5535;1.2439;
247.8000;0.5543;1.2538;
248.1000;0.5551;1.2538;
248.4000;0.5551;1.2489;
248.7000;0.5560;1.2612;
249.0000;0.5551;1.2661;
249.3000;0.5551;1.2612;
249.6000;0.5551;1.2513;
249.9000;0.5527;1.2365;
250.2000;0.5543;1.2316;
250.5000;0.5543;1.2217;
250.8000;0.5560;1.2340;
251.1000;0.5551;1.2340;
251.4000;0.5543;1.2464;
251.7000;0.5543;1.2415;
252.0000;0.5535;1.2439;
252.3000;0.5495;1.2365;
252.6000;0.5568;1.2538;
252.9000;0.5503;1.2439;
253.2000;0.5535;1.2587;
253.5000;0.5486;1.2538;
253.8000;0.5511;1.2637;
254.1000;0.5519;1.2686;
254.4000;0.5543;1.2834;
254.7000;0.5495;1.2686;
255.0000;0.5527;1.2686;
255.3000;0.5551;1.2637;
255.6000;0.5503;1.2513;
255.9000;0.5503;1.2513;
256.2000;0.5535;1.2661;
256.5000;0.5543;1.2612;
256.8000;0.5511;1.2464;
257.1000;0.5535;1.2464;
257.4000;0.5519;1.2439;
257.7000;0.5576;1.2686;
258.0000;0.5543;1.2513;
258.3000;0.5551;1.2464;
258.6000;0.5519;1.2390;
258.9000;0.5486;1.2340;
259.2000;0.5592;1.2587;
259.5000;0.5551;1.2563;
259.8000;0.5592;1.2735;
260.1000;0.5535;1.2661;
260.4000;0.5560;1.2711;
260.7000;0.5560;1.2711;
261.0000;0.5535;1.2612;
261.3000;0.5519;1.2587;
261.6000;0.5543;1.2686;
261.9000;0.5519;1.2686;
262.2000;0.5535;1.2809;
262.5000;0.5535;1.2785;
262.8000;0.5535;1.2859;
263.1000;0.5543;1.2834;
263.4000;0.5551;1.2760;
263.7000;0.5560;1.2735;
264.0000;0.5551;1.2760;
264.3000;0.5527;1.2809;
264.6000;0.5551;1.2933;
264.9000;0.5543;1.2933;
265.2000;0.5543;1.3007;
265.5000;0.5527;1.2957;
265.8000;0.5543;1.3155;
266.1000;0.5560;1.3180;
266.4000;0.5543;1.3007;
266.7000;0.5551;1.2982;
267.0000;0.5543;1.2933;
267.3000;0.5535;1.2957;
267.6000;0.5495;1.2933;
267.9000;0.5535;1.3032;
268.2000;0.5519;1.2957;
268.5000;0.5535;1.3032;
268.8000;0.5511;1.2957;
269.1000;0.5495;1.2760;
269.4000;0.5543;1.2785;
269.7000;0.5543;1.2809;
270.0000;0.5519;1.2637;
270.3000;0.5535;1.2661;
270.6000;0.5543;1.2637;
270.9000;0.5568;1.2711;
271.2000;0.5560;1.2735;
271.5000;0.5535;1.2735;
271.8000;0.5511;1.2834;
272.1000;0.5535;1.2933;
272.4000;0.5568;1.2982;
272.7000;0.5527;1.2883;
273.0000;0.5527;1.2908;
273.3000;0.5519;1.2834;
273.6000;0.5535;1.2785;
273.9000;0.5503;1.2735;
274.2000;0.5535;1.2809;
274.5000;0.5543;1.2809;
274.8000;0.5560;1.2834;
275.1000;0.5568;1.2834;
275.4000;0.5535;1.2785;
275.7000;0.5527;1.2785;
276.0000;0.5519;1.2785;
276.3000;0.5584;1.2933;
276.6000;0.5543;1.2883;
276.9000;0.5527;1.2957;
277.2000;0.5551;1.3007;
277.5000;0.5551;1.3007;
277.8000;0.5551;1.2982;
278.1000;0.5551;1.2883;
278.4000;0.5535;1.2834;
278.7000;0.5543;1.2760;
279.0000;0.5543;1.2859;
279.3000;0.5551;1.2859;
279.6000;0.5543;1.2785;
279.9000;0.5560;1.2834;
280.2000;0.5535;1.2711;
280.5000;0.5560;1.2760;
280.8000;0.5560;1.2760;
281.1000;0.5535;1.2834;
281.4000;0.5551;1.2883;
281.7000;0.5527;1.2785;
282.0000;0.5568;1.2933;
282.3000;0.5527;1.2785;
282.6000;0.5543;1.2908;
282.9000;0.5543;1.2908;
283.2000;0.5543;1.2908;
283.5000;0.5551;1.2933;
283.8000;0.5543;1.2908;
284.1000;0.5551;1.2809;
284.4000;0.5543;1.2760;
284.7000;0.5543;1.2859;
285.0000;0.5535;1.2859;
285.3000;0.5535;1.2760;
285.6000;0.5543;1.2834;
285.9000;0.5527;1.2834;
286.2000;0.5543;1.2908;
286.5000;0.5527;1.2859;
286.8000;0.5543;1.2908;
287.1000;0.5486;1.2686;
287.4000;0.5527;1.2834;
287.7000;0.5535;1.2735;
288.0000;0.5527;1.2686;
288.3000;0.5543;1.2587;
288.6000;0.5503;1.2563;
288.9000;0.5535;1.2612;
289.2000;0.5560;1.2661;
289.5000;0.5511;1.2587;
289.8000;0.5551;1.2661;
290.1000;0.5511;1.2563;
290.4000;0.5576;1.2735;
290.7000;0.5527;1.2612;
291.0000;0.5551;1.2661;
291.3000;0.5535;1.2612;
291.6000;0.5568;1.2785;
291.9000;0.5551;1.2711;
292.2000;0.5535;1.2735;
292.5000;0.5511;1.2513;
292.8000;0.5543;1.2538;
293.1000;0.5535;1.2563;
293.4000;0.5543;1.2686;
293.7000;0.5535;1.2686;
294.0000;0.5543;1.2760;
294.3000;0.5527;1.2686;
294.6000;0.5519;1.2661;
294.9000;0.5543;1.2785;
295.2000;0.5543;1.2711;
295.5000;0.5527;1.2711;
295.8000;0.5568;1.2859;
296.1000;0.5576;1.2908;
296.4000;0.5503;1.2760;
296.7000;0.5535;1.2834;
297.0000;0.5551;1.2859;
297.3000;0.5527;1.2711;
297.6000;0.5535;1.2711;
297.9000;0.5535;1.2735;
298.2000;0.5543;1.2686;
298.5000;0.5527;1.2735;
298.8000;0.5503;1.2661;
299.1000;0.5543;1.2735;
299.4000;0.5535;1.2834;
299.7000;0.5535;1.2785;
300.0000;0.5535;1.2834;
300.3000;0.5543;1.2834;
300.6000;0.5568;1.2982;
300.9000;0.5511;1.2785;
301.2000;0.5527;1.2859;
301.5000;0.5535;1.2883;
301.8000;0.5519;1.2834;
302.1000;0.5543;1.2908;
302.4000;0.5519;1.2859;
302.7000;0.5543;1.2908;
303.0000;0.5584;1.3081;
303.3000;0.5551;1.3056;
303.6000;0.5551;1.3106;
303.9000;0.5535;1.3155;
304.2000;0.5519;1.3032;
304.5000;0.5543;1.3007;
304.8000;0.5560;1.3081;
305.1000;0.5560;1.3007;
305.4000;0.5543;1.2982;
305.7000;0.5535;1.2883;
306.0000;0.5543;1.2785;
306.3000;0.5535;1.2661;
306.6000;0.5551;1.2686;
306.9000;0.5527;1.2637;
307.2000;0.5560;1.2686;
307.5000;0.5519;1.2612;
307.8000;0.5527;1.2735;
308.1000;0.5576;1.2908;
308.4000;0.5535;1.2785;
308.7000;0.5551;1.2735;
309.0000;0.5551;1.2809;
309.3000;0.5592;1.2908;
309.6000;0.5543;1.2908;
309.9000;0.5543;1.2982;
310.2000;0.5535;1.2883;
310.5000;0.5560;1.2933;
310.8000;0.5551;1.2883;
311.1000;0.5527;1.2785;
311.4000;0.5527;1.2760;
311.7000;0.5535;1.2785;
312.0000;0.5543;1.2785;
312.3000;0.5543;1.2785;
312.6000;0.5568;1.2908;
312.9000;0.5551;1.2809;
313.2000;0.5576;1.2859;
313.5000;0.5543;1.2760;
313.8000;0.5568;1.2809;
314.1000;0.5551;1.2809;
314.4000;0.5527;1.2809;
314.7000;0.5535;1.2883;
315.0000;0.5568;1.2982;
315.3000;0.5560;1.2957;
315.6000;0.5543;1.2933;
315.9000;0.5535;1.3007;
316.2000;0.5535;1.2982;
316.5000;0.5519;1.2933;
316.8000;0.5560;1.3007;
317.1000;0.5527;1.2957;
317.4000;0.5535;1.2982;
317.7000;0.5543;1.3007;
318.0000;0.5519;1.2957;
318.3000;0.5551;1.2908;
318.6000;0.5543;1.2785;
318.9000;0.5527;1.2834;
319.2000;0.5560;1.2957;
319.5000;0.5519;1.2834;
319.8000;0.5495;1.2760;
320.1000;0.5543;1.2908;
320.4000;0.5543;1.2883;
320.7000;0.5511;1.2809;
321.0000;0.5535;1.2908;
321.3000;0.5543;1.2982;
321.6000;0.5543;1.2982;
321.9000;0.5543;1.2957;
322.2000;0.5527;1.2908;
322.5000;0.5535;1.2908;
322.8000;0.5551;1.3007;
323.1000;0.5560;1.3130;
323.4000;0.5527;1.3007;
323.7000;0.5560;1.3032;
324.0000;0.5527;1.2908;
324.3000;0.5551;1.2957;
324.6000;0.5543;1.2933;
324.9000;0.5551;1.2908;
325.2000;0.5519;1.2834;
325.5000;0.5551;1.2957;
325.8000;0.5551;1.2982;
326.1000;0.5551;1.2982;
326.4000;0.5560;1.2883;
326.7000;0.5560;1.2982;
327.0000;0.5560;1.2982;
327.3000;0.5551;1.2933;
327.6000;0.5519;1.2859;
327.9000;0.5551;1.2908;
328.2000;0.5551;1.2883;
328.5000;0.5641;1.3204;
328.8000;0.5649;1.3130;
329.1000;0.5584;1.2908;
329.4000;0.5543;1.2859;
329.7000;0.5519;1.2809;
330.0000;0.5543;1.2785;
330.3000;0.5592;1.3007;
330.6000;0.5527;1.2908;
330.9000;0.5551;1.3056;
331.2000;0.5527;1.3081;
331.5000;0.5535;1.3032;
331.8000;0.5535;1.3007;
332.1000;0.5543;1.2982;
332.4000;0.5543;1.2908;
332.7000;0.5486;1.2809;
333.0000;0.5535;1.3056;
333.3000;0.5551;1.3032;
333.6000;0.5535;1.2982;
333.9000;0.5568;1.3007;
334.2000;0.5543;1.2957;
334.5000;0.5551;1.2933;
334.8000;0.5527;1.2859;
335.1000;0.5560;1.2883;
335.4000;0.5568;1.2834;
335.7000;0.5543;1.2735;
336.0000;0.5543;1.2785;
336.3000;0.5527;1.2809;
336.6000;0.5543;1.2859;
336.9000;0.5551;1.2785;
337.2000;0.5551;1.2809;
337.5000;0.5527;1.2735;
337.8000;0.5551;1.2686;
338.1000;0.5543;1.2686;
338.4000;0.5519;1.2735;
338.7000;0.5543;1.2859;
339.0000;0.5551;1.2785;
339.3000;0.5560;1.2809;
339.6000;0.5608;1.2982;
339.9000;0.5584;1.2735;
340.2000;0.5560;1.2711;
340.5000;0.5519;1.2661;
340.8000;0.5543;1.2711;
341.1000;0.5543;1.2760;
341.4000;0.5511;1.2711;
341.7000;0.5527;1.2760;
342.0000;0.5535;1.2760;
342.3000;0.5535;1.2760;
342.6000;0.5535;1.2785;
342.9000;0.5584;1.2908;
343.2000;0.5527;1.2760;
343.5000;0.5560;1.2809;
343.8000;0.5535;1.2711;
344.1000;0.5543;1.2735;
344.4000;0.5511;1.2661;
344.7000;0.5495;1.2711;
345.0000;0.5543;1.2859;
345.3000;0.5568;1.2982;
345.6000;0.5535;1.2933;
345.9000;0.5495;1.2834;
346.2000;0.5519;1.2957;
346.5000;0.5560;1.3106;
346.8000;0.5592;1.3155;
347.1000;0.5535;1.3081;
347.4000;0.5551;1.3081;
347.7000;0.5527;1.3007;
348.0000;0.5527;1.3032;
348.3000;0.5535;1.3007;
348.6000;0.5527;1.2957;
348.9000;0.5551;1.3056;
349.2000;0.5551;1.3032;
349.5000;0.5584;1.3056;
349.8000;0.5568;1.2982;
350.1000;0.5568;1.3106;
350.4000;0.5551;1.2957;
350.7000;0.5519;1.2933;
351.0000;0.5551;1.3007;
351.3000;0.5551;1.2957;
351.6000;0.5535;1.2859;
351.9000;0.5543;1.2809;
352.2000;0.5543;1.2735;
352.5000;0.5551;1.2760;
352.8000;0.5543;1.2760;
353.1000;0.5592;1.2982;
353.4000;0.5551;1.2809;
353.7000;0.5527;1.2809;
354.0000;0.5560;1.2957;
354.3000;0.5511;1.2834;
354.6000;0.5454;1.2563;
354.9000;0.5543;1.2711;
355.2000;0.5560;1.2735;
355.5000;0.5543;1.2735;
355.8000;0.5519;1.2661;
356.1000;0.5535;1.2760;
356.4000;0.5551;1.2785;
356.7000;0.5560;1.2883;
357.0000;0.5551;1.2834;
357.3000;0.5535;1.2883;
357.6000;0.5543;1.2883;
357.9000;0.5543;1.2933;
358.2000;0.5535;1.2957;
358.5000;0.5543;1.2883;
358.8000;0.5535;1.2834;
359.1000;0.5535;1.2809;
359.4000;0.5503;1.2686;
359.7000;0.5519;1.2637;
360.0000;0.5535;1.2686;
360.3000;0.5543;1.2711;
360.6000;0.5568;1.2785;
360.9000;0.5543;1.2883;
361.2000;0.5519;1.2785;
361.5000;0.5478;1.2735;
361.8000;0.5543;1.3007;
362.1000;0.5543;1.3032;
362.4000;0.5560;1.2957;
362.7000;0.5551;1.3007;
363.0000;0.5543;1.3081;
363.3000;0.5543;1.3081;
363.6000;0.5486;1.2834;
363.9000;0.5608;1.3032;
364.2000;0.5560;1.2933;
364.5000;0.5543;1.2883;
364.8000;0.5551;1.2834;
365.1000;0.5551;1.2809;
365.4000;0.5495;1.2612;
365.7000;0.5551;1.2711;
366.0000;0.5543;1.2760;
366.3000;0.5543;1.2760;
366.6000;0.5551;1.2785;
366.9000;0.5543;1.2883;
367.2000;0.5535;1.2834;
367.5000;0.5551;1.2809;
367.8000;0.5543;1.2785;
368.1000;0.5527;1.2809;
368.4000;0.5543;1.2760;
368.7000;0.5576;1.2711;
369.0000;0.5535;1.2587;
369.3000;0.5503;1.2612;
369.6000;0.5576;1.2859;
369.9000;0.5551;1.2859;
370.2000;0.5633;1.2957;
370.5000;0.5584;1.2809;
370.8000;0.5503;1.2711;
371.1000;0.5527;1.2735;
371.4000;0.5568;1.2834;
371.7000;0.5527;1.2735;
372.0000;0.5560;1.2809;
372.3000;0.5551;1.2785;
372.6000;0.5551;1.2809;
372.9000;0.5535;1.2834;
373.2000;0.5535;1.2785;
373.5000;0.5608;1.2982;
373.8000;0.5527;1.2834;
374.1000;0.5527;1.2735;
374.4000;0.5527;1.2661;
374.7000;0.5543;1.2587;
375.0000;0.5535;1.2538;
375.3000;0.5535;1.2489;
375.6000;0.5543;1.2612;
375.9000;0.5551;1.2661;
376.2000;0.5527;1.2735;
376.5000;0.5543;1.2711;
376.8000;0.5543;1.2637;
377.1000;0.5535;1.2637;
377.4000;0.5560;1.2760;
377.7000;0.5535;1.2785;
378.0000;0.5543;1.2809;
378.3000;0.5535;1.2760;
378.6000;0.5543;1.2711;
378.9000;0.5543;1.2612;
379.2000;0.5543;1.2637;
379.5000;0.5503;1.2538;
379.8000;0.5478;1.2390;
380.1000;0.5535;1.2390;
380.4000;0.5527;1.2365;
380.7000;0.5527;1.2390;
381.0000;0.5535;1.2464;
381.3000;0.5535;1.2489;
381.6000;0.5527;1.2464;
381.9000;0.5551;1.2563;
382.2000;0.5535;1.2637;
382.5000;0.5535;1.2612;
382.8000;0.5560;1.2661;
383.1000;0.5543;1.2711;
383.4000;0.5527;1.2612;
383.7000;0.5543;1.2612;
384.0000;0.5535;1.2686;
384.3000;0.5527;1.2661;
384.6000;0.5519;1.2538;
384.9000;0.5503;1.2513;
385.2000;0.5527;1.2563;
385.5000;0.5478;1.2415;
385.8000;0.5543;1.2661;
386.1000;0.5527;1.2513;
386.4000;0.5438;1.2242;
386.7000;0.5527;1.2513;
387.0000;0.5519;1.2563;
387.3000;0.5543;1.2637;
387.6000;0.5551;1.2587;
387.9000;0.5551;1.2563;
388.2000;0.5543;1.2513;
388.5000;0.5527;1.2513;
388.8000;0.5511;1.2513;
389.1000;0.5560;1.2785;
389.4000;0.5543;1.2834;
389.7000;0.5535;1.2735;
390.0000;0.5486;1.2612;
390.3000;0.5543;1.2637;
390.6000;0.5527;1.2587;
390.9000;0.5527;1.2661;
391.2000;0.5560;1.2587;
391.5000;0.5641;1.2957;
391.8000;0.5543;1.2735;
392.1000;0.5543;1.2661;
392.4000;0.5576;1.2735;
392.7000;0.5511;1.2538;
393.0000;0.5535;1.2538;
393.3000;0.5535;1.2489;
393.6000;0.5551;1.2489;
393.9000;0.5535;1.2538;
394.2000;0.5511;1.2538;
394.5000;0.5551;1.2686;
394.8000;0.5527;1.2637;
395.1000;0.5519;1.2538;
395.4000;0.5543;1.2661;
395.7000;0.5551;1.2711;
396.0000;0.5511;1.2563;
396.3000;0.5535;1.2686;
396.6000;0.5600;1.2809;
396.9000;0.5568;1.2735;
397.2000;0.5543;1.2686;
397.5000;0.5486;1.2513;
397.8000;0.5551;1.2637;
398.1000;0.5617;1.2883;
398.4000;0.5551;1.2809;
398.7000;0.5560;1.2883;
399.0000;0.5535;1.2834;
399.3000;0.5551;1.2933;
399.6000;0.5560;1.3056;
399.9000;0.5551;1.3056;
400.2000;0.5592;1.3180;
400.5000;0.5535;1.3056;
400.8000;0.5543;1.3032;
401.1000;0.5519;1.3007;
401.4000;0.5519;1.3056;
401.7000;0.5535;1.3130;
402.0000;0.5503;1.2883;
402.3000;0.5535;1.2908;
402.6000;0.5560;1.3007;
402.9000;0.5535;1.3007;
403.2000;0.5535;1.2933;
403.5000;0.5543;1.2908;
403.8000;0.5543;1.2908;
404.1000;0.5543;1.2957;
404.4000;0.5551;1.2933;
404.7000;0.5551;1.2883;
405.0000;0.5560;1.2908;
405.3000;0.5543;1.2933;
405.6000;0.5527;1.2834;
405.9000;0.5543;1.2809;
406.2000;0.5551;1.2809;
406.5000;0.5551;1.2760;
406.8000;0.5560;1.2785;
407.1000;0.5543;1.2785;
407.4000;0.5511;1.2785;
407.7000;0.5543;1.2859;
408.0000;0.5649;1.3204;
408.3000;0.5543;1.2957;
408.6000;0.5519;1.2908;
408.9000;0.5543;1.2859;
409.2000;0.5519;1.2859;
409.5000;0.5527;1.2809;
409.8000;0.5535;1.2834;
410.1000;0.5551;1.2933;
410.4000;0.5543;1.2933;
410.7000;0.5535;1.2809;
411.0000;0.5560;1.2834;
411.3000;0.5535;1.2735;
411.6000;0.5519;1.2711;
411.9000;0.5608;1.3056;
412.2000;0.5543;1.3007;
412.5000;0.5535;1.3081;
412.8000;0.5543;1.3056;
413.1000;0.5535;1.3032;
413.4000;0.5519;1.2933;
413.7000;0.5543;1.2908;
414.0000;0.5519;1.2908;
414.3000;0.5535;1.2982;
414.6000;0.5527;1.2957;
414.9000;0.5543;1.3032;
415.2000;0.5535;1.2982;
415.5000;0.5527;1.2859;
415.8000;0.5527;1.2760;
416.1000;0.5543;1.2883;
416.4000;0.5551;1.2933;
416.7000;0.5543;1.2883;
417.0000;0.5478;1.2834;
417.3000;0.5592;1.3130;
417.6000;0.5551;1.3032;
417.9000;0.5527;1.3007;
418.2000;0.5608;1.3352;
418.5000;0.5543;1.3130;
418.8000;0.5535;1.3056;
419.1000;0.5543;1.3056;
419.4000;0.5527;1.3056;
419.7000;0.5486;1.2859;
420.0000;0.5454;1.2785;
420.3000;0.5511;1.2933;
420.6000;0.5633;1.3155;
420.9000;0.5535;1.2933;
421.2000;0.5519;1.2834;
421.5000;0.5535;1.2859;
421.8000;0.5519;1.2908;
422.1000;0.5543;1.2908;
422.4000;0.5551;1.2859;
422.7000;0.5503;1.2735;
423.0000;0.5551;1.3032;
423.3000;0.5633;1.3180;
423.6000;0.5527;1.2859;
423.9000;0.5543;1.2957;
424.2000;0.5527;1.3007;
424.5000;0.5511;1.3056;
424.8000;0.5519;1.2908;
425.1000;0.5584;1.3007;
425.4000;0.5543;1.2809;
425.7000;0.5543;1.2637;
426.0000;0.5543;1.2735;
426.3000;0.5633;1.3032;
426.6000;0.5551;1.2883;
426.9000;0.5543;1.2908;
427.2000;0.5519;1.2883;
427.5000;0.5511;1.2933;
427.8000;0.5519;1.2933;
428.1000;0.5503;1.2785;
428.4000;0.5527;1.2933;
428.7000;0.5543;1.2834;
429.0000;0.5543;1.2883;
429.3000;0.5535;1.2834;
429.6000;0.5551;1.2883;
429.9000;0.5527;1.2834;
430.2000;0.5519;1.2859;
430.5000;0.5535;1.2908;
430.8000;0.5551;1.2982;
431.1000;0.5535;1.2883;
431.4000;0.5543;1.2933;
431.7000;0.5543;1.2834;
432.0000;0.5551;1.2883;
432.3000;0.5543;1.2859;
432.6000;0.5511;1.2809;
432.9000;0.5543;1.2933;
433.2000;0.5543;1.2933;
433.5000;0.5543;1.2933;
433.8000;0.5543;1.2957;
434.1000;0.5535;1.3007;
434.4000;0.5535;1.2933;
434.7000;0.5551;1.2908;
435.0000;0.5535;1.2809;
435.3000;0.5535;1.2809;
435.6000;0.5551;1.2957;
435.9000;0.5551;1.2933;
436.2000;0.5535;1.2859;
436.5000;0.5519;1.2883;
436.8000;0.5543;1.2883;
437.1000;0.5543;1.2908;
437.4000;0.5511;1.2785;
437.7000;0.5535;1.2834;
438.0000;0.5519;1.2809;
438.3000;0.5535;1.2859;
438.6000;0.5560;1.2933;
438.9000;0.5535;1.2883;
439.2000;0.5543;1.2883;
439.5000;0.5519;1.2834;
439.8000;0.5543;1.2859;
440.1000;0.5543;1.2809;
440.4000;0.5486;1.2686;
440.7000;0.5527;1.2834;
441.0000;0.5511;1.2785;
441.3000;0.5535;1.2933;
441.6000;0.5535;1.2859;
441.9000;0.5535;1.2883;
442.2000;0.5527;1.2785;
442.5000;0.5551;1.2859;
442.8000;0.5576;1.2933;
443.1000;0.5551;1.2982;
443.4000;0.5462;1.2711;
443.7000;0.5560;1.3032;
444.0000;0.5600;1.3155;
444.3000;0.5560;1.3056;
444.6000;0.5600;1.3204;
444.9000;0.5568;1.3106;
445.2000;0.5495;1.2809;
445.5000;0.5592;1.3081;
445.8000;0.5519;1.2859;
446.1000;0.5535;1.2933;
446.4000;0.5527;1.2834;
446.7000;0.5551;1.2883;
447.0000;0.5527;1.2760;
447.3000;0.5568;1.2933;
447.6000;0.5560;1.3007;
447.9000;0.5495;1.2760;
448.2000;0.5527;1.2785;
448.5000;0.5527;1.2760;
448.8000;0.5470;1.2760;
449.1000;0.5495;1.2859;
449.4000;0.5535;1.3032;
449.7000;0.5511;1.3081;
450.0000;0.5527;1.3130;
450.3000;0.5519;1.3056;
450.6000;0.5543;1.3081;
450.9000;0.5519;1.2957;
451.2000;0.5543;1.3106;
451.5000;0.5527;1.3032;
451.8000;0.5543;1.3056;
452.1000;0.5551;1.2982;
452.4000;0.5535;1.2957;
452.7000;0.5551;1.2982;
453.0000;0.5560;1.3007;
453.3000;0.5535;1.3081;
453.6000;0.5519;1.3007;
453.9000;0.5551;1.3081;
454.2000;0.5535;1.3032;
454.5000;0.5535;1.3032;
454.8000;0.5543;1.3056;
455.1000;0.5535;1.2982;
455.4000;0.5535;1.2982;
455.7000;0.5543;1.2883;
456.0000;0.5551;1.2883;
456.3000;0.5543;1.2834;
456.6000;0.5543;1.2883;
456.9000;0.5535;1.2760;
457.2000;0.5568;1.2785;
457.5000;0.5535;1.2760;
457.8000;0.5543;1.2834;
458.1000;0.5527;1.2834;
458.4000;0.5527;1.2809;
458.7000;0.5535;1.2809;
459.0000;0.5535;1.2785;
459.3000;0.5551;1.2760;
459.6000;0.5568;1.2809;
459.9000;0.5584;1.2883;
460.2000;0.5535;1.2834;
460.5000;0.5535;1.2809;
460.8000;0.5551;1.2859;
461.1000;0.5519;1.2785;
461.4000;0.5600;1.2933;
461.7000;0.5560;1.2809;
462.0000;0.5527;1.2735;
462.3000;0.5543;1.2711;
462.6000;0.5511;1.2563;
462.9000;0.5527;1.2538;
463.2000;0.5551;1.2661;
463.5000;0.5543;1.2735;
463.8000;0.5519;1.2637;
464.1000;0.5551;1.2735;
464.4000;0.5543;1.2809;
464.7000;0.5576;1.2908;
465.0000;0.5551;1.2859;
465.3000;0.5527;1.2785;
465.6000;0.5519;1.2834;
465.9000;0.5551;1.2883;
466.2000;0.5551;1.2933;
466.5000;0.5495;1.2785;
466.8000;0.5535;1.2908;
467.1000;0.5543;1.2933;
467.4000;0.5543;1.2982;
467.7000;0.5551;1.2982;
468.0000;0.5535;1.2908;
468.3000;0.5551;1.2883;
468.6000;0.5535;1.2785;
468.9000;0.5543;1.2785;
469.2000;0.5535;1.2686;
469.5000;0.5535;1.2686;
469.8000;0.5543;1.2686;
470.1000;0.5527;1.2661;
470.4000;0.5519;1.2587;
470.7000;0.5608;1.2883;
471.0000;0.5535;1.2686;
471.3000;0.5543;1.2711;
471.6000;0.5535;1.2760;
471.9000;0.5535;1.2587;
472.2000;0.5551;1.2612;
472.5000;0.5551;1.2563;
472.8000;0.5527;1.2489;
473.1000;0.5511;1.2464;
473.4000;0.5527;1.2563;
473.7000;0.5543;1.2637;
474.0000;0.5511;1.2612;
474.3000;0.5519;1.2612;
474.6000;0.5535;1.2711;
474.9000;0.5535;1.2686;
475.2000;0.5511;1.2686;
475.5000;0.5503;1.2661;
475.8000;0.5519;1.2711;
476.1000;0.5527;1.2661;
476.4000;0.5527;1.2711;
476.7000;0.5527;1.2760;
477.0000;0.5551;1.2834;
477.3000;0.5543;1.2933;
477.6000;0.5527;1.2982;
477.9000;0.5543;1.3032;
478.2000;0.5519;1.3032;
478.5000;0.5543;1.3081;
478.8000;0.5535;1.3032;
479.1000;0.5543;1.2957;
479.4000;0.5486;1.2859;
479.7000;0.5527;1.3032;
480.0000;0.5535;1.2982;
480.3000;0.5527;1.2834;
480.6000;0.5535;1.2859;
480.9000;0.5519;1.2834;
481.2000;0.5551;1.2859;
481.5000;0.5543;1.2735;
481.8000;0.5560;1.2760;
482.1000;0.5551;1.2661;
482.4000;0.5551;1.2661;
482.7000;0.5527;1.2711;
483.0000;0.5543;1.2859;
483.3000;0.5527;1.2809;
483.6000;0.5519;1.2661;
483.9000;0.5503;1.2612;
484.2000;0.5560;1.2809;
484.5000;0.5535;1.2809;
484.8000;0.5543;1.2859;
485.1000;0.5495;1.2834;
485.4000;0.5519;1.2883;
485.7000;0.5519;1.2809;
486.0000;0.5551;1.2859;
486.3000;0.5543;1.2809;
486.6000;0.5551;1.2859;
486.9000;0.5511;1.2834;
487.2000;0.5429;1.2538;
487.5000;0.5527;1.2686;
487.8000;0.5519;1.2711;
488.1000;0.5527;1.2735;
488.4000;0.5535;1.2785;
488.7000;0.5495;1.2637;
489.0000;0.5519;1.2686;
489.3000;0.5527;1.2661;
489.6000;0.5535;1.2686;
489.9000;0.5649;1.2933;
490.2000;0.5543;1.2711;
490.5000;0.5543;1.2686;
490.8000;0.5568;1.2785;
491.1000;0.5535;1.2686;
491.4000;0.5535;1.2735;
491.7000;0.5527;1.2785;
492.0000;0.5527;1.2785;
492.3000;0.5527;1.2859;
492.6000;0.5527;1.2809;
492.9000;0.5478;1.2612;
493.2000;0.5543;1.2735;
493.5000;0.5535;1.2612;
493.8000;0.5519;1.2612;
494.1000;0.5535;1.2686;
494.4000;0.5543;1.2711;
494.7000;0.5535;1.2612;
495.0000;0.5527;1.2711;
495.3000;0.5535;1.2735;
495.6000;0.5543;1.2661;
495.9000;0.5592;1.2735;
496.2000;0.5543;1.2612;
496.5000;0.5527;1.2686;
496.8000;0.5454;1.2390;
497.1000;0.5551;1.2637;
497.4000;0.5519;1.2711;
497.7000;0.5527;1.2711;
498.0000;0.5535;1.2735;
498.3000;0.5535;1.2686;
498.6000;0.5511;1.2538;
498.9000;0.5527;1.2587;
499.2000;0.5527;1.2587;
499.5000;0.5551;1.2735;
499.8000;0.5535;1.2637;
500.1000;0.5527;1.2661;
500.4000;0.5527;1.2686;
500.7000;0.5527;1.2637;
501.0000;0.5543;1.2661;
501.3000;0.5543;1.2637;
501.6000;0.5511;1.2612;
501.9000;0.5543;1.2785;
502.2000;0.5535;1.2834;
502.5000;0.5568;1.2908;
502.8000;0.5503;1.2760;
503.1000;0.5519;1.2859;
503.4000;0.5519;1.2834;
503.7000;0.5519;1.2859;
504.0000;0.5462;1.2612;
504.3000;0.5535;1.2735;
504.6000;0.5535;1.2859;
504.9000;0.5511;1.2809;
505.2000;0.5535;1.2809;
505.5000;0.5527;1.2760;
505.8000;0.5527;1.2760;
506.1000;0.5519;1.2785;
506.4000;0.5592;1.2982;
506.7000;0.5535;1.2785;
507.0000;0.5535;1.2785;
507.3000;0.5543;1.2908;
507.6000;0.5543;1.2859;
507.9000;0.5535;1.2785;
508.2000;0.5551;1.2883;
508.5000;0.5519;1.2785;
508.8000;0.5511;1.2809;
509.1000;0.5535;1.2933;
509.4000;0.5503;1.2883;
509.7000;0.5511;1.2933;
510.0000;0.5511;1.2957;
510.3000;0.5519;1.2982;
510.6000;0.5527;1.3106;
510.9000;0.5551;1.3081;
511.2000;0.5527;1.3106;
511.5000;0.5519;1.3056;
511.8000;0.5543;1.3155;
512.1000;0.5535;1.3056;
512.4000;0.5543;1.3056;
512.7000;0.5551;1.3007;
513.0000;0.5543;1.2809;
513.3000;0.5543;1.2686;
513.6000;0.5551;1.2686;
513.9000;0.5543;1.2760;
514.2000;0.5527;1.2587;
514.5000;0.5511;1.2637;
514.8000;0.5519;1.2661;
515.1000;0.5527;1.2711;
515.4000;0.5527;1.2711;
515.7000;0.5519;1.2587;
516.0000;0.5535;1.2587;
516.3000;0.5535;1.2686;
516.6000;0.5584;1.2809;
516.9000;0.5551;1.2785;
517.2000;0.5527;1.2735;
517.5000;0.5527;1.2711;
517.8000;0.5503;1.2637;
518.1000;0.5511;1.2637;
518.4000;0.5535;1.2735;
518.7000;0.5535;1.2711;
519.0000;0.5543;1.2661;
519.3000;0.5535;1.2686;
519.6000;0.5527;1.2538;
519.9000;0.5511;1.2513;
520.2000;0.5511;1.2563;
520.5000;0.5527;1.2587;
520.8000;0.5519;1.2661;
521.1000;0.5535;1.2760;
521.4000;0.5543;1.2785;
521.7000;0.5543;1.2859;
522.0000;0.5551;1.2933;
522.3000;0.5535;1.2933;
522.6000;0.5543;1.2834;
522.9000;0.5543;1.2883;
523.2000;0.5527;1.2859;
523.5000;0.5535;1.2859;
523.8000;0.5608;1.2982;
524.1000;0.5543;1.2883;
524.4000;0.5511;1.2859;
524.7000;0.5519;1.2834;
525.0000;0.5535;1.2883;
525.3000;0.5535;1.2785;
525.6000;0.5527;1.2785;
525.9000;0.5511;1.2760;
526.2000;0.5535;1.2785;
526.5000;0.5527;1.2809;
526.8000;0.5543;1.2883;
527.1000;0.5560;1.2809;
527.4000;0.5519;1.2661;
527.7000;0.5535;1.2760;
528.0000;0.5551;1.2785;
528.3000;0.5535;1.2809;
528.6000;0.5535;1.2735;
528.9000;0.5568;1.2834;
529.2000;0.5543;1.2834;
529.5000;0.5576;1.2957;
529.8000;0.5535;1.2834;
530.1000;0.5519;1.2809;
530.4000;0.5527;1.2785;
530.7000;0.5535;1.2785;
531.0000;0.5527;1.2809;
531.3000;0.5535;1.2834;
531.6000;0.5560;1.2908;
531.9000;0.5551;1.2883;
532.2000;0.5535;1.2933;
532.5000;0.5543;1.2957;
532.8000;0.5543;1.2933;
533.1000;0.5519;1.2859;
533.4000;0.5527;1.2883;
533.7000;0.5527;1.2834;
534.0000;0.5535;1.2908;
534.3000;0.5543;1.2883;
534.6000;0.5560;1.2883;
534.9000;0.5600;1.2957;
535.2000;0.5543;1.2859;
535.5000;0.5592;1.3032;
535.8000;0.5543;1.2859;
536.1000;0.5543;1.2809;
536.4000;0.5551;1.2933;
536.7000;0.5527;1.2834;
537.0000;0.5560;1.2834;
537.3000;0.5543;1.2760;
537.6000;0.5535;1.2661;
537.9000;0.5519;1.2587;
538.2000;0.5551;1.2637;
538.5000;0.5568;1.2661;
538.8000;0.5535;1.2637;
539.1000;0.5543;1.2612;
539.4000;0.5608;1.2735;
539.7000;0.5527;1.2661;
540.0000;0.5486;1.2661;
540.3000;0.5535;1.2735;
540.6000;0.5527;1.2760;
540.9000;0.5543;1.2809;
541.2000;0.5543;1.2908;
541.5000;0.5511;1.2883;
541.8000;0.5519;1.2809;
542.1000;0.5503;1.2661;
542.4000;0.5519;1.2587;
542.7000;0.5535;1.2587;
543.0000;0.5527;1.2735;
543.3000;0.5503;1.2711;
543.6000;0.5527;1.2809;
543.9000;0.5495;1.2686;
544.2000;0.5495;1.2637;
544.5000;0.5527;1.2686;
544.8000;0.5519;1.2711;
545.1000;0.5519;1.2711;
545.4000;0.5519;1.2711;
545.7000;0.5527;1.2711;
546.0000;0.5527;1.2711;
546.3000;0.5543;1.2760;
546.6000;0.5551;1.2785;
546.9000;0.5535;1.2612;
547.2000;0.5511;1.2711;
547.5000;0.5527;1.2834;
547.8000;0.5543;1.2735;
548.1000;0.5519;1.2735;
548.4000;0.5543;1.2809;
548.7000;0.5519;1.2735;
549.0000;0.5535;1.2760;
549.3000;0.5584;1.2883;
549.6000;0.5560;1.2859;
549.9000;0.5519;1.2735;
550.2000;0.5535;1.2711;
550.5000;0.5535;1.2735;
550.8000;0.5535;1.2760;
551.1000;0.5535;1.2760;
551.4000;0.5543;1.2933;
551.7000;0.5527;1.2859;
552.0000;0.5511;1.2785;
552.3000;0.5519;1.2760;
552.6000;0.5576;1.2883;
552.9000;0.5543;1.2785;
553.2000;0.5519;1.2661;
553.5000;0.5535;1.2735;
553.8000;0.5535;1.2711;
554.1000;0.5560;1.2859;
554.4000;0.5511;1.2809;
554.7000;0.5519;1.2883;
555.0000;0.5519;1.2908;
555.3000;0.5503;1.2859;
555.6000;0.5543;1.2908;
555.9000;0.5519;1.2883;
556.2000;0.5527;1.2883;
556.5000;0.5527;1.2957;
556.8000;0.5551;1.2982;
557.1000;0.5608;1.3180;
557.4000;0.5551;1.3032;
557.7000;0.5551;1.3007;
558.0000;0.5503;1.2859;
558.3000;0.5503;1.2834;
558.6000;0.5511;1.2785;
558.9000;0.5511;1.2760;
559.2000;0.5511;1.2711;
559.5000;0.5527;1.2760;
559.8000;0.5503;1.2686;
560.1000;0.5511;1.2809;
560.4000;0.5486;1.2834;
560.7000;0.5543;1.2933;
561.0000;0.5527;1.2908;
561.3000;0.5519;1.2883;
561.6000;0.5568;1.2883;
561.9000;0.5576;1.2933;
562.2000;0.5535;1.2859;
562.5000;0.5543;1.2908;
562.8000;0.5535;1.2859;
563.1000;0.5527;1.2834;
563.4000;0.5535;1.2859;
563.7000;0.5519;1.2785;
564.0000;0.5592;1.2957;
564.3000;0.5519;1.2711;
564.6000;0.5511;1.2563;
564.9000;0.5527;1.2538;
565.2000;0.5527;1.2563;
565.5000;0.5543;1.2686;
565.8000;0.5543;1.2785;
566.1000;0.5527;1.2785;
566.4000;0.5527;1.2809;
566.7000;0.5519;1.2735;
567.0000;0.5535;1.2785;
567.3000;0.5551;1.2809;
567.6000;0.5511;1.2809;
567.9000;0.5584;1.3007;
568.2000;0.5535;1.2908;
568.5000;0.5527;1.2957;
568.8000;0.5560;1.3081;
569.1000;0.5519;1.2908;
569.4000;0.5519;1.2883;
569.7000;0.5535;1.2933;
570.0000;0.5535;1.2908;
570.3000;0.5527;1.2834;
570.6000;0.5527;1.2933;
570.9000;0.5543;1.2933;
571.2000;0.5519;1.2760;
571.5000;0.5543;1.2859;
571.8000;0.5535;1.2834;
572.1000;0.5519;1.2809;
572.4000;0.5511;1.2809;
572.7000;0.5535;1.2957;
573.0000;0.5527;1.2982;
573.3000;0.5535;1.2883;
573.6000;0.5633;1.3155;
573.9000;0.5527;1.2957;
574.2000;0.5543;1.3081;
574.5000;0.5511;1.2957;
574.8000;0.5478;1.2859;
575.1000;0.5543;1.2908;
575.4000;0.5527;1.2834;
575.7000;0.5543;1.2760;
576.0000;0.5535;1.2612;
576.3000;0.5527;1.2587;
576.6000;0.5535;1.2612;
576.9000;0.5519;1.2587;
577.2000;0.5576;1.2686;
577.5000;0.5527;1.2563;
577.8000;0.5519;1.2538;
578.1000;0.5535;1.2661;
578.4000;0.5535;1.2637;
578.7000;0.5446;1.2464;
579.0000;0.5511;1.2711;
579.3000;0.5511;1.2834;
579.6000;0.5511;1.2785;
579.9000;0.5486;1.2711;
580.2000;0.5543;1.2883;
580.5000;0.5535;1.2859;
580.8000;0.5519;1.2785;
581.1000;0.5519;1.2711;
581.4000;0.5519;1.2637;
581.7000;0.5519;1.2785;
582.0000;0.5454;1.2563;
582.3000;0.5454;1.2612;
582.6000;0.5535;1.2711;
582.9000;0.5527;1.2711;
583.2000;0.5511;1.2612;
583.5000;0.5527;1.2587;
583.8000;0.5535;1.2538;
584.1000;0.5568;1.2637;
584.4000;0.5527;1.2513;
584.7000;0.5600;1.2612;
585.0000;0.5535;1.2513;
585.3000;0.5535;1.2538;
585.6000;0.5527;1.2587;
585.9000;0.5527;1.2563;
586.2000;0.5543;1.2612;
586.5000;0.5519;1.2686;
586.8000;0.5535;1.2711;
587.1000;0.5527;1.2735;
587.4000;0.5511;1.2809;
587.7000;0.5535;1.2834;
588.0000;0.5535;1.2859;
588.3000;0.5519;1.2785;
588.6000;0.5551;1.2785;
588.9000;0.5519;1.2661;
589.2000;0.5543;1.2735;
589.5000;0.5535;1.2735;
589.8000;0.5486;1.2735;
590.1000;0.5535;1.2883;
590.4000;0.5535;1.2933;
590.7000;0.5519;1.2834;
591.0000;0.5543;1.2834;
591.3000;0.5527;1.2785;
591.6000;0.5478;1.2686;
591.9000;0.5495;1.2661;
592.2000;0.5543;1.2809;
592.5000;0.5527;1.2711;
592.8000;0.5543;1.2809;
593.1000;0.5551;1.2908;
593.4000;0.5527;1.2859;
593.7000;0.5527;1.2908;
594.0000;0.5519;1.2883;
594.3000;0.5495;1.2809;
594.6000;0.5519;1.2809;
594.9000;0.5519;1.2686;
595.2000;0.5535;1.2785;
595.5000;0.5511;1.2661;
595.8000;0.5527;1.2612;
596.1000;0.5503;1.2489;
596.4000;0.5535;1.2513;
596.7000;0.5551;1.2513;
597.0000;0.5527;1.2587;
597.3000;0.5535;1.2612;
597.6000;0.5649;1.2982;
597.9000;0.5503;1.2711;
598.2000;0.5543;1.2785;
598.5000;0.5486;1.2612;
598.8000;0.5519;1.2760;
599.1000;0.5608;1.3007;
599.4000;0.5584;1.2908;
599.7000;0.5535;1.2711;
600.0000;0.5486;1.2686;
600.3000;0.5503;1.2587;
600.6000;0.5543;1.2563;
600.9000;0.5519;1.2439;
601.2000;0.5462;1.2340;
601.5000;0.5446;1.2242;
601.8000;0.5405;1.2094;
602.1000;0.5429;1.2020;
602.4000;0.5315;1.1551;
602.7000;0.5389;1.1625;
603.0000;0.5291;1.1304;
603.3000;0.5275;1.1205;
603.6000;0.5218;1.1156;
603.9000;0.5210;1.1131;
604.2000;0.5201;1.1032;
604.5000;0.5153;1.0835;
604.8000;0.5185;1.0835;
605.1000;0.5128;1.0687;
605.4000;0.5071;1.0637;
605.7000;0.5039;1.0588;
606.0000;0.5144;1.0909;
606.3000;0.4908;1.0317;
606.6000;0.4957;1.0489;
606.9000;0.4990;1.0662;
607.2000;0.4974;1.0563;
607.5000;0.4892;1.0415;
607.8000;0.4933;1.0366;
608.1000;0.4900;1.0317;
608.4000;0.4892;1.0366;
608.7000;0.4949;1.0539;
609.0000;0.4843;1.0267;
609.3000;0.4835;1.0218;
609.6000;0.4827;1.0218;
609.9000;0.4819;1.0243;
610.2000;0.4803;1.0119;
610.5000;0.4786;1.0119;
610.8000;0.4762;1.0070;
611.1000;0.4778;1.0119;
611.4000;0.4746;1.0119;
611.7000;0.4737;1.0119;
612.0000;0.4737;1.0119;
612.3000;0.4729;1.0144;
612.6000;0.4705;1.0193;
612.9000;0.4681;1.0193;
613.2000;0.4681;1.0193;
613.5000;0.4656;1.0193;
613.8000;0.4656;1.0119;
614.1000;0.4656;1.0144;
614.4000;0.4640;0.9996;
614.7000;0.4648;1.0070;
615.0000;0.4632;1.0144;
615.3000;0.4615;1.0020;
615.6000;0.4599;0.9946;
615.9000;0.4599;0.9996;
616.2000;0.4583;0.9946;
616.5000;0.4591;0.9872;
616.8000;0.4542;0.9798;
617.1000;0.4550;0.9872;
617.4000;0.4558;0.9971;
617.7000;0.4567;0.9996;
618.0000;0.4542;0.9872;
618.3000;0.4493;0.9774;
618.6000;0.4477;0.9700;
618.9000;0.4493;0.9798;
619.2000;0.4518;0.9946;
619.5000;0.4477;0.9922;
619.8000;0.4477;0.9872;
620.1000;0.4469;0.9848;
620.4000;0.4461;0.9897;
620.7000;0.4469;0.9872;
621.0000;0.4444;0.9897;
621.3000;0.4453;0.9897;
621.6000;0.4436;0.9848;
621.9000;0.4428;0.9848;
622.2000;0.4436;0.9872;
622.5000;0.4428;0.9798;
622.8000;0.4396;0.9774;
623.1000;0.4396;0.9774;
623.4000;0.4396;0.9823;
623.7000;0.4387;0.9724;
624.0000;0.4404;0.9724;
624.3000;0.4453;0.9798;
624.6000;0.4477;0.9872;
624.9000;0.4371;0.9576;
625.2000;0.4363;0.9601;
625.5000;0.4363;0.9650;
625.8000;0.4339;0.9576;
626.1000;0.4330;0.9552;
626.4000;0.4355;0.9626;
626.7000;0.4339;0.9749;
627.0000;0.4322;0.9675;
627.3000;0.4330;0.9650;
627.6000;0.4355;0.9700;
627.9000;0.4322;0.9650;
628.2000;0.4314;0.9650;
628.5000;0.4298;0.9774;
628.8000;0.4290;0.9848;
629.1000;0.4290;0.9798;
629.4000;0.4290;0.9823;
629.7000;0.4306;0.9848;
630.0000;0.4249;0.9749;
630.3000;0.4282;0.9798;
630.6000;0.4265;0.9749;
630.9000;0.4322;0.9823;
631.2000;0.4257;0.9650;
631.5000;0.4257;0.9724;
631.8000;0.4249;0.9700;
632.1000;0.4249;0.9749;
632.4000;0.4225;0.9749;
632.7000;0.4249;0.9798;
633.0000;0.4233;0.9774;
633.3000;0.4217;0.9650;
633.6000;0.4241;0.9650;
633.9000;0.4225;0.9477;
634.2000;0.4225;0.9477;
634.5000;0.4249;0.9477;
634.8000;0.4225;0.9576;
635.1000;0.4225;0.9576;
635.4000;0.4225;0.9650;
635.7000;0.4208;0.9601;
636.0000;0.4217;0.9675;
636.3000;0.4208;0.9675;
636.6000;0.4192;0.9650;
636.9000;0.4274;0.9700;
637.2000;0.4200;0.9576;
637.5000;0.4200;0.9601;
637.8000;0.4168;0.9552;
638.1000;0.4168;0.9576;
638.4000;0.4176;0.9576;
638.7000;0.4168;0.9576;
639.0000;0.4143;0.9576;
639.3000;0.4184;0.9724;
639.6000;0.4168;0.9700;
639.9000;0.4200;0.9749;
640.2000;0.4143;0.9626;
640.5000;0.4143;0.9552;
640.8000;0.4160;0.9626;
641.1000;0.4143;0.9601;
641.4000;0.4135;0.9626;
641.7000;0.4160;0.9724;
642.0000;0.4160;0.9675;
642.3000;0.4143;0.9700;
642.6000;0.4119;0.9675;
642.9000;0.4151;0.9650;
643.2000;0.4119;0.9552;
643.5000;0.4119;0.9552;
643.8000;0.4111;0.9527;
644.1000;0.4111;0.9576;
644.4000;0.4103;0.9527;
644.7000;0.4135;0.9601;
645.0000;0.4103;0.9552;
645.3000;0.4119;0.9527;
645.6000;0.4103;0.9403;
645.9000;0.4094;0.9453;
646.2000;0.4119;0.9502;
646.5000;0.4086;0.9477;
646.8000;0.4111;0.9576;
647.1000;0.4119;0.9502;
647.4000;0.4151;0.9626;
647.7000;0.4086;0.9576;
648.0000;0.4094;0.9527;
648.3000;0.4070;0.9453;
648.6000;0.4078;0.9453;
648.9000;0.4086;0.9453;
649.2000;0.4086;0.9428;
649.5000;0.4086;0.9428;
649.8000;0.4078;0.9477;
650.1000;0.4086;0.9477;
650.4000;0.4111;0.9675;
650.7000;0.4119;0.9724;
651.0000;0.4127;0.9749;
651.3000;0.4127;0.9675;
651.6000;0.4078;0.9477;
651.9000;0.4078;0.9453;
652.2000;0.4094;0.9502;
652.5000;0.4054;0.9477;
652.8000;0.4078;0.9527;
653.1000;0.4037;0.9477;
653.4000;0.4046;0.9477;
653.7000;0.4021;0.9527;
654.0000;0.4046;0.9527;
654.3000;0.4054;0.9650;
654.6000;0.4021;0.9601;
654.9000;0.4046;0.9700;
655.2000;0.4021;0.9626;
655.5000;0.4054;0.9502;
655.8000;0.4111;0.9675;
656.1000;0.4086;0.9576;
656.4000;0.4037;0.9527;
656.7000;0.4013;0.9477;
657.0000;0.4037;0.9477;
657.3000;0.4005;0.9379;
657.6000;0.4111;0.9626;
657.9000;0.4037;0.9477;
658.2000;0.4037;0.9453;
658.5000;0.4119;0.9626;
658.8000;0.4029;0.9527;
659.1000;0.4013;0.9576;
659.4000;0.4021;0.9724;
659.7000;0.4021;0.9823;
660.0000;0.4021;0.9724;
660.3000;0.4013;0.9700;
660.6000;0.4005;0.9552;
660.9000;0.3997;0.9527;
661.2000;0.3997;0.9576;
661.5000;0.4013;0.9650;
661.8000;0.4013;0.9527;
662.1000;0.3989;0.9477;
662.4000;0.3997;0.9626;
662.7000;0.3989;0.9576;
663.0000;0.4005;0.9650;
663.3000;0.4013;0.9675;
663.6000;0.4005;0.9552;
663.9000;0.4021;0.9576;
664.2000;0.3980;0.9428;
664.5000;0.4005;0.9552;
664.8000;0.3972;0.9428;
665.1000;0.4021;0.9601;
665.4000;0.3989;0.9527;
665.7000;0.3989;0.9552;
666.0000;0.3989;0.9552;
666.3000;0.4037;0.9724;
666.6000;0.3980;0.9700;
666.9000;0.4094;0.9996;
667.2000;0.3989;0.9724;
667.5000;0.3997;0.9700;
667.8000;0.3956;0.9576;
668.1000;0.3964;0.9552;
668.4000;0.3989;0.9601;
668.7000;0.3964;0.9527;
669.0000;0.3972;0.9502;
669.3000;0.3940;0.9601;
669.6000;0.3972;0.9774;
669.9000;0.3964;0.9700;
670.2000;0.3956;0.9650;
670.5000;0.4021;0.9872;
670.8000;0.3989;0.9749;
671.1000;0.3940;0.9650;
671.4000;0.3972;0.9675;
671.7000;0.3972;0.9724;
672.0000;0.3964;0.9675;
672.3000;0.3972;0.9749;
672.6000;0.3964;0.9601;
672.9000;0.3989;0.9650;
673.2000;0.3956;0.9626;
673.5000;0.3972;0.9601;
673.8000;0.3972;0.9626;
674.1000;0.3964;0.9650;
674.4000;0.3956;0.9601;
674.7000;0.3956;0.9700;
675.0000;0.4005;0.9848;
675.3000;0.3948;0.9650;
675.6000;0.3964;0.9650;
675.9000;0.3956;0.9576;
676.2000;0.3980;0.9552;
676.5000;0.3972;0.9502;
676.8000;0.3956;0.9477;
677.1000;0.3932;0.9552;
677.4000;0.3948;0.9527;
677.7000;0.3932;0.9527;
678.0000;0.3932;0.9502;
678.3000;0.3932;0.9453;
678.6000;0.3932;0.9552;
678.9000;0.3948;0.9626;
679.2000;0.3932;0.9650;
679.5000;0.3956;0.9626;
679.8000;0.3932;0.9576;
680.1000;0.4005;0.9700;
680.4000;0.3932;0.9576;
680.7000;0.3883;0.9552;
681.0000;0.3932;0.9650;
681.3000;0.3932;0.9650;
681.6000;0.3883;0.9552;
681.9000;0.3923;0.9650;
682.2000;0.3932;0.9724;
682.5000;0.3915;0.9626;
682.8000;0.3915;0.9601;
683.1000;0.3932;0.9724;
683.4000;0.3923;0.9650;
683.7000;0.3940;0.9675;
684.0000;0.4005;0.9823;
684.3000;0.3932;0.9552;
684.6000;0.3932;0.9601;
684.9000;0.3932;0.9626;
685.2000;0.3940;0.9576;
685.5000;0.3923;0.9527;
685.8000;0.3932;0.9601;
686.1000;0.3964;0.9724;
686.4000;0.3923;0.9675;
686.7000;0.3907;0.9626;
687.0000;0.3907;0.9601;
687.3000;0.3932;0.9552;
687.6000;0.3940;0.9626;
687.9000;0.3899;0.9527;
688.2000;0.3915;0.9527;
688.5000;0.3932;0.9576;
688.8000;0.3932;0.9502;
689.1000;0.3940;0.9552;
689.4000;0.3932;0.9576;
689.7000;0.3858;0.9403;
690.0000;0.3940;0.9576;
690.3000;0.3915;0.9502;
690.6000;0.3915;0.9428;
690.9000;0.3858;0.9379;
691.2000;0.3891;0.9552;
691.5000;0.3932;0.9626;
691.8000;0.3915;0.9576;
692.1000;0.3891;0.9626;
692.4000;0.3883;0.9626;
692.7000;0.3883;0.9650;
693.0000;0.3891;0.9724;
693.3000;0.3899;0.9650;
693.6000;0.3899;0.9527;
693.9000;0.3923;0.9700;
694.2000;0.3915;0.9749;
694.5000;0.3907;0.9700;
694.8000;0.3891;0.9700;
695.1000;0.3899;0.9700;
695.4000;0.3915;0.9675;
695.7000;0.3907;0.9601;
696.0000;0.4021;0.9971;
696.3000;0.3907;0.9626;
696.6000;0.3883;0.9552;
696.9000;0.3923;0.9650;
697.2000;0.3907;0.9675;
697.5000;0.3891;0.9527;
697.8000;0.3899;0.9601;
698.1000;0.3964;0.9749;
698.4000;0.3810;0.9403;
698.7000;0.3891;0.9601;
699.0000;0.3867;0.9477;
699.3000;0.3867;0.9576;
699.6000;0.3891;0.9601;
699.9000;0.3883;0.9552;
700.2000;0.3867;0.9502;
700.5000;0.3883;0.9527;
700.8000;0.3899;0.9601;
701.1000;0.3883;0.9650;
701.4000;0.3891;0.9626;
701.7000;0.3891;0.9626;
702.0000;0.3891;0.9700;
702.3000;0.3907;0.9724;
702.6000;0.3891;0.9601;
702.9000;0.3875;0.9576;
703.2000;0.3883;0.9601;
703.5000;0.3891;0.9552;
703.8000;0.3891;0.9576;
704.1000;0.3891;0.9601;
704.4000;0.3915;0.9749;
704.7000;0.3883;0.9700;
705.0000;0.3891;0.9749;
705.3000;0.3875;0.9749;
705.6000;0.3883;0.9774;
705.9000;0.3883;0.9675;
706.2000;0.3899;0.9749;
706.5000;0.3899;0.9675;
706.8000;0.3883;0.9675;
707.1000;0.3891;0.9675;
707.4000;0.3899;0.9700;
707.7000;0.3923;0.9798;
708.0000;0.3899;0.9626;
708.3000;0.3875;0.9502;
708.6000;0.3891;0.9576;
708.9000;0.3932;0.9626;
709.2000;0.3891;0.9601;
709.5000;0.3891;0.9650;
709.8000;0.3875;0.9626;
710.1000;0.3875;0.9576;
710.4000;0.3875;0.9477;
710.7000;0.3875;0.9601;
711.0000;0.3883;0.9576;
711.3000;0.3875;0.9552;
711.6000;0.3875;0.9601;
711.9000;0.3867;0.9601;
712.2000;0.3883;0.9626;
712.5000;0.3899;0.9774;
712.8000;0.3883;0.9724;
713.1000;0.3875;0.9650;
713.4000;0.3883;0.9724;
713.7000;0.3875;0.9626;
714.0000;0.3891;0.9675;
714.3000;0.3858;0.9626;
714.6000;0.3858;0.9552;
714.9000;0.3899;0.9675;
715.2000;0.3858;0.9552;
715.5000;0.3867;0.9576;
715.8000;0.3867;0.9527;
716.1000;0.3867;0.9650;
716.4000;0.3777;0.9527;
716.7000;0.3850;0.9749;
717.0000;0.3858;0.9700;
717.3000;0.3858;0.9724;
717.6000;0.3777;0.9453;
717.9000;0.3964;0.9971;
718.2000;0.3883;0.9749;
718.5000;0.3858;0.9724;
718.8000;0.3883;0.9749;
719.1000;0.3858;0.9724;
719.4000;0.3891;0.9823;
719.7000;0.3793;0.9626;
720.0000;0.3867;0.9774;
720.3000;0.3891;0.9724;
720.6000;0.3875;0.9700;
720.9000;0.3858;0.9650;
721.2000;0.3858;0.9724;
721.5000;0.3867;0.9700;
721.8000;0.3867;0.9675;
722.1000;0.3858;0.9650;
722.4000;0.3858;0.9700;
722.7000;0.3858;0.9774;
723.0000;0.3867;0.9724;
723.3000;0.3858;0.9626;
723.6000;0.3915;0.9774;
723.9000;0.3842;0.9650;
724.2000;0.3867;0.9798;
724.5000;0.3875;0.9848;
724.8000;0.3858;0.9774;
725.1000;0.3850;0.9700;
725.4000;0.3891;0.9700;
725.7000;0.3883;0.9675;
726.0000;0.3850;0.9552;
726.3000;0.3842;0.9527;
726.6000;0.3858;0.9576;
726.9000;0.3850;0.9675;
727.2000;0.3850;0.9724;
727.5000;0.3826;0.9601;
727.8000;0.3850;0.9650;
728.1000;0.3883;0.9724;
728.4000;0.3850;0.9650;
728.7000;0.3753;0.9379;
729.0000;0.3842;0.9675;
729.3000;0.3858;0.9749;
729.6000;0.3858;0.9724;
729.9000;0.3875;0.9675;
730.2000;0.3850;0.9626;
730.5000;0.3883;0.9700;
730.8000;0.3883;0.9724;
731.1000;0.3858;0.9650;
731.4000;0.3850;0.9650;
731.7000;0.3883;0.9650;
732.0000;0.3883;0.9626;
732.3000;0.3867;0.9675;
732.6000;0.3891;0.9749;
732.9000;0.3842;0.9675;
733.2000;0.3850;0.9700;
733.5000;0.3875;0.9749;
733.8000;0.3858;0.9749;
734.1000;0.3883;0.9774;
734.4000;0.3867;0.9774;
734.7000;0.3858;0.9749;
735.0000;0.3867;0.9700;
735.3000;0.3867;0.9749;
735.6000;0.3858;0.9749;
735.9000;0.3858;0.9798;
736.2000;0.3883;0.9946;
736.5000;0.3842;0.9946;
736.8000;0.3818;0.9872;
737.1000;0.3842;0.9922;
737.4000;0.3858;0.9946;
737.7000;0.3810;0.9749;
738.0000;0.3834;0.9823;
738.3000;0.3826;0.9798;
738.6000;0.3728;0.9552;
738.9000;0.3891;0.9897;
739.2000;0.3777;0.9626;
739.5000;0.3826;0.9749;
739.8000;0.3842;0.9798;
740.1000;0.3818;0.9823;
740.4000;0.3842;0.9823;
740.7000;0.3842;0.9823;
741.0000;0.3858;0.9897;
741.3000;0.3818;0.9798;
741.6000;0.3826;0.9823;
741.9000;0.3850;0.9922;
742.2000;0.3826;0.9823;
742.5000;0.3785;0.9700;
742.8000;0.3842;0.9922;
743.1000;0.3850;0.9823;
743.4000;0.3728;0.9552;
743.7000;0.3834;0.9774;
744.0000;0.3907;0.9971;
744.3000;0.3834;0.9774;
744.6000;0.3842;0.9848;
744.9000;0.3850;0.9946;
745.2000;0.3777;0.9749;
745.5000;0.3842;0.9848;
745.8000;0.3826;0.9749;
746.1000;0.3842;0.9774;
746.4000;0.3810;0.9626;
746.7000;0.3867;0.9749;
747.0000;0.3842;0.9724;
747.3000;0.3834;0.9626;
747.6000;0.3867;0.9724;
747.9000;0.3810;0.9626;
748.2000;0.3867;0.9774;
748.5000;0.3858;0.9749;
748.8000;0.3842;0.9823;
749.1000;0.3818;0.9798;
749.4000;0.3834;0.9823;
749.7000;0.3899;0.9971;
750.0000;0.3842;0.9848;
750.3000;0.3834;0.9848;
750.6000;0.3818;0.9798;
750.9000;0.3826;0.9774;
751.2000;0.3834;0.9749;
751.5000;0.3883;0.9798;
751.8000;0.3850;0.9724;
752.1000;0.3793;0.9601;
752.4000;0.3842;0.9774;
752.7000;0.3891;0.9946;
753.0000;0.3842;0.9774;
753.3000;0.3834;0.9675;
753.6000;0.3818;0.9650;
753.9000;0.3850;0.9650;
754.2000;0.3850;0.9700;
754.5000;0.3850;0.9848;
754.8000;0.3826;0.9897;
755.1000;0.3834;1.0020;
755.4000;0.3834;0.9946;
755.7000;0.3842;0.9922;
756.0000;0.3834;0.9971;
756.3000;0.3842;0.9946;
756.6000;0.3858;0.9848;
756.9000;0.3850;0.9798;
757.2000;0.3826;0.9700;
757.5000;0.3842;0.9675;
757.8000;0.3842;0.9700;
758.1000;0.3867;0.9774;
758.4000;0.3834;0.9774;
758.7000;0.3842;0.9798;
759.0000;0.3834;0.9848;
759.3000;0.3875;0.9971;
759.6000;0.3867;0.9922;
759.9000;0.3834;0.9774;
760.2000;0.3850;0.9749;
760.5000;0.3834;0.9749;
760.8000;0.3858;0.9749;
761.1000;0.3858;0.9872;
761.4000;0.3801;0.9749;
761.7000;0.3834;0.9774;
762.0000;0.3818;0.9774;
762.3000;0.3858;0.9897;
762.6000;0.3810;0.9848;
762.9000;0.3842;0.9971;
763.2000;0.3891;1.0070;
763.5000;0.3850;0.9872;
763.8000;0.3842;0.9848;
764.1000;0.3842;0.9798;
764.4000;0.3858;0.9798;
764.7000;0.3810;0.9724;
765.0000;0.3810;0.9675;
765.3000;0.3793;0.9626;
765.6000;0.3850;0.9774;
765.9000;0.3834;0.9700;
766.2000;0.3801;0.9675;
766.5000;0.3842;0.9675;
766.8000;0.3842;0.9626;
767.1000;0.3842;0.9552;
767.4000;0.3826;0.9502;
767.7000;0.3826;0.9552;
768.0000;0.3842;0.9527;
768.3000;0.3858;0.9626;
768.6000;0.3826;0.9626;
768.9000;0.3842;0.9700;
769.2000;0.3761;0.9527;
769.5000;0.3801;0.9724;
769.8000;0.3834;0.9774;
770.1000;0.3867;0.9872;
770.4000;0.3875;0.9798;
770.7000;0.3834;0.9626;
771.0000;0.3818;0.9576;
771.3000;0.3915;0.9848;
771.6000;0.3810;0.9502;
771.9000;0.3834;0.9576;
772.2000;0.3842;0.9552;
772.5000;0.3834;0.9403;
772.8000;0.3834;0.9403;
773.1000;0.3834;0.9453;
773.4000;0.3818;0.9576;
773.7000;0.3867;0.9601;
774.0000;0.3850;0.9650;
774.3000;0.3850;0.9650;
774.6000;0.3867;0.9700;
774.9000;0.3834;0.9675;
775.2000;0.3810;0.9576;
775.5000;0.3842;0.9675;
775.8000;0.3826;0.9675;
776.1000;0.3899;0.9798;
776.4000;0.3826;0.9601;
776.7000;0.3850;0.9700;
777.0000;0.3818;0.9626;
777.3000;0.3842;0.9700;
777.6000;0.3826;0.9650;
777.9000;0.3818;0.9650;
778.2000;0.3826;0.9650;
778.5000;0.3826;0.9650;
778.8000;0.3810;0.9527;
779.1000;0.3826;0.9576;
779.4000;0.3826;0.9527;
779.7000;0.3834;0.9576;
780.0000;0.3834;0.9675;
780.3000;0.3826;0.9724;
780.6000;0.3793;0.9527;
780.9000;0.3826;0.9626;
781.2000;0.3842;0.9650;
781.5000;0.3826;0.9576;
781.8000;0.3801;0.9552;
782.1000;0.3834;0.9527;
782.4000;0.3826;0.9552;
782.7000;0.3826;0.9477;
783.0000;0.3834;0.9576;
783.3000;0.3826;0.9626;
783.6000;0.3818;0.9650;
783.9000;0.3842;0.9700;
784.2000;0.3842;0.9650;
784.5000;0.3801;0.9626;
784.8000;0.3818;0.9576;
785.1000;0.3826;0.9700;
785.4000;0.3858;0.9774;
785.7000;0.3842;0.9774;
786.0000;0.3744;0.9428;
786.3000;0.3818;0.9601;
786.6000;0.3818;0.9601;
786.9000;0.3997;1.0169;
787.2000;0.3826;0.9675;
787.5000;0.3842;0.9576;
787.8000;0.3834;0.9626;
788.1000;0.3810;0.9576;
788.4000;0.3655;0.9255;
788.7000;0.3801;0.9700;
789.0000;0.3826;0.9774;
789.3000;0.3834;0.9749;
789.6000;0.3826;0.9724;
789.9000;0.3818;0.9724;
790.2000;0.3875;0.9700;
790.5000;0.3850;0.9626;
790.8000;0.3842;0.9724;
791.1000;0.3785;0.9700;
791.4000;0.3842;0.9724;
791.7000;0.3842;0.9798;
792.0000;0.3826;0.9675;
792.3000;0.3891;0.9848;
792.6000;0.3915;0.9897;
792.9000;0.3850;0.9848;
793.2000;0.3826;0.9798;
793.5000;0.3818;0.9749;
793.8000;0.3810;0.9675;
794.1000;0.3793;0.9700;
794.4000;0.3761;0.9650;
794.7000;0.3810;0.9848;
795.0000;0.3818;0.9823;
795.3000;0.3826;0.9823;
795.6000;0.3826;0.9798;
795.9000;0.3810;0.9774;
796.2000;0.3834;0.9774;
796.5000;0.3826;0.9749;
796.8000;0.3834;0.9848;
797.1000;0.3826;0.9897;
797.4000;0.3818;0.9798;
797.7000;0.3891;1.0020;
798.0000;0.3826;0.9848;
798.3000;0.3818;0.9798;
798.6000;0.3826;0.9700;
798.9000;0.3810;0.9700;
799.2000;0.3810;0.9749;
799.5000;0.3826;0.9749;
799.8000;0.3793;0.9798;
800.1000;0.3826;0.9922;
800.4000;0.3801;0.9848;
800.7000;0.3810;0.9946;
801.0000;0.3826;0.9872;
801.3000;0.3818;0.9823;
801.6000;0.3810;0.9823;
801.9000;0.3834;0.9823;
802.2000;0.3842;0.9823;
802.5000;0.3810;0.9724;
802.8000;0.3834;0.9675;
803.1000;0.3850;0.9749;
803.4000;0.3826;0.9798;
803.7000;0.3810;0.9626;
804.0000;0.3810;0.9650;
804.3000;0.3826;0.9724;
804.6000;0.3818;0.9724;
804.9000;0.3842;0.9749;
805.2000;0.3842;0.9650;
805.5000;0.3810;0.9601;
805.8000;0.3826;0.9576;
806.1000;0.3826;0.9650;
806.4000;0.3826;0.9700;
806.7000;0.3818;0.9724;
807.0000;0.3818;0.9724;
807.3000;0.3826;0.9675;
807.6000;0.3826;0.9724;
807.9000;0.3818;0.9675;
808.2000;0.3818;0.9700;
808.5000;0.3810;0.9650;
808.8000;0.3818;0.9601;
809.1000;0.3867;0.9774;
809.4000;0.3769;0.9626;
809.7000;0.3834;0.9823;
810.0000;0.3818;0.9724;
810.3000;0.3801;0.9700;
810.6000;0.3810;0.9626;
810.9000;0.3801;0.9576;
811.2000;0.3826;0.9576;
811.5000;0.3810;0.9502;
811.8000;0.3801;0.9477;
812.1000;0.3793;0.9477;
812.4000;0.3793;0.9453;
812.7000;0.3801;0.9477;
813.0000;0.3744;0.9403;
813.3000;0.3915;0.9897;
813.6000;0.3826;0.9700;
813.9000;0.3867;0.9823;
814.2000;0.3826;0.9749;
814.5000;0.3818;0.9675;
814.8000;0.3793;0.9601;
815.1000;0.3810;0.9601;
815.4000;0.3858;0.9700;
815.7000;0.3826;0.9626;
816.0000;0.3818;0.9675;
816.3000;0.3826;0.9675;
816.6000;0.3875;0.9798;
816.9000;0.3826;0.9626;
817.2000;0.3810;0.9675;
817.5000;0.3818;0.9724;
817.8000;0.3850;0.9774;
818.1000;0.3810;0.9650;
818.4000;0.3867;0.9798;
818.7000;0.3842;0.9700;
819.0000;0.3834;0.9724;
819.3000;0.3810;0.9724;
819.6000;0.3793;0.9675;
819.9000;0.3818;0.9749;
820.2000;0.3810;0.9774;
820.5000;0.3818;0.9774;
820.8000;0.3810;0.9823;
821.1000;0.3810;0.9774;
821.4000;0.3810;0.9774;
821.7000;0.3810;0.9724;
822.0000;0.3842;0.9700;
822.3000;0.3818;0.9576;
822.6000;0.3826;0.9650;
822.9000;0.3801;0.9601;
823.2000;0.3810;0.9552;
823.5000;0.3801;0.9576;
823.8000;0.3810;0.9675;
824.1000;0.3818;0.9749;
824.4000;0.3834;0.9798;
824.7000;0.3801;0.9675;
825.0000;0.3810;0.9724;
825.3000;0.3826;0.9823;
825.6000;0.3810;0.9700;
825.9000;0.3875;0.9774;
826.2000;0.3834;0.9650;
826.5000;0.3818;0.9650;
826.8000;0.3810;0.9675;
827.1000;0.3834;0.9798;
827.4000;0.3810;0.9774;
827.7000;0.3810;0.9774;
828.0000;0.3834;0.9823;
828.3000;0.3801;0.9798;
828.6000;0.3818;0.9774;
828.9000;0.3867;0.9798;
829.2000;0.3826;0.9774;
829.5000;0.3826;0.9774;
829.8000;0.3810;0.9724;
830.1000;0.3907;1.0020;
830.4000;0.3834;0.9823;
830.7000;0.3834;0.9823;
831.0000;0.3793;0.9650;
831.3000;0.3826;0.9650;
831.6000;0.3793;0.9576;
831.9000;0.3810;0.9601;
832.2000;0.3834;0.9601;
832.5000;0.3801;0.9601;
832.8000;0.3810;0.9650;
833.1000;0.3810;0.9675;
833.4000;0.3818;0.9798;
833.7000;0.3801;0.9724;
834.0000;0.3793;0.9650;
834.3000;0.3826;0.9527;
834.6000;0.3736;0.9403;
834.9000;0.3858;0.9650;
835.2000;0.3818;0.9552;
835.5000;0.3810;0.9477;
835.8000;0.3826;0.9552;
836.1000;0.3818;0.9552;
836.4000;0.3769;0.9502;
836.7000;0.3785;0.9576;
837.0000;0.3818;0.9650;
837.3000;0.3834;0.9626;
837.6000;0.3801;0.9601;
837.9000;0.3810;0.9650;
838.2000;0.3810;0.9749;
838.5000;0.3818;0.9774;
838.8000;0.3810;0.9774;
839.1000;0.3818;0.9774;
839.4000;0.3801;0.9700;
839.7000;0.3818;0.9700;
840.0000;0.3834;0.9774;
840.3000;0.3826;0.9774;
840.6000;0.3810;0.9823;
840.9000;0.3810;0.9798;
841.2000;0.3834;0.9774;
841.5000;0.3801;0.9650;
841.8000;0.3793;0.9650;
842.1000;0.3842;0.9700;
842.4000;0.3834;0.9675;
842.7000;0.3818;0.9626;
843.0000;0.3801;0.9477;
843.3000;0.3810;0.9453;
843.6000;0.3801;0.9527;
843.9000;0.3785;0.9552;
844.2000;0.3818;0.9601;
844.5000;0.3818;0.9527;
844.8000;0.3826;0.9527;
845.1000;0.3834;0.9502;
845.4000;0.3818;0.9453;
845.7000;0.3826;0.9502;
846.0000;0.3818;0.9477;
846.3000;0.3818;0.9453;
846.6000;0.3810;0.9428;
846.9000;0.3793;0.9477;
847.2000;0.3810;0.9576;
847.5000;0.3810;0.9552;
847.8000;0.3810;0.9502;
848.1000;0.3834;0.9576;
848.4000;0.3818;0.9576;
848.7000;0.3826;0.9601;
849.0000;0.3810;0.9601;
849.3000;0.3801;0.9477;
849.6000;0.3810;0.9552;
849.9000;0.3810;0.9576;
850.2000;0.3801;0.9601;
850.5000;0.3793;0.9576;
850.8000;0.3801;0.9576;
851.1000;0.3826;0.9675;
851.4000;0.3834;0.9675;
851.7000;0.3818;0.9650;
852.0000;0.3793;0.9601;
852.3000;0.3818;0.9601;
852.6000;0.3826;0.9576;
852.9000;0.3818;0.9601;
853.2000;0.3826;0.9650;
853.5000;0.3834;0.9675;
853.8000;0.3818;0.9675;
854.1000;0.3826;0.9724;
854.4000;0.3818;0.9774;
854.7000;0.3801;0.9724;
855.0000;0.3875;0.9872;
855.3000;0.3810;0.9798;
855.6000;0.3720;0.9477;
855.9000;0.3834;0.9675;
856.2000;0.3810;0.9675;
856.5000;0.3785;0.9576;
856.8000;0.3801;0.9675;
857.1000;0.3826;0.9700;
857.4000;0.3801;0.9576;
857.7000;0.3810;0.9626;
858.0000;0.3858;0.9848;
858.3000;0.3810;0.9700;
858.6000;0.3810;0.9749;
858.9000;0.3818;0.9848;
859.2000;0.3810;0.9749;
859.5000;0.3826;0.9798;
859.8000;0.3801;0.9774;
860.1000;0.3793;0.9700;
860.4000;0.3826;0.9798;
860.7000;0.3818;0.9724;
861.0000;0.3801;0.9626;
861.3000;0.3785;0.9576;
861.6000;0.3818;0.9675;
861.9000;0.3850;0.9749;
862.2000;0.3810;0.9749;
862.5000;0.3810;0.9700;
862.8000;0.3810;0.9650;
863.1000;0.3818;0.9724;
863.4000;0.3858;0.9897;
863.7000;0.3810;0.9848;
864.0000;0.3875;0.9996;
864.3000;0.3769;0.9848;
864.6000;0.3810;0.9897;
864.9000;0.3801;0.9823;
865.2000;0.3818;0.9848;
865.5000;0.3801;0.9798;
865.8000;0.3801;0.9823;
866.1000;0.3810;0.9798;
866.4000;0.3777;0.9749;
866.7000;0.3793;0.9798;
867.0000;0.3818;0.9774;
867.3000;0.3793;0.9650;
867.6000;0.3793;0.9700;
867.9000;0.3777;0.9675;
868.2000;0.3810;0.9749;
868.5000;0.3801;0.9749;
868.8000;0.3810;0.9724;
869.1000;0.3818;0.9675;
869.4000;0.3777;0.9724;
869.7000;0.3850;0.9897;
870.0000;0.3777;0.9749;
870.3000;0.3801;0.9724;
870.6000;0.3769;0.9675;
870.9000;0.3826;0.9848;
871.2000;0.3801;0.9848;
871.5000;0.3736;0.9675;
871.8000;0.3818;0.9872;
872.1000;0.3801;0.9897;
872.4000;0.3801;0.9872;
872.7000;0.3826;0.9897;
873.0000;0.3810;0.9897;
873.3000;0.3801;0.9922;
873.6000;0.3810;0.9848;
873.9000;0.3793;0.9823;
874.2000;0.3793;0.9798;
874.5000;0.3801;0.9848;
874.8000;0.3818;0.9848;
875.1000;0.3818;0.9798;
875.4000;0.3801;0.9724;
875.7000;0.3687;0.9428;
876.0000;0.3777;0.9700;
876.3000;0.3793;0.9700;
876.6000;0.3818;0.9798;
876.9000;0.3826;0.9946;
877.2000;0.3818;0.9872;
877.5000;0.3810;0.9848;
877.8000;0.3785;0.9798;
878.1000;0.3801;0.9823;
878.4000;0.3793;0.9798;
878.7000;0.3858;0.9897;
879.0000;0.3810;0.9675;
879.3000;0.3801;0.9749;
879.6000;0.3818;0.9749;
879.9000;0.3818;0.9700;
880.2000;0.3801;0.9601;
880.5000;0.3810;0.9675;
880.8000;0.3777;0.9675;
881.1000;0.3801;0.9798;
881.4000;0.3777;0.9601;
881.7000;0.3810;0.9749;
882.0000;0.3744;0.9675;
882.3000;0.3777;0.9823;
882.6000;0.3769;0.9774;
882.9000;0.3818;0.9946;
883.2000;0.3818;0.9897;
883.5000;0.3793;0.9848;
883.8000;0.3842;1.0020;
884.1000;0.3842;0.9996;
884.4000;0.3785;0.9971;
884.7000;0.3883;1.0070;
885.0000;0.3858;0.9872;
885.3000;0.3801;0.9724;
885.6000;0.3793;0.9798;
885.9000;0.3818;0.9922;
886.2000;0.3769;0.9798;
886.5000;0.3801;0.9946;
886.8000;0.3793;0.9872;
887.1000;0.3801;0.9897;
887.4000;0.3810;0.9848;
887.7000;0.3826;0.9897;
888.0000;0.3826;0.9946;
888.3000;0.3801;0.9922;
888.6000;0.3810;0.9872;
888.9000;0.3826;0.9971;
889.2000;0.3801;0.9922;
889.5000;0.3801;0.9922;
889.8000;0.3850;1.0045;
890.1000;0.3834;1.0045;
890.4000;0.3801;0.9971;
890.7000;0.3801;0.9922;
891.0000;0.3777;0.9823;
891.3000;0.3753;0.9650;
891.6000;0.3842;0.9848;
891.9000;0.3801;0.9823;
892.2000;0.3801;0.9848;
892.5000;0.3801;0.9872;
892.8000;0.3785;0.9798;
893.1000;0.3777;0.9774;
893.4000;0.3793;0.9823;
893.7000;0.3801;0.9897;
894.0000;0.3801;0.9946;
894.3000;0.3793;0.9848;
894.6000;0.3801;0.9823;
894.9000;0.3793;0.9724;
895.2000;0.3785;0.9798;
895.5000;0.3810;0.9922;
895.8000;0.3810;0.9848;
896.1000;0.3818;0.9823;
896.4000;0.3801;0.9774;
896.7000;0.3810;0.9749;
897.0000;0.3818;0.9774;
897.3000;0.3793;0.9848;
897.6000;0.3818;0.9996;
897.9000;0.3793;0.9996;
898.2000;0.3891;1.0193;
898.5000;0.3801;0.9922;
898.8000;0.3810;1.0070;
899.1000;0.3818;1.0020;
899.4000;0.3810;1.0020;
899.7000;0.3826;1.0045;
900.0000;0.3810;0.9971;
900.3000;0.3810;1.0020;
900.6000;0.3777;0.9848;
900.9000;0.3818;0.9946;
901.2000;0.3842;0.9996;
901.5000;0.3793;0.9872;
901.8000;0.3818;0.9848;
902.1000;0.3826;0.9848;
902.4000;0.3761;0.9650;
902.7000;0.3801;0.9798;
903.0000;0.3842;0.9872;
903.3000;0.3785;0.9675;
903.6000;0.3818;0.9675;
903.9000;0.3761;0.9650;
904.2000;0.3818;0.9848;
904.5000;0.3785;0.9798;
904.8000;0.3810;0.9848;
905.1000;0.3899;1.0045;
905.4000;0.3842;0.9848;
905.7000;0.3810;0.9848;
906.0000;0.3785;0.9774;
906.3000;0.3785;0.9700;
906.6000;0.3761;0.9724;
906.9000;0.3810;0.9823;
907.2000;0.3793;0.9724;
907.5000;0.3785;0.9650;
907.8000;0.3834;0.9749;
908.1000;0.3842;0.9897;
908.4000;0.3785;0.9823;
908.7000;0.3785;0.9872;
909.0000;0.3793;0.9848;
909.3000;0.3785;0.9798;
909.6000;0.3858;0.9996;
909.9000;0.3785;0.9823;
910.2000;0.3842;0.9848;
910.5000;0.3785;0.9700;
910.8000;0.3883;1.0020;
911.1000;0.3793;0.9823;
911.4000;0.3696;0.9502;
911.7000;0.3769;0.9749;
912.0000;0.3785;0.9848;
912.3000;0.3769;0.9774;
912.6000;0.3834;0.9897;
912.9000;0.3810;0.9774;
913.2000;0.3834;0.9848;
913.5000;0.3801;0.9848;
913.8000;0.3826;0.9897;
914.1000;0.3801;0.9872;
914.4000;0.3818;0.9971;
914.7000;0.3801;0.9971;
915.0000;0.3818;0.9971;
915.3000;0.3818;0.9922;
915.6000;0.3793;0.9798;
915.9000;0.3834;0.9823;
916.2000;0.3801;0.9675;
916.5000;0.3826;0.9675;
916.8000;0.3785;0.9626;
917.1000;0.3793;0.9749;
917.4000;0.3818;0.9774;
917.7000;0.3810;0.9724;
918.0000;0.3785;0.9700;
918.3000;0.3801;0.9749;
918.6000;0.3793;0.9774;
918.9000;0.3810;0.9848;
919.2000;0.3858;0.9996;
919.5000;0.3810;0.9749;
919.8000;0.3818;0.9724;
920.1000;0.3777;0.9724;
920.4000;0.3818;0.9724;
920.7000;0.3728;0.9552;
921.0000;0.3883;0.9774;
921.3000;0.3826;0.9650;
921.6000;0.3842;0.9724;
921.9000;0.3769;0.9527;
922.2000;0.3785;0.9502;
922.5000;0.3793;0.9650;
922.8000;0.3801;0.9749;
923.1000;0.3785;0.9724;
923.4000;0.3793;0.9749;
923.7000;0.3810;0.9774;
924.0000;0.3810;0.9650;
924.3000;0.3801;0.9626;
924.6000;0.3793;0.9601;
924.9000;0.3818;0.9650;
925.2000;0.3810;0.9650;
925.5000;0.3818;0.9700;
925.8000;0.3801;0.9626;
926.1000;0.3785;0.9576;
926.4000;0.3858;0.9675;
926.7000;0.3785;0.9576;
927.0000;0.3744;0.9453;
927.3000;0.3834;0.9650;
927.6000;0.3785;0.9527;
927.9000;0.3777;0.9502;
928.2000;0.3810;0.9601;
928.5000;0.3761;0.9428;
928.8000;0.3785;0.9576;
929.1000;0.3769;0.9527;
929.4000;0.3785;0.9502;
929.7000;0.3785;0.9502;
930.0000;0.3810;0.9453;
930.3000;0.3704;0.9058;
930.6000;0.3899;0.9601;
930.9000;0.3818;0.9354;
931.2000;0.3818;0.9453;
931.5000;0.3834;0.9626;
931.8000;0.3834;0.9527;
932.1000;0.3858;0.9576;
932.4000;0.3785;0.9428;
932.7000;0.3801;0.9527;
933.0000;0.3801;0.9552;
933.3000;0.3793;0.9527;
933.6000;0.3777;0.9502;
933.9000;0.3793;0.9502;
934.2000;0.3801;0.9552;
934.5000;0.3801;0.9552;
934.8000;0.3801;0.9626;
935.1000;0.3761;0.9650;
935.4000;0.3801;0.9626;
935.7000;0.3801;0.9626;
936.0000;0.3818;0.9675;
936.3000;0.3810;0.9601;
936.6000;0.3818;0.9552;
936.9000;0.3810;0.9626;
937.2000;0.3810;0.9675;
937.5000;0.3785;0.9650;
937.8000;0.3785;0.9601;
938.1000;0.3801;0.9601;
938.4000;0.3818;0.9502;
938.7000;0.3801;0.9428;
939.0000;0.3793;0.9428;
939.3000;0.3810;0.9477;
939.6000;0.3818;0.9453;
939.9000;0.3793;0.9477;
940.2000;0.3777;0.9403;
940.5000;0.3801;0.9502;
940.8000;0.3801;0.9477;
941.1000;0.3801;0.9428;
941.4000;0.3826;0.9527;
941.7000;0.3793;0.9502;
942.0000;0.3801;0.9576;
942.3000;0.3801;0.9527;
942.6000;0.3793;0.9527;
942.9000;0.3753;0.9453;
943.2000;0.3810;0.9552;
943.5000;0.3834;0.9700;
943.8000;0.3793;0.9626;
944.1000;0.3785;0.9477;
944.4000;0.3793;0.9477;
944.7000;0.3810;0.9552;
945.0000;0.3753;0.9403;
945.3000;0.3793;0.9502;
945.6000;0.3793;0.9403;
945.9000;0.3818;0.9428;
946.2000;0.3818;0.9379;
946.5000;0.3818;0.9428;
946.8000;0.3793;0.9379;
947.1000;0.3793;0.9477;
947.4000;0.3818;0.9601;
947.7000;0.3777;0.9552;
948.0000;0.3875;0.9724;
948.3000;0.3818;0.9552;
948.6000;0.3801;0.9527;
948.9000;0.3810;0.9502;
949.2000;0.3818;0.9601;
949.5000;0.3793;0.9576;
949.8000;0.3810;0.9626;
950.1000;0.3801;0.9650;
950.4000;0.3785;0.9626;
950.7000;0.3785;0.9576;
951.0000;0.3801;0.9576;
951.3000;0.3801;0.9576;
951.6000;0.3785;0.9552;
951.9000;0.3793;0.9453;
952.2000;0.3810;0.9527;
952.5000;0.3793;0.9527;
952.8000;0.3801;0.9477;
953.1000;0.3810;0.9453;
953.4000;0.3801;0.9354;
953.7000;0.3801;0.9280;
954.0000;0.3793;0.9379;
954.3000;0.3785;0.9255;
954.6000;0.3777;0.9354;
954.9000;0.3777;0.9329;
955.2000;0.3810;0.9305;
955.5000;0.3793;0.9206;
955.8000;0.3793;0.9181;
956.1000;0.3793;0.9083;
956.4000;0.3769;0.8984;
956.7000;0.3834;0.9181;
957.0000;0.3801;0.9181;
957.3000;0.3891;0.9527;
957.6000;0.3785;0.9280;
957.9000;0.3810;0.9329;
958.2000;0.3712;0.9206;
958.5000;0.3801;0.9428;
958.8000;0.3826;0.9453;
959.1000;0.3810;0.9428;
959.4000;0.3810;0.9379;
959.7000;0.3810;0.9403;
960.0000;0.3810;0.9305;
960.3000;0.3867;0.9502;
960.6000;0.3801;0.9329;
960.9000;0.3769;0.9280;
961.2000;0.3801;0.9428;
961.5000;0.3777;0.9453;
961.8000;0.3818;0.9453;
962.1000;0.3785;0.9403;
962.4000;0.3801;0.9453;
962.7000;0.3810;0.9576;
963.0000;0.3801;0.9626;
963.3000;0.3810;0.9576;
963.6000;0.3793;0.9576;
963.9000;0.3769;0.9527;
964.2000;0.3810;0.9650;
964.5000;0.3785;0.9552;
964.8000;0.3785;0.9552;
965.1000;0.3801;0.9453;
965.4000;0.3810;0.9428;
965.7000;0.3785;0.9280;
966.0000;0.3753;0.9231;
966.3000;0.3785;0.9305;
966.6000;0.3801;0.9379;
966.9000;0.3785;0.9379;
967.2000;0.3793;0.9527;
967.5000;0.3801;0.9601;
967.8000;0.3777;0.9502;
968.1000;0.3793;0.9428;
968.4000;0.3793;0.9477;
968.7000;0.3793;0.9576;
969.0000;0.3793;0.9576;
969.3000;0.3810;0.9576;
969.6000;0.3801;0.9477;
969.9000;0.3777;0.9354;
970.2000;0.3818;0.9477;
970.5000;0.3793;0.9305;
970.8000;0.3810;0.9305;
971.1000;0.3785;0.9255;
971.4000;0.3801;0.9305;
971.7000;0.3793;0.9453;
972.0000;0.3810;0.9502;
972.3000;0.3769;0.9552;
972.6000;0.3777;0.9576;
972.9000;0.3785;0.9601;
973.2000;0.3801;0.9700;
973.5000;0.3801;0.9626;
973.8000;0.3785;0.9552;
974.1000;0.3793;0.9527;
974.4000;0.3793;0.9650;
974.7000;0.3793;0.9601;
975.0000;0.3801;0.9576;
975.3000;0.3842;0.9650;
975.6000;0.3810;0.9552;
975.9000;0.3736;0.9428;
976.2000;0.3761;0.9527;
976.5000;0.3744;0.9477;
976.8000;0.3801;0.9626;
977.1000;0.3793;0.9576;
977.4000;0.3744;0.9477;
977.7000;0.3785;0.9453;
978.0000;0.3777;0.9354;
978.3000;0.3793;0.9428;
978.6000;0.3801;0.9379;
978.9000;0.3810;0.9428;
979.2000;0.3736;0.9157;
979.5000;0.3801;0.9280;
979.8000;0.3793;0.9379;
980.1000;0.3785;0.9453;
980.4000;0.3761;0.9477;
980.7000;0.3785;0.9502;
981.0000;0.3801;0.9502;
981.3000;0.3785;0.9403;
981.6000;0.3810;0.9428;
981.9000;0.3793;0.9403;
982.2000;0.3793;0.9453;
982.5000;0.3810;0.9552;
982.8000;0.3810;0.9601;
983.1000;0.3810;0.9774;
983.4000;0.3801;0.9749;
983.7000;0.3777;0.9675;
984.0000;0.3801;0.9601;
984.3000;0.3769;0.9428;
984.6000;0.3777;0.9428;
984.9000;0.3818;0.9477;
985.2000;0.3793;0.9403;
985.5000;0.3785;0.9379;
985.8000;0.3801;0.9403;
986.1000;0.3826;0.9527;
986.4000;0.3801;0.9354;
986.7000;0.3793;0.9354;
987.0000;0.3810;0.9354;
987.3000;0.3793;0.9305;
987.6000;0.3818;0.9379;
987.9000;0.3793;0.9305;
988.2000;0.3801;0.9379;
988.5000;0.3801;0.9403;
988.8000;0.3883;0.9650;
989.1000;0.3818;0.9428;
989.4000;0.3793;0.9428;
989.7000;0.3777;0.9329;
990.0000;0.3761;0.9354;
990.3000;0.3801;0.9477;
990.6000;0.3801;0.9502;
990.9000;0.3785;0.9576;
991.2000;0.3801;0.9675;
991.5000;0.3793;0.9601;
991.8000;0.3793;0.9453;
992.1000;0.3801;0.9502;
992.4000;0.3801;0.9502;
992.7000;0.3769;0.9379;
993.0000;0.3810;0.9527;
993.3000;0.3785;0.9502;
993.6000;0.3850;0.9700;
993.9000;0.3842;0.9724;
994.2000;0.3793;0.9626;
994.5000;0.3785;0.9527;
994.8000;0.3777;0.9477;
995.1000;0.3793;0.9477;
995.4000;0.3801;0.9552;
995.7000;0.3810;0.9527;
996.0000;0.3785;0.9502;
996.3000;0.3793;0.9477;
996.6000;0.3793;0.9527;
996.9000;0.3753;0.9379;
997.2000;0.3785;0.9502;
997.5000;0.3777;0.9477;
997.8000;0.3793;0.9477;
998.1000;0.3753;0.9428;
998.4000;0.3793;0.9626;
998.7000;0.3777;0.9601;
999.0000;0.3883;0.9823;
999.3000;0.3793;0.9453;
999.6000;0.3793;0.9428;
999.9000;0.3777;0.9354;
1000.2000;0.3834;0.9527;
1000.5000;0.3801;0.9453;
1000.8000;0.3818;0.9477;
1001.1000;0.3785;0.9403;
1001.4000;0.3810;0.9650;
1001.7000;0.3793;0.9700;
1002.0000;0.3793;0.9675;
1002.3000;0.3785;0.9601;
1002.6000;0.3793;0.9601;
1002.9000;0.3687;0.9255;
1003.2000;0.3810;0.9527;
1003.5000;0.3858;0.9626;
1003.8000;0.3785;0.9379;
1004.1000;0.3785;0.9329;
1004.4000;0.3801;0.9428;
1004.7000;0.3801;0.9354;
1005.0000;0.3793;0.9379;
1005.3000;0.3704;0.9231;
1005.6000;0.3810;0.9453;
1005.9000;0.3810;0.9453;
1006.2000;0.3801;0.9502;
1006.5000;0.3793;0.9428;
1006.8000;0.3801;0.9379;
1007.1000;0.3801;0.9403;
1007.4000;0.3810;0.9329;
1007.7000;0.3761;0.9231;
1008.0000;0.3785;0.9428;
1008.3000;0.3785;0.9379;
1008.6000;0.3801;0.9428;
1008.9000;0.3777;0.9329;
1009.2000;0.3785;0.9379;
1009.5000;0.3801;0.9428;
1009.8000;0.3801;0.9576;
1010.1000;0.3777;0.9477;
1010.4000;0.3793;0.9576;
1010.7000;0.3777;0.9576;
1011.0000;0.3834;0.9749;
1011.3000;0.3785;0.9626;
1011.6000;0.3785;0.9576;
1011.9000;0.3785;0.9576;
1012.2000;0.3801;0.9626;
1012.5000;0.3801;0.9601;
1012.8000;0.3793;0.9601;
1013.1000;0.3818;0.9774;
1013.4000;0.3801;0.9700;
1013.7000;0.3801;0.9601;
1014.0000;0.3769;0.9576;
1014.3000;0.3793;0.9601;
1014.6000;0.3801;0.9626;
1014.9000;0.3842;0.9700;
1015.2000;0.3899;0.9774;
1015.5000;0.3793;0.9453;
1015.8000;0.3834;0.9552;
1016.1000;0.3834;0.9650;
1016.4000;0.3793;0.9601;
1016.7000;0.3793;0.9552;
1017.0000;0.3810;0.9576;
1017.3000;0.3793;0.9527;
1017.6000;0.3777;0.9552;
1017.9000;0.3793;0.9453;
1018.2000;0.3793;0.9552;
1018.5000;0.3736;0.9403;
1018.8000;0.3801;0.9576;
1019.1000;0.3907;0.9848;
1019.4000;0.3818;0.9650;
1019.7000;0.3801;0.9626;
1020.0000;0.3785;0.9601;
1020.3000;0.3810;0.9749;
1020.6000;0.3761;0.9650;
1020.9000;0.3720;0.9576;
1021.2000;0.3785;0.9700;
1021.5000;0.3736;0.9650;
1021.8000;0.3704;0.9601;
1022.1000;0.3842;0.9897;
1022.4000;0.3801;0.9774;
1022.7000;0.3793;0.9675;
1023.0000;0.3793;0.9700;
1023.3000;0.3793;0.9626;
1023.6000;0.3793;0.9626;
1023.9000;0.3777;0.9675;
1024.2000;0.3777;0.9675;
1024.5000;0.3785;0.9700;
1024.8000;0.3728;0.9502;
1025.1000;0.3785;0.9601;
1025.4000;0.3777;0.9601;
1025.7000;0.3785;0.9749;
1026.0000;0.3785;0.9798;
1026.3000;0.3810;0.9848;
1026.6000;0.3810;0.9774;
1026.9000;0.3818;0.9749;
1027.2000;0.3810;0.9749;
1027.5000;0.3777;0.9724;
1027.8000;0.3801;0.9774;
1028.1000;0.3785;0.9700;
1028.4000;0.3810;0.9675;
1028.7000;0.3810;0.9626;
1029.0000;0.3793;0.9650;
1029.3000;0.3793;0.9576;
1029.6000;0.3720;0.9428;
1029.9000;0.3793;0.9626;
1030.2000;0.3810;0.9724;
1030.5000;0.3793;0.9675;
1030.8000;0.3793;0.9576;
1031.1000;0.3810;0.9601;
1031.4000;0.3801;0.9576;
1031.7000;0.3793;0.9552;
1032.0000;0.3785;0.9502;
1032.3000;0.3785;0.9403;
1032.6000;0.3785;0.9453;
1032.9000;0.3810;0.9502;
1033.2000;0.3785;0.9502;
1033.5000;0.3818;0.9527;
1033.8000;0.3793;0.9477;
1034.1000;0.3801;0.9527;
1034.4000;0.3810;0.9527;
1034.7000;0.3793;0.9601;
1035.0000;0.3777;0.9527;
1035.3000;0.3785;0.9576;
1035.6000;0.3793;0.9576;
1035.9000;0.3777;0.9502;
1036.2000;0.3777;0.9428;
1036.5000;0.3834;0.9527;
1036.8000;0.3850;0.9552;
1037.1000;0.3785;0.9379;
1037.4000;0.3793;0.9453;
1037.7000;0.3801;0.9453;
1038.0000;0.3728;0.9231;
1038.3000;0.3810;0.9428;
1038.6000;0.3801;0.9329;
1038.9000;0.3704;0.9033;
1039.2000;0.3793;0.9280;
1039.5000;0.3785;0.9305;
1039.8000;0.3826;0.9354;
1040.1000;0.3793;0.9280;
1040.4000;0.3736;0.9181;
1040.7000;0.3769;0.9354;
1041.0000;0.3793;0.9379;
1041.3000;0.3810;0.9379;
1041.6000;0.3769;0.9379;
1041.9000;0.3801;0.9527;
1042.2000;0.3834;0.9502;
1042.5000;0.3867;0.9576;
1042.8000;0.3777;0.9403;
1043.1000;0.3793;0.9428;
1043.4000;0.3818;0.9502;
1043.7000;0.3793;0.9379;
1044.0000;0.3801;0.9403;
1044.3000;0.3785;0.9379;
1044.6000;0.3801;0.9403;
1044.9000;0.3785;0.9329;
1045.2000;0.3785;0.9329;
1045.5000;0.3842;0.9453;
1045.8000;0.3777;0.9206;
1046.1000;0.3793;0.9354;
1046.4000;0.3785;0.9280;
1046.7000;0.3793;0.9255;
1047.0000;0.3777;0.9280;
1047.3000;0.3785;0.9329;
1047.6000;0.3810;0.9354;
1047.9000;0.3883;0.9552;
1048.2000;0.3801;0.9403;
1048.5000;0.3810;0.9428;
1048.8000;0.3810;0.9428;
1049.1000;0.3793;0.9354;
1049.4000;0.3834;0.9502;
1049.7000;0.3801;0.9477;
1050.0000;0.3793;0.9453;
1050.3000;0.3793;0.9428;
1050.6000;0.3793;0.9477;
1050.9000;0.3785;0.9477;
1051.2000;0.3801;0.9527;
1051.5000;0.3793;0.9502;
1051.8000;0.3801;0.9527;
1052.1000;0.3793;0.9453;
1052.4000;0.3818;0.9403;
1052.7000;0.3785;0.9280;
1053.0000;0.3810;0.9280;
1053.3000;0.3801;0.9329;
1053.6000;0.3810;0.9453;
1053.9000;0.3858;0.9576;
1054.2000;0.3793;0.9453;
1054.5000;0.3810;0.9477;
1054.8000;0.3801;0.9552;
1055.1000;0.3818;0.9675;
1055.4000;0.3875;0.9724;
1055.7000;0.3793;0.9576;
1056.0000;0.3801;0.9527;
1056.3000;0.3801;0.9477;
1056.6000;0.3793;0.9453;
1056.9000;0.3842;0.9502;
1057.2000;0.3801;0.9477;
1057.5000;0.3818;0.9552;
1057.8000;0.3818;0.9650;
1058.1000;0.3801;0.9626;
1058.4000;0.3777;0.9601;
1058.7000;0.3810;0.9650;
1059.0000;0.3744;0.9428;
1059.3000;0.3834;0.9650;
1059.6000;0.3810;0.9576;
1059.9000;0.3785;0.9527;
1060.2000;0.3818;0.9650;
1060.5000;0.3785;0.9552;
1060.8000;0.3744;0.9428;
1061.1000;0.3744;0.9502;
1061.4000;0.3777;0.9650;
1061.7000;0.3818;0.9700;
1062.0000;0.3793;0.9626;
1062.3000;0.3785;0.9626;
1062.6000;0.3793;0.9700;
1062.9000;0.3793;0.9700;
1063.2000;0.3785;0.9601;
1063.5000;0.3785;0.9700;
1063.8000;0.3785;0.9774;
1064.1000;0.3793;0.9823;
1064.4000;0.3793;0.9774;
1064.7000;0.3793;0.9774;
1065.0000;0.3785;0.9724;
1065.3000;0.3810;0.9848;
1065.6000;0.3818;0.9971;
1065.9000;0.3793;0.9848;
1066.2000;0.3850;0.9971;
1066.5000;0.3810;0.9872;
1066.8000;0.3810;0.9823;
1067.1000;0.3793;0.9798;
1067.4000;0.3793;0.9774;
1067.7000;0.3785;0.9675;
1068.0000;0.3793;0.9650;
1068.3000;0.3753;0.9576;
1068.6000;0.3785;0.9774;
1068.9000;0.3769;0.9626;
1069.2000;0.3777;0.9601;
1069.5000;0.3769;0.9650;
1069.8000;0.3769;0.9626;
1070.1000;0.3761;0.9675;
1070.4000;0.3785;0.9798;
1070.7000;0.3801;0.9749;
1071.0000;0.3793;0.9724;
1071.3000;0.3785;0.9700;
1071.6000;0.3769;0.9675;
1071.9000;0.3793;0.9749;
1072.2000;0.3777;0.9675;
1072.5000;0.3753;0.9527;
1072.8000;0.3785;0.9626;
1073.1000;0.3810;0.9724;
1073.4000;0.3818;0.9700;
1073.7000;0.3793;0.9601;
1074.0000;0.3777;0.9552;
1074.3000;0.3777;0.9576;
1074.6000;0.3793;0.9650;
1074.9000;0.3818;0.9675;
1075.2000;0.3793;0.9626;
1075.5000;0.3801;0.9626;
1075.8000;0.3801;0.9700;
1076.1000;0.3810;0.9675;
1076.4000;0.3793;0.9650;
1076.7000;0.3777;0.9626;
1077.0000;0.3793;0.9675;
1077.3000;0.3801;0.9724;
1077.6000;0.3785;0.9626;
1077.9000;0.3761;0.9576;
1078.2000;0.3785;0.9626;
1078.5000;0.3810;0.9601;
1078.8000;0.3801;0.9626;
1079.1000;0.3769;0.9552;
1079.4000;0.3801;0.9650;
1079.7000;0.3867;0.9872;
1080.0000;0.3785;0.9823;
1080.3000;0.3785;0.9823;
1080.6000;0.3785;0.9823;
1080.9000;0.3793;0.9798;
1081.2000;0.3801;0.9749;
1081.5000;0.3793;0.9675;
1081.8000;0.3923;0.9996;
1082.1000;0.3834;0.9872;
1082.4000;0.3793;0.9675;
1082.7000;0.3785;0.9650;
1083.0000;0.3801;0.9650;
1083.3000;0.3785;0.9650;
1083.6000;0.3810;0.9749;
1083.9000;0.3728;0.9502;
1084.2000;0.3777;0.9626;
1084.5000;0.3793;0.9700;
1084.8000;0.3761;0.9650;
1085.1000;0.3785;0.9700;
1085.4000;0.3785;0.9798;
1085.7000;0.3842;0.9971;
1086.0000;0.3801;0.9872;
1086.3000;0.3810;0.9897;
1086.6000;0.3793;0.9848;
1086.9000;0.3801;0.9848;
1087.2000;0.3810;0.9848;
1087.5000;0.3801;0.9724;
1087.8000;0.3810;0.9675;
1088.1000;0.3818;0.9749;
1088.4000;0.3785;0.9675;
1088.7000;0.3818;0.9675;
1089.0000;0.3793;0.9576;
1089.3000;0.3801;0.9601;
1089.6000;0.3801;0.9502;
1089.9000;0.3793;0.9527;
1090.2000;0.3761;0.9576;
1090.5000;0.3818;0.9675;
1090.8000;0.3810;0.9626;
1091.1000;0.3785;0.9626;
1091.4000;0.3777;0.9724;
1091.7000;0.3801;0.9700;
1092.0000;0.3785;0.9576;
1092.3000;0.3777;0.9601;
1092.6000;0.3801;0.9626;
1092.9000;0.3801;0.9675;
1093.2000;0.3801;0.9601;
1093.5000;0.3793;0.9576;
1093.8000;0.3801;0.9576;
1094.1000;0.3793;0.9502;
1094.4000;0.3810;0.9576;
1094.7000;0.3793;0.9502;
1095.0000;0.3810;0.9552;
1095.3000;0.3810;0.9576;
1095.6000;0.3801;0.9552;
1095.9000;0.3696;0.9453;
1096.2000;0.3801;0.9749;
1096.5000;0.3785;0.9675;
1096.8000;0.3793;0.9675;
1097.1000;0.3769;0.9675;
1097.4000;0.3793;0.9798;
1097.7000;0.3801;0.9774;
1098.0000;0.3810;0.9823;
1098.3000;0.3826;0.9798;
1098.6000;0.3793;0.9774;
1098.9000;0.3810;0.9774;
1099.2000;0.3810;0.9650;
1099.5000;0.3810;0.9675;
1099.8000;0.3793;0.9700;
1100.1000;0.3834;0.9774;
1100.4000;0.3777;0.9675;
1100.7000;0.3793;0.9774;
1101.0000;0.3785;0.9749;
1101.3000;0.3810;0.9774;
1101.6000;0.3818;0.9774;
1101.9000;0.3801;0.9626;
1102.2000;0.3801;0.9700;
1102.5000;0.3777;0.9626;
1102.8000;0.3801;0.9601;
1103.1000;0.3793;0.9552;
1103.4000;0.3785;0.9477;
1103.7000;0.3777;0.9502;
1104.0000;0.3793;0.9477;
1104.3000;0.3793;0.9502;
1104.6000;0.3785;0.9527;
1104.9000;0.3793;0.9601;
1105.2000;0.3785;0.9601;
1105.5000;0.3785;0.9601;
1105.8000;0.3736;0.9477;
1106.1000;0.3842;0.9798;
1106.4000;0.3810;0.9724;
1106.7000;0.3777;0.9675;
1107.0000;0.3777;0.9626;
1107.3000;0.3777;0.9552;
1107.6000;0.3785;0.9502;
1107.9000;0.3785;0.9527;
1108.2000;0.3777;0.9552;
1108.5000;0.3818;0.9626;
1108.8000;0.3801;0.9601;
1109.1000;0.3801;0.9576;
1109.4000;0.3810;0.9601;
1109.7000;0.3785;0.9527;
1110.0000;0.3793;0.9552;
1110.3000;0.3793;0.9650;
1110.6000;0.3810;0.9823;
1110.9000;0.3818;0.9922;
1111.2000;0.3810;0.9922;
1111.5000;0.3793;0.9823;
1111.8000;0.3761;0.9650;
1112.1000;0.3785;0.9749;
1112.4000;0.3777;0.9774;
1112.7000;0.3793;0.9798;
1113.0000;0.3785;0.9798;
1113.3000;0.3793;0.9724;
1113.6000;0.3810;0.9626;
1113.9000;0.3850;0.9675;
1114.2000;0.3810;0.9626;
1114.5000;0.3777;0.9576;
1114.8000;0.3810;0.9650;
1115.1000;0.3777;0.9552;
1115.4000;0.3793;0.9675;
1115.7000;0.3793;0.9626;
1116.0000;0.3744;0.9329;
1116.3000;0.3810;0.9502;
1116.6000;0.3818;0.9502;
1116.9000;0.3793;0.9453;
1117.2000;0.3744;0.9329;
1117.5000;0.3818;0.9552;
1117.8000;0.3793;0.9601;
1118.1000;0.3793;0.9626;
1118.4000;0.3744;0.9552;
1118.7000;0.3810;0.9626;
1119.0000;0.3801;0.9601;
1119.3000;0.3777;0.9576;
1119.6000;0.3850;0.9724;
1119.9000;0.3801;0.9552;
1120.2000;0.3785;0.9552;
1120.5000;0.3785;0.9477;
1120.8000;0.3793;0.9477;
1121.1000;0.3801;0.9502;
1121.4000;0.3801;0.9502;
1121.7000;0.3810;0.9675;
1122.0000;0.3810;0.9675;
1122.3000;0.3793;0.9552;
1122.6000;0.3826;0.9650;
1122.9000;0.3899;0.9872;
1123.2000;0.3777;0.9552;
1123.5000;0.3801;0.9626;
1123.8000;0.3826;0.9626;
1124.1000;0.3769;0.9601;
1124.4000;0.3850;0.9749;
1124.7000;0.3728;0.9552;
1125.0000;0.3793;0.9650;
1125.3000;0.3801;0.9650;
1125.6000;0.3801;0.9601;
1125.9000;0.3801;0.9576;
1126.2000;0.3769;0.9601;
1126.5000;0.3777;0.9552;
1126.8000;0.3777;0.9552;
1127.1000;0.3777;0.9552;
1127.4000;0.3785;0.9626;
1127.7000;0.3777;0.9626;
1128.0000;0.3793;0.9527;
1128.3000;0.3793;0.9428;
1128.6000;0.3785;0.9379;
1128.9000;0.3826;0.9502;
1129.2000;0.3777;0.9354;
1129.5000;0.3777;0.9477;
1129.8000;0.3728;0.9379;
1130.1000;0.3785;0.9552;
1130.4000;0.3801;0.9650;
1130.7000;0.3883;0.9922;
1131.0000;0.3769;0.9576;
1131.3000;0.3785;0.9626;
1131.6000;0.3793;0.9601;
1131.9000;0.3753;0.9502;
1132.2000;0.3744;0.9552;
1132.5000;0.3777;0.9675;
1132.8000;0.3818;0.9650;
1133.1000;0.3826;0.9724;
1133.4000;0.3785;0.9650;
1133.7000;0.3801;0.9626;
1134.0000;0.3801;0.9650;
1134.3000;0.3818;0.9774;
1134.6000;0.3793;0.9749;
1134.9000;0.3810;0.9774;
1135.2000;0.3801;0.9724;
1135.5000;0.3810;0.9848;
1135.8000;0.3801;0.9774;
1136.1000;0.3793;0.9650;
1136.4000;0.3777;0.9601;
1136.7000;0.3826;0.9700;
1137.0000;0.3801;0.9675;
1137.3000;0.3785;0.9650;
1137.6000;0.3793;0.9650;
1137.9000;0.3826;0.9675;
1138.2000;0.3801;0.9552;
1138.5000;0.3801;0.9527;
1138.8000;0.3785;0.9502;
1139.1000;0.3769;0.9403;
1139.4000;0.3793;0.9428;
1139.7000;0.3785;0.9477;
1140.0000;0.3793;0.9403;
1140.3000;0.3761;0.9428;
1140.6000;0.3801;0.9601;
1140.9000;0.3867;0.9798;
1141.2000;0.3793;0.9576;
1141.5000;0.3720;0.9403;
1141.8000;0.3858;0.9823;
1142.1000;0.3875;0.9848;
1142.4000;0.3810;0.9798;
1142.7000;0.3818;0.9724;
1143.0000;0.3801;0.9724;
1143.3000;0.3801;0.9823;
1143.6000;0.3801;0.9774;
1143.9000;0.3785;0.9700;
1144.2000;0.3777;0.9626;
1144.5000;0.3769;0.9626;
1144.8000;0.3793;0.9626;
1145.1000;0.3801;0.9626;
1145.4000;0.3785;0.9601;
1145.7000;0.3753;0.9428;
1146.0000;0.3801;0.9502;
1146.3000;0.3793;0.9477;
1146.6000;0.3785;0.9453;
1146.9000;0.3801;0.9502;
1147.2000;0.3785;0.9477;
1147.5000;0.3793;0.9403;
1147.8000;0.3818;0.9502;
1148.1000;0.3785;0.9403;
1148.4000;0.3793;0.9453;
1148.7000;0.3818;0.9552;
1149.0000;0.3793;0.9502;
1149.3000;0.3810;0.9601;
1149.6000;0.3801;0.9601;
1149.9000;0.3801;0.9675;
1150.2000;0.3769;0.9552;
1150.5000;0.3801;0.9552;
1150.8000;0.3810;0.9576;
1151.1000;0.3785;0.9453;
1151.4000;0.3793;0.9428;
1151.7000;0.3801;0.9502;
1152.0000;0.3801;0.9477;
1152.3000;0.3785;0.9477;
1152.6000;0.3801;0.9527;
1152.9000;0.3810;0.9626;
1153.2000;0.3753;0.9552;
1153.5000;0.3793;0.9650;
1153.8000;0.3801;0.9675;
1154.1000;0.3810;0.9700;
1154.4000;0.3785;0.9576;
1154.7000;0.3834;0.9798;
1155.0000;0.3842;0.9798;
1155.3000;0.3785;0.9626;
1155.6000;0.3753;0.9576;
1155.9000;0.3785;0.9700;
1156.2000;0.3736;0.9626;
1156.5000;0.3785;0.9724;
1156.8000;0.3850;0.9946;
1157.1000;0.3793;0.9848;
1157.4000;0.3769;0.9749;
1157.7000;0.3679;0.9379;
1158.0000;0.3793;0.9749;
1158.3000;0.3785;0.9774;
1158.6000;0.3769;0.9724;
1158.9000;0.3801;0.9774;
1159.2000;0.3761;0.9576;
1159.5000;0.3818;0.9700;
1159.8000;0.3793;0.9675;
1160.1000;0.3769;0.9650;
1160.4000;0.3793;0.9675;
1160.7000;0.3793;0.9626;
1161.0000;0.3810;0.9675;
1161.3000;0.3801;0.9552;
1161.6000;0.3818;0.9576;
1161.9000;0.3818;0.9576;
1162.2000;0.3842;0.9724;
1162.5000;0.3793;0.9650;
1162.8000;0.3785;0.9724;
1163.1000;0.3793;0.9700;
1163.4000;0.3785;0.9700;
1163.7000;0.3769;0.9650;
1164.0000;0.3785;0.9576;
1164.3000;0.3842;0.9675;
1164.6000;0.3769;0.9502;
1164.9000;0.3793;0.9576;
1165.2000;0.3785;0.9601;
1165.5000;0.3785;0.9576;
1165.8000;0.3793;0.9552;
1166.1000;0.3793;0.9650;
1166.4000;0.3793;0.9650;
1166.7000;0.3777;0.9576;
1167.0000;0.3801;0.9700;
1167.3000;0.3801;0.9675;
1167.6000;0.3801;0.9626;
1167.9000;0.3785;0.9700;
1168.2000;0.3793;0.9700;
1168.5000;0.3793;0.9675;
1168.8000;0.3769;0.9576;
1169.1000;0.3785;0.9576;
1169.4000;0.3801;0.9552;
1169.7000;0.3793;0.9477;
1170.0000;0.3785;0.9428;
1170.3000;0.3744;0.9354;
1170.6000;0.3810;0.9453;
1170.9000;0.3785;0.9403;
1171.2000;0.3793;0.9428;
1171.5000;0.3801;0.9403;
1171.8000;0.3801;0.9354;
1172.1000;0.3810;0.9453;
1172.4000;0.3777;0.9354;
1172.7000;0.3785;0.9453;
1173.0000;0.3810;0.9552;
1173.3000;0.3793;0.9502;
1173.6000;0.3818;0.9626;
1173.9000;0.3810;0.9626;
1174.2000;0.3777;0.9576;
1174.5000;0.3793;0.9626;
1174.8000;0.3785;0.9502;
1175.1000;0.3744;0.9403;
1175.4000;0.3753;0.9354;
1175.7000;0.3842;0.9527;
1176.0000;0.3810;0.9428;
1176.3000;0.3801;0.9477;
1176.6000;0.3850;0.9675;
1176.9000;0.3793;0.9552;
1177.2000;0.3842;0.9626;
1177.5000;0.3785;0.9527;
1177.8000;0.3761;0.9576;
1178.1000;0.3769;0.9749;
1178.4000;0.3761;0.9724;
1178.7000;0.3793;0.9823;
1179.0000;0.3769;0.9774;
1179.3000;0.3769;0.9650;
1179.6000;0.3769;0.9650;
1179.9000;0.3810;0.9675;
1180.2000;0.3761;0.9601;
1180.5000;0.3801;0.9626;
1180.8000;0.3793;0.9675;
1181.1000;0.3801;0.9675;
1181.4000;0.3801;0.9675;
1181.7000;0.3793;0.9601;
1182.0000;0.3793;0.9650;
1182.3000;0.3826;0.9700;
1182.6000;0.3818;0.9650;
1182.9000;0.3785;0.9601;
1183.2000;0.3785;0.9502;
1183.5000;0.3793;0.9576;
1183.8000;0.3907;0.9774;
1184.1000;0.3777;0.9527;
1184.4000;0.3801;0.9453;
1184.7000;0.3777;0.9403;
1185.0000;0.3810;0.9477;
1185.3000;0.3744;0.9206;
1185.6000;0.3826;0.9453;
1185.9000;0.3793;0.9403;
1186.2000;0.3785;0.9379;
1186.5000;0.3785;0.9403;
1186.8000;0.3793;0.9379;
1187.1000;0.3793;0.9477;
1187.4000;0.3810;0.9576;
1187.7000;0.3810;0.9576;
1188.0000;0.3793;0.9601;
1188.3000;0.3801;0.9626;
1188.6000;0.3753;0.9502;
1188.9000;0.3785;0.9675;
1189.2000;0.3769;0.9576;
1189.5000;0.3785;0.9576;
1189.8000;0.3801;0.9552;
1190.1000;0.3801;0.9502;
1190.4000;0.3793;0.9502;
1190.7000;0.3769;0.9329;
1191.0000;0.3769;0.9403;
1191.3000;0.3761;0.9379;
1191.6000;0.3801;0.9552;
1191.9000;0.3793;0.9601;
1192.2000;0.3801;0.9626;
1192.5000;0.3818;0.9626;
1192.8000;0.3810;0.9675;
1193.1000;0.3785;0.9650;
1193.4000;0.3826;0.9823;
1193.7000;0.3777;0.9774;
1194.0000;0.3777;0.9872;
1194.3000;0.3728;0.9675;
1194.6000;0.3810;0.9798;
1194.9000;0.3793;0.9798;
1195.2000;0.3834;0.9897;
1195.5000;0.3801;0.9798;
1195.8000;0.3769;0.9675;
1196.1000;0.3761;0.9626;
1196.4000;0.3761;0.9675;
1196.7000;0.3769;0.9700;
1197.0000;0.3793;0.9848;
1197.3000;0.3777;0.9774;
1197.6000;0.3785;0.9774;
1197.9000;0.3785;0.9749;
1198.2000;0.3777;0.9774;
1198.5000;0.3777;0.9872;
1198.8000;0.3777;0.9798;
1199.1000;0.3801;0.9774;
1199.4000;0.3793;0.9823;
1199.7000;0.3785;0.9848;
1200.0000;0.3793;0.9848;
1200.3000;0.3785;0.9823;
1200.6000;0.3810;0.9922;
1200.9000;0.3810;0.9848;
1201.2000;0.3769;0.9798;
1201.5000;0.3777;0.9700;
1201.8000;0.3696;0.9502;
1202.1000;0.3728;0.9601;
1202.4000;0.3761;0.9626;
1202.7000;0.3793;0.9626;
1203.0000;0.3769;0.9601;
1203.3000;0.3769;0.9626;
1203.6000;0.3785;0.9650;
1203.9000;0.3793;0.9650;
1204.2000;0.3785;0.9601;
1204.5000;0.3793;0.9626;
1204.8000;0.3801;0.9601;
1205.1000;0.3801;0.9453;
1205.4000;0.3696;0.9157;
1205.7000;0.3769;0.9403;
1206.0000;0.3769;0.9453;
1206.3000;0.3696;0.9305;
1206.6000;0.3777;0.9428;
1206.9000;0.3753;0.9379;
1207.2000;0.3777;0.9502;
1207.5000;0.3785;0.9527;
1207.8000;0.3793;0.9477;
1208.1000;0.3761;0.9403;
1208.4000;0.3818;0.9527;
1208.7000;0.3793;0.9502;
1209.0000;0.3777;0.9527;
1209.3000;0.3761;0.9527;
1209.6000;0.3810;0.9601;
1209.9000;0.3801;0.9552;
1210.2000;0.3785;0.9576;
1210.5000;0.3793;0.9552;
1210.8000;0.3801;0.9601;
1211.1000;0.3801;0.9576;
1211.4000;0.3769;0.9552;
1211.7000;0.3793;0.9626;
1212.0000;0.3785;0.9626;
1212.3000;0.3744;0.9527;
1212.6000;0.3777;0.9576;
1212.9000;0.3785;0.9576;
1213.2000;0.3769;0.9601;
1213.5000;0.3793;0.9700;
1213.8000;0.3777;0.9675;
1214.1000;0.3736;0.9527;
1214.4000;0.3769;0.9601;
1214.7000;0.3777;0.9502;
1215.0000;0.3769;0.9403;
1215.3000;0.3810;0.9453;
1215.6000;0.3801;0.9403;
1215.9000;0.3785;0.9428;
1216.2000;0.3801;0.9354;
1216.5000;0.3785;0.9379;
1216.8000;0.3769;0.9453;
1217.1000;0.3793;0.9527;
1217.4000;0.3744;0.9428;
1217.7000;0.3785;0.9527;
1218.0000;0.3793;0.9576;
1218.3000;0.3793;0.9527;
1218.6000;0.3793;0.9527;
1218.9000;0.3801;0.9552;
1219.2000;0.3801;0.9552;
1219.5000;0.3785;0.9527;
1219.8000;0.3810;0.9552;
1220.1000;0.3883;0.9774;
1220.4000;0.3793;0.9453;
1220.7000;0.3785;0.9453;
1221.0000;0.3801;0.9502;
1221.3000;0.3810;0.9527;
1221.6000;0.3834;0.9601;
1221.9000;0.3818;0.9552;
1222.2000;0.3801;0.9527;
1222.5000;0.3801;0.9601;
1222.8000;0.3769;0.9552;
1223.1000;0.3826;0.9724;
1223.4000;0.3793;0.9601;
1223.7000;0.3810;0.9650;
1224.0000;0.3753;0.9552;
1224.3000;0.3785;0.9601;
1224.6000;0.3793;0.9576;
1224.9000;0.3753;0.9502;
1225.2000;0.3793;0.9650;
1225.5000;0.3810;0.9626;
1225.8000;0.3761;0.9527;
1226.1000;0.3753;0.9453;
1226.4000;0.3810;0.9552;
1226.7000;0.3785;0.9502;
1227.0000;0.3899;0.9675;
1227.3000;0.3793;0.9477;
1227.6000;0.3785;0.9428;
1227.9000;0.3793;0.9502;
1228.2000;0.3793;0.9527;
1228.5000;0.3793;0.9502;
1228.8000;0.3785;0.9477;
1229.1000;0.3777;0.9552;
1229.4000;0.3793;0.9626;
1229.7000;0.3777;0.9626;
1230.0000;0.3801;0.9675;
1230.3000;0.3769;0.9650;
1230.6000;0.3777;0.9700;
1230.9000;0.3769;0.9724;
1231.2000;0.3720;0.9601;
1231.5000;0.3753;0.9724;
1231.8000;0.3785;0.9798;
1232.1000;0.3793;0.9774;
1232.4000;0.3769;0.9601;
1232.7000;0.3785;0.9650;
1233.0000;0.3793;0.9675;
1233.3000;0.3793;0.9650;
1233.6000;0.3777;0.9601;
1233.9000;0.3793;0.9552;
1234.2000;0.3785;0.9527;
1234.5000;0.3801;0.9675;
1234.8000;0.3785;0.9675;
1235.1000;0.3777;0.9650;
1235.4000;0.3850;0.9848;
1235.7000;0.3769;0.9626;
1236.0000;0.3777;0.9576;
1236.3000;0.3696;0.9453;
1236.6000;0.3793;0.9724;
1236.9000;0.3744;0.9552;
1237.2000;0.3769;0.9477;
1237.5000;0.3793;0.9576;
1237.8000;0.3785;0.9453;
1238.1000;0.3777;0.9329;
1238.4000;0.3801;0.9403;
1238.7000;0.3769;0.9354;
1239.0000;0.3834;0.9502;
1239.3000;0.3785;0.9428;
1239.6000;0.3744;0.9305;
1239.9000;0.3793;0.9403;
1240.2000;0.3801;0.9379;
1240.5000;0.3801;0.9428;
1240.8000;0.3793;0.9502;
1241.1000;0.3793;0.9576;
1241.4000;0.3712;0.9354;
1241.7000;0.3793;0.9527;
1242.0000;0.3744;0.9403;
1242.3000;0.3801;0.9576;
1242.6000;0.3793;0.9576;
1242.9000;0.3793;0.9601;
1243.2000;0.3810;0.9626;
1243.5000;0.3777;0.9601;
1243.8000;0.3785;0.9626;
1244.1000;0.3793;0.9552;
1244.4000;0.3793;0.9527;
1244.7000;0.3818;0.9650;
1245.0000;0.3785;0.9576;
1245.3000;0.3793;0.9552;
1245.6000;0.3850;0.9798;
1245.9000;0.3801;0.9675;
1246.2000;0.3785;0.9675;
1246.5000;0.3793;0.9774;
1246.8000;0.3769;0.9774;
1247.1000;0.3728;0.9650;
1247.4000;0.3793;0.9872;
1247.7000;0.3826;0.9922;
1248.0000;0.3761;0.9872;
1248.3000;0.3793;0.9848;
1248.6000;0.3793;0.9724;
1248.9000;0.3777;0.9601;
1249.2000;0.3801;0.9576;
1249.5000;0.3793;0.9552;
1249.8000;0.3883;0.9774;
1250.1000;0.3785;0.9650;
1250.4000;0.3777;0.9601;
1250.7000;0.3810;0.9724;
1251.0000;0.3761;0.9527;
1251.3000;0.3769;0.9626;
1251.6000;0.3753;0.9576;
1251.9000;0.3769;0.9527;
1252.2000;0.3842;0.9675;
1252.5000;0.3818;0.9650;
1252.8000;0.3769;0.9552;
1253.1000;0.3785;0.9552;
1253.4000;0.3801;0.9552;
1253.7000;0.3818;0.9576;
1254.0000;0.3777;0.9403;
1254.3000;0.3801;0.9477;
1254.6000;0.3793;0.9428;
1254.9000;0.3801;0.9477;
1255.2000;0.3810;0.9700;
1255.5000;0.3785;0.9650;
1255.8000;0.3777;0.9675;
1256.1000;0.3793;0.9675;
1256.4000;0.3793;0.9675;
1256.7000;0.3793;0.9749;
1257.0000;0.3785;0.9774;
1257.3000;0.3826;0.9823;
1257.6000;0.3785;0.9601;
1257.9000;0.3801;0.9576;
1258.2000;0.3785;0.9626;
1258.5000;0.3785;0.9626;
1258.8000;0.3810;0.9700;
1259.1000;0.3769;0.9576;
1259.4000;0.3785;0.9601;
1259.7000;0.3753;0.9502;
1260.0000;0.3785;0.9675;
1260.3000;0.3761;0.9675;
1260.6000;0.3785;0.9576;
1260.9000;0.3801;0.9576;
1261.2000;0.3793;0.9601;
1261.5000;0.3801;0.9650;
1261.8000;0.3761;0.9675;
1262.1000;0.3801;0.9724;
1262.4000;0.3761;0.9626;
1262.7000;0.3793;0.9675;
1263.0000;0.3842;0.9872;
1263.3000;0.3834;0.9872;
1263.6000;0.3777;0.9798;
1263.9000;0.3769;0.9700;
1264.2000;0.3777;0.9700;
1264.5000;0.3793;0.9749;
1264.8000;0.3785;0.9848;
1265.1000;0.3785;0.9774;
1265.4000;0.3793;0.9749;
1265.7000;0.3793;0.9675;
1266.0000;0.3793;0.9576;
1266.3000;0.3793;0.9601;
1266.6000;0.3810;0.9601;
1266.9000;0.3801;0.9601;
1267.2000;0.3810;0.9626;
1267.5000;0.3785;0.9700;
1267.8000;0.3826;0.9798;
1268.1000;0.3810;0.9774;
1268.4000;0.3801;0.9700;
1268.7000;0.3785;0.9749;
1269.0000;0.3801;0.9798;
1269.3000;0.3810;0.9724;
1269.6000;0.3801;0.9774;
1269.9000;0.3793;0.9774;
1270.2000;0.3793;0.9798;
1270.5000;0.3826;0.9798;
1270.8000;0.3753;0.9650;
1271.1000;0.3801;0.9774;
1271.4000;0.3777;0.9798;
1271.7000;0.3785;0.9897;
1272.0000;0.3777;0.9872;
1272.3000;0.3777;0.9798;
1272.6000;0.3777;0.9724;
1272.9000;0.3850;0.9996;
1273.2000;0.3785;0.9798;
1273.5000;0.3761;0.9675;
1273.8000;0.3801;0.9774;
1274.1000;0.3785;0.9749;
1274.4000;0.3785;0.9848;
1274.7000;0.3777;0.9922;
1275.0000;0.3777;0.9897;
1275.3000;0.3801;0.9922;
1275.6000;0.3801;0.9946;
1275.9000;0.3793;0.9922;
1276.2000;0.3818;1.0020;
1276.5000;0.3761;0.9774;
1276.8000;0.3793;0.9798;
1277.1000;0.3810;0.9848;
1277.4000;0.3793;0.9749;
1277.7000;0.3785;0.9724;
1278.0000;0.3801;0.9724;
1278.3000;0.3793;0.9774;
1278.6000;0.3785;0.9724;
1278.9000;0.3769;0.9675;
1279.2000;0.3793;0.9675;
1279.5000;0.3810;0.9724;
1279.8000;0.3810;0.9749;
1280.1000;0.3793;0.9724;
1280.4000;0.3801;0.9724;
1280.7000;0.3793;0.9675;
1281.0000;0.3818;0.9774;
1281.3000;0.3777;0.9798;
1281.6000;0.3777;0.9823;
1281.9000;0.3777;0.9798;
1282.2000;0.3793;0.9872;
1282.5000;0.3761;0.9774;
1282.8000;0.3769;0.9774;
1283.1000;0.3753;0.9749;
1283.4000;0.3801;0.9823;
1283.7000;0.3793;0.9872;
1284.0000;0.3785;0.9897;
1284.3000;0.3785;0.9823;
1284.6000;0.3810;0.9848;
1284.9000;0.3858;1.0045;
1285.2000;0.3785;0.9971;
1285.5000;0.3793;0.9897;
1285.8000;0.3785;0.9798;
1286.1000;0.3744;0.9675;
1286.4000;0.3720;0.9626;
1286.7000;0.3761;0.9650;
1287.0000;0.3777;0.9650;
1287.3000;0.3801;0.9675;
1287.6000;0.3769;0.9626;
1287.9000;0.3801;0.9601;
1288.2000;0.3801;0.9626;
1288.5000;0.3785;0.9527;
1288.8000;0.3793;0.9502;
1289.1000;0.3785;0.9477;
1289.4000;0.3777;0.9576;
1289.7000;0.3744;0.9453;
1290.0000;0.3769;0.9552;
1290.3000;0.3875;0.9724;
1290.6000;0.3785;0.9576;
1290.9000;0.3810;0.9675;
1291.2000;0.3801;0.9601;
1291.5000;0.3801;0.9626;
1291.8000;0.3793;0.9626;
1292.1000;0.3785;0.9626;
1292.4000;0.3769;0.9576;
1292.7000;0.3858;0.9724;
1293.0000;0.3769;0.9477;
1293.3000;0.3785;0.9552;
1293.6000;0.3793;0.9576;
1293.9000;0.3785;0.9601;
1294.2000;0.3785;0.9650;
1294.5000;0.3793;0.9601;
1294.8000;0.3720;0.9428;
1295.1000;0.3834;0.9897;
1295.4000;0.3810;0.9774;
1295.7000;0.3793;0.9774;
1296.0000;0.3777;0.9774;
1296.3000;0.3761;0.9700;
1296.6000;0.3769;0.9749;
1296.9000;0.3785;0.9724;
1297.2000;0.3761;0.9774;
1297.5000;0.3785;0.9848;
1297.8000;0.3810;0.9897;
1298.1000;0.3810;0.9823;
1298.4000;0.3793;0.9700;
1298.7000;0.3720;0.9477;
1299.0000;0.3801;0.9700;
1299.3000;0.3810;0.9749;
1299.6000;0.3793;0.9650;
1299.9000;0.3793;0.9552;
1300.2000;0.3793;0.9552;
1300.5000;0.3793;0.9477;
1300.8000;0.3777;0.9428;
1301.1000;0.3826;0.9527;
1301.4000;0.3785;0.9576;
1301.7000;0.3842;0.9798;
1302.0000;0.3777;0.9749;
1302.3000;0.3810;0.9774;
1302.6000;0.3777;0.9675;
1302.9000;0.3810;0.9823;
1303.2000;0.3810;0.9848;
1303.5000;0.3769;0.9823;
1303.8000;0.3801;0.9798;
1304.1000;0.3769;0.9700;
1304.4000;0.3793;0.9724;
1304.7000;0.3761;0.9576;
1305.0000;0.3801;0.9675;
1305.3000;0.3801;0.9724;
1305.6000;0.3801;0.9749;
1305.9000;0.3818;0.9798;
1306.2000;0.3777;0.9650;
1306.5000;0.3793;0.9749;
1306.8000;0.3785;0.9724;
1307.1000;0.3793;0.9724;
1307.4000;0.3810;0.9749;
1307.7000;0.3785;0.9626;
1308.0000;0.3793;0.9626;
1308.3000;0.3785;0.9626;
1308.6000;0.3883;0.9922;
1308.9000;0.3769;0.9576;
1309.2000;0.3801;0.9650;
1309.5000;0.3793;0.9749;
1309.8000;0.3785;0.9774;
1310.1000;0.3761;0.9675;
1310.4000;0.3777;0.9675;
1310.7000;0.3793;0.9724;
1311.0000;0.3842;0.9848;
1311.3000;0.3818;0.9749;
1311.6000;0.3801;0.9675;
1311.9000;0.3753;0.9626;
1312.2000;0.3793;0.9749;
1312.5000;0.3793;0.9749;
1312.8000;0.3793;0.9626;
1313.1000;0.3801;0.9626;
1313.4000;0.3801;0.9601;
1313.7000;0.3826;0.9650;
1314.0000;0.3785;0.9749;
1314.3000;0.3769;0.9774;
1314.6000;0.3785;0.9749;
1314.9000;0.3818;0.9798;
1315.2000;0.3810;0.9749;
1315.5000;0.3801;0.9798;
1315.8000;0.3785;0.9823;
1316.1000;0.3801;0.9823;
1316.4000;0.3801;0.9897;
1316.7000;0.3818;0.9946;
1317.0000;0.3850;0.9971;
1317.3000;0.3801;0.9848;
1317.6000;0.3801;0.9798;
1317.9000;0.3769;0.9601;
1318.2000;0.3793;0.9700;
1318.5000;0.3785;0.9650;
1318.8000;0.3769;0.9650;
1319.1000;0.3761;0.9626;
1319.4000;0.3777;0.9700;
1319.7000;0.3777;0.9675;
1320.0000;0.3769;0.9774;
1320.3000;0.3769;0.9675;
1320.6000;0.3801;0.9576;
1320.9000;0.3826;0.9626;
1321.2000;0.3793;0.9552;
1321.5000;0.3801;0.9576;
1321.8000;0.3793;0.9626;
1322.1000;0.3793;0.9552;
1322.4000;0.3785;0.9502;
1322.7000;0.3810;0.9601;
1323.0000;0.3793;0.9650;
1323.3000;0.3793;0.9626;
1323.6000;0.3801;0.9700;
1323.9000;0.3793;0.9626;
1324.2000;0.3671;0.9329;
1324.5000;0.3785;0.9650;
1324.8000;0.3793;0.9675;
1325.1000;0.3769;0.9626;
1325.4000;0.3793;0.9626;
1325.7000;0.3753;0.9428;
1326.0000;0.3801;0.9601;
1326.3000;0.3769;0.9428;
1326.6000;0.3842;0.9576;
1326.9000;0.3801;0.9379;
1327.2000;0.3818;0.9502;
1327.5000;0.3899;0.9798;
1327.8000;0.3818;0.9502;
1328.1000;0.3810;0.9428;
1328.4000;0.3753;0.9305;
1328.7000;0.3793;0.9502;
1329.0000;0.3810;0.9477;
1329.3000;0.3777;0.9379;
1329.6000;0.3793;0.9403;
1329.9000;0.3793;0.9428;
1330.2000;0.3769;0.9477;
1330.5000;0.3850;0.9675;
1330.8000;0.3793;0.9552;
1331.1000;0.3777;0.9552;
1331.4000;0.3777;0.9601;
1331.7000;0.3761;0.9453;
1332.0000;0.3785;0.9453;
1332.3000;0.3753;0.9379;
1332.6000;0.3777;0.9502;
1332.9000;0.3769;0.9552;
1333.2000;0.3761;0.9453;
1333.5000;0.3769;0.9453;
1333.8000;0.3793;0.9527;
1334.1000;0.3818;0.9576;
1334.4000;0.3801;0.9552;
1334.7000;0.3858;0.9749;
1335.0000;0.3777;0.9502;
1335.3000;0.3712;0.9329;
1335.6000;0.3777;0.9428;
1335.9000;0.3826;0.9552;
1336.2000;0.3777;0.9379;
1336.5000;0.3785;0.9403;
1336.8000;0.3793;0.9453;
1337.1000;0.3777;0.9527;
1337.4000;0.3785;0.9527;
1337.7000;0.3785;0.9576;
1338.0000;0.3810;0.9626;
1338.3000;0.3801;0.9601;
1338.6000;0.3769;0.9527;
1338.9000;0.3801;0.9552;
1339.2000;0.3834;0.9601;
1339.5000;0.3801;0.9576;
1339.8000;0.3801;0.9675;
1340.1000;0.3777;0.9626;
1340.4000;0.3810;0.9749;
1340.7000;0.3801;0.9675;
1341.0000;0.3753;0.9576;
1341.3000;0.3810;0.9700;
1341.6000;0.3793;0.9675;
1341.9000;0.3712;0.9428;
1342.2000;0.3777;0.9626;
1342.5000;0.3801;0.9650;
1342.8000;0.3793;0.9601;
1343.1000;0.3801;0.9601;
1343.4000;0.3801;0.9626;
1343.7000;0.3785;0.9552;
1344.0000;0.3834;0.9724;
1344.3000;0.3793;0.9626;
1344.6000;0.3753;0.9453;
1344.9000;0.3785;0.9502;
1345.2000;0.3777;0.9601;
1345.5000;0.3769;0.9576;
1345.8000;0.3793;0.9626;
1346.1000;0.3785;0.9626;
1346.4000;0.3793;0.9675;
1346.7000;0.3777;0.9626;
1347.0000;0.3785;0.9675;
1347.3000;0.3777;0.9650;
1347.6000;0.3810;0.9650;
1347.9000;0.3777;0.9626;
1348.2000;0.3793;0.9700;
1348.5000;0.3785;0.9724;
1348.8000;0.3850;0.9872;
1349.1000;0.3834;0.9823;
1349.4000;0.3810;0.9749;
1349.7000;0.3810;0.9897;
1350.0000;0.3785;0.9848;
1350.3000;0.3801;0.9798;
1350.6000;0.3769;0.9675;
1350.9000;0.3793;0.9774;
1351.2000;0.3801;0.9749;
1351.5000;0.3785;0.9675;
1351.8000;0.3769;0.9626;
1352.1000;0.3785;0.9798;
1352.4000;0.3777;0.9774;
1352.7000;0.3793;0.9798;
1353.0000;0.3769;0.9749;
1353.3000;0.3728;0.9626;
1353.6000;0.3810;0.9823;
1353.9000;0.3810;0.9774;
1354.2000;0.3753;0.9650;
1354.5000;0.3801;0.9724;
1354.8000;0.3793;0.9724;
1355.1000;0.3810;0.9848;
1355.4000;0.3793;0.9749;
1355.7000;0.3785;0.9650;
1356.0000;0.3818;0.9675;
1356.3000;0.3785;0.9650;
1356.6000;0.3826;0.9749;
1356.9000;0.3720;0.9477;
1357.2000;0.3826;0.9798;
1357.5000;0.3769;0.9650;
1357.8000;0.3777;0.9626;
1358.1000;0.3777;0.9576;
1358.4000;0.3777;0.9502;
1358.7000;0.3761;0.9477;
1359.0000;0.3793;0.9576;
1359.3000;0.3858;0.9749;
1359.6000;0.3777;0.9477;
1359.9000;0.3785;0.9552;
1360.2000;0.3793;0.9700;
1360.5000;0.3777;0.9675;
1360.8000;0.3769;0.9650;
1361.1000;0.3777;0.9749;
1361.4000;0.3793;0.9897;
1361.7000;0.3785;0.9971;
1362.0000;0.3801;1.0119;
1362.3000;0.3801;1.0045;
1362.6000;0.3777;0.9996;
1362.9000;0.3777;0.9897;
1363.2000;0.3785;0.9848;
1363.5000;0.3801;0.9872;
1363.8000;0.3793;0.9848;
1364.1000;0.3777;0.9823;
1364.4000;0.3785;0.9872;
1364.7000;0.3818;0.9971;
1365.0000;0.3793;0.9922;
1365.3000;0.3801;0.9922;
1365.6000;0.3785;0.9872;
1365.9000;0.3850;0.9922;
1366.2000;0.3769;0.9749;
1366.5000;0.3801;1.0045;
1366.8000;0.3777;0.9922;
1367.1000;0.3801;0.9922;
1367.4000;0.3785;0.9848;
1367.7000;0.3793;0.9897;
1368.0000;0.3801;0.9774;
1368.3000;0.3826;0.9798;
1368.6000;0.3867;0.9946;
1368.9000;0.3744;0.9749;
1369.2000;0.3793;0.9650;
1369.5000;0.3801;0.9650;
1369.8000;0.3777;0.9626;
1370.1000;0.3777;0.9576;
1370.4000;0.3793;0.9724;
1370.7000;0.3867;0.9823;
1371.0000;0.3801;0.9774;
1371.3000;0.3818;0.9749;
1371.6000;0.3761;0.9749;
1371.9000;0.3826;0.9922;
1372.2000;0.3801;0.9971;
1372.5000;0.3777;0.9897;
1372.8000;0.3777;0.9798;
1373.1000;0.3793;0.9848;
1373.4000;0.3785;0.9897;
1373.7000;0.3801;0.9946;
1374.0000;0.3777;0.9798;
1374.3000;0.3801;0.9798;
1374.6000;0.3785;0.9774;
1374.9000;0.3785;0.9724;
1375.2000;0.3785;0.9749;
1375.5000;0.3785;0.9774;
1375.8000;0.3801;0.9823;
1376.1000;0.3793;0.9774;
1376.4000;0.3785;0.9724;
1376.7000;0.3769;0.9626;
1377.0000;0.3810;0.9774;
1377.3000;0.3801;0.9872;
1377.6000;0.3793;0.9897;
1377.9000;0.3818;0.9971;
1378.2000;0.3818;0.9996;
1378.5000;0.3801;0.9922;
1378.8000;0.3810;0.9922;
1379.1000;0.3793;0.9946;
1379.4000;0.3826;0.9996;
1379.7000;0.3801;0.9971;
1380.0000;0.3810;1.0020;
1380.3000;0.3793;0.9996;
1380.6000;0.3793;0.9996;
1380.9000;0.3777;0.9971;
1381.2000;0.3785;1.0070;
1381.5000;0.3801;1.0045;
1381.8000;0.3785;0.9971;
1382.1000;0.3728;0.9700;
1382.4000;0.3744;0.9601;
1382.7000;0.3696;0.9527;
1383.0000;0.3777;0.9823;
1383.3000;0.3769;0.9749;
1383.6000;0.3818;0.9897;
1383.9000;0.3801;0.9823;
1384.2000;0.3785;0.9724;
1384.5000;0.3777;0.9675;
1384.8000;0.3793;0.9749;
1385.1000;0.3785;0.9626;
1385.4000;0.3801;0.9601;
1385.7000;0.3793;0.9576;
1386.0000;0.3793;0.9650;
1386.3000;0.3801;0.9700;
1386.6000;0.3801;0.9774;
1386.9000;0.3785;0.9872;
1387.2000;0.3826;0.9971;
1387.5000;0.3769;0.9872;
1387.8000;0.3785;0.9922;
1388.1000;0.3785;0.9798;
1388.4000;0.3720;0.9626;
1388.7000;0.3810;0.9872;
1389.0000;0.3842;1.0020;
1389.3000;0.3818;0.9946;
1389.6000;0.3785;0.9922;
1389.9000;0.3801;0.9872;
1390.2000;0.3810;0.9897;
1390.5000;0.3777;0.9971;
1390.8000;0.3777;0.9971;
1391.1000;0.3777;0.9897;
1391.4000;0.3801;0.9946;
1391.7000;0.3818;0.9946;
1392.0000;0.3736;0.9774;
1392.3000;0.3793;0.9897;
1392.6000;0.3793;0.9897;
1392.9000;0.3793;0.9946;
1393.2000;0.3785;0.9848;
1393.5000;0.3801;0.9872;
1393.8000;0.3785;0.9897;
1394.1000;0.3793;0.9872;
1394.4000;0.3810;0.9922;
1394.7000;0.3801;0.9946;
1395.0000;0.3777;0.9848;
1395.3000;0.3801;0.9946;
1395.6000;0.3801;1.0020;
1395.9000;0.3777;1.0144;
1396.2000;0.3801;1.0169;
1396.5000;0.3801;1.0144;
1396.8000;0.3810;1.0169;
1397.1000;0.3801;1.0094;
1397.4000;0.3785;0.9996;
1397.7000;0.3801;0.9946;
1398.0000;0.3793;0.9922;
1398.3000;0.3793;0.9922;
1398.6000;0.3801;0.9971;
1398.9000;0.3801;0.9897;
1399.2000;0.3801;0.9897;
1399.5000;0.3810;0.9749;
1399.8000;0.3801;0.9700;
