time/ms;Fluo/V;P700 deltaI/I x10³;
-199.8000;0.7269;1.3854;
-199.5000;0.7293;1.3878;
-199.2000;0.7310;1.3854;
-198.9000;0.7293;1.3878;
-198.6000;0.7302;1.3784;
-198.3000;0.7326;1.3807;
-198.0000;0.7269;1.3643;
-197.7000;0.7285;1.3713;
-197.4000;0.7350;1.3925;
-197.1000;0.7310;1.3784;
-196.8000;0.7285;1.3760;
-196.5000;0.7302;1.3807;
-196.2000;0.7293;1.3807;
-195.9000;0.7293;1.3854;
-195.6000;0.7293;1.3854;
-195.3000;0.7326;1.3831;
-195.0000;0.7269;1.3690;
-194.7000;0.7293;1.3854;
-194.4000;0.7310;1.3995;
-194.1000;0.7318;1.4042;
-193.8000;0.7310;1.3995;
-193.5000;0.7277;1.3878;
-193.2000;0.7285;1.3901;
-192.9000;0.7293;1.3854;
-192.6000;0.7277;1.3878;
-192.3000;0.7293;1.3854;
-192.0000;0.7285;1.3854;
-191.7000;0.7285;1.3925;
-191.4000;0.7269;1.3901;
-191.1000;0.7318;1.4019;
-190.8000;0.7285;1.4019;
-190.5000;0.7293;1.4042;
-190.2000;0.7277;1.3925;
-189.9000;0.7285;1.3831;
-189.6000;0.7277;1.3784;
-189.3000;0.7277;1.3784;
-189.0000;0.7269;1.3901;
-188.7000;0.7293;1.3854;
-188.4000;0.7277;1.3831;
-188.1000;0.7285;1.3854;
-187.8000;0.7285;1.3901;
-187.5000;0.7277;1.3878;
-187.2000;0.7310;1.3901;
-186.9000;0.7261;1.3854;
-186.6000;0.7245;1.3737;
-186.3000;0.7285;1.3807;
-186.0000;0.7334;1.3925;
-185.7000;0.7285;1.3925;
-185.4000;0.7375;1.4066;
-185.1000;0.7277;1.3925;
-184.8000;0.7269;1.3878;
-184.5000;0.7293;1.3925;
-184.2000;0.7285;1.3925;
-183.9000;0.7310;1.3925;
-183.6000;0.7310;1.3925;
-183.3000;0.7342;1.4019;
-183.0000;0.7293;1.3831;
-182.7000;0.7318;1.3854;
-182.4000;0.7302;1.3807;
-182.1000;0.7285;1.3737;
-181.8000;0.7293;1.3831;
-181.5000;0.7293;1.3807;
-181.2000;0.7302;1.3854;
-180.9000;0.7277;1.3854;
-180.6000;0.7293;1.3925;
-180.3000;0.7302;1.4019;
-180.0000;0.7261;1.3972;
-179.7000;0.7269;1.3972;
-179.4000;0.7269;1.3972;
-179.1000;0.7277;1.3948;
-178.8000;0.7277;1.3901;
-178.5000;0.7269;1.3854;
-178.2000;0.7253;1.3784;
-177.9000;0.7285;1.3878;
-177.6000;0.7245;1.3831;
-177.3000;0.7302;1.3901;
-177.0000;0.7269;1.3878;
-176.7000;0.7285;1.3878;
-176.4000;0.7293;1.3807;
-176.1000;0.7261;1.3760;
-175.8000;0.7188;1.3596;
-175.5000;0.7293;1.3901;
-175.2000;0.7302;1.3925;
-174.9000;0.7302;1.3784;
-174.6000;0.7277;1.3784;
-174.3000;0.7318;1.3925;
-174.0000;0.7293;1.3995;
-173.7000;0.7293;1.4042;
-173.4000;0.7310;1.3995;
-173.1000;0.7293;1.3948;
-172.8000;0.7302;1.3972;
-172.5000;0.7350;1.4113;
-172.2000;0.7293;1.3948;
-171.9000;0.7302;1.3972;
-171.6000;0.7310;1.3948;
-171.3000;0.7293;1.3948;
-171.0000;0.7293;1.3948;
-170.7000;0.7293;1.3995;
-170.4000;0.7293;1.4066;
-170.1000;0.7285;1.4019;
-169.8000;0.7293;1.3995;
-169.5000;0.7302;1.3995;
-169.2000;0.7310;1.4019;
-168.9000;0.7293;1.3972;
-168.6000;0.7236;1.3807;
-168.3000;0.7285;1.3948;
-168.0000;0.7293;1.3972;
-167.7000;0.7375;1.4136;
-167.4000;0.7302;1.3948;
-167.1000;0.7204;1.3690;
-166.8000;0.7285;1.3972;
-166.5000;0.7293;1.3972;
-166.2000;0.7285;1.3995;
-165.9000;0.7285;1.3948;
-165.6000;0.7359;1.4136;
-165.3000;0.7261;1.3925;
-165.0000;0.7269;1.3854;
-164.7000;0.7277;1.3854;
-164.4000;0.7245;1.3643;
-164.1000;0.7269;1.3690;
-163.8000;0.7285;1.3713;
-163.5000;0.7277;1.3666;
-163.2000;0.7302;1.3737;
-162.9000;0.7293;1.3807;
-162.6000;0.7293;1.3831;
-162.3000;0.7326;1.3972;
-162.0000;0.7277;1.3831;
-161.7000;0.7277;1.3854;
-161.4000;0.7293;1.3713;
-161.1000;0.7293;1.3666;
-160.8000;0.7285;1.3690;
-160.5000;0.7277;1.3713;
-160.2000;0.7302;1.3737;
-159.9000;0.7293;1.3690;
-159.6000;0.7326;1.3713;
-159.3000;0.7277;1.3690;
-159.0000;0.7293;1.3713;
-158.7000;0.7318;1.3760;
-158.4000;0.7318;1.3831;
-158.1000;0.7293;1.3737;
-157.8000;0.7318;1.3854;
-157.5000;0.7302;1.3784;
-157.2000;0.7302;1.3784;
-156.9000;0.7293;1.3807;
-156.6000;0.7285;1.3760;
-156.3000;0.7277;1.3690;
-156.0000;0.7285;1.3760;
-155.7000;0.7310;1.3784;
-155.4000;0.7269;1.3713;
-155.1000;0.7293;1.3713;
-154.8000;0.7302;1.3760;
-154.5000;0.7293;1.3831;
-154.2000;0.7277;1.3807;
-153.9000;0.7302;1.3878;
-153.6000;0.7261;1.3831;
-153.3000;0.7277;1.3854;
-153.0000;0.7310;1.3925;
-152.7000;0.7285;1.3901;
-152.4000;0.7293;1.3925;
-152.1000;0.7285;1.3995;
-151.8000;0.7293;1.4019;
-151.5000;0.7293;1.4042;
-151.2000;0.7285;1.4019;
-150.9000;0.7293;1.4019;
-150.6000;0.7293;1.4066;
-150.3000;0.7236;1.3901;
-150.0000;0.7277;1.3925;
-149.7000;0.7277;1.3925;
-149.4000;0.7269;1.3854;
-149.1000;0.7293;1.3925;
-148.8000;0.7293;1.3995;
-148.5000;0.7302;1.4019;
-148.2000;0.7285;1.3995;
-147.9000;0.7302;1.3995;
-147.6000;0.7269;1.3972;
-147.3000;0.7285;1.3901;
-147.0000;0.7285;1.3831;
-146.7000;0.7285;1.3854;
-146.4000;0.7261;1.3760;
-146.1000;0.7293;1.3784;
-145.8000;0.7310;1.3901;
-145.5000;0.7334;1.3925;
-145.2000;0.7285;1.3713;
-144.9000;0.7269;1.3666;
-144.6000;0.7293;1.3690;
-144.3000;0.7293;1.3666;
-144.0000;0.7269;1.3549;
-143.7000;0.7302;1.3643;
-143.4000;0.7293;1.3690;
-143.1000;0.7277;1.3713;
-142.8000;0.7302;1.3713;
-142.5000;0.7269;1.3619;
-142.2000;0.7302;1.3666;
-141.9000;0.7302;1.3760;
-141.6000;0.7310;1.3737;
-141.3000;0.7261;1.3643;
-141.0000;0.7269;1.3713;
-140.7000;0.7293;1.3737;
-140.4000;0.7236;1.3572;
-140.1000;0.7269;1.3713;
-139.8000;0.7277;1.3666;
-139.5000;0.7277;1.3737;
-139.2000;0.7302;1.3760;
-138.9000;0.7269;1.3807;
-138.6000;0.7285;1.3878;
-138.3000;0.7293;1.3878;
-138.0000;0.7318;1.3878;
-137.7000;0.7293;1.3784;
-137.4000;0.7277;1.3737;
-137.1000;0.7310;1.3737;
-136.8000;0.7293;1.3831;
-136.5000;0.7302;1.3831;
-136.2000;0.7293;1.3760;
-135.9000;0.7277;1.3737;
-135.6000;0.7277;1.3713;
-135.3000;0.7293;1.3831;
-135.0000;0.7277;1.3807;
-134.7000;0.7277;1.3901;
-134.4000;0.7293;1.3995;
-134.1000;0.7310;1.3972;
-133.8000;0.7293;1.3807;
-133.5000;0.7277;1.3784;
-133.2000;0.7293;1.3784;
-132.9000;0.7293;1.3690;
-132.6000;0.7293;1.3619;
-132.3000;0.7407;1.3901;
-132.0000;0.7302;1.3760;
-131.7000;0.7318;1.3925;
-131.4000;0.7318;1.4019;
-131.1000;0.7359;1.4136;
-130.8000;0.7285;1.3901;
-130.5000;0.7277;1.3831;
-130.2000;0.7302;1.3760;
-129.9000;0.7302;1.3666;
-129.6000;0.7302;1.3690;
-129.3000;0.7318;1.3831;
-129.0000;0.7285;1.3737;
-128.7000;0.7293;1.3737;
-128.4000;0.7277;1.3690;
-128.1000;0.7285;1.3690;
-127.8000;0.7269;1.3760;
-127.5000;0.7285;1.3807;
-127.2000;0.7285;1.3807;
-126.9000;0.7293;1.3784;
-126.6000;0.7293;1.3760;
-126.3000;0.7285;1.3713;
-126.0000;0.7277;1.3713;
-125.7000;0.7269;1.3666;
-125.4000;0.7293;1.3713;
-125.1000;0.7285;1.3737;
-124.8000;0.7293;1.3760;
-124.5000;0.7293;1.3854;
-124.2000;0.7285;1.3760;
-123.9000;0.7285;1.3760;
-123.6000;0.7293;1.3760;
-123.3000;0.7261;1.3713;
-123.0000;0.7293;1.3784;
-122.7000;0.7285;1.3807;
-122.4000;0.7277;1.3713;
-122.1000;0.7293;1.3690;
-121.8000;0.7293;1.3737;
-121.5000;0.7220;1.3596;
-121.2000;0.7277;1.3807;
-120.9000;0.7285;1.3760;
-120.6000;0.7269;1.3713;
-120.3000;0.7277;1.3690;
-120.0000;0.7285;1.3666;
-119.7000;0.7261;1.3643;
-119.4000;0.7277;1.3713;
-119.1000;0.7293;1.3737;
-118.8000;0.7293;1.3807;
-118.5000;0.7269;1.3854;
-118.2000;0.7285;1.3901;
-117.9000;0.7285;1.3831;
-117.6000;0.7293;1.3784;
-117.3000;0.7302;1.3831;
-117.0000;0.7277;1.3878;
-116.7000;0.7302;1.3948;
-116.4000;0.7293;1.3854;
-116.1000;0.7285;1.3901;
-115.8000;0.7293;1.3878;
-115.5000;0.7293;1.3878;
-115.2000;0.7310;1.3925;
-114.9000;0.7253;1.3854;
-114.6000;0.7261;1.3901;
-114.3000;0.7285;1.3995;
-114.0000;0.7269;1.3925;
-113.7000;0.7302;1.3925;
-113.4000;0.7318;1.3948;
-113.1000;0.7293;1.3901;
-112.8000;0.7302;1.3878;
-112.5000;0.7293;1.3854;
-112.2000;0.7293;1.3784;
-111.9000;0.7285;1.3807;
-111.6000;0.7293;1.3831;
-111.3000;0.7302;1.3831;
-111.0000;0.7285;1.3737;
-110.7000;0.7367;1.3925;
-110.4000;0.7285;1.3784;
-110.1000;0.7285;1.3831;
-109.8000;0.7293;1.3854;
-109.5000;0.7277;1.3807;
-109.2000;0.7204;1.3549;
-108.9000;0.7285;1.3760;
-108.6000;0.7245;1.3666;
-108.3000;0.7277;1.3713;
-108.0000;0.7285;1.3643;
-107.7000;0.7277;1.3643;
-107.4000;0.7285;1.3643;
-107.1000;0.7293;1.3666;
-106.8000;0.7293;1.3690;
-106.5000;0.7253;1.3596;
-106.2000;0.7269;1.3737;
-105.9000;0.7285;1.3713;
-105.6000;0.7293;1.3713;
-105.3000;0.7285;1.3690;
-105.0000;0.7277;1.3737;
-104.7000;0.7293;1.3713;
-104.4000;0.7285;1.3784;
-104.1000;0.7318;1.3878;
-103.8000;0.7293;1.3925;
-103.5000;0.7285;1.3807;
-103.2000;0.7261;1.3619;
-102.9000;0.7293;1.3713;
-102.6000;0.7277;1.3713;
-102.3000;0.7269;1.3690;
-102.0000;0.7293;1.3690;
-101.7000;0.7293;1.3666;
-101.4000;0.7302;1.3760;
-101.1000;0.7285;1.3737;
-100.8000;0.7318;1.3784;
-100.5000;0.7293;1.3784;
-100.2000;0.7277;1.3713;
-99.9000;0.7285;1.3690;
-99.6000;0.7302;1.3807;
-99.3000;0.7277;1.3831;
-99.0000;0.7277;1.3760;
-98.7000;0.7293;1.3831;
-98.4000;0.7326;1.3925;
-98.1000;0.7285;1.3831;
-97.8000;0.7261;1.3784;
-97.5000;0.7285;1.3854;
-97.2000;0.7269;1.3760;
-96.9000;0.7285;1.3737;
-96.6000;0.7269;1.3784;
-96.3000;0.7285;1.3807;
-96.0000;0.7293;1.3854;
-95.7000;0.7285;1.3901;
-95.4000;0.7302;1.3925;
-95.1000;0.7261;1.3831;
-94.8000;0.7293;1.3901;
-94.5000;0.7310;1.3925;
-94.2000;0.7261;1.3737;
-93.9000;0.7277;1.3807;
-93.6000;0.7269;1.3878;
-93.3000;0.7293;1.3995;
-93.0000;0.7277;1.4019;
-92.7000;0.7293;1.4042;
-92.4000;0.7236;1.3972;
-92.1000;0.7310;1.4042;
-91.8000;0.7302;1.3948;
-91.5000;0.7228;1.3737;
-91.2000;0.7302;1.3925;
-90.9000;0.7285;1.3925;
-90.6000;0.7293;1.4019;
-90.3000;0.7285;1.3995;
-90.0000;0.7293;1.4019;
-89.7000;0.7285;1.3995;
-89.4000;0.7285;1.3901;
-89.1000;0.7293;1.3784;
-88.8000;0.7245;1.3760;
-88.5000;0.7293;1.3901;
-88.2000;0.7277;1.3831;
-87.9000;0.7277;1.3807;
-87.6000;0.7293;1.3737;
-87.3000;0.7293;1.3807;
-87.0000;0.7285;1.3784;
-86.7000;0.7310;1.3784;
-86.4000;0.7277;1.3690;
-86.1000;0.7293;1.3784;
-85.8000;0.7269;1.3690;
-85.5000;0.7285;1.3713;
-85.2000;0.7326;1.3878;
-84.9000;0.7277;1.3784;
-84.6000;0.7269;1.3831;
-84.3000;0.7277;1.3831;
-84.0000;0.7261;1.3925;
-83.7000;0.7261;1.3925;
-83.4000;0.7277;1.3925;
-83.1000;0.7245;1.3690;
-82.8000;0.7277;1.3737;
-82.5000;0.7285;1.3807;
-82.2000;0.7285;1.3925;
-81.9000;0.7293;1.3972;
-81.6000;0.7302;1.3878;
-81.3000;0.7285;1.3854;
-81.0000;0.7261;1.3878;
-80.7000;0.7326;1.4019;
-80.4000;0.7293;1.3948;
-80.1000;0.7326;1.4066;
-79.8000;0.7269;1.3948;
-79.5000;0.7302;1.4019;
-79.2000;0.7334;1.4066;
-78.9000;0.7277;1.3901;
-78.6000;0.7302;1.3854;
-78.3000;0.7302;1.3878;
-78.0000;0.7318;1.3925;
-77.7000;0.7261;1.3784;
-77.4000;0.7285;1.3807;
-77.1000;0.7245;1.3713;
-76.8000;0.7302;1.3901;
-76.5000;0.7334;1.3972;
-76.2000;0.7277;1.3878;
-75.9000;0.7383;1.4113;
-75.6000;0.7285;1.3878;
-75.3000;0.7293;1.3807;
-75.0000;0.7293;1.3878;
-74.7000;0.7277;1.3878;
-74.4000;0.7285;1.3925;
-74.1000;0.7285;1.3831;
-73.8000;0.7277;1.3831;
-73.5000;0.7277;1.3901;
-73.2000;0.7293;1.3925;
-72.9000;0.7285;1.3901;
-72.6000;0.7302;1.3925;
-72.3000;0.7318;1.4042;
-72.0000;0.7285;1.3925;
-71.7000;0.7293;1.3948;
-71.4000;0.7293;1.3995;
-71.1000;0.7302;1.4113;
-70.8000;0.7285;1.4042;
-70.5000;0.7212;1.3878;
-70.2000;0.7310;1.4159;
-69.9000;0.7277;1.4066;
-69.6000;0.7277;1.4066;
-69.3000;0.7293;1.4066;
-69.0000;0.7204;1.3831;
-68.7000;0.7277;1.3948;
-68.4000;0.7285;1.3878;
-68.1000;0.7342;1.3925;
-67.8000;0.7293;1.3901;
-67.5000;0.7228;1.3737;
-67.2000;0.7245;1.3854;
-66.9000;0.7293;1.3972;
-66.6000;0.7318;1.4066;
-66.3000;0.7302;1.3925;
-66.0000;0.7277;1.3878;
-65.7000;0.7245;1.3878;
-65.4000;0.7277;1.3948;
-65.1000;0.7236;1.3878;
-64.8000;0.7261;1.3878;
-64.5000;0.7285;1.4019;
-64.2000;0.7285;1.4066;
-63.9000;0.7310;1.4183;
-63.6000;0.7277;1.4136;
-63.3000;0.7285;1.4113;
-63.0000;0.7261;1.4019;
-62.7000;0.7277;1.4019;
-62.4000;0.7277;1.3878;
-62.1000;0.7277;1.3948;
-61.8000;0.7220;1.3878;
-61.5000;0.7269;1.3972;
-61.2000;0.7269;1.3878;
-60.9000;0.7302;1.3878;
-60.6000;0.7302;1.3995;
-60.3000;0.7285;1.4019;
-60.0000;0.7293;1.4019;
-59.7000;0.7277;1.4019;
-59.4000;0.7269;1.4019;
-59.1000;0.7277;1.4066;
-58.8000;0.7285;1.4113;
-58.5000;0.7326;1.4206;
-58.2000;0.7293;1.3972;
-57.9000;0.7318;1.3972;
-57.6000;0.7302;1.3972;
-57.3000;0.7293;1.3948;
-57.0000;0.7277;1.4019;
-56.7000;0.7277;1.3925;
-56.4000;0.7310;1.3972;
-56.1000;0.7285;1.3948;
-55.8000;0.7293;1.3901;
-55.5000;0.7228;1.3784;
-55.2000;0.7302;1.3948;
-54.9000;0.7293;1.3901;
-54.6000;0.7310;1.3995;
-54.3000;0.7367;1.4183;
-54.0000;0.7269;1.3925;
-53.7000;0.7310;1.3901;
-53.4000;0.7293;1.3831;
-53.1000;0.7212;1.3690;
-52.8000;0.7277;1.3925;
-52.5000;0.7285;1.3948;
-52.2000;0.7302;1.3878;
-51.9000;0.7302;1.3878;
-51.6000;0.7293;1.3854;
-51.3000;0.7302;1.3901;
-51.0000;0.7302;1.3972;
-50.7000;0.7318;1.4042;
-50.4000;0.7245;1.3690;
-50.1000;0.7285;1.3760;
-49.8000;0.7293;1.3807;
-49.5000;0.7285;1.3854;
-49.2000;0.7277;1.3831;
-48.9000;0.7285;1.3854;
-48.6000;0.7334;1.3948;
-48.3000;0.7269;1.3784;
-48.0000;0.7285;1.3807;
-47.7000;0.7293;1.3807;
-47.4000;0.7285;1.3948;
-47.1000;0.7277;1.4019;
-46.8000;0.7269;1.3948;
-46.5000;0.7293;1.4042;
-46.2000;0.7293;1.3995;
-45.9000;0.7261;1.3854;
-45.6000;0.7277;1.3995;
-45.3000;0.7285;1.3925;
-45.0000;0.7302;1.3972;
-44.7000;0.7310;1.3901;
-44.4000;0.7310;1.3854;
-44.1000;0.7285;1.3737;
-43.8000;0.7285;1.3784;
-43.5000;0.7318;1.3878;
-43.2000;0.7277;1.3784;
-42.9000;0.7269;1.3784;
-42.6000;0.7269;1.3643;
-42.3000;0.7302;1.3784;
-42.0000;0.7269;1.3784;
-41.7000;0.7285;1.3784;
-41.4000;0.7285;1.3854;
-41.1000;0.7302;1.3925;
-40.8000;0.7293;1.3901;
-40.5000;0.7261;1.3854;
-40.2000;0.7285;1.3901;
-39.9000;0.7277;1.3878;
-39.6000;0.7277;1.3972;
-39.3000;0.7293;1.3995;
-39.0000;0.7269;1.3948;
-38.7000;0.7204;1.3760;
-38.4000;0.7302;1.3878;
-38.1000;0.7261;1.3807;
-37.8000;0.7269;1.3854;
-37.5000;0.7261;1.3901;
-37.2000;0.7293;1.3948;
-36.9000;0.7302;1.4019;
-36.6000;0.7261;1.4019;
-36.3000;0.7310;1.4042;
-36.0000;0.7277;1.3972;
-35.7000;0.7236;1.3925;
-35.4000;0.7293;1.3995;
-35.1000;0.7196;1.3737;
-34.8000;0.7318;1.3995;
-34.5000;0.7277;1.3925;
-34.2000;0.7310;1.4042;
-33.9000;0.7269;1.4019;
-33.6000;0.7285;1.4042;
-33.3000;0.7285;1.3995;
-33.0000;0.7269;1.4042;
-32.7000;0.7293;1.4042;
-32.4000;0.7310;1.3972;
-32.1000;0.7261;1.3854;
-31.8000;0.7302;1.3901;
-31.5000;0.7326;1.3972;
-31.2000;0.7277;1.3784;
-30.9000;0.7293;1.3807;
-30.6000;0.7293;1.3807;
-30.3000;0.7269;1.3737;
-30.0000;0.7269;1.3784;
-29.7000;0.7302;1.3948;
-29.4000;0.7269;1.3807;
-29.1000;0.7310;1.3854;
-28.8000;0.7285;1.3784;
-28.5000;0.7293;1.3784;
-28.2000;0.7359;1.3995;
-27.9000;0.7277;1.3807;
-27.6000;0.7277;1.3878;
-27.3000;0.7269;1.3878;
-27.0000;0.7253;1.3878;
-26.7000;0.7367;1.4159;
-26.4000;0.7302;1.3901;
-26.1000;0.7253;1.3784;
-25.8000;0.7261;1.3784;
-25.5000;0.7277;1.3948;
-25.2000;0.7285;1.3948;
-24.9000;0.7277;1.3878;
-24.6000;0.7277;1.3972;
-24.3000;0.7293;1.3995;
-24.0000;0.7253;1.3901;
-23.7000;0.7261;1.3807;
-23.4000;0.7261;1.3854;
-23.1000;0.7277;1.3972;
-22.8000;0.7293;1.3901;
-22.5000;0.7269;1.3878;
-22.2000;0.7261;1.3925;
-21.9000;0.7293;1.4042;
-21.6000;0.7269;1.3995;
-21.3000;0.7285;1.4042;
-21.0000;0.7310;1.4066;
-20.7000;0.7302;1.3948;
-20.4000;0.7293;1.3972;
-20.1000;0.7302;1.4042;
-19.8000;0.7285;1.3948;
-19.5000;0.7302;1.3925;
-19.2000;0.7285;1.3901;
-18.9000;0.7277;1.3948;
-18.6000;0.7310;1.3972;
-18.3000;0.7359;1.4159;
-18.0000;0.7285;1.4019;
-17.7000;0.7277;1.4019;
-17.4000;0.7293;1.4019;
-17.1000;0.7293;1.4042;
-16.8000;0.7334;1.4159;
-16.5000;0.7302;1.4019;
-16.2000;0.7293;1.3878;
-15.9000;0.7302;1.3972;
-15.6000;0.7302;1.3995;
-15.3000;0.7293;1.3972;
-15.0000;0.7302;1.3995;
-14.7000;0.7293;1.3972;
-14.4000;0.7269;1.3901;
-14.1000;0.7310;1.3948;
-13.8000;0.7293;1.3972;
-13.5000;0.7269;1.3925;
-13.2000;0.7285;1.3901;
-12.9000;0.7302;1.3878;
-12.6000;0.7302;1.3901;
-12.3000;0.7293;1.3901;
-12.0000;0.7293;1.3854;
-11.7000;0.7318;1.3831;
-11.4000;0.7310;1.3760;
-11.1000;0.7261;1.3666;
-10.8000;0.7293;1.3643;
-10.5000;0.7302;1.3690;
-10.2000;0.7285;1.3690;
-9.9000;0.7293;1.3690;
-9.6000;0.7293;1.3619;
-9.3000;0.7302;1.3666;
-9.0000;0.7302;1.3713;
-8.7000;0.7310;1.3854;
-8.4000;0.7310;1.3854;
-8.1000;0.7293;1.3901;
-7.8000;0.7293;1.3901;
-7.5000;0.7269;1.3737;
-7.2000;0.7285;1.3784;
-6.9000;0.7253;1.3760;
-6.6000;0.7293;1.3878;
-6.3000;0.7285;1.3878;
-6.0000;0.7285;1.3972;
-5.7000;0.7261;1.3972;
-5.4000;0.7269;1.3948;
-5.1000;0.7293;1.3995;
-4.8000;0.7277;1.3901;
-4.5000;0.7285;1.3878;
-4.2000;0.7302;1.3901;
-3.9000;0.7302;1.3878;
-3.6000;0.7261;1.3831;
-3.3000;0.7293;1.3901;
-3.0000;0.7277;1.3878;
-2.7000;0.7269;1.3901;
-2.4000;0.7269;1.3901;
-2.1000;0.7285;1.3948;
-1.8000;0.7277;1.3995;
-1.5000;0.7285;1.4042;
-1.2000;0.7375;1.4347;
-0.9000;0.7277;1.4136;
-0.6000;0.7285;1.4089;
-0.3000;0.7302;1.4089;
0.0000;0.7302;1.4089;
0.3000;0.7277;1.3948;
0.6000;0.7318;1.4300;
0.9000;0.7334;1.4512;
1.2000;0.7350;1.4793;
1.5000;0.7367;1.5005;
1.8000;0.7367;1.5169;
2.1000;0.7391;1.5310;
2.4000;0.7383;1.5498;
2.7000;0.7399;1.5662;
3.0000;0.7359;1.5709;
3.3000;0.7391;1.5897;
3.6000;0.7391;1.5991;
3.9000;0.7399;1.5991;
4.2000;0.7399;1.6061;
4.5000;0.7391;1.6108;
4.8000;0.7399;1.6202;
5.1000;0.7424;1.6179;
5.4000;0.7464;1.6273;
5.7000;0.7440;1.6108;
6.0000;0.7440;1.6085;
6.3000;0.7375;1.6061;
6.6000;0.7456;1.6320;
6.9000;0.7424;1.6296;
7.2000;0.7432;1.6367;
7.5000;0.7448;1.6437;
7.8000;0.7448;1.6437;
8.1000;0.7440;1.6414;
8.4000;0.7399;1.6367;
8.7000;0.7432;1.6343;
9.0000;0.7448;1.6367;
9.3000;0.7448;1.6437;
9.6000;0.7448;1.6390;
9.9000;0.7456;1.6343;
10.2000;0.7448;1.6320;
10.5000;0.7448;1.6343;
10.8000;0.7473;1.6461;
11.1000;0.7489;1.6484;
11.4000;0.7481;1.6484;
11.7000;0.7464;1.6320;
12.0000;0.7464;1.6320;
12.3000;0.7481;1.6343;
12.6000;0.7473;1.6367;
12.9000;0.7481;1.6343;
13.2000;0.7464;1.6390;
13.5000;0.7481;1.6343;
13.8000;0.7481;1.6343;
14.1000;0.7497;1.6273;
14.4000;0.7505;1.6343;
14.7000;0.7497;1.6296;
15.0000;0.7513;1.6296;
15.3000;0.7505;1.6273;
15.6000;0.7505;1.6202;
15.9000;0.7489;1.6226;
16.2000;0.7513;1.6273;
16.5000;0.7473;1.6226;
16.8000;0.7513;1.6226;
17.1000;0.7505;1.6155;
17.4000;0.7497;1.6179;
17.7000;0.7513;1.6155;
18.0000;0.7513;1.6132;
18.3000;0.7513;1.6155;
18.6000;0.7530;1.6226;
18.9000;0.7513;1.6202;
19.2000;0.7530;1.6202;
19.5000;0.7521;1.6155;
19.8000;0.7521;1.6108;
20.1000;0.7538;1.6108;
20.4000;0.7521;1.6015;
20.7000;0.7562;1.6038;
21.0000;0.7570;1.6132;
21.3000;0.7530;1.6132;
21.6000;0.7538;1.6155;
21.9000;0.7530;1.6226;
22.2000;0.7530;1.6155;
22.5000;0.7513;1.6085;
22.8000;0.7538;1.6085;
23.1000;0.7521;1.6038;
23.4000;0.7530;1.6015;
23.7000;0.7521;1.6015;
24.0000;0.7505;1.5968;
24.3000;0.7521;1.6061;
24.6000;0.7521;1.5991;
24.9000;0.7546;1.6085;
25.2000;0.7521;1.6015;
25.5000;0.7530;1.6132;
25.8000;0.7497;1.6061;
26.1000;0.7521;1.6132;
26.4000;0.7562;1.6132;
26.7000;0.7513;1.6061;
27.0000;0.7432;1.5803;
27.3000;0.7554;1.6015;
27.6000;0.7546;1.5991;
27.9000;0.7546;1.5944;
28.2000;0.7538;1.6015;
28.5000;0.7546;1.5897;
28.8000;0.7538;1.5874;
29.1000;0.7546;1.5850;
29.4000;0.7570;1.5944;
29.7000;0.7538;1.5921;
30.0000;0.7595;1.6038;
30.3000;0.7570;1.5991;
30.6000;0.7538;1.5968;
30.9000;0.7578;1.6038;
31.2000;0.7538;1.5921;
31.5000;0.7538;1.5944;
31.8000;0.7538;1.5944;
32.1000;0.7554;1.5921;
32.4000;0.7538;1.5897;
32.7000;0.7554;1.5874;
33.0000;0.7562;1.5897;
33.3000;0.7554;1.5921;
33.6000;0.7538;1.5874;
33.9000;0.7562;1.5921;
34.2000;0.7562;1.5850;
34.5000;0.7570;1.5944;
34.8000;0.7538;1.5921;
35.1000;0.7538;1.5897;
35.4000;0.7578;1.5944;
35.7000;0.7505;1.5709;
36.0000;0.7554;1.5850;
36.3000;0.7546;1.5850;
36.6000;0.7570;1.5827;
36.9000;0.7562;1.5874;
37.2000;0.7562;1.5921;
37.5000;0.7546;1.5827;
37.8000;0.7513;1.5733;
38.1000;0.7538;1.5827;
38.4000;0.7570;1.5921;
38.7000;0.7717;1.6296;
39.0000;0.7554;1.5968;
39.3000;0.7562;1.5968;
39.6000;0.7570;1.5944;
39.9000;0.7562;1.5897;
40.2000;0.7554;1.5874;
40.5000;0.7562;1.5944;
40.8000;0.7554;1.5968;
41.1000;0.7554;1.6015;
41.4000;0.7611;1.6202;
41.7000;0.7578;1.6085;
42.0000;0.7562;1.6015;
42.3000;0.7570;1.6085;
42.6000;0.7554;1.6155;
42.9000;0.7538;1.6132;
43.2000;0.7554;1.6179;
43.5000;0.7530;1.6155;
43.8000;0.7481;1.5944;
44.1000;0.7538;1.6132;
44.4000;0.7554;1.6108;
44.7000;0.7546;1.6132;
45.0000;0.7562;1.6155;
45.3000;0.7538;1.6038;
45.6000;0.7554;1.6085;
45.9000;0.7554;1.5991;
46.2000;0.7546;1.5944;
46.5000;0.7538;1.5897;
46.8000;0.7546;1.5897;
47.1000;0.7578;1.5850;
47.4000;0.7562;1.5850;
47.7000;0.7530;1.5874;
48.0000;0.7554;1.5944;
48.3000;0.7554;1.6038;
48.6000;0.7554;1.6132;
48.9000;0.7530;1.6061;
49.2000;0.7570;1.6108;
49.5000;0.7538;1.6038;
49.8000;0.7578;1.6108;
50.1000;0.7562;1.6085;
50.4000;0.7546;1.6155;
50.7000;0.7546;1.6155;
51.0000;0.7627;1.6367;
51.3000;0.7546;1.6226;
51.6000;0.7554;1.6202;
51.9000;0.7530;1.6179;
52.2000;0.7554;1.6273;
52.5000;0.7643;1.6437;
52.8000;0.7538;1.6085;
53.1000;0.7546;1.6085;
53.4000;0.7546;1.6202;
53.7000;0.7570;1.6273;
54.0000;0.7497;1.6226;
54.3000;0.7554;1.6273;
54.6000;0.7538;1.6202;
54.9000;0.7554;1.6155;
55.2000;0.7554;1.6155;
55.5000;0.7538;1.6108;
55.8000;0.7578;1.6179;
56.1000;0.7554;1.6202;
56.4000;0.7538;1.6155;
56.7000;0.7538;1.6085;
57.0000;0.7554;1.6179;
57.3000;0.7546;1.6226;
57.6000;0.7562;1.6202;
57.9000;0.7546;1.6226;
58.2000;0.7513;1.6226;
58.5000;0.7538;1.6202;
58.8000;0.7603;1.6437;
59.1000;0.7570;1.6320;
59.4000;0.7546;1.6155;
59.7000;0.7570;1.6202;
60.0000;0.7595;1.6296;
60.3000;0.7538;1.6226;
60.6000;0.7554;1.6320;
60.9000;0.7546;1.6320;
61.2000;0.7554;1.6296;
61.5000;0.7554;1.6296;
61.8000;0.7546;1.6249;
62.1000;0.7562;1.6202;
62.4000;0.7538;1.6132;
62.7000;0.7562;1.6132;
63.0000;0.7578;1.6202;
63.3000;0.7530;1.6085;
63.6000;0.7570;1.6179;
63.9000;0.7562;1.6108;
64.2000;0.7554;1.6015;
64.5000;0.7505;1.5921;
64.8000;0.7554;1.6202;
65.1000;0.7538;1.6155;
65.4000;0.7554;1.6179;
65.7000;0.7570;1.6179;
66.0000;0.7562;1.6155;
66.3000;0.7635;1.6367;
66.6000;0.7538;1.6108;
66.9000;0.7562;1.6085;
67.2000;0.7554;1.6038;
67.5000;0.7562;1.6061;
67.8000;0.7546;1.5944;
68.1000;0.7554;1.5968;
68.4000;0.7538;1.6015;
68.7000;0.7570;1.6038;
69.0000;0.7546;1.5944;
69.3000;0.7554;1.5991;
69.6000;0.7546;1.6132;
69.9000;0.7554;1.6155;
70.2000;0.7562;1.6132;
70.5000;0.7570;1.6202;
70.8000;0.7513;1.6085;
71.1000;0.7562;1.6202;
71.4000;0.7578;1.6296;
71.7000;0.7562;1.6296;
72.0000;0.7546;1.6320;
72.3000;0.7562;1.6343;
72.6000;0.7570;1.6437;
72.9000;0.7562;1.6414;
73.2000;0.7570;1.6461;
73.5000;0.7578;1.6414;
73.8000;0.7570;1.6343;
74.1000;0.7554;1.6390;
74.4000;0.7554;1.6343;
74.7000;0.7570;1.6367;
75.0000;0.7570;1.6343;
75.3000;0.7521;1.6226;
75.6000;0.7546;1.6249;
75.9000;0.7546;1.6249;
76.2000;0.7538;1.6273;
76.5000;0.7554;1.6343;
76.8000;0.7546;1.6320;
77.1000;0.7546;1.6155;
77.4000;0.7546;1.6155;
77.7000;0.7562;1.6249;
78.0000;0.7538;1.6249;
78.3000;0.7562;1.6226;
78.6000;0.7570;1.6249;
78.9000;0.7570;1.6273;
79.2000;0.7554;1.6179;
79.5000;0.7554;1.6273;
79.8000;0.7562;1.6320;
80.1000;0.7562;1.6273;
80.4000;0.7538;1.6296;
80.7000;0.7489;1.6155;
81.0000;0.7538;1.6226;
81.3000;0.7554;1.6414;
81.6000;0.7562;1.6484;
81.9000;0.7538;1.6414;
82.2000;0.7627;1.6555;
82.5000;0.7586;1.6390;
82.8000;0.7578;1.6390;
83.1000;0.7562;1.6390;
83.4000;0.7570;1.6390;
83.7000;0.7521;1.6226;
84.0000;0.7562;1.6296;
84.3000;0.7562;1.6273;
84.6000;0.7546;1.6249;
84.9000;0.7530;1.6249;
85.2000;0.7546;1.6296;
85.5000;0.7521;1.6202;
85.8000;0.7562;1.6296;
86.1000;0.7538;1.6226;
86.4000;0.7570;1.6390;
86.7000;0.7586;1.6437;
87.0000;0.7546;1.6343;
87.3000;0.7586;1.6390;
87.6000;0.7546;1.6343;
87.9000;0.7554;1.6390;
88.2000;0.7554;1.6390;
88.5000;0.7538;1.6390;
88.8000;0.7546;1.6461;
89.1000;0.7562;1.6484;
89.4000;0.7570;1.6461;
89.7000;0.7578;1.6461;
90.0000;0.7562;1.6437;
90.3000;0.7570;1.6437;
90.6000;0.7554;1.6414;
90.9000;0.7538;1.6343;
91.2000;0.7554;1.6437;
91.5000;0.7554;1.6390;
91.8000;0.7562;1.6437;
92.1000;0.7562;1.6367;
92.4000;0.7546;1.6390;
92.7000;0.7505;1.6296;
93.0000;0.7570;1.6437;
93.3000;0.7570;1.6437;
93.6000;0.7546;1.6367;
93.9000;0.7554;1.6320;
94.2000;0.7554;1.6320;
94.5000;0.7562;1.6320;
94.8000;0.7538;1.6320;
95.1000;0.7554;1.6273;
95.4000;0.7546;1.6179;
95.7000;0.7546;1.6296;
96.0000;0.7562;1.6296;
96.3000;0.7562;1.6202;
96.6000;0.7521;1.6085;
96.9000;0.7562;1.6249;
97.2000;0.7546;1.6273;
97.5000;0.7546;1.6320;
97.8000;0.7570;1.6296;
98.1000;0.7570;1.6226;
98.4000;0.7562;1.6273;
98.7000;0.7554;1.6249;
99.0000;0.7538;1.6296;
99.3000;0.7595;1.6437;
99.6000;0.7562;1.6320;
99.9000;0.7619;1.6414;
100.2000;0.7554;1.6202;
100.5000;0.7546;1.6226;
100.8000;0.7538;1.6296;
101.1000;0.7538;1.6273;
101.4000;0.7513;1.6249;
101.7000;0.7538;1.6296;
102.0000;0.7570;1.6320;
102.3000;0.7546;1.6273;
102.6000;0.7586;1.6296;
102.9000;0.7546;1.6226;
103.2000;0.7554;1.6249;
103.5000;0.7562;1.6202;
103.8000;0.7554;1.6155;
104.1000;0.7538;1.6202;
104.4000;0.7546;1.6226;
104.7000;0.7546;1.6273;
105.0000;0.7546;1.6320;
105.3000;0.7538;1.6367;
105.6000;0.7481;1.6226;
105.9000;0.7546;1.6414;
106.2000;0.7546;1.6414;
106.5000;0.7611;1.6461;
106.8000;0.7546;1.6296;
107.1000;0.7570;1.6343;
107.4000;0.7546;1.6367;
107.7000;0.7562;1.6414;
108.0000;0.7554;1.6414;
108.3000;0.7554;1.6367;
108.6000;0.7538;1.6320;
108.9000;0.7562;1.6343;
109.2000;0.7513;1.6226;
109.5000;0.7554;1.6390;
109.8000;0.7570;1.6414;
110.1000;0.7554;1.6390;
110.4000;0.7538;1.6367;
110.7000;0.7570;1.6414;
111.0000;0.7562;1.6437;
111.3000;0.7570;1.6508;
111.6000;0.7562;1.6484;
111.9000;0.7497;1.6343;
112.2000;0.7562;1.6484;
112.5000;0.7554;1.6390;
112.8000;0.7554;1.6390;
113.1000;0.7538;1.6390;
113.4000;0.7554;1.6461;
113.7000;0.7554;1.6414;
114.0000;0.7538;1.6367;
114.3000;0.7546;1.6343;
114.6000;0.7546;1.6273;
114.9000;0.7538;1.6226;
115.2000;0.7546;1.6296;
115.5000;0.7538;1.6273;
115.8000;0.7538;1.6273;
116.1000;0.7538;1.6249;
116.4000;0.7546;1.6273;
116.7000;0.7546;1.6367;
117.0000;0.7546;1.6437;
117.3000;0.7538;1.6484;
117.6000;0.7554;1.6367;
117.9000;0.7554;1.6273;
118.2000;0.7554;1.6343;
118.5000;0.7562;1.6390;
118.8000;0.7562;1.6461;
119.1000;0.7595;1.6555;
119.4000;0.7546;1.6367;
119.7000;0.7521;1.6202;
120.0000;0.7538;1.6273;
120.3000;0.7554;1.6273;
120.6000;0.7538;1.6249;
120.9000;0.7554;1.6343;
121.2000;0.7505;1.6249;
121.5000;0.7546;1.6296;
121.8000;0.7521;1.6249;
122.1000;0.7546;1.6296;
122.4000;0.7538;1.6367;
122.7000;0.7530;1.6296;
123.0000;0.7554;1.6296;
123.3000;0.7530;1.6226;
123.6000;0.7554;1.6343;
123.9000;0.7546;1.6367;
124.2000;0.7538;1.6437;
124.5000;0.7530;1.6484;
124.8000;0.7538;1.6508;
125.1000;0.7546;1.6484;
125.4000;0.7497;1.6367;
125.7000;0.7570;1.6555;
126.0000;0.7554;1.6414;
126.3000;0.7538;1.6390;
126.6000;0.7546;1.6437;
126.9000;0.7554;1.6414;
127.2000;0.7538;1.6296;
127.5000;0.7538;1.6273;
127.8000;0.7562;1.6320;
128.1000;0.7530;1.6226;
128.4000;0.7513;1.6226;
128.7000;0.7554;1.6343;
129.0000;0.7595;1.6296;
129.3000;0.7546;1.6155;
129.6000;0.7538;1.6226;
129.9000;0.7538;1.6226;
130.2000;0.7546;1.6249;
130.5000;0.7530;1.6202;
130.8000;0.7530;1.6202;
131.1000;0.7505;1.6155;
131.4000;0.7546;1.6249;
131.7000;0.7546;1.6226;
132.0000;0.7546;1.6179;
132.3000;0.7464;1.5944;
132.6000;0.7505;1.6132;
132.9000;0.7505;1.6132;
133.2000;0.7538;1.6155;
133.5000;0.7546;1.6249;
133.8000;0.7578;1.6414;
134.1000;0.7546;1.6414;
134.4000;0.7554;1.6343;
134.7000;0.7546;1.6296;
135.0000;0.7554;1.6343;
135.3000;0.7562;1.6343;
135.6000;0.7546;1.6343;
135.9000;0.7586;1.6484;
136.2000;0.7546;1.6320;
136.5000;0.7546;1.6202;
136.8000;0.7546;1.6226;
137.1000;0.7546;1.6273;
137.4000;0.7538;1.6226;
137.7000;0.7538;1.6273;
138.0000;0.7546;1.6273;
138.3000;0.7538;1.6320;
138.6000;0.7562;1.6461;
138.9000;0.7546;1.6461;
139.2000;0.7546;1.6484;
139.5000;0.7570;1.6602;
139.8000;0.7562;1.6625;
140.1000;0.7570;1.6531;
140.4000;0.7554;1.6555;
140.7000;0.7546;1.6531;
141.0000;0.7538;1.6531;
141.3000;0.7546;1.6578;
141.6000;0.7538;1.6602;
141.9000;0.7546;1.6602;
142.2000;0.7530;1.6461;
142.5000;0.7546;1.6390;
142.8000;0.7546;1.6461;
143.1000;0.7538;1.6484;
143.4000;0.7513;1.6414;
143.7000;0.7513;1.6273;
144.0000;0.7530;1.6296;
144.3000;0.7546;1.6343;
144.6000;0.7554;1.6320;
144.9000;0.7538;1.6202;
145.2000;0.7538;1.6273;
145.5000;0.7562;1.6367;
145.8000;0.7473;1.6155;
146.1000;0.7530;1.6390;
146.4000;0.7546;1.6437;
146.7000;0.7513;1.6343;
147.0000;0.7570;1.6390;
147.3000;0.7530;1.6296;
147.6000;0.7513;1.6343;
147.9000;0.7586;1.6484;
148.2000;0.7530;1.6390;
148.5000;0.7562;1.6531;
148.8000;0.7513;1.6437;
149.1000;0.7554;1.6602;
149.4000;0.7554;1.6602;
149.7000;0.7538;1.6578;
150.0000;0.7530;1.6602;
150.3000;0.7546;1.6555;
150.6000;0.7497;1.6437;
150.9000;0.7562;1.6625;
151.2000;0.7554;1.6625;
151.5000;0.7546;1.6531;
151.8000;0.7570;1.6649;
152.1000;0.7513;1.6484;
152.4000;0.7562;1.6602;
152.7000;0.7562;1.6625;
153.0000;0.7546;1.6578;
153.3000;0.7546;1.6602;
153.6000;0.7538;1.6531;
153.9000;0.7530;1.6484;
154.2000;0.7554;1.6437;
154.5000;0.7554;1.6484;
154.8000;0.7562;1.6390;
155.1000;0.7603;1.6461;
155.4000;0.7530;1.6367;
155.7000;0.7448;1.6108;
156.0000;0.7546;1.6437;
156.3000;0.7497;1.6273;
156.6000;0.7546;1.6390;
156.9000;0.7554;1.6320;
157.2000;0.7546;1.6249;
157.5000;0.7554;1.6132;
157.8000;0.7521;1.6108;
158.1000;0.7530;1.6108;
158.4000;0.7497;1.6038;
158.7000;0.7546;1.6155;
159.0000;0.7538;1.6273;
159.3000;0.7530;1.6249;
159.6000;0.7546;1.6249;
159.9000;0.7562;1.6273;
160.2000;0.7521;1.6179;
160.5000;0.7538;1.6179;
160.8000;0.7554;1.6273;
161.1000;0.7538;1.6390;
161.4000;0.7513;1.6320;
161.7000;0.7521;1.6437;
162.0000;0.7530;1.6484;
162.3000;0.7538;1.6414;
162.6000;0.7538;1.6343;
162.9000;0.7521;1.6273;
163.2000;0.7562;1.6343;
163.5000;0.7497;1.6296;
163.8000;0.7554;1.6320;
164.1000;0.7562;1.6367;
164.4000;0.7538;1.6508;
164.7000;0.7538;1.6484;
165.0000;0.7562;1.6508;
165.3000;0.7530;1.6484;
165.6000;0.7530;1.6461;
165.9000;0.7554;1.6461;
166.2000;0.7554;1.6414;
166.5000;0.7554;1.6414;
166.8000;0.7521;1.6296;
167.1000;0.7538;1.6390;
167.4000;0.7538;1.6390;
167.7000;0.7627;1.6625;
168.0000;0.7521;1.6414;
168.3000;0.7554;1.6461;
168.6000;0.7546;1.6461;
168.9000;0.7684;1.6719;
169.2000;0.7489;1.6155;
169.5000;0.7554;1.6202;
169.8000;0.7513;1.6015;
170.1000;0.7538;1.6132;
170.4000;0.7562;1.6155;
170.7000;0.7530;1.6085;
171.0000;0.7530;1.6061;
171.3000;0.7546;1.6061;
171.6000;0.7513;1.6038;
171.9000;0.7538;1.6085;
172.2000;0.7562;1.6132;
172.5000;0.7554;1.6108;
172.8000;0.7538;1.6132;
173.1000;0.7530;1.6179;
173.4000;0.7497;1.6132;
173.7000;0.7538;1.6249;
174.0000;0.7530;1.6179;
174.3000;0.7554;1.6249;
174.6000;0.7603;1.6414;
174.9000;0.7538;1.6273;
175.2000;0.7570;1.6414;
175.5000;0.7489;1.6155;
175.8000;0.7530;1.6273;
176.1000;0.7562;1.6390;
176.4000;0.7530;1.6320;
176.7000;0.7538;1.6367;
177.0000;0.7546;1.6367;
177.3000;0.7554;1.6390;
177.6000;0.7505;1.6273;
177.9000;0.7513;1.6273;
178.2000;0.7530;1.6296;
178.5000;0.7448;1.6132;
178.8000;0.7538;1.6390;
179.1000;0.7554;1.6390;
179.4000;0.7538;1.6320;
179.7000;0.7546;1.6367;
180.0000;0.7554;1.6437;
180.3000;0.7530;1.6343;
180.6000;0.7538;1.6343;
180.9000;0.7538;1.6343;
181.2000;0.7546;1.6320;
181.5000;0.7570;1.6273;
181.8000;0.7538;1.6155;
182.1000;0.7530;1.6202;
182.4000;0.7505;1.6108;
182.7000;0.7530;1.6179;
183.0000;0.7538;1.6179;
183.3000;0.7521;1.6202;
183.6000;0.7538;1.6273;
183.9000;0.7546;1.6320;
184.2000;0.7530;1.6273;
184.5000;0.7546;1.6320;
184.8000;0.7546;1.6296;
185.1000;0.7521;1.6367;
185.4000;0.7538;1.6390;
185.7000;0.7538;1.6414;
186.0000;0.7546;1.6414;
186.3000;0.7546;1.6414;
186.6000;0.7538;1.6414;
186.9000;0.7481;1.6226;
187.2000;0.7521;1.6320;
187.5000;0.7546;1.6390;
187.8000;0.7530;1.6437;
188.1000;0.7530;1.6390;
188.4000;0.7530;1.6367;
188.7000;0.7562;1.6461;
189.0000;0.7538;1.6414;
189.3000;0.7554;1.6343;
189.6000;0.7513;1.6179;
189.9000;0.7530;1.6273;
190.2000;0.7554;1.6343;
190.5000;0.7530;1.6249;
190.8000;0.7521;1.6155;
191.1000;0.7546;1.6226;
191.4000;0.7530;1.6249;
191.7000;0.7627;1.6484;
192.0000;0.7546;1.6273;
192.3000;0.7530;1.6179;
192.6000;0.7538;1.6155;
192.9000;0.7546;1.6249;
193.2000;0.7513;1.6179;
193.5000;0.7505;1.6061;
193.8000;0.7521;1.6015;
194.1000;0.7530;1.6202;
194.4000;0.7473;1.6132;
194.7000;0.7513;1.6202;
195.0000;0.7521;1.6367;
195.3000;0.7627;1.6625;
195.6000;0.7530;1.6461;
195.9000;0.7530;1.6508;
196.2000;0.7538;1.6461;
196.5000;0.7546;1.6367;
196.8000;0.7530;1.6320;
197.1000;0.7530;1.6343;
197.4000;0.7538;1.6367;
197.7000;0.7570;1.6461;
198.0000;0.7546;1.6531;
198.3000;0.7530;1.6484;
198.6000;0.7554;1.6484;
198.9000;0.7538;1.6437;
199.2000;0.7554;1.6461;
199.5000;0.7546;1.6343;
199.8000;0.7538;1.6343;
200.1000;0.7554;1.6343;
200.4000;0.7546;1.6296;
200.7000;0.7562;1.6202;
201.0000;0.7546;1.6155;
201.3000;0.7530;1.6108;
201.6000;0.7570;1.6155;
201.9000;0.7521;1.6155;
202.2000;0.7530;1.6249;
202.5000;0.7538;1.6249;
202.8000;0.7538;1.6320;
203.1000;0.7530;1.6179;
203.4000;0.7521;1.6179;
203.7000;0.7505;1.6155;
204.0000;0.7530;1.6296;
204.3000;0.7521;1.6296;
204.6000;0.7521;1.6273;
204.9000;0.7513;1.6320;
205.2000;0.7538;1.6320;
205.5000;0.7530;1.6320;
205.8000;0.7546;1.6414;
206.1000;0.7530;1.6508;
206.4000;0.7546;1.6484;
206.7000;0.7521;1.6367;
207.0000;0.7554;1.6343;
207.3000;0.7538;1.6273;
207.6000;0.7505;1.6155;
207.9000;0.7538;1.6226;
208.2000;0.7530;1.6179;
208.5000;0.7546;1.6249;
208.8000;0.7513;1.6273;
209.1000;0.7530;1.6343;
209.4000;0.7538;1.6296;
209.7000;0.7538;1.6273;
210.0000;0.7530;1.6226;
210.3000;0.7538;1.6296;
210.6000;0.7530;1.6367;
210.9000;0.7546;1.6320;
211.2000;0.7538;1.6226;
211.5000;0.7546;1.6108;
211.8000;0.7546;1.6085;
212.1000;0.7530;1.6108;
212.4000;0.7530;1.6179;
212.7000;0.7538;1.6226;
213.0000;0.7530;1.6226;
213.3000;0.7554;1.6273;
213.6000;0.7538;1.6179;
213.9000;0.7521;1.6061;
214.2000;0.7530;1.6061;
214.5000;0.7546;1.6132;
214.8000;0.7521;1.6085;
215.1000;0.7497;1.6108;
215.4000;0.7464;1.6038;
215.7000;0.7546;1.6179;
216.0000;0.7554;1.6296;
216.3000;0.7546;1.6296;
216.6000;0.7538;1.6226;
216.9000;0.7554;1.6202;
217.2000;0.7538;1.6132;
217.5000;0.7530;1.6108;
217.8000;0.7538;1.6015;
218.1000;0.7562;1.6038;
218.4000;0.7635;1.6343;
218.7000;0.7530;1.6015;
219.0000;0.7521;1.6038;
219.3000;0.7603;1.6296;
219.6000;0.7546;1.6249;
219.9000;0.7530;1.6226;
220.2000;0.7546;1.6226;
220.5000;0.7521;1.6155;
220.8000;0.7530;1.6132;
221.1000;0.7538;1.6179;
221.4000;0.7456;1.6038;
221.7000;0.7513;1.6132;
222.0000;0.7530;1.6108;
222.3000;0.7538;1.6179;
222.6000;0.7513;1.6179;
222.9000;0.7538;1.6320;
223.2000;0.7538;1.6367;
223.5000;0.7546;1.6367;
223.8000;0.7538;1.6390;
224.1000;0.7521;1.6414;
224.4000;0.7578;1.6531;
224.7000;0.7554;1.6437;
225.0000;0.7538;1.6390;
225.3000;0.7497;1.6320;
225.6000;0.7530;1.6320;
225.9000;0.7538;1.6320;
226.2000;0.7546;1.6367;
226.5000;0.7521;1.6249;
226.8000;0.7513;1.6226;
227.1000;0.7521;1.6273;
227.4000;0.7538;1.6249;
227.7000;0.7513;1.6226;
228.0000;0.7530;1.6249;
228.3000;0.7521;1.6202;
228.6000;0.7530;1.6273;
228.9000;0.7505;1.6226;
229.2000;0.7538;1.6296;
229.5000;0.7546;1.6296;
229.8000;0.7538;1.6226;
230.1000;0.7513;1.6249;
230.4000;0.7513;1.6202;
230.7000;0.7554;1.6320;
231.0000;0.7530;1.6296;
231.3000;0.7538;1.6390;
231.6000;0.7530;1.6414;
231.9000;0.7497;1.6343;
232.2000;0.7530;1.6367;
232.5000;0.7530;1.6414;
232.8000;0.7521;1.6367;
233.1000;0.7578;1.6484;
233.4000;0.7513;1.6320;
233.7000;0.7513;1.6273;
234.0000;0.7538;1.6343;
234.3000;0.7513;1.6437;
234.6000;0.7513;1.6484;
234.9000;0.7538;1.6390;
235.2000;0.7530;1.6367;
235.5000;0.7530;1.6367;
235.8000;0.7513;1.6343;
236.1000;0.7546;1.6390;
236.4000;0.7521;1.6249;
236.7000;0.7505;1.6132;
237.0000;0.7538;1.6085;
237.3000;0.7505;1.6038;
237.6000;0.7521;1.6108;
237.9000;0.7521;1.6108;
238.2000;0.7521;1.6085;
238.5000;0.7538;1.6155;
238.8000;0.7538;1.6179;
239.1000;0.7530;1.6179;
239.4000;0.7513;1.6202;
239.7000;0.7530;1.6320;
240.0000;0.7505;1.6320;
240.3000;0.7530;1.6367;
240.6000;0.7505;1.6343;
240.9000;0.7530;1.6343;
241.2000;0.7497;1.6273;
241.5000;0.7513;1.6367;
241.8000;0.7521;1.6461;
242.1000;0.7513;1.6414;
242.4000;0.7538;1.6343;
242.7000;0.7521;1.6202;
243.0000;0.7530;1.6179;
243.3000;0.7513;1.6108;
243.6000;0.7530;1.6179;
243.9000;0.7497;1.6155;
244.2000;0.7554;1.6179;
244.5000;0.7562;1.6179;
244.8000;0.7521;1.6061;
245.1000;0.7546;1.6108;
245.4000;0.7505;1.6038;
245.7000;0.7546;1.6132;
246.0000;0.7530;1.6085;
246.3000;0.7530;1.6155;
246.6000;0.7530;1.6273;
246.9000;0.7562;1.6390;
247.2000;0.7521;1.6296;
247.5000;0.7538;1.6414;
247.8000;0.7448;1.6202;
248.1000;0.7424;1.6108;
248.4000;0.7497;1.6320;
248.7000;0.7530;1.6343;
249.0000;0.7530;1.6249;
249.3000;0.7497;1.6202;
249.6000;0.7530;1.6273;
249.9000;0.7464;1.6038;
250.2000;0.7546;1.6226;
250.5000;0.7546;1.6202;
250.8000;0.7562;1.6249;
251.1000;0.7530;1.6202;
251.4000;0.7464;1.6038;
251.7000;0.7432;1.5968;
252.0000;0.7530;1.6179;
252.3000;0.7521;1.6202;
252.6000;0.7538;1.6179;
252.9000;0.7538;1.6249;
253.2000;0.7521;1.6179;
253.5000;0.7505;1.6226;
253.8000;0.7530;1.6202;
254.1000;0.7530;1.6226;
254.4000;0.7521;1.6155;
254.7000;0.7521;1.6226;
255.0000;0.7530;1.6320;
255.3000;0.7546;1.6226;
255.6000;0.7530;1.6226;
255.9000;0.7489;1.6226;
256.2000;0.7521;1.6296;
256.5000;0.7538;1.6296;
256.8000;0.7481;1.6108;
257.1000;0.7538;1.6179;
257.4000;0.7538;1.6226;
257.7000;0.7505;1.6155;
258.0000;0.7530;1.6273;
258.3000;0.7530;1.6273;
258.6000;0.7546;1.6249;
258.9000;0.7554;1.6249;
259.2000;0.7521;1.6155;
259.5000;0.7530;1.6179;
259.8000;0.7505;1.6132;
260.1000;0.7497;1.6085;
260.4000;0.7521;1.6202;
260.7000;0.7530;1.6226;
261.0000;0.7521;1.6226;
261.3000;0.7554;1.6320;
261.6000;0.7513;1.6296;
261.9000;0.7530;1.6296;
262.2000;0.7521;1.6249;
262.5000;0.7530;1.6226;
262.8000;0.7538;1.6155;
263.1000;0.7489;1.6038;
263.4000;0.7513;1.6061;
263.7000;0.7513;1.6132;
264.0000;0.7546;1.6202;
264.3000;0.7489;1.5991;
264.6000;0.7521;1.6061;
264.9000;0.7497;1.6061;
265.2000;0.7521;1.6108;
265.5000;0.7521;1.6202;
265.8000;0.7538;1.6273;
266.1000;0.7513;1.6155;
266.4000;0.7521;1.6132;
266.7000;0.7497;1.6015;
267.0000;0.7513;1.5968;
267.3000;0.7530;1.6015;
267.6000;0.7521;1.6108;
267.9000;0.7530;1.6038;
268.2000;0.7521;1.6061;
268.5000;0.7497;1.6038;
268.8000;0.7513;1.6085;
269.1000;0.7521;1.6038;
269.4000;0.7513;1.5991;
269.7000;0.7513;1.6061;
270.0000;0.7570;1.6202;
270.3000;0.7497;1.6061;
270.6000;0.7513;1.6132;
270.9000;0.7505;1.6061;
271.2000;0.7513;1.6132;
271.5000;0.7497;1.6108;
271.8000;0.7489;1.6108;
272.1000;0.7521;1.6273;
272.4000;0.7521;1.6296;
272.7000;0.7513;1.6273;
273.0000;0.7530;1.6367;
273.3000;0.7505;1.6273;
273.6000;0.7595;1.6367;
273.9000;0.7513;1.6155;
274.2000;0.7538;1.6155;
274.5000;0.7546;1.6132;
274.8000;0.7521;1.6108;
275.1000;0.7530;1.6085;
275.4000;0.7538;1.6155;
275.7000;0.7554;1.6226;
276.0000;0.7538;1.6273;
276.3000;0.7521;1.6343;
276.6000;0.7530;1.6390;
276.9000;0.7570;1.6578;
277.2000;0.7546;1.6555;
277.5000;0.7505;1.6437;
277.8000;0.7530;1.6414;
278.1000;0.7521;1.6367;
278.4000;0.7521;1.6343;
278.7000;0.7521;1.6367;
279.0000;0.7538;1.6414;
279.3000;0.7546;1.6343;
279.6000;0.7521;1.6249;
279.9000;0.7513;1.6273;
280.2000;0.7521;1.6226;
280.5000;0.7546;1.6296;
280.8000;0.7586;1.6343;
281.1000;0.7538;1.6249;
281.4000;0.7505;1.6202;
281.7000;0.7513;1.6249;
282.0000;0.7521;1.6343;
282.3000;0.7530;1.6343;
282.6000;0.7530;1.6367;
282.9000;0.7521;1.6367;
283.2000;0.7497;1.6249;
283.5000;0.7521;1.6343;
283.8000;0.7513;1.6343;
284.1000;0.7521;1.6273;
284.4000;0.7521;1.6320;
284.7000;0.7521;1.6390;
285.0000;0.7521;1.6390;
285.3000;0.7521;1.6367;
285.6000;0.7513;1.6343;
285.9000;0.7546;1.6414;
286.2000;0.7521;1.6343;
286.5000;0.7481;1.6249;
286.8000;0.7497;1.6202;
287.1000;0.7538;1.6226;
287.4000;0.7513;1.6179;
287.7000;0.7513;1.6296;
288.0000;0.7570;1.6414;
288.3000;0.7521;1.6390;
288.6000;0.7538;1.6414;
288.9000;0.7513;1.6296;
289.2000;0.7530;1.6320;
289.5000;0.7497;1.6273;
289.8000;0.7513;1.6367;
290.1000;0.7513;1.6320;
290.4000;0.7521;1.6320;
290.7000;0.7538;1.6414;
291.0000;0.7570;1.6508;
291.3000;0.7521;1.6367;
291.6000;0.7546;1.6461;
291.9000;0.7481;1.6343;
292.2000;0.7538;1.6343;
292.5000;0.7538;1.6273;
292.8000;0.7554;1.6390;
293.1000;0.7538;1.6390;
293.4000;0.7530;1.6296;
293.7000;0.7530;1.6343;
294.0000;0.7611;1.6649;
294.3000;0.7513;1.6414;
294.6000;0.7611;1.6578;
294.9000;0.7489;1.6273;
295.2000;0.7489;1.6249;
295.5000;0.7530;1.6296;
295.8000;0.7497;1.6226;
296.1000;0.7521;1.6249;
296.4000;0.7513;1.6202;
296.7000;0.7456;1.6108;
297.0000;0.7513;1.6202;
297.3000;0.7513;1.6273;
297.6000;0.7521;1.6249;
297.9000;0.7513;1.6320;
298.2000;0.7521;1.6296;
298.5000;0.7554;1.6414;
298.8000;0.7538;1.6414;
299.1000;0.7521;1.6437;
299.4000;0.7513;1.6461;
299.7000;0.7521;1.6484;
300.0000;0.7505;1.6437;
300.3000;0.7513;1.6367;
300.6000;0.7521;1.6367;
300.9000;0.7521;1.6343;
301.2000;0.7521;1.6320;
301.5000;0.7505;1.6226;
301.8000;0.7489;1.6202;
302.1000;0.7521;1.6226;
302.4000;0.7521;1.6202;
302.7000;0.7521;1.6179;
303.0000;0.7513;1.6132;
303.3000;0.7530;1.6179;
303.6000;0.7530;1.6296;
303.9000;0.7521;1.6414;
304.2000;0.7505;1.6320;
304.5000;0.7521;1.6320;
304.8000;0.7505;1.6343;
305.1000;0.7521;1.6390;
305.4000;0.7497;1.6320;
305.7000;0.7505;1.6249;
306.0000;0.7546;1.6296;
306.3000;0.7513;1.6367;
306.6000;0.7489;1.6343;
306.9000;0.7513;1.6484;
307.2000;0.7505;1.6461;
307.5000;0.7521;1.6414;
307.8000;0.7521;1.6437;
308.1000;0.7586;1.6625;
308.4000;0.7530;1.6414;
308.7000;0.7530;1.6437;
309.0000;0.7505;1.6437;
309.3000;0.7505;1.6367;
309.6000;0.7513;1.6390;
309.9000;0.7513;1.6367;
310.2000;0.7554;1.6461;
310.5000;0.7530;1.6437;
310.8000;0.7505;1.6367;
311.1000;0.7456;1.6202;
311.4000;0.7399;1.5991;
311.7000;0.7505;1.6273;
312.0000;0.7530;1.6273;
312.3000;0.7546;1.6343;
312.6000;0.7546;1.6367;
312.9000;0.7530;1.6343;
313.2000;0.7521;1.6320;
313.5000;0.7489;1.6296;
313.8000;0.7538;1.6414;
314.1000;0.7513;1.6414;
314.4000;0.7513;1.6320;
314.7000;0.7530;1.6343;
315.0000;0.7505;1.6343;
315.3000;0.7521;1.6367;
315.6000;0.7513;1.6343;
315.9000;0.7513;1.6296;
316.2000;0.7497;1.6320;
316.5000;0.7521;1.6367;
316.8000;0.7513;1.6367;
317.1000;0.7505;1.6367;
317.4000;0.7521;1.6367;
317.7000;0.7530;1.6343;
318.0000;0.7513;1.6343;
318.3000;0.7521;1.6249;
318.6000;0.7521;1.6273;
318.9000;0.7513;1.6296;
319.2000;0.7562;1.6414;
319.5000;0.7505;1.6273;
319.8000;0.7497;1.6296;
320.1000;0.7521;1.6320;
320.4000;0.7513;1.6296;
320.7000;0.7505;1.6296;
321.0000;0.7505;1.6296;
321.3000;0.7505;1.6320;
321.6000;0.7505;1.6390;
321.9000;0.7513;1.6461;
322.2000;0.7513;1.6508;
322.5000;0.7538;1.6484;
322.8000;0.7513;1.6343;
323.1000;0.7513;1.6367;
323.4000;0.7538;1.6367;
323.7000;0.7554;1.6343;
324.0000;0.7538;1.6320;
324.3000;0.7505;1.6273;
324.6000;0.7521;1.6132;
324.9000;0.7530;1.6108;
325.2000;0.7538;1.6061;
325.5000;0.7538;1.6108;
325.8000;0.7513;1.6132;
326.1000;0.7513;1.6226;
326.4000;0.7530;1.6226;
326.7000;0.7513;1.6249;
327.0000;0.7505;1.6179;
327.3000;0.7505;1.6132;
327.6000;0.7505;1.6108;
327.9000;0.7513;1.6108;
328.2000;0.7505;1.6038;
328.5000;0.7521;1.6015;
328.8000;0.7521;1.6132;
329.1000;0.7513;1.6226;
329.4000;0.7521;1.6202;
329.7000;0.7513;1.6226;
330.0000;0.7521;1.6320;
330.3000;0.7521;1.6296;
330.6000;0.7513;1.6273;
330.9000;0.7578;1.6320;
331.2000;0.7521;1.6226;
331.5000;0.7497;1.6155;
331.8000;0.7505;1.6226;
332.1000;0.7505;1.6296;
332.4000;0.7513;1.6273;
332.7000;0.7513;1.6320;
333.0000;0.7513;1.6320;
333.3000;0.7521;1.6343;
333.6000;0.7481;1.6296;
333.9000;0.7497;1.6296;
334.2000;0.7489;1.6226;
334.5000;0.7521;1.6343;
334.8000;0.7497;1.6226;
335.1000;0.7513;1.6179;
335.4000;0.7513;1.6202;
335.7000;0.7513;1.6155;
336.0000;0.7513;1.6155;
336.3000;0.7554;1.6155;
336.6000;0.7505;1.6155;
336.9000;0.7521;1.6249;
337.2000;0.7505;1.6273;
337.5000;0.7456;1.6179;
337.8000;0.7513;1.6320;
338.1000;0.7505;1.6296;
338.4000;0.7481;1.6179;
338.7000;0.7513;1.6249;
339.0000;0.7513;1.6202;
339.3000;0.7505;1.6249;
339.6000;0.7481;1.6155;
339.9000;0.7497;1.6132;
340.2000;0.7489;1.6108;
340.5000;0.7513;1.6249;
340.8000;0.7513;1.6296;
341.1000;0.7521;1.6296;
341.4000;0.7521;1.6273;
341.7000;0.7513;1.6132;
342.0000;0.7521;1.6155;
342.3000;0.7513;1.6179;
342.6000;0.7530;1.6202;
342.9000;0.7505;1.6179;
343.2000;0.7505;1.6132;
343.5000;0.7521;1.6226;
343.8000;0.7513;1.6226;
344.1000;0.7489;1.6249;
344.4000;0.7513;1.6320;
344.7000;0.7513;1.6320;
345.0000;0.7521;1.6273;
345.3000;0.7530;1.6249;
345.6000;0.7505;1.6202;
345.9000;0.7497;1.6179;
346.2000;0.7513;1.6226;
346.5000;0.7538;1.6202;
346.8000;0.7513;1.6179;
347.1000;0.7538;1.6273;
347.4000;0.7521;1.6273;
347.7000;0.7505;1.6202;
348.0000;0.7513;1.6226;
348.3000;0.7530;1.6202;
348.6000;0.7505;1.6202;
348.9000;0.7505;1.6226;
349.2000;0.7489;1.6202;
349.5000;0.7513;1.6179;
349.8000;0.7513;1.6273;
350.1000;0.7489;1.6179;
350.4000;0.7513;1.6367;
350.7000;0.7505;1.6367;
351.0000;0.7521;1.6390;
351.3000;0.7505;1.6320;
351.6000;0.7530;1.6390;
351.9000;0.7521;1.6461;
352.2000;0.7521;1.6390;
352.5000;0.7554;1.6437;
352.8000;0.7505;1.6249;
353.1000;0.7505;1.6179;
353.4000;0.7521;1.6273;
353.7000;0.7521;1.6179;
354.0000;0.7521;1.6155;
354.3000;0.7497;1.6061;
354.6000;0.7505;1.6132;
354.9000;0.7562;1.6296;
355.2000;0.7505;1.6249;
355.5000;0.7521;1.6273;
355.8000;0.7570;1.6484;
356.1000;0.7530;1.6437;
356.4000;0.7521;1.6343;
356.7000;0.7521;1.6273;
357.0000;0.7521;1.6249;
357.3000;0.7521;1.6273;
357.6000;0.7505;1.6249;
357.9000;0.7505;1.6273;
358.2000;0.7505;1.6273;
358.5000;0.7497;1.6320;
358.8000;0.7521;1.6414;
359.1000;0.7497;1.6320;
359.4000;0.7481;1.6249;
359.7000;0.7530;1.6390;
360.0000;0.7513;1.6343;
360.3000;0.7497;1.6343;
360.6000;0.7497;1.6437;
360.9000;0.7424;1.6273;
361.2000;0.7489;1.6461;
361.5000;0.7505;1.6508;
361.8000;0.7505;1.6461;
362.1000;0.7521;1.6367;
362.4000;0.7513;1.6273;
362.7000;0.7505;1.6343;
363.0000;0.7489;1.6320;
363.3000;0.7505;1.6437;
363.6000;0.7538;1.6602;
363.9000;0.7521;1.6649;
364.2000;0.7513;1.6625;
364.5000;0.7595;1.6836;
364.8000;0.7513;1.6625;
365.1000;0.7538;1.6625;
365.4000;0.7505;1.6508;
365.7000;0.7513;1.6484;
366.0000;0.7473;1.6343;
366.3000;0.7505;1.6414;
366.6000;0.7473;1.6367;
366.9000;0.7521;1.6531;
367.2000;0.7521;1.6578;
367.5000;0.7530;1.6696;
367.8000;0.7489;1.6649;
368.1000;0.7562;1.6766;
368.4000;0.7513;1.6625;
368.7000;0.7513;1.6484;
369.0000;0.7521;1.6461;
369.3000;0.7513;1.6414;
369.6000;0.7530;1.6390;
369.9000;0.7521;1.6437;
370.2000;0.7521;1.6437;
370.5000;0.7505;1.6484;
370.8000;0.7464;1.6367;
371.1000;0.7505;1.6414;
371.4000;0.7489;1.6437;
371.7000;0.7489;1.6390;
372.0000;0.7513;1.6461;
372.3000;0.7505;1.6461;
372.6000;0.7513;1.6555;
372.9000;0.7497;1.6531;
373.2000;0.7505;1.6531;
373.5000;0.7513;1.6531;
373.8000;0.7513;1.6508;
374.1000;0.7505;1.6531;
374.4000;0.7513;1.6531;
374.7000;0.7505;1.6461;
375.0000;0.7505;1.6437;
375.3000;0.7497;1.6367;
375.6000;0.7505;1.6414;
375.9000;0.7505;1.6367;
376.2000;0.7497;1.6296;
376.5000;0.7530;1.6343;
376.8000;0.7538;1.6390;
377.1000;0.7513;1.6414;
377.4000;0.7505;1.6437;
377.7000;0.7505;1.6414;
378.0000;0.7505;1.6414;
378.3000;0.7505;1.6343;
378.6000;0.7497;1.6367;
378.9000;0.7481;1.6367;
379.2000;0.7513;1.6390;
379.5000;0.7473;1.6273;
379.8000;0.7464;1.6343;
380.1000;0.7595;1.6742;
380.4000;0.7505;1.6508;
380.7000;0.7513;1.6484;
381.0000;0.7448;1.6296;
381.3000;0.7497;1.6414;
381.6000;0.7546;1.6602;
381.9000;0.7489;1.6531;
382.2000;0.7497;1.6484;
382.5000;0.7456;1.6390;
382.8000;0.7481;1.6343;
383.1000;0.7586;1.6742;
383.4000;0.7505;1.6461;
383.7000;0.7505;1.6437;
384.0000;0.7489;1.6343;
384.3000;0.7505;1.6367;
384.6000;0.7505;1.6390;
384.9000;0.7513;1.6390;
385.2000;0.7481;1.6296;
385.5000;0.7505;1.6367;
385.8000;0.7489;1.6320;
386.1000;0.7505;1.6273;
386.4000;0.7473;1.6273;
386.7000;0.7497;1.6296;
387.0000;0.7562;1.6343;
387.3000;0.7513;1.6273;
387.6000;0.7554;1.6367;
387.9000;0.7497;1.6296;
388.2000;0.7505;1.6390;
388.5000;0.7513;1.6437;
388.8000;0.7513;1.6414;
389.1000;0.7603;1.6696;
389.4000;0.7513;1.6414;
389.7000;0.7481;1.6390;
390.0000;0.7513;1.6390;
390.3000;0.7513;1.6343;
390.6000;0.7513;1.6320;
390.9000;0.7497;1.6367;
391.2000;0.7497;1.6390;
391.5000;0.7505;1.6461;
391.8000;0.7521;1.6484;
392.1000;0.7497;1.6484;
392.4000;0.7505;1.6508;
392.7000;0.7481;1.6414;
393.0000;0.7513;1.6531;
393.3000;0.7513;1.6508;
393.6000;0.7521;1.6484;
393.9000;0.7530;1.6555;
394.2000;0.7505;1.6555;
394.5000;0.7497;1.6508;
394.8000;0.7603;1.6696;
395.1000;0.7489;1.6414;
395.4000;0.7530;1.6437;
395.7000;0.7505;1.6461;
396.0000;0.7513;1.6461;
396.3000;0.7505;1.6320;
396.6000;0.7497;1.6202;
396.9000;0.7538;1.6226;
397.2000;0.7521;1.6226;
397.5000;0.7521;1.6249;
397.8000;0.7497;1.6108;
398.1000;0.7497;1.6155;
398.4000;0.7497;1.6226;
398.7000;0.7554;1.6367;
399.0000;0.7489;1.6179;
399.3000;0.7505;1.6202;
399.6000;0.7505;1.6249;
399.9000;0.7521;1.6320;
400.2000;0.7489;1.6249;
400.5000;0.7505;1.6296;
400.8000;0.7570;1.6414;
401.1000;0.7505;1.6249;
401.4000;0.7489;1.6226;
401.7000;0.7513;1.6320;
402.0000;0.7464;1.6179;
402.3000;0.7505;1.6273;
402.6000;0.7497;1.6179;
402.9000;0.7489;1.6155;
403.2000;0.7481;1.6108;
403.5000;0.7497;1.6179;
403.8000;0.7505;1.6132;
404.1000;0.7481;1.6155;
404.4000;0.7521;1.6202;
404.7000;0.7513;1.6179;
405.0000;0.7562;1.6249;
405.3000;0.7473;1.6015;
405.6000;0.7505;1.6202;
405.9000;0.7505;1.6226;
406.2000;0.7505;1.6273;
406.5000;0.7489;1.6249;
406.8000;0.7497;1.6320;
407.1000;0.7505;1.6320;
407.4000;0.7481;1.6202;
407.7000;0.7489;1.6320;
408.0000;0.7464;1.6249;
408.3000;0.7497;1.6437;
408.6000;0.7513;1.6320;
408.9000;0.7481;1.6179;
409.2000;0.7497;1.6202;
409.5000;0.7505;1.6061;
409.8000;0.7538;1.6155;
410.1000;0.7473;1.6015;
410.4000;0.7505;1.6202;
410.7000;0.7505;1.6226;
411.0000;0.7603;1.6461;
411.3000;0.7505;1.6273;
411.6000;0.7513;1.6179;
411.9000;0.7521;1.6226;
412.2000;0.7513;1.6249;
412.5000;0.7489;1.6226;
412.8000;0.7497;1.6226;
413.1000;0.7497;1.6155;
413.4000;0.7513;1.6226;
413.7000;0.7497;1.6226;
414.0000;0.7505;1.6320;
414.3000;0.7505;1.6296;
414.6000;0.7513;1.6273;
414.9000;0.7489;1.6179;
415.2000;0.7521;1.6202;
415.5000;0.7521;1.6226;
415.8000;0.7505;1.6155;
416.1000;0.7505;1.6155;
416.4000;0.7505;1.6296;
416.7000;0.7505;1.6320;
417.0000;0.7513;1.6202;
417.3000;0.7505;1.6226;
417.6000;0.7513;1.6226;
417.9000;0.7505;1.6226;
418.2000;0.7505;1.6179;
418.5000;0.7546;1.6226;
418.8000;0.7513;1.6179;
419.1000;0.7497;1.6179;
419.4000;0.7489;1.6179;
419.7000;0.7481;1.6202;
420.0000;0.7513;1.6273;
420.3000;0.7497;1.6226;
420.6000;0.7424;1.6132;
420.9000;0.7497;1.6296;
421.2000;0.7481;1.6249;
421.5000;0.7399;1.5968;
421.8000;0.7481;1.6226;
422.1000;0.7505;1.6249;
422.4000;0.7489;1.6226;
422.7000;0.7505;1.6226;
423.0000;0.7513;1.6296;
423.3000;0.7530;1.6343;
423.6000;0.7497;1.6296;
423.9000;0.7521;1.6343;
424.2000;0.7505;1.6390;
424.5000;0.7489;1.6320;
424.8000;0.7497;1.6343;
425.1000;0.7505;1.6343;
425.4000;0.7505;1.6296;
425.7000;0.7546;1.6367;
426.0000;0.7521;1.6249;
426.3000;0.7546;1.6343;
426.6000;0.7521;1.6226;
426.9000;0.7489;1.6226;
427.2000;0.7497;1.6320;
427.5000;0.7497;1.6367;
427.8000;0.7497;1.6296;
428.1000;0.7505;1.6296;
428.4000;0.7497;1.6273;
428.7000;0.7505;1.6226;
429.0000;0.7513;1.6132;
429.3000;0.7505;1.6108;
429.6000;0.7505;1.6132;
429.9000;0.7505;1.6132;
430.2000;0.7481;1.6061;
430.5000;0.7473;1.6061;
430.8000;0.7456;1.6108;
431.1000;0.7448;1.6155;
431.4000;0.7464;1.6155;
431.7000;0.7505;1.6179;
432.0000;0.7489;1.6179;
432.3000;0.7489;1.6202;
432.6000;0.7513;1.6320;
432.9000;0.7497;1.6273;
433.2000;0.7497;1.6390;
433.5000;0.7505;1.6390;
433.8000;0.7505;1.6461;
434.1000;0.7513;1.6461;
434.4000;0.7505;1.6461;
434.7000;0.7497;1.6437;
435.0000;0.7497;1.6508;
435.3000;0.7497;1.6531;
435.6000;0.7497;1.6508;
435.9000;0.7497;1.6367;
436.2000;0.7489;1.6414;
436.5000;0.7497;1.6437;
436.8000;0.7521;1.6461;
437.1000;0.7521;1.6508;
437.4000;0.7513;1.6484;
437.7000;0.7521;1.6484;
438.0000;0.7497;1.6484;
438.3000;0.7497;1.6367;
438.6000;0.7489;1.6414;
438.9000;0.7505;1.6414;
439.2000;0.7497;1.6343;
439.5000;0.7489;1.6273;
439.8000;0.7497;1.6179;
440.1000;0.7489;1.6179;
440.4000;0.7497;1.6296;
440.7000;0.7505;1.6367;
441.0000;0.7497;1.6414;
441.3000;0.7505;1.6414;
441.6000;0.7513;1.6531;
441.9000;0.7497;1.6531;
442.2000;0.7513;1.6555;
442.5000;0.7497;1.6484;
442.8000;0.7513;1.6484;
443.1000;0.7505;1.6484;
443.4000;0.7481;1.6508;
443.7000;0.7505;1.6602;
444.0000;0.7505;1.6602;
444.3000;0.7513;1.6578;
444.6000;0.7481;1.6414;
444.9000;0.7505;1.6414;
445.2000;0.7513;1.6437;
445.5000;0.7513;1.6414;
445.8000;0.7489;1.6343;
446.1000;0.7505;1.6414;
446.4000;0.7497;1.6343;
446.7000;0.7521;1.6414;
447.0000;0.7505;1.6461;
447.3000;0.7497;1.6437;
447.6000;0.7497;1.6390;
447.9000;0.7513;1.6390;
448.2000;0.7505;1.6367;
448.5000;0.7489;1.6296;
448.8000;0.7513;1.6390;
449.1000;0.7489;1.6273;
449.4000;0.7521;1.6343;
449.7000;0.7497;1.6320;
450.0000;0.7481;1.6249;
450.3000;0.7448;1.6179;
450.6000;0.7489;1.6296;
450.9000;0.7562;1.6508;
451.2000;0.7497;1.6343;
451.5000;0.7489;1.6367;
451.8000;0.7521;1.6367;
452.1000;0.7513;1.6343;
452.4000;0.7481;1.6343;
452.7000;0.7489;1.6343;
453.0000;0.7489;1.6320;
453.3000;0.7505;1.6343;
453.6000;0.7505;1.6249;
453.9000;0.7497;1.6249;
454.2000;0.7505;1.6296;
454.5000;0.7497;1.6273;
454.8000;0.7473;1.6226;
455.1000;0.7456;1.6179;
455.4000;0.7481;1.6226;
455.7000;0.7497;1.6343;
456.0000;0.7424;1.6108;
456.3000;0.7489;1.6249;
456.6000;0.7489;1.6320;
456.9000;0.7497;1.6343;
457.2000;0.7505;1.6320;
457.5000;0.7505;1.6296;
457.8000;0.7562;1.6484;
458.1000;0.7513;1.6367;
458.4000;0.7481;1.6296;
458.7000;0.7497;1.6179;
459.0000;0.7473;1.6061;
459.3000;0.7489;1.6061;
459.6000;0.7521;1.6179;
459.9000;0.7489;1.6132;
460.2000;0.7497;1.6179;
460.5000;0.7497;1.6249;
460.8000;0.7505;1.6273;
461.1000;0.7505;1.6273;
461.4000;0.7481;1.6296;
461.7000;0.7489;1.6273;
462.0000;0.7489;1.6226;
462.3000;0.7505;1.6249;
462.6000;0.7473;1.6202;
462.9000;0.7497;1.6226;
463.2000;0.7497;1.6202;
463.5000;0.7505;1.6320;
463.8000;0.7481;1.6273;
464.1000;0.7489;1.6296;
464.4000;0.7481;1.6390;
464.7000;0.7440;1.6273;
465.0000;0.7505;1.6437;
465.3000;0.7489;1.6367;
465.6000;0.7481;1.6343;
465.9000;0.7497;1.6414;
466.2000;0.7481;1.6249;
466.5000;0.7489;1.6296;
466.8000;0.7481;1.6296;
467.1000;0.7497;1.6320;
467.4000;0.7473;1.6296;
467.7000;0.7489;1.6296;
468.0000;0.7505;1.6296;
468.3000;0.7595;1.6484;
468.6000;0.7497;1.6296;
468.9000;0.7489;1.6296;
469.2000;0.7481;1.6202;
469.5000;0.7497;1.6296;
469.8000;0.7513;1.6273;
470.1000;0.7513;1.6202;
470.4000;0.7489;1.6202;
470.7000;0.7497;1.6273;
471.0000;0.7489;1.6343;
471.3000;0.7521;1.6437;
471.6000;0.7505;1.6367;
471.9000;0.7497;1.6367;
472.2000;0.7489;1.6296;
472.5000;0.7505;1.6226;
472.8000;0.7505;1.6155;
473.1000;0.7497;1.6038;
473.4000;0.7505;1.6108;
473.7000;0.7497;1.6155;
474.0000;0.7473;1.6179;
474.3000;0.7489;1.6179;
474.6000;0.7497;1.6296;
474.9000;0.7497;1.6367;
475.2000;0.7489;1.6367;
475.5000;0.7497;1.6437;
475.8000;0.7481;1.6437;
476.1000;0.7505;1.6437;
476.4000;0.7489;1.6437;
476.7000;0.7497;1.6414;
477.0000;0.7481;1.6390;
477.3000;0.7497;1.6367;
477.6000;0.7505;1.6414;
477.9000;0.7464;1.6296;
478.2000;0.7562;1.6508;
478.5000;0.7473;1.6296;
478.8000;0.7489;1.6367;
479.1000;0.7554;1.6390;
479.4000;0.7497;1.6296;
479.7000;0.7497;1.6179;
480.0000;0.7505;1.6202;
480.3000;0.7497;1.6226;
480.6000;0.7586;1.6484;
480.9000;0.7505;1.6296;
481.2000;0.7448;1.6179;
481.5000;0.7505;1.6343;
481.8000;0.7473;1.6367;
482.1000;0.7562;1.6508;
482.4000;0.7497;1.6367;
482.7000;0.7481;1.6296;
483.0000;0.7375;1.6155;
483.3000;0.7489;1.6531;
483.6000;0.7481;1.6578;
483.9000;0.7489;1.6555;
484.2000;0.7481;1.6414;
484.5000;0.7473;1.6296;
484.8000;0.7489;1.6343;
485.1000;0.7497;1.6390;
485.4000;0.7481;1.6343;
485.7000;0.7497;1.6367;
486.0000;0.7481;1.6390;
486.3000;0.7489;1.6343;
486.6000;0.7497;1.6273;
486.9000;0.7489;1.6179;
487.2000;0.7464;1.6249;
487.5000;0.7473;1.6249;
487.8000;0.7538;1.6461;
488.1000;0.7489;1.6367;
488.4000;0.7489;1.6296;
488.7000;0.7497;1.6249;
489.0000;0.7489;1.6202;
489.3000;0.7473;1.6179;
489.6000;0.7473;1.6179;
489.9000;0.7456;1.6108;
490.2000;0.7505;1.6273;
490.5000;0.7497;1.6320;
490.8000;0.7489;1.6343;
491.1000;0.7489;1.6273;
491.4000;0.7513;1.6273;
491.7000;0.7497;1.6202;
492.0000;0.7473;1.6108;
492.3000;0.7473;1.6085;
492.6000;0.7481;1.6179;
492.9000;0.7497;1.6296;
493.2000;0.7497;1.6273;
493.5000;0.7497;1.6273;
493.8000;0.7489;1.6179;
494.1000;0.7489;1.6202;
494.4000;0.7497;1.6179;
494.7000;0.7546;1.6296;
495.0000;0.7570;1.6367;
495.3000;0.7497;1.6202;
495.6000;0.7497;1.6273;
495.9000;0.7489;1.6296;
496.2000;0.7481;1.6226;
496.5000;0.7489;1.6296;
496.8000;0.7513;1.6390;
497.1000;0.7481;1.6367;
497.4000;0.7489;1.6390;
497.7000;0.7497;1.6320;
498.0000;0.7464;1.6273;
498.3000;0.7481;1.6296;
498.6000;0.7473;1.6343;
498.9000;0.7489;1.6273;
499.2000;0.7497;1.6226;
499.5000;0.7440;1.5991;
499.8000;0.7481;1.6108;
500.1000;0.7407;1.5991;
500.4000;0.7489;1.6226;
500.7000;0.7456;1.6179;
501.0000;0.7497;1.6202;
501.3000;0.7570;1.6414;
501.6000;0.7473;1.6320;
501.9000;0.7481;1.6320;
502.2000;0.7481;1.6296;
502.5000;0.7538;1.6461;
502.8000;0.7497;1.6343;
503.1000;0.7464;1.6320;
503.4000;0.7473;1.6343;
503.7000;0.7481;1.6414;
504.0000;0.7464;1.6390;
504.3000;0.7505;1.6484;
504.6000;0.7489;1.6461;
504.9000;0.7481;1.6437;
505.2000;0.7473;1.6437;
505.5000;0.7497;1.6555;
505.8000;0.7448;1.6437;
506.1000;0.7464;1.6437;
506.4000;0.7481;1.6437;
506.7000;0.7456;1.6437;
507.0000;0.7456;1.6484;
507.3000;0.7497;1.6461;
507.6000;0.7489;1.6484;
507.9000;0.7473;1.6531;
508.2000;0.7489;1.6531;
508.5000;0.7473;1.6461;
508.8000;0.7505;1.6531;
509.1000;0.7513;1.6578;
509.4000;0.7497;1.6555;
509.7000;0.7489;1.6555;
510.0000;0.7497;1.6508;
510.3000;0.7505;1.6508;
510.6000;0.7481;1.6508;
510.9000;0.7481;1.6484;
511.2000;0.7473;1.6484;
511.5000;0.7489;1.6461;
511.8000;0.7489;1.6437;
512.1000;0.7481;1.6461;
512.4000;0.7489;1.6508;
512.7000;0.7489;1.6461;
513.0000;0.7456;1.6437;
513.3000;0.7456;1.6367;
513.6000;0.7489;1.6414;
513.9000;0.7481;1.6461;
514.2000;0.7497;1.6602;
514.5000;0.7538;1.6649;
514.8000;0.7554;1.6625;
515.1000;0.7473;1.6461;
515.4000;0.7497;1.6414;
515.7000;0.7489;1.6296;
516.0000;0.7513;1.6320;
516.3000;0.7489;1.6249;
516.6000;0.7489;1.6296;
516.9000;0.7481;1.6249;
517.2000;0.7530;1.6296;
517.5000;0.7489;1.6296;
517.8000;0.7546;1.6414;
518.1000;0.7489;1.6273;
518.4000;0.7521;1.6273;
518.7000;0.7513;1.6249;
519.0000;0.7489;1.6179;
519.3000;0.7416;1.5991;
519.6000;0.7513;1.6273;
519.9000;0.7481;1.6273;
520.2000;0.7481;1.6296;
520.5000;0.7489;1.6320;
520.8000;0.7456;1.6320;
521.1000;0.7505;1.6484;
521.4000;0.7489;1.6414;
521.7000;0.7464;1.6414;
522.0000;0.7473;1.6414;
522.3000;0.7489;1.6367;
522.6000;0.7497;1.6390;
522.9000;0.7481;1.6367;
523.2000;0.7546;1.6484;
523.5000;0.7489;1.6367;
523.8000;0.7497;1.6437;
524.1000;0.7481;1.6531;
524.4000;0.7513;1.6602;
524.7000;0.7489;1.6578;
525.0000;0.7489;1.6672;
525.3000;0.7497;1.6602;
525.6000;0.7497;1.6578;
525.9000;0.7505;1.6531;
526.2000;0.7530;1.6555;
526.5000;0.7473;1.6437;
526.8000;0.7489;1.6390;
527.1000;0.7489;1.6273;
527.4000;0.7546;1.6367;
527.7000;0.7489;1.6226;
528.0000;0.7473;1.6202;
528.3000;0.7505;1.6320;
528.6000;0.7521;1.6343;
528.9000;0.7497;1.6296;
529.2000;0.7481;1.6226;
529.5000;0.7497;1.6249;
529.8000;0.7521;1.6343;
530.1000;0.7464;1.6273;
530.4000;0.7505;1.6508;
530.7000;0.7505;1.6484;
531.0000;0.7464;1.6414;
531.3000;0.7481;1.6461;
531.6000;0.7505;1.6508;
531.9000;0.7489;1.6531;
532.2000;0.7489;1.6508;
532.5000;0.7497;1.6578;
532.8000;0.7497;1.6602;
533.1000;0.7464;1.6437;
533.4000;0.7456;1.6390;
533.7000;0.7473;1.6437;
534.0000;0.7473;1.6484;
534.3000;0.7448;1.6461;
534.6000;0.7473;1.6437;
534.9000;0.7464;1.6437;
535.2000;0.7448;1.6390;
535.5000;0.7489;1.6437;
535.8000;0.7456;1.6437;
536.1000;0.7473;1.6390;
536.4000;0.7489;1.6461;
536.7000;0.7464;1.6414;
537.0000;0.7473;1.6390;
537.3000;0.7497;1.6437;
537.6000;0.7481;1.6461;
537.9000;0.7473;1.6414;
538.2000;0.7489;1.6437;
538.5000;0.7546;1.6578;
538.8000;0.7481;1.6414;
539.1000;0.7521;1.6484;
539.4000;0.7497;1.6437;
539.7000;0.7473;1.6484;
540.0000;0.7473;1.6461;
540.3000;0.7538;1.6649;
540.6000;0.7481;1.6555;
540.9000;0.7481;1.6461;
541.2000;0.7513;1.6531;
541.5000;0.7481;1.6343;
541.8000;0.7464;1.6273;
542.1000;0.7513;1.6390;
542.4000;0.7448;1.6343;
542.7000;0.7513;1.6461;
543.0000;0.7391;1.6273;
543.3000;0.7399;1.6343;
543.6000;0.7489;1.6461;
543.9000;0.7481;1.6437;
544.2000;0.7489;1.6437;
544.5000;0.7497;1.6461;
544.8000;0.7497;1.6414;
545.1000;0.7546;1.6531;
545.4000;0.7481;1.6343;
545.7000;0.7473;1.6390;
546.0000;0.7481;1.6461;
546.3000;0.7505;1.6437;
546.6000;0.7513;1.6484;
546.9000;0.7481;1.6343;
547.2000;0.7424;1.6296;
547.5000;0.7481;1.6390;
547.8000;0.7489;1.6437;
548.1000;0.7530;1.6555;
548.4000;0.7473;1.6343;
548.7000;0.7448;1.6343;
549.0000;0.7570;1.6578;
549.3000;0.7481;1.6390;
549.6000;0.7481;1.6390;
549.9000;0.7473;1.6437;
550.2000;0.7546;1.6625;
550.5000;0.7505;1.6625;
550.8000;0.7489;1.6602;
551.1000;0.7440;1.6484;
551.4000;0.7481;1.6578;
551.7000;0.7481;1.6461;
552.0000;0.7481;1.6390;
552.3000;0.7497;1.6414;
552.6000;0.7448;1.6226;
552.9000;0.7497;1.6414;
553.2000;0.7473;1.6437;
553.5000;0.7464;1.6437;
553.8000;0.7456;1.6414;
554.1000;0.7473;1.6461;
554.4000;0.7489;1.6437;
554.7000;0.7481;1.6461;
555.0000;0.7473;1.6461;
555.3000;0.7497;1.6508;
555.6000;0.7505;1.6531;
555.9000;0.7481;1.6414;
556.2000;0.7489;1.6320;
556.5000;0.7505;1.6414;
556.8000;0.7489;1.6390;
557.1000;0.7497;1.6367;
557.4000;0.7505;1.6390;
557.7000;0.7505;1.6390;
558.0000;0.7497;1.6367;
558.3000;0.7489;1.6367;
558.6000;0.7481;1.6296;
558.9000;0.7440;1.6179;
559.2000;0.7489;1.6320;
559.5000;0.7530;1.6461;
559.8000;0.7448;1.6367;
560.1000;0.7489;1.6461;
560.4000;0.7473;1.6414;
560.7000;0.7489;1.6390;
561.0000;0.7489;1.6414;
561.3000;0.7473;1.6437;
561.6000;0.7489;1.6484;
561.9000;0.7497;1.6508;
562.2000;0.7497;1.6461;
562.5000;0.7497;1.6437;
562.8000;0.7481;1.6437;
563.1000;0.7481;1.6461;
563.4000;0.7464;1.6367;
563.7000;0.7481;1.6296;
564.0000;0.7481;1.6273;
564.3000;0.7481;1.6296;
564.6000;0.7473;1.6273;
564.9000;0.7489;1.6414;
565.2000;0.7505;1.6508;
565.5000;0.7489;1.6531;
565.8000;0.7489;1.6531;
566.1000;0.7505;1.6484;
566.4000;0.7473;1.6484;
566.7000;0.7497;1.6531;
567.0000;0.7456;1.6508;
567.3000;0.7473;1.6531;
567.6000;0.7456;1.6649;
567.9000;0.7375;1.6367;
568.2000;0.7448;1.6578;
568.5000;0.7456;1.6555;
568.8000;0.7473;1.6508;
569.1000;0.7489;1.6508;
569.4000;0.7473;1.6461;
569.7000;0.7554;1.6696;
570.0000;0.7464;1.6414;
570.3000;0.7464;1.6390;
570.6000;0.7489;1.6461;
570.9000;0.7489;1.6555;
571.2000;0.7464;1.6390;
571.5000;0.7456;1.6367;
571.8000;0.7473;1.6484;
572.1000;0.7456;1.6437;
572.4000;0.7481;1.6484;
572.7000;0.7448;1.6437;
573.0000;0.7456;1.6461;
573.3000;0.7473;1.6602;
573.6000;0.7481;1.6602;
573.9000;0.7456;1.6508;
574.2000;0.7440;1.6414;
574.5000;0.7464;1.6484;
574.8000;0.7481;1.6555;
575.1000;0.7489;1.6508;
575.4000;0.7481;1.6508;
575.7000;0.7489;1.6484;
576.0000;0.7497;1.6390;
576.3000;0.7481;1.6437;
576.6000;0.7481;1.6390;
576.9000;0.7481;1.6320;
577.2000;0.7481;1.6320;
577.5000;0.7473;1.6343;
577.8000;0.7456;1.6390;
578.1000;0.7464;1.6437;
578.4000;0.7473;1.6484;
578.7000;0.7464;1.6461;
579.0000;0.7473;1.6508;
579.3000;0.7473;1.6437;
579.6000;0.7481;1.6484;
579.9000;0.7497;1.6484;
580.2000;0.7481;1.6461;
580.5000;0.7497;1.6531;
580.8000;0.7481;1.6437;
581.1000;0.7505;1.6508;
581.4000;0.7546;1.6555;
581.7000;0.7473;1.6296;
582.0000;0.7481;1.6296;
582.3000;0.7473;1.6179;
582.6000;0.7481;1.6226;
582.9000;0.7473;1.6132;
583.2000;0.7424;1.5897;
583.5000;0.7416;1.6038;
583.8000;0.7473;1.6202;
584.1000;0.7481;1.6226;
584.4000;0.7481;1.6226;
584.7000;0.7481;1.6273;
585.0000;0.7481;1.6273;
585.3000;0.7481;1.6273;
585.6000;0.7481;1.6320;
585.9000;0.7489;1.6273;
586.2000;0.7473;1.6226;
586.5000;0.7456;1.6061;
586.8000;0.7489;1.6179;
587.1000;0.7473;1.6132;
587.4000;0.7497;1.6155;
587.7000;0.7497;1.6202;
588.0000;0.7456;1.6085;
588.3000;0.7481;1.6179;
588.6000;0.7473;1.6320;
588.9000;0.7473;1.6437;
589.2000;0.7464;1.6414;
589.5000;0.7489;1.6461;
589.8000;0.7464;1.6390;
590.1000;0.7473;1.6296;
590.4000;0.7489;1.6273;
590.7000;0.7456;1.6320;
591.0000;0.7383;1.6108;
591.3000;0.7489;1.6343;
591.6000;0.7481;1.6437;
591.9000;0.7456;1.6390;
592.2000;0.7473;1.6414;
592.5000;0.7489;1.6320;
592.8000;0.7416;1.6038;
593.1000;0.7513;1.6437;
593.4000;0.7497;1.6343;
593.7000;0.7481;1.6390;
594.0000;0.7473;1.6343;
594.3000;0.7464;1.6390;
594.6000;0.7456;1.6390;
594.9000;0.7440;1.6320;
595.2000;0.7473;1.6320;
595.5000;0.7456;1.6202;
595.8000;0.7530;1.6343;
596.1000;0.7448;1.6179;
596.4000;0.7481;1.6367;
596.7000;0.7464;1.6343;
597.0000;0.7456;1.6343;
597.3000;0.7481;1.6343;
597.6000;0.7473;1.6343;
597.9000;0.7473;1.6343;
598.2000;0.7489;1.6320;
598.5000;0.7464;1.6273;
598.8000;0.7481;1.6320;
599.1000;0.7473;1.6273;
599.4000;0.7489;1.6202;
599.7000;0.7473;1.6343;
600.0000;0.7481;1.6343;
600.3000;0.7497;1.6249;
600.6000;0.7481;1.6132;
600.9000;0.7473;1.5968;
601.2000;0.7448;1.5780;
601.5000;0.7399;1.5427;
601.8000;0.7342;1.5146;
602.1000;0.7293;1.4934;
602.4000;0.7228;1.4700;
602.7000;0.7204;1.4606;
603.0000;0.7155;1.4394;
603.3000;0.7114;1.4183;
603.6000;0.7171;1.4300;
603.9000;0.7025;1.3878;
604.2000;0.7000;1.3760;
604.5000;0.6952;1.3619;
604.8000;0.6903;1.3408;
605.1000;0.6895;1.3314;
605.4000;0.6943;1.3479;
605.7000;0.6838;1.3056;
606.0000;0.6797;1.3009;
606.3000;0.6781;1.3009;
606.6000;0.6772;1.2962;
606.9000;0.6805;1.2985;
607.2000;0.6691;1.2704;
607.5000;0.6626;1.2516;
607.8000;0.6659;1.2469;
608.1000;0.6626;1.2304;
608.4000;0.6569;1.2140;
608.7000;0.6593;1.2234;
609.0000;0.6512;1.2046;
609.3000;0.6545;1.2093;
609.6000;0.6512;1.1999;
609.9000;0.6512;1.2093;
610.2000;0.6471;1.1976;
610.5000;0.6455;1.1952;
610.8000;0.6439;1.1882;
611.1000;0.6414;1.1858;
611.4000;0.6406;1.1811;
611.7000;0.6414;1.1882;
612.0000;0.6398;1.1905;
612.3000;0.6349;1.1811;
612.6000;0.6365;1.1882;
612.9000;0.6374;1.1882;
613.2000;0.6276;1.1694;
613.5000;0.6284;1.1717;
613.8000;0.6317;1.1741;
614.1000;0.6268;1.1694;
614.4000;0.6219;1.1717;
614.7000;0.6154;1.1576;
615.0000;0.6211;1.1694;
615.3000;0.6317;1.1999;
615.6000;0.6195;1.1788;
615.9000;0.6170;1.1764;
616.2000;0.6170;1.1717;
616.5000;0.6154;1.1741;
616.8000;0.6154;1.1600;
617.1000;0.6121;1.1483;
617.4000;0.6089;1.1389;
617.7000;0.6138;1.1530;
618.0000;0.6089;1.1506;
618.3000;0.6064;1.1459;
618.6000;0.6113;1.1483;
618.9000;0.6072;1.1436;
619.2000;0.6040;1.1365;
619.5000;0.6040;1.1271;
619.8000;0.6032;1.1271;
620.1000;0.6015;1.1201;
620.4000;0.5999;1.1201;
620.7000;0.6007;1.1130;
621.0000;0.5991;1.1083;
621.3000;0.5991;1.1083;
621.6000;0.5958;1.1130;
621.9000;0.5958;1.1154;
622.2000;0.5942;1.1130;
622.5000;0.5942;1.1107;
622.8000;0.5958;1.1224;
623.1000;0.5926;1.1271;
623.4000;0.5950;1.1295;
623.7000;0.5934;1.1248;
624.0000;0.5902;1.1154;
624.3000;0.5910;1.1154;
624.6000;0.5869;1.1036;
624.9000;0.5885;1.1107;
625.2000;0.5853;1.1036;
625.5000;0.5877;1.1130;
625.8000;0.5861;1.1154;
626.1000;0.5836;1.1107;
626.4000;0.5845;1.1177;
626.7000;0.5739;1.0942;
627.0000;0.5877;1.1295;
627.3000;0.5804;1.1130;
627.6000;0.5804;1.1154;
627.9000;0.5820;1.1224;
628.2000;0.5804;1.1154;
628.5000;0.5739;1.1083;
628.8000;0.5796;1.1224;
629.1000;0.5796;1.1224;
629.4000;0.5804;1.1130;
629.7000;0.5771;1.1083;
630.0000;0.5763;1.1083;
630.3000;0.5739;1.0989;
630.6000;0.5755;1.1060;
630.9000;0.5747;1.1036;
631.2000;0.5722;1.1083;
631.5000;0.5682;1.1036;
631.8000;0.5739;1.1201;
632.1000;0.5690;1.1201;
632.4000;0.5722;1.1177;
632.7000;0.5771;1.1295;
633.0000;0.5706;1.1130;
633.3000;0.5714;1.1201;
633.6000;0.5698;1.1271;
633.9000;0.5682;1.1224;
634.2000;0.5665;1.1201;
634.5000;0.5665;1.1177;
634.8000;0.5657;1.1060;
635.1000;0.5649;1.1107;
635.4000;0.5649;1.1107;
635.7000;0.5690;1.1201;
636.0000;0.5576;1.0942;
636.3000;0.5633;1.1154;
636.6000;0.5649;1.1177;
636.9000;0.5633;1.1154;
637.2000;0.5625;1.1130;
637.5000;0.5617;1.1201;
637.8000;0.5617;1.1177;
638.1000;0.5568;1.1130;
638.4000;0.5608;1.1177;
638.7000;0.5625;1.1201;
639.0000;0.5584;1.1107;
639.3000;0.5649;1.1177;
639.6000;0.5600;1.1107;
639.9000;0.5592;1.1130;
640.2000;0.5592;1.1177;
640.5000;0.5535;1.1013;
640.8000;0.5584;1.1107;
641.1000;0.5592;1.1107;
641.4000;0.5576;1.1083;
641.7000;0.5576;1.1130;
642.0000;0.5551;1.1107;
642.3000;0.5576;1.1130;
642.6000;0.5560;1.1107;
642.9000;0.5551;1.1154;
643.2000;0.5568;1.1154;
643.5000;0.5560;1.1201;
643.8000;0.5560;1.1224;
644.1000;0.5543;1.1154;
644.4000;0.5543;1.1060;
644.7000;0.5568;1.1060;
645.0000;0.5543;1.1013;
645.3000;0.5527;1.0989;
645.6000;0.5527;1.1060;
645.9000;0.5535;1.1107;
646.2000;0.5527;1.1083;
646.5000;0.5519;1.1060;
646.8000;0.5535;1.1060;
647.1000;0.5519;1.1013;
647.4000;0.5527;1.0966;
647.7000;0.5486;1.0942;
648.0000;0.5519;1.1060;
648.3000;0.5511;1.1013;
648.6000;0.5519;1.0942;
648.9000;0.5503;1.0966;
649.2000;0.5495;1.0966;
649.5000;0.5503;1.0942;
649.8000;0.5511;1.0966;
650.1000;0.5478;1.0919;
650.4000;0.5511;1.0966;
650.7000;0.5470;1.1013;
651.0000;0.5478;1.1060;
651.3000;0.5495;1.1036;
651.6000;0.5486;1.1036;
651.9000;0.5470;1.0966;
652.2000;0.5470;1.1013;
652.5000;0.5462;1.1036;
652.8000;0.5470;1.1083;
653.1000;0.5446;1.1013;
653.4000;0.5421;1.0966;
653.7000;0.5478;1.1060;
654.0000;0.5446;1.0919;
654.3000;0.5446;1.0872;
654.6000;0.5503;1.0989;
654.9000;0.5446;1.0942;
655.2000;0.5446;1.1036;
655.5000;0.5470;1.1177;
655.8000;0.5413;1.1036;
656.1000;0.5495;1.1201;
656.4000;0.5438;1.1130;
656.7000;0.5429;1.1107;
657.0000;0.5397;1.1107;
657.3000;0.5421;1.1177;
657.6000;0.5405;1.1083;
657.9000;0.5413;1.1013;
658.2000;0.5405;1.1036;
658.5000;0.5381;1.1036;
658.8000;0.5429;1.1083;
659.1000;0.5446;1.0989;
659.4000;0.5397;1.0825;
659.7000;0.5405;1.0802;
660.0000;0.5446;1.0942;
660.3000;0.5405;1.0942;
660.6000;0.5381;1.0942;
660.9000;0.5372;1.0942;
661.2000;0.5364;1.0896;
661.5000;0.5397;1.0989;
661.8000;0.5381;1.0896;
662.1000;0.5421;1.1036;
662.4000;0.5372;1.0966;
662.7000;0.5389;1.1013;
663.0000;0.5381;1.1013;
663.3000;0.5332;1.0919;
663.6000;0.5372;1.1036;
663.9000;0.5389;1.1060;
664.2000;0.5381;1.1060;
664.5000;0.5372;1.1036;
664.8000;0.5356;1.0989;
665.1000;0.5454;1.1201;
665.4000;0.5372;1.1060;
665.7000;0.5348;1.0989;
666.0000;0.5332;1.0942;
666.3000;0.5372;1.1060;
666.6000;0.5356;1.1083;
666.9000;0.5348;1.1013;
667.2000;0.5372;1.0872;
667.5000;0.5364;1.0872;
667.8000;0.5356;1.0872;
668.1000;0.5356;1.0849;
668.4000;0.5340;1.0825;
668.7000;0.5340;1.0872;
669.0000;0.5267;1.0684;
669.3000;0.5324;1.0849;
669.6000;0.5324;1.0919;
669.9000;0.5348;1.1036;
670.2000;0.5332;1.1013;
670.5000;0.5332;1.1013;
670.8000;0.5315;1.0989;
671.1000;0.5340;1.1013;
671.4000;0.5340;1.1013;
671.7000;0.5340;1.0966;
672.0000;0.5332;1.0872;
672.3000;0.5356;1.0989;
672.6000;0.5332;1.0966;
672.9000;0.5324;1.1036;
673.2000;0.5275;1.0942;
673.5000;0.5315;1.1060;
673.8000;0.5324;1.1060;
674.1000;0.5315;1.1013;
674.4000;0.5332;1.0942;
674.7000;0.5299;1.0966;
675.0000;0.5307;1.1060;
675.3000;0.5364;1.1201;
675.6000;0.5307;1.1013;
675.9000;0.5307;1.1083;
676.2000;0.5291;1.1013;
676.5000;0.5307;1.1130;
676.8000;0.5299;1.1201;
677.1000;0.5291;1.1201;
677.4000;0.5356;1.1342;
677.7000;0.5283;1.1154;
678.0000;0.5307;1.1224;
678.3000;0.5291;1.1201;
678.6000;0.5291;1.1224;
678.9000;0.5299;1.1248;
679.2000;0.5315;1.1154;
679.5000;0.5299;1.1107;
679.8000;0.5283;1.1083;
680.1000;0.5291;1.1013;
680.4000;0.5291;1.1083;
680.7000;0.5299;1.1154;
681.0000;0.5283;1.1083;
681.3000;0.5275;1.1013;
681.6000;0.5267;1.1060;
681.9000;0.5291;1.1036;
682.2000;0.5242;1.0919;
682.5000;0.5267;1.1013;
682.8000;0.5258;1.0989;
683.1000;0.5275;1.1036;
683.4000;0.5242;1.1060;
683.7000;0.5275;1.1130;
684.0000;0.5250;1.1060;
684.3000;0.5283;1.1107;
684.6000;0.5258;1.0989;
684.9000;0.5218;1.0896;
685.2000;0.5283;1.1036;
685.5000;0.5291;1.1083;
685.8000;0.5267;1.1013;
686.1000;0.5267;1.1013;
686.4000;0.5258;1.1036;
686.7000;0.5267;1.1060;
687.0000;0.5242;1.1036;
687.3000;0.5250;1.0966;
687.6000;0.5250;1.1060;
687.9000;0.5258;1.1060;
688.2000;0.5258;1.1130;
688.5000;0.5258;1.1130;
688.8000;0.5250;1.1154;
689.1000;0.5210;1.1130;
689.4000;0.5250;1.1060;
689.7000;0.5258;1.1036;
690.0000;0.5242;1.1013;
690.3000;0.5242;1.1013;
690.6000;0.5250;1.1036;
690.9000;0.5242;1.1036;
691.2000;0.5275;1.1060;
691.5000;0.5242;1.1036;
691.8000;0.5242;1.1013;
692.1000;0.5250;1.1060;
692.4000;0.5250;1.0942;
692.7000;0.5250;1.0966;
693.0000;0.5242;1.0989;
693.3000;0.5250;1.1060;
693.6000;0.5258;1.1060;
693.9000;0.5242;1.1083;
694.2000;0.5250;1.1201;
694.5000;0.5267;1.1389;
694.8000;0.5242;1.1389;
695.1000;0.5218;1.1389;
695.4000;0.5226;1.1412;
695.7000;0.5242;1.1365;
696.0000;0.5226;1.1389;
696.3000;0.5242;1.1436;
696.6000;0.5226;1.1436;
696.9000;0.5234;1.1436;
697.2000;0.5234;1.1412;
697.5000;0.5185;1.1295;
697.8000;0.5234;1.1436;
698.1000;0.5226;1.1483;
698.4000;0.5226;1.1412;
698.7000;0.5218;1.1342;
699.0000;0.5169;1.1201;
699.3000;0.5218;1.1248;
699.6000;0.5169;1.1130;
699.9000;0.5275;1.1389;
700.2000;0.5201;1.1130;
700.5000;0.5201;1.1154;
700.8000;0.5218;1.1201;
701.1000;0.5210;1.1177;
701.4000;0.5185;1.1201;
701.7000;0.5226;1.1224;
702.0000;0.5210;1.1224;
702.3000;0.5267;1.1389;
702.6000;0.5201;1.1342;
702.9000;0.5185;1.1248;
703.2000;0.5185;1.1295;
703.5000;0.5283;1.1459;
703.8000;0.5210;1.1342;
704.1000;0.5210;1.1342;
704.4000;0.5218;1.1342;
704.7000;0.5234;1.1365;
705.0000;0.5226;1.1412;
705.3000;0.5193;1.1271;
705.6000;0.5226;1.1342;
705.9000;0.5218;1.1318;
706.2000;0.5218;1.1365;
706.5000;0.5250;1.1436;
706.8000;0.5153;1.1177;
707.1000;0.5193;1.1295;
707.4000;0.5193;1.1248;
707.7000;0.5185;1.1342;
708.0000;0.5161;1.1271;
708.3000;0.5193;1.1318;
708.6000;0.5210;1.1459;
708.9000;0.5128;1.1224;
709.2000;0.5120;1.1271;
709.5000;0.5193;1.1530;
709.8000;0.5185;1.1483;
710.1000;0.5193;1.1483;
710.4000;0.5193;1.1436;
710.7000;0.5185;1.1342;
711.0000;0.5177;1.1342;
711.3000;0.5177;1.1342;
711.6000;0.5161;1.1342;
711.9000;0.5153;1.1412;
712.2000;0.5177;1.1248;
712.5000;0.5169;1.1201;
712.8000;0.5169;1.1248;
713.1000;0.5210;1.1365;
713.4000;0.5201;1.1342;
713.7000;0.5185;1.1342;
714.0000;0.5201;1.1342;
714.3000;0.5169;1.1295;
714.6000;0.5169;1.1412;
714.9000;0.5185;1.1459;
715.2000;0.5185;1.1459;
715.5000;0.5201;1.1459;
715.8000;0.5177;1.1412;
716.1000;0.5185;1.1342;
716.4000;0.5201;1.1436;
716.7000;0.5161;1.1436;
717.0000;0.5161;1.1365;
717.3000;0.5161;1.1365;
717.6000;0.5169;1.1248;
717.9000;0.5169;1.1271;
718.2000;0.5169;1.1248;
718.5000;0.5169;1.1201;
718.8000;0.5185;1.1295;
719.1000;0.5177;1.1342;
719.4000;0.5161;1.1318;
719.7000;0.5185;1.1342;
720.0000;0.5169;1.1389;
720.3000;0.5169;1.1342;
720.6000;0.5104;1.1201;
720.9000;0.5161;1.1342;
721.2000;0.5153;1.1365;
721.5000;0.5161;1.1365;
721.8000;0.5193;1.1483;
722.1000;0.5144;1.1412;
722.4000;0.5136;1.1436;
722.7000;0.5128;1.1436;
723.0000;0.5088;1.1295;
723.3000;0.5153;1.1483;
723.6000;0.5185;1.1600;
723.9000;0.5177;1.1623;
724.2000;0.5177;1.1576;
724.5000;0.5112;1.1342;
724.8000;0.5161;1.1436;
725.1000;0.5153;1.1365;
725.4000;0.5153;1.1342;
725.7000;0.5169;1.1483;
726.0000;0.5161;1.1436;
726.3000;0.5153;1.1436;
726.6000;0.5161;1.1436;
726.9000;0.5128;1.1365;
727.2000;0.5144;1.1365;
727.5000;0.5161;1.1342;
727.8000;0.5144;1.1271;
728.1000;0.5128;1.1224;
728.4000;0.5144;1.1318;
728.7000;0.5136;1.1342;
729.0000;0.5169;1.1342;
729.3000;0.5153;1.1271;
729.6000;0.5153;1.1224;
729.9000;0.5161;1.1318;
730.2000;0.5144;1.1389;
730.5000;0.5144;1.1365;
730.8000;0.5144;1.1342;
731.1000;0.5128;1.1365;
731.4000;0.5144;1.1436;
731.7000;0.5169;1.1483;
732.0000;0.5153;1.1436;
732.3000;0.5144;1.1459;
732.6000;0.5136;1.1436;
732.9000;0.5144;1.1576;
733.2000;0.5128;1.1576;
733.5000;0.5128;1.1553;
733.8000;0.5120;1.1576;
734.1000;0.5218;1.1788;
734.4000;0.5136;1.1506;
734.7000;0.5120;1.1530;
735.0000;0.5128;1.1553;
735.3000;0.5201;1.1741;
735.6000;0.5144;1.1670;
735.9000;0.5128;1.1647;
736.2000;0.5128;1.1764;
736.5000;0.5120;1.1788;
736.8000;0.5210;1.2093;
737.1000;0.5185;1.1929;
737.4000;0.5144;1.1835;
737.7000;0.5128;1.1858;
738.0000;0.5136;1.1811;
738.3000;0.5136;1.1741;
738.6000;0.5104;1.1623;
738.9000;0.5096;1.1600;
739.2000;0.5136;1.1717;
739.5000;0.5161;1.1788;
739.8000;0.5136;1.1694;
740.1000;0.5120;1.1670;
740.4000;0.5136;1.1717;
740.7000;0.5120;1.1647;
741.0000;0.5112;1.1670;
741.3000;0.5120;1.1670;
741.6000;0.5169;1.1741;
741.9000;0.5169;1.1600;
742.2000;0.5144;1.1576;
742.5000;0.5161;1.1576;
742.8000;0.5128;1.1506;
743.1000;0.5120;1.1530;
743.4000;0.5120;1.1483;
743.7000;0.5120;1.1506;
744.0000;0.5128;1.1530;
744.3000;0.5104;1.1530;
744.6000;0.5136;1.1553;
744.9000;0.5120;1.1623;
745.2000;0.5120;1.1647;
745.5000;0.5120;1.1717;
745.8000;0.5144;1.1717;
746.1000;0.5144;1.1670;
746.4000;0.5096;1.1600;
746.7000;0.5120;1.1600;
747.0000;0.5120;1.1600;
747.3000;0.5128;1.1576;
747.6000;0.5096;1.1530;
747.9000;0.5177;1.1694;
748.2000;0.5112;1.1530;
748.5000;0.5104;1.1506;
748.8000;0.5047;1.1295;
749.1000;0.5104;1.1530;
749.4000;0.5112;1.1647;
749.7000;0.5112;1.1647;
750.0000;0.5112;1.1623;
750.3000;0.5112;1.1600;
750.6000;0.5104;1.1576;
750.9000;0.5136;1.1600;
751.2000;0.5112;1.1553;
751.5000;0.5120;1.1576;
751.8000;0.5112;1.1576;
752.1000;0.5104;1.1576;
752.4000;0.5063;1.1506;
752.7000;0.5104;1.1670;
753.0000;0.5104;1.1694;
753.3000;0.5104;1.1741;
753.6000;0.5096;1.1694;
753.9000;0.5055;1.1623;
754.2000;0.5047;1.1600;
754.5000;0.5104;1.1717;
754.8000;0.5128;1.1764;
755.1000;0.5144;1.1811;
755.4000;0.5104;1.1717;
755.7000;0.5112;1.1764;
756.0000;0.5120;1.1764;
756.3000;0.5112;1.1717;
756.6000;0.5128;1.1694;
756.9000;0.5112;1.1670;
757.2000;0.5112;1.1670;
757.5000;0.5112;1.1647;
757.8000;0.5096;1.1623;
758.1000;0.5153;1.1741;
758.4000;0.5112;1.1670;
758.7000;0.5031;1.1553;
759.0000;0.5096;1.1741;
759.3000;0.5088;1.1694;
759.6000;0.5079;1.1623;
759.9000;0.5177;1.1882;
760.2000;0.5185;1.1929;
760.5000;0.5088;1.1741;
760.8000;0.5128;1.1835;
761.1000;0.5136;1.1858;
761.4000;0.5096;1.1788;
761.7000;0.5120;1.1882;
762.0000;0.5079;1.1835;
762.3000;0.5104;1.1811;
762.6000;0.5088;1.1764;
762.9000;0.5169;1.1929;
763.2000;0.5096;1.1717;
763.5000;0.5088;1.1788;
763.8000;0.5096;1.1811;
764.1000;0.5144;1.1882;
764.4000;0.5096;1.1764;
764.7000;0.5185;1.1976;
765.0000;0.5136;1.1811;
765.3000;0.5104;1.1835;
765.6000;0.5088;1.1811;
765.9000;0.5079;1.1811;
766.2000;0.5079;1.1788;
766.5000;0.5088;1.1764;
766.8000;0.5096;1.1858;
767.1000;0.5096;1.1882;
767.4000;0.5096;1.1882;
767.7000;0.5039;1.1670;
768.0000;0.5079;1.1764;
768.3000;0.5079;1.1647;
768.6000;0.5112;1.1717;
768.9000;0.5104;1.1788;
769.2000;0.5088;1.1811;
769.5000;0.5079;1.1835;
769.8000;0.5022;1.1694;
770.1000;0.5088;1.1741;
770.4000;0.5079;1.1717;
770.7000;0.5096;1.1741;
771.0000;0.5079;1.1717;
771.3000;0.5079;1.1670;
771.6000;0.5079;1.1553;
771.9000;0.5104;1.1600;
772.2000;0.5104;1.1623;
772.5000;0.5088;1.1623;
772.8000;0.4974;1.1389;
773.1000;0.5055;1.1670;
773.4000;0.5071;1.1764;
773.7000;0.5079;1.1788;
774.0000;0.5071;1.1741;
774.3000;0.5088;1.1764;
774.6000;0.5088;1.1788;
774.9000;0.5096;1.1788;
775.2000;0.5104;1.1717;
775.5000;0.5088;1.1694;
775.8000;0.5096;1.1670;
776.1000;0.5104;1.1670;
776.4000;0.5088;1.1553;
776.7000;0.5088;1.1553;
777.0000;0.5079;1.1553;
777.3000;0.5096;1.1623;
777.6000;0.5096;1.1764;
777.9000;0.5088;1.1858;
778.2000;0.5079;1.1835;
778.5000;0.5022;1.1694;
778.8000;0.5096;1.1811;
779.1000;0.5088;1.1905;
779.4000;0.5079;1.1882;
779.7000;0.5071;1.1811;
780.0000;0.5079;1.1788;
780.3000;0.5071;1.1717;
780.6000;0.5104;1.1764;
780.9000;0.5071;1.1670;
781.2000;0.5088;1.1764;
781.5000;0.5088;1.1717;
781.8000;0.5079;1.1670;
782.1000;0.5063;1.1647;
782.4000;0.5079;1.1647;
782.7000;0.5055;1.1600;
783.0000;0.5079;1.1694;
783.3000;0.5063;1.1670;
783.6000;0.5088;1.1647;
783.9000;0.5088;1.1576;
784.2000;0.5104;1.1647;
784.5000;0.5063;1.1530;
784.8000;0.5071;1.1623;
785.1000;0.5063;1.1600;
785.4000;0.5055;1.1741;
785.7000;0.5096;1.1882;
786.0000;0.5071;1.1764;
786.3000;0.5063;1.1717;
786.6000;0.5088;1.1717;
786.9000;0.5079;1.1694;
787.2000;0.5071;1.1717;
787.5000;0.5079;1.1835;
787.8000;0.5088;1.1788;
788.1000;0.5071;1.1858;
788.4000;0.5063;1.1905;
788.7000;0.5031;1.1741;
789.0000;0.5096;1.1835;
789.3000;0.5071;1.1788;
789.6000;0.5063;1.1788;
789.9000;0.5088;1.1764;
790.2000;0.5079;1.1764;
790.5000;0.5096;1.1741;
790.8000;0.5128;1.1741;
791.1000;0.5071;1.1623;
791.4000;0.5055;1.1623;
791.7000;0.5088;1.1670;
792.0000;0.5031;1.1670;
792.3000;0.5047;1.1811;
792.6000;0.5063;1.1882;
792.9000;0.5063;1.1811;
793.2000;0.5063;1.1764;
793.5000;0.5055;1.1623;
793.8000;0.5055;1.1623;
794.1000;0.5055;1.1670;
794.4000;0.5055;1.1764;
794.7000;0.5014;1.1811;
795.0000;0.5055;1.1905;
795.3000;0.5047;1.1929;
795.6000;0.5047;1.1929;
795.9000;0.5055;1.1976;
796.2000;0.5063;1.1999;
796.5000;0.5088;1.1976;
796.8000;0.5088;1.1905;
797.1000;0.5063;1.1835;
797.4000;0.5047;1.1835;
797.7000;0.5047;1.1788;
798.0000;0.5063;1.1764;
798.3000;0.5055;1.1741;
798.6000;0.5055;1.1717;
798.9000;0.5088;1.1717;
799.2000;0.5096;1.1764;
799.5000;0.5063;1.1647;
799.8000;0.5039;1.1530;
800.1000;0.5096;1.1788;
800.4000;0.5071;1.1741;
800.7000;0.5063;1.1788;
801.0000;0.5079;1.1764;
801.3000;0.5063;1.1741;
801.6000;0.5079;1.1788;
801.9000;0.5079;1.1811;
802.2000;0.5047;1.1764;
802.5000;0.5071;1.1764;
802.8000;0.5055;1.1811;
803.1000;0.5071;1.1811;
803.4000;0.5047;1.1858;
803.7000;0.5063;1.1905;
804.0000;0.5096;1.1905;
804.3000;0.5063;1.1764;
804.6000;0.5039;1.1694;
804.9000;0.5055;1.1694;
805.2000;0.5047;1.1647;
805.5000;0.5047;1.1600;
805.8000;0.5039;1.1576;
806.1000;0.5014;1.1530;
806.4000;0.5071;1.1694;
806.7000;0.5071;1.1741;
807.0000;0.5063;1.1835;
807.3000;0.5055;1.1905;
807.6000;0.5055;1.1976;
807.9000;0.5055;1.1999;
808.2000;0.5022;1.1905;
808.5000;0.5055;1.1952;
808.8000;0.5055;1.1905;
809.1000;0.5039;1.1882;
809.4000;0.5047;1.1929;
809.7000;0.5047;1.1905;
810.0000;0.5022;1.1811;
810.3000;0.5063;1.1882;
810.6000;0.5063;1.1882;
810.9000;0.5047;1.1858;
811.2000;0.5071;1.1905;
811.5000;0.5096;1.1999;
811.8000;0.5055;1.1835;
812.1000;0.5079;1.1858;
812.4000;0.5063;1.1858;
812.7000;0.5071;1.1929;
813.0000;0.5039;1.1882;
813.3000;0.4982;1.1694;
813.6000;0.5047;1.1929;
813.9000;0.5071;1.2023;
814.2000;0.5055;1.1882;
814.5000;0.5079;1.1882;
814.8000;0.5047;1.1811;
815.1000;0.5047;1.1764;
815.4000;0.5014;1.1741;
815.7000;0.5039;1.1811;
816.0000;0.5039;1.1882;
816.3000;0.5039;1.1858;
816.6000;0.5031;1.1835;
816.9000;0.5039;1.1905;
817.2000;0.5047;1.1929;
817.5000;0.5039;1.1905;
817.8000;0.5047;1.1882;
818.1000;0.5031;1.1811;
818.4000;0.4982;1.1741;
818.7000;0.5039;1.1858;
819.0000;0.5055;1.1858;
819.3000;0.5047;1.1835;
819.6000;0.5063;1.1835;
819.9000;0.5039;1.1764;
820.2000;0.5022;1.1741;
820.5000;0.5055;1.1835;
820.8000;0.5063;1.1858;
821.1000;0.5055;1.1835;
821.4000;0.5047;1.1835;
821.7000;0.5055;1.1905;
822.0000;0.5096;1.1952;
822.3000;0.5055;1.1858;
822.6000;0.5047;1.1835;
822.9000;0.5047;1.1788;
823.2000;0.5047;1.1788;
823.5000;0.5096;1.2023;
823.8000;0.5039;1.1905;
824.1000;0.5039;1.1905;
824.4000;0.5055;1.1905;
824.7000;0.5063;1.1858;
825.0000;0.5055;1.1858;
825.3000;0.5047;1.1835;
825.6000;0.5055;1.1764;
825.9000;0.5047;1.1811;
826.2000;0.5088;1.1835;
826.5000;0.5031;1.1694;
826.8000;0.5031;1.1717;
827.1000;0.5071;1.1976;
827.4000;0.5014;1.1882;
827.7000;0.5128;1.2117;
828.0000;0.4998;1.1811;
828.3000;0.5055;1.1858;
828.6000;0.5055;1.1858;
828.9000;0.5055;1.1882;
829.2000;0.5055;1.1905;
829.5000;0.5071;1.1929;
829.8000;0.5088;1.1952;
830.1000;0.5055;1.1952;
830.4000;0.5055;1.2023;
830.7000;0.5031;1.1999;
831.0000;0.5047;1.1976;
831.3000;0.5031;1.1835;
831.6000;0.5022;1.1811;
831.9000;0.5039;1.1811;
832.2000;0.5047;1.1811;
832.5000;0.5031;1.1764;
832.8000;0.5022;1.1764;
833.1000;0.5022;1.1741;
833.4000;0.5031;1.1811;
833.7000;0.5039;1.1858;
834.0000;0.5031;1.1835;
834.3000;0.5039;1.1929;
834.6000;0.5063;1.2023;
834.9000;0.5071;1.2046;
835.2000;0.5047;1.1952;
835.5000;0.5039;1.1929;
835.8000;0.5031;1.1976;
836.1000;0.5047;1.2046;
836.4000;0.5039;1.2023;
836.7000;0.5039;1.2023;
837.0000;0.5047;1.2070;
837.3000;0.5047;1.2070;
837.6000;0.5055;1.2023;
837.9000;0.5022;1.1882;
838.2000;0.5031;1.1952;
838.5000;0.5063;1.2023;
838.8000;0.5031;1.1976;
839.1000;0.5031;1.1952;
839.4000;0.5022;1.1882;
839.7000;0.5088;1.2117;
840.0000;0.5055;1.1999;
840.3000;0.5031;1.1976;
840.6000;0.5096;1.2093;
840.9000;0.4990;1.1929;
841.2000;0.5047;1.2046;
841.5000;0.5022;1.1952;
841.8000;0.5063;1.2023;
842.1000;0.5047;1.1999;
842.4000;0.5039;1.2046;
842.7000;0.5039;1.2023;
843.0000;0.5039;1.1929;
843.3000;0.5022;1.1905;
843.6000;0.5039;1.1929;
843.9000;0.5055;1.1929;
844.2000;0.5039;1.1929;
844.5000;0.5031;1.1929;
844.8000;0.5039;1.1858;
845.1000;0.5055;1.1905;
845.4000;0.5039;1.1835;
845.7000;0.5063;1.1882;
846.0000;0.5079;1.2070;
846.3000;0.5022;1.1999;
846.6000;0.5022;1.1929;
846.9000;0.5047;1.1929;
847.2000;0.4990;1.1811;
847.5000;0.5047;1.1858;
847.8000;0.5039;1.1788;
848.1000;0.5022;1.1741;
848.4000;0.5031;1.1788;
848.7000;0.5031;1.1788;
849.0000;0.5047;1.1764;
849.3000;0.5079;1.1788;
849.6000;0.5022;1.1694;
849.9000;0.5039;1.1764;
850.2000;0.4949;1.1576;
850.5000;0.5031;1.1764;
850.8000;0.5022;1.1788;
851.1000;0.5079;1.1882;
851.4000;0.5022;1.1694;
851.7000;0.5022;1.1647;
852.0000;0.5031;1.1764;
852.3000;0.5022;1.1835;
852.6000;0.4982;1.1764;
852.9000;0.5014;1.1929;
853.2000;0.5039;1.1952;
853.5000;0.5031;1.1929;
853.8000;0.5031;1.1929;
854.1000;0.5022;1.1976;
854.4000;0.5039;1.1882;
854.7000;0.4990;1.1764;
855.0000;0.5031;1.1882;
855.3000;0.5031;1.1882;
855.6000;0.5071;1.2023;
855.9000;0.5031;1.1905;
856.2000;0.5006;1.1835;
856.5000;0.5006;1.1905;
856.8000;0.4974;1.1882;
857.1000;0.5006;1.1905;
857.4000;0.4998;1.1811;
857.7000;0.5047;1.1952;
858.0000;0.5031;1.1858;
858.3000;0.5014;1.1835;
858.6000;0.5031;1.1835;
858.9000;0.5031;1.1905;
859.2000;0.5047;1.2023;
859.5000;0.5014;1.1976;
859.8000;0.5014;1.1929;
860.1000;0.5014;1.1882;
860.4000;0.5071;1.2117;
860.7000;0.5047;1.2046;
861.0000;0.5014;1.1952;
861.3000;0.5014;1.1929;
861.6000;0.4990;1.1835;
861.9000;0.4949;1.1670;
862.2000;0.5014;1.1811;
862.5000;0.4998;1.1835;
862.8000;0.4957;1.1741;
863.1000;0.5039;1.1882;
863.4000;0.4982;1.1741;
863.7000;0.4974;1.1694;
864.0000;0.5031;1.1788;
864.3000;0.5022;1.1835;
864.6000;0.5022;1.1858;
864.9000;0.4965;1.1741;
865.2000;0.5022;1.1882;
865.5000;0.5022;1.1952;
865.8000;0.5039;1.1976;
866.1000;0.5014;1.1858;
866.4000;0.5014;1.1835;
866.7000;0.5031;1.1835;
867.0000;0.5022;1.1835;
867.3000;0.5006;1.1694;
867.6000;0.5022;1.1717;
867.9000;0.5031;1.1764;
868.2000;0.5039;1.1788;
868.5000;0.5063;1.1999;
868.8000;0.5022;1.1905;
869.1000;0.5031;1.1882;
869.4000;0.5014;1.1882;
869.7000;0.5022;1.1952;
870.0000;0.5039;1.1976;
870.3000;0.4998;1.1858;
870.6000;0.5022;1.1882;
870.9000;0.5039;1.1882;
871.2000;0.5055;1.1952;
871.5000;0.5014;1.1929;
871.8000;0.5022;1.1952;
872.1000;0.5071;1.2046;
872.4000;0.5014;1.1929;
872.7000;0.5022;1.1929;
873.0000;0.5014;1.1905;
873.3000;0.5047;1.1905;
873.6000;0.5014;1.1835;
873.9000;0.5014;1.1764;
874.2000;0.5014;1.1811;
874.5000;0.5022;1.1835;
874.8000;0.5022;1.1835;
875.1000;0.5031;1.1811;
875.4000;0.4990;1.1764;
875.7000;0.5006;1.1858;
876.0000;0.5014;1.1905;
876.3000;0.5014;1.1882;
876.6000;0.5014;1.1811;
876.9000;0.5006;1.1811;
877.2000;0.5031;1.1788;
877.5000;0.5039;1.1835;
877.8000;0.5006;1.1741;
878.1000;0.4933;1.1647;
878.4000;0.5031;1.1929;
878.7000;0.5006;1.1952;
879.0000;0.5104;1.2117;
879.3000;0.5047;1.1929;
879.6000;0.5031;1.1858;
879.9000;0.4990;1.1811;
880.2000;0.5031;1.1952;
880.5000;0.5014;1.1976;
880.8000;0.5022;1.1976;
881.1000;0.5031;1.2023;
881.4000;0.5014;1.1999;
881.7000;0.4998;1.1905;
882.0000;0.5022;1.1976;
882.3000;0.5031;1.1999;
882.6000;0.4998;1.1929;
882.9000;0.5006;1.1929;
883.2000;0.5014;1.1952;
883.5000;0.5031;1.1929;
883.8000;0.5031;1.1952;
884.1000;0.5022;1.1929;
884.4000;0.4982;1.1905;
884.7000;0.5014;1.1976;
885.0000;0.5031;1.1929;
885.3000;0.5014;1.1929;
885.6000;0.4990;1.1835;
885.9000;0.4982;1.1835;
886.2000;0.4982;1.1952;
886.5000;0.4998;1.1999;
886.8000;0.5006;1.2023;
887.1000;0.5022;1.2140;
887.4000;0.5006;1.2117;
887.7000;0.5006;1.2046;
888.0000;0.4998;1.2023;
888.3000;0.5014;1.2023;
888.6000;0.5022;1.1999;
888.9000;0.4998;1.1952;
889.2000;0.4998;1.2023;
889.5000;0.5006;1.2046;
889.8000;0.5031;1.2070;
890.1000;0.4982;1.1976;
890.4000;0.5006;1.1976;
890.7000;0.5022;1.2023;
891.0000;0.5039;1.1976;
891.3000;0.5006;1.1905;
891.6000;0.4998;1.1835;
891.9000;0.5006;1.1905;
892.2000;0.5031;1.2023;
892.5000;0.5031;1.1952;
892.8000;0.5006;1.1858;
893.1000;0.5006;1.1835;
893.4000;0.5022;1.1788;
893.7000;0.5014;1.1858;
894.0000;0.5022;1.1811;
894.3000;0.5022;1.1741;
894.6000;0.5031;1.1694;
894.9000;0.5014;1.1717;
895.2000;0.5022;1.1764;
895.5000;0.5022;1.1811;
895.8000;0.5006;1.1905;
896.1000;0.5022;1.1999;
896.4000;0.5014;1.2023;
896.7000;0.5022;1.2070;
897.0000;0.5022;1.2140;
897.3000;0.5006;1.2093;
897.6000;0.5022;1.2093;
897.9000;0.5006;1.2023;
898.2000;0.4998;1.1999;
898.5000;0.5014;1.1952;
898.8000;0.5006;1.1952;
899.1000;0.5063;1.2117;
899.4000;0.4974;1.1882;
899.7000;0.4998;1.1858;
900.0000;0.5063;1.1999;
900.3000;0.5006;1.1882;
900.6000;0.5031;1.1976;
900.9000;0.5006;1.1929;
901.2000;0.4949;1.1764;
901.5000;0.5104;1.2164;
901.8000;0.5006;1.1811;
902.1000;0.5088;1.2117;
902.4000;0.5014;1.1952;
902.7000;0.5014;1.1905;
903.0000;0.5014;1.1835;
903.3000;0.5022;1.1835;
903.6000;0.5022;1.1882;
903.9000;0.5039;1.1952;
904.2000;0.5022;1.1905;
904.5000;0.5006;1.1858;
904.8000;0.5014;1.1858;
905.1000;0.5031;1.1858;
905.4000;0.5014;1.1905;
905.7000;0.5014;1.1929;
906.0000;0.5022;1.1999;
906.3000;0.5014;1.2046;
906.6000;0.5022;1.2046;
906.9000;0.5022;1.2070;
907.2000;0.4998;1.1952;
907.5000;0.4998;1.2046;
907.8000;0.5006;1.2093;
908.1000;0.5006;1.2117;
908.4000;0.4998;1.2117;
908.7000;0.4998;1.2117;
909.0000;0.5031;1.2187;
909.3000;0.5006;1.2046;
909.6000;0.5006;1.1999;
909.9000;0.5014;1.2023;
910.2000;0.5022;1.2070;
910.5000;0.5006;1.2023;
910.8000;0.5014;1.1999;
911.1000;0.5022;1.1999;
911.4000;0.5022;1.1976;
911.7000;0.5022;1.1952;
912.0000;0.5006;1.1905;
912.3000;0.5039;1.1929;
912.6000;0.5022;1.1905;
912.9000;0.4982;1.1835;
913.2000;0.4998;1.1929;
913.5000;0.5006;1.1952;
913.8000;0.5006;1.1999;
914.1000;0.5014;1.2023;
914.4000;0.5014;1.2023;
914.7000;0.4998;1.1976;
915.0000;0.5079;1.2140;
915.3000;0.5014;1.1976;
915.6000;0.5006;1.1999;
915.9000;0.5014;1.1976;
916.2000;0.5014;1.1976;
916.5000;0.5014;1.2023;
916.8000;0.5006;1.2023;
917.1000;0.4998;1.1905;
917.4000;0.5006;1.1905;
917.7000;0.5014;1.1882;
918.0000;0.4957;1.1811;
918.3000;0.5039;1.2023;
918.6000;0.4990;1.1976;
918.9000;0.5055;1.2164;
919.2000;0.5006;1.2070;
919.5000;0.5014;1.2187;
919.8000;0.5014;1.2140;
920.1000;0.4998;1.2117;
920.4000;0.5006;1.2187;
920.7000;0.4982;1.2164;
921.0000;0.4965;1.2117;
921.3000;0.4998;1.2117;
921.6000;0.5022;1.2070;
921.9000;0.4974;1.1929;
922.2000;0.4990;1.2023;
922.5000;0.4998;1.2070;
922.8000;0.5031;1.2046;
923.1000;0.5047;1.2023;
923.4000;0.5022;1.1905;
923.7000;0.5088;1.2070;
924.0000;0.5014;1.1905;
924.3000;0.5022;1.1952;
924.6000;0.5014;1.1929;
924.9000;0.5014;1.1929;
925.2000;0.5014;1.1952;
925.5000;0.5006;1.1999;
925.8000;0.4990;1.2023;
926.1000;0.5055;1.2164;
926.4000;0.4998;1.2093;
926.7000;0.5006;1.2046;
927.0000;0.4998;1.2023;
927.3000;0.5006;1.1976;
927.6000;0.4998;1.1952;
927.9000;0.5006;1.1929;
928.2000;0.5006;1.1882;
928.5000;0.4998;1.1858;
928.8000;0.5014;1.2046;
929.1000;0.5022;1.2070;
929.4000;0.5031;1.2093;
929.7000;0.5022;1.2023;
930.0000;0.5006;1.1976;
930.3000;0.5006;1.2023;
930.6000;0.4998;1.1976;
930.9000;0.5022;1.1976;
931.2000;0.5006;1.2046;
931.5000;0.4998;1.2070;
931.8000;0.4998;1.2070;
932.1000;0.5006;1.1999;
932.4000;0.4990;1.1952;
932.7000;0.5006;1.1976;
933.0000;0.4965;1.1788;
933.3000;0.4949;1.1647;
933.6000;0.4982;1.1788;
933.9000;0.4982;1.1764;
934.2000;0.4998;1.1835;
934.5000;0.5039;1.1952;
934.8000;0.5006;1.1788;
935.1000;0.4990;1.1835;
935.4000;0.4998;1.1858;
935.7000;0.4982;1.1811;
936.0000;0.4998;1.1858;
936.3000;0.5006;1.1811;
936.6000;0.5006;1.1882;
936.9000;0.4998;1.1882;
937.2000;0.5014;1.1905;
937.5000;0.4998;1.1905;
937.8000;0.4990;1.1929;
938.1000;0.5006;1.2070;
938.4000;0.5006;1.2117;
938.7000;0.4990;1.2046;
939.0000;0.4990;1.2046;
939.3000;0.4998;1.1976;
939.6000;0.5014;1.2070;
939.9000;0.5006;1.2070;
940.2000;0.4998;1.2046;
940.5000;0.5022;1.2140;
940.8000;0.4998;1.2046;
941.1000;0.4949;1.1835;
941.4000;0.5079;1.2070;
941.7000;0.4982;1.1788;
942.0000;0.4998;1.1835;
942.3000;0.4990;1.1835;
942.6000;0.5079;1.2046;
942.9000;0.4998;1.1835;
943.2000;0.4982;1.1858;
943.5000;0.4998;1.1882;
943.8000;0.5006;1.1999;
944.1000;0.4990;1.1976;
944.4000;0.4998;1.1999;
944.7000;0.4982;1.1929;
945.0000;0.4957;1.1741;
945.3000;0.4990;1.1905;
945.6000;0.4982;1.1905;
945.9000;0.5006;1.1905;
946.2000;0.4982;1.1929;
946.5000;0.4982;1.1976;
946.8000;0.4998;1.1976;
947.1000;0.4990;1.1952;
947.4000;0.4990;1.1952;
947.7000;0.4990;1.1929;
948.0000;0.4982;1.1882;
948.3000;0.5006;1.1882;
948.6000;0.4982;1.1858;
948.9000;0.4990;1.1905;
949.2000;0.4990;1.1811;
949.5000;0.5039;1.1835;
949.8000;0.5014;1.1858;
950.1000;0.5006;1.1905;
950.4000;0.4998;1.1882;
950.7000;0.4998;1.1905;
951.0000;0.5022;1.1905;
951.3000;0.4990;1.1858;
951.6000;0.4990;1.1882;
951.9000;0.4998;1.1905;
952.2000;0.4998;1.1905;
952.5000;0.4998;1.1929;
952.8000;0.4990;1.1929;
953.1000;0.4990;1.1952;
953.4000;0.4998;1.1952;
953.7000;0.4957;1.1882;
954.0000;0.4990;1.2093;
954.3000;0.4990;1.2164;
954.6000;0.4925;1.1976;
954.9000;0.4998;1.2117;
955.2000;0.5006;1.2140;
955.5000;0.4990;1.2093;
955.8000;0.5047;1.2093;
956.1000;0.4998;1.2046;
956.4000;0.4933;1.1858;
956.7000;0.5047;1.2093;
957.0000;0.5006;1.1929;
957.3000;0.5014;1.2023;
957.6000;0.4990;1.1835;
957.9000;0.4990;1.1647;
958.2000;0.4974;1.1623;
958.5000;0.4957;1.1623;
958.8000;0.4998;1.1717;
959.1000;0.5006;1.1788;
959.4000;0.5014;1.1835;
959.7000;0.5022;1.1929;
960.0000;0.5022;1.1976;
960.3000;0.5006;1.1905;
960.6000;0.5055;1.2023;
960.9000;0.4990;1.1788;
961.2000;0.4990;1.1811;
961.5000;0.4925;1.1717;
961.8000;0.5006;1.1976;
962.1000;0.4998;1.1882;
962.4000;0.4998;1.1858;
962.7000;0.4957;1.1858;
963.0000;0.4990;1.2046;
963.3000;0.4949;1.1952;
963.6000;0.4990;1.2046;
963.9000;0.4990;1.2070;
964.2000;0.4982;1.2023;
964.5000;0.4990;1.1976;
964.8000;0.4990;1.1976;
965.1000;0.4982;1.1976;
965.4000;0.4982;1.2023;
965.7000;0.4998;1.2164;
966.0000;0.4998;1.2140;
966.3000;0.4990;1.2070;
966.6000;0.4982;1.2070;
966.9000;0.5031;1.2140;
967.2000;0.4965;1.1905;
967.5000;0.4982;1.1976;
967.8000;0.4998;1.1976;
968.1000;0.4965;1.1764;
968.4000;0.4990;1.1764;
968.7000;0.4998;1.1764;
969.0000;0.4998;1.1764;
969.3000;0.4965;1.1741;
969.6000;0.4982;1.1858;
969.9000;0.4982;1.1882;
970.2000;0.4965;1.1811;
970.5000;0.5006;1.1952;
970.8000;0.4941;1.1835;
971.1000;0.4990;1.1952;
971.4000;0.5031;1.1952;
971.7000;0.4957;1.1764;
972.0000;0.4982;1.1811;
972.3000;0.4998;1.1882;
972.6000;0.5006;1.1905;
972.9000;0.4949;1.1741;
973.2000;0.5047;1.1976;
973.5000;0.4982;1.1835;
973.8000;0.4957;1.1811;
974.1000;0.4982;1.1835;
974.4000;0.4990;1.1882;
974.7000;0.4998;1.1882;
975.0000;0.5014;1.1952;
975.3000;0.4998;1.1929;
975.6000;0.4998;1.1976;
975.9000;0.4990;1.1905;
976.2000;0.4998;1.1976;
976.5000;0.5047;1.2070;
976.8000;0.5022;1.1999;
977.1000;0.5006;1.1929;
977.4000;0.5014;1.1976;
977.7000;0.5047;1.2070;
978.0000;0.5031;1.1952;
978.3000;0.4974;1.1811;
978.6000;0.5006;1.1835;
978.9000;0.4990;1.1811;
979.2000;0.4990;1.1882;
979.5000;0.5031;1.1999;
979.8000;0.4974;1.1858;
980.1000;0.4982;1.1858;
980.4000;0.4998;1.1905;
980.7000;0.4990;1.1905;
981.0000;0.4908;1.1741;
981.3000;0.4982;1.1952;
981.6000;0.4982;1.1999;
981.9000;0.4990;1.2023;
982.2000;0.4998;1.2046;
982.5000;0.4990;1.2023;
982.8000;0.5014;1.1976;
983.1000;0.4998;1.1952;
983.4000;0.4998;1.1976;
983.7000;0.4990;1.1905;
984.0000;0.5006;1.1905;
984.3000;0.4998;1.1929;
984.6000;0.5014;1.1929;
984.9000;0.4982;1.1811;
985.2000;0.4990;1.1882;
985.5000;0.4998;1.1952;
985.8000;0.4998;1.1952;
986.1000;0.4982;1.1835;
986.4000;0.4998;1.1764;
986.7000;0.4982;1.1623;
987.0000;0.4990;1.1600;
987.3000;0.4998;1.1623;
987.6000;0.4998;1.1623;
987.9000;0.5014;1.1670;
988.2000;0.4998;1.1717;
988.5000;0.4957;1.1647;
988.8000;0.4998;1.1717;
989.1000;0.5014;1.1741;
989.4000;0.4982;1.1717;
989.7000;0.4982;1.1764;
990.0000;0.4998;1.1905;
990.3000;0.4974;1.1929;
990.6000;0.4998;1.1999;
990.9000;0.4982;1.1952;
991.2000;0.4982;1.1929;
991.5000;0.4982;1.1929;
991.8000;0.4982;1.1905;
992.1000;0.4998;1.1929;
992.4000;0.4990;1.1741;
992.7000;0.4990;1.1788;
993.0000;0.4965;1.1764;
993.3000;0.4990;1.1835;
993.6000;0.4974;1.1788;
993.9000;0.4974;1.1811;
994.2000;0.5031;1.1976;
994.5000;0.4990;1.1929;
994.8000;0.4990;1.1976;
995.1000;0.4974;1.1976;
995.4000;0.4982;1.2093;
995.7000;0.4982;1.2093;
996.0000;0.4982;1.2070;
996.3000;0.4990;1.1905;
996.6000;0.4990;1.1976;
996.9000;0.4990;1.1976;
997.2000;0.4998;1.2046;
997.5000;0.4990;1.2046;
997.8000;0.4974;1.1952;
998.1000;0.4990;1.1999;
998.4000;0.4998;1.1952;
998.7000;0.4990;1.1882;
999.0000;0.4990;1.1999;
999.3000;0.5006;1.2140;
999.6000;0.5006;1.2093;
999.9000;0.4982;1.1999;
1000.2000;0.4974;1.2023;
1000.5000;0.4974;1.1952;
1000.8000;0.4982;1.1976;
1001.1000;0.4998;1.2023;
1001.4000;0.4974;1.1952;
1001.7000;0.4982;1.1976;
1002.0000;0.4974;1.2070;
1002.3000;0.4974;1.2070;
1002.6000;0.4974;1.1999;
1002.9000;0.4998;1.1999;
1003.2000;0.4974;1.1952;
1003.5000;0.4949;1.1952;
1003.8000;0.4982;1.2046;
1004.1000;0.4990;1.1999;
1004.4000;0.4974;1.1976;
1004.7000;0.4974;1.1999;
1005.0000;0.4965;1.1999;
1005.3000;0.4982;1.1976;
1005.6000;0.4990;1.2046;
1005.9000;0.4982;1.2046;
1006.2000;0.4990;1.1999;
1006.5000;0.5031;1.2070;
1006.8000;0.4998;1.1999;
1007.1000;0.4990;1.1952;
1007.4000;0.4982;1.1882;
1007.7000;0.4998;1.1835;
1008.0000;0.4990;1.1905;
1008.3000;0.4982;1.1952;
1008.6000;0.4998;1.2046;
1008.9000;0.4982;1.1976;
1009.2000;0.4982;1.1976;
1009.5000;0.4990;1.1952;
1009.8000;0.4990;1.1929;
1010.1000;0.4908;1.1741;
1010.4000;0.4949;1.1788;
1010.7000;0.4965;1.1952;
1011.0000;0.5039;1.2140;
1011.3000;0.4990;1.1929;
1011.6000;0.5014;1.1952;
1011.9000;0.5071;1.2117;
1012.2000;0.4965;1.1882;
1012.5000;0.4982;1.1858;
1012.8000;0.4965;1.1952;
1013.1000;0.5006;1.2023;
1013.4000;0.4998;1.2046;
1013.7000;0.4998;1.2093;
1014.0000;0.5006;1.2093;
1014.3000;0.4982;1.2070;
1014.6000;0.4974;1.2023;
1014.9000;0.4998;1.1999;
1015.2000;0.4982;1.1882;
1015.5000;0.4965;1.1764;
1015.8000;0.4990;1.1882;
1016.1000;0.4982;1.1905;
1016.4000;0.4982;1.1882;
1016.7000;0.5014;1.1905;
1017.0000;0.5006;1.1952;
1017.3000;0.4982;1.1905;
1017.6000;0.4941;1.1858;
1017.9000;0.4957;1.1882;
1018.2000;0.4974;1.1929;
1018.5000;0.4974;1.1905;
1018.8000;0.4933;1.1811;
1019.1000;0.4974;1.1882;
1019.4000;0.4965;1.1905;
1019.7000;0.5006;1.1976;
1020.0000;0.5006;1.1952;
1020.3000;0.4982;1.1929;
1020.6000;0.4974;1.1905;
1020.9000;0.4917;1.1835;
1021.2000;0.4982;1.1976;
1021.5000;0.4982;1.1999;
1021.8000;0.4965;1.2023;
1022.1000;0.4974;1.2070;
1022.4000;0.4974;1.2117;
1022.7000;0.4990;1.2210;
1023.0000;0.4998;1.2210;
1023.3000;0.4990;1.2117;
1023.6000;0.4982;1.2234;
1023.9000;0.4974;1.2257;
1024.2000;0.4974;1.2304;
1024.5000;0.4982;1.2281;
1024.8000;0.4982;1.2234;
1025.1000;0.4974;1.2046;
1025.4000;0.4998;1.2046;
1025.7000;0.4974;1.1976;
1026.0000;0.4974;1.1952;
1026.3000;0.4982;1.1976;
1026.6000;0.4982;1.1929;
1026.9000;0.4965;1.1929;
1027.2000;0.4998;1.1882;
1027.5000;0.4990;1.1929;
1027.8000;0.4982;1.1976;
1028.1000;0.4990;1.1976;
1028.4000;0.4974;1.1929;
1028.7000;0.4974;1.1929;
1029.0000;0.4982;1.1976;
1029.3000;0.4974;1.1882;
1029.6000;0.4974;1.1858;
1029.9000;0.4957;1.1811;
1030.2000;0.4974;1.1858;
1030.5000;0.4990;1.1882;
1030.8000;0.4982;1.1811;
1031.1000;0.4949;1.1694;
1031.4000;0.5006;1.1835;
1031.7000;0.5006;1.1858;
1032.0000;0.5006;1.1882;
1032.3000;0.4982;1.1952;
1032.6000;0.4982;1.1976;
1032.9000;0.4982;1.2023;
1033.2000;0.4982;1.1952;
1033.5000;0.4990;1.1976;
1033.8000;0.4990;1.1999;
1034.1000;0.5047;1.2164;
1034.4000;0.4974;1.1929;
1034.7000;0.4990;1.1976;
1035.0000;0.5063;1.2070;
1035.3000;0.4990;1.1882;
1035.6000;0.4982;1.1882;
1035.9000;0.4998;1.1976;
1036.2000;0.4982;1.1999;
1036.5000;0.4998;1.1952;
1036.8000;0.4974;1.1905;
1037.1000;0.4974;1.1952;
1037.4000;0.4982;1.1952;
1037.7000;0.4982;1.1976;
1038.0000;0.4957;1.1976;
1038.3000;0.4982;1.1952;
1038.6000;0.4965;1.1835;
1038.9000;0.4990;1.1905;
1039.2000;0.4982;1.1976;
1039.5000;0.5063;1.2164;
1039.8000;0.4982;1.1858;
1040.1000;0.4982;1.1835;
1040.4000;0.4990;1.1811;
1040.7000;0.4974;1.1788;
1041.0000;0.4990;1.1882;
1041.3000;0.4990;1.1882;
1041.6000;0.4974;1.1858;
1041.9000;0.4990;1.1952;
1042.2000;0.4990;1.1929;
1042.5000;0.4990;1.1952;
1042.8000;0.4990;1.1952;
1043.1000;0.4990;1.1999;
1043.4000;0.4965;1.1952;
1043.7000;0.4974;1.1929;
1044.0000;0.4998;1.1929;
1044.3000;0.4998;1.1882;
1044.6000;0.4965;1.1764;
1044.9000;0.4949;1.1670;
1045.2000;0.4974;1.1717;
1045.5000;0.4982;1.1811;
1045.8000;0.4982;1.1858;
1046.1000;0.4982;1.1835;
1046.4000;0.4933;1.1858;
1046.7000;0.4982;1.1929;
1047.0000;0.4990;1.1905;
1047.3000;0.4982;1.1882;
1047.6000;0.4974;1.1858;
1047.9000;0.5031;1.1999;
1048.2000;0.4990;1.1882;
1048.5000;0.4908;1.1647;
1048.8000;0.4982;1.1811;
1049.1000;0.4998;1.1858;
1049.4000;0.4982;1.1858;
1049.7000;0.4974;1.1952;
1050.0000;0.4876;1.1623;
1050.3000;0.4982;1.1858;
1050.6000;0.4982;1.1882;
1050.9000;0.4974;1.1905;
1051.2000;0.4974;1.1952;
1051.5000;0.4982;1.1929;
1051.8000;0.4998;1.2023;
1052.1000;0.4990;1.1999;
1052.4000;0.5006;1.1999;
1052.7000;0.4990;1.1952;
1053.0000;0.5014;1.2070;
1053.3000;0.4990;1.2093;
1053.6000;0.5006;1.2164;
1053.9000;0.4990;1.2234;
1054.2000;0.5022;1.2398;
1054.5000;0.4957;1.2187;
1054.8000;0.4974;1.2117;
1055.1000;0.4974;1.2070;
1055.4000;0.4917;1.1929;
1055.7000;0.4982;1.2117;
1056.0000;0.4982;1.2046;
1056.3000;0.4974;1.2046;
1056.6000;0.4974;1.2046;
1056.9000;0.4982;1.2046;
1057.2000;0.4982;1.1999;
1057.5000;0.5047;1.2187;
1057.8000;0.4990;1.2093;
1058.1000;0.4974;1.1976;
1058.4000;0.4965;1.1952;
1058.7000;0.4974;1.1999;
1059.0000;0.4982;1.2117;
1059.3000;0.4949;1.2046;
1059.6000;0.5006;1.2210;
1059.9000;0.4965;1.2257;
1060.2000;0.4974;1.2234;
1060.5000;0.4974;1.2304;
1060.8000;0.4998;1.2328;
1061.1000;0.4965;1.2281;
1061.4000;0.4933;1.2093;
1061.7000;0.4933;1.1976;
1062.0000;0.4990;1.2023;
1062.3000;0.4974;1.1976;
1062.6000;0.4974;1.1976;
1062.9000;0.4982;1.1929;
1063.2000;0.4990;1.1905;
1063.5000;0.4982;1.1905;
1063.8000;0.4974;1.1952;
1064.1000;0.4974;1.2023;
1064.4000;0.4982;1.2093;
1064.7000;0.4965;1.2046;
1065.0000;0.4957;1.1999;
1065.3000;0.4974;1.2070;
1065.6000;0.4974;1.2140;
1065.9000;0.4982;1.2117;
1066.2000;0.4982;1.2023;
1066.5000;0.4974;1.1999;
1066.8000;0.4965;1.2046;
1067.1000;0.4990;1.2046;
1067.4000;0.4949;1.1929;
1067.7000;0.4998;1.1999;
1068.0000;0.4982;1.1905;
1068.3000;0.4974;1.1835;
1068.6000;0.4998;1.1929;
1068.9000;0.5039;1.2023;
1069.2000;0.4974;1.1976;
1069.5000;0.4965;1.1929;
1069.8000;0.5039;1.2117;
1070.1000;0.4982;1.1929;
1070.4000;0.4949;1.1976;
1070.7000;0.4965;1.1999;
1071.0000;0.4974;1.1999;
1071.3000;0.4965;1.2093;
1071.6000;0.4990;1.2187;
1071.9000;0.4957;1.2234;
1072.2000;0.4965;1.2281;
1072.5000;0.4941;1.2140;
1072.8000;0.4982;1.2164;
1073.1000;0.4949;1.2093;
1073.4000;0.4965;1.2117;
1073.7000;0.5006;1.2140;
1074.0000;0.4990;1.2117;
1074.3000;0.4982;1.2070;
1074.6000;0.4974;1.2164;
1074.9000;0.4974;1.2117;
1075.2000;0.4982;1.2117;
1075.5000;0.4949;1.1999;
1075.8000;0.4982;1.2023;
1076.1000;0.4974;1.2023;
1076.4000;0.4974;1.2023;
1076.7000;0.4974;1.2046;
1077.0000;0.4998;1.2140;
1077.3000;0.4965;1.2070;
1077.6000;0.4949;1.1976;
1077.9000;0.4974;1.1976;
1078.2000;0.4974;1.1929;
1078.5000;0.4957;1.1882;
1078.8000;0.4982;1.1905;
1079.1000;0.4965;1.1882;
1079.4000;0.4949;1.1788;
1079.7000;0.4965;1.1929;
1080.0000;0.4982;1.1952;
1080.3000;0.4974;1.1952;
1080.6000;0.4974;1.1905;
1080.9000;0.4965;1.1811;
1081.2000;0.4982;1.1882;
1081.5000;0.5031;1.1999;
1081.8000;0.4957;1.1835;
1082.1000;0.4974;1.1905;
1082.4000;0.4982;1.1999;
1082.7000;0.4949;1.1929;
1083.0000;0.4990;1.1905;
1083.3000;0.4933;1.1858;
1083.6000;0.4917;1.1741;
1083.9000;0.4990;1.1999;
1084.2000;0.4990;1.1976;
1084.5000;0.4974;1.1882;
1084.8000;0.4957;1.1905;
1085.1000;0.4982;1.2046;
1085.4000;0.4974;1.2046;
1085.7000;0.4974;1.2023;
1086.0000;0.4965;1.2046;
1086.3000;0.4974;1.2046;
1086.6000;0.4965;1.2093;
1086.9000;0.4974;1.2164;
1087.2000;0.4974;1.2093;
1087.5000;0.4982;1.2070;
1087.8000;0.4917;1.1882;
1088.1000;0.4982;1.1999;
1088.4000;0.4974;1.1999;
1088.7000;0.4957;1.1952;
1089.0000;0.5006;1.2046;
1089.3000;0.4974;1.1999;
1089.6000;0.4965;1.2023;
1089.9000;0.4957;1.1976;
1090.2000;0.4965;1.2046;
1090.5000;0.4941;1.2117;
1090.8000;0.4941;1.2070;
1091.1000;0.4974;1.2070;
1091.4000;0.4957;1.1999;
1091.7000;0.4965;1.2046;
1092.0000;0.4965;1.2023;
1092.3000;0.4957;1.2046;
1092.6000;0.4998;1.2140;
1092.9000;0.4982;1.1999;
1093.2000;0.4974;1.1952;
1093.5000;0.5022;1.2164;
1093.8000;0.4925;1.1882;
1094.1000;0.4982;1.2023;
1094.4000;0.4965;1.1929;
1094.7000;0.4990;1.1929;
1095.0000;0.4965;1.1999;
1095.3000;0.4974;1.2093;
1095.6000;0.4974;1.2046;
1095.9000;0.4949;1.1976;
1096.2000;0.4965;1.1905;
1096.5000;0.4974;1.1929;
1096.8000;0.4933;1.1788;
1097.1000;0.4957;1.1858;
1097.4000;0.4965;1.1858;
1097.7000;0.4982;1.1952;
1098.0000;0.4974;1.1976;
1098.3000;0.4965;1.1976;
1098.6000;0.4949;1.1905;
1098.9000;0.4965;1.1929;
1099.2000;0.4990;1.1788;
1099.5000;0.4982;1.1811;
1099.8000;0.4974;1.1858;
1100.1000;0.4990;1.1858;
1100.4000;0.4949;1.1741;
1100.7000;0.4990;1.1788;
1101.0000;0.4957;1.1788;
1101.3000;0.4957;1.1858;
1101.6000;0.4990;1.1905;
1101.9000;0.4990;1.1929;
1102.2000;0.4982;1.1999;
1102.5000;0.4982;1.1976;
1102.8000;0.4957;1.1976;
1103.1000;0.4933;1.1952;
1103.4000;0.4957;1.2046;
1103.7000;0.4965;1.2070;
1104.0000;0.4974;1.2070;
1104.3000;0.5014;1.2187;
1104.6000;0.4965;1.2093;
1104.9000;0.4965;1.2093;
1105.2000;0.4957;1.2140;
1105.5000;0.4949;1.2117;
1105.8000;0.4974;1.2140;
1106.1000;0.4982;1.2117;
1106.4000;0.4974;1.2046;
1106.7000;0.4990;1.2140;
1107.0000;0.4982;1.2140;
1107.3000;0.4957;1.2093;
1107.6000;0.4965;1.2070;
1107.9000;0.4949;1.2023;
1108.2000;0.4957;1.1999;
1108.5000;0.4949;1.1976;
1108.8000;0.4965;1.1976;
1109.1000;0.4941;1.2023;
1109.4000;0.4957;1.2070;
1109.7000;0.4982;1.2140;
1110.0000;0.4982;1.2070;
1110.3000;0.4974;1.1999;
1110.6000;0.4941;1.1929;
1110.9000;0.4884;1.1811;
1111.2000;0.4949;1.1976;
1111.5000;0.4868;1.1764;
1111.8000;0.4957;1.1929;
1112.1000;0.4982;1.1952;
1112.4000;0.4998;1.1999;
1112.7000;0.4949;1.1835;
1113.0000;0.4941;1.1811;
1113.3000;0.4957;1.1905;
1113.6000;0.4957;1.1929;
1113.9000;0.4957;1.1999;
1114.2000;0.4990;1.2187;
1114.5000;0.4974;1.2093;
1114.8000;0.5006;1.2046;
1115.1000;0.4974;1.1976;
1115.4000;0.4965;1.2023;
1115.7000;0.4990;1.2070;
1116.0000;0.4982;1.2070;
1116.3000;0.4957;1.1999;
1116.6000;0.4957;1.1929;
1116.9000;0.4965;1.1858;
1117.2000;0.4965;1.1882;
1117.5000;0.4974;1.1882;
1117.8000;0.4941;1.1858;
1118.1000;0.4965;1.1976;
1118.4000;0.4965;1.1929;
1118.7000;0.4965;1.1858;
1119.0000;0.4933;1.1764;
1119.3000;0.4974;1.1905;
1119.6000;0.4990;1.1929;
1119.9000;0.4982;1.2023;
1120.2000;0.4990;1.2070;
1120.5000;0.4990;1.2070;
1120.8000;0.5039;1.2210;
1121.1000;0.4949;1.1999;
1121.4000;0.4974;1.2046;
1121.7000;0.4965;1.1999;
1122.0000;0.4974;1.1976;
1122.3000;0.4974;1.1999;
1122.6000;0.4974;1.1999;
1122.9000;0.4957;1.1976;
1123.2000;0.4982;1.1999;
1123.5000;0.4974;1.1952;
1123.8000;0.4965;1.1999;
1124.1000;0.4990;1.1976;
1124.4000;0.4974;1.1952;
1124.7000;0.4982;1.1929;
1125.0000;0.4941;1.1882;
1125.3000;0.4982;1.1952;
1125.6000;0.5022;1.2046;
1125.9000;0.5006;1.2070;
1126.2000;0.4982;1.2046;
1126.5000;0.4949;1.2023;
1126.8000;0.4965;1.2023;
1127.1000;0.4982;1.2070;
1127.4000;0.4974;1.2117;
1127.7000;0.4974;1.2140;
1128.0000;0.4941;1.1976;
1128.3000;0.4990;1.2070;
1128.6000;0.4941;1.2023;
1128.9000;0.5006;1.2187;
1129.2000;0.4941;1.2046;
1129.5000;0.4965;1.2210;
1129.8000;0.4982;1.2234;
1130.1000;0.4957;1.2187;
1130.4000;0.4965;1.2117;
1130.7000;0.4965;1.2117;
1131.0000;0.4974;1.2187;
1131.3000;0.4974;1.2093;
1131.6000;0.4949;1.1976;
1131.9000;0.4957;1.1976;
1132.2000;0.4965;1.1952;
1132.5000;0.4982;1.1952;
1132.8000;0.4957;1.1882;
1133.1000;0.4998;1.1952;
1133.4000;0.4965;1.1905;
1133.7000;0.4990;1.2023;
1134.0000;0.4974;1.1976;
1134.3000;0.4957;1.1952;
1134.6000;0.4990;1.2070;
1134.9000;0.4974;1.1976;
1135.2000;0.4957;1.1858;
1135.5000;0.4974;1.1976;
1135.8000;0.4982;1.2023;
1136.1000;0.4949;1.2023;
1136.4000;0.4974;1.2164;
1136.7000;0.4965;1.2093;
1137.0000;0.4965;1.2117;
1137.3000;0.4965;1.2164;
1137.6000;0.4965;1.2140;
1137.9000;0.4990;1.2093;
1138.2000;0.4965;1.1976;
1138.5000;0.4965;1.1929;
1138.8000;0.4957;1.1882;
1139.1000;0.4974;1.1952;
1139.4000;0.4982;1.1999;
1139.7000;0.4982;1.1999;
1140.0000;0.4974;1.1999;
1140.3000;0.4982;1.2023;
1140.6000;0.4974;1.2070;
1140.9000;0.4965;1.2070;
1141.2000;0.4990;1.1999;
1141.5000;0.4982;1.1999;
1141.8000;0.4965;1.1999;
1142.1000;0.4957;1.1929;
1142.4000;0.4974;1.1999;
1142.7000;0.4974;1.1999;
1143.0000;0.4965;1.1882;
1143.3000;0.4974;1.1929;
1143.6000;0.4982;1.1999;
1143.9000;0.4974;1.2164;
1144.2000;0.4974;1.2164;
1144.5000;0.4965;1.2164;
1144.8000;0.4974;1.2140;
1145.1000;0.4965;1.2023;
1145.4000;0.4990;1.2093;
1145.7000;0.4990;1.2070;
1146.0000;0.4974;1.2070;
1146.3000;0.4982;1.2070;
1146.6000;0.4884;1.1882;
1146.9000;0.4974;1.2046;
1147.2000;0.4965;1.2046;
1147.5000;0.4965;1.1976;
1147.8000;0.4982;1.2023;
1148.1000;0.5031;1.2140;
1148.4000;0.4957;1.2023;
1148.7000;0.4965;1.2093;
1149.0000;0.4965;1.2023;
1149.3000;0.4965;1.1952;
1149.6000;0.4917;1.1858;
1149.9000;0.5014;1.2046;
1150.2000;0.4974;1.1976;
1150.5000;0.4974;1.1999;
1150.8000;0.4965;1.2023;
1151.1000;0.4925;1.1929;
1151.4000;0.4965;1.1999;
1151.7000;0.5022;1.2140;
1152.0000;0.4957;1.1952;
1152.3000;0.4965;1.1976;
1152.6000;0.4965;1.2046;
1152.9000;0.4957;1.2070;
1153.2000;0.4949;1.2070;
1153.5000;0.4974;1.2023;
1153.8000;0.4974;1.2023;
1154.1000;0.4990;1.1976;
1154.4000;0.4982;1.1952;
1154.7000;0.4941;1.1858;
1155.0000;0.4982;1.1976;
1155.3000;0.4998;1.1999;
1155.6000;0.4990;1.1976;
1155.9000;0.4965;1.1929;
1156.2000;0.4982;1.1905;
1156.5000;0.4974;1.1905;
1156.8000;0.4974;1.1905;
1157.1000;0.4949;1.1882;
1157.4000;0.4974;1.1976;
1157.7000;0.4933;1.1858;
1158.0000;0.4965;1.1811;
1158.3000;0.4974;1.1882;
1158.6000;0.4974;1.1905;
1158.9000;0.4998;1.1929;
1159.2000;0.4982;1.1835;
1159.5000;0.4974;1.1788;
1159.8000;0.4957;1.1788;
1160.1000;0.4949;1.1788;
1160.4000;0.4965;1.1811;
1160.7000;0.4990;1.1858;
1161.0000;0.4949;1.1788;
1161.3000;0.4974;1.1811;
1161.6000;0.4974;1.1835;
1161.9000;0.4957;1.1764;
1162.2000;0.4949;1.1764;
1162.5000;0.4982;1.1788;
1162.8000;0.4941;1.1623;
1163.1000;0.4974;1.1623;
1163.4000;0.4965;1.1600;
1163.7000;0.4957;1.1647;
1164.0000;0.4933;1.1670;
1164.3000;0.4974;1.1764;
1164.6000;0.4965;1.1717;
1164.9000;0.4957;1.1694;
1165.2000;0.4957;1.1811;
1165.5000;0.4957;1.1882;
1165.8000;0.4892;1.1741;
1166.1000;0.4941;1.1929;
1166.4000;0.4998;1.2070;
1166.7000;0.4957;1.2023;
1167.0000;0.4974;1.2023;
1167.3000;0.4965;1.1952;
1167.6000;0.4998;1.2046;
1167.9000;0.4974;1.2070;
1168.2000;0.4965;1.1999;
1168.5000;0.4957;1.1976;
1168.8000;0.4982;1.1999;
1169.1000;0.4965;1.1905;
1169.4000;0.4974;1.1952;
1169.7000;0.4974;1.1952;
1170.0000;0.4957;1.1858;
1170.3000;0.4965;1.1905;
1170.6000;0.4949;1.1976;
1170.9000;0.4965;1.2117;
1171.2000;0.4965;1.2070;
1171.5000;0.4892;1.1976;
1171.8000;0.4965;1.2257;
1172.1000;0.4965;1.2187;
1172.4000;0.4957;1.2164;
1172.7000;0.4917;1.2046;
1173.0000;0.4982;1.2210;
1173.3000;0.4957;1.2164;
1173.6000;0.4941;1.2046;
1173.9000;0.4949;1.2117;
1174.2000;0.4957;1.2070;
1174.5000;0.4957;1.2046;
1174.8000;0.5039;1.2117;
1175.1000;0.5055;1.2117;
1175.4000;0.4965;1.1905;
1175.7000;0.4974;1.1929;
1176.0000;0.4982;1.1858;
1176.3000;0.4974;1.1811;
1176.6000;0.4982;1.1882;
1176.9000;0.4965;1.1882;
1177.2000;0.4957;1.1976;
1177.5000;0.4965;1.1929;
1177.8000;0.4965;1.1905;
1178.1000;0.4933;1.1788;
1178.4000;0.4965;1.1858;
1178.7000;0.4949;1.1835;
1179.0000;0.5006;1.1999;
1179.3000;0.4957;1.1835;
1179.6000;0.4965;1.1905;
1179.9000;0.4957;1.1905;
1180.2000;0.4974;1.1905;
1180.5000;0.4990;1.1976;
1180.8000;0.4982;1.2023;
1181.1000;0.4998;1.2023;
1181.4000;0.4974;1.1952;
1181.7000;0.4957;1.1999;
1182.0000;0.4917;1.1929;
1182.3000;0.4957;1.1976;
1182.6000;0.4941;1.1905;
1182.9000;0.4965;1.1952;
1183.2000;0.4965;1.1999;
1183.5000;0.4982;1.2070;
1183.8000;0.4982;1.2093;
1184.1000;0.4957;1.2093;
1184.4000;0.4965;1.2070;
1184.7000;0.4990;1.2117;
1185.0000;0.4974;1.2164;
1185.3000;0.4965;1.2093;
1185.6000;0.4965;1.2140;
1185.9000;0.4982;1.2210;
1186.2000;0.4965;1.2187;
1186.5000;0.4998;1.2187;
1186.8000;0.5022;1.2164;
1187.1000;0.4974;1.2070;
1187.4000;0.4974;1.2046;
1187.7000;0.4982;1.2023;
1188.0000;0.4990;1.1999;
1188.3000;0.4990;1.2023;
1188.6000;0.4974;1.2070;
1188.9000;0.4974;1.2023;
1189.2000;0.4974;1.2023;
1189.5000;0.4974;1.1952;
1189.8000;0.4982;1.1976;
1190.1000;0.4982;1.1976;
1190.4000;0.4982;1.1905;
1190.7000;0.4965;1.1882;
1191.0000;0.4982;1.1905;
1191.3000;0.4965;1.1952;
1191.6000;0.4998;1.1929;
1191.9000;0.4933;1.1882;
1192.2000;0.4941;1.2023;
1192.5000;0.4957;1.2023;
1192.8000;0.4941;1.1999;
1193.1000;0.4933;1.1999;
1193.4000;0.4949;1.1952;
1193.7000;0.4949;1.1929;
1194.0000;0.4941;1.1929;
1194.3000;0.4933;1.1929;
1194.6000;0.4925;1.1858;
1194.9000;0.4941;1.1952;
1195.2000;0.4957;1.2023;
1195.5000;0.4941;1.1929;
1195.8000;0.4949;1.1952;
1196.1000;0.5022;1.2117;
1196.4000;0.4965;1.1929;
1196.7000;0.4957;1.1858;
1197.0000;0.4941;1.1952;
1197.3000;0.4990;1.2117;
1197.6000;0.4974;1.2070;
1197.9000;0.4982;1.2093;
1198.2000;0.4974;1.2023;
1198.5000;0.4965;1.2023;
1198.8000;0.4965;1.2046;
1199.1000;0.4965;1.1952;
1199.4000;0.4990;1.1976;
1199.7000;0.4925;1.1858;
1200.0000;0.4974;1.2070;
1200.3000;0.4982;1.2023;
1200.6000;0.4990;1.2023;
1200.9000;0.4884;1.1788;
1201.2000;0.4974;1.1882;
1201.5000;0.4949;1.1858;
1201.8000;0.4949;1.1835;
1202.1000;0.4998;1.1905;
1202.4000;0.4965;1.1835;
1202.7000;0.4892;1.1835;
1203.0000;0.5039;1.2234;
1203.3000;0.5031;1.2164;
1203.6000;0.4933;1.1976;
1203.9000;0.4998;1.2117;
1204.2000;0.4990;1.2210;
1204.5000;0.4957;1.2117;
1204.8000;0.4908;1.1905;
1205.1000;0.4957;1.2023;
1205.4000;0.5006;1.2140;
1205.7000;0.4925;1.1976;
1206.0000;0.4933;1.2070;
1206.3000;0.4941;1.1999;
1206.6000;0.4998;1.2164;
1206.9000;0.4957;1.1999;
1207.2000;0.4933;1.1835;
1207.5000;0.4957;1.1882;
1207.8000;0.4957;1.1811;
1208.1000;0.4949;1.1811;
1208.4000;0.4957;1.1811;
1208.7000;0.4957;1.1858;
1209.0000;0.4949;1.1858;
1209.3000;0.4933;1.1835;
1209.6000;0.4965;1.1858;
1209.9000;0.4933;1.1835;
1210.2000;0.4949;1.1858;
1210.5000;0.4974;1.1929;
1210.8000;0.4957;1.1764;
1211.1000;0.4957;1.1717;
1211.4000;0.4949;1.1764;
1211.7000;0.4949;1.1788;
1212.0000;0.4941;1.1647;
1212.3000;0.4957;1.1694;
1212.6000;0.4965;1.1647;
1212.9000;0.4965;1.1623;
1213.2000;0.4957;1.1647;
1213.5000;0.4982;1.1764;
1213.8000;0.4965;1.1764;
1214.1000;0.4965;1.1788;
1214.4000;0.4941;1.1717;
1214.7000;0.4941;1.1670;
1215.0000;0.4933;1.1717;
1215.3000;0.4974;1.1811;
1215.6000;0.4949;1.1741;
1215.9000;0.4941;1.1764;
1216.2000;0.4957;1.1858;
1216.5000;0.4982;1.1858;
1216.8000;0.4965;1.1764;
1217.1000;0.4965;1.1741;
1217.4000;0.4949;1.1717;
1217.7000;0.4957;1.1764;
1218.0000;0.4990;1.1905;
1218.3000;0.4949;1.1835;
1218.6000;0.4965;1.1858;
1218.9000;0.4965;1.1905;
1219.2000;0.4941;1.1835;
1219.5000;0.4900;1.1788;
1219.8000;0.4925;1.1882;
1220.1000;0.4933;1.1952;
1220.4000;0.4941;1.2023;
1220.7000;0.4982;1.1999;
1221.0000;0.4957;1.1976;
1221.3000;0.4957;1.1905;
1221.6000;0.4965;1.2023;
1221.9000;0.4965;1.1999;
1222.2000;0.4957;1.1952;
1222.5000;0.4965;1.1929;
1222.8000;0.4957;1.1882;
1223.1000;0.4974;1.1835;
1223.4000;0.4982;1.1882;
1223.7000;0.4941;1.1835;
1224.0000;0.4965;1.1905;
1224.3000;0.4957;1.1905;
1224.6000;0.4965;1.1882;
1224.9000;0.4925;1.1764;
1225.2000;0.4941;1.1835;
1225.5000;0.4965;1.1952;
1225.8000;0.4957;1.1952;
1226.1000;0.4949;1.1835;
1226.4000;0.4957;1.1905;
1226.7000;0.4982;1.1976;
1227.0000;0.4949;1.1905;
1227.3000;0.4965;1.1929;
1227.6000;0.4941;1.1952;
1227.9000;0.4957;1.2023;
1228.2000;0.4965;1.1999;
1228.5000;0.4965;1.1976;
1228.8000;0.4965;1.1929;
1229.1000;0.4965;1.1929;
1229.4000;0.4941;1.1858;
1229.7000;0.4949;1.1905;
1230.0000;0.4933;1.1741;
1230.3000;0.4949;1.1694;
1230.6000;0.4917;1.1670;
1230.9000;0.4941;1.1694;
1231.2000;0.4933;1.1717;
1231.5000;0.4933;1.1741;
1231.8000;0.4957;1.1929;
1232.1000;0.4957;1.2140;
1232.4000;0.4941;1.2046;
1232.7000;0.4941;1.2070;
1233.0000;0.4982;1.2140;
1233.3000;0.4949;1.2070;
1233.6000;0.4965;1.2093;
1233.9000;0.4965;1.2117;
1234.2000;0.4957;1.1952;
1234.5000;0.4965;1.1905;
1234.8000;0.4974;1.1882;
1235.1000;0.4957;1.1905;
1235.4000;0.4957;1.1999;
1235.7000;0.4982;1.1999;
1236.0000;0.4941;1.1929;
1236.3000;0.4957;1.1976;
1236.6000;0.4965;1.1999;
1236.9000;0.4957;1.2046;
1237.2000;0.4974;1.2046;
1237.5000;0.4974;1.2023;
1237.8000;0.4998;1.2093;
1238.1000;0.4998;1.2187;
1238.4000;0.4949;1.2093;
1238.7000;0.4965;1.2046;
1239.0000;0.4957;1.2117;
1239.3000;0.4957;1.2070;
1239.6000;0.4982;1.2140;
1239.9000;0.4965;1.2070;
1240.2000;0.4908;1.1882;
1240.5000;0.4974;1.2093;
1240.8000;0.4965;1.2070;
1241.1000;0.4900;1.2023;
1241.4000;0.4941;1.2046;
1241.7000;0.4949;1.2070;
1242.0000;0.4917;1.1858;
1242.3000;0.4933;1.1952;
1242.6000;0.4965;1.2023;
1242.9000;0.4965;1.2070;
1243.2000;0.4957;1.1999;
1243.5000;0.4949;1.1999;
1243.8000;0.4982;1.2070;
1244.1000;0.4925;1.1788;
1244.4000;0.4957;1.1882;
1244.7000;0.4925;1.1858;
1245.0000;0.4941;1.1905;
1245.3000;0.4957;1.1929;
1245.6000;0.4982;1.1976;
1245.9000;0.4965;1.1905;
1246.2000;0.4965;1.1858;
1246.5000;0.4949;1.1882;
1246.8000;0.4965;1.1905;
1247.1000;0.4982;1.1976;
1247.4000;0.4949;1.1952;
1247.7000;0.4957;1.1952;
1248.0000;0.4965;1.2070;
1248.3000;0.4957;1.2023;
1248.6000;0.4965;1.2093;
1248.9000;0.4933;1.1999;
1249.2000;0.4965;1.2117;
1249.5000;0.4974;1.2093;
1249.8000;0.5031;1.2187;
1250.1000;0.4965;1.1999;
1250.4000;0.4990;1.1976;
1250.7000;0.4974;1.1929;
1251.0000;0.4957;1.1811;
1251.3000;0.4990;1.1952;
1251.6000;0.4974;1.2023;
1251.9000;0.4949;1.1976;
1252.2000;0.4974;1.1929;
1252.5000;0.4965;1.1976;
1252.8000;0.4957;1.1905;
1253.1000;0.4949;1.1858;
1253.4000;0.4965;1.1882;
1253.7000;0.4982;1.1905;
1254.0000;0.4933;1.1811;
1254.3000;0.4957;1.1929;
1254.6000;0.4957;1.1976;
1254.9000;0.4998;1.1976;
1255.2000;0.4941;1.1788;
1255.5000;0.4933;1.1835;
1255.8000;0.4949;1.1811;
1256.1000;0.4957;1.1905;
1256.4000;0.4949;1.1882;
1256.7000;0.4957;1.1929;
1257.0000;0.4941;1.1929;
1257.3000;0.4965;1.1929;
1257.6000;0.4941;1.1905;
1257.9000;0.4957;1.1976;
1258.2000;0.4957;1.2093;
1258.5000;0.4941;1.2046;
1258.8000;0.4868;1.1788;
1259.1000;0.4965;1.1929;
1259.4000;0.4965;1.1882;
1259.7000;0.4957;1.1835;
1260.0000;0.4965;1.1858;
1260.3000;0.4974;1.1882;
1260.6000;0.4949;1.1788;
1260.9000;0.5047;1.2070;
1261.2000;0.4974;1.1952;
1261.5000;0.4949;1.1858;
1261.8000;0.4982;1.1929;
1262.1000;0.4941;1.1858;
1262.4000;0.4974;1.1835;
1262.7000;0.4965;1.1835;
1263.0000;0.4965;1.1788;
1263.3000;0.4965;1.1788;
1263.6000;0.4974;1.1811;
1263.9000;0.4949;1.1694;
1264.2000;0.4990;1.1835;
1264.5000;0.4949;1.1741;
1264.8000;0.4974;1.1858;
1265.1000;0.4974;1.1858;
1265.4000;0.4957;1.1882;
1265.7000;0.4933;1.1905;
1266.0000;0.4949;1.1929;
1266.3000;0.4998;1.1999;
1266.6000;0.4957;1.1952;
1266.9000;0.4941;1.1882;
1267.2000;0.4957;1.1929;
1267.5000;0.4965;1.1929;
1267.8000;0.4957;1.2023;
1268.1000;0.4949;1.1976;
1268.4000;0.4965;1.1929;
1268.7000;0.4974;1.1929;
1269.0000;0.4974;1.1929;
1269.3000;0.4949;1.1835;
1269.6000;0.4974;1.1811;
1269.9000;0.4965;1.1811;
1270.2000;0.4965;1.1858;
1270.5000;0.4957;1.1929;
1270.8000;0.4974;1.1999;
1271.1000;0.4949;1.1999;
1271.4000;0.4982;1.2093;
1271.7000;0.4908;1.1952;
1272.0000;0.4957;1.2023;
1272.3000;0.4965;1.2070;
1272.6000;0.4965;1.2093;
1272.9000;0.4957;1.2023;
1273.2000;0.4925;1.1929;
1273.5000;0.4965;1.2023;
1273.8000;0.4957;1.2117;
1274.1000;0.4957;1.2140;
1274.4000;0.4949;1.2234;
1274.7000;0.4949;1.2164;
1275.0000;0.4957;1.2140;
1275.3000;0.4957;1.2093;
1275.6000;0.4965;1.2046;
1275.9000;0.5039;1.2187;
1276.2000;0.4949;1.1952;
1276.5000;0.4925;1.1835;
1276.8000;0.4933;1.1858;
1277.1000;0.4974;1.1952;
1277.4000;0.4933;1.1835;
1277.7000;0.4965;1.1905;
1278.0000;0.4965;1.1929;
1278.3000;0.4933;1.1882;
1278.6000;0.4949;1.1952;
1278.9000;0.4982;1.1999;
1279.2000;0.4974;1.2023;
1279.5000;0.4965;1.2023;
1279.8000;0.4965;1.1976;
1280.1000;0.4974;1.1999;
1280.4000;0.4965;1.2093;
1280.7000;0.4965;1.2140;
1281.0000;0.4965;1.2164;
1281.3000;0.4957;1.2164;
1281.6000;0.4957;1.2140;
1281.9000;0.4957;1.2187;
1282.2000;0.4957;1.2140;
1282.5000;0.4941;1.2140;
1282.8000;0.4957;1.2234;
1283.1000;0.4957;1.2281;
1283.4000;0.4957;1.2351;
1283.7000;0.4949;1.2234;
1284.0000;0.4933;1.2210;
1284.3000;0.4965;1.2281;
1284.6000;0.4957;1.2210;
1284.9000;0.4974;1.2281;
1285.2000;0.4965;1.2210;
1285.5000;0.4965;1.2257;
1285.8000;0.4965;1.2234;
1286.1000;0.4957;1.2210;
1286.4000;0.4974;1.2187;
1286.7000;0.4957;1.2210;
1287.0000;0.4974;1.2234;
1287.3000;0.4957;1.2164;
1287.6000;0.4925;1.2046;
1287.9000;0.4949;1.2187;
1288.2000;0.4982;1.2281;
1288.5000;0.4949;1.2117;
1288.8000;0.4949;1.2070;
1289.1000;0.5014;1.2210;
1289.4000;0.4965;1.2070;
1289.7000;0.4990;1.2140;
1290.0000;0.4957;1.2210;
1290.3000;0.5006;1.2210;
1290.6000;0.4982;1.2070;
1290.9000;0.4957;1.1976;
1291.2000;0.4990;1.2117;
1291.5000;0.4949;1.2070;
1291.8000;0.4974;1.2093;
1292.1000;0.4965;1.1976;
1292.4000;0.4933;1.1952;
1292.7000;0.4965;1.2140;
1293.0000;0.4949;1.2046;
1293.3000;0.4957;1.2117;
1293.6000;0.4965;1.2140;
1293.9000;0.4965;1.2070;
1294.2000;0.4941;1.1976;
1294.5000;0.5022;1.2093;
1294.8000;0.4908;1.1929;
1295.1000;0.4974;1.2070;
1295.4000;0.5047;1.2210;
1295.7000;0.4957;1.1976;
1296.0000;0.4884;1.1882;
1296.3000;0.4965;1.2070;
1296.6000;0.4974;1.2070;
1296.9000;0.4957;1.2140;
1297.2000;0.4965;1.2164;
1297.5000;0.4884;1.1952;
1297.8000;0.4949;1.2070;
1298.1000;0.4868;1.1835;
1298.4000;0.4957;1.2046;
1298.7000;0.4941;1.2046;
1299.0000;0.4941;1.1952;
1299.3000;0.4957;1.1999;
1299.6000;0.4957;1.1999;
1299.9000;0.4949;1.1976;
1300.2000;0.4941;1.1976;
1300.5000;0.4949;1.2070;
1300.8000;0.4974;1.2117;
1301.1000;0.4957;1.2210;
1301.4000;0.4957;1.2210;
1301.7000;0.4957;1.2210;
1302.0000;0.4949;1.2140;
1302.3000;0.4949;1.2140;
1302.6000;0.4941;1.2093;
1302.9000;0.4957;1.2164;
1303.2000;0.4974;1.2210;
1303.5000;0.4957;1.2187;
1303.8000;0.4974;1.2234;
1304.1000;0.4965;1.2234;
1304.4000;0.5047;1.2351;
1304.7000;0.4965;1.2164;
1305.0000;0.4957;1.2210;
1305.3000;0.4957;1.2281;
1305.6000;0.4949;1.2281;
1305.9000;0.4900;1.2093;
1306.2000;0.4949;1.2187;
1306.5000;0.4974;1.2210;
1306.8000;0.4965;1.2164;
1307.1000;0.4974;1.2281;
1307.4000;0.4949;1.2234;
1307.7000;0.4949;1.2140;
1308.0000;0.4925;1.2140;
1308.3000;0.4868;1.1811;
1308.6000;0.4957;1.1999;
1308.9000;0.4949;1.2046;
1309.2000;0.4949;1.2070;
1309.5000;0.4965;1.2234;
1309.8000;0.4998;1.2281;
1310.1000;0.4974;1.2093;
1310.4000;0.4949;1.2046;
1310.7000;0.4949;1.2070;
1311.0000;0.4941;1.1929;
1311.3000;0.4965;1.1999;
1311.6000;0.4949;1.1952;
1311.9000;0.4892;1.1811;
1312.2000;0.4965;1.2046;
1312.5000;0.4990;1.2117;
1312.8000;0.4933;1.2046;
1313.1000;0.4957;1.1999;
1313.4000;0.4941;1.1905;
1313.7000;0.4957;1.1929;
1314.0000;0.4884;1.1717;
1314.3000;0.4925;1.1764;
1314.6000;0.4908;1.1764;
1314.9000;0.4982;1.1929;
1315.2000;0.4965;1.1976;
1315.5000;0.4941;1.1952;
1315.8000;0.4933;1.1858;
1316.1000;0.4949;1.1905;
1316.4000;0.4965;1.1905;
1316.7000;0.4957;1.1882;
1317.0000;0.4957;1.1788;
1317.3000;0.4949;1.1882;
1317.6000;0.4965;1.2023;
1317.9000;0.4965;1.1929;
1318.2000;0.4941;1.1835;
1318.5000;0.4851;1.1647;
1318.8000;0.4933;1.1905;
1319.1000;0.4957;1.2070;
1319.4000;0.4917;1.2046;
1319.7000;0.4957;1.2070;
1320.0000;0.4974;1.1976;
1320.3000;0.5006;1.2117;
1320.6000;0.4957;1.1952;
1320.9000;0.4949;1.1929;
1321.2000;0.4941;1.1905;
1321.5000;0.4917;1.1811;
1321.8000;0.4949;1.1952;
1322.1000;0.4941;1.1976;
1322.4000;0.4949;1.1976;
1322.7000;0.4949;1.1999;
1323.0000;0.4998;1.2070;
1323.3000;0.4933;1.1929;
1323.6000;0.4949;1.1976;
1323.9000;0.4933;1.1882;
1324.2000;0.4965;1.1882;
1324.5000;0.4957;1.1858;
1324.8000;0.4982;1.1976;
1325.1000;0.4925;1.1811;
1325.4000;0.4974;1.1882;
1325.7000;0.4965;1.1858;
1326.0000;0.4941;1.1835;
1326.3000;0.4974;1.1999;
1326.6000;0.4965;1.1976;
1326.9000;0.4974;1.1999;
1327.2000;0.4974;1.1952;
1327.5000;0.4982;1.1952;
1327.8000;0.4965;1.1905;
1328.1000;0.4957;1.1858;
1328.4000;0.4965;1.1835;
1328.7000;0.4957;1.1858;
1329.0000;0.4957;1.1905;
1329.3000;0.4957;1.1929;
1329.6000;0.4941;1.1976;
1329.9000;0.4965;1.2046;
1330.2000;0.4974;1.1999;
1330.5000;0.4990;1.1952;
1330.8000;0.4949;1.1905;
1331.1000;0.4941;1.1952;
1331.4000;0.4925;1.1952;
1331.7000;0.4965;1.2046;
1332.0000;0.4957;1.2046;
1332.3000;0.4941;1.1952;
1332.6000;0.4941;1.1952;
1332.9000;0.4925;1.1976;
1333.2000;0.4941;1.2023;
1333.5000;0.4949;1.1976;
1333.8000;0.4982;1.2164;
1334.1000;0.4908;1.1952;
1334.4000;0.4965;1.1976;
1334.7000;0.4949;1.2046;
1335.0000;0.4933;1.1999;
1335.3000;0.4925;1.1976;
1335.6000;0.4965;1.2117;
1335.9000;0.4974;1.2140;
1336.2000;0.4925;1.1999;
1336.5000;0.4949;1.1976;
1336.8000;0.4957;1.2046;
1337.1000;0.4933;1.1905;
1337.4000;0.4949;1.1929;
1337.7000;0.4933;1.1952;
1338.0000;0.4949;1.2046;
1338.3000;0.4941;1.2023;
1338.6000;0.5022;1.2257;
1338.9000;0.4957;1.2093;
1339.2000;0.4982;1.2187;
1339.5000;0.4949;1.2093;
1339.8000;0.4941;1.2093;
1340.1000;0.4957;1.2164;
1340.4000;0.4957;1.2187;
1340.7000;0.4998;1.2281;
1341.0000;0.4868;1.1952;
1341.3000;0.4933;1.2093;
1341.6000;0.4974;1.2234;
1341.9000;0.4957;1.2257;
1342.2000;0.4998;1.2422;
1342.5000;0.4965;1.2304;
1342.8000;0.4941;1.2187;
1343.1000;0.4941;1.2140;
1343.4000;0.4974;1.2187;
1343.7000;0.4941;1.2164;
1344.0000;0.4949;1.2117;
1344.3000;0.4925;1.2093;
1344.6000;0.4941;1.2117;
1344.9000;0.4982;1.2257;
1345.2000;0.4941;1.2140;
1345.5000;0.4941;1.2164;
1345.8000;0.4941;1.2164;
1346.1000;0.4876;1.2023;
1346.4000;0.4933;1.1952;
1346.7000;0.5022;1.2164;
1347.0000;0.4965;1.2093;
1347.3000;0.4925;1.1952;
1347.6000;0.4949;1.2093;
1347.9000;0.4949;1.2023;
1348.2000;0.4941;1.1976;
1348.5000;0.4949;1.1905;
1348.8000;0.4949;1.1999;
1349.1000;0.4957;1.1999;
1349.4000;0.4965;1.2093;
1349.7000;0.4965;1.2093;
1350.0000;0.4957;1.2023;
1350.3000;0.4974;1.2117;
1350.6000;0.4974;1.2140;
1350.9000;0.4974;1.2210;
1351.2000;0.4949;1.2140;
1351.5000;0.4965;1.2210;
1351.8000;0.4990;1.2304;
1352.1000;0.4957;1.2140;
1352.4000;0.4957;1.2140;
1352.7000;0.4949;1.2117;
1353.0000;0.4925;1.2023;
1353.3000;0.4965;1.2281;
1353.6000;0.4957;1.2351;
1353.9000;0.4933;1.2328;
1354.2000;0.4949;1.2234;
1354.5000;0.4957;1.2257;
1354.8000;0.4990;1.2328;
1355.1000;0.4933;1.2210;
1355.4000;0.4933;1.2187;
1355.7000;0.4949;1.2234;
1356.0000;0.4949;1.2257;
1356.3000;0.4941;1.2187;
1356.6000;0.4957;1.2093;
1356.9000;0.4949;1.2023;
1357.2000;0.4957;1.2093;
1357.5000;0.4941;1.2093;
1357.8000;0.4933;1.2023;
1358.1000;0.4957;1.2023;
1358.4000;0.4941;1.2046;
1358.7000;0.4965;1.2093;
1359.0000;0.4965;1.2070;
1359.3000;0.4949;1.2093;
1359.6000;0.4957;1.2023;
1359.9000;0.4876;1.1835;
1360.2000;0.4965;1.2117;
1360.5000;0.4957;1.2117;
1360.8000;0.4933;1.2023;
1361.1000;0.4941;1.2023;
1361.4000;0.4957;1.2093;
1361.7000;0.4982;1.2023;
1362.0000;0.4982;1.1999;
1362.3000;0.4957;1.1929;
1362.6000;0.4933;1.1905;
1362.9000;0.4957;1.1882;
1363.2000;0.4957;1.1882;
1363.5000;0.4941;1.1835;
1363.8000;0.4933;1.1717;
1364.1000;0.4957;1.1741;
1364.4000;0.4965;1.1788;
1364.7000;0.4949;1.1788;
1365.0000;0.4990;1.1999;
1365.3000;0.4949;1.1882;
1365.6000;0.4957;1.1999;
1365.9000;0.4957;1.2093;
1366.2000;0.4925;1.2164;
1366.5000;0.4933;1.2164;
1366.8000;0.4957;1.2164;
1367.1000;0.4917;1.2070;
1367.4000;0.4941;1.2187;
1367.7000;0.4941;1.2093;
1368.0000;0.4917;1.2023;
1368.3000;0.4941;1.1999;
1368.6000;0.4900;1.1952;
1368.9000;0.4974;1.2070;
1369.2000;0.4949;1.2070;
1369.5000;0.4957;1.2046;
1369.8000;0.4949;1.2046;
1370.1000;0.4957;1.2023;
1370.4000;0.4957;1.2070;
1370.7000;0.4949;1.2046;
1371.0000;0.4957;1.2046;
1371.3000;0.4949;1.2093;
1371.6000;0.4933;1.2117;
1371.9000;0.4941;1.2210;
1372.2000;0.4957;1.2140;
1372.5000;0.4957;1.2093;
1372.8000;0.4949;1.2046;
1373.1000;0.4965;1.2117;
1373.4000;0.4957;1.1976;
1373.7000;0.4941;1.1952;
1374.0000;0.4941;1.2023;
1374.3000;0.4982;1.2140;
1374.6000;0.4957;1.2164;
1374.9000;0.4957;1.2187;
1375.2000;0.4949;1.2140;
1375.5000;0.4965;1.2187;
1375.8000;0.4941;1.2070;
1376.1000;0.4957;1.2140;
1376.4000;0.4965;1.2140;
1376.7000;0.4957;1.2140;
1377.0000;0.4941;1.2093;
1377.3000;0.4965;1.2117;
1377.6000;0.4949;1.2164;
1377.9000;0.4965;1.2164;
1378.2000;0.4957;1.2093;
1378.5000;0.4941;1.2023;
1378.8000;0.4933;1.2070;
1379.1000;0.4941;1.2093;
1379.4000;0.4941;1.1999;
1379.7000;0.4949;1.2046;
1380.0000;0.4941;1.2070;
1380.3000;0.4925;1.2140;
1380.6000;0.4941;1.2140;
1380.9000;0.4957;1.2046;
1381.2000;0.4949;1.2023;
1381.5000;0.4957;1.2210;
1381.8000;0.4941;1.2187;
1382.1000;0.4957;1.2140;
1382.4000;0.4974;1.2093;
1382.7000;0.4957;1.1999;
1383.0000;0.4900;1.1858;
1383.3000;0.4941;1.1929;
1383.6000;0.4949;1.1929;
1383.9000;0.4957;1.2046;
1384.2000;0.4949;1.1976;
1384.5000;0.4941;1.2046;
1384.8000;0.4933;1.1976;
1385.1000;0.4949;1.1976;
1385.4000;0.4982;1.2023;
1385.7000;0.4933;1.1999;
1386.0000;0.4933;1.1976;
1386.3000;0.4925;1.1858;
1386.6000;0.4957;1.1882;
1386.9000;0.4933;1.1929;
1387.2000;0.4933;1.1952;
1387.5000;0.4941;1.2023;
1387.8000;0.4965;1.2023;
1388.1000;0.4933;1.1952;
1388.4000;0.4949;1.1976;
1388.7000;0.4949;1.1999;
1389.0000;0.4965;1.2023;
1389.3000;0.4949;1.2070;
1389.6000;0.4998;1.2187;
1389.9000;0.4941;1.2117;
1390.2000;0.4957;1.2140;
1390.5000;0.4941;1.2117;
1390.8000;0.4941;1.2070;
1391.1000;0.4949;1.2023;
1391.4000;0.4949;1.2117;
1391.7000;0.4974;1.2187;
1392.0000;0.4949;1.2046;
1392.3000;0.4941;1.2093;
1392.6000;0.4965;1.2140;
1392.9000;0.4957;1.2117;
1393.2000;0.5022;1.2234;
1393.5000;0.4957;1.2093;
1393.8000;0.4965;1.2117;
1394.1000;0.4957;1.2140;
1394.4000;0.4957;1.2257;
1394.7000;0.4933;1.2164;
1395.0000;0.4965;1.2234;
1395.3000;0.4957;1.2117;
1395.6000;0.4974;1.1952;
1395.9000;0.4982;1.2093;
1396.2000;0.4933;1.1999;
1396.5000;0.4933;1.2046;
1396.8000;0.4892;1.1858;
1397.1000;0.4974;1.1882;
1397.4000;0.4957;1.1858;
1397.7000;0.4974;1.1952;
1398.0000;0.4941;1.1999;
1398.3000;0.4957;1.1976;
1398.6000;0.4917;1.1929;
1398.9000;0.4933;1.2023;
1399.2000;0.4949;1.2093;
1399.5000;0.4974;1.2070;
1399.8000;0.4933;1.1976;
