time/ms;Fluo/V;P700 deltaI/I x10³;
-199.8000;0.8140;0.7825;
-199.5000;0.8132;0.7776;
-199.2000;0.8099;0.7654;
-198.9000;0.8148;0.7727;
-198.6000;0.8164;0.7825;
-198.3000;0.8140;0.7801;
-198.0000;0.8148;0.7825;
-197.7000;0.8148;0.7825;
-197.4000;0.8156;0.7874;
-197.1000;0.8140;0.7776;
-196.8000;0.8140;0.7776;
-196.5000;0.8148;0.7874;
-196.2000;0.8140;0.7922;
-195.9000;0.8140;0.7727;
-195.6000;0.8205;0.7849;
-195.3000;0.8156;0.7727;
-195.0000;0.8148;0.7703;
-194.7000;0.8116;0.7630;
-194.4000;0.8140;0.7654;
-194.1000;0.8156;0.7581;
-193.8000;0.8148;0.7557;
-193.5000;0.8140;0.7557;
-193.2000;0.8148;0.7630;
-192.9000;0.8140;0.7557;
-192.6000;0.8148;0.7484;
-192.3000;0.8148;0.7508;
-192.0000;0.8156;0.7581;
-191.7000;0.8148;0.7508;
-191.4000;0.8156;0.7459;
-191.1000;0.8156;0.7557;
-190.8000;0.8156;0.7557;
-190.5000;0.8164;0.7630;
-190.2000;0.8148;0.7605;
-189.9000;0.8140;0.7679;
-189.6000;0.8091;0.7508;
-189.3000;0.8148;0.7581;
-189.0000;0.8148;0.7605;
-188.7000;0.8213;0.7801;
-188.4000;0.8148;0.7581;
-188.1000;0.8156;0.7581;
-187.8000;0.8116;0.7630;
-187.5000;0.8156;0.7605;
-187.2000;0.8132;0.7532;
-186.9000;0.8107;0.7532;
-186.6000;0.8083;0.7508;
-186.3000;0.8124;0.7581;
-186.0000;0.8132;0.7605;
-185.7000;0.8140;0.7679;
-185.4000;0.8083;0.7654;
-185.1000;0.8116;0.7703;
-184.8000;0.8132;0.7752;
-184.5000;0.8148;0.7727;
-184.2000;0.8140;0.7776;
-183.9000;0.8148;0.7752;
-183.6000;0.8148;0.7703;
-183.3000;0.8140;0.7605;
-183.0000;0.8132;0.7679;
-182.7000;0.8132;0.7581;
-182.4000;0.8148;0.7654;
-182.1000;0.8140;0.7630;
-181.8000;0.8140;0.7581;
-181.5000;0.8148;0.7508;
-181.2000;0.8132;0.7557;
-180.9000;0.8156;0.7654;
-180.6000;0.8189;0.7752;
-180.3000;0.8124;0.7630;
-180.0000;0.8156;0.7727;
-179.7000;0.8156;0.7825;
-179.4000;0.8156;0.7849;
-179.1000;0.8091;0.7557;
-178.8000;0.8156;0.7679;
-178.5000;0.8156;0.7679;
-178.2000;0.8197;0.7801;
-177.9000;0.8116;0.7703;
-177.6000;0.8164;0.7898;
-177.3000;0.8116;0.7874;
-177.0000;0.8181;0.7996;
-176.7000;0.8107;0.7801;
-176.4000;0.8099;0.7825;
-176.1000;0.8099;0.7849;
-175.8000;0.8148;0.7922;
-175.5000;0.8140;0.7922;
-175.2000;0.8140;0.7849;
-174.9000;0.8148;0.7801;
-174.6000;0.8148;0.7727;
-174.3000;0.8173;0.7727;
-174.0000;0.8067;0.7484;
-173.7000;0.8148;0.7752;
-173.4000;0.8140;0.7801;
-173.1000;0.8107;0.7825;
-172.8000;0.8132;0.7874;
-172.5000;0.8091;0.7776;
-172.2000;0.8140;0.7874;
-171.9000;0.8148;0.7898;
-171.6000;0.8156;0.7922;
-171.3000;0.8140;0.7727;
-171.0000;0.8148;0.7776;
-170.7000;0.8164;0.7825;
-170.4000;0.8156;0.7776;
-170.1000;0.8156;0.7727;
-169.8000;0.8164;0.7703;
-169.5000;0.8140;0.7654;
-169.2000;0.8148;0.7727;
-168.9000;0.8156;0.7801;
-168.6000;0.8148;0.7703;
-168.3000;0.8164;0.7776;
-168.0000;0.8164;0.7752;
-167.7000;0.8124;0.7679;
-167.4000;0.8132;0.7679;
-167.1000;0.8140;0.7679;
-166.8000;0.8156;0.7654;
-166.5000;0.8148;0.7630;
-166.2000;0.8132;0.7605;
-165.9000;0.8148;0.7703;
-165.6000;0.8124;0.7703;
-165.3000;0.8156;0.7727;
-165.0000;0.8173;0.7752;
-164.7000;0.8140;0.7727;
-164.4000;0.8140;0.7752;
-164.1000;0.8132;0.7679;
-163.8000;0.8124;0.7703;
-163.5000;0.8124;0.7703;
-163.2000;0.8148;0.7703;
-162.9000;0.8124;0.7727;
-162.6000;0.8124;0.7727;
-162.3000;0.8140;0.7703;
-162.0000;0.8148;0.7727;
-161.7000;0.8140;0.7703;
-161.4000;0.8124;0.7679;
-161.1000;0.8116;0.7654;
-160.8000;0.8124;0.7752;
-160.5000;0.8148;0.7752;
-160.2000;0.8148;0.7752;
-159.9000;0.8156;0.7727;
-159.6000;0.8148;0.7679;
-159.3000;0.8205;0.7703;
-159.0000;0.8140;0.7459;
-158.7000;0.8132;0.7532;
-158.4000;0.8075;0.7508;
-158.1000;0.8164;0.7703;
-157.8000;0.8148;0.7727;
-157.5000;0.8034;0.7532;
-157.2000;0.8116;0.7727;
-156.9000;0.8156;0.7801;
-156.6000;0.8156;0.7727;
-156.3000;0.8156;0.7654;
-156.0000;0.8107;0.7605;
-155.7000;0.8156;0.7679;
-155.4000;0.8099;0.7581;
-155.1000;0.8148;0.7654;
-154.8000;0.8148;0.7532;
-154.5000;0.8140;0.7508;
-154.2000;0.8148;0.7532;
-153.9000;0.8140;0.7532;
-153.6000;0.8132;0.7484;
-153.3000;0.8132;0.7435;
-153.0000;0.8148;0.7435;
-152.7000;0.8132;0.7362;
-152.4000;0.8132;0.7362;
-152.1000;0.8140;0.7410;
-151.8000;0.8148;0.7484;
-151.5000;0.8156;0.7508;
-151.2000;0.8132;0.7484;
-150.9000;0.8156;0.7581;
-150.6000;0.8189;0.7630;
-150.3000;0.8181;0.7508;
-150.0000;0.8164;0.7459;
-149.7000;0.8132;0.7362;
-149.4000;0.8148;0.7289;
-149.1000;0.8140;0.7313;
-148.8000;0.8164;0.7289;
-148.5000;0.8140;0.7240;
-148.2000;0.8132;0.7337;
-147.9000;0.8197;0.7484;
-147.6000;0.8148;0.7410;
-147.3000;0.8140;0.7484;
-147.0000;0.8140;0.7508;
-146.7000;0.8148;0.7410;
-146.4000;0.8140;0.7313;
-146.1000;0.8140;0.7264;
-145.8000;0.8148;0.7289;
-145.5000;0.8116;0.7337;
-145.2000;0.8140;0.7459;
-144.9000;0.8026;0.7094;
-144.6000;0.8140;0.7410;
-144.3000;0.8132;0.7410;
-144.0000;0.8164;0.7410;
-143.7000;0.8099;0.7313;
-143.4000;0.8107;0.7337;
-143.1000;0.8140;0.7435;
-142.8000;0.8148;0.7508;
-142.5000;0.8132;0.7435;
-142.2000;0.8099;0.7386;
-141.9000;0.8132;0.7410;
-141.6000;0.8140;0.7410;
-141.3000;0.8156;0.7435;
-141.0000;0.8132;0.7459;
-140.7000;0.8164;0.7410;
-140.4000;0.8116;0.7264;
-140.1000;0.8148;0.7362;
-139.8000;0.8148;0.7362;
-139.5000;0.8164;0.7435;
-139.2000;0.8164;0.7484;
-138.9000;0.8156;0.7508;
-138.6000;0.8221;0.7703;
-138.3000;0.8132;0.7435;
-138.0000;0.8148;0.7459;
-137.7000;0.8140;0.7459;
-137.4000;0.8156;0.7508;
-137.1000;0.8148;0.7386;
-136.8000;0.8124;0.7508;
-136.5000;0.8140;0.7508;
-136.2000;0.8132;0.7508;
-135.9000;0.8124;0.7532;
-135.6000;0.8140;0.7557;
-135.3000;0.8140;0.7484;
-135.0000;0.8156;0.7410;
-134.7000;0.8124;0.7386;
-134.4000;0.8156;0.7532;
-134.1000;0.8140;0.7508;
-133.8000;0.8148;0.7532;
-133.5000;0.8124;0.7532;
-133.2000;0.8140;0.7557;
-132.9000;0.8124;0.7630;
-132.6000;0.8164;0.7679;
-132.3000;0.8132;0.7581;
-132.0000;0.8116;0.7508;
-131.7000;0.8140;0.7484;
-131.4000;0.8140;0.7532;
-131.1000;0.8262;0.7801;
-130.8000;0.8140;0.7630;
-130.5000;0.8116;0.7679;
-130.2000;0.8140;0.7776;
-129.9000;0.8132;0.7752;
-129.6000;0.8075;0.7605;
-129.3000;0.8140;0.7703;
-129.0000;0.8148;0.7727;
-128.7000;0.8124;0.7557;
-128.4000;0.8140;0.7557;
-128.1000;0.8140;0.7581;
-127.8000;0.8132;0.7532;
-127.5000;0.8124;0.7630;
-127.2000;0.8124;0.7581;
-126.9000;0.8124;0.7557;
-126.6000;0.8156;0.7605;
-126.3000;0.8116;0.7532;
-126.0000;0.8156;0.7605;
-125.7000;0.8181;0.7679;
-125.4000;0.8132;0.7459;
-125.1000;0.8156;0.7532;
-124.8000;0.8116;0.7484;
-124.5000;0.8140;0.7459;
-124.2000;0.8099;0.7410;
-123.9000;0.8107;0.7435;
-123.6000;0.8091;0.7410;
-123.3000;0.8140;0.7484;
-123.0000;0.8148;0.7581;
-122.7000;0.8164;0.7484;
-122.4000;0.8156;0.7459;
-122.1000;0.8140;0.7508;
-121.8000;0.8164;0.7605;
-121.5000;0.8230;0.7801;
-121.2000;0.8181;0.7630;
-120.9000;0.8156;0.7581;
-120.6000;0.8156;0.7581;
-120.3000;0.8140;0.7532;
-120.0000;0.8156;0.7557;
-119.7000;0.8132;0.7581;
-119.4000;0.8140;0.7605;
-119.1000;0.8156;0.7605;
-118.8000;0.8156;0.7654;
-118.5000;0.8173;0.7679;
-118.2000;0.8107;0.7532;
-117.9000;0.8124;0.7581;
-117.6000;0.8148;0.7630;
-117.3000;0.8164;0.7581;
-117.0000;0.8132;0.7508;
-116.7000;0.8148;0.7679;
-116.4000;0.8164;0.7727;
-116.1000;0.8148;0.7630;
-115.8000;0.8140;0.7581;
-115.5000;0.8116;0.7508;
-115.2000;0.8156;0.7484;
-114.9000;0.8148;0.7557;
-114.6000;0.8042;0.7313;
-114.3000;0.8164;0.7654;
-114.0000;0.8148;0.7703;
-113.7000;0.8132;0.7679;
-113.4000;0.8148;0.7874;
-113.1000;0.8156;0.7801;
-112.8000;0.8140;0.7703;
-112.5000;0.8156;0.7703;
-112.2000;0.8156;0.7630;
-111.9000;0.8164;0.7605;
-111.6000;0.8148;0.7605;
-111.3000;0.8148;0.7630;
-111.0000;0.8173;0.7654;
-110.7000;0.8148;0.7557;
-110.4000;0.8140;0.7508;
-110.1000;0.8148;0.7557;
-109.8000;0.8124;0.7484;
-109.5000;0.8124;0.7557;
-109.2000;0.8156;0.7752;
-108.9000;0.8156;0.7703;
-108.6000;0.8148;0.7630;
-108.3000;0.8197;0.7849;
-108.0000;0.8156;0.7776;
-107.7000;0.8116;0.7776;
-107.4000;0.8124;0.7752;
-107.1000;0.8140;0.7898;
-106.8000;0.8189;0.8044;
-106.5000;0.8132;0.7825;
-106.2000;0.8156;0.7874;
-105.9000;0.8132;0.7801;
-105.6000;0.8148;0.7849;
-105.3000;0.8132;0.7752;
-105.0000;0.8156;0.7703;
-104.7000;0.8148;0.7703;
-104.4000;0.8140;0.7727;
-104.1000;0.8132;0.7605;
-103.8000;0.8156;0.7630;
-103.5000;0.8148;0.7630;
-103.2000;0.8173;0.7703;
-102.9000;0.8132;0.7679;
-102.6000;0.8156;0.7727;
-102.3000;0.8164;0.7679;
-102.0000;0.8156;0.7654;
-101.7000;0.8148;0.7654;
-101.4000;0.8197;0.7776;
-101.1000;0.8132;0.7679;
-100.8000;0.8156;0.7654;
-100.5000;0.8132;0.7605;
-100.2000;0.8181;0.7727;
-99.9000;0.8107;0.7630;
-99.6000;0.8116;0.7581;
-99.3000;0.8148;0.7630;
-99.0000;0.8132;0.7630;
-98.7000;0.8148;0.7581;
-98.4000;0.8156;0.7679;
-98.1000;0.8148;0.7703;
-97.8000;0.8173;0.7801;
-97.5000;0.8197;0.7947;
-97.2000;0.8148;0.7801;
-96.9000;0.8148;0.7801;
-96.6000;0.8140;0.7776;
-96.3000;0.8116;0.7630;
-96.0000;0.8050;0.7459;
-95.7000;0.8099;0.7532;
-95.4000;0.8116;0.7605;
-95.1000;0.8140;0.7679;
-94.8000;0.8075;0.7459;
-94.5000;0.8181;0.7679;
-94.2000;0.8148;0.7557;
-93.9000;0.8140;0.7557;
-93.6000;0.8124;0.7581;
-93.3000;0.8132;0.7605;
-93.0000;0.8148;0.7630;
-92.7000;0.8116;0.7532;
-92.4000;0.8148;0.7581;
-92.1000;0.8164;0.7630;
-91.8000;0.8148;0.7581;
-91.5000;0.8124;0.7532;
-91.2000;0.8140;0.7581;
-90.9000;0.8140;0.7581;
-90.6000;0.8148;0.7605;
-90.3000;0.8164;0.7508;
-90.0000;0.8148;0.7484;
-89.7000;0.8148;0.7557;
-89.4000;0.8181;0.7630;
-89.1000;0.8148;0.7532;
-88.8000;0.8156;0.7654;
-88.5000;0.8148;0.7654;
-88.2000;0.8156;0.7825;
-87.9000;0.8140;0.7801;
-87.6000;0.8156;0.7801;
-87.3000;0.8140;0.7630;
-87.0000;0.8156;0.7581;
-86.7000;0.8156;0.7557;
-86.4000;0.8164;0.7581;
-86.1000;0.8156;0.7605;
-85.8000;0.8140;0.7654;
-85.5000;0.8156;0.7776;
-85.2000;0.8173;0.7825;
-84.9000;0.8124;0.7727;
-84.6000;0.8156;0.7752;
-84.3000;0.8148;0.7703;
-84.0000;0.8132;0.7581;
-83.7000;0.8173;0.7679;
-83.4000;0.8181;0.7630;
-83.1000;0.8148;0.7557;
-82.8000;0.8156;0.7630;
-82.5000;0.8132;0.7679;
-82.2000;0.8140;0.7776;
-81.9000;0.8132;0.7654;
-81.6000;0.8148;0.7679;
-81.3000;0.8254;0.7874;
-81.0000;0.8148;0.7630;
-80.7000;0.8164;0.7679;
-80.4000;0.8164;0.7654;
-80.1000;0.8164;0.7654;
-79.8000;0.8156;0.7630;
-79.5000;0.8132;0.7581;
-79.2000;0.8156;0.7654;
-78.9000;0.8156;0.7703;
-78.6000;0.8140;0.7605;
-78.3000;0.8148;0.7703;
-78.0000;0.8156;0.7654;
-77.7000;0.8156;0.7679;
-77.4000;0.8156;0.7654;
-77.1000;0.8132;0.7605;
-76.8000;0.8262;0.7825;
-76.5000;0.8205;0.7727;
-76.2000;0.8156;0.7703;
-75.9000;0.8197;0.7849;
-75.6000;0.8156;0.7752;
-75.3000;0.8156;0.7727;
-75.0000;0.8091;0.7532;
-74.7000;0.8148;0.7727;
-74.4000;0.8116;0.7703;
-74.1000;0.8140;0.7776;
-73.8000;0.8140;0.7752;
-73.5000;0.8148;0.7752;
-73.2000;0.8140;0.7752;
-72.9000;0.8140;0.7679;
-72.6000;0.8116;0.7654;
-72.3000;0.8132;0.7776;
-72.0000;0.8132;0.7752;
-71.7000;0.8140;0.7727;
-71.4000;0.8148;0.7776;
-71.1000;0.8140;0.7776;
-70.8000;0.8132;0.7776;
-70.5000;0.8164;0.7874;
-70.2000;0.8148;0.7849;
-69.9000;0.8164;0.7922;
-69.6000;0.8140;0.7898;
-69.3000;0.8189;0.8020;
-69.0000;0.8156;0.7971;
-68.7000;0.8156;0.7922;
-68.4000;0.8156;0.7849;
-68.1000;0.8164;0.7874;
-67.8000;0.8148;0.7849;
-67.5000;0.8181;0.7922;
-67.2000;0.8148;0.7922;
-66.9000;0.8132;0.7776;
-66.6000;0.8156;0.7752;
-66.3000;0.8140;0.7703;
-66.0000;0.8140;0.7679;
-65.7000;0.8140;0.7654;
-65.4000;0.8116;0.7654;
-65.1000;0.8156;0.7752;
-64.8000;0.8124;0.7654;
-64.5000;0.8140;0.7679;
-64.2000;0.8140;0.7703;
-63.9000;0.8173;0.7727;
-63.6000;0.8164;0.7727;
-63.3000;0.8140;0.7752;
-63.0000;0.8156;0.7825;
-62.7000;0.8116;0.7801;
-62.4000;0.8124;0.7801;
-62.1000;0.8140;0.7776;
-61.8000;0.8124;0.7727;
-61.5000;0.8132;0.7679;
-61.2000;0.8140;0.7654;
-60.9000;0.8132;0.7654;
-60.6000;0.8140;0.7801;
-60.3000;0.8156;0.7874;
-60.0000;0.8164;0.7874;
-59.7000;0.8156;0.7727;
-59.4000;0.8107;0.7654;
-59.1000;0.8124;0.7801;
-58.8000;0.8132;0.7849;
-58.5000;0.8164;0.7996;
-58.2000;0.8132;0.8044;
-57.9000;0.8124;0.8093;
-57.6000;0.8132;0.8117;
-57.3000;0.8148;0.8044;
-57.0000;0.8140;0.7898;
-56.7000;0.8132;0.7898;
-56.4000;0.8124;0.7825;
-56.1000;0.8156;0.7922;
-55.8000;0.8181;0.8020;
-55.5000;0.8164;0.7971;
-55.2000;0.8164;0.7996;
-54.9000;0.8132;0.7825;
-54.6000;0.8140;0.7849;
-54.3000;0.8140;0.7776;
-54.0000;0.8075;0.7605;
-53.7000;0.8140;0.7874;
-53.4000;0.8148;0.7874;
-53.1000;0.8197;0.7971;
-52.8000;0.8148;0.7874;
-52.5000;0.8270;0.8093;
-52.2000;0.8148;0.7825;
-51.9000;0.8132;0.7898;
-51.6000;0.8140;0.7898;
-51.3000;0.8148;0.7776;
-51.0000;0.8156;0.7801;
-50.7000;0.8140;0.7922;
-50.4000;0.8148;0.7971;
-50.1000;0.8026;0.7654;
-49.8000;0.8140;0.7922;
-49.5000;0.8124;0.7849;
-49.2000;0.8124;0.7849;
-48.9000;0.8148;0.7971;
-48.6000;0.8132;0.7898;
-48.3000;0.8132;0.7898;
-48.0000;0.8116;0.7971;
-47.7000;0.8140;0.8044;
-47.4000;0.8173;0.8093;
-47.1000;0.8148;0.8117;
-46.8000;0.8156;0.8093;
-46.5000;0.8124;0.8044;
-46.2000;0.8148;0.8020;
-45.9000;0.8156;0.7971;
-45.6000;0.8148;0.7947;
-45.3000;0.8148;0.7947;
-45.0000;0.8164;0.8069;
-44.7000;0.8156;0.8069;
-44.4000;0.8124;0.8020;
-44.1000;0.8140;0.7971;
-43.8000;0.8148;0.7922;
-43.5000;0.8189;0.7996;
-43.2000;0.8148;0.7947;
-42.9000;0.8107;0.7898;
-42.6000;0.8148;0.7922;
-42.3000;0.8164;0.7922;
-42.0000;0.8164;0.7971;
-41.7000;0.8140;0.7996;
-41.4000;0.8116;0.8020;
-41.1000;0.8164;0.8166;
-40.8000;0.8132;0.8044;
-40.5000;0.8132;0.7971;
-40.2000;0.8124;0.7947;
-39.9000;0.8124;0.7971;
-39.6000;0.8132;0.7849;
-39.3000;0.8156;0.7947;
-39.0000;0.8140;0.7776;
-38.7000;0.8148;0.7825;
-38.4000;0.8148;0.7922;
-38.1000;0.8140;0.7922;
-37.8000;0.8148;0.7922;
-37.5000;0.8140;0.7849;
-37.2000;0.8156;0.7898;
-36.9000;0.8140;0.7922;
-36.6000;0.8116;0.7898;
-36.3000;0.8148;0.7947;
-36.0000;0.8091;0.7825;
-35.7000;0.8140;0.7947;
-35.4000;0.8132;0.7996;
-35.1000;0.8116;0.7996;
-34.8000;0.8148;0.8044;
-34.5000;0.8140;0.8093;
-34.2000;0.8148;0.8117;
-33.9000;0.8140;0.8117;
-33.6000;0.8156;0.8142;
-33.3000;0.8140;0.8142;
-33.0000;0.8164;0.8093;
-32.7000;0.8156;0.8020;
-32.4000;0.8132;0.7971;
-32.1000;0.8173;0.7996;
-31.8000;0.8140;0.7922;
-31.5000;0.8124;0.7947;
-31.2000;0.8132;0.7947;
-30.9000;0.8148;0.7922;
-30.6000;0.8148;0.7874;
-30.3000;0.8132;0.7825;
-30.0000;0.8205;0.7922;
-29.7000;0.8164;0.7727;
-29.4000;0.8221;0.7874;
-29.1000;0.8148;0.7703;
-28.8000;0.8156;0.7801;
-28.5000;0.8140;0.7825;
-28.2000;0.8140;0.7849;
-27.9000;0.8140;0.7801;
-27.6000;0.8132;0.7849;
-27.3000;0.8140;0.7776;
-27.0000;0.8132;0.7752;
-26.7000;0.8124;0.7752;
-26.4000;0.8164;0.7898;
-26.1000;0.8116;0.7801;
-25.8000;0.8156;0.7849;
-25.5000;0.8132;0.7801;
-25.2000;0.8124;0.7849;
-24.9000;0.8140;0.7874;
-24.6000;0.8148;0.7922;
-24.3000;0.8140;0.7947;
-24.0000;0.8156;0.7947;
-23.7000;0.8156;0.7996;
-23.4000;0.8099;0.7874;
-23.1000;0.8148;0.7947;
-22.8000;0.8230;0.8142;
-22.5000;0.8156;0.7947;
-22.2000;0.8148;0.7898;
-21.9000;0.8173;0.7971;
-21.6000;0.8148;0.7898;
-21.3000;0.8140;0.7849;
-21.0000;0.8148;0.7825;
-20.7000;0.8164;0.7849;
-20.4000;0.8164;0.7825;
-20.1000;0.8132;0.7752;
-19.8000;0.8140;0.7849;
-19.5000;0.8140;0.7947;
-19.2000;0.8132;0.7922;
-18.9000;0.8132;0.7922;
-18.6000;0.8140;0.7849;
-18.3000;0.8034;0.7484;
-18.0000;0.8156;0.7752;
-17.7000;0.8164;0.7801;
-17.4000;0.8148;0.7776;
-17.1000;0.8148;0.7801;
-16.8000;0.8148;0.7849;
-16.5000;0.8148;0.7801;
-16.2000;0.8148;0.7752;
-15.9000;0.8140;0.7752;
-15.6000;0.8156;0.7849;
-15.3000;0.8124;0.7776;
-15.0000;0.8116;0.7605;
-14.7000;0.8156;0.7752;
-14.4000;0.8140;0.7776;
-14.1000;0.8156;0.7898;
-13.8000;0.8156;0.7947;
-13.5000;0.8140;0.7849;
-13.2000;0.8140;0.7898;
-12.9000;0.8173;0.8020;
-12.6000;0.8140;0.7947;
-12.3000;0.8156;0.7825;
-12.0000;0.8140;0.7776;
-11.7000;0.8132;0.7776;
-11.4000;0.8124;0.7922;
-11.1000;0.8132;0.7947;
-10.8000;0.8116;0.7922;
-10.5000;0.8132;0.7947;
-10.2000;0.8059;0.7630;
-9.9000;0.8132;0.7776;
-9.6000;0.8132;0.7849;
-9.3000;0.8156;0.7849;
-9.0000;0.8148;0.7849;
-8.7000;0.8140;0.7947;
-8.4000;0.8156;0.7971;
-8.1000;0.8189;0.8020;
-7.8000;0.8148;0.7874;
-7.5000;0.8148;0.7922;
-7.2000;0.8140;0.7801;
-6.9000;0.8148;0.7825;
-6.6000;0.8140;0.7825;
-6.3000;0.8132;0.7898;
-6.0000;0.8116;0.7849;
-5.7000;0.8124;0.7849;
-5.4000;0.8124;0.7801;
-5.1000;0.8132;0.7776;
-4.8000;0.8148;0.7874;
-4.5000;0.8132;0.7776;
-4.2000;0.8124;0.7752;
-3.9000;0.8148;0.7849;
-3.6000;0.8173;0.7825;
-3.3000;0.8140;0.7776;
-3.0000;0.8132;0.7654;
-2.7000;0.8140;0.7630;
-2.4000;0.8140;0.7654;
-2.1000;0.8156;0.7703;
-1.8000;0.8091;0.7605;
-1.5000;0.8116;0.7605;
-1.2000;0.8132;0.7679;
-0.9000;0.8124;0.7727;
-0.6000;0.8107;0.7703;
-0.3000;0.8156;0.7825;
0.0000;0.8156;0.7825;
0.3000;0.8091;0.7947;
0.6000;0.8099;0.8044;
0.9000;0.8026;0.8069;
1.2000;0.8002;0.8215;
1.5000;0.8091;0.8629;
1.8000;0.8091;0.8751;
2.1000;0.8099;0.8873;
2.4000;0.8075;0.8922;
2.7000;0.8042;0.8922;
3.0000;0.8083;0.9287;
3.3000;0.8075;0.9312;
3.6000;0.8156;0.9580;
3.9000;0.8059;0.9434;
4.2000;0.8067;0.9482;
4.5000;0.8034;0.9409;
4.8000;0.8075;0.9556;
5.1000;0.8067;0.9531;
5.4000;0.8059;0.9531;
5.7000;0.8050;0.9507;
6.0000;0.8075;0.9507;
6.3000;0.8132;0.9702;
6.6000;0.8059;0.9580;
6.9000;0.8050;0.9556;
7.2000;0.8075;0.9702;
7.5000;0.8026;0.9604;
7.8000;0.8034;0.9604;
8.1000;0.8059;0.9677;
8.4000;0.8075;0.9702;
8.7000;0.8124;0.9873;
9.0000;0.8099;0.9824;
9.3000;0.8067;0.9848;
9.6000;0.8050;0.9848;
9.9000;0.8067;0.9848;
10.2000;0.8067;0.9751;
10.5000;0.8099;0.9775;
10.8000;0.8067;0.9751;
11.1000;0.8083;0.9702;
11.4000;0.8067;0.9751;
11.7000;0.8091;0.9775;
12.0000;0.8140;0.9921;
12.3000;0.8059;0.9677;
12.6000;0.8034;0.9677;
12.9000;0.8075;0.9799;
13.2000;0.8050;0.9726;
13.5000;0.8050;0.9677;
13.8000;0.8132;0.9824;
14.1000;0.8034;0.9629;
14.4000;0.8042;0.9653;
14.7000;0.8042;0.9653;
15.0000;0.8059;0.9702;
15.3000;0.8050;0.9653;
15.6000;0.8099;0.9824;
15.9000;0.8042;0.9629;
16.2000;0.8075;0.9629;
16.5000;0.8042;0.9629;
16.8000;0.8042;0.9702;
17.1000;0.8042;0.9629;
17.4000;0.8083;0.9702;
17.7000;0.8059;0.9629;
18.0000;0.8034;0.9629;
18.3000;0.8050;0.9677;
18.6000;0.8042;0.9677;
18.9000;0.8002;0.9580;
19.2000;0.8034;0.9629;
19.5000;0.8034;0.9677;
19.8000;0.8059;0.9751;
20.1000;0.8075;0.9775;
20.4000;0.8042;0.9751;
20.7000;0.8026;0.9653;
21.0000;0.8050;0.9604;
21.3000;0.8067;0.9604;
21.6000;0.8042;0.9580;
21.9000;0.8026;0.9507;
22.2000;0.8075;0.9629;
22.5000;0.8026;0.9531;
22.8000;0.8042;0.9556;
23.1000;0.8083;0.9580;
23.4000;0.8026;0.9531;
23.7000;0.8034;0.9653;
24.0000;0.8075;0.9799;
24.3000;0.8002;0.9702;
24.6000;0.8067;0.9897;
24.9000;0.8010;0.9775;
25.2000;0.8026;0.9824;
25.5000;0.8010;0.9799;
25.8000;0.8018;0.9799;
26.1000;0.8010;0.9775;
26.4000;0.7985;0.9677;
26.7000;0.8026;0.9799;
27.0000;0.8034;0.9897;
27.3000;0.7953;0.9677;
27.6000;0.8018;0.9775;
27.9000;0.7985;0.9677;
28.2000;0.8018;0.9726;
28.5000;0.8010;0.9677;
28.8000;0.8034;0.9751;
29.1000;0.8010;0.9653;
29.4000;0.8010;0.9604;
29.7000;0.7969;0.9385;
30.0000;0.8010;0.9458;
30.3000;0.8042;0.9531;
30.6000;0.7977;0.9385;
30.9000;0.8002;0.9458;
31.2000;0.8010;0.9580;
31.5000;0.8026;0.9556;
31.8000;0.8042;0.9604;
32.1000;0.7969;0.9482;
32.4000;0.8018;0.9507;
32.7000;0.8059;0.9531;
33.0000;0.7961;0.9263;
33.3000;0.8010;0.9434;
33.6000;0.8018;0.9482;
33.9000;0.8010;0.9482;
34.2000;0.7985;0.9482;
34.5000;0.8010;0.9556;
34.8000;0.8010;0.9629;
35.1000;0.7993;0.9702;
35.4000;0.7993;0.9702;
35.7000;0.7985;0.9726;
36.0000;0.7969;0.9702;
36.3000;0.8002;0.9751;
36.6000;0.8018;0.9775;
36.9000;0.8002;0.9799;
37.2000;0.8010;0.9824;
37.5000;0.8010;0.9799;
37.8000;0.7953;0.9677;
38.1000;0.8002;0.9848;
38.4000;0.7993;0.9799;
38.7000;0.7985;0.9824;
39.0000;0.8002;0.9775;
39.3000;0.8010;0.9775;
39.6000;0.7985;0.9799;
39.9000;0.7953;0.9677;
40.2000;0.7985;0.9751;
40.5000;0.8010;0.9873;
40.8000;0.7993;0.9799;
41.1000;0.8002;0.9653;
41.4000;0.8002;0.9677;
41.7000;0.8018;0.9677;
42.0000;0.7928;0.9556;
42.3000;0.7993;0.9677;
42.6000;0.8002;0.9751;
42.9000;0.7977;0.9873;
43.2000;0.8010;1.0019;
43.5000;0.7977;1.0068;
43.8000;0.7985;1.0019;
44.1000;0.7977;0.9946;
44.4000;0.8002;0.9970;
44.7000;0.7985;0.9921;
45.0000;0.7985;0.9921;
45.3000;0.7961;0.9970;
45.6000;0.7985;1.0019;
45.9000;0.7993;0.9921;
46.2000;0.8002;0.9946;
46.5000;0.8002;1.0019;
46.8000;0.7985;0.9970;
47.1000;0.8059;1.0116;
47.4000;0.7977;0.9873;
47.7000;0.7961;0.9775;
48.0000;0.8010;0.9946;
48.3000;0.7977;0.9921;
48.6000;0.7993;0.9994;
48.9000;0.8002;0.9897;
49.2000;0.7985;0.9946;
49.5000;0.7985;0.9946;
49.8000;0.7985;0.9946;
50.1000;0.7985;0.9897;
50.4000;0.7977;0.9897;
50.7000;0.8050;1.0116;
51.0000;0.7977;0.9970;
51.3000;0.7969;0.9994;
51.6000;0.8010;1.0019;
51.9000;0.7985;1.0043;
52.2000;0.7993;0.9873;
52.5000;0.8002;0.9994;
52.8000;0.7993;1.0019;
53.1000;0.7961;1.0043;
53.4000;0.8002;1.0116;
53.7000;0.7969;0.9994;
54.0000;0.7969;0.9970;
54.3000;0.7961;0.9799;
54.6000;0.7985;0.9775;
54.9000;0.7961;0.9702;
55.2000;0.8002;0.9799;
55.5000;0.7969;0.9848;
55.8000;0.7969;0.9848;
56.1000;0.7977;0.9946;
56.4000;0.7969;0.9921;
56.7000;0.7969;0.9970;
57.0000;0.8018;1.0092;
57.3000;0.7961;0.9994;
57.6000;0.7953;0.9970;
57.9000;0.7969;1.0019;
58.2000;0.7969;0.9994;
58.5000;0.7961;0.9897;
58.8000;0.7961;0.9848;
59.1000;0.7969;0.9751;
59.4000;0.7977;0.9726;
59.7000;0.7937;0.9629;
60.0000;0.7953;0.9629;
60.3000;0.7953;0.9604;
60.6000;0.7945;0.9629;
60.9000;0.7945;0.9677;
61.2000;0.7993;0.9799;
61.5000;0.7977;0.9873;
61.8000;0.7969;0.9873;
62.1000;0.7993;0.9970;
62.4000;0.7961;0.9848;
62.7000;0.7969;0.9848;
63.0000;0.7969;0.9873;
63.3000;0.7985;0.9873;
63.6000;0.7985;0.9824;
63.9000;0.7961;0.9799;
64.2000;0.7977;0.9775;
64.5000;0.7961;0.9751;
64.8000;0.7961;0.9799;
65.1000;0.8018;0.9946;
65.4000;0.7969;0.9799;
65.7000;0.7953;0.9751;
66.0000;0.7896;0.9507;
66.3000;0.7912;0.9531;
66.6000;0.7953;0.9677;
66.9000;0.7985;0.9775;
67.2000;0.7977;0.9702;
67.5000;0.7969;0.9653;
67.8000;0.7977;0.9629;
68.1000;0.7969;0.9580;
68.4000;0.8010;0.9702;
68.7000;0.7953;0.9629;
69.0000;0.7953;0.9580;
69.3000;0.7920;0.9458;
69.6000;0.8067;0.9824;
69.9000;0.7937;0.9458;
70.2000;0.7953;0.9458;
70.5000;0.7945;0.9482;
70.8000;0.7985;0.9556;
71.1000;0.7945;0.9531;
71.4000;0.7953;0.9556;
71.7000;0.8002;0.9653;
72.0000;0.7961;0.9629;
72.3000;0.7969;0.9751;
72.6000;0.7961;0.9726;
72.9000;0.8002;0.9848;
73.2000;0.7977;0.9897;
73.5000;0.7961;0.9873;
73.8000;0.7977;0.9970;
74.1000;0.7937;0.9946;
74.4000;0.7961;0.9994;
74.7000;0.7961;1.0043;
75.0000;0.7945;0.9970;
75.3000;0.7977;1.0068;
75.6000;0.7953;1.0019;
75.9000;0.7969;0.9946;
76.2000;0.7969;0.9921;
76.5000;0.7969;0.9873;
76.8000;0.7953;0.9897;
77.1000;0.7953;0.9848;
77.4000;0.7961;0.9921;
77.7000;0.7969;0.9946;
78.0000;0.7969;0.9946;
78.3000;0.7977;0.9970;
78.6000;0.7969;0.9946;
78.9000;0.7945;0.9824;
79.2000;0.7945;0.9775;
79.5000;0.7961;0.9848;
79.8000;0.7961;0.9921;
80.1000;0.7961;0.9921;
80.4000;0.7969;0.9873;
80.7000;0.7945;0.9799;
81.0000;0.7961;0.9799;
81.3000;0.7945;0.9775;
81.6000;0.7928;0.9775;
81.9000;0.8010;0.9946;
82.2000;0.7896;0.9726;
82.5000;0.7953;0.9775;
82.8000;0.7937;0.9726;
83.1000;0.7953;0.9726;
83.4000;0.7953;0.9799;
83.7000;0.7961;0.9873;
84.0000;0.7977;0.9848;
84.3000;0.7961;0.9848;
84.6000;0.7953;0.9824;
84.9000;0.7953;0.9799;
85.2000;0.7937;0.9751;
85.5000;0.7961;0.9726;
85.8000;0.7937;0.9653;
86.1000;0.7977;0.9848;
86.4000;0.7920;0.9848;
86.7000;0.7969;0.9897;
87.0000;0.8002;1.0068;
87.3000;0.7953;0.9970;
87.6000;0.7993;1.0092;
87.9000;0.7953;0.9946;
88.2000;0.7945;0.9946;
88.5000;0.7937;0.9848;
88.8000;0.7953;0.9824;
89.1000;0.7953;0.9873;
89.4000;0.7961;0.9946;
89.7000;0.7945;0.9897;
90.0000;0.7928;0.9848;
90.3000;0.7945;0.9970;
90.6000;0.8026;1.0165;
90.9000;0.7953;1.0019;
91.2000;0.7945;1.0092;
91.5000;0.7937;1.0043;
91.8000;0.7945;0.9921;
92.1000;0.7977;1.0043;
92.4000;0.7945;0.9970;
92.7000;0.7961;0.9994;
93.0000;0.7945;1.0141;
93.3000;0.7928;1.0116;
93.6000;0.7920;1.0043;
93.9000;0.7961;1.0068;
94.2000;0.7945;0.9970;
94.5000;0.7953;0.9946;
94.8000;0.7953;0.9946;
95.1000;0.7937;0.9897;
95.4000;0.7953;0.9897;
95.7000;0.7945;0.9824;
96.0000;0.7928;0.9726;
96.3000;0.7945;0.9751;
96.6000;0.7920;0.9726;
96.9000;0.7880;0.9751;
97.2000;0.7928;0.9921;
97.5000;0.7945;0.9946;
97.8000;0.7961;0.9994;
98.1000;0.7937;0.9921;
98.4000;0.7937;0.9921;
98.7000;0.7928;0.9921;
99.0000;0.7904;0.9946;
99.3000;0.7969;1.0092;
99.6000;0.7945;0.9994;
99.9000;0.7945;0.9946;
100.2000;0.7937;0.9946;
100.5000;0.7945;0.9946;
100.8000;0.7912;0.9921;
101.1000;0.7945;1.0019;
101.4000;0.7945;1.0019;
101.7000;0.8010;1.0116;
102.0000;0.7937;0.9848;
102.3000;0.7920;0.9824;
102.6000;0.7945;0.9726;
102.9000;0.7945;0.9824;
103.2000;0.7945;0.9824;
103.5000;0.7912;0.9824;
103.8000;0.7928;0.9873;
104.1000;0.7945;0.9897;
104.4000;0.7953;0.9946;
104.7000;0.7961;0.9897;
105.0000;0.7928;0.9848;
105.3000;0.7961;0.9970;
105.6000;0.7871;0.9751;
105.9000;0.7912;0.9824;
106.2000;0.7953;0.9897;
106.5000;0.7928;0.9775;
106.8000;0.7920;0.9775;
107.1000;0.7928;0.9873;
107.4000;0.7904;0.9677;
107.7000;0.7945;0.9848;
108.0000;0.7953;0.9799;
108.3000;0.7904;0.9751;
108.6000;0.7937;0.9824;
108.9000;0.7928;0.9921;
109.2000;0.7953;1.0019;
109.5000;0.7928;0.9946;
109.8000;0.7904;0.9848;
110.1000;0.7888;0.9799;
110.4000;0.7928;0.9946;
110.7000;0.7937;0.9946;
111.0000;0.7945;1.0068;
111.3000;0.7977;1.0116;
111.6000;0.7937;0.9970;
111.9000;0.7912;0.9946;
112.2000;0.7977;1.0068;
112.5000;0.7937;0.9970;
112.8000;0.7937;0.9994;
113.1000;0.7953;0.9970;
113.4000;0.7977;1.0092;
113.7000;0.7961;0.9994;
114.0000;0.7896;0.9848;
114.3000;0.8010;1.0214;
114.6000;0.7953;1.0068;
114.9000;0.7937;0.9994;
115.2000;0.7904;0.9921;
115.5000;0.7920;0.9946;
115.8000;0.7904;0.9775;
116.1000;0.7945;0.9873;
116.4000;0.7928;0.9994;
116.7000;0.7945;1.0068;
117.0000;0.7937;1.0092;
117.3000;0.7945;1.0116;
117.6000;0.7920;0.9994;
117.9000;0.7937;1.0068;
118.2000;0.7937;1.0019;
118.5000;0.7937;0.9921;
118.8000;0.7847;0.9702;
119.1000;0.7912;0.9848;
119.4000;0.7937;0.9824;
119.7000;0.7937;0.9775;
120.0000;0.7904;0.9677;
120.3000;0.7928;0.9775;
120.6000;0.7928;0.9775;
120.9000;0.7928;0.9775;
121.2000;0.7920;0.9848;
121.5000;0.7937;0.9897;
121.8000;0.7953;0.9970;
122.1000;0.7945;0.9921;
122.4000;0.7928;0.9824;
122.7000;0.7945;0.9946;
123.0000;0.7945;0.9946;
123.3000;0.7904;0.9921;
123.6000;0.7928;0.9921;
123.9000;0.7920;0.9921;
124.2000;0.7961;1.0116;
124.5000;0.7920;0.9946;
124.8000;0.7880;0.9897;
125.1000;0.7928;0.9946;
125.4000;0.7904;0.9897;
125.7000;0.7928;0.9946;
126.0000;0.7912;0.9873;
126.3000;0.7953;1.0043;
126.6000;0.7912;0.9921;
126.9000;0.7896;0.9897;
127.2000;0.7928;1.0019;
127.5000;0.7937;0.9994;
127.8000;0.7904;0.9970;
128.1000;0.7831;0.9848;
128.4000;0.7945;1.0141;
128.7000;0.7880;0.9994;
129.0000;0.7928;1.0214;
129.3000;0.7937;1.0214;
129.6000;0.7977;1.0263;
129.9000;0.7945;1.0214;
130.2000;0.7928;1.0189;
130.5000;0.7937;1.0165;
130.8000;0.7937;1.0141;
131.1000;0.7880;1.0092;
131.4000;0.7937;1.0263;
131.7000;0.7920;1.0165;
132.0000;0.7928;1.0116;
132.3000;0.7920;1.0116;
132.6000;0.7920;1.0068;
132.9000;0.7912;1.0068;
133.2000;0.7920;1.0043;
133.5000;0.7928;1.0092;
133.8000;0.7937;1.0092;
134.1000;0.7928;1.0116;
134.4000;0.7847;0.9970;
134.7000;0.7937;1.0238;
135.0000;0.7928;1.0214;
135.3000;0.7920;1.0189;
135.6000;0.7888;1.0116;
135.9000;0.7912;1.0092;
136.2000;0.7839;0.9921;
136.5000;0.7945;1.0141;
136.8000;0.7993;1.0263;
137.1000;0.7945;0.9970;
137.4000;0.7920;0.9897;
137.7000;0.7937;0.9970;
138.0000;0.7904;0.9897;
138.3000;0.7928;0.9946;
138.6000;0.7937;0.9994;
138.9000;0.7928;1.0043;
139.2000;0.7912;0.9994;
139.5000;0.7928;1.0019;
139.8000;0.7945;1.0068;
140.1000;0.7912;0.9946;
140.4000;0.7912;0.9897;
140.7000;0.7888;0.9824;
141.0000;0.7928;0.9921;
141.3000;0.7912;0.9970;
141.6000;0.7928;1.0019;
141.9000;0.7928;1.0019;
142.2000;0.7937;1.0043;
142.5000;0.7937;1.0043;
142.8000;0.7937;1.0116;
143.1000;0.7912;1.0043;
143.4000;0.7920;1.0043;
143.7000;0.7831;0.9848;
144.0000;0.7937;1.0092;
144.3000;0.7945;1.0068;
144.6000;0.7880;0.9848;
144.9000;0.7920;1.0043;
145.2000;0.7920;1.0043;
145.5000;0.7912;0.9994;
145.8000;0.7928;1.0068;
146.1000;0.7880;0.9921;
146.4000;0.7904;0.9994;
146.7000;0.7928;1.0019;
147.0000;0.7920;1.0043;
147.3000;0.7896;1.0068;
147.6000;0.7953;1.0214;
147.9000;0.7904;1.0092;
148.2000;0.7904;1.0092;
148.5000;0.7928;1.0141;
148.8000;0.7969;1.0287;
149.1000;0.7904;1.0092;
149.4000;0.7912;1.0068;
149.7000;0.7937;1.0043;
150.0000;0.7945;1.0189;
150.3000;0.7896;1.0068;
150.6000;0.7953;1.0165;
150.9000;0.7928;1.0092;
151.2000;0.7896;1.0019;
151.5000;0.7928;1.0165;
151.8000;0.7912;1.0141;
152.1000;0.7928;1.0116;
152.4000;0.7928;1.0092;
152.7000;0.7945;1.0116;
153.0000;0.7937;1.0116;
153.3000;0.7928;0.9994;
153.6000;0.7928;0.9994;
153.9000;0.7928;0.9897;
154.2000;0.7945;0.9921;
154.5000;0.7880;0.9799;
154.8000;0.7953;0.9970;
155.1000;0.7945;0.9897;
155.4000;0.7880;0.9824;
155.7000;0.7937;0.9921;
156.0000;0.7961;0.9994;
156.3000;0.7937;0.9897;
156.6000;0.7928;0.9897;
156.9000;0.7896;0.9848;
157.2000;0.8018;1.0116;
157.5000;0.7937;0.9897;
157.8000;0.7912;0.9921;
158.1000;0.7937;0.9946;
158.4000;0.7912;0.9921;
158.7000;0.7912;0.9873;
159.0000;0.7928;0.9897;
159.3000;0.7920;0.9873;
159.6000;0.7896;0.9873;
159.9000;0.7912;0.9897;
160.2000;0.7953;0.9994;
160.5000;0.7912;1.0068;
160.8000;0.7912;1.0019;
161.1000;0.7912;0.9994;
161.4000;0.7953;1.0141;
161.7000;0.7920;1.0116;
162.0000;0.7912;1.0189;
162.3000;0.7912;1.0141;
162.6000;0.7912;1.0116;
162.9000;0.7920;1.0189;
163.2000;0.7920;1.0214;
163.5000;0.7896;1.0141;
163.8000;0.7920;1.0214;
164.1000;0.7937;1.0189;
164.4000;0.7912;1.0189;
164.7000;0.7912;1.0116;
165.0000;0.7912;1.0043;
165.3000;0.7928;1.0068;
165.6000;0.7937;1.0092;
165.9000;0.7937;1.0116;
166.2000;0.7920;1.0116;
166.5000;0.7937;1.0238;
166.8000;0.7880;1.0116;
167.1000;0.7896;1.0141;
167.4000;0.7912;1.0019;
167.7000;0.8002;1.0263;
168.0000;0.7920;1.0043;
168.3000;0.7904;1.0092;
168.6000;0.7888;1.0116;
168.9000;0.7928;1.0189;
169.2000;0.7912;1.0141;
169.5000;0.7928;1.0141;
169.8000;0.7920;1.0116;
170.1000;0.7928;1.0214;
170.4000;0.7920;1.0238;
170.7000;0.7904;1.0141;
171.0000;0.7928;1.0189;
171.3000;0.7912;1.0141;
171.6000;0.7912;1.0141;
171.9000;0.7912;1.0141;
172.2000;0.7920;1.0092;
172.5000;0.7912;1.0068;
172.8000;0.7928;1.0141;
173.1000;0.7920;1.0189;
173.4000;0.7896;1.0141;
173.7000;0.7928;1.0189;
174.0000;0.7912;1.0092;
174.3000;0.7920;1.0043;
174.6000;0.7920;0.9970;
174.9000;0.8010;1.0189;
175.2000;0.7896;0.9921;
175.5000;0.7904;0.9824;
175.8000;0.7904;0.9775;
176.1000;0.7912;0.9824;
176.4000;0.7912;0.9799;
176.7000;0.7920;0.9751;
177.0000;0.7920;0.9848;
177.3000;0.7993;1.0092;
177.6000;0.7888;0.9970;
177.9000;0.7912;1.0043;
178.2000;0.7912;1.0068;
178.5000;0.7953;1.0214;
178.8000;0.7920;1.0092;
179.1000;0.7928;1.0043;
179.4000;0.7937;1.0043;
179.7000;0.7928;0.9994;
180.0000;0.7928;0.9946;
180.3000;0.7928;0.9946;
180.6000;0.7945;1.0068;
180.9000;0.7920;0.9994;
181.2000;0.7928;0.9921;
181.5000;0.7969;1.0068;
181.8000;0.7937;1.0043;
182.1000;0.7920;0.9994;
182.4000;0.7904;1.0019;
182.7000;0.7912;1.0043;
183.0000;0.7888;0.9970;
183.3000;0.7937;1.0141;
183.6000;0.7912;1.0019;
183.9000;0.7920;1.0068;
184.2000;0.7920;1.0043;
184.5000;0.7904;0.9994;
184.8000;0.7863;0.9994;
185.1000;0.7912;1.0141;
185.4000;0.7945;1.0336;
185.7000;0.7912;1.0263;
186.0000;0.7920;1.0238;
186.3000;0.7904;1.0189;
186.6000;0.7920;1.0214;
186.9000;0.7855;0.9994;
187.2000;0.7904;1.0068;
187.5000;0.7888;0.9970;
187.8000;0.7855;0.9897;
188.1000;0.7928;0.9970;
188.4000;0.7945;1.0043;
188.7000;0.8026;1.0189;
189.0000;0.7920;0.9946;
189.3000;0.7969;0.9994;
189.6000;0.7912;0.9873;
189.9000;0.7904;0.9897;
190.2000;0.7920;0.9970;
190.5000;0.7912;0.9921;
190.8000;0.7928;0.9921;
191.1000;0.7912;0.9921;
191.4000;0.7928;1.0019;
191.7000;0.7920;1.0068;
192.0000;0.7912;1.0019;
192.3000;0.7937;1.0068;
192.6000;0.7937;1.0043;
192.9000;0.7912;1.0019;
193.2000;0.7928;0.9994;
193.5000;0.7912;0.9921;
193.8000;0.7912;0.9994;
194.1000;0.7920;0.9970;
194.4000;0.7912;0.9921;
194.7000;0.7920;0.9921;
195.0000;0.7912;0.9921;
195.3000;0.7896;0.9921;
195.6000;0.7896;0.9873;
195.9000;0.7896;0.9897;
196.2000;0.7912;0.9921;
196.5000;0.7928;1.0043;
196.8000;0.7920;1.0043;
197.1000;0.7928;1.0068;
197.4000;0.7937;1.0141;
197.7000;0.7904;1.0068;
198.0000;0.7912;1.0019;
198.3000;0.7920;1.0068;
198.6000;0.7920;1.0019;
198.9000;0.7920;1.0092;
199.2000;0.7920;0.9994;
199.5000;0.7945;1.0068;
199.8000;0.7937;1.0116;
200.1000;0.7920;0.9994;
200.4000;0.7912;1.0043;
200.7000;0.7912;1.0116;
201.0000;0.7904;1.0068;
201.3000;0.7904;1.0043;
201.6000;0.7904;1.0116;
201.9000;0.7912;1.0092;
202.2000;0.7904;1.0043;
202.5000;0.7977;1.0189;
202.8000;0.7928;1.0141;
203.1000;0.7896;1.0165;
203.4000;0.7953;1.0238;
203.7000;0.7920;1.0141;
204.0000;0.7904;1.0068;
204.3000;0.7888;1.0068;
204.6000;0.7855;0.9921;
204.9000;0.7977;1.0116;
205.2000;0.7937;0.9994;
205.5000;0.7928;1.0019;
205.8000;0.7928;1.0019;
206.1000;0.7928;1.0068;
206.4000;0.7953;1.0165;
206.7000;0.7912;1.0068;
207.0000;0.7896;1.0043;
207.3000;0.7863;1.0019;
207.6000;0.7937;1.0214;
207.9000;0.7993;1.0360;
208.2000;0.7888;1.0068;
208.5000;0.7920;1.0116;
208.8000;0.7904;1.0116;
209.1000;0.7961;1.0189;
209.4000;0.7912;1.0068;
209.7000;0.7912;1.0068;
210.0000;0.7904;1.0019;
210.3000;0.7912;1.0019;
210.6000;0.7896;1.0019;
210.9000;0.7896;1.0043;
211.2000;0.7928;1.0165;
211.5000;0.7912;1.0141;
211.8000;0.7904;1.0019;
212.1000;0.7904;1.0019;
212.4000;0.7920;0.9970;
212.7000;0.7904;0.9848;
213.0000;0.7888;0.9799;
213.3000;0.7920;0.9921;
213.6000;0.7896;0.9873;
213.9000;0.7920;0.9848;
214.2000;0.7912;0.9799;
214.5000;0.7912;0.9775;
214.8000;0.7920;0.9824;
215.1000;0.7912;0.9897;
215.4000;0.7896;0.9970;
215.7000;0.7904;0.9994;
216.0000;0.7920;0.9994;
216.3000;0.7855;0.9873;
216.6000;0.7896;0.9873;
216.9000;0.7904;0.9799;
217.2000;0.7945;1.0043;
217.5000;0.7847;0.9848;
217.8000;0.7888;0.9970;
218.1000;0.7896;0.9970;
218.4000;0.7904;1.0019;
218.7000;0.7912;1.0068;
219.0000;0.7937;1.0068;
219.3000;0.7928;0.9970;
219.6000;0.7961;1.0043;
219.9000;0.7945;1.0092;
220.2000;0.7928;1.0116;
220.5000;0.7896;1.0043;
220.8000;0.7839;0.9897;
221.1000;0.7904;0.9970;
221.4000;0.7896;0.9921;
221.7000;0.7888;0.9897;
222.0000;0.7928;0.9970;
222.3000;0.7928;0.9970;
222.6000;0.7969;1.0068;
222.9000;0.8010;1.0263;
223.2000;0.7880;0.9921;
223.5000;0.7937;1.0092;
223.8000;0.7904;0.9970;
224.1000;0.7896;0.9994;
224.4000;0.7904;0.9921;
224.7000;0.7920;0.9970;
225.0000;0.7871;0.9848;
225.3000;0.7912;0.9921;
225.6000;0.7888;0.9873;
225.9000;0.7920;1.0043;
226.2000;0.8034;1.0336;
226.5000;0.7928;1.0165;
226.8000;0.7912;1.0043;
227.1000;0.7904;0.9970;
227.4000;0.7961;1.0068;
227.7000;0.7912;0.9970;
228.0000;0.7896;0.9921;
228.3000;0.7920;0.9970;
228.6000;0.7912;0.9921;
228.9000;0.7920;0.9946;
229.2000;0.7912;0.9921;
229.5000;0.7928;0.9970;
229.8000;0.7928;0.9970;
230.1000;0.7880;0.9897;
230.4000;0.7920;1.0043;
230.7000;0.7920;1.0043;
231.0000;0.7953;1.0165;
231.3000;0.7904;1.0116;
231.6000;0.7888;1.0068;
231.9000;0.7896;1.0019;
232.2000;0.7880;0.9946;
232.5000;0.7896;1.0019;
232.8000;0.7928;1.0141;
233.1000;0.7904;1.0189;
233.4000;0.7920;1.0165;
233.7000;0.7904;1.0043;
234.0000;0.7928;1.0116;
234.3000;0.7896;1.0116;
234.6000;0.7871;1.0116;
234.9000;0.7920;1.0238;
235.2000;0.7904;1.0214;
235.5000;0.7896;1.0116;
235.8000;0.7888;1.0116;
236.1000;0.7888;1.0141;
236.4000;0.7904;1.0238;
236.7000;0.7863;1.0116;
237.0000;0.7904;1.0165;
237.3000;0.7904;1.0141;
237.6000;0.7896;1.0092;
237.9000;0.7920;0.9994;
238.2000;0.7904;0.9946;
238.5000;0.7880;0.9897;
238.8000;0.7896;0.9994;
239.1000;0.7920;0.9994;
239.4000;0.7904;0.9946;
239.7000;0.7871;0.9873;
240.0000;0.7904;0.9970;
240.3000;0.7904;1.0019;
240.6000;0.7937;1.0116;
240.9000;0.7920;1.0165;
241.2000;0.7896;1.0092;
241.5000;0.7839;1.0092;
241.8000;0.7863;1.0092;
242.1000;0.7847;1.0116;
242.4000;0.7904;1.0165;
242.7000;0.7855;1.0043;
243.0000;0.7945;1.0311;
243.3000;0.7888;1.0092;
243.6000;0.7880;1.0043;
243.9000;0.7961;1.0189;
244.2000;0.7920;1.0116;
244.5000;0.7904;0.9994;
244.8000;0.7953;1.0165;
245.1000;0.7904;1.0092;
245.4000;0.7863;1.0019;
245.7000;0.7904;1.0043;
246.0000;0.7896;0.9994;
246.3000;0.7888;1.0092;
246.6000;0.7937;1.0116;
246.9000;0.7871;0.9897;
247.2000;0.7896;0.9946;
247.5000;0.7969;1.0068;
247.8000;0.7904;0.9946;
248.1000;0.7871;0.9946;
248.4000;0.7904;0.9946;
248.7000;0.7912;1.0043;
249.0000;0.7928;0.9994;
249.3000;0.7953;0.9994;
249.6000;0.7904;0.9994;
249.9000;0.7912;1.0043;
250.2000;0.7896;1.0043;
250.5000;0.7888;1.0019;
250.8000;0.7904;1.0019;
251.1000;0.7912;1.0019;
251.4000;0.7920;1.0068;
251.7000;0.7920;1.0019;
252.0000;0.7961;1.0092;
252.3000;0.7896;0.9848;
252.6000;0.7896;0.9873;
252.9000;0.7904;0.9897;
253.2000;0.7904;0.9897;
253.5000;0.7904;0.9897;
253.8000;0.7880;0.9848;
254.1000;0.7912;0.9946;
254.4000;0.7937;1.0116;
254.7000;0.7904;1.0043;
255.0000;0.8010;1.0189;
255.3000;0.7904;0.9970;
255.6000;0.7912;0.9994;
255.9000;0.7904;0.9897;
256.2000;0.7912;0.9970;
256.5000;0.7912;0.9946;
256.8000;0.7920;0.9946;
257.1000;0.7904;0.9970;
257.4000;0.7888;0.9921;
257.7000;0.7912;0.9897;
258.0000;0.7920;0.9946;
258.3000;0.7896;0.9946;
258.6000;0.7953;1.0092;
258.9000;0.7912;0.9970;
259.2000;0.7839;0.9848;
259.5000;0.7912;0.9921;
259.8000;0.7863;0.9848;
260.1000;0.7904;0.9897;
260.4000;0.7920;0.9921;
260.7000;0.7888;0.9897;
261.0000;0.7904;0.9994;
261.3000;0.7904;0.9994;
261.6000;0.7896;1.0043;
261.9000;0.7945;1.0141;
262.2000;0.7920;1.0068;
262.5000;0.7904;1.0019;
262.8000;0.7920;0.9994;
263.1000;0.7937;1.0019;
263.4000;0.7896;1.0092;
263.7000;0.7904;1.0263;
264.0000;0.7904;1.0238;
264.3000;0.7920;1.0263;
264.6000;0.7928;1.0287;
264.9000;0.7896;1.0189;
265.2000;0.7945;1.0287;
265.5000;0.7855;0.9994;
265.8000;0.7912;1.0068;
266.1000;0.7920;1.0019;
266.4000;0.7896;1.0019;
266.7000;0.7896;0.9994;
267.0000;0.7912;1.0043;
267.3000;0.7912;0.9994;
267.6000;0.7896;0.9946;
267.9000;0.7880;0.9897;
268.2000;0.7896;0.9946;
268.5000;0.7904;0.9970;
268.8000;0.7904;0.9921;
269.1000;0.7888;0.9946;
269.4000;0.7904;1.0019;
269.7000;0.7912;1.0092;
270.0000;0.7904;1.0092;
270.3000;0.7912;1.0141;
270.6000;0.7928;1.0141;
270.9000;0.7912;1.0019;
271.2000;0.7912;1.0019;
271.5000;0.7904;1.0043;
271.8000;0.7888;1.0068;
272.1000;0.7912;1.0141;
272.4000;0.7871;1.0092;
272.7000;0.7896;1.0092;
273.0000;0.7912;1.0141;
273.3000;0.7904;1.0068;
273.6000;0.7920;1.0165;
273.9000;0.7928;1.0165;
274.2000;0.7904;1.0116;
274.5000;0.7912;1.0165;
274.8000;0.7904;1.0165;
275.1000;0.7871;1.0116;
275.4000;0.7896;1.0141;
275.7000;0.7896;1.0189;
276.0000;0.7937;1.0311;
276.3000;0.7880;1.0189;
276.6000;0.7904;1.0189;
276.9000;0.7953;1.0165;
277.2000;0.7888;1.0092;
277.5000;0.7896;1.0092;
277.8000;0.7871;0.9994;
278.1000;0.7855;0.9921;
278.4000;0.7896;1.0043;
278.7000;0.7904;0.9994;
279.0000;0.7888;0.9921;
279.3000;0.7896;0.9970;
279.6000;0.7920;1.0043;
279.9000;0.7912;1.0043;
280.2000;0.7880;1.0043;
280.5000;0.7880;1.0116;
280.8000;0.7896;1.0263;
281.1000;0.7871;1.0165;
281.4000;0.7871;1.0238;
281.7000;0.7896;1.0238;
282.0000;0.7888;1.0043;
282.3000;0.7920;1.0116;
282.6000;0.7945;1.0068;
282.9000;0.7863;0.9824;
283.2000;0.7863;0.9946;
283.5000;0.7945;1.0116;
283.8000;0.7904;0.9970;
284.1000;0.7920;0.9970;
284.4000;0.7904;0.9848;
284.7000;0.7888;0.9848;
285.0000;0.7912;0.9848;
285.3000;0.7896;0.9873;
285.6000;0.7896;0.9994;
285.9000;0.7896;0.9946;
286.2000;0.7985;1.0189;
286.5000;0.7896;1.0043;
286.8000;0.7888;0.9921;
287.1000;0.7904;0.9897;
287.4000;0.7888;0.9946;
287.7000;0.7896;0.9946;
288.0000;0.7888;0.9873;
288.3000;0.7880;0.9921;
288.6000;0.7912;1.0043;
288.9000;0.7912;1.0141;
289.2000;0.7912;1.0214;
289.5000;0.7920;1.0238;
289.8000;0.7904;1.0238;
290.1000;0.7912;1.0189;
290.4000;0.7888;1.0141;
290.7000;0.7904;1.0165;
291.0000;0.7912;1.0189;
291.3000;0.7928;1.0141;
291.6000;0.7904;1.0043;
291.9000;0.7928;1.0165;
292.2000;0.7912;1.0092;
292.5000;0.7928;1.0019;
292.8000;0.7920;0.9994;
293.1000;0.7920;1.0068;
293.4000;0.7888;1.0019;
293.7000;0.7896;0.9946;
294.0000;0.7888;0.9873;
294.3000;0.7904;0.9873;
294.6000;0.7904;0.9970;
294.9000;0.7928;1.0116;
295.2000;0.7985;1.0214;
295.5000;0.7888;1.0043;
295.8000;0.7896;1.0068;
296.1000;0.7888;1.0068;
296.4000;0.7896;1.0068;
296.7000;0.7904;1.0116;
297.0000;0.7920;1.0116;
297.3000;0.7904;1.0068;
297.6000;0.7928;1.0141;
297.9000;0.7904;1.0043;
298.2000;0.7855;0.9848;
298.5000;0.7904;0.9994;
298.8000;0.7912;1.0092;
299.1000;0.7839;0.9897;
299.4000;0.8034;1.0384;
299.7000;0.7896;1.0043;
300.0000;0.7912;1.0019;
300.3000;0.7896;0.9994;
300.6000;0.8010;1.0263;
300.9000;0.7945;1.0214;
301.2000;0.7904;1.0068;
301.5000;0.7953;1.0116;
301.8000;0.7855;0.9921;
302.1000;0.7863;0.9897;
302.4000;0.7888;0.9994;
302.7000;0.7912;1.0068;
303.0000;0.7904;0.9994;
303.3000;0.7904;0.9970;
303.6000;0.7904;0.9873;
303.9000;0.7888;0.9970;
304.2000;0.7839;0.9921;
304.5000;0.7904;1.0165;
304.8000;0.7904;1.0141;
305.1000;0.7912;1.0165;
305.4000;0.7912;1.0141;
305.7000;0.7904;1.0092;
306.0000;0.7904;1.0068;
306.3000;0.7912;1.0092;
306.6000;0.7904;1.0092;
306.9000;0.7888;1.0092;
307.2000;0.7896;1.0141;
307.5000;0.7839;0.9970;
307.8000;0.7888;1.0092;
308.1000;0.7896;1.0043;
308.4000;0.7912;1.0068;
308.7000;0.7896;1.0043;
309.0000;0.7912;1.0116;
309.3000;0.7904;1.0116;
309.6000;0.7888;1.0189;
309.9000;0.7888;1.0141;
310.2000;0.7896;1.0141;
310.5000;0.7888;1.0165;
310.8000;0.7896;1.0189;
311.1000;0.7904;1.0141;
311.4000;0.7896;1.0092;
311.7000;0.7888;0.9921;
312.0000;0.7888;0.9897;
312.3000;0.7880;0.9921;
312.6000;0.7888;0.9873;
312.9000;0.7896;0.9946;
313.2000;0.7888;0.9897;
313.5000;0.7888;0.9751;
313.8000;0.7961;0.9921;
314.1000;0.7904;0.9677;
314.4000;0.7920;0.9726;
314.7000;0.7896;0.9677;
315.0000;0.7912;0.9726;
315.3000;0.7920;0.9848;
315.6000;0.7896;0.9873;
315.9000;0.7855;0.9946;
316.2000;0.7888;1.0043;
316.5000;0.7920;1.0068;
316.8000;0.7896;1.0068;
317.1000;0.7912;1.0068;
317.4000;0.7896;1.0068;
317.7000;0.7888;0.9994;
318.0000;0.7863;0.9921;
318.3000;0.7847;0.9873;
318.6000;0.7920;1.0092;
318.9000;0.7920;1.0092;
319.2000;0.7912;1.0019;
319.5000;0.7896;1.0019;
319.8000;0.7896;0.9921;
320.1000;0.7904;0.9970;
320.4000;0.7969;1.0116;
320.7000;0.7920;1.0043;
321.0000;0.7912;1.0019;
321.3000;0.7896;0.9921;
321.6000;0.7912;1.0019;
321.9000;0.7928;1.0019;
322.2000;0.7896;0.9970;
322.5000;0.7937;1.0019;
322.8000;0.7896;0.9946;
323.1000;0.7863;0.9873;
323.4000;0.7904;0.9970;
323.7000;0.7896;1.0141;
324.0000;0.7904;1.0238;
324.3000;0.7912;1.0263;
324.6000;0.7904;1.0238;
324.9000;0.7977;1.0263;
325.2000;0.7896;1.0092;
325.5000;0.7912;1.0141;
325.8000;0.7937;1.0263;
326.1000;0.7896;1.0189;
326.4000;0.7904;1.0263;
326.7000;0.7928;1.0263;
327.0000;0.7904;1.0165;
327.3000;0.7904;1.0092;
327.6000;0.7896;1.0116;
327.9000;0.7896;1.0141;
328.2000;0.7880;1.0141;
328.5000;0.7896;1.0141;
328.8000;0.7904;1.0141;
329.1000;0.7904;1.0263;
329.4000;0.7904;1.0165;
329.7000;0.7896;1.0238;
330.0000;0.7904;1.0189;
330.3000;0.7904;1.0068;
330.6000;0.7912;1.0043;
330.9000;0.7888;1.0019;
331.2000;0.7888;1.0068;
331.5000;0.7888;0.9921;
331.8000;0.7896;0.9970;
332.1000;0.7920;0.9970;
332.4000;0.7896;0.9897;
332.7000;0.7912;0.9921;
333.0000;0.7888;0.9970;
333.3000;0.7904;1.0043;
333.6000;0.7896;1.0068;
333.9000;0.7888;1.0043;
334.2000;0.7896;1.0043;
334.5000;0.7904;1.0019;
334.8000;0.7912;0.9994;
335.1000;0.7912;1.0068;
335.4000;0.7912;1.0019;
335.7000;0.7912;1.0092;
336.0000;0.7880;0.9994;
336.3000;0.7912;0.9970;
336.6000;0.7920;1.0043;
336.9000;0.7888;1.0068;
337.2000;0.7928;1.0214;
337.5000;0.7904;1.0165;
337.8000;0.7880;1.0116;
338.1000;0.7904;1.0141;
338.4000;0.7912;1.0141;
338.7000;0.7896;1.0116;
339.0000;0.7896;1.0189;
339.3000;0.7888;1.0043;
339.6000;0.7896;1.0043;
339.9000;0.7814;0.9873;
340.2000;0.7888;1.0092;
340.5000;0.7945;1.0189;
340.8000;0.7912;1.0141;
341.1000;0.8002;1.0311;
341.4000;0.7888;1.0141;
341.7000;0.7896;1.0116;
342.0000;0.7896;1.0141;
342.3000;0.7912;1.0092;
342.6000;0.7888;1.0092;
342.9000;0.7896;1.0165;
343.2000;0.7912;1.0214;
343.5000;0.7855;1.0092;
343.8000;0.7880;1.0238;
344.1000;0.7904;1.0384;
344.4000;0.7953;1.0555;
344.7000;0.7945;1.0555;
345.0000;0.7928;1.0555;
345.3000;0.7896;1.0458;
345.6000;0.7880;1.0384;
345.9000;0.7912;1.0433;
346.2000;0.7912;1.0409;
346.5000;0.7880;1.0263;
346.8000;0.8010;1.0531;
347.1000;0.7912;1.0263;
347.4000;0.7888;1.0311;
347.7000;0.7896;1.0263;
348.0000;0.7880;1.0287;
348.3000;0.7888;1.0141;
348.6000;0.7896;1.0116;
348.9000;0.7896;1.0068;
349.2000;0.7888;1.0092;
349.5000;0.7880;1.0092;
349.8000;0.7871;1.0116;
350.1000;0.7888;1.0238;
350.4000;0.7912;1.0263;
350.7000;0.7888;1.0238;
351.0000;0.7904;1.0214;
351.3000;0.7912;1.0336;
351.6000;0.7912;1.0311;
351.9000;0.7920;1.0263;
352.2000;0.7904;1.0238;
352.5000;0.7871;1.0092;
352.8000;0.7920;1.0238;
353.1000;0.7888;1.0263;
353.4000;0.7904;1.0311;
353.7000;0.7896;1.0336;
354.0000;0.7896;1.0263;
354.3000;0.7896;1.0263;
354.6000;0.7928;1.0409;
354.9000;0.7871;1.0263;
355.2000;0.7945;1.0409;
355.5000;0.7888;1.0384;
355.8000;0.7863;1.0360;
356.1000;0.7912;1.0458;
356.4000;0.7945;1.0506;
356.7000;0.7896;1.0409;
357.0000;0.7855;1.0360;
357.3000;0.7904;1.0482;
357.6000;0.7896;1.0433;
357.9000;0.7847;1.0360;
358.2000;0.7880;1.0409;
358.5000;0.7896;1.0384;
358.8000;0.7888;1.0311;
359.1000;0.7896;1.0336;
359.4000;0.7904;1.0214;
359.7000;0.7896;1.0214;
360.0000;0.7904;1.0263;
360.3000;0.7831;1.0092;
360.6000;0.7896;1.0238;
360.9000;0.7888;1.0165;
361.2000;0.7904;1.0165;
361.5000;0.7904;1.0189;
361.8000;0.7904;1.0238;
362.1000;0.7896;1.0116;
362.4000;0.7880;1.0092;
362.7000;0.7904;1.0141;
363.0000;0.7888;1.0214;
363.3000;0.7888;1.0263;
363.6000;0.7912;1.0360;
363.9000;0.7928;1.0482;
364.2000;0.7896;1.0263;
364.5000;0.7896;1.0165;
364.8000;0.7904;1.0116;
365.1000;0.7904;1.0165;
365.4000;0.7880;1.0141;
365.7000;0.7896;1.0141;
366.0000;0.7863;1.0141;
366.3000;0.7953;1.0263;
366.6000;0.7863;1.0068;
366.9000;0.7847;1.0092;
367.2000;0.7888;1.0189;
367.5000;0.7888;1.0189;
367.8000;0.7896;1.0092;
368.1000;0.7880;1.0165;
368.4000;0.7880;1.0092;
368.7000;0.7823;0.9921;
369.0000;0.7888;1.0141;
369.3000;0.7888;1.0092;
369.6000;0.7912;1.0165;
369.9000;0.7920;1.0165;
370.2000;0.7904;1.0116;
370.5000;0.7969;1.0189;
370.8000;0.7855;0.9970;
371.1000;0.7904;1.0116;
371.4000;0.7977;1.0336;
371.7000;0.7904;1.0092;
372.0000;0.7847;0.9873;
372.3000;0.7896;0.9994;
372.6000;0.7904;1.0092;
372.9000;0.7896;1.0116;
373.2000;0.7888;1.0116;
373.5000;0.7896;1.0141;
373.8000;0.7888;1.0287;
374.1000;0.7847;1.0165;
374.4000;0.7896;1.0238;
374.7000;0.7920;1.0384;
375.0000;0.7888;1.0189;
375.3000;0.7888;1.0092;
375.6000;0.7871;0.9994;
375.9000;0.7904;1.0092;
376.2000;0.7904;1.0116;
376.5000;0.7888;1.0214;
376.8000;0.7904;1.0311;
377.1000;0.7871;1.0263;
377.4000;0.7896;1.0189;
377.7000;0.7871;1.0116;
378.0000;0.7880;1.0092;
378.3000;0.7871;1.0019;
378.6000;0.7798;0.9848;
378.9000;0.7888;1.0189;
379.2000;0.7904;1.0263;
379.5000;0.7896;1.0263;
379.8000;0.7888;1.0238;
380.1000;0.7904;1.0214;
380.4000;0.7912;1.0141;
380.7000;0.7912;1.0116;
381.0000;0.7904;1.0189;
381.3000;0.7880;1.0068;
381.6000;0.7904;1.0092;
381.9000;0.7912;1.0043;
382.2000;0.7888;1.0068;
382.5000;0.7904;1.0092;
382.8000;0.7912;1.0189;
383.1000;0.7880;1.0116;
383.4000;0.7896;1.0189;
383.7000;0.7904;1.0189;
384.0000;0.7896;1.0214;
384.3000;0.7896;1.0214;
384.6000;0.7896;1.0092;
384.9000;0.7888;1.0068;
385.2000;0.7904;1.0189;
385.5000;0.7928;1.0336;
385.8000;0.7896;1.0238;
386.1000;0.7888;1.0165;
386.4000;0.7904;1.0189;
386.7000;0.7904;1.0092;
387.0000;0.7928;1.0214;
387.3000;0.7880;1.0019;
387.6000;0.7912;1.0116;
387.9000;0.7896;1.0092;
388.2000;0.7888;1.0068;
388.5000;0.7912;1.0092;
388.8000;0.7896;1.0092;
389.1000;0.7920;1.0165;
389.4000;0.7790;0.9873;
389.7000;0.7888;1.0189;
390.0000;0.7888;1.0141;
390.3000;0.7904;1.0165;
390.6000;0.7953;1.0214;
390.9000;0.7904;1.0043;
391.2000;0.7912;0.9994;
391.5000;0.7937;1.0043;
391.8000;0.7904;1.0092;
392.1000;0.7904;1.0141;
392.4000;0.7888;1.0214;
392.7000;0.7863;1.0141;
393.0000;0.7896;1.0214;
393.3000;0.7888;1.0165;
393.6000;0.7912;1.0189;
393.9000;0.7904;1.0238;
394.2000;0.7904;1.0263;
394.5000;0.7953;1.0360;
394.8000;0.8010;1.0458;
395.1000;0.7896;1.0165;
395.4000;0.7896;1.0116;
395.7000;0.7880;1.0043;
396.0000;0.7896;1.0043;
396.3000;0.7904;0.9970;
396.6000;0.7912;1.0043;
396.9000;0.7904;1.0043;
397.2000;0.7880;0.9946;
397.5000;0.7896;0.9946;
397.8000;0.7888;1.0092;
398.1000;0.7920;1.0214;
398.4000;0.7904;1.0189;
398.7000;0.7863;1.0068;
399.0000;0.7880;1.0214;
399.3000;0.7888;1.0116;
399.6000;0.7888;1.0068;
399.9000;0.7880;1.0068;
400.2000;0.7888;1.0043;
400.5000;0.7896;1.0043;
400.8000;0.7896;0.9994;
401.1000;0.7904;1.0068;
401.4000;0.7904;1.0092;
401.7000;0.7896;1.0165;
402.0000;0.7920;1.0214;
402.3000;0.7888;1.0238;
402.6000;0.7896;1.0263;
402.9000;0.7904;1.0287;
403.2000;0.7896;1.0287;
403.5000;0.7888;1.0214;
403.8000;0.7880;1.0116;
404.1000;0.7888;1.0141;
404.4000;0.7888;1.0165;
404.7000;0.7888;1.0141;
405.0000;0.7896;1.0263;
405.3000;0.7863;1.0165;
405.6000;0.7871;1.0189;
405.9000;0.7953;1.0360;
406.2000;0.7888;1.0238;
406.5000;0.7904;1.0165;
406.8000;0.7937;1.0214;
407.1000;0.7912;1.0092;
407.4000;0.7888;1.0043;
407.7000;0.7888;1.0092;
408.0000;0.7888;1.0116;
408.3000;0.7888;1.0092;
408.6000;0.7896;1.0092;
408.9000;0.7888;1.0043;
409.2000;0.7912;1.0116;
409.5000;0.7863;0.9994;
409.8000;0.7888;1.0068;
410.1000;0.7912;1.0092;
410.4000;0.7888;1.0092;
410.7000;0.7920;1.0214;
411.0000;0.7904;1.0165;
411.3000;0.7871;1.0092;
411.6000;0.7912;1.0214;
411.9000;0.7888;1.0116;
412.2000;0.7896;1.0238;
412.5000;0.7977;1.0482;
412.8000;0.7888;1.0214;
413.1000;0.7888;1.0214;
413.4000;0.7985;1.0458;
413.7000;0.7888;1.0165;
414.0000;0.7871;1.0189;
414.3000;0.7880;1.0141;
414.6000;0.7888;1.0214;
414.9000;0.7888;1.0092;
415.2000;0.7863;1.0043;
415.5000;0.7863;1.0141;
415.8000;0.7831;1.0068;
416.1000;0.7912;1.0263;
416.4000;0.7945;1.0336;
416.7000;0.7814;0.9946;
417.0000;0.7888;1.0189;
417.3000;0.7896;1.0189;
417.6000;0.7888;1.0189;
417.9000;0.7871;1.0165;
418.2000;0.7904;1.0165;
418.5000;0.7855;0.9994;
418.8000;0.7896;1.0019;
419.1000;0.7888;1.0043;
419.4000;0.7871;1.0019;
419.7000;0.7823;0.9873;
420.0000;0.7888;0.9921;
420.3000;0.7896;0.9994;
420.6000;0.7896;0.9946;
420.9000;0.7888;1.0043;
421.2000;0.7888;1.0068;
421.5000;0.7888;1.0068;
421.8000;0.7871;1.0116;
422.1000;0.7871;1.0141;
422.4000;0.7888;1.0141;
422.7000;0.7896;1.0141;
423.0000;0.7896;1.0116;
423.3000;0.7904;1.0068;
423.6000;0.7896;1.0092;
423.9000;0.7912;1.0092;
424.2000;0.7896;1.0043;
424.5000;0.7888;0.9970;
424.8000;0.7880;0.9994;
425.1000;0.7888;1.0019;
425.4000;0.7880;1.0019;
425.7000;0.7888;0.9994;
426.0000;0.7904;0.9921;
426.3000;0.7904;0.9946;
426.6000;0.7880;1.0019;
426.9000;0.7896;1.0068;
427.2000;0.7888;0.9970;
427.5000;0.7880;0.9921;
427.8000;0.7863;0.9897;
428.1000;0.7774;0.9824;
428.4000;0.7871;0.9970;
428.7000;0.7888;0.9946;
429.0000;0.7912;0.9970;
429.3000;0.7880;0.9848;
429.6000;0.7896;0.9946;
429.9000;0.7888;0.9970;
430.2000;0.7896;0.9897;
430.5000;0.7896;0.9921;
430.8000;0.7839;0.9921;
431.1000;0.7896;1.0141;
431.4000;0.7904;1.0214;
431.7000;0.7880;1.0165;
432.0000;0.7896;1.0165;
432.3000;0.7888;1.0116;
432.6000;0.7904;1.0165;
432.9000;0.7937;1.0287;
433.2000;0.7945;1.0287;
433.5000;0.7880;1.0141;
433.8000;0.7888;1.0068;
434.1000;0.7871;1.0043;
434.4000;0.7888;1.0043;
434.7000;0.7888;1.0043;
435.0000;0.7896;1.0165;
435.3000;0.7937;1.0263;
435.6000;0.7896;1.0141;
435.9000;0.7904;1.0092;
436.2000;0.7896;1.0068;
436.5000;0.7855;1.0068;
436.8000;0.7896;1.0189;
437.1000;0.7847;1.0141;
437.4000;0.7888;1.0287;
437.7000;0.7896;1.0189;
438.0000;0.7880;1.0214;
438.3000;0.7912;1.0238;
438.6000;0.7904;1.0165;
438.9000;0.7871;1.0092;
439.2000;0.7937;1.0214;
439.5000;0.7855;0.9946;
439.8000;0.7953;1.0141;
440.1000;0.7863;0.9970;
440.4000;0.7896;0.9970;
440.7000;0.7904;0.9970;
441.0000;0.7880;0.9946;
441.3000;0.7904;1.0043;
441.6000;0.7896;0.9970;
441.9000;0.7896;0.9970;
442.2000;0.7880;0.9994;
442.5000;0.7896;1.0068;
442.8000;0.7945;1.0189;
443.1000;0.7896;1.0092;
443.4000;0.7896;1.0141;
443.7000;0.7904;1.0165;
444.0000;0.7831;1.0043;
444.3000;0.7888;1.0165;
444.6000;0.7896;1.0141;
444.9000;0.7896;1.0116;
445.2000;0.7904;1.0165;
445.5000;0.7920;1.0238;
445.8000;0.7904;1.0287;
446.1000;0.7912;1.0238;
446.4000;0.7896;1.0214;
446.7000;0.7985;1.0458;
447.0000;0.7880;1.0238;
447.3000;0.7888;1.0263;
447.6000;0.7888;1.0214;
447.9000;0.7839;1.0019;
448.2000;0.7888;1.0043;
448.5000;0.7888;1.0068;
448.8000;0.7912;1.0092;
449.1000;0.7896;0.9994;
449.4000;0.7896;0.9994;
449.7000;0.7847;0.9897;
450.0000;0.7904;1.0019;
450.3000;0.7896;1.0019;
450.6000;0.7945;1.0068;
450.9000;0.7888;0.9970;
451.2000;0.7888;0.9946;
451.5000;0.7880;0.9921;
451.8000;0.7888;0.9848;
452.1000;0.7904;0.9873;
452.4000;0.7904;0.9946;
452.7000;0.7888;1.0019;
453.0000;0.7904;1.0068;
453.3000;0.7880;0.9946;
453.6000;0.7888;0.9946;
453.9000;0.7888;0.9921;
454.2000;0.7888;0.9994;
454.5000;0.7896;0.9994;
454.8000;0.7888;1.0019;
455.1000;0.7896;1.0043;
455.4000;0.7904;1.0116;
455.7000;0.7904;1.0068;
456.0000;0.7823;0.9824;
456.3000;0.7880;0.9897;
456.6000;0.7904;0.9970;
456.9000;0.7904;1.0043;
457.2000;0.7896;1.0043;
457.5000;0.7863;0.9946;
457.8000;0.7920;1.0092;
458.1000;0.7896;1.0043;
458.4000;0.7888;0.9994;
458.7000;0.7904;1.0092;
459.0000;0.7888;1.0068;
459.3000;0.7888;1.0043;
459.6000;0.7912;1.0116;
459.9000;0.7880;1.0068;
460.2000;0.7871;1.0019;
460.5000;0.7896;1.0092;
460.8000;0.7871;1.0116;
461.1000;0.7888;1.0092;
461.4000;0.7904;1.0189;
461.7000;0.7896;1.0141;
462.0000;0.7904;1.0189;
462.3000;0.7945;1.0263;
462.6000;0.7920;1.0092;
462.9000;0.7896;0.9946;
463.2000;0.7871;0.9873;
463.5000;0.7871;0.9970;
463.8000;0.7863;1.0068;
464.1000;0.7871;1.0116;
464.4000;0.7871;1.0141;
464.7000;0.7871;1.0165;
465.0000;0.7880;1.0360;
465.3000;0.7953;1.0506;
465.6000;0.7937;1.0433;
465.9000;0.7888;1.0311;
466.2000;0.7896;1.0311;
466.5000;0.7888;1.0263;
466.8000;0.7896;1.0311;
467.1000;0.7896;1.0238;
467.4000;0.7871;1.0092;
467.7000;0.7880;1.0214;
468.0000;0.7912;1.0189;
468.3000;0.7896;1.0116;
468.6000;0.7880;1.0068;
468.9000;0.7863;0.9970;
469.2000;0.7880;0.9994;
469.5000;0.7880;0.9994;
469.8000;0.7896;0.9994;
470.1000;0.7896;0.9946;
470.4000;0.7896;0.9970;
470.7000;0.7904;0.9946;
471.0000;0.7896;0.9994;
471.3000;0.7880;0.9946;
471.6000;0.7937;1.0019;
471.9000;0.7912;1.0068;
472.2000;0.7896;1.0019;
472.5000;0.7855;0.9946;
472.8000;0.7880;1.0019;
473.1000;0.7871;0.9994;
473.4000;0.7896;0.9994;
473.7000;0.7888;0.9921;
474.0000;0.7888;0.9824;
474.3000;0.7888;0.9921;
474.6000;0.7880;0.9799;
474.9000;0.7880;0.9824;
475.2000;0.7888;0.9824;
475.5000;0.7888;0.9824;
475.8000;0.7888;0.9799;
476.1000;0.7888;0.9775;
476.4000;0.7871;0.9799;
476.7000;0.7888;0.9897;
477.0000;0.7888;0.9873;
477.3000;0.7888;0.9994;
477.6000;0.7880;1.0019;
477.9000;0.7888;0.9994;
478.2000;0.7880;0.9994;
478.5000;0.7880;0.9994;
478.8000;0.7904;1.0116;
479.1000;0.7855;1.0019;
479.4000;0.7855;0.9946;
479.7000;0.7888;1.0043;
480.0000;0.7871;0.9994;
480.3000;0.7871;1.0019;
480.6000;0.7888;1.0043;
480.9000;0.7904;1.0116;
481.2000;0.7863;1.0116;
481.5000;0.7896;1.0189;
481.8000;0.7888;1.0214;
482.1000;0.7888;1.0189;
482.4000;0.7871;1.0141;
482.7000;0.7871;1.0141;
483.0000;0.7888;1.0092;
483.3000;0.7888;1.0141;
483.6000;0.7880;1.0165;
483.9000;0.7888;1.0165;
484.2000;0.7863;1.0043;
484.5000;0.7855;0.9946;
484.8000;0.7831;0.9921;
485.1000;0.7871;1.0116;
485.4000;0.7871;1.0068;
485.7000;0.7871;1.0019;
486.0000;0.7904;1.0068;
486.3000;0.7880;1.0043;
486.6000;0.7823;0.9873;
486.9000;0.7871;1.0092;
487.2000;0.7920;1.0263;
487.5000;0.7896;1.0116;
487.8000;0.7855;0.9994;
488.1000;0.7774;0.9873;
488.4000;0.7766;0.9848;
488.7000;0.7839;1.0043;
489.0000;0.7871;1.0019;
489.3000;0.7888;1.0019;
489.6000;0.8002;1.0287;
489.9000;0.7880;0.9921;
490.2000;0.7888;0.9873;
490.5000;0.7904;0.9946;
490.8000;0.7871;0.9946;
491.1000;0.7896;1.0068;
491.4000;0.7928;1.0116;
491.7000;0.7904;1.0068;
492.0000;0.7888;1.0141;
492.3000;0.7888;1.0092;
492.6000;0.7888;1.0019;
492.9000;0.7945;1.0116;
493.2000;0.7977;1.0214;
493.5000;0.7904;0.9970;
493.8000;0.7871;0.9921;
494.1000;0.7880;0.9848;
494.4000;0.7888;0.9799;
494.7000;0.7839;0.9726;
495.0000;0.7880;0.9775;
495.3000;0.7888;0.9873;
495.6000;0.7871;0.9751;
495.9000;0.7888;0.9799;
496.2000;0.7888;0.9799;
496.5000;0.7904;0.9824;
496.8000;0.7888;0.9824;
497.1000;0.7871;0.9799;
497.4000;0.7896;0.9897;
497.7000;0.7888;1.0019;
498.0000;0.7888;1.0068;
498.3000;0.7896;1.0165;
498.6000;0.7896;1.0165;
498.9000;0.7888;1.0214;
499.2000;0.7904;1.0165;
499.5000;0.7896;1.0141;
499.8000;0.7896;1.0116;
500.1000;0.7896;1.0141;
500.4000;0.7880;1.0116;
500.7000;0.7863;1.0116;
501.0000;0.7855;1.0116;
501.3000;0.7871;1.0043;
501.6000;0.7896;1.0068;
501.9000;0.7880;0.9994;
502.2000;0.7880;1.0019;
502.5000;0.7871;0.9897;
502.8000;0.7888;0.9970;
503.1000;0.7871;0.9946;
503.4000;0.7880;1.0019;
503.7000;0.7871;1.0043;
504.0000;0.7880;1.0019;
504.3000;0.7880;1.0068;
504.6000;0.7896;0.9994;
504.9000;0.7896;1.0019;
505.2000;0.7896;0.9970;
505.5000;0.7880;0.9921;
505.8000;0.7937;1.0092;
506.1000;0.7888;0.9848;
506.4000;0.7920;0.9946;
506.7000;0.7880;0.9824;
507.0000;0.7904;0.9848;
507.3000;0.7912;0.9970;
507.6000;0.7904;0.9994;
507.9000;0.7888;1.0019;
508.2000;0.7871;0.9970;
508.5000;0.7782;0.9799;
508.8000;0.7855;0.9873;
509.1000;0.7855;0.9799;
509.4000;0.7880;0.9897;
509.7000;0.7863;0.9824;
510.0000;0.7871;0.9994;
510.3000;0.7896;0.9970;
510.6000;0.7888;0.9946;
510.9000;0.7888;0.9994;
511.2000;0.7904;1.0043;
511.5000;0.7855;1.0043;
511.8000;0.7863;0.9994;
512.1000;0.7871;0.9970;
512.4000;0.7839;0.9921;
512.7000;0.7920;1.0116;
513.0000;0.7880;0.9946;
513.3000;0.7880;0.9921;
513.6000;0.7855;0.9726;
513.9000;0.7896;0.9873;
514.2000;0.7896;0.9824;
514.5000;0.7888;0.9775;
514.8000;0.7880;0.9726;
515.1000;0.7896;0.9824;
515.4000;0.7888;0.9848;
515.7000;0.7896;0.9873;
516.0000;0.7880;0.9848;
516.3000;0.7896;0.9970;
516.6000;0.7904;1.0165;
516.9000;0.7863;1.0189;
517.2000;0.7888;1.0263;
517.5000;0.7880;1.0165;
517.8000;0.7839;1.0043;
518.1000;0.7880;1.0116;
518.4000;0.7880;1.0043;
518.7000;0.7831;0.9921;
519.0000;0.7896;1.0043;
519.3000;0.7880;1.0019;
519.6000;0.7880;1.0092;
519.9000;0.7871;1.0116;
520.2000;0.7888;1.0189;
520.5000;0.7880;1.0116;
520.8000;0.7880;1.0165;
521.1000;0.7880;1.0165;
521.4000;0.7896;1.0092;
521.7000;0.7888;1.0092;
522.0000;0.7880;1.0043;
522.3000;0.7888;1.0043;
522.6000;0.7888;1.0092;
522.9000;0.7912;1.0141;
523.2000;0.7888;1.0068;
523.5000;0.7888;1.0092;
523.8000;0.7871;1.0019;
524.1000;0.7896;1.0043;
524.4000;0.7904;1.0043;
524.7000;0.7863;0.9897;
525.0000;0.7863;1.0019;
525.3000;0.7888;1.0116;
525.6000;0.7880;1.0043;
525.9000;0.7888;0.9994;
526.2000;0.7863;1.0019;
526.5000;0.7896;1.0068;
526.8000;0.7823;0.9946;
527.1000;0.7863;1.0214;
527.4000;0.7863;1.0141;
527.7000;0.7888;1.0263;
528.0000;0.7904;1.0287;
528.3000;0.7855;1.0068;
528.6000;0.7871;1.0141;
528.9000;0.7896;1.0165;
529.2000;0.7896;1.0141;
529.5000;0.7880;1.0116;
529.8000;0.7806;0.9994;
530.1000;0.7888;1.0165;
530.4000;0.7896;1.0092;
530.7000;0.7880;1.0116;
531.0000;0.7880;1.0116;
531.3000;0.7863;1.0068;
531.6000;0.7863;1.0092;
531.9000;0.7880;1.0141;
532.2000;0.7871;1.0116;
532.5000;0.7904;1.0263;
532.8000;0.7871;1.0287;
533.1000;0.7880;1.0360;
533.4000;0.7880;1.0311;
533.7000;0.7896;1.0263;
534.0000;0.7823;1.0068;
534.3000;0.7888;1.0214;
534.6000;0.7774;0.9970;
534.9000;0.7871;1.0238;
535.2000;0.7880;1.0189;
535.5000;0.7863;1.0068;
535.8000;0.7896;1.0165;
536.1000;0.7871;1.0043;
536.4000;0.7863;0.9921;
536.7000;0.7871;0.9946;
537.0000;0.7888;1.0043;
537.3000;0.7888;1.0019;
537.6000;0.7855;1.0068;
537.9000;0.7896;1.0092;
538.2000;0.7871;1.0068;
538.5000;0.7880;1.0116;
538.8000;0.7871;1.0165;
539.1000;0.7888;1.0165;
539.4000;0.7880;1.0141;
539.7000;0.7871;1.0116;
540.0000;0.7896;1.0116;
540.3000;0.7888;1.0092;
540.6000;0.7896;1.0043;
540.9000;0.7823;0.9873;
541.2000;0.7896;1.0116;
541.5000;0.7888;1.0141;
541.8000;0.7920;1.0165;
542.1000;0.7896;1.0116;
542.4000;0.7896;1.0116;
542.7000;0.7871;1.0043;
543.0000;0.7896;0.9970;
543.3000;0.7888;0.9873;
543.6000;0.7896;0.9848;
543.9000;0.7888;0.9946;
544.2000;0.7896;1.0019;
544.5000;0.7871;1.0019;
544.8000;0.7880;1.0019;
545.1000;0.7888;1.0068;
545.4000;0.7888;1.0043;
545.7000;0.7912;1.0092;
546.0000;0.7904;1.0043;
546.3000;0.7888;1.0019;
546.6000;0.7880;0.9921;
546.9000;0.7880;1.0043;
547.2000;0.7888;1.0116;
547.5000;0.7871;1.0043;
547.8000;0.7904;1.0019;
548.1000;0.7839;0.9824;
548.4000;0.7855;0.9873;
548.7000;0.7880;0.9897;
549.0000;0.7912;0.9921;
549.3000;0.7896;0.9970;
549.6000;0.7896;1.0092;
549.9000;0.7871;1.0043;
550.2000;0.7863;1.0019;
550.5000;0.7904;1.0092;
550.8000;0.7880;1.0019;
551.1000;0.7871;0.9994;
551.4000;0.7847;0.9897;
551.7000;0.7863;0.9946;
552.0000;0.7945;1.0092;
552.3000;0.7839;0.9921;
552.6000;0.7863;0.9994;
552.9000;0.7896;1.0092;
553.2000;0.7904;1.0068;
553.5000;0.7888;1.0092;
553.8000;0.7888;1.0092;
554.1000;0.7880;1.0043;
554.4000;0.7896;1.0068;
554.7000;0.7896;1.0116;
555.0000;0.7888;1.0043;
555.3000;0.7871;1.0043;
555.6000;0.7888;1.0092;
555.9000;0.7896;1.0141;
556.2000;0.7880;1.0116;
556.5000;0.7904;1.0238;
556.8000;0.7880;1.0165;
557.1000;0.7871;1.0165;
557.4000;0.7896;1.0214;
557.7000;0.7863;1.0287;
558.0000;0.7871;1.0360;
558.3000;0.7863;1.0384;
558.6000;0.7888;1.0336;
558.9000;0.7888;1.0263;
559.2000;0.7888;1.0311;
559.5000;0.7806;1.0141;
559.8000;0.7880;1.0263;
560.1000;0.7888;1.0238;
560.4000;0.7888;1.0238;
560.7000;0.7904;1.0311;
561.0000;0.7896;1.0287;
561.3000;0.7896;1.0238;
561.6000;0.7920;1.0287;
561.9000;0.7880;1.0214;
562.2000;0.7839;1.0019;
562.5000;0.7888;1.0068;
562.8000;0.7839;0.9946;
563.1000;0.7920;1.0141;
563.4000;0.7896;0.9994;
563.7000;0.7928;1.0092;
564.0000;0.7904;1.0019;
564.3000;0.7896;1.0116;
564.6000;0.7847;1.0043;
564.9000;0.7912;1.0165;
565.2000;0.7896;1.0189;
565.5000;0.7896;1.0238;
565.8000;0.7880;1.0189;
566.1000;0.7896;1.0141;
566.4000;0.7888;1.0189;
566.7000;0.7871;1.0092;
567.0000;0.7863;1.0068;
567.3000;0.7888;1.0214;
567.6000;0.7896;1.0238;
567.9000;0.7880;1.0141;
568.2000;0.7871;1.0116;
568.5000;0.7888;1.0092;
568.8000;0.7880;1.0092;
569.1000;0.7888;1.0068;
569.4000;0.7888;1.0068;
569.7000;0.7888;1.0043;
570.0000;0.7896;1.0043;
570.3000;0.7855;0.9970;
570.6000;0.7871;0.9970;
570.9000;0.7880;1.0068;
571.2000;0.7863;1.0019;
571.5000;0.7863;1.0043;
571.8000;0.7888;1.0092;
572.1000;0.7888;1.0141;
572.4000;0.7888;1.0141;
572.7000;0.7888;1.0287;
573.0000;0.7896;1.0336;
573.3000;0.7888;1.0287;
573.6000;0.7888;1.0360;
573.9000;0.7888;1.0384;
574.2000;0.7896;1.0384;
574.5000;0.7880;1.0238;
574.8000;0.7904;1.0336;
575.1000;0.7888;1.0287;
575.4000;0.7871;1.0214;
575.7000;0.7888;1.0263;
576.0000;0.7880;1.0214;
576.3000;0.7855;1.0189;
576.6000;0.7912;1.0238;
576.9000;0.7977;1.0433;
577.2000;0.7871;1.0214;
577.5000;0.7863;1.0189;
577.8000;0.7888;1.0116;
578.1000;0.7863;0.9994;
578.4000;0.7880;1.0043;
578.7000;0.7863;1.0068;
579.0000;0.7855;0.9970;
579.3000;0.7871;0.9970;
579.6000;0.7977;1.0384;
579.9000;0.7863;1.0189;
580.2000;0.7880;1.0238;
580.5000;0.7880;1.0214;
580.8000;0.7871;1.0189;
581.1000;0.7880;1.0165;
581.4000;0.7912;1.0263;
581.7000;0.7847;1.0043;
582.0000;0.7855;1.0043;
582.3000;0.7888;1.0141;
582.6000;0.7863;1.0068;
582.9000;0.7863;1.0116;
583.2000;0.7880;1.0116;
583.5000;0.7847;1.0043;
583.8000;0.7863;1.0092;
584.1000;0.7871;1.0238;
584.4000;0.7880;1.0263;
584.7000;0.7863;1.0360;
585.0000;0.7888;1.0311;
585.3000;0.7823;1.0141;
585.6000;0.7855;1.0116;
585.9000;0.7896;1.0141;
586.2000;0.7880;1.0092;
586.5000;0.7888;0.9994;
586.8000;0.7904;0.9946;
587.1000;0.7871;0.9824;
587.4000;0.7880;0.9897;
587.7000;0.7904;1.0068;
588.0000;0.7888;1.0092;
588.3000;0.7871;1.0019;
588.6000;0.7912;1.0141;
588.9000;0.7904;1.0068;
589.2000;0.7880;0.9994;
589.5000;0.7896;1.0043;
589.8000;0.7880;1.0043;
590.1000;0.7888;1.0043;
590.4000;0.7888;1.0165;
590.7000;0.7847;1.0165;
591.0000;0.7871;1.0165;
591.3000;0.7871;1.0189;
591.6000;0.7928;1.0287;
591.9000;0.7839;1.0092;
592.2000;0.7880;1.0116;
592.5000;0.7855;1.0165;
592.8000;0.7871;1.0214;
593.1000;0.7888;1.0238;
593.4000;0.7888;1.0214;
593.7000;0.7871;1.0141;
594.0000;0.7871;1.0214;
594.3000;0.7904;1.0263;
594.6000;0.7863;1.0092;
594.9000;0.7798;0.9946;
595.2000;0.7880;1.0141;
595.5000;0.7896;1.0116;
595.8000;0.7896;1.0068;
596.1000;0.7888;1.0043;
596.4000;0.7888;1.0068;
596.7000;0.7888;1.0238;
597.0000;0.7880;1.0336;
597.3000;0.7896;1.0384;
597.6000;0.7896;1.0384;
597.9000;0.7888;1.0384;
598.2000;0.7896;1.0384;
598.5000;0.7871;1.0311;
598.8000;0.7880;1.0311;
599.1000;0.7888;1.0360;
599.4000;0.7888;1.0238;
599.7000;0.7871;1.0189;
600.0000;0.7880;1.0287;
600.3000;0.7888;1.0141;
600.6000;0.7937;1.0068;
600.9000;0.7912;0.9799;
601.2000;0.7888;0.9531;
601.5000;0.7896;0.9385;
601.8000;0.7831;0.9214;
602.1000;0.7798;0.9068;
602.4000;0.7774;0.8995;
602.7000;0.7733;0.8897;
603.0000;0.7709;0.8849;
603.3000;0.7692;0.8727;
603.6000;0.7603;0.8410;
603.9000;0.7619;0.8459;
604.2000;0.7595;0.8288;
604.5000;0.7546;0.8117;
604.8000;0.7530;0.8044;
605.1000;0.7489;0.7947;
605.4000;0.7481;0.7898;
605.7000;0.7448;0.7874;
606.0000;0.7424;0.7825;
606.3000;0.7399;0.7776;
606.6000;0.7456;0.7874;
606.9000;0.7375;0.7679;
607.2000;0.7350;0.7630;
607.5000;0.7359;0.7581;
607.8000;0.7350;0.7484;
608.1000;0.7342;0.7581;
608.4000;0.7293;0.7484;
608.7000;0.7277;0.7581;
609.0000;0.7269;0.7703;
609.3000;0.7253;0.7679;
609.6000;0.7228;0.7581;
609.9000;0.7228;0.7557;
610.2000;0.7228;0.7532;
610.5000;0.7204;0.7459;
610.8000;0.7204;0.7532;
611.1000;0.7171;0.7557;
611.4000;0.7220;0.7776;
611.7000;0.7163;0.7679;
612.0000;0.7155;0.7581;
612.3000;0.7179;0.7630;
612.6000;0.7139;0.7459;
612.9000;0.7131;0.7484;
613.2000;0.7114;0.7410;
613.5000;0.7123;0.7459;
613.8000;0.7114;0.7532;
614.1000;0.7098;0.7532;
614.4000;0.7041;0.7459;
614.7000;0.7090;0.7410;
615.0000;0.7066;0.7410;
615.3000;0.7049;0.7362;
615.6000;0.7049;0.7337;
615.9000;0.7057;0.7313;
616.2000;0.7041;0.7289;
616.5000;0.7033;0.7289;
616.8000;0.7025;0.7362;
617.1000;0.7025;0.7386;
617.4000;0.7049;0.7410;
617.7000;0.7017;0.7410;
618.0000;0.6984;0.7386;
618.3000;0.7009;0.7362;
618.6000;0.6984;0.7289;
618.9000;0.7017;0.7435;
619.2000;0.6976;0.7362;
619.5000;0.6976;0.7337;
619.8000;0.6984;0.7362;
620.1000;0.6984;0.7289;
620.4000;0.6960;0.7264;
620.7000;0.6976;0.7337;
621.0000;0.6952;0.7313;
621.3000;0.6919;0.7215;
621.6000;0.6935;0.7289;
621.9000;0.6935;0.7362;
622.2000;0.6943;0.7386;
622.5000;0.6976;0.7459;
622.8000;0.6952;0.7508;
623.1000;0.6927;0.7508;
623.4000;0.6927;0.7484;
623.7000;0.6927;0.7386;
624.0000;0.6927;0.7386;
624.3000;0.6919;0.7435;
624.6000;0.6943;0.7484;
624.9000;0.6919;0.7410;
625.2000;0.6903;0.7313;
625.5000;0.6895;0.7386;
625.8000;0.6903;0.7435;
626.1000;0.6862;0.7337;
626.4000;0.6846;0.7337;
626.7000;0.6870;0.7264;
627.0000;0.6895;0.7215;
627.3000;0.6895;0.7142;
627.6000;0.6935;0.7337;
627.9000;0.6870;0.7240;
628.2000;0.6854;0.7289;
628.5000;0.6919;0.7459;
628.8000;0.6846;0.7313;
629.1000;0.6854;0.7313;
629.4000;0.6862;0.7337;
629.7000;0.6895;0.7435;
630.0000;0.6846;0.7410;
630.3000;0.6838;0.7289;
630.6000;0.6821;0.7215;
630.9000;0.6829;0.7337;
631.2000;0.6821;0.7337;
631.5000;0.6829;0.7337;
631.8000;0.6821;0.7435;
632.1000;0.6821;0.7532;
632.4000;0.6813;0.7532;
632.7000;0.6781;0.7410;
633.0000;0.6813;0.7459;
633.3000;0.6838;0.7532;
633.6000;0.6805;0.7484;
633.9000;0.6813;0.7532;
634.2000;0.6813;0.7410;
634.5000;0.6821;0.7410;
634.8000;0.6805;0.7410;
635.1000;0.6797;0.7337;
635.4000;0.6797;0.7386;
635.7000;0.6838;0.7508;
636.0000;0.6781;0.7435;
636.3000;0.6797;0.7435;
636.6000;0.6781;0.7362;
636.9000;0.6764;0.7264;
637.2000;0.6781;0.7289;
637.5000;0.6870;0.7508;
637.8000;0.6781;0.7240;
638.1000;0.6789;0.7313;
638.4000;0.6789;0.7313;
638.7000;0.6797;0.7386;
639.0000;0.6772;0.7313;
639.3000;0.6756;0.7264;
639.6000;0.6764;0.7289;
639.9000;0.6691;0.7167;
640.2000;0.6764;0.7386;
640.5000;0.6756;0.7410;
640.8000;0.6732;0.7362;
641.1000;0.6748;0.7410;
641.4000;0.6740;0.7362;
641.7000;0.6740;0.7410;
642.0000;0.6724;0.7386;
642.3000;0.6716;0.7459;
642.6000;0.6732;0.7557;
642.9000;0.6707;0.7435;
643.2000;0.6740;0.7532;
643.5000;0.6748;0.7532;
643.8000;0.6716;0.7410;
644.1000;0.6756;0.7484;
644.4000;0.6724;0.7410;
644.7000;0.6740;0.7410;
645.0000;0.6724;0.7459;
645.3000;0.6724;0.7484;
645.6000;0.6732;0.7508;
645.9000;0.6707;0.7459;
646.2000;0.6716;0.7484;
646.5000;0.6691;0.7410;
646.8000;0.6683;0.7362;
647.1000;0.6716;0.7410;
647.4000;0.6716;0.7435;
647.7000;0.6740;0.7435;
648.0000;0.6683;0.7435;
648.3000;0.6707;0.7532;
648.6000;0.6716;0.7557;
648.9000;0.6699;0.7630;
649.2000;0.6691;0.7703;
649.5000;0.6683;0.7581;
649.8000;0.6683;0.7532;
650.1000;0.6699;0.7557;
650.4000;0.6691;0.7508;
650.7000;0.6691;0.7459;
651.0000;0.6667;0.7410;
651.3000;0.6691;0.7459;
651.6000;0.6667;0.7410;
651.9000;0.6642;0.7386;
652.2000;0.6659;0.7410;
652.5000;0.6675;0.7410;
652.8000;0.6683;0.7410;
653.1000;0.6650;0.7410;
653.4000;0.6659;0.7435;
653.7000;0.6683;0.7508;
654.0000;0.6683;0.7508;
654.3000;0.6650;0.7435;
654.6000;0.6667;0.7313;
654.9000;0.6667;0.7289;
655.2000;0.6659;0.7215;
655.5000;0.6642;0.7240;
655.8000;0.6707;0.7435;
656.1000;0.6650;0.7410;
656.4000;0.6667;0.7386;
656.7000;0.6691;0.7362;
657.0000;0.6659;0.7362;
657.3000;0.6650;0.7410;
657.6000;0.6626;0.7435;
657.9000;0.6667;0.7459;
658.2000;0.6626;0.7410;
658.5000;0.6650;0.7435;
658.8000;0.6626;0.7386;
659.1000;0.6659;0.7435;
659.4000;0.6618;0.7410;
659.7000;0.6634;0.7508;
660.0000;0.6642;0.7508;
660.3000;0.6642;0.7459;
660.6000;0.6642;0.7386;
660.9000;0.6634;0.7289;
661.2000;0.6626;0.7289;
661.5000;0.6650;0.7337;
661.8000;0.6602;0.7313;
662.1000;0.6618;0.7313;
662.4000;0.6602;0.7289;
662.7000;0.6642;0.7289;
663.0000;0.6634;0.7240;
663.3000;0.6650;0.7313;
663.6000;0.6602;0.7337;
663.9000;0.6577;0.7240;
664.2000;0.6634;0.7459;
664.5000;0.6610;0.7362;
664.8000;0.6618;0.7386;
665.1000;0.6610;0.7386;
665.4000;0.6602;0.7337;
665.7000;0.6610;0.7337;
666.0000;0.6602;0.7362;
666.3000;0.6585;0.7435;
666.6000;0.6610;0.7435;
666.9000;0.6626;0.7362;
667.2000;0.6602;0.7362;
667.5000;0.6520;0.7167;
667.8000;0.6553;0.7313;
668.1000;0.6577;0.7386;
668.4000;0.6593;0.7410;
668.7000;0.6585;0.7386;
669.0000;0.6569;0.7313;
669.3000;0.6602;0.7532;
669.6000;0.6642;0.7605;
669.9000;0.6593;0.7532;
670.2000;0.6585;0.7557;
670.5000;0.6585;0.7532;
670.8000;0.6585;0.7459;
671.1000;0.6585;0.7337;
671.4000;0.6577;0.7264;
671.7000;0.6577;0.7191;
672.0000;0.6545;0.7215;
672.3000;0.6577;0.7240;
672.6000;0.6610;0.7337;
672.9000;0.6553;0.7289;
673.2000;0.6585;0.7410;
673.5000;0.6569;0.7459;
673.8000;0.6577;0.7581;
674.1000;0.6577;0.7557;
674.4000;0.6561;0.7557;
674.7000;0.6471;0.7264;
675.0000;0.6569;0.7435;
675.3000;0.6553;0.7435;
675.6000;0.6520;0.7264;
675.9000;0.6626;0.7459;
676.2000;0.6618;0.7508;
676.5000;0.6569;0.7435;
676.8000;0.6569;0.7532;
677.1000;0.6561;0.7484;
677.4000;0.6602;0.7532;
677.7000;0.6561;0.7459;
678.0000;0.6577;0.7532;
678.3000;0.6561;0.7435;
678.6000;0.6553;0.7459;
678.9000;0.6634;0.7703;
679.2000;0.6561;0.7508;
679.5000;0.6553;0.7484;
679.8000;0.6545;0.7459;
680.1000;0.6536;0.7435;
680.4000;0.6553;0.7532;
680.7000;0.6610;0.7654;
681.0000;0.6528;0.7459;
681.3000;0.6536;0.7508;
681.6000;0.6528;0.7435;
681.9000;0.6553;0.7410;
682.2000;0.6528;0.7289;
682.5000;0.6536;0.7313;
682.8000;0.6512;0.7264;
683.1000;0.6545;0.7410;
683.4000;0.6536;0.7459;
683.7000;0.6496;0.7435;
684.0000;0.6520;0.7459;
684.3000;0.6520;0.7410;
684.6000;0.6536;0.7386;
684.9000;0.6504;0.7215;
685.2000;0.6528;0.7167;
685.5000;0.6528;0.7167;
685.8000;0.6545;0.7142;
686.1000;0.6528;0.7094;
686.4000;0.6528;0.7118;
686.7000;0.6512;0.7264;
687.0000;0.6504;0.7313;
687.3000;0.6520;0.7240;
687.6000;0.6496;0.7264;
687.9000;0.6528;0.7313;
688.2000;0.6504;0.7167;
688.5000;0.6496;0.7167;
688.8000;0.6520;0.7289;
689.1000;0.6512;0.7240;
689.4000;0.6512;0.7240;
689.7000;0.6528;0.7264;
690.0000;0.6488;0.7094;
690.3000;0.6512;0.7118;
690.6000;0.6512;0.7240;
690.9000;0.6528;0.7313;
691.2000;0.6504;0.7240;
691.5000;0.6496;0.7289;
691.8000;0.6496;0.7289;
692.1000;0.6520;0.7313;
692.4000;0.6496;0.7289;
692.7000;0.6496;0.7240;
693.0000;0.6520;0.7289;
693.3000;0.6512;0.7240;
693.6000;0.6512;0.7313;
693.9000;0.6447;0.7142;
694.2000;0.6496;0.7362;
694.5000;0.6504;0.7362;
694.8000;0.6496;0.7313;
695.1000;0.6488;0.7215;
695.4000;0.6504;0.7215;
695.7000;0.6512;0.7191;
696.0000;0.6479;0.7167;
696.3000;0.6479;0.7289;
696.6000;0.6471;0.7313;
696.9000;0.6479;0.7337;
697.2000;0.6504;0.7435;
697.5000;0.6479;0.7386;
697.8000;0.6488;0.7337;
698.1000;0.6488;0.7435;
698.4000;0.6479;0.7557;
698.7000;0.6479;0.7532;
699.0000;0.6471;0.7508;
699.3000;0.6479;0.7410;
699.6000;0.6463;0.7313;
699.9000;0.6471;0.7289;
700.2000;0.6479;0.7386;
700.5000;0.6569;0.7630;
700.8000;0.6471;0.7362;
701.1000;0.6463;0.7386;
701.4000;0.6455;0.7289;
701.7000;0.6431;0.7215;
702.0000;0.6479;0.7313;
702.3000;0.6471;0.7289;
702.6000;0.6496;0.7215;
702.9000;0.6471;0.7167;
703.2000;0.6471;0.7191;
703.5000;0.6471;0.7215;
703.8000;0.6479;0.7289;
704.1000;0.6479;0.7240;
704.4000;0.6455;0.7094;
704.7000;0.6471;0.7240;
705.0000;0.6455;0.7289;
705.3000;0.6463;0.7215;
705.6000;0.6471;0.7240;
705.9000;0.6471;0.7313;
706.2000;0.6455;0.7240;
706.5000;0.6463;0.7289;
706.8000;0.6455;0.7264;
707.1000;0.6463;0.7289;
707.4000;0.6439;0.7264;
707.7000;0.6463;0.7313;
708.0000;0.6455;0.7264;
708.3000;0.6455;0.7313;
708.6000;0.6431;0.7337;
708.9000;0.6463;0.7386;
709.2000;0.6455;0.7410;
709.5000;0.6447;0.7313;
709.8000;0.6431;0.7313;
710.1000;0.6455;0.7386;
710.4000;0.6431;0.7240;
710.7000;0.6447;0.7240;
711.0000;0.6447;0.7313;
711.3000;0.6422;0.7386;
711.6000;0.6463;0.7435;
711.9000;0.6439;0.7410;
712.2000;0.6455;0.7459;
712.5000;0.6455;0.7435;
712.8000;0.6439;0.7313;
713.1000;0.6431;0.7264;
713.4000;0.6431;0.7167;
713.7000;0.6431;0.7167;
714.0000;0.6455;0.7337;
714.3000;0.6422;0.7313;
714.6000;0.6455;0.7410;
714.9000;0.6439;0.7191;
715.2000;0.6439;0.7240;
715.5000;0.6365;0.7142;
715.8000;0.6479;0.7459;
716.1000;0.6422;0.7435;
716.4000;0.6455;0.7484;
716.7000;0.6431;0.7337;
717.0000;0.6422;0.7289;
717.3000;0.6349;0.7045;
717.6000;0.6398;0.7191;
717.9000;0.6398;0.7240;
718.2000;0.6414;0.7167;
718.5000;0.6455;0.7313;
718.8000;0.6447;0.7313;
719.1000;0.6439;0.7289;
719.4000;0.6463;0.7313;
719.7000;0.6422;0.7240;
720.0000;0.6431;0.7142;
720.3000;0.6512;0.7264;
720.6000;0.6414;0.7094;
720.9000;0.6431;0.7142;
721.2000;0.6422;0.7094;
721.5000;0.6439;0.7094;
721.8000;0.6431;0.7094;
722.1000;0.6431;0.7142;
722.4000;0.6439;0.7191;
722.7000;0.6414;0.7167;
723.0000;0.6414;0.7142;
723.3000;0.6390;0.7191;
723.6000;0.6422;0.7240;
723.9000;0.6414;0.7215;
724.2000;0.6422;0.7289;
724.5000;0.6414;0.7167;
724.8000;0.6406;0.7142;
725.1000;0.6422;0.7191;
725.4000;0.6414;0.7191;
725.7000;0.6463;0.7337;
726.0000;0.6422;0.7240;
726.3000;0.6422;0.7167;
726.6000;0.6439;0.7167;
726.9000;0.6414;0.7069;
727.2000;0.6390;0.7069;
727.5000;0.6422;0.7094;
727.8000;0.6414;0.7020;
728.1000;0.6406;0.7045;
728.4000;0.6406;0.7094;
728.7000;0.6414;0.7167;
729.0000;0.6414;0.7191;
729.3000;0.6414;0.7191;
729.6000;0.6414;0.7191;
729.9000;0.6398;0.7240;
730.2000;0.6406;0.7264;
730.5000;0.6398;0.7313;
730.8000;0.6382;0.7215;
731.1000;0.6422;0.7215;
731.4000;0.6414;0.7167;
731.7000;0.6398;0.7118;
732.0000;0.6414;0.7167;
732.3000;0.6374;0.7142;
732.6000;0.6382;0.7167;
732.9000;0.6406;0.7215;
733.2000;0.6439;0.7264;
733.5000;0.6390;0.7020;
733.8000;0.6414;0.7069;
734.1000;0.6398;0.7118;
734.4000;0.6382;0.7118;
734.7000;0.6398;0.7142;
735.0000;0.6374;0.7020;
735.3000;0.6406;0.7069;
735.6000;0.6406;0.7191;
735.9000;0.6406;0.7215;
736.2000;0.6398;0.7191;
736.5000;0.6422;0.7215;
736.8000;0.6414;0.7215;
737.1000;0.6390;0.7094;
737.4000;0.6317;0.6899;
737.7000;0.6398;0.7215;
738.0000;0.6382;0.7240;
738.3000;0.6398;0.7410;
738.6000;0.6398;0.7435;
738.9000;0.6390;0.7410;
739.2000;0.6398;0.7313;
739.5000;0.6374;0.7167;
739.8000;0.6398;0.7191;
740.1000;0.6382;0.7142;
740.4000;0.6455;0.7313;
740.7000;0.6374;0.7215;
741.0000;0.6406;0.7240;
741.3000;0.6382;0.7118;
741.6000;0.6414;0.7215;
741.9000;0.6406;0.7313;
742.2000;0.6382;0.7191;
742.5000;0.6390;0.7240;
742.8000;0.6382;0.7313;
743.1000;0.6374;0.7386;
743.4000;0.6357;0.7410;
743.7000;0.6406;0.7508;
744.0000;0.6374;0.7410;
744.3000;0.6398;0.7557;
744.6000;0.6365;0.7435;
744.9000;0.6382;0.7484;
745.2000;0.6382;0.7459;
745.5000;0.6374;0.7459;
745.8000;0.6374;0.7484;
746.1000;0.6365;0.7459;
746.4000;0.6382;0.7459;
746.7000;0.6374;0.7386;
747.0000;0.6374;0.7435;
747.3000;0.6365;0.7362;
747.6000;0.6374;0.7435;
747.9000;0.6374;0.7435;
748.2000;0.6382;0.7459;
748.5000;0.6357;0.7337;
748.8000;0.6357;0.7289;
749.1000;0.6382;0.7362;
749.4000;0.6374;0.7289;
749.7000;0.6455;0.7410;
750.0000;0.6374;0.7289;
750.3000;0.6374;0.7313;
750.6000;0.6382;0.7337;
750.9000;0.6374;0.7191;
751.2000;0.6357;0.7142;
751.5000;0.6374;0.7289;
751.8000;0.6374;0.7362;
752.1000;0.6374;0.7313;
752.4000;0.6341;0.7191;
752.7000;0.6365;0.7289;
753.0000;0.6374;0.7362;
753.3000;0.6382;0.7410;
753.6000;0.6357;0.7313;
753.9000;0.6357;0.7264;
754.2000;0.6374;0.7313;
754.5000;0.6382;0.7337;
754.8000;0.6317;0.7215;
755.1000;0.6357;0.7362;
755.4000;0.6374;0.7532;
755.7000;0.6365;0.7557;
756.0000;0.6349;0.7532;
756.3000;0.6357;0.7459;
756.6000;0.6365;0.7532;
756.9000;0.6365;0.7557;
757.2000;0.6357;0.7532;
757.5000;0.6349;0.7508;
757.8000;0.6349;0.7459;
758.1000;0.6357;0.7581;
758.4000;0.6357;0.7532;
758.7000;0.6341;0.7459;
759.0000;0.6317;0.7386;
759.3000;0.6365;0.7435;
759.6000;0.6398;0.7532;
759.9000;0.6357;0.7386;
760.2000;0.6365;0.7410;
760.5000;0.6357;0.7289;
760.8000;0.6357;0.7264;
761.1000;0.6341;0.7215;
761.4000;0.6341;0.7118;
761.7000;0.6333;0.7020;
762.0000;0.6365;0.7094;
762.3000;0.6349;0.7020;
762.6000;0.6357;0.7020;
762.9000;0.6341;0.6972;
763.2000;0.6341;0.6923;
763.5000;0.6357;0.7020;
763.8000;0.6357;0.7020;
764.1000;0.6357;0.7069;
764.4000;0.6365;0.7167;
764.7000;0.6357;0.7215;
765.0000;0.6365;0.7191;
765.3000;0.6357;0.7142;
765.6000;0.6357;0.7215;
765.9000;0.6349;0.7167;
766.2000;0.6349;0.7191;
766.5000;0.6341;0.7191;
766.8000;0.6398;0.7410;
767.1000;0.6382;0.7410;
767.4000;0.6349;0.7337;
767.7000;0.6374;0.7337;
768.0000;0.6365;0.7410;
768.3000;0.6365;0.7435;
768.6000;0.6357;0.7435;
768.9000;0.6390;0.7484;
769.2000;0.6341;0.7484;
769.5000;0.6341;0.7484;
769.8000;0.6374;0.7484;
770.1000;0.6365;0.7386;
770.4000;0.6357;0.7410;
770.7000;0.6325;0.7508;
771.0000;0.6260;0.7362;
771.3000;0.6349;0.7557;
771.6000;0.6333;0.7435;
771.9000;0.6325;0.7362;
772.2000;0.6349;0.7386;
772.5000;0.6357;0.7240;
772.8000;0.6333;0.7289;
773.1000;0.6341;0.7362;
773.4000;0.6341;0.7362;
773.7000;0.6325;0.7289;
774.0000;0.6309;0.7313;
774.3000;0.6349;0.7337;
774.6000;0.6341;0.7337;
774.9000;0.6260;0.7069;
775.2000;0.6317;0.7264;
775.5000;0.6341;0.7289;
775.8000;0.6325;0.7289;
776.1000;0.6365;0.7508;
776.4000;0.6333;0.7386;
776.7000;0.6333;0.7313;
777.0000;0.6333;0.7240;
777.3000;0.6365;0.7289;
777.6000;0.6341;0.7167;
777.9000;0.6333;0.7191;
778.2000;0.6268;0.7069;
778.5000;0.6357;0.7362;
778.8000;0.6333;0.7313;
779.1000;0.6349;0.7289;
779.4000;0.6349;0.7313;
779.7000;0.6349;0.7435;
780.0000;0.6349;0.7435;
780.3000;0.6341;0.7484;
780.6000;0.6317;0.7435;
780.9000;0.6317;0.7289;
781.2000;0.6333;0.7362;
781.5000;0.6333;0.7337;
781.8000;0.6325;0.7264;
782.1000;0.6341;0.7289;
782.4000;0.6292;0.7313;
782.7000;0.6325;0.7386;
783.0000;0.6341;0.7459;
783.3000;0.6309;0.7459;
783.6000;0.6309;0.7410;
783.9000;0.6333;0.7362;
784.2000;0.6325;0.7386;
784.5000;0.6341;0.7532;
784.8000;0.6333;0.7484;
785.1000;0.6309;0.7459;
785.4000;0.6284;0.7508;
785.7000;0.6406;0.7801;
786.0000;0.6309;0.7581;
786.3000;0.6325;0.7605;
786.6000;0.6325;0.7532;
786.9000;0.6317;0.7459;
787.2000;0.6325;0.7484;
787.5000;0.6325;0.7532;
787.8000;0.6309;0.7386;
788.1000;0.6325;0.7459;
788.4000;0.6268;0.7289;
788.7000;0.6357;0.7435;
789.0000;0.6333;0.7386;
789.3000;0.6325;0.7459;
789.6000;0.6333;0.7532;
789.9000;0.6333;0.7532;
790.2000;0.6325;0.7459;
790.5000;0.6390;0.7581;
790.8000;0.6309;0.7410;
791.1000;0.6349;0.7435;
791.4000;0.6268;0.7240;
791.7000;0.6357;0.7459;
792.0000;0.6309;0.7337;
792.3000;0.6317;0.7337;
792.6000;0.6309;0.7410;
792.9000;0.6341;0.7532;
793.2000;0.6325;0.7386;
793.5000;0.6333;0.7313;
793.8000;0.6357;0.7362;
794.1000;0.6300;0.7191;
794.4000;0.6325;0.7167;
794.7000;0.6341;0.7240;
795.0000;0.6341;0.7313;
795.3000;0.6333;0.7386;
795.6000;0.6317;0.7313;
795.9000;0.6309;0.7337;
796.2000;0.6317;0.7386;
796.5000;0.6325;0.7459;
796.8000;0.6317;0.7410;
797.1000;0.6317;0.7337;
797.4000;0.6365;0.7410;
797.7000;0.6309;0.7386;
798.0000;0.6300;0.7484;
798.3000;0.6341;0.7508;
798.6000;0.6414;0.7752;
798.9000;0.6341;0.7532;
799.2000;0.6309;0.7459;
799.5000;0.6317;0.7532;
799.8000;0.6284;0.7484;
800.1000;0.6300;0.7484;
800.4000;0.6325;0.7459;
800.7000;0.6219;0.7215;
801.0000;0.6292;0.7313;
801.3000;0.6309;0.7484;
801.6000;0.6317;0.7435;
801.9000;0.6309;0.7337;
802.2000;0.6317;0.7215;
802.5000;0.6325;0.7240;
802.8000;0.6349;0.7337;
803.1000;0.6284;0.7167;
803.4000;0.6300;0.7240;
803.7000;0.6284;0.7215;
804.0000;0.6317;0.7313;
804.3000;0.6309;0.7386;
804.6000;0.6292;0.7289;
804.9000;0.6300;0.7386;
805.2000;0.6317;0.7386;
805.5000;0.6309;0.7386;
805.8000;0.6317;0.7410;
806.1000;0.6292;0.7410;
806.4000;0.6325;0.7362;
806.7000;0.6260;0.7191;
807.0000;0.6317;0.7386;
807.3000;0.6309;0.7362;
807.6000;0.6317;0.7508;
807.9000;0.6300;0.7386;
808.2000;0.6317;0.7459;
808.5000;0.6341;0.7581;
808.8000;0.6300;0.7410;
809.1000;0.6309;0.7508;
809.4000;0.6317;0.7557;
809.7000;0.6309;0.7532;
810.0000;0.6325;0.7532;
810.3000;0.6357;0.7605;
810.6000;0.6333;0.7654;
810.9000;0.6300;0.7484;
811.2000;0.6292;0.7410;
811.5000;0.6357;0.7605;
811.8000;0.6365;0.7703;
812.1000;0.6317;0.7532;
812.4000;0.6284;0.7484;
812.7000;0.6325;0.7557;
813.0000;0.6260;0.7410;
813.3000;0.6300;0.7435;
813.6000;0.6309;0.7435;
813.9000;0.6333;0.7386;
814.2000;0.6309;0.7337;
814.5000;0.6268;0.7142;
814.8000;0.6390;0.7362;
815.1000;0.6309;0.7167;
815.4000;0.6317;0.7191;
815.7000;0.6317;0.7264;
816.0000;0.6309;0.7313;
816.3000;0.6349;0.7410;
816.6000;0.6235;0.7167;
816.9000;0.6317;0.7289;
817.2000;0.6300;0.7289;
817.5000;0.6300;0.7264;
817.8000;0.6325;0.7289;
818.1000;0.6300;0.7289;
818.4000;0.6300;0.7264;
818.7000;0.6292;0.7215;
819.0000;0.6252;0.7215;
819.3000;0.6300;0.7313;
819.6000;0.6300;0.7337;
819.9000;0.6292;0.7435;
820.2000;0.6300;0.7410;
820.5000;0.6325;0.7362;
820.8000;0.6317;0.7459;
821.1000;0.6309;0.7484;
821.4000;0.6292;0.7459;
821.7000;0.6292;0.7532;
822.0000;0.6357;0.7654;
822.3000;0.6292;0.7484;
822.6000;0.6309;0.7484;
822.9000;0.6317;0.7532;
823.2000;0.6292;0.7362;
823.5000;0.6276;0.7337;
823.8000;0.6292;0.7435;
824.1000;0.6284;0.7313;
824.4000;0.6268;0.7289;
824.7000;0.6317;0.7386;
825.0000;0.6309;0.7313;
825.3000;0.6268;0.7264;
825.6000;0.6284;0.7313;
825.9000;0.6227;0.7215;
826.2000;0.6300;0.7362;
826.5000;0.6268;0.7240;
826.8000;0.6284;0.7264;
827.1000;0.6284;0.7289;
827.4000;0.6284;0.7362;
827.7000;0.6268;0.7386;
828.0000;0.6276;0.7386;
828.3000;0.6284;0.7435;
828.6000;0.6317;0.7508;
828.9000;0.6284;0.7386;
829.2000;0.6276;0.7386;
829.5000;0.6292;0.7386;
829.8000;0.6276;0.7337;
830.1000;0.6309;0.7435;
830.4000;0.6292;0.7508;
830.7000;0.6300;0.7532;
831.0000;0.6284;0.7410;
831.3000;0.6309;0.7362;
831.6000;0.6268;0.7264;
831.9000;0.6300;0.7240;
832.2000;0.6292;0.7240;
832.5000;0.6309;0.7313;
832.8000;0.6260;0.7142;
833.1000;0.6292;0.7264;
833.4000;0.6276;0.7215;
833.7000;0.6235;0.7118;
834.0000;0.6284;0.7289;
834.3000;0.6276;0.7264;
834.6000;0.6309;0.7313;
834.9000;0.6276;0.7240;
835.2000;0.6284;0.7289;
835.5000;0.6365;0.7484;
835.8000;0.6284;0.7313;
836.1000;0.6284;0.7240;
836.4000;0.6292;0.7191;
836.7000;0.6260;0.7094;
837.0000;0.6260;0.7118;
837.3000;0.6252;0.7118;
837.6000;0.6309;0.7167;
837.9000;0.6284;0.7167;
838.2000;0.6268;0.7167;
838.5000;0.6398;0.7508;
838.8000;0.6243;0.7142;
839.1000;0.6268;0.7240;
839.4000;0.6300;0.7362;
839.7000;0.6219;0.7167;
840.0000;0.6284;0.7410;
840.3000;0.6268;0.7337;
840.6000;0.6268;0.7215;
840.9000;0.6284;0.7240;
841.2000;0.6292;0.7240;
841.5000;0.6276;0.7240;
841.8000;0.6268;0.7167;
842.1000;0.6341;0.7289;
842.4000;0.6276;0.7142;
842.7000;0.6276;0.7191;
843.0000;0.6276;0.7191;
843.3000;0.6284;0.7240;
843.6000;0.6276;0.7215;
843.9000;0.6268;0.7142;
844.2000;0.6317;0.7191;
844.5000;0.6276;0.7094;
844.8000;0.6268;0.7215;
845.1000;0.6276;0.7264;
845.4000;0.6276;0.7240;
845.7000;0.6300;0.7337;
846.0000;0.6284;0.7410;
846.3000;0.6284;0.7386;
846.6000;0.6300;0.7386;
846.9000;0.6284;0.7435;
847.2000;0.6365;0.7605;
847.5000;0.6276;0.7435;
847.8000;0.6309;0.7508;
848.1000;0.6268;0.7410;
848.4000;0.6211;0.7191;
848.7000;0.6268;0.7289;
849.0000;0.6292;0.7289;
849.3000;0.6252;0.7215;
849.6000;0.6292;0.7313;
849.9000;0.6276;0.7386;
850.2000;0.6268;0.7313;
850.5000;0.6276;0.7264;
850.8000;0.6276;0.7167;
851.1000;0.6276;0.7167;
851.4000;0.6268;0.7094;
851.7000;0.6276;0.7215;
852.0000;0.6276;0.7313;
852.3000;0.6268;0.7313;
852.6000;0.6252;0.7215;
852.9000;0.6268;0.7264;
853.2000;0.6260;0.7215;
853.5000;0.6284;0.7289;
853.8000;0.6276;0.7313;
854.1000;0.6268;0.7289;
854.4000;0.6276;0.7362;
854.7000;0.6252;0.7264;
855.0000;0.6276;0.7289;
855.3000;0.6276;0.7264;
855.6000;0.6219;0.7045;
855.9000;0.6268;0.7240;
856.2000;0.6252;0.7142;
856.5000;0.6284;0.7142;
856.8000;0.6276;0.7167;
857.1000;0.6276;0.7167;
857.4000;0.6300;0.7264;
857.7000;0.6268;0.7264;
858.0000;0.6243;0.7240;
858.3000;0.6284;0.7410;
858.6000;0.6260;0.7337;
858.9000;0.6284;0.7435;
859.2000;0.6284;0.7337;
859.5000;0.6260;0.7215;
859.8000;0.6284;0.7240;
860.1000;0.6284;0.7240;
860.4000;0.6276;0.7264;
860.7000;0.6252;0.7215;
861.0000;0.6260;0.7240;
861.3000;0.6268;0.7215;
861.6000;0.6252;0.7142;
861.9000;0.6284;0.7167;
862.2000;0.6243;0.7069;
862.5000;0.6260;0.7118;
862.8000;0.6252;0.7118;
863.1000;0.6243;0.7118;
863.4000;0.6260;0.7289;
863.7000;0.6317;0.7484;
864.0000;0.6284;0.7362;
864.3000;0.6260;0.7240;
864.6000;0.6252;0.7240;
864.9000;0.6186;0.7069;
865.2000;0.6276;0.7289;
865.5000;0.6276;0.7215;
865.8000;0.6243;0.7142;
866.1000;0.6235;0.7191;
866.4000;0.6276;0.7264;
866.7000;0.6292;0.7362;
867.0000;0.6276;0.7264;
867.3000;0.6260;0.7240;
867.6000;0.6252;0.7313;
867.9000;0.6300;0.7362;
868.2000;0.6268;0.7167;
868.5000;0.6260;0.7167;
868.8000;0.6349;0.7362;
869.1000;0.6292;0.7142;
869.4000;0.6268;0.7045;
869.7000;0.6268;0.7094;
870.0000;0.6260;0.7167;
870.3000;0.6276;0.7167;
870.6000;0.6276;0.7191;
870.9000;0.6284;0.7215;
871.2000;0.6276;0.7313;
871.5000;0.6284;0.7264;
871.8000;0.6284;0.7240;
872.1000;0.6268;0.7240;
872.4000;0.6268;0.7313;
872.7000;0.6260;0.7264;
873.0000;0.6276;0.7289;
873.3000;0.6252;0.7118;
873.6000;0.6243;0.7289;
873.9000;0.6268;0.7435;
874.2000;0.6300;0.7435;
874.5000;0.6260;0.7240;
874.8000;0.6252;0.7191;
875.1000;0.6235;0.7215;
875.4000;0.6276;0.7240;
875.7000;0.6260;0.7215;
876.0000;0.6260;0.7215;
876.3000;0.6292;0.7362;
876.6000;0.6292;0.7386;
876.9000;0.6268;0.7386;
877.2000;0.6268;0.7410;
877.5000;0.6260;0.7435;
877.8000;0.6252;0.7508;
878.1000;0.6276;0.7605;
878.4000;0.6260;0.7557;
878.7000;0.6276;0.7484;
879.0000;0.6276;0.7484;
879.3000;0.6252;0.7435;
879.6000;0.6284;0.7532;
879.9000;0.6276;0.7605;
880.2000;0.6243;0.7581;
880.5000;0.6284;0.7557;
880.8000;0.6268;0.7484;
881.1000;0.6268;0.7386;
881.4000;0.6260;0.7410;
881.7000;0.6374;0.7630;
882.0000;0.6276;0.7459;
882.3000;0.6260;0.7386;
882.6000;0.6276;0.7410;
882.9000;0.6292;0.7435;
883.2000;0.6268;0.7386;
883.5000;0.6243;0.7337;
883.8000;0.6333;0.7557;
884.1000;0.6268;0.7386;
884.4000;0.6268;0.7362;
884.7000;0.6252;0.7240;
885.0000;0.6260;0.7289;
885.3000;0.6260;0.7289;
885.6000;0.6252;0.7289;
885.9000;0.6260;0.7410;
886.2000;0.6243;0.7435;
886.5000;0.6260;0.7484;
886.8000;0.6276;0.7484;
887.1000;0.6243;0.7386;
887.4000;0.6276;0.7435;
887.7000;0.6252;0.7289;
888.0000;0.6268;0.7362;
888.3000;0.6260;0.7289;
888.6000;0.6260;0.7289;
888.9000;0.6252;0.7289;
889.2000;0.6260;0.7362;
889.5000;0.6219;0.7289;
889.8000;0.6252;0.7410;
890.1000;0.6252;0.7362;
890.4000;0.6260;0.7508;
890.7000;0.6243;0.7484;
891.0000;0.6260;0.7459;
891.3000;0.6276;0.7532;
891.6000;0.6284;0.7484;
891.9000;0.6260;0.7362;
892.2000;0.6252;0.7459;
892.5000;0.6243;0.7410;
892.8000;0.6211;0.7289;
893.1000;0.6260;0.7362;
893.4000;0.6260;0.7337;
893.7000;0.6252;0.7289;
894.0000;0.6349;0.7581;
894.3000;0.6252;0.7362;
894.6000;0.6252;0.7337;
894.9000;0.6227;0.7215;
895.2000;0.6260;0.7240;
895.5000;0.6260;0.7191;
895.8000;0.6243;0.7240;
896.1000;0.6243;0.7240;
896.4000;0.6260;0.7240;
896.7000;0.6268;0.7240;
897.0000;0.6252;0.7215;
897.3000;0.6252;0.7240;
897.6000;0.6252;0.7386;
897.9000;0.6219;0.7362;
898.2000;0.6243;0.7459;
898.5000;0.6284;0.7386;
898.8000;0.6243;0.7264;
899.1000;0.6260;0.7337;
899.4000;0.6243;0.7289;
899.7000;0.6252;0.7313;
900.0000;0.6243;0.7289;
900.3000;0.6252;0.7362;
900.6000;0.6227;0.7240;
900.9000;0.6309;0.7386;
901.2000;0.6252;0.7313;
901.5000;0.6260;0.7410;
901.8000;0.6268;0.7508;
902.1000;0.6260;0.7508;
902.4000;0.6252;0.7459;
902.7000;0.6260;0.7435;
903.0000;0.6211;0.7435;
903.3000;0.6260;0.7508;
903.6000;0.6243;0.7410;
903.9000;0.6300;0.7508;
904.2000;0.6252;0.7386;
904.5000;0.6268;0.7435;
904.8000;0.6325;0.7532;
905.1000;0.6357;0.7557;
905.4000;0.6227;0.7191;
905.7000;0.6260;0.7362;
906.0000;0.6268;0.7289;
906.3000;0.6235;0.7264;
906.6000;0.6252;0.7264;
906.9000;0.6260;0.7313;
907.2000;0.6211;0.7240;
907.5000;0.6243;0.7386;
907.8000;0.6219;0.7313;
908.1000;0.6227;0.7337;
908.4000;0.6178;0.7069;
908.7000;0.6252;0.7289;
909.0000;0.6243;0.7362;
909.3000;0.6260;0.7313;
909.6000;0.6203;0.7094;
909.9000;0.6219;0.7142;
910.2000;0.6268;0.7215;
910.5000;0.6260;0.7289;
910.8000;0.6268;0.7264;
911.1000;0.6268;0.7215;
911.4000;0.6243;0.7167;
911.7000;0.6219;0.7118;
912.0000;0.6260;0.7240;
912.3000;0.6252;0.7313;
912.6000;0.6235;0.7289;
912.9000;0.6235;0.7191;
913.2000;0.6252;0.7264;
913.5000;0.6211;0.7167;
913.8000;0.6243;0.7240;
914.1000;0.6235;0.7191;
914.4000;0.6276;0.7289;
914.7000;0.6243;0.7240;
915.0000;0.6243;0.7240;
915.3000;0.6260;0.7215;
915.6000;0.6243;0.7094;
915.9000;0.6268;0.7094;
916.2000;0.6260;0.7167;
916.5000;0.6235;0.7191;
916.8000;0.6243;0.7167;
917.1000;0.6186;0.7045;
917.4000;0.6268;0.7313;
917.7000;0.6252;0.7337;
918.0000;0.6219;0.7289;
918.3000;0.6243;0.7362;
918.6000;0.6268;0.7386;
918.9000;0.6211;0.7215;
919.2000;0.6235;0.7289;
919.5000;0.6227;0.7289;
919.8000;0.6227;0.7289;
920.1000;0.6243;0.7264;
920.4000;0.6243;0.7215;
920.7000;0.6243;0.7142;
921.0000;0.6227;0.7094;
921.3000;0.6243;0.7142;
921.6000;0.6260;0.7264;
921.9000;0.6203;0.7191;
922.2000;0.6243;0.7337;
922.5000;0.6227;0.7386;
922.8000;0.6235;0.7337;
923.1000;0.6243;0.7337;
923.4000;0.6243;0.7362;
923.7000;0.6243;0.7289;
924.0000;0.6219;0.7240;
924.3000;0.6227;0.7240;
924.6000;0.6235;0.7264;
924.9000;0.6252;0.7386;
925.2000;0.6227;0.7410;
925.5000;0.6292;0.7605;
925.8000;0.6227;0.7362;
926.1000;0.6235;0.7289;
926.4000;0.6243;0.7313;
926.7000;0.6227;0.7240;
927.0000;0.6219;0.7167;
927.3000;0.6292;0.7289;
927.6000;0.6260;0.7215;
927.9000;0.6227;0.7167;
928.2000;0.6235;0.7215;
928.5000;0.6195;0.7118;
928.8000;0.6243;0.7215;
929.1000;0.6349;0.7581;
929.4000;0.6235;0.7313;
929.7000;0.6235;0.7484;
930.0000;0.6243;0.7484;
930.3000;0.6243;0.7557;
930.6000;0.6211;0.7508;
930.9000;0.6227;0.7532;
931.2000;0.6260;0.7581;
931.5000;0.6203;0.7362;
931.8000;0.6243;0.7410;
932.1000;0.6252;0.7459;
932.4000;0.6195;0.7289;
932.7000;0.6243;0.7386;
933.0000;0.6235;0.7410;
933.3000;0.6235;0.7362;
933.6000;0.6243;0.7362;
933.9000;0.6292;0.7581;
934.2000;0.6260;0.7435;
934.5000;0.6219;0.7410;
934.8000;0.6227;0.7459;
935.1000;0.6243;0.7459;
935.4000;0.6252;0.7557;
935.7000;0.6235;0.7581;
936.0000;0.6268;0.7630;
936.3000;0.6243;0.7532;
936.6000;0.6252;0.7484;
936.9000;0.6235;0.7532;
937.2000;0.6284;0.7654;
937.5000;0.6252;0.7630;
937.8000;0.6243;0.7557;
938.1000;0.6227;0.7532;
938.4000;0.6235;0.7508;
938.7000;0.6276;0.7630;
939.0000;0.6243;0.7508;
939.3000;0.6227;0.7508;
939.6000;0.6243;0.7557;
939.9000;0.6219;0.7459;
940.2000;0.6252;0.7508;
940.5000;0.6235;0.7459;
940.8000;0.6268;0.7386;
941.1000;0.6260;0.7410;
941.4000;0.6252;0.7410;
941.7000;0.6235;0.7410;
942.0000;0.6227;0.7435;
942.3000;0.6252;0.7532;
942.6000;0.6219;0.7410;
942.9000;0.6227;0.7337;
943.2000;0.6235;0.7289;
943.5000;0.6219;0.7289;
943.8000;0.6227;0.7386;
944.1000;0.6243;0.7532;
944.4000;0.6227;0.7410;
944.7000;0.6243;0.7362;
945.0000;0.6219;0.7362;
945.3000;0.6252;0.7410;
945.6000;0.6260;0.7459;
945.9000;0.6195;0.7362;
946.2000;0.6178;0.7337;
946.5000;0.6235;0.7508;
946.8000;0.6252;0.7557;
947.1000;0.6227;0.7484;
947.4000;0.6227;0.7484;
947.7000;0.6252;0.7484;
948.0000;0.6235;0.7532;
948.3000;0.6243;0.7508;
948.6000;0.6219;0.7337;
948.9000;0.6219;0.7337;
949.2000;0.6211;0.7337;
949.5000;0.6252;0.7386;
949.8000;0.6211;0.7264;
950.1000;0.6227;0.7313;
950.4000;0.6235;0.7264;
950.7000;0.6235;0.7191;
951.0000;0.6219;0.7167;
951.3000;0.6227;0.7191;
951.6000;0.6276;0.7386;
951.9000;0.6227;0.7240;
952.2000;0.6219;0.7240;
952.5000;0.6195;0.7142;
952.8000;0.6219;0.7167;
953.1000;0.6227;0.7191;
953.4000;0.6227;0.7118;
953.7000;0.6227;0.7142;
954.0000;0.6243;0.7142;
954.3000;0.6211;0.7069;
954.6000;0.6227;0.7191;
954.9000;0.6268;0.7191;
955.2000;0.6227;0.7094;
955.5000;0.6235;0.7191;
955.8000;0.6227;0.7264;
956.1000;0.6252;0.7191;
956.4000;0.6235;0.7167;
956.7000;0.6211;0.7094;
957.0000;0.6235;0.7167;
957.3000;0.6243;0.7142;
957.6000;0.6227;0.7167;
957.9000;0.6243;0.7142;
958.2000;0.6252;0.7215;
958.5000;0.6243;0.7240;
958.8000;0.6235;0.7191;
959.1000;0.6203;0.7045;
959.4000;0.6235;0.7142;
959.7000;0.6227;0.7240;
960.0000;0.6243;0.7313;
960.3000;0.6260;0.7410;
960.6000;0.6252;0.7362;
960.9000;0.6243;0.7240;
961.2000;0.6284;0.7337;
961.5000;0.6235;0.7264;
961.8000;0.6219;0.7289;
962.1000;0.6252;0.7337;
962.4000;0.6243;0.7289;
962.7000;0.6235;0.7313;
963.0000;0.6243;0.7386;
963.3000;0.6227;0.7386;
963.6000;0.6227;0.7435;
963.9000;0.6219;0.7337;
964.2000;0.6186;0.7289;
964.5000;0.6243;0.7410;
964.8000;0.6138;0.7118;
965.1000;0.6219;0.7337;
965.4000;0.6227;0.7410;
965.7000;0.6252;0.7410;
966.0000;0.6243;0.7337;
966.3000;0.6235;0.7264;
966.6000;0.6243;0.7362;
966.9000;0.6252;0.7484;
967.2000;0.6252;0.7484;
967.5000;0.6252;0.7410;
967.8000;0.6235;0.7362;
968.1000;0.6243;0.7435;
968.4000;0.6252;0.7484;
968.7000;0.6235;0.7362;
969.0000;0.6227;0.7313;
969.3000;0.6252;0.7264;
969.6000;0.6227;0.7240;
969.9000;0.6227;0.7215;
970.2000;0.6243;0.7240;
970.5000;0.6178;0.7118;
970.8000;0.6243;0.7410;
971.1000;0.6235;0.7313;
971.4000;0.6235;0.7362;
971.7000;0.6235;0.7289;
972.0000;0.6243;0.7313;
972.3000;0.6235;0.7313;
972.6000;0.6227;0.7410;
972.9000;0.6260;0.7459;
973.2000;0.6252;0.7386;
973.5000;0.6211;0.7289;
973.8000;0.6211;0.7289;
974.1000;0.6219;0.7215;
974.4000;0.6211;0.7167;
974.7000;0.6219;0.7289;
975.0000;0.6219;0.7191;
975.3000;0.6243;0.7313;
975.6000;0.6227;0.7313;
975.9000;0.6227;0.7386;
976.2000;0.6227;0.7362;
976.5000;0.6235;0.7386;
976.8000;0.6243;0.7410;
977.1000;0.6243;0.7484;
977.4000;0.6227;0.7435;
977.7000;0.6235;0.7435;
978.0000;0.6235;0.7508;
978.3000;0.6219;0.7435;
978.6000;0.6219;0.7289;
978.9000;0.6227;0.7215;
979.2000;0.6219;0.7167;
979.5000;0.6211;0.7167;
979.8000;0.6243;0.7191;
980.1000;0.6219;0.7313;
980.4000;0.6219;0.7362;
980.7000;0.6219;0.7410;
981.0000;0.6235;0.7484;
981.3000;0.6227;0.7386;
981.6000;0.6235;0.7410;
981.9000;0.6235;0.7313;
982.2000;0.6235;0.7337;
982.5000;0.6219;0.7240;
982.8000;0.6235;0.7215;
983.1000;0.6227;0.7118;
983.4000;0.6243;0.7142;
983.7000;0.6227;0.7167;
984.0000;0.6154;0.7045;
984.3000;0.6203;0.7191;
984.6000;0.6243;0.7215;
984.9000;0.6252;0.7167;
985.2000;0.6235;0.7191;
985.5000;0.6227;0.7167;
985.8000;0.6227;0.7118;
986.1000;0.6227;0.7167;
986.4000;0.6235;0.7240;
986.7000;0.6227;0.7264;
987.0000;0.6227;0.7337;
987.3000;0.6170;0.7264;
987.6000;0.6227;0.7337;
987.9000;0.6227;0.7362;
988.2000;0.6235;0.7410;
988.5000;0.6235;0.7459;
988.8000;0.6235;0.7410;
989.1000;0.6227;0.7435;
989.4000;0.6219;0.7386;
989.7000;0.6219;0.7459;
990.0000;0.6252;0.7459;
990.3000;0.6227;0.7337;
990.6000;0.6219;0.7459;
990.9000;0.6227;0.7508;
991.2000;0.6235;0.7435;
991.5000;0.6219;0.7410;
991.8000;0.6219;0.7337;
992.1000;0.6219;0.7313;
992.4000;0.6243;0.7410;
992.7000;0.6211;0.7337;
993.0000;0.6219;0.7313;
993.3000;0.6211;0.7313;
993.6000;0.6243;0.7386;
993.9000;0.6227;0.7362;
994.2000;0.6235;0.7410;
994.5000;0.6227;0.7410;
994.8000;0.6219;0.7484;
995.1000;0.6235;0.7484;
995.4000;0.6219;0.7435;
995.7000;0.6227;0.7508;
996.0000;0.6227;0.7532;
996.3000;0.6235;0.7605;
996.6000;0.6243;0.7679;
996.9000;0.6219;0.7679;
997.2000;0.6235;0.7752;
997.5000;0.6227;0.7703;
997.8000;0.6235;0.7605;
998.1000;0.6260;0.7727;
998.4000;0.6260;0.7630;
998.7000;0.6211;0.7581;
999.0000;0.6252;0.7801;
999.3000;0.6219;0.7654;
999.6000;0.6203;0.7752;
999.9000;0.6235;0.7776;
1000.2000;0.6243;0.7703;
1000.5000;0.6211;0.7654;
1000.8000;0.6211;0.7654;
1001.1000;0.6235;0.7654;
1001.4000;0.6235;0.7557;
1001.7000;0.6227;0.7557;
1002.0000;0.6219;0.7581;
1002.3000;0.6227;0.7654;
1002.6000;0.6227;0.7703;
1002.9000;0.6219;0.7605;
1003.2000;0.6227;0.7605;
1003.5000;0.6227;0.7557;
1003.8000;0.6235;0.7605;
1004.1000;0.6227;0.7654;
1004.4000;0.6219;0.7752;
1004.7000;0.6243;0.7801;
1005.0000;0.6235;0.7752;
1005.3000;0.6211;0.7679;
1005.6000;0.6235;0.7703;
1005.9000;0.6235;0.7752;
1006.2000;0.6300;0.7801;
1006.5000;0.6235;0.7605;
1006.8000;0.6284;0.7654;
1007.1000;0.6219;0.7435;
1007.4000;0.6235;0.7435;
1007.7000;0.6260;0.7435;
1008.0000;0.6243;0.7410;
1008.3000;0.6227;0.7313;
1008.6000;0.6227;0.7337;
1008.9000;0.6211;0.7264;
1009.2000;0.6162;0.7289;
1009.5000;0.6235;0.7386;
1009.8000;0.6227;0.7386;
1010.1000;0.6219;0.7410;
1010.4000;0.6284;0.7581;
1010.7000;0.6211;0.7410;
1011.0000;0.6227;0.7508;
1011.3000;0.6243;0.7484;
1011.6000;0.6235;0.7459;
1011.9000;0.6341;0.7654;
1012.2000;0.6227;0.7386;
1012.5000;0.6243;0.7435;
1012.8000;0.6333;0.7654;
1013.1000;0.6235;0.7508;
1013.4000;0.6195;0.7386;
1013.7000;0.6243;0.7581;
1014.0000;0.6235;0.7508;
1014.3000;0.6227;0.7484;
1014.6000;0.6235;0.7508;
1014.9000;0.6260;0.7557;
1015.2000;0.6227;0.7459;
1015.5000;0.6219;0.7459;
1015.8000;0.6203;0.7459;
1016.1000;0.6211;0.7557;
1016.4000;0.6219;0.7557;
1016.7000;0.6227;0.7654;
1017.0000;0.6235;0.7581;
1017.3000;0.6235;0.7459;
1017.6000;0.6219;0.7362;
1017.9000;0.6243;0.7410;
1018.2000;0.6227;0.7410;
1018.5000;0.6227;0.7410;
1018.8000;0.6235;0.7410;
1019.1000;0.6227;0.7459;
1019.4000;0.6235;0.7508;
1019.7000;0.6227;0.7459;
1020.0000;0.6260;0.7435;
1020.3000;0.6252;0.7532;
1020.6000;0.6252;0.7581;
1020.9000;0.6252;0.7557;
1021.2000;0.6235;0.7532;
1021.5000;0.6211;0.7410;
1021.8000;0.6235;0.7484;
1022.1000;0.6292;0.7508;
1022.4000;0.6243;0.7386;
1022.7000;0.6260;0.7435;
1023.0000;0.6252;0.7435;
1023.3000;0.6235;0.7435;
1023.6000;0.6227;0.7386;
1023.9000;0.6268;0.7508;
1024.2000;0.6235;0.7459;
1024.5000;0.6227;0.7484;
1024.8000;0.6211;0.7557;
1025.1000;0.6219;0.7605;
1025.4000;0.6227;0.7679;
1025.7000;0.6235;0.7630;
1026.0000;0.6219;0.7484;
1026.3000;0.6211;0.7484;
1026.6000;0.6195;0.7386;
1026.9000;0.6243;0.7484;
1027.2000;0.6219;0.7459;
1027.5000;0.6227;0.7459;
1027.8000;0.6235;0.7630;
1028.1000;0.6235;0.7679;
1028.4000;0.6235;0.7581;
1028.7000;0.6211;0.7435;
1029.0000;0.6252;0.7484;
1029.3000;0.6211;0.7362;
1029.6000;0.6195;0.7313;
1029.9000;0.6211;0.7410;
1030.2000;0.6235;0.7410;
1030.5000;0.6235;0.7337;
1030.8000;0.6211;0.7240;
1031.1000;0.6235;0.7313;
1031.4000;0.6235;0.7386;
1031.7000;0.6203;0.7435;
1032.0000;0.6235;0.7508;
1032.3000;0.6252;0.7508;
1032.6000;0.6219;0.7410;
1032.9000;0.6162;0.7240;
1033.2000;0.6243;0.7459;
1033.5000;0.6252;0.7532;
1033.8000;0.6211;0.7362;
1034.1000;0.6219;0.7362;
1034.4000;0.6219;0.7362;
1034.7000;0.6235;0.7435;
1035.0000;0.6219;0.7410;
1035.3000;0.6227;0.7484;
1035.6000;0.6219;0.7508;
1035.9000;0.6227;0.7484;
1036.2000;0.6211;0.7484;
1036.5000;0.6227;0.7508;
1036.8000;0.6252;0.7508;
1037.1000;0.6227;0.7484;
1037.4000;0.6170;0.7313;
1037.7000;0.6219;0.7410;
1038.0000;0.6243;0.7508;
1038.3000;0.6243;0.7532;
1038.6000;0.6235;0.7508;
1038.9000;0.6203;0.7337;
1039.2000;0.6227;0.7410;
1039.5000;0.6227;0.7410;
1039.8000;0.6195;0.7240;
1040.1000;0.6211;0.7337;
1040.4000;0.6235;0.7484;
1040.7000;0.6211;0.7386;
1041.0000;0.6219;0.7435;
1041.3000;0.6195;0.7410;
1041.6000;0.6235;0.7459;
1041.9000;0.6235;0.7459;
1042.2000;0.6227;0.7557;
1042.5000;0.6260;0.7605;
1042.8000;0.6219;0.7484;
1043.1000;0.6227;0.7484;
1043.4000;0.6195;0.7435;
1043.7000;0.6211;0.7484;
1044.0000;0.6219;0.7654;
1044.3000;0.6203;0.7581;
1044.6000;0.6235;0.7605;
1044.9000;0.6203;0.7557;
1045.2000;0.6235;0.7703;
1045.5000;0.6178;0.7630;
1045.8000;0.6186;0.7630;
1046.1000;0.6252;0.7703;
1046.4000;0.6211;0.7630;
1046.7000;0.6243;0.7630;
1047.0000;0.6227;0.7581;
1047.3000;0.6203;0.7532;
1047.6000;0.6235;0.7581;
1047.9000;0.6211;0.7605;
1048.2000;0.6219;0.7581;
1048.5000;0.6227;0.7581;
1048.8000;0.6243;0.7557;
1049.1000;0.6227;0.7508;
1049.4000;0.6243;0.7532;
1049.7000;0.6243;0.7557;
1050.0000;0.6309;0.7703;
1050.3000;0.6219;0.7459;
1050.6000;0.6235;0.7435;
1050.9000;0.6252;0.7435;
1051.2000;0.6235;0.7313;
1051.5000;0.6243;0.7289;
1051.8000;0.6235;0.7118;
1052.1000;0.6243;0.7118;
1052.4000;0.6227;0.7191;
1052.7000;0.6227;0.7142;
1053.0000;0.6211;0.7142;
1053.3000;0.6211;0.7215;
1053.6000;0.6252;0.7264;
1053.9000;0.6146;0.7045;
1054.2000;0.6211;0.7240;
1054.5000;0.6235;0.7313;
1054.8000;0.6211;0.7337;
1055.1000;0.6219;0.7386;
1055.4000;0.6203;0.7362;
1055.7000;0.6227;0.7289;
1056.0000;0.6227;0.7215;
1056.3000;0.6227;0.7313;
1056.6000;0.6227;0.7337;
1056.9000;0.6252;0.7435;
1057.2000;0.6235;0.7435;
1057.5000;0.6235;0.7459;
1057.8000;0.6186;0.7313;
1058.1000;0.6219;0.7337;
1058.4000;0.6235;0.7240;
1058.7000;0.6227;0.7289;
1059.0000;0.6203;0.7264;
1059.3000;0.6219;0.7289;
1059.6000;0.6292;0.7435;
1059.9000;0.6235;0.7313;
1060.2000;0.6252;0.7362;
1060.5000;0.6211;0.7337;
1060.8000;0.6227;0.7362;
1061.1000;0.6227;0.7362;
1061.4000;0.6276;0.7508;
1061.7000;0.6113;0.7167;
1062.0000;0.6219;0.7508;
1062.3000;0.6227;0.7484;
1062.6000;0.6219;0.7410;
1062.9000;0.6260;0.7484;
1063.2000;0.6219;0.7410;
1063.5000;0.6121;0.7094;
1063.8000;0.6219;0.7289;
1064.1000;0.6227;0.7191;
1064.4000;0.6211;0.7289;
1064.7000;0.6243;0.7362;
1065.0000;0.6203;0.7215;
1065.3000;0.6219;0.7264;
1065.6000;0.6219;0.7264;
1065.9000;0.6203;0.7264;
1066.2000;0.6227;0.7289;
1066.5000;0.6211;0.7240;
1066.8000;0.6235;0.7313;
1067.1000;0.6235;0.7337;
1067.4000;0.6235;0.7435;
1067.7000;0.6219;0.7386;
1068.0000;0.6203;0.7264;
1068.3000;0.6219;0.7337;
1068.6000;0.6243;0.7313;
1068.9000;0.6219;0.7240;
1069.2000;0.6195;0.7264;
1069.5000;0.6211;0.7362;
1069.8000;0.6227;0.7313;
1070.1000;0.6268;0.7459;
1070.4000;0.6186;0.7313;
1070.7000;0.6211;0.7362;
1071.0000;0.6219;0.7435;
1071.3000;0.6219;0.7435;
1071.6000;0.6268;0.7508;
1071.9000;0.6203;0.7386;
1072.2000;0.6219;0.7386;
1072.5000;0.6219;0.7410;
1072.8000;0.6211;0.7410;
1073.1000;0.6219;0.7557;
1073.4000;0.6235;0.7605;
1073.7000;0.6211;0.7508;
1074.0000;0.6211;0.7532;
1074.3000;0.6195;0.7362;
1074.6000;0.6268;0.7484;
1074.9000;0.6219;0.7313;
1075.2000;0.6235;0.7435;
1075.5000;0.6227;0.7484;
1075.8000;0.6203;0.7557;
1076.1000;0.6219;0.7630;
1076.4000;0.6227;0.7679;
1076.7000;0.6219;0.7605;
1077.0000;0.6203;0.7508;
1077.3000;0.6219;0.7581;
1077.6000;0.6227;0.7581;
1077.9000;0.6227;0.7532;
1078.2000;0.6243;0.7459;
1078.5000;0.6219;0.7362;
1078.8000;0.6227;0.7337;
1079.1000;0.6219;0.7240;
1079.4000;0.6243;0.7337;
1079.7000;0.6211;0.7264;
1080.0000;0.6276;0.7532;
1080.3000;0.6227;0.7410;
1080.6000;0.6227;0.7532;
1080.9000;0.6211;0.7557;
1081.2000;0.6235;0.7581;
1081.5000;0.6219;0.7484;
1081.8000;0.6219;0.7386;
1082.1000;0.6219;0.7410;
1082.4000;0.6243;0.7484;
1082.7000;0.6227;0.7362;
1083.0000;0.6243;0.7484;
1083.3000;0.6178;0.7337;
1083.6000;0.6227;0.7410;
1083.9000;0.6243;0.7435;
1084.2000;0.6325;0.7581;
1084.5000;0.6219;0.7313;
1084.8000;0.6227;0.7386;
1085.1000;0.6243;0.7435;
1085.4000;0.6211;0.7362;
1085.7000;0.6243;0.7484;
1086.0000;0.6203;0.7313;
1086.3000;0.6252;0.7410;
1086.6000;0.6243;0.7386;
1086.9000;0.6252;0.7362;
1087.2000;0.6219;0.7362;
1087.5000;0.6235;0.7313;
1087.8000;0.6227;0.7362;
1088.1000;0.6227;0.7410;
1088.4000;0.6219;0.7410;
1088.7000;0.6227;0.7484;
1089.0000;0.6211;0.7435;
1089.3000;0.6219;0.7459;
1089.6000;0.6195;0.7337;
1089.9000;0.6211;0.7410;
1090.2000;0.6219;0.7410;
1090.5000;0.6243;0.7362;
1090.8000;0.6227;0.7386;
1091.1000;0.6252;0.7435;
1091.4000;0.6235;0.7459;
1091.7000;0.6219;0.7508;
1092.0000;0.6211;0.7484;
1092.3000;0.6252;0.7532;
1092.6000;0.6243;0.7532;
1092.9000;0.6227;0.7532;
1093.2000;0.6211;0.7532;
1093.5000;0.6309;0.7727;
1093.8000;0.6211;0.7508;
1094.1000;0.6227;0.7459;
1094.4000;0.6219;0.7386;
1094.7000;0.6219;0.7362;
1095.0000;0.6203;0.7289;
1095.3000;0.6219;0.7313;
1095.6000;0.6235;0.7313;
1095.9000;0.6219;0.7289;
1096.2000;0.6227;0.7289;
1096.5000;0.6235;0.7313;
1096.8000;0.6252;0.7264;
1097.1000;0.6235;0.7240;
1097.4000;0.6227;0.7289;
1097.7000;0.6243;0.7313;
1098.0000;0.6227;0.7313;
1098.3000;0.6243;0.7337;
1098.6000;0.6235;0.7410;
1098.9000;0.6219;0.7435;
1099.2000;0.6235;0.7508;
1099.5000;0.6235;0.7508;
1099.8000;0.6211;0.7508;
1100.1000;0.6219;0.7484;
1100.4000;0.6219;0.7435;
1100.7000;0.6227;0.7435;
1101.0000;0.6162;0.7215;
1101.3000;0.6227;0.7362;
1101.6000;0.6219;0.7386;
1101.9000;0.6227;0.7459;
1102.2000;0.6203;0.7484;
1102.5000;0.6211;0.7532;
1102.8000;0.6211;0.7459;
1103.1000;0.6252;0.7484;
1103.4000;0.6227;0.7508;
1103.7000;0.6203;0.7459;
1104.0000;0.6203;0.7459;
1104.3000;0.6243;0.7605;
1104.6000;0.6211;0.7532;
1104.9000;0.6260;0.7630;
1105.2000;0.6203;0.7484;
1105.5000;0.6227;0.7557;
1105.8000;0.6235;0.7557;
1106.1000;0.6235;0.7459;
1106.4000;0.6211;0.7410;
1106.7000;0.6235;0.7410;
1107.0000;0.6211;0.7386;
1107.3000;0.6211;0.7337;
1107.6000;0.6195;0.7264;
1107.9000;0.6203;0.7167;
1108.2000;0.6219;0.7313;
1108.5000;0.6203;0.7362;
1108.8000;0.6211;0.7459;
1109.1000;0.6146;0.7240;
1109.4000;0.6162;0.7289;
1109.7000;0.6203;0.7362;
1110.0000;0.6219;0.7313;
1110.3000;0.6219;0.7240;
1110.6000;0.6203;0.7289;
1110.9000;0.6219;0.7313;
1111.2000;0.6227;0.7313;
1111.5000;0.6235;0.7362;
1111.8000;0.6260;0.7435;
1112.1000;0.6211;0.7337;
1112.4000;0.6219;0.7362;
1112.7000;0.6219;0.7289;
1113.0000;0.6235;0.7289;
1113.3000;0.6292;0.7386;
1113.6000;0.6227;0.7264;
1113.9000;0.6219;0.7191;
1114.2000;0.6219;0.7069;
1114.5000;0.6211;0.7094;
1114.8000;0.6235;0.7264;
1115.1000;0.6211;0.7264;
1115.4000;0.6219;0.7386;
1115.7000;0.6211;0.7484;
1116.0000;0.6219;0.7435;
1116.3000;0.6170;0.7215;
1116.6000;0.6219;0.7386;
1116.9000;0.6243;0.7410;
1117.2000;0.6211;0.7386;
1117.5000;0.6268;0.7532;
1117.8000;0.6243;0.7459;
1118.1000;0.6227;0.7435;
1118.4000;0.6219;0.7410;
1118.7000;0.6195;0.7337;
1119.0000;0.6227;0.7435;
1119.3000;0.6227;0.7435;
1119.6000;0.6235;0.7508;
1119.9000;0.6211;0.7484;
1120.2000;0.6235;0.7557;
1120.5000;0.6211;0.7508;
1120.8000;0.6235;0.7557;
1121.1000;0.6227;0.7557;
1121.4000;0.6219;0.7508;
1121.7000;0.6235;0.7484;
1122.0000;0.6252;0.7484;
1122.3000;0.6227;0.7435;
1122.6000;0.6227;0.7435;
1122.9000;0.6203;0.7386;
1123.2000;0.6227;0.7435;
1123.5000;0.6219;0.7508;
1123.8000;0.6227;0.7484;
1124.1000;0.6227;0.7508;
1124.4000;0.6235;0.7532;
1124.7000;0.6211;0.7386;
1125.0000;0.6097;0.7094;
1125.3000;0.6211;0.7386;
1125.6000;0.6227;0.7435;
1125.9000;0.6235;0.7508;
1126.2000;0.6219;0.7459;
1126.5000;0.6211;0.7386;
1126.8000;0.6162;0.7313;
1127.1000;0.6211;0.7435;
1127.4000;0.6260;0.7459;
1127.7000;0.6211;0.7313;
1128.0000;0.6235;0.7362;
1128.3000;0.6227;0.7410;
1128.6000;0.6227;0.7289;
1128.9000;0.6219;0.7240;
1129.2000;0.6211;0.7313;
1129.5000;0.6219;0.7386;
1129.8000;0.6219;0.7459;
1130.1000;0.6211;0.7410;
1130.4000;0.6203;0.7435;
1130.7000;0.6195;0.7362;
1131.0000;0.6211;0.7337;
1131.3000;0.6203;0.7362;
1131.6000;0.6203;0.7386;
1131.9000;0.6203;0.7386;
1132.2000;0.6227;0.7410;
1132.5000;0.6235;0.7435;
1132.8000;0.6211;0.7386;
1133.1000;0.6219;0.7386;
1133.4000;0.6186;0.7435;
1133.7000;0.6219;0.7532;
1134.0000;0.6203;0.7508;
1134.3000;0.6203;0.7459;
1134.6000;0.6227;0.7557;
1134.9000;0.6219;0.7532;
1135.2000;0.6227;0.7459;
1135.5000;0.6227;0.7508;
1135.8000;0.6243;0.7557;
1136.1000;0.6203;0.7459;
1136.4000;0.6162;0.7435;
1136.7000;0.6243;0.7605;
1137.0000;0.6227;0.7557;
1137.3000;0.6219;0.7605;
1137.6000;0.6219;0.7557;
1137.9000;0.6227;0.7508;
1138.2000;0.6203;0.7459;
1138.5000;0.6219;0.7484;
1138.8000;0.6235;0.7508;
1139.1000;0.6211;0.7410;
1139.4000;0.6211;0.7410;
1139.7000;0.6219;0.7532;
1140.0000;0.6162;0.7484;
1140.3000;0.6276;0.7727;
1140.6000;0.6211;0.7557;
1140.9000;0.6252;0.7630;
1141.2000;0.6219;0.7654;
1141.5000;0.6227;0.7581;
1141.8000;0.6243;0.7605;
1142.1000;0.6235;0.7581;
1142.4000;0.6219;0.7605;
1142.7000;0.6227;0.7508;
1143.0000;0.6219;0.7435;
1143.3000;0.6203;0.7337;
1143.6000;0.6243;0.7484;
1143.9000;0.6227;0.7581;
1144.2000;0.6170;0.7337;
1144.5000;0.6211;0.7459;
1144.8000;0.6243;0.7532;
1145.1000;0.6284;0.7605;
1145.4000;0.6227;0.7410;
1145.7000;0.6243;0.7362;
1146.0000;0.6227;0.7362;
1146.3000;0.6227;0.7362;
1146.6000;0.6227;0.7313;
1146.9000;0.6178;0.7191;
1147.2000;0.6211;0.7264;
1147.5000;0.6211;0.7337;
1147.8000;0.6260;0.7410;
1148.1000;0.6211;0.7313;
1148.4000;0.6235;0.7362;
1148.7000;0.6211;0.7362;
1149.0000;0.6227;0.7435;
1149.3000;0.6219;0.7362;
1149.6000;0.6252;0.7459;
1149.9000;0.6219;0.7386;
1150.2000;0.6211;0.7337;
1150.5000;0.6195;0.7337;
1150.8000;0.6219;0.7484;
1151.1000;0.6227;0.7484;
1151.4000;0.6317;0.7727;
1151.7000;0.6211;0.7386;
1152.0000;0.6186;0.7289;
1152.3000;0.6219;0.7337;
1152.6000;0.6235;0.7386;
1152.9000;0.6195;0.7313;
1153.2000;0.6203;0.7337;
1153.5000;0.6211;0.7289;
1153.8000;0.6186;0.7386;
1154.1000;0.6195;0.7508;
1154.4000;0.6195;0.7386;
1154.7000;0.6178;0.7410;
1155.0000;0.6186;0.7508;
1155.3000;0.6219;0.7581;
1155.6000;0.6219;0.7581;
1155.9000;0.6211;0.7508;
1156.2000;0.6211;0.7484;
1156.5000;0.6121;0.7215;
1156.8000;0.6162;0.7240;
1157.1000;0.6211;0.7337;
1157.4000;0.6235;0.7337;
1157.7000;0.6243;0.7459;
1158.0000;0.6309;0.7605;
1158.3000;0.6219;0.7484;
1158.6000;0.6211;0.7508;
1158.9000;0.6243;0.7508;
1159.2000;0.6227;0.7459;
1159.5000;0.6227;0.7484;
1159.8000;0.6235;0.7484;
1160.1000;0.6211;0.7410;
1160.4000;0.6211;0.7362;
1160.7000;0.6211;0.7410;
1161.0000;0.6243;0.7410;
1161.3000;0.6227;0.7410;
1161.6000;0.6227;0.7386;
1161.9000;0.6211;0.7435;
1162.2000;0.6219;0.7459;
1162.5000;0.6235;0.7362;
1162.8000;0.6203;0.7289;
1163.1000;0.6211;0.7240;
1163.4000;0.6219;0.7264;
1163.7000;0.6268;0.7337;
1164.0000;0.6219;0.7386;
1164.3000;0.6219;0.7459;
1164.6000;0.6227;0.7532;
1164.9000;0.6227;0.7557;
1165.2000;0.6243;0.7557;
1165.5000;0.6219;0.7435;
1165.8000;0.6170;0.7386;
1166.1000;0.6195;0.7532;
1166.4000;0.6203;0.7557;
1166.7000;0.6227;0.7532;
1167.0000;0.6227;0.7508;
1167.3000;0.6203;0.7508;
1167.6000;0.6195;0.7459;
1167.9000;0.6243;0.7630;
1168.2000;0.6227;0.7557;
1168.5000;0.6211;0.7557;
1168.8000;0.6219;0.7605;
1169.1000;0.6227;0.7605;
1169.4000;0.6235;0.7654;
1169.7000;0.6243;0.7703;
1170.0000;0.6268;0.7752;
1170.3000;0.6227;0.7630;
1170.6000;0.6227;0.7532;
1170.9000;0.6219;0.7557;
1171.2000;0.6211;0.7508;
1171.5000;0.6235;0.7581;
1171.8000;0.6227;0.7581;
1172.1000;0.6219;0.7557;
1172.4000;0.6235;0.7508;
1172.7000;0.6227;0.7362;
1173.0000;0.6227;0.7386;
1173.3000;0.6211;0.7386;
1173.6000;0.6219;0.7484;
1173.9000;0.6211;0.7532;
1174.2000;0.6268;0.7679;
1174.5000;0.6243;0.7459;
1174.8000;0.6235;0.7459;
1175.1000;0.6227;0.7532;
1175.4000;0.6227;0.7484;
1175.7000;0.6219;0.7386;
1176.0000;0.6211;0.7362;
1176.3000;0.6219;0.7337;
1176.6000;0.6235;0.7289;
1176.9000;0.6219;0.7264;
1177.2000;0.6227;0.7167;
1177.5000;0.6203;0.7142;
1177.8000;0.6227;0.7240;
1178.1000;0.6162;0.7118;
1178.4000;0.6235;0.7337;
1178.7000;0.6211;0.7313;
1179.0000;0.6260;0.7313;
1179.3000;0.6243;0.7362;
1179.6000;0.6219;0.7362;
1179.9000;0.6235;0.7508;
1180.2000;0.6219;0.7557;
1180.5000;0.6138;0.7362;
1180.8000;0.6219;0.7581;
1181.1000;0.6243;0.7581;
1181.4000;0.6235;0.7362;
1181.7000;0.6170;0.7240;
1182.0000;0.6227;0.7484;
1182.3000;0.6227;0.7459;
1182.6000;0.6243;0.7410;
1182.9000;0.6227;0.7386;
1183.2000;0.6227;0.7435;
1183.5000;0.6341;0.7727;
1183.8000;0.6211;0.7386;
1184.1000;0.6227;0.7484;
1184.4000;0.6219;0.7532;
1184.7000;0.6227;0.7508;
1185.0000;0.6235;0.7435;
1185.3000;0.6227;0.7410;
1185.6000;0.6227;0.7410;
1185.9000;0.6211;0.7435;
1186.2000;0.6203;0.7484;
1186.5000;0.6203;0.7484;
1186.8000;0.6219;0.7459;
1187.1000;0.6211;0.7459;
1187.4000;0.6235;0.7508;
1187.7000;0.6219;0.7459;
1188.0000;0.6219;0.7557;
1188.3000;0.6219;0.7630;
1188.6000;0.6211;0.7459;
1188.9000;0.6211;0.7410;
1189.2000;0.6219;0.7459;
1189.5000;0.6227;0.7484;
1189.8000;0.6260;0.7532;
1190.1000;0.6235;0.7386;
1190.4000;0.6243;0.7435;
1190.7000;0.6203;0.7337;
1191.0000;0.6219;0.7313;
1191.3000;0.6203;0.7386;
1191.6000;0.6219;0.7484;
1191.9000;0.6219;0.7410;
1192.2000;0.6219;0.7362;
1192.5000;0.6186;0.7313;
1192.8000;0.6211;0.7313;
1193.1000;0.6195;0.7289;
1193.4000;0.6219;0.7362;
1193.7000;0.6268;0.7410;
1194.0000;0.6227;0.7386;
1194.3000;0.6227;0.7337;
1194.6000;0.6243;0.7337;
1194.9000;0.6211;0.7362;
1195.2000;0.6203;0.7386;
1195.5000;0.6203;0.7410;
1195.8000;0.6219;0.7313;
1196.1000;0.6211;0.7264;
1196.4000;0.6227;0.7410;
1196.7000;0.6284;0.7581;
1197.0000;0.6211;0.7410;
1197.3000;0.6227;0.7532;
1197.6000;0.6211;0.7508;
1197.9000;0.6211;0.7605;
1198.2000;0.6195;0.7654;
1198.5000;0.6219;0.7727;
1198.8000;0.6227;0.7679;
1199.1000;0.6154;0.7532;
1199.4000;0.6219;0.7654;
1199.7000;0.6219;0.7679;
1200.0000;0.6203;0.7679;
1200.3000;0.6292;0.7801;
1200.6000;0.6203;0.7532;
1200.9000;0.6219;0.7605;
1201.2000;0.6317;0.7874;
1201.5000;0.6268;0.7727;
1201.8000;0.6235;0.7532;
1202.1000;0.6292;0.7630;
1202.4000;0.6243;0.7435;
1202.7000;0.6211;0.7313;
1203.0000;0.6227;0.7410;
1203.3000;0.6235;0.7410;
1203.6000;0.6252;0.7459;
1203.9000;0.6219;0.7337;
1204.2000;0.6203;0.7362;
1204.5000;0.6309;0.7557;
1204.8000;0.6219;0.7386;
1205.1000;0.6227;0.7484;
1205.4000;0.6227;0.7435;
1205.7000;0.6211;0.7386;
1206.0000;0.6235;0.7386;
1206.3000;0.6219;0.7337;
1206.6000;0.6219;0.7435;
1206.9000;0.6195;0.7435;
1207.2000;0.6211;0.7386;
1207.5000;0.6227;0.7435;
1207.8000;0.6219;0.7435;
1208.1000;0.6219;0.7362;
1208.4000;0.6235;0.7362;
1208.7000;0.6219;0.7362;
1209.0000;0.6211;0.7386;
1209.3000;0.6121;0.7215;
1209.6000;0.6211;0.7508;
1209.9000;0.6227;0.7654;
1210.2000;0.6227;0.7630;
1210.5000;0.6203;0.7557;
1210.8000;0.6227;0.7605;
1211.1000;0.6211;0.7581;
1211.4000;0.6227;0.7557;
1211.7000;0.6203;0.7557;
1212.0000;0.6219;0.7508;
1212.3000;0.6219;0.7484;
1212.6000;0.6211;0.7508;
1212.9000;0.6203;0.7459;
1213.2000;0.6203;0.7362;
1213.5000;0.6219;0.7435;
1213.8000;0.6227;0.7435;
1214.1000;0.6227;0.7386;
1214.4000;0.6227;0.7459;
1214.7000;0.6195;0.7362;
1215.0000;0.6219;0.7459;
1215.3000;0.6203;0.7508;
1215.6000;0.6195;0.7484;
1215.9000;0.6203;0.7459;
1216.2000;0.6211;0.7459;
1216.5000;0.6219;0.7508;
1216.8000;0.6211;0.7435;
1217.1000;0.6211;0.7410;
1217.4000;0.6219;0.7484;
1217.7000;0.6235;0.7484;
1218.0000;0.6235;0.7337;
1218.3000;0.6219;0.7313;
1218.6000;0.6219;0.7313;
1218.9000;0.6227;0.7337;
1219.2000;0.6186;0.7313;
1219.5000;0.6211;0.7337;
1219.8000;0.6227;0.7508;
1220.1000;0.6227;0.7459;
1220.4000;0.6235;0.7508;
1220.7000;0.6170;0.7362;
1221.0000;0.6211;0.7484;
1221.3000;0.6227;0.7508;
1221.6000;0.6203;0.7362;
1221.9000;0.6203;0.7410;
1222.2000;0.6227;0.7459;
1222.5000;0.6235;0.7386;
1222.8000;0.6235;0.7337;
1223.1000;0.6235;0.7362;
1223.4000;0.6178;0.7191;
1223.7000;0.6219;0.7289;
1224.0000;0.6211;0.7240;
1224.3000;0.6211;0.7264;
1224.6000;0.6243;0.7362;
1224.9000;0.6252;0.7435;
1225.2000;0.6227;0.7337;
1225.5000;0.6211;0.7313;
1225.8000;0.6211;0.7240;
1226.1000;0.6300;0.7532;
1226.4000;0.6219;0.7337;
1226.7000;0.6211;0.7264;
1227.0000;0.6178;0.7191;
1227.3000;0.6211;0.7289;
1227.6000;0.6211;0.7289;
1227.9000;0.6325;0.7581;
1228.2000;0.6203;0.7337;
1228.5000;0.6276;0.7508;
1228.8000;0.6219;0.7435;
1229.1000;0.6243;0.7386;
1229.4000;0.6219;0.7410;
1229.7000;0.6268;0.7484;
1230.0000;0.6227;0.7410;
1230.3000;0.6235;0.7532;
1230.6000;0.6227;0.7508;
1230.9000;0.6252;0.7557;
1231.2000;0.6211;0.7459;
1231.5000;0.6227;0.7484;
1231.8000;0.6252;0.7605;
1232.1000;0.6203;0.7459;
1232.4000;0.6276;0.7605;
1232.7000;0.6243;0.7459;
1233.0000;0.6235;0.7362;
1233.3000;0.6154;0.7045;
1233.6000;0.6219;0.7094;
1233.9000;0.6268;0.7240;
1234.2000;0.6235;0.7142;
1234.5000;0.6195;0.7167;
1234.8000;0.6260;0.7337;
1235.1000;0.6219;0.7215;
1235.4000;0.6284;0.7362;
1235.7000;0.6235;0.7264;
1236.0000;0.6219;0.7264;
1236.3000;0.6203;0.7215;
1236.6000;0.6252;0.7240;
1236.9000;0.6195;0.7069;
1237.2000;0.6260;0.7167;
1237.5000;0.6211;0.7167;
1237.8000;0.6235;0.7240;
1238.1000;0.6219;0.7191;
1238.4000;0.6227;0.7240;
1238.7000;0.6227;0.7191;
1239.0000;0.6195;0.7069;
1239.3000;0.6268;0.7313;
1239.6000;0.6170;0.7020;
1239.9000;0.6211;0.7167;
1240.2000;0.6211;0.7191;
1240.5000;0.6203;0.7167;
1240.8000;0.6219;0.7191;
1241.1000;0.6211;0.7240;
1241.4000;0.6211;0.7215;
1241.7000;0.6195;0.7167;
1242.0000;0.6268;0.7264;
1242.3000;0.6219;0.7118;
1242.6000;0.6219;0.7264;
1242.9000;0.6260;0.7386;
1243.2000;0.6227;0.7386;
1243.5000;0.6219;0.7435;
1243.8000;0.6203;0.7362;
1244.1000;0.6219;0.7337;
1244.4000;0.6203;0.7264;
1244.7000;0.6203;0.7362;
1245.0000;0.6292;0.7630;
1245.3000;0.6227;0.7435;
1245.6000;0.6227;0.7459;
1245.9000;0.6276;0.7508;
1246.2000;0.6203;0.7386;
1246.5000;0.6219;0.7435;
1246.8000;0.6227;0.7484;
1247.1000;0.6235;0.7410;
1247.4000;0.6195;0.7337;
1247.7000;0.6227;0.7435;
1248.0000;0.6260;0.7459;
1248.3000;0.6178;0.7362;
1248.6000;0.6227;0.7337;
1248.9000;0.6227;0.7264;
1249.2000;0.6235;0.7289;
1249.5000;0.6227;0.7289;
1249.8000;0.6219;0.7191;
1250.1000;0.6227;0.7142;
1250.4000;0.6235;0.7142;
1250.7000;0.6276;0.7215;
1251.0000;0.6203;0.7118;
1251.3000;0.6219;0.7191;
1251.6000;0.6292;0.7337;
1251.9000;0.6211;0.7215;
1252.2000;0.6235;0.7313;
1252.5000;0.6129;0.6996;
1252.8000;0.6211;0.7289;
1253.1000;0.6211;0.7215;
1253.4000;0.6203;0.7215;
1253.7000;0.6219;0.7337;
1254.0000;0.6235;0.7410;
1254.3000;0.6252;0.7532;
1254.6000;0.6252;0.7508;
1254.9000;0.6219;0.7557;
1255.2000;0.6276;0.7679;
1255.5000;0.6203;0.7484;
1255.8000;0.6235;0.7508;
1256.1000;0.6203;0.7435;
1256.4000;0.6252;0.7605;
1256.7000;0.6219;0.7605;
1257.0000;0.6276;0.7727;
1257.3000;0.6227;0.7654;
1257.6000;0.6211;0.7605;
1257.9000;0.6195;0.7508;
1258.2000;0.6235;0.7557;
1258.5000;0.6195;0.7484;
1258.8000;0.6211;0.7459;
1259.1000;0.6211;0.7484;
1259.4000;0.6243;0.7654;
1259.7000;0.6235;0.7679;
1260.0000;0.6211;0.7581;
1260.3000;0.6186;0.7557;
1260.6000;0.6154;0.7435;
1260.9000;0.6203;0.7508;
1261.2000;0.6195;0.7484;
1261.5000;0.6219;0.7557;
1261.8000;0.6243;0.7605;
1262.1000;0.6292;0.7703;
1262.4000;0.6227;0.7557;
1262.7000;0.6227;0.7508;
1263.0000;0.6203;0.7362;
1263.3000;0.6227;0.7386;
1263.6000;0.6227;0.7362;
1263.9000;0.6235;0.7313;
1264.2000;0.6219;0.7264;
1264.5000;0.6243;0.7362;
1264.8000;0.6235;0.7362;
1265.1000;0.6235;0.7410;
1265.4000;0.6227;0.7435;
1265.7000;0.6252;0.7557;
1266.0000;0.6227;0.7532;
1266.3000;0.6162;0.7337;
1266.6000;0.6227;0.7459;
1266.9000;0.6219;0.7532;
1267.2000;0.6235;0.7508;
1267.5000;0.6219;0.7508;
1267.8000;0.6219;0.7508;
1268.1000;0.6243;0.7532;
1268.4000;0.6243;0.7484;
1268.7000;0.6219;0.7459;
1269.0000;0.6227;0.7459;
1269.3000;0.6227;0.7410;
1269.6000;0.6227;0.7435;
1269.9000;0.6268;0.7581;
1270.2000;0.6276;0.7654;
1270.5000;0.6227;0.7484;
1270.8000;0.6211;0.7435;
1271.1000;0.6219;0.7362;
1271.4000;0.6195;0.7410;
1271.7000;0.6186;0.7362;
1272.0000;0.6170;0.7337;
1272.3000;0.6276;0.7557;
1272.6000;0.6203;0.7313;
1272.9000;0.6227;0.7386;
1273.2000;0.6219;0.7459;
1273.5000;0.6162;0.7362;
1273.8000;0.6203;0.7435;
1274.1000;0.6195;0.7410;
1274.4000;0.6227;0.7484;
1274.7000;0.6235;0.7605;
1275.0000;0.6235;0.7679;
1275.3000;0.6219;0.7654;
1275.6000;0.6211;0.7605;
1275.9000;0.6227;0.7654;
1276.2000;0.6227;0.7605;
1276.5000;0.6195;0.7557;
1276.8000;0.6154;0.7484;
1277.1000;0.6138;0.7459;
1277.4000;0.6219;0.7630;
1277.7000;0.6146;0.7484;
1278.0000;0.6195;0.7630;
1278.3000;0.6227;0.7776;
1278.6000;0.6227;0.7752;
1278.9000;0.6227;0.7752;
1279.2000;0.6219;0.7679;
1279.5000;0.6227;0.7679;
1279.8000;0.6227;0.7630;
1280.1000;0.6211;0.7557;
1280.4000;0.6219;0.7557;
1280.7000;0.6243;0.7532;
1281.0000;0.6227;0.7532;
1281.3000;0.6227;0.7581;
1281.6000;0.6235;0.7654;
1281.9000;0.6211;0.7654;
1282.2000;0.6203;0.7557;
1282.5000;0.6203;0.7532;
1282.8000;0.6260;0.7630;
1283.1000;0.6227;0.7484;
1283.4000;0.6195;0.7459;
1283.7000;0.6211;0.7386;
1284.0000;0.6219;0.7362;
1284.3000;0.6211;0.7337;
1284.6000;0.6211;0.7289;
1284.9000;0.6203;0.7240;
1285.2000;0.6203;0.7313;
1285.5000;0.6203;0.7313;
1285.8000;0.6219;0.7410;
1286.1000;0.6211;0.7508;
1286.4000;0.6203;0.7532;
1286.7000;0.6178;0.7362;
1287.0000;0.6186;0.7459;
1287.3000;0.6227;0.7557;
1287.6000;0.6227;0.7532;
1287.9000;0.6219;0.7532;
1288.2000;0.6235;0.7557;
1288.5000;0.6243;0.7605;
1288.8000;0.6227;0.7557;
1289.1000;0.6219;0.7605;
1289.4000;0.6219;0.7630;
1289.7000;0.6195;0.7508;
1290.0000;0.6227;0.7508;
1290.3000;0.6211;0.7435;
1290.6000;0.6203;0.7435;
1290.9000;0.6227;0.7508;
1291.2000;0.6227;0.7581;
1291.5000;0.6211;0.7532;
1291.8000;0.6243;0.7605;
1292.1000;0.6211;0.7581;
1292.4000;0.6243;0.7581;
1292.7000;0.6276;0.7679;
1293.0000;0.6211;0.7484;
1293.3000;0.6219;0.7410;
1293.6000;0.6219;0.7386;
1293.9000;0.6227;0.7508;
1294.2000;0.6186;0.7435;
1294.5000;0.6227;0.7362;
1294.8000;0.6211;0.7264;
1295.1000;0.6211;0.7215;
1295.4000;0.6309;0.7532;
1295.7000;0.6227;0.7337;
1296.0000;0.6219;0.7362;
1296.3000;0.6235;0.7532;
1296.6000;0.6138;0.7215;
1296.9000;0.6219;0.7386;
1297.2000;0.6178;0.7313;
1297.5000;0.6203;0.7386;
1297.8000;0.6203;0.7362;
1298.1000;0.6219;0.7386;
1298.4000;0.6211;0.7386;
1298.7000;0.6219;0.7459;
1299.0000;0.6243;0.7532;
1299.3000;0.6227;0.7532;
1299.6000;0.6252;0.7484;
1299.9000;0.6195;0.7362;
1300.2000;0.6235;0.7386;
1300.5000;0.6203;0.7410;
1300.8000;0.6203;0.7459;
1301.1000;0.6211;0.7386;
1301.4000;0.6219;0.7459;
1301.7000;0.6211;0.7459;
1302.0000;0.6178;0.7435;
1302.3000;0.6227;0.7435;
1302.6000;0.6211;0.7313;
1302.9000;0.6211;0.7532;
1303.2000;0.6211;0.7484;
1303.5000;0.6219;0.7508;
1303.8000;0.6227;0.7459;
1304.1000;0.6219;0.7362;
1304.4000;0.6235;0.7459;
1304.7000;0.6227;0.7410;
1305.0000;0.6243;0.7557;
1305.3000;0.6243;0.7605;
1305.6000;0.6235;0.7532;
1305.9000;0.6227;0.7435;
1306.2000;0.6219;0.7313;
1306.5000;0.6219;0.7337;
1306.8000;0.6211;0.7410;
1307.1000;0.6203;0.7362;
1307.4000;0.6219;0.7484;
1307.7000;0.6203;0.7508;
1308.0000;0.6186;0.7435;
1308.3000;0.6211;0.7410;
1308.6000;0.6219;0.7508;
1308.9000;0.6211;0.7557;
1309.2000;0.6260;0.7630;
1309.5000;0.6154;0.7386;
1309.8000;0.6243;0.7581;
1310.1000;0.6235;0.7532;
1310.4000;0.6219;0.7508;
1310.7000;0.6219;0.7410;
1311.0000;0.6211;0.7362;
1311.3000;0.6227;0.7337;
1311.6000;0.6235;0.7386;
1311.9000;0.6219;0.7362;
1312.2000;0.6211;0.7435;
1312.5000;0.6211;0.7435;
1312.8000;0.6219;0.7435;
1313.1000;0.6235;0.7386;
1313.4000;0.6227;0.7362;
1313.7000;0.6211;0.7484;
1314.0000;0.6203;0.7386;
1314.3000;0.6252;0.7459;
1314.6000;0.6260;0.7508;
1314.9000;0.6227;0.7532;
1315.2000;0.6276;0.7703;
1315.5000;0.6252;0.7752;
1315.8000;0.6235;0.7654;
1316.1000;0.6235;0.7630;
1316.4000;0.6227;0.7654;
1316.7000;0.6235;0.7679;
1317.0000;0.6219;0.7581;
1317.3000;0.6284;0.7679;
1317.6000;0.6227;0.7581;
1317.9000;0.6235;0.7557;
1318.2000;0.6235;0.7605;
1318.5000;0.6154;0.7313;
1318.8000;0.6235;0.7484;
1319.1000;0.6211;0.7459;
1319.4000;0.6235;0.7532;
1319.7000;0.6211;0.7508;
1320.0000;0.6211;0.7484;
1320.3000;0.6219;0.7605;
1320.6000;0.6219;0.7654;
1320.9000;0.6227;0.7654;
1321.2000;0.6243;0.7605;
1321.5000;0.6211;0.7630;
1321.8000;0.6219;0.7605;
1322.1000;0.6268;0.7605;
1322.4000;0.6235;0.7532;
1322.7000;0.6211;0.7557;
1323.0000;0.6178;0.7386;
1323.3000;0.6219;0.7484;
1323.6000;0.6211;0.7435;
1323.9000;0.6227;0.7508;
1324.2000;0.6162;0.7435;
1324.5000;0.6146;0.7386;
1324.8000;0.6235;0.7484;
1325.1000;0.6203;0.7362;
1325.4000;0.6211;0.7410;
1325.7000;0.6235;0.7484;
1326.0000;0.6219;0.7362;
1326.3000;0.6211;0.7313;
1326.6000;0.6227;0.7337;
1326.9000;0.6219;0.7313;
1327.2000;0.6211;0.7410;
1327.5000;0.6219;0.7410;
1327.8000;0.6211;0.7484;
1328.1000;0.6227;0.7557;
1328.4000;0.6227;0.7532;
1328.7000;0.6227;0.7508;
1329.0000;0.6219;0.7557;
1329.3000;0.6219;0.7557;
1329.6000;0.6227;0.7581;
1329.9000;0.6203;0.7532;
1330.2000;0.6211;0.7557;
1330.5000;0.6203;0.7557;
1330.8000;0.6195;0.7557;
1331.1000;0.6211;0.7508;
1331.4000;0.6227;0.7459;
1331.7000;0.6211;0.7459;
1332.0000;0.6219;0.7386;
1332.3000;0.6186;0.7386;
1332.6000;0.6211;0.7459;
1332.9000;0.6138;0.7289;
1333.2000;0.6227;0.7435;
1333.5000;0.6219;0.7362;
1333.8000;0.6219;0.7313;
1334.1000;0.6211;0.7264;
1334.4000;0.6227;0.7240;
1334.7000;0.6227;0.7191;
1335.0000;0.6219;0.7240;
1335.3000;0.6227;0.7410;
1335.6000;0.6243;0.7459;
1335.9000;0.6219;0.7508;
1336.2000;0.6227;0.7557;
1336.5000;0.6211;0.7581;
1336.8000;0.6162;0.7410;
1337.1000;0.6235;0.7605;
1337.4000;0.6235;0.7605;
1337.7000;0.6227;0.7508;
1338.0000;0.6219;0.7459;
1338.3000;0.6211;0.7508;
1338.6000;0.6235;0.7557;
1338.9000;0.6203;0.7484;
1339.2000;0.6195;0.7459;
1339.5000;0.6227;0.7508;
1339.8000;0.6219;0.7362;
1340.1000;0.6154;0.7191;
1340.4000;0.6211;0.7484;
1340.7000;0.6162;0.7362;
1341.0000;0.6235;0.7532;
1341.3000;0.6268;0.7581;
1341.6000;0.6211;0.7459;
1341.9000;0.6227;0.7532;
1342.2000;0.6252;0.7581;
1342.5000;0.6178;0.7410;
1342.8000;0.6211;0.7459;
1343.1000;0.6235;0.7581;
1343.4000;0.6252;0.7630;
1343.7000;0.6227;0.7581;
1344.0000;0.6211;0.7557;
1344.3000;0.6211;0.7508;
1344.6000;0.6284;0.7605;
1344.9000;0.6203;0.7410;
1345.2000;0.6227;0.7459;
1345.5000;0.6227;0.7459;
1345.8000;0.6219;0.7459;
1346.1000;0.6268;0.7532;
1346.4000;0.6219;0.7532;
1346.7000;0.6252;0.7630;
1347.0000;0.6211;0.7508;
1347.3000;0.6211;0.7532;
1347.6000;0.6227;0.7557;
1347.9000;0.6219;0.7557;
1348.2000;0.6227;0.7581;
1348.5000;0.6227;0.7654;
1348.8000;0.6235;0.7654;
1349.1000;0.6219;0.7679;
1349.4000;0.6195;0.7605;
1349.7000;0.6203;0.7605;
1350.0000;0.6235;0.7630;
1350.3000;0.6211;0.7557;
1350.6000;0.6252;0.7605;
1350.9000;0.6219;0.7435;
1351.2000;0.6252;0.7435;
1351.5000;0.6211;0.7386;
1351.8000;0.6170;0.7264;
1352.1000;0.6243;0.7435;
1352.4000;0.6219;0.7410;
1352.7000;0.6170;0.7337;
1353.0000;0.6211;0.7410;
1353.3000;0.6219;0.7557;
1353.6000;0.6235;0.7654;
1353.9000;0.6211;0.7581;
1354.2000;0.6219;0.7679;
1354.5000;0.6203;0.7703;
1354.8000;0.6219;0.7801;
1355.1000;0.6227;0.7801;
1355.4000;0.6219;0.7630;
1355.7000;0.6138;0.7435;
1356.0000;0.6227;0.7581;
1356.3000;0.6243;0.7630;
1356.6000;0.6227;0.7532;
1356.9000;0.6227;0.7508;
1357.2000;0.6227;0.7410;
1357.5000;0.6252;0.7410;
1357.8000;0.6227;0.7362;
1358.1000;0.6235;0.7289;
1358.4000;0.6227;0.7264;
1358.7000;0.6227;0.7264;
1359.0000;0.6227;0.7289;
1359.3000;0.6219;0.7264;
1359.6000;0.6211;0.7362;
1359.9000;0.6203;0.7484;
1360.2000;0.6203;0.7532;
1360.5000;0.6195;0.7484;
1360.8000;0.6186;0.7337;
1361.1000;0.6211;0.7386;
1361.4000;0.6211;0.7362;
1361.7000;0.6260;0.7557;
1362.0000;0.6203;0.7435;
1362.3000;0.6219;0.7484;
1362.6000;0.6203;0.7484;
1362.9000;0.6211;0.7508;
1363.2000;0.6211;0.7532;
1363.5000;0.6219;0.7532;
1363.8000;0.6227;0.7605;
1364.1000;0.6219;0.7532;
1364.4000;0.6211;0.7459;
1364.7000;0.6243;0.7484;
1365.0000;0.6227;0.7435;
1365.3000;0.6219;0.7532;
1365.6000;0.6219;0.7630;
1365.9000;0.6235;0.7605;
1366.2000;0.6292;0.7703;
1366.5000;0.6227;0.7581;
1366.8000;0.6243;0.7557;
1367.1000;0.6211;0.7508;
1367.4000;0.6154;0.7410;
1367.7000;0.6243;0.7630;
1368.0000;0.6211;0.7484;
1368.3000;0.6252;0.7557;
1368.6000;0.6211;0.7459;
1368.9000;0.6211;0.7435;
1369.2000;0.6227;0.7386;
1369.5000;0.6227;0.7386;
1369.8000;0.6252;0.7532;
1370.1000;0.6219;0.7484;
1370.4000;0.6227;0.7508;
1370.7000;0.6235;0.7484;
1371.0000;0.6284;0.7557;
1371.3000;0.6219;0.7362;
1371.6000;0.6243;0.7532;
1371.9000;0.6219;0.7605;
1372.2000;0.6203;0.7654;
1372.5000;0.6227;0.7752;
1372.8000;0.6235;0.7801;
1373.1000;0.6243;0.7703;
1373.4000;0.6227;0.7703;
1373.7000;0.6219;0.7752;
1374.0000;0.6235;0.7825;
1374.3000;0.6227;0.7776;
1374.6000;0.6219;0.7727;
1374.9000;0.6227;0.7752;
1375.2000;0.6227;0.7752;
1375.5000;0.6227;0.7752;
1375.8000;0.6227;0.7727;
1376.1000;0.6235;0.7703;
1376.4000;0.6227;0.7630;
1376.7000;0.6219;0.7484;
1377.0000;0.6227;0.7532;
1377.3000;0.6227;0.7532;
1377.6000;0.6235;0.7508;
1377.9000;0.6227;0.7435;
1378.2000;0.6219;0.7484;
1378.5000;0.6211;0.7459;
1378.8000;0.6203;0.7435;
1379.1000;0.6235;0.7508;
1379.4000;0.6227;0.7459;
1379.7000;0.6276;0.7557;
1380.0000;0.6235;0.7435;
1380.3000;0.6219;0.7362;
1380.6000;0.6235;0.7362;
1380.9000;0.6227;0.7313;
1381.2000;0.6219;0.7313;
1381.5000;0.6195;0.7264;
1381.8000;0.6243;0.7386;
1382.1000;0.6235;0.7386;
1382.4000;0.6235;0.7362;
1382.7000;0.6235;0.7484;
1383.0000;0.6235;0.7532;
1383.3000;0.6203;0.7532;
1383.6000;0.6219;0.7605;
1383.9000;0.6211;0.7557;
1384.2000;0.6276;0.7727;
1384.5000;0.6211;0.7581;
1384.8000;0.6235;0.7654;
1385.1000;0.6203;0.7557;
1385.4000;0.6219;0.7581;
1385.7000;0.6219;0.7605;
1386.0000;0.6227;0.7581;
1386.3000;0.6211;0.7459;
1386.6000;0.6243;0.7508;
1386.9000;0.6243;0.7532;
1387.2000;0.6235;0.7630;
1387.5000;0.6178;0.7459;
1387.8000;0.6227;0.7581;
1388.1000;0.6243;0.7654;
1388.4000;0.6268;0.7727;
1388.7000;0.6227;0.7605;
1389.0000;0.6211;0.7484;
1389.3000;0.6227;0.7557;
1389.6000;0.6211;0.7459;
1389.9000;0.6227;0.7508;
1390.2000;0.6260;0.7605;
1390.5000;0.6178;0.7435;
1390.8000;0.6243;0.7484;
1391.1000;0.6219;0.7459;
1391.4000;0.6235;0.7484;
1391.7000;0.6252;0.7532;
1392.0000;0.6211;0.7313;
1392.3000;0.6227;0.7264;
1392.6000;0.6146;0.6996;
1392.9000;0.6211;0.7264;
1393.2000;0.6211;0.7264;
1393.5000;0.6195;0.7167;
1393.8000;0.6211;0.7240;
1394.1000;0.6219;0.7289;
1394.4000;0.6227;0.7289;
1394.7000;0.6235;0.7313;
1395.0000;0.6268;0.7459;
1395.3000;0.6252;0.7459;
1395.6000;0.6243;0.7362;
1395.9000;0.6211;0.7362;
1396.2000;0.6284;0.7435;
1396.5000;0.6227;0.7313;
1396.8000;0.6227;0.7362;
1397.1000;0.6219;0.7362;
1397.4000;0.6235;0.7459;
1397.7000;0.6211;0.7337;
1398.0000;0.6219;0.7410;
1398.3000;0.6211;0.7508;
1398.6000;0.6219;0.7654;
1398.9000;0.6203;0.7679;
1399.2000;0.6235;0.7703;
1399.5000;0.6219;0.7605;
1399.8000;0.6211;0.7532;
