time/ms;Fluo/V;P700 deltaI/I x10³;
-199.8000;0.7700;0.5655;
-199.5000;0.7652;0.5607;
-199.2000;0.7700;0.5704;
-198.9000;0.7684;0.5802;
-198.6000;0.7692;0.5899;
-198.3000;0.7684;0.5850;
-198.0000;0.7684;0.5924;
-197.7000;0.7725;0.5997;
-197.4000;0.7684;0.5924;
-197.1000;0.7676;0.5850;
-196.8000;0.7692;0.5899;
-196.5000;0.7709;0.5948;
-196.2000;0.7684;0.5899;
-195.9000;0.7700;0.5948;
-195.6000;0.7717;0.5972;
-195.3000;0.7635;0.5680;
-195.0000;0.7709;0.5728;
-194.7000;0.7676;0.5680;
-194.4000;0.7660;0.5631;
-194.1000;0.7627;0.5558;
-193.8000;0.7709;0.5753;
-193.5000;0.7692;0.5680;
-193.2000;0.7700;0.5631;
-192.9000;0.7684;0.5607;
-192.6000;0.7700;0.5631;
-192.3000;0.7709;0.5655;
-192.0000;0.7643;0.5509;
-191.7000;0.7668;0.5680;
-191.4000;0.7684;0.5777;
-191.1000;0.7668;0.5802;
-190.8000;0.7700;0.5802;
-190.5000;0.7700;0.5753;
-190.2000;0.7619;0.5582;
-189.9000;0.7709;0.5802;
-189.6000;0.7741;0.5850;
-189.3000;0.7741;0.5802;
-189.0000;0.7676;0.5655;
-188.7000;0.7595;0.5460;
-188.4000;0.7643;0.5533;
-188.1000;0.7684;0.5655;
-187.8000;0.7700;0.5753;
-187.5000;0.7692;0.5728;
-187.2000;0.7595;0.5631;
-186.9000;0.7676;0.5875;
-186.6000;0.7652;0.5753;
-186.3000;0.7684;0.5753;
-186.0000;0.7692;0.5777;
-185.7000;0.7684;0.5802;
-185.4000;0.7635;0.5582;
-185.1000;0.7700;0.5777;
-184.8000;0.7725;0.5997;
-184.5000;0.7692;0.5972;
-184.2000;0.7717;0.5972;
-183.9000;0.7684;0.5972;
-183.6000;0.7709;0.6045;
-183.3000;0.7692;0.5972;
-183.0000;0.7692;0.6021;
-182.7000;0.7660;0.5899;
-182.4000;0.7700;0.5997;
-182.1000;0.7717;0.6070;
-181.8000;0.7700;0.5997;
-181.5000;0.7692;0.5972;
-181.2000;0.7676;0.5948;
-180.9000;0.7709;0.6045;
-180.6000;0.7717;0.6045;
-180.3000;0.7676;0.5948;
-180.0000;0.7684;0.5972;
-179.7000;0.7709;0.6045;
-179.4000;0.7766;0.6192;
-179.1000;0.7684;0.5997;
-178.8000;0.7684;0.5972;
-178.5000;0.7692;0.5948;
-178.2000;0.7684;0.5777;
-177.9000;0.7684;0.5728;
-177.6000;0.7668;0.5680;
-177.3000;0.7733;0.5875;
-177.0000;0.7709;0.5802;
-176.7000;0.7766;0.5875;
-176.4000;0.7676;0.5704;
-176.1000;0.7684;0.5802;
-175.8000;0.7676;0.5802;
-175.5000;0.7684;0.5802;
-175.2000;0.7692;0.5704;
-174.9000;0.7774;0.5924;
-174.6000;0.7692;0.5680;
-174.3000;0.7676;0.5607;
-174.0000;0.7676;0.5558;
-173.7000;0.7676;0.5460;
-173.4000;0.7660;0.5509;
-173.1000;0.7660;0.5607;
-172.8000;0.7700;0.5655;
-172.5000;0.7684;0.5631;
-172.2000;0.7709;0.5680;
-171.9000;0.7700;0.5558;
-171.6000;0.7684;0.5582;
-171.3000;0.7603;0.5314;
-171.0000;0.7692;0.5509;
-170.7000;0.7709;0.5558;
-170.4000;0.7684;0.5558;
-170.1000;0.7652;0.5582;
-169.8000;0.7668;0.5704;
-169.5000;0.7684;0.5728;
-169.2000;0.7733;0.5850;
-168.9000;0.7692;0.5728;
-168.6000;0.7692;0.5680;
-168.3000;0.7700;0.5680;
-168.0000;0.7652;0.5558;
-167.7000;0.7652;0.5558;
-167.4000;0.7668;0.5607;
-167.1000;0.7676;0.5753;
-166.8000;0.7643;0.5655;
-166.5000;0.7676;0.5607;
-166.2000;0.7676;0.5509;
-165.9000;0.7684;0.5436;
-165.6000;0.7692;0.5460;
-165.3000;0.7692;0.5363;
-165.0000;0.7709;0.5460;
-164.7000;0.7700;0.5509;
-164.4000;0.7700;0.5460;
-164.1000;0.7700;0.5460;
-163.8000;0.7660;0.5363;
-163.5000;0.7782;0.5655;
-163.2000;0.7684;0.5460;
-162.9000;0.7700;0.5460;
-162.6000;0.7684;0.5582;
-162.3000;0.7684;0.5533;
-162.0000;0.7684;0.5509;
-161.7000;0.7684;0.5558;
-161.4000;0.7668;0.5655;
-161.1000;0.7676;0.5655;
-160.8000;0.7700;0.5631;
-160.5000;0.7692;0.5631;
-160.2000;0.7668;0.5655;
-159.9000;0.7700;0.5777;
-159.6000;0.7676;0.5728;
-159.3000;0.7627;0.5558;
-159.0000;0.7700;0.5802;
-158.7000;0.7684;0.5826;
-158.4000;0.7700;0.5972;
-158.1000;0.7709;0.6045;
-157.8000;0.7676;0.5997;
-157.5000;0.7684;0.5899;
-157.2000;0.7676;0.5924;
-156.9000;0.7692;0.5948;
-156.6000;0.7692;0.5924;
-156.3000;0.7709;0.5875;
-156.0000;0.7692;0.5753;
-155.7000;0.7692;0.5777;
-155.4000;0.7700;0.5875;
-155.1000;0.7692;0.5826;
-154.8000;0.7717;0.5924;
-154.5000;0.7717;0.5972;
-154.2000;0.7692;0.5997;
-153.9000;0.7700;0.5997;
-153.6000;0.7700;0.5948;
-153.3000;0.7700;0.5875;
-153.0000;0.7709;0.5924;
-152.7000;0.7692;0.5972;
-152.4000;0.7749;0.6167;
-152.1000;0.7668;0.5948;
-151.8000;0.7700;0.5997;
-151.5000;0.7684;0.5899;
-151.2000;0.7676;0.5948;
-150.9000;0.7700;0.5972;
-150.6000;0.7692;0.5899;
-150.3000;0.7700;0.5899;
-150.0000;0.7676;0.5875;
-149.7000;0.7692;0.5899;
-149.4000;0.7700;0.5850;
-149.1000;0.7692;0.5850;
-148.8000;0.7684;0.5875;
-148.5000;0.7676;0.5948;
-148.2000;0.7668;0.5924;
-147.9000;0.7684;0.5875;
-147.6000;0.7676;0.5777;
-147.3000;0.7692;0.5826;
-147.0000;0.7676;0.5777;
-146.7000;0.7668;0.5802;
-146.4000;0.7676;0.5875;
-146.1000;0.7676;0.5850;
-145.8000;0.7684;0.5753;
-145.5000;0.7709;0.5875;
-145.2000;0.7692;0.5875;
-144.9000;0.7660;0.5850;
-144.6000;0.7700;0.5997;
-144.3000;0.7684;0.5899;
-144.0000;0.7717;0.5972;
-143.7000;0.7684;0.5972;
-143.4000;0.7757;0.6167;
-143.1000;0.7660;0.5948;
-142.8000;0.7676;0.5972;
-142.5000;0.7692;0.5924;
-142.2000;0.7692;0.5972;
-141.9000;0.7684;0.5924;
-141.6000;0.7692;0.5972;
-141.3000;0.7700;0.5997;
-141.0000;0.7684;0.5972;
-140.7000;0.7692;0.6045;
-140.4000;0.7757;0.6192;
-140.1000;0.7700;0.5948;
-139.8000;0.7692;0.5875;
-139.5000;0.7700;0.5899;
-139.2000;0.7684;0.5777;
-138.9000;0.7700;0.5753;
-138.6000;0.7684;0.5753;
-138.3000;0.7692;0.5728;
-138.0000;0.7684;0.5655;
-137.7000;0.7684;0.5607;
-137.4000;0.7700;0.5631;
-137.1000;0.7668;0.5582;
-136.8000;0.7684;0.5655;
-136.5000;0.7684;0.5655;
-136.2000;0.7684;0.5655;
-135.9000;0.7660;0.5607;
-135.6000;0.7684;0.5631;
-135.3000;0.7676;0.5631;
-135.0000;0.7684;0.5728;
-134.7000;0.7684;0.5607;
-134.4000;0.7692;0.5607;
-134.1000;0.7700;0.5631;
-133.8000;0.7692;0.5680;
-133.5000;0.7676;0.5704;
-133.2000;0.7692;0.5631;
-132.9000;0.7692;0.5631;
-132.6000;0.7619;0.5582;
-132.3000;0.7684;0.5753;
-132.0000;0.7684;0.5607;
-131.7000;0.7635;0.5582;
-131.4000;0.7692;0.5753;
-131.1000;0.7692;0.5728;
-130.8000;0.7684;0.5802;
-130.5000;0.7643;0.5704;
-130.2000;0.7700;0.5777;
-129.9000;0.7692;0.5728;
-129.6000;0.7749;0.5924;
-129.3000;0.7643;0.5704;
-129.0000;0.7692;0.5802;
-128.7000;0.7643;0.5655;
-128.4000;0.7676;0.5802;
-128.1000;0.7554;0.5533;
-127.8000;0.7676;0.5850;
-127.5000;0.7700;0.5948;
-127.2000;0.7684;0.5924;
-126.9000;0.7749;0.5972;
-126.6000;0.7692;0.5704;
-126.3000;0.7692;0.5704;
-126.0000;0.7700;0.5728;
-125.7000;0.7684;0.5631;
-125.4000;0.7717;0.5680;
-125.1000;0.7684;0.5558;
-124.8000;0.7692;0.5631;
-124.5000;0.7700;0.5728;
-124.2000;0.7692;0.5753;
-123.9000;0.7692;0.5802;
-123.6000;0.7692;0.5777;
-123.3000;0.7684;0.5850;
-123.0000;0.7676;0.5826;
-122.7000;0.7684;0.5850;
-122.4000;0.7692;0.5850;
-122.1000;0.7676;0.5850;
-121.8000;0.7684;0.5802;
-121.5000;0.7668;0.5753;
-121.2000;0.7700;0.5802;
-120.9000;0.7692;0.5777;
-120.6000;0.7700;0.5802;
-120.3000;0.7700;0.5802;
-120.0000;0.7692;0.5777;
-119.7000;0.7741;0.5924;
-119.4000;0.7692;0.5753;
-119.1000;0.7692;0.5728;
-118.8000;0.7684;0.5655;
-118.5000;0.7709;0.5631;
-118.2000;0.7700;0.5655;
-117.9000;0.7692;0.5728;
-117.6000;0.7700;0.5728;
-117.3000;0.7709;0.5850;
-117.0000;0.7684;0.5802;
-116.7000;0.7676;0.5826;
-116.4000;0.7627;0.5753;
-116.1000;0.7692;0.5850;
-115.8000;0.7684;0.5924;
-115.5000;0.7668;0.5899;
-115.2000;0.7692;0.5948;
-114.9000;0.7676;0.5850;
-114.6000;0.7700;0.5948;
-114.3000;0.7741;0.5997;
-114.0000;0.7692;0.5826;
-113.7000;0.7692;0.5850;
-113.4000;0.7733;0.5948;
-113.1000;0.7692;0.5777;
-112.8000;0.7684;0.5704;
-112.5000;0.7700;0.5753;
-112.2000;0.7643;0.5704;
-111.9000;0.7676;0.5753;
-111.6000;0.7692;0.5777;
-111.3000;0.7660;0.5607;
-111.0000;0.7700;0.5631;
-110.7000;0.7700;0.5655;
-110.4000;0.7684;0.5631;
-110.1000;0.7692;0.5655;
-109.8000;0.7692;0.5655;
-109.5000;0.7692;0.5704;
-109.2000;0.7700;0.5728;
-108.9000;0.7692;0.5728;
-108.6000;0.7709;0.5875;
-108.3000;0.7692;0.5875;
-108.0000;0.7643;0.5777;
-107.7000;0.7692;0.5924;
-107.4000;0.7692;0.5948;
-107.1000;0.7684;0.5972;
-106.8000;0.7684;0.6021;
-106.5000;0.7627;0.5753;
-106.2000;0.7684;0.5802;
-105.9000;0.7652;0.5777;
-105.6000;0.7684;0.5948;
-105.3000;0.7668;0.5948;
-105.0000;0.7676;0.5899;
-104.7000;0.7684;0.5948;
-104.4000;0.7700;0.5972;
-104.1000;0.7684;0.5899;
-103.8000;0.7692;0.5924;
-103.5000;0.7700;0.5899;
-103.2000;0.7676;0.5899;
-102.9000;0.7757;0.6070;
-102.6000;0.7692;0.5875;
-102.3000;0.7676;0.5850;
-102.0000;0.7700;0.5850;
-101.7000;0.7684;0.5777;
-101.4000;0.7676;0.5777;
-101.1000;0.7684;0.5826;
-100.8000;0.7676;0.5826;
-100.5000;0.7700;0.5899;
-100.2000;0.7684;0.5850;
-99.9000;0.7692;0.5826;
-99.6000;0.7749;0.5875;
-99.3000;0.7676;0.5728;
-99.0000;0.7700;0.5728;
-98.7000;0.7692;0.5655;
-98.4000;0.7684;0.5704;
-98.1000;0.7709;0.5753;
-97.8000;0.7684;0.5704;
-97.5000;0.7676;0.5704;
-97.2000;0.7700;0.5704;
-96.9000;0.7676;0.5655;
-96.6000;0.7684;0.5704;
-96.3000;0.7709;0.5680;
-96.0000;0.7692;0.5607;
-95.7000;0.7692;0.5631;
-95.4000;0.7709;0.5777;
-95.1000;0.7668;0.5777;
-94.8000;0.7684;0.5826;
-94.5000;0.7635;0.5655;
-94.2000;0.7652;0.5704;
-93.9000;0.7684;0.5850;
-93.6000;0.7692;0.5899;
-93.3000;0.7725;0.5875;
-93.0000;0.7700;0.5875;
-92.7000;0.7676;0.5899;
-92.4000;0.7668;0.5826;
-92.1000;0.7700;0.5899;
-91.8000;0.7676;0.5924;
-91.5000;0.7700;0.6021;
-91.2000;0.7700;0.6045;
-90.9000;0.7700;0.5948;
-90.6000;0.7692;0.5924;
-90.3000;0.7660;0.5802;
-90.0000;0.7684;0.5802;
-89.7000;0.7692;0.5753;
-89.4000;0.7700;0.5802;
-89.1000;0.7790;0.6094;
-88.8000;0.7700;0.5875;
-88.5000;0.7709;0.5948;
-88.2000;0.7741;0.6021;
-87.9000;0.7692;0.5802;
-87.6000;0.7700;0.5802;
-87.3000;0.7709;0.5826;
-87.0000;0.7782;0.6070;
-86.7000;0.7684;0.5850;
-86.4000;0.7692;0.5850;
-86.1000;0.7692;0.5753;
-85.8000;0.7709;0.5728;
-85.5000;0.7692;0.5728;
-85.2000;0.7700;0.5802;
-84.9000;0.7635;0.5582;
-84.6000;0.7676;0.5728;
-84.3000;0.7700;0.5728;
-84.0000;0.7668;0.5704;
-83.7000;0.7684;0.5728;
-83.4000;0.7692;0.5655;
-83.1000;0.7700;0.5607;
-82.8000;0.7692;0.5533;
-82.5000;0.7619;0.5412;
-82.2000;0.7684;0.5558;
-81.9000;0.7741;0.5728;
-81.6000;0.7692;0.5582;
-81.3000;0.7692;0.5607;
-81.0000;0.7676;0.5582;
-80.7000;0.7692;0.5704;
-80.4000;0.7700;0.5728;
-80.1000;0.7692;0.5680;
-79.8000;0.7700;0.5753;
-79.5000;0.7709;0.5777;
-79.2000;0.7692;0.5753;
-78.9000;0.7700;0.5802;
-78.6000;0.7692;0.5850;
-78.3000;0.7668;0.5728;
-78.0000;0.7700;0.5802;
-77.7000;0.7709;0.5802;
-77.4000;0.7684;0.5777;
-77.1000;0.7676;0.5753;
-76.8000;0.7684;0.5680;
-76.5000;0.7684;0.5680;
-76.2000;0.7700;0.5728;
-75.9000;0.7700;0.5728;
-75.6000;0.7676;0.5680;
-75.3000;0.7692;0.5728;
-75.0000;0.7692;0.5777;
-74.7000;0.7692;0.5777;
-74.4000;0.7725;0.5802;
-74.1000;0.7717;0.5826;
-73.8000;0.7725;0.5826;
-73.5000;0.7684;0.5655;
-73.2000;0.7684;0.5558;
-72.9000;0.7725;0.5680;
-72.6000;0.7725;0.5753;
-72.3000;0.7627;0.5533;
-72.0000;0.7692;0.5631;
-71.7000;0.7668;0.5558;
-71.4000;0.7700;0.5631;
-71.1000;0.7692;0.5655;
-70.8000;0.7684;0.5680;
-70.5000;0.7700;0.5753;
-70.2000;0.7684;0.5753;
-69.9000;0.7668;0.5655;
-69.6000;0.7676;0.5655;
-69.3000;0.7790;0.5875;
-69.0000;0.7668;0.5533;
-68.7000;0.7676;0.5607;
-68.4000;0.7676;0.5655;
-68.1000;0.7635;0.5582;
-67.8000;0.7692;0.5728;
-67.5000;0.7676;0.5802;
-67.2000;0.7684;0.5826;
-66.9000;0.7668;0.5728;
-66.6000;0.7700;0.5850;
-66.3000;0.7668;0.5802;
-66.0000;0.7684;0.5777;
-65.7000;0.7725;0.5777;
-65.4000;0.7757;0.5899;
-65.1000;0.7692;0.5802;
-64.8000;0.7684;0.5826;
-64.5000;0.7692;0.5777;
-64.2000;0.7798;0.6021;
-63.9000;0.7692;0.5704;
-63.6000;0.7700;0.5728;
-63.3000;0.7717;0.5826;
-63.0000;0.7619;0.5582;
-62.7000;0.7660;0.5777;
-62.4000;0.7692;0.5826;
-62.1000;0.7684;0.5680;
-61.8000;0.7684;0.5631;
-61.5000;0.7684;0.5607;
-61.2000;0.7668;0.5509;
-60.9000;0.7692;0.5558;
-60.6000;0.7684;0.5533;
-60.3000;0.7635;0.5436;
-60.0000;0.7692;0.5558;
-59.7000;0.7684;0.5558;
-59.4000;0.7676;0.5680;
-59.1000;0.7692;0.5655;
-58.8000;0.7684;0.5777;
-58.5000;0.7684;0.5753;
-58.2000;0.7660;0.5777;
-57.9000;0.7668;0.5753;
-57.6000;0.7668;0.5728;
-57.3000;0.7684;0.5704;
-57.0000;0.7652;0.5607;
-56.7000;0.7684;0.5631;
-56.4000;0.7660;0.5558;
-56.1000;0.7684;0.5680;
-55.8000;0.7668;0.5631;
-55.5000;0.7652;0.5582;
-55.2000;0.7684;0.5728;
-54.9000;0.7676;0.5777;
-54.6000;0.7692;0.5753;
-54.3000;0.7700;0.5728;
-54.0000;0.7668;0.5680;
-53.7000;0.7692;0.5777;
-53.4000;0.7700;0.5850;
-53.1000;0.7709;0.5850;
-52.8000;0.7700;0.5826;
-52.5000;0.7676;0.5850;
-52.2000;0.7692;0.5850;
-51.9000;0.7668;0.5850;
-51.6000;0.7692;0.5899;
-51.3000;0.7692;0.5826;
-51.0000;0.7652;0.5753;
-50.7000;0.7692;0.5826;
-50.4000;0.7684;0.5753;
-50.1000;0.7692;0.5777;
-49.8000;0.7700;0.5875;
-49.5000;0.7692;0.5802;
-49.2000;0.7684;0.5753;
-48.9000;0.7692;0.5875;
-48.6000;0.7733;0.6021;
-48.3000;0.7692;0.5924;
-48.0000;0.7684;0.5997;
-47.7000;0.7692;0.5972;
-47.4000;0.7684;0.5948;
-47.1000;0.7700;0.5948;
-46.8000;0.7692;0.5899;
-46.5000;0.7668;0.5728;
-46.2000;0.7700;0.5850;
-45.9000;0.7676;0.5850;
-45.6000;0.7766;0.6021;
-45.3000;0.7652;0.5704;
-45.0000;0.7676;0.5850;
-44.7000;0.7692;0.5899;
-44.4000;0.7700;0.5899;
-44.1000;0.7684;0.5826;
-43.8000;0.7709;0.5826;
-43.5000;0.7676;0.5777;
-43.2000;0.7692;0.5802;
-42.9000;0.7684;0.5802;
-42.6000;0.7692;0.5802;
-42.3000;0.7676;0.5753;
-42.0000;0.7709;0.5777;
-41.7000;0.7684;0.5802;
-41.4000;0.7700;0.5924;
-41.1000;0.7700;0.5997;
-40.8000;0.7692;0.5875;
-40.5000;0.7692;0.5850;
-40.2000;0.7709;0.5704;
-39.9000;0.7684;0.5631;
-39.6000;0.7709;0.5826;
-39.3000;0.7676;0.5753;
-39.0000;0.7676;0.5728;
-38.7000;0.7709;0.5753;
-38.4000;0.7700;0.5704;
-38.1000;0.7684;0.5753;
-37.8000;0.7660;0.5704;
-37.5000;0.7684;0.5704;
-37.2000;0.7635;0.5533;
-36.9000;0.7668;0.5607;
-36.6000;0.7668;0.5631;
-36.3000;0.7643;0.5607;
-36.0000;0.7668;0.5680;
-35.7000;0.7741;0.5826;
-35.4000;0.7676;0.5655;
-35.1000;0.7668;0.5704;
-34.8000;0.7684;0.5850;
-34.5000;0.7595;0.5728;
-34.2000;0.7676;0.6021;
-33.9000;0.7676;0.6045;
-33.6000;0.7692;0.6119;
-33.3000;0.7668;0.6021;
-33.0000;0.7660;0.5899;
-32.7000;0.7676;0.5948;
-32.4000;0.7692;0.6021;
-32.1000;0.7676;0.5972;
-31.8000;0.7684;0.5924;
-31.5000;0.7692;0.5948;
-31.2000;0.7692;0.5924;
-30.9000;0.7700;0.5899;
-30.6000;0.7676;0.5899;
-30.3000;0.7700;0.5972;
-30.0000;0.7684;0.5948;
-29.7000;0.7700;0.5826;
-29.4000;0.7692;0.5826;
-29.1000;0.7684;0.5753;
-28.8000;0.7692;0.5826;
-28.5000;0.7692;0.5802;
-28.2000;0.7700;0.5777;
-27.9000;0.7692;0.5631;
-27.6000;0.7676;0.5655;
-27.3000;0.7668;0.5631;
-27.0000;0.7692;0.5680;
-26.7000;0.7668;0.5777;
-26.4000;0.7684;0.5802;
-26.1000;0.7692;0.5777;
-25.8000;0.7684;0.5753;
-25.5000;0.7676;0.5728;
-25.2000;0.7692;0.5753;
-24.9000;0.7684;0.5753;
-24.6000;0.7700;0.5728;
-24.3000;0.7668;0.5680;
-24.0000;0.7700;0.5777;
-23.7000;0.7676;0.5777;
-23.4000;0.7643;0.5680;
-23.1000;0.7684;0.5802;
-22.8000;0.7700;0.5899;
-22.5000;0.7692;0.5899;
-22.2000;0.7692;0.5899;
-21.9000;0.7684;0.5850;
-21.6000;0.7668;0.5802;
-21.3000;0.7700;0.5777;
-21.0000;0.7700;0.5826;
-20.7000;0.7700;0.5826;
-20.4000;0.7676;0.5777;
-20.1000;0.7684;0.5680;
-19.8000;0.7692;0.5753;
-19.5000;0.7700;0.5802;
-19.2000;0.7684;0.5753;
-18.9000;0.7692;0.5704;
-18.6000;0.7684;0.5655;
-18.3000;0.7692;0.5777;
-18.0000;0.7684;0.5753;
-17.7000;0.7684;0.5777;
-17.4000;0.7766;0.5899;
-17.1000;0.7692;0.5777;
-16.8000;0.7692;0.5777;
-16.5000;0.7700;0.5777;
-16.2000;0.7692;0.5728;
-15.9000;0.7692;0.5704;
-15.6000;0.7700;0.5728;
-15.3000;0.7700;0.5728;
-15.0000;0.7684;0.5777;
-14.7000;0.7692;0.5777;
-14.4000;0.7709;0.5826;
-14.1000;0.7700;0.5826;
-13.8000;0.7668;0.5728;
-13.5000;0.7692;0.5802;
-13.2000;0.7692;0.5728;
-12.9000;0.7692;0.5728;
-12.6000;0.7709;0.5753;
-12.3000;0.7676;0.5655;
-12.0000;0.7684;0.5607;
-11.7000;0.7692;0.5631;
-11.4000;0.7676;0.5558;
-11.1000;0.7676;0.5558;
-10.8000;0.7676;0.5558;
-10.5000;0.7692;0.5631;
-10.2000;0.7676;0.5582;
-9.9000;0.7668;0.5533;
-9.6000;0.7676;0.5582;
-9.3000;0.7676;0.5680;
-9.0000;0.7684;0.5680;
-8.7000;0.7692;0.5631;
-8.4000;0.7668;0.5631;
-8.1000;0.7692;0.5704;
-7.8000;0.7668;0.5582;
-7.5000;0.7660;0.5631;
-7.2000;0.7692;0.5655;
-6.9000;0.7660;0.5680;
-6.6000;0.7684;0.5753;
-6.3000;0.7692;0.5753;
-6.0000;0.7676;0.5728;
-5.7000;0.7700;0.5753;
-5.4000;0.7709;0.5826;
-5.1000;0.7692;0.5777;
-4.8000;0.7692;0.5802;
-4.5000;0.7684;0.5802;
-4.2000;0.7692;0.5826;
-3.9000;0.7684;0.5802;
-3.6000;0.7676;0.5704;
-3.3000;0.7700;0.5728;
-3.0000;0.7684;0.5704;
-2.7000;0.7668;0.5704;
-2.4000;0.7668;0.5680;
-2.1000;0.7668;0.5607;
-1.8000;0.7790;0.5777;
-1.5000;0.7668;0.5558;
-1.2000;0.7684;0.5460;
-0.9000;0.7676;0.5533;
-0.6000;0.7676;0.5533;
-0.3000;0.7668;0.5558;
0.0000;0.7668;0.5558;
0.3000;0.7725;0.5753;
0.6000;0.7806;0.5972;
0.9000;0.7888;0.6240;
1.2000;0.7920;0.6460;
1.5000;0.7961;0.6655;
1.8000;0.7937;0.6777;
2.1000;0.8010;0.7142;
2.4000;0.8042;0.7289;
2.7000;0.8083;0.7459;
3.0000;0.8034;0.7386;
3.3000;0.8075;0.7557;
3.6000;0.8132;0.7727;
3.9000;0.8026;0.7508;
4.2000;0.8075;0.7679;
4.5000;0.8099;0.7752;
4.8000;0.8083;0.7801;
5.1000;0.8107;0.7849;
5.4000;0.8116;0.7947;
5.7000;0.8132;0.7996;
6.0000;0.8124;0.8093;
6.3000;0.8124;0.8191;
6.6000;0.8107;0.8020;
6.9000;0.8091;0.7898;
7.2000;0.8156;0.8020;
7.5000;0.8140;0.8069;
7.8000;0.8140;0.8117;
8.1000;0.8148;0.8142;
8.4000;0.8156;0.8191;
8.7000;0.8164;0.8215;
9.0000;0.8132;0.8142;
9.3000;0.8107;0.8020;
9.6000;0.8164;0.8093;
9.9000;0.8156;0.7922;
10.2000;0.8107;0.7825;
10.5000;0.8156;0.7971;
10.8000;0.8164;0.8020;
11.1000;0.8181;0.8020;
11.4000;0.8156;0.7971;
11.7000;0.8148;0.7947;
12.0000;0.8181;0.8069;
12.3000;0.8164;0.8093;
12.6000;0.8173;0.8191;
12.9000;0.8173;0.8288;
13.2000;0.8262;0.8556;
13.5000;0.8181;0.8288;
13.8000;0.8197;0.8312;
14.1000;0.8173;0.8288;
14.4000;0.8164;0.8264;
14.7000;0.8173;0.8264;
15.0000;0.8164;0.8264;
15.3000;0.8181;0.8264;
15.6000;0.8189;0.8142;
15.9000;0.8197;0.8069;
16.2000;0.8213;0.8142;
16.5000;0.8197;0.8166;
16.8000;0.8197;0.8142;
17.1000;0.8197;0.8191;
17.4000;0.8197;0.8117;
17.7000;0.8197;0.8044;
18.0000;0.8189;0.8044;
18.3000;0.8181;0.8020;
18.6000;0.8197;0.8142;
18.9000;0.8213;0.8142;
19.2000;0.8197;0.8093;
19.5000;0.8189;0.8142;
19.8000;0.8221;0.8166;
20.1000;0.8189;0.8142;
20.4000;0.8173;0.8142;
20.7000;0.8181;0.8312;
21.0000;0.8197;0.8410;
21.3000;0.8295;0.8654;
21.6000;0.8156;0.8264;
21.9000;0.8221;0.8288;
22.2000;0.8164;0.8117;
22.5000;0.8205;0.8191;
22.8000;0.8197;0.8191;
23.1000;0.8189;0.8142;
23.4000;0.8132;0.8020;
23.7000;0.8197;0.8239;
24.0000;0.8221;0.8312;
24.3000;0.8205;0.8166;
24.6000;0.8197;0.8191;
24.9000;0.8221;0.8264;
25.2000;0.8335;0.8459;
25.5000;0.8213;0.8215;
25.8000;0.8213;0.8191;
26.1000;0.8189;0.8239;
26.4000;0.8205;0.8386;
26.7000;0.8181;0.8239;
27.0000;0.8197;0.8215;
27.3000;0.8213;0.8215;
27.6000;0.8189;0.8117;
27.9000;0.8221;0.8215;
28.2000;0.8205;0.8239;
28.5000;0.8205;0.8239;
28.8000;0.8205;0.8239;
29.1000;0.8254;0.8386;
29.4000;0.8221;0.8386;
29.7000;0.8213;0.8288;
30.0000;0.8254;0.8361;
30.3000;0.8213;0.8191;
30.6000;0.8213;0.8264;
30.9000;0.8213;0.8312;
31.2000;0.8197;0.8215;
31.5000;0.8213;0.8239;
31.8000;0.8205;0.8239;
32.1000;0.8213;0.8288;
32.4000;0.8213;0.8312;
32.7000;0.8230;0.8361;
33.0000;0.8181;0.8337;
33.3000;0.8197;0.8361;
33.6000;0.8197;0.8386;
33.9000;0.8091;0.8069;
34.2000;0.8221;0.8386;
34.5000;0.8156;0.8312;
34.8000;0.8205;0.8386;
35.1000;0.8197;0.8215;
35.4000;0.8254;0.8337;
35.7000;0.8230;0.8337;
36.0000;0.8205;0.8337;
36.3000;0.8213;0.8215;
36.6000;0.8230;0.8288;
36.9000;0.8173;0.8191;
37.2000;0.8213;0.8361;
37.5000;0.8230;0.8386;
37.8000;0.8197;0.8288;
38.1000;0.8197;0.8288;
38.4000;0.8189;0.8288;
38.7000;0.8197;0.8239;
39.0000;0.8156;0.8191;
39.3000;0.8205;0.8361;
39.6000;0.8189;0.8312;
39.9000;0.8189;0.8337;
40.2000;0.8205;0.8264;
40.5000;0.8205;0.8264;
40.8000;0.8205;0.8288;
41.1000;0.8213;0.8264;
41.4000;0.8189;0.8215;
41.7000;0.8197;0.8264;
42.0000;0.8197;0.8264;
42.3000;0.8181;0.8166;
42.6000;0.8213;0.8288;
42.9000;0.8205;0.8312;
43.2000;0.8221;0.8410;
43.5000;0.8197;0.8312;
43.8000;0.8189;0.8264;
44.1000;0.8189;0.8337;
44.4000;0.8205;0.8361;
44.7000;0.8197;0.8312;
45.0000;0.8164;0.8361;
45.3000;0.8221;0.8507;
45.6000;0.8189;0.8410;
45.9000;0.8246;0.8434;
46.2000;0.8197;0.8264;
46.5000;0.8189;0.8312;
46.8000;0.8173;0.8288;
47.1000;0.8189;0.8337;
47.4000;0.8213;0.8434;
47.7000;0.8189;0.8386;
48.0000;0.8189;0.8239;
48.3000;0.8189;0.8191;
48.6000;0.8197;0.8239;
48.9000;0.8189;0.8215;
49.2000;0.8181;0.8166;
49.5000;0.8189;0.8239;
49.8000;0.8173;0.8191;
50.1000;0.8181;0.8239;
50.4000;0.8181;0.8288;
50.7000;0.8197;0.8312;
51.0000;0.8238;0.8337;
51.3000;0.8197;0.8239;
51.6000;0.8124;0.7898;
51.9000;0.8205;0.8093;
52.2000;0.8205;0.8093;
52.5000;0.8197;0.8044;
52.8000;0.8132;0.7996;
53.1000;0.8189;0.8044;
53.4000;0.8189;0.8020;
53.7000;0.8197;0.8020;
54.0000;0.8181;0.7898;
54.3000;0.8181;0.7922;
54.6000;0.8181;0.8020;
54.9000;0.8156;0.7971;
55.2000;0.8140;0.7947;
55.5000;0.8205;0.8166;
55.8000;0.8181;0.8191;
56.1000;0.8181;0.8215;
56.4000;0.8173;0.8264;
56.7000;0.8189;0.8288;
57.0000;0.8189;0.8239;
57.3000;0.8205;0.8288;
57.6000;0.8213;0.8312;
57.9000;0.8205;0.8264;
58.2000;0.8205;0.8264;
58.5000;0.8238;0.8410;
58.8000;0.8124;0.8142;
59.1000;0.8173;0.8264;
59.4000;0.8164;0.8264;
59.7000;0.8254;0.8532;
60.0000;0.8148;0.8215;
60.3000;0.8189;0.8264;
60.6000;0.8181;0.8239;
60.9000;0.8181;0.8166;
61.2000;0.8181;0.8166;
61.5000;0.8173;0.8191;
61.8000;0.8181;0.8166;
62.1000;0.8132;0.8069;
62.4000;0.8164;0.8117;
62.7000;0.8173;0.8069;
63.0000;0.8181;0.8093;
63.3000;0.8189;0.8044;
63.6000;0.8181;0.8117;
63.9000;0.8173;0.8191;
64.2000;0.8181;0.8264;
64.5000;0.8230;0.8434;
64.8000;0.8189;0.8239;
65.1000;0.8164;0.8093;
65.4000;0.8197;0.8239;
65.7000;0.8173;0.8166;
66.0000;0.8205;0.8312;
66.3000;0.8189;0.8239;
66.6000;0.8181;0.8288;
66.9000;0.8181;0.8191;
67.2000;0.8189;0.8191;
67.5000;0.8213;0.8215;
67.8000;0.8189;0.8142;
68.1000;0.8189;0.8142;
68.4000;0.8189;0.8142;
68.7000;0.8173;0.8142;
69.0000;0.8197;0.8337;
69.3000;0.8156;0.8215;
69.6000;0.8189;0.8312;
69.9000;0.8164;0.8312;
70.2000;0.8173;0.8239;
70.5000;0.8164;0.8215;
70.8000;0.8173;0.8239;
71.1000;0.8164;0.8142;
71.4000;0.8230;0.8337;
71.7000;0.8164;0.8215;
72.0000;0.8173;0.8288;
72.3000;0.8173;0.8312;
72.6000;0.8189;0.8312;
72.9000;0.8164;0.8215;
73.2000;0.8181;0.8215;
73.5000;0.8181;0.8166;
73.8000;0.8124;0.8069;
74.1000;0.8173;0.8239;
74.4000;0.8148;0.8142;
74.7000;0.8189;0.8239;
75.0000;0.8116;0.8117;
75.3000;0.8164;0.8239;
75.6000;0.8164;0.8264;
75.9000;0.8164;0.8215;
76.2000;0.8164;0.8239;
76.5000;0.8181;0.8239;
76.8000;0.8124;0.8069;
77.1000;0.8181;0.8117;
77.4000;0.8181;0.8191;
77.7000;0.8173;0.8191;
78.0000;0.8181;0.8142;
78.3000;0.8189;0.8215;
78.6000;0.8181;0.8166;
78.9000;0.8181;0.8166;
79.2000;0.8181;0.8215;
79.5000;0.8189;0.8191;
79.8000;0.8124;0.7996;
80.1000;0.8189;0.8142;
80.4000;0.8116;0.8020;
80.7000;0.8164;0.8191;
81.0000;0.8230;0.8312;
81.3000;0.8181;0.8191;
81.6000;0.8140;0.8093;
81.9000;0.8173;0.8166;
82.2000;0.8173;0.8215;
82.5000;0.8164;0.8166;
82.8000;0.8164;0.8166;
83.1000;0.8164;0.8215;
83.4000;0.8107;0.8069;
83.7000;0.8156;0.8191;
84.0000;0.8173;0.8239;
84.3000;0.8164;0.8288;
84.6000;0.8164;0.8142;
84.9000;0.8164;0.8093;
85.2000;0.8164;0.8117;
85.5000;0.8156;0.8044;
85.8000;0.8164;0.8069;
86.1000;0.8173;0.8069;
86.4000;0.8181;0.8142;
86.7000;0.8173;0.8191;
87.0000;0.8164;0.8166;
87.3000;0.8173;0.8215;
87.6000;0.8181;0.8337;
87.9000;0.8156;0.8312;
88.2000;0.8173;0.8288;
88.5000;0.8205;0.8312;
88.8000;0.8156;0.8215;
89.1000;0.8173;0.8215;
89.4000;0.8173;0.8264;
89.7000;0.8173;0.8288;
90.0000;0.8181;0.8264;
90.3000;0.8173;0.8215;
90.6000;0.8205;0.8288;
90.9000;0.8164;0.8264;
91.2000;0.8181;0.8215;
91.5000;0.8197;0.8239;
91.8000;0.8164;0.8166;
92.1000;0.8189;0.8215;
92.4000;0.8173;0.8264;
92.7000;0.8124;0.8093;
93.0000;0.8173;0.8288;
93.3000;0.8156;0.8239;
93.6000;0.8197;0.8337;
93.9000;0.8173;0.8288;
94.2000;0.8173;0.8239;
94.5000;0.8164;0.8239;
94.8000;0.8140;0.8288;
95.1000;0.8189;0.8434;
95.4000;0.8156;0.8337;
95.7000;0.8148;0.8264;
96.0000;0.8156;0.8191;
96.3000;0.8156;0.8117;
96.6000;0.8189;0.8142;
96.9000;0.8205;0.8117;
97.2000;0.8173;0.8093;
97.5000;0.8164;0.8117;
97.8000;0.8205;0.8264;
98.1000;0.8124;0.8093;
98.4000;0.8164;0.8166;
98.7000;0.8156;0.8264;
99.0000;0.8140;0.8312;
99.3000;0.8173;0.8312;
99.6000;0.8246;0.8532;
99.9000;0.8156;0.8386;
100.2000;0.8164;0.8410;
100.5000;0.8164;0.8386;
100.8000;0.8156;0.8361;
101.1000;0.8164;0.8386;
101.4000;0.8197;0.8410;
101.7000;0.8156;0.8337;
102.0000;0.8164;0.8337;
102.3000;0.8164;0.8337;
102.6000;0.8173;0.8337;
102.9000;0.8140;0.8239;
103.2000;0.8099;0.8069;
103.5000;0.8164;0.8215;
103.8000;0.8124;0.8191;
104.1000;0.8148;0.8239;
104.4000;0.8148;0.8239;
104.7000;0.8132;0.8264;
105.0000;0.8116;0.8117;
105.3000;0.8173;0.8191;
105.6000;0.8173;0.8191;
105.9000;0.8148;0.8142;
106.2000;0.8156;0.8191;
106.5000;0.8124;0.8093;
106.8000;0.8140;0.8117;
107.1000;0.8156;0.8093;
107.4000;0.8140;0.8069;
107.7000;0.8156;0.8117;
108.0000;0.8156;0.8166;
108.3000;0.8148;0.8191;
108.6000;0.8156;0.8264;
108.9000;0.8164;0.8288;
109.2000;0.8164;0.8361;
109.5000;0.8156;0.8312;
109.8000;0.8156;0.8312;
110.1000;0.8181;0.8312;
110.4000;0.8164;0.8264;
110.7000;0.8173;0.8166;
111.0000;0.8156;0.8044;
111.3000;0.8156;0.8093;
111.6000;0.8164;0.8191;
111.9000;0.8173;0.8093;
112.2000;0.8164;0.8191;
112.5000;0.8164;0.8288;
112.8000;0.8156;0.8312;
113.1000;0.8173;0.8386;
113.4000;0.8148;0.8386;
113.7000;0.8148;0.8434;
114.0000;0.8156;0.8532;
114.3000;0.8173;0.8483;
114.6000;0.8156;0.8361;
114.9000;0.8156;0.8386;
115.2000;0.8140;0.8337;
115.5000;0.8156;0.8337;
115.8000;0.8164;0.8386;
116.1000;0.8107;0.8264;
116.4000;0.8148;0.8264;
116.7000;0.8156;0.8312;
117.0000;0.8164;0.8386;
117.3000;0.8156;0.8361;
117.6000;0.8197;0.8434;
117.9000;0.8124;0.8117;
118.2000;0.8148;0.8166;
118.5000;0.8132;0.8117;
118.8000;0.8099;0.8069;
119.1000;0.8132;0.8166;
119.4000;0.8148;0.8191;
119.7000;0.8116;0.8166;
120.0000;0.8107;0.8215;
120.3000;0.8148;0.8264;
120.6000;0.8140;0.8142;
120.9000;0.8156;0.8093;
121.2000;0.8132;0.8044;
121.5000;0.8156;0.8117;
121.8000;0.8164;0.8117;
122.1000;0.8132;0.8117;
122.4000;0.8148;0.8142;
122.7000;0.8140;0.8069;
123.0000;0.8140;0.8117;
123.3000;0.8164;0.8239;
123.6000;0.8156;0.8239;
123.9000;0.8156;0.8312;
124.2000;0.8140;0.8264;
124.5000;0.8156;0.8264;
124.8000;0.8124;0.8166;
125.1000;0.8140;0.8191;
125.4000;0.8140;0.8215;
125.7000;0.8156;0.8264;
126.0000;0.8132;0.8215;
126.3000;0.8132;0.8239;
126.6000;0.8148;0.8312;
126.9000;0.8148;0.8386;
127.2000;0.8156;0.8459;
127.5000;0.8164;0.8483;
127.8000;0.8156;0.8483;
128.1000;0.8107;0.8361;
128.4000;0.8164;0.8507;
128.7000;0.8156;0.8507;
129.0000;0.8091;0.8337;
129.3000;0.8164;0.8483;
129.6000;0.8148;0.8507;
129.9000;0.8173;0.8434;
130.2000;0.8148;0.8459;
130.5000;0.8132;0.8459;
130.8000;0.8140;0.8556;
131.1000;0.8140;0.8556;
131.4000;0.8140;0.8532;
131.7000;0.8156;0.8605;
132.0000;0.8156;0.8629;
132.3000;0.8156;0.8556;
132.6000;0.8156;0.8629;
132.9000;0.8156;0.8654;
133.2000;0.8156;0.8654;
133.5000;0.8164;0.8605;
133.8000;0.8148;0.8434;
134.1000;0.8148;0.8386;
134.4000;0.8173;0.8532;
134.7000;0.8148;0.8483;
135.0000;0.8164;0.8483;
135.3000;0.8116;0.8507;
135.6000;0.8132;0.8532;
135.9000;0.8140;0.8483;
136.2000;0.8156;0.8556;
136.5000;0.8164;0.8507;
136.8000;0.8156;0.8483;
137.1000;0.8156;0.8532;
137.4000;0.8156;0.8556;
137.7000;0.8156;0.8629;
138.0000;0.8140;0.8605;
138.3000;0.8116;0.8605;
138.6000;0.8140;0.8678;
138.9000;0.8140;0.8629;
139.2000;0.8107;0.8507;
139.5000;0.8148;0.8605;
139.8000;0.8140;0.8605;
140.1000;0.8148;0.8629;
140.4000;0.8124;0.8629;
140.7000;0.8107;0.8654;
141.0000;0.8140;0.8727;
141.3000;0.8221;0.8849;
141.6000;0.8132;0.8556;
141.9000;0.8116;0.8410;
142.2000;0.8132;0.8459;
142.5000;0.8132;0.8483;
142.8000;0.8173;0.8459;
143.1000;0.8148;0.8312;
143.4000;0.8132;0.8239;
143.7000;0.8156;0.8386;
144.0000;0.8140;0.8507;
144.3000;0.8132;0.8532;
144.6000;0.8140;0.8581;
144.9000;0.8132;0.8629;
145.2000;0.8140;0.8654;
145.5000;0.8132;0.8581;
145.8000;0.8091;0.8459;
146.1000;0.8156;0.8556;
146.4000;0.8124;0.8556;
146.7000;0.8148;0.8507;
147.0000;0.8156;0.8459;
147.3000;0.8164;0.8410;
147.6000;0.8148;0.8410;
147.9000;0.8164;0.8459;
148.2000;0.8148;0.8459;
148.5000;0.8173;0.8581;
148.8000;0.8221;0.8581;
149.1000;0.8181;0.8556;
149.4000;0.8156;0.8532;
149.7000;0.8148;0.8507;
150.0000;0.8140;0.8507;
150.3000;0.8140;0.8483;
150.6000;0.8156;0.8483;
150.9000;0.8116;0.8410;
151.2000;0.8140;0.8459;
151.5000;0.8099;0.8288;
151.8000;0.8099;0.8386;
152.1000;0.8132;0.8410;
152.4000;0.8132;0.8410;
152.7000;0.8124;0.8410;
153.0000;0.8156;0.8507;
153.3000;0.8140;0.8483;
153.6000;0.8107;0.8410;
153.9000;0.8091;0.8507;
154.2000;0.8140;0.8654;
154.5000;0.8140;0.8678;
154.8000;0.8124;0.8654;
155.1000;0.8156;0.8605;
155.4000;0.8156;0.8556;
155.7000;0.8124;0.8337;
156.0000;0.8156;0.8483;
156.3000;0.8116;0.8386;
156.6000;0.8156;0.8410;
156.9000;0.8181;0.8532;
157.2000;0.8148;0.8434;
157.5000;0.8132;0.8386;
157.8000;0.8156;0.8459;
158.1000;0.8107;0.8410;
158.4000;0.8132;0.8459;
158.7000;0.8173;0.8532;
159.0000;0.8148;0.8434;
159.3000;0.8156;0.8410;
159.6000;0.8140;0.8434;
159.9000;0.8148;0.8483;
160.2000;0.8140;0.8483;
160.5000;0.8156;0.8507;
160.8000;0.8148;0.8532;
161.1000;0.8181;0.8605;
161.4000;0.8156;0.8507;
161.7000;0.8156;0.8507;
162.0000;0.8140;0.8532;
162.3000;0.8164;0.8556;
162.6000;0.8140;0.8532;
162.9000;0.8107;0.8532;
163.2000;0.8132;0.8556;
163.5000;0.8140;0.8629;
163.8000;0.8156;0.8702;
164.1000;0.8132;0.8556;
164.4000;0.8140;0.8507;
164.7000;0.8132;0.8556;
165.0000;0.8132;0.8556;
165.3000;0.8173;0.8727;
165.6000;0.8132;0.8605;
165.9000;0.8124;0.8605;
166.2000;0.8132;0.8629;
166.5000;0.8132;0.8605;
166.8000;0.8140;0.8532;
167.1000;0.8107;0.8386;
167.4000;0.8124;0.8434;
167.7000;0.8124;0.8483;
168.0000;0.8132;0.8386;
168.3000;0.8140;0.8361;
168.6000;0.8107;0.8361;
168.9000;0.8124;0.8410;
169.2000;0.8148;0.8507;
169.5000;0.8132;0.8483;
169.8000;0.8246;0.8678;
170.1000;0.8132;0.8434;
170.4000;0.8148;0.8483;
170.7000;0.8116;0.8434;
171.0000;0.8140;0.8410;
171.3000;0.8132;0.8361;
171.6000;0.8156;0.8337;
171.9000;0.8164;0.8434;
172.2000;0.8156;0.8386;
172.5000;0.8148;0.8386;
172.8000;0.8132;0.8312;
173.1000;0.8140;0.8410;
173.4000;0.8124;0.8386;
173.7000;0.8099;0.8264;
174.0000;0.8148;0.8410;
174.3000;0.8148;0.8264;
174.6000;0.8091;0.8093;
174.9000;0.8173;0.8410;
175.2000;0.8140;0.8337;
175.5000;0.8164;0.8410;
175.8000;0.8099;0.8312;
176.1000;0.8132;0.8459;
176.4000;0.8164;0.8532;
176.7000;0.8156;0.8532;
177.0000;0.8140;0.8532;
177.3000;0.8132;0.8483;
177.6000;0.8148;0.8483;
177.9000;0.8132;0.8434;
178.2000;0.8148;0.8483;
178.5000;0.8148;0.8434;
178.8000;0.8140;0.8410;
179.1000;0.8140;0.8337;
179.4000;0.8156;0.8361;
179.7000;0.8140;0.8507;
180.0000;0.8124;0.8532;
180.3000;0.8148;0.8556;
180.6000;0.8140;0.8434;
180.9000;0.8140;0.8483;
181.2000;0.8140;0.8459;
181.5000;0.8124;0.8483;
181.8000;0.8148;0.8532;
182.1000;0.8132;0.8556;
182.4000;0.8124;0.8507;
182.7000;0.8132;0.8483;
183.0000;0.8132;0.8386;
183.3000;0.8140;0.8361;
183.6000;0.8124;0.8337;
183.9000;0.8124;0.8361;
184.2000;0.8132;0.8386;
184.5000;0.8132;0.8434;
184.8000;0.8116;0.8459;
185.1000;0.8124;0.8483;
185.4000;0.8148;0.8507;
185.7000;0.8148;0.8483;
186.0000;0.8124;0.8386;
186.3000;0.8132;0.8386;
186.6000;0.8099;0.8361;
186.9000;0.8140;0.8507;
187.2000;0.8124;0.8386;
187.5000;0.8107;0.8386;
187.8000;0.8132;0.8483;
188.1000;0.8148;0.8581;
188.4000;0.8124;0.8532;
188.7000;0.8164;0.8507;
189.0000;0.8132;0.8459;
189.3000;0.8148;0.8532;
189.6000;0.8132;0.8483;
189.9000;0.8075;0.8386;
190.2000;0.8156;0.8556;
190.5000;0.8132;0.8434;
190.8000;0.8075;0.8312;
191.1000;0.8164;0.8581;
191.4000;0.8132;0.8337;
191.7000;0.8156;0.8337;
192.0000;0.8050;0.8142;
192.3000;0.8091;0.8069;
192.6000;0.8140;0.8093;
192.9000;0.8140;0.8166;
193.2000;0.8156;0.8142;
193.5000;0.8140;0.8191;
193.8000;0.8075;0.8093;
194.1000;0.8164;0.8288;
194.4000;0.8164;0.8288;
194.7000;0.8156;0.8264;
195.0000;0.8140;0.8215;
195.3000;0.8140;0.8288;
195.6000;0.8156;0.8386;
195.9000;0.8132;0.8386;
196.2000;0.8132;0.8361;
196.5000;0.8083;0.8215;
196.8000;0.8124;0.8264;
197.1000;0.8124;0.8288;
197.4000;0.8116;0.8312;
197.7000;0.8116;0.8264;
198.0000;0.8140;0.8288;
198.3000;0.8140;0.8386;
198.6000;0.8140;0.8337;
198.9000;0.8132;0.8239;
199.2000;0.8124;0.8239;
199.5000;0.8107;0.8239;
199.8000;0.8148;0.8410;
200.1000;0.8140;0.8434;
200.4000;0.8173;0.8483;
200.7000;0.8132;0.8386;
201.0000;0.8156;0.8532;
201.3000;0.8116;0.8337;
201.6000;0.8116;0.8386;
201.9000;0.8132;0.8410;
202.2000;0.8132;0.8312;
202.5000;0.8124;0.8239;
202.8000;0.8124;0.8312;
203.1000;0.8132;0.8337;
203.4000;0.8140;0.8434;
203.7000;0.8132;0.8459;
204.0000;0.8132;0.8507;
204.3000;0.8148;0.8605;
204.6000;0.8173;0.8702;
204.9000;0.8132;0.8678;
205.2000;0.8124;0.8727;
205.5000;0.8124;0.8654;
205.8000;0.8140;0.8532;
206.1000;0.8140;0.8434;
206.4000;0.8140;0.8507;
206.7000;0.8140;0.8483;
207.0000;0.8140;0.8459;
207.3000;0.8132;0.8507;
207.6000;0.8124;0.8507;
207.9000;0.8099;0.8386;
208.2000;0.8132;0.8434;
208.5000;0.8173;0.8507;
208.8000;0.8148;0.8507;
209.1000;0.8124;0.8361;
209.4000;0.8148;0.8507;
209.7000;0.8156;0.8483;
210.0000;0.8116;0.8386;
210.3000;0.8140;0.8410;
210.6000;0.8099;0.8239;
210.9000;0.8132;0.8361;
211.2000;0.8140;0.8386;
211.5000;0.8083;0.8288;
211.8000;0.8124;0.8410;
212.1000;0.8107;0.8337;
212.4000;0.8140;0.8288;
212.7000;0.8124;0.8264;
213.0000;0.8124;0.8312;
213.3000;0.8116;0.8386;
213.6000;0.8140;0.8507;
213.9000;0.8156;0.8459;
214.2000;0.8124;0.8459;
214.5000;0.8148;0.8556;
214.8000;0.8107;0.8507;
215.1000;0.8140;0.8654;
215.4000;0.8132;0.8556;
215.7000;0.8116;0.8605;
216.0000;0.8132;0.8581;
216.3000;0.8132;0.8581;
216.6000;0.8132;0.8507;
216.9000;0.8026;0.8093;
217.2000;0.8140;0.8337;
217.5000;0.8116;0.8288;
217.8000;0.8091;0.8191;
218.1000;0.8124;0.8312;
218.4000;0.8132;0.8361;
218.7000;0.8140;0.8434;
219.0000;0.8213;0.8581;
219.3000;0.8140;0.8361;
219.6000;0.8148;0.8239;
219.9000;0.8173;0.8361;
220.2000;0.8132;0.8386;
220.5000;0.8140;0.8434;
220.8000;0.8124;0.8410;
221.1000;0.8132;0.8312;
221.4000;0.8116;0.8312;
221.7000;0.8116;0.8386;
222.0000;0.8107;0.8361;
222.3000;0.8132;0.8361;
222.6000;0.8132;0.8434;
222.9000;0.8132;0.8386;
223.2000;0.8124;0.8312;
223.5000;0.8148;0.8434;
223.8000;0.8140;0.8410;
224.1000;0.8205;0.8556;
224.4000;0.8132;0.8483;
224.7000;0.8140;0.8556;
225.0000;0.8132;0.8556;
225.3000;0.8132;0.8581;
225.6000;0.8116;0.8507;
225.9000;0.8124;0.8459;
226.2000;0.8132;0.8410;
226.5000;0.8132;0.8361;
226.8000;0.8124;0.8434;
227.1000;0.8116;0.8459;
227.4000;0.8124;0.8386;
227.7000;0.8148;0.8459;
228.0000;0.8140;0.8386;
228.3000;0.8116;0.8361;
228.6000;0.8164;0.8483;
228.9000;0.8116;0.8337;
229.2000;0.8124;0.8361;
229.5000;0.8091;0.8337;
229.8000;0.8140;0.8483;
230.1000;0.8116;0.8483;
230.4000;0.8116;0.8532;
230.7000;0.8107;0.8434;
231.0000;0.8124;0.8483;
231.3000;0.8132;0.8386;
231.6000;0.8132;0.8337;
231.9000;0.8132;0.8337;
232.2000;0.8116;0.8288;
232.5000;0.8124;0.8288;
232.8000;0.8140;0.8410;
233.1000;0.8124;0.8288;
233.4000;0.8116;0.8215;
233.7000;0.8132;0.8288;
234.0000;0.8132;0.8386;
234.3000;0.8132;0.8337;
234.6000;0.8197;0.8434;
234.9000;0.8132;0.8312;
235.2000;0.8124;0.8312;
235.5000;0.8132;0.8361;
235.8000;0.8116;0.8361;
236.1000;0.8132;0.8410;
236.4000;0.8124;0.8410;
236.7000;0.8116;0.8361;
237.0000;0.8107;0.8264;
237.3000;0.8116;0.8264;
237.6000;0.8124;0.8264;
237.9000;0.8132;0.8337;
238.2000;0.8132;0.8386;
238.5000;0.8132;0.8361;
238.8000;0.8132;0.8410;
239.1000;0.8132;0.8337;
239.4000;0.8124;0.8288;
239.7000;0.8132;0.8337;
240.0000;0.8132;0.8361;
240.3000;0.8132;0.8312;
240.6000;0.8116;0.8191;
240.9000;0.8132;0.8069;
241.2000;0.8116;0.8093;
241.5000;0.8124;0.8191;
241.8000;0.8116;0.8215;
242.1000;0.8107;0.8166;
242.4000;0.8124;0.8166;
242.7000;0.8124;0.8142;
243.0000;0.8116;0.8142;
243.3000;0.8132;0.8264;
243.6000;0.8124;0.8191;
243.9000;0.8132;0.8264;
244.2000;0.8075;0.8093;
244.5000;0.8132;0.8239;
244.8000;0.8124;0.8191;
245.1000;0.8075;0.8069;
245.4000;0.8124;0.8093;
245.7000;0.8067;0.8020;
246.0000;0.8132;0.8215;
246.3000;0.8116;0.8093;
246.6000;0.8091;0.8044;
246.9000;0.8107;0.8142;
247.2000;0.8091;0.8239;
247.5000;0.8042;0.8191;
247.8000;0.8107;0.8312;
248.1000;0.8116;0.8361;
248.4000;0.8107;0.8264;
248.7000;0.8124;0.8312;
249.0000;0.8107;0.8312;
249.3000;0.8124;0.8288;
249.6000;0.8124;0.8312;
249.9000;0.8116;0.8361;
250.2000;0.8124;0.8337;
250.5000;0.8140;0.8434;
250.8000;0.8132;0.8410;
251.1000;0.8124;0.8410;
251.4000;0.8124;0.8386;
251.7000;0.8124;0.8410;
252.0000;0.8107;0.8410;
252.3000;0.8083;0.8361;
252.6000;0.8107;0.8337;
252.9000;0.8124;0.8361;
253.2000;0.8132;0.8361;
253.5000;0.8099;0.8288;
253.8000;0.8116;0.8361;
254.1000;0.8205;0.8459;
254.4000;0.8140;0.8312;
254.7000;0.8026;0.7996;
255.0000;0.8140;0.8288;
255.3000;0.8124;0.8264;
255.6000;0.8124;0.8288;
255.9000;0.8238;0.8629;
256.2000;0.8107;0.8361;
256.5000;0.8132;0.8361;
256.8000;0.8148;0.8386;
257.1000;0.8116;0.8239;
257.4000;0.8132;0.8215;
257.7000;0.8107;0.8215;
258.0000;0.8132;0.8191;
258.3000;0.8124;0.8239;
258.6000;0.8132;0.8215;
258.9000;0.8116;0.8337;
259.2000;0.8116;0.8312;
259.5000;0.8124;0.8264;
259.8000;0.8107;0.8288;
260.1000;0.8140;0.8507;
260.4000;0.8116;0.8483;
260.7000;0.8132;0.8434;
261.0000;0.8116;0.8410;
261.3000;0.8116;0.8410;
261.6000;0.8124;0.8459;
261.9000;0.8124;0.8459;
262.2000;0.8132;0.8434;
262.5000;0.8124;0.8581;
262.8000;0.8148;0.8556;
263.1000;0.8197;0.8605;
263.4000;0.8124;0.8483;
263.7000;0.8026;0.8166;
264.0000;0.8213;0.8605;
264.3000;0.8091;0.8410;
264.6000;0.8181;0.8629;
264.9000;0.8124;0.8483;
265.2000;0.8132;0.8434;
265.5000;0.8140;0.8483;
265.8000;0.8140;0.8386;
266.1000;0.8124;0.8434;
266.4000;0.8107;0.8459;
266.7000;0.8124;0.8605;
267.0000;0.8156;0.8581;
267.3000;0.8124;0.8483;
267.6000;0.8099;0.8386;
267.9000;0.8132;0.8386;
268.2000;0.8148;0.8532;
268.5000;0.8140;0.8581;
268.8000;0.8124;0.8532;
269.1000;0.8124;0.8507;
269.4000;0.8124;0.8507;
269.7000;0.8140;0.8629;
270.0000;0.8116;0.8629;
270.3000;0.8116;0.8654;
270.6000;0.8124;0.8702;
270.9000;0.8132;0.8654;
271.2000;0.8116;0.8507;
271.5000;0.8083;0.8312;
271.8000;0.8132;0.8410;
272.1000;0.8107;0.8312;
272.4000;0.8116;0.8288;
272.7000;0.8132;0.8337;
273.0000;0.8107;0.8337;
273.3000;0.8116;0.8386;
273.6000;0.8124;0.8386;
273.9000;0.8107;0.8337;
274.2000;0.8124;0.8434;
274.5000;0.8116;0.8410;
274.8000;0.8116;0.8507;
275.1000;0.8083;0.8386;
275.4000;0.8124;0.8386;
275.7000;0.8107;0.8337;
276.0000;0.8124;0.8312;
276.3000;0.8173;0.8459;
276.6000;0.8099;0.8239;
276.9000;0.8140;0.8410;
277.2000;0.8116;0.8410;
277.5000;0.8124;0.8386;
277.8000;0.8099;0.8215;
278.1000;0.8116;0.8215;
278.4000;0.8132;0.8288;
278.7000;0.8148;0.8361;
279.0000;0.8116;0.8288;
279.3000;0.8116;0.8288;
279.6000;0.8107;0.8288;
279.9000;0.8132;0.8288;
280.2000;0.8140;0.8312;
280.5000;0.8099;0.8312;
280.8000;0.8099;0.8361;
281.1000;0.8099;0.8312;
281.4000;0.8099;0.8337;
281.7000;0.8099;0.8264;
282.0000;0.8116;0.8312;
282.3000;0.8099;0.8264;
282.6000;0.8107;0.8215;
282.9000;0.8107;0.8215;
283.2000;0.8156;0.8386;
283.5000;0.8116;0.8312;
283.8000;0.8116;0.8215;
284.1000;0.8140;0.8361;
284.4000;0.8140;0.8386;
284.7000;0.8140;0.8361;
285.0000;0.8107;0.8337;
285.3000;0.8148;0.8434;
285.6000;0.8083;0.8215;
285.9000;0.8116;0.8264;
286.2000;0.8132;0.8239;
286.5000;0.8124;0.8288;
286.8000;0.8124;0.8215;
287.1000;0.8116;0.8142;
287.4000;0.8124;0.8166;
287.7000;0.8116;0.8191;
288.0000;0.8124;0.8239;
288.3000;0.8116;0.8264;
288.6000;0.8140;0.8264;
288.9000;0.8116;0.8191;
289.2000;0.8132;0.8264;
289.5000;0.8140;0.8239;
289.8000;0.8148;0.8264;
290.1000;0.8148;0.8166;
290.4000;0.8116;0.8020;
290.7000;0.8124;0.8069;
291.0000;0.8124;0.8069;
291.3000;0.8124;0.8117;
291.6000;0.8083;0.8069;
291.9000;0.8107;0.8239;
292.2000;0.8124;0.8239;
292.5000;0.8067;0.8117;
292.8000;0.8083;0.8215;
293.1000;0.8099;0.8117;
293.4000;0.8116;0.8166;
293.7000;0.8116;0.8239;
294.0000;0.8091;0.8264;
294.3000;0.8099;0.8239;
294.6000;0.8099;0.8264;
294.9000;0.8107;0.8312;
295.2000;0.8107;0.8337;
295.5000;0.8181;0.8581;
295.8000;0.8099;0.8337;
296.1000;0.8107;0.8434;
296.4000;0.8124;0.8483;
296.7000;0.8116;0.8483;
297.0000;0.8132;0.8532;
297.3000;0.8107;0.8483;
297.6000;0.8140;0.8459;
297.9000;0.8181;0.8459;
298.2000;0.8140;0.8386;
298.5000;0.8116;0.8239;
298.8000;0.8124;0.8288;
299.1000;0.8132;0.8264;
299.4000;0.8107;0.8215;
299.7000;0.8124;0.8239;
300.0000;0.8124;0.8215;
300.3000;0.8116;0.8117;
300.6000;0.8083;0.8166;
300.9000;0.8124;0.8239;
301.2000;0.8164;0.8215;
301.5000;0.8132;0.8191;
301.8000;0.8059;0.7996;
302.1000;0.8148;0.8191;
302.4000;0.8075;0.8166;
302.7000;0.8124;0.8337;
303.0000;0.8124;0.8288;
303.3000;0.8116;0.8361;
303.6000;0.8124;0.8264;
303.9000;0.8140;0.8361;
304.2000;0.8132;0.8483;
304.5000;0.8075;0.8410;
304.8000;0.8059;0.8312;
305.1000;0.8132;0.8459;
305.4000;0.8124;0.8459;
305.7000;0.8116;0.8288;
306.0000;0.8107;0.8288;
306.3000;0.8116;0.8264;
306.6000;0.8099;0.8239;
306.9000;0.8107;0.8288;
307.2000;0.8099;0.8288;
307.5000;0.8107;0.8410;
307.8000;0.8107;0.8434;
308.1000;0.8173;0.8532;
308.4000;0.8124;0.8386;
308.7000;0.8116;0.8434;
309.0000;0.8124;0.8459;
309.3000;0.8099;0.8312;
309.6000;0.8116;0.8361;
309.9000;0.8132;0.8386;
310.2000;0.8181;0.8434;
310.5000;0.8116;0.8288;
310.8000;0.8140;0.8288;
311.1000;0.8197;0.8483;
311.4000;0.8116;0.8312;
311.7000;0.8116;0.8239;
312.0000;0.8124;0.8239;
312.3000;0.8124;0.8264;
312.6000;0.8132;0.8312;
312.9000;0.8107;0.8361;
313.2000;0.8132;0.8337;
313.5000;0.8124;0.8239;
313.8000;0.8124;0.8191;
314.1000;0.8116;0.8288;
314.4000;0.8107;0.8361;
314.7000;0.8107;0.8312;
315.0000;0.8132;0.8361;
315.3000;0.8140;0.8337;
315.6000;0.8132;0.8434;
315.9000;0.8124;0.8434;
316.2000;0.8116;0.8434;
316.5000;0.8156;0.8459;
316.8000;0.8116;0.8386;
317.1000;0.8124;0.8410;
317.4000;0.8091;0.8337;
317.7000;0.8124;0.8361;
318.0000;0.8083;0.8264;
318.3000;0.8099;0.8312;
318.6000;0.8018;0.8069;
318.9000;0.8099;0.8264;
319.2000;0.8156;0.8386;
319.5000;0.8132;0.8361;
319.8000;0.8116;0.8288;
320.1000;0.8124;0.8312;
320.4000;0.8148;0.8337;
320.7000;0.8140;0.8288;
321.0000;0.8132;0.8337;
321.3000;0.8132;0.8434;
321.6000;0.8124;0.8312;
321.9000;0.8124;0.8215;
322.2000;0.8124;0.8215;
322.5000;0.8124;0.8191;
322.8000;0.8116;0.8288;
323.1000;0.8099;0.8288;
323.4000;0.8116;0.8288;
323.7000;0.8124;0.8215;
324.0000;0.8132;0.8312;
324.3000;0.8116;0.8288;
324.6000;0.8099;0.8215;
324.9000;0.8124;0.8239;
325.2000;0.8124;0.8410;
325.5000;0.8083;0.8410;
325.8000;0.8181;0.8581;
326.1000;0.8091;0.8410;
326.4000;0.8116;0.8556;
326.7000;0.8140;0.8556;
327.0000;0.8107;0.8434;
327.3000;0.8132;0.8605;
327.6000;0.8116;0.8581;
327.9000;0.8091;0.8483;
328.2000;0.8140;0.8483;
328.5000;0.8132;0.8337;
328.8000;0.8116;0.8361;
329.1000;0.8116;0.8410;
329.4000;0.8124;0.8459;
329.7000;0.8116;0.8410;
330.0000;0.8132;0.8434;
330.3000;0.8156;0.8386;
330.6000;0.8132;0.8434;
330.9000;0.8132;0.8434;
331.2000;0.8124;0.8312;
331.5000;0.8116;0.8312;
331.8000;0.8132;0.8361;
332.1000;0.8083;0.8288;
332.4000;0.8124;0.8312;
332.7000;0.8107;0.8361;
333.0000;0.8116;0.8312;
333.3000;0.8124;0.8312;
333.6000;0.8116;0.8288;
333.9000;0.8107;0.8337;
334.2000;0.8132;0.8483;
334.5000;0.8107;0.8410;
334.8000;0.8164;0.8507;
335.1000;0.8124;0.8361;
335.4000;0.8116;0.8288;
335.7000;0.8132;0.8459;
336.0000;0.8116;0.8386;
336.3000;0.8116;0.8410;
336.6000;0.8124;0.8483;
336.9000;0.8132;0.8507;
337.2000;0.8124;0.8410;
337.5000;0.8107;0.8337;
337.8000;0.8083;0.8312;
338.1000;0.8124;0.8459;
338.4000;0.8124;0.8459;
338.7000;0.8116;0.8459;
339.0000;0.8124;0.8459;
339.3000;0.8116;0.8386;
339.6000;0.8107;0.8459;
339.9000;0.8026;0.8142;
340.2000;0.8099;0.8386;
340.5000;0.8124;0.8459;
340.8000;0.8140;0.8483;
341.1000;0.8124;0.8410;
341.4000;0.8075;0.8312;
341.7000;0.8116;0.8410;
342.0000;0.8075;0.8239;
342.3000;0.8116;0.8288;
342.6000;0.8099;0.8312;
342.9000;0.8083;0.8215;
343.2000;0.8116;0.8312;
343.5000;0.8107;0.8215;
343.8000;0.8099;0.8142;
344.1000;0.8124;0.8312;
344.4000;0.8107;0.8288;
344.7000;0.8124;0.8312;
345.0000;0.8124;0.8386;
345.3000;0.8124;0.8410;
345.6000;0.8148;0.8483;
345.9000;0.8140;0.8532;
346.2000;0.8116;0.8483;
346.5000;0.8116;0.8434;
346.8000;0.8132;0.8483;
347.1000;0.8156;0.8581;
347.4000;0.8107;0.8434;
347.7000;0.8116;0.8337;
348.0000;0.8124;0.8386;
348.3000;0.8148;0.8386;
348.6000;0.8132;0.8215;
348.9000;0.8107;0.8142;
349.2000;0.8132;0.8142;
349.5000;0.8140;0.8191;
349.8000;0.8140;0.8166;
350.1000;0.8116;0.8142;
350.4000;0.8132;0.8264;
350.7000;0.8124;0.8264;
351.0000;0.8124;0.8264;
351.3000;0.8116;0.8215;
351.6000;0.8124;0.8191;
351.9000;0.8107;0.8239;
352.2000;0.8124;0.8239;
352.5000;0.8132;0.8264;
352.8000;0.8107;0.8215;
353.1000;0.8099;0.8142;
353.4000;0.8107;0.8191;
353.7000;0.8213;0.8532;
354.0000;0.8116;0.8215;
354.3000;0.8107;0.8166;
354.6000;0.8124;0.8117;
354.9000;0.8132;0.8215;
355.2000;0.8124;0.8239;
355.5000;0.8116;0.8239;
355.8000;0.8132;0.8288;
356.1000;0.8124;0.8361;
356.4000;0.8124;0.8312;
356.7000;0.8116;0.8215;
357.0000;0.8107;0.8215;
357.3000;0.8124;0.8191;
357.6000;0.8140;0.8239;
357.9000;0.8091;0.8166;
358.2000;0.8116;0.8264;
358.5000;0.8124;0.8312;
358.8000;0.8116;0.8337;
359.1000;0.8132;0.8410;
359.4000;0.8116;0.8312;
359.7000;0.8116;0.8288;
360.0000;0.8067;0.8191;
360.3000;0.8107;0.8410;
360.6000;0.8116;0.8312;
360.9000;0.8099;0.8264;
361.2000;0.8116;0.8361;
361.5000;0.8107;0.8386;
361.8000;0.8107;0.8288;
362.1000;0.8091;0.8191;
362.4000;0.8189;0.8410;
362.7000;0.8107;0.8264;
363.0000;0.8091;0.8191;
363.3000;0.8107;0.8215;
363.6000;0.8116;0.8288;
363.9000;0.8124;0.8312;
364.2000;0.8156;0.8361;
364.5000;0.8116;0.8264;
364.8000;0.8124;0.8337;
365.1000;0.8116;0.8215;
365.4000;0.8148;0.8337;
365.7000;0.8124;0.8264;
366.0000;0.8107;0.8288;
366.3000;0.8124;0.8337;
366.6000;0.8099;0.8337;
366.9000;0.8156;0.8459;
367.2000;0.8107;0.8361;
367.5000;0.8132;0.8459;
367.8000;0.8099;0.8483;
368.1000;0.8099;0.8507;
368.4000;0.8107;0.8483;
368.7000;0.8107;0.8483;
369.0000;0.8107;0.8410;
369.3000;0.8099;0.8288;
369.6000;0.8116;0.8312;
369.9000;0.8173;0.8386;
370.2000;0.8116;0.8288;
370.5000;0.8107;0.8312;
370.8000;0.8124;0.8312;
371.1000;0.8132;0.8337;
371.4000;0.8091;0.8264;
371.7000;0.8148;0.8459;
372.0000;0.8083;0.8361;
372.3000;0.8107;0.8507;
372.6000;0.8116;0.8459;
372.9000;0.8124;0.8410;
373.2000;0.8099;0.8361;
373.5000;0.8116;0.8410;
373.8000;0.8124;0.8434;
374.1000;0.8132;0.8459;
374.4000;0.8116;0.8386;
374.7000;0.8107;0.8410;
375.0000;0.8116;0.8410;
375.3000;0.8124;0.8459;
375.6000;0.8116;0.8386;
375.9000;0.8221;0.8654;
376.2000;0.8124;0.8459;
376.5000;0.8124;0.8434;
376.8000;0.8140;0.8434;
377.1000;0.8107;0.8312;
377.4000;0.8091;0.8337;
377.7000;0.8075;0.8337;
378.0000;0.8099;0.8434;
378.3000;0.8099;0.8410;
378.6000;0.8099;0.8386;
378.9000;0.8116;0.8361;
379.2000;0.8099;0.8312;
379.5000;0.8116;0.8361;
379.8000;0.8124;0.8386;
380.1000;0.8010;0.8166;
380.4000;0.8099;0.8386;
380.7000;0.8132;0.8410;
381.0000;0.8124;0.8361;
381.3000;0.8099;0.8288;
381.6000;0.8132;0.8264;
381.9000;0.8124;0.8337;
382.2000;0.8107;0.8361;
382.5000;0.8116;0.8337;
382.8000;0.8140;0.8434;
383.1000;0.8116;0.8361;
383.4000;0.8107;0.8337;
383.7000;0.8107;0.8337;
384.0000;0.8132;0.8410;
384.3000;0.8116;0.8410;
384.6000;0.8116;0.8386;
384.9000;0.8124;0.8337;
385.2000;0.8132;0.8337;
385.5000;0.8164;0.8361;
385.8000;0.8124;0.8264;
386.1000;0.8107;0.8337;
386.4000;0.8067;0.8142;
386.7000;0.8124;0.8361;
387.0000;0.8107;0.8386;
387.3000;0.8107;0.8410;
387.6000;0.8116;0.8386;
387.9000;0.8116;0.8386;
388.2000;0.8099;0.8386;
388.5000;0.8067;0.8386;
388.8000;0.8099;0.8459;
389.1000;0.8124;0.8410;
389.4000;0.8099;0.8337;
389.7000;0.8116;0.8337;
390.0000;0.8107;0.8386;
390.3000;0.8116;0.8434;
390.6000;0.8107;0.8459;
390.9000;0.8107;0.8410;
391.2000;0.8107;0.8361;
391.5000;0.8107;0.8434;
391.8000;0.8107;0.8434;
392.1000;0.8164;0.8581;
392.4000;0.8099;0.8507;
392.7000;0.8107;0.8507;
393.0000;0.8107;0.8483;
393.3000;0.8107;0.8361;
393.6000;0.8099;0.8264;
393.9000;0.8116;0.8312;
394.2000;0.8067;0.8264;
394.5000;0.8107;0.8312;
394.8000;0.8091;0.8215;
395.1000;0.8099;0.8337;
395.4000;0.8107;0.8434;
395.7000;0.8107;0.8507;
396.0000;0.8099;0.8386;
396.3000;0.8132;0.8434;
396.6000;0.8099;0.8337;
396.9000;0.8107;0.8410;
397.2000;0.8132;0.8459;
397.5000;0.8050;0.8312;
397.8000;0.8067;0.8288;
398.1000;0.8116;0.8459;
398.4000;0.8091;0.8337;
398.7000;0.8075;0.8166;
399.0000;0.8099;0.8288;
399.3000;0.8132;0.8337;
399.6000;0.8116;0.8239;
399.9000;0.8132;0.8239;
400.2000;0.8124;0.8166;
400.5000;0.8116;0.8191;
400.8000;0.8140;0.8264;
401.1000;0.8099;0.8142;
401.4000;0.8116;0.8093;
401.7000;0.8034;0.7922;
402.0000;0.8107;0.8069;
402.3000;0.8148;0.8191;
402.6000;0.8148;0.8337;
402.9000;0.8107;0.8361;
403.2000;0.8059;0.8312;
403.5000;0.8099;0.8459;
403.8000;0.8059;0.8312;
404.1000;0.8230;0.8556;
404.4000;0.8107;0.8361;
404.7000;0.8107;0.8361;
405.0000;0.8107;0.8312;
405.3000;0.8107;0.8337;
405.6000;0.8116;0.8434;
405.9000;0.8124;0.8410;
406.2000;0.8099;0.8312;
406.5000;0.8107;0.8410;
406.8000;0.8140;0.8483;
407.1000;0.8107;0.8337;
407.4000;0.8107;0.8312;
407.7000;0.8107;0.8288;
408.0000;0.8124;0.8288;
408.3000;0.8124;0.8337;
408.6000;0.8116;0.8239;
408.9000;0.8083;0.8215;
409.2000;0.8116;0.8386;
409.5000;0.8107;0.8386;
409.8000;0.8116;0.8507;
410.1000;0.8116;0.8507;
410.4000;0.8116;0.8507;
410.7000;0.8124;0.8532;
411.0000;0.8132;0.8556;
411.3000;0.8083;0.8459;
411.6000;0.8124;0.8507;
411.9000;0.8132;0.8629;
412.2000;0.8140;0.8678;
412.5000;0.8067;0.8483;
412.8000;0.8156;0.8751;
413.1000;0.8124;0.8702;
413.4000;0.8116;0.8629;
413.7000;0.8116;0.8678;
414.0000;0.8099;0.8605;
414.3000;0.8132;0.8581;
414.6000;0.8099;0.8556;
414.9000;0.8091;0.8532;
415.2000;0.8116;0.8556;
415.5000;0.8091;0.8434;
415.8000;0.8091;0.8386;
416.1000;0.8099;0.8312;
416.4000;0.8067;0.8337;
416.7000;0.8107;0.8386;
417.0000;0.8189;0.8556;
417.3000;0.8091;0.8410;
417.6000;0.8083;0.8386;
417.9000;0.8099;0.8483;
418.2000;0.8107;0.8507;
418.5000;0.8107;0.8581;
418.8000;0.8197;0.8776;
419.1000;0.8107;0.8556;
419.4000;0.8059;0.8459;
419.7000;0.8116;0.8581;
420.0000;0.8124;0.8556;
420.3000;0.8116;0.8434;
420.6000;0.8116;0.8410;
420.9000;0.8116;0.8459;
421.2000;0.8124;0.8507;
421.5000;0.8132;0.8556;
421.8000;0.8116;0.8459;
422.1000;0.8124;0.8507;
422.4000;0.8107;0.8581;
422.7000;0.8099;0.8507;
423.0000;0.8107;0.8507;
423.3000;0.8116;0.8532;
423.6000;0.8042;0.8410;
423.9000;0.8107;0.8605;
424.2000;0.8107;0.8556;
424.5000;0.8099;0.8507;
424.8000;0.8132;0.8483;
425.1000;0.8116;0.8507;
425.4000;0.8107;0.8459;
425.7000;0.8091;0.8410;
426.0000;0.8116;0.8507;
426.3000;0.8075;0.8410;
426.6000;0.8083;0.8239;
426.9000;0.8067;0.8264;
427.2000;0.8059;0.8239;
427.5000;0.8107;0.8459;
427.8000;0.8075;0.8386;
428.1000;0.8083;0.8483;
428.4000;0.8107;0.8386;
428.7000;0.8099;0.8361;
429.0000;0.8099;0.8288;
429.3000;0.8099;0.8288;
429.6000;0.8099;0.8361;
429.9000;0.8116;0.8386;
430.2000;0.8099;0.8337;
430.5000;0.8099;0.8312;
430.8000;0.8107;0.8337;
431.1000;0.8132;0.8459;
431.4000;0.8124;0.8434;
431.7000;0.8116;0.8312;
432.0000;0.8107;0.8312;
432.3000;0.8116;0.8337;
432.6000;0.8140;0.8434;
432.9000;0.8124;0.8459;
433.2000;0.8107;0.8386;
433.5000;0.8107;0.8337;
433.8000;0.8107;0.8410;
434.1000;0.8116;0.8483;
434.4000;0.8116;0.8556;
434.7000;0.8124;0.8581;
435.0000;0.8107;0.8507;
435.3000;0.8124;0.8629;
435.6000;0.8124;0.8629;
435.9000;0.8116;0.8581;
436.2000;0.8132;0.8678;
436.5000;0.8132;0.8629;
436.8000;0.8107;0.8507;
437.1000;0.8124;0.8459;
437.4000;0.8124;0.8410;
437.7000;0.8132;0.8459;
438.0000;0.8124;0.8434;
438.3000;0.8107;0.8459;
438.6000;0.8107;0.8361;
438.9000;0.8116;0.8434;
439.2000;0.8067;0.8386;
439.5000;0.8099;0.8434;
439.8000;0.8107;0.8434;
440.1000;0.8099;0.8483;
440.4000;0.8124;0.8581;
440.7000;0.8132;0.8629;
441.0000;0.8132;0.8654;
441.3000;0.8124;0.8629;
441.6000;0.8124;0.8629;
441.9000;0.8164;0.8678;
442.2000;0.8002;0.8239;
442.5000;0.8107;0.8532;
442.8000;0.8132;0.8507;
443.1000;0.8107;0.8483;
443.4000;0.8075;0.8410;
443.7000;0.8124;0.8605;
444.0000;0.8124;0.8532;
444.3000;0.8091;0.8434;
444.6000;0.8083;0.8459;
444.9000;0.8091;0.8556;
445.2000;0.8132;0.8556;
445.5000;0.8124;0.8678;
445.8000;0.8067;0.8483;
446.1000;0.8116;0.8654;
446.4000;0.8132;0.8702;
446.7000;0.8132;0.8702;
447.0000;0.8107;0.8678;
447.3000;0.8124;0.8751;
447.6000;0.8091;0.8678;
447.9000;0.8116;0.8654;
448.2000;0.8116;0.8605;
448.5000;0.8099;0.8556;
448.8000;0.8132;0.8581;
449.1000;0.8116;0.8556;
449.4000;0.8099;0.8581;
449.7000;0.8124;0.8605;
450.0000;0.8116;0.8581;
450.3000;0.8099;0.8581;
450.6000;0.8107;0.8581;
450.9000;0.8107;0.8483;
451.2000;0.8116;0.8507;
451.5000;0.8140;0.8507;
451.8000;0.8132;0.8410;
452.1000;0.8116;0.8361;
452.4000;0.8107;0.8434;
452.7000;0.8124;0.8507;
453.0000;0.8107;0.8532;
453.3000;0.8116;0.8605;
453.6000;0.8091;0.8483;
453.9000;0.8099;0.8507;
454.2000;0.8116;0.8581;
454.5000;0.8132;0.8507;
454.8000;0.8116;0.8337;
455.1000;0.8116;0.8361;
455.4000;0.8107;0.8410;
455.7000;0.8099;0.8361;
456.0000;0.8107;0.8361;
456.3000;0.8116;0.8410;
456.6000;0.8124;0.8459;
456.9000;0.8124;0.8410;
457.2000;0.8107;0.8337;
457.5000;0.8059;0.8215;
457.8000;0.8116;0.8410;
458.1000;0.8124;0.8386;
458.4000;0.8050;0.8215;
458.7000;0.8116;0.8312;
459.0000;0.8075;0.8264;
459.3000;0.8107;0.8337;
459.6000;0.8067;0.8239;
459.9000;0.8116;0.8312;
460.2000;0.8091;0.8337;
460.5000;0.8124;0.8386;
460.8000;0.8116;0.8410;
461.1000;0.8099;0.8483;
461.4000;0.8099;0.8483;
461.7000;0.8099;0.8386;
462.0000;0.8099;0.8386;
462.3000;0.8091;0.8434;
462.6000;0.8083;0.8434;
462.9000;0.8107;0.8532;
463.2000;0.8148;0.8654;
463.5000;0.8107;0.8605;
463.8000;0.8132;0.8678;
464.1000;0.8116;0.8654;
464.4000;0.8107;0.8556;
464.7000;0.8116;0.8434;
465.0000;0.8107;0.8459;
465.3000;0.8075;0.8532;
465.6000;0.8124;0.8605;
465.9000;0.8124;0.8459;
466.2000;0.8173;0.8507;
466.5000;0.8107;0.8312;
466.8000;0.8124;0.8410;
467.1000;0.8083;0.8361;
467.4000;0.8124;0.8507;
467.7000;0.8124;0.8361;
468.0000;0.8156;0.8434;
468.3000;0.8116;0.8434;
468.6000;0.8124;0.8361;
468.9000;0.8107;0.8386;
469.2000;0.8107;0.8434;
469.5000;0.8091;0.8434;
469.8000;0.8099;0.8507;
470.1000;0.8116;0.8483;
470.4000;0.8132;0.8556;
470.7000;0.8132;0.8507;
471.0000;0.8140;0.8434;
471.3000;0.8124;0.8434;
471.6000;0.8132;0.8581;
471.9000;0.8107;0.8581;
472.2000;0.8107;0.8556;
472.5000;0.8116;0.8581;
472.8000;0.8107;0.8581;
473.1000;0.8116;0.8507;
473.4000;0.8116;0.8483;
473.7000;0.8132;0.8556;
474.0000;0.8099;0.8507;
474.3000;0.8116;0.8483;
474.6000;0.8116;0.8507;
474.9000;0.8091;0.8386;
475.2000;0.8083;0.8288;
475.5000;0.8099;0.8337;
475.8000;0.8091;0.8337;
476.1000;0.8091;0.8337;
476.4000;0.8099;0.8386;
476.7000;0.8116;0.8483;
477.0000;0.8099;0.8459;
477.3000;0.8091;0.8434;
477.6000;0.8116;0.8361;
477.9000;0.8116;0.8166;
478.2000;0.8107;0.8166;
478.5000;0.8099;0.8142;
478.8000;0.8091;0.8117;
479.1000;0.8042;0.7996;
479.4000;0.8091;0.8093;
479.7000;0.8107;0.8215;
480.0000;0.8107;0.8166;
480.3000;0.8107;0.8288;
480.6000;0.8124;0.8361;
480.9000;0.8067;0.8239;
481.2000;0.8099;0.8361;
481.5000;0.8124;0.8386;
481.8000;0.8107;0.8312;
482.1000;0.8107;0.8215;
482.4000;0.8050;0.8191;
482.7000;0.8099;0.8191;
483.0000;0.8116;0.8117;
483.3000;0.8116;0.7996;
483.6000;0.8099;0.8020;
483.9000;0.8099;0.7922;
484.2000;0.8107;0.8020;
484.5000;0.8099;0.8093;
484.8000;0.8107;0.8142;
485.1000;0.8099;0.8166;
485.4000;0.8107;0.8093;
485.7000;0.8116;0.8166;
486.0000;0.8107;0.8191;
486.3000;0.8099;0.8215;
486.6000;0.8116;0.8288;
486.9000;0.8091;0.8191;
487.2000;0.8107;0.8288;
487.5000;0.8107;0.8312;
487.8000;0.8091;0.8337;
488.1000;0.8099;0.8361;
488.4000;0.8116;0.8361;
488.7000;0.8107;0.8312;
489.0000;0.8099;0.8312;
489.3000;0.8107;0.8361;
489.6000;0.8116;0.8361;
489.9000;0.8156;0.8581;
490.2000;0.8124;0.8410;
490.5000;0.8124;0.8483;
490.8000;0.8132;0.8507;
491.1000;0.8132;0.8532;
491.4000;0.8116;0.8507;
491.7000;0.8083;0.8386;
492.0000;0.8132;0.8459;
492.3000;0.8140;0.8532;
492.6000;0.8099;0.8386;
492.9000;0.8067;0.8361;
493.2000;0.8148;0.8556;
493.5000;0.8124;0.8434;
493.8000;0.8099;0.8361;
494.1000;0.8107;0.8386;
494.4000;0.8116;0.8434;
494.7000;0.8164;0.8532;
495.0000;0.8140;0.8507;
495.3000;0.8181;0.8678;
495.6000;0.8099;0.8434;
495.9000;0.8124;0.8507;
496.2000;0.8132;0.8532;
496.5000;0.8124;0.8410;
496.8000;0.8132;0.8410;
497.1000;0.8148;0.8507;
497.4000;0.8124;0.8386;
497.7000;0.8116;0.8337;
498.0000;0.8116;0.8312;
498.3000;0.8124;0.8410;
498.6000;0.8075;0.8288;
498.9000;0.8099;0.8459;
499.2000;0.8116;0.8434;
499.5000;0.8067;0.8239;
499.8000;0.8099;0.8337;
500.1000;0.8116;0.8386;
500.4000;0.8099;0.8361;
500.7000;0.8107;0.8434;
501.0000;0.8107;0.8507;
501.3000;0.8116;0.8483;
501.6000;0.8124;0.8483;
501.9000;0.8107;0.8434;
502.2000;0.8124;0.8507;
502.5000;0.8124;0.8483;
502.8000;0.8116;0.8483;
503.1000;0.8116;0.8483;
503.4000;0.8124;0.8483;
503.7000;0.8099;0.8410;
504.0000;0.8124;0.8532;
504.3000;0.8107;0.8678;
504.6000;0.8116;0.8678;
504.9000;0.8107;0.8678;
505.2000;0.8132;0.8776;
505.5000;0.8067;0.8605;
505.8000;0.8099;0.8556;
506.1000;0.8124;0.8629;
506.4000;0.8107;0.8581;
506.7000;0.8116;0.8654;
507.0000;0.8107;0.8605;
507.3000;0.8116;0.8629;
507.6000;0.8132;0.8629;
507.9000;0.8059;0.8556;
508.2000;0.8116;0.8629;
508.5000;0.8107;0.8629;
508.8000;0.8116;0.8654;
509.1000;0.8116;0.8581;
509.4000;0.8099;0.8605;
509.7000;0.8083;0.8654;
510.0000;0.8083;0.8532;
510.3000;0.8116;0.8532;
510.6000;0.8099;0.8483;
510.9000;0.8116;0.8581;
511.2000;0.8107;0.8532;
511.5000;0.8116;0.8532;
511.8000;0.8156;0.8654;
512.1000;0.8107;0.8605;
512.4000;0.8083;0.8605;
512.7000;0.8148;0.8678;
513.0000;0.8116;0.8581;
513.3000;0.8083;0.8556;
513.6000;0.8099;0.8702;
513.9000;0.8050;0.8629;
514.2000;0.8205;0.8946;
514.5000;0.8124;0.8581;
514.8000;0.8107;0.8532;
515.1000;0.8075;0.8532;
515.4000;0.8124;0.8678;
515.7000;0.8140;0.8751;
516.0000;0.8099;0.8605;
516.3000;0.8124;0.8629;
516.6000;0.8107;0.8678;
516.9000;0.8181;0.8897;
517.2000;0.8099;0.8654;
517.5000;0.8132;0.8727;
517.8000;0.8075;0.8629;
518.1000;0.8099;0.8702;
518.4000;0.8099;0.8532;
518.7000;0.8059;0.8410;
519.0000;0.8107;0.8459;
519.3000;0.8140;0.8556;
519.6000;0.8099;0.8410;
519.9000;0.8107;0.8337;
520.2000;0.8083;0.8264;
520.5000;0.8091;0.8215;
520.8000;0.8107;0.8288;
521.1000;0.8107;0.8264;
521.4000;0.8099;0.8215;
521.7000;0.8140;0.8337;
522.0000;0.8116;0.8361;
522.3000;0.8173;0.8556;
522.6000;0.8099;0.8434;
522.9000;0.8132;0.8410;
523.2000;0.8107;0.8507;
523.5000;0.8116;0.8556;
523.8000;0.8124;0.8483;
524.1000;0.8124;0.8507;
524.4000;0.8132;0.8459;
524.7000;0.8099;0.8386;
525.0000;0.8099;0.8434;
525.3000;0.8116;0.8581;
525.6000;0.8107;0.8629;
525.9000;0.8107;0.8629;
526.2000;0.8124;0.8654;
526.5000;0.8107;0.8629;
526.8000;0.8107;0.8654;
527.1000;0.8107;0.8702;
527.4000;0.8099;0.8581;
527.7000;0.8116;0.8605;
528.0000;0.8132;0.8678;
528.3000;0.8099;0.8629;
528.6000;0.8116;0.8654;
528.9000;0.8107;0.8702;
529.2000;0.8116;0.8800;
529.5000;0.8091;0.8776;
529.8000;0.8099;0.8800;
530.1000;0.8091;0.8800;
530.4000;0.8099;0.8776;
530.7000;0.8099;0.8702;
531.0000;0.8116;0.8678;
531.3000;0.8107;0.8629;
531.6000;0.8107;0.8581;
531.9000;0.8091;0.8556;
532.2000;0.8099;0.8434;
532.5000;0.8107;0.8410;
532.8000;0.8099;0.8483;
533.1000;0.8116;0.8434;
533.4000;0.8107;0.8361;
533.7000;0.8140;0.8434;
534.0000;0.8189;0.8532;
534.3000;0.8116;0.8386;
534.6000;0.8107;0.8459;
534.9000;0.8124;0.8556;
535.2000;0.8099;0.8581;
535.5000;0.8116;0.8654;
535.8000;0.8124;0.8629;
536.1000;0.8075;0.8556;
536.4000;0.8116;0.8654;
536.7000;0.8124;0.8678;
537.0000;0.8116;0.8556;
537.3000;0.8099;0.8507;
537.6000;0.8107;0.8605;
537.9000;0.8099;0.8532;
538.2000;0.8124;0.8532;
538.5000;0.8124;0.8507;
538.8000;0.8107;0.8410;
539.1000;0.8124;0.8386;
539.4000;0.8124;0.8410;
539.7000;0.8148;0.8483;
540.0000;0.8099;0.8434;
540.3000;0.8124;0.8386;
540.6000;0.8107;0.8386;
540.9000;0.8107;0.8386;
541.2000;0.8107;0.8410;
541.5000;0.8116;0.8434;
541.8000;0.8083;0.8386;
542.1000;0.8099;0.8410;
542.4000;0.8099;0.8337;
542.7000;0.8132;0.8507;
543.0000;0.8099;0.8459;
543.3000;0.8124;0.8532;
543.6000;0.8099;0.8434;
543.9000;0.8075;0.8434;
544.2000;0.8083;0.8483;
544.5000;0.8099;0.8532;
544.8000;0.8099;0.8532;
545.1000;0.8091;0.8581;
545.4000;0.8107;0.8532;
545.7000;0.8107;0.8556;
546.0000;0.8107;0.8605;
546.3000;0.8107;0.8507;
546.6000;0.8099;0.8483;
546.9000;0.8116;0.8410;
547.2000;0.8124;0.8410;
547.5000;0.8124;0.8459;
547.8000;0.8132;0.8532;
548.1000;0.8099;0.8483;
548.4000;0.8107;0.8459;
548.7000;0.8140;0.8507;
549.0000;0.8099;0.8507;
549.3000;0.8124;0.8556;
549.6000;0.8099;0.8532;
549.9000;0.8132;0.8605;
550.2000;0.8107;0.8532;
550.5000;0.8099;0.8507;
550.8000;0.8107;0.8532;
551.1000;0.8091;0.8556;
551.4000;0.8116;0.8581;
551.7000;0.8099;0.8556;
552.0000;0.8116;0.8532;
552.3000;0.8099;0.8556;
552.6000;0.8116;0.8581;
552.9000;0.8107;0.8605;
553.2000;0.8116;0.8629;
553.5000;0.8213;0.8873;
553.8000;0.8099;0.8581;
554.1000;0.8107;0.8532;
554.4000;0.8173;0.8678;
554.7000;0.8107;0.8532;
555.0000;0.8107;0.8483;
555.3000;0.8099;0.8507;
555.6000;0.8116;0.8556;
555.9000;0.8148;0.8654;
556.2000;0.8173;0.8702;
556.5000;0.8107;0.8459;
556.8000;0.8132;0.8532;
557.1000;0.8124;0.8483;
557.4000;0.8099;0.8361;
557.7000;0.8099;0.8386;
558.0000;0.8099;0.8434;
558.3000;0.8124;0.8507;
558.6000;0.8116;0.8556;
558.9000;0.8099;0.8483;
559.2000;0.8099;0.8459;
559.5000;0.8132;0.8507;
559.8000;0.8116;0.8532;
560.1000;0.8067;0.8361;
560.4000;0.8107;0.8483;
560.7000;0.8124;0.8459;
561.0000;0.8181;0.8556;
561.3000;0.8067;0.8337;
561.6000;0.8099;0.8483;
561.9000;0.8002;0.8239;
562.2000;0.8099;0.8556;
562.5000;0.8213;0.8873;
562.8000;0.8116;0.8678;
563.1000;0.8107;0.8702;
563.4000;0.8116;0.8702;
563.7000;0.8116;0.8702;
564.0000;0.8116;0.8629;
564.3000;0.8116;0.8629;
564.6000;0.8116;0.8629;
564.9000;0.8099;0.8629;
565.2000;0.8107;0.8605;
565.5000;0.8091;0.8605;
565.8000;0.8091;0.8581;
566.1000;0.8099;0.8581;
566.4000;0.8124;0.8654;
566.7000;0.8099;0.8556;
567.0000;0.8099;0.8556;
567.3000;0.8099;0.8556;
567.6000;0.8107;0.8556;
567.9000;0.8026;0.8361;
568.2000;0.8116;0.8581;
568.5000;0.8124;0.8629;
568.8000;0.8107;0.8605;
569.1000;0.8124;0.8629;
569.4000;0.8124;0.8605;
569.7000;0.8107;0.8629;
570.0000;0.8107;0.8678;
570.3000;0.8116;0.8702;
570.6000;0.8099;0.8581;
570.9000;0.8116;0.8532;
571.2000;0.8107;0.8507;
571.5000;0.8107;0.8459;
571.8000;0.8099;0.8483;
572.1000;0.8124;0.8581;
572.4000;0.8116;0.8581;
572.7000;0.8116;0.8605;
573.0000;0.8124;0.8629;
573.3000;0.8091;0.8629;
573.6000;0.8107;0.8702;
573.9000;0.8107;0.8727;
574.2000;0.8091;0.8702;
574.5000;0.8116;0.8678;
574.8000;0.8107;0.8556;
575.1000;0.8107;0.8629;
575.4000;0.8091;0.8654;
575.7000;0.8091;0.8605;
576.0000;0.8083;0.8556;
576.3000;0.8116;0.8678;
576.6000;0.8099;0.8654;
576.9000;0.8107;0.8581;
577.2000;0.8116;0.8678;
577.5000;0.7993;0.8337;
577.8000;0.8124;0.8654;
578.1000;0.8116;0.8654;
578.4000;0.8091;0.8702;
578.7000;0.8075;0.8605;
579.0000;0.8116;0.8751;
579.3000;0.8099;0.8776;
579.6000;0.8091;0.8751;
579.9000;0.8091;0.8605;
580.2000;0.8116;0.8654;
580.5000;0.8107;0.8678;
580.8000;0.8091;0.8629;
581.1000;0.8107;0.8629;
581.4000;0.8124;0.8629;
581.7000;0.8124;0.8581;
582.0000;0.8107;0.8581;
582.3000;0.8099;0.8654;
582.6000;0.8132;0.8727;
582.9000;0.8116;0.8678;
583.2000;0.8173;0.8776;
583.5000;0.8099;0.8507;
583.8000;0.8124;0.8581;
584.1000;0.8116;0.8727;
584.4000;0.8116;0.8751;
584.7000;0.8107;0.8702;
585.0000;0.8091;0.8702;
585.3000;0.8107;0.8702;
585.6000;0.8042;0.8581;
585.9000;0.8091;0.8654;
586.2000;0.8099;0.8678;
586.5000;0.8099;0.8751;
586.8000;0.8132;0.8751;
587.1000;0.8116;0.8629;
587.4000;0.8107;0.8654;
587.7000;0.8124;0.8629;
588.0000;0.8124;0.8605;
588.3000;0.8124;0.8629;
588.6000;0.8099;0.8556;
588.9000;0.8107;0.8556;
589.2000;0.8124;0.8507;
589.5000;0.8099;0.8410;
589.8000;0.8107;0.8483;
590.1000;0.8124;0.8532;
590.4000;0.8116;0.8556;
590.7000;0.8140;0.8556;
591.0000;0.8107;0.8507;
591.3000;0.8099;0.8507;
591.6000;0.8107;0.8556;
591.9000;0.8107;0.8483;
592.2000;0.8099;0.8410;
592.5000;0.8107;0.8483;
592.8000;0.8099;0.8507;
593.1000;0.8099;0.8507;
593.4000;0.8099;0.8507;
593.7000;0.8116;0.8532;
594.0000;0.8116;0.8556;
594.3000;0.8124;0.8507;
594.6000;0.8116;0.8556;
594.9000;0.7993;0.8191;
595.2000;0.8099;0.8483;
595.5000;0.8099;0.8483;
595.8000;0.8107;0.8434;
596.1000;0.8091;0.8483;
596.4000;0.8091;0.8556;
596.7000;0.8107;0.8532;
597.0000;0.8107;0.8556;
597.3000;0.8099;0.8556;
597.6000;0.8107;0.8605;
597.9000;0.8107;0.8629;
598.2000;0.8124;0.8654;
598.5000;0.8107;0.8605;
598.8000;0.8099;0.8581;
599.1000;0.8091;0.8556;
599.4000;0.8107;0.8605;
599.7000;0.8107;0.8654;
600.0000;0.8075;0.8654;
600.3000;0.8116;0.8556;
600.6000;0.8107;0.8337;
600.9000;0.8148;0.8264;
601.2000;0.8124;0.8093;
601.5000;0.8107;0.7922;
601.8000;0.8091;0.7727;
602.1000;0.8034;0.7484;
602.4000;0.7993;0.7313;
602.7000;0.7993;0.7289;
603.0000;0.7993;0.7167;
603.3000;0.7945;0.7142;
603.6000;0.7831;0.6899;
603.9000;0.7880;0.7045;
604.2000;0.7855;0.7094;
604.5000;0.7831;0.7045;
604.8000;0.7782;0.6801;
605.1000;0.7782;0.6728;
605.4000;0.7757;0.6606;
605.7000;0.7700;0.6460;
606.0000;0.7741;0.6533;
606.3000;0.7709;0.6362;
606.6000;0.7709;0.6362;
606.9000;0.7700;0.6387;
607.2000;0.7676;0.6460;
607.5000;0.7627;0.6314;
607.8000;0.7652;0.6314;
608.1000;0.7627;0.6265;
608.4000;0.7676;0.6314;
608.7000;0.7595;0.6021;
609.0000;0.7643;0.6289;
609.3000;0.7586;0.6216;
609.6000;0.7627;0.6289;
609.9000;0.7538;0.5997;
610.2000;0.7554;0.6143;
610.5000;0.7554;0.6265;
610.8000;0.7505;0.6216;
611.1000;0.7448;0.6167;
611.4000;0.7489;0.6289;
611.7000;0.7456;0.6314;
612.0000;0.7464;0.6314;
612.3000;0.7448;0.6240;
612.6000;0.7521;0.6387;
612.9000;0.7440;0.6265;
613.2000;0.7432;0.6265;
613.5000;0.7456;0.6265;
613.8000;0.7424;0.6143;
614.1000;0.7440;0.6216;
614.4000;0.7416;0.6216;
614.7000;0.7407;0.6021;
615.0000;0.7399;0.6021;
615.3000;0.7407;0.6021;
615.6000;0.7383;0.5997;
615.9000;0.7383;0.5924;
616.2000;0.7383;0.5875;
616.5000;0.7383;0.5875;
616.8000;0.7383;0.5875;
617.1000;0.7359;0.5850;
617.4000;0.7367;0.5802;
617.7000;0.7367;0.5802;
618.0000;0.7383;0.5850;
618.3000;0.7342;0.5850;
618.6000;0.7367;0.5948;
618.9000;0.7326;0.5777;
619.2000;0.7253;0.5607;
619.5000;0.7334;0.5777;
619.8000;0.7342;0.5850;
620.1000;0.7302;0.5753;
620.4000;0.7302;0.5728;
620.7000;0.7245;0.5460;
621.0000;0.7269;0.5582;
621.3000;0.7302;0.5704;
621.6000;0.7236;0.5558;
621.9000;0.7269;0.5704;
622.2000;0.7261;0.5728;
622.5000;0.7277;0.5802;
622.8000;0.7285;0.5826;
623.1000;0.7285;0.5826;
623.4000;0.7293;0.5875;
623.7000;0.7277;0.5875;
624.0000;0.7342;0.5997;
624.3000;0.7245;0.5728;
624.6000;0.7285;0.5777;
624.9000;0.7285;0.5875;
625.2000;0.7245;0.5704;
625.5000;0.7261;0.5777;
625.8000;0.7212;0.5753;
626.1000;0.7253;0.5802;
626.4000;0.7228;0.5728;
626.7000;0.7188;0.5582;
627.0000;0.7236;0.5826;
627.3000;0.7236;0.5802;
627.6000;0.7220;0.5826;
627.9000;0.7220;0.5924;
628.2000;0.7106;0.5607;
628.5000;0.7212;0.5899;
628.8000;0.7220;0.5899;
629.1000;0.7196;0.5802;
629.4000;0.7163;0.5728;
629.7000;0.7236;0.5924;
630.0000;0.7155;0.5777;
630.3000;0.7220;0.6021;
630.6000;0.7171;0.5875;
630.9000;0.7188;0.5948;
631.2000;0.7196;0.5875;
631.5000;0.7188;0.5875;
631.8000;0.7171;0.5850;
632.1000;0.7131;0.5777;
632.4000;0.7188;0.5802;
632.7000;0.7179;0.5826;
633.0000;0.7171;0.5850;
633.3000;0.7188;0.5972;
633.6000;0.7171;0.5948;
633.9000;0.7179;0.5948;
634.2000;0.7179;0.5997;
634.5000;0.7179;0.5875;
634.8000;0.7155;0.5826;
635.1000;0.7188;0.5850;
635.4000;0.7139;0.5704;
635.7000;0.7171;0.5631;
636.0000;0.7139;0.5607;
636.3000;0.7131;0.5607;
636.6000;0.7123;0.5631;
636.9000;0.7114;0.5655;
637.2000;0.7147;0.5655;
637.5000;0.7147;0.5680;
637.8000;0.7131;0.5655;
638.1000;0.7139;0.5655;
638.4000;0.7123;0.5680;
638.7000;0.7123;0.5680;
639.0000;0.7106;0.5631;
639.3000;0.7131;0.5631;
639.6000;0.7139;0.5607;
639.9000;0.7131;0.5558;
640.2000;0.7131;0.5680;
640.5000;0.7123;0.5826;
640.8000;0.7131;0.5826;
641.1000;0.7123;0.5826;
641.4000;0.7155;0.5753;
641.7000;0.7139;0.5655;
642.0000;0.7123;0.5509;
642.3000;0.7123;0.5436;
642.6000;0.7106;0.5558;
642.9000;0.7171;0.5704;
643.2000;0.7098;0.5607;
643.5000;0.7090;0.5558;
643.8000;0.7098;0.5582;
644.1000;0.7082;0.5607;
644.4000;0.7090;0.5728;
644.7000;0.7090;0.5728;
645.0000;0.7106;0.5777;
645.3000;0.7082;0.5777;
645.6000;0.7082;0.5826;
645.9000;0.7114;0.5924;
646.2000;0.7082;0.5924;
646.5000;0.7074;0.5875;
646.8000;0.7074;0.5850;
647.1000;0.7082;0.5802;
647.4000;0.7057;0.5753;
647.7000;0.7066;0.5704;
648.0000;0.7049;0.5607;
648.3000;0.7066;0.5728;
648.6000;0.7074;0.5753;
648.9000;0.6943;0.5485;
649.2000;0.7074;0.5728;
649.5000;0.7066;0.5728;
649.8000;0.7057;0.5777;
650.1000;0.7049;0.5802;
650.4000;0.7049;0.5924;
650.7000;0.7057;0.5997;
651.0000;0.6984;0.5753;
651.3000;0.7066;0.5899;
651.6000;0.7057;0.5850;
651.9000;0.6968;0.5704;
652.2000;0.7041;0.5875;
652.5000;0.7049;0.5948;
652.8000;0.7049;0.5948;
653.1000;0.7033;0.5899;
653.4000;0.7041;0.5924;
653.7000;0.7049;0.5850;
654.0000;0.7041;0.5655;
654.3000;0.7033;0.5631;
654.6000;0.7033;0.5582;
654.9000;0.7041;0.5655;
655.2000;0.7025;0.5680;
655.5000;0.7025;0.5728;
655.8000;0.7017;0.5728;
656.1000;0.7033;0.5704;
656.4000;0.7025;0.5631;
656.7000;0.7017;0.5607;
657.0000;0.7090;0.5826;
657.3000;0.7041;0.5728;
657.6000;0.7025;0.5680;
657.9000;0.7017;0.5631;
658.2000;0.7009;0.5680;
658.5000;0.7009;0.5728;
658.8000;0.7025;0.5826;
659.1000;0.7017;0.5924;
659.4000;0.7009;0.5826;
659.7000;0.7025;0.5875;
660.0000;0.7000;0.5924;
660.3000;0.7000;0.5924;
660.6000;0.7009;0.5899;
660.9000;0.7000;0.5924;
661.2000;0.7000;0.5924;
661.5000;0.6992;0.5948;
661.8000;0.7009;0.5997;
662.1000;0.7025;0.5948;
662.4000;0.7000;0.5875;
662.7000;0.7017;0.5899;
663.0000;0.7009;0.5924;
663.3000;0.6984;0.5875;
663.6000;0.6984;0.5777;
663.9000;0.7009;0.5826;
664.2000;0.7033;0.5899;
664.5000;0.6976;0.5777;
664.8000;0.6976;0.5777;
665.1000;0.6992;0.5753;
665.4000;0.7000;0.5777;
665.7000;0.6976;0.5802;
666.0000;0.6943;0.5704;
666.3000;0.6935;0.5728;
666.6000;0.6968;0.5802;
666.9000;0.6968;0.5850;
667.2000;0.6976;0.5875;
667.5000;0.6935;0.5826;
667.8000;0.6984;0.6021;
668.1000;0.6976;0.5948;
668.4000;0.6911;0.5728;
668.7000;0.6960;0.5875;
669.0000;0.6992;0.5875;
669.3000;0.6968;0.5826;
669.6000;0.6870;0.5509;
669.9000;0.6943;0.5704;
670.2000;0.6952;0.5728;
670.5000;0.6911;0.5607;
670.8000;0.6935;0.5777;
671.1000;0.6952;0.5850;
671.4000;0.6927;0.5777;
671.7000;0.6984;0.5850;
672.0000;0.6968;0.5875;
672.3000;0.6943;0.5899;
672.6000;0.6952;0.5850;
672.9000;0.6968;0.5899;
673.2000;0.6960;0.5899;
673.5000;0.6935;0.5850;
673.8000;0.6878;0.5680;
674.1000;0.6968;0.5972;
674.4000;0.6984;0.5899;
674.7000;0.6943;0.5826;
675.0000;0.6952;0.5875;
675.3000;0.6886;0.5728;
675.6000;0.6960;0.5948;
675.9000;0.6935;0.5972;
676.2000;0.6935;0.5948;
676.5000;0.6927;0.5850;
676.8000;0.6935;0.5899;
677.1000;0.6943;0.5875;
677.4000;0.6935;0.5826;
677.7000;0.6886;0.5655;
678.0000;0.7106;0.6216;
678.3000;0.6927;0.5777;
678.6000;0.6935;0.5802;
678.9000;0.6919;0.5753;
679.2000;0.6927;0.5777;
679.5000;0.6927;0.5753;
679.8000;0.6911;0.5728;
680.1000;0.6886;0.5655;
680.4000;0.6927;0.5704;
680.7000;0.6927;0.5704;
681.0000;0.6935;0.5655;
681.3000;0.6935;0.5655;
681.6000;0.6903;0.5582;
681.9000;0.6935;0.5728;
682.2000;0.6927;0.5728;
682.5000;0.6927;0.5802;
682.8000;0.6919;0.5802;
683.1000;0.6935;0.5899;
683.4000;0.6943;0.5924;
683.7000;0.6919;0.5875;
684.0000;0.6935;0.5850;
684.3000;0.6911;0.5728;
684.6000;0.6927;0.5802;
684.9000;0.6911;0.5753;
685.2000;0.6911;0.5850;
685.5000;0.6903;0.5972;
685.8000;0.6935;0.6045;
686.1000;0.6903;0.5972;
686.4000;0.6919;0.5899;
686.7000;0.6911;0.5924;
687.0000;0.6911;0.5850;
687.3000;0.6903;0.5850;
687.6000;0.6862;0.5826;
687.9000;0.6895;0.5899;
688.2000;0.6911;0.6070;
688.5000;0.6895;0.6119;
688.8000;0.6895;0.6021;
689.1000;0.6878;0.5997;
689.4000;0.6886;0.5997;
689.7000;0.6968;0.6192;
690.0000;0.6895;0.5997;
690.3000;0.6903;0.5899;
690.6000;0.6878;0.5850;
690.9000;0.6903;0.5802;
691.2000;0.6886;0.5704;
691.5000;0.6911;0.5728;
691.8000;0.6870;0.5631;
692.1000;0.6886;0.5680;
692.4000;0.6886;0.5631;
692.7000;0.6886;0.5607;
693.0000;0.6870;0.5631;
693.3000;0.6886;0.5704;
693.6000;0.6878;0.5704;
693.9000;0.6878;0.5704;
694.2000;0.6895;0.5704;
694.5000;0.6935;0.5802;
694.8000;0.6805;0.5509;
695.1000;0.6878;0.5728;
695.4000;0.6878;0.5777;
695.7000;0.6878;0.5753;
696.0000;0.6870;0.5728;
696.3000;0.6870;0.5704;
696.6000;0.6862;0.5680;
696.9000;0.6870;0.5728;
697.2000;0.6878;0.5826;
697.5000;0.6870;0.5826;
697.8000;0.6870;0.5826;
698.1000;0.6829;0.5802;
698.4000;0.6903;0.5997;
698.7000;0.6870;0.5802;
699.0000;0.6870;0.5826;
699.3000;0.6878;0.5875;
699.6000;0.6886;0.5777;
699.9000;0.6886;0.5753;
700.2000;0.6878;0.5753;
700.5000;0.6862;0.5704;
700.8000;0.6870;0.5802;
701.1000;0.6862;0.5753;
701.4000;0.6862;0.5655;
701.7000;0.6829;0.5582;
702.0000;0.6862;0.5607;
702.3000;0.6829;0.5533;
702.6000;0.6854;0.5655;
702.9000;0.6870;0.5728;
703.2000;0.6854;0.5753;
703.5000;0.6789;0.5631;
703.8000;0.6878;0.5875;
704.1000;0.6870;0.5924;
704.4000;0.6862;0.5850;
704.7000;0.6903;0.5948;
705.0000;0.6862;0.5753;
705.3000;0.6846;0.5753;
705.6000;0.6829;0.5680;
705.9000;0.6846;0.5753;
706.2000;0.6854;0.5777;
706.5000;0.6846;0.5777;
706.8000;0.6846;0.5850;
707.1000;0.6838;0.5802;
707.4000;0.6854;0.5826;
707.7000;0.6846;0.5802;
708.0000;0.6829;0.5826;
708.3000;0.6838;0.5899;
708.6000;0.6838;0.5899;
708.9000;0.6878;0.5972;
709.2000;0.6854;0.5899;
709.5000;0.6870;0.5826;
709.8000;0.6854;0.5802;
710.1000;0.6829;0.5753;
710.4000;0.6854;0.5875;
710.7000;0.6838;0.5899;
711.0000;0.6862;0.5972;
711.3000;0.6862;0.6021;
711.6000;0.6854;0.5899;
711.9000;0.6862;0.5899;
712.2000;0.6854;0.5875;
712.5000;0.6846;0.5850;
712.8000;0.6772;0.5753;
713.1000;0.6813;0.5948;
713.4000;0.6846;0.6021;
713.7000;0.6838;0.5948;
714.0000;0.6829;0.5899;
714.3000;0.6846;0.5972;
714.6000;0.6878;0.6045;
714.9000;0.6821;0.5875;
715.2000;0.6838;0.5924;
715.5000;0.6821;0.5875;
715.8000;0.6813;0.5826;
716.1000;0.6838;0.5850;
716.4000;0.6878;0.5899;
716.7000;0.6838;0.5826;
717.0000;0.6813;0.5753;
717.3000;0.6838;0.5850;
717.6000;0.6829;0.5875;
717.9000;0.6813;0.5850;
718.2000;0.6895;0.6119;
718.5000;0.6846;0.6021;
718.8000;0.6829;0.5972;
719.1000;0.6838;0.5924;
719.4000;0.6838;0.5899;
719.7000;0.6927;0.6070;
720.0000;0.6829;0.5728;
720.3000;0.6838;0.5850;
720.6000;0.6846;0.5948;
720.9000;0.6821;0.5850;
721.2000;0.6813;0.5972;
721.5000;0.6854;0.6143;
721.8000;0.6813;0.6070;
722.1000;0.6805;0.5972;
722.4000;0.6805;0.5997;
722.7000;0.6789;0.5924;
723.0000;0.6764;0.5826;
723.3000;0.6862;0.5997;
723.6000;0.6813;0.5850;
723.9000;0.6821;0.5850;
724.2000;0.6829;0.5850;
724.5000;0.6862;0.5875;
724.8000;0.6748;0.5680;
725.1000;0.6813;0.5850;
725.4000;0.6821;0.5826;
725.7000;0.6846;0.5826;
726.0000;0.6805;0.5631;
726.3000;0.6805;0.5631;
726.6000;0.7009;0.6094;
726.9000;0.6805;0.5680;
727.2000;0.6789;0.5728;
727.5000;0.6829;0.5850;
727.8000;0.6805;0.5850;
728.1000;0.6797;0.5875;
728.4000;0.6805;0.5850;
728.7000;0.6821;0.5924;
729.0000;0.6813;0.5875;
729.3000;0.6805;0.5850;
729.6000;0.6781;0.5924;
729.9000;0.6797;0.6021;
730.2000;0.6813;0.5948;
730.5000;0.6829;0.5924;
730.8000;0.6789;0.5777;
731.1000;0.6813;0.5728;
731.4000;0.6805;0.5826;
731.7000;0.6821;0.5924;
732.0000;0.6813;0.5802;
732.3000;0.6813;0.5753;
732.6000;0.6813;0.5802;
732.9000;0.6821;0.5753;
733.2000;0.6797;0.5753;
733.5000;0.6789;0.5753;
733.8000;0.6789;0.5728;
734.1000;0.6805;0.5680;
734.4000;0.6789;0.5753;
734.7000;0.6797;0.5850;
735.0000;0.6781;0.5777;
735.3000;0.6772;0.5753;
735.6000;0.6781;0.5850;
735.9000;0.6797;0.5924;
736.2000;0.6764;0.5875;
736.5000;0.6789;0.5997;
736.8000;0.6764;0.6070;
737.1000;0.6789;0.6119;
737.4000;0.6781;0.6119;
737.7000;0.6805;0.6094;
738.0000;0.6789;0.5972;
738.3000;0.6805;0.5972;
738.6000;0.6805;0.6021;
738.9000;0.6772;0.5875;
739.2000;0.6789;0.5972;
739.5000;0.6789;0.5850;
739.8000;0.6781;0.5826;
740.1000;0.6813;0.5948;
740.4000;0.6805;0.5899;
740.7000;0.6813;0.5899;
741.0000;0.6781;0.5850;
741.3000;0.6764;0.5899;
741.6000;0.6805;0.5972;
741.9000;0.6797;0.5997;
742.2000;0.6805;0.5972;
742.5000;0.6797;0.5997;
742.8000;0.6797;0.6070;
743.1000;0.6821;0.6119;
743.4000;0.6797;0.5997;
743.7000;0.6772;0.5972;
744.0000;0.6789;0.5997;
744.3000;0.6813;0.5997;
744.6000;0.6821;0.6045;
744.9000;0.6805;0.5948;
745.2000;0.6797;0.5875;
745.5000;0.6789;0.5850;
745.8000;0.6789;0.5850;
746.1000;0.6740;0.5875;
746.4000;0.6781;0.5997;
746.7000;0.6781;0.5899;
747.0000;0.6838;0.6070;
747.3000;0.6772;0.5948;
747.6000;0.6813;0.6021;
747.9000;0.6781;0.5899;
748.2000;0.6772;0.5924;
748.5000;0.6781;0.5997;
748.8000;0.6772;0.5924;
749.1000;0.6829;0.6070;
749.4000;0.6772;0.5948;
749.7000;0.6756;0.5997;
750.0000;0.6756;0.6070;
750.3000;0.6772;0.6192;
750.6000;0.6797;0.6289;
750.9000;0.6683;0.6045;
751.2000;0.6756;0.6167;
751.5000;0.6764;0.6021;
751.8000;0.6764;0.5899;
752.1000;0.6772;0.5875;
752.4000;0.6756;0.5826;
752.7000;0.6764;0.5875;
753.0000;0.6764;0.5826;
753.3000;0.6789;0.5972;
753.6000;0.6821;0.5997;
753.9000;0.6764;0.5948;
754.2000;0.6789;0.5997;
754.5000;0.6781;0.6045;
754.8000;0.6781;0.5997;
755.1000;0.6764;0.5924;
755.4000;0.6764;0.5899;
755.7000;0.6772;0.5875;
756.0000;0.6789;0.5802;
756.3000;0.6764;0.5777;
756.6000;0.6732;0.5777;
756.9000;0.6789;0.5948;
757.2000;0.6764;0.5802;
757.5000;0.6756;0.5777;
757.8000;0.6789;0.5728;
758.1000;0.6789;0.5728;
758.4000;0.6772;0.5704;
758.7000;0.6756;0.5680;
759.0000;0.6764;0.5777;
759.3000;0.6813;0.5899;
759.6000;0.6756;0.5753;
759.9000;0.6764;0.5777;
760.2000;0.6724;0.5753;
760.5000;0.6764;0.5850;
760.8000;0.6756;0.5777;
761.1000;0.6772;0.5777;
761.4000;0.6756;0.5728;
761.7000;0.6781;0.5753;
762.0000;0.6764;0.5802;
762.3000;0.6764;0.5850;
762.6000;0.6724;0.5704;
762.9000;0.6756;0.5899;
763.2000;0.6748;0.5948;
763.5000;0.6772;0.5948;
763.8000;0.6781;0.5948;
764.1000;0.6846;0.6094;
764.4000;0.6789;0.5899;
764.7000;0.6789;0.5924;
765.0000;0.6789;0.5875;
765.3000;0.6764;0.5899;
765.6000;0.6805;0.6021;
765.9000;0.6756;0.5899;
766.2000;0.6781;0.5948;
766.5000;0.6756;0.5899;
766.8000;0.6764;0.5899;
767.1000;0.6756;0.5875;
767.4000;0.6748;0.5850;
767.7000;0.6740;0.5826;
768.0000;0.6781;0.5924;
768.3000;0.6748;0.5875;
768.6000;0.6764;0.5826;
768.9000;0.6781;0.5850;
769.2000;0.6716;0.5655;
769.5000;0.6772;0.5753;
769.8000;0.6756;0.5728;
770.1000;0.6764;0.5655;
770.4000;0.6699;0.5533;
770.7000;0.6781;0.5777;
771.0000;0.6772;0.5850;
771.3000;0.6740;0.5753;
771.6000;0.6740;0.5728;
771.9000;0.6756;0.5826;
772.2000;0.6781;0.5850;
772.5000;0.6748;0.5777;
772.8000;0.6732;0.5826;
773.1000;0.6748;0.5924;
773.4000;0.6748;0.5997;
773.7000;0.6764;0.6021;
774.0000;0.6756;0.6021;
774.3000;0.6748;0.6094;
774.6000;0.6764;0.6192;
774.9000;0.6748;0.6143;
775.2000;0.6732;0.6143;
775.5000;0.6764;0.6192;
775.8000;0.6764;0.6167;
776.1000;0.6740;0.6167;
776.4000;0.6748;0.6240;
776.7000;0.6748;0.6216;
777.0000;0.6748;0.6167;
777.3000;0.6756;0.6167;
777.6000;0.6764;0.6167;
777.9000;0.6732;0.6094;
778.2000;0.6748;0.5997;
778.5000;0.6764;0.5997;
778.8000;0.6764;0.5997;
779.1000;0.6756;0.6119;
779.4000;0.6740;0.5972;
779.7000;0.6772;0.5948;
780.0000;0.6756;0.5948;
780.3000;0.6748;0.5972;
780.6000;0.6748;0.6021;
780.9000;0.6740;0.5972;
781.2000;0.6772;0.6070;
781.5000;0.6764;0.5997;
781.8000;0.6732;0.5850;
782.1000;0.6724;0.5777;
782.4000;0.6756;0.5948;
782.7000;0.6740;0.5899;
783.0000;0.6732;0.5948;
783.3000;0.6716;0.5875;
783.6000;0.6732;0.5850;
783.9000;0.6724;0.5777;
784.2000;0.6716;0.5704;
784.5000;0.6740;0.5680;
784.8000;0.6748;0.5777;
785.1000;0.6724;0.5728;
785.4000;0.6772;0.5875;
785.7000;0.6724;0.5802;
786.0000;0.6667;0.5680;
786.3000;0.6772;0.5899;
786.6000;0.6675;0.5655;
786.9000;0.6724;0.5850;
787.2000;0.6772;0.5924;
787.5000;0.6732;0.5850;
787.8000;0.6756;0.5972;
788.1000;0.6740;0.5948;
788.4000;0.6740;0.5875;
788.7000;0.6748;0.5875;
789.0000;0.6764;0.5924;
789.3000;0.6675;0.5704;
789.6000;0.6740;0.5924;
789.9000;0.6756;0.6070;
790.2000;0.6732;0.6045;
790.5000;0.6732;0.5997;
790.8000;0.6748;0.5850;
791.1000;0.6740;0.5875;
791.4000;0.6732;0.5777;
791.7000;0.6732;0.5802;
792.0000;0.6732;0.5753;
792.3000;0.6732;0.5826;
792.6000;0.6756;0.5972;
792.9000;0.6740;0.5899;
793.2000;0.6732;0.5826;
793.5000;0.6740;0.5875;
793.8000;0.6756;0.5899;
794.1000;0.6732;0.5826;
794.4000;0.6740;0.5777;
794.7000;0.6748;0.5875;
795.0000;0.6740;0.5899;
795.3000;0.6756;0.5972;
795.6000;0.6740;0.5875;
795.9000;0.6740;0.5802;
796.2000;0.6740;0.5875;
796.5000;0.6667;0.5680;
796.8000;0.6748;0.5972;
797.1000;0.6724;0.5899;
797.4000;0.6748;0.5899;
797.7000;0.6756;0.5972;
798.0000;0.6740;0.5850;
798.3000;0.6732;0.5753;
798.6000;0.6724;0.5802;
798.9000;0.6748;0.5924;
799.2000;0.6748;0.6070;
799.5000;0.6732;0.6021;
799.8000;0.6748;0.5948;
800.1000;0.6756;0.5997;
800.4000;0.6740;0.5972;
800.7000;0.6707;0.5972;
801.0000;0.6732;0.5972;
801.3000;0.6748;0.5972;
801.6000;0.6740;0.5924;
801.9000;0.6764;0.5997;
802.2000;0.6716;0.5850;
802.5000;0.6724;0.5924;
802.8000;0.6683;0.5704;
803.1000;0.6724;0.5728;
803.4000;0.6756;0.5753;
803.7000;0.6748;0.5777;
804.0000;0.6748;0.5802;
804.3000;0.6724;0.5802;
804.6000;0.6732;0.5802;
804.9000;0.6854;0.6167;
805.2000;0.6748;0.5972;
805.5000;0.6740;0.5997;
805.8000;0.6724;0.5875;
806.1000;0.6732;0.6021;
806.4000;0.6724;0.5972;
806.7000;0.6732;0.5997;
807.0000;0.6748;0.5875;
807.3000;0.6781;0.6021;
807.6000;0.6724;0.5826;
807.9000;0.6756;0.5972;
808.2000;0.6724;0.5899;
808.5000;0.6724;0.5850;
808.8000;0.6699;0.5802;
809.1000;0.6772;0.5899;
809.4000;0.6707;0.5753;
809.7000;0.6724;0.5680;
810.0000;0.6724;0.5631;
810.3000;0.6659;0.5509;
810.6000;0.6748;0.5704;
810.9000;0.6797;0.5826;
811.2000;0.6805;0.5875;
811.5000;0.6756;0.5826;
811.8000;0.6756;0.5802;
812.1000;0.6724;0.5753;
812.4000;0.6732;0.5850;
812.7000;0.6748;0.5948;
813.0000;0.6748;0.5948;
813.3000;0.6789;0.6143;
813.6000;0.6716;0.5899;
813.9000;0.6732;0.5972;
814.2000;0.6740;0.5997;
814.5000;0.6732;0.5924;
814.8000;0.6732;0.5875;
815.1000;0.6748;0.5948;
815.4000;0.6748;0.5875;
815.7000;0.6740;0.5704;
816.0000;0.6724;0.5753;
816.3000;0.6748;0.5753;
816.6000;0.6707;0.5631;
816.9000;0.6740;0.5728;
817.2000;0.6707;0.5680;
817.5000;0.6740;0.5777;
817.8000;0.6781;0.5899;
818.1000;0.6732;0.5826;
818.4000;0.6716;0.5875;
818.7000;0.6618;0.5582;
819.0000;0.6707;0.5753;
819.3000;0.6732;0.5850;
819.6000;0.6699;0.5826;
819.9000;0.6707;0.5826;
820.2000;0.6716;0.5875;
820.5000;0.6675;0.5850;
820.8000;0.6732;0.5997;
821.1000;0.6707;0.5948;
821.4000;0.6699;0.6021;
821.7000;0.6740;0.6119;
822.0000;0.6699;0.5899;
822.3000;0.6732;0.5899;
822.6000;0.6691;0.5826;
822.9000;0.6707;0.5875;
823.2000;0.6732;0.5972;
823.5000;0.6724;0.5899;
823.8000;0.6716;0.5850;
824.1000;0.6724;0.5850;
824.4000;0.6716;0.5753;
824.7000;0.6740;0.5753;
825.0000;0.6732;0.5875;
825.3000;0.6716;0.5948;
825.6000;0.6724;0.5997;
825.9000;0.6724;0.6021;
826.2000;0.6716;0.5899;
826.5000;0.6716;0.5850;
826.8000;0.6724;0.5899;
827.1000;0.6707;0.5875;
827.4000;0.6724;0.5924;
827.7000;0.6813;0.6216;
828.0000;0.6716;0.6045;
828.3000;0.6724;0.5997;
828.6000;0.6699;0.5826;
828.9000;0.6699;0.5728;
829.2000;0.6724;0.5753;
829.5000;0.6716;0.5728;
829.8000;0.6716;0.5728;
830.1000;0.6659;0.5631;
830.4000;0.6732;0.5924;
830.7000;0.6650;0.5655;
831.0000;0.6724;0.5826;
831.3000;0.6724;0.5753;
831.6000;0.6724;0.5802;
831.9000;0.6716;0.5875;
832.2000;0.6626;0.5753;
832.5000;0.6691;0.5899;
832.8000;0.6659;0.5802;
833.1000;0.6699;0.5948;
833.4000;0.6748;0.6045;
833.7000;0.6716;0.5972;
834.0000;0.6716;0.5997;
834.3000;0.6732;0.6094;
834.6000;0.6716;0.5997;
834.9000;0.6716;0.5948;
835.2000;0.6724;0.5875;
835.5000;0.6716;0.5924;
835.8000;0.6756;0.6021;
836.1000;0.6724;0.5948;
836.4000;0.6716;0.5997;
836.7000;0.6716;0.5972;
837.0000;0.6642;0.5655;
837.3000;0.6691;0.5728;
837.6000;0.6691;0.5631;
837.9000;0.6707;0.5728;
838.2000;0.6732;0.5802;
838.5000;0.6740;0.5802;
838.8000;0.6699;0.5655;
839.1000;0.6724;0.5680;
839.4000;0.6740;0.5704;
839.7000;0.6740;0.5655;
840.0000;0.6732;0.5753;
840.3000;0.6699;0.5777;
840.6000;0.6716;0.5850;
840.9000;0.6716;0.5875;
841.2000;0.6610;0.5655;
841.5000;0.6724;0.5997;
841.8000;0.6716;0.5972;
842.1000;0.6781;0.6143;
842.4000;0.6707;0.5924;
842.7000;0.6675;0.5826;
843.0000;0.6707;0.5972;
843.3000;0.6699;0.5948;
843.6000;0.6691;0.5924;
843.9000;0.6724;0.5972;
844.2000;0.6683;0.5802;
844.5000;0.6683;0.5899;
844.8000;0.6699;0.5875;
845.1000;0.6716;0.5875;
845.4000;0.6699;0.5753;
845.7000;0.6675;0.5704;
846.0000;0.6716;0.5728;
846.3000;0.6707;0.5777;
846.6000;0.6691;0.5826;
846.9000;0.6699;0.5826;
847.2000;0.6716;0.5850;
847.5000;0.6732;0.5753;
847.8000;0.6707;0.5753;
848.1000;0.6707;0.5753;
848.4000;0.6724;0.5802;
848.7000;0.6716;0.5753;
849.0000;0.6707;0.5704;
849.3000;0.6691;0.5655;
849.6000;0.6716;0.5728;
849.9000;0.6724;0.5777;
850.2000;0.6707;0.5826;
850.5000;0.6707;0.5924;
850.8000;0.6691;0.5850;
851.1000;0.6699;0.5802;
851.4000;0.6707;0.5802;
851.7000;0.6716;0.5875;
852.0000;0.6707;0.5948;
852.3000;0.6707;0.5948;
852.6000;0.6732;0.6094;
852.9000;0.6691;0.6021;
853.2000;0.6699;0.5948;
853.5000;0.6716;0.5899;
853.8000;0.6716;0.5875;
854.1000;0.6650;0.5753;
854.4000;0.6699;0.5777;
854.7000;0.6699;0.5728;
855.0000;0.6716;0.5753;
855.3000;0.6716;0.5728;
855.6000;0.6724;0.5753;
855.9000;0.6699;0.5777;
856.2000;0.6699;0.5802;
856.5000;0.6716;0.5802;
856.8000;0.6699;0.5728;
857.1000;0.6772;0.5899;
857.4000;0.6740;0.5802;
857.7000;0.6707;0.5802;
858.0000;0.6691;0.5753;
858.3000;0.6724;0.5777;
858.6000;0.6707;0.5753;
858.9000;0.6667;0.5631;
859.2000;0.6691;0.5728;
859.5000;0.6724;0.5826;
859.8000;0.6716;0.5802;
860.1000;0.6740;0.5802;
860.4000;0.6724;0.5802;
860.7000;0.6699;0.5728;
861.0000;0.6732;0.5826;
861.3000;0.6699;0.5777;
861.6000;0.6691;0.5728;
861.9000;0.6707;0.5655;
862.2000;0.6716;0.5704;
862.5000;0.6707;0.5728;
862.8000;0.6707;0.5753;
863.1000;0.6740;0.5899;
863.4000;0.6716;0.5826;
863.7000;0.6707;0.5875;
864.0000;0.6699;0.5850;
864.3000;0.6716;0.5924;
864.6000;0.6707;0.5875;
864.9000;0.6707;0.5972;
865.2000;0.6716;0.5948;
865.5000;0.6699;0.5899;
865.8000;0.6716;0.5972;
866.1000;0.6756;0.6070;
866.4000;0.6732;0.6045;
866.7000;0.6650;0.5850;
867.0000;0.6675;0.5972;
867.3000;0.6683;0.6119;
867.6000;0.6707;0.6119;
867.9000;0.6683;0.6021;
868.2000;0.6683;0.6045;
868.5000;0.6691;0.6094;
868.8000;0.6691;0.6119;
869.1000;0.6699;0.6070;
869.4000;0.6691;0.5972;
869.7000;0.6675;0.5948;
870.0000;0.6675;0.5899;
870.3000;0.6699;0.5948;
870.6000;0.6691;0.5899;
870.9000;0.6699;0.5997;
871.2000;0.6707;0.5972;
871.5000;0.6724;0.6021;
871.8000;0.6683;0.5826;
872.1000;0.6675;0.5777;
872.4000;0.6691;0.5899;
872.7000;0.6716;0.5948;
873.0000;0.6699;0.5924;
873.3000;0.6707;0.5899;
873.6000;0.6707;0.5875;
873.9000;0.6740;0.5875;
874.2000;0.6699;0.5777;
874.5000;0.6699;0.5777;
874.8000;0.6683;0.5802;
875.1000;0.6699;0.5899;
875.4000;0.6699;0.5899;
875.7000;0.6699;0.5997;
876.0000;0.6699;0.5875;
876.3000;0.6691;0.5777;
876.6000;0.6707;0.5802;
876.9000;0.6732;0.5875;
877.2000;0.6707;0.5850;
877.5000;0.6675;0.5826;
877.8000;0.6691;0.5899;
878.1000;0.6634;0.5777;
878.4000;0.6626;0.5704;
878.7000;0.6707;0.5875;
879.0000;0.6667;0.5899;
879.3000;0.6732;0.5972;
879.6000;0.6699;0.5972;
879.9000;0.6650;0.5777;
880.2000;0.6699;0.5875;
880.5000;0.6699;0.5899;
880.8000;0.6659;0.5777;
881.1000;0.6699;0.5802;
881.4000;0.6691;0.5826;
881.7000;0.6707;0.5899;
882.0000;0.6772;0.6094;
882.3000;0.6691;0.5924;
882.6000;0.6724;0.6070;
882.9000;0.6691;0.5948;
883.2000;0.6691;0.5875;
883.5000;0.6716;0.5924;
883.8000;0.6683;0.5948;
884.1000;0.6683;0.5948;
884.4000;0.6756;0.6167;
884.7000;0.6699;0.5972;
885.0000;0.6707;0.5972;
885.3000;0.6724;0.5972;
885.6000;0.6740;0.6045;
885.9000;0.6732;0.5948;
886.2000;0.6691;0.5875;
886.5000;0.6699;0.5875;
886.8000;0.6716;0.5972;
887.1000;0.6716;0.5875;
887.4000;0.6683;0.5753;
887.7000;0.6707;0.5802;
888.0000;0.6707;0.5850;
888.3000;0.6699;0.5875;
888.6000;0.6707;0.5777;
888.9000;0.6699;0.5728;
889.2000;0.6699;0.5728;
889.5000;0.6707;0.5728;
889.8000;0.6716;0.5802;
890.1000;0.6699;0.5802;
890.4000;0.6724;0.5850;
890.7000;0.6683;0.5728;
891.0000;0.6707;0.5704;
891.3000;0.6699;0.5704;
891.6000;0.6699;0.5631;
891.9000;0.6707;0.5704;
892.2000;0.6699;0.5655;
892.5000;0.6691;0.5680;
892.8000;0.6716;0.5704;
893.1000;0.6707;0.5655;
893.4000;0.6691;0.5631;
893.7000;0.6707;0.5655;
894.0000;0.6707;0.5753;
894.3000;0.6699;0.5826;
894.6000;0.6707;0.5924;
894.9000;0.6691;0.5875;
895.2000;0.6683;0.5875;
895.5000;0.6699;0.5899;
895.8000;0.6699;0.5948;
896.1000;0.6699;0.5997;
896.4000;0.6683;0.5899;
896.7000;0.6699;0.5875;
897.0000;0.6724;0.5850;
897.3000;0.6699;0.5753;
897.6000;0.6691;0.5802;
897.9000;0.6691;0.5826;
898.2000;0.6691;0.5777;
898.5000;0.6683;0.5728;
898.8000;0.6756;0.5948;
899.1000;0.6683;0.5680;
899.4000;0.6707;0.5655;
899.7000;0.6691;0.5631;
900.0000;0.6691;0.5704;
900.3000;0.6699;0.5704;
900.6000;0.6667;0.5704;
900.9000;0.6691;0.5777;
901.2000;0.6675;0.5802;
901.5000;0.6691;0.5802;
901.8000;0.6699;0.5777;
902.1000;0.6650;0.5704;
902.4000;0.6659;0.5753;
902.7000;0.6675;0.5728;
903.0000;0.6683;0.5753;
903.3000;0.6667;0.5753;
903.6000;0.6683;0.5753;
903.9000;0.6691;0.5777;
904.2000;0.6691;0.5753;
904.5000;0.6740;0.5875;
904.8000;0.6716;0.5850;
905.1000;0.6707;0.5826;
905.4000;0.6691;0.5753;
905.7000;0.6707;0.5777;
906.0000;0.6699;0.5777;
906.3000;0.6683;0.5728;
906.6000;0.6732;0.5850;
906.9000;0.6642;0.5607;
907.2000;0.6716;0.5826;
907.5000;0.6650;0.5680;
907.8000;0.6789;0.6070;
908.1000;0.6691;0.5728;
908.4000;0.6699;0.5802;
908.7000;0.6675;0.5728;
909.0000;0.6675;0.5680;
909.3000;0.6667;0.5680;
909.6000;0.6683;0.5728;
909.9000;0.6707;0.5777;
910.2000;0.6699;0.5777;
910.5000;0.6716;0.5850;
910.8000;0.6683;0.5875;
911.1000;0.6691;0.5875;
911.4000;0.6683;0.5850;
911.7000;0.6707;0.5802;
912.0000;0.6699;0.5875;
912.3000;0.6724;0.5948;
912.6000;0.6683;0.5875;
912.9000;0.6667;0.5826;
913.2000;0.6675;0.5753;
913.5000;0.6683;0.5826;
913.8000;0.6683;0.5728;
914.1000;0.6675;0.5582;
914.4000;0.6683;0.5631;
914.7000;0.6585;0.5290;
915.0000;0.6691;0.5631;
915.3000;0.6699;0.5680;
915.6000;0.6691;0.5777;
915.9000;0.6691;0.5777;
916.2000;0.6699;0.5753;
916.5000;0.6683;0.5728;
916.8000;0.6675;0.5875;
917.1000;0.6683;0.5924;
917.4000;0.6699;0.5777;
917.7000;0.6675;0.5753;
918.0000;0.6699;0.5728;
918.3000;0.6683;0.5728;
918.6000;0.6683;0.5728;
918.9000;0.6659;0.5728;
919.2000;0.6699;0.5875;
919.5000;0.6699;0.5802;
919.8000;0.6683;0.5704;
920.1000;0.6716;0.5753;
920.4000;0.6691;0.5753;
920.7000;0.6699;0.5680;
921.0000;0.6724;0.5728;
921.3000;0.6707;0.5802;
921.6000;0.6707;0.5802;
921.9000;0.6707;0.5826;
922.2000;0.6683;0.5875;
922.5000;0.6699;0.5875;
922.8000;0.6707;0.5924;
923.1000;0.6683;0.6021;
923.4000;0.6683;0.5948;
923.7000;0.6699;0.5899;
924.0000;0.6683;0.5899;
924.3000;0.6740;0.6167;
924.6000;0.6707;0.6070;
924.9000;0.6691;0.6045;
925.2000;0.6683;0.5997;
925.5000;0.6675;0.5924;
925.8000;0.6691;0.5899;
926.1000;0.6691;0.5972;
926.4000;0.6707;0.5997;
926.7000;0.6683;0.5997;
927.0000;0.6683;0.5972;
927.3000;0.6675;0.5875;
927.6000;0.6683;0.5826;
927.9000;0.6740;0.5899;
928.2000;0.6683;0.5753;
928.5000;0.6675;0.5826;
928.8000;0.6699;0.5826;
929.1000;0.6675;0.5924;
929.4000;0.6667;0.5899;
929.7000;0.6732;0.5997;
930.0000;0.6699;0.5948;
930.3000;0.6675;0.6021;
930.6000;0.6675;0.5924;
930.9000;0.6691;0.5875;
931.2000;0.6691;0.5850;
931.5000;0.6691;0.5777;
931.8000;0.6756;0.6021;
932.1000;0.6691;0.5802;
932.4000;0.6642;0.5704;
932.7000;0.6707;0.5802;
933.0000;0.6683;0.5850;
933.3000;0.6756;0.6021;
933.6000;0.6683;0.5875;
933.9000;0.6667;0.5777;
934.2000;0.6650;0.5753;
934.5000;0.6683;0.5850;
934.8000;0.6602;0.5704;
935.1000;0.6691;0.5924;
935.4000;0.6683;0.5924;
935.7000;0.6675;0.5850;
936.0000;0.6683;0.5948;
936.3000;0.6683;0.5899;
936.6000;0.6699;0.5997;
936.9000;0.6675;0.5777;
937.2000;0.6691;0.5777;
937.5000;0.6675;0.5704;
937.8000;0.6699;0.5777;
938.1000;0.6683;0.5704;
938.4000;0.6691;0.5802;
938.7000;0.6707;0.5875;
939.0000;0.6667;0.5728;
939.3000;0.6691;0.5680;
939.6000;0.6667;0.5704;
939.9000;0.6675;0.5704;
940.2000;0.6683;0.5753;
940.5000;0.6756;0.5924;
940.8000;0.6667;0.5777;
941.1000;0.6675;0.5850;
941.4000;0.6691;0.5850;
941.7000;0.6756;0.6070;
942.0000;0.6659;0.5826;
942.3000;0.6683;0.5875;
942.6000;0.6699;0.5826;
942.9000;0.6683;0.5875;
943.2000;0.6675;0.5777;
943.5000;0.6683;0.5826;
943.8000;0.6683;0.5875;
944.1000;0.6683;0.5875;
944.4000;0.6683;0.5972;
944.7000;0.6683;0.5972;
945.0000;0.6707;0.6119;
945.3000;0.6707;0.6240;
945.6000;0.6675;0.6167;
945.9000;0.6691;0.6192;
946.2000;0.6691;0.6070;
946.5000;0.6691;0.6070;
946.8000;0.6691;0.5997;
947.1000;0.6691;0.5972;
947.4000;0.6659;0.5875;
947.7000;0.6748;0.6143;
948.0000;0.6699;0.5948;
948.3000;0.6683;0.5899;
948.6000;0.6683;0.5875;
948.9000;0.6602;0.5753;
949.2000;0.6683;0.5899;
949.5000;0.6650;0.5875;
949.8000;0.6667;0.5802;
950.1000;0.6675;0.5753;
950.4000;0.6683;0.5704;
950.7000;0.6667;0.5728;
951.0000;0.6610;0.5607;
951.3000;0.6691;0.5850;
951.6000;0.6683;0.5899;
951.9000;0.6781;0.6216;
952.2000;0.6724;0.6070;
952.5000;0.6675;0.5899;
952.8000;0.6675;0.5997;
953.1000;0.6675;0.5972;
953.4000;0.6659;0.5802;
953.7000;0.6707;0.5899;
954.0000;0.6683;0.5924;
954.3000;0.6675;0.5948;
954.6000;0.6675;0.5972;
954.9000;0.6675;0.5997;
955.2000;0.6699;0.6045;
955.5000;0.6699;0.6070;
955.8000;0.6675;0.6070;
956.1000;0.6683;0.6070;
956.4000;0.6675;0.6094;
956.7000;0.6699;0.6119;
957.0000;0.6683;0.6094;
957.3000;0.6740;0.6240;
957.6000;0.6699;0.6094;
957.9000;0.6691;0.6045;
958.2000;0.6675;0.6045;
958.5000;0.6691;0.6045;
958.8000;0.6683;0.6021;
959.1000;0.6691;0.5972;
959.4000;0.6675;0.5826;
959.7000;0.6667;0.5728;
960.0000;0.6691;0.5826;
960.3000;0.6675;0.5826;
960.6000;0.6699;0.5826;
960.9000;0.6716;0.5924;
961.2000;0.6683;0.5850;
961.5000;0.6691;0.5850;
961.8000;0.6691;0.5802;
962.1000;0.6683;0.5802;
962.4000;0.6683;0.5753;
962.7000;0.6691;0.5728;
963.0000;0.6707;0.5802;
963.3000;0.6699;0.5826;
963.6000;0.6667;0.5850;
963.9000;0.6683;0.5850;
964.2000;0.6675;0.5875;
964.5000;0.6675;0.5924;
964.8000;0.6675;0.5875;
965.1000;0.6699;0.5924;
965.4000;0.6691;0.5948;
965.7000;0.6707;0.5924;
966.0000;0.6699;0.5997;
966.3000;0.6716;0.6070;
966.6000;0.6691;0.5972;
966.9000;0.6683;0.5948;
967.2000;0.6683;0.5924;
967.5000;0.6691;0.5850;
967.8000;0.6683;0.5924;
968.1000;0.6675;0.5972;
968.4000;0.6691;0.6045;
968.7000;0.6683;0.5972;
969.0000;0.6585;0.5753;
969.3000;0.6691;0.5972;
969.6000;0.6691;0.5924;
969.9000;0.6683;0.5777;
970.2000;0.6650;0.5728;
970.5000;0.6667;0.5826;
970.8000;0.6691;0.5997;
971.1000;0.6683;0.6094;
971.4000;0.6683;0.5997;
971.7000;0.6699;0.5972;
972.0000;0.6748;0.5997;
972.3000;0.6667;0.5753;
972.6000;0.6675;0.5728;
972.9000;0.6683;0.5753;
973.2000;0.6691;0.5802;
973.5000;0.6675;0.5680;
973.8000;0.6675;0.5704;
974.1000;0.6764;0.5948;
974.4000;0.6748;0.5948;
974.7000;0.6683;0.5753;
975.0000;0.6707;0.5899;
975.3000;0.6659;0.5850;
975.6000;0.6781;0.6094;
975.9000;0.6626;0.5728;
976.2000;0.6691;0.5850;
976.5000;0.6691;0.5826;
976.8000;0.6683;0.5704;
977.1000;0.6683;0.5728;
977.4000;0.6683;0.5777;
977.7000;0.6667;0.5753;
978.0000;0.6642;0.5802;
978.3000;0.6699;0.5850;
978.6000;0.6675;0.5777;
978.9000;0.6667;0.5777;
979.2000;0.6691;0.5777;
979.5000;0.6699;0.5850;
979.8000;0.6732;0.5924;
980.1000;0.6699;0.5753;
980.4000;0.6683;0.5680;
980.7000;0.6691;0.5802;
981.0000;0.6683;0.5802;
981.3000;0.6691;0.5924;
981.6000;0.6699;0.5948;
981.9000;0.6691;0.5875;
982.2000;0.6691;0.5972;
982.5000;0.6691;0.5948;
982.8000;0.6675;0.5972;
983.1000;0.6683;0.5972;
983.4000;0.6699;0.5997;
983.7000;0.6659;0.5948;
984.0000;0.6683;0.5997;
984.3000;0.6667;0.6021;
984.6000;0.6707;0.6143;
984.9000;0.6675;0.6021;
985.2000;0.6675;0.6119;
985.5000;0.6675;0.6143;
985.8000;0.6675;0.6021;
986.1000;0.6683;0.6021;
986.4000;0.6667;0.6021;
986.7000;0.6683;0.6070;
987.0000;0.6691;0.6021;
987.3000;0.6699;0.5972;
987.6000;0.6683;0.5948;
987.9000;0.6667;0.5948;
988.2000;0.6634;0.5875;
988.5000;0.6683;0.6021;
988.8000;0.6716;0.6070;
989.1000;0.6683;0.5875;
989.4000;0.6667;0.5997;
989.7000;0.6667;0.6094;
990.0000;0.6756;0.6362;
990.3000;0.6667;0.6143;
990.6000;0.6691;0.6167;
990.9000;0.6699;0.6192;
991.2000;0.6707;0.6143;
991.5000;0.6724;0.6119;
991.8000;0.6699;0.6021;
992.1000;0.6691;0.6119;
992.4000;0.6797;0.6338;
992.7000;0.6699;0.5997;
993.0000;0.6772;0.6167;
993.3000;0.6675;0.5802;
993.6000;0.6699;0.5924;
993.9000;0.6675;0.5826;
994.2000;0.6691;0.5899;
994.5000;0.6691;0.5924;
994.8000;0.6675;0.5826;
995.1000;0.6659;0.5802;
995.4000;0.6618;0.5680;
995.7000;0.6699;0.5802;
996.0000;0.6724;0.5899;
996.3000;0.6675;0.5826;
996.6000;0.6683;0.5826;
996.9000;0.6691;0.5899;
997.2000;0.6667;0.5899;
997.5000;0.6667;0.5997;
997.8000;0.6683;0.5997;
998.1000;0.6699;0.5924;
998.4000;0.6610;0.5728;
998.7000;0.6675;0.5802;
999.0000;0.6707;0.5972;
999.3000;0.6691;0.5924;
999.6000;0.6707;0.6021;
999.9000;0.6667;0.5948;
1000.2000;0.6699;0.6045;
1000.5000;0.6626;0.5899;
1000.8000;0.6683;0.6021;
1001.1000;0.6691;0.5997;
1001.4000;0.6691;0.5972;
1001.7000;0.6683;0.5972;
1002.0000;0.6683;0.5924;
1002.3000;0.6691;0.5948;
1002.6000;0.6691;0.6021;
1002.9000;0.6691;0.5972;
1003.2000;0.6683;0.5948;
1003.5000;0.6683;0.5997;
1003.8000;0.6691;0.6021;
1004.1000;0.6691;0.6021;
1004.4000;0.6667;0.5972;
1004.7000;0.6691;0.5948;
1005.0000;0.6683;0.5972;
1005.3000;0.6626;0.5948;
1005.6000;0.6675;0.6119;
1005.9000;0.6699;0.6094;
1006.2000;0.6683;0.6021;
1006.5000;0.6691;0.6119;
1006.8000;0.6675;0.6119;
1007.1000;0.6659;0.6094;
1007.4000;0.6683;0.6216;
1007.7000;0.6683;0.6167;
1008.0000;0.6691;0.6192;
1008.3000;0.6675;0.6094;
1008.6000;0.6683;0.6070;
1008.9000;0.6699;0.6070;
1009.2000;0.6691;0.6070;
1009.5000;0.6683;0.6021;
1009.8000;0.6642;0.5972;
1010.1000;0.6691;0.5997;
1010.4000;0.6683;0.5924;
1010.7000;0.6691;0.5924;
1011.0000;0.6634;0.5753;
1011.3000;0.6699;0.5899;
1011.6000;0.6683;0.5875;
1011.9000;0.6675;0.5875;
1012.2000;0.6716;0.6045;
1012.5000;0.6675;0.5997;
1012.8000;0.6691;0.5997;
1013.1000;0.6707;0.5997;
1013.4000;0.6691;0.6045;
1013.7000;0.6707;0.6070;
1014.0000;0.6740;0.6167;
1014.3000;0.6699;0.6070;
1014.6000;0.6683;0.5997;
1014.9000;0.6691;0.6045;
1015.2000;0.6691;0.5972;
1015.5000;0.6691;0.5924;
1015.8000;0.6691;0.5899;
1016.1000;0.6675;0.5850;
1016.4000;0.6691;0.5924;
1016.7000;0.6707;0.5972;
1017.0000;0.6675;0.5899;
1017.3000;0.6675;0.5948;
1017.6000;0.6683;0.5997;
1017.9000;0.6691;0.5997;
1018.2000;0.6683;0.5997;
1018.5000;0.6691;0.5997;
1018.8000;0.6707;0.5948;
1019.1000;0.6732;0.5924;
1019.4000;0.6675;0.5753;
1019.7000;0.6667;0.5826;
1020.0000;0.6675;0.5826;
1020.3000;0.6659;0.5850;
1020.6000;0.6683;0.6119;
1020.9000;0.6675;0.6094;
1021.2000;0.6642;0.5997;
1021.5000;0.6675;0.6094;
1021.8000;0.6634;0.6070;
1022.1000;0.6683;0.6167;
1022.4000;0.6675;0.6119;
1022.7000;0.6667;0.6119;
1023.0000;0.6683;0.6167;
1023.3000;0.6691;0.6216;
1023.6000;0.6675;0.6192;
1023.9000;0.6659;0.6192;
1024.2000;0.6683;0.6143;
1024.5000;0.6667;0.6021;
1024.8000;0.6707;0.6119;
1025.1000;0.6675;0.6045;
1025.4000;0.6683;0.6070;
1025.7000;0.6683;0.5997;
1026.0000;0.6683;0.6045;
1026.3000;0.6626;0.5875;
1026.6000;0.6707;0.6143;
1026.9000;0.6667;0.6070;
1027.2000;0.6691;0.6045;
1027.5000;0.6691;0.6021;
1027.8000;0.6675;0.5997;
1028.1000;0.6683;0.6021;
1028.4000;0.6683;0.5997;
1028.7000;0.6650;0.5924;
1029.0000;0.6675;0.5948;
1029.3000;0.6593;0.5655;
1029.6000;0.6675;0.5826;
1029.9000;0.6634;0.5777;
1030.2000;0.6659;0.5826;
1030.5000;0.6683;0.5924;
1030.8000;0.6659;0.5924;
1031.1000;0.6683;0.6045;
1031.4000;0.6667;0.6045;
1031.7000;0.6691;0.5997;
1032.0000;0.6683;0.5972;
1032.3000;0.6650;0.5899;
1032.6000;0.6610;0.5875;
1032.9000;0.6675;0.5997;
1033.2000;0.6659;0.5826;
1033.5000;0.6691;0.5972;
1033.8000;0.6593;0.5777;
1034.1000;0.6691;0.5924;
1034.4000;0.6667;0.5948;
1034.7000;0.6683;0.6070;
1035.0000;0.6675;0.6021;
1035.3000;0.6683;0.5972;
1035.6000;0.6699;0.5997;
1035.9000;0.6683;0.5924;
1036.2000;0.6577;0.5655;
1036.5000;0.6642;0.5850;
1036.8000;0.6683;0.5972;
1037.1000;0.6683;0.5972;
1037.4000;0.6667;0.5972;
1037.7000;0.6675;0.6021;
1038.0000;0.6683;0.5972;
1038.3000;0.6667;0.5826;
1038.6000;0.6667;0.5826;
1038.9000;0.6659;0.5753;
1039.2000;0.6675;0.5728;
1039.5000;0.6650;0.5728;
1039.8000;0.6675;0.5777;
1040.1000;0.6691;0.5899;
1040.4000;0.6659;0.5850;
1040.7000;0.6667;0.5899;
1041.0000;0.6642;0.5850;
1041.3000;0.6667;0.5924;
1041.6000;0.6659;0.5899;
1041.9000;0.6691;0.6070;
1042.2000;0.6650;0.5972;
1042.5000;0.6683;0.5972;
1042.8000;0.6691;0.6045;
1043.1000;0.6683;0.5997;
1043.4000;0.6675;0.5924;
1043.7000;0.6675;0.5924;
1044.0000;0.6691;0.5972;
1044.3000;0.6683;0.5826;
1044.6000;0.6699;0.5899;
1044.9000;0.6691;0.5924;
1045.2000;0.6781;0.6240;
1045.5000;0.6667;0.5899;
1045.8000;0.6691;0.5899;
1046.1000;0.6667;0.5802;
1046.4000;0.6675;0.5777;
1046.7000;0.6772;0.6021;
1047.0000;0.6675;0.5753;
1047.3000;0.6659;0.5826;
1047.6000;0.6683;0.5875;
1047.9000;0.6683;0.5826;
1048.2000;0.6659;0.5802;
1048.5000;0.6675;0.5850;
1048.8000;0.6667;0.5899;
1049.1000;0.6675;0.5948;
1049.4000;0.6707;0.6143;
1049.7000;0.6691;0.6070;
1050.0000;0.6659;0.6070;
1050.3000;0.6716;0.6216;
1050.6000;0.6707;0.6192;
1050.9000;0.6691;0.6216;
1051.2000;0.6707;0.6265;
1051.5000;0.6683;0.6216;
1051.8000;0.6699;0.6216;
1052.1000;0.6699;0.6338;
1052.4000;0.6699;0.6362;
1052.7000;0.6691;0.6362;
1053.0000;0.6691;0.6387;
1053.3000;0.6634;0.6265;
1053.6000;0.6683;0.6314;
1053.9000;0.6683;0.6314;
1054.2000;0.6675;0.6362;
1054.5000;0.6675;0.6289;
1054.8000;0.6707;0.6338;
1055.1000;0.6699;0.6289;
1055.4000;0.6667;0.6167;
1055.7000;0.6650;0.6119;
1056.0000;0.6699;0.6289;
1056.3000;0.6659;0.6143;
1056.6000;0.6675;0.6094;
1056.9000;0.6683;0.6119;
1057.2000;0.6699;0.6045;
1057.5000;0.6699;0.6143;
1057.8000;0.6667;0.5972;
1058.1000;0.6683;0.5924;
1058.4000;0.6683;0.5948;
1058.7000;0.6675;0.5924;
1059.0000;0.6634;0.5826;
1059.3000;0.6659;0.5875;
1059.6000;0.6683;0.5924;
1059.9000;0.6642;0.5924;
1060.2000;0.6675;0.5972;
1060.5000;0.6675;0.5972;
1060.8000;0.6683;0.6045;
1061.1000;0.6683;0.6094;
1061.4000;0.6683;0.6045;
1061.7000;0.6610;0.5899;
1062.0000;0.6691;0.6070;
1062.3000;0.6691;0.6094;
1062.6000;0.6683;0.6119;
1062.9000;0.6667;0.6143;
1063.2000;0.6699;0.6143;
1063.5000;0.6683;0.6045;
1063.8000;0.6593;0.5802;
1064.1000;0.6642;0.5924;
1064.4000;0.6683;0.5972;
1064.7000;0.6667;0.5948;
1065.0000;0.6683;0.6021;
1065.3000;0.6675;0.6021;
1065.6000;0.6675;0.5924;
1065.9000;0.6691;0.5948;
1066.2000;0.6593;0.5753;
1066.5000;0.6691;0.6045;
1066.8000;0.6699;0.5948;
1067.1000;0.6626;0.5728;
1067.4000;0.6724;0.6045;
1067.7000;0.6667;0.5924;
1068.0000;0.6667;0.5924;
1068.3000;0.6610;0.5875;
1068.6000;0.6626;0.5850;
1068.9000;0.6716;0.6119;
1069.2000;0.6642;0.5972;
1069.5000;0.6724;0.6045;
1069.8000;0.6691;0.5826;
1070.1000;0.6667;0.5704;
1070.4000;0.6675;0.5680;
1070.7000;0.6659;0.5680;
1071.0000;0.6683;0.5728;
1071.3000;0.6577;0.5582;
1071.6000;0.6683;0.5875;
1071.9000;0.6667;0.5875;
1072.2000;0.6659;0.5899;
1072.5000;0.6667;0.5948;
1072.8000;0.6683;0.5924;
1073.1000;0.6675;0.5972;
1073.4000;0.6683;0.5997;
1073.7000;0.6691;0.6021;
1074.0000;0.6699;0.6045;
1074.3000;0.6691;0.5997;
1074.6000;0.6659;0.5924;
1074.9000;0.6675;0.6119;
1075.2000;0.6642;0.6021;
1075.5000;0.6675;0.5997;
1075.8000;0.6675;0.5997;
1076.1000;0.6699;0.6045;
1076.4000;0.6691;0.5997;
1076.7000;0.6634;0.5924;
1077.0000;0.6691;0.6119;
1077.3000;0.6683;0.6045;
1077.6000;0.6634;0.5972;
1077.9000;0.6667;0.6021;
1078.2000;0.6675;0.5972;
1078.5000;0.6675;0.5924;
1078.8000;0.6667;0.5826;
1079.1000;0.6683;0.5826;
1079.4000;0.6667;0.5875;
1079.7000;0.6675;0.5899;
1080.0000;0.6675;0.5924;
1080.3000;0.6659;0.5850;
1080.6000;0.6626;0.5753;
1080.9000;0.6610;0.5582;
1081.2000;0.6650;0.5704;
1081.5000;0.6683;0.5826;
1081.8000;0.6707;0.5972;
1082.1000;0.6634;0.5875;
1082.4000;0.6683;0.5997;
1082.7000;0.6683;0.6045;
1083.0000;0.6683;0.6045;
1083.3000;0.6683;0.6021;
1083.6000;0.6675;0.5972;
1083.9000;0.6659;0.5875;
1084.2000;0.6683;0.5997;
1084.5000;0.6675;0.5972;
1084.8000;0.6707;0.5997;
1085.1000;0.6683;0.5899;
1085.4000;0.6675;0.5899;
1085.7000;0.6683;0.5899;
1086.0000;0.6675;0.5850;
1086.3000;0.6699;0.5899;
1086.6000;0.6675;0.5850;
1086.9000;0.6659;0.5850;
1087.2000;0.6675;0.5826;
1087.5000;0.6724;0.5997;
1087.8000;0.6683;0.5899;
1088.1000;0.6675;0.5948;
1088.4000;0.6659;0.5924;
1088.7000;0.6667;0.5972;
1089.0000;0.6667;0.5948;
1089.3000;0.6683;0.5972;
1089.6000;0.6512;0.5533;
1089.9000;0.6650;0.5875;
1090.2000;0.6642;0.5924;
1090.5000;0.6683;0.6021;
1090.8000;0.6724;0.6094;
1091.1000;0.6642;0.5826;
1091.4000;0.6520;0.5582;
1091.7000;0.6683;0.6045;
1092.0000;0.6691;0.6021;
1092.3000;0.6724;0.6045;
1092.6000;0.6675;0.5972;
1092.9000;0.6707;0.6021;
1093.2000;0.6675;0.6021;
1093.5000;0.6569;0.5802;
1093.8000;0.6675;0.6021;
1094.1000;0.6683;0.6021;
1094.4000;0.6675;0.5875;
1094.7000;0.6675;0.5802;
1095.0000;0.6691;0.5826;
1095.3000;0.6667;0.5875;
1095.6000;0.6691;0.5972;
1095.9000;0.6659;0.5948;
1096.2000;0.6659;0.5972;
1096.5000;0.6691;0.6021;
1096.8000;0.6659;0.5948;
1097.1000;0.6667;0.5924;
1097.4000;0.6667;0.6094;
1097.7000;0.6675;0.6094;
1098.0000;0.6667;0.5997;
1098.3000;0.6634;0.5924;
1098.6000;0.6675;0.6045;
1098.9000;0.6667;0.6045;
1099.2000;0.6691;0.6094;
1099.5000;0.6683;0.6021;
1099.8000;0.6691;0.6094;
1100.1000;0.6699;0.6167;
1100.4000;0.6675;0.6167;
1100.7000;0.6683;0.6265;
1101.0000;0.6675;0.6216;
1101.3000;0.6667;0.6143;
1101.6000;0.6675;0.6070;
1101.9000;0.6659;0.6045;
1102.2000;0.6683;0.6167;
1102.5000;0.6675;0.6045;
1102.8000;0.6675;0.6021;
1103.1000;0.6707;0.5972;
1103.4000;0.6659;0.5899;
1103.7000;0.6683;0.5948;
1104.0000;0.6724;0.6021;
1104.3000;0.6675;0.5899;
1104.6000;0.6667;0.5850;
1104.9000;0.6683;0.6021;
1105.2000;0.6642;0.5997;
1105.5000;0.6634;0.5972;
1105.8000;0.6667;0.5997;
1106.1000;0.6683;0.6021;
1106.4000;0.6667;0.5899;
1106.7000;0.6675;0.5875;
1107.0000;0.6634;0.5850;
1107.3000;0.6691;0.5948;
1107.6000;0.6691;0.5924;
1107.9000;0.6659;0.5899;
1108.2000;0.6675;0.5997;
1108.5000;0.6675;0.5948;
1108.8000;0.6602;0.5777;
1109.1000;0.6618;0.5826;
1109.4000;0.6642;0.5875;
1109.7000;0.6659;0.5826;
1110.0000;0.6691;0.5899;
1110.3000;0.6667;0.5777;
1110.6000;0.6650;0.5826;
1110.9000;0.6675;0.5850;
1111.2000;0.6683;0.5753;
1111.5000;0.6634;0.5728;
1111.8000;0.6667;0.5802;
1112.1000;0.6667;0.5850;
1112.4000;0.6667;0.5850;
1112.7000;0.6707;0.5802;
1113.0000;0.6683;0.5802;
1113.3000;0.6691;0.5899;
1113.6000;0.6659;0.5802;
1113.9000;0.6667;0.5753;
1114.2000;0.6683;0.5850;
1114.5000;0.6691;0.5875;
1114.8000;0.6699;0.5899;
1115.1000;0.6659;0.5899;
1115.4000;0.6626;0.5875;
1115.7000;0.6691;0.5948;
1116.0000;0.6740;0.6119;
1116.3000;0.6667;0.5972;
1116.6000;0.6691;0.6021;
1116.9000;0.6699;0.5997;
1117.2000;0.6781;0.6314;
1117.5000;0.6691;0.6143;
1117.8000;0.6667;0.6143;
1118.1000;0.6675;0.6070;
1118.4000;0.6699;0.6094;
1118.7000;0.6667;0.5924;
1119.0000;0.6675;0.5972;
1119.3000;0.6667;0.5924;
1119.6000;0.6683;0.5875;
1119.9000;0.6667;0.5802;
1120.2000;0.6667;0.5850;
1120.5000;0.6675;0.5924;
1120.8000;0.6699;0.5948;
1121.1000;0.6667;0.5850;
1121.4000;0.6707;0.5924;
1121.7000;0.6659;0.5875;
1122.0000;0.6691;0.5948;
1122.3000;0.6683;0.5948;
1122.6000;0.6683;0.5948;
1122.9000;0.6691;0.5948;
1123.2000;0.6675;0.6045;
1123.5000;0.6691;0.6021;
1123.8000;0.6691;0.6119;
1124.1000;0.6683;0.6167;
1124.4000;0.6683;0.6045;
1124.7000;0.6691;0.6070;
1125.0000;0.6650;0.5924;
1125.3000;0.6732;0.6070;
1125.6000;0.6667;0.5924;
1125.9000;0.6691;0.6070;
1126.2000;0.6675;0.6021;
1126.5000;0.6659;0.5972;
1126.8000;0.6675;0.6021;
1127.1000;0.6691;0.6070;
1127.4000;0.6675;0.5924;
1127.7000;0.6675;0.5997;
1128.0000;0.6732;0.6119;
1128.3000;0.6683;0.6119;
1128.6000;0.6675;0.6167;
1128.9000;0.6667;0.6094;
1129.2000;0.6691;0.6070;
1129.5000;0.6675;0.5972;
1129.8000;0.6691;0.5972;
1130.1000;0.6691;0.5948;
1130.4000;0.6675;0.5850;
1130.7000;0.6683;0.5728;
1131.0000;0.6748;0.5899;
1131.3000;0.6691;0.5704;
1131.6000;0.6691;0.5728;
1131.9000;0.6699;0.5728;
1132.2000;0.6683;0.5777;
1132.5000;0.6675;0.5777;
1132.8000;0.6659;0.5728;
1133.1000;0.6602;0.5655;
1133.4000;0.6667;0.5850;
1133.7000;0.6699;0.5899;
1134.0000;0.6667;0.5850;
1134.3000;0.6659;0.5899;
1134.6000;0.6699;0.6021;
1134.9000;0.6691;0.5997;
1135.2000;0.6691;0.5924;
1135.5000;0.6683;0.5948;
1135.8000;0.6683;0.5972;
1136.1000;0.6675;0.5850;
1136.4000;0.6675;0.5826;
1136.7000;0.6683;0.5802;
1137.0000;0.6675;0.5875;
1137.3000;0.6675;0.5875;
1137.6000;0.6740;0.6119;
1137.9000;0.6667;0.6070;
1138.2000;0.6675;0.6094;
1138.5000;0.6675;0.6045;
1138.8000;0.6691;0.5997;
1139.1000;0.6675;0.6021;
1139.4000;0.6675;0.6070;
1139.7000;0.6659;0.6094;
1140.0000;0.6675;0.6045;
1140.3000;0.6667;0.5899;
1140.6000;0.6683;0.5850;
1140.9000;0.6667;0.5777;
1141.2000;0.6675;0.5704;
1141.5000;0.6667;0.5753;
1141.8000;0.6683;0.5826;
1142.1000;0.6683;0.5899;
1142.4000;0.6691;0.6070;
1142.7000;0.6707;0.6094;
1143.0000;0.6675;0.5924;
1143.3000;0.6667;0.5924;
1143.6000;0.6667;0.5972;
1143.9000;0.6699;0.5997;
1144.2000;0.6675;0.5972;
1144.5000;0.6675;0.5972;
1144.8000;0.6683;0.5997;
1145.1000;0.6618;0.5875;
1145.4000;0.6707;0.6070;
1145.7000;0.6675;0.6021;
1146.0000;0.6691;0.6045;
1146.3000;0.6650;0.5948;
1146.6000;0.6659;0.5972;
1146.9000;0.6667;0.6021;
1147.2000;0.6683;0.5972;
1147.5000;0.6683;0.5948;
1147.8000;0.6707;0.6045;
1148.1000;0.6642;0.5899;
1148.4000;0.6675;0.6070;
1148.7000;0.6650;0.6021;
1149.0000;0.6675;0.6094;
1149.3000;0.6691;0.6167;
1149.6000;0.6675;0.6119;
1149.9000;0.6691;0.6094;
1150.2000;0.6667;0.5997;
1150.5000;0.6650;0.5948;
1150.8000;0.6650;0.5850;
1151.1000;0.6707;0.5875;
1151.4000;0.6683;0.5753;
1151.7000;0.6659;0.5753;
1152.0000;0.6683;0.5777;
1152.3000;0.6667;0.5802;
1152.6000;0.6659;0.5753;
1152.9000;0.6659;0.5850;
1153.2000;0.6675;0.5948;
1153.5000;0.6667;0.6021;
1153.8000;0.6683;0.5972;
1154.1000;0.6610;0.5875;
1154.4000;0.6667;0.5997;
1154.7000;0.6659;0.6021;
1155.0000;0.6667;0.6045;
1155.3000;0.6667;0.6021;
1155.6000;0.6659;0.5972;
1155.9000;0.6634;0.5899;
1156.2000;0.6667;0.5997;
1156.5000;0.6667;0.6021;
1156.8000;0.6691;0.5948;
1157.1000;0.6699;0.5997;
1157.4000;0.6667;0.5875;
1157.7000;0.6716;0.5899;
1158.0000;0.6691;0.5753;
1158.3000;0.6675;0.5753;
1158.6000;0.6667;0.5753;
1158.9000;0.6691;0.5826;
1159.2000;0.6675;0.5875;
1159.5000;0.6667;0.5899;
1159.8000;0.6683;0.5826;
1160.1000;0.6683;0.5850;
1160.4000;0.6675;0.5826;
1160.7000;0.6675;0.5924;
1161.0000;0.6675;0.5924;
1161.3000;0.6659;0.5899;
1161.6000;0.6683;0.5972;
1161.9000;0.6691;0.6021;
1162.2000;0.6683;0.6070;
1162.5000;0.6675;0.6143;
1162.8000;0.6667;0.6216;
1163.1000;0.6724;0.6289;
1163.4000;0.6650;0.6070;
1163.7000;0.6683;0.6167;
1164.0000;0.6675;0.6143;
1164.3000;0.6667;0.6192;
1164.6000;0.6667;0.6192;
1164.9000;0.6577;0.5899;
1165.2000;0.6683;0.6070;
1165.5000;0.6675;0.6070;
1165.8000;0.6650;0.5997;
1166.1000;0.6659;0.6045;
1166.4000;0.6618;0.5924;
1166.7000;0.6675;0.6192;
1167.0000;0.6683;0.6192;
1167.3000;0.6626;0.5972;
1167.6000;0.6683;0.6070;
1167.9000;0.6675;0.6045;
1168.2000;0.6683;0.6094;
1168.5000;0.6699;0.6119;
1168.8000;0.6659;0.6143;
1169.1000;0.6699;0.6216;
1169.4000;0.6699;0.6192;
1169.7000;0.6683;0.6143;
1170.0000;0.6667;0.6143;
1170.3000;0.6667;0.6143;
1170.6000;0.6675;0.6192;
1170.9000;0.6675;0.6167;
1171.2000;0.6642;0.6192;
1171.5000;0.6683;0.6265;
1171.8000;0.6683;0.6216;
1172.1000;0.6683;0.6192;
1172.4000;0.6650;0.5972;
1172.7000;0.6667;0.5948;
1173.0000;0.6699;0.5972;
1173.3000;0.6691;0.5997;
1173.6000;0.6699;0.6021;
1173.9000;0.6642;0.5899;
1174.2000;0.6675;0.5997;
1174.5000;0.6675;0.5948;
1174.8000;0.6659;0.5924;
1175.1000;0.6683;0.6119;
1175.4000;0.6683;0.6021;
1175.7000;0.6691;0.6070;
1176.0000;0.6602;0.5826;
1176.3000;0.6667;0.6021;
1176.6000;0.6634;0.5924;
1176.9000;0.6683;0.6094;
1177.2000;0.6650;0.6070;
1177.5000;0.6675;0.6094;
1177.8000;0.6675;0.6143;
1178.1000;0.6683;0.6070;
1178.4000;0.6659;0.5948;
1178.7000;0.6683;0.6119;
1179.0000;0.6699;0.6216;
1179.3000;0.6650;0.6119;
1179.6000;0.6675;0.6094;
1179.9000;0.6691;0.6143;
1180.2000;0.6667;0.6119;
1180.5000;0.6699;0.6192;
1180.8000;0.6675;0.6094;
1181.1000;0.6675;0.6119;
1181.4000;0.6699;0.6167;
1181.7000;0.6716;0.6143;
1182.0000;0.6748;0.6094;
1182.3000;0.6667;0.5924;
1182.6000;0.6675;0.5924;
1182.9000;0.6764;0.6216;
1183.2000;0.6699;0.6070;
1183.5000;0.6667;0.6094;
1183.8000;0.6683;0.6070;
1184.1000;0.6642;0.5948;
1184.4000;0.6691;0.5948;
1184.7000;0.6675;0.5972;
1185.0000;0.6642;0.5899;
1185.3000;0.6675;0.6070;
1185.6000;0.6716;0.6265;
1185.9000;0.6699;0.6216;
1186.2000;0.6659;0.6045;
1186.5000;0.6683;0.6045;
1186.8000;0.6675;0.5948;
1187.1000;0.6683;0.5972;
1187.4000;0.6724;0.6070;
1187.7000;0.6683;0.5948;
1188.0000;0.6707;0.6021;
1188.3000;0.6691;0.5997;
1188.6000;0.6756;0.6143;
1188.9000;0.6781;0.6240;
1189.2000;0.6593;0.5899;
1189.5000;0.6683;0.6070;
1189.8000;0.6683;0.6045;
1190.1000;0.6691;0.6119;
1190.4000;0.6659;0.6021;
1190.7000;0.6667;0.6021;
1191.0000;0.6667;0.6094;
1191.3000;0.6610;0.5850;
1191.6000;0.6675;0.6021;
1191.9000;0.6675;0.6021;
1192.2000;0.6642;0.5972;
1192.5000;0.6675;0.6045;
1192.8000;0.6683;0.6045;
1193.1000;0.6667;0.5972;
1193.4000;0.6650;0.5948;
1193.7000;0.6699;0.6021;
1194.0000;0.6683;0.5972;
1194.3000;0.6691;0.5948;
1194.6000;0.6667;0.5899;
1194.9000;0.6659;0.5875;
1195.2000;0.6667;0.5899;
1195.5000;0.6675;0.5899;
1195.8000;0.6675;0.5826;
1196.1000;0.6683;0.5802;
1196.4000;0.6659;0.5802;
1196.7000;0.6659;0.5802;
1197.0000;0.6667;0.5802;
1197.3000;0.6675;0.5704;
1197.6000;0.6618;0.5728;
1197.9000;0.6675;0.5924;
1198.2000;0.6626;0.5850;
1198.5000;0.6691;0.5972;
1198.8000;0.6683;0.5972;
1199.1000;0.6675;0.5997;
1199.4000;0.6675;0.5948;
1199.7000;0.6618;0.5802;
1200.0000;0.6756;0.6143;
1200.3000;0.6675;0.5972;
1200.6000;0.6683;0.6070;
1200.9000;0.6650;0.6021;
1201.2000;0.6732;0.6167;
1201.5000;0.6659;0.6094;
1201.8000;0.6659;0.6119;
1202.1000;0.6683;0.6192;
1202.4000;0.6699;0.6094;
1202.7000;0.6675;0.5997;
1203.0000;0.6642;0.5899;
1203.3000;0.6707;0.6045;
1203.6000;0.6699;0.6070;
1203.9000;0.6764;0.6094;
1204.2000;0.6691;0.5899;
1204.5000;0.6724;0.6021;
1204.8000;0.6659;0.5826;
1205.1000;0.6699;0.5972;
1205.4000;0.6667;0.5997;
1205.7000;0.6716;0.6143;
1206.0000;0.6724;0.6192;
1206.3000;0.6675;0.6094;
1206.6000;0.6675;0.6045;
1206.9000;0.6642;0.5948;
1207.2000;0.6642;0.5972;
1207.5000;0.6683;0.6119;
1207.8000;0.6675;0.6070;
1208.1000;0.6618;0.5972;
1208.4000;0.6667;0.6070;
1208.7000;0.6675;0.6167;
1209.0000;0.6667;0.6314;
1209.3000;0.6602;0.6070;
1209.6000;0.6683;0.6265;
1209.9000;0.6707;0.6314;
1210.2000;0.6650;0.6240;
1210.5000;0.6707;0.6411;
1210.8000;0.6683;0.6338;
1211.1000;0.6667;0.6216;
1211.4000;0.6618;0.6045;
1211.7000;0.6675;0.6094;
1212.0000;0.6699;0.6192;
1212.3000;0.6667;0.6119;
1212.6000;0.6683;0.6070;
1212.9000;0.6667;0.6021;
1213.2000;0.6691;0.6045;
1213.5000;0.6667;0.5948;
1213.8000;0.6683;0.6070;
1214.1000;0.6675;0.5972;
1214.4000;0.6659;0.5826;
1214.7000;0.6691;0.5850;
1215.0000;0.6667;0.5972;
1215.3000;0.6642;0.5875;
1215.6000;0.6642;0.5948;
1215.9000;0.6675;0.5997;
1216.2000;0.6683;0.6045;
1216.5000;0.6675;0.6045;
1216.8000;0.6667;0.5948;
1217.1000;0.6675;0.6094;
1217.4000;0.6675;0.6070;
1217.7000;0.6691;0.6045;
1218.0000;0.6683;0.5972;
1218.3000;0.6667;0.5899;
1218.6000;0.6650;0.5899;
1218.9000;0.6683;0.5997;
1219.2000;0.6675;0.5997;
1219.5000;0.6650;0.5899;
1219.8000;0.6691;0.5972;
1220.1000;0.6675;0.6143;
1220.4000;0.6675;0.6143;
1220.7000;0.6675;0.6045;
1221.0000;0.6667;0.6094;
1221.3000;0.6683;0.6192;
1221.6000;0.6691;0.6289;
1221.9000;0.6667;0.6192;
1222.2000;0.6683;0.6143;
1222.5000;0.6691;0.6119;
1222.8000;0.6732;0.6119;
1223.1000;0.6707;0.6119;
1223.4000;0.6691;0.6094;
1223.7000;0.6691;0.6143;
1224.0000;0.6618;0.5924;
1224.3000;0.6691;0.6070;
1224.6000;0.6691;0.6094;
1224.9000;0.6756;0.6240;
1225.2000;0.6691;0.6070;
1225.5000;0.6683;0.6021;
1225.8000;0.6683;0.6119;
1226.1000;0.6675;0.6070;
1226.4000;0.6691;0.6094;
1226.7000;0.6699;0.5997;
1227.0000;0.6683;0.6021;
1227.3000;0.6707;0.6070;
1227.6000;0.6675;0.6070;
1227.9000;0.6699;0.6045;
1228.2000;0.6675;0.6094;
1228.5000;0.6683;0.6119;
1228.8000;0.6667;0.6167;
1229.1000;0.6683;0.6192;
1229.4000;0.6699;0.6265;
1229.7000;0.6650;0.6143;
1230.0000;0.6675;0.6216;
1230.3000;0.6650;0.6094;
1230.6000;0.6699;0.6143;
1230.9000;0.6683;0.6143;
1231.2000;0.6699;0.6167;
1231.5000;0.6650;0.6094;
1231.8000;0.6683;0.6192;
1232.1000;0.6667;0.6070;
1232.4000;0.6667;0.6045;
1232.7000;0.6699;0.6094;
1233.0000;0.6675;0.6070;
1233.3000;0.6683;0.6094;
1233.6000;0.6683;0.6143;
1233.9000;0.6659;0.5972;
1234.2000;0.6707;0.6119;
1234.5000;0.6602;0.5924;
1234.8000;0.6683;0.6119;
1235.1000;0.6675;0.6143;
1235.4000;0.6659;0.6094;
1235.7000;0.6659;0.6045;
1236.0000;0.6650;0.5948;
1236.3000;0.6667;0.5924;
1236.6000;0.6675;0.5826;
1236.9000;0.6675;0.5850;
1237.2000;0.6691;0.5875;
1237.5000;0.6667;0.5850;
1237.8000;0.6634;0.5850;
1238.1000;0.6675;0.5850;
1238.4000;0.6642;0.5753;
1238.7000;0.6691;0.5972;
1239.0000;0.6675;0.5997;
1239.3000;0.6667;0.5899;
1239.6000;0.6667;0.5875;
1239.9000;0.6675;0.5997;
1240.2000;0.6683;0.5997;
1240.5000;0.6667;0.5948;
1240.8000;0.6683;0.6045;
1241.1000;0.6683;0.6045;
1241.4000;0.6545;0.5753;
1241.7000;0.6683;0.6070;
1242.0000;0.6683;0.6119;
1242.3000;0.6683;0.6143;
1242.6000;0.6675;0.6021;
1242.9000;0.6691;0.6045;
1243.2000;0.6683;0.5997;
1243.5000;0.6789;0.6265;
1243.8000;0.6659;0.6094;
1244.1000;0.6642;0.5997;
1244.4000;0.6683;0.6143;
1244.7000;0.6683;0.6094;
1245.0000;0.6683;0.6167;
1245.3000;0.6683;0.6265;
1245.6000;0.6707;0.6338;
1245.9000;0.6675;0.6314;
1246.2000;0.6675;0.6265;
1246.5000;0.6667;0.6167;
1246.8000;0.6667;0.6192;
1247.1000;0.6667;0.6216;
1247.4000;0.6618;0.6094;
1247.7000;0.6667;0.6119;
1248.0000;0.6683;0.6216;
1248.3000;0.6675;0.6192;
1248.6000;0.6748;0.6387;
1248.9000;0.6683;0.6192;
1249.2000;0.6724;0.6289;
1249.5000;0.6667;0.6070;
1249.8000;0.6683;0.6167;
1250.1000;0.6691;0.6192;
1250.4000;0.6691;0.6094;
1250.7000;0.6691;0.6094;
1251.0000;0.6691;0.6094;
1251.3000;0.6667;0.6070;
1251.6000;0.6716;0.6192;
1251.9000;0.6691;0.6167;
1252.2000;0.6716;0.6289;
1252.5000;0.6675;0.6289;
1252.8000;0.6683;0.6314;
1253.1000;0.6667;0.6240;
1253.4000;0.6707;0.6216;
1253.7000;0.6691;0.6216;
1254.0000;0.6683;0.6070;
1254.3000;0.6683;0.5997;
1254.6000;0.6691;0.5948;
1254.9000;0.6675;0.5899;
1255.2000;0.6675;0.5972;
1255.5000;0.6683;0.5924;
1255.8000;0.6683;0.5997;
1256.1000;0.6675;0.5948;
1256.4000;0.6675;0.5997;
1256.7000;0.6691;0.5972;
1257.0000;0.6707;0.6094;
1257.3000;0.6626;0.5948;
1257.6000;0.6699;0.6240;
1257.9000;0.6667;0.6119;
1258.2000;0.6667;0.6167;
1258.5000;0.6667;0.6143;
1258.8000;0.6691;0.6143;
1259.1000;0.6675;0.6167;
1259.4000;0.6691;0.6070;
1259.7000;0.6683;0.6070;
1260.0000;0.6683;0.6119;
1260.3000;0.6740;0.6240;
1260.6000;0.6683;0.6094;
1260.9000;0.6667;0.5948;
1261.2000;0.6659;0.5924;
1261.5000;0.6675;0.5899;
1261.8000;0.6691;0.5948;
1262.1000;0.6683;0.5997;
1262.4000;0.6642;0.5997;
1262.7000;0.6642;0.5972;
1263.0000;0.6675;0.6021;
1263.3000;0.6716;0.6070;
1263.6000;0.6675;0.6021;
1263.9000;0.6691;0.6070;
1264.2000;0.6707;0.6143;
1264.5000;0.6691;0.6143;
1264.8000;0.6683;0.6143;
1265.1000;0.6683;0.6070;
1265.4000;0.6683;0.6045;
1265.7000;0.6675;0.6143;
1266.0000;0.6650;0.6045;
1266.3000;0.6683;0.6119;
1266.6000;0.6659;0.6045;
1266.9000;0.6683;0.6094;
1267.2000;0.6683;0.6143;
1267.5000;0.6716;0.6216;
1267.8000;0.6683;0.6192;
1268.1000;0.6659;0.6167;
1268.4000;0.6675;0.6143;
1268.7000;0.6675;0.6192;
1269.0000;0.6675;0.6240;
1269.3000;0.6691;0.6143;
1269.6000;0.6699;0.6143;
1269.9000;0.6699;0.6119;
1270.2000;0.6602;0.5850;
1270.5000;0.6667;0.5997;
1270.8000;0.6667;0.5997;
1271.1000;0.6675;0.5924;
1271.4000;0.6707;0.5948;
1271.7000;0.6650;0.5826;
1272.0000;0.6659;0.5850;
1272.3000;0.6683;0.5948;
1272.6000;0.6691;0.5948;
1272.9000;0.6675;0.5899;
1273.2000;0.6675;0.6021;
1273.5000;0.6667;0.6045;
1273.8000;0.6667;0.5924;
1274.1000;0.6691;0.5972;
1274.4000;0.6699;0.6021;
1274.7000;0.6691;0.6021;
1275.0000;0.6707;0.6070;
1275.3000;0.6667;0.5972;
1275.6000;0.6691;0.6094;
1275.9000;0.6691;0.6143;
1276.2000;0.6683;0.6192;
1276.5000;0.6667;0.6167;
1276.8000;0.6691;0.6192;
1277.1000;0.6716;0.6192;
1277.4000;0.6659;0.6216;
1277.7000;0.6675;0.6240;
1278.0000;0.6699;0.6314;
1278.3000;0.6569;0.5924;
1278.6000;0.6675;0.6192;
1278.9000;0.6683;0.6167;
1279.2000;0.6675;0.6021;
1279.5000;0.6683;0.6094;
1279.8000;0.6626;0.5948;
1280.1000;0.6683;0.6119;
1280.4000;0.6650;0.5997;
1280.7000;0.6667;0.6045;
1281.0000;0.6667;0.6070;
1281.3000;0.6650;0.6045;
1281.6000;0.6667;0.6070;
1281.9000;0.6602;0.5899;
1282.2000;0.6659;0.6045;
1282.5000;0.6683;0.6119;
1282.8000;0.6699;0.6167;
1283.1000;0.6691;0.6070;
1283.4000;0.6724;0.6216;
1283.7000;0.6683;0.6167;
1284.0000;0.6683;0.6119;
1284.3000;0.6683;0.6143;
1284.6000;0.6691;0.6143;
1284.9000;0.6707;0.6167;
1285.2000;0.6707;0.6119;
1285.5000;0.6691;0.6021;
1285.8000;0.6691;0.5924;
1286.1000;0.6691;0.5948;
1286.4000;0.6699;0.6045;
1286.7000;0.6675;0.6021;
1287.0000;0.6675;0.6021;
1287.3000;0.6683;0.6045;
1287.6000;0.6707;0.6143;
1287.9000;0.6683;0.6094;
1288.2000;0.6707;0.6045;
1288.5000;0.6707;0.6119;
1288.8000;0.6732;0.6216;
1289.1000;0.6691;0.6119;
1289.4000;0.6683;0.6070;
1289.7000;0.6691;0.6143;
1290.0000;0.6707;0.6119;
1290.3000;0.6683;0.6167;
1290.6000;0.6691;0.6094;
1290.9000;0.6675;0.5972;
1291.2000;0.6699;0.5997;
1291.5000;0.6675;0.5948;
1291.8000;0.6675;0.5997;
1292.1000;0.6691;0.6021;
1292.4000;0.6667;0.6021;
1292.7000;0.6642;0.5924;
1293.0000;0.6699;0.5997;
1293.3000;0.6683;0.5924;
1293.6000;0.6667;0.5899;
1293.9000;0.6659;0.5924;
1294.2000;0.6691;0.5997;
1294.5000;0.6707;0.5997;
1294.8000;0.6675;0.5899;
1295.1000;0.6659;0.5899;
1295.4000;0.6707;0.5948;
1295.7000;0.6699;0.5972;
1296.0000;0.6683;0.5997;
1296.3000;0.6707;0.6119;
1296.6000;0.6683;0.6070;
1296.9000;0.6675;0.6021;
1297.2000;0.6659;0.5924;
1297.5000;0.6691;0.6070;
1297.8000;0.6691;0.6021;
1298.1000;0.6716;0.6045;
1298.4000;0.6691;0.5972;
1298.7000;0.6659;0.5997;
1299.0000;0.6707;0.6021;
1299.3000;0.6683;0.5997;
1299.6000;0.6683;0.5972;
1299.9000;0.6683;0.5924;
1300.2000;0.6683;0.5924;
1300.5000;0.6683;0.5899;
1300.8000;0.6675;0.5850;
1301.1000;0.6691;0.5850;
1301.4000;0.6699;0.5924;
1301.7000;0.6675;0.5997;
1302.0000;0.6675;0.6021;
1302.3000;0.6650;0.6021;
1302.6000;0.6675;0.6045;
1302.9000;0.6675;0.6070;
1303.2000;0.6667;0.5997;
1303.5000;0.6675;0.5997;
1303.8000;0.6699;0.6045;
1304.1000;0.6683;0.6045;
1304.4000;0.6691;0.6045;
1304.7000;0.6716;0.6070;
1305.0000;0.6691;0.6021;
1305.3000;0.6675;0.5924;
1305.6000;0.6691;0.5948;
1305.9000;0.6659;0.6045;
1306.2000;0.6675;0.6192;
1306.5000;0.6683;0.6216;
1306.8000;0.6675;0.6167;
1307.1000;0.6675;0.6021;
1307.4000;0.6675;0.5972;
1307.7000;0.6683;0.5997;
1308.0000;0.6699;0.6021;
1308.3000;0.6699;0.6119;
1308.6000;0.6642;0.6021;
1308.9000;0.6699;0.6192;
1309.2000;0.6659;0.6094;
1309.5000;0.6683;0.6192;
1309.8000;0.6707;0.6338;
1310.1000;0.6716;0.6289;
1310.4000;0.6691;0.6289;
1310.7000;0.6683;0.6289;
1311.0000;0.6675;0.6289;
1311.3000;0.6691;0.6338;
1311.6000;0.6683;0.6265;
1311.9000;0.6675;0.6192;
1312.2000;0.6675;0.6045;
1312.5000;0.6683;0.5972;
1312.8000;0.6683;0.5948;
1313.1000;0.6691;0.5924;
1313.4000;0.6699;0.5948;
1313.7000;0.6659;0.5802;
1314.0000;0.6699;0.5875;
1314.3000;0.6675;0.5972;
1314.6000;0.6691;0.6021;
1314.9000;0.6675;0.5997;
1315.2000;0.6699;0.6119;
1315.5000;0.6683;0.6143;
1315.8000;0.6732;0.6192;
1316.1000;0.6707;0.6167;
1316.4000;0.6667;0.5972;
1316.7000;0.6675;0.6021;
1317.0000;0.6691;0.5997;
1317.3000;0.6667;0.5924;
1317.6000;0.6683;0.5948;
1317.9000;0.6561;0.5704;
1318.2000;0.6691;0.6143;
1318.5000;0.6675;0.6094;
1318.8000;0.6626;0.5948;
1319.1000;0.6716;0.6094;
1319.4000;0.6699;0.6070;
1319.7000;0.6699;0.6119;
1320.0000;0.6699;0.6094;
1320.3000;0.6699;0.6070;
1320.6000;0.6699;0.6070;
1320.9000;0.6659;0.5972;
1321.2000;0.6675;0.6021;
1321.5000;0.6675;0.6045;
1321.8000;0.6675;0.6045;
1322.1000;0.6683;0.5972;
1322.4000;0.6650;0.5899;
1322.7000;0.6691;0.5899;
1323.0000;0.6683;0.5850;
1323.3000;0.6675;0.5802;
1323.6000;0.6707;0.5875;
1323.9000;0.6667;0.5997;
1324.2000;0.6675;0.6094;
1324.5000;0.6699;0.6192;
1324.8000;0.6691;0.6216;
1325.1000;0.6691;0.6240;
1325.4000;0.6667;0.6167;
1325.7000;0.6707;0.6216;
1326.0000;0.6667;0.6216;
1326.3000;0.6626;0.5997;
1326.6000;0.6683;0.6167;
1326.9000;0.6691;0.6240;
1327.2000;0.6659;0.6167;
1327.5000;0.6593;0.6119;
1327.8000;0.6683;0.6314;
1328.1000;0.6691;0.6314;
1328.4000;0.6707;0.6314;
1328.7000;0.6683;0.6314;
1329.0000;0.6683;0.6362;
1329.3000;0.6667;0.6289;
1329.6000;0.6683;0.6216;
1329.9000;0.6683;0.6265;
1330.2000;0.6699;0.6192;
1330.5000;0.6699;0.6216;
1330.8000;0.6691;0.6216;
1331.1000;0.6724;0.6289;
1331.4000;0.6691;0.6167;
1331.7000;0.6667;0.6143;
1332.0000;0.6699;0.6216;
1332.3000;0.6626;0.5997;
1332.6000;0.6683;0.6216;
1332.9000;0.6707;0.6192;
1333.2000;0.6667;0.6094;
1333.5000;0.6691;0.6119;
1333.8000;0.6707;0.6045;
1334.1000;0.6683;0.6021;
1334.4000;0.6675;0.6119;
1334.7000;0.6683;0.5997;
1335.0000;0.6650;0.5850;
1335.3000;0.6683;0.5948;
1335.6000;0.6691;0.5997;
1335.9000;0.6707;0.6045;
1336.2000;0.6683;0.5924;
1336.5000;0.6691;0.5924;
1336.8000;0.6699;0.5972;
1337.1000;0.6716;0.5972;
1337.4000;0.6699;0.5948;
1337.7000;0.6675;0.5875;
1338.0000;0.6683;0.5850;
1338.3000;0.6691;0.5948;
1338.6000;0.6716;0.5972;
1338.9000;0.6789;0.6216;
1339.2000;0.6683;0.5924;
1339.5000;0.6683;0.5924;
1339.8000;0.6675;0.5875;
1340.1000;0.6683;0.5899;
1340.4000;0.6675;0.5924;
1340.7000;0.6716;0.6021;
1341.0000;0.6732;0.6021;
1341.3000;0.6675;0.5948;
1341.6000;0.6626;0.5802;
1341.9000;0.6683;0.5972;
1342.2000;0.6691;0.5997;
1342.5000;0.6691;0.6045;
1342.8000;0.6659;0.5972;
1343.1000;0.6691;0.6070;
1343.4000;0.6675;0.6021;
1343.7000;0.6683;0.5924;
1344.0000;0.6650;0.5875;
1344.3000;0.6675;0.5924;
1344.6000;0.6683;0.5972;
1344.9000;0.6699;0.6119;
1345.2000;0.6707;0.6119;
1345.5000;0.6675;0.6045;
1345.8000;0.6691;0.6094;
1346.1000;0.6683;0.6021;
1346.4000;0.6691;0.6143;
1346.7000;0.6699;0.6167;
1347.0000;0.6667;0.6143;
1347.3000;0.6642;0.5924;
1347.6000;0.6675;0.6070;
1347.9000;0.6683;0.6119;
1348.2000;0.6691;0.6143;
1348.5000;0.6675;0.6167;
1348.8000;0.6675;0.6192;
1349.1000;0.6707;0.6240;
1349.4000;0.6683;0.6167;
1349.7000;0.6691;0.6070;
1350.0000;0.6691;0.6070;
1350.3000;0.6683;0.5997;
1350.6000;0.6659;0.6021;
1350.9000;0.6691;0.6021;
1351.2000;0.6683;0.6070;
1351.5000;0.6691;0.6119;
1351.8000;0.6691;0.6119;
1352.1000;0.6716;0.6192;
1352.4000;0.6683;0.6143;
1352.7000;0.6699;0.6070;
1353.0000;0.6667;0.5972;
1353.3000;0.6683;0.5972;
1353.6000;0.6683;0.6021;
1353.9000;0.6675;0.6021;
1354.2000;0.6667;0.5972;
1354.5000;0.6683;0.5899;
1354.8000;0.6699;0.5826;
1355.1000;0.6610;0.5631;
1355.4000;0.6691;0.5875;
1355.7000;0.6675;0.5850;
1356.0000;0.6748;0.5972;
1356.3000;0.6667;0.5704;
1356.6000;0.6683;0.5680;
1356.9000;0.6634;0.5582;
1357.2000;0.6683;0.5680;
1357.5000;0.6691;0.5655;
1357.8000;0.6675;0.5655;
1358.1000;0.6618;0.5582;
1358.4000;0.6675;0.5753;
1358.7000;0.6699;0.5777;
1359.0000;0.6667;0.5826;
1359.3000;0.6675;0.5875;
1359.6000;0.6675;0.5850;
1359.9000;0.6716;0.5972;
1360.2000;0.6667;0.5948;
1360.5000;0.6691;0.5972;
1360.8000;0.6691;0.5948;
1361.1000;0.6683;0.5875;
1361.4000;0.6675;0.5875;
1361.7000;0.6659;0.5924;
1362.0000;0.6667;0.5924;
1362.3000;0.6675;0.5948;
1362.6000;0.6675;0.5924;
1362.9000;0.6675;0.5972;
1363.2000;0.6642;0.5899;
1363.5000;0.6675;0.5997;
1363.8000;0.6675;0.5972;
1364.1000;0.6618;0.5802;
1364.4000;0.6667;0.5948;
1364.7000;0.6667;0.5948;
1365.0000;0.6683;0.5972;
1365.3000;0.6683;0.6021;
1365.6000;0.6691;0.6021;
1365.9000;0.6659;0.5972;
1366.2000;0.6667;0.6045;
1366.5000;0.6683;0.6021;
1366.8000;0.6667;0.6045;
1367.1000;0.6675;0.5948;
1367.4000;0.6667;0.5850;
1367.7000;0.6683;0.5875;
1368.0000;0.6675;0.5753;
1368.3000;0.6659;0.5680;
1368.6000;0.6659;0.5607;
1368.9000;0.6683;0.5631;
1369.2000;0.6683;0.5704;
1369.5000;0.6691;0.5802;
1369.8000;0.6683;0.5728;
1370.1000;0.6797;0.5972;
1370.4000;0.6691;0.5680;
1370.7000;0.6683;0.5728;
1371.0000;0.6691;0.5680;
1371.3000;0.6707;0.5680;
1371.6000;0.6675;0.5582;
1371.9000;0.6667;0.5582;
1372.2000;0.6602;0.5460;
1372.5000;0.6667;0.5607;
1372.8000;0.6667;0.5607;
1373.1000;0.6618;0.5558;
1373.4000;0.6683;0.5802;
1373.7000;0.6675;0.5777;
1374.0000;0.6667;0.5704;
1374.3000;0.6659;0.5728;
1374.6000;0.6683;0.5826;
1374.9000;0.6675;0.5826;
1375.2000;0.6691;0.5850;
1375.5000;0.6650;0.5680;
1375.8000;0.6667;0.5777;
1376.1000;0.6667;0.5753;
1376.4000;0.6707;0.5826;
1376.7000;0.6683;0.5728;
1377.0000;0.6691;0.5728;
1377.3000;0.6740;0.5850;
1377.6000;0.6699;0.5802;
1377.9000;0.6707;0.5850;
1378.2000;0.6691;0.5826;
1378.5000;0.6667;0.5728;
1378.8000;0.6659;0.5704;
1379.1000;0.6691;0.5753;
1379.4000;0.6691;0.5802;
1379.7000;0.6707;0.5948;
1380.0000;0.6699;0.5972;
1380.3000;0.6683;0.5948;
1380.6000;0.6707;0.5948;
1380.9000;0.6716;0.5875;
1381.2000;0.6634;0.5680;
1381.5000;0.6691;0.5777;
1381.8000;0.6675;0.5753;
1382.1000;0.6691;0.5777;
1382.4000;0.6683;0.5753;
1382.7000;0.6683;0.5802;
1383.0000;0.6707;0.5924;
1383.3000;0.6691;0.5899;
1383.6000;0.6716;0.6021;
1383.9000;0.6691;0.5924;
1384.2000;0.6716;0.5875;
1384.5000;0.6691;0.5777;
1384.8000;0.6732;0.5875;
1385.1000;0.6683;0.5704;
1385.4000;0.6683;0.5704;
1385.7000;0.6691;0.5704;
1386.0000;0.6683;0.5704;
1386.3000;0.6691;0.5728;
1386.6000;0.6732;0.5875;
1386.9000;0.6683;0.5850;
1387.2000;0.6683;0.5875;
1387.5000;0.6683;0.5777;
1387.8000;0.6610;0.5704;
1388.1000;0.6724;0.5875;
1388.4000;0.6667;0.5777;
1388.7000;0.6683;0.5802;
1389.0000;0.6740;0.5948;
1389.3000;0.6634;0.5655;
1389.6000;0.6691;0.5728;
1389.9000;0.6675;0.5728;
1390.2000;0.6626;0.5582;
1390.5000;0.6667;0.5704;
1390.8000;0.6667;0.5680;
1391.1000;0.6610;0.5509;
1391.4000;0.6699;0.5753;
1391.7000;0.6675;0.5582;
1392.0000;0.6707;0.5753;
1392.3000;0.6642;0.5558;
1392.6000;0.6675;0.5704;
1392.9000;0.6675;0.5704;
1393.2000;0.6724;0.5802;
1393.5000;0.6675;0.5680;
1393.8000;0.6724;0.5850;
1394.1000;0.6699;0.5728;
1394.4000;0.6683;0.5728;
1394.7000;0.6699;0.5802;
1395.0000;0.6699;0.5753;
1395.3000;0.6683;0.5680;
1395.6000;0.6748;0.5802;
1395.9000;0.6610;0.5485;
1396.2000;0.6667;0.5558;
1396.5000;0.6667;0.5607;
1396.8000;0.6691;0.5607;
1397.1000;0.6707;0.5704;
1397.4000;0.6691;0.5680;
1397.7000;0.6699;0.5704;
1398.0000;0.6683;0.5680;
1398.3000;0.6683;0.5753;
1398.6000;0.6691;0.5753;
1398.9000;0.6667;0.5753;
1399.2000;0.6707;0.5826;
1399.5000;0.6667;0.5826;
1399.8000;0.6683;0.5850;
