time/ms;Fluo/V;P700 deltaI/I x10³;
-199.8000;0.7570;0.4948;
-199.5000;0.7586;0.4900;
-199.2000;0.7586;0.5046;
-198.9000;0.7603;0.5119;
-198.6000;0.7586;0.5046;
-198.3000;0.7586;0.5070;
-198.0000;0.7595;0.4997;
-197.7000;0.7619;0.4973;
-197.4000;0.7603;0.4973;
-197.1000;0.7595;0.4900;
-196.8000;0.7595;0.4827;
-196.5000;0.7635;0.4900;
-196.2000;0.7611;0.4900;
-195.9000;0.7586;0.4875;
-195.6000;0.7578;0.4900;
-195.3000;0.7595;0.4948;
-195.0000;0.7595;0.4827;
-194.7000;0.7595;0.4875;
-194.4000;0.7643;0.5070;
-194.1000;0.7603;0.5022;
-193.8000;0.7611;0.5022;
-193.5000;0.7578;0.4973;
-193.2000;0.7578;0.4973;
-192.9000;0.7611;0.5070;
-192.6000;0.7586;0.5046;
-192.3000;0.7619;0.5022;
-192.0000;0.7586;0.4851;
-191.7000;0.7586;0.4924;
-191.4000;0.7603;0.4948;
-191.1000;0.7578;0.4900;
-190.8000;0.7578;0.4997;
-190.5000;0.7570;0.4924;
-190.2000;0.7586;0.4924;
-189.9000;0.7578;0.4973;
-189.6000;0.7578;0.4924;
-189.3000;0.7578;0.4973;
-189.0000;0.7578;0.4924;
-188.7000;0.7586;0.4827;
-188.4000;0.7481;0.4534;
-188.1000;0.7586;0.4753;
-187.8000;0.7586;0.4705;
-187.5000;0.7603;0.4753;
-187.2000;0.7586;0.4827;
-186.9000;0.7578;0.4753;
-186.6000;0.7578;0.4705;
-186.3000;0.7562;0.4705;
-186.0000;0.7684;0.4875;
-185.7000;0.7586;0.4632;
-185.4000;0.7595;0.4705;
-185.1000;0.7586;0.4729;
-184.8000;0.7586;0.4778;
-184.5000;0.7586;0.4900;
-184.2000;0.7586;0.4900;
-183.9000;0.7595;0.4900;
-183.6000;0.7603;0.4900;
-183.3000;0.7595;0.4924;
-183.0000;0.7570;0.4924;
-182.7000;0.7643;0.5095;
-182.4000;0.7586;0.4948;
-182.1000;0.7595;0.4997;
-181.8000;0.7595;0.5022;
-181.5000;0.7538;0.4802;
-181.2000;0.7595;0.4900;
-180.9000;0.7578;0.4827;
-180.6000;0.7595;0.4851;
-180.3000;0.7611;0.4827;
-180.0000;0.7603;0.4900;
-179.7000;0.7595;0.4900;
-179.4000;0.7586;0.4851;
-179.1000;0.7578;0.4827;
-178.8000;0.7570;0.4827;
-178.5000;0.7554;0.4753;
-178.2000;0.7578;0.4827;
-177.9000;0.7595;0.4778;
-177.6000;0.7586;0.4778;
-177.3000;0.7603;0.4827;
-177.0000;0.7586;0.4778;
-176.7000;0.7586;0.4802;
-176.4000;0.7586;0.4802;
-176.1000;0.7586;0.4778;
-175.8000;0.7595;0.4802;
-175.5000;0.7586;0.4753;
-175.2000;0.7578;0.4680;
-174.9000;0.7578;0.4607;
-174.6000;0.7554;0.4583;
-174.3000;0.7562;0.4534;
-174.0000;0.7595;0.4656;
-173.7000;0.7586;0.4729;
-173.4000;0.7578;0.4778;
-173.1000;0.7570;0.4802;
-172.8000;0.7595;0.4802;
-172.5000;0.7570;0.4778;
-172.2000;0.7570;0.4753;
-171.9000;0.7595;0.4778;
-171.6000;0.7586;0.4705;
-171.3000;0.7570;0.4680;
-171.0000;0.7578;0.4680;
-170.7000;0.7595;0.4753;
-170.4000;0.7513;0.4632;
-170.1000;0.7554;0.4680;
-169.8000;0.7562;0.4802;
-169.5000;0.7611;0.5022;
-169.2000;0.7586;0.4948;
-168.9000;0.7570;0.4802;
-168.6000;0.7603;0.4827;
-168.3000;0.7497;0.4534;
-168.0000;0.7570;0.4680;
-167.7000;0.7578;0.4656;
-167.4000;0.7627;0.4778;
-167.1000;0.7570;0.4680;
-166.8000;0.7578;0.4778;
-166.5000;0.7603;0.4948;
-166.2000;0.7603;0.4875;
-165.9000;0.7611;0.4802;
-165.6000;0.7578;0.4827;
-165.3000;0.7570;0.4827;
-165.0000;0.7578;0.4851;
-164.7000;0.7586;0.4875;
-164.4000;0.7570;0.4973;
-164.1000;0.7570;0.4875;
-163.8000;0.7586;0.4948;
-163.5000;0.7595;0.4973;
-163.2000;0.7595;0.5046;
-162.9000;0.7586;0.5046;
-162.6000;0.7595;0.4997;
-162.3000;0.7578;0.4973;
-162.0000;0.7603;0.5046;
-161.7000;0.7578;0.4973;
-161.4000;0.7570;0.4997;
-161.1000;0.7595;0.4997;
-160.8000;0.7603;0.5046;
-160.5000;0.7578;0.4973;
-160.2000;0.7530;0.4924;
-159.9000;0.7578;0.5022;
-159.6000;0.7595;0.5070;
-159.3000;0.7570;0.5046;
-159.0000;0.7586;0.5046;
-158.7000;0.7570;0.5046;
-158.4000;0.7586;0.5046;
-158.1000;0.7586;0.5022;
-157.8000;0.7570;0.4924;
-157.5000;0.7603;0.4875;
-157.2000;0.7635;0.4948;
-156.9000;0.7586;0.4900;
-156.6000;0.7578;0.4875;
-156.3000;0.7562;0.4948;
-156.0000;0.7595;0.5022;
-155.7000;0.7595;0.5022;
-155.4000;0.7595;0.5046;
-155.1000;0.7570;0.4948;
-154.8000;0.7627;0.5022;
-154.5000;0.7538;0.4851;
-154.2000;0.7595;0.4924;
-153.9000;0.7578;0.4875;
-153.6000;0.7586;0.4948;
-153.3000;0.7603;0.5070;
-153.0000;0.7562;0.4924;
-152.7000;0.7570;0.4924;
-152.4000;0.7619;0.5070;
-152.1000;0.7586;0.5070;
-151.8000;0.7595;0.5095;
-151.5000;0.7595;0.5095;
-151.2000;0.7586;0.4973;
-150.9000;0.7538;0.4827;
-150.6000;0.7595;0.4924;
-150.3000;0.7595;0.4973;
-150.0000;0.7554;0.4948;
-149.7000;0.7578;0.4948;
-149.4000;0.7578;0.4948;
-149.1000;0.7554;0.4875;
-148.8000;0.7578;0.4997;
-148.5000;0.7530;0.4851;
-148.2000;0.7595;0.4973;
-147.9000;0.7538;0.4778;
-147.6000;0.7570;0.4827;
-147.3000;0.7570;0.4875;
-147.0000;0.7586;0.4827;
-146.7000;0.7578;0.4827;
-146.4000;0.7627;0.4875;
-146.1000;0.7586;0.4778;
-145.8000;0.7578;0.4729;
-145.5000;0.7538;0.4705;
-145.2000;0.7570;0.4827;
-144.9000;0.7603;0.4875;
-144.6000;0.7586;0.4900;
-144.3000;0.7554;0.4802;
-144.0000;0.7586;0.4900;
-143.7000;0.7595;0.4900;
-143.4000;0.7586;0.4900;
-143.1000;0.7586;0.4827;
-142.8000;0.7611;0.4778;
-142.5000;0.7595;0.4729;
-142.2000;0.7586;0.4729;
-141.9000;0.7586;0.4729;
-141.6000;0.7586;0.4729;
-141.3000;0.7603;0.4705;
-141.0000;0.7595;0.4802;
-140.7000;0.7562;0.4827;
-140.4000;0.7595;0.4875;
-140.1000;0.7578;0.4875;
-139.8000;0.7578;0.4827;
-139.5000;0.7586;0.4778;
-139.2000;0.7595;0.4827;
-138.9000;0.7570;0.4753;
-138.6000;0.7586;0.4875;
-138.3000;0.7643;0.5022;
-138.0000;0.7578;0.4827;
-137.7000;0.7586;0.4802;
-137.4000;0.7619;0.5046;
-137.1000;0.7578;0.4973;
-136.8000;0.7586;0.5046;
-136.5000;0.7595;0.5070;
-136.2000;0.7578;0.5070;
-135.9000;0.7562;0.5046;
-135.6000;0.7578;0.5143;
-135.3000;0.7562;0.5095;
-135.0000;0.7603;0.5095;
-134.7000;0.7586;0.5070;
-134.4000;0.7595;0.5143;
-134.1000;0.7586;0.5070;
-133.8000;0.7586;0.5070;
-133.5000;0.7554;0.4924;
-133.2000;0.7595;0.5022;
-132.9000;0.7595;0.4997;
-132.6000;0.7578;0.5022;
-132.3000;0.7595;0.4997;
-132.0000;0.7603;0.5022;
-131.7000;0.7595;0.4973;
-131.4000;0.7595;0.4924;
-131.1000;0.7627;0.5022;
-130.8000;0.7538;0.4778;
-130.5000;0.7586;0.4851;
-130.2000;0.7611;0.4973;
-129.9000;0.7611;0.4948;
-129.6000;0.7570;0.4875;
-129.3000;0.7586;0.4997;
-129.0000;0.7586;0.4973;
-128.7000;0.7619;0.5070;
-128.4000;0.7586;0.4973;
-128.1000;0.7578;0.4900;
-127.8000;0.7635;0.5070;
-127.5000;0.7578;0.4997;
-127.2000;0.7586;0.4900;
-126.9000;0.7603;0.4997;
-126.6000;0.7586;0.4948;
-126.3000;0.7595;0.4997;
-126.0000;0.7586;0.4948;
-125.7000;0.7570;0.4900;
-125.4000;0.7643;0.5168;
-125.1000;0.7562;0.5046;
-124.8000;0.7578;0.5046;
-124.5000;0.7513;0.4875;
-124.2000;0.7578;0.5070;
-123.9000;0.7595;0.5022;
-123.6000;0.7578;0.5022;
-123.3000;0.7530;0.4851;
-123.0000;0.7595;0.4948;
-122.7000;0.7611;0.4948;
-122.4000;0.7578;0.4875;
-122.1000;0.7570;0.4900;
-121.8000;0.7595;0.4948;
-121.5000;0.7611;0.4948;
-121.2000;0.7595;0.4924;
-120.9000;0.7595;0.5046;
-120.6000;0.7586;0.5070;
-120.3000;0.7652;0.5241;
-120.0000;0.7586;0.5119;
-119.7000;0.7586;0.4997;
-119.4000;0.7595;0.5046;
-119.1000;0.7578;0.4997;
-118.8000;0.7603;0.5022;
-118.5000;0.7586;0.4997;
-118.2000;0.7595;0.4973;
-117.9000;0.7595;0.4997;
-117.6000;0.7627;0.5143;
-117.3000;0.7554;0.4997;
-117.0000;0.7586;0.5095;
-116.7000;0.7635;0.5265;
-116.4000;0.7595;0.5070;
-116.1000;0.7595;0.5022;
-115.8000;0.7627;0.5143;
-115.5000;0.7570;0.4924;
-115.2000;0.7570;0.4973;
-114.9000;0.7595;0.5046;
-114.6000;0.7578;0.4948;
-114.3000;0.7586;0.4997;
-114.0000;0.7578;0.5022;
-113.7000;0.7643;0.5119;
-113.4000;0.7586;0.4948;
-113.1000;0.7570;0.4973;
-112.8000;0.7570;0.4875;
-112.5000;0.7586;0.4875;
-112.2000;0.7619;0.4948;
-111.9000;0.7578;0.4900;
-111.6000;0.7586;0.5046;
-111.3000;0.7521;0.4875;
-111.0000;0.7586;0.5046;
-110.7000;0.7554;0.4924;
-110.4000;0.7595;0.4948;
-110.1000;0.7570;0.4900;
-109.8000;0.7546;0.4802;
-109.5000;0.7570;0.4802;
-109.2000;0.7586;0.4802;
-108.9000;0.7611;0.4802;
-108.6000;0.7578;0.4729;
-108.3000;0.7489;0.4583;
-108.0000;0.7570;0.4753;
-107.7000;0.7570;0.4753;
-107.4000;0.7578;0.4827;
-107.1000;0.7562;0.4827;
-106.8000;0.7570;0.4924;
-106.5000;0.7603;0.5070;
-106.2000;0.7603;0.5143;
-105.9000;0.7570;0.5046;
-105.6000;0.7595;0.5168;
-105.3000;0.7603;0.5168;
-105.0000;0.7586;0.5119;
-104.7000;0.7578;0.5046;
-104.4000;0.7562;0.4948;
-104.1000;0.7578;0.4997;
-103.8000;0.7586;0.4973;
-103.5000;0.7595;0.4948;
-103.2000;0.7595;0.4948;
-102.9000;0.7578;0.4997;
-102.6000;0.7570;0.4948;
-102.3000;0.7603;0.4900;
-102.0000;0.7578;0.4851;
-101.7000;0.7578;0.4851;
-101.4000;0.7586;0.4875;
-101.1000;0.7586;0.4997;
-100.8000;0.7586;0.4924;
-100.5000;0.7586;0.4802;
-100.2000;0.7570;0.4875;
-99.9000;0.7595;0.4924;
-99.6000;0.7546;0.4851;
-99.3000;0.7578;0.4924;
-99.0000;0.7578;0.4924;
-98.7000;0.7595;0.5046;
-98.4000;0.7578;0.5095;
-98.1000;0.7586;0.5143;
-97.8000;0.7554;0.5119;
-97.5000;0.7578;0.5143;
-97.2000;0.7562;0.5119;
-96.9000;0.7562;0.5095;
-96.6000;0.7586;0.5192;
-96.3000;0.7562;0.5119;
-96.0000;0.7611;0.5338;
-95.7000;0.7562;0.5265;
-95.4000;0.7578;0.5314;
-95.1000;0.7578;0.5314;
-94.8000;0.7586;0.5290;
-94.5000;0.7586;0.5290;
-94.2000;0.7521;0.5192;
-93.9000;0.7578;0.5241;
-93.6000;0.7578;0.5143;
-93.3000;0.7586;0.5217;
-93.0000;0.7586;0.5119;
-92.7000;0.7578;0.5119;
-92.4000;0.7554;0.4997;
-92.1000;0.7586;0.5119;
-91.8000;0.7554;0.5046;
-91.5000;0.7578;0.5143;
-91.2000;0.7570;0.5143;
-90.9000;0.7578;0.5143;
-90.6000;0.7595;0.5192;
-90.3000;0.7570;0.5168;
-90.0000;0.7595;0.5338;
-89.7000;0.7586;0.5290;
-89.4000;0.7595;0.5192;
-89.1000;0.7578;0.5119;
-88.8000;0.7595;0.5119;
-88.5000;0.7578;0.5070;
-88.2000;0.7586;0.5022;
-87.9000;0.7595;0.5070;
-87.6000;0.7570;0.4997;
-87.3000;0.7603;0.5022;
-87.0000;0.7562;0.4851;
-86.7000;0.7586;0.4948;
-86.4000;0.7586;0.4973;
-86.1000;0.7586;0.4973;
-85.8000;0.7546;0.4948;
-85.5000;0.7570;0.4948;
-85.2000;0.7586;0.4997;
-84.9000;0.7586;0.4973;
-84.6000;0.7586;0.4948;
-84.3000;0.7595;0.4997;
-84.0000;0.7586;0.4900;
-83.7000;0.7603;0.4948;
-83.4000;0.7570;0.4997;
-83.1000;0.7562;0.4948;
-82.8000;0.7578;0.5070;
-82.5000;0.7595;0.5119;
-82.2000;0.7570;0.5046;
-81.9000;0.7611;0.5192;
-81.6000;0.7586;0.5022;
-81.3000;0.7603;0.5070;
-81.0000;0.7546;0.4973;
-80.7000;0.7643;0.5168;
-80.4000;0.7586;0.5022;
-80.1000;0.7586;0.5022;
-79.8000;0.7578;0.4973;
-79.5000;0.7578;0.5046;
-79.2000;0.7578;0.4997;
-78.9000;0.7562;0.4948;
-78.6000;0.7562;0.5046;
-78.3000;0.7578;0.5022;
-78.0000;0.7570;0.5070;
-77.7000;0.7578;0.5095;
-77.4000;0.7578;0.5046;
-77.1000;0.7578;0.5046;
-76.8000;0.7586;0.4973;
-76.5000;0.7530;0.4973;
-76.2000;0.7570;0.5046;
-75.9000;0.7570;0.4973;
-75.6000;0.7570;0.4948;
-75.3000;0.7578;0.4997;
-75.0000;0.7530;0.4900;
-74.7000;0.7578;0.4997;
-74.4000;0.7578;0.5070;
-74.1000;0.7554;0.5046;
-73.8000;0.7578;0.5143;
-73.5000;0.7554;0.5119;
-73.2000;0.7603;0.5168;
-72.9000;0.7570;0.5119;
-72.6000;0.7562;0.5119;
-72.3000;0.7562;0.5192;
-72.0000;0.7562;0.5095;
-71.7000;0.7562;0.5022;
-71.4000;0.7578;0.5070;
-71.1000;0.7578;0.4924;
-70.8000;0.7619;0.4948;
-70.5000;0.7595;0.4997;
-70.2000;0.7578;0.4851;
-69.9000;0.7578;0.4875;
-69.6000;0.7635;0.5046;
-69.3000;0.7595;0.4948;
-69.0000;0.7603;0.4973;
-68.7000;0.7570;0.4973;
-68.4000;0.7578;0.5046;
-68.1000;0.7578;0.5070;
-67.8000;0.7586;0.5143;
-67.5000;0.7586;0.5143;
-67.2000;0.7521;0.4875;
-66.9000;0.7505;0.4827;
-66.6000;0.7505;0.4827;
-66.3000;0.7554;0.4900;
-66.0000;0.7570;0.4900;
-65.7000;0.7595;0.5070;
-65.4000;0.7586;0.5119;
-65.1000;0.7603;0.5168;
-64.8000;0.7611;0.5192;
-64.5000;0.7595;0.5217;
-64.2000;0.7586;0.5095;
-63.9000;0.7570;0.4997;
-63.6000;0.7578;0.5070;
-63.3000;0.7595;0.5119;
-63.0000;0.7562;0.5095;
-62.7000;0.7586;0.5143;
-62.4000;0.7595;0.5095;
-62.1000;0.7668;0.5314;
-61.8000;0.7611;0.5217;
-61.5000;0.7586;0.5168;
-61.2000;0.7603;0.5192;
-60.9000;0.7627;0.5241;
-60.6000;0.7578;0.5143;
-60.3000;0.7586;0.5168;
-60.0000;0.7538;0.4973;
-59.7000;0.7578;0.4973;
-59.4000;0.7595;0.4948;
-59.1000;0.7521;0.4753;
-58.8000;0.7521;0.4680;
-58.5000;0.7578;0.4827;
-58.2000;0.7611;0.4851;
-57.9000;0.7554;0.4705;
-57.6000;0.7530;0.4558;
-57.3000;0.7578;0.4607;
-57.0000;0.7578;0.4583;
-56.7000;0.7586;0.4680;
-56.4000;0.7586;0.4802;
-56.1000;0.7570;0.4900;
-55.8000;0.7595;0.4948;
-55.5000;0.7603;0.5022;
-55.2000;0.7619;0.5119;
-54.9000;0.7595;0.5217;
-54.6000;0.7586;0.5217;
-54.3000;0.7586;0.5217;
-54.0000;0.7546;0.5143;
-53.7000;0.7578;0.5314;
-53.4000;0.7586;0.5338;
-53.1000;0.7595;0.5387;
-52.8000;0.7586;0.5265;
-52.5000;0.7570;0.5241;
-52.2000;0.7578;0.5290;
-51.9000;0.7570;0.5265;
-51.6000;0.7603;0.5338;
-51.3000;0.7586;0.5412;
-51.0000;0.7578;0.5412;
-50.7000;0.7595;0.5387;
-50.4000;0.7562;0.5290;
-50.1000;0.7586;0.5314;
-49.8000;0.7586;0.5192;
-49.5000;0.7570;0.5241;
-49.2000;0.7554;0.5265;
-48.9000;0.7586;0.5363;
-48.6000;0.7570;0.5314;
-48.3000;0.7570;0.5192;
-48.0000;0.7570;0.5168;
-47.7000;0.7595;0.5192;
-47.4000;0.7652;0.5338;
-47.1000;0.7586;0.5192;
-46.8000;0.7595;0.5168;
-46.5000;0.7619;0.5265;
-46.2000;0.7595;0.5143;
-45.9000;0.7578;0.5217;
-45.6000;0.7562;0.5192;
-45.3000;0.7578;0.5192;
-45.0000;0.7586;0.5070;
-44.7000;0.7603;0.5119;
-44.4000;0.7668;0.5265;
-44.1000;0.7603;0.5168;
-43.8000;0.7652;0.5412;
-43.5000;0.7570;0.5192;
-43.2000;0.7595;0.5314;
-42.9000;0.7570;0.5168;
-42.6000;0.7595;0.5192;
-42.3000;0.7595;0.5192;
-42.0000;0.7586;0.5168;
-41.7000;0.7586;0.5168;
-41.4000;0.7595;0.5241;
-41.1000;0.7578;0.5290;
-40.8000;0.7578;0.5241;
-40.5000;0.7586;0.5217;
-40.2000;0.7635;0.5265;
-39.9000;0.7595;0.5192;
-39.6000;0.7578;0.5168;
-39.3000;0.7635;0.5314;
-39.0000;0.7521;0.4997;
-38.7000;0.7578;0.5070;
-38.4000;0.7570;0.5046;
-38.1000;0.7562;0.5046;
-37.8000;0.7586;0.5119;
-37.5000;0.7595;0.5168;
-37.2000;0.7513;0.5022;
-36.9000;0.7570;0.5168;
-36.6000;0.7611;0.5338;
-36.3000;0.7595;0.5168;
-36.0000;0.7692;0.5412;
-35.7000;0.7554;0.5095;
-35.4000;0.7603;0.5217;
-35.1000;0.7586;0.5241;
-34.8000;0.7578;0.5290;
-34.5000;0.7595;0.5314;
-34.2000;0.7570;0.5143;
-33.9000;0.7570;0.5168;
-33.6000;0.7595;0.5265;
-33.3000;0.7586;0.5265;
-33.0000;0.7595;0.5241;
-32.7000;0.7513;0.5095;
-32.4000;0.7578;0.5217;
-32.1000;0.7586;0.5192;
-31.8000;0.7562;0.5143;
-31.5000;0.7570;0.5095;
-31.2000;0.7603;0.5095;
-30.9000;0.7627;0.5217;
-30.6000;0.7578;0.5119;
-30.3000;0.7603;0.5070;
-30.0000;0.7692;0.5265;
-29.7000;0.7619;0.5119;
-29.4000;0.7595;0.5168;
-29.1000;0.7595;0.5168;
-28.8000;0.7586;0.5143;
-28.5000;0.7586;0.5143;
-28.2000;0.7586;0.5046;
-27.9000;0.7586;0.4997;
-27.6000;0.7586;0.4973;
-27.3000;0.7586;0.4900;
-27.0000;0.7595;0.4900;
-26.7000;0.7586;0.4948;
-26.4000;0.7611;0.4997;
-26.1000;0.7578;0.4973;
-25.8000;0.7570;0.4948;
-25.5000;0.7521;0.4827;
-25.2000;0.7570;0.4997;
-24.9000;0.7570;0.5022;
-24.6000;0.7570;0.5022;
-24.3000;0.7586;0.5046;
-24.0000;0.7570;0.4973;
-23.7000;0.7578;0.5046;
-23.4000;0.7578;0.4973;
-23.1000;0.7595;0.5022;
-22.8000;0.7595;0.5046;
-22.5000;0.7562;0.4900;
-22.2000;0.7578;0.4948;
-21.9000;0.7595;0.5046;
-21.6000;0.7586;0.4973;
-21.3000;0.7530;0.4900;
-21.0000;0.7586;0.5022;
-20.7000;0.7586;0.5046;
-20.4000;0.7530;0.4997;
-20.1000;0.7578;0.5168;
-19.8000;0.7595;0.5143;
-19.5000;0.7603;0.5168;
-19.2000;0.7578;0.5168;
-18.9000;0.7586;0.5168;
-18.6000;0.7546;0.5119;
-18.3000;0.7586;0.5143;
-18.0000;0.7570;0.5143;
-17.7000;0.7586;0.5119;
-17.4000;0.7578;0.5143;
-17.1000;0.7611;0.5095;
-16.8000;0.7595;0.5143;
-16.5000;0.7578;0.5070;
-16.2000;0.7595;0.5143;
-15.9000;0.7603;0.5192;
-15.6000;0.7595;0.5241;
-15.3000;0.7570;0.5241;
-15.0000;0.7570;0.5168;
-14.7000;0.7595;0.5217;
-14.4000;0.7603;0.5192;
-14.1000;0.7619;0.5192;
-13.8000;0.7586;0.5119;
-13.5000;0.7595;0.5217;
-13.2000;0.7570;0.5241;
-12.9000;0.7595;0.5314;
-12.6000;0.7578;0.5192;
-12.3000;0.7586;0.5338;
-12.0000;0.7635;0.5460;
-11.7000;0.7578;0.5290;
-11.4000;0.7578;0.5363;
-11.1000;0.7603;0.5338;
-10.8000;0.7586;0.5290;
-10.5000;0.7586;0.5290;
-10.2000;0.7562;0.5143;
-9.9000;0.7586;0.5168;
-9.6000;0.7554;0.5119;
-9.3000;0.7603;0.5217;
-9.0000;0.7595;0.5241;
-8.7000;0.7578;0.5241;
-8.4000;0.7586;0.5290;
-8.1000;0.7570;0.5338;
-7.8000;0.7586;0.5412;
-7.5000;0.7586;0.5412;
-7.2000;0.7595;0.5338;
-6.9000;0.7570;0.5192;
-6.6000;0.7586;0.5217;
-6.3000;0.7586;0.5217;
-6.0000;0.7635;0.5412;
-5.7000;0.7611;0.5338;
-5.4000;0.7570;0.5290;
-5.1000;0.7562;0.5241;
-4.8000;0.7578;0.5217;
-4.5000;0.7586;0.5241;
-4.2000;0.7611;0.5387;
-3.9000;0.7586;0.5241;
-3.6000;0.7562;0.5192;
-3.3000;0.7570;0.5192;
-3.0000;0.7595;0.5217;
-2.7000;0.7603;0.5192;
-2.4000;0.7554;0.5046;
-2.1000;0.7578;0.5046;
-1.8000;0.7578;0.5046;
-1.5000;0.7578;0.5070;
-1.2000;0.7611;0.5168;
-0.9000;0.7570;0.5070;
-0.6000;0.7570;0.5095;
-0.3000;0.7570;0.5119;
0.0000;0.7570;0.5119;
0.3000;0.7676;0.5046;
0.6000;0.7814;0.5314;
0.9000;0.7904;0.5412;
1.2000;0.7969;0.5607;
1.5000;0.8050;0.6021;
1.8000;0.8116;0.6362;
2.1000;0.8124;0.6411;
2.4000;0.8164;0.6630;
2.7000;0.8213;0.6825;
3.0000;0.8221;0.6899;
3.3000;0.8287;0.7142;
3.6000;0.8262;0.7167;
3.9000;0.8221;0.7142;
4.2000;0.8287;0.7337;
4.5000;0.8278;0.7435;
4.8000;0.8270;0.7386;
5.1000;0.8311;0.7459;
5.4000;0.8303;0.7484;
5.7000;0.8335;0.7508;
6.0000;0.8319;0.7410;
6.3000;0.8319;0.7459;
6.6000;0.8392;0.7654;
6.9000;0.8344;0.7532;
7.2000;0.8319;0.7435;
7.5000;0.8344;0.7459;
7.8000;0.8335;0.7386;
8.1000;0.8400;0.7484;
8.4000;0.8376;0.7459;
8.7000;0.8384;0.7337;
9.0000;0.8392;0.7435;
9.3000;0.8384;0.7459;
9.6000;0.8400;0.7435;
9.9000;0.8392;0.7435;
10.2000;0.8368;0.7386;
10.5000;0.8344;0.7264;
10.8000;0.8409;0.7459;
11.1000;0.8466;0.7557;
11.4000;0.8384;0.7362;
11.7000;0.8409;0.7484;
12.0000;0.8433;0.7581;
12.3000;0.8433;0.7484;
12.6000;0.8417;0.7410;
12.9000;0.8417;0.7435;
13.2000;0.8433;0.7435;
13.5000;0.8433;0.7459;
13.8000;0.8449;0.7484;
14.1000;0.8425;0.7459;
14.4000;0.8433;0.7484;
14.7000;0.8449;0.7630;
15.0000;0.8425;0.7605;
15.3000;0.8466;0.7679;
15.6000;0.8523;0.7849;
15.9000;0.8466;0.7654;
16.2000;0.8457;0.7605;
16.5000;0.8457;0.7508;
16.8000;0.8441;0.7459;
17.1000;0.8474;0.7484;
17.4000;0.8482;0.7532;
17.7000;0.8474;0.7508;
18.0000;0.8466;0.7532;
18.3000;0.8474;0.7557;
18.6000;0.8482;0.7581;
18.9000;0.8523;0.7630;
19.2000;0.8482;0.7532;
19.5000;0.8490;0.7557;
19.8000;0.8498;0.7581;
20.1000;0.8490;0.7581;
20.4000;0.8466;0.7459;
20.7000;0.8482;0.7532;
21.0000;0.8490;0.7532;
21.3000;0.8490;0.7508;
21.6000;0.8466;0.7484;
21.9000;0.8482;0.7484;
22.2000;0.8498;0.7654;
22.5000;0.8482;0.7630;
22.8000;0.8498;0.7605;
23.1000;0.8490;0.7508;
23.4000;0.8490;0.7508;
23.7000;0.8490;0.7557;
24.0000;0.8506;0.7557;
24.3000;0.8514;0.7557;
24.6000;0.8498;0.7532;
24.9000;0.8523;0.7581;
25.2000;0.8498;0.7459;
25.5000;0.8506;0.7508;
25.8000;0.8482;0.7435;
26.1000;0.8498;0.7484;
26.4000;0.8490;0.7459;
26.7000;0.8514;0.7484;
27.0000;0.8490;0.7484;
27.3000;0.8490;0.7435;
27.6000;0.8498;0.7484;
27.9000;0.8498;0.7459;
28.2000;0.8474;0.7337;
28.5000;0.8514;0.7508;
28.8000;0.8547;0.7557;
29.1000;0.8555;0.7508;
29.4000;0.8531;0.7484;
29.7000;0.8506;0.7435;
30.0000;0.8547;0.7557;
30.3000;0.8523;0.7508;
30.6000;0.8539;0.7484;
30.9000;0.8490;0.7362;
31.2000;0.8498;0.7313;
31.5000;0.8547;0.7410;
31.8000;0.8482;0.7386;
32.1000;0.8596;0.7557;
32.4000;0.8555;0.7459;
32.7000;0.8547;0.7459;
33.0000;0.8514;0.7484;
33.3000;0.8539;0.7581;
33.6000;0.8547;0.7605;
33.9000;0.8523;0.7630;
34.2000;0.8547;0.7630;
34.5000;0.8539;0.7557;
34.8000;0.8547;0.7581;
35.1000;0.8531;0.7630;
35.4000;0.8539;0.7654;
35.7000;0.8539;0.7630;
36.0000;0.8539;0.7630;
36.3000;0.8539;0.7679;
36.6000;0.8523;0.7654;
36.9000;0.8490;0.7581;
37.2000;0.8474;0.7581;
37.5000;0.8612;0.7874;
37.8000;0.8580;0.7752;
38.1000;0.8523;0.7532;
38.4000;0.8523;0.7557;
38.7000;0.8555;0.7581;
39.0000;0.8555;0.7654;
39.3000;0.8531;0.7557;
39.6000;0.8547;0.7532;
39.9000;0.8555;0.7605;
40.2000;0.8571;0.7630;
40.5000;0.8547;0.7654;
40.8000;0.8547;0.7703;
41.1000;0.8596;0.7801;
41.4000;0.8539;0.7752;
41.7000;0.8580;0.7874;
42.0000;0.8514;0.7654;
42.3000;0.8596;0.7801;
42.6000;0.8539;0.7581;
42.9000;0.8531;0.7532;
43.2000;0.8539;0.7605;
43.5000;0.8547;0.7679;
43.8000;0.8547;0.7776;
44.1000;0.8555;0.7679;
44.4000;0.8539;0.7605;
44.7000;0.8523;0.7557;
45.0000;0.8523;0.7630;
45.3000;0.8539;0.7654;
45.6000;0.8514;0.7581;
45.9000;0.8531;0.7581;
46.2000;0.8514;0.7679;
46.5000;0.8531;0.7654;
46.8000;0.8514;0.7727;
47.1000;0.8523;0.7703;
47.4000;0.8490;0.7630;
47.7000;0.8531;0.7776;
48.0000;0.8523;0.7727;
48.3000;0.8612;0.7874;
48.6000;0.8547;0.7630;
48.9000;0.8531;0.7532;
49.2000;0.8531;0.7581;
49.5000;0.8523;0.7508;
49.8000;0.8539;0.7605;
50.1000;0.8555;0.7630;
50.4000;0.8539;0.7605;
50.7000;0.8539;0.7557;
51.0000;0.8547;0.7605;
51.3000;0.8531;0.7557;
51.6000;0.8555;0.7630;
51.9000;0.8547;0.7581;
52.2000;0.8547;0.7557;
52.5000;0.8531;0.7557;
52.8000;0.8531;0.7508;
53.1000;0.8539;0.7508;
53.4000;0.8580;0.7557;
53.7000;0.8539;0.7362;
54.0000;0.8547;0.7484;
54.3000;0.8547;0.7459;
54.6000;0.8539;0.7435;
54.9000;0.8547;0.7484;
55.2000;0.8539;0.7484;
55.5000;0.8547;0.7484;
55.8000;0.8514;0.7484;
56.1000;0.8506;0.7484;
56.4000;0.8539;0.7557;
56.7000;0.8539;0.7605;
57.0000;0.8514;0.7557;
57.3000;0.8531;0.7557;
57.6000;0.8539;0.7581;
57.9000;0.8547;0.7630;
58.2000;0.8547;0.7654;
58.5000;0.8547;0.7630;
58.8000;0.8514;0.7630;
59.1000;0.8523;0.7605;
59.4000;0.8555;0.7654;
59.7000;0.8539;0.7532;
60.0000;0.8539;0.7532;
60.3000;0.8531;0.7508;
60.6000;0.8555;0.7557;
60.9000;0.8539;0.7605;
61.2000;0.8523;0.7459;
61.5000;0.8580;0.7605;
61.8000;0.8514;0.7484;
62.1000;0.8531;0.7605;
62.4000;0.8506;0.7484;
62.7000;0.8563;0.7557;
63.0000;0.8596;0.7703;
63.3000;0.8555;0.7630;
63.6000;0.8539;0.7679;
63.9000;0.8555;0.7727;
64.2000;0.8563;0.7776;
64.5000;0.8555;0.7703;
64.8000;0.8563;0.7654;
65.1000;0.8547;0.7581;
65.4000;0.8571;0.7630;
65.7000;0.8596;0.7727;
66.0000;0.8580;0.7703;
66.3000;0.8539;0.7630;
66.6000;0.8555;0.7410;
66.9000;0.8531;0.7362;
67.2000;0.8539;0.7557;
67.5000;0.8539;0.7557;
67.8000;0.8555;0.7557;
68.1000;0.8580;0.7679;
68.4000;0.8555;0.7581;
68.7000;0.8531;0.7508;
69.0000;0.8547;0.7532;
69.3000;0.8563;0.7605;
69.6000;0.8547;0.7630;
69.9000;0.8547;0.7581;
70.2000;0.8514;0.7605;
70.5000;0.8498;0.7557;
70.8000;0.8433;0.7410;
71.1000;0.8514;0.7557;
71.4000;0.8547;0.7508;
71.7000;0.8523;0.7410;
72.0000;0.8539;0.7386;
72.3000;0.8547;0.7459;
72.6000;0.8531;0.7435;
72.9000;0.8539;0.7410;
73.2000;0.8539;0.7410;
73.5000;0.8547;0.7484;
73.8000;0.8531;0.7484;
74.1000;0.8555;0.7508;
74.4000;0.8531;0.7435;
74.7000;0.8563;0.7459;
75.0000;0.8539;0.7435;
75.3000;0.8539;0.7459;
75.6000;0.8563;0.7484;
75.9000;0.8571;0.7484;
76.2000;0.8539;0.7459;
76.5000;0.8547;0.7484;
76.8000;0.8571;0.7532;
77.1000;0.8555;0.7581;
77.4000;0.8531;0.7459;
77.7000;0.8539;0.7484;
78.0000;0.8547;0.7410;
78.3000;0.8547;0.7532;
78.6000;0.8539;0.7557;
78.9000;0.8563;0.7581;
79.2000;0.8547;0.7532;
79.5000;0.8571;0.7581;
79.8000;0.8547;0.7484;
80.1000;0.8555;0.7484;
80.4000;0.8547;0.7484;
80.7000;0.8563;0.7484;
81.0000;0.8490;0.7313;
81.3000;0.8563;0.7484;
81.6000;0.8555;0.7484;
81.9000;0.8531;0.7362;
82.2000;0.8531;0.7386;
82.5000;0.8547;0.7362;
82.8000;0.8547;0.7557;
83.1000;0.8539;0.7508;
83.4000;0.8547;0.7484;
83.7000;0.8531;0.7484;
84.0000;0.8539;0.7508;
84.3000;0.8547;0.7532;
84.6000;0.8555;0.7605;
84.9000;0.8531;0.7581;
85.2000;0.8539;0.7581;
85.5000;0.8523;0.7605;
85.8000;0.8563;0.7801;
86.1000;0.8547;0.7776;
86.4000;0.8539;0.7727;
86.7000;0.8563;0.7727;
87.0000;0.8523;0.7679;
87.3000;0.8547;0.7679;
87.6000;0.8539;0.7654;
87.9000;0.8571;0.7752;
88.2000;0.8539;0.7654;
88.5000;0.8539;0.7532;
88.8000;0.8547;0.7557;
89.1000;0.8539;0.7654;
89.4000;0.8523;0.7630;
89.7000;0.8539;0.7727;
90.0000;0.8539;0.7752;
90.3000;0.8531;0.7752;
90.6000;0.8555;0.7679;
90.9000;0.8531;0.7532;
91.2000;0.8547;0.7605;
91.5000;0.8539;0.7605;
91.8000;0.8531;0.7654;
92.1000;0.8531;0.7630;
92.4000;0.8523;0.7484;
92.7000;0.8531;0.7484;
93.0000;0.8547;0.7508;
93.3000;0.8523;0.7410;
93.6000;0.8531;0.7508;
93.9000;0.8531;0.7435;
94.2000;0.8506;0.7410;
94.5000;0.8514;0.7386;
94.8000;0.8514;0.7435;
95.1000;0.8547;0.7508;
95.4000;0.8580;0.7557;
95.7000;0.8628;0.7605;
96.0000;0.8547;0.7459;
96.3000;0.8547;0.7532;
96.6000;0.8514;0.7435;
96.9000;0.8514;0.7484;
97.2000;0.8449;0.7313;
97.5000;0.8506;0.7532;
97.8000;0.8531;0.7532;
98.1000;0.8539;0.7435;
98.4000;0.8531;0.7435;
98.7000;0.8645;0.7776;
99.0000;0.8539;0.7508;
99.3000;0.8531;0.7508;
99.6000;0.8539;0.7484;
99.9000;0.8555;0.7557;
100.2000;0.8531;0.7557;
100.5000;0.8604;0.7654;
100.8000;0.8547;0.7484;
101.1000;0.8563;0.7459;
101.4000;0.8547;0.7386;
101.7000;0.8539;0.7435;
102.0000;0.8563;0.7508;
102.3000;0.8547;0.7484;
102.6000;0.8514;0.7484;
102.9000;0.8531;0.7630;
103.2000;0.8490;0.7532;
103.5000;0.8531;0.7630;
103.8000;0.8449;0.7362;
104.1000;0.8571;0.7654;
104.4000;0.8539;0.7484;
104.7000;0.8539;0.7532;
105.0000;0.8506;0.7362;
105.3000;0.8531;0.7459;
105.6000;0.8539;0.7557;
105.9000;0.8474;0.7459;
106.2000;0.8555;0.7557;
106.5000;0.8531;0.7459;
106.8000;0.8563;0.7508;
107.1000;0.8531;0.7386;
107.4000;0.8539;0.7435;
107.7000;0.8514;0.7362;
108.0000;0.8514;0.7484;
108.3000;0.8474;0.7435;
108.6000;0.8457;0.7362;
108.9000;0.8628;0.7874;
109.2000;0.8523;0.7532;
109.5000;0.8514;0.7362;
109.8000;0.8547;0.7362;
110.1000;0.8547;0.7362;
110.4000;0.8547;0.7410;
110.7000;0.8555;0.7459;
111.0000;0.8555;0.7410;
111.3000;0.8580;0.7410;
111.6000;0.8555;0.7313;
111.9000;0.8531;0.7240;
112.2000;0.8523;0.7289;
112.5000;0.8539;0.7289;
112.8000;0.8523;0.7337;
113.1000;0.8547;0.7435;
113.4000;0.8563;0.7435;
113.7000;0.8547;0.7313;
114.0000;0.8547;0.7240;
114.3000;0.8547;0.7264;
114.6000;0.8539;0.7289;
114.9000;0.8531;0.7313;
115.2000;0.8547;0.7337;
115.5000;0.8555;0.7410;
115.8000;0.8539;0.7362;
116.1000;0.8514;0.7289;
116.4000;0.8523;0.7313;
116.7000;0.8539;0.7362;
117.0000;0.8588;0.7508;
117.3000;0.8571;0.7435;
117.6000;0.8539;0.7362;
117.9000;0.8523;0.7337;
118.2000;0.8539;0.7386;
118.5000;0.8441;0.7167;
118.8000;0.8539;0.7484;
119.1000;0.8531;0.7532;
119.4000;0.8523;0.7508;
119.7000;0.8498;0.7410;
120.0000;0.8531;0.7532;
120.3000;0.8539;0.7508;
120.6000;0.8588;0.7459;
120.9000;0.8588;0.7459;
121.2000;0.8547;0.7337;
121.5000;0.8555;0.7435;
121.8000;0.8596;0.7557;
122.1000;0.8547;0.7484;
122.4000;0.8523;0.7410;
122.7000;0.8523;0.7362;
123.0000;0.8547;0.7410;
123.3000;0.8531;0.7459;
123.6000;0.8506;0.7435;
123.9000;0.8547;0.7508;
124.2000;0.8531;0.7459;
124.5000;0.8531;0.7508;
124.8000;0.8628;0.7825;
125.1000;0.8506;0.7557;
125.4000;0.8531;0.7557;
125.7000;0.8531;0.7508;
126.0000;0.8539;0.7484;
126.3000;0.8555;0.7508;
126.6000;0.8531;0.7459;
126.9000;0.8555;0.7508;
127.2000;0.8523;0.7484;
127.5000;0.8555;0.7459;
127.8000;0.8547;0.7386;
128.1000;0.8474;0.7167;
128.4000;0.8506;0.7337;
128.7000;0.8563;0.7337;
129.0000;0.8506;0.7191;
129.3000;0.8482;0.7289;
129.6000;0.8531;0.7435;
129.9000;0.8498;0.7313;
130.2000;0.8523;0.7337;
130.5000;0.8555;0.7313;
130.8000;0.8547;0.7313;
131.1000;0.8514;0.7240;
131.4000;0.8555;0.7289;
131.7000;0.8547;0.7386;
132.0000;0.8547;0.7337;
132.3000;0.8547;0.7362;
132.6000;0.8531;0.7410;
132.9000;0.8531;0.7435;
133.2000;0.8539;0.7581;
133.5000;0.8555;0.7630;
133.8000;0.8531;0.7532;
134.1000;0.8547;0.7484;
134.4000;0.8547;0.7532;
134.7000;0.8531;0.7508;
135.0000;0.8547;0.7459;
135.3000;0.8547;0.7484;
135.6000;0.8563;0.7435;
135.9000;0.8514;0.7362;
136.2000;0.8547;0.7459;
136.5000;0.8523;0.7435;
136.8000;0.8547;0.7508;
137.1000;0.8523;0.7508;
137.4000;0.8523;0.7532;
137.7000;0.8514;0.7484;
138.0000;0.8547;0.7605;
138.3000;0.8523;0.7605;
138.6000;0.8523;0.7532;
138.9000;0.8523;0.7532;
139.2000;0.8580;0.7654;
139.5000;0.8555;0.7654;
139.8000;0.8547;0.7654;
140.1000;0.8514;0.7605;
140.4000;0.8531;0.7532;
140.7000;0.8547;0.7508;
141.0000;0.8555;0.7532;
141.3000;0.8506;0.7386;
141.6000;0.8523;0.7459;
141.9000;0.8547;0.7532;
142.2000;0.8506;0.7435;
142.5000;0.8523;0.7508;
142.8000;0.8523;0.7557;
143.1000;0.8531;0.7630;
143.4000;0.8612;0.7825;
143.7000;0.8523;0.7630;
144.0000;0.8506;0.7605;
144.3000;0.8474;0.7508;
144.6000;0.8539;0.7654;
144.9000;0.8514;0.7557;
145.2000;0.8514;0.7581;
145.5000;0.8547;0.7605;
145.8000;0.8555;0.7605;
146.1000;0.8547;0.7581;
146.4000;0.8571;0.7605;
146.7000;0.8539;0.7532;
147.0000;0.8555;0.7557;
147.3000;0.8531;0.7532;
147.6000;0.8539;0.7557;
147.9000;0.8539;0.7605;
148.2000;0.8547;0.7630;
148.5000;0.8539;0.7679;
148.8000;0.8523;0.7605;
149.1000;0.8514;0.7630;
149.4000;0.8539;0.7654;
149.7000;0.8539;0.7654;
150.0000;0.8523;0.7605;
150.3000;0.8539;0.7581;
150.6000;0.8523;0.7532;
150.9000;0.8539;0.7557;
151.2000;0.8482;0.7484;
151.5000;0.8539;0.7654;
151.8000;0.8588;0.7776;
152.1000;0.8571;0.7801;
152.4000;0.8531;0.7727;
152.7000;0.8531;0.7703;
153.0000;0.8539;0.7679;
153.3000;0.8539;0.7630;
153.6000;0.8523;0.7557;
153.9000;0.8539;0.7654;
154.2000;0.8482;0.7459;
154.5000;0.8531;0.7532;
154.8000;0.8539;0.7605;
155.1000;0.8506;0.7581;
155.4000;0.8531;0.7727;
155.7000;0.8539;0.7727;
156.0000;0.8539;0.7801;
156.3000;0.8523;0.7752;
156.6000;0.8523;0.7849;
156.9000;0.8539;0.7922;
157.2000;0.8539;0.7996;
157.5000;0.8523;0.7898;
157.8000;0.8523;0.7727;
158.1000;0.8523;0.7703;
158.4000;0.8563;0.7679;
158.7000;0.8531;0.7532;
159.0000;0.8490;0.7459;
159.3000;0.8555;0.7557;
159.6000;0.8523;0.7508;
159.9000;0.8604;0.7679;
160.2000;0.8563;0.7605;
160.5000;0.8523;0.7508;
160.8000;0.8523;0.7557;
161.1000;0.8547;0.7605;
161.4000;0.8531;0.7508;
161.7000;0.8531;0.7362;
162.0000;0.8539;0.7362;
162.3000;0.8498;0.7264;
162.6000;0.8531;0.7313;
162.9000;0.8506;0.7337;
163.2000;0.8563;0.7484;
163.5000;0.8514;0.7459;
163.8000;0.8555;0.7532;
164.1000;0.8547;0.7435;
164.4000;0.8531;0.7410;
164.7000;0.8580;0.7557;
165.0000;0.8539;0.7435;
165.3000;0.8555;0.7410;
165.6000;0.8514;0.7337;
165.9000;0.8523;0.7362;
166.2000;0.8433;0.7215;
166.5000;0.8539;0.7532;
166.8000;0.8466;0.7386;
167.1000;0.8531;0.7557;
167.4000;0.8523;0.7557;
167.7000;0.8514;0.7557;
168.0000;0.8506;0.7362;
168.3000;0.8498;0.7362;
168.6000;0.8539;0.7508;
168.9000;0.8531;0.7508;
169.2000;0.8506;0.7532;
169.5000;0.8514;0.7581;
169.8000;0.8531;0.7630;
170.1000;0.8539;0.7654;
170.4000;0.8539;0.7654;
170.7000;0.8531;0.7654;
171.0000;0.8547;0.7630;
171.3000;0.8539;0.7605;
171.6000;0.8523;0.7654;
171.9000;0.8539;0.7776;
172.2000;0.8531;0.7776;
172.5000;0.8523;0.7703;
172.8000;0.8449;0.7435;
173.1000;0.8523;0.7727;
173.4000;0.8482;0.7654;
173.7000;0.8531;0.7752;
174.0000;0.8531;0.7825;
174.3000;0.8523;0.7776;
174.6000;0.8637;0.8117;
174.9000;0.8547;0.7947;
175.2000;0.8539;0.7874;
175.5000;0.8547;0.7898;
175.8000;0.8531;0.7801;
176.1000;0.8523;0.7825;
176.4000;0.8531;0.7874;
176.7000;0.8523;0.7849;
177.0000;0.8523;0.7776;
177.3000;0.8482;0.7581;
177.6000;0.8547;0.7727;
177.9000;0.8457;0.7605;
178.2000;0.8563;0.7825;
178.5000;0.8482;0.7605;
178.8000;0.8531;0.7605;
179.1000;0.8506;0.7508;
179.4000;0.8514;0.7557;
179.7000;0.8506;0.7630;
180.0000;0.8482;0.7508;
180.3000;0.8523;0.7532;
180.6000;0.8523;0.7459;
180.9000;0.8482;0.7386;
181.2000;0.8539;0.7605;
181.5000;0.8531;0.7557;
181.8000;0.8506;0.7410;
182.1000;0.8514;0.7508;
182.4000;0.8531;0.7532;
182.7000;0.8539;0.7557;
183.0000;0.8523;0.7557;
183.3000;0.8514;0.7630;
183.6000;0.8506;0.7679;
183.9000;0.8523;0.7752;
184.2000;0.8506;0.7679;
184.5000;0.8523;0.7703;
184.8000;0.8514;0.7654;
185.1000;0.8523;0.7654;
185.4000;0.8539;0.7630;
185.7000;0.8539;0.7532;
186.0000;0.8523;0.7459;
186.3000;0.8531;0.7557;
186.6000;0.8539;0.7630;
186.9000;0.8523;0.7630;
187.2000;0.8514;0.7581;
187.5000;0.8514;0.7605;
187.8000;0.8531;0.7703;
188.1000;0.8514;0.7630;
188.4000;0.8506;0.7557;
188.7000;0.8531;0.7581;
189.0000;0.8514;0.7557;
189.3000;0.8523;0.7581;
189.6000;0.8498;0.7508;
189.9000;0.8506;0.7557;
190.2000;0.8531;0.7581;
190.5000;0.8523;0.7581;
190.8000;0.8514;0.7484;
191.1000;0.8531;0.7508;
191.4000;0.8531;0.7581;
191.7000;0.8531;0.7557;
192.0000;0.8539;0.7679;
192.3000;0.8514;0.7654;
192.6000;0.8514;0.7679;
192.9000;0.8523;0.7752;
193.2000;0.8449;0.7508;
193.5000;0.8449;0.7410;
193.8000;0.8531;0.7654;
194.1000;0.8547;0.7557;
194.4000;0.8523;0.7605;
194.7000;0.8523;0.7654;
195.0000;0.8571;0.7849;
195.3000;0.8531;0.7654;
195.6000;0.8531;0.7630;
195.9000;0.8498;0.7581;
196.2000;0.8531;0.7776;
196.5000;0.8514;0.7654;
196.8000;0.8498;0.7605;
197.1000;0.8539;0.7727;
197.4000;0.8490;0.7654;
197.7000;0.8506;0.7752;
198.0000;0.8563;0.7801;
198.3000;0.8539;0.7630;
198.6000;0.8498;0.7459;
198.9000;0.8506;0.7484;
199.2000;0.8531;0.7605;
199.5000;0.8466;0.7484;
199.8000;0.8531;0.7679;
200.1000;0.8547;0.7679;
200.4000;0.8531;0.7630;
200.7000;0.8441;0.7435;
201.0000;0.8498;0.7557;
201.3000;0.8539;0.7679;
201.6000;0.8539;0.7654;
201.9000;0.8441;0.7337;
202.2000;0.8539;0.7630;
202.5000;0.8588;0.7801;
202.8000;0.8523;0.7605;
203.1000;0.8498;0.7508;
203.4000;0.8482;0.7386;
203.7000;0.8514;0.7435;
204.0000;0.8563;0.7532;
204.3000;0.8490;0.7459;
204.6000;0.8563;0.7581;
204.9000;0.8457;0.7362;
205.2000;0.8506;0.7484;
205.5000;0.8506;0.7508;
205.8000;0.8539;0.7630;
206.1000;0.8490;0.7532;
206.4000;0.8506;0.7605;
206.7000;0.8531;0.7679;
207.0000;0.8547;0.7679;
207.3000;0.8523;0.7605;
207.6000;0.8506;0.7581;
207.9000;0.8506;0.7581;
208.2000;0.8514;0.7581;
208.5000;0.8531;0.7703;
208.8000;0.8506;0.7630;
209.1000;0.8531;0.7703;
209.4000;0.8523;0.7654;
209.7000;0.8523;0.7679;
210.0000;0.8506;0.7605;
210.3000;0.8514;0.7508;
210.6000;0.8498;0.7484;
210.9000;0.8523;0.7508;
211.2000;0.8490;0.7435;
211.5000;0.8514;0.7484;
211.8000;0.8612;0.7703;
212.1000;0.8531;0.7508;
212.4000;0.8531;0.7581;
212.7000;0.8490;0.7410;
213.0000;0.8523;0.7484;
213.3000;0.8490;0.7362;
213.6000;0.8514;0.7362;
213.9000;0.8506;0.7459;
214.2000;0.8425;0.7240;
214.5000;0.8498;0.7410;
214.8000;0.8523;0.7435;
215.1000;0.8506;0.7410;
215.4000;0.8539;0.7484;
215.7000;0.8539;0.7508;
216.0000;0.8523;0.7508;
216.3000;0.8523;0.7459;
216.6000;0.8531;0.7484;
216.9000;0.8539;0.7532;
217.2000;0.8539;0.7532;
217.5000;0.8539;0.7557;
217.8000;0.8531;0.7605;
218.1000;0.8547;0.7654;
218.4000;0.8547;0.7630;
218.7000;0.8523;0.7581;
219.0000;0.8531;0.7630;
219.3000;0.8514;0.7532;
219.6000;0.8531;0.7484;
219.9000;0.8514;0.7484;
220.2000;0.8506;0.7484;
220.5000;0.8523;0.7459;
220.8000;0.8547;0.7508;
221.1000;0.8547;0.7508;
221.4000;0.8531;0.7581;
221.7000;0.8523;0.7532;
222.0000;0.8547;0.7605;
222.3000;0.8531;0.7581;
222.6000;0.8523;0.7581;
222.9000;0.8506;0.7581;
223.2000;0.8539;0.7727;
223.5000;0.8498;0.7679;
223.8000;0.8523;0.7679;
224.1000;0.8449;0.7484;
224.4000;0.8514;0.7630;
224.7000;0.8523;0.7605;
225.0000;0.8506;0.7630;
225.3000;0.8514;0.7581;
225.6000;0.8506;0.7605;
225.9000;0.8498;0.7557;
226.2000;0.8523;0.7605;
226.5000;0.8506;0.7557;
226.8000;0.8506;0.7605;
227.1000;0.8571;0.7679;
227.4000;0.8523;0.7581;
227.7000;0.8555;0.7630;
228.0000;0.8523;0.7557;
228.3000;0.8523;0.7508;
228.6000;0.8588;0.7630;
228.9000;0.8506;0.7386;
229.2000;0.8498;0.7313;
229.5000;0.8523;0.7386;
229.8000;0.8514;0.7386;
230.1000;0.8563;0.7605;
230.4000;0.8523;0.7386;
230.7000;0.8474;0.7313;
231.0000;0.8523;0.7386;
231.3000;0.8531;0.7484;
231.6000;0.8523;0.7410;
231.9000;0.8523;0.7435;
232.2000;0.8523;0.7532;
232.5000;0.8514;0.7435;
232.8000;0.8539;0.7484;
233.1000;0.8514;0.7508;
233.4000;0.8514;0.7557;
233.7000;0.8523;0.7630;
234.0000;0.8539;0.7654;
234.3000;0.8506;0.7581;
234.6000;0.8531;0.7630;
234.9000;0.8531;0.7557;
235.2000;0.8514;0.7459;
235.5000;0.8506;0.7435;
235.8000;0.8523;0.7484;
236.1000;0.8539;0.7605;
236.4000;0.8523;0.7581;
236.7000;0.8514;0.7532;
237.0000;0.8514;0.7508;
237.3000;0.8490;0.7484;
237.6000;0.8523;0.7605;
237.9000;0.8466;0.7581;
238.2000;0.8506;0.7630;
238.5000;0.8523;0.7581;
238.8000;0.8523;0.7508;
239.1000;0.8531;0.7508;
239.4000;0.8514;0.7484;
239.7000;0.8514;0.7410;
240.0000;0.8531;0.7532;
240.3000;0.8514;0.7605;
240.6000;0.8523;0.7532;
240.9000;0.8523;0.7532;
241.2000;0.8539;0.7557;
241.5000;0.8539;0.7508;
241.8000;0.8523;0.7581;
242.1000;0.8547;0.7752;
242.4000;0.8531;0.7703;
242.7000;0.8514;0.7679;
243.0000;0.8523;0.7630;
243.3000;0.8523;0.7581;
243.6000;0.8531;0.7508;
243.9000;0.8523;0.7459;
244.2000;0.8498;0.7337;
244.5000;0.8523;0.7362;
244.8000;0.8506;0.7410;
245.1000;0.8490;0.7459;
245.4000;0.8580;0.7605;
245.7000;0.8523;0.7484;
246.0000;0.8506;0.7435;
246.3000;0.8523;0.7508;
246.6000;0.8539;0.7581;
246.9000;0.8531;0.7679;
247.2000;0.8466;0.7557;
247.5000;0.8523;0.7605;
247.8000;0.8531;0.7630;
248.1000;0.8514;0.7557;
248.4000;0.8482;0.7581;
248.7000;0.8523;0.7654;
249.0000;0.8563;0.7630;
249.3000;0.8498;0.7459;
249.6000;0.8514;0.7508;
249.9000;0.8514;0.7557;
250.2000;0.8523;0.7532;
250.5000;0.8514;0.7508;
250.8000;0.8523;0.7459;
251.1000;0.8523;0.7484;
251.4000;0.8523;0.7605;
251.7000;0.8514;0.7532;
252.0000;0.8514;0.7581;
252.3000;0.8539;0.7605;
252.6000;0.8531;0.7581;
252.9000;0.8523;0.7630;
253.2000;0.8514;0.7581;
253.5000;0.8514;0.7605;
253.8000;0.8498;0.7557;
254.1000;0.8523;0.7581;
254.4000;0.8514;0.7508;
254.7000;0.8514;0.7484;
255.0000;0.8498;0.7508;
255.3000;0.8498;0.7484;
255.6000;0.8531;0.7484;
255.9000;0.8514;0.7484;
256.2000;0.8539;0.7581;
256.5000;0.8506;0.7557;
256.8000;0.8490;0.7410;
257.1000;0.8514;0.7484;
257.4000;0.8498;0.7484;
257.7000;0.8580;0.7727;
258.0000;0.8506;0.7557;
258.3000;0.8457;0.7410;
258.6000;0.8506;0.7532;
258.9000;0.8531;0.7605;
259.2000;0.8498;0.7508;
259.5000;0.8482;0.7581;
259.8000;0.8506;0.7654;
260.1000;0.8498;0.7557;
260.4000;0.8506;0.7557;
260.7000;0.8506;0.7532;
261.0000;0.8514;0.7459;
261.3000;0.8514;0.7508;
261.6000;0.8580;0.7679;
261.9000;0.8506;0.7532;
262.2000;0.8571;0.7727;
262.5000;0.8482;0.7484;
262.8000;0.8514;0.7532;
263.1000;0.8506;0.7484;
263.4000;0.8514;0.7557;
263.7000;0.8523;0.7581;
264.0000;0.8482;0.7484;
264.3000;0.8620;0.7776;
264.6000;0.8531;0.7605;
264.9000;0.8498;0.7605;
265.2000;0.8531;0.7630;
265.5000;0.8539;0.7679;
265.8000;0.8506;0.7679;
266.1000;0.8498;0.7679;
266.4000;0.8514;0.7630;
266.7000;0.8531;0.7776;
267.0000;0.8482;0.7654;
267.3000;0.8506;0.7752;
267.6000;0.8555;0.7947;
267.9000;0.8506;0.7825;
268.2000;0.8523;0.7752;
268.5000;0.8506;0.7679;
268.8000;0.8498;0.7727;
269.1000;0.8523;0.7801;
269.4000;0.8490;0.7679;
269.7000;0.8474;0.7630;
270.0000;0.8490;0.7630;
270.3000;0.8498;0.7654;
270.6000;0.8531;0.7801;
270.9000;0.8490;0.7679;
271.2000;0.8506;0.7654;
271.5000;0.8498;0.7654;
271.8000;0.8531;0.7752;
272.1000;0.8531;0.7703;
272.4000;0.8506;0.7630;
272.7000;0.8514;0.7679;
273.0000;0.8563;0.7630;
273.3000;0.8514;0.7557;
273.6000;0.8514;0.7581;
273.9000;0.8523;0.7605;
274.2000;0.8523;0.7581;
274.5000;0.8523;0.7630;
274.8000;0.8490;0.7581;
275.1000;0.8523;0.7679;
275.4000;0.8514;0.7679;
275.7000;0.8514;0.7679;
276.0000;0.8482;0.7605;
276.3000;0.8490;0.7605;
276.6000;0.8506;0.7654;
276.9000;0.8514;0.7581;
277.2000;0.8531;0.7605;
277.5000;0.8498;0.7605;
277.8000;0.8498;0.7605;
278.1000;0.8506;0.7605;
278.4000;0.8506;0.7703;
278.7000;0.8555;0.7849;
279.0000;0.8490;0.7801;
279.3000;0.8514;0.7752;
279.6000;0.8498;0.7752;
279.9000;0.8563;0.7898;
280.2000;0.8482;0.7752;
280.5000;0.8506;0.7825;
280.8000;0.8588;0.8142;
281.1000;0.8482;0.7996;
281.4000;0.8490;0.7971;
281.7000;0.8514;0.8020;
282.0000;0.8506;0.7971;
282.3000;0.8498;0.7922;
282.6000;0.8490;0.7776;
282.9000;0.8482;0.7703;
283.2000;0.8523;0.7874;
283.5000;0.8490;0.7801;
283.8000;0.8523;0.7874;
284.1000;0.8498;0.7874;
284.4000;0.8539;0.8020;
284.7000;0.8498;0.7898;
285.0000;0.8482;0.7898;
285.3000;0.8466;0.7874;
285.6000;0.8514;0.7922;
285.9000;0.8506;0.7849;
286.2000;0.8506;0.7922;
286.5000;0.8514;0.7971;
286.8000;0.8531;0.8020;
287.1000;0.8514;0.7947;
287.4000;0.8514;0.7922;
287.7000;0.8506;0.7922;
288.0000;0.8498;0.7898;
288.3000;0.8523;0.7947;
288.6000;0.8506;0.7922;
288.9000;0.8498;0.7874;
289.2000;0.8498;0.7801;
289.5000;0.8506;0.7801;
289.8000;0.8506;0.7776;
290.1000;0.8498;0.7727;
290.4000;0.8506;0.7776;
290.7000;0.8523;0.7703;
291.0000;0.8490;0.7679;
291.3000;0.8498;0.7630;
291.6000;0.8506;0.7508;
291.9000;0.8498;0.7581;
292.2000;0.8506;0.7605;
292.5000;0.8506;0.7630;
292.8000;0.8514;0.7654;
293.1000;0.8506;0.7630;
293.4000;0.8506;0.7679;
293.7000;0.8506;0.7605;
294.0000;0.8539;0.7727;
294.3000;0.8506;0.7703;
294.6000;0.8523;0.7727;
294.9000;0.8547;0.7752;
295.2000;0.8490;0.7679;
295.5000;0.8466;0.7630;
295.8000;0.8506;0.7727;
296.1000;0.8514;0.7727;
296.4000;0.8523;0.7654;
296.7000;0.8514;0.7654;
297.0000;0.8466;0.7654;
297.3000;0.8531;0.7825;
297.6000;0.8514;0.7679;
297.9000;0.8523;0.7703;
298.2000;0.8514;0.7703;
298.5000;0.8441;0.7508;
298.8000;0.8514;0.7703;
299.1000;0.8490;0.7654;
299.4000;0.8498;0.7752;
299.7000;0.8514;0.7776;
300.0000;0.8555;0.7898;
300.3000;0.8506;0.7752;
300.6000;0.8482;0.7703;
300.9000;0.8506;0.7679;
301.2000;0.8498;0.7703;
301.5000;0.8506;0.7727;
301.8000;0.8498;0.7752;
302.1000;0.8523;0.7825;
302.4000;0.8514;0.7874;
302.7000;0.8580;0.8142;
303.0000;0.8514;0.7971;
303.3000;0.8498;0.7849;
303.6000;0.8523;0.7801;
303.9000;0.8498;0.7727;
304.2000;0.8523;0.7752;
304.5000;0.8506;0.7801;
304.8000;0.8523;0.7874;
305.1000;0.8498;0.7849;
305.4000;0.8514;0.7825;
305.7000;0.8506;0.7752;
306.0000;0.8506;0.7752;
306.3000;0.8490;0.7630;
306.6000;0.8506;0.7605;
306.9000;0.8490;0.7557;
307.2000;0.8539;0.7703;
307.5000;0.8523;0.7703;
307.8000;0.8441;0.7557;
308.1000;0.8498;0.7679;
308.4000;0.8490;0.7654;
308.7000;0.8531;0.7727;
309.0000;0.8498;0.7630;
309.3000;0.8498;0.7703;
309.6000;0.8514;0.7727;
309.9000;0.8523;0.7727;
310.2000;0.8514;0.7727;
310.5000;0.8506;0.7776;
310.8000;0.8514;0.7752;
311.1000;0.8506;0.7752;
311.4000;0.8466;0.7654;
311.7000;0.8514;0.7776;
312.0000;0.8506;0.7752;
312.3000;0.8506;0.7727;
312.6000;0.8498;0.7801;
312.9000;0.8506;0.7801;
313.2000;0.8490;0.7874;
313.5000;0.8482;0.7825;
313.8000;0.8490;0.7849;
314.1000;0.8474;0.7801;
314.4000;0.8457;0.7825;
314.7000;0.8490;0.7922;
315.0000;0.8523;0.7996;
315.3000;0.8498;0.7922;
315.6000;0.8506;0.7947;
315.9000;0.8547;0.7971;
316.2000;0.8523;0.7752;
316.5000;0.8506;0.7605;
316.8000;0.8514;0.7605;
317.1000;0.8498;0.7532;
317.4000;0.8523;0.7532;
317.7000;0.8498;0.7435;
318.0000;0.8531;0.7435;
318.3000;0.8490;0.7362;
318.6000;0.8563;0.7605;
318.9000;0.8506;0.7484;
319.2000;0.8482;0.7532;
319.5000;0.8506;0.7557;
319.8000;0.8506;0.7508;
320.1000;0.8498;0.7581;
320.4000;0.8490;0.7630;
320.7000;0.8506;0.7679;
321.0000;0.8490;0.7654;
321.3000;0.8506;0.7679;
321.6000;0.8514;0.7776;
321.9000;0.8531;0.7801;
322.2000;0.8490;0.7776;
322.5000;0.8490;0.7801;
322.8000;0.8514;0.7849;
323.1000;0.8498;0.7825;
323.4000;0.8498;0.7849;
323.7000;0.8433;0.7630;
324.0000;0.8506;0.7898;
324.3000;0.8498;0.7898;
324.6000;0.8466;0.7776;
324.9000;0.8498;0.7849;
325.2000;0.8498;0.7898;
325.5000;0.8514;0.7801;
325.8000;0.8490;0.7727;
326.1000;0.8498;0.7752;
326.4000;0.8523;0.7874;
326.7000;0.8514;0.7898;
327.0000;0.8506;0.7849;
327.3000;0.8514;0.7776;
327.6000;0.8449;0.7581;
327.9000;0.8490;0.7630;
328.2000;0.8506;0.7679;
328.5000;0.8506;0.7605;
328.8000;0.8490;0.7557;
329.1000;0.8514;0.7654;
329.4000;0.8506;0.7727;
329.7000;0.8457;0.7654;
330.0000;0.8490;0.7752;
330.3000;0.8498;0.7679;
330.6000;0.8490;0.7679;
330.9000;0.8498;0.7727;
331.2000;0.8482;0.7654;
331.5000;0.8523;0.7801;
331.8000;0.8555;0.7922;
332.1000;0.8523;0.7801;
332.4000;0.8409;0.7581;
332.7000;0.8482;0.7727;
333.0000;0.8506;0.7679;
333.3000;0.8482;0.7557;
333.6000;0.8563;0.7727;
333.9000;0.8498;0.7605;
334.2000;0.8506;0.7703;
334.5000;0.8514;0.7679;
334.8000;0.8449;0.7532;
335.1000;0.8490;0.7630;
335.4000;0.8498;0.7752;
335.7000;0.8482;0.7776;
336.0000;0.8466;0.7752;
336.3000;0.8506;0.7776;
336.6000;0.8490;0.7727;
336.9000;0.8449;0.7654;
337.2000;0.8498;0.7801;
337.5000;0.8498;0.7776;
337.8000;0.8506;0.7727;
338.1000;0.8506;0.7776;
338.4000;0.8506;0.7776;
338.7000;0.8555;0.7825;
339.0000;0.8555;0.7776;
339.3000;0.8506;0.7605;
339.6000;0.8523;0.7557;
339.9000;0.8498;0.7557;
340.2000;0.8449;0.7435;
340.5000;0.8482;0.7532;
340.8000;0.8498;0.7508;
341.1000;0.8457;0.7386;
341.4000;0.8482;0.7459;
341.7000;0.8482;0.7484;
342.0000;0.8425;0.7337;
342.3000;0.8498;0.7484;
342.6000;0.8555;0.7703;
342.9000;0.8498;0.7679;
343.2000;0.8514;0.7752;
343.5000;0.8588;0.7947;
343.8000;0.8506;0.7776;
344.1000;0.8490;0.7752;
344.4000;0.8498;0.7825;
344.7000;0.8539;0.7776;
345.0000;0.8514;0.7630;
345.3000;0.8514;0.7679;
345.6000;0.8514;0.7727;
345.9000;0.8482;0.7703;
346.2000;0.8514;0.7679;
346.5000;0.8474;0.7532;
346.8000;0.8474;0.7410;
347.1000;0.8539;0.7679;
347.4000;0.8514;0.7605;
347.7000;0.8506;0.7654;
348.0000;0.8498;0.7703;
348.3000;0.8498;0.7703;
348.6000;0.8514;0.7776;
348.9000;0.8514;0.7825;
349.2000;0.8514;0.7776;
349.5000;0.8514;0.7679;
349.8000;0.8498;0.7605;
350.1000;0.8490;0.7654;
350.4000;0.8474;0.7581;
350.7000;0.8490;0.7581;
351.0000;0.8498;0.7557;
351.3000;0.8474;0.7508;
351.6000;0.8482;0.7386;
351.9000;0.8490;0.7435;
352.2000;0.8474;0.7435;
352.5000;0.8514;0.7532;
352.8000;0.8531;0.7654;
353.1000;0.8498;0.7654;
353.4000;0.8425;0.7630;
353.7000;0.8466;0.7630;
354.0000;0.8490;0.7679;
354.3000;0.8563;0.7776;
354.6000;0.8498;0.7605;
354.9000;0.8498;0.7532;
355.2000;0.8506;0.7679;
355.5000;0.8498;0.7581;
355.8000;0.8490;0.7459;
356.1000;0.8490;0.7508;
356.4000;0.8474;0.7557;
356.7000;0.8498;0.7654;
357.0000;0.8506;0.7654;
357.3000;0.8506;0.7654;
357.6000;0.8498;0.7654;
357.9000;0.8506;0.7557;
358.2000;0.8506;0.7557;
358.5000;0.8506;0.7484;
358.8000;0.8482;0.7557;
359.1000;0.8498;0.7581;
359.4000;0.8514;0.7605;
359.7000;0.8506;0.7581;
360.0000;0.8514;0.7630;
360.3000;0.8498;0.7630;
360.6000;0.8498;0.7679;
360.9000;0.8514;0.7825;
361.2000;0.8490;0.7703;
361.5000;0.8571;0.7801;
361.8000;0.8498;0.7630;
362.1000;0.8498;0.7654;
362.4000;0.8482;0.7703;
362.7000;0.8490;0.7776;
363.0000;0.8506;0.7801;
363.3000;0.8506;0.7825;
363.6000;0.8498;0.7752;
363.9000;0.8490;0.7727;
364.2000;0.8498;0.7776;
364.5000;0.8498;0.7752;
364.8000;0.8514;0.7752;
365.1000;0.8466;0.7703;
365.4000;0.8474;0.7752;
365.7000;0.8506;0.7801;
366.0000;0.8539;0.7922;
366.3000;0.8474;0.7849;
366.6000;0.8482;0.7898;
366.9000;0.8514;0.7922;
367.2000;0.8490;0.7801;
367.5000;0.8506;0.7801;
367.8000;0.8514;0.7801;
368.1000;0.8588;0.7996;
368.4000;0.8531;0.7752;
368.7000;0.8506;0.7654;
369.0000;0.8498;0.7557;
369.3000;0.8514;0.7532;
369.6000;0.8506;0.7532;
369.9000;0.8482;0.7459;
370.2000;0.8506;0.7508;
370.5000;0.8531;0.7557;
370.8000;0.8506;0.7581;
371.1000;0.8588;0.7849;
371.4000;0.8531;0.7679;
371.7000;0.8506;0.7654;
372.0000;0.8498;0.7654;
372.3000;0.8482;0.7630;
372.6000;0.8514;0.7752;
372.9000;0.8449;0.7752;
373.2000;0.8482;0.7825;
373.5000;0.8498;0.7922;
373.8000;0.8555;0.7874;
374.1000;0.8498;0.7679;
374.4000;0.8490;0.7679;
374.7000;0.8506;0.7776;
375.0000;0.8490;0.7776;
375.3000;0.8433;0.7679;
375.6000;0.8490;0.7776;
375.9000;0.8498;0.7776;
376.2000;0.8474;0.7752;
376.5000;0.8490;0.7581;
376.8000;0.8482;0.7605;
377.1000;0.8498;0.7654;
377.4000;0.8498;0.7605;
377.7000;0.8490;0.7532;
378.0000;0.8490;0.7532;
378.3000;0.8482;0.7435;
378.6000;0.8506;0.7532;
378.9000;0.8523;0.7630;
379.2000;0.8514;0.7508;
379.5000;0.8482;0.7459;
379.8000;0.8506;0.7435;
380.1000;0.8482;0.7557;
380.4000;0.8506;0.7508;
380.7000;0.8482;0.7532;
381.0000;0.8474;0.7605;
381.3000;0.8498;0.7654;
381.6000;0.8490;0.7630;
381.9000;0.8466;0.7605;
382.2000;0.8498;0.7727;
382.5000;0.8490;0.7752;
382.8000;0.8482;0.7801;
383.1000;0.8482;0.7727;
383.4000;0.8498;0.7703;
383.7000;0.8506;0.7654;
384.0000;0.8449;0.7484;
384.3000;0.8498;0.7679;
384.6000;0.8482;0.7605;
384.9000;0.8523;0.7801;
385.2000;0.8498;0.7752;
385.5000;0.8498;0.7752;
385.8000;0.8490;0.7630;
386.1000;0.8514;0.7679;
386.4000;0.8490;0.7654;
386.7000;0.8531;0.7801;
387.0000;0.8482;0.7752;
387.3000;0.8490;0.7849;
387.6000;0.8498;0.7776;
387.9000;0.8498;0.7874;
388.2000;0.8490;0.7752;
388.5000;0.8490;0.7752;
388.8000;0.8498;0.7727;
389.1000;0.8506;0.7801;
389.4000;0.8490;0.7752;
389.7000;0.8514;0.7630;
390.0000;0.8523;0.7727;
390.3000;0.8514;0.7654;
390.6000;0.8498;0.7630;
390.9000;0.8482;0.7557;
391.2000;0.8498;0.7557;
391.5000;0.8531;0.7752;
391.8000;0.8490;0.7605;
392.1000;0.8490;0.7557;
392.4000;0.8482;0.7532;
392.7000;0.8433;0.7435;
393.0000;0.8506;0.7630;
393.3000;0.8482;0.7605;
393.6000;0.8563;0.7703;
393.9000;0.8555;0.7801;
394.2000;0.8506;0.7679;
394.5000;0.8506;0.7727;
394.8000;0.8514;0.7776;
395.1000;0.8498;0.7752;
395.4000;0.8498;0.7825;
395.7000;0.8498;0.7825;
396.0000;0.8498;0.7898;
396.3000;0.8498;0.7874;
396.6000;0.8498;0.7874;
396.9000;0.8506;0.7801;
397.2000;0.8506;0.7849;
397.5000;0.8490;0.7727;
397.8000;0.8490;0.7703;
398.1000;0.8490;0.7727;
398.4000;0.8498;0.7727;
398.7000;0.8490;0.7703;
399.0000;0.8490;0.7605;
399.3000;0.8514;0.7581;
399.6000;0.8482;0.7484;
399.9000;0.8498;0.7532;
400.2000;0.8466;0.7508;
400.5000;0.8474;0.7605;
400.8000;0.8482;0.7679;
401.1000;0.8474;0.7679;
401.4000;0.8482;0.7727;
401.7000;0.8457;0.7703;
402.0000;0.8482;0.7801;
402.3000;0.8555;0.7971;
402.6000;0.8490;0.7874;
402.9000;0.8498;0.7898;
403.2000;0.8490;0.7801;
403.5000;0.8498;0.7849;
403.8000;0.8490;0.7874;
404.1000;0.8506;0.7947;
404.4000;0.8498;0.7971;
404.7000;0.8506;0.7947;
405.0000;0.8490;0.7898;
405.3000;0.8506;0.7874;
405.6000;0.8474;0.7776;
405.9000;0.8482;0.7752;
406.2000;0.8490;0.7752;
406.5000;0.8449;0.7630;
406.8000;0.8466;0.7776;
407.1000;0.8498;0.7849;
407.4000;0.8474;0.7703;
407.7000;0.8490;0.7801;
408.0000;0.8498;0.7801;
408.3000;0.8482;0.7801;
408.6000;0.8498;0.7849;
408.9000;0.8490;0.7898;
409.2000;0.8490;0.7922;
409.5000;0.8498;0.7947;
409.8000;0.8490;0.7947;
410.1000;0.8490;0.7898;
410.4000;0.8498;0.7898;
410.7000;0.8490;0.7752;
411.0000;0.8482;0.7727;
411.3000;0.8482;0.7654;
411.6000;0.8482;0.7679;
411.9000;0.8482;0.7727;
412.2000;0.8482;0.7825;
412.5000;0.8490;0.7947;
412.8000;0.8490;0.7898;
413.1000;0.8506;0.7996;
413.4000;0.8539;0.8069;
413.7000;0.8506;0.8044;
414.0000;0.8490;0.7996;
414.3000;0.8514;0.7971;
414.6000;0.8449;0.7849;
414.9000;0.8531;0.8020;
415.2000;0.8498;0.7898;
415.5000;0.8490;0.7825;
415.8000;0.8498;0.7898;
416.1000;0.8482;0.7874;
416.4000;0.8498;0.7874;
416.7000;0.8433;0.7776;
417.0000;0.8482;0.7898;
417.3000;0.8490;0.7922;
417.6000;0.8482;0.7874;
417.9000;0.8498;0.7825;
418.2000;0.8506;0.7898;
418.5000;0.8490;0.7947;
418.8000;0.8506;0.7996;
419.1000;0.8498;0.8069;
419.4000;0.8506;0.7996;
419.7000;0.8523;0.7996;
420.0000;0.8490;0.7947;
420.3000;0.8490;0.7947;
420.6000;0.8498;0.7922;
420.9000;0.8498;0.7947;
421.2000;0.8482;0.7898;
421.5000;0.8498;0.8044;
421.8000;0.8490;0.7947;
422.1000;0.8506;0.7849;
422.4000;0.8498;0.7825;
422.7000;0.8474;0.7776;
423.0000;0.8490;0.7727;
423.3000;0.8441;0.7654;
423.6000;0.8482;0.7679;
423.9000;0.8482;0.7752;
424.2000;0.8498;0.7874;
424.5000;0.8466;0.7825;
424.8000;0.8547;0.7971;
425.1000;0.8482;0.7849;
425.4000;0.8531;0.8044;
425.7000;0.8498;0.7971;
426.0000;0.8474;0.7922;
426.3000;0.8506;0.7996;
426.6000;0.8474;0.7922;
426.9000;0.8490;0.7971;
427.2000;0.8490;0.8044;
427.5000;0.8539;0.8117;
427.8000;0.8514;0.7971;
428.1000;0.8498;0.7971;
428.4000;0.8474;0.7874;
428.7000;0.8490;0.7825;
429.0000;0.8498;0.7849;
429.3000;0.8506;0.7947;
429.6000;0.8498;0.7947;
429.9000;0.8523;0.7898;
430.2000;0.8506;0.7825;
430.5000;0.8523;0.7874;
430.8000;0.8506;0.7874;
431.1000;0.8490;0.7898;
431.4000;0.8490;0.7898;
431.7000;0.8490;0.7947;
432.0000;0.8482;0.7971;
432.3000;0.8498;0.7996;
432.6000;0.8482;0.7971;
432.9000;0.8490;0.7996;
433.2000;0.8498;0.7898;
433.5000;0.8482;0.7849;
433.8000;0.8506;0.7874;
434.1000;0.8506;0.7922;
434.4000;0.8506;0.7849;
434.7000;0.8506;0.7874;
435.0000;0.8571;0.7947;
435.3000;0.8482;0.7874;
435.6000;0.8466;0.7898;
435.9000;0.8506;0.7825;
436.2000;0.8523;0.7801;
436.5000;0.8498;0.7801;
436.8000;0.8466;0.7776;
437.1000;0.8498;0.7898;
437.4000;0.8449;0.7825;
437.7000;0.8498;0.7996;
438.0000;0.8482;0.7971;
438.3000;0.8482;0.7922;
438.6000;0.8490;0.7898;
438.9000;0.8490;0.7849;
439.2000;0.8482;0.7801;
439.5000;0.8490;0.7849;
439.8000;0.8490;0.7849;
440.1000;0.8482;0.7849;
440.4000;0.8457;0.7801;
440.7000;0.8490;0.7874;
441.0000;0.8498;0.7874;
441.3000;0.8490;0.7922;
441.6000;0.8482;0.7898;
441.9000;0.8498;0.7825;
442.2000;0.8482;0.7801;
442.5000;0.8433;0.7630;
442.8000;0.8490;0.7801;
443.1000;0.8506;0.7898;
443.4000;0.8498;0.7922;
443.7000;0.8482;0.7874;
444.0000;0.8482;0.7825;
444.3000;0.8474;0.7801;
444.6000;0.8498;0.7801;
444.9000;0.8490;0.7825;
445.2000;0.8482;0.7874;
445.5000;0.8466;0.7825;
445.8000;0.8531;0.7947;
446.1000;0.8498;0.7825;
446.4000;0.8514;0.7776;
446.7000;0.8400;0.7459;
447.0000;0.8474;0.7605;
447.3000;0.8490;0.7605;
447.6000;0.8498;0.7557;
447.9000;0.8490;0.7557;
448.2000;0.8449;0.7557;
448.5000;0.8482;0.7703;
448.8000;0.8498;0.7727;
449.1000;0.8474;0.7605;
449.4000;0.8474;0.7581;
449.7000;0.8490;0.7630;
450.0000;0.8482;0.7654;
450.3000;0.8490;0.7581;
450.6000;0.8490;0.7484;
450.9000;0.8482;0.7508;
451.2000;0.8506;0.7605;
451.5000;0.8482;0.7557;
451.8000;0.8490;0.7654;
452.1000;0.8482;0.7630;
452.4000;0.8498;0.7630;
452.7000;0.8498;0.7605;
453.0000;0.8506;0.7727;
453.3000;0.8498;0.7703;
453.6000;0.8482;0.7776;
453.9000;0.8490;0.7874;
454.2000;0.8506;0.7922;
454.5000;0.8457;0.7849;
454.8000;0.8490;0.7971;
455.1000;0.8482;0.7801;
455.4000;0.8482;0.7801;
455.7000;0.8490;0.7776;
456.0000;0.8506;0.7801;
456.3000;0.8490;0.7752;
456.6000;0.8498;0.7752;
456.9000;0.8449;0.7630;
457.2000;0.8498;0.7776;
457.5000;0.8506;0.7849;
457.8000;0.8490;0.7825;
458.1000;0.8482;0.7776;
458.4000;0.8490;0.7801;
458.7000;0.8474;0.7752;
459.0000;0.8466;0.7776;
459.3000;0.8482;0.7849;
459.6000;0.8506;0.7849;
459.9000;0.8498;0.7825;
460.2000;0.8580;0.7922;
460.5000;0.8482;0.7703;
460.8000;0.8498;0.7679;
461.1000;0.8498;0.7752;
461.4000;0.8498;0.7825;
461.7000;0.8490;0.7825;
462.0000;0.8490;0.7947;
462.3000;0.8490;0.7874;
462.6000;0.8490;0.7752;
462.9000;0.8490;0.7825;
463.2000;0.8474;0.7703;
463.5000;0.8474;0.7654;
463.8000;0.8474;0.7605;
464.1000;0.8498;0.7605;
464.4000;0.8498;0.7605;
464.7000;0.8482;0.7654;
465.0000;0.8490;0.7703;
465.3000;0.8490;0.7752;
465.6000;0.8490;0.7801;
465.9000;0.8466;0.7679;
466.2000;0.8482;0.7727;
466.5000;0.8514;0.7776;
466.8000;0.8490;0.7654;
467.1000;0.8490;0.7654;
467.4000;0.8506;0.7679;
467.7000;0.8482;0.7679;
468.0000;0.8466;0.7703;
468.3000;0.8449;0.7581;
468.6000;0.8466;0.7630;
468.9000;0.8506;0.7703;
469.2000;0.8482;0.7605;
469.5000;0.8490;0.7679;
469.8000;0.8474;0.7727;
470.1000;0.8482;0.7849;
470.4000;0.8498;0.7849;
470.7000;0.8441;0.7654;
471.0000;0.8474;0.7752;
471.3000;0.8474;0.7776;
471.6000;0.8482;0.7776;
471.9000;0.8384;0.7435;
472.2000;0.8482;0.7679;
472.5000;0.8580;0.7947;
472.8000;0.8457;0.7484;
473.1000;0.8490;0.7484;
473.4000;0.8474;0.7435;
473.7000;0.8474;0.7410;
474.0000;0.8490;0.7459;
474.3000;0.8490;0.7532;
474.6000;0.8498;0.7605;
474.9000;0.8498;0.7630;
475.2000;0.8514;0.7605;
475.5000;0.8498;0.7581;
475.8000;0.8490;0.7605;
476.1000;0.8490;0.7630;
476.4000;0.8474;0.7630;
476.7000;0.8498;0.7654;
477.0000;0.8482;0.7679;
477.3000;0.8482;0.7752;
477.6000;0.8498;0.7776;
477.9000;0.8506;0.7679;
478.2000;0.8482;0.7654;
478.5000;0.8514;0.7727;
478.8000;0.8490;0.7727;
479.1000;0.8490;0.7776;
479.4000;0.8466;0.7679;
479.7000;0.8498;0.7801;
480.0000;0.8506;0.7849;
480.3000;0.8466;0.7825;
480.6000;0.8498;0.7922;
480.9000;0.8490;0.7947;
481.2000;0.8563;0.8117;
481.5000;0.8490;0.7922;
481.8000;0.8498;0.7922;
482.1000;0.8482;0.7849;
482.4000;0.8490;0.7849;
482.7000;0.8482;0.7849;
483.0000;0.8466;0.7898;
483.3000;0.8482;0.7825;
483.6000;0.8457;0.7776;
483.9000;0.8457;0.7703;
484.2000;0.8498;0.7825;
484.5000;0.8482;0.7825;
484.8000;0.8482;0.7752;
485.1000;0.8482;0.7752;
485.4000;0.8498;0.7801;
485.7000;0.8482;0.7801;
486.0000;0.8506;0.7947;
486.3000;0.8490;0.7947;
486.6000;0.8498;0.7947;
486.9000;0.8506;0.7971;
487.2000;0.8490;0.7825;
487.5000;0.8457;0.7776;
487.8000;0.8563;0.8020;
488.1000;0.8490;0.7801;
488.4000;0.8482;0.7727;
488.7000;0.8514;0.7801;
489.0000;0.8514;0.7727;
489.3000;0.8498;0.7752;
489.6000;0.8506;0.7727;
489.9000;0.8466;0.7581;
490.2000;0.8482;0.7654;
490.5000;0.8490;0.7776;
490.8000;0.8490;0.7849;
491.1000;0.8482;0.7825;
491.4000;0.8474;0.7752;
491.7000;0.8490;0.7801;
492.0000;0.8482;0.7776;
492.3000;0.8474;0.7898;
492.6000;0.8490;0.7996;
492.9000;0.8498;0.8020;
493.2000;0.8498;0.7971;
493.5000;0.8490;0.7898;
493.8000;0.8482;0.7776;
494.1000;0.8490;0.7703;
494.4000;0.8498;0.7727;
494.7000;0.8490;0.7849;
495.0000;0.8474;0.7898;
495.3000;0.8482;0.7825;
495.6000;0.8498;0.7922;
495.9000;0.8449;0.7679;
496.2000;0.8514;0.7849;
496.5000;0.8482;0.7825;
496.8000;0.8482;0.7947;
497.1000;0.8498;0.8044;
497.4000;0.8466;0.7898;
497.7000;0.8506;0.7996;
498.0000;0.8449;0.7947;
498.3000;0.8474;0.8020;
498.6000;0.8474;0.7947;
498.9000;0.8482;0.7849;
499.2000;0.8490;0.7849;
499.5000;0.8490;0.7922;
499.8000;0.8490;0.7971;
500.1000;0.8482;0.7849;
500.4000;0.8555;0.7898;
500.7000;0.8498;0.7752;
501.0000;0.8506;0.7825;
501.3000;0.8466;0.7752;
501.6000;0.8482;0.7727;
501.9000;0.8474;0.7776;
502.2000;0.8482;0.7752;
502.5000;0.8466;0.7727;
502.8000;0.8409;0.7581;
503.1000;0.8466;0.7874;
503.4000;0.8482;0.7947;
503.7000;0.8498;0.7947;
504.0000;0.8482;0.7849;
504.3000;0.8482;0.7776;
504.6000;0.8490;0.7874;
504.9000;0.8457;0.7776;
505.2000;0.8531;0.7922;
505.5000;0.8482;0.7801;
505.8000;0.8474;0.7801;
506.1000;0.8506;0.7849;
506.4000;0.8482;0.7801;
506.7000;0.8474;0.7849;
507.0000;0.8490;0.7874;
507.3000;0.8490;0.7825;
507.6000;0.8425;0.7801;
507.9000;0.8523;0.7947;
508.2000;0.8498;0.7849;
508.5000;0.8506;0.7825;
508.8000;0.8514;0.7825;
509.1000;0.8531;0.7898;
509.4000;0.8498;0.7825;
509.7000;0.8482;0.7825;
510.0000;0.8490;0.7849;
510.3000;0.8466;0.7752;
510.6000;0.8498;0.7922;
510.9000;0.8490;0.7922;
511.2000;0.8498;0.7898;
511.5000;0.8490;0.7874;
511.8000;0.8490;0.7922;
512.1000;0.8498;0.7922;
512.4000;0.8441;0.7776;
512.7000;0.8490;0.7922;
513.0000;0.8498;0.7922;
513.3000;0.8490;0.7898;
513.6000;0.8409;0.7801;
513.9000;0.8466;0.7825;
514.2000;0.8498;0.7874;
514.5000;0.8490;0.7874;
514.8000;0.8514;0.7947;
515.1000;0.8482;0.7874;
515.4000;0.8482;0.7776;
515.7000;0.8490;0.7776;
516.0000;0.8490;0.7776;
516.3000;0.8506;0.7752;
516.6000;0.8490;0.7727;
516.9000;0.8490;0.7727;
517.2000;0.8490;0.7752;
517.5000;0.8490;0.7752;
517.8000;0.8490;0.7849;
518.1000;0.8482;0.7874;
518.4000;0.8498;0.7849;
518.7000;0.8506;0.7922;
519.0000;0.8482;0.7898;
519.3000;0.8474;0.7874;
519.6000;0.8474;0.7971;
519.9000;0.8498;0.8093;
520.2000;0.8474;0.8117;
520.5000;0.8457;0.8093;
520.8000;0.8482;0.8166;
521.1000;0.8490;0.8166;
521.4000;0.8498;0.8117;
521.7000;0.8523;0.8117;
522.0000;0.8490;0.8069;
522.3000;0.8482;0.8044;
522.6000;0.8498;0.8069;
522.9000;0.8482;0.8044;
523.2000;0.8474;0.8093;
523.5000;0.8466;0.8142;
523.8000;0.8474;0.8093;
524.1000;0.8474;0.7947;
524.4000;0.8457;0.7971;
524.7000;0.8474;0.8044;
525.0000;0.8474;0.8020;
525.3000;0.8368;0.7703;
525.6000;0.8482;0.7996;
525.9000;0.8457;0.7874;
526.2000;0.8498;0.7898;
526.5000;0.8498;0.7971;
526.8000;0.8523;0.8020;
527.1000;0.8482;0.7971;
527.4000;0.8498;0.7996;
527.7000;0.8482;0.7971;
528.0000;0.8482;0.7922;
528.3000;0.8474;0.7971;
528.6000;0.8506;0.8117;
528.9000;0.8490;0.8093;
529.2000;0.8490;0.8069;
529.5000;0.8490;0.7996;
529.8000;0.8490;0.8069;
530.1000;0.8490;0.8117;
530.4000;0.8482;0.8093;
530.7000;0.8498;0.8117;
531.0000;0.8490;0.7996;
531.3000;0.8490;0.7947;
531.6000;0.8474;0.7971;
531.9000;0.8474;0.8069;
532.2000;0.8490;0.8044;
532.5000;0.8482;0.8020;
532.8000;0.8457;0.7971;
533.1000;0.8490;0.8020;
533.4000;0.8490;0.7971;
533.7000;0.8498;0.7947;
534.0000;0.8498;0.7971;
534.3000;0.8482;0.7922;
534.6000;0.8490;0.7996;
534.9000;0.8482;0.7971;
535.2000;0.8498;0.7922;
535.5000;0.8482;0.7898;
535.8000;0.8498;0.7922;
536.1000;0.8490;0.7947;
536.4000;0.8547;0.8191;
536.7000;0.8514;0.8069;
537.0000;0.8490;0.7947;
537.3000;0.8482;0.7801;
537.6000;0.8490;0.7849;
537.9000;0.8482;0.7947;
538.2000;0.8474;0.7971;
538.5000;0.8466;0.7922;
538.8000;0.8466;0.7849;
539.1000;0.8482;0.7947;
539.4000;0.8482;0.7849;
539.7000;0.8482;0.7752;
540.0000;0.8482;0.7874;
540.3000;0.8490;0.7922;
540.6000;0.8482;0.7922;
540.9000;0.8433;0.7825;
541.2000;0.8482;0.7898;
541.5000;0.8474;0.7922;
541.8000;0.8441;0.7849;
542.1000;0.8482;0.7874;
542.4000;0.8474;0.7922;
542.7000;0.8506;0.7971;
543.0000;0.8474;0.7996;
543.3000;0.8449;0.7874;
543.6000;0.8490;0.7947;
543.9000;0.8482;0.7898;
544.2000;0.8498;0.7996;
544.5000;0.8498;0.7947;
544.8000;0.8466;0.7922;
545.1000;0.8523;0.8069;
545.4000;0.8498;0.7971;
545.7000;0.8596;0.8239;
546.0000;0.8482;0.7971;
546.3000;0.8474;0.7971;
546.6000;0.8490;0.8020;
546.9000;0.8523;0.8069;
547.2000;0.8498;0.7898;
547.5000;0.8482;0.7922;
547.8000;0.8539;0.8020;
548.1000;0.8482;0.7922;
548.4000;0.8425;0.7776;
548.7000;0.8490;0.7898;
549.0000;0.8384;0.7679;
549.3000;0.8482;0.7922;
549.6000;0.8466;0.7922;
549.9000;0.8482;0.7971;
550.2000;0.8474;0.7996;
550.5000;0.8441;0.7874;
550.8000;0.8482;0.8044;
551.1000;0.8490;0.7971;
551.4000;0.8457;0.7947;
551.7000;0.8498;0.8117;
552.0000;0.8490;0.8044;
552.3000;0.8474;0.7996;
552.6000;0.8506;0.8117;
552.9000;0.8490;0.8020;
553.2000;0.8490;0.7947;
553.5000;0.8449;0.7801;
553.8000;0.8482;0.7947;
554.1000;0.8482;0.8020;
554.4000;0.8441;0.7898;
554.7000;0.8474;0.8044;
555.0000;0.8482;0.8044;
555.3000;0.8457;0.8044;
555.6000;0.8490;0.8069;
555.9000;0.8482;0.8117;
556.2000;0.8490;0.8093;
556.5000;0.8482;0.8142;
556.8000;0.8498;0.8215;
557.1000;0.8490;0.8191;
557.4000;0.8482;0.8191;
557.7000;0.8514;0.8215;
558.0000;0.8482;0.8117;
558.3000;0.8506;0.8093;
558.6000;0.8482;0.8044;
558.9000;0.8457;0.7898;
559.2000;0.8490;0.8093;
559.5000;0.8506;0.8117;
559.8000;0.8498;0.8093;
560.1000;0.8514;0.8093;
560.4000;0.8474;0.7947;
560.7000;0.8523;0.8069;
561.0000;0.8482;0.7947;
561.3000;0.8490;0.8020;
561.6000;0.8482;0.7922;
561.9000;0.8506;0.7922;
562.2000;0.8498;0.7898;
562.5000;0.8466;0.7849;
562.8000;0.8498;0.7922;
563.1000;0.8490;0.7825;
563.4000;0.8417;0.7679;
563.7000;0.8474;0.7825;
564.0000;0.8474;0.7801;
564.3000;0.8474;0.7849;
564.6000;0.8474;0.7898;
564.9000;0.8376;0.7679;
565.2000;0.8474;0.7947;
565.5000;0.8457;0.8020;
565.8000;0.8482;0.8044;
566.1000;0.8490;0.8069;
566.4000;0.8474;0.8020;
566.7000;0.8523;0.8117;
567.0000;0.8498;0.8044;
567.3000;0.8498;0.8020;
567.6000;0.8498;0.8020;
567.9000;0.8498;0.8117;
568.2000;0.8482;0.8239;
568.5000;0.8506;0.8264;
568.8000;0.8490;0.8166;
569.1000;0.8490;0.8191;
569.4000;0.8490;0.8142;
569.7000;0.8514;0.8069;
570.0000;0.8474;0.8044;
570.3000;0.8482;0.8044;
570.6000;0.8506;0.8142;
570.9000;0.8490;0.8117;
571.2000;0.8498;0.8093;
571.5000;0.8490;0.8093;
571.8000;0.8490;0.8117;
572.1000;0.8514;0.8069;
572.4000;0.8506;0.8044;
572.7000;0.8474;0.7996;
573.0000;0.8466;0.7825;
573.3000;0.8425;0.7752;
573.6000;0.8482;0.7898;
573.9000;0.8482;0.7874;
574.2000;0.8433;0.7727;
574.5000;0.8474;0.7801;
574.8000;0.8506;0.7874;
575.1000;0.8490;0.7752;
575.4000;0.8474;0.7776;
575.7000;0.8490;0.7825;
576.0000;0.8490;0.7801;
576.3000;0.8482;0.7825;
576.6000;0.8482;0.7801;
576.9000;0.8474;0.7801;
577.2000;0.8514;0.7947;
577.5000;0.8490;0.7996;
577.8000;0.8490;0.8069;
578.1000;0.8490;0.8117;
578.4000;0.8490;0.8044;
578.7000;0.8498;0.8020;
579.0000;0.8571;0.8264;
579.3000;0.8466;0.8044;
579.6000;0.8482;0.8117;
579.9000;0.8441;0.8044;
580.2000;0.8482;0.8069;
580.5000;0.8400;0.7849;
580.8000;0.8506;0.8093;
581.1000;0.8474;0.7898;
581.4000;0.8482;0.7874;
581.7000;0.8482;0.7825;
582.0000;0.8466;0.7776;
582.3000;0.8506;0.7898;
582.6000;0.8482;0.7874;
582.9000;0.8482;0.7874;
583.2000;0.8482;0.7898;
583.5000;0.8514;0.8020;
583.8000;0.8474;0.7922;
584.1000;0.8498;0.8020;
584.4000;0.8482;0.7971;
584.7000;0.8498;0.7996;
585.0000;0.8482;0.7996;
585.3000;0.8490;0.8044;
585.6000;0.8417;0.7947;
585.9000;0.8498;0.8117;
586.2000;0.8490;0.8020;
586.5000;0.8474;0.7947;
586.8000;0.8523;0.7996;
587.1000;0.8482;0.7874;
587.4000;0.8490;0.7874;
587.7000;0.8482;0.7849;
588.0000;0.8474;0.7849;
588.3000;0.8482;0.7825;
588.6000;0.8474;0.7727;
588.9000;0.8482;0.7752;
589.2000;0.8474;0.7801;
589.5000;0.8506;0.7898;
589.8000;0.8490;0.7849;
590.1000;0.8474;0.7825;
590.4000;0.8474;0.7922;
590.7000;0.8474;0.7947;
591.0000;0.8482;0.7971;
591.3000;0.8490;0.7996;
591.6000;0.8498;0.7971;
591.9000;0.8482;0.7922;
592.2000;0.8482;0.7996;
592.5000;0.8506;0.8044;
592.8000;0.8490;0.8069;
593.1000;0.8498;0.8093;
593.4000;0.8457;0.8069;
593.7000;0.8506;0.8117;
594.0000;0.8514;0.8142;
594.3000;0.8466;0.7996;
594.6000;0.8474;0.7996;
594.9000;0.8482;0.7996;
595.2000;0.8498;0.8069;
595.5000;0.8498;0.7971;
595.8000;0.8523;0.8142;
596.1000;0.8490;0.8166;
596.4000;0.8588;0.8459;
596.7000;0.8490;0.8117;
597.0000;0.8523;0.8191;
597.3000;0.8531;0.8191;
597.6000;0.8490;0.8166;
597.9000;0.8498;0.8239;
598.2000;0.8490;0.8166;
598.5000;0.8474;0.8117;
598.8000;0.8474;0.7996;
599.1000;0.8498;0.7971;
599.4000;0.8498;0.7922;
599.7000;0.8490;0.7874;
600.0000;0.8457;0.7825;
600.3000;0.8531;0.7776;
600.6000;0.8531;0.7605;
600.9000;0.8514;0.7313;
601.2000;0.8563;0.7240;
601.5000;0.8555;0.7167;
601.8000;0.8498;0.6923;
602.1000;0.8474;0.6825;
602.4000;0.8523;0.6996;
602.7000;0.8441;0.6801;
603.0000;0.8352;0.6533;
603.3000;0.8360;0.6582;
603.6000;0.8384;0.6630;
603.9000;0.8295;0.6435;
604.2000;0.8295;0.6362;
604.5000;0.8287;0.6338;
604.8000;0.8254;0.6338;
605.1000;0.8278;0.6362;
605.4000;0.8287;0.6435;
605.7000;0.8156;0.6070;
606.0000;0.8181;0.6070;
606.3000;0.8164;0.5924;
606.6000;0.8164;0.5875;
606.9000;0.8148;0.5826;
607.2000;0.8132;0.5826;
607.5000;0.8132;0.5850;
607.8000;0.8124;0.5802;
608.1000;0.8099;0.5802;
608.4000;0.8124;0.5850;
608.7000;0.8075;0.5728;
609.0000;0.8083;0.5826;
609.3000;0.8083;0.5875;
609.6000;0.8042;0.5875;
609.9000;0.8034;0.5924;
610.2000;0.8042;0.5972;
610.5000;0.8034;0.5972;
610.8000;0.7977;0.5850;
611.1000;0.8018;0.5899;
611.4000;0.8034;0.5948;
611.7000;0.8002;0.5948;
612.0000;0.8018;0.5997;
612.3000;0.8010;0.5972;
612.6000;0.8018;0.5948;
612.9000;0.8026;0.5972;
613.2000;0.7985;0.5802;
613.5000;0.7977;0.5777;
613.8000;0.7953;0.5655;
614.1000;0.7969;0.5728;
614.4000;0.7969;0.5631;
614.7000;0.7969;0.5680;
615.0000;0.8002;0.5777;
615.3000;0.7993;0.5875;
615.6000;0.7977;0.5826;
615.9000;0.7945;0.5826;
616.2000;0.7961;0.5875;
616.5000;0.7953;0.5972;
616.8000;0.7977;0.6021;
617.1000;0.7912;0.5899;
617.4000;0.7920;0.5875;
617.7000;0.7920;0.5875;
618.0000;0.7920;0.5875;
618.3000;0.7920;0.5875;
618.6000;0.7920;0.5802;
618.9000;0.7920;0.5826;
619.2000;0.7823;0.5558;
619.5000;0.7928;0.5777;
619.8000;0.7904;0.5728;
620.1000;0.7904;0.5753;
620.4000;0.7888;0.5826;
620.7000;0.7912;0.5899;
621.0000;0.7871;0.5777;
621.3000;0.7912;0.5850;
621.6000;0.7904;0.5850;
621.9000;0.7912;0.5899;
622.2000;0.7928;0.5924;
622.5000;0.7888;0.5875;
622.8000;0.7880;0.5826;
623.1000;0.7920;0.5899;
623.4000;0.7880;0.5777;
623.7000;0.7880;0.5728;
624.0000;0.7880;0.5777;
624.3000;0.7880;0.5875;
624.6000;0.7904;0.5924;
624.9000;0.7871;0.5826;
625.2000;0.7871;0.5875;
625.5000;0.7880;0.5948;
625.8000;0.7880;0.5972;
626.1000;0.7888;0.5972;
626.4000;0.7863;0.5948;
626.7000;0.7888;0.5997;
627.0000;0.7880;0.5948;
627.3000;0.7863;0.6070;
627.6000;0.7863;0.6045;
627.9000;0.7880;0.6192;
628.2000;0.7888;0.6240;
628.5000;0.7904;0.6289;
628.8000;0.7855;0.6094;
629.1000;0.7855;0.6021;
629.4000;0.7847;0.6045;
629.7000;0.7847;0.5997;
630.0000;0.7863;0.6021;
630.3000;0.7855;0.6021;
630.6000;0.7831;0.5972;
630.9000;0.7847;0.6094;
631.2000;0.7863;0.6094;
631.5000;0.7823;0.5972;
631.8000;0.7823;0.5972;
632.1000;0.7839;0.6094;
632.4000;0.7839;0.6021;
632.7000;0.7831;0.5948;
633.0000;0.7823;0.5972;
633.3000;0.7831;0.6021;
633.6000;0.7814;0.5997;
633.9000;0.7814;0.5924;
634.2000;0.7823;0.5997;
634.5000;0.7823;0.6045;
634.8000;0.7806;0.5997;
635.1000;0.7806;0.5899;
635.4000;0.7814;0.5972;
635.7000;0.7823;0.5972;
636.0000;0.7831;0.5924;
636.3000;0.7790;0.5850;
636.6000;0.7823;0.5997;
636.9000;0.7798;0.5875;
637.2000;0.7814;0.5924;
637.5000;0.7806;0.5972;
637.8000;0.7798;0.5924;
638.1000;0.7806;0.5924;
638.4000;0.7814;0.5924;
638.7000;0.7798;0.5948;
639.0000;0.7814;0.6021;
639.3000;0.7790;0.5997;
639.6000;0.7790;0.5875;
639.9000;0.7741;0.5753;
640.2000;0.7774;0.5777;
640.5000;0.7790;0.5875;
640.8000;0.7823;0.5899;
641.1000;0.7823;0.5948;
641.4000;0.7790;0.5948;
641.7000;0.7790;0.5997;
642.0000;0.7782;0.6045;
642.3000;0.7782;0.5972;
642.6000;0.7782;0.5997;
642.9000;0.7741;0.5924;
643.2000;0.7782;0.5997;
643.5000;0.7782;0.5997;
643.8000;0.7871;0.6338;
644.1000;0.7766;0.5997;
644.4000;0.7766;0.5997;
644.7000;0.7798;0.5972;
645.0000;0.7766;0.5948;
645.3000;0.7766;0.5924;
645.6000;0.7766;0.5924;
645.9000;0.7774;0.5924;
646.2000;0.7725;0.5802;
646.5000;0.7684;0.5704;
646.8000;0.7774;0.5802;
647.1000;0.7766;0.5753;
647.4000;0.7757;0.5631;
647.7000;0.7782;0.5704;
648.0000;0.7741;0.5582;
648.3000;0.7757;0.5631;
648.6000;0.7733;0.5631;
648.9000;0.7749;0.5777;
649.2000;0.7766;0.5753;
649.5000;0.7741;0.5753;
649.8000;0.7733;0.5680;
650.1000;0.7741;0.5753;
650.4000;0.7733;0.5826;
650.7000;0.7741;0.5777;
651.0000;0.7774;0.5704;
651.3000;0.7749;0.5607;
651.6000;0.7741;0.5631;
651.9000;0.7749;0.5631;
652.2000;0.7757;0.5655;
652.5000;0.7749;0.5753;
652.8000;0.7733;0.5704;
653.1000;0.7725;0.5631;
653.4000;0.7749;0.5680;
653.7000;0.7725;0.5582;
654.0000;0.7733;0.5509;
654.3000;0.7741;0.5533;
654.6000;0.7733;0.5607;
654.9000;0.7733;0.5655;
655.2000;0.7725;0.5753;
655.5000;0.7725;0.5777;
655.8000;0.7725;0.5728;
656.1000;0.7749;0.5802;
656.4000;0.7725;0.5753;
656.7000;0.7774;0.5826;
657.0000;0.7717;0.5728;
657.3000;0.7725;0.5728;
657.6000;0.7676;0.5558;
657.9000;0.7709;0.5704;
658.2000;0.7709;0.5631;
658.5000;0.7717;0.5607;
658.8000;0.7725;0.5631;
659.1000;0.7709;0.5533;
659.4000;0.7709;0.5436;
659.7000;0.7709;0.5533;
660.0000;0.7709;0.5533;
660.3000;0.7717;0.5582;
660.6000;0.7717;0.5485;
660.9000;0.7684;0.5412;
661.2000;0.7709;0.5558;
661.5000;0.7717;0.5582;
661.8000;0.7700;0.5558;
662.1000;0.7692;0.5533;
662.4000;0.7717;0.5680;
662.7000;0.7709;0.5631;
663.0000;0.7709;0.5655;
663.3000;0.7692;0.5631;
663.6000;0.7692;0.5631;
663.9000;0.7652;0.5509;
664.2000;0.7700;0.5704;
664.5000;0.7635;0.5631;
664.8000;0.7692;0.5777;
665.1000;0.7692;0.5850;
665.4000;0.7676;0.5850;
665.7000;0.7692;0.5777;
666.0000;0.7676;0.5704;
666.3000;0.7684;0.5753;
666.6000;0.7684;0.5655;
666.9000;0.7635;0.5460;
667.2000;0.7692;0.5607;
667.5000;0.7684;0.5582;
667.8000;0.7660;0.5558;
668.1000;0.7652;0.5558;
668.4000;0.7692;0.5753;
668.7000;0.7660;0.5680;
669.0000;0.7676;0.5704;
669.3000;0.7652;0.5607;
669.6000;0.7684;0.5680;
669.9000;0.7652;0.5607;
670.2000;0.7676;0.5631;
670.5000;0.7668;0.5582;
670.8000;0.7652;0.5631;
671.1000;0.7676;0.5680;
671.4000;0.7692;0.5826;
671.7000;0.7660;0.5826;
672.0000;0.7700;0.5899;
672.3000;0.7676;0.5875;
672.6000;0.7684;0.5777;
672.9000;0.7782;0.6021;
673.2000;0.7652;0.5753;
673.5000;0.7652;0.5655;
673.8000;0.7660;0.5704;
674.1000;0.7611;0.5655;
674.4000;0.7660;0.5826;
674.7000;0.7643;0.5777;
675.0000;0.7643;0.5655;
675.3000;0.7660;0.5631;
675.6000;0.7660;0.5582;
675.9000;0.7660;0.5558;
676.2000;0.7652;0.5631;
676.5000;0.7676;0.5655;
676.8000;0.7635;0.5533;
677.1000;0.7643;0.5582;
677.4000;0.7668;0.5582;
677.7000;0.7668;0.5582;
678.0000;0.7660;0.5509;
678.3000;0.7652;0.5412;
678.6000;0.7668;0.5509;
678.9000;0.7668;0.5582;
679.2000;0.7627;0.5533;
679.5000;0.7692;0.5680;
679.8000;0.7627;0.5558;
680.1000;0.7652;0.5558;
680.4000;0.7652;0.5558;
680.7000;0.7643;0.5607;
681.0000;0.7652;0.5680;
681.3000;0.7643;0.5582;
681.6000;0.7652;0.5655;
681.9000;0.7660;0.5704;
682.2000;0.7643;0.5582;
682.5000;0.7660;0.5582;
682.8000;0.7668;0.5680;
683.1000;0.7643;0.5631;
683.4000;0.7643;0.5631;
683.7000;0.7586;0.5582;
684.0000;0.7627;0.5826;
684.3000;0.7643;0.5777;
684.6000;0.7635;0.5704;
684.9000;0.7627;0.5777;
685.2000;0.7652;0.5777;
685.5000;0.7619;0.5655;
685.8000;0.7635;0.5753;
686.1000;0.7619;0.5655;
686.4000;0.7660;0.5704;
686.7000;0.7627;0.5680;
687.0000;0.7643;0.5704;
687.3000;0.7627;0.5680;
687.6000;0.7635;0.5728;
687.9000;0.7627;0.5582;
688.2000;0.7635;0.5631;
688.5000;0.7619;0.5631;
688.8000;0.7635;0.5558;
689.1000;0.7684;0.5777;
689.4000;0.7676;0.5728;
689.7000;0.7611;0.5509;
690.0000;0.7578;0.5509;
690.3000;0.7627;0.5631;
690.6000;0.7595;0.5460;
690.9000;0.7635;0.5509;
691.2000;0.7611;0.5533;
691.5000;0.7619;0.5509;
691.8000;0.7611;0.5533;
692.1000;0.7603;0.5314;
692.4000;0.7619;0.5314;
692.7000;0.7611;0.5363;
693.0000;0.7619;0.5338;
693.3000;0.7627;0.5436;
693.6000;0.7619;0.5533;
693.9000;0.7521;0.5290;
694.2000;0.7619;0.5582;
694.5000;0.7627;0.5631;
694.8000;0.7635;0.5607;
695.1000;0.7627;0.5436;
695.4000;0.7619;0.5485;
695.7000;0.7635;0.5509;
696.0000;0.7570;0.5387;
696.3000;0.7595;0.5485;
696.6000;0.7611;0.5631;
696.9000;0.7660;0.5802;
697.2000;0.7603;0.5728;
697.5000;0.7611;0.5728;
697.8000;0.7586;0.5607;
698.1000;0.7619;0.5558;
698.4000;0.7611;0.5533;
698.7000;0.7619;0.5558;
699.0000;0.7635;0.5631;
699.3000;0.7586;0.5607;
699.6000;0.7578;0.5582;
699.9000;0.7635;0.5582;
700.2000;0.7619;0.5558;
700.5000;0.7603;0.5607;
700.8000;0.7603;0.5533;
701.1000;0.7586;0.5436;
701.4000;0.7611;0.5533;
701.7000;0.7595;0.5485;
702.0000;0.7611;0.5509;
702.3000;0.7603;0.5412;
702.6000;0.7570;0.5363;
702.9000;0.7595;0.5460;
703.2000;0.7603;0.5533;
703.5000;0.7611;0.5558;
703.8000;0.7603;0.5558;
704.1000;0.7595;0.5485;
704.4000;0.7578;0.5509;
704.7000;0.7595;0.5607;
705.0000;0.7595;0.5607;
705.3000;0.7586;0.5631;
705.6000;0.7578;0.5680;
705.9000;0.7595;0.5680;
706.2000;0.7603;0.5680;
706.5000;0.7595;0.5680;
706.8000;0.7595;0.5631;
707.1000;0.7595;0.5631;
707.4000;0.7652;0.5704;
707.7000;0.7595;0.5607;
708.0000;0.7578;0.5607;
708.3000;0.7554;0.5582;
708.6000;0.7586;0.5728;
708.9000;0.7595;0.5728;
709.2000;0.7595;0.5753;
709.5000;0.7668;0.5899;
709.8000;0.7643;0.5972;
710.1000;0.7570;0.5753;
710.4000;0.7611;0.5850;
710.7000;0.7595;0.5704;
711.0000;0.7562;0.5558;
711.3000;0.7578;0.5582;
711.6000;0.7554;0.5582;
711.9000;0.7643;0.5777;
712.2000;0.7619;0.5607;
712.5000;0.7619;0.5607;
712.8000;0.7554;0.5412;
713.1000;0.7643;0.5631;
713.4000;0.7586;0.5533;
713.7000;0.7603;0.5631;
714.0000;0.7586;0.5607;
714.3000;0.7570;0.5631;
714.6000;0.7530;0.5485;
714.9000;0.7546;0.5558;
715.2000;0.7578;0.5680;
715.5000;0.7586;0.5753;
715.8000;0.7611;0.5850;
716.1000;0.7595;0.5899;
716.4000;0.7595;0.5924;
716.7000;0.7578;0.5753;
717.0000;0.7586;0.5728;
717.3000;0.7603;0.5728;
717.6000;0.7578;0.5704;
717.9000;0.7562;0.5631;
718.2000;0.7586;0.5631;
718.5000;0.7562;0.5509;
718.8000;0.7627;0.5728;
719.1000;0.7570;0.5680;
719.4000;0.7562;0.5558;
719.7000;0.7595;0.5631;
720.0000;0.7611;0.5655;
720.3000;0.7595;0.5607;
720.6000;0.7546;0.5558;
720.9000;0.7586;0.5631;
721.2000;0.7570;0.5655;
721.5000;0.7562;0.5631;
721.8000;0.7562;0.5607;
722.1000;0.7595;0.5607;
722.4000;0.7595;0.5558;
722.7000;0.7562;0.5338;
723.0000;0.7578;0.5387;
723.3000;0.7562;0.5412;
723.6000;0.7578;0.5558;
723.9000;0.7570;0.5631;
724.2000;0.7554;0.5631;
724.5000;0.7586;0.5631;
724.8000;0.7562;0.5509;
725.1000;0.7562;0.5533;
725.4000;0.7546;0.5533;
725.7000;0.7562;0.5631;
726.0000;0.7570;0.5704;
726.3000;0.7554;0.5680;
726.6000;0.7554;0.5631;
726.9000;0.7562;0.5607;
727.2000;0.7586;0.5582;
727.5000;0.7570;0.5680;
727.8000;0.7554;0.5631;
728.1000;0.7554;0.5607;
728.4000;0.7562;0.5655;
728.7000;0.7562;0.5704;
729.0000;0.7538;0.5631;
729.3000;0.7546;0.5631;
729.6000;0.7562;0.5558;
729.9000;0.7603;0.5582;
730.2000;0.7562;0.5558;
730.5000;0.7562;0.5582;
730.8000;0.7570;0.5582;
731.1000;0.7554;0.5582;
731.4000;0.7578;0.5728;
731.7000;0.7546;0.5680;
732.0000;0.7554;0.5704;
732.3000;0.7554;0.5704;
732.6000;0.7554;0.5728;
732.9000;0.7562;0.5680;
733.2000;0.7538;0.5631;
733.5000;0.7570;0.5607;
733.8000;0.7546;0.5631;
734.1000;0.7546;0.5655;
734.4000;0.7538;0.5680;
734.7000;0.7570;0.5680;
735.0000;0.7570;0.5631;
735.3000;0.7554;0.5509;
735.6000;0.7530;0.5460;
735.9000;0.7554;0.5558;
736.2000;0.7554;0.5558;
736.5000;0.7554;0.5533;
736.8000;0.7603;0.5802;
737.1000;0.7554;0.5680;
737.4000;0.7586;0.5728;
737.7000;0.7570;0.5680;
738.0000;0.7538;0.5607;
738.3000;0.7538;0.5680;
738.6000;0.7562;0.5802;
738.9000;0.7578;0.5850;
739.2000;0.7570;0.5802;
739.5000;0.7538;0.5728;
739.8000;0.7546;0.5753;
740.1000;0.7562;0.5826;
740.4000;0.7554;0.5802;
740.7000;0.7554;0.5802;
741.0000;0.7546;0.5777;
741.3000;0.7562;0.5728;
741.6000;0.7554;0.5680;
741.9000;0.7546;0.5728;
742.2000;0.7554;0.5753;
742.5000;0.7562;0.5704;
742.8000;0.7554;0.5704;
743.1000;0.7546;0.5655;
743.4000;0.7554;0.5704;
743.7000;0.7546;0.5631;
744.0000;0.7562;0.5728;
744.3000;0.7546;0.5655;
744.6000;0.7570;0.5680;
744.9000;0.7530;0.5558;
745.2000;0.7521;0.5582;
745.5000;0.7546;0.5607;
745.8000;0.7538;0.5582;
746.1000;0.7538;0.5631;
746.4000;0.7554;0.5655;
746.7000;0.7521;0.5631;
747.0000;0.7538;0.5631;
747.3000;0.7530;0.5607;
747.6000;0.7538;0.5582;
747.9000;0.7546;0.5607;
748.2000;0.7546;0.5582;
748.5000;0.7538;0.5607;
748.8000;0.7546;0.5680;
749.1000;0.7546;0.5655;
749.4000;0.7538;0.5607;
749.7000;0.7538;0.5582;
750.0000;0.7570;0.5655;
750.3000;0.7546;0.5533;
750.6000;0.7530;0.5509;
750.9000;0.7530;0.5460;
751.2000;0.7546;0.5533;
751.5000;0.7538;0.5460;
751.8000;0.7481;0.5387;
752.1000;0.7521;0.5485;
752.4000;0.7554;0.5533;
752.7000;0.7562;0.5631;
753.0000;0.7546;0.5631;
753.3000;0.7546;0.5607;
753.6000;0.7538;0.5607;
753.9000;0.7578;0.5704;
754.2000;0.7546;0.5631;
754.5000;0.7546;0.5558;
754.8000;0.7538;0.5436;
755.1000;0.7538;0.5485;
755.4000;0.7554;0.5558;
755.7000;0.7505;0.5509;
756.0000;0.7538;0.5607;
756.3000;0.7570;0.5753;
756.6000;0.7546;0.5704;
756.9000;0.7546;0.5607;
757.2000;0.7546;0.5631;
757.5000;0.7530;0.5558;
757.8000;0.7538;0.5533;
758.1000;0.7546;0.5607;
758.4000;0.7538;0.5582;
758.7000;0.7554;0.5533;
759.0000;0.7538;0.5485;
759.3000;0.7530;0.5485;
759.6000;0.7530;0.5460;
759.9000;0.7546;0.5558;
760.2000;0.7570;0.5509;
760.5000;0.7530;0.5509;
760.8000;0.7521;0.5387;
761.1000;0.7521;0.5387;
761.4000;0.7530;0.5363;
761.7000;0.7546;0.5436;
762.0000;0.7538;0.5436;
762.3000;0.7546;0.5485;
762.6000;0.7513;0.5485;
762.9000;0.7546;0.5533;
763.2000;0.7530;0.5533;
763.5000;0.7538;0.5582;
763.8000;0.7546;0.5509;
764.1000;0.7538;0.5533;
764.4000;0.7554;0.5533;
764.7000;0.7521;0.5582;
765.0000;0.7521;0.5631;
765.3000;0.7530;0.5680;
765.6000;0.7603;0.5850;
765.9000;0.7521;0.5607;
766.2000;0.7521;0.5558;
766.5000;0.7497;0.5509;
766.8000;0.7554;0.5655;
767.1000;0.7521;0.5631;
767.4000;0.7546;0.5607;
767.7000;0.7554;0.5655;
768.0000;0.7530;0.5582;
768.3000;0.7538;0.5533;
768.6000;0.7538;0.5558;
768.9000;0.7521;0.5485;
769.2000;0.7538;0.5412;
769.5000;0.7538;0.5412;
769.8000;0.7530;0.5436;
770.1000;0.7513;0.5460;
770.4000;0.7538;0.5485;
770.7000;0.7530;0.5509;
771.0000;0.7513;0.5436;
771.3000;0.7530;0.5460;
771.6000;0.7530;0.5485;
771.9000;0.7530;0.5582;
772.2000;0.7538;0.5582;
772.5000;0.7530;0.5509;
772.8000;0.7489;0.5460;
773.1000;0.7530;0.5558;
773.4000;0.7513;0.5412;
773.7000;0.7530;0.5363;
774.0000;0.7521;0.5338;
774.3000;0.7513;0.5314;
774.6000;0.7530;0.5338;
774.9000;0.7464;0.5192;
775.2000;0.7513;0.5338;
775.5000;0.7538;0.5460;
775.8000;0.7554;0.5485;
776.1000;0.7530;0.5460;
776.4000;0.7521;0.5436;
776.7000;0.7505;0.5363;
777.0000;0.7530;0.5460;
777.3000;0.7521;0.5412;
777.6000;0.7521;0.5485;
777.9000;0.7538;0.5485;
778.2000;0.7538;0.5436;
778.5000;0.7538;0.5412;
778.8000;0.7530;0.5436;
779.1000;0.7530;0.5412;
779.4000;0.7538;0.5412;
779.7000;0.7521;0.5436;
780.0000;0.7521;0.5485;
780.3000;0.7489;0.5412;
780.6000;0.7513;0.5558;
780.9000;0.7521;0.5558;
781.2000;0.7513;0.5387;
781.5000;0.7489;0.5363;
781.8000;0.7530;0.5558;
782.1000;0.7497;0.5460;
782.4000;0.7578;0.5533;
782.7000;0.7521;0.5387;
783.0000;0.7578;0.5558;
783.3000;0.7521;0.5290;
783.6000;0.7464;0.5095;
783.9000;0.7521;0.5338;
784.2000;0.7530;0.5436;
784.5000;0.7513;0.5387;
784.8000;0.7513;0.5265;
785.1000;0.7497;0.5241;
785.4000;0.7497;0.5290;
785.7000;0.7513;0.5314;
786.0000;0.7497;0.5314;
786.3000;0.7505;0.5412;
786.6000;0.7489;0.5338;
786.9000;0.7489;0.5363;
787.2000;0.7521;0.5412;
787.5000;0.7513;0.5314;
787.8000;0.7521;0.5314;
788.1000;0.7513;0.5192;
788.4000;0.7554;0.5265;
788.7000;0.7521;0.5314;
789.0000;0.7562;0.5363;
789.3000;0.7513;0.5241;
789.6000;0.7513;0.5241;
789.9000;0.7530;0.5241;
790.2000;0.7505;0.5192;
790.5000;0.7489;0.5192;
790.8000;0.7505;0.5241;
791.1000;0.7505;0.5290;
791.4000;0.7513;0.5241;
791.7000;0.7481;0.5217;
792.0000;0.7448;0.5143;
792.3000;0.7595;0.5558;
792.6000;0.7578;0.5607;
792.9000;0.7481;0.5265;
793.2000;0.7513;0.5241;
793.5000;0.7538;0.5338;
793.8000;0.7562;0.5387;
794.1000;0.7513;0.5363;
794.4000;0.7505;0.5314;
794.7000;0.7497;0.5314;
795.0000;0.7530;0.5363;
795.3000;0.7497;0.5290;
795.6000;0.7521;0.5314;
795.9000;0.7521;0.5363;
796.2000;0.7513;0.5241;
796.5000;0.7538;0.5265;
796.8000;0.7521;0.5290;
797.1000;0.7521;0.5363;
797.4000;0.7530;0.5412;
797.7000;0.7505;0.5387;
798.0000;0.7521;0.5436;
798.3000;0.7521;0.5412;
798.6000;0.7530;0.5363;
798.9000;0.7554;0.5485;
799.2000;0.7546;0.5533;
799.5000;0.7513;0.5485;
799.8000;0.7521;0.5533;
800.1000;0.7530;0.5485;
800.4000;0.7505;0.5265;
800.7000;0.7530;0.5314;
801.0000;0.7513;0.5338;
801.3000;0.7416;0.5143;
801.6000;0.7497;0.5314;
801.9000;0.7497;0.5290;
802.2000;0.7513;0.5290;
802.5000;0.7513;0.5241;
802.8000;0.7513;0.5265;
803.1000;0.7505;0.5241;
803.4000;0.7521;0.5290;
803.7000;0.7513;0.5192;
804.0000;0.7530;0.5217;
804.3000;0.7497;0.5168;
804.6000;0.7505;0.5290;
804.9000;0.7489;0.5314;
805.2000;0.7513;0.5387;
805.5000;0.7521;0.5412;
805.8000;0.7497;0.5485;
806.1000;0.7554;0.5582;
806.4000;0.7513;0.5485;
806.7000;0.7497;0.5314;
807.0000;0.7497;0.5290;
807.3000;0.7521;0.5314;
807.6000;0.7530;0.5387;
807.9000;0.7473;0.5314;
808.2000;0.7578;0.5582;
808.5000;0.7521;0.5460;
808.8000;0.7521;0.5387;
809.1000;0.7513;0.5412;
809.4000;0.7513;0.5436;
809.7000;0.7538;0.5436;
810.0000;0.7521;0.5338;
810.3000;0.7538;0.5338;
810.6000;0.7505;0.5363;
810.9000;0.7546;0.5509;
811.2000;0.7513;0.5533;
811.5000;0.7505;0.5509;
811.8000;0.7505;0.5387;
812.1000;0.7481;0.5338;
812.4000;0.7513;0.5485;
812.7000;0.7578;0.5607;
813.0000;0.7521;0.5509;
813.3000;0.7505;0.5436;
813.6000;0.7530;0.5509;
813.9000;0.7521;0.5436;
814.2000;0.7513;0.5509;
814.5000;0.7505;0.5436;
814.8000;0.7530;0.5460;
815.1000;0.7497;0.5363;
815.4000;0.7473;0.5265;
815.7000;0.7505;0.5314;
816.0000;0.7513;0.5265;
816.3000;0.7521;0.5265;
816.6000;0.7562;0.5387;
816.9000;0.7578;0.5485;
817.2000;0.7505;0.5387;
817.5000;0.7513;0.5363;
817.8000;0.7448;0.5241;
818.1000;0.7521;0.5338;
818.4000;0.7521;0.5412;
818.7000;0.7538;0.5338;
819.0000;0.7530;0.5314;
819.3000;0.7513;0.5265;
819.6000;0.7513;0.5314;
819.9000;0.7505;0.5265;
820.2000;0.7521;0.5168;
820.5000;0.7513;0.5119;
820.8000;0.7489;0.5070;
821.1000;0.7505;0.5070;
821.4000;0.7505;0.5119;
821.7000;0.7505;0.5119;
822.0000;0.7513;0.5095;
822.3000;0.7497;0.5022;
822.6000;0.7497;0.4997;
822.9000;0.7513;0.5022;
823.2000;0.7489;0.5046;
823.5000;0.7521;0.5265;
823.8000;0.7473;0.5217;
824.1000;0.7497;0.5290;
824.4000;0.7505;0.5363;
824.7000;0.7505;0.5363;
825.0000;0.7521;0.5485;
825.3000;0.7481;0.5387;
825.6000;0.7489;0.5436;
825.9000;0.7464;0.5290;
826.2000;0.7513;0.5290;
826.5000;0.7489;0.5217;
826.8000;0.7530;0.5192;
827.1000;0.7538;0.5192;
827.4000;0.7513;0.5095;
827.7000;0.7489;0.4997;
828.0000;0.7521;0.5070;
828.3000;0.7489;0.5143;
828.6000;0.7546;0.5290;
828.9000;0.7456;0.5095;
829.2000;0.7513;0.5290;
829.5000;0.7497;0.5265;
829.8000;0.7513;0.5338;
830.1000;0.7489;0.5265;
830.4000;0.7497;0.5241;
830.7000;0.7416;0.5143;
831.0000;0.7489;0.5290;
831.3000;0.7513;0.5265;
831.6000;0.7505;0.5241;
831.9000;0.7513;0.5265;
832.2000;0.7497;0.5192;
832.5000;0.7513;0.5168;
832.8000;0.7505;0.5241;
833.1000;0.7505;0.5241;
833.4000;0.7521;0.5192;
833.7000;0.7521;0.5168;
834.0000;0.7505;0.5143;
834.3000;0.7546;0.5143;
834.6000;0.7473;0.4997;
834.9000;0.7505;0.5119;
835.2000;0.7513;0.5168;
835.5000;0.7497;0.5241;
835.8000;0.7489;0.5290;
836.1000;0.7497;0.5290;
836.4000;0.7489;0.5241;
836.7000;0.7521;0.5338;
837.0000;0.7513;0.5412;
837.3000;0.7489;0.5314;
837.6000;0.7489;0.5338;
837.9000;0.7481;0.5168;
838.2000;0.7505;0.5265;
838.5000;0.7505;0.5241;
838.8000;0.7505;0.5387;
839.1000;0.7489;0.5338;
839.4000;0.7473;0.5363;
839.7000;0.7481;0.5412;
840.0000;0.7489;0.5436;
840.3000;0.7489;0.5460;
840.6000;0.7505;0.5509;
840.9000;0.7505;0.5460;
841.2000;0.7497;0.5436;
841.5000;0.7489;0.5436;
841.8000;0.7497;0.5363;
842.1000;0.7481;0.5314;
842.4000;0.7481;0.5363;
842.7000;0.7505;0.5338;
843.0000;0.7513;0.5436;
843.3000;0.7513;0.5387;
843.6000;0.7505;0.5485;
843.9000;0.7505;0.5509;
844.2000;0.7513;0.5582;
844.5000;0.7513;0.5582;
844.8000;0.7505;0.5460;
845.1000;0.7489;0.5338;
845.4000;0.7440;0.5119;
845.7000;0.7530;0.5338;
846.0000;0.7489;0.5314;
846.3000;0.7497;0.5460;
846.6000;0.7489;0.5485;
846.9000;0.7464;0.5387;
847.2000;0.7505;0.5412;
847.5000;0.7497;0.5436;
847.8000;0.7473;0.5363;
848.1000;0.7505;0.5412;
848.4000;0.7497;0.5338;
848.7000;0.7481;0.5338;
849.0000;0.7489;0.5387;
849.3000;0.7489;0.5363;
849.6000;0.7497;0.5387;
849.9000;0.7440;0.5168;
850.2000;0.7481;0.5314;
850.5000;0.7497;0.5314;
850.8000;0.7497;0.5436;
851.1000;0.7489;0.5412;
851.4000;0.7481;0.5265;
851.7000;0.7505;0.5290;
852.0000;0.7481;0.5217;
852.3000;0.7481;0.5290;
852.6000;0.7505;0.5387;
852.9000;0.7505;0.5387;
853.2000;0.7513;0.5387;
853.5000;0.7538;0.5436;
853.8000;0.7481;0.5314;
854.1000;0.7530;0.5387;
854.4000;0.7497;0.5314;
854.7000;0.7505;0.5338;
855.0000;0.7456;0.5241;
855.3000;0.7497;0.5314;
855.6000;0.7505;0.5290;
855.9000;0.7481;0.5241;
856.2000;0.7497;0.5387;
856.5000;0.7497;0.5436;
856.8000;0.7481;0.5412;
857.1000;0.7489;0.5412;
857.4000;0.7497;0.5387;
857.7000;0.7489;0.5412;
858.0000;0.7497;0.5290;
858.3000;0.7497;0.5192;
858.6000;0.7489;0.5241;
858.9000;0.7497;0.5363;
859.2000;0.7513;0.5363;
859.5000;0.7505;0.5460;
859.8000;0.7505;0.5460;
860.1000;0.7489;0.5387;
860.4000;0.7513;0.5412;
860.7000;0.7464;0.5387;
861.0000;0.7497;0.5436;
861.3000;0.7464;0.5387;
861.6000;0.7481;0.5436;
861.9000;0.7505;0.5412;
862.2000;0.7481;0.5314;
862.5000;0.7497;0.5436;
862.8000;0.7432;0.5338;
863.1000;0.7489;0.5485;
863.4000;0.7505;0.5509;
863.7000;0.7513;0.5533;
864.0000;0.7481;0.5436;
864.3000;0.7464;0.5460;
864.6000;0.7497;0.5533;
864.9000;0.7513;0.5607;
865.2000;0.7473;0.5558;
865.5000;0.7473;0.5509;
865.8000;0.7505;0.5582;
866.1000;0.7497;0.5607;
866.4000;0.7505;0.5558;
866.7000;0.7521;0.5582;
867.0000;0.7464;0.5338;
867.3000;0.7505;0.5387;
867.6000;0.7489;0.5387;
867.9000;0.7448;0.5217;
868.2000;0.7489;0.5290;
868.5000;0.7489;0.5290;
868.8000;0.7554;0.5485;
869.1000;0.7505;0.5363;
869.4000;0.7505;0.5338;
869.7000;0.7497;0.5241;
870.0000;0.7505;0.5241;
870.3000;0.7497;0.5265;
870.6000;0.7481;0.5314;
870.9000;0.7481;0.5460;
871.2000;0.7497;0.5436;
871.5000;0.7489;0.5436;
871.8000;0.7497;0.5436;
872.1000;0.7505;0.5412;
872.4000;0.7603;0.5607;
872.7000;0.7497;0.5314;
873.0000;0.7497;0.5363;
873.3000;0.7473;0.5265;
873.6000;0.7489;0.5363;
873.9000;0.7497;0.5436;
874.2000;0.7489;0.5412;
874.5000;0.7489;0.5412;
874.8000;0.7505;0.5509;
875.1000;0.7505;0.5509;
875.4000;0.7489;0.5485;
875.7000;0.7473;0.5460;
876.0000;0.7481;0.5387;
876.3000;0.7505;0.5509;
876.6000;0.7489;0.5460;
876.9000;0.7505;0.5582;
877.2000;0.7497;0.5558;
877.5000;0.7513;0.5582;
877.8000;0.7497;0.5533;
878.1000;0.7481;0.5582;
878.4000;0.7481;0.5558;
878.7000;0.7489;0.5631;
879.0000;0.7481;0.5607;
879.3000;0.7505;0.5558;
879.6000;0.7489;0.5582;
879.9000;0.7513;0.5680;
880.2000;0.7513;0.5728;
880.5000;0.7497;0.5704;
880.8000;0.7497;0.5728;
881.1000;0.7513;0.5802;
881.4000;0.7513;0.5777;
881.7000;0.7530;0.5777;
882.0000;0.7505;0.5631;
882.3000;0.7481;0.5558;
882.6000;0.7489;0.5704;
882.9000;0.7497;0.5680;
883.2000;0.7489;0.5607;
883.5000;0.7505;0.5631;
883.8000;0.7489;0.5704;
884.1000;0.7497;0.5777;
884.4000;0.7481;0.5655;
884.7000;0.7497;0.5728;
885.0000;0.7497;0.5728;
885.3000;0.7505;0.5826;
885.6000;0.7521;0.5850;
885.9000;0.7489;0.5753;
886.2000;0.7473;0.5655;
886.5000;0.7464;0.5582;
886.8000;0.7473;0.5509;
887.1000;0.7489;0.5533;
887.4000;0.7481;0.5460;
887.7000;0.7489;0.5485;
888.0000;0.7489;0.5460;
888.3000;0.7497;0.5314;
888.6000;0.7481;0.5241;
888.9000;0.7497;0.5387;
889.2000;0.7513;0.5460;
889.5000;0.7489;0.5412;
889.8000;0.7473;0.5338;
890.1000;0.7505;0.5387;
890.4000;0.7505;0.5412;
890.7000;0.7521;0.5485;
891.0000;0.7497;0.5436;
891.3000;0.7473;0.5509;
891.6000;0.7505;0.5558;
891.9000;0.7416;0.5338;
892.2000;0.7497;0.5509;
892.5000;0.7473;0.5509;
892.8000;0.7456;0.5533;
893.1000;0.7481;0.5533;
893.4000;0.7497;0.5582;
893.7000;0.7473;0.5655;
894.0000;0.7530;0.5704;
894.3000;0.7497;0.5582;
894.6000;0.7497;0.5631;
894.9000;0.7489;0.5655;
895.2000;0.7489;0.5607;
895.5000;0.7505;0.5631;
895.8000;0.7489;0.5704;
896.1000;0.7489;0.5631;
896.4000;0.7473;0.5460;
896.7000;0.7505;0.5460;
897.0000;0.7456;0.5436;
897.3000;0.7481;0.5436;
897.6000;0.7481;0.5338;
897.9000;0.7538;0.5509;
898.2000;0.7473;0.5314;
898.5000;0.7497;0.5314;
898.8000;0.7497;0.5314;
899.1000;0.7497;0.5338;
899.4000;0.7497;0.5412;
899.7000;0.7521;0.5533;
900.0000;0.7481;0.5509;
900.3000;0.7497;0.5607;
900.6000;0.7513;0.5631;
900.9000;0.7489;0.5509;
901.2000;0.7562;0.5728;
901.5000;0.7497;0.5558;
901.8000;0.7497;0.5607;
902.1000;0.7489;0.5631;
902.4000;0.7489;0.5607;
902.7000;0.7456;0.5533;
903.0000;0.7489;0.5582;
903.3000;0.7497;0.5582;
903.6000;0.7497;0.5655;
903.9000;0.7489;0.5558;
904.2000;0.7497;0.5533;
904.5000;0.7481;0.5533;
904.8000;0.7489;0.5558;
905.1000;0.7464;0.5436;
905.4000;0.7497;0.5485;
905.7000;0.7497;0.5509;
906.0000;0.7578;0.5631;
906.3000;0.7489;0.5485;
906.6000;0.7464;0.5436;
906.9000;0.7497;0.5558;
907.2000;0.7481;0.5509;
907.5000;0.7489;0.5533;
907.8000;0.7481;0.5509;
908.1000;0.7473;0.5582;
908.4000;0.7481;0.5582;
908.7000;0.7513;0.5607;
909.0000;0.7497;0.5607;
909.3000;0.7489;0.5607;
909.6000;0.7489;0.5607;
909.9000;0.7481;0.5631;
910.2000;0.7464;0.5509;
910.5000;0.7481;0.5582;
910.8000;0.7497;0.5728;
911.1000;0.7505;0.5753;
911.4000;0.7489;0.5655;
911.7000;0.7497;0.5655;
912.0000;0.7489;0.5582;
912.3000;0.7489;0.5558;
912.6000;0.7481;0.5509;
912.9000;0.7497;0.5558;
913.2000;0.7505;0.5533;
913.5000;0.7513;0.5412;
913.8000;0.7481;0.5363;
914.1000;0.7481;0.5363;
914.4000;0.7489;0.5387;
914.7000;0.7489;0.5412;
915.0000;0.7473;0.5387;
915.3000;0.7481;0.5460;
915.6000;0.7505;0.5485;
915.9000;0.7489;0.5436;
916.2000;0.7424;0.5265;
916.5000;0.7489;0.5436;
916.8000;0.7473;0.5363;
917.1000;0.7464;0.5338;
917.4000;0.7497;0.5412;
917.7000;0.7497;0.5533;
918.0000;0.7464;0.5436;
918.3000;0.7530;0.5582;
918.6000;0.7473;0.5509;
918.9000;0.7562;0.5655;
919.2000;0.7432;0.5314;
919.5000;0.7481;0.5265;
919.8000;0.7481;0.5241;
920.1000;0.7497;0.5338;
920.4000;0.7481;0.5363;
920.7000;0.7489;0.5338;
921.0000;0.7473;0.5290;
921.3000;0.7497;0.5314;
921.6000;0.7489;0.5314;
921.9000;0.7489;0.5363;
922.2000;0.7464;0.5314;
922.5000;0.7473;0.5363;
922.8000;0.7530;0.5533;
923.1000;0.7481;0.5363;
923.4000;0.7481;0.5338;
923.7000;0.7481;0.5460;
924.0000;0.7440;0.5387;
924.3000;0.7481;0.5533;
924.6000;0.7497;0.5582;
924.9000;0.7489;0.5387;
925.2000;0.7497;0.5363;
925.5000;0.7538;0.5387;
925.8000;0.7448;0.5022;
926.1000;0.7497;0.5095;
926.4000;0.7464;0.5095;
926.7000;0.7481;0.5119;
927.0000;0.7489;0.5046;
927.3000;0.7481;0.4973;
927.6000;0.7497;0.5046;
927.9000;0.7481;0.5143;
928.2000;0.7407;0.4924;
928.5000;0.7489;0.5022;
928.8000;0.7464;0.5070;
929.1000;0.7481;0.5119;
929.4000;0.7489;0.5192;
929.7000;0.7505;0.5217;
930.0000;0.7497;0.5217;
930.3000;0.7505;0.5363;
930.6000;0.7481;0.5338;
930.9000;0.7489;0.5412;
931.2000;0.7521;0.5387;
931.5000;0.7489;0.5338;
931.8000;0.7473;0.5241;
932.1000;0.7497;0.5168;
932.4000;0.7481;0.5022;
932.7000;0.7505;0.5070;
933.0000;0.7473;0.5046;
933.3000;0.7481;0.5119;
933.6000;0.7489;0.5168;
933.9000;0.7489;0.5119;
934.2000;0.7497;0.5046;
934.5000;0.7497;0.5046;
934.8000;0.7505;0.4948;
935.1000;0.7497;0.4948;
935.4000;0.7481;0.4973;
935.7000;0.7497;0.5095;
936.0000;0.7505;0.5095;
936.3000;0.7481;0.5022;
936.6000;0.7505;0.5046;
936.9000;0.7489;0.5046;
937.2000;0.7497;0.5143;
937.5000;0.7489;0.5217;
937.8000;0.7505;0.5192;
938.1000;0.7489;0.5168;
938.4000;0.7481;0.5168;
938.7000;0.7497;0.5290;
939.0000;0.7505;0.5314;
939.3000;0.7497;0.5265;
939.6000;0.7489;0.5241;
939.9000;0.7473;0.5217;
940.2000;0.7497;0.5265;
940.5000;0.7481;0.5241;
940.8000;0.7489;0.5314;
941.1000;0.7497;0.5338;
941.4000;0.7489;0.5338;
941.7000;0.7497;0.5290;
942.0000;0.7497;0.5241;
942.3000;0.7497;0.5241;
942.6000;0.7489;0.5265;
942.9000;0.7505;0.5387;
943.2000;0.7473;0.5314;
943.5000;0.7481;0.5412;
943.8000;0.7481;0.5387;
944.1000;0.7456;0.5314;
944.4000;0.7489;0.5363;
944.7000;0.7497;0.5338;
945.0000;0.7481;0.5241;
945.3000;0.7497;0.5314;
945.6000;0.7489;0.5363;
945.9000;0.7497;0.5412;
946.2000;0.7497;0.5436;
946.5000;0.7489;0.5509;
946.8000;0.7464;0.5533;
947.1000;0.7489;0.5582;
947.4000;0.7513;0.5582;
947.7000;0.7538;0.5655;
948.0000;0.7407;0.5217;
948.3000;0.7473;0.5338;
948.6000;0.7481;0.5314;
948.9000;0.7481;0.5363;
949.2000;0.7407;0.5217;
949.5000;0.7481;0.5460;
949.8000;0.7489;0.5412;
950.1000;0.7497;0.5412;
950.4000;0.7538;0.5509;
950.7000;0.7473;0.5338;
951.0000;0.7456;0.5338;
951.3000;0.7546;0.5680;
951.6000;0.7481;0.5655;
951.9000;0.7489;0.5704;
952.2000;0.7489;0.5631;
952.5000;0.7489;0.5655;
952.8000;0.7481;0.5533;
953.1000;0.7473;0.5533;
953.4000;0.7489;0.5582;
953.7000;0.7505;0.5607;
954.0000;0.7497;0.5607;
954.3000;0.7513;0.5533;
954.6000;0.7407;0.5363;
954.9000;0.7464;0.5436;
955.2000;0.7505;0.5485;
955.5000;0.7505;0.5485;
955.8000;0.7481;0.5460;
956.1000;0.7513;0.5460;
956.4000;0.7497;0.5363;
956.7000;0.7481;0.5314;
957.0000;0.7473;0.5290;
957.3000;0.7481;0.5387;
957.6000;0.7481;0.5460;
957.9000;0.7481;0.5412;
958.2000;0.7473;0.5436;
958.5000;0.7473;0.5412;
958.8000;0.7497;0.5460;
959.1000;0.7481;0.5460;
959.4000;0.7497;0.5533;
959.7000;0.7464;0.5485;
960.0000;0.7473;0.5460;
960.3000;0.7489;0.5509;
960.6000;0.7497;0.5436;
960.9000;0.7546;0.5558;
961.2000;0.7489;0.5387;
961.5000;0.7505;0.5363;
961.8000;0.7481;0.5412;
962.1000;0.7497;0.5436;
962.4000;0.7481;0.5387;
962.7000;0.7489;0.5412;
963.0000;0.7473;0.5363;
963.3000;0.7489;0.5387;
963.6000;0.7448;0.5265;
963.9000;0.7399;0.5095;
964.2000;0.7489;0.5363;
964.5000;0.7497;0.5412;
964.8000;0.7481;0.5412;
965.1000;0.7497;0.5387;
965.4000;0.7489;0.5338;
965.7000;0.7489;0.5265;
966.0000;0.7456;0.5290;
966.3000;0.7481;0.5436;
966.6000;0.7489;0.5533;
966.9000;0.7505;0.5631;
967.2000;0.7473;0.5631;
967.5000;0.7497;0.5753;
967.8000;0.7497;0.5753;
968.1000;0.7464;0.5680;
968.4000;0.7497;0.5680;
968.7000;0.7481;0.5558;
969.0000;0.7464;0.5558;
969.3000;0.7489;0.5607;
969.6000;0.7481;0.5485;
969.9000;0.7473;0.5436;
970.2000;0.7505;0.5582;
970.5000;0.7481;0.5558;
970.8000;0.7473;0.5533;
971.1000;0.7399;0.5290;
971.4000;0.7505;0.5607;
971.7000;0.7473;0.5485;
972.0000;0.7464;0.5509;
972.3000;0.7489;0.5582;
972.6000;0.7562;0.5631;
972.9000;0.7489;0.5509;
973.2000;0.7481;0.5607;
973.5000;0.7448;0.5485;
973.8000;0.7481;0.5509;
974.1000;0.7464;0.5412;
974.4000;0.7497;0.5387;
974.7000;0.7521;0.5436;
975.0000;0.7489;0.5412;
975.3000;0.7497;0.5387;
975.6000;0.7497;0.5363;
975.9000;0.7489;0.5363;
976.2000;0.7497;0.5363;
976.5000;0.7481;0.5290;
976.8000;0.7456;0.5290;
977.1000;0.7489;0.5387;
977.4000;0.7473;0.5338;
977.7000;0.7521;0.5363;
978.0000;0.7497;0.5265;
978.3000;0.7497;0.5314;
978.6000;0.7473;0.5290;
978.9000;0.7473;0.5314;
979.2000;0.7489;0.5314;
979.5000;0.7448;0.5265;
979.8000;0.7505;0.5363;
980.1000;0.7497;0.5363;
980.4000;0.7497;0.5363;
980.7000;0.7562;0.5558;
981.0000;0.7481;0.5363;
981.3000;0.7489;0.5314;
981.6000;0.7456;0.5290;
981.9000;0.7505;0.5290;
982.2000;0.7489;0.5314;
982.5000;0.7481;0.5314;
982.8000;0.7481;0.5387;
983.1000;0.7489;0.5387;
983.4000;0.7481;0.5338;
983.7000;0.7481;0.5412;
984.0000;0.7456;0.5314;
984.3000;0.7481;0.5338;
984.6000;0.7473;0.5241;
984.9000;0.7481;0.5241;
985.2000;0.7489;0.5265;
985.5000;0.7497;0.5241;
985.8000;0.7497;0.5265;
986.1000;0.7521;0.5387;
986.4000;0.7505;0.5412;
986.7000;0.7505;0.5436;
987.0000;0.7497;0.5436;
987.3000;0.7513;0.5412;
987.6000;0.7481;0.5436;
987.9000;0.7481;0.5412;
988.2000;0.7489;0.5509;
988.5000;0.7464;0.5460;
988.8000;0.7489;0.5533;
989.1000;0.7489;0.5558;
989.4000;0.7448;0.5387;
989.7000;0.7505;0.5460;
990.0000;0.7505;0.5485;
990.3000;0.7473;0.5363;
990.6000;0.7489;0.5314;
990.9000;0.7489;0.5314;
991.2000;0.7489;0.5338;
991.5000;0.7464;0.5338;
991.8000;0.7489;0.5412;
992.1000;0.7489;0.5338;
992.4000;0.7497;0.5363;
992.7000;0.7521;0.5412;
993.0000;0.7505;0.5290;
993.3000;0.7497;0.5241;
993.6000;0.7513;0.5338;
993.9000;0.7497;0.5412;
994.2000;0.7497;0.5387;
994.5000;0.7530;0.5412;
994.8000;0.7473;0.5217;
995.1000;0.7505;0.5265;
995.4000;0.7481;0.5217;
995.7000;0.7505;0.5338;
996.0000;0.7489;0.5363;
996.3000;0.7489;0.5314;
996.6000;0.7489;0.5290;
996.9000;0.7497;0.5265;
997.2000;0.7497;0.5290;
997.5000;0.7464;0.5314;
997.8000;0.7497;0.5338;
998.1000;0.7481;0.5460;
998.4000;0.7497;0.5460;
998.7000;0.7505;0.5533;
999.0000;0.7481;0.5387;
999.3000;0.7546;0.5582;
999.6000;0.7521;0.5460;
999.9000;0.7489;0.5412;
1000.2000;0.7464;0.5412;
1000.5000;0.7489;0.5509;
1000.8000;0.7448;0.5436;
1001.1000;0.7473;0.5509;
1001.4000;0.7481;0.5533;
1001.7000;0.7464;0.5533;
1002.0000;0.7497;0.5558;
1002.3000;0.7489;0.5631;
1002.6000;0.7489;0.5607;
1002.9000;0.7464;0.5655;
1003.2000;0.7489;0.5607;
1003.5000;0.7473;0.5607;
1003.8000;0.7489;0.5558;
1004.1000;0.7481;0.5558;
1004.4000;0.7538;0.5631;
1004.7000;0.7554;0.5728;
1005.0000;0.7513;0.5631;
1005.3000;0.7489;0.5558;
1005.6000;0.7456;0.5607;
1005.9000;0.7464;0.5460;
1006.2000;0.7416;0.5338;
1006.5000;0.7464;0.5460;
1006.8000;0.7489;0.5558;
1007.1000;0.7481;0.5485;
1007.4000;0.7481;0.5509;
1007.7000;0.7481;0.5412;
1008.0000;0.7464;0.5338;
1008.3000;0.7464;0.5363;
1008.6000;0.7464;0.5436;
1008.9000;0.7481;0.5582;
1009.2000;0.7473;0.5558;
1009.5000;0.7464;0.5485;
1009.8000;0.7481;0.5509;
1010.1000;0.7473;0.5436;
1010.4000;0.7473;0.5485;
1010.7000;0.7497;0.5509;
1011.0000;0.7489;0.5412;
1011.3000;0.7481;0.5460;
1011.6000;0.7464;0.5485;
1011.9000;0.7513;0.5631;
1012.2000;0.7473;0.5631;
1012.5000;0.7481;0.5582;
1012.8000;0.7448;0.5436;
1013.1000;0.7489;0.5533;
1013.4000;0.7497;0.5631;
1013.7000;0.7497;0.5655;
1014.0000;0.7481;0.5655;
1014.3000;0.7505;0.5558;
1014.6000;0.7497;0.5533;
1014.9000;0.7489;0.5607;
1015.2000;0.7497;0.5607;
1015.5000;0.7489;0.5607;
1015.8000;0.7497;0.5558;
1016.1000;0.7489;0.5509;
1016.4000;0.7473;0.5485;
1016.7000;0.7497;0.5582;
1017.0000;0.7497;0.5607;
1017.3000;0.7481;0.5582;
1017.6000;0.7505;0.5655;
1017.9000;0.7481;0.5460;
1018.2000;0.7424;0.5338;
1018.5000;0.7505;0.5533;
1018.8000;0.7448;0.5363;
1019.1000;0.7489;0.5460;
1019.4000;0.7505;0.5436;
1019.7000;0.7546;0.5533;
1020.0000;0.7603;0.5631;
1020.3000;0.7521;0.5338;
1020.6000;0.7489;0.5265;
1020.9000;0.7489;0.5241;
1021.2000;0.7489;0.5338;
1021.5000;0.7473;0.5387;
1021.8000;0.7521;0.5631;
1022.1000;0.7481;0.5558;
1022.4000;0.7464;0.5412;
1022.7000;0.7497;0.5412;
1023.0000;0.7497;0.5290;
1023.3000;0.7456;0.5338;
1023.6000;0.7546;0.5485;
1023.9000;0.7473;0.5290;
1024.2000;0.7489;0.5314;
1024.5000;0.7489;0.5363;
1024.8000;0.7497;0.5387;
1025.1000;0.7497;0.5460;
1025.4000;0.7481;0.5460;
1025.7000;0.7473;0.5436;
1026.0000;0.7497;0.5558;
1026.3000;0.7456;0.5460;
1026.6000;0.7464;0.5460;
1026.9000;0.7497;0.5533;
1027.2000;0.7530;0.5558;
1027.5000;0.7481;0.5436;
1027.8000;0.7489;0.5509;
1028.1000;0.7489;0.5558;
1028.4000;0.7489;0.5533;
1028.7000;0.7497;0.5533;
1029.0000;0.7497;0.5460;
1029.3000;0.7513;0.5533;
1029.6000;0.7489;0.5460;
1029.9000;0.7481;0.5509;
1030.2000;0.7505;0.5485;
1030.5000;0.7473;0.5363;
1030.8000;0.7464;0.5363;
1031.1000;0.7489;0.5412;
1031.4000;0.7489;0.5363;
1031.7000;0.7489;0.5314;
1032.0000;0.7448;0.5217;
1032.3000;0.7473;0.5338;
1032.6000;0.7464;0.5290;
1032.9000;0.7481;0.5338;
1033.2000;0.7489;0.5387;
1033.5000;0.7407;0.5217;
1033.8000;0.7456;0.5363;
1034.1000;0.7521;0.5485;
1034.4000;0.7481;0.5460;
1034.7000;0.7481;0.5436;
1035.0000;0.7464;0.5314;
1035.3000;0.7489;0.5314;
1035.6000;0.7473;0.5363;
1035.9000;0.7489;0.5338;
1036.2000;0.7481;0.5265;
1036.5000;0.7570;0.5558;
1036.8000;0.7473;0.5314;
1037.1000;0.7481;0.5387;
1037.4000;0.7440;0.5314;
1037.7000;0.7505;0.5460;
1038.0000;0.7489;0.5338;
1038.3000;0.7481;0.5387;
1038.6000;0.7530;0.5582;
1038.9000;0.7513;0.5485;
1039.2000;0.7464;0.5363;
1039.5000;0.7603;0.5704;
1039.8000;0.7505;0.5558;
1040.1000;0.7497;0.5558;
1040.4000;0.7497;0.5582;
1040.7000;0.7489;0.5509;
1041.0000;0.7562;0.5680;
1041.3000;0.7481;0.5509;
1041.6000;0.7456;0.5485;
1041.9000;0.7489;0.5533;
1042.2000;0.7416;0.5436;
1042.5000;0.7464;0.5607;
1042.8000;0.7489;0.5631;
1043.1000;0.7448;0.5485;
1043.4000;0.7481;0.5582;
1043.7000;0.7464;0.5607;
1044.0000;0.7489;0.5704;
1044.3000;0.7497;0.5753;
1044.6000;0.7473;0.5631;
1044.9000;0.7497;0.5631;
1045.2000;0.7497;0.5607;
1045.5000;0.7505;0.5558;
1045.8000;0.7489;0.5387;
1046.1000;0.7489;0.5314;
1046.4000;0.7489;0.5387;
1046.7000;0.7497;0.5412;
1047.0000;0.7481;0.5387;
1047.3000;0.7489;0.5436;
1047.6000;0.7489;0.5436;
1047.9000;0.7489;0.5485;
1048.2000;0.7497;0.5509;
1048.5000;0.7473;0.5460;
1048.8000;0.7489;0.5485;
1049.1000;0.7489;0.5509;
1049.4000;0.7481;0.5582;
1049.7000;0.7481;0.5631;
1050.0000;0.7505;0.5728;
1050.3000;0.7489;0.5680;
1050.6000;0.7497;0.5753;
1050.9000;0.7497;0.5655;
1051.2000;0.7464;0.5607;
1051.5000;0.7489;0.5631;
1051.8000;0.7497;0.5655;
1052.1000;0.7497;0.5680;
1052.4000;0.7464;0.5582;
1052.7000;0.7448;0.5680;
1053.0000;0.7505;0.5899;
1053.3000;0.7505;0.5997;
1053.6000;0.7481;0.5924;
1053.9000;0.7497;0.5972;
1054.2000;0.7497;0.5924;
1054.5000;0.7489;0.5924;
1054.8000;0.7497;0.5850;
1055.1000;0.7497;0.5728;
1055.4000;0.7456;0.5680;
1055.7000;0.7497;0.5753;
1056.0000;0.7456;0.5558;
1056.3000;0.7489;0.5631;
1056.6000;0.7481;0.5655;
1056.9000;0.7497;0.5533;
1057.2000;0.7497;0.5509;
1057.5000;0.7473;0.5509;
1057.8000;0.7440;0.5412;
1058.1000;0.7497;0.5607;
1058.4000;0.7473;0.5558;
1058.7000;0.7505;0.5558;
1059.0000;0.7432;0.5460;
1059.3000;0.7481;0.5607;
1059.6000;0.7440;0.5533;
1059.9000;0.7513;0.5728;
1060.2000;0.7497;0.5680;
1060.5000;0.7497;0.5777;
1060.8000;0.7489;0.5753;
1061.1000;0.7513;0.5753;
1061.4000;0.7489;0.5680;
1061.7000;0.7481;0.5655;
1062.0000;0.7530;0.5802;
1062.3000;0.7497;0.5704;
1062.6000;0.7497;0.5680;
1062.9000;0.7481;0.5509;
1063.2000;0.7481;0.5533;
1063.5000;0.7448;0.5533;
1063.8000;0.7456;0.5607;
1064.1000;0.7473;0.5655;
1064.4000;0.7481;0.5631;
1064.7000;0.7497;0.5607;
1065.0000;0.7473;0.5533;
1065.3000;0.7489;0.5558;
1065.6000;0.7489;0.5509;
1065.9000;0.7440;0.5436;
1066.2000;0.7481;0.5582;
1066.5000;0.7489;0.5533;
1066.8000;0.7497;0.5533;
1067.1000;0.7489;0.5460;
1067.4000;0.7489;0.5412;
1067.7000;0.7473;0.5338;
1068.0000;0.7456;0.5290;
1068.3000;0.7464;0.5338;
1068.6000;0.7489;0.5412;
1068.9000;0.7481;0.5460;
1069.2000;0.7464;0.5436;
1069.5000;0.7489;0.5436;
1069.8000;0.7489;0.5485;
1070.1000;0.7497;0.5509;
1070.4000;0.7473;0.5509;
1070.7000;0.7481;0.5460;
1071.0000;0.7513;0.5533;
1071.3000;0.7489;0.5460;
1071.6000;0.7416;0.5314;
1071.9000;0.7497;0.5509;
1072.2000;0.7497;0.5558;
1072.5000;0.7481;0.5436;
1072.8000;0.7497;0.5363;
1073.1000;0.7505;0.5387;
1073.4000;0.7497;0.5436;
1073.7000;0.7489;0.5485;
1074.0000;0.7505;0.5460;
1074.3000;0.7497;0.5509;
1074.6000;0.7432;0.5509;
1074.9000;0.7505;0.5655;
1075.2000;0.7489;0.5558;
1075.5000;0.7481;0.5460;
1075.8000;0.7489;0.5436;
1076.1000;0.7489;0.5460;
1076.4000;0.7497;0.5558;
1076.7000;0.7481;0.5533;
1077.0000;0.7497;0.5680;
1077.3000;0.7489;0.5582;
1077.6000;0.7448;0.5436;
1077.9000;0.7456;0.5436;
1078.2000;0.7497;0.5558;
1078.5000;0.7489;0.5485;
1078.8000;0.7464;0.5412;
1079.1000;0.7489;0.5363;
1079.4000;0.7464;0.5338;
1079.7000;0.7473;0.5363;
1080.0000;0.7505;0.5485;
1080.3000;0.7489;0.5412;
1080.6000;0.7497;0.5485;
1080.9000;0.7473;0.5509;
1081.2000;0.7497;0.5558;
1081.5000;0.7448;0.5436;
1081.8000;0.7497;0.5582;
1082.1000;0.7432;0.5412;
1082.4000;0.7481;0.5485;
1082.7000;0.7489;0.5460;
1083.0000;0.7489;0.5509;
1083.3000;0.7473;0.5485;
1083.6000;0.7473;0.5460;
1083.9000;0.7464;0.5436;
1084.2000;0.7473;0.5387;
1084.5000;0.7497;0.5387;
1084.8000;0.7489;0.5460;
1085.1000;0.7481;0.5436;
1085.4000;0.7489;0.5436;
1085.7000;0.7489;0.5485;
1086.0000;0.7473;0.5412;
1086.3000;0.7464;0.5460;
1086.6000;0.7473;0.5631;
1086.9000;0.7473;0.5558;
1087.2000;0.7473;0.5582;
1087.5000;0.7464;0.5582;
1087.8000;0.7489;0.5631;
1088.1000;0.7473;0.5631;
1088.4000;0.7497;0.5607;
1088.7000;0.7619;0.5899;
1089.0000;0.7497;0.5655;
1089.3000;0.7481;0.5655;
1089.6000;0.7448;0.5607;
1089.9000;0.7489;0.5655;
1090.2000;0.7473;0.5704;
1090.5000;0.7554;0.5972;
1090.8000;0.7481;0.5802;
1091.1000;0.7473;0.5753;
1091.4000;0.7489;0.5680;
1091.7000;0.7489;0.5631;
1092.0000;0.7497;0.5655;
1092.3000;0.7497;0.5655;
1092.6000;0.7497;0.5582;
1092.9000;0.7481;0.5607;
1093.2000;0.7481;0.5436;
1093.5000;0.7505;0.5509;
1093.8000;0.7489;0.5533;
1094.1000;0.7473;0.5412;
1094.4000;0.7489;0.5485;
1094.7000;0.7489;0.5582;
1095.0000;0.7489;0.5582;
1095.3000;0.7481;0.5607;
1095.6000;0.7407;0.5509;
1095.9000;0.7481;0.5728;
1096.2000;0.7489;0.5533;
1096.5000;0.7497;0.5533;
1096.8000;0.7432;0.5412;
1097.1000;0.7497;0.5533;
1097.4000;0.7497;0.5509;
1097.7000;0.7448;0.5314;
1098.0000;0.7481;0.5485;
1098.3000;0.7489;0.5509;
1098.6000;0.7489;0.5485;
1098.9000;0.7505;0.5607;
1099.2000;0.7473;0.5680;
1099.5000;0.7473;0.5655;
1099.8000;0.7497;0.5631;
1100.1000;0.7481;0.5558;
1100.4000;0.7497;0.5607;
1100.7000;0.7481;0.5607;
1101.0000;0.7407;0.5460;
1101.3000;0.7473;0.5704;
1101.6000;0.7473;0.5655;
1101.9000;0.7489;0.5728;
1102.2000;0.7497;0.5704;
1102.5000;0.7481;0.5777;
1102.8000;0.7481;0.5777;
1103.1000;0.7481;0.5777;
1103.4000;0.7464;0.5655;
1103.7000;0.7481;0.5607;
1104.0000;0.7473;0.5582;
1104.3000;0.7473;0.5607;
1104.6000;0.7530;0.5753;
1104.9000;0.7505;0.5680;
1105.2000;0.7489;0.5655;
1105.5000;0.7432;0.5558;
1105.8000;0.7456;0.5558;
1106.1000;0.7497;0.5655;
1106.4000;0.7464;0.5582;
1106.7000;0.7489;0.5582;
1107.0000;0.7489;0.5485;
1107.3000;0.7481;0.5436;
1107.6000;0.7473;0.5460;
1107.9000;0.7505;0.5460;
1108.2000;0.7497;0.5485;
1108.5000;0.7497;0.5460;
1108.8000;0.7505;0.5509;
1109.1000;0.7456;0.5485;
1109.4000;0.7473;0.5558;
1109.7000;0.7489;0.5655;
1110.0000;0.7578;0.5899;
1110.3000;0.7481;0.5631;
1110.6000;0.7497;0.5728;
1110.9000;0.7497;0.5631;
1111.2000;0.7481;0.5631;
1111.5000;0.7505;0.5753;
1111.8000;0.7489;0.5655;
1112.1000;0.7489;0.5582;
1112.4000;0.7464;0.5533;
1112.7000;0.7505;0.5533;
1113.0000;0.7481;0.5436;
1113.3000;0.7538;0.5533;
1113.6000;0.7481;0.5387;
1113.9000;0.7489;0.5436;
1114.2000;0.7481;0.5387;
1114.5000;0.7440;0.5265;
1114.8000;0.7497;0.5412;
1115.1000;0.7489;0.5436;
1115.4000;0.7570;0.5655;
1115.7000;0.7473;0.5509;
1116.0000;0.7489;0.5387;
1116.3000;0.7489;0.5363;
1116.6000;0.7505;0.5412;
1116.9000;0.7489;0.5412;
1117.2000;0.7481;0.5338;
1117.5000;0.7489;0.5314;
1117.8000;0.7489;0.5314;
1118.1000;0.7505;0.5314;
1118.4000;0.7505;0.5290;
1118.7000;0.7489;0.5265;
1119.0000;0.7473;0.5290;
1119.3000;0.7497;0.5338;
1119.6000;0.7489;0.5363;
1119.9000;0.7481;0.5387;
1120.2000;0.7473;0.5509;
1120.5000;0.7497;0.5558;
1120.8000;0.7513;0.5509;
1121.1000;0.7505;0.5436;
1121.4000;0.7489;0.5387;
1121.7000;0.7481;0.5387;
1122.0000;0.7497;0.5436;
1122.3000;0.7481;0.5509;
1122.6000;0.7489;0.5607;
1122.9000;0.7489;0.5607;
1123.2000;0.7481;0.5582;
1123.5000;0.7481;0.5558;
1123.8000;0.7489;0.5558;
1124.1000;0.7530;0.5582;
1124.4000;0.7489;0.5460;
1124.7000;0.7497;0.5533;
1125.0000;0.7538;0.5655;
1125.3000;0.7497;0.5582;
1125.6000;0.7489;0.5607;
1125.9000;0.7489;0.5485;
1126.2000;0.7473;0.5387;
1126.5000;0.7481;0.5387;
1126.8000;0.7481;0.5314;
1127.1000;0.7489;0.5192;
1127.4000;0.7473;0.5070;
1127.7000;0.7473;0.5095;
1128.0000;0.7489;0.5095;
1128.3000;0.7505;0.5168;
1128.6000;0.7513;0.5143;
1128.9000;0.7489;0.5217;
1129.2000;0.7489;0.5314;
1129.5000;0.7489;0.5436;
1129.8000;0.7530;0.5509;
1130.1000;0.7464;0.5363;
1130.4000;0.7505;0.5412;
1130.7000;0.7489;0.5460;
1131.0000;0.7481;0.5485;
1131.3000;0.7497;0.5509;
1131.6000;0.7464;0.5485;
1131.9000;0.7473;0.5460;
1132.2000;0.7489;0.5460;
1132.5000;0.7489;0.5509;
1132.8000;0.7497;0.5460;
1133.1000;0.7481;0.5558;
1133.4000;0.7489;0.5509;
1133.7000;0.7505;0.5460;
1134.0000;0.7513;0.5363;
1134.3000;0.7473;0.5217;
1134.6000;0.7513;0.5338;
1134.9000;0.7554;0.5387;
1135.2000;0.7489;0.5387;
1135.5000;0.7505;0.5485;
1135.8000;0.7505;0.5460;
1136.1000;0.7497;0.5412;
1136.4000;0.7473;0.5363;
1136.7000;0.7505;0.5412;
1137.0000;0.7481;0.5314;
1137.3000;0.7489;0.5241;
1137.6000;0.7489;0.5290;
1137.9000;0.7489;0.5338;
1138.2000;0.7513;0.5412;
1138.5000;0.7521;0.5509;
1138.8000;0.7489;0.5533;
1139.1000;0.7505;0.5558;
1139.4000;0.7448;0.5509;
1139.7000;0.7521;0.5582;
1140.0000;0.7481;0.5533;
1140.3000;0.7456;0.5533;
1140.6000;0.7513;0.5704;
1140.9000;0.7497;0.5607;
1141.2000;0.7497;0.5631;
1141.5000;0.7497;0.5704;
1141.8000;0.7489;0.5753;
1142.1000;0.7489;0.5777;
1142.4000;0.7578;0.5875;
1142.7000;0.7440;0.5558;
1143.0000;0.7497;0.5728;
1143.3000;0.7497;0.5728;
1143.6000;0.7513;0.5704;
1143.9000;0.7497;0.5704;
1144.2000;0.7546;0.5826;
1144.5000;0.7473;0.5655;
1144.8000;0.7481;0.5607;
1145.1000;0.7473;0.5509;
1145.4000;0.7473;0.5509;
1145.7000;0.7440;0.5338;
1146.0000;0.7481;0.5436;
1146.3000;0.7497;0.5460;
1146.6000;0.7489;0.5436;
1146.9000;0.7497;0.5412;
1147.2000;0.7530;0.5509;
1147.5000;0.7481;0.5363;
1147.8000;0.7497;0.5265;
1148.1000;0.7489;0.5314;
1148.4000;0.7538;0.5533;
1148.7000;0.7489;0.5485;
1149.0000;0.7530;0.5582;
1149.3000;0.7489;0.5485;
1149.6000;0.7497;0.5509;
1149.9000;0.7464;0.5387;
1150.2000;0.7448;0.5363;
1150.5000;0.7456;0.5363;
1150.8000;0.7432;0.5363;
1151.1000;0.7546;0.5655;
1151.4000;0.7497;0.5607;
1151.7000;0.7505;0.5655;
1152.0000;0.7473;0.5485;
1152.3000;0.7489;0.5485;
1152.6000;0.7473;0.5387;
1152.9000;0.7456;0.5314;
1153.2000;0.7538;0.5509;
1153.5000;0.7489;0.5460;
1153.8000;0.7432;0.5265;
1154.1000;0.7489;0.5509;
1154.4000;0.7497;0.5582;
1154.7000;0.7473;0.5558;
1155.0000;0.7497;0.5631;
1155.3000;0.7513;0.5607;
1155.6000;0.7513;0.5631;
1155.9000;0.7456;0.5485;
1156.2000;0.7497;0.5558;
1156.5000;0.7399;0.5387;
1156.8000;0.7538;0.5655;
1157.1000;0.7473;0.5412;
1157.4000;0.7489;0.5436;
1157.7000;0.7497;0.5485;
1158.0000;0.7481;0.5485;
1158.3000;0.7505;0.5533;
1158.6000;0.7473;0.5533;
1158.9000;0.7473;0.5631;
1159.2000;0.7497;0.5728;
1159.5000;0.7562;0.5850;
1159.8000;0.7489;0.5655;
1160.1000;0.7489;0.5607;
1160.4000;0.7554;0.5753;
1160.7000;0.7497;0.5704;
1161.0000;0.7473;0.5582;
1161.3000;0.7497;0.5631;
1161.6000;0.7383;0.5485;
1161.9000;0.7456;0.5704;
1162.2000;0.7497;0.5704;
1162.5000;0.7505;0.5753;
1162.8000;0.7505;0.5777;
1163.1000;0.7513;0.5680;
1163.4000;0.7464;0.5680;
1163.7000;0.7497;0.5728;
1164.0000;0.7497;0.5753;
1164.3000;0.7489;0.5680;
1164.6000;0.7456;0.5582;
1164.9000;0.7489;0.5680;
1165.2000;0.7497;0.5655;
1165.5000;0.7505;0.5582;
1165.8000;0.7489;0.5533;
1166.1000;0.7497;0.5558;
1166.4000;0.7481;0.5607;
1166.7000;0.7481;0.5655;
1167.0000;0.7456;0.5533;
1167.3000;0.7473;0.5485;
1167.6000;0.7513;0.5655;
1167.9000;0.7521;0.5704;
1168.2000;0.7473;0.5558;
1168.5000;0.7489;0.5607;
1168.8000;0.7497;0.5631;
1169.1000;0.7497;0.5704;
1169.4000;0.7481;0.5533;
1169.7000;0.7473;0.5582;
1170.0000;0.7464;0.5582;
1170.3000;0.7489;0.5607;
1170.6000;0.7481;0.5533;
1170.9000;0.7473;0.5533;
1171.2000;0.7489;0.5509;
1171.5000;0.7489;0.5533;
1171.8000;0.7456;0.5509;
1172.1000;0.7497;0.5631;
1172.4000;0.7448;0.5655;
1172.7000;0.7538;0.5826;
1173.0000;0.7497;0.5802;
1173.3000;0.7497;0.5899;
1173.6000;0.7489;0.5802;
1173.9000;0.7481;0.5728;
1174.2000;0.7489;0.5753;
1174.5000;0.7497;0.5655;
1174.8000;0.7489;0.5631;
1175.1000;0.7473;0.5607;
1175.4000;0.7505;0.5582;
1175.7000;0.7481;0.5509;
1176.0000;0.7505;0.5558;
1176.3000;0.7432;0.5436;
1176.6000;0.7489;0.5533;
1176.9000;0.7513;0.5680;
1177.2000;0.7521;0.5631;
1177.5000;0.7497;0.5558;
1177.8000;0.7473;0.5509;
1178.1000;0.7513;0.5704;
1178.4000;0.7497;0.5655;
1178.7000;0.7481;0.5680;
1179.0000;0.7489;0.5680;
1179.3000;0.7489;0.5607;
1179.6000;0.7521;0.5753;
1179.9000;0.7481;0.5753;
1180.2000;0.7481;0.5753;
1180.5000;0.7505;0.5802;
1180.8000;0.7505;0.5777;
1181.1000;0.7481;0.5607;
1181.4000;0.7481;0.5631;
1181.7000;0.7473;0.5558;
1182.0000;0.7497;0.5485;
1182.3000;0.7497;0.5509;
1182.6000;0.7497;0.5509;
1182.9000;0.7489;0.5533;
1183.2000;0.7464;0.5558;
1183.5000;0.7473;0.5558;
1183.8000;0.7497;0.5533;
1184.1000;0.7497;0.5582;
1184.4000;0.7505;0.5680;
1184.7000;0.7497;0.5607;
1185.0000;0.7505;0.5704;
1185.3000;0.7505;0.5704;
1185.6000;0.7489;0.5728;
1185.9000;0.7497;0.5728;
1186.2000;0.7505;0.5802;
1186.5000;0.7481;0.5704;
1186.8000;0.7513;0.5850;
1187.1000;0.7497;0.5777;
1187.4000;0.7489;0.5753;
1187.7000;0.7448;0.5631;
1188.0000;0.7481;0.5753;
1188.3000;0.7505;0.5826;
1188.6000;0.7489;0.5777;
1188.9000;0.7505;0.5753;
1189.2000;0.7505;0.5704;
1189.5000;0.7489;0.5680;
1189.8000;0.7481;0.5631;
1190.1000;0.7505;0.5704;
1190.4000;0.7497;0.5728;
1190.7000;0.7521;0.5850;
1191.0000;0.7497;0.5777;
1191.3000;0.7489;0.5728;
1191.6000;0.7513;0.5631;
1191.9000;0.7505;0.5631;
1192.2000;0.7513;0.5655;
1192.5000;0.7489;0.5558;
1192.8000;0.7521;0.5607;
1193.1000;0.7497;0.5631;
1193.4000;0.7440;0.5533;
1193.7000;0.7505;0.5728;
1194.0000;0.7505;0.5655;
1194.3000;0.7505;0.5680;
1194.6000;0.7489;0.5631;
1194.9000;0.7448;0.5436;
1195.2000;0.7489;0.5485;
1195.5000;0.7473;0.5509;
1195.8000;0.7538;0.5655;
1196.1000;0.7432;0.5460;
1196.4000;0.7473;0.5558;
1196.7000;0.7464;0.5558;
1197.0000;0.7489;0.5631;
1197.3000;0.7481;0.5631;
1197.6000;0.7489;0.5704;
1197.9000;0.7489;0.5680;
1198.2000;0.7473;0.5631;
1198.5000;0.7489;0.5680;
1198.8000;0.7464;0.5631;
1199.1000;0.7521;0.5753;
1199.4000;0.7505;0.5704;
1199.7000;0.7489;0.5753;
1200.0000;0.7473;0.5607;
1200.3000;0.7489;0.5607;
1200.6000;0.7497;0.5533;
1200.9000;0.7489;0.5533;
1201.2000;0.7497;0.5558;
1201.5000;0.7497;0.5509;
1201.8000;0.7554;0.5655;
1202.1000;0.7505;0.5485;
1202.4000;0.7489;0.5412;
1202.7000;0.7489;0.5412;
1203.0000;0.7489;0.5509;
1203.3000;0.7505;0.5558;
1203.6000;0.7505;0.5509;
1203.9000;0.7489;0.5533;
1204.2000;0.7513;0.5607;
1204.5000;0.7497;0.5631;
1204.8000;0.7481;0.5582;
1205.1000;0.7505;0.5704;
1205.4000;0.7481;0.5631;
1205.7000;0.7489;0.5655;
1206.0000;0.7505;0.5777;
1206.3000;0.7497;0.5680;
1206.6000;0.7448;0.5582;
1206.9000;0.7489;0.5680;
1207.2000;0.7513;0.5704;
1207.5000;0.7464;0.5533;
1207.8000;0.7456;0.5558;
1208.1000;0.7416;0.5509;
1208.4000;0.7497;0.5777;
1208.7000;0.7513;0.5875;
1209.0000;0.7554;0.6021;
1209.3000;0.7464;0.5802;
1209.6000;0.7481;0.5899;
1209.9000;0.7489;0.5875;
1210.2000;0.7481;0.5777;
1210.5000;0.7489;0.5728;
1210.8000;0.7481;0.5680;
1211.1000;0.7464;0.5582;
1211.4000;0.7473;0.5558;
1211.7000;0.7489;0.5607;
1212.0000;0.7481;0.5607;
1212.3000;0.7505;0.5607;
1212.6000;0.7497;0.5655;
1212.9000;0.7481;0.5582;
1213.2000;0.7481;0.5582;
1213.5000;0.7505;0.5607;
1213.8000;0.7448;0.5485;
1214.1000;0.7481;0.5558;
1214.4000;0.7489;0.5607;
1214.7000;0.7562;0.5728;
1215.0000;0.7497;0.5533;
1215.3000;0.7489;0.5460;
1215.6000;0.7505;0.5558;
1215.9000;0.7481;0.5509;
1216.2000;0.7497;0.5631;
1216.5000;0.7513;0.5753;
1216.8000;0.7489;0.5631;
1217.1000;0.7497;0.5509;
1217.4000;0.7473;0.5485;
1217.7000;0.7473;0.5607;
1218.0000;0.7521;0.5753;
1218.3000;0.7481;0.5655;
1218.6000;0.7473;0.5558;
1218.9000;0.7497;0.5607;
1219.2000;0.7489;0.5607;
1219.5000;0.7481;0.5631;
1219.8000;0.7497;0.5582;
1220.1000;0.7489;0.5509;
1220.4000;0.7481;0.5412;
1220.7000;0.7473;0.5363;
1221.0000;0.7530;0.5533;
1221.3000;0.7497;0.5412;
1221.6000;0.7497;0.5338;
1221.9000;0.7497;0.5314;
1222.2000;0.7497;0.5412;
1222.5000;0.7489;0.5485;
1222.8000;0.7489;0.5485;
1223.1000;0.7497;0.5582;
1223.4000;0.7489;0.5631;
1223.7000;0.7513;0.5680;
1224.0000;0.7489;0.5607;
1224.3000;0.7481;0.5533;
1224.6000;0.7489;0.5631;
1224.9000;0.7497;0.5582;
1225.2000;0.7497;0.5533;
1225.5000;0.7497;0.5533;
1225.8000;0.7497;0.5485;
1226.1000;0.7497;0.5485;
1226.4000;0.7497;0.5533;
1226.7000;0.7513;0.5582;
1227.0000;0.7497;0.5533;
1227.3000;0.7489;0.5533;
1227.6000;0.7530;0.5655;
1227.9000;0.7505;0.5631;
1228.2000;0.7473;0.5680;
1228.5000;0.7497;0.5753;
1228.8000;0.7505;0.5753;
1229.1000;0.7497;0.5680;
1229.4000;0.7497;0.5631;
1229.7000;0.7473;0.5631;
1230.0000;0.7432;0.5558;
1230.3000;0.7497;0.5704;
1230.6000;0.7448;0.5582;
1230.9000;0.7481;0.5533;
1231.2000;0.7497;0.5558;
1231.5000;0.7497;0.5607;
1231.8000;0.7497;0.5631;
1232.1000;0.7448;0.5533;
1232.4000;0.7497;0.5655;
1232.7000;0.7513;0.5753;
1233.0000;0.7489;0.5704;
1233.3000;0.7473;0.5655;
1233.6000;0.7505;0.5655;
1233.9000;0.7521;0.5680;
1234.2000;0.7595;0.5899;
1234.5000;0.7497;0.5607;
1234.8000;0.7538;0.5704;
1235.1000;0.7505;0.5704;
1235.4000;0.7497;0.5607;
1235.7000;0.7481;0.5533;
1236.0000;0.7489;0.5533;
1236.3000;0.7505;0.5533;
1236.6000;0.7497;0.5607;
1236.9000;0.7505;0.5607;
1237.2000;0.7489;0.5607;
1237.5000;0.7473;0.5558;
1237.8000;0.7538;0.5655;
1238.1000;0.7473;0.5607;
1238.4000;0.7481;0.5607;
1238.7000;0.7497;0.5582;
1239.0000;0.7497;0.5509;
1239.3000;0.7481;0.5460;
1239.6000;0.7497;0.5558;
1239.9000;0.7473;0.5485;
1240.2000;0.7489;0.5533;
1240.5000;0.7489;0.5582;
1240.8000;0.7481;0.5460;
1241.1000;0.7481;0.5436;
1241.4000;0.7489;0.5436;
1241.7000;0.7513;0.5485;
1242.0000;0.7489;0.5436;
1242.3000;0.7497;0.5436;
1242.6000;0.7497;0.5485;
1242.9000;0.7497;0.5509;
1243.2000;0.7505;0.5485;
1243.5000;0.7489;0.5582;
1243.8000;0.7489;0.5582;
1244.1000;0.7489;0.5558;
1244.4000;0.7481;0.5460;
1244.7000;0.7481;0.5338;
1245.0000;0.7489;0.5314;
1245.3000;0.7530;0.5338;
1245.6000;0.7489;0.5338;
1245.9000;0.7473;0.5363;
1246.2000;0.7481;0.5485;
1246.5000;0.7497;0.5485;
1246.8000;0.7497;0.5412;
1247.1000;0.7505;0.5485;
1247.4000;0.7489;0.5436;
1247.7000;0.7473;0.5485;
1248.0000;0.7505;0.5533;
1248.3000;0.7505;0.5460;
1248.6000;0.7505;0.5436;
1248.9000;0.7505;0.5460;
1249.2000;0.7513;0.5582;
1249.5000;0.7456;0.5533;
1249.8000;0.7481;0.5582;
1250.1000;0.7481;0.5607;
1250.4000;0.7489;0.5607;
1250.7000;0.7497;0.5558;
1251.0000;0.7497;0.5509;
1251.3000;0.7489;0.5412;
1251.6000;0.7440;0.5338;
1251.9000;0.7497;0.5533;
1252.2000;0.7497;0.5582;
1252.5000;0.7497;0.5607;
1252.8000;0.7489;0.5607;
1253.1000;0.7505;0.5533;
1253.4000;0.7505;0.5558;
1253.7000;0.7481;0.5436;
1254.0000;0.7497;0.5485;
1254.3000;0.7513;0.5436;
1254.6000;0.7497;0.5338;
1254.9000;0.7497;0.5290;
1255.2000;0.7505;0.5314;
1255.5000;0.7497;0.5387;
1255.8000;0.7497;0.5509;
1256.1000;0.7481;0.5509;
1256.4000;0.7489;0.5436;
1256.7000;0.7489;0.5412;
1257.0000;0.7505;0.5485;
1257.3000;0.7489;0.5412;
1257.6000;0.7505;0.5460;
1257.9000;0.7513;0.5509;
1258.2000;0.7448;0.5290;
1258.5000;0.7505;0.5387;
1258.8000;0.7489;0.5338;
1259.1000;0.7473;0.5314;
1259.4000;0.7497;0.5338;
1259.7000;0.7489;0.5412;
1260.0000;0.7489;0.5387;
1260.3000;0.7497;0.5290;
1260.6000;0.7521;0.5387;
1260.9000;0.7554;0.5485;
1261.2000;0.7505;0.5314;
1261.5000;0.7481;0.5314;
1261.8000;0.7505;0.5436;
1262.1000;0.7497;0.5509;
1262.4000;0.7497;0.5485;
1262.7000;0.7497;0.5436;
1263.0000;0.7489;0.5338;
1263.3000;0.7505;0.5338;
1263.6000;0.7473;0.5314;
1263.9000;0.7505;0.5363;
1264.2000;0.7489;0.5338;
1264.5000;0.7473;0.5290;
1264.8000;0.7464;0.5168;
1265.1000;0.7521;0.5265;
1265.4000;0.7489;0.5143;
1265.7000;0.7505;0.5168;
1266.0000;0.7481;0.5241;
1266.3000;0.7530;0.5436;
1266.6000;0.7473;0.5290;
1266.9000;0.7424;0.5217;
1267.2000;0.7513;0.5485;
1267.5000;0.7497;0.5460;
1267.8000;0.7399;0.5192;
1268.1000;0.7489;0.5387;
1268.4000;0.7538;0.5436;
1268.7000;0.7464;0.5143;
1269.0000;0.7497;0.5290;
1269.3000;0.7481;0.5290;
1269.6000;0.7530;0.5412;
1269.9000;0.7505;0.5436;
1270.2000;0.7489;0.5412;
1270.5000;0.7497;0.5412;
1270.8000;0.7505;0.5558;
1271.1000;0.7473;0.5460;
1271.4000;0.7505;0.5412;
1271.7000;0.7497;0.5387;
1272.0000;0.7489;0.5387;
1272.3000;0.7521;0.5509;
1272.6000;0.7489;0.5460;
1272.9000;0.7497;0.5436;
1273.2000;0.7521;0.5509;
1273.5000;0.7505;0.5558;
1273.8000;0.7481;0.5533;
1274.1000;0.7407;0.5314;
1274.4000;0.7538;0.5680;
1274.7000;0.7513;0.5680;
1275.0000;0.7497;0.5704;
1275.3000;0.7505;0.5680;
1275.6000;0.7497;0.5704;
1275.9000;0.7489;0.5607;
1276.2000;0.7464;0.5558;
1276.5000;0.7505;0.5607;
1276.8000;0.7505;0.5607;
1277.1000;0.7513;0.5607;
1277.4000;0.7489;0.5460;
1277.7000;0.7497;0.5509;
1278.0000;0.7489;0.5533;
1278.3000;0.7513;0.5582;
1278.6000;0.7505;0.5485;
1278.9000;0.7497;0.5509;
1279.2000;0.7489;0.5533;
1279.5000;0.7505;0.5509;
1279.8000;0.7513;0.5582;
1280.1000;0.7489;0.5485;
1280.4000;0.7489;0.5436;
1280.7000;0.7481;0.5290;
1281.0000;0.7521;0.5387;
1281.3000;0.7489;0.5265;
1281.6000;0.7497;0.5314;
1281.9000;0.7481;0.5290;
1282.2000;0.7489;0.5387;
1282.5000;0.7497;0.5338;
1282.8000;0.7505;0.5314;
1283.1000;0.7497;0.5265;
1283.4000;0.7505;0.5265;
1283.7000;0.7513;0.5412;
1284.0000;0.7562;0.5631;
1284.3000;0.7497;0.5436;
1284.6000;0.7464;0.5363;
1284.9000;0.7513;0.5509;
1285.2000;0.7489;0.5387;
1285.5000;0.7497;0.5363;
1285.8000;0.7489;0.5338;
1286.1000;0.7497;0.5363;
1286.4000;0.7513;0.5363;
1286.7000;0.7513;0.5387;
1287.0000;0.7505;0.5387;
1287.3000;0.7489;0.5363;
1287.6000;0.7505;0.5363;
1287.9000;0.7473;0.5265;
1288.2000;0.7456;0.5143;
1288.5000;0.7489;0.5241;
1288.8000;0.7473;0.5143;
1289.1000;0.7513;0.5192;
1289.4000;0.7489;0.5241;
1289.7000;0.7489;0.5387;
1290.0000;0.7497;0.5412;
1290.3000;0.7456;0.5314;
1290.6000;0.7473;0.5387;
1290.9000;0.7554;0.5533;
1291.2000;0.7464;0.5314;
1291.5000;0.7505;0.5436;
1291.8000;0.7497;0.5436;
1292.1000;0.7448;0.5338;
1292.4000;0.7440;0.5338;
1292.7000;0.7489;0.5412;
1293.0000;0.7456;0.5338;
1293.3000;0.7497;0.5436;
1293.6000;0.7481;0.5436;
1293.9000;0.7505;0.5436;
1294.2000;0.7497;0.5412;
1294.5000;0.7497;0.5338;
1294.8000;0.7497;0.5314;
1295.1000;0.7513;0.5460;
1295.4000;0.7546;0.5558;
1295.7000;0.7521;0.5460;
1296.0000;0.7497;0.5387;
1296.3000;0.7497;0.5460;
1296.6000;0.7497;0.5460;
1296.9000;0.7505;0.5460;
1297.2000;0.7481;0.5412;
1297.5000;0.7505;0.5412;
1297.8000;0.7505;0.5485;
1298.1000;0.7489;0.5412;
1298.4000;0.7489;0.5436;
1298.7000;0.7538;0.5485;
1299.0000;0.7497;0.5338;
1299.3000;0.7473;0.5338;
1299.6000;0.7489;0.5338;
1299.9000;0.7521;0.5436;
1300.2000;0.7489;0.5338;
1300.5000;0.7424;0.5192;
1300.8000;0.7497;0.5314;
1301.1000;0.7481;0.5265;
1301.4000;0.7513;0.5363;
1301.7000;0.7521;0.5387;
1302.0000;0.7489;0.5412;
1302.3000;0.7538;0.5558;
1302.6000;0.7505;0.5607;
1302.9000;0.7481;0.5509;
1303.2000;0.7489;0.5436;
1303.5000;0.7489;0.5558;
1303.8000;0.7505;0.5607;
1304.1000;0.7497;0.5509;
1304.4000;0.7489;0.5485;
1304.7000;0.7464;0.5412;
1305.0000;0.7481;0.5436;
1305.3000;0.7489;0.5460;
1305.6000;0.7489;0.5387;
1305.9000;0.7489;0.5509;
1306.2000;0.7473;0.5533;
1306.5000;0.7505;0.5582;
1306.8000;0.7464;0.5460;
1307.1000;0.7489;0.5485;
1307.4000;0.7481;0.5387;
1307.7000;0.7456;0.5290;
1308.0000;0.7481;0.5265;
1308.3000;0.7481;0.5241;
1308.6000;0.7473;0.5265;
1308.9000;0.7464;0.5168;
1309.2000;0.7505;0.5119;
1309.5000;0.7505;0.5168;
1309.8000;0.7481;0.5192;
1310.1000;0.7481;0.5265;
1310.4000;0.7489;0.5265;
1310.7000;0.7489;0.5290;
1311.0000;0.7505;0.5387;
1311.3000;0.7578;0.5509;
1311.6000;0.7505;0.5265;
1311.9000;0.7562;0.5412;
1312.2000;0.7464;0.5192;
1312.5000;0.7481;0.5290;
1312.8000;0.7489;0.5265;
1313.1000;0.7489;0.5143;
1313.4000;0.7497;0.5143;
1313.7000;0.7497;0.5168;
1314.0000;0.7505;0.5265;
1314.3000;0.7513;0.5412;
1314.6000;0.7505;0.5387;
1314.9000;0.7497;0.5412;
1315.2000;0.7497;0.5412;
1315.5000;0.7489;0.5314;
1315.8000;0.7497;0.5314;
1316.1000;0.7489;0.5265;
1316.4000;0.7473;0.5217;
1316.7000;0.7505;0.5314;
1317.0000;0.7513;0.5363;
1317.3000;0.7489;0.5387;
1317.6000;0.7440;0.5265;
1317.9000;0.7489;0.5363;
1318.2000;0.7473;0.5387;
1318.5000;0.7521;0.5436;
1318.8000;0.7505;0.5387;
1319.1000;0.7505;0.5436;
1319.4000;0.7489;0.5338;
1319.7000;0.7513;0.5314;
1320.0000;0.7489;0.5217;
1320.3000;0.7505;0.5363;
1320.6000;0.7554;0.5485;
1320.9000;0.7489;0.5290;
1321.2000;0.7489;0.5363;
1321.5000;0.7497;0.5314;
1321.8000;0.7513;0.5412;
1322.1000;0.7497;0.5387;
1322.4000;0.7505;0.5436;
1322.7000;0.7473;0.5290;
1323.0000;0.7481;0.5314;
1323.3000;0.7489;0.5314;
1323.6000;0.7497;0.5363;
1323.9000;0.7513;0.5338;
1324.2000;0.7481;0.5314;
1324.5000;0.7448;0.5265;
1324.8000;0.7513;0.5363;
1325.1000;0.7489;0.5338;
1325.4000;0.7489;0.5387;
1325.7000;0.7497;0.5533;
1326.0000;0.7497;0.5558;
1326.3000;0.7481;0.5533;
1326.6000;0.7505;0.5704;
1326.9000;0.7497;0.5607;
1327.2000;0.7538;0.5704;
1327.5000;0.7497;0.5582;
1327.8000;0.7513;0.5655;
1328.1000;0.7497;0.5655;
1328.4000;0.7521;0.5655;
1328.7000;0.7538;0.5607;
1329.0000;0.7432;0.5241;
1329.3000;0.7513;0.5412;
1329.6000;0.7505;0.5338;
1329.9000;0.7505;0.5314;
1330.2000;0.7497;0.5363;
1330.5000;0.7505;0.5485;
1330.8000;0.7481;0.5412;
1331.1000;0.7473;0.5460;
1331.4000;0.7505;0.5436;
1331.7000;0.7489;0.5412;
1332.0000;0.7489;0.5412;
1332.3000;0.7505;0.5436;
1332.6000;0.7505;0.5509;
1332.9000;0.7481;0.5533;
1333.2000;0.7505;0.5607;
1333.5000;0.7497;0.5607;
1333.8000;0.7489;0.5485;
1334.1000;0.7497;0.5485;
1334.4000;0.7497;0.5460;
1334.7000;0.7489;0.5387;
1335.0000;0.7546;0.5558;
1335.3000;0.7407;0.5241;
1335.6000;0.7481;0.5412;
1335.9000;0.7489;0.5436;
1336.2000;0.7481;0.5387;
1336.5000;0.7497;0.5436;
1336.8000;0.7489;0.5338;
1337.1000;0.7489;0.5387;
1337.4000;0.7497;0.5363;
1337.7000;0.7489;0.5314;
1338.0000;0.7513;0.5314;
1338.3000;0.7505;0.5314;
1338.6000;0.7505;0.5314;
1338.9000;0.7505;0.5363;
1339.2000;0.7505;0.5412;
1339.5000;0.7505;0.5460;
1339.8000;0.7521;0.5485;
1340.1000;0.7464;0.5412;
1340.4000;0.7497;0.5607;
1340.7000;0.7489;0.5558;
1341.0000;0.7521;0.5558;
1341.3000;0.7473;0.5485;
1341.6000;0.7595;0.5680;
1341.9000;0.7497;0.5509;
1342.2000;0.7481;0.5509;
1342.5000;0.7497;0.5509;
1342.8000;0.7489;0.5412;
1343.1000;0.7489;0.5363;
1343.4000;0.7505;0.5436;
1343.7000;0.7497;0.5412;
1344.0000;0.7481;0.5436;
1344.3000;0.7513;0.5485;
1344.6000;0.7513;0.5533;
1344.9000;0.7497;0.5485;
1345.2000;0.7521;0.5533;
1345.5000;0.7505;0.5533;
1345.8000;0.7489;0.5363;
1346.1000;0.7497;0.5412;
1346.4000;0.7481;0.5387;
1346.7000;0.7611;0.5631;
1347.0000;0.7473;0.5338;
1347.3000;0.7497;0.5412;
1347.6000;0.7456;0.5363;
1347.9000;0.7481;0.5338;
1348.2000;0.7505;0.5363;
1348.5000;0.7513;0.5387;
1348.8000;0.7505;0.5363;
1349.1000;0.7497;0.5314;
1349.4000;0.7505;0.5436;
1349.7000;0.7424;0.5290;
1350.0000;0.7521;0.5558;
1350.3000;0.7489;0.5509;
1350.6000;0.7497;0.5485;
1350.9000;0.7473;0.5533;
1351.2000;0.7489;0.5460;
1351.5000;0.7489;0.5387;
1351.8000;0.7489;0.5412;
1352.1000;0.7497;0.5436;
1352.4000;0.7497;0.5412;
1352.7000;0.7497;0.5412;
1353.0000;0.7399;0.5241;
1353.3000;0.7505;0.5387;
1353.6000;0.7497;0.5338;
1353.9000;0.7481;0.5290;
1354.2000;0.7497;0.5265;
1354.5000;0.7497;0.5265;
1354.8000;0.7505;0.5192;
1355.1000;0.7513;0.5265;
1355.4000;0.7497;0.5290;
1355.7000;0.7489;0.5314;
1356.0000;0.7497;0.5314;
1356.3000;0.7489;0.5217;
1356.6000;0.7481;0.5217;
1356.9000;0.7481;0.5143;
1357.2000;0.7513;0.5217;
1357.5000;0.7521;0.5290;
1357.8000;0.7513;0.5192;
1358.1000;0.7489;0.5168;
1358.4000;0.7505;0.5290;
1358.7000;0.7481;0.5217;
1359.0000;0.7489;0.5192;
1359.3000;0.7489;0.5241;
1359.6000;0.7481;0.5290;
1359.9000;0.7432;0.5217;
1360.2000;0.7481;0.5363;
1360.5000;0.7497;0.5436;
1360.8000;0.7464;0.5290;
1361.1000;0.7497;0.5460;
1361.4000;0.7473;0.5387;
1361.7000;0.7464;0.5217;
1362.0000;0.7489;0.5265;
1362.3000;0.7497;0.5290;
1362.6000;0.7521;0.5363;
1362.9000;0.7497;0.5412;
1363.2000;0.7497;0.5314;
1363.5000;0.7505;0.5314;
1363.8000;0.7489;0.5265;
1364.1000;0.7497;0.5265;
1364.4000;0.7546;0.5436;
1364.7000;0.7497;0.5314;
1365.0000;0.7497;0.5387;
1365.3000;0.7497;0.5412;
1365.6000;0.7505;0.5387;
1365.9000;0.7424;0.5119;
1366.2000;0.7554;0.5460;
1366.5000;0.7497;0.5290;
1366.8000;0.7456;0.5119;
1367.1000;0.7489;0.5241;
1367.4000;0.7505;0.5265;
1367.7000;0.7489;0.5314;
1368.0000;0.7489;0.5387;
1368.3000;0.7432;0.5265;
1368.6000;0.7505;0.5460;
1368.9000;0.7505;0.5533;
1369.2000;0.7497;0.5436;
1369.5000;0.7562;0.5582;
1369.8000;0.7505;0.5460;
1370.1000;0.7489;0.5412;
1370.4000;0.7554;0.5509;
1370.7000;0.7456;0.5314;
1371.0000;0.7489;0.5338;
1371.3000;0.7473;0.5265;
1371.6000;0.7489;0.5290;
1371.9000;0.7513;0.5265;
1372.2000;0.7481;0.5168;
1372.5000;0.7489;0.5217;
1372.8000;0.7513;0.5192;
1373.1000;0.7481;0.5168;
1373.4000;0.7497;0.5168;
1373.7000;0.7505;0.5192;
1374.0000;0.7513;0.5192;
1374.3000;0.7489;0.5143;
1374.6000;0.7489;0.5119;
1374.9000;0.7546;0.5192;
1375.2000;0.7505;0.5095;
1375.5000;0.7505;0.4948;
1375.8000;0.7489;0.4924;
1376.1000;0.7513;0.4973;
1376.4000;0.7497;0.4973;
1376.7000;0.7473;0.4973;
1377.0000;0.7464;0.4997;
1377.3000;0.7481;0.5119;
1377.6000;0.7481;0.5095;
1377.9000;0.7497;0.5095;
1378.2000;0.7497;0.5119;
1378.5000;0.7497;0.5217;
1378.8000;0.7497;0.5412;
1379.1000;0.7513;0.5460;
1379.4000;0.7473;0.5314;
1379.7000;0.7497;0.5338;
1380.0000;0.7497;0.5412;
1380.3000;0.7464;0.5290;
1380.6000;0.7481;0.5314;
1380.9000;0.7481;0.5241;
1381.2000;0.7513;0.5241;
1381.5000;0.7513;0.5338;
1381.8000;0.7497;0.5436;
1382.1000;0.7456;0.5338;
1382.4000;0.7489;0.5338;
1382.7000;0.7521;0.5436;
1383.0000;0.7595;0.5704;
1383.3000;0.7530;0.5533;
1383.6000;0.7497;0.5533;
1383.9000;0.7489;0.5533;
1384.2000;0.7521;0.5631;
1384.5000;0.7497;0.5485;
1384.8000;0.7432;0.5314;
1385.1000;0.7554;0.5655;
1385.4000;0.7530;0.5509;
1385.7000;0.7497;0.5460;
1386.0000;0.7505;0.5509;
1386.3000;0.7432;0.5363;
1386.6000;0.7489;0.5460;
1386.9000;0.7521;0.5509;
1387.2000;0.7489;0.5363;
1387.5000;0.7481;0.5436;
1387.8000;0.7489;0.5485;
1388.1000;0.7497;0.5558;
1388.4000;0.7489;0.5558;
1388.7000;0.7497;0.5607;
1389.0000;0.7521;0.5631;
1389.3000;0.7513;0.5631;
1389.6000;0.7513;0.5631;
1389.9000;0.7497;0.5582;
1390.2000;0.7513;0.5509;
1390.5000;0.7521;0.5485;
1390.8000;0.7473;0.5363;
1391.1000;0.7521;0.5412;
1391.4000;0.7513;0.5436;
1391.7000;0.7505;0.5412;
1392.0000;0.7497;0.5412;
1392.3000;0.7505;0.5460;
1392.6000;0.7489;0.5460;
1392.9000;0.7489;0.5436;
1393.2000;0.7497;0.5387;
1393.5000;0.7497;0.5338;
1393.8000;0.7497;0.5290;
1394.1000;0.7497;0.5241;
1394.4000;0.7513;0.5290;
1394.7000;0.7513;0.5338;
1395.0000;0.7505;0.5241;
1395.3000;0.7513;0.5192;
1395.6000;0.7497;0.5192;
1395.9000;0.7505;0.5241;
1396.2000;0.7489;0.5241;
1396.5000;0.7489;0.5192;
1396.8000;0.7489;0.5217;
1397.1000;0.7497;0.5192;
1397.4000;0.7505;0.5314;
1397.7000;0.7489;0.5265;
1398.0000;0.7505;0.5265;
1398.3000;0.7473;0.5217;
1398.6000;0.7497;0.5290;
1398.9000;0.7505;0.5412;
1399.2000;0.7505;0.5436;
1399.5000;0.7521;0.5460;
1399.8000;0.7489;0.5387;
