time/ms;Fluo/V;P700 deltaI/I x10³;
-199.8000;0.7440;0.5631;
-199.5000;0.7448;0.5631;
-199.2000;0.7440;0.5558;
-198.9000;0.7456;0.5631;
-198.6000;0.7448;0.5631;
-198.3000;0.7464;0.5631;
-198.0000;0.7456;0.5655;
-197.7000;0.7464;0.5631;
-197.4000;0.7448;0.5631;
-197.1000;0.7448;0.5582;
-196.8000;0.7464;0.5704;
-196.5000;0.7464;0.5680;
-196.2000;0.7464;0.5704;
-195.9000;0.7546;0.5972;
-195.6000;0.7456;0.5704;
-195.3000;0.7440;0.5680;
-195.0000;0.7473;0.5753;
-194.7000;0.7432;0.5631;
-194.4000;0.7440;0.5558;
-194.1000;0.7416;0.5436;
-193.8000;0.7432;0.5533;
-193.5000;0.7448;0.5533;
-193.2000;0.7481;0.5558;
-192.9000;0.7456;0.5533;
-192.6000;0.7424;0.5533;
-192.3000;0.7432;0.5607;
-192.0000;0.7440;0.5655;
-191.7000;0.7432;0.5582;
-191.4000;0.7448;0.5680;
-191.1000;0.7448;0.5728;
-190.8000;0.7448;0.5728;
-190.5000;0.7464;0.5704;
-190.2000;0.7505;0.5826;
-189.9000;0.7432;0.5582;
-189.6000;0.7448;0.5582;
-189.3000;0.7440;0.5533;
-189.0000;0.7391;0.5485;
-188.7000;0.7440;0.5607;
-188.4000;0.7432;0.5558;
-188.1000;0.7456;0.5655;
-187.8000;0.7456;0.5704;
-187.5000;0.7448;0.5704;
-187.2000;0.7448;0.5680;
-186.9000;0.7448;0.5607;
-186.6000;0.7464;0.5631;
-186.3000;0.7440;0.5582;
-186.0000;0.7424;0.5582;
-185.7000;0.7440;0.5558;
-185.4000;0.7432;0.5509;
-185.1000;0.7432;0.5485;
-184.8000;0.7440;0.5485;
-184.5000;0.7448;0.5485;
-184.2000;0.7448;0.5631;
-183.9000;0.7448;0.5607;
-183.6000;0.7456;0.5607;
-183.3000;0.7456;0.5631;
-183.0000;0.7432;0.5582;
-182.7000;0.7448;0.5558;
-182.4000;0.7464;0.5582;
-182.1000;0.7424;0.5533;
-181.8000;0.7448;0.5631;
-181.5000;0.7513;0.5802;
-181.2000;0.7440;0.5680;
-180.9000;0.7456;0.5655;
-180.6000;0.7448;0.5680;
-180.3000;0.7473;0.5655;
-180.0000;0.7456;0.5607;
-179.7000;0.7448;0.5558;
-179.4000;0.7464;0.5533;
-179.1000;0.7473;0.5485;
-178.8000;0.7456;0.5485;
-178.5000;0.7481;0.5412;
-178.2000;0.7448;0.5387;
-177.9000;0.7424;0.5338;
-177.6000;0.7464;0.5460;
-177.3000;0.7440;0.5485;
-177.0000;0.7375;0.5363;
-176.7000;0.7456;0.5509;
-176.4000;0.7432;0.5533;
-176.1000;0.7432;0.5533;
-175.8000;0.7416;0.5485;
-175.5000;0.7505;0.5680;
-175.2000;0.7456;0.5533;
-174.9000;0.7554;0.5826;
-174.6000;0.7448;0.5533;
-174.3000;0.7481;0.5704;
-174.0000;0.7424;0.5655;
-173.7000;0.7456;0.5582;
-173.4000;0.7375;0.5363;
-173.1000;0.7448;0.5558;
-172.8000;0.7424;0.5436;
-172.5000;0.7473;0.5485;
-172.2000;0.7440;0.5460;
-171.9000;0.7424;0.5412;
-171.6000;0.7456;0.5460;
-171.3000;0.7464;0.5436;
-171.0000;0.7440;0.5412;
-170.7000;0.7448;0.5436;
-170.4000;0.7448;0.5533;
-170.1000;0.7440;0.5533;
-169.8000;0.7440;0.5607;
-169.5000;0.7432;0.5558;
-169.2000;0.7432;0.5607;
-168.9000;0.7432;0.5655;
-168.6000;0.7440;0.5631;
-168.3000;0.7448;0.5655;
-168.0000;0.7448;0.5655;
-167.7000;0.7440;0.5607;
-167.4000;0.7473;0.5607;
-167.1000;0.7456;0.5558;
-166.8000;0.7440;0.5582;
-166.5000;0.7456;0.5680;
-166.2000;0.7440;0.5631;
-165.9000;0.7432;0.5558;
-165.6000;0.7481;0.5655;
-165.3000;0.7440;0.5558;
-165.0000;0.7432;0.5509;
-164.7000;0.7440;0.5460;
-164.4000;0.7432;0.5509;
-164.1000;0.7424;0.5558;
-163.8000;0.7432;0.5631;
-163.5000;0.7456;0.5631;
-163.2000;0.7440;0.5558;
-162.9000;0.7440;0.5533;
-162.6000;0.7399;0.5509;
-162.3000;0.7440;0.5509;
-162.0000;0.7391;0.5363;
-161.7000;0.7424;0.5436;
-161.4000;0.7456;0.5460;
-161.1000;0.7440;0.5460;
-160.8000;0.7456;0.5533;
-160.5000;0.7440;0.5412;
-160.2000;0.7456;0.5533;
-159.9000;0.7448;0.5582;
-159.6000;0.7448;0.5607;
-159.3000;0.7432;0.5631;
-159.0000;0.7416;0.5582;
-158.7000;0.7456;0.5655;
-158.4000;0.7473;0.5728;
-158.1000;0.7448;0.5655;
-157.8000;0.7440;0.5631;
-157.5000;0.7456;0.5680;
-157.2000;0.7473;0.5704;
-156.9000;0.7432;0.5533;
-156.6000;0.7432;0.5460;
-156.3000;0.7464;0.5607;
-156.0000;0.7440;0.5631;
-155.7000;0.7383;0.5485;
-155.4000;0.7407;0.5485;
-155.1000;0.7367;0.5290;
-154.8000;0.7464;0.5485;
-154.5000;0.7440;0.5436;
-154.2000;0.7448;0.5436;
-153.9000;0.7448;0.5582;
-153.6000;0.7505;0.5704;
-153.3000;0.7521;0.5802;
-153.0000;0.7440;0.5582;
-152.7000;0.7448;0.5533;
-152.4000;0.7473;0.5460;
-152.1000;0.7440;0.5265;
-151.8000;0.7448;0.5265;
-151.5000;0.7448;0.5290;
-151.2000;0.7448;0.5363;
-150.9000;0.7456;0.5363;
-150.6000;0.7440;0.5290;
-150.3000;0.7416;0.5314;
-150.0000;0.7448;0.5363;
-149.7000;0.7456;0.5387;
-149.4000;0.7432;0.5314;
-149.1000;0.7440;0.5363;
-148.8000;0.7440;0.5387;
-148.5000;0.7399;0.5363;
-148.2000;0.7432;0.5460;
-147.9000;0.7424;0.5412;
-147.6000;0.7448;0.5436;
-147.3000;0.7456;0.5412;
-147.0000;0.7416;0.5412;
-146.7000;0.7432;0.5485;
-146.4000;0.7456;0.5412;
-146.1000;0.7448;0.5436;
-145.8000;0.7456;0.5509;
-145.5000;0.7448;0.5509;
-145.2000;0.7440;0.5460;
-144.9000;0.7416;0.5436;
-144.6000;0.7440;0.5436;
-144.3000;0.7440;0.5412;
-144.0000;0.7440;0.5314;
-143.7000;0.7432;0.5290;
-143.4000;0.7456;0.5363;
-143.1000;0.7473;0.5436;
-142.8000;0.7464;0.5460;
-142.5000;0.7448;0.5363;
-142.2000;0.7448;0.5241;
-141.9000;0.7448;0.5265;
-141.6000;0.7416;0.5241;
-141.3000;0.7440;0.5265;
-141.0000;0.7334;0.5095;
-140.7000;0.7432;0.5363;
-140.4000;0.7448;0.5412;
-140.1000;0.7464;0.5460;
-139.8000;0.7440;0.5363;
-139.5000;0.7448;0.5436;
-139.2000;0.7432;0.5338;
-138.9000;0.7456;0.5436;
-138.6000;0.7424;0.5290;
-138.3000;0.7440;0.5338;
-138.0000;0.7391;0.5168;
-137.7000;0.7505;0.5436;
-137.4000;0.7416;0.5217;
-137.1000;0.7448;0.5265;
-136.8000;0.7416;0.5241;
-136.5000;0.7440;0.5314;
-136.2000;0.7440;0.5265;
-135.9000;0.7481;0.5509;
-135.6000;0.7481;0.5631;
-135.3000;0.7424;0.5582;
-135.0000;0.7464;0.5655;
-134.7000;0.7448;0.5558;
-134.4000;0.7448;0.5533;
-134.1000;0.7440;0.5558;
-133.8000;0.7424;0.5509;
-133.5000;0.7448;0.5533;
-133.2000;0.7473;0.5533;
-132.9000;0.7391;0.5436;
-132.6000;0.7456;0.5582;
-132.3000;0.7456;0.5607;
-132.0000;0.7489;0.5655;
-131.7000;0.7456;0.5412;
-131.4000;0.7489;0.5509;
-131.1000;0.7432;0.5363;
-130.8000;0.7440;0.5485;
-130.5000;0.7432;0.5485;
-130.2000;0.7440;0.5533;
-129.9000;0.7424;0.5412;
-129.6000;0.7464;0.5485;
-129.3000;0.7440;0.5509;
-129.0000;0.7424;0.5533;
-128.7000;0.7432;0.5582;
-128.4000;0.7464;0.5582;
-128.1000;0.7521;0.5777;
-127.8000;0.7448;0.5533;
-127.5000;0.7456;0.5436;
-127.2000;0.7440;0.5363;
-126.9000;0.7432;0.5363;
-126.6000;0.7464;0.5509;
-126.3000;0.7440;0.5387;
-126.0000;0.7473;0.5460;
-125.7000;0.7432;0.5338;
-125.4000;0.7440;0.5290;
-125.1000;0.7424;0.5314;
-124.8000;0.7416;0.5290;
-124.5000;0.7432;0.5363;
-124.2000;0.7440;0.5460;
-123.9000;0.7448;0.5412;
-123.6000;0.7440;0.5363;
-123.3000;0.7440;0.5363;
-123.0000;0.7473;0.5412;
-122.7000;0.7440;0.5387;
-122.4000;0.7432;0.5509;
-122.1000;0.7440;0.5509;
-121.8000;0.7448;0.5582;
-121.5000;0.7456;0.5607;
-121.2000;0.7440;0.5509;
-120.9000;0.7448;0.5485;
-120.6000;0.7456;0.5607;
-120.3000;0.7448;0.5582;
-120.0000;0.7416;0.5509;
-119.7000;0.7440;0.5607;
-119.4000;0.7432;0.5582;
-119.1000;0.7375;0.5387;
-118.8000;0.7432;0.5436;
-118.5000;0.7432;0.5485;
-118.2000;0.7432;0.5533;
-117.9000;0.7432;0.5582;
-117.6000;0.7448;0.5607;
-117.3000;0.7456;0.5533;
-117.0000;0.7359;0.5338;
-116.7000;0.7448;0.5558;
-116.4000;0.7464;0.5582;
-116.1000;0.7432;0.5436;
-115.8000;0.7424;0.5412;
-115.5000;0.7448;0.5509;
-115.2000;0.7456;0.5509;
-114.9000;0.7448;0.5485;
-114.6000;0.7456;0.5509;
-114.3000;0.7464;0.5607;
-114.0000;0.7586;0.5899;
-113.7000;0.7448;0.5631;
-113.4000;0.7456;0.5655;
-113.1000;0.7448;0.5631;
-112.8000;0.7432;0.5655;
-112.5000;0.7481;0.5777;
-112.2000;0.7432;0.5631;
-111.9000;0.7464;0.5680;
-111.6000;0.7448;0.5607;
-111.3000;0.7456;0.5558;
-111.0000;0.7448;0.5533;
-110.7000;0.7440;0.5485;
-110.4000;0.7407;0.5412;
-110.1000;0.7448;0.5582;
-109.8000;0.7448;0.5655;
-109.5000;0.7432;0.5533;
-109.2000;0.7464;0.5558;
-108.9000;0.7440;0.5558;
-108.6000;0.7456;0.5533;
-108.3000;0.7505;0.5582;
-108.0000;0.7456;0.5460;
-107.7000;0.7440;0.5436;
-107.4000;0.7546;0.5777;
-107.1000;0.7440;0.5485;
-106.8000;0.7456;0.5607;
-106.5000;0.7456;0.5704;
-106.2000;0.7399;0.5460;
-105.9000;0.7416;0.5460;
-105.6000;0.7456;0.5509;
-105.3000;0.7424;0.5412;
-105.0000;0.7440;0.5436;
-104.7000;0.7448;0.5485;
-104.4000;0.7432;0.5412;
-104.1000;0.7440;0.5412;
-103.8000;0.7464;0.5485;
-103.5000;0.7481;0.5558;
-103.2000;0.7432;0.5509;
-102.9000;0.7464;0.5509;
-102.6000;0.7448;0.5412;
-102.3000;0.7448;0.5387;
-102.0000;0.7432;0.5363;
-101.7000;0.7440;0.5363;
-101.4000;0.7359;0.5119;
-101.1000;0.7448;0.5314;
-100.8000;0.7440;0.5265;
-100.5000;0.7440;0.5290;
-100.2000;0.7464;0.5314;
-99.9000;0.7440;0.5265;
-99.6000;0.7440;0.5363;
-99.3000;0.7424;0.5436;
-99.0000;0.7456;0.5558;
-98.7000;0.7448;0.5533;
-98.4000;0.7440;0.5460;
-98.1000;0.7432;0.5485;
-97.8000;0.7432;0.5412;
-97.5000;0.7432;0.5387;
-97.2000;0.7473;0.5509;
-96.9000;0.7407;0.5363;
-96.6000;0.7432;0.5387;
-96.3000;0.7464;0.5460;
-96.0000;0.7464;0.5558;
-95.7000;0.7456;0.5509;
-95.4000;0.7432;0.5558;
-95.1000;0.7481;0.5704;
-94.8000;0.7432;0.5509;
-94.5000;0.7424;0.5460;
-94.2000;0.7416;0.5436;
-93.9000;0.7416;0.5387;
-93.6000;0.7440;0.5558;
-93.3000;0.7424;0.5533;
-93.0000;0.7416;0.5485;
-92.7000;0.7456;0.5607;
-92.4000;0.7448;0.5655;
-92.1000;0.7440;0.5655;
-91.8000;0.7448;0.5631;
-91.5000;0.7440;0.5704;
-91.2000;0.7440;0.5704;
-90.9000;0.7432;0.5704;
-90.6000;0.7424;0.5704;
-90.3000;0.7440;0.5777;
-90.0000;0.7440;0.5826;
-89.7000;0.7432;0.5728;
-89.4000;0.7440;0.5680;
-89.1000;0.7448;0.5777;
-88.8000;0.7456;0.5728;
-88.5000;0.7464;0.5753;
-88.2000;0.7440;0.5680;
-87.9000;0.7440;0.5680;
-87.6000;0.7424;0.5558;
-87.3000;0.7448;0.5680;
-87.0000;0.7440;0.5631;
-86.7000;0.7407;0.5460;
-86.4000;0.7432;0.5509;
-86.1000;0.7416;0.5558;
-85.8000;0.7432;0.5533;
-85.5000;0.7456;0.5533;
-85.2000;0.7448;0.5582;
-84.9000;0.7448;0.5607;
-84.6000;0.7424;0.5509;
-84.3000;0.7432;0.5436;
-84.0000;0.7489;0.5655;
-83.7000;0.7432;0.5533;
-83.4000;0.7448;0.5631;
-83.1000;0.7432;0.5533;
-82.8000;0.7440;0.5533;
-82.5000;0.7448;0.5558;
-82.2000;0.7440;0.5558;
-81.9000;0.7424;0.5558;
-81.6000;0.7440;0.5631;
-81.3000;0.7440;0.5631;
-81.0000;0.7481;0.5704;
-80.7000;0.7464;0.5704;
-80.4000;0.7432;0.5582;
-80.1000;0.7456;0.5631;
-79.8000;0.7505;0.5777;
-79.5000;0.7456;0.5680;
-79.2000;0.7424;0.5728;
-78.9000;0.7424;0.5704;
-78.6000;0.7448;0.5728;
-78.3000;0.7530;0.5826;
-78.0000;0.7424;0.5533;
-77.7000;0.7456;0.5607;
-77.4000;0.7448;0.5655;
-77.1000;0.7448;0.5704;
-76.8000;0.7489;0.5728;
-76.5000;0.7440;0.5631;
-76.2000;0.7440;0.5533;
-75.9000;0.7448;0.5509;
-75.6000;0.7456;0.5436;
-75.3000;0.7432;0.5436;
-75.0000;0.7448;0.5509;
-74.7000;0.7464;0.5509;
-74.4000;0.7448;0.5412;
-74.1000;0.7432;0.5387;
-73.8000;0.7440;0.5387;
-73.5000;0.7424;0.5412;
-73.2000;0.7448;0.5485;
-72.9000;0.7424;0.5533;
-72.6000;0.7424;0.5680;
-72.3000;0.7448;0.5777;
-72.0000;0.7440;0.5728;
-71.7000;0.7424;0.5704;
-71.4000;0.7432;0.5680;
-71.1000;0.7432;0.5728;
-70.8000;0.7432;0.5704;
-70.5000;0.7424;0.5680;
-70.2000;0.7432;0.5680;
-69.9000;0.7464;0.5777;
-69.6000;0.7464;0.5802;
-69.3000;0.7456;0.5777;
-69.0000;0.7416;0.5704;
-68.7000;0.7416;0.5704;
-68.4000;0.7440;0.5777;
-68.1000;0.7440;0.5655;
-67.8000;0.7440;0.5509;
-67.5000;0.7448;0.5558;
-67.2000;0.7448;0.5631;
-66.9000;0.7448;0.5607;
-66.6000;0.7448;0.5607;
-66.3000;0.7464;0.5607;
-66.0000;0.7473;0.5558;
-65.7000;0.7448;0.5558;
-65.4000;0.7464;0.5631;
-65.1000;0.7456;0.5558;
-64.8000;0.7448;0.5582;
-64.5000;0.7391;0.5533;
-64.2000;0.7456;0.5607;
-63.9000;0.7448;0.5533;
-63.6000;0.7424;0.5558;
-63.3000;0.7440;0.5582;
-63.0000;0.7424;0.5631;
-62.7000;0.7432;0.5582;
-62.4000;0.7440;0.5533;
-62.1000;0.7448;0.5582;
-61.8000;0.7432;0.5558;
-61.5000;0.7424;0.5680;
-61.2000;0.7416;0.5582;
-60.9000;0.7464;0.5680;
-60.6000;0.7432;0.5558;
-60.3000;0.7432;0.5704;
-60.0000;0.7481;0.5802;
-59.7000;0.7432;0.5704;
-59.4000;0.7473;0.5655;
-59.1000;0.7407;0.5485;
-58.8000;0.7440;0.5558;
-58.5000;0.7424;0.5533;
-58.2000;0.7456;0.5582;
-57.9000;0.7440;0.5607;
-57.6000;0.7424;0.5655;
-57.3000;0.7432;0.5777;
-57.0000;0.7456;0.5899;
-56.7000;0.7456;0.5728;
-56.4000;0.7464;0.5680;
-56.1000;0.7464;0.5582;
-55.8000;0.7448;0.5509;
-55.5000;0.7464;0.5460;
-55.2000;0.7448;0.5387;
-54.9000;0.7424;0.5363;
-54.6000;0.7448;0.5485;
-54.3000;0.7424;0.5485;
-54.0000;0.7464;0.5655;
-53.7000;0.7424;0.5607;
-53.4000;0.7440;0.5704;
-53.1000;0.7440;0.5704;
-52.8000;0.7440;0.5802;
-52.5000;0.7440;0.5777;
-52.2000;0.7456;0.5728;
-51.9000;0.7440;0.5753;
-51.6000;0.7440;0.5680;
-51.3000;0.7432;0.5680;
-51.0000;0.7424;0.5704;
-50.7000;0.7432;0.5680;
-50.4000;0.7448;0.5728;
-50.1000;0.7432;0.5728;
-49.8000;0.7440;0.5753;
-49.5000;0.7432;0.5631;
-49.2000;0.7448;0.5753;
-48.9000;0.7440;0.5680;
-48.6000;0.7432;0.5680;
-48.3000;0.7440;0.5582;
-48.0000;0.7448;0.5558;
-47.7000;0.7440;0.5582;
-47.4000;0.7432;0.5631;
-47.1000;0.7432;0.5582;
-46.8000;0.7481;0.5655;
-46.5000;0.7448;0.5509;
-46.2000;0.7440;0.5607;
-45.9000;0.7440;0.5753;
-45.6000;0.7448;0.5826;
-45.3000;0.7456;0.5826;
-45.0000;0.7464;0.5802;
-44.7000;0.7416;0.5655;
-44.4000;0.7448;0.5680;
-44.1000;0.7448;0.5631;
-43.8000;0.7367;0.5509;
-43.5000;0.7432;0.5728;
-43.2000;0.7440;0.5728;
-42.9000;0.7448;0.5777;
-42.6000;0.7440;0.5704;
-42.3000;0.7407;0.5631;
-42.0000;0.7440;0.5704;
-41.7000;0.7448;0.5607;
-41.4000;0.7424;0.5631;
-41.1000;0.7440;0.5753;
-40.8000;0.7448;0.5728;
-40.5000;0.7416;0.5680;
-40.2000;0.7424;0.5655;
-39.9000;0.7448;0.5704;
-39.6000;0.7432;0.5631;
-39.3000;0.7448;0.5655;
-39.0000;0.7383;0.5485;
-38.7000;0.7440;0.5607;
-38.4000;0.7424;0.5582;
-38.1000;0.7440;0.5607;
-37.8000;0.7399;0.5485;
-37.5000;0.7416;0.5436;
-37.2000;0.7424;0.5412;
-36.9000;0.7440;0.5509;
-36.6000;0.7432;0.5558;
-36.3000;0.7440;0.5607;
-36.0000;0.7448;0.5704;
-35.7000;0.7546;0.5777;
-35.4000;0.7440;0.5460;
-35.1000;0.7464;0.5509;
-34.8000;0.7440;0.5509;
-34.5000;0.7432;0.5460;
-34.2000;0.7456;0.5655;
-33.9000;0.7448;0.5753;
-33.6000;0.7432;0.5704;
-33.3000;0.7440;0.5631;
-33.0000;0.7432;0.5631;
-32.7000;0.7424;0.5558;
-32.4000;0.7432;0.5582;
-32.1000;0.7424;0.5582;
-31.8000;0.7448;0.5704;
-31.5000;0.7448;0.5680;
-31.2000;0.7440;0.5680;
-30.9000;0.7481;0.5777;
-30.6000;0.7440;0.5704;
-30.3000;0.7456;0.5728;
-30.0000;0.7448;0.5704;
-29.7000;0.7416;0.5558;
-29.4000;0.7416;0.5509;
-29.1000;0.7424;0.5533;
-28.8000;0.7464;0.5582;
-28.5000;0.7440;0.5607;
-28.2000;0.7432;0.5680;
-27.9000;0.7407;0.5655;
-27.6000;0.7432;0.5655;
-27.3000;0.7448;0.5680;
-27.0000;0.7440;0.5680;
-26.7000;0.7432;0.5728;
-26.4000;0.7456;0.5728;
-26.1000;0.7424;0.5655;
-25.8000;0.7440;0.5728;
-25.5000;0.7456;0.5753;
-25.2000;0.7407;0.5582;
-24.9000;0.7497;0.5826;
-24.6000;0.7456;0.5655;
-24.3000;0.7432;0.5655;
-24.0000;0.7407;0.5631;
-23.7000;0.7432;0.5680;
-23.4000;0.7440;0.5777;
-23.1000;0.7424;0.5753;
-22.8000;0.7448;0.5826;
-22.5000;0.7440;0.5826;
-22.2000;0.7407;0.5728;
-21.9000;0.7432;0.5850;
-21.6000;0.7432;0.5753;
-21.3000;0.7432;0.5777;
-21.0000;0.7432;0.5826;
-20.7000;0.7473;0.5924;
-20.4000;0.7456;0.5826;
-20.1000;0.7432;0.5753;
-19.8000;0.7456;0.5777;
-19.5000;0.7489;0.5899;
-19.2000;0.7432;0.5655;
-18.9000;0.7416;0.5607;
-18.6000;0.7432;0.5631;
-18.3000;0.7432;0.5680;
-18.0000;0.7448;0.5680;
-17.7000;0.7399;0.5582;
-17.4000;0.7456;0.5802;
-17.1000;0.7448;0.5802;
-16.8000;0.7432;0.5802;
-16.5000;0.7432;0.5850;
-16.2000;0.7481;0.5850;
-15.9000;0.7432;0.5777;
-15.6000;0.7350;0.5533;
-15.3000;0.7440;0.5728;
-15.0000;0.7448;0.5728;
-14.7000;0.7432;0.5655;
-14.4000;0.7448;0.5655;
-14.1000;0.7424;0.5582;
-13.8000;0.7440;0.5607;
-13.5000;0.7464;0.5753;
-13.2000;0.7407;0.5582;
-12.9000;0.7440;0.5680;
-12.6000;0.7350;0.5485;
-12.3000;0.7432;0.5777;
-12.0000;0.7432;0.5802;
-11.7000;0.7448;0.5850;
-11.4000;0.7432;0.5802;
-11.1000;0.7456;0.5850;
-10.8000;0.7481;0.5899;
-10.5000;0.7497;0.5826;
-10.2000;0.7448;0.5777;
-9.9000;0.7448;0.5826;
-9.6000;0.7456;0.5924;
-9.3000;0.7440;0.5972;
-9.0000;0.7440;0.5948;
-8.7000;0.7464;0.5972;
-8.4000;0.7432;0.5826;
-8.1000;0.7448;0.5875;
-7.8000;0.7456;0.5924;
-7.5000;0.7448;0.5802;
-7.2000;0.7456;0.5777;
-6.9000;0.7424;0.5655;
-6.6000;0.7424;0.5680;
-6.3000;0.7473;0.5826;
-6.0000;0.7448;0.5802;
-5.7000;0.7440;0.5704;
-5.4000;0.7407;0.5655;
-5.1000;0.7432;0.5753;
-4.8000;0.7432;0.5802;
-4.5000;0.7440;0.5826;
-4.2000;0.7440;0.5826;
-3.9000;0.7424;0.5753;
-3.6000;0.7432;0.5753;
-3.3000;0.7432;0.5850;
-3.0000;0.7440;0.5850;
-2.7000;0.7416;0.5826;
-2.4000;0.7399;0.5826;
-2.1000;0.7456;0.6021;
-1.8000;0.7407;0.5875;
-1.5000;0.7407;0.5802;
-1.2000;0.7416;0.5875;
-0.9000;0.7424;0.5924;
-0.6000;0.7432;0.5802;
-0.3000;0.7424;0.5777;
0.0000;0.7424;0.5777;
0.3000;0.7505;0.5704;
0.6000;0.7635;0.5948;
0.9000;0.7692;0.6094;
1.2000;0.7774;0.6411;
1.5000;0.7847;0.6777;
1.8000;0.7871;0.6972;
2.1000;0.7896;0.7142;
2.4000;0.7945;0.7313;
2.7000;0.7961;0.7459;
3.0000;0.7969;0.7508;
3.3000;0.8010;0.7654;
3.6000;0.8010;0.7703;
3.9000;0.8026;0.7874;
4.2000;0.8059;0.8020;
4.5000;0.8042;0.7996;
4.8000;0.8075;0.8093;
5.1000;0.8099;0.8264;
5.4000;0.8042;0.8117;
5.7000;0.8091;0.8312;
6.0000;0.8083;0.8239;
6.3000;0.8075;0.8239;
6.6000;0.8067;0.8239;
6.9000;0.8083;0.8288;
7.2000;0.8083;0.8337;
7.5000;0.8034;0.8239;
7.8000;0.8099;0.8337;
8.1000;0.8116;0.8410;
8.4000;0.8107;0.8166;
8.7000;0.8083;0.8069;
9.0000;0.8197;0.8337;
9.3000;0.8116;0.8093;
9.6000;0.8091;0.7971;
9.9000;0.8132;0.8044;
10.2000;0.8124;0.8020;
10.5000;0.8124;0.7996;
10.8000;0.8246;0.8239;
11.1000;0.8140;0.7947;
11.4000;0.8132;0.8044;
11.7000;0.8140;0.8069;
12.0000;0.8164;0.8142;
12.3000;0.8148;0.8191;
12.6000;0.8148;0.8239;
12.9000;0.8148;0.8288;
13.2000;0.8148;0.8239;
13.5000;0.8099;0.8020;
13.8000;0.8164;0.8142;
14.1000;0.8164;0.8191;
14.4000;0.8181;0.8191;
14.7000;0.8189;0.8166;
15.0000;0.8173;0.8093;
15.3000;0.8164;0.8093;
15.6000;0.8181;0.7996;
15.9000;0.8197;0.8142;
16.2000;0.8205;0.8191;
16.5000;0.8173;0.8117;
16.8000;0.8197;0.8142;
17.1000;0.8205;0.8191;
17.4000;0.8213;0.8288;
17.7000;0.8189;0.8191;
18.0000;0.8213;0.8312;
18.3000;0.8221;0.8191;
18.6000;0.8221;0.8215;
18.9000;0.8213;0.8142;
19.2000;0.8213;0.8093;
19.5000;0.8205;0.8117;
19.8000;0.8221;0.8215;
20.1000;0.8197;0.8215;
20.4000;0.8205;0.8239;
20.7000;0.8213;0.8264;
21.0000;0.8213;0.8191;
21.3000;0.8230;0.8142;
21.6000;0.8238;0.8191;
21.9000;0.8230;0.8191;
22.2000;0.8230;0.8093;
22.5000;0.8221;0.8142;
22.8000;0.8319;0.8434;
23.1000;0.8221;0.8312;
23.4000;0.8246;0.8264;
23.7000;0.8230;0.8239;
24.0000;0.8230;0.8191;
24.3000;0.8254;0.8215;
24.6000;0.8230;0.8093;
24.9000;0.8230;0.8117;
25.2000;0.8246;0.8239;
25.5000;0.8238;0.8264;
25.8000;0.8295;0.8361;
26.1000;0.8230;0.8288;
26.4000;0.8221;0.8215;
26.7000;0.8238;0.8239;
27.0000;0.8246;0.8166;
27.3000;0.8230;0.8142;
27.6000;0.8213;0.8093;
27.9000;0.8230;0.8117;
28.2000;0.8238;0.8166;
28.5000;0.8181;0.8044;
28.8000;0.8238;0.8191;
29.1000;0.8197;0.8117;
29.4000;0.8246;0.8215;
29.7000;0.8254;0.8264;
30.0000;0.8246;0.8337;
30.3000;0.8221;0.8312;
30.6000;0.8246;0.8288;
30.9000;0.8246;0.8337;
31.2000;0.8246;0.8215;
31.5000;0.8238;0.8215;
31.8000;0.8246;0.8191;
32.1000;0.8287;0.8288;
32.4000;0.8238;0.8117;
32.7000;0.8254;0.8142;
33.0000;0.8246;0.8142;
33.3000;0.8238;0.8191;
33.6000;0.8238;0.8239;
33.9000;0.8262;0.8264;
34.2000;0.8262;0.8215;
34.5000;0.8262;0.8239;
34.8000;0.8254;0.8264;
35.1000;0.8270;0.8239;
35.4000;0.8238;0.8191;
35.7000;0.8262;0.8191;
36.0000;0.8254;0.8191;
36.3000;0.8262;0.8166;
36.6000;0.8246;0.8142;
36.9000;0.8254;0.8191;
37.2000;0.8254;0.8142;
37.5000;0.8254;0.8142;
37.8000;0.8246;0.8166;
38.1000;0.8238;0.8166;
38.4000;0.8238;0.8191;
38.7000;0.8197;0.8117;
39.0000;0.8238;0.8264;
39.3000;0.8230;0.8239;
39.6000;0.8221;0.8239;
39.9000;0.8254;0.8239;
40.2000;0.8230;0.8191;
40.5000;0.8246;0.8142;
40.8000;0.8230;0.8093;
41.1000;0.8262;0.8142;
41.4000;0.8238;0.8117;
41.7000;0.8238;0.8142;
42.0000;0.8221;0.8191;
42.3000;0.8230;0.8166;
42.6000;0.8238;0.8166;
42.9000;0.8262;0.8191;
43.2000;0.8238;0.8020;
43.5000;0.8246;0.7996;
43.8000;0.8295;0.8117;
44.1000;0.8246;0.8069;
44.4000;0.8254;0.8020;
44.7000;0.8246;0.8069;
45.0000;0.8230;0.8069;
45.3000;0.8238;0.8239;
45.6000;0.8230;0.8264;
45.9000;0.8262;0.8239;
46.2000;0.8303;0.8264;
46.5000;0.8295;0.8239;
46.8000;0.8230;0.8093;
47.1000;0.8230;0.8093;
47.4000;0.8238;0.8142;
47.7000;0.8238;0.8142;
48.0000;0.8230;0.8093;
48.3000;0.8246;0.8093;
48.6000;0.8238;0.8069;
48.9000;0.8246;0.8117;
49.2000;0.8344;0.8410;
49.5000;0.8254;0.8166;
49.8000;0.8262;0.8142;
50.1000;0.8262;0.8191;
50.4000;0.8254;0.8166;
50.7000;0.8270;0.8191;
51.0000;0.8254;0.8093;
51.3000;0.8295;0.8191;
51.6000;0.8254;0.8093;
51.9000;0.8238;0.8069;
52.2000;0.8246;0.8117;
52.5000;0.8246;0.8239;
52.8000;0.8246;0.8337;
53.1000;0.8230;0.8288;
53.4000;0.8156;0.7996;
53.7000;0.8246;0.8117;
54.0000;0.8238;0.8069;
54.3000;0.8246;0.8044;
54.6000;0.8352;0.8312;
54.9000;0.8262;0.8069;
55.2000;0.8254;0.7947;
55.5000;0.8230;0.7898;
55.8000;0.8246;0.7898;
56.1000;0.8278;0.8069;
56.4000;0.8254;0.8166;
56.7000;0.8246;0.8069;
57.0000;0.8262;0.7996;
57.3000;0.8254;0.8020;
57.6000;0.8230;0.7898;
57.9000;0.8270;0.7996;
58.2000;0.8246;0.7971;
58.5000;0.8238;0.7898;
58.8000;0.8262;0.7971;
59.1000;0.8270;0.8020;
59.4000;0.8238;0.7922;
59.7000;0.8238;0.7971;
60.0000;0.8246;0.7996;
60.3000;0.8262;0.8093;
60.6000;0.8262;0.8044;
60.9000;0.8262;0.8044;
61.2000;0.8295;0.8044;
61.5000;0.8278;0.8117;
61.8000;0.8246;0.8069;
62.1000;0.8254;0.8069;
62.4000;0.8254;0.8142;
62.7000;0.8262;0.8215;
63.0000;0.8230;0.8117;
63.3000;0.8230;0.8117;
63.6000;0.8221;0.8044;
63.9000;0.8238;0.8069;
64.2000;0.8213;0.7947;
64.5000;0.8230;0.7898;
64.8000;0.8246;0.7971;
65.1000;0.8246;0.8044;
65.4000;0.8238;0.8069;
65.7000;0.8246;0.8117;
66.0000;0.8230;0.8093;
66.3000;0.8238;0.8191;
66.6000;0.8230;0.8191;
66.9000;0.8238;0.8215;
67.2000;0.8221;0.8191;
67.5000;0.8221;0.8215;
67.8000;0.8221;0.8239;
68.1000;0.8230;0.8312;
68.4000;0.8213;0.8386;
68.7000;0.8246;0.8386;
69.0000;0.8335;0.8605;
69.3000;0.8238;0.8215;
69.6000;0.8221;0.8020;
69.9000;0.8238;0.7996;
70.2000;0.8262;0.8117;
70.5000;0.8262;0.8020;
70.8000;0.8238;0.7947;
71.1000;0.8246;0.8020;
71.4000;0.8238;0.7922;
71.7000;0.8254;0.8093;
72.0000;0.8262;0.8093;
72.3000;0.8238;0.8044;
72.6000;0.8238;0.8044;
72.9000;0.8230;0.8093;
73.2000;0.8230;0.8166;
73.5000;0.8213;0.8117;
73.8000;0.8238;0.8166;
74.1000;0.8238;0.8166;
74.4000;0.8254;0.8264;
74.7000;0.8238;0.8288;
75.0000;0.8238;0.8191;
75.3000;0.8246;0.8215;
75.6000;0.8295;0.8337;
75.9000;0.8230;0.8117;
76.2000;0.8238;0.8117;
76.5000;0.8303;0.8239;
76.8000;0.8238;0.8117;
77.1000;0.8246;0.8117;
77.4000;0.8230;0.8117;
77.7000;0.8238;0.8117;
78.0000;0.8230;0.8142;
78.3000;0.8238;0.8093;
78.6000;0.8181;0.7971;
78.9000;0.8287;0.8191;
79.2000;0.8213;0.8044;
79.5000;0.8238;0.8069;
79.8000;0.8246;0.8069;
80.1000;0.8230;0.7971;
80.4000;0.8246;0.8020;
80.7000;0.8197;0.7922;
81.0000;0.8205;0.7922;
81.3000;0.8254;0.8117;
81.6000;0.8230;0.8069;
81.9000;0.8238;0.7996;
82.2000;0.8238;0.7922;
82.5000;0.8238;0.7922;
82.8000;0.8238;0.8020;
83.1000;0.8213;0.7971;
83.4000;0.8230;0.8020;
83.7000;0.8230;0.7971;
84.0000;0.8230;0.7996;
84.3000;0.8287;0.8191;
84.6000;0.8238;0.8069;
84.9000;0.8230;0.8093;
85.2000;0.8173;0.7922;
85.5000;0.8238;0.8044;
85.8000;0.8262;0.8069;
86.1000;0.8213;0.7898;
86.4000;0.8238;0.7947;
86.7000;0.8238;0.8020;
87.0000;0.8246;0.8020;
87.3000;0.8148;0.7776;
87.6000;0.8213;0.8044;
87.9000;0.8221;0.8117;
88.2000;0.8230;0.8215;
88.5000;0.8238;0.8215;
88.8000;0.8254;0.8239;
89.1000;0.8205;0.8044;
89.4000;0.8197;0.8020;
89.7000;0.8230;0.8093;
90.0000;0.8164;0.7971;
90.3000;0.8246;0.8069;
90.6000;0.8221;0.8020;
90.9000;0.8230;0.7996;
91.2000;0.8246;0.8069;
91.5000;0.8230;0.8044;
91.8000;0.8221;0.8093;
92.1000;0.8230;0.8069;
92.4000;0.8221;0.8069;
92.7000;0.8213;0.7996;
93.0000;0.8205;0.8069;
93.3000;0.8238;0.8044;
93.6000;0.8230;0.8117;
93.9000;0.8221;0.8069;
94.2000;0.8205;0.7922;
94.5000;0.8221;0.8020;
94.8000;0.8213;0.7971;
95.1000;0.8181;0.7849;
95.4000;0.8213;0.7922;
95.7000;0.8221;0.8020;
96.0000;0.8246;0.8044;
96.3000;0.8238;0.7947;
96.6000;0.8221;0.7971;
96.9000;0.8230;0.7971;
97.2000;0.8230;0.7947;
97.5000;0.8238;0.7971;
97.8000;0.8205;0.7971;
98.1000;0.8246;0.7996;
98.4000;0.8230;0.7922;
98.7000;0.8246;0.7849;
99.0000;0.8238;0.7898;
99.3000;0.8230;0.7971;
99.6000;0.8213;0.7947;
99.9000;0.8221;0.8020;
100.2000;0.8189;0.7849;
100.5000;0.8213;0.7971;
100.8000;0.8221;0.8069;
101.1000;0.8238;0.8142;
101.4000;0.8197;0.8142;
101.7000;0.8205;0.8239;
102.0000;0.8230;0.8288;
102.3000;0.8262;0.8239;
102.6000;0.8238;0.8142;
102.9000;0.8213;0.8093;
103.2000;0.8246;0.8044;
103.5000;0.8221;0.8020;
103.8000;0.8230;0.8069;
104.1000;0.8189;0.7947;
104.4000;0.8230;0.8044;
104.7000;0.8213;0.7971;
105.0000;0.8262;0.8069;
105.3000;0.8238;0.7996;
105.6000;0.8238;0.7971;
105.9000;0.8246;0.7971;
106.2000;0.8221;0.7922;
106.5000;0.8205;0.7898;
106.8000;0.8221;0.7947;
107.1000;0.8295;0.8069;
107.4000;0.8221;0.7922;
107.7000;0.8230;0.7947;
108.0000;0.8197;0.7874;
108.3000;0.8230;0.7825;
108.6000;0.8238;0.7849;
108.9000;0.8246;0.7898;
109.2000;0.8205;0.7752;
109.5000;0.8238;0.7825;
109.8000;0.8221;0.7752;
110.1000;0.8238;0.7752;
110.4000;0.8221;0.7801;
110.7000;0.8238;0.7898;
111.0000;0.8238;0.7825;
111.3000;0.8254;0.7971;
111.6000;0.8230;0.8020;
111.9000;0.8230;0.8020;
112.2000;0.8246;0.7996;
112.5000;0.8230;0.7971;
112.8000;0.8205;0.7898;
113.1000;0.8221;0.7922;
113.4000;0.8230;0.8142;
113.7000;0.8197;0.8191;
114.0000;0.8230;0.8142;
114.3000;0.8230;0.8117;
114.6000;0.8205;0.8020;
114.9000;0.8221;0.8044;
115.2000;0.8205;0.8020;
115.5000;0.8205;0.7971;
115.8000;0.8262;0.8142;
116.1000;0.8238;0.8093;
116.4000;0.8327;0.8312;
116.7000;0.8213;0.7971;
117.0000;0.8164;0.7776;
117.3000;0.8213;0.7971;
117.6000;0.8221;0.7971;
117.9000;0.8205;0.7996;
118.2000;0.8205;0.7971;
118.5000;0.8181;0.7849;
118.8000;0.8197;0.7971;
119.1000;0.8213;0.7996;
119.4000;0.8173;0.7898;
119.7000;0.8213;0.7971;
120.0000;0.8213;0.7922;
120.3000;0.8213;0.7947;
120.6000;0.8181;0.7849;
120.9000;0.8221;0.7922;
121.2000;0.8262;0.7947;
121.5000;0.8230;0.7849;
121.8000;0.8221;0.7849;
122.1000;0.8189;0.7849;
122.4000;0.8238;0.7874;
122.7000;0.8205;0.7801;
123.0000;0.8230;0.7874;
123.3000;0.8205;0.7898;
123.6000;0.8213;0.7996;
123.9000;0.8205;0.7947;
124.2000;0.8238;0.7922;
124.5000;0.8230;0.7996;
124.8000;0.8230;0.8093;
125.1000;0.8205;0.8069;
125.4000;0.8213;0.8044;
125.7000;0.8221;0.8069;
126.0000;0.8189;0.7996;
126.3000;0.8221;0.7996;
126.6000;0.8221;0.7898;
126.9000;0.8205;0.7825;
127.2000;0.8205;0.7874;
127.5000;0.8213;0.7947;
127.8000;0.8230;0.7996;
128.1000;0.8246;0.8020;
128.4000;0.8230;0.7922;
128.7000;0.8189;0.7874;
129.0000;0.8132;0.7825;
129.3000;0.8205;0.8117;
129.6000;0.8189;0.8093;
129.9000;0.8197;0.8142;
130.2000;0.8189;0.8142;
130.5000;0.8238;0.8142;
130.8000;0.8213;0.8142;
131.1000;0.8213;0.8117;
131.4000;0.8197;0.8142;
131.7000;0.8197;0.8215;
132.0000;0.8205;0.8191;
132.3000;0.8254;0.8264;
132.6000;0.8189;0.8142;
132.9000;0.8213;0.8191;
133.2000;0.8205;0.8166;
133.5000;0.8197;0.8117;
133.8000;0.8205;0.8142;
134.1000;0.8213;0.7971;
134.4000;0.8213;0.7971;
134.7000;0.8205;0.7922;
135.0000;0.8230;0.8020;
135.3000;0.8213;0.8020;
135.6000;0.8205;0.8044;
135.9000;0.8221;0.8093;
136.2000;0.8213;0.8142;
136.5000;0.8221;0.8142;
136.8000;0.8238;0.8215;
137.1000;0.8205;0.8191;
137.4000;0.8205;0.8166;
137.7000;0.8205;0.8215;
138.0000;0.8205;0.8142;
138.3000;0.8197;0.8215;
138.6000;0.8205;0.8239;
138.9000;0.8205;0.8239;
139.2000;0.8221;0.8239;
139.5000;0.8197;0.8142;
139.8000;0.8205;0.8142;
140.1000;0.8189;0.8117;
140.4000;0.8238;0.8117;
140.7000;0.8213;0.8117;
141.0000;0.8213;0.8166;
141.3000;0.8221;0.8215;
141.6000;0.8197;0.8069;
141.9000;0.8164;0.7922;
142.2000;0.8205;0.8020;
142.5000;0.8205;0.7971;
142.8000;0.8205;0.7996;
143.1000;0.8197;0.8020;
143.4000;0.8164;0.7971;
143.7000;0.8205;0.7922;
144.0000;0.8213;0.7898;
144.3000;0.8213;0.7922;
144.6000;0.8205;0.7874;
144.9000;0.8197;0.7922;
145.2000;0.8197;0.7996;
145.5000;0.8213;0.8044;
145.8000;0.8213;0.7996;
146.1000;0.8205;0.8020;
146.4000;0.8205;0.7947;
146.7000;0.8213;0.7996;
147.0000;0.8213;0.8093;
147.3000;0.8213;0.8069;
147.6000;0.8262;0.8166;
147.9000;0.8221;0.7947;
148.2000;0.8221;0.7971;
148.5000;0.8319;0.8239;
148.8000;0.8213;0.7922;
149.1000;0.8221;0.7825;
149.4000;0.8221;0.7849;
149.7000;0.8205;0.7825;
150.0000;0.8213;0.7849;
150.3000;0.8205;0.7874;
150.6000;0.8238;0.8020;
150.9000;0.8213;0.7947;
151.2000;0.8181;0.7971;
151.5000;0.8205;0.7947;
151.8000;0.8205;0.7971;
152.1000;0.8197;0.7922;
152.4000;0.8197;0.7947;
152.7000;0.8189;0.7849;
153.0000;0.8197;0.7922;
153.3000;0.8205;0.7971;
153.6000;0.8221;0.8020;
153.9000;0.8205;0.8020;
154.2000;0.8213;0.8020;
154.5000;0.8213;0.7971;
154.8000;0.8213;0.7947;
155.1000;0.8197;0.7947;
155.4000;0.8221;0.7922;
155.7000;0.8213;0.7947;
156.0000;0.8156;0.7801;
156.3000;0.8213;0.7971;
156.6000;0.8197;0.8020;
156.9000;0.8197;0.7971;
157.2000;0.8164;0.7825;
157.5000;0.8197;0.7947;
157.8000;0.8213;0.8020;
158.1000;0.8197;0.7922;
158.4000;0.8213;0.7898;
158.7000;0.8205;0.7898;
159.0000;0.8221;0.7947;
159.3000;0.8205;0.7922;
159.6000;0.8205;0.7996;
159.9000;0.8181;0.8020;
160.2000;0.8205;0.8020;
160.5000;0.8238;0.8069;
160.8000;0.8221;0.8117;
161.1000;0.8205;0.8069;
161.4000;0.8213;0.8069;
161.7000;0.8205;0.7996;
162.0000;0.8205;0.7922;
162.3000;0.8197;0.7971;
162.6000;0.8230;0.8069;
162.9000;0.8140;0.7825;
163.2000;0.8246;0.8117;
163.5000;0.8197;0.7996;
163.8000;0.8189;0.7898;
164.1000;0.8205;0.7874;
164.4000;0.8221;0.7947;
164.7000;0.8205;0.7874;
165.0000;0.8213;0.7971;
165.3000;0.8205;0.7971;
165.6000;0.8205;0.7898;
165.9000;0.8221;0.7922;
166.2000;0.8197;0.7922;
166.5000;0.8164;0.7825;
166.8000;0.8213;0.7898;
167.1000;0.8205;0.7801;
167.4000;0.8197;0.7825;
167.7000;0.8197;0.7874;
168.0000;0.8173;0.7849;
168.3000;0.8173;0.7801;
168.6000;0.8213;0.7996;
168.9000;0.8213;0.8020;
169.2000;0.8197;0.7971;
169.5000;0.8189;0.7947;
169.8000;0.8205;0.7971;
170.1000;0.8189;0.8020;
170.4000;0.8189;0.8069;
170.7000;0.8213;0.8044;
171.0000;0.8213;0.8044;
171.3000;0.8246;0.8191;
171.6000;0.8213;0.8191;
171.9000;0.8189;0.8142;
172.2000;0.8148;0.8020;
172.5000;0.8197;0.8117;
172.8000;0.8197;0.7996;
173.1000;0.8197;0.7922;
173.4000;0.8197;0.7922;
173.7000;0.8205;0.8020;
174.0000;0.8181;0.7922;
174.3000;0.8189;0.7849;
174.6000;0.8205;0.7874;
174.9000;0.8221;0.7947;
175.2000;0.8205;0.7947;
175.5000;0.8197;0.7922;
175.8000;0.8221;0.7971;
176.1000;0.8262;0.8215;
176.4000;0.8197;0.8093;
176.7000;0.8197;0.8069;
177.0000;0.8213;0.8166;
177.3000;0.8197;0.8142;
177.6000;0.8205;0.8166;
177.9000;0.8205;0.8117;
178.2000;0.8213;0.8117;
178.5000;0.8189;0.8044;
178.8000;0.8205;0.8044;
179.1000;0.8205;0.8044;
179.4000;0.8205;0.8044;
179.7000;0.8197;0.8069;
180.0000;0.8189;0.8069;
180.3000;0.8213;0.8044;
180.6000;0.8181;0.7996;
180.9000;0.8205;0.7996;
181.2000;0.8213;0.8020;
181.5000;0.8213;0.8044;
181.8000;0.8189;0.7922;
182.1000;0.8205;0.7971;
182.4000;0.8189;0.7947;
182.7000;0.8197;0.7996;
183.0000;0.8278;0.8239;
183.3000;0.8197;0.8044;
183.6000;0.8213;0.8069;
183.9000;0.8189;0.8020;
184.2000;0.8205;0.8020;
184.5000;0.8189;0.8069;
184.8000;0.8156;0.8093;
185.1000;0.8205;0.8239;
185.4000;0.8189;0.8142;
185.7000;0.8189;0.8069;
186.0000;0.8205;0.7996;
186.3000;0.8173;0.7947;
186.6000;0.8205;0.8069;
186.9000;0.8197;0.8117;
187.2000;0.8246;0.8312;
187.5000;0.8189;0.8215;
187.8000;0.8213;0.8288;
188.1000;0.8197;0.8166;
188.4000;0.8181;0.8093;
188.7000;0.8189;0.8093;
189.0000;0.8205;0.8069;
189.3000;0.8197;0.8069;
189.6000;0.8205;0.8069;
189.9000;0.8197;0.8020;
190.2000;0.8197;0.8142;
190.5000;0.8181;0.8117;
190.8000;0.8189;0.8093;
191.1000;0.8197;0.8093;
191.4000;0.8197;0.8117;
191.7000;0.8205;0.8117;
192.0000;0.8205;0.8020;
192.3000;0.8156;0.7874;
192.6000;0.8189;0.7971;
192.9000;0.8213;0.7971;
193.2000;0.8205;0.7996;
193.5000;0.8148;0.7996;
193.8000;0.8205;0.8020;
194.1000;0.8205;0.8069;
194.4000;0.8181;0.7947;
194.7000;0.8181;0.7971;
195.0000;0.8189;0.8020;
195.3000;0.8205;0.7971;
195.6000;0.8181;0.7922;
195.9000;0.8189;0.7825;
196.2000;0.8221;0.7874;
196.5000;0.8221;0.7996;
196.8000;0.8213;0.7922;
197.1000;0.8230;0.7922;
197.4000;0.8221;0.7825;
197.7000;0.8230;0.7874;
198.0000;0.8205;0.7898;
198.3000;0.8197;0.7922;
198.6000;0.8319;0.8191;
198.9000;0.8213;0.7971;
199.2000;0.8221;0.7971;
199.5000;0.8189;0.7922;
199.8000;0.8189;0.7922;
200.1000;0.8197;0.7898;
200.4000;0.8197;0.7947;
200.7000;0.8181;0.7922;
201.0000;0.8181;0.7922;
201.3000;0.8189;0.7947;
201.6000;0.8213;0.7971;
201.9000;0.8213;0.7825;
202.2000;0.8197;0.7752;
202.5000;0.8197;0.7898;
202.8000;0.8221;0.7947;
203.1000;0.8189;0.7825;
203.4000;0.8189;0.7874;
203.7000;0.8205;0.7947;
204.0000;0.8221;0.7971;
204.3000;0.8205;0.7922;
204.6000;0.8189;0.7898;
204.9000;0.8197;0.7971;
205.2000;0.8197;0.7922;
205.5000;0.8197;0.7898;
205.8000;0.8205;0.7874;
206.1000;0.8262;0.8044;
206.4000;0.8213;0.7922;
206.7000;0.8205;0.7849;
207.0000;0.8213;0.7898;
207.3000;0.8205;0.8069;
207.6000;0.8189;0.7996;
207.9000;0.8230;0.8069;
208.2000;0.8197;0.8093;
208.5000;0.8205;0.8069;
208.8000;0.8213;0.8142;
209.1000;0.8213;0.8166;
209.4000;0.8173;0.8142;
209.7000;0.8189;0.8215;
210.0000;0.8246;0.8337;
210.3000;0.8205;0.8312;
210.6000;0.8173;0.8191;
210.9000;0.8189;0.8166;
211.2000;0.8295;0.8288;
211.5000;0.8205;0.8117;
211.8000;0.8197;0.8069;
212.1000;0.8213;0.8093;
212.4000;0.8205;0.8069;
212.7000;0.8221;0.8117;
213.0000;0.8221;0.8117;
213.3000;0.8213;0.8020;
213.6000;0.8205;0.8020;
213.9000;0.8205;0.7996;
214.2000;0.8205;0.7996;
214.5000;0.8189;0.7971;
214.8000;0.8173;0.7874;
215.1000;0.8197;0.7971;
215.4000;0.8213;0.8044;
215.7000;0.8173;0.7996;
216.0000;0.8189;0.8044;
216.3000;0.8213;0.8093;
216.6000;0.8197;0.8044;
216.9000;0.8197;0.7971;
217.2000;0.8262;0.8093;
217.5000;0.8197;0.7947;
217.8000;0.8213;0.8044;
218.1000;0.8140;0.7801;
218.4000;0.8205;0.7947;
218.7000;0.8189;0.7971;
219.0000;0.8221;0.8142;
219.3000;0.8197;0.8117;
219.6000;0.8181;0.7996;
219.9000;0.8205;0.7947;
220.2000;0.8181;0.7874;
220.5000;0.8197;0.7874;
220.8000;0.8197;0.7825;
221.1000;0.8189;0.7801;
221.4000;0.8173;0.7825;
221.7000;0.8197;0.7776;
222.0000;0.8181;0.7849;
222.3000;0.8189;0.7922;
222.6000;0.8238;0.7996;
222.9000;0.8205;0.7922;
223.2000;0.8189;0.7874;
223.5000;0.8197;0.7971;
223.8000;0.8205;0.7996;
224.1000;0.8213;0.8020;
224.4000;0.8221;0.7947;
224.7000;0.8205;0.8020;
225.0000;0.8221;0.8069;
225.3000;0.8213;0.8044;
225.6000;0.8164;0.7922;
225.9000;0.8213;0.8044;
226.2000;0.8189;0.7922;
226.5000;0.8189;0.7971;
226.8000;0.8205;0.8069;
227.1000;0.8205;0.8069;
227.4000;0.8197;0.7996;
227.7000;0.8197;0.7971;
228.0000;0.8221;0.7996;
228.3000;0.8205;0.7898;
228.6000;0.8205;0.7947;
228.9000;0.8205;0.7922;
229.2000;0.8140;0.7727;
229.5000;0.8189;0.7947;
229.8000;0.8197;0.7874;
230.1000;0.8230;0.7825;
230.4000;0.8254;0.7947;
230.7000;0.8205;0.7801;
231.0000;0.8140;0.7557;
231.3000;0.8148;0.7630;
231.6000;0.8197;0.7776;
231.9000;0.8205;0.7825;
232.2000;0.8246;0.7971;
232.5000;0.8189;0.7874;
232.8000;0.8205;0.7922;
233.1000;0.8197;0.7922;
233.4000;0.8205;0.8044;
233.7000;0.8181;0.8020;
234.0000;0.8132;0.7922;
234.3000;0.8173;0.8044;
234.6000;0.8173;0.8069;
234.9000;0.8075;0.7825;
235.2000;0.8156;0.8044;
235.5000;0.8189;0.8044;
235.8000;0.8189;0.8069;
236.1000;0.8197;0.8044;
236.4000;0.8205;0.8069;
236.7000;0.8230;0.8093;
237.0000;0.8189;0.8020;
237.3000;0.8213;0.8142;
237.6000;0.8189;0.8166;
237.9000;0.8140;0.8117;
238.2000;0.8197;0.8288;
238.5000;0.8173;0.8142;
238.8000;0.8189;0.8191;
239.1000;0.8197;0.8142;
239.4000;0.8246;0.8288;
239.7000;0.8205;0.8264;
240.0000;0.8197;0.8264;
240.3000;0.8189;0.8215;
240.6000;0.8164;0.8191;
240.9000;0.8197;0.8288;
241.2000;0.8197;0.8264;
241.5000;0.8107;0.8044;
241.8000;0.8173;0.8191;
242.1000;0.8189;0.8215;
242.4000;0.8197;0.8142;
242.7000;0.8189;0.8166;
243.0000;0.8197;0.8166;
243.3000;0.8197;0.8142;
243.6000;0.8197;0.8117;
243.9000;0.8189;0.8093;
244.2000;0.8173;0.8044;
244.5000;0.8189;0.7898;
244.8000;0.8173;0.7971;
245.1000;0.8189;0.7898;
245.4000;0.8181;0.7849;
245.7000;0.8181;0.7898;
246.0000;0.8181;0.7898;
246.3000;0.8173;0.7922;
246.6000;0.8205;0.8044;
246.9000;0.8189;0.7971;
247.2000;0.8197;0.8069;
247.5000;0.8238;0.8093;
247.8000;0.8181;0.8044;
248.1000;0.8238;0.8191;
248.4000;0.8205;0.8117;
248.7000;0.8262;0.8264;
249.0000;0.8213;0.8142;
249.3000;0.8254;0.8215;
249.6000;0.8295;0.8337;
249.9000;0.8189;0.8093;
250.2000;0.8213;0.8191;
250.5000;0.8287;0.8361;
250.8000;0.8205;0.8093;
251.1000;0.8205;0.8142;
251.4000;0.8189;0.8093;
251.7000;0.8205;0.8117;
252.0000;0.8303;0.8361;
252.3000;0.8189;0.8117;
252.6000;0.8189;0.8166;
252.9000;0.8197;0.8239;
253.2000;0.8189;0.8191;
253.5000;0.8205;0.8239;
253.8000;0.8197;0.8239;
254.1000;0.8197;0.8239;
254.4000;0.8189;0.8191;
254.7000;0.8173;0.8239;
255.0000;0.8197;0.8312;
255.3000;0.8189;0.8312;
255.6000;0.8197;0.8337;
255.9000;0.8189;0.8361;
256.2000;0.8173;0.8312;
256.5000;0.8197;0.8337;
256.8000;0.8197;0.8288;
257.1000;0.8197;0.8215;
257.4000;0.8213;0.8142;
257.7000;0.8230;0.8117;
258.0000;0.8205;0.8093;
258.3000;0.8173;0.7971;
258.6000;0.8197;0.7922;
258.9000;0.8197;0.7922;
259.2000;0.8205;0.8044;
259.5000;0.8189;0.7971;
259.8000;0.8189;0.7947;
260.1000;0.8205;0.8069;
260.4000;0.8213;0.8069;
260.7000;0.8197;0.7996;
261.0000;0.8205;0.8069;
261.3000;0.8197;0.7996;
261.6000;0.8173;0.7874;
261.9000;0.8254;0.8020;
262.2000;0.8197;0.7971;
262.5000;0.8205;0.7996;
262.8000;0.8213;0.8069;
263.1000;0.8230;0.8044;
263.4000;0.8278;0.8117;
263.7000;0.8189;0.7947;
264.0000;0.8189;0.8093;
264.3000;0.8197;0.8166;
264.6000;0.8254;0.8361;
264.9000;0.8181;0.8191;
265.2000;0.8205;0.8142;
265.5000;0.8189;0.8093;
265.8000;0.8181;0.7996;
266.1000;0.8173;0.7996;
266.4000;0.8221;0.8069;
266.7000;0.8197;0.8069;
267.0000;0.8189;0.8044;
267.3000;0.8148;0.8020;
267.6000;0.8181;0.8069;
267.9000;0.8181;0.8069;
268.2000;0.8189;0.8044;
268.5000;0.8189;0.8117;
268.8000;0.8181;0.8093;
269.1000;0.8132;0.7947;
269.4000;0.8181;0.8142;
269.7000;0.8173;0.8264;
270.0000;0.8181;0.8337;
270.3000;0.8173;0.8312;
270.6000;0.8173;0.8264;
270.9000;0.8173;0.8239;
271.2000;0.8197;0.8215;
271.5000;0.8189;0.8142;
271.8000;0.8173;0.8142;
272.1000;0.8189;0.8142;
272.4000;0.8189;0.8142;
272.7000;0.8197;0.8215;
273.0000;0.8197;0.8166;
273.3000;0.8189;0.8142;
273.6000;0.8246;0.8361;
273.9000;0.8189;0.8239;
274.2000;0.8246;0.8239;
274.5000;0.8189;0.8069;
274.8000;0.8197;0.8093;
275.1000;0.8213;0.8142;
275.4000;0.8213;0.8142;
275.7000;0.8189;0.8093;
276.0000;0.8164;0.8093;
276.3000;0.8189;0.8264;
276.6000;0.8181;0.8312;
276.9000;0.8197;0.8264;
277.2000;0.8189;0.8288;
277.5000;0.8148;0.8215;
277.8000;0.8205;0.8361;
278.1000;0.8181;0.8386;
278.4000;0.8181;0.8288;
278.7000;0.8173;0.8288;
279.0000;0.8189;0.8361;
279.3000;0.8148;0.8239;
279.6000;0.8164;0.8264;
279.9000;0.8173;0.8361;
280.2000;0.8197;0.8434;
280.5000;0.8221;0.8410;
280.8000;0.8181;0.8410;
281.1000;0.8181;0.8361;
281.4000;0.8197;0.8337;
281.7000;0.8213;0.8361;
282.0000;0.8181;0.8166;
282.3000;0.8197;0.8142;
282.6000;0.8181;0.8093;
282.9000;0.8197;0.8142;
283.2000;0.8221;0.8239;
283.5000;0.8197;0.8215;
283.8000;0.8213;0.8239;
284.1000;0.8213;0.8215;
284.4000;0.8189;0.8215;
284.7000;0.8164;0.8020;
285.0000;0.8189;0.8044;
285.3000;0.8181;0.8117;
285.6000;0.8173;0.8142;
285.9000;0.8230;0.8288;
286.2000;0.8189;0.8166;
286.5000;0.8181;0.8215;
286.8000;0.8197;0.8264;
287.1000;0.8213;0.8264;
287.4000;0.8173;0.8166;
287.7000;0.8181;0.8215;
288.0000;0.8197;0.8312;
288.3000;0.8173;0.8386;
288.6000;0.8230;0.8605;
288.9000;0.8173;0.8386;
289.2000;0.8197;0.8507;
289.5000;0.8189;0.8459;
289.8000;0.8181;0.8410;
290.1000;0.8213;0.8386;
290.4000;0.8173;0.8264;
290.7000;0.8197;0.8239;
291.0000;0.8189;0.8191;
291.3000;0.8221;0.8361;
291.6000;0.8173;0.8215;
291.9000;0.8181;0.8239;
292.2000;0.8181;0.8312;
292.5000;0.8164;0.8361;
292.8000;0.8181;0.8312;
293.1000;0.8189;0.8410;
293.4000;0.8132;0.8215;
293.7000;0.8181;0.8312;
294.0000;0.8189;0.8264;
294.3000;0.8164;0.8239;
294.6000;0.8140;0.8215;
294.9000;0.8164;0.8288;
295.2000;0.8140;0.8215;
295.5000;0.8181;0.8264;
295.8000;0.8197;0.8239;
296.1000;0.8189;0.8191;
296.4000;0.8181;0.8191;
296.7000;0.8197;0.8288;
297.0000;0.8205;0.8215;
297.3000;0.8197;0.8117;
297.6000;0.8181;0.8044;
297.9000;0.8189;0.8093;
298.2000;0.8197;0.8166;
298.5000;0.8189;0.8166;
298.8000;0.8173;0.8069;
299.1000;0.8181;0.8069;
299.4000;0.8197;0.8069;
299.7000;0.8197;0.8117;
300.0000;0.8205;0.8117;
300.3000;0.8189;0.8166;
300.6000;0.8164;0.8117;
300.9000;0.8173;0.8215;
301.2000;0.8116;0.8142;
301.5000;0.8164;0.8264;
301.8000;0.8197;0.8239;
302.1000;0.8140;0.8166;
302.4000;0.8189;0.8288;
302.7000;0.8189;0.8264;
303.0000;0.8197;0.8215;
303.3000;0.8205;0.8239;
303.6000;0.8221;0.8312;
303.9000;0.8181;0.8264;
304.2000;0.8189;0.8264;
304.5000;0.8173;0.8337;
304.8000;0.8181;0.8264;
305.1000;0.8173;0.8312;
305.4000;0.8148;0.8264;
305.7000;0.8181;0.8337;
306.0000;0.8132;0.8142;
306.3000;0.8230;0.8410;
306.6000;0.8189;0.8288;
306.9000;0.8197;0.8312;
307.2000;0.8230;0.8312;
307.5000;0.8213;0.8337;
307.8000;0.8181;0.8166;
308.1000;0.8197;0.8239;
308.4000;0.8189;0.8239;
308.7000;0.8230;0.8337;
309.0000;0.8213;0.8386;
309.3000;0.8181;0.8288;
309.6000;0.8132;0.8215;
309.9000;0.8189;0.8434;
310.2000;0.8189;0.8361;
310.5000;0.8189;0.8264;
310.8000;0.8197;0.8215;
311.1000;0.8116;0.8020;
311.4000;0.8148;0.8142;
311.7000;0.8205;0.8239;
312.0000;0.8205;0.8191;
312.3000;0.8189;0.8191;
312.6000;0.8189;0.8264;
312.9000;0.8197;0.8239;
313.2000;0.8067;0.7971;
313.5000;0.8189;0.8264;
313.8000;0.8205;0.8386;
314.1000;0.8173;0.8361;
314.4000;0.8197;0.8459;
314.7000;0.8197;0.8532;
315.0000;0.8181;0.8507;
315.3000;0.8197;0.8532;
315.6000;0.8156;0.8361;
315.9000;0.8181;0.8483;
316.2000;0.8189;0.8459;
316.5000;0.8205;0.8507;
316.8000;0.8173;0.8386;
317.1000;0.8213;0.8459;
317.4000;0.8189;0.8386;
317.7000;0.8311;0.8678;
318.0000;0.8189;0.8434;
318.3000;0.8197;0.8483;
318.6000;0.8205;0.8532;
318.9000;0.8197;0.8556;
319.2000;0.8262;0.8824;
319.5000;0.8205;0.8556;
319.8000;0.8197;0.8507;
320.1000;0.8189;0.8459;
320.4000;0.8189;0.8507;
320.7000;0.8278;0.8800;
321.0000;0.8156;0.8434;
321.3000;0.8181;0.8434;
321.6000;0.8181;0.8434;
321.9000;0.8181;0.8434;
322.2000;0.8189;0.8410;
322.5000;0.8205;0.8483;
322.8000;0.8181;0.8337;
323.1000;0.8205;0.8264;
323.4000;0.8205;0.8337;
323.7000;0.8197;0.8312;
324.0000;0.8205;0.8361;
324.3000;0.8189;0.8337;
324.6000;0.8181;0.8337;
324.9000;0.8189;0.8386;
325.2000;0.8181;0.8361;
325.5000;0.8213;0.8459;
325.8000;0.8173;0.8288;
326.1000;0.8221;0.8361;
326.4000;0.8205;0.8337;
326.7000;0.8213;0.8361;
327.0000;0.8181;0.8337;
327.3000;0.8197;0.8288;
327.6000;0.8197;0.8264;
327.9000;0.8197;0.8264;
328.2000;0.8197;0.8239;
328.5000;0.8197;0.8288;
328.8000;0.8205;0.8239;
329.1000;0.8189;0.8215;
329.4000;0.8181;0.8215;
329.7000;0.8189;0.8191;
330.0000;0.8189;0.8142;
330.3000;0.8205;0.8215;
330.6000;0.8173;0.8215;
330.9000;0.8181;0.8337;
331.2000;0.8221;0.8386;
331.5000;0.8213;0.8312;
331.8000;0.8173;0.8239;
332.1000;0.8156;0.8093;
332.4000;0.8173;0.8239;
332.7000;0.8230;0.8459;
333.0000;0.8189;0.8434;
333.3000;0.8181;0.8434;
333.6000;0.8189;0.8337;
333.9000;0.8246;0.8434;
334.2000;0.8197;0.8337;
334.5000;0.8197;0.8337;
334.8000;0.8205;0.8337;
335.1000;0.8189;0.8215;
335.4000;0.8173;0.8239;
335.7000;0.8164;0.8191;
336.0000;0.8148;0.8093;
336.3000;0.8173;0.8215;
336.6000;0.8205;0.8264;
336.9000;0.8173;0.8312;
337.2000;0.8156;0.8215;
337.5000;0.8181;0.8215;
337.8000;0.8205;0.8264;
338.1000;0.8181;0.8288;
338.4000;0.8173;0.8239;
338.7000;0.8205;0.8264;
339.0000;0.8181;0.8239;
339.3000;0.8205;0.8191;
339.6000;0.8197;0.8044;
339.9000;0.8213;0.8191;
340.2000;0.8197;0.8264;
340.5000;0.8262;0.8483;
340.8000;0.8197;0.8239;
341.1000;0.8189;0.8191;
341.4000;0.8205;0.8166;
341.7000;0.8230;0.8288;
342.0000;0.8189;0.8142;
342.3000;0.8189;0.8166;
342.6000;0.8221;0.8288;
342.9000;0.8197;0.8239;
343.2000;0.8197;0.8215;
343.5000;0.8205;0.8215;
343.8000;0.8189;0.8142;
344.1000;0.8213;0.8215;
344.4000;0.8205;0.8142;
344.7000;0.8189;0.8044;
345.0000;0.8099;0.7801;
345.3000;0.8213;0.8020;
345.6000;0.8164;0.7996;
345.9000;0.8173;0.8044;
346.2000;0.8173;0.8093;
346.5000;0.8189;0.8093;
346.8000;0.8189;0.8166;
347.1000;0.8197;0.8215;
347.4000;0.8140;0.8093;
347.7000;0.8189;0.8191;
348.0000;0.8197;0.8312;
348.3000;0.8189;0.8337;
348.6000;0.8181;0.8312;
348.9000;0.8189;0.8386;
349.2000;0.8124;0.8264;
349.5000;0.8189;0.8288;
349.8000;0.8164;0.8239;
350.1000;0.8181;0.8215;
350.4000;0.8181;0.8215;
350.7000;0.8197;0.8337;
351.0000;0.8181;0.8288;
351.3000;0.8181;0.8312;
351.6000;0.8189;0.8312;
351.9000;0.8181;0.8215;
352.2000;0.8173;0.8215;
352.5000;0.8181;0.8337;
352.8000;0.8181;0.8361;
353.1000;0.8156;0.8264;
353.4000;0.8197;0.8386;
353.7000;0.8197;0.8312;
354.0000;0.8116;0.8166;
354.3000;0.8197;0.8361;
354.6000;0.8197;0.8312;
354.9000;0.8173;0.8239;
355.2000;0.8132;0.8093;
355.5000;0.8181;0.8166;
355.8000;0.8205;0.8215;
356.1000;0.8197;0.8215;
356.4000;0.8189;0.8312;
356.7000;0.8124;0.8215;
357.0000;0.8189;0.8337;
357.3000;0.8181;0.8337;
357.6000;0.8213;0.8410;
357.9000;0.8189;0.8288;
358.2000;0.8189;0.8239;
358.5000;0.8197;0.8239;
358.8000;0.8181;0.8215;
359.1000;0.8132;0.8191;
359.4000;0.8278;0.8507;
359.7000;0.8181;0.8239;
360.0000;0.8173;0.8215;
360.3000;0.8189;0.8264;
360.6000;0.8173;0.8191;
360.9000;0.8221;0.8191;
361.2000;0.8197;0.8142;
361.5000;0.8189;0.8069;
361.8000;0.8181;0.8069;
362.1000;0.8213;0.8117;
362.4000;0.8173;0.8093;
362.7000;0.8181;0.8093;
363.0000;0.8181;0.8191;
363.3000;0.8181;0.8264;
363.6000;0.8213;0.8410;
363.9000;0.8173;0.8288;
364.2000;0.8181;0.8361;
364.5000;0.8246;0.8459;
364.8000;0.8213;0.8361;
365.1000;0.8205;0.8386;
365.4000;0.8230;0.8434;
365.7000;0.8189;0.8361;
366.0000;0.8173;0.8434;
366.3000;0.8189;0.8434;
366.6000;0.8173;0.8288;
366.9000;0.8164;0.8361;
367.2000;0.8156;0.8337;
367.5000;0.8238;0.8532;
367.8000;0.8181;0.8483;
368.1000;0.8148;0.8459;
368.4000;0.8173;0.8483;
368.7000;0.8181;0.8434;
369.0000;0.8173;0.8434;
369.3000;0.8189;0.8434;
369.6000;0.8189;0.8434;
369.9000;0.8164;0.8386;
370.2000;0.8173;0.8361;
370.5000;0.8189;0.8459;
370.8000;0.8181;0.8483;
371.1000;0.8173;0.8581;
371.4000;0.8173;0.8556;
371.7000;0.8156;0.8459;
372.0000;0.8181;0.8459;
372.3000;0.8173;0.8386;
372.6000;0.8156;0.8410;
372.9000;0.8164;0.8434;
373.2000;0.8189;0.8434;
373.5000;0.8164;0.8459;
373.8000;0.8213;0.8532;
374.1000;0.8164;0.8434;
374.4000;0.8156;0.8312;
374.7000;0.8213;0.8337;
375.0000;0.8173;0.8288;
375.3000;0.8197;0.8312;
375.6000;0.8189;0.8239;
375.9000;0.8270;0.8434;
376.2000;0.8189;0.8288;
376.5000;0.8181;0.8264;
376.8000;0.8189;0.8312;
377.1000;0.8173;0.8312;
377.4000;0.8213;0.8434;
377.7000;0.8189;0.8434;
378.0000;0.8173;0.8434;
378.3000;0.8181;0.8459;
378.6000;0.8189;0.8361;
378.9000;0.8189;0.8337;
379.2000;0.8181;0.8264;
379.5000;0.8197;0.8410;
379.8000;0.8295;0.8556;
380.1000;0.8173;0.8288;
380.4000;0.8181;0.8264;
380.7000;0.8164;0.8239;
381.0000;0.8197;0.8337;
381.3000;0.8181;0.8312;
381.6000;0.8189;0.8361;
381.9000;0.8173;0.8288;
382.2000;0.8205;0.8386;
382.5000;0.8197;0.8337;
382.8000;0.8189;0.8312;
383.1000;0.8197;0.8337;
383.4000;0.8140;0.8288;
383.7000;0.8213;0.8507;
384.0000;0.8197;0.8434;
384.3000;0.8197;0.8337;
384.6000;0.8213;0.8312;
384.9000;0.8213;0.8312;
385.2000;0.8205;0.8337;
385.5000;0.8197;0.8288;
385.8000;0.8173;0.8337;
386.1000;0.8189;0.8434;
386.4000;0.8189;0.8410;
386.7000;0.8164;0.8312;
387.0000;0.8164;0.8361;
387.3000;0.8181;0.8312;
387.6000;0.8164;0.8288;
387.9000;0.8164;0.8215;
388.2000;0.8173;0.8264;
388.5000;0.8181;0.8264;
388.8000;0.8189;0.8361;
389.1000;0.8197;0.8312;
389.4000;0.8181;0.8191;
389.7000;0.8173;0.8191;
390.0000;0.8173;0.8093;
390.3000;0.8197;0.8142;
390.6000;0.8173;0.8117;
390.9000;0.8164;0.8117;
391.2000;0.8197;0.8239;
391.5000;0.8189;0.8166;
391.8000;0.8173;0.8239;
392.1000;0.8181;0.8337;
392.4000;0.8173;0.8337;
392.7000;0.8181;0.8386;
393.0000;0.8156;0.8386;
393.3000;0.8164;0.8337;
393.6000;0.8189;0.8434;
393.9000;0.8173;0.8386;
394.2000;0.8173;0.8288;
394.5000;0.8181;0.8264;
394.8000;0.8173;0.8239;
395.1000;0.8181;0.8215;
395.4000;0.8156;0.8166;
395.7000;0.8173;0.8264;
396.0000;0.8189;0.8337;
396.3000;0.8205;0.8361;
396.6000;0.8189;0.8434;
396.9000;0.8181;0.8410;
397.2000;0.8181;0.8459;
397.5000;0.8205;0.8507;
397.8000;0.8181;0.8434;
398.1000;0.8156;0.8434;
398.4000;0.8230;0.8605;
398.7000;0.8181;0.8483;
399.0000;0.8164;0.8434;
399.3000;0.8181;0.8459;
399.6000;0.8173;0.8434;
399.9000;0.8164;0.8337;
400.2000;0.8189;0.8386;
400.5000;0.8164;0.8288;
400.8000;0.8173;0.8264;
401.1000;0.8148;0.8093;
401.4000;0.8181;0.8239;
401.7000;0.8197;0.8239;
402.0000;0.8189;0.8239;
402.3000;0.8181;0.8215;
402.6000;0.8205;0.8239;
402.9000;0.8205;0.8361;
403.2000;0.8156;0.8288;
403.5000;0.8173;0.8312;
403.8000;0.8221;0.8386;
404.1000;0.8181;0.8191;
404.4000;0.8181;0.8239;
404.7000;0.8181;0.8264;
405.0000;0.8213;0.8312;
405.3000;0.8181;0.8239;
405.6000;0.8189;0.8239;
405.9000;0.8181;0.8215;
406.2000;0.8173;0.8215;
406.5000;0.8173;0.8386;
406.8000;0.8181;0.8434;
407.1000;0.8164;0.8337;
407.4000;0.8181;0.8361;
407.7000;0.8205;0.8483;
408.0000;0.8181;0.8483;
408.3000;0.8189;0.8434;
408.6000;0.8197;0.8459;
408.9000;0.8246;0.8702;
409.2000;0.8189;0.8556;
409.5000;0.8181;0.8556;
409.8000;0.8181;0.8483;
410.1000;0.8197;0.8483;
410.4000;0.8189;0.8507;
410.7000;0.8189;0.8459;
411.0000;0.8197;0.8410;
411.3000;0.8173;0.8386;
411.6000;0.8181;0.8459;
411.9000;0.8213;0.8507;
412.2000;0.8181;0.8288;
412.5000;0.8164;0.8337;
412.8000;0.8197;0.8410;
413.1000;0.8156;0.8312;
413.4000;0.8181;0.8410;
413.7000;0.8197;0.8434;
414.0000;0.8213;0.8410;
414.3000;0.8270;0.8678;
414.6000;0.8181;0.8507;
414.9000;0.8132;0.8386;
415.2000;0.8164;0.8483;
415.5000;0.8213;0.8556;
415.8000;0.8164;0.8483;
416.1000;0.8164;0.8386;
416.4000;0.8213;0.8434;
416.7000;0.8181;0.8337;
417.0000;0.8156;0.8264;
417.3000;0.8173;0.8312;
417.6000;0.8181;0.8337;
417.9000;0.8156;0.8361;
418.2000;0.8148;0.8312;
418.5000;0.8173;0.8361;
418.8000;0.8181;0.8361;
419.1000;0.8181;0.8312;
419.4000;0.8230;0.8337;
419.7000;0.8181;0.8239;
420.0000;0.8164;0.8288;
420.3000;0.8164;0.8264;
420.6000;0.8181;0.8361;
420.9000;0.8156;0.8410;
421.2000;0.8164;0.8386;
421.5000;0.8156;0.8410;
421.8000;0.8173;0.8386;
422.1000;0.8189;0.8410;
422.4000;0.8181;0.8312;
422.7000;0.8173;0.8361;
423.0000;0.8132;0.8166;
423.3000;0.8156;0.8337;
423.6000;0.8213;0.8410;
423.9000;0.8173;0.8288;
424.2000;0.8116;0.8069;
424.5000;0.8164;0.8215;
424.8000;0.8205;0.8312;
425.1000;0.8164;0.8337;
425.4000;0.8189;0.8434;
425.7000;0.8164;0.8410;
426.0000;0.8181;0.8459;
426.3000;0.8164;0.8459;
426.6000;0.8173;0.8483;
426.9000;0.8173;0.8386;
427.2000;0.8164;0.8386;
427.5000;0.8173;0.8337;
427.8000;0.8140;0.8264;
428.1000;0.8213;0.8386;
428.4000;0.8181;0.8361;
428.7000;0.8173;0.8459;
429.0000;0.8295;0.8727;
429.3000;0.8197;0.8532;
429.6000;0.8181;0.8459;
429.9000;0.8205;0.8434;
430.2000;0.8213;0.8410;
430.5000;0.8205;0.8337;
430.8000;0.8197;0.8288;
431.1000;0.8099;0.8093;
431.4000;0.8181;0.8361;
431.7000;0.8181;0.8361;
432.0000;0.8181;0.8337;
432.3000;0.8189;0.8337;
432.6000;0.8164;0.8166;
432.9000;0.8181;0.8191;
433.2000;0.8164;0.8142;
433.5000;0.8173;0.8191;
433.8000;0.8181;0.8264;
434.1000;0.8164;0.8264;
434.4000;0.8205;0.8386;
434.7000;0.8140;0.8288;
435.0000;0.8156;0.8312;
435.3000;0.8189;0.8410;
435.6000;0.8132;0.8337;
435.9000;0.8173;0.8434;
436.2000;0.8173;0.8410;
436.5000;0.8230;0.8483;
436.8000;0.8189;0.8288;
437.1000;0.8181;0.8239;
437.4000;0.8156;0.8191;
437.7000;0.8238;0.8312;
438.0000;0.8173;0.8191;
438.3000;0.8238;0.8337;
438.6000;0.8156;0.8191;
438.9000;0.8140;0.8117;
439.2000;0.8148;0.8264;
439.5000;0.8197;0.8410;
439.8000;0.8173;0.8337;
440.1000;0.8156;0.8361;
440.4000;0.8156;0.8361;
440.7000;0.8189;0.8459;
441.0000;0.8181;0.8410;
441.3000;0.8189;0.8507;
441.6000;0.8124;0.8337;
441.9000;0.8173;0.8410;
442.2000;0.8181;0.8312;
442.5000;0.8164;0.8239;
442.8000;0.8173;0.8191;
443.1000;0.8181;0.8264;
443.4000;0.8140;0.8191;
443.7000;0.8164;0.8239;
444.0000;0.8181;0.8264;
444.3000;0.8124;0.8142;
444.6000;0.8156;0.8264;
444.9000;0.8197;0.8337;
445.2000;0.8164;0.8312;
445.5000;0.8173;0.8337;
445.8000;0.8173;0.8312;
446.1000;0.8173;0.8288;
446.4000;0.8164;0.8215;
446.7000;0.8197;0.8288;
447.0000;0.8164;0.8264;
447.3000;0.8173;0.8312;
447.6000;0.8181;0.8288;
447.9000;0.8156;0.8288;
448.2000;0.8140;0.8264;
448.5000;0.8156;0.8215;
448.8000;0.8173;0.8117;
449.1000;0.8181;0.8142;
449.4000;0.8164;0.8215;
449.7000;0.8156;0.8239;
450.0000;0.8164;0.8312;
450.3000;0.8156;0.8288;
450.6000;0.8107;0.8093;
450.9000;0.8181;0.8191;
451.2000;0.8124;0.8069;
451.5000;0.8156;0.8191;
451.8000;0.8156;0.8166;
452.1000;0.8213;0.8386;
452.4000;0.8197;0.8386;
452.7000;0.8189;0.8459;
453.0000;0.8156;0.8410;
453.3000;0.8164;0.8386;
453.6000;0.8189;0.8434;
453.9000;0.8181;0.8361;
454.2000;0.8173;0.8386;
454.5000;0.8140;0.8312;
454.8000;0.8205;0.8483;
455.1000;0.8205;0.8483;
455.4000;0.8156;0.8264;
455.7000;0.8189;0.8288;
456.0000;0.8173;0.8264;
456.3000;0.8173;0.8215;
456.6000;0.8164;0.8093;
456.9000;0.8181;0.8142;
457.2000;0.8181;0.8191;
457.5000;0.8164;0.8239;
457.8000;0.8173;0.8312;
458.1000;0.8173;0.8288;
458.4000;0.8189;0.8337;
458.7000;0.8205;0.8288;
459.0000;0.8148;0.8044;
459.3000;0.8213;0.8239;
459.6000;0.8156;0.8142;
459.9000;0.8173;0.8191;
460.2000;0.8181;0.8239;
460.5000;0.8132;0.8044;
460.8000;0.8173;0.8239;
461.1000;0.8205;0.8312;
461.4000;0.8173;0.8264;
461.7000;0.8197;0.8312;
462.0000;0.8173;0.8239;
462.3000;0.8164;0.8191;
462.6000;0.8156;0.8142;
462.9000;0.8270;0.8386;
463.2000;0.8173;0.8166;
463.5000;0.8181;0.8166;
463.8000;0.8189;0.8191;
464.1000;0.8140;0.8020;
464.4000;0.8148;0.8093;
464.7000;0.8181;0.8117;
465.0000;0.8164;0.8142;
465.3000;0.8173;0.8117;
465.6000;0.8173;0.8069;
465.9000;0.8173;0.8093;
466.2000;0.8173;0.8191;
466.5000;0.8156;0.8117;
466.8000;0.8173;0.8191;
467.1000;0.8132;0.8191;
467.4000;0.8189;0.8386;
467.7000;0.8181;0.8459;
468.0000;0.8181;0.8459;
468.3000;0.8238;0.8605;
468.6000;0.8173;0.8312;
468.9000;0.8197;0.8264;
469.2000;0.8197;0.8264;
469.5000;0.8189;0.8191;
469.8000;0.8221;0.8239;
470.1000;0.8221;0.8239;
470.4000;0.8181;0.8142;
470.7000;0.8173;0.8117;
471.0000;0.8156;0.8069;
471.3000;0.8197;0.8069;
471.6000;0.8221;0.8142;
471.9000;0.8156;0.7947;
472.2000;0.8173;0.8020;
472.5000;0.8181;0.8117;
472.8000;0.8156;0.8117;
473.1000;0.8164;0.8142;
473.4000;0.8173;0.8191;
473.7000;0.8189;0.8312;
474.0000;0.8213;0.8483;
474.3000;0.8189;0.8434;
474.6000;0.8189;0.8410;
474.9000;0.8197;0.8410;
475.2000;0.8181;0.8361;
475.5000;0.8140;0.8264;
475.8000;0.8181;0.8337;
476.1000;0.8189;0.8337;
476.4000;0.8197;0.8288;
476.7000;0.8189;0.8312;
477.0000;0.8189;0.8337;
477.3000;0.8181;0.8288;
477.6000;0.8254;0.8434;
477.9000;0.8173;0.8239;
478.2000;0.8189;0.8337;
478.5000;0.8132;0.8239;
478.8000;0.8173;0.8264;
479.1000;0.8197;0.8312;
479.4000;0.8156;0.8264;
479.7000;0.8164;0.8191;
480.0000;0.8197;0.8264;
480.3000;0.8140;0.8166;
480.6000;0.8173;0.8312;
480.9000;0.8164;0.8386;
481.2000;0.8156;0.8410;
481.5000;0.8181;0.8386;
481.8000;0.8181;0.8361;
482.1000;0.8181;0.8361;
482.4000;0.8246;0.8434;
482.7000;0.8173;0.8142;
483.0000;0.8181;0.8166;
483.3000;0.8173;0.8191;
483.6000;0.8164;0.8191;
483.9000;0.8156;0.8093;
484.2000;0.8173;0.8093;
484.5000;0.8164;0.8093;
484.8000;0.8181;0.7996;
485.1000;0.8173;0.7996;
485.4000;0.8189;0.8093;
485.7000;0.8164;0.8020;
486.0000;0.8189;0.8069;
486.3000;0.8156;0.7996;
486.6000;0.8181;0.8044;
486.9000;0.8156;0.8020;
487.2000;0.8140;0.7996;
487.5000;0.8156;0.8020;
487.8000;0.8181;0.8117;
488.1000;0.8173;0.8117;
488.4000;0.8189;0.8044;
488.7000;0.8173;0.7996;
489.0000;0.8189;0.8093;
489.3000;0.8164;0.8117;
489.6000;0.8181;0.8166;
489.9000;0.8173;0.8239;
490.2000;0.8173;0.8361;
490.5000;0.8197;0.8410;
490.8000;0.8197;0.8361;
491.1000;0.8205;0.8288;
491.4000;0.8124;0.8044;
491.7000;0.8189;0.8191;
492.0000;0.8156;0.8142;
492.3000;0.8164;0.8093;
492.6000;0.8156;0.8093;
492.9000;0.8197;0.8264;
493.2000;0.8164;0.8191;
493.5000;0.8173;0.8215;
493.8000;0.8148;0.8191;
494.1000;0.8197;0.8288;
494.4000;0.8083;0.7898;
494.7000;0.8156;0.8044;
495.0000;0.8156;0.8069;
495.3000;0.8173;0.8166;
495.6000;0.8164;0.8117;
495.9000;0.8164;0.8142;
496.2000;0.8173;0.8069;
496.5000;0.8189;0.8093;
496.8000;0.8181;0.8142;
497.1000;0.8164;0.8044;
497.4000;0.8197;0.8142;
497.7000;0.8173;0.8117;
498.0000;0.8156;0.8117;
498.3000;0.8173;0.8142;
498.6000;0.8099;0.7922;
498.9000;0.8164;0.8044;
499.2000;0.8181;0.8069;
499.5000;0.8197;0.8093;
499.8000;0.8140;0.8069;
500.1000;0.8173;0.8215;
500.4000;0.8254;0.8459;
500.7000;0.8189;0.8215;
501.0000;0.8181;0.8117;
501.3000;0.8181;0.8215;
501.6000;0.8189;0.8239;
501.9000;0.8197;0.8264;
502.2000;0.8173;0.8215;
502.5000;0.8173;0.8239;
502.8000;0.8181;0.8215;
503.1000;0.8197;0.8191;
503.4000;0.8230;0.8337;
503.7000;0.8164;0.8215;
504.0000;0.8164;0.8166;
504.3000;0.8132;0.8142;
504.6000;0.8164;0.8337;
504.9000;0.8164;0.8361;
505.2000;0.8173;0.8288;
505.5000;0.8181;0.8239;
505.8000;0.8173;0.8191;
506.1000;0.8091;0.7922;
506.4000;0.8173;0.8093;
506.7000;0.8181;0.8044;
507.0000;0.8173;0.8044;
507.3000;0.8156;0.8093;
507.6000;0.8173;0.8117;
507.9000;0.8164;0.8044;
508.2000;0.8124;0.7971;
508.5000;0.8164;0.8020;
508.8000;0.8148;0.8044;
509.1000;0.8181;0.8093;
509.4000;0.8164;0.8093;
509.7000;0.8189;0.8069;
510.0000;0.8173;0.8020;
510.3000;0.8197;0.8069;
510.6000;0.8181;0.8069;
510.9000;0.8189;0.8142;
511.2000;0.8181;0.8166;
511.5000;0.8173;0.8069;
511.8000;0.8181;0.8093;
512.1000;0.8181;0.8191;
512.4000;0.8173;0.8166;
512.7000;0.8173;0.8215;
513.0000;0.8189;0.8215;
513.3000;0.8189;0.8239;
513.6000;0.8189;0.8264;
513.9000;0.8173;0.8239;
514.2000;0.8173;0.8361;
514.5000;0.8189;0.8361;
514.8000;0.8164;0.8264;
515.1000;0.8181;0.8288;
515.4000;0.8140;0.8117;
515.7000;0.8189;0.8312;
516.0000;0.8197;0.8312;
516.3000;0.8164;0.8215;
516.6000;0.8164;0.8215;
516.9000;0.8173;0.8142;
517.2000;0.8189;0.8215;
517.5000;0.8189;0.8239;
517.8000;0.8181;0.8288;
518.1000;0.8173;0.8337;
518.4000;0.8189;0.8386;
518.7000;0.8181;0.8312;
519.0000;0.8181;0.8288;
519.3000;0.8173;0.8239;
519.6000;0.8189;0.8337;
519.9000;0.8173;0.8361;
520.2000;0.8173;0.8410;
520.5000;0.8181;0.8386;
520.8000;0.8197;0.8410;
521.1000;0.8189;0.8434;
521.4000;0.8197;0.8434;
521.7000;0.8156;0.8288;
522.0000;0.8221;0.8532;
522.3000;0.8197;0.8459;
522.6000;0.8173;0.8532;
522.9000;0.8148;0.8410;
523.2000;0.8164;0.8483;
523.5000;0.8213;0.8483;
523.8000;0.8197;0.8337;
524.1000;0.8181;0.8312;
524.4000;0.8181;0.8410;
524.7000;0.8189;0.8361;
525.0000;0.8189;0.8459;
525.3000;0.8197;0.8532;
525.6000;0.8173;0.8532;
525.9000;0.8181;0.8483;
526.2000;0.8173;0.8434;
526.5000;0.8173;0.8507;
526.8000;0.8164;0.8507;
527.1000;0.8189;0.8410;
527.4000;0.8173;0.8386;
527.7000;0.8173;0.8337;
528.0000;0.8181;0.8386;
528.3000;0.8173;0.8386;
528.6000;0.8164;0.8386;
528.9000;0.8164;0.8312;
529.2000;0.8164;0.8312;
529.5000;0.8173;0.8288;
529.8000;0.8164;0.8312;
530.1000;0.8156;0.8191;
530.4000;0.8173;0.8264;
530.7000;0.8181;0.8264;
531.0000;0.8164;0.8264;
531.3000;0.8148;0.8166;
531.6000;0.8181;0.8239;
531.9000;0.8173;0.8191;
532.2000;0.8107;0.8044;
532.5000;0.8181;0.8288;
532.8000;0.8189;0.8337;
533.1000;0.8156;0.8264;
533.4000;0.8164;0.8312;
533.7000;0.8156;0.8264;
534.0000;0.8164;0.8191;
534.3000;0.8156;0.8117;
534.6000;0.8173;0.8142;
534.9000;0.8164;0.8191;
535.2000;0.8189;0.8312;
535.5000;0.8116;0.8117;
535.8000;0.8189;0.8288;
536.1000;0.8148;0.8191;
536.4000;0.8197;0.8361;
536.7000;0.8181;0.8264;
537.0000;0.8173;0.8142;
537.3000;0.8181;0.8142;
537.6000;0.8181;0.8191;
537.9000;0.8197;0.8215;
538.2000;0.8189;0.8191;
538.5000;0.8197;0.8166;
538.8000;0.8164;0.8044;
539.1000;0.8173;0.8069;
539.4000;0.8173;0.8166;
539.7000;0.8173;0.8288;
540.0000;0.8221;0.8532;
540.3000;0.8173;0.8434;
540.6000;0.8164;0.8434;
540.9000;0.8173;0.8483;
541.2000;0.8173;0.8386;
541.5000;0.8164;0.8410;
541.8000;0.8148;0.8361;
542.1000;0.8156;0.8483;
542.4000;0.8164;0.8483;
542.7000;0.8083;0.8215;
543.0000;0.8164;0.8410;
543.3000;0.8156;0.8434;
543.6000;0.8164;0.8459;
543.9000;0.8148;0.8483;
544.2000;0.8181;0.8605;
544.5000;0.8173;0.8605;
544.8000;0.8205;0.8581;
545.1000;0.8181;0.8483;
545.4000;0.8189;0.8459;
545.7000;0.8181;0.8507;
546.0000;0.8189;0.8581;
546.3000;0.8189;0.8483;
546.6000;0.8197;0.8434;
546.9000;0.8181;0.8361;
547.2000;0.8173;0.8337;
547.5000;0.8181;0.8337;
547.8000;0.8197;0.8459;
548.1000;0.8197;0.8483;
548.4000;0.8205;0.8410;
548.7000;0.8181;0.8337;
549.0000;0.8197;0.8386;
549.3000;0.8164;0.8361;
549.6000;0.8156;0.8386;
549.9000;0.8238;0.8605;
550.2000;0.8173;0.8434;
550.5000;0.8156;0.8483;
550.8000;0.8181;0.8532;
551.1000;0.8173;0.8556;
551.4000;0.8164;0.8581;
551.7000;0.8181;0.8556;
552.0000;0.8164;0.8532;
552.3000;0.8148;0.8507;
552.6000;0.8173;0.8629;
552.9000;0.8173;0.8605;
553.2000;0.8140;0.8386;
553.5000;0.8164;0.8483;
553.8000;0.8181;0.8483;
554.1000;0.8173;0.8556;
554.4000;0.8181;0.8605;
554.7000;0.8173;0.8556;
555.0000;0.8181;0.8605;
555.3000;0.8189;0.8654;
555.6000;0.8181;0.8556;
555.9000;0.8116;0.8337;
556.2000;0.8189;0.8507;
556.5000;0.8173;0.8483;
556.8000;0.8156;0.8459;
557.1000;0.8181;0.8556;
557.4000;0.8156;0.8459;
557.7000;0.8164;0.8434;
558.0000;0.8173;0.8410;
558.3000;0.8164;0.8337;
558.6000;0.8156;0.8361;
558.9000;0.8164;0.8483;
559.2000;0.8189;0.8605;
559.5000;0.8213;0.8678;
559.8000;0.8164;0.8605;
560.1000;0.8140;0.8556;
560.4000;0.8173;0.8581;
560.7000;0.8140;0.8532;
561.0000;0.8156;0.8556;
561.3000;0.8132;0.8434;
561.6000;0.8181;0.8459;
561.9000;0.8181;0.8483;
562.2000;0.8213;0.8483;
562.5000;0.8181;0.8410;
562.8000;0.8164;0.8288;
563.1000;0.8173;0.8386;
563.4000;0.8156;0.8312;
563.7000;0.8156;0.8312;
564.0000;0.8197;0.8386;
564.3000;0.8173;0.8288;
564.6000;0.8181;0.8337;
564.9000;0.8181;0.8337;
565.2000;0.8181;0.8288;
565.5000;0.8181;0.8312;
565.8000;0.8181;0.8361;
566.1000;0.8181;0.8410;
566.4000;0.8116;0.8191;
566.7000;0.8189;0.8337;
567.0000;0.8164;0.8410;
567.3000;0.8156;0.8386;
567.6000;0.8132;0.8337;
567.9000;0.8164;0.8483;
568.2000;0.8181;0.8532;
568.5000;0.8164;0.8507;
568.8000;0.8197;0.8556;
569.1000;0.8164;0.8532;
569.4000;0.8181;0.8459;
569.7000;0.8164;0.8312;
570.0000;0.8181;0.8337;
570.3000;0.8189;0.8361;
570.6000;0.8246;0.8483;
570.9000;0.8181;0.8434;
571.2000;0.8164;0.8386;
571.5000;0.8181;0.8361;
571.8000;0.8173;0.8312;
572.1000;0.8164;0.8312;
572.4000;0.8148;0.8288;
572.7000;0.8140;0.8264;
573.0000;0.8173;0.8361;
573.3000;0.8156;0.8410;
573.6000;0.8164;0.8459;
573.9000;0.8238;0.8605;
574.2000;0.8132;0.8264;
574.5000;0.8221;0.8483;
574.8000;0.8164;0.8386;
575.1000;0.8181;0.8410;
575.4000;0.8189;0.8532;
575.7000;0.8164;0.8605;
576.0000;0.8197;0.8483;
576.3000;0.8189;0.8507;
576.6000;0.8181;0.8434;
576.9000;0.8181;0.8386;
577.2000;0.8107;0.8264;
577.5000;0.8181;0.8410;
577.8000;0.8164;0.8361;
578.1000;0.8173;0.8288;
578.4000;0.8173;0.8288;
578.7000;0.8140;0.8288;
579.0000;0.8156;0.8264;
579.3000;0.8181;0.8312;
579.6000;0.8205;0.8459;
579.9000;0.8181;0.8410;
580.2000;0.8164;0.8434;
580.5000;0.8213;0.8459;
580.8000;0.8197;0.8386;
581.1000;0.8156;0.8264;
581.4000;0.8156;0.8239;
581.7000;0.8132;0.8166;
582.0000;0.8164;0.8312;
582.3000;0.8189;0.8361;
582.6000;0.8189;0.8434;
582.9000;0.8173;0.8434;
583.2000;0.8181;0.8386;
583.5000;0.8221;0.8483;
583.8000;0.8148;0.8337;
584.1000;0.8173;0.8288;
584.4000;0.8173;0.8337;
584.7000;0.8238;0.8410;
585.0000;0.8189;0.8288;
585.3000;0.8156;0.8117;
585.6000;0.8246;0.8312;
585.9000;0.8238;0.8361;
586.2000;0.8148;0.8215;
586.5000;0.8221;0.8312;
586.8000;0.8156;0.8142;
587.1000;0.8173;0.8215;
587.4000;0.8164;0.8117;
587.7000;0.8213;0.8093;
588.0000;0.8156;0.7947;
588.3000;0.8181;0.7947;
588.6000;0.8189;0.8044;
588.9000;0.8148;0.8020;
589.2000;0.8156;0.8069;
589.5000;0.8173;0.8142;
589.8000;0.8173;0.8117;
590.1000;0.8173;0.8044;
590.4000;0.8205;0.8069;
590.7000;0.8197;0.8044;
591.0000;0.8197;0.8044;
591.3000;0.8189;0.8020;
591.6000;0.8181;0.8020;
591.9000;0.8181;0.8044;
592.2000;0.8287;0.8312;
592.5000;0.8164;0.8117;
592.8000;0.8164;0.8166;
593.1000;0.8173;0.8166;
593.4000;0.8083;0.7971;
593.7000;0.8173;0.8191;
594.0000;0.8164;0.8166;
594.3000;0.8181;0.8166;
594.6000;0.8164;0.8191;
594.9000;0.8173;0.8215;
595.2000;0.8181;0.8191;
595.5000;0.8181;0.8215;
595.8000;0.8156;0.8191;
596.1000;0.8181;0.8288;
596.4000;0.8189;0.8459;
596.7000;0.8164;0.8507;
597.0000;0.8181;0.8556;
597.3000;0.8164;0.8507;
597.6000;0.8156;0.8386;
597.9000;0.8156;0.8337;
598.2000;0.8173;0.8361;
598.5000;0.8164;0.8337;
598.8000;0.8173;0.8337;
599.1000;0.8164;0.8288;
599.4000;0.8173;0.8264;
599.7000;0.8181;0.8312;
600.0000;0.8148;0.8288;
600.3000;0.8189;0.8410;
600.6000;0.8189;0.8191;
600.9000;0.8230;0.8093;
601.2000;0.8221;0.7922;
601.5000;0.8213;0.7849;
601.8000;0.8238;0.7849;
602.1000;0.8148;0.7581;
602.4000;0.8050;0.7215;
602.7000;0.8091;0.7289;
603.0000;0.8042;0.7142;
603.3000;0.8010;0.6947;
603.6000;0.7977;0.6850;
603.9000;0.7977;0.6752;
604.2000;0.7945;0.6630;
604.5000;0.7920;0.6533;
604.8000;0.7912;0.6557;
605.1000;0.7888;0.6582;
605.4000;0.7888;0.6630;
605.7000;0.7823;0.6509;
606.0000;0.7839;0.6582;
606.3000;0.7806;0.6435;
606.6000;0.7798;0.6387;
606.9000;0.7774;0.6240;
607.2000;0.7757;0.6314;
607.5000;0.7660;0.6119;
607.8000;0.7717;0.6289;
608.1000;0.7676;0.6167;
608.4000;0.7684;0.6167;
608.7000;0.7684;0.6216;
609.0000;0.7692;0.6167;
609.3000;0.7700;0.6216;
609.6000;0.7627;0.5924;
609.9000;0.7627;0.5972;
610.2000;0.7619;0.5972;
610.5000;0.7562;0.5924;
610.8000;0.7611;0.6094;
611.1000;0.7627;0.6143;
611.4000;0.7603;0.6216;
611.7000;0.7603;0.6240;
612.0000;0.7570;0.6094;
612.3000;0.7570;0.6070;
612.6000;0.7554;0.6094;
612.9000;0.7554;0.6045;
613.2000;0.7481;0.5826;
613.5000;0.7554;0.6021;
613.8000;0.7578;0.6094;
614.1000;0.7521;0.5997;
614.4000;0.7521;0.5948;
614.7000;0.7562;0.6070;
615.0000;0.7456;0.5704;
615.3000;0.7505;0.5948;
615.6000;0.7521;0.5924;
615.9000;0.7505;0.5850;
616.2000;0.7497;0.5924;
616.5000;0.7456;0.5753;
616.8000;0.7497;0.5753;
617.1000;0.7505;0.5850;
617.4000;0.7546;0.6070;
617.7000;0.7473;0.5850;
618.0000;0.7440;0.5850;
618.3000;0.7432;0.5777;
618.6000;0.7432;0.5753;
618.9000;0.7432;0.5826;
619.2000;0.7432;0.5802;
619.5000;0.7424;0.5850;
619.8000;0.7424;0.5948;
620.1000;0.7399;0.5875;
620.4000;0.7424;0.5850;
620.7000;0.7407;0.5948;
621.0000;0.7432;0.6021;
621.3000;0.7342;0.5875;
621.6000;0.7383;0.5972;
621.9000;0.7391;0.5972;
622.2000;0.7399;0.5924;
622.5000;0.7416;0.5924;
622.8000;0.7367;0.5875;
623.1000;0.7432;0.6143;
623.4000;0.7424;0.6143;
623.7000;0.7367;0.5899;
624.0000;0.7440;0.6021;
624.3000;0.7359;0.5826;
624.6000;0.7359;0.5826;
624.9000;0.7367;0.5777;
625.2000;0.7383;0.5924;
625.5000;0.7391;0.5899;
625.8000;0.7350;0.5777;
626.1000;0.7367;0.5850;
626.4000;0.7310;0.5753;
626.7000;0.7359;0.5899;
627.0000;0.7350;0.5875;
627.3000;0.7342;0.5924;
627.6000;0.7350;0.5948;
627.9000;0.7342;0.5948;
628.2000;0.7326;0.5875;
628.5000;0.7359;0.6045;
628.8000;0.7310;0.5924;
629.1000;0.7359;0.6045;
629.4000;0.7302;0.5924;
629.7000;0.7350;0.5924;
630.0000;0.7318;0.5899;
630.3000;0.7293;0.5826;
630.6000;0.7342;0.5875;
630.9000;0.7326;0.5850;
631.2000;0.7326;0.5777;
631.5000;0.7310;0.5728;
631.8000;0.7326;0.5753;
632.1000;0.7293;0.5777;
632.4000;0.7302;0.5802;
632.7000;0.7334;0.5899;
633.0000;0.7293;0.5728;
633.3000;0.7277;0.5607;
633.6000;0.7293;0.5655;
633.9000;0.7277;0.5631;
634.2000;0.7285;0.5607;
634.5000;0.7293;0.5680;
634.8000;0.7285;0.5680;
635.1000;0.7253;0.5533;
635.4000;0.7277;0.5558;
635.7000;0.7269;0.5460;
636.0000;0.7261;0.5436;
636.3000;0.7269;0.5558;
636.6000;0.7236;0.5485;
636.9000;0.7293;0.5607;
637.2000;0.7277;0.5558;
637.5000;0.7269;0.5582;
637.8000;0.7285;0.5680;
638.1000;0.7253;0.5680;
638.4000;0.7236;0.5680;
638.7000;0.7269;0.5728;
639.0000;0.7236;0.5631;
639.3000;0.7236;0.5728;
639.6000;0.7236;0.5753;
639.9000;0.7253;0.5777;
640.2000;0.7253;0.5777;
640.5000;0.7245;0.5826;
640.8000;0.7350;0.6070;
641.1000;0.7245;0.5826;
641.4000;0.7220;0.5802;
641.7000;0.7228;0.5850;
642.0000;0.7228;0.5753;
642.3000;0.7228;0.5753;
642.6000;0.7228;0.5753;
642.9000;0.7204;0.5753;
643.2000;0.7220;0.5728;
643.5000;0.7212;0.5655;
643.8000;0.7212;0.5728;
644.1000;0.7236;0.5802;
644.4000;0.7236;0.5802;
644.7000;0.7220;0.5875;
645.0000;0.7245;0.5948;
645.3000;0.7204;0.5875;
645.6000;0.7188;0.5924;
645.9000;0.7204;0.5948;
646.2000;0.7188;0.5875;
646.5000;0.7196;0.5826;
646.8000;0.7204;0.5826;
647.1000;0.7212;0.5802;
647.4000;0.7188;0.5607;
647.7000;0.7196;0.5582;
648.0000;0.7196;0.5607;
648.3000;0.7188;0.5728;
648.6000;0.7220;0.5680;
648.9000;0.7188;0.5558;
649.2000;0.7204;0.5533;
649.5000;0.7179;0.5460;
649.8000;0.7171;0.5460;
650.1000;0.7220;0.5607;
650.4000;0.7179;0.5412;
650.7000;0.7179;0.5387;
651.0000;0.7196;0.5436;
651.3000;0.7163;0.5387;
651.6000;0.7147;0.5363;
651.9000;0.7163;0.5558;
652.2000;0.7171;0.5558;
652.5000;0.7179;0.5485;
652.8000;0.7179;0.5582;
653.1000;0.7179;0.5753;
653.4000;0.7171;0.5655;
653.7000;0.7155;0.5607;
654.0000;0.7171;0.5680;
654.3000;0.7171;0.5704;
654.6000;0.7163;0.5680;
654.9000;0.7155;0.5680;
655.2000;0.7131;0.5485;
655.5000;0.7106;0.5460;
655.8000;0.7147;0.5582;
656.1000;0.7139;0.5582;
656.4000;0.7155;0.5607;
656.7000;0.7163;0.5680;
657.0000;0.7163;0.5704;
657.3000;0.7155;0.5680;
657.6000;0.7139;0.5607;
657.9000;0.7131;0.5704;
658.2000;0.7049;0.5460;
658.5000;0.7114;0.5582;
658.8000;0.7147;0.5680;
659.1000;0.7123;0.5680;
659.4000;0.7147;0.5607;
659.7000;0.7114;0.5607;
660.0000;0.7131;0.5607;
660.3000;0.7106;0.5631;
660.6000;0.7106;0.5680;
660.9000;0.7123;0.5704;
661.2000;0.7114;0.5728;
661.5000;0.7090;0.5728;
661.8000;0.7147;0.5875;
662.1000;0.7106;0.5728;
662.4000;0.7139;0.5802;
662.7000;0.7098;0.5728;
663.0000;0.7123;0.5802;
663.3000;0.7049;0.5631;
663.6000;0.7188;0.5924;
663.9000;0.7123;0.5728;
664.2000;0.7106;0.5802;
664.5000;0.7131;0.5802;
664.8000;0.7147;0.5802;
665.1000;0.7114;0.5704;
665.4000;0.7106;0.5680;
665.7000;0.7114;0.5704;
666.0000;0.7123;0.5728;
666.3000;0.7131;0.5777;
666.6000;0.7041;0.5509;
666.9000;0.7082;0.5607;
667.2000;0.7098;0.5680;
667.5000;0.7082;0.5704;
667.8000;0.7098;0.5655;
668.1000;0.7098;0.5777;
668.4000;0.7049;0.5509;
668.7000;0.7090;0.5607;
669.0000;0.7074;0.5655;
669.3000;0.7090;0.5655;
669.6000;0.7098;0.5655;
669.9000;0.7098;0.5704;
670.2000;0.7090;0.5704;
670.5000;0.7098;0.5728;
670.8000;0.7098;0.5704;
671.1000;0.7106;0.5631;
671.4000;0.7098;0.5558;
671.7000;0.7082;0.5558;
672.0000;0.7098;0.5582;
672.3000;0.7163;0.5826;
672.6000;0.7098;0.5655;
672.9000;0.7090;0.5655;
673.2000;0.7074;0.5558;
673.5000;0.7057;0.5436;
673.8000;0.7066;0.5436;
674.1000;0.7066;0.5436;
674.4000;0.7074;0.5509;
674.7000;0.7082;0.5533;
675.0000;0.7082;0.5533;
675.3000;0.7090;0.5558;
675.6000;0.7066;0.5436;
675.9000;0.7066;0.5436;
676.2000;0.7074;0.5485;
676.5000;0.7066;0.5558;
676.8000;0.7057;0.5460;
677.1000;0.7066;0.5582;
677.4000;0.7155;0.5899;
677.7000;0.7066;0.5533;
678.0000;0.7074;0.5558;
678.3000;0.7057;0.5607;
678.6000;0.7025;0.5509;
678.9000;0.7082;0.5582;
679.2000;0.7049;0.5533;
679.5000;0.7049;0.5509;
679.8000;0.7057;0.5607;
680.1000;0.7074;0.5728;
680.4000;0.7057;0.5777;
680.7000;0.7066;0.5777;
681.0000;0.7057;0.5753;
681.3000;0.7057;0.5802;
681.6000;0.7074;0.5850;
681.9000;0.7057;0.5802;
682.2000;0.7041;0.5728;
682.5000;0.7049;0.5728;
682.8000;0.7057;0.5728;
683.1000;0.7066;0.5728;
683.4000;0.7009;0.5607;
683.7000;0.7106;0.5826;
684.0000;0.7025;0.5558;
684.3000;0.7033;0.5460;
684.6000;0.6992;0.5338;
684.9000;0.7057;0.5558;
685.2000;0.7098;0.5704;
685.5000;0.7082;0.5680;
685.8000;0.7049;0.5509;
686.1000;0.7033;0.5631;
686.4000;0.7041;0.5631;
686.7000;0.7057;0.5558;
687.0000;0.7074;0.5631;
687.3000;0.7041;0.5533;
687.6000;0.6976;0.5412;
687.9000;0.7057;0.5631;
688.2000;0.7025;0.5631;
688.5000;0.7041;0.5753;
688.8000;0.7025;0.5753;
689.1000;0.7090;0.5948;
689.4000;0.7017;0.5802;
689.7000;0.7041;0.5826;
690.0000;0.7041;0.5924;
690.3000;0.7025;0.5899;
690.6000;0.7009;0.5753;
690.9000;0.6976;0.5607;
691.2000;0.7033;0.5753;
691.5000;0.7017;0.5777;
691.8000;0.7025;0.5777;
692.1000;0.6992;0.5680;
692.4000;0.7000;0.5607;
692.7000;0.7025;0.5631;
693.0000;0.7025;0.5558;
693.3000;0.7017;0.5436;
693.6000;0.7025;0.5460;
693.9000;0.7017;0.5509;
694.2000;0.7025;0.5533;
694.5000;0.7000;0.5533;
694.8000;0.6992;0.5558;
695.1000;0.7033;0.5655;
695.4000;0.7017;0.5680;
695.7000;0.7000;0.5655;
696.0000;0.7017;0.5753;
696.3000;0.7009;0.5777;
696.6000;0.7000;0.5777;
696.9000;0.7009;0.5802;
697.2000;0.7033;0.5802;
697.5000;0.7025;0.5704;
697.8000;0.7025;0.5753;
698.1000;0.7000;0.5680;
698.4000;0.7025;0.5753;
698.7000;0.6968;0.5655;
699.0000;0.7000;0.5728;
699.3000;0.6968;0.5607;
699.6000;0.6968;0.5607;
699.9000;0.7000;0.5533;
700.2000;0.6992;0.5558;
700.5000;0.7106;0.5899;
700.8000;0.7017;0.5777;
701.1000;0.6976;0.5704;
701.4000;0.6992;0.5777;
701.7000;0.7009;0.5802;
702.0000;0.7017;0.5728;
702.3000;0.7000;0.5655;
702.6000;0.6992;0.5582;
702.9000;0.7025;0.5680;
703.2000;0.7017;0.5728;
703.5000;0.6927;0.5558;
703.8000;0.7017;0.5704;
704.1000;0.7000;0.5680;
704.4000;0.7049;0.5826;
704.7000;0.6984;0.5753;
705.0000;0.6968;0.5607;
705.3000;0.7025;0.5704;
705.6000;0.7033;0.5753;
705.9000;0.6984;0.5680;
706.2000;0.6992;0.5704;
706.5000;0.6976;0.5704;
706.8000;0.6976;0.5680;
707.1000;0.6984;0.5680;
707.4000;0.6992;0.5704;
707.7000;0.6984;0.5704;
708.0000;0.7000;0.5728;
708.3000;0.7000;0.5802;
708.6000;0.7009;0.5753;
708.9000;0.6992;0.5704;
709.2000;0.6968;0.5753;
709.5000;0.6968;0.5826;
709.8000;0.6943;0.5826;
710.1000;0.6968;0.5802;
710.4000;0.6968;0.5875;
710.7000;0.6968;0.5850;
711.0000;0.7017;0.5899;
711.3000;0.6968;0.5802;
711.6000;0.6968;0.5777;
711.9000;0.6976;0.5704;
712.2000;0.6976;0.5680;
712.5000;0.6976;0.5655;
712.8000;0.6976;0.5680;
713.1000;0.7000;0.5680;
713.4000;0.6968;0.5655;
713.7000;0.6960;0.5680;
714.0000;0.6976;0.5753;
714.3000;0.6960;0.5631;
714.6000;0.6968;0.5680;
714.9000;0.6952;0.5753;
715.2000;0.7009;0.5850;
715.5000;0.6943;0.5728;
715.8000;0.6992;0.5850;
716.1000;0.6960;0.5680;
716.4000;0.6984;0.5680;
716.7000;0.6976;0.5655;
717.0000;0.6960;0.5655;
717.3000;0.6984;0.5802;
717.6000;0.6976;0.5680;
717.9000;0.6968;0.5655;
718.2000;0.6968;0.5655;
718.5000;0.6952;0.5533;
718.8000;0.6976;0.5655;
719.1000;0.6984;0.5655;
719.4000;0.6927;0.5509;
719.7000;0.6976;0.5509;
720.0000;0.6943;0.5485;
720.3000;0.6952;0.5558;
720.6000;0.6952;0.5607;
720.9000;0.6976;0.5631;
721.2000;0.6943;0.5582;
721.5000;0.6952;0.5558;
721.8000;0.6952;0.5582;
722.1000;0.6968;0.5728;
722.4000;0.6943;0.5728;
722.7000;0.6943;0.5655;
723.0000;0.6952;0.5582;
723.3000;0.6943;0.5533;
723.6000;0.6960;0.5631;
723.9000;0.6968;0.5655;
724.2000;0.6952;0.5655;
724.5000;0.6976;0.5704;
724.8000;0.6960;0.5631;
725.1000;0.6952;0.5582;
725.4000;0.6960;0.5558;
725.7000;0.6952;0.5582;
726.0000;0.6960;0.5655;
726.3000;0.6968;0.5655;
726.6000;0.6935;0.5680;
726.9000;0.6960;0.5753;
727.2000;0.6943;0.5704;
727.5000;0.7000;0.5826;
727.8000;0.6960;0.5777;
728.1000;0.6968;0.5704;
728.4000;0.6976;0.5753;
728.7000;0.6952;0.5607;
729.0000;0.6935;0.5558;
729.3000;0.6968;0.5460;
729.6000;0.6960;0.5485;
729.9000;0.6943;0.5485;
730.2000;0.6935;0.5558;
730.5000;0.6927;0.5509;
730.8000;0.6935;0.5582;
731.1000;0.6927;0.5631;
731.4000;0.6943;0.5607;
731.7000;0.6935;0.5631;
732.0000;0.6935;0.5704;
732.3000;0.6952;0.5680;
732.6000;0.6886;0.5509;
732.9000;0.6919;0.5680;
733.2000;0.6968;0.5777;
733.5000;0.6935;0.5728;
733.8000;0.6935;0.5704;
734.1000;0.7057;0.5924;
734.4000;0.6927;0.5655;
734.7000;0.6935;0.5704;
735.0000;0.6952;0.5802;
735.3000;0.6927;0.5680;
735.6000;0.6927;0.5655;
735.9000;0.6935;0.5704;
736.2000;0.6935;0.5753;
736.5000;0.6935;0.5728;
736.8000;0.6935;0.5728;
737.1000;0.6943;0.5704;
737.4000;0.6943;0.5680;
737.7000;0.6943;0.5704;
738.0000;0.6943;0.5753;
738.3000;0.7000;0.5850;
738.6000;0.6943;0.5753;
738.9000;0.6935;0.5631;
739.2000;0.6976;0.5607;
739.5000;0.6935;0.5436;
739.8000;0.6927;0.5412;
740.1000;0.6968;0.5509;
740.4000;0.6952;0.5533;
740.7000;0.6935;0.5509;
741.0000;0.6927;0.5460;
741.3000;0.6927;0.5412;
741.6000;0.6927;0.5485;
741.9000;0.6919;0.5655;
742.2000;0.6862;0.5558;
742.5000;0.6943;0.5802;
742.8000;0.6943;0.5753;
743.1000;0.6935;0.5680;
743.4000;0.6927;0.5704;
743.7000;0.6943;0.5728;
744.0000;0.6943;0.5802;
744.3000;0.6903;0.5680;
744.6000;0.6952;0.5777;
744.9000;0.6919;0.5655;
745.2000;0.6903;0.5680;
745.5000;0.6911;0.5728;
745.8000;0.6878;0.5607;
746.1000;0.6903;0.5631;
746.4000;0.6927;0.5558;
746.7000;0.6927;0.5582;
747.0000;0.6935;0.5680;
747.3000;0.6960;0.5850;
747.6000;0.6927;0.5753;
747.9000;0.6927;0.5753;
748.2000;0.6935;0.5802;
748.5000;0.6935;0.5777;
748.8000;0.6943;0.5777;
749.1000;0.6943;0.5777;
749.4000;0.6927;0.5826;
749.7000;0.6919;0.5728;
750.0000;0.6919;0.5777;
750.3000;0.6911;0.5899;
750.6000;0.6911;0.5972;
750.9000;0.6911;0.5997;
751.2000;0.6911;0.5972;
751.5000;0.6919;0.5924;
751.8000;0.6911;0.5899;
752.1000;0.6911;0.5972;
752.4000;0.6935;0.5972;
752.7000;0.6911;0.5899;
753.0000;0.6952;0.6021;
753.3000;0.6903;0.6021;
753.6000;0.6895;0.5924;
753.9000;0.6927;0.5948;
754.2000;0.6903;0.5924;
754.5000;0.6903;0.5875;
754.8000;0.6895;0.5826;
755.1000;0.6919;0.5924;
755.4000;0.6935;0.5875;
755.7000;0.6927;0.5777;
756.0000;0.6911;0.5704;
756.3000;0.6935;0.5802;
756.6000;0.6895;0.5680;
756.9000;0.6911;0.5753;
757.2000;0.6846;0.5607;
757.5000;0.6919;0.5826;
757.8000;0.6895;0.5753;
758.1000;0.6919;0.5850;
758.4000;0.6903;0.5802;
758.7000;0.6903;0.5802;
759.0000;0.6919;0.5875;
759.3000;0.6919;0.5753;
759.6000;0.6903;0.5777;
759.9000;0.6903;0.5680;
760.2000;0.6952;0.5802;
760.5000;0.6911;0.5753;
760.8000;0.6911;0.5826;
761.1000;0.6903;0.5875;
761.4000;0.6919;0.5850;
761.7000;0.6911;0.5924;
762.0000;0.6895;0.5899;
762.3000;0.6919;0.5924;
762.6000;0.6903;0.5850;
762.9000;0.6903;0.5826;
763.2000;0.6943;0.5899;
763.5000;0.6903;0.5728;
763.8000;0.6903;0.5704;
764.1000;0.6927;0.5802;
764.4000;0.6854;0.5607;
764.7000;0.6911;0.5728;
765.0000;0.6919;0.5753;
765.3000;0.6895;0.5680;
765.6000;0.6895;0.5655;
765.9000;0.6886;0.5631;
766.2000;0.6903;0.5680;
766.5000;0.6895;0.5704;
766.8000;0.6895;0.5680;
767.1000;0.6903;0.5704;
767.4000;0.6919;0.5777;
767.7000;0.6911;0.5728;
768.0000;0.6805;0.5363;
768.3000;0.6903;0.5680;
768.6000;0.6895;0.5728;
768.9000;0.6911;0.5753;
769.2000;0.6911;0.5777;
769.5000;0.6895;0.5777;
769.8000;0.6878;0.5753;
770.1000;0.6903;0.5655;
770.4000;0.6895;0.5655;
770.7000;0.6919;0.5802;
771.0000;0.6886;0.5728;
771.3000;0.6911;0.5753;
771.6000;0.6895;0.5777;
771.9000;0.6903;0.5875;
772.2000;0.6911;0.5924;
772.5000;0.6911;0.5802;
772.8000;0.6903;0.5728;
773.1000;0.6895;0.5704;
773.4000;0.6911;0.5753;
773.7000;0.6895;0.5704;
774.0000;0.6919;0.5728;
774.3000;0.6952;0.5704;
774.6000;0.6911;0.5728;
774.9000;0.6813;0.5485;
775.2000;0.6903;0.5655;
775.5000;0.6895;0.5631;
775.8000;0.6911;0.5753;
776.1000;0.6903;0.5802;
776.4000;0.6903;0.5753;
776.7000;0.6878;0.5631;
777.0000;0.6935;0.5777;
777.3000;0.6895;0.5704;
777.6000;0.6952;0.5826;
777.9000;0.6919;0.5728;
778.2000;0.6911;0.5777;
778.5000;0.6895;0.5802;
778.8000;0.6895;0.5753;
779.1000;0.6854;0.5728;
779.4000;0.6870;0.5753;
779.7000;0.6886;0.5680;
780.0000;0.6886;0.5680;
780.3000;0.6919;0.5802;
780.6000;0.6772;0.5485;
780.9000;0.6952;0.6021;
781.2000;0.6886;0.5826;
781.5000;0.6919;0.5924;
781.8000;0.6911;0.5850;
782.1000;0.6935;0.5875;
782.4000;0.6935;0.5924;
782.7000;0.6903;0.5777;
783.0000;0.6911;0.5924;
783.3000;0.6886;0.5802;
783.6000;0.6895;0.5753;
783.9000;0.6878;0.5728;
784.2000;0.6895;0.5728;
784.5000;0.6886;0.5704;
784.8000;0.6878;0.5680;
785.1000;0.6903;0.5680;
785.4000;0.6878;0.5655;
785.7000;0.6895;0.5704;
786.0000;0.6870;0.5680;
786.3000;0.6878;0.5753;
786.6000;0.6911;0.5875;
786.9000;0.6911;0.5899;
787.2000;0.6862;0.5924;
787.5000;0.6903;0.5875;
787.8000;0.6895;0.5802;
788.1000;0.6911;0.5802;
788.4000;0.6870;0.5680;
788.7000;0.6805;0.5558;
789.0000;0.6878;0.5704;
789.3000;0.6960;0.5972;
789.6000;0.6878;0.5802;
789.9000;0.6886;0.5826;
790.2000;0.6870;0.5777;
790.5000;0.6903;0.5899;
790.8000;0.6895;0.5826;
791.1000;0.6886;0.5728;
791.4000;0.6878;0.5728;
791.7000;0.6911;0.5777;
792.0000;0.6878;0.5753;
792.3000;0.6895;0.5826;
792.6000;0.6903;0.5802;
792.9000;0.6870;0.5826;
793.2000;0.6911;0.5948;
793.5000;0.6911;0.6021;
793.8000;0.6895;0.5899;
794.1000;0.6919;0.5997;
794.4000;0.6911;0.5948;
794.7000;0.6886;0.5899;
795.0000;0.6870;0.5850;
795.3000;0.6862;0.5850;
795.6000;0.6878;0.5899;
795.9000;0.6886;0.5924;
796.2000;0.6870;0.5875;
796.5000;0.6903;0.5899;
796.8000;0.6878;0.5850;
797.1000;0.6903;0.5997;
797.4000;0.6903;0.5972;
797.7000;0.6886;0.5924;
798.0000;0.6886;0.5972;
798.3000;0.6870;0.5777;
798.6000;0.6870;0.5826;
798.9000;0.6895;0.5850;
799.2000;0.6895;0.5850;
799.5000;0.6903;0.5899;
799.8000;0.6919;0.5997;
800.1000;0.6862;0.5875;
800.4000;0.6838;0.5728;
800.7000;0.6821;0.5655;
801.0000;0.6903;0.5802;
801.3000;0.6846;0.5631;
801.6000;0.6821;0.5558;
801.9000;0.6862;0.5704;
802.2000;0.6870;0.5704;
802.5000;0.6886;0.5826;
802.8000;0.6870;0.5850;
803.1000;0.6846;0.5924;
803.4000;0.6870;0.6094;
803.7000;0.6870;0.6021;
804.0000;0.6911;0.6070;
804.3000;0.6911;0.6143;
804.6000;0.6838;0.6021;
804.9000;0.6870;0.6119;
805.2000;0.6919;0.6094;
805.5000;0.6911;0.5972;
805.8000;0.6878;0.5826;
806.1000;0.6789;0.5582;
806.4000;0.6895;0.5777;
806.7000;0.6838;0.5753;
807.0000;0.6862;0.5802;
807.3000;0.6878;0.5899;
807.6000;0.6886;0.5826;
807.9000;0.6854;0.5850;
808.2000;0.6886;0.5802;
808.5000;0.6903;0.5875;
808.8000;0.6748;0.5533;
809.1000;0.6895;0.5972;
809.4000;0.6919;0.6045;
809.7000;0.6878;0.6045;
810.0000;0.6895;0.6070;
810.3000;0.6846;0.5899;
810.6000;0.6862;0.5850;
810.9000;0.6854;0.5924;
811.2000;0.6854;0.5924;
811.5000;0.6854;0.5924;
811.8000;0.6886;0.5997;
812.1000;0.6870;0.5972;
812.4000;0.6886;0.5948;
812.7000;0.6878;0.5899;
813.0000;0.6870;0.5972;
813.3000;0.6870;0.5899;
813.6000;0.6886;0.5948;
813.9000;0.6862;0.5850;
814.2000;0.6903;0.5875;
814.5000;0.6862;0.5802;
814.8000;0.6878;0.5826;
815.1000;0.6886;0.5777;
815.4000;0.6854;0.5607;
815.7000;0.6878;0.5607;
816.0000;0.6846;0.5582;
816.3000;0.6878;0.5631;
816.6000;0.6927;0.5802;
816.9000;0.6862;0.5777;
817.2000;0.6878;0.5875;
817.5000;0.6992;0.6216;
817.8000;0.6862;0.5924;
818.1000;0.6895;0.5948;
818.4000;0.6862;0.5875;
818.7000;0.6895;0.5924;
819.0000;0.6870;0.5826;
819.3000;0.6862;0.5777;
819.6000;0.6854;0.5753;
819.9000;0.6813;0.5680;
820.2000;0.6870;0.5850;
820.5000;0.6862;0.5826;
820.8000;0.6870;0.5850;
821.1000;0.6870;0.5850;
821.4000;0.6878;0.5826;
821.7000;0.6854;0.5753;
822.0000;0.6805;0.5655;
822.3000;0.6870;0.5875;
822.6000;0.6862;0.5850;
822.9000;0.6878;0.5850;
823.2000;0.6789;0.5631;
823.5000;0.6878;0.5948;
823.8000;0.6862;0.5899;
824.1000;0.6862;0.5899;
824.4000;0.6854;0.5850;
824.7000;0.6846;0.5826;
825.0000;0.6854;0.5826;
825.3000;0.6895;0.5972;
825.6000;0.6846;0.5924;
825.9000;0.6846;0.5948;
826.2000;0.6870;0.6021;
826.5000;0.6846;0.5948;
826.8000;0.6846;0.5997;
827.1000;0.6878;0.5997;
827.4000;0.6870;0.5948;
827.7000;0.6895;0.5924;
828.0000;0.6886;0.5850;
828.3000;0.6854;0.5875;
828.6000;0.6878;0.5924;
828.9000;0.6878;0.5924;
829.2000;0.6886;0.6021;
829.5000;0.6878;0.5972;
829.8000;0.6878;0.5924;
830.1000;0.6829;0.5802;
830.4000;0.6862;0.5924;
830.7000;0.6846;0.5850;
831.0000;0.6886;0.5899;
831.3000;0.6911;0.6094;
831.6000;0.6862;0.5997;
831.9000;0.6854;0.5875;
832.2000;0.6838;0.5802;
832.5000;0.6854;0.5802;
832.8000;0.6886;0.5826;
833.1000;0.6862;0.5753;
833.4000;0.6878;0.5753;
833.7000;0.6878;0.5826;
834.0000;0.6878;0.5875;
834.3000;0.6862;0.5826;
834.6000;0.6854;0.5826;
834.9000;0.6870;0.5802;
835.2000;0.6927;0.5899;
835.5000;0.6870;0.5680;
835.8000;0.6886;0.5728;
836.1000;0.6862;0.5631;
836.4000;0.6870;0.5655;
836.7000;0.6862;0.5680;
837.0000;0.6854;0.5631;
837.3000;0.6846;0.5631;
837.6000;0.6854;0.5607;
837.9000;0.6821;0.5558;
838.2000;0.6870;0.5680;
838.5000;0.6854;0.5704;
838.8000;0.6862;0.5777;
839.1000;0.6878;0.5850;
839.4000;0.6846;0.5753;
839.7000;0.6878;0.5875;
840.0000;0.6862;0.5850;
840.3000;0.6797;0.5655;
840.6000;0.6886;0.5875;
840.9000;0.6862;0.5728;
841.2000;0.6903;0.5777;
841.5000;0.6870;0.5558;
841.8000;0.6862;0.5533;
842.1000;0.6846;0.5582;
842.4000;0.6854;0.5558;
842.7000;0.6895;0.5680;
843.0000;0.6862;0.5631;
843.3000;0.6886;0.5655;
843.6000;0.6870;0.5655;
843.9000;0.6878;0.5680;
844.2000;0.6862;0.5680;
844.5000;0.6878;0.5704;
844.8000;0.6854;0.5728;
845.1000;0.6854;0.5704;
845.4000;0.6854;0.5704;
845.7000;0.6862;0.5655;
846.0000;0.6854;0.5704;
846.3000;0.6862;0.5704;
846.6000;0.6870;0.5655;
846.9000;0.6862;0.5777;
847.2000;0.6886;0.5850;
847.5000;0.6854;0.5753;
847.8000;0.6838;0.5850;
848.1000;0.6870;0.5899;
848.4000;0.6854;0.5850;
848.7000;0.6846;0.5802;
849.0000;0.6854;0.5802;
849.3000;0.6878;0.5850;
849.6000;0.6854;0.5728;
849.9000;0.6838;0.5704;
850.2000;0.6838;0.5777;
850.5000;0.6862;0.5924;
850.8000;0.6846;0.5875;
851.1000;0.6821;0.5850;
851.4000;0.6854;0.5997;
851.7000;0.6846;0.5948;
852.0000;0.6846;0.5972;
852.3000;0.6846;0.5997;
852.6000;0.6886;0.6070;
852.9000;0.6862;0.5972;
853.2000;0.6862;0.5948;
853.5000;0.6862;0.5826;
853.8000;0.6854;0.5777;
854.1000;0.6952;0.6021;
854.4000;0.6862;0.5680;
854.7000;0.6862;0.5728;
855.0000;0.6854;0.5777;
855.3000;0.6829;0.5777;
855.6000;0.6870;0.5777;
855.9000;0.6854;0.5777;
856.2000;0.6846;0.5777;
856.5000;0.6846;0.5850;
856.8000;0.6854;0.5802;
857.1000;0.6854;0.5753;
857.4000;0.6846;0.5704;
857.7000;0.6854;0.5704;
858.0000;0.6846;0.5753;
858.3000;0.6870;0.5802;
858.6000;0.6862;0.5655;
858.9000;0.6854;0.5582;
859.2000;0.6813;0.5533;
859.5000;0.6862;0.5680;
859.8000;0.6870;0.5680;
860.1000;0.6854;0.5704;
860.4000;0.6903;0.5777;
860.7000;0.6862;0.5607;
861.0000;0.6854;0.5533;
861.3000;0.6854;0.5582;
861.6000;0.6838;0.5607;
861.9000;0.6854;0.5753;
862.2000;0.6854;0.5802;
862.5000;0.6821;0.5777;
862.8000;0.6838;0.5728;
863.1000;0.6846;0.5753;
863.4000;0.6862;0.5899;
863.7000;0.6854;0.5826;
864.0000;0.6870;0.5850;
864.3000;0.6846;0.5753;
864.6000;0.6829;0.5777;
864.9000;0.6878;0.5728;
865.2000;0.6846;0.5655;
865.5000;0.6838;0.5655;
865.8000;0.6903;0.5753;
866.1000;0.6870;0.5728;
866.4000;0.6854;0.5728;
866.7000;0.6886;0.5802;
867.0000;0.6838;0.5777;
867.3000;0.6927;0.5972;
867.6000;0.6846;0.5753;
867.9000;0.6862;0.5753;
868.2000;0.6854;0.5850;
868.5000;0.6846;0.5875;
868.8000;0.6846;0.5777;
869.1000;0.6886;0.5924;
869.4000;0.6862;0.5875;
869.7000;0.6870;0.5875;
870.0000;0.6854;0.5850;
870.3000;0.6862;0.5875;
870.6000;0.6821;0.5777;
870.9000;0.6862;0.5924;
871.2000;0.6764;0.5631;
871.5000;0.6854;0.5802;
871.8000;0.6854;0.5826;
872.1000;0.6862;0.5850;
872.4000;0.6870;0.5777;
872.7000;0.6862;0.5753;
873.0000;0.6846;0.5802;
873.3000;0.6854;0.5948;
873.6000;0.6838;0.5875;
873.9000;0.6846;0.5777;
874.2000;0.6870;0.5948;
874.5000;0.6846;0.5948;
874.8000;0.6895;0.6070;
875.1000;0.6838;0.5924;
875.4000;0.6829;0.5875;
875.7000;0.6838;0.5948;
876.0000;0.6854;0.5997;
876.3000;0.6838;0.6021;
876.6000;0.6838;0.5948;
876.9000;0.6846;0.5899;
877.2000;0.6838;0.5875;
877.5000;0.6846;0.5972;
877.8000;0.6862;0.6021;
878.1000;0.6862;0.5997;
878.4000;0.6854;0.5972;
878.7000;0.6862;0.6070;
879.0000;0.6846;0.6021;
879.3000;0.6854;0.6021;
879.6000;0.6862;0.6070;
879.9000;0.6854;0.6021;
880.2000;0.6846;0.5972;
880.5000;0.6862;0.5875;
880.8000;0.6829;0.5850;
881.1000;0.6870;0.5948;
881.4000;0.6838;0.5875;
881.7000;0.6838;0.5777;
882.0000;0.6813;0.5728;
882.3000;0.6813;0.5655;
882.6000;0.6838;0.5802;
882.9000;0.6846;0.5899;
883.2000;0.6862;0.5972;
883.5000;0.6854;0.5972;
883.8000;0.6846;0.5997;
884.1000;0.6854;0.5997;
884.4000;0.6862;0.5997;
884.7000;0.6829;0.5948;
885.0000;0.6854;0.6021;
885.3000;0.6838;0.6045;
885.6000;0.6813;0.6070;
885.9000;0.6838;0.6119;
886.2000;0.6862;0.6119;
886.5000;0.6838;0.6119;
886.8000;0.6854;0.6021;
887.1000;0.6846;0.6070;
887.4000;0.6829;0.6021;
887.7000;0.6838;0.5997;
888.0000;0.6813;0.5875;
888.3000;0.6838;0.5875;
888.6000;0.6846;0.5850;
888.9000;0.6862;0.5777;
889.2000;0.6838;0.5704;
889.5000;0.6838;0.5753;
889.8000;0.6846;0.5704;
890.1000;0.6838;0.5850;
890.4000;0.6838;0.5802;
890.7000;0.6838;0.5826;
891.0000;0.6829;0.5850;
891.3000;0.6813;0.5777;
891.6000;0.6829;0.5753;
891.9000;0.6797;0.5655;
892.2000;0.6838;0.5753;
892.5000;0.6846;0.5704;
892.8000;0.6846;0.5704;
893.1000;0.6675;0.5290;
893.4000;0.6846;0.5680;
893.7000;0.6846;0.5631;
894.0000;0.6838;0.5509;
894.3000;0.6829;0.5509;
894.6000;0.6846;0.5582;
894.9000;0.6862;0.5777;
895.2000;0.6829;0.5728;
895.5000;0.6846;0.5777;
895.8000;0.6854;0.5802;
896.1000;0.6854;0.5802;
896.4000;0.6870;0.5875;
896.7000;0.6821;0.5753;
897.0000;0.6854;0.5802;
897.3000;0.6838;0.5753;
897.6000;0.6911;0.5899;
897.9000;0.6846;0.5680;
898.2000;0.6854;0.5631;
898.5000;0.6846;0.5631;
898.8000;0.6862;0.5655;
899.1000;0.6862;0.5655;
899.4000;0.6821;0.5607;
899.7000;0.6862;0.5728;
900.0000;0.6846;0.5753;
900.3000;0.6846;0.5704;
900.6000;0.6838;0.5655;
900.9000;0.6911;0.5899;
901.2000;0.6813;0.5704;
901.5000;0.6846;0.5728;
901.8000;0.6846;0.5753;
902.1000;0.6829;0.5753;
902.4000;0.6838;0.5631;
902.7000;0.6854;0.5777;
903.0000;0.6854;0.5850;
903.3000;0.6846;0.5899;
903.6000;0.6846;0.5924;
903.9000;0.6838;0.5924;
904.2000;0.6854;0.5948;
904.5000;0.6854;0.6021;
904.8000;0.6846;0.5924;
905.1000;0.6870;0.5899;
905.4000;0.6862;0.5875;
905.7000;0.6854;0.5850;
906.0000;0.6846;0.5826;
906.3000;0.6862;0.5899;
906.6000;0.6854;0.5753;
906.9000;0.6862;0.5777;
907.2000;0.6846;0.5728;
907.5000;0.6813;0.5753;
907.8000;0.6846;0.5826;
908.1000;0.6829;0.5753;
908.4000;0.6846;0.5875;
908.7000;0.6846;0.5948;
909.0000;0.6821;0.5899;
909.3000;0.6862;0.5972;
909.6000;0.6838;0.5924;
909.9000;0.6829;0.5924;
910.2000;0.6854;0.5948;
910.5000;0.6829;0.5899;
910.8000;0.6862;0.5997;
911.1000;0.6862;0.5924;
911.4000;0.6919;0.6045;
911.7000;0.6895;0.5972;
912.0000;0.6821;0.5899;
912.3000;0.6846;0.5875;
912.6000;0.6821;0.5753;
912.9000;0.6821;0.5753;
913.2000;0.6854;0.5777;
913.5000;0.6846;0.5728;
913.8000;0.6838;0.5680;
914.1000;0.6797;0.5509;
914.4000;0.6943;0.5948;
914.7000;0.6862;0.5777;
915.0000;0.6813;0.5607;
915.3000;0.6846;0.5704;
915.6000;0.6846;0.5753;
915.9000;0.6838;0.5753;
916.2000;0.6878;0.5826;
916.5000;0.6829;0.5753;
916.8000;0.6805;0.5607;
917.1000;0.6797;0.5533;
917.4000;0.6838;0.5582;
917.7000;0.6813;0.5607;
918.0000;0.6846;0.5680;
918.3000;0.6838;0.5655;
918.6000;0.6838;0.5753;
918.9000;0.6829;0.5777;
919.2000;0.6846;0.5850;
919.5000;0.6862;0.5850;
919.8000;0.6781;0.5680;
920.1000;0.6756;0.5655;
920.4000;0.6854;0.5924;
920.7000;0.6846;0.5875;
921.0000;0.6846;0.5924;
921.3000;0.6846;0.5899;
921.6000;0.6846;0.5875;
921.9000;0.6854;0.5899;
922.2000;0.6829;0.5826;
922.5000;0.6846;0.5875;
922.8000;0.6846;0.5899;
923.1000;0.6821;0.5899;
923.4000;0.6846;0.6021;
923.7000;0.6846;0.5997;
924.0000;0.6854;0.6070;
924.3000;0.6870;0.6045;
924.6000;0.6862;0.6070;
924.9000;0.6838;0.5997;
925.2000;0.6862;0.6143;
925.5000;0.6838;0.6167;
925.8000;0.6838;0.6192;
926.1000;0.6838;0.6119;
926.4000;0.6829;0.5997;
926.7000;0.6870;0.6021;
927.0000;0.6870;0.6045;
927.3000;0.6789;0.5826;
927.6000;0.6797;0.5875;
927.9000;0.6838;0.5948;
928.2000;0.6854;0.5899;
928.5000;0.6829;0.5802;
928.8000;0.6838;0.5777;
929.1000;0.6854;0.5704;
929.4000;0.6862;0.5680;
929.7000;0.6846;0.5753;
930.0000;0.6838;0.5728;
930.3000;0.6829;0.5680;
930.6000;0.6846;0.5704;
930.9000;0.6854;0.5680;
931.2000;0.6838;0.5704;
931.5000;0.6829;0.5704;
931.8000;0.6821;0.5753;
932.1000;0.6862;0.5899;
932.4000;0.6846;0.5777;
932.7000;0.6862;0.5777;
933.0000;0.6838;0.5680;
933.3000;0.6829;0.5777;
933.6000;0.6870;0.5850;
933.9000;0.6870;0.5777;
934.2000;0.6846;0.5802;
934.5000;0.6854;0.5875;
934.8000;0.6886;0.5972;
935.1000;0.6862;0.5899;
935.4000;0.6854;0.5875;
935.7000;0.6805;0.5777;
936.0000;0.6846;0.5924;
936.3000;0.6846;0.5875;
936.6000;0.6862;0.5875;
936.9000;0.6854;0.5826;
937.2000;0.6829;0.5802;
937.5000;0.6829;0.5875;
937.8000;0.6846;0.5802;
938.1000;0.6838;0.5728;
938.4000;0.6862;0.5850;
938.7000;0.6870;0.5875;
939.0000;0.6870;0.5948;
939.3000;0.6862;0.5997;
939.6000;0.6846;0.6021;
939.9000;0.6846;0.6070;
940.2000;0.6772;0.5899;
940.5000;0.6846;0.6070;
940.8000;0.6838;0.6167;
941.1000;0.6838;0.6119;
941.4000;0.6846;0.5997;
941.7000;0.6854;0.6070;
942.0000;0.6829;0.5972;
942.3000;0.6813;0.5948;
942.6000;0.6829;0.5924;
942.9000;0.6805;0.5777;
943.2000;0.6829;0.5875;
943.5000;0.6846;0.5826;
943.8000;0.6829;0.5753;
944.1000;0.6846;0.5802;
944.4000;0.6838;0.5875;
944.7000;0.6886;0.5899;
945.0000;0.6862;0.5850;
945.3000;0.6838;0.5826;
945.6000;0.6854;0.5875;
945.9000;0.6854;0.5972;
946.2000;0.6903;0.6119;
946.5000;0.6829;0.6045;
946.8000;0.6813;0.5972;
947.1000;0.6846;0.6045;
947.4000;0.6862;0.5997;
947.7000;0.6838;0.5924;
948.0000;0.6821;0.5972;
948.3000;0.6821;0.5850;
948.6000;0.6846;0.5826;
948.9000;0.6846;0.5777;
949.2000;0.6829;0.5826;
949.5000;0.6789;0.5655;
949.8000;0.6846;0.5826;
950.1000;0.6838;0.5899;
950.4000;0.6821;0.5850;
950.7000;0.6838;0.5802;
951.0000;0.6870;0.5875;
951.3000;0.6838;0.5802;
951.6000;0.6829;0.5777;
951.9000;0.6829;0.5924;
952.2000;0.6862;0.6045;
952.5000;0.6935;0.6265;
952.8000;0.6838;0.5899;
953.1000;0.6829;0.5850;
953.4000;0.6789;0.5753;
953.7000;0.6846;0.5899;
954.0000;0.6919;0.6143;
954.3000;0.6870;0.5924;
954.6000;0.6895;0.5948;
954.9000;0.6854;0.5826;
955.2000;0.6846;0.5826;
955.5000;0.6838;0.5777;
955.8000;0.6829;0.5850;
956.1000;0.6829;0.5826;
956.4000;0.6821;0.5753;
956.7000;0.6821;0.5704;
957.0000;0.6797;0.5631;
957.3000;0.6838;0.5582;
957.6000;0.6846;0.5607;
957.9000;0.6838;0.5582;
958.2000;0.6805;0.5558;
958.5000;0.6829;0.5582;
958.8000;0.6854;0.5631;
959.1000;0.6797;0.5460;
959.4000;0.6821;0.5607;
959.7000;0.6829;0.5582;
960.0000;0.6854;0.5607;
960.3000;0.6838;0.5607;
960.6000;0.6838;0.5655;
960.9000;0.6838;0.5655;
961.2000;0.6821;0.5631;
961.5000;0.6838;0.5631;
961.8000;0.6829;0.5607;
962.1000;0.6829;0.5607;
962.4000;0.6829;0.5533;
962.7000;0.6821;0.5533;
963.0000;0.6846;0.5582;
963.3000;0.6838;0.5655;
963.6000;0.6829;0.5631;
963.9000;0.6821;0.5582;
964.2000;0.6854;0.5655;
964.5000;0.6846;0.5655;
964.8000;0.6838;0.5607;
965.1000;0.6895;0.5850;
965.4000;0.6846;0.5802;
965.7000;0.6838;0.5850;
966.0000;0.6821;0.5826;
966.3000;0.6846;0.5875;
966.6000;0.6846;0.5850;
966.9000;0.6854;0.5826;
967.2000;0.6821;0.5680;
967.5000;0.6838;0.5655;
967.8000;0.6821;0.5607;
968.1000;0.6862;0.5655;
968.4000;0.6838;0.5607;
968.7000;0.6846;0.5582;
969.0000;0.6854;0.5558;
969.3000;0.6846;0.5485;
969.6000;0.6821;0.5558;
969.9000;0.6829;0.5509;
970.2000;0.6854;0.5607;
970.5000;0.6846;0.5460;
970.8000;0.6838;0.5387;
971.1000;0.6838;0.5436;
971.4000;0.6829;0.5485;
971.7000;0.6838;0.5460;
972.0000;0.6838;0.5509;
972.3000;0.6829;0.5436;
972.6000;0.6846;0.5436;
972.9000;0.6838;0.5436;
973.2000;0.6886;0.5509;
973.5000;0.6878;0.5533;
973.8000;0.6846;0.5412;
974.1000;0.6854;0.5460;
974.4000;0.6854;0.5338;
974.7000;0.6846;0.5290;
975.0000;0.6846;0.5363;
975.3000;0.6854;0.5412;
975.6000;0.6846;0.5460;
975.9000;0.6854;0.5460;
976.2000;0.6821;0.5387;
976.5000;0.6838;0.5436;
976.8000;0.6838;0.5509;
977.1000;0.6846;0.5558;
977.4000;0.6895;0.5728;
977.7000;0.6862;0.5753;
978.0000;0.6838;0.5753;
978.3000;0.6821;0.5777;
978.6000;0.6797;0.5704;
978.9000;0.6838;0.5875;
979.2000;0.6846;0.5924;
979.5000;0.6838;0.5972;
979.8000;0.6838;0.5875;
980.1000;0.6821;0.5802;
980.4000;0.6846;0.5753;
980.7000;0.6846;0.5753;
981.0000;0.6838;0.5753;
981.3000;0.6829;0.5728;
981.6000;0.6846;0.5728;
981.9000;0.6838;0.5704;
982.2000;0.6829;0.5680;
982.5000;0.6821;0.5728;
982.8000;0.6846;0.5753;
983.1000;0.6829;0.5655;
983.4000;0.6829;0.5582;
983.7000;0.6903;0.5704;
984.0000;0.6821;0.5582;
984.3000;0.6846;0.5631;
984.6000;0.6829;0.5680;
984.9000;0.6862;0.5802;
985.2000;0.6886;0.5777;
985.5000;0.6846;0.5680;
985.8000;0.6821;0.5631;
986.1000;0.6797;0.5607;
986.4000;0.6821;0.5802;
986.7000;0.6813;0.5728;
987.0000;0.6870;0.5850;
987.3000;0.6846;0.5850;
987.6000;0.6797;0.5777;
987.9000;0.6838;0.5802;
988.2000;0.6919;0.6045;
988.5000;0.6821;0.5850;
988.8000;0.6829;0.5850;
989.1000;0.6797;0.5777;
989.4000;0.6846;0.5875;
989.7000;0.6829;0.5826;
990.0000;0.6838;0.5899;
990.3000;0.6821;0.5826;
990.6000;0.6797;0.5777;
990.9000;0.6838;0.5802;
991.2000;0.6829;0.5704;
991.5000;0.6838;0.5631;
991.8000;0.6829;0.5680;
992.1000;0.6838;0.5704;
992.4000;0.6805;0.5582;
992.7000;0.6838;0.5655;
993.0000;0.6838;0.5631;
993.3000;0.6919;0.5826;
993.6000;0.6821;0.5607;
993.9000;0.6772;0.5460;
994.2000;0.6764;0.5509;
994.5000;0.6878;0.5753;
994.8000;0.6838;0.5704;
995.1000;0.6838;0.5704;
995.4000;0.6895;0.5826;
995.7000;0.6838;0.5655;
996.0000;0.6829;0.5631;
996.3000;0.6854;0.5704;
996.6000;0.6854;0.5728;
996.9000;0.6829;0.5680;
997.2000;0.6838;0.5728;
997.5000;0.6838;0.5680;
997.8000;0.6829;0.5777;
998.1000;0.6829;0.5826;
998.4000;0.6797;0.5728;
998.7000;0.6829;0.5802;
999.0000;0.6829;0.5802;
999.3000;0.6846;0.5704;
999.6000;0.6903;0.5899;
999.9000;0.6838;0.5826;
1000.2000;0.6846;0.5850;
1000.5000;0.6829;0.5850;
1000.8000;0.6838;0.5850;
1001.1000;0.6846;0.5850;
1001.4000;0.6838;0.5826;
1001.7000;0.6821;0.5753;
1002.0000;0.6838;0.5899;
1002.3000;0.6797;0.5753;
1002.6000;0.6821;0.5850;
1002.9000;0.6829;0.5924;
1003.2000;0.6838;0.5875;
1003.5000;0.6854;0.5875;
1003.8000;0.6838;0.5680;
1004.1000;0.6789;0.5582;
1004.4000;0.6838;0.5802;
1004.7000;0.6870;0.5875;
1005.0000;0.6846;0.5802;
1005.3000;0.6846;0.5777;
1005.6000;0.6838;0.5777;
1005.9000;0.6854;0.5753;
1006.2000;0.6854;0.5680;
1006.5000;0.6838;0.5607;
1006.8000;0.6838;0.5607;
1007.1000;0.6805;0.5533;
1007.4000;0.6838;0.5607;
1007.7000;0.6854;0.5704;
1008.0000;0.6862;0.5704;
1008.3000;0.6903;0.5802;
1008.6000;0.6846;0.5680;
1008.9000;0.6805;0.5704;
1009.2000;0.6772;0.5558;
1009.5000;0.6846;0.5826;
1009.8000;0.6805;0.5680;
1010.1000;0.6829;0.5728;
1010.4000;0.6797;0.5631;
1010.7000;0.6838;0.5704;
1011.0000;0.6781;0.5460;
1011.3000;0.6821;0.5582;
1011.6000;0.6829;0.5631;
1011.9000;0.6821;0.5631;
1012.2000;0.6821;0.5680;
1012.5000;0.6838;0.5582;
1012.8000;0.6886;0.5680;
1013.1000;0.6878;0.5607;
1013.4000;0.6854;0.5558;
1013.7000;0.6846;0.5558;
1014.0000;0.6838;0.5533;
1014.3000;0.6838;0.5582;
1014.6000;0.6838;0.5631;
1014.9000;0.6838;0.5631;
1015.2000;0.6838;0.5607;
1015.5000;0.6838;0.5607;
1015.8000;0.6838;0.5607;
1016.1000;0.6829;0.5607;
1016.4000;0.6846;0.5655;
1016.7000;0.6846;0.5753;
1017.0000;0.6821;0.5777;
1017.3000;0.6838;0.5777;
1017.6000;0.6821;0.5680;
1017.9000;0.6821;0.5655;
1018.2000;0.6846;0.5728;
1018.5000;0.6854;0.5777;
1018.8000;0.6878;0.5753;
1019.1000;0.6854;0.5728;
1019.4000;0.6829;0.5704;
1019.7000;0.6838;0.5680;
1020.0000;0.6772;0.5460;
1020.3000;0.6789;0.5509;
1020.6000;0.6821;0.5680;
1020.9000;0.6829;0.5704;
1021.2000;0.6919;0.5924;
1021.5000;0.6846;0.5655;
1021.8000;0.6846;0.5631;
1022.1000;0.6838;0.5655;
1022.4000;0.6846;0.5680;
1022.7000;0.6821;0.5582;
1023.0000;0.6846;0.5607;
1023.3000;0.6821;0.5485;
1023.6000;0.6838;0.5558;
1023.9000;0.6829;0.5558;
1024.2000;0.6797;0.5533;
1024.5000;0.6821;0.5582;
1024.8000;0.6829;0.5607;
1025.1000;0.6821;0.5509;
1025.4000;0.6813;0.5558;
1025.7000;0.6846;0.5655;
1026.0000;0.6821;0.5631;
1026.3000;0.6789;0.5607;
1026.6000;0.6829;0.5655;
1026.9000;0.6821;0.5631;
1027.2000;0.6821;0.5655;
1027.5000;0.6829;0.5631;
1027.8000;0.6829;0.5680;
1028.1000;0.6846;0.5777;
1028.4000;0.6846;0.5777;
1028.7000;0.6854;0.5753;
1029.0000;0.6813;0.5607;
1029.3000;0.6821;0.5631;
1029.6000;0.6862;0.5704;
1029.9000;0.6838;0.5704;
1030.2000;0.6821;0.5631;
1030.5000;0.6813;0.5533;
1030.8000;0.6821;0.5533;
1031.1000;0.6870;0.5777;
1031.4000;0.6838;0.5802;
1031.7000;0.6821;0.5777;
1032.0000;0.6838;0.5924;
1032.3000;0.6838;0.5972;
1032.6000;0.6829;0.5850;
1032.9000;0.6821;0.5850;
1033.2000;0.6821;0.5802;
1033.5000;0.6838;0.5899;
1033.8000;0.6829;0.5850;
1034.1000;0.6862;0.5899;
1034.4000;0.6829;0.5777;
1034.7000;0.6805;0.5802;
1035.0000;0.6870;0.6045;
1035.3000;0.6829;0.5924;
1035.6000;0.6829;0.5875;
1035.9000;0.6797;0.5802;
1036.2000;0.6870;0.5899;
1036.5000;0.6846;0.5850;
1036.8000;0.6821;0.5826;
1037.1000;0.6935;0.6070;
1037.4000;0.6829;0.5850;
1037.7000;0.6813;0.5826;
1038.0000;0.6846;0.5850;
1038.3000;0.6821;0.5777;
1038.6000;0.6854;0.5826;
1038.9000;0.6846;0.5777;
1039.2000;0.6838;0.5802;
1039.5000;0.6829;0.5777;
1039.8000;0.6846;0.5753;
1040.1000;0.6838;0.5777;
1040.4000;0.6829;0.5802;
1040.7000;0.6821;0.5777;
1041.0000;0.6838;0.5802;
1041.3000;0.6821;0.5802;
1041.6000;0.6854;0.5850;
1041.9000;0.6854;0.5875;
1042.2000;0.6838;0.5899;
1042.5000;0.6838;0.5850;
1042.8000;0.6846;0.5875;
1043.1000;0.6846;0.5875;
1043.4000;0.6838;0.5850;
1043.7000;0.6846;0.5924;
1044.0000;0.6838;0.5924;
1044.3000;0.6813;0.5802;
1044.6000;0.6838;0.5875;
1044.9000;0.6829;0.5924;
1045.2000;0.6829;0.5899;
1045.5000;0.6854;0.5924;
1045.8000;0.6838;0.5802;
1046.1000;0.6829;0.5777;
1046.4000;0.6927;0.6021;
1046.7000;0.6846;0.5899;
1047.0000;0.6829;0.5850;
1047.3000;0.6829;0.5875;
1047.6000;0.6821;0.5875;
1047.9000;0.6862;0.5899;
1048.2000;0.6805;0.5655;
1048.5000;0.6813;0.5777;
1048.8000;0.6805;0.5728;
1049.1000;0.6829;0.5875;
1049.4000;0.6829;0.5972;
1049.7000;0.6838;0.5997;
1050.0000;0.6870;0.6167;
1050.3000;0.6829;0.6070;
1050.6000;0.6846;0.6070;
1050.9000;0.6862;0.6192;
1051.2000;0.6846;0.6167;
1051.5000;0.6878;0.6240;
1051.8000;0.6862;0.6143;
1052.1000;0.6829;0.6119;
1052.4000;0.6829;0.6045;
1052.7000;0.6846;0.6167;
1053.0000;0.6886;0.6338;
1053.3000;0.6813;0.6119;
1053.6000;0.6829;0.5997;
1053.9000;0.6821;0.5972;
1054.2000;0.6829;0.5997;
1054.5000;0.6829;0.5948;
1054.8000;0.6821;0.5948;
1055.1000;0.6829;0.5997;
1055.4000;0.6919;0.6240;
1055.7000;0.6829;0.6045;
1056.0000;0.6862;0.5972;
1056.3000;0.6829;0.5899;
1056.6000;0.6854;0.5972;
1056.9000;0.6846;0.6021;
1057.2000;0.6862;0.6070;
1057.5000;0.6829;0.5948;
1057.8000;0.6846;0.6045;
1058.1000;0.6838;0.6094;
1058.4000;0.6854;0.6167;
1058.7000;0.6829;0.6045;
1059.0000;0.6846;0.6119;
1059.3000;0.6821;0.6021;
1059.6000;0.6829;0.6094;
1059.9000;0.6895;0.6265;
1060.2000;0.6829;0.5997;
1060.5000;0.6838;0.6094;
1060.8000;0.6813;0.5972;
1061.1000;0.6838;0.6119;
1061.4000;0.6821;0.6094;
1061.7000;0.6846;0.6192;
1062.0000;0.6846;0.6192;
1062.3000;0.6829;0.6094;
1062.6000;0.6813;0.5997;
1062.9000;0.6805;0.5972;
1063.2000;0.6821;0.6070;
1063.5000;0.6838;0.6143;
1063.8000;0.6838;0.6094;
1064.1000;0.6821;0.5972;
1064.4000;0.6854;0.6094;
1064.7000;0.6821;0.6021;
1065.0000;0.6813;0.6021;
1065.3000;0.6862;0.6167;
1065.6000;0.6821;0.6045;
1065.9000;0.6813;0.6021;
1066.2000;0.6821;0.6045;
1066.5000;0.6838;0.5899;
1066.8000;0.6846;0.5875;
1067.1000;0.6846;0.5826;
1067.4000;0.6829;0.5826;
1067.7000;0.6846;0.5924;
1068.0000;0.6862;0.5948;
1068.3000;0.6895;0.6094;
1068.6000;0.6878;0.6119;
1068.9000;0.6838;0.6070;
1069.2000;0.6838;0.6070;
1069.5000;0.6838;0.6045;
1069.8000;0.6854;0.6045;
1070.1000;0.6829;0.5875;
1070.4000;0.6829;0.5850;
1070.7000;0.6813;0.5826;
1071.0000;0.6821;0.5850;
1071.3000;0.6854;0.5899;
1071.6000;0.6838;0.5924;
1071.9000;0.6813;0.5899;
1072.2000;0.6838;0.6021;
1072.5000;0.6895;0.6094;
1072.8000;0.6838;0.5948;
1073.1000;0.6870;0.6021;
1073.4000;0.6846;0.5948;
1073.7000;0.6829;0.5972;
1074.0000;0.6829;0.6021;
1074.3000;0.6813;0.6021;
1074.6000;0.6862;0.6070;
1074.9000;0.6838;0.5972;
1075.2000;0.6838;0.6021;
1075.5000;0.6764;0.5924;
1075.8000;0.6829;0.6045;
1076.1000;0.6838;0.5997;
1076.4000;0.6838;0.5924;
1076.7000;0.6805;0.5802;
1077.0000;0.6829;0.5899;
1077.3000;0.6838;0.5924;
1077.6000;0.6829;0.5924;
1077.9000;0.6829;0.5924;
1078.2000;0.6838;0.5972;
1078.5000;0.6829;0.5924;
1078.8000;0.6829;0.5997;
1079.1000;0.6829;0.5972;
1079.4000;0.6821;0.6021;
1079.7000;0.6829;0.6119;
1080.0000;0.6772;0.6021;
1080.3000;0.6813;0.6167;
1080.6000;0.6821;0.6143;
1080.9000;0.6838;0.6192;
1081.2000;0.6846;0.6192;
1081.5000;0.6838;0.6192;
1081.8000;0.6821;0.6094;
1082.1000;0.6846;0.6094;
1082.4000;0.6862;0.6143;
1082.7000;0.6854;0.6070;
1083.0000;0.6813;0.5899;
1083.3000;0.6846;0.5924;
1083.6000;0.6846;0.5997;
1083.9000;0.6854;0.6021;
1084.2000;0.6821;0.5972;
1084.5000;0.6846;0.6094;
1084.8000;0.6854;0.6192;
1085.1000;0.6821;0.6167;
1085.4000;0.6797;0.6045;
1085.7000;0.6838;0.5972;
1086.0000;0.6854;0.5997;
1086.3000;0.6903;0.6143;
1086.6000;0.6846;0.5924;
1086.9000;0.6748;0.5728;
1087.2000;0.6829;0.5948;
1087.5000;0.6829;0.5972;
1087.8000;0.6797;0.5875;
1088.1000;0.6829;0.5997;
1088.4000;0.6829;0.5997;
1088.7000;0.6854;0.6021;
1089.0000;0.6821;0.5972;
1089.3000;0.6838;0.5972;
1089.6000;0.6829;0.5972;
1089.9000;0.6838;0.6045;
1090.2000;0.6838;0.6070;
1090.5000;0.6813;0.6021;
1090.8000;0.6838;0.6021;
1091.1000;0.6846;0.6070;
1091.4000;0.6886;0.6192;
1091.7000;0.6838;0.6045;
1092.0000;0.6813;0.6021;
1092.3000;0.6789;0.6070;
1092.6000;0.6846;0.6143;
1092.9000;0.6838;0.6192;
1093.2000;0.6829;0.6167;
1093.5000;0.6829;0.6143;
1093.8000;0.6829;0.6192;
1094.1000;0.6838;0.6167;
1094.4000;0.6821;0.6045;
1094.7000;0.6838;0.6045;
1095.0000;0.6838;0.6021;
1095.3000;0.6846;0.6021;
1095.6000;0.6838;0.5972;
1095.9000;0.6829;0.6021;
1096.2000;0.6829;0.6045;
1096.5000;0.6838;0.6094;
1096.8000;0.6846;0.6167;
1097.1000;0.6829;0.6143;
1097.4000;0.6829;0.6216;
1097.7000;0.6829;0.6314;
1098.0000;0.6829;0.6338;
1098.3000;0.6821;0.6265;
1098.6000;0.6813;0.6216;
1098.9000;0.6829;0.6119;
1099.2000;0.6821;0.6119;
1099.5000;0.6821;0.6094;
1099.8000;0.6813;0.6119;
1100.1000;0.6846;0.6119;
1100.4000;0.6813;0.6021;
1100.7000;0.6821;0.6070;
1101.0000;0.6781;0.5972;
1101.3000;0.6829;0.6045;
1101.6000;0.6838;0.6119;
1101.9000;0.6829;0.6070;
1102.2000;0.6846;0.6045;
1102.5000;0.6886;0.6143;
1102.8000;0.6829;0.6143;
1103.1000;0.6789;0.6021;
1103.4000;0.6821;0.6143;
1103.7000;0.6838;0.6192;
1104.0000;0.6838;0.6119;
1104.3000;0.6846;0.6119;
1104.6000;0.6846;0.6167;
1104.9000;0.6846;0.6167;
1105.2000;0.6838;0.5997;
1105.5000;0.6846;0.5997;
1105.8000;0.6854;0.6021;
1106.1000;0.6846;0.6021;
1106.4000;0.6829;0.6045;
1106.7000;0.6870;0.6094;
1107.0000;0.6846;0.6021;
1107.3000;0.6829;0.5972;
1107.6000;0.6846;0.5948;
1107.9000;0.6813;0.5850;
1108.2000;0.6797;0.5753;
1108.5000;0.6821;0.5777;
1108.8000;0.6813;0.5826;
1109.1000;0.6821;0.5850;
1109.4000;0.6813;0.5826;
1109.7000;0.6813;0.5802;
1110.0000;0.6838;0.5826;
1110.3000;0.6789;0.5728;
1110.6000;0.6838;0.5875;
1110.9000;0.6838;0.5899;
1111.2000;0.6829;0.5802;
1111.5000;0.6838;0.5777;
1111.8000;0.6862;0.5826;
1112.1000;0.6854;0.5777;
1112.4000;0.6821;0.5728;
1112.7000;0.6846;0.5924;
1113.0000;0.6838;0.5948;
1113.3000;0.6829;0.5850;
1113.6000;0.6821;0.5850;
1113.9000;0.6813;0.5850;
1114.2000;0.6821;0.5924;
1114.5000;0.6805;0.5875;
1114.8000;0.6821;0.5948;
1115.1000;0.6829;0.5972;
1115.4000;0.6724;0.5777;
1115.7000;0.6854;0.6094;
1116.0000;0.6846;0.6094;
1116.3000;0.6862;0.6143;
1116.6000;0.6821;0.6045;
1116.9000;0.6846;0.6070;
1117.2000;0.6846;0.6070;
1117.5000;0.6813;0.6021;
1117.8000;0.6829;0.5997;
1118.1000;0.6895;0.6094;
1118.4000;0.6829;0.5948;
1118.7000;0.6838;0.5997;
1119.0000;0.6854;0.6119;
1119.3000;0.6821;0.6119;
1119.6000;0.6829;0.5997;
1119.9000;0.6838;0.5948;
1120.2000;0.6838;0.5948;
1120.5000;0.6886;0.6021;
1120.8000;0.6838;0.5899;
1121.1000;0.6846;0.5948;
1121.4000;0.6854;0.6070;
1121.7000;0.6838;0.6094;
1122.0000;0.6878;0.6192;
1122.3000;0.6821;0.6021;
1122.6000;0.6854;0.6070;
1122.9000;0.6829;0.6070;
1123.2000;0.6846;0.6094;
1123.5000;0.6862;0.6167;
1123.8000;0.6838;0.6143;
1124.1000;0.6838;0.5997;
1124.4000;0.6838;0.5875;
1124.7000;0.6919;0.6094;
1125.0000;0.6862;0.5899;
1125.3000;0.6846;0.5997;
1125.6000;0.6846;0.5997;
1125.9000;0.6805;0.5777;
1126.2000;0.6740;0.5680;
1126.5000;0.6854;0.5875;
1126.8000;0.6846;0.5924;
1127.1000;0.6789;0.5728;
1127.4000;0.6829;0.5972;
1127.7000;0.6781;0.5802;
1128.0000;0.6789;0.5777;
1128.3000;0.6838;0.5899;
1128.6000;0.6813;0.5802;
1128.9000;0.6813;0.5802;
1129.2000;0.6886;0.5997;
1129.5000;0.6838;0.5875;
1129.8000;0.6838;0.5826;
1130.1000;0.6854;0.5899;
1130.4000;0.6846;0.5826;
1130.7000;0.6829;0.5850;
1131.0000;0.6829;0.5972;
1131.3000;0.6846;0.6021;
1131.6000;0.6838;0.5972;
1131.9000;0.6862;0.6070;
1132.2000;0.6838;0.5899;
1132.5000;0.6838;0.5899;
1132.8000;0.6821;0.5850;
1133.1000;0.6838;0.5924;
1133.4000;0.6829;0.5948;
1133.7000;0.6813;0.5948;
1134.0000;0.6829;0.5924;
1134.3000;0.6781;0.5753;
1134.6000;0.6829;0.5826;
1134.9000;0.6805;0.5753;
1135.2000;0.6838;0.5753;
1135.5000;0.6838;0.5777;
1135.8000;0.6846;0.5826;
1136.1000;0.6829;0.5850;
1136.4000;0.6821;0.5826;
1136.7000;0.6813;0.5826;
1137.0000;0.6838;0.5948;
1137.3000;0.6829;0.5924;
1137.6000;0.6846;0.5899;
1137.9000;0.6829;0.5948;
1138.2000;0.6854;0.5972;
1138.5000;0.6829;0.5924;
1138.8000;0.6886;0.6094;
1139.1000;0.6838;0.5948;
1139.4000;0.6797;0.5924;
1139.7000;0.6821;0.5899;
1140.0000;0.6838;0.5924;
1140.3000;0.6862;0.6045;
1140.6000;0.6829;0.5997;
1140.9000;0.6829;0.6045;
1141.2000;0.6740;0.5777;
1141.5000;0.6805;0.5997;
1141.8000;0.6838;0.6070;
1142.1000;0.6846;0.6045;
1142.4000;0.6886;0.6070;
1142.7000;0.6829;0.5924;
1143.0000;0.6821;0.5875;
1143.3000;0.6878;0.5948;
1143.6000;0.6829;0.5924;
1143.9000;0.6813;0.5899;
1144.2000;0.6838;0.5875;
1144.5000;0.6846;0.5850;
1144.8000;0.6838;0.5899;
1145.1000;0.6813;0.5850;
1145.4000;0.6829;0.5826;
1145.7000;0.6911;0.6045;
1146.0000;0.6870;0.5997;
1146.3000;0.6821;0.5899;
1146.6000;0.6838;0.5948;
1146.9000;0.6862;0.5972;
1147.2000;0.6838;0.5875;
1147.5000;0.6829;0.5850;
1147.8000;0.6838;0.5850;
1148.1000;0.6838;0.5826;
1148.4000;0.6821;0.5802;
1148.7000;0.6838;0.5899;
1149.0000;0.6854;0.5850;
1149.3000;0.6829;0.5753;
1149.6000;0.6854;0.5899;
1149.9000;0.6846;0.5875;
1150.2000;0.6854;0.5997;
1150.5000;0.6854;0.5997;
1150.8000;0.6862;0.6143;
1151.1000;0.6781;0.5875;
1151.4000;0.6829;0.5948;
1151.7000;0.6829;0.5948;
1152.0000;0.6821;0.5972;
1152.3000;0.6862;0.6119;
1152.6000;0.6862;0.6021;
1152.9000;0.6870;0.5997;
1153.2000;0.6935;0.6143;
1153.5000;0.6870;0.5948;
1153.8000;0.6838;0.5899;
1154.1000;0.6838;0.6021;
1154.4000;0.6846;0.6143;
1154.7000;0.6862;0.6314;
1155.0000;0.6846;0.6314;
1155.3000;0.6838;0.6265;
1155.6000;0.6829;0.6143;
1155.9000;0.6838;0.6094;
1156.2000;0.6846;0.6045;
1156.5000;0.6813;0.5972;
1156.8000;0.6838;0.5924;
1157.1000;0.6838;0.5972;
1157.4000;0.6846;0.5972;
1157.7000;0.6797;0.5899;
1158.0000;0.6813;0.5875;
1158.3000;0.6838;0.5875;
1158.6000;0.6878;0.5875;
1158.9000;0.6862;0.5777;
1159.2000;0.6829;0.5704;
1159.5000;0.6846;0.5753;
1159.8000;0.6829;0.5753;
1160.1000;0.6846;0.5753;
1160.4000;0.6805;0.5631;
1160.7000;0.6797;0.5704;
1161.0000;0.6854;0.5802;
1161.3000;0.6781;0.5655;
1161.6000;0.6846;0.5875;
1161.9000;0.6838;0.5826;
1162.2000;0.6870;0.5777;
1162.5000;0.6862;0.5777;
1162.8000;0.6829;0.5728;
1163.1000;0.6846;0.5728;
1163.4000;0.6699;0.5314;
1163.7000;0.6846;0.5655;
1164.0000;0.6829;0.5680;
1164.3000;0.6838;0.5704;
1164.6000;0.6870;0.5826;
1164.9000;0.6846;0.5753;
1165.2000;0.6838;0.5728;
1165.5000;0.6854;0.5753;
1165.8000;0.6829;0.5680;
1166.1000;0.6862;0.5753;
1166.4000;0.6781;0.5582;
1166.7000;0.6838;0.5680;
1167.0000;0.6821;0.5753;
1167.3000;0.6854;0.5850;
1167.6000;0.6854;0.5777;
1167.9000;0.6821;0.5728;
1168.2000;0.6805;0.5655;
1168.5000;0.6764;0.5582;
1168.8000;0.6838;0.5802;
1169.1000;0.6821;0.5728;
1169.4000;0.6829;0.5753;
1169.7000;0.6756;0.5582;
1170.0000;0.6829;0.5753;
1170.3000;0.6829;0.5826;
1170.6000;0.6813;0.5753;
1170.9000;0.6813;0.5802;
1171.2000;0.6846;0.5850;
1171.5000;0.6886;0.5924;
1171.8000;0.6805;0.5802;
1172.1000;0.6829;0.5826;
1172.4000;0.6862;0.5972;
1172.7000;0.6838;0.5899;
1173.0000;0.6805;0.5802;
1173.3000;0.6821;0.5826;
1173.6000;0.6821;0.5850;
1173.9000;0.6846;0.5899;
1174.2000;0.6846;0.5777;
1174.5000;0.6789;0.5607;
1174.8000;0.6846;0.5704;
1175.1000;0.6854;0.5680;
1175.4000;0.6829;0.5728;
1175.7000;0.6862;0.5777;
1176.0000;0.6829;0.5704;
1176.3000;0.6838;0.5655;
1176.6000;0.6829;0.5680;
1176.9000;0.6862;0.5826;
1177.2000;0.6813;0.5802;
1177.5000;0.6838;0.5875;
1177.8000;0.6829;0.5899;
1178.1000;0.6821;0.5924;
1178.4000;0.6846;0.5924;
1178.7000;0.6846;0.5826;
1179.0000;0.6846;0.5850;
1179.3000;0.6862;0.5875;
1179.6000;0.6829;0.5728;
1179.9000;0.6846;0.5875;
1180.2000;0.6838;0.5924;
1180.5000;0.6846;0.6070;
1180.8000;0.6829;0.6094;
1181.1000;0.6821;0.6143;
1181.4000;0.6829;0.6216;
1181.7000;0.6838;0.6119;
1182.0000;0.6829;0.6070;
1182.3000;0.6797;0.6045;
1182.6000;0.6829;0.6045;
1182.9000;0.6821;0.5924;
1183.2000;0.6805;0.5924;
1183.5000;0.6797;0.5826;
1183.8000;0.6846;0.5875;
1184.1000;0.6854;0.5875;
1184.4000;0.6862;0.5850;
1184.7000;0.6821;0.5802;
1185.0000;0.6862;0.5875;
1185.3000;0.6829;0.5826;
1185.6000;0.6854;0.5899;
1185.9000;0.6846;0.5972;
1186.2000;0.6789;0.5777;
1186.5000;0.6813;0.5802;
1186.8000;0.6764;0.5704;
1187.1000;0.6838;0.6021;
1187.4000;0.6935;0.6240;
1187.7000;0.6838;0.5899;
1188.0000;0.6878;0.5997;
1188.3000;0.6821;0.5802;
1188.6000;0.6838;0.5826;
1188.9000;0.6829;0.5753;
1189.2000;0.6821;0.5753;
1189.5000;0.6764;0.5533;
1189.8000;0.6821;0.5777;
1190.1000;0.6854;0.5875;
1190.4000;0.6838;0.5875;
1190.7000;0.6829;0.5826;
1191.0000;0.6935;0.6143;
1191.3000;0.6838;0.5997;
1191.6000;0.6805;0.5899;
1191.9000;0.6838;0.5924;
1192.2000;0.6813;0.5924;
1192.5000;0.6838;0.5924;
1192.8000;0.6829;0.5826;
1193.1000;0.6838;0.5728;
1193.4000;0.6821;0.5582;
1193.7000;0.6829;0.5485;
1194.0000;0.6813;0.5533;
1194.3000;0.6829;0.5631;
1194.6000;0.6821;0.5533;
1194.9000;0.6821;0.5631;
1195.2000;0.6870;0.5728;
1195.5000;0.6838;0.5680;
1195.8000;0.6846;0.5753;
1196.1000;0.6805;0.5655;
1196.4000;0.6813;0.5631;
1196.7000;0.6829;0.5704;
1197.0000;0.6838;0.5704;
1197.3000;0.6846;0.5728;
1197.6000;0.6821;0.5728;
1197.9000;0.6813;0.5704;
1198.2000;0.6895;0.5826;
1198.5000;0.6862;0.5680;
1198.8000;0.6797;0.5460;
1199.1000;0.6813;0.5412;
1199.4000;0.6862;0.5533;
1199.7000;0.6829;0.5412;
1200.0000;0.6903;0.5607;
1200.3000;0.6862;0.5485;
1200.6000;0.6829;0.5363;
1200.9000;0.6821;0.5314;
1201.2000;0.6838;0.5412;
1201.5000;0.6821;0.5363;
1201.8000;0.6846;0.5485;
1202.1000;0.6829;0.5412;
1202.4000;0.6838;0.5436;
1202.7000;0.6838;0.5460;
1203.0000;0.6854;0.5533;
1203.3000;0.6903;0.5680;
1203.6000;0.6764;0.5338;
1203.9000;0.6829;0.5533;
1204.2000;0.6838;0.5607;
1204.5000;0.6846;0.5582;
1204.8000;0.6829;0.5582;
1205.1000;0.6829;0.5607;
1205.4000;0.6862;0.5607;
1205.7000;0.6903;0.5728;
1206.0000;0.6829;0.5582;
1206.3000;0.6829;0.5558;
1206.6000;0.6838;0.5558;
1206.9000;0.6829;0.5582;
1207.2000;0.6846;0.5558;
1207.5000;0.6821;0.5436;
1207.8000;0.6821;0.5509;
1208.1000;0.6829;0.5460;
1208.4000;0.6878;0.5558;
1208.7000;0.6886;0.5631;
1209.0000;0.6838;0.5533;
1209.3000;0.6846;0.5607;
1209.6000;0.6878;0.5753;
1209.9000;0.6797;0.5558;
1210.2000;0.6813;0.5655;
1210.5000;0.6838;0.5631;
1210.8000;0.6797;0.5533;
1211.1000;0.6854;0.5655;
1211.4000;0.6838;0.5704;
1211.7000;0.6829;0.5704;
1212.0000;0.6854;0.5631;
1212.3000;0.6846;0.5631;
1212.6000;0.6838;0.5655;
1212.9000;0.6813;0.5509;
1213.2000;0.6846;0.5436;
1213.5000;0.6838;0.5412;
1213.8000;0.6838;0.5387;
1214.1000;0.6838;0.5485;
1214.4000;0.6935;0.5826;
1214.7000;0.6846;0.5704;
1215.0000;0.6813;0.5655;
1215.3000;0.6846;0.5631;
1215.6000;0.6838;0.5533;
1215.9000;0.6862;0.5655;
1216.2000;0.6821;0.5631;
1216.5000;0.6821;0.5607;
1216.8000;0.6821;0.5680;
1217.1000;0.6838;0.5753;
1217.4000;0.6829;0.5753;
1217.7000;0.6838;0.5753;
1218.0000;0.6838;0.5753;
1218.3000;0.6813;0.5704;
1218.6000;0.6821;0.5631;
1218.9000;0.6829;0.5631;
1219.2000;0.6838;0.5631;
1219.5000;0.6911;0.5850;
1219.8000;0.6838;0.5631;
1220.1000;0.6821;0.5655;
1220.4000;0.6846;0.5558;
1220.7000;0.6846;0.5436;
1221.0000;0.6829;0.5436;
1221.3000;0.6821;0.5412;
1221.6000;0.6813;0.5363;
1221.9000;0.6862;0.5436;
1222.2000;0.6854;0.5290;
1222.5000;0.6838;0.5387;
1222.8000;0.6838;0.5509;
1223.1000;0.6862;0.5582;
1223.4000;0.6838;0.5533;
1223.7000;0.6862;0.5582;
1224.0000;0.6838;0.5607;
1224.3000;0.6838;0.5558;
1224.6000;0.6854;0.5631;
1224.9000;0.6829;0.5631;
1225.2000;0.6805;0.5558;
1225.5000;0.6764;0.5509;
1225.8000;0.6829;0.5680;
1226.1000;0.6846;0.5753;
1226.4000;0.6821;0.5728;
1226.7000;0.6878;0.5899;
1227.0000;0.6846;0.5850;
1227.3000;0.6838;0.5777;
1227.6000;0.6829;0.5753;
1227.9000;0.6838;0.5875;
1228.2000;0.6829;0.5875;
1228.5000;0.6862;0.5875;
1228.8000;0.6829;0.5875;
1229.1000;0.6846;0.5899;
1229.4000;0.6821;0.5899;
1229.7000;0.6854;0.6094;
1230.0000;0.6854;0.6070;
1230.3000;0.6854;0.6021;
1230.6000;0.6838;0.5948;
1230.9000;0.6829;0.5899;
1231.2000;0.6805;0.5875;
1231.5000;0.6829;0.5875;
1231.8000;0.6829;0.5826;
1232.1000;0.6821;0.5802;
1232.4000;0.6846;0.5826;
1232.7000;0.6846;0.5826;
1233.0000;0.6838;0.5680;
1233.3000;0.6846;0.5728;
1233.6000;0.6772;0.5631;
1233.9000;0.6854;0.5680;
1234.2000;0.6854;0.5631;
1234.5000;0.6821;0.5631;
1234.8000;0.6829;0.5655;
1235.1000;0.6846;0.5680;
1235.4000;0.6838;0.5704;
1235.7000;0.6813;0.5631;
1236.0000;0.6846;0.5728;
1236.3000;0.6829;0.5728;
1236.6000;0.6829;0.5680;
1236.9000;0.6838;0.5680;
1237.2000;0.6846;0.5728;
1237.5000;0.6838;0.5777;
1237.8000;0.6838;0.5704;
1238.1000;0.6829;0.5753;
1238.4000;0.6846;0.5802;
1238.7000;0.6846;0.5802;
1239.0000;0.6854;0.5802;
1239.3000;0.6829;0.5850;
1239.6000;0.6846;0.5875;
1239.9000;0.6854;0.5924;
1240.2000;0.6862;0.6021;
1240.5000;0.6829;0.5924;
1240.8000;0.6838;0.5875;
1241.1000;0.6821;0.5777;
1241.4000;0.6829;0.5850;
1241.7000;0.6846;0.5899;
1242.0000;0.6862;0.5924;
1242.3000;0.6838;0.5924;
1242.6000;0.6870;0.6045;
1242.9000;0.6878;0.6094;
1243.2000;0.6870;0.6167;
1243.5000;0.6854;0.6094;
1243.8000;0.6838;0.5997;
1244.1000;0.6838;0.5997;
1244.4000;0.6813;0.5924;
1244.7000;0.6829;0.5875;
1245.0000;0.6829;0.5899;
1245.3000;0.6846;0.5997;
1245.6000;0.6838;0.5972;
1245.9000;0.6886;0.6167;
1246.2000;0.6854;0.6021;
1246.5000;0.6829;0.5972;
1246.8000;0.6838;0.5924;
1247.1000;0.6854;0.5972;
1247.4000;0.6829;0.5826;
1247.7000;0.6854;0.5875;
1248.0000;0.6838;0.5802;
1248.3000;0.6821;0.5777;
1248.6000;0.6838;0.5728;
1248.9000;0.6846;0.5850;
1249.2000;0.6838;0.5802;
1249.5000;0.6829;0.5777;
1249.8000;0.6838;0.5875;
1250.1000;0.6838;0.5948;
1250.4000;0.6838;0.5997;
1250.7000;0.6821;0.5972;
1251.0000;0.6854;0.5948;
1251.3000;0.6846;0.5899;
1251.6000;0.6846;0.5826;
1251.9000;0.6829;0.5899;
1252.2000;0.6854;0.5948;
1252.5000;0.6829;0.5924;
1252.8000;0.6846;0.5875;
1253.1000;0.6846;0.5972;
1253.4000;0.6805;0.5899;
1253.7000;0.6846;0.6045;
1254.0000;0.6870;0.6167;
1254.3000;0.6846;0.6070;
1254.6000;0.6829;0.6070;
1254.9000;0.6838;0.6070;
1255.2000;0.6821;0.5924;
1255.5000;0.6838;0.5972;
1255.8000;0.6821;0.5924;
1256.1000;0.6829;0.5899;
1256.4000;0.6781;0.5777;
1256.7000;0.6846;0.5972;
1257.0000;0.6838;0.5972;
1257.3000;0.6789;0.5777;
1257.6000;0.6862;0.5875;
1257.9000;0.6943;0.6143;
1258.2000;0.6878;0.5948;
1258.5000;0.6821;0.5850;
1258.8000;0.6829;0.5997;
1259.1000;0.6829;0.6021;
1259.4000;0.6829;0.6070;
1259.7000;0.6829;0.6021;
1260.0000;0.6846;0.6021;
1260.3000;0.6846;0.6021;
1260.6000;0.6821;0.6021;
1260.9000;0.6813;0.5997;
1261.2000;0.6829;0.6119;
1261.5000;0.6878;0.6192;
1261.8000;0.6829;0.6070;
1262.1000;0.6838;0.6070;
1262.4000;0.6838;0.5997;
1262.7000;0.6821;0.6070;
1263.0000;0.6862;0.6143;
1263.3000;0.6846;0.6021;
1263.6000;0.6838;0.5899;
1263.9000;0.6862;0.5948;
1264.2000;0.6846;0.5899;
1264.5000;0.6943;0.6143;
1264.8000;0.6821;0.5899;
1265.1000;0.6838;0.6021;
1265.4000;0.6854;0.5948;
1265.7000;0.6797;0.5850;
1266.0000;0.6797;0.5875;
1266.3000;0.6821;0.5850;
1266.6000;0.6846;0.5924;
1266.9000;0.6862;0.5899;
1267.2000;0.6838;0.5850;
1267.5000;0.6838;0.5802;
1267.8000;0.6838;0.5704;
1268.1000;0.6854;0.5777;
1268.4000;0.6854;0.5728;
1268.7000;0.6846;0.5704;
1269.0000;0.6829;0.5753;
1269.3000;0.6829;0.5704;
1269.6000;0.6846;0.5704;
1269.9000;0.6854;0.5777;
1270.2000;0.6846;0.5875;
1270.5000;0.6829;0.5802;
1270.8000;0.6829;0.5802;
1271.1000;0.6829;0.5826;
1271.4000;0.6903;0.5972;
1271.7000;0.6862;0.5972;
1272.0000;0.6838;0.5997;
1272.3000;0.6838;0.6021;
1272.6000;0.6829;0.5924;
1272.9000;0.6821;0.5924;
1273.2000;0.6821;0.5875;
1273.5000;0.6878;0.5997;
1273.8000;0.6846;0.6045;
1274.1000;0.6854;0.6143;
1274.4000;0.6789;0.5826;
1274.7000;0.6829;0.5948;
1275.0000;0.6829;0.5899;
1275.3000;0.6838;0.5850;
1275.6000;0.6838;0.5972;
1275.9000;0.6846;0.6045;
1276.2000;0.6854;0.6119;
1276.5000;0.6862;0.6070;
1276.8000;0.6846;0.5972;
1277.1000;0.6829;0.5924;
1277.4000;0.6862;0.5972;
1277.7000;0.6829;0.5924;
1278.0000;0.6829;0.5924;
1278.3000;0.6838;0.5997;
1278.6000;0.6838;0.6021;
1278.9000;0.6829;0.5972;
1279.2000;0.6838;0.6045;
1279.5000;0.6764;0.5899;
1279.8000;0.6821;0.6021;
1280.1000;0.6838;0.6021;
1280.4000;0.6838;0.5948;
1280.7000;0.6838;0.5924;
1281.0000;0.6829;0.5924;
1281.3000;0.6805;0.5875;
1281.6000;0.6813;0.5948;
1281.9000;0.6821;0.5997;
1282.2000;0.6821;0.5948;
1282.5000;0.6829;0.5997;
1282.8000;0.6829;0.6045;
1283.1000;0.6838;0.6167;
1283.4000;0.6846;0.6167;
1283.7000;0.6838;0.6094;
1284.0000;0.6838;0.6094;
1284.3000;0.6846;0.6167;
1284.6000;0.6756;0.5899;
1284.9000;0.6829;0.6070;
1285.2000;0.6829;0.6045;
1285.5000;0.6886;0.6143;
1285.8000;0.6838;0.5997;
1286.1000;0.6821;0.5875;
1286.4000;0.6821;0.5948;
1286.7000;0.6813;0.5899;
1287.0000;0.6854;0.5972;
1287.3000;0.6854;0.5972;
1287.6000;0.6846;0.6045;
1287.9000;0.6838;0.6045;
1288.2000;0.6838;0.5997;
1288.5000;0.6821;0.6021;
1288.8000;0.6895;0.6070;
1289.1000;0.6878;0.5997;
1289.4000;0.6911;0.6119;
1289.7000;0.6846;0.5924;
1290.0000;0.6838;0.5875;
1290.3000;0.6854;0.5948;
1290.6000;0.6846;0.5875;
1290.9000;0.6846;0.5875;
1291.2000;0.6846;0.5826;
1291.5000;0.6829;0.5802;
1291.8000;0.6789;0.5753;
1292.1000;0.6829;0.5924;
1292.4000;0.6846;0.5997;
1292.7000;0.6846;0.5948;
1293.0000;0.6813;0.5875;
1293.3000;0.6854;0.5997;
1293.6000;0.6854;0.5972;
1293.9000;0.6846;0.5948;
1294.2000;0.6829;0.5924;
1294.5000;0.6846;0.6021;
1294.8000;0.6829;0.5997;
1295.1000;0.6838;0.6045;
1295.4000;0.6813;0.5948;
1295.7000;0.6789;0.5899;
1296.0000;0.6846;0.6094;
1296.3000;0.6895;0.6289;
1296.6000;0.6838;0.6192;
1296.9000;0.6829;0.6143;
1297.2000;0.6846;0.6070;
1297.5000;0.6846;0.6045;
1297.8000;0.6854;0.5997;
1298.1000;0.6838;0.5997;
1298.4000;0.6838;0.5948;
1298.7000;0.6846;0.5899;
1299.0000;0.6829;0.5899;
1299.3000;0.6829;0.5972;
1299.6000;0.6829;0.6045;
1299.9000;0.6854;0.6167;
1300.2000;0.6821;0.6094;
1300.5000;0.6829;0.6167;
1300.8000;0.6821;0.6143;
1301.1000;0.6838;0.6119;
1301.4000;0.6846;0.6119;
1301.7000;0.6821;0.6045;
1302.0000;0.6854;0.6094;
1302.3000;0.6821;0.6045;
1302.6000;0.6927;0.6362;
1302.9000;0.6846;0.6143;
1303.2000;0.6846;0.6216;
1303.5000;0.6846;0.6167;
1303.8000;0.6878;0.6192;
1304.1000;0.6838;0.6021;
1304.4000;0.6838;0.5997;
1304.7000;0.6854;0.5972;
1305.0000;0.6854;0.5948;
1305.3000;0.6829;0.5899;
1305.6000;0.6829;0.5948;
1305.9000;0.6829;0.5972;
1306.2000;0.6838;0.5948;
1306.5000;0.6829;0.5948;
1306.8000;0.6846;0.5972;
1307.1000;0.6846;0.5899;
1307.4000;0.6854;0.5924;
1307.7000;0.6846;0.5924;
1308.0000;0.6846;0.5899;
1308.3000;0.6821;0.5850;
1308.6000;0.6821;0.5826;
1308.9000;0.6846;0.5826;
1309.2000;0.6846;0.5826;
1309.5000;0.6838;0.5777;
1309.8000;0.6838;0.5875;
1310.1000;0.6854;0.5899;
1310.4000;0.6829;0.5826;
1310.7000;0.6821;0.5802;
1311.0000;0.6829;0.5850;
1311.3000;0.6838;0.5826;
1311.6000;0.6813;0.5753;
1311.9000;0.6838;0.5777;
1312.2000;0.6846;0.5850;
1312.5000;0.6821;0.5826;
1312.8000;0.6846;0.5875;
1313.1000;0.6821;0.5875;
1313.4000;0.6821;0.5826;
1313.7000;0.6829;0.5802;
1314.0000;0.6797;0.5680;
1314.3000;0.6846;0.5728;
1314.6000;0.6838;0.5753;
1314.9000;0.6829;0.5728;
1315.2000;0.6797;0.5631;
1315.5000;0.6805;0.5655;
1315.8000;0.6838;0.5704;
1316.1000;0.6838;0.5680;
1316.4000;0.6846;0.5655;
1316.7000;0.6838;0.5655;
1317.0000;0.6813;0.5704;
1317.3000;0.6846;0.5802;
1317.6000;0.6829;0.5680;
1317.9000;0.6829;0.5704;
1318.2000;0.6862;0.5899;
1318.5000;0.6829;0.5802;
1318.8000;0.6862;0.5924;
1319.1000;0.6886;0.6094;
1319.4000;0.6829;0.5826;
1319.7000;0.6829;0.5850;
1320.0000;0.6829;0.5850;
1320.3000;0.6829;0.5875;
1320.6000;0.6846;0.5826;
1320.9000;0.6821;0.5777;
1321.2000;0.6838;0.5777;
1321.5000;0.6838;0.5777;
1321.8000;0.6838;0.5777;
1322.1000;0.6838;0.5802;
1322.4000;0.6829;0.5924;
1322.7000;0.6854;0.5924;
1323.0000;0.6854;0.6021;
1323.3000;0.6846;0.5948;
1323.6000;0.6829;0.5997;
1323.9000;0.6878;0.6021;
1324.2000;0.6838;0.5899;
1324.5000;0.6829;0.5850;
1324.8000;0.6838;0.5875;
1325.1000;0.6838;0.5899;
1325.4000;0.6821;0.5777;
1325.7000;0.6821;0.5704;
1326.0000;0.6829;0.5680;
1326.3000;0.6813;0.5680;
1326.6000;0.6829;0.5753;
1326.9000;0.6829;0.5728;
1327.2000;0.6813;0.5655;
1327.5000;0.6903;0.5899;
1327.8000;0.6846;0.5753;
1328.1000;0.6846;0.5826;
1328.4000;0.6846;0.5924;
1328.7000;0.6838;0.5875;
1329.0000;0.6846;0.5948;
1329.3000;0.6838;0.5899;
1329.6000;0.6854;0.5899;
1329.9000;0.6846;0.5972;
1330.2000;0.6854;0.5899;
1330.5000;0.6764;0.5655;
1330.8000;0.6854;0.5875;
1331.1000;0.6846;0.5850;
1331.4000;0.6854;0.5850;
1331.7000;0.6821;0.5802;
1332.0000;0.6878;0.6045;
1332.3000;0.6846;0.6045;
1332.6000;0.6903;0.6119;
1332.9000;0.6838;0.6021;
1333.2000;0.6854;0.6119;
1333.5000;0.6829;0.6021;
1333.8000;0.6829;0.5972;
1334.1000;0.6829;0.6021;
1334.4000;0.6829;0.6094;
1334.7000;0.6903;0.6265;
1335.0000;0.6821;0.6070;
1335.3000;0.6829;0.6045;
1335.6000;0.6813;0.5972;
1335.9000;0.6821;0.5997;
1336.2000;0.6813;0.5850;
1336.5000;0.6846;0.5924;
1336.8000;0.6846;0.5972;
1337.1000;0.6781;0.5924;
1337.4000;0.6813;0.5972;
1337.7000;0.6838;0.6021;
1338.0000;0.6838;0.6021;
1338.3000;0.6838;0.5997;
1338.6000;0.6862;0.6045;
1338.9000;0.6870;0.5997;
1339.2000;0.6854;0.5972;
1339.5000;0.6862;0.6021;
1339.8000;0.6854;0.6021;
1340.1000;0.6878;0.6021;
1340.4000;0.6838;0.5899;
1340.7000;0.6862;0.5899;
1341.0000;0.6854;0.5875;
1341.3000;0.6829;0.5850;
1341.6000;0.6821;0.5826;
1341.9000;0.6838;0.5802;
1342.2000;0.6829;0.5777;
1342.5000;0.6838;0.5802;
1342.8000;0.6821;0.5802;
1343.1000;0.6838;0.5826;
1343.4000;0.6838;0.5826;
1343.7000;0.6838;0.5850;
1344.0000;0.6838;0.5753;
1344.3000;0.6838;0.5728;
1344.6000;0.6854;0.5802;
1344.9000;0.6838;0.5972;
1345.2000;0.6838;0.6021;
1345.5000;0.6838;0.6021;
1345.8000;0.6838;0.5997;
1346.1000;0.6838;0.5997;
1346.4000;0.6846;0.5972;
1346.7000;0.6846;0.5924;
1347.0000;0.6862;0.5972;
1347.3000;0.6829;0.5899;
1347.6000;0.6846;0.5948;
1347.9000;0.6838;0.5997;
1348.2000;0.6846;0.5972;
1348.5000;0.6797;0.5728;
1348.8000;0.6846;0.5948;
1349.1000;0.6862;0.5899;
1349.4000;0.6838;0.5899;
1349.7000;0.6829;0.5899;
1350.0000;0.6829;0.5899;
1350.3000;0.6846;0.5948;
1350.6000;0.6862;0.5924;
1350.9000;0.6846;0.5850;
1351.2000;0.6740;0.5607;
1351.5000;0.6838;0.5826;
1351.8000;0.6797;0.5753;
1352.1000;0.6846;0.5875;
1352.4000;0.6838;0.5777;
1352.7000;0.6829;0.5680;
1353.0000;0.6862;0.5753;
1353.3000;0.6838;0.5680;
1353.6000;0.6846;0.5753;
1353.9000;0.6846;0.5802;
1354.2000;0.6821;0.5777;
1354.5000;0.6878;0.5948;
1354.8000;0.6854;0.5997;
1355.1000;0.6846;0.5924;
1355.4000;0.6854;0.6045;
1355.7000;0.6886;0.6094;
1356.0000;0.6854;0.5997;
1356.3000;0.6772;0.5777;
1356.6000;0.6870;0.5924;
1356.9000;0.6878;0.5924;
1357.2000;0.6854;0.5899;
1357.5000;0.6846;0.5875;
1357.8000;0.6829;0.5899;
1358.1000;0.6846;0.5997;
1358.4000;0.6854;0.5972;
1358.7000;0.6781;0.5802;
1359.0000;0.6813;0.5850;
1359.3000;0.6846;0.5972;
1359.6000;0.6846;0.5924;
1359.9000;0.6740;0.5631;
1360.2000;0.6813;0.5753;
1360.5000;0.6813;0.5680;
1360.8000;0.6846;0.5655;
1361.1000;0.6838;0.5704;
1361.4000;0.6829;0.5680;
1361.7000;0.6821;0.5680;
1362.0000;0.6838;0.5753;
1362.3000;0.6838;0.5777;
1362.6000;0.6854;0.5875;
1362.9000;0.6838;0.5850;
1363.2000;0.6789;0.5802;
1363.5000;0.6846;0.5948;
1363.8000;0.6854;0.5924;
1364.1000;0.6846;0.5899;
1364.4000;0.6935;0.6119;
1364.7000;0.6846;0.5875;
1365.0000;0.6846;0.5948;
1365.3000;0.6829;0.5899;
1365.6000;0.6854;0.5924;
1365.9000;0.6805;0.5777;
1366.2000;0.6846;0.5753;
1366.5000;0.6846;0.5826;
1366.8000;0.6854;0.5802;
1367.1000;0.6838;0.5777;
1367.4000;0.6838;0.5704;
1367.7000;0.6829;0.5558;
1368.0000;0.6854;0.5704;
1368.3000;0.6862;0.5680;
1368.6000;0.6854;0.5728;
1368.9000;0.6846;0.5850;
1369.2000;0.6854;0.5826;
1369.5000;0.6829;0.5826;
1369.8000;0.6854;0.5948;
1370.1000;0.6854;0.5997;
1370.4000;0.6862;0.5972;
1370.7000;0.6821;0.5899;
1371.0000;0.6813;0.5924;
1371.3000;0.6829;0.6021;
1371.6000;0.6829;0.5924;
1371.9000;0.6838;0.5948;
1372.2000;0.6886;0.5997;
1372.5000;0.6846;0.5997;
1372.8000;0.6846;0.5972;
1373.1000;0.6813;0.5899;
1373.4000;0.6862;0.5924;
1373.7000;0.6870;0.6021;
1374.0000;0.6829;0.5924;
1374.3000;0.6789;0.5728;
1374.6000;0.6829;0.5777;
1374.9000;0.6943;0.6045;
1375.2000;0.6829;0.5777;
1375.5000;0.6838;0.5899;
1375.8000;0.6854;0.5997;
1376.1000;0.6829;0.5899;
1376.4000;0.6927;0.6094;
1376.7000;0.6854;0.5997;
1377.0000;0.6862;0.5948;
1377.3000;0.6838;0.5875;
1377.6000;0.6838;0.5802;
1377.9000;0.6838;0.5826;
1378.2000;0.6838;0.5850;
1378.5000;0.6854;0.5899;
1378.8000;0.6870;0.5899;
1379.1000;0.6862;0.5850;
1379.4000;0.6854;0.5802;
1379.7000;0.6862;0.5875;
1380.0000;0.6846;0.5850;
1380.3000;0.6846;0.5850;
1380.6000;0.6838;0.5972;
1380.9000;0.6838;0.6045;
1381.2000;0.6846;0.6021;
1381.5000;0.6821;0.5948;
1381.8000;0.6854;0.5972;
1382.1000;0.6854;0.5924;
1382.4000;0.6846;0.6070;
1382.7000;0.6854;0.6119;
1383.0000;0.6829;0.6045;
1383.3000;0.6829;0.5972;
1383.6000;0.6854;0.6021;
1383.9000;0.6838;0.6021;
1384.2000;0.6838;0.6045;
1384.5000;0.6838;0.6045;
1384.8000;0.6829;0.6070;
1385.1000;0.6846;0.6070;
1385.4000;0.6838;0.6021;
1385.7000;0.6829;0.5997;
1386.0000;0.6829;0.6021;
1386.3000;0.6854;0.6094;
1386.6000;0.6846;0.6070;
1386.9000;0.6829;0.5948;
1387.2000;0.6829;0.5850;
1387.5000;0.6846;0.5875;
1387.8000;0.6854;0.5972;
1388.1000;0.6838;0.6021;
1388.4000;0.6829;0.6045;
1388.7000;0.6854;0.6119;
1389.0000;0.6846;0.5997;
1389.3000;0.6862;0.6021;
1389.6000;0.6838;0.5948;
1389.9000;0.6846;0.5948;
1390.2000;0.6862;0.5924;
1390.5000;0.6838;0.5899;
1390.8000;0.6838;0.5875;
1391.1000;0.6846;0.5948;
1391.4000;0.6838;0.5972;
1391.7000;0.6854;0.6021;
1392.0000;0.6862;0.6021;
1392.3000;0.6846;0.5948;
1392.6000;0.6854;0.5924;
1392.9000;0.6846;0.5972;
1393.2000;0.6821;0.5826;
1393.5000;0.6829;0.5802;
1393.8000;0.6846;0.5802;
1394.1000;0.6846;0.5826;
1394.4000;0.6829;0.5655;
1394.7000;0.6846;0.5802;
1395.0000;0.6846;0.5802;
1395.3000;0.6846;0.5777;
1395.6000;0.6838;0.5753;
1395.9000;0.6829;0.5777;
1396.2000;0.6854;0.5850;
1396.5000;0.6854;0.5899;
1396.8000;0.6846;0.5899;
1397.1000;0.6829;0.5777;
1397.4000;0.6829;0.5777;
1397.7000;0.6846;0.5826;
1398.0000;0.6846;0.5924;
1398.3000;0.6838;0.5850;
1398.6000;0.6838;0.5802;
1398.9000;0.6821;0.5802;
1399.2000;0.6838;0.5777;
1399.5000;0.6838;0.5875;
1399.8000;0.6846;0.5850;
