time/ms;Fluo/V;P700 deltaI/I x10³;
-199.8000;0.1945;7.0978;
-199.5000;0.1921;7.0954;
-199.2000;0.1913;7.0954;
-198.9000;0.1945;7.1048;
-198.6000;0.1921;7.1025;
-198.3000;0.1929;7.1001;
-198.0000;0.1937;7.1048;
-197.7000;0.1937;7.1142;
-197.4000;0.1937;7.1236;
-197.1000;0.1945;7.1283;
-196.8000;0.1937;7.1283;
-196.5000;0.1937;7.1260;
-196.2000;0.1954;7.1283;
-195.9000;0.1921;7.1119;
-195.6000;0.1913;7.1095;
-195.3000;0.1954;7.1142;
-195.0000;0.1913;7.1095;
-194.7000;0.1945;7.1142;
-194.4000;0.1970;7.1236;
-194.1000;0.1913;7.1072;
-193.8000;0.1978;7.1213;
-193.5000;0.2002;7.1189;
-193.2000;0.1994;7.1213;
-192.9000;0.1954;7.1072;
-192.6000;0.2002;7.1189;
-192.3000;0.1954;7.1048;
-192.0000;0.1970;7.1119;
-191.7000;0.1913;7.1048;
-191.4000;0.1954;7.1189;
-191.1000;0.1848;7.0978;
-190.8000;0.1937;7.1236;
-190.5000;0.1945;7.1213;
-190.2000;0.1954;7.1166;
-189.9000;0.1954;7.1166;
-189.6000;0.1905;7.1072;
-189.3000;0.1929;7.1142;
-189.0000;0.1954;7.1142;
-188.7000;0.1937;7.1119;
-188.4000;0.2019;7.1377;
-188.1000;0.1954;7.1236;
-187.8000;0.1970;7.1236;
-187.5000;0.1921;7.1095;
-187.2000;0.1945;7.1142;
-186.9000;0.1945;7.1095;
-186.6000;0.1913;7.0954;
-186.3000;0.1937;7.1001;
-186.0000;0.1978;7.1072;
-185.7000;0.1962;7.1095;
-185.4000;0.1954;7.1119;
-185.1000;0.1905;7.0884;
-184.8000;0.1986;7.1095;
-184.5000;0.1986;7.1119;
-184.2000;0.1945;7.1025;
-183.9000;0.1954;7.1166;
-183.6000;0.1929;7.1072;
-183.3000;0.1954;7.1119;
-183.0000;0.1970;7.1283;
-182.7000;0.1962;7.1354;
-182.4000;0.1962;7.1330;
-182.1000;0.1937;7.1283;
-181.8000;0.2059;7.1660;
-181.5000;0.1929;7.1330;
-181.2000;0.1962;7.1448;
-180.9000;0.1945;7.1401;
-180.6000;0.1962;7.1354;
-180.3000;0.1994;7.1330;
-180.0000;0.1962;7.1213;
-179.7000;0.1945;7.1095;
-179.4000;0.1994;7.1142;
-179.1000;0.1954;7.1095;
-178.8000;0.1945;7.1213;
-178.5000;0.1970;7.1283;
-178.2000;0.1970;7.1283;
-177.9000;0.1945;7.1166;
-177.6000;0.1954;7.1142;
-177.3000;0.2011;7.1260;
-177.0000;0.1954;7.1166;
-176.7000;0.1945;7.1142;
-176.4000;0.1945;7.1236;
-176.1000;0.1929;7.1283;
-175.8000;0.1921;7.1330;
-175.5000;0.1954;7.1283;
-175.2000;0.1937;7.1236;
-174.9000;0.1962;7.1213;
-174.6000;0.1954;7.1189;
-174.3000;0.1970;7.1260;
-174.0000;0.1945;7.1119;
-173.7000;0.1929;7.1072;
-173.4000;0.1937;7.1236;
-173.1000;0.1921;7.1330;
-172.8000;0.1945;7.1377;
-172.5000;0.1945;7.1377;
-172.2000;0.1962;7.1354;
-171.9000;0.1962;7.1377;
-171.6000;0.1832;7.1119;
-171.3000;0.1937;7.1354;
-171.0000;0.1962;7.1330;
-170.7000;0.1929;7.1307;
-170.4000;0.2043;7.1613;
-170.1000;0.1954;7.1354;
-169.8000;0.1954;7.1307;
-169.5000;0.1945;7.1330;
-169.2000;0.1962;7.1260;
-168.9000;0.1888;7.1095;
-168.6000;0.1929;7.1213;
-168.3000;0.1954;7.1236;
-168.0000;0.1897;7.1166;
-167.7000;0.1954;7.1213;
-167.4000;0.1954;7.1213;
-167.1000;0.1962;7.1260;
-166.8000;0.1994;7.1377;
-166.5000;0.1954;7.1401;
-166.2000;0.1970;7.1424;
-165.9000;0.1978;7.1401;
-165.6000;0.1937;7.1354;
-165.3000;0.1929;7.1283;
-165.0000;0.1945;7.1260;
-164.7000;0.1937;7.1260;
-164.4000;0.1945;7.1260;
-164.1000;0.1978;7.1354;
-163.8000;0.1954;7.1354;
-163.5000;0.1962;7.1401;
-163.2000;0.1937;7.1283;
-162.9000;0.1929;7.1307;
-162.6000;0.1945;7.1236;
-162.3000;0.1937;7.1283;
-162.0000;0.2011;7.1424;
-161.7000;0.1954;7.1401;
-161.4000;0.1929;7.1472;
-161.1000;0.1994;7.1589;
-160.8000;0.1954;7.1330;
-160.5000;0.2002;7.1354;
-160.2000;0.1921;7.1236;
-159.9000;0.1945;7.1283;
-159.6000;0.1880;7.1119;
-159.3000;0.1945;7.1213;
-159.0000;0.1945;7.1213;
-158.7000;0.1970;7.1189;
-158.4000;0.1937;7.1095;
-158.1000;0.1954;7.1166;
-157.8000;0.1937;7.1072;
-157.5000;0.1937;7.1048;
-157.2000;0.1945;7.1142;
-156.9000;0.1962;7.1189;
-156.6000;0.1937;7.1072;
-156.3000;0.1954;7.1001;
-156.0000;0.1929;7.0907;
-155.7000;0.1913;7.0813;
-155.4000;0.1929;7.0860;
-155.1000;0.1937;7.0954;
-154.8000;0.1945;7.0860;
-154.5000;0.1929;7.0837;
-154.2000;0.1905;7.0789;
-153.9000;0.1954;7.1001;
-153.6000;0.1888;7.0954;
-153.3000;0.1970;7.1189;
-153.0000;0.1945;7.1119;
-152.7000;0.2051;7.1424;
-152.4000;0.1954;7.1307;
-152.1000;0.1954;7.1260;
-151.8000;0.1986;7.1283;
-151.5000;0.1962;7.1213;
-151.2000;0.1970;7.1166;
-150.9000;0.1937;7.1142;
-150.6000;0.1954;7.1189;
-150.3000;0.1954;7.1166;
-150.0000;0.1954;7.1189;
-149.7000;0.1945;7.1142;
-149.4000;0.1970;7.1095;
-149.1000;0.1994;7.1189;
-148.8000;0.1888;7.0931;
-148.5000;0.1945;7.1072;
-148.2000;0.1962;7.1142;
-147.9000;0.1986;7.1142;
-147.6000;0.1937;7.1025;
-147.3000;0.1848;7.0860;
-147.0000;0.2051;7.1354;
-146.7000;0.1954;7.1166;
-146.4000;0.1970;7.1260;
-146.1000;0.1945;7.1166;
-145.8000;0.1954;7.1213;
-145.5000;0.1954;7.1213;
-145.2000;0.1962;7.1236;
-144.9000;0.1962;7.1213;
-144.6000;0.1937;7.1166;
-144.3000;0.1929;7.1095;
-144.0000;0.1945;7.1142;
-143.7000;0.1954;7.1236;
-143.4000;0.1937;7.1213;
-143.1000;0.1970;7.1377;
-142.8000;0.1913;7.1260;
-142.5000;0.1945;7.1330;
-142.2000;0.1954;7.1283;
-141.9000;0.1962;7.1354;
-141.6000;0.1954;7.1330;
-141.3000;0.1945;7.1354;
-141.0000;0.1954;7.1354;
-140.7000;0.1962;7.1377;
-140.4000;0.1954;7.1283;
-140.1000;0.1962;7.1307;
-139.8000;0.1954;7.1213;
-139.5000;0.1978;7.1236;
-139.2000;0.1962;7.1236;
-138.9000;0.2002;7.1307;
-138.6000;0.1962;7.1119;
-138.3000;0.2035;7.1330;
-138.0000;0.1962;7.1213;
-137.7000;0.1945;7.1283;
-137.4000;0.1954;7.1260;
-137.1000;0.1945;7.1307;
-136.8000;0.1937;7.1377;
-136.5000;0.1905;7.1307;
-136.2000;0.1962;7.1354;
-135.9000;0.1929;7.1283;
-135.6000;0.1962;7.1354;
-135.3000;0.1978;7.1307;
-135.0000;0.1954;7.1142;
-134.7000;0.1954;7.1142;
-134.4000;0.1954;7.1213;
-134.1000;0.1954;7.1213;
-133.8000;0.1945;7.1166;
-133.5000;0.1954;7.1189;
-133.2000;0.1962;7.1260;
-132.9000;0.1986;7.1307;
-132.6000;0.1954;7.1213;
-132.3000;0.2002;7.1377;
-132.0000;0.1937;7.1213;
-131.7000;0.1962;7.1236;
-131.4000;0.1962;7.1354;
-131.1000;0.1929;7.1283;
-130.8000;0.1962;7.1330;
-130.5000;0.1970;7.1401;
-130.2000;0.1978;7.1424;
-129.9000;0.1970;7.1307;
-129.6000;0.1929;7.1260;
-129.3000;0.1970;7.1354;
-129.0000;0.1945;7.1307;
-128.7000;0.1978;7.1354;
-128.4000;0.1929;7.1189;
-128.1000;0.1921;7.1142;
-127.8000;0.1954;7.1283;
-127.5000;0.1945;7.1283;
-127.2000;0.1954;7.1283;
-126.9000;0.1954;7.1307;
-126.6000;0.1921;7.1260;
-126.3000;0.1970;7.1330;
-126.0000;0.1954;7.1307;
-125.7000;0.2002;7.1424;
-125.4000;0.1962;7.1354;
-125.1000;0.1921;7.1283;
-124.8000;0.1945;7.1283;
-124.5000;0.1921;7.1142;
-124.2000;0.1954;7.1236;
-123.9000;0.1945;7.1189;
-123.6000;0.1913;7.1142;
-123.3000;0.1970;7.1236;
-123.0000;0.1913;7.1119;
-122.7000;0.1962;7.1119;
-122.4000;0.2011;7.1236;
-122.1000;0.1913;7.0931;
-121.8000;0.1962;7.1025;
-121.5000;0.1954;7.1025;
-121.2000;0.1970;7.1025;
-120.9000;0.1945;7.1025;
-120.6000;0.1970;7.1142;
-120.3000;0.1962;7.1119;
-120.0000;0.1970;7.1142;
-119.7000;0.1978;7.1236;
-119.4000;0.1954;7.1236;
-119.1000;0.1962;7.1330;
-118.8000;0.1978;7.1354;
-118.5000;0.1880;7.1095;
-118.2000;0.1937;7.1213;
-117.9000;0.1962;7.1330;
-117.6000;0.1945;7.1354;
-117.3000;0.1945;7.1283;
-117.0000;0.1954;7.1330;
-116.7000;0.1962;7.1283;
-116.4000;0.1986;7.1330;
-116.1000;0.1962;7.1213;
-115.8000;0.2068;7.1589;
-115.5000;0.1970;7.1330;
-115.2000;0.1945;7.1189;
-114.9000;0.1962;7.1142;
-114.6000;0.1962;7.1142;
-114.3000;0.1929;7.1119;
-114.0000;0.1954;7.1213;
-113.7000;0.1962;7.1025;
-113.4000;0.1937;7.1048;
-113.1000;0.1954;7.1025;
-112.8000;0.1937;7.1001;
-112.5000;0.1921;7.0884;
-112.2000;0.1913;7.0884;
-111.9000;0.1937;7.0884;
-111.6000;0.1970;7.1072;
-111.3000;0.1937;7.1166;
-111.0000;0.1954;7.1307;
-110.7000;0.1954;7.1354;
-110.4000;0.1954;7.1472;
-110.1000;0.1921;7.1330;
-109.8000;0.1962;7.1401;
-109.5000;0.1954;7.1401;
-109.2000;0.1888;7.1330;
-108.9000;0.1945;7.1424;
-108.6000;0.1954;7.1330;
-108.3000;0.1945;7.1260;
-108.0000;0.1937;7.1213;
-107.7000;0.1954;7.1189;
-107.4000;0.1954;7.1283;
-107.1000;0.1962;7.1330;
-106.8000;0.1945;7.1260;
-106.5000;0.1929;7.1095;
-106.2000;0.1945;7.1119;
-105.9000;0.1937;7.1048;
-105.6000;0.1945;7.1048;
-105.3000;0.1929;7.0978;
-105.0000;0.1929;7.1001;
-104.7000;0.1954;7.1072;
-104.4000;0.1929;7.1072;
-104.1000;0.1945;7.1072;
-103.8000;0.1954;7.1095;
-103.5000;0.1986;7.1213;
-103.2000;0.1954;7.1189;
-102.9000;0.1913;7.1166;
-102.6000;0.1945;7.1189;
-102.3000;0.1954;7.1283;
-102.0000;0.1954;7.1283;
-101.7000;0.1945;7.1307;
-101.4000;0.1954;7.1260;
-101.1000;0.1929;7.1189;
-100.8000;0.2043;7.1377;
-100.5000;0.1937;7.1166;
-100.2000;0.1872;7.1025;
-99.9000;0.2011;7.1236;
-99.6000;0.1913;7.1048;
-99.3000;0.1954;7.1166;
-99.0000;0.1921;7.1142;
-98.7000;0.1962;7.1283;
-98.4000;0.1937;7.1283;
-98.1000;0.1962;7.1283;
-97.8000;0.1921;7.1166;
-97.5000;0.1986;7.1307;
-97.2000;0.1962;7.1260;
-96.9000;0.1962;7.1166;
-96.6000;0.2002;7.1283;
-96.3000;0.1978;7.1260;
-96.0000;0.1945;7.1236;
-95.7000;0.1962;7.1283;
-95.4000;0.1945;7.1330;
-95.1000;0.1954;7.1401;
-94.8000;0.1945;7.1448;
-94.5000;0.1937;7.1448;
-94.2000;0.1937;7.1377;
-93.9000;0.1945;7.1448;
-93.6000;0.1945;7.1401;
-93.3000;0.1937;7.1377;
-93.0000;0.1970;7.1377;
-92.7000;0.1929;7.1213;
-92.4000;0.1945;7.1283;
-92.1000;0.1945;7.1213;
-91.8000;0.1945;7.1142;
-91.5000;0.1962;7.1189;
-91.2000;0.1945;7.1189;
-90.9000;0.1945;7.1236;
-90.6000;0.1954;7.1260;
-90.3000;0.1954;7.1236;
-90.0000;0.1937;7.1189;
-89.7000;0.1962;7.1213;
-89.4000;0.1962;7.1354;
-89.1000;0.1962;7.1283;
-88.8000;0.1970;7.1260;
-88.5000;0.1970;7.1377;
-88.2000;0.1937;7.1307;
-87.9000;0.1929;7.1307;
-87.6000;0.1978;7.1401;
-87.3000;0.1872;7.1260;
-87.0000;0.1962;7.1542;
-86.7000;0.1945;7.1472;
-86.4000;0.1954;7.1424;
-86.1000;0.1970;7.1354;
-85.8000;0.1986;7.1354;
-85.5000;0.1962;7.1236;
-85.2000;0.1954;7.1260;
-84.9000;0.1921;7.1213;
-84.6000;0.1962;7.1166;
-84.3000;0.1954;7.1119;
-84.0000;0.1937;7.1119;
-83.7000;0.1962;7.1213;
-83.4000;0.1970;7.1236;
-83.1000;0.1962;7.1236;
-82.8000;0.1905;7.1095;
-82.5000;0.1954;7.1260;
-82.2000;0.1962;7.1213;
-81.9000;0.2043;7.1448;
-81.6000;0.1954;7.1283;
-81.3000;0.1986;7.1377;
-81.0000;0.1978;7.1401;
-80.7000;0.1962;7.1354;
-80.4000;0.1978;7.1424;
-80.1000;0.1945;7.1377;
-79.8000;0.2011;7.1401;
-79.5000;0.1970;7.1307;
-79.2000;0.1962;7.1236;
-78.9000;0.1954;7.1189;
-78.6000;0.1945;7.1260;
-78.3000;0.1937;7.1213;
-78.0000;0.1905;7.1166;
-77.7000;0.1921;7.1142;
-77.4000;0.1945;7.1236;
-77.1000;0.1945;7.1236;
-76.8000;0.1921;7.1166;
-76.5000;0.1848;7.0954;
-76.2000;0.1954;7.1283;
-75.9000;0.1962;7.1283;
-75.6000;0.1945;7.1119;
-75.3000;0.1954;7.1095;
-75.0000;0.1954;7.1048;
-74.7000;0.1945;7.1072;
-74.4000;0.1937;7.1072;
-74.1000;0.1954;7.1072;
-73.8000;0.1921;7.0954;
-73.5000;0.1921;7.1001;
-73.2000;0.1962;7.1072;
-72.9000;0.1986;7.1119;
-72.6000;0.1945;7.0954;
-72.3000;0.1937;7.0954;
-72.0000;0.1962;7.1001;
-71.7000;0.1978;7.1025;
-71.4000;0.1962;7.0931;
-71.1000;0.1954;7.0954;
-70.8000;0.1945;7.0907;
-70.5000;0.1954;7.0860;
-70.2000;0.1937;7.0766;
-69.9000;0.1978;7.0860;
-69.6000;0.1954;7.0907;
-69.3000;0.1937;7.0954;
-69.0000;0.1954;7.0978;
-68.7000;0.1937;7.0907;
-68.4000;0.1954;7.0978;
-68.1000;0.1937;7.0860;
-67.8000;0.1994;7.1001;
-67.5000;0.1954;7.0978;
-67.2000;0.1945;7.1001;
-66.9000;0.1954;7.1072;
-66.6000;0.1929;7.1001;
-66.3000;0.1945;7.0978;
-66.0000;0.1954;7.1001;
-65.7000;0.1937;7.0907;
-65.4000;0.1880;7.0813;
-65.1000;0.1945;7.1001;
-64.8000;0.1937;7.0931;
-64.5000;0.1921;7.0813;
-64.2000;0.1954;7.0907;
-63.9000;0.1937;7.0954;
-63.6000;0.1913;7.0884;
-63.3000;0.1954;7.0931;
-63.0000;0.1945;7.0931;
-62.7000;0.1986;7.0931;
-62.4000;0.1937;7.0813;
-62.1000;0.1929;7.0813;
-61.8000;0.1937;7.0954;
-61.5000;0.1954;7.1001;
-61.2000;0.1945;7.0907;
-60.9000;0.1970;7.0931;
-60.6000;0.1954;7.0907;
-60.3000;0.1970;7.0954;
-60.0000;0.1945;7.0884;
-59.7000;0.1962;7.0954;
-59.4000;0.1945;7.0860;
-59.1000;0.1954;7.0907;
-58.8000;0.1970;7.0931;
-58.5000;0.1945;7.0931;
-58.2000;0.1937;7.0978;
-57.9000;0.1954;7.1001;
-57.6000;0.1937;7.0931;
-57.3000;0.1962;7.1072;
-57.0000;0.2002;7.1119;
-56.7000;0.1970;7.1095;
-56.4000;0.1954;7.1001;
-56.1000;0.1954;7.1048;
-55.8000;0.1954;7.1025;
-55.5000;0.1954;7.1119;
-55.2000;0.1954;7.1095;
-54.9000;0.1954;7.1166;
-54.6000;0.1937;7.1095;
-54.3000;0.1945;7.1072;
-54.0000;0.1905;7.0954;
-53.7000;0.1937;7.1095;
-53.4000;0.1937;7.0978;
-53.1000;0.1872;7.0813;
-52.8000;0.1945;7.1025;
-52.5000;0.1962;7.1166;
-52.2000;0.1921;7.1001;
-51.9000;0.1945;7.1001;
-51.6000;0.2002;7.1236;
-51.3000;0.1970;7.1166;
-51.0000;0.1945;7.1189;
-50.7000;0.1929;7.1095;
-50.4000;0.1970;7.1189;
-50.1000;0.1970;7.1213;
-49.8000;0.1945;7.1236;
-49.5000;0.1962;7.1213;
-49.2000;0.1954;7.1260;
-48.9000;0.1945;7.1307;
-48.6000;0.1962;7.1354;
-48.3000;0.1945;7.1260;
-48.0000;0.1954;7.1142;
-47.7000;0.1954;7.1072;
-47.4000;0.1986;7.1048;
-47.1000;0.1978;7.0813;
-46.8000;0.1970;7.0837;
-46.5000;0.1954;7.0884;
-46.2000;0.1937;7.0978;
-45.9000;0.1954;7.1072;
-45.6000;0.1954;7.1095;
-45.3000;0.1970;7.1260;
-45.0000;0.1970;7.1166;
-44.7000;0.1954;7.1048;
-44.4000;0.1954;7.1001;
-44.1000;0.1962;7.1001;
-43.8000;0.2043;7.1236;
-43.5000;0.1954;7.0931;
-43.2000;0.1937;7.0884;
-42.9000;0.1945;7.0837;
-42.6000;0.1929;7.0813;
-42.3000;0.1905;7.0766;
-42.0000;0.1945;7.0884;
-41.7000;0.1970;7.0931;
-41.4000;0.1897;7.0813;
-41.1000;0.1994;7.1072;
-40.8000;0.1970;7.0978;
-40.5000;0.1970;7.0954;
-40.2000;0.1994;7.1048;
-39.9000;0.1954;7.0931;
-39.6000;0.1978;7.1001;
-39.3000;0.1945;7.0954;
-39.0000;0.1937;7.0978;
-38.7000;0.1929;7.0954;
-38.4000;0.1929;7.0813;
-38.1000;0.1945;7.0931;
-37.8000;0.1929;7.0813;
-37.5000;0.1945;7.0837;
-37.2000;0.1970;7.0789;
-36.9000;0.1945;7.0837;
-36.6000;0.1954;7.0837;
-36.3000;0.1954;7.0907;
-36.0000;0.1970;7.1001;
-35.7000;0.2035;7.1142;
-35.4000;0.1945;7.0978;
-35.1000;0.1994;7.1072;
-34.8000;0.1978;7.1095;
-34.5000;0.1978;7.1072;
-34.2000;0.1986;7.1095;
-33.9000;0.1945;7.1025;
-33.6000;0.1962;7.1072;
-33.3000;0.1970;7.1142;
-33.0000;0.1929;7.1025;
-32.7000;0.1962;7.1142;
-32.4000;0.1954;7.1142;
-32.1000;0.1945;7.1142;
-31.8000;0.1945;7.1048;
-31.5000;0.1970;7.1166;
-31.2000;0.1913;7.1001;
-30.9000;0.1954;7.1095;
-30.6000;0.1954;7.1072;
-30.3000;0.1945;7.1095;
-30.0000;0.1954;7.1048;
-29.7000;0.1954;7.1001;
-29.4000;0.1945;7.0931;
-29.1000;0.1945;7.0907;
-28.8000;0.1962;7.0931;
-28.5000;0.1954;7.0884;
-28.2000;0.1945;7.0954;
-27.9000;0.1962;7.0978;
-27.6000;0.1954;7.1025;
-27.3000;0.1945;7.1001;
-27.0000;0.1945;7.0907;
-26.7000;0.1937;7.0884;
-26.4000;0.1954;7.0931;
-26.1000;0.1970;7.1119;
-25.8000;0.1945;7.1001;
-25.5000;0.1954;7.1119;
-25.2000;0.1945;7.1142;
-24.9000;0.1880;7.1001;
-24.6000;0.1945;7.1166;
-24.3000;0.1962;7.1166;
-24.0000;0.1937;7.0978;
-23.7000;0.1962;7.1001;
-23.4000;0.1937;7.0954;
-23.1000;0.1970;7.0978;
-22.8000;0.1937;7.0860;
-22.5000;0.1962;7.0860;
-22.2000;0.1945;7.0837;
-21.9000;0.1954;7.0884;
-21.6000;0.1962;7.0954;
-21.3000;0.1937;7.0860;
-21.0000;0.1929;7.0907;
-20.7000;0.1945;7.0860;
-20.4000;0.1970;7.0931;
-20.1000;0.1954;7.0931;
-19.8000;0.1945;7.0978;
-19.5000;0.1937;7.1025;
-19.2000;0.1913;7.0954;
-18.9000;0.1954;7.1001;
-18.6000;0.1954;7.0931;
-18.3000;0.1945;7.1048;
-18.0000;0.1962;7.1048;
-17.7000;0.1945;7.1072;
-17.4000;0.1994;7.1260;
-17.1000;0.1970;7.1330;
-16.8000;0.1937;7.1236;
-16.5000;0.1897;7.1072;
-16.2000;0.1954;7.1213;
-15.9000;0.1954;7.1142;
-15.6000;0.1978;7.1236;
-15.3000;0.1954;7.1189;
-15.0000;0.2002;7.1283;
-14.7000;0.1970;7.1142;
-14.4000;0.1954;7.1025;
-14.1000;0.1978;7.1001;
-13.8000;0.1970;7.1072;
-13.5000;0.1945;7.1072;
-13.2000;0.1921;7.1095;
-12.9000;0.1945;7.1189;
-12.6000;0.1929;7.1166;
-12.3000;0.1962;7.1189;
-12.0000;0.2002;7.1260;
-11.7000;0.1954;7.1213;
-11.4000;0.1945;7.1119;
-11.1000;0.2011;7.1260;
-10.8000;0.1962;7.1189;
-10.5000;0.1954;7.1142;
-10.2000;0.1962;7.1095;
-9.9000;0.1954;7.1001;
-9.6000;0.1954;7.1025;
-9.3000;0.1954;7.0978;
-9.0000;0.1986;7.1001;
-8.7000;0.1962;7.0978;
-8.4000;0.1962;7.1025;
-8.1000;0.1962;7.1001;
-7.8000;0.1945;7.1001;
-7.5000;0.1921;7.0884;
-7.2000;0.1872;7.0837;
-6.9000;0.1945;7.1048;
-6.6000;0.1945;7.1025;
-6.3000;0.1921;7.1001;
-6.0000;0.1937;7.0954;
-5.7000;0.1962;7.1048;
-5.4000;0.1962;7.0954;
-5.1000;0.1945;7.0860;
-4.8000;0.1945;7.1001;
-4.5000;0.1945;7.1072;
-4.2000;0.1929;7.0931;
-3.9000;0.1954;7.0978;
-3.6000;0.1954;7.0907;
-3.3000;0.1954;7.0860;
-3.0000;0.1954;7.0884;
-2.7000;0.1954;7.0837;
-2.4000;0.1954;7.0884;
-2.1000;0.1929;7.0884;
-1.8000;0.1945;7.0837;
-1.5000;0.1954;7.0884;
-1.2000;0.1954;7.0837;
-0.9000;0.1945;7.0766;
-0.6000;0.1962;7.0766;
-0.3000;0.1978;7.0837;
0.0000;0.1978;7.0837;
0.3000;0.2116;7.0954;
0.6000;0.2182;7.1048;
0.9000;0.2304;7.1260;
1.2000;0.2377;7.1424;
1.5000;0.2450;7.1566;
1.8000;0.2540;7.1777;
2.1000;0.2556;7.1942;
2.4000;0.2621;7.2083;
2.7000;0.2637;7.2201;
3.0000;0.2678;7.2389;
3.3000;0.2678;7.2436;
3.6000;0.2678;7.2530;
3.9000;0.2719;7.2718;
4.2000;0.2808;7.3071;
4.5000;0.2702;7.2671;
4.8000;0.2637;7.2483;
5.1000;0.2719;7.2718;
5.4000;0.2743;7.2789;
5.7000;0.2743;7.2765;
6.0000;0.2743;7.2789;
6.3000;0.2743;7.2741;
6.6000;0.2784;7.2883;
6.9000;0.2751;7.2765;
7.2000;0.2751;7.2883;
7.5000;0.2768;7.2836;
7.8000;0.2792;7.2930;
8.1000;0.2792;7.2930;
8.4000;0.2776;7.2883;
8.7000;0.2800;7.2953;
9.0000;0.2784;7.2977;
9.3000;0.2882;7.3235;
9.6000;0.2784;7.2953;
9.9000;0.2833;7.3000;
10.2000;0.2792;7.3000;
10.5000;0.2825;7.2977;
10.8000;0.2833;7.3047;
11.1000;0.2882;7.3212;
11.4000;0.2825;7.3141;
11.7000;0.2816;7.3094;
12.0000;0.2849;7.3094;
12.3000;0.2841;7.3094;
12.6000;0.2808;7.2930;
12.9000;0.2833;7.2883;
13.2000;0.2841;7.2836;
13.5000;0.2841;7.2883;
13.8000;0.2849;7.2930;
14.1000;0.2865;7.3024;
14.4000;0.2857;7.3000;
14.7000;0.2882;7.3000;
15.0000;0.2857;7.2930;
15.3000;0.2865;7.3000;
15.6000;0.2873;7.2953;
15.9000;0.2882;7.2977;
16.2000;0.2914;7.2953;
16.5000;0.2873;7.2883;
16.8000;0.2873;7.2906;
17.1000;0.2882;7.2977;
17.4000;0.2873;7.2953;
17.7000;0.2971;7.3329;
18.0000;0.2882;7.3000;
18.3000;0.2955;7.3141;
18.6000;0.2906;7.2930;
18.9000;0.2898;7.2906;
19.2000;0.2816;7.2694;
19.5000;0.2906;7.2906;
19.8000;0.2906;7.2859;
20.1000;0.2906;7.2765;
20.4000;0.2955;7.2883;
20.7000;0.2898;7.2765;
21.0000;0.2914;7.2741;
21.3000;0.2914;7.2789;
21.6000;0.2930;7.2812;
21.9000;0.2898;7.2718;
22.2000;0.2922;7.2859;
22.5000;0.2922;7.2883;
22.8000;0.2922;7.3000;
23.1000;0.2922;7.3047;
23.4000;0.2939;7.3024;
23.7000;0.2947;7.2977;
24.0000;0.2963;7.3047;
24.3000;0.2947;7.3000;
24.6000;0.2971;7.3000;
24.9000;0.2963;7.3000;
25.2000;0.2947;7.2930;
25.5000;0.2955;7.2906;
25.8000;0.2963;7.2883;
26.1000;0.2955;7.2836;
26.4000;0.2971;7.2836;
26.7000;0.3020;7.3000;
27.0000;0.2955;7.2953;
27.3000;0.2971;7.3047;
27.6000;0.2963;7.3071;
27.9000;0.2971;7.3118;
28.2000;0.2963;7.3188;
28.5000;0.2963;7.3094;
28.8000;0.3044;7.3235;
29.1000;0.2939;7.2930;
29.4000;0.2987;7.3094;
29.7000;0.2996;7.3094;
30.0000;0.3036;7.3259;
30.3000;0.2996;7.3188;
30.6000;0.2979;7.3047;
30.9000;0.3004;7.3094;
31.2000;0.3004;7.3024;
31.5000;0.3012;7.3024;
31.8000;0.3004;7.3000;
32.1000;0.2979;7.2930;
32.4000;0.3004;7.3000;
32.7000;0.3020;7.2977;
33.0000;0.2996;7.2977;
33.3000;0.3004;7.2930;
33.6000;0.2996;7.2812;
33.9000;0.3028;7.2953;
34.2000;0.3004;7.2953;
34.5000;0.3020;7.3094;
34.8000;0.3020;7.3118;
35.1000;0.3053;7.3188;
35.4000;0.3028;7.3024;
35.7000;0.3044;7.3024;
36.0000;0.3093;7.3024;
36.3000;0.3061;7.2977;
36.6000;0.3069;7.3000;
36.9000;0.3036;7.2859;
37.2000;0.3044;7.2859;
37.5000;0.3044;7.2883;
37.8000;0.3077;7.2953;
38.1000;0.3036;7.2906;
38.4000;0.2963;7.2812;
38.7000;0.3028;7.2977;
39.0000;0.2996;7.2906;
39.3000;0.3118;7.3047;
39.6000;0.2979;7.2741;
39.9000;0.2939;7.2553;
40.2000;0.3053;7.2836;
40.5000;0.3012;7.2883;
40.8000;0.3036;7.2859;
41.1000;0.3036;7.2883;
41.4000;0.3069;7.3000;
41.7000;0.3028;7.2836;
42.0000;0.3069;7.3000;
42.3000;0.3142;7.3212;
42.6000;0.3069;7.3071;
42.9000;0.3069;7.3118;
43.2000;0.3028;7.3000;
43.5000;0.3085;7.3071;
43.8000;0.3101;7.3071;
44.1000;0.3101;7.3024;
44.4000;0.3101;7.3000;
44.7000;0.3101;7.2977;
45.0000;0.3109;7.3024;
45.3000;0.3093;7.3000;
45.6000;0.3118;7.3024;
45.9000;0.3101;7.3047;
46.2000;0.3093;7.3024;
46.5000;0.3085;7.3071;
46.8000;0.3118;7.3212;
47.1000;0.3093;7.3141;
47.4000;0.3150;7.3329;
47.7000;0.3101;7.3165;
48.0000;0.3085;7.3071;
48.3000;0.3085;7.2953;
48.6000;0.3118;7.2953;
48.9000;0.3126;7.2883;
49.2000;0.3101;7.2789;
49.5000;0.3126;7.2789;
49.8000;0.3109;7.2765;
50.1000;0.3109;7.2812;
50.4000;0.3126;7.2836;
50.7000;0.3126;7.2906;
51.0000;0.3199;7.3094;
51.3000;0.3126;7.2930;
51.6000;0.3142;7.3024;
51.9000;0.3126;7.3024;
52.2000;0.3126;7.2953;
52.5000;0.3166;7.2977;
52.8000;0.3118;7.2859;
53.1000;0.3118;7.2977;
53.4000;0.3093;7.2789;
53.7000;0.3142;7.2953;
54.0000;0.3126;7.2906;
54.3000;0.3126;7.2859;
54.6000;0.3093;7.2765;
54.9000;0.3118;7.2812;
55.2000;0.3134;7.2906;
55.5000;0.3142;7.2883;
55.8000;0.3126;7.2906;
56.1000;0.3158;7.2977;
56.4000;0.3126;7.3000;
56.7000;0.3134;7.3071;
57.0000;0.3175;7.3071;
57.3000;0.3134;7.3071;
57.6000;0.3101;7.2977;
57.9000;0.3134;7.3094;
58.2000;0.3126;7.3165;
58.5000;0.3166;7.3165;
58.8000;0.3175;7.3212;
59.1000;0.3207;7.3165;
59.4000;0.3093;7.2953;
59.7000;0.3150;7.3094;
60.0000;0.3223;7.3188;
60.3000;0.3166;7.3047;
60.6000;0.3134;7.2906;
60.9000;0.3264;7.3259;
61.2000;0.3166;7.2977;
61.5000;0.3158;7.2953;
61.8000;0.3166;7.3094;
62.1000;0.3158;7.3047;
62.4000;0.3175;7.3071;
62.7000;0.3223;7.3259;
63.0000;0.3166;7.3141;
63.3000;0.3158;7.3165;
63.6000;0.3134;7.3118;
63.9000;0.3077;7.2906;
64.2000;0.3158;7.3000;
64.5000;0.3166;7.2953;
64.8000;0.3166;7.3024;
65.1000;0.3175;7.3047;
65.4000;0.3166;7.3141;
65.7000;0.3118;7.3000;
66.0000;0.3158;7.3071;
66.3000;0.3175;7.3141;
66.6000;0.3175;7.3165;
66.9000;0.3175;7.3188;
67.2000;0.3158;7.3141;
67.5000;0.3158;7.3212;
67.8000;0.3183;7.3235;
68.1000;0.3142;7.3165;
68.4000;0.3175;7.3235;
68.7000;0.3158;7.3165;
69.0000;0.3183;7.3141;
69.3000;0.3175;7.2977;
69.6000;0.3175;7.2930;
69.9000;0.3191;7.2906;
70.2000;0.3223;7.2930;
70.5000;0.3183;7.2836;
70.8000;0.3199;7.2906;
71.1000;0.3215;7.2977;
71.4000;0.3183;7.2930;
71.7000;0.3183;7.2930;
72.0000;0.3191;7.2930;
72.3000;0.3150;7.2789;
72.6000;0.3199;7.2859;
72.9000;0.3175;7.2765;
73.2000;0.3191;7.2836;
73.5000;0.3191;7.2930;
73.8000;0.3166;7.2859;
74.1000;0.3191;7.2812;
74.4000;0.3256;7.2906;
74.7000;0.3256;7.2930;
75.0000;0.3199;7.2765;
75.3000;0.3183;7.2765;
75.6000;0.3191;7.2741;
75.9000;0.3191;7.2812;
76.2000;0.3215;7.2977;
76.5000;0.3199;7.3000;
76.8000;0.3134;7.2906;
77.1000;0.3199;7.3094;
77.4000;0.3166;7.2930;
77.7000;0.3232;7.2930;
78.0000;0.3183;7.2859;
78.3000;0.3215;7.2930;
78.6000;0.3101;7.2694;
78.9000;0.3207;7.2977;
79.2000;0.3191;7.2883;
79.5000;0.3207;7.3047;
79.8000;0.3264;7.3141;
80.1000;0.3232;7.3071;
80.4000;0.3223;7.3047;
80.7000;0.3223;7.3024;
81.0000;0.3183;7.2953;
81.3000;0.3240;7.3071;
81.6000;0.3134;7.2789;
81.9000;0.3232;7.3024;
82.2000;0.3207;7.2906;
82.5000;0.3215;7.2883;
82.8000;0.3215;7.2859;
83.1000;0.3207;7.2906;
83.4000;0.3215;7.2977;
83.7000;0.3207;7.3000;
84.0000;0.3199;7.2977;
84.3000;0.3215;7.3024;
84.6000;0.3215;7.3094;
84.9000;0.3183;7.2883;
85.2000;0.3223;7.2930;
85.5000;0.3215;7.2836;
85.8000;0.3215;7.2906;
86.1000;0.3248;7.3024;
86.4000;0.3223;7.2930;
86.7000;0.3223;7.3000;
87.0000;0.3232;7.3141;
87.3000;0.3215;7.3141;
87.6000;0.3272;7.3329;
87.9000;0.3248;7.3282;
88.2000;0.3215;7.3118;
88.5000;0.3207;7.3024;
88.8000;0.3240;7.3118;
89.1000;0.3232;7.2906;
89.4000;0.3223;7.2812;
89.7000;0.3232;7.2812;
90.0000;0.3207;7.2836;
90.3000;0.3232;7.2836;
90.6000;0.3248;7.2883;
90.9000;0.3215;7.2930;
91.2000;0.3215;7.2977;
91.5000;0.3240;7.2977;
91.8000;0.3264;7.3047;
92.1000;0.3232;7.3024;
92.4000;0.3240;7.3094;
92.7000;0.3207;7.3024;
93.0000;0.3232;7.3047;
93.3000;0.3215;7.2953;
93.6000;0.3232;7.2953;
93.9000;0.3232;7.2953;
94.2000;0.3223;7.2930;
94.5000;0.3223;7.2836;
94.8000;0.3240;7.2883;
95.1000;0.3248;7.2836;
95.4000;0.3256;7.2883;
95.7000;0.3223;7.2812;
96.0000;0.3207;7.2718;
96.3000;0.3248;7.2741;
96.6000;0.3297;7.2859;
96.9000;0.3223;7.2718;
97.2000;0.3240;7.2789;
97.5000;0.3240;7.2812;
97.8000;0.3223;7.2883;
98.1000;0.3232;7.2789;
98.4000;0.3232;7.2859;
98.7000;0.3207;7.2859;
99.0000;0.3321;7.3188;
99.3000;0.3240;7.3000;
99.6000;0.3240;7.3024;
99.9000;0.3305;7.3212;
100.2000;0.3248;7.3118;
100.5000;0.3256;7.3118;
100.8000;0.3280;7.3212;
101.1000;0.3248;7.3141;
101.4000;0.3248;7.3118;
101.7000;0.3240;7.3165;
102.0000;0.3337;7.3447;
102.3000;0.3240;7.3188;
102.6000;0.3223;7.3188;
102.9000;0.3248;7.3188;
103.2000;0.3248;7.3094;
103.5000;0.3240;7.3071;
103.8000;0.3232;7.3047;
104.1000;0.3240;7.3071;
104.4000;0.3248;7.3141;
104.7000;0.3240;7.3094;
105.0000;0.3256;7.3047;
105.3000;0.3264;7.2977;
105.6000;0.3256;7.3071;
105.9000;0.3264;7.3141;
106.2000;0.3256;7.3141;
106.5000;0.3248;7.3094;
106.8000;0.3240;7.3047;
107.1000;0.3232;7.3000;
107.4000;0.3297;7.3071;
107.7000;0.3240;7.2930;
108.0000;0.3248;7.2859;
108.3000;0.3264;7.2812;
108.6000;0.3207;7.2694;
108.9000;0.3248;7.2883;
109.2000;0.3256;7.2859;
109.5000;0.3264;7.2859;
109.8000;0.3240;7.2741;
110.1000;0.3256;7.2883;
110.4000;0.3256;7.2883;
110.7000;0.3256;7.2812;
111.0000;0.3264;7.2765;
111.3000;0.3256;7.2812;
111.6000;0.3232;7.2883;
111.9000;0.3232;7.2953;
112.2000;0.3240;7.2930;
112.5000;0.3240;7.2859;
112.8000;0.3240;7.2718;
113.1000;0.3240;7.2624;
113.4000;0.3272;7.2694;
113.7000;0.3207;7.2506;
114.0000;0.3256;7.2577;
114.3000;0.3346;7.2765;
114.6000;0.3215;7.2506;
114.9000;0.3256;7.2671;
115.2000;0.3264;7.2694;
115.5000;0.3256;7.2671;
115.8000;0.3280;7.2741;
116.1000;0.3264;7.2671;
116.4000;0.3264;7.2694;
116.7000;0.3240;7.2694;
117.0000;0.3248;7.2812;
117.3000;0.3191;7.2671;
117.6000;0.3305;7.2930;
117.9000;0.3264;7.2859;
118.2000;0.3264;7.2953;
118.5000;0.3256;7.2883;
118.8000;0.3264;7.2906;
119.1000;0.3264;7.2812;
119.4000;0.3264;7.2741;
119.7000;0.3256;7.2718;
120.0000;0.3289;7.2859;
120.3000;0.3272;7.2741;
120.6000;0.3272;7.2718;
120.9000;0.3289;7.2859;
121.2000;0.3248;7.2741;
121.5000;0.3272;7.2906;
121.8000;0.3232;7.2812;
122.1000;0.3248;7.2765;
122.4000;0.3248;7.2741;
122.7000;0.3313;7.2906;
123.0000;0.3240;7.2694;
123.3000;0.3248;7.2718;
123.6000;0.3256;7.2765;
123.9000;0.3248;7.2718;
124.2000;0.3272;7.2812;
124.5000;0.3248;7.2741;
124.8000;0.3272;7.2836;
125.1000;0.3297;7.2906;
125.4000;0.3280;7.2859;
125.7000;0.3191;7.2718;
126.0000;0.3256;7.2836;
126.3000;0.3248;7.2741;
126.6000;0.3264;7.2812;
126.9000;0.3264;7.2812;
127.2000;0.3248;7.2789;
127.5000;0.3248;7.2741;
127.8000;0.3264;7.2718;
128.1000;0.3264;7.2694;
128.4000;0.3264;7.2741;
128.7000;0.3248;7.2741;
129.0000;0.3280;7.2741;
129.3000;0.3272;7.2812;
129.6000;0.3264;7.2836;
129.9000;0.3248;7.2765;
130.2000;0.3256;7.2812;
130.5000;0.3272;7.2859;
130.8000;0.3264;7.2836;
131.1000;0.3256;7.2812;
131.4000;0.3272;7.2812;
131.7000;0.3272;7.2836;
132.0000;0.3305;7.2906;
132.3000;0.3321;7.2906;
132.6000;0.3248;7.2765;
132.9000;0.3256;7.2718;
133.2000;0.3256;7.2694;
133.5000;0.3232;7.2647;
133.8000;0.3199;7.2624;
134.1000;0.3256;7.2765;
134.4000;0.3183;7.2553;
134.7000;0.3256;7.2718;
135.0000;0.3272;7.2647;
135.3000;0.3378;7.2906;
135.6000;0.3280;7.2718;
135.9000;0.3264;7.2718;
136.2000;0.3313;7.2718;
136.5000;0.3289;7.2647;
136.8000;0.3264;7.2624;
137.1000;0.3280;7.2694;
137.4000;0.3223;7.2483;
137.7000;0.3264;7.2647;
138.0000;0.3272;7.2600;
138.3000;0.3248;7.2553;
138.6000;0.3256;7.2624;
138.9000;0.3272;7.2624;
139.2000;0.3289;7.2741;
139.5000;0.3272;7.2741;
139.8000;0.3256;7.2671;
140.1000;0.3272;7.2671;
140.4000;0.3264;7.2577;
140.7000;0.3272;7.2600;
141.0000;0.3313;7.2718;
141.3000;0.3280;7.2671;
141.6000;0.3280;7.2671;
141.9000;0.3313;7.2836;
142.2000;0.3280;7.2741;
142.5000;0.3321;7.2765;
142.8000;0.3305;7.2836;
143.1000;0.3280;7.2789;
143.4000;0.3264;7.2718;
143.7000;0.3248;7.2718;
144.0000;0.3256;7.2718;
144.3000;0.3248;7.2718;
144.6000;0.3232;7.2600;
144.9000;0.3248;7.2671;
145.2000;0.3183;7.2577;
145.5000;0.3280;7.2812;
145.8000;0.3272;7.2859;
146.1000;0.3297;7.3024;
146.4000;0.3272;7.2906;
146.7000;0.3264;7.2953;
147.0000;0.3280;7.2953;
147.3000;0.3256;7.2836;
147.6000;0.3264;7.2789;
147.9000;0.3280;7.2836;
148.2000;0.3264;7.2859;
148.5000;0.3248;7.2906;
148.8000;0.3264;7.2930;
149.1000;0.3248;7.2883;
149.4000;0.3272;7.2883;
149.7000;0.3289;7.2906;
150.0000;0.3183;7.2600;
150.3000;0.3256;7.2694;
150.6000;0.3264;7.2671;
150.9000;0.3305;7.2765;
151.2000;0.3272;7.2718;
151.5000;0.3264;7.2671;
151.8000;0.3256;7.2671;
152.1000;0.3264;7.2765;
152.4000;0.3272;7.2671;
152.7000;0.3280;7.2647;
153.0000;0.3232;7.2600;
153.3000;0.3272;7.2718;
153.6000;0.3264;7.2765;
153.9000;0.3256;7.2765;
154.2000;0.3280;7.2836;
154.5000;0.3272;7.2836;
154.8000;0.3272;7.2953;
155.1000;0.3272;7.2953;
155.4000;0.3256;7.2953;
155.7000;0.3175;7.2789;
156.0000;0.3223;7.2836;
156.3000;0.3297;7.3024;
156.6000;0.3264;7.2953;
156.9000;0.3158;7.2671;
157.2000;0.3248;7.2883;
157.5000;0.3256;7.2765;
157.8000;0.3289;7.2789;
158.1000;0.3272;7.2789;
158.4000;0.3248;7.2718;
158.7000;0.3264;7.2789;
159.0000;0.3264;7.2836;
159.3000;0.3232;7.2812;
159.6000;0.3248;7.2906;
159.9000;0.3264;7.3000;
160.2000;0.3240;7.2883;
160.5000;0.3272;7.2859;
160.8000;0.3272;7.2836;
161.1000;0.3289;7.2836;
161.4000;0.3264;7.2836;
161.7000;0.3280;7.2883;
162.0000;0.3280;7.2883;
162.3000;0.3329;7.3071;
162.6000;0.3264;7.2953;
162.9000;0.3280;7.2906;
163.2000;0.3297;7.2906;
163.5000;0.3280;7.2812;
163.8000;0.3305;7.2930;
164.1000;0.3264;7.2812;
164.4000;0.3248;7.2789;
164.7000;0.3289;7.2859;
165.0000;0.3297;7.2836;
165.3000;0.3264;7.2859;
165.6000;0.3272;7.2953;
165.9000;0.3272;7.2953;
166.2000;0.3256;7.2859;
166.5000;0.3297;7.2883;
166.8000;0.3280;7.2930;
167.1000;0.3264;7.2930;
167.4000;0.3280;7.2977;
167.7000;0.3256;7.3071;
168.0000;0.3240;7.3047;
168.3000;0.3362;7.3282;
168.6000;0.3272;7.3000;
168.9000;0.3305;7.3024;
169.2000;0.3354;7.3165;
169.5000;0.3248;7.2836;
169.8000;0.3305;7.2953;
170.1000;0.3264;7.2977;
170.4000;0.3264;7.2977;
170.7000;0.3248;7.2906;
171.0000;0.3289;7.3000;
171.3000;0.3280;7.2930;
171.6000;0.3297;7.2906;
171.9000;0.3297;7.3000;
172.2000;0.3280;7.2953;
172.5000;0.3272;7.2953;
172.8000;0.3264;7.2930;
173.1000;0.3264;7.2930;
173.4000;0.3272;7.2977;
173.7000;0.3305;7.3071;
174.0000;0.3289;7.3047;
174.3000;0.3264;7.2953;
174.6000;0.3272;7.2883;
174.9000;0.3321;7.2977;
175.2000;0.3305;7.2977;
175.5000;0.3280;7.2930;
175.8000;0.3248;7.2812;
176.1000;0.3272;7.2883;
176.4000;0.3272;7.2859;
176.7000;0.3264;7.2836;
177.0000;0.3264;7.2906;
177.3000;0.3280;7.3047;
177.6000;0.3289;7.3071;
177.9000;0.3264;7.2930;
178.2000;0.3289;7.3000;
178.5000;0.3240;7.2859;
178.8000;0.3272;7.2930;
179.1000;0.3272;7.3000;
179.4000;0.3289;7.3094;
179.7000;0.3207;7.3000;
180.0000;0.3256;7.3094;
180.3000;0.3272;7.3024;
180.6000;0.3256;7.2930;
180.9000;0.3264;7.2930;
181.2000;0.3272;7.2953;
181.5000;0.3297;7.2906;
181.8000;0.3280;7.2906;
182.1000;0.3199;7.2836;
182.4000;0.3256;7.2883;
182.7000;0.3289;7.2812;
183.0000;0.3272;7.2765;
183.3000;0.3272;7.2765;
183.6000;0.3289;7.2765;
183.9000;0.3280;7.2836;
184.2000;0.3272;7.2977;
184.5000;0.3280;7.3024;
184.8000;0.3297;7.3047;
185.1000;0.3280;7.3024;
185.4000;0.3297;7.3024;
185.7000;0.3264;7.2953;
186.0000;0.3280;7.2906;
186.3000;0.3289;7.3024;
186.6000;0.3289;7.2977;
186.9000;0.3280;7.3000;
187.2000;0.3264;7.2906;
187.5000;0.3297;7.3071;
187.8000;0.3321;7.3118;
188.1000;0.3297;7.3024;
188.4000;0.3289;7.3000;
188.7000;0.3272;7.2930;
189.0000;0.3289;7.2977;
189.3000;0.3280;7.2977;
189.6000;0.3232;7.2765;
189.9000;0.3256;7.2836;
190.2000;0.3272;7.2859;
190.5000;0.3264;7.2906;
190.8000;0.3232;7.2883;
191.1000;0.3264;7.2953;
191.4000;0.3280;7.2977;
191.7000;0.3272;7.3000;
192.0000;0.3256;7.2906;
192.3000;0.3289;7.2883;
192.6000;0.3264;7.2789;
192.9000;0.3280;7.2906;
193.2000;0.3272;7.2930;
193.5000;0.3264;7.2930;
193.8000;0.3305;7.2953;
194.1000;0.3232;7.2789;
194.4000;0.3280;7.2836;
194.7000;0.3256;7.2741;
195.0000;0.3272;7.2694;
195.3000;0.3289;7.2671;
195.6000;0.3272;7.2647;
195.9000;0.3272;7.2671;
196.2000;0.3280;7.2671;
196.5000;0.3297;7.2671;
196.8000;0.3280;7.2694;
197.1000;0.3289;7.2718;
197.4000;0.3272;7.2671;
197.7000;0.3232;7.2624;
198.0000;0.3232;7.2694;
198.3000;0.3305;7.2765;
198.6000;0.3256;7.2671;
198.9000;0.3256;7.2741;
199.2000;0.3329;7.2883;
199.5000;0.3289;7.2765;
199.8000;0.3272;7.2671;
200.1000;0.3272;7.2718;
200.4000;0.3289;7.2741;
200.7000;0.3272;7.2718;
201.0000;0.3272;7.2741;
201.3000;0.3289;7.2789;
201.6000;0.3289;7.2812;
201.9000;0.3289;7.2812;
202.2000;0.3264;7.2859;
202.5000;0.3248;7.2836;
202.8000;0.3264;7.2859;
203.1000;0.3199;7.2694;
203.4000;0.3264;7.2836;
203.7000;0.3272;7.2906;
204.0000;0.3272;7.2953;
204.3000;0.3280;7.3024;
204.6000;0.3264;7.3024;
204.9000;0.3354;7.3282;
205.2000;0.3280;7.3118;
205.5000;0.3207;7.2953;
205.8000;0.3289;7.3118;
206.1000;0.3264;7.3000;
206.4000;0.3280;7.2930;
206.7000;0.3280;7.2930;
207.0000;0.3297;7.2977;
207.3000;0.3305;7.3024;
207.6000;0.3321;7.3024;
207.9000;0.3305;7.2977;
208.2000;0.3289;7.2883;
208.5000;0.3313;7.2883;
208.8000;0.3280;7.2812;
209.1000;0.3297;7.2836;
209.4000;0.3272;7.2765;
209.7000;0.3272;7.2694;
210.0000;0.3272;7.2624;
210.3000;0.3297;7.2647;
210.6000;0.3280;7.2624;
210.9000;0.3297;7.2600;
211.2000;0.3289;7.2577;
211.5000;0.3289;7.2671;
211.8000;0.3297;7.2741;
212.1000;0.3280;7.2789;
212.4000;0.3280;7.2859;
212.7000;0.3240;7.2671;
213.0000;0.3272;7.2741;
213.3000;0.3289;7.2765;
213.6000;0.3378;7.3024;
213.9000;0.3272;7.2718;
214.2000;0.3280;7.2789;
214.5000;0.3297;7.2789;
214.8000;0.3256;7.2718;
215.1000;0.3248;7.2741;
215.4000;0.3272;7.2789;
215.7000;0.3256;7.2812;
216.0000;0.3337;7.3024;
216.3000;0.3264;7.2836;
216.6000;0.3297;7.2953;
216.9000;0.3321;7.3071;
217.2000;0.3280;7.2906;
217.5000;0.3289;7.2859;
217.8000;0.3264;7.2765;
218.1000;0.3280;7.2765;
218.4000;0.3272;7.2671;
218.7000;0.3248;7.2530;
219.0000;0.3280;7.2577;
219.3000;0.3272;7.2600;
219.6000;0.3297;7.2600;
219.9000;0.3280;7.2553;
220.2000;0.3264;7.2577;
220.5000;0.3289;7.2671;
220.8000;0.3329;7.2647;
221.1000;0.3297;7.2530;
221.4000;0.3297;7.2577;
221.7000;0.3280;7.2600;
222.0000;0.3297;7.2647;
222.3000;0.3297;7.2671;
222.6000;0.3289;7.2671;
222.9000;0.3272;7.2647;
223.2000;0.3280;7.2671;
223.5000;0.3280;7.2671;
223.8000;0.3264;7.2600;
224.1000;0.3313;7.2718;
224.4000;0.3289;7.2718;
224.7000;0.3280;7.2812;
225.0000;0.3305;7.2930;
225.3000;0.3272;7.2836;
225.6000;0.3280;7.2859;
225.9000;0.3346;7.2977;
226.2000;0.3240;7.2647;
226.5000;0.3280;7.2741;
226.8000;0.3280;7.2647;
227.1000;0.3297;7.2694;
227.4000;0.3280;7.2647;
227.7000;0.3264;7.2506;
228.0000;0.3264;7.2577;
228.3000;0.3280;7.2624;
228.6000;0.3280;7.2647;
228.9000;0.3280;7.2647;
229.2000;0.3264;7.2647;
229.5000;0.3264;7.2694;
229.8000;0.3280;7.2671;
230.1000;0.3232;7.2600;
230.4000;0.3280;7.2671;
230.7000;0.3289;7.2694;
231.0000;0.3297;7.2694;
231.3000;0.3272;7.2647;
231.6000;0.3280;7.2624;
231.9000;0.3313;7.2647;
232.2000;0.3313;7.2671;
232.5000;0.3280;7.2647;
232.8000;0.3313;7.2718;
233.1000;0.3289;7.2647;
233.4000;0.3297;7.2624;
233.7000;0.3313;7.2553;
234.0000;0.3289;7.2553;
234.3000;0.3289;7.2671;
234.6000;0.3297;7.2647;
234.9000;0.3313;7.2647;
235.2000;0.3305;7.2624;
235.5000;0.3272;7.2483;
235.8000;0.3305;7.2530;
236.1000;0.3272;7.2483;
236.4000;0.3280;7.2600;
236.7000;0.3264;7.2647;
237.0000;0.3232;7.2553;
237.3000;0.3280;7.2671;
237.6000;0.3305;7.2694;
237.9000;0.3272;7.2600;
238.2000;0.3280;7.2624;
238.5000;0.3240;7.2624;
238.8000;0.3264;7.2647;
239.1000;0.3256;7.2600;
239.4000;0.3280;7.2624;
239.7000;0.3280;7.2741;
240.0000;0.3297;7.2953;
240.3000;0.3289;7.2906;
240.6000;0.3272;7.2836;
240.9000;0.3289;7.2836;
241.2000;0.3297;7.2883;
241.5000;0.3272;7.2930;
241.8000;0.3297;7.3047;
242.1000;0.3289;7.3071;
242.4000;0.3272;7.3047;
242.7000;0.3297;7.3094;
243.0000;0.3280;7.3024;
243.3000;0.3264;7.2883;
243.6000;0.3272;7.2930;
243.9000;0.3289;7.3000;
244.2000;0.3248;7.2953;
244.5000;0.3280;7.2953;
244.8000;0.3280;7.2953;
245.1000;0.3264;7.2812;
245.4000;0.3280;7.2883;
245.7000;0.3297;7.2906;
246.0000;0.3289;7.2883;
246.3000;0.3280;7.2953;
246.6000;0.3248;7.2883;
246.9000;0.3297;7.2977;
247.2000;0.3280;7.2977;
247.5000;0.3337;7.3071;
247.8000;0.3297;7.3024;
248.1000;0.3313;7.2977;
248.4000;0.3280;7.2836;
248.7000;0.3280;7.2859;
249.0000;0.3280;7.3024;
249.3000;0.3280;7.3000;
249.6000;0.3289;7.2977;
249.9000;0.3305;7.2977;
250.2000;0.3346;7.3094;
250.5000;0.3280;7.2930;
250.8000;0.3280;7.2883;
251.1000;0.3313;7.2977;
251.4000;0.3297;7.2953;
251.7000;0.3313;7.3024;
252.0000;0.3329;7.3141;
252.3000;0.3354;7.3259;
252.6000;0.3297;7.3094;
252.9000;0.3305;7.3141;
253.2000;0.3272;7.3118;
253.5000;0.3289;7.3188;
253.8000;0.3297;7.3141;
254.1000;0.3280;7.3071;
254.4000;0.3272;7.3118;
254.7000;0.3280;7.3047;
255.0000;0.3280;7.3024;
255.3000;0.3297;7.3165;
255.6000;0.3297;7.3118;
255.9000;0.3346;7.3235;
256.2000;0.3297;7.3165;
256.5000;0.3305;7.3165;
256.8000;0.3297;7.3094;
257.1000;0.3289;7.3094;
257.4000;0.3289;7.3024;
257.7000;0.3337;7.3141;
258.0000;0.3280;7.3000;
258.3000;0.3223;7.2906;
258.6000;0.3289;7.3071;
258.9000;0.3297;7.3118;
259.2000;0.3280;7.3047;
259.5000;0.3272;7.2977;
259.8000;0.3280;7.2953;
260.1000;0.3232;7.2789;
260.4000;0.3297;7.2930;
260.7000;0.3289;7.2977;
261.0000;0.3280;7.3094;
261.3000;0.3297;7.3141;
261.6000;0.3297;7.3118;
261.9000;0.3289;7.3141;
262.2000;0.3289;7.3118;
262.5000;0.3191;7.2836;
262.8000;0.3313;7.2977;
263.1000;0.3280;7.2765;
263.4000;0.3280;7.2765;
263.7000;0.3272;7.2741;
264.0000;0.3297;7.2859;
264.3000;0.3305;7.2859;
264.6000;0.3280;7.2812;
264.9000;0.3264;7.2789;
265.2000;0.3280;7.2883;
265.5000;0.3297;7.2930;
265.8000;0.3232;7.2859;
266.1000;0.3264;7.2883;
266.4000;0.3297;7.2812;
266.7000;0.3289;7.2836;
267.0000;0.3305;7.2906;
267.3000;0.3280;7.2836;
267.6000;0.3280;7.2812;
267.9000;0.3280;7.2836;
268.2000;0.3321;7.2953;
268.5000;0.3280;7.2812;
268.8000;0.3264;7.2812;
269.1000;0.3313;7.2859;
269.4000;0.3272;7.2812;
269.7000;0.3264;7.2812;
270.0000;0.3280;7.2953;
270.3000;0.3297;7.2977;
270.6000;0.3232;7.2812;
270.9000;0.3264;7.2883;
271.2000;0.3297;7.2953;
271.5000;0.3346;7.3071;
271.8000;0.3289;7.2977;
272.1000;0.3321;7.3047;
272.4000;0.3346;7.3094;
272.7000;0.3272;7.2930;
273.0000;0.3289;7.2953;
273.3000;0.3305;7.2977;
273.6000;0.3289;7.2836;
273.9000;0.3280;7.2765;
274.2000;0.3289;7.2812;
274.5000;0.3297;7.2789;
274.8000;0.3272;7.2718;
275.1000;0.3256;7.2647;
275.4000;0.3240;7.2624;
275.7000;0.3289;7.2741;
276.0000;0.3289;7.2812;
276.3000;0.3305;7.2859;
276.6000;0.3297;7.2812;
276.9000;0.3272;7.2836;
277.2000;0.3264;7.2859;
277.5000;0.3305;7.2953;
277.8000;0.3297;7.2836;
278.1000;0.3305;7.2836;
278.4000;0.3272;7.2741;
278.7000;0.3289;7.2812;
279.0000;0.3280;7.2789;
279.3000;0.3313;7.2883;
279.6000;0.3280;7.2789;
279.9000;0.3223;7.2647;
280.2000;0.3305;7.2812;
280.5000;0.3272;7.2836;
280.8000;0.3289;7.2812;
281.1000;0.3280;7.2789;
281.4000;0.3280;7.2836;
281.7000;0.3223;7.2647;
282.0000;0.3272;7.2765;
282.3000;0.3272;7.2718;
282.6000;0.3248;7.2671;
282.9000;0.3297;7.2741;
283.2000;0.3256;7.2765;
283.5000;0.3272;7.2836;
283.8000;0.3280;7.2953;
284.1000;0.3264;7.2930;
284.4000;0.3280;7.2977;
284.7000;0.3264;7.2977;
285.0000;0.3280;7.3094;
285.3000;0.3272;7.3000;
285.6000;0.3264;7.2906;
285.9000;0.3264;7.2906;
286.2000;0.3305;7.3000;
286.5000;0.3280;7.2930;
286.8000;0.3240;7.2883;
287.1000;0.3280;7.3047;
287.4000;0.3272;7.3047;
287.7000;0.3321;7.3212;
288.0000;0.3280;7.3188;
288.3000;0.3280;7.3141;
288.6000;0.3207;7.2883;
288.9000;0.3272;7.3141;
289.2000;0.3280;7.3165;
289.5000;0.3272;7.3118;
289.8000;0.3280;7.3047;
290.1000;0.3280;7.2953;
290.4000;0.3280;7.2836;
290.7000;0.3289;7.2859;
291.0000;0.3280;7.2883;
291.3000;0.3297;7.2906;
291.6000;0.3280;7.2906;
291.9000;0.3280;7.2906;
292.2000;0.3321;7.2953;
292.5000;0.3297;7.2859;
292.8000;0.3289;7.2741;
293.1000;0.3289;7.2671;
293.4000;0.3305;7.2718;
293.7000;0.3272;7.2671;
294.0000;0.3289;7.2718;
294.3000;0.3297;7.2859;
294.6000;0.3297;7.2883;
294.9000;0.3289;7.2906;
295.2000;0.3313;7.2930;
295.5000;0.3313;7.3024;
295.8000;0.3289;7.2977;
296.1000;0.3297;7.3000;
296.4000;0.3329;7.3094;
296.7000;0.3272;7.2906;
297.0000;0.3289;7.2906;
297.3000;0.3264;7.2836;
297.6000;0.3264;7.2836;
297.9000;0.3272;7.2812;
298.2000;0.3280;7.2812;
298.5000;0.3354;7.3000;
298.8000;0.3305;7.2859;
299.1000;0.3289;7.2812;
299.4000;0.3280;7.2859;
299.7000;0.3289;7.2859;
300.0000;0.3272;7.2812;
300.3000;0.3272;7.2812;
300.6000;0.3280;7.2765;
300.9000;0.3272;7.2812;
301.2000;0.3305;7.2883;
301.5000;0.3313;7.2812;
301.8000;0.3264;7.2836;
302.1000;0.3297;7.2953;
302.4000;0.3289;7.2930;
302.7000;0.3329;7.3071;
303.0000;0.3289;7.2859;
303.3000;0.3280;7.2836;
303.6000;0.3272;7.2883;
303.9000;0.3289;7.3000;
304.2000;0.3256;7.2906;
304.5000;0.3240;7.2906;
304.8000;0.3289;7.3000;
305.1000;0.3289;7.3047;
305.4000;0.3264;7.3000;
305.7000;0.3264;7.3047;
306.0000;0.3297;7.3071;
306.3000;0.3329;7.3165;
306.6000;0.3240;7.2836;
306.9000;0.3289;7.2883;
307.2000;0.3305;7.2906;
307.5000;0.3289;7.2836;
307.8000;0.3346;7.2977;
308.1000;0.3289;7.2812;
308.4000;0.3313;7.2836;
308.7000;0.3232;7.2765;
309.0000;0.3289;7.2930;
309.3000;0.3264;7.2977;
309.6000;0.3264;7.3071;
309.9000;0.3297;7.3188;
310.2000;0.3297;7.3165;
310.5000;0.3289;7.3071;
310.8000;0.3207;7.2859;
311.1000;0.3280;7.2836;
311.4000;0.3313;7.2906;
311.7000;0.3175;7.2600;
312.0000;0.3272;7.2789;
312.3000;0.3305;7.2812;
312.6000;0.3280;7.2671;
312.9000;0.3280;7.2624;
313.2000;0.3289;7.2577;
313.5000;0.3289;7.2577;
313.8000;0.3305;7.2694;
314.1000;0.3289;7.2718;
314.4000;0.3272;7.2765;
314.7000;0.3289;7.2671;
315.0000;0.3305;7.2671;
315.3000;0.3289;7.2694;
315.6000;0.3280;7.2671;
315.9000;0.3280;7.2694;
316.2000;0.3297;7.2741;
316.5000;0.3280;7.2718;
316.8000;0.3289;7.2694;
317.1000;0.3297;7.2741;
317.4000;0.3313;7.2836;
317.7000;0.3297;7.2859;
318.0000;0.3305;7.2812;
318.3000;0.3289;7.2741;
318.6000;0.3289;7.2836;
318.9000;0.3297;7.2741;
319.2000;0.3289;7.2624;
319.5000;0.3280;7.2671;
319.8000;0.3297;7.2741;
320.1000;0.3280;7.2647;
320.4000;0.3264;7.2600;
320.7000;0.3272;7.2530;
321.0000;0.3280;7.2577;
321.3000;0.3272;7.2600;
321.6000;0.3240;7.2506;
321.9000;0.3272;7.2671;
322.2000;0.3272;7.2741;
322.5000;0.3305;7.2789;
322.8000;0.3280;7.2671;
323.1000;0.3280;7.2694;
323.4000;0.3280;7.2671;
323.7000;0.3305;7.2765;
324.0000;0.3321;7.2718;
324.3000;0.3297;7.2694;
324.6000;0.3297;7.2741;
324.9000;0.3280;7.2671;
325.2000;0.3280;7.2671;
325.5000;0.3280;7.2789;
325.8000;0.3272;7.2671;
326.1000;0.3289;7.2741;
326.4000;0.3305;7.2812;
326.7000;0.3256;7.2789;
327.0000;0.3289;7.2789;
327.3000;0.3297;7.2859;
327.6000;0.3329;7.2977;
327.9000;0.3313;7.3047;
328.2000;0.3297;7.2930;
328.5000;0.3280;7.2883;
328.8000;0.3329;7.2836;
329.1000;0.3346;7.2812;
329.4000;0.3305;7.2812;
329.7000;0.3248;7.2671;
330.0000;0.3272;7.2836;
330.3000;0.3321;7.2883;
330.6000;0.3321;7.2883;
330.9000;0.3232;7.2694;
331.2000;0.3305;7.2906;
331.5000;0.3289;7.2836;
331.8000;0.3280;7.2836;
332.1000;0.3240;7.2741;
332.4000;0.3272;7.2718;
332.7000;0.3297;7.2789;
333.0000;0.3280;7.2694;
333.3000;0.3354;7.2859;
333.6000;0.3313;7.2741;
333.9000;0.3272;7.2647;
334.2000;0.3272;7.2647;
334.5000;0.3272;7.2600;
334.8000;0.3256;7.2577;
335.1000;0.3305;7.2718;
335.4000;0.3280;7.2718;
335.7000;0.3280;7.2765;
336.0000;0.3175;7.2624;
336.3000;0.3280;7.2906;
336.6000;0.3280;7.2930;
336.9000;0.3232;7.2789;
337.2000;0.3272;7.2930;
337.5000;0.3280;7.2953;
337.8000;0.3297;7.3024;
338.1000;0.3289;7.2930;
338.4000;0.3305;7.2953;
338.7000;0.3280;7.2859;
339.0000;0.3272;7.2812;
339.3000;0.3280;7.2906;
339.6000;0.3272;7.2930;
339.9000;0.3256;7.2765;
340.2000;0.3280;7.2906;
340.5000;0.3280;7.2812;
340.8000;0.3264;7.2765;
341.1000;0.3280;7.2741;
341.4000;0.3289;7.2694;
341.7000;0.3297;7.2671;
342.0000;0.3297;7.2671;
342.3000;0.3280;7.2647;
342.6000;0.3289;7.2694;
342.9000;0.3321;7.2765;
343.2000;0.3289;7.2647;
343.5000;0.3264;7.2553;
343.8000;0.3280;7.2600;
344.1000;0.3280;7.2600;
344.4000;0.3264;7.2553;
344.7000;0.3289;7.2624;
345.0000;0.3223;7.2530;
345.3000;0.3289;7.2694;
345.6000;0.3272;7.2694;
345.9000;0.3280;7.2741;
346.2000;0.3289;7.2765;
346.5000;0.3289;7.2789;
346.8000;0.3280;7.2765;
347.1000;0.3289;7.2789;
347.4000;0.3289;7.2741;
347.7000;0.3297;7.2741;
348.0000;0.3223;7.2553;
348.3000;0.3289;7.2741;
348.6000;0.3280;7.2883;
348.9000;0.3272;7.2859;
349.2000;0.3280;7.2741;
349.5000;0.3289;7.2671;
349.8000;0.3280;7.2647;
350.1000;0.3272;7.2741;
350.4000;0.3272;7.2812;
350.7000;0.3264;7.2741;
351.0000;0.3289;7.2859;
351.3000;0.3272;7.2812;
351.6000;0.3297;7.2906;
351.9000;0.3289;7.2765;
352.2000;0.3289;7.2859;
352.5000;0.3321;7.2930;
352.8000;0.3321;7.2859;
353.1000;0.3280;7.2836;
353.4000;0.3289;7.2812;
353.7000;0.3297;7.2741;
354.0000;0.3305;7.2789;
354.3000;0.3346;7.2883;
354.6000;0.3321;7.2765;
354.9000;0.3289;7.2789;
355.2000;0.3289;7.2812;
355.5000;0.3305;7.2883;
355.8000;0.3313;7.2836;
356.1000;0.3289;7.2789;
356.4000;0.3280;7.2741;
356.7000;0.3289;7.2624;
357.0000;0.3313;7.2671;
357.3000;0.3305;7.2647;
357.6000;0.3297;7.2624;
357.9000;0.3313;7.2600;
358.2000;0.3313;7.2647;
358.5000;0.3305;7.2624;
358.8000;0.3264;7.2600;
359.1000;0.3297;7.2765;
359.4000;0.3289;7.2741;
359.7000;0.3289;7.2741;
360.0000;0.3280;7.2718;
360.3000;0.3272;7.2624;
360.6000;0.3272;7.2647;
360.9000;0.3289;7.2718;
361.2000;0.3354;7.2859;
361.5000;0.3264;7.2741;
361.8000;0.3362;7.3094;
362.1000;0.3248;7.2859;
362.4000;0.3280;7.2883;
362.7000;0.3289;7.2836;
363.0000;0.3272;7.2812;
363.3000;0.3289;7.2883;
363.6000;0.3280;7.2906;
363.9000;0.3394;7.3212;
364.2000;0.3337;7.3047;
364.5000;0.3289;7.2836;
364.8000;0.3264;7.2789;
365.1000;0.3280;7.2836;
365.4000;0.3240;7.2647;
365.7000;0.3289;7.2765;
366.0000;0.3305;7.2789;
366.3000;0.3297;7.2765;
366.6000;0.3289;7.2789;
366.9000;0.3329;7.2906;
367.2000;0.3289;7.2836;
367.5000;0.3215;7.2789;
367.8000;0.3264;7.2930;
368.1000;0.3272;7.3000;
368.4000;0.3370;7.3306;
368.7000;0.3297;7.3118;
369.0000;0.3272;7.3000;
369.3000;0.3280;7.2930;
369.6000;0.3280;7.2953;
369.9000;0.3297;7.2906;
370.2000;0.3264;7.2859;
370.5000;0.3272;7.2812;
370.8000;0.3305;7.2765;
371.1000;0.3305;7.2718;
371.4000;0.3313;7.2765;
371.7000;0.3272;7.2836;
372.0000;0.3297;7.2977;
372.3000;0.3264;7.3000;
372.6000;0.3280;7.3024;
372.9000;0.3240;7.2859;
373.2000;0.3386;7.3094;
373.5000;0.3280;7.2883;
373.8000;0.3215;7.2765;
374.1000;0.3305;7.2906;
374.4000;0.3297;7.2765;
374.7000;0.3289;7.2765;
375.0000;0.3297;7.2647;
375.3000;0.3313;7.2647;
375.6000;0.3346;7.2718;
375.9000;0.3280;7.2553;
376.2000;0.3280;7.2600;
376.5000;0.3272;7.2506;
376.8000;0.3272;7.2530;
377.1000;0.3313;7.2647;
377.4000;0.3280;7.2624;
377.7000;0.3280;7.2671;
378.0000;0.3289;7.2789;
378.3000;0.3272;7.2836;
378.6000;0.3297;7.2883;
378.9000;0.3289;7.2859;
379.2000;0.3297;7.2859;
379.5000;0.3305;7.2836;
379.8000;0.3297;7.2718;
380.1000;0.3272;7.2741;
380.4000;0.3280;7.2765;
380.7000;0.3280;7.2765;
381.0000;0.3223;7.2647;
381.3000;0.3280;7.2836;
381.6000;0.3297;7.2859;
381.9000;0.3289;7.2765;
382.2000;0.3199;7.2530;
382.5000;0.3305;7.2741;
382.8000;0.3394;7.2930;
383.1000;0.3305;7.2624;
383.4000;0.3321;7.2694;
383.7000;0.3305;7.2671;
384.0000;0.3289;7.2671;
384.3000;0.3313;7.2647;
384.6000;0.3297;7.2671;
384.9000;0.3280;7.2694;
385.2000;0.3256;7.2694;
385.5000;0.3280;7.2812;
385.8000;0.3280;7.2741;
386.1000;0.3362;7.2906;
386.4000;0.3297;7.2718;
386.7000;0.3272;7.2741;
387.0000;0.3272;7.2789;
387.3000;0.3313;7.2812;
387.6000;0.3297;7.2812;
387.9000;0.3305;7.2789;
388.2000;0.3248;7.2671;
388.5000;0.3289;7.2789;
388.8000;0.3297;7.2789;
389.1000;0.3280;7.2765;
389.4000;0.3289;7.2671;
389.7000;0.3280;7.2624;
390.0000;0.3313;7.2765;
390.3000;0.3337;7.2930;
390.6000;0.3264;7.2859;
390.9000;0.3305;7.3000;
391.2000;0.3280;7.2977;
391.5000;0.3297;7.3000;
391.8000;0.3280;7.2906;
392.1000;0.3272;7.2836;
392.4000;0.3289;7.2836;
392.7000;0.3248;7.2765;
393.0000;0.3280;7.2859;
393.3000;0.3289;7.2859;
393.6000;0.3215;7.2694;
393.9000;0.3305;7.2883;
394.2000;0.3280;7.2906;
394.5000;0.3280;7.2836;
394.8000;0.3280;7.2906;
395.1000;0.3272;7.2859;
395.4000;0.3289;7.2789;
395.7000;0.3272;7.2789;
396.0000;0.3305;7.2859;
396.3000;0.3297;7.2718;
396.6000;0.3305;7.2718;
396.9000;0.3289;7.2671;
397.2000;0.3321;7.2741;
397.5000;0.3329;7.2765;
397.8000;0.3297;7.2694;
398.1000;0.3305;7.2741;
398.4000;0.3297;7.2694;
398.7000;0.3264;7.2694;
399.0000;0.3321;7.2812;
399.3000;0.3321;7.2741;
399.6000;0.3289;7.2694;
399.9000;0.3264;7.2577;
400.2000;0.3378;7.2836;
400.5000;0.3329;7.2789;
400.8000;0.3248;7.2671;
401.1000;0.3297;7.2789;
401.4000;0.3289;7.2812;
401.7000;0.3248;7.2694;
402.0000;0.3305;7.2859;
402.3000;0.3297;7.2930;
402.6000;0.3199;7.2718;
402.9000;0.3313;7.2953;
403.2000;0.3272;7.2930;
403.5000;0.3280;7.2930;
403.8000;0.3297;7.2906;
404.1000;0.3297;7.2906;
404.4000;0.3272;7.2789;
404.7000;0.3264;7.2765;
405.0000;0.3280;7.2812;
405.3000;0.3337;7.3000;
405.6000;0.3289;7.2906;
405.9000;0.3289;7.2812;
406.2000;0.3256;7.2765;
406.5000;0.3289;7.2906;
406.8000;0.3305;7.2953;
407.1000;0.3289;7.2930;
407.4000;0.3297;7.2906;
407.7000;0.3321;7.2906;
408.0000;0.3264;7.2836;
408.3000;0.3280;7.2859;
408.6000;0.3272;7.2812;
408.9000;0.3272;7.2883;
409.2000;0.3272;7.2883;
409.5000;0.3280;7.2859;
409.8000;0.3272;7.2765;
410.1000;0.3289;7.2741;
410.4000;0.3297;7.2741;
410.7000;0.3297;7.2789;
411.0000;0.3280;7.2718;
411.3000;0.3272;7.2671;
411.6000;0.3337;7.2812;
411.9000;0.3280;7.2741;
412.2000;0.3297;7.2765;
412.5000;0.3289;7.2789;
412.8000;0.3297;7.2789;
413.1000;0.3297;7.2812;
413.4000;0.3232;7.2718;
413.7000;0.3305;7.2977;
414.0000;0.3264;7.2953;
414.3000;0.3313;7.2953;
414.6000;0.3346;7.3024;
414.9000;0.3280;7.2859;
415.2000;0.3289;7.2906;
415.5000;0.3289;7.2836;
415.8000;0.3297;7.2859;
416.1000;0.3272;7.2765;
416.4000;0.3297;7.2836;
416.7000;0.3280;7.2930;
417.0000;0.3297;7.2953;
417.3000;0.3289;7.2906;
417.6000;0.3232;7.2883;
417.9000;0.3313;7.3094;
418.2000;0.3289;7.3024;
418.5000;0.3289;7.3094;
418.8000;0.3289;7.3000;
419.1000;0.3313;7.3024;
419.4000;0.3289;7.2930;
419.7000;0.3272;7.2859;
420.0000;0.3280;7.2859;
420.3000;0.3289;7.2812;
420.6000;0.3321;7.2859;
420.9000;0.3289;7.2836;
421.2000;0.3297;7.2789;
421.5000;0.3313;7.2859;
421.8000;0.3289;7.2789;
422.1000;0.3272;7.2718;
422.4000;0.3240;7.2647;
422.7000;0.3297;7.2741;
423.0000;0.3289;7.2694;
423.3000;0.3280;7.2741;
423.6000;0.3256;7.2577;
423.9000;0.3248;7.2671;
424.2000;0.3289;7.2812;
424.5000;0.3297;7.2741;
424.8000;0.3280;7.2718;
425.1000;0.3289;7.2765;
425.4000;0.3280;7.2671;
425.7000;0.3272;7.2694;
426.0000;0.3280;7.2694;
426.3000;0.3346;7.2836;
426.6000;0.3272;7.2647;
426.9000;0.3313;7.2741;
427.2000;0.3280;7.2671;
427.5000;0.3289;7.2671;
427.8000;0.3280;7.2694;
428.1000;0.3297;7.2718;
428.4000;0.3272;7.2647;
428.7000;0.3280;7.2647;
429.0000;0.3289;7.2718;
429.3000;0.3305;7.2883;
429.6000;0.3297;7.2741;
429.9000;0.3289;7.2694;
430.2000;0.3289;7.2694;
430.5000;0.3297;7.2600;
430.8000;0.3280;7.2647;
431.1000;0.3297;7.2671;
431.4000;0.3280;7.2741;
431.7000;0.3305;7.2765;
432.0000;0.3329;7.2812;
432.3000;0.3305;7.2718;
432.6000;0.3297;7.2694;
432.9000;0.3305;7.2718;
433.2000;0.3297;7.2694;
433.5000;0.3297;7.2789;
433.8000;0.3313;7.2883;
434.1000;0.3280;7.2789;
434.4000;0.3280;7.2812;
434.7000;0.3297;7.2812;
435.0000;0.3280;7.2718;
435.3000;0.3289;7.2694;
435.6000;0.3297;7.2765;
435.9000;0.3297;7.2671;
436.2000;0.3256;7.2530;
436.5000;0.3289;7.2577;
436.8000;0.3272;7.2600;
437.1000;0.3280;7.2647;
437.4000;0.3329;7.2741;
437.7000;0.3280;7.2577;
438.0000;0.3297;7.2553;
438.3000;0.3280;7.2530;
438.6000;0.3289;7.2530;
438.9000;0.3280;7.2600;
439.2000;0.3264;7.2600;
439.5000;0.3289;7.2600;
439.8000;0.3240;7.2459;
440.1000;0.3289;7.2624;
440.4000;0.3280;7.2624;
440.7000;0.3272;7.2530;
441.0000;0.3272;7.2600;
441.3000;0.3256;7.2530;
441.6000;0.3256;7.2436;
441.9000;0.3256;7.2459;
442.2000;0.3280;7.2483;
442.5000;0.3297;7.2459;
442.8000;0.3289;7.2483;
443.1000;0.3280;7.2459;
443.4000;0.3297;7.2483;
443.7000;0.3280;7.2412;
444.0000;0.3305;7.2459;
444.3000;0.3289;7.2506;
444.6000;0.3313;7.2600;
444.9000;0.3305;7.2530;
445.2000;0.3272;7.2553;
445.5000;0.3264;7.2624;
445.8000;0.3280;7.2647;
446.1000;0.3305;7.2647;
446.4000;0.3289;7.2577;
446.7000;0.3289;7.2577;
447.0000;0.3289;7.2530;
447.3000;0.3305;7.2624;
447.6000;0.3264;7.2530;
447.9000;0.3289;7.2600;
448.2000;0.3297;7.2671;
448.5000;0.3289;7.2506;
448.8000;0.3248;7.2365;
449.1000;0.3289;7.2530;
449.4000;0.3289;7.2506;
449.7000;0.3289;7.2506;
450.0000;0.3337;7.2671;
450.3000;0.3280;7.2600;
450.6000;0.3264;7.2577;
450.9000;0.3272;7.2624;
451.2000;0.3280;7.2671;
451.5000;0.3289;7.2671;
451.8000;0.3280;7.2671;
452.1000;0.3280;7.2718;
452.4000;0.3289;7.2694;
452.7000;0.3297;7.2647;
453.0000;0.3264;7.2577;
453.3000;0.3289;7.2647;
453.6000;0.3289;7.2694;
453.9000;0.3289;7.2718;
454.2000;0.3289;7.2718;
454.5000;0.3272;7.2624;
454.8000;0.3289;7.2553;
455.1000;0.3264;7.2530;
455.4000;0.3297;7.2553;
455.7000;0.3264;7.2506;
456.0000;0.3297;7.2624;
456.3000;0.3289;7.2577;
456.6000;0.3256;7.2600;
456.9000;0.3289;7.2671;
457.2000;0.3289;7.2671;
457.5000;0.3272;7.2647;
457.8000;0.3280;7.2624;
458.1000;0.3297;7.2600;
458.4000;0.3232;7.2483;
458.7000;0.3297;7.2671;
459.0000;0.3280;7.2647;
459.3000;0.3280;7.2600;
459.6000;0.3280;7.2600;
459.9000;0.3305;7.2600;
460.2000;0.3280;7.2577;
460.5000;0.3264;7.2647;
460.8000;0.3272;7.2741;
461.1000;0.3280;7.2741;
461.4000;0.3272;7.2647;
461.7000;0.3280;7.2624;
462.0000;0.3272;7.2647;
462.3000;0.3272;7.2694;
462.6000;0.3297;7.2694;
462.9000;0.3289;7.2647;
463.2000;0.3215;7.2483;
463.5000;0.3297;7.2765;
463.8000;0.3313;7.2765;
464.1000;0.3305;7.2765;
464.4000;0.3272;7.2859;
464.7000;0.3264;7.2859;
465.0000;0.3289;7.2906;
465.3000;0.3272;7.2883;
465.6000;0.3264;7.2836;
465.9000;0.3305;7.2883;
466.2000;0.3289;7.2859;
466.5000;0.3305;7.2859;
466.8000;0.3305;7.2906;
467.1000;0.3289;7.2836;
467.4000;0.3223;7.2694;
467.7000;0.3280;7.2789;
468.0000;0.3272;7.2765;
468.3000;0.3272;7.2812;
468.6000;0.3289;7.2718;
468.9000;0.3297;7.2718;
469.2000;0.3280;7.2718;
469.5000;0.3223;7.2647;
469.8000;0.3272;7.2812;
470.1000;0.3321;7.3000;
470.4000;0.3289;7.2953;
470.7000;0.3289;7.2906;
471.0000;0.3248;7.2883;
471.3000;0.3280;7.2977;
471.6000;0.3272;7.2906;
471.9000;0.3215;7.2789;
472.2000;0.3264;7.2930;
472.5000;0.3297;7.2883;
472.8000;0.3289;7.2930;
473.1000;0.3264;7.2859;
473.4000;0.3280;7.2836;
473.7000;0.3272;7.2741;
474.0000;0.3362;7.2953;
474.3000;0.3256;7.2859;
474.6000;0.3280;7.2859;
474.9000;0.3289;7.2859;
475.2000;0.3289;7.2812;
475.5000;0.3297;7.2812;
475.8000;0.3264;7.2671;
476.1000;0.3297;7.2765;
476.4000;0.3280;7.2883;
476.7000;0.3289;7.2812;
477.0000;0.3256;7.2812;
477.3000;0.3272;7.2789;
477.6000;0.3264;7.2812;
477.9000;0.3232;7.2859;
478.2000;0.3354;7.3141;
478.5000;0.3280;7.2977;
478.8000;0.3280;7.2953;
479.1000;0.3280;7.2883;
479.4000;0.3272;7.2930;
479.7000;0.3289;7.3000;
480.0000;0.3272;7.3000;
480.3000;0.3313;7.3118;
480.6000;0.3232;7.2906;
480.9000;0.3289;7.2906;
481.2000;0.3297;7.2859;
481.5000;0.3289;7.2671;
481.8000;0.3280;7.2694;
482.1000;0.3256;7.2671;
482.4000;0.3272;7.2812;
482.7000;0.3289;7.2812;
483.0000;0.3272;7.2789;
483.3000;0.3280;7.2718;
483.6000;0.3272;7.2741;
483.9000;0.3289;7.2718;
484.2000;0.3313;7.2718;
484.5000;0.3362;7.2812;
484.8000;0.3289;7.2694;
485.1000;0.3289;7.2671;
485.4000;0.3256;7.2718;
485.7000;0.3289;7.2718;
486.0000;0.3256;7.2718;
486.3000;0.3313;7.2836;
486.6000;0.3272;7.2765;
486.9000;0.3264;7.2765;
487.2000;0.3297;7.2765;
487.5000;0.3280;7.2836;
487.8000;0.3305;7.2859;
488.1000;0.3297;7.2812;
488.4000;0.3305;7.2859;
488.7000;0.3272;7.2859;
489.0000;0.3289;7.2953;
489.3000;0.3297;7.2930;
489.6000;0.3240;7.2741;
489.9000;0.3280;7.2812;
490.2000;0.3272;7.2883;
490.5000;0.3272;7.2906;
490.8000;0.3289;7.3047;
491.1000;0.3289;7.3047;
491.4000;0.3297;7.3000;
491.7000;0.3280;7.3024;
492.0000;0.3289;7.3047;
492.3000;0.3289;7.2953;
492.6000;0.3272;7.2859;
492.9000;0.3280;7.2906;
493.2000;0.3305;7.2859;
493.5000;0.3264;7.2812;
493.8000;0.3264;7.2812;
494.1000;0.3297;7.2930;
494.4000;0.3280;7.3000;
494.7000;0.3248;7.2836;
495.0000;0.3280;7.2765;
495.3000;0.3329;7.2953;
495.6000;0.3313;7.2906;
495.9000;0.3297;7.2883;
496.2000;0.3378;7.3071;
496.5000;0.3313;7.2883;
496.8000;0.3256;7.2812;
497.1000;0.3297;7.2930;
497.4000;0.3280;7.2883;
497.7000;0.3272;7.2883;
498.0000;0.3256;7.2906;
498.3000;0.3280;7.2977;
498.6000;0.3175;7.2671;
498.9000;0.3297;7.3024;
499.2000;0.3289;7.3047;
499.5000;0.3280;7.3024;
499.8000;0.3280;7.3000;
500.1000;0.3289;7.2977;
500.4000;0.3280;7.2812;
500.7000;0.3305;7.2812;
501.0000;0.3305;7.2859;
501.3000;0.3280;7.2812;
501.6000;0.3289;7.2789;
501.9000;0.3297;7.2765;
502.2000;0.3289;7.2765;
502.5000;0.3280;7.2741;
502.8000;0.3264;7.2718;
503.1000;0.3337;7.2977;
503.4000;0.3289;7.2953;
503.7000;0.3289;7.2930;
504.0000;0.3297;7.2836;
504.3000;0.3297;7.2765;
504.6000;0.3272;7.2671;
504.9000;0.3297;7.2789;
505.2000;0.3297;7.2836;
505.5000;0.3305;7.2977;
505.8000;0.3289;7.2953;
506.1000;0.3280;7.2883;
506.4000;0.3264;7.2859;
506.7000;0.3280;7.2906;
507.0000;0.3289;7.2953;
507.3000;0.3297;7.2953;
507.6000;0.3272;7.2836;
507.9000;0.3280;7.2789;
508.2000;0.3280;7.2977;
508.5000;0.3280;7.2977;
508.8000;0.3280;7.3024;
509.1000;0.3289;7.2953;
509.4000;0.3272;7.2883;
509.7000;0.3329;7.2930;
510.0000;0.3280;7.2765;
510.3000;0.3289;7.2812;
510.6000;0.3289;7.2859;
510.9000;0.3289;7.2836;
511.2000;0.3215;7.2600;
511.5000;0.3264;7.2741;
511.8000;0.3305;7.2836;
512.1000;0.3280;7.2765;
512.4000;0.3280;7.2789;
512.7000;0.3403;7.3071;
513.0000;0.3280;7.2765;
513.3000;0.3289;7.2789;
513.6000;0.3305;7.2883;
513.9000;0.3297;7.2859;
514.2000;0.3264;7.2789;
514.5000;0.3305;7.2930;
514.8000;0.3272;7.2883;
515.1000;0.3256;7.2906;
515.4000;0.3280;7.2953;
515.7000;0.3264;7.2953;
516.0000;0.3305;7.3024;
516.3000;0.3280;7.2859;
516.6000;0.3280;7.2765;
516.9000;0.3305;7.2859;
517.2000;0.3329;7.2930;
517.5000;0.3289;7.2812;
517.8000;0.3280;7.2883;
518.1000;0.3264;7.2765;
518.4000;0.3289;7.2741;
518.7000;0.3223;7.2671;
519.0000;0.3329;7.3047;
519.3000;0.3272;7.2883;
519.6000;0.3329;7.3024;
519.9000;0.3280;7.2836;
520.2000;0.3321;7.2906;
520.5000;0.3264;7.2741;
520.8000;0.3264;7.2741;
521.1000;0.3256;7.2812;
521.4000;0.3264;7.2836;
521.7000;0.3264;7.2953;
522.0000;0.3272;7.2977;
522.3000;0.3280;7.3024;
522.6000;0.3264;7.3024;
522.9000;0.3280;7.3118;
523.2000;0.3346;7.3212;
523.5000;0.3289;7.2953;
523.8000;0.3280;7.2977;
524.1000;0.3272;7.2953;
524.4000;0.3280;7.2836;
524.7000;0.3305;7.2859;
525.0000;0.3232;7.2789;
525.3000;0.3297;7.2906;
525.6000;0.3272;7.2906;
525.9000;0.3321;7.3024;
526.2000;0.3280;7.2836;
526.5000;0.3305;7.2977;
526.8000;0.3297;7.3094;
527.1000;0.3297;7.3141;
527.4000;0.3297;7.3118;
527.7000;0.3305;7.3024;
528.0000;0.3362;7.3141;
528.3000;0.3305;7.3047;
528.6000;0.3289;7.3024;
528.9000;0.3280;7.2930;
529.2000;0.3289;7.2906;
529.5000;0.3305;7.2906;
529.8000;0.3297;7.2789;
530.1000;0.3289;7.2812;
530.4000;0.3264;7.2741;
530.7000;0.3272;7.2812;
531.0000;0.3272;7.2883;
531.3000;0.3272;7.2859;
531.6000;0.3264;7.2836;
531.9000;0.3272;7.2883;
532.2000;0.3297;7.2906;
532.5000;0.3289;7.2906;
532.8000;0.3289;7.2859;
533.1000;0.3248;7.2859;
533.4000;0.3256;7.2812;
533.7000;0.3297;7.2930;
534.0000;0.3289;7.2836;
534.3000;0.3346;7.2906;
534.6000;0.3289;7.2741;
534.9000;0.3305;7.2671;
535.2000;0.3289;7.2765;
535.5000;0.3297;7.2694;
535.8000;0.3297;7.2694;
536.1000;0.3305;7.2789;
536.4000;0.3289;7.2859;
536.7000;0.3305;7.2883;
537.0000;0.3272;7.2765;
537.3000;0.3272;7.2789;
537.6000;0.3305;7.2883;
537.9000;0.3305;7.2836;
538.2000;0.3289;7.2789;
538.5000;0.3256;7.2741;
538.8000;0.3248;7.2765;
539.1000;0.3248;7.2859;
539.4000;0.3280;7.2906;
539.7000;0.3329;7.3000;
540.0000;0.3289;7.2883;
540.3000;0.3280;7.2883;
540.6000;0.3280;7.2859;
540.9000;0.3272;7.2836;
541.2000;0.3297;7.2836;
541.5000;0.3289;7.2741;
541.8000;0.3223;7.2624;
542.1000;0.3272;7.2789;
542.4000;0.3297;7.2812;
542.7000;0.3272;7.2741;
543.0000;0.3297;7.2836;
543.3000;0.3297;7.2883;
543.6000;0.3297;7.3047;
543.9000;0.3289;7.3024;
544.2000;0.3305;7.2977;
544.5000;0.3289;7.3000;
544.8000;0.3313;7.3094;
545.1000;0.3280;7.3024;
545.4000;0.3305;7.3024;
545.7000;0.3280;7.2930;
546.0000;0.3280;7.2906;
546.3000;0.3297;7.2836;
546.6000;0.3280;7.2812;
546.9000;0.3264;7.2906;
547.2000;0.3256;7.3000;
547.5000;0.3256;7.2953;
547.8000;0.3272;7.2930;
548.1000;0.3264;7.2836;
548.4000;0.3280;7.2812;
548.7000;0.3297;7.2812;
549.0000;0.3305;7.2765;
549.3000;0.3289;7.2718;
549.6000;0.3289;7.2741;
549.9000;0.3289;7.2718;
550.2000;0.3297;7.2741;
550.5000;0.3354;7.2789;
550.8000;0.3289;7.2647;
551.1000;0.3297;7.2741;
551.4000;0.3289;7.2789;
551.7000;0.3289;7.2741;
552.0000;0.3280;7.2647;
552.3000;0.3264;7.2577;
552.6000;0.3240;7.2530;
552.9000;0.3297;7.2718;
553.2000;0.3280;7.2741;
553.5000;0.3280;7.2765;
553.8000;0.3280;7.2671;
554.1000;0.3289;7.2741;
554.4000;0.3313;7.2741;
554.7000;0.3280;7.2624;
555.0000;0.3264;7.2624;
555.3000;0.3305;7.2694;
555.6000;0.3305;7.2647;
555.9000;0.3256;7.2553;
556.2000;0.3297;7.2600;
556.5000;0.3272;7.2624;
556.8000;0.3297;7.2647;
557.1000;0.3280;7.2600;
557.4000;0.3321;7.2624;
557.7000;0.3297;7.2694;
558.0000;0.3280;7.2718;
558.3000;0.3289;7.2812;
558.6000;0.3272;7.2812;
558.9000;0.3272;7.2812;
559.2000;0.3289;7.2906;
559.5000;0.3297;7.2906;
559.8000;0.3297;7.2859;
560.1000;0.3305;7.2906;
560.4000;0.3297;7.2859;
560.7000;0.3215;7.2600;
561.0000;0.3280;7.2789;
561.3000;0.3272;7.2812;
561.6000;0.3297;7.2789;
561.9000;0.3313;7.2789;
562.2000;0.3280;7.2765;
562.5000;0.3256;7.2671;
562.8000;0.3289;7.2741;
563.1000;0.3313;7.2836;
563.4000;0.3305;7.2812;
563.7000;0.3297;7.2765;
564.0000;0.3313;7.2906;
564.3000;0.3289;7.2836;
564.6000;0.3297;7.2765;
564.9000;0.3280;7.2694;
565.2000;0.3280;7.2671;
565.5000;0.3280;7.2671;
565.8000;0.3280;7.2741;
566.1000;0.3248;7.2671;
566.4000;0.3272;7.2741;
566.7000;0.3280;7.2718;
567.0000;0.3272;7.2812;
567.3000;0.3264;7.2883;
567.6000;0.3280;7.2812;
567.9000;0.3272;7.2859;
568.2000;0.3272;7.2836;
568.5000;0.3289;7.2812;
568.8000;0.3280;7.2836;
569.1000;0.3280;7.2765;
569.4000;0.3297;7.2765;
569.7000;0.3297;7.2836;
570.0000;0.3272;7.2812;
570.3000;0.3272;7.2812;
570.6000;0.3297;7.2906;
570.9000;0.3280;7.2836;
571.2000;0.3297;7.2883;
571.5000;0.3305;7.2906;
571.8000;0.3272;7.2859;
572.1000;0.3313;7.2953;
572.4000;0.3297;7.2906;
572.7000;0.3264;7.2741;
573.0000;0.3305;7.2765;
573.3000;0.3289;7.2789;
573.6000;0.3289;7.2741;
573.9000;0.3280;7.2671;
574.2000;0.3289;7.2694;
574.5000;0.3280;7.2647;
574.8000;0.3272;7.2647;
575.1000;0.3370;7.2906;
575.4000;0.3305;7.2789;
575.7000;0.3272;7.2883;
576.0000;0.3280;7.2906;
576.3000;0.3280;7.2859;
576.6000;0.3264;7.2765;
576.9000;0.3297;7.2883;
577.2000;0.3289;7.2859;
577.5000;0.3272;7.2906;
577.8000;0.3289;7.3024;
578.1000;0.3289;7.3000;
578.4000;0.3305;7.2930;
578.7000;0.3264;7.2789;
579.0000;0.3272;7.2741;
579.3000;0.3280;7.2741;
579.6000;0.3280;7.2859;
579.9000;0.3256;7.2906;
580.2000;0.3280;7.2953;
580.5000;0.3289;7.3071;
580.8000;0.3378;7.3376;
581.1000;0.3272;7.3071;
581.4000;0.3248;7.2977;
581.7000;0.3280;7.3094;
582.0000;0.3256;7.3000;
582.3000;0.3280;7.3000;
582.6000;0.3264;7.2977;
582.9000;0.3289;7.3000;
583.2000;0.3248;7.3024;
583.5000;0.3280;7.3165;
583.8000;0.3191;7.2930;
584.1000;0.3289;7.3141;
584.4000;0.3305;7.3259;
584.7000;0.3297;7.3188;
585.0000;0.3289;7.3118;
585.3000;0.3264;7.3071;
585.6000;0.3313;7.3047;
585.9000;0.3240;7.2812;
586.2000;0.3280;7.2859;
586.5000;0.3280;7.2812;
586.8000;0.3272;7.2765;
587.1000;0.3289;7.2741;
587.4000;0.3289;7.2718;
587.7000;0.3207;7.2506;
588.0000;0.3280;7.2741;
588.3000;0.3280;7.2812;
588.6000;0.3264;7.2812;
588.9000;0.3256;7.2789;
589.2000;0.3272;7.2812;
589.5000;0.3272;7.2859;
589.8000;0.3297;7.2953;
590.1000;0.3191;7.2718;
590.4000;0.3297;7.2953;
590.7000;0.3305;7.2883;
591.0000;0.3272;7.2906;
591.3000;0.3272;7.2741;
591.6000;0.3280;7.2718;
591.9000;0.3305;7.2694;
592.2000;0.3297;7.2671;
592.5000;0.3289;7.2530;
592.8000;0.3264;7.2459;
593.1000;0.3289;7.2483;
593.4000;0.3280;7.2553;
593.7000;0.3264;7.2671;
594.0000;0.3248;7.2647;
594.3000;0.3272;7.2694;
594.6000;0.3280;7.2671;
594.9000;0.3313;7.2765;
595.2000;0.3378;7.2953;
595.5000;0.3272;7.2694;
595.8000;0.3297;7.2718;
596.1000;0.3272;7.2694;
596.4000;0.3289;7.2789;
596.7000;0.3264;7.2906;
597.0000;0.3272;7.2930;
597.3000;0.3264;7.2883;
597.6000;0.3272;7.2977;
597.9000;0.3329;7.3047;
598.2000;0.3289;7.2953;
598.5000;0.3280;7.2859;
598.8000;0.3272;7.2930;
599.1000;0.3272;7.2953;
599.4000;0.3272;7.2883;
599.7000;0.3289;7.2906;
600.0000;0.3280;7.2883;
600.3000;0.3272;7.2836;
600.6000;0.3264;7.2647;
600.9000;0.3207;7.2553;
601.2000;0.3321;7.2718;
601.5000;0.3272;7.2459;
601.8000;0.3215;7.2271;
602.1000;0.3166;7.2107;
602.4000;0.3150;7.2130;
602.7000;0.3126;7.2012;
603.0000;0.3118;7.1942;
603.3000;0.3077;7.1942;
603.6000;0.3020;7.1801;
603.9000;0.3061;7.1848;
604.2000;0.3036;7.1754;
604.5000;0.3012;7.1613;
604.8000;0.3020;7.1566;
605.1000;0.3020;7.1472;
605.4000;0.2971;7.1283;
605.7000;0.2947;7.1236;
606.0000;0.2939;7.1189;
606.3000;0.2890;7.1072;
606.6000;0.2939;7.1283;
606.9000;0.2922;7.1189;
607.2000;0.2898;7.1072;
607.5000;0.2914;7.1166;
607.8000;0.2898;7.1072;
608.1000;0.2882;7.0978;
608.4000;0.2857;7.0954;
608.7000;0.2857;7.0931;
609.0000;0.2890;7.0931;
609.3000;0.2833;7.0789;
609.6000;0.2816;7.0695;
609.9000;0.2808;7.0672;
610.2000;0.2849;7.0719;
610.5000;0.2865;7.0813;
610.8000;0.2800;7.0719;
611.1000;0.2768;7.0625;
611.4000;0.2784;7.0813;
611.7000;0.2784;7.0789;
612.0000;0.2825;7.0742;
612.3000;0.2751;7.0531;
612.6000;0.2841;7.0837;
612.9000;0.2768;7.0648;
613.2000;0.2743;7.0601;
613.5000;0.2727;7.0460;
613.8000;0.2735;7.0484;
614.1000;0.2694;7.0437;
614.4000;0.2711;7.0531;
614.7000;0.2702;7.0578;
615.0000;0.2654;7.0484;
615.3000;0.2702;7.0507;
615.6000;0.2678;7.0484;
615.9000;0.2686;7.0578;
616.2000;0.2678;7.0648;
616.5000;0.2702;7.0625;
616.8000;0.2670;7.0578;
617.1000;0.2678;7.0601;
617.4000;0.2662;7.0601;
617.7000;0.2662;7.0554;
618.0000;0.2646;7.0531;
618.3000;0.2629;7.0460;
618.6000;0.2629;7.0437;
618.9000;0.2621;7.0390;
619.2000;0.2637;7.0390;
619.5000;0.2646;7.0460;
619.8000;0.2621;7.0507;
620.1000;0.2711;7.0766;
620.4000;0.2629;7.0554;
620.7000;0.2605;7.0507;
621.0000;0.2662;7.0601;
621.3000;0.2613;7.0554;
621.6000;0.2597;7.0554;
621.9000;0.2597;7.0531;
622.2000;0.2613;7.0625;
622.5000;0.2589;7.0507;
622.8000;0.2621;7.0578;
623.1000;0.2556;7.0460;
623.4000;0.2540;7.0507;
623.7000;0.2564;7.0531;
624.0000;0.2605;7.0625;
624.3000;0.2540;7.0484;
624.6000;0.2572;7.0648;
624.9000;0.2532;7.0648;
625.2000;0.2572;7.0766;
625.5000;0.2548;7.0719;
625.8000;0.2556;7.0695;
626.1000;0.2556;7.0742;
626.4000;0.2532;7.0742;
626.7000;0.2572;7.0907;
627.0000;0.2523;7.0766;
627.3000;0.2499;7.0648;
627.6000;0.2548;7.0719;
627.9000;0.2532;7.0648;
628.2000;0.2523;7.0695;
628.5000;0.2499;7.0578;
628.8000;0.2515;7.0554;
629.1000;0.2540;7.0601;
629.4000;0.2540;7.0672;
629.7000;0.2491;7.0554;
630.0000;0.2499;7.0484;
630.3000;0.2483;7.0507;
630.6000;0.2491;7.0460;
630.9000;0.2523;7.0554;
631.2000;0.2556;7.0648;
631.5000;0.2450;7.0460;
631.8000;0.2466;7.0531;
632.1000;0.2466;7.0413;
632.4000;0.2450;7.0366;
632.7000;0.2426;7.0366;
633.0000;0.2499;7.0648;
633.3000;0.2434;7.0460;
633.6000;0.2426;7.0460;
633.9000;0.2442;7.0413;
634.2000;0.2466;7.0484;
634.5000;0.2499;7.0625;
634.8000;0.2401;7.0390;
635.1000;0.2458;7.0578;
635.4000;0.2442;7.0390;
635.7000;0.2401;7.0319;
636.0000;0.2426;7.0390;
636.3000;0.2409;7.0390;
636.6000;0.2401;7.0390;
636.9000;0.2426;7.0413;
637.2000;0.2401;7.0319;
637.5000;0.2393;7.0366;
637.8000;0.2393;7.0296;
638.1000;0.2418;7.0296;
638.4000;0.2393;7.0225;
638.7000;0.2409;7.0178;
639.0000;0.2393;7.0084;
639.3000;0.2377;7.0037;
639.6000;0.2401;7.0178;
639.9000;0.2418;7.0343;
640.2000;0.2393;7.0272;
640.5000;0.2393;7.0319;
640.8000;0.2409;7.0343;
641.1000;0.2377;7.0272;
641.4000;0.2393;7.0249;
641.7000;0.2393;7.0319;
642.0000;0.2385;7.0343;
642.3000;0.2385;7.0390;
642.6000;0.2352;7.0296;
642.9000;0.2385;7.0366;
643.2000;0.2393;7.0296;
643.5000;0.2369;7.0202;
643.8000;0.2385;7.0154;
644.1000;0.2336;7.0060;
644.4000;0.2336;7.0154;
644.7000;0.2344;7.0272;
645.0000;0.2336;7.0225;
645.3000;0.2352;7.0178;
645.6000;0.2336;7.0202;
645.9000;0.2344;7.0272;
646.2000;0.2344;7.0178;
646.5000;0.2328;7.0154;
646.8000;0.2344;7.0249;
647.1000;0.2344;7.0272;
647.4000;0.2230;6.9919;
647.7000;0.2385;7.0249;
648.0000;0.2336;7.0060;
648.3000;0.2320;7.0178;
648.6000;0.2247;7.0084;
648.9000;0.2344;7.0390;
649.2000;0.2336;7.0296;
649.5000;0.2320;7.0366;
649.8000;0.2304;7.0272;
650.1000;0.2320;7.0343;
650.4000;0.2344;7.0319;
650.7000;0.2239;7.0060;
651.0000;0.2295;7.0154;
651.3000;0.2361;7.0225;
651.6000;0.2287;7.0107;
651.9000;0.2312;7.0154;
652.2000;0.2295;7.0107;
652.5000;0.2312;7.0131;
652.8000;0.2295;7.0202;
653.1000;0.2295;7.0202;
653.4000;0.2304;7.0225;
653.7000;0.2295;7.0272;
654.0000;0.2279;7.0272;
654.3000;0.2287;7.0225;
654.6000;0.2295;7.0272;
654.9000;0.2295;7.0296;
655.2000;0.2279;7.0249;
655.5000;0.2295;7.0272;
655.8000;0.2279;7.0225;
656.1000;0.2271;7.0249;
656.4000;0.2287;7.0225;
656.7000;0.2230;7.0013;
657.0000;0.2279;7.0202;
657.3000;0.2287;7.0272;
657.6000;0.2271;7.0178;
657.9000;0.2247;7.0249;
658.2000;0.2263;7.0319;
658.5000;0.2287;7.0484;
658.8000;0.2279;7.0460;
659.1000;0.2279;7.0484;
659.4000;0.2271;7.0390;
659.7000;0.2271;7.0366;
660.0000;0.2230;7.0202;
660.3000;0.2287;7.0413;
660.6000;0.2255;7.0390;
660.9000;0.2271;7.0366;
661.2000;0.2279;7.0319;
661.5000;0.2263;7.0319;
661.8000;0.2247;7.0272;
662.1000;0.2206;7.0272;
662.4000;0.2263;7.0390;
662.7000;0.2255;7.0343;
663.0000;0.2263;7.0390;
663.3000;0.2271;7.0343;
663.6000;0.2263;7.0319;
663.9000;0.2279;7.0366;
664.2000;0.2271;7.0249;
664.5000;0.2247;7.0225;
664.8000;0.2263;7.0319;
665.1000;0.2239;7.0319;
665.4000;0.2263;7.0437;
665.7000;0.2239;7.0507;
666.0000;0.2255;7.0554;
666.3000;0.2247;7.0578;
666.6000;0.2230;7.0484;
666.9000;0.2247;7.0531;
667.2000;0.2239;7.0484;
667.5000;0.2214;7.0366;
667.8000;0.2239;7.0484;
668.1000;0.2230;7.0484;
668.4000;0.2214;7.0413;
668.7000;0.2230;7.0507;
669.0000;0.2222;7.0531;
669.3000;0.2230;7.0507;
669.6000;0.2206;7.0437;
669.9000;0.2230;7.0460;
670.2000;0.2222;7.0390;
670.5000;0.2255;7.0319;
670.8000;0.2255;7.0249;
671.1000;0.2230;7.0154;
671.4000;0.2222;7.0225;
671.7000;0.2271;7.0319;
672.0000;0.2222;7.0390;
672.3000;0.2222;7.0413;
672.6000;0.2214;7.0484;
672.9000;0.2222;7.0507;
673.2000;0.2206;7.0460;
673.5000;0.2247;7.0601;
673.8000;0.2214;7.0484;
674.1000;0.2206;7.0460;
674.4000;0.2165;7.0437;
674.7000;0.2214;7.0531;
675.0000;0.2230;7.0601;
675.3000;0.2263;7.0672;
675.6000;0.2206;7.0554;
675.9000;0.2141;7.0343;
676.2000;0.2173;7.0366;
676.5000;0.2190;7.0460;
676.8000;0.2182;7.0484;
677.1000;0.2214;7.0554;
677.4000;0.2206;7.0554;
677.7000;0.2198;7.0507;
678.0000;0.2198;7.0413;
678.3000;0.2198;7.0319;
678.6000;0.2230;7.0366;
678.9000;0.2206;7.0319;
679.2000;0.2182;7.0202;
679.5000;0.2182;7.0178;
679.8000;0.2214;7.0225;
680.1000;0.2214;7.0249;
680.4000;0.2190;7.0319;
680.7000;0.2190;7.0343;
681.0000;0.2214;7.0366;
681.3000;0.2092;7.0131;
681.6000;0.2206;7.0437;
681.9000;0.2206;7.0460;
682.2000;0.2198;7.0437;
682.5000;0.2206;7.0413;
682.8000;0.2190;7.0366;
683.1000;0.2198;7.0460;
683.4000;0.2198;7.0484;
683.7000;0.2198;7.0484;
684.0000;0.2198;7.0437;
684.3000;0.2190;7.0507;
684.6000;0.2182;7.0578;
684.9000;0.2173;7.0648;
685.2000;0.2190;7.0648;
685.5000;0.2198;7.0719;
685.8000;0.2173;7.0625;
686.1000;0.2165;7.0554;
686.4000;0.2190;7.0625;
686.7000;0.2173;7.0578;
687.0000;0.2165;7.0601;
687.3000;0.2182;7.0601;
687.6000;0.2190;7.0648;
687.9000;0.2141;7.0554;
688.2000;0.2157;7.0531;
688.5000;0.2214;7.0695;
688.8000;0.2165;7.0672;
689.1000;0.2173;7.0672;
689.4000;0.2165;7.0601;
689.7000;0.2149;7.0531;
690.0000;0.2173;7.0531;
690.3000;0.2182;7.0578;
690.6000;0.2182;7.0672;
690.9000;0.2165;7.0601;
691.2000;0.2173;7.0672;
691.5000;0.2108;7.0648;
691.8000;0.2149;7.0695;
692.1000;0.2157;7.0648;
692.4000;0.2141;7.0578;
692.7000;0.2165;7.0531;
693.0000;0.2157;7.0578;
693.3000;0.2149;7.0648;
693.6000;0.2206;7.0766;
693.9000;0.2165;7.0648;
694.2000;0.2182;7.0625;
694.5000;0.2206;7.0601;
694.8000;0.2149;7.0390;
695.1000;0.2157;7.0413;
695.4000;0.2157;7.0437;
695.7000;0.2165;7.0366;
696.0000;0.2165;7.0390;
696.3000;0.2157;7.0437;
696.6000;0.2165;7.0390;
696.9000;0.2173;7.0296;
697.2000;0.2125;7.0178;
697.5000;0.2141;7.0272;
697.8000;0.2157;7.0272;
698.1000;0.2141;7.0366;
698.4000;0.2149;7.0296;
698.7000;0.2125;7.0225;
699.0000;0.2157;7.0343;
699.3000;0.2165;7.0437;
699.6000;0.2157;7.0343;
699.9000;0.2149;7.0154;
700.2000;0.2157;7.0178;
700.5000;0.2141;7.0131;
700.8000;0.2149;7.0178;
701.1000;0.2125;7.0202;
701.4000;0.2157;7.0296;
701.7000;0.2141;7.0249;
702.0000;0.2149;7.0272;
702.3000;0.2141;7.0272;
702.6000;0.2182;7.0484;
702.9000;0.2141;7.0343;
703.2000;0.2116;7.0366;
703.5000;0.2076;7.0225;
703.8000;0.2141;7.0437;
704.1000;0.2157;7.0531;
704.4000;0.2149;7.0554;
704.7000;0.2141;7.0460;
705.0000;0.2116;7.0460;
705.3000;0.2133;7.0484;
705.6000;0.2149;7.0413;
705.9000;0.2165;7.0413;
706.2000;0.2141;7.0390;
706.5000;0.2133;7.0390;
706.8000;0.2141;7.0460;
707.1000;0.2157;7.0413;
707.4000;0.2116;7.0390;
707.7000;0.2149;7.0437;
708.0000;0.2125;7.0366;
708.3000;0.2141;7.0484;
708.6000;0.2116;7.0366;
708.9000;0.2165;7.0484;
709.2000;0.2100;7.0296;
709.5000;0.2141;7.0390;
709.8000;0.2125;7.0343;
710.1000;0.2133;7.0437;
710.4000;0.2133;7.0531;
710.7000;0.2141;7.0531;
711.0000;0.2133;7.0460;
711.3000;0.2133;7.0531;
711.6000;0.2125;7.0531;
711.9000;0.2125;7.0578;
712.2000;0.2092;7.0460;
712.5000;0.2108;7.0437;
712.8000;0.2108;7.0437;
713.1000;0.2214;7.0672;
713.4000;0.2116;7.0531;
713.7000;0.2108;7.0554;
714.0000;0.2059;7.0390;
714.3000;0.2125;7.0531;
714.6000;0.2125;7.0460;
714.9000;0.2125;7.0531;
715.2000;0.2141;7.0601;
715.5000;0.2116;7.0554;
715.8000;0.2125;7.0484;
716.1000;0.2116;7.0460;
716.4000;0.2116;7.0343;
716.7000;0.2108;7.0296;
717.0000;0.2116;7.0413;
717.3000;0.2116;7.0484;
717.6000;0.2084;7.0437;
717.9000;0.2116;7.0625;
718.2000;0.2116;7.0625;
718.5000;0.2125;7.0672;
718.8000;0.2125;7.0742;
719.1000;0.2108;7.0648;
719.4000;0.2108;7.0672;
719.7000;0.2076;7.0601;
720.0000;0.2116;7.0695;
720.3000;0.2108;7.0672;
720.6000;0.2190;7.0884;
720.9000;0.2043;7.0507;
721.2000;0.2116;7.0625;
721.5000;0.2141;7.0695;
721.8000;0.2133;7.0672;
722.1000;0.2133;7.0648;
722.4000;0.2157;7.0672;
722.7000;0.2100;7.0531;
723.0000;0.2116;7.0531;
723.3000;0.2084;7.0460;
723.6000;0.2100;7.0390;
723.9000;0.1986;7.0107;
724.2000;0.2108;7.0460;
724.5000;0.2116;7.0343;
724.8000;0.2125;7.0343;
725.1000;0.2133;7.0343;
725.4000;0.2100;7.0366;
725.7000;0.2100;7.0319;
726.0000;0.2108;7.0460;
726.3000;0.2108;7.0554;
726.6000;0.2141;7.0719;
726.9000;0.2116;7.0601;
727.2000;0.2108;7.0554;
727.5000;0.2027;7.0249;
727.8000;0.2100;7.0366;
728.1000;0.2092;7.0343;
728.4000;0.2116;7.0460;
728.7000;0.2165;7.0578;
729.0000;0.2100;7.0531;
729.3000;0.2092;7.0507;
729.6000;0.2108;7.0601;
729.9000;0.2100;7.0625;
730.2000;0.2100;7.0625;
730.5000;0.2108;7.0484;
730.8000;0.2092;7.0413;
731.1000;0.2092;7.0366;
731.4000;0.2100;7.0507;
731.7000;0.2100;7.0460;
732.0000;0.2108;7.0390;
732.3000;0.2100;7.0390;
732.6000;0.2084;7.0366;
732.9000;0.2084;7.0366;
733.2000;0.2051;7.0413;
733.5000;0.2100;7.0578;
733.8000;0.2092;7.0554;
734.1000;0.2108;7.0460;
734.4000;0.2100;7.0507;
734.7000;0.2100;7.0484;
735.0000;0.2108;7.0437;
735.3000;0.2092;7.0413;
735.6000;0.2092;7.0390;
735.9000;0.2108;7.0460;
736.2000;0.2068;7.0484;
736.5000;0.2100;7.0625;
736.8000;0.2116;7.0695;
737.1000;0.2141;7.0719;
737.4000;0.2092;7.0601;
737.7000;0.2051;7.0531;
738.0000;0.2100;7.0601;
738.3000;0.2027;7.0484;
738.6000;0.2068;7.0601;
738.9000;0.2068;7.0601;
739.2000;0.2051;7.0601;
739.5000;0.2043;7.0531;
739.8000;0.2059;7.0578;
740.1000;0.2092;7.0601;
740.4000;0.2100;7.0742;
740.7000;0.2043;7.0625;
741.0000;0.2125;7.0672;
741.3000;0.2100;7.0554;
741.6000;0.2100;7.0601;
741.9000;0.2068;7.0554;
742.2000;0.2068;7.0695;
742.5000;0.2092;7.0789;
742.8000;0.2076;7.0719;
743.1000;0.2076;7.0719;
743.4000;0.2076;7.0695;
743.7000;0.2076;7.0648;
744.0000;0.2076;7.0648;
744.3000;0.2092;7.0601;
744.6000;0.2068;7.0601;
744.9000;0.2084;7.0719;
745.2000;0.2084;7.0648;
745.5000;0.2084;7.0742;
745.8000;0.2084;7.0625;
746.1000;0.2092;7.0695;
746.4000;0.2059;7.0648;
746.7000;0.2125;7.0860;
747.0000;0.2084;7.0672;
747.3000;0.2092;7.0601;
747.6000;0.2084;7.0507;
747.9000;0.2059;7.0366;
748.2000;0.2084;7.0390;
748.5000;0.2068;7.0366;
748.8000;0.2092;7.0460;
749.1000;0.2076;7.0484;
749.4000;0.2059;7.0437;
749.7000;0.2059;7.0460;
750.0000;0.2027;7.0390;
750.3000;0.2059;7.0437;
750.6000;0.2051;7.0319;
750.9000;0.2084;7.0319;
751.2000;0.2084;7.0343;
751.5000;0.2068;7.0460;
751.8000;0.2108;7.0672;
752.1000;0.2084;7.0648;
752.4000;0.2084;7.0625;
752.7000;0.2076;7.0578;
753.0000;0.2068;7.0578;
753.3000;0.2076;7.0672;
753.6000;0.2076;7.0719;
753.9000;0.2100;7.0766;
754.2000;0.2068;7.0695;
754.5000;0.2068;7.0601;
754.8000;0.2068;7.0531;
755.1000;0.2100;7.0837;
755.4000;0.2059;7.0813;
755.7000;0.2051;7.0789;
756.0000;0.2076;7.0860;
756.3000;0.2076;7.0860;
756.6000;0.2051;7.0766;
756.9000;0.2076;7.0719;
757.2000;0.2084;7.0766;
757.5000;0.2068;7.0813;
757.8000;0.2051;7.0672;
758.1000;0.2059;7.0719;
758.4000;0.2051;7.0695;
758.7000;0.2068;7.0742;
759.0000;0.2068;7.0860;
759.3000;0.2076;7.0860;
759.6000;0.2059;7.0719;
759.9000;0.2084;7.0742;
760.2000;0.2035;7.0648;
760.5000;0.2133;7.0884;
760.8000;0.2051;7.0695;
761.1000;0.2092;7.0766;
761.4000;0.2051;7.0648;
761.7000;0.2059;7.0625;
762.0000;0.2068;7.0578;
762.3000;0.2076;7.0625;
762.6000;0.2092;7.0695;
762.9000;0.2059;7.0648;
763.2000;0.2059;7.0554;
763.5000;0.1970;7.0296;
763.8000;0.2059;7.0648;
764.1000;0.2043;7.0578;
764.4000;0.2043;7.0578;
764.7000;0.2092;7.0742;
765.0000;0.2043;7.0578;
765.3000;0.2092;7.0648;
765.6000;0.2043;7.0578;
765.9000;0.2027;7.0507;
766.2000;0.2190;7.0813;
766.5000;0.2059;7.0460;
766.8000;0.2116;7.0648;
767.1000;0.2059;7.0531;
767.4000;0.2043;7.0601;
767.7000;0.2125;7.0695;
768.0000;0.2059;7.0507;
768.3000;0.2059;7.0460;
768.6000;0.2059;7.0460;
768.9000;0.2043;7.0507;
769.2000;0.2043;7.0507;
769.5000;0.2035;7.0460;
769.8000;0.2068;7.0625;
770.1000;0.2059;7.0554;
770.4000;0.2059;7.0554;
770.7000;0.2100;7.0719;
771.0000;0.2059;7.0625;
771.3000;0.2059;7.0601;
771.6000;0.2076;7.0601;
771.9000;0.2068;7.0507;
772.2000;0.2076;7.0554;
772.5000;0.2076;7.0578;
772.8000;0.2076;7.0625;
773.1000;0.2035;7.0507;
773.4000;0.2043;7.0554;
773.7000;0.2043;7.0625;
774.0000;0.2043;7.0625;
774.3000;0.2068;7.0672;
774.6000;0.2051;7.0601;
774.9000;0.2035;7.0554;
775.2000;0.2059;7.0601;
775.5000;0.2051;7.0531;
775.8000;0.2051;7.0460;
776.1000;0.2051;7.0507;
776.4000;0.2051;7.0578;
776.7000;0.2051;7.0554;
777.0000;0.2035;7.0531;
777.3000;0.2051;7.0507;
777.6000;0.2027;7.0390;
777.9000;0.2068;7.0554;
778.2000;0.2043;7.0507;
778.5000;0.2059;7.0437;
778.8000;0.2027;7.0390;
779.1000;0.2068;7.0437;
779.4000;0.2059;7.0460;
779.7000;0.2035;7.0437;
780.0000;0.2035;7.0554;
780.3000;0.2051;7.0578;
780.6000;0.2027;7.0507;
780.9000;0.2059;7.0554;
781.2000;0.2027;7.0507;
781.5000;0.2043;7.0601;
781.8000;0.2027;7.0601;
782.1000;0.2043;7.0695;
782.4000;0.2051;7.0719;
782.7000;0.2019;7.0719;
783.0000;0.2059;7.0860;
783.3000;0.2011;7.0742;
783.6000;0.1986;7.0625;
783.9000;0.2059;7.0766;
784.2000;0.2141;7.1025;
784.5000;0.2092;7.0907;
784.8000;0.2035;7.0742;
785.1000;0.2043;7.0766;
785.4000;0.2051;7.0860;
785.7000;0.2059;7.0931;
786.0000;0.2027;7.0907;
786.3000;0.2027;7.0931;
786.6000;0.2035;7.0954;
786.9000;0.2035;7.1001;
787.2000;0.2068;7.1025;
787.5000;0.2027;7.0954;
787.8000;0.2035;7.0954;
788.1000;0.2035;7.0931;
788.4000;0.2076;7.1001;
788.7000;0.2059;7.0907;
789.0000;0.2019;7.0766;
789.3000;0.2059;7.0837;
789.6000;0.2043;7.0860;
789.9000;0.2027;7.0789;
790.2000;0.2043;7.0789;
790.5000;0.2043;7.0931;
790.8000;0.2043;7.0860;
791.1000;0.2043;7.0813;
791.4000;0.2027;7.0695;
791.7000;0.2027;7.0766;
792.0000;0.2035;7.0813;
792.3000;0.2051;7.0837;
792.6000;0.2043;7.0766;
792.9000;0.2051;7.0742;
793.2000;0.2011;7.0742;
793.5000;0.2035;7.0766;
793.8000;0.1986;7.0695;
794.1000;0.2019;7.0813;
794.4000;0.2043;7.0789;
794.7000;0.2035;7.0789;
795.0000;0.2035;7.0789;
795.3000;0.2011;7.0695;
795.6000;0.2043;7.0789;
795.9000;0.2051;7.0695;
796.2000;0.2035;7.0625;
796.5000;0.2043;7.0672;
796.8000;0.2027;7.0672;
797.1000;0.2035;7.0695;
797.4000;0.2043;7.0695;
797.7000;0.2043;7.0742;
798.0000;0.2035;7.0789;
798.3000;0.2027;7.0719;
798.6000;0.2051;7.0719;
798.9000;0.2027;7.0672;
799.2000;0.2043;7.0742;
799.5000;0.2027;7.0789;
799.8000;0.2043;7.0789;
800.1000;0.2035;7.0813;
800.4000;0.2035;7.0860;
800.7000;0.2051;7.0837;
801.0000;0.2051;7.0766;
801.3000;0.2019;7.0813;
801.6000;0.2035;7.0860;
801.9000;0.2027;7.0954;
802.2000;0.2051;7.0954;
802.5000;0.2027;7.0860;
802.8000;0.2019;7.0813;
803.1000;0.2011;7.0789;
803.4000;0.2051;7.0837;
803.7000;0.2027;7.0719;
804.0000;0.2019;7.0742;
804.3000;0.2027;7.0766;
804.6000;0.2059;7.0884;
804.9000;0.2035;7.0884;
805.2000;0.2051;7.0860;
805.5000;0.2035;7.0837;
805.8000;0.2027;7.0766;
806.1000;0.2035;7.0813;
806.4000;0.2043;7.0860;
806.7000;0.2035;7.0860;
807.0000;0.1986;7.0766;
807.3000;0.2027;7.0884;
807.6000;0.2076;7.0978;
807.9000;0.2027;7.0931;
808.2000;0.2019;7.0860;
808.5000;0.2043;7.0813;
808.8000;0.2116;7.1001;
809.1000;0.2043;7.0813;
809.4000;0.1978;7.0554;
809.7000;0.2043;7.0837;
810.0000;0.2035;7.0907;
810.3000;0.1954;7.0766;
810.6000;0.2068;7.1072;
810.9000;0.2002;7.0954;
811.2000;0.2027;7.1001;
811.5000;0.1970;7.0931;
811.8000;0.2068;7.1095;
812.1000;0.2027;7.1025;
812.4000;0.2027;7.1072;
812.7000;0.2027;7.1048;
813.0000;0.2019;7.1025;
813.3000;0.1986;7.0931;
813.6000;0.2019;7.0907;
813.9000;0.1962;7.0695;
814.2000;0.2027;7.0860;
814.5000;0.2019;7.0860;
814.8000;0.2035;7.0931;
815.1000;0.2027;7.0978;
815.4000;0.2011;7.1025;
815.7000;0.1994;7.0978;
816.0000;0.2027;7.0978;
816.3000;0.2027;7.0978;
816.6000;0.2027;7.1048;
816.9000;0.2011;7.0978;
817.2000;0.1962;7.0978;
817.5000;0.2002;7.1072;
817.8000;0.2092;7.1236;
818.1000;0.2076;7.1001;
818.4000;0.2002;7.0860;
818.7000;0.2076;7.0931;
819.0000;0.2027;7.0907;
819.3000;0.2027;7.0907;
819.6000;0.1978;7.0837;
819.9000;0.2035;7.1001;
820.2000;0.2019;7.0907;
820.5000;0.2027;7.0931;
820.8000;0.1994;7.0837;
821.1000;0.2027;7.0907;
821.4000;0.2035;7.0931;
821.7000;0.2019;7.1025;
822.0000;0.2019;7.1095;
822.3000;0.1994;7.1025;
822.6000;0.2019;7.1048;
822.9000;0.2019;7.0931;
823.2000;0.2027;7.0978;
823.5000;0.2019;7.0978;
823.8000;0.1929;7.0742;
824.1000;0.2019;7.1025;
824.4000;0.2002;7.1001;
824.7000;0.2043;7.1048;
825.0000;0.2035;7.1095;
825.3000;0.2019;7.1048;
825.6000;0.2027;7.1048;
825.9000;0.2019;7.1119;
826.2000;0.2011;7.1001;
826.5000;0.2027;7.1025;
826.8000;0.2011;7.0931;
827.1000;0.2035;7.1025;
827.4000;0.2019;7.1048;
827.7000;0.2035;7.1095;
828.0000;0.2043;7.1213;
828.3000;0.2011;7.1213;
828.6000;0.2019;7.1189;
828.9000;0.2019;7.1236;
829.2000;0.2011;7.1189;
829.5000;0.2011;7.1166;
829.8000;0.2011;7.1166;
830.1000;0.2019;7.1095;
830.4000;0.2002;7.1001;
830.7000;0.1994;7.0954;
831.0000;0.1962;7.0931;
831.3000;0.2035;7.1119;
831.6000;0.2002;7.1025;
831.9000;0.2011;7.0931;
832.2000;0.2027;7.1001;
832.5000;0.2027;7.1025;
832.8000;0.2011;7.1001;
833.1000;0.2011;7.1119;
833.4000;0.1986;7.1095;
833.7000;0.2011;7.1095;
834.0000;0.1954;7.0884;
834.3000;0.2043;7.1072;
834.6000;0.2027;7.1048;
834.9000;0.2035;7.1213;
835.2000;0.2051;7.1236;
835.5000;0.2011;7.1189;
835.8000;0.2019;7.1189;
836.1000;0.1994;7.1142;
836.4000;0.2043;7.1213;
836.7000;0.2011;7.1048;
837.0000;0.2059;7.1142;
837.3000;0.2035;7.1142;
837.6000;0.2011;7.1048;
837.9000;0.2027;7.1072;
838.2000;0.1986;7.1001;
838.5000;0.1970;7.1025;
838.8000;0.2019;7.1072;
839.1000;0.2068;7.1142;
839.4000;0.2051;7.0978;
839.7000;0.2011;7.0884;
840.0000;0.1937;7.0789;
840.3000;0.2011;7.1001;
840.6000;0.2051;7.1142;
840.9000;0.2002;7.1072;
841.2000;0.2011;7.1072;
841.5000;0.2027;7.1048;
841.8000;0.2002;7.1001;
842.1000;0.2035;7.1048;
842.4000;0.2002;7.1025;
842.7000;0.2002;7.0978;
843.0000;0.1937;7.0884;
843.3000;0.2019;7.1048;
843.6000;0.2051;7.1189;
843.9000;0.1921;7.0954;
844.2000;0.2002;7.1166;
844.5000;0.1954;7.0978;
844.8000;0.1994;7.1119;
845.1000;0.2019;7.1072;
845.4000;0.2002;7.1048;
845.7000;0.2011;7.1095;
846.0000;0.2002;7.1001;
846.3000;0.2019;7.0931;
846.6000;0.2019;7.1001;
846.9000;0.2027;7.1001;
847.2000;0.1994;7.0931;
847.5000;0.2011;7.0978;
847.8000;0.2027;7.1072;
848.1000;0.2011;7.1025;
848.4000;0.2011;7.1025;
848.7000;0.1994;7.1048;
849.0000;0.1994;7.0954;
849.3000;0.2002;7.0884;
849.6000;0.1994;7.0931;
849.9000;0.1970;7.0954;
850.2000;0.2011;7.1048;
850.5000;0.2011;7.1001;
850.8000;0.2011;7.0907;
851.1000;0.2011;7.0931;
851.4000;0.1978;7.0931;
851.7000;0.2002;7.1001;
852.0000;0.2035;7.1025;
852.3000;0.2035;7.1025;
852.6000;0.2002;7.0884;
852.9000;0.2027;7.0954;
853.2000;0.2011;7.0978;
853.5000;0.2011;7.0978;
853.8000;0.2011;7.0954;
854.1000;0.2002;7.1025;
854.4000;0.1994;7.0954;
854.7000;0.1970;7.0978;
855.0000;0.1970;7.0907;
855.3000;0.2043;7.1072;
855.6000;0.1962;7.0931;
855.9000;0.1970;7.0907;
856.2000;0.2011;7.1072;
856.5000;0.1978;7.0884;
856.8000;0.2059;7.1072;
857.1000;0.1994;7.0837;
857.4000;0.1994;7.0931;
857.7000;0.2019;7.1001;
858.0000;0.2002;7.0978;
858.3000;0.2035;7.1119;
858.6000;0.1945;7.0954;
858.9000;0.1994;7.1095;
859.2000;0.2035;7.1166;
859.5000;0.1954;7.1072;
859.8000;0.2011;7.1283;
860.1000;0.1986;7.1189;
860.4000;0.2002;7.1213;
860.7000;0.2011;7.1189;
861.0000;0.2011;7.1213;
861.3000;0.2002;7.1260;
861.6000;0.1994;7.1283;
861.9000;0.2002;7.1283;
862.2000;0.1945;7.1119;
862.5000;0.2002;7.1330;
862.8000;0.2035;7.1448;
863.1000;0.1978;7.1354;
863.4000;0.2019;7.1401;
863.7000;0.2011;7.1401;
864.0000;0.2019;7.1354;
864.3000;0.2011;7.1377;
864.6000;0.1986;7.1354;
864.9000;0.1986;7.1330;
865.2000;0.2002;7.1354;
865.5000;0.2019;7.1330;
865.8000;0.1986;7.1236;
866.1000;0.2002;7.1236;
866.4000;0.1945;7.1189;
866.7000;0.2011;7.1330;
867.0000;0.2002;7.1377;
867.3000;0.1994;7.1401;
867.6000;0.2011;7.1260;
867.9000;0.1986;7.1142;
868.2000;0.1978;7.1119;
868.5000;0.2002;7.1236;
868.8000;0.1994;7.1213;
869.1000;0.1986;7.1189;
869.4000;0.1962;7.1189;
869.7000;0.2011;7.1260;
870.0000;0.2019;7.1260;
870.3000;0.2011;7.1307;
870.6000;0.1994;7.1260;
870.9000;0.1994;7.1260;
871.2000;0.1962;7.1189;
871.5000;0.1994;7.1260;
871.8000;0.2002;7.1236;
872.1000;0.2011;7.1260;
872.4000;0.1970;7.1236;
872.7000;0.1978;7.1283;
873.0000;0.2002;7.1307;
873.3000;0.1970;7.1213;
873.6000;0.1986;7.1260;
873.9000;0.1986;7.1142;
874.2000;0.1986;7.1166;
874.5000;0.1994;7.1189;
874.8000;0.1994;7.1213;
875.1000;0.1978;7.1236;
875.4000;0.2002;7.1283;
875.7000;0.1978;7.1283;
876.0000;0.1986;7.1236;
876.3000;0.2011;7.1283;
876.6000;0.1994;7.1260;
876.9000;0.1945;7.1142;
877.2000;0.2011;7.1377;
877.5000;0.1994;7.1377;
877.8000;0.2019;7.1424;
878.1000;0.2084;7.1519;
878.4000;0.1986;7.1213;
878.7000;0.1978;7.1189;
879.0000;0.1954;7.1119;
879.3000;0.1929;7.1025;
879.6000;0.1970;7.1166;
879.9000;0.1986;7.1236;
880.2000;0.1978;7.1025;
880.5000;0.2035;7.1119;
880.8000;0.1970;7.1166;
881.1000;0.1994;7.1307;
881.4000;0.2011;7.1236;
881.7000;0.1986;7.1213;
882.0000;0.2011;7.1236;
882.3000;0.2051;7.1283;
882.6000;0.1945;7.1025;
882.9000;0.2002;7.1119;
883.2000;0.1970;7.1048;
883.5000;0.1978;7.1048;
883.8000;0.1986;7.1025;
884.1000;0.1978;7.0954;
884.4000;0.1970;7.1001;
884.7000;0.2051;7.1142;
885.0000;0.1994;7.1025;
885.3000;0.1954;7.1095;
885.6000;0.1978;7.1307;
885.9000;0.1994;7.1354;
886.2000;0.1994;7.1307;
886.5000;0.2011;7.1260;
886.8000;0.2002;7.1236;
887.1000;0.1994;7.1213;
887.4000;0.1970;7.1095;
887.7000;0.1994;7.1072;
888.0000;0.1994;7.1095;
888.3000;0.1994;7.1072;
888.6000;0.2011;7.1119;
888.9000;0.2002;7.1119;
889.2000;0.1978;7.1095;
889.5000;0.2051;7.1213;
889.8000;0.2002;7.1119;
890.1000;0.1994;7.1142;
890.4000;0.2002;7.1119;
890.7000;0.1954;7.0978;
891.0000;0.2002;7.1142;
891.3000;0.1986;7.1283;
891.6000;0.1994;7.1283;
891.9000;0.2035;7.1354;
892.2000;0.1994;7.1213;
892.5000;0.1986;7.1236;
892.8000;0.1994;7.1260;
893.1000;0.1994;7.1236;
893.4000;0.1986;7.1236;
893.7000;0.1994;7.1236;
894.0000;0.2002;7.1260;
894.3000;0.1978;7.1213;
894.6000;0.1978;7.1213;
894.9000;0.1905;7.0931;
895.2000;0.1978;7.1119;
895.5000;0.1970;7.1072;
895.8000;0.1970;7.1095;
896.1000;0.1954;7.1142;
896.4000;0.1970;7.1189;
896.7000;0.1970;7.1142;
897.0000;0.1978;7.1142;
897.3000;0.1970;7.1142;
897.6000;0.1970;7.1142;
897.9000;0.1962;7.1048;
898.2000;0.1978;7.1095;
898.5000;0.2002;7.1213;
898.8000;0.1978;7.1166;
899.1000;0.1978;7.1166;
899.4000;0.1945;7.1095;
899.7000;0.1986;7.1189;
900.0000;0.1978;7.1236;
900.3000;0.1978;7.1142;
900.6000;0.1962;7.1048;
900.9000;0.1978;7.1072;
901.2000;0.1978;7.1166;
901.5000;0.1962;7.1189;
901.8000;0.1962;7.1189;
902.1000;0.1986;7.1283;
902.4000;0.1994;7.1330;
902.7000;0.1994;7.1283;
903.0000;0.1978;7.1260;
903.3000;0.2035;7.1307;
903.6000;0.1986;7.1283;
903.9000;0.1978;7.1330;
904.2000;0.1962;7.1236;
904.5000;0.1970;7.1330;
904.8000;0.1986;7.1472;
905.1000;0.1994;7.1495;
905.4000;0.1921;7.1283;
905.7000;0.1978;7.1354;
906.0000;0.1970;7.1260;
906.3000;0.1970;7.1142;
906.6000;0.1970;7.1095;
906.9000;0.1994;7.1189;
907.2000;0.2002;7.1189;
907.5000;0.2002;7.1142;
907.8000;0.1986;7.1048;
908.1000;0.1986;7.1025;
908.4000;0.1994;7.1142;
908.7000;0.1994;7.1213;
909.0000;0.1986;7.1260;
909.3000;0.1954;7.1213;
909.6000;0.1978;7.1260;
909.9000;0.1994;7.1260;
910.2000;0.2011;7.1354;
910.5000;0.1986;7.1236;
910.8000;0.1962;7.1142;
911.1000;0.1994;7.1236;
911.4000;0.2019;7.1283;
911.7000;0.1994;7.1260;
912.0000;0.1986;7.1283;
912.3000;0.1978;7.1307;
912.6000;0.1994;7.1330;
912.9000;0.1970;7.1142;
913.2000;0.1978;7.1166;
913.5000;0.1986;7.1236;
913.8000;0.1978;7.1236;
914.1000;0.1970;7.1213;
914.4000;0.1986;7.1236;
914.7000;0.1962;7.1142;
915.0000;0.1994;7.1213;
915.3000;0.1994;7.1119;
915.6000;0.1978;7.1025;
915.9000;0.1978;7.0954;
916.2000;0.1986;7.1072;
916.5000;0.1994;7.1048;
916.8000;0.1970;7.0954;
917.1000;0.1986;7.1095;
917.4000;0.1962;7.0978;
917.7000;0.1986;7.1072;
918.0000;0.1978;7.1142;
918.3000;0.2002;7.1189;
918.6000;0.1978;7.1189;
918.9000;0.1986;7.1166;
919.2000;0.1978;7.1095;
919.5000;0.1945;7.1048;
919.8000;0.1978;7.1142;
920.1000;0.1978;7.1189;
920.4000;0.1994;7.1260;
920.7000;0.2002;7.1260;
921.0000;0.1970;7.1048;
921.3000;0.1986;7.1001;
921.6000;0.1986;7.1095;
921.9000;0.1986;7.1142;
922.2000;0.1978;7.1166;
922.5000;0.1994;7.1142;
922.8000;0.1937;7.1001;
923.1000;0.1986;7.1142;
923.4000;0.1962;7.1048;
923.7000;0.1970;7.1095;
924.0000;0.1994;7.1166;
924.3000;0.1994;7.1095;
924.6000;0.1970;7.1001;
924.9000;0.1970;7.1025;
925.2000;0.1970;7.1119;
925.5000;0.2011;7.1189;
925.8000;0.1970;7.1095;
926.1000;0.1994;7.1095;
926.4000;0.1970;7.1048;
926.7000;0.1978;7.1095;
927.0000;0.2051;7.1236;
927.3000;0.1994;7.1048;
927.6000;0.1929;7.0860;
927.9000;0.1994;7.1142;
928.2000;0.1994;7.1166;
928.5000;0.1986;7.1142;
928.8000;0.1921;7.1095;
929.1000;0.1978;7.1354;
929.4000;0.1962;7.1283;
929.7000;0.1978;7.1236;
930.0000;0.1970;7.1283;
930.3000;0.2002;7.1377;
930.6000;0.1986;7.1330;
930.9000;0.1970;7.1330;
931.2000;0.2011;7.1401;
931.5000;0.1978;7.1307;
931.8000;0.2027;7.1354;
932.1000;0.2011;7.1330;
932.4000;0.2019;7.1448;
932.7000;0.1986;7.1354;
933.0000;0.1986;7.1377;
933.3000;0.1986;7.1401;
933.6000;0.1970;7.1236;
933.9000;0.1970;7.1189;
934.2000;0.1970;7.1213;
934.5000;0.1978;7.1236;
934.8000;0.1978;7.1236;
935.1000;0.1970;7.1213;
935.4000;0.1970;7.1189;
935.7000;0.1929;7.1095;
936.0000;0.1970;7.1166;
936.3000;0.1962;7.1166;
936.6000;0.1962;7.1213;
936.9000;0.1905;7.1001;
937.2000;0.1962;7.1166;
937.5000;0.1970;7.1189;
937.8000;0.1970;7.1166;
938.1000;0.2035;7.1283;
938.4000;0.1986;7.1189;
938.7000;0.1962;7.1048;
939.0000;0.1962;7.1048;
939.3000;0.1970;7.1025;
939.6000;0.2019;7.1166;
939.9000;0.2002;7.1119;
940.2000;0.1978;7.1072;
940.5000;0.1970;7.1119;
940.8000;0.1978;7.1166;
941.1000;0.1986;7.1142;
941.4000;0.1962;7.1119;
941.7000;0.1905;7.0978;
942.0000;0.1978;7.1119;
942.3000;0.1970;7.1025;
942.6000;0.1978;7.1001;
942.9000;0.1937;7.0954;
943.2000;0.1986;7.1025;
943.5000;0.1962;7.1048;
943.8000;0.1864;7.0813;
944.1000;0.1970;7.1025;
944.4000;0.1954;7.0978;
944.7000;0.1970;7.0931;
945.0000;0.1978;7.0978;
945.3000;0.1945;7.0954;
945.6000;0.1978;7.0931;
945.9000;0.1937;7.0837;
946.2000;0.1929;7.0837;
946.5000;0.1954;7.0978;
946.8000;0.1978;7.1025;
947.1000;0.1937;7.0837;
947.4000;0.1978;7.0978;
947.7000;0.1962;7.0931;
948.0000;0.1921;7.0789;
948.3000;0.1986;7.0931;
948.6000;0.1986;7.0931;
948.9000;0.2019;7.0931;
949.2000;0.2019;7.0954;
949.5000;0.1978;7.1001;
949.8000;0.1970;7.1025;
950.1000;0.1986;7.0978;
950.4000;0.1962;7.0931;
950.7000;0.1986;7.1048;
951.0000;0.1954;7.1001;
951.3000;0.1945;7.1072;
951.6000;0.1970;7.1119;
951.9000;0.1978;7.1095;
952.2000;0.1921;7.0907;
952.5000;0.2002;7.1001;
952.8000;0.2027;7.1025;
953.1000;0.1970;7.0884;
953.4000;0.1986;7.0907;
953.7000;0.1970;7.0884;
954.0000;0.2084;7.1213;
954.3000;0.1970;7.1048;
954.6000;0.1954;7.0954;
954.9000;0.1954;7.0813;
955.2000;0.1921;7.0789;
955.5000;0.1986;7.0931;
955.8000;0.1978;7.0907;
956.1000;0.2002;7.1025;
956.4000;0.1986;7.0954;
956.7000;0.1986;7.0954;
957.0000;0.1970;7.0978;
957.3000;0.1962;7.0907;
957.6000;0.1978;7.0978;
957.9000;0.1986;7.1048;
958.2000;0.1970;7.1001;
958.5000;0.1986;7.1048;
958.8000;0.1970;7.1072;
959.1000;0.1937;7.0978;
959.4000;0.1970;7.0978;
959.7000;0.1978;7.0907;
960.0000;0.1962;7.0884;
960.3000;0.1970;7.1025;
960.6000;0.1986;7.0978;
960.9000;0.1937;7.0860;
961.2000;0.1945;7.0884;
961.5000;0.1986;7.0978;
961.8000;0.1994;7.0931;
962.1000;0.1970;7.0978;
962.4000;0.1970;7.1025;
962.7000;0.1970;7.1095;
963.0000;0.1978;7.1142;
963.3000;0.1978;7.1166;
963.6000;0.1978;7.1213;
963.9000;0.2002;7.1330;
964.2000;0.1962;7.1236;
964.5000;0.1962;7.1260;
964.8000;0.1978;7.1307;
965.1000;0.1937;7.1142;
965.4000;0.1978;7.1213;
965.7000;0.1905;7.1025;
966.0000;0.1978;7.1166;
966.3000;0.1962;7.1095;
966.6000;0.1978;7.1119;
966.9000;0.1945;7.1119;
967.2000;0.1978;7.1213;
967.5000;0.1962;7.1166;
967.8000;0.2002;7.1330;
968.1000;0.1994;7.1354;
968.4000;0.2011;7.1283;
968.7000;0.1994;7.1189;
969.0000;0.1978;7.1166;
969.3000;0.1970;7.1095;
969.6000;0.1970;7.1189;
969.9000;0.2002;7.1283;
970.2000;0.1962;7.1189;
970.5000;0.1945;7.1025;
970.8000;0.1986;7.1142;
971.1000;0.1986;7.1189;
971.4000;0.2019;7.1260;
971.7000;0.1970;7.1189;
972.0000;0.1937;7.1142;
972.3000;0.1994;7.1189;
972.6000;0.2059;7.1283;
972.9000;0.1970;7.1072;
973.2000;0.1921;7.1025;
973.5000;0.1994;7.1095;
973.8000;0.2011;7.1095;
974.1000;0.2051;7.1166;
974.4000;0.1945;7.0978;
974.7000;0.1962;7.1072;
975.0000;0.1986;7.1095;
975.3000;0.1994;7.1072;
975.6000;0.2002;7.1095;
975.9000;0.1994;7.0978;
976.2000;0.1978;7.0837;
976.5000;0.1954;7.0884;
976.8000;0.1888;7.0672;
977.1000;0.1937;7.0884;
977.4000;0.1994;7.0907;
977.7000;0.1962;7.0954;
978.0000;0.1978;7.1025;
978.3000;0.1986;7.1095;
978.6000;0.1994;7.1142;
978.9000;0.2002;7.1189;
979.2000;0.1994;7.1213;
979.5000;0.1978;7.1283;
979.8000;0.1978;7.1354;
980.1000;0.1978;7.1283;
980.4000;0.1970;7.1260;
980.7000;0.1962;7.1189;
981.0000;0.1962;7.1236;
981.3000;0.1945;7.1095;
981.6000;0.1986;7.1142;
981.9000;0.1962;7.1119;
982.2000;0.2084;7.1354;
982.5000;0.2002;7.1166;
982.8000;0.1986;7.1142;
983.1000;0.1962;7.1095;
983.4000;0.1970;7.1213;
983.7000;0.1962;7.1189;
984.0000;0.1970;7.1260;
984.3000;0.1970;7.1189;
984.6000;0.1954;7.1189;
984.9000;0.1970;7.1213;
985.2000;0.1962;7.1189;
985.5000;0.1978;7.1236;
985.8000;0.1994;7.1236;
986.1000;0.1986;7.1307;
986.4000;0.1970;7.1354;
986.7000;0.2027;7.1495;
987.0000;0.1954;7.1377;
987.3000;0.1986;7.1448;
987.6000;0.1970;7.1377;
987.9000;0.1970;7.1401;
988.2000;0.1986;7.1401;
988.5000;0.1970;7.1260;
988.8000;0.1962;7.1260;
989.1000;0.1986;7.1260;
989.4000;0.1970;7.1095;
989.7000;0.1954;7.1001;
990.0000;0.1986;7.1142;
990.3000;0.1986;7.1142;
990.6000;0.1945;7.0954;
990.9000;0.1962;7.1001;
991.2000;0.1954;7.0978;
991.5000;0.1994;7.1001;
991.8000;0.1986;7.0978;
992.1000;0.1937;7.0907;
992.4000;0.1888;7.0837;
992.7000;0.1962;7.1095;
993.0000;0.1970;7.1189;
993.3000;0.1978;7.1213;
993.6000;0.1954;7.1166;
993.9000;0.1970;7.1213;
994.2000;0.1945;7.1236;
994.5000;0.1970;7.1236;
994.8000;0.1937;7.1142;
995.1000;0.1929;7.1095;
995.4000;0.2011;7.1260;
995.7000;0.1962;7.1189;
996.0000;0.1970;7.1189;
996.3000;0.2043;7.1354;
996.6000;0.1913;7.1001;
996.9000;0.1978;7.1189;
997.2000;0.1970;7.1048;
997.5000;0.1970;7.1001;
997.8000;0.1978;7.1048;
998.1000;0.1970;7.1072;
998.4000;0.1978;7.1189;
998.7000;0.1978;7.1213;
999.0000;0.1986;7.1095;
999.3000;0.1986;7.1001;
999.6000;0.1954;7.0954;
999.9000;0.1970;7.1189;
1000.2000;0.1986;7.1236;
1000.5000;0.1962;7.1283;
1000.8000;0.1970;7.1330;
1001.1000;0.1970;7.1330;
1001.4000;0.1962;7.1401;
1001.7000;0.1962;7.1401;
1002.0000;0.2002;7.1424;
1002.3000;0.1962;7.1377;
1002.6000;0.1970;7.1354;
1002.9000;0.1986;7.1260;
1003.2000;0.1994;7.1189;
1003.5000;0.1970;7.1166;
1003.8000;0.1970;7.1142;
1004.1000;0.1986;7.1095;
1004.4000;0.1962;7.1048;
1004.7000;0.1929;7.1025;
1005.0000;0.1945;7.0931;
1005.3000;0.1986;7.1095;
1005.6000;0.1962;7.1166;
1005.9000;0.1978;7.1213;
1006.2000;0.1978;7.1189;
1006.5000;0.1978;7.1307;
1006.8000;0.1962;7.1236;
1007.1000;0.1970;7.1166;
1007.4000;0.1970;7.1119;
1007.7000;0.1978;7.1260;
1008.0000;0.1986;7.1260;
1008.3000;0.1986;7.1260;
1008.6000;0.1970;7.1213;
1008.9000;0.1962;7.1025;
1009.2000;0.1970;7.1072;
1009.5000;0.1945;7.1095;
1009.8000;0.1945;7.1048;
1010.1000;0.1954;7.1095;
1010.4000;0.1970;7.1189;
1010.7000;0.1970;7.1166;
1011.0000;0.1962;7.1142;
1011.3000;0.1970;7.1283;
1011.6000;0.1970;7.1236;
1011.9000;0.1978;7.1260;
1012.2000;0.1970;7.1189;
1012.5000;0.1954;7.1119;
1012.8000;0.1962;7.1189;
1013.1000;0.1970;7.1260;
1013.4000;0.1970;7.1260;
1013.7000;0.1986;7.1354;
1014.0000;0.1954;7.1307;
1014.3000;0.1962;7.1283;
1014.6000;0.1986;7.1330;
1014.9000;0.1962;7.1424;
1015.2000;0.1913;7.1354;
1015.5000;0.1986;7.1424;
1015.8000;0.1986;7.1236;
1016.1000;0.1962;7.1236;
1016.4000;0.1986;7.1260;
1016.7000;0.1962;7.1142;
1017.0000;0.1945;7.1189;
1017.3000;0.1978;7.1236;
1017.6000;0.1929;7.1095;
1017.9000;0.1962;7.1189;
1018.2000;0.1970;7.1119;
1018.5000;0.2027;7.1236;
1018.8000;0.1962;7.1166;
1019.1000;0.1962;7.1213;
1019.4000;0.2027;7.1424;
1019.7000;0.1994;7.1424;
1020.0000;0.1962;7.1307;
1020.3000;0.1986;7.1401;
1020.6000;0.1970;7.1307;
1020.9000;0.1970;7.1283;
1021.2000;0.1978;7.1166;
1021.5000;0.1905;7.1025;
1021.8000;0.2027;7.1401;
1022.1000;0.1978;7.1260;
1022.4000;0.1962;7.1166;
1022.7000;0.1970;7.1048;
1023.0000;0.1970;7.1119;
1023.3000;0.1978;7.1142;
1023.6000;0.1986;7.1142;
1023.9000;0.1978;7.1048;
1024.2000;0.2019;7.1119;
1024.5000;0.1962;7.0884;
1024.8000;0.1994;7.0954;
1025.1000;0.2051;7.1236;
1025.4000;0.1970;7.1025;
1025.7000;0.1970;7.1072;
1026.0000;0.1978;7.1072;
1026.3000;0.1962;7.1072;
1026.6000;0.1962;7.1213;
1026.9000;0.1962;7.1236;
1027.2000;0.1962;7.1236;
1027.5000;0.1962;7.1189;
1027.8000;0.1937;7.1213;
1028.1000;0.1970;7.1260;
1028.4000;0.1970;7.1283;
1028.7000;0.1945;7.1119;
1029.0000;0.1994;7.1260;
1029.3000;0.1962;7.1189;
1029.6000;0.1970;7.1283;
1029.9000;0.1978;7.1236;
1030.2000;0.1954;7.1189;
1030.5000;0.1986;7.1307;
1030.8000;0.1962;7.1189;
1031.1000;0.1962;7.1166;
1031.4000;0.1945;7.1142;
1031.7000;0.1937;7.1095;
1032.0000;0.2043;7.1401;
1032.3000;0.1978;7.1307;
1032.6000;0.1970;7.1283;
1032.9000;0.1962;7.1236;
1033.2000;0.1970;7.1236;
1033.5000;0.1994;7.1260;
1033.8000;0.1970;7.1213;
1034.1000;0.1945;7.1166;
1034.4000;0.1978;7.1166;
1034.7000;0.1978;7.1260;
1035.0000;0.1986;7.1189;
1035.3000;0.1954;7.1072;
1035.6000;0.2027;7.1213;
1035.9000;0.1954;7.1001;
1036.2000;0.1962;7.0907;
1036.5000;0.1978;7.0931;
1036.8000;0.1962;7.0860;
1037.1000;0.1970;7.0954;
1037.4000;0.1962;7.1001;
1037.7000;0.1962;7.1025;
1038.0000;0.1962;7.1119;
1038.3000;0.1970;7.1119;
1038.6000;0.1962;7.1095;
1038.9000;0.1962;7.1095;
1039.2000;0.1954;7.0978;
1039.5000;0.1962;7.1001;
1039.8000;0.2019;7.1119;
1040.1000;0.1954;7.1025;
1040.4000;0.1945;7.0978;
1040.7000;0.1986;7.1025;
1041.0000;0.1994;7.1025;
1041.3000;0.1937;7.0931;
1041.6000;0.2068;7.1330;
1041.9000;0.1962;7.1072;
1042.2000;0.2027;7.1213;
1042.5000;0.1970;7.1142;
1042.8000;0.1970;7.1142;
1043.1000;0.1978;7.1142;
1043.4000;0.2002;7.1189;
1043.7000;0.1945;7.1025;
1044.0000;0.1937;7.1001;
1044.3000;0.1970;7.1119;
1044.6000;0.2019;7.1260;
1044.9000;0.2043;7.1354;
1045.2000;0.1954;7.1095;
1045.5000;0.1970;7.1095;
1045.8000;0.1905;7.0978;
1046.1000;0.1962;7.1119;
1046.4000;0.1954;7.1095;
1046.7000;0.1970;7.1095;
1047.0000;0.1954;7.1119;
1047.3000;0.2019;7.1260;
1047.6000;0.1945;7.1213;
1047.9000;0.1978;7.1260;
1048.2000;0.2002;7.1330;
1048.5000;0.1937;7.1166;
1048.8000;0.1945;7.1119;
1049.1000;0.1962;7.1166;
1049.4000;0.1929;7.1189;
1049.7000;0.1945;7.1283;
1050.0000;0.1945;7.1307;
1050.3000;0.1897;7.1189;
1050.6000;0.1962;7.1283;
1050.9000;0.1954;7.1307;
1051.2000;0.1954;7.1283;
1051.5000;0.1929;7.1283;
1051.8000;0.1954;7.1330;
1052.1000;0.1962;7.1354;
1052.4000;0.1937;7.1401;
1052.7000;0.1954;7.1377;
1053.0000;0.1945;7.1377;
1053.3000;0.1962;7.1377;
1053.6000;0.1945;7.1307;
1053.9000;0.2027;7.1472;
1054.2000;0.1954;7.1260;
1054.5000;0.1954;7.1283;
1054.8000;0.1897;7.1189;
1055.1000;0.1978;7.1354;
1055.4000;0.1954;7.1354;
1055.7000;0.1945;7.1236;
1056.0000;0.1921;7.1189;
1056.3000;0.1945;7.1119;
1056.6000;0.1945;7.1142;
1056.9000;0.1954;7.1166;
1057.2000;0.1962;7.1189;
1057.5000;0.1970;7.1236;
1057.8000;0.1945;7.1072;
1058.1000;0.1962;7.1072;
1058.4000;0.1970;7.1048;
1058.7000;0.1978;7.1189;
1059.0000;0.1962;7.1166;
1059.3000;0.1978;7.1048;
1059.6000;0.1970;7.1048;
1059.9000;0.1962;7.1095;
1060.2000;0.1962;7.1283;
1060.5000;0.1945;7.1236;
1060.8000;0.1937;7.1166;
1061.1000;0.1937;7.1072;
1061.4000;0.1970;7.1189;
1061.7000;0.2002;7.1260;
1062.0000;0.1945;7.1142;
1062.3000;0.1978;7.1213;
1062.6000;0.1970;7.1166;
1062.9000;0.2068;7.1424;
1063.2000;0.1970;7.1166;
1063.5000;0.1970;7.1095;
1063.8000;0.1970;7.1025;
1064.1000;0.1954;7.0884;
1064.4000;0.1970;7.0954;
1064.7000;0.1986;7.1001;
1065.0000;0.1962;7.1001;
1065.3000;0.1962;7.1072;
1065.6000;0.1954;7.1072;
1065.9000;0.1945;7.1072;
1066.2000;0.1962;7.1166;
1066.5000;0.1962;7.1189;
1066.8000;0.1962;7.1119;
1067.1000;0.1962;7.1142;
1067.4000;0.2011;7.1283;
1067.7000;0.1954;7.1213;
1068.0000;0.1978;7.1260;
1068.3000;0.1929;7.1119;
1068.6000;0.1954;7.1095;
1068.9000;0.1954;7.1142;
1069.2000;0.1913;7.1095;
1069.5000;0.1970;7.1189;
1069.8000;0.1962;7.1142;
1070.1000;0.1945;7.1166;
1070.4000;0.1978;7.1260;
1070.7000;0.1978;7.1330;
1071.0000;0.1929;7.1330;
1071.3000;0.1962;7.1401;
1071.6000;0.1994;7.1401;
1071.9000;0.1970;7.1424;
1072.2000;0.1864;7.1166;
1072.5000;0.1978;7.1424;
1072.8000;0.1954;7.1354;
1073.1000;0.1962;7.1401;
1073.4000;0.1978;7.1448;
1073.7000;0.1970;7.1401;
1074.0000;0.1954;7.1401;
1074.3000;0.1970;7.1377;
1074.6000;0.1970;7.1307;
1074.9000;0.1954;7.1377;
1075.2000;0.1945;7.1354;
1075.5000;0.1945;7.1401;
1075.8000;0.2043;7.1589;
1076.1000;0.1905;7.1189;
1076.4000;0.1962;7.1307;
1076.7000;0.1954;7.1260;
1077.0000;0.1945;7.1189;
1077.3000;0.1962;7.1260;
1077.6000;0.1962;7.1236;
1077.9000;0.1970;7.1213;
1078.2000;0.1962;7.1166;
1078.5000;0.1978;7.1142;
1078.8000;0.1954;7.1142;
1079.1000;0.1945;7.1119;
1079.4000;0.1962;7.1166;
1079.7000;0.1970;7.1189;
1080.0000;0.1962;7.1236;
1080.3000;0.1994;7.1283;
1080.6000;0.1994;7.1330;
1080.9000;0.1986;7.1307;
1081.2000;0.1962;7.1307;
1081.5000;0.1986;7.1307;
1081.8000;0.1954;7.1330;
1082.1000;0.1994;7.1307;
1082.4000;0.1954;7.1189;
1082.7000;0.1970;7.1189;
1083.0000;0.1970;7.1166;
1083.3000;0.1970;7.1166;
1083.6000;0.1962;7.1166;
1083.9000;0.1962;7.1213;
1084.2000;0.1954;7.1260;
1084.5000;0.2002;7.1424;
1084.8000;0.1954;7.1377;
1085.1000;0.1913;7.1330;
1085.4000;0.1954;7.1448;
1085.7000;0.1970;7.1401;
1086.0000;0.1962;7.1424;
1086.3000;0.1962;7.1401;
1086.6000;0.2035;7.1683;
1086.9000;0.1962;7.1495;
1087.2000;0.1921;7.1377;
1087.5000;0.2059;7.1589;
1087.8000;0.1962;7.1448;
1088.1000;0.1823;7.1189;
1088.4000;0.1929;7.1377;
1088.7000;0.1954;7.1401;
1089.0000;0.1962;7.1401;
1089.3000;0.1962;7.1495;
1089.6000;0.1945;7.1448;
1089.9000;0.1921;7.1377;
1090.2000;0.1954;7.1330;
1090.5000;0.1929;7.1283;
1090.8000;0.1921;7.1283;
1091.1000;0.1945;7.1307;
1091.4000;0.1962;7.1213;
1091.7000;0.1970;7.1213;
1092.0000;0.1970;7.1283;
1092.3000;0.1913;7.1189;
1092.6000;0.1962;7.1307;
1092.9000;0.1945;7.1307;
1093.2000;0.2002;7.1519;
1093.5000;0.1945;7.1472;
1093.8000;0.1921;7.1424;
1094.1000;0.1937;7.1401;
1094.4000;0.1954;7.1448;
1094.7000;0.1921;7.1401;
1095.0000;0.1978;7.1472;
1095.3000;0.1954;7.1283;
1095.6000;0.1970;7.1307;
1095.9000;0.1962;7.1424;
1096.2000;0.1978;7.1354;
1096.5000;0.1978;7.1330;
1096.8000;0.1962;7.1307;
1097.1000;0.1978;7.1307;
1097.4000;0.1962;7.1189;
1097.7000;0.1970;7.1189;
1098.0000;0.1970;7.1189;
1098.3000;0.1970;7.1142;
1098.6000;0.1962;7.1166;
1098.9000;0.1970;7.1166;
1099.2000;0.1945;7.1095;
1099.5000;0.1962;7.1142;
1099.8000;0.1994;7.1283;
1100.1000;0.1929;7.1119;
1100.4000;0.1937;7.1142;
1100.7000;0.1954;7.1119;
1101.0000;0.1954;7.1189;
1101.3000;0.1921;7.1048;
1101.6000;0.1929;7.1119;
1101.9000;0.1962;7.1142;
1102.2000;0.1929;7.1072;
1102.5000;0.1945;7.1142;
1102.8000;0.1937;7.1142;
1103.1000;0.1864;7.0931;
1103.4000;0.1954;7.1119;
1103.7000;0.1954;7.1119;
1104.0000;0.1970;7.1142;
1104.3000;0.1962;7.1095;
1104.6000;0.1954;7.1142;
1104.9000;0.1962;7.1189;
1105.2000;0.1970;7.1307;
1105.5000;0.1937;7.1236;
1105.8000;0.1945;7.1330;
1106.1000;0.1913;7.1260;
1106.4000;0.1913;7.1166;
1106.7000;0.1937;7.1260;
1107.0000;0.1954;7.1236;
1107.3000;0.1929;7.1213;
1107.6000;0.1937;7.1213;
1107.9000;0.1929;7.1236;
1108.2000;0.1970;7.1330;
1108.5000;0.1929;7.1307;
1108.8000;0.1962;7.1377;
1109.1000;0.1954;7.1354;
1109.4000;0.1905;7.1330;
1109.7000;0.1929;7.1401;
1110.0000;0.1954;7.1495;
1110.3000;0.1970;7.1448;
1110.6000;0.1913;7.1307;
1110.9000;0.1929;7.1330;
1111.2000;0.1945;7.1260;
1111.5000;0.2035;7.1424;
1111.8000;0.1962;7.1236;
1112.1000;0.1921;7.1260;
1112.4000;0.1929;7.1283;
1112.7000;0.1954;7.1354;
1113.0000;0.1970;7.1401;
1113.3000;0.1994;7.1495;
1113.6000;0.1954;7.1354;
1113.9000;0.1937;7.1236;
1114.2000;0.1954;7.1330;
1114.5000;0.1897;7.1189;
1114.8000;0.1962;7.1213;
1115.1000;0.1970;7.1260;
1115.4000;0.1962;7.1307;
1115.7000;0.1913;7.1166;
1116.0000;0.1954;7.1307;
1116.3000;0.1978;7.1377;
1116.6000;0.1945;7.1260;
1116.9000;0.1954;7.1283;
1117.2000;0.1994;7.1330;
1117.5000;0.1994;7.1213;
1117.8000;0.1970;7.1166;
1118.1000;0.1945;7.1095;
1118.4000;0.1962;7.1166;
1118.7000;0.1970;7.1213;
1119.0000;0.1978;7.1236;
1119.3000;0.1954;7.1166;
1119.6000;0.1929;7.1189;
1119.9000;0.2035;7.1448;
1120.2000;0.1872;7.1072;
1120.5000;0.1929;7.1236;
1120.8000;0.1945;7.1236;
1121.1000;0.2002;7.1354;
1121.4000;0.1945;7.1213;
1121.7000;0.1945;7.1236;
1122.0000;0.1937;7.1213;
1122.3000;0.1962;7.1354;
1122.6000;0.1929;7.1283;
1122.9000;0.1962;7.1330;
1123.2000;0.1945;7.1330;
1123.5000;0.1954;7.1307;
1123.8000;0.1954;7.1330;
1124.1000;0.1954;7.1424;
1124.4000;0.1937;7.1330;
1124.7000;0.1986;7.1401;
1125.0000;0.1954;7.1354;
1125.3000;0.1937;7.1307;
1125.6000;0.1937;7.1236;
1125.9000;0.1945;7.1307;
1126.2000;0.1945;7.1236;
1126.5000;0.1945;7.1142;
1126.8000;0.1954;7.1142;
1127.1000;0.1962;7.1142;
1127.4000;0.1986;7.1119;
1127.7000;0.1945;7.1048;
1128.0000;0.1962;7.1166;
1128.3000;0.1954;7.1166;
1128.6000;0.1970;7.1166;
1128.9000;0.1848;7.0954;
1129.2000;0.1970;7.1189;
1129.5000;0.1954;7.1189;
1129.8000;0.1954;7.1213;
1130.1000;0.1954;7.1166;
1130.4000;0.1945;7.1189;
1130.7000;0.1945;7.1166;
1131.0000;0.1954;7.1142;
1131.3000;0.1929;7.1166;
1131.6000;0.1954;7.1166;
1131.9000;0.1945;7.1213;
1132.2000;0.1945;7.1260;
1132.5000;0.1945;7.1260;
1132.8000;0.1954;7.1236;
1133.1000;0.1945;7.1236;
1133.4000;0.1962;7.1283;
1133.7000;0.1937;7.1307;
1134.0000;0.1962;7.1330;
1134.3000;0.1962;7.1236;
1134.6000;0.1937;7.1236;
1134.9000;0.1954;7.1330;
1135.2000;0.1937;7.1260;
1135.5000;0.1978;7.1354;
1135.8000;0.1945;7.1307;
1136.1000;0.1945;7.1307;
1136.4000;0.1929;7.1236;
1136.7000;0.1937;7.1213;
1137.0000;0.1954;7.1166;
1137.3000;0.1888;7.0978;
1137.6000;0.1962;7.1166;
1137.9000;0.1970;7.1236;
1138.2000;0.1970;7.1283;
1138.5000;0.2027;7.1330;
1138.8000;0.1986;7.1236;
1139.1000;0.1970;7.1119;
1139.4000;0.1962;7.1213;
1139.7000;0.1945;7.1236;
1140.0000;0.1954;7.1213;
1140.3000;0.1962;7.1307;
1140.6000;0.1954;7.1330;
1140.9000;0.1954;7.1236;
1141.2000;0.1962;7.1213;
1141.5000;0.1986;7.1236;
1141.8000;0.1921;7.1283;
1142.1000;0.1937;7.1307;
1142.4000;0.1888;7.1213;
1142.7000;0.2011;7.1566;
1143.0000;0.1929;7.1377;
1143.3000;0.1954;7.1448;
1143.6000;0.1945;7.1472;
1143.9000;0.1970;7.1495;
1144.2000;0.1945;7.1495;
1144.5000;0.1945;7.1424;
1144.8000;0.1945;7.1401;
1145.1000;0.1945;7.1354;
1145.4000;0.1945;7.1330;
1145.7000;0.1970;7.1472;
1146.0000;0.1945;7.1330;
1146.3000;0.1937;7.1236;
1146.6000;0.1937;7.1260;
1146.9000;0.1929;7.1236;
1147.2000;0.1929;7.1260;
1147.5000;0.1937;7.1189;
1147.8000;0.1954;7.1260;
1148.1000;0.1954;7.1260;
1148.4000;0.1978;7.1330;
1148.7000;0.1970;7.1260;
1149.0000;0.1954;7.1166;
1149.3000;0.1962;7.1189;
1149.6000;0.1978;7.1260;
1149.9000;0.1945;7.1142;
1150.2000;0.1945;7.1213;
1150.5000;0.1945;7.1072;
1150.8000;0.1986;7.1189;
1151.1000;0.1954;7.1095;
1151.4000;0.1945;7.1189;
1151.7000;0.1986;7.1260;
1152.0000;0.1970;7.1166;
1152.3000;0.1945;7.1189;
1152.6000;0.1962;7.1354;
1152.9000;0.1978;7.1424;
1153.2000;0.1954;7.1283;
1153.5000;0.1921;7.1283;
1153.8000;0.1945;7.1307;
1154.1000;0.2027;7.1542;
1154.4000;0.1962;7.1377;
1154.7000;0.1945;7.1330;
1155.0000;0.1945;7.1260;
1155.3000;0.1954;7.1354;
1155.6000;0.1954;7.1424;
1155.9000;0.1945;7.1424;
1156.2000;0.1945;7.1424;
1156.5000;0.1937;7.1424;
1156.8000;0.1970;7.1448;
1157.1000;0.1937;7.1330;
1157.4000;0.1937;7.1307;
1157.7000;0.1970;7.1401;
1158.0000;0.1913;7.1236;
1158.3000;0.1962;7.1401;
1158.6000;0.1962;7.1424;
1158.9000;0.1954;7.1330;
1159.2000;0.1945;7.1330;
1159.5000;0.1962;7.1354;
1159.8000;0.1897;7.1166;
1160.1000;0.1954;7.1330;
1160.4000;0.1929;7.1307;
1160.7000;0.1929;7.1307;
1161.0000;0.1937;7.1330;
1161.3000;0.1970;7.1424;
1161.6000;0.1954;7.1377;
1161.9000;0.1897;7.1260;
1162.2000;0.1945;7.1495;
1162.5000;0.1954;7.1589;
1162.8000;0.1954;7.1613;
1163.1000;0.1954;7.1613;
1163.4000;0.2035;7.1730;
1163.7000;0.2035;7.1707;
1164.0000;0.1954;7.1495;
1164.3000;0.1970;7.1495;
1164.6000;0.1921;7.1354;
1164.9000;0.2059;7.1613;
1165.2000;0.1929;7.1260;
1165.5000;0.1937;7.1283;
1165.8000;0.1970;7.1377;
1166.1000;0.1962;7.1330;
1166.4000;0.1945;7.1354;
1166.7000;0.1954;7.1307;
1167.0000;0.1962;7.1330;
1167.3000;0.1954;7.1213;
1167.6000;0.1954;7.1307;
1167.9000;0.1937;7.1330;
1168.2000;0.1929;7.1307;
1168.5000;0.1962;7.1354;
1168.8000;0.1962;7.1377;
1169.1000;0.1962;7.1377;
1169.4000;0.1954;7.1401;
1169.7000;0.1888;7.1260;
1170.0000;0.1937;7.1472;
1170.3000;0.1937;7.1542;
1170.6000;0.1954;7.1519;
1170.9000;0.1962;7.1424;
1171.2000;0.1937;7.1401;
1171.5000;0.1954;7.1424;
1171.8000;0.1929;7.1307;
1172.1000;0.1945;7.1401;
1172.4000;0.1945;7.1354;
1172.7000;0.1913;7.1354;
1173.0000;0.1921;7.1260;
1173.3000;0.1954;7.1307;
1173.6000;0.1937;7.1307;
1173.9000;0.1905;7.1260;
1174.2000;0.1994;7.1495;
1174.5000;0.1962;7.1354;
1174.8000;0.1970;7.1401;
1175.1000;0.1921;7.1307;
1175.4000;0.1962;7.1495;
1175.7000;0.1888;7.1377;
1176.0000;0.1978;7.1589;
1176.3000;0.1970;7.1542;
1176.6000;0.1978;7.1542;
1176.9000;0.1921;7.1377;
1177.2000;0.1962;7.1519;
1177.5000;0.1945;7.1377;
1177.8000;0.1962;7.1401;
1178.1000;0.1962;7.1377;
1178.4000;0.2002;7.1519;
1178.7000;0.1945;7.1354;
1179.0000;0.1962;7.1424;
1179.3000;0.1888;7.1189;
1179.6000;0.2011;7.1613;
1179.9000;0.1945;7.1424;
1180.2000;0.1970;7.1542;
1180.5000;0.1913;7.1472;
1180.8000;0.1986;7.1636;
1181.1000;0.1954;7.1542;
1181.4000;0.1978;7.1495;
1181.7000;0.1962;7.1401;
1182.0000;0.1945;7.1354;
1182.3000;0.1897;7.1330;
1182.6000;0.1994;7.1495;
1182.9000;0.2002;7.1472;
1183.2000;0.1945;7.1472;
1183.5000;0.1929;7.1448;
1183.8000;0.1937;7.1448;
1184.1000;0.1945;7.1542;
1184.4000;0.1978;7.1660;
1184.7000;0.1954;7.1589;
1185.0000;0.2002;7.1636;
1185.3000;0.1921;7.1472;
1185.6000;0.1962;7.1542;
1185.9000;0.1872;7.1424;
1186.2000;0.1945;7.1542;
1186.5000;0.1945;7.1401;
1186.8000;0.1913;7.1401;
1187.1000;0.1970;7.1377;
1187.4000;0.1994;7.1401;
1187.7000;0.1978;7.1401;
1188.0000;0.2011;7.1448;
1188.3000;0.1954;7.1401;
1188.6000;0.1962;7.1354;
1188.9000;0.1937;7.1142;
1189.2000;0.1970;7.1213;
1189.5000;0.1945;7.1236;
1189.8000;0.1962;7.1354;
1190.1000;0.1962;7.1377;
1190.4000;0.1962;7.1236;
1190.7000;0.1937;7.1189;
1191.0000;0.1929;7.1189;
1191.3000;0.1962;7.1307;
1191.6000;0.1954;7.1307;
1191.9000;0.1954;7.1330;
1192.2000;0.1937;7.1330;
1192.5000;0.1986;7.1401;
1192.8000;0.1962;7.1377;
1193.1000;0.1954;7.1401;
1193.4000;0.1954;7.1354;
1193.7000;0.1897;7.1189;
1194.0000;0.1962;7.1354;
1194.3000;0.1954;7.1354;
1194.6000;0.1929;7.1283;
1194.9000;0.1962;7.1330;
1195.2000;0.1978;7.1377;
1195.5000;0.1905;7.1260;
1195.8000;0.1832;7.1072;
1196.1000;0.1921;7.1307;
1196.4000;0.1929;7.1354;
1196.7000;0.1945;7.1377;
1197.0000;0.1937;7.1401;
1197.3000;0.1945;7.1401;
1197.6000;0.1954;7.1424;
1197.9000;0.1929;7.1424;
1198.2000;0.1921;7.1330;
1198.5000;0.1937;7.1401;
1198.8000;0.1937;7.1424;
1199.1000;0.1921;7.1401;
1199.4000;0.1937;7.1448;
1199.7000;0.1954;7.1448;
1200.0000;0.1962;7.1472;
1200.3000;0.1978;7.1495;
1200.6000;0.1962;7.1377;
1200.9000;0.1954;7.1377;
1201.2000;0.1945;7.1354;
1201.5000;0.1937;7.1307;
1201.8000;0.1954;7.1260;
1202.1000;0.1929;7.1260;
1202.4000;0.1937;7.1330;
1202.7000;0.1945;7.1354;
1203.0000;0.1986;7.1377;
1203.3000;0.1921;7.1236;
1203.6000;0.1954;7.1283;
1203.9000;0.1945;7.1236;
1204.2000;0.1945;7.1377;
1204.5000;0.1937;7.1424;
1204.8000;0.1929;7.1377;
1205.1000;0.1945;7.1448;
1205.4000;0.1962;7.1377;
1205.7000;0.2035;7.1519;
1206.0000;0.1945;7.1119;
1206.3000;0.1888;7.1025;
1206.6000;0.1970;7.1142;
1206.9000;0.1954;7.1166;
1207.2000;0.1945;7.1213;
1207.5000;0.1897;7.1166;
1207.8000;0.1954;7.1354;
1208.1000;0.1929;7.1424;
1208.4000;0.1929;7.1472;
1208.7000;0.1954;7.1519;
1209.0000;0.1954;7.1448;
1209.3000;0.1872;7.1260;
1209.6000;0.1921;7.1330;
1209.9000;0.1937;7.1401;
1210.2000;0.1945;7.1448;
1210.5000;0.1929;7.1354;
1210.8000;0.1937;7.1330;
1211.1000;0.1962;7.1330;
1211.4000;0.1954;7.1354;
1211.7000;0.1929;7.1189;
1212.0000;0.1945;7.1119;
1212.3000;0.1913;7.1189;
1212.6000;0.1937;7.1283;
1212.9000;0.1937;7.1330;
1213.2000;0.1945;7.1401;
1213.5000;0.1954;7.1424;
1213.8000;0.1986;7.1472;
1214.1000;0.1986;7.1542;
1214.4000;0.1937;7.1377;
1214.7000;0.1954;7.1354;
1215.0000;0.1945;7.1448;
1215.3000;0.1945;7.1472;
1215.6000;0.1954;7.1495;
1215.9000;0.1937;7.1495;
1216.2000;0.1937;7.1472;
1216.5000;0.1937;7.1424;
1216.8000;0.1937;7.1472;
1217.1000;0.1945;7.1542;
1217.4000;0.1945;7.1495;
1217.7000;0.2011;7.1589;
1218.0000;0.1945;7.1448;
1218.3000;0.1929;7.1424;
1218.6000;0.1905;7.1307;
1218.9000;0.1945;7.1424;
1219.2000;0.1954;7.1401;
1219.5000;0.1937;7.1354;
1219.8000;0.1945;7.1377;
1220.1000;0.1954;7.1377;
1220.4000;0.1978;7.1472;
1220.7000;0.1954;7.1472;
1221.0000;0.1937;7.1401;
1221.3000;0.1929;7.1354;
1221.6000;0.1954;7.1401;
1221.9000;0.1937;7.1401;
1222.2000;0.1905;7.1213;
1222.5000;0.1945;7.1283;
1222.8000;0.1937;7.1260;
1223.1000;0.1954;7.1283;
1223.4000;0.1962;7.1213;
1223.7000;0.1970;7.1236;
1224.0000;0.1945;7.1189;
1224.3000;0.1929;7.1119;
1224.6000;0.1954;7.1142;
1224.9000;0.1954;7.1142;
1225.2000;0.1978;7.1283;
1225.5000;0.1962;7.1354;
1225.8000;0.1970;7.1260;
1226.1000;0.1978;7.1377;
1226.4000;0.1970;7.1472;
1226.7000;0.1954;7.1377;
1227.0000;0.1962;7.1424;
1227.3000;0.1945;7.1354;
1227.6000;0.1954;7.1307;
1227.9000;0.1962;7.1354;
1228.2000;0.1954;7.1377;
1228.5000;0.1937;7.1283;
1228.8000;0.1970;7.1354;
1229.1000;0.1962;7.1424;
1229.4000;0.1954;7.1566;
1229.7000;0.2002;7.1730;
1230.0000;0.1962;7.1566;
1230.3000;0.1905;7.1424;
1230.6000;0.1962;7.1613;
1230.9000;0.1954;7.1613;
1231.2000;0.1937;7.1401;
1231.5000;0.1945;7.1354;
1231.8000;0.1954;7.1401;
1232.1000;0.1954;7.1448;
1232.4000;0.1962;7.1495;
1232.7000;0.1945;7.1401;
1233.0000;0.1937;7.1448;
1233.3000;0.1962;7.1448;
1233.6000;0.1954;7.1330;
1233.9000;0.1945;7.1448;
1234.2000;0.1962;7.1495;
1234.5000;0.1954;7.1354;
1234.8000;0.1945;7.1330;
1235.1000;0.1954;7.1330;
1235.4000;0.1913;7.1283;
1235.7000;0.1962;7.1330;
1236.0000;0.1937;7.1260;
1236.3000;0.2019;7.1472;
1236.6000;0.1954;7.1330;
1236.9000;0.1945;7.1330;
1237.2000;0.1954;7.1307;
1237.5000;0.1929;7.1072;
1237.8000;0.1945;7.1048;
1238.1000;0.1954;7.1119;
1238.4000;0.1970;7.1072;
1238.7000;0.1962;7.1048;
1239.0000;0.1929;7.0954;
1239.3000;0.1970;7.1048;
1239.6000;0.1970;7.1095;
1239.9000;0.1962;7.1213;
1240.2000;0.1954;7.1166;
1240.5000;0.1929;7.1048;
1240.8000;0.1970;7.1189;
1241.1000;0.1954;7.1142;
1241.4000;0.2011;7.1307;
1241.7000;0.1970;7.1330;
1242.0000;0.1945;7.1283;
1242.3000;0.1937;7.1283;
1242.6000;0.1921;7.1166;
1242.9000;0.1937;7.1189;
1243.2000;0.1880;7.1072;
1243.5000;0.1815;7.0978;
1243.8000;0.1929;7.1307;
1244.1000;0.1945;7.1283;
1244.4000;0.1937;7.1330;
1244.7000;0.2019;7.1424;
1245.0000;0.1945;7.1354;
1245.3000;0.1954;7.1330;
1245.6000;0.1962;7.1330;
1245.9000;0.1954;7.1424;
1246.2000;0.2002;7.1519;
1246.5000;0.1937;7.1330;
1246.8000;0.1954;7.1401;
1247.1000;0.1962;7.1401;
1247.4000;0.1954;7.1354;
1247.7000;0.1962;7.1354;
1248.0000;0.1945;7.1377;
1248.3000;0.1945;7.1307;
1248.6000;0.1970;7.1330;
1248.9000;0.1954;7.1401;
1249.2000;0.1954;7.1424;
1249.5000;0.1954;7.1377;
1249.8000;0.1962;7.1448;
1250.1000;0.1978;7.1424;
1250.4000;0.1962;7.1307;
1250.7000;0.1921;7.1260;
1251.0000;0.1954;7.1354;
1251.3000;0.1954;7.1283;
1251.6000;0.1929;7.1213;
1251.9000;0.1970;7.1260;
1252.2000;0.1864;7.1072;
1252.5000;0.1954;7.1401;
1252.8000;0.1937;7.1401;
1253.1000;0.1954;7.1377;
1253.4000;0.1954;7.1307;
1253.7000;0.1954;7.1401;
1254.0000;0.1954;7.1424;
1254.3000;0.1962;7.1495;
1254.6000;0.1978;7.1566;
1254.9000;0.1962;7.1472;
1255.2000;0.1937;7.1424;
1255.5000;0.1962;7.1448;
1255.8000;0.1970;7.1448;
1256.1000;0.1954;7.1424;
1256.4000;0.1962;7.1377;
1256.7000;0.1954;7.1377;
1257.0000;0.1954;7.1377;
1257.3000;0.1970;7.1236;
1257.6000;0.1937;7.1236;
1257.9000;0.1945;7.1166;
1258.2000;0.1978;7.1236;
1258.5000;0.1986;7.1283;
1258.8000;0.1970;7.1377;
1259.1000;0.1954;7.1283;
1259.4000;0.1905;7.1166;
1259.7000;0.1945;7.1236;
1260.0000;0.1962;7.1260;
1260.3000;0.1945;7.1283;
1260.6000;0.1954;7.1189;
1260.9000;0.1954;7.1166;
1261.2000;0.1986;7.1213;
1261.5000;0.1945;7.1142;
1261.8000;0.1921;7.1072;
1262.1000;0.1954;7.1119;
1262.4000;0.1962;7.1166;
1262.7000;0.1913;7.1048;
1263.0000;0.1945;7.1095;
1263.3000;0.1970;7.1189;
1263.6000;0.1962;7.1142;
1263.9000;0.1954;7.1166;
1264.2000;0.1897;7.1095;
1264.5000;0.1937;7.1213;
1264.8000;0.1994;7.1354;
1265.1000;0.2002;7.1377;
1265.4000;0.1945;7.1236;
1265.7000;0.1929;7.1189;
1266.0000;0.1954;7.1283;
1266.3000;0.1945;7.1307;
1266.6000;0.1921;7.1189;
1266.9000;0.1954;7.1236;
1267.2000;0.2011;7.1330;
1267.5000;0.1937;7.1236;
1267.8000;0.1954;7.1283;
1268.1000;0.1945;7.1330;
1268.4000;0.1954;7.1354;
1268.7000;0.1994;7.1307;
1269.0000;0.1954;7.1283;
1269.3000;0.1962;7.1401;
1269.6000;0.1937;7.1472;
1269.9000;0.1945;7.1377;
1270.2000;0.1945;7.1330;
1270.5000;0.1986;7.1519;
1270.8000;0.1954;7.1495;
1271.1000;0.1840;7.1307;
1271.4000;0.1945;7.1542;
1271.7000;0.1937;7.1448;
1272.0000;0.1962;7.1495;
1272.3000;0.1962;7.1495;
1272.6000;0.1970;7.1589;
1272.9000;0.1905;7.1424;
1273.2000;0.1905;7.1424;
1273.5000;0.1945;7.1519;
1273.8000;0.1897;7.1307;
1274.1000;0.1945;7.1448;
1274.4000;0.1929;7.1424;
1274.7000;0.1937;7.1354;
1275.0000;0.1970;7.1448;
1275.3000;0.1888;7.1189;
1275.6000;0.1945;7.1260;
1275.9000;0.1937;7.1236;
1276.2000;0.1970;7.1283;
1276.5000;0.1929;7.1260;
1276.8000;0.1954;7.1354;
1277.1000;0.1945;7.1377;
1277.4000;0.1945;7.1401;
1277.7000;0.1954;7.1401;
1278.0000;0.1929;7.1377;
1278.3000;0.1954;7.1377;
1278.6000;0.1921;7.1213;
1278.9000;0.1929;7.1166;
1279.2000;0.1921;7.1119;
1279.5000;0.1954;7.1142;
1279.8000;0.1954;7.1166;
1280.1000;0.1937;7.1213;
1280.4000;0.1954;7.1260;
1280.7000;0.1945;7.1283;
1281.0000;0.2068;7.1542;
1281.3000;0.1937;7.1213;
1281.6000;0.1962;7.1166;
1281.9000;0.1945;7.1095;
1282.2000;0.1937;7.1142;
1282.5000;0.1978;7.1142;
1282.8000;0.1872;7.0954;
1283.1000;0.1962;7.1166;
1283.4000;0.1954;7.1236;
1283.7000;0.2027;7.1495;
1284.0000;0.2002;7.1472;
1284.3000;0.1954;7.1330;
1284.6000;0.1962;7.1354;
1284.9000;0.1954;7.1377;
1285.2000;0.1945;7.1354;
1285.5000;0.1945;7.1448;
1285.8000;0.1970;7.1542;
1286.1000;0.1945;7.1472;
1286.4000;0.1978;7.1424;
1286.7000;0.1913;7.1236;
1287.0000;0.1929;7.1189;
1287.3000;0.1913;7.1166;
1287.6000;0.1937;7.1189;
1287.9000;0.1945;7.1213;
1288.2000;0.1945;7.1236;
1288.5000;0.1945;7.1236;
1288.8000;0.1937;7.1189;
1289.1000;0.2068;7.1472;
1289.4000;0.1962;7.1213;
1289.7000;0.1945;7.1166;
1290.0000;0.1986;7.1260;
1290.3000;0.1970;7.1166;
1290.6000;0.1954;7.1095;
1290.9000;0.1954;7.1095;
1291.2000;0.1954;7.1142;
1291.5000;0.1945;7.1142;
1291.8000;0.1897;7.1025;
1292.1000;0.1929;7.1095;
1292.4000;0.1929;7.1166;
1292.7000;0.1954;7.1236;
1293.0000;0.1921;7.1283;
1293.3000;0.1945;7.1354;
1293.6000;0.1945;7.1283;
1293.9000;0.1913;7.1142;
1294.2000;0.1994;7.1377;
1294.5000;0.1929;7.1354;
1294.8000;0.1937;7.1307;
1295.1000;0.2011;7.1448;
1295.4000;0.1945;7.1307;
1295.7000;0.1962;7.1330;
1296.0000;0.1954;7.1213;
1296.3000;0.1954;7.1189;
1296.6000;0.1945;7.1213;
1296.9000;0.1945;7.1260;
1297.2000;0.1929;7.1283;
1297.5000;0.1962;7.1354;
1297.8000;0.1945;7.1330;
1298.1000;0.1929;7.1330;
1298.4000;0.1954;7.1448;
1298.7000;0.1937;7.1377;
1299.0000;0.1962;7.1424;
1299.3000;0.1962;7.1519;
1299.6000;0.1962;7.1542;
1299.9000;0.1978;7.1566;
1300.2000;0.1945;7.1448;
1300.5000;0.1929;7.1354;
1300.8000;0.1970;7.1472;
1301.1000;0.1929;7.1283;
1301.4000;0.1929;7.1236;
1301.7000;0.1970;7.1213;
1302.0000;0.1937;7.1260;
1302.3000;0.1962;7.1236;
1302.6000;0.1945;7.1213;
1302.9000;0.1937;7.1166;
1303.2000;0.1945;7.1119;
1303.5000;0.1945;7.1142;
1303.8000;0.1954;7.1142;
1304.1000;0.1970;7.1048;
1304.4000;0.1970;7.0978;
1304.7000;0.1954;7.0907;
1305.0000;0.2002;7.1119;
1305.3000;0.1905;7.1001;
1305.6000;0.1954;7.1119;
1305.9000;0.1970;7.1213;
1306.2000;0.1945;7.1189;
1306.5000;0.1945;7.1283;
1306.8000;0.1978;7.1424;
1307.1000;0.1945;7.1354;
1307.4000;0.1945;7.1260;
1307.7000;0.1929;7.1330;
1308.0000;0.1905;7.1283;
1308.3000;0.1929;7.1354;
1308.6000;0.1954;7.1354;
1308.9000;0.1937;7.1354;
1309.2000;0.1962;7.1424;
1309.5000;0.1945;7.1307;
1309.8000;0.1945;7.1448;
1310.1000;0.1921;7.1377;
1310.4000;0.1937;7.1424;
1310.7000;0.1945;7.1377;
1311.0000;0.1945;7.1354;
1311.3000;0.1945;7.1330;
1311.6000;0.1945;7.1401;
1311.9000;0.1929;7.1401;
1312.2000;0.1954;7.1377;
1312.5000;0.1978;7.1377;
1312.8000;0.1913;7.1260;
1313.1000;0.1945;7.1424;
1313.4000;0.1954;7.1401;
1313.7000;0.1905;7.1424;
1314.0000;0.1945;7.1448;
1314.3000;0.1945;7.1448;
1314.6000;0.1962;7.1472;
1314.9000;0.1954;7.1472;
1315.2000;0.1954;7.1424;
1315.5000;0.1954;7.1377;
1315.8000;0.1945;7.1330;
1316.1000;0.1937;7.1283;
1316.4000;0.1945;7.1330;
1316.7000;0.1945;7.1260;
1317.0000;0.1945;7.1330;
1317.3000;0.1937;7.1330;
1317.6000;0.1954;7.1213;
1317.9000;0.1937;7.1236;
1318.2000;0.1954;7.1236;
1318.5000;0.1945;7.1142;
1318.8000;0.1978;7.1119;
1319.1000;0.1945;7.1095;
1319.4000;0.1994;7.1166;
1319.7000;0.1970;7.1166;
1320.0000;0.1937;7.1072;
1320.3000;0.1929;7.1072;
1320.6000;0.1970;7.1213;
1320.9000;0.1962;7.1236;
1321.2000;0.1945;7.1260;
1321.5000;0.1913;7.1189;
1321.8000;0.1888;7.1119;
1322.1000;0.1986;7.1354;
1322.4000;0.1929;7.1095;
1322.7000;0.1945;7.1142;
1323.0000;0.1929;7.1189;
1323.3000;0.2019;7.1542;
1323.6000;0.1929;7.1307;
1323.9000;0.1970;7.1472;
1324.2000;0.1954;7.1448;
1324.5000;0.1945;7.1448;
1324.8000;0.1954;7.1472;
1325.1000;0.1921;7.1495;
1325.4000;0.1962;7.1495;
1325.7000;0.1945;7.1401;
1326.0000;0.1937;7.1377;
1326.3000;0.1954;7.1401;
1326.6000;0.1937;7.1448;
1326.9000;0.1978;7.1519;
1327.2000;0.1888;7.1283;
1327.5000;0.1954;7.1495;
1327.8000;0.1954;7.1448;
1328.1000;0.1937;7.1401;
1328.4000;0.1937;7.1377;
1328.7000;0.1929;7.1330;
1329.0000;0.1962;7.1472;
1329.3000;0.1937;7.1377;
1329.6000;0.1945;7.1448;
1329.9000;0.1978;7.1448;
1330.2000;0.1897;7.1236;
1330.5000;0.1945;7.1448;
1330.8000;0.1945;7.1424;
1331.1000;0.1986;7.1613;
1331.4000;0.1954;7.1589;
1331.7000;0.1888;7.1283;
1332.0000;0.1937;7.1401;
1332.3000;0.1954;7.1448;
1332.6000;0.1962;7.1448;
1332.9000;0.1921;7.1377;
1333.2000;0.1954;7.1424;
1333.5000;0.1921;7.1354;
1333.8000;0.1945;7.1330;
1334.1000;0.1962;7.1142;
1334.4000;0.1945;7.1001;
1334.7000;0.1905;7.0860;
1335.0000;0.1929;7.0978;
1335.3000;0.1962;7.1048;
1335.6000;0.1897;7.0931;
1335.9000;0.1986;7.1401;
1336.2000;0.1856;7.0978;
1336.5000;0.1929;7.1119;
1336.8000;0.1921;7.1072;
1337.1000;0.1945;7.0978;
1337.4000;0.1954;7.0907;
1337.7000;0.1954;7.0978;
1338.0000;0.1954;7.0954;
1338.3000;0.1937;7.0860;
1338.6000;0.2002;7.1119;
1338.9000;0.1962;7.1025;
1339.2000;0.1978;7.1072;
1339.5000;0.1970;7.1095;
1339.8000;0.1962;7.1095;
1340.1000;0.1945;7.1025;
1340.4000;0.1954;7.1001;
1340.7000;0.1929;7.0978;
1341.0000;0.1945;7.1072;
1341.3000;0.1937;7.1072;
1341.6000;0.1937;7.1119;
1341.9000;0.1962;7.1166;
1342.2000;0.1970;7.1236;
1342.5000;0.1954;7.1260;
1342.8000;0.1945;7.1307;
1343.1000;0.1921;7.1260;
1343.4000;0.1945;7.1213;
1343.7000;0.1970;7.1189;
1344.0000;0.1954;7.1166;
1344.3000;0.1929;7.1142;
1344.6000;0.1962;7.1283;
1344.9000;0.1954;7.1330;
1345.2000;0.1945;7.1260;
1345.5000;0.1962;7.1330;
1345.8000;0.1945;7.1213;
1346.1000;0.2027;7.1354;
1346.4000;0.1970;7.1166;
1346.7000;0.1929;7.1095;
1347.0000;0.1921;7.1142;
1347.3000;0.1945;7.1166;
1347.6000;0.1937;7.1166;
1347.9000;0.1929;7.1142;
1348.2000;0.1978;7.1166;
1348.5000;0.1970;7.1189;
1348.8000;0.1970;7.1166;
1349.1000;0.1945;7.1095;
1349.4000;0.2019;7.1189;
1349.7000;0.1978;7.1072;
1350.0000;0.1954;7.1025;
1350.3000;0.2011;7.1189;
1350.6000;0.1945;7.1048;
1350.9000;0.1962;7.1095;
1351.2000;0.1962;7.1166;
1351.5000;0.1937;7.1072;
1351.8000;0.1937;7.1119;
1352.1000;0.1929;7.1166;
1352.4000;0.1921;7.1119;
1352.7000;0.1962;7.1283;
1353.0000;0.1937;7.1189;
1353.3000;0.1954;7.1236;
1353.6000;0.1970;7.1260;
1353.9000;0.1962;7.1307;
1354.2000;0.1978;7.1377;
1354.5000;0.1945;7.1260;
1354.8000;0.1945;7.1283;
1355.1000;0.1970;7.1307;
1355.4000;0.1970;7.1307;
1355.7000;0.1929;7.1213;
1356.0000;0.1945;7.1236;
1356.3000;0.1945;7.1283;
1356.6000;0.1954;7.1260;
1356.9000;0.1905;7.1142;
1357.2000;0.1880;7.1095;
1357.5000;0.1897;7.1189;
1357.8000;0.1954;7.1260;
1358.1000;0.1937;7.1095;
1358.4000;0.1945;7.1001;
1358.7000;0.1937;7.1001;
1359.0000;0.2027;7.1166;
1359.3000;0.1945;7.1048;
1359.6000;0.1970;7.1166;
1359.9000;0.1880;7.1025;
1360.2000;0.1945;7.1236;
1360.5000;0.1945;7.1236;
1360.8000;0.2002;7.1354;
1361.1000;0.1954;7.1189;
1361.4000;0.1994;7.1283;
1361.7000;0.1962;7.1213;
1362.0000;0.1921;7.1189;
1362.3000;0.1945;7.1213;
1362.6000;0.1945;7.1283;
1362.9000;0.1954;7.1354;
1363.2000;0.1978;7.1283;
1363.5000;0.1945;7.1119;
1363.8000;0.1945;7.1142;
1364.1000;0.1962;7.1213;
1364.4000;0.1970;7.1283;
1364.7000;0.1962;7.1236;
1365.0000;0.1945;7.1213;
1365.3000;0.1962;7.1260;
1365.6000;0.1954;7.1260;
1365.9000;0.1945;7.1283;
1366.2000;0.1962;7.1354;
1366.5000;0.1929;7.1307;
1366.8000;0.1954;7.1448;
1367.1000;0.1921;7.1354;
1367.4000;0.1929;7.1330;
1367.7000;0.1937;7.1377;
1368.0000;0.1986;7.1424;
1368.3000;0.1929;7.1283;
1368.6000;0.1954;7.1354;
1368.9000;0.1962;7.1424;
1369.2000;0.2019;7.1589;
1369.5000;0.1954;7.1424;
1369.8000;0.1945;7.1354;
1370.1000;0.1978;7.1377;
1370.4000;0.1937;7.1260;
1370.7000;0.1954;7.1307;
1371.0000;0.1937;7.1354;
1371.3000;0.1929;7.1401;
1371.6000;0.1937;7.1472;
1371.9000;0.1929;7.1330;
1372.2000;0.1921;7.1307;
1372.5000;0.1929;7.1236;
1372.8000;0.1937;7.1283;
1373.1000;0.1954;7.1307;
1373.4000;0.2027;7.1472;
1373.7000;0.1945;7.1307;
1374.0000;0.1937;7.1283;
1374.3000;0.2043;7.1613;
1374.6000;0.1970;7.1448;
1374.9000;0.1921;7.1354;
1375.2000;0.1937;7.1307;
1375.5000;0.1954;7.1330;
1375.8000;0.1937;7.1307;
1376.1000;0.1962;7.1424;
1376.4000;0.1945;7.1377;
1376.7000;0.1945;7.1377;
1377.0000;0.1945;7.1283;
1377.3000;0.1945;7.1260;
1377.6000;0.1945;7.1142;
1377.9000;0.1962;7.1142;
1378.2000;0.1945;7.1119;
1378.5000;0.1954;7.1119;
1378.8000;0.1970;7.1166;
1379.1000;0.1970;7.1142;
1379.4000;0.1945;7.1142;
1379.7000;0.1954;7.1166;
1380.0000;0.1954;7.1283;
1380.3000;0.1945;7.1354;
1380.6000;0.1954;7.1448;
1380.9000;0.1970;7.1424;
1381.2000;0.1954;7.1307;
1381.5000;0.1937;7.1260;
1381.8000;0.1986;7.1401;
1382.1000;0.1970;7.1283;
1382.4000;0.1937;7.1260;
1382.7000;0.1937;7.1283;
1383.0000;0.1962;7.1377;
1383.3000;0.1921;7.1330;
1383.6000;0.1962;7.1472;
1383.9000;0.1945;7.1495;
1384.2000;0.2019;7.1730;
1384.5000;0.1945;7.1519;
1384.8000;0.1970;7.1589;
1385.1000;0.1921;7.1377;
1385.4000;0.1970;7.1472;
1385.7000;0.1937;7.1401;
1386.0000;0.1954;7.1424;
1386.3000;0.1929;7.1401;
1386.6000;0.1945;7.1495;
1386.9000;0.1954;7.1613;
1387.2000;0.1937;7.1495;
1387.5000;0.1945;7.1542;
1387.8000;0.1929;7.1472;
1388.1000;0.1945;7.1472;
1388.4000;0.1954;7.1542;
1388.7000;0.1994;7.1683;
1389.0000;0.1929;7.1519;
1389.3000;0.1937;7.1542;
1389.6000;0.1962;7.1519;
1389.9000;0.1954;7.1472;
1390.2000;0.1921;7.1377;
1390.5000;0.1954;7.1401;
1390.8000;0.1962;7.1424;
1391.1000;0.1929;7.1401;
1391.4000;0.1954;7.1424;
1391.7000;0.1929;7.1354;
1392.0000;0.1962;7.1448;
1392.3000;0.1913;7.1354;
1392.6000;0.1921;7.1330;
1392.9000;0.1954;7.1236;
1393.2000;0.1978;7.1377;
1393.5000;0.1937;7.1283;
1393.8000;0.1954;7.1354;
1394.1000;0.1954;7.1401;
1394.4000;0.1954;7.1401;
1394.7000;0.1962;7.1424;
1395.0000;0.1937;7.1424;
1395.3000;0.1970;7.1472;
1395.6000;0.1937;7.1377;
1395.9000;0.1962;7.1424;
1396.2000;0.1954;7.1377;
1396.5000;0.1945;7.1330;
1396.8000;0.1962;7.1424;
1397.1000;0.1970;7.1401;
1397.4000;0.2011;7.1519;
1397.7000;0.1945;7.1401;
1398.0000;0.1986;7.1448;
1398.3000;0.1929;7.1377;
1398.6000;0.1962;7.1377;
1398.9000;0.1994;7.1377;
1399.2000;0.1945;7.1330;
1399.5000;0.1962;7.1424;
1399.8000;0.1962;7.1330;
