time/ms;Fluo/V;P700 deltaI/I x10³;
-199.8000;0.2556;7.1777;
-199.5000;0.2540;7.1777;
-199.2000;0.2629;7.1918;
-198.9000;0.2580;7.1871;
-198.6000;0.2580;7.1895;
-198.3000;0.2605;7.1848;
-198.0000;0.2572;7.1824;
-197.7000;0.2556;7.1754;
-197.4000;0.2580;7.1777;
-197.1000;0.2629;7.1895;
-196.8000;0.2621;7.1777;
-196.5000;0.2597;7.1660;
-196.2000;0.2589;7.1707;
-195.9000;0.2637;7.1895;
-195.6000;0.2621;7.1895;
-195.3000;0.2605;7.1871;
-195.0000;0.2605;7.1848;
-194.7000;0.2580;7.1777;
-194.4000;0.2613;7.1848;
-194.1000;0.2621;7.1942;
-193.8000;0.2613;7.1918;
-193.5000;0.2597;7.1895;
-193.2000;0.2613;7.1801;
-192.9000;0.2613;7.1824;
-192.6000;0.2662;7.1918;
-192.3000;0.2621;7.1895;
-192.0000;0.2589;7.1730;
-191.7000;0.2670;7.1965;
-191.4000;0.2589;7.1754;
-191.1000;0.2580;7.1707;
-190.8000;0.2556;7.1589;
-190.5000;0.2597;7.1683;
-190.2000;0.2613;7.1683;
-189.9000;0.2629;7.1707;
-189.6000;0.2605;7.1707;
-189.3000;0.2646;7.1730;
-189.0000;0.2564;7.1566;
-188.7000;0.2686;7.1777;
-188.4000;0.2613;7.1660;
-188.1000;0.2629;7.1754;
-187.8000;0.2597;7.1754;
-187.5000;0.2589;7.1660;
-187.2000;0.2662;7.1871;
-186.9000;0.2621;7.1730;
-186.6000;0.2613;7.1730;
-186.3000;0.2532;7.1542;
-186.0000;0.2605;7.1683;
-185.7000;0.2597;7.1730;
-185.4000;0.2597;7.1730;
-185.1000;0.2613;7.1730;
-184.8000;0.2621;7.1683;
-184.5000;0.2589;7.1519;
-184.2000;0.2605;7.1566;
-183.9000;0.2629;7.1613;
-183.6000;0.2589;7.1660;
-183.3000;0.2605;7.1660;
-183.0000;0.2613;7.1730;
-182.7000;0.2589;7.1871;
-182.4000;0.2605;7.1895;
-182.1000;0.2613;7.1895;
-181.8000;0.2556;7.1754;
-181.5000;0.2605;7.1895;
-181.2000;0.2621;7.1918;
-180.9000;0.2548;7.1777;
-180.6000;0.2572;7.1895;
-180.3000;0.2605;7.2059;
-180.0000;0.2597;7.1965;
-179.7000;0.2548;7.1848;
-179.4000;0.2605;7.1965;
-179.1000;0.2613;7.1965;
-178.8000;0.2629;7.1871;
-178.5000;0.2589;7.1824;
-178.2000;0.2613;7.1848;
-177.9000;0.2597;7.1824;
-177.6000;0.2678;7.1895;
-177.3000;0.2621;7.1754;
-177.0000;0.2605;7.1660;
-176.7000;0.2572;7.1660;
-176.4000;0.2613;7.1754;
-176.1000;0.2621;7.1801;
-175.8000;0.2637;7.1754;
-175.5000;0.2613;7.1730;
-175.2000;0.2597;7.1707;
-174.9000;0.2605;7.1848;
-174.6000;0.2605;7.1871;
-174.3000;0.2597;7.1824;
-174.0000;0.2613;7.1801;
-173.7000;0.2613;7.1777;
-173.4000;0.2719;7.1965;
-173.1000;0.2605;7.1636;
-172.8000;0.2572;7.1660;
-172.5000;0.2605;7.1707;
-172.2000;0.2654;7.1895;
-171.9000;0.2605;7.1754;
-171.6000;0.2621;7.1824;
-171.3000;0.2556;7.1707;
-171.0000;0.2613;7.1801;
-170.7000;0.2629;7.1777;
-170.4000;0.2613;7.1707;
-170.1000;0.2629;7.1589;
-169.8000;0.2605;7.1472;
-169.5000;0.2621;7.1566;
-169.2000;0.2589;7.1542;
-168.9000;0.2589;7.1495;
-168.6000;0.2613;7.1542;
-168.3000;0.2621;7.1542;
-168.0000;0.2605;7.1542;
-167.7000;0.2621;7.1636;
-167.4000;0.2637;7.1707;
-167.1000;0.2605;7.1519;
-166.8000;0.2580;7.1566;
-166.5000;0.2613;7.1707;
-166.2000;0.2597;7.1801;
-165.9000;0.2605;7.1824;
-165.6000;0.2572;7.1730;
-165.3000;0.2613;7.1730;
-165.0000;0.2605;7.1730;
-164.7000;0.2572;7.1566;
-164.4000;0.2613;7.1613;
-164.1000;0.2597;7.1542;
-163.8000;0.2605;7.1519;
-163.5000;0.2621;7.1660;
-163.2000;0.2613;7.1707;
-162.9000;0.2597;7.1636;
-162.6000;0.2629;7.1730;
-162.3000;0.2605;7.1848;
-162.0000;0.2629;7.1871;
-161.7000;0.2621;7.1824;
-161.4000;0.2589;7.1754;
-161.1000;0.2613;7.1824;
-160.8000;0.2621;7.1871;
-160.5000;0.2613;7.1707;
-160.2000;0.2621;7.1730;
-159.9000;0.2613;7.1754;
-159.6000;0.2613;7.1754;
-159.3000;0.2580;7.1777;
-159.0000;0.2597;7.1895;
-158.7000;0.2613;7.1824;
-158.4000;0.2629;7.1871;
-158.1000;0.2621;7.1777;
-157.8000;0.2621;7.1754;
-157.5000;0.2621;7.1848;
-157.2000;0.2597;7.1777;
-156.9000;0.2629;7.1918;
-156.6000;0.2597;7.1824;
-156.3000;0.2548;7.1707;
-156.0000;0.2605;7.1871;
-155.7000;0.2605;7.1918;
-155.4000;0.2621;7.1965;
-155.1000;0.2597;7.1918;
-154.8000;0.2637;7.1942;
-154.5000;0.2605;7.1848;
-154.2000;0.2662;7.1918;
-153.9000;0.2605;7.1801;
-153.6000;0.2613;7.1871;
-153.3000;0.2580;7.1801;
-153.0000;0.2613;7.1918;
-152.7000;0.2605;7.1989;
-152.4000;0.2621;7.2083;
-152.1000;0.2637;7.2201;
-151.8000;0.2621;7.2107;
-151.5000;0.2613;7.1965;
-151.2000;0.2613;7.1918;
-150.9000;0.2629;7.2036;
-150.6000;0.2605;7.2036;
-150.3000;0.2580;7.1942;
-150.0000;0.2613;7.1989;
-149.7000;0.2605;7.1965;
-149.4000;0.2662;7.2201;
-149.1000;0.2589;7.2107;
-148.8000;0.2605;7.2012;
-148.5000;0.2605;7.1965;
-148.2000;0.2589;7.1942;
-147.9000;0.2597;7.1918;
-147.6000;0.2605;7.1989;
-147.3000;0.2605;7.1965;
-147.0000;0.2613;7.2012;
-146.7000;0.2621;7.2036;
-146.4000;0.2597;7.1965;
-146.1000;0.2597;7.1848;
-145.8000;0.2629;7.1824;
-145.5000;0.2605;7.1871;
-145.2000;0.2589;7.1895;
-144.9000;0.2589;7.2036;
-144.6000;0.2613;7.2083;
-144.3000;0.2613;7.1942;
-144.0000;0.2621;7.1942;
-143.7000;0.2605;7.1871;
-143.4000;0.2605;7.1848;
-143.1000;0.2621;7.1871;
-142.8000;0.2605;7.1801;
-142.5000;0.2613;7.1801;
-142.2000;0.2646;7.1942;
-141.9000;0.2629;7.1918;
-141.6000;0.2605;7.1895;
-141.3000;0.2597;7.1871;
-141.0000;0.2613;7.1918;
-140.7000;0.2605;7.1918;
-140.4000;0.2597;7.2036;
-140.1000;0.2629;7.2154;
-139.8000;0.2613;7.2130;
-139.5000;0.2621;7.2130;
-139.2000;0.2597;7.2083;
-138.9000;0.2629;7.2154;
-138.6000;0.2613;7.2059;
-138.3000;0.2613;7.1965;
-138.0000;0.2605;7.1965;
-137.7000;0.2621;7.1942;
-137.4000;0.2613;7.1895;
-137.1000;0.2605;7.1895;
-136.8000;0.2564;7.1848;
-136.5000;0.2613;7.2036;
-136.2000;0.2580;7.1918;
-135.9000;0.2597;7.1965;
-135.6000;0.2613;7.2083;
-135.3000;0.2613;7.2130;
-135.0000;0.2597;7.2012;
-134.7000;0.2605;7.2036;
-134.4000;0.2597;7.2130;
-134.1000;0.2621;7.2083;
-133.8000;0.2613;7.1989;
-133.5000;0.2605;7.1895;
-133.2000;0.2564;7.1848;
-132.9000;0.2629;7.1942;
-132.6000;0.2629;7.1989;
-132.3000;0.2621;7.1965;
-132.0000;0.2621;7.1918;
-131.7000;0.2637;7.1965;
-131.4000;0.2605;7.1942;
-131.1000;0.2580;7.1918;
-130.8000;0.2597;7.2059;
-130.5000;0.2605;7.2059;
-130.2000;0.2597;7.2036;
-129.9000;0.2589;7.2012;
-129.6000;0.2589;7.1918;
-129.3000;0.2597;7.1918;
-129.0000;0.2597;7.1918;
-128.7000;0.2589;7.1942;
-128.4000;0.2597;7.2036;
-128.1000;0.2597;7.2036;
-127.8000;0.2597;7.2012;
-127.5000;0.2605;7.2059;
-127.2000;0.2613;7.2154;
-126.9000;0.2605;7.2177;
-126.6000;0.2589;7.2177;
-126.3000;0.2564;7.2154;
-126.0000;0.2605;7.2177;
-125.7000;0.2597;7.2130;
-125.4000;0.2646;7.2224;
-125.1000;0.2629;7.2201;
-124.8000;0.2589;7.2083;
-124.5000;0.2613;7.2107;
-124.2000;0.2621;7.2107;
-123.9000;0.2727;7.2389;
-123.6000;0.2605;7.1989;
-123.3000;0.2589;7.1989;
-123.0000;0.2621;7.2083;
-122.7000;0.2605;7.1965;
-122.4000;0.2556;7.1848;
-122.1000;0.2605;7.1965;
-121.8000;0.2597;7.1989;
-121.5000;0.2654;7.2059;
-121.2000;0.2605;7.1989;
-120.9000;0.2654;7.2107;
-120.6000;0.2605;7.2012;
-120.3000;0.2670;7.2107;
-120.0000;0.2597;7.1895;
-119.7000;0.2605;7.1918;
-119.4000;0.2646;7.1965;
-119.1000;0.2597;7.1848;
-118.8000;0.2621;7.1871;
-118.5000;0.2515;7.1636;
-118.2000;0.2613;7.1824;
-117.9000;0.2613;7.1895;
-117.6000;0.2613;7.1895;
-117.3000;0.2572;7.1730;
-117.0000;0.2580;7.1730;
-116.7000;0.2605;7.1895;
-116.4000;0.2629;7.1918;
-116.1000;0.2580;7.1848;
-115.8000;0.2597;7.1918;
-115.5000;0.2654;7.2059;
-115.2000;0.2629;7.2059;
-114.9000;0.2605;7.2059;
-114.6000;0.2621;7.2012;
-114.3000;0.2597;7.1989;
-114.0000;0.2605;7.1918;
-113.7000;0.2605;7.2036;
-113.4000;0.2613;7.2012;
-113.1000;0.2621;7.1989;
-112.8000;0.2613;7.1989;
-112.5000;0.2605;7.1965;
-112.2000;0.2629;7.2059;
-111.9000;0.2605;7.2012;
-111.6000;0.2597;7.1989;
-111.3000;0.2605;7.2059;
-111.0000;0.2605;7.1989;
-110.7000;0.2605;7.1965;
-110.4000;0.2597;7.1918;
-110.1000;0.2613;7.1871;
-109.8000;0.2605;7.1871;
-109.5000;0.2605;7.1871;
-109.2000;0.2597;7.1871;
-108.9000;0.2597;7.1918;
-108.6000;0.2605;7.1989;
-108.3000;0.2597;7.2012;
-108.0000;0.2605;7.2012;
-107.7000;0.2629;7.2107;
-107.4000;0.2629;7.2036;
-107.1000;0.2556;7.1777;
-106.8000;0.2605;7.1918;
-106.5000;0.2589;7.1871;
-106.2000;0.2605;7.1895;
-105.9000;0.2589;7.1801;
-105.6000;0.2572;7.1824;
-105.3000;0.2613;7.1824;
-105.0000;0.2629;7.1871;
-104.7000;0.2613;7.1824;
-104.4000;0.2613;7.1730;
-104.1000;0.2621;7.1754;
-103.8000;0.2646;7.1754;
-103.5000;0.2621;7.1660;
-103.2000;0.2605;7.1660;
-102.9000;0.2621;7.1707;
-102.6000;0.2621;7.1848;
-102.3000;0.2629;7.1895;
-102.0000;0.2572;7.1801;
-101.7000;0.2613;7.1918;
-101.4000;0.2597;7.1965;
-101.1000;0.2597;7.1965;
-100.8000;0.2621;7.1989;
-100.5000;0.2621;7.1965;
-100.2000;0.2597;7.1942;
-99.9000;0.2613;7.2059;
-99.6000;0.2605;7.1965;
-99.3000;0.2564;7.1871;
-99.0000;0.2613;7.1965;
-98.7000;0.2629;7.1942;
-98.4000;0.2556;7.1777;
-98.1000;0.2629;7.2059;
-97.8000;0.2597;7.1989;
-97.5000;0.2621;7.2012;
-97.2000;0.2613;7.2083;
-96.9000;0.2637;7.2201;
-96.6000;0.2597;7.2177;
-96.3000;0.2613;7.2224;
-96.0000;0.2727;7.2530;
-95.7000;0.2597;7.2177;
-95.4000;0.2605;7.2130;
-95.1000;0.2597;7.2083;
-94.8000;0.2621;7.2201;
-94.5000;0.2580;7.2036;
-94.2000;0.2540;7.1801;
-93.9000;0.2605;7.1848;
-93.6000;0.2646;7.1871;
-93.3000;0.2597;7.1801;
-93.0000;0.2662;7.1942;
-92.7000;0.2613;7.1801;
-92.4000;0.2637;7.1730;
-92.1000;0.2605;7.1824;
-91.8000;0.2670;7.2036;
-91.5000;0.2621;7.1989;
-91.2000;0.2605;7.1918;
-90.9000;0.2597;7.1989;
-90.6000;0.2597;7.1942;
-90.3000;0.2646;7.1989;
-90.0000;0.2597;7.1918;
-89.7000;0.2605;7.1989;
-89.4000;0.2597;7.1895;
-89.1000;0.2572;7.1801;
-88.8000;0.2580;7.1801;
-88.5000;0.2621;7.1895;
-88.2000;0.2621;7.1895;
-87.9000;0.2466;7.1589;
-87.6000;0.2580;7.1965;
-87.3000;0.2580;7.1965;
-87.0000;0.2597;7.2012;
-86.7000;0.2597;7.2036;
-86.4000;0.2613;7.1895;
-86.1000;0.2605;7.1801;
-85.8000;0.2605;7.1777;
-85.5000;0.2589;7.1754;
-85.2000;0.2580;7.1707;
-84.9000;0.2597;7.1801;
-84.6000;0.2605;7.1754;
-84.3000;0.2580;7.1730;
-84.0000;0.2597;7.1754;
-83.7000;0.2597;7.1754;
-83.4000;0.2580;7.1683;
-83.1000;0.2597;7.1636;
-82.8000;0.2605;7.1707;
-82.5000;0.2589;7.1777;
-82.2000;0.2613;7.1730;
-81.9000;0.2637;7.1824;
-81.6000;0.2613;7.1707;
-81.3000;0.2605;7.1730;
-81.0000;0.2589;7.1683;
-80.7000;0.2613;7.1730;
-80.4000;0.2605;7.1707;
-80.1000;0.2597;7.1754;
-79.8000;0.2613;7.1895;
-79.5000;0.2621;7.1895;
-79.2000;0.2637;7.1989;
-78.9000;0.2621;7.1918;
-78.6000;0.2613;7.1942;
-78.3000;0.2621;7.1942;
-78.0000;0.2597;7.1848;
-77.7000;0.2629;7.1918;
-77.4000;0.2621;7.1918;
-77.1000;0.2605;7.1895;
-76.8000;0.2589;7.1754;
-76.5000;0.2556;7.1730;
-76.2000;0.2605;7.1754;
-75.9000;0.2621;7.1801;
-75.6000;0.2532;7.1636;
-75.3000;0.2597;7.1707;
-75.0000;0.2597;7.1707;
-74.7000;0.2580;7.1683;
-74.4000;0.2605;7.1777;
-74.1000;0.2597;7.1730;
-73.8000;0.2686;7.1965;
-73.5000;0.2580;7.1754;
-73.2000;0.2597;7.1801;
-72.9000;0.2662;7.1918;
-72.6000;0.2605;7.1824;
-72.3000;0.2589;7.1754;
-72.0000;0.2621;7.1777;
-71.7000;0.2605;7.1824;
-71.4000;0.2621;7.1918;
-71.1000;0.2621;7.1989;
-70.8000;0.2548;7.1848;
-70.5000;0.2597;7.1871;
-70.2000;0.2605;7.1824;
-69.9000;0.2572;7.1848;
-69.6000;0.2605;7.1965;
-69.3000;0.2605;7.1918;
-69.0000;0.2621;7.1942;
-68.7000;0.2597;7.1871;
-68.4000;0.2670;7.2107;
-68.1000;0.2613;7.1989;
-67.8000;0.2621;7.1918;
-67.5000;0.2540;7.1683;
-67.2000;0.2621;7.1824;
-66.9000;0.2629;7.1754;
-66.6000;0.2621;7.1683;
-66.3000;0.2621;7.1777;
-66.0000;0.2646;7.1801;
-65.7000;0.2621;7.1824;
-65.4000;0.2613;7.1801;
-65.1000;0.2605;7.1801;
-64.8000;0.2605;7.1754;
-64.5000;0.2621;7.1801;
-64.2000;0.2621;7.1871;
-63.9000;0.2613;7.1777;
-63.6000;0.2613;7.1801;
-63.3000;0.2605;7.1801;
-63.0000;0.2613;7.1895;
-62.7000;0.2597;7.1801;
-62.4000;0.2597;7.1824;
-62.1000;0.2621;7.1824;
-61.8000;0.2580;7.1730;
-61.5000;0.2605;7.1777;
-61.2000;0.2613;7.1777;
-60.9000;0.2589;7.1848;
-60.6000;0.2589;7.1824;
-60.3000;0.2621;7.1918;
-60.0000;0.2532;7.1707;
-59.7000;0.2605;7.1942;
-59.4000;0.2629;7.1918;
-59.1000;0.2597;7.1730;
-58.8000;0.2589;7.1707;
-58.5000;0.2589;7.1613;
-58.2000;0.2605;7.1754;
-57.9000;0.2597;7.1754;
-57.6000;0.2556;7.1636;
-57.3000;0.2605;7.1730;
-57.0000;0.2605;7.1777;
-56.7000;0.2629;7.1918;
-56.4000;0.2605;7.1871;
-56.1000;0.2597;7.1754;
-55.8000;0.2605;7.1777;
-55.5000;0.2605;7.1777;
-55.2000;0.2597;7.1707;
-54.9000;0.2548;7.1660;
-54.6000;0.2589;7.1730;
-54.3000;0.2613;7.1754;
-54.0000;0.2613;7.1824;
-53.7000;0.2629;7.1895;
-53.4000;0.2556;7.1730;
-53.1000;0.2613;7.1824;
-52.8000;0.2605;7.1777;
-52.5000;0.2613;7.1754;
-52.2000;0.2605;7.1730;
-51.9000;0.2613;7.1707;
-51.6000;0.2564;7.1613;
-51.3000;0.2515;7.1495;
-51.0000;0.2580;7.1613;
-50.7000;0.2646;7.1777;
-50.4000;0.2605;7.1730;
-50.1000;0.2613;7.1683;
-49.8000;0.2621;7.1801;
-49.5000;0.2605;7.1848;
-49.2000;0.2621;7.1895;
-48.9000;0.2597;7.1848;
-48.6000;0.2580;7.1824;
-48.3000;0.2572;7.1754;
-48.0000;0.2589;7.1871;
-47.7000;0.2613;7.1989;
-47.4000;0.2613;7.1989;
-47.1000;0.2613;7.2036;
-46.8000;0.2605;7.2036;
-46.5000;0.2613;7.1989;
-46.2000;0.2605;7.1989;
-45.9000;0.2589;7.1895;
-45.6000;0.2597;7.1965;
-45.3000;0.2605;7.2059;
-45.0000;0.2613;7.1965;
-44.7000;0.2597;7.1942;
-44.4000;0.2548;7.1871;
-44.1000;0.2597;7.1942;
-43.8000;0.2597;7.1871;
-43.5000;0.2605;7.1824;
-43.2000;0.2621;7.1942;
-42.9000;0.2597;7.1824;
-42.6000;0.2597;7.1683;
-42.3000;0.2605;7.1683;
-42.0000;0.2613;7.1730;
-41.7000;0.2605;7.1589;
-41.4000;0.2621;7.1707;
-41.1000;0.2589;7.1636;
-40.8000;0.2605;7.1589;
-40.5000;0.2589;7.1613;
-40.2000;0.2613;7.1660;
-39.9000;0.2597;7.1707;
-39.6000;0.2597;7.1683;
-39.3000;0.2605;7.1801;
-39.0000;0.2613;7.1824;
-38.7000;0.2589;7.1848;
-38.4000;0.2597;7.1895;
-38.1000;0.2597;7.1824;
-37.8000;0.2613;7.1918;
-37.5000;0.2613;7.1895;
-37.2000;0.2589;7.1895;
-36.9000;0.2589;7.1895;
-36.6000;0.2572;7.1871;
-36.3000;0.2654;7.1989;
-36.0000;0.2580;7.1942;
-35.7000;0.2605;7.1965;
-35.4000;0.2613;7.1989;
-35.1000;0.2613;7.1965;
-34.8000;0.2572;7.1871;
-34.5000;0.2605;7.1965;
-34.2000;0.2605;7.1871;
-33.9000;0.2597;7.1871;
-33.6000;0.2613;7.1683;
-33.3000;0.2605;7.1542;
-33.0000;0.2613;7.1683;
-32.7000;0.2613;7.1660;
-32.4000;0.2637;7.1636;
-32.1000;0.2605;7.1613;
-31.8000;0.2564;7.1472;
-31.5000;0.2564;7.1542;
-31.2000;0.2589;7.1613;
-30.9000;0.2702;7.1848;
-30.6000;0.2670;7.1824;
-30.3000;0.2613;7.1730;
-30.0000;0.2605;7.1730;
-29.7000;0.2670;7.1965;
-29.4000;0.2621;7.1848;
-29.1000;0.2613;7.1801;
-28.8000;0.2572;7.1730;
-28.5000;0.2589;7.1754;
-28.2000;0.2597;7.1801;
-27.9000;0.2597;7.1801;
-27.6000;0.2621;7.1871;
-27.3000;0.2548;7.1777;
-27.0000;0.2613;7.1871;
-26.7000;0.2589;7.1824;
-26.4000;0.2605;7.1754;
-26.1000;0.2605;7.1848;
-25.8000;0.2589;7.1871;
-25.5000;0.2597;7.1965;
-25.2000;0.2572;7.1871;
-24.9000;0.2597;7.1754;
-24.6000;0.2572;7.1730;
-24.3000;0.2597;7.1848;
-24.0000;0.2597;7.1942;
-23.7000;0.2597;7.1989;
-23.4000;0.2597;7.1989;
-23.1000;0.2605;7.2036;
-22.8000;0.2597;7.1965;
-22.5000;0.2613;7.1918;
-22.2000;0.2605;7.1918;
-21.9000;0.2572;7.1824;
-21.6000;0.2605;7.1871;
-21.3000;0.2597;7.1871;
-21.0000;0.2621;7.1918;
-20.7000;0.2556;7.1730;
-20.4000;0.2597;7.1801;
-20.1000;0.2605;7.1848;
-19.8000;0.2613;7.1824;
-19.5000;0.2605;7.1871;
-19.2000;0.2597;7.1801;
-18.9000;0.2597;7.1918;
-18.6000;0.2597;7.1989;
-18.3000;0.2572;7.1918;
-18.0000;0.2589;7.2036;
-17.7000;0.2572;7.1848;
-17.4000;0.2629;7.1895;
-17.1000;0.2613;7.1942;
-16.8000;0.2589;7.1871;
-16.5000;0.2621;7.2059;
-16.2000;0.2589;7.2012;
-15.9000;0.2646;7.2083;
-15.6000;0.2605;7.1989;
-15.3000;0.2613;7.1942;
-15.0000;0.2605;7.1942;
-14.7000;0.2605;7.1942;
-14.4000;0.2605;7.1801;
-14.1000;0.2621;7.1848;
-13.8000;0.2613;7.1777;
-13.5000;0.2621;7.1777;
-13.2000;0.2580;7.1660;
-12.9000;0.2597;7.1566;
-12.6000;0.2719;7.1965;
-12.3000;0.2613;7.1730;
-12.0000;0.2605;7.1801;
-11.7000;0.2613;7.1824;
-11.4000;0.2605;7.1777;
-11.1000;0.2621;7.1895;
-10.8000;0.2613;7.1965;
-10.5000;0.2646;7.1989;
-10.2000;0.2621;7.1942;
-9.9000;0.2605;7.1918;
-9.6000;0.2605;7.1942;
-9.3000;0.2589;7.1871;
-9.0000;0.2605;7.1942;
-8.7000;0.2613;7.1824;
-8.4000;0.2613;7.1848;
-8.1000;0.2605;7.1895;
-7.8000;0.2613;7.2036;
-7.5000;0.2605;7.1989;
-7.2000;0.2621;7.1989;
-6.9000;0.2613;7.1989;
-6.6000;0.2613;7.1942;
-6.3000;0.2621;7.1965;
-6.0000;0.2621;7.1965;
-5.7000;0.2613;7.1871;
-5.4000;0.2637;7.1895;
-5.1000;0.2589;7.1754;
-4.8000;0.2605;7.1824;
-4.5000;0.2580;7.1824;
-4.2000;0.2613;7.1824;
-3.9000;0.2483;7.1542;
-3.6000;0.2580;7.1918;
-3.3000;0.2564;7.1871;
-3.0000;0.2589;7.1895;
-2.7000;0.2597;7.1871;
-2.4000;0.2621;7.1965;
-2.1000;0.2589;7.1848;
-1.8000;0.2629;7.1918;
-1.5000;0.2589;7.1801;
-1.2000;0.2589;7.1777;
-0.9000;0.2637;7.1871;
-0.6000;0.2597;7.1754;
-0.3000;0.2540;7.1613;
0.0000;0.2540;7.1613;
0.3000;0.2637;7.1918;
0.6000;0.2686;7.2036;
0.9000;0.2743;7.2107;
1.2000;0.2808;7.2271;
1.5000;0.2857;7.2365;
1.8000;0.2873;7.2483;
2.1000;0.2890;7.2553;
2.4000;0.2987;7.2836;
2.7000;0.2947;7.2812;
3.0000;0.2971;7.2977;
3.3000;0.2971;7.3212;
3.6000;0.2963;7.3306;
3.9000;0.2971;7.3353;
4.2000;0.2987;7.3400;
4.5000;0.2971;7.3353;
4.8000;0.3004;7.3424;
5.1000;0.2979;7.3282;
5.4000;0.3020;7.3376;
5.7000;0.2963;7.3235;
6.0000;0.2996;7.3424;
6.3000;0.2987;7.3494;
6.6000;0.3004;7.3518;
6.9000;0.3020;7.3565;
7.2000;0.2947;7.3424;
7.5000;0.2987;7.3518;
7.8000;0.3028;7.3565;
8.1000;0.3028;7.3518;
8.4000;0.3069;7.3565;
8.7000;0.3044;7.3541;
9.0000;0.3004;7.3353;
9.3000;0.3012;7.3424;
9.6000;0.3012;7.3494;
9.9000;0.3012;7.3541;
10.2000;0.3004;7.3541;
10.5000;0.3028;7.3518;
10.8000;0.3020;7.3471;
11.1000;0.3028;7.3447;
11.4000;0.3044;7.3400;
11.7000;0.3036;7.3424;
12.0000;0.3053;7.3471;
12.3000;0.3044;7.3424;
12.6000;0.3044;7.3400;
12.9000;0.3053;7.3447;
13.2000;0.3061;7.3424;
13.5000;0.3077;7.3424;
13.8000;0.3053;7.3376;
14.1000;0.3069;7.3376;
14.4000;0.3077;7.3471;
14.7000;0.3069;7.3424;
15.0000;0.3069;7.3376;
15.3000;0.3069;7.3400;
15.6000;0.3077;7.3424;
15.9000;0.3077;7.3376;
16.2000;0.3101;7.3400;
16.5000;0.3069;7.3306;
16.8000;0.3093;7.3447;
17.1000;0.3085;7.3494;
17.4000;0.3085;7.3471;
17.7000;0.3085;7.3471;
18.0000;0.3093;7.3424;
18.3000;0.3101;7.3400;
18.6000;0.3134;7.3447;
18.9000;0.3101;7.3353;
19.2000;0.3109;7.3471;
19.5000;0.3085;7.3376;
19.8000;0.3134;7.3541;
20.1000;0.3134;7.3612;
20.4000;0.3101;7.3588;
20.7000;0.3093;7.3494;
21.0000;0.3150;7.3541;
21.3000;0.3093;7.3329;
21.6000;0.3101;7.3329;
21.9000;0.3118;7.3447;
22.2000;0.3126;7.3471;
22.5000;0.3207;7.3753;
22.8000;0.3126;7.3588;
23.1000;0.3126;7.3565;
23.4000;0.3207;7.3706;
23.7000;0.3142;7.3565;
24.0000;0.3109;7.3518;
24.3000;0.3126;7.3541;
24.6000;0.3134;7.3612;
24.9000;0.3158;7.3588;
25.2000;0.3126;7.3494;
25.5000;0.3142;7.3541;
25.8000;0.3126;7.3494;
26.1000;0.3134;7.3588;
26.4000;0.3134;7.3518;
26.7000;0.3158;7.3565;
27.0000;0.3093;7.3494;
27.3000;0.3158;7.3706;
27.6000;0.3134;7.3588;
27.9000;0.3134;7.3518;
28.2000;0.3150;7.3565;
28.5000;0.3109;7.3565;
28.8000;0.3118;7.3612;
29.1000;0.3166;7.3706;
29.4000;0.3142;7.3635;
29.7000;0.3150;7.3635;
30.0000;0.3142;7.3612;
30.3000;0.3118;7.3471;
30.6000;0.3142;7.3541;
30.9000;0.3158;7.3612;
31.2000;0.3158;7.3565;
31.5000;0.3142;7.3518;
31.8000;0.3150;7.3541;
32.1000;0.3166;7.3541;
32.4000;0.3175;7.3612;
32.7000;0.3142;7.3447;
33.0000;0.3150;7.3494;
33.3000;0.3158;7.3588;
33.6000;0.3166;7.3518;
33.9000;0.3134;7.3282;
34.2000;0.3191;7.3400;
34.5000;0.3134;7.3400;
34.8000;0.3158;7.3471;
35.1000;0.3134;7.3376;
35.4000;0.3158;7.3447;
35.7000;0.3232;7.3612;
36.0000;0.3142;7.3424;
36.3000;0.3183;7.3400;
36.6000;0.3166;7.3424;
36.9000;0.3191;7.3400;
37.2000;0.3166;7.3259;
37.5000;0.3199;7.3424;
37.8000;0.3158;7.3353;
38.1000;0.3166;7.3376;
38.4000;0.3175;7.3471;
38.7000;0.3175;7.3541;
39.0000;0.3158;7.3376;
39.3000;0.3150;7.3282;
39.6000;0.3175;7.3376;
39.9000;0.3175;7.3447;
40.2000;0.3191;7.3447;
40.5000;0.3183;7.3376;
40.8000;0.3166;7.3353;
41.1000;0.3166;7.3329;
41.4000;0.3175;7.3306;
41.7000;0.3158;7.3329;
42.0000;0.3183;7.3353;
42.3000;0.3264;7.3541;
42.6000;0.3183;7.3424;
42.9000;0.3166;7.3329;
43.2000;0.3191;7.3235;
43.5000;0.3183;7.3094;
43.8000;0.3191;7.3165;
44.1000;0.3183;7.3188;
44.4000;0.3183;7.3306;
44.7000;0.3199;7.3306;
45.0000;0.3191;7.3353;
45.3000;0.3199;7.3329;
45.6000;0.3183;7.3282;
45.9000;0.3199;7.3376;
46.2000;0.3199;7.3353;
46.5000;0.3207;7.3259;
46.8000;0.3191;7.3235;
47.1000;0.3134;7.3118;
47.4000;0.3199;7.3353;
47.7000;0.3199;7.3376;
48.0000;0.3183;7.3353;
48.3000;0.3191;7.3424;
48.6000;0.3215;7.3400;
48.9000;0.3223;7.3306;
49.2000;0.3199;7.3235;
49.5000;0.3305;7.3541;
49.8000;0.3207;7.3282;
50.1000;0.3207;7.3306;
50.4000;0.3199;7.3259;
50.7000;0.3183;7.3282;
51.0000;0.3232;7.3306;
51.3000;0.3223;7.3353;
51.6000;0.3191;7.3165;
51.9000;0.3199;7.3165;
52.2000;0.3215;7.3188;
52.5000;0.3191;7.3165;
52.8000;0.3215;7.3212;
53.1000;0.3215;7.3188;
53.4000;0.3223;7.3141;
53.7000;0.3199;7.3165;
54.0000;0.3223;7.3212;
54.3000;0.3207;7.3212;
54.6000;0.3199;7.3118;
54.9000;0.3199;7.3118;
55.2000;0.3207;7.3141;
55.5000;0.3207;7.3071;
55.8000;0.3207;7.3165;
56.1000;0.3199;7.3235;
56.4000;0.3191;7.3282;
56.7000;0.3256;7.3376;
57.0000;0.3313;7.3565;
57.3000;0.3248;7.3494;
57.6000;0.3215;7.3306;
57.9000;0.3280;7.3400;
58.2000;0.3207;7.3235;
58.5000;0.3215;7.3306;
58.8000;0.3232;7.3400;
59.1000;0.3183;7.3282;
59.4000;0.3215;7.3306;
59.7000;0.3199;7.3306;
60.0000;0.3207;7.3235;
60.3000;0.3256;7.3353;
60.6000;0.3166;7.3094;
60.9000;0.3199;7.3118;
61.2000;0.3232;7.3212;
61.5000;0.3207;7.3188;
61.8000;0.3215;7.3259;
62.1000;0.3207;7.3306;
62.4000;0.3223;7.3353;
62.7000;0.3150;7.3188;
63.0000;0.3232;7.3306;
63.3000;0.3232;7.3282;
63.6000;0.3289;7.3612;
63.9000;0.3240;7.3494;
64.2000;0.3264;7.3635;
64.5000;0.3232;7.3447;
64.8000;0.3215;7.3376;
65.1000;0.3272;7.3541;
65.4000;0.3215;7.3471;
65.7000;0.3215;7.3471;
66.0000;0.3232;7.3518;
66.3000;0.3264;7.3612;
66.6000;0.3264;7.3659;
66.9000;0.3223;7.3565;
67.2000;0.3232;7.3565;
67.5000;0.3223;7.3612;
67.8000;0.3232;7.3588;
68.1000;0.3232;7.3518;
68.4000;0.3199;7.3306;
68.7000;0.3199;7.3353;
69.0000;0.3207;7.3376;
69.3000;0.3199;7.3424;
69.6000;0.3232;7.3518;
69.9000;0.3215;7.3447;
70.2000;0.3297;7.3612;
70.5000;0.3215;7.3400;
70.8000;0.3223;7.3494;
71.1000;0.3240;7.3518;
71.4000;0.3223;7.3424;
71.7000;0.3240;7.3400;
72.0000;0.3223;7.3424;
72.3000;0.3207;7.3376;
72.6000;0.3232;7.3447;
72.9000;0.3289;7.3541;
73.2000;0.3248;7.3400;
73.5000;0.3248;7.3424;
73.8000;0.3207;7.3259;
74.1000;0.3256;7.3282;
74.4000;0.3232;7.3282;
74.7000;0.3232;7.3259;
75.0000;0.3215;7.3235;
75.3000;0.3248;7.3329;
75.6000;0.3232;7.3376;
75.9000;0.3134;7.3118;
76.2000;0.3215;7.3471;
76.5000;0.3248;7.3518;
76.8000;0.3183;7.3400;
77.1000;0.3232;7.3471;
77.4000;0.3191;7.3400;
77.7000;0.3248;7.3635;
78.0000;0.3232;7.3541;
78.3000;0.3215;7.3424;
78.6000;0.3232;7.3471;
78.9000;0.3305;7.3635;
79.2000;0.3289;7.3612;
79.5000;0.3207;7.3424;
79.8000;0.3215;7.3541;
80.1000;0.3232;7.3565;
80.4000;0.3223;7.3541;
80.7000;0.3134;7.3306;
81.0000;0.3215;7.3471;
81.3000;0.3199;7.3424;
81.6000;0.3240;7.3518;
81.9000;0.3183;7.3376;
82.2000;0.3150;7.3212;
82.5000;0.3215;7.3447;
82.8000;0.3272;7.3565;
83.1000;0.3280;7.3518;
83.4000;0.3256;7.3424;
83.7000;0.3248;7.3518;
84.0000;0.3223;7.3494;
84.3000;0.3207;7.3471;
84.6000;0.3215;7.3518;
84.9000;0.3232;7.3494;
85.2000;0.3215;7.3494;
85.5000;0.3248;7.3424;
85.8000;0.3166;7.3329;
86.1000;0.3240;7.3471;
86.4000;0.3240;7.3588;
86.7000;0.3191;7.3541;
87.0000;0.3240;7.3706;
87.3000;0.3232;7.3635;
87.6000;0.3264;7.3494;
87.9000;0.3215;7.3400;
88.2000;0.3289;7.3706;
88.5000;0.3297;7.3682;
88.8000;0.3207;7.3494;
89.1000;0.3346;7.3706;
89.4000;0.3248;7.3447;
89.7000;0.3175;7.3353;
90.0000;0.3223;7.3471;
90.3000;0.3240;7.3494;
90.6000;0.3199;7.3376;
90.9000;0.3199;7.3424;
91.2000;0.3232;7.3494;
91.5000;0.3223;7.3565;
91.8000;0.3248;7.3659;
92.1000;0.3223;7.3635;
92.4000;0.3232;7.3706;
92.7000;0.3248;7.3706;
93.0000;0.3248;7.3729;
93.3000;0.3248;7.3753;
93.6000;0.3256;7.3776;
93.9000;0.3232;7.3682;
94.2000;0.3256;7.3753;
94.5000;0.3248;7.3659;
94.8000;0.3272;7.3659;
95.1000;0.3223;7.3612;
95.4000;0.3223;7.3588;
95.7000;0.3256;7.3682;
96.0000;0.3240;7.3682;
96.3000;0.3232;7.3635;
96.6000;0.3240;7.3565;
96.9000;0.3240;7.3565;
97.2000;0.3256;7.3518;
97.5000;0.3248;7.3494;
97.8000;0.3232;7.3518;
98.1000;0.3240;7.3565;
98.4000;0.3329;7.3753;
98.7000;0.3240;7.3588;
99.0000;0.3248;7.3588;
99.3000;0.3264;7.3541;
99.6000;0.3240;7.3635;
99.9000;0.3240;7.3612;
100.2000;0.3280;7.3659;
100.5000;0.3232;7.3565;
100.8000;0.3223;7.3541;
101.1000;0.3215;7.3588;
101.4000;0.3248;7.3659;
101.7000;0.3166;7.3424;
102.0000;0.3232;7.3424;
102.3000;0.3248;7.3471;
102.6000;0.3256;7.3424;
102.9000;0.3215;7.3400;
103.2000;0.3305;7.3565;
103.5000;0.3232;7.3400;
103.8000;0.3223;7.3424;
104.1000;0.3248;7.3424;
104.4000;0.3215;7.3400;
104.7000;0.3232;7.3400;
105.0000;0.3232;7.3424;
105.3000;0.3248;7.3447;
105.6000;0.3215;7.3400;
105.9000;0.3248;7.3494;
106.2000;0.3232;7.3494;
106.5000;0.3272;7.3612;
106.8000;0.3240;7.3541;
107.1000;0.3256;7.3541;
107.4000;0.3248;7.3447;
107.7000;0.3232;7.3353;
108.0000;0.3240;7.3424;
108.3000;0.3223;7.3447;
108.6000;0.3264;7.3494;
108.9000;0.3240;7.3518;
109.2000;0.3240;7.3494;
109.5000;0.3215;7.3376;
109.8000;0.3256;7.3424;
110.1000;0.3248;7.3424;
110.4000;0.3223;7.3400;
110.7000;0.3248;7.3541;
111.0000;0.3207;7.3424;
111.3000;0.3215;7.3494;
111.6000;0.3240;7.3447;
111.9000;0.3126;7.3165;
112.2000;0.3232;7.3447;
112.5000;0.3248;7.3518;
112.8000;0.3240;7.3541;
113.1000;0.3248;7.3588;
113.4000;0.3232;7.3494;
113.7000;0.3240;7.3518;
114.0000;0.3256;7.3541;
114.3000;0.3264;7.3518;
114.6000;0.3215;7.3447;
114.9000;0.3256;7.3471;
115.2000;0.3232;7.3400;
115.5000;0.3232;7.3353;
115.8000;0.3240;7.3400;
116.1000;0.3297;7.3588;
116.4000;0.3215;7.3447;
116.7000;0.3207;7.3424;
117.0000;0.3264;7.3612;
117.3000;0.3232;7.3588;
117.6000;0.3175;7.3424;
117.9000;0.3232;7.3612;
118.2000;0.3256;7.3612;
118.5000;0.3240;7.3518;
118.8000;0.3256;7.3565;
119.1000;0.3232;7.3518;
119.4000;0.3199;7.3494;
119.7000;0.3232;7.3588;
120.0000;0.3240;7.3588;
120.3000;0.3240;7.3494;
120.6000;0.3248;7.3471;
120.9000;0.3215;7.3329;
121.2000;0.3248;7.3447;
121.5000;0.3240;7.3447;
121.8000;0.3232;7.3376;
122.1000;0.3264;7.3447;
122.4000;0.3232;7.3424;
122.7000;0.3264;7.3541;
123.0000;0.3191;7.3400;
123.3000;0.3240;7.3518;
123.6000;0.3232;7.3565;
123.9000;0.3248;7.3635;
124.2000;0.3248;7.3518;
124.5000;0.3232;7.3353;
124.8000;0.3248;7.3376;
125.1000;0.3248;7.3376;
125.4000;0.3175;7.3212;
125.7000;0.3248;7.3329;
126.0000;0.3223;7.3329;
126.3000;0.3199;7.3282;
126.6000;0.3232;7.3424;
126.9000;0.3223;7.3494;
127.2000;0.3215;7.3565;
127.5000;0.3232;7.3635;
127.8000;0.3223;7.3612;
128.1000;0.3321;7.3776;
128.4000;0.3223;7.3518;
128.7000;0.3240;7.3518;
129.0000;0.3240;7.3424;
129.3000;0.3223;7.3353;
129.6000;0.3240;7.3447;
129.9000;0.3232;7.3494;
130.2000;0.3305;7.3682;
130.5000;0.3215;7.3565;
130.8000;0.3240;7.3565;
131.1000;0.3240;7.3494;
131.4000;0.3223;7.3518;
131.7000;0.3240;7.3494;
132.0000;0.3232;7.3494;
132.3000;0.3175;7.3259;
132.6000;0.3240;7.3424;
132.9000;0.3240;7.3353;
133.2000;0.3264;7.3400;
133.5000;0.3256;7.3447;
133.8000;0.3297;7.3565;
134.1000;0.3223;7.3400;
134.4000;0.3232;7.3424;
134.7000;0.3240;7.3424;
135.0000;0.3248;7.3447;
135.3000;0.3207;7.3471;
135.6000;0.3256;7.3565;
135.9000;0.3264;7.3565;
136.2000;0.3240;7.3494;
136.5000;0.3248;7.3494;
136.8000;0.3223;7.3424;
137.1000;0.3240;7.3424;
137.4000;0.3248;7.3471;
137.7000;0.3264;7.3471;
138.0000;0.3240;7.3353;
138.3000;0.3207;7.3282;
138.6000;0.3264;7.3447;
138.9000;0.3240;7.3541;
139.2000;0.3248;7.3518;
139.5000;0.3240;7.3588;
139.8000;0.3232;7.3565;
140.1000;0.3248;7.3588;
140.4000;0.3256;7.3635;
140.7000;0.3240;7.3518;
141.0000;0.3248;7.3424;
141.3000;0.3248;7.3424;
141.6000;0.3207;7.3353;
141.9000;0.3223;7.3424;
142.2000;0.3272;7.3565;
142.5000;0.3223;7.3518;
142.8000;0.3240;7.3635;
143.1000;0.3240;7.3612;
143.4000;0.3199;7.3447;
143.7000;0.3232;7.3471;
144.0000;0.3248;7.3588;
144.3000;0.3240;7.3518;
144.6000;0.3223;7.3471;
144.9000;0.3240;7.3447;
145.2000;0.3207;7.3376;
145.5000;0.3248;7.3494;
145.8000;0.3232;7.3400;
146.1000;0.3248;7.3471;
146.4000;0.3280;7.3565;
146.7000;0.3248;7.3565;
147.0000;0.3256;7.3565;
147.3000;0.3232;7.3518;
147.6000;0.3256;7.3565;
147.9000;0.3240;7.3565;
148.2000;0.3248;7.3682;
148.5000;0.3248;7.3682;
148.8000;0.3272;7.3753;
149.1000;0.3256;7.3659;
149.4000;0.3223;7.3518;
149.7000;0.3240;7.3541;
150.0000;0.3240;7.3565;
150.3000;0.3248;7.3494;
150.6000;0.3248;7.3447;
150.9000;0.3240;7.3424;
151.2000;0.3199;7.3447;
151.5000;0.3248;7.3541;
151.8000;0.3248;7.3541;
152.1000;0.3248;7.3612;
152.4000;0.3248;7.3565;
152.7000;0.3264;7.3565;
153.0000;0.3264;7.3494;
153.3000;0.3232;7.3424;
153.6000;0.3232;7.3376;
153.9000;0.3240;7.3329;
154.2000;0.3256;7.3447;
154.5000;0.3248;7.3518;
154.8000;0.3256;7.3518;
155.1000;0.3232;7.3541;
155.4000;0.3232;7.3565;
155.7000;0.3232;7.3471;
156.0000;0.3248;7.3471;
156.3000;0.3199;7.3306;
156.6000;0.3248;7.3494;
156.9000;0.3232;7.3518;
157.2000;0.3280;7.3659;
157.5000;0.3223;7.3424;
157.8000;0.3240;7.3518;
158.1000;0.3215;7.3329;
158.4000;0.3256;7.3424;
158.7000;0.3223;7.3400;
159.0000;0.3264;7.3471;
159.3000;0.3354;7.3682;
159.6000;0.3175;7.3329;
159.9000;0.3256;7.3541;
160.2000;0.3248;7.3494;
160.5000;0.3248;7.3518;
160.8000;0.3191;7.3329;
161.1000;0.3232;7.3282;
161.4000;0.3248;7.3329;
161.7000;0.3256;7.3282;
162.0000;0.3272;7.3235;
162.3000;0.3297;7.3329;
162.6000;0.3223;7.3165;
162.9000;0.3256;7.3282;
163.2000;0.3248;7.3282;
163.5000;0.3264;7.3353;
163.8000;0.3248;7.3376;
164.1000;0.3232;7.3447;
164.4000;0.3264;7.3541;
164.7000;0.3232;7.3612;
165.0000;0.3223;7.3565;
165.3000;0.3240;7.3541;
165.6000;0.3232;7.3494;
165.9000;0.3240;7.3565;
166.2000;0.3240;7.3494;
166.5000;0.3232;7.3447;
166.8000;0.3223;7.3518;
167.1000;0.3240;7.3447;
167.4000;0.3232;7.3353;
167.7000;0.3248;7.3306;
168.0000;0.3240;7.3376;
168.3000;0.3264;7.3400;
168.6000;0.3240;7.3376;
168.9000;0.3248;7.3353;
169.2000;0.3272;7.3471;
169.5000;0.3264;7.3400;
169.8000;0.3337;7.3635;
170.1000;0.3272;7.3424;
170.4000;0.3207;7.3376;
170.7000;0.3256;7.3541;
171.0000;0.3272;7.3612;
171.3000;0.3223;7.3494;
171.6000;0.3240;7.3612;
171.9000;0.3256;7.3541;
172.2000;0.3256;7.3565;
172.5000;0.3248;7.3588;
172.8000;0.3207;7.3424;
173.1000;0.3223;7.3424;
173.4000;0.3240;7.3376;
173.7000;0.3240;7.3447;
174.0000;0.3264;7.3447;
174.3000;0.3256;7.3424;
174.6000;0.3256;7.3494;
174.9000;0.3183;7.3306;
175.2000;0.3223;7.3471;
175.5000;0.3223;7.3447;
175.8000;0.3240;7.3400;
176.1000;0.3207;7.3376;
176.4000;0.3248;7.3447;
176.7000;0.3215;7.3494;
177.0000;0.3223;7.3588;
177.3000;0.3305;7.3729;
177.6000;0.3272;7.3729;
177.9000;0.3248;7.3612;
178.2000;0.3256;7.3635;
178.5000;0.3232;7.3588;
178.8000;0.3248;7.3659;
179.1000;0.3256;7.3729;
179.4000;0.3289;7.3870;
179.7000;0.3272;7.3823;
180.0000;0.3248;7.3706;
180.3000;0.3215;7.3565;
180.6000;0.3240;7.3541;
180.9000;0.3232;7.3565;
181.2000;0.3215;7.3471;
181.5000;0.3232;7.3494;
181.8000;0.3223;7.3494;
182.1000;0.3223;7.3494;
182.4000;0.3183;7.3400;
182.7000;0.3337;7.3870;
183.0000;0.3240;7.3659;
183.3000;0.3313;7.3823;
183.6000;0.3280;7.3753;
183.9000;0.3240;7.3518;
184.2000;0.3223;7.3447;
184.5000;0.3215;7.3471;
184.8000;0.3256;7.3541;
185.1000;0.3264;7.3494;
185.4000;0.3232;7.3400;
185.7000;0.3223;7.3400;
186.0000;0.3240;7.3353;
186.3000;0.3305;7.3447;
186.6000;0.3240;7.3188;
186.9000;0.3248;7.3141;
187.2000;0.3248;7.3047;
187.5000;0.3232;7.3047;
187.8000;0.3248;7.3024;
188.1000;0.3232;7.3024;
188.4000;0.3232;7.3000;
188.7000;0.3240;7.3024;
189.0000;0.3207;7.2977;
189.3000;0.3232;7.3024;
189.6000;0.3248;7.3118;
189.9000;0.3240;7.3212;
190.2000;0.3240;7.3329;
190.5000;0.3240;7.3447;
190.8000;0.3232;7.3424;
191.1000;0.3232;7.3424;
191.4000;0.3232;7.3471;
191.7000;0.3223;7.3424;
192.0000;0.3248;7.3447;
192.3000;0.3223;7.3259;
192.6000;0.3256;7.3259;
192.9000;0.3329;7.3424;
193.2000;0.3256;7.3188;
193.5000;0.3158;7.2977;
193.8000;0.3183;7.3047;
194.1000;0.3215;7.3165;
194.4000;0.3248;7.3141;
194.7000;0.3240;7.3094;
195.0000;0.3280;7.3141;
195.3000;0.3297;7.3259;
195.6000;0.3256;7.3259;
195.9000;0.3215;7.3306;
196.2000;0.3321;7.3541;
196.5000;0.3232;7.3447;
196.8000;0.3199;7.3353;
197.1000;0.3232;7.3400;
197.4000;0.3240;7.3376;
197.7000;0.3248;7.3376;
198.0000;0.3183;7.3188;
198.3000;0.3256;7.3329;
198.6000;0.3240;7.3353;
198.9000;0.3256;7.3329;
199.2000;0.3240;7.3259;
199.5000;0.3248;7.3353;
199.8000;0.3248;7.3329;
200.1000;0.3264;7.3376;
200.4000;0.3280;7.3400;
200.7000;0.3240;7.3329;
201.0000;0.3264;7.3400;
201.3000;0.3248;7.3400;
201.6000;0.3240;7.3329;
201.9000;0.3232;7.3259;
202.2000;0.3240;7.3259;
202.5000;0.3232;7.3188;
202.8000;0.3240;7.3165;
203.1000;0.3191;7.3024;
203.4000;0.3183;7.3024;
203.7000;0.3248;7.3188;
204.0000;0.3248;7.3212;
204.3000;0.3248;7.3188;
204.6000;0.3272;7.3306;
204.9000;0.3256;7.3235;
205.2000;0.3248;7.3188;
205.5000;0.3289;7.3282;
205.8000;0.3248;7.3188;
206.1000;0.3272;7.3259;
206.4000;0.3264;7.3353;
206.7000;0.3248;7.3282;
207.0000;0.3240;7.3282;
207.3000;0.3223;7.3259;
207.6000;0.3248;7.3235;
207.9000;0.3248;7.3118;
208.2000;0.3256;7.3212;
208.5000;0.3280;7.3353;
208.8000;0.3256;7.3306;
209.1000;0.3248;7.3235;
209.4000;0.3223;7.3165;
209.7000;0.3232;7.3282;
210.0000;0.3207;7.3306;
210.3000;0.3248;7.3471;
210.6000;0.3240;7.3494;
210.9000;0.3199;7.3376;
211.2000;0.3256;7.3400;
211.5000;0.3240;7.3282;
211.8000;0.3264;7.3353;
212.1000;0.3248;7.3353;
212.4000;0.3207;7.3353;
212.7000;0.3232;7.3376;
213.0000;0.3264;7.3494;
213.3000;0.3248;7.3494;
213.6000;0.3248;7.3471;
213.9000;0.3248;7.3376;
214.2000;0.3248;7.3306;
214.5000;0.3240;7.3259;
214.8000;0.3232;7.3259;
215.1000;0.3256;7.3212;
215.4000;0.3256;7.3235;
215.7000;0.3256;7.3329;
216.0000;0.3256;7.3259;
216.3000;0.3232;7.3235;
216.6000;0.3223;7.3118;
216.9000;0.3248;7.3212;
217.2000;0.3199;7.3094;
217.5000;0.3240;7.3212;
217.8000;0.3264;7.3235;
218.1000;0.3256;7.3094;
218.4000;0.3280;7.3047;
218.7000;0.3289;7.3024;
219.0000;0.3215;7.3000;
219.3000;0.3264;7.3118;
219.6000;0.3240;7.3188;
219.9000;0.3256;7.3188;
220.2000;0.3248;7.3188;
220.5000;0.3232;7.3188;
220.8000;0.3199;7.3118;
221.1000;0.3232;7.3259;
221.4000;0.3175;7.3165;
221.7000;0.3297;7.3471;
222.0000;0.3248;7.3282;
222.3000;0.3232;7.3259;
222.6000;0.3240;7.3165;
222.9000;0.3240;7.3165;
223.2000;0.3223;7.3141;
223.5000;0.3256;7.3188;
223.8000;0.3232;7.3212;
224.1000;0.3248;7.3259;
224.4000;0.3264;7.3282;
224.7000;0.3240;7.3235;
225.0000;0.3264;7.3212;
225.3000;0.3248;7.3212;
225.6000;0.3256;7.3165;
225.9000;0.3240;7.3118;
226.2000;0.3240;7.3165;
226.5000;0.3240;7.3118;
226.8000;0.3232;7.3188;
227.1000;0.3248;7.3282;
227.4000;0.3256;7.3259;
227.7000;0.3256;7.3212;
228.0000;0.3232;7.3024;
228.3000;0.3256;7.3047;
228.6000;0.3240;7.3024;
228.9000;0.3223;7.3094;
229.2000;0.3256;7.3188;
229.5000;0.3256;7.3259;
229.8000;0.3256;7.3282;
230.1000;0.3215;7.3212;
230.4000;0.3240;7.3306;
230.7000;0.3215;7.3118;
231.0000;0.3248;7.3094;
231.3000;0.3248;7.3165;
231.6000;0.3248;7.3094;
231.9000;0.3223;7.3071;
232.2000;0.3240;7.3165;
232.5000;0.3232;7.3165;
232.8000;0.3248;7.3188;
233.1000;0.3248;7.3188;
233.4000;0.3191;7.3071;
233.7000;0.3175;7.3071;
234.0000;0.3256;7.3329;
234.3000;0.3240;7.3353;
234.6000;0.3272;7.3424;
234.9000;0.3183;7.3306;
235.2000;0.3223;7.3353;
235.5000;0.3223;7.3282;
235.8000;0.3232;7.3329;
236.1000;0.3256;7.3447;
236.4000;0.3175;7.3212;
236.7000;0.3256;7.3353;
237.0000;0.3240;7.3329;
237.3000;0.3240;7.3353;
237.6000;0.3256;7.3376;
237.9000;0.3248;7.3306;
238.2000;0.3240;7.3165;
238.5000;0.3256;7.3141;
238.8000;0.3256;7.3165;
239.1000;0.3199;7.3024;
239.4000;0.3264;7.3259;
239.7000;0.3248;7.3141;
240.0000;0.3215;7.3047;
240.3000;0.3313;7.3329;
240.6000;0.3248;7.3235;
240.9000;0.3272;7.3329;
241.2000;0.3223;7.3212;
241.5000;0.3240;7.3212;
241.8000;0.3223;7.3094;
242.1000;0.3264;7.3259;
242.4000;0.3240;7.3235;
242.7000;0.3240;7.3329;
243.0000;0.3232;7.3376;
243.3000;0.3240;7.3353;
243.6000;0.3223;7.3282;
243.9000;0.3223;7.3141;
244.2000;0.3232;7.3235;
244.5000;0.3240;7.3235;
244.8000;0.3240;7.3212;
245.1000;0.3280;7.3400;
245.4000;0.3232;7.3329;
245.7000;0.3240;7.3471;
246.0000;0.3232;7.3518;
246.3000;0.3199;7.3400;
246.6000;0.3207;7.3400;
246.9000;0.3215;7.3447;
247.2000;0.3248;7.3471;
247.5000;0.3191;7.3259;
247.8000;0.3240;7.3329;
248.1000;0.3248;7.3353;
248.4000;0.3256;7.3376;
248.7000;0.3240;7.3424;
249.0000;0.3240;7.3588;
249.3000;0.3248;7.3588;
249.6000;0.3223;7.3518;
249.9000;0.3232;7.3471;
250.2000;0.3240;7.3353;
250.5000;0.3240;7.3376;
250.8000;0.3256;7.3424;
251.1000;0.3248;7.3376;
251.4000;0.3240;7.3400;
251.7000;0.3240;7.3541;
252.0000;0.3240;7.3447;
252.3000;0.3256;7.3471;
252.6000;0.3240;7.3424;
252.9000;0.3232;7.3471;
253.2000;0.3223;7.3424;
253.5000;0.3248;7.3400;
253.8000;0.3232;7.3306;
254.1000;0.3248;7.3259;
254.4000;0.3248;7.3282;
254.7000;0.3175;7.3165;
255.0000;0.3232;7.3259;
255.3000;0.3240;7.3259;
255.6000;0.3240;7.3329;
255.9000;0.3248;7.3353;
256.2000;0.3248;7.3282;
256.5000;0.3248;7.3188;
256.8000;0.3232;7.3212;
257.1000;0.3248;7.3306;
257.4000;0.3289;7.3424;
257.7000;0.3256;7.3329;
258.0000;0.3256;7.3306;
258.3000;0.3248;7.3376;
258.6000;0.3240;7.3353;
258.9000;0.3207;7.3329;
259.2000;0.3248;7.3424;
259.5000;0.3223;7.3306;
259.8000;0.3207;7.3329;
260.1000;0.3240;7.3376;
260.4000;0.3264;7.3400;
260.7000;0.3240;7.3282;
261.0000;0.3240;7.3306;
261.3000;0.3240;7.3282;
261.6000;0.3240;7.3306;
261.9000;0.3264;7.3306;
262.2000;0.3207;7.3141;
262.5000;0.3240;7.3235;
262.8000;0.3248;7.3306;
263.1000;0.3264;7.3306;
263.4000;0.3232;7.3259;
263.7000;0.3256;7.3235;
264.0000;0.3264;7.3259;
264.3000;0.3240;7.3212;
264.6000;0.3232;7.3259;
264.9000;0.3240;7.3259;
265.2000;0.3248;7.3376;
265.5000;0.3215;7.3353;
265.8000;0.3297;7.3471;
266.1000;0.3240;7.3306;
266.4000;0.3264;7.3353;
266.7000;0.3223;7.3259;
267.0000;0.3240;7.3306;
267.3000;0.3240;7.3329;
267.6000;0.3248;7.3306;
267.9000;0.3232;7.3282;
268.2000;0.3305;7.3471;
268.5000;0.3240;7.3282;
268.8000;0.3256;7.3329;
269.1000;0.3232;7.3212;
269.4000;0.3232;7.3235;
269.7000;0.3256;7.3353;
270.0000;0.3183;7.3306;
270.3000;0.3240;7.3518;
270.6000;0.3264;7.3541;
270.9000;0.3289;7.3518;
271.2000;0.3256;7.3424;
271.5000;0.3223;7.3353;
271.8000;0.3297;7.3447;
272.1000;0.3223;7.3235;
272.4000;0.3280;7.3329;
272.7000;0.3256;7.3282;
273.0000;0.3256;7.3329;
273.3000;0.3158;7.3094;
273.6000;0.3240;7.3329;
273.9000;0.3232;7.3400;
274.2000;0.3240;7.3447;
274.5000;0.3264;7.3376;
274.8000;0.3256;7.3353;
275.1000;0.3280;7.3400;
275.4000;0.3240;7.3235;
275.7000;0.3264;7.3259;
276.0000;0.3256;7.3212;
276.3000;0.3223;7.3188;
276.6000;0.3272;7.3282;
276.9000;0.3256;7.3141;
277.2000;0.3240;7.3118;
277.5000;0.3240;7.3141;
277.8000;0.3248;7.3235;
278.1000;0.3248;7.3235;
278.4000;0.3256;7.3329;
278.7000;0.3280;7.3471;
279.0000;0.3289;7.3518;
279.3000;0.3256;7.3376;
279.6000;0.3240;7.3353;
279.9000;0.3248;7.3353;
280.2000;0.3248;7.3424;
280.5000;0.3248;7.3424;
280.8000;0.3199;7.3282;
281.1000;0.3223;7.3306;
281.4000;0.3240;7.3259;
281.7000;0.3248;7.3235;
282.0000;0.3248;7.3235;
282.3000;0.3240;7.3212;
282.6000;0.3240;7.3259;
282.9000;0.3248;7.3259;
283.2000;0.3256;7.3282;
283.5000;0.3232;7.3235;
283.8000;0.3240;7.3306;
284.1000;0.3264;7.3306;
284.4000;0.3240;7.3188;
284.7000;0.3240;7.3235;
285.0000;0.3232;7.3282;
285.3000;0.3256;7.3329;
285.6000;0.3264;7.3447;
285.9000;0.3256;7.3400;
286.2000;0.3272;7.3494;
286.5000;0.3256;7.3376;
286.8000;0.3248;7.3306;
287.1000;0.3232;7.3282;
287.4000;0.3240;7.3259;
287.7000;0.3256;7.3235;
288.0000;0.3256;7.3306;
288.3000;0.3248;7.3306;
288.6000;0.3240;7.3329;
288.9000;0.3248;7.3376;
289.2000;0.3223;7.3259;
289.5000;0.3232;7.3259;
289.8000;0.3248;7.3212;
290.1000;0.3240;7.3188;
290.4000;0.3232;7.3259;
290.7000;0.3248;7.3353;
291.0000;0.3248;7.3282;
291.3000;0.3264;7.3376;
291.6000;0.3232;7.3329;
291.9000;0.3248;7.3400;
292.2000;0.3256;7.3471;
292.5000;0.3248;7.3494;
292.8000;0.3240;7.3424;
293.1000;0.3264;7.3447;
293.4000;0.3223;7.3376;
293.7000;0.3232;7.3376;
294.0000;0.3248;7.3353;
294.3000;0.3232;7.3188;
294.6000;0.3240;7.3235;
294.9000;0.3248;7.3306;
295.2000;0.3248;7.3306;
295.5000;0.3272;7.3282;
295.8000;0.3248;7.3353;
296.1000;0.3264;7.3235;
296.4000;0.3240;7.3235;
296.7000;0.3240;7.3329;
297.0000;0.3248;7.3400;
297.3000;0.3232;7.3400;
297.6000;0.3232;7.3424;
297.9000;0.3264;7.3518;
298.2000;0.3248;7.3447;
298.5000;0.3264;7.3541;
298.8000;0.3240;7.3400;
299.1000;0.3232;7.3329;
299.4000;0.3256;7.3400;
299.7000;0.3256;7.3329;
300.0000;0.3248;7.3235;
300.3000;0.3256;7.3306;
300.6000;0.3207;7.3118;
300.9000;0.3289;7.3235;
301.2000;0.3223;7.3024;
301.5000;0.3223;7.2977;
301.8000;0.3305;7.3188;
302.1000;0.3264;7.3071;
302.4000;0.3223;7.2953;
302.7000;0.3240;7.3000;
303.0000;0.3240;7.3047;
303.3000;0.3232;7.3071;
303.6000;0.3232;7.2977;
303.9000;0.3232;7.3141;
304.2000;0.3272;7.3188;
304.5000;0.3240;7.3118;
304.8000;0.3240;7.3094;
305.1000;0.3240;7.3118;
305.4000;0.3248;7.3165;
305.7000;0.3248;7.3165;
306.0000;0.3240;7.3118;
306.3000;0.3223;7.3094;
306.6000;0.3158;7.2930;
306.9000;0.3248;7.3024;
307.2000;0.3272;7.3071;
307.5000;0.3215;7.3000;
307.8000;0.3248;7.2930;
308.1000;0.3264;7.3000;
308.4000;0.3264;7.3071;
308.7000;0.3232;7.3024;
309.0000;0.3272;7.3118;
309.3000;0.3264;7.3282;
309.6000;0.3223;7.3212;
309.9000;0.3215;7.3188;
310.2000;0.3223;7.3165;
310.5000;0.3248;7.3212;
310.8000;0.3183;7.3188;
311.1000;0.3232;7.3329;
311.4000;0.3207;7.3329;
311.7000;0.3240;7.3400;
312.0000;0.3272;7.3494;
312.3000;0.3232;7.3353;
312.6000;0.3240;7.3235;
312.9000;0.3240;7.3235;
313.2000;0.3207;7.3165;
313.5000;0.3240;7.3212;
313.8000;0.3280;7.3306;
314.1000;0.3240;7.3212;
314.4000;0.3248;7.3188;
314.7000;0.3232;7.3306;
315.0000;0.3232;7.3376;
315.3000;0.3223;7.3259;
315.6000;0.3264;7.3235;
315.9000;0.3207;7.3188;
316.2000;0.3256;7.3376;
316.5000;0.3264;7.3353;
316.8000;0.3272;7.3353;
317.1000;0.3248;7.3376;
317.4000;0.3240;7.3353;
317.7000;0.3232;7.3235;
318.0000;0.3264;7.3306;
318.3000;0.3272;7.3424;
318.6000;0.3248;7.3376;
318.9000;0.3223;7.3329;
319.2000;0.3232;7.3376;
319.5000;0.3256;7.3376;
319.8000;0.3248;7.3329;
320.1000;0.3248;7.3306;
320.4000;0.3297;7.3353;
320.7000;0.3248;7.3212;
321.0000;0.3256;7.3071;
321.3000;0.3280;7.3165;
321.6000;0.3256;7.3212;
321.9000;0.3248;7.3188;
322.2000;0.3248;7.3259;
322.5000;0.3272;7.3329;
322.8000;0.3232;7.3235;
323.1000;0.3256;7.3282;
323.4000;0.3248;7.3400;
323.7000;0.3240;7.3447;
324.0000;0.3240;7.3471;
324.3000;0.3248;7.3471;
324.6000;0.3240;7.3471;
324.9000;0.3248;7.3400;
325.2000;0.3232;7.3306;
325.5000;0.3240;7.3282;
325.8000;0.3240;7.3259;
326.1000;0.3240;7.3212;
326.4000;0.3240;7.3282;
326.7000;0.3232;7.3235;
327.0000;0.3248;7.3353;
327.3000;0.3248;7.3282;
327.6000;0.3240;7.3259;
327.9000;0.3232;7.3212;
328.2000;0.3289;7.3329;
328.5000;0.3272;7.3329;
328.8000;0.3256;7.3212;
329.1000;0.3264;7.3212;
329.4000;0.3223;7.3141;
329.7000;0.3240;7.3212;
330.0000;0.3223;7.3118;
330.3000;0.3256;7.3094;
330.6000;0.3175;7.3000;
330.9000;0.3248;7.3165;
331.2000;0.3232;7.3047;
331.5000;0.3256;7.2953;
331.8000;0.3256;7.2953;
332.1000;0.3240;7.2977;
332.4000;0.3232;7.3024;
332.7000;0.3256;7.3071;
333.0000;0.3215;7.2977;
333.3000;0.3248;7.3047;
333.6000;0.3232;7.3000;
333.9000;0.3248;7.3071;
334.2000;0.3248;7.3094;
334.5000;0.3256;7.3118;
334.8000;0.3232;7.2977;
335.1000;0.3248;7.2953;
335.4000;0.3232;7.2930;
335.7000;0.3256;7.3047;
336.0000;0.3248;7.3188;
336.3000;0.3256;7.3188;
336.6000;0.3248;7.3141;
336.9000;0.3240;7.3235;
337.2000;0.3232;7.3259;
337.5000;0.3256;7.3329;
337.8000;0.3248;7.3259;
338.1000;0.3305;7.3353;
338.4000;0.3264;7.3259;
338.7000;0.3256;7.3282;
339.0000;0.3240;7.3165;
339.3000;0.3240;7.3141;
339.6000;0.3232;7.3165;
339.9000;0.3240;7.3188;
340.2000;0.3232;7.3141;
340.5000;0.3256;7.3141;
340.8000;0.3207;7.2930;
341.1000;0.3232;7.3047;
341.4000;0.3264;7.3165;
341.7000;0.3240;7.3071;
342.0000;0.3223;7.3024;
342.3000;0.3248;7.3094;
342.6000;0.3240;7.3047;
342.9000;0.3232;7.3024;
343.2000;0.3272;7.3165;
343.5000;0.3215;7.3118;
343.8000;0.3232;7.3259;
344.1000;0.3240;7.3329;
344.4000;0.3199;7.3235;
344.7000;0.3232;7.3353;
345.0000;0.3232;7.3447;
345.3000;0.3248;7.3518;
345.6000;0.3223;7.3306;
345.9000;0.3232;7.3306;
346.2000;0.3256;7.3424;
346.5000;0.3248;7.3471;
346.8000;0.3248;7.3447;
347.1000;0.3240;7.3494;
347.4000;0.3248;7.3494;
347.7000;0.3240;7.3400;
348.0000;0.3223;7.3235;
348.3000;0.3248;7.3306;
348.6000;0.3256;7.3353;
348.9000;0.3256;7.3353;
349.2000;0.3232;7.3212;
349.5000;0.3207;7.3141;
349.8000;0.3240;7.3212;
350.1000;0.3264;7.3259;
350.4000;0.3248;7.3118;
350.7000;0.3248;7.3118;
351.0000;0.3256;7.3141;
351.3000;0.3199;7.2977;
351.6000;0.3272;7.3141;
351.9000;0.3248;7.3141;
352.2000;0.3337;7.3447;
352.5000;0.3256;7.3188;
352.8000;0.3248;7.3259;
353.1000;0.3240;7.3282;
353.4000;0.3240;7.3235;
353.7000;0.3256;7.3188;
354.0000;0.3256;7.3141;
354.3000;0.3240;7.3141;
354.6000;0.3240;7.3071;
354.9000;0.3256;7.3118;
355.2000;0.3272;7.3259;
355.5000;0.3256;7.3235;
355.8000;0.3248;7.3235;
356.1000;0.3240;7.3212;
356.4000;0.3240;7.3235;
356.7000;0.3248;7.3306;
357.0000;0.3207;7.3141;
357.3000;0.3223;7.3094;
357.6000;0.3248;7.3141;
357.9000;0.3248;7.3212;
358.2000;0.3248;7.3212;
358.5000;0.3240;7.3212;
358.8000;0.3248;7.3282;
359.1000;0.3240;7.3259;
359.4000;0.3223;7.3188;
359.7000;0.3240;7.3282;
360.0000;0.3248;7.3306;
360.3000;0.3264;7.3188;
360.6000;0.3248;7.3165;
360.9000;0.3207;7.3094;
361.2000;0.3264;7.3282;
361.5000;0.3223;7.3235;
361.8000;0.3256;7.3259;
362.1000;0.3240;7.3165;
362.4000;0.3240;7.3188;
362.7000;0.3191;7.3000;
363.0000;0.3215;7.2977;
363.3000;0.3232;7.2930;
363.6000;0.3232;7.2953;
363.9000;0.3240;7.3024;
364.2000;0.3248;7.3141;
364.5000;0.3207;7.3000;
364.8000;0.3248;7.3165;
365.1000;0.3248;7.3188;
365.4000;0.3232;7.3118;
365.7000;0.3232;7.3141;
366.0000;0.3272;7.3329;
366.3000;0.3248;7.3282;
366.6000;0.3248;7.3353;
366.9000;0.3215;7.3188;
367.2000;0.3240;7.3165;
367.5000;0.3240;7.3259;
367.8000;0.3215;7.3141;
368.1000;0.3215;7.3071;
368.4000;0.3346;7.3306;
368.7000;0.3280;7.3235;
369.0000;0.3248;7.3165;
369.3000;0.3256;7.3165;
369.6000;0.3264;7.3235;
369.9000;0.3248;7.3165;
370.2000;0.3248;7.3165;
370.5000;0.3264;7.3188;
370.8000;0.3248;7.3141;
371.1000;0.3280;7.3118;
371.4000;0.3240;7.3024;
371.7000;0.3223;7.3047;
372.0000;0.3240;7.3118;
372.3000;0.3248;7.3165;
372.6000;0.3223;7.3118;
372.9000;0.3272;7.3141;
373.2000;0.3223;7.3141;
373.5000;0.3207;7.3024;
373.8000;0.3215;7.3094;
374.1000;0.3248;7.3141;
374.4000;0.3256;7.3212;
374.7000;0.3256;7.3118;
375.0000;0.3232;7.3165;
375.3000;0.3215;7.3212;
375.6000;0.3199;7.3141;
375.9000;0.3232;7.3212;
376.2000;0.3248;7.3188;
376.5000;0.3248;7.3235;
376.8000;0.3199;7.3141;
377.1000;0.3256;7.3353;
377.4000;0.3215;7.3235;
377.7000;0.3158;7.3094;
378.0000;0.3215;7.3259;
378.3000;0.3248;7.3329;
378.6000;0.3240;7.3306;
378.9000;0.3223;7.3259;
379.2000;0.3248;7.3400;
379.5000;0.3232;7.3282;
379.8000;0.3215;7.3306;
380.1000;0.3223;7.3329;
380.4000;0.3223;7.3282;
380.7000;0.3248;7.3329;
381.0000;0.3248;7.3376;
381.3000;0.3223;7.3329;
381.6000;0.3264;7.3353;
381.9000;0.3272;7.3400;
382.2000;0.3191;7.3212;
382.5000;0.3240;7.3282;
382.8000;0.3232;7.3329;
383.1000;0.3232;7.3329;
383.4000;0.3305;7.3541;
383.7000;0.3248;7.3329;
384.0000;0.3280;7.3541;
384.3000;0.3240;7.3376;
384.6000;0.3264;7.3400;
384.9000;0.3248;7.3400;
385.2000;0.3248;7.3400;
385.5000;0.3248;7.3306;
385.8000;0.3248;7.3329;
386.1000;0.3256;7.3306;
386.4000;0.3248;7.3235;
386.7000;0.3264;7.3212;
387.0000;0.3248;7.3259;
387.3000;0.3256;7.3353;
387.6000;0.3232;7.3282;
387.9000;0.3240;7.3259;
388.2000;0.3264;7.3259;
388.5000;0.3215;7.3212;
388.8000;0.3248;7.3282;
389.1000;0.3232;7.3259;
389.4000;0.3256;7.3259;
389.7000;0.3256;7.3353;
390.0000;0.3256;7.3306;
390.3000;0.3240;7.3235;
390.6000;0.3223;7.3188;
390.9000;0.3248;7.3188;
391.2000;0.3248;7.3188;
391.5000;0.3289;7.3306;
391.8000;0.3248;7.3188;
392.1000;0.3248;7.3306;
392.4000;0.3280;7.3447;
392.7000;0.3240;7.3329;
393.0000;0.3199;7.3212;
393.3000;0.3256;7.3376;
393.6000;0.3248;7.3329;
393.9000;0.3240;7.3259;
394.2000;0.3248;7.3259;
394.5000;0.3305;7.3541;
394.8000;0.3248;7.3424;
395.1000;0.3223;7.3353;
395.4000;0.3240;7.3424;
395.7000;0.3240;7.3353;
396.0000;0.3256;7.3400;
396.3000;0.3223;7.3306;
396.6000;0.3223;7.3282;
396.9000;0.3232;7.3329;
397.2000;0.3215;7.3235;
397.5000;0.3248;7.3329;
397.8000;0.3232;7.3235;
398.1000;0.3256;7.3235;
398.4000;0.3248;7.3212;
398.7000;0.3240;7.3141;
399.0000;0.3248;7.3212;
399.3000;0.3248;7.3188;
399.6000;0.3256;7.3306;
399.9000;0.3232;7.3212;
400.2000;0.3223;7.3165;
400.5000;0.3256;7.3353;
400.8000;0.3248;7.3353;
401.1000;0.3240;7.3259;
401.4000;0.3240;7.3235;
401.7000;0.3248;7.3235;
402.0000;0.3150;7.2977;
402.3000;0.3240;7.3306;
402.6000;0.3240;7.3235;
402.9000;0.3240;7.3188;
403.2000;0.3223;7.3165;
403.5000;0.3232;7.3118;
403.8000;0.3232;7.3118;
404.1000;0.3232;7.3118;
404.4000;0.3264;7.3282;
404.7000;0.3223;7.3235;
405.0000;0.3134;7.3047;
405.3000;0.3248;7.3235;
405.6000;0.3232;7.3259;
405.9000;0.3232;7.3235;
406.2000;0.3248;7.3329;
406.5000;0.3248;7.3282;
406.8000;0.3232;7.3071;
407.1000;0.3321;7.3353;
407.4000;0.3232;7.3212;
407.7000;0.3256;7.3306;
408.0000;0.3207;7.3259;
408.3000;0.3240;7.3400;
408.6000;0.3232;7.3400;
408.9000;0.3248;7.3400;
409.2000;0.3289;7.3447;
409.5000;0.3240;7.3329;
409.8000;0.3256;7.3329;
410.1000;0.3256;7.3353;
410.4000;0.3232;7.3259;
410.7000;0.3248;7.3376;
411.0000;0.3256;7.3424;
411.3000;0.3248;7.3400;
411.6000;0.3248;7.3329;
411.9000;0.3223;7.3235;
412.2000;0.3223;7.3235;
412.5000;0.3264;7.3188;
412.8000;0.3256;7.3118;
413.1000;0.3232;7.3094;
413.4000;0.3223;7.3165;
413.7000;0.3280;7.3400;
414.0000;0.3223;7.3306;
414.3000;0.3240;7.3424;
414.6000;0.3232;7.3424;
414.9000;0.3248;7.3400;
415.2000;0.3256;7.3376;
415.5000;0.3289;7.3447;
415.8000;0.3248;7.3353;
416.1000;0.3256;7.3329;
416.4000;0.3215;7.3259;
416.7000;0.3232;7.3353;
417.0000;0.3223;7.3259;
417.3000;0.3232;7.3306;
417.6000;0.3248;7.3259;
417.9000;0.3248;7.3212;
418.2000;0.3215;7.3165;
418.5000;0.3207;7.3212;
418.8000;0.3240;7.3282;
419.1000;0.3256;7.3329;
419.4000;0.3232;7.3259;
419.7000;0.3240;7.3376;
420.0000;0.3313;7.3588;
420.3000;0.3264;7.3376;
420.6000;0.3183;7.3141;
420.9000;0.3256;7.3353;
421.2000;0.3240;7.3400;
421.5000;0.3215;7.3353;
421.8000;0.3223;7.3235;
422.1000;0.3175;7.3118;
422.4000;0.3272;7.3329;
422.7000;0.3240;7.3329;
423.0000;0.3240;7.3329;
423.3000;0.3248;7.3376;
423.6000;0.3240;7.3424;
423.9000;0.3256;7.3565;
424.2000;0.3240;7.3612;
424.5000;0.3248;7.3541;
424.8000;0.3248;7.3518;
425.1000;0.3248;7.3494;
425.4000;0.3264;7.3518;
425.7000;0.3256;7.3471;
426.0000;0.3232;7.3376;
426.3000;0.3232;7.3376;
426.6000;0.3256;7.3376;
426.9000;0.3264;7.3400;
427.2000;0.3248;7.3306;
427.5000;0.3256;7.3282;
427.8000;0.3232;7.3212;
428.1000;0.3248;7.3188;
428.4000;0.3191;7.3000;
428.7000;0.3248;7.3094;
429.0000;0.3240;7.3165;
429.3000;0.3256;7.3165;
429.6000;0.3248;7.3165;
429.9000;0.3264;7.3212;
430.2000;0.3248;7.3094;
430.5000;0.3264;7.3141;
430.8000;0.3215;7.3047;
431.1000;0.3264;7.3212;
431.4000;0.3264;7.3329;
431.7000;0.3248;7.3259;
432.0000;0.3248;7.3235;
432.3000;0.3240;7.3188;
432.6000;0.3256;7.3259;
432.9000;0.3232;7.3329;
433.2000;0.3232;7.3329;
433.5000;0.3223;7.3235;
433.8000;0.3223;7.3306;
434.1000;0.3240;7.3400;
434.4000;0.3240;7.3400;
434.7000;0.3232;7.3306;
435.0000;0.3248;7.3306;
435.3000;0.3256;7.3400;
435.6000;0.3240;7.3353;
435.9000;0.3248;7.3424;
436.2000;0.3248;7.3424;
436.5000;0.3272;7.3424;
436.8000;0.3256;7.3400;
437.1000;0.3232;7.3235;
437.4000;0.3240;7.3282;
437.7000;0.3223;7.3376;
438.0000;0.3248;7.3400;
438.3000;0.3232;7.3329;
438.6000;0.3240;7.3235;
438.9000;0.3232;7.3165;
439.2000;0.3232;7.3235;
439.5000;0.3232;7.3400;
439.8000;0.3248;7.3376;
440.1000;0.3166;7.3212;
440.4000;0.3240;7.3424;
440.7000;0.3248;7.3400;
441.0000;0.3248;7.3376;
441.3000;0.3240;7.3329;
441.6000;0.3272;7.3376;
441.9000;0.3248;7.3353;
442.2000;0.3248;7.3400;
442.5000;0.3256;7.3424;
442.8000;0.3248;7.3471;
443.1000;0.3232;7.3471;
443.4000;0.3256;7.3447;
443.7000;0.3215;7.3400;
444.0000;0.3256;7.3541;
444.3000;0.3248;7.3541;
444.6000;0.3305;7.3612;
444.9000;0.3272;7.3635;
445.2000;0.3223;7.3635;
445.5000;0.3297;7.3800;
445.8000;0.3240;7.3659;
446.1000;0.3248;7.3612;
446.4000;0.3232;7.3541;
446.7000;0.3248;7.3565;
447.0000;0.3248;7.3612;
447.3000;0.3289;7.3565;
447.6000;0.3240;7.3400;
447.9000;0.3248;7.3400;
448.2000;0.3248;7.3353;
448.5000;0.3223;7.3329;
448.8000;0.3248;7.3447;
449.1000;0.3240;7.3447;
449.4000;0.3248;7.3447;
449.7000;0.3240;7.3376;
450.0000;0.3248;7.3400;
450.3000;0.3240;7.3424;
450.6000;0.3256;7.3424;
450.9000;0.3240;7.3447;
451.2000;0.3248;7.3400;
451.5000;0.3297;7.3471;
451.8000;0.3248;7.3376;
452.1000;0.3264;7.3282;
452.4000;0.3248;7.3212;
452.7000;0.3248;7.3282;
453.0000;0.3240;7.3306;
453.3000;0.3223;7.3259;
453.6000;0.3264;7.3424;
453.9000;0.3240;7.3400;
454.2000;0.3232;7.3282;
454.5000;0.3264;7.3329;
454.8000;0.3264;7.3282;
455.1000;0.3248;7.3282;
455.4000;0.3256;7.3306;
455.7000;0.3223;7.3306;
456.0000;0.3248;7.3329;
456.3000;0.3248;7.3400;
456.6000;0.3248;7.3329;
456.9000;0.3248;7.3447;
457.2000;0.3248;7.3424;
457.5000;0.3223;7.3306;
457.8000;0.3223;7.3329;
458.1000;0.3232;7.3471;
458.4000;0.3240;7.3471;
458.7000;0.3248;7.3447;
459.0000;0.3240;7.3353;
459.3000;0.3289;7.3565;
459.6000;0.3232;7.3400;
459.9000;0.3256;7.3447;
460.2000;0.3240;7.3353;
460.5000;0.3191;7.3306;
460.8000;0.3248;7.3353;
461.1000;0.3232;7.3400;
461.4000;0.3207;7.3306;
461.7000;0.3223;7.3235;
462.0000;0.3248;7.3376;
462.3000;0.3240;7.3447;
462.6000;0.3232;7.3400;
462.9000;0.3240;7.3471;
463.2000;0.3264;7.3541;
463.5000;0.3248;7.3376;
463.8000;0.3240;7.3376;
464.1000;0.3240;7.3282;
464.4000;0.3240;7.3282;
464.7000;0.3248;7.3329;
465.0000;0.3240;7.3282;
465.3000;0.3232;7.3282;
465.6000;0.3248;7.3282;
465.9000;0.3248;7.3235;
466.2000;0.3232;7.3212;
466.5000;0.3289;7.3329;
466.8000;0.3256;7.3235;
467.1000;0.3232;7.3212;
467.4000;0.3240;7.3259;
467.7000;0.3248;7.3306;
468.0000;0.3248;7.3376;
468.3000;0.3297;7.3494;
468.6000;0.3256;7.3353;
468.9000;0.3240;7.3282;
469.2000;0.3232;7.3306;
469.5000;0.3354;7.3612;
469.8000;0.3256;7.3329;
470.1000;0.3264;7.3329;
470.4000;0.3248;7.3353;
470.7000;0.3248;7.3424;
471.0000;0.3256;7.3353;
471.3000;0.3248;7.3282;
471.6000;0.3240;7.3329;
471.9000;0.3223;7.3329;
472.2000;0.3272;7.3494;
472.5000;0.3240;7.3494;
472.8000;0.3232;7.3447;
473.1000;0.3223;7.3376;
473.4000;0.3223;7.3306;
473.7000;0.3248;7.3376;
474.0000;0.3150;7.3094;
474.3000;0.3248;7.3306;
474.6000;0.3232;7.3306;
474.9000;0.3232;7.3306;
475.2000;0.3183;7.3188;
475.5000;0.3248;7.3259;
475.8000;0.3256;7.3235;
476.1000;0.3256;7.3212;
476.4000;0.3248;7.3235;
476.7000;0.3256;7.3306;
477.0000;0.3329;7.3494;
477.3000;0.3248;7.3353;
477.6000;0.3248;7.3376;
477.9000;0.3256;7.3424;
478.2000;0.3337;7.3659;
478.5000;0.3248;7.3376;
478.8000;0.3240;7.3329;
479.1000;0.3183;7.3212;
479.4000;0.3223;7.3353;
479.7000;0.3248;7.3424;
480.0000;0.3240;7.3376;
480.3000;0.3232;7.3353;
480.6000;0.3207;7.3353;
480.9000;0.3223;7.3400;
481.2000;0.3223;7.3329;
481.5000;0.3232;7.3306;
481.8000;0.3248;7.3306;
482.1000;0.3256;7.3259;
482.4000;0.3240;7.3212;
482.7000;0.3240;7.3165;
483.0000;0.3240;7.3141;
483.3000;0.3199;7.2953;
483.6000;0.3223;7.3024;
483.9000;0.3223;7.3071;
484.2000;0.3215;7.3188;
484.5000;0.3215;7.3212;
484.8000;0.3199;7.3165;
485.1000;0.3240;7.3259;
485.4000;0.3223;7.3259;
485.7000;0.3240;7.3165;
486.0000;0.3240;7.3188;
486.3000;0.3256;7.3212;
486.6000;0.3280;7.3235;
486.9000;0.3240;7.3094;
487.2000;0.3256;7.3071;
487.5000;0.3166;7.2883;
487.8000;0.3240;7.3071;
488.1000;0.3248;7.3141;
488.4000;0.3272;7.3212;
488.7000;0.3240;7.3212;
489.0000;0.3248;7.3306;
489.3000;0.3240;7.3376;
489.6000;0.3232;7.3329;
489.9000;0.3248;7.3400;
490.2000;0.3248;7.3471;
490.5000;0.3207;7.3282;
490.8000;0.3215;7.3259;
491.1000;0.3232;7.3282;
491.4000;0.3248;7.3235;
491.7000;0.3232;7.3047;
492.0000;0.3256;7.3188;
492.3000;0.3256;7.3212;
492.6000;0.3240;7.3212;
492.9000;0.3256;7.3235;
493.2000;0.3232;7.3212;
493.5000;0.3264;7.3259;
493.8000;0.3256;7.3212;
494.1000;0.3232;7.3165;
494.4000;0.3264;7.3259;
494.7000;0.3240;7.3235;
495.0000;0.3264;7.3329;
495.3000;0.3256;7.3235;
495.6000;0.3256;7.3259;
495.9000;0.3223;7.3329;
496.2000;0.3215;7.3165;
496.5000;0.3248;7.3282;
496.8000;0.3297;7.3400;
497.1000;0.3248;7.3212;
497.4000;0.3280;7.3259;
497.7000;0.3354;7.3471;
498.0000;0.3240;7.3165;
498.3000;0.3215;7.3118;
498.6000;0.3240;7.3188;
498.9000;0.3223;7.3235;
499.2000;0.3232;7.3353;
499.5000;0.3215;7.3259;
499.8000;0.3264;7.3376;
500.1000;0.3134;7.3071;
500.4000;0.3346;7.3565;
500.7000;0.3256;7.3306;
501.0000;0.3329;7.3471;
501.3000;0.3240;7.3259;
501.6000;0.3256;7.3306;
501.9000;0.3264;7.3376;
502.2000;0.3166;7.3212;
502.5000;0.3199;7.3306;
502.8000;0.3215;7.3235;
503.1000;0.3232;7.3212;
503.4000;0.3248;7.3306;
503.7000;0.3240;7.3282;
504.0000;0.3232;7.3235;
504.3000;0.3215;7.3235;
504.6000;0.3191;7.3165;
504.9000;0.3264;7.3329;
505.2000;0.3248;7.3259;
505.5000;0.3248;7.3235;
505.8000;0.3256;7.3235;
506.1000;0.3232;7.3165;
506.4000;0.3232;7.3259;
506.7000;0.3248;7.3400;
507.0000;0.3240;7.3447;
507.3000;0.3207;7.3329;
507.6000;0.3215;7.3306;
507.9000;0.3232;7.3376;
508.2000;0.3223;7.3424;
508.5000;0.3264;7.3588;
508.8000;0.3223;7.3471;
509.1000;0.3232;7.3494;
509.4000;0.3272;7.3565;
509.7000;0.3240;7.3376;
510.0000;0.3248;7.3400;
510.3000;0.3232;7.3447;
510.6000;0.3264;7.3494;
510.9000;0.3248;7.3471;
511.2000;0.3280;7.3541;
511.5000;0.3256;7.3471;
511.8000;0.3248;7.3447;
512.1000;0.3223;7.3329;
512.4000;0.3232;7.3306;
512.7000;0.3248;7.3353;
513.0000;0.3240;7.3424;
513.3000;0.3256;7.3518;
513.6000;0.3240;7.3588;
513.9000;0.3232;7.3494;
514.2000;0.3248;7.3518;
514.5000;0.3223;7.3329;
514.8000;0.3240;7.3376;
515.1000;0.3223;7.3424;
515.4000;0.3256;7.3447;
515.7000;0.3240;7.3424;
516.0000;0.3264;7.3612;
516.3000;0.3248;7.3612;
516.6000;0.3354;7.3800;
516.9000;0.3223;7.3518;
517.2000;0.3240;7.3518;
517.5000;0.3191;7.3447;
517.8000;0.3248;7.3588;
518.1000;0.3272;7.3682;
518.4000;0.3256;7.3682;
518.7000;0.3215;7.3682;
519.0000;0.3264;7.3776;
519.3000;0.3264;7.3776;
519.6000;0.3248;7.3800;
519.9000;0.3232;7.3776;
520.2000;0.3199;7.3729;
520.5000;0.3248;7.3682;
520.8000;0.3256;7.3635;
521.1000;0.3248;7.3635;
521.4000;0.3248;7.3612;
521.7000;0.3248;7.3612;
522.0000;0.3272;7.3659;
522.3000;0.3272;7.3565;
522.6000;0.3264;7.3494;
522.9000;0.3240;7.3565;
523.2000;0.3223;7.3329;
523.5000;0.3232;7.3353;
523.8000;0.3248;7.3518;
524.1000;0.3199;7.3329;
524.4000;0.3240;7.3447;
524.7000;0.3248;7.3518;
525.0000;0.3313;7.3729;
525.3000;0.3305;7.3706;
525.6000;0.3240;7.3424;
525.9000;0.3240;7.3329;
526.2000;0.3289;7.3471;
526.5000;0.3256;7.3447;
526.8000;0.3256;7.3400;
527.1000;0.3240;7.3424;
527.4000;0.3199;7.3329;
527.7000;0.3223;7.3400;
528.0000;0.3248;7.3541;
528.3000;0.3256;7.3588;
528.6000;0.3223;7.3471;
528.9000;0.3223;7.3541;
529.2000;0.3232;7.3541;
529.5000;0.3215;7.3471;
529.8000;0.3248;7.3400;
530.1000;0.3248;7.3447;
530.4000;0.3256;7.3588;
530.7000;0.3256;7.3588;
531.0000;0.3240;7.3588;
531.3000;0.3199;7.3471;
531.6000;0.3248;7.3518;
531.9000;0.3256;7.3541;
532.2000;0.3240;7.3424;
532.5000;0.3264;7.3471;
532.8000;0.3223;7.3306;
533.1000;0.3248;7.3400;
533.4000;0.3272;7.3447;
533.7000;0.3248;7.3259;
534.0000;0.3354;7.3471;
534.3000;0.3264;7.3306;
534.6000;0.3248;7.3329;
534.9000;0.3232;7.3400;
535.2000;0.3240;7.3541;
535.5000;0.3223;7.3518;
535.8000;0.3240;7.3612;
536.1000;0.3256;7.3588;
536.4000;0.3289;7.3565;
536.7000;0.3248;7.3518;
537.0000;0.3256;7.3494;
537.3000;0.3321;7.3659;
537.6000;0.3272;7.3588;
537.9000;0.3256;7.3612;
538.2000;0.3232;7.3494;
538.5000;0.3223;7.3518;
538.8000;0.3223;7.3471;
539.1000;0.3199;7.3353;
539.4000;0.3256;7.3424;
539.7000;0.3240;7.3329;
540.0000;0.3142;7.3071;
540.3000;0.3248;7.3329;
540.6000;0.3240;7.3353;
540.9000;0.3256;7.3353;
541.2000;0.3256;7.3329;
541.5000;0.3240;7.3282;
541.8000;0.3240;7.3282;
542.1000;0.3256;7.3424;
542.4000;0.3223;7.3447;
542.7000;0.3256;7.3565;
543.0000;0.3232;7.3494;
543.3000;0.3297;7.3659;
543.6000;0.3248;7.3471;
543.9000;0.3232;7.3376;
544.2000;0.3240;7.3400;
544.5000;0.3264;7.3518;
544.8000;0.3232;7.3306;
545.1000;0.3248;7.3165;
545.4000;0.3142;7.2812;
545.7000;0.3240;7.3071;
546.0000;0.3264;7.3235;
546.3000;0.3248;7.3212;
546.6000;0.3232;7.3165;
546.9000;0.3248;7.3235;
547.2000;0.3256;7.3353;
547.5000;0.3248;7.3329;
547.8000;0.3272;7.3329;
548.1000;0.3207;7.3141;
548.4000;0.3223;7.3141;
548.7000;0.3240;7.3235;
549.0000;0.3248;7.3329;
549.3000;0.3207;7.3353;
549.6000;0.3240;7.3565;
549.9000;0.3232;7.3588;
550.2000;0.3248;7.3541;
550.5000;0.3248;7.3518;
550.8000;0.3248;7.3424;
551.1000;0.3280;7.3471;
551.4000;0.3256;7.3424;
551.7000;0.3256;7.3471;
552.0000;0.3223;7.3447;
552.3000;0.3256;7.3612;
552.6000;0.3248;7.3588;
552.9000;0.3232;7.3471;
553.2000;0.3215;7.3447;
553.5000;0.3215;7.3353;
553.8000;0.3240;7.3282;
554.1000;0.3199;7.3329;
554.4000;0.3223;7.3400;
554.7000;0.3223;7.3424;
555.0000;0.3191;7.3353;
555.3000;0.3158;7.3071;
555.6000;0.3240;7.3165;
555.9000;0.3232;7.3188;
556.2000;0.3256;7.3306;
556.5000;0.3256;7.3212;
556.8000;0.3240;7.3212;
557.1000;0.3223;7.3212;
557.4000;0.3289;7.3353;
557.7000;0.3248;7.3282;
558.0000;0.3256;7.3212;
558.3000;0.3134;7.3024;
558.6000;0.3256;7.3400;
558.9000;0.3207;7.3353;
559.2000;0.3240;7.3306;
559.5000;0.3232;7.3212;
559.8000;0.3240;7.3353;
560.1000;0.3134;7.3141;
560.4000;0.3280;7.3565;
560.7000;0.3232;7.3447;
561.0000;0.3191;7.3353;
561.3000;0.3256;7.3400;
561.6000;0.3207;7.3235;
561.9000;0.3232;7.3259;
562.2000;0.3232;7.3353;
562.5000;0.3248;7.3376;
562.8000;0.3232;7.3306;
563.1000;0.3199;7.3282;
563.4000;0.3223;7.3329;
563.7000;0.3223;7.3353;
564.0000;0.3199;7.3282;
564.3000;0.3223;7.3235;
564.6000;0.3223;7.3329;
564.9000;0.3207;7.3353;
565.2000;0.3272;7.3376;
565.5000;0.3232;7.3212;
565.8000;0.3240;7.3212;
566.1000;0.3215;7.3094;
566.4000;0.3248;7.3165;
566.7000;0.3248;7.3094;
567.0000;0.3248;7.2977;
567.3000;0.3256;7.2906;
567.6000;0.3248;7.3000;
567.9000;0.3248;7.3024;
568.2000;0.3248;7.3000;
568.5000;0.3232;7.3047;
568.8000;0.3240;7.3188;
569.1000;0.3256;7.3118;
569.4000;0.3207;7.2953;
569.7000;0.3240;7.3024;
570.0000;0.3240;7.3047;
570.3000;0.3232;7.3047;
570.6000;0.3232;7.3094;
570.9000;0.3232;7.3071;
571.2000;0.3256;7.3141;
571.5000;0.3264;7.3118;
571.8000;0.3248;7.3118;
572.1000;0.3248;7.3141;
572.4000;0.3232;7.3188;
572.7000;0.3264;7.3212;
573.0000;0.3256;7.3235;
573.3000;0.3248;7.3212;
573.6000;0.3232;7.3188;
573.9000;0.3232;7.3188;
574.2000;0.3272;7.3282;
574.5000;0.3240;7.3235;
574.8000;0.3232;7.3282;
575.1000;0.3215;7.3235;
575.4000;0.3183;7.3118;
575.7000;0.3248;7.3235;
576.0000;0.3280;7.3400;
576.3000;0.3248;7.3282;
576.6000;0.3248;7.3259;
576.9000;0.3248;7.3329;
577.2000;0.3248;7.3329;
577.5000;0.3191;7.3141;
577.8000;0.3256;7.3259;
578.1000;0.3223;7.3165;
578.4000;0.3199;7.3141;
578.7000;0.3232;7.3188;
579.0000;0.3232;7.3165;
579.3000;0.3272;7.3306;
579.6000;0.3223;7.3235;
579.9000;0.3232;7.3353;
580.2000;0.3215;7.3282;
580.5000;0.3240;7.3329;
580.8000;0.3232;7.3282;
581.1000;0.3240;7.3259;
581.4000;0.3256;7.3259;
581.7000;0.3248;7.3212;
582.0000;0.3248;7.3118;
582.3000;0.3232;7.3071;
582.6000;0.3256;7.3165;
582.9000;0.3240;7.3165;
583.2000;0.3240;7.3188;
583.5000;0.3232;7.3188;
583.8000;0.3240;7.3165;
584.1000;0.3248;7.3188;
584.4000;0.3240;7.3306;
584.7000;0.3223;7.3282;
585.0000;0.3256;7.3329;
585.3000;0.3158;7.3141;
585.6000;0.3240;7.3447;
585.9000;0.3240;7.3494;
586.2000;0.3240;7.3447;
586.5000;0.3240;7.3447;
586.8000;0.3223;7.3471;
587.1000;0.3248;7.3424;
587.4000;0.3199;7.3306;
587.7000;0.3240;7.3447;
588.0000;0.3248;7.3518;
588.3000;0.3199;7.3471;
588.6000;0.3240;7.3541;
588.9000;0.3223;7.3518;
589.2000;0.3248;7.3659;
589.5000;0.3240;7.3706;
589.8000;0.3215;7.3635;
590.1000;0.3248;7.3706;
590.4000;0.3232;7.3635;
590.7000;0.3248;7.3635;
591.0000;0.3232;7.3541;
591.3000;0.3232;7.3541;
591.6000;0.3248;7.3565;
591.9000;0.3248;7.3565;
592.2000;0.3272;7.3588;
592.5000;0.3248;7.3471;
592.8000;0.3248;7.3471;
593.1000;0.3240;7.3518;
593.4000;0.3232;7.3494;
593.7000;0.3256;7.3518;
594.0000;0.3223;7.3471;
594.3000;0.3248;7.3471;
594.6000;0.3297;7.3612;
594.9000;0.3256;7.3588;
595.2000;0.3264;7.3541;
595.5000;0.3240;7.3424;
595.8000;0.3264;7.3424;
596.1000;0.3248;7.3376;
596.4000;0.3264;7.3400;
596.7000;0.3248;7.3282;
597.0000;0.3264;7.3353;
597.3000;0.3215;7.3259;
597.6000;0.3232;7.3259;
597.9000;0.3256;7.3282;
598.2000;0.3240;7.3329;
598.5000;0.3223;7.3471;
598.8000;0.3240;7.3518;
599.1000;0.3223;7.3471;
599.4000;0.3305;7.3682;
599.7000;0.3207;7.3424;
600.0000;0.3215;7.3518;
600.3000;0.3215;7.3306;
600.6000;0.3191;7.3094;
600.9000;0.3191;7.3071;
601.2000;0.3093;7.2789;
601.5000;0.3085;7.2765;
601.8000;0.3134;7.2812;
602.1000;0.3109;7.2765;
602.4000;0.3085;7.2600;
602.7000;0.3101;7.2577;
603.0000;0.3028;7.2436;
603.3000;0.3004;7.2389;
603.6000;0.2963;7.2248;
603.9000;0.2963;7.2177;
604.2000;0.2955;7.2059;
604.5000;0.2922;7.1965;
604.8000;0.2890;7.1965;
605.1000;0.2873;7.1871;
605.4000;0.2865;7.1895;
605.7000;0.2865;7.1895;
606.0000;0.2833;7.1754;
606.3000;0.2816;7.1777;
606.6000;0.2808;7.1848;
606.9000;0.2800;7.1730;
607.2000;0.2841;7.1660;
607.5000;0.2776;7.1307;
607.8000;0.2768;7.1283;
608.1000;0.2751;7.1095;
608.4000;0.2727;7.1048;
608.7000;0.2735;7.1048;
609.0000;0.2654;7.1001;
609.3000;0.2702;7.1189;
609.6000;0.2727;7.1307;
609.9000;0.2621;7.1025;
610.2000;0.2654;7.1142;
610.5000;0.2654;7.1189;
610.8000;0.2629;7.1166;
611.1000;0.2654;7.1354;
611.4000;0.2646;7.1236;
611.7000;0.2637;7.1213;
612.0000;0.2621;7.1307;
612.3000;0.2613;7.1330;
612.6000;0.2597;7.1213;
612.9000;0.2629;7.1166;
613.2000;0.2597;7.0931;
613.5000;0.2605;7.0860;
613.8000;0.2589;7.0907;
614.1000;0.2564;7.0931;
614.4000;0.2589;7.0954;
614.7000;0.2515;7.0813;
615.0000;0.2548;7.0907;
615.3000;0.2597;7.1095;
615.6000;0.2540;7.0907;
615.9000;0.2572;7.1001;
616.2000;0.2532;7.1025;
616.5000;0.2523;7.1025;
616.8000;0.2515;7.0954;
617.1000;0.2523;7.0978;
617.4000;0.2442;7.0766;
617.7000;0.2491;7.0978;
618.0000;0.2499;7.1025;
618.3000;0.2515;7.1001;
618.6000;0.2507;7.0978;
618.9000;0.2475;7.0978;
619.2000;0.2475;7.0931;
619.5000;0.2475;7.0837;
619.8000;0.2483;7.0837;
620.1000;0.2458;7.0884;
620.4000;0.2475;7.1025;
620.7000;0.2434;7.0907;
621.0000;0.2442;7.0978;
621.3000;0.2450;7.0907;
621.6000;0.2426;7.0884;
621.9000;0.2409;7.0907;
622.2000;0.2458;7.0954;
622.5000;0.2434;7.0931;
622.8000;0.2418;7.0907;
623.1000;0.2418;7.0860;
623.4000;0.2409;7.0837;
623.7000;0.2491;7.1025;
624.0000;0.2352;7.0672;
624.3000;0.2385;7.0742;
624.6000;0.2361;7.0695;
624.9000;0.2393;7.0813;
625.2000;0.2401;7.0860;
625.5000;0.2377;7.0907;
625.8000;0.2409;7.0978;
626.1000;0.2377;7.0884;
626.4000;0.2369;7.0813;
626.7000;0.2369;7.0766;
627.0000;0.2344;7.0672;
627.3000;0.2352;7.0648;
627.6000;0.2369;7.0742;
627.9000;0.2352;7.0695;
628.2000;0.2361;7.0672;
628.5000;0.2385;7.0742;
628.8000;0.2369;7.0625;
629.1000;0.2352;7.0554;
629.4000;0.2344;7.0531;
629.7000;0.2336;7.0554;
630.0000;0.2312;7.0484;
630.3000;0.2336;7.0554;
630.6000;0.2328;7.0554;
630.9000;0.2271;7.0343;
631.2000;0.2344;7.0578;
631.5000;0.2287;7.0531;
631.8000;0.2328;7.0531;
632.1000;0.2320;7.0601;
632.4000;0.2255;7.0507;
632.7000;0.2295;7.0648;
633.0000;0.2239;7.0460;
633.3000;0.2312;7.0507;
633.6000;0.2304;7.0413;
633.9000;0.2255;7.0343;
634.2000;0.2263;7.0296;
634.5000;0.2295;7.0437;
634.8000;0.2320;7.0484;
635.1000;0.2312;7.0507;
635.4000;0.2279;7.0437;
635.7000;0.2287;7.0531;
636.0000;0.2279;7.0507;
636.3000;0.2287;7.0554;
636.6000;0.2287;7.0625;
636.9000;0.2263;7.0672;
637.2000;0.2287;7.0766;
637.5000;0.2295;7.0742;
637.8000;0.2279;7.0719;
638.1000;0.2295;7.0742;
638.4000;0.2287;7.0625;
638.7000;0.2255;7.0578;
639.0000;0.2279;7.0601;
639.3000;0.2222;7.0413;
639.6000;0.2263;7.0413;
639.9000;0.2255;7.0437;
640.2000;0.2271;7.0460;
640.5000;0.2271;7.0484;
640.8000;0.2255;7.0413;
641.1000;0.2295;7.0484;
641.4000;0.2295;7.0625;
641.7000;0.2247;7.0460;
642.0000;0.2239;7.0460;
642.3000;0.2239;7.0437;
642.6000;0.2239;7.0413;
642.9000;0.2214;7.0484;
643.2000;0.2247;7.0507;
643.5000;0.2230;7.0437;
643.8000;0.2239;7.0460;
644.1000;0.2214;7.0460;
644.4000;0.2230;7.0390;
644.7000;0.2149;7.0107;
645.0000;0.2214;7.0272;
645.3000;0.2214;7.0319;
645.6000;0.2263;7.0484;
645.9000;0.2190;7.0343;
646.2000;0.2230;7.0484;
646.5000;0.2206;7.0366;
646.8000;0.2222;7.0343;
647.1000;0.2182;7.0249;
647.4000;0.2247;7.0484;
647.7000;0.2206;7.0413;
648.0000;0.2214;7.0460;
648.3000;0.2190;7.0296;
648.6000;0.2230;7.0343;
648.9000;0.2198;7.0319;
649.2000;0.2206;7.0390;
649.5000;0.2279;7.0695;
649.8000;0.2198;7.0507;
650.1000;0.2173;7.0507;
650.4000;0.2206;7.0601;
650.7000;0.2182;7.0507;
651.0000;0.2190;7.0531;
651.3000;0.2173;7.0554;
651.6000;0.2214;7.0672;
651.9000;0.2165;7.0507;
652.2000;0.2157;7.0460;
652.5000;0.2149;7.0319;
652.8000;0.2214;7.0366;
653.1000;0.2190;7.0343;
653.4000;0.2100;7.0154;
653.7000;0.2165;7.0296;
654.0000;0.2182;7.0437;
654.3000;0.2182;7.0460;
654.6000;0.2182;7.0413;
654.9000;0.2214;7.0507;
655.2000;0.2173;7.0460;
655.5000;0.2165;7.0531;
655.8000;0.2157;7.0484;
656.1000;0.2108;7.0390;
656.4000;0.2255;7.0860;
656.7000;0.2173;7.0695;
657.0000;0.2133;7.0601;
657.3000;0.2149;7.0601;
657.6000;0.2173;7.0648;
657.9000;0.2173;7.0672;
658.2000;0.2165;7.0601;
658.5000;0.2157;7.0460;
658.8000;0.2173;7.0554;
659.1000;0.2149;7.0625;
659.4000;0.2149;7.0484;
659.7000;0.2157;7.0460;
660.0000;0.2157;7.0460;
660.3000;0.2173;7.0531;
660.6000;0.2157;7.0531;
660.9000;0.2141;7.0507;
661.2000;0.2133;7.0460;
661.5000;0.2173;7.0531;
661.8000;0.2173;7.0554;
662.1000;0.2149;7.0460;
662.4000;0.2149;7.0413;
662.7000;0.2149;7.0437;
663.0000;0.2141;7.0531;
663.3000;0.2125;7.0507;
663.6000;0.2125;7.0507;
663.9000;0.2133;7.0554;
664.2000;0.2149;7.0531;
664.5000;0.2125;7.0437;
664.8000;0.2133;7.0413;
665.1000;0.2133;7.0413;
665.4000;0.2125;7.0484;
665.7000;0.2133;7.0484;
666.0000;0.2133;7.0484;
666.3000;0.2027;7.0202;
666.6000;0.2116;7.0484;
666.9000;0.2125;7.0484;
667.2000;0.2125;7.0531;
667.5000;0.2133;7.0601;
667.8000;0.2116;7.0554;
668.1000;0.2108;7.0531;
668.4000;0.2084;7.0507;
668.7000;0.2084;7.0460;
669.0000;0.2133;7.0531;
669.3000;0.2133;7.0554;
669.6000;0.2116;7.0554;
669.9000;0.2230;7.0789;
670.2000;0.2125;7.0507;
670.5000;0.2133;7.0554;
670.8000;0.2125;7.0554;
671.1000;0.2116;7.0484;
671.4000;0.2084;7.0390;
671.7000;0.2092;7.0437;
672.0000;0.2100;7.0507;
672.3000;0.2108;7.0554;
672.6000;0.2108;7.0437;
672.9000;0.2141;7.0484;
673.2000;0.2116;7.0319;
673.5000;0.2100;7.0272;
673.8000;0.2108;7.0296;
674.1000;0.2108;7.0319;
674.4000;0.2108;7.0319;
674.7000;0.2108;7.0366;
675.0000;0.2100;7.0366;
675.3000;0.2076;7.0343;
675.6000;0.2100;7.0460;
675.9000;0.2084;7.0366;
676.2000;0.2173;7.0648;
676.5000;0.2100;7.0484;
676.8000;0.2092;7.0484;
677.1000;0.2116;7.0507;
677.4000;0.2149;7.0507;
677.7000;0.2092;7.0366;
678.0000;0.2100;7.0319;
678.3000;0.2125;7.0343;
678.6000;0.2059;7.0178;
678.9000;0.2059;7.0154;
679.2000;0.2100;7.0178;
679.5000;0.2043;7.0060;
679.8000;0.2116;7.0178;
680.1000;0.2092;7.0225;
680.4000;0.2092;7.0319;
680.7000;0.2084;7.0343;
681.0000;0.2084;7.0343;
681.3000;0.2059;7.0202;
681.6000;0.2084;7.0272;
681.9000;0.2076;7.0296;
682.2000;0.2100;7.0437;
682.5000;0.2084;7.0413;
682.8000;0.2084;7.0484;
683.1000;0.2084;7.0554;
683.4000;0.2092;7.0460;
683.7000;0.2108;7.0507;
684.0000;0.2084;7.0507;
684.3000;0.2068;7.0507;
684.6000;0.2068;7.0460;
684.9000;0.2092;7.0578;
685.2000;0.2092;7.0554;
685.5000;0.2076;7.0554;
685.8000;0.2084;7.0554;
686.1000;0.2076;7.0484;
686.4000;0.2076;7.0460;
686.7000;0.2076;7.0484;
687.0000;0.2084;7.0460;
687.3000;0.2084;7.0413;
687.6000;0.2076;7.0390;
687.9000;0.2084;7.0460;
688.2000;0.2084;7.0460;
688.5000;0.2068;7.0390;
688.8000;0.2059;7.0390;
689.1000;0.2059;7.0366;
689.4000;0.2043;7.0413;
689.7000;0.2084;7.0554;
690.0000;0.2076;7.0507;
690.3000;0.2068;7.0390;
690.6000;0.2068;7.0413;
690.9000;0.2068;7.0484;
691.2000;0.2068;7.0507;
691.5000;0.2051;7.0507;
691.8000;0.2035;7.0437;
692.1000;0.2051;7.0554;
692.4000;0.2059;7.0578;
692.7000;0.2059;7.0507;
693.0000;0.2100;7.0625;
693.3000;0.2084;7.0507;
693.6000;0.2059;7.0390;
693.9000;0.2051;7.0413;
694.2000;0.2019;7.0343;
694.5000;0.2027;7.0366;
694.8000;0.2068;7.0578;
695.1000;0.2084;7.0648;
695.4000;0.2043;7.0484;
695.7000;0.2043;7.0578;
696.0000;0.2019;7.0601;
696.3000;0.2059;7.0648;
696.6000;0.2059;7.0719;
696.9000;0.2059;7.0695;
697.2000;0.2084;7.0719;
697.5000;0.2068;7.0601;
697.8000;0.1994;7.0437;
698.1000;0.2059;7.0554;
698.4000;0.2076;7.0648;
698.7000;0.2059;7.0648;
699.0000;0.2051;7.0601;
699.3000;0.1994;7.0531;
699.6000;0.2043;7.0672;
699.9000;0.2051;7.0648;
700.2000;0.2043;7.0648;
700.5000;0.2027;7.0672;
700.8000;0.2043;7.0672;
701.1000;0.1994;7.0460;
701.4000;0.2043;7.0578;
701.7000;0.2027;7.0601;
702.0000;0.2035;7.0648;
702.3000;0.2043;7.0672;
702.6000;0.2051;7.0601;
702.9000;0.2051;7.0625;
703.2000;0.2002;7.0578;
703.5000;0.2059;7.0672;
703.8000;0.2051;7.0648;
704.1000;0.2059;7.0695;
704.4000;0.2035;7.0766;
704.7000;0.2043;7.0813;
705.0000;0.2027;7.0837;
705.3000;0.2035;7.0954;
705.6000;0.2019;7.0954;
705.9000;0.2027;7.0978;
706.2000;0.2027;7.1001;
706.5000;0.2035;7.0860;
706.8000;0.2027;7.0860;
707.1000;0.2051;7.0978;
707.4000;0.2051;7.0931;
707.7000;0.2035;7.0860;
708.0000;0.2035;7.0860;
708.3000;0.2043;7.0884;
708.6000;0.2027;7.0907;
708.9000;0.2076;7.0931;
709.2000;0.1954;7.0648;
709.5000;0.2043;7.0837;
709.8000;0.2035;7.0907;
710.1000;0.2035;7.0954;
710.4000;0.2027;7.0907;
710.7000;0.2035;7.0860;
711.0000;0.2011;7.0742;
711.3000;0.2043;7.0789;
711.6000;0.2035;7.0813;
711.9000;0.2027;7.0719;
712.2000;0.2059;7.0813;
712.5000;0.2035;7.0789;
712.8000;0.2068;7.0907;
713.1000;0.2027;7.0884;
713.4000;0.2027;7.0837;
713.7000;0.2043;7.0907;
714.0000;0.2043;7.0954;
714.3000;0.2027;7.0978;
714.6000;0.2027;7.0954;
714.9000;0.2051;7.1001;
715.2000;0.2043;7.0907;
715.5000;0.2051;7.0978;
715.8000;0.2043;7.0931;
716.1000;0.1937;7.0672;
716.4000;0.2035;7.0860;
716.7000;0.2011;7.0766;
717.0000;0.2011;7.0766;
717.3000;0.1978;7.0766;
717.6000;0.2043;7.0954;
717.9000;0.2027;7.1001;
718.2000;0.2051;7.1001;
718.5000;0.2011;7.0860;
718.8000;0.2011;7.0907;
719.1000;0.2027;7.0907;
719.4000;0.2002;7.0931;
719.7000;0.1986;7.0860;
720.0000;0.2043;7.0978;
720.3000;0.2002;7.0907;
720.6000;0.2027;7.0978;
720.9000;0.1994;7.0860;
721.2000;0.2027;7.0884;
721.5000;0.2002;7.0884;
721.8000;0.2019;7.0931;
722.1000;0.2011;7.0907;
722.4000;0.2035;7.1001;
722.7000;0.2027;7.0978;
723.0000;0.2076;7.1072;
723.3000;0.2002;7.0837;
723.6000;0.1954;7.0742;
723.9000;0.1986;7.0907;
724.2000;0.2002;7.0884;
724.5000;0.1945;7.0742;
724.8000;0.2002;7.0789;
725.1000;0.1921;7.0672;
725.4000;0.1986;7.0931;
725.7000;0.1978;7.0884;
726.0000;0.2043;7.1095;
726.3000;0.2002;7.0978;
726.6000;0.2027;7.0978;
726.9000;0.2051;7.1072;
727.2000;0.1986;7.0837;
727.5000;0.2027;7.0907;
727.8000;0.2035;7.0907;
728.1000;0.2011;7.0742;
728.4000;0.2019;7.0695;
728.7000;0.2125;7.1025;
729.0000;0.2011;7.0766;
729.3000;0.1986;7.0813;
729.6000;0.2002;7.0837;
729.9000;0.1913;7.0601;
730.2000;0.2011;7.0789;
730.5000;0.2011;7.0813;
730.8000;0.2011;7.0789;
731.1000;0.1994;7.0789;
731.4000;0.1994;7.0789;
731.7000;0.2027;7.0907;
732.0000;0.2011;7.0837;
732.3000;0.1986;7.0813;
732.6000;0.2019;7.0884;
732.9000;0.2051;7.0907;
733.2000;0.2084;7.1095;
733.5000;0.2027;7.0978;
733.8000;0.2019;7.1001;
734.1000;0.2019;7.1025;
734.4000;0.2027;7.0907;
734.7000;0.1978;7.0766;
735.0000;0.2011;7.0837;
735.3000;0.2027;7.0884;
735.6000;0.2011;7.0860;
735.9000;0.1970;7.0766;
736.2000;0.2002;7.0766;
736.5000;0.1986;7.0719;
736.8000;0.2043;7.0813;
737.1000;0.2019;7.0837;
737.4000;0.2011;7.0884;
737.7000;0.2011;7.0954;
738.0000;0.1994;7.0954;
738.3000;0.1994;7.0978;
738.6000;0.1978;7.0954;
738.9000;0.2011;7.0978;
739.2000;0.1986;7.0954;
739.5000;0.2011;7.1001;
739.8000;0.2002;7.0884;
740.1000;0.1970;7.0789;
740.4000;0.1994;7.0907;
740.7000;0.1978;7.0907;
741.0000;0.1994;7.0931;
741.3000;0.1962;7.0837;
741.6000;0.2002;7.0907;
741.9000;0.1970;7.0742;
742.2000;0.2011;7.0766;
742.5000;0.2002;7.0789;
742.8000;0.2011;7.0766;
743.1000;0.1978;7.0766;
743.4000;0.1994;7.0931;
743.7000;0.1994;7.1001;
744.0000;0.2002;7.1001;
744.3000;0.1986;7.1001;
744.6000;0.2019;7.1025;
744.9000;0.1970;7.0907;
745.2000;0.1978;7.0837;
745.5000;0.2019;7.1095;
745.8000;0.1986;7.0978;
746.1000;0.1994;7.0978;
746.4000;0.1978;7.0954;
746.7000;0.1994;7.1001;
747.0000;0.1994;7.0978;
747.3000;0.2027;7.1095;
747.6000;0.2019;7.1072;
747.9000;0.1921;7.0860;
748.2000;0.2002;7.1025;
748.5000;0.1921;7.0860;
748.8000;0.1994;7.1048;
749.1000;0.1954;7.0931;
749.4000;0.2027;7.1189;
749.7000;0.2002;7.1095;
750.0000;0.1986;7.1025;
750.3000;0.1994;7.1025;
750.6000;0.1994;7.1048;
750.9000;0.2011;7.1095;
751.2000;0.2011;7.1001;
751.5000;0.1994;7.0931;
751.8000;0.1994;7.0884;
752.1000;0.2002;7.0931;
752.4000;0.1970;7.0884;
752.7000;0.1937;7.0837;
753.0000;0.2011;7.1048;
753.3000;0.2002;7.1025;
753.6000;0.1994;7.1048;
753.9000;0.1994;7.1048;
754.2000;0.1986;7.0978;
754.5000;0.2002;7.0978;
754.8000;0.1986;7.0954;
755.1000;0.1970;7.0860;
755.4000;0.1962;7.0719;
755.7000;0.2002;7.0766;
756.0000;0.1986;7.0742;
756.3000;0.1962;7.0672;
756.6000;0.1978;7.0813;
756.9000;0.2019;7.0954;
757.2000;0.2002;7.0978;
757.5000;0.2002;7.0931;
757.8000;0.1970;7.0884;
758.1000;0.2011;7.1048;
758.4000;0.2011;7.1072;
758.7000;0.1994;7.1095;
759.0000;0.1962;7.1048;
759.3000;0.1978;7.1001;
759.6000;0.1986;7.1025;
759.9000;0.1970;7.1048;
760.2000;0.1945;7.0978;
760.5000;0.1986;7.1025;
760.8000;0.1978;7.1001;
761.1000;0.1986;7.1072;
761.4000;0.1962;7.1072;
761.7000;0.1970;7.1095;
762.0000;0.2002;7.1095;
762.3000;0.1970;7.0954;
762.6000;0.1970;7.0954;
762.9000;0.1970;7.0978;
763.2000;0.1954;7.0931;
763.5000;0.2002;7.1072;
763.8000;0.1986;7.1048;
764.1000;0.1986;7.1119;
764.4000;0.1978;7.1072;
764.7000;0.1954;7.1025;
765.0000;0.1954;7.0931;
765.3000;0.2043;7.1189;
765.6000;0.1970;7.1142;
765.9000;0.2002;7.1283;
766.2000;0.2027;7.1377;
766.5000;0.1970;7.1236;
766.8000;0.1954;7.1001;
767.1000;0.1978;7.1048;
767.4000;0.2002;7.1025;
767.7000;0.1962;7.1001;
768.0000;0.2027;7.1095;
768.3000;0.1978;7.0884;
768.6000;0.1962;7.0813;
768.9000;0.1880;7.0625;
769.2000;0.1945;7.0766;
769.5000;0.1954;7.0860;
769.8000;0.2043;7.1236;
770.1000;0.1962;7.1048;
770.4000;0.1945;7.0931;
770.7000;0.1962;7.1001;
771.0000;0.2076;7.1307;
771.3000;0.1962;7.1072;
771.6000;0.1978;7.1119;
771.9000;0.1962;7.1095;
772.2000;0.1970;7.1072;
772.5000;0.1970;7.1213;
772.8000;0.1962;7.1189;
773.1000;0.1929;7.1142;
773.4000;0.1986;7.1166;
773.7000;0.1986;7.1213;
774.0000;0.1970;7.1119;
774.3000;0.1986;7.1119;
774.6000;0.1962;7.1048;
774.9000;0.1954;7.0978;
775.2000;0.1962;7.0978;
775.5000;0.1962;7.0884;
775.8000;0.1978;7.0907;
776.1000;0.1970;7.0954;
776.4000;0.1962;7.0978;
776.7000;0.1970;7.1142;
777.0000;0.1978;7.1166;
777.3000;0.1978;7.1142;
777.6000;0.1962;7.1095;
777.9000;0.1970;7.1048;
778.2000;0.1954;7.0978;
778.5000;0.1962;7.0931;
778.8000;0.1994;7.1025;
779.1000;0.1986;7.1166;
779.4000;0.1945;7.1142;
779.7000;0.1954;7.1213;
780.0000;0.1986;7.1213;
780.3000;0.2011;7.1330;
780.6000;0.1962;7.1119;
780.9000;0.1978;7.1072;
781.2000;0.1986;7.1213;
781.5000;0.1978;7.1236;
781.8000;0.1994;7.1189;
782.1000;0.1978;7.1213;
782.4000;0.2011;7.1354;
782.7000;0.1962;7.1213;
783.0000;0.1954;7.1095;
783.3000;0.1994;7.1236;
783.6000;0.1994;7.1142;
783.9000;0.1978;7.1166;
784.2000;0.1962;7.1095;
784.5000;0.1945;7.1025;
784.8000;0.1962;7.1095;
785.1000;0.1962;7.1095;
785.4000;0.2011;7.1142;
785.7000;0.1937;7.1025;
786.0000;0.1994;7.1142;
786.3000;0.1962;7.1119;
786.6000;0.1954;7.1048;
786.9000;0.1970;7.1048;
787.2000;0.1872;7.0742;
787.5000;0.1897;7.0837;
787.8000;0.2002;7.1213;
788.1000;0.1929;7.1095;
788.4000;0.1913;7.1142;
788.7000;0.1954;7.1307;
789.0000;0.1937;7.1283;
789.3000;0.1962;7.1354;
789.6000;0.1954;7.1283;
789.9000;0.1945;7.1166;
790.2000;0.1986;7.1189;
790.5000;0.2002;7.1189;
790.8000;0.1921;7.1048;
791.1000;0.1945;7.1095;
791.4000;0.1978;7.1119;
791.7000;0.1970;7.1119;
792.0000;0.1954;7.1095;
792.3000;0.1970;7.1142;
792.6000;0.1970;7.1236;
792.9000;0.1962;7.1283;
793.2000;0.1954;7.1307;
793.5000;0.1945;7.1236;
793.8000;0.1954;7.1213;
794.1000;0.1970;7.1142;
794.4000;0.1954;7.1072;
794.7000;0.1954;7.1001;
795.0000;0.1962;7.1001;
795.3000;0.1945;7.0907;
795.6000;0.1962;7.1048;
795.9000;0.1945;7.1025;
796.2000;0.1954;7.1072;
796.5000;0.1962;7.1072;
796.8000;0.1962;7.1001;
797.1000;0.1945;7.1025;
797.4000;0.1962;7.1095;
797.7000;0.1962;7.1048;
798.0000;0.1970;7.1001;
798.3000;0.1962;7.0978;
798.6000;0.1962;7.0907;
798.9000;0.1962;7.1001;
799.2000;0.1978;7.1025;
799.5000;0.1978;7.1048;
799.8000;0.1954;7.0978;
800.1000;0.1970;7.0931;
800.4000;0.1970;7.0907;
800.7000;0.1970;7.0931;
801.0000;0.1937;7.0837;
801.3000;0.1970;7.1025;
801.6000;0.1954;7.1166;
801.9000;0.1945;7.1119;
802.2000;0.1978;7.1260;
802.5000;0.1962;7.1189;
802.8000;0.1962;7.1213;
803.1000;0.1954;7.1142;
803.4000;0.1921;7.1025;
803.7000;0.1954;7.1142;
804.0000;0.1962;7.1072;
804.3000;0.1945;7.0978;
804.6000;0.1954;7.1048;
804.9000;0.1929;7.1072;
805.2000;0.1929;7.1072;
805.5000;0.1954;7.1048;
805.8000;0.1937;7.0954;
806.1000;0.1945;7.0978;
806.4000;0.1945;7.0931;
806.7000;0.1970;7.0978;
807.0000;0.1962;7.0978;
807.3000;0.1954;7.0954;
807.6000;0.1962;7.1025;
807.9000;0.1978;7.1189;
808.2000;0.1937;7.1142;
808.5000;0.1994;7.1354;
808.8000;0.1945;7.1166;
809.1000;0.1986;7.1354;
809.4000;0.1970;7.1307;
809.7000;0.1962;7.1283;
810.0000;0.1954;7.1354;
810.3000;0.1970;7.1354;
810.6000;0.1962;7.1377;
810.9000;0.1962;7.1354;
811.2000;0.1962;7.1354;
811.5000;0.2076;7.1542;
811.8000;0.1954;7.1236;
812.1000;0.2002;7.1354;
812.4000;0.1954;7.1213;
812.7000;0.1937;7.1260;
813.0000;0.2027;7.1519;
813.3000;0.1929;7.1236;
813.6000;0.1954;7.1260;
813.9000;0.1954;7.1213;
814.2000;0.1970;7.1213;
814.5000;0.1970;7.1048;
814.8000;0.1962;7.1072;
815.1000;0.1929;7.0978;
815.4000;0.1945;7.0978;
815.7000;0.1970;7.1048;
816.0000;0.1962;7.1048;
816.3000;0.1897;7.0789;
816.6000;0.1954;7.0931;
816.9000;0.1945;7.0978;
817.2000;0.1970;7.1142;
817.5000;0.1945;7.1119;
817.8000;0.1978;7.1236;
818.1000;0.1929;7.1166;
818.4000;0.1913;7.1236;
818.7000;0.1945;7.1283;
819.0000;0.1962;7.1330;
819.3000;0.1954;7.1330;
819.6000;0.1954;7.1307;
819.9000;0.1962;7.1236;
820.2000;0.1954;7.1213;
820.5000;0.1962;7.1260;
820.8000;0.1937;7.1213;
821.1000;0.1937;7.1260;
821.4000;0.1954;7.1260;
821.7000;0.1954;7.1307;
822.0000;0.2011;7.1330;
822.3000;0.1954;7.1119;
822.6000;0.1945;7.1025;
822.9000;0.1937;7.0978;
823.2000;0.1970;7.1025;
823.5000;0.1962;7.1119;
823.8000;0.1937;7.1189;
824.1000;0.1945;7.1213;
824.4000;0.1945;7.1236;
824.7000;0.1937;7.1236;
825.0000;0.1937;7.1236;
825.3000;0.1994;7.1330;
825.6000;0.1937;7.1236;
825.9000;0.1937;7.1354;
826.2000;0.1937;7.1307;
826.5000;0.1945;7.1354;
826.8000;0.1929;7.1283;
827.1000;0.1937;7.1236;
827.4000;0.1913;7.1142;
827.7000;0.1945;7.1236;
828.0000;0.1945;7.1072;
828.3000;0.1994;7.1213;
828.6000;0.1945;7.1072;
828.9000;0.1905;7.0978;
829.2000;0.1921;7.0978;
829.5000;0.1962;7.1119;
829.8000;0.1937;7.1048;
830.1000;0.1954;7.1095;
830.4000;0.1945;7.1025;
830.7000;0.1954;7.1048;
831.0000;0.1888;7.0931;
831.3000;0.1921;7.0954;
831.6000;0.1929;7.1048;
831.9000;0.1945;7.1048;
832.2000;0.1986;7.1213;
832.5000;0.1954;7.1142;
832.8000;0.1954;7.1142;
833.1000;0.1962;7.1072;
833.4000;0.1962;7.0978;
833.7000;0.1954;7.0884;
834.0000;0.1929;7.0884;
834.3000;0.1937;7.0978;
834.6000;0.1897;7.0884;
834.9000;0.1954;7.0954;
835.2000;0.1921;7.0954;
835.5000;0.1945;7.1119;
835.8000;0.1954;7.1260;
836.1000;0.1954;7.1213;
836.4000;0.1929;7.1072;
836.7000;0.1937;7.1142;
837.0000;0.1962;7.1307;
837.3000;0.1954;7.1260;
837.6000;0.1945;7.1213;
837.9000;0.1962;7.1283;
838.2000;0.1945;7.1283;
838.5000;0.1978;7.1354;
838.8000;0.1978;7.1424;
839.1000;0.1921;7.1307;
839.4000;0.1970;7.1354;
839.7000;0.1954;7.1260;
840.0000;0.1937;7.1236;
840.3000;0.1954;7.1236;
840.6000;0.1970;7.1260;
840.9000;0.1945;7.1166;
841.2000;0.1945;7.1260;
841.5000;0.1954;7.1213;
841.8000;0.1945;7.1213;
842.1000;0.1929;7.1236;
842.4000;0.1913;7.1189;
842.7000;0.1945;7.1330;
843.0000;0.1945;7.1236;
843.3000;0.1986;7.1283;
843.6000;0.1978;7.1236;
843.9000;0.1929;7.1213;
844.2000;0.1929;7.1283;
844.5000;0.1937;7.1283;
844.8000;0.1945;7.1166;
845.1000;0.1945;7.1142;
845.4000;0.1954;7.1260;
845.7000;0.1937;7.1236;
846.0000;0.1962;7.1354;
846.3000;0.1954;7.1283;
846.6000;0.1929;7.1189;
846.9000;0.1945;7.1142;
847.2000;0.1962;7.1213;
847.5000;0.1962;7.1213;
847.8000;0.1978;7.1307;
848.1000;0.1945;7.1283;
848.4000;0.1954;7.1166;
848.7000;0.1962;7.1142;
849.0000;0.1954;7.1166;
849.3000;0.1937;7.1119;
849.6000;0.1962;7.1166;
849.9000;0.1945;7.1189;
850.2000;0.1945;7.1307;
850.5000;0.1954;7.1401;
850.8000;0.1921;7.1354;
851.1000;0.1945;7.1401;
851.4000;0.1945;7.1307;
851.7000;0.1929;7.1283;
852.0000;0.1929;7.1307;
852.3000;0.1945;7.1377;
852.6000;0.1929;7.1354;
852.9000;0.1954;7.1283;
853.2000;0.1937;7.1307;
853.5000;0.1954;7.1307;
853.8000;0.1945;7.1330;
854.1000;0.1929;7.1307;
854.4000;0.1937;7.1424;
854.7000;0.1945;7.1519;
855.0000;0.1954;7.1401;
855.3000;0.1945;7.1307;
855.6000;0.1937;7.1307;
855.9000;0.1945;7.1377;
856.2000;0.1954;7.1424;
856.5000;0.1880;7.1189;
856.8000;0.1954;7.1401;
857.1000;0.1929;7.1260;
857.4000;0.1913;7.1142;
857.7000;0.2051;7.1495;
858.0000;0.1929;7.1142;
858.3000;0.1945;7.1166;
858.6000;0.1945;7.1213;
858.9000;0.1994;7.1354;
859.2000;0.1937;7.1330;
859.5000;0.1937;7.1330;
859.8000;0.1945;7.1448;
860.1000;0.1929;7.1472;
860.4000;0.1929;7.1472;
860.7000;0.1945;7.1542;
861.0000;0.1929;7.1495;
861.3000;0.1962;7.1542;
861.6000;0.1970;7.1542;
861.9000;0.1913;7.1424;
862.2000;0.1954;7.1424;
862.5000;0.1929;7.1377;
862.8000;0.1888;7.1260;
863.1000;0.1921;7.1330;
863.4000;0.1937;7.1330;
863.7000;0.1888;7.1142;
864.0000;0.1978;7.1377;
864.3000;0.1937;7.1354;
864.6000;0.1978;7.1424;
864.9000;0.1978;7.1424;
865.2000;0.1937;7.1330;
865.5000;0.1929;7.1377;
865.8000;0.1945;7.1377;
866.1000;0.1913;7.1330;
866.4000;0.1921;7.1354;
866.7000;0.1929;7.1354;
867.0000;0.1954;7.1330;
867.3000;0.1921;7.1377;
867.6000;0.1913;7.1283;
867.9000;0.1945;7.1307;
868.2000;0.1945;7.1260;
868.5000;0.1937;7.1283;
868.8000;0.1945;7.1307;
869.1000;0.1954;7.1236;
869.4000;0.1913;7.1189;
869.7000;0.1954;7.1330;
870.0000;0.1945;7.1377;
870.3000;0.1945;7.1307;
870.6000;0.1937;7.1330;
870.9000;0.1937;7.1283;
871.2000;0.1937;7.1330;
871.5000;0.1970;7.1330;
871.8000;0.1921;7.1260;
872.1000;0.1937;7.1213;
872.4000;0.1913;7.1166;
872.7000;0.1945;7.1119;
873.0000;0.1913;7.0931;
873.3000;0.1864;7.0742;
873.6000;0.1945;7.0884;
873.9000;0.1945;7.1001;
874.2000;0.1962;7.1213;
874.5000;0.1945;7.1119;
874.8000;0.1937;7.1048;
875.1000;0.1937;7.1048;
875.4000;0.1945;7.1095;
875.7000;0.1929;7.0978;
876.0000;0.1921;7.0954;
876.3000;0.1962;7.1048;
876.6000;0.1937;7.1095;
876.9000;0.1913;7.1142;
877.2000;0.1921;7.1166;
877.5000;0.1921;7.1283;
877.8000;0.1945;7.1424;
878.1000;0.1937;7.1377;
878.4000;0.1872;7.1142;
878.7000;0.1913;7.1283;
879.0000;0.1945;7.1330;
879.3000;0.1986;7.1472;
879.6000;0.1929;7.1354;
879.9000;0.1945;7.1330;
880.2000;0.1994;7.1448;
880.5000;0.1872;7.1119;
880.8000;0.1905;7.1142;
881.1000;0.1880;7.1072;
881.4000;0.1823;7.0931;
881.7000;0.1929;7.1260;
882.0000;0.1954;7.1448;
882.3000;0.1954;7.1589;
882.6000;0.1929;7.1519;
882.9000;0.1905;7.1448;
883.2000;0.1929;7.1377;
883.5000;0.1945;7.1354;
883.8000;0.1954;7.1260;
884.1000;0.1954;7.1236;
884.4000;0.1937;7.1166;
884.7000;0.1929;7.1213;
885.0000;0.1905;7.1189;
885.3000;0.1954;7.1307;
885.6000;0.1954;7.1213;
885.9000;0.1937;7.1142;
886.2000;0.1945;7.1213;
886.5000;0.1986;7.1401;
886.8000;0.1929;7.1330;
887.1000;0.1897;7.1330;
887.4000;0.1929;7.1401;
887.7000;0.1929;7.1260;
888.0000;0.1945;7.1307;
888.3000;0.1897;7.1189;
888.6000;0.1913;7.1189;
888.9000;0.1929;7.1236;
889.2000;0.1929;7.1236;
889.5000;0.1945;7.1260;
889.8000;0.1945;7.1213;
890.1000;0.1945;7.1260;
890.4000;0.1954;7.1307;
890.7000;0.1962;7.1354;
891.0000;0.1921;7.1330;
891.3000;0.1937;7.1330;
891.6000;0.1921;7.1283;
891.9000;0.1937;7.1330;
892.2000;0.1954;7.1401;
892.5000;0.1937;7.1283;
892.8000;0.1945;7.1260;
893.1000;0.1937;7.1236;
893.4000;0.1888;7.1166;
893.7000;0.1921;7.1119;
894.0000;0.1937;7.1119;
894.3000;0.1945;7.1213;
894.6000;0.1937;7.1166;
894.9000;0.1929;7.1236;
895.2000;0.1954;7.1260;
895.5000;0.1945;7.1307;
895.8000;0.1945;7.1283;
896.1000;0.1954;7.1330;
896.4000;0.1913;7.1166;
896.7000;0.1929;7.1142;
897.0000;0.1937;7.1189;
897.3000;0.2011;7.1354;
897.6000;0.1921;7.1142;
897.9000;0.1921;7.1189;
898.2000;0.1913;7.1189;
898.5000;0.1945;7.1377;
898.8000;0.1929;7.1377;
899.1000;0.1921;7.1354;
899.4000;0.1913;7.1354;
899.7000;0.1954;7.1377;
900.0000;0.1913;7.1260;
900.3000;0.1888;7.1307;
900.6000;0.1962;7.1519;
900.9000;0.1929;7.1424;
901.2000;0.1978;7.1401;
901.5000;0.1880;7.1119;
901.8000;0.1921;7.1072;
902.1000;0.1945;7.1213;
902.4000;0.1945;7.1283;
902.7000;0.1937;7.1142;
903.0000;0.1954;7.1189;
903.3000;0.1954;7.1213;
903.6000;0.1945;7.1189;
903.9000;0.1970;7.1260;
904.2000;0.1872;7.1048;
904.5000;0.1929;7.1142;
904.8000;0.1929;7.1189;
905.1000;0.1970;7.1330;
905.4000;0.1954;7.1260;
905.7000;0.1954;7.1307;
906.0000;0.1954;7.1354;
906.3000;0.1937;7.1283;
906.6000;0.1840;7.1095;
906.9000;0.1929;7.1260;
907.2000;0.1937;7.1307;
907.5000;0.1872;7.1189;
907.8000;0.1929;7.1354;
908.1000;0.1945;7.1448;
908.4000;0.1945;7.1472;
908.7000;0.1929;7.1448;
909.0000;0.1937;7.1495;
909.3000;0.1929;7.1448;
909.6000;0.1954;7.1495;
909.9000;0.1945;7.1448;
910.2000;0.1945;7.1472;
910.5000;0.1945;7.1377;
910.8000;0.1929;7.1354;
911.1000;0.1937;7.1424;
911.4000;0.1929;7.1401;
911.7000;0.1937;7.1448;
912.0000;0.1929;7.1519;
912.3000;0.1913;7.1542;
912.6000;0.1929;7.1542;
912.9000;0.1937;7.1566;
913.2000;0.1954;7.1660;
913.5000;0.1954;7.1542;
913.8000;0.1954;7.1354;
914.1000;0.1929;7.1283;
914.4000;0.1913;7.1260;
914.7000;0.1937;7.1354;
915.0000;0.1937;7.1377;
915.3000;0.1905;7.1377;
915.6000;0.1937;7.1472;
915.9000;0.1937;7.1519;
916.2000;0.1913;7.1448;
916.5000;0.1913;7.1495;
916.8000;0.1905;7.1519;
917.1000;0.1945;7.1542;
917.4000;0.1937;7.1566;
917.7000;0.1921;7.1519;
918.0000;0.1929;7.1566;
918.3000;0.1921;7.1519;
918.6000;0.1937;7.1542;
918.9000;0.1921;7.1542;
919.2000;0.1970;7.1683;
919.5000;0.1929;7.1589;
919.8000;0.1954;7.1542;
920.1000;0.1921;7.1448;
920.4000;0.1921;7.1424;
920.7000;0.1888;7.1401;
921.0000;0.1921;7.1495;
921.3000;0.2002;7.1613;
921.6000;0.1929;7.1401;
921.9000;0.1921;7.1377;
922.2000;0.1905;7.1236;
922.5000;0.1872;7.1072;
922.8000;0.1937;7.1260;
923.1000;0.1937;7.1307;
923.4000;0.1905;7.1307;
923.7000;0.1913;7.1354;
924.0000;0.1962;7.1566;
924.3000;0.1913;7.1495;
924.6000;0.1921;7.1542;
924.9000;0.1954;7.1636;
925.2000;0.1937;7.1636;
925.5000;0.1913;7.1542;
925.8000;0.1937;7.1542;
926.1000;0.1937;7.1519;
926.4000;0.1921;7.1424;
926.7000;0.1929;7.1448;
927.0000;0.1921;7.1354;
927.3000;0.1913;7.1401;
927.6000;0.1937;7.1424;
927.9000;0.1937;7.1424;
928.2000;0.1921;7.1401;
928.5000;0.1888;7.1377;
928.8000;0.1913;7.1354;
929.1000;0.1929;7.1424;
929.4000;0.1945;7.1495;
929.7000;0.1945;7.1424;
930.0000;0.1848;7.1236;
930.3000;0.1945;7.1448;
930.6000;0.1921;7.1424;
930.9000;0.1864;7.1330;
931.2000;0.1921;7.1401;
931.5000;0.1937;7.1448;
931.8000;0.1986;7.1589;
932.1000;0.1929;7.1424;
932.4000;0.1905;7.1236;
932.7000;0.1954;7.1330;
933.0000;0.1880;7.1142;
933.3000;0.1921;7.1307;
933.6000;0.1921;7.1283;
933.9000;0.1921;7.1260;
934.2000;0.1937;7.1330;
934.5000;0.1872;7.1142;
934.8000;0.1937;7.1260;
935.1000;0.1929;7.1260;
935.4000;0.1929;7.1354;
935.7000;0.1929;7.1377;
936.0000;0.1921;7.1472;
936.3000;0.1921;7.1495;
936.6000;0.1921;7.1424;
936.9000;0.1913;7.1401;
937.2000;0.1913;7.1472;
937.5000;0.1921;7.1448;
937.8000;0.1921;7.1495;
938.1000;0.1913;7.1519;
938.4000;0.1929;7.1683;
938.7000;0.1921;7.1660;
939.0000;0.1945;7.1660;
939.3000;0.1945;7.1707;
939.6000;0.2011;7.1824;
939.9000;0.1954;7.1660;
940.2000;0.1897;7.1589;
940.5000;0.1937;7.1636;
940.8000;0.1945;7.1707;
941.1000;0.1929;7.1660;
941.4000;0.1945;7.1683;
941.7000;0.1937;7.1589;
942.0000;0.1913;7.1519;
942.3000;0.1921;7.1542;
942.6000;0.1905;7.1542;
942.9000;0.1937;7.1589;
943.2000;0.1921;7.1636;
943.5000;0.1929;7.1754;
943.8000;0.1913;7.1683;
944.1000;0.1945;7.1801;
944.4000;0.1945;7.1871;
944.7000;0.1872;7.1730;
945.0000;0.1929;7.1824;
945.3000;0.1921;7.1683;
945.6000;0.1945;7.1707;
945.9000;0.1978;7.1754;
946.2000;0.1856;7.1401;
946.5000;0.1913;7.1542;
946.8000;0.1937;7.1589;
947.1000;0.1921;7.1613;
947.4000;0.1937;7.1519;
947.7000;0.1913;7.1472;
948.0000;0.1815;7.1307;
948.3000;0.1937;7.1519;
948.6000;0.1929;7.1519;
948.9000;0.1929;7.1566;
949.2000;0.1937;7.1566;
949.5000;0.1937;7.1566;
949.8000;0.1929;7.1519;
950.1000;0.1897;7.1424;
950.4000;0.1929;7.1495;
950.7000;0.1929;7.1472;
951.0000;0.1929;7.1448;
951.3000;0.1945;7.1495;
951.6000;0.1921;7.1472;
951.9000;0.1945;7.1542;
952.2000;0.1937;7.1519;
952.5000;0.1945;7.1589;
952.8000;0.1986;7.1566;
953.1000;0.1937;7.1448;
953.4000;0.1937;7.1260;
953.7000;0.1888;7.1213;
954.0000;0.1856;7.1142;
954.3000;0.1929;7.1283;
954.6000;0.1945;7.1236;
954.9000;0.1978;7.1354;
955.2000;0.1921;7.1142;
955.5000;0.1937;7.1119;
955.8000;0.1856;7.1025;
956.1000;0.1929;7.1283;
956.4000;0.1954;7.1377;
956.7000;0.1921;7.1354;
957.0000;0.1921;7.1377;
957.3000;0.1937;7.1448;
957.6000;0.1945;7.1448;
957.9000;0.1954;7.1566;
958.2000;0.1913;7.1542;
958.5000;0.1929;7.1566;
958.8000;0.1937;7.1660;
959.1000;0.1921;7.1660;
959.4000;0.1929;7.1566;
959.7000;0.1945;7.1542;
960.0000;0.1921;7.1472;
960.3000;0.1929;7.1448;
960.6000;0.1937;7.1354;
960.9000;0.1913;7.1283;
961.2000;0.1937;7.1377;
961.5000;0.1929;7.1377;
961.8000;0.1945;7.1495;
962.1000;0.1929;7.1472;
962.4000;0.1962;7.1519;
962.7000;0.1921;7.1377;
963.0000;0.1921;7.1354;
963.3000;0.1937;7.1401;
963.6000;0.1945;7.1472;
963.9000;0.1929;7.1448;
964.2000;0.1937;7.1472;
964.5000;0.1937;7.1424;
964.8000;0.1937;7.1519;
965.1000;0.1929;7.1448;
965.4000;0.1937;7.1542;
965.7000;0.1929;7.1589;
966.0000;0.1913;7.1636;
966.3000;0.1913;7.1660;
966.6000;0.1921;7.1636;
966.9000;0.1929;7.1542;
967.2000;0.1913;7.1495;
967.5000;0.1929;7.1613;
967.8000;0.1929;7.1566;
968.1000;0.1905;7.1636;
968.4000;0.1921;7.1683;
968.7000;0.1921;7.1683;
969.0000;0.1937;7.1707;
969.3000;0.1945;7.1707;
969.6000;0.1929;7.1636;
969.9000;0.1937;7.1683;
970.2000;0.1937;7.1542;
970.5000;0.1986;7.1660;
970.8000;0.1937;7.1707;
971.1000;0.1913;7.1660;
971.4000;0.1913;7.1777;
971.7000;0.1945;7.1824;
972.0000;0.1986;7.1989;
972.3000;0.1856;7.1636;
972.6000;0.1937;7.1918;
972.9000;0.1945;7.1754;
973.2000;0.1994;7.1824;
973.5000;0.1929;7.1707;
973.8000;0.1921;7.1636;
974.1000;0.1921;7.1613;
974.4000;0.1921;7.1519;
974.7000;0.1937;7.1519;
975.0000;0.1913;7.1424;
975.3000;0.1937;7.1472;
975.6000;0.1921;7.1401;
975.9000;0.1888;7.1354;
976.2000;0.1921;7.1424;
976.5000;0.1937;7.1495;
976.8000;0.1986;7.1613;
977.1000;0.1921;7.1589;
977.4000;0.1921;7.1589;
977.7000;0.1937;7.1613;
978.0000;0.1905;7.1660;
978.3000;0.1945;7.1660;
978.6000;0.1929;7.1495;
978.9000;0.1921;7.1448;
979.2000;0.1913;7.1448;
979.5000;0.1921;7.1542;
979.8000;0.1929;7.1519;
980.1000;0.1888;7.1424;
980.4000;0.1929;7.1472;
980.7000;0.1921;7.1542;
981.0000;0.1921;7.1495;
981.3000;0.1921;7.1472;
981.6000;0.1945;7.1472;
981.9000;0.1913;7.1424;
982.2000;0.1921;7.1424;
982.5000;0.1921;7.1448;
982.8000;0.1913;7.1424;
983.1000;0.1921;7.1495;
983.4000;0.1937;7.1448;
983.7000;0.1913;7.1495;
984.0000;0.1929;7.1472;
984.3000;0.1921;7.1377;
984.6000;0.1929;7.1377;
984.9000;0.1945;7.1448;
985.2000;0.1921;7.1354;
985.5000;0.1921;7.1354;
985.8000;0.1913;7.1377;
986.1000;0.1913;7.1401;
986.4000;0.1921;7.1542;
986.7000;0.1897;7.1519;
987.0000;0.1913;7.1566;
987.3000;0.1921;7.1660;
987.6000;0.1905;7.1636;
987.9000;0.1929;7.1589;
988.2000;0.1913;7.1636;
988.5000;0.1905;7.1589;
988.8000;0.1921;7.1613;
989.1000;0.1905;7.1613;
989.4000;0.1970;7.1707;
989.7000;0.1921;7.1613;
990.0000;0.1897;7.1589;
990.3000;0.1921;7.1542;
990.6000;0.1921;7.1613;
990.9000;0.1913;7.1660;
991.2000;0.2019;7.1942;
991.5000;0.1897;7.1613;
991.8000;0.1905;7.1660;
992.1000;0.1929;7.1777;
992.4000;0.1921;7.1730;
992.7000;0.1937;7.1707;
993.0000;0.1945;7.1660;
993.3000;0.1913;7.1542;
993.6000;0.1945;7.1613;
993.9000;0.1929;7.1589;
994.2000;0.1840;7.1283;
994.5000;0.1929;7.1448;
994.8000;0.1962;7.1542;
995.1000;0.1897;7.1424;
995.4000;0.1929;7.1636;
995.7000;0.1897;7.1472;
996.0000;0.1954;7.1448;
996.3000;0.1970;7.1519;
996.6000;0.1929;7.1377;
996.9000;0.2043;7.1683;
997.2000;0.1937;7.1401;
997.5000;0.1872;7.1377;
997.8000;0.1913;7.1542;
998.1000;0.1913;7.1613;
998.4000;0.1848;7.1519;
998.7000;0.1945;7.1707;
999.0000;0.1929;7.1566;
999.3000;0.2002;7.1824;
999.6000;0.1913;7.1566;
999.9000;0.1864;7.1495;
1000.2000;0.1905;7.1613;
1000.5000;0.1913;7.1660;
1000.8000;0.1962;7.1730;
1001.1000;0.1897;7.1542;
1001.4000;0.1929;7.1566;
1001.7000;0.1929;7.1519;
1002.0000;0.1929;7.1542;
1002.3000;0.1929;7.1542;
1002.6000;0.1929;7.1424;
1002.9000;0.1905;7.1330;
1003.2000;0.1921;7.1424;
1003.5000;0.1937;7.1542;
1003.8000;0.1929;7.1472;
1004.1000;0.1929;7.1472;
1004.4000;0.1921;7.1472;
1004.7000;0.1937;7.1401;
1005.0000;0.1921;7.1495;
1005.3000;0.1913;7.1448;
1005.6000;0.1929;7.1472;
1005.9000;0.1864;7.1330;
1006.2000;0.1929;7.1542;
1006.5000;0.1945;7.1542;
1006.8000;0.1913;7.1472;
1007.1000;0.1962;7.1519;
1007.4000;0.1905;7.1401;
1007.7000;0.1929;7.1377;
1008.0000;0.1913;7.1330;
1008.3000;0.1945;7.1401;
1008.6000;0.1929;7.1424;
1008.9000;0.1929;7.1495;
1009.2000;0.1921;7.1472;
1009.5000;0.1921;7.1566;
1009.8000;0.1921;7.1542;
1010.1000;0.1921;7.1589;
1010.4000;0.1945;7.1660;
1010.7000;0.1913;7.1707;
1011.0000;0.1921;7.1660;
1011.3000;0.2011;7.1848;
1011.6000;0.1921;7.1636;
1011.9000;0.1905;7.1542;
1012.2000;0.1888;7.1542;
1012.5000;0.1905;7.1542;
1012.8000;0.1921;7.1636;
1013.1000;0.1905;7.1519;
1013.4000;0.1799;7.1283;
1013.7000;0.1897;7.1542;
1014.0000;0.1962;7.1660;
1014.3000;0.1937;7.1613;
1014.6000;0.1937;7.1589;
1014.9000;0.1945;7.1636;
1015.2000;0.1921;7.1589;
1015.5000;0.1897;7.1448;
1015.8000;0.1929;7.1519;
1016.1000;0.1945;7.1566;
1016.4000;0.1937;7.1589;
1016.7000;0.1937;7.1636;
1017.0000;0.1864;7.1472;
1017.3000;0.1905;7.1519;
1017.6000;0.1913;7.1566;
1017.9000;0.1929;7.1542;
1018.2000;0.1905;7.1448;
1018.5000;0.1921;7.1448;
1018.8000;0.1913;7.1448;
1019.1000;0.1913;7.1377;
1019.4000;0.1962;7.1472;
1019.7000;0.1929;7.1424;
1020.0000;0.1864;7.1472;
1020.3000;0.1929;7.1707;
1020.6000;0.1945;7.1730;
1020.9000;0.1929;7.1636;
1021.2000;0.1937;7.1519;
1021.5000;0.1937;7.1519;
1021.8000;0.1929;7.1542;
1022.1000;0.1921;7.1495;
1022.4000;0.1921;7.1448;
1022.7000;0.1929;7.1542;
1023.0000;0.1929;7.1542;
1023.3000;0.1897;7.1424;
1023.6000;0.1913;7.1448;
1023.9000;0.1913;7.1542;
1024.2000;0.1905;7.1519;
1024.5000;0.1921;7.1589;
1024.8000;0.1921;7.1448;
1025.1000;0.1929;7.1448;
1025.4000;0.1937;7.1495;
1025.7000;0.1954;7.1519;
1026.0000;0.1913;7.1354;
1026.3000;0.1888;7.1213;
1026.6000;0.1937;7.1448;
1026.9000;0.1880;7.1401;
1027.2000;0.1905;7.1519;
1027.5000;0.1921;7.1566;
1027.8000;0.1929;7.1542;
1028.1000;0.1945;7.1589;
1028.4000;0.1945;7.1542;
1028.7000;0.1913;7.1424;
1029.0000;0.1937;7.1472;
1029.3000;0.1929;7.1354;
1029.6000;0.1913;7.1236;
1029.9000;0.1921;7.1307;
1030.2000;0.1905;7.1236;
1030.5000;0.1929;7.1401;
1030.8000;0.1937;7.1424;
1031.1000;0.1937;7.1472;
1031.4000;0.1945;7.1636;
1031.7000;0.1937;7.1613;
1032.0000;0.1921;7.1566;
1032.3000;0.1945;7.1589;
1032.6000;0.1897;7.1589;
1032.9000;0.1937;7.1613;
1033.2000;0.1913;7.1542;
1033.5000;0.1921;7.1566;
1033.8000;0.1905;7.1519;
1034.1000;0.1921;7.1566;
1034.4000;0.1897;7.1495;
1034.7000;0.1937;7.1589;
1035.0000;0.1937;7.1613;
1035.3000;0.2035;7.1871;
1035.6000;0.1970;7.1683;
1035.9000;0.1954;7.1660;
1036.2000;0.1937;7.1730;
1036.5000;0.1921;7.1683;
1036.8000;0.1945;7.1707;
1037.1000;0.1945;7.1683;
1037.4000;0.1913;7.1542;
1037.7000;0.1864;7.1377;
1038.0000;0.1929;7.1613;
1038.3000;0.1937;7.1589;
1038.6000;0.1913;7.1495;
1038.9000;0.1929;7.1566;
1039.2000;0.1913;7.1519;
1039.5000;0.1937;7.1566;
1039.8000;0.2019;7.1848;
1040.1000;0.1937;7.1636;
1040.4000;0.1929;7.1636;
1040.7000;0.1929;7.1636;
1041.0000;0.1937;7.1683;
1041.3000;0.1905;7.1613;
1041.6000;0.1921;7.1613;
1041.9000;0.1937;7.1613;
1042.2000;0.1945;7.1754;
1042.5000;0.1929;7.1636;
1042.8000;0.1921;7.1613;
1043.1000;0.1921;7.1566;
1043.4000;0.1929;7.1542;
1043.7000;0.1929;7.1495;
1044.0000;0.1962;7.1589;
1044.3000;0.1921;7.1542;
1044.6000;0.1937;7.1636;
1044.9000;0.1921;7.1448;
1045.2000;0.1929;7.1472;
1045.5000;0.1913;7.1472;
1045.8000;0.1929;7.1495;
1046.1000;0.1913;7.1424;
1046.4000;0.1888;7.1495;
1046.7000;0.1905;7.1660;
1047.0000;0.1913;7.1636;
1047.3000;0.1913;7.1589;
1047.6000;0.1937;7.1613;
1047.9000;0.1880;7.1448;
1048.2000;0.1905;7.1377;
1048.5000;0.1929;7.1472;
1048.8000;0.1840;7.1307;
1049.1000;0.1913;7.1495;
1049.4000;0.1929;7.1424;
1049.7000;0.1937;7.1448;
1050.0000;0.1913;7.1401;
1050.3000;0.1937;7.1424;
1050.6000;0.1945;7.1519;
1050.9000;0.2035;7.1730;
1051.2000;0.1905;7.1401;
1051.5000;0.1929;7.1424;
1051.8000;0.1929;7.1495;
1052.1000;0.1905;7.1472;
1052.4000;0.1937;7.1542;
1052.7000;0.1929;7.1519;
1053.0000;0.1921;7.1589;
1053.3000;0.1897;7.1613;
1053.6000;0.1945;7.1754;
1053.9000;0.1937;7.1777;
1054.2000;0.1945;7.1777;
1054.5000;0.1921;7.1754;
1054.8000;0.1929;7.1848;
1055.1000;0.1929;7.1777;
1055.4000;0.1913;7.1824;
1055.7000;0.1929;7.1942;
1056.0000;0.1929;7.1871;
1056.3000;0.1864;7.1777;
1056.6000;0.1913;7.1777;
1056.9000;0.1905;7.1707;
1057.2000;0.1929;7.1660;
1057.5000;0.1937;7.1660;
1057.8000;0.1929;7.1589;
1058.1000;0.1905;7.1495;
1058.4000;0.1872;7.1401;
1058.7000;0.1913;7.1495;
1059.0000;0.1937;7.1542;
1059.3000;0.1937;7.1542;
1059.6000;0.1905;7.1589;
1059.9000;0.1921;7.1636;
1060.2000;0.1937;7.1613;
1060.5000;0.1832;7.1401;
1060.8000;0.1945;7.1660;
1061.1000;0.1929;7.1707;
1061.4000;0.1913;7.1707;
1061.7000;0.1921;7.1636;
1062.0000;0.1962;7.1707;
1062.3000;0.1978;7.1730;
1062.6000;0.1913;7.1542;
1062.9000;0.1970;7.1730;
1063.2000;0.1929;7.1636;
1063.5000;0.1921;7.1636;
1063.8000;0.1897;7.1519;
1064.1000;0.1921;7.1519;
1064.4000;0.1913;7.1495;
1064.7000;0.1921;7.1495;
1065.0000;0.1888;7.1377;
1065.3000;0.1994;7.1542;
1065.6000;0.1921;7.1401;
1065.9000;0.1921;7.1448;
1066.2000;0.1937;7.1448;
1066.5000;0.1921;7.1448;
1066.8000;0.1888;7.1424;
1067.1000;0.1913;7.1542;
1067.4000;0.1913;7.1589;
1067.7000;0.1921;7.1542;
1068.0000;0.1848;7.1354;
1068.3000;0.1913;7.1519;
1068.6000;0.1929;7.1613;
1068.9000;0.1905;7.1589;
1069.2000;0.1921;7.1566;
1069.5000;0.1929;7.1660;
1069.8000;0.1937;7.1613;
1070.1000;0.1954;7.1683;
1070.4000;0.1913;7.1472;
1070.7000;0.1921;7.1424;
1071.0000;0.1954;7.1519;
1071.3000;0.1913;7.1424;
1071.6000;0.1929;7.1472;
1071.9000;0.1978;7.1636;
1072.2000;0.1921;7.1519;
1072.5000;0.1921;7.1636;
1072.8000;0.1864;7.1448;
1073.1000;0.1945;7.1660;
1073.4000;0.1929;7.1636;
1073.7000;0.1913;7.1566;
1074.0000;0.1921;7.1566;
1074.3000;0.1905;7.1589;
1074.6000;0.1929;7.1683;
1074.9000;0.1905;7.1636;
1075.2000;0.1921;7.1683;
1075.5000;0.1913;7.1613;
1075.8000;0.1905;7.1636;
1076.1000;0.1897;7.1636;
1076.4000;0.1913;7.1754;
1076.7000;0.1913;7.1777;
1077.0000;0.1897;7.1801;
1077.3000;0.1913;7.1613;
1077.6000;0.1954;7.1660;
1077.9000;0.1913;7.1519;
1078.2000;0.1897;7.1472;
1078.5000;0.1880;7.1377;
1078.8000;0.1929;7.1472;
1079.1000;0.1954;7.1495;
1079.4000;0.1897;7.1424;
1079.7000;0.1832;7.1307;
1080.0000;0.1921;7.1636;
1080.3000;0.1921;7.1660;
1080.6000;0.1921;7.1613;
1080.9000;0.1921;7.1683;
1081.2000;0.1913;7.1636;
1081.5000;0.1921;7.1730;
1081.8000;0.1921;7.1754;
1082.1000;0.1921;7.1777;
1082.4000;0.1913;7.1683;
1082.7000;0.1921;7.1683;
1083.0000;0.1905;7.1683;
1083.3000;0.1913;7.1636;
1083.6000;0.1913;7.1636;
1083.9000;0.1921;7.1707;
1084.2000;0.1921;7.1613;
1084.5000;0.1937;7.1542;
1084.8000;0.1921;7.1472;
1085.1000;0.1978;7.1589;
1085.4000;0.1945;7.1519;
1085.7000;0.1913;7.1519;
1086.0000;0.1913;7.1566;
1086.3000;0.1823;7.1377;
1086.6000;0.1978;7.1777;
1086.9000;0.1888;7.1589;
1087.2000;0.1897;7.1636;
1087.5000;0.1897;7.1707;
1087.8000;0.1937;7.1754;
1088.1000;0.1823;7.1472;
1088.4000;0.1913;7.1754;
1088.7000;0.1921;7.1730;
1089.0000;0.1913;7.1754;
1089.3000;0.1970;7.1848;
1089.6000;0.1905;7.1707;
1089.9000;0.1921;7.1754;
1090.2000;0.1921;7.1707;
1090.5000;0.1962;7.1848;
1090.8000;0.1937;7.1730;
1091.1000;0.1913;7.1707;
1091.4000;0.1872;7.1566;
1091.7000;0.1929;7.1660;
1092.0000;0.1929;7.1660;
1092.3000;0.1921;7.1589;
1092.6000;0.1913;7.1636;
1092.9000;0.1921;7.1683;
1093.2000;0.1978;7.1824;
1093.5000;0.1913;7.1754;
1093.8000;0.1929;7.1777;
1094.1000;0.1913;7.1707;
1094.4000;0.1937;7.1683;
1094.7000;0.1954;7.1636;
1095.0000;0.1897;7.1589;
1095.3000;0.1929;7.1730;
1095.6000;0.1929;7.1801;
1095.9000;0.1880;7.1730;
1096.2000;0.1929;7.1777;
1096.5000;0.1905;7.1801;
1096.8000;0.1994;7.1989;
1097.1000;0.1937;7.1871;
1097.4000;0.1929;7.1777;
1097.7000;0.1905;7.1707;
1098.0000;0.1937;7.1683;
1098.3000;0.1905;7.1542;
1098.6000;0.1929;7.1589;
1098.9000;0.1937;7.1589;
1099.2000;0.1929;7.1495;
1099.5000;0.1937;7.1566;
1099.8000;0.1937;7.1589;
1100.1000;0.1897;7.1542;
1100.4000;0.1929;7.1613;
1100.7000;0.1897;7.1589;
1101.0000;0.1897;7.1589;
1101.3000;0.1913;7.1660;
1101.6000;0.1913;7.1730;
1101.9000;0.1921;7.1730;
1102.2000;0.1937;7.1636;
1102.5000;0.1913;7.1495;
1102.8000;0.1921;7.1495;
1103.1000;0.1913;7.1472;
1103.4000;0.1872;7.1330;
1103.7000;0.1913;7.1448;
1104.0000;0.1888;7.1424;
1104.3000;0.1929;7.1519;
1104.6000;0.1905;7.1401;
1104.9000;0.1897;7.1260;
1105.2000;0.1921;7.1330;
1105.5000;0.1921;7.1354;
1105.8000;0.1913;7.1448;
1106.1000;0.1897;7.1424;
1106.4000;0.1840;7.1330;
1106.7000;0.1921;7.1566;
1107.0000;0.1945;7.1495;
1107.3000;0.1954;7.1472;
1107.6000;0.1905;7.1330;
1107.9000;0.1929;7.1307;
1108.2000;0.1929;7.1330;
1108.5000;0.1905;7.1354;
1108.8000;0.1905;7.1354;
1109.1000;0.1921;7.1401;
1109.4000;0.1913;7.1377;
1109.7000;0.1913;7.1401;
1110.0000;0.1921;7.1472;
1110.3000;0.1872;7.1448;
1110.6000;0.1929;7.1566;
1110.9000;0.1937;7.1566;
1111.2000;0.1913;7.1448;
1111.5000;0.1864;7.1377;
1111.8000;0.1921;7.1495;
1112.1000;0.1856;7.1330;
1112.4000;0.1962;7.1636;
1112.7000;0.1921;7.1472;
1113.0000;0.1905;7.1448;
1113.3000;0.1921;7.1472;
1113.6000;0.1921;7.1472;
1113.9000;0.1929;7.1424;
1114.2000;0.1921;7.1448;
1114.5000;0.1921;7.1448;
1114.8000;0.1929;7.1401;
1115.1000;0.1937;7.1283;
1115.4000;0.1929;7.1448;
1115.7000;0.1937;7.1542;
1116.0000;0.1921;7.1566;
1116.3000;0.1921;7.1472;
1116.6000;0.1929;7.1542;
1116.9000;0.1929;7.1542;
1117.2000;0.1929;7.1519;
1117.5000;0.1929;7.1472;
1117.8000;0.1921;7.1424;
1118.1000;0.1937;7.1448;
1118.4000;0.1905;7.1401;
1118.7000;0.1929;7.1424;
1119.0000;0.1913;7.1424;
1119.3000;0.1913;7.1542;
1119.6000;0.1929;7.1495;
1119.9000;0.1913;7.1448;
1120.2000;0.1954;7.1519;
1120.5000;0.1897;7.1448;
1120.8000;0.1929;7.1472;
1121.1000;0.1921;7.1354;
1121.4000;0.1929;7.1448;
1121.7000;0.1929;7.1542;
1122.0000;0.1905;7.1448;
1122.3000;0.1978;7.1542;
1122.6000;0.1888;7.1260;
1122.9000;0.1897;7.1283;
1123.2000;0.1905;7.1330;
1123.5000;0.1929;7.1354;
1123.8000;0.1905;7.1283;
1124.1000;0.1929;7.1330;
1124.4000;0.1921;7.1377;
1124.7000;0.1921;7.1354;
1125.0000;0.1954;7.1424;
1125.3000;0.1937;7.1377;
1125.6000;0.1913;7.1330;
1125.9000;0.1937;7.1472;
1126.2000;0.2002;7.1613;
1126.5000;0.1913;7.1424;
1126.8000;0.1929;7.1495;
1127.1000;0.1921;7.1401;
1127.4000;0.1872;7.1307;
1127.7000;0.1929;7.1495;
1128.0000;0.1921;7.1472;
1128.3000;0.1921;7.1472;
1128.6000;0.1921;7.1542;
1128.9000;0.1937;7.1542;
1129.2000;0.1880;7.1424;
1129.5000;0.1888;7.1424;
1129.8000;0.1921;7.1377;
1130.1000;0.1897;7.1330;
1130.4000;0.1921;7.1401;
1130.7000;0.1921;7.1448;
1131.0000;0.1913;7.1495;
1131.3000;0.1913;7.1424;
1131.6000;0.1921;7.1330;
1131.9000;0.1921;7.1377;
1132.2000;0.1905;7.1566;
1132.5000;0.1937;7.1589;
1132.8000;0.1921;7.1542;
1133.1000;0.1897;7.1519;
1133.4000;0.1913;7.1448;
1133.7000;0.1913;7.1424;
1134.0000;0.1897;7.1401;
1134.3000;0.1888;7.1448;
1134.6000;0.1913;7.1589;
1134.9000;0.1905;7.1636;
1135.2000;0.1921;7.1566;
1135.5000;0.1905;7.1566;
1135.8000;0.1929;7.1495;
1136.1000;0.1937;7.1448;
1136.4000;0.1929;7.1401;
1136.7000;0.1913;7.1330;
1137.0000;0.1937;7.1401;
1137.3000;0.1913;7.1424;
1137.6000;0.1929;7.1377;
1137.9000;0.1905;7.1424;
1138.2000;0.1921;7.1495;
1138.5000;0.1921;7.1519;
1138.8000;0.1921;7.1472;
1139.1000;0.1929;7.1519;
1139.4000;0.1897;7.1472;
1139.7000;0.1929;7.1472;
1140.0000;0.1921;7.1424;
1140.3000;0.1937;7.1472;
1140.6000;0.1921;7.1424;
1140.9000;0.1913;7.1424;
1141.2000;0.1897;7.1307;
1141.5000;0.1913;7.1377;
1141.8000;0.1929;7.1401;
1142.1000;0.1929;7.1448;
1142.4000;0.1913;7.1424;
1142.7000;0.1921;7.1424;
1143.0000;0.1913;7.1307;
1143.3000;0.1880;7.1189;
1143.6000;0.1921;7.1401;
1143.9000;0.1921;7.1354;
1144.2000;0.1880;7.1213;
1144.5000;0.1905;7.1354;
1144.8000;0.1929;7.1401;
1145.1000;0.1888;7.1424;
1145.4000;0.1921;7.1424;
1145.7000;0.1921;7.1424;
1146.0000;0.1913;7.1542;
1146.3000;0.1937;7.1495;
1146.6000;0.1921;7.1519;
1146.9000;0.1913;7.1495;
1147.2000;0.1905;7.1472;
1147.5000;0.1905;7.1401;
1147.8000;0.1913;7.1377;
1148.1000;0.1905;7.1401;
1148.4000;0.1905;7.1448;
1148.7000;0.1937;7.1495;
1149.0000;0.1897;7.1495;
1149.3000;0.1921;7.1495;
1149.6000;0.1978;7.1542;
1149.9000;0.1921;7.1354;
1150.2000;0.1921;7.1377;
1150.5000;0.1970;7.1424;
1150.8000;0.1929;7.1377;
1151.1000;0.1921;7.1448;
1151.4000;0.1962;7.1589;
1151.7000;0.1962;7.1613;
1152.0000;0.1913;7.1495;
1152.3000;0.1929;7.1589;
1152.6000;0.1897;7.1613;
1152.9000;0.1921;7.1613;
1153.2000;0.1905;7.1566;
1153.5000;0.1913;7.1613;
1153.8000;0.1929;7.1683;
1154.1000;0.1962;7.1801;
1154.4000;0.1921;7.1683;
1154.7000;0.1921;7.1707;
1155.0000;0.1913;7.1707;
1155.3000;0.1913;7.1730;
1155.6000;0.1921;7.1754;
1155.9000;0.2019;7.1895;
1156.2000;0.1937;7.1730;
1156.5000;0.1913;7.1636;
1156.8000;0.1913;7.1613;
1157.1000;0.1937;7.1660;
1157.4000;0.1913;7.1589;
1157.7000;0.1962;7.1636;
1158.0000;0.1929;7.1401;
1158.3000;0.1921;7.1307;
1158.6000;0.1945;7.1236;
1158.9000;0.1937;7.1166;
1159.2000;0.1921;7.1142;
1159.5000;0.1913;7.1166;
1159.8000;0.1954;7.1354;
1160.1000;0.1897;7.1307;
1160.4000;0.1913;7.1448;
1160.7000;0.1921;7.1495;
1161.0000;0.1921;7.1424;
1161.3000;0.1937;7.1519;
1161.6000;0.1905;7.1401;
1161.9000;0.1978;7.1613;
1162.2000;0.2019;7.1871;
1162.5000;0.1937;7.1636;
1162.8000;0.1929;7.1566;
1163.1000;0.1921;7.1519;
1163.4000;0.1929;7.1495;
1163.7000;0.1880;7.1330;
1164.0000;0.2027;7.1660;
1164.3000;0.1954;7.1472;
1164.6000;0.1905;7.1448;
1164.9000;0.1962;7.1566;
1165.2000;0.1929;7.1495;
1165.5000;0.1929;7.1542;
1165.8000;0.1921;7.1589;
1166.1000;0.1913;7.1683;
1166.4000;0.1897;7.1801;
1166.7000;0.1872;7.1636;
1167.0000;0.1913;7.1777;
1167.3000;0.1921;7.1730;
1167.6000;0.1888;7.1613;
1167.9000;0.1929;7.1660;
1168.2000;0.1880;7.1542;
1168.5000;0.1937;7.1613;
1168.8000;0.1913;7.1613;
1169.1000;0.1929;7.1730;
1169.4000;0.1921;7.1683;
1169.7000;0.2019;7.1918;
1170.0000;0.1921;7.1683;
1170.3000;0.1921;7.1613;
1170.6000;0.1921;7.1495;
1170.9000;0.1921;7.1495;
1171.2000;0.1905;7.1424;
1171.5000;0.1945;7.1519;
1171.8000;0.1929;7.1542;
1172.1000;0.1937;7.1589;
1172.4000;0.1905;7.1448;
1172.7000;0.1921;7.1542;
1173.0000;0.1897;7.1495;
1173.3000;0.1913;7.1519;
1173.6000;0.1913;7.1613;
1173.9000;0.1921;7.1613;
1174.2000;0.1921;7.1519;
1174.5000;0.1921;7.1448;
1174.8000;0.1945;7.1542;
1175.1000;0.1921;7.1519;
1175.4000;0.1921;7.1589;
1175.7000;0.1929;7.1613;
1176.0000;0.1913;7.1660;
1176.3000;0.1905;7.1613;
1176.6000;0.1913;7.1730;
1176.9000;0.1905;7.1730;
1177.2000;0.1921;7.1707;
1177.5000;0.1905;7.1707;
1177.8000;0.1929;7.1754;
1178.1000;0.1954;7.1848;
1178.4000;0.1897;7.1613;
1178.7000;0.1913;7.1589;
1179.0000;0.1929;7.1660;
1179.3000;0.1913;7.1589;
1179.6000;0.1921;7.1566;
1179.9000;0.1872;7.1472;
1180.2000;0.1921;7.1636;
1180.5000;0.1880;7.1636;
1180.8000;0.1913;7.1730;
1181.1000;0.1929;7.1754;
1181.4000;0.1962;7.1848;
1181.7000;0.1905;7.1660;
1182.0000;0.1921;7.1660;
1182.3000;0.1905;7.1589;
1182.6000;0.1897;7.1542;
1182.9000;0.1880;7.1472;
1183.2000;0.1864;7.1401;
1183.5000;0.1864;7.1448;
1183.8000;0.1937;7.1519;
1184.1000;0.1921;7.1660;
1184.4000;0.1848;7.1519;
1184.7000;0.1937;7.1754;
1185.0000;0.1929;7.1730;
1185.3000;0.1897;7.1730;
1185.6000;0.1945;7.1824;
1185.9000;0.1929;7.1824;
1186.2000;0.1905;7.1777;
1186.5000;0.1954;7.1895;
1186.8000;0.1937;7.1895;
1187.1000;0.1888;7.1730;
1187.4000;0.1905;7.1683;
1187.7000;0.1921;7.1683;
1188.0000;0.1962;7.1754;
1188.3000;0.1913;7.1519;
1188.6000;0.1913;7.1495;
1188.9000;0.1897;7.1519;
1189.2000;0.1921;7.1589;
1189.5000;0.1929;7.1542;
1189.8000;0.1929;7.1566;
1190.1000;0.1913;7.1519;
1190.4000;0.1937;7.1613;
1190.7000;0.1921;7.1707;
1191.0000;0.1913;7.1636;
1191.3000;0.1913;7.1707;
1191.6000;0.1929;7.1754;
1191.9000;0.1978;7.1895;
1192.2000;0.1921;7.1730;
1192.5000;0.1929;7.1683;
1192.8000;0.1945;7.1730;
1193.1000;0.1921;7.1707;
1193.4000;0.1945;7.1801;
1193.7000;0.1921;7.1707;
1194.0000;0.1921;7.1636;
1194.3000;0.1913;7.1683;
1194.6000;0.1929;7.1730;
1194.9000;0.1986;7.1801;
1195.2000;0.1929;7.1730;
1195.5000;0.1929;7.1754;
1195.8000;0.1913;7.1871;
1196.1000;0.1905;7.1777;
1196.4000;0.1905;7.1707;
1196.7000;0.1921;7.1824;
1197.0000;0.1905;7.1848;
1197.3000;0.1929;7.1895;
1197.6000;0.1913;7.1777;
1197.9000;0.1905;7.1636;
1198.2000;0.1937;7.1801;
1198.5000;0.1929;7.1730;
1198.8000;0.1832;7.1495;
1199.1000;0.1888;7.1636;
1199.4000;0.1937;7.1613;
1199.7000;0.1970;7.1730;
1200.0000;0.1913;7.1636;
1200.3000;0.1945;7.1683;
1200.6000;0.1905;7.1613;
1200.9000;0.1921;7.1613;
1201.2000;0.1937;7.1613;
1201.5000;0.1929;7.1566;
1201.8000;0.1913;7.1519;
1202.1000;0.1929;7.1566;
1202.4000;0.1921;7.1542;
1202.7000;0.1905;7.1472;
1203.0000;0.1913;7.1589;
1203.3000;0.1945;7.1613;
1203.6000;0.1913;7.1495;
1203.9000;0.1897;7.1495;
1204.2000;0.1913;7.1495;
1204.5000;0.1905;7.1472;
1204.8000;0.1880;7.1424;
1205.1000;0.1905;7.1377;
1205.4000;0.1929;7.1448;
1205.7000;0.1929;7.1519;
1206.0000;0.1921;7.1495;
1206.3000;0.1921;7.1377;
1206.6000;0.1897;7.1307;
1206.9000;0.1905;7.1330;
1207.2000;0.2019;7.1613;
1207.5000;0.1905;7.1354;
1207.8000;0.1905;7.1424;
1208.1000;0.1921;7.1566;
1208.4000;0.1913;7.1660;
1208.7000;0.1897;7.1707;
1209.0000;0.1921;7.1683;
1209.3000;0.1913;7.1683;
1209.6000;0.1905;7.1660;
1209.9000;0.1913;7.1754;
1210.2000;0.1921;7.1660;
1210.5000;0.1921;7.1519;
1210.8000;0.1921;7.1472;
1211.1000;0.1937;7.1495;
1211.4000;0.1937;7.1424;
1211.7000;0.1888;7.1330;
1212.0000;0.1905;7.1377;
1212.3000;0.1905;7.1401;
1212.6000;0.1913;7.1377;
1212.9000;0.1913;7.1401;
1213.2000;0.1921;7.1495;
1213.5000;0.1888;7.1401;
1213.8000;0.1929;7.1566;
1214.1000;0.1929;7.1589;
1214.4000;0.1905;7.1589;
1214.7000;0.1913;7.1636;
1215.0000;0.1921;7.1542;
1215.3000;0.1921;7.1472;
1215.6000;0.1913;7.1542;
1215.9000;0.1954;7.1589;
1216.2000;0.1929;7.1519;
1216.5000;0.1921;7.1472;
1216.8000;0.1937;7.1542;
1217.1000;0.1921;7.1472;
1217.4000;0.1929;7.1495;
1217.7000;0.1929;7.1330;
1218.0000;0.1921;7.1330;
1218.3000;0.1905;7.1354;
1218.6000;0.1921;7.1495;
1218.9000;0.1905;7.1401;
1219.2000;0.1937;7.1472;
1219.5000;0.1937;7.1566;
1219.8000;0.1986;7.1660;
1220.1000;0.1929;7.1542;
1220.4000;0.1840;7.1260;
1220.7000;0.1921;7.1472;
1221.0000;0.1888;7.1519;
1221.3000;0.1888;7.1542;
1221.6000;0.1921;7.1566;
1221.9000;0.1905;7.1495;
1222.2000;0.1962;7.1589;
1222.5000;0.1929;7.1519;
1222.8000;0.1856;7.1354;
1223.1000;0.1888;7.1495;
1223.4000;0.1856;7.1519;
1223.7000;0.1913;7.1707;
1224.0000;0.1921;7.1707;
1224.3000;0.1921;7.1660;
1224.6000;0.1921;7.1542;
1224.9000;0.1888;7.1448;
1225.2000;0.1937;7.1472;
1225.5000;0.1888;7.1401;
1225.8000;0.1897;7.1401;
1226.1000;0.1937;7.1519;
1226.4000;0.1888;7.1448;
1226.7000;0.1905;7.1472;
1227.0000;0.1978;7.1660;
1227.3000;0.1913;7.1589;
1227.6000;0.1921;7.1542;
1227.9000;0.1913;7.1519;
1228.2000;0.1994;7.1683;
1228.5000;0.1913;7.1519;
1228.8000;0.1921;7.1613;
1229.1000;0.1913;7.1660;
1229.4000;0.1913;7.1589;
1229.7000;0.1929;7.1613;
1230.0000;0.1921;7.1589;
1230.3000;0.1937;7.1566;
1230.6000;0.1954;7.1589;
1230.9000;0.1913;7.1519;
1231.2000;0.1945;7.1613;
1231.5000;0.1937;7.1519;
1231.8000;0.1937;7.1472;
1232.1000;0.1929;7.1472;
1232.4000;0.1937;7.1424;
1232.7000;0.1929;7.1495;
1233.0000;0.1897;7.1519;
1233.3000;0.1880;7.1519;
1233.6000;0.1905;7.1566;
1233.9000;0.1905;7.1613;
1234.2000;0.1945;7.1683;
1234.5000;0.1921;7.1566;
1234.8000;0.1929;7.1495;
1235.1000;0.1921;7.1424;
1235.4000;0.1897;7.1354;
1235.7000;0.1937;7.1472;
1236.0000;0.1905;7.1519;
1236.3000;0.2002;7.1824;
1236.6000;0.1937;7.1589;
1236.9000;0.1921;7.1519;
1237.2000;0.1913;7.1542;
1237.5000;0.1929;7.1542;
1237.8000;0.1913;7.1424;
1238.1000;0.1954;7.1519;
1238.4000;0.1921;7.1354;
1238.7000;0.1913;7.1283;
1239.0000;0.1905;7.1307;
1239.3000;0.1970;7.1401;
1239.6000;0.1929;7.1307;
1239.9000;0.1921;7.1283;
1240.2000;0.1913;7.1307;
1240.5000;0.1929;7.1354;
1240.8000;0.1929;7.1401;
1241.1000;0.1945;7.1519;
1241.4000;0.1945;7.1589;
1241.7000;0.1888;7.1495;
1242.0000;0.1921;7.1613;
1242.3000;0.1954;7.1730;
1242.6000;0.1913;7.1683;
1242.9000;0.1929;7.1683;
1243.2000;0.1913;7.1566;
1243.5000;0.1897;7.1472;
1243.8000;0.1905;7.1589;
1244.1000;0.1929;7.1589;
1244.4000;0.1945;7.1542;
1244.7000;0.1905;7.1401;
1245.0000;0.1913;7.1519;
1245.3000;0.1962;7.1660;
1245.6000;0.1823;7.1354;
1245.9000;0.1888;7.1519;
1246.2000;0.1913;7.1636;
1246.5000;0.1921;7.1707;
1246.8000;0.1921;7.1683;
1247.1000;0.1913;7.1683;
1247.4000;0.1929;7.1777;
1247.7000;0.1905;7.1683;
1248.0000;0.1913;7.1566;
1248.3000;0.1921;7.1566;
1248.6000;0.1913;7.1589;
1248.9000;0.1897;7.1519;
1249.2000;0.1905;7.1519;
1249.5000;0.1905;7.1472;
1249.8000;0.1913;7.1495;
1250.1000;0.1929;7.1495;
1250.4000;0.1929;7.1472;
1250.7000;0.1929;7.1495;
1251.0000;0.1937;7.1566;
1251.3000;0.1921;7.1636;
1251.6000;0.1921;7.1566;
1251.9000;0.1905;7.1589;
1252.2000;0.1921;7.1542;
1252.5000;0.1913;7.1519;
1252.8000;0.1921;7.1519;
1253.1000;0.1929;7.1519;
1253.4000;0.1913;7.1472;
1253.7000;0.1945;7.1566;
1254.0000;0.1913;7.1519;
1254.3000;0.1913;7.1472;
1254.6000;0.1921;7.1495;
1254.9000;0.1921;7.1448;
1255.2000;0.1929;7.1448;
1255.5000;0.1888;7.1542;
1255.8000;0.1905;7.1613;
1256.1000;0.1897;7.1589;
1256.4000;0.1921;7.1589;
1256.7000;0.1921;7.1613;
1257.0000;0.1913;7.1613;
1257.3000;0.1897;7.1589;
1257.6000;0.1905;7.1566;
1257.9000;0.1937;7.1589;
1258.2000;0.1921;7.1589;
1258.5000;0.1945;7.1683;
1258.8000;0.1897;7.1589;
1259.1000;0.1913;7.1566;
1259.4000;0.1905;7.1542;
1259.7000;0.1945;7.1589;
1260.0000;0.1913;7.1542;
1260.3000;0.1921;7.1613;
1260.6000;0.1921;7.1660;
1260.9000;0.1921;7.1660;
1261.2000;0.1921;7.1707;
1261.5000;0.1921;7.1754;
1261.8000;0.1897;7.1707;
1262.1000;0.1913;7.1754;
1262.4000;0.1913;7.1707;
1262.7000;0.1954;7.1801;
1263.0000;0.1905;7.1542;
1263.3000;0.1929;7.1660;
1263.6000;0.1921;7.1542;
1263.9000;0.1929;7.1519;
1264.2000;0.1929;7.1472;
1264.5000;0.1929;7.1424;
1264.8000;0.1905;7.1330;
1265.1000;0.1905;7.1307;
1265.4000;0.1913;7.1354;
1265.7000;0.1929;7.1330;
1266.0000;0.1921;7.1307;
1266.3000;0.1872;7.1166;
1266.6000;0.1905;7.1142;
1266.9000;0.1921;7.1213;
1267.2000;0.1929;7.1354;
1267.5000;0.1962;7.1448;
1267.8000;0.1905;7.1377;
1268.1000;0.1929;7.1424;
1268.4000;0.1921;7.1401;
1268.7000;0.1905;7.1377;
1269.0000;0.1913;7.1448;
1269.3000;0.1937;7.1472;
1269.6000;0.1929;7.1495;
1269.9000;0.1913;7.1424;
1270.2000;0.1905;7.1448;
1270.5000;0.1897;7.1377;
1270.8000;0.1986;7.1613;
1271.1000;0.1921;7.1519;
1271.4000;0.1921;7.1542;
1271.7000;0.1937;7.1636;
1272.0000;0.1921;7.1566;
1272.3000;0.1921;7.1566;
1272.6000;0.1905;7.1589;
1272.9000;0.1913;7.1636;
1273.2000;0.1905;7.1589;
1273.5000;0.1913;7.1613;
1273.8000;0.1905;7.1542;
1274.1000;0.1905;7.1613;
1274.4000;0.1921;7.1707;
1274.7000;0.1897;7.1613;
1275.0000;0.1913;7.1613;
1275.3000;0.1921;7.1613;
1275.6000;0.1921;7.1589;
1275.9000;0.1921;7.1472;
1276.2000;0.1954;7.1566;
1276.5000;0.1929;7.1566;
1276.8000;0.1905;7.1542;
1277.1000;0.1905;7.1519;
1277.4000;0.1913;7.1519;
1277.7000;0.1978;7.1660;
1278.0000;0.1864;7.1283;
1278.3000;0.1913;7.1424;
1278.6000;0.1945;7.1589;
1278.9000;0.1913;7.1542;
1279.2000;0.1913;7.1566;
1279.5000;0.1937;7.1613;
1279.8000;0.1913;7.1660;
1280.1000;0.1945;7.1707;
1280.4000;0.1897;7.1589;
1280.7000;0.1913;7.1519;
1281.0000;0.1921;7.1542;
1281.3000;0.1913;7.1519;
1281.6000;0.1929;7.1589;
1281.9000;0.1897;7.1519;
1282.2000;0.1937;7.1589;
1282.5000;0.1913;7.1542;
1282.8000;0.1921;7.1636;
1283.1000;0.1913;7.1613;
1283.4000;0.1937;7.1613;
1283.7000;0.1913;7.1589;
1284.0000;0.1929;7.1660;
1284.3000;0.1905;7.1636;
1284.6000;0.1921;7.1660;
1284.9000;0.1921;7.1683;
1285.2000;0.1921;7.1707;
1285.5000;0.1929;7.1636;
1285.8000;0.1897;7.1566;
1286.1000;0.1913;7.1519;
1286.4000;0.1905;7.1519;
1286.7000;0.1913;7.1542;
1287.0000;0.1921;7.1542;
1287.3000;0.1921;7.1542;
1287.6000;0.1905;7.1495;
1287.9000;0.1888;7.1424;
1288.2000;0.1880;7.1472;
1288.5000;0.1897;7.1519;
1288.8000;0.1913;7.1566;
1289.1000;0.1905;7.1495;
1289.4000;0.1921;7.1495;
1289.7000;0.1929;7.1472;
1290.0000;0.1905;7.1472;
1290.3000;0.1913;7.1495;
1290.6000;0.1905;7.1519;
1290.9000;0.1913;7.1566;
1291.2000;0.1913;7.1519;
1291.5000;0.1913;7.1542;
1291.8000;0.1856;7.1401;
1292.1000;0.1921;7.1636;
1292.4000;0.1921;7.1660;
1292.7000;0.1897;7.1613;
1293.0000;0.1905;7.1589;
1293.3000;0.1929;7.1613;
1293.6000;0.1880;7.1519;
1293.9000;0.1921;7.1519;
1294.2000;0.1880;7.1330;
1294.5000;0.1897;7.1307;
1294.8000;0.1913;7.1307;
1295.1000;0.1913;7.1260;
1295.4000;0.1921;7.1330;
1295.7000;0.1897;7.1354;
1296.0000;0.1872;7.1401;
1296.3000;0.1921;7.1472;
1296.6000;0.1937;7.1401;
1296.9000;0.1929;7.1448;
1297.2000;0.1897;7.1448;
1297.5000;0.1921;7.1472;
1297.8000;0.1913;7.1401;
1298.1000;0.1921;7.1401;
1298.4000;0.1880;7.1354;
1298.7000;0.1937;7.1472;
1299.0000;0.2035;7.1730;
1299.3000;0.1913;7.1448;
1299.6000;0.1921;7.1472;
1299.9000;0.1888;7.1472;
1300.2000;0.1872;7.1401;
1300.5000;0.1905;7.1519;
1300.8000;0.1913;7.1566;
1301.1000;0.2027;7.1848;
1301.4000;0.1937;7.1683;
1301.7000;0.1897;7.1636;
1302.0000;0.1937;7.1683;
1302.3000;0.1937;7.1519;
1302.6000;0.1929;7.1566;
1302.9000;0.1921;7.1542;
1303.2000;0.1937;7.1542;
1303.5000;0.1921;7.1424;
1303.8000;0.1921;7.1424;
1304.1000;0.1888;7.1330;
1304.4000;0.1929;7.1495;
1304.7000;0.1905;7.1472;
1305.0000;0.1913;7.1377;
1305.3000;0.1897;7.1307;
1305.6000;0.1880;7.1330;
1305.9000;0.1913;7.1307;
1306.2000;0.1905;7.1401;
1306.5000;0.1921;7.1424;
1306.8000;0.1888;7.1354;
1307.1000;0.1905;7.1377;
1307.4000;0.1913;7.1495;
1307.7000;0.1921;7.1448;
1308.0000;0.1921;7.1401;
1308.3000;0.1856;7.1260;
1308.6000;0.1929;7.1424;
1308.9000;0.1929;7.1401;
1309.2000;0.1929;7.1448;
1309.5000;0.1897;7.1330;
1309.8000;0.1929;7.1542;
1310.1000;0.1913;7.1448;
1310.4000;0.1929;7.1377;
1310.7000;0.1905;7.1424;
1311.0000;0.1921;7.1519;
1311.3000;0.1921;7.1589;
1311.6000;0.1913;7.1613;
1311.9000;0.1921;7.1754;
1312.2000;0.1921;7.1754;
1312.5000;0.1872;7.1542;
1312.8000;0.1937;7.1589;
1313.1000;0.1913;7.1542;
1313.4000;0.1905;7.1566;
1313.7000;0.1897;7.1613;
1314.0000;0.1913;7.1660;
1314.3000;0.1897;7.1589;
1314.6000;0.1888;7.1424;
1314.9000;0.1823;7.1260;
1315.2000;0.1929;7.1519;
1315.5000;0.1913;7.1542;
1315.8000;0.1962;7.1613;
1316.1000;0.1929;7.1472;
1316.4000;0.1913;7.1472;
1316.7000;0.1921;7.1566;
1317.0000;0.1921;7.1542;
1317.3000;0.2027;7.1683;
1317.6000;0.1921;7.1330;
1317.9000;0.1929;7.1424;
1318.2000;0.1929;7.1448;
1318.5000;0.1921;7.1330;
1318.8000;0.1913;7.1330;
1319.1000;0.1905;7.1283;
1319.4000;0.1913;7.1330;
1319.7000;0.1929;7.1307;
1320.0000;0.1905;7.1189;
1320.3000;0.1921;7.1307;
1320.6000;0.1913;7.1307;
1320.9000;0.1791;7.0978;
1321.2000;0.1888;7.1236;
1321.5000;0.1905;7.1236;
1321.8000;0.1897;7.1213;
1322.1000;0.1937;7.1307;
1322.4000;0.1921;7.1260;
1322.7000;0.1921;7.1307;
1323.0000;0.1880;7.1142;
1323.3000;0.1929;7.1213;
1323.6000;0.1905;7.1260;
1323.9000;0.1913;7.1330;
1324.2000;0.1945;7.1424;
1324.5000;0.1913;7.1401;
1324.8000;0.1929;7.1472;
1325.1000;0.1929;7.1448;
1325.4000;0.1937;7.1589;
1325.7000;0.1905;7.1519;
1326.0000;0.1921;7.1472;
1326.3000;0.1905;7.1377;
1326.6000;0.1888;7.1260;
1326.9000;0.1921;7.1283;
1327.2000;0.1905;7.1213;
1327.5000;0.1937;7.1166;
1327.8000;0.1897;7.1048;
1328.1000;0.1921;7.1119;
1328.4000;0.1929;7.1166;
1328.7000;0.1905;7.1213;
1329.0000;0.1913;7.1307;
1329.3000;0.1913;7.1283;
1329.6000;0.1897;7.1236;
1329.9000;0.1913;7.1307;
1330.2000;0.1929;7.1401;
1330.5000;0.1921;7.1377;
1330.8000;0.1970;7.1542;
1331.1000;0.1929;7.1613;
1331.4000;0.1913;7.1777;
1331.7000;0.1905;7.1660;
1332.0000;0.1954;7.1754;
1332.3000;0.1921;7.1542;
1332.6000;0.1929;7.1448;
1332.9000;0.1954;7.1542;
1333.2000;0.1913;7.1472;
1333.5000;0.1913;7.1542;
1333.8000;0.1913;7.1566;
1334.1000;0.1937;7.1519;
1334.4000;0.1832;7.1307;
1334.7000;0.1888;7.1472;
1335.0000;0.1888;7.1401;
1335.3000;0.1937;7.1448;
1335.6000;0.1945;7.1377;
1335.9000;0.1962;7.1472;
1336.2000;0.1921;7.1377;
1336.5000;0.1921;7.1307;
1336.8000;0.1897;7.1260;
1337.1000;0.1945;7.1472;
1337.4000;0.1856;7.1236;
1337.7000;0.1905;7.1377;
1338.0000;0.1929;7.1401;
1338.3000;0.1929;7.1377;
1338.6000;0.1897;7.1354;
1338.9000;0.1962;7.1495;
1339.2000;0.1888;7.1377;
1339.5000;0.1856;7.1330;
1339.8000;0.1954;7.1495;
1340.1000;0.1897;7.1330;
1340.4000;0.2011;7.1589;
1340.7000;0.1872;7.1213;
1341.0000;0.1921;7.1377;
1341.3000;0.1921;7.1377;
1341.6000;0.1905;7.1236;
1341.9000;0.1913;7.1307;
1342.2000;0.1913;7.1260;
1342.5000;0.1888;7.1119;
1342.8000;0.1888;7.1142;
1343.1000;0.1937;7.1283;
1343.4000;0.1905;7.1236;
1343.7000;0.1913;7.1260;
1344.0000;0.1872;7.1213;
1344.3000;0.1929;7.1283;
1344.6000;0.1921;7.1260;
1344.9000;0.1897;7.1307;
1345.2000;0.1921;7.1330;
1345.5000;0.1905;7.1283;
1345.8000;0.1921;7.1377;
1346.1000;0.1913;7.1260;
1346.4000;0.1929;7.1283;
1346.7000;0.1913;7.1189;
1347.0000;0.1913;7.1095;
1347.3000;0.1897;7.1119;
1347.6000;0.1913;7.1189;
1347.9000;0.1905;7.1189;
1348.2000;0.1945;7.1260;
1348.5000;0.1945;7.1213;
1348.8000;0.1929;7.1095;
1349.1000;0.1921;7.1001;
1349.4000;0.1897;7.0931;
1349.7000;0.1905;7.1025;
1350.0000;0.1888;7.1025;
1350.3000;0.1921;7.1166;
1350.6000;0.1897;7.1142;
1350.9000;0.1921;7.1166;
1351.2000;0.1929;7.1166;
1351.5000;0.1905;7.1189;
1351.8000;0.1897;7.1095;
1352.1000;0.1872;7.1048;
1352.4000;0.1913;7.1119;
1352.7000;0.1897;7.1119;
1353.0000;0.1913;7.1166;
1353.3000;0.1913;7.1189;
1353.6000;0.1888;7.1189;
1353.9000;0.1905;7.1330;
1354.2000;0.1888;7.1354;
1354.5000;0.1921;7.1377;
1354.8000;0.1823;7.1119;
1355.1000;0.1978;7.1424;
1355.4000;0.1921;7.1260;
1355.7000;0.1897;7.1213;
1356.0000;0.1921;7.1330;
1356.3000;0.1905;7.1283;
1356.6000;0.1921;7.1236;
1356.9000;0.1905;7.1189;
1357.2000;0.1913;7.1236;
1357.5000;0.1954;7.1330;
1357.8000;0.1937;7.1330;
1358.1000;0.1913;7.1354;
1358.4000;0.1921;7.1330;
1358.7000;0.1929;7.1354;
1359.0000;0.1929;7.1283;
1359.3000;0.1897;7.1142;
1359.6000;0.1913;7.1189;
1359.9000;0.1921;7.1213;
1360.2000;0.1888;7.1236;
1360.5000;0.1888;7.1166;
1360.8000;0.1929;7.1236;
1361.1000;0.1921;7.1119;
1361.4000;0.1913;7.1048;
1361.7000;0.1921;7.1142;
1362.0000;0.1880;7.1048;
1362.3000;0.2002;7.1330;
1362.6000;0.1921;7.1166;
1362.9000;0.1913;7.1189;
1363.2000;0.1913;7.1283;
1363.5000;0.1905;7.1307;
1363.8000;0.1905;7.1236;
1364.1000;0.1913;7.1213;
1364.4000;0.1913;7.1213;
1364.7000;0.1897;7.1189;
1365.0000;0.1970;7.1354;
1365.3000;0.1921;7.1213;
1365.6000;0.1905;7.1213;
1365.9000;0.1921;7.1283;
1366.2000;0.1913;7.1213;
1366.5000;0.1945;7.1236;
1366.8000;0.1913;7.1025;
1367.1000;0.1929;7.1072;
1367.4000;0.1929;7.1072;
1367.7000;0.1921;7.1001;
1368.0000;0.1913;7.0978;
1368.3000;0.1888;7.0978;
1368.6000;0.1905;7.1072;
1368.9000;0.1913;7.1072;
1369.2000;0.1962;7.1260;
1369.5000;0.1913;7.1189;
1369.8000;0.1913;7.1236;
1370.1000;0.1888;7.1166;
1370.4000;0.1905;7.1189;
1370.7000;0.1897;7.1072;
1371.0000;0.1913;7.1095;
1371.3000;0.1905;7.1072;
1371.6000;0.1954;7.1307;
1371.9000;0.1921;7.1189;
1372.2000;0.1913;7.1189;
1372.5000;0.1921;7.1307;
1372.8000;0.1921;7.1354;
1373.1000;0.1929;7.1307;
1373.4000;0.1929;7.1236;
1373.7000;0.1888;7.1260;
1374.0000;0.1897;7.1307;
1374.3000;0.1888;7.1354;
1374.6000;0.1937;7.1377;
1374.9000;0.1888;7.1260;
1375.2000;0.1929;7.1354;
1375.5000;0.1856;7.1236;
1375.8000;0.1978;7.1566;
1376.1000;0.1954;7.1613;
1376.4000;0.1872;7.1424;
1376.7000;0.1921;7.1448;
1377.0000;0.1905;7.1283;
1377.3000;0.1962;7.1377;
1377.6000;0.1913;7.1307;
1377.9000;0.1929;7.1330;
1378.2000;0.1905;7.1354;
1378.5000;0.1897;7.1448;
1378.8000;0.1913;7.1519;
1379.1000;0.1897;7.1495;
1379.4000;0.1888;7.1495;
1379.7000;0.1994;7.1660;
1380.0000;0.1815;7.1283;
1380.3000;0.1954;7.1613;
1380.6000;0.1962;7.1589;
1380.9000;0.1880;7.1377;
1381.2000;0.1848;7.1377;
1381.5000;0.1897;7.1448;
1381.8000;0.1897;7.1377;
1382.1000;0.1921;7.1354;
1382.4000;0.1913;7.1330;
1382.7000;0.1921;7.1330;
1383.0000;0.1913;7.1307;
1383.3000;0.1921;7.1260;
1383.6000;0.1905;7.1213;
1383.9000;0.1921;7.1307;
1384.2000;0.1937;7.1283;
1384.5000;0.1905;7.1283;
1384.8000;0.1929;7.1260;
1385.1000;0.1929;7.1236;
1385.4000;0.1905;7.1142;
1385.7000;0.1921;7.1142;
1386.0000;0.1929;7.1166;
1386.3000;0.1905;7.1142;
1386.6000;0.1929;7.1236;
1386.9000;0.1954;7.1236;
1387.2000;0.2019;7.1354;
1387.5000;0.1929;7.1166;
1387.8000;0.1921;7.1166;
1388.1000;0.1897;7.1283;
1388.4000;0.1921;7.1307;
1388.7000;0.1929;7.1401;
1389.0000;0.1905;7.1495;
1389.3000;0.1962;7.1566;
1389.6000;0.1929;7.1401;
1389.9000;0.1921;7.1260;
1390.2000;0.1921;7.1283;
1390.5000;0.1913;7.1283;
1390.8000;0.1905;7.1283;
1391.1000;0.1905;7.1307;
1391.4000;0.1921;7.1330;
1391.7000;0.1962;7.1448;
1392.0000;0.1937;7.1424;
1392.3000;0.1905;7.1330;
1392.6000;0.1929;7.1495;
1392.9000;0.1929;7.1401;
1393.2000;0.1945;7.1377;
1393.5000;0.1897;7.1330;
1393.8000;0.1913;7.1401;
1394.1000;0.1937;7.1472;
1394.4000;0.1848;7.1236;
1394.7000;0.1905;7.1377;
1395.0000;0.1897;7.1424;
1395.3000;0.1921;7.1566;
1395.6000;0.1929;7.1566;
1395.9000;0.1888;7.1424;
1396.2000;0.1945;7.1566;
1396.5000;0.1921;7.1519;
1396.8000;0.1905;7.1448;
1397.1000;0.1905;7.1472;
1397.4000;0.1897;7.1401;
1397.7000;0.1848;7.1401;
1398.0000;0.1921;7.1589;
1398.3000;0.1905;7.1519;
1398.6000;0.1880;7.1377;
1398.9000;0.1929;7.1542;
1399.2000;0.1929;7.1683;
1399.5000;0.1856;7.1448;
1399.8000;0.1954;7.1660;
