time/ms;Fluo/V;P700 deltaI/I x10³;
-199.8000;0.2312;7.1424;
-199.5000;0.2320;7.1472;
-199.2000;0.2328;7.1472;
-198.9000;0.2295;7.1401;
-198.6000;0.2320;7.1424;
-198.3000;0.2328;7.1495;
-198.0000;0.2336;7.1448;
-197.7000;0.2336;7.1401;
-197.4000;0.2352;7.1401;
-197.1000;0.2344;7.1377;
-196.8000;0.2328;7.1401;
-196.5000;0.2336;7.1472;
-196.2000;0.2336;7.1424;
-195.9000;0.2328;7.1401;
-195.6000;0.2320;7.1424;
-195.3000;0.2328;7.1424;
-195.0000;0.2312;7.1377;
-194.7000;0.2336;7.1401;
-194.4000;0.2352;7.1448;
-194.1000;0.2328;7.1377;
-193.8000;0.2328;7.1401;
-193.5000;0.2336;7.1495;
-193.2000;0.2344;7.1401;
-192.9000;0.2320;7.1283;
-192.6000;0.2336;7.1330;
-192.3000;0.2320;7.1283;
-192.0000;0.2304;7.1260;
-191.7000;0.2320;7.1260;
-191.4000;0.2320;7.1330;
-191.1000;0.2320;7.1448;
-190.8000;0.2336;7.1495;
-190.5000;0.2377;7.1589;
-190.2000;0.2320;7.1401;
-189.9000;0.2328;7.1472;
-189.6000;0.2328;7.1330;
-189.3000;0.2336;7.1283;
-189.0000;0.2336;7.1377;
-188.7000;0.2320;7.1330;
-188.4000;0.2328;7.1283;
-188.1000;0.2328;7.1354;
-187.8000;0.2320;7.1283;
-187.5000;0.2320;7.1260;
-187.2000;0.2344;7.1330;
-186.9000;0.2344;7.1354;
-186.6000;0.2336;7.1377;
-186.3000;0.2328;7.1401;
-186.0000;0.2320;7.1354;
-185.7000;0.2328;7.1354;
-185.4000;0.2312;7.1377;
-185.1000;0.2336;7.1424;
-184.8000;0.2320;7.1401;
-184.5000;0.2312;7.1377;
-184.2000;0.2328;7.1354;
-183.9000;0.2312;7.1307;
-183.6000;0.2320;7.1260;
-183.3000;0.2344;7.1354;
-183.0000;0.2328;7.1283;
-182.7000;0.2336;7.1377;
-182.4000;0.2328;7.1307;
-182.1000;0.2344;7.1401;
-181.8000;0.2320;7.1377;
-181.5000;0.2336;7.1424;
-181.2000;0.2328;7.1401;
-180.9000;0.2344;7.1495;
-180.6000;0.2344;7.1519;
-180.3000;0.2328;7.1519;
-180.0000;0.2320;7.1519;
-179.7000;0.2352;7.1589;
-179.4000;0.2344;7.1683;
-179.1000;0.2336;7.1636;
-178.8000;0.2344;7.1636;
-178.5000;0.2336;7.1519;
-178.2000;0.2328;7.1401;
-177.9000;0.2304;7.1307;
-177.6000;0.2320;7.1354;
-177.3000;0.2328;7.1401;
-177.0000;0.2336;7.1424;
-176.7000;0.2336;7.1424;
-176.4000;0.2336;7.1448;
-176.1000;0.2328;7.1448;
-175.8000;0.2312;7.1330;
-175.5000;0.2450;7.1566;
-175.2000;0.2312;7.1330;
-174.9000;0.2336;7.1330;
-174.6000;0.2312;7.1283;
-174.3000;0.2312;7.1354;
-174.0000;0.2312;7.1448;
-173.7000;0.2312;7.1448;
-173.4000;0.2312;7.1424;
-173.1000;0.2344;7.1542;
-172.8000;0.2336;7.1495;
-172.5000;0.2320;7.1377;
-172.2000;0.2328;7.1354;
-171.9000;0.2328;7.1424;
-171.6000;0.2320;7.1495;
-171.3000;0.2304;7.1424;
-171.0000;0.2320;7.1354;
-170.7000;0.2312;7.1307;
-170.4000;0.2328;7.1377;
-170.1000;0.2320;7.1448;
-169.8000;0.2328;7.1472;
-169.5000;0.2336;7.1401;
-169.2000;0.2320;7.1307;
-168.9000;0.2312;7.1354;
-168.6000;0.2328;7.1377;
-168.3000;0.2418;7.1613;
-168.0000;0.2320;7.1260;
-167.7000;0.2328;7.1213;
-167.4000;0.2312;7.1213;
-167.1000;0.2336;7.1283;
-166.8000;0.2336;7.1307;
-166.5000;0.2328;7.1307;
-166.2000;0.2328;7.1354;
-165.9000;0.2320;7.1354;
-165.6000;0.2312;7.1448;
-165.3000;0.2336;7.1542;
-165.0000;0.2312;7.1542;
-164.7000;0.2336;7.1589;
-164.4000;0.2320;7.1613;
-164.1000;0.2312;7.1589;
-163.8000;0.2279;7.1472;
-163.5000;0.2377;7.1566;
-163.2000;0.2328;7.1448;
-162.9000;0.2336;7.1519;
-162.6000;0.2336;7.1589;
-162.3000;0.2328;7.1613;
-162.0000;0.2344;7.1683;
-161.7000;0.2352;7.1660;
-161.4000;0.2295;7.1542;
-161.1000;0.2344;7.1542;
-160.8000;0.2336;7.1589;
-160.5000;0.2344;7.1730;
-160.2000;0.2344;7.1707;
-159.9000;0.2361;7.1707;
-159.6000;0.2312;7.1636;
-159.3000;0.2344;7.1660;
-159.0000;0.2344;7.1660;
-158.7000;0.2336;7.1683;
-158.4000;0.2393;7.1895;
-158.1000;0.2320;7.1636;
-157.8000;0.2344;7.1683;
-157.5000;0.2352;7.1636;
-157.2000;0.2304;7.1472;
-156.9000;0.2336;7.1472;
-156.6000;0.2328;7.1472;
-156.3000;0.2328;7.1424;
-156.0000;0.2336;7.1472;
-155.7000;0.2320;7.1424;
-155.4000;0.2263;7.1283;
-155.1000;0.2328;7.1472;
-154.8000;0.2336;7.1519;
-154.5000;0.2328;7.1472;
-154.2000;0.2328;7.1495;
-153.9000;0.2287;7.1424;
-153.6000;0.2295;7.1377;
-153.3000;0.2320;7.1283;
-153.0000;0.2336;7.1330;
-152.7000;0.2336;7.1424;
-152.4000;0.2385;7.1448;
-152.1000;0.2320;7.1260;
-151.8000;0.2304;7.1260;
-151.5000;0.2361;7.1472;
-151.2000;0.2352;7.1424;
-150.9000;0.2328;7.1330;
-150.6000;0.2344;7.1377;
-150.3000;0.2361;7.1472;
-150.0000;0.2434;7.1683;
-149.7000;0.2344;7.1542;
-149.4000;0.2344;7.1613;
-149.1000;0.2336;7.1542;
-148.8000;0.2344;7.1613;
-148.5000;0.2312;7.1566;
-148.2000;0.2328;7.1613;
-147.9000;0.2312;7.1519;
-147.6000;0.2352;7.1589;
-147.3000;0.2336;7.1495;
-147.0000;0.2336;7.1377;
-146.7000;0.2320;7.1260;
-146.4000;0.2320;7.1166;
-146.1000;0.2344;7.1330;
-145.8000;0.2336;7.1307;
-145.5000;0.2312;7.1213;
-145.2000;0.2344;7.1330;
-144.9000;0.2336;7.1377;
-144.6000;0.2328;7.1260;
-144.3000;0.2320;7.1283;
-144.0000;0.2328;7.1307;
-143.7000;0.2304;7.1213;
-143.4000;0.2409;7.1448;
-143.1000;0.2328;7.1260;
-142.8000;0.2320;7.1213;
-142.5000;0.2361;7.1213;
-142.2000;0.2352;7.1236;
-141.9000;0.2336;7.1189;
-141.6000;0.2328;7.1213;
-141.3000;0.2344;7.1213;
-141.0000;0.2352;7.1189;
-140.7000;0.2344;7.1236;
-140.4000;0.2336;7.1236;
-140.1000;0.2328;7.1354;
-139.8000;0.2336;7.1401;
-139.5000;0.2426;7.1754;
-139.2000;0.2344;7.1495;
-138.9000;0.2320;7.1330;
-138.6000;0.2312;7.1401;
-138.3000;0.2377;7.1519;
-138.0000;0.2328;7.1424;
-137.7000;0.2255;7.1330;
-137.4000;0.2426;7.1801;
-137.1000;0.2328;7.1542;
-136.8000;0.2328;7.1542;
-136.5000;0.2344;7.1519;
-136.2000;0.2328;7.1448;
-135.9000;0.2328;7.1354;
-135.6000;0.2320;7.1260;
-135.3000;0.2304;7.1142;
-135.0000;0.2369;7.1354;
-134.7000;0.2369;7.1448;
-134.4000;0.2312;7.1330;
-134.1000;0.2328;7.1377;
-133.8000;0.2434;7.1566;
-133.5000;0.2344;7.1354;
-133.2000;0.2287;7.1189;
-132.9000;0.2320;7.1260;
-132.6000;0.2328;7.1236;
-132.3000;0.2312;7.1213;
-132.0000;0.2312;7.1354;
-131.7000;0.2377;7.1542;
-131.4000;0.2320;7.1330;
-131.1000;0.2328;7.1354;
-130.8000;0.2336;7.1354;
-130.5000;0.2328;7.1377;
-130.2000;0.2312;7.1424;
-129.9000;0.2295;7.1307;
-129.6000;0.2328;7.1354;
-129.3000;0.2369;7.1401;
-129.0000;0.2361;7.1401;
-128.7000;0.2312;7.1283;
-128.4000;0.2247;7.1142;
-128.1000;0.2344;7.1401;
-127.8000;0.2336;7.1377;
-127.5000;0.2344;7.1472;
-127.2000;0.2336;7.1495;
-126.9000;0.2336;7.1519;
-126.6000;0.2328;7.1448;
-126.3000;0.2320;7.1377;
-126.0000;0.2385;7.1542;
-125.7000;0.2328;7.1472;
-125.4000;0.2320;7.1448;
-125.1000;0.2287;7.1448;
-124.8000;0.2328;7.1566;
-124.5000;0.2312;7.1472;
-124.2000;0.2295;7.1377;
-123.9000;0.2336;7.1377;
-123.6000;0.2320;7.1377;
-123.3000;0.2361;7.1495;
-123.0000;0.2263;7.1283;
-122.7000;0.2352;7.1542;
-122.4000;0.2312;7.1472;
-122.1000;0.2320;7.1495;
-121.8000;0.2304;7.1472;
-121.5000;0.2352;7.1448;
-121.2000;0.2320;7.1377;
-120.9000;0.2304;7.1283;
-120.6000;0.2304;7.1283;
-120.3000;0.2304;7.1213;
-120.0000;0.2312;7.1119;
-119.7000;0.2328;7.1166;
-119.4000;0.2312;7.0978;
-119.1000;0.2230;7.0884;
-118.8000;0.2393;7.1307;
-118.5000;0.2344;7.1236;
-118.2000;0.2336;7.1260;
-117.9000;0.2336;7.1307;
-117.6000;0.2304;7.1260;
-117.3000;0.2336;7.1377;
-117.0000;0.2328;7.1330;
-116.7000;0.2369;7.1448;
-116.4000;0.2336;7.1236;
-116.1000;0.2336;7.1354;
-115.8000;0.2418;7.1589;
-115.5000;0.2320;7.1283;
-115.2000;0.2377;7.1401;
-114.9000;0.2328;7.1236;
-114.6000;0.2271;7.1025;
-114.3000;0.2328;7.1095;
-114.0000;0.2344;7.1213;
-113.7000;0.2369;7.1260;
-113.4000;0.2271;7.1072;
-113.1000;0.2336;7.1142;
-112.8000;0.2320;7.1072;
-112.5000;0.2312;7.1119;
-112.2000;0.2320;7.1260;
-111.9000;0.2328;7.1260;
-111.6000;0.2328;7.1166;
-111.3000;0.2344;7.1189;
-111.0000;0.2336;7.1189;
-110.7000;0.2401;7.1330;
-110.4000;0.2344;7.1189;
-110.1000;0.2336;7.1119;
-109.8000;0.2320;7.1119;
-109.5000;0.2344;7.1095;
-109.2000;0.2328;7.1119;
-108.9000;0.2295;7.1095;
-108.6000;0.2336;7.1213;
-108.3000;0.2312;7.1236;
-108.0000;0.2361;7.1166;
-107.7000;0.2328;7.1048;
-107.4000;0.2328;7.1072;
-107.1000;0.2344;7.1072;
-106.8000;0.2352;7.1095;
-106.5000;0.2320;7.1189;
-106.2000;0.2328;7.1354;
-105.9000;0.2344;7.1401;
-105.6000;0.2344;7.1307;
-105.3000;0.2336;7.1189;
-105.0000;0.2336;7.1189;
-104.7000;0.2361;7.1119;
-104.4000;0.2344;7.1119;
-104.1000;0.2328;7.1072;
-103.8000;0.2320;7.1072;
-103.5000;0.2312;7.1048;
-103.2000;0.2320;7.1001;
-102.9000;0.2336;7.1119;
-102.6000;0.2361;7.1236;
-102.3000;0.2304;7.1072;
-102.0000;0.2336;7.1166;
-101.7000;0.2344;7.1213;
-101.4000;0.2336;7.1307;
-101.1000;0.2328;7.1260;
-100.8000;0.2304;7.1236;
-100.5000;0.2328;7.1260;
-100.2000;0.2328;7.1166;
-99.9000;0.2304;7.1095;
-99.6000;0.2320;7.1119;
-99.3000;0.2336;7.1119;
-99.0000;0.2328;7.1072;
-98.7000;0.2320;7.1025;
-98.4000;0.2320;7.1189;
-98.1000;0.2255;7.1119;
-97.8000;0.2230;7.1095;
-97.5000;0.2312;7.1260;
-97.2000;0.2312;7.1307;
-96.9000;0.2304;7.1283;
-96.6000;0.2247;7.1189;
-96.3000;0.2312;7.1330;
-96.0000;0.2320;7.1401;
-95.7000;0.2312;7.1472;
-95.4000;0.2328;7.1472;
-95.1000;0.2336;7.1495;
-94.8000;0.2393;7.1660;
-94.5000;0.2344;7.1519;
-94.2000;0.2336;7.1401;
-93.9000;0.2320;7.1330;
-93.6000;0.2344;7.1401;
-93.3000;0.2304;7.1283;
-93.0000;0.2336;7.1307;
-92.7000;0.2336;7.1260;
-92.4000;0.2328;7.1236;
-92.1000;0.2336;7.1307;
-91.8000;0.2295;7.1213;
-91.5000;0.2344;7.1354;
-91.2000;0.2320;7.1213;
-90.9000;0.2336;7.1213;
-90.6000;0.2328;7.1142;
-90.3000;0.2344;7.1260;
-90.0000;0.2328;7.1189;
-89.7000;0.2328;7.1142;
-89.4000;0.2271;7.1025;
-89.1000;0.2328;7.1142;
-88.8000;0.2287;7.1119;
-88.5000;0.2320;7.1189;
-88.2000;0.2320;7.1189;
-87.9000;0.2304;7.1166;
-87.6000;0.2312;7.1236;
-87.3000;0.2336;7.1307;
-87.0000;0.2312;7.1377;
-86.7000;0.2320;7.1424;
-86.4000;0.2328;7.1330;
-86.1000;0.2312;7.1236;
-85.8000;0.2320;7.1283;
-85.5000;0.2336;7.1283;
-85.2000;0.2352;7.1283;
-84.9000;0.2320;7.1189;
-84.6000;0.2344;7.1119;
-84.3000;0.2320;7.1166;
-84.0000;0.2336;7.1166;
-83.7000;0.2320;7.1048;
-83.4000;0.2304;7.1072;
-83.1000;0.2320;7.1166;
-82.8000;0.2312;7.1142;
-82.5000;0.2352;7.1166;
-82.2000;0.2336;7.1142;
-81.9000;0.2320;7.1142;
-81.6000;0.2312;7.1189;
-81.3000;0.2352;7.1260;
-81.0000;0.2369;7.1260;
-80.7000;0.2336;7.1189;
-80.4000;0.2401;7.1472;
-80.1000;0.2328;7.1307;
-79.8000;0.2320;7.1213;
-79.5000;0.2344;7.1142;
-79.2000;0.2328;7.1166;
-78.9000;0.2336;7.1213;
-78.6000;0.2287;7.1166;
-78.3000;0.2320;7.1283;
-78.0000;0.2312;7.1236;
-77.7000;0.2328;7.1189;
-77.4000;0.2328;7.1189;
-77.1000;0.2352;7.1189;
-76.8000;0.2361;7.1189;
-76.5000;0.2328;7.1166;
-76.2000;0.2320;7.1095;
-75.9000;0.2312;7.1025;
-75.6000;0.2312;7.1072;
-75.3000;0.2328;7.1189;
-75.0000;0.2295;7.1142;
-74.7000;0.2344;7.1166;
-74.4000;0.2320;7.1072;
-74.1000;0.2320;7.1001;
-73.8000;0.2409;7.1213;
-73.5000;0.2263;7.0860;
-73.2000;0.2295;7.0954;
-72.9000;0.2393;7.1095;
-72.6000;0.2263;7.0813;
-72.3000;0.2320;7.0954;
-72.0000;0.2328;7.0954;
-71.7000;0.2320;7.1048;
-71.4000;0.2336;7.1025;
-71.1000;0.2312;7.1025;
-70.8000;0.2320;7.1072;
-70.5000;0.2312;7.1142;
-70.2000;0.2312;7.1189;
-69.9000;0.2336;7.1283;
-69.6000;0.2304;7.1236;
-69.3000;0.2320;7.1260;
-69.0000;0.2344;7.1354;
-68.7000;0.2312;7.1236;
-68.4000;0.2312;7.1189;
-68.1000;0.2320;7.1119;
-67.8000;0.2287;7.1119;
-67.5000;0.2328;7.1236;
-67.2000;0.2328;7.1283;
-66.9000;0.2328;7.1236;
-66.6000;0.2320;7.1142;
-66.3000;0.2255;7.1001;
-66.0000;0.2320;7.1283;
-65.7000;0.2320;7.1283;
-65.4000;0.2247;7.1095;
-65.1000;0.2336;7.1283;
-64.8000;0.2336;7.1213;
-64.5000;0.2328;7.1095;
-64.2000;0.2320;7.1142;
-63.9000;0.2320;7.1189;
-63.6000;0.2328;7.1260;
-63.3000;0.2320;7.1236;
-63.0000;0.2312;7.1142;
-62.7000;0.2304;7.1236;
-62.4000;0.2320;7.1377;
-62.1000;0.2312;7.1377;
-61.8000;0.2320;7.1472;
-61.5000;0.2320;7.1519;
-61.2000;0.2312;7.1472;
-60.9000;0.2320;7.1448;
-60.6000;0.2328;7.1424;
-60.3000;0.2312;7.1424;
-60.0000;0.2328;7.1542;
-59.7000;0.2328;7.1660;
-59.4000;0.2320;7.1777;
-59.1000;0.2295;7.1683;
-58.8000;0.2352;7.1801;
-58.5000;0.2336;7.1683;
-58.2000;0.2312;7.1613;
-57.9000;0.2352;7.1519;
-57.6000;0.2328;7.1472;
-57.3000;0.2263;7.1377;
-57.0000;0.2328;7.1519;
-56.7000;0.2320;7.1401;
-56.4000;0.2344;7.1401;
-56.1000;0.2336;7.1448;
-55.8000;0.2344;7.1472;
-55.5000;0.2328;7.1401;
-55.2000;0.2336;7.1519;
-54.9000;0.2393;7.1613;
-54.6000;0.2344;7.1448;
-54.3000;0.2328;7.1472;
-54.0000;0.2312;7.1401;
-53.7000;0.2312;7.1260;
-53.4000;0.2320;7.1236;
-53.1000;0.2304;7.1142;
-52.8000;0.2312;7.1142;
-52.5000;0.2344;7.1354;
-52.2000;0.2328;7.1307;
-51.9000;0.2320;7.1260;
-51.6000;0.2328;7.1213;
-51.3000;0.2312;7.1307;
-51.0000;0.2328;7.1448;
-50.7000;0.2328;7.1448;
-50.4000;0.2295;7.1424;
-50.1000;0.2287;7.1448;
-49.8000;0.2344;7.1401;
-49.5000;0.2328;7.1354;
-49.2000;0.2336;7.1260;
-48.9000;0.2336;7.1354;
-48.6000;0.2328;7.1330;
-48.3000;0.2320;7.1307;
-48.0000;0.2304;7.1213;
-47.7000;0.2320;7.1307;
-47.4000;0.2320;7.1330;
-47.1000;0.2377;7.1495;
-46.8000;0.2336;7.1330;
-46.5000;0.2328;7.1283;
-46.2000;0.2328;7.1213;
-45.9000;0.2361;7.1213;
-45.6000;0.2328;7.1166;
-45.3000;0.2320;7.1142;
-45.0000;0.2320;7.1025;
-44.7000;0.2336;7.1142;
-44.4000;0.2328;7.1213;
-44.1000;0.2312;7.1189;
-43.8000;0.2320;7.1142;
-43.5000;0.2320;7.1260;
-43.2000;0.2328;7.1283;
-42.9000;0.2304;7.1283;
-42.6000;0.2304;7.1377;
-42.3000;0.2271;7.1401;
-42.0000;0.2418;7.1754;
-41.7000;0.2304;7.1424;
-41.4000;0.2312;7.1354;
-41.1000;0.2320;7.1260;
-40.8000;0.2328;7.1330;
-40.5000;0.2304;7.1283;
-40.2000;0.2328;7.1330;
-39.9000;0.2312;7.1260;
-39.6000;0.2320;7.1330;
-39.3000;0.2295;7.1260;
-39.0000;0.2320;7.1260;
-38.7000;0.2304;7.1166;
-38.4000;0.2377;7.1283;
-38.1000;0.2328;7.1166;
-37.8000;0.2304;7.1095;
-37.5000;0.2271;7.1001;
-37.2000;0.2352;7.1095;
-36.9000;0.2239;7.0860;
-36.6000;0.2336;7.1166;
-36.3000;0.2377;7.1330;
-36.0000;0.2336;7.1283;
-35.7000;0.2328;7.1307;
-35.4000;0.2336;7.1283;
-35.1000;0.2336;7.1330;
-34.8000;0.2336;7.1236;
-34.5000;0.2336;7.1260;
-34.2000;0.2328;7.1213;
-33.9000;0.2328;7.1213;
-33.6000;0.2336;7.1166;
-33.3000;0.2328;7.1236;
-33.0000;0.2344;7.1260;
-32.7000;0.2320;7.1142;
-32.4000;0.2295;7.1119;
-32.1000;0.2287;7.1142;
-31.8000;0.2328;7.1448;
-31.5000;0.2328;7.1424;
-31.2000;0.2304;7.1330;
-30.9000;0.2352;7.1448;
-30.6000;0.2361;7.1448;
-30.3000;0.2328;7.1377;
-30.0000;0.2336;7.1519;
-29.7000;0.2344;7.1495;
-29.4000;0.2328;7.1377;
-29.1000;0.2328;7.1330;
-28.8000;0.2328;7.1260;
-28.5000;0.2271;7.1166;
-28.2000;0.2328;7.1377;
-27.9000;0.2320;7.1377;
-27.6000;0.2336;7.1330;
-27.3000;0.2418;7.1542;
-27.0000;0.2279;7.1283;
-26.7000;0.2336;7.1354;
-26.4000;0.2320;7.1354;
-26.1000;0.2401;7.1542;
-25.8000;0.2230;7.1166;
-25.5000;0.2344;7.1448;
-25.2000;0.2336;7.1401;
-24.9000;0.2287;7.1307;
-24.6000;0.2442;7.1660;
-24.3000;0.2352;7.1377;
-24.0000;0.2336;7.1236;
-23.7000;0.2328;7.1142;
-23.4000;0.2401;7.1307;
-23.1000;0.2336;7.1236;
-22.8000;0.2336;7.1330;
-22.5000;0.2377;7.1377;
-22.2000;0.2328;7.1260;
-21.9000;0.2336;7.1377;
-21.6000;0.2344;7.1401;
-21.3000;0.2312;7.1401;
-21.0000;0.2336;7.1495;
-20.7000;0.2344;7.1472;
-20.4000;0.2344;7.1448;
-20.1000;0.2320;7.1307;
-19.8000;0.2320;7.1307;
-19.5000;0.2336;7.1283;
-19.2000;0.2328;7.1330;
-18.9000;0.2320;7.1236;
-18.6000;0.2328;7.1354;
-18.3000;0.2409;7.1660;
-18.0000;0.2320;7.1401;
-17.7000;0.2336;7.1401;
-17.4000;0.2328;7.1377;
-17.1000;0.2336;7.1354;
-16.8000;0.2328;7.1377;
-16.5000;0.2336;7.1330;
-16.2000;0.2312;7.1283;
-15.9000;0.2409;7.1542;
-15.6000;0.2336;7.1377;
-15.3000;0.2369;7.1542;
-15.0000;0.2336;7.1377;
-14.7000;0.2312;7.1330;
-14.4000;0.2320;7.1236;
-14.1000;0.2336;7.1189;
-13.8000;0.2336;7.1189;
-13.5000;0.2312;7.1189;
-13.2000;0.2328;7.1236;
-12.9000;0.2344;7.1236;
-12.6000;0.2312;7.1119;
-12.3000;0.2336;7.1213;
-12.0000;0.2336;7.1213;
-11.7000;0.2328;7.1236;
-11.4000;0.2336;7.1260;
-11.1000;0.2320;7.1283;
-10.8000;0.2361;7.1377;
-10.5000;0.2336;7.1260;
-10.2000;0.2344;7.1236;
-9.9000;0.2312;7.1189;
-9.6000;0.2312;7.1189;
-9.3000;0.2328;7.1283;
-9.0000;0.2328;7.1189;
-8.7000;0.2312;7.1189;
-8.4000;0.2312;7.1236;
-8.1000;0.2312;7.1236;
-7.8000;0.2361;7.1283;
-7.5000;0.2450;7.1495;
-7.2000;0.2336;7.1260;
-6.9000;0.2328;7.1307;
-6.6000;0.2304;7.1354;
-6.3000;0.2287;7.1307;
-6.0000;0.2320;7.1330;
-5.7000;0.2328;7.1189;
-5.4000;0.2271;7.0978;
-5.1000;0.2279;7.0931;
-4.8000;0.2344;7.1048;
-4.5000;0.2361;7.1142;
-4.2000;0.2328;7.1142;
-3.9000;0.2328;7.1072;
-3.6000;0.2352;7.1236;
-3.3000;0.2361;7.1260;
-3.0000;0.2320;7.1236;
-2.7000;0.2263;7.1166;
-2.4000;0.2336;7.1401;
-2.1000;0.2320;7.1236;
-1.8000;0.2320;7.1166;
-1.5000;0.2328;7.1119;
-1.2000;0.2320;7.1072;
-0.9000;0.2320;7.1048;
-0.6000;0.2328;7.1166;
-0.3000;0.2320;7.1189;
0.0000;0.2320;7.1189;
0.3000;0.2466;7.1660;
0.6000;0.2450;7.1472;
0.9000;0.2556;7.1683;
1.2000;0.2637;7.1824;
1.5000;0.2654;7.1918;
1.8000;0.2727;7.2177;
2.1000;0.2768;7.2412;
2.4000;0.2792;7.2412;
2.7000;0.2825;7.2459;
3.0000;0.2825;7.2553;
3.3000;0.2857;7.2671;
3.6000;0.2865;7.2812;
3.9000;0.2882;7.2883;
4.2000;0.2825;7.2812;
4.5000;0.2849;7.2883;
4.8000;0.2857;7.2906;
5.1000;0.2890;7.3000;
5.4000;0.2890;7.3118;
5.7000;0.2873;7.3000;
6.0000;0.2890;7.2953;
6.3000;0.2890;7.2977;
6.6000;0.2882;7.3000;
6.9000;0.2898;7.3024;
7.2000;0.2882;7.2977;
7.5000;0.2906;7.2977;
7.8000;0.2898;7.2906;
8.1000;0.2930;7.3000;
8.4000;0.2922;7.3000;
8.7000;0.2939;7.3024;
9.0000;0.2922;7.3047;
9.3000;0.2930;7.3094;
9.6000;0.2930;7.3071;
9.9000;0.2939;7.3094;
10.2000;0.2963;7.3024;
10.5000;0.2930;7.2883;
10.8000;0.2939;7.2906;
11.1000;0.2939;7.2836;
11.4000;0.2947;7.2859;
11.7000;0.2930;7.2906;
12.0000;0.2947;7.3000;
12.3000;0.2955;7.3071;
12.6000;0.2955;7.3071;
12.9000;0.2971;7.3094;
13.2000;0.2987;7.3094;
13.5000;0.2939;7.3000;
13.8000;0.2987;7.3141;
14.1000;0.2979;7.3118;
14.4000;0.3012;7.3071;
14.7000;0.2971;7.3024;
15.0000;0.2963;7.3094;
15.3000;0.3004;7.3141;
15.6000;0.2955;7.2977;
15.9000;0.2963;7.3000;
16.2000;0.2996;7.3047;
16.5000;0.2996;7.2906;
16.8000;0.3004;7.2883;
17.1000;0.3044;7.3071;
17.4000;0.3012;7.3000;
17.7000;0.3004;7.2930;
18.0000;0.2996;7.3024;
18.3000;0.2906;7.2765;
18.6000;0.2939;7.2789;
18.9000;0.3012;7.2977;
19.2000;0.2963;7.2859;
19.5000;0.2955;7.2812;
19.8000;0.2971;7.2930;
20.1000;0.3020;7.3024;
20.4000;0.3028;7.2953;
20.7000;0.2947;7.2741;
21.0000;0.2996;7.2789;
21.3000;0.2987;7.2718;
21.6000;0.3053;7.2812;
21.9000;0.3101;7.2930;
22.2000;0.3028;7.2859;
22.5000;0.3044;7.2883;
22.8000;0.3036;7.2789;
23.1000;0.3061;7.2859;
23.4000;0.3053;7.2836;
23.7000;0.3044;7.2812;
24.0000;0.3053;7.2906;
24.3000;0.3085;7.3024;
24.6000;0.3020;7.2883;
24.9000;0.3069;7.3047;
25.2000;0.3069;7.3047;
25.5000;0.3118;7.3165;
25.8000;0.3053;7.2930;
26.1000;0.3069;7.3024;
26.4000;0.3069;7.2930;
26.7000;0.3012;7.2789;
27.0000;0.3044;7.2930;
27.3000;0.3028;7.2859;
27.6000;0.3053;7.2906;
27.9000;0.3069;7.2836;
28.2000;0.3077;7.2953;
28.5000;0.3069;7.2977;
28.8000;0.3077;7.3071;
29.1000;0.3077;7.3094;
29.4000;0.3077;7.3071;
29.7000;0.3085;7.2953;
30.0000;0.3061;7.2836;
30.3000;0.3069;7.2883;
30.6000;0.3109;7.2906;
30.9000;0.3109;7.2906;
31.2000;0.3061;7.2741;
31.5000;0.3093;7.2789;
31.8000;0.3061;7.2647;
32.1000;0.3101;7.2671;
32.4000;0.3109;7.2647;
32.7000;0.3101;7.2624;
33.0000;0.3101;7.2624;
33.3000;0.3093;7.2647;
33.6000;0.3093;7.2671;
33.9000;0.3118;7.2741;
34.2000;0.3126;7.2671;
34.5000;0.3158;7.2836;
34.8000;0.3061;7.2506;
35.1000;0.3093;7.2671;
35.4000;0.3126;7.2741;
35.7000;0.3150;7.2836;
36.0000;0.3109;7.2694;
36.3000;0.3240;7.3024;
36.6000;0.3109;7.2836;
36.9000;0.3109;7.2953;
37.2000;0.3036;7.2718;
37.5000;0.3126;7.2930;
37.8000;0.3109;7.2859;
38.1000;0.3142;7.3000;
38.4000;0.3150;7.2883;
38.7000;0.3109;7.2859;
39.0000;0.3150;7.3000;
39.3000;0.3134;7.2930;
39.6000;0.3142;7.3024;
39.9000;0.3109;7.2977;
40.2000;0.3101;7.2977;
40.5000;0.3223;7.3188;
40.8000;0.3223;7.3047;
41.1000;0.3118;7.2836;
41.4000;0.3109;7.2906;
41.7000;0.3175;7.2953;
42.0000;0.3126;7.2859;
42.3000;0.3134;7.2812;
42.6000;0.3036;7.2577;
42.9000;0.3142;7.2812;
43.2000;0.3134;7.2789;
43.5000;0.3264;7.3094;
43.8000;0.3166;7.2883;
44.1000;0.3166;7.2859;
44.4000;0.3166;7.2883;
44.7000;0.3150;7.2883;
45.0000;0.3142;7.2836;
45.3000;0.3223;7.3024;
45.6000;0.3191;7.3000;
45.9000;0.3150;7.2977;
46.2000;0.3150;7.2906;
46.5000;0.3158;7.2859;
46.8000;0.3183;7.2883;
47.1000;0.3158;7.2906;
47.4000;0.3142;7.2930;
47.7000;0.3150;7.3000;
48.0000;0.3175;7.3071;
48.3000;0.3175;7.3071;
48.6000;0.3134;7.2906;
48.9000;0.3175;7.2930;
49.2000;0.3175;7.2977;
49.5000;0.3199;7.3024;
49.8000;0.3126;7.2906;
50.1000;0.3150;7.2977;
50.4000;0.3158;7.2953;
50.7000;0.3191;7.2906;
51.0000;0.3183;7.2906;
51.3000;0.3166;7.2953;
51.6000;0.3158;7.2930;
51.9000;0.3175;7.2883;
52.2000;0.3158;7.2930;
52.5000;0.3207;7.3047;
52.8000;0.3150;7.2836;
53.1000;0.3175;7.2883;
53.4000;0.3150;7.2883;
53.7000;0.3183;7.3024;
54.0000;0.3150;7.2953;
54.3000;0.3191;7.2953;
54.6000;0.3158;7.3047;
54.9000;0.3175;7.3024;
55.2000;0.3166;7.2906;
55.5000;0.3175;7.2906;
55.8000;0.3142;7.2906;
56.1000;0.3183;7.2953;
56.4000;0.3183;7.3000;
56.7000;0.3183;7.3024;
57.0000;0.3199;7.2953;
57.3000;0.3150;7.2859;
57.6000;0.3240;7.3094;
57.9000;0.3191;7.2906;
58.2000;0.3175;7.2883;
58.5000;0.3256;7.3141;
58.8000;0.3191;7.3024;
59.1000;0.3207;7.2977;
59.4000;0.3183;7.2953;
59.7000;0.3150;7.2812;
60.0000;0.3191;7.2883;
60.3000;0.3207;7.2859;
60.6000;0.3191;7.2812;
60.9000;0.3207;7.2812;
61.2000;0.3142;7.2694;
61.5000;0.3175;7.2859;
61.8000;0.3166;7.2836;
62.1000;0.3166;7.2836;
62.4000;0.3215;7.2906;
62.7000;0.3207;7.2906;
63.0000;0.3175;7.2906;
63.3000;0.3199;7.2906;
63.6000;0.3199;7.2930;
63.9000;0.3199;7.2859;
64.2000;0.3207;7.2906;
64.5000;0.3232;7.2906;
64.8000;0.3191;7.2741;
65.1000;0.3215;7.2789;
65.4000;0.3183;7.2718;
65.7000;0.3199;7.2741;
66.0000;0.3183;7.2718;
66.3000;0.3199;7.2789;
66.6000;0.3191;7.2741;
66.9000;0.3191;7.2671;
67.2000;0.3207;7.2671;
67.5000;0.3191;7.2647;
67.8000;0.3248;7.2741;
68.1000;0.3215;7.2718;
68.4000;0.3142;7.2694;
68.7000;0.3215;7.2836;
69.0000;0.3223;7.2765;
69.3000;0.3223;7.2812;
69.6000;0.3207;7.2812;
69.9000;0.3207;7.2836;
70.2000;0.3207;7.2741;
70.5000;0.3215;7.2694;
70.8000;0.3232;7.2765;
71.1000;0.3232;7.2836;
71.4000;0.3223;7.2883;
71.7000;0.3207;7.2883;
72.0000;0.3215;7.2859;
72.3000;0.3199;7.2906;
72.6000;0.3215;7.2953;
72.9000;0.3215;7.2883;
73.2000;0.3240;7.2906;
73.5000;0.3215;7.2836;
73.8000;0.3223;7.2977;
74.1000;0.3223;7.2883;
74.4000;0.3232;7.2883;
74.7000;0.3232;7.2883;
75.0000;0.3232;7.2859;
75.3000;0.3199;7.2741;
75.6000;0.3223;7.2836;
75.9000;0.3223;7.2671;
76.2000;0.3223;7.2718;
76.5000;0.3223;7.2694;
76.8000;0.3207;7.2624;
77.1000;0.3223;7.2765;
77.4000;0.3191;7.2812;
77.7000;0.3199;7.2859;
78.0000;0.3207;7.2906;
78.3000;0.3215;7.2930;
78.6000;0.3248;7.3000;
78.9000;0.3215;7.2906;
79.2000;0.3199;7.2883;
79.5000;0.3207;7.2977;
79.8000;0.3223;7.3000;
80.1000;0.3232;7.3000;
80.4000;0.3223;7.2883;
80.7000;0.3321;7.3047;
81.0000;0.3223;7.2812;
81.3000;0.3223;7.2836;
81.6000;0.3232;7.2741;
81.9000;0.3232;7.2741;
82.2000;0.3240;7.2836;
82.5000;0.3191;7.2859;
82.8000;0.3215;7.2906;
83.1000;0.3207;7.2883;
83.4000;0.3207;7.2930;
83.7000;0.3223;7.2930;
84.0000;0.3240;7.2953;
84.3000;0.3232;7.2906;
84.6000;0.3232;7.2906;
84.9000;0.3232;7.2953;
85.2000;0.3232;7.2953;
85.5000;0.3223;7.2906;
85.8000;0.3240;7.2953;
86.1000;0.3240;7.3047;
86.4000;0.3256;7.3094;
86.7000;0.3248;7.3141;
87.0000;0.3232;7.3071;
87.3000;0.3264;7.3094;
87.6000;0.3264;7.3118;
87.9000;0.3280;7.3118;
88.2000;0.3199;7.2953;
88.5000;0.3256;7.3118;
88.8000;0.3183;7.2977;
89.1000;0.3223;7.3118;
89.4000;0.3166;7.2977;
89.7000;0.3199;7.2977;
90.0000;0.3223;7.3024;
90.3000;0.3240;7.3094;
90.6000;0.3272;7.3118;
90.9000;0.3126;7.2671;
91.2000;0.3158;7.2789;
91.5000;0.3223;7.2953;
91.8000;0.3232;7.3000;
92.1000;0.3215;7.2859;
92.4000;0.3329;7.3118;
92.7000;0.3313;7.3118;
93.0000;0.3215;7.2859;
93.3000;0.3232;7.2812;
93.6000;0.3240;7.2812;
93.9000;0.3248;7.2859;
94.2000;0.3240;7.2883;
94.5000;0.3223;7.2812;
94.8000;0.3215;7.2859;
95.1000;0.3248;7.2930;
95.4000;0.3240;7.2836;
95.7000;0.3280;7.2836;
96.0000;0.3223;7.2765;
96.3000;0.3240;7.2859;
96.6000;0.3248;7.2953;
96.9000;0.3240;7.2836;
97.2000;0.3248;7.2789;
97.5000;0.3183;7.2694;
97.8000;0.3240;7.2812;
98.1000;0.3240;7.2859;
98.4000;0.3248;7.2906;
98.7000;0.3223;7.2930;
99.0000;0.3199;7.2930;
99.3000;0.3248;7.3047;
99.6000;0.3223;7.2953;
99.9000;0.3240;7.2906;
100.2000;0.3215;7.2789;
100.5000;0.3321;7.3047;
100.8000;0.3248;7.2906;
101.1000;0.3223;7.2859;
101.4000;0.3175;7.2718;
101.7000;0.3240;7.2836;
102.0000;0.3232;7.2765;
102.3000;0.3207;7.2694;
102.6000;0.3215;7.2741;
102.9000;0.3240;7.2718;
103.2000;0.3248;7.2836;
103.5000;0.3289;7.3047;
103.8000;0.3240;7.2930;
104.1000;0.3240;7.2930;
104.4000;0.3232;7.2930;
104.7000;0.3215;7.2789;
105.0000;0.3191;7.2789;
105.3000;0.3215;7.2883;
105.6000;0.3223;7.2859;
105.9000;0.3240;7.2953;
106.2000;0.3223;7.2977;
106.5000;0.3256;7.2930;
106.8000;0.3240;7.2977;
107.1000;0.3248;7.2930;
107.4000;0.3207;7.2812;
107.7000;0.3223;7.2836;
108.0000;0.3240;7.2789;
108.3000;0.3215;7.2694;
108.6000;0.3240;7.2671;
108.9000;0.3256;7.2694;
109.2000;0.3191;7.2600;
109.5000;0.3248;7.2812;
109.8000;0.3240;7.2836;
110.1000;0.3232;7.2859;
110.4000;0.3215;7.2694;
110.7000;0.3289;7.3000;
111.0000;0.3248;7.2812;
111.3000;0.3248;7.2859;
111.6000;0.3362;7.3165;
111.9000;0.3240;7.2765;
112.2000;0.3232;7.2765;
112.5000;0.3215;7.2718;
112.8000;0.3248;7.2812;
113.1000;0.3223;7.2789;
113.4000;0.3150;7.2647;
113.7000;0.3215;7.2859;
114.0000;0.3240;7.2977;
114.3000;0.3256;7.3024;
114.6000;0.3313;7.3141;
114.9000;0.3256;7.3024;
115.2000;0.3248;7.2953;
115.5000;0.3248;7.2977;
115.8000;0.3240;7.2906;
116.1000;0.3305;7.3118;
116.4000;0.3199;7.2812;
116.7000;0.3240;7.2859;
117.0000;0.3240;7.2906;
117.3000;0.3232;7.2859;
117.6000;0.3240;7.2765;
117.9000;0.3256;7.2859;
118.2000;0.3248;7.2836;
118.5000;0.3289;7.2977;
118.8000;0.3248;7.3000;
119.1000;0.3248;7.2953;
119.4000;0.3248;7.3024;
119.7000;0.3248;7.2953;
120.0000;0.3223;7.2906;
120.3000;0.3256;7.2953;
120.6000;0.3248;7.2906;
120.9000;0.3256;7.2953;
121.2000;0.3240;7.2930;
121.5000;0.3223;7.2859;
121.8000;0.3248;7.3047;
122.1000;0.3232;7.3047;
122.4000;0.3256;7.3094;
122.7000;0.3248;7.2977;
123.0000;0.3223;7.2836;
123.3000;0.3232;7.2906;
123.6000;0.3232;7.2953;
123.9000;0.3232;7.2883;
124.2000;0.3280;7.2977;
124.5000;0.3240;7.2953;
124.8000;0.3215;7.2883;
125.1000;0.3256;7.2953;
125.4000;0.3223;7.2859;
125.7000;0.3240;7.2859;
126.0000;0.3232;7.2836;
126.3000;0.3248;7.2812;
126.6000;0.3240;7.2859;
126.9000;0.3248;7.2930;
127.2000;0.3256;7.2883;
127.5000;0.3248;7.2859;
127.8000;0.3256;7.2836;
128.1000;0.3166;7.2718;
128.4000;0.3240;7.2906;
128.7000;0.3199;7.2812;
129.0000;0.3248;7.2953;
129.3000;0.3264;7.3047;
129.6000;0.3207;7.2953;
129.9000;0.3280;7.3165;
130.2000;0.3183;7.3000;
130.5000;0.3215;7.2977;
130.8000;0.3256;7.2883;
131.1000;0.3207;7.2718;
131.4000;0.3264;7.2930;
131.7000;0.3264;7.2836;
132.0000;0.3256;7.2812;
132.3000;0.3256;7.2789;
132.6000;0.3166;7.2741;
132.9000;0.3256;7.3024;
133.2000;0.3166;7.2789;
133.5000;0.3223;7.2930;
133.8000;0.3256;7.2977;
134.1000;0.3272;7.3094;
134.4000;0.3199;7.2906;
134.7000;0.3240;7.2953;
135.0000;0.3256;7.3071;
135.3000;0.3321;7.3282;
135.6000;0.3248;7.3165;
135.9000;0.3297;7.3306;
136.2000;0.3248;7.3118;
136.5000;0.3256;7.3047;
136.8000;0.3183;7.2906;
137.1000;0.3232;7.2977;
137.4000;0.3346;7.3306;
137.7000;0.3232;7.3047;
138.0000;0.3240;7.3118;
138.3000;0.3248;7.3094;
138.6000;0.3240;7.3047;
138.9000;0.3232;7.2953;
139.2000;0.3232;7.2836;
139.5000;0.3215;7.2789;
139.8000;0.3232;7.2906;
140.1000;0.3248;7.2953;
140.4000;0.3207;7.2977;
140.7000;0.3223;7.3000;
141.0000;0.3289;7.3165;
141.3000;0.3248;7.3165;
141.6000;0.3240;7.3024;
141.9000;0.3313;7.3329;
142.2000;0.3240;7.3071;
142.5000;0.3240;7.2930;
142.8000;0.3232;7.2930;
143.1000;0.3248;7.3071;
143.4000;0.3256;7.3118;
143.7000;0.3232;7.3024;
144.0000;0.3256;7.3141;
144.3000;0.3264;7.3118;
144.6000;0.3232;7.2977;
144.9000;0.3256;7.3000;
145.2000;0.3272;7.3047;
145.5000;0.3248;7.3024;
145.8000;0.3223;7.3071;
146.1000;0.3256;7.3118;
146.4000;0.3232;7.3071;
146.7000;0.3240;7.3071;
147.0000;0.3248;7.3071;
147.3000;0.3240;7.3000;
147.6000;0.3240;7.2953;
147.9000;0.3248;7.2906;
148.2000;0.3215;7.2883;
148.5000;0.3248;7.2953;
148.8000;0.3248;7.3000;
149.1000;0.3232;7.2930;
149.4000;0.3215;7.2906;
149.7000;0.3207;7.2883;
150.0000;0.3248;7.3024;
150.3000;0.3175;7.2765;
150.6000;0.3289;7.2906;
150.9000;0.3264;7.2859;
151.2000;0.3248;7.2883;
151.5000;0.3240;7.2906;
151.8000;0.3191;7.2906;
152.1000;0.3223;7.3118;
152.4000;0.3240;7.3235;
152.7000;0.3223;7.3212;
153.0000;0.3240;7.3094;
153.3000;0.3215;7.3071;
153.6000;0.3280;7.3165;
153.9000;0.3248;7.3047;
154.2000;0.3248;7.3071;
154.5000;0.3256;7.3188;
154.8000;0.3248;7.3188;
155.1000;0.3297;7.3259;
155.4000;0.3215;7.3141;
155.7000;0.3256;7.3165;
156.0000;0.3256;7.3094;
156.3000;0.3256;7.3071;
156.6000;0.3240;7.3000;
156.9000;0.3248;7.2930;
157.2000;0.3232;7.2906;
157.5000;0.3248;7.2906;
157.8000;0.3240;7.2883;
158.1000;0.3240;7.2977;
158.4000;0.3240;7.2977;
158.7000;0.3264;7.3071;
159.0000;0.3256;7.3071;
159.3000;0.3248;7.3094;
159.6000;0.3232;7.3024;
159.9000;0.3248;7.2953;
160.2000;0.3256;7.2953;
160.5000;0.3264;7.2906;
160.8000;0.3248;7.2977;
161.1000;0.3256;7.3000;
161.4000;0.3264;7.2953;
161.7000;0.3256;7.2859;
162.0000;0.3248;7.2836;
162.3000;0.3240;7.2836;
162.6000;0.3240;7.2953;
162.9000;0.3248;7.2953;
163.2000;0.3240;7.2836;
163.5000;0.3264;7.2930;
163.8000;0.3264;7.2977;
164.1000;0.3232;7.3000;
164.4000;0.3248;7.3000;
164.7000;0.3232;7.3000;
165.0000;0.3248;7.3071;
165.3000;0.3248;7.3118;
165.6000;0.3256;7.3165;
165.9000;0.3240;7.3047;
166.2000;0.3248;7.3024;
166.5000;0.3191;7.2953;
166.8000;0.3240;7.3118;
167.1000;0.3256;7.3118;
167.4000;0.3232;7.3047;
167.7000;0.3199;7.2906;
168.0000;0.3280;7.3047;
168.3000;0.3248;7.2859;
168.6000;0.3280;7.2930;
168.9000;0.3240;7.2859;
169.2000;0.3272;7.2930;
169.5000;0.3248;7.2812;
169.8000;0.3248;7.2930;
170.1000;0.3232;7.2883;
170.4000;0.3289;7.2883;
170.7000;0.3256;7.2859;
171.0000;0.3223;7.2883;
171.3000;0.3256;7.2883;
171.6000;0.3232;7.2859;
171.9000;0.3248;7.2953;
172.2000;0.3248;7.2906;
172.5000;0.3305;7.3000;
172.8000;0.3240;7.2694;
173.1000;0.3248;7.2647;
173.4000;0.3264;7.2694;
173.7000;0.3256;7.2600;
174.0000;0.3256;7.2694;
174.3000;0.3280;7.2789;
174.6000;0.3215;7.2624;
174.9000;0.3240;7.2765;
175.2000;0.3232;7.2836;
175.5000;0.3256;7.2883;
175.8000;0.3272;7.2906;
176.1000;0.3215;7.2836;
176.4000;0.3256;7.2930;
176.7000;0.3264;7.2906;
177.0000;0.3248;7.2883;
177.3000;0.3256;7.2883;
177.6000;0.3272;7.3000;
177.9000;0.3256;7.2930;
178.2000;0.3248;7.2930;
178.5000;0.3240;7.2836;
178.8000;0.3240;7.2859;
179.1000;0.3248;7.2859;
179.4000;0.3248;7.2953;
179.7000;0.3248;7.2953;
180.0000;0.3240;7.2883;
180.3000;0.3337;7.3094;
180.6000;0.3240;7.2953;
180.9000;0.3248;7.2836;
181.2000;0.3289;7.2977;
181.5000;0.3240;7.2836;
181.8000;0.3264;7.2930;
182.1000;0.3248;7.2883;
182.4000;0.3256;7.2883;
182.7000;0.3240;7.2977;
183.0000;0.3305;7.3141;
183.3000;0.3240;7.2883;
183.6000;0.3297;7.3024;
183.9000;0.3272;7.2859;
184.2000;0.3207;7.2789;
184.5000;0.3264;7.3000;
184.8000;0.3150;7.2741;
185.1000;0.3183;7.2789;
185.4000;0.3223;7.2953;
185.7000;0.3256;7.2883;
186.0000;0.3232;7.2765;
186.3000;0.3240;7.2765;
186.6000;0.3264;7.2812;
186.9000;0.3248;7.2718;
187.2000;0.3223;7.2741;
187.5000;0.3240;7.2765;
187.8000;0.3240;7.2694;
188.1000;0.3240;7.2741;
188.4000;0.3240;7.2694;
188.7000;0.3223;7.2741;
189.0000;0.3223;7.2694;
189.3000;0.3232;7.2718;
189.6000;0.3248;7.2812;
189.9000;0.3248;7.2765;
190.2000;0.3240;7.2812;
190.5000;0.3183;7.2694;
190.8000;0.3256;7.2883;
191.1000;0.3207;7.2789;
191.4000;0.3232;7.2883;
191.7000;0.3248;7.3024;
192.0000;0.3248;7.3071;
192.3000;0.3248;7.3024;
192.6000;0.3264;7.2953;
192.9000;0.3240;7.2906;
193.2000;0.3256;7.2953;
193.5000;0.3232;7.2836;
193.8000;0.3232;7.2859;
194.1000;0.3240;7.2883;
194.4000;0.3240;7.2906;
194.7000;0.3240;7.2883;
195.0000;0.3240;7.2859;
195.3000;0.3223;7.2859;
195.6000;0.3248;7.2977;
195.9000;0.3264;7.3047;
196.2000;0.3232;7.2906;
196.5000;0.3215;7.2883;
196.8000;0.3248;7.2930;
197.1000;0.3248;7.2930;
197.4000;0.3240;7.2883;
197.7000;0.3240;7.2953;
198.0000;0.3240;7.2836;
198.3000;0.3248;7.2836;
198.6000;0.3232;7.2718;
198.9000;0.3256;7.2694;
199.2000;0.3240;7.2647;
199.5000;0.3280;7.2718;
199.8000;0.3248;7.2718;
200.1000;0.3264;7.2718;
200.4000;0.3240;7.2647;
200.7000;0.3256;7.2694;
201.0000;0.3207;7.2530;
201.3000;0.3240;7.2647;
201.6000;0.3248;7.2577;
201.9000;0.3240;7.2624;
202.2000;0.3215;7.2600;
202.5000;0.3264;7.2741;
202.8000;0.3232;7.2647;
203.1000;0.3248;7.2741;
203.4000;0.3264;7.2765;
203.7000;0.3256;7.2647;
204.0000;0.3248;7.2577;
204.3000;0.3248;7.2577;
204.6000;0.3264;7.2530;
204.9000;0.3215;7.2412;
205.2000;0.3240;7.2436;
205.5000;0.3264;7.2553;
205.8000;0.3240;7.2506;
206.1000;0.3264;7.2553;
206.4000;0.3166;7.2295;
206.7000;0.3289;7.2624;
207.0000;0.3199;7.2530;
207.3000;0.3223;7.2624;
207.6000;0.3321;7.2859;
207.9000;0.3289;7.2836;
208.2000;0.3264;7.2859;
208.5000;0.3240;7.2836;
208.8000;0.3248;7.2883;
209.1000;0.3232;7.2930;
209.4000;0.3223;7.2883;
209.7000;0.3248;7.2930;
210.0000;0.3248;7.2765;
210.3000;0.3248;7.2765;
210.6000;0.3240;7.2789;
210.9000;0.3248;7.2741;
211.2000;0.3264;7.2671;
211.5000;0.3232;7.2577;
211.8000;0.3240;7.2741;
212.1000;0.3232;7.2789;
212.4000;0.3248;7.2765;
212.7000;0.3272;7.2741;
213.0000;0.3232;7.2624;
213.3000;0.3248;7.2741;
213.6000;0.3215;7.2671;
213.9000;0.3248;7.2694;
214.2000;0.3248;7.2741;
214.5000;0.3256;7.2694;
214.8000;0.3248;7.2694;
215.1000;0.3256;7.2694;
215.4000;0.3248;7.2647;
215.7000;0.3256;7.2694;
216.0000;0.3240;7.2671;
216.3000;0.3272;7.2718;
216.6000;0.3248;7.2741;
216.9000;0.3248;7.2812;
217.2000;0.3248;7.2883;
217.5000;0.3256;7.2977;
217.8000;0.3223;7.2859;
218.1000;0.3264;7.2836;
218.4000;0.3272;7.2906;
218.7000;0.3223;7.2836;
219.0000;0.3248;7.2789;
219.3000;0.3215;7.2671;
219.6000;0.3264;7.2741;
219.9000;0.3232;7.2718;
220.2000;0.3240;7.2671;
220.5000;0.3199;7.2647;
220.8000;0.3223;7.2718;
221.1000;0.3240;7.2741;
221.4000;0.3240;7.2741;
221.7000;0.3223;7.2624;
222.0000;0.3232;7.2483;
222.3000;0.3280;7.2624;
222.6000;0.3256;7.2553;
222.9000;0.3264;7.2553;
223.2000;0.3232;7.2624;
223.5000;0.3240;7.2647;
223.8000;0.3199;7.2530;
224.1000;0.3337;7.2718;
224.4000;0.3240;7.2459;
224.7000;0.3240;7.2412;
225.0000;0.3256;7.2459;
225.3000;0.3321;7.2671;
225.6000;0.3256;7.2600;
225.9000;0.3256;7.2624;
226.2000;0.3362;7.2836;
226.5000;0.3215;7.2553;
226.8000;0.3207;7.2483;
227.1000;0.3150;7.2295;
227.4000;0.3240;7.2506;
227.7000;0.3232;7.2459;
228.0000;0.3248;7.2506;
228.3000;0.3289;7.2694;
228.6000;0.3256;7.2600;
228.9000;0.3248;7.2647;
229.2000;0.3199;7.2530;
229.5000;0.3256;7.2765;
229.8000;0.3248;7.2718;
230.1000;0.3248;7.2789;
230.4000;0.3183;7.2718;
230.7000;0.3207;7.2812;
231.0000;0.3256;7.2906;
231.3000;0.3232;7.2883;
231.6000;0.3248;7.2836;
231.9000;0.3321;7.3118;
232.2000;0.3289;7.3024;
232.5000;0.3207;7.2859;
232.8000;0.3240;7.2930;
233.1000;0.3199;7.2741;
233.4000;0.3215;7.2789;
233.7000;0.3223;7.2812;
234.0000;0.3183;7.2718;
234.3000;0.3223;7.2765;
234.6000;0.3232;7.2718;
234.9000;0.3223;7.2741;
235.2000;0.3248;7.2883;
235.5000;0.3248;7.2906;
235.8000;0.3264;7.2906;
236.1000;0.3256;7.2906;
236.4000;0.3256;7.2883;
236.7000;0.3248;7.2789;
237.0000;0.3232;7.2765;
237.3000;0.3232;7.2741;
237.6000;0.3256;7.2741;
237.9000;0.3248;7.2765;
238.2000;0.3232;7.2741;
238.5000;0.3256;7.2741;
238.8000;0.3256;7.2765;
239.1000;0.3329;7.2906;
239.4000;0.3264;7.2718;
239.7000;0.3272;7.2718;
240.0000;0.3256;7.2812;
240.3000;0.3264;7.2859;
240.6000;0.3207;7.2718;
240.9000;0.3240;7.2812;
241.2000;0.3248;7.2789;
241.5000;0.3264;7.2741;
241.8000;0.3280;7.2789;
242.1000;0.3248;7.2718;
242.4000;0.3215;7.2718;
242.7000;0.3256;7.2741;
243.0000;0.3264;7.2718;
243.3000;0.3256;7.2694;
243.6000;0.3264;7.2741;
243.9000;0.3280;7.2789;
244.2000;0.3256;7.2812;
244.5000;0.3240;7.2836;
244.8000;0.3240;7.2741;
245.1000;0.3256;7.2765;
245.4000;0.3240;7.2718;
245.7000;0.3215;7.2624;
246.0000;0.3256;7.2694;
246.3000;0.3280;7.2765;
246.6000;0.3256;7.2647;
246.9000;0.3272;7.2694;
247.2000;0.3297;7.2859;
247.5000;0.3248;7.2836;
247.8000;0.3248;7.2859;
248.1000;0.3240;7.2859;
248.4000;0.3248;7.2883;
248.7000;0.3142;7.2671;
249.0000;0.3248;7.2836;
249.3000;0.3223;7.2741;
249.6000;0.3232;7.2836;
249.9000;0.3240;7.2789;
250.2000;0.3175;7.2553;
250.5000;0.3256;7.2624;
250.8000;0.3240;7.2553;
251.1000;0.3223;7.2459;
251.4000;0.3240;7.2530;
251.7000;0.3248;7.2530;
252.0000;0.3256;7.2577;
252.3000;0.3240;7.2577;
252.6000;0.3248;7.2530;
252.9000;0.3248;7.2600;
253.2000;0.3232;7.2530;
253.5000;0.3248;7.2624;
253.8000;0.3264;7.2718;
254.1000;0.3264;7.2671;
254.4000;0.3264;7.2624;
254.7000;0.3256;7.2671;
255.0000;0.3223;7.2600;
255.3000;0.3248;7.2671;
255.6000;0.3272;7.2765;
255.9000;0.3248;7.2671;
256.2000;0.3248;7.2694;
256.5000;0.3232;7.2694;
256.8000;0.3256;7.2741;
257.1000;0.3240;7.2765;
257.4000;0.3232;7.2718;
257.7000;0.3256;7.2624;
258.0000;0.3240;7.2553;
258.3000;0.3240;7.2624;
258.6000;0.3240;7.2741;
258.9000;0.3240;7.2718;
259.2000;0.3240;7.2741;
259.5000;0.3248;7.2741;
259.8000;0.3248;7.2718;
260.1000;0.3232;7.2647;
260.4000;0.3248;7.2789;
260.7000;0.3248;7.2647;
261.0000;0.3248;7.2624;
261.3000;0.3240;7.2577;
261.6000;0.3305;7.2741;
261.9000;0.3256;7.2647;
262.2000;0.3240;7.2718;
262.5000;0.3280;7.2741;
262.8000;0.3248;7.2506;
263.1000;0.3248;7.2506;
263.4000;0.3232;7.2483;
263.7000;0.3207;7.2530;
264.0000;0.3264;7.2624;
264.3000;0.3264;7.2600;
264.6000;0.3183;7.2483;
264.9000;0.3256;7.2671;
265.2000;0.3264;7.2718;
265.5000;0.3248;7.2741;
265.8000;0.3240;7.2694;
266.1000;0.3256;7.2671;
266.4000;0.3207;7.2577;
266.7000;0.3256;7.2647;
267.0000;0.3264;7.2624;
267.3000;0.3166;7.2436;
267.6000;0.3272;7.2694;
267.9000;0.3248;7.2647;
268.2000;0.3256;7.2671;
268.5000;0.3297;7.2741;
268.8000;0.3232;7.2624;
269.1000;0.3248;7.2718;
269.4000;0.3248;7.2765;
269.7000;0.3232;7.2694;
270.0000;0.3248;7.2671;
270.3000;0.3248;7.2741;
270.6000;0.3264;7.2930;
270.9000;0.3264;7.2859;
271.2000;0.3223;7.2741;
271.5000;0.3232;7.2671;
271.8000;0.3248;7.2694;
272.1000;0.3272;7.2765;
272.4000;0.3297;7.2765;
272.7000;0.3248;7.2718;
273.0000;0.3297;7.2718;
273.3000;0.3264;7.2600;
273.6000;0.3256;7.2577;
273.9000;0.3232;7.2600;
274.2000;0.3240;7.2553;
274.5000;0.3232;7.2694;
274.8000;0.3256;7.2883;
275.1000;0.3297;7.2953;
275.4000;0.3329;7.3118;
275.7000;0.3240;7.2906;
276.0000;0.3240;7.2883;
276.3000;0.3248;7.2836;
276.6000;0.3248;7.2812;
276.9000;0.3248;7.2859;
277.2000;0.3248;7.2812;
277.5000;0.3256;7.2789;
277.8000;0.3240;7.2836;
278.1000;0.3248;7.2883;
278.4000;0.3248;7.2906;
278.7000;0.3264;7.2859;
279.0000;0.3240;7.2836;
279.3000;0.3256;7.2812;
279.6000;0.3256;7.2789;
279.9000;0.3240;7.2718;
280.2000;0.3232;7.2671;
280.5000;0.3232;7.2765;
280.8000;0.3223;7.2741;
281.1000;0.3248;7.2812;
281.4000;0.3240;7.2859;
281.7000;0.3272;7.2930;
282.0000;0.3256;7.2812;
282.3000;0.3264;7.2836;
282.6000;0.3207;7.2694;
282.9000;0.3232;7.2859;
283.2000;0.3248;7.2953;
283.5000;0.3256;7.2930;
283.8000;0.3264;7.2859;
284.1000;0.3264;7.2859;
284.4000;0.3248;7.2765;
284.7000;0.3264;7.2836;
285.0000;0.3240;7.2789;
285.3000;0.3272;7.2859;
285.6000;0.3264;7.2789;
285.9000;0.3264;7.2812;
286.2000;0.3272;7.2789;
286.5000;0.3256;7.2741;
286.8000;0.3232;7.2718;
287.1000;0.3256;7.2765;
287.4000;0.3272;7.2812;
287.7000;0.3256;7.2741;
288.0000;0.3256;7.2765;
288.3000;0.3248;7.2836;
288.6000;0.3256;7.2883;
288.9000;0.3248;7.2930;
289.2000;0.3248;7.2953;
289.5000;0.3313;7.3094;
289.8000;0.3256;7.2906;
290.1000;0.3199;7.2741;
290.4000;0.3232;7.2836;
290.7000;0.3280;7.2906;
291.0000;0.3256;7.2883;
291.3000;0.3248;7.2930;
291.6000;0.3264;7.2859;
291.9000;0.3264;7.2765;
292.2000;0.3256;7.2741;
292.5000;0.3272;7.2765;
292.8000;0.3264;7.2741;
293.1000;0.3248;7.2694;
293.4000;0.3256;7.2624;
293.7000;0.3256;7.2671;
294.0000;0.3256;7.2789;
294.3000;0.3256;7.2812;
294.6000;0.3248;7.2812;
294.9000;0.3264;7.2765;
295.2000;0.3256;7.2789;
295.5000;0.3215;7.2671;
295.8000;0.3240;7.2694;
296.1000;0.3248;7.2647;
296.4000;0.3240;7.2694;
296.7000;0.3248;7.2694;
297.0000;0.3223;7.2694;
297.3000;0.3248;7.2718;
297.6000;0.3240;7.2741;
297.9000;0.3248;7.2789;
298.2000;0.3215;7.2765;
298.5000;0.3305;7.2930;
298.8000;0.3240;7.2765;
299.1000;0.3223;7.2741;
299.4000;0.3240;7.2765;
299.7000;0.3248;7.2718;
300.0000;0.3256;7.2789;
300.3000;0.3240;7.2789;
300.6000;0.3199;7.2647;
300.9000;0.3248;7.2718;
301.2000;0.3248;7.2859;
301.5000;0.3264;7.2977;
301.8000;0.3256;7.2953;
302.1000;0.3264;7.2883;
302.4000;0.3264;7.2930;
302.7000;0.3272;7.2977;
303.0000;0.3256;7.2812;
303.3000;0.3248;7.2741;
303.6000;0.3280;7.2812;
303.9000;0.3248;7.2671;
304.2000;0.3272;7.2694;
304.5000;0.3248;7.2647;
304.8000;0.3240;7.2671;
305.1000;0.3264;7.2647;
305.4000;0.3256;7.2671;
305.7000;0.3297;7.2765;
306.0000;0.3248;7.2671;
306.3000;0.3272;7.2718;
306.6000;0.3256;7.2671;
306.9000;0.3264;7.2671;
307.2000;0.3240;7.2671;
307.5000;0.3223;7.2624;
307.8000;0.3264;7.2671;
308.1000;0.3240;7.2577;
308.4000;0.3223;7.2553;
308.7000;0.3232;7.2530;
309.0000;0.3240;7.2412;
309.3000;0.3232;7.2342;
309.6000;0.3256;7.2412;
309.9000;0.3232;7.2436;
310.2000;0.3150;7.2248;
310.5000;0.3240;7.2459;
310.8000;0.3248;7.2436;
311.1000;0.3248;7.2459;
311.4000;0.3272;7.2718;
311.7000;0.3248;7.2765;
312.0000;0.3264;7.2694;
312.3000;0.3207;7.2530;
312.6000;0.3248;7.2671;
312.9000;0.3248;7.2671;
313.2000;0.3256;7.2718;
313.5000;0.3232;7.2577;
313.8000;0.3256;7.2530;
314.1000;0.3248;7.2506;
314.4000;0.3223;7.2530;
314.7000;0.3207;7.2577;
315.0000;0.3248;7.2647;
315.3000;0.3240;7.2624;
315.6000;0.3240;7.2624;
315.9000;0.3240;7.2600;
316.2000;0.3264;7.2718;
316.5000;0.3191;7.2506;
316.8000;0.3175;7.2530;
317.1000;0.3289;7.2789;
317.4000;0.3248;7.2741;
317.7000;0.3256;7.2694;
318.0000;0.3272;7.2671;
318.3000;0.3305;7.2718;
318.6000;0.3256;7.2600;
318.9000;0.3232;7.2600;
319.2000;0.3207;7.2530;
319.5000;0.3256;7.2600;
319.8000;0.3240;7.2553;
320.1000;0.3280;7.2647;
320.4000;0.3207;7.2459;
320.7000;0.3240;7.2530;
321.0000;0.3240;7.2553;
321.3000;0.3175;7.2459;
321.6000;0.3289;7.2718;
321.9000;0.3232;7.2647;
322.2000;0.3223;7.2694;
322.5000;0.3232;7.2789;
322.8000;0.3240;7.2859;
323.1000;0.3240;7.2859;
323.4000;0.3223;7.2812;
323.7000;0.3240;7.2765;
324.0000;0.3240;7.2765;
324.3000;0.3248;7.2859;
324.6000;0.3232;7.2812;
324.9000;0.3248;7.2812;
325.2000;0.3256;7.2812;
325.5000;0.3264;7.2789;
325.8000;0.3240;7.2647;
326.1000;0.3240;7.2671;
326.4000;0.3248;7.2624;
326.7000;0.3256;7.2647;
327.0000;0.3280;7.2718;
327.3000;0.3272;7.2859;
327.6000;0.3256;7.2859;
327.9000;0.3264;7.2883;
328.2000;0.3264;7.2930;
328.5000;0.3248;7.2906;
328.8000;0.3313;7.3118;
329.1000;0.3248;7.2859;
329.4000;0.3240;7.2765;
329.7000;0.3240;7.2836;
330.0000;0.3248;7.2812;
330.3000;0.3264;7.2859;
330.6000;0.3248;7.2718;
330.9000;0.3248;7.2741;
331.2000;0.3232;7.2647;
331.5000;0.3232;7.2624;
331.8000;0.3256;7.2694;
332.1000;0.3248;7.2718;
332.4000;0.3272;7.2883;
332.7000;0.3248;7.2836;
333.0000;0.3264;7.2836;
333.3000;0.3248;7.2859;
333.6000;0.3240;7.2812;
333.9000;0.3207;7.2671;
334.2000;0.3240;7.2671;
334.5000;0.3240;7.2647;
334.8000;0.3240;7.2671;
335.1000;0.3232;7.2765;
335.4000;0.3232;7.2765;
335.7000;0.3232;7.2859;
336.0000;0.3272;7.2906;
336.3000;0.3256;7.2812;
336.6000;0.3256;7.2812;
336.9000;0.3256;7.2859;
337.2000;0.3256;7.2836;
337.5000;0.3248;7.2859;
337.8000;0.3289;7.3071;
338.1000;0.3272;7.2953;
338.4000;0.3272;7.2953;
338.7000;0.3232;7.2836;
339.0000;0.3248;7.2883;
339.3000;0.3248;7.2906;
339.6000;0.3248;7.2953;
339.9000;0.3240;7.2836;
340.2000;0.3280;7.2906;
340.5000;0.3207;7.2718;
340.8000;0.3264;7.2836;
341.1000;0.3199;7.2741;
341.4000;0.3280;7.2883;
341.7000;0.3256;7.2789;
342.0000;0.3264;7.2789;
342.3000;0.3256;7.2765;
342.6000;0.3240;7.2883;
342.9000;0.3280;7.3094;
343.2000;0.3183;7.2765;
343.5000;0.3240;7.2977;
343.8000;0.3256;7.2906;
344.1000;0.3240;7.2883;
344.4000;0.3256;7.2859;
344.7000;0.3256;7.2836;
345.0000;0.3256;7.2836;
345.3000;0.3256;7.2883;
345.6000;0.3248;7.2906;
345.9000;0.3240;7.2906;
346.2000;0.3207;7.2812;
346.5000;0.3256;7.2883;
346.8000;0.3264;7.2836;
347.1000;0.3248;7.2718;
347.4000;0.3256;7.2836;
347.7000;0.3264;7.2883;
348.0000;0.3256;7.2789;
348.3000;0.3248;7.2765;
348.6000;0.3248;7.2741;
348.9000;0.3232;7.2718;
349.2000;0.3264;7.2741;
349.5000;0.3256;7.2906;
349.8000;0.3223;7.2836;
350.1000;0.3256;7.2812;
350.4000;0.3240;7.2859;
350.7000;0.3256;7.2859;
351.0000;0.3264;7.2812;
351.3000;0.3248;7.2836;
351.6000;0.3256;7.2741;
351.9000;0.3256;7.2859;
352.2000;0.3191;7.2812;
352.5000;0.3256;7.2836;
352.8000;0.3248;7.2671;
353.1000;0.3305;7.2883;
353.4000;0.3248;7.2789;
353.7000;0.3223;7.2789;
354.0000;0.3232;7.2789;
354.3000;0.3232;7.2718;
354.6000;0.3264;7.2789;
354.9000;0.3240;7.2765;
355.2000;0.3232;7.2765;
355.5000;0.3297;7.2836;
355.8000;0.3240;7.2647;
356.1000;0.3240;7.2694;
356.4000;0.3305;7.2859;
356.7000;0.3297;7.2789;
357.0000;0.3264;7.2671;
357.3000;0.3223;7.2647;
357.6000;0.3280;7.2812;
357.9000;0.3240;7.2765;
358.2000;0.3199;7.2694;
358.5000;0.3240;7.2859;
358.8000;0.3223;7.2765;
359.1000;0.3215;7.2765;
359.4000;0.3248;7.2906;
359.7000;0.3223;7.2883;
360.0000;0.3256;7.2930;
360.3000;0.3248;7.2836;
360.6000;0.3248;7.2859;
360.9000;0.3256;7.2836;
361.2000;0.3223;7.2789;
361.5000;0.3240;7.2836;
361.8000;0.3240;7.2883;
362.1000;0.3289;7.3000;
362.4000;0.3240;7.2883;
362.7000;0.3191;7.2789;
363.0000;0.3248;7.2977;
363.3000;0.3232;7.2930;
363.6000;0.3329;7.3118;
363.9000;0.3232;7.2812;
364.2000;0.3223;7.2812;
364.5000;0.3248;7.2718;
364.8000;0.3305;7.2883;
365.1000;0.3232;7.2647;
365.4000;0.3232;7.2741;
365.7000;0.3232;7.2741;
366.0000;0.3305;7.3024;
366.3000;0.3240;7.2953;
366.6000;0.3232;7.2930;
366.9000;0.3240;7.2953;
367.2000;0.3248;7.2953;
367.5000;0.3223;7.2953;
367.8000;0.3248;7.3094;
368.1000;0.3232;7.3071;
368.4000;0.3240;7.2953;
368.7000;0.3240;7.2906;
369.0000;0.3248;7.2859;
369.3000;0.3232;7.2812;
369.6000;0.3248;7.2859;
369.9000;0.3264;7.2883;
370.2000;0.3240;7.2812;
370.5000;0.3248;7.2812;
370.8000;0.3248;7.2647;
371.1000;0.3248;7.2647;
371.4000;0.3240;7.2600;
371.7000;0.3240;7.2553;
372.0000;0.3240;7.2577;
372.3000;0.3264;7.2741;
372.6000;0.3264;7.2694;
372.9000;0.3240;7.2671;
373.2000;0.3256;7.2741;
373.5000;0.3240;7.2741;
373.8000;0.3248;7.2859;
374.1000;0.3248;7.2859;
374.4000;0.3248;7.2883;
374.7000;0.3215;7.2859;
375.0000;0.3264;7.2977;
375.3000;0.3264;7.2977;
375.6000;0.3297;7.3094;
375.9000;0.3248;7.2977;
376.2000;0.3297;7.3188;
376.5000;0.3272;7.3141;
376.8000;0.3223;7.2930;
377.1000;0.3240;7.2906;
377.4000;0.3248;7.2836;
377.7000;0.3223;7.2741;
378.0000;0.3256;7.2836;
378.3000;0.3248;7.2836;
378.6000;0.3256;7.2789;
378.9000;0.3305;7.2953;
379.2000;0.3248;7.2812;
379.5000;0.3313;7.2977;
379.8000;0.3215;7.2765;
380.1000;0.3248;7.2906;
380.4000;0.3248;7.2906;
380.7000;0.3207;7.2718;
381.0000;0.3264;7.2812;
381.3000;0.3272;7.2812;
381.6000;0.3264;7.2741;
381.9000;0.3256;7.2718;
382.2000;0.3215;7.2765;
382.5000;0.3248;7.2953;
382.8000;0.3264;7.3047;
383.1000;0.3248;7.3071;
383.4000;0.3264;7.3047;
383.7000;0.3280;7.3071;
384.0000;0.3264;7.2930;
384.3000;0.3264;7.2977;
384.6000;0.3232;7.2859;
384.9000;0.3248;7.2859;
385.2000;0.3264;7.2812;
385.5000;0.3264;7.2789;
385.8000;0.3240;7.2718;
386.1000;0.3240;7.2647;
386.4000;0.3280;7.2718;
386.7000;0.3256;7.2741;
387.0000;0.3272;7.2812;
387.3000;0.3264;7.2789;
387.6000;0.3248;7.2789;
387.9000;0.3280;7.2836;
388.2000;0.3256;7.2789;
388.5000;0.3248;7.2765;
388.8000;0.3297;7.2906;
389.1000;0.3248;7.2859;
389.4000;0.3248;7.2789;
389.7000;0.3248;7.2836;
390.0000;0.3248;7.2883;
390.3000;0.3248;7.2906;
390.6000;0.3207;7.2859;
390.9000;0.3232;7.2859;
391.2000;0.3256;7.2741;
391.5000;0.3248;7.2741;
391.8000;0.3264;7.2836;
392.1000;0.3232;7.2789;
392.4000;0.3232;7.2812;
392.7000;0.3264;7.2812;
393.0000;0.3240;7.2812;
393.3000;0.3264;7.2930;
393.6000;0.3272;7.2977;
393.9000;0.3240;7.2930;
394.2000;0.3248;7.2906;
394.5000;0.3240;7.2789;
394.8000;0.3223;7.2647;
395.1000;0.3240;7.2694;
395.4000;0.3264;7.2765;
395.7000;0.3264;7.2765;
396.0000;0.3240;7.2694;
396.3000;0.3256;7.2718;
396.6000;0.3199;7.2553;
396.9000;0.3264;7.2741;
397.2000;0.3264;7.2718;
397.5000;0.3297;7.2789;
397.8000;0.3264;7.2647;
398.1000;0.3256;7.2530;
398.4000;0.3256;7.2600;
398.7000;0.3240;7.2577;
399.0000;0.3256;7.2647;
399.3000;0.3256;7.2694;
399.6000;0.3272;7.2694;
399.9000;0.3166;7.2530;
400.2000;0.3248;7.2765;
400.5000;0.3199;7.2694;
400.8000;0.3256;7.2812;
401.1000;0.3272;7.2859;
401.4000;0.3272;7.2859;
401.7000;0.3223;7.2859;
402.0000;0.3256;7.2883;
402.3000;0.3248;7.2859;
402.6000;0.3248;7.2789;
402.9000;0.3256;7.2765;
403.2000;0.3240;7.2883;
403.5000;0.3240;7.2859;
403.8000;0.3248;7.2812;
404.1000;0.3248;7.2718;
404.4000;0.3240;7.2741;
404.7000;0.3240;7.2718;
405.0000;0.3240;7.2741;
405.3000;0.3248;7.2836;
405.6000;0.3232;7.2812;
405.9000;0.3256;7.2883;
406.2000;0.3240;7.2836;
406.5000;0.3248;7.3000;
406.8000;0.3264;7.3024;
407.1000;0.3248;7.2977;
407.4000;0.3183;7.2906;
407.7000;0.3248;7.2977;
408.0000;0.3248;7.3047;
408.3000;0.3248;7.3047;
408.6000;0.3232;7.2906;
408.9000;0.3248;7.2906;
409.2000;0.3248;7.2930;
409.5000;0.3264;7.2953;
409.8000;0.3256;7.3024;
410.1000;0.3248;7.3047;
410.4000;0.3256;7.3094;
410.7000;0.3256;7.3071;
411.0000;0.3240;7.3071;
411.3000;0.3297;7.3165;
411.6000;0.3248;7.2977;
411.9000;0.3240;7.3000;
412.2000;0.3232;7.2812;
412.5000;0.3272;7.2812;
412.8000;0.3272;7.2812;
413.1000;0.3313;7.2812;
413.4000;0.3264;7.2694;
413.7000;0.3240;7.2624;
414.0000;0.3232;7.2694;
414.3000;0.3256;7.2741;
414.6000;0.3248;7.2647;
414.9000;0.3240;7.2624;
415.2000;0.3240;7.2624;
415.5000;0.3175;7.2483;
415.8000;0.3248;7.2765;
416.1000;0.3215;7.2883;
416.4000;0.3248;7.2953;
416.7000;0.3248;7.2883;
417.0000;0.3158;7.2765;
417.3000;0.3256;7.2977;
417.6000;0.3223;7.2883;
417.9000;0.3232;7.2836;
418.2000;0.3256;7.2836;
418.5000;0.3248;7.2694;
418.8000;0.3256;7.2741;
419.1000;0.3240;7.2694;
419.4000;0.3248;7.2812;
419.7000;0.3280;7.2836;
420.0000;0.3248;7.2789;
420.3000;0.3240;7.2741;
420.6000;0.3248;7.2812;
420.9000;0.3215;7.2859;
421.2000;0.3264;7.3024;
421.5000;0.3248;7.3094;
421.8000;0.3264;7.3118;
422.1000;0.3256;7.3071;
422.4000;0.3256;7.2953;
422.7000;0.3248;7.2883;
423.0000;0.3248;7.2859;
423.3000;0.3256;7.2812;
423.6000;0.3248;7.2765;
423.9000;0.3150;7.2600;
424.2000;0.3199;7.2694;
424.5000;0.3232;7.2741;
424.8000;0.3175;7.2600;
425.1000;0.3248;7.2812;
425.4000;0.3248;7.2836;
425.7000;0.3240;7.2859;
426.0000;0.3272;7.2953;
426.3000;0.3248;7.2859;
426.6000;0.3272;7.2906;
426.9000;0.3256;7.2953;
427.2000;0.3207;7.2859;
427.5000;0.3264;7.2930;
427.8000;0.3264;7.2906;
428.1000;0.3240;7.2789;
428.4000;0.3240;7.2812;
428.7000;0.3223;7.2789;
429.0000;0.3248;7.2812;
429.3000;0.3223;7.2789;
429.6000;0.3248;7.2836;
429.9000;0.3248;7.2812;
430.2000;0.3191;7.2647;
430.5000;0.3313;7.2930;
430.8000;0.3313;7.2836;
431.1000;0.3232;7.2600;
431.4000;0.3240;7.2671;
431.7000;0.3240;7.2647;
432.0000;0.3232;7.2647;
432.3000;0.3142;7.2506;
432.6000;0.3223;7.2694;
432.9000;0.3248;7.2741;
433.2000;0.3280;7.2741;
433.5000;0.3256;7.2671;
433.8000;0.3321;7.2836;
434.1000;0.3199;7.2506;
434.4000;0.3240;7.2647;
434.7000;0.3264;7.2671;
435.0000;0.3248;7.2671;
435.3000;0.3248;7.2624;
435.6000;0.3232;7.2600;
435.9000;0.3248;7.2624;
436.2000;0.3313;7.2741;
436.5000;0.3256;7.2577;
436.8000;0.3264;7.2647;
437.1000;0.3166;7.2412;
437.4000;0.3207;7.2483;
437.7000;0.3223;7.2389;
438.0000;0.3232;7.2459;
438.3000;0.3248;7.2577;
438.6000;0.3305;7.2718;
438.9000;0.3248;7.2577;
439.2000;0.3248;7.2483;
439.5000;0.3207;7.2365;
439.8000;0.3240;7.2436;
440.1000;0.3264;7.2483;
440.4000;0.3240;7.2600;
440.7000;0.3142;7.2436;
441.0000;0.3240;7.2553;
441.3000;0.3256;7.2600;
441.6000;0.3264;7.2530;
441.9000;0.3240;7.2436;
442.2000;0.3240;7.2459;
442.5000;0.3272;7.2553;
442.8000;0.3280;7.2553;
443.1000;0.3256;7.2530;
443.4000;0.3248;7.2506;
443.7000;0.3289;7.2530;
444.0000;0.3248;7.2389;
444.3000;0.3264;7.2553;
444.6000;0.3240;7.2577;
444.9000;0.3240;7.2624;
445.2000;0.3321;7.2836;
445.5000;0.3207;7.2624;
445.8000;0.3240;7.2718;
446.1000;0.3248;7.2741;
446.4000;0.3232;7.2718;
446.7000;0.3240;7.2836;
447.0000;0.3240;7.2883;
447.3000;0.3232;7.2883;
447.6000;0.3248;7.2883;
447.9000;0.3248;7.2930;
448.2000;0.3191;7.2741;
448.5000;0.3207;7.2718;
448.8000;0.3199;7.2836;
449.1000;0.3248;7.2906;
449.4000;0.3240;7.2906;
449.7000;0.3215;7.2812;
450.0000;0.3240;7.2906;
450.3000;0.3232;7.3024;
450.6000;0.3232;7.3047;
450.9000;0.3248;7.3071;
451.2000;0.3175;7.2930;
451.5000;0.3232;7.3047;
451.8000;0.3232;7.3000;
452.1000;0.3248;7.3024;
452.4000;0.3232;7.2953;
452.7000;0.3256;7.2953;
453.0000;0.3256;7.2977;
453.3000;0.3305;7.3165;
453.6000;0.3297;7.3141;
453.9000;0.3240;7.2953;
454.2000;0.3223;7.2836;
454.5000;0.3223;7.2789;
454.8000;0.3207;7.2765;
455.1000;0.3248;7.2812;
455.4000;0.3240;7.2836;
455.7000;0.3199;7.2789;
456.0000;0.3248;7.2906;
456.3000;0.3223;7.2883;
456.6000;0.3232;7.2930;
456.9000;0.3240;7.2906;
457.2000;0.3248;7.2953;
457.5000;0.3240;7.2836;
457.8000;0.3264;7.2953;
458.1000;0.3248;7.2953;
458.4000;0.3248;7.2930;
458.7000;0.3256;7.2789;
459.0000;0.3240;7.2836;
459.3000;0.3248;7.2906;
459.6000;0.3256;7.2883;
459.9000;0.3232;7.2812;
460.2000;0.3240;7.2836;
460.5000;0.3223;7.2812;
460.8000;0.3248;7.2930;
461.1000;0.3232;7.2930;
461.4000;0.3232;7.2977;
461.7000;0.3240;7.3000;
462.0000;0.3289;7.3000;
462.3000;0.3223;7.2906;
462.6000;0.3199;7.2812;
462.9000;0.3232;7.2883;
463.2000;0.3248;7.2930;
463.5000;0.3232;7.2906;
463.8000;0.3240;7.2812;
464.1000;0.3240;7.2718;
464.4000;0.3248;7.2671;
464.7000;0.3248;7.2671;
465.0000;0.3223;7.2647;
465.3000;0.3240;7.2694;
465.6000;0.3272;7.2789;
465.9000;0.3240;7.2765;
466.2000;0.3223;7.2812;
466.5000;0.3256;7.3000;
466.8000;0.3232;7.2883;
467.1000;0.3240;7.2836;
467.4000;0.3248;7.2765;
467.7000;0.3223;7.2718;
468.0000;0.3256;7.2671;
468.3000;0.3232;7.2671;
468.6000;0.3256;7.2718;
468.9000;0.3207;7.2718;
469.2000;0.3272;7.2812;
469.5000;0.3321;7.2977;
469.8000;0.3175;7.2694;
470.1000;0.3232;7.2812;
470.4000;0.3232;7.2789;
470.7000;0.3175;7.2694;
471.0000;0.3215;7.2836;
471.3000;0.3215;7.2836;
471.6000;0.3240;7.2836;
471.9000;0.3240;7.2930;
472.2000;0.3297;7.3118;
472.5000;0.3223;7.3024;
472.8000;0.3297;7.3094;
473.1000;0.3248;7.2953;
473.4000;0.3264;7.3000;
473.7000;0.3256;7.3024;
474.0000;0.3256;7.2930;
474.3000;0.3256;7.2930;
474.6000;0.3256;7.2859;
474.9000;0.3232;7.2789;
475.2000;0.3223;7.2765;
475.5000;0.3232;7.2836;
475.8000;0.3232;7.2953;
476.1000;0.3223;7.2906;
476.4000;0.3248;7.2953;
476.7000;0.3191;7.2812;
477.0000;0.3248;7.2883;
477.3000;0.3240;7.2906;
477.6000;0.3240;7.2906;
477.9000;0.3256;7.2906;
478.2000;0.3264;7.2977;
478.5000;0.3256;7.2953;
478.8000;0.3215;7.2906;
479.1000;0.3240;7.2930;
479.4000;0.3240;7.2859;
479.7000;0.3248;7.2812;
480.0000;0.3264;7.2741;
480.3000;0.3248;7.2765;
480.6000;0.3256;7.2836;
480.9000;0.3240;7.2741;
481.2000;0.3223;7.2718;
481.5000;0.3264;7.2765;
481.8000;0.3248;7.2694;
482.1000;0.3240;7.2694;
482.4000;0.3240;7.2694;
482.7000;0.3223;7.2600;
483.0000;0.3248;7.2647;
483.3000;0.3264;7.2671;
483.6000;0.3256;7.2647;
483.9000;0.3256;7.2671;
484.2000;0.3248;7.2671;
484.5000;0.3248;7.2718;
484.8000;0.3240;7.2647;
485.1000;0.3248;7.2600;
485.4000;0.3248;7.2577;
485.7000;0.3223;7.2577;
486.0000;0.3248;7.2718;
486.3000;0.3248;7.2718;
486.6000;0.3248;7.2765;
486.9000;0.3240;7.2718;
487.2000;0.3240;7.2671;
487.5000;0.3240;7.2765;
487.8000;0.3248;7.2836;
488.1000;0.3248;7.2836;
488.4000;0.3256;7.2883;
488.7000;0.3248;7.2930;
489.0000;0.3240;7.2883;
489.3000;0.3272;7.2953;
489.6000;0.3264;7.2930;
489.9000;0.3223;7.2836;
490.2000;0.3256;7.2953;
490.5000;0.3232;7.2906;
490.8000;0.3272;7.3000;
491.1000;0.3223;7.2883;
491.4000;0.3223;7.2883;
491.7000;0.3240;7.2883;
492.0000;0.3256;7.2883;
492.3000;0.3256;7.2859;
492.6000;0.3223;7.2836;
492.9000;0.3313;7.3000;
493.2000;0.3248;7.2906;
493.5000;0.3248;7.2906;
493.8000;0.3240;7.2859;
494.1000;0.3215;7.2812;
494.4000;0.3232;7.2765;
494.7000;0.3232;7.2718;
495.0000;0.3280;7.2812;
495.3000;0.3240;7.2694;
495.6000;0.3232;7.2624;
495.9000;0.3248;7.2577;
496.2000;0.3272;7.2600;
496.5000;0.3191;7.2577;
496.8000;0.3248;7.2624;
497.1000;0.3232;7.2506;
497.4000;0.3240;7.2530;
497.7000;0.3240;7.2671;
498.0000;0.3240;7.2671;
498.3000;0.3240;7.2741;
498.6000;0.3248;7.2765;
498.9000;0.3232;7.2671;
499.2000;0.3240;7.2718;
499.5000;0.3240;7.2741;
499.8000;0.3248;7.2883;
500.1000;0.3272;7.2883;
500.4000;0.3232;7.2812;
500.7000;0.3232;7.2718;
501.0000;0.3256;7.2741;
501.3000;0.3232;7.2647;
501.6000;0.3223;7.2647;
501.9000;0.3223;7.2671;
502.2000;0.3248;7.2694;
502.5000;0.3248;7.2671;
502.8000;0.3215;7.2624;
503.1000;0.3240;7.2671;
503.4000;0.3240;7.2741;
503.7000;0.3248;7.2718;
504.0000;0.3232;7.2718;
504.3000;0.3313;7.2883;
504.6000;0.3240;7.2836;
504.9000;0.3280;7.2883;
505.2000;0.3240;7.2765;
505.5000;0.3256;7.2883;
505.8000;0.3232;7.2859;
506.1000;0.3240;7.2836;
506.4000;0.3248;7.2883;
506.7000;0.3248;7.2859;
507.0000;0.3297;7.3024;
507.3000;0.3256;7.2930;
507.6000;0.3248;7.2836;
507.9000;0.3248;7.2694;
508.2000;0.3248;7.2671;
508.5000;0.3256;7.2718;
508.8000;0.3248;7.2647;
509.1000;0.3248;7.2600;
509.4000;0.3215;7.2553;
509.7000;0.3248;7.2624;
510.0000;0.3232;7.2436;
510.3000;0.3256;7.2530;
510.6000;0.3240;7.2483;
510.9000;0.3248;7.2506;
511.2000;0.3232;7.2600;
511.5000;0.3264;7.2624;
511.8000;0.3280;7.2647;
512.1000;0.3175;7.2436;
512.4000;0.3256;7.2718;
512.7000;0.3240;7.2671;
513.0000;0.3256;7.2694;
513.3000;0.3289;7.2812;
513.6000;0.3256;7.2836;
513.9000;0.3232;7.2883;
514.2000;0.3256;7.2930;
514.5000;0.3207;7.2812;
514.8000;0.3248;7.2836;
515.1000;0.3248;7.2741;
515.4000;0.3215;7.2694;
515.7000;0.3321;7.2906;
516.0000;0.3280;7.2765;
516.3000;0.3264;7.2600;
516.6000;0.3264;7.2506;
516.9000;0.3248;7.2506;
517.2000;0.3256;7.2506;
517.5000;0.3223;7.2412;
517.8000;0.3240;7.2483;
518.1000;0.3240;7.2483;
518.4000;0.3248;7.2577;
518.7000;0.3256;7.2671;
519.0000;0.3248;7.2600;
519.3000;0.3248;7.2530;
519.6000;0.3248;7.2506;
519.9000;0.3248;7.2506;
520.2000;0.3297;7.2600;
520.5000;0.3248;7.2506;
520.8000;0.3248;7.2600;
521.1000;0.3248;7.2506;
521.4000;0.3248;7.2553;
521.7000;0.3240;7.2577;
522.0000;0.3264;7.2671;
522.3000;0.3223;7.2671;
522.6000;0.3264;7.2789;
522.9000;0.3264;7.2883;
523.2000;0.3256;7.2883;
523.5000;0.3223;7.2812;
523.8000;0.3256;7.2977;
524.1000;0.3297;7.3047;
524.4000;0.3264;7.2930;
524.7000;0.3329;7.2930;
525.0000;0.3272;7.2812;
525.3000;0.3248;7.2694;
525.6000;0.3240;7.2647;
525.9000;0.3232;7.2789;
526.2000;0.3223;7.2883;
526.5000;0.3256;7.2836;
526.8000;0.3240;7.2694;
527.1000;0.3232;7.2600;
527.4000;0.3223;7.2553;
527.7000;0.3232;7.2624;
528.0000;0.3232;7.2671;
528.3000;0.3232;7.2765;
528.6000;0.3256;7.2765;
528.9000;0.3240;7.2718;
529.2000;0.3240;7.2765;
529.5000;0.3240;7.2694;
529.8000;0.3264;7.2694;
530.1000;0.3215;7.2577;
530.4000;0.3264;7.2600;
530.7000;0.3256;7.2530;
531.0000;0.3248;7.2530;
531.3000;0.3329;7.2694;
531.6000;0.3297;7.2647;
531.9000;0.3232;7.2624;
532.2000;0.3264;7.2694;
532.5000;0.3248;7.2741;
532.8000;0.3232;7.2718;
533.1000;0.3248;7.2741;
533.4000;0.3191;7.2694;
533.7000;0.3240;7.2859;
534.0000;0.3272;7.2883;
534.3000;0.3232;7.2789;
534.6000;0.3305;7.3071;
534.9000;0.3240;7.2883;
535.2000;0.3248;7.2859;
535.5000;0.3264;7.2836;
535.8000;0.3248;7.2789;
536.1000;0.3240;7.2718;
536.4000;0.3272;7.2883;
536.7000;0.3248;7.2836;
537.0000;0.3256;7.2812;
537.3000;0.3256;7.2836;
537.6000;0.3248;7.2694;
537.9000;0.3240;7.2647;
538.2000;0.3240;7.2647;
538.5000;0.3240;7.2600;
538.8000;0.3232;7.2718;
539.1000;0.3256;7.2789;
539.4000;0.3240;7.2812;
539.7000;0.3289;7.2906;
540.0000;0.3207;7.2741;
540.3000;0.3232;7.2859;
540.6000;0.3289;7.2977;
540.9000;0.3175;7.2741;
541.2000;0.3240;7.2859;
541.5000;0.3248;7.2765;
541.8000;0.3232;7.2741;
542.1000;0.3240;7.2741;
542.4000;0.3289;7.2859;
542.7000;0.3240;7.2836;
543.0000;0.3223;7.2930;
543.3000;0.3256;7.2906;
543.6000;0.3240;7.2812;
543.9000;0.3232;7.2789;
544.2000;0.3256;7.2789;
544.5000;0.3329;7.2906;
544.8000;0.3329;7.2977;
545.1000;0.3248;7.2741;
545.4000;0.3321;7.2836;
545.7000;0.3240;7.2647;
546.0000;0.3248;7.2694;
546.3000;0.3297;7.2906;
546.6000;0.3248;7.2836;
546.9000;0.3264;7.2930;
547.2000;0.3215;7.2789;
547.5000;0.3272;7.2883;
547.8000;0.3199;7.2647;
548.1000;0.3264;7.2765;
548.4000;0.3191;7.2624;
548.7000;0.3240;7.2671;
549.0000;0.3240;7.2694;
549.3000;0.3232;7.2718;
549.6000;0.3329;7.3024;
549.9000;0.3264;7.2836;
550.2000;0.3215;7.2741;
550.5000;0.3232;7.2812;
550.8000;0.3240;7.2718;
551.1000;0.3232;7.2671;
551.4000;0.3248;7.2765;
551.7000;0.3232;7.2718;
552.0000;0.3256;7.2741;
552.3000;0.3183;7.2506;
552.6000;0.3183;7.2600;
552.9000;0.3248;7.2765;
553.2000;0.3158;7.2553;
553.5000;0.3199;7.2694;
553.8000;0.3223;7.2812;
554.1000;0.3183;7.2741;
554.4000;0.3264;7.2812;
554.7000;0.3223;7.2718;
555.0000;0.3272;7.2765;
555.3000;0.3313;7.3024;
555.6000;0.3248;7.2789;
555.9000;0.3240;7.2741;
556.2000;0.3256;7.2859;
556.5000;0.3256;7.2930;
556.8000;0.3248;7.2953;
557.1000;0.3256;7.2906;
557.4000;0.3240;7.2859;
557.7000;0.3256;7.2953;
558.0000;0.3248;7.2930;
558.3000;0.3264;7.2953;
558.6000;0.3232;7.2930;
558.9000;0.3240;7.2977;
559.2000;0.3297;7.3118;
559.5000;0.3232;7.2953;
559.8000;0.3256;7.2977;
560.1000;0.3248;7.2977;
560.4000;0.3232;7.2789;
560.7000;0.3248;7.2836;
561.0000;0.3264;7.2859;
561.3000;0.3256;7.2812;
561.6000;0.3223;7.2836;
561.9000;0.3289;7.2977;
562.2000;0.3280;7.2930;
562.5000;0.3256;7.2812;
562.8000;0.3264;7.2789;
563.1000;0.3232;7.2694;
563.4000;0.3232;7.2718;
563.7000;0.3272;7.2906;
564.0000;0.3240;7.2906;
564.3000;0.3223;7.2883;
564.6000;0.3272;7.2930;
564.9000;0.3248;7.2836;
565.2000;0.3272;7.2906;
565.5000;0.3199;7.2836;
565.8000;0.3280;7.3094;
566.1000;0.3256;7.3071;
566.4000;0.3256;7.3024;
566.7000;0.3207;7.2883;
567.0000;0.3223;7.2930;
567.3000;0.3256;7.3000;
567.6000;0.3264;7.3000;
567.9000;0.3248;7.2906;
568.2000;0.3264;7.3024;
568.5000;0.3354;7.3282;
568.8000;0.3240;7.3000;
569.1000;0.3240;7.2953;
569.4000;0.3256;7.2953;
569.7000;0.3248;7.2859;
570.0000;0.3248;7.2741;
570.3000;0.3272;7.2836;
570.6000;0.3272;7.2859;
570.9000;0.3248;7.2812;
571.2000;0.3256;7.2812;
571.5000;0.3264;7.2836;
571.8000;0.3232;7.2836;
572.1000;0.3248;7.2906;
572.4000;0.3248;7.2859;
572.7000;0.3240;7.2789;
573.0000;0.3272;7.2883;
573.3000;0.3256;7.2765;
573.6000;0.3272;7.2789;
573.9000;0.3256;7.2741;
574.2000;0.3215;7.2624;
574.5000;0.3232;7.2624;
574.8000;0.3256;7.2694;
575.1000;0.3248;7.2624;
575.4000;0.3223;7.2600;
575.7000;0.3256;7.2694;
576.0000;0.3256;7.2789;
576.3000;0.3248;7.2836;
576.6000;0.3223;7.2906;
576.9000;0.3248;7.2953;
577.2000;0.3240;7.2953;
577.5000;0.3297;7.3141;
577.8000;0.3289;7.3118;
578.1000;0.3248;7.2906;
578.4000;0.3264;7.2953;
578.7000;0.3240;7.2883;
579.0000;0.3264;7.2859;
579.3000;0.3240;7.2789;
579.6000;0.3248;7.2765;
579.9000;0.3256;7.2789;
580.2000;0.3248;7.2765;
580.5000;0.3256;7.2718;
580.8000;0.3223;7.2624;
581.1000;0.3232;7.2671;
581.4000;0.3248;7.2741;
581.7000;0.3248;7.2741;
582.0000;0.3248;7.2765;
582.3000;0.3232;7.2671;
582.6000;0.3248;7.2671;
582.9000;0.3199;7.2647;
583.2000;0.3199;7.2694;
583.5000;0.3256;7.2812;
583.8000;0.3256;7.2812;
584.1000;0.3248;7.2741;
584.4000;0.3232;7.2741;
584.7000;0.3199;7.2624;
585.0000;0.3215;7.2600;
585.3000;0.3232;7.2624;
585.6000;0.3240;7.2694;
585.9000;0.3232;7.2694;
586.2000;0.3215;7.2741;
586.5000;0.3248;7.2812;
586.8000;0.3264;7.2836;
587.1000;0.3232;7.2812;
587.4000;0.3256;7.2906;
587.7000;0.3126;7.2694;
588.0000;0.3223;7.2906;
588.3000;0.3256;7.2930;
588.6000;0.3272;7.2906;
588.9000;0.3240;7.2765;
589.2000;0.3191;7.2741;
589.5000;0.3240;7.2765;
589.8000;0.3232;7.2577;
590.1000;0.3240;7.2553;
590.4000;0.3232;7.2600;
590.7000;0.3248;7.2671;
591.0000;0.3232;7.2624;
591.3000;0.3215;7.2694;
591.6000;0.3240;7.2765;
591.9000;0.3223;7.2741;
592.2000;0.3183;7.2765;
592.5000;0.3232;7.2836;
592.8000;0.3248;7.2883;
593.1000;0.3256;7.2906;
593.4000;0.3215;7.2812;
593.7000;0.3264;7.2906;
594.0000;0.3248;7.2906;
594.3000;0.3240;7.2953;
594.6000;0.3248;7.2977;
594.9000;0.3232;7.2977;
595.2000;0.3256;7.3071;
595.5000;0.3248;7.2953;
595.8000;0.3223;7.2859;
596.1000;0.3232;7.3024;
596.4000;0.3256;7.3094;
596.7000;0.3223;7.3118;
597.0000;0.3223;7.3071;
597.3000;0.3248;7.3024;
597.6000;0.3240;7.2930;
597.9000;0.3240;7.3000;
598.2000;0.3248;7.3047;
598.5000;0.3232;7.3071;
598.8000;0.3240;7.3071;
599.1000;0.3232;7.3071;
599.4000;0.3232;7.3047;
599.7000;0.3232;7.2930;
600.0000;0.3248;7.2906;
600.3000;0.3232;7.2859;
600.6000;0.3223;7.2812;
600.9000;0.3191;7.2624;
601.2000;0.3207;7.2624;
601.5000;0.3175;7.2506;
601.8000;0.3150;7.2389;
602.1000;0.3101;7.2271;
602.4000;0.3077;7.2177;
602.7000;0.3085;7.2154;
603.0000;0.3044;7.1989;
603.3000;0.3012;7.1824;
603.6000;0.2963;7.1707;
603.9000;0.2979;7.1730;
604.2000;0.2955;7.1660;
604.5000;0.2987;7.1754;
604.8000;0.2930;7.1613;
605.1000;0.2898;7.1472;
605.4000;0.2890;7.1377;
605.7000;0.2873;7.1283;
606.0000;0.2816;7.1072;
606.3000;0.2841;7.1095;
606.6000;0.2890;7.1189;
606.9000;0.2792;7.0907;
607.2000;0.2776;7.0813;
607.5000;0.2743;7.0789;
607.8000;0.2825;7.0907;
608.1000;0.2768;7.0672;
608.4000;0.2759;7.0719;
608.7000;0.2751;7.0766;
609.0000;0.2719;7.0625;
609.3000;0.2727;7.0695;
609.6000;0.2678;7.0413;
609.9000;0.2719;7.0507;
610.2000;0.2702;7.0413;
610.5000;0.2727;7.0531;
610.8000;0.2702;7.0484;
611.1000;0.2662;7.0343;
611.4000;0.2678;7.0390;
611.7000;0.2662;7.0366;
612.0000;0.2629;7.0366;
612.3000;0.2637;7.0390;
612.6000;0.2629;7.0249;
612.9000;0.2686;7.0319;
613.2000;0.2564;7.0107;
613.5000;0.2621;7.0178;
613.8000;0.2605;7.0202;
614.1000;0.2613;7.0319;
614.4000;0.2597;7.0366;
614.7000;0.2580;7.0366;
615.0000;0.2548;7.0272;
615.3000;0.2670;7.0507;
615.6000;0.2556;7.0225;
615.9000;0.2556;7.0225;
616.2000;0.2523;7.0202;
616.5000;0.2523;7.0319;
616.8000;0.2540;7.0319;
617.1000;0.2532;7.0390;
617.4000;0.2523;7.0296;
617.7000;0.2540;7.0249;
618.0000;0.2515;7.0272;
618.3000;0.2523;7.0296;
618.6000;0.2507;7.0249;
618.9000;0.2499;7.0154;
619.2000;0.2499;7.0178;
619.5000;0.2515;7.0319;
619.8000;0.2499;7.0249;
620.1000;0.2491;7.0343;
620.4000;0.2483;7.0319;
620.7000;0.2475;7.0296;
621.0000;0.2475;7.0296;
621.3000;0.2466;7.0390;
621.6000;0.2475;7.0366;
621.9000;0.2442;7.0225;
622.2000;0.2442;7.0202;
622.5000;0.2426;7.0131;
622.8000;0.2442;7.0202;
623.1000;0.2450;7.0202;
623.4000;0.2426;7.0202;
623.7000;0.2418;7.0154;
624.0000;0.2483;7.0343;
624.3000;0.2426;7.0249;
624.6000;0.2426;7.0249;
624.9000;0.2426;7.0107;
625.2000;0.2409;7.0131;
625.5000;0.2418;7.0202;
625.8000;0.2377;7.0249;
626.1000;0.2385;7.0249;
626.4000;0.2385;7.0107;
626.7000;0.2385;7.0084;
627.0000;0.2393;7.0202;
627.3000;0.2377;7.0319;
627.6000;0.2385;7.0343;
627.9000;0.2409;7.0319;
628.2000;0.2385;7.0249;
628.5000;0.2377;7.0202;
628.8000;0.2369;7.0178;
629.1000;0.2377;7.0154;
629.4000;0.2409;7.0202;
629.7000;0.2369;7.0154;
630.0000;0.2344;7.0154;
630.3000;0.2361;7.0202;
630.6000;0.2328;7.0131;
630.9000;0.2295;7.0060;
631.2000;0.2328;7.0060;
631.5000;0.2328;7.0037;
631.8000;0.2328;7.0037;
632.1000;0.2336;7.0013;
632.4000;0.2344;7.0084;
632.7000;0.2320;7.0037;
633.0000;0.2344;7.0060;
633.3000;0.2344;7.0060;
633.6000;0.2320;7.0131;
633.9000;0.2312;7.0154;
634.2000;0.2312;7.0154;
634.5000;0.2295;7.0131;
634.8000;0.2352;7.0178;
635.1000;0.2320;7.0178;
635.4000;0.2304;7.0154;
635.7000;0.2304;7.0107;
636.0000;0.2312;7.0178;
636.3000;0.2206;6.9896;
636.6000;0.2312;7.0154;
636.9000;0.2287;7.0202;
637.2000;0.2328;7.0272;
637.5000;0.2295;7.0107;
637.8000;0.2279;7.0037;
638.1000;0.2271;7.0060;
638.4000;0.2361;7.0225;
638.7000;0.2320;7.0154;
639.0000;0.2247;7.0131;
639.3000;0.2361;7.0460;
639.6000;0.2263;7.0249;
639.9000;0.2271;7.0225;
640.2000;0.2206;7.0013;
640.5000;0.2263;7.0131;
640.8000;0.2271;7.0178;
641.1000;0.2247;7.0107;
641.4000;0.2230;7.0084;
641.7000;0.2247;7.0131;
642.0000;0.2247;7.0084;
642.3000;0.2247;7.0060;
642.6000;0.2230;7.0013;
642.9000;0.2214;6.9896;
643.2000;0.2247;6.9990;
643.5000;0.2271;6.9990;
643.8000;0.2255;6.9990;
644.1000;0.2247;6.9896;
644.4000;0.2214;6.9919;
644.7000;0.2304;7.0107;
645.0000;0.2230;6.9943;
645.3000;0.2230;6.9943;
645.6000;0.2222;6.9990;
645.9000;0.2247;7.0013;
646.2000;0.2247;6.9990;
646.5000;0.2206;6.9919;
646.8000;0.2214;6.9896;
647.1000;0.2263;7.0013;
647.4000;0.2214;6.9943;
647.7000;0.2214;6.9990;
648.0000;0.2230;7.0107;
648.3000;0.2222;7.0084;
648.6000;0.2214;7.0037;
648.9000;0.2182;7.0037;
649.2000;0.2206;7.0178;
649.5000;0.2214;7.0202;
649.8000;0.2214;7.0202;
650.1000;0.2190;7.0107;
650.4000;0.2190;7.0084;
650.7000;0.2263;7.0319;
651.0000;0.2182;7.0037;
651.3000;0.2198;6.9990;
651.6000;0.2190;6.9990;
651.9000;0.2190;7.0013;
652.2000;0.2182;7.0060;
652.5000;0.2125;6.9943;
652.8000;0.2198;7.0249;
653.1000;0.2182;7.0154;
653.4000;0.2182;7.0178;
653.7000;0.2206;7.0249;
654.0000;0.2198;7.0107;
654.3000;0.2190;7.0060;
654.6000;0.2190;7.0202;
654.9000;0.2182;7.0225;
655.2000;0.2173;7.0225;
655.5000;0.2116;7.0013;
655.8000;0.2157;7.0013;
656.1000;0.2214;7.0249;
656.4000;0.2182;7.0178;
656.7000;0.2157;7.0037;
657.0000;0.2157;7.0060;
657.3000;0.2149;6.9990;
657.6000;0.2157;6.9966;
657.9000;0.2198;6.9966;
658.2000;0.2141;6.9872;
658.5000;0.2173;6.9966;
658.8000;0.2165;6.9943;
659.1000;0.2157;6.9943;
659.4000;0.2141;6.9919;
659.7000;0.2157;6.9966;
660.0000;0.2149;7.0037;
660.3000;0.2157;7.0084;
660.6000;0.2141;6.9990;
660.9000;0.2149;6.9966;
661.2000;0.2165;6.9990;
661.5000;0.2173;7.0084;
661.8000;0.2100;6.9896;
662.1000;0.2125;6.9802;
662.4000;0.2157;6.9943;
662.7000;0.2141;6.9755;
663.0000;0.2149;6.9778;
663.3000;0.2157;6.9849;
663.6000;0.2141;6.9849;
663.9000;0.2149;6.9825;
664.2000;0.2149;6.9896;
664.5000;0.2149;6.9849;
664.8000;0.2157;6.9896;
665.1000;0.2141;6.9872;
665.4000;0.2149;6.9872;
665.7000;0.2149;6.9872;
666.0000;0.2125;6.9802;
666.3000;0.2068;6.9731;
666.6000;0.2141;6.9896;
666.9000;0.2133;6.9966;
667.2000;0.2141;7.0037;
667.5000;0.2133;7.0013;
667.8000;0.2141;6.9990;
668.1000;0.2149;7.0060;
668.4000;0.2133;7.0037;
668.7000;0.2149;7.0060;
669.0000;0.2125;7.0037;
669.3000;0.2149;6.9990;
669.6000;0.2076;6.9872;
669.9000;0.2125;7.0154;
670.2000;0.2116;7.0178;
670.5000;0.2125;7.0037;
670.8000;0.2116;7.0060;
671.1000;0.2116;7.0013;
671.4000;0.2125;6.9990;
671.7000;0.2165;7.0107;
672.0000;0.2116;6.9943;
672.3000;0.2108;6.9966;
672.6000;0.2149;7.0084;
672.9000;0.2108;6.9990;
673.2000;0.2125;6.9990;
673.5000;0.2116;7.0037;
673.8000;0.2116;7.0037;
674.1000;0.2141;7.0131;
674.4000;0.2133;7.0060;
674.7000;0.2100;7.0131;
675.0000;0.2125;7.0225;
675.3000;0.2116;7.0131;
675.6000;0.2092;7.0107;
675.9000;0.2092;7.0131;
676.2000;0.2125;7.0131;
676.5000;0.2076;7.0037;
676.8000;0.2108;7.0037;
677.1000;0.2076;6.9990;
677.4000;0.2108;7.0107;
677.7000;0.2125;7.0178;
678.0000;0.2100;7.0013;
678.3000;0.2116;6.9990;
678.6000;0.2092;6.9943;
678.9000;0.2092;6.9990;
679.2000;0.2116;7.0084;
679.5000;0.2068;7.0013;
679.8000;0.2084;7.0060;
680.1000;0.2100;7.0013;
680.4000;0.2068;6.9919;
680.7000;0.2076;6.9943;
681.0000;0.2133;7.0013;
681.3000;0.2125;7.0037;
681.6000;0.2165;7.0249;
681.9000;0.2043;6.9966;
682.2000;0.2084;7.0060;
682.5000;0.2076;7.0060;
682.8000;0.2116;7.0084;
683.1000;0.2108;7.0060;
683.4000;0.2084;7.0060;
683.7000;0.2076;7.0131;
684.0000;0.2076;7.0154;
684.3000;0.2092;7.0084;
684.6000;0.2084;7.0154;
684.9000;0.2076;7.0178;
685.2000;0.2092;7.0202;
685.5000;0.2076;7.0154;
685.8000;0.2084;7.0131;
686.1000;0.2068;7.0154;
686.4000;0.2059;7.0131;
686.7000;0.2068;7.0131;
687.0000;0.2068;7.0084;
687.3000;0.2108;7.0178;
687.6000;0.2092;7.0178;
687.9000;0.2059;7.0107;
688.2000;0.2092;7.0178;
688.5000;0.2100;7.0154;
688.8000;0.2068;7.0037;
689.1000;0.2084;7.0154;
689.4000;0.2141;7.0296;
689.7000;0.2076;7.0084;
690.0000;0.2084;7.0037;
690.3000;0.2068;7.0107;
690.6000;0.2059;7.0107;
690.9000;0.2059;7.0013;
691.2000;0.2076;7.0013;
691.5000;0.2092;7.0107;
691.8000;0.2076;7.0084;
692.1000;0.2059;7.0060;
692.4000;0.2051;7.0013;
692.7000;0.2059;6.9966;
693.0000;0.2059;7.0084;
693.3000;0.2051;7.0154;
693.6000;0.2068;7.0178;
693.9000;0.2068;7.0131;
694.2000;0.2084;7.0084;
694.5000;0.2092;7.0084;
694.8000;0.2108;7.0154;
695.1000;0.2076;7.0107;
695.4000;0.2002;7.0037;
695.7000;0.2059;7.0319;
696.0000;0.2059;7.0272;
696.3000;0.2051;7.0107;
696.6000;0.2051;6.9990;
696.9000;0.2076;7.0060;
697.2000;0.2076;7.0084;
697.5000;0.2149;7.0296;
697.8000;0.2116;7.0178;
698.1000;0.2068;7.0037;
698.4000;0.2059;7.0037;
698.7000;0.2100;7.0225;
699.0000;0.2076;7.0131;
699.3000;0.2068;7.0131;
699.6000;0.2068;7.0225;
699.9000;0.2051;7.0084;
700.2000;0.2027;7.0037;
700.5000;0.2165;7.0366;
700.8000;0.2043;7.0154;
701.1000;0.2084;7.0249;
701.4000;0.2051;7.0131;
701.7000;0.2043;7.0154;
702.0000;0.2051;7.0178;
702.3000;0.2068;7.0225;
702.6000;0.2092;7.0249;
702.9000;0.2076;7.0225;
703.2000;0.2133;7.0319;
703.5000;0.2068;7.0272;
703.8000;0.2035;7.0272;
704.1000;0.2068;7.0296;
704.4000;0.2019;7.0202;
704.7000;0.2051;7.0296;
705.0000;0.2011;7.0249;
705.3000;0.2043;7.0202;
705.6000;0.2100;7.0249;
705.9000;0.2035;7.0154;
706.2000;0.1945;6.9943;
706.5000;0.2043;7.0131;
706.8000;0.2043;7.0037;
707.1000;0.2043;7.0131;
707.4000;0.2092;7.0249;
707.7000;0.2068;7.0154;
708.0000;0.2059;7.0060;
708.3000;0.2043;7.0060;
708.6000;0.2068;7.0084;
708.9000;0.2043;6.9990;
709.2000;0.2068;7.0107;
709.5000;0.2035;7.0060;
709.8000;0.2043;7.0013;
710.1000;0.2011;6.9966;
710.4000;0.2027;6.9943;
710.7000;0.2043;6.9919;
711.0000;0.2035;6.9990;
711.3000;0.2011;7.0013;
711.6000;0.2019;6.9990;
711.9000;0.2027;7.0084;
712.2000;0.2051;7.0107;
712.5000;0.2084;7.0178;
712.8000;0.2019;7.0178;
713.1000;0.2011;7.0225;
713.4000;0.2035;7.0202;
713.7000;0.2011;7.0154;
714.0000;0.2035;7.0343;
714.3000;0.2019;7.0296;
714.6000;0.2011;7.0272;
714.9000;0.2019;7.0225;
715.2000;0.2035;7.0249;
715.5000;0.1986;7.0131;
715.8000;0.2002;7.0178;
716.1000;0.2035;7.0225;
716.4000;0.2051;7.0296;
716.7000;0.2011;7.0202;
717.0000;0.2035;7.0296;
717.3000;0.2051;7.0343;
717.6000;0.2027;7.0296;
717.9000;0.2027;7.0272;
718.2000;0.2019;7.0249;
718.5000;0.1937;7.0013;
718.8000;0.2027;7.0249;
719.1000;0.2035;7.0296;
719.4000;0.2011;7.0202;
719.7000;0.2019;7.0272;
720.0000;0.1962;7.0107;
720.3000;0.2002;7.0249;
720.6000;0.2043;7.0343;
720.9000;0.1994;7.0202;
721.2000;0.2011;7.0154;
721.5000;0.1986;7.0037;
721.8000;0.2002;7.0037;
722.1000;0.2043;7.0060;
722.4000;0.2002;7.0060;
722.7000;0.1986;7.0178;
723.0000;0.2027;7.0296;
723.3000;0.2019;7.0272;
723.6000;0.2011;7.0178;
723.9000;0.2051;7.0319;
724.2000;0.2043;7.0343;
724.5000;0.2027;7.0249;
724.8000;0.2035;7.0249;
725.1000;0.2051;7.0343;
725.4000;0.2019;7.0272;
725.7000;0.2035;7.0272;
726.0000;0.2035;7.0202;
726.3000;0.2043;7.0272;
726.6000;0.2019;7.0225;
726.9000;0.2011;7.0272;
727.2000;0.2035;7.0249;
727.5000;0.2027;7.0296;
727.8000;0.2084;7.0507;
728.1000;0.2002;7.0272;
728.4000;0.2019;7.0366;
728.7000;0.2027;7.0366;
729.0000;0.1978;7.0202;
729.3000;0.2011;7.0225;
729.6000;0.2027;7.0319;
729.9000;0.2035;7.0437;
730.2000;0.2027;7.0437;
730.5000;0.2002;7.0296;
730.8000;0.1994;7.0225;
731.1000;0.2019;7.0202;
731.4000;0.2011;7.0107;
731.7000;0.2002;7.0060;
732.0000;0.1978;6.9966;
732.3000;0.2035;7.0037;
732.6000;0.2011;7.0013;
732.9000;0.1994;6.9990;
733.2000;0.2002;7.0107;
733.5000;0.2019;7.0249;
733.8000;0.1986;7.0107;
734.1000;0.1994;7.0178;
734.4000;0.1978;7.0060;
734.7000;0.1994;7.0084;
735.0000;0.2051;7.0202;
735.3000;0.2011;7.0154;
735.6000;0.2027;7.0154;
735.9000;0.2011;7.0272;
736.2000;0.1994;7.0202;
736.5000;0.2084;7.0531;
736.8000;0.2027;7.0413;
737.1000;0.1994;7.0413;
737.4000;0.1994;7.0319;
737.7000;0.1994;7.0249;
738.0000;0.1978;7.0225;
738.3000;0.2002;7.0296;
738.6000;0.2011;7.0296;
738.9000;0.1970;7.0154;
739.2000;0.1986;7.0225;
739.5000;0.1954;7.0154;
739.8000;0.2002;7.0225;
740.1000;0.1994;7.0225;
740.4000;0.2011;7.0296;
740.7000;0.1986;7.0272;
741.0000;0.2002;7.0272;
741.3000;0.1970;7.0225;
741.6000;0.2051;7.0460;
741.9000;0.1970;7.0390;
742.2000;0.2002;7.0390;
742.5000;0.1994;7.0366;
742.8000;0.1945;7.0225;
743.1000;0.1994;7.0343;
743.4000;0.2002;7.0413;
743.7000;0.1994;7.0366;
744.0000;0.2059;7.0578;
744.3000;0.2002;7.0437;
744.6000;0.2011;7.0437;
744.9000;0.1994;7.0413;
745.2000;0.2068;7.0554;
745.5000;0.1994;7.0343;
745.8000;0.1986;7.0296;
746.1000;0.2011;7.0390;
746.4000;0.2019;7.0390;
746.7000;0.2002;7.0319;
747.0000;0.2043;7.0437;
747.3000;0.1986;7.0343;
747.6000;0.1994;7.0413;
747.9000;0.1978;7.0437;
748.2000;0.1962;7.0460;
748.5000;0.1986;7.0437;
748.8000;0.1978;7.0413;
749.1000;0.1986;7.0390;
749.4000;0.1986;7.0413;
749.7000;0.1986;7.0437;
750.0000;0.1986;7.0413;
750.3000;0.1986;7.0390;
750.6000;0.1986;7.0390;
750.9000;0.1970;7.0413;
751.2000;0.1986;7.0437;
751.5000;0.1978;7.0484;
751.8000;0.1962;7.0484;
752.1000;0.1978;7.0460;
752.4000;0.1986;7.0343;
752.7000;0.1994;7.0437;
753.0000;0.1962;7.0343;
753.3000;0.1962;7.0249;
753.6000;0.1978;7.0366;
753.9000;0.2002;7.0460;
754.2000;0.1978;7.0460;
754.5000;0.1994;7.0413;
754.8000;0.2035;7.0578;
755.1000;0.2043;7.0554;
755.4000;0.2027;7.0460;
755.7000;0.1962;7.0390;
756.0000;0.1954;7.0413;
756.3000;0.1970;7.0437;
756.6000;0.2043;7.0672;
756.9000;0.1954;7.0437;
757.2000;0.1986;7.0460;
757.5000;0.1954;7.0413;
757.8000;0.2043;7.0554;
758.1000;0.1986;7.0437;
758.4000;0.1978;7.0484;
758.7000;0.1994;7.0578;
759.0000;0.1978;7.0554;
759.3000;0.1970;7.0601;
759.6000;0.1978;7.0554;
759.9000;0.1986;7.0578;
760.2000;0.2002;7.0672;
760.5000;0.1954;7.0531;
760.8000;0.1986;7.0437;
761.1000;0.1970;7.0460;
761.4000;0.1970;7.0484;
761.7000;0.1986;7.0578;
762.0000;0.1945;7.0484;
762.3000;0.2002;7.0625;
762.6000;0.1929;7.0554;
762.9000;0.1970;7.0507;
763.2000;0.1970;7.0554;
763.5000;0.1962;7.0625;
763.8000;0.1929;7.0507;
764.1000;0.1954;7.0531;
764.4000;0.1962;7.0531;
764.7000;0.1962;7.0554;
765.0000;0.1970;7.0531;
765.3000;0.2011;7.0507;
765.6000;0.2019;7.0578;
765.9000;0.2011;7.0531;
766.2000;0.1970;7.0554;
766.5000;0.1994;7.0672;
766.8000;0.1978;7.0625;
767.1000;0.1962;7.0578;
767.4000;0.1945;7.0554;
767.7000;0.1954;7.0625;
768.0000;0.1937;7.0578;
768.3000;0.1945;7.0601;
768.6000;0.1986;7.0672;
768.9000;0.1986;7.0766;
769.2000;0.1970;7.0648;
769.5000;0.1970;7.0625;
769.8000;0.1970;7.0648;
770.1000;0.1954;7.0531;
770.4000;0.1978;7.0601;
770.7000;0.1978;7.0484;
771.0000;0.1929;7.0343;
771.3000;0.1970;7.0460;
771.6000;0.2011;7.0460;
771.9000;0.1970;7.0366;
772.2000;0.2002;7.0507;
772.5000;0.1962;7.0413;
772.8000;0.1978;7.0413;
773.1000;0.1986;7.0413;
773.4000;0.1970;7.0366;
773.7000;0.1921;7.0296;
774.0000;0.1986;7.0437;
774.3000;0.1962;7.0437;
774.6000;0.1954;7.0460;
774.9000;0.1986;7.0601;
775.2000;0.1937;7.0507;
775.5000;0.2043;7.0695;
775.8000;0.2051;7.0789;
776.1000;0.2027;7.0672;
776.4000;0.1962;7.0601;
776.7000;0.1978;7.0531;
777.0000;0.1962;7.0601;
777.3000;0.1970;7.0601;
777.6000;0.1962;7.0695;
777.9000;0.1978;7.0766;
778.2000;0.1872;7.0625;
778.5000;0.1970;7.0789;
778.8000;0.1962;7.0766;
779.1000;0.1945;7.0719;
779.4000;0.1905;7.0695;
779.7000;0.1962;7.0766;
780.0000;0.1962;7.0742;
780.3000;0.1978;7.0789;
780.6000;0.1986;7.0813;
780.9000;0.1970;7.0884;
781.2000;0.1945;7.0837;
781.5000;0.1913;7.0672;
781.8000;0.1970;7.0860;
782.1000;0.1970;7.0884;
782.4000;0.1962;7.0837;
782.7000;0.1962;7.0837;
783.0000;0.1962;7.0789;
783.3000;0.1962;7.0766;
783.6000;0.1970;7.0789;
783.9000;0.1978;7.0789;
784.2000;0.1970;7.0742;
784.5000;0.1994;7.0766;
784.8000;0.1929;7.0625;
785.1000;0.1970;7.0742;
785.4000;0.1954;7.0695;
785.7000;0.1978;7.0742;
786.0000;0.1970;7.0766;
786.3000;0.1970;7.0789;
786.6000;0.1962;7.0719;
786.9000;0.1970;7.0766;
787.2000;0.1937;7.0860;
787.5000;0.1962;7.0954;
787.8000;0.1954;7.0789;
788.1000;0.1945;7.0766;
788.4000;0.1945;7.0789;
788.7000;0.1888;7.0625;
789.0000;0.1937;7.0742;
789.3000;0.1945;7.0860;
789.6000;0.1913;7.0884;
789.9000;0.1937;7.1001;
790.2000;0.1970;7.1072;
790.5000;0.1945;7.0954;
790.8000;0.1986;7.0954;
791.1000;0.1986;7.0954;
791.4000;0.1954;7.0907;
791.7000;0.1994;7.0954;
792.0000;0.1954;7.0837;
792.3000;0.1978;7.0884;
792.6000;0.1962;7.0742;
792.9000;0.2011;7.0860;
793.2000;0.1970;7.0742;
793.5000;0.1945;7.0719;
793.8000;0.1945;7.0719;
794.1000;0.1929;7.0719;
794.4000;0.1962;7.0813;
794.7000;0.1945;7.0789;
795.0000;0.2011;7.0978;
795.3000;0.1978;7.0884;
795.6000;0.1970;7.0837;
795.9000;0.2011;7.0860;
796.2000;0.1954;7.0766;
796.5000;0.1970;7.0860;
796.8000;0.1962;7.0837;
797.1000;0.1897;7.0625;
797.4000;0.1937;7.0719;
797.7000;0.1880;7.0507;
798.0000;0.1954;7.0719;
798.3000;0.1970;7.0742;
798.6000;0.1954;7.0648;
798.9000;0.1970;7.0719;
799.2000;0.1970;7.0813;
799.5000;0.1970;7.0742;
799.8000;0.1970;7.0742;
800.1000;0.1945;7.0719;
800.4000;0.1937;7.0695;
800.7000;0.1962;7.0695;
801.0000;0.1954;7.0648;
801.3000;0.1929;7.0625;
801.6000;0.1962;7.0672;
801.9000;0.1937;7.0648;
802.2000;0.1937;7.0578;
802.5000;0.1954;7.0742;
802.8000;0.1937;7.0719;
803.1000;0.1937;7.0742;
803.4000;0.1937;7.0719;
803.7000;0.1970;7.0766;
804.0000;0.1945;7.0625;
804.3000;0.1945;7.0719;
804.6000;0.1954;7.0789;
804.9000;0.1937;7.0789;
805.2000;0.1945;7.0766;
805.5000;0.1945;7.0789;
805.8000;0.1937;7.0766;
806.1000;0.1921;7.0672;
806.4000;0.1945;7.0719;
806.7000;0.1945;7.0672;
807.0000;0.1962;7.0789;
807.3000;0.1954;7.0766;
807.6000;0.1954;7.0695;
807.9000;0.1945;7.0578;
808.2000;0.1954;7.0601;
808.5000;0.2019;7.0789;
808.8000;0.1954;7.0625;
809.1000;0.1986;7.0695;
809.4000;0.1937;7.0672;
809.7000;0.1970;7.0789;
810.0000;0.1945;7.0766;
810.3000;0.1945;7.0766;
810.6000;0.1864;7.0625;
810.9000;0.1954;7.0884;
811.2000;0.1937;7.0813;
811.5000;0.1929;7.0789;
811.8000;0.1937;7.0860;
812.1000;0.1929;7.0813;
812.4000;0.1929;7.0860;
812.7000;0.1921;7.0766;
813.0000;0.1921;7.0719;
813.3000;0.1937;7.0766;
813.6000;0.1986;7.0813;
813.9000;0.1937;7.0625;
814.2000;0.1897;7.0531;
814.5000;0.1937;7.0625;
814.8000;0.1954;7.0695;
815.1000;0.1986;7.0837;
815.4000;0.1945;7.0789;
815.7000;0.1945;7.0813;
816.0000;0.1954;7.0860;
816.3000;0.1905;7.0766;
816.6000;0.1864;7.0601;
816.9000;0.1913;7.0695;
817.2000;0.1921;7.0695;
817.5000;0.1937;7.0837;
817.8000;0.1937;7.0860;
818.1000;0.1945;7.0954;
818.4000;0.1954;7.0907;
818.7000;0.1970;7.1025;
819.0000;0.1937;7.1001;
819.3000;0.1937;7.1095;
819.6000;0.1978;7.1025;
819.9000;0.1962;7.1001;
820.2000;0.1905;7.0954;
820.5000;0.1954;7.1048;
820.8000;0.1954;7.1001;
821.1000;0.1945;7.1048;
821.4000;0.1970;7.1072;
821.7000;0.1937;7.1025;
822.0000;0.1945;7.0931;
822.3000;0.2002;7.1119;
822.6000;0.1937;7.1048;
822.9000;0.1921;7.1142;
823.2000;0.1929;7.1166;
823.5000;0.1954;7.1142;
823.8000;0.1945;7.1072;
824.1000;0.1954;7.1048;
824.4000;0.1937;7.1048;
824.7000;0.1945;7.1072;
825.0000;0.1913;7.1025;
825.3000;0.1929;7.1025;
825.6000;0.1954;7.1001;
825.9000;0.1962;7.1001;
826.2000;0.1937;7.0907;
826.5000;0.1954;7.1001;
826.8000;0.1945;7.1025;
827.1000;0.1913;7.1048;
827.4000;0.1962;7.1119;
827.7000;0.1945;7.1072;
828.0000;0.1937;7.1072;
828.3000;0.1962;7.1001;
828.6000;0.1945;7.1001;
828.9000;0.1962;7.0978;
829.2000;0.1962;7.0884;
829.5000;0.1945;7.0907;
829.8000;0.1929;7.0978;
830.1000;0.1945;7.0954;
830.4000;0.1970;7.1001;
830.7000;0.1945;7.0931;
831.0000;0.1954;7.0931;
831.3000;0.1921;7.0907;
831.6000;0.1970;7.1025;
831.9000;0.1937;7.0954;
832.2000;0.1945;7.0978;
832.5000;0.1945;7.0954;
832.8000;0.1921;7.0837;
833.1000;0.1962;7.0907;
833.4000;0.1937;7.0837;
833.7000;0.1913;7.0742;
834.0000;0.1929;7.0860;
834.3000;0.1905;7.0813;
834.6000;0.1962;7.0884;
834.9000;0.2011;7.1048;
835.2000;0.1937;7.0884;
835.5000;0.1962;7.0907;
835.8000;0.1945;7.0860;
836.1000;0.1945;7.0813;
836.4000;0.1945;7.0766;
836.7000;0.1962;7.0766;
837.0000;0.1937;7.0789;
837.3000;0.1937;7.0860;
837.6000;0.1905;7.0884;
837.9000;0.1962;7.1048;
838.2000;0.1945;7.1048;
838.5000;0.1929;7.1048;
838.8000;0.1945;7.1072;
839.1000;0.1945;7.1072;
839.4000;0.1962;7.1142;
839.7000;0.1937;7.1119;
840.0000;0.1872;7.0978;
840.3000;0.1954;7.1119;
840.6000;0.1937;7.1095;
840.9000;0.1962;7.1142;
841.2000;0.1954;7.1095;
841.5000;0.1945;7.1095;
841.8000;0.1962;7.1072;
842.1000;0.1954;7.1048;
842.4000;0.1945;7.1072;
842.7000;0.1945;7.1048;
843.0000;0.1913;7.0978;
843.3000;0.1945;7.0978;
843.6000;0.1937;7.0978;
843.9000;0.1954;7.1048;
844.2000;0.1954;7.1048;
844.5000;0.1945;7.1072;
844.8000;0.1937;7.0907;
845.1000;0.1937;7.0954;
845.4000;0.1978;7.1048;
845.7000;0.1954;7.0931;
846.0000;0.1945;7.0813;
846.3000;0.1921;7.0742;
846.6000;0.1937;7.0813;
846.9000;0.1978;7.0907;
847.2000;0.1994;7.1048;
847.5000;0.1970;7.1025;
847.8000;0.1937;7.0954;
848.1000;0.1929;7.1048;
848.4000;0.1929;7.1001;
848.7000;0.1937;7.0978;
849.0000;0.1945;7.1001;
849.3000;0.1945;7.1001;
849.6000;0.1954;7.1001;
849.9000;0.1954;7.1048;
850.2000;0.1945;7.1072;
850.5000;0.1888;7.1001;
850.8000;0.1954;7.1142;
851.1000;0.1954;7.1095;
851.4000;0.1937;7.1142;
851.7000;0.1954;7.1189;
852.0000;0.1962;7.1166;
852.3000;0.2002;7.1236;
852.6000;0.1929;7.0978;
852.9000;0.1945;7.1025;
853.2000;0.1945;7.1048;
853.5000;0.1937;7.1119;
853.8000;0.1978;7.1142;
854.1000;0.1954;7.1072;
854.4000;0.1954;7.1048;
854.7000;0.1954;7.0978;
855.0000;0.1954;7.1025;
855.3000;0.1929;7.1048;
855.6000;0.1962;7.1166;
855.9000;0.1921;7.1025;
856.2000;0.1937;7.1072;
856.5000;0.1929;7.1025;
856.8000;0.1945;7.1119;
857.1000;0.1937;7.1072;
857.4000;0.1937;7.1048;
857.7000;0.1978;7.1072;
858.0000;0.1937;7.0954;
858.3000;0.1978;7.0978;
858.6000;0.1994;7.0931;
858.9000;0.1954;7.0884;
859.2000;0.1962;7.0884;
859.5000;0.1945;7.0907;
859.8000;0.1888;7.0766;
860.1000;0.1945;7.0884;
860.4000;0.1937;7.0931;
860.7000;0.1921;7.0884;
861.0000;0.1945;7.0931;
861.3000;0.1937;7.1025;
861.6000;0.1978;7.1095;
861.9000;0.2035;7.1166;
862.2000;0.1945;7.0837;
862.5000;0.1945;7.0789;
862.8000;0.1929;7.0789;
863.1000;0.1921;7.0695;
863.4000;0.1937;7.0766;
863.7000;0.1945;7.0884;
864.0000;0.1921;7.0884;
864.3000;0.1888;7.0813;
864.6000;0.1945;7.0954;
864.9000;0.1921;7.0884;
865.2000;0.1962;7.0907;
865.5000;0.1929;7.0766;
865.8000;0.1954;7.0789;
866.1000;0.1937;7.0813;
866.4000;0.1945;7.0907;
866.7000;0.1929;7.0907;
867.0000;0.1937;7.1025;
867.3000;0.1929;7.1095;
867.6000;0.1905;7.1001;
867.9000;0.1970;7.1189;
868.2000;0.1872;7.0884;
868.5000;0.1978;7.1260;
868.8000;0.1937;7.1119;
869.1000;0.1929;7.1025;
869.4000;0.1913;7.1048;
869.7000;0.1962;7.1189;
870.0000;0.2035;7.1377;
870.3000;0.1921;7.1025;
870.6000;0.1913;7.0954;
870.9000;0.1905;7.0954;
871.2000;0.1945;7.1048;
871.5000;0.1921;7.0954;
871.8000;0.1978;7.1048;
872.1000;0.1921;7.1001;
872.4000;0.1929;7.1001;
872.7000;0.1921;7.0884;
873.0000;0.1905;7.0813;
873.3000;0.1880;7.0719;
873.6000;0.1921;7.0931;
873.9000;0.1937;7.0907;
874.2000;0.1929;7.0860;
874.5000;0.1954;7.0907;
874.8000;0.1945;7.0907;
875.1000;0.1937;7.0907;
875.4000;0.1921;7.0884;
875.7000;0.1929;7.0978;
876.0000;0.1913;7.0978;
876.3000;0.1970;7.1189;
876.6000;0.1937;7.1025;
876.9000;0.1937;7.1048;
877.2000;0.1937;7.1095;
877.5000;0.1929;7.1072;
877.8000;0.1921;7.1025;
878.1000;0.1929;7.1001;
878.4000;0.1945;7.0931;
878.7000;0.1945;7.1001;
879.0000;0.1929;7.0954;
879.3000;0.1929;7.0931;
879.6000;0.1913;7.0978;
879.9000;0.1962;7.0978;
880.2000;0.1921;7.0719;
880.5000;0.1897;7.0695;
880.8000;0.1921;7.0837;
881.1000;0.1929;7.0695;
881.4000;0.1929;7.0672;
881.7000;0.1905;7.0695;
882.0000;0.1929;7.0695;
882.3000;0.1945;7.0695;
882.6000;0.1954;7.0789;
882.9000;0.1954;7.0837;
883.2000;0.1929;7.0837;
883.5000;0.1921;7.0931;
883.8000;0.1929;7.0860;
884.1000;0.1929;7.0931;
884.4000;0.1978;7.1048;
884.7000;0.1897;7.1001;
885.0000;0.1945;7.1095;
885.3000;0.1913;7.1072;
885.6000;0.1945;7.1025;
885.9000;0.1921;7.0907;
886.2000;0.1913;7.0837;
886.5000;0.1921;7.0907;
886.8000;0.1872;7.0813;
887.1000;0.1937;7.0907;
887.4000;0.1937;7.0860;
887.7000;0.1978;7.0954;
888.0000;0.1905;7.0884;
888.3000;0.1913;7.0837;
888.6000;0.1905;7.0860;
888.9000;0.1937;7.0884;
889.2000;0.1937;7.0837;
889.5000;0.1929;7.0695;
889.8000;0.1913;7.0648;
890.1000;0.1905;7.0625;
890.4000;0.1921;7.0578;
890.7000;0.1962;7.0766;
891.0000;0.1945;7.0695;
891.3000;0.1945;7.0625;
891.6000;0.1994;7.0742;
891.9000;0.1921;7.0554;
892.2000;0.1945;7.0672;
892.5000;0.1970;7.0742;
892.8000;0.1929;7.0789;
893.1000;0.1888;7.0742;
893.4000;0.1921;7.0907;
893.7000;0.1897;7.0954;
894.0000;0.1978;7.1001;
894.3000;0.1929;7.0837;
894.6000;0.1929;7.0884;
894.9000;0.1937;7.0978;
895.2000;0.1929;7.1025;
895.5000;0.1921;7.0884;
895.8000;0.1921;7.0837;
896.1000;0.1888;7.0695;
896.4000;0.1954;7.0837;
896.7000;0.1905;7.0742;
897.0000;0.1913;7.0742;
897.3000;0.1888;7.0695;
897.6000;0.1913;7.0766;
897.9000;0.1929;7.0884;
898.2000;0.1921;7.0860;
898.5000;0.1848;7.0719;
898.8000;0.1945;7.0884;
899.1000;0.1905;7.0837;
899.4000;0.1937;7.0931;
899.7000;0.1937;7.0884;
900.0000;0.1913;7.0884;
900.3000;0.1929;7.0931;
900.6000;0.1905;7.0884;
900.9000;0.1888;7.0742;
901.2000;0.1929;7.0766;
901.5000;0.1937;7.0719;
901.8000;0.1937;7.0766;
902.1000;0.1929;7.0884;
902.4000;0.1929;7.0860;
902.7000;0.1937;7.0978;
903.0000;0.1929;7.0954;
903.3000;0.1905;7.1001;
903.6000;0.1913;7.1001;
903.9000;0.1929;7.1001;
904.2000;0.1921;7.0978;
904.5000;0.1913;7.0931;
904.8000;0.1921;7.1025;
905.1000;0.1921;7.1095;
905.4000;0.1945;7.1142;
905.7000;0.1905;7.1048;
906.0000;0.1921;7.1048;
906.3000;0.1897;7.1048;
906.6000;0.1897;7.1048;
906.9000;0.1921;7.1048;
907.2000;0.1913;7.0931;
907.5000;0.1888;7.0860;
907.8000;0.1913;7.0954;
908.1000;0.1921;7.1095;
908.4000;0.1905;7.1001;
908.7000;0.1921;7.1001;
909.0000;0.1937;7.1095;
909.3000;0.1954;7.1072;
909.6000;0.1945;7.1166;
909.9000;0.1937;7.1072;
910.2000;0.1921;7.1025;
910.5000;0.1937;7.1025;
910.8000;0.1921;7.0954;
911.1000;0.1897;7.0907;
911.4000;0.1913;7.1001;
911.7000;0.1929;7.1001;
912.0000;0.1921;7.0954;
912.3000;0.1937;7.0931;
912.6000;0.1929;7.0954;
912.9000;0.1921;7.0978;
913.2000;0.1888;7.0931;
913.5000;0.1897;7.0931;
913.8000;0.1913;7.1025;
914.1000;0.1962;7.1072;
914.4000;0.1929;7.0907;
914.7000;0.1832;7.0719;
915.0000;0.1921;7.0907;
915.3000;0.1921;7.0860;
915.6000;0.2011;7.1072;
915.9000;0.1921;7.0884;
916.2000;0.1921;7.0789;
916.5000;0.1897;7.0601;
916.8000;0.1913;7.0648;
917.1000;0.1856;7.0507;
917.4000;0.1913;7.0719;
917.7000;0.1905;7.0742;
918.0000;0.1921;7.0719;
918.3000;0.1856;7.0625;
918.6000;0.1905;7.0789;
918.9000;0.1913;7.0931;
919.2000;0.1905;7.0907;
919.5000;0.1921;7.1048;
919.8000;0.1897;7.0954;
920.1000;0.1937;7.1025;
920.4000;0.1897;7.1025;
920.7000;0.2002;7.1142;
921.0000;0.1913;7.0837;
921.3000;0.1978;7.0978;
921.6000;0.1905;7.0648;
921.9000;0.1921;7.0695;
922.2000;0.1937;7.0672;
922.5000;0.1945;7.0719;
922.8000;0.1913;7.0625;
923.1000;0.1962;7.0672;
923.4000;0.1921;7.0648;
923.7000;0.1913;7.0719;
924.0000;0.1913;7.0672;
924.3000;0.1929;7.0695;
924.6000;0.1897;7.0648;
924.9000;0.1913;7.0601;
925.2000;0.1905;7.0578;
925.5000;0.1937;7.0860;
925.8000;0.1921;7.0837;
926.1000;0.1945;7.0860;
926.4000;0.1929;7.0789;
926.7000;0.1954;7.0954;
927.0000;0.1921;7.0954;
927.3000;0.1929;7.1001;
927.6000;0.1954;7.1072;
927.9000;0.1880;7.1001;
928.2000;0.1937;7.1072;
928.5000;0.1929;7.1095;
928.8000;0.1921;7.0931;
929.1000;0.1905;7.0931;
929.4000;0.1937;7.0931;
929.7000;0.1921;7.0860;
930.0000;0.1929;7.0907;
930.3000;0.1856;7.0742;
930.6000;0.1921;7.0978;
930.9000;0.1905;7.0954;
931.2000;0.1921;7.0907;
931.5000;0.1929;7.0954;
931.8000;0.1905;7.0813;
932.1000;0.1929;7.0813;
932.4000;0.1921;7.0719;
932.7000;0.1880;7.0648;
933.0000;0.1937;7.0813;
933.3000;0.1937;7.0813;
933.6000;0.1913;7.0766;
933.9000;0.1905;7.0695;
934.2000;0.1937;7.0766;
934.5000;0.1921;7.0789;
934.8000;0.1921;7.0789;
935.1000;0.1937;7.0884;
935.4000;0.1913;7.0837;
935.7000;0.1921;7.1001;
936.0000;0.1929;7.1025;
936.3000;0.1921;7.1095;
936.6000;0.1921;7.1095;
936.9000;0.1888;7.1072;
937.2000;0.1913;7.1095;
937.5000;0.1913;7.1095;
937.8000;0.1913;7.0978;
938.1000;0.1913;7.1001;
938.4000;0.1937;7.1001;
938.7000;0.1913;7.0978;
939.0000;0.1913;7.1001;
939.3000;0.1937;7.1166;
939.6000;0.1913;7.1213;
939.9000;0.1921;7.1213;
940.2000;0.1872;7.1072;
940.5000;0.1937;7.1142;
940.8000;0.1913;7.1213;
941.1000;0.1880;7.1072;
941.4000;0.1897;7.1095;
941.7000;0.1929;7.1166;
942.0000;0.1954;7.1260;
942.3000;0.1921;7.1260;
942.6000;0.1929;7.1142;
942.9000;0.1978;7.1283;
943.2000;0.1897;7.1119;
943.5000;0.1913;7.1142;
943.8000;0.1897;7.1048;
944.1000;0.1921;7.0954;
944.4000;0.1913;7.1025;
944.7000;0.1921;7.1119;
945.0000;0.1929;7.1119;
945.3000;0.1994;7.1260;
945.6000;0.1937;7.1142;
945.9000;0.1929;7.1142;
946.2000;0.1937;7.1119;
946.5000;0.1945;7.1166;
946.8000;0.1897;7.1142;
947.1000;0.1913;7.1189;
947.4000;0.1921;7.1260;
947.7000;0.1978;7.1354;
948.0000;0.1929;7.1213;
948.3000;0.1913;7.1166;
948.6000;0.1913;7.1166;
948.9000;0.1921;7.1119;
949.2000;0.1888;7.1001;
949.5000;0.1954;7.1072;
949.8000;0.1921;7.0978;
950.1000;0.1905;7.0931;
950.4000;0.1897;7.0813;
950.7000;0.1897;7.0789;
951.0000;0.1937;7.0860;
951.3000;0.1913;7.0742;
951.6000;0.1913;7.0766;
951.9000;0.1905;7.0742;
952.2000;0.1880;7.0742;
952.5000;0.1897;7.0860;
952.8000;0.1864;7.0931;
953.1000;0.1848;7.0837;
953.4000;0.1913;7.0978;
953.7000;0.1921;7.1025;
954.0000;0.1978;7.1119;
954.3000;0.1921;7.0978;
954.6000;0.1937;7.1072;
954.9000;0.1921;7.1025;
955.2000;0.1921;7.1072;
955.5000;0.1929;7.1166;
955.8000;0.1913;7.1095;
956.1000;0.1962;7.1213;
956.4000;0.1913;7.1048;
956.7000;0.1913;7.1072;
957.0000;0.1921;7.1166;
957.3000;0.1913;7.1166;
957.6000;0.1913;7.1166;
957.9000;0.1962;7.1283;
958.2000;0.1913;7.1236;
958.5000;0.1921;7.1189;
958.8000;0.1880;7.1142;
959.1000;0.1905;7.1072;
959.4000;0.1913;7.1025;
959.7000;0.1913;7.1095;
960.0000;0.1921;7.1119;
960.3000;0.1897;7.1119;
960.6000;0.1921;7.1072;
960.9000;0.1921;7.1001;
961.2000;0.1937;7.1072;
961.5000;0.1921;7.1001;
961.8000;0.1905;7.0884;
962.1000;0.1897;7.0954;
962.4000;0.1897;7.1095;
962.7000;0.1905;7.1119;
963.0000;0.1905;7.1166;
963.3000;0.1913;7.1189;
963.6000;0.1905;7.1142;
963.9000;0.1921;7.1213;
964.2000;0.1848;7.1095;
964.5000;0.1929;7.1283;
964.8000;0.1897;7.1213;
965.1000;0.1937;7.1307;
965.4000;0.1929;7.1283;
965.7000;0.1929;7.1307;
966.0000;0.1945;7.1330;
966.3000;0.2002;7.1519;
966.6000;0.1897;7.1189;
966.9000;0.1913;7.1283;
967.2000;0.1905;7.1260;
967.5000;0.1888;7.1189;
967.8000;0.1921;7.1189;
968.1000;0.1905;7.1166;
968.4000;0.1864;7.1095;
968.7000;0.1929;7.1166;
969.0000;0.1945;7.1166;
969.3000;0.1954;7.1189;
969.6000;0.1921;7.1095;
969.9000;0.1945;7.1213;
970.2000;0.1905;7.1048;
970.5000;0.2011;7.1072;
970.8000;0.1921;7.0907;
971.1000;0.1929;7.0954;
971.4000;0.1937;7.1001;
971.7000;0.1921;7.1142;
972.0000;0.1905;7.1213;
972.3000;0.1864;7.1048;
972.6000;0.1913;7.1119;
972.9000;0.1945;7.1189;
973.2000;0.1905;7.1095;
973.5000;0.1872;7.0978;
973.8000;0.1913;7.1001;
974.1000;0.1905;7.0954;
974.4000;0.1929;7.1048;
974.7000;0.1905;7.0978;
975.0000;0.1913;7.1119;
975.3000;0.1937;7.1166;
975.6000;0.1913;7.1048;
975.9000;0.1913;7.1025;
976.2000;0.1921;7.1072;
976.5000;0.1937;7.1048;
976.8000;0.1897;7.0931;
977.1000;0.1962;7.1213;
977.4000;0.1905;7.1213;
977.7000;0.1913;7.1166;
978.0000;0.1913;7.1189;
978.3000;0.1905;7.1166;
978.6000;0.1905;7.1095;
978.9000;0.1921;7.1142;
979.2000;0.1905;7.1119;
979.5000;0.1897;7.1072;
979.8000;0.1905;7.1072;
980.1000;0.1970;7.1330;
980.4000;0.1872;7.1119;
980.7000;0.1905;7.1166;
981.0000;0.1897;7.1189;
981.3000;0.1905;7.1142;
981.6000;0.1921;7.1236;
981.9000;0.1880;7.1142;
982.2000;0.1921;7.1260;
982.5000;0.1913;7.1213;
982.8000;0.1905;7.1189;
983.1000;0.1913;7.1260;
983.4000;0.1913;7.1189;
983.7000;0.1913;7.1260;
984.0000;0.1921;7.1307;
984.3000;0.1913;7.1401;
984.6000;0.1929;7.1424;
984.9000;0.1970;7.1472;
985.2000;0.1945;7.1401;
985.5000;0.1921;7.1260;
985.8000;0.1913;7.1142;
986.1000;0.1897;7.1119;
986.4000;0.1913;7.1189;
986.7000;0.1921;7.1213;
987.0000;0.1905;7.1166;
987.3000;0.1905;7.1095;
987.6000;0.1913;7.1166;
987.9000;0.1897;7.1119;
988.2000;0.1913;7.1072;
988.5000;0.1913;7.1025;
988.8000;0.1913;7.1048;
989.1000;0.1913;7.1048;
989.4000;0.1945;7.1095;
989.7000;0.1913;7.0931;
990.0000;0.1929;7.0931;
990.3000;0.1929;7.0954;
990.6000;0.1962;7.0931;
990.9000;0.1929;7.0884;
991.2000;0.1921;7.0837;
991.5000;0.1929;7.0837;
991.8000;0.1880;7.0789;
992.1000;0.1937;7.0954;
992.4000;0.1921;7.1025;
992.7000;0.1913;7.1025;
993.0000;0.1913;7.1072;
993.3000;0.1970;7.1189;
993.6000;0.1913;7.0978;
993.9000;0.1937;7.1119;
994.2000;0.1913;7.1072;
994.5000;0.1897;7.1025;
994.8000;0.1913;7.1142;
995.1000;0.1905;7.1119;
995.4000;0.1913;7.1072;
995.7000;0.1913;7.1048;
996.0000;0.1921;7.1072;
996.3000;0.1905;7.0978;
996.6000;0.1913;7.1072;
996.9000;0.1880;7.1119;
997.2000;0.1921;7.1142;
997.5000;0.1921;7.1142;
997.8000;0.1905;7.1142;
998.1000;0.1897;7.1142;
998.4000;0.1921;7.1283;
998.7000;0.1913;7.1236;
999.0000;0.1888;7.1189;
999.3000;0.1848;7.1119;
999.6000;0.1921;7.1236;
999.9000;0.1905;7.1260;
1000.2000;0.1905;7.1236;
1000.5000;0.1937;7.1260;
1000.8000;0.1921;7.1189;
1001.1000;0.1937;7.1166;
1001.4000;0.1921;7.1095;
1001.7000;0.1905;7.1072;
1002.0000;0.1880;7.1048;
1002.3000;0.1921;7.1095;
1002.6000;0.1913;7.1072;
1002.9000;0.1905;7.1119;
1003.2000;0.1905;7.1119;
1003.5000;0.1913;7.1072;
1003.8000;0.1897;7.0931;
1004.1000;0.1864;7.0860;
1004.4000;0.1929;7.1001;
1004.7000;0.1921;7.1048;
1005.0000;0.1913;7.1072;
1005.3000;0.1929;7.1142;
1005.6000;0.1905;7.1166;
1005.9000;0.1937;7.1236;
1006.2000;0.1921;7.1166;
1006.5000;0.1905;7.1072;
1006.8000;0.1905;7.1119;
1007.1000;0.1905;7.1072;
1007.4000;0.1888;7.1048;
1007.7000;0.1888;7.1095;
1008.0000;0.1921;7.1095;
1008.3000;0.1913;7.1048;
1008.6000;0.1921;7.1048;
1008.9000;0.1945;7.1095;
1009.2000;0.1888;7.1025;
1009.5000;0.1929;7.1072;
1009.8000;0.1913;7.1025;
1010.1000;0.1913;7.1072;
1010.4000;0.1970;7.1236;
1010.7000;0.1913;7.1119;
1011.0000;0.1913;7.1166;
1011.3000;0.1913;7.1166;
1011.6000;0.1937;7.1142;
1011.9000;0.1913;7.1119;
1012.2000;0.1921;7.1142;
1012.5000;0.1888;7.1119;
1012.8000;0.1905;7.1142;
1013.1000;0.1880;7.1166;
1013.4000;0.1921;7.1213;
1013.7000;0.1897;7.1236;
1014.0000;0.1921;7.1236;
1014.3000;0.1921;7.1119;
1014.6000;0.1929;7.1142;
1014.9000;0.1905;7.1166;
1015.2000;0.1929;7.1189;
1015.5000;0.1913;7.1142;
1015.8000;0.1897;7.1236;
1016.1000;0.1905;7.1260;
1016.4000;0.1921;7.1236;
1016.7000;0.1945;7.1260;
1017.0000;0.1913;7.1095;
1017.3000;0.1954;7.1236;
1017.6000;0.1929;7.1236;
1017.9000;0.1921;7.1142;
1018.2000;0.1921;7.1142;
1018.5000;0.1937;7.1072;
1018.8000;0.1913;7.1048;
1019.1000;0.1921;7.1142;
1019.4000;0.1937;7.1236;
1019.7000;0.1937;7.1189;
1020.0000;0.1832;7.0978;
1020.3000;0.1929;7.1330;
1020.6000;0.1913;7.1260;
1020.9000;0.1962;7.1424;
1021.2000;0.1856;7.1119;
1021.5000;0.1905;7.1142;
1021.8000;0.1905;7.1072;
1022.1000;0.1978;7.1283;
1022.4000;0.1921;7.1142;
1022.7000;0.1921;7.1072;
1023.0000;0.1913;7.1072;
1023.3000;0.1897;7.1072;
1023.6000;0.1978;7.1307;
1023.9000;0.1913;7.1119;
1024.2000;0.1937;7.1142;
1024.5000;0.1905;7.1189;
1024.8000;0.1937;7.1236;
1025.1000;0.1921;7.1213;
1025.4000;0.1937;7.1236;
1025.7000;0.1921;7.1189;
1026.0000;0.1913;7.1283;
1026.3000;0.1929;7.1354;
1026.6000;0.1929;7.1424;
1026.9000;0.1880;7.1330;
1027.2000;0.1921;7.1401;
1027.5000;0.1945;7.1330;
1027.8000;0.1913;7.1283;
1028.1000;0.1921;7.1401;
1028.4000;0.1954;7.1495;
1028.7000;0.1921;7.1377;
1029.0000;0.1905;7.1307;
1029.3000;0.1921;7.1260;
1029.6000;0.1913;7.1283;
1029.9000;0.1945;7.1401;
1030.2000;0.1921;7.1354;
1030.5000;0.1929;7.1307;
1030.8000;0.1994;7.1542;
1031.1000;0.1888;7.1283;
1031.4000;0.1945;7.1472;
1031.7000;0.1921;7.1424;
1032.0000;0.1905;7.1424;
1032.3000;0.1897;7.1330;
1032.6000;0.1921;7.1377;
1032.9000;0.1897;7.1260;
1033.2000;0.1905;7.1213;
1033.5000;0.1897;7.1260;
1033.8000;0.1897;7.1236;
1034.1000;0.1897;7.1166;
1034.4000;0.1921;7.1142;
1034.7000;0.1897;7.1260;
1035.0000;0.1905;7.1307;
1035.3000;0.1848;7.1166;
1035.6000;0.1913;7.1236;
1035.9000;0.1888;7.1142;
1036.2000;0.1905;7.1236;
1036.5000;0.1888;7.1189;
1036.8000;0.1921;7.1213;
1037.1000;0.1905;7.1095;
1037.4000;0.1913;7.1142;
1037.7000;0.1929;7.1142;
1038.0000;0.1897;7.1119;
1038.3000;0.1897;7.1189;
1038.6000;0.1888;7.1189;
1038.9000;0.1921;7.1189;
1039.2000;0.1888;7.1166;
1039.5000;0.1791;7.0907;
1039.8000;0.1897;7.1213;
1040.1000;0.1921;7.1307;
1040.4000;0.1962;7.1401;
1040.7000;0.1929;7.1307;
1041.0000;0.1921;7.1260;
1041.3000;0.1921;7.1330;
1041.6000;0.1937;7.1330;
1041.9000;0.1913;7.1189;
1042.2000;0.1897;7.1166;
1042.5000;0.1905;7.1142;
1042.8000;0.1913;7.1166;
1043.1000;0.1897;7.1213;
1043.4000;0.1897;7.1260;
1043.7000;0.1905;7.1260;
1044.0000;0.1872;7.1213;
1044.3000;0.1905;7.1330;
1044.6000;0.1937;7.1377;
1044.9000;0.1913;7.1472;
1045.2000;0.1888;7.1401;
1045.5000;0.1905;7.1401;
1045.8000;0.1905;7.1330;
1046.1000;0.1897;7.1330;
1046.4000;0.1856;7.1166;
1046.7000;0.1913;7.1260;
1047.0000;0.1921;7.1189;
1047.3000;0.1897;7.1142;
1047.6000;0.1880;7.1095;
1047.9000;0.1921;7.1260;
1048.2000;0.1913;7.1236;
1048.5000;0.1905;7.1189;
1048.8000;0.1905;7.1166;
1049.1000;0.1954;7.1283;
1049.4000;0.1929;7.1213;
1049.7000;0.1913;7.1095;
1050.0000;0.1921;7.1166;
1050.3000;0.1937;7.1260;
1050.6000;0.1905;7.1142;
1050.9000;0.1921;7.1260;
1051.2000;0.1937;7.1213;
1051.5000;0.1937;7.1236;
1051.8000;0.1929;7.1213;
1052.1000;0.1905;7.1166;
1052.4000;0.1921;7.1213;
1052.7000;0.1913;7.1213;
1053.0000;0.1937;7.1283;
1053.3000;0.1913;7.1283;
1053.6000;0.1913;7.1307;
1053.9000;0.1921;7.1377;
1054.2000;0.1905;7.1401;
1054.5000;0.1913;7.1472;
1054.8000;0.1905;7.1448;
1055.1000;0.1937;7.1542;
1055.4000;0.1864;7.1424;
1055.7000;0.1897;7.1519;
1056.0000;0.1905;7.1519;
1056.3000;0.1913;7.1424;
1056.6000;0.1929;7.1377;
1056.9000;0.1888;7.1260;
1057.2000;0.1905;7.1213;
1057.5000;0.1897;7.1189;
1057.8000;0.1913;7.1283;
1058.1000;0.1937;7.1283;
1058.4000;0.1913;7.1189;
1058.7000;0.1856;7.1095;
1059.0000;0.1929;7.1307;
1059.3000;0.1864;7.1095;
1059.6000;0.1929;7.1213;
1059.9000;0.1929;7.1072;
1060.2000;0.1929;7.1119;
1060.5000;0.1945;7.1213;
1060.8000;0.1921;7.1119;
1061.1000;0.1929;7.1213;
1061.4000;0.1880;7.1142;
1061.7000;0.1921;7.1213;
1062.0000;0.1921;7.1189;
1062.3000;0.1929;7.1213;
1062.6000;0.1921;7.1142;
1062.9000;0.1921;7.1189;
1063.2000;0.1921;7.1119;
1063.5000;0.1978;7.1189;
1063.8000;0.1897;7.1001;
1064.1000;0.1921;7.1189;
1064.4000;0.1872;7.1142;
1064.7000;0.1937;7.1307;
1065.0000;0.1913;7.1354;
1065.3000;0.1937;7.1330;
1065.6000;0.1905;7.1236;
1065.9000;0.1929;7.1330;
1066.2000;0.1905;7.1330;
1066.5000;0.1921;7.1401;
1066.8000;0.1929;7.1424;
1067.1000;0.1872;7.1072;
1067.4000;0.1905;7.1142;
1067.7000;0.1905;7.1142;
1068.0000;0.1962;7.1354;
1068.3000;0.1913;7.1283;
1068.6000;0.1905;7.1330;
1068.9000;0.1913;7.1307;
1069.2000;0.1888;7.1213;
1069.5000;0.1905;7.1283;
1069.8000;0.1905;7.1330;
1070.1000;0.1897;7.1283;
1070.4000;0.1921;7.1236;
1070.7000;0.1905;7.1307;
1071.0000;0.1905;7.1236;
1071.3000;0.1905;7.1236;
1071.6000;0.1937;7.1283;
1071.9000;0.1929;7.1236;
1072.2000;0.1994;7.1354;
1072.5000;0.1921;7.1213;
1072.8000;0.1921;7.1189;
1073.1000;0.1913;7.1142;
1073.4000;0.1897;7.1142;
1073.7000;0.1888;7.1142;
1074.0000;0.1905;7.1142;
1074.3000;0.1880;7.1072;
1074.6000;0.1905;7.1166;
1074.9000;0.1905;7.1119;
1075.2000;0.1888;7.1142;
1075.5000;0.1921;7.1119;
1075.8000;0.1929;7.1025;
1076.1000;0.1888;7.1001;
1076.4000;0.1905;7.0954;
1076.7000;0.1929;7.0978;
1077.0000;0.1897;7.0978;
1077.3000;0.1905;7.1119;
1077.6000;0.1897;7.1048;
1077.9000;0.1921;7.1095;
1078.2000;0.1921;7.1189;
1078.5000;0.1913;7.1166;
1078.8000;0.1897;7.1119;
1079.1000;0.1905;7.1072;
1079.4000;0.1897;7.1025;
1079.7000;0.1897;7.1095;
1080.0000;0.1905;7.1213;
1080.3000;0.1888;7.1142;
1080.6000;0.1913;7.1213;
1080.9000;0.1897;7.1213;
1081.2000;0.1913;7.1283;
1081.5000;0.1880;7.1166;
1081.8000;0.1880;7.1072;
1082.1000;0.1913;7.1119;
1082.4000;0.1994;7.1330;
1082.7000;0.1905;7.1166;
1083.0000;0.1929;7.1142;
1083.3000;0.1970;7.1189;
1083.6000;0.1929;7.1119;
1083.9000;0.1888;7.1001;
1084.2000;0.1905;7.1001;
1084.5000;0.1937;7.1142;
1084.8000;0.1929;7.1213;
1085.1000;0.1913;7.1213;
1085.4000;0.2027;7.1566;
1085.7000;0.1962;7.1377;
1086.0000;0.1921;7.1330;
1086.3000;0.1970;7.1472;
1086.6000;0.1905;7.1213;
1086.9000;0.1937;7.1283;
1087.2000;0.1929;7.1213;
1087.5000;0.1994;7.1377;
1087.8000;0.1913;7.1283;
1088.1000;0.1913;7.1354;
1088.4000;0.1937;7.1424;
1088.7000;0.1913;7.1401;
1089.0000;0.1897;7.1283;
1089.3000;0.1905;7.1213;
1089.6000;0.1897;7.1236;
1089.9000;0.1897;7.1330;
1090.2000;0.1897;7.1330;
1090.5000;0.1913;7.1424;
1090.8000;0.1905;7.1377;
1091.1000;0.1913;7.1354;
1091.4000;0.1905;7.1283;
1091.7000;0.1905;7.1142;
1092.0000;0.1913;7.1189;
1092.3000;0.1954;7.1260;
1092.6000;0.1897;7.1189;
1092.9000;0.1913;7.1166;
1093.2000;0.1913;7.1142;
1093.5000;0.1921;7.1307;
1093.8000;0.1921;7.1213;
1094.1000;0.1913;7.1189;
1094.4000;0.1888;7.1189;
1094.7000;0.1937;7.1330;
1095.0000;0.1929;7.1236;
1095.3000;0.1905;7.1119;
1095.6000;0.1888;7.1166;
1095.9000;0.1905;7.1213;
1096.2000;0.1872;7.1095;
1096.5000;0.1954;7.1213;
1096.8000;0.1905;7.1072;
1097.1000;0.1921;7.1189;
1097.4000;0.1905;7.1213;
1097.7000;0.1921;7.1213;
1098.0000;0.1905;7.1142;
1098.3000;0.1913;7.1166;
1098.6000;0.1913;7.1213;
1098.9000;0.1905;7.1236;
1099.2000;0.1897;7.1330;
1099.5000;0.1905;7.1330;
1099.8000;0.1905;7.1377;
1100.1000;0.1897;7.1424;
1100.4000;0.1897;7.1472;
1100.7000;0.1897;7.1472;
1101.0000;0.1921;7.1448;
1101.3000;0.1921;7.1542;
1101.6000;0.1913;7.1495;
1101.9000;0.1921;7.1377;
1102.2000;0.1929;7.1307;
1102.5000;0.1937;7.1330;
1102.8000;0.1921;7.1354;
1103.1000;0.1913;7.1354;
1103.4000;0.1954;7.1424;
1103.7000;0.1905;7.1330;
1104.0000;0.1913;7.1283;
1104.3000;0.1791;7.0931;
1104.6000;0.1913;7.1213;
1104.9000;0.1929;7.1307;
1105.2000;0.1897;7.1260;
1105.5000;0.1888;7.1213;
1105.8000;0.1913;7.1166;
1106.1000;0.1913;7.1213;
1106.4000;0.1913;7.1213;
1106.7000;0.1913;7.1142;
1107.0000;0.1921;7.1025;
1107.3000;0.1929;7.1001;
1107.6000;0.1929;7.0931;
1107.9000;0.1921;7.0954;
1108.2000;0.1913;7.0884;
1108.5000;0.1929;7.0978;
1108.8000;0.1913;7.1166;
1109.1000;0.1921;7.1213;
1109.4000;0.1913;7.1307;
1109.7000;0.1921;7.1377;
1110.0000;0.1913;7.1307;
1110.3000;0.1913;7.1307;
1110.6000;0.1921;7.1213;
1110.9000;0.1913;7.1283;
1111.2000;0.1929;7.1354;
1111.5000;0.1921;7.1330;
1111.8000;0.1888;7.1283;
1112.1000;0.1921;7.1354;
1112.4000;0.1897;7.1307;
1112.7000;0.1905;7.1283;
1113.0000;0.1937;7.1377;
1113.3000;0.1872;7.1260;
1113.6000;0.1913;7.1330;
1113.9000;0.1921;7.1330;
1114.2000;0.1897;7.1307;
1114.5000;0.1986;7.1495;
1114.8000;0.1913;7.1330;
1115.1000;0.1840;7.1236;
1115.4000;0.1921;7.1448;
1115.7000;0.1905;7.1448;
1116.0000;0.1897;7.1495;
1116.3000;0.1905;7.1495;
1116.6000;0.1921;7.1542;
1116.9000;0.1929;7.1566;
1117.2000;0.1905;7.1495;
1117.5000;0.1937;7.1448;
1117.8000;0.1929;7.1377;
1118.1000;0.1913;7.1377;
1118.4000;0.1905;7.1377;
1118.7000;0.1913;7.1424;
1119.0000;0.1937;7.1495;
1119.3000;0.1905;7.1377;
1119.6000;0.1913;7.1354;
1119.9000;0.1888;7.1283;
1120.2000;0.1921;7.1377;
1120.5000;0.1945;7.1401;
1120.8000;0.1937;7.1401;
1121.1000;0.1897;7.1307;
1121.4000;0.1921;7.1307;
1121.7000;0.1929;7.1330;
1122.0000;0.1921;7.1330;
1122.3000;0.1913;7.1330;
1122.6000;0.1929;7.1307;
1122.9000;0.1913;7.1189;
1123.2000;0.1921;7.1166;
1123.5000;0.1913;7.1072;
1123.8000;0.1913;7.1048;
1124.1000;0.1937;7.1048;
1124.4000;0.2019;7.1283;
1124.7000;0.1897;7.1048;
1125.0000;0.1921;7.1189;
1125.3000;0.1929;7.1166;
1125.6000;0.1905;7.1142;
1125.9000;0.1897;7.1189;
1126.2000;0.1840;7.1072;
1126.5000;0.1913;7.1260;
1126.8000;0.1913;7.1236;
1127.1000;0.1945;7.1401;
1127.4000;0.1897;7.1330;
1127.7000;0.1880;7.1260;
1128.0000;0.1921;7.1330;
1128.3000;0.1913;7.1283;
1128.6000;0.1921;7.1283;
1128.9000;0.1888;7.1142;
1129.2000;0.1921;7.1166;
1129.5000;0.1937;7.1236;
1129.8000;0.1897;7.1095;
1130.1000;0.1921;7.1213;
1130.4000;0.1913;7.1119;
1130.7000;0.2002;7.1354;
1131.0000;0.1905;7.1189;
1131.3000;0.1905;7.1119;
1131.6000;0.1864;7.1072;
1131.9000;0.1937;7.1236;
1132.2000;0.1832;7.0931;
1132.5000;0.1905;7.1072;
1132.8000;0.1913;7.0978;
1133.1000;0.1937;7.1025;
1133.4000;0.1937;7.1119;
1133.7000;0.1897;7.1119;
1134.0000;0.1913;7.1142;
1134.3000;0.1937;7.1213;
1134.6000;0.1921;7.1236;
1134.9000;0.1994;7.1377;
1135.2000;0.1929;7.1307;
1135.5000;0.1921;7.1283;
1135.8000;0.1905;7.1236;
1136.1000;0.1880;7.1283;
1136.4000;0.1897;7.1354;
1136.7000;0.1913;7.1330;
1137.0000;0.1897;7.1377;
1137.3000;0.1897;7.1377;
1137.6000;0.1978;7.1519;
1137.9000;0.1913;7.1377;
1138.2000;0.1880;7.1377;
1138.5000;0.1880;7.1330;
1138.8000;0.1905;7.1330;
1139.1000;0.1815;7.1095;
1139.4000;0.1856;7.1213;
1139.7000;0.1888;7.1307;
1140.0000;0.1888;7.1189;
1140.3000;0.1929;7.1354;
1140.6000;0.1905;7.1283;
1140.9000;0.1929;7.1354;
1141.2000;0.1970;7.1472;
1141.5000;0.1954;7.1377;
1141.8000;0.1929;7.1307;
1142.1000;0.1929;7.1330;
1142.4000;0.1913;7.1330;
1142.7000;0.1937;7.1495;
1143.0000;0.1921;7.1542;
1143.3000;0.1921;7.1542;
1143.6000;0.1937;7.1589;
1143.9000;0.1897;7.1566;
1144.2000;0.1905;7.1566;
1144.5000;0.1962;7.1589;
1144.8000;0.1864;7.1260;
1145.1000;0.1905;7.1448;
1145.4000;0.1937;7.1424;
1145.7000;0.1945;7.1377;
1146.0000;0.1905;7.1236;
1146.3000;0.1921;7.1283;
1146.6000;0.1913;7.1260;
1146.9000;0.1913;7.1260;
1147.2000;0.1929;7.1189;
1147.5000;0.1905;7.1119;
1147.8000;0.1921;7.1189;
1148.1000;0.1913;7.1236;
1148.4000;0.1905;7.1377;
1148.7000;0.1905;7.1448;
1149.0000;0.1905;7.1519;
1149.3000;0.1856;7.1495;
1149.6000;0.1888;7.1472;
1149.9000;0.1856;7.1330;
1150.2000;0.1905;7.1330;
1150.5000;0.1905;7.1401;
1150.8000;0.1921;7.1307;
1151.1000;0.1913;7.1354;
1151.4000;0.1848;7.1260;
1151.7000;0.1905;7.1401;
1152.0000;0.1913;7.1354;
1152.3000;0.1905;7.1330;
1152.6000;0.1905;7.1307;
1152.9000;0.1888;7.1283;
1153.2000;0.1929;7.1354;
1153.5000;0.1897;7.1377;
1153.8000;0.1897;7.1330;
1154.1000;0.1897;7.1307;
1154.4000;0.1954;7.1495;
1154.7000;0.1888;7.1260;
1155.0000;0.1905;7.1377;
1155.3000;0.1962;7.1542;
1155.6000;0.1840;7.1166;
1155.9000;0.1954;7.1448;
1156.2000;0.1897;7.1377;
1156.5000;0.1888;7.1330;
1156.8000;0.1888;7.1283;
1157.1000;0.1921;7.1354;
1157.4000;0.1905;7.1236;
1157.7000;0.1921;7.1283;
1158.0000;0.1897;7.1283;
1158.3000;0.1921;7.1377;
1158.6000;0.1937;7.1424;
1158.9000;0.1913;7.1283;
1159.2000;0.1937;7.1424;
1159.5000;0.1921;7.1424;
1159.8000;0.1897;7.1377;
1160.1000;0.1864;7.1377;
1160.4000;0.1897;7.1283;
1160.7000;0.1929;7.1236;
1161.0000;0.1905;7.1213;
1161.3000;0.1962;7.1283;
1161.6000;0.1897;7.1119;
1161.9000;0.1888;7.1025;
1162.2000;0.1913;7.1048;
1162.5000;0.1872;7.1025;
1162.8000;0.1913;7.1189;
1163.1000;0.1921;7.1213;
1163.4000;0.1888;7.1260;
1163.7000;0.1888;7.1330;
1164.0000;0.1921;7.1424;
1164.3000;0.1888;7.1401;
1164.6000;0.1921;7.1424;
1164.9000;0.1897;7.1377;
1165.2000;0.1913;7.1401;
1165.5000;0.1913;7.1377;
1165.8000;0.1929;7.1377;
1166.1000;0.1921;7.1401;
1166.4000;0.1929;7.1377;
1166.7000;0.1921;7.1307;
1167.0000;0.1921;7.1307;
1167.3000;0.1929;7.1307;
1167.6000;0.1913;7.1330;
1167.9000;0.1913;7.1260;
1168.2000;0.1978;7.1377;
1168.5000;0.1937;7.1354;
1168.8000;0.1937;7.1354;
1169.1000;0.1921;7.1307;
1169.4000;0.1905;7.1189;
1169.7000;0.1954;7.1260;
1170.0000;0.1921;7.1213;
1170.3000;0.1880;7.1236;
1170.6000;0.1905;7.1354;
1170.9000;0.1921;7.1354;
1171.2000;0.1888;7.1213;
1171.5000;0.1937;7.1236;
1171.8000;0.1897;7.1189;
1172.1000;0.1937;7.1307;
1172.4000;0.1921;7.1330;
1172.7000;0.1872;7.1142;
1173.0000;0.1905;7.1260;
1173.3000;0.1962;7.1283;
1173.6000;0.1913;7.1166;
1173.9000;0.1913;7.1166;
1174.2000;0.1921;7.1142;
1174.5000;0.1888;7.1095;
1174.8000;0.1864;7.1001;
1175.1000;0.1905;7.1025;
1175.4000;0.1848;7.0837;
1175.7000;0.1888;7.1001;
1176.0000;0.1913;7.1072;
1176.3000;0.1905;7.1025;
1176.6000;0.1897;7.1095;
1176.9000;0.1888;7.1142;
1177.2000;0.1921;7.1236;
1177.5000;0.1970;7.1424;
1177.8000;0.1848;7.1119;
1178.1000;0.1905;7.1260;
1178.4000;0.1856;7.1142;
1178.7000;0.1921;7.1213;
1179.0000;0.1840;7.1025;
1179.3000;0.2019;7.1401;
1179.6000;0.1921;7.1142;
1179.9000;0.1921;7.1166;
1180.2000;0.1921;7.1095;
1180.5000;0.1897;7.1025;
1180.8000;0.1929;7.1166;
1181.1000;0.1897;7.1189;
1181.4000;0.1913;7.1166;
1181.7000;0.1888;7.1095;
1182.0000;0.1921;7.1189;
1182.3000;0.1929;7.1189;
1182.6000;0.1921;7.1236;
1182.9000;0.1897;7.1119;
1183.2000;0.1921;7.1189;
1183.5000;0.1905;7.1236;
1183.8000;0.1905;7.1189;
1184.1000;0.1897;7.1142;
1184.4000;0.1913;7.1166;
1184.7000;0.1921;7.1330;
1185.0000;0.1921;7.1448;
1185.3000;0.1921;7.1401;
1185.6000;0.1905;7.1401;
1185.9000;0.1897;7.1377;
1186.2000;0.1929;7.1448;
1186.5000;0.1913;7.1377;
1186.8000;0.1929;7.1424;
1187.1000;0.1913;7.1401;
1187.4000;0.1929;7.1542;
1187.7000;0.1921;7.1472;
1188.0000;0.1905;7.1354;
1188.3000;0.1913;7.1354;
1188.6000;0.1905;7.1354;
1188.9000;0.1945;7.1354;
1189.2000;0.1905;7.1330;
1189.5000;0.1921;7.1377;
1189.8000;0.1962;7.1495;
1190.1000;0.1913;7.1424;
1190.4000;0.1913;7.1330;
1190.7000;0.1888;7.1142;
1191.0000;0.1905;7.1142;
1191.3000;0.1913;7.1260;
1191.6000;0.1913;7.1260;
1191.9000;0.1921;7.1189;
1192.2000;0.1929;7.1119;
1192.5000;0.1897;7.1119;
1192.8000;0.1921;7.1142;
1193.1000;0.1905;7.1095;
1193.4000;0.1897;7.1048;
1193.7000;0.1897;7.1001;
1194.0000;0.1913;7.1095;
1194.3000;0.1913;7.1166;
1194.6000;0.1905;7.1166;
1194.9000;0.1897;7.1095;
1195.2000;0.1937;7.1142;
1195.5000;0.1913;7.1072;
1195.8000;0.1921;7.1048;
1196.1000;0.1913;7.0978;
1196.4000;0.1872;7.0907;
1196.7000;0.1913;7.1001;
1197.0000;0.1921;7.1072;
1197.3000;0.1921;7.1142;
1197.6000;0.1937;7.1142;
1197.9000;0.1905;7.1072;
1198.2000;0.1897;7.1095;
1198.5000;0.1897;7.1119;
1198.8000;0.1905;7.1001;
1199.1000;0.1921;7.1166;
1199.4000;0.1905;7.1072;
1199.7000;0.1897;7.0978;
1200.0000;0.1905;7.0954;
1200.3000;0.1978;7.1142;
1200.6000;0.1872;7.0884;
1200.9000;0.1913;7.0978;
1201.2000;0.1921;7.1095;
1201.5000;0.1888;7.1025;
1201.8000;0.1913;7.1142;
1202.1000;0.1929;7.1283;
1202.4000;0.1929;7.1236;
1202.7000;0.1978;7.1236;
1203.0000;0.1921;7.1213;
1203.3000;0.1905;7.1283;
1203.6000;0.1888;7.1283;
1203.9000;0.1913;7.1330;
1204.2000;0.1921;7.1377;
1204.5000;0.1913;7.1330;
1204.8000;0.1929;7.1260;
1205.1000;0.1913;7.1142;
1205.4000;0.1897;7.1119;
1205.7000;0.1905;7.1119;
1206.0000;0.1897;7.0978;
1206.3000;0.1913;7.1072;
1206.6000;0.1888;7.1072;
1206.9000;0.1905;7.1142;
1207.2000;0.1921;7.1142;
1207.5000;0.1905;7.1119;
1207.8000;0.1913;7.1260;
1208.1000;0.1921;7.1354;
1208.4000;0.2011;7.1683;
1208.7000;0.1913;7.1401;
1209.0000;0.1905;7.1283;
1209.3000;0.1880;7.1189;
1209.6000;0.1864;7.1119;
1209.9000;0.1897;7.1166;
1210.2000;0.1807;7.0884;
1210.5000;0.1905;7.1095;
1210.8000;0.1880;7.1025;
1211.1000;0.1994;7.1260;
1211.4000;0.1905;7.1189;
1211.7000;0.1921;7.1307;
1212.0000;0.1905;7.1166;
1212.3000;0.1921;7.1189;
1212.6000;0.1905;7.1142;
1212.9000;0.1905;7.1142;
1213.2000;0.1913;7.1166;
1213.5000;0.1897;7.1142;
1213.8000;0.1897;7.1095;
1214.1000;0.1888;7.1025;
1214.4000;0.1921;7.1119;
1214.7000;0.1921;7.1213;
1215.0000;0.1905;7.1236;
1215.3000;0.1929;7.1236;
1215.6000;0.1913;7.1189;
1215.9000;0.1913;7.1213;
1216.2000;0.1913;7.1260;
1216.5000;0.1913;7.1330;
1216.8000;0.1848;7.1048;
1217.1000;0.1913;7.1142;
1217.4000;0.1880;7.1095;
1217.7000;0.1888;7.1095;
1218.0000;0.1913;7.1119;
1218.3000;0.1905;7.1119;
1218.6000;0.1913;7.1048;
1218.9000;0.1962;7.1095;
1219.2000;0.1897;7.1001;
1219.5000;0.1905;7.1048;
1219.8000;0.1880;7.1025;
1220.1000;0.1888;7.1048;
1220.4000;0.1913;7.1095;
1220.7000;0.1913;7.1189;
1221.0000;0.1921;7.1236;
1221.3000;0.1856;7.1095;
1221.6000;0.1921;7.1236;
1221.9000;0.1897;7.1213;
1222.2000;0.1929;7.1189;
1222.5000;0.1913;7.1095;
1222.8000;0.1888;7.1189;
1223.1000;0.1913;7.1377;
1223.4000;0.1905;7.1260;
1223.7000;0.1921;7.1260;
1224.0000;0.1897;7.1236;
1224.3000;0.2011;7.1519;
1224.6000;0.1905;7.1189;
1224.9000;0.1937;7.1307;
1225.2000;0.1888;7.1283;
1225.5000;0.1905;7.1236;
1225.8000;0.1848;7.1025;
1226.1000;0.1905;7.1189;
1226.4000;0.1897;7.1166;
1226.7000;0.1913;7.1213;
1227.0000;0.1897;7.1189;
1227.3000;0.1921;7.1166;
1227.6000;0.1897;7.1072;
1227.9000;0.1921;7.1236;
1228.2000;0.1913;7.1260;
1228.5000;0.1905;7.1236;
1228.8000;0.1905;7.1236;
1229.1000;0.1921;7.1307;
1229.4000;0.1921;7.1189;
1229.7000;0.1929;7.1213;
1230.0000;0.1905;7.1166;
1230.3000;0.1880;7.1166;
1230.6000;0.1872;7.1072;
1230.9000;0.1897;7.1166;
1231.2000;0.1905;7.1213;
1231.5000;0.1864;7.1095;
1231.8000;0.1913;7.1189;
1232.1000;0.1913;7.1236;
1232.4000;0.1897;7.1166;
1232.7000;0.1913;7.1072;
1233.0000;0.1913;7.1072;
1233.3000;0.2035;7.1377;
1233.6000;0.1872;7.1025;
1233.9000;0.1954;7.1330;
1234.2000;0.1913;7.1189;
1234.5000;0.1905;7.1119;
1234.8000;0.1921;7.1166;
1235.1000;0.1848;7.0978;
1235.4000;0.1897;7.1119;
1235.7000;0.1872;7.1072;
1236.0000;0.1913;7.1072;
1236.3000;0.1913;7.1025;
1236.6000;0.1872;7.0954;
1236.9000;0.1897;7.1025;
1237.2000;0.1913;7.1048;
1237.5000;0.1905;7.0860;
1237.8000;0.1913;7.0837;
1238.1000;0.1913;7.0884;
1238.4000;0.1913;7.0884;
1238.7000;0.1978;7.1072;
1239.0000;0.1937;7.0954;
1239.3000;0.1897;7.0884;
1239.6000;0.1937;7.1001;
1239.9000;0.1815;7.0813;
1240.2000;0.1913;7.1119;
1240.5000;0.1880;7.1095;
1240.8000;0.1905;7.1119;
1241.1000;0.1921;7.1236;
1241.4000;0.1945;7.1236;
1241.7000;0.1888;7.1025;
1242.0000;0.1937;7.1119;
1242.3000;0.1897;7.0978;
1242.6000;0.1913;7.0931;
1242.9000;0.1864;7.0766;
1243.2000;0.1905;7.0954;
1243.5000;0.1921;7.0954;
1243.8000;0.1913;7.0931;
1244.1000;0.1913;7.1001;
1244.4000;0.1897;7.1119;
1244.7000;0.1897;7.1166;
1245.0000;0.1905;7.1119;
1245.3000;0.1897;7.1213;
1245.6000;0.1880;7.1166;
1245.9000;0.1888;7.1213;
1246.2000;0.1921;7.1354;
1246.5000;0.1913;7.1401;
1246.8000;0.1880;7.1354;
1247.1000;0.1905;7.1401;
1247.4000;0.1888;7.1377;
1247.7000;0.1905;7.1307;
1248.0000;0.1905;7.1236;
1248.3000;0.1937;7.1260;
1248.6000;0.1929;7.1307;
1248.9000;0.1888;7.1260;
1249.2000;0.1929;7.1424;
1249.5000;0.1921;7.1448;
1249.8000;0.1905;7.1354;
1250.1000;0.1905;7.1260;
1250.4000;0.1888;7.1260;
1250.7000;0.1937;7.1307;
1251.0000;0.1905;7.1189;
1251.3000;0.1929;7.1354;
1251.6000;0.1929;7.1354;
1251.9000;0.1921;7.1377;
1252.2000;0.1913;7.1307;
1252.5000;0.1913;7.1260;
1252.8000;0.1921;7.1354;
1253.1000;0.1929;7.1354;
1253.4000;0.1905;7.1448;
1253.7000;0.1921;7.1424;
1254.0000;0.1929;7.1472;
1254.3000;0.1888;7.1377;
1254.6000;0.1921;7.1377;
1254.9000;0.1905;7.1330;
1255.2000;0.1897;7.1260;
1255.5000;0.1888;7.1236;
1255.8000;0.1929;7.1354;
1256.1000;0.1880;7.1189;
1256.4000;0.1913;7.1283;
1256.7000;0.1880;7.1213;
1257.0000;0.1888;7.1189;
1257.3000;0.1905;7.1166;
1257.6000;0.1954;7.1330;
1257.9000;0.1888;7.1119;
1258.2000;0.1888;7.1166;
1258.5000;0.1913;7.1236;
1258.8000;0.1897;7.1283;
1259.1000;0.1897;7.1260;
1259.4000;0.1897;7.1213;
1259.7000;0.1921;7.1236;
1260.0000;0.1905;7.1260;
1260.3000;0.1888;7.1283;
1260.6000;0.1905;7.1354;
1260.9000;0.1913;7.1377;
1261.2000;0.1905;7.1424;
1261.5000;0.1929;7.1519;
1261.8000;0.1905;7.1401;
1262.1000;0.1921;7.1401;
1262.4000;0.1905;7.1424;
1262.7000;0.1905;7.1448;
1263.0000;0.1913;7.1472;
1263.3000;0.1913;7.1424;
1263.6000;0.1905;7.1542;
1263.9000;0.1921;7.1472;
1264.2000;0.1962;7.1448;
1264.5000;0.1880;7.1377;
1264.8000;0.1970;7.1519;
1265.1000;0.1905;7.1401;
1265.4000;0.1888;7.1307;
1265.7000;0.1897;7.1354;
1266.0000;0.1888;7.1330;
1266.3000;0.1888;7.1283;
1266.6000;0.1897;7.1260;
1266.9000;0.1864;7.1142;
1267.2000;0.1880;7.1189;
1267.5000;0.1880;7.1260;
1267.8000;0.1897;7.1166;
1268.1000;0.1913;7.1166;
1268.4000;0.1897;7.1142;
1268.7000;0.1888;7.1142;
1269.0000;0.1929;7.1283;
1269.3000;0.1872;7.1142;
1269.6000;0.1921;7.1166;
1269.9000;0.1913;7.1119;
1270.2000;0.1880;7.1119;
1270.5000;0.1897;7.1142;
1270.8000;0.1888;7.1072;
1271.1000;0.1880;7.1048;
1271.4000;0.1815;7.0860;
1271.7000;0.1937;7.1048;
1272.0000;0.1905;7.1048;
1272.3000;0.1872;7.1072;
1272.6000;0.1913;7.1142;
1272.9000;0.1880;7.1142;
1273.2000;0.1913;7.1166;
1273.5000;0.1921;7.1307;
1273.8000;0.1913;7.1260;
1274.1000;0.1888;7.1166;
1274.4000;0.1905;7.1189;
1274.7000;0.1913;7.1189;
1275.0000;0.1905;7.1025;
1275.3000;0.1897;7.1025;
1275.6000;0.1888;7.1025;
1275.9000;0.1897;7.1166;
1276.2000;0.1897;7.1166;
1276.5000;0.1905;7.1142;
1276.8000;0.1897;7.1142;
1277.1000;0.1897;7.1166;
1277.4000;0.1905;7.1260;
1277.7000;0.1905;7.1307;
1278.0000;0.1897;7.1307;
1278.3000;0.1913;7.1260;
1278.6000;0.1897;7.1213;
1278.9000;0.1888;7.1142;
1279.2000;0.1945;7.1236;
1279.5000;0.1905;7.1095;
1279.8000;0.1888;7.1025;
1280.1000;0.1888;7.1095;
1280.4000;0.1897;7.1189;
1280.7000;0.1905;7.1119;
1281.0000;0.1897;7.0978;
1281.3000;0.1864;7.0907;
1281.6000;0.1913;7.1048;
1281.9000;0.1913;7.1001;
1282.2000;0.1913;7.0978;
1282.5000;0.1905;7.1001;
1282.8000;0.1921;7.1025;
1283.1000;0.1921;7.1025;
1283.4000;0.1897;7.1048;
1283.7000;0.1905;7.1119;
1284.0000;0.1905;7.1072;
1284.3000;0.1840;7.0931;
1284.6000;0.1913;7.1072;
1284.9000;0.1897;7.1001;
1285.2000;0.1905;7.1001;
1285.5000;0.1921;7.1072;
1285.8000;0.1913;7.1025;
1286.1000;0.1913;7.0978;
1286.4000;0.1897;7.0907;
1286.7000;0.1962;7.1025;
1287.0000;0.1929;7.1025;
1287.3000;0.1937;7.1095;
1287.6000;0.1905;7.1072;
1287.9000;0.1905;7.1072;
1288.2000;0.1897;7.1025;
1288.5000;0.1905;7.0978;
1288.8000;0.1913;7.1001;
1289.1000;0.1897;7.0954;
1289.4000;0.1905;7.1025;
1289.7000;0.1880;7.1001;
1290.0000;0.1872;7.1048;
1290.3000;0.1921;7.1142;
1290.6000;0.1921;7.1189;
1290.9000;0.1888;7.1072;
1291.2000;0.1905;7.1095;
1291.5000;0.1888;7.1001;
1291.8000;0.1880;7.0954;
1292.1000;0.1823;7.0837;
1292.4000;0.1880;7.0954;
1292.7000;0.1897;7.1095;
1293.0000;0.1897;7.1025;
1293.3000;0.1962;7.1119;
1293.6000;0.1905;7.1001;
1293.9000;0.1913;7.0978;
1294.2000;0.1921;7.1048;
1294.5000;0.1872;7.0978;
1294.8000;0.1929;7.1095;
1295.1000;0.1897;7.1025;
1295.4000;0.1888;7.1048;
1295.7000;0.1856;7.1048;
1296.0000;0.1897;7.1307;
1296.3000;0.1897;7.1283;
1296.6000;0.1897;7.1142;
1296.9000;0.1905;7.1189;
1297.2000;0.1913;7.1307;
1297.5000;0.1888;7.1354;
1297.8000;0.1856;7.1260;
1298.1000;0.1905;7.1401;
1298.4000;0.1897;7.1330;
1298.7000;0.1897;7.1260;
1299.0000;0.1905;7.1307;
1299.3000;0.1905;7.1354;
1299.6000;0.1897;7.1354;
1299.9000;0.1888;7.1354;
1300.2000;0.1905;7.1307;
1300.5000;0.1897;7.1283;
1300.8000;0.1978;7.1354;
1301.1000;0.1888;7.1072;
1301.4000;0.1880;7.1001;
1301.7000;0.1905;7.1025;
1302.0000;0.1897;7.1095;
1302.3000;0.1929;7.1166;
1302.6000;0.1897;7.1119;
1302.9000;0.1897;7.1142;
1303.2000;0.1897;7.1142;
1303.5000;0.1913;7.1142;
1303.8000;0.1888;7.1119;
1304.1000;0.1799;7.0813;
1304.4000;0.1913;7.1095;
1304.7000;0.1913;7.1166;
1305.0000;0.1897;7.1048;
1305.3000;0.1897;7.1001;
1305.6000;0.1905;7.1095;
1305.9000;0.1905;7.1142;
1306.2000;0.1913;7.1142;
1306.5000;0.1888;7.1166;
1306.8000;0.1872;7.1307;
1307.1000;0.1905;7.1424;
1307.4000;0.1897;7.1401;
1307.7000;0.1905;7.1377;
1308.0000;0.1913;7.1401;
1308.3000;0.1929;7.1377;
1308.6000;0.1913;7.1330;
1308.9000;0.1905;7.1330;
1309.2000;0.1897;7.1330;
1309.5000;0.1897;7.1330;
1309.8000;0.1913;7.1330;
1310.1000;0.1897;7.1330;
1310.4000;0.1897;7.1283;
1310.7000;0.1897;7.1260;
1311.0000;0.1913;7.1119;
1311.3000;0.1888;7.1095;
1311.6000;0.1880;7.1001;
1311.9000;0.1888;7.1072;
1312.2000;0.1913;7.1283;
1312.5000;0.1897;7.1377;
1312.8000;0.1905;7.1401;
1313.1000;0.1905;7.1472;
1313.4000;0.1945;7.1566;
1313.7000;0.1897;7.1495;
1314.0000;0.1864;7.1448;
1314.3000;0.1905;7.1566;
1314.6000;0.1872;7.1495;
1314.9000;0.1880;7.1472;
1315.2000;0.1888;7.1401;
1315.5000;0.1897;7.1377;
1315.8000;0.1921;7.1354;
1316.1000;0.1888;7.1213;
1316.4000;0.1905;7.1142;
1316.7000;0.1880;7.1166;
1317.0000;0.1905;7.1283;
1317.3000;0.1905;7.1424;
1317.6000;0.1905;7.1448;
1317.9000;0.1856;7.1260;
1318.2000;0.1913;7.1354;
1318.5000;0.1897;7.1377;
1318.8000;0.1897;7.1401;
1319.1000;0.1913;7.1377;
1319.4000;0.1897;7.1260;
1319.7000;0.1856;7.1142;
1320.0000;0.1913;7.1213;
1320.3000;0.1880;7.1025;
1320.6000;0.1880;7.1048;
1320.9000;0.1897;7.0954;
1321.2000;0.1897;7.0884;
1321.5000;0.1880;7.0884;
1321.8000;0.1888;7.0931;
1322.1000;0.1888;7.0954;
1322.4000;0.1905;7.0907;
1322.7000;0.1978;7.1119;
1323.0000;0.1897;7.0954;
1323.3000;0.1888;7.0978;
1323.6000;0.1921;7.1119;
1323.9000;0.1970;7.1166;
1324.2000;0.1905;7.0954;
1324.5000;0.1888;7.0978;
1324.8000;0.1897;7.1001;
1325.1000;0.1872;7.1001;
1325.4000;0.1888;7.1048;
1325.7000;0.1880;7.1025;
1326.0000;0.1921;7.1095;
1326.3000;0.1897;7.1189;
1326.6000;0.1905;7.1166;
1326.9000;0.1913;7.1189;
1327.2000;0.1913;7.1213;
1327.5000;0.1913;7.1307;
1327.8000;0.1970;7.1472;
1328.1000;0.1913;7.1330;
1328.4000;0.1921;7.1354;
1328.7000;0.1921;7.1377;
1329.0000;0.1905;7.1283;
1329.3000;0.1913;7.1260;
1329.6000;0.1905;7.1260;
1329.9000;0.1864;7.1072;
1330.2000;0.1913;7.1213;
1330.5000;0.1897;7.1189;
1330.8000;0.1880;7.1095;
1331.1000;0.1913;7.1166;
1331.4000;0.1913;7.1166;
1331.7000;0.1897;7.1119;
1332.0000;0.1905;7.1119;
1332.3000;0.1937;7.1166;
1332.6000;0.1921;7.1119;
1332.9000;0.1929;7.1095;
1333.2000;0.1913;7.1048;
1333.5000;0.1978;7.1166;
1333.8000;0.1921;7.1001;
1334.1000;0.1921;7.1025;
1334.4000;0.1929;7.1001;
1334.7000;0.1897;7.0978;
1335.0000;0.1913;7.1001;
1335.3000;0.1962;7.1072;
1335.6000;0.1897;7.0978;
1335.9000;0.1888;7.0907;
1336.2000;0.1905;7.0931;
1336.5000;0.1864;7.0931;
1336.8000;0.1880;7.1001;
1337.1000;0.1897;7.1166;
1337.4000;0.1905;7.1166;
1337.7000;0.1888;7.1072;
1338.0000;0.1888;7.1166;
1338.3000;0.1872;7.1095;
1338.6000;0.1872;7.1001;
1338.9000;0.1897;7.0978;
1339.2000;0.1905;7.0978;
1339.5000;0.1897;7.1025;
1339.8000;0.1897;7.1001;
1340.1000;0.1905;7.1072;
1340.4000;0.1962;7.1236;
1340.7000;0.1905;7.1119;
1341.0000;0.1913;7.1119;
1341.3000;0.1905;7.1095;
1341.6000;0.1913;7.1072;
1341.9000;0.1913;7.1189;
1342.2000;0.1913;7.1213;
1342.5000;0.1905;7.1236;
1342.8000;0.1921;7.1330;
1343.1000;0.1937;7.1401;
1343.4000;0.1905;7.1354;
1343.7000;0.1913;7.1330;
1344.0000;0.1921;7.1354;
1344.3000;0.1905;7.1377;
1344.6000;0.1921;7.1377;
1344.9000;0.1913;7.1307;
1345.2000;0.1913;7.1330;
1345.5000;0.1921;7.1330;
1345.8000;0.1913;7.1283;
1346.1000;0.1913;7.1213;
1346.4000;0.1929;7.1260;
1346.7000;0.1872;7.1307;
1347.0000;0.1929;7.1448;
1347.3000;0.1897;7.1401;
1347.6000;0.1905;7.1401;
1347.9000;0.1970;7.1448;
1348.2000;0.1897;7.1260;
1348.5000;0.1888;7.1307;
1348.8000;0.1921;7.1401;
1349.1000;0.1905;7.1330;
1349.4000;0.1897;7.1213;
1349.7000;0.1905;7.1260;
1350.0000;0.1888;7.1213;
1350.3000;0.1880;7.1095;
1350.6000;0.2002;7.1307;
1350.9000;0.1905;7.1025;
1351.2000;0.1897;7.1001;
1351.5000;0.1905;7.1072;
1351.8000;0.1913;7.1119;
1352.1000;0.1921;7.1119;
1352.4000;0.1905;7.1119;
1352.7000;0.1905;7.1166;
1353.0000;0.1921;7.1236;
1353.3000;0.1905;7.1213;
1353.6000;0.1897;7.1307;
1353.9000;0.1913;7.1354;
1354.2000;0.1929;7.1448;
1354.5000;0.2019;7.1707;
1354.8000;0.1913;7.1307;
1355.1000;0.1929;7.1330;
1355.4000;0.1913;7.1330;
1355.7000;0.1994;7.1566;
1356.0000;0.1913;7.1330;
1356.3000;0.1937;7.1377;
1356.6000;0.1937;7.1330;
1356.9000;0.1945;7.1401;
1357.2000;0.1937;7.1401;
1357.5000;0.1905;7.1354;
1357.8000;0.1913;7.1236;
1358.1000;0.1913;7.1213;
1358.4000;0.1913;7.1236;
1358.7000;0.1897;7.1189;
1359.0000;0.1921;7.1166;
1359.3000;0.1962;7.1213;
1359.6000;0.1913;7.1142;
1359.9000;0.1897;7.1189;
1360.2000;0.1880;7.1213;
1360.5000;0.1905;7.1330;
1360.8000;0.1897;7.1307;
1361.1000;0.1888;7.1236;
1361.4000;0.1888;7.1260;
1361.7000;0.1888;7.1236;
1362.0000;0.1888;7.1283;
1362.3000;0.1888;7.1354;
1362.6000;0.1880;7.1330;
1362.9000;0.1962;7.1472;
1363.2000;0.1905;7.1260;
1363.5000;0.1905;7.1236;
1363.8000;0.1929;7.1377;
1364.1000;0.1913;7.1330;
1364.4000;0.1921;7.1401;
1364.7000;0.1864;7.1307;
1365.0000;0.1880;7.1330;
1365.3000;0.1864;7.1236;
1365.6000;0.1897;7.1354;
1365.9000;0.1913;7.1448;
1366.2000;0.1913;7.1377;
1366.5000;0.1921;7.1330;
1366.8000;0.1905;7.1354;
1367.1000;0.1921;7.1401;
1367.4000;0.1888;7.1354;
1367.7000;0.1888;7.1260;
1368.0000;0.1913;7.1424;
1368.3000;0.1880;7.1448;
1368.6000;0.1905;7.1472;
1368.9000;0.1897;7.1401;
1369.2000;0.1929;7.1401;
1369.5000;0.1913;7.1377;
1369.8000;0.1913;7.1283;
1370.1000;0.1921;7.1260;
1370.4000;0.1913;7.1283;
1370.7000;0.1921;7.1330;
1371.0000;0.1913;7.1330;
1371.3000;0.1937;7.1283;
1371.6000;0.1905;7.1189;
1371.9000;0.1913;7.1213;
1372.2000;0.1905;7.1260;
1372.5000;0.1905;7.1354;
1372.8000;0.1897;7.1424;
1373.1000;0.1970;7.1519;
1373.4000;0.1897;7.1377;
1373.7000;0.1913;7.1377;
1374.0000;0.1905;7.1330;
1374.3000;0.1954;7.1472;
1374.6000;0.1913;7.1377;
1374.9000;0.1872;7.1189;
1375.2000;0.1929;7.1307;
1375.5000;0.1897;7.1283;
1375.8000;0.1986;7.1472;
1376.1000;0.1880;7.1236;
1376.4000;0.1880;7.1166;
1376.7000;0.1897;7.1142;
1377.0000;0.1888;7.1095;
1377.3000;0.1897;7.1142;
1377.6000;0.1897;7.1189;
1377.9000;0.1888;7.1236;
1378.2000;0.1897;7.1307;
1378.5000;0.1905;7.1260;
1378.8000;0.1905;7.1330;
1379.1000;0.1897;7.1377;
1379.4000;0.1913;7.1401;
1379.7000;0.1929;7.1424;
1380.0000;0.1905;7.1307;
1380.3000;0.1937;7.1401;
1380.6000;0.1897;7.1330;
1380.9000;0.1913;7.1354;
1381.2000;0.1929;7.1354;
1381.5000;0.1897;7.1283;
1381.8000;0.1897;7.1307;
1382.1000;0.1897;7.1307;
1382.4000;0.1905;7.1307;
1382.7000;0.1897;7.1189;
1383.0000;0.1913;7.1213;
1383.3000;0.1888;7.1189;
1383.6000;0.1897;7.1213;
1383.9000;0.1905;7.1189;
1384.2000;0.1929;7.1283;
1384.5000;0.1897;7.1142;
1384.8000;0.1929;7.1236;
1385.1000;0.1905;7.1166;
1385.4000;0.1905;7.1189;
1385.7000;0.1905;7.1283;
1386.0000;0.1921;7.1307;
1386.3000;0.1880;7.1307;
1386.6000;0.1880;7.1260;
1386.9000;0.1905;7.1354;
1387.2000;0.1880;7.1283;
1387.5000;0.1905;7.1307;
1387.8000;0.1905;7.1330;
1388.1000;0.1954;7.1495;
1388.4000;0.1962;7.1660;
1388.7000;0.1905;7.1519;
1389.0000;0.1897;7.1542;
1389.3000;0.1913;7.1589;
1389.6000;0.1913;7.1542;
1389.9000;0.1905;7.1472;
1390.2000;0.1888;7.1307;
1390.5000;0.1929;7.1354;
1390.8000;0.1897;7.1354;
1391.1000;0.1921;7.1354;
1391.4000;0.1897;7.1283;
1391.7000;0.1905;7.1307;
1392.0000;0.1897;7.1189;
1392.3000;0.1913;7.1307;
1392.6000;0.1888;7.1377;
1392.9000;0.1815;7.1142;
1393.2000;0.1888;7.1377;
1393.5000;0.1937;7.1424;
1393.8000;0.1921;7.1330;
1394.1000;0.1905;7.1330;
1394.4000;0.1921;7.1354;
1394.7000;0.1905;7.1377;
1395.0000;0.1913;7.1424;
1395.3000;0.1905;7.1424;
1395.6000;0.1897;7.1424;
1395.9000;0.1905;7.1424;
1396.2000;0.1888;7.1354;
1396.5000;0.1848;7.1166;
1396.8000;0.1905;7.1283;
1397.1000;0.1888;7.1307;
1397.4000;0.1905;7.1330;
1397.7000;0.1913;7.1448;
1398.0000;0.1897;7.1495;
1398.3000;0.1888;7.1377;
1398.6000;0.1897;7.1424;
1398.9000;0.1897;7.1401;
1399.2000;0.1897;7.1401;
1399.5000;0.1897;7.1377;
1399.8000;0.1888;7.1213;
