time/ms;Fluo/V;P700 deltaI/I x10³;
-199.8000;0.2711;7.2154;
-199.5000;0.2719;7.2154;
-199.2000;0.2751;7.2201;
-198.9000;0.2768;7.2271;
-198.6000;0.2719;7.2177;
-198.3000;0.2719;7.2107;
-198.0000;0.2751;7.2130;
-197.7000;0.2784;7.2248;
-197.4000;0.2719;7.2107;
-197.1000;0.2768;7.2271;
-196.8000;0.2719;7.2107;
-196.5000;0.2735;7.2107;
-196.2000;0.2751;7.2224;
-195.9000;0.2751;7.2248;
-195.6000;0.2727;7.2201;
-195.3000;0.2686;7.2107;
-195.0000;0.2727;7.2130;
-194.7000;0.2735;7.2154;
-194.4000;0.2686;7.2130;
-194.1000;0.2776;7.2365;
-193.8000;0.2743;7.2318;
-193.5000;0.2670;7.2059;
-193.2000;0.2719;7.2083;
-192.9000;0.2743;7.2154;
-192.6000;0.2743;7.2107;
-192.3000;0.2735;7.2154;
-192.0000;0.2735;7.2154;
-191.7000;0.2727;7.2036;
-191.4000;0.2735;7.2083;
-191.1000;0.2711;7.1942;
-190.8000;0.2735;7.2036;
-190.5000;0.2727;7.2012;
-190.2000;0.2743;7.1989;
-189.9000;0.2735;7.1918;
-189.6000;0.2670;7.1824;
-189.3000;0.2719;7.1989;
-189.0000;0.2792;7.2154;
-188.7000;0.2768;7.2059;
-188.4000;0.2776;7.2083;
-188.1000;0.2735;7.1989;
-187.8000;0.2727;7.1965;
-187.5000;0.2735;7.1942;
-187.2000;0.2727;7.1918;
-186.9000;0.2702;7.2036;
-186.6000;0.2719;7.2036;
-186.3000;0.2743;7.2107;
-186.0000;0.2735;7.2083;
-185.7000;0.2735;7.2130;
-185.4000;0.2743;7.2107;
-185.1000;0.2808;7.2271;
-184.8000;0.2768;7.2154;
-184.5000;0.2735;7.2083;
-184.2000;0.2727;7.2083;
-183.9000;0.2743;7.2059;
-183.6000;0.2743;7.2059;
-183.3000;0.2751;7.2107;
-183.0000;0.2759;7.2083;
-182.7000;0.2759;7.2083;
-182.4000;0.2743;7.2012;
-182.1000;0.2759;7.2059;
-181.8000;0.2743;7.1965;
-181.5000;0.2743;7.1942;
-181.2000;0.2719;7.2036;
-180.9000;0.2759;7.2036;
-180.6000;0.2727;7.2083;
-180.3000;0.2743;7.2201;
-180.0000;0.2751;7.2201;
-179.7000;0.2727;7.2036;
-179.4000;0.2759;7.2059;
-179.1000;0.2735;7.1989;
-178.8000;0.2711;7.1989;
-178.5000;0.2759;7.2059;
-178.2000;0.2727;7.1965;
-177.9000;0.2727;7.1989;
-177.6000;0.2768;7.2083;
-177.3000;0.2751;7.2083;
-177.0000;0.2759;7.2083;
-176.7000;0.2743;7.2012;
-176.4000;0.2743;7.2083;
-176.1000;0.2735;7.1989;
-175.8000;0.2727;7.1942;
-175.5000;0.2727;7.1918;
-175.2000;0.2743;7.1989;
-174.9000;0.2743;7.2059;
-174.6000;0.2751;7.2154;
-174.3000;0.2735;7.2083;
-174.0000;0.2735;7.2130;
-173.7000;0.2751;7.2059;
-173.4000;0.2743;7.2036;
-173.1000;0.2727;7.2107;
-172.8000;0.2751;7.2248;
-172.5000;0.2735;7.2154;
-172.2000;0.2751;7.2107;
-171.9000;0.2743;7.2177;
-171.6000;0.2711;7.2130;
-171.3000;0.2743;7.2201;
-171.0000;0.2751;7.2177;
-170.7000;0.2751;7.2154;
-170.4000;0.2751;7.2130;
-170.1000;0.2727;7.2083;
-169.8000;0.2751;7.2130;
-169.5000;0.2776;7.2177;
-169.2000;0.2735;7.2130;
-168.9000;0.2735;7.2177;
-168.6000;0.2751;7.2295;
-168.3000;0.2759;7.2248;
-168.0000;0.2735;7.2130;
-167.7000;0.2735;7.2130;
-167.4000;0.2743;7.2083;
-167.1000;0.2743;7.2130;
-166.8000;0.2759;7.2154;
-166.5000;0.2768;7.2271;
-166.2000;0.2735;7.2224;
-165.9000;0.2735;7.2271;
-165.6000;0.2751;7.2248;
-165.3000;0.2735;7.2248;
-165.0000;0.2743;7.2177;
-164.7000;0.2735;7.2177;
-164.4000;0.2759;7.2224;
-164.1000;0.2751;7.2083;
-163.8000;0.2743;7.2154;
-163.5000;0.2751;7.2201;
-163.2000;0.2751;7.2154;
-162.9000;0.2702;7.2059;
-162.6000;0.2792;7.2318;
-162.3000;0.2800;7.2248;
-162.0000;0.2751;7.2107;
-161.7000;0.2743;7.2083;
-161.4000;0.2719;7.2036;
-161.1000;0.2702;7.2059;
-160.8000;0.2751;7.2201;
-160.5000;0.2751;7.2177;
-160.2000;0.2743;7.2130;
-159.9000;0.2719;7.2059;
-159.6000;0.2711;7.2059;
-159.3000;0.2719;7.2083;
-159.0000;0.2743;7.2036;
-158.7000;0.2743;7.1942;
-158.4000;0.2768;7.2083;
-158.1000;0.2678;7.2012;
-157.8000;0.2743;7.2248;
-157.5000;0.2800;7.2389;
-157.2000;0.2759;7.2271;
-156.9000;0.2759;7.2271;
-156.6000;0.2743;7.2201;
-156.3000;0.2711;7.2012;
-156.0000;0.2719;7.2107;
-155.7000;0.2751;7.2201;
-155.4000;0.2727;7.2083;
-155.1000;0.2719;7.2107;
-154.8000;0.2751;7.2130;
-154.5000;0.2751;7.2107;
-154.2000;0.2768;7.2130;
-153.9000;0.2751;7.2107;
-153.6000;0.2735;7.2130;
-153.3000;0.2759;7.2318;
-153.0000;0.2743;7.2271;
-152.7000;0.2727;7.2130;
-152.4000;0.2727;7.2248;
-152.1000;0.2833;7.2483;
-151.8000;0.2768;7.2295;
-151.5000;0.2727;7.2271;
-151.2000;0.2768;7.2342;
-150.9000;0.2751;7.2224;
-150.6000;0.2768;7.2248;
-150.3000;0.2759;7.2036;
-150.0000;0.2743;7.2036;
-149.7000;0.2735;7.2059;
-149.4000;0.2759;7.2177;
-149.1000;0.2735;7.2130;
-148.8000;0.2735;7.2248;
-148.5000;0.2743;7.2224;
-148.2000;0.2743;7.2271;
-147.9000;0.2735;7.2177;
-147.6000;0.2751;7.2154;
-147.3000;0.2743;7.2224;
-147.0000;0.2759;7.2248;
-146.7000;0.2702;7.2154;
-146.4000;0.2735;7.2201;
-146.1000;0.2719;7.2083;
-145.8000;0.2743;7.2036;
-145.5000;0.2719;7.1918;
-145.2000;0.2743;7.1942;
-144.9000;0.2743;7.1871;
-144.6000;0.2735;7.1848;
-144.3000;0.2751;7.1918;
-144.0000;0.2743;7.1895;
-143.7000;0.2751;7.1989;
-143.4000;0.2727;7.1989;
-143.1000;0.2751;7.1989;
-142.8000;0.2751;7.1965;
-142.5000;0.2768;7.2036;
-142.2000;0.2776;7.2036;
-141.9000;0.2808;7.2083;
-141.6000;0.2743;7.1965;
-141.3000;0.2743;7.1989;
-141.0000;0.2759;7.2036;
-140.7000;0.2711;7.1918;
-140.4000;0.2743;7.2012;
-140.1000;0.2719;7.1918;
-139.8000;0.2711;7.1965;
-139.5000;0.2711;7.2012;
-139.2000;0.2719;7.1989;
-138.9000;0.2678;7.1895;
-138.6000;0.2719;7.2107;
-138.3000;0.2719;7.2130;
-138.0000;0.2759;7.2107;
-137.7000;0.2743;7.2130;
-137.4000;0.2735;7.2177;
-137.1000;0.2776;7.2154;
-136.8000;0.2751;7.2107;
-136.5000;0.2702;7.1989;
-136.2000;0.2719;7.1965;
-135.9000;0.2743;7.2012;
-135.6000;0.2711;7.1965;
-135.3000;0.2751;7.2012;
-135.0000;0.2743;7.1942;
-134.7000;0.2719;7.1918;
-134.4000;0.2759;7.2012;
-134.1000;0.2751;7.2036;
-133.8000;0.2792;7.2177;
-133.5000;0.2759;7.2130;
-133.2000;0.2743;7.2107;
-132.9000;0.2768;7.2201;
-132.6000;0.2727;7.2130;
-132.3000;0.2719;7.2154;
-132.0000;0.2702;7.2059;
-131.7000;0.2784;7.2318;
-131.4000;0.2654;7.2012;
-131.1000;0.2808;7.2436;
-130.8000;0.2735;7.2177;
-130.5000;0.2727;7.2036;
-130.2000;0.2759;7.2059;
-129.9000;0.2719;7.1918;
-129.6000;0.2751;7.1989;
-129.3000;0.2759;7.2083;
-129.0000;0.2751;7.2177;
-128.7000;0.2735;7.2059;
-128.4000;0.2735;7.2154;
-128.1000;0.2776;7.2248;
-127.8000;0.2751;7.2271;
-127.5000;0.2751;7.2248;
-127.2000;0.2751;7.2224;
-126.9000;0.2743;7.2201;
-126.6000;0.2735;7.2248;
-126.3000;0.2800;7.2342;
-126.0000;0.2743;7.2201;
-125.7000;0.2662;7.2059;
-125.4000;0.2751;7.2248;
-125.1000;0.2833;7.2436;
-124.8000;0.2735;7.2201;
-124.5000;0.2743;7.2295;
-124.2000;0.2711;7.2154;
-123.9000;0.2735;7.2271;
-123.6000;0.2735;7.2295;
-123.3000;0.2784;7.2389;
-123.0000;0.2743;7.2295;
-122.7000;0.2743;7.2318;
-122.4000;0.2727;7.2295;
-122.1000;0.2759;7.2389;
-121.8000;0.2735;7.2412;
-121.5000;0.2759;7.2389;
-121.2000;0.2751;7.2342;
-120.9000;0.2743;7.2271;
-120.6000;0.2702;7.2177;
-120.3000;0.2759;7.2295;
-120.0000;0.2727;7.2154;
-119.7000;0.2743;7.2177;
-119.4000;0.2743;7.2271;
-119.1000;0.2768;7.2436;
-118.8000;0.2719;7.2271;
-118.5000;0.2751;7.2318;
-118.2000;0.2735;7.2271;
-117.9000;0.2735;7.2342;
-117.6000;0.2727;7.2365;
-117.3000;0.2743;7.2342;
-117.0000;0.2735;7.2318;
-116.7000;0.2751;7.2389;
-116.4000;0.2735;7.2271;
-116.1000;0.2743;7.2295;
-115.8000;0.2694;7.2224;
-115.5000;0.2702;7.2224;
-115.2000;0.2711;7.2177;
-114.9000;0.2727;7.2224;
-114.6000;0.2743;7.2248;
-114.3000;0.2735;7.2248;
-114.0000;0.2735;7.2295;
-113.7000;0.2694;7.2295;
-113.4000;0.2735;7.2483;
-113.1000;0.2735;7.2506;
-112.8000;0.2751;7.2483;
-112.5000;0.2735;7.2412;
-112.2000;0.2751;7.2436;
-111.9000;0.2743;7.2365;
-111.6000;0.2792;7.2412;
-111.3000;0.2743;7.2342;
-111.0000;0.2678;7.2201;
-110.7000;0.2711;7.2248;
-110.4000;0.2719;7.2365;
-110.1000;0.2735;7.2295;
-109.8000;0.2727;7.2295;
-109.5000;0.2735;7.2389;
-109.2000;0.2735;7.2365;
-108.9000;0.2702;7.2271;
-108.6000;0.2768;7.2483;
-108.3000;0.2759;7.2530;
-108.0000;0.2719;7.2459;
-107.7000;0.2727;7.2412;
-107.4000;0.2759;7.2412;
-107.1000;0.2727;7.2318;
-106.8000;0.2727;7.2224;
-106.5000;0.2743;7.2248;
-106.2000;0.2743;7.2177;
-105.9000;0.2768;7.2224;
-105.6000;0.2735;7.2107;
-105.3000;0.2743;7.2130;
-105.0000;0.2751;7.2107;
-104.7000;0.2768;7.2083;
-104.4000;0.2751;7.2130;
-104.1000;0.2727;7.2154;
-103.8000;0.2751;7.2201;
-103.5000;0.2743;7.2083;
-103.2000;0.2759;7.2154;
-102.9000;0.2751;7.2083;
-102.6000;0.2759;7.2248;
-102.3000;0.2743;7.2318;
-102.0000;0.2751;7.2389;
-101.7000;0.2825;7.2553;
-101.4000;0.2735;7.2342;
-101.1000;0.2743;7.2342;
-100.8000;0.2735;7.2365;
-100.5000;0.2727;7.2365;
-100.2000;0.2759;7.2295;
-99.9000;0.2735;7.2295;
-99.6000;0.2759;7.2318;
-99.3000;0.2743;7.2295;
-99.0000;0.2719;7.2318;
-98.7000;0.2719;7.2295;
-98.4000;0.2727;7.2318;
-98.1000;0.2751;7.2318;
-97.8000;0.2694;7.2201;
-97.5000;0.2727;7.2295;
-97.2000;0.2768;7.2342;
-96.9000;0.2759;7.2224;
-96.6000;0.2735;7.2154;
-96.3000;0.2743;7.2177;
-96.0000;0.2751;7.2295;
-95.7000;0.2719;7.2154;
-95.4000;0.2727;7.2083;
-95.1000;0.2735;7.2059;
-94.8000;0.2694;7.1989;
-94.5000;0.2759;7.2248;
-94.2000;0.2735;7.2201;
-93.9000;0.2719;7.2012;
-93.6000;0.2694;7.1965;
-93.3000;0.2776;7.2248;
-93.0000;0.2743;7.2177;
-92.7000;0.2743;7.2154;
-92.4000;0.2751;7.2295;
-92.1000;0.2759;7.2271;
-91.8000;0.2743;7.2224;
-91.5000;0.2694;7.2130;
-91.2000;0.2743;7.2271;
-90.9000;0.2759;7.2295;
-90.6000;0.2759;7.2318;
-90.3000;0.2719;7.2201;
-90.0000;0.2816;7.2365;
-89.7000;0.2735;7.2154;
-89.4000;0.2816;7.2342;
-89.1000;0.2702;7.2012;
-88.8000;0.2841;7.2436;
-88.5000;0.2751;7.2318;
-88.2000;0.2735;7.2412;
-87.9000;0.2751;7.2412;
-87.6000;0.2735;7.2318;
-87.3000;0.2735;7.2365;
-87.0000;0.2768;7.2459;
-86.7000;0.2751;7.2483;
-86.4000;0.2727;7.2412;
-86.1000;0.2743;7.2365;
-85.8000;0.2792;7.2530;
-85.5000;0.2735;7.2412;
-85.2000;0.2735;7.2389;
-84.9000;0.2735;7.2318;
-84.6000;0.2727;7.2318;
-84.3000;0.2711;7.2365;
-84.0000;0.2743;7.2342;
-83.7000;0.2735;7.2248;
-83.4000;0.2743;7.2318;
-83.1000;0.2751;7.2318;
-82.8000;0.2743;7.2224;
-82.5000;0.2719;7.2177;
-82.2000;0.2751;7.2201;
-81.9000;0.2816;7.2295;
-81.6000;0.2735;7.2059;
-81.3000;0.2751;7.2059;
-81.0000;0.2759;7.1989;
-80.7000;0.2743;7.1942;
-80.4000;0.2743;7.1895;
-80.1000;0.2751;7.1965;
-79.8000;0.2743;7.1942;
-79.5000;0.2743;7.1918;
-79.2000;0.2735;7.1989;
-78.9000;0.2727;7.1989;
-78.6000;0.2727;7.1989;
-78.3000;0.2759;7.2107;
-78.0000;0.2759;7.2154;
-77.7000;0.2743;7.2083;
-77.4000;0.2751;7.2012;
-77.1000;0.2670;7.1801;
-76.8000;0.2768;7.2083;
-76.5000;0.2751;7.2059;
-76.2000;0.2751;7.2036;
-75.9000;0.2759;7.2083;
-75.6000;0.2702;7.1965;
-75.3000;0.2711;7.2036;
-75.0000;0.2735;7.2201;
-74.7000;0.2719;7.2271;
-74.4000;0.2751;7.2318;
-74.1000;0.2759;7.2318;
-73.8000;0.2727;7.2177;
-73.5000;0.2743;7.2154;
-73.2000;0.2743;7.2201;
-72.9000;0.2743;7.2201;
-72.6000;0.2833;7.2365;
-72.3000;0.2735;7.2154;
-72.0000;0.2759;7.2295;
-71.7000;0.2800;7.2365;
-71.4000;0.2711;7.2201;
-71.1000;0.2743;7.2224;
-70.8000;0.2702;7.2107;
-70.5000;0.2727;7.2154;
-70.2000;0.2735;7.2107;
-69.9000;0.2759;7.2107;
-69.6000;0.2816;7.2177;
-69.3000;0.2784;7.2130;
-69.0000;0.2702;7.1871;
-68.7000;0.2751;7.1942;
-68.4000;0.2719;7.1871;
-68.1000;0.2743;7.1918;
-67.8000;0.2759;7.1918;
-67.5000;0.2711;7.1801;
-67.2000;0.2751;7.2012;
-66.9000;0.2735;7.1989;
-66.6000;0.2743;7.2083;
-66.3000;0.2735;7.2012;
-66.0000;0.2743;7.2107;
-65.7000;0.2743;7.2154;
-65.4000;0.2743;7.2201;
-65.1000;0.2751;7.2177;
-64.8000;0.2727;7.2083;
-64.5000;0.2759;7.2083;
-64.2000;0.2751;7.2083;
-63.9000;0.2735;7.2012;
-63.6000;0.2825;7.2201;
-63.3000;0.2776;7.2154;
-63.0000;0.2751;7.2201;
-62.7000;0.2719;7.2083;
-62.4000;0.2743;7.2224;
-62.1000;0.2751;7.2201;
-61.8000;0.2735;7.2177;
-61.5000;0.2768;7.2224;
-61.2000;0.2759;7.2201;
-60.9000;0.2743;7.2224;
-60.6000;0.2735;7.2154;
-60.3000;0.2743;7.2224;
-60.0000;0.2711;7.2248;
-59.7000;0.2743;7.2342;
-59.4000;0.2751;7.2318;
-59.1000;0.2751;7.2295;
-58.8000;0.2727;7.2154;
-58.5000;0.2759;7.2201;
-58.2000;0.2751;7.2224;
-57.9000;0.2719;7.2248;
-57.6000;0.2743;7.2201;
-57.3000;0.2743;7.2224;
-57.0000;0.2735;7.2295;
-56.7000;0.2759;7.2224;
-56.4000;0.2735;7.2130;
-56.1000;0.2743;7.2130;
-55.8000;0.2719;7.2130;
-55.5000;0.2743;7.2248;
-55.2000;0.2759;7.2365;
-54.9000;0.2735;7.2365;
-54.6000;0.2735;7.2483;
-54.3000;0.2792;7.2459;
-54.0000;0.2751;7.2365;
-53.7000;0.2751;7.2271;
-53.4000;0.2751;7.2342;
-53.1000;0.2743;7.2318;
-52.8000;0.2743;7.2318;
-52.5000;0.2759;7.2271;
-52.2000;0.2711;7.2224;
-51.9000;0.2751;7.2248;
-51.6000;0.2727;7.2271;
-51.3000;0.2743;7.2342;
-51.0000;0.2735;7.2342;
-50.7000;0.2751;7.2365;
-50.4000;0.2743;7.2224;
-50.1000;0.2751;7.2130;
-49.8000;0.2727;7.2130;
-49.5000;0.2719;7.2059;
-49.2000;0.2735;7.2201;
-48.9000;0.2751;7.2342;
-48.6000;0.2719;7.2177;
-48.3000;0.2743;7.2154;
-48.0000;0.2727;7.2083;
-47.7000;0.2751;7.2177;
-47.4000;0.2735;7.2107;
-47.1000;0.2727;7.2059;
-46.8000;0.2735;7.2107;
-46.5000;0.2768;7.2083;
-46.2000;0.2743;7.2036;
-45.9000;0.2743;7.2012;
-45.6000;0.2768;7.2059;
-45.3000;0.2792;7.2177;
-45.0000;0.2759;7.2107;
-44.7000;0.2743;7.2059;
-44.4000;0.2759;7.2130;
-44.1000;0.2727;7.2083;
-43.8000;0.2743;7.2154;
-43.5000;0.2735;7.2059;
-43.2000;0.2808;7.2248;
-42.9000;0.2759;7.2201;
-42.6000;0.2743;7.2107;
-42.3000;0.2816;7.2342;
-42.0000;0.2751;7.2154;
-41.7000;0.2735;7.2130;
-41.4000;0.2743;7.2177;
-41.1000;0.2849;7.2506;
-40.8000;0.2743;7.2224;
-40.5000;0.2711;7.2154;
-40.2000;0.2776;7.2295;
-39.9000;0.2711;7.2130;
-39.6000;0.2776;7.2271;
-39.3000;0.2743;7.2177;
-39.0000;0.2743;7.2154;
-38.7000;0.2743;7.2130;
-38.4000;0.2743;7.2107;
-38.1000;0.2670;7.2036;
-37.8000;0.2743;7.2224;
-37.5000;0.2751;7.2342;
-37.2000;0.2743;7.2248;
-36.9000;0.2816;7.2412;
-36.6000;0.2808;7.2271;
-36.3000;0.2759;7.2201;
-36.0000;0.2759;7.2224;
-35.7000;0.2727;7.2177;
-35.4000;0.2743;7.2177;
-35.1000;0.2768;7.2295;
-34.8000;0.2759;7.2271;
-34.5000;0.2727;7.2224;
-34.2000;0.2759;7.2248;
-33.9000;0.2743;7.2271;
-33.6000;0.2735;7.2271;
-33.3000;0.2735;7.2318;
-33.0000;0.2743;7.2295;
-32.7000;0.2743;7.2318;
-32.4000;0.2751;7.2318;
-32.1000;0.2759;7.2224;
-31.8000;0.2735;7.2083;
-31.5000;0.2759;7.2130;
-31.2000;0.2743;7.2059;
-30.9000;0.2759;7.2107;
-30.6000;0.2751;7.2036;
-30.3000;0.2808;7.2295;
-30.0000;0.2751;7.2154;
-29.7000;0.2743;7.2107;
-29.4000;0.2751;7.2130;
-29.1000;0.2735;7.2201;
-28.8000;0.2727;7.2248;
-28.5000;0.2759;7.2295;
-28.2000;0.2808;7.2365;
-27.9000;0.2719;7.2177;
-27.6000;0.2694;7.2201;
-27.3000;0.2751;7.2318;
-27.0000;0.2768;7.2389;
-26.7000;0.2751;7.2389;
-26.4000;0.2735;7.2365;
-26.1000;0.2743;7.2506;
-25.8000;0.2702;7.2342;
-25.5000;0.2727;7.2365;
-25.2000;0.2751;7.2436;
-24.9000;0.2727;7.2389;
-24.6000;0.2711;7.2342;
-24.3000;0.2719;7.2248;
-24.0000;0.2727;7.2201;
-23.7000;0.2743;7.2154;
-23.4000;0.2743;7.2059;
-23.1000;0.2759;7.2130;
-22.8000;0.2735;7.2036;
-22.5000;0.2759;7.2154;
-22.2000;0.2759;7.2083;
-21.9000;0.2743;7.2083;
-21.6000;0.2776;7.2177;
-21.3000;0.2735;7.2130;
-21.0000;0.2727;7.2201;
-20.7000;0.2792;7.2365;
-20.4000;0.2735;7.2248;
-20.1000;0.2743;7.2318;
-19.8000;0.2759;7.2412;
-19.5000;0.2735;7.2318;
-19.2000;0.2743;7.2271;
-18.9000;0.2751;7.2271;
-18.6000;0.2735;7.2154;
-18.3000;0.2751;7.2130;
-18.0000;0.2670;7.1895;
-17.7000;0.2768;7.2083;
-17.4000;0.2743;7.2177;
-17.1000;0.2711;7.2107;
-16.8000;0.2735;7.2130;
-16.5000;0.2735;7.2154;
-16.2000;0.2719;7.2177;
-15.9000;0.2751;7.2177;
-15.6000;0.2841;7.2318;
-15.3000;0.2727;7.1989;
-15.0000;0.2751;7.2036;
-14.7000;0.2727;7.1965;
-14.4000;0.2743;7.1965;
-14.1000;0.2751;7.2036;
-13.8000;0.2768;7.2012;
-13.5000;0.2743;7.1965;
-13.2000;0.2727;7.1942;
-12.9000;0.2751;7.1989;
-12.6000;0.2735;7.1942;
-12.3000;0.2751;7.1918;
-12.0000;0.2759;7.1989;
-11.7000;0.2759;7.2036;
-11.4000;0.2735;7.2036;
-11.1000;0.2743;7.2012;
-10.8000;0.2743;7.2012;
-10.5000;0.2735;7.2059;
-10.2000;0.2743;7.2130;
-9.9000;0.2751;7.2177;
-9.6000;0.2751;7.2248;
-9.3000;0.2784;7.2248;
-9.0000;0.2735;7.2201;
-8.7000;0.2751;7.2154;
-8.4000;0.2751;7.2177;
-8.1000;0.2784;7.2154;
-7.8000;0.2735;7.2012;
-7.5000;0.2759;7.2012;
-7.2000;0.2759;7.2059;
-6.9000;0.2751;7.2083;
-6.6000;0.2768;7.2107;
-6.3000;0.2759;7.2107;
-6.0000;0.2735;7.2130;
-5.7000;0.2735;7.2201;
-5.4000;0.2743;7.2248;
-5.1000;0.2735;7.2295;
-4.8000;0.2678;7.2083;
-4.5000;0.2743;7.2271;
-4.2000;0.2686;7.2107;
-3.9000;0.2735;7.2248;
-3.6000;0.2751;7.2295;
-3.3000;0.2751;7.2318;
-3.0000;0.2743;7.2295;
-2.7000;0.2735;7.2318;
-2.4000;0.2751;7.2389;
-2.1000;0.2743;7.2365;
-1.8000;0.2759;7.2271;
-1.5000;0.2743;7.2130;
-1.2000;0.2711;7.2012;
-0.9000;0.2743;7.2130;
-0.6000;0.2776;7.2201;
-0.3000;0.2784;7.2177;
0.0000;0.2784;7.2177;
0.3000;0.2759;7.1848;
0.6000;0.2792;7.2012;
0.9000;0.2849;7.2154;
1.2000;0.2768;7.2083;
1.5000;0.2955;7.2624;
1.8000;0.2939;7.2671;
2.1000;0.2963;7.2789;
2.4000;0.2963;7.2812;
2.7000;0.2963;7.3024;
3.0000;0.3004;7.3047;
3.3000;0.2996;7.2953;
3.6000;0.3020;7.3000;
3.9000;0.3012;7.3024;
4.2000;0.3012;7.3188;
4.5000;0.3069;7.3471;
4.8000;0.3004;7.3353;
5.1000;0.2996;7.3353;
5.4000;0.3036;7.3471;
5.7000;0.3020;7.3447;
6.0000;0.3028;7.3447;
6.3000;0.3036;7.3400;
6.6000;0.3069;7.3494;
6.9000;0.3028;7.3282;
7.2000;0.3028;7.3306;
7.5000;0.3036;7.3376;
7.8000;0.3044;7.3400;
8.1000;0.3053;7.3400;
8.4000;0.3020;7.3329;
8.7000;0.3036;7.3447;
9.0000;0.3036;7.3541;
9.3000;0.3053;7.3635;
9.6000;0.3061;7.3635;
9.9000;0.3036;7.3635;
10.2000;0.3028;7.3635;
10.5000;0.3061;7.3612;
10.8000;0.3044;7.3635;
11.1000;0.3069;7.3682;
11.4000;0.3069;7.3635;
11.7000;0.3044;7.3588;
12.0000;0.3069;7.3588;
12.3000;0.3085;7.3659;
12.6000;0.3061;7.3565;
12.9000;0.3077;7.3565;
13.2000;0.3101;7.3635;
13.5000;0.3085;7.3612;
13.8000;0.3077;7.3565;
14.1000;0.3134;7.3659;
14.4000;0.3085;7.3541;
14.7000;0.3150;7.3635;
15.0000;0.3069;7.3424;
15.3000;0.3093;7.3471;
15.6000;0.3101;7.3518;
15.9000;0.3085;7.3612;
16.2000;0.3093;7.3612;
16.5000;0.3085;7.3518;
16.8000;0.3036;7.3518;
17.1000;0.3093;7.3659;
17.4000;0.3069;7.3659;
17.7000;0.3077;7.3682;
18.0000;0.3109;7.3776;
18.3000;0.3101;7.3729;
18.6000;0.3118;7.3659;
18.9000;0.3077;7.3588;
19.2000;0.3093;7.3541;
19.5000;0.3093;7.3471;
19.8000;0.3191;7.3565;
20.1000;0.3093;7.3353;
20.4000;0.3101;7.3376;
20.7000;0.3126;7.3494;
21.0000;0.3093;7.3424;
21.3000;0.3093;7.3494;
21.6000;0.3101;7.3494;
21.9000;0.3109;7.3447;
22.2000;0.3118;7.3353;
22.5000;0.3150;7.3400;
22.8000;0.3150;7.3353;
23.1000;0.3085;7.3259;
23.4000;0.3093;7.3329;
23.7000;0.3109;7.3447;
24.0000;0.3109;7.3518;
24.3000;0.3093;7.3471;
24.6000;0.3061;7.3400;
24.9000;0.3109;7.3659;
25.2000;0.3150;7.3682;
25.5000;0.3166;7.3682;
25.8000;0.3126;7.3612;
26.1000;0.3118;7.3565;
26.4000;0.3134;7.3635;
26.7000;0.3020;7.3282;
27.0000;0.3126;7.3471;
27.3000;0.3142;7.3588;
27.6000;0.3134;7.3588;
27.9000;0.3126;7.3565;
28.2000;0.3150;7.3612;
28.5000;0.3150;7.3706;
28.8000;0.3207;7.3800;
29.1000;0.3134;7.3659;
29.4000;0.3158;7.3635;
29.7000;0.3118;7.3612;
30.0000;0.3109;7.3635;
30.3000;0.3126;7.3612;
30.6000;0.3126;7.3612;
30.9000;0.3142;7.3612;
31.2000;0.3150;7.3635;
31.5000;0.3126;7.3565;
31.8000;0.3126;7.3494;
32.1000;0.3093;7.3400;
32.4000;0.3134;7.3376;
32.7000;0.3150;7.3424;
33.0000;0.3118;7.3329;
33.3000;0.3158;7.3424;
33.6000;0.3158;7.3424;
33.9000;0.3183;7.3424;
34.2000;0.3175;7.3424;
34.5000;0.3158;7.3424;
34.8000;0.3158;7.3471;
35.1000;0.3166;7.3400;
35.4000;0.3150;7.3329;
35.7000;0.3142;7.3353;
36.0000;0.3109;7.3329;
36.3000;0.3134;7.3494;
36.6000;0.3166;7.3447;
36.9000;0.3126;7.3306;
37.2000;0.3183;7.3518;
37.5000;0.3183;7.3541;
37.8000;0.3093;7.3306;
38.1000;0.3158;7.3400;
38.4000;0.3191;7.3494;
38.7000;0.3158;7.3471;
39.0000;0.3166;7.3447;
39.3000;0.3166;7.3376;
39.6000;0.3158;7.3376;
39.9000;0.3150;7.3376;
40.2000;0.3183;7.3494;
40.5000;0.3158;7.3424;
40.8000;0.3126;7.3329;
41.1000;0.3166;7.3424;
41.4000;0.3175;7.3424;
41.7000;0.3183;7.3471;
42.0000;0.3118;7.3353;
42.3000;0.3150;7.3353;
42.6000;0.3175;7.3424;
42.9000;0.3158;7.3376;
43.2000;0.3158;7.3329;
43.5000;0.3175;7.3471;
43.8000;0.3166;7.3471;
44.1000;0.3215;7.3612;
44.4000;0.3175;7.3518;
44.7000;0.3191;7.3565;
45.0000;0.3166;7.3518;
45.3000;0.3248;7.3659;
45.6000;0.3142;7.3376;
45.9000;0.3175;7.3376;
46.2000;0.3183;7.3353;
46.5000;0.3150;7.3306;
46.8000;0.3175;7.3447;
47.1000;0.3166;7.3494;
47.4000;0.3183;7.3471;
47.7000;0.3191;7.3518;
48.0000;0.3158;7.3424;
48.3000;0.3183;7.3518;
48.6000;0.3142;7.3400;
48.9000;0.3199;7.3494;
49.2000;0.3183;7.3447;
49.5000;0.3158;7.3447;
49.8000;0.3175;7.3447;
50.1000;0.3158;7.3400;
50.4000;0.3175;7.3353;
50.7000;0.3191;7.3447;
51.0000;0.3175;7.3471;
51.3000;0.3183;7.3494;
51.6000;0.3191;7.3565;
51.9000;0.3191;7.3588;
52.2000;0.3232;7.3776;
52.5000;0.3215;7.3635;
52.8000;0.3183;7.3588;
53.1000;0.3142;7.3565;
53.4000;0.3118;7.3518;
53.7000;0.3183;7.3729;
54.0000;0.3248;7.3894;
54.3000;0.3191;7.3659;
54.6000;0.3191;7.3635;
54.9000;0.3191;7.3588;
55.2000;0.3175;7.3494;
55.5000;0.3215;7.3565;
55.8000;0.3183;7.3565;
56.1000;0.3175;7.3518;
56.4000;0.3134;7.3447;
56.7000;0.3183;7.3518;
57.0000;0.3191;7.3612;
57.3000;0.3191;7.3635;
57.6000;0.3183;7.3612;
57.9000;0.3199;7.3706;
58.2000;0.3199;7.3682;
58.5000;0.3207;7.3706;
58.8000;0.3223;7.3800;
59.1000;0.3215;7.3706;
59.4000;0.3215;7.3635;
59.7000;0.3207;7.3565;
60.0000;0.3199;7.3494;
60.3000;0.3207;7.3541;
60.6000;0.3215;7.3518;
60.9000;0.3175;7.3494;
61.2000;0.3215;7.3565;
61.5000;0.3191;7.3541;
61.8000;0.3175;7.3494;
62.1000;0.3264;7.3729;
62.4000;0.3207;7.3588;
62.7000;0.3199;7.3659;
63.0000;0.3207;7.3706;
63.3000;0.3191;7.3682;
63.6000;0.3183;7.3659;
63.9000;0.3199;7.3659;
64.2000;0.3207;7.3612;
64.5000;0.3199;7.3541;
64.8000;0.3199;7.3471;
65.1000;0.3199;7.3471;
65.4000;0.3199;7.3471;
65.7000;0.3207;7.3565;
66.0000;0.3191;7.3471;
66.3000;0.3215;7.3471;
66.6000;0.3199;7.3424;
66.9000;0.3207;7.3353;
67.2000;0.3166;7.3306;
67.5000;0.3199;7.3424;
67.8000;0.3305;7.3729;
68.1000;0.3215;7.3471;
68.4000;0.3183;7.3447;
68.7000;0.3240;7.3518;
69.0000;0.3199;7.3471;
69.3000;0.3207;7.3518;
69.6000;0.3199;7.3447;
69.9000;0.3199;7.3447;
70.2000;0.3199;7.3471;
70.5000;0.3207;7.3424;
70.8000;0.3191;7.3447;
71.1000;0.3215;7.3518;
71.4000;0.3191;7.3541;
71.7000;0.3207;7.3565;
72.0000;0.3191;7.3494;
72.3000;0.3207;7.3612;
72.6000;0.3199;7.3612;
72.9000;0.3272;7.3682;
73.2000;0.3191;7.3447;
73.5000;0.3240;7.3518;
73.8000;0.3199;7.3424;
74.1000;0.3199;7.3447;
74.4000;0.3240;7.3565;
74.7000;0.3215;7.3447;
75.0000;0.3183;7.3424;
75.3000;0.3191;7.3541;
75.6000;0.3223;7.3565;
75.9000;0.3207;7.3494;
76.2000;0.3199;7.3471;
76.5000;0.3297;7.3753;
76.8000;0.3199;7.3471;
77.1000;0.3199;7.3588;
77.4000;0.3191;7.3541;
77.7000;0.3191;7.3518;
78.0000;0.3191;7.3471;
78.3000;0.3223;7.3612;
78.6000;0.3248;7.3588;
78.9000;0.3207;7.3518;
79.2000;0.3289;7.3823;
79.5000;0.3223;7.3659;
79.8000;0.3191;7.3541;
80.1000;0.3199;7.3612;
80.4000;0.3207;7.3565;
80.7000;0.3199;7.3471;
81.0000;0.3199;7.3376;
81.3000;0.3166;7.3353;
81.6000;0.3223;7.3447;
81.9000;0.3191;7.3471;
82.2000;0.3199;7.3565;
82.5000;0.3207;7.3612;
82.8000;0.3183;7.3612;
83.1000;0.3240;7.3800;
83.4000;0.3207;7.3729;
83.7000;0.3240;7.3870;
84.0000;0.3272;7.3988;
84.3000;0.3207;7.3753;
84.6000;0.3223;7.3729;
84.9000;0.3215;7.3659;
85.2000;0.3223;7.3659;
85.5000;0.3191;7.3612;
85.8000;0.3256;7.3753;
86.1000;0.3223;7.3635;
86.4000;0.3199;7.3682;
86.7000;0.3191;7.3565;
87.0000;0.3207;7.3588;
87.3000;0.3207;7.3518;
87.6000;0.3191;7.3447;
87.9000;0.3191;7.3494;
88.2000;0.3199;7.3565;
88.5000;0.3199;7.3518;
88.8000;0.3191;7.3635;
89.1000;0.3280;7.3870;
89.4000;0.3183;7.3541;
89.7000;0.3223;7.3682;
90.0000;0.3207;7.3682;
90.3000;0.3207;7.3659;
90.6000;0.3199;7.3588;
90.9000;0.3215;7.3659;
91.2000;0.3223;7.3706;
91.5000;0.3215;7.3659;
91.8000;0.3215;7.3588;
92.1000;0.3199;7.3541;
92.4000;0.3191;7.3565;
92.7000;0.3199;7.3635;
93.0000;0.3191;7.3612;
93.3000;0.3199;7.3635;
93.6000;0.3232;7.3753;
93.9000;0.3215;7.3682;
94.2000;0.3223;7.3682;
94.5000;0.3215;7.3635;
94.8000;0.3223;7.3612;
95.1000;0.3207;7.3588;
95.4000;0.3191;7.3518;
95.7000;0.3207;7.3588;
96.0000;0.3207;7.3541;
96.3000;0.3215;7.3400;
96.6000;0.3183;7.3353;
96.9000;0.3215;7.3424;
97.2000;0.3207;7.3494;
97.5000;0.3215;7.3565;
97.8000;0.3150;7.3565;
98.1000;0.3199;7.3659;
98.4000;0.3199;7.3565;
98.7000;0.3215;7.3518;
99.0000;0.3215;7.3518;
99.3000;0.3207;7.3518;
99.6000;0.3272;7.3706;
99.9000;0.3191;7.3518;
100.2000;0.3232;7.3588;
100.5000;0.3199;7.3565;
100.8000;0.3199;7.3588;
101.1000;0.3207;7.3635;
101.4000;0.3166;7.3541;
101.7000;0.3207;7.3541;
102.0000;0.3215;7.3635;
102.3000;0.3223;7.3729;
102.6000;0.3232;7.3659;
102.9000;0.3207;7.3635;
103.2000;0.3223;7.3659;
103.5000;0.3207;7.3612;
103.8000;0.3215;7.3659;
104.1000;0.3223;7.3612;
104.4000;0.3223;7.3659;
104.7000;0.3215;7.3682;
105.0000;0.3232;7.3729;
105.3000;0.3207;7.3706;
105.6000;0.3207;7.3706;
105.9000;0.3215;7.3659;
106.2000;0.3207;7.3518;
106.5000;0.3207;7.3518;
106.8000;0.3183;7.3588;
107.1000;0.3199;7.3682;
107.4000;0.3240;7.3776;
107.7000;0.3183;7.3776;
108.0000;0.3207;7.3753;
108.3000;0.3199;7.3753;
108.6000;0.3223;7.3870;
108.9000;0.3207;7.3823;
109.2000;0.3207;7.3894;
109.5000;0.3191;7.3917;
109.8000;0.3109;7.3682;
110.1000;0.3199;7.3917;
110.4000;0.3191;7.3894;
110.7000;0.3191;7.3823;
111.0000;0.3191;7.3917;
111.3000;0.3207;7.3964;
111.6000;0.3191;7.3964;
111.9000;0.3207;7.3988;
112.2000;0.3199;7.3847;
112.5000;0.3199;7.3870;
112.8000;0.3207;7.3823;
113.1000;0.3191;7.3800;
113.4000;0.3175;7.3588;
113.7000;0.3207;7.3612;
114.0000;0.3215;7.3659;
114.3000;0.3207;7.3588;
114.6000;0.3223;7.3612;
114.9000;0.3207;7.3541;
115.2000;0.3158;7.3424;
115.5000;0.3232;7.3588;
115.8000;0.3191;7.3518;
116.1000;0.3207;7.3612;
116.4000;0.3215;7.3635;
116.7000;0.3215;7.3706;
117.0000;0.3215;7.3776;
117.3000;0.3223;7.3729;
117.6000;0.3207;7.3588;
117.9000;0.3215;7.3612;
118.2000;0.3223;7.3635;
118.5000;0.3215;7.3588;
118.8000;0.3223;7.3635;
119.1000;0.3223;7.3565;
119.4000;0.3191;7.3565;
119.7000;0.3207;7.3612;
120.0000;0.3223;7.3635;
120.3000;0.3199;7.3565;
120.6000;0.3223;7.3612;
120.9000;0.3191;7.3541;
121.2000;0.3199;7.3541;
121.5000;0.3223;7.3588;
121.8000;0.3183;7.3565;
122.1000;0.3207;7.3588;
122.4000;0.3207;7.3565;
122.7000;0.3191;7.3494;
123.0000;0.3207;7.3588;
123.3000;0.3207;7.3612;
123.6000;0.3215;7.3706;
123.9000;0.3223;7.3682;
124.2000;0.3207;7.3541;
124.5000;0.3207;7.3541;
124.8000;0.3232;7.3541;
125.1000;0.3232;7.3565;
125.4000;0.3248;7.3729;
125.7000;0.3215;7.3612;
126.0000;0.3199;7.3612;
126.3000;0.3223;7.3635;
126.6000;0.3223;7.3494;
126.9000;0.3240;7.3541;
127.2000;0.3232;7.3471;
127.5000;0.3215;7.3565;
127.8000;0.3207;7.3612;
128.1000;0.3248;7.3635;
128.4000;0.3240;7.3706;
128.7000;0.3223;7.3659;
129.0000;0.3223;7.3588;
129.3000;0.3207;7.3588;
129.6000;0.3215;7.3612;
129.9000;0.3199;7.3612;
130.2000;0.3175;7.3494;
130.5000;0.3199;7.3565;
130.8000;0.3232;7.3565;
131.1000;0.3207;7.3494;
131.4000;0.3215;7.3518;
131.7000;0.3191;7.3518;
132.0000;0.3232;7.3588;
132.3000;0.3207;7.3541;
132.6000;0.3215;7.3565;
132.9000;0.3183;7.3471;
133.2000;0.3240;7.3565;
133.5000;0.3215;7.3659;
133.8000;0.3223;7.3706;
134.1000;0.3215;7.3635;
134.4000;0.3207;7.3588;
134.7000;0.3199;7.3588;
135.0000;0.3199;7.3612;
135.3000;0.3199;7.3635;
135.6000;0.3215;7.3635;
135.9000;0.3207;7.3541;
136.2000;0.3191;7.3471;
136.5000;0.3199;7.3494;
136.8000;0.3207;7.3541;
137.1000;0.3166;7.3424;
137.4000;0.3191;7.3541;
137.7000;0.3191;7.3494;
138.0000;0.3207;7.3518;
138.3000;0.3199;7.3541;
138.6000;0.3166;7.3424;
138.9000;0.3199;7.3541;
139.2000;0.3207;7.3706;
139.5000;0.3232;7.3682;
139.8000;0.3158;7.3518;
140.1000;0.3215;7.3706;
140.4000;0.3191;7.3612;
140.7000;0.3223;7.3635;
141.0000;0.3207;7.3565;
141.3000;0.3191;7.3612;
141.6000;0.3215;7.3659;
141.9000;0.3223;7.3612;
142.2000;0.3199;7.3518;
142.5000;0.3223;7.3518;
142.8000;0.3223;7.3588;
143.1000;0.3191;7.3541;
143.4000;0.3207;7.3565;
143.7000;0.3232;7.3612;
144.0000;0.3183;7.3471;
144.3000;0.3109;7.3329;
144.6000;0.3175;7.3494;
144.9000;0.3215;7.3565;
145.2000;0.3199;7.3518;
145.5000;0.3207;7.3518;
145.8000;0.3199;7.3541;
146.1000;0.3207;7.3565;
146.4000;0.3183;7.3471;
146.7000;0.3215;7.3494;
147.0000;0.3215;7.3541;
147.3000;0.3199;7.3424;
147.6000;0.3199;7.3494;
147.9000;0.3215;7.3635;
148.2000;0.3223;7.3706;
148.5000;0.3126;7.3565;
148.8000;0.3199;7.3729;
149.1000;0.3199;7.3659;
149.4000;0.3207;7.3541;
149.7000;0.3191;7.3471;
150.0000;0.3191;7.3565;
150.3000;0.3215;7.3518;
150.6000;0.3207;7.3494;
150.9000;0.3215;7.3400;
151.2000;0.3199;7.3376;
151.5000;0.3207;7.3329;
151.8000;0.3215;7.3282;
152.1000;0.3199;7.3376;
152.4000;0.3223;7.3424;
152.7000;0.3207;7.3471;
153.0000;0.3166;7.3471;
153.3000;0.3207;7.3494;
153.6000;0.3207;7.3353;
153.9000;0.3313;7.3612;
154.2000;0.3166;7.3235;
154.5000;0.3223;7.3494;
154.8000;0.3150;7.3400;
155.1000;0.3183;7.3494;
155.4000;0.3183;7.3565;
155.7000;0.3191;7.3541;
156.0000;0.3215;7.3612;
156.3000;0.3199;7.3588;
156.6000;0.3191;7.3471;
156.9000;0.3191;7.3494;
157.2000;0.3223;7.3541;
157.5000;0.3191;7.3400;
157.8000;0.3199;7.3541;
158.1000;0.3215;7.3682;
158.4000;0.3215;7.3682;
158.7000;0.3191;7.3541;
159.0000;0.3158;7.3376;
159.3000;0.3183;7.3424;
159.6000;0.3207;7.3494;
159.9000;0.3183;7.3447;
160.2000;0.3158;7.3306;
160.5000;0.3223;7.3447;
160.8000;0.3215;7.3471;
161.1000;0.3215;7.3588;
161.4000;0.3240;7.3682;
161.7000;0.3158;7.3541;
162.0000;0.3223;7.3753;
162.3000;0.3215;7.3776;
162.6000;0.3199;7.3753;
162.9000;0.3199;7.3659;
163.2000;0.3199;7.3612;
163.5000;0.3223;7.3565;
163.8000;0.3199;7.3471;
164.1000;0.3321;7.3753;
164.4000;0.3223;7.3541;
164.7000;0.3223;7.3447;
165.0000;0.3223;7.3494;
165.3000;0.3191;7.3424;
165.6000;0.3175;7.3447;
165.9000;0.3191;7.3447;
166.2000;0.3223;7.3447;
166.5000;0.3223;7.3471;
166.8000;0.3223;7.3518;
167.1000;0.3183;7.3400;
167.4000;0.3215;7.3400;
167.7000;0.3223;7.3400;
168.0000;0.3215;7.3376;
168.3000;0.3215;7.3471;
168.6000;0.3207;7.3494;
168.9000;0.3207;7.3541;
169.2000;0.3215;7.3565;
169.5000;0.3223;7.3588;
169.8000;0.3207;7.3518;
170.1000;0.3191;7.3447;
170.4000;0.3191;7.3494;
170.7000;0.3199;7.3541;
171.0000;0.3199;7.3588;
171.3000;0.3175;7.3612;
171.6000;0.3166;7.3541;
171.9000;0.3199;7.3541;
172.2000;0.3215;7.3565;
172.5000;0.3199;7.3447;
172.8000;0.3199;7.3471;
173.1000;0.3248;7.3635;
173.4000;0.3199;7.3682;
173.7000;0.3207;7.3706;
174.0000;0.3199;7.3706;
174.3000;0.3207;7.3753;
174.6000;0.3207;7.3706;
174.9000;0.3232;7.3682;
175.2000;0.3215;7.3706;
175.5000;0.3223;7.3729;
175.8000;0.3215;7.3659;
176.1000;0.3175;7.3518;
176.4000;0.3223;7.3659;
176.7000;0.3207;7.3729;
177.0000;0.3207;7.3706;
177.3000;0.3223;7.3682;
177.6000;0.3207;7.3612;
177.9000;0.3150;7.3376;
178.2000;0.3199;7.3494;
178.5000;0.3223;7.3588;
178.8000;0.3207;7.3494;
179.1000;0.3232;7.3541;
179.4000;0.3215;7.3447;
179.7000;0.3207;7.3376;
180.0000;0.3207;7.3424;
180.3000;0.3207;7.3471;
180.6000;0.3199;7.3376;
180.9000;0.3207;7.3306;
181.2000;0.3329;7.3612;
181.5000;0.3207;7.3353;
181.8000;0.3215;7.3259;
182.1000;0.3240;7.3400;
182.4000;0.3215;7.3424;
182.7000;0.3175;7.3329;
183.0000;0.3191;7.3306;
183.3000;0.3199;7.3329;
183.6000;0.3215;7.3306;
183.9000;0.3232;7.3400;
184.2000;0.3207;7.3235;
184.5000;0.3207;7.3141;
184.8000;0.3207;7.3141;
185.1000;0.3223;7.3212;
185.4000;0.3272;7.3447;
185.7000;0.3207;7.3353;
186.0000;0.3207;7.3353;
186.3000;0.3215;7.3353;
186.6000;0.3223;7.3306;
186.9000;0.3215;7.3353;
187.2000;0.3207;7.3376;
187.5000;0.3199;7.3424;
187.8000;0.3158;7.3353;
188.1000;0.3199;7.3400;
188.4000;0.3142;7.3282;
188.7000;0.3175;7.3353;
189.0000;0.3223;7.3518;
189.3000;0.3199;7.3424;
189.6000;0.3207;7.3447;
189.9000;0.3223;7.3541;
190.2000;0.3207;7.3518;
190.5000;0.3215;7.3471;
190.8000;0.3207;7.3400;
191.1000;0.3215;7.3447;
191.4000;0.3158;7.3376;
191.7000;0.3199;7.3471;
192.0000;0.3183;7.3353;
192.3000;0.3223;7.3353;
192.6000;0.3223;7.3353;
192.9000;0.3207;7.3353;
193.2000;0.3207;7.3400;
193.5000;0.3215;7.3494;
193.8000;0.3207;7.3471;
194.1000;0.3215;7.3565;
194.4000;0.3183;7.3494;
194.7000;0.3207;7.3565;
195.0000;0.3215;7.3565;
195.3000;0.3232;7.3565;
195.6000;0.3215;7.3659;
195.9000;0.3215;7.3588;
196.2000;0.3207;7.3518;
196.5000;0.3240;7.3518;
196.8000;0.3207;7.3471;
197.1000;0.3191;7.3400;
197.4000;0.3207;7.3353;
197.7000;0.3191;7.3376;
198.0000;0.3240;7.3518;
198.3000;0.3166;7.3424;
198.6000;0.3191;7.3471;
198.9000;0.3232;7.3635;
199.2000;0.3191;7.3494;
199.5000;0.3199;7.3612;
199.8000;0.3199;7.3729;
200.1000;0.3264;7.3870;
200.4000;0.3207;7.3659;
200.7000;0.3207;7.3541;
201.0000;0.3215;7.3494;
201.3000;0.3207;7.3541;
201.6000;0.3207;7.3494;
201.9000;0.3199;7.3447;
202.2000;0.3240;7.3659;
202.5000;0.3223;7.3518;
202.8000;0.3207;7.3565;
203.1000;0.3248;7.3612;
203.4000;0.3199;7.3494;
203.7000;0.3207;7.3494;
204.0000;0.3215;7.3494;
204.3000;0.3240;7.3471;
204.6000;0.3199;7.3376;
204.9000;0.3199;7.3447;
205.2000;0.3207;7.3541;
205.5000;0.3215;7.3612;
205.8000;0.3215;7.3612;
206.1000;0.3199;7.3588;
206.4000;0.3232;7.3682;
206.7000;0.3232;7.3706;
207.0000;0.3240;7.3729;
207.3000;0.3207;7.3682;
207.6000;0.3199;7.3729;
207.9000;0.3223;7.3729;
208.2000;0.3223;7.3659;
208.5000;0.3232;7.3635;
208.8000;0.3207;7.3565;
209.1000;0.3175;7.3494;
209.4000;0.3126;7.3353;
209.7000;0.3215;7.3588;
210.0000;0.3248;7.3682;
210.3000;0.3264;7.3682;
210.6000;0.3240;7.3612;
210.9000;0.3191;7.3424;
211.2000;0.3248;7.3588;
211.5000;0.3215;7.3541;
211.8000;0.3166;7.3494;
212.1000;0.3199;7.3494;
212.4000;0.3240;7.3541;
212.7000;0.3215;7.3376;
213.0000;0.3240;7.3447;
213.3000;0.3223;7.3471;
213.6000;0.3223;7.3471;
213.9000;0.3223;7.3471;
214.2000;0.3223;7.3400;
214.5000;0.3223;7.3424;
214.8000;0.3223;7.3376;
215.1000;0.3207;7.3471;
215.4000;0.3264;7.3541;
215.7000;0.3232;7.3494;
216.0000;0.3256;7.3635;
216.3000;0.3199;7.3565;
216.6000;0.3207;7.3565;
216.9000;0.3207;7.3635;
217.2000;0.3183;7.3565;
217.5000;0.3183;7.3541;
217.8000;0.3207;7.3518;
218.1000;0.3215;7.3541;
218.4000;0.3191;7.3518;
218.7000;0.3223;7.3518;
219.0000;0.3223;7.3565;
219.3000;0.3207;7.3612;
219.6000;0.3223;7.3541;
219.9000;0.3175;7.3400;
220.2000;0.3199;7.3494;
220.5000;0.3207;7.3424;
220.8000;0.3199;7.3447;
221.1000;0.3215;7.3471;
221.4000;0.3223;7.3400;
221.7000;0.3207;7.3447;
222.0000;0.3207;7.3471;
222.3000;0.3215;7.3471;
222.6000;0.3191;7.3471;
222.9000;0.3223;7.3447;
223.2000;0.3150;7.3259;
223.5000;0.3207;7.3306;
223.8000;0.3207;7.3353;
224.1000;0.3232;7.3494;
224.4000;0.3240;7.3400;
224.7000;0.3223;7.3400;
225.0000;0.3256;7.3494;
225.3000;0.3118;7.3165;
225.6000;0.3215;7.3353;
225.9000;0.3215;7.3259;
226.2000;0.3109;7.3024;
226.5000;0.3215;7.3282;
226.8000;0.3215;7.3306;
227.1000;0.3207;7.3376;
227.4000;0.3191;7.3306;
227.7000;0.3207;7.3306;
228.0000;0.3199;7.3447;
228.3000;0.3207;7.3541;
228.6000;0.3207;7.3541;
228.9000;0.3199;7.3541;
229.2000;0.3207;7.3588;
229.5000;0.3215;7.3588;
229.8000;0.3223;7.3659;
230.1000;0.3215;7.3612;
230.4000;0.3166;7.3424;
230.7000;0.3248;7.3588;
231.0000;0.3207;7.3447;
231.3000;0.3191;7.3329;
231.6000;0.3191;7.3400;
231.9000;0.3215;7.3471;
232.2000;0.3223;7.3565;
232.5000;0.3272;7.3729;
232.8000;0.3215;7.3635;
233.1000;0.3223;7.3635;
233.4000;0.3150;7.3518;
233.7000;0.3207;7.3659;
234.0000;0.3199;7.3612;
234.3000;0.3166;7.3471;
234.6000;0.3207;7.3565;
234.9000;0.3223;7.3635;
235.2000;0.3126;7.3353;
235.5000;0.3207;7.3565;
235.8000;0.3215;7.3588;
236.1000;0.3191;7.3541;
236.4000;0.3207;7.3588;
236.7000;0.3289;7.3800;
237.0000;0.3150;7.3400;
237.3000;0.3199;7.3565;
237.6000;0.3191;7.3588;
237.9000;0.3199;7.3541;
238.2000;0.3207;7.3471;
238.5000;0.3207;7.3541;
238.8000;0.3223;7.3541;
239.1000;0.3191;7.3376;
239.4000;0.3207;7.3494;
239.7000;0.3223;7.3588;
240.0000;0.3215;7.3588;
240.3000;0.3223;7.3659;
240.6000;0.3199;7.3659;
240.9000;0.3199;7.3588;
241.2000;0.3215;7.3612;
241.5000;0.3215;7.3518;
241.8000;0.3215;7.3565;
242.1000;0.3223;7.3612;
242.4000;0.3223;7.3565;
242.7000;0.3215;7.3565;
243.0000;0.3166;7.3471;
243.3000;0.3183;7.3518;
243.6000;0.3223;7.3541;
243.9000;0.3207;7.3518;
244.2000;0.3223;7.3612;
244.5000;0.3256;7.3612;
244.8000;0.3223;7.3518;
245.1000;0.3215;7.3541;
245.4000;0.3215;7.3494;
245.7000;0.3223;7.3541;
246.0000;0.3223;7.3494;
246.3000;0.3215;7.3565;
246.6000;0.3199;7.3494;
246.9000;0.3207;7.3588;
247.2000;0.3158;7.3518;
247.5000;0.3215;7.3682;
247.8000;0.3215;7.3729;
248.1000;0.3183;7.3682;
248.4000;0.3158;7.3494;
248.7000;0.3183;7.3518;
249.0000;0.3223;7.3518;
249.3000;0.3199;7.3376;
249.6000;0.3232;7.3376;
249.9000;0.3215;7.3400;
250.2000;0.3232;7.3400;
250.5000;0.3191;7.3282;
250.8000;0.3240;7.3471;
251.1000;0.3207;7.3447;
251.4000;0.3215;7.3588;
251.7000;0.3199;7.3565;
252.0000;0.3207;7.3588;
252.3000;0.3199;7.3565;
252.6000;0.3207;7.3541;
252.9000;0.3199;7.3471;
253.2000;0.3199;7.3424;
253.5000;0.3207;7.3494;
253.8000;0.3207;7.3588;
254.1000;0.3183;7.3635;
254.4000;0.3207;7.3682;
254.7000;0.3248;7.3729;
255.0000;0.3207;7.3753;
255.3000;0.3207;7.3753;
255.6000;0.3248;7.3776;
255.9000;0.3207;7.3682;
256.2000;0.3199;7.3612;
256.5000;0.3240;7.3635;
256.8000;0.3191;7.3424;
257.1000;0.3207;7.3447;
257.4000;0.3215;7.3447;
257.7000;0.3150;7.3353;
258.0000;0.3248;7.3541;
258.3000;0.3183;7.3424;
258.6000;0.3207;7.3424;
258.9000;0.3215;7.3447;
259.2000;0.3207;7.3424;
259.5000;0.3191;7.3424;
259.8000;0.3191;7.3447;
260.1000;0.3223;7.3541;
260.4000;0.3232;7.3541;
260.7000;0.3215;7.3424;
261.0000;0.3158;7.3376;
261.3000;0.3207;7.3565;
261.6000;0.3223;7.3541;
261.9000;0.3207;7.3494;
262.2000;0.3232;7.3612;
262.5000;0.3191;7.3447;
262.8000;0.3215;7.3541;
263.1000;0.3199;7.3541;
263.4000;0.3215;7.3518;
263.7000;0.3223;7.3400;
264.0000;0.3240;7.3471;
264.3000;0.3215;7.3424;
264.6000;0.3248;7.3518;
264.9000;0.3215;7.3518;
265.2000;0.3223;7.3588;
265.5000;0.3232;7.3588;
265.8000;0.3207;7.3541;
266.1000;0.3207;7.3447;
266.4000;0.3223;7.3494;
266.7000;0.3199;7.3494;
267.0000;0.3191;7.3565;
267.3000;0.3223;7.3612;
267.6000;0.3207;7.3588;
267.9000;0.3215;7.3494;
268.2000;0.3183;7.3471;
268.5000;0.3183;7.3329;
268.8000;0.3199;7.3329;
269.1000;0.3232;7.3353;
269.4000;0.3199;7.3329;
269.7000;0.3215;7.3329;
270.0000;0.3240;7.3424;
270.3000;0.3199;7.3376;
270.6000;0.3207;7.3376;
270.9000;0.3158;7.3329;
271.2000;0.3166;7.3353;
271.5000;0.3207;7.3376;
271.8000;0.3183;7.3353;
272.1000;0.3183;7.3353;
272.4000;0.3223;7.3565;
272.7000;0.3223;7.3612;
273.0000;0.3240;7.3682;
273.3000;0.3264;7.3823;
273.6000;0.3207;7.3612;
273.9000;0.3175;7.3518;
274.2000;0.3207;7.3588;
274.5000;0.3223;7.3494;
274.8000;0.3223;7.3471;
275.1000;0.3215;7.3612;
275.4000;0.3207;7.3659;
275.7000;0.3215;7.3612;
276.0000;0.3207;7.3518;
276.3000;0.3207;7.3424;
276.6000;0.3215;7.3376;
276.9000;0.3215;7.3306;
277.2000;0.3223;7.3282;
277.5000;0.3199;7.3353;
277.8000;0.3207;7.3353;
278.1000;0.3158;7.3282;
278.4000;0.3215;7.3471;
278.7000;0.3199;7.3494;
279.0000;0.3199;7.3518;
279.3000;0.3207;7.3541;
279.6000;0.3199;7.3494;
279.9000;0.3191;7.3518;
280.2000;0.3256;7.3635;
280.5000;0.3175;7.3447;
280.8000;0.3215;7.3353;
281.1000;0.3207;7.3329;
281.4000;0.3199;7.3235;
281.7000;0.3215;7.3306;
282.0000;0.3175;7.3212;
282.3000;0.3207;7.3376;
282.6000;0.3183;7.3424;
282.9000;0.3191;7.3471;
283.2000;0.3215;7.3588;
283.5000;0.3199;7.3565;
283.8000;0.3215;7.3612;
284.1000;0.3215;7.3682;
284.4000;0.3248;7.3729;
284.7000;0.3207;7.3635;
285.0000;0.3199;7.3588;
285.3000;0.3191;7.3565;
285.6000;0.3240;7.3659;
285.9000;0.3199;7.3588;
286.2000;0.3207;7.3494;
286.5000;0.3240;7.3518;
286.8000;0.3223;7.3471;
287.1000;0.3199;7.3471;
287.4000;0.3272;7.3612;
287.7000;0.3232;7.3541;
288.0000;0.3223;7.3565;
288.3000;0.3215;7.3494;
288.6000;0.3183;7.3494;
288.9000;0.3199;7.3518;
289.2000;0.3215;7.3518;
289.5000;0.3289;7.3753;
289.8000;0.3215;7.3682;
290.1000;0.3215;7.3588;
290.4000;0.3199;7.3565;
290.7000;0.3232;7.3776;
291.0000;0.3207;7.3729;
291.3000;0.3183;7.3635;
291.6000;0.3215;7.3612;
291.9000;0.3199;7.3518;
292.2000;0.3199;7.3565;
292.5000;0.3223;7.3447;
292.8000;0.3215;7.3306;
293.1000;0.3215;7.3282;
293.4000;0.3207;7.3235;
293.7000;0.3191;7.3212;
294.0000;0.3199;7.3259;
294.3000;0.3101;7.2977;
294.6000;0.3223;7.3235;
294.9000;0.3215;7.3282;
295.2000;0.3313;7.3659;
295.5000;0.3199;7.3329;
295.8000;0.3207;7.3235;
296.1000;0.3199;7.3259;
296.4000;0.3223;7.3282;
296.7000;0.3207;7.3259;
297.0000;0.3223;7.3282;
297.3000;0.3175;7.3188;
297.6000;0.3191;7.3188;
297.9000;0.3207;7.3188;
298.2000;0.3256;7.3400;
298.5000;0.3256;7.3353;
298.8000;0.3240;7.3282;
299.1000;0.3215;7.3259;
299.4000;0.3223;7.3306;
299.7000;0.3199;7.3259;
300.0000;0.3232;7.3259;
300.3000;0.3232;7.3306;
300.6000;0.3191;7.3282;
300.9000;0.3207;7.3353;
301.2000;0.3175;7.3353;
301.5000;0.3297;7.3706;
301.8000;0.3215;7.3447;
302.1000;0.3256;7.3541;
302.4000;0.3126;7.3329;
302.7000;0.3191;7.3447;
303.0000;0.3223;7.3471;
303.3000;0.3207;7.3471;
303.6000;0.3240;7.3447;
303.9000;0.3215;7.3400;
304.2000;0.3215;7.3518;
304.5000;0.3183;7.3329;
304.8000;0.3223;7.3400;
305.1000;0.3232;7.3447;
305.4000;0.3215;7.3400;
305.7000;0.3207;7.3329;
306.0000;0.3215;7.3400;
306.3000;0.3199;7.3259;
306.6000;0.3215;7.3282;
306.9000;0.3215;7.3329;
307.2000;0.3313;7.3635;
307.5000;0.3183;7.3424;
307.8000;0.3191;7.3424;
308.1000;0.3248;7.3518;
308.4000;0.3207;7.3447;
308.7000;0.3215;7.3306;
309.0000;0.3166;7.3212;
309.3000;0.3191;7.3329;
309.6000;0.3215;7.3376;
309.9000;0.3215;7.3447;
310.2000;0.3207;7.3447;
310.5000;0.3199;7.3400;
310.8000;0.3223;7.3400;
311.1000;0.3215;7.3329;
311.4000;0.3207;7.3282;
311.7000;0.3215;7.3353;
312.0000;0.3207;7.3329;
312.3000;0.3223;7.3424;
312.6000;0.3207;7.3353;
312.9000;0.3207;7.3282;
313.2000;0.3223;7.3376;
313.5000;0.3215;7.3447;
313.8000;0.3199;7.3447;
314.1000;0.3199;7.3400;
314.4000;0.3223;7.3518;
314.7000;0.3232;7.3518;
315.0000;0.3207;7.3447;
315.3000;0.3215;7.3541;
315.6000;0.3199;7.3565;
315.9000;0.3158;7.3400;
316.2000;0.3085;7.3188;
316.5000;0.3207;7.3424;
316.8000;0.3199;7.3471;
317.1000;0.3191;7.3447;
317.4000;0.3240;7.3494;
317.7000;0.3215;7.3447;
318.0000;0.3199;7.3424;
318.3000;0.3207;7.3541;
318.6000;0.3215;7.3612;
318.9000;0.3207;7.3635;
319.2000;0.3223;7.3588;
319.5000;0.3199;7.3565;
319.8000;0.3215;7.3518;
320.1000;0.3215;7.3471;
320.4000;0.3183;7.3471;
320.7000;0.3199;7.3494;
321.0000;0.3223;7.3659;
321.3000;0.3297;7.3894;
321.6000;0.3175;7.3706;
321.9000;0.3199;7.3753;
322.2000;0.3207;7.3729;
322.5000;0.3207;7.3706;
322.8000;0.3215;7.3659;
323.1000;0.3199;7.3635;
323.4000;0.3199;7.3659;
323.7000;0.3207;7.3635;
324.0000;0.3240;7.3729;
324.3000;0.3175;7.3541;
324.6000;0.3199;7.3776;
324.9000;0.3215;7.3870;
325.2000;0.3240;7.3847;
325.5000;0.3166;7.3729;
325.8000;0.3223;7.3847;
326.1000;0.3256;7.3753;
326.4000;0.3215;7.3753;
326.7000;0.3199;7.3706;
327.0000;0.3207;7.3706;
327.3000;0.3215;7.3682;
327.6000;0.3207;7.3659;
327.9000;0.3183;7.3659;
328.2000;0.3207;7.3682;
328.5000;0.3215;7.3682;
328.8000;0.3215;7.3659;
329.1000;0.3215;7.3682;
329.4000;0.3215;7.3729;
329.7000;0.3223;7.3706;
330.0000;0.3232;7.3706;
330.3000;0.3215;7.3682;
330.6000;0.3207;7.3776;
330.9000;0.3207;7.3776;
331.2000;0.3215;7.3682;
331.5000;0.3207;7.3635;
331.8000;0.3207;7.3494;
332.1000;0.3175;7.3376;
332.4000;0.3191;7.3376;
332.7000;0.3199;7.3494;
333.0000;0.3215;7.3494;
333.3000;0.3223;7.3471;
333.6000;0.3215;7.3424;
333.9000;0.3199;7.3518;
334.2000;0.3207;7.3635;
334.5000;0.3191;7.3635;
334.8000;0.3191;7.3682;
335.1000;0.3199;7.3588;
335.4000;0.3223;7.3682;
335.7000;0.3207;7.3682;
336.0000;0.3264;7.3823;
336.3000;0.3166;7.3518;
336.6000;0.3207;7.3612;
336.9000;0.3223;7.3635;
337.2000;0.3183;7.3565;
337.5000;0.3215;7.3612;
337.8000;0.3215;7.3682;
338.1000;0.3215;7.3706;
338.4000;0.3183;7.3565;
338.7000;0.3232;7.3635;
339.0000;0.3191;7.3565;
339.3000;0.3207;7.3659;
339.6000;0.3199;7.3635;
339.9000;0.3207;7.3518;
340.2000;0.3215;7.3494;
340.5000;0.3207;7.3612;
340.8000;0.3240;7.3706;
341.1000;0.3191;7.3588;
341.4000;0.3215;7.3659;
341.7000;0.3199;7.3612;
342.0000;0.3215;7.3588;
342.3000;0.3207;7.3588;
342.6000;0.3191;7.3612;
342.9000;0.3264;7.3753;
343.2000;0.3207;7.3588;
343.5000;0.3207;7.3588;
343.8000;0.3248;7.3682;
344.1000;0.3207;7.3635;
344.4000;0.3199;7.3565;
344.7000;0.3183;7.3400;
345.0000;0.3215;7.3541;
345.3000;0.3248;7.3612;
345.6000;0.3183;7.3353;
345.9000;0.3199;7.3400;
346.2000;0.3150;7.3424;
346.5000;0.3289;7.3729;
346.8000;0.3199;7.3518;
347.1000;0.3207;7.3494;
347.4000;0.3207;7.3471;
347.7000;0.3215;7.3471;
348.0000;0.3215;7.3471;
348.3000;0.3183;7.3353;
348.6000;0.3207;7.3376;
348.9000;0.3207;7.3424;
349.2000;0.3175;7.3376;
349.5000;0.3207;7.3447;
349.8000;0.3191;7.3329;
350.1000;0.3207;7.3424;
350.4000;0.3215;7.3494;
350.7000;0.3223;7.3518;
351.0000;0.3215;7.3494;
351.3000;0.3248;7.3518;
351.6000;0.3223;7.3376;
351.9000;0.3207;7.3376;
352.2000;0.3191;7.3329;
352.5000;0.3207;7.3306;
352.8000;0.3175;7.3353;
353.1000;0.3223;7.3471;
353.4000;0.3207;7.3376;
353.7000;0.3223;7.3424;
354.0000;0.3215;7.3424;
354.3000;0.3207;7.3376;
354.6000;0.3215;7.3376;
354.9000;0.3256;7.3424;
355.2000;0.3215;7.3329;
355.5000;0.3223;7.3353;
355.8000;0.3199;7.3353;
356.1000;0.3207;7.3353;
356.4000;0.3150;7.3141;
356.7000;0.3223;7.3306;
357.0000;0.3199;7.3282;
357.3000;0.3215;7.3376;
357.6000;0.3199;7.3282;
357.9000;0.3232;7.3353;
358.2000;0.3215;7.3353;
358.5000;0.3207;7.3376;
358.8000;0.3191;7.3471;
359.1000;0.3207;7.3541;
359.4000;0.3223;7.3612;
359.7000;0.3207;7.3541;
360.0000;0.3207;7.3471;
360.3000;0.3240;7.3518;
360.6000;0.3191;7.3424;
360.9000;0.3240;7.3471;
361.2000;0.3207;7.3447;
361.5000;0.3215;7.3518;
361.8000;0.3199;7.3588;
362.1000;0.3207;7.3612;
362.4000;0.3207;7.3565;
362.7000;0.3207;7.3565;
363.0000;0.3223;7.3612;
363.3000;0.3166;7.3494;
363.6000;0.3175;7.3541;
363.9000;0.3215;7.3659;
364.2000;0.3215;7.3682;
364.5000;0.3223;7.3659;
364.8000;0.3183;7.3612;
365.1000;0.3223;7.3635;
365.4000;0.3175;7.3565;
365.7000;0.3183;7.3471;
366.0000;0.3207;7.3494;
366.3000;0.3207;7.3541;
366.6000;0.3223;7.3471;
366.9000;0.3207;7.3541;
367.2000;0.3166;7.3400;
367.5000;0.3199;7.3565;
367.8000;0.3207;7.3541;
368.1000;0.3215;7.3588;
368.4000;0.3191;7.3588;
368.7000;0.3232;7.3729;
369.0000;0.3215;7.3706;
369.3000;0.3215;7.3706;
369.6000;0.3207;7.3659;
369.9000;0.3199;7.3588;
370.2000;0.3199;7.3565;
370.5000;0.3223;7.3612;
370.8000;0.3215;7.3635;
371.1000;0.3191;7.3518;
371.4000;0.3199;7.3518;
371.7000;0.3223;7.3494;
372.0000;0.3199;7.3518;
372.3000;0.3215;7.3565;
372.6000;0.3207;7.3565;
372.9000;0.3199;7.3565;
373.2000;0.3191;7.3494;
373.5000;0.3215;7.3565;
373.8000;0.3207;7.3565;
374.1000;0.3191;7.3541;
374.4000;0.3297;7.3753;
374.7000;0.3199;7.3565;
375.0000;0.3223;7.3659;
375.3000;0.3207;7.3612;
375.6000;0.3223;7.3682;
375.9000;0.3215;7.3706;
376.2000;0.3215;7.3729;
376.5000;0.3183;7.3659;
376.8000;0.3183;7.3659;
377.1000;0.3240;7.3753;
377.4000;0.3199;7.3565;
377.7000;0.3223;7.3565;
378.0000;0.3207;7.3447;
378.3000;0.3232;7.3424;
378.6000;0.3264;7.3447;
378.9000;0.3207;7.3329;
379.2000;0.3256;7.3471;
379.5000;0.3313;7.3706;
379.8000;0.3232;7.3471;
380.1000;0.3223;7.3400;
380.4000;0.3183;7.3329;
380.7000;0.3207;7.3400;
381.0000;0.3175;7.3424;
381.3000;0.3272;7.3753;
381.6000;0.3109;7.3400;
381.9000;0.3207;7.3659;
382.2000;0.3183;7.3659;
382.5000;0.3175;7.3588;
382.8000;0.3207;7.3588;
383.1000;0.3207;7.3588;
383.4000;0.3232;7.3659;
383.7000;0.3215;7.3565;
384.0000;0.3158;7.3518;
384.3000;0.3207;7.3541;
384.6000;0.3207;7.3588;
384.9000;0.3158;7.3353;
385.2000;0.3199;7.3400;
385.5000;0.3232;7.3424;
385.8000;0.3175;7.3447;
386.1000;0.3150;7.3353;
386.4000;0.3207;7.3565;
386.7000;0.3215;7.3565;
387.0000;0.3207;7.3659;
387.3000;0.3134;7.3447;
387.6000;0.3207;7.3565;
387.9000;0.3248;7.3729;
388.2000;0.3199;7.3682;
388.5000;0.3215;7.3635;
388.8000;0.3215;7.3612;
389.1000;0.3223;7.3588;
389.4000;0.3199;7.3612;
389.7000;0.3199;7.3635;
390.0000;0.3191;7.3588;
390.3000;0.3207;7.3588;
390.6000;0.3199;7.3588;
390.9000;0.3223;7.3659;
391.2000;0.3223;7.3706;
391.5000;0.3207;7.3729;
391.8000;0.3223;7.3729;
392.1000;0.3207;7.3800;
392.4000;0.3191;7.3682;
392.7000;0.3223;7.3635;
393.0000;0.3215;7.3706;
393.3000;0.3199;7.3588;
393.6000;0.3199;7.3541;
393.9000;0.3215;7.3565;
394.2000;0.3183;7.3424;
394.5000;0.3215;7.3471;
394.8000;0.3207;7.3447;
395.1000;0.3175;7.3400;
395.4000;0.3183;7.3329;
395.7000;0.3158;7.3306;
396.0000;0.3191;7.3400;
396.3000;0.3215;7.3376;
396.6000;0.3207;7.3400;
396.9000;0.3166;7.3400;
397.2000;0.3207;7.3400;
397.5000;0.3199;7.3424;
397.8000;0.3223;7.3541;
398.1000;0.3175;7.3565;
398.4000;0.3183;7.3447;
398.7000;0.3207;7.3471;
399.0000;0.3158;7.3306;
399.3000;0.3191;7.3447;
399.6000;0.3232;7.3447;
399.9000;0.3199;7.3447;
400.2000;0.3199;7.3400;
400.5000;0.3207;7.3353;
400.8000;0.3215;7.3400;
401.1000;0.3191;7.3306;
401.4000;0.3175;7.3235;
401.7000;0.3215;7.3306;
402.0000;0.3223;7.3259;
402.3000;0.3215;7.3400;
402.6000;0.3215;7.3447;
402.9000;0.3199;7.3353;
403.2000;0.3134;7.3094;
403.5000;0.3191;7.3235;
403.8000;0.3223;7.3306;
404.1000;0.3207;7.3282;
404.4000;0.3215;7.3259;
404.7000;0.3199;7.3259;
405.0000;0.3232;7.3282;
405.3000;0.3289;7.3400;
405.6000;0.3223;7.3353;
405.9000;0.3215;7.3306;
406.2000;0.3215;7.3329;
406.5000;0.3280;7.3541;
406.8000;0.3199;7.3447;
407.1000;0.3223;7.3447;
407.4000;0.3199;7.3447;
407.7000;0.3215;7.3565;
408.0000;0.3223;7.3588;
408.3000;0.3126;7.3306;
408.6000;0.3199;7.3518;
408.9000;0.3215;7.3565;
409.2000;0.3126;7.3329;
409.5000;0.3199;7.3471;
409.8000;0.3223;7.3588;
410.1000;0.3199;7.3565;
410.4000;0.3223;7.3612;
410.7000;0.3264;7.3612;
411.0000;0.3199;7.3447;
411.3000;0.3183;7.3376;
411.6000;0.3215;7.3471;
411.9000;0.3158;7.3376;
412.2000;0.3183;7.3447;
412.5000;0.3199;7.3541;
412.8000;0.3166;7.3471;
413.1000;0.3199;7.3471;
413.4000;0.3191;7.3400;
413.7000;0.3199;7.3424;
414.0000;0.3191;7.3447;
414.3000;0.3199;7.3424;
414.6000;0.3215;7.3471;
414.9000;0.3199;7.3471;
415.2000;0.3199;7.3494;
415.5000;0.3240;7.3682;
415.8000;0.3215;7.3659;
416.1000;0.3215;7.3659;
416.4000;0.3223;7.3659;
416.7000;0.3215;7.3729;
417.0000;0.3215;7.3753;
417.3000;0.3199;7.3753;
417.6000;0.3207;7.3823;
417.9000;0.3215;7.3776;
418.2000;0.3207;7.3753;
418.5000;0.3240;7.3823;
418.8000;0.3264;7.3776;
419.1000;0.3207;7.3565;
419.4000;0.3150;7.3424;
419.7000;0.3175;7.3494;
420.0000;0.3093;7.3353;
420.3000;0.3191;7.3612;
420.6000;0.3215;7.3612;
420.9000;0.3207;7.3612;
421.2000;0.3175;7.3565;
421.5000;0.3289;7.3800;
421.8000;0.3232;7.3706;
422.1000;0.3199;7.3565;
422.4000;0.3215;7.3682;
422.7000;0.3207;7.3612;
423.0000;0.3264;7.3635;
423.3000;0.3232;7.3565;
423.6000;0.3207;7.3612;
423.9000;0.3232;7.3706;
424.2000;0.3215;7.3682;
424.5000;0.3215;7.3612;
424.8000;0.3191;7.3541;
425.1000;0.3215;7.3612;
425.4000;0.3207;7.3659;
425.7000;0.3207;7.3659;
426.0000;0.3199;7.3565;
426.3000;0.3207;7.3518;
426.6000;0.3223;7.3565;
426.9000;0.3207;7.3494;
427.2000;0.3232;7.3659;
427.5000;0.3207;7.3612;
427.8000;0.3199;7.3588;
428.1000;0.3158;7.3518;
428.4000;0.3183;7.3541;
428.7000;0.3183;7.3471;
429.0000;0.3183;7.3541;
429.3000;0.3199;7.3588;
429.6000;0.3183;7.3447;
429.9000;0.3191;7.3518;
430.2000;0.3223;7.3612;
430.5000;0.3207;7.3635;
430.8000;0.3158;7.3565;
431.1000;0.3223;7.3565;
431.4000;0.3248;7.3565;
431.7000;0.3223;7.3494;
432.0000;0.3207;7.3471;
432.3000;0.3207;7.3447;
432.6000;0.3215;7.3518;
432.9000;0.3207;7.3565;
433.2000;0.3232;7.3541;
433.5000;0.3215;7.3447;
433.8000;0.3223;7.3447;
434.1000;0.3223;7.3541;
434.4000;0.3223;7.3447;
434.7000;0.3175;7.3329;
435.0000;0.3191;7.3353;
435.3000;0.3199;7.3424;
435.6000;0.3207;7.3471;
435.9000;0.3191;7.3376;
436.2000;0.3215;7.3376;
436.5000;0.3199;7.3353;
436.8000;0.3215;7.3424;
437.1000;0.3199;7.3424;
437.4000;0.3199;7.3471;
437.7000;0.3215;7.3588;
438.0000;0.3199;7.3471;
438.3000;0.3223;7.3541;
438.6000;0.3199;7.3588;
438.9000;0.3191;7.3494;
439.2000;0.3223;7.3518;
439.5000;0.3158;7.3447;
439.8000;0.3207;7.3588;
440.1000;0.3183;7.3635;
440.4000;0.3215;7.3659;
440.7000;0.3215;7.3729;
441.0000;0.3223;7.3800;
441.3000;0.3207;7.3729;
441.6000;0.3175;7.3635;
441.9000;0.3215;7.3729;
442.2000;0.3248;7.3776;
442.5000;0.3215;7.3659;
442.8000;0.3232;7.3635;
443.1000;0.3191;7.3682;
443.4000;0.3158;7.3588;
443.7000;0.3150;7.3588;
444.0000;0.3183;7.3635;
444.3000;0.3207;7.3635;
444.6000;0.3199;7.3635;
444.9000;0.3199;7.3682;
445.2000;0.3215;7.3706;
445.5000;0.3199;7.3635;
445.8000;0.3207;7.3612;
446.1000;0.3207;7.3682;
446.4000;0.3215;7.3635;
446.7000;0.3207;7.3588;
447.0000;0.3191;7.3541;
447.3000;0.3215;7.3753;
447.6000;0.3207;7.3776;
447.9000;0.3232;7.3776;
448.2000;0.3232;7.3612;
448.5000;0.3207;7.3541;
448.8000;0.3207;7.3565;
449.1000;0.3199;7.3541;
449.4000;0.3223;7.3494;
449.7000;0.3199;7.3471;
450.0000;0.3183;7.3447;
450.3000;0.3256;7.3682;
450.6000;0.3207;7.3612;
450.9000;0.3207;7.3565;
451.2000;0.3215;7.3541;
451.5000;0.3223;7.3588;
451.8000;0.3215;7.3612;
452.1000;0.3232;7.3659;
452.4000;0.3183;7.3518;
452.7000;0.3223;7.3659;
453.0000;0.3191;7.3659;
453.3000;0.3199;7.3729;
453.6000;0.3199;7.3753;
453.9000;0.3207;7.3729;
454.2000;0.3191;7.3729;
454.5000;0.3191;7.3800;
454.8000;0.3232;7.3894;
455.1000;0.3175;7.3706;
455.4000;0.3215;7.3682;
455.7000;0.3240;7.3612;
456.0000;0.3207;7.3565;
456.3000;0.3223;7.3612;
456.6000;0.3207;7.3494;
456.9000;0.3215;7.3541;
457.2000;0.3272;7.3847;
457.5000;0.3232;7.3753;
457.8000;0.3297;7.3847;
458.1000;0.3223;7.3659;
458.4000;0.3215;7.3635;
458.7000;0.3199;7.3541;
459.0000;0.3272;7.3729;
459.3000;0.3223;7.3659;
459.6000;0.3223;7.3706;
459.9000;0.3207;7.3635;
460.2000;0.3215;7.3541;
460.5000;0.3223;7.3565;
460.8000;0.3215;7.3518;
461.1000;0.3215;7.3494;
461.4000;0.3215;7.3424;
461.7000;0.3199;7.3471;
462.0000;0.3199;7.3494;
462.3000;0.3199;7.3494;
462.6000;0.3158;7.3424;
462.9000;0.3207;7.3541;
463.2000;0.3223;7.3565;
463.5000;0.3199;7.3400;
463.8000;0.3272;7.3588;
464.1000;0.3215;7.3471;
464.4000;0.3191;7.3376;
464.7000;0.3207;7.3424;
465.0000;0.3232;7.3565;
465.3000;0.3191;7.3424;
465.6000;0.3158;7.3353;
465.9000;0.3215;7.3565;
466.2000;0.3223;7.3494;
466.5000;0.3166;7.3400;
466.8000;0.3207;7.3494;
467.1000;0.3215;7.3541;
467.4000;0.3207;7.3494;
467.7000;0.3248;7.3471;
468.0000;0.3191;7.3494;
468.3000;0.3199;7.3424;
468.6000;0.3199;7.3541;
468.9000;0.3207;7.3588;
469.2000;0.3191;7.3447;
469.5000;0.3199;7.3471;
469.8000;0.3207;7.3447;
470.1000;0.3175;7.3353;
470.4000;0.3134;7.3188;
470.7000;0.3207;7.3353;
471.0000;0.3232;7.3329;
471.3000;0.3199;7.3306;
471.6000;0.3199;7.3306;
471.9000;0.3223;7.3329;
472.2000;0.3191;7.3376;
472.5000;0.3223;7.3471;
472.8000;0.3183;7.3518;
473.1000;0.3280;7.3706;
473.4000;0.3207;7.3518;
473.7000;0.3199;7.3541;
474.0000;0.3223;7.3659;
474.3000;0.3223;7.3706;
474.6000;0.3199;7.3588;
474.9000;0.3207;7.3588;
475.2000;0.3207;7.3588;
475.5000;0.3199;7.3588;
475.8000;0.3223;7.3753;
476.1000;0.3215;7.3776;
476.4000;0.3223;7.3776;
476.7000;0.3207;7.3823;
477.0000;0.3215;7.3847;
477.3000;0.3191;7.3847;
477.6000;0.3215;7.3847;
477.9000;0.3191;7.3776;
478.2000;0.3191;7.3776;
478.5000;0.3215;7.3776;
478.8000;0.3207;7.3753;
479.1000;0.3215;7.3753;
479.4000;0.3199;7.3682;
479.7000;0.3215;7.3706;
480.0000;0.3215;7.3706;
480.3000;0.3199;7.3776;
480.6000;0.3191;7.3847;
480.9000;0.3232;7.3894;
481.2000;0.3142;7.3659;
481.5000;0.3223;7.3800;
481.8000;0.3223;7.3682;
482.1000;0.3191;7.3659;
482.4000;0.3207;7.3682;
482.7000;0.3215;7.3776;
483.0000;0.3191;7.3706;
483.3000;0.3191;7.3776;
483.6000;0.3215;7.3729;
483.9000;0.3207;7.3729;
484.2000;0.3175;7.3682;
484.5000;0.3183;7.3682;
484.8000;0.3199;7.3776;
485.1000;0.3150;7.3565;
485.4000;0.3191;7.3753;
485.7000;0.3207;7.3800;
486.0000;0.3215;7.3870;
486.3000;0.3215;7.3776;
486.6000;0.3215;7.3682;
486.9000;0.3256;7.3776;
487.2000;0.3191;7.3706;
487.5000;0.3207;7.3753;
487.8000;0.3215;7.3706;
488.1000;0.3232;7.3682;
488.4000;0.3191;7.3588;
488.7000;0.3223;7.3659;
489.0000;0.3264;7.3800;
489.3000;0.3223;7.3729;
489.6000;0.3134;7.3541;
489.9000;0.3183;7.3635;
490.2000;0.3215;7.3612;
490.5000;0.3215;7.3612;
490.8000;0.3215;7.3612;
491.1000;0.3207;7.3682;
491.4000;0.3207;7.3706;
491.7000;0.3199;7.3729;
492.0000;0.3191;7.3753;
492.3000;0.3215;7.3729;
492.6000;0.3207;7.3729;
492.9000;0.3215;7.3870;
493.2000;0.3240;7.3823;
493.5000;0.3191;7.3682;
493.8000;0.3215;7.3635;
494.1000;0.3183;7.3471;
494.4000;0.3223;7.3612;
494.7000;0.3223;7.3682;
495.0000;0.3199;7.3659;
495.3000;0.3199;7.3612;
495.6000;0.3215;7.3612;
495.9000;0.3175;7.3541;
496.2000;0.3191;7.3659;
496.5000;0.3215;7.3635;
496.8000;0.3207;7.3541;
497.1000;0.3101;7.3306;
497.4000;0.3166;7.3447;
497.7000;0.3207;7.3447;
498.0000;0.3199;7.3518;
498.3000;0.3207;7.3518;
498.6000;0.3183;7.3541;
498.9000;0.3207;7.3635;
499.2000;0.3207;7.3565;
499.5000;0.3207;7.3635;
499.8000;0.3191;7.3612;
500.1000;0.3232;7.3706;
500.4000;0.3199;7.3612;
500.7000;0.3199;7.3635;
501.0000;0.3085;7.3376;
501.3000;0.3207;7.3612;
501.6000;0.3223;7.3565;
501.9000;0.3199;7.3541;
502.2000;0.3199;7.3635;
502.5000;0.3199;7.3588;
502.8000;0.3199;7.3612;
503.1000;0.3215;7.3612;
503.4000;0.3166;7.3518;
503.7000;0.3175;7.3588;
504.0000;0.3183;7.3541;
504.3000;0.3191;7.3541;
504.6000;0.3166;7.3518;
504.9000;0.3166;7.3329;
505.2000;0.3199;7.3329;
505.5000;0.3223;7.3447;
505.8000;0.3191;7.3494;
506.1000;0.3199;7.3494;
506.4000;0.3207;7.3494;
506.7000;0.3207;7.3494;
507.0000;0.3207;7.3494;
507.3000;0.3207;7.3471;
507.6000;0.3191;7.3541;
507.9000;0.3183;7.3494;
508.2000;0.3199;7.3565;
508.5000;0.3183;7.3518;
508.8000;0.3207;7.3541;
509.1000;0.3207;7.3541;
509.4000;0.3175;7.3565;
509.7000;0.3223;7.3682;
510.0000;0.3199;7.3682;
510.3000;0.3207;7.3682;
510.6000;0.3158;7.3541;
510.9000;0.3207;7.3635;
511.2000;0.3207;7.3706;
511.5000;0.3207;7.3635;
511.8000;0.3215;7.3682;
512.1000;0.3223;7.3635;
512.4000;0.3207;7.3588;
512.7000;0.3183;7.3518;
513.0000;0.3207;7.3541;
513.3000;0.3199;7.3518;
513.6000;0.3158;7.3424;
513.9000;0.3175;7.3424;
514.2000;0.3191;7.3518;
514.5000;0.3199;7.3541;
514.8000;0.3223;7.3635;
515.1000;0.3191;7.3659;
515.4000;0.3207;7.3659;
515.7000;0.3199;7.3659;
516.0000;0.3207;7.3565;
516.3000;0.3199;7.3518;
516.6000;0.3207;7.3447;
516.9000;0.3223;7.3565;
517.2000;0.3223;7.3588;
517.5000;0.3223;7.3541;
517.8000;0.3183;7.3518;
518.1000;0.3215;7.3565;
518.4000;0.3215;7.3659;
518.7000;0.3191;7.3588;
519.0000;0.3191;7.3541;
519.3000;0.3158;7.3424;
519.6000;0.3199;7.3612;
519.9000;0.3207;7.3612;
520.2000;0.3199;7.3541;
520.5000;0.3207;7.3541;
520.8000;0.3215;7.3565;
521.1000;0.3199;7.3494;
521.4000;0.3207;7.3635;
521.7000;0.3199;7.3565;
522.0000;0.3142;7.3447;
522.3000;0.3207;7.3588;
522.6000;0.3183;7.3588;
522.9000;0.3183;7.3588;
523.2000;0.3207;7.3635;
523.5000;0.3199;7.3706;
523.8000;0.3223;7.3682;
524.1000;0.3191;7.3612;
524.4000;0.3215;7.3776;
524.7000;0.3199;7.3847;
525.0000;0.3215;7.3823;
525.3000;0.3199;7.3800;
525.6000;0.3215;7.3706;
525.9000;0.3264;7.3847;
526.2000;0.3207;7.3800;
526.5000;0.3207;7.3847;
526.8000;0.3215;7.3894;
527.1000;0.3207;7.3823;
527.4000;0.3215;7.3823;
527.7000;0.3175;7.3753;
528.0000;0.3199;7.3800;
528.3000;0.3223;7.3753;
528.6000;0.3199;7.3659;
528.9000;0.3207;7.3659;
529.2000;0.3093;7.3424;
529.5000;0.3207;7.3729;
529.8000;0.3101;7.3541;
530.1000;0.3248;7.3917;
530.4000;0.3223;7.3800;
530.7000;0.3175;7.3635;
531.0000;0.3199;7.3635;
531.3000;0.3183;7.3635;
531.6000;0.3199;7.3682;
531.9000;0.3289;7.3917;
532.2000;0.3191;7.3729;
532.5000;0.3183;7.3659;
532.8000;0.3166;7.3659;
533.1000;0.3191;7.3659;
533.4000;0.3215;7.3612;
533.7000;0.3215;7.3565;
534.0000;0.3207;7.3588;
534.3000;0.3150;7.3400;
534.6000;0.3199;7.3494;
534.9000;0.3215;7.3494;
535.2000;0.3199;7.3588;
535.5000;0.3191;7.3541;
535.8000;0.3207;7.3518;
536.1000;0.3207;7.3612;
536.4000;0.3223;7.3659;
536.7000;0.3207;7.3612;
537.0000;0.3223;7.3635;
537.3000;0.3134;7.3400;
537.6000;0.3207;7.3612;
537.9000;0.3199;7.3635;
538.2000;0.3215;7.3635;
538.5000;0.3223;7.3635;
538.8000;0.3191;7.3588;
539.1000;0.3199;7.3659;
539.4000;0.3183;7.3588;
539.7000;0.3191;7.3635;
540.0000;0.3223;7.3729;
540.3000;0.3134;7.3518;
540.6000;0.3207;7.3612;
540.9000;0.3191;7.3541;
541.2000;0.3215;7.3635;
541.5000;0.3199;7.3659;
541.8000;0.3183;7.3635;
542.1000;0.3232;7.3776;
542.4000;0.3199;7.3706;
542.7000;0.3191;7.3659;
543.0000;0.3109;7.3329;
543.3000;0.3207;7.3565;
543.6000;0.3175;7.3612;
543.9000;0.3199;7.3612;
544.2000;0.3215;7.3682;
544.5000;0.3199;7.3612;
544.8000;0.3215;7.3682;
545.1000;0.3215;7.3753;
545.4000;0.3223;7.3753;
545.7000;0.3199;7.3659;
546.0000;0.3215;7.3682;
546.3000;0.3232;7.3682;
546.6000;0.3191;7.3635;
546.9000;0.3232;7.3729;
547.2000;0.3191;7.3682;
547.5000;0.3207;7.3682;
547.8000;0.3207;7.3682;
548.1000;0.3191;7.3682;
548.4000;0.3199;7.3682;
548.7000;0.3240;7.3706;
549.0000;0.3215;7.3659;
549.3000;0.3166;7.3494;
549.6000;0.3175;7.3400;
549.9000;0.3207;7.3565;
550.2000;0.3207;7.3635;
550.5000;0.3207;7.3565;
550.8000;0.3191;7.3565;
551.1000;0.3207;7.3612;
551.4000;0.3232;7.3729;
551.7000;0.3207;7.3729;
552.0000;0.3199;7.3659;
552.3000;0.3215;7.3682;
552.6000;0.3248;7.3753;
552.9000;0.3183;7.3588;
553.2000;0.3183;7.3471;
553.5000;0.3207;7.3612;
553.8000;0.3215;7.3588;
554.1000;0.3150;7.3518;
554.4000;0.3207;7.3635;
554.7000;0.3215;7.3729;
555.0000;0.3191;7.3635;
555.3000;0.3199;7.3588;
555.6000;0.3191;7.3565;
555.9000;0.3207;7.3635;
556.2000;0.3191;7.3588;
556.5000;0.3191;7.3635;
556.8000;0.3183;7.3659;
557.1000;0.3215;7.3706;
557.4000;0.3175;7.3635;
557.7000;0.3223;7.3706;
558.0000;0.3199;7.3682;
558.3000;0.3175;7.3612;
558.6000;0.3256;7.3823;
558.9000;0.3232;7.3682;
559.2000;0.3199;7.3588;
559.5000;0.3191;7.3541;
559.8000;0.3150;7.3541;
560.1000;0.3223;7.3659;
560.4000;0.3215;7.3588;
560.7000;0.3207;7.3612;
561.0000;0.3215;7.3565;
561.3000;0.3207;7.3565;
561.6000;0.3223;7.3565;
561.9000;0.3207;7.3565;
562.2000;0.3183;7.3447;
562.5000;0.3183;7.3471;
562.8000;0.3191;7.3565;
563.1000;0.3150;7.3494;
563.4000;0.3191;7.3518;
563.7000;0.3199;7.3612;
564.0000;0.3191;7.3541;
564.3000;0.3223;7.3612;
564.6000;0.3191;7.3588;
564.9000;0.3183;7.3612;
565.2000;0.3207;7.3588;
565.5000;0.3223;7.3706;
565.8000;0.3215;7.3659;
566.1000;0.3166;7.3635;
566.4000;0.3207;7.3682;
566.7000;0.3215;7.3776;
567.0000;0.3191;7.3729;
567.3000;0.3199;7.3753;
567.6000;0.3199;7.3776;
567.9000;0.3191;7.3776;
568.2000;0.3134;7.3659;
568.5000;0.3207;7.3917;
568.8000;0.3166;7.3800;
569.1000;0.3199;7.3753;
569.4000;0.3207;7.3870;
569.7000;0.3183;7.3847;
570.0000;0.3158;7.3776;
570.3000;0.3207;7.3753;
570.6000;0.3183;7.3682;
570.9000;0.3199;7.3753;
571.2000;0.3223;7.3847;
571.5000;0.3232;7.3917;
571.8000;0.3199;7.3941;
572.1000;0.3175;7.3823;
572.4000;0.3191;7.3823;
572.7000;0.3199;7.3800;
573.0000;0.3191;7.3729;
573.3000;0.3207;7.3776;
573.6000;0.3199;7.3682;
573.9000;0.3215;7.3682;
574.2000;0.3199;7.3635;
574.5000;0.3207;7.3635;
574.8000;0.3183;7.3565;
575.1000;0.3256;7.3682;
575.4000;0.3142;7.3376;
575.7000;0.3183;7.3565;
576.0000;0.3232;7.3753;
576.3000;0.3191;7.3706;
576.6000;0.3256;7.3917;
576.9000;0.3223;7.3729;
577.2000;0.3150;7.3518;
577.5000;0.3183;7.3612;
577.8000;0.3215;7.3659;
578.1000;0.3191;7.3612;
578.4000;0.3207;7.3635;
578.7000;0.3199;7.3682;
579.0000;0.3223;7.3729;
579.3000;0.3207;7.3800;
579.6000;0.3183;7.3800;
579.9000;0.3207;7.3753;
580.2000;0.3191;7.3588;
580.5000;0.3223;7.3588;
580.8000;0.3207;7.3588;
581.1000;0.3207;7.3541;
581.4000;0.3175;7.3518;
581.7000;0.3207;7.3635;
582.0000;0.3199;7.3541;
582.3000;0.3191;7.3541;
582.6000;0.3199;7.3565;
582.9000;0.3199;7.3565;
583.2000;0.3207;7.3588;
583.5000;0.3240;7.3635;
583.8000;0.3199;7.3541;
584.1000;0.3240;7.3612;
584.4000;0.3264;7.3729;
584.7000;0.3240;7.3706;
585.0000;0.3183;7.3588;
585.3000;0.3215;7.3635;
585.6000;0.3207;7.3565;
585.9000;0.3207;7.3518;
586.2000;0.3191;7.3541;
586.5000;0.3191;7.3494;
586.8000;0.3207;7.3541;
587.1000;0.3248;7.3659;
587.4000;0.3215;7.3635;
587.7000;0.3191;7.3635;
588.0000;0.3191;7.3612;
588.3000;0.3199;7.3612;
588.6000;0.3183;7.3588;
588.9000;0.3191;7.3565;
589.2000;0.3264;7.3753;
589.5000;0.3199;7.3541;
589.8000;0.3166;7.3518;
590.1000;0.3175;7.3635;
590.4000;0.3207;7.3729;
590.7000;0.3191;7.3753;
591.0000;0.3207;7.3706;
591.3000;0.3199;7.3729;
591.6000;0.3207;7.3706;
591.9000;0.3207;7.3612;
592.2000;0.3183;7.3518;
592.5000;0.3199;7.3565;
592.8000;0.3215;7.3612;
593.1000;0.3175;7.3494;
593.4000;0.3199;7.3541;
593.7000;0.3199;7.3518;
594.0000;0.3183;7.3518;
594.3000;0.3223;7.3588;
594.6000;0.3240;7.3612;
594.9000;0.3183;7.3541;
595.2000;0.3232;7.3659;
595.5000;0.3223;7.3635;
595.8000;0.3223;7.3706;
596.1000;0.3191;7.3659;
596.4000;0.3240;7.3823;
596.7000;0.3207;7.3753;
597.0000;0.3223;7.3706;
597.3000;0.3207;7.3659;
597.6000;0.3199;7.3706;
597.9000;0.3175;7.3682;
598.2000;0.3215;7.3729;
598.5000;0.3207;7.3682;
598.8000;0.3199;7.3682;
599.1000;0.3207;7.3706;
599.4000;0.3207;7.3776;
599.7000;0.3158;7.3659;
600.0000;0.3215;7.3635;
600.3000;0.3207;7.3635;
600.6000;0.3191;7.3682;
600.9000;0.3191;7.3635;
601.2000;0.3134;7.3376;
601.5000;0.3134;7.3259;
601.8000;0.3101;7.3188;
602.1000;0.3093;7.3118;
602.4000;0.3053;7.2953;
602.7000;0.3020;7.2883;
603.0000;0.2987;7.2883;
603.3000;0.2963;7.2741;
603.6000;0.2955;7.2694;
603.9000;0.2971;7.2718;
604.2000;0.2914;7.2483;
604.5000;0.2930;7.2412;
604.8000;0.2873;7.2201;
605.1000;0.2857;7.2083;
605.4000;0.2833;7.1918;
605.7000;0.2833;7.1895;
606.0000;0.2825;7.1871;
606.3000;0.2800;7.1965;
606.6000;0.2776;7.1895;
606.9000;0.2792;7.1801;
607.2000;0.2768;7.1777;
607.5000;0.2865;7.2036;
607.8000;0.2735;7.1707;
608.1000;0.2784;7.1707;
608.4000;0.2719;7.1542;
608.7000;0.2711;7.1566;
609.0000;0.2702;7.1660;
609.3000;0.2686;7.1613;
609.6000;0.2654;7.1542;
609.9000;0.2646;7.1495;
610.2000;0.2670;7.1542;
610.5000;0.2637;7.1495;
610.8000;0.2605;7.1424;
611.1000;0.2646;7.1472;
611.4000;0.2613;7.1472;
611.7000;0.2597;7.1424;
612.0000;0.2572;7.1330;
612.3000;0.2572;7.1307;
612.6000;0.2597;7.1330;
612.9000;0.2564;7.1260;
613.2000;0.2572;7.1283;
613.5000;0.2572;7.1330;
613.8000;0.2564;7.1283;
614.1000;0.2532;7.1307;
614.4000;0.2548;7.1377;
614.7000;0.2540;7.1307;
615.0000;0.2532;7.1260;
615.3000;0.2507;7.1142;
615.6000;0.2532;7.1119;
615.9000;0.2523;7.1072;
616.2000;0.2507;7.1072;
616.5000;0.2499;7.1025;
616.8000;0.2499;7.1001;
617.1000;0.2491;7.1025;
617.4000;0.2515;7.1142;
617.7000;0.2483;7.0978;
618.0000;0.2475;7.1048;
618.3000;0.2483;7.1142;
618.6000;0.2491;7.1189;
618.9000;0.2458;7.1142;
619.2000;0.2442;7.1048;
619.5000;0.2442;7.0954;
619.8000;0.2426;7.0978;
620.1000;0.2426;7.0978;
620.4000;0.2426;7.0954;
620.7000;0.2401;7.1001;
621.0000;0.2442;7.1025;
621.3000;0.2442;7.0931;
621.6000;0.2418;7.0837;
621.9000;0.2344;7.0719;
622.2000;0.2418;7.0837;
622.5000;0.2418;7.0884;
622.8000;0.2401;7.0860;
623.1000;0.2369;7.0766;
623.4000;0.2409;7.0837;
623.7000;0.2418;7.0837;
624.0000;0.2401;7.0813;
624.3000;0.2336;7.0742;
624.6000;0.2271;7.0531;
624.9000;0.2377;7.0695;
625.2000;0.2328;7.0578;
625.5000;0.2352;7.0601;
625.8000;0.2369;7.0648;
626.1000;0.2369;7.0719;
626.4000;0.2377;7.0789;
626.7000;0.2336;7.0672;
627.0000;0.2361;7.0719;
627.3000;0.2393;7.0884;
627.6000;0.2344;7.0884;
627.9000;0.2312;7.0860;
628.2000;0.2328;7.0907;
628.5000;0.2369;7.0978;
628.8000;0.2328;7.0813;
629.1000;0.2304;7.0742;
629.4000;0.2361;7.0860;
629.7000;0.2304;7.0742;
630.0000;0.2361;7.0907;
630.3000;0.2271;7.0837;
630.6000;0.2206;7.0695;
630.9000;0.2320;7.1025;
631.2000;0.2320;7.1025;
631.5000;0.2352;7.1095;
631.8000;0.2304;7.0931;
632.1000;0.2304;7.0954;
632.4000;0.2320;7.0954;
632.7000;0.2304;7.0884;
633.0000;0.2328;7.0978;
633.3000;0.2279;7.0860;
633.6000;0.2279;7.0766;
633.9000;0.2263;7.0672;
634.2000;0.2271;7.0531;
634.5000;0.2279;7.0648;
634.8000;0.2279;7.0648;
635.1000;0.2336;7.0860;
635.4000;0.2247;7.0625;
635.7000;0.2247;7.0648;
636.0000;0.2239;7.0601;
636.3000;0.2279;7.0625;
636.6000;0.2279;7.0578;
636.9000;0.2230;7.0507;
637.2000;0.2214;7.0484;
637.5000;0.2239;7.0507;
637.8000;0.2263;7.0554;
638.1000;0.2247;7.0484;
638.4000;0.2247;7.0484;
638.7000;0.2312;7.0672;
639.0000;0.2239;7.0507;
639.3000;0.2230;7.0625;
639.6000;0.2230;7.0695;
639.9000;0.2230;7.0719;
640.2000;0.2214;7.0789;
640.5000;0.2239;7.0837;
640.8000;0.2198;7.0766;
641.1000;0.2222;7.0766;
641.4000;0.2239;7.0766;
641.7000;0.2214;7.0742;
642.0000;0.2295;7.0907;
642.3000;0.2222;7.0766;
642.6000;0.2222;7.0719;
642.9000;0.2247;7.0742;
643.2000;0.2344;7.1048;
643.5000;0.2190;7.0695;
643.8000;0.2214;7.0625;
644.1000;0.2206;7.0648;
644.4000;0.2222;7.0672;
644.7000;0.2206;7.0578;
645.0000;0.2361;7.1001;
645.3000;0.2157;7.0554;
645.6000;0.2206;7.0625;
645.9000;0.2173;7.0554;
646.2000;0.2190;7.0601;
646.5000;0.2206;7.0625;
646.8000;0.2198;7.0625;
647.1000;0.2190;7.0695;
647.4000;0.2149;7.0601;
647.7000;0.2190;7.0625;
648.0000;0.2165;7.0672;
648.3000;0.2157;7.0625;
648.6000;0.2141;7.0625;
648.9000;0.2173;7.0672;
649.2000;0.2190;7.0648;
649.5000;0.2173;7.0625;
649.8000;0.2182;7.0625;
650.1000;0.2182;7.0554;
650.4000;0.2190;7.0554;
650.7000;0.2190;7.0554;
651.0000;0.2157;7.0531;
651.3000;0.2165;7.0648;
651.6000;0.2173;7.0601;
651.9000;0.2100;7.0484;
652.2000;0.2173;7.0648;
652.5000;0.2165;7.0695;
652.8000;0.2206;7.0789;
653.1000;0.2182;7.0766;
653.4000;0.2116;7.0578;
653.7000;0.2149;7.0695;
654.0000;0.2133;7.0695;
654.3000;0.2141;7.0648;
654.6000;0.2133;7.0648;
654.9000;0.2149;7.0672;
655.2000;0.2157;7.0648;
655.5000;0.2141;7.0648;
655.8000;0.2149;7.0719;
656.1000;0.2108;7.0601;
656.4000;0.2141;7.0766;
656.7000;0.2149;7.0813;
657.0000;0.2100;7.0672;
657.3000;0.2133;7.0837;
657.6000;0.2149;7.0884;
657.9000;0.2141;7.0742;
658.2000;0.2133;7.0625;
658.5000;0.2157;7.0601;
658.8000;0.2141;7.0601;
659.1000;0.2157;7.0531;
659.4000;0.2149;7.0413;
659.7000;0.2141;7.0460;
660.0000;0.2149;7.0531;
660.3000;0.2149;7.0437;
660.6000;0.2165;7.0531;
660.9000;0.2116;7.0554;
661.2000;0.2116;7.0554;
661.5000;0.2133;7.0578;
661.8000;0.2133;7.0601;
662.1000;0.2149;7.0625;
662.4000;0.2182;7.0766;
662.7000;0.2157;7.0695;
663.0000;0.2190;7.0860;
663.3000;0.2116;7.0742;
663.6000;0.2125;7.0766;
663.9000;0.2116;7.0789;
664.2000;0.2125;7.0766;
664.5000;0.2116;7.0672;
664.8000;0.2116;7.0625;
665.1000;0.2100;7.0601;
665.4000;0.2108;7.0672;
665.7000;0.2133;7.0766;
666.0000;0.2108;7.0789;
666.3000;0.2100;7.0766;
666.6000;0.2141;7.0789;
666.9000;0.2116;7.0742;
667.2000;0.2182;7.0860;
667.5000;0.2043;7.0484;
667.8000;0.2165;7.0766;
668.1000;0.2092;7.0625;
668.4000;0.2108;7.0554;
668.7000;0.2108;7.0554;
669.0000;0.2125;7.0554;
669.3000;0.2116;7.0578;
669.6000;0.2092;7.0719;
669.9000;0.2092;7.0554;
670.2000;0.2092;7.0484;
670.5000;0.2092;7.0460;
670.8000;0.2125;7.0507;
671.1000;0.2068;7.0437;
671.4000;0.2084;7.0531;
671.7000;0.2092;7.0601;
672.0000;0.2068;7.0601;
672.3000;0.2157;7.0860;
672.6000;0.2108;7.0742;
672.9000;0.2133;7.0695;
673.2000;0.2076;7.0672;
673.5000;0.2092;7.0742;
673.8000;0.2084;7.0625;
674.1000;0.2027;7.0531;
674.4000;0.2084;7.0625;
674.7000;0.2068;7.0625;
675.0000;0.2084;7.0601;
675.3000;0.2092;7.0625;
675.6000;0.2076;7.0625;
675.9000;0.2076;7.0672;
676.2000;0.2076;7.0742;
676.5000;0.2084;7.0766;
676.8000;0.2059;7.0789;
677.1000;0.2084;7.0813;
677.4000;0.2092;7.0766;
677.7000;0.2092;7.0695;
678.0000;0.2100;7.0766;
678.3000;0.2100;7.0860;
678.6000;0.2092;7.0860;
678.9000;0.2076;7.0789;
679.2000;0.2059;7.0766;
679.5000;0.2068;7.0742;
679.8000;0.2076;7.0672;
680.1000;0.2076;7.0742;
680.4000;0.2076;7.0789;
680.7000;0.2084;7.0766;
681.0000;0.2084;7.0719;
681.3000;0.2076;7.0625;
681.6000;0.2076;7.0578;
681.9000;0.2076;7.0672;
682.2000;0.2092;7.0672;
682.5000;0.2076;7.0648;
682.8000;0.2084;7.0625;
683.1000;0.2068;7.0672;
683.4000;0.2076;7.0695;
683.7000;0.2059;7.0719;
684.0000;0.2027;7.0695;
684.3000;0.2051;7.0789;
684.6000;0.2068;7.0695;
684.9000;0.2043;7.0695;
685.2000;0.2206;7.1166;
685.5000;0.2068;7.0789;
685.8000;0.2068;7.0766;
686.1000;0.2059;7.0813;
686.4000;0.2059;7.0766;
686.7000;0.2043;7.0860;
687.0000;0.2059;7.0837;
687.3000;0.2084;7.1025;
687.6000;0.2076;7.1072;
687.9000;0.2051;7.1025;
688.2000;0.2125;7.1142;
688.5000;0.2051;7.0954;
688.8000;0.2076;7.0978;
689.1000;0.2059;7.0884;
689.4000;0.2059;7.0907;
689.7000;0.2043;7.0931;
690.0000;0.2043;7.0860;
690.3000;0.2051;7.0860;
690.6000;0.2051;7.0837;
690.9000;0.2059;7.0789;
691.2000;0.2100;7.0907;
691.5000;0.2108;7.0907;
691.8000;0.2051;7.0789;
692.1000;0.2068;7.0813;
692.4000;0.2035;7.0695;
692.7000;0.2043;7.0742;
693.0000;0.2051;7.0789;
693.3000;0.2059;7.0789;
693.6000;0.2116;7.1001;
693.9000;0.2027;7.0884;
694.2000;0.2035;7.1001;
694.5000;0.2027;7.1048;
694.8000;0.2011;7.1025;
695.1000;0.2035;7.1072;
695.4000;0.2043;7.1001;
695.7000;0.2035;7.0978;
696.0000;0.2035;7.0978;
696.3000;0.2043;7.1025;
696.6000;0.1970;7.0789;
696.9000;0.2027;7.0884;
697.2000;0.2035;7.0954;
697.5000;0.2043;7.1001;
697.8000;0.2059;7.0978;
698.1000;0.2027;7.0813;
698.4000;0.2035;7.0860;
698.7000;0.1970;7.0766;
699.0000;0.2051;7.0931;
699.3000;0.2035;7.0860;
699.6000;0.2027;7.0766;
699.9000;0.2027;7.0719;
700.2000;0.2035;7.0813;
700.5000;0.2002;7.0789;
700.8000;0.2035;7.0789;
701.1000;0.2051;7.0813;
701.4000;0.2035;7.0766;
701.7000;0.2035;7.0789;
702.0000;0.2002;7.0742;
702.3000;0.2035;7.0789;
702.6000;0.2011;7.0884;
702.9000;0.2027;7.0907;
703.2000;0.2019;7.0813;
703.5000;0.2011;7.0860;
703.8000;0.2059;7.0978;
704.1000;0.2035;7.0907;
704.4000;0.2027;7.0884;
704.7000;0.2035;7.0837;
705.0000;0.2043;7.0860;
705.3000;0.2002;7.0813;
705.6000;0.2019;7.0813;
705.9000;0.2011;7.0860;
706.2000;0.2059;7.0954;
706.5000;0.2002;7.0789;
706.8000;0.2002;7.0742;
707.1000;0.2011;7.0695;
707.4000;0.2002;7.0695;
707.7000;0.2011;7.0766;
708.0000;0.2019;7.0789;
708.3000;0.2027;7.0860;
708.6000;0.2011;7.0837;
708.9000;0.2011;7.0884;
709.2000;0.2019;7.0978;
709.5000;0.2019;7.0978;
709.8000;0.1994;7.0907;
710.1000;0.2011;7.0954;
710.4000;0.1994;7.0931;
710.7000;0.2011;7.0884;
711.0000;0.1994;7.0860;
711.3000;0.2002;7.0907;
711.6000;0.2019;7.0954;
711.9000;0.2011;7.0954;
712.2000;0.2019;7.1001;
712.5000;0.2019;7.1048;
712.8000;0.2011;7.1048;
713.1000;0.2002;7.1025;
713.4000;0.2019;7.0954;
713.7000;0.1994;7.0907;
714.0000;0.2002;7.0907;
714.3000;0.2011;7.0907;
714.6000;0.1986;7.0978;
714.9000;0.2027;7.1072;
715.2000;0.1978;7.0860;
715.5000;0.1970;7.0813;
715.8000;0.1994;7.0884;
716.1000;0.2011;7.0931;
716.4000;0.1937;7.0719;
716.7000;0.2011;7.0954;
717.0000;0.2019;7.0954;
717.3000;0.2002;7.0931;
717.6000;0.2011;7.0954;
717.9000;0.2019;7.0954;
718.2000;0.2011;7.0954;
718.5000;0.1994;7.0907;
718.8000;0.1994;7.0954;
719.1000;0.2002;7.0954;
719.4000;0.1994;7.0931;
719.7000;0.2002;7.0931;
720.0000;0.1970;7.0907;
720.3000;0.2068;7.1236;
720.6000;0.2027;7.1142;
720.9000;0.1994;7.1095;
721.2000;0.2011;7.1072;
721.5000;0.2035;7.1166;
721.8000;0.1994;7.1025;
722.1000;0.2002;7.1119;
722.4000;0.1970;7.1095;
722.7000;0.2011;7.1189;
723.0000;0.2035;7.1189;
723.3000;0.2027;7.1142;
723.6000;0.2100;7.1330;
723.9000;0.2011;7.1119;
724.2000;0.2011;7.1072;
724.5000;0.1986;7.0954;
724.8000;0.2027;7.1072;
725.1000;0.2035;7.1142;
725.4000;0.2002;7.1095;
725.7000;0.2011;7.1048;
726.0000;0.2002;7.1119;
726.3000;0.2019;7.1119;
726.6000;0.1986;7.1072;
726.9000;0.1962;7.0931;
727.2000;0.2002;7.1072;
727.5000;0.1994;7.1048;
727.8000;0.2027;7.1119;
728.1000;0.2002;7.1001;
728.4000;0.2059;7.1095;
728.7000;0.1994;7.0978;
729.0000;0.1986;7.0931;
729.3000;0.2002;7.0931;
729.6000;0.1986;7.0931;
729.9000;0.1978;7.0884;
730.2000;0.2002;7.0907;
730.5000;0.1986;7.0907;
730.8000;0.2002;7.0884;
731.1000;0.1978;7.0884;
731.4000;0.1986;7.0931;
731.7000;0.2002;7.0954;
732.0000;0.1986;7.0978;
732.3000;0.1970;7.1025;
732.6000;0.2002;7.1119;
732.9000;0.2027;7.1142;
733.2000;0.2027;7.1189;
733.5000;0.2011;7.1142;
733.8000;0.1994;7.1142;
734.1000;0.1994;7.1236;
734.4000;0.1994;7.1307;
734.7000;0.2011;7.1424;
735.0000;0.1994;7.1354;
735.3000;0.1994;7.1377;
735.6000;0.2051;7.1424;
735.9000;0.1978;7.1260;
736.2000;0.1994;7.1330;
736.5000;0.1978;7.1283;
736.8000;0.1962;7.1260;
737.1000;0.1986;7.1260;
737.4000;0.1962;7.1213;
737.7000;0.1986;7.1307;
738.0000;0.1962;7.1236;
738.3000;0.1954;7.1213;
738.6000;0.2019;7.1377;
738.9000;0.1954;7.1095;
739.2000;0.2002;7.1260;
739.5000;0.2019;7.1307;
739.8000;0.1970;7.1236;
740.1000;0.1978;7.1330;
740.4000;0.1978;7.1401;
740.7000;0.1970;7.1354;
741.0000;0.2035;7.1448;
741.3000;0.1978;7.1236;
741.6000;0.1970;7.1260;
741.9000;0.2002;7.1354;
742.2000;0.1978;7.1330;
742.5000;0.1994;7.1330;
742.8000;0.1945;7.1189;
743.1000;0.1994;7.1307;
743.4000;0.1954;7.1189;
743.7000;0.1962;7.1142;
744.0000;0.1921;7.1119;
744.3000;0.1970;7.1166;
744.6000;0.1970;7.1189;
744.9000;0.1970;7.1072;
745.2000;0.1937;7.0954;
745.5000;0.1978;7.1072;
745.8000;0.1937;7.0978;
746.1000;0.1962;7.1048;
746.4000;0.1921;7.1025;
746.7000;0.1986;7.1072;
747.0000;0.1978;7.1001;
747.3000;0.1978;7.1048;
747.6000;0.1986;7.1048;
747.9000;0.1986;7.1048;
748.2000;0.1978;7.1025;
748.5000;0.1986;7.1025;
748.8000;0.2002;7.1048;
749.1000;0.1978;7.1025;
749.4000;0.1994;7.0978;
749.7000;0.1978;7.1025;
750.0000;0.1962;7.1095;
750.3000;0.1970;7.1142;
750.6000;0.1962;7.1166;
750.9000;0.1970;7.1142;
751.2000;0.1970;7.1142;
751.5000;0.1986;7.1119;
751.8000;0.1970;7.1142;
752.1000;0.1962;7.1072;
752.4000;0.2011;7.1260;
752.7000;0.1954;7.1142;
753.0000;0.1945;7.1166;
753.3000;0.1913;7.1142;
753.6000;0.1994;7.1330;
753.9000;0.1970;7.1401;
754.2000;0.1962;7.1354;
754.5000;0.1970;7.1283;
754.8000;0.1986;7.1330;
755.1000;0.1978;7.1260;
755.4000;0.1962;7.1260;
755.7000;0.2002;7.1307;
756.0000;0.1970;7.1189;
756.3000;0.1921;7.1095;
756.6000;0.1978;7.1307;
756.9000;0.1962;7.1307;
757.2000;0.1986;7.1401;
757.5000;0.1945;7.1307;
757.8000;0.1986;7.1354;
758.1000;0.1954;7.1424;
758.4000;0.1978;7.1495;
758.7000;0.1986;7.1519;
759.0000;0.1945;7.1354;
759.3000;0.1978;7.1377;
759.6000;0.1970;7.1424;
759.9000;0.1970;7.1377;
760.2000;0.1970;7.1330;
760.5000;0.1962;7.1354;
760.8000;0.2002;7.1495;
761.1000;0.1962;7.1377;
761.4000;0.2019;7.1519;
761.7000;0.1929;7.1330;
762.0000;0.1978;7.1354;
762.3000;0.1970;7.1330;
762.6000;0.1962;7.1260;
762.9000;0.1945;7.1260;
763.2000;0.1962;7.1236;
763.5000;0.1978;7.1354;
763.8000;0.1978;7.1307;
764.1000;0.1986;7.1307;
764.4000;0.1945;7.1354;
764.7000;0.1970;7.1377;
765.0000;0.1962;7.1354;
765.3000;0.1945;7.1424;
765.6000;0.1848;7.1260;
765.9000;0.1970;7.1495;
766.2000;0.1954;7.1519;
766.5000;0.1978;7.1660;
766.8000;0.1954;7.1566;
767.1000;0.1962;7.1424;
767.4000;0.1954;7.1377;
767.7000;0.1962;7.1401;
768.0000;0.1970;7.1330;
768.3000;0.1945;7.1213;
768.6000;0.1994;7.1260;
768.9000;0.1962;7.1307;
769.2000;0.1945;7.1401;
769.5000;0.1913;7.1330;
769.8000;0.1970;7.1283;
770.1000;0.1945;7.1260;
770.4000;0.1970;7.1354;
770.7000;0.1945;7.1283;
771.0000;0.1970;7.1283;
771.3000;0.1970;7.1236;
771.6000;0.1962;7.1236;
771.9000;0.1954;7.1142;
772.2000;0.1929;7.1095;
772.5000;0.1962;7.1236;
772.8000;0.1962;7.1260;
773.1000;0.1970;7.1236;
773.4000;0.1962;7.1119;
773.7000;0.1986;7.1072;
774.0000;0.1986;7.1142;
774.3000;0.1970;7.1166;
774.6000;0.1945;7.1119;
774.9000;0.1978;7.1283;
775.2000;0.1929;7.1236;
775.5000;0.1970;7.1236;
775.8000;0.1945;7.1236;
776.1000;0.1970;7.1260;
776.4000;0.1954;7.1260;
776.7000;0.1945;7.1307;
777.0000;0.1962;7.1448;
777.3000;0.1986;7.1472;
777.6000;0.1945;7.1401;
777.9000;0.1970;7.1401;
778.2000;0.1962;7.1260;
778.5000;0.1962;7.1236;
778.8000;0.1986;7.1377;
779.1000;0.1945;7.1354;
779.4000;0.1978;7.1377;
779.7000;0.1978;7.1377;
780.0000;0.1954;7.1307;
780.3000;0.1994;7.1495;
780.6000;0.1954;7.1472;
780.9000;0.1954;7.1424;
781.2000;0.1978;7.1354;
781.5000;0.1970;7.1307;
781.8000;0.1954;7.1330;
782.1000;0.1937;7.1236;
782.4000;0.1840;7.0931;
782.7000;0.1945;7.1236;
783.0000;0.1888;7.1213;
783.3000;0.1970;7.1330;
783.6000;0.1962;7.1330;
783.9000;0.1970;7.1377;
784.2000;0.1937;7.1330;
784.5000;0.1970;7.1401;
784.8000;0.1929;7.1283;
785.1000;0.1954;7.1424;
785.4000;0.1937;7.1448;
785.7000;0.1945;7.1542;
786.0000;0.1929;7.1472;
786.3000;0.1954;7.1566;
786.6000;0.1954;7.1542;
786.9000;0.1978;7.1542;
787.2000;0.1970;7.1472;
787.5000;0.1954;7.1401;
787.8000;0.1945;7.1401;
788.1000;0.1945;7.1424;
788.4000;0.1945;7.1472;
788.7000;0.1962;7.1401;
789.0000;0.1978;7.1472;
789.3000;0.1954;7.1472;
789.6000;0.1921;7.1401;
789.9000;0.1954;7.1542;
790.2000;0.1954;7.1472;
790.5000;0.1937;7.1589;
790.8000;0.1937;7.1542;
791.1000;0.1905;7.1495;
791.4000;0.1945;7.1589;
791.7000;0.1962;7.1613;
792.0000;0.1945;7.1589;
792.3000;0.1929;7.1519;
792.6000;0.1962;7.1495;
792.9000;0.1970;7.1566;
793.2000;0.1962;7.1401;
793.5000;0.2043;7.1495;
793.8000;0.1962;7.1142;
794.1000;0.1962;7.1166;
794.4000;0.1962;7.1142;
794.7000;0.1897;7.1072;
795.0000;0.1945;7.1213;
795.3000;0.1954;7.1236;
795.6000;0.1954;7.1213;
795.9000;0.1954;7.1283;
796.2000;0.1962;7.1330;
796.5000;0.1937;7.1401;
796.8000;0.1945;7.1377;
797.1000;0.2051;7.1613;
797.4000;0.1954;7.1424;
797.7000;0.1994;7.1424;
798.0000;0.1962;7.1448;
798.3000;0.1897;7.1401;
798.6000;0.1945;7.1636;
798.9000;0.1954;7.1754;
799.2000;0.1962;7.1801;
799.5000;0.1945;7.1660;
799.8000;0.1945;7.1613;
800.1000;0.1954;7.1660;
800.4000;0.1954;7.1589;
800.7000;0.1954;7.1566;
801.0000;0.1945;7.1519;
801.3000;0.1913;7.1401;
801.6000;0.1962;7.1566;
801.9000;0.1937;7.1424;
802.2000;0.1913;7.1424;
802.5000;0.1954;7.1401;
802.8000;0.1913;7.1283;
803.1000;0.1880;7.1213;
803.4000;0.1937;7.1354;
803.7000;0.1937;7.1448;
804.0000;0.1945;7.1542;
804.3000;0.1937;7.1519;
804.6000;0.1921;7.1519;
804.9000;0.1937;7.1424;
805.2000;0.1897;7.1472;
805.5000;0.1945;7.1566;
805.8000;0.1962;7.1660;
806.1000;0.1929;7.1613;
806.4000;0.1945;7.1566;
806.7000;0.1921;7.1495;
807.0000;0.1954;7.1472;
807.3000;0.1954;7.1495;
807.6000;0.1970;7.1613;
807.9000;0.1962;7.1683;
808.2000;0.1970;7.1707;
808.5000;0.1954;7.1542;
808.8000;0.1937;7.1495;
809.1000;0.1945;7.1448;
809.4000;0.1945;7.1472;
809.7000;0.1905;7.1424;
810.0000;0.1945;7.1495;
810.3000;0.1954;7.1589;
810.6000;0.1954;7.1542;
810.9000;0.1905;7.1354;
811.2000;0.1937;7.1401;
811.5000;0.1929;7.1472;
811.8000;0.1929;7.1542;
812.1000;0.1945;7.1613;
812.4000;0.1994;7.1660;
812.7000;0.1970;7.1495;
813.0000;0.1929;7.1495;
813.3000;0.1929;7.1472;
813.6000;0.1986;7.1566;
813.9000;0.1937;7.1401;
814.2000;0.1945;7.1330;
814.5000;0.1937;7.1307;
814.8000;0.1937;7.1307;
815.1000;0.1913;7.1354;
815.4000;0.1937;7.1448;
815.7000;0.1929;7.1448;
816.0000;0.1929;7.1472;
816.3000;0.1921;7.1354;
816.6000;0.1945;7.1424;
816.9000;0.1945;7.1377;
817.2000;0.2059;7.1566;
817.5000;0.1945;7.1307;
817.8000;0.1954;7.1307;
818.1000;0.1970;7.1354;
818.4000;0.1954;7.1377;
818.7000;0.1937;7.1354;
819.0000;0.1937;7.1307;
819.3000;0.1954;7.1354;
819.6000;0.1937;7.1307;
819.9000;0.1937;7.1307;
820.2000;0.1897;7.1260;
820.5000;0.1929;7.1236;
820.8000;0.1978;7.1448;
821.1000;0.1954;7.1401;
821.4000;0.1929;7.1260;
821.7000;0.1937;7.1260;
822.0000;0.2002;7.1424;
822.3000;0.1986;7.1448;
822.6000;0.1945;7.1377;
822.9000;0.1978;7.1424;
823.2000;0.1986;7.1519;
823.5000;0.1954;7.1519;
823.8000;0.1962;7.1589;
824.1000;0.1929;7.1448;
824.4000;0.1945;7.1401;
824.7000;0.1945;7.1330;
825.0000;0.1954;7.1354;
825.3000;0.1954;7.1377;
825.6000;0.1962;7.1448;
825.9000;0.1937;7.1495;
826.2000;0.1945;7.1472;
826.5000;0.1937;7.1495;
826.8000;0.1937;7.1448;
827.1000;0.1929;7.1330;
827.4000;0.1954;7.1448;
827.7000;0.1945;7.1401;
828.0000;0.1913;7.1401;
828.3000;0.1954;7.1519;
828.6000;0.1954;7.1566;
828.9000;0.1970;7.1589;
829.2000;0.1945;7.1519;
829.5000;0.1945;7.1613;
829.8000;0.1962;7.1636;
830.1000;0.1937;7.1589;
830.4000;0.2011;7.1730;
830.7000;0.1937;7.1542;
831.0000;0.1954;7.1542;
831.3000;0.1986;7.1660;
831.6000;0.1929;7.1495;
831.9000;0.1945;7.1495;
832.2000;0.1929;7.1495;
832.5000;0.1986;7.1566;
832.8000;0.1986;7.1542;
833.1000;0.1970;7.1542;
833.4000;0.1937;7.1472;
833.7000;0.1954;7.1566;
834.0000;0.1978;7.1683;
834.3000;0.1929;7.1566;
834.6000;0.1937;7.1519;
834.9000;0.1937;7.1472;
835.2000;0.1945;7.1519;
835.5000;0.1945;7.1589;
835.8000;0.1954;7.1636;
836.1000;0.1929;7.1566;
836.4000;0.1832;7.1330;
836.7000;0.1921;7.1519;
837.0000;0.1921;7.1519;
837.3000;0.1937;7.1589;
837.6000;0.1986;7.1589;
837.9000;0.1937;7.1519;
838.2000;0.1897;7.1377;
838.5000;0.1970;7.1589;
838.8000;0.1937;7.1472;
839.1000;0.1937;7.1542;
839.4000;0.1929;7.1613;
839.7000;0.1929;7.1660;
840.0000;0.1978;7.1707;
840.3000;0.1921;7.1613;
840.6000;0.1929;7.1542;
840.9000;0.1848;7.1283;
841.2000;0.1937;7.1401;
841.5000;0.1913;7.1401;
841.8000;0.1921;7.1377;
842.1000;0.1913;7.1377;
842.4000;0.1929;7.1401;
842.7000;0.1913;7.1330;
843.0000;0.1929;7.1424;
843.3000;0.1921;7.1448;
843.6000;0.1945;7.1589;
843.9000;0.1945;7.1613;
844.2000;0.1937;7.1589;
844.5000;0.1913;7.1589;
844.8000;0.1913;7.1542;
845.1000;0.1954;7.1660;
845.4000;0.1945;7.1613;
845.7000;0.1888;7.1519;
846.0000;0.1945;7.1566;
846.3000;0.1937;7.1472;
846.6000;0.1921;7.1354;
846.9000;0.1929;7.1283;
847.2000;0.1921;7.1307;
847.5000;0.1921;7.1236;
847.8000;0.1929;7.1283;
848.1000;0.1970;7.1519;
848.4000;0.1937;7.1495;
848.7000;0.1929;7.1448;
849.0000;0.1888;7.1424;
849.3000;0.1921;7.1495;
849.6000;0.1921;7.1448;
849.9000;0.1937;7.1424;
850.2000;0.1929;7.1330;
850.5000;0.1962;7.1401;
850.8000;0.1954;7.1401;
851.1000;0.1937;7.1424;
851.4000;0.1937;7.1377;
851.7000;0.1937;7.1401;
852.0000;0.1913;7.1377;
852.3000;0.1937;7.1472;
852.6000;0.1962;7.1542;
852.9000;0.1962;7.1519;
853.2000;0.1888;7.1377;
853.5000;0.1937;7.1589;
853.8000;0.1945;7.1636;
854.1000;0.1929;7.1519;
854.4000;0.1929;7.1472;
854.7000;0.1937;7.1495;
855.0000;0.1913;7.1424;
855.3000;0.1832;7.1213;
855.6000;0.1921;7.1424;
855.9000;0.1921;7.1354;
856.2000;0.1945;7.1354;
856.5000;0.1937;7.1260;
856.8000;0.1937;7.1189;
857.1000;0.1913;7.1119;
857.4000;0.2002;7.1307;
857.7000;0.1937;7.1166;
858.0000;0.1929;7.1189;
858.3000;0.1937;7.1307;
858.6000;0.1921;7.1213;
858.9000;0.1929;7.1260;
859.2000;0.1888;7.1260;
859.5000;0.1937;7.1283;
859.8000;0.1929;7.1213;
860.1000;0.1937;7.1260;
860.4000;0.1962;7.1330;
860.7000;0.1945;7.1354;
861.0000;0.1897;7.1213;
861.3000;0.1962;7.1401;
861.6000;0.1937;7.1260;
861.9000;0.1905;7.1283;
862.2000;0.1880;7.1236;
862.5000;0.1937;7.1377;
862.8000;0.1921;7.1283;
863.1000;0.2035;7.1495;
863.4000;0.1905;7.1189;
863.7000;0.1986;7.1377;
864.0000;0.1970;7.1354;
864.3000;0.1929;7.1283;
864.6000;0.1945;7.1354;
864.9000;0.1945;7.1401;
865.2000;0.1945;7.1424;
865.5000;0.1921;7.1330;
865.8000;0.1994;7.1589;
866.1000;0.1937;7.1495;
866.4000;0.1929;7.1519;
866.7000;0.1994;7.1660;
867.0000;0.1937;7.1495;
867.3000;0.1937;7.1542;
867.6000;0.1929;7.1448;
867.9000;0.1921;7.1519;
868.2000;0.1921;7.1566;
868.5000;0.1945;7.1566;
868.8000;0.1945;7.1542;
869.1000;0.1954;7.1519;
869.4000;0.2035;7.1754;
869.7000;0.1954;7.1448;
870.0000;0.1978;7.1542;
870.3000;0.1937;7.1377;
870.6000;0.1937;7.1401;
870.9000;0.1945;7.1401;
871.2000;0.1954;7.1495;
871.5000;0.1897;7.1401;
871.8000;0.1945;7.1472;
872.1000;0.1970;7.1495;
872.4000;0.1937;7.1377;
872.7000;0.1929;7.1307;
873.0000;0.1937;7.1354;
873.3000;0.1913;7.1377;
873.6000;0.1954;7.1542;
873.9000;0.1872;7.1401;
874.2000;0.1929;7.1472;
874.5000;0.1937;7.1542;
874.8000;0.1945;7.1613;
875.1000;0.1929;7.1495;
875.4000;0.1913;7.1401;
875.7000;0.1929;7.1424;
876.0000;0.1937;7.1495;
876.3000;0.1913;7.1472;
876.6000;0.1921;7.1566;
876.9000;0.1945;7.1660;
877.2000;0.1897;7.1613;
877.5000;0.1937;7.1754;
877.8000;0.1937;7.1801;
878.1000;0.1945;7.1895;
878.4000;0.1937;7.1848;
878.7000;0.1945;7.1871;
879.0000;0.1945;7.1918;
879.3000;0.1937;7.1895;
879.6000;0.1962;7.1942;
879.9000;0.1929;7.1918;
880.2000;0.1970;7.2059;
880.5000;0.1921;7.1942;
880.8000;0.1905;7.1777;
881.1000;0.1945;7.1777;
881.4000;0.1937;7.1824;
881.7000;0.1929;7.1824;
882.0000;0.1921;7.1754;
882.3000;0.1937;7.1707;
882.6000;0.1929;7.1636;
882.9000;0.1929;7.1683;
883.2000;0.1929;7.1730;
883.5000;0.1897;7.1777;
883.8000;0.1929;7.1754;
884.1000;0.1929;7.1754;
884.4000;0.1945;7.1707;
884.7000;0.1905;7.1636;
885.0000;0.1929;7.1636;
885.3000;0.1937;7.1707;
885.6000;0.1905;7.1589;
885.9000;0.1905;7.1542;
886.2000;0.1913;7.1566;
886.5000;0.1913;7.1636;
886.8000;0.1856;7.1542;
887.1000;0.1929;7.1777;
887.4000;0.1929;7.1871;
887.7000;0.1897;7.1730;
888.0000;0.1937;7.1801;
888.3000;0.1945;7.1730;
888.6000;0.1921;7.1730;
888.9000;0.1929;7.1730;
889.2000;0.1921;7.1801;
889.5000;0.1962;7.1871;
889.8000;0.1937;7.1942;
890.1000;0.1929;7.1895;
890.4000;0.1962;7.1942;
890.7000;0.1929;7.1895;
891.0000;0.1937;7.1801;
891.3000;0.1937;7.1824;
891.6000;0.1897;7.1660;
891.9000;0.1921;7.1636;
892.2000;0.1929;7.1660;
892.5000;0.1921;7.1777;
892.8000;0.1913;7.1777;
893.1000;0.1848;7.1519;
893.4000;0.1937;7.1754;
893.7000;0.1929;7.1777;
894.0000;0.1913;7.1707;
894.3000;0.1913;7.1754;
894.6000;0.1929;7.1707;
894.9000;0.1937;7.1683;
895.2000;0.1921;7.1589;
895.5000;0.1921;7.1589;
895.8000;0.1978;7.1777;
896.1000;0.1864;7.1424;
896.4000;0.1921;7.1519;
896.7000;0.1929;7.1589;
897.0000;0.1970;7.1824;
897.3000;0.1905;7.1613;
897.6000;0.1921;7.1660;
897.9000;0.1937;7.1754;
898.2000;0.1905;7.1777;
898.5000;0.1905;7.1754;
898.8000;0.1929;7.1754;
899.1000;0.1929;7.1613;
899.4000;0.1913;7.1566;
899.7000;0.1921;7.1660;
900.0000;0.1913;7.1754;
900.3000;0.1921;7.1777;
900.6000;0.1962;7.1895;
900.9000;0.1929;7.1730;
901.2000;0.1929;7.1683;
901.5000;0.1872;7.1519;
901.8000;0.1921;7.1636;
902.1000;0.1921;7.1777;
902.4000;0.1929;7.1754;
902.7000;0.1929;7.1777;
903.0000;0.1913;7.1707;
903.3000;0.2011;7.1989;
903.6000;0.1921;7.1707;
903.9000;0.1921;7.1707;
904.2000;0.1913;7.1707;
904.5000;0.1913;7.1683;
904.8000;0.1905;7.1636;
905.1000;0.1921;7.1589;
905.4000;0.1929;7.1636;
905.7000;0.1921;7.1613;
906.0000;0.1937;7.1636;
906.3000;0.1937;7.1636;
906.6000;0.1897;7.1613;
906.9000;0.1913;7.1660;
907.2000;0.1921;7.1589;
907.5000;0.1994;7.1824;
907.8000;0.1921;7.1636;
908.1000;0.1929;7.1636;
908.4000;0.1913;7.1636;
908.7000;0.1929;7.1613;
909.0000;0.1929;7.1613;
909.3000;0.1905;7.1589;
909.6000;0.1929;7.1613;
909.9000;0.1937;7.1519;
910.2000;0.1880;7.1307;
910.5000;0.1945;7.1542;
910.8000;0.1937;7.1566;
911.1000;0.1937;7.1589;
911.4000;0.1921;7.1566;
911.7000;0.1945;7.1542;
912.0000;0.1937;7.1566;
912.3000;0.1954;7.1519;
912.6000;0.1978;7.1542;
912.9000;0.1921;7.1519;
913.2000;0.1937;7.1519;
913.5000;0.1929;7.1542;
913.8000;0.1905;7.1472;
914.1000;0.1905;7.1424;
914.4000;0.1954;7.1448;
914.7000;0.1929;7.1424;
915.0000;0.1954;7.1566;
915.3000;0.1864;7.1377;
915.6000;0.1913;7.1448;
915.9000;0.1905;7.1401;
916.2000;0.1897;7.1424;
916.5000;0.1905;7.1472;
916.8000;0.1905;7.1519;
917.1000;0.1905;7.1542;
917.4000;0.1897;7.1566;
917.7000;0.1905;7.1566;
918.0000;0.1929;7.1542;
918.3000;0.1921;7.1542;
918.6000;0.1921;7.1636;
918.9000;0.1913;7.1660;
919.2000;0.2011;7.1871;
919.5000;0.1913;7.1636;
919.8000;0.1905;7.1660;
920.1000;0.1937;7.1730;
920.4000;0.1937;7.1754;
920.7000;0.1888;7.1660;
921.0000;0.1921;7.1754;
921.3000;0.1905;7.1754;
921.6000;0.1945;7.1848;
921.9000;0.1929;7.1801;
922.2000;0.1929;7.1754;
922.5000;0.1913;7.1754;
922.8000;0.1929;7.1707;
923.1000;0.1921;7.1707;
923.4000;0.1937;7.1636;
923.7000;0.1929;7.1636;
924.0000;0.1937;7.1730;
924.3000;0.1929;7.1801;
924.6000;0.1929;7.1777;
924.9000;0.1921;7.1754;
925.2000;0.1929;7.1824;
925.5000;0.1888;7.1683;
925.8000;0.1848;7.1566;
926.1000;0.1929;7.1777;
926.4000;0.1921;7.1636;
926.7000;0.1913;7.1636;
927.0000;0.1929;7.1707;
927.3000;0.1913;7.1730;
927.6000;0.1929;7.1707;
927.9000;0.1921;7.1660;
928.2000;0.1921;7.1613;
928.5000;0.1856;7.1424;
928.8000;0.1921;7.1636;
929.1000;0.1945;7.1777;
929.4000;0.1913;7.1613;
929.7000;0.1913;7.1495;
930.0000;0.1929;7.1589;
930.3000;0.1929;7.1542;
930.6000;0.1913;7.1472;
930.9000;0.1929;7.1542;
931.2000;0.1880;7.1448;
931.5000;0.1864;7.1424;
931.8000;0.1913;7.1636;
932.1000;0.1962;7.1730;
932.4000;0.1929;7.1660;
932.7000;0.1929;7.1542;
933.0000;0.1897;7.1495;
933.3000;0.1913;7.1519;
933.6000;0.1986;7.1801;
933.9000;0.1905;7.1707;
934.2000;0.1929;7.1754;
934.5000;0.1978;7.1801;
934.8000;0.1921;7.1636;
935.1000;0.1970;7.1848;
935.4000;0.1929;7.1683;
935.7000;0.1921;7.1589;
936.0000;0.1913;7.1589;
936.3000;0.1921;7.1589;
936.6000;0.1913;7.1519;
936.9000;0.1864;7.1354;
937.2000;0.1897;7.1354;
937.5000;0.1962;7.1424;
937.8000;0.1913;7.1354;
938.1000;0.1913;7.1354;
938.4000;0.1945;7.1377;
938.7000;0.1937;7.1330;
939.0000;0.1921;7.1354;
939.3000;0.1921;7.1307;
939.6000;0.1921;7.1283;
939.9000;0.1913;7.1260;
940.2000;0.1905;7.1236;
940.5000;0.1937;7.1377;
940.8000;0.1913;7.1354;
941.1000;0.1921;7.1330;
941.4000;0.1929;7.1377;
941.7000;0.1897;7.1377;
942.0000;0.1921;7.1424;
942.3000;0.1905;7.1495;
942.6000;0.1921;7.1542;
942.9000;0.1937;7.1495;
943.2000;0.1897;7.1401;
943.5000;0.1921;7.1424;
943.8000;0.1913;7.1401;
944.1000;0.1880;7.1354;
944.4000;0.1856;7.1401;
944.7000;0.1905;7.1566;
945.0000;0.1905;7.1472;
945.3000;0.1937;7.1495;
945.6000;0.1888;7.1424;
945.9000;0.1921;7.1519;
946.2000;0.1929;7.1566;
946.5000;0.1921;7.1566;
946.8000;0.1921;7.1542;
947.1000;0.1913;7.1448;
947.4000;0.1880;7.1330;
947.7000;0.1937;7.1589;
948.0000;0.1905;7.1472;
948.3000;0.1897;7.1401;
948.6000;0.1921;7.1542;
948.9000;0.1937;7.1683;
949.2000;0.1986;7.1824;
949.5000;0.1937;7.1683;
949.8000;0.1921;7.1566;
950.1000;0.1954;7.1754;
950.4000;0.1929;7.1707;
950.7000;0.1905;7.1683;
951.0000;0.1945;7.1824;
951.3000;0.1913;7.1777;
951.6000;0.1913;7.1801;
951.9000;0.1905;7.1801;
952.2000;0.1872;7.1707;
952.5000;0.1897;7.1707;
952.8000;0.1913;7.1683;
953.1000;0.1897;7.1660;
953.4000;0.1921;7.1683;
953.7000;0.1905;7.1636;
954.0000;0.1897;7.1636;
954.3000;0.1913;7.1683;
954.6000;0.1954;7.1754;
954.9000;0.1848;7.1566;
955.2000;0.1921;7.1730;
955.5000;0.1921;7.1707;
955.8000;0.1897;7.1683;
956.1000;0.1929;7.1730;
956.4000;0.1913;7.1730;
956.7000;0.1921;7.1730;
957.0000;0.1937;7.1754;
957.3000;0.1945;7.1824;
957.6000;0.2002;7.1871;
957.9000;0.1913;7.1660;
958.2000;0.1905;7.1613;
958.5000;0.1954;7.1613;
958.8000;0.1921;7.1589;
959.1000;0.1937;7.1613;
959.4000;0.1945;7.1495;
959.7000;0.1937;7.1448;
960.0000;0.1929;7.1377;
960.3000;0.1937;7.1472;
960.6000;0.1937;7.1472;
960.9000;0.1945;7.1448;
961.2000;0.1913;7.1401;
961.5000;0.1905;7.1377;
961.8000;0.1921;7.1472;
962.1000;0.1880;7.1330;
962.4000;0.1913;7.1377;
962.7000;0.1905;7.1401;
963.0000;0.1905;7.1401;
963.3000;0.1864;7.1424;
963.6000;0.1905;7.1589;
963.9000;0.1897;7.1589;
964.2000;0.1864;7.1519;
964.5000;0.1921;7.1683;
964.8000;0.1921;7.1754;
965.1000;0.1929;7.1660;
965.4000;0.1880;7.1566;
965.7000;0.1929;7.1683;
966.0000;0.1945;7.1613;
966.3000;0.1929;7.1542;
966.6000;0.1905;7.1519;
966.9000;0.1897;7.1495;
967.2000;0.1929;7.1730;
967.5000;0.1929;7.1730;
967.8000;0.1921;7.1636;
968.1000;0.1856;7.1377;
968.4000;0.1913;7.1660;
968.7000;0.1880;7.1566;
969.0000;0.1913;7.1613;
969.3000;0.1954;7.1683;
969.6000;0.2019;7.1824;
969.9000;0.1978;7.1707;
970.2000;0.1913;7.1519;
970.5000;0.1880;7.1472;
970.8000;0.1986;7.1707;
971.1000;0.1897;7.1495;
971.4000;0.1897;7.1472;
971.7000;0.1897;7.1354;
972.0000;0.1921;7.1472;
972.3000;0.1929;7.1448;
972.6000;0.1880;7.1307;
972.9000;0.2002;7.1683;
973.2000;0.1913;7.1424;
973.5000;0.1880;7.1354;
973.8000;0.1913;7.1448;
974.1000;0.1897;7.1377;
974.4000;0.1913;7.1589;
974.7000;0.1897;7.1613;
975.0000;0.1913;7.1589;
975.3000;0.1913;7.1566;
975.6000;0.1905;7.1519;
975.9000;0.1888;7.1472;
976.2000;0.1913;7.1472;
976.5000;0.1921;7.1519;
976.8000;0.1913;7.1542;
977.1000;0.1913;7.1519;
977.4000;0.1929;7.1589;
977.7000;0.1913;7.1542;
978.0000;0.1913;7.1495;
978.3000;0.1921;7.1519;
978.6000;0.1888;7.1401;
978.9000;0.1929;7.1519;
979.2000;0.1888;7.1472;
979.5000;0.1913;7.1472;
979.8000;0.1937;7.1495;
980.1000;0.1921;7.1566;
980.4000;0.1913;7.1542;
980.7000;0.1913;7.1566;
981.0000;0.1921;7.1589;
981.3000;0.1937;7.1683;
981.6000;0.1913;7.1613;
981.9000;0.1929;7.1566;
982.2000;0.1905;7.1472;
982.5000;0.1905;7.1448;
982.8000;0.1921;7.1519;
983.1000;0.1897;7.1472;
983.4000;0.1897;7.1589;
983.7000;0.1929;7.1683;
984.0000;0.1897;7.1683;
984.3000;0.1921;7.1754;
984.6000;0.1929;7.1777;
984.9000;0.1905;7.1730;
985.2000;0.1929;7.1707;
985.5000;0.1897;7.1589;
985.8000;0.1888;7.1495;
986.1000;0.1880;7.1401;
986.4000;0.1880;7.1424;
986.7000;0.1913;7.1448;
987.0000;0.1921;7.1589;
987.3000;0.1823;7.1330;
987.6000;0.1913;7.1495;
987.9000;0.1929;7.1495;
988.2000;0.1888;7.1213;
988.5000;0.1945;7.1307;
988.8000;0.1897;7.1283;
989.1000;0.1962;7.1354;
989.4000;0.1872;7.1236;
989.7000;0.1954;7.1472;
990.0000;0.1945;7.1542;
990.3000;0.1954;7.1589;
990.6000;0.1905;7.1495;
990.9000;0.1945;7.1613;
991.2000;0.1905;7.1542;
991.5000;0.1897;7.1566;
991.8000;0.1880;7.1566;
992.1000;0.1962;7.1824;
992.4000;0.1888;7.1589;
992.7000;0.1872;7.1472;
993.0000;0.1929;7.1613;
993.3000;0.1897;7.1566;
993.6000;0.1905;7.1636;
993.9000;0.1880;7.1566;
994.2000;0.1921;7.1589;
994.5000;0.1872;7.1566;
994.8000;0.1994;7.1824;
995.1000;0.1921;7.1566;
995.4000;0.2002;7.1824;
995.7000;0.1921;7.1566;
996.0000;0.1978;7.1777;
996.3000;0.1913;7.1589;
996.6000;0.1864;7.1401;
996.9000;0.1905;7.1424;
997.2000;0.1913;7.1448;
997.5000;0.1937;7.1495;
997.8000;0.1913;7.1472;
998.1000;0.1921;7.1472;
998.4000;0.1905;7.1566;
998.7000;0.1913;7.1589;
999.0000;0.1945;7.1519;
999.3000;0.1913;7.1495;
999.6000;0.1921;7.1542;
999.9000;0.1929;7.1589;
1000.2000;0.1913;7.1542;
1000.5000;0.1913;7.1472;
1000.8000;0.1872;7.1424;
1001.1000;0.1945;7.1683;
1001.4000;0.1921;7.1683;
1001.7000;0.1897;7.1613;
1002.0000;0.1921;7.1613;
1002.3000;0.1937;7.1683;
1002.6000;0.1864;7.1472;
1002.9000;0.1897;7.1495;
1003.2000;0.1929;7.1519;
1003.5000;0.1913;7.1542;
1003.8000;0.1921;7.1495;
1004.1000;0.1888;7.1448;
1004.4000;0.1913;7.1542;
1004.7000;0.1905;7.1566;
1005.0000;0.1929;7.1566;
1005.3000;0.1880;7.1472;
1005.6000;0.1905;7.1519;
1005.9000;0.1897;7.1542;
1006.2000;0.1880;7.1448;
1006.5000;0.1937;7.1495;
1006.8000;0.1905;7.1424;
1007.1000;0.1897;7.1448;
1007.4000;0.1945;7.1519;
1007.7000;0.1905;7.1448;
1008.0000;0.1905;7.1519;
1008.3000;0.1921;7.1613;
1008.6000;0.1921;7.1589;
1008.9000;0.1929;7.1566;
1009.2000;0.1929;7.1613;
1009.5000;0.1937;7.1636;
1009.8000;0.1897;7.1613;
1010.1000;0.1913;7.1730;
1010.4000;0.1937;7.1730;
1010.7000;0.1905;7.1566;
1011.0000;0.1897;7.1495;
1011.3000;0.1962;7.1613;
1011.6000;0.1937;7.1636;
1011.9000;0.1921;7.1613;
1012.2000;0.1937;7.1683;
1012.5000;0.1832;7.1472;
1012.8000;0.1913;7.1636;
1013.1000;0.1913;7.1613;
1013.4000;0.1905;7.1542;
1013.7000;0.1905;7.1519;
1014.0000;0.1913;7.1542;
1014.3000;0.1913;7.1636;
1014.6000;0.1913;7.1683;
1014.9000;0.1913;7.1730;
1015.2000;0.1913;7.1683;
1015.5000;0.1905;7.1660;
1015.8000;0.1897;7.1613;
1016.1000;0.1880;7.1613;
1016.4000;0.1913;7.1660;
1016.7000;0.1921;7.1730;
1017.0000;0.1913;7.1730;
1017.3000;0.1921;7.1683;
1017.6000;0.1897;7.1660;
1017.9000;0.1905;7.1636;
1018.2000;0.1905;7.1542;
1018.5000;0.1905;7.1542;
1018.8000;0.1897;7.1589;
1019.1000;0.1921;7.1636;
1019.4000;0.1905;7.1660;
1019.7000;0.1913;7.1730;
1020.0000;0.1905;7.1730;
1020.3000;0.1929;7.1707;
1020.6000;0.1937;7.1707;
1020.9000;0.1888;7.1519;
1021.2000;0.1880;7.1424;
1021.5000;0.1921;7.1519;
1021.8000;0.1905;7.1589;
1022.1000;0.1897;7.1542;
1022.4000;0.1888;7.1495;
1022.7000;0.1921;7.1472;
1023.0000;0.1905;7.1424;
1023.3000;0.1897;7.1472;
1023.6000;0.1913;7.1566;
1023.9000;0.1905;7.1613;
1024.2000;0.1945;7.1707;
1024.5000;0.1913;7.1660;
1024.8000;0.1913;7.1613;
1025.1000;0.1945;7.1730;
1025.4000;0.1888;7.1613;
1025.7000;0.1929;7.1707;
1026.0000;0.1848;7.1636;
1026.3000;0.1929;7.1824;
1026.6000;0.1945;7.1918;
1026.9000;0.1921;7.1824;
1027.2000;0.1823;7.1566;
1027.5000;0.1913;7.1730;
1027.8000;0.1913;7.1730;
1028.1000;0.1921;7.1801;
1028.4000;0.1929;7.1895;
1028.7000;0.1905;7.1918;
1029.0000;0.1897;7.1801;
1029.3000;0.1929;7.1848;
1029.6000;0.1929;7.1895;
1029.9000;0.1913;7.1871;
1030.2000;0.1913;7.1730;
1030.5000;0.1905;7.1683;
1030.8000;0.1897;7.1683;
1031.1000;0.1880;7.1589;
1031.4000;0.1905;7.1613;
1031.7000;0.1913;7.1566;
1032.0000;0.1913;7.1542;
1032.3000;0.1905;7.1519;
1032.6000;0.1897;7.1448;
1032.9000;0.1921;7.1542;
1033.2000;0.1929;7.1589;
1033.5000;0.1954;7.1660;
1033.8000;0.1905;7.1519;
1034.1000;0.1905;7.1542;
1034.4000;0.1921;7.1613;
1034.7000;0.1929;7.1660;
1035.0000;0.1880;7.1566;
1035.3000;0.1921;7.1660;
1035.6000;0.1937;7.1683;
1035.9000;0.1888;7.1589;
1036.2000;0.1905;7.1636;
1036.5000;0.1913;7.1660;
1036.8000;0.1905;7.1589;
1037.1000;0.1913;7.1566;
1037.4000;0.1921;7.1589;
1037.7000;0.1913;7.1566;
1038.0000;0.1921;7.1636;
1038.3000;0.1929;7.1683;
1038.6000;0.1962;7.1754;
1038.9000;0.1945;7.1777;
1039.2000;0.1913;7.1683;
1039.5000;0.1937;7.1660;
1039.8000;0.1913;7.1589;
1040.1000;0.1905;7.1542;
1040.4000;0.1921;7.1589;
1040.7000;0.1929;7.1636;
1041.0000;0.1913;7.1566;
1041.3000;0.1929;7.1542;
1041.6000;0.1921;7.1519;
1041.9000;0.1921;7.1519;
1042.2000;0.1913;7.1519;
1042.5000;0.1913;7.1495;
1042.8000;0.1888;7.1472;
1043.1000;0.1929;7.1613;
1043.4000;0.1929;7.1683;
1043.7000;0.1856;7.1566;
1044.0000;0.1905;7.1589;
1044.3000;0.1937;7.1683;
1044.6000;0.1970;7.1730;
1044.9000;0.1945;7.1636;
1045.2000;0.1954;7.1683;
1045.5000;0.1929;7.1730;
1045.8000;0.1921;7.1683;
1046.1000;0.1929;7.1707;
1046.4000;0.1905;7.1660;
1046.7000;0.1897;7.1566;
1047.0000;0.1937;7.1566;
1047.3000;0.1913;7.1542;
1047.6000;0.1913;7.1495;
1047.9000;0.1913;7.1495;
1048.2000;0.1913;7.1519;
1048.5000;0.1905;7.1589;
1048.8000;0.1929;7.1589;
1049.1000;0.1815;7.1307;
1049.4000;0.1921;7.1542;
1049.7000;0.1872;7.1472;
1050.0000;0.1897;7.1542;
1050.3000;0.1897;7.1566;
1050.6000;0.1905;7.1566;
1050.9000;0.1954;7.1636;
1051.2000;0.1880;7.1542;
1051.5000;0.1921;7.1636;
1051.8000;0.1888;7.1542;
1052.1000;0.1921;7.1542;
1052.4000;0.1913;7.1472;
1052.7000;0.1921;7.1448;
1053.0000;0.1905;7.1472;
1053.3000;0.1921;7.1519;
1053.6000;0.1921;7.1542;
1053.9000;0.1921;7.1542;
1054.2000;0.1905;7.1472;
1054.5000;0.1921;7.1566;
1054.8000;0.1905;7.1542;
1055.1000;0.1913;7.1589;
1055.4000;0.1913;7.1472;
1055.7000;0.1921;7.1495;
1056.0000;0.1921;7.1519;
1056.3000;0.1913;7.1448;
1056.6000;0.1905;7.1424;
1056.9000;0.1888;7.1330;
1057.2000;0.1905;7.1377;
1057.5000;0.1897;7.1236;
1057.8000;0.1897;7.1166;
1058.1000;0.1913;7.1260;
1058.4000;0.1913;7.1330;
1058.7000;0.1897;7.1283;
1059.0000;0.1913;7.1213;
1059.3000;0.1905;7.1189;
1059.6000;0.1872;7.1119;
1059.9000;0.1929;7.1283;
1060.2000;0.1905;7.1307;
1060.5000;0.1913;7.1307;
1060.8000;0.1929;7.1354;
1061.1000;0.1913;7.1424;
1061.4000;0.1880;7.1377;
1061.7000;0.1888;7.1377;
1062.0000;0.1921;7.1519;
1062.3000;0.1880;7.1472;
1062.6000;0.1856;7.1307;
1062.9000;0.1937;7.1589;
1063.2000;0.1994;7.1848;
1063.5000;0.1929;7.1683;
1063.8000;0.1905;7.1589;
1064.1000;0.1937;7.1636;
1064.4000;0.1921;7.1613;
1064.7000;0.1897;7.1566;
1065.0000;0.1937;7.1636;
1065.3000;0.1848;7.1377;
1065.6000;0.1856;7.1448;
1065.9000;0.1913;7.1542;
1066.2000;0.1913;7.1495;
1066.5000;0.1913;7.1448;
1066.8000;0.1888;7.1354;
1067.1000;0.1962;7.1566;
1067.4000;0.1929;7.1519;
1067.7000;0.1913;7.1519;
1068.0000;0.1905;7.1448;
1068.3000;0.1880;7.1472;
1068.6000;0.1921;7.1566;
1068.9000;0.1913;7.1448;
1069.2000;0.1905;7.1424;
1069.5000;0.1905;7.1377;
1069.8000;0.1880;7.1283;
1070.1000;0.1921;7.1377;
1070.4000;0.1897;7.1330;
1070.7000;0.1937;7.1472;
1071.0000;0.1913;7.1424;
1071.3000;0.1897;7.1424;
1071.6000;0.1962;7.1589;
1071.9000;0.1921;7.1566;
1072.2000;0.1880;7.1495;
1072.5000;0.1880;7.1424;
1072.8000;0.1913;7.1542;
1073.1000;0.1888;7.1566;
1073.4000;0.1897;7.1707;
1073.7000;0.1921;7.1754;
1074.0000;0.1888;7.1683;
1074.3000;0.1913;7.1730;
1074.6000;0.1897;7.1683;
1074.9000;0.1921;7.1660;
1075.2000;0.1905;7.1636;
1075.5000;0.1905;7.1542;
1075.8000;0.1913;7.1589;
1076.1000;0.1929;7.1636;
1076.4000;0.1897;7.1566;
1076.7000;0.1905;7.1519;
1077.0000;0.1897;7.1448;
1077.3000;0.1905;7.1448;
1077.6000;0.1913;7.1519;
1077.9000;0.1929;7.1566;
1078.2000;0.1880;7.1472;
1078.5000;0.1897;7.1448;
1078.8000;0.1897;7.1424;
1079.1000;0.1897;7.1377;
1079.4000;0.1970;7.1566;
1079.7000;0.1913;7.1448;
1080.0000;0.1888;7.1448;
1080.3000;0.1880;7.1354;
1080.6000;0.1954;7.1589;
1080.9000;0.1897;7.1472;
1081.2000;0.1921;7.1495;
1081.5000;0.1913;7.1566;
1081.8000;0.1905;7.1660;
1082.1000;0.1913;7.1754;
1082.4000;0.1888;7.1683;
1082.7000;0.1937;7.1801;
1083.0000;0.1905;7.1589;
1083.3000;0.1880;7.1589;
1083.6000;0.1945;7.1754;
1083.9000;0.1905;7.1660;
1084.2000;0.2019;7.1965;
1084.5000;0.1856;7.1566;
1084.8000;0.1880;7.1636;
1085.1000;0.1921;7.1683;
1085.4000;0.1864;7.1589;
1085.7000;0.1905;7.1589;
1086.0000;0.1913;7.1636;
1086.3000;0.1954;7.1683;
1086.6000;0.1864;7.1424;
1086.9000;0.1929;7.1566;
1087.2000;0.1954;7.1636;
1087.5000;0.1962;7.1613;
1087.8000;0.1897;7.1495;
1088.1000;0.1856;7.1377;
1088.4000;0.1913;7.1589;
1088.7000;0.1921;7.1660;
1089.0000;0.1905;7.1542;
1089.3000;0.1937;7.1542;
1089.6000;0.1913;7.1566;
1089.9000;0.1905;7.1495;
1090.2000;0.1970;7.1636;
1090.5000;0.1929;7.1519;
1090.8000;0.1856;7.1283;
1091.1000;0.1905;7.1495;
1091.4000;0.1913;7.1472;
1091.7000;0.1921;7.1519;
1092.0000;0.1905;7.1542;
1092.3000;0.1921;7.1589;
1092.6000;0.1897;7.1519;
1092.9000;0.1840;7.1448;
1093.2000;0.1880;7.1566;
1093.5000;0.1897;7.1636;
1093.8000;0.1913;7.1660;
1094.1000;0.1888;7.1542;
1094.4000;0.1913;7.1566;
1094.7000;0.1921;7.1566;
1095.0000;0.1897;7.1542;
1095.3000;0.1921;7.1542;
1095.6000;0.1937;7.1495;
1095.9000;0.1897;7.1472;
1096.2000;0.1880;7.1401;
1096.5000;0.1921;7.1495;
1096.8000;0.1832;7.1307;
1097.1000;0.2019;7.1777;
1097.4000;0.1897;7.1495;
1097.7000;0.1913;7.1566;
1098.0000;0.1937;7.1660;
1098.3000;0.1913;7.1613;
1098.6000;0.1905;7.1589;
1098.9000;0.1888;7.1566;
1099.2000;0.1921;7.1636;
1099.5000;0.1905;7.1613;
1099.8000;0.1962;7.1801;
1100.1000;0.1823;7.1448;
1100.4000;0.1921;7.1542;
1100.7000;0.1913;7.1448;
1101.0000;0.1937;7.1495;
1101.3000;0.1962;7.1542;
1101.6000;0.1921;7.1472;
1101.9000;0.1929;7.1519;
1102.2000;0.1937;7.1613;
1102.5000;0.1913;7.1566;
1102.8000;0.1913;7.1566;
1103.1000;0.1954;7.1707;
1103.4000;0.1832;7.1495;
1103.7000;0.1897;7.1613;
1104.0000;0.1905;7.1542;
1104.3000;0.1880;7.1424;
1104.6000;0.1913;7.1542;
1104.9000;0.1913;7.1613;
1105.2000;0.1913;7.1683;
1105.5000;0.1913;7.1707;
1105.8000;0.1913;7.1636;
1106.1000;0.1921;7.1660;
1106.4000;0.1913;7.1636;
1106.7000;0.1913;7.1660;
1107.0000;0.1913;7.1613;
1107.3000;0.1880;7.1542;
1107.6000;0.1897;7.1636;
1107.9000;0.1937;7.1754;
1108.2000;0.1913;7.1636;
1108.5000;0.1921;7.1707;
1108.8000;0.1929;7.1613;
1109.1000;0.1905;7.1589;
1109.4000;0.1937;7.1707;
1109.7000;0.1888;7.1683;
1110.0000;0.1921;7.1730;
1110.3000;0.1921;7.1707;
1110.6000;0.1929;7.1707;
1110.9000;0.1970;7.1824;
1111.2000;0.1905;7.1613;
1111.5000;0.1905;7.1730;
1111.8000;0.1921;7.1730;
1112.1000;0.1929;7.1707;
1112.4000;0.1921;7.1613;
1112.7000;0.1905;7.1566;
1113.0000;0.1872;7.1542;
1113.3000;0.1921;7.1660;
1113.6000;0.1888;7.1566;
1113.9000;0.1897;7.1589;
1114.2000;0.1897;7.1589;
1114.5000;0.1921;7.1566;
1114.8000;0.1897;7.1495;
1115.1000;0.2011;7.1824;
1115.4000;0.1897;7.1519;
1115.7000;0.1921;7.1542;
1116.0000;0.1897;7.1542;
1116.3000;0.1905;7.1613;
1116.6000;0.1905;7.1636;
1116.9000;0.1913;7.1660;
1117.2000;0.1840;7.1401;
1117.5000;0.1888;7.1519;
1117.8000;0.1905;7.1589;
1118.1000;0.2043;7.1918;
1118.4000;0.1905;7.1660;
1118.7000;0.1913;7.1660;
1119.0000;0.1888;7.1566;
1119.3000;0.1905;7.1542;
1119.6000;0.1905;7.1519;
1119.9000;0.1921;7.1566;
1120.2000;0.1962;7.1660;
1120.5000;0.1848;7.1472;
1120.8000;0.1921;7.1613;
1121.1000;0.1921;7.1542;
1121.4000;0.1888;7.1472;
1121.7000;0.1856;7.1401;
1122.0000;0.1905;7.1542;
1122.3000;0.1872;7.1354;
1122.6000;0.1929;7.1424;
1122.9000;0.1913;7.1401;
1123.2000;0.1905;7.1354;
1123.5000;0.1880;7.1283;
1123.8000;0.1872;7.1283;
1124.1000;0.1929;7.1448;
1124.4000;0.1897;7.1448;
1124.7000;0.1921;7.1566;
1125.0000;0.1872;7.1519;
1125.3000;0.1945;7.1636;
1125.6000;0.1929;7.1566;
1125.9000;0.1945;7.1754;
1126.2000;0.1913;7.1730;
1126.5000;0.1880;7.1660;
1126.8000;0.1913;7.1895;
1127.1000;0.1888;7.1754;
1127.4000;0.1929;7.1918;
1127.7000;0.1872;7.1683;
1128.0000;0.1897;7.1801;
1128.3000;0.1937;7.1871;
1128.6000;0.1897;7.1730;
1128.9000;0.1962;7.1824;
1129.2000;0.1905;7.1777;
1129.5000;0.1913;7.1754;
1129.8000;0.1937;7.1777;
1130.1000;0.1905;7.1636;
1130.4000;0.1921;7.1589;
1130.7000;0.1905;7.1566;
1131.0000;0.1929;7.1613;
1131.3000;0.1921;7.1754;
1131.6000;0.1945;7.1824;
1131.9000;0.1897;7.1613;
1132.2000;0.1888;7.1660;
1132.5000;0.1937;7.1730;
1132.8000;0.1880;7.1519;
1133.1000;0.1921;7.1542;
1133.4000;0.1913;7.1542;
1133.7000;0.1913;7.1542;
1134.0000;0.1905;7.1542;
1134.3000;0.1888;7.1495;
1134.6000;0.1905;7.1519;
1134.9000;0.1937;7.1542;
1135.2000;0.1897;7.1424;
1135.5000;0.1913;7.1589;
1135.8000;0.1905;7.1542;
1136.1000;0.1929;7.1589;
1136.4000;0.1864;7.1448;
1136.7000;0.1913;7.1589;
1137.0000;0.1905;7.1566;
1137.3000;0.1905;7.1636;
1137.6000;0.1905;7.1660;
1137.9000;0.1937;7.1636;
1138.2000;0.1897;7.1519;
1138.5000;0.1945;7.1660;
1138.8000;0.1905;7.1566;
1139.1000;0.1880;7.1519;
1139.4000;0.1921;7.1589;
1139.7000;0.1905;7.1495;
1140.0000;0.1937;7.1542;
1140.3000;0.1913;7.1566;
1140.6000;0.1937;7.1589;
1140.9000;0.1897;7.1636;
1141.2000;0.1905;7.1754;
1141.5000;0.1905;7.1777;
1141.8000;0.1897;7.1754;
1142.1000;0.1880;7.1589;
1142.4000;0.1913;7.1636;
1142.7000;0.1880;7.1589;
1143.0000;0.1897;7.1660;
1143.3000;0.1897;7.1636;
1143.6000;0.1897;7.1542;
1143.9000;0.1872;7.1448;
1144.2000;0.1905;7.1472;
1144.5000;0.1954;7.1660;
1144.8000;0.1888;7.1495;
1145.1000;0.1929;7.1636;
1145.4000;0.1905;7.1613;
1145.7000;0.1897;7.1566;
1146.0000;0.1921;7.1542;
1146.3000;0.1945;7.1683;
1146.6000;0.1913;7.1660;
1146.9000;0.1880;7.1542;
1147.2000;0.1913;7.1613;
1147.5000;0.1897;7.1589;
1147.8000;0.1905;7.1519;
1148.1000;0.1888;7.1495;
1148.4000;0.1888;7.1566;
1148.7000;0.1913;7.1613;
1149.0000;0.1929;7.1660;
1149.3000;0.1888;7.1589;
1149.6000;0.1905;7.1660;
1149.9000;0.1888;7.1613;
1150.2000;0.1888;7.1566;
1150.5000;0.1872;7.1401;
1150.8000;0.1897;7.1401;
1151.1000;0.1913;7.1495;
1151.4000;0.1897;7.1472;
1151.7000;0.1905;7.1542;
1152.0000;0.1937;7.1636;
1152.3000;0.1897;7.1589;
1152.6000;0.1945;7.1660;
1152.9000;0.1913;7.1542;
1153.2000;0.1897;7.1589;
1153.5000;0.1913;7.1660;
1153.8000;0.1888;7.1613;
1154.1000;0.1888;7.1613;
1154.4000;0.1921;7.1660;
1154.7000;0.1929;7.1660;
1155.0000;0.1929;7.1707;
1155.3000;0.1929;7.1707;
1155.6000;0.1905;7.1566;
1155.9000;0.1897;7.1566;
1156.2000;0.1905;7.1448;
1156.5000;0.1880;7.1495;
1156.8000;0.1848;7.1424;
1157.1000;0.1888;7.1472;
1157.4000;0.1897;7.1448;
1157.7000;0.1880;7.1330;
1158.0000;0.1913;7.1424;
1158.3000;0.1888;7.1401;
1158.6000;0.1888;7.1448;
1158.9000;0.1905;7.1448;
1159.2000;0.1913;7.1448;
1159.5000;0.1897;7.1448;
1159.8000;0.1937;7.1448;
1160.1000;0.1913;7.1448;
1160.4000;0.1905;7.1495;
1160.7000;0.1888;7.1542;
1161.0000;0.1848;7.1472;
1161.3000;0.1905;7.1566;
1161.6000;0.1921;7.1589;
1161.9000;0.1897;7.1542;
1162.2000;0.1937;7.1589;
1162.5000;0.1897;7.1542;
1162.8000;0.1921;7.1472;
1163.1000;0.1962;7.1589;
1163.4000;0.1905;7.1401;
1163.7000;0.1905;7.1354;
1164.0000;0.1937;7.1448;
1164.3000;0.1897;7.1401;
1164.6000;0.1880;7.1401;
1164.9000;0.1913;7.1495;
1165.2000;0.1872;7.1354;
1165.5000;0.1905;7.1519;
1165.8000;0.1929;7.1519;
1166.1000;0.1897;7.1424;
1166.4000;0.1905;7.1401;
1166.7000;0.1913;7.1377;
1167.0000;0.2011;7.1660;
1167.3000;0.1905;7.1260;
1167.6000;0.1970;7.1424;
1167.9000;0.1905;7.1236;
1168.2000;0.1905;7.1330;
1168.5000;0.1897;7.1283;
1168.8000;0.1905;7.1354;
1169.1000;0.1880;7.1307;
1169.4000;0.1905;7.1448;
1169.7000;0.1913;7.1542;
1170.0000;0.1913;7.1566;
1170.3000;0.1905;7.1519;
1170.6000;0.1913;7.1589;
1170.9000;0.1905;7.1589;
1171.2000;0.1897;7.1636;
1171.5000;0.1905;7.1613;
1171.8000;0.1897;7.1519;
1172.1000;0.1905;7.1542;
1172.4000;0.1905;7.1542;
1172.7000;0.1905;7.1495;
1173.0000;0.1921;7.1519;
1173.3000;0.1897;7.1519;
1173.6000;0.1913;7.1589;
1173.9000;0.1913;7.1589;
1174.2000;0.1921;7.1613;
1174.5000;0.1962;7.1754;
1174.8000;0.1897;7.1613;
1175.1000;0.1913;7.1589;
1175.4000;0.1897;7.1613;
1175.7000;0.1913;7.1613;
1176.0000;0.1897;7.1519;
1176.3000;0.1954;7.1566;
1176.6000;0.1913;7.1519;
1176.9000;0.1913;7.1495;
1177.2000;0.1913;7.1424;
1177.5000;0.1921;7.1472;
1177.8000;0.1905;7.1401;
1178.1000;0.1945;7.1542;
1178.4000;0.1921;7.1519;
1178.7000;0.1823;7.1330;
1179.0000;0.1913;7.1495;
1179.3000;0.1905;7.1472;
1179.6000;0.1962;7.1636;
1179.9000;0.1905;7.1448;
1180.2000;0.1913;7.1472;
1180.5000;0.1913;7.1636;
1180.8000;0.1921;7.1636;
1181.1000;0.1921;7.1613;
1181.4000;0.1913;7.1566;
1181.7000;0.1921;7.1566;
1182.0000;0.1905;7.1589;
1182.3000;0.1905;7.1542;
1182.6000;0.1880;7.1424;
1182.9000;0.1905;7.1519;
1183.2000;0.1905;7.1472;
1183.5000;0.1888;7.1448;
1183.8000;0.1921;7.1495;
1184.1000;0.1897;7.1401;
1184.4000;0.1921;7.1424;
1184.7000;0.1921;7.1448;
1185.0000;0.1905;7.1377;
1185.3000;0.1888;7.1260;
1185.6000;0.1913;7.1401;
1185.9000;0.1970;7.1589;
1186.2000;0.1888;7.1377;
1186.5000;0.1905;7.1519;
1186.8000;0.1929;7.1589;
1187.1000;0.1897;7.1589;
1187.4000;0.1897;7.1636;
1187.7000;0.1921;7.1707;
1188.0000;0.1945;7.1730;
1188.3000;0.1905;7.1613;
1188.6000;0.1905;7.1495;
1188.9000;0.1888;7.1472;
1189.2000;0.1832;7.1472;
1189.5000;0.1905;7.1730;
1189.8000;0.1921;7.1707;
1190.1000;0.1921;7.1683;
1190.4000;0.1888;7.1613;
1190.7000;0.1897;7.1519;
1191.0000;0.1897;7.1542;
1191.3000;0.1897;7.1660;
1191.6000;0.1913;7.1754;
1191.9000;0.1905;7.1801;
1192.2000;0.1888;7.1871;
1192.5000;0.1905;7.1895;
1192.8000;0.1897;7.1824;
1193.1000;0.1913;7.1777;
1193.4000;0.1880;7.1566;
1193.7000;0.1888;7.1542;
1194.0000;0.1888;7.1566;
1194.3000;0.1872;7.1542;
1194.6000;0.1864;7.1424;
1194.9000;0.1913;7.1472;
1195.2000;0.2011;7.1707;
1195.5000;0.1937;7.1589;
1195.8000;0.1921;7.1566;
1196.1000;0.1913;7.1566;
1196.4000;0.1905;7.1519;
1196.7000;0.1913;7.1542;
1197.0000;0.1897;7.1519;
1197.3000;0.1905;7.1519;
1197.6000;0.1905;7.1495;
1197.9000;0.1897;7.1495;
1198.2000;0.1872;7.1354;
1198.5000;0.1921;7.1542;
1198.8000;0.1921;7.1589;
1199.1000;0.1897;7.1495;
1199.4000;0.1880;7.1307;
1199.7000;0.1905;7.1401;
1200.0000;0.1921;7.1519;
1200.3000;0.1856;7.1354;
1200.6000;0.1897;7.1377;
1200.9000;0.1897;7.1424;
1201.2000;0.1897;7.1472;
1201.5000;0.1856;7.1401;
1201.8000;0.1897;7.1589;
1202.1000;0.1905;7.1754;
1202.4000;0.1937;7.1824;
1202.7000;0.1897;7.1707;
1203.0000;0.1897;7.1730;
1203.3000;0.1888;7.1801;
1203.6000;0.1897;7.1871;
1203.9000;0.1905;7.1801;
1204.2000;0.1888;7.1730;
1204.5000;0.1921;7.1754;
1204.8000;0.1888;7.1683;
1205.1000;0.1905;7.1636;
1205.4000;0.1888;7.1542;
1205.7000;0.1913;7.1613;
1206.0000;0.1945;7.1683;
1206.3000;0.1913;7.1589;
1206.6000;0.1921;7.1613;
1206.9000;0.1897;7.1589;
1207.2000;0.1905;7.1566;
1207.5000;0.1897;7.1542;
1207.8000;0.1897;7.1519;
1208.1000;0.1864;7.1424;
1208.4000;0.1905;7.1566;
1208.7000;0.1929;7.1636;
1209.0000;0.1897;7.1495;
1209.3000;0.1945;7.1636;
1209.6000;0.1929;7.1566;
1209.9000;0.1913;7.1589;
1210.2000;0.1913;7.1519;
1210.5000;0.1913;7.1519;
1210.8000;0.1888;7.1472;
1211.1000;0.1921;7.1519;
1211.4000;0.1905;7.1589;
1211.7000;0.1897;7.1542;
1212.0000;0.1905;7.1542;
1212.3000;0.1905;7.1660;
1212.6000;0.1905;7.1660;
1212.9000;0.1905;7.1660;
1213.2000;0.1905;7.1589;
1213.5000;0.1897;7.1636;
1213.8000;0.1897;7.1613;
1214.1000;0.1880;7.1519;
1214.4000;0.1888;7.1519;
1214.7000;0.1905;7.1448;
1215.0000;0.1929;7.1472;
1215.3000;0.1929;7.1472;
1215.6000;0.1913;7.1495;
1215.9000;0.1921;7.1566;
1216.2000;0.1937;7.1566;
1216.5000;0.1905;7.1566;
1216.8000;0.1921;7.1683;
1217.1000;0.1872;7.1542;
1217.4000;0.1905;7.1566;
1217.7000;0.1897;7.1542;
1218.0000;0.1848;7.1424;
1218.3000;0.1970;7.1754;
1218.6000;0.1921;7.1660;
1218.9000;0.1921;7.1613;
1219.2000;0.1929;7.1660;
1219.5000;0.1897;7.1566;
1219.8000;0.1897;7.1660;
1220.1000;0.1905;7.1636;
1220.4000;0.1880;7.1542;
1220.7000;0.1913;7.1660;
1221.0000;0.1913;7.1660;
1221.3000;0.1880;7.1613;
1221.6000;0.1913;7.1660;
1221.9000;0.1905;7.1636;
1222.2000;0.1929;7.1613;
1222.5000;0.1913;7.1613;
1222.8000;0.1913;7.1660;
1223.1000;0.1929;7.1566;
1223.4000;0.1888;7.1613;
1223.7000;0.1913;7.1707;
1224.0000;0.1905;7.1730;
1224.3000;0.1921;7.1848;
1224.6000;0.1905;7.1824;
1224.9000;0.1929;7.1824;
1225.2000;0.1929;7.1918;
1225.5000;0.1905;7.1848;
1225.8000;0.1905;7.1824;
1226.1000;0.1913;7.1824;
1226.4000;0.1986;7.1801;
1226.7000;0.1905;7.1707;
1227.0000;0.1921;7.1730;
1227.3000;0.1880;7.1589;
1227.6000;0.1888;7.1613;
1227.9000;0.1929;7.1707;
1228.2000;0.1905;7.1566;
1228.5000;0.1880;7.1448;
1228.8000;0.1897;7.1448;
1229.1000;0.1905;7.1566;
1229.4000;0.1905;7.1613;
1229.7000;0.1864;7.1495;
1230.0000;0.1880;7.1542;
1230.3000;0.1897;7.1589;
1230.6000;0.1913;7.1589;
1230.9000;0.1905;7.1566;
1231.2000;0.1872;7.1472;
1231.5000;0.1905;7.1566;
1231.8000;0.1905;7.1542;
1232.1000;0.1905;7.1424;
1232.4000;0.1897;7.1424;
1232.7000;0.1929;7.1613;
1233.0000;0.1848;7.1495;
1233.3000;0.1962;7.1707;
1233.6000;0.1856;7.1424;
1233.9000;0.1913;7.1683;
1234.2000;0.1994;7.1965;
1234.5000;0.1945;7.1848;
1234.8000;0.1897;7.1683;
1235.1000;0.1921;7.1707;
1235.4000;0.1913;7.1707;
1235.7000;0.1954;7.1754;
1236.0000;0.1897;7.1566;
1236.3000;0.1897;7.1636;
1236.6000;0.1913;7.1660;
1236.9000;0.1905;7.1660;
1237.2000;0.1905;7.1589;
1237.5000;0.1994;7.1848;
1237.8000;0.1913;7.1660;
1238.1000;0.1905;7.1683;
1238.4000;0.1897;7.1660;
1238.7000;0.1905;7.1707;
1239.0000;0.1913;7.1683;
1239.3000;0.1897;7.1519;
1239.6000;0.1913;7.1613;
1239.9000;0.1905;7.1589;
1240.2000;0.2002;7.1801;
1240.5000;0.1921;7.1589;
1240.8000;0.1913;7.1495;
1241.1000;0.1913;7.1448;
1241.4000;0.1888;7.1495;
1241.7000;0.1937;7.1683;
1242.0000;0.1937;7.1636;
1242.3000;0.1921;7.1589;
1242.6000;0.1913;7.1519;
1242.9000;0.1913;7.1495;
1243.2000;0.1913;7.1519;
1243.5000;0.1856;7.1401;
1243.8000;0.1905;7.1448;
1244.1000;0.1897;7.1448;
1244.4000;0.1913;7.1519;
1244.7000;0.1905;7.1495;
1245.0000;0.1897;7.1519;
1245.3000;0.1897;7.1472;
1245.6000;0.1897;7.1472;
1245.9000;0.1913;7.1566;
1246.2000;0.1897;7.1589;
1246.5000;0.1921;7.1777;
1246.8000;0.1905;7.1777;
1247.1000;0.1905;7.1730;
1247.4000;0.1905;7.1683;
1247.7000;0.1905;7.1730;
1248.0000;0.1905;7.1707;
1248.3000;0.1880;7.1660;
1248.6000;0.1913;7.1707;
1248.9000;0.1913;7.1683;
1249.2000;0.1897;7.1660;
1249.5000;0.1994;7.1989;
1249.8000;0.1888;7.1801;
1250.1000;0.1913;7.1801;
1250.4000;0.1888;7.1754;
1250.7000;0.1921;7.1848;
1251.0000;0.1848;7.1566;
1251.3000;0.1905;7.1777;
1251.6000;0.1864;7.1660;
1251.9000;0.1913;7.1730;
1252.2000;0.1897;7.1660;
1252.5000;0.1864;7.1566;
1252.8000;0.1905;7.1660;
1253.1000;0.1872;7.1613;
1253.4000;0.1905;7.1754;
1253.7000;0.1880;7.1660;
1254.0000;0.1905;7.1754;
1254.3000;0.1888;7.1801;
1254.6000;0.1897;7.1824;
1254.9000;0.1864;7.1683;
1255.2000;0.1897;7.1848;
1255.5000;0.1897;7.1824;
1255.8000;0.1905;7.1848;
1256.1000;0.1921;7.1801;
1256.4000;0.1905;7.1754;
1256.7000;0.1913;7.1801;
1257.0000;0.1905;7.1824;
1257.3000;0.1921;7.1824;
1257.6000;0.1954;7.1942;
1257.9000;0.1937;7.1848;
1258.2000;0.1954;7.1848;
1258.5000;0.1888;7.1730;
1258.8000;0.1888;7.1754;
1259.1000;0.1888;7.1613;
1259.4000;0.1897;7.1660;
1259.7000;0.1840;7.1354;
1260.0000;0.1994;7.1824;
1260.3000;0.1913;7.1636;
1260.6000;0.1880;7.1472;
1260.9000;0.1905;7.1495;
1261.2000;0.1864;7.1330;
1261.5000;0.1905;7.1448;
1261.8000;0.1880;7.1377;
1262.1000;0.1905;7.1448;
1262.4000;0.1888;7.1519;
1262.7000;0.1897;7.1613;
1263.0000;0.1880;7.1589;
1263.3000;0.1888;7.1683;
1263.6000;0.1888;7.1636;
1263.9000;0.1913;7.1707;
1264.2000;0.1905;7.1801;
1264.5000;0.1880;7.1707;
1264.8000;0.1880;7.1707;
1265.1000;0.1880;7.1589;
1265.4000;0.1905;7.1613;
1265.7000;0.1913;7.1589;
1266.0000;0.1929;7.1636;
1266.3000;0.1921;7.1589;
1266.6000;0.1905;7.1589;
1266.9000;0.1905;7.1566;
1267.2000;0.1888;7.1566;
1267.5000;0.1921;7.1589;
1267.8000;0.1791;7.1283;
1268.1000;0.1962;7.1777;
1268.4000;0.1937;7.1589;
1268.7000;0.1905;7.1495;
1269.0000;0.1888;7.1472;
1269.3000;0.1913;7.1519;
1269.6000;0.1905;7.1542;
1269.9000;0.1929;7.1613;
1270.2000;0.1897;7.1589;
1270.5000;0.1921;7.1707;
1270.8000;0.1848;7.1589;
1271.1000;0.1913;7.1801;
1271.4000;0.1864;7.1730;
1271.7000;0.1921;7.1801;
1272.0000;0.1913;7.1754;
1272.3000;0.1929;7.1683;
1272.6000;0.1929;7.1754;
1272.9000;0.1978;7.1871;
1273.2000;0.1937;7.1707;
1273.5000;0.1905;7.1636;
1273.8000;0.1905;7.1707;
1274.1000;0.1880;7.1730;
1274.4000;0.1823;7.1636;
1274.7000;0.1897;7.1801;
1275.0000;0.1905;7.1848;
1275.3000;0.1888;7.1777;
1275.6000;0.1840;7.1636;
1275.9000;0.1913;7.1777;
1276.2000;0.1905;7.1801;
1276.5000;0.1888;7.1730;
1276.8000;0.1913;7.1707;
1277.1000;0.1897;7.1754;
1277.4000;0.1880;7.1707;
1277.7000;0.1921;7.1777;
1278.0000;0.1954;7.1824;
1278.3000;0.1921;7.1801;
1278.6000;0.1872;7.1730;
1278.9000;0.1888;7.1848;
1279.2000;0.1897;7.1801;
1279.5000;0.1888;7.1777;
1279.8000;0.1913;7.1777;
1280.1000;0.1888;7.1660;
1280.4000;0.1905;7.1636;
1280.7000;0.1897;7.1636;
1281.0000;0.1913;7.1707;
1281.3000;0.1921;7.1660;
1281.6000;0.1864;7.1542;
1281.9000;0.1913;7.1589;
1282.2000;0.1880;7.1519;
1282.5000;0.1840;7.1542;
1282.8000;0.1897;7.1660;
1283.1000;0.1897;7.1707;
1283.4000;0.1921;7.1777;
1283.7000;0.1937;7.1824;
1284.0000;0.1872;7.1613;
1284.3000;0.1888;7.1707;
1284.6000;0.1872;7.1636;
1284.9000;0.1848;7.1542;
1285.2000;0.1913;7.1730;
1285.5000;0.1888;7.1754;
1285.8000;0.1880;7.1824;
1286.1000;0.1897;7.1942;
1286.4000;0.1897;7.1965;
1286.7000;0.1921;7.1871;
1287.0000;0.1921;7.1824;
1287.3000;0.1921;7.1754;
1287.6000;0.1888;7.1683;
1287.9000;0.1905;7.1754;
1288.2000;0.1921;7.1848;
1288.5000;0.1897;7.1754;
1288.8000;0.1986;7.1871;
1289.1000;0.1872;7.1519;
1289.4000;0.1913;7.1613;
1289.7000;0.1913;7.1636;
1290.0000;0.1905;7.1707;
1290.3000;0.1897;7.1754;
1290.6000;0.1888;7.1683;
1290.9000;0.1897;7.1777;
1291.2000;0.1799;7.1589;
1291.5000;0.1888;7.1754;
1291.8000;0.1905;7.1754;
1292.1000;0.1913;7.1801;
1292.4000;0.1921;7.1754;
1292.7000;0.1913;7.1707;
1293.0000;0.1872;7.1683;
1293.3000;0.1897;7.1801;
1293.6000;0.1921;7.2012;
1293.9000;0.1913;7.1942;
1294.2000;0.1880;7.1824;
1294.5000;0.1864;7.1754;
1294.8000;0.1880;7.1730;
1295.1000;0.1897;7.1707;
1295.4000;0.1832;7.1613;
1295.7000;0.1905;7.1824;
1296.0000;0.1880;7.1660;
1296.3000;0.1905;7.1636;
1296.6000;0.1937;7.1660;
1296.9000;0.1913;7.1683;
1297.2000;0.1913;7.1660;
1297.5000;0.1937;7.1730;
1297.8000;0.1888;7.1542;
1298.1000;0.1897;7.1613;
1298.4000;0.1880;7.1566;
1298.7000;0.1905;7.1636;
1299.0000;0.1888;7.1589;
1299.3000;0.1897;7.1566;
1299.6000;0.1880;7.1613;
1299.9000;0.1905;7.1683;
1300.2000;0.1913;7.1660;
1300.5000;0.1897;7.1660;
1300.8000;0.1905;7.1636;
1301.1000;0.1905;7.1660;
1301.4000;0.1897;7.1636;
1301.7000;0.1921;7.1707;
1302.0000;0.1905;7.1660;
1302.3000;0.1905;7.1660;
1302.6000;0.1937;7.1848;
1302.9000;0.1880;7.1707;
1303.2000;0.1913;7.1707;
1303.5000;0.1905;7.1683;
1303.8000;0.1921;7.1707;
1304.1000;0.1905;7.1707;
1304.4000;0.1880;7.1730;
1304.7000;0.1888;7.1707;
1305.0000;0.1880;7.1613;
1305.3000;0.1823;7.1495;
1305.6000;0.1897;7.1636;
1305.9000;0.1913;7.1707;
1306.2000;0.1848;7.1495;
1306.5000;0.1921;7.1754;
1306.8000;0.1799;7.1542;
1307.1000;0.1921;7.1918;
1307.4000;0.1921;7.1942;
1307.7000;0.1888;7.1848;
1308.0000;0.1856;7.1754;
1308.3000;0.1856;7.1683;
1308.6000;0.1962;7.1848;
1308.9000;0.1897;7.1707;
1309.2000;0.1929;7.1754;
1309.5000;0.1888;7.1542;
1309.8000;0.1897;7.1495;
1310.1000;0.1913;7.1613;
1310.4000;0.1937;7.1566;
1310.7000;0.1921;7.1519;
1311.0000;0.1921;7.1542;
1311.3000;0.1848;7.1566;
1311.6000;0.1937;7.1777;
1311.9000;0.1913;7.1754;
1312.2000;0.1937;7.1895;
1312.5000;0.1921;7.1871;
1312.8000;0.1921;7.1895;
1313.1000;0.1945;7.1895;
1313.4000;0.1937;7.1895;
1313.7000;0.1913;7.1730;
1314.0000;0.1913;7.1730;
1314.3000;0.1840;7.1519;
1314.6000;0.1897;7.1613;
1314.9000;0.1905;7.1660;
1315.2000;0.1921;7.1660;
1315.5000;0.1897;7.1589;
1315.8000;0.1913;7.1707;
1316.1000;0.1897;7.1754;
1316.4000;0.1856;7.1730;
1316.7000;0.1921;7.1871;
1317.0000;0.1929;7.1871;
1317.3000;0.1897;7.1824;
1317.6000;0.1905;7.1848;
1317.9000;0.1921;7.1801;
1318.2000;0.1905;7.1777;
1318.5000;0.1880;7.1613;
1318.8000;0.1994;7.1989;
1319.1000;0.1913;7.1777;
1319.4000;0.1913;7.1777;
1319.7000;0.1872;7.1754;
1320.0000;0.1937;7.1871;
1320.3000;0.1913;7.1754;
1320.6000;0.1937;7.1848;
1320.9000;0.1913;7.1801;
1321.2000;0.1897;7.1707;
1321.5000;0.1905;7.1707;
1321.8000;0.1897;7.1730;
1322.1000;0.1905;7.1707;
1322.4000;0.1905;7.1707;
1322.7000;0.1921;7.1754;
1323.0000;0.1929;7.1824;
1323.3000;0.1929;7.1871;
1323.6000;0.1921;7.1801;
1323.9000;0.1921;7.1824;
1324.2000;0.1880;7.1707;
1324.5000;0.1905;7.1613;
1324.8000;0.1905;7.1589;
1325.1000;0.1880;7.1566;
1325.4000;0.1905;7.1636;
1325.7000;0.1945;7.1730;
1326.0000;0.1945;7.1754;
1326.3000;0.1840;7.1542;
1326.6000;0.1897;7.1636;
1326.9000;0.1905;7.1754;
1327.2000;0.1905;7.1730;
1327.5000;0.1929;7.1660;
1327.8000;0.1921;7.1660;
1328.1000;0.1954;7.1777;
1328.4000;0.1888;7.1589;
1328.7000;0.1856;7.1448;
1329.0000;0.1897;7.1589;
1329.3000;0.1864;7.1495;
1329.6000;0.1888;7.1495;
1329.9000;0.1897;7.1472;
1330.2000;0.1872;7.1472;
1330.5000;0.1905;7.1566;
1330.8000;0.1905;7.1683;
1331.1000;0.1872;7.1566;
1331.4000;0.1880;7.1589;
1331.7000;0.1913;7.1707;
1332.0000;0.1954;7.1824;
1332.3000;0.1815;7.1472;
1332.6000;0.1864;7.1660;
1332.9000;0.1905;7.1824;
1333.2000;0.1921;7.1777;
1333.5000;0.1905;7.1730;
1333.8000;0.1897;7.1707;
1334.1000;0.1880;7.1636;
1334.4000;0.1913;7.1660;
1334.7000;0.1905;7.1683;
1335.0000;0.1913;7.1777;
1335.3000;0.1897;7.1754;
1335.6000;0.1913;7.1895;
1335.9000;0.1913;7.1965;
1336.2000;0.1905;7.1942;
1336.5000;0.1864;7.1801;
1336.8000;0.1897;7.1895;
1337.1000;0.1905;7.1942;
1337.4000;0.1832;7.1754;
1337.7000;0.1888;7.1942;
1338.0000;0.1905;7.1942;
1338.3000;0.1913;7.1918;
1338.6000;0.1888;7.1848;
1338.9000;0.1913;7.1730;
1339.2000;0.1888;7.1636;
1339.5000;0.1897;7.1683;
1339.8000;0.1905;7.1754;
1340.1000;0.1888;7.1730;
1340.4000;0.1888;7.1707;
1340.7000;0.1905;7.1801;
1341.0000;0.1913;7.1871;
1341.3000;0.1888;7.1824;
1341.6000;0.1856;7.1871;
1341.9000;0.1888;7.1965;
1342.2000;0.1913;7.1942;
1342.5000;0.1905;7.1895;
1342.8000;0.1897;7.1871;
1343.1000;0.1905;7.1965;
1343.4000;0.1913;7.1895;
1343.7000;0.1921;7.1777;
1344.0000;0.1929;7.1777;
1344.3000;0.1897;7.1730;
1344.6000;0.1897;7.1848;
1344.9000;0.1921;7.1871;
1345.2000;0.1888;7.1801;
1345.5000;0.1832;7.1566;
1345.8000;0.1897;7.1730;
1346.1000;0.1929;7.1777;
1346.4000;0.1921;7.1660;
1346.7000;0.1913;7.1660;
1347.0000;0.1897;7.1660;
1347.3000;0.1888;7.1660;
1347.6000;0.1921;7.1613;
1347.9000;0.1823;7.1401;
1348.2000;0.1913;7.1566;
1348.5000;0.1905;7.1519;
1348.8000;0.1929;7.1613;
1349.1000;0.1888;7.1401;
1349.4000;0.1880;7.1354;
1349.7000;0.1962;7.1542;
1350.0000;0.1978;7.1613;
1350.3000;0.1913;7.1472;
1350.6000;0.1970;7.1683;
1350.9000;0.1913;7.1542;
1351.2000;0.1864;7.1377;
1351.5000;0.1905;7.1401;
1351.8000;0.1897;7.1377;
1352.1000;0.1888;7.1424;
1352.4000;0.1864;7.1354;
1352.7000;0.1905;7.1495;
1353.0000;0.1897;7.1448;
1353.3000;0.1929;7.1566;
1353.6000;0.1905;7.1566;
1353.9000;0.1897;7.1589;
1354.2000;0.1929;7.1660;
1354.5000;0.1856;7.1401;
1354.8000;0.1913;7.1472;
1355.1000;0.1905;7.1401;
1355.4000;0.1872;7.1330;
1355.7000;0.1897;7.1377;
1356.0000;0.1913;7.1424;
1356.3000;0.1888;7.1401;
1356.6000;0.1937;7.1472;
1356.9000;0.1897;7.1401;
1357.2000;0.1897;7.1542;
1357.5000;0.1897;7.1566;
1357.8000;0.1905;7.1472;
1358.1000;0.1880;7.1448;
1358.4000;0.1905;7.1566;
1358.7000;0.1905;7.1566;
1359.0000;0.1905;7.1566;
1359.3000;0.1905;7.1589;
1359.6000;0.1897;7.1472;
1359.9000;0.1913;7.1566;
1360.2000;0.1913;7.1542;
1360.5000;0.1913;7.1495;
1360.8000;0.1905;7.1542;
1361.1000;0.1913;7.1613;
1361.4000;0.1929;7.1660;
1361.7000;0.1929;7.1754;
1362.0000;0.1897;7.1754;
1362.3000;0.1880;7.1660;
1362.6000;0.1921;7.1730;
1362.9000;0.1905;7.1589;
1363.2000;0.1905;7.1542;
1363.5000;0.1880;7.1354;
1363.8000;0.1888;7.1354;
1364.1000;0.1888;7.1377;
1364.4000;0.1905;7.1472;
1364.7000;0.1897;7.1566;
1365.0000;0.1929;7.1707;
1365.3000;0.1897;7.1566;
1365.6000;0.1897;7.1636;
1365.9000;0.1937;7.1660;
1366.2000;0.1913;7.1566;
1366.5000;0.1897;7.1519;
1366.8000;0.1913;7.1542;
1367.1000;0.1905;7.1566;
1367.4000;0.1945;7.1636;
1367.7000;0.1921;7.1542;
1368.0000;0.1897;7.1566;
1368.3000;0.1905;7.1589;
1368.6000;0.1897;7.1566;
1368.9000;0.1888;7.1472;
1369.2000;0.1921;7.1660;
1369.5000;0.1872;7.1589;
1369.8000;0.1905;7.1660;
1370.1000;0.1872;7.1542;
1370.4000;0.1921;7.1566;
1370.7000;0.1897;7.1519;
1371.0000;0.1954;7.1730;
1371.3000;0.1921;7.1613;
1371.6000;0.1888;7.1589;
1371.9000;0.1921;7.1754;
1372.2000;0.1897;7.1777;
1372.5000;0.1913;7.1801;
1372.8000;0.1897;7.1801;
1373.1000;0.1897;7.1754;
1373.4000;0.1888;7.1542;
1373.7000;0.1986;7.1848;
1374.0000;0.1897;7.1613;
1374.3000;0.1888;7.1566;
1374.6000;0.1872;7.1495;
1374.9000;0.1905;7.1495;
1375.2000;0.1888;7.1448;
1375.5000;0.1905;7.1542;
1375.8000;0.1897;7.1613;
1376.1000;0.1913;7.1660;
1376.4000;0.1937;7.1754;
1376.7000;0.1905;7.1683;
1377.0000;0.1962;7.1824;
1377.3000;0.1848;7.1636;
1377.6000;0.1921;7.1683;
1377.9000;0.1880;7.1589;
1378.2000;0.1905;7.1636;
1378.5000;0.1880;7.1636;
1378.8000;0.1905;7.1636;
1379.1000;0.1913;7.1613;
1379.4000;0.1954;7.1683;
1379.7000;0.1913;7.1519;
1380.0000;0.1913;7.1519;
1380.3000;0.1905;7.1542;
1380.6000;0.1897;7.1519;
1380.9000;0.1897;7.1401;
1381.2000;0.1905;7.1495;
1381.5000;0.1905;7.1636;
1381.8000;0.1921;7.1730;
1382.1000;0.1921;7.1754;
1382.4000;0.1897;7.1683;
1382.7000;0.1913;7.1754;
1383.0000;0.1897;7.1660;
1383.3000;0.1897;7.1683;
1383.6000;0.1897;7.1777;
1383.9000;0.1905;7.1801;
1384.2000;0.1897;7.1754;
1384.5000;0.1815;7.1566;
1384.8000;0.1888;7.1660;
1385.1000;0.1848;7.1542;
1385.4000;0.1880;7.1636;
1385.7000;0.1929;7.1707;
1386.0000;0.1905;7.1683;
1386.3000;0.1856;7.1542;
1386.6000;0.1945;7.1707;
1386.9000;0.1905;7.1683;
1387.2000;0.1905;7.1613;
1387.5000;0.1848;7.1401;
1387.8000;0.1921;7.1613;
1388.1000;0.1913;7.1566;
1388.4000;0.1913;7.1542;
1388.7000;0.2035;7.1824;
1389.0000;0.1970;7.1707;
1389.3000;0.1905;7.1683;
1389.6000;0.1880;7.1613;
1389.9000;0.1880;7.1589;
1390.2000;0.1905;7.1707;
1390.5000;0.2027;7.2012;
1390.8000;0.1921;7.1754;
1391.1000;0.1888;7.1730;
1391.4000;0.1937;7.1895;
1391.7000;0.1905;7.1801;
1392.0000;0.1905;7.1730;
1392.3000;0.1905;7.1636;
1392.6000;0.1905;7.1683;
1392.9000;0.1913;7.1589;
1393.2000;0.1913;7.1660;
1393.5000;0.1913;7.1613;
1393.8000;0.1872;7.1401;
1394.1000;0.1929;7.1589;
1394.4000;0.1905;7.1519;
1394.7000;0.1888;7.1495;
1395.0000;0.1905;7.1495;
1395.3000;0.1888;7.1401;
1395.6000;0.1905;7.1495;
1395.9000;0.1913;7.1519;
1396.2000;0.1880;7.1566;
1396.5000;0.1929;7.1730;
1396.8000;0.1897;7.1683;
1397.1000;0.1897;7.1707;
1397.4000;0.1937;7.1801;
1397.7000;0.1913;7.1683;
1398.0000;0.1905;7.1730;
1398.3000;0.1905;7.1660;
1398.6000;0.1921;7.1636;
1398.9000;0.1888;7.1636;
1399.2000;0.1929;7.1777;
1399.5000;0.1897;7.1730;
1399.8000;0.1905;7.1754;
