time/ms;Fluo/V;P700 deltaI/I x10³;
-199.8000;0.1937;7.1754;
-199.5000;0.1929;7.1707;
-199.2000;0.1929;7.1683;
-198.9000;0.1913;7.1542;
-198.6000;0.1905;7.1424;
-198.3000;0.1921;7.1354;
-198.0000;0.1929;7.1354;
-197.7000;0.1921;7.1401;
-197.4000;0.1929;7.1424;
-197.1000;0.1929;7.1495;
-196.8000;0.1913;7.1589;
-196.5000;0.1913;7.1589;
-196.2000;0.1929;7.1519;
-195.9000;0.1929;7.1636;
-195.6000;0.1905;7.1613;
-195.3000;0.1913;7.1542;
-195.0000;0.1921;7.1424;
-194.7000;0.1945;7.1542;
-194.4000;0.1929;7.1566;
-194.1000;0.1929;7.1495;
-193.8000;0.1937;7.1566;
-193.5000;0.1888;7.1519;
-193.2000;0.1929;7.1613;
-192.9000;0.1954;7.1683;
-192.6000;0.1913;7.1542;
-192.3000;0.1929;7.1589;
-192.0000;0.1937;7.1660;
-191.7000;0.1954;7.1707;
-191.4000;0.1913;7.1660;
-191.1000;0.1921;7.1636;
-190.8000;0.1913;7.1495;
-190.5000;0.1905;7.1472;
-190.2000;0.1945;7.1519;
-189.9000;0.1921;7.1519;
-189.6000;0.1864;7.1377;
-189.3000;0.1929;7.1519;
-189.0000;0.1921;7.1566;
-188.7000;0.1970;7.1683;
-188.4000;0.1937;7.1589;
-188.1000;0.1905;7.1519;
-187.8000;0.1897;7.1566;
-187.5000;0.1921;7.1613;
-187.2000;0.1921;7.1566;
-186.9000;0.1929;7.1589;
-186.6000;0.1921;7.1683;
-186.3000;0.1897;7.1660;
-186.0000;0.1937;7.1777;
-185.7000;0.1929;7.1730;
-185.4000;0.1929;7.1683;
-185.1000;0.1913;7.1707;
-184.8000;0.1921;7.1683;
-184.5000;0.1897;7.1683;
-184.2000;0.1913;7.1777;
-183.9000;0.1905;7.1801;
-183.6000;0.1913;7.1777;
-183.3000;0.1921;7.1848;
-183.0000;0.1929;7.1801;
-182.7000;0.1913;7.1707;
-182.4000;0.1913;7.1636;
-182.1000;0.1913;7.1636;
-181.8000;0.1937;7.1636;
-181.5000;0.1929;7.1660;
-181.2000;0.1921;7.1589;
-180.9000;0.1921;7.1542;
-180.6000;0.1937;7.1660;
-180.3000;0.1929;7.1683;
-180.0000;0.1921;7.1542;
-179.7000;0.1905;7.1495;
-179.4000;0.1929;7.1566;
-179.1000;0.1954;7.1613;
-178.8000;0.1913;7.1495;
-178.5000;0.1913;7.1589;
-178.2000;0.1929;7.1636;
-177.9000;0.1921;7.1707;
-177.6000;0.1913;7.1636;
-177.3000;0.1897;7.1660;
-177.0000;0.1921;7.1777;
-176.7000;0.1937;7.1730;
-176.4000;0.1921;7.1683;
-176.1000;0.1897;7.1707;
-175.8000;0.1921;7.1754;
-175.5000;0.1945;7.1777;
-175.2000;0.1945;7.1754;
-174.9000;0.1921;7.1660;
-174.6000;0.1929;7.1589;
-174.3000;0.1921;7.1542;
-174.0000;0.1905;7.1448;
-173.7000;0.1921;7.1495;
-173.4000;0.1913;7.1542;
-173.1000;0.1921;7.1566;
-172.8000;0.1921;7.1613;
-172.5000;0.1929;7.1777;
-172.2000;0.1913;7.1707;
-171.9000;0.1929;7.1777;
-171.6000;0.1929;7.1754;
-171.3000;0.1921;7.1730;
-171.0000;0.1913;7.1754;
-170.7000;0.1880;7.1683;
-170.4000;0.1954;7.1895;
-170.1000;0.1962;7.1942;
-169.8000;0.1913;7.1777;
-169.5000;0.1897;7.1707;
-169.2000;0.1921;7.1730;
-168.9000;0.1905;7.1636;
-168.6000;0.1905;7.1589;
-168.3000;0.1905;7.1519;
-168.0000;0.1929;7.1566;
-167.7000;0.1986;7.1683;
-167.4000;0.1913;7.1566;
-167.1000;0.1897;7.1542;
-166.8000;0.1954;7.1730;
-166.5000;0.1921;7.1589;
-166.2000;0.1929;7.1589;
-165.9000;0.1880;7.1542;
-165.6000;0.1880;7.1424;
-165.3000;0.1913;7.1519;
-165.0000;0.1954;7.1683;
-164.7000;0.1937;7.1660;
-164.4000;0.1913;7.1683;
-164.1000;0.1921;7.1707;
-163.8000;0.1921;7.1730;
-163.5000;0.1970;7.1871;
-163.2000;0.1872;7.1636;
-162.9000;0.1921;7.1777;
-162.6000;0.1937;7.1848;
-162.3000;0.1929;7.1777;
-162.0000;0.1905;7.1683;
-161.7000;0.1921;7.1613;
-161.4000;0.1929;7.1636;
-161.1000;0.1978;7.1754;
-160.8000;0.1978;7.1824;
-160.5000;0.1929;7.1707;
-160.2000;0.1921;7.1613;
-159.9000;0.1954;7.1707;
-159.6000;0.1905;7.1589;
-159.3000;0.1888;7.1566;
-159.0000;0.1913;7.1519;
-158.7000;0.1905;7.1472;
-158.4000;0.1888;7.1542;
-158.1000;0.1945;7.1636;
-157.8000;0.1937;7.1660;
-157.5000;0.1962;7.1754;
-157.2000;0.1913;7.1683;
-156.9000;0.1945;7.1683;
-156.6000;0.1929;7.1636;
-156.3000;0.1945;7.1683;
-156.0000;0.1929;7.1613;
-155.7000;0.1905;7.1519;
-155.4000;0.1921;7.1636;
-155.1000;0.1921;7.1613;
-154.8000;0.1937;7.1660;
-154.5000;0.1921;7.1660;
-154.2000;0.1929;7.1707;
-153.9000;0.1921;7.1660;
-153.6000;0.1921;7.1660;
-153.3000;0.1880;7.1566;
-153.0000;0.1888;7.1495;
-152.7000;0.1929;7.1636;
-152.4000;0.1962;7.1730;
-152.1000;0.1929;7.1636;
-151.8000;0.1921;7.1636;
-151.5000;0.2019;7.1895;
-151.2000;0.1970;7.1754;
-150.9000;0.1945;7.1542;
-150.6000;0.1954;7.1613;
-150.3000;0.1978;7.1660;
-150.0000;0.1921;7.1542;
-149.7000;0.1905;7.1566;
-149.4000;0.1815;7.1354;
-149.1000;0.1823;7.1283;
-148.8000;0.1913;7.1519;
-148.5000;0.1913;7.1542;
-148.2000;0.1929;7.1566;
-147.9000;0.1937;7.1566;
-147.6000;0.1954;7.1613;
-147.3000;0.1929;7.1519;
-147.0000;0.1897;7.1472;
-146.7000;0.1880;7.1472;
-146.4000;0.1913;7.1566;
-146.1000;0.1921;7.1660;
-145.8000;0.1994;7.1754;
-145.5000;0.1905;7.1613;
-145.2000;0.1913;7.1707;
-144.9000;0.1921;7.1730;
-144.6000;0.1978;7.1801;
-144.3000;0.1905;7.1542;
-144.0000;0.1913;7.1589;
-143.7000;0.1945;7.1636;
-143.4000;0.1872;7.1448;
-143.1000;0.1921;7.1542;
-142.8000;0.1888;7.1519;
-142.5000;0.1978;7.1707;
-142.2000;0.1945;7.1589;
-141.9000;0.1913;7.1448;
-141.6000;0.1913;7.1472;
-141.3000;0.1945;7.1519;
-141.0000;0.1921;7.1495;
-140.7000;0.1921;7.1519;
-140.4000;0.1921;7.1448;
-140.1000;0.1840;7.1189;
-139.8000;0.1929;7.1401;
-139.5000;0.1929;7.1424;
-139.2000;0.1937;7.1448;
-138.9000;0.1929;7.1519;
-138.6000;0.1937;7.1566;
-138.3000;0.1921;7.1495;
-138.0000;0.1905;7.1448;
-137.7000;0.1929;7.1495;
-137.4000;0.1897;7.1448;
-137.1000;0.1848;7.1330;
-136.8000;0.1913;7.1354;
-136.5000;0.1872;7.1213;
-136.2000;0.1937;7.1283;
-135.9000;0.1921;7.1236;
-135.6000;0.1929;7.1189;
-135.3000;0.1905;7.1213;
-135.0000;0.1929;7.1424;
-134.7000;0.1986;7.1613;
-134.4000;0.1905;7.1472;
-134.1000;0.1937;7.1495;
-133.8000;0.1945;7.1519;
-133.5000;0.1929;7.1542;
-133.2000;0.1929;7.1566;
-132.9000;0.1945;7.1495;
-132.6000;0.1921;7.1401;
-132.3000;0.1945;7.1377;
-132.0000;0.1921;7.1424;
-131.7000;0.1937;7.1636;
-131.4000;0.1929;7.1636;
-131.1000;0.1945;7.1613;
-130.8000;0.1929;7.1542;
-130.5000;0.1888;7.1495;
-130.2000;0.1937;7.1566;
-129.9000;0.1962;7.1542;
-129.6000;0.1929;7.1495;
-129.3000;0.2059;7.1801;
-129.0000;0.1937;7.1448;
-128.7000;0.1913;7.1448;
-128.4000;0.1929;7.1448;
-128.1000;0.1954;7.1448;
-127.8000;0.1921;7.1377;
-127.5000;0.1913;7.1377;
-127.2000;0.1913;7.1236;
-126.9000;0.1929;7.1307;
-126.6000;0.1937;7.1307;
-126.3000;0.1921;7.1424;
-126.0000;0.1929;7.1519;
-125.7000;0.1905;7.1542;
-125.4000;0.1905;7.1495;
-125.1000;0.1929;7.1472;
-124.8000;0.1921;7.1472;
-124.5000;0.1913;7.1519;
-124.2000;0.1921;7.1519;
-123.9000;0.1913;7.1542;
-123.6000;0.1954;7.1730;
-123.3000;0.1929;7.1636;
-123.0000;0.1913;7.1636;
-122.7000;0.1872;7.1542;
-122.4000;0.1929;7.1707;
-122.1000;0.1921;7.1707;
-121.8000;0.1905;7.1777;
-121.5000;0.1913;7.1730;
-121.2000;0.1921;7.1730;
-120.9000;0.1945;7.1801;
-120.6000;0.1921;7.1683;
-120.3000;0.1921;7.1636;
-120.0000;0.1929;7.1636;
-119.7000;0.1945;7.1589;
-119.4000;0.1880;7.1519;
-119.1000;0.2027;7.1801;
-118.8000;0.1921;7.1495;
-118.5000;0.1921;7.1519;
-118.2000;0.1921;7.1448;
-117.9000;0.1937;7.1448;
-117.6000;0.1905;7.1424;
-117.3000;0.1913;7.1424;
-117.0000;0.1937;7.1472;
-116.7000;0.1929;7.1542;
-116.4000;0.1913;7.1566;
-116.1000;0.1921;7.1589;
-115.8000;0.2011;7.1801;
-115.5000;0.1937;7.1636;
-115.2000;0.1921;7.1589;
-114.9000;0.1913;7.1660;
-114.6000;0.1929;7.1707;
-114.3000;0.1937;7.1754;
-114.0000;0.1929;7.1777;
-113.7000;0.1929;7.1895;
-113.4000;0.1929;7.1848;
-113.1000;0.1929;7.1754;
-112.8000;0.1897;7.1636;
-112.5000;0.1929;7.1707;
-112.2000;0.1864;7.1542;
-111.9000;0.1880;7.1519;
-111.6000;0.1921;7.1495;
-111.3000;0.1954;7.1495;
-111.0000;0.1937;7.1448;
-110.7000;0.1937;7.1472;
-110.4000;0.1921;7.1519;
-110.1000;0.1921;7.1566;
-109.8000;0.1921;7.1519;
-109.5000;0.1905;7.1566;
-109.2000;0.1954;7.1589;
-108.9000;0.1937;7.1566;
-108.6000;0.1937;7.1519;
-108.3000;0.1937;7.1519;
-108.0000;0.1832;7.1213;
-107.7000;0.1913;7.1401;
-107.4000;0.1945;7.1495;
-107.1000;0.1921;7.1448;
-106.8000;0.1937;7.1448;
-106.5000;0.1994;7.1589;
-106.2000;0.1905;7.1424;
-105.9000;0.1937;7.1519;
-105.6000;0.1929;7.1566;
-105.3000;0.1880;7.1519;
-105.0000;0.1913;7.1613;
-104.7000;0.1937;7.1660;
-104.4000;0.1888;7.1542;
-104.1000;0.1945;7.1636;
-103.8000;0.1921;7.1542;
-103.5000;0.1929;7.1472;
-103.2000;0.1888;7.1354;
-102.9000;0.1962;7.1519;
-102.6000;0.1913;7.1424;
-102.3000;0.1921;7.1519;
-102.0000;0.1905;7.1542;
-101.7000;0.1921;7.1613;
-101.4000;0.1929;7.1636;
-101.1000;0.1945;7.1589;
-100.8000;0.1937;7.1519;
-100.5000;0.1921;7.1495;
-100.2000;0.1897;7.1472;
-99.9000;0.1954;7.1542;
-99.6000;0.1986;7.1636;
-99.3000;0.1888;7.1307;
-99.0000;0.1929;7.1448;
-98.7000;0.1929;7.1472;
-98.4000;0.1970;7.1566;
-98.1000;0.1954;7.1519;
-97.8000;0.1929;7.1401;
-97.5000;0.1921;7.1330;
-97.2000;0.1913;7.1330;
-96.9000;0.1945;7.1424;
-96.6000;0.1954;7.1401;
-96.3000;0.1921;7.1401;
-96.0000;0.2002;7.1566;
-95.7000;0.1929;7.1377;
-95.4000;0.1978;7.1542;
-95.1000;0.1921;7.1377;
-94.8000;0.1913;7.1542;
-94.5000;0.1937;7.1542;
-94.2000;0.1929;7.1542;
-93.9000;0.1921;7.1472;
-93.6000;0.1897;7.1472;
-93.3000;0.1888;7.1401;
-93.0000;0.1921;7.1519;
-92.7000;0.1921;7.1542;
-92.4000;0.1913;7.1472;
-92.1000;0.1921;7.1566;
-91.8000;0.1929;7.1519;
-91.5000;0.1929;7.1424;
-91.2000;0.1945;7.1377;
-90.9000;0.1913;7.1354;
-90.6000;0.1913;7.1424;
-90.3000;0.1929;7.1424;
-90.0000;0.1921;7.1377;
-89.7000;0.1937;7.1377;
-89.4000;0.1929;7.1377;
-89.1000;0.1937;7.1472;
-88.8000;0.1929;7.1542;
-88.5000;0.1945;7.1613;
-88.2000;0.1945;7.1542;
-87.9000;0.1929;7.1519;
-87.6000;0.1913;7.1401;
-87.3000;0.1913;7.1307;
-87.0000;0.1921;7.1260;
-86.7000;0.1937;7.1354;
-86.4000;0.1937;7.1424;
-86.1000;0.1929;7.1401;
-85.8000;0.1937;7.1354;
-85.5000;0.1905;7.1307;
-85.2000;0.1970;7.1424;
-84.9000;0.1929;7.1307;
-84.6000;0.1929;7.1307;
-84.3000;0.1897;7.1354;
-84.0000;0.1913;7.1472;
-83.7000;0.1913;7.1566;
-83.4000;0.1962;7.1660;
-83.1000;0.1880;7.1377;
-82.8000;0.1945;7.1519;
-82.5000;0.1913;7.1448;
-82.2000;0.1913;7.1377;
-81.9000;0.1905;7.1401;
-81.6000;0.1905;7.1448;
-81.3000;0.1970;7.1636;
-81.0000;0.1905;7.1472;
-80.7000;0.1937;7.1542;
-80.4000;0.1929;7.1495;
-80.1000;0.1937;7.1495;
-79.8000;0.1921;7.1424;
-79.5000;0.1921;7.1377;
-79.2000;0.1929;7.1495;
-78.9000;0.1929;7.1589;
-78.6000;0.1921;7.1542;
-78.3000;0.1921;7.1519;
-78.0000;0.1897;7.1566;
-77.7000;0.1921;7.1660;
-77.4000;0.1962;7.1777;
-77.1000;0.1945;7.1848;
-76.8000;0.1913;7.1801;
-76.5000;0.1937;7.1801;
-76.2000;0.1913;7.1848;
-75.9000;0.1945;7.1848;
-75.6000;0.1929;7.1754;
-75.3000;0.1978;7.1848;
-75.0000;0.1970;7.1824;
-74.7000;0.1945;7.1707;
-74.4000;0.1978;7.1683;
-74.1000;0.1945;7.1589;
-73.8000;0.1937;7.1707;
-73.5000;0.1929;7.1871;
-73.2000;0.1937;7.1871;
-72.9000;0.1937;7.1895;
-72.6000;0.1937;7.1871;
-72.3000;0.1913;7.1824;
-72.0000;0.1929;7.1824;
-71.7000;0.1929;7.1754;
-71.4000;0.2002;7.1942;
-71.1000;0.1897;7.1566;
-70.8000;0.1954;7.1519;
-70.5000;0.1937;7.1377;
-70.2000;0.1921;7.1424;
-69.9000;0.1888;7.1354;
-69.6000;0.1905;7.1448;
-69.3000;0.1921;7.1519;
-69.0000;0.1937;7.1589;
-68.7000;0.1921;7.1472;
-68.4000;0.1921;7.1472;
-68.1000;0.1921;7.1519;
-67.8000;0.1913;7.1613;
-67.5000;0.1937;7.1613;
-67.2000;0.1913;7.1542;
-66.9000;0.1905;7.1495;
-66.6000;0.1913;7.1448;
-66.3000;0.1921;7.1448;
-66.0000;0.1954;7.1448;
-65.7000;0.1913;7.1354;
-65.4000;0.1929;7.1401;
-65.1000;0.1921;7.1424;
-64.8000;0.1970;7.1472;
-64.5000;0.1921;7.1377;
-64.2000;0.1905;7.1377;
-63.9000;0.1962;7.1566;
-63.6000;0.1937;7.1589;
-63.3000;0.1986;7.1660;
-63.0000;0.1937;7.1495;
-62.7000;0.1929;7.1424;
-62.4000;0.1954;7.1566;
-62.1000;0.1929;7.1542;
-61.8000;0.1905;7.1472;
-61.5000;0.1840;7.1283;
-61.2000;0.1986;7.1613;
-60.9000;0.1937;7.1424;
-60.6000;0.1913;7.1401;
-60.3000;0.1897;7.1448;
-60.0000;0.1921;7.1589;
-59.7000;0.1937;7.1566;
-59.4000;0.1962;7.1519;
-59.1000;0.1864;7.1330;
-58.8000;0.1929;7.1472;
-58.5000;0.1921;7.1495;
-58.2000;0.1815;7.1307;
-57.9000;0.1905;7.1589;
-57.6000;0.1945;7.1707;
-57.3000;0.1921;7.1660;
-57.0000;0.1897;7.1495;
-56.7000;0.1905;7.1424;
-56.4000;0.1954;7.1495;
-56.1000;0.1913;7.1424;
-55.8000;0.1929;7.1448;
-55.5000;0.1897;7.1401;
-55.2000;0.1921;7.1448;
-54.9000;0.1913;7.1472;
-54.6000;0.1962;7.1589;
-54.3000;0.1929;7.1519;
-54.0000;0.1905;7.1424;
-53.7000;0.1929;7.1542;
-53.4000;0.1954;7.1589;
-53.1000;0.1937;7.1566;
-52.8000;0.1945;7.1542;
-52.5000;0.1929;7.1472;
-52.2000;0.1937;7.1424;
-51.9000;0.1937;7.1401;
-51.6000;0.1921;7.1330;
-51.3000;0.1929;7.1377;
-51.0000;0.1929;7.1448;
-50.7000;0.1929;7.1519;
-50.4000;0.1897;7.1401;
-50.1000;0.1913;7.1495;
-49.8000;0.1954;7.1542;
-49.5000;0.1929;7.1495;
-49.2000;0.1921;7.1542;
-48.9000;0.1913;7.1566;
-48.6000;0.1929;7.1566;
-48.3000;0.1945;7.1683;
-48.0000;0.1921;7.1589;
-47.7000;0.1913;7.1495;
-47.4000;0.1897;7.1448;
-47.1000;0.1905;7.1448;
-46.8000;0.1913;7.1519;
-46.5000;0.1929;7.1495;
-46.2000;0.1937;7.1519;
-45.9000;0.1954;7.1519;
-45.6000;0.1937;7.1472;
-45.3000;0.1897;7.1495;
-45.0000;0.1937;7.1589;
-44.7000;0.1937;7.1636;
-44.4000;0.1937;7.1613;
-44.1000;0.1913;7.1566;
-43.8000;0.1921;7.1613;
-43.5000;0.1929;7.1660;
-43.2000;0.1897;7.1542;
-42.9000;0.1905;7.1519;
-42.6000;0.1905;7.1472;
-42.3000;0.1929;7.1519;
-42.0000;0.1888;7.1424;
-41.7000;0.1954;7.1613;
-41.4000;0.1929;7.1613;
-41.1000;0.1921;7.1566;
-40.8000;0.1872;7.1519;
-40.5000;0.1929;7.1613;
-40.2000;0.1921;7.1636;
-39.9000;0.1937;7.1754;
-39.6000;0.1848;7.1566;
-39.3000;0.1929;7.1801;
-39.0000;0.1921;7.1730;
-38.7000;0.1929;7.1801;
-38.4000;0.1937;7.1801;
-38.1000;0.1929;7.1707;
-37.8000;0.1929;7.1589;
-37.5000;0.1921;7.1566;
-37.2000;0.1888;7.1519;
-36.9000;0.1929;7.1589;
-36.6000;0.1921;7.1613;
-36.3000;0.1905;7.1660;
-36.0000;0.1913;7.1660;
-35.7000;0.1921;7.1730;
-35.4000;0.1921;7.1707;
-35.1000;0.1929;7.1707;
-34.8000;0.1954;7.1777;
-34.5000;0.1913;7.1707;
-34.2000;0.1970;7.1777;
-33.9000;0.1872;7.1519;
-33.6000;0.1929;7.1683;
-33.3000;0.1929;7.1801;
-33.0000;0.1905;7.1754;
-32.7000;0.1929;7.1777;
-32.4000;0.1994;7.1871;
-32.1000;0.1937;7.1683;
-31.8000;0.1921;7.1660;
-31.5000;0.1937;7.1613;
-31.2000;0.1929;7.1660;
-30.9000;0.1913;7.1519;
-30.6000;0.1921;7.1448;
-30.3000;0.1913;7.1354;
-30.0000;0.1905;7.1283;
-29.7000;0.1905;7.1354;
-29.4000;0.1937;7.1448;
-29.1000;0.1937;7.1424;
-28.8000;0.1937;7.1519;
-28.5000;0.1954;7.1519;
-28.2000;0.1937;7.1566;
-27.9000;0.1888;7.1495;
-27.6000;0.1913;7.1519;
-27.3000;0.1888;7.1519;
-27.0000;0.1913;7.1660;
-26.7000;0.1978;7.1895;
-26.4000;0.1905;7.1683;
-26.1000;0.1921;7.1589;
-25.8000;0.1921;7.1660;
-25.5000;0.1913;7.1589;
-25.2000;0.1994;7.1730;
-24.9000;0.1921;7.1566;
-24.6000;0.1913;7.1519;
-24.3000;0.1929;7.1472;
-24.0000;0.1905;7.1377;
-23.7000;0.1929;7.1472;
-23.4000;0.1937;7.1495;
-23.1000;0.1945;7.1566;
-22.8000;0.1913;7.1424;
-22.5000;0.1913;7.1377;
-22.2000;0.1905;7.1519;
-21.9000;0.1937;7.1542;
-21.6000;0.1937;7.1589;
-21.3000;0.1913;7.1566;
-21.0000;0.1888;7.1401;
-20.7000;0.1929;7.1519;
-20.4000;0.1921;7.1424;
-20.1000;0.1888;7.1377;
-19.8000;0.1962;7.1660;
-19.5000;0.1937;7.1589;
-19.2000;0.1945;7.1519;
-18.9000;0.1945;7.1566;
-18.6000;0.1921;7.1377;
-18.3000;0.1929;7.1307;
-18.0000;0.1921;7.1330;
-17.7000;0.1945;7.1424;
-17.4000;0.1929;7.1448;
-17.1000;0.1913;7.1495;
-16.8000;0.1921;7.1519;
-16.5000;0.1921;7.1495;
-16.2000;0.1945;7.1542;
-15.9000;0.1954;7.1542;
-15.6000;0.1832;7.1283;
-15.3000;0.1937;7.1472;
-15.0000;0.1921;7.1519;
-14.7000;0.1978;7.1566;
-14.4000;0.1929;7.1448;
-14.1000;0.1921;7.1472;
-13.8000;0.1986;7.1613;
-13.5000;0.1905;7.1519;
-13.2000;0.1945;7.1566;
-12.9000;0.1937;7.1566;
-12.6000;0.1945;7.1566;
-12.3000;0.1913;7.1589;
-12.0000;0.1913;7.1519;
-11.7000;0.1937;7.1519;
-11.4000;0.1913;7.1519;
-11.1000;0.1913;7.1495;
-10.8000;0.1905;7.1424;
-10.5000;0.1937;7.1589;
-10.2000;0.1978;7.1683;
-9.9000;0.1937;7.1566;
-9.6000;0.1937;7.1589;
-9.3000;0.1929;7.1519;
-9.0000;0.1945;7.1589;
-8.7000;0.1905;7.1519;
-8.4000;0.1921;7.1472;
-8.1000;0.1929;7.1566;
-7.8000;0.1921;7.1660;
-7.5000;0.1913;7.1613;
-7.2000;0.1905;7.1519;
-6.9000;0.1905;7.1542;
-6.6000;0.1905;7.1542;
-6.3000;0.1921;7.1448;
-6.0000;0.1913;7.1448;
-5.7000;0.1921;7.1377;
-5.4000;0.1929;7.1448;
-5.1000;0.1929;7.1424;
-4.8000;0.1945;7.1519;
-4.5000;0.1929;7.1495;
-4.2000;0.1921;7.1424;
-3.9000;0.1929;7.1472;
-3.6000;0.1929;7.1519;
-3.3000;0.1986;7.1707;
-3.0000;0.1921;7.1495;
-2.7000;0.1929;7.1401;
-2.4000;0.1929;7.1495;
-2.1000;0.1905;7.1542;
-1.8000;0.1905;7.1519;
-1.5000;0.1905;7.1495;
-1.2000;0.1921;7.1542;
-0.9000;0.1921;7.1448;
-0.6000;0.1921;7.1448;
-0.3000;0.1929;7.1472;
0.0000;0.1929;7.1472;
0.3000;0.2002;7.1472;
0.6000;0.2133;7.1683;
0.9000;0.2271;7.2036;
1.2000;0.2352;7.2177;
1.5000;0.2466;7.2459;
1.8000;0.2499;7.2530;
2.1000;0.2556;7.2694;
2.4000;0.2605;7.2836;
2.7000;0.2646;7.2883;
3.0000;0.2646;7.2883;
3.3000;0.2678;7.2906;
3.6000;0.2678;7.3000;
3.9000;0.2727;7.3165;
4.2000;0.2694;7.3141;
4.5000;0.2727;7.3259;
4.8000;0.2751;7.3424;
5.1000;0.2759;7.3565;
5.4000;0.2808;7.3659;
5.7000;0.2768;7.3612;
6.0000;0.2776;7.3565;
6.3000;0.2792;7.3518;
6.6000;0.2776;7.3588;
6.9000;0.2792;7.3541;
7.2000;0.2800;7.3541;
7.5000;0.2800;7.3424;
7.8000;0.2808;7.3424;
8.1000;0.2792;7.3400;
8.4000;0.2800;7.3471;
8.7000;0.2825;7.3588;
9.0000;0.2816;7.3518;
9.3000;0.2833;7.3565;
9.6000;0.2841;7.3635;
9.9000;0.2825;7.3588;
10.2000;0.2816;7.3518;
10.5000;0.2841;7.3565;
10.8000;0.2849;7.3471;
11.1000;0.2857;7.3565;
11.4000;0.2849;7.3565;
11.7000;0.2833;7.3565;
12.0000;0.2849;7.3612;
12.3000;0.2857;7.3612;
12.6000;0.2882;7.3659;
12.9000;0.2833;7.3588;
13.2000;0.2873;7.3706;
13.5000;0.2873;7.3659;
13.8000;0.2849;7.3541;
14.1000;0.2873;7.3447;
14.4000;0.2882;7.3424;
14.7000;0.2882;7.3447;
15.0000;0.2873;7.3471;
15.3000;0.2963;7.3635;
15.6000;0.2906;7.3447;
15.9000;0.2906;7.3353;
16.2000;0.2914;7.3400;
16.5000;0.2898;7.3376;
16.8000;0.2898;7.3494;
17.1000;0.2914;7.3518;
17.4000;0.2882;7.3447;
17.7000;0.2906;7.3494;
18.0000;0.2922;7.3471;
18.3000;0.2922;7.3518;
18.6000;0.2930;7.3541;
18.9000;0.2930;7.3612;
19.2000;0.3020;7.3729;
19.5000;0.2971;7.3682;
19.8000;0.2930;7.3588;
20.1000;0.2939;7.3682;
20.4000;0.2955;7.3588;
20.7000;0.2947;7.3471;
21.0000;0.2939;7.3447;
21.3000;0.2955;7.3565;
21.6000;0.2947;7.3612;
21.9000;0.2939;7.3659;
22.2000;0.2939;7.3588;
22.5000;0.2939;7.3588;
22.8000;0.2930;7.3635;
23.1000;0.2947;7.3659;
23.4000;0.2963;7.3706;
23.7000;0.2979;7.3635;
24.0000;0.2963;7.3753;
24.3000;0.2955;7.3612;
24.6000;0.2979;7.3612;
24.9000;0.2963;7.3541;
25.2000;0.2963;7.3565;
25.5000;0.2971;7.3588;
25.8000;0.2987;7.3635;
26.1000;0.2987;7.3612;
26.4000;0.2979;7.3706;
26.7000;0.2996;7.3753;
27.0000;0.2979;7.3776;
27.3000;0.2979;7.3800;
27.6000;0.3004;7.3823;
27.9000;0.2996;7.3729;
28.2000;0.2996;7.3682;
28.5000;0.2971;7.3518;
28.8000;0.2987;7.3541;
29.1000;0.3036;7.3706;
29.4000;0.3020;7.3635;
29.7000;0.2979;7.3447;
30.0000;0.3012;7.3588;
30.3000;0.3028;7.3518;
30.6000;0.3012;7.3424;
30.9000;0.3004;7.3447;
31.2000;0.3028;7.3494;
31.5000;0.3044;7.3612;
31.8000;0.3020;7.3541;
32.1000;0.3020;7.3494;
32.4000;0.3036;7.3612;
32.7000;0.2922;7.3424;
33.0000;0.3020;7.3588;
33.3000;0.3020;7.3565;
33.6000;0.2922;7.3306;
33.9000;0.3012;7.3588;
34.2000;0.3036;7.3612;
34.5000;0.3036;7.3659;
34.8000;0.3109;7.3800;
35.1000;0.3044;7.3588;
35.4000;0.3053;7.3494;
35.7000;0.3028;7.3471;
36.0000;0.3053;7.3659;
36.3000;0.3044;7.3541;
36.6000;0.3053;7.3494;
36.9000;0.3053;7.3494;
37.2000;0.3020;7.3424;
37.5000;0.3028;7.3447;
37.8000;0.3036;7.3612;
38.1000;0.3044;7.3565;
38.4000;0.3028;7.3494;
38.7000;0.3044;7.3447;
39.0000;0.3036;7.3447;
39.3000;0.3061;7.3424;
39.6000;0.3061;7.3353;
39.9000;0.3053;7.3353;
40.2000;0.3053;7.3424;
40.5000;0.3053;7.3471;
40.8000;0.3061;7.3494;
41.1000;0.3053;7.3541;
41.4000;0.3077;7.3471;
41.7000;0.3101;7.3518;
42.0000;0.3077;7.3400;
42.3000;0.3061;7.3376;
42.6000;0.3085;7.3471;
42.9000;0.3085;7.3565;
43.2000;0.3085;7.3424;
43.5000;0.3061;7.3259;
43.8000;0.3061;7.3400;
44.1000;0.3069;7.3400;
44.4000;0.3183;7.3753;
44.7000;0.3085;7.3494;
45.0000;0.3020;7.3376;
45.3000;0.3077;7.3471;
45.6000;0.3085;7.3518;
45.9000;0.3077;7.3635;
46.2000;0.3142;7.3753;
46.5000;0.3093;7.3659;
46.8000;0.3077;7.3682;
47.1000;0.3134;7.3776;
47.4000;0.3028;7.3494;
47.7000;0.3077;7.3635;
48.0000;0.3093;7.3706;
48.3000;0.3101;7.3706;
48.6000;0.3101;7.3659;
48.9000;0.3061;7.3518;
49.2000;0.3126;7.3706;
49.5000;0.3093;7.3612;
49.8000;0.3093;7.3588;
50.1000;0.3085;7.3588;
50.4000;0.3109;7.3612;
50.7000;0.3093;7.3682;
51.0000;0.3101;7.3635;
51.3000;0.3101;7.3706;
51.6000;0.3085;7.3682;
51.9000;0.3036;7.3588;
52.2000;0.3101;7.3753;
52.5000;0.3085;7.3682;
52.8000;0.3101;7.3659;
53.1000;0.3085;7.3612;
53.4000;0.3101;7.3612;
53.7000;0.3109;7.3565;
54.0000;0.3109;7.3518;
54.3000;0.3093;7.3541;
54.6000;0.3126;7.3588;
54.9000;0.3118;7.3565;
55.2000;0.3085;7.3518;
55.5000;0.3109;7.3612;
55.8000;0.3142;7.3729;
56.1000;0.3109;7.3494;
56.4000;0.3101;7.3400;
56.7000;0.3109;7.3447;
57.0000;0.3118;7.3494;
57.3000;0.3109;7.3447;
57.6000;0.3109;7.3447;
57.9000;0.3109;7.3353;
58.2000;0.3109;7.3282;
58.5000;0.3109;7.3259;
58.8000;0.3118;7.3212;
59.1000;0.3150;7.3329;
59.4000;0.3118;7.3447;
59.7000;0.3118;7.3565;
60.0000;0.3118;7.3518;
60.3000;0.3109;7.3518;
60.6000;0.3118;7.3565;
60.9000;0.3126;7.3612;
61.2000;0.3118;7.3612;
61.5000;0.3134;7.3541;
61.8000;0.3126;7.3447;
62.1000;0.3142;7.3518;
62.4000;0.3126;7.3494;
62.7000;0.3118;7.3447;
63.0000;0.3134;7.3518;
63.3000;0.3126;7.3635;
63.6000;0.3142;7.3753;
63.9000;0.3109;7.3635;
64.2000;0.3183;7.3776;
64.5000;0.3126;7.3565;
64.8000;0.3142;7.3706;
65.1000;0.3150;7.3635;
65.4000;0.3207;7.3682;
65.7000;0.3166;7.3635;
66.0000;0.3158;7.3588;
66.3000;0.3142;7.3588;
66.6000;0.3142;7.3612;
66.9000;0.3126;7.3565;
67.2000;0.3150;7.3541;
67.5000;0.3150;7.3494;
67.8000;0.3118;7.3471;
68.1000;0.3183;7.3659;
68.4000;0.3150;7.3612;
68.7000;0.3126;7.3588;
69.0000;0.3126;7.3659;
69.3000;0.3134;7.3635;
69.6000;0.3166;7.3659;
69.9000;0.3134;7.3682;
70.2000;0.3134;7.3753;
70.5000;0.3126;7.3800;
70.8000;0.3142;7.3847;
71.1000;0.3134;7.3706;
71.4000;0.3150;7.3753;
71.7000;0.3142;7.3753;
72.0000;0.3142;7.3776;
72.3000;0.3158;7.3800;
72.6000;0.3142;7.3706;
72.9000;0.3134;7.3659;
73.2000;0.3134;7.3659;
73.5000;0.3150;7.3682;
73.8000;0.3142;7.3682;
74.1000;0.3126;7.3588;
74.4000;0.3191;7.3682;
74.7000;0.3150;7.3612;
75.0000;0.3150;7.3635;
75.3000;0.3166;7.3612;
75.6000;0.3166;7.3565;
75.9000;0.3150;7.3541;
76.2000;0.3158;7.3447;
76.5000;0.3150;7.3424;
76.8000;0.3150;7.3565;
77.1000;0.3183;7.3682;
77.4000;0.3223;7.3635;
77.7000;0.3166;7.3494;
78.0000;0.3150;7.3376;
78.3000;0.3264;7.3565;
78.6000;0.3126;7.3165;
78.9000;0.3166;7.3306;
79.2000;0.3158;7.3188;
79.5000;0.3158;7.3212;
79.8000;0.3142;7.3235;
80.1000;0.3166;7.3306;
80.4000;0.3134;7.3212;
80.7000;0.3150;7.3212;
81.0000;0.3158;7.3165;
81.3000;0.3166;7.3118;
81.6000;0.3118;7.3071;
81.9000;0.3158;7.3118;
82.2000;0.3175;7.3212;
82.5000;0.3166;7.3165;
82.8000;0.3166;7.3235;
83.1000;0.3142;7.3306;
83.4000;0.3142;7.3353;
83.7000;0.3183;7.3400;
84.0000;0.3183;7.3424;
84.3000;0.3142;7.3306;
84.6000;0.3175;7.3282;
84.9000;0.3183;7.3282;
85.2000;0.3150;7.3259;
85.5000;0.3175;7.3282;
85.8000;0.3150;7.3212;
86.1000;0.3175;7.3212;
86.4000;0.3183;7.3188;
86.7000;0.3191;7.3141;
87.0000;0.3158;7.3024;
87.3000;0.3191;7.3188;
87.6000;0.3215;7.3306;
87.9000;0.3109;7.3212;
88.2000;0.3166;7.3329;
88.5000;0.3150;7.3235;
88.8000;0.3150;7.3259;
89.1000;0.3183;7.3306;
89.4000;0.3183;7.3235;
89.7000;0.3077;7.3024;
90.0000;0.3101;7.3071;
90.3000;0.3191;7.3259;
90.6000;0.3207;7.3376;
90.9000;0.3207;7.3400;
91.2000;0.3191;7.3282;
91.5000;0.3175;7.3165;
91.8000;0.3142;7.3000;
92.1000;0.3175;7.3047;
92.4000;0.3150;7.2836;
92.7000;0.3175;7.2930;
93.0000;0.3109;7.2765;
93.3000;0.3175;7.3071;
93.6000;0.3158;7.2906;
93.9000;0.3175;7.2953;
94.2000;0.3142;7.2977;
94.5000;0.3166;7.3047;
94.8000;0.3207;7.3212;
95.1000;0.3191;7.3071;
95.4000;0.3158;7.3118;
95.7000;0.3158;7.3071;
96.0000;0.3166;7.3094;
96.3000;0.3191;7.3165;
96.6000;0.3183;7.3165;
96.9000;0.3183;7.3165;
97.2000;0.3166;7.3118;
97.5000;0.3175;7.3165;
97.8000;0.3207;7.3212;
98.1000;0.3199;7.3212;
98.4000;0.3166;7.3188;
98.7000;0.3166;7.3212;
99.0000;0.3215;7.3259;
99.3000;0.3175;7.3212;
99.6000;0.3175;7.3165;
99.9000;0.3191;7.3141;
100.2000;0.3223;7.3141;
100.5000;0.3183;7.3047;
100.8000;0.3191;7.3047;
101.1000;0.3191;7.3024;
101.4000;0.3207;7.3071;
101.7000;0.3166;7.3000;
102.0000;0.3199;7.3047;
102.3000;0.3191;7.3071;
102.6000;0.3191;7.3047;
102.9000;0.3191;7.3047;
103.2000;0.3183;7.3071;
103.5000;0.3183;7.3141;
103.8000;0.3166;7.3165;
104.1000;0.3183;7.3165;
104.4000;0.3207;7.3282;
104.7000;0.3166;7.3141;
105.0000;0.3191;7.3188;
105.3000;0.3183;7.3235;
105.6000;0.3166;7.3165;
105.9000;0.3175;7.3212;
106.2000;0.3289;7.3376;
106.5000;0.3183;7.3047;
106.8000;0.3199;7.3024;
107.1000;0.3199;7.3071;
107.4000;0.3191;7.3141;
107.7000;0.3175;7.3118;
108.0000;0.3199;7.3165;
108.3000;0.3150;7.3071;
108.6000;0.3191;7.3118;
108.9000;0.3215;7.3118;
109.2000;0.3215;7.3047;
109.5000;0.3183;7.3000;
109.8000;0.3183;7.2977;
110.1000;0.3166;7.3000;
110.4000;0.3207;7.3071;
110.7000;0.3207;7.3212;
111.0000;0.3191;7.3188;
111.3000;0.3199;7.3212;
111.6000;0.3199;7.3235;
111.9000;0.3183;7.3141;
112.2000;0.3199;7.3071;
112.5000;0.3232;7.3071;
112.8000;0.3166;7.2930;
113.1000;0.3199;7.3000;
113.4000;0.3191;7.3000;
113.7000;0.3175;7.2930;
114.0000;0.3223;7.3047;
114.3000;0.3191;7.2977;
114.6000;0.3191;7.2953;
114.9000;0.3264;7.3071;
115.2000;0.3199;7.2977;
115.5000;0.3223;7.3071;
115.8000;0.3199;7.3094;
116.1000;0.3199;7.3212;
116.4000;0.3191;7.3212;
116.7000;0.3199;7.3259;
117.0000;0.3191;7.3235;
117.3000;0.3199;7.3259;
117.6000;0.3191;7.3259;
117.9000;0.3183;7.3306;
118.2000;0.3199;7.3353;
118.5000;0.3207;7.3235;
118.8000;0.3191;7.3141;
119.1000;0.3191;7.3047;
119.4000;0.3199;7.3141;
119.7000;0.3150;7.3094;
120.0000;0.3175;7.3071;
120.3000;0.3199;7.3212;
120.6000;0.3215;7.3188;
120.9000;0.3183;7.3000;
121.2000;0.3199;7.2906;
121.5000;0.3199;7.3071;
121.8000;0.3215;7.3071;
122.1000;0.3199;7.3000;
122.4000;0.3199;7.3071;
122.7000;0.3191;7.3024;
123.0000;0.3191;7.2977;
123.3000;0.3199;7.3000;
123.6000;0.3134;7.2953;
123.9000;0.3207;7.3047;
124.2000;0.3126;7.2977;
124.5000;0.3158;7.3047;
124.8000;0.3207;7.3165;
125.1000;0.3183;7.3141;
125.4000;0.3191;7.3212;
125.7000;0.3272;7.3282;
126.0000;0.3215;7.3024;
126.3000;0.3232;7.3094;
126.6000;0.3191;7.2953;
126.9000;0.3207;7.3024;
127.2000;0.3248;7.3094;
127.5000;0.3215;7.3047;
127.8000;0.3215;7.3047;
128.1000;0.3199;7.3000;
128.4000;0.3207;7.2906;
128.7000;0.3199;7.2812;
129.0000;0.3142;7.2741;
129.3000;0.3289;7.3188;
129.6000;0.3207;7.3024;
129.9000;0.3207;7.2977;
130.2000;0.3223;7.3000;
130.5000;0.3207;7.2930;
130.8000;0.3175;7.2977;
131.1000;0.3232;7.3094;
131.4000;0.3183;7.3047;
131.7000;0.3207;7.3094;
132.0000;0.3183;7.3000;
132.3000;0.3199;7.3071;
132.6000;0.3166;7.3024;
132.9000;0.3199;7.3071;
133.2000;0.3207;7.2977;
133.5000;0.3232;7.3047;
133.8000;0.3215;7.3047;
134.1000;0.3207;7.3047;
134.4000;0.3207;7.3071;
134.7000;0.3207;7.3118;
135.0000;0.3215;7.3118;
135.3000;0.3207;7.3165;
135.6000;0.3175;7.3071;
135.9000;0.3207;7.3165;
136.2000;0.3215;7.3188;
136.5000;0.3199;7.3118;
136.8000;0.3223;7.3047;
137.1000;0.3215;7.3071;
137.4000;0.3232;7.3118;
137.7000;0.3207;7.3071;
138.0000;0.3199;7.3071;
138.3000;0.3207;7.3165;
138.6000;0.3191;7.3188;
138.9000;0.3183;7.3141;
139.2000;0.3207;7.3141;
139.5000;0.3215;7.3212;
139.8000;0.3207;7.3165;
140.1000;0.3191;7.3094;
140.4000;0.3215;7.3141;
140.7000;0.3191;7.3141;
141.0000;0.3175;7.3000;
141.3000;0.3223;7.3047;
141.6000;0.3207;7.2953;
141.9000;0.3215;7.2977;
142.2000;0.3158;7.2977;
142.5000;0.3191;7.3071;
142.8000;0.3191;7.3047;
143.1000;0.3175;7.2977;
143.4000;0.3207;7.3094;
143.7000;0.3223;7.3094;
144.0000;0.3191;7.3047;
144.3000;0.3207;7.3071;
144.6000;0.3232;7.3141;
144.9000;0.3215;7.3118;
145.2000;0.3223;7.3047;
145.5000;0.3223;7.3047;
145.8000;0.3232;7.2953;
146.1000;0.3158;7.2836;
146.4000;0.3232;7.3024;
146.7000;0.3199;7.2977;
147.0000;0.3215;7.3141;
147.3000;0.3240;7.3212;
147.6000;0.3207;7.3047;
147.9000;0.3191;7.2977;
148.2000;0.3191;7.2977;
148.5000;0.3175;7.2906;
148.8000;0.3232;7.3094;
149.1000;0.3150;7.2930;
149.4000;0.3199;7.2953;
149.7000;0.3280;7.3188;
150.0000;0.3215;7.3024;
150.3000;0.3248;7.3094;
150.6000;0.3256;7.3118;
150.9000;0.3240;7.3047;
151.2000;0.3280;7.3024;
151.5000;0.3240;7.2883;
151.8000;0.3223;7.2812;
152.1000;0.3215;7.2789;
152.4000;0.3215;7.2812;
152.7000;0.3240;7.2953;
153.0000;0.3232;7.2930;
153.3000;0.3289;7.3024;
153.6000;0.3223;7.2930;
153.9000;0.3215;7.3047;
154.2000;0.3199;7.3047;
154.5000;0.3215;7.3094;
154.8000;0.3215;7.2977;
155.1000;0.3215;7.2883;
155.4000;0.3207;7.2812;
155.7000;0.3223;7.2741;
156.0000;0.3232;7.2741;
156.3000;0.3248;7.2789;
156.6000;0.3240;7.2859;
156.9000;0.3199;7.2859;
157.2000;0.3232;7.2977;
157.5000;0.3256;7.3024;
157.8000;0.3248;7.2953;
158.1000;0.3215;7.3024;
158.4000;0.3207;7.3024;
158.7000;0.3232;7.3071;
159.0000;0.3223;7.3212;
159.3000;0.3199;7.3141;
159.6000;0.3166;7.3047;
159.9000;0.3207;7.3118;
160.2000;0.3223;7.3094;
160.5000;0.3232;7.3071;
160.8000;0.3207;7.3047;
161.1000;0.3232;7.3118;
161.4000;0.3232;7.3118;
161.7000;0.3223;7.3047;
162.0000;0.3207;7.3094;
162.3000;0.3223;7.3165;
162.6000;0.3207;7.3188;
162.9000;0.3215;7.3165;
163.2000;0.3223;7.3165;
163.5000;0.3207;7.3118;
163.8000;0.3223;7.3118;
164.1000;0.3223;7.3094;
164.4000;0.3207;7.3024;
164.7000;0.3199;7.3024;
165.0000;0.3240;7.3094;
165.3000;0.3191;7.3024;
165.6000;0.3223;7.3071;
165.9000;0.3207;7.3118;
166.2000;0.3207;7.3071;
166.5000;0.3199;7.3024;
166.8000;0.3232;7.3024;
167.1000;0.3207;7.3000;
167.4000;0.3199;7.2953;
167.7000;0.3223;7.3000;
168.0000;0.3232;7.3047;
168.3000;0.3215;7.3024;
168.6000;0.3215;7.3047;
168.9000;0.3256;7.3047;
169.2000;0.3207;7.2883;
169.5000;0.3223;7.2977;
169.8000;0.3166;7.2977;
170.1000;0.3232;7.3141;
170.4000;0.3232;7.3118;
170.7000;0.3272;7.3188;
171.0000;0.3158;7.2953;
171.3000;0.3240;7.3165;
171.6000;0.3223;7.3188;
171.9000;0.3215;7.3165;
172.2000;0.3223;7.3118;
172.5000;0.3223;7.3094;
172.8000;0.3207;7.2953;
173.1000;0.3207;7.2977;
173.4000;0.3207;7.2883;
173.7000;0.3183;7.2812;
174.0000;0.3256;7.2953;
174.3000;0.3232;7.2930;
174.6000;0.3223;7.2883;
174.9000;0.3207;7.2883;
175.2000;0.3215;7.2930;
175.5000;0.3232;7.3047;
175.8000;0.3207;7.2930;
176.1000;0.3232;7.3000;
176.4000;0.3240;7.2977;
176.7000;0.3240;7.3000;
177.0000;0.3223;7.3000;
177.3000;0.3232;7.2977;
177.6000;0.3215;7.3024;
177.9000;0.3207;7.2953;
178.2000;0.3232;7.2930;
178.5000;0.3199;7.2836;
178.8000;0.3207;7.2930;
179.1000;0.3215;7.3024;
179.4000;0.3215;7.3094;
179.7000;0.3215;7.3071;
180.0000;0.3264;7.3165;
180.3000;0.3223;7.3141;
180.6000;0.3207;7.3118;
180.9000;0.3207;7.3118;
181.2000;0.3223;7.3118;
181.5000;0.3232;7.3141;
181.8000;0.3240;7.3024;
182.1000;0.3240;7.2977;
182.4000;0.3223;7.2977;
182.7000;0.3232;7.3071;
183.0000;0.3272;7.3235;
183.3000;0.3223;7.3094;
183.6000;0.3240;7.3094;
183.9000;0.3207;7.3047;
184.2000;0.3223;7.2953;
184.5000;0.3232;7.2977;
184.8000;0.3215;7.2859;
185.1000;0.3248;7.2977;
185.4000;0.3248;7.3000;
185.7000;0.3232;7.2953;
186.0000;0.3248;7.2953;
186.3000;0.3223;7.3000;
186.6000;0.3232;7.3000;
186.9000;0.3240;7.3024;
187.2000;0.3240;7.3141;
187.5000;0.3215;7.2977;
187.8000;0.3223;7.3000;
188.1000;0.3232;7.3024;
188.4000;0.3240;7.3071;
188.7000;0.3207;7.3000;
189.0000;0.3232;7.3094;
189.3000;0.3240;7.3141;
189.6000;0.3223;7.3024;
189.9000;0.3199;7.2930;
190.2000;0.3207;7.2953;
190.5000;0.3248;7.3047;
190.8000;0.3223;7.2977;
191.1000;0.3158;7.2953;
191.4000;0.3223;7.3141;
191.7000;0.3207;7.3165;
192.0000;0.3166;7.3071;
192.3000;0.3232;7.3259;
192.6000;0.3240;7.3235;
192.9000;0.3232;7.3282;
193.2000;0.3199;7.3188;
193.5000;0.3215;7.3118;
193.8000;0.3232;7.3071;
194.1000;0.3232;7.3047;
194.4000;0.3232;7.3000;
194.7000;0.3248;7.3024;
195.0000;0.3240;7.3000;
195.3000;0.3232;7.2883;
195.6000;0.3215;7.2906;
195.9000;0.3166;7.2741;
196.2000;0.3215;7.2883;
196.5000;0.3240;7.2930;
196.8000;0.3232;7.2906;
197.1000;0.3215;7.2883;
197.4000;0.3240;7.2906;
197.7000;0.3158;7.2694;
198.0000;0.3199;7.2789;
198.3000;0.3223;7.2836;
198.6000;0.3256;7.2883;
198.9000;0.3232;7.2953;
199.2000;0.3215;7.2836;
199.5000;0.3223;7.2859;
199.8000;0.3232;7.2859;
200.1000;0.3118;7.2600;
200.4000;0.3232;7.2859;
200.7000;0.3248;7.2930;
201.0000;0.3223;7.2836;
201.3000;0.3232;7.2765;
201.6000;0.3232;7.2765;
201.9000;0.3215;7.2741;
202.2000;0.3256;7.2741;
202.5000;0.3256;7.2694;
202.8000;0.3215;7.2694;
203.1000;0.3256;7.2812;
203.4000;0.3248;7.2836;
203.7000;0.3223;7.2765;
204.0000;0.3248;7.2789;
204.3000;0.3215;7.2694;
204.6000;0.3272;7.2859;
204.9000;0.3223;7.2836;
205.2000;0.3240;7.2883;
205.5000;0.3215;7.2812;
205.8000;0.3223;7.2906;
206.1000;0.3240;7.2930;
206.4000;0.3223;7.2930;
206.7000;0.3240;7.2977;
207.0000;0.3289;7.3024;
207.3000;0.3248;7.2977;
207.6000;0.3240;7.2906;
207.9000;0.3232;7.2859;
208.2000;0.3199;7.2765;
208.5000;0.3232;7.2812;
208.8000;0.3232;7.2859;
209.1000;0.3232;7.2977;
209.4000;0.3215;7.2953;
209.7000;0.3223;7.3000;
210.0000;0.3256;7.3094;
210.3000;0.3183;7.2883;
210.6000;0.3240;7.2930;
210.9000;0.3199;7.2741;
211.2000;0.3256;7.2836;
211.5000;0.3248;7.2859;
211.8000;0.3240;7.2836;
212.1000;0.3232;7.2906;
212.4000;0.3232;7.2859;
212.7000;0.3256;7.2977;
213.0000;0.3223;7.3000;
213.3000;0.3232;7.3071;
213.6000;0.3264;7.3188;
213.9000;0.3223;7.3118;
214.2000;0.3183;7.3000;
214.5000;0.3240;7.3118;
214.8000;0.3215;7.3165;
215.1000;0.3223;7.3212;
215.4000;0.3223;7.3188;
215.7000;0.3272;7.3329;
216.0000;0.3223;7.3141;
216.3000;0.3240;7.3118;
216.6000;0.3232;7.3047;
216.9000;0.3240;7.3047;
217.2000;0.3313;7.3282;
217.5000;0.3199;7.3024;
217.8000;0.3256;7.3141;
218.1000;0.3232;7.3094;
218.4000;0.3223;7.3047;
218.7000;0.3232;7.3024;
219.0000;0.3232;7.3071;
219.3000;0.3232;7.3141;
219.6000;0.3223;7.3047;
219.9000;0.3215;7.2953;
220.2000;0.3256;7.3094;
220.5000;0.3232;7.3118;
220.8000;0.3215;7.3024;
221.1000;0.3223;7.3047;
221.4000;0.3215;7.2977;
221.7000;0.3264;7.3118;
222.0000;0.3207;7.2930;
222.3000;0.3199;7.2883;
222.6000;0.3232;7.2859;
222.9000;0.3232;7.2930;
223.2000;0.3329;7.3235;
223.5000;0.3223;7.3047;
223.8000;0.3232;7.3024;
224.1000;0.3272;7.3188;
224.4000;0.3248;7.3118;
224.7000;0.3240;7.3071;
225.0000;0.3256;7.3141;
225.3000;0.3223;7.3118;
225.6000;0.3248;7.3235;
225.9000;0.3248;7.3165;
226.2000;0.3232;7.3141;
226.5000;0.3240;7.3212;
226.8000;0.3232;7.3118;
227.1000;0.3240;7.3188;
227.4000;0.3248;7.3212;
227.7000;0.3240;7.3259;
228.0000;0.3215;7.3188;
228.3000;0.3215;7.3118;
228.6000;0.3248;7.3188;
228.9000;0.3232;7.3259;
229.2000;0.3215;7.3188;
229.5000;0.3232;7.3141;
229.8000;0.3232;7.3165;
230.1000;0.3264;7.3282;
230.4000;0.3191;7.3094;
230.7000;0.3223;7.3235;
231.0000;0.3240;7.3188;
231.3000;0.3248;7.3141;
231.6000;0.3240;7.3094;
231.9000;0.3223;7.3094;
232.2000;0.3248;7.3024;
232.5000;0.3248;7.3118;
232.8000;0.3232;7.3071;
233.1000;0.3223;7.3118;
233.4000;0.3232;7.3094;
233.7000;0.3232;7.3094;
234.0000;0.3232;7.3188;
234.3000;0.3183;7.3118;
234.6000;0.3215;7.3165;
234.9000;0.3223;7.3188;
235.2000;0.3272;7.3235;
235.5000;0.3215;7.3165;
235.8000;0.3272;7.3282;
236.1000;0.3264;7.3306;
236.4000;0.3264;7.3259;
236.7000;0.3248;7.3188;
237.0000;0.3248;7.3212;
237.3000;0.3240;7.3212;
237.6000;0.3248;7.3212;
237.9000;0.3248;7.3235;
238.2000;0.3232;7.3094;
238.5000;0.3207;7.3024;
238.8000;0.3256;7.3165;
239.1000;0.3232;7.3071;
239.4000;0.3248;7.3118;
239.7000;0.3248;7.3165;
240.0000;0.3264;7.3235;
240.3000;0.3240;7.3212;
240.6000;0.3223;7.3165;
240.9000;0.3223;7.3282;
241.2000;0.3264;7.3376;
241.5000;0.3256;7.3235;
241.8000;0.3223;7.3188;
242.1000;0.3191;7.2953;
242.4000;0.3240;7.3000;
242.7000;0.3411;7.3400;
243.0000;0.3207;7.2836;
243.3000;0.3248;7.2906;
243.6000;0.3248;7.2977;
243.9000;0.3240;7.3024;
244.2000;0.3313;7.3212;
244.5000;0.3256;7.3141;
244.8000;0.3240;7.3141;
245.1000;0.3248;7.3212;
245.4000;0.3248;7.3118;
245.7000;0.3199;7.2930;
246.0000;0.3232;7.3094;
246.3000;0.3199;7.2977;
246.6000;0.3248;7.3165;
246.9000;0.3248;7.3188;
247.2000;0.3264;7.3235;
247.5000;0.3248;7.3212;
247.8000;0.3207;7.3165;
248.1000;0.3248;7.3235;
248.4000;0.3248;7.3141;
248.7000;0.3248;7.3165;
249.0000;0.3248;7.3212;
249.3000;0.3232;7.3094;
249.6000;0.3223;7.3000;
249.9000;0.3305;7.3165;
250.2000;0.3232;7.2953;
250.5000;0.3240;7.2953;
250.8000;0.3215;7.3024;
251.1000;0.3256;7.3024;
251.4000;0.3215;7.3000;
251.7000;0.3248;7.3141;
252.0000;0.3232;7.3165;
252.3000;0.3223;7.3047;
252.6000;0.3232;7.3071;
252.9000;0.3240;7.3071;
253.2000;0.3264;7.3141;
253.5000;0.3240;7.3000;
253.8000;0.3232;7.3047;
254.1000;0.3232;7.3071;
254.4000;0.3134;7.2694;
254.7000;0.3232;7.2906;
255.0000;0.3215;7.2977;
255.3000;0.3199;7.2953;
255.6000;0.3232;7.3141;
255.9000;0.3240;7.3212;
256.2000;0.3223;7.3235;
256.5000;0.3248;7.3235;
256.8000;0.3223;7.3165;
257.1000;0.3223;7.3141;
257.4000;0.3240;7.3212;
257.7000;0.3223;7.3188;
258.0000;0.3248;7.3235;
258.3000;0.3240;7.3188;
258.6000;0.3240;7.3306;
258.9000;0.3223;7.3188;
259.2000;0.3256;7.3212;
259.5000;0.3232;7.3212;
259.8000;0.3248;7.3165;
260.1000;0.3223;7.3141;
260.4000;0.3256;7.3259;
260.7000;0.3289;7.3400;
261.0000;0.3232;7.3282;
261.3000;0.3232;7.3282;
261.6000;0.3232;7.3259;
261.9000;0.3256;7.3259;
262.2000;0.3248;7.3188;
262.5000;0.3256;7.3165;
262.8000;0.3183;7.2977;
263.1000;0.3240;7.3094;
263.4000;0.3248;7.3165;
263.7000;0.3215;7.3094;
264.0000;0.3248;7.3141;
264.3000;0.3248;7.3118;
264.6000;0.3280;7.3141;
264.9000;0.3248;7.3118;
265.2000;0.3264;7.3141;
265.5000;0.3191;7.2977;
265.8000;0.3248;7.3165;
266.1000;0.3191;7.3047;
266.4000;0.3232;7.3188;
266.7000;0.3215;7.3071;
267.0000;0.3232;7.3071;
267.3000;0.3256;7.3118;
267.6000;0.3223;7.3024;
267.9000;0.3240;7.3024;
268.2000;0.3232;7.3047;
268.5000;0.3232;7.3094;
268.8000;0.3248;7.3165;
269.1000;0.3191;7.3118;
269.4000;0.3256;7.3282;
269.7000;0.3240;7.3376;
270.0000;0.3240;7.3329;
270.3000;0.3313;7.3541;
270.6000;0.3223;7.3376;
270.9000;0.3232;7.3306;
271.2000;0.3240;7.3306;
271.5000;0.3240;7.3259;
271.8000;0.3272;7.3329;
272.1000;0.3297;7.3424;
272.4000;0.3232;7.3259;
272.7000;0.3240;7.3282;
273.0000;0.3215;7.3282;
273.3000;0.3264;7.3329;
273.6000;0.3240;7.3212;
273.9000;0.3240;7.3235;
274.2000;0.3248;7.3235;
274.5000;0.3256;7.3306;
274.8000;0.3240;7.3259;
275.1000;0.3232;7.3235;
275.4000;0.3223;7.3212;
275.7000;0.3191;7.3188;
276.0000;0.3248;7.3259;
276.3000;0.3256;7.3235;
276.6000;0.3199;7.3118;
276.9000;0.3264;7.3212;
277.2000;0.3264;7.3306;
277.5000;0.3248;7.3259;
277.8000;0.3248;7.3235;
278.1000;0.3264;7.3165;
278.4000;0.3272;7.3141;
278.7000;0.3240;7.3094;
279.0000;0.3256;7.3118;
279.3000;0.3248;7.3212;
279.6000;0.3223;7.3188;
279.9000;0.3280;7.3424;
280.2000;0.3240;7.3259;
280.5000;0.3240;7.3212;
280.8000;0.3232;7.3212;
281.1000;0.3248;7.3188;
281.4000;0.3183;7.3024;
281.7000;0.3215;7.3071;
282.0000;0.3248;7.3024;
282.3000;0.3329;7.3212;
282.6000;0.3264;7.3118;
282.9000;0.3199;7.2953;
283.2000;0.3280;7.3212;
283.5000;0.3240;7.3118;
283.8000;0.3256;7.3000;
284.1000;0.3313;7.3212;
284.4000;0.3240;7.3000;
284.7000;0.3248;7.3071;
285.0000;0.3232;7.3094;
285.3000;0.3223;7.3024;
285.6000;0.3175;7.2883;
285.9000;0.3248;7.2930;
286.2000;0.3223;7.2883;
286.5000;0.3215;7.2859;
286.8000;0.3232;7.2859;
287.1000;0.3240;7.2859;
287.4000;0.3248;7.2812;
287.7000;0.3289;7.2812;
288.0000;0.3248;7.2741;
288.3000;0.3223;7.2789;
288.6000;0.3240;7.2859;
288.9000;0.3215;7.2718;
289.2000;0.3248;7.2859;
289.5000;0.3329;7.3212;
289.8000;0.3232;7.2977;
290.1000;0.3248;7.2930;
290.4000;0.3232;7.2883;
290.7000;0.3240;7.2953;
291.0000;0.3248;7.3000;
291.3000;0.3240;7.3047;
291.6000;0.3240;7.2977;
291.9000;0.3256;7.2953;
292.2000;0.3272;7.3000;
292.5000;0.3256;7.3047;
292.8000;0.3240;7.3047;
293.1000;0.3240;7.3071;
293.4000;0.3240;7.3094;
293.7000;0.3240;7.3165;
294.0000;0.3215;7.3165;
294.3000;0.3232;7.3188;
294.6000;0.3223;7.3259;
294.9000;0.3240;7.3259;
295.2000;0.3240;7.3212;
295.5000;0.3240;7.3118;
295.8000;0.3223;7.3071;
296.1000;0.3240;7.3094;
296.4000;0.3223;7.3071;
296.7000;0.3223;7.3071;
297.0000;0.3232;7.3141;
297.3000;0.3240;7.3235;
297.6000;0.3240;7.3235;
297.9000;0.3232;7.3212;
298.2000;0.3232;7.3188;
298.5000;0.3215;7.3165;
298.8000;0.3256;7.3212;
299.1000;0.3248;7.3141;
299.4000;0.3215;7.3165;
299.7000;0.3232;7.3212;
300.0000;0.3199;7.3141;
300.3000;0.3223;7.3259;
300.6000;0.3248;7.3282;
300.9000;0.3232;7.3212;
301.2000;0.3240;7.3165;
301.5000;0.3240;7.3165;
301.8000;0.3223;7.3165;
302.1000;0.3150;7.2930;
302.4000;0.3313;7.3235;
302.7000;0.3240;7.3071;
303.0000;0.3256;7.3118;
303.3000;0.3240;7.3094;
303.6000;0.3280;7.3165;
303.9000;0.3248;7.3141;
304.2000;0.3223;7.3071;
304.5000;0.3248;7.3094;
304.8000;0.3232;7.3094;
305.1000;0.3232;7.3094;
305.4000;0.3199;7.3024;
305.7000;0.3223;7.3071;
306.0000;0.3207;7.2977;
306.3000;0.3240;7.3024;
306.6000;0.3248;7.3000;
306.9000;0.3223;7.3024;
307.2000;0.3232;7.3047;
307.5000;0.3248;7.3071;
307.8000;0.3297;7.3118;
308.1000;0.3264;7.3047;
308.4000;0.3215;7.3000;
308.7000;0.3256;7.3118;
309.0000;0.3232;7.3165;
309.3000;0.3337;7.3494;
309.6000;0.3232;7.3259;
309.9000;0.3207;7.3141;
310.2000;0.3240;7.3259;
310.5000;0.3248;7.3235;
310.8000;0.3248;7.3282;
311.1000;0.3248;7.3212;
311.4000;0.3264;7.3141;
311.7000;0.3158;7.2859;
312.0000;0.3248;7.3071;
312.3000;0.3289;7.3118;
312.6000;0.3232;7.3000;
312.9000;0.3248;7.3047;
313.2000;0.3240;7.3047;
313.5000;0.3248;7.3024;
313.8000;0.3248;7.3024;
314.1000;0.3248;7.3024;
314.4000;0.3240;7.2977;
314.7000;0.3264;7.3141;
315.0000;0.3337;7.3329;
315.3000;0.3191;7.2930;
315.6000;0.3248;7.3024;
315.9000;0.3305;7.3212;
316.2000;0.3223;7.3047;
316.5000;0.3248;7.3118;
316.8000;0.3256;7.3094;
317.1000;0.3240;7.3071;
317.4000;0.3199;7.2977;
317.7000;0.3248;7.3071;
318.0000;0.3215;7.3094;
318.3000;0.3248;7.3118;
318.6000;0.3240;7.3094;
318.9000;0.3240;7.3024;
319.2000;0.3256;7.3165;
319.5000;0.3240;7.3141;
319.8000;0.3232;7.3141;
320.1000;0.3232;7.3047;
320.4000;0.3232;7.3071;
320.7000;0.3248;7.3188;
321.0000;0.3232;7.3259;
321.3000;0.3248;7.3188;
321.6000;0.3329;7.3306;
321.9000;0.3248;7.3071;
322.2000;0.3256;7.3000;
322.5000;0.3248;7.2977;
322.8000;0.3256;7.3024;
323.1000;0.3240;7.2977;
323.4000;0.3240;7.2953;
323.7000;0.3223;7.2953;
324.0000;0.3240;7.2930;
324.3000;0.3248;7.2930;
324.6000;0.3240;7.2906;
324.9000;0.3240;7.2859;
325.2000;0.3215;7.2836;
325.5000;0.3240;7.2883;
325.8000;0.3207;7.2812;
326.1000;0.3215;7.2883;
326.4000;0.3248;7.2859;
326.7000;0.3232;7.2741;
327.0000;0.3264;7.2859;
327.3000;0.3240;7.2765;
327.6000;0.3240;7.2883;
327.9000;0.3272;7.3024;
328.2000;0.3248;7.2859;
328.5000;0.3240;7.2906;
328.8000;0.3240;7.2836;
329.1000;0.3223;7.2836;
329.4000;0.3240;7.2930;
329.7000;0.3232;7.2883;
330.0000;0.3232;7.2859;
330.3000;0.3346;7.3118;
330.6000;0.3232;7.2859;
330.9000;0.3215;7.2883;
331.2000;0.3199;7.2789;
331.5000;0.3223;7.2765;
331.8000;0.3256;7.2859;
332.1000;0.3248;7.2883;
332.4000;0.3248;7.2859;
332.7000;0.3240;7.2953;
333.0000;0.3248;7.3047;
333.3000;0.3272;7.3141;
333.6000;0.3232;7.3071;
333.9000;0.3248;7.3071;
334.2000;0.3256;7.3188;
334.5000;0.3199;7.2977;
334.8000;0.3191;7.2953;
335.1000;0.3183;7.2859;
335.4000;0.3232;7.2859;
335.7000;0.3264;7.3000;
336.0000;0.3248;7.2953;
336.3000;0.3223;7.2977;
336.6000;0.3272;7.3141;
336.9000;0.3256;7.3024;
337.2000;0.3297;7.3024;
337.5000;0.3248;7.2977;
337.8000;0.3305;7.3212;
338.1000;0.3223;7.2906;
338.4000;0.3248;7.3000;
338.7000;0.3256;7.3047;
339.0000;0.3240;7.3000;
339.3000;0.3191;7.2883;
339.6000;0.3240;7.3047;
339.9000;0.3199;7.2953;
340.2000;0.3191;7.2906;
340.5000;0.3232;7.3024;
340.8000;0.3264;7.3259;
341.1000;0.3248;7.3212;
341.4000;0.3248;7.3141;
341.7000;0.3248;7.3118;
342.0000;0.3223;7.3024;
342.3000;0.3215;7.3000;
342.6000;0.3272;7.3188;
342.9000;0.3240;7.3094;
343.2000;0.3280;7.3141;
343.5000;0.3264;7.3141;
343.8000;0.3256;7.3165;
344.1000;0.3142;7.2930;
344.4000;0.3240;7.3235;
344.7000;0.3248;7.3282;
345.0000;0.3223;7.3118;
345.3000;0.3223;7.3141;
345.6000;0.3232;7.3141;
345.9000;0.3248;7.3141;
346.2000;0.3232;7.3118;
346.5000;0.3191;7.3047;
346.8000;0.3232;7.3047;
347.1000;0.3240;7.3047;
347.4000;0.3248;7.3071;
347.7000;0.3256;7.3141;
348.0000;0.3264;7.3141;
348.3000;0.3256;7.3118;
348.6000;0.3313;7.3235;
348.9000;0.3232;7.2883;
349.2000;0.3264;7.2953;
349.5000;0.3264;7.2953;
349.8000;0.3248;7.3047;
350.1000;0.3264;7.3024;
350.4000;0.3215;7.2930;
350.7000;0.3240;7.2906;
351.0000;0.3240;7.2883;
351.3000;0.3248;7.2859;
351.6000;0.3289;7.2930;
351.9000;0.3256;7.2930;
352.2000;0.3280;7.2977;
352.5000;0.3240;7.2977;
352.8000;0.3240;7.3000;
353.1000;0.3232;7.3071;
353.4000;0.3248;7.3188;
353.7000;0.3264;7.3259;
354.0000;0.3321;7.3329;
354.3000;0.3329;7.3329;
354.6000;0.3272;7.3141;
354.9000;0.3264;7.3141;
355.2000;0.3264;7.3094;
355.5000;0.3272;7.3094;
355.8000;0.3248;7.3000;
356.1000;0.3175;7.2930;
356.4000;0.3215;7.3024;
356.7000;0.3248;7.3071;
357.0000;0.3256;7.3000;
357.3000;0.3289;7.3071;
357.6000;0.3297;7.3071;
357.9000;0.3207;7.2930;
358.2000;0.3240;7.3118;
358.5000;0.3256;7.3165;
358.8000;0.3240;7.3165;
359.1000;0.3248;7.3188;
359.4000;0.3240;7.3165;
359.7000;0.3240;7.3141;
360.0000;0.3240;7.3165;
360.3000;0.3232;7.3165;
360.6000;0.3362;7.3400;
360.9000;0.3280;7.3165;
361.2000;0.3215;7.2953;
361.5000;0.3232;7.3094;
361.8000;0.3191;7.2977;
362.1000;0.3321;7.3400;
362.4000;0.3256;7.3306;
362.7000;0.3207;7.3118;
363.0000;0.3223;7.3118;
363.3000;0.3232;7.3165;
363.6000;0.3248;7.3141;
363.9000;0.3240;7.3118;
364.2000;0.3264;7.3165;
364.5000;0.3248;7.3094;
364.8000;0.3256;7.3141;
365.1000;0.3256;7.3165;
365.4000;0.3256;7.3165;
365.7000;0.3248;7.3118;
366.0000;0.3256;7.3212;
366.3000;0.3256;7.3212;
366.6000;0.3248;7.3094;
366.9000;0.3272;7.3118;
367.2000;0.3240;7.2930;
367.5000;0.3256;7.2906;
367.8000;0.3264;7.3000;
368.1000;0.3232;7.2977;
368.4000;0.3264;7.3071;
368.7000;0.3264;7.3071;
369.0000;0.3248;7.2977;
369.3000;0.3256;7.3024;
369.6000;0.3232;7.3024;
369.9000;0.3240;7.3047;
370.2000;0.3248;7.3000;
370.5000;0.3232;7.2883;
370.8000;0.3240;7.2883;
371.1000;0.3264;7.2977;
371.4000;0.3223;7.2883;
371.7000;0.3240;7.3024;
372.0000;0.3207;7.2883;
372.3000;0.3256;7.3000;
372.6000;0.3232;7.2930;
372.9000;0.3240;7.2930;
373.2000;0.3248;7.2953;
373.5000;0.3223;7.2930;
373.8000;0.3240;7.3000;
374.1000;0.3232;7.3000;
374.4000;0.3232;7.3047;
374.7000;0.3248;7.3141;
375.0000;0.3215;7.3071;
375.3000;0.3232;7.3188;
375.6000;0.3232;7.3165;
375.9000;0.3248;7.3141;
376.2000;0.3272;7.3235;
376.5000;0.3256;7.3047;
376.8000;0.3240;7.3047;
377.1000;0.3240;7.3118;
377.4000;0.3223;7.3071;
377.7000;0.3232;7.3094;
378.0000;0.3272;7.3212;
378.3000;0.3223;7.3118;
378.6000;0.3215;7.3118;
378.9000;0.3175;7.2930;
379.2000;0.3321;7.3235;
379.5000;0.3248;7.3094;
379.8000;0.3240;7.3094;
380.1000;0.3248;7.3141;
380.4000;0.3240;7.3188;
380.7000;0.3280;7.3306;
381.0000;0.3248;7.3188;
381.3000;0.3256;7.3235;
381.6000;0.3248;7.3235;
381.9000;0.3215;7.3118;
382.2000;0.3248;7.3141;
382.5000;0.3240;7.3071;
382.8000;0.3264;7.3165;
383.1000;0.3256;7.3141;
383.4000;0.3248;7.3024;
383.7000;0.3248;7.3071;
384.0000;0.3248;7.3094;
384.3000;0.3248;7.3071;
384.6000;0.3248;7.3024;
384.9000;0.3248;7.3118;
385.2000;0.3264;7.3071;
385.5000;0.3240;7.3000;
385.8000;0.3240;7.3047;
386.1000;0.3248;7.3024;
386.4000;0.3199;7.2906;
386.7000;0.3240;7.2930;
387.0000;0.3240;7.2977;
387.3000;0.3232;7.3024;
387.6000;0.3240;7.3118;
387.9000;0.3240;7.3259;
388.2000;0.3232;7.3329;
388.5000;0.3223;7.3259;
388.8000;0.3240;7.3282;
389.1000;0.3240;7.3329;
389.4000;0.3215;7.3188;
389.7000;0.3207;7.3141;
390.0000;0.3264;7.3212;
390.3000;0.3248;7.3118;
390.6000;0.3248;7.3212;
390.9000;0.3240;7.3235;
391.2000;0.3248;7.3188;
391.5000;0.3248;7.3188;
391.8000;0.3232;7.3165;
392.1000;0.3232;7.3235;
392.4000;0.3223;7.3165;
392.7000;0.3232;7.3165;
393.0000;0.3264;7.3188;
393.3000;0.3264;7.3118;
393.6000;0.3191;7.2883;
393.9000;0.3280;7.3000;
394.2000;0.3256;7.2930;
394.5000;0.3256;7.2883;
394.8000;0.3191;7.2789;
395.1000;0.3232;7.2977;
395.4000;0.3280;7.3165;
395.7000;0.3256;7.3165;
396.0000;0.3256;7.3141;
396.3000;0.3248;7.3118;
396.6000;0.3256;7.3141;
396.9000;0.3272;7.3094;
397.2000;0.3256;7.3118;
397.5000;0.3256;7.3094;
397.8000;0.3232;7.2953;
398.1000;0.3240;7.2977;
398.4000;0.3248;7.3094;
398.7000;0.3264;7.3141;
399.0000;0.3256;7.3165;
399.3000;0.3264;7.3141;
399.6000;0.3240;7.3024;
399.9000;0.3232;7.3047;
400.2000;0.3232;7.3047;
400.5000;0.3240;7.3024;
400.8000;0.3150;7.2883;
401.1000;0.3264;7.3235;
401.4000;0.3232;7.3047;
401.7000;0.3280;7.3047;
402.0000;0.3289;7.3071;
402.3000;0.3240;7.3024;
402.6000;0.3232;7.3024;
402.9000;0.3248;7.3094;
403.2000;0.3264;7.3259;
403.5000;0.3256;7.3353;
403.8000;0.3248;7.3235;
404.1000;0.3232;7.3165;
404.4000;0.3215;7.3118;
404.7000;0.3248;7.3118;
405.0000;0.3256;7.3141;
405.3000;0.3232;7.3094;
405.6000;0.3248;7.3094;
405.9000;0.3232;7.3047;
406.2000;0.3248;7.3094;
406.5000;0.3248;7.3165;
406.8000;0.3256;7.3212;
407.1000;0.3240;7.3212;
407.4000;0.3248;7.3235;
407.7000;0.3207;7.3141;
408.0000;0.3256;7.3141;
408.3000;0.3329;7.3306;
408.6000;0.3240;7.3047;
408.9000;0.3199;7.3000;
409.2000;0.3256;7.3071;
409.5000;0.3240;7.3094;
409.8000;0.3240;7.3047;
410.1000;0.3223;7.3024;
410.4000;0.3223;7.3000;
410.7000;0.3240;7.3071;
411.0000;0.3223;7.3141;
411.3000;0.3232;7.3141;
411.6000;0.3191;7.3118;
411.9000;0.3240;7.3212;
412.2000;0.3240;7.3259;
412.5000;0.3256;7.3212;
412.8000;0.3232;7.3118;
413.1000;0.3240;7.3071;
413.4000;0.3223;7.3047;
413.7000;0.3240;7.3141;
414.0000;0.3207;7.3094;
414.3000;0.3248;7.3212;
414.6000;0.3191;7.3071;
414.9000;0.3264;7.3306;
415.2000;0.3240;7.3165;
415.5000;0.3240;7.3212;
415.8000;0.3240;7.3282;
416.1000;0.3256;7.3282;
416.4000;0.3142;7.3024;
416.7000;0.3248;7.3259;
417.0000;0.3248;7.3165;
417.3000;0.3248;7.3165;
417.6000;0.3248;7.3165;
417.9000;0.3240;7.3141;
418.2000;0.3240;7.3118;
418.5000;0.3215;7.3047;
418.8000;0.3223;7.3000;
419.1000;0.3354;7.3212;
419.4000;0.3248;7.2953;
419.7000;0.3240;7.3000;
420.0000;0.3223;7.3024;
420.3000;0.3199;7.2953;
420.6000;0.3248;7.3071;
420.9000;0.3223;7.3071;
421.2000;0.3207;7.3071;
421.5000;0.3240;7.3118;
421.8000;0.3223;7.3188;
422.1000;0.3248;7.3259;
422.4000;0.3240;7.3306;
422.7000;0.3240;7.3259;
423.0000;0.3223;7.3118;
423.3000;0.3248;7.3118;
423.6000;0.3223;7.3024;
423.9000;0.3215;7.2977;
424.2000;0.3223;7.3047;
424.5000;0.3215;7.3071;
424.8000;0.3240;7.3118;
425.1000;0.3207;7.3024;
425.4000;0.3305;7.3259;
425.7000;0.3223;7.2977;
426.0000;0.3305;7.3212;
426.3000;0.3223;7.3024;
426.6000;0.3256;7.3141;
426.9000;0.3256;7.3118;
427.2000;0.3264;7.3141;
427.5000;0.3248;7.3165;
427.8000;0.3232;7.3141;
428.1000;0.3264;7.3259;
428.4000;0.3256;7.3188;
428.7000;0.3232;7.3094;
429.0000;0.3191;7.2953;
429.3000;0.3232;7.3071;
429.6000;0.3232;7.3118;
429.9000;0.3256;7.3212;
430.2000;0.3272;7.3353;
430.5000;0.3280;7.3329;
430.8000;0.3240;7.3235;
431.1000;0.3134;7.3000;
431.4000;0.3248;7.3235;
431.7000;0.3264;7.3282;
432.0000;0.3215;7.3165;
432.3000;0.3256;7.3353;
432.6000;0.3215;7.3282;
432.9000;0.3223;7.3329;
433.2000;0.3134;7.3071;
433.5000;0.3240;7.3329;
433.8000;0.3240;7.3306;
434.1000;0.3256;7.3376;
434.4000;0.3215;7.3353;
434.7000;0.3223;7.3306;
435.0000;0.3240;7.3376;
435.3000;0.3248;7.3329;
435.6000;0.3232;7.3259;
435.9000;0.3248;7.3329;
436.2000;0.3240;7.3188;
436.5000;0.3280;7.3212;
436.8000;0.3272;7.3212;
437.1000;0.3240;7.3094;
437.4000;0.3264;7.3212;
437.7000;0.3240;7.3188;
438.0000;0.3240;7.3212;
438.3000;0.3240;7.3235;
438.6000;0.3248;7.3259;
438.9000;0.3248;7.3235;
439.2000;0.3248;7.3259;
439.5000;0.3313;7.3400;
439.8000;0.3240;7.3353;
440.1000;0.3256;7.3447;
440.4000;0.3191;7.3329;
440.7000;0.3232;7.3376;
441.0000;0.3248;7.3353;
441.3000;0.3240;7.3259;
441.6000;0.3232;7.3212;
441.9000;0.3232;7.3259;
442.2000;0.3215;7.3212;
442.5000;0.3232;7.3306;
442.8000;0.3215;7.3165;
443.1000;0.3248;7.3259;
443.4000;0.3223;7.3212;
443.7000;0.3240;7.3329;
444.0000;0.3248;7.3353;
444.3000;0.3248;7.3235;
444.6000;0.3264;7.3259;
444.9000;0.3240;7.3235;
445.2000;0.3272;7.3306;
445.5000;0.3248;7.3212;
445.8000;0.3240;7.3212;
446.1000;0.3305;7.3400;
446.4000;0.3232;7.3188;
446.7000;0.3223;7.3212;
447.0000;0.3272;7.3329;
447.3000;0.3232;7.3235;
447.6000;0.3191;7.3259;
447.9000;0.3232;7.3424;
448.2000;0.3256;7.3400;
448.5000;0.3240;7.3306;
448.8000;0.3256;7.3329;
449.1000;0.3272;7.3376;
449.4000;0.3264;7.3353;
449.7000;0.3215;7.3306;
450.0000;0.3232;7.3376;
450.3000;0.3240;7.3447;
450.6000;0.3264;7.3612;
450.9000;0.3183;7.3400;
451.2000;0.3256;7.3588;
451.5000;0.3223;7.3494;
451.8000;0.3199;7.3494;
452.1000;0.3215;7.3471;
452.4000;0.3223;7.3376;
452.7000;0.3183;7.3259;
453.0000;0.3256;7.3306;
453.3000;0.3264;7.3306;
453.6000;0.3240;7.3306;
453.9000;0.3240;7.3235;
454.2000;0.3280;7.3353;
454.5000;0.3248;7.3259;
454.8000;0.3223;7.3306;
455.1000;0.3232;7.3424;
455.4000;0.3215;7.3424;
455.7000;0.3215;7.3424;
456.0000;0.3232;7.3424;
456.3000;0.3207;7.3282;
456.6000;0.3223;7.3282;
456.9000;0.3183;7.3165;
457.2000;0.3272;7.3353;
457.5000;0.3256;7.3188;
457.8000;0.3256;7.3259;
458.1000;0.3240;7.3188;
458.4000;0.3232;7.3188;
458.7000;0.3248;7.3165;
459.0000;0.3248;7.3259;
459.3000;0.3240;7.3188;
459.6000;0.3223;7.3212;
459.9000;0.3240;7.3165;
460.2000;0.3232;7.3188;
460.5000;0.3223;7.3188;
460.8000;0.3240;7.3235;
461.1000;0.3240;7.3282;
461.4000;0.3232;7.3282;
461.7000;0.3240;7.3282;
462.0000;0.3232;7.3282;
462.3000;0.3240;7.3259;
462.6000;0.3223;7.3235;
462.9000;0.3248;7.3235;
463.2000;0.3232;7.3353;
463.5000;0.3215;7.3471;
463.8000;0.3256;7.3612;
464.1000;0.3223;7.3635;
464.4000;0.3232;7.3494;
464.7000;0.3223;7.3424;
465.0000;0.3240;7.3353;
465.3000;0.3223;7.3282;
465.6000;0.3232;7.3376;
465.9000;0.3223;7.3400;
466.2000;0.3264;7.3424;
466.5000;0.3240;7.3494;
466.8000;0.3240;7.3400;
467.1000;0.3183;7.3282;
467.4000;0.3215;7.3306;
467.7000;0.3232;7.3235;
468.0000;0.3223;7.3259;
468.3000;0.3256;7.3259;
468.6000;0.3232;7.3259;
468.9000;0.3223;7.3282;
469.2000;0.3199;7.3188;
469.5000;0.3223;7.3306;
469.8000;0.3240;7.3518;
470.1000;0.3183;7.3400;
470.4000;0.3272;7.3659;
470.7000;0.3215;7.3471;
471.0000;0.3232;7.3424;
471.3000;0.3215;7.3518;
471.6000;0.3289;7.3729;
471.9000;0.3215;7.3565;
472.2000;0.3183;7.3471;
472.5000;0.3223;7.3518;
472.8000;0.3248;7.3612;
473.1000;0.3232;7.3518;
473.4000;0.3240;7.3541;
473.7000;0.3248;7.3706;
474.0000;0.3232;7.3659;
474.3000;0.3248;7.3659;
474.6000;0.3232;7.3612;
474.9000;0.3223;7.3565;
475.2000;0.3264;7.3541;
475.5000;0.3240;7.3471;
475.8000;0.3240;7.3471;
476.1000;0.3240;7.3471;
476.4000;0.3248;7.3424;
476.7000;0.3248;7.3400;
477.0000;0.3232;7.3353;
477.3000;0.3240;7.3400;
477.6000;0.3280;7.3424;
477.9000;0.3256;7.3400;
478.2000;0.3272;7.3447;
478.5000;0.3240;7.3329;
478.8000;0.3248;7.3329;
479.1000;0.3256;7.3282;
479.4000;0.3272;7.3306;
479.7000;0.3256;7.3212;
480.0000;0.3240;7.3141;
480.3000;0.3256;7.3118;
480.6000;0.3232;7.3141;
480.9000;0.3264;7.3188;
481.2000;0.3223;7.3141;
481.5000;0.3223;7.3212;
481.8000;0.3215;7.3235;
482.1000;0.3232;7.3141;
482.4000;0.3199;7.3047;
482.7000;0.3232;7.3141;
483.0000;0.3223;7.3165;
483.3000;0.3232;7.3165;
483.6000;0.3223;7.3212;
483.9000;0.3199;7.3141;
484.2000;0.3223;7.3165;
484.5000;0.3191;7.3094;
484.8000;0.3223;7.3306;
485.1000;0.3240;7.3353;
485.4000;0.3223;7.3282;
485.7000;0.3240;7.3376;
486.0000;0.3223;7.3376;
486.3000;0.3223;7.3353;
486.6000;0.3232;7.3353;
486.9000;0.3289;7.3471;
487.2000;0.3215;7.3424;
487.5000;0.3240;7.3518;
487.8000;0.3248;7.3424;
488.1000;0.3248;7.3424;
488.4000;0.3240;7.3400;
488.7000;0.3256;7.3306;
489.0000;0.3207;7.3259;
489.3000;0.3223;7.3188;
489.6000;0.3264;7.3282;
489.9000;0.3232;7.3329;
490.2000;0.3248;7.3400;
490.5000;0.3248;7.3376;
490.8000;0.3256;7.3400;
491.1000;0.3183;7.3282;
491.4000;0.3199;7.3282;
491.7000;0.3215;7.3329;
492.0000;0.3256;7.3306;
492.3000;0.3256;7.3329;
492.6000;0.3248;7.3259;
492.9000;0.3223;7.3141;
493.2000;0.3232;7.3094;
493.5000;0.3240;7.3118;
493.8000;0.3240;7.3141;
494.1000;0.3232;7.3235;
494.4000;0.3158;7.3024;
494.7000;0.3232;7.3282;
495.0000;0.3191;7.3259;
495.3000;0.3297;7.3518;
495.6000;0.3207;7.3329;
495.9000;0.3264;7.3471;
496.2000;0.3223;7.3424;
496.5000;0.3232;7.3306;
496.8000;0.3232;7.3259;
497.1000;0.3223;7.3259;
497.4000;0.3232;7.3282;
497.7000;0.3223;7.3353;
498.0000;0.3223;7.3353;
498.3000;0.3232;7.3400;
498.6000;0.3223;7.3424;
498.9000;0.3256;7.3471;
499.2000;0.3215;7.3329;
499.5000;0.3215;7.3353;
499.8000;0.3240;7.3353;
500.1000;0.3240;7.3353;
500.4000;0.3248;7.3376;
500.7000;0.3248;7.3353;
501.0000;0.3240;7.3400;
501.3000;0.3215;7.3424;
501.6000;0.3215;7.3400;
501.9000;0.3175;7.3259;
502.2000;0.3223;7.3306;
502.5000;0.3248;7.3282;
502.8000;0.3223;7.3259;
503.1000;0.3223;7.3306;
503.4000;0.3240;7.3329;
503.7000;0.3248;7.3400;
504.0000;0.3232;7.3353;
504.3000;0.3240;7.3329;
504.6000;0.3248;7.3235;
504.9000;0.3240;7.3235;
505.2000;0.3240;7.3118;
505.5000;0.3223;7.3141;
505.8000;0.3232;7.3141;
506.1000;0.3215;7.3118;
506.4000;0.3264;7.3306;
506.7000;0.3223;7.3212;
507.0000;0.3199;7.3212;
507.3000;0.3248;7.3353;
507.6000;0.3207;7.3306;
507.9000;0.3223;7.3306;
508.2000;0.3248;7.3376;
508.5000;0.3264;7.3447;
508.8000;0.3207;7.3329;
509.1000;0.3232;7.3329;
509.4000;0.3199;7.3329;
509.7000;0.3232;7.3329;
510.0000;0.3248;7.3494;
510.3000;0.3215;7.3424;
510.6000;0.3223;7.3353;
510.9000;0.3215;7.3259;
511.2000;0.3215;7.3235;
511.5000;0.3264;7.3282;
511.8000;0.3215;7.3235;
512.1000;0.3232;7.3212;
512.4000;0.3264;7.3329;
512.7000;0.3232;7.3235;
513.0000;0.3264;7.3282;
513.3000;0.3232;7.3188;
513.6000;0.3248;7.3282;
513.9000;0.3256;7.3282;
514.2000;0.3207;7.3282;
514.5000;0.3248;7.3376;
514.8000;0.3256;7.3376;
515.1000;0.3248;7.3329;
515.4000;0.3248;7.3353;
515.7000;0.3248;7.3282;
516.0000;0.3240;7.3282;
516.3000;0.3256;7.3259;
516.6000;0.3240;7.3259;
516.9000;0.3215;7.3188;
517.2000;0.3183;7.3094;
517.5000;0.3248;7.3282;
517.8000;0.3207;7.3306;
518.1000;0.3248;7.3447;
518.4000;0.3232;7.3400;
518.7000;0.3248;7.3447;
519.0000;0.3297;7.3518;
519.3000;0.3142;7.3212;
519.6000;0.3240;7.3447;
519.9000;0.3256;7.3494;
520.2000;0.3232;7.3541;
520.5000;0.3256;7.3612;
520.8000;0.3215;7.3447;
521.1000;0.3183;7.3306;
521.4000;0.3223;7.3329;
521.7000;0.3215;7.3282;
522.0000;0.3232;7.3329;
522.3000;0.3215;7.3282;
522.6000;0.3232;7.3259;
522.9000;0.3199;7.3212;
523.2000;0.3223;7.3306;
523.5000;0.3240;7.3306;
523.8000;0.3240;7.3306;
524.1000;0.3240;7.3329;
524.4000;0.3248;7.3353;
524.7000;0.3223;7.3282;
525.0000;0.3150;7.3141;
525.3000;0.3240;7.3329;
525.6000;0.3232;7.3353;
525.9000;0.3232;7.3424;
526.2000;0.3240;7.3424;
526.5000;0.3223;7.3400;
526.8000;0.3207;7.3259;
527.1000;0.3256;7.3329;
527.4000;0.3223;7.3141;
527.7000;0.3297;7.3353;
528.0000;0.3248;7.3376;
528.3000;0.3240;7.3494;
528.6000;0.3240;7.3518;
528.9000;0.3175;7.3424;
529.2000;0.3248;7.3518;
529.5000;0.3272;7.3612;
529.8000;0.3232;7.3565;
530.1000;0.3232;7.3635;
530.4000;0.3240;7.3588;
530.7000;0.3240;7.3659;
531.0000;0.3232;7.3541;
531.3000;0.3232;7.3518;
531.6000;0.3280;7.3635;
531.9000;0.3240;7.3518;
532.2000;0.3215;7.3376;
532.5000;0.3223;7.3471;
532.8000;0.3264;7.3494;
533.1000;0.3232;7.3400;
533.4000;0.3223;7.3494;
533.7000;0.3240;7.3541;
534.0000;0.3248;7.3541;
534.3000;0.3240;7.3518;
534.6000;0.3207;7.3376;
534.9000;0.3223;7.3353;
535.2000;0.3232;7.3329;
535.5000;0.3240;7.3400;
535.8000;0.3248;7.3400;
536.1000;0.3223;7.3376;
536.4000;0.3232;7.3424;
536.7000;0.3158;7.3141;
537.0000;0.3232;7.3353;
537.3000;0.3232;7.3329;
537.6000;0.3240;7.3306;
537.9000;0.3232;7.3259;
538.2000;0.3232;7.3235;
538.5000;0.3256;7.3235;
538.8000;0.3272;7.3306;
539.1000;0.3248;7.3306;
539.4000;0.3207;7.3235;
539.7000;0.3248;7.3306;
540.0000;0.3232;7.3400;
540.3000;0.3305;7.3612;
540.6000;0.3256;7.3494;
540.9000;0.3240;7.3447;
541.2000;0.3166;7.3259;
541.5000;0.3248;7.3400;
541.8000;0.3248;7.3376;
542.1000;0.3175;7.3282;
542.4000;0.3223;7.3353;
542.7000;0.3248;7.3447;
543.0000;0.3240;7.3471;
543.3000;0.3240;7.3353;
543.6000;0.3289;7.3376;
543.9000;0.3248;7.3306;
544.2000;0.3313;7.3518;
544.5000;0.3289;7.3447;
544.8000;0.3232;7.3306;
545.1000;0.3248;7.3282;
545.4000;0.3256;7.3235;
545.7000;0.3248;7.3212;
546.0000;0.3232;7.3165;
546.3000;0.3232;7.3212;
546.6000;0.3240;7.3259;
546.9000;0.3215;7.3212;
547.2000;0.3248;7.3306;
547.5000;0.3256;7.3353;
547.8000;0.3223;7.3306;
548.1000;0.3223;7.3424;
548.4000;0.3223;7.3376;
548.7000;0.3215;7.3447;
549.0000;0.3191;7.3306;
549.3000;0.3248;7.3424;
549.6000;0.3215;7.3400;
549.9000;0.3232;7.3424;
550.2000;0.3223;7.3424;
550.5000;0.3240;7.3400;
550.8000;0.3232;7.3306;
551.1000;0.3223;7.3282;
551.4000;0.3240;7.3259;
551.7000;0.3240;7.3306;
552.0000;0.3240;7.3306;
552.3000;0.3240;7.3329;
552.6000;0.3232;7.3329;
552.9000;0.3223;7.3353;
553.2000;0.3240;7.3306;
553.5000;0.3199;7.3259;
553.8000;0.3207;7.3282;
554.1000;0.3240;7.3306;
554.4000;0.3232;7.3400;
554.7000;0.3232;7.3376;
555.0000;0.3240;7.3353;
555.3000;0.3240;7.3353;
555.6000;0.3256;7.3353;
555.9000;0.3232;7.3329;
556.2000;0.3223;7.3306;
556.5000;0.3223;7.3329;
556.8000;0.3256;7.3353;
557.1000;0.3223;7.3329;
557.4000;0.3232;7.3376;
557.7000;0.3223;7.3282;
558.0000;0.3207;7.3259;
558.3000;0.3223;7.3282;
558.6000;0.3215;7.3235;
558.9000;0.3183;7.3235;
559.2000;0.3223;7.3306;
559.5000;0.3232;7.3259;
559.8000;0.3223;7.3212;
560.1000;0.3232;7.3212;
560.4000;0.3248;7.3282;
560.7000;0.3280;7.3471;
561.0000;0.3215;7.3376;
561.3000;0.3223;7.3424;
561.6000;0.3223;7.3494;
561.9000;0.3223;7.3471;
562.2000;0.3183;7.3212;
562.5000;0.3232;7.3259;
562.8000;0.3232;7.3306;
563.1000;0.3297;7.3471;
563.4000;0.3248;7.3282;
563.7000;0.3232;7.3306;
564.0000;0.3223;7.3282;
564.3000;0.3256;7.3447;
564.6000;0.3248;7.3376;
564.9000;0.3232;7.3424;
565.2000;0.3207;7.3400;
565.5000;0.3232;7.3376;
565.8000;0.3256;7.3400;
566.1000;0.3240;7.3376;
566.4000;0.3240;7.3400;
566.7000;0.3199;7.3329;
567.0000;0.3248;7.3400;
567.3000;0.3248;7.3353;
567.6000;0.3223;7.3376;
567.9000;0.3232;7.3353;
568.2000;0.3232;7.3376;
568.5000;0.3158;7.3141;
568.8000;0.3232;7.3259;
569.1000;0.3232;7.3306;
569.4000;0.3240;7.3376;
569.7000;0.3175;7.3188;
570.0000;0.3240;7.3376;
570.3000;0.3240;7.3400;
570.6000;0.3240;7.3400;
570.9000;0.3240;7.3424;
571.2000;0.3256;7.3447;
571.5000;0.3256;7.3376;
571.8000;0.3223;7.3329;
572.1000;0.3223;7.3376;
572.4000;0.3248;7.3400;
572.7000;0.3232;7.3376;
573.0000;0.3223;7.3329;
573.3000;0.3232;7.3282;
573.6000;0.3256;7.3400;
573.9000;0.3215;7.3306;
574.2000;0.3215;7.3235;
574.5000;0.3232;7.3259;
574.8000;0.3191;7.3259;
575.1000;0.3232;7.3376;
575.4000;0.3240;7.3424;
575.7000;0.3232;7.3306;
576.0000;0.3232;7.3282;
576.3000;0.3272;7.3376;
576.6000;0.3223;7.3259;
576.9000;0.3240;7.3259;
577.2000;0.3232;7.3282;
577.5000;0.3232;7.3235;
577.8000;0.3223;7.3329;
578.1000;0.3232;7.3329;
578.4000;0.3232;7.3329;
578.7000;0.3240;7.3259;
579.0000;0.3232;7.3212;
579.3000;0.3232;7.3306;
579.6000;0.3240;7.3306;
579.9000;0.3248;7.3400;
580.2000;0.3232;7.3353;
580.5000;0.3223;7.3306;
580.8000;0.3329;7.3565;
581.1000;0.3223;7.3259;
581.4000;0.3183;7.3165;
581.7000;0.3158;7.3118;
582.0000;0.3223;7.3282;
582.3000;0.3248;7.3282;
582.6000;0.3215;7.3353;
582.9000;0.3248;7.3400;
583.2000;0.3289;7.3541;
583.5000;0.3240;7.3518;
583.8000;0.3248;7.3635;
584.1000;0.3240;7.3612;
584.4000;0.3215;7.3471;
584.7000;0.3256;7.3565;
585.0000;0.3199;7.3471;
585.3000;0.3240;7.3588;
585.6000;0.3232;7.3635;
585.9000;0.3223;7.3565;
586.2000;0.3337;7.3823;
586.5000;0.3248;7.3541;
586.8000;0.3223;7.3471;
587.1000;0.3199;7.3447;
587.4000;0.3166;7.3376;
587.7000;0.3207;7.3471;
588.0000;0.3183;7.3494;
588.3000;0.3223;7.3635;
588.6000;0.3240;7.3659;
588.9000;0.3256;7.3635;
589.2000;0.3232;7.3494;
589.5000;0.3256;7.3541;
589.8000;0.3248;7.3400;
590.1000;0.3223;7.3306;
590.4000;0.3248;7.3400;
590.7000;0.3264;7.3400;
591.0000;0.3215;7.3235;
591.3000;0.3256;7.3329;
591.6000;0.3207;7.3306;
591.9000;0.3175;7.3235;
592.2000;0.3223;7.3353;
592.5000;0.3232;7.3329;
592.8000;0.3232;7.3329;
593.1000;0.3215;7.3282;
593.4000;0.3215;7.3400;
593.7000;0.3223;7.3471;
594.0000;0.3215;7.3494;
594.3000;0.3207;7.3494;
594.6000;0.3223;7.3424;
594.9000;0.3215;7.3424;
595.2000;0.3223;7.3494;
595.5000;0.3240;7.3541;
595.8000;0.3232;7.3494;
596.1000;0.3215;7.3565;
596.4000;0.3223;7.3541;
596.7000;0.3142;7.3329;
597.0000;0.3223;7.3541;
597.3000;0.3207;7.3447;
597.6000;0.3223;7.3447;
597.9000;0.3280;7.3565;
598.2000;0.3215;7.3471;
598.5000;0.3223;7.3565;
598.8000;0.3232;7.3588;
599.1000;0.3240;7.3612;
599.4000;0.3215;7.3612;
599.7000;0.3232;7.3588;
600.0000;0.3272;7.3612;
600.3000;0.3248;7.3424;
600.6000;0.3199;7.3329;
600.9000;0.3191;7.3376;
601.2000;0.3150;7.3235;
601.5000;0.3118;7.3071;
601.8000;0.3101;7.2836;
602.1000;0.3109;7.2694;
602.4000;0.3069;7.2577;
602.7000;0.3044;7.2459;
603.0000;0.3004;7.2365;
603.3000;0.2987;7.2389;
603.6000;0.2963;7.2271;
603.9000;0.2922;7.2177;
604.2000;0.2930;7.2130;
604.5000;0.2816;7.1801;
604.8000;0.2898;7.1965;
605.1000;0.2898;7.2036;
605.4000;0.2857;7.1965;
605.7000;0.2849;7.1895;
606.0000;0.2816;7.1801;
606.3000;0.2816;7.1777;
606.6000;0.2833;7.1707;
606.9000;0.2768;7.1613;
607.2000;0.2751;7.1566;
607.5000;0.2751;7.1519;
607.8000;0.2735;7.1472;
608.1000;0.2808;7.1613;
608.4000;0.2727;7.1448;
608.7000;0.2751;7.1424;
609.0000;0.2702;7.1401;
609.3000;0.2711;7.1354;
609.6000;0.2678;7.1283;
609.9000;0.2686;7.1283;
610.2000;0.2686;7.1330;
610.5000;0.2662;7.1307;
610.8000;0.2670;7.1213;
611.1000;0.2670;7.1213;
611.4000;0.2613;7.1025;
611.7000;0.2629;7.1072;
612.0000;0.2621;7.1025;
612.3000;0.2613;7.1025;
612.6000;0.2605;7.1001;
612.9000;0.2637;7.1072;
613.2000;0.2597;7.1001;
613.5000;0.2597;7.1001;
613.8000;0.2597;7.1072;
614.1000;0.2613;7.1048;
614.4000;0.2556;7.0954;
614.7000;0.2548;7.1001;
615.0000;0.2548;7.1119;
615.3000;0.2556;7.1142;
615.6000;0.2556;7.1119;
615.9000;0.2532;7.0884;
616.2000;0.2532;7.0837;
616.5000;0.2523;7.0837;
616.8000;0.2540;7.0884;
617.1000;0.2523;7.0789;
617.4000;0.2499;7.0766;
617.7000;0.2515;7.0837;
618.0000;0.2515;7.0837;
618.3000;0.2507;7.0837;
618.6000;0.2507;7.0860;
618.9000;0.2475;7.0837;
619.2000;0.2483;7.0789;
619.5000;0.2466;7.0695;
619.8000;0.2475;7.0695;
620.1000;0.2466;7.0601;
620.4000;0.2491;7.0578;
620.7000;0.2475;7.0601;
621.0000;0.2442;7.0578;
621.3000;0.2442;7.0578;
621.6000;0.2409;7.0531;
621.9000;0.2442;7.0625;
622.2000;0.2418;7.0578;
622.5000;0.2434;7.0648;
622.8000;0.2450;7.0813;
623.1000;0.2409;7.0672;
623.4000;0.2426;7.0766;
623.7000;0.2401;7.0719;
624.0000;0.2401;7.0719;
624.3000;0.2418;7.0789;
624.6000;0.2401;7.0601;
624.9000;0.2409;7.0625;
625.2000;0.2418;7.0672;
625.5000;0.2393;7.0601;
625.8000;0.2393;7.0648;
626.1000;0.2361;7.0578;
626.4000;0.2369;7.0578;
626.7000;0.2369;7.0554;
627.0000;0.2393;7.0554;
627.3000;0.2369;7.0437;
627.6000;0.2263;7.0225;
627.9000;0.2352;7.0484;
628.2000;0.2344;7.0601;
628.5000;0.2344;7.0554;
628.8000;0.2442;7.0766;
629.1000;0.2336;7.0460;
629.4000;0.2336;7.0460;
629.7000;0.2320;7.0390;
630.0000;0.2336;7.0390;
630.3000;0.2336;7.0437;
630.6000;0.2295;7.0413;
630.9000;0.2336;7.0507;
631.2000;0.2279;7.0437;
631.5000;0.2320;7.0484;
631.8000;0.2328;7.0460;
632.1000;0.2304;7.0366;
632.4000;0.2336;7.0413;
632.7000;0.2295;7.0343;
633.0000;0.2312;7.0390;
633.3000;0.2312;7.0460;
633.6000;0.2295;7.0413;
633.9000;0.2312;7.0366;
634.2000;0.2198;7.0037;
634.5000;0.2312;7.0343;
634.8000;0.2247;7.0296;
635.1000;0.2295;7.0484;
635.4000;0.2312;7.0578;
635.7000;0.2352;7.0648;
636.0000;0.2287;7.0507;
636.3000;0.2279;7.0484;
636.6000;0.2287;7.0437;
636.9000;0.2271;7.0413;
637.2000;0.2279;7.0319;
637.5000;0.2377;7.0578;
637.8000;0.2304;7.0460;
638.1000;0.2279;7.0460;
638.4000;0.2279;7.0484;
638.7000;0.2222;7.0437;
639.0000;0.2279;7.0484;
639.3000;0.2271;7.0460;
639.6000;0.2263;7.0460;
639.9000;0.2328;7.0695;
640.2000;0.2271;7.0578;
640.5000;0.2247;7.0531;
640.8000;0.2247;7.0554;
641.1000;0.2287;7.0742;
641.4000;0.2230;7.0695;
641.7000;0.2214;7.0648;
642.0000;0.2295;7.0813;
642.3000;0.2230;7.0672;
642.6000;0.2222;7.0554;
642.9000;0.2230;7.0531;
643.2000;0.2222;7.0578;
643.5000;0.2230;7.0601;
643.8000;0.2214;7.0507;
644.1000;0.2230;7.0460;
644.4000;0.2230;7.0460;
644.7000;0.2230;7.0484;
645.0000;0.2239;7.0390;
645.3000;0.2214;7.0366;
645.6000;0.2247;7.0343;
645.9000;0.2247;7.0366;
646.2000;0.2222;7.0249;
646.5000;0.2239;7.0296;
646.8000;0.2206;7.0272;
647.1000;0.2222;7.0366;
647.4000;0.2222;7.0413;
647.7000;0.2190;7.0366;
648.0000;0.2222;7.0366;
648.3000;0.2222;7.0272;
648.6000;0.2198;7.0366;
648.9000;0.2190;7.0343;
649.2000;0.2206;7.0460;
649.5000;0.2214;7.0437;
649.8000;0.2190;7.0390;
650.1000;0.2198;7.0413;
650.4000;0.2206;7.0437;
650.7000;0.2198;7.0460;
651.0000;0.2198;7.0437;
651.3000;0.2214;7.0484;
651.6000;0.2182;7.0460;
651.9000;0.2198;7.0366;
652.2000;0.2206;7.0460;
652.5000;0.2190;7.0437;
652.8000;0.2206;7.0578;
653.1000;0.2190;7.0531;
653.4000;0.2190;7.0507;
653.7000;0.2190;7.0484;
654.0000;0.2190;7.0437;
654.3000;0.2190;7.0319;
654.6000;0.2190;7.0319;
654.9000;0.2190;7.0460;
655.2000;0.2198;7.0437;
655.5000;0.2182;7.0484;
655.8000;0.2206;7.0460;
656.1000;0.2198;7.0437;
656.4000;0.2263;7.0695;
656.7000;0.2108;7.0319;
657.0000;0.2206;7.0625;
657.3000;0.2149;7.0648;
657.6000;0.2133;7.0648;
657.9000;0.2043;7.0413;
658.2000;0.2116;7.0484;
658.5000;0.2149;7.0531;
658.8000;0.2173;7.0625;
659.1000;0.2182;7.0601;
659.4000;0.2157;7.0554;
659.7000;0.2165;7.0578;
660.0000;0.2141;7.0554;
660.3000;0.2157;7.0484;
660.6000;0.2100;7.0366;
660.9000;0.2190;7.0695;
661.2000;0.2165;7.0648;
661.5000;0.2149;7.0625;
661.8000;0.2165;7.0648;
662.1000;0.2157;7.0625;
662.4000;0.2149;7.0625;
662.7000;0.2116;7.0695;
663.0000;0.2157;7.0766;
663.3000;0.2141;7.0766;
663.6000;0.2141;7.0742;
663.9000;0.2133;7.0766;
664.2000;0.2133;7.0695;
664.5000;0.2133;7.0672;
664.8000;0.2165;7.0672;
665.1000;0.2141;7.0648;
665.4000;0.2141;7.0719;
665.7000;0.2116;7.0672;
666.0000;0.2157;7.0766;
666.3000;0.2149;7.0813;
666.6000;0.2149;7.0860;
666.9000;0.2125;7.0789;
667.2000;0.2141;7.0742;
667.5000;0.2133;7.0625;
667.8000;0.2149;7.0625;
668.1000;0.2100;7.0601;
668.4000;0.2116;7.0625;
668.7000;0.2116;7.0719;
669.0000;0.2125;7.0719;
669.3000;0.2125;7.0625;
669.6000;0.2125;7.0601;
669.9000;0.2125;7.0625;
670.2000;0.2133;7.0766;
670.5000;0.2116;7.0813;
670.8000;0.2125;7.0907;
671.1000;0.2157;7.0954;
671.4000;0.2133;7.0931;
671.7000;0.2173;7.0954;
672.0000;0.2108;7.0766;
672.3000;0.2108;7.0742;
672.6000;0.2206;7.0954;
672.9000;0.2100;7.0601;
673.2000;0.2076;7.0437;
673.5000;0.2108;7.0531;
673.8000;0.2125;7.0531;
674.1000;0.2125;7.0625;
674.4000;0.2125;7.0625;
674.7000;0.2133;7.0648;
675.0000;0.2149;7.0625;
675.3000;0.2116;7.0648;
675.6000;0.2108;7.0672;
675.9000;0.2100;7.0766;
676.2000;0.2116;7.0860;
676.5000;0.2125;7.0837;
676.8000;0.2108;7.0884;
677.1000;0.2125;7.0907;
677.4000;0.2100;7.0884;
677.7000;0.2100;7.0860;
678.0000;0.2076;7.0719;
678.3000;0.2092;7.0860;
678.6000;0.2100;7.0837;
678.9000;0.2108;7.0837;
679.2000;0.2133;7.0907;
679.5000;0.2108;7.0931;
679.8000;0.2084;7.0978;
680.1000;0.2125;7.1048;
680.4000;0.2141;7.0978;
680.7000;0.2084;7.0907;
681.0000;0.2059;7.0789;
681.3000;0.2100;7.0978;
681.6000;0.2125;7.0978;
681.9000;0.2100;7.0837;
682.2000;0.2059;7.0648;
682.5000;0.2051;7.0672;
682.8000;0.2051;7.0648;
683.1000;0.2125;7.0789;
683.4000;0.2092;7.0813;
683.7000;0.2076;7.0813;
684.0000;0.2076;7.0813;
684.3000;0.2092;7.0860;
684.6000;0.2084;7.0884;
684.9000;0.2092;7.0907;
685.2000;0.2108;7.0978;
685.5000;0.2100;7.0931;
685.8000;0.2084;7.0837;
686.1000;0.2084;7.0766;
686.4000;0.2068;7.0695;
686.7000;0.2084;7.0695;
687.0000;0.2084;7.0672;
687.3000;0.2084;7.0672;
687.6000;0.2100;7.0625;
687.9000;0.2076;7.0578;
688.2000;0.2076;7.0578;
688.5000;0.2068;7.0484;
688.8000;0.2084;7.0601;
689.1000;0.2051;7.0578;
689.4000;0.2076;7.0719;
689.7000;0.2068;7.0695;
690.0000;0.2084;7.0648;
690.3000;0.2076;7.0601;
690.6000;0.2084;7.0531;
690.9000;0.2076;7.0437;
691.2000;0.2059;7.0366;
691.5000;0.2068;7.0484;
691.8000;0.2051;7.0507;
692.1000;0.2035;7.0507;
692.4000;0.2051;7.0484;
692.7000;0.2084;7.0648;
693.0000;0.2068;7.0789;
693.3000;0.2068;7.0837;
693.6000;0.2051;7.0813;
693.9000;0.2027;7.0695;
694.2000;0.2076;7.0766;
694.5000;0.2076;7.0742;
694.8000;0.2076;7.0742;
695.1000;0.2011;7.0648;
695.4000;0.2068;7.0719;
695.7000;0.2068;7.0742;
696.0000;0.2059;7.0742;
696.3000;0.2084;7.0813;
696.6000;0.2149;7.0978;
696.9000;0.2068;7.0742;
697.2000;0.2084;7.0789;
697.5000;0.2019;7.0742;
697.8000;0.2051;7.0837;
698.1000;0.2068;7.0931;
698.4000;0.2149;7.1119;
698.7000;0.2043;7.0742;
699.0000;0.2108;7.0837;
699.3000;0.2092;7.0860;
699.6000;0.2068;7.0813;
699.9000;0.1978;7.0601;
700.2000;0.2051;7.0907;
700.5000;0.2051;7.0954;
700.8000;0.2051;7.0860;
701.1000;0.2027;7.0884;
701.4000;0.2059;7.1119;
701.7000;0.2043;7.1166;
702.0000;0.2059;7.1095;
702.3000;0.2043;7.1001;
702.6000;0.2043;7.0978;
702.9000;0.2043;7.0907;
703.2000;0.2116;7.1095;
703.5000;0.2051;7.0884;
703.8000;0.2076;7.0954;
704.1000;0.2043;7.0931;
704.4000;0.2043;7.0813;
704.7000;0.2051;7.0766;
705.0000;0.2011;7.0648;
705.3000;0.1937;7.0531;
705.6000;0.2059;7.0884;
705.9000;0.2051;7.0860;
706.2000;0.2092;7.0954;
706.5000;0.2043;7.0884;
706.8000;0.2051;7.0954;
707.1000;0.2011;7.0860;
707.4000;0.2027;7.0978;
707.7000;0.2027;7.0931;
708.0000;0.1978;7.0884;
708.3000;0.2059;7.1048;
708.6000;0.2059;7.0978;
708.9000;0.2002;7.0813;
709.2000;0.2035;7.0860;
709.5000;0.2027;7.0884;
709.8000;0.2084;7.1048;
710.1000;0.2051;7.0907;
710.4000;0.2027;7.0837;
710.7000;0.2043;7.0860;
711.0000;0.2051;7.0931;
711.3000;0.2019;7.0860;
711.6000;0.2059;7.0931;
711.9000;0.2051;7.0954;
712.2000;0.2011;7.0931;
712.5000;0.2027;7.0978;
712.8000;0.2011;7.0931;
713.1000;0.2059;7.1048;
713.4000;0.2051;7.1001;
713.7000;0.2027;7.0931;
714.0000;0.2084;7.1001;
714.3000;0.2035;7.0813;
714.6000;0.2027;7.0719;
714.9000;0.2035;7.0742;
715.2000;0.2019;7.0789;
715.5000;0.2051;7.0860;
715.8000;0.2035;7.0813;
716.1000;0.2051;7.0907;
716.4000;0.2059;7.1001;
716.7000;0.2059;7.1001;
717.0000;0.2035;7.0954;
717.3000;0.2035;7.0931;
717.6000;0.2043;7.0907;
717.9000;0.2002;7.0860;
718.2000;0.2011;7.0931;
718.5000;0.2027;7.0954;
718.8000;0.2027;7.0884;
719.1000;0.2035;7.0931;
719.4000;0.2043;7.1048;
719.7000;0.2019;7.1001;
720.0000;0.2035;7.1048;
720.3000;0.2011;7.1166;
720.6000;0.1994;7.1048;
720.9000;0.2002;7.1025;
721.2000;0.2027;7.1095;
721.5000;0.2059;7.1095;
721.8000;0.2002;7.0978;
722.1000;0.2027;7.0978;
722.4000;0.2027;7.1048;
722.7000;0.2019;7.0931;
723.0000;0.1994;7.0860;
723.3000;0.2027;7.0954;
723.6000;0.2051;7.0931;
723.9000;0.2019;7.0907;
724.2000;0.2011;7.1048;
724.5000;0.2002;7.0978;
724.8000;0.2043;7.0884;
725.1000;0.2027;7.0837;
725.4000;0.2059;7.0907;
725.7000;0.2019;7.0813;
726.0000;0.2027;7.0813;
726.3000;0.2019;7.0766;
726.6000;0.2011;7.0813;
726.9000;0.1978;7.0766;
727.2000;0.2019;7.0931;
727.5000;0.2059;7.1048;
727.8000;0.2027;7.0978;
728.1000;0.2019;7.1048;
728.4000;0.2027;7.1072;
728.7000;0.2035;7.1119;
729.0000;0.2027;7.1166;
729.3000;0.1978;7.1119;
729.6000;0.2027;7.1166;
729.9000;0.2035;7.1260;
730.2000;0.2002;7.1189;
730.5000;0.2011;7.1142;
730.8000;0.2076;7.1354;
731.1000;0.1994;7.1189;
731.4000;0.1994;7.1072;
731.7000;0.2011;7.1095;
732.0000;0.2002;7.1072;
732.3000;0.2002;7.1072;
732.6000;0.2002;7.1095;
732.9000;0.2002;7.1048;
733.2000;0.2011;7.1095;
733.5000;0.2019;7.1048;
733.8000;0.1937;7.0837;
734.1000;0.2002;7.0931;
734.4000;0.2035;7.0954;
734.7000;0.1994;7.0813;
735.0000;0.2002;7.0813;
735.3000;0.2011;7.0860;
735.6000;0.2002;7.0860;
735.9000;0.2043;7.0931;
736.2000;0.2019;7.0860;
736.5000;0.2002;7.0837;
736.8000;0.1986;7.0742;
737.1000;0.1986;7.0837;
737.4000;0.1986;7.0789;
737.7000;0.2002;7.0907;
738.0000;0.1994;7.0884;
738.3000;0.1994;7.0931;
738.6000;0.2011;7.1001;
738.9000;0.1994;7.1001;
739.2000;0.2002;7.1048;
739.5000;0.1978;7.1072;
739.8000;0.1994;7.1119;
740.1000;0.2027;7.1236;
740.4000;0.2011;7.1236;
740.7000;0.2027;7.1260;
741.0000;0.1994;7.1307;
741.3000;0.1994;7.1142;
741.6000;0.1986;7.1095;
741.9000;0.2027;7.1260;
742.2000;0.1994;7.1142;
742.5000;0.2019;7.1213;
742.8000;0.1986;7.1048;
743.1000;0.1945;7.0907;
743.4000;0.1978;7.0931;
743.7000;0.1994;7.0954;
744.0000;0.1978;7.0978;
744.3000;0.1986;7.0954;
744.6000;0.1945;7.0789;
744.9000;0.1994;7.0860;
745.2000;0.2043;7.0978;
745.5000;0.1970;7.0837;
745.8000;0.1994;7.0954;
746.1000;0.1978;7.0978;
746.4000;0.2084;7.1213;
746.7000;0.1978;7.1001;
747.0000;0.1978;7.0954;
747.3000;0.1962;7.0860;
747.6000;0.1994;7.0931;
747.9000;0.2002;7.0931;
748.2000;0.2035;7.1095;
748.5000;0.1986;7.0931;
748.8000;0.2002;7.0931;
749.1000;0.1994;7.0907;
749.4000;0.1978;7.0860;
749.7000;0.1986;7.0837;
750.0000;0.2002;7.0907;
750.3000;0.2011;7.0954;
750.6000;0.1986;7.0954;
750.9000;0.1994;7.1001;
751.2000;0.2092;7.1142;
751.5000;0.2035;7.1072;
751.8000;0.2027;7.1072;
752.1000;0.1986;7.0978;
752.4000;0.2019;7.1048;
752.7000;0.2011;7.0931;
753.0000;0.2011;7.0907;
753.3000;0.2002;7.1001;
753.6000;0.1970;7.0978;
753.9000;0.2002;7.1095;
754.2000;0.2002;7.1119;
754.5000;0.1962;7.1119;
754.8000;0.2002;7.1260;
755.1000;0.2002;7.1189;
755.4000;0.1994;7.1048;
755.7000;0.1970;7.1001;
756.0000;0.1978;7.1001;
756.3000;0.1986;7.0978;
756.6000;0.1986;7.1025;
756.9000;0.2019;7.1189;
757.2000;0.1962;7.0978;
757.5000;0.1986;7.0978;
757.8000;0.2011;7.1119;
758.1000;0.1962;7.0978;
758.4000;0.1962;7.1048;
758.7000;0.1994;7.1119;
759.0000;0.1994;7.1142;
759.3000;0.1954;7.0931;
759.6000;0.1978;7.1001;
759.9000;0.1994;7.1001;
760.2000;0.2068;7.1236;
760.5000;0.1962;7.1025;
760.8000;0.1994;7.1142;
761.1000;0.2002;7.1236;
761.4000;0.1986;7.1166;
761.7000;0.1986;7.1119;
762.0000;0.1970;7.1119;
762.3000;0.1970;7.1142;
762.6000;0.1970;7.1166;
762.9000;0.1994;7.1119;
763.2000;0.1978;7.1025;
763.5000;0.1945;7.0907;
763.8000;0.2011;7.1001;
764.1000;0.2002;7.0954;
764.4000;0.1986;7.1001;
764.7000;0.1978;7.1048;
765.0000;0.2027;7.1119;
765.3000;0.2059;7.1166;
765.6000;0.1986;7.0978;
765.9000;0.1978;7.1001;
766.2000;0.1929;7.0789;
766.5000;0.1970;7.0931;
766.8000;0.1970;7.1025;
767.1000;0.1994;7.1048;
767.4000;0.1962;7.0954;
767.7000;0.1978;7.1025;
768.0000;0.2002;7.1166;
768.3000;0.1937;7.1001;
768.6000;0.1954;7.0978;
768.9000;0.1970;7.1025;
769.2000;0.1986;7.1119;
769.5000;0.1954;7.1001;
769.8000;0.1954;7.1048;
770.1000;0.1954;7.0907;
770.4000;0.1954;7.0931;
770.7000;0.1978;7.0954;
771.0000;0.1986;7.1025;
771.3000;0.1978;7.1072;
771.6000;0.1986;7.1095;
771.9000;0.1970;7.1072;
772.2000;0.1937;7.0978;
772.5000;0.1986;7.1095;
772.8000;0.2002;7.1072;
773.1000;0.1913;7.0931;
773.4000;0.1897;7.0860;
773.7000;0.1962;7.0954;
774.0000;0.1978;7.1119;
774.3000;0.1994;7.1236;
774.6000;0.1978;7.1119;
774.9000;0.1954;7.1072;
775.2000;0.1921;7.1001;
775.5000;0.1986;7.1236;
775.8000;0.2002;7.1166;
776.1000;0.2027;7.1213;
776.4000;0.1978;7.1072;
776.7000;0.1945;7.0978;
777.0000;0.1986;7.1072;
777.3000;0.1978;7.1025;
777.6000;0.2019;7.1236;
777.9000;0.1970;7.1166;
778.2000;0.1978;7.1236;
778.5000;0.1945;7.1213;
778.8000;0.1970;7.1283;
779.1000;0.1962;7.1236;
779.4000;0.1962;7.1189;
779.7000;0.1970;7.1236;
780.0000;0.1986;7.1260;
780.3000;0.1978;7.1330;
780.6000;0.2043;7.1472;
780.9000;0.1962;7.1283;
781.2000;0.1978;7.1283;
781.5000;0.1945;7.1213;
781.8000;0.1978;7.1283;
782.1000;0.1986;7.1307;
782.4000;0.1970;7.1189;
782.7000;0.1937;7.1048;
783.0000;0.1986;7.1142;
783.3000;0.1962;7.1119;
783.6000;0.1970;7.1236;
783.9000;0.1954;7.1283;
784.2000;0.1986;7.1354;
784.5000;0.1978;7.1307;
784.8000;0.1986;7.1283;
785.1000;0.1994;7.1213;
785.4000;0.1978;7.1166;
785.7000;0.2002;7.1213;
786.0000;0.1994;7.1189;
786.3000;0.1962;7.1072;
786.6000;0.2043;7.1189;
786.9000;0.1970;7.0907;
787.2000;0.1905;7.0860;
787.5000;0.1937;7.0978;
787.8000;0.2027;7.1166;
788.1000;0.1962;7.0978;
788.4000;0.1945;7.0907;
788.7000;0.1962;7.1025;
789.0000;0.1962;7.0954;
789.3000;0.1962;7.1001;
789.6000;0.1945;7.1001;
789.9000;0.1962;7.1095;
790.2000;0.1978;7.1142;
790.5000;0.1954;7.1048;
790.8000;0.1970;7.1213;
791.1000;0.1937;7.1142;
791.4000;0.1986;7.1236;
791.7000;0.1994;7.1213;
792.0000;0.1986;7.1213;
792.3000;0.2019;7.1307;
792.6000;0.1954;7.1166;
792.9000;0.1921;7.1095;
793.2000;0.1962;7.1142;
793.5000;0.1905;7.1048;
793.8000;0.1954;7.1236;
794.1000;0.1945;7.1236;
794.4000;0.1954;7.1283;
794.7000;0.1962;7.1307;
795.0000;0.1937;7.1213;
795.3000;0.1986;7.1307;
795.6000;0.1970;7.1260;
795.9000;0.1986;7.1236;
796.2000;0.1962;7.1236;
796.5000;0.1978;7.1213;
796.8000;0.1937;7.1142;
797.1000;0.1954;7.1166;
797.4000;0.1945;7.1119;
797.7000;0.1986;7.1189;
798.0000;0.1905;7.0931;
798.3000;0.1937;7.1095;
798.6000;0.1937;7.1142;
798.9000;0.1962;7.1189;
799.2000;0.1978;7.1142;
799.5000;0.1962;7.1095;
799.8000;0.1970;7.1213;
800.1000;0.1962;7.1283;
800.4000;0.1954;7.1307;
800.7000;0.1978;7.1354;
801.0000;0.1986;7.1401;
801.3000;0.1962;7.1307;
801.6000;0.1970;7.1236;
801.9000;0.1978;7.1189;
802.2000;0.1962;7.1189;
802.5000;0.1970;7.1142;
802.8000;0.1945;7.1048;
803.1000;0.1937;7.1048;
803.4000;0.1945;7.1142;
803.7000;0.1954;7.1119;
804.0000;0.1970;7.1119;
804.3000;0.1954;7.1142;
804.6000;0.1970;7.1283;
804.9000;0.1970;7.1354;
805.2000;0.1970;7.1307;
805.5000;0.1970;7.1260;
805.8000;0.1962;7.1260;
806.1000;0.1970;7.1236;
806.4000;0.1954;7.1189;
806.7000;0.1962;7.1189;
807.0000;0.1954;7.1119;
807.3000;0.1954;7.1166;
807.6000;0.1945;7.1166;
807.9000;0.1913;7.1095;
808.2000;0.1954;7.1189;
808.5000;0.1962;7.1213;
808.8000;0.1962;7.1283;
809.1000;0.1970;7.1330;
809.4000;0.1937;7.1354;
809.7000;0.1970;7.1401;
810.0000;0.1978;7.1448;
810.3000;0.1994;7.1354;
810.6000;0.1937;7.1119;
810.9000;0.1978;7.1283;
811.2000;0.2011;7.1401;
811.5000;0.1970;7.1377;
811.8000;0.2002;7.1424;
812.1000;0.2035;7.1495;
812.4000;0.1921;7.1260;
812.7000;0.1954;7.1260;
813.0000;0.1970;7.1401;
813.3000;0.1970;7.1424;
813.6000;0.1929;7.1330;
813.9000;0.1970;7.1448;
814.2000;0.1929;7.1213;
814.5000;0.1929;7.1166;
814.8000;0.1962;7.1189;
815.1000;0.1978;7.1166;
815.4000;0.1937;7.1025;
815.7000;0.1945;7.1001;
816.0000;0.1954;7.1001;
816.3000;0.1913;7.0884;
816.6000;0.1978;7.1001;
816.9000;0.1978;7.1048;
817.2000;0.1937;7.1001;
817.5000;0.1954;7.1142;
817.8000;0.1880;7.0954;
818.1000;0.1954;7.1142;
818.4000;0.1937;7.1095;
818.7000;0.1954;7.1166;
819.0000;0.1945;7.1142;
819.3000;0.1954;7.1095;
819.6000;0.1954;7.1119;
819.9000;0.1962;7.1307;
820.2000;0.1962;7.1354;
820.5000;0.1962;7.1330;
820.8000;0.1970;7.1401;
821.1000;0.1954;7.1377;
821.4000;0.1945;7.1330;
821.7000;0.2011;7.1448;
822.0000;0.1962;7.1283;
822.3000;0.1954;7.1330;
822.6000;0.1945;7.1424;
822.9000;0.1954;7.1542;
823.2000;0.1962;7.1566;
823.5000;0.1945;7.1519;
823.8000;0.1937;7.1448;
824.1000;0.1945;7.1495;
824.4000;0.1945;7.1519;
824.7000;0.1945;7.1448;
825.0000;0.1962;7.1472;
825.3000;0.1962;7.1519;
825.6000;0.1954;7.1542;
825.9000;0.1832;7.1260;
826.2000;0.1954;7.1566;
826.5000;0.1954;7.1566;
826.8000;0.1954;7.1519;
827.1000;0.1921;7.1401;
827.4000;0.1937;7.1354;
827.7000;0.1945;7.1330;
828.0000;0.1954;7.1377;
828.3000;0.1945;7.1377;
828.6000;0.1954;7.1472;
828.9000;0.1945;7.1401;
829.2000;0.1929;7.1330;
829.5000;0.1929;7.1283;
829.8000;0.1945;7.1260;
830.1000;0.1986;7.1354;
830.4000;0.1937;7.1260;
830.7000;0.1954;7.1236;
831.0000;0.1954;7.1260;
831.3000;0.1954;7.1260;
831.6000;0.2002;7.1354;
831.9000;0.1962;7.1189;
832.2000;0.1929;7.1072;
832.5000;0.1978;7.1213;
832.8000;0.1954;7.1213;
833.1000;0.1978;7.1330;
833.4000;0.1970;7.1260;
833.7000;0.1945;7.1260;
834.0000;0.1929;7.1307;
834.3000;0.1945;7.1354;
834.6000;0.1954;7.1307;
834.9000;0.2092;7.1636;
835.2000;0.1970;7.1330;
835.5000;0.1905;7.1072;
835.8000;0.1962;7.1213;
836.1000;0.1945;7.1119;
836.4000;0.1937;7.1048;
836.7000;0.1937;7.1072;
837.0000;0.1986;7.1236;
837.3000;0.2084;7.1519;
837.6000;0.1937;7.1283;
837.9000;0.1840;7.1048;
838.2000;0.1970;7.1448;
838.5000;0.1994;7.1542;
838.8000;0.1954;7.1307;
839.1000;0.1954;7.1330;
839.4000;0.1945;7.1213;
839.7000;0.1929;7.1260;
840.0000;0.1929;7.1330;
840.3000;0.1954;7.1424;
840.6000;0.1962;7.1542;
840.9000;0.1937;7.1542;
841.2000;0.1937;7.1589;
841.5000;0.1970;7.1683;
841.8000;0.1945;7.1636;
842.1000;0.1945;7.1660;
842.4000;0.1954;7.1660;
842.7000;0.1937;7.1566;
843.0000;0.1962;7.1707;
843.3000;0.1872;7.1542;
843.6000;0.1937;7.1707;
843.9000;0.1970;7.1683;
844.2000;0.1937;7.1636;
844.5000;0.1937;7.1589;
844.8000;0.1954;7.1542;
845.1000;0.1937;7.1519;
845.4000;0.1945;7.1424;
845.7000;0.1937;7.1448;
846.0000;0.1945;7.1401;
846.3000;0.1937;7.1354;
846.6000;0.1945;7.1330;
846.9000;0.1945;7.1307;
847.2000;0.1954;7.1377;
847.5000;0.1945;7.1330;
847.8000;0.1937;7.1307;
848.1000;0.1954;7.1330;
848.4000;0.1962;7.1401;
848.7000;0.1954;7.1448;
849.0000;0.1937;7.1424;
849.3000;0.1954;7.1424;
849.6000;0.1962;7.1495;
849.9000;0.1962;7.1448;
850.2000;0.1937;7.1472;
850.5000;0.1937;7.1542;
850.8000;0.1945;7.1566;
851.1000;0.1937;7.1589;
851.4000;0.1954;7.1542;
851.7000;0.1929;7.1401;
852.0000;0.1937;7.1354;
852.3000;0.1937;7.1307;
852.6000;0.1937;7.1377;
852.9000;0.1929;7.1307;
853.2000;0.1954;7.1448;
853.5000;0.1929;7.1401;
853.8000;0.1929;7.1448;
854.1000;0.1937;7.1519;
854.4000;0.1937;7.1472;
854.7000;0.1962;7.1542;
855.0000;0.1954;7.1519;
855.3000;0.1937;7.1519;
855.6000;0.1945;7.1472;
855.9000;0.1929;7.1424;
856.2000;0.1937;7.1330;
856.5000;0.1937;7.1283;
856.8000;0.1954;7.1330;
857.1000;0.1994;7.1542;
857.4000;0.1962;7.1424;
857.7000;0.1945;7.1330;
858.0000;0.1937;7.1354;
858.3000;0.1937;7.1330;
858.6000;0.1937;7.1260;
858.9000;0.1897;7.1142;
859.2000;0.1888;7.1213;
859.5000;0.1929;7.1354;
859.8000;0.1864;7.1213;
860.1000;0.1929;7.1354;
860.4000;0.1897;7.1166;
860.7000;0.1945;7.1330;
861.0000;0.1929;7.1330;
861.3000;0.1986;7.1424;
861.6000;0.1945;7.1354;
861.9000;0.1945;7.1424;
862.2000;0.1945;7.1424;
862.5000;0.1880;7.1189;
862.8000;0.1937;7.1354;
863.1000;0.1921;7.1354;
863.4000;0.1872;7.1213;
863.7000;0.1945;7.1401;
864.0000;0.2027;7.1589;
864.3000;0.1823;7.1095;
864.6000;0.1954;7.1472;
864.9000;0.1945;7.1495;
865.2000;0.1945;7.1589;
865.5000;0.1937;7.1636;
865.8000;0.1962;7.1613;
866.1000;0.1945;7.1472;
866.4000;0.1986;7.1519;
866.7000;0.1954;7.1448;
867.0000;0.1945;7.1495;
867.3000;0.1954;7.1424;
867.6000;0.1945;7.1495;
867.9000;0.1937;7.1519;
868.2000;0.1945;7.1495;
868.5000;0.1929;7.1495;
868.8000;0.1954;7.1542;
869.1000;0.1929;7.1377;
869.4000;0.1945;7.1424;
869.7000;0.1945;7.1448;
870.0000;0.1929;7.1519;
870.3000;0.1954;7.1589;
870.6000;0.1945;7.1519;
870.9000;0.1954;7.1519;
871.2000;0.1954;7.1566;
871.5000;0.1962;7.1636;
871.8000;0.1962;7.1613;
872.1000;0.1962;7.1519;
872.4000;0.1954;7.1424;
872.7000;0.1954;7.1330;
873.0000;0.1945;7.1213;
873.3000;0.1937;7.1189;
873.6000;0.1954;7.1166;
873.9000;0.1954;7.1236;
874.2000;0.1937;7.1166;
874.5000;0.1962;7.1260;
874.8000;0.1921;7.1401;
875.1000;0.1929;7.1448;
875.4000;0.1929;7.1377;
875.7000;0.1945;7.1377;
876.0000;0.1945;7.1448;
876.3000;0.1937;7.1448;
876.6000;0.1954;7.1448;
876.9000;0.1929;7.1401;
877.2000;0.1962;7.1472;
877.5000;0.1937;7.1448;
877.8000;0.1937;7.1424;
878.1000;0.1913;7.1354;
878.4000;0.1929;7.1377;
878.7000;0.2002;7.1495;
879.0000;0.1921;7.1307;
879.3000;0.1929;7.1283;
879.6000;0.1945;7.1307;
879.9000;0.1937;7.1283;
880.2000;0.1978;7.1424;
880.5000;0.1962;7.1424;
880.8000;0.1929;7.1377;
881.1000;0.1897;7.1307;
881.4000;0.1945;7.1377;
881.7000;0.1921;7.1401;
882.0000;0.1929;7.1448;
882.3000;0.1937;7.1542;
882.6000;0.1937;7.1472;
882.9000;0.1945;7.1377;
883.2000;0.1954;7.1448;
883.5000;0.1954;7.1448;
883.8000;0.1848;7.1213;
884.1000;0.1962;7.1401;
884.4000;0.1962;7.1307;
884.7000;0.1954;7.1377;
885.0000;0.1937;7.1424;
885.3000;0.1937;7.1424;
885.6000;0.1937;7.1401;
885.9000;0.1970;7.1495;
886.2000;0.1913;7.1401;
886.5000;0.2002;7.1448;
886.8000;0.1986;7.1377;
887.1000;0.1937;7.1330;
887.4000;0.1945;7.1330;
887.7000;0.1954;7.1330;
888.0000;0.1945;7.1424;
888.3000;0.1897;7.1260;
888.6000;0.1937;7.1354;
888.9000;0.1945;7.1354;
889.2000;0.1921;7.1283;
889.5000;0.1954;7.1330;
889.8000;0.1929;7.1401;
890.1000;0.1929;7.1472;
890.4000;0.1945;7.1519;
890.7000;0.1929;7.1519;
891.0000;0.1929;7.1589;
891.3000;0.1978;7.1683;
891.6000;0.1954;7.1613;
891.9000;0.1994;7.1683;
892.2000;0.2019;7.1754;
892.5000;0.1945;7.1613;
892.8000;0.2019;7.1754;
893.1000;0.1945;7.1660;
893.4000;0.1937;7.1660;
893.7000;0.1954;7.1660;
894.0000;0.1954;7.1636;
894.3000;0.1929;7.1519;
894.6000;0.1937;7.1613;
894.9000;0.1921;7.1566;
895.2000;0.1937;7.1566;
895.5000;0.2043;7.1848;
895.8000;0.1937;7.1589;
896.1000;0.1929;7.1448;
896.4000;0.1954;7.1401;
896.7000;0.1937;7.1424;
897.0000;0.1921;7.1472;
897.3000;0.1945;7.1495;
897.6000;0.1937;7.1472;
897.9000;0.1921;7.1424;
898.2000;0.1905;7.1354;
898.5000;0.1913;7.1401;
898.8000;0.1929;7.1472;
899.1000;0.1937;7.1495;
899.4000;0.1913;7.1519;
899.7000;0.1937;7.1566;
900.0000;0.1937;7.1566;
900.3000;0.1937;7.1660;
900.6000;0.1921;7.1613;
900.9000;0.1937;7.1566;
901.2000;0.1937;7.1566;
901.5000;0.1954;7.1566;
901.8000;0.1897;7.1424;
902.1000;0.1897;7.1377;
902.4000;0.1945;7.1377;
902.7000;0.1954;7.1377;
903.0000;0.1945;7.1448;
903.3000;0.1929;7.1472;
903.6000;0.1913;7.1377;
903.9000;0.1848;7.1166;
904.2000;0.1929;7.1236;
904.5000;0.1986;7.1283;
904.8000;0.1872;7.1142;
905.1000;0.1905;7.1354;
905.4000;0.1888;7.1354;
905.7000;0.1954;7.1495;
906.0000;0.1962;7.1636;
906.3000;0.1937;7.1589;
906.6000;0.1921;7.1613;
906.9000;0.1913;7.1472;
907.2000;0.1937;7.1589;
907.5000;0.1954;7.1589;
907.8000;0.1954;7.1519;
908.1000;0.1986;7.1519;
908.4000;0.2051;7.1636;
908.7000;0.1937;7.1354;
909.0000;0.1921;7.1401;
909.3000;0.1945;7.1401;
909.6000;0.1921;7.1401;
909.9000;0.1905;7.1330;
910.2000;0.1929;7.1472;
910.5000;0.1945;7.1495;
910.8000;0.1945;7.1566;
911.1000;0.1937;7.1519;
911.4000;0.1937;7.1495;
911.7000;0.1962;7.1472;
912.0000;0.1945;7.1472;
912.3000;0.1905;7.1377;
912.6000;0.1937;7.1424;
912.9000;0.1945;7.1448;
913.2000;0.1937;7.1424;
913.5000;0.1929;7.1424;
913.8000;0.1897;7.1283;
914.1000;0.1954;7.1377;
914.4000;0.1880;7.1166;
914.7000;0.1954;7.1377;
915.0000;0.1921;7.1307;
915.3000;0.1929;7.1424;
915.6000;0.1994;7.1613;
915.9000;0.2076;7.1871;
916.2000;0.2027;7.1754;
916.5000;0.1962;7.1519;
916.8000;0.1921;7.1377;
917.1000;0.1921;7.1424;
917.4000;0.1937;7.1472;
917.7000;0.1921;7.1542;
918.0000;0.1937;7.1495;
918.3000;0.1937;7.1495;
918.6000;0.1937;7.1472;
918.9000;0.1937;7.1495;
919.2000;0.2002;7.1542;
919.5000;0.1945;7.1472;
919.8000;0.1954;7.1613;
920.1000;0.1937;7.1542;
920.4000;0.1954;7.1566;
920.7000;0.1937;7.1401;
921.0000;0.2043;7.1636;
921.3000;0.1913;7.1354;
921.6000;0.1921;7.1377;
921.9000;0.1832;7.1166;
922.2000;0.1945;7.1566;
922.5000;0.1921;7.1424;
922.8000;0.1832;7.1283;
923.1000;0.1929;7.1424;
923.4000;0.1929;7.1495;
923.7000;0.1937;7.1472;
924.0000;0.1897;7.1424;
924.3000;0.1921;7.1495;
924.6000;0.1929;7.1519;
924.9000;0.1937;7.1519;
925.2000;0.1937;7.1613;
925.5000;0.1937;7.1566;
925.8000;0.1945;7.1448;
926.1000;0.1905;7.1330;
926.4000;0.1962;7.1472;
926.7000;0.1937;7.1377;
927.0000;0.1937;7.1354;
927.3000;0.1937;7.1354;
927.6000;0.1937;7.1424;
927.9000;0.1954;7.1519;
928.2000;0.1937;7.1424;
928.5000;0.1994;7.1519;
928.8000;0.1954;7.1448;
929.1000;0.1913;7.1377;
929.4000;0.1921;7.1260;
929.7000;0.1921;7.1260;
930.0000;0.1823;7.0978;
930.3000;0.1921;7.1354;
930.6000;0.1937;7.1448;
930.9000;0.1978;7.1472;
931.2000;0.1945;7.1307;
931.5000;0.1937;7.1213;
931.8000;0.1929;7.1213;
932.1000;0.1945;7.1236;
932.4000;0.2011;7.1377;
932.7000;0.1929;7.1260;
933.0000;0.1937;7.1166;
933.3000;0.1921;7.1213;
933.6000;0.1897;7.1283;
933.9000;0.1921;7.1377;
934.2000;0.1913;7.1424;
934.5000;0.1921;7.1519;
934.8000;0.1937;7.1495;
935.1000;0.1921;7.1424;
935.4000;0.1929;7.1448;
935.7000;0.1921;7.1377;
936.0000;0.2002;7.1519;
936.3000;0.1929;7.1330;
936.6000;0.1929;7.1377;
936.9000;0.1929;7.1472;
937.2000;0.1864;7.1354;
937.5000;0.1929;7.1472;
937.8000;0.1929;7.1566;
938.1000;0.1929;7.1519;
938.4000;0.1986;7.1707;
938.7000;0.1945;7.1566;
939.0000;0.1945;7.1613;
939.3000;0.1905;7.1566;
939.6000;0.1937;7.1613;
939.9000;0.1913;7.1542;
940.2000;0.1913;7.1472;
940.5000;0.1913;7.1542;
940.8000;0.1937;7.1542;
941.1000;0.1937;7.1424;
941.4000;0.1937;7.1354;
941.7000;0.1929;7.1354;
942.0000;0.1929;7.1377;
942.3000;0.1905;7.1283;
942.6000;0.1913;7.1307;
942.9000;0.1913;7.1307;
943.2000;0.1880;7.1283;
943.5000;0.1929;7.1448;
943.8000;0.1913;7.1354;
944.1000;0.1929;7.1401;
944.4000;0.1945;7.1495;
944.7000;0.1937;7.1542;
945.0000;0.1929;7.1542;
945.3000;0.1929;7.1472;
945.6000;0.2043;7.1754;
945.9000;0.1937;7.1542;
946.2000;0.1962;7.1542;
946.5000;0.1913;7.1424;
946.8000;0.1929;7.1472;
947.1000;0.1905;7.1377;
947.4000;0.1945;7.1424;
947.7000;0.1970;7.1448;
948.0000;0.1856;7.1166;
948.3000;0.1905;7.1307;
948.6000;0.1937;7.1377;
948.9000;0.1929;7.1330;
949.2000;0.1954;7.1330;
949.5000;0.1929;7.1189;
949.8000;0.1945;7.1213;
950.1000;0.1921;7.1189;
950.4000;0.1945;7.1283;
950.7000;0.1913;7.1330;
951.0000;0.1945;7.1424;
951.3000;0.1945;7.1354;
951.6000;0.1913;7.1354;
951.9000;0.1970;7.1472;
952.2000;0.1929;7.1401;
952.5000;0.1929;7.1330;
952.8000;0.1962;7.1377;
953.1000;0.1880;7.1213;
953.4000;0.1986;7.1495;
953.7000;0.1937;7.1354;
954.0000;0.1937;7.1354;
954.3000;0.1970;7.1424;
954.6000;0.1921;7.1260;
954.9000;0.1929;7.1189;
955.2000;0.1937;7.1260;
955.5000;0.1921;7.1213;
955.8000;0.1937;7.1283;
956.1000;0.1937;7.1213;
956.4000;0.1986;7.1189;
956.7000;0.1937;7.1189;
957.0000;0.1921;7.1236;
957.3000;0.1921;7.1236;
957.6000;0.1937;7.1213;
957.9000;0.1921;7.1213;
958.2000;0.1954;7.1377;
958.5000;0.1945;7.1283;
958.8000;0.1970;7.1307;
959.1000;0.1913;7.1283;
959.4000;0.1921;7.1213;
959.7000;0.1937;7.1283;
960.0000;0.1937;7.1260;
960.3000;0.1888;7.1166;
960.6000;0.1921;7.1283;
960.9000;0.1913;7.1260;
961.2000;0.1897;7.1119;
961.5000;0.1929;7.1260;
961.8000;0.1937;7.1307;
962.1000;0.1937;7.1377;
962.4000;0.1929;7.1401;
962.7000;0.1937;7.1283;
963.0000;0.1929;7.1307;
963.3000;0.1929;7.1142;
963.6000;0.1929;7.1189;
963.9000;0.1921;7.1189;
964.2000;0.1937;7.1283;
964.5000;0.1945;7.1330;
964.8000;0.1921;7.1260;
965.1000;0.1945;7.1307;
965.4000;0.1937;7.1283;
965.7000;0.1848;7.1025;
966.0000;0.1954;7.1213;
966.3000;0.1921;7.1236;
966.6000;0.1929;7.1330;
966.9000;0.1888;7.1213;
967.2000;0.1929;7.1260;
967.5000;0.1937;7.1189;
967.8000;0.1921;7.1142;
968.1000;0.1986;7.1260;
968.4000;0.1954;7.0978;
968.7000;0.1929;7.0954;
969.0000;0.1986;7.1119;
969.3000;0.1921;7.1095;
969.6000;0.1840;7.1025;
969.9000;0.1945;7.1236;
970.2000;0.1905;7.1236;
970.5000;0.1921;7.1260;
970.8000;0.1929;7.1213;
971.1000;0.1929;7.1213;
971.4000;0.1905;7.1025;
971.7000;0.1897;7.0978;
972.0000;0.1929;7.1095;
972.3000;0.1921;7.1166;
972.6000;0.1905;7.1189;
972.9000;0.1897;7.1095;
973.2000;0.1913;7.1189;
973.5000;0.1913;7.1142;
973.8000;0.1921;7.1213;
974.1000;0.1913;7.1260;
974.4000;0.1937;7.1260;
974.7000;0.1937;7.1213;
975.0000;0.1929;7.1236;
975.3000;0.1937;7.1260;
975.6000;0.1921;7.1330;
975.9000;0.1929;7.1354;
976.2000;0.1913;7.1354;
976.5000;0.1929;7.1377;
976.8000;0.1921;7.1283;
977.1000;0.1880;7.1166;
977.4000;0.1986;7.1401;
977.7000;0.1954;7.1377;
978.0000;0.1954;7.1424;
978.3000;0.1913;7.1213;
978.6000;0.1937;7.1354;
978.9000;0.1913;7.1330;
979.2000;0.1945;7.1377;
979.5000;0.1921;7.1307;
979.8000;0.1913;7.1260;
980.1000;0.1994;7.1519;
980.4000;0.1921;7.1260;
980.7000;0.1921;7.1189;
981.0000;0.1897;7.1166;
981.3000;0.1929;7.1236;
981.6000;0.1929;7.1189;
981.9000;0.1921;7.1166;
982.2000;0.1872;7.1072;
982.5000;0.1848;7.1119;
982.8000;0.1929;7.1401;
983.1000;0.1929;7.1401;
983.4000;0.1962;7.1424;
983.7000;0.1921;7.1377;
984.0000;0.1921;7.1424;
984.3000;0.1929;7.1472;
984.6000;0.1929;7.1495;
984.9000;0.1929;7.1495;
985.2000;0.1937;7.1377;
985.5000;0.1937;7.1377;
985.8000;0.1921;7.1448;
986.1000;0.1921;7.1472;
986.4000;0.1929;7.1519;
986.7000;0.1929;7.1472;
987.0000;0.1945;7.1495;
987.3000;0.1937;7.1401;
987.6000;0.1970;7.1448;
987.9000;0.1921;7.1283;
988.2000;0.1929;7.1213;
988.5000;0.1937;7.1189;
988.8000;0.1929;7.1307;
989.1000;0.1913;7.1307;
989.4000;0.1921;7.1330;
989.7000;0.1945;7.1424;
990.0000;0.1929;7.1377;
990.3000;0.1945;7.1330;
990.6000;0.1929;7.1377;
990.9000;0.1913;7.1377;
991.2000;0.1913;7.1424;
991.5000;0.1921;7.1424;
991.8000;0.1929;7.1424;
992.1000;0.1994;7.1660;
992.4000;0.1905;7.1519;
992.7000;0.1929;7.1566;
993.0000;0.1945;7.1613;
993.3000;0.1921;7.1683;
993.6000;0.1888;7.1495;
993.9000;0.1913;7.1519;
994.2000;0.1929;7.1519;
994.5000;0.1937;7.1495;
994.8000;0.1929;7.1448;
995.1000;0.1945;7.1495;
995.4000;0.1929;7.1448;
995.7000;0.1921;7.1424;
996.0000;0.1921;7.1566;
996.3000;0.1929;7.1519;
996.6000;0.1913;7.1448;
996.9000;0.1945;7.1589;
997.2000;0.1913;7.1519;
997.5000;0.1921;7.1542;
997.8000;0.1913;7.1566;
998.1000;0.2035;7.1730;
998.4000;0.1897;7.1472;
998.7000;0.1913;7.1377;
999.0000;0.1913;7.1354;
999.3000;0.1962;7.1424;
999.6000;0.1921;7.1307;
999.9000;0.1921;7.1260;
1000.2000;0.1937;7.1401;
1000.5000;0.1929;7.1401;
1000.8000;0.1937;7.1495;
1001.1000;0.1913;7.1401;
1001.4000;0.1913;7.1354;
1001.7000;0.1929;7.1354;
1002.0000;0.1921;7.1307;
1002.3000;0.1929;7.1307;
1002.6000;0.1937;7.1354;
1002.9000;0.1929;7.1472;
1003.2000;0.1921;7.1424;
1003.5000;0.1905;7.1424;
1003.8000;0.1921;7.1472;
1004.1000;0.1905;7.1472;
1004.4000;0.1913;7.1472;
1004.7000;0.1929;7.1401;
1005.0000;0.1937;7.1330;
1005.3000;0.1945;7.1330;
1005.6000;0.1880;7.1283;
1005.9000;0.1954;7.1613;
1006.2000;0.1913;7.1495;
1006.5000;0.1921;7.1519;
1006.8000;0.1921;7.1424;
1007.1000;0.1929;7.1519;
1007.4000;0.1945;7.1566;
1007.7000;0.1937;7.1519;
1008.0000;0.1921;7.1472;
1008.3000;0.1897;7.1307;
1008.6000;0.1929;7.1472;
1008.9000;0.1945;7.1472;
1009.2000;0.1945;7.1448;
1009.5000;0.1929;7.1377;
1009.8000;0.1921;7.1377;
1010.1000;0.1921;7.1401;
1010.4000;0.1921;7.1424;
1010.7000;0.1929;7.1448;
1011.0000;0.1921;7.1354;
1011.3000;0.1929;7.1260;
1011.6000;0.1888;7.1260;
1011.9000;0.1929;7.1401;
1012.2000;0.1929;7.1377;
1012.5000;0.1921;7.1401;
1012.8000;0.2076;7.1730;
1013.1000;0.1864;7.1213;
1013.4000;0.1921;7.1495;
1013.7000;0.1921;7.1401;
1014.0000;0.1921;7.1401;
1014.3000;0.1921;7.1401;
1014.6000;0.1921;7.1377;
1014.9000;0.1929;7.1401;
1015.2000;0.1921;7.1377;
1015.5000;0.1905;7.1354;
1015.8000;0.1913;7.1377;
1016.1000;0.1913;7.1448;
1016.4000;0.1905;7.1472;
1016.7000;0.1945;7.1519;
1017.0000;0.1921;7.1424;
1017.3000;0.1913;7.1354;
1017.6000;0.1905;7.1448;
1017.9000;0.1888;7.1354;
1018.2000;0.1913;7.1472;
1018.5000;0.1978;7.1636;
1018.8000;0.1905;7.1448;
1019.1000;0.1913;7.1448;
1019.4000;0.1823;7.1236;
1019.7000;0.1905;7.1424;
1020.0000;0.1986;7.1636;
1020.3000;0.1913;7.1354;
1020.6000;0.1872;7.1189;
1020.9000;0.1937;7.1307;
1021.2000;0.1921;7.1377;
1021.5000;0.1978;7.1613;
1021.8000;0.1929;7.1660;
1022.1000;0.1897;7.1636;
1022.4000;0.2002;7.1824;
1022.7000;0.1937;7.1660;
1023.0000;0.1970;7.1730;
1023.3000;0.1905;7.1472;
1023.6000;0.1929;7.1542;
1023.9000;0.1905;7.1448;
1024.2000;0.1929;7.1448;
1024.5000;0.1872;7.1330;
1024.8000;0.1937;7.1519;
1025.1000;0.1905;7.1495;
1025.4000;0.1880;7.1401;
1025.7000;0.1913;7.1472;
1026.0000;0.1937;7.1472;
1026.3000;0.1856;7.1307;
1026.6000;0.1913;7.1401;
1026.9000;0.1937;7.1472;
1027.2000;0.1954;7.1495;
1027.5000;0.1929;7.1472;
1027.8000;0.1954;7.1566;
1028.1000;0.1945;7.1613;
1028.4000;0.1937;7.1636;
1028.7000;0.1937;7.1519;
1029.0000;0.1929;7.1472;
1029.3000;0.1913;7.1566;
1029.6000;0.1905;7.1613;
1029.9000;0.1929;7.1730;
1030.2000;0.1921;7.1707;
1030.5000;0.1929;7.1683;
1030.8000;0.1832;7.1354;
1031.1000;0.1937;7.1660;
1031.4000;0.1945;7.1589;
1031.7000;0.1937;7.1636;
1032.0000;0.1913;7.1660;
1032.3000;0.1921;7.1660;
1032.6000;0.1937;7.1754;
1032.9000;0.1929;7.1707;
1033.2000;0.1921;7.1707;
1033.5000;0.1937;7.1777;
1033.8000;0.1970;7.1895;
1034.1000;0.1937;7.1754;
1034.4000;0.1929;7.1754;
1034.7000;0.1929;7.1707;
1035.0000;0.1929;7.1613;
1035.3000;0.1929;7.1683;
1035.6000;0.1905;7.1683;
1035.9000;0.1897;7.1754;
1036.2000;0.1921;7.1754;
1036.5000;0.1945;7.1730;
1036.8000;0.1840;7.1566;
1037.1000;0.1945;7.1918;
1037.4000;0.1945;7.1895;
1037.7000;0.1945;7.1777;
1038.0000;0.1856;7.1566;
1038.3000;0.1897;7.1707;
1038.6000;0.1954;7.1848;
1038.9000;0.1937;7.1683;
1039.2000;0.1905;7.1613;
1039.5000;0.1921;7.1683;
1039.8000;0.1921;7.1683;
1040.1000;0.1921;7.1754;
1040.4000;0.1954;7.1848;
1040.7000;0.1897;7.1707;
1041.0000;0.1905;7.1730;
1041.3000;0.1954;7.1871;
1041.6000;0.1897;7.1730;
1041.9000;0.1954;7.1824;
1042.2000;0.1962;7.1801;
1042.5000;0.1913;7.1636;
1042.8000;0.1929;7.1542;
1043.1000;0.1888;7.1495;
1043.4000;0.1888;7.1424;
1043.7000;0.1929;7.1472;
1044.0000;0.1913;7.1495;
1044.3000;0.1913;7.1424;
1044.6000;0.1888;7.1424;
1044.9000;0.1945;7.1542;
1045.2000;0.1856;7.1307;
1045.5000;0.1937;7.1495;
1045.8000;0.1929;7.1542;
1046.1000;0.1880;7.1377;
1046.4000;0.1962;7.1660;
1046.7000;0.1929;7.1542;
1047.0000;0.1937;7.1542;
1047.3000;0.1945;7.1589;
1047.6000;0.1937;7.1566;
1047.9000;0.1945;7.1660;
1048.2000;0.1954;7.1566;
1048.5000;0.1888;7.1401;
1048.8000;0.1921;7.1424;
1049.1000;0.1913;7.1424;
1049.4000;0.1921;7.1424;
1049.7000;0.1929;7.1377;
1050.0000;0.1929;7.1448;
1050.3000;0.1913;7.1448;
1050.6000;0.1921;7.1401;
1050.9000;0.1921;7.1472;
1051.2000;0.1921;7.1519;
1051.5000;0.1897;7.1519;
1051.8000;0.1905;7.1472;
1052.1000;0.1937;7.1636;
1052.4000;0.1929;7.1683;
1052.7000;0.1937;7.1660;
1053.0000;0.1937;7.1660;
1053.3000;0.1913;7.1542;
1053.6000;0.1905;7.1542;
1053.9000;0.1897;7.1472;
1054.2000;0.1905;7.1448;
1054.5000;0.1913;7.1519;
1054.8000;0.1937;7.1589;
1055.1000;0.1905;7.1589;
1055.4000;0.1864;7.1495;
1055.7000;0.1913;7.1566;
1056.0000;0.1897;7.1613;
1056.3000;0.1913;7.1730;
1056.6000;0.1929;7.1777;
1056.9000;0.1921;7.1730;
1057.2000;0.1905;7.1777;
1057.5000;0.1945;7.1895;
1057.8000;0.1970;7.1918;
1058.1000;0.1937;7.1848;
1058.4000;0.1921;7.1777;
1058.7000;0.2035;7.2059;
1059.0000;0.1856;7.1613;
1059.3000;0.1921;7.1660;
1059.6000;0.1888;7.1613;
1059.9000;0.1905;7.1613;
1060.2000;0.1921;7.1566;
1060.5000;0.1897;7.1519;
1060.8000;0.1970;7.1589;
1061.1000;0.1921;7.1495;
1061.4000;0.1929;7.1542;
1061.7000;0.1945;7.1613;
1062.0000;0.1913;7.1660;
1062.3000;0.1897;7.1707;
1062.6000;0.1929;7.1824;
1062.9000;0.1978;7.1942;
1063.2000;0.1913;7.1730;
1063.5000;0.1913;7.1754;
1063.8000;0.1913;7.1777;
1064.1000;0.1929;7.1707;
1064.4000;0.1929;7.1683;
1064.7000;0.1913;7.1707;
1065.0000;0.1897;7.1589;
1065.3000;0.1897;7.1589;
1065.6000;0.1905;7.1660;
1065.9000;0.1937;7.1730;
1066.2000;0.1921;7.1683;
1066.5000;0.1905;7.1589;
1066.8000;0.1913;7.1542;
1067.1000;0.1929;7.1589;
1067.4000;0.1921;7.1660;
1067.7000;0.1905;7.1660;
1068.0000;0.1937;7.1801;
1068.3000;0.1921;7.1683;
1068.6000;0.1913;7.1683;
1068.9000;0.1913;7.1707;
1069.2000;0.1913;7.1613;
1069.5000;0.1921;7.1566;
1069.8000;0.1913;7.1566;
1070.1000;0.1856;7.1519;
1070.4000;0.1929;7.1613;
1070.7000;0.1913;7.1660;
1071.0000;0.1929;7.1801;
1071.3000;0.1978;7.1989;
1071.6000;0.1921;7.1942;
1071.9000;0.1921;7.1989;
1072.2000;0.1970;7.1989;
1072.5000;0.1872;7.1660;
1072.8000;0.1913;7.1707;
1073.1000;0.1929;7.1730;
1073.4000;0.1921;7.1613;
1073.7000;0.1921;7.1730;
1074.0000;0.1929;7.1801;
1074.3000;0.1937;7.1895;
1074.6000;0.1921;7.1848;
1074.9000;0.1905;7.1801;
1075.2000;0.1929;7.1848;
1075.5000;0.1929;7.1801;
1075.8000;0.1921;7.1777;
1076.1000;0.1929;7.1754;
1076.4000;0.1913;7.1683;
1076.7000;0.1937;7.1683;
1077.0000;0.1929;7.1636;
1077.3000;0.1913;7.1613;
1077.6000;0.1921;7.1660;
1077.9000;0.1913;7.1589;
1078.2000;0.1913;7.1636;
1078.5000;0.1888;7.1519;
1078.8000;0.1913;7.1613;
1079.1000;0.1921;7.1566;
1079.4000;0.1929;7.1519;
1079.7000;0.1929;7.1660;
1080.0000;0.1905;7.1636;
1080.3000;0.1921;7.1636;
1080.6000;0.1921;7.1589;
1080.9000;0.1921;7.1613;
1081.2000;0.1937;7.1613;
1081.5000;0.1929;7.1589;
1081.8000;0.1929;7.1566;
1082.1000;0.1986;7.1730;
1082.4000;0.1929;7.1519;
1082.7000;0.1929;7.1613;
1083.0000;0.1937;7.1730;
1083.3000;0.1954;7.1730;
1083.6000;0.1937;7.1777;
1083.9000;0.1905;7.1707;
1084.2000;0.1929;7.1754;
1084.5000;0.1945;7.1777;
1084.8000;0.1929;7.1777;
1085.1000;0.1970;7.1965;
1085.4000;0.1913;7.1871;
1085.7000;0.1905;7.1871;
1086.0000;0.1929;7.1942;
1086.3000;0.1913;7.1848;
1086.6000;0.1913;7.1895;
1086.9000;0.1937;7.1824;
1087.2000;0.1921;7.1871;
1087.5000;0.1929;7.1824;
1087.8000;0.1921;7.1777;
1088.1000;0.1897;7.1613;
1088.4000;0.1929;7.1683;
1088.7000;0.1921;7.1707;
1089.0000;0.1929;7.1707;
1089.3000;0.1921;7.1730;
1089.6000;0.1929;7.1683;
1089.9000;0.1913;7.1683;
1090.2000;0.1905;7.1660;
1090.5000;0.1929;7.1754;
1090.8000;0.1937;7.1777;
1091.1000;0.1929;7.1754;
1091.4000;0.1929;7.1871;
1091.7000;0.1913;7.1895;
1092.0000;0.1897;7.1871;
1092.3000;0.1954;7.1871;
1092.6000;0.1913;7.1777;
1092.9000;0.1921;7.1754;
1093.2000;0.1945;7.1824;
1093.5000;0.1978;7.1871;
1093.8000;0.1929;7.1848;
1094.1000;0.1905;7.1871;
1094.4000;0.1921;7.1918;
1094.7000;0.1888;7.1895;
1095.0000;0.1905;7.1989;
1095.3000;0.1897;7.1918;
1095.6000;0.1921;7.1942;
1095.9000;0.1913;7.1824;
1096.2000;0.1905;7.1848;
1096.5000;0.1929;7.1871;
1096.8000;0.1929;7.1895;
1097.1000;0.1913;7.1777;
1097.4000;0.1962;7.1918;
1097.7000;0.1945;7.1871;
1098.0000;0.1937;7.1871;
1098.3000;0.1921;7.1871;
1098.6000;0.1921;7.1942;
1098.9000;0.1913;7.1989;
1099.2000;0.1921;7.1965;
1099.5000;0.1897;7.2012;
1099.8000;0.1864;7.1801;
1100.1000;0.1913;7.1942;
1100.4000;0.1897;7.1965;
1100.7000;0.2019;7.2177;
1101.0000;0.1954;7.1965;
1101.3000;0.1913;7.1942;
1101.6000;0.1905;7.1942;
1101.9000;0.1921;7.1942;
1102.2000;0.1929;7.1942;
1102.5000;0.1921;7.1848;
1102.8000;0.1905;7.1848;
1103.1000;0.1954;7.1989;
1103.4000;0.1929;7.2036;
1103.7000;0.1929;7.2083;
1104.0000;0.1897;7.2036;
1104.3000;0.1921;7.2083;
1104.6000;0.1929;7.2130;
1104.9000;0.1913;7.2130;
1105.2000;0.1929;7.2107;
1105.5000;0.1913;7.1918;
1105.8000;0.1921;7.1871;
1106.1000;0.1823;7.1589;
1106.4000;0.1929;7.1871;
1106.7000;0.1897;7.1824;
1107.0000;0.1921;7.1848;
1107.3000;0.1945;7.1871;
1107.6000;0.2035;7.2154;
1107.9000;0.1905;7.1918;
1108.2000;0.1970;7.1989;
1108.5000;0.1929;7.1895;
1108.8000;0.1905;7.1824;
1109.1000;0.1929;7.1895;
1109.4000;0.1921;7.1895;
1109.7000;0.1962;7.1965;
1110.0000;0.1921;7.1918;
1110.3000;0.1913;7.1848;
1110.6000;0.1913;7.1895;
1110.9000;0.1937;7.2036;
1111.2000;0.1921;7.1918;
1111.5000;0.1921;7.1942;
1111.8000;0.1905;7.1965;
1112.1000;0.1897;7.2036;
1112.4000;0.1921;7.2059;
1112.7000;0.1921;7.2012;
1113.0000;0.1929;7.1942;
1113.3000;0.1872;7.1683;
1113.6000;0.1954;7.1942;
1113.9000;0.1905;7.1754;
1114.2000;0.1929;7.1777;
1114.5000;0.1823;7.1589;
1114.8000;0.1954;7.1895;
1115.1000;0.1905;7.1824;
1115.4000;0.1888;7.1824;
1115.7000;0.1929;7.1895;
1116.0000;0.1905;7.1801;
1116.3000;0.1945;7.1824;
1116.6000;0.1937;7.1871;
1116.9000;0.1913;7.1848;
1117.2000;0.1954;7.1965;
1117.5000;0.2027;7.2059;
1117.8000;0.1945;7.1730;
1118.1000;0.1921;7.1636;
1118.4000;0.1913;7.1730;
1118.7000;0.1978;7.1918;
1119.0000;0.1937;7.1871;
1119.3000;0.1921;7.1871;
1119.6000;0.1913;7.1918;
1119.9000;0.1864;7.1777;
1120.2000;0.1905;7.1777;
1120.5000;0.1937;7.1824;
1120.8000;0.1929;7.1871;
1121.1000;0.1937;7.1824;
1121.4000;0.1929;7.1801;
1121.7000;0.1945;7.1848;
1122.0000;0.1929;7.1707;
1122.3000;0.1929;7.1730;
1122.6000;0.1888;7.1754;
1122.9000;0.1905;7.1895;
1123.2000;0.1921;7.1848;
1123.5000;0.2035;7.2201;
1123.8000;0.1945;7.1871;
1124.1000;0.1929;7.1683;
1124.4000;0.1880;7.1589;
1124.7000;0.1905;7.1636;
1125.0000;0.1921;7.1683;
1125.3000;0.1921;7.1707;
1125.6000;0.1905;7.1636;
1125.9000;0.1905;7.1707;
1126.2000;0.1913;7.1754;
1126.5000;0.1921;7.1871;
1126.8000;0.1848;7.1707;
1127.1000;0.1913;7.1824;
1127.4000;0.2019;7.2107;
1127.7000;0.1913;7.1942;
1128.0000;0.1929;7.1965;
1128.3000;0.1929;7.1895;
1128.6000;0.1929;7.1918;
1128.9000;0.1921;7.1871;
1129.2000;0.1880;7.1848;
1129.5000;0.1921;7.1918;
1129.8000;0.1921;7.1918;
1130.1000;0.1929;7.1918;
1130.4000;0.1897;7.1895;
1130.7000;0.1929;7.1871;
1131.0000;0.1913;7.1683;
1131.3000;0.1913;7.1754;
1131.6000;0.1945;7.1824;
1131.9000;0.1913;7.1660;
1132.2000;0.1929;7.1801;
1132.5000;0.1913;7.1824;
1132.8000;0.1937;7.1871;
1133.1000;0.1913;7.1777;
1133.4000;0.1921;7.1801;
1133.7000;0.1921;7.1871;
1134.0000;0.1905;7.1895;
1134.3000;0.1929;7.1942;
1134.6000;0.1929;7.1871;
1134.9000;0.1905;7.1871;
1135.2000;0.1913;7.1895;
1135.5000;0.1929;7.1871;
1135.8000;0.1929;7.1942;
1136.1000;0.1897;7.1871;
1136.4000;0.1913;7.1918;
1136.7000;0.1905;7.1895;
1137.0000;0.1937;7.1777;
1137.3000;0.1970;7.1777;
1137.6000;0.1905;7.1683;
1137.9000;0.1970;7.1754;
1138.2000;0.1937;7.1660;
1138.5000;0.1905;7.1636;
1138.8000;0.1954;7.1777;
1139.1000;0.1905;7.1636;
1139.4000;0.1913;7.1707;
1139.7000;0.1929;7.1683;
1140.0000;0.1913;7.1660;
1140.3000;0.1913;7.1730;
1140.6000;0.1921;7.1636;
1140.9000;0.1913;7.1542;
1141.2000;0.1913;7.1566;
1141.5000;0.1970;7.1707;
1141.8000;0.1913;7.1660;
1142.1000;0.1913;7.1660;
1142.4000;0.1913;7.1660;
1142.7000;0.1913;7.1683;
1143.0000;0.1937;7.1895;
1143.3000;0.1913;7.1824;
1143.6000;0.1888;7.1801;
1143.9000;0.1937;7.1895;
1144.2000;0.1970;7.1965;
1144.5000;0.1921;7.1730;
1144.8000;0.1905;7.1730;
1145.1000;0.1905;7.1777;
1145.4000;0.1840;7.1707;
1145.7000;0.1888;7.1824;
1146.0000;0.1905;7.1801;
1146.3000;0.1888;7.1777;
1146.6000;0.1913;7.1777;
1146.9000;0.1929;7.1848;
1147.2000;0.1954;7.1848;
1147.5000;0.1921;7.1707;
1147.8000;0.1905;7.1707;
1148.1000;0.1929;7.1824;
1148.4000;0.1929;7.1824;
1148.7000;0.1913;7.1707;
1149.0000;0.1921;7.1683;
1149.3000;0.1929;7.1730;
1149.6000;0.1929;7.1754;
1149.9000;0.1913;7.1848;
1150.2000;0.1954;7.1918;
1150.5000;0.1929;7.1848;
1150.8000;0.1921;7.1824;
1151.1000;0.1913;7.1824;
1151.4000;0.1937;7.1918;
1151.7000;0.1954;7.1918;
1152.0000;0.1937;7.1871;
1152.3000;0.1945;7.1848;
1152.6000;0.1978;7.2012;
1152.9000;0.1872;7.1660;
1153.2000;0.2035;7.2130;
1153.5000;0.1929;7.1918;
1153.8000;0.1905;7.1777;
1154.1000;0.1913;7.1777;
1154.4000;0.1905;7.1683;
1154.7000;0.1937;7.1683;
1155.0000;0.1807;7.1424;
1155.3000;0.1905;7.1683;
1155.6000;0.1921;7.1848;
1155.9000;0.1970;7.1777;
1156.2000;0.1913;7.1660;
1156.5000;0.1905;7.1636;
1156.8000;0.1913;7.1683;
1157.1000;0.1913;7.1707;
1157.4000;0.1897;7.1683;
1157.7000;0.1913;7.1707;
1158.0000;0.1937;7.1754;
1158.3000;0.1921;7.1848;
1158.6000;0.1929;7.1848;
1158.9000;0.1913;7.1730;
1159.2000;0.1905;7.1777;
1159.5000;0.1921;7.1848;
1159.8000;0.1921;7.1801;
1160.1000;0.1905;7.1730;
1160.4000;0.1913;7.1660;
1160.7000;0.1905;7.1683;
1161.0000;0.1937;7.1801;
1161.3000;0.1905;7.1636;
1161.6000;0.1921;7.1707;
1161.9000;0.1921;7.1777;
1162.2000;0.1823;7.1495;
1162.5000;0.1937;7.1730;
1162.8000;0.1921;7.1683;
1163.1000;0.1921;7.1660;
1163.4000;0.1937;7.1636;
1163.7000;0.1913;7.1589;
1164.0000;0.1913;7.1589;
1164.3000;0.1921;7.1589;
1164.6000;0.1937;7.1566;
1164.9000;0.1921;7.1589;
1165.2000;0.1888;7.1589;
1165.5000;0.1897;7.1472;
1165.8000;0.1913;7.1589;
1166.1000;0.1905;7.1589;
1166.4000;0.1897;7.1613;
1166.7000;0.1937;7.1754;
1167.0000;0.1905;7.1636;
1167.3000;0.1937;7.1683;
1167.6000;0.1921;7.1683;
1167.9000;0.1937;7.1707;
1168.2000;0.1905;7.1683;
1168.5000;0.1921;7.1683;
1168.8000;0.1913;7.1730;
1169.1000;0.1913;7.1707;
1169.4000;0.1921;7.1754;
1169.7000;0.1921;7.1730;
1170.0000;0.1913;7.1660;
1170.3000;0.1970;7.1895;
1170.6000;0.1913;7.1777;
1170.9000;0.1937;7.1824;
1171.2000;0.2011;7.1918;
1171.5000;0.1905;7.1707;
1171.8000;0.1921;7.1871;
1172.1000;0.1921;7.1801;
1172.4000;0.1945;7.1730;
1172.7000;0.1913;7.1683;
1173.0000;0.1929;7.1683;
1173.3000;0.1905;7.1730;
1173.6000;0.1929;7.1848;
1173.9000;0.1937;7.1942;
1174.2000;0.1937;7.2012;
1174.5000;0.1905;7.1989;
1174.8000;0.1897;7.1989;
1175.1000;0.1921;7.1989;
1175.4000;0.1945;7.1918;
1175.7000;0.1921;7.1871;
1176.0000;0.1921;7.1918;
1176.3000;0.1905;7.1824;
1176.6000;0.1856;7.1613;
1176.9000;0.1970;7.1824;
1177.2000;0.1937;7.1777;
1177.5000;0.1864;7.1636;
1177.8000;0.1880;7.1707;
1178.1000;0.1848;7.1613;
1178.4000;0.1937;7.1777;
1178.7000;0.1921;7.1754;
1179.0000;0.1913;7.1730;
1179.3000;0.1848;7.1589;
1179.6000;0.1897;7.1777;
1179.9000;0.1954;7.1824;
1180.2000;0.1905;7.1754;
1180.5000;0.1897;7.1754;
1180.8000;0.1905;7.1777;
1181.1000;0.1921;7.1777;
1181.4000;0.1897;7.1660;
1181.7000;0.1880;7.1589;
1182.0000;0.1888;7.1730;
1182.3000;0.1929;7.1801;
1182.6000;0.1937;7.1871;
1182.9000;0.1913;7.1895;
1183.2000;0.1929;7.1895;
1183.5000;0.1921;7.1918;
1183.8000;0.1921;7.1871;
1184.1000;0.1921;7.1918;
1184.4000;0.1921;7.1989;
1184.7000;0.1921;7.1965;
1185.0000;0.1937;7.1942;
1185.3000;0.1880;7.1824;
1185.6000;0.1913;7.1824;
1185.9000;0.1921;7.1801;
1186.2000;0.1913;7.1730;
1186.5000;0.1897;7.1683;
1186.8000;0.1921;7.1730;
1187.1000;0.1954;7.1871;
1187.4000;0.1945;7.1965;
1187.7000;0.1937;7.1918;
1188.0000;0.1937;7.1871;
1188.3000;0.1994;7.2012;
1188.6000;0.1937;7.1895;
1188.9000;0.1921;7.1801;
1189.2000;0.1921;7.1754;
1189.5000;0.1921;7.1777;
1189.8000;0.1921;7.1848;
1190.1000;0.1913;7.1801;
1190.4000;0.1937;7.1848;
1190.7000;0.1864;7.1636;
1191.0000;0.1905;7.1660;
1191.3000;0.1888;7.1589;
1191.6000;0.1954;7.1754;
1191.9000;0.1897;7.1566;
1192.2000;0.1897;7.1495;
1192.5000;0.1929;7.1683;
1192.8000;0.1929;7.1707;
1193.1000;0.1921;7.1542;
1193.4000;0.1905;7.1589;
1193.7000;0.1954;7.1707;
1194.0000;0.1929;7.1730;
1194.3000;0.1921;7.1824;
1194.6000;0.1913;7.1824;
1194.9000;0.1921;7.1777;
1195.2000;0.1832;7.1613;
1195.5000;0.1921;7.1824;
1195.8000;0.1929;7.1871;
1196.1000;0.1970;7.1942;
1196.4000;0.1929;7.1895;
1196.7000;0.1929;7.1895;
1197.0000;0.1921;7.1895;
1197.3000;0.1913;7.1918;
1197.6000;0.1929;7.1942;
1197.9000;0.1913;7.1895;
1198.2000;0.1897;7.1942;
1198.5000;0.1905;7.1942;
1198.8000;0.1905;7.1965;
1199.1000;0.1929;7.2059;
1199.4000;0.1880;7.2036;
1199.7000;0.1905;7.2012;
1200.0000;0.1929;7.1965;
1200.3000;0.1921;7.2012;
1200.6000;0.1905;7.1965;
1200.9000;0.1921;7.1989;
1201.2000;0.1888;7.2012;
1201.5000;0.1913;7.2083;
1201.8000;0.1929;7.2154;
1202.1000;0.1905;7.2083;
1202.4000;0.1921;7.1989;
1202.7000;0.1945;7.1989;
1203.0000;0.1929;7.1965;
1203.3000;0.1921;7.1989;
1203.6000;0.1921;7.1989;
1203.9000;0.1937;7.1942;
1204.2000;0.1937;7.1918;
1204.5000;0.1913;7.1895;
1204.8000;0.1872;7.1824;
1205.1000;0.1905;7.1942;
1205.4000;0.1945;7.1918;
1205.7000;0.1921;7.1801;
1206.0000;0.1913;7.1895;
1206.3000;0.1880;7.1754;
1206.6000;0.1897;7.1777;
1206.9000;0.1913;7.1824;
1207.2000;0.1921;7.1871;
1207.5000;0.1897;7.1918;
1207.8000;0.1905;7.1895;
1208.1000;0.1897;7.1871;
1208.4000;0.1897;7.1918;
1208.7000;0.1929;7.1942;
1209.0000;0.1921;7.1965;
1209.3000;0.1978;7.2036;
1209.6000;0.1905;7.1801;
1209.9000;0.1880;7.1754;
1210.2000;0.1921;7.1777;
1210.5000;0.2027;7.2036;
1210.8000;0.1913;7.1777;
1211.1000;0.1913;7.1777;
1211.4000;0.1921;7.1777;
1211.7000;0.1905;7.1683;
1212.0000;0.1897;7.1754;
1212.3000;0.1929;7.1801;
1212.6000;0.1921;7.1777;
1212.9000;0.1921;7.1871;
1213.2000;0.1897;7.1777;
1213.5000;0.1880;7.1824;
1213.8000;0.1937;7.1965;
1214.1000;0.1913;7.1965;
1214.4000;0.1880;7.1848;
1214.7000;0.1905;7.1989;
1215.0000;0.1905;7.2036;
1215.3000;0.1921;7.2083;
1215.6000;0.1913;7.1965;
1215.9000;0.1913;7.1871;
1216.2000;0.1897;7.1801;
1216.5000;0.1888;7.1730;
1216.8000;0.1921;7.1707;
1217.1000;0.1962;7.1824;
1217.4000;0.1905;7.1754;
1217.7000;0.1913;7.1754;
1218.0000;0.1815;7.1542;
1218.3000;0.1986;7.1965;
1218.6000;0.1897;7.1777;
1218.9000;0.1921;7.1730;
1219.2000;0.1921;7.1801;
1219.5000;0.1905;7.1824;
1219.8000;0.1937;7.1918;
1220.1000;0.1897;7.1824;
1220.4000;0.1913;7.1848;
1220.7000;0.1913;7.1777;
1221.0000;0.1905;7.1895;
1221.3000;0.1905;7.1871;
1221.6000;0.1897;7.1801;
1221.9000;0.1913;7.1777;
1222.2000;0.1888;7.1730;
1222.5000;0.1913;7.1777;
1222.8000;0.1978;7.1918;
1223.1000;0.1937;7.1895;
1223.4000;0.1937;7.1871;
1223.7000;0.1994;7.1989;
1224.0000;0.1888;7.1801;
1224.3000;0.1913;7.1777;
1224.6000;0.1913;7.1824;
1224.9000;0.1905;7.1801;
1225.2000;0.1905;7.1777;
1225.5000;0.1905;7.1801;
1225.8000;0.1872;7.1754;
1226.1000;0.1897;7.1918;
1226.4000;0.1913;7.1801;
1226.7000;0.1937;7.1871;
1227.0000;0.1905;7.1777;
1227.3000;0.1897;7.1754;
1227.6000;0.1897;7.1895;
1227.9000;0.1970;7.2036;
1228.2000;0.1848;7.1777;
1228.5000;0.1905;7.1918;
1228.8000;0.1905;7.1918;
1229.1000;0.1888;7.1824;
1229.4000;0.1921;7.1824;
1229.7000;0.1921;7.1777;
1230.0000;0.1897;7.1683;
1230.3000;0.1962;7.1777;
1230.6000;0.1913;7.1754;
1230.9000;0.1929;7.1918;
1231.2000;0.1921;7.1989;
1231.5000;0.1962;7.2036;
1231.8000;0.1929;7.2012;
1232.1000;0.1905;7.1942;
1232.4000;0.1921;7.1871;
1232.7000;0.1864;7.1730;
1233.0000;0.1913;7.1871;
1233.3000;0.1921;7.1918;
1233.6000;0.1921;7.1965;
1233.9000;0.1913;7.1965;
1234.2000;0.1880;7.1824;
1234.5000;0.1880;7.1777;
1234.8000;0.1897;7.1895;
1235.1000;0.1929;7.1989;
1235.4000;0.1970;7.2083;
1235.7000;0.1921;7.1965;
1236.0000;0.1913;7.1918;
1236.3000;0.1880;7.1777;
1236.6000;0.1913;7.1801;
1236.9000;0.1913;7.1730;
1237.2000;0.1921;7.1589;
1237.5000;0.1921;7.1660;
1237.8000;0.1905;7.1660;
1238.1000;0.1921;7.1754;
1238.4000;0.1929;7.1777;
1238.7000;0.1921;7.1801;
1239.0000;0.1913;7.1730;
1239.3000;0.1913;7.1801;
1239.6000;0.1913;7.1848;
1239.9000;0.1905;7.1801;
1240.2000;0.1921;7.1777;
1240.5000;0.1905;7.1754;
1240.8000;0.1921;7.1801;
1241.1000;0.1913;7.1730;
1241.4000;0.1921;7.1683;
1241.7000;0.1929;7.1707;
1242.0000;0.1880;7.1566;
1242.3000;0.1929;7.1613;
1242.6000;0.1905;7.1613;
1242.9000;0.1937;7.1707;
1243.2000;0.1921;7.1542;
1243.5000;0.1921;7.1566;
1243.8000;0.1888;7.1589;
1244.1000;0.1905;7.1683;
1244.4000;0.1905;7.1801;
1244.7000;0.1888;7.1754;
1245.0000;0.1945;7.1824;
1245.3000;0.1905;7.1707;
1245.6000;0.1905;7.1660;
1245.9000;0.1905;7.1730;
1246.2000;0.1929;7.1801;
1246.5000;0.1913;7.1754;
1246.8000;0.1888;7.1660;
1247.1000;0.1848;7.1589;
1247.4000;0.1921;7.1777;
1247.7000;0.1913;7.1848;
1248.0000;0.1905;7.1777;
1248.3000;0.1913;7.1683;
1248.6000;0.1913;7.1636;
1248.9000;0.1913;7.1636;
1249.2000;0.1954;7.1707;
1249.5000;0.1929;7.1707;
1249.8000;0.1897;7.1613;
1250.1000;0.1897;7.1589;
1250.4000;0.1913;7.1566;
1250.7000;0.1945;7.1707;
1251.0000;0.1864;7.1613;
1251.3000;0.1913;7.1730;
1251.6000;0.1905;7.1683;
1251.9000;0.1840;7.1519;
1252.2000;0.1905;7.1707;
1252.5000;0.1921;7.1754;
1252.8000;0.1929;7.1754;
1253.1000;0.1905;7.1683;
1253.4000;0.1921;7.1707;
1253.7000;0.1929;7.1777;
1254.0000;0.1888;7.1730;
1254.3000;0.1962;7.1848;
1254.6000;0.1913;7.1707;
1254.9000;0.1929;7.1848;
1255.2000;0.1864;7.1824;
1255.5000;0.1913;7.1895;
1255.8000;0.1921;7.1895;
1256.1000;0.1888;7.1848;
1256.4000;0.1921;7.1871;
1256.7000;0.1913;7.1824;
1257.0000;0.1905;7.1824;
1257.3000;0.1954;7.1871;
1257.6000;0.1905;7.1801;
1257.9000;0.1921;7.1824;
1258.2000;0.1929;7.1871;
1258.5000;0.1937;7.1848;
1258.8000;0.1937;7.1801;
1259.1000;0.1913;7.1730;
1259.4000;0.1921;7.1801;
1259.7000;0.1905;7.1730;
1260.0000;0.1921;7.1754;
1260.3000;0.1913;7.1801;
1260.6000;0.1913;7.1754;
1260.9000;0.1929;7.1777;
1261.2000;0.1945;7.1965;
1261.5000;0.1913;7.1895;
1261.8000;0.1929;7.1918;
1262.1000;0.1897;7.1848;
1262.4000;0.1840;7.1683;
1262.7000;0.1880;7.1683;
1263.0000;0.1929;7.1801;
1263.3000;0.1888;7.1777;
1263.6000;0.1897;7.1848;
1263.9000;0.1905;7.1848;
1264.2000;0.1888;7.1730;
1264.5000;0.1905;7.1824;
1264.8000;0.1913;7.1848;
1265.1000;0.1897;7.1871;
1265.4000;0.1897;7.1801;
1265.7000;0.1888;7.1707;
1266.0000;0.1872;7.1683;
1266.3000;0.1897;7.1777;
1266.6000;0.1913;7.1777;
1266.9000;0.1905;7.1918;
1267.2000;0.1913;7.1918;
1267.5000;0.1905;7.1942;
1267.8000;0.1921;7.1989;
1268.1000;0.1872;7.1777;
1268.4000;0.1913;7.1801;
1268.7000;0.1913;7.1824;
1269.0000;0.1880;7.1660;
1269.3000;0.1913;7.1683;
1269.6000;0.1921;7.1754;
1269.9000;0.1864;7.1730;
1270.2000;0.1970;7.1942;
1270.5000;0.1913;7.1777;
1270.8000;0.1921;7.1848;
1271.1000;0.1913;7.1801;
1271.4000;0.1921;7.1801;
1271.7000;0.1880;7.1754;
1272.0000;0.1913;7.1942;
1272.3000;0.1921;7.2059;
1272.6000;0.1970;7.2107;
1272.9000;0.1913;7.1942;
1273.2000;0.1913;7.1895;
1273.5000;0.1888;7.1824;
1273.8000;0.1880;7.1801;
1274.1000;0.1905;7.1754;
1274.4000;0.1888;7.1683;
1274.7000;0.1905;7.1730;
1275.0000;0.1913;7.1777;
1275.3000;0.1905;7.1801;
1275.6000;0.1897;7.1848;
1275.9000;0.1913;7.1801;
1276.2000;0.1905;7.1871;
1276.5000;0.1921;7.1895;
1276.8000;0.1913;7.1871;
1277.1000;0.1913;7.1895;
1277.4000;0.1905;7.1871;
1277.7000;0.1913;7.1942;
1278.0000;0.1913;7.1989;
1278.3000;0.1897;7.1871;
1278.6000;0.1921;7.1895;
1278.9000;0.1937;7.1942;
1279.2000;0.1921;7.1848;
1279.5000;0.1921;7.1848;
1279.8000;0.1929;7.1918;
1280.1000;0.1913;7.1871;
1280.4000;0.1921;7.1871;
1280.7000;0.1921;7.1895;
1281.0000;0.1929;7.1942;
1281.3000;0.1921;7.1754;
1281.6000;0.1905;7.1636;
1281.9000;0.1897;7.1542;
1282.2000;0.1905;7.1589;
1282.5000;0.1880;7.1495;
1282.8000;0.1921;7.1636;
1283.1000;0.1929;7.1683;
1283.4000;0.1880;7.1519;
1283.7000;0.1913;7.1472;
1284.0000;0.1937;7.1519;
1284.3000;0.1970;7.1589;
1284.6000;0.1921;7.1542;
1284.9000;0.1929;7.1707;
1285.2000;0.1913;7.1730;
1285.5000;0.1913;7.1683;
1285.8000;0.1921;7.1707;
1286.1000;0.1970;7.1848;
1286.4000;0.1913;7.1754;
1286.7000;0.1921;7.1730;
1287.0000;0.1799;7.1472;
1287.3000;0.1856;7.1636;
1287.6000;0.1913;7.1754;
1287.9000;0.1921;7.1777;
1288.2000;0.1978;7.1801;
1288.5000;0.1905;7.1613;
1288.8000;0.1929;7.1777;
1289.1000;0.1864;7.1660;
1289.4000;0.1921;7.1801;
1289.7000;0.1905;7.1730;
1290.0000;0.1913;7.1683;
1290.3000;0.1897;7.1660;
1290.6000;0.1929;7.1707;
1290.9000;0.1913;7.1566;
1291.2000;0.1880;7.1401;
1291.5000;0.1913;7.1495;
1291.8000;0.1921;7.1495;
1292.1000;0.1913;7.1448;
1292.4000;0.1905;7.1377;
1292.7000;0.1905;7.1354;
1293.0000;0.1905;7.1377;
1293.3000;0.1913;7.1401;
1293.6000;0.1905;7.1424;
1293.9000;0.1905;7.1424;
1294.2000;0.1929;7.1472;
1294.5000;0.1921;7.1566;
1294.8000;0.1913;7.1566;
1295.1000;0.1921;7.1589;
1295.4000;0.1897;7.1660;
1295.7000;0.1921;7.1683;
1296.0000;0.1921;7.1660;
1296.3000;0.1913;7.1589;
1296.6000;0.1929;7.1730;
1296.9000;0.1905;7.1660;
1297.2000;0.1913;7.1683;
1297.5000;0.1897;7.1730;
1297.8000;0.1807;7.1519;
1298.1000;0.1913;7.1613;
1298.4000;0.1897;7.1542;
1298.7000;0.1897;7.1495;
1299.0000;0.1905;7.1495;
1299.3000;0.1888;7.1354;
1299.6000;0.1913;7.1401;
1299.9000;0.1905;7.1448;
1300.2000;0.1913;7.1542;
1300.5000;0.1913;7.1589;
1300.8000;0.1921;7.1636;
1301.1000;0.1913;7.1683;
1301.4000;0.1921;7.1777;
1301.7000;0.1921;7.1683;
1302.0000;0.1897;7.1660;
1302.3000;0.1832;7.1589;
1302.6000;0.1905;7.1777;
1302.9000;0.1905;7.1777;
1303.2000;0.1929;7.1918;
1303.5000;0.1913;7.1942;
1303.8000;0.1937;7.1895;
1304.1000;0.1921;7.1965;
1304.4000;0.1929;7.1942;
1304.7000;0.1929;7.1942;
1305.0000;0.1897;7.1848;
1305.3000;0.1905;7.1848;
1305.6000;0.1921;7.1871;
1305.9000;0.1913;7.1871;
1306.2000;0.1921;7.1824;
1306.5000;0.1905;7.1777;
1306.8000;0.1897;7.1777;
1307.1000;0.1929;7.1777;
1307.4000;0.1929;7.1801;
1307.7000;0.1913;7.1871;
1308.0000;0.1897;7.1895;
1308.3000;0.1872;7.1848;
1308.6000;0.1905;7.1989;
1308.9000;0.1921;7.1989;
1309.2000;0.1905;7.1895;
1309.5000;0.1929;7.1871;
1309.8000;0.1921;7.1801;
1310.1000;0.1954;7.1895;
1310.4000;0.1913;7.1871;
1310.7000;0.1929;7.2012;
1311.0000;0.1913;7.1989;
1311.3000;0.1905;7.1942;
1311.6000;0.1905;7.1895;
1311.9000;0.1807;7.1613;
1312.2000;0.1905;7.1824;
1312.5000;0.1921;7.1918;
1312.8000;0.1921;7.1848;
1313.1000;0.1905;7.1777;
1313.4000;0.1921;7.1871;
1313.7000;0.1864;7.1754;
1314.0000;0.1905;7.1801;
1314.3000;0.1937;7.1848;
1314.6000;0.1921;7.1848;
1314.9000;0.1913;7.1824;
1315.2000;0.1897;7.1942;
1315.5000;0.1905;7.1989;
1315.8000;0.1921;7.2012;
1316.1000;0.1905;7.1918;
1316.4000;0.1897;7.1918;
1316.7000;0.1905;7.1918;
1317.0000;0.1913;7.1918;
1317.3000;0.1921;7.1895;
1317.6000;0.1897;7.1824;
1317.9000;0.1913;7.1895;
1318.2000;0.1970;7.1942;
1318.5000;0.1913;7.1824;
1318.8000;0.1864;7.1613;
1319.1000;0.1921;7.1754;
1319.4000;0.1921;7.1871;
1319.7000;0.1905;7.1848;
1320.0000;0.1986;7.2036;
1320.3000;0.1929;7.1895;
1320.6000;0.1929;7.1942;
1320.9000;0.1921;7.1871;
1321.2000;0.1921;7.1801;
1321.5000;0.1905;7.1801;
1321.8000;0.1978;7.2036;
1322.1000;0.1905;7.1871;
1322.4000;0.1913;7.1895;
1322.7000;0.1913;7.1942;
1323.0000;0.1888;7.1848;
1323.3000;0.1929;7.1895;
1323.6000;0.1848;7.1660;
1323.9000;0.1897;7.1848;
1324.2000;0.1888;7.1895;
1324.5000;0.1913;7.1989;
1324.8000;0.1929;7.1895;
1325.1000;0.1905;7.1895;
1325.4000;0.1921;7.1871;
1325.7000;0.1897;7.1918;
1326.0000;0.1929;7.1918;
1326.3000;0.1872;7.1848;
1326.6000;0.1880;7.1965;
1326.9000;0.1905;7.1918;
1327.2000;0.1880;7.1848;
1327.5000;0.1921;7.2012;
1327.8000;0.1905;7.2059;
1328.1000;0.1970;7.2201;
1328.4000;0.1897;7.2036;
1328.7000;0.1937;7.2107;
1329.0000;0.1905;7.2083;
1329.3000;0.1880;7.1824;
1329.6000;0.1864;7.1707;
1329.9000;0.1937;7.1918;
1330.2000;0.1921;7.1965;
1330.5000;0.1913;7.1871;
1330.8000;0.1905;7.1848;
1331.1000;0.1986;7.2107;
1331.4000;0.1970;7.2036;
1331.7000;0.1913;7.1871;
1332.0000;0.1905;7.1754;
1332.3000;0.1888;7.1730;
1332.6000;0.1905;7.1777;
1332.9000;0.1905;7.1777;
1333.2000;0.1897;7.1824;
1333.5000;0.1905;7.1848;
1333.8000;0.1921;7.1895;
1334.1000;0.1921;7.1895;
1334.4000;0.1897;7.1824;
1334.7000;0.1913;7.1754;
1335.0000;0.1921;7.1754;
1335.3000;0.1921;7.1754;
1335.6000;0.1929;7.1754;
1335.9000;0.1888;7.1660;
1336.2000;0.1913;7.1707;
1336.5000;0.2019;7.1989;
1336.8000;0.1888;7.1730;
1337.1000;0.1913;7.1707;
1337.4000;0.1921;7.1683;
1337.7000;0.1832;7.1495;
1338.0000;0.1888;7.1683;
1338.3000;0.1921;7.1707;
1338.6000;0.1921;7.1777;
1338.9000;0.1954;7.1848;
1339.2000;0.1905;7.1754;
1339.5000;0.1921;7.1754;
1339.8000;0.1905;7.1754;
1340.1000;0.1921;7.1777;
1340.4000;0.1921;7.1754;
1340.7000;0.1929;7.1801;
1341.0000;0.1815;7.1519;
1341.3000;0.1905;7.1824;
1341.6000;0.1913;7.1965;
1341.9000;0.1888;7.1848;
1342.2000;0.1945;7.1918;
1342.5000;0.1945;7.1824;
1342.8000;0.1929;7.1707;
1343.1000;0.1888;7.1707;
1343.4000;0.1913;7.1777;
1343.7000;0.1905;7.1754;
1344.0000;0.1840;7.1542;
1344.3000;0.1913;7.1683;
1344.6000;0.1905;7.1730;
1344.9000;0.1921;7.1707;
1345.2000;0.1897;7.1683;
1345.5000;0.1937;7.1707;
1345.8000;0.1864;7.1566;
1346.1000;0.1807;7.1495;
1346.4000;0.1905;7.1754;
1346.7000;0.1913;7.1777;
1347.0000;0.1888;7.1754;
1347.3000;0.1970;7.1918;
1347.6000;0.1921;7.1801;
1347.9000;0.1945;7.1801;
1348.2000;0.1905;7.1707;
1348.5000;0.1897;7.1707;
1348.8000;0.1897;7.1777;
1349.1000;0.1921;7.1918;
1349.4000;0.1954;7.1942;
1349.7000;0.1929;7.1848;
1350.0000;0.1913;7.1754;
1350.3000;0.1921;7.1848;
1350.6000;0.1913;7.1848;
1350.9000;0.1905;7.1918;
1351.2000;0.1962;7.2036;
1351.5000;0.2019;7.2248;
1351.8000;0.1913;7.2012;
1352.1000;0.1864;7.1942;
1352.4000;0.1799;7.1754;
1352.7000;0.1913;7.2036;
1353.0000;0.1905;7.1942;
1353.3000;0.1929;7.1989;
1353.6000;0.1888;7.1871;
1353.9000;0.1937;7.2012;
1354.2000;0.1913;7.1965;
1354.5000;0.1897;7.2012;
1354.8000;0.1897;7.2059;
1355.1000;0.1929;7.2130;
1355.4000;0.1945;7.2177;
1355.7000;0.1921;7.1989;
1356.0000;0.1921;7.1965;
1356.3000;0.1929;7.1848;
1356.6000;0.1913;7.1848;
1356.9000;0.1921;7.1871;
1357.2000;0.1921;7.1824;
1357.5000;0.1929;7.1848;
1357.8000;0.1913;7.1777;
1358.1000;0.1921;7.1801;
1358.4000;0.1921;7.1777;
1358.7000;0.1888;7.1683;
1359.0000;0.1905;7.1754;
1359.3000;0.1905;7.1636;
1359.6000;0.1897;7.1636;
1359.9000;0.1954;7.1824;
1360.2000;0.1905;7.1683;
1360.5000;0.1905;7.1636;
1360.8000;0.1945;7.1801;
1361.1000;0.1921;7.1730;
1361.4000;0.1921;7.1660;
1361.7000;0.1937;7.1707;
1362.0000;0.1856;7.1542;
1362.3000;0.1913;7.1542;
1362.6000;0.1954;7.1589;
1362.9000;0.1897;7.1566;
1363.2000;0.1921;7.1589;
1363.5000;0.2019;7.1777;
1363.8000;0.1937;7.1589;
1364.1000;0.1937;7.1636;
1364.4000;0.1921;7.1660;
1364.7000;0.1905;7.1613;
1365.0000;0.1994;7.1895;
1365.3000;0.1913;7.1801;
1365.6000;0.2011;7.1942;
1365.9000;0.1905;7.1801;
1366.2000;0.1913;7.1895;
1366.5000;0.1921;7.1942;
1366.8000;0.1994;7.1989;
1367.1000;0.1905;7.1707;
1367.4000;0.1921;7.1848;
1367.7000;0.1913;7.1848;
1368.0000;0.1921;7.1801;
1368.3000;0.1929;7.1777;
1368.6000;0.1905;7.1754;
1368.9000;0.1888;7.1613;
1369.2000;0.1937;7.1660;
1369.5000;0.1872;7.1613;
1369.8000;0.1897;7.1660;
1370.1000;0.1897;7.1660;
1370.4000;0.1913;7.1613;
1370.7000;0.1913;7.1566;
1371.0000;0.1913;7.1566;
1371.3000;0.1937;7.1566;
1371.6000;0.1905;7.1448;
1371.9000;0.1921;7.1519;
1372.2000;0.1905;7.1519;
1372.5000;0.1921;7.1566;
1372.8000;0.1913;7.1589;
1373.1000;0.1945;7.1660;
1373.4000;0.1921;7.1589;
1373.7000;0.1921;7.1636;
1374.0000;0.1913;7.1683;
1374.3000;0.1921;7.1754;
1374.6000;0.1921;7.1824;
1374.9000;0.1929;7.1848;
1375.2000;0.1905;7.1754;
1375.5000;0.1905;7.1730;
1375.8000;0.1921;7.1660;
1376.1000;0.1880;7.1495;
1376.4000;0.1905;7.1495;
1376.7000;0.1905;7.1542;
1377.0000;0.1905;7.1589;
1377.3000;0.1872;7.1495;
1377.6000;0.1921;7.1589;
1377.9000;0.1921;7.1660;
1378.2000;0.1921;7.1636;
1378.5000;0.1937;7.1707;
1378.8000;0.1929;7.1730;
1379.1000;0.1897;7.1660;
1379.4000;0.1913;7.1707;
1379.7000;0.1913;7.1730;
1380.0000;0.1921;7.1754;
1380.3000;0.1888;7.1707;
1380.6000;0.1929;7.1754;
1380.9000;0.1832;7.1589;
1381.2000;0.1897;7.1824;
1381.5000;0.1888;7.1707;
1381.8000;0.1888;7.1730;
1382.1000;0.1905;7.1730;
1382.4000;0.1913;7.1589;
1382.7000;0.1921;7.1636;
1383.0000;0.1921;7.1707;
1383.3000;0.1921;7.1660;
1383.6000;0.1913;7.1542;
1383.9000;0.2011;7.1871;
1384.2000;0.1937;7.1636;
1384.5000;0.1937;7.1636;
1384.8000;0.1921;7.1542;
1385.1000;0.1856;7.1330;
1385.4000;0.1905;7.1519;
1385.7000;0.1913;7.1519;
1386.0000;0.1905;7.1613;
1386.3000;0.1913;7.1660;
1386.6000;0.1897;7.1613;
1386.9000;0.1921;7.1683;
1387.2000;0.1905;7.1589;
1387.5000;0.1937;7.1589;
1387.8000;0.1929;7.1589;
1388.1000;0.1872;7.1472;
1388.4000;0.1913;7.1495;
1388.7000;0.1921;7.1519;
1389.0000;0.1888;7.1566;
1389.3000;0.1905;7.1519;
1389.6000;0.1913;7.1589;
1389.9000;0.1970;7.1683;
1390.2000;0.1897;7.1519;
1390.5000;0.1905;7.1660;
1390.8000;0.1905;7.1660;
1391.1000;0.1897;7.1589;
1391.4000;0.1913;7.1707;
1391.7000;0.1888;7.1636;
1392.0000;0.1921;7.1683;
1392.3000;0.1897;7.1730;
1392.6000;0.1905;7.1730;
1392.9000;0.1897;7.1636;
1393.2000;0.1937;7.1636;
1393.5000;0.1921;7.1542;
1393.8000;0.1913;7.1542;
1394.1000;0.1913;7.1613;
1394.4000;0.1921;7.1660;
1394.7000;0.1905;7.1636;
1395.0000;0.1913;7.1542;
1395.3000;0.1897;7.1495;
1395.6000;0.1929;7.1589;
1395.9000;0.1888;7.1636;
1396.2000;0.1897;7.1660;
1396.5000;0.1897;7.1660;
1396.8000;0.1897;7.1683;
1397.1000;0.1905;7.1660;
1397.4000;0.1905;7.1636;
1397.7000;0.1921;7.1707;
1398.0000;0.1905;7.1636;
1398.3000;0.1905;7.1589;
1398.6000;0.1913;7.1636;
1398.9000;0.1929;7.1660;
1399.2000;0.1913;7.1660;
1399.5000;0.1905;7.1613;
1399.8000;0.1921;7.1613;
