time/ms;Fluo/V;P700 deltaI/I x10³;
-199.8000;0.1986;7.0931;
-199.5000;0.2051;7.1025;
-199.2000;0.1994;7.0907;
-198.9000;0.2011;7.0978;
-198.6000;0.2019;7.0931;
-198.3000;0.1986;7.0884;
-198.0000;0.2051;7.1025;
-197.7000;0.2027;7.0978;
-197.4000;0.2002;7.0907;
-197.1000;0.2035;7.1001;
-196.8000;0.2002;7.0978;
-196.5000;0.2002;7.1025;
-196.2000;0.1970;7.0954;
-195.9000;0.1994;7.1048;
-195.6000;0.2084;7.1236;
-195.3000;0.2002;7.1025;
-195.0000;0.2068;7.1119;
-194.7000;0.2019;7.1095;
-194.4000;0.2019;7.1119;
-194.1000;0.1994;7.1048;
-193.8000;0.1962;7.0954;
-193.5000;0.2019;7.1048;
-193.2000;0.2002;7.1001;
-192.9000;0.2011;7.0931;
-192.6000;0.1994;7.0931;
-192.3000;0.2019;7.0978;
-192.0000;0.2002;7.0907;
-191.7000;0.1994;7.0954;
-191.4000;0.1986;7.0931;
-191.1000;0.2011;7.1095;
-190.8000;0.1978;7.1119;
-190.5000;0.1994;7.1095;
-190.2000;0.2019;7.1166;
-189.9000;0.1994;7.1072;
-189.6000;0.1986;7.1048;
-189.3000;0.2002;7.1025;
-189.0000;0.2011;7.1025;
-188.7000;0.1986;7.1025;
-188.4000;0.1994;7.1048;
-188.1000;0.1994;7.1001;
-187.8000;0.1994;7.1025;
-187.5000;0.1994;7.1025;
-187.2000;0.1994;7.0954;
-186.9000;0.1978;7.0907;
-186.6000;0.1978;7.0860;
-186.3000;0.2002;7.0860;
-186.0000;0.1994;7.0837;
-185.7000;0.1994;7.0907;
-185.4000;0.1994;7.1001;
-185.1000;0.2002;7.1048;
-184.8000;0.2002;7.1025;
-184.5000;0.2002;7.1048;
-184.2000;0.2019;7.1072;
-183.9000;0.2011;7.1072;
-183.6000;0.2027;7.1072;
-183.3000;0.2027;7.1095;
-183.0000;0.2019;7.1095;
-182.7000;0.1994;7.1048;
-182.4000;0.2011;7.1095;
-182.1000;0.2002;7.0931;
-181.8000;0.1978;7.0860;
-181.5000;0.1986;7.0931;
-181.2000;0.1986;7.0813;
-180.9000;0.1994;7.0789;
-180.6000;0.1994;7.0837;
-180.3000;0.1994;7.0860;
-180.0000;0.2002;7.0860;
-179.7000;0.2027;7.1001;
-179.4000;0.1970;7.0884;
-179.1000;0.1994;7.0907;
-178.8000;0.1978;7.0766;
-178.5000;0.1994;7.0860;
-178.2000;0.2002;7.0789;
-177.9000;0.2002;7.0837;
-177.6000;0.2002;7.0884;
-177.3000;0.1994;7.0837;
-177.0000;0.1978;7.0766;
-176.7000;0.1978;7.0837;
-176.4000;0.1994;7.0954;
-176.1000;0.2002;7.1025;
-175.8000;0.1994;7.1001;
-175.5000;0.1970;7.0837;
-175.2000;0.1986;7.0860;
-174.9000;0.1986;7.0931;
-174.6000;0.2002;7.0907;
-174.3000;0.2019;7.0978;
-174.0000;0.1994;7.0860;
-173.7000;0.2002;7.0860;
-173.4000;0.2002;7.0860;
-173.1000;0.1994;7.0884;
-172.8000;0.2002;7.0954;
-172.5000;0.1994;7.0860;
-172.2000;0.1978;7.0789;
-171.9000;0.2019;7.0860;
-171.6000;0.1986;7.0907;
-171.3000;0.2002;7.0907;
-171.0000;0.2002;7.0837;
-170.7000;0.1994;7.0837;
-170.4000;0.2002;7.0837;
-170.1000;0.1978;7.0789;
-169.8000;0.2011;7.0931;
-169.5000;0.1994;7.0813;
-169.2000;0.2011;7.0884;
-168.9000;0.1978;7.0789;
-168.6000;0.2019;7.0837;
-168.3000;0.1970;7.0837;
-168.0000;0.1986;7.0907;
-167.7000;0.1986;7.0931;
-167.4000;0.1986;7.1025;
-167.1000;0.1994;7.1072;
-166.8000;0.1937;7.0907;
-166.5000;0.1978;7.0978;
-166.2000;0.1994;7.1025;
-165.9000;0.1986;7.0978;
-165.6000;0.1994;7.0978;
-165.3000;0.1945;7.0931;
-165.0000;0.2002;7.0907;
-164.7000;0.2002;7.0978;
-164.4000;0.1994;7.0931;
-164.1000;0.1970;7.0931;
-163.8000;0.1986;7.1001;
-163.5000;0.2011;7.1025;
-163.2000;0.1978;7.0931;
-162.9000;0.1986;7.0907;
-162.6000;0.1986;7.0954;
-162.3000;0.1994;7.1048;
-162.0000;0.2002;7.0954;
-161.7000;0.1986;7.0813;
-161.4000;0.2011;7.0884;
-161.1000;0.1994;7.0837;
-160.8000;0.1978;7.0884;
-160.5000;0.1994;7.0931;
-160.2000;0.1970;7.1001;
-159.9000;0.1986;7.0954;
-159.6000;0.1994;7.0837;
-159.3000;0.1994;7.0837;
-159.0000;0.2027;7.0789;
-158.7000;0.2002;7.0742;
-158.4000;0.1994;7.0719;
-158.1000;0.1978;7.0695;
-157.8000;0.2027;7.0719;
-157.5000;0.2011;7.0695;
-157.2000;0.2002;7.0742;
-156.9000;0.1994;7.0719;
-156.6000;0.1986;7.0813;
-156.3000;0.1994;7.0978;
-156.0000;0.2002;7.1072;
-155.7000;0.1994;7.1001;
-155.4000;0.1994;7.1048;
-155.1000;0.1994;7.1048;
-154.8000;0.1994;7.1025;
-154.5000;0.2011;7.1095;
-154.2000;0.1994;7.1001;
-153.9000;0.2068;7.1119;
-153.6000;0.2002;7.1001;
-153.3000;0.2011;7.1048;
-153.0000;0.1994;7.1001;
-152.7000;0.2002;7.1048;
-152.4000;0.1994;7.1001;
-152.1000;0.1986;7.0907;
-151.8000;0.2002;7.0907;
-151.5000;0.2002;7.0789;
-151.2000;0.1986;7.0742;
-150.9000;0.1994;7.0837;
-150.6000;0.1986;7.0884;
-150.3000;0.2002;7.0860;
-150.0000;0.1986;7.0789;
-149.7000;0.1986;7.0813;
-149.4000;0.2002;7.0907;
-149.1000;0.1986;7.0789;
-148.8000;0.1978;7.0837;
-148.5000;0.2002;7.0813;
-148.2000;0.2002;7.0884;
-147.9000;0.2011;7.0978;
-147.6000;0.2035;7.1025;
-147.3000;0.2019;7.1001;
-147.0000;0.2011;7.0907;
-146.7000;0.1994;7.0931;
-146.4000;0.1986;7.0884;
-146.1000;0.1994;7.0884;
-145.8000;0.1962;7.0884;
-145.5000;0.1978;7.0837;
-145.2000;0.1970;7.0742;
-144.9000;0.1986;7.0789;
-144.6000;0.1994;7.0907;
-144.3000;0.1994;7.0931;
-144.0000;0.1954;7.0837;
-143.7000;0.2002;7.1025;
-143.4000;0.2002;7.0954;
-143.1000;0.2002;7.0907;
-142.8000;0.1978;7.0837;
-142.5000;0.2002;7.1001;
-142.2000;0.1994;7.1072;
-141.9000;0.2027;7.1142;
-141.6000;0.2027;7.1142;
-141.3000;0.1994;7.1095;
-141.0000;0.1970;7.1095;
-140.7000;0.2002;7.1072;
-140.4000;0.1978;7.0954;
-140.1000;0.1986;7.1048;
-139.8000;0.2011;7.1142;
-139.5000;0.1970;7.1072;
-139.2000;0.2019;7.1166;
-138.9000;0.1986;7.1119;
-138.6000;0.1978;7.1236;
-138.3000;0.2002;7.1354;
-138.0000;0.1994;7.1236;
-137.7000;0.1970;7.1095;
-137.4000;0.1978;7.1072;
-137.1000;0.2011;7.1213;
-136.8000;0.1994;7.1166;
-136.5000;0.2002;7.1166;
-136.2000;0.1986;7.1189;
-135.9000;0.1978;7.1119;
-135.6000;0.1994;7.1072;
-135.3000;0.1962;7.0978;
-135.0000;0.1986;7.0978;
-134.7000;0.1986;7.1001;
-134.4000;0.2011;7.1001;
-134.1000;0.1986;7.0907;
-133.8000;0.1994;7.0931;
-133.5000;0.1986;7.0837;
-133.2000;0.1978;7.0954;
-132.9000;0.2051;7.1095;
-132.6000;0.1994;7.1072;
-132.3000;0.1970;7.1001;
-132.0000;0.1994;7.0978;
-131.7000;0.1994;7.1095;
-131.4000;0.2059;7.1236;
-131.1000;0.1962;7.0907;
-130.8000;0.1978;7.0860;
-130.5000;0.1994;7.0907;
-130.2000;0.2011;7.0954;
-129.9000;0.2011;7.1025;
-129.6000;0.1970;7.1001;
-129.3000;0.1986;7.1095;
-129.0000;0.1994;7.1001;
-128.7000;0.1970;7.0884;
-128.4000;0.1994;7.0931;
-128.1000;0.2051;7.1025;
-127.8000;0.2027;7.1072;
-127.5000;0.1994;7.1072;
-127.2000;0.1954;7.1048;
-126.9000;0.1962;7.1001;
-126.6000;0.2002;7.1189;
-126.3000;0.1929;7.1072;
-126.0000;0.1970;7.1213;
-125.7000;0.2011;7.1307;
-125.4000;0.1978;7.1236;
-125.1000;0.1978;7.1142;
-124.8000;0.1994;7.1095;
-124.5000;0.1994;7.1072;
-124.2000;0.1986;7.1048;
-123.9000;0.1970;7.1025;
-123.6000;0.1994;7.1001;
-123.3000;0.1986;7.1095;
-123.0000;0.2011;7.1048;
-122.7000;0.2011;7.1025;
-122.4000;0.1994;7.1095;
-122.1000;0.1986;7.1001;
-121.8000;0.1994;7.1001;
-121.5000;0.1986;7.0954;
-121.2000;0.1986;7.0884;
-120.9000;0.1994;7.0860;
-120.6000;0.2002;7.0954;
-120.3000;0.1986;7.1025;
-120.0000;0.2011;7.1072;
-119.7000;0.1970;7.1048;
-119.4000;0.1978;7.1001;
-119.1000;0.1986;7.0954;
-118.8000;0.2011;7.1072;
-118.5000;0.1986;7.0978;
-118.2000;0.2011;7.0931;
-117.9000;0.1986;7.0884;
-117.6000;0.1986;7.0978;
-117.3000;0.1986;7.1025;
-117.0000;0.1994;7.1095;
-116.7000;0.1986;7.1048;
-116.4000;0.2092;7.1307;
-116.1000;0.1978;7.1048;
-115.8000;0.1994;7.1072;
-115.5000;0.1970;7.0954;
-115.2000;0.2002;7.1025;
-114.9000;0.1978;7.1001;
-114.6000;0.1978;7.1025;
-114.3000;0.1945;7.1001;
-114.0000;0.1970;7.1072;
-113.7000;0.1994;7.1166;
-113.4000;0.1970;7.1095;
-113.1000;0.1978;7.1142;
-112.8000;0.1986;7.1142;
-112.5000;0.1986;7.1048;
-112.2000;0.2002;7.1025;
-111.9000;0.1994;7.0978;
-111.6000;0.1986;7.0907;
-111.3000;0.1978;7.0860;
-111.0000;0.2043;7.1001;
-110.7000;0.1986;7.0813;
-110.4000;0.1978;7.0813;
-110.1000;0.2011;7.0931;
-109.8000;0.1994;7.0931;
-109.5000;0.2084;7.1189;
-109.2000;0.2002;7.0954;
-108.9000;0.1937;7.0719;
-108.6000;0.2051;7.1001;
-108.3000;0.2002;7.0813;
-108.0000;0.2035;7.0789;
-107.7000;0.2035;7.0837;
-107.4000;0.2011;7.0742;
-107.1000;0.1986;7.0648;
-106.8000;0.1986;7.0672;
-106.5000;0.2011;7.0719;
-106.2000;0.1970;7.0625;
-105.9000;0.1994;7.0695;
-105.6000;0.2002;7.0742;
-105.3000;0.1986;7.0719;
-105.0000;0.2043;7.0813;
-104.7000;0.1994;7.0742;
-104.4000;0.1978;7.0813;
-104.1000;0.1986;7.0884;
-103.8000;0.1970;7.0860;
-103.5000;0.2002;7.0837;
-103.2000;0.1986;7.0860;
-102.9000;0.1986;7.0860;
-102.6000;0.1978;7.0837;
-102.3000;0.1986;7.0837;
-102.0000;0.1986;7.0813;
-101.7000;0.1986;7.0766;
-101.4000;0.1994;7.0742;
-101.1000;0.1970;7.0742;
-100.8000;0.1970;7.0837;
-100.5000;0.1954;7.0719;
-100.2000;0.1978;7.0860;
-99.9000;0.1986;7.0907;
-99.6000;0.1986;7.0931;
-99.3000;0.1994;7.0837;
-99.0000;0.2011;7.0837;
-98.7000;0.2019;7.0789;
-98.4000;0.1994;7.0813;
-98.1000;0.2002;7.0766;
-97.8000;0.2002;7.0907;
-97.5000;0.1962;7.0837;
-97.2000;0.2027;7.1072;
-96.9000;0.1970;7.0931;
-96.6000;0.2002;7.1048;
-96.3000;0.1986;7.0954;
-96.0000;0.2051;7.1001;
-95.7000;0.1978;7.0837;
-95.4000;0.2002;7.1072;
-95.1000;0.1970;7.0931;
-94.8000;0.1994;7.0954;
-94.5000;0.2002;7.1025;
-94.2000;0.1994;7.1095;
-93.9000;0.1978;7.1048;
-93.6000;0.2011;7.1119;
-93.3000;0.1913;7.0884;
-93.0000;0.2011;7.1025;
-92.7000;0.1994;7.1025;
-92.4000;0.2011;7.1001;
-92.1000;0.1994;7.0931;
-91.8000;0.2019;7.0907;
-91.5000;0.1994;7.0954;
-91.2000;0.2027;7.1025;
-90.9000;0.2011;7.0907;
-90.6000;0.2002;7.0907;
-90.3000;0.2027;7.1025;
-90.0000;0.1970;7.0907;
-89.7000;0.2019;7.0954;
-89.4000;0.1986;7.0837;
-89.1000;0.1994;7.0907;
-88.8000;0.1994;7.1001;
-88.5000;0.2035;7.1166;
-88.2000;0.2011;7.1048;
-87.9000;0.2002;7.1048;
-87.6000;0.2002;7.1001;
-87.3000;0.1994;7.0954;
-87.0000;0.1994;7.1001;
-86.7000;0.1921;7.0789;
-86.4000;0.1945;7.0978;
-86.1000;0.1994;7.1001;
-85.8000;0.2002;7.0860;
-85.5000;0.1970;7.0789;
-85.2000;0.1986;7.0837;
-84.9000;0.1986;7.0837;
-84.6000;0.1921;7.0672;
-84.3000;0.1994;7.0789;
-84.0000;0.2011;7.0837;
-83.7000;0.1921;7.0648;
-83.4000;0.2002;7.0860;
-83.1000;0.2019;7.0931;
-82.8000;0.1978;7.0860;
-82.5000;0.1970;7.0695;
-82.2000;0.1994;7.0789;
-81.9000;0.2068;7.1001;
-81.6000;0.1962;7.0907;
-81.3000;0.1986;7.0884;
-81.0000;0.1978;7.0813;
-80.7000;0.2059;7.0907;
-80.4000;0.1970;7.0648;
-80.1000;0.2002;7.0742;
-79.8000;0.1962;7.0695;
-79.5000;0.1954;7.0625;
-79.2000;0.1994;7.0625;
-78.9000;0.1978;7.0648;
-78.6000;0.1994;7.0766;
-78.3000;0.1986;7.0766;
-78.0000;0.1962;7.0695;
-77.7000;0.1970;7.0719;
-77.4000;0.1994;7.0672;
-77.1000;0.2002;7.0789;
-76.8000;0.1994;7.0837;
-76.5000;0.2011;7.0837;
-76.2000;0.2011;7.0789;
-75.9000;0.1994;7.0742;
-75.6000;0.1994;7.0695;
-75.3000;0.1978;7.0695;
-75.0000;0.1978;7.0789;
-74.7000;0.1970;7.0813;
-74.4000;0.2035;7.1001;
-74.1000;0.2002;7.0860;
-73.8000;0.1978;7.0789;
-73.5000;0.2084;7.0978;
-73.2000;0.1986;7.0766;
-72.9000;0.1994;7.0648;
-72.6000;0.1994;7.0601;
-72.3000;0.2035;7.0742;
-72.0000;0.2035;7.0860;
-71.7000;0.1986;7.0742;
-71.4000;0.1978;7.0695;
-71.1000;0.1978;7.0625;
-70.8000;0.1994;7.0789;
-70.5000;0.1994;7.0789;
-70.2000;0.1978;7.0719;
-69.9000;0.1978;7.0601;
-69.6000;0.1978;7.0578;
-69.3000;0.1986;7.0625;
-69.0000;0.1978;7.0578;
-68.7000;0.1986;7.0625;
-68.4000;0.1986;7.0672;
-68.1000;0.1994;7.0742;
-67.8000;0.1970;7.0672;
-67.5000;0.1978;7.0578;
-67.2000;0.2002;7.0648;
-66.9000;0.1986;7.0578;
-66.6000;0.1994;7.0625;
-66.3000;0.2019;7.0813;
-66.0000;0.1978;7.0695;
-65.7000;0.1986;7.0695;
-65.4000;0.1994;7.0719;
-65.1000;0.1986;7.0719;
-64.8000;0.1986;7.0695;
-64.5000;0.2011;7.0766;
-64.2000;0.2002;7.0719;
-63.9000;0.2002;7.0742;
-63.6000;0.1978;7.0695;
-63.3000;0.2011;7.0789;
-63.0000;0.1994;7.0766;
-62.7000;0.2002;7.0860;
-62.4000;0.2011;7.0954;
-62.1000;0.1986;7.0860;
-61.8000;0.1994;7.0860;
-61.5000;0.1986;7.0789;
-61.2000;0.2084;7.1025;
-60.9000;0.1994;7.0860;
-60.6000;0.1978;7.0860;
-60.3000;0.1970;7.0766;
-60.0000;0.1986;7.0789;
-59.7000;0.1986;7.0766;
-59.4000;0.1970;7.0789;
-59.1000;0.2002;7.0789;
-58.8000;0.1994;7.0742;
-58.5000;0.1994;7.0742;
-58.2000;0.2059;7.0884;
-57.9000;0.1994;7.0837;
-57.6000;0.2011;7.0931;
-57.3000;0.1994;7.0837;
-57.0000;0.2011;7.0813;
-56.7000;0.1962;7.0766;
-56.4000;0.2002;7.0860;
-56.1000;0.2002;7.0884;
-55.8000;0.1978;7.0813;
-55.5000;0.1994;7.0742;
-55.2000;0.1978;7.0742;
-54.9000;0.1978;7.0742;
-54.6000;0.2011;7.0860;
-54.3000;0.1994;7.0789;
-54.0000;0.2011;7.0719;
-53.7000;0.2002;7.0719;
-53.4000;0.1986;7.0719;
-53.1000;0.1970;7.0648;
-52.8000;0.1994;7.0672;
-52.5000;0.2035;7.0742;
-52.2000;0.1986;7.0672;
-51.9000;0.1994;7.0648;
-51.6000;0.1994;7.0719;
-51.3000;0.1970;7.0672;
-51.0000;0.2002;7.0789;
-50.7000;0.1986;7.0884;
-50.4000;0.2011;7.0954;
-50.1000;0.2019;7.0954;
-49.8000;0.1978;7.0884;
-49.5000;0.1994;7.0907;
-49.2000;0.2002;7.0907;
-48.9000;0.2019;7.0860;
-48.6000;0.1970;7.0860;
-48.3000;0.1986;7.0837;
-48.0000;0.2002;7.0860;
-47.7000;0.2002;7.0907;
-47.4000;0.2002;7.0884;
-47.1000;0.1970;7.0813;
-46.8000;0.2011;7.0860;
-46.5000;0.1986;7.0884;
-46.2000;0.1978;7.0931;
-45.9000;0.1978;7.0907;
-45.6000;0.1970;7.0789;
-45.3000;0.2011;7.0813;
-45.0000;0.1970;7.0742;
-44.7000;0.1954;7.0672;
-44.4000;0.1986;7.0695;
-44.1000;0.2002;7.0766;
-43.8000;0.1970;7.0672;
-43.5000;0.1986;7.0648;
-43.2000;0.1954;7.0531;
-42.9000;0.2068;7.0837;
-42.6000;0.2002;7.0719;
-42.3000;0.1994;7.0625;
-42.0000;0.2002;7.0578;
-41.7000;0.1986;7.0601;
-41.4000;0.2002;7.0695;
-41.1000;0.2002;7.0719;
-40.8000;0.2011;7.0625;
-40.5000;0.1994;7.0648;
-40.2000;0.2002;7.0672;
-39.9000;0.2002;7.0625;
-39.6000;0.1986;7.0672;
-39.3000;0.1978;7.0672;
-39.0000;0.2019;7.0766;
-38.7000;0.1994;7.0742;
-38.4000;0.1994;7.0766;
-38.1000;0.2002;7.0884;
-37.8000;0.1994;7.0742;
-37.5000;0.2011;7.0766;
-37.2000;0.1978;7.0719;
-36.9000;0.2002;7.0766;
-36.6000;0.1994;7.0719;
-36.3000;0.1937;7.0578;
-36.0000;0.1994;7.0766;
-35.7000;0.1945;7.0625;
-35.4000;0.2002;7.0766;
-35.1000;0.1986;7.0625;
-34.8000;0.1994;7.0554;
-34.5000;0.1986;7.0601;
-34.2000;0.1970;7.0695;
-33.9000;0.1986;7.0742;
-33.6000;0.1986;7.0789;
-33.3000;0.1937;7.0625;
-33.0000;0.1986;7.0601;
-32.7000;0.1945;7.0554;
-32.4000;0.2011;7.0695;
-32.1000;0.1994;7.0672;
-31.8000;0.2149;7.1072;
-31.5000;0.1986;7.0742;
-31.2000;0.2043;7.0884;
-30.9000;0.2002;7.0789;
-30.6000;0.1937;7.0648;
-30.3000;0.1970;7.0648;
-30.0000;0.1986;7.0813;
-29.7000;0.1994;7.0860;
-29.4000;0.1994;7.0860;
-29.1000;0.2011;7.0860;
-28.8000;0.2002;7.0884;
-28.5000;0.1994;7.0884;
-28.2000;0.2002;7.0884;
-27.9000;0.2011;7.0860;
-27.6000;0.2011;7.0813;
-27.3000;0.2011;7.0813;
-27.0000;0.1986;7.0742;
-26.7000;0.2019;7.0789;
-26.4000;0.2011;7.0766;
-26.1000;0.2002;7.0625;
-25.8000;0.1994;7.0578;
-25.5000;0.2002;7.0672;
-25.2000;0.1994;7.0601;
-24.9000;0.1994;7.0601;
-24.6000;0.2019;7.0601;
-24.3000;0.1994;7.0625;
-24.0000;0.2011;7.0695;
-23.7000;0.1994;7.0672;
-23.4000;0.1970;7.0601;
-23.1000;0.2011;7.0719;
-22.8000;0.1994;7.0719;
-22.5000;0.1994;7.0789;
-22.2000;0.2002;7.0813;
-21.9000;0.1994;7.0742;
-21.6000;0.1978;7.0625;
-21.3000;0.2019;7.0672;
-21.0000;0.2027;7.0672;
-20.7000;0.1986;7.0601;
-20.4000;0.1994;7.0719;
-20.1000;0.1994;7.0648;
-19.8000;0.2002;7.0648;
-19.5000;0.2002;7.0672;
-19.2000;0.1962;7.0648;
-18.9000;0.1954;7.0578;
-18.6000;0.2002;7.0672;
-18.3000;0.2002;7.0695;
-18.0000;0.1978;7.0625;
-17.7000;0.1978;7.0648;
-17.4000;0.2002;7.0648;
-17.1000;0.2011;7.0719;
-16.8000;0.1994;7.0625;
-16.5000;0.2002;7.0625;
-16.2000;0.2002;7.0601;
-15.9000;0.2027;7.0625;
-15.6000;0.2019;7.0578;
-15.3000;0.1945;7.0390;
-15.0000;0.1978;7.0484;
-14.7000;0.2002;7.0437;
-14.4000;0.1994;7.0413;
-14.1000;0.1986;7.0460;
-13.8000;0.2019;7.0601;
-13.5000;0.1994;7.0719;
-13.2000;0.1970;7.0742;
-12.9000;0.2035;7.0837;
-12.6000;0.1954;7.0672;
-12.3000;0.1962;7.0648;
-12.0000;0.1978;7.0719;
-11.7000;0.1986;7.0860;
-11.4000;0.1986;7.0837;
-11.1000;0.2027;7.1072;
-10.8000;0.1986;7.1001;
-10.5000;0.1986;7.1001;
-10.2000;0.1978;7.0884;
-9.9000;0.1970;7.0695;
-9.6000;0.1986;7.0766;
-9.3000;0.2059;7.0907;
-9.0000;0.1978;7.0554;
-8.7000;0.2059;7.0766;
-8.4000;0.1986;7.0625;
-8.1000;0.1986;7.0531;
-7.8000;0.1978;7.0554;
-7.5000;0.1994;7.0554;
-7.2000;0.1994;7.0625;
-6.9000;0.2019;7.0719;
-6.6000;0.1994;7.0672;
-6.3000;0.1994;7.0578;
-6.0000;0.2002;7.0578;
-5.7000;0.2002;7.0578;
-5.4000;0.1994;7.0531;
-5.1000;0.1994;7.0554;
-4.8000;0.2027;7.0672;
-4.5000;0.1970;7.0601;
-4.2000;0.1986;7.0531;
-3.9000;0.2011;7.0507;
-3.6000;0.2002;7.0507;
-3.3000;0.2002;7.0531;
-3.0000;0.2092;7.0813;
-2.7000;0.2019;7.0719;
-2.4000;0.1994;7.0742;
-2.1000;0.2019;7.0719;
-1.8000;0.1994;7.0648;
-1.5000;0.2035;7.0648;
-1.2000;0.2002;7.0578;
-0.9000;0.2002;7.0554;
-0.6000;0.1994;7.0437;
-0.3000;0.2002;7.0484;
0.0000;0.2002;7.0484;
0.3000;0.2043;7.0272;
0.6000;0.2133;7.0390;
0.9000;0.2312;7.0789;
1.2000;0.2418;7.1095;
1.5000;0.2491;7.1377;
1.8000;0.2556;7.1472;
2.1000;0.2637;7.1683;
2.4000;0.2654;7.1824;
2.7000;0.2662;7.1895;
3.0000;0.2719;7.2083;
3.3000;0.2719;7.2130;
3.6000;0.2727;7.2154;
3.9000;0.2768;7.2271;
4.2000;0.2776;7.2342;
4.5000;0.2776;7.2271;
4.8000;0.2768;7.2271;
5.1000;0.2784;7.2365;
5.4000;0.2800;7.2412;
5.7000;0.2776;7.2412;
6.0000;0.2784;7.2436;
6.3000;0.2808;7.2506;
6.6000;0.2800;7.2459;
6.9000;0.2808;7.2483;
7.2000;0.2800;7.2600;
7.5000;0.2857;7.2718;
7.8000;0.2833;7.2694;
8.1000;0.2833;7.2741;
8.4000;0.2849;7.2789;
8.7000;0.2898;7.2836;
9.0000;0.2808;7.2553;
9.3000;0.2865;7.2671;
9.6000;0.2841;7.2553;
9.9000;0.2833;7.2553;
10.2000;0.2816;7.2483;
10.5000;0.2857;7.2624;
10.8000;0.2865;7.2600;
11.1000;0.2865;7.2718;
11.4000;0.2865;7.2624;
11.7000;0.2882;7.2671;
12.0000;0.2857;7.2647;
12.3000;0.2857;7.2647;
12.6000;0.2865;7.2671;
12.9000;0.2882;7.2624;
13.2000;0.2890;7.2600;
13.5000;0.2890;7.2553;
13.8000;0.2890;7.2600;
14.1000;0.2922;7.2647;
14.4000;0.2890;7.2530;
14.7000;0.2914;7.2506;
15.0000;0.2898;7.2412;
15.3000;0.2906;7.2483;
15.6000;0.2914;7.2624;
15.9000;0.2930;7.2694;
16.2000;0.2914;7.2624;
16.5000;0.2906;7.2600;
16.8000;0.2922;7.2671;
17.1000;0.2930;7.2671;
17.4000;0.2939;7.2765;
17.7000;0.2930;7.2789;
18.0000;0.2939;7.2741;
18.3000;0.2963;7.2859;
18.6000;0.2947;7.2836;
18.9000;0.2922;7.2647;
19.2000;0.2947;7.2694;
19.5000;0.2914;7.2647;
19.8000;0.2955;7.2694;
20.1000;0.2947;7.2718;
20.4000;0.2955;7.2694;
20.7000;0.2939;7.2671;
21.0000;0.3012;7.2765;
21.3000;0.2971;7.2624;
21.6000;0.2963;7.2600;
21.9000;0.2947;7.2553;
22.2000;0.2963;7.2624;
22.5000;0.2963;7.2671;
22.8000;0.2963;7.2647;
23.1000;0.2979;7.2671;
23.4000;0.2979;7.2671;
23.7000;0.3028;7.2789;
24.0000;0.2971;7.2647;
24.3000;0.2987;7.2765;
24.6000;0.3004;7.2741;
24.9000;0.2996;7.2741;
25.2000;0.2963;7.2624;
25.5000;0.3012;7.2694;
25.8000;0.3004;7.2765;
26.1000;0.2996;7.2694;
26.4000;0.3020;7.2836;
26.7000;0.3012;7.2859;
27.0000;0.3036;7.2859;
27.3000;0.3069;7.2906;
27.6000;0.3020;7.2718;
27.9000;0.3012;7.2647;
28.2000;0.3036;7.2694;
28.5000;0.3044;7.2718;
28.8000;0.3020;7.2671;
29.1000;0.3061;7.2765;
29.4000;0.3020;7.2553;
29.7000;0.3053;7.2600;
30.0000;0.3036;7.2600;
30.3000;0.3061;7.2741;
30.6000;0.3012;7.2694;
30.9000;0.3028;7.2671;
31.2000;0.3061;7.2789;
31.5000;0.3036;7.2741;
31.8000;0.3109;7.2741;
32.1000;0.3069;7.2647;
32.4000;0.3069;7.2789;
32.7000;0.3061;7.2789;
33.0000;0.3077;7.2741;
33.3000;0.3101;7.2836;
33.6000;0.3142;7.2836;
33.9000;0.3077;7.2647;
34.2000;0.3085;7.2671;
34.5000;0.3061;7.2600;
34.8000;0.3077;7.2694;
35.1000;0.3069;7.2741;
35.4000;0.3077;7.2765;
35.7000;0.3069;7.2741;
36.0000;0.3061;7.2694;
36.3000;0.3069;7.2671;
36.6000;0.3093;7.2718;
36.9000;0.3061;7.2741;
37.2000;0.3101;7.2765;
37.5000;0.3101;7.2812;
37.8000;0.3175;7.2953;
38.1000;0.3093;7.2741;
38.4000;0.3166;7.2812;
38.7000;0.3118;7.2671;
39.0000;0.3101;7.2694;
39.3000;0.3093;7.2647;
39.6000;0.3118;7.2694;
39.9000;0.3134;7.2789;
40.2000;0.3150;7.2812;
40.5000;0.3118;7.2765;
40.8000;0.3093;7.2671;
41.1000;0.3134;7.2765;
41.4000;0.3118;7.2647;
41.7000;0.3150;7.2741;
42.0000;0.3093;7.2647;
42.3000;0.3118;7.2718;
42.6000;0.3142;7.2836;
42.9000;0.3183;7.2883;
43.2000;0.3134;7.2789;
43.5000;0.3142;7.2741;
43.8000;0.3118;7.2718;
44.1000;0.3101;7.2812;
44.4000;0.3118;7.2789;
44.7000;0.3126;7.2812;
45.0000;0.3134;7.2718;
45.3000;0.3150;7.2600;
45.6000;0.3126;7.2530;
45.9000;0.3166;7.2577;
46.2000;0.3142;7.2459;
46.5000;0.3109;7.2389;
46.8000;0.3134;7.2365;
47.1000;0.3150;7.2436;
47.4000;0.3158;7.2506;
47.7000;0.3142;7.2506;
48.0000;0.3158;7.2459;
48.3000;0.3109;7.2365;
48.6000;0.3142;7.2436;
48.9000;0.3175;7.2436;
49.2000;0.3175;7.2459;
49.5000;0.3126;7.2506;
49.8000;0.3166;7.2647;
50.1000;0.3175;7.2671;
50.4000;0.3207;7.2694;
50.7000;0.3166;7.2530;
51.0000;0.3183;7.2624;
51.3000;0.3150;7.2530;
51.6000;0.3175;7.2577;
51.9000;0.3166;7.2624;
52.2000;0.3191;7.2671;
52.5000;0.3183;7.2624;
52.8000;0.3207;7.2647;
53.1000;0.3256;7.2765;
53.4000;0.3191;7.2647;
53.7000;0.3166;7.2506;
54.0000;0.3223;7.2624;
54.3000;0.3175;7.2553;
54.6000;0.3150;7.2483;
54.9000;0.3175;7.2436;
55.2000;0.3207;7.2530;
55.5000;0.3191;7.2483;
55.8000;0.3150;7.2389;
56.1000;0.3191;7.2506;
56.4000;0.3215;7.2577;
56.7000;0.3232;7.2671;
57.0000;0.3199;7.2647;
57.3000;0.3150;7.2600;
57.6000;0.3232;7.2836;
57.9000;0.3207;7.2671;
58.2000;0.3223;7.2765;
58.5000;0.3191;7.2718;
58.8000;0.3166;7.2577;
59.1000;0.3215;7.2694;
59.4000;0.3166;7.2624;
59.7000;0.3191;7.2741;
60.0000;0.3183;7.2600;
60.3000;0.3199;7.2671;
60.6000;0.3215;7.2671;
60.9000;0.3215;7.2694;
61.2000;0.3175;7.2600;
61.5000;0.3232;7.2694;
61.8000;0.3240;7.2647;
62.1000;0.3199;7.2624;
62.4000;0.3223;7.2671;
62.7000;0.3223;7.2647;
63.0000;0.3223;7.2530;
63.3000;0.3248;7.2600;
63.6000;0.3232;7.2694;
63.9000;0.3289;7.2836;
64.2000;0.3248;7.2718;
64.5000;0.3223;7.2718;
64.8000;0.3248;7.2741;
65.1000;0.3240;7.2694;
65.4000;0.3248;7.2671;
65.7000;0.3256;7.2671;
66.0000;0.3223;7.2671;
66.3000;0.3248;7.2718;
66.6000;0.3240;7.2647;
66.9000;0.3240;7.2671;
67.2000;0.3248;7.2671;
67.5000;0.3248;7.2647;
67.8000;0.3232;7.2694;
68.1000;0.3248;7.2647;
68.4000;0.3264;7.2694;
68.7000;0.3191;7.2671;
69.0000;0.3346;7.3118;
69.3000;0.3264;7.2883;
69.6000;0.3232;7.2789;
69.9000;0.3240;7.2765;
70.2000;0.3240;7.2624;
70.5000;0.3256;7.2647;
70.8000;0.3256;7.2647;
71.1000;0.3248;7.2577;
71.4000;0.3248;7.2506;
71.7000;0.3240;7.2459;
72.0000;0.3256;7.2483;
72.3000;0.3272;7.2483;
72.6000;0.3240;7.2506;
72.9000;0.3256;7.2647;
73.2000;0.3248;7.2624;
73.5000;0.3248;7.2600;
73.8000;0.3256;7.2600;
74.1000;0.3232;7.2600;
74.4000;0.3264;7.2600;
74.7000;0.3264;7.2647;
75.0000;0.3256;7.2600;
75.3000;0.3256;7.2577;
75.6000;0.3280;7.2577;
75.9000;0.3256;7.2553;
76.2000;0.3264;7.2577;
76.5000;0.3248;7.2530;
76.8000;0.3280;7.2530;
77.1000;0.3264;7.2577;
77.4000;0.3264;7.2671;
77.7000;0.3248;7.2624;
78.0000;0.3272;7.2694;
78.3000;0.3272;7.2647;
78.6000;0.3256;7.2577;
78.9000;0.3289;7.2671;
79.2000;0.3362;7.2789;
79.5000;0.3297;7.2577;
79.8000;0.3313;7.2577;
80.1000;0.3289;7.2530;
80.4000;0.3337;7.2577;
80.7000;0.3280;7.2436;
81.0000;0.3280;7.2459;
81.3000;0.3264;7.2483;
81.6000;0.3280;7.2459;
81.9000;0.3321;7.2506;
82.2000;0.3289;7.2483;
82.5000;0.3289;7.2506;
82.8000;0.3289;7.2530;
83.1000;0.3280;7.2553;
83.4000;0.3248;7.2530;
83.7000;0.3256;7.2577;
84.0000;0.3264;7.2647;
84.3000;0.3280;7.2647;
84.6000;0.3264;7.2647;
84.9000;0.3280;7.2694;
85.2000;0.3264;7.2765;
85.5000;0.3280;7.2718;
85.8000;0.3280;7.2624;
86.1000;0.3313;7.2741;
86.4000;0.3289;7.2741;
86.7000;0.3297;7.2741;
87.0000;0.3321;7.2859;
87.3000;0.3313;7.2812;
87.6000;0.3305;7.2789;
87.9000;0.3321;7.2765;
88.2000;0.3362;7.2930;
88.5000;0.3297;7.2836;
88.8000;0.3297;7.2741;
89.1000;0.3337;7.2953;
89.4000;0.3289;7.2812;
89.7000;0.3272;7.2812;
90.0000;0.3297;7.2859;
90.3000;0.3280;7.2789;
90.6000;0.3297;7.2718;
90.9000;0.3297;7.2718;
91.2000;0.3305;7.2694;
91.5000;0.3289;7.2624;
91.8000;0.3289;7.2718;
92.1000;0.3321;7.2718;
92.4000;0.3305;7.2694;
92.7000;0.3289;7.2741;
93.0000;0.3313;7.2789;
93.3000;0.3297;7.2741;
93.6000;0.3313;7.2812;
93.9000;0.3289;7.2789;
94.2000;0.3305;7.2836;
94.5000;0.3289;7.2836;
94.8000;0.3313;7.2883;
95.1000;0.3280;7.2789;
95.4000;0.3289;7.2741;
95.7000;0.3289;7.2718;
96.0000;0.3256;7.2718;
96.3000;0.3313;7.2812;
96.6000;0.3297;7.2859;
96.9000;0.3305;7.2953;
97.2000;0.3248;7.2765;
97.5000;0.3305;7.2789;
97.8000;0.3256;7.2647;
98.1000;0.3305;7.2718;
98.4000;0.3313;7.2765;
98.7000;0.3321;7.2836;
99.0000;0.3305;7.2694;
99.3000;0.3289;7.2647;
99.6000;0.3272;7.2600;
99.9000;0.3305;7.2624;
100.2000;0.3321;7.2694;
100.5000;0.3313;7.2647;
100.8000;0.3297;7.2647;
101.1000;0.3272;7.2647;
101.4000;0.3305;7.2718;
101.7000;0.3329;7.2789;
102.0000;0.3305;7.2718;
102.3000;0.3305;7.2741;
102.6000;0.3297;7.2671;
102.9000;0.3305;7.2694;
103.2000;0.3313;7.2765;
103.5000;0.3313;7.2671;
103.8000;0.3289;7.2600;
104.1000;0.3297;7.2647;
104.4000;0.3297;7.2647;
104.7000;0.3313;7.2718;
105.0000;0.3346;7.2812;
105.3000;0.3248;7.2577;
105.6000;0.3272;7.2836;
105.9000;0.3305;7.2953;
106.2000;0.3289;7.2836;
106.5000;0.3305;7.2930;
106.8000;0.3305;7.2953;
107.1000;0.3386;7.3188;
107.4000;0.3305;7.2977;
107.7000;0.3297;7.2883;
108.0000;0.3305;7.2977;
108.3000;0.3313;7.2953;
108.6000;0.3305;7.2977;
108.9000;0.3321;7.3047;
109.2000;0.3313;7.3047;
109.5000;0.3297;7.2977;
109.8000;0.3313;7.3024;
110.1000;0.3289;7.2930;
110.4000;0.3321;7.2883;
110.7000;0.3289;7.2812;
111.0000;0.3419;7.3047;
111.3000;0.3305;7.2765;
111.6000;0.3329;7.2765;
111.9000;0.3329;7.2671;
112.2000;0.3337;7.2765;
112.5000;0.3305;7.2718;
112.8000;0.3346;7.2836;
113.1000;0.3321;7.2741;
113.4000;0.3321;7.2789;
113.7000;0.3313;7.2718;
114.0000;0.3329;7.2836;
114.3000;0.3321;7.2812;
114.6000;0.3264;7.2741;
114.9000;0.3297;7.2859;
115.2000;0.3329;7.2883;
115.5000;0.3362;7.2906;
115.8000;0.3305;7.2718;
116.1000;0.3346;7.2718;
116.4000;0.3313;7.2600;
116.7000;0.3305;7.2600;
117.0000;0.3297;7.2671;
117.3000;0.3305;7.2765;
117.6000;0.3321;7.2836;
117.9000;0.3305;7.2812;
118.2000;0.3313;7.2765;
118.5000;0.3297;7.2718;
118.8000;0.3313;7.2789;
119.1000;0.3362;7.2859;
119.4000;0.3403;7.3094;
119.7000;0.3305;7.2930;
120.0000;0.3305;7.2930;
120.3000;0.3289;7.2789;
120.6000;0.3305;7.2812;
120.9000;0.3321;7.2836;
121.2000;0.3305;7.2836;
121.5000;0.3321;7.2859;
121.8000;0.3329;7.2812;
122.1000;0.3248;7.2600;
122.4000;0.3297;7.2600;
122.7000;0.3321;7.2600;
123.0000;0.3305;7.2600;
123.3000;0.3232;7.2483;
123.6000;0.3337;7.2741;
123.9000;0.3305;7.2741;
124.2000;0.3313;7.2765;
124.5000;0.3321;7.2836;
124.8000;0.3297;7.2741;
125.1000;0.3362;7.2836;
125.4000;0.3321;7.2671;
125.7000;0.3321;7.2600;
126.0000;0.3321;7.2624;
126.3000;0.3321;7.2600;
126.6000;0.3329;7.2624;
126.9000;0.3346;7.2718;
127.2000;0.3305;7.2671;
127.5000;0.3313;7.2765;
127.8000;0.3378;7.2883;
128.1000;0.3280;7.2671;
128.4000;0.3321;7.2741;
128.7000;0.3313;7.2765;
129.0000;0.3313;7.2789;
129.3000;0.3329;7.2765;
129.6000;0.3321;7.2765;
129.9000;0.3264;7.2624;
130.2000;0.3386;7.2906;
130.5000;0.3337;7.2789;
130.8000;0.3305;7.2789;
131.1000;0.3329;7.2694;
131.4000;0.3313;7.2600;
131.7000;0.3305;7.2530;
132.0000;0.3297;7.2530;
132.3000;0.3313;7.2506;
132.6000;0.3305;7.2600;
132.9000;0.3321;7.2671;
133.2000;0.3280;7.2577;
133.5000;0.3337;7.2624;
133.8000;0.3321;7.2624;
134.1000;0.3232;7.2365;
134.4000;0.3329;7.2530;
134.7000;0.3321;7.2553;
135.0000;0.3313;7.2506;
135.3000;0.3329;7.2577;
135.6000;0.3329;7.2647;
135.9000;0.3329;7.2600;
136.2000;0.3321;7.2530;
136.5000;0.3321;7.2389;
136.8000;0.3337;7.2483;
137.1000;0.3329;7.2483;
137.4000;0.3321;7.2530;
137.7000;0.3346;7.2577;
138.0000;0.3337;7.2530;
138.3000;0.3362;7.2530;
138.6000;0.3272;7.2318;
138.9000;0.3321;7.2365;
139.2000;0.3337;7.2295;
139.5000;0.3378;7.2459;
139.8000;0.3321;7.2389;
140.1000;0.3321;7.2342;
140.4000;0.3354;7.2436;
140.7000;0.3321;7.2318;
141.0000;0.3321;7.2342;
141.3000;0.3305;7.2248;
141.6000;0.3321;7.2342;
141.9000;0.3313;7.2365;
142.2000;0.3321;7.2436;
142.5000;0.3305;7.2436;
142.8000;0.3337;7.2506;
143.1000;0.3313;7.2483;
143.4000;0.3321;7.2506;
143.7000;0.3280;7.2577;
144.0000;0.3321;7.2671;
144.3000;0.3337;7.2789;
144.6000;0.3289;7.2600;
144.9000;0.3321;7.2647;
145.2000;0.3329;7.2577;
145.5000;0.3329;7.2553;
145.8000;0.3321;7.2577;
146.1000;0.3329;7.2530;
146.4000;0.3337;7.2553;
146.7000;0.3329;7.2459;
147.0000;0.3346;7.2459;
147.3000;0.3337;7.2389;
147.6000;0.3329;7.2342;
147.9000;0.3297;7.2365;
148.2000;0.3337;7.2553;
148.5000;0.3337;7.2577;
148.8000;0.3240;7.2201;
149.1000;0.3289;7.2436;
149.4000;0.3329;7.2506;
149.7000;0.3329;7.2483;
150.0000;0.3321;7.2389;
150.3000;0.3329;7.2365;
150.6000;0.3354;7.2342;
150.9000;0.3354;7.2436;
151.2000;0.3329;7.2459;
151.5000;0.3362;7.2577;
151.8000;0.3321;7.2506;
152.1000;0.3329;7.2530;
152.4000;0.3378;7.2577;
152.7000;0.3378;7.2600;
153.0000;0.3329;7.2530;
153.3000;0.3272;7.2342;
153.6000;0.3329;7.2506;
153.9000;0.3313;7.2459;
154.2000;0.3346;7.2671;
154.5000;0.3354;7.2647;
154.8000;0.3329;7.2624;
155.1000;0.3272;7.2530;
155.4000;0.3329;7.2671;
155.7000;0.3346;7.2671;
156.0000;0.3305;7.2647;
156.3000;0.3337;7.2836;
156.6000;0.3313;7.2765;
156.9000;0.3305;7.2741;
157.2000;0.3337;7.2765;
157.5000;0.3305;7.2624;
157.8000;0.3321;7.2624;
158.1000;0.3337;7.2694;
158.4000;0.3354;7.2718;
158.7000;0.3280;7.2577;
159.0000;0.3329;7.2671;
159.3000;0.3346;7.2671;
159.6000;0.3354;7.2600;
159.9000;0.3354;7.2577;
160.2000;0.3321;7.2600;
160.5000;0.3329;7.2647;
160.8000;0.3346;7.2765;
161.1000;0.3305;7.2741;
161.4000;0.3329;7.2694;
161.7000;0.3321;7.2741;
162.0000;0.3329;7.2836;
162.3000;0.3346;7.2789;
162.6000;0.3321;7.2694;
162.9000;0.3321;7.2718;
163.2000;0.3329;7.2718;
163.5000;0.3337;7.2647;
163.8000;0.3321;7.2647;
164.1000;0.3297;7.2671;
164.4000;0.3346;7.2789;
164.7000;0.3346;7.2765;
165.0000;0.3346;7.2718;
165.3000;0.3354;7.2836;
165.6000;0.3329;7.2836;
165.9000;0.3354;7.2906;
166.2000;0.3362;7.2953;
166.5000;0.3337;7.2718;
166.8000;0.3329;7.2765;
167.1000;0.3419;7.2953;
167.4000;0.3337;7.2765;
167.7000;0.3321;7.2789;
168.0000;0.3321;7.2789;
168.3000;0.3313;7.2812;
168.6000;0.3329;7.2859;
168.9000;0.3337;7.2765;
169.2000;0.3386;7.2906;
169.5000;0.3337;7.2765;
169.8000;0.3394;7.2812;
170.1000;0.3337;7.2624;
170.4000;0.3346;7.2671;
170.7000;0.3362;7.2718;
171.0000;0.3403;7.2883;
171.3000;0.3329;7.2647;
171.6000;0.3386;7.2789;
171.9000;0.3362;7.2718;
172.2000;0.3378;7.2765;
172.5000;0.3337;7.2718;
172.8000;0.3346;7.2694;
173.1000;0.3329;7.2577;
173.4000;0.3337;7.2600;
173.7000;0.3215;7.2365;
174.0000;0.3289;7.2483;
174.3000;0.3354;7.2694;
174.6000;0.3354;7.2624;
174.9000;0.3411;7.2812;
175.2000;0.3337;7.2671;
175.5000;0.3346;7.2718;
175.8000;0.3354;7.2789;
176.1000;0.3370;7.2836;
176.4000;0.3289;7.2647;
176.7000;0.3305;7.2694;
177.0000;0.3337;7.2789;
177.3000;0.3280;7.2694;
177.6000;0.3337;7.2859;
177.9000;0.3313;7.2789;
178.2000;0.3370;7.2906;
178.5000;0.3329;7.2765;
178.8000;0.3329;7.2812;
179.1000;0.3337;7.2765;
179.4000;0.3337;7.2741;
179.7000;0.3362;7.2741;
180.0000;0.3354;7.2741;
180.3000;0.3337;7.2718;
180.6000;0.3354;7.2694;
180.9000;0.3337;7.2718;
181.2000;0.3370;7.2789;
181.5000;0.3346;7.2859;
181.8000;0.3346;7.2930;
182.1000;0.3313;7.2859;
182.4000;0.3329;7.2836;
182.7000;0.3337;7.2812;
183.0000;0.3329;7.2906;
183.3000;0.3337;7.2977;
183.6000;0.3337;7.2930;
183.9000;0.3362;7.2883;
184.2000;0.3354;7.2906;
184.5000;0.3354;7.2812;
184.8000;0.3346;7.2741;
185.1000;0.3354;7.2741;
185.4000;0.3329;7.2765;
185.7000;0.3329;7.2741;
186.0000;0.3329;7.2718;
186.3000;0.3354;7.2789;
186.6000;0.3337;7.2718;
186.9000;0.3394;7.2694;
187.2000;0.3354;7.2577;
187.5000;0.3329;7.2600;
187.8000;0.3289;7.2459;
188.1000;0.3329;7.2577;
188.4000;0.3362;7.2671;
188.7000;0.3346;7.2694;
189.0000;0.3354;7.2647;
189.3000;0.3305;7.2600;
189.6000;0.3329;7.2624;
189.9000;0.3346;7.2459;
190.2000;0.3337;7.2553;
190.5000;0.3378;7.2718;
190.8000;0.3346;7.2671;
191.1000;0.3346;7.2694;
191.4000;0.3346;7.2765;
191.7000;0.3346;7.2741;
192.0000;0.3337;7.2718;
192.3000;0.3329;7.2553;
192.6000;0.3329;7.2600;
192.9000;0.3337;7.2530;
193.2000;0.3435;7.2671;
193.5000;0.3337;7.2412;
193.8000;0.3313;7.2459;
194.1000;0.3337;7.2530;
194.4000;0.3329;7.2553;
194.7000;0.3354;7.2600;
195.0000;0.3362;7.2577;
195.3000;0.3329;7.2506;
195.6000;0.3337;7.2577;
195.9000;0.3313;7.2553;
196.2000;0.3329;7.2577;
196.5000;0.3346;7.2577;
196.8000;0.3346;7.2553;
197.1000;0.3305;7.2506;
197.4000;0.3346;7.2718;
197.7000;0.3370;7.2765;
198.0000;0.3321;7.2671;
198.3000;0.3337;7.2718;
198.6000;0.3411;7.2859;
198.9000;0.3313;7.2718;
199.2000;0.3305;7.2694;
199.5000;0.3337;7.2741;
199.8000;0.3329;7.2671;
200.1000;0.3329;7.2577;
200.4000;0.3354;7.2624;
200.7000;0.3362;7.2600;
201.0000;0.3403;7.2741;
201.3000;0.3329;7.2600;
201.6000;0.3329;7.2577;
201.9000;0.3329;7.2600;
202.2000;0.3321;7.2600;
202.5000;0.3321;7.2671;
202.8000;0.3329;7.2694;
203.1000;0.3321;7.2694;
203.4000;0.3329;7.2671;
203.7000;0.3329;7.2600;
204.0000;0.3362;7.2600;
204.3000;0.3329;7.2624;
204.6000;0.3337;7.2553;
204.9000;0.3354;7.2600;
205.2000;0.3370;7.2671;
205.5000;0.3321;7.2647;
205.8000;0.3354;7.2647;
206.1000;0.3337;7.2553;
206.4000;0.3346;7.2671;
206.7000;0.3354;7.2671;
207.0000;0.3329;7.2624;
207.3000;0.3337;7.2553;
207.6000;0.3346;7.2624;
207.9000;0.3346;7.2600;
208.2000;0.3362;7.2694;
208.5000;0.3329;7.2506;
208.8000;0.3337;7.2553;
209.1000;0.3362;7.2647;
209.4000;0.3362;7.2671;
209.7000;0.3329;7.2577;
210.0000;0.3337;7.2647;
210.3000;0.3321;7.2647;
210.6000;0.3346;7.2836;
210.9000;0.3346;7.2883;
211.2000;0.3313;7.2836;
211.5000;0.3305;7.2883;
211.8000;0.3321;7.2930;
212.1000;0.3321;7.2953;
212.4000;0.3289;7.2812;
212.7000;0.3329;7.2789;
213.0000;0.3305;7.2718;
213.3000;0.3346;7.2765;
213.6000;0.3329;7.2789;
213.9000;0.3337;7.2789;
214.2000;0.3394;7.2812;
214.5000;0.3354;7.2624;
214.8000;0.3337;7.2600;
215.1000;0.3313;7.2624;
215.4000;0.3394;7.2883;
215.7000;0.3321;7.2694;
216.0000;0.3289;7.2741;
216.3000;0.3394;7.3024;
216.6000;0.3321;7.2859;
216.9000;0.3329;7.2765;
217.2000;0.3329;7.2671;
217.5000;0.3329;7.2647;
217.8000;0.3370;7.2812;
218.1000;0.3329;7.2765;
218.4000;0.3337;7.2789;
218.7000;0.3329;7.2718;
219.0000;0.3346;7.2647;
219.3000;0.3354;7.2647;
219.6000;0.3280;7.2553;
219.9000;0.3329;7.2718;
220.2000;0.3354;7.2836;
220.5000;0.3337;7.2836;
220.8000;0.3354;7.2812;
221.1000;0.3346;7.2694;
221.4000;0.3346;7.2624;
221.7000;0.3329;7.2694;
222.0000;0.3297;7.2671;
222.3000;0.3329;7.2671;
222.6000;0.3321;7.2671;
222.9000;0.3305;7.2718;
223.2000;0.3329;7.2741;
223.5000;0.3337;7.2765;
223.8000;0.3362;7.2883;
224.1000;0.3337;7.2836;
224.4000;0.3346;7.2859;
224.7000;0.3329;7.2906;
225.0000;0.3321;7.2836;
225.3000;0.3329;7.2812;
225.6000;0.3346;7.2836;
225.9000;0.3346;7.2741;
226.2000;0.3329;7.2741;
226.5000;0.3337;7.2694;
226.8000;0.3321;7.2671;
227.1000;0.3337;7.2741;
227.4000;0.3321;7.2671;
227.7000;0.3329;7.2624;
228.0000;0.3346;7.2553;
228.3000;0.3337;7.2530;
228.6000;0.3321;7.2600;
228.9000;0.3337;7.2553;
229.2000;0.3346;7.2530;
229.5000;0.3346;7.2647;
229.8000;0.3386;7.2741;
230.1000;0.3346;7.2671;
230.4000;0.3337;7.2694;
230.7000;0.3297;7.2577;
231.0000;0.3370;7.2741;
231.3000;0.3337;7.2671;
231.6000;0.3337;7.2624;
231.9000;0.3337;7.2647;
232.2000;0.3346;7.2624;
232.5000;0.3329;7.2624;
232.8000;0.3329;7.2694;
233.1000;0.3346;7.2647;
233.4000;0.3337;7.2530;
233.7000;0.3337;7.2530;
234.0000;0.3321;7.2530;
234.3000;0.3337;7.2577;
234.6000;0.3337;7.2624;
234.9000;0.3329;7.2647;
235.2000;0.3329;7.2600;
235.5000;0.3346;7.2647;
235.8000;0.3346;7.2671;
236.1000;0.3346;7.2553;
236.4000;0.3403;7.2694;
236.7000;0.3362;7.2577;
237.0000;0.3272;7.2365;
237.3000;0.3337;7.2600;
237.6000;0.3321;7.2647;
237.9000;0.3346;7.2671;
238.2000;0.3337;7.2624;
238.5000;0.3297;7.2577;
238.8000;0.3329;7.2647;
239.1000;0.3329;7.2624;
239.4000;0.3346;7.2671;
239.7000;0.3321;7.2671;
240.0000;0.3337;7.2694;
240.3000;0.3354;7.2694;
240.6000;0.3354;7.2741;
240.9000;0.3337;7.2694;
241.2000;0.3362;7.2718;
241.5000;0.3321;7.2577;
241.8000;0.3329;7.2600;
242.1000;0.3337;7.2553;
242.4000;0.3321;7.2459;
242.7000;0.3313;7.2365;
243.0000;0.3346;7.2459;
243.3000;0.3337;7.2459;
243.6000;0.3346;7.2553;
243.9000;0.3313;7.2459;
244.2000;0.3354;7.2530;
244.5000;0.3362;7.2577;
244.8000;0.3484;7.2930;
245.1000;0.3370;7.2600;
245.4000;0.3378;7.2671;
245.7000;0.3337;7.2530;
246.0000;0.3337;7.2577;
246.3000;0.3329;7.2506;
246.6000;0.3346;7.2577;
246.9000;0.3329;7.2553;
247.2000;0.3313;7.2506;
247.5000;0.3321;7.2553;
247.8000;0.3337;7.2577;
248.1000;0.3321;7.2577;
248.4000;0.3354;7.2530;
248.7000;0.3378;7.2530;
249.0000;0.3386;7.2600;
249.3000;0.3362;7.2483;
249.6000;0.3321;7.2530;
249.9000;0.3346;7.2530;
250.2000;0.3337;7.2506;
250.5000;0.3354;7.2577;
250.8000;0.3305;7.2506;
251.1000;0.3337;7.2600;
251.4000;0.3329;7.2624;
251.7000;0.3329;7.2624;
252.0000;0.3289;7.2577;
252.3000;0.3321;7.2647;
252.6000;0.3280;7.2483;
252.9000;0.3321;7.2530;
253.2000;0.3329;7.2671;
253.5000;0.3370;7.2883;
253.8000;0.3346;7.2812;
254.1000;0.3337;7.2859;
254.4000;0.3346;7.2836;
254.7000;0.3337;7.2836;
255.0000;0.3346;7.2765;
255.3000;0.3370;7.2812;
255.6000;0.3354;7.2836;
255.9000;0.3346;7.2741;
256.2000;0.3354;7.2718;
256.5000;0.3354;7.2765;
256.8000;0.3337;7.2694;
257.1000;0.3346;7.2624;
257.4000;0.3337;7.2553;
257.7000;0.3346;7.2624;
258.0000;0.3346;7.2671;
258.3000;0.3346;7.2600;
258.6000;0.3337;7.2624;
258.9000;0.3337;7.2530;
259.2000;0.3346;7.2483;
259.5000;0.3378;7.2553;
259.8000;0.3337;7.2483;
260.1000;0.3329;7.2412;
260.4000;0.3313;7.2365;
260.7000;0.3346;7.2412;
261.0000;0.3337;7.2436;
261.3000;0.3337;7.2483;
261.6000;0.3329;7.2483;
261.9000;0.3354;7.2459;
262.2000;0.3337;7.2483;
262.5000;0.3321;7.2506;
262.8000;0.3321;7.2577;
263.1000;0.3321;7.2600;
263.4000;0.3329;7.2600;
263.7000;0.3305;7.2624;
264.0000;0.3354;7.2694;
264.3000;0.3321;7.2647;
264.6000;0.3337;7.2647;
264.9000;0.3378;7.2836;
265.2000;0.3386;7.2930;
265.5000;0.3337;7.2883;
265.8000;0.3403;7.2930;
266.1000;0.3305;7.2694;
266.4000;0.3362;7.2883;
266.7000;0.3248;7.2647;
267.0000;0.3337;7.2883;
267.3000;0.3297;7.2718;
267.6000;0.3280;7.2765;
267.9000;0.3280;7.2600;
268.2000;0.3321;7.2741;
268.5000;0.3346;7.2694;
268.8000;0.3403;7.2859;
269.1000;0.3362;7.2718;
269.4000;0.3354;7.2718;
269.7000;0.3321;7.2647;
270.0000;0.3346;7.2765;
270.3000;0.3329;7.2789;
270.6000;0.3346;7.2836;
270.9000;0.3280;7.2694;
271.2000;0.3289;7.2765;
271.5000;0.3346;7.2836;
271.8000;0.3321;7.2765;
272.1000;0.3329;7.2694;
272.4000;0.3337;7.2624;
272.7000;0.3305;7.2553;
273.0000;0.3386;7.2836;
273.3000;0.3337;7.2694;
273.6000;0.3346;7.2647;
273.9000;0.3346;7.2718;
274.2000;0.3337;7.2647;
274.5000;0.3346;7.2600;
274.8000;0.3346;7.2718;
275.1000;0.3329;7.2647;
275.4000;0.3337;7.2530;
275.7000;0.3329;7.2577;
276.0000;0.3329;7.2600;
276.3000;0.3337;7.2624;
276.6000;0.3346;7.2694;
276.9000;0.3321;7.2671;
277.2000;0.3337;7.2765;
277.5000;0.3329;7.2624;
277.8000;0.3337;7.2647;
278.1000;0.3321;7.2577;
278.4000;0.3313;7.2624;
278.7000;0.3337;7.2647;
279.0000;0.3346;7.2694;
279.3000;0.3337;7.2671;
279.6000;0.3329;7.2577;
279.9000;0.3321;7.2577;
280.2000;0.3337;7.2718;
280.5000;0.3378;7.2812;
280.8000;0.3297;7.2577;
281.1000;0.3337;7.2647;
281.4000;0.3378;7.2718;
281.7000;0.3329;7.2577;
282.0000;0.3362;7.2647;
282.3000;0.3297;7.2483;
282.6000;0.3329;7.2553;
282.9000;0.3346;7.2553;
283.2000;0.3394;7.2577;
283.5000;0.3337;7.2389;
283.8000;0.3337;7.2530;
284.1000;0.3289;7.2389;
284.4000;0.3337;7.2530;
284.7000;0.3354;7.2624;
285.0000;0.3346;7.2553;
285.3000;0.3329;7.2506;
285.6000;0.3346;7.2624;
285.9000;0.3354;7.2530;
286.2000;0.3329;7.2483;
286.5000;0.3346;7.2600;
286.8000;0.3346;7.2600;
287.1000;0.3337;7.2600;
287.4000;0.3337;7.2647;
287.7000;0.3346;7.2600;
288.0000;0.3346;7.2530;
288.3000;0.3337;7.2483;
288.6000;0.3346;7.2530;
288.9000;0.3378;7.2647;
289.2000;0.3272;7.2412;
289.5000;0.3362;7.2577;
289.8000;0.3386;7.2600;
290.1000;0.3337;7.2459;
290.4000;0.3354;7.2483;
290.7000;0.3337;7.2459;
291.0000;0.3321;7.2436;
291.3000;0.3321;7.2506;
291.6000;0.3411;7.2647;
291.9000;0.3354;7.2577;
292.2000;0.3362;7.2600;
292.5000;0.3329;7.2553;
292.8000;0.3321;7.2553;
293.1000;0.3354;7.2600;
293.4000;0.3329;7.2553;
293.7000;0.3346;7.2553;
294.0000;0.3362;7.2530;
294.3000;0.3403;7.2718;
294.6000;0.3362;7.2600;
294.9000;0.3321;7.2506;
295.2000;0.3321;7.2553;
295.5000;0.3337;7.2671;
295.8000;0.3346;7.2671;
296.1000;0.3337;7.2671;
296.4000;0.3329;7.2694;
296.7000;0.3370;7.2718;
297.0000;0.3337;7.2577;
297.3000;0.3329;7.2624;
297.6000;0.3329;7.2553;
297.9000;0.3346;7.2647;
298.2000;0.3346;7.2483;
298.5000;0.3354;7.2459;
298.8000;0.3346;7.2459;
299.1000;0.3362;7.2483;
299.4000;0.3362;7.2436;
299.7000;0.3337;7.2483;
300.0000;0.3354;7.2600;
300.3000;0.3362;7.2671;
300.6000;0.3362;7.2694;
300.9000;0.3370;7.2741;
301.2000;0.3337;7.2624;
301.5000;0.3313;7.2530;
301.8000;0.3354;7.2624;
302.1000;0.3354;7.2647;
302.4000;0.3370;7.2694;
302.7000;0.3337;7.2647;
303.0000;0.3321;7.2530;
303.3000;0.3337;7.2530;
303.6000;0.3337;7.2530;
303.9000;0.3346;7.2553;
304.2000;0.3378;7.2624;
304.5000;0.3346;7.2412;
304.8000;0.3346;7.2459;
305.1000;0.3346;7.2553;
305.4000;0.3289;7.2459;
305.7000;0.3321;7.2577;
306.0000;0.3346;7.2459;
306.3000;0.3297;7.2389;
306.6000;0.3346;7.2459;
306.9000;0.3305;7.2342;
307.2000;0.3329;7.2436;
307.5000;0.3321;7.2459;
307.8000;0.3337;7.2553;
308.1000;0.3370;7.2718;
308.4000;0.3346;7.2694;
308.7000;0.3337;7.2741;
309.0000;0.3329;7.2765;
309.3000;0.3337;7.2836;
309.6000;0.3346;7.2883;
309.9000;0.3337;7.2859;
310.2000;0.3346;7.2859;
310.5000;0.3329;7.2765;
310.8000;0.3354;7.2812;
311.1000;0.3378;7.2765;
311.4000;0.3354;7.2671;
311.7000;0.3346;7.2718;
312.0000;0.3411;7.2930;
312.3000;0.3354;7.2765;
312.6000;0.3354;7.2765;
312.9000;0.3354;7.2836;
313.2000;0.3354;7.2906;
313.5000;0.3354;7.2953;
313.8000;0.3337;7.2977;
314.1000;0.3337;7.2883;
314.4000;0.3329;7.2836;
314.7000;0.3346;7.2883;
315.0000;0.3313;7.2765;
315.3000;0.3337;7.2836;
315.6000;0.3329;7.2789;
315.9000;0.3362;7.2812;
316.2000;0.3305;7.2671;
316.5000;0.3321;7.2741;
316.8000;0.3329;7.2694;
317.1000;0.3354;7.2718;
317.4000;0.3337;7.2671;
317.7000;0.3337;7.2624;
318.0000;0.3329;7.2506;
318.3000;0.3329;7.2624;
318.6000;0.3337;7.2624;
318.9000;0.3337;7.2671;
319.2000;0.3337;7.2694;
319.5000;0.3329;7.2718;
319.8000;0.3337;7.2765;
320.1000;0.3354;7.2789;
320.4000;0.3329;7.2718;
320.7000;0.3329;7.2647;
321.0000;0.3346;7.2647;
321.3000;0.3329;7.2694;
321.6000;0.3329;7.2647;
321.9000;0.3297;7.2600;
322.2000;0.3354;7.2812;
322.5000;0.3354;7.2718;
322.8000;0.3403;7.2765;
323.1000;0.3354;7.2647;
323.4000;0.3346;7.2600;
323.7000;0.3346;7.2577;
324.0000;0.3289;7.2389;
324.3000;0.3346;7.2577;
324.6000;0.3313;7.2506;
324.9000;0.3329;7.2600;
325.2000;0.3337;7.2530;
325.5000;0.3337;7.2530;
325.8000;0.3329;7.2506;
326.1000;0.3346;7.2530;
326.4000;0.3354;7.2600;
326.7000;0.3346;7.2577;
327.0000;0.3321;7.2530;
327.3000;0.3362;7.2600;
327.6000;0.3337;7.2506;
327.9000;0.3321;7.2389;
328.2000;0.3313;7.2318;
328.5000;0.3329;7.2436;
328.8000;0.3337;7.2459;
329.1000;0.3337;7.2506;
329.4000;0.3305;7.2506;
329.7000;0.3337;7.2553;
330.0000;0.3321;7.2459;
330.3000;0.3297;7.2365;
330.6000;0.3329;7.2459;
330.9000;0.3329;7.2577;
331.2000;0.3305;7.2530;
331.5000;0.3346;7.2506;
331.8000;0.3321;7.2436;
332.1000;0.3321;7.2483;
332.4000;0.3403;7.2694;
332.7000;0.3329;7.2506;
333.0000;0.3346;7.2506;
333.3000;0.3329;7.2459;
333.6000;0.3337;7.2436;
333.9000;0.3354;7.2436;
334.2000;0.3346;7.2389;
334.5000;0.3321;7.2318;
334.8000;0.3346;7.2412;
335.1000;0.3346;7.2459;
335.4000;0.3346;7.2530;
335.7000;0.3346;7.2647;
336.0000;0.3337;7.2506;
336.3000;0.3346;7.2506;
336.6000;0.3305;7.2389;
336.9000;0.3329;7.2530;
337.2000;0.3354;7.2624;
337.5000;0.3337;7.2577;
337.8000;0.3337;7.2600;
338.1000;0.3346;7.2624;
338.4000;0.3321;7.2506;
338.7000;0.3354;7.2577;
339.0000;0.3337;7.2577;
339.3000;0.3321;7.2389;
339.6000;0.3346;7.2412;
339.9000;0.3403;7.2647;
340.2000;0.3354;7.2530;
340.5000;0.3337;7.2530;
340.8000;0.3337;7.2483;
341.1000;0.3337;7.2530;
341.4000;0.3321;7.2483;
341.7000;0.3329;7.2506;
342.0000;0.3386;7.2553;
342.3000;0.3329;7.2436;
342.6000;0.3329;7.2483;
342.9000;0.3329;7.2436;
343.2000;0.3321;7.2459;
343.5000;0.3321;7.2483;
343.8000;0.3346;7.2553;
344.1000;0.3329;7.2483;
344.4000;0.3321;7.2459;
344.7000;0.3305;7.2318;
345.0000;0.3329;7.2318;
345.3000;0.3329;7.2389;
345.6000;0.3346;7.2412;
345.9000;0.3321;7.2318;
346.2000;0.3354;7.2412;
346.5000;0.3346;7.2365;
346.8000;0.3329;7.2318;
347.1000;0.3337;7.2342;
347.4000;0.3329;7.2271;
347.7000;0.3362;7.2342;
348.0000;0.3346;7.2318;
348.3000;0.3354;7.2318;
348.6000;0.3346;7.2271;
348.9000;0.3346;7.2224;
349.2000;0.3362;7.2271;
349.5000;0.3354;7.2295;
349.8000;0.3337;7.2271;
350.1000;0.3321;7.2318;
350.4000;0.3313;7.2295;
350.7000;0.3354;7.2483;
351.0000;0.3313;7.2436;
351.3000;0.3337;7.2506;
351.6000;0.3346;7.2553;
351.9000;0.3346;7.2624;
352.2000;0.3329;7.2647;
352.5000;0.3329;7.2671;
352.8000;0.3329;7.2718;
353.1000;0.3321;7.2647;
353.4000;0.3313;7.2624;
353.7000;0.3313;7.2577;
354.0000;0.3354;7.2624;
354.3000;0.3329;7.2530;
354.6000;0.3329;7.2577;
354.9000;0.3354;7.2624;
355.2000;0.3337;7.2624;
355.5000;0.3346;7.2600;
355.8000;0.3329;7.2624;
356.1000;0.3403;7.2812;
356.4000;0.3321;7.2600;
356.7000;0.3362;7.2694;
357.0000;0.3337;7.2624;
357.3000;0.3443;7.2883;
357.6000;0.3346;7.2647;
357.9000;0.3370;7.2694;
358.2000;0.3337;7.2506;
358.5000;0.3337;7.2553;
358.8000;0.3272;7.2459;
359.1000;0.3337;7.2647;
359.4000;0.3329;7.2506;
359.7000;0.3337;7.2483;
360.0000;0.3329;7.2459;
360.3000;0.3354;7.2553;
360.6000;0.3346;7.2530;
360.9000;0.3305;7.2459;
361.2000;0.3403;7.2765;
361.5000;0.3329;7.2600;
361.8000;0.3280;7.2436;
362.1000;0.3362;7.2600;
362.4000;0.3289;7.2506;
362.7000;0.3232;7.2436;
363.0000;0.3337;7.2647;
363.3000;0.3223;7.2318;
363.6000;0.3329;7.2530;
363.9000;0.3337;7.2530;
364.2000;0.3321;7.2530;
364.5000;0.3329;7.2530;
364.8000;0.3346;7.2577;
365.1000;0.3346;7.2577;
365.4000;0.3329;7.2553;
365.7000;0.3370;7.2718;
366.0000;0.3346;7.2694;
366.3000;0.3329;7.2647;
366.6000;0.3337;7.2671;
366.9000;0.3346;7.2694;
367.2000;0.3346;7.2694;
367.5000;0.3329;7.2671;
367.8000;0.3337;7.2694;
368.1000;0.3354;7.2647;
368.4000;0.3346;7.2647;
368.7000;0.3346;7.2600;
369.0000;0.3346;7.2647;
369.3000;0.3337;7.2647;
369.6000;0.3362;7.2741;
369.9000;0.3346;7.2671;
370.2000;0.3337;7.2671;
370.5000;0.3346;7.2718;
370.8000;0.3329;7.2694;
371.1000;0.3313;7.2624;
371.4000;0.3337;7.2694;
371.7000;0.3354;7.2718;
372.0000;0.3329;7.2671;
372.3000;0.3370;7.2741;
372.6000;0.3329;7.2694;
372.9000;0.3346;7.2765;
373.2000;0.3337;7.2694;
373.5000;0.3337;7.2647;
373.8000;0.3346;7.2647;
374.1000;0.3386;7.2718;
374.4000;0.3337;7.2600;
374.7000;0.3354;7.2789;
375.0000;0.3313;7.2741;
375.3000;0.3346;7.2694;
375.6000;0.3337;7.2671;
375.9000;0.3321;7.2671;
376.2000;0.3321;7.2530;
376.5000;0.3354;7.2600;
376.8000;0.3362;7.2553;
377.1000;0.3337;7.2506;
377.4000;0.3362;7.2577;
377.7000;0.3329;7.2577;
378.0000;0.3337;7.2553;
378.3000;0.3280;7.2389;
378.6000;0.3321;7.2577;
378.9000;0.3362;7.2765;
379.2000;0.3370;7.2812;
379.5000;0.3354;7.2859;
379.8000;0.3370;7.2789;
380.1000;0.3337;7.2624;
380.4000;0.3313;7.2600;
380.7000;0.3337;7.2694;
381.0000;0.3362;7.2812;
381.3000;0.3337;7.2741;
381.6000;0.3321;7.2741;
381.9000;0.3370;7.2741;
382.2000;0.3346;7.2577;
382.5000;0.3329;7.2624;
382.8000;0.3297;7.2624;
383.1000;0.3337;7.2647;
383.4000;0.3297;7.2600;
383.7000;0.3321;7.2624;
384.0000;0.3411;7.2812;
384.3000;0.3329;7.2577;
384.6000;0.3346;7.2624;
384.9000;0.3394;7.2765;
385.2000;0.3346;7.2718;
385.5000;0.3337;7.2671;
385.8000;0.3313;7.2624;
386.1000;0.3337;7.2765;
386.4000;0.3321;7.2624;
386.7000;0.3215;7.2436;
387.0000;0.3321;7.2671;
387.3000;0.3362;7.2718;
387.6000;0.3321;7.2624;
387.9000;0.3321;7.2600;
388.2000;0.3337;7.2600;
388.5000;0.3321;7.2600;
388.8000;0.3297;7.2483;
389.1000;0.3329;7.2436;
389.4000;0.3321;7.2459;
389.7000;0.3329;7.2577;
390.0000;0.3272;7.2436;
390.3000;0.3321;7.2577;
390.6000;0.3329;7.2671;
390.9000;0.3346;7.2718;
391.2000;0.3337;7.2694;
391.5000;0.3337;7.2600;
391.8000;0.3346;7.2577;
392.1000;0.3370;7.2600;
392.4000;0.3370;7.2671;
392.7000;0.3321;7.2624;
393.0000;0.3346;7.2741;
393.3000;0.3337;7.2647;
393.6000;0.3378;7.2624;
393.9000;0.3321;7.2483;
394.2000;0.3337;7.2530;
394.5000;0.3362;7.2553;
394.8000;0.3346;7.2553;
395.1000;0.3329;7.2506;
395.4000;0.3370;7.2530;
395.7000;0.3329;7.2459;
396.0000;0.3329;7.2553;
396.3000;0.3321;7.2600;
396.6000;0.3337;7.2600;
396.9000;0.3305;7.2506;
397.2000;0.3329;7.2553;
397.5000;0.3305;7.2553;
397.8000;0.3362;7.2694;
398.1000;0.3321;7.2577;
398.4000;0.3386;7.2694;
398.7000;0.3313;7.2506;
399.0000;0.3337;7.2553;
399.3000;0.3280;7.2412;
399.6000;0.3337;7.2553;
399.9000;0.3386;7.2694;
400.2000;0.3394;7.2765;
400.5000;0.3346;7.2694;
400.8000;0.3321;7.2600;
401.1000;0.3378;7.2718;
401.4000;0.3386;7.2812;
401.7000;0.3346;7.2765;
402.0000;0.3337;7.2765;
402.3000;0.3248;7.2577;
402.6000;0.3354;7.2765;
402.9000;0.3329;7.2671;
403.2000;0.3411;7.2765;
403.5000;0.3329;7.2577;
403.8000;0.3354;7.2624;
404.1000;0.3329;7.2600;
404.4000;0.3337;7.2718;
404.7000;0.3346;7.2741;
405.0000;0.3346;7.2765;
405.3000;0.3337;7.2694;
405.6000;0.3256;7.2436;
405.9000;0.3354;7.2600;
406.2000;0.3386;7.2600;
406.5000;0.3346;7.2577;
406.8000;0.3313;7.2436;
407.1000;0.3329;7.2436;
407.4000;0.3313;7.2483;
407.7000;0.3337;7.2530;
408.0000;0.3337;7.2506;
408.3000;0.3321;7.2389;
408.6000;0.3337;7.2577;
408.9000;0.3337;7.2600;
409.2000;0.3337;7.2624;
409.5000;0.3337;7.2530;
409.8000;0.3346;7.2647;
410.1000;0.3378;7.2765;
410.4000;0.3329;7.2718;
410.7000;0.3329;7.2694;
411.0000;0.3411;7.2906;
411.3000;0.3362;7.2789;
411.6000;0.3354;7.2718;
411.9000;0.3337;7.2718;
412.2000;0.3313;7.2718;
412.5000;0.3354;7.2765;
412.8000;0.3329;7.2647;
413.1000;0.3329;7.2624;
413.4000;0.3321;7.2647;
413.7000;0.3337;7.2671;
414.0000;0.3354;7.2765;
414.3000;0.3346;7.2741;
414.6000;0.3329;7.2647;
414.9000;0.3329;7.2624;
415.2000;0.3354;7.2553;
415.5000;0.3346;7.2553;
415.8000;0.3346;7.2694;
416.1000;0.3321;7.2624;
416.4000;0.3329;7.2741;
416.7000;0.3337;7.2765;
417.0000;0.3346;7.2741;
417.3000;0.3354;7.2647;
417.6000;0.3346;7.2624;
417.9000;0.3264;7.2295;
418.2000;0.3321;7.2436;
418.5000;0.3321;7.2365;
418.8000;0.3321;7.2342;
419.1000;0.3346;7.2436;
419.4000;0.3386;7.2483;
419.7000;0.3321;7.2342;
420.0000;0.3354;7.2436;
420.3000;0.3370;7.2365;
420.6000;0.3435;7.2530;
420.9000;0.3337;7.2342;
421.2000;0.3321;7.2342;
421.5000;0.3313;7.2365;
421.8000;0.3354;7.2483;
422.1000;0.3337;7.2412;
422.4000;0.3313;7.2459;
422.7000;0.3346;7.2600;
423.0000;0.3354;7.2671;
423.3000;0.3337;7.2671;
423.6000;0.3337;7.2718;
423.9000;0.3337;7.2671;
424.2000;0.3329;7.2647;
424.5000;0.3346;7.2600;
424.8000;0.3321;7.2624;
425.1000;0.3329;7.2671;
425.4000;0.3346;7.2671;
425.7000;0.3321;7.2694;
426.0000;0.3321;7.2647;
426.3000;0.3370;7.2718;
426.6000;0.3313;7.2530;
426.9000;0.3329;7.2553;
427.2000;0.3346;7.2577;
427.5000;0.3337;7.2577;
427.8000;0.3337;7.2553;
428.1000;0.3329;7.2553;
428.4000;0.3337;7.2600;
428.7000;0.3354;7.2553;
429.0000;0.3337;7.2553;
429.3000;0.3337;7.2624;
429.6000;0.3297;7.2436;
429.9000;0.3329;7.2436;
430.2000;0.3313;7.2412;
430.5000;0.3354;7.2459;
430.8000;0.3321;7.2436;
431.1000;0.3313;7.2483;
431.4000;0.3346;7.2647;
431.7000;0.3337;7.2671;
432.0000;0.3354;7.2647;
432.3000;0.3329;7.2624;
432.6000;0.3321;7.2553;
432.9000;0.3362;7.2553;
433.2000;0.3337;7.2412;
433.5000;0.3329;7.2389;
433.8000;0.3337;7.2459;
434.1000;0.3337;7.2506;
434.4000;0.3337;7.2506;
434.7000;0.3329;7.2436;
435.0000;0.3321;7.2459;
435.3000;0.3321;7.2483;
435.6000;0.3337;7.2506;
435.9000;0.3313;7.2412;
436.2000;0.3354;7.2506;
436.5000;0.3346;7.2459;
436.8000;0.3337;7.2389;
437.1000;0.3321;7.2318;
437.4000;0.3354;7.2412;
437.7000;0.3321;7.2389;
438.0000;0.3346;7.2412;
438.3000;0.3313;7.2365;
438.6000;0.3329;7.2318;
438.9000;0.3337;7.2224;
439.2000;0.3370;7.2318;
439.5000;0.3329;7.2248;
439.8000;0.3337;7.2389;
440.1000;0.3386;7.2436;
440.4000;0.3346;7.2318;
440.7000;0.3337;7.2318;
441.0000;0.3264;7.2177;
441.3000;0.3329;7.2342;
441.6000;0.3321;7.2318;
441.9000;0.3370;7.2483;
442.2000;0.3354;7.2483;
442.5000;0.3329;7.2436;
442.8000;0.3313;7.2365;
443.1000;0.3337;7.2412;
443.4000;0.3346;7.2365;
443.7000;0.3337;7.2389;
444.0000;0.3329;7.2459;
444.3000;0.3337;7.2483;
444.6000;0.3337;7.2483;
444.9000;0.3329;7.2530;
445.2000;0.3321;7.2530;
445.5000;0.3337;7.2530;
445.8000;0.3256;7.2412;
446.1000;0.3305;7.2553;
446.4000;0.3362;7.2553;
446.7000;0.3329;7.2459;
447.0000;0.3313;7.2318;
447.3000;0.3378;7.2389;
447.6000;0.3329;7.2201;
447.9000;0.3337;7.2271;
448.2000;0.3354;7.2365;
448.5000;0.3329;7.2342;
448.8000;0.3386;7.2483;
449.1000;0.3346;7.2412;
449.4000;0.3346;7.2530;
449.7000;0.3329;7.2506;
450.0000;0.3378;7.2506;
450.3000;0.3362;7.2459;
450.6000;0.3321;7.2436;
450.9000;0.3305;7.2271;
451.2000;0.3337;7.2248;
451.5000;0.3321;7.2224;
451.8000;0.3337;7.2295;
452.1000;0.3346;7.2342;
452.4000;0.3346;7.2318;
452.7000;0.3321;7.2318;
453.0000;0.3329;7.2271;
453.3000;0.3346;7.2318;
453.6000;0.3354;7.2295;
453.9000;0.3321;7.2154;
454.2000;0.3346;7.2224;
454.5000;0.3337;7.2224;
454.8000;0.3346;7.2224;
455.1000;0.3337;7.2154;
455.4000;0.3346;7.2201;
455.7000;0.3354;7.2201;
456.0000;0.3346;7.2224;
456.3000;0.3346;7.2224;
456.6000;0.3329;7.2342;
456.9000;0.3337;7.2342;
457.2000;0.3321;7.2318;
457.5000;0.3346;7.2342;
457.8000;0.3329;7.2342;
458.1000;0.3321;7.2295;
458.4000;0.3337;7.2295;
458.7000;0.3337;7.2271;
459.0000;0.3354;7.2365;
459.3000;0.3337;7.2365;
459.6000;0.3337;7.2318;
459.9000;0.3321;7.2318;
460.2000;0.3354;7.2318;
460.5000;0.3378;7.2318;
460.8000;0.3362;7.2318;
461.1000;0.3346;7.2248;
461.4000;0.3346;7.2224;
461.7000;0.3354;7.2318;
462.0000;0.3362;7.2412;
462.3000;0.3370;7.2506;
462.6000;0.3411;7.2577;
462.9000;0.3354;7.2342;
463.2000;0.3354;7.2506;
463.5000;0.3337;7.2506;
463.8000;0.3329;7.2436;
464.1000;0.3321;7.2436;
464.4000;0.3337;7.2483;
464.7000;0.3329;7.2483;
465.0000;0.3240;7.2177;
465.3000;0.3313;7.2412;
465.6000;0.3313;7.2365;
465.9000;0.3329;7.2389;
466.2000;0.3346;7.2389;
466.5000;0.3321;7.2459;
466.8000;0.3337;7.2483;
467.1000;0.3321;7.2483;
467.4000;0.3346;7.2600;
467.7000;0.3354;7.2694;
468.0000;0.3337;7.2694;
468.3000;0.3337;7.2718;
468.6000;0.3305;7.2600;
468.9000;0.3329;7.2718;
469.2000;0.3313;7.2741;
469.5000;0.3394;7.3000;
469.8000;0.3370;7.2953;
470.1000;0.3280;7.2741;
470.4000;0.3394;7.3024;
470.7000;0.3337;7.2883;
471.0000;0.3362;7.2930;
471.3000;0.3289;7.2741;
471.6000;0.3362;7.2812;
471.9000;0.3313;7.2647;
472.2000;0.3346;7.2694;
472.5000;0.3403;7.2765;
472.8000;0.3337;7.2718;
473.1000;0.3346;7.2765;
473.4000;0.3460;7.3141;
473.7000;0.3354;7.2953;
474.0000;0.3337;7.2883;
474.3000;0.3337;7.2812;
474.6000;0.3354;7.2859;
474.9000;0.3329;7.2671;
475.2000;0.3337;7.2671;
475.5000;0.3337;7.2647;
475.8000;0.3337;7.2718;
476.1000;0.3337;7.2718;
476.4000;0.3337;7.2553;
476.7000;0.3321;7.2530;
477.0000;0.3354;7.2530;
477.3000;0.3354;7.2530;
477.6000;0.3346;7.2530;
477.9000;0.3354;7.2506;
478.2000;0.3337;7.2577;
478.5000;0.3321;7.2600;
478.8000;0.3337;7.2600;
479.1000;0.3346;7.2624;
479.4000;0.3321;7.2506;
479.7000;0.3321;7.2577;
480.0000;0.3321;7.2577;
480.3000;0.3337;7.2600;
480.6000;0.3329;7.2553;
480.9000;0.3305;7.2459;
481.2000;0.3346;7.2530;
481.5000;0.3337;7.2483;
481.8000;0.3346;7.2577;
482.1000;0.3321;7.2577;
482.4000;0.3354;7.2624;
482.7000;0.3386;7.2647;
483.0000;0.3280;7.2389;
483.3000;0.3346;7.2506;
483.6000;0.3305;7.2365;
483.9000;0.3329;7.2412;
484.2000;0.3321;7.2436;
484.5000;0.3321;7.2412;
484.8000;0.3232;7.2248;
485.1000;0.3337;7.2459;
485.4000;0.3362;7.2459;
485.7000;0.3370;7.2506;
486.0000;0.3321;7.2530;
486.3000;0.3321;7.2577;
486.6000;0.3346;7.2553;
486.9000;0.3386;7.2600;
487.2000;0.3240;7.2271;
487.5000;0.3346;7.2553;
487.8000;0.3346;7.2530;
488.1000;0.3337;7.2483;
488.4000;0.3329;7.2412;
488.7000;0.3337;7.2436;
489.0000;0.3272;7.2318;
489.3000;0.3362;7.2647;
489.6000;0.3321;7.2553;
489.9000;0.3329;7.2600;
490.2000;0.3313;7.2624;
490.5000;0.3329;7.2647;
490.8000;0.3329;7.2577;
491.1000;0.3329;7.2600;
491.4000;0.3346;7.2577;
491.7000;0.3354;7.2577;
492.0000;0.3313;7.2600;
492.3000;0.3337;7.2624;
492.6000;0.3346;7.2624;
492.9000;0.3354;7.2530;
493.2000;0.3337;7.2459;
493.5000;0.3321;7.2412;
493.8000;0.3329;7.2436;
494.1000;0.3329;7.2412;
494.4000;0.3313;7.2459;
494.7000;0.3329;7.2530;
495.0000;0.3337;7.2553;
495.3000;0.3305;7.2436;
495.6000;0.3354;7.2600;
495.9000;0.3386;7.2624;
496.2000;0.3329;7.2506;
496.5000;0.3354;7.2483;
496.8000;0.3337;7.2436;
497.1000;0.3354;7.2600;
497.4000;0.3394;7.2694;
497.7000;0.3346;7.2624;
498.0000;0.3346;7.2483;
498.3000;0.3337;7.2389;
498.6000;0.3337;7.2342;
498.9000;0.3337;7.2365;
499.2000;0.3321;7.2342;
499.5000;0.3346;7.2389;
499.8000;0.3297;7.2271;
500.1000;0.3329;7.2318;
500.4000;0.3329;7.2436;
500.7000;0.3313;7.2412;
501.0000;0.3337;7.2412;
501.3000;0.3321;7.2436;
501.6000;0.3346;7.2483;
501.9000;0.3337;7.2412;
502.2000;0.3346;7.2412;
502.5000;0.3346;7.2342;
502.8000;0.3346;7.2271;
503.1000;0.3337;7.2248;
503.4000;0.3337;7.2389;
503.7000;0.3337;7.2506;
504.0000;0.3346;7.2436;
504.3000;0.3329;7.2459;
504.6000;0.3346;7.2506;
504.9000;0.3354;7.2483;
505.2000;0.3337;7.2459;
505.5000;0.3321;7.2483;
505.8000;0.3346;7.2506;
506.1000;0.3362;7.2718;
506.4000;0.3337;7.2530;
506.7000;0.3346;7.2600;
507.0000;0.3354;7.2624;
507.3000;0.3329;7.2624;
507.6000;0.3354;7.2671;
507.9000;0.3337;7.2624;
508.2000;0.3370;7.2647;
508.5000;0.3321;7.2506;
508.8000;0.3337;7.2483;
509.1000;0.3337;7.2483;
509.4000;0.3370;7.2647;
509.7000;0.3329;7.2577;
510.0000;0.3329;7.2600;
510.3000;0.3337;7.2624;
510.6000;0.3346;7.2577;
510.9000;0.3272;7.2483;
511.2000;0.3354;7.2741;
511.5000;0.3329;7.2694;
511.8000;0.3346;7.2694;
512.1000;0.3329;7.2624;
512.4000;0.3329;7.2577;
512.7000;0.3313;7.2577;
513.0000;0.3297;7.2436;
513.3000;0.3297;7.2412;
513.6000;0.3403;7.2741;
513.9000;0.3337;7.2647;
514.2000;0.3354;7.2718;
514.5000;0.3321;7.2671;
514.8000;0.3297;7.2600;
515.1000;0.3321;7.2577;
515.4000;0.3329;7.2506;
515.7000;0.3362;7.2577;
516.0000;0.3346;7.2600;
516.3000;0.3329;7.2577;
516.6000;0.3337;7.2600;
516.9000;0.3321;7.2530;
517.2000;0.3329;7.2483;
517.5000;0.3378;7.2530;
517.8000;0.3362;7.2506;
518.1000;0.3354;7.2506;
518.4000;0.3337;7.2506;
518.7000;0.3354;7.2553;
519.0000;0.3337;7.2389;
519.3000;0.3297;7.2201;
519.6000;0.3354;7.2295;
519.9000;0.3346;7.2389;
520.2000;0.3329;7.2459;
520.5000;0.3362;7.2506;
520.8000;0.3329;7.2412;
521.1000;0.3337;7.2365;
521.4000;0.3313;7.2436;
521.7000;0.3329;7.2412;
522.0000;0.3354;7.2553;
522.3000;0.3346;7.2506;
522.6000;0.3329;7.2459;
522.9000;0.3403;7.2577;
523.2000;0.3362;7.2483;
523.5000;0.3346;7.2483;
523.8000;0.3370;7.2483;
524.1000;0.3346;7.2389;
524.4000;0.3329;7.2506;
524.7000;0.3329;7.2530;
525.0000;0.3321;7.2412;
525.3000;0.3321;7.2412;
525.6000;0.3321;7.2553;
525.9000;0.3354;7.2600;
526.2000;0.3321;7.2506;
526.5000;0.3337;7.2530;
526.8000;0.3337;7.2412;
527.1000;0.3337;7.2483;
527.4000;0.3321;7.2436;
527.7000;0.3321;7.2436;
528.0000;0.3411;7.2694;
528.3000;0.3354;7.2553;
528.6000;0.3346;7.2553;
528.9000;0.3337;7.2624;
529.2000;0.3321;7.2671;
529.5000;0.3346;7.2647;
529.8000;0.3337;7.2553;
530.1000;0.3313;7.2483;
530.4000;0.3313;7.2436;
530.7000;0.3346;7.2506;
531.0000;0.3329;7.2600;
531.3000;0.3313;7.2553;
531.6000;0.3362;7.2600;
531.9000;0.3346;7.2600;
532.2000;0.3370;7.2694;
532.5000;0.3329;7.2600;
532.8000;0.3313;7.2483;
533.1000;0.3337;7.2577;
533.4000;0.3337;7.2624;
533.7000;0.3321;7.2647;
534.0000;0.3289;7.2365;
534.3000;0.3280;7.2248;
534.6000;0.3321;7.2365;
534.9000;0.3354;7.2389;
535.2000;0.3451;7.2624;
535.5000;0.3337;7.2248;
535.8000;0.3427;7.2553;
536.1000;0.3346;7.2412;
536.4000;0.3354;7.2436;
536.7000;0.3337;7.2553;
537.0000;0.3280;7.2389;
537.3000;0.3346;7.2436;
537.6000;0.3354;7.2483;
537.9000;0.3354;7.2530;
538.2000;0.3354;7.2483;
538.5000;0.3329;7.2553;
538.8000;0.3329;7.2530;
539.1000;0.3346;7.2412;
539.4000;0.3329;7.2342;
539.7000;0.3362;7.2436;
540.0000;0.3313;7.2389;
540.3000;0.3321;7.2342;
540.6000;0.3313;7.2412;
540.9000;0.3313;7.2459;
541.2000;0.3354;7.2553;
541.5000;0.3289;7.2412;
541.8000;0.3305;7.2436;
542.1000;0.3354;7.2577;
542.4000;0.3346;7.2553;
542.7000;0.3337;7.2389;
543.0000;0.3321;7.2365;
543.3000;0.3321;7.2389;
543.6000;0.3354;7.2506;
543.9000;0.3354;7.2530;
544.2000;0.3329;7.2483;
544.5000;0.3321;7.2483;
544.8000;0.3321;7.2506;
545.1000;0.3346;7.2506;
545.4000;0.3337;7.2483;
545.7000;0.3321;7.2506;
546.0000;0.3346;7.2553;
546.3000;0.3337;7.2506;
546.6000;0.3337;7.2459;
546.9000;0.3337;7.2553;
547.2000;0.3329;7.2506;
547.5000;0.3346;7.2530;
547.8000;0.3362;7.2577;
548.1000;0.3297;7.2436;
548.4000;0.3321;7.2436;
548.7000;0.3362;7.2530;
549.0000;0.3337;7.2600;
549.3000;0.3321;7.2530;
549.6000;0.3297;7.2600;
549.9000;0.3329;7.2671;
550.2000;0.3313;7.2600;
550.5000;0.3337;7.2577;
550.8000;0.3337;7.2553;
551.1000;0.3346;7.2647;
551.4000;0.3346;7.2577;
551.7000;0.3313;7.2530;
552.0000;0.3346;7.2647;
552.3000;0.3378;7.2600;
552.6000;0.3370;7.2577;
552.9000;0.3419;7.2694;
553.2000;0.3346;7.2553;
553.5000;0.3329;7.2530;
553.8000;0.3354;7.2553;
554.1000;0.3329;7.2506;
554.4000;0.3378;7.2530;
554.7000;0.3313;7.2389;
555.0000;0.3337;7.2318;
555.3000;0.3337;7.2295;
555.6000;0.3329;7.2342;
555.9000;0.3337;7.2318;
556.2000;0.3280;7.2248;
556.5000;0.3362;7.2530;
556.8000;0.3337;7.2459;
557.1000;0.3337;7.2483;
557.4000;0.3321;7.2342;
557.7000;0.3337;7.2389;
558.0000;0.3329;7.2389;
558.3000;0.3305;7.2389;
558.6000;0.3297;7.2459;
558.9000;0.3313;7.2506;
559.2000;0.3337;7.2553;
559.5000;0.3297;7.2459;
559.8000;0.3280;7.2389;
560.1000;0.3321;7.2412;
560.4000;0.3337;7.2318;
560.7000;0.3354;7.2318;
561.0000;0.3346;7.2365;
561.3000;0.3346;7.2318;
561.6000;0.3337;7.2365;
561.9000;0.3337;7.2389;
562.2000;0.3337;7.2365;
562.5000;0.3346;7.2436;
562.8000;0.3321;7.2436;
563.1000;0.3346;7.2459;
563.4000;0.3264;7.2224;
563.7000;0.3329;7.2389;
564.0000;0.3297;7.2295;
564.3000;0.3346;7.2506;
564.6000;0.3321;7.2483;
564.9000;0.3337;7.2553;
565.2000;0.3346;7.2412;
565.5000;0.3386;7.2436;
565.8000;0.3346;7.2412;
566.1000;0.3411;7.2624;
566.4000;0.3346;7.2577;
566.7000;0.3329;7.2530;
567.0000;0.3337;7.2577;
567.3000;0.3329;7.2600;
567.6000;0.3313;7.2553;
567.9000;0.3337;7.2624;
568.2000;0.3354;7.2694;
568.5000;0.3378;7.2694;
568.8000;0.3362;7.2530;
569.1000;0.3232;7.2154;
569.4000;0.3329;7.2365;
569.7000;0.3337;7.2389;
570.0000;0.3354;7.2483;
570.3000;0.3346;7.2459;
570.6000;0.3337;7.2436;
570.9000;0.3329;7.2389;
571.2000;0.3313;7.2389;
571.5000;0.3329;7.2577;
571.8000;0.3346;7.2553;
572.1000;0.3321;7.2436;
572.4000;0.3329;7.2506;
572.7000;0.3346;7.2483;
573.0000;0.3305;7.2342;
573.3000;0.3329;7.2412;
573.6000;0.3329;7.2459;
573.9000;0.3354;7.2553;
574.2000;0.3337;7.2459;
574.5000;0.3305;7.2389;
574.8000;0.3346;7.2483;
575.1000;0.3337;7.2530;
575.4000;0.3346;7.2553;
575.7000;0.3362;7.2600;
576.0000;0.3354;7.2577;
576.3000;0.3346;7.2647;
576.6000;0.3346;7.2741;
576.9000;0.3337;7.2765;
577.2000;0.3313;7.2671;
577.5000;0.3321;7.2718;
577.8000;0.3329;7.2647;
578.1000;0.3329;7.2647;
578.4000;0.3321;7.2624;
578.7000;0.3329;7.2624;
579.0000;0.3354;7.2741;
579.3000;0.3321;7.2765;
579.6000;0.3329;7.2718;
579.9000;0.3321;7.2694;
580.2000;0.3289;7.2530;
580.5000;0.3337;7.2647;
580.8000;0.3329;7.2647;
581.1000;0.3321;7.2671;
581.4000;0.3321;7.2694;
581.7000;0.3329;7.2718;
582.0000;0.3329;7.2694;
582.3000;0.3321;7.2694;
582.6000;0.3321;7.2600;
582.9000;0.3378;7.2624;
583.2000;0.3313;7.2389;
583.5000;0.3313;7.2342;
583.8000;0.3337;7.2365;
584.1000;0.3321;7.2342;
584.4000;0.3329;7.2342;
584.7000;0.3329;7.2318;
585.0000;0.3321;7.2412;
585.3000;0.3329;7.2436;
585.6000;0.3337;7.2483;
585.9000;0.3337;7.2530;
586.2000;0.3403;7.2671;
586.5000;0.3337;7.2624;
586.8000;0.3305;7.2600;
587.1000;0.3354;7.2624;
587.4000;0.3427;7.2812;
587.7000;0.3337;7.2600;
588.0000;0.3313;7.2577;
588.3000;0.3346;7.2694;
588.6000;0.3362;7.2741;
588.9000;0.3313;7.2647;
589.2000;0.3321;7.2671;
589.5000;0.3313;7.2671;
589.8000;0.3305;7.2577;
590.1000;0.3484;7.3024;
590.4000;0.3337;7.2553;
590.7000;0.3337;7.2483;
591.0000;0.3289;7.2389;
591.3000;0.3321;7.2459;
591.6000;0.3329;7.2483;
591.9000;0.3329;7.2553;
592.2000;0.3329;7.2577;
592.5000;0.3321;7.2600;
592.8000;0.3321;7.2577;
593.1000;0.3354;7.2624;
593.4000;0.3313;7.2553;
593.7000;0.3264;7.2342;
594.0000;0.3337;7.2600;
594.3000;0.3337;7.2647;
594.6000;0.3337;7.2694;
594.9000;0.3321;7.2765;
595.2000;0.3321;7.2789;
595.5000;0.3329;7.2718;
595.8000;0.3329;7.2718;
596.1000;0.3337;7.2718;
596.4000;0.3321;7.2671;
596.7000;0.3337;7.2647;
597.0000;0.3346;7.2647;
597.3000;0.3329;7.2577;
597.6000;0.3329;7.2553;
597.9000;0.3321;7.2553;
598.2000;0.3346;7.2647;
598.5000;0.3329;7.2671;
598.8000;0.3313;7.2647;
599.1000;0.3313;7.2600;
599.4000;0.3329;7.2577;
599.7000;0.3354;7.2600;
600.0000;0.3346;7.2530;
600.3000;0.3329;7.2506;
600.6000;0.3313;7.2342;
600.9000;0.3321;7.2318;
601.2000;0.3272;7.2201;
601.5000;0.3264;7.2059;
601.8000;0.3297;7.2012;
602.1000;0.3264;7.1942;
602.4000;0.3166;7.1801;
602.7000;0.3134;7.1660;
603.0000;0.3183;7.1683;
603.3000;0.3150;7.1589;
603.6000;0.3126;7.1519;
603.9000;0.3101;7.1424;
604.2000;0.3109;7.1401;
604.5000;0.3077;7.1401;
604.8000;0.3069;7.1283;
605.1000;0.3093;7.1354;
605.4000;0.3158;7.1472;
605.7000;0.3101;7.1307;
606.0000;0.3020;7.1025;
606.3000;0.2963;7.0978;
606.6000;0.2987;7.1001;
606.9000;0.2898;7.0742;
607.2000;0.3012;7.0954;
607.5000;0.2971;7.0860;
607.8000;0.2963;7.0860;
608.1000;0.2898;7.0742;
608.4000;0.2963;7.0860;
608.7000;0.2939;7.0766;
609.0000;0.2914;7.0742;
609.3000;0.2930;7.0837;
609.6000;0.2906;7.0860;
609.9000;0.2963;7.1001;
610.2000;0.2947;7.0931;
610.5000;0.2890;7.0789;
610.8000;0.2996;7.1025;
611.1000;0.2890;7.0719;
611.4000;0.2784;7.0343;
611.7000;0.2833;7.0460;
612.0000;0.2865;7.0437;
612.3000;0.2759;7.0178;
612.6000;0.2841;7.0390;
612.9000;0.2816;7.0390;
613.2000;0.2816;7.0390;
613.5000;0.2833;7.0484;
613.8000;0.2816;7.0531;
614.1000;0.2808;7.0507;
614.4000;0.2825;7.0531;
614.7000;0.2825;7.0578;
615.0000;0.2776;7.0554;
615.3000;0.2800;7.0578;
615.6000;0.2768;7.0601;
615.9000;0.2759;7.0554;
616.2000;0.2776;7.0695;
616.5000;0.2776;7.0695;
616.8000;0.2743;7.0578;
617.1000;0.2743;7.0578;
617.4000;0.2743;7.0625;
617.7000;0.2743;7.0507;
618.0000;0.2727;7.0507;
618.3000;0.2711;7.0437;
618.6000;0.2743;7.0390;
618.9000;0.2719;7.0390;
619.2000;0.2711;7.0343;
619.5000;0.2702;7.0343;
619.8000;0.2711;7.0296;
620.1000;0.2702;7.0390;
620.4000;0.2694;7.0343;
620.7000;0.2702;7.0319;
621.0000;0.2670;7.0319;
621.3000;0.2694;7.0319;
621.6000;0.2670;7.0225;
621.9000;0.2646;7.0107;
622.2000;0.2686;7.0319;
622.5000;0.2694;7.0319;
622.8000;0.2678;7.0178;
623.1000;0.2678;7.0225;
623.4000;0.2662;7.0202;
623.7000;0.2646;7.0272;
624.0000;0.2637;7.0154;
624.3000;0.2654;7.0178;
624.6000;0.2646;7.0178;
624.9000;0.2646;7.0202;
625.2000;0.2621;7.0178;
625.5000;0.2613;7.0107;
625.8000;0.2621;7.0060;
626.1000;0.2589;7.0013;
626.4000;0.2564;6.9919;
626.7000;0.2589;6.9896;
627.0000;0.2605;6.9990;
627.3000;0.2556;6.9943;
627.6000;0.2629;7.0178;
627.9000;0.2589;7.0131;
628.2000;0.2629;7.0272;
628.5000;0.2589;7.0154;
628.8000;0.2646;7.0390;
629.1000;0.2564;7.0272;
629.4000;0.2564;7.0272;
629.7000;0.2564;7.0131;
630.0000;0.2540;7.0084;
630.3000;0.2589;7.0272;
630.6000;0.2556;7.0296;
630.9000;0.2548;7.0249;
631.2000;0.2540;7.0202;
631.5000;0.2556;7.0272;
631.8000;0.2548;7.0272;
632.1000;0.2507;7.0060;
632.4000;0.2580;7.0154;
632.7000;0.2548;7.0060;
633.0000;0.2540;7.0037;
633.3000;0.2523;7.0013;
633.6000;0.2523;7.0037;
633.9000;0.2532;7.0131;
634.2000;0.2532;7.0202;
634.5000;0.2450;7.0060;
634.8000;0.2507;7.0202;
635.1000;0.2450;7.0178;
635.4000;0.2515;7.0413;
635.7000;0.2507;7.0343;
636.0000;0.2499;7.0249;
636.3000;0.2572;7.0460;
636.6000;0.2499;7.0249;
636.9000;0.2483;7.0202;
637.2000;0.2532;7.0437;
637.5000;0.2499;7.0413;
637.8000;0.2507;7.0366;
638.1000;0.2483;7.0319;
638.4000;0.2483;7.0178;
638.7000;0.2491;7.0154;
639.0000;0.2580;7.0296;
639.3000;0.2483;6.9990;
639.6000;0.2475;7.0013;
639.9000;0.2466;7.0037;
640.2000;0.2475;6.9966;
640.5000;0.2475;7.0037;
640.8000;0.2450;7.0037;
641.1000;0.2434;7.0084;
641.4000;0.2450;7.0107;
641.7000;0.2491;7.0084;
642.0000;0.2458;7.0037;
642.3000;0.2426;6.9849;
642.6000;0.2442;6.9896;
642.9000;0.2466;7.0013;
643.2000;0.2442;6.9966;
643.5000;0.2442;7.0060;
643.8000;0.2450;7.0037;
644.1000;0.2434;7.0131;
644.4000;0.2426;7.0107;
644.7000;0.2426;7.0084;
645.0000;0.2458;7.0107;
645.3000;0.2418;7.0084;
645.6000;0.2434;7.0084;
645.9000;0.2409;6.9966;
646.2000;0.2401;6.9966;
646.5000;0.2442;7.0084;
646.8000;0.2369;6.9919;
647.1000;0.2418;6.9966;
647.4000;0.2418;6.9943;
647.7000;0.2409;6.9896;
648.0000;0.2369;6.9849;
648.3000;0.2409;6.9966;
648.6000;0.2409;6.9896;
648.9000;0.2418;6.9825;
649.2000;0.2466;6.9966;
649.5000;0.2352;6.9731;
649.8000;0.2393;6.9849;
650.1000;0.2352;6.9778;
650.4000;0.2442;6.9990;
650.7000;0.2304;6.9614;
651.0000;0.2377;6.9778;
651.3000;0.2377;6.9825;
651.6000;0.2385;6.9896;
651.9000;0.2401;6.9943;
652.2000;0.2385;6.9849;
652.5000;0.2434;6.9990;
652.8000;0.2377;6.9708;
653.1000;0.2361;6.9755;
653.4000;0.2409;6.9919;
653.7000;0.2369;6.9802;
654.0000;0.2369;6.9778;
654.3000;0.2361;6.9684;
654.6000;0.2377;6.9755;
654.9000;0.2304;6.9637;
655.2000;0.2377;6.9849;
655.5000;0.2369;6.9896;
655.8000;0.2369;6.9943;
656.1000;0.2352;6.9919;
656.4000;0.2369;6.9943;
656.7000;0.2377;6.9919;
657.0000;0.2369;7.0013;
657.3000;0.2336;6.9966;
657.6000;0.2361;7.0037;
657.9000;0.2361;7.0107;
658.2000;0.2352;7.0107;
658.5000;0.2352;7.0084;
658.8000;0.2344;7.0013;
659.1000;0.2361;7.0013;
659.4000;0.2344;7.0060;
659.7000;0.2328;6.9966;
660.0000;0.2336;6.9919;
660.3000;0.2336;6.9990;
660.6000;0.2247;6.9778;
660.9000;0.2304;6.9919;
661.2000;0.2328;6.9943;
661.5000;0.2312;6.9919;
661.8000;0.2328;6.9919;
662.1000;0.2336;7.0037;
662.4000;0.2312;7.0037;
662.7000;0.2336;6.9966;
663.0000;0.2352;6.9990;
663.3000;0.2336;6.9919;
663.6000;0.2344;6.9896;
663.9000;0.2320;6.9943;
664.2000;0.2328;7.0013;
664.5000;0.2344;7.0107;
664.8000;0.2312;6.9990;
665.1000;0.2328;7.0107;
665.4000;0.2320;7.0107;
665.7000;0.2295;7.0084;
666.0000;0.2369;7.0131;
666.3000;0.2328;6.9990;
666.6000;0.2304;6.9943;
666.9000;0.2312;6.9966;
667.2000;0.2312;7.0037;
667.5000;0.2295;6.9966;
667.8000;0.2312;6.9990;
668.1000;0.2312;6.9896;
668.4000;0.2328;6.9919;
668.7000;0.2312;6.9919;
669.0000;0.2344;7.0084;
669.3000;0.2312;7.0037;
669.6000;0.2328;7.0060;
669.9000;0.2336;6.9966;
670.2000;0.2239;6.9825;
670.5000;0.2304;6.9966;
670.8000;0.2312;6.9849;
671.1000;0.2304;6.9872;
671.4000;0.2312;6.9919;
671.7000;0.2263;6.9825;
672.0000;0.2271;6.9872;
672.3000;0.2295;6.9943;
672.6000;0.2320;7.0013;
672.9000;0.2287;6.9943;
673.2000;0.2271;7.0037;
673.5000;0.2304;7.0084;
673.8000;0.2295;6.9966;
674.1000;0.2336;7.0084;
674.4000;0.2295;6.9990;
674.7000;0.2287;7.0013;
675.0000;0.2336;7.0037;
675.3000;0.2271;6.9872;
675.6000;0.2304;6.9966;
675.9000;0.2255;6.9966;
676.2000;0.2271;6.9990;
676.5000;0.2271;7.0037;
676.8000;0.2279;7.0060;
677.1000;0.2279;6.9966;
677.4000;0.2263;6.9872;
677.7000;0.2271;6.9919;
678.0000;0.2279;6.9966;
678.3000;0.2279;6.9919;
678.6000;0.2295;6.9943;
678.9000;0.2271;6.9849;
679.2000;0.2279;6.9896;
679.5000;0.2263;6.9849;
679.8000;0.2263;6.9849;
680.1000;0.2271;6.9896;
680.4000;0.2279;7.0107;
680.7000;0.2263;7.0060;
681.0000;0.2287;7.0013;
681.3000;0.2255;6.9872;
681.6000;0.2255;6.9943;
681.9000;0.2271;6.9990;
682.2000;0.2263;7.0037;
682.5000;0.2222;6.9943;
682.8000;0.2279;7.0084;
683.1000;0.2279;7.0202;
683.4000;0.2271;7.0154;
683.7000;0.2279;7.0037;
684.0000;0.2255;6.9896;
684.3000;0.2255;6.9849;
684.6000;0.2255;6.9896;
684.9000;0.2255;6.9872;
685.2000;0.2198;6.9684;
685.5000;0.2279;6.9943;
685.8000;0.2247;6.9896;
686.1000;0.2263;6.9990;
686.4000;0.2255;7.0013;
686.7000;0.2247;7.0013;
687.0000;0.2279;7.0013;
687.3000;0.2279;7.0013;
687.6000;0.2271;7.0107;
687.9000;0.2304;7.0272;
688.2000;0.2271;7.0225;
688.5000;0.2263;7.0366;
688.8000;0.2271;7.0272;
689.1000;0.2271;7.0249;
689.4000;0.2255;7.0178;
689.7000;0.2255;7.0084;
690.0000;0.2239;6.9990;
690.3000;0.2255;6.9919;
690.6000;0.2255;7.0037;
690.9000;0.2239;6.9943;
691.2000;0.2247;7.0013;
691.5000;0.2239;6.9990;
691.8000;0.2247;7.0013;
692.1000;0.2230;6.9943;
692.4000;0.2255;6.9966;
692.7000;0.2263;6.9990;
693.0000;0.2239;6.9966;
693.3000;0.2263;6.9990;
693.6000;0.2222;6.9896;
693.9000;0.2255;6.9990;
694.2000;0.2279;7.0084;
694.5000;0.2222;6.9943;
694.8000;0.2214;6.9802;
695.1000;0.2247;6.9802;
695.4000;0.2149;6.9590;
695.7000;0.2222;6.9731;
696.0000;0.2230;6.9778;
696.3000;0.2287;6.9896;
696.6000;0.2182;6.9731;
696.9000;0.2230;6.9896;
697.2000;0.2206;6.9849;
697.5000;0.2239;6.9990;
697.8000;0.2214;7.0084;
698.1000;0.2230;7.0178;
698.4000;0.2214;7.0107;
698.7000;0.2198;7.0131;
699.0000;0.2165;6.9990;
699.3000;0.2214;7.0131;
699.6000;0.2214;7.0202;
699.9000;0.2230;7.0202;
700.2000;0.2230;7.0131;
700.5000;0.2173;7.0037;
700.8000;0.2198;7.0084;
701.1000;0.2320;7.0413;
701.4000;0.2198;7.0037;
701.7000;0.2206;6.9943;
702.0000;0.2222;7.0013;
702.3000;0.2149;6.9849;
702.6000;0.2247;7.0084;
702.9000;0.2214;7.0037;
703.2000;0.2336;7.0366;
703.5000;0.2304;7.0296;
703.8000;0.2165;6.9966;
704.1000;0.2190;7.0037;
704.4000;0.2182;6.9966;
704.7000;0.2206;6.9943;
705.0000;0.2214;6.9919;
705.3000;0.2125;6.9637;
705.6000;0.2182;6.9755;
705.9000;0.2190;6.9731;
706.2000;0.2149;6.9637;
706.5000;0.2198;6.9684;
706.8000;0.2165;6.9637;
707.1000;0.2100;6.9425;
707.4000;0.2190;6.9778;
707.7000;0.2287;6.9966;
708.0000;0.2214;6.9849;
708.3000;0.2198;6.9919;
708.6000;0.2247;7.0013;
708.9000;0.2222;6.9990;
709.2000;0.2198;6.9896;
709.5000;0.2198;6.9872;
709.8000;0.2182;6.9872;
710.1000;0.2206;6.9896;
710.4000;0.2206;6.9896;
710.7000;0.2206;6.9943;
711.0000;0.2100;6.9778;
711.3000;0.2214;7.0037;
711.6000;0.2198;6.9943;
711.9000;0.2190;6.9755;
712.2000;0.2182;6.9802;
712.5000;0.2190;6.9849;
712.8000;0.2230;6.9943;
713.1000;0.2182;6.9825;
713.4000;0.2214;6.9872;
713.7000;0.2206;6.9896;
714.0000;0.2206;6.9919;
714.3000;0.2190;6.9919;
714.6000;0.2190;6.9872;
714.9000;0.2182;6.9849;
715.2000;0.2165;6.9872;
715.5000;0.2198;6.9919;
715.8000;0.2133;6.9708;
716.1000;0.2182;6.9849;
716.4000;0.2157;6.9778;
716.7000;0.2157;6.9778;
717.0000;0.2165;6.9708;
717.3000;0.2157;6.9802;
717.6000;0.2173;6.9872;
717.9000;0.2190;6.9896;
718.2000;0.2190;6.9872;
718.5000;0.2173;6.9943;
718.8000;0.2182;6.9896;
719.1000;0.2141;6.9755;
719.4000;0.2157;6.9802;
719.7000;0.2165;6.9802;
720.0000;0.2165;6.9872;
720.3000;0.2173;6.9896;
720.6000;0.2165;6.9849;
720.9000;0.2173;6.9778;
721.2000;0.2165;6.9731;
721.5000;0.2165;6.9731;
721.8000;0.2190;6.9731;
722.1000;0.2141;6.9637;
722.4000;0.2165;6.9708;
722.7000;0.2157;6.9661;
723.0000;0.2247;6.9990;
723.3000;0.2173;6.9872;
723.6000;0.2165;6.9825;
723.9000;0.2149;6.9849;
724.2000;0.2198;7.0037;
724.5000;0.2149;6.9966;
724.8000;0.2149;6.9966;
725.1000;0.2165;7.0013;
725.4000;0.2157;7.0107;
725.7000;0.2149;7.0084;
726.0000;0.2165;7.0060;
726.3000;0.2125;6.9919;
726.6000;0.2157;7.0013;
726.9000;0.2173;7.0060;
727.2000;0.2157;7.0037;
727.5000;0.2092;6.9849;
727.8000;0.2165;6.9990;
728.1000;0.2141;7.0131;
728.4000;0.2165;7.0249;
728.7000;0.2149;7.0225;
729.0000;0.2149;7.0296;
729.3000;0.2165;7.0343;
729.6000;0.2173;7.0390;
729.9000;0.2157;7.0296;
730.2000;0.2116;7.0131;
730.5000;0.2157;7.0131;
730.8000;0.2157;7.0154;
731.1000;0.2141;7.0037;
731.4000;0.2165;7.0037;
731.7000;0.2165;7.0178;
732.0000;0.2173;7.0272;
732.3000;0.2182;7.0319;
732.6000;0.2190;7.0390;
732.9000;0.2165;7.0366;
733.2000;0.2157;7.0272;
733.5000;0.2141;7.0249;
733.8000;0.2198;7.0390;
734.1000;0.2165;7.0296;
734.4000;0.2165;7.0202;
734.7000;0.2157;7.0131;
735.0000;0.2149;7.0060;
735.3000;0.2165;7.0178;
735.6000;0.2149;7.0154;
735.9000;0.2173;7.0154;
736.2000;0.2149;7.0013;
736.5000;0.2149;7.0013;
736.8000;0.2190;7.0131;
737.1000;0.2133;7.0013;
737.4000;0.2149;7.0013;
737.7000;0.2165;7.0084;
738.0000;0.2133;7.0037;
738.3000;0.2173;7.0037;
738.6000;0.2108;6.9896;
738.9000;0.2149;6.9990;
739.2000;0.2157;6.9966;
739.5000;0.2173;7.0013;
739.8000;0.2141;6.9966;
740.1000;0.2165;7.0037;
740.4000;0.2165;6.9872;
740.7000;0.2157;6.9896;
741.0000;0.2149;6.9825;
741.3000;0.2149;6.9896;
741.6000;0.2108;6.9802;
741.9000;0.2157;6.9896;
742.2000;0.2100;6.9802;
742.5000;0.2100;6.9755;
742.8000;0.2149;6.9872;
743.1000;0.2165;6.9943;
743.4000;0.2141;6.9919;
743.7000;0.2141;6.9990;
744.0000;0.2165;7.0107;
744.3000;0.2141;7.0060;
744.6000;0.2165;7.0084;
744.9000;0.2149;7.0131;
745.2000;0.2116;7.0107;
745.5000;0.2141;7.0178;
745.8000;0.2125;7.0178;
746.1000;0.2133;7.0272;
746.4000;0.2149;7.0343;
746.7000;0.2141;7.0249;
747.0000;0.2108;7.0249;
747.3000;0.2133;7.0390;
747.6000;0.2230;7.0601;
747.9000;0.2125;7.0390;
748.2000;0.2125;7.0413;
748.5000;0.2133;7.0319;
748.8000;0.2068;7.0107;
749.1000;0.2125;7.0296;
749.4000;0.2149;7.0343;
749.7000;0.2133;7.0249;
750.0000;0.2133;7.0225;
750.3000;0.2125;7.0178;
750.6000;0.2108;7.0154;
750.9000;0.2141;7.0154;
751.2000;0.2149;7.0154;
751.5000;0.2133;7.0084;
751.8000;0.2108;7.0037;
752.1000;0.2141;7.0131;
752.4000;0.2133;7.0249;
752.7000;0.2116;7.0225;
753.0000;0.2157;7.0319;
753.3000;0.2133;7.0272;
753.6000;0.2133;7.0296;
753.9000;0.2108;7.0272;
754.2000;0.2133;7.0249;
754.5000;0.2141;7.0202;
754.8000;0.2157;7.0225;
755.1000;0.2125;7.0202;
755.4000;0.2125;7.0178;
755.7000;0.2133;7.0202;
756.0000;0.2157;7.0202;
756.3000;0.2116;7.0131;
756.6000;0.2116;6.9990;
756.9000;0.2116;7.0013;
757.2000;0.2125;7.0060;
757.5000;0.2141;7.0084;
757.8000;0.2125;7.0131;
758.1000;0.2100;7.0037;
758.4000;0.2182;7.0319;
758.7000;0.2133;7.0202;
759.0000;0.2116;7.0154;
759.3000;0.2133;7.0178;
759.6000;0.2116;7.0037;
759.9000;0.2068;7.0037;
760.2000;0.2108;7.0107;
760.5000;0.2076;7.0131;
760.8000;0.2116;7.0202;
761.1000;0.2116;7.0178;
761.4000;0.2084;7.0107;
761.7000;0.2108;7.0202;
762.0000;0.2116;7.0225;
762.3000;0.2108;7.0225;
762.6000;0.2108;7.0154;
762.9000;0.2108;7.0060;
763.2000;0.2108;7.0107;
763.5000;0.2125;7.0154;
763.8000;0.2133;7.0202;
764.1000;0.2116;7.0060;
764.4000;0.2100;7.0060;
764.7000;0.2084;7.0037;
765.0000;0.2165;7.0225;
765.3000;0.2125;7.0131;
765.6000;0.2157;7.0249;
765.9000;0.2116;7.0249;
766.2000;0.2157;7.0343;
766.5000;0.2173;7.0319;
766.8000;0.2173;7.0296;
767.1000;0.2059;6.9990;
767.4000;0.2182;7.0272;
767.7000;0.2133;7.0225;
768.0000;0.2100;7.0225;
768.3000;0.2100;7.0249;
768.6000;0.2133;7.0249;
768.9000;0.2116;7.0249;
769.2000;0.2133;7.0319;
769.5000;0.2157;7.0366;
769.8000;0.2133;7.0366;
770.1000;0.2133;7.0272;
770.4000;0.2165;7.0343;
770.7000;0.2092;7.0131;
771.0000;0.2100;7.0178;
771.3000;0.2116;7.0202;
771.6000;0.2125;7.0131;
771.9000;0.2100;7.0060;
772.2000;0.2116;7.0060;
772.5000;0.2125;7.0178;
772.8000;0.2116;7.0202;
773.1000;0.2092;7.0202;
773.4000;0.2092;7.0131;
773.7000;0.2108;7.0225;
774.0000;0.2108;7.0178;
774.3000;0.2092;7.0154;
774.6000;0.2108;7.0249;
774.9000;0.2100;7.0225;
775.2000;0.2133;7.0296;
775.5000;0.2108;7.0249;
775.8000;0.2108;7.0249;
776.1000;0.2108;7.0272;
776.4000;0.2108;7.0319;
776.7000;0.2100;7.0272;
777.0000;0.2100;7.0249;
777.3000;0.2108;7.0296;
777.6000;0.2100;7.0272;
777.9000;0.2100;7.0272;
778.2000;0.2125;7.0343;
778.5000;0.2092;7.0390;
778.8000;0.2092;7.0390;
779.1000;0.2092;7.0390;
779.4000;0.2100;7.0249;
779.7000;0.2092;7.0202;
780.0000;0.2149;7.0296;
780.3000;0.2084;7.0154;
780.6000;0.2100;7.0249;
780.9000;0.2133;7.0296;
781.2000;0.2092;7.0249;
781.5000;0.2100;7.0154;
781.8000;0.2100;7.0296;
782.1000;0.2108;7.0319;
782.4000;0.2084;7.0319;
782.7000;0.2092;7.0225;
783.0000;0.2173;7.0366;
783.3000;0.2092;7.0225;
783.6000;0.2100;7.0249;
783.9000;0.2092;7.0154;
784.2000;0.2100;7.0225;
784.5000;0.2100;7.0319;
784.8000;0.2100;7.0366;
785.1000;0.2108;7.0272;
785.4000;0.2084;7.0202;
785.7000;0.2108;7.0154;
786.0000;0.2084;7.0107;
786.3000;0.2084;7.0178;
786.6000;0.2092;7.0249;
786.9000;0.2092;7.0202;
787.2000;0.2076;7.0225;
787.5000;0.2092;7.0225;
787.8000;0.2100;7.0225;
788.1000;0.2100;7.0202;
788.4000;0.2108;7.0154;
788.7000;0.2108;7.0178;
789.0000;0.2116;7.0178;
789.3000;0.2116;7.0225;
789.6000;0.2084;7.0249;
789.9000;0.2100;7.0272;
790.2000;0.2092;7.0178;
790.5000;0.2108;7.0249;
790.8000;0.2100;7.0225;
791.1000;0.2108;7.0225;
791.4000;0.2092;7.0225;
791.7000;0.2100;7.0249;
792.0000;0.2092;7.0202;
792.3000;0.2059;7.0131;
792.6000;0.2084;7.0249;
792.9000;0.2084;7.0272;
793.2000;0.2092;7.0296;
793.5000;0.2157;7.0507;
793.8000;0.2100;7.0390;
794.1000;0.2076;7.0249;
794.4000;0.2108;7.0249;
794.7000;0.2059;7.0131;
795.0000;0.2059;7.0084;
795.3000;0.2084;7.0178;
795.6000;0.2084;7.0202;
795.9000;0.2108;7.0154;
796.2000;0.2051;7.0107;
796.5000;0.2092;7.0249;
796.8000;0.2084;7.0249;
797.1000;0.2076;7.0319;
797.4000;0.2059;7.0437;
797.7000;0.2084;7.0484;
798.0000;0.2092;7.0484;
798.3000;0.2043;7.0460;
798.6000;0.2100;7.0531;
798.9000;0.2084;7.0507;
799.2000;0.2084;7.0507;
799.5000;0.2092;7.0484;
799.8000;0.2084;7.0413;
800.1000;0.2059;7.0296;
800.4000;0.2108;7.0319;
800.7000;0.2092;7.0296;
801.0000;0.2076;7.0343;
801.3000;0.2092;7.0390;
801.6000;0.2092;7.0366;
801.9000;0.2100;7.0272;
802.2000;0.2100;7.0249;
802.5000;0.2092;7.0249;
802.8000;0.2092;7.0319;
803.1000;0.2116;7.0296;
803.4000;0.2116;7.0390;
803.7000;0.2182;7.0578;
804.0000;0.2076;7.0296;
804.3000;0.2092;7.0225;
804.6000;0.2084;7.0178;
804.9000;0.2068;7.0131;
805.2000;0.2084;7.0225;
805.5000;0.2084;7.0131;
805.8000;0.2084;7.0084;
806.1000;0.2084;6.9990;
806.4000;0.2084;6.9943;
806.7000;0.2084;6.9872;
807.0000;0.2092;7.0037;
807.3000;0.2076;7.0107;
807.6000;0.2076;7.0178;
807.9000;0.2076;7.0225;
808.2000;0.2084;7.0202;
808.5000;0.2076;7.0107;
808.8000;0.2059;7.0107;
809.1000;0.2157;7.0390;
809.4000;0.2059;7.0107;
809.7000;0.2084;7.0060;
810.0000;0.2076;7.0013;
810.3000;0.2076;6.9943;
810.6000;0.2084;7.0013;
810.9000;0.2157;7.0178;
811.2000;0.2076;6.9943;
811.5000;0.2059;7.0037;
811.8000;0.2092;7.0249;
812.1000;0.2100;7.0319;
812.4000;0.2092;7.0296;
812.7000;0.2076;7.0319;
813.0000;0.2076;7.0366;
813.3000;0.2076;7.0366;
813.6000;0.2068;7.0366;
813.9000;0.2100;7.0507;
814.2000;0.2084;7.0578;
814.5000;0.2068;7.0578;
814.8000;0.2116;7.0672;
815.1000;0.2059;7.0484;
815.4000;0.2084;7.0601;
815.7000;0.2076;7.0648;
816.0000;0.2133;7.0789;
816.3000;0.2076;7.0554;
816.6000;0.2076;7.0531;
816.9000;0.2059;7.0531;
817.2000;0.2084;7.0601;
817.5000;0.2051;7.0484;
817.8000;0.2051;7.0460;
818.1000;0.2068;7.0437;
818.4000;0.2059;7.0366;
818.7000;0.2100;7.0413;
819.0000;0.2059;7.0272;
819.3000;0.2092;7.0296;
819.6000;0.2068;7.0249;
819.9000;0.2068;7.0296;
820.2000;0.2068;7.0249;
820.5000;0.2084;7.0366;
820.8000;0.2035;7.0319;
821.1000;0.2059;7.0366;
821.4000;0.2116;7.0460;
821.7000;0.2051;7.0343;
822.0000;0.2059;7.0319;
822.3000;0.2059;7.0343;
822.6000;0.2059;7.0272;
822.9000;0.2068;7.0178;
823.2000;0.2043;7.0202;
823.5000;0.2059;7.0202;
823.8000;0.2051;7.0178;
824.1000;0.2068;7.0343;
824.4000;0.2051;7.0343;
824.7000;0.2084;7.0413;
825.0000;0.2084;7.0390;
825.3000;0.2043;7.0296;
825.6000;0.2051;7.0249;
825.9000;0.2084;7.0272;
826.2000;0.2035;7.0178;
826.5000;0.2051;7.0319;
826.8000;0.2076;7.0366;
827.1000;0.2068;7.0390;
827.4000;0.2027;7.0249;
827.7000;0.2076;7.0343;
828.0000;0.2059;7.0413;
828.3000;0.2051;7.0319;
828.6000;0.2051;7.0249;
828.9000;0.2092;7.0366;
829.2000;0.2068;7.0319;
829.5000;0.2068;7.0366;
829.8000;0.2214;7.0813;
830.1000;0.2084;7.0554;
830.4000;0.2084;7.0531;
830.7000;0.2076;7.0507;
831.0000;0.2076;7.0437;
831.3000;0.2059;7.0366;
831.6000;0.2043;7.0366;
831.9000;0.2059;7.0343;
832.2000;0.2059;7.0413;
832.5000;0.2059;7.0366;
832.8000;0.2068;7.0343;
833.1000;0.2068;7.0296;
833.4000;0.2068;7.0249;
833.7000;0.2059;7.0343;
834.0000;0.2076;7.0390;
834.3000;0.2092;7.0460;
834.6000;0.2084;7.0460;
834.9000;0.2027;7.0343;
835.2000;0.2068;7.0484;
835.5000;0.2002;7.0343;
835.8000;0.2027;7.0460;
836.1000;0.2084;7.0625;
836.4000;0.2076;7.0648;
836.7000;0.2059;7.0578;
837.0000;0.2092;7.0695;
837.3000;0.2068;7.0601;
837.6000;0.2084;7.0601;
837.9000;0.2084;7.0507;
838.2000;0.2059;7.0484;
838.5000;0.2068;7.0554;
838.8000;0.2084;7.0625;
839.1000;0.2068;7.0460;
839.4000;0.2068;7.0390;
839.7000;0.2076;7.0390;
840.0000;0.2076;7.0460;
840.3000;0.2059;7.0460;
840.6000;0.2068;7.0484;
840.9000;0.2043;7.0554;
841.2000;0.2076;7.0601;
841.5000;0.2076;7.0531;
841.8000;0.2043;7.0531;
842.1000;0.2059;7.0554;
842.4000;0.2068;7.0578;
842.7000;0.2035;7.0484;
843.0000;0.2068;7.0507;
843.3000;0.2043;7.0460;
843.6000;0.2059;7.0507;
843.9000;0.2027;7.0484;
844.2000;0.2051;7.0601;
844.5000;0.2068;7.0507;
844.8000;0.2051;7.0484;
845.1000;0.2068;7.0437;
845.4000;0.2059;7.0390;
845.7000;0.2076;7.0413;
846.0000;0.2084;7.0460;
846.3000;0.2076;7.0484;
846.6000;0.2076;7.0484;
846.9000;0.2051;7.0413;
847.2000;0.2051;7.0578;
847.5000;0.2084;7.0672;
847.8000;0.2068;7.0601;
848.1000;0.2043;7.0507;
848.4000;0.2068;7.0507;
848.7000;0.2059;7.0413;
849.0000;0.1954;7.0084;
849.3000;0.2092;7.0319;
849.6000;0.2068;7.0272;
849.9000;0.2035;7.0225;
850.2000;0.2059;7.0319;
850.5000;0.2043;7.0390;
850.8000;0.2059;7.0437;
851.1000;0.2100;7.0554;
851.4000;0.2035;7.0460;
851.7000;0.2068;7.0578;
852.0000;0.2059;7.0484;
852.3000;0.2027;7.0437;
852.6000;0.2084;7.0507;
852.9000;0.2068;7.0460;
853.2000;0.2043;7.0484;
853.5000;0.2076;7.0648;
853.8000;0.2084;7.0601;
854.1000;0.2059;7.0507;
854.4000;0.2019;7.0366;
854.7000;0.2051;7.0460;
855.0000;0.2043;7.0460;
855.3000;0.2051;7.0460;
855.6000;0.2043;7.0390;
855.9000;0.2051;7.0413;
856.2000;0.2076;7.0413;
856.5000;0.2043;7.0296;
856.8000;0.2068;7.0225;
857.1000;0.2068;7.0225;
857.4000;0.2035;7.0225;
857.7000;0.2027;7.0296;
858.0000;0.2002;7.0272;
858.3000;0.2100;7.0507;
858.6000;0.2108;7.0460;
858.9000;0.2059;7.0366;
859.2000;0.2002;7.0272;
859.5000;0.2100;7.0484;
859.8000;0.2043;7.0319;
860.1000;0.2068;7.0484;
860.4000;0.2059;7.0554;
860.7000;0.2068;7.0507;
861.0000;0.2043;7.0484;
861.3000;0.2068;7.0507;
861.6000;0.2125;7.0695;
861.9000;0.2059;7.0578;
862.2000;0.2051;7.0672;
862.5000;0.2059;7.0766;
862.8000;0.2068;7.0837;
863.1000;0.2051;7.0789;
863.4000;0.2068;7.0695;
863.7000;0.2076;7.0601;
864.0000;0.2043;7.0460;
864.3000;0.2051;7.0507;
864.6000;0.2043;7.0648;
864.9000;0.2051;7.0695;
865.2000;0.2133;7.0884;
865.5000;0.2076;7.0742;
865.8000;0.2043;7.0554;
866.1000;0.2027;7.0507;
866.4000;0.2035;7.0484;
866.7000;0.2043;7.0460;
867.0000;0.2043;7.0484;
867.3000;0.2019;7.0484;
867.6000;0.2084;7.0719;
867.9000;0.2092;7.0742;
868.2000;0.2068;7.0601;
868.5000;0.2011;7.0460;
868.8000;0.2068;7.0578;
869.1000;0.2059;7.0578;
869.4000;0.1994;7.0390;
869.7000;0.2068;7.0578;
870.0000;0.1994;7.0507;
870.3000;0.2043;7.0648;
870.6000;0.2051;7.0672;
870.9000;0.2035;7.0672;
871.2000;0.2011;7.0601;
871.5000;0.2035;7.0601;
871.8000;0.2035;7.0554;
872.1000;0.2011;7.0484;
872.4000;0.2011;7.0460;
872.7000;0.2035;7.0578;
873.0000;0.2019;7.0460;
873.3000;0.2043;7.0578;
873.6000;0.2051;7.0578;
873.9000;0.2051;7.0672;
874.2000;0.2027;7.0648;
874.5000;0.2068;7.0719;
874.8000;0.2051;7.0719;
875.1000;0.2035;7.0695;
875.4000;0.2068;7.0719;
875.7000;0.2035;7.0742;
876.0000;0.2019;7.0672;
876.3000;0.2027;7.0742;
876.6000;0.2116;7.0978;
876.9000;0.2108;7.1001;
877.2000;0.2051;7.0813;
877.5000;0.2002;7.0507;
877.8000;0.2068;7.0625;
878.1000;0.2059;7.0578;
878.4000;0.2043;7.0578;
878.7000;0.2027;7.0554;
879.0000;0.2051;7.0625;
879.3000;0.2019;7.0578;
879.6000;0.2035;7.0531;
879.9000;0.2051;7.0601;
880.2000;0.2051;7.0578;
880.5000;0.2043;7.0601;
880.8000;0.2076;7.0648;
881.1000;0.2043;7.0601;
881.4000;0.2051;7.0672;
881.7000;0.2059;7.0766;
882.0000;0.2043;7.0695;
882.3000;0.2019;7.0507;
882.6000;0.2043;7.0460;
882.9000;0.2051;7.0554;
883.2000;0.2043;7.0507;
883.5000;0.2068;7.0531;
883.8000;0.2100;7.0531;
884.1000;0.2084;7.0484;
884.4000;0.2059;7.0601;
884.7000;0.2068;7.0672;
885.0000;0.2059;7.0625;
885.3000;0.2002;7.0531;
885.6000;0.2019;7.0578;
885.9000;0.2035;7.0601;
886.2000;0.2019;7.0578;
886.5000;0.1970;7.0531;
886.8000;0.2035;7.0578;
887.1000;0.2059;7.0554;
887.4000;0.2019;7.0460;
887.7000;0.2027;7.0437;
888.0000;0.2027;7.0507;
888.3000;0.2035;7.0625;
888.6000;0.2100;7.0695;
888.9000;0.2019;7.0531;
889.2000;0.2027;7.0507;
889.5000;0.2043;7.0484;
889.8000;0.1978;7.0272;
890.1000;0.2051;7.0554;
890.4000;0.2043;7.0531;
890.7000;0.2059;7.0554;
891.0000;0.2019;7.0484;
891.3000;0.2100;7.0601;
891.6000;0.2027;7.0437;
891.9000;0.2068;7.0601;
892.2000;0.2043;7.0437;
892.5000;0.2019;7.0319;
892.8000;0.2011;7.0319;
893.1000;0.2068;7.0413;
893.4000;0.2051;7.0390;
893.7000;0.2043;7.0390;
894.0000;0.2035;7.0484;
894.3000;0.2027;7.0507;
894.6000;0.2100;7.0789;
894.9000;0.2076;7.0742;
895.2000;0.2027;7.0625;
895.5000;0.2051;7.0648;
895.8000;0.2035;7.0672;
896.1000;0.2043;7.0766;
896.4000;0.2035;7.0789;
896.7000;0.2043;7.0813;
897.0000;0.2051;7.0860;
897.3000;0.2019;7.0766;
897.6000;0.2035;7.0742;
897.9000;0.2051;7.0813;
898.2000;0.2035;7.0789;
898.5000;0.2019;7.0742;
898.8000;0.2043;7.0837;
899.1000;0.2100;7.0931;
899.4000;0.2011;7.0766;
899.7000;0.1986;7.0695;
900.0000;0.2076;7.0884;
900.3000;0.1986;7.0625;
900.6000;0.2011;7.0648;
900.9000;0.2043;7.0648;
901.2000;0.2035;7.0648;
901.5000;0.2043;7.0578;
901.8000;0.2035;7.0601;
902.1000;0.2035;7.0719;
902.4000;0.2068;7.0766;
902.7000;0.2059;7.0742;
903.0000;0.2027;7.0625;
903.3000;0.2011;7.0554;
903.6000;0.2059;7.0672;
903.9000;0.2035;7.0625;
904.2000;0.2084;7.0860;
904.5000;0.2051;7.0884;
904.8000;0.2051;7.0789;
905.1000;0.2027;7.0695;
905.4000;0.2051;7.0695;
905.7000;0.2002;7.0578;
906.0000;0.2035;7.0695;
906.3000;0.2043;7.0695;
906.6000;0.2019;7.0742;
906.9000;0.2019;7.0813;
907.2000;0.2035;7.0813;
907.5000;0.2051;7.0813;
907.8000;0.1994;7.0719;
908.1000;0.2027;7.0789;
908.4000;0.2035;7.0789;
908.7000;0.1937;7.0554;
909.0000;0.2011;7.0766;
909.3000;0.1986;7.0719;
909.6000;0.2019;7.0742;
909.9000;0.2051;7.0837;
910.2000;0.2027;7.0719;
910.5000;0.2011;7.0742;
910.8000;0.1994;7.0695;
911.1000;0.2027;7.0719;
911.4000;0.2035;7.0648;
911.7000;0.2019;7.0531;
912.0000;0.2011;7.0625;
912.3000;0.2019;7.0766;
912.6000;0.2019;7.0766;
912.9000;0.2027;7.0789;
913.2000;0.2035;7.0789;
913.5000;0.2076;7.0860;
913.8000;0.2035;7.0813;
914.1000;0.2019;7.0766;
914.4000;0.1962;7.0601;
914.7000;0.2043;7.0766;
915.0000;0.2027;7.0766;
915.3000;0.2043;7.0766;
915.6000;0.2019;7.0789;
915.9000;0.1994;7.0789;
916.2000;0.2043;7.0837;
916.5000;0.2027;7.0789;
916.8000;0.2027;7.0766;
917.1000;0.2011;7.0695;
917.4000;0.2076;7.0813;
917.7000;0.2035;7.0719;
918.0000;0.2027;7.0695;
918.3000;0.2019;7.0719;
918.6000;0.2084;7.0907;
918.9000;0.2027;7.0766;
919.2000;0.2027;7.0672;
919.5000;0.2011;7.0625;
919.8000;0.2059;7.0695;
920.1000;0.2027;7.0625;
920.4000;0.2019;7.0601;
920.7000;0.2019;7.0531;
921.0000;0.2019;7.0507;
921.3000;0.2035;7.0648;
921.6000;0.2027;7.0719;
921.9000;0.2019;7.0837;
922.2000;0.1978;7.0719;
922.5000;0.1994;7.0695;
922.8000;0.2027;7.0742;
923.1000;0.2027;7.0766;
923.4000;0.2019;7.0813;
923.7000;0.2035;7.0766;
924.0000;0.2043;7.0766;
924.3000;0.2027;7.0742;
924.6000;0.2019;7.0695;
924.9000;0.1970;7.0625;
925.2000;0.2011;7.0742;
925.5000;0.2027;7.0813;
925.8000;0.2019;7.0931;
926.1000;0.2035;7.0907;
926.4000;0.1994;7.0789;
926.7000;0.2035;7.0884;
927.0000;0.2027;7.0789;
927.3000;0.1978;7.0742;
927.6000;0.2019;7.0789;
927.9000;0.2027;7.0766;
928.2000;0.2019;7.0719;
928.5000;0.2027;7.0813;
928.8000;0.2051;7.0907;
929.1000;0.2027;7.0813;
929.4000;0.1994;7.0789;
929.7000;0.2043;7.0978;
930.0000;0.2051;7.1048;
930.3000;0.2100;7.1260;
930.6000;0.2027;7.0978;
930.9000;0.2019;7.0931;
931.2000;0.2027;7.0884;
931.5000;0.2027;7.0931;
931.8000;0.2043;7.0954;
932.1000;0.2019;7.0860;
932.4000;0.2100;7.0978;
932.7000;0.2002;7.0813;
933.0000;0.1994;7.0789;
933.3000;0.2011;7.0860;
933.6000;0.2035;7.0837;
933.9000;0.2035;7.0719;
934.2000;0.2027;7.0695;
934.5000;0.2002;7.0625;
934.8000;0.2019;7.0719;
935.1000;0.2027;7.0766;
935.4000;0.1945;7.0437;
935.7000;0.2092;7.0837;
936.0000;0.2019;7.0648;
936.3000;0.2035;7.0742;
936.6000;0.2002;7.0625;
936.9000;0.2019;7.0860;
937.2000;0.2019;7.0931;
937.5000;0.2027;7.1072;
937.8000;0.2027;7.1095;
938.1000;0.2011;7.1072;
938.4000;0.1913;7.0766;
938.7000;0.2019;7.1025;
939.0000;0.1994;7.0954;
939.3000;0.2027;7.0978;
939.6000;0.2019;7.0907;
939.9000;0.1994;7.0931;
940.2000;0.2011;7.1072;
940.5000;0.2019;7.1072;
940.8000;0.2035;7.1025;
941.1000;0.2027;7.1048;
941.4000;0.2035;7.1048;
941.7000;0.2043;7.1119;
942.0000;0.2027;7.1072;
942.3000;0.2035;7.1048;
942.6000;0.2011;7.1048;
942.9000;0.2019;7.1025;
943.2000;0.2068;7.1213;
943.5000;0.2027;7.1072;
943.8000;0.2011;7.1001;
944.1000;0.2027;7.1072;
944.4000;0.2019;7.1048;
944.7000;0.2027;7.1072;
945.0000;0.2019;7.1166;
945.3000;0.2011;7.1142;
945.6000;0.2011;7.1166;
945.9000;0.2027;7.1142;
946.2000;0.1994;7.1048;
946.5000;0.2043;7.1213;
946.8000;0.2019;7.1119;
947.1000;0.2019;7.1001;
947.4000;0.2019;7.1001;
947.7000;0.2011;7.1048;
948.0000;0.2002;7.1095;
948.3000;0.2027;7.1072;
948.6000;0.2011;7.1072;
948.9000;0.1986;7.1095;
949.2000;0.2043;7.1307;
949.5000;0.2027;7.1236;
949.8000;0.2019;7.1142;
950.1000;0.1970;7.1025;
950.4000;0.2035;7.1048;
950.7000;0.2002;7.1025;
951.0000;0.2027;7.1048;
951.3000;0.2027;7.1119;
951.6000;0.1929;7.0789;
951.9000;0.2002;7.0954;
952.2000;0.1978;7.0978;
952.5000;0.2011;7.1072;
952.8000;0.2011;7.1119;
953.1000;0.2027;7.1119;
953.4000;0.2011;7.1048;
953.7000;0.2035;7.1119;
954.0000;0.2108;7.1283;
954.3000;0.2027;7.1072;
954.6000;0.2011;7.1025;
954.9000;0.2035;7.1025;
955.2000;0.2027;7.1001;
955.5000;0.2027;7.1072;
955.8000;0.2002;7.1001;
956.1000;0.2019;7.1025;
956.4000;0.2019;7.1048;
956.7000;0.2027;7.1072;
957.0000;0.2035;7.1048;
957.3000;0.2035;7.0978;
957.6000;0.1986;7.0907;
957.9000;0.2019;7.1048;
958.2000;0.2011;7.1048;
958.5000;0.2019;7.1095;
958.8000;0.2002;7.1025;
959.1000;0.2019;7.1025;
959.4000;0.1994;7.0978;
959.7000;0.2011;7.1001;
960.0000;0.2035;7.1119;
960.3000;0.2011;7.1095;
960.6000;0.2019;7.1142;
960.9000;0.2035;7.1142;
961.2000;0.2019;7.1025;
961.5000;0.2002;7.0907;
961.8000;0.2027;7.0907;
962.1000;0.2051;7.1025;
962.4000;0.2011;7.0931;
962.7000;0.1994;7.0954;
963.0000;0.2011;7.1001;
963.3000;0.2019;7.1048;
963.6000;0.2002;7.1025;
963.9000;0.2002;7.0978;
964.2000;0.2019;7.1001;
964.5000;0.2019;7.1001;
964.8000;0.1994;7.0954;
965.1000;0.2043;7.1119;
965.4000;0.2035;7.1072;
965.7000;0.2043;7.1119;
966.0000;0.2092;7.1166;
966.3000;0.2043;7.1001;
966.6000;0.2019;7.1001;
966.9000;0.2019;7.1001;
967.2000;0.2035;7.0978;
967.5000;0.2027;7.0954;
967.8000;0.2019;7.0931;
968.1000;0.2043;7.1025;
968.4000;0.2019;7.0884;
968.7000;0.2035;7.0978;
969.0000;0.2076;7.0954;
969.3000;0.1994;7.0719;
969.6000;0.2002;7.0789;
969.9000;0.2035;7.0931;
970.2000;0.2002;7.0954;
970.5000;0.2051;7.1048;
970.8000;0.2027;7.1048;
971.1000;0.2027;7.1001;
971.4000;0.2019;7.1025;
971.7000;0.1986;7.1048;
972.0000;0.2011;7.1119;
972.3000;0.2019;7.1095;
972.6000;0.1994;7.0978;
972.9000;0.2084;7.1119;
973.2000;0.1994;7.0954;
973.5000;0.2059;7.1072;
973.8000;0.1970;7.0860;
974.1000;0.2019;7.1001;
974.4000;0.2027;7.1072;
974.7000;0.2027;7.1072;
975.0000;0.2059;7.1095;
975.3000;0.1970;7.0907;
975.6000;0.2027;7.1025;
975.9000;0.2019;7.1001;
976.2000;0.2019;7.0954;
976.5000;0.2027;7.0954;
976.8000;0.1978;7.0813;
977.1000;0.2011;7.0860;
977.4000;0.2019;7.0884;
977.7000;0.2011;7.0907;
978.0000;0.2100;7.1025;
978.3000;0.2027;7.0837;
978.6000;0.2002;7.0837;
978.9000;0.2019;7.0837;
979.2000;0.2035;7.0789;
979.5000;0.2027;7.0789;
979.8000;0.2011;7.0813;
980.1000;0.2027;7.0860;
980.4000;0.2002;7.0813;
980.7000;0.2011;7.0766;
981.0000;0.2027;7.0813;
981.3000;0.2043;7.0837;
981.6000;0.2002;7.0789;
981.9000;0.2011;7.0884;
982.2000;0.1994;7.0860;
982.5000;0.2027;7.1025;
982.8000;0.2002;7.0931;
983.1000;0.2002;7.0954;
983.4000;0.2019;7.0954;
983.7000;0.2035;7.0978;
984.0000;0.1994;7.0884;
984.3000;0.2027;7.0907;
984.6000;0.2019;7.0860;
984.9000;0.2019;7.0884;
985.2000;0.2011;7.0837;
985.5000;0.2051;7.0884;
985.8000;0.2011;7.0766;
986.1000;0.2027;7.0789;
986.4000;0.2011;7.0813;
986.7000;0.1986;7.0837;
987.0000;0.1978;7.0766;
987.3000;0.2002;7.0907;
987.6000;0.2019;7.0931;
987.9000;0.2019;7.0978;
988.2000;0.2002;7.0884;
988.5000;0.2002;7.0813;
988.8000;0.2019;7.0907;
989.1000;0.2002;7.0860;
989.4000;0.2043;7.0907;
989.7000;0.2002;7.0884;
990.0000;0.1978;7.0860;
990.3000;0.2019;7.1025;
990.6000;0.1986;7.0931;
990.9000;0.2035;7.1048;
991.2000;0.1937;7.0789;
991.5000;0.2002;7.0931;
991.8000;0.2002;7.0978;
992.1000;0.1970;7.0813;
992.4000;0.2011;7.0978;
992.7000;0.2002;7.1025;
993.0000;0.1986;7.1001;
993.3000;0.2011;7.1072;
993.6000;0.2011;7.1095;
993.9000;0.2002;7.0978;
994.2000;0.2011;7.0954;
994.5000;0.2002;7.0884;
994.8000;0.2002;7.0884;
995.1000;0.2019;7.0907;
995.4000;0.2019;7.0789;
995.7000;0.1994;7.0766;
996.0000;0.2043;7.0884;
996.3000;0.1994;7.0789;
996.6000;0.2002;7.0766;
996.9000;0.1994;7.0766;
997.2000;0.2002;7.0813;
997.5000;0.2011;7.0789;
997.8000;0.2027;7.0813;
998.1000;0.2002;7.0672;
998.4000;0.2002;7.0625;
998.7000;0.2002;7.0648;
999.0000;0.1994;7.0578;
999.3000;0.1978;7.0484;
999.6000;0.1986;7.0554;
999.9000;0.1994;7.0554;
1000.2000;0.2002;7.0625;
1000.5000;0.1994;7.0625;
1000.8000;0.2019;7.0719;
1001.1000;0.2002;7.0625;
1001.4000;0.2019;7.0672;
1001.7000;0.2043;7.0766;
1002.0000;0.2027;7.0742;
1002.3000;0.2002;7.0742;
1002.6000;0.1986;7.0719;
1002.9000;0.2019;7.0742;
1003.2000;0.2002;7.0695;
1003.5000;0.2084;7.0907;
1003.8000;0.1978;7.0672;
1004.1000;0.2027;7.0837;
1004.4000;0.1994;7.0742;
1004.7000;0.1986;7.0789;
1005.0000;0.2002;7.0719;
1005.3000;0.2019;7.0837;
1005.6000;0.2011;7.0860;
1005.9000;0.1978;7.0766;
1006.2000;0.2051;7.0884;
1006.5000;0.2002;7.0766;
1006.8000;0.1994;7.0695;
1007.1000;0.2011;7.0719;
1007.4000;0.1986;7.0601;
1007.7000;0.2035;7.0578;
1008.0000;0.2002;7.0531;
1008.3000;0.1905;7.0343;
1008.6000;0.1994;7.0531;
1008.9000;0.2011;7.0672;
1009.2000;0.1978;7.0719;
1009.5000;0.2011;7.0766;
1009.8000;0.2002;7.0766;
1010.1000;0.2002;7.0695;
1010.4000;0.2019;7.0742;
1010.7000;0.2011;7.0672;
1011.0000;0.2043;7.0789;
1011.3000;0.1994;7.0789;
1011.6000;0.2027;7.0931;
1011.9000;0.2043;7.0978;
1012.2000;0.2002;7.0860;
1012.5000;0.1994;7.0837;
1012.8000;0.2011;7.0860;
1013.1000;0.2011;7.0837;
1013.4000;0.2002;7.0813;
1013.7000;0.2011;7.0884;
1014.0000;0.2019;7.0931;
1014.3000;0.2019;7.0837;
1014.6000;0.1994;7.0672;
1014.9000;0.2068;7.0789;
1015.2000;0.2002;7.0625;
1015.5000;0.2002;7.0578;
1015.8000;0.2002;7.0531;
1016.1000;0.2002;7.0601;
1016.4000;0.2011;7.0672;
1016.7000;0.2011;7.0719;
1017.0000;0.2027;7.0695;
1017.3000;0.2011;7.0625;
1017.6000;0.1994;7.0601;
1017.9000;0.2019;7.0601;
1018.2000;0.2011;7.0601;
1018.5000;0.2002;7.0625;
1018.8000;0.2011;7.0648;
1019.1000;0.2011;7.0719;
1019.4000;0.1986;7.0648;
1019.7000;0.1994;7.0601;
1020.0000;0.1978;7.0531;
1020.3000;0.1994;7.0578;
1020.6000;0.2011;7.0578;
1020.9000;0.1986;7.0554;
1021.2000;0.1994;7.0601;
1021.5000;0.1978;7.0554;
1021.8000;0.2019;7.0672;
1022.1000;0.2011;7.0625;
1022.4000;0.1994;7.0578;
1022.7000;0.1978;7.0578;
1023.0000;0.2011;7.0695;
1023.3000;0.1978;7.0601;
1023.6000;0.1978;7.0766;
1023.9000;0.2002;7.0907;
1024.2000;0.2043;7.1001;
1024.5000;0.1994;7.0860;
1024.8000;0.2011;7.0860;
1025.1000;0.1986;7.0860;
1025.4000;0.1962;7.0742;
1025.7000;0.2019;7.0860;
1026.0000;0.2011;7.0813;
1026.3000;0.2011;7.0884;
1026.6000;0.2002;7.0860;
1026.9000;0.2002;7.0837;
1027.2000;0.2011;7.0978;
1027.5000;0.2002;7.0837;
1027.8000;0.2019;7.0789;
1028.1000;0.2011;7.0931;
1028.4000;0.1994;7.0978;
1028.7000;0.1994;7.1001;
1029.0000;0.2002;7.0954;
1029.3000;0.1994;7.0954;
1029.6000;0.2002;7.1001;
1029.9000;0.2011;7.1025;
1030.2000;0.2011;7.0954;
1030.5000;0.2068;7.1166;
1030.8000;0.2019;7.0884;
1031.1000;0.1994;7.0860;
1031.4000;0.1994;7.0860;
1031.7000;0.2019;7.0978;
1032.0000;0.1970;7.0837;
1032.3000;0.2002;7.0884;
1032.6000;0.2011;7.0907;
1032.9000;0.2002;7.0860;
1033.2000;0.2002;7.0860;
1033.5000;0.1986;7.0813;
1033.8000;0.2084;7.1072;
1034.1000;0.1994;7.0860;
1034.4000;0.1994;7.0837;
1034.7000;0.2002;7.0813;
1035.0000;0.2002;7.0813;
1035.3000;0.2027;7.0837;
1035.6000;0.2002;7.0766;
1035.9000;0.2002;7.0789;
1036.2000;0.1994;7.0766;
1036.5000;0.2019;7.0860;
1036.8000;0.2011;7.0907;
1037.1000;0.2035;7.0907;
1037.4000;0.2019;7.0813;
1037.7000;0.2011;7.0837;
1038.0000;0.1994;7.0766;
1038.3000;0.1962;7.0695;
1038.6000;0.1978;7.0742;
1038.9000;0.1986;7.0742;
1039.2000;0.2051;7.0884;
1039.5000;0.2035;7.0837;
1039.8000;0.2011;7.0789;
1040.1000;0.2002;7.0742;
1040.4000;0.1994;7.0813;
1040.7000;0.2011;7.0813;
1041.0000;0.1937;7.0672;
1041.3000;0.1978;7.0884;
1041.6000;0.2019;7.0954;
1041.9000;0.2019;7.0931;
1042.2000;0.2011;7.1095;
1042.5000;0.1970;7.0931;
1042.8000;0.2002;7.0931;
1043.1000;0.1978;7.0837;
1043.4000;0.1986;7.0742;
1043.7000;0.2002;7.0766;
1044.0000;0.1929;7.0695;
1044.3000;0.1978;7.0789;
1044.6000;0.2059;7.0907;
1044.9000;0.2059;7.0954;
1045.2000;0.2027;7.1025;
1045.5000;0.1986;7.0931;
1045.8000;0.2019;7.1001;
1046.1000;0.2011;7.0931;
1046.4000;0.1986;7.0837;
1046.7000;0.2011;7.0813;
1047.0000;0.2084;7.1048;
1047.3000;0.1978;7.0789;
1047.6000;0.2027;7.0954;
1047.9000;0.1994;7.0860;
1048.2000;0.2019;7.0931;
1048.5000;0.1994;7.0813;
1048.8000;0.1994;7.0813;
1049.1000;0.1970;7.0719;
1049.4000;0.1970;7.0742;
1049.7000;0.2019;7.0860;
1050.0000;0.2011;7.0884;
1050.3000;0.2019;7.0978;
1050.6000;0.1970;7.0907;
1050.9000;0.1905;7.0672;
1051.2000;0.1994;7.0884;
1051.5000;0.2002;7.0837;
1051.8000;0.1986;7.0813;
1052.1000;0.2011;7.0931;
1052.4000;0.2011;7.0931;
1052.7000;0.2011;7.0907;
1053.0000;0.2011;7.0907;
1053.3000;0.1937;7.0625;
1053.6000;0.2011;7.0789;
1053.9000;0.2002;7.0837;
1054.2000;0.2002;7.0907;
1054.5000;0.2002;7.0860;
1054.8000;0.2011;7.0789;
1055.1000;0.2027;7.0813;
1055.4000;0.2059;7.0884;
1055.7000;0.1994;7.0813;
1056.0000;0.2002;7.0860;
1056.3000;0.1994;7.0884;
1056.6000;0.1994;7.0813;
1056.9000;0.1962;7.0695;
1057.2000;0.1970;7.0742;
1057.5000;0.1994;7.0837;
1057.8000;0.1954;7.0813;
1058.1000;0.1994;7.0954;
1058.4000;0.2011;7.0978;
1058.7000;0.2002;7.1001;
1059.0000;0.2002;7.0978;
1059.3000;0.1994;7.0907;
1059.6000;0.2011;7.0860;
1059.9000;0.1954;7.0648;
1060.2000;0.2011;7.0860;
1060.5000;0.2027;7.0813;
1060.8000;0.1994;7.0789;
1061.1000;0.2027;7.0860;
1061.4000;0.2002;7.0813;
1061.7000;0.2011;7.0884;
1062.0000;0.2002;7.0766;
1062.3000;0.1994;7.0813;
1062.6000;0.1994;7.0837;
1062.9000;0.2035;7.0884;
1063.2000;0.2019;7.0813;
1063.5000;0.2011;7.0813;
1063.8000;0.1986;7.0789;
1064.1000;0.1986;7.0742;
1064.4000;0.1994;7.0672;
1064.7000;0.1994;7.0672;
1065.0000;0.2059;7.0860;
1065.3000;0.2002;7.0813;
1065.6000;0.2002;7.0766;
1065.9000;0.1970;7.0742;
1066.2000;0.1970;7.0719;
1066.5000;0.1970;7.0719;
1066.8000;0.1994;7.0766;
1067.1000;0.2002;7.0789;
1067.4000;0.2011;7.0789;
1067.7000;0.1994;7.0766;
1068.0000;0.2011;7.0789;
1068.3000;0.1978;7.0672;
1068.6000;0.1986;7.0672;
1068.9000;0.2019;7.0672;
1069.2000;0.1978;7.0578;
1069.5000;0.1978;7.0648;
1069.8000;0.2068;7.0813;
1070.1000;0.1986;7.0695;
1070.4000;0.2035;7.0954;
1070.7000;0.1986;7.0813;
1071.0000;0.2125;7.1166;
1071.3000;0.2002;7.0931;
1071.6000;0.1986;7.0907;
1071.9000;0.1986;7.0907;
1072.2000;0.1986;7.0813;
1072.5000;0.1978;7.0766;
1072.8000;0.2011;7.0766;
1073.1000;0.1929;7.0601;
1073.4000;0.1970;7.0625;
1073.7000;0.1978;7.0695;
1074.0000;0.1986;7.0742;
1074.3000;0.1970;7.0672;
1074.6000;0.2002;7.0672;
1074.9000;0.1986;7.0578;
1075.2000;0.1994;7.0554;
1075.5000;0.2002;7.0601;
1075.8000;0.1986;7.0578;
1076.1000;0.1994;7.0625;
1076.4000;0.2043;7.0695;
1076.7000;0.2076;7.0742;
1077.0000;0.1978;7.0531;
1077.3000;0.2002;7.0672;
1077.6000;0.2002;7.0766;
1077.9000;0.2043;7.0907;
1078.2000;0.2035;7.0954;
1078.5000;0.1986;7.0907;
1078.8000;0.2011;7.0954;
1079.1000;0.1994;7.0837;
1079.4000;0.2002;7.0884;
1079.7000;0.1962;7.0789;
1080.0000;0.2011;7.0931;
1080.3000;0.1986;7.0837;
1080.6000;0.1994;7.0813;
1080.9000;0.2043;7.0884;
1081.2000;0.2011;7.0837;
1081.5000;0.2002;7.0813;
1081.8000;0.2011;7.0931;
1082.1000;0.1994;7.0837;
1082.4000;0.2011;7.0766;
1082.7000;0.2019;7.0860;
1083.0000;0.2051;7.1001;
1083.3000;0.2011;7.0884;
1083.6000;0.2019;7.0837;
1083.9000;0.2035;7.0860;
1084.2000;0.2002;7.0672;
1084.5000;0.1978;7.0695;
1084.8000;0.1994;7.0766;
1085.1000;0.1994;7.0672;
1085.4000;0.2019;7.0648;
1085.7000;0.2011;7.0625;
1086.0000;0.2002;7.0672;
1086.3000;0.1962;7.0695;
1086.6000;0.2002;7.0813;
1086.9000;0.2043;7.0860;
1087.2000;0.2011;7.0789;
1087.5000;0.1970;7.0813;
1087.8000;0.2002;7.0884;
1088.1000;0.2019;7.0907;
1088.4000;0.2019;7.0860;
1088.7000;0.1994;7.0742;
1089.0000;0.1978;7.0695;
1089.3000;0.2002;7.0742;
1089.6000;0.1978;7.0766;
1089.9000;0.1978;7.0742;
1090.2000;0.2002;7.0813;
1090.5000;0.2011;7.0931;
1090.8000;0.2011;7.0931;
1091.1000;0.1986;7.1001;
1091.4000;0.1994;7.1072;
1091.7000;0.1986;7.1048;
1092.0000;0.2011;7.1048;
1092.3000;0.1962;7.0931;
1092.6000;0.1978;7.0978;
1092.9000;0.1986;7.1001;
1093.2000;0.1986;7.0954;
1093.5000;0.1945;7.0789;
1093.8000;0.1994;7.0884;
1094.1000;0.1986;7.0837;
1094.4000;0.2051;7.0931;
1094.7000;0.1986;7.0742;
1095.0000;0.2002;7.0742;
1095.3000;0.1994;7.0742;
1095.6000;0.1937;7.0625;
1095.9000;0.1994;7.0625;
1096.2000;0.1994;7.0672;
1096.5000;0.1994;7.0695;
1096.8000;0.2002;7.0860;
1097.1000;0.1978;7.0931;
1097.4000;0.1962;7.0978;
1097.7000;0.1978;7.0978;
1098.0000;0.1970;7.0884;
1098.3000;0.1937;7.0884;
1098.6000;0.1986;7.1025;
1098.9000;0.1994;7.1048;
1099.2000;0.2011;7.1142;
1099.5000;0.2035;7.1213;
1099.8000;0.1978;7.1166;
1100.1000;0.1986;7.1119;
1100.4000;0.1978;7.1025;
1100.7000;0.2011;7.1025;
1101.0000;0.2019;7.1001;
1101.3000;0.1994;7.0931;
1101.6000;0.2068;7.1095;
1101.9000;0.2027;7.1025;
1102.2000;0.1994;7.0884;
1102.5000;0.1986;7.0813;
1102.8000;0.2051;7.0978;
1103.1000;0.1994;7.0766;
1103.4000;0.1978;7.0789;
1103.7000;0.2027;7.0931;
1104.0000;0.1994;7.0837;
1104.3000;0.1994;7.0837;
1104.6000;0.1986;7.0695;
1104.9000;0.1994;7.0672;
1105.2000;0.1978;7.0648;
1105.5000;0.1970;7.0601;
1105.8000;0.1994;7.0742;
1106.1000;0.1994;7.0813;
1106.4000;0.1986;7.0884;
1106.7000;0.2011;7.1001;
1107.0000;0.2011;7.1048;
1107.3000;0.2002;7.0907;
1107.6000;0.2068;7.1001;
1107.9000;0.2068;7.1025;
1108.2000;0.1921;7.0813;
1108.5000;0.1945;7.0884;
1108.8000;0.1986;7.0931;
1109.1000;0.2027;7.1001;
1109.4000;0.2011;7.0978;
1109.7000;0.1986;7.0954;
1110.0000;0.1994;7.1025;
1110.3000;0.1994;7.0931;
1110.6000;0.1994;7.0907;
1110.9000;0.2002;7.0931;
1111.2000;0.1994;7.0931;
1111.5000;0.2002;7.0907;
1111.8000;0.1978;7.0789;
1112.1000;0.1994;7.0813;
1112.4000;0.1986;7.0742;
1112.7000;0.1978;7.0672;
1113.0000;0.2002;7.0719;
1113.3000;0.1986;7.0719;
1113.6000;0.2002;7.0766;
1113.9000;0.1986;7.0789;
1114.2000;0.1954;7.0789;
1114.5000;0.1986;7.0907;
1114.8000;0.1994;7.0907;
1115.1000;0.1986;7.0931;
1115.4000;0.2051;7.1166;
1115.7000;0.2027;7.1025;
1116.0000;0.2002;7.1001;
1116.3000;0.1986;7.1025;
1116.6000;0.1994;7.0931;
1116.9000;0.1986;7.0907;
1117.2000;0.1994;7.0954;
1117.5000;0.1970;7.0860;
1117.8000;0.1994;7.1001;
1118.1000;0.1954;7.0907;
1118.4000;0.1962;7.0954;
1118.7000;0.1962;7.0931;
1119.0000;0.1962;7.0954;
1119.3000;0.1945;7.0954;
1119.6000;0.1954;7.1025;
1119.9000;0.2002;7.1048;
1120.2000;0.1986;7.0978;
1120.5000;0.1994;7.1001;
1120.8000;0.2019;7.1119;
1121.1000;0.1970;7.0931;
1121.4000;0.2011;7.1142;
1121.7000;0.1978;7.1025;
1122.0000;0.1954;7.0978;
1122.3000;0.2051;7.1307;
1122.6000;0.1994;7.1142;
1122.9000;0.2027;7.1260;
1123.2000;0.1994;7.1213;
1123.5000;0.2002;7.1213;
1123.8000;0.1962;7.1048;
1124.1000;0.2019;7.1142;
1124.4000;0.1962;7.1001;
1124.7000;0.1994;7.1072;
1125.0000;0.2027;7.1119;
1125.3000;0.1986;7.0954;
1125.6000;0.1994;7.1001;
1125.9000;0.2011;7.1025;
1126.2000;0.2019;7.1001;
1126.5000;0.1994;7.0954;
1126.8000;0.2011;7.0931;
1127.1000;0.2002;7.1001;
1127.4000;0.2002;7.1001;
1127.7000;0.1994;7.0978;
1128.0000;0.1986;7.0884;
1128.3000;0.1978;7.1048;
1128.6000;0.1986;7.1025;
1128.9000;0.1994;7.1048;
1129.2000;0.1986;7.1048;
1129.5000;0.1986;7.1095;
1129.8000;0.2002;7.1072;
1130.1000;0.2027;7.1119;
1130.4000;0.1994;7.0907;
1130.7000;0.1994;7.0884;
1131.0000;0.1954;7.0766;
1131.3000;0.1962;7.0813;
1131.6000;0.2002;7.0931;
1131.9000;0.1986;7.0907;
1132.2000;0.1978;7.0813;
1132.5000;0.2011;7.0931;
1132.8000;0.1986;7.0954;
1133.1000;0.1994;7.0978;
1133.4000;0.2002;7.1048;
1133.7000;0.1994;7.1001;
1134.0000;0.1994;7.1025;
1134.3000;0.2002;7.1025;
1134.6000;0.1978;7.0931;
1134.9000;0.1978;7.1025;
1135.2000;0.2011;7.1072;
1135.5000;0.1986;7.1072;
1135.8000;0.1978;7.1095;
1136.1000;0.2011;7.1072;
1136.4000;0.1994;7.0954;
1136.7000;0.2002;7.0931;
1137.0000;0.1994;7.0978;
1137.3000;0.2002;7.0931;
1137.6000;0.1978;7.0931;
1137.9000;0.1994;7.0954;
1138.2000;0.1921;7.0648;
1138.5000;0.1962;7.0789;
1138.8000;0.1994;7.0813;
1139.1000;0.2002;7.0813;
1139.4000;0.2011;7.0837;
1139.7000;0.1962;7.0766;
1140.0000;0.2002;7.0907;
1140.3000;0.1945;7.0766;
1140.6000;0.2002;7.0978;
1140.9000;0.1994;7.1025;
1141.2000;0.2002;7.1072;
1141.5000;0.2002;7.0954;
1141.8000;0.1994;7.0931;
1142.1000;0.2002;7.0931;
1142.4000;0.2035;7.1072;
1142.7000;0.1978;7.0978;
1143.0000;0.1978;7.1048;
1143.3000;0.1978;7.1072;
1143.6000;0.2002;7.1119;
1143.9000;0.1945;7.1001;
1144.2000;0.2002;7.1189;
1144.5000;0.1986;7.1142;
1144.8000;0.1994;7.1213;
1145.1000;0.2002;7.1236;
1145.4000;0.2043;7.1354;
1145.7000;0.1978;7.1283;
1146.0000;0.2068;7.1377;
1146.3000;0.1978;7.1236;
1146.6000;0.1994;7.1189;
1146.9000;0.2002;7.1189;
1147.2000;0.1954;7.1025;
1147.5000;0.1994;7.1119;
1147.8000;0.1986;7.1189;
1148.1000;0.2019;7.1307;
1148.4000;0.1986;7.1236;
1148.7000;0.1970;7.1236;
1149.0000;0.1986;7.1307;
1149.3000;0.1978;7.1307;
1149.6000;0.1978;7.1189;
1149.9000;0.2043;7.1236;
1150.2000;0.1994;7.1119;
1150.5000;0.1994;7.1048;
1150.8000;0.1994;7.1025;
1151.1000;0.1978;7.0978;
1151.4000;0.2019;7.1095;
1151.7000;0.2011;7.1048;
1152.0000;0.1986;7.1048;
1152.3000;0.2011;7.1119;
1152.6000;0.1986;7.1072;
1152.9000;0.2019;7.1166;
1153.2000;0.2043;7.1213;
1153.5000;0.1986;7.1166;
1153.8000;0.1970;7.1189;
1154.1000;0.1978;7.1142;
1154.4000;0.1986;7.1213;
1154.7000;0.1970;7.1189;
1155.0000;0.1986;7.1095;
1155.3000;0.2002;7.1048;
1155.6000;0.1994;7.0978;
1155.9000;0.2011;7.1072;
1156.2000;0.1994;7.1142;
1156.5000;0.2011;7.1119;
1156.8000;0.2035;7.1213;
1157.1000;0.2002;7.1025;
1157.4000;0.2002;7.0907;
1157.7000;0.1994;7.0907;
1158.0000;0.2002;7.0907;
1158.3000;0.1970;7.0884;
1158.6000;0.1994;7.0813;
1158.9000;0.1994;7.0837;
1159.2000;0.1954;7.0719;
1159.5000;0.1986;7.0837;
1159.8000;0.1978;7.0813;
1160.1000;0.1986;7.0789;
1160.4000;0.1986;7.0978;
1160.7000;0.1994;7.1095;
1161.0000;0.2002;7.1142;
1161.3000;0.2002;7.1260;
1161.6000;0.1994;7.1166;
1161.9000;0.1978;7.1048;
1162.2000;0.1978;7.1025;
1162.5000;0.1962;7.0978;
1162.8000;0.2011;7.1048;
1163.1000;0.1978;7.1095;
1163.4000;0.1970;7.1072;
1163.7000;0.1978;7.1001;
1164.0000;0.1986;7.0931;
1164.3000;0.2011;7.1025;
1164.6000;0.1994;7.1001;
1164.9000;0.1978;7.1001;
1165.2000;0.1962;7.1072;
1165.5000;0.1945;7.1025;
1165.8000;0.2027;7.1189;
1166.1000;0.2002;7.1025;
1166.4000;0.1994;7.1001;
1166.7000;0.2011;7.1025;
1167.0000;0.2002;7.1095;
1167.3000;0.2011;7.1166;
1167.6000;0.1970;7.1142;
1167.9000;0.2002;7.1236;
1168.2000;0.2011;7.1213;
1168.5000;0.1986;7.1142;
1168.8000;0.1978;7.1095;
1169.1000;0.1986;7.1119;
1169.4000;0.1970;7.1048;
1169.7000;0.2002;7.1119;
1170.0000;0.1962;7.1189;
1170.3000;0.1978;7.1166;
1170.6000;0.1994;7.1213;
1170.9000;0.1954;7.1166;
1171.2000;0.1994;7.1189;
1171.5000;0.1986;7.1166;
1171.8000;0.2076;7.1330;
1172.1000;0.1994;7.1119;
1172.4000;0.1986;7.1072;
1172.7000;0.1986;7.1048;
1173.0000;0.1937;7.0954;
1173.3000;0.1978;7.1119;
1173.6000;0.1986;7.1189;
1173.9000;0.2002;7.1213;
1174.2000;0.1978;7.1095;
1174.5000;0.1978;7.1048;
1174.8000;0.2019;7.1142;
1175.1000;0.1954;7.1025;
1175.4000;0.1994;7.1095;
1175.7000;0.2076;7.1260;
1176.0000;0.1954;7.0931;
1176.3000;0.1962;7.0978;
1176.6000;0.2019;7.1166;
1176.9000;0.2002;7.1142;
1177.2000;0.1986;7.1048;
1177.5000;0.1986;7.1025;
1177.8000;0.1913;7.0884;
1178.1000;0.1905;7.0837;
1178.4000;0.2002;7.1072;
1178.7000;0.1994;7.1142;
1179.0000;0.1897;7.0860;
1179.3000;0.1994;7.1095;
1179.6000;0.1986;7.1048;
1179.9000;0.1986;7.1072;
1180.2000;0.1954;7.1025;
1180.5000;0.1978;7.1142;
1180.8000;0.1994;7.1213;
1181.1000;0.1962;7.1048;
1181.4000;0.1994;7.1048;
1181.7000;0.1978;7.1048;
1182.0000;0.1986;7.1025;
1182.3000;0.1986;7.0978;
1182.6000;0.1986;7.1072;
1182.9000;0.1978;7.1119;
1183.2000;0.1994;7.1095;
1183.5000;0.1994;7.1025;
1183.8000;0.1994;7.0931;
1184.1000;0.1970;7.0884;
1184.4000;0.2011;7.0954;
1184.7000;0.2043;7.1048;
1185.0000;0.1986;7.0931;
1185.3000;0.1954;7.0931;
1185.6000;0.2011;7.1072;
1185.9000;0.1986;7.0954;
1186.2000;0.2002;7.0954;
1186.5000;0.1986;7.0907;
1186.8000;0.2019;7.0907;
1187.1000;0.1994;7.0837;
1187.4000;0.2043;7.1048;
1187.7000;0.2011;7.1048;
1188.0000;0.1994;7.1142;
1188.3000;0.2002;7.1142;
1188.6000;0.2027;7.1307;
1188.9000;0.1978;7.1260;
1189.2000;0.1945;7.1142;
1189.5000;0.1986;7.1095;
1189.8000;0.2002;7.1072;
1190.1000;0.1970;7.1048;
1190.4000;0.2068;7.1236;
1190.7000;0.1994;7.1001;
1191.0000;0.1994;7.1001;
1191.3000;0.2059;7.1095;
1191.6000;0.1994;7.0954;
1191.9000;0.2092;7.1260;
1192.2000;0.2059;7.1260;
1192.5000;0.1994;7.1095;
1192.8000;0.1978;7.1119;
1193.1000;0.2002;7.1142;
1193.4000;0.2002;7.1119;
1193.7000;0.1986;7.1025;
1194.0000;0.2002;7.1001;
1194.3000;0.1994;7.1001;
1194.6000;0.1986;7.0954;
1194.9000;0.1994;7.0954;
1195.2000;0.1945;7.0954;
1195.5000;0.1970;7.0978;
1195.8000;0.1978;7.1025;
1196.1000;0.1954;7.0907;
1196.4000;0.1970;7.1001;
1196.7000;0.1970;7.0860;
1197.0000;0.1929;7.0766;
1197.3000;0.1978;7.1001;
1197.6000;0.1986;7.1001;
1197.9000;0.1978;7.1072;
1198.2000;0.2027;7.1142;
1198.5000;0.1978;7.1048;
1198.8000;0.2011;7.1025;
1199.1000;0.1945;7.0954;
1199.4000;0.1994;7.1048;
1199.7000;0.1994;7.0978;
1200.0000;0.1929;7.0789;
1200.3000;0.1986;7.0954;
1200.6000;0.1994;7.1025;
1200.9000;0.2011;7.1095;
1201.2000;0.2002;7.1001;
1201.5000;0.1978;7.0907;
1201.8000;0.1970;7.0954;
1202.1000;0.1994;7.0931;
1202.4000;0.1994;7.0931;
1202.7000;0.1978;7.0884;
1203.0000;0.1986;7.0954;
1203.3000;0.1962;7.0837;
1203.6000;0.1994;7.0860;
1203.9000;0.1970;7.0813;
1204.2000;0.1962;7.0813;
1204.5000;0.1978;7.0860;
1204.8000;0.1994;7.0884;
1205.1000;0.1970;7.0954;
1205.4000;0.1986;7.1025;
1205.7000;0.1978;7.0931;
1206.0000;0.1978;7.0907;
1206.3000;0.1994;7.0954;
1206.6000;0.1986;7.0907;
1206.9000;0.1994;7.1025;
1207.2000;0.1962;7.0907;
1207.5000;0.1994;7.1025;
1207.8000;0.2092;7.1330;
1208.1000;0.1978;7.1025;
1208.4000;0.1978;7.0884;
1208.7000;0.2011;7.0954;
1209.0000;0.2019;7.0884;
1209.3000;0.1962;7.0907;
1209.6000;0.1970;7.1001;
1209.9000;0.2002;7.1048;
1210.2000;0.2011;7.1072;
1210.5000;0.1986;7.1001;
1210.8000;0.1994;7.1072;
1211.1000;0.1994;7.1072;
1211.4000;0.2027;7.1025;
1211.7000;0.2011;7.0978;
1212.0000;0.2019;7.1048;
1212.3000;0.1994;7.1072;
1212.6000;0.1970;7.1048;
1212.9000;0.1994;7.1119;
1213.2000;0.1937;7.0954;
1213.5000;0.1986;7.0978;
1213.8000;0.2011;7.1048;
1214.1000;0.1986;7.1025;
1214.4000;0.1994;7.0978;
1214.7000;0.1986;7.0978;
1215.0000;0.1929;7.0813;
1215.3000;0.2108;7.1260;
1215.6000;0.2011;7.1119;
1215.9000;0.2019;7.1001;
1216.2000;0.1994;7.0954;
1216.5000;0.1986;7.0931;
1216.8000;0.1970;7.0837;
1217.1000;0.1954;7.0813;
1217.4000;0.1986;7.0813;
1217.7000;0.1994;7.0837;
1218.0000;0.1945;7.0789;
1218.3000;0.1986;7.0789;
1218.6000;0.1986;7.0884;
1218.9000;0.2002;7.0978;
1219.2000;0.1986;7.0978;
1219.5000;0.1970;7.0978;
1219.8000;0.1970;7.0954;
1220.1000;0.1970;7.1025;
1220.4000;0.1994;7.1119;
1220.7000;0.1994;7.1119;
1221.0000;0.2084;7.1354;
1221.3000;0.1978;7.0978;
1221.6000;0.1994;7.0978;
1221.9000;0.1994;7.0954;
1222.2000;0.1986;7.0837;
1222.5000;0.2002;7.0860;
1222.8000;0.2002;7.0860;
1223.1000;0.1994;7.0813;
1223.4000;0.1986;7.0837;
1223.7000;0.1986;7.0813;
1224.0000;0.1986;7.0837;
1224.3000;0.1986;7.0884;
1224.6000;0.1986;7.0813;
1224.9000;0.1994;7.0907;
1225.2000;0.1994;7.0954;
1225.5000;0.1970;7.0813;
1225.8000;0.1970;7.0860;
1226.1000;0.1978;7.0931;
1226.4000;0.2011;7.1001;
1226.7000;0.1994;7.0907;
1227.0000;0.1962;7.0860;
1227.3000;0.1945;7.0766;
1227.6000;0.1986;7.1001;
1227.9000;0.2002;7.1001;
1228.2000;0.1986;7.1048;
1228.5000;0.2002;7.1072;
1228.8000;0.1986;7.0978;
1229.1000;0.1978;7.0860;
1229.4000;0.1970;7.0837;
1229.7000;0.1994;7.0789;
1230.0000;0.1945;7.0672;
1230.3000;0.1986;7.0837;
1230.6000;0.1986;7.0907;
1230.9000;0.1970;7.0931;
1231.2000;0.1978;7.0884;
1231.5000;0.1986;7.0884;
1231.8000;0.1978;7.0860;
1232.1000;0.1978;7.0789;
1232.4000;0.1929;7.0766;
1232.7000;0.2002;7.0931;
1233.0000;0.1962;7.0837;
1233.3000;0.1970;7.0884;
1233.6000;0.1978;7.0931;
1233.9000;0.1986;7.1001;
1234.2000;0.1978;7.0954;
1234.5000;0.1986;7.0978;
1234.8000;0.2011;7.1025;
1235.1000;0.1994;7.0954;
1235.4000;0.1978;7.0954;
1235.7000;0.2051;7.1142;
1236.0000;0.1994;7.1072;
1236.3000;0.2019;7.1142;
1236.6000;0.1994;7.1025;
1236.9000;0.1994;7.1048;
1237.2000;0.2002;7.1095;
1237.5000;0.1954;7.1095;
1237.8000;0.1986;7.1119;
1238.1000;0.2002;7.1095;
1238.4000;0.1970;7.1025;
1238.7000;0.1978;7.1072;
1239.0000;0.2011;7.1166;
1239.3000;0.2011;7.1166;
1239.6000;0.1962;7.1001;
1239.9000;0.2011;7.1142;
1240.2000;0.1978;7.1072;
1240.5000;0.2011;7.1189;
1240.8000;0.1970;7.1119;
1241.1000;0.1986;7.1189;
1241.4000;0.1962;7.1142;
1241.7000;0.2002;7.1189;
1242.0000;0.2011;7.1142;
1242.3000;0.2002;7.1119;
1242.6000;0.1978;7.1072;
1242.9000;0.1986;7.1072;
1243.2000;0.2019;7.1213;
1243.5000;0.1962;7.1119;
1243.8000;0.1978;7.1213;
1244.1000;0.1994;7.1260;
1244.4000;0.2019;7.1330;
1244.7000;0.1986;7.1236;
1245.0000;0.1978;7.1142;
1245.3000;0.1954;7.1095;
1245.6000;0.1986;7.1189;
1245.9000;0.1986;7.1189;
1246.2000;0.1994;7.1236;
1246.5000;0.1994;7.1166;
1246.8000;0.1994;7.1001;
1247.1000;0.1986;7.0907;
1247.4000;0.1986;7.0837;
1247.7000;0.1970;7.0789;
1248.0000;0.2002;7.0884;
1248.3000;0.1986;7.0837;
1248.6000;0.1978;7.0860;
1248.9000;0.1970;7.0907;
1249.2000;0.1994;7.1001;
1249.5000;0.2002;7.1048;
1249.8000;0.1986;7.0954;
1250.1000;0.2002;7.1072;
1250.4000;0.1962;7.1025;
1250.7000;0.1986;7.1095;
1251.0000;0.1978;7.1119;
1251.3000;0.2011;7.1307;
1251.6000;0.1994;7.1236;
1251.9000;0.1994;7.1236;
1252.2000;0.1970;7.1119;
1252.5000;0.1994;7.1095;
1252.8000;0.1994;7.1048;
1253.1000;0.2019;7.1095;
1253.4000;0.1986;7.1142;
1253.7000;0.2059;7.1283;
1254.0000;0.1962;7.1001;
1254.3000;0.2019;7.1095;
1254.6000;0.2002;7.1001;
1254.9000;0.1986;7.0978;
1255.2000;0.1986;7.1001;
1255.5000;0.1978;7.0978;
1255.8000;0.2002;7.1025;
1256.1000;0.1986;7.0978;
1256.4000;0.1978;7.1001;
1256.7000;0.1986;7.1025;
1257.0000;0.2002;7.1001;
1257.3000;0.1994;7.1001;
1257.6000;0.1978;7.0931;
1257.9000;0.1978;7.1001;
1258.2000;0.1986;7.1072;
1258.5000;0.2002;7.1025;
1258.8000;0.2011;7.1072;
1259.1000;0.1970;7.0907;
1259.4000;0.1994;7.0978;
1259.7000;0.2002;7.1025;
1260.0000;0.1970;7.0978;
1260.3000;0.1986;7.1025;
1260.6000;0.1970;7.1025;
1260.9000;0.2019;7.1119;
1261.2000;0.2002;7.1142;
1261.5000;0.1994;7.1236;
1261.8000;0.2027;7.1307;
1262.1000;0.1994;7.1213;
1262.4000;0.2002;7.1166;
1262.7000;0.1986;7.1048;
1263.0000;0.1994;7.1025;
1263.3000;0.1986;7.1025;
1263.6000;0.1994;7.1095;
1263.9000;0.1978;7.1095;
1264.2000;0.1978;7.1119;
1264.5000;0.1970;7.1025;
1264.8000;0.1986;7.1025;
1265.1000;0.1970;7.0978;
1265.4000;0.1962;7.0954;
1265.7000;0.2068;7.1213;
1266.0000;0.1970;7.1001;
1266.3000;0.1970;7.0978;
1266.6000;0.1994;7.1048;
1266.9000;0.1986;7.0978;
1267.2000;0.1986;7.1025;
1267.5000;0.1994;7.0931;
1267.8000;0.1986;7.0860;
1268.1000;0.1986;7.0860;
1268.4000;0.2011;7.0813;
1268.7000;0.2002;7.0789;
1269.0000;0.1986;7.0789;
1269.3000;0.1978;7.0837;
1269.6000;0.2002;7.0789;
1269.9000;0.1994;7.0789;
1270.2000;0.2002;7.0837;
1270.5000;0.1978;7.0884;
1270.8000;0.1962;7.0931;
1271.1000;0.2051;7.1213;
1271.4000;0.1994;7.1048;
1271.7000;0.1962;7.1001;
1272.0000;0.2043;7.1260;
1272.3000;0.2059;7.1307;
1272.6000;0.1994;7.0978;
1272.9000;0.1929;7.0742;
1273.2000;0.2027;7.1001;
1273.5000;0.2002;7.0978;
1273.8000;0.1986;7.0931;
1274.1000;0.1970;7.0978;
1274.4000;0.2011;7.1001;
1274.7000;0.2011;7.0907;
1275.0000;0.1978;7.0907;
1275.3000;0.1978;7.0931;
1275.6000;0.1986;7.1072;
1275.9000;0.1994;7.1048;
1276.2000;0.1954;7.0978;
1276.5000;0.1970;7.1025;
1276.8000;0.1978;7.0907;
1277.1000;0.1994;7.0907;
1277.4000;0.1994;7.0907;
1277.7000;0.1905;7.0648;
1278.0000;0.1978;7.0860;
1278.3000;0.2002;7.0860;
1278.6000;0.1970;7.0742;
1278.9000;0.1937;7.0695;
1279.2000;0.1994;7.0837;
1279.5000;0.1962;7.0837;
1279.8000;0.1994;7.0837;
1280.1000;0.1978;7.0813;
1280.4000;0.1978;7.0695;
1280.7000;0.1970;7.0625;
1281.0000;0.1986;7.0742;
1281.3000;0.1994;7.0813;
1281.6000;0.1986;7.0837;
1281.9000;0.1970;7.0907;
1282.2000;0.2002;7.0931;
1282.5000;0.1905;7.0695;
1282.8000;0.2011;7.0978;
1283.1000;0.2011;7.1095;
1283.4000;0.2035;7.1166;
1283.7000;0.2011;7.1072;
1284.0000;0.1986;7.1025;
1284.3000;0.1986;7.1001;
1284.6000;0.1978;7.0978;
1284.9000;0.2027;7.1095;
1285.2000;0.1994;7.1025;
1285.5000;0.1986;7.0954;
1285.8000;0.1905;7.0742;
1286.1000;0.1978;7.0931;
1286.4000;0.1970;7.0954;
1286.7000;0.2019;7.1048;
1287.0000;0.2002;7.0954;
1287.3000;0.1994;7.0978;
1287.6000;0.2011;7.1048;
1287.9000;0.2011;7.0954;
1288.2000;0.1986;7.0860;
1288.5000;0.2002;7.0931;
1288.8000;0.1962;7.0789;
1289.1000;0.2002;7.0907;
1289.4000;0.1978;7.0860;
1289.7000;0.2011;7.1048;
1290.0000;0.1978;7.0978;
1290.3000;0.1978;7.0954;
1290.6000;0.2011;7.1001;
1290.9000;0.1929;7.0813;
1291.2000;0.2002;7.0813;
1291.5000;0.1978;7.0695;
1291.8000;0.1970;7.0766;
1292.1000;0.2076;7.0954;
1292.4000;0.1986;7.0837;
1292.7000;0.2011;7.0931;
1293.0000;0.1986;7.0931;
1293.3000;0.2019;7.1025;
1293.6000;0.1978;7.0978;
1293.9000;0.2035;7.1095;
1294.2000;0.1970;7.0884;
1294.5000;0.1978;7.0907;
1294.8000;0.1986;7.0978;
1295.1000;0.1962;7.0978;
1295.4000;0.2011;7.1119;
1295.7000;0.1970;7.0978;
1296.0000;0.1962;7.0978;
1296.3000;0.1986;7.1072;
1296.6000;0.2002;7.1119;
1296.9000;0.1978;7.0978;
1297.2000;0.1986;7.1025;
1297.5000;0.1986;7.1025;
1297.8000;0.1954;7.0978;
1298.1000;0.1986;7.1048;
1298.4000;0.1994;7.1025;
1298.7000;0.1970;7.0978;
1299.0000;0.2019;7.1166;
1299.3000;0.1986;7.1119;
1299.6000;0.1962;7.0978;
1299.9000;0.1994;7.1001;
1300.2000;0.2027;7.1095;
1300.5000;0.1970;7.0884;
1300.8000;0.1970;7.0837;
1301.1000;0.1970;7.0766;
1301.4000;0.1962;7.0884;
1301.7000;0.2002;7.1001;
1302.0000;0.1978;7.0860;
1302.3000;0.1986;7.0860;
1302.6000;0.2002;7.0884;
1302.9000;0.1994;7.0931;
1303.2000;0.2002;7.1048;
1303.5000;0.1986;7.1001;
1303.8000;0.2019;7.1072;
1304.1000;0.2002;7.1095;
1304.4000;0.2027;7.1119;
1304.7000;0.1986;7.1025;
1305.0000;0.1970;7.1001;
1305.3000;0.1978;7.1166;
1305.6000;0.1921;7.1025;
1305.9000;0.1970;7.1119;
1306.2000;0.1954;7.1213;
1306.5000;0.2035;7.1354;
1306.8000;0.1994;7.1260;
1307.1000;0.1970;7.1236;
1307.4000;0.1962;7.1189;
1307.7000;0.1986;7.1236;
1308.0000;0.1994;7.1213;
1308.3000;0.2043;7.1189;
1308.6000;0.1986;7.1048;
1308.9000;0.1986;7.0954;
1309.2000;0.2011;7.1048;
1309.5000;0.1986;7.1119;
1309.8000;0.1978;7.1189;
1310.1000;0.1986;7.1213;
1310.4000;0.1880;7.0907;
1310.7000;0.1970;7.1025;
1311.0000;0.2002;7.0978;
1311.3000;0.1864;7.0625;
1311.6000;0.1994;7.0907;
1311.9000;0.1970;7.0837;
1312.2000;0.1994;7.0884;
1312.5000;0.2035;7.1072;
1312.8000;0.1978;7.0978;
1313.1000;0.2002;7.1119;
1313.4000;0.1978;7.1072;
1313.7000;0.1994;7.1072;
1314.0000;0.1994;7.1119;
1314.3000;0.2002;7.1072;
1314.6000;0.1986;7.1025;
1314.9000;0.1978;7.0954;
1315.2000;0.2051;7.1119;
1315.5000;0.1970;7.0907;
1315.8000;0.1986;7.0907;
1316.1000;0.1970;7.0884;
1316.4000;0.2002;7.0978;
1316.7000;0.2011;7.1001;
1317.0000;0.1986;7.0884;
1317.3000;0.1986;7.0860;
1317.6000;0.1970;7.0672;
1317.9000;0.1905;7.0531;
1318.2000;0.1986;7.0742;
1318.5000;0.1986;7.0789;
1318.8000;0.2002;7.0860;
1319.1000;0.2002;7.0884;
1319.4000;0.1994;7.0813;
1319.7000;0.1962;7.0813;
1320.0000;0.1978;7.0837;
1320.3000;0.1978;7.0789;
1320.6000;0.1978;7.0907;
1320.9000;0.1970;7.0978;
1321.2000;0.1954;7.0931;
1321.5000;0.1994;7.0954;
1321.8000;0.1986;7.0931;
1322.1000;0.1986;7.0907;
1322.4000;0.1978;7.0860;
1322.7000;0.1986;7.0789;
1323.0000;0.1978;7.0766;
1323.3000;0.1994;7.0789;
1323.6000;0.1986;7.0860;
1323.9000;0.1970;7.0884;
1324.2000;0.1994;7.0931;
1324.5000;0.1978;7.0954;
1324.8000;0.1994;7.1001;
1325.1000;0.1978;7.1048;
1325.4000;0.1962;7.1001;
1325.7000;0.1986;7.1072;
1326.0000;0.1994;7.1025;
1326.3000;0.1986;7.0884;
1326.6000;0.1994;7.0837;
1326.9000;0.1994;7.0978;
1327.2000;0.1986;7.1048;
1327.5000;0.1978;7.1048;
1327.8000;0.1954;7.0954;
1328.1000;0.1986;7.0884;
1328.4000;0.1994;7.0931;
1328.7000;0.1994;7.0931;
1329.0000;0.1978;7.0978;
1329.3000;0.1994;7.0954;
1329.6000;0.1994;7.0931;
1329.9000;0.2019;7.1048;
1330.2000;0.1994;7.0931;
1330.5000;0.1945;7.0766;
1330.8000;0.2019;7.0837;
1331.1000;0.1970;7.0766;
1331.4000;0.1970;7.0837;
1331.7000;0.1994;7.1001;
1332.0000;0.1986;7.0907;
1332.3000;0.1970;7.0884;
1332.6000;0.1978;7.0884;
1332.9000;0.2019;7.1048;
1333.2000;0.1986;7.1025;
1333.5000;0.1978;7.1095;
1333.8000;0.1954;7.1025;
1334.1000;0.1921;7.0954;
1334.4000;0.1962;7.1119;
1334.7000;0.1978;7.1072;
1335.0000;0.1962;7.1025;
1335.3000;0.1994;7.1025;
1335.6000;0.1945;7.0931;
1335.9000;0.1994;7.1025;
1336.2000;0.2002;7.1119;
1336.5000;0.2011;7.1095;
1336.8000;0.1921;7.0860;
1337.1000;0.1962;7.1072;
1337.4000;0.1962;7.0954;
1337.7000;0.1945;7.0884;
1338.0000;0.1994;7.1048;
1338.3000;0.1986;7.0978;
1338.6000;0.2076;7.1166;
1338.9000;0.1994;7.0931;
1339.2000;0.1994;7.0954;
1339.5000;0.2002;7.0978;
1339.8000;0.2002;7.1048;
1340.1000;0.1994;7.1072;
1340.4000;0.1970;7.1095;
1340.7000;0.1978;7.1072;
1341.0000;0.1994;7.1025;
1341.3000;0.1986;7.0978;
1341.6000;0.1962;7.0884;
1341.9000;0.1970;7.0954;
1342.2000;0.1986;7.1001;
1342.5000;0.1994;7.1048;
1342.8000;0.1994;7.1025;
1343.1000;0.1970;7.1001;
1343.4000;0.1962;7.1001;
1343.7000;0.1986;7.1048;
1344.0000;0.1986;7.0978;
1344.3000;0.1970;7.1001;
1344.6000;0.1978;7.1119;
1344.9000;0.1945;7.0954;
1345.2000;0.1978;7.1025;
1345.5000;0.1994;7.0978;
1345.8000;0.1986;7.0931;
1346.1000;0.1986;7.0884;
1346.4000;0.2035;7.1025;
1346.7000;0.1970;7.0931;
1347.0000;0.1978;7.0884;
1347.3000;0.2011;7.0931;
1347.6000;0.1994;7.0907;
1347.9000;0.2002;7.1001;
1348.2000;0.1978;7.1048;
1348.5000;0.1978;7.0978;
1348.8000;0.2019;7.0978;
1349.1000;0.1962;7.0742;
1349.4000;0.1978;7.0742;
1349.7000;0.1978;7.0766;
1350.0000;0.2027;7.0860;
1350.3000;0.1986;7.0766;
1350.6000;0.1986;7.0742;
1350.9000;0.1962;7.0672;
1351.2000;0.2011;7.0742;
1351.5000;0.1986;7.0813;
1351.8000;0.1986;7.0789;
1352.1000;0.1978;7.0742;
1352.4000;0.1994;7.0860;
1352.7000;0.1986;7.0907;
1353.0000;0.1986;7.1001;
1353.3000;0.1970;7.1119;
1353.6000;0.1994;7.1260;
1353.9000;0.1986;7.1189;
1354.2000;0.1994;7.1119;
1354.5000;0.1986;7.1048;
1354.8000;0.2019;7.1001;
1355.1000;0.2002;7.0884;
1355.4000;0.1978;7.0813;
1355.7000;0.1986;7.0907;
1356.0000;0.1962;7.0860;
1356.3000;0.1994;7.0954;
1356.6000;0.1978;7.0907;
1356.9000;0.1937;7.0860;
1357.2000;0.1962;7.0931;
1357.5000;0.1986;7.0954;
1357.8000;0.1954;7.0884;
1358.1000;0.1970;7.0978;
1358.4000;0.1970;7.1001;
1358.7000;0.1986;7.0954;
1359.0000;0.1945;7.0789;
1359.3000;0.1962;7.0837;
1359.6000;0.1954;7.0813;
1359.9000;0.1970;7.0789;
1360.2000;0.2002;7.0766;
1360.5000;0.1978;7.0648;
1360.8000;0.1986;7.0625;
1361.1000;0.1978;7.0672;
1361.4000;0.1945;7.0672;
1361.7000;0.2002;7.0742;
1362.0000;0.1994;7.0625;
1362.3000;0.1945;7.0507;
1362.6000;0.1994;7.0695;
1362.9000;0.1986;7.0648;
1363.2000;0.1986;7.0601;
1363.5000;0.1986;7.0601;
1363.8000;0.1970;7.0578;
1364.1000;0.1994;7.0648;
1364.4000;0.1978;7.0695;
1364.7000;0.1978;7.0625;
1365.0000;0.2019;7.0789;
1365.3000;0.1962;7.0625;
1365.6000;0.1994;7.0648;
1365.9000;0.2019;7.0789;
1366.2000;0.1962;7.0672;
1366.5000;0.1994;7.0884;
1366.8000;0.1986;7.0860;
1367.1000;0.1986;7.0813;
1367.4000;0.1954;7.0766;
1367.7000;0.1986;7.0931;
1368.0000;0.1994;7.0813;
1368.3000;0.1978;7.0837;
1368.6000;0.1994;7.0907;
1368.9000;0.2002;7.1001;
1369.2000;0.2002;7.0931;
1369.5000;0.1986;7.0837;
1369.8000;0.2002;7.0907;
1370.1000;0.1994;7.1001;
1370.4000;0.2002;7.1048;
1370.7000;0.1970;7.1048;
1371.0000;0.1978;7.1048;
1371.3000;0.1994;7.1072;
1371.6000;0.2059;7.1283;
1371.9000;0.1978;7.1119;
1372.2000;0.1994;7.1072;
1372.5000;0.1986;7.1072;
1372.8000;0.2019;7.1048;
1373.1000;0.2002;7.1001;
1373.4000;0.1945;7.0978;
1373.7000;0.1962;7.1072;
1374.0000;0.1994;7.1072;
1374.3000;0.2011;7.1119;
1374.6000;0.2051;7.1189;
1374.9000;0.1986;7.1072;
1375.2000;0.1986;7.1095;
1375.5000;0.1986;7.1048;
1375.8000;0.1986;7.1001;
1376.1000;0.1978;7.0931;
1376.4000;0.2002;7.0907;
1376.7000;0.1937;7.0625;
1377.0000;0.2002;7.0789;
1377.3000;0.1978;7.0695;
1377.6000;0.1994;7.0837;
1377.9000;0.1978;7.0860;
1378.2000;0.2002;7.0837;
1378.5000;0.1986;7.0789;
1378.8000;0.1986;7.0813;
1379.1000;0.1937;7.0719;
1379.4000;0.1978;7.0813;
1379.7000;0.2019;7.0954;
1380.0000;0.1970;7.0860;
1380.3000;0.1986;7.0860;
1380.6000;0.1994;7.0884;
1380.9000;0.1954;7.0884;
1381.2000;0.1978;7.0954;
1381.5000;0.1978;7.0884;
1381.8000;0.2068;7.1166;
1382.1000;0.1937;7.0766;
1382.4000;0.1954;7.0813;
1382.7000;0.1945;7.0907;
1383.0000;0.1978;7.0978;
1383.3000;0.1986;7.1001;
1383.6000;0.2002;7.1001;
1383.9000;0.1978;7.0837;
1384.2000;0.1994;7.0860;
1384.5000;0.1986;7.0860;
1384.8000;0.2068;7.1095;
1385.1000;0.1913;7.0766;
1385.4000;0.1986;7.0907;
1385.7000;0.1986;7.0907;
1386.0000;0.1945;7.0742;
1386.3000;0.1978;7.0860;
1386.6000;0.1945;7.0813;
1386.9000;0.2011;7.0907;
1387.2000;0.1921;7.0648;
1387.5000;0.1962;7.0789;
1387.8000;0.2002;7.0860;
1388.1000;0.1929;7.0719;
1388.4000;0.1986;7.0860;
1388.7000;0.1986;7.0884;
1389.0000;0.1994;7.0931;
1389.3000;0.1994;7.1048;
1389.6000;0.1937;7.0954;
1389.9000;0.1978;7.1025;
1390.2000;0.1986;7.1001;
1390.5000;0.1986;7.1072;
1390.8000;0.1986;7.1025;
1391.1000;0.1962;7.0978;
1391.4000;0.1986;7.1001;
1391.7000;0.1986;7.1072;
1392.0000;0.2002;7.1072;
1392.3000;0.2019;7.1119;
1392.6000;0.1978;7.1025;
1392.9000;0.1962;7.1119;
1393.2000;0.2002;7.1142;
1393.5000;0.1994;7.0954;
1393.8000;0.1970;7.0860;
1394.1000;0.1970;7.0789;
1394.4000;0.2002;7.0907;
1394.7000;0.2011;7.0954;
1395.0000;0.1962;7.0860;
1395.3000;0.1986;7.0860;
1395.6000;0.2002;7.0954;
1395.9000;0.1978;7.0931;
1396.2000;0.1970;7.0954;
1396.5000;0.1986;7.1001;
1396.8000;0.1986;7.0907;
1397.1000;0.1978;7.0907;
1397.4000;0.1978;7.0860;
1397.7000;0.1929;7.0789;
1398.0000;0.1994;7.0978;
1398.3000;0.1986;7.0954;
1398.6000;0.1978;7.0978;
1398.9000;0.1978;7.0907;
1399.2000;0.1978;7.0860;
1399.5000;0.1994;7.0860;
1399.8000;0.1986;7.0837;
