time/ms;Fluo/V;P700 deltaI/I x10³;
-199.8000;0.2873;7.2459;
-199.5000;0.2857;7.2389;
-199.2000;0.2873;7.2459;
-198.9000;0.2865;7.2577;
-198.6000;0.2833;7.2389;
-198.3000;0.2857;7.2436;
-198.0000;0.2873;7.2389;
-197.7000;0.2857;7.2389;
-197.4000;0.2857;7.2318;
-197.1000;0.2930;7.2412;
-196.8000;0.2857;7.2248;
-196.5000;0.2857;7.2295;
-196.2000;0.2865;7.2389;
-195.9000;0.2865;7.2365;
-195.6000;0.2873;7.2365;
-195.3000;0.2873;7.2389;
-195.0000;0.2865;7.2412;
-194.7000;0.2873;7.2412;
-194.4000;0.2849;7.2295;
-194.1000;0.2939;7.2530;
-193.8000;0.2865;7.2318;
-193.5000;0.2873;7.2318;
-193.2000;0.2865;7.2295;
-192.9000;0.2857;7.2295;
-192.6000;0.2849;7.2295;
-192.3000;0.2865;7.2342;
-192.0000;0.2849;7.2342;
-191.7000;0.2857;7.2365;
-191.4000;0.2873;7.2412;
-191.1000;0.2865;7.2412;
-190.8000;0.2865;7.2389;
-190.5000;0.2906;7.2459;
-190.2000;0.2816;7.2248;
-189.9000;0.2873;7.2248;
-189.6000;0.2865;7.2295;
-189.3000;0.2865;7.2412;
-189.0000;0.2865;7.2506;
-188.7000;0.2873;7.2483;
-188.4000;0.2849;7.2506;
-188.1000;0.2882;7.2553;
-187.8000;0.2873;7.2483;
-187.5000;0.2857;7.2436;
-187.2000;0.2882;7.2295;
-186.9000;0.2865;7.2318;
-186.6000;0.2873;7.2318;
-186.3000;0.2882;7.2342;
-186.0000;0.2873;7.2248;
-185.7000;0.2873;7.2318;
-185.4000;0.2865;7.2342;
-185.1000;0.2873;7.2342;
-184.8000;0.2857;7.2389;
-184.5000;0.2865;7.2412;
-184.2000;0.2873;7.2436;
-183.9000;0.2865;7.2436;
-183.6000;0.2865;7.2530;
-183.3000;0.2857;7.2389;
-183.0000;0.2865;7.2389;
-182.7000;0.2849;7.2412;
-182.4000;0.2849;7.2389;
-182.1000;0.2849;7.2365;
-181.8000;0.2857;7.2318;
-181.5000;0.2841;7.2271;
-181.2000;0.2865;7.2295;
-180.9000;0.2857;7.2271;
-180.6000;0.2849;7.2342;
-180.3000;0.2865;7.2365;
-180.0000;0.2865;7.2342;
-179.7000;0.2857;7.2318;
-179.4000;0.2865;7.2295;
-179.1000;0.2865;7.2248;
-178.8000;0.2865;7.2248;
-178.5000;0.2857;7.2177;
-178.2000;0.2865;7.2177;
-177.9000;0.2865;7.2201;
-177.6000;0.2857;7.2248;
-177.3000;0.2857;7.2318;
-177.0000;0.2849;7.2318;
-176.7000;0.2857;7.2318;
-176.4000;0.2882;7.2365;
-176.1000;0.2873;7.2295;
-175.8000;0.2849;7.2224;
-175.5000;0.2865;7.2224;
-175.2000;0.2873;7.2295;
-174.9000;0.2873;7.2248;
-174.6000;0.2849;7.2177;
-174.3000;0.2890;7.2295;
-174.0000;0.2882;7.2271;
-173.7000;0.2865;7.2318;
-173.4000;0.2873;7.2389;
-173.1000;0.2873;7.2436;
-172.8000;0.2882;7.2412;
-172.5000;0.2873;7.2412;
-172.2000;0.2865;7.2271;
-171.9000;0.2873;7.2271;
-171.6000;0.2922;7.2318;
-171.3000;0.2865;7.2154;
-171.0000;0.2873;7.2130;
-170.7000;0.2865;7.2107;
-170.4000;0.2849;7.2107;
-170.1000;0.2898;7.2295;
-169.8000;0.2865;7.2201;
-169.5000;0.2873;7.2201;
-169.2000;0.2865;7.2177;
-168.9000;0.2873;7.2295;
-168.6000;0.2865;7.2271;
-168.3000;0.2857;7.2177;
-168.0000;0.2865;7.2154;
-167.7000;0.2898;7.2177;
-167.4000;0.2800;7.2059;
-167.1000;0.2865;7.2271;
-166.8000;0.2857;7.2295;
-166.5000;0.2873;7.2318;
-166.2000;0.2784;7.2083;
-165.9000;0.2857;7.2201;
-165.6000;0.2849;7.2130;
-165.3000;0.2833;7.2107;
-165.0000;0.2873;7.2130;
-164.7000;0.2865;7.2177;
-164.4000;0.2841;7.2130;
-164.1000;0.2857;7.2130;
-163.8000;0.2865;7.2201;
-163.5000;0.2890;7.2201;
-163.2000;0.2849;7.2083;
-162.9000;0.2857;7.2059;
-162.6000;0.2890;7.2107;
-162.3000;0.2865;7.2083;
-162.0000;0.2849;7.2083;
-161.7000;0.2857;7.2154;
-161.4000;0.2882;7.2224;
-161.1000;0.2873;7.2248;
-160.8000;0.2914;7.2365;
-160.5000;0.2898;7.2318;
-160.2000;0.2873;7.2318;
-159.9000;0.2857;7.2389;
-159.6000;0.2906;7.2506;
-159.3000;0.2849;7.2318;
-159.0000;0.2873;7.2342;
-158.7000;0.2711;7.1965;
-158.4000;0.2890;7.2412;
-158.1000;0.2865;7.2342;
-157.8000;0.2882;7.2412;
-157.5000;0.2873;7.2365;
-157.2000;0.2882;7.2318;
-156.9000;0.2833;7.2248;
-156.6000;0.2857;7.2318;
-156.3000;0.2865;7.2295;
-156.0000;0.2898;7.2365;
-155.7000;0.2865;7.2365;
-155.4000;0.2873;7.2318;
-155.1000;0.2816;7.2295;
-154.8000;0.2873;7.2436;
-154.5000;0.2882;7.2459;
-154.2000;0.2882;7.2436;
-153.9000;0.2857;7.2412;
-153.6000;0.2841;7.2271;
-153.3000;0.2857;7.2271;
-153.0000;0.2857;7.2248;
-152.7000;0.2857;7.2271;
-152.4000;0.2857;7.2318;
-152.1000;0.2857;7.2318;
-151.8000;0.2841;7.2271;
-151.5000;0.2857;7.2271;
-151.2000;0.2857;7.2412;
-150.9000;0.2816;7.2342;
-150.6000;0.2857;7.2412;
-150.3000;0.2849;7.2412;
-150.0000;0.2849;7.2412;
-149.7000;0.2768;7.2177;
-149.4000;0.2865;7.2224;
-149.1000;0.2849;7.2083;
-148.8000;0.2865;7.2154;
-148.5000;0.2857;7.2248;
-148.2000;0.2865;7.2318;
-147.9000;0.2865;7.2365;
-147.6000;0.2865;7.2271;
-147.3000;0.2857;7.2201;
-147.0000;0.2882;7.2271;
-146.7000;0.2873;7.2224;
-146.4000;0.2873;7.2295;
-146.1000;0.2857;7.2389;
-145.8000;0.2849;7.2295;
-145.5000;0.2865;7.2318;
-145.2000;0.2906;7.2412;
-144.9000;0.2865;7.2342;
-144.6000;0.2882;7.2365;
-144.3000;0.2898;7.2365;
-144.0000;0.2930;7.2365;
-143.7000;0.2873;7.2248;
-143.4000;0.2865;7.2248;
-143.1000;0.2841;7.2248;
-142.8000;0.2857;7.2318;
-142.5000;0.2849;7.2248;
-142.2000;0.2808;7.2177;
-141.9000;0.2865;7.2365;
-141.6000;0.2857;7.2389;
-141.3000;0.2857;7.2436;
-141.0000;0.2865;7.2436;
-140.7000;0.2865;7.2412;
-140.4000;0.2841;7.2271;
-140.1000;0.2857;7.2342;
-139.8000;0.2865;7.2459;
-139.5000;0.2857;7.2436;
-139.2000;0.2865;7.2412;
-138.9000;0.2882;7.2483;
-138.6000;0.2857;7.2412;
-138.3000;0.2873;7.2436;
-138.0000;0.2865;7.2459;
-137.7000;0.2857;7.2318;
-137.4000;0.2857;7.2271;
-137.1000;0.2857;7.2248;
-136.8000;0.2833;7.2248;
-136.5000;0.2849;7.2342;
-136.2000;0.2857;7.2365;
-135.9000;0.2808;7.2248;
-135.6000;0.2849;7.2318;
-135.3000;0.2873;7.2271;
-135.0000;0.2857;7.2224;
-134.7000;0.2865;7.2342;
-134.4000;0.2898;7.2459;
-134.1000;0.2873;7.2342;
-133.8000;0.2857;7.2389;
-133.5000;0.2857;7.2365;
-133.2000;0.2865;7.2436;
-132.9000;0.2825;7.2389;
-132.6000;0.2849;7.2506;
-132.3000;0.2873;7.2530;
-132.0000;0.2873;7.2436;
-131.7000;0.2882;7.2483;
-131.4000;0.2865;7.2318;
-131.1000;0.2849;7.2224;
-130.8000;0.2816;7.2130;
-130.5000;0.2873;7.2248;
-130.2000;0.2849;7.2201;
-129.9000;0.2865;7.2248;
-129.6000;0.2873;7.2342;
-129.3000;0.2947;7.2600;
-129.0000;0.2930;7.2624;
-128.7000;0.2841;7.2459;
-128.4000;0.2865;7.2600;
-128.1000;0.2841;7.2459;
-127.8000;0.2768;7.2248;
-127.5000;0.2890;7.2412;
-127.2000;0.2768;7.2083;
-126.9000;0.2865;7.2318;
-126.6000;0.2955;7.2577;
-126.3000;0.2800;7.2154;
-126.0000;0.2857;7.2248;
-125.7000;0.2825;7.1989;
-125.4000;0.2873;7.2177;
-125.1000;0.2873;7.2224;
-124.8000;0.2873;7.2295;
-124.5000;0.2841;7.2224;
-124.2000;0.2865;7.2295;
-123.9000;0.2857;7.2365;
-123.6000;0.2857;7.2318;
-123.3000;0.2857;7.2436;
-123.0000;0.2890;7.2506;
-122.7000;0.2882;7.2553;
-122.4000;0.2882;7.2436;
-122.1000;0.2865;7.2483;
-121.8000;0.2865;7.2506;
-121.5000;0.2914;7.2647;
-121.2000;0.2873;7.2577;
-120.9000;0.2865;7.2530;
-120.6000;0.2873;7.2553;
-120.3000;0.2857;7.2530;
-120.0000;0.2873;7.2553;
-119.7000;0.2873;7.2600;
-119.4000;0.2882;7.2600;
-119.1000;0.2873;7.2553;
-118.8000;0.2898;7.2436;
-118.5000;0.2841;7.2318;
-118.2000;0.2865;7.2412;
-117.9000;0.2873;7.2483;
-117.6000;0.2865;7.2459;
-117.3000;0.2857;7.2436;
-117.0000;0.2857;7.2412;
-116.7000;0.2882;7.2506;
-116.4000;0.2857;7.2436;
-116.1000;0.2873;7.2530;
-115.8000;0.2882;7.2624;
-115.5000;0.2865;7.2577;
-115.2000;0.2841;7.2530;
-114.9000;0.2849;7.2483;
-114.6000;0.2792;7.2389;
-114.3000;0.2930;7.2624;
-114.0000;0.2890;7.2506;
-113.7000;0.2873;7.2530;
-113.4000;0.2849;7.2412;
-113.1000;0.2890;7.2459;
-112.8000;0.2882;7.2436;
-112.5000;0.2857;7.2436;
-112.2000;0.2833;7.2342;
-111.9000;0.2914;7.2436;
-111.6000;0.2816;7.2201;
-111.3000;0.2914;7.2459;
-111.0000;0.2849;7.2342;
-110.7000;0.2825;7.2271;
-110.4000;0.2873;7.2506;
-110.1000;0.2873;7.2577;
-109.8000;0.2898;7.2718;
-109.5000;0.2865;7.2600;
-109.2000;0.2996;7.3000;
-108.9000;0.2849;7.2671;
-108.6000;0.2882;7.2741;
-108.3000;0.2939;7.2859;
-108.0000;0.2873;7.2694;
-107.7000;0.2857;7.2577;
-107.4000;0.2776;7.2342;
-107.1000;0.2841;7.2459;
-106.8000;0.2816;7.2271;
-106.5000;0.2873;7.2318;
-106.2000;0.2865;7.2271;
-105.9000;0.2841;7.2295;
-105.6000;0.2857;7.2342;
-105.3000;0.2930;7.2459;
-105.0000;0.2873;7.2412;
-104.7000;0.2833;7.2295;
-104.4000;0.2857;7.2342;
-104.1000;0.2833;7.2295;
-103.8000;0.2808;7.2271;
-103.5000;0.2857;7.2365;
-103.2000;0.2841;7.2318;
-102.9000;0.2849;7.2389;
-102.6000;0.2930;7.2553;
-102.3000;0.2857;7.2506;
-102.0000;0.2890;7.2647;
-101.7000;0.2849;7.2506;
-101.4000;0.2873;7.2483;
-101.1000;0.2857;7.2553;
-100.8000;0.2882;7.2600;
-100.5000;0.2857;7.2600;
-100.2000;0.2873;7.2694;
-99.9000;0.2906;7.2741;
-99.6000;0.2873;7.2647;
-99.3000;0.2865;7.2577;
-99.0000;0.2882;7.2577;
-98.7000;0.2873;7.2624;
-98.4000;0.2857;7.2553;
-98.1000;0.2857;7.2459;
-97.8000;0.2849;7.2459;
-97.5000;0.2865;7.2436;
-97.2000;0.2849;7.2459;
-96.9000;0.2857;7.2530;
-96.6000;0.2849;7.2577;
-96.3000;0.2849;7.2436;
-96.0000;0.2857;7.2436;
-95.7000;0.2865;7.2553;
-95.4000;0.2841;7.2506;
-95.1000;0.2873;7.2577;
-94.8000;0.2833;7.2530;
-94.5000;0.2841;7.2553;
-94.2000;0.2865;7.2577;
-93.9000;0.2849;7.2483;
-93.6000;0.2857;7.2459;
-93.3000;0.2865;7.2365;
-93.0000;0.2873;7.2342;
-92.7000;0.2857;7.2318;
-92.4000;0.2865;7.2271;
-92.1000;0.2865;7.2224;
-91.8000;0.2841;7.2201;
-91.5000;0.2882;7.2342;
-91.2000;0.2873;7.2318;
-90.9000;0.2873;7.2365;
-90.6000;0.2865;7.2389;
-90.3000;0.2857;7.2412;
-90.0000;0.2890;7.2483;
-89.7000;0.2890;7.2506;
-89.4000;0.2849;7.2436;
-89.1000;0.2857;7.2483;
-88.8000;0.2890;7.2483;
-88.5000;0.2857;7.2436;
-88.2000;0.2882;7.2436;
-87.9000;0.2955;7.2600;
-87.6000;0.2857;7.2295;
-87.3000;0.2857;7.2459;
-87.0000;0.2906;7.2600;
-86.7000;0.2857;7.2459;
-86.4000;0.2825;7.2365;
-86.1000;0.2873;7.2459;
-85.8000;0.2906;7.2553;
-85.5000;0.2857;7.2483;
-85.2000;0.2857;7.2459;
-84.9000;0.2873;7.2412;
-84.6000;0.2865;7.2389;
-84.3000;0.2865;7.2342;
-84.0000;0.2849;7.2342;
-83.7000;0.2865;7.2365;
-83.4000;0.2792;7.2248;
-83.1000;0.2865;7.2365;
-82.8000;0.2849;7.2389;
-82.5000;0.2873;7.2342;
-82.2000;0.2939;7.2577;
-81.9000;0.2857;7.2365;
-81.6000;0.2841;7.2248;
-81.3000;0.2857;7.2389;
-81.0000;0.2849;7.2365;
-80.7000;0.2865;7.2342;
-80.4000;0.2865;7.2389;
-80.1000;0.2865;7.2365;
-79.8000;0.2882;7.2365;
-79.5000;0.2873;7.2365;
-79.2000;0.2930;7.2530;
-78.9000;0.2890;7.2459;
-78.6000;0.2873;7.2436;
-78.3000;0.2882;7.2459;
-78.0000;0.2865;7.2365;
-77.7000;0.2857;7.2342;
-77.4000;0.2857;7.2318;
-77.1000;0.2882;7.2342;
-76.8000;0.2865;7.2295;
-76.5000;0.2906;7.2342;
-76.2000;0.2882;7.2295;
-75.9000;0.2882;7.2342;
-75.6000;0.2873;7.2342;
-75.3000;0.2849;7.2342;
-75.0000;0.2873;7.2365;
-74.7000;0.2898;7.2506;
-74.4000;0.2873;7.2483;
-74.1000;0.2833;7.2295;
-73.8000;0.2873;7.2342;
-73.5000;0.2865;7.2342;
-73.2000;0.2841;7.2436;
-72.9000;0.2833;7.2412;
-72.6000;0.2833;7.2412;
-72.3000;0.2898;7.2483;
-72.0000;0.2849;7.2436;
-71.7000;0.2849;7.2412;
-71.4000;0.2792;7.2177;
-71.1000;0.2857;7.2318;
-70.8000;0.2841;7.2271;
-70.5000;0.2882;7.2365;
-70.2000;0.2857;7.2342;
-69.9000;0.2849;7.2342;
-69.6000;0.2857;7.2271;
-69.3000;0.2857;7.2224;
-69.0000;0.2849;7.2248;
-68.7000;0.2849;7.2271;
-68.4000;0.2865;7.2342;
-68.1000;0.2857;7.2342;
-67.8000;0.2865;7.2412;
-67.5000;0.2849;7.2342;
-67.2000;0.2865;7.2459;
-66.9000;0.2857;7.2295;
-66.6000;0.2833;7.2271;
-66.3000;0.2873;7.2342;
-66.0000;0.2865;7.2436;
-65.7000;0.2873;7.2436;
-65.4000;0.2922;7.2530;
-65.1000;0.2882;7.2436;
-64.8000;0.2939;7.2506;
-64.5000;0.2882;7.2389;
-64.2000;0.2882;7.2459;
-63.9000;0.2898;7.2436;
-63.6000;0.2849;7.2318;
-63.3000;0.2873;7.2318;
-63.0000;0.2825;7.2295;
-62.7000;0.2849;7.2365;
-62.4000;0.2865;7.2389;
-62.1000;0.2914;7.2577;
-61.8000;0.2857;7.2436;
-61.5000;0.2857;7.2389;
-61.2000;0.2841;7.2459;
-60.9000;0.2857;7.2577;
-60.6000;0.2865;7.2624;
-60.3000;0.2849;7.2553;
-60.0000;0.2849;7.2483;
-59.7000;0.2857;7.2553;
-59.4000;0.2882;7.2506;
-59.1000;0.2873;7.2459;
-58.8000;0.2841;7.2459;
-58.5000;0.2849;7.2506;
-58.2000;0.2849;7.2483;
-57.9000;0.2833;7.2412;
-57.6000;0.2849;7.2483;
-57.3000;0.2849;7.2506;
-57.0000;0.2816;7.2459;
-56.7000;0.2865;7.2647;
-56.4000;0.2841;7.2459;
-56.1000;0.2857;7.2459;
-55.8000;0.2865;7.2506;
-55.5000;0.2841;7.2436;
-55.2000;0.2882;7.2506;
-54.9000;0.2800;7.2365;
-54.6000;0.2865;7.2459;
-54.3000;0.2808;7.2459;
-54.0000;0.2865;7.2553;
-53.7000;0.2865;7.2459;
-53.4000;0.2849;7.2389;
-53.1000;0.2882;7.2459;
-52.8000;0.2865;7.2365;
-52.5000;0.2841;7.2342;
-52.2000;0.2857;7.2389;
-51.9000;0.2890;7.2506;
-51.6000;0.2882;7.2459;
-51.3000;0.2873;7.2459;
-51.0000;0.2849;7.2342;
-50.7000;0.2873;7.2365;
-50.4000;0.2873;7.2412;
-50.1000;0.2898;7.2412;
-49.8000;0.2849;7.2201;
-49.5000;0.2857;7.2201;
-49.2000;0.2865;7.2201;
-48.9000;0.2857;7.2130;
-48.6000;0.2857;7.2083;
-48.3000;0.2882;7.2107;
-48.0000;0.2857;7.2036;
-47.7000;0.2865;7.2130;
-47.4000;0.2857;7.2177;
-47.1000;0.2857;7.2224;
-46.8000;0.2865;7.2224;
-46.5000;0.2833;7.2177;
-46.2000;0.2849;7.2224;
-45.9000;0.2865;7.2224;
-45.6000;0.2857;7.2295;
-45.3000;0.2882;7.2436;
-45.0000;0.2825;7.2318;
-44.7000;0.2825;7.2436;
-44.4000;0.2865;7.2530;
-44.1000;0.2873;7.2577;
-43.8000;0.2914;7.2741;
-43.5000;0.2865;7.2624;
-43.2000;0.2865;7.2577;
-42.9000;0.2873;7.2506;
-42.6000;0.2873;7.2483;
-42.3000;0.2857;7.2436;
-42.0000;0.2841;7.2436;
-41.7000;0.2800;7.2271;
-41.4000;0.2873;7.2436;
-41.1000;0.2882;7.2459;
-40.8000;0.2947;7.2647;
-40.5000;0.2865;7.2365;
-40.2000;0.2873;7.2459;
-39.9000;0.2857;7.2459;
-39.6000;0.2849;7.2459;
-39.3000;0.2865;7.2483;
-39.0000;0.2865;7.2342;
-38.7000;0.2857;7.2295;
-38.4000;0.2857;7.2318;
-38.1000;0.2857;7.2365;
-37.8000;0.2865;7.2342;
-37.5000;0.2873;7.2271;
-37.2000;0.2841;7.2248;
-36.9000;0.2849;7.2224;
-36.6000;0.2849;7.2295;
-36.3000;0.2768;7.2130;
-36.0000;0.2865;7.2412;
-35.7000;0.2865;7.2483;
-35.4000;0.2857;7.2530;
-35.1000;0.2873;7.2553;
-34.8000;0.2898;7.2553;
-34.5000;0.2865;7.2483;
-34.2000;0.2849;7.2483;
-33.9000;0.2865;7.2506;
-33.6000;0.2865;7.2483;
-33.3000;0.2882;7.2506;
-33.0000;0.2857;7.2436;
-32.7000;0.2825;7.2389;
-32.4000;0.2849;7.2459;
-32.1000;0.2873;7.2436;
-31.8000;0.2857;7.2389;
-31.5000;0.2833;7.2271;
-31.2000;0.2857;7.2342;
-30.9000;0.2833;7.2295;
-30.6000;0.2849;7.2436;
-30.3000;0.2841;7.2295;
-30.0000;0.2816;7.2248;
-29.7000;0.2865;7.2389;
-29.4000;0.2849;7.2365;
-29.1000;0.2857;7.2436;
-28.8000;0.2873;7.2436;
-28.5000;0.2857;7.2436;
-28.2000;0.2857;7.2436;
-27.9000;0.2865;7.2389;
-27.6000;0.2955;7.2694;
-27.3000;0.2906;7.2530;
-27.0000;0.2841;7.2389;
-26.7000;0.2873;7.2365;
-26.4000;0.2865;7.2412;
-26.1000;0.2865;7.2483;
-25.8000;0.2906;7.2577;
-25.5000;0.2873;7.2483;
-25.2000;0.2873;7.2436;
-24.9000;0.2882;7.2483;
-24.6000;0.2865;7.2530;
-24.3000;0.2849;7.2248;
-24.0000;0.2865;7.2271;
-23.7000;0.2849;7.2271;
-23.4000;0.2849;7.2318;
-23.1000;0.2922;7.2436;
-22.8000;0.2857;7.2224;
-22.5000;0.2873;7.2248;
-22.2000;0.2849;7.2224;
-21.9000;0.2857;7.2318;
-21.6000;0.2857;7.2295;
-21.3000;0.2873;7.2342;
-21.0000;0.2865;7.2365;
-20.7000;0.2865;7.2412;
-20.4000;0.2865;7.2342;
-20.1000;0.2882;7.2412;
-19.8000;0.2873;7.2342;
-19.5000;0.2865;7.2295;
-19.2000;0.2849;7.2412;
-18.9000;0.2808;7.2365;
-18.6000;0.2865;7.2530;
-18.3000;0.2808;7.2365;
-18.0000;0.2882;7.2483;
-17.7000;0.2882;7.2459;
-17.4000;0.2882;7.2459;
-17.1000;0.2873;7.2459;
-16.8000;0.2890;7.2436;
-16.5000;0.2849;7.2436;
-16.2000;0.2841;7.2365;
-15.9000;0.2865;7.2365;
-15.6000;0.2857;7.2459;
-15.3000;0.2825;7.2389;
-15.0000;0.2865;7.2553;
-14.7000;0.2865;7.2506;
-14.4000;0.2873;7.2553;
-14.1000;0.2849;7.2459;
-13.8000;0.2865;7.2412;
-13.5000;0.2882;7.2483;
-13.2000;0.2930;7.2530;
-12.9000;0.2816;7.2224;
-12.6000;0.2857;7.2271;
-12.3000;0.2857;7.2342;
-12.0000;0.2792;7.2248;
-11.7000;0.2833;7.2365;
-11.4000;0.2857;7.2365;
-11.1000;0.2865;7.2436;
-10.8000;0.2930;7.2553;
-10.5000;0.2857;7.2318;
-10.2000;0.2865;7.2295;
-9.9000;0.2865;7.2224;
-9.6000;0.2857;7.2201;
-9.3000;0.2857;7.2295;
-9.0000;0.2857;7.2248;
-8.7000;0.2873;7.2248;
-8.4000;0.2873;7.2271;
-8.1000;0.2816;7.2107;
-7.8000;0.2849;7.2177;
-7.5000;0.2882;7.2271;
-7.2000;0.2873;7.2318;
-6.9000;0.2906;7.2365;
-6.6000;0.2865;7.2342;
-6.3000;0.2816;7.2389;
-6.0000;0.2865;7.2506;
-5.7000;0.2873;7.2506;
-5.4000;0.2873;7.2436;
-5.1000;0.2873;7.2459;
-4.8000;0.2849;7.2318;
-4.5000;0.2882;7.2365;
-4.2000;0.2865;7.2318;
-3.9000;0.2865;7.2248;
-3.6000;0.2890;7.2295;
-3.3000;0.2890;7.2248;
-3.0000;0.2873;7.2224;
-2.7000;0.2857;7.2130;
-2.4000;0.2873;7.2130;
-2.1000;0.2857;7.2130;
-1.8000;0.2890;7.2248;
-1.5000;0.2857;7.2177;
-1.2000;0.2825;7.2130;
-0.9000;0.2865;7.2224;
-0.6000;0.2857;7.2271;
-0.3000;0.2857;7.2318;
0.0000;0.2857;7.2318;
0.3000;0.2873;7.2059;
0.6000;0.2914;7.2318;
0.9000;0.2930;7.2389;
1.2000;0.2963;7.2624;
1.5000;0.3020;7.2930;
1.8000;0.3061;7.3188;
2.1000;0.2947;7.2953;
2.4000;0.2939;7.2977;
2.7000;0.3004;7.3165;
3.0000;0.3020;7.3165;
3.3000;0.3036;7.3212;
3.6000;0.3020;7.3235;
3.9000;0.3036;7.3329;
4.2000;0.3044;7.3447;
4.5000;0.2939;7.3165;
4.8000;0.3061;7.3565;
5.1000;0.3150;7.3917;
5.4000;0.3126;7.3847;
5.7000;0.3004;7.3565;
6.0000;0.3053;7.3776;
6.3000;0.3109;7.3800;
6.6000;0.3061;7.3659;
6.9000;0.3061;7.3612;
7.2000;0.3061;7.3612;
7.5000;0.3069;7.3612;
7.8000;0.3044;7.3541;
8.1000;0.3069;7.3682;
8.4000;0.3069;7.3682;
8.7000;0.3028;7.3612;
9.0000;0.3101;7.3800;
9.3000;0.3069;7.3753;
9.6000;0.3069;7.3729;
9.9000;0.3069;7.3659;
10.2000;0.3134;7.3776;
10.5000;0.3093;7.3659;
10.8000;0.3158;7.3682;
11.1000;0.3077;7.3424;
11.4000;0.3077;7.3494;
11.7000;0.3101;7.3541;
12.0000;0.3093;7.3588;
12.3000;0.3077;7.3541;
12.6000;0.3093;7.3659;
12.9000;0.3077;7.3729;
13.2000;0.3077;7.3823;
13.5000;0.3093;7.3870;
13.8000;0.3134;7.3941;
14.1000;0.3142;7.3917;
14.4000;0.3109;7.3964;
14.7000;0.3101;7.3870;
15.0000;0.3109;7.3753;
15.3000;0.3077;7.3753;
15.6000;0.3118;7.3941;
15.9000;0.3118;7.3917;
16.2000;0.3109;7.3917;
16.5000;0.3109;7.3941;
16.8000;0.3109;7.3917;
17.1000;0.3134;7.4011;
17.4000;0.3093;7.3988;
17.7000;0.3093;7.4035;
18.0000;0.3150;7.4106;
18.3000;0.3118;7.4011;
18.6000;0.3118;7.3964;
18.9000;0.3126;7.3870;
19.2000;0.3101;7.3753;
19.5000;0.3118;7.3682;
19.8000;0.3109;7.3565;
20.1000;0.3101;7.3565;
20.4000;0.3085;7.3565;
20.7000;0.3150;7.3682;
21.0000;0.3036;7.3471;
21.3000;0.3109;7.3588;
21.6000;0.3134;7.3541;
21.9000;0.3093;7.3518;
22.2000;0.3077;7.3471;
22.5000;0.3118;7.3494;
22.8000;0.3093;7.3494;
23.1000;0.3175;7.3659;
23.4000;0.3109;7.3635;
23.7000;0.3142;7.3729;
24.0000;0.3126;7.3659;
24.3000;0.3085;7.3588;
24.6000;0.3126;7.3659;
24.9000;0.3126;7.3729;
25.2000;0.3085;7.3635;
25.5000;0.3118;7.3823;
25.8000;0.3109;7.3776;
26.1000;0.3134;7.3823;
26.4000;0.3175;7.3941;
26.7000;0.3101;7.3823;
27.0000;0.3175;7.3917;
27.3000;0.3150;7.3894;
27.6000;0.3150;7.3988;
27.9000;0.3142;7.3964;
28.2000;0.3109;7.3894;
28.5000;0.3126;7.3894;
28.8000;0.3126;7.3870;
29.1000;0.3126;7.3776;
29.4000;0.3142;7.3823;
29.7000;0.3134;7.3823;
30.0000;0.3150;7.3823;
30.3000;0.3183;7.3941;
30.6000;0.3134;7.3800;
30.9000;0.3175;7.3800;
31.2000;0.3166;7.3823;
31.5000;0.3150;7.3847;
31.8000;0.3093;7.3682;
32.1000;0.3158;7.3776;
32.4000;0.3134;7.3612;
32.7000;0.3175;7.3706;
33.0000;0.3126;7.3588;
33.3000;0.3158;7.3471;
33.6000;0.3142;7.3518;
33.9000;0.3150;7.3588;
34.2000;0.3142;7.3447;
34.5000;0.3158;7.3518;
34.8000;0.3183;7.3635;
35.1000;0.3166;7.3682;
35.4000;0.3158;7.3682;
35.7000;0.3183;7.3682;
36.0000;0.3166;7.3588;
36.3000;0.3142;7.3565;
36.6000;0.3166;7.3565;
36.9000;0.3166;7.3588;
37.2000;0.3166;7.3518;
37.5000;0.3158;7.3424;
37.8000;0.3150;7.3541;
38.1000;0.3166;7.3612;
38.4000;0.3142;7.3659;
38.7000;0.3183;7.3706;
39.0000;0.3191;7.3706;
39.3000;0.3183;7.3659;
39.6000;0.3175;7.3659;
39.9000;0.3150;7.3612;
40.2000;0.3183;7.3753;
40.5000;0.3183;7.3800;
40.8000;0.3199;7.3776;
41.1000;0.3175;7.3753;
41.4000;0.3199;7.3870;
41.7000;0.3166;7.3823;
42.0000;0.3134;7.3706;
42.3000;0.3183;7.3917;
42.6000;0.3223;7.3988;
42.9000;0.3183;7.3870;
43.2000;0.3232;7.4153;
43.5000;0.3223;7.4129;
43.8000;0.3158;7.3941;
44.1000;0.3166;7.3917;
44.4000;0.3166;7.3847;
44.7000;0.3183;7.3847;
45.0000;0.3166;7.3800;
45.3000;0.3175;7.3729;
45.6000;0.3158;7.3729;
45.9000;0.3183;7.3753;
46.2000;0.3240;7.3870;
46.5000;0.3166;7.3800;
46.8000;0.3175;7.3800;
47.1000;0.3175;7.3800;
47.4000;0.3166;7.3800;
47.7000;0.3215;7.3776;
48.0000;0.3150;7.3729;
48.3000;0.3118;7.3565;
48.6000;0.3183;7.3729;
48.9000;0.3183;7.3753;
49.2000;0.3166;7.3682;
49.5000;0.3166;7.3659;
49.8000;0.3166;7.3659;
50.1000;0.3183;7.3682;
50.4000;0.3191;7.3682;
50.7000;0.3175;7.3635;
51.0000;0.3191;7.3659;
51.3000;0.3158;7.3659;
51.6000;0.3191;7.3800;
51.9000;0.3158;7.3847;
52.2000;0.3183;7.3964;
52.5000;0.3183;7.3988;
52.8000;0.3199;7.3964;
53.1000;0.3191;7.3917;
53.4000;0.3158;7.3941;
53.7000;0.3166;7.3964;
54.0000;0.3158;7.3870;
54.3000;0.3158;7.3823;
54.6000;0.3150;7.3823;
54.9000;0.3207;7.3964;
55.2000;0.3199;7.4011;
55.5000;0.3175;7.3964;
55.8000;0.3158;7.3917;
56.1000;0.3166;7.3988;
56.4000;0.3183;7.3964;
56.7000;0.3199;7.4035;
57.0000;0.3175;7.4035;
57.3000;0.3191;7.4082;
57.6000;0.3183;7.4106;
57.9000;0.3191;7.4059;
58.2000;0.3183;7.4059;
58.5000;0.3183;7.4059;
58.8000;0.3199;7.4011;
59.1000;0.3175;7.3894;
59.4000;0.3166;7.3964;
59.7000;0.3158;7.3941;
60.0000;0.3191;7.3964;
60.3000;0.3166;7.3800;
60.6000;0.3183;7.3776;
60.9000;0.3207;7.3847;
61.2000;0.3199;7.3706;
61.5000;0.3183;7.3682;
61.8000;0.3256;7.3823;
62.1000;0.3166;7.3518;
62.4000;0.3183;7.3541;
62.7000;0.3199;7.3612;
63.0000;0.3175;7.3612;
63.3000;0.3175;7.3659;
63.6000;0.3191;7.3729;
63.9000;0.3199;7.3776;
64.2000;0.3166;7.3776;
64.5000;0.3191;7.3870;
64.8000;0.3183;7.3870;
65.1000;0.3215;7.3894;
65.4000;0.3175;7.3659;
65.7000;0.3126;7.3565;
66.0000;0.3207;7.3682;
66.3000;0.3207;7.3659;
66.6000;0.3223;7.3753;
66.9000;0.3199;7.3682;
67.2000;0.3158;7.3541;
67.5000;0.3199;7.3635;
67.8000;0.3191;7.3541;
68.1000;0.3183;7.3565;
68.4000;0.3158;7.3541;
68.7000;0.3166;7.3659;
69.0000;0.3175;7.3565;
69.3000;0.3199;7.3682;
69.6000;0.3191;7.3706;
69.9000;0.3150;7.3753;
70.2000;0.3191;7.3894;
70.5000;0.3183;7.3870;
70.8000;0.3199;7.3917;
71.1000;0.3183;7.3964;
71.4000;0.3199;7.3964;
71.7000;0.3207;7.3894;
72.0000;0.3199;7.3800;
72.3000;0.3183;7.3776;
72.6000;0.3175;7.3800;
72.9000;0.3191;7.3706;
73.2000;0.3183;7.3612;
73.5000;0.3134;7.3518;
73.8000;0.3183;7.3776;
74.1000;0.3207;7.3776;
74.4000;0.3207;7.3706;
74.7000;0.3199;7.3706;
75.0000;0.3199;7.3565;
75.3000;0.3207;7.3494;
75.6000;0.3183;7.3447;
75.9000;0.3248;7.3682;
76.2000;0.3207;7.3635;
76.5000;0.3199;7.3612;
76.8000;0.3199;7.3635;
77.1000;0.3191;7.3588;
77.4000;0.3166;7.3588;
77.7000;0.3150;7.3541;
78.0000;0.3199;7.3659;
78.3000;0.3150;7.3635;
78.6000;0.3183;7.3776;
78.9000;0.3175;7.3706;
79.2000;0.3175;7.3776;
79.5000;0.3183;7.3823;
79.8000;0.3191;7.3941;
80.1000;0.3142;7.3917;
80.4000;0.3183;7.3988;
80.7000;0.3191;7.3917;
81.0000;0.3240;7.3941;
81.3000;0.3215;7.3823;
81.6000;0.3191;7.3753;
81.9000;0.3175;7.3823;
82.2000;0.3158;7.3847;
82.5000;0.3183;7.3823;
82.8000;0.3207;7.3894;
83.1000;0.3183;7.3870;
83.4000;0.3175;7.3776;
83.7000;0.3175;7.3823;
84.0000;0.3199;7.3800;
84.3000;0.3183;7.3729;
84.6000;0.3183;7.3706;
84.9000;0.3118;7.3612;
85.2000;0.3175;7.3800;
85.5000;0.3183;7.3753;
85.8000;0.3191;7.3753;
86.1000;0.3166;7.3729;
86.4000;0.3175;7.3706;
86.7000;0.3199;7.3800;
87.0000;0.3199;7.3823;
87.3000;0.3150;7.3682;
87.6000;0.3191;7.3753;
87.9000;0.3191;7.3800;
88.2000;0.3175;7.3894;
88.5000;0.3166;7.3917;
88.8000;0.3166;7.3917;
89.1000;0.3183;7.3941;
89.4000;0.3183;7.3988;
89.7000;0.3175;7.3988;
90.0000;0.3223;7.4129;
90.3000;0.3191;7.4129;
90.6000;0.3207;7.4106;
90.9000;0.3199;7.4059;
91.2000;0.3256;7.4129;
91.5000;0.3191;7.3964;
91.8000;0.3183;7.3941;
92.1000;0.3101;7.3753;
92.4000;0.3183;7.3917;
92.7000;0.3183;7.3894;
93.0000;0.3175;7.3847;
93.3000;0.3199;7.3823;
93.6000;0.3191;7.3729;
93.9000;0.3215;7.3753;
94.2000;0.3191;7.3659;
94.5000;0.3191;7.3635;
94.8000;0.3215;7.3753;
95.1000;0.3191;7.3659;
95.4000;0.3248;7.3776;
95.7000;0.3158;7.3565;
96.0000;0.3142;7.3565;
96.3000;0.3256;7.3894;
96.6000;0.3215;7.3682;
96.9000;0.3150;7.3541;
97.2000;0.3199;7.3635;
97.5000;0.3199;7.3588;
97.8000;0.3158;7.3471;
98.1000;0.3191;7.3471;
98.4000;0.3199;7.3612;
98.7000;0.3183;7.3518;
99.0000;0.3191;7.3494;
99.3000;0.3256;7.3565;
99.6000;0.3175;7.3400;
99.9000;0.3215;7.3424;
100.2000;0.3207;7.3376;
100.5000;0.3199;7.3447;
100.8000;0.3313;7.3635;
101.1000;0.3183;7.3329;
101.4000;0.3191;7.3447;
101.7000;0.3199;7.3447;
102.0000;0.3207;7.3494;
102.3000;0.3191;7.3494;
102.6000;0.3134;7.3329;
102.9000;0.3199;7.3471;
103.2000;0.3215;7.3612;
103.5000;0.3199;7.3612;
103.8000;0.3264;7.3706;
104.1000;0.3175;7.3424;
104.4000;0.3199;7.3424;
104.7000;0.3207;7.3471;
105.0000;0.3207;7.3494;
105.3000;0.3191;7.3471;
105.6000;0.3191;7.3541;
105.9000;0.3175;7.3447;
106.2000;0.3207;7.3565;
106.5000;0.3191;7.3588;
106.8000;0.3215;7.3635;
107.1000;0.3215;7.3682;
107.4000;0.3191;7.3635;
107.7000;0.3183;7.3659;
108.0000;0.3215;7.3706;
108.3000;0.3175;7.3612;
108.6000;0.3199;7.3729;
108.9000;0.3166;7.3753;
109.2000;0.3207;7.3823;
109.5000;0.3191;7.3823;
109.8000;0.3166;7.3917;
110.1000;0.3207;7.3870;
110.4000;0.3199;7.3823;
110.7000;0.3175;7.3706;
111.0000;0.3191;7.3729;
111.3000;0.3142;7.3659;
111.6000;0.3199;7.3800;
111.9000;0.3191;7.3729;
112.2000;0.3191;7.3659;
112.5000;0.3223;7.3729;
112.8000;0.3158;7.3588;
113.1000;0.3256;7.3800;
113.4000;0.3191;7.3753;
113.7000;0.3215;7.3800;
114.0000;0.3199;7.3729;
114.3000;0.3150;7.3635;
114.6000;0.3248;7.3964;
114.9000;0.3199;7.3800;
115.2000;0.3183;7.3823;
115.5000;0.3191;7.3753;
115.8000;0.3183;7.3659;
116.1000;0.3199;7.3659;
116.4000;0.3199;7.3729;
116.7000;0.3199;7.3706;
117.0000;0.3223;7.3776;
117.3000;0.3183;7.3682;
117.6000;0.3199;7.3729;
117.9000;0.3183;7.3706;
118.2000;0.3126;7.3541;
118.5000;0.3158;7.3729;
118.8000;0.3207;7.3847;
119.1000;0.3183;7.3870;
119.4000;0.3207;7.3800;
119.7000;0.3207;7.3706;
120.0000;0.3207;7.3659;
120.3000;0.3223;7.3753;
120.6000;0.3191;7.3753;
120.9000;0.3207;7.3847;
121.2000;0.3126;7.3706;
121.5000;0.3207;7.3964;
121.8000;0.3199;7.3917;
122.1000;0.3215;7.3964;
122.4000;0.3142;7.3753;
122.7000;0.3166;7.3823;
123.0000;0.3175;7.3847;
123.3000;0.3191;7.3917;
123.6000;0.3183;7.3847;
123.9000;0.3175;7.3706;
124.2000;0.3183;7.3706;
124.5000;0.3183;7.3729;
124.8000;0.3183;7.3659;
125.1000;0.3199;7.3659;
125.4000;0.3199;7.3659;
125.7000;0.3207;7.3635;
126.0000;0.3134;7.3565;
126.3000;0.3199;7.3729;
126.6000;0.3158;7.3659;
126.9000;0.3215;7.3847;
127.2000;0.3191;7.3800;
127.5000;0.3207;7.3729;
127.8000;0.3199;7.3682;
128.1000;0.3215;7.3776;
128.4000;0.3191;7.3823;
128.7000;0.3191;7.3917;
129.0000;0.3199;7.3823;
129.3000;0.3207;7.3823;
129.6000;0.3175;7.3823;
129.9000;0.3223;7.3941;
130.2000;0.3158;7.3823;
130.5000;0.3183;7.3753;
130.8000;0.3183;7.3800;
131.1000;0.3215;7.3800;
131.4000;0.3207;7.3800;
131.7000;0.3175;7.3776;
132.0000;0.3191;7.3753;
132.3000;0.3183;7.3706;
132.6000;0.3207;7.3823;
132.9000;0.3191;7.3800;
133.2000;0.3199;7.3753;
133.5000;0.3175;7.3729;
133.8000;0.3158;7.3659;
134.1000;0.3150;7.3565;
134.4000;0.3158;7.3565;
134.7000;0.3158;7.3518;
135.0000;0.3158;7.3565;
135.3000;0.3166;7.3659;
135.6000;0.3175;7.3635;
135.9000;0.3166;7.3588;
136.2000;0.3142;7.3541;
136.5000;0.3183;7.3682;
136.8000;0.3183;7.3659;
137.1000;0.3150;7.3541;
137.4000;0.3175;7.3588;
137.7000;0.3191;7.3635;
138.0000;0.3199;7.3682;
138.3000;0.3215;7.3729;
138.6000;0.3183;7.3659;
138.9000;0.3191;7.3729;
139.2000;0.3158;7.3753;
139.5000;0.3166;7.3776;
139.8000;0.3199;7.3870;
140.1000;0.3207;7.3776;
140.4000;0.3207;7.3729;
140.7000;0.3199;7.3706;
141.0000;0.3183;7.3659;
141.3000;0.3199;7.3706;
141.6000;0.3183;7.3682;
141.9000;0.3191;7.3706;
142.2000;0.3199;7.3729;
142.5000;0.3175;7.3753;
142.8000;0.3199;7.3753;
143.1000;0.3199;7.3729;
143.4000;0.3158;7.3588;
143.7000;0.3191;7.3682;
144.0000;0.3215;7.3706;
144.3000;0.3215;7.3729;
144.6000;0.3183;7.3565;
144.9000;0.3199;7.3635;
145.2000;0.3191;7.3682;
145.5000;0.3272;7.3847;
145.8000;0.3199;7.3706;
146.1000;0.3166;7.3588;
146.4000;0.3199;7.3588;
146.7000;0.3199;7.3729;
147.0000;0.3183;7.3823;
147.3000;0.3199;7.3988;
147.6000;0.3199;7.3941;
147.9000;0.3289;7.4247;
148.2000;0.3183;7.3870;
148.5000;0.3191;7.3917;
148.8000;0.3191;7.3823;
149.1000;0.3207;7.3964;
149.4000;0.3207;7.3894;
149.7000;0.3191;7.3706;
150.0000;0.3191;7.3729;
150.3000;0.3199;7.3706;
150.6000;0.3199;7.3659;
150.9000;0.3175;7.3588;
151.2000;0.3158;7.3659;
151.5000;0.3191;7.3776;
151.8000;0.3207;7.3800;
152.1000;0.3183;7.3729;
152.4000;0.3215;7.3776;
152.7000;0.3191;7.3706;
153.0000;0.3191;7.3635;
153.3000;0.3207;7.3682;
153.6000;0.3191;7.3800;
153.9000;0.3199;7.3894;
154.2000;0.3207;7.3941;
154.5000;0.3191;7.3941;
154.8000;0.3191;7.3847;
155.1000;0.3199;7.3800;
155.4000;0.3215;7.3870;
155.7000;0.3191;7.3823;
156.0000;0.3142;7.3706;
156.3000;0.3150;7.3823;
156.6000;0.3191;7.3847;
156.9000;0.3183;7.3823;
157.2000;0.3199;7.3847;
157.5000;0.3183;7.3800;
157.8000;0.3183;7.3823;
158.1000;0.3199;7.3894;
158.4000;0.3199;7.3847;
158.7000;0.3134;7.3612;
159.0000;0.3118;7.3494;
159.3000;0.3199;7.3659;
159.6000;0.3158;7.3471;
159.9000;0.3175;7.3518;
160.2000;0.3199;7.3612;
160.5000;0.3207;7.3682;
160.8000;0.3272;7.3870;
161.1000;0.3175;7.3729;
161.4000;0.3191;7.3706;
161.7000;0.3256;7.3800;
162.0000;0.3207;7.3706;
162.3000;0.3199;7.3776;
162.6000;0.3191;7.3823;
162.9000;0.3191;7.3894;
163.2000;0.3183;7.3941;
163.5000;0.3183;7.3800;
163.8000;0.3183;7.3682;
164.1000;0.3183;7.3706;
164.4000;0.3199;7.3753;
164.7000;0.3215;7.3729;
165.0000;0.3199;7.3659;
165.3000;0.3199;7.3776;
165.6000;0.3199;7.3870;
165.9000;0.3207;7.3870;
166.2000;0.3207;7.3823;
166.5000;0.3199;7.3870;
166.8000;0.3134;7.3823;
167.1000;0.3207;7.3917;
167.4000;0.3199;7.3988;
167.7000;0.3191;7.3964;
168.0000;0.3183;7.3917;
168.3000;0.3199;7.3917;
168.6000;0.3175;7.3823;
168.9000;0.3175;7.3800;
169.2000;0.3199;7.3823;
169.5000;0.3183;7.3776;
169.8000;0.3134;7.3659;
170.1000;0.3191;7.3823;
170.4000;0.3183;7.3847;
170.7000;0.3175;7.3823;
171.0000;0.3175;7.3847;
171.3000;0.3166;7.3847;
171.6000;0.3175;7.4035;
171.9000;0.3183;7.4035;
172.2000;0.3183;7.4035;
172.5000;0.3199;7.3988;
172.8000;0.3199;7.4059;
173.1000;0.3215;7.4082;
173.4000;0.3175;7.4035;
173.7000;0.3183;7.3988;
174.0000;0.3191;7.3964;
174.3000;0.3183;7.3988;
174.6000;0.3207;7.3941;
174.9000;0.3183;7.3847;
175.2000;0.3166;7.3776;
175.5000;0.3191;7.3917;
175.8000;0.3199;7.3870;
176.1000;0.3191;7.3847;
176.4000;0.3199;7.3706;
176.7000;0.3199;7.3612;
177.0000;0.3199;7.3565;
177.3000;0.3199;7.3541;
177.6000;0.3199;7.3565;
177.9000;0.3191;7.3612;
178.2000;0.3199;7.3682;
178.5000;0.3191;7.3659;
178.8000;0.3183;7.3706;
179.1000;0.3166;7.3706;
179.4000;0.3175;7.3729;
179.7000;0.3223;7.3800;
180.0000;0.3199;7.3800;
180.3000;0.3166;7.3682;
180.6000;0.3183;7.3706;
180.9000;0.3191;7.3706;
181.2000;0.3183;7.3659;
181.5000;0.3166;7.3565;
181.8000;0.3175;7.3612;
182.1000;0.3191;7.3565;
182.4000;0.3183;7.3494;
182.7000;0.3223;7.3635;
183.0000;0.3191;7.3659;
183.3000;0.3199;7.3753;
183.6000;0.3207;7.3729;
183.9000;0.3183;7.3706;
184.2000;0.3183;7.3753;
184.5000;0.3272;7.4035;
184.8000;0.3199;7.3870;
185.1000;0.3175;7.3870;
185.4000;0.3223;7.3917;
185.7000;0.3207;7.3847;
186.0000;0.3183;7.3823;
186.3000;0.3199;7.3847;
186.6000;0.3183;7.3917;
186.9000;0.3207;7.3917;
187.2000;0.3207;7.3823;
187.5000;0.3199;7.3776;
187.8000;0.3175;7.3776;
188.1000;0.3199;7.3894;
188.4000;0.3166;7.3823;
188.7000;0.3215;7.3847;
189.0000;0.3183;7.3870;
189.3000;0.3199;7.3964;
189.6000;0.3215;7.3941;
189.9000;0.3215;7.4011;
190.2000;0.3199;7.3870;
190.5000;0.3240;7.4059;
190.8000;0.3191;7.3988;
191.1000;0.3207;7.4059;
191.4000;0.3175;7.4011;
191.7000;0.3191;7.3964;
192.0000;0.3175;7.3917;
192.3000;0.3280;7.4153;
192.6000;0.3191;7.3823;
192.9000;0.3142;7.3706;
193.2000;0.3166;7.3800;
193.5000;0.3199;7.3800;
193.8000;0.3150;7.3659;
194.1000;0.3118;7.3659;
194.4000;0.3166;7.3800;
194.7000;0.3142;7.3659;
195.0000;0.3199;7.3800;
195.3000;0.3175;7.3776;
195.6000;0.3175;7.3706;
195.9000;0.3191;7.3800;
196.2000;0.3199;7.3894;
196.5000;0.3199;7.4035;
196.8000;0.3093;7.3776;
197.1000;0.3191;7.4011;
197.4000;0.3215;7.3964;
197.7000;0.3223;7.3870;
198.0000;0.3166;7.3776;
198.3000;0.3191;7.3847;
198.6000;0.3199;7.3941;
198.9000;0.3183;7.3988;
199.2000;0.3191;7.3917;
199.5000;0.3175;7.3894;
199.8000;0.3191;7.3964;
200.1000;0.3256;7.4129;
200.4000;0.3191;7.3988;
200.7000;0.3183;7.3870;
201.0000;0.3150;7.3682;
201.3000;0.3183;7.3729;
201.6000;0.3142;7.3635;
201.9000;0.3232;7.3706;
202.2000;0.3207;7.3635;
202.5000;0.3199;7.3682;
202.8000;0.3223;7.3682;
203.1000;0.3183;7.3706;
203.4000;0.3191;7.3753;
203.7000;0.3207;7.3776;
204.0000;0.3191;7.3729;
204.3000;0.3183;7.3776;
204.6000;0.3183;7.3823;
204.9000;0.3175;7.3753;
205.2000;0.3199;7.3847;
205.5000;0.3199;7.3753;
205.8000;0.3183;7.3682;
206.1000;0.3240;7.3917;
206.4000;0.3191;7.3847;
206.7000;0.3183;7.3870;
207.0000;0.3199;7.3917;
207.3000;0.3248;7.3988;
207.6000;0.3215;7.3823;
207.9000;0.3134;7.3541;
208.2000;0.3191;7.3729;
208.5000;0.3175;7.3659;
208.8000;0.3183;7.3682;
209.1000;0.3223;7.3729;
209.4000;0.3183;7.3612;
209.7000;0.3166;7.3659;
210.0000;0.3085;7.3565;
210.3000;0.3150;7.3635;
210.6000;0.3175;7.3541;
210.9000;0.3199;7.3612;
211.2000;0.3183;7.3565;
211.5000;0.3199;7.3588;
211.8000;0.3175;7.3541;
212.1000;0.3215;7.3706;
212.4000;0.3207;7.3659;
212.7000;0.3223;7.3659;
213.0000;0.3248;7.3659;
213.3000;0.3126;7.3400;
213.6000;0.3199;7.3635;
213.9000;0.3191;7.3706;
214.2000;0.3232;7.3753;
214.5000;0.3191;7.3541;
214.8000;0.3207;7.3612;
215.1000;0.3077;7.3353;
215.4000;0.3191;7.3729;
215.7000;0.3183;7.3729;
216.0000;0.3199;7.3800;
216.3000;0.3207;7.3894;
216.6000;0.3191;7.3941;
216.9000;0.3175;7.3823;
217.2000;0.3175;7.3823;
217.5000;0.3199;7.3870;
217.8000;0.3199;7.3776;
218.1000;0.3175;7.3753;
218.4000;0.3199;7.3894;
218.7000;0.3183;7.3800;
219.0000;0.3199;7.3800;
219.3000;0.3199;7.3823;
219.6000;0.3175;7.3847;
219.9000;0.3199;7.3823;
220.2000;0.3207;7.3729;
220.5000;0.3215;7.3635;
220.8000;0.3183;7.3541;
221.1000;0.3191;7.3588;
221.4000;0.3215;7.3612;
221.7000;0.3183;7.3518;
222.0000;0.3199;7.3588;
222.3000;0.3207;7.3706;
222.6000;0.3207;7.3753;
222.9000;0.3199;7.3800;
223.2000;0.3215;7.3776;
223.5000;0.3191;7.3682;
223.8000;0.3175;7.3659;
224.1000;0.3183;7.3588;
224.4000;0.3215;7.3729;
224.7000;0.3191;7.3682;
225.0000;0.3166;7.3588;
225.3000;0.3191;7.3565;
225.6000;0.3215;7.3588;
225.9000;0.3215;7.3659;
226.2000;0.3191;7.3659;
226.5000;0.3223;7.3800;
226.8000;0.3191;7.3706;
227.1000;0.3158;7.3659;
227.4000;0.3166;7.3729;
227.7000;0.3207;7.3753;
228.0000;0.3183;7.3706;
228.3000;0.3183;7.3659;
228.6000;0.3191;7.3659;
228.9000;0.3215;7.3729;
229.2000;0.3118;7.3541;
229.5000;0.3183;7.3753;
229.8000;0.3175;7.3706;
230.1000;0.3150;7.3635;
230.4000;0.3183;7.3659;
230.7000;0.3126;7.3447;
231.0000;0.3183;7.3612;
231.3000;0.3191;7.3706;
231.6000;0.3232;7.3847;
231.9000;0.3183;7.3659;
232.2000;0.3166;7.3612;
232.5000;0.3191;7.3635;
232.8000;0.3191;7.3776;
233.1000;0.3207;7.3870;
233.4000;0.3191;7.3894;
233.7000;0.3199;7.3917;
234.0000;0.3248;7.4106;
234.3000;0.3175;7.3964;
234.6000;0.3199;7.3870;
234.9000;0.3191;7.3823;
235.2000;0.3158;7.3753;
235.5000;0.3215;7.3964;
235.8000;0.3183;7.3823;
236.1000;0.3183;7.3847;
236.4000;0.3207;7.3917;
236.7000;0.3215;7.3823;
237.0000;0.3207;7.3800;
237.3000;0.3240;7.3917;
237.6000;0.3199;7.3753;
237.9000;0.3199;7.3776;
238.2000;0.3207;7.3800;
238.5000;0.3191;7.3753;
238.8000;0.3191;7.3776;
239.1000;0.3207;7.3753;
239.4000;0.3175;7.3682;
239.7000;0.3183;7.3776;
240.0000;0.3191;7.3870;
240.3000;0.3183;7.3917;
240.6000;0.3183;7.3941;
240.9000;0.3191;7.4011;
241.2000;0.3199;7.3988;
241.5000;0.3183;7.3870;
241.8000;0.3183;7.3753;
242.1000;0.3199;7.3776;
242.4000;0.3191;7.3941;
242.7000;0.3166;7.3870;
243.0000;0.3191;7.3847;
243.3000;0.3199;7.3823;
243.6000;0.3183;7.3729;
243.9000;0.3199;7.3659;
244.2000;0.3199;7.3659;
244.5000;0.3183;7.3682;
244.8000;0.3183;7.3729;
245.1000;0.3175;7.3753;
245.4000;0.3175;7.3823;
245.7000;0.3191;7.3823;
246.0000;0.3199;7.3847;
246.3000;0.3166;7.3753;
246.6000;0.3183;7.3823;
246.9000;0.3207;7.3823;
247.2000;0.3223;7.3941;
247.5000;0.3215;7.3894;
247.8000;0.3191;7.3682;
248.1000;0.3191;7.3706;
248.4000;0.3166;7.3682;
248.7000;0.3142;7.3565;
249.0000;0.3183;7.3588;
249.3000;0.3175;7.3612;
249.6000;0.3191;7.3612;
249.9000;0.3191;7.3541;
250.2000;0.3183;7.3494;
250.5000;0.3150;7.3400;
250.8000;0.3191;7.3447;
251.1000;0.3248;7.3565;
251.4000;0.3207;7.3565;
251.7000;0.3166;7.3541;
252.0000;0.3158;7.3447;
252.3000;0.3199;7.3565;
252.6000;0.3158;7.3424;
252.9000;0.3183;7.3541;
253.2000;0.3166;7.3588;
253.5000;0.3166;7.3682;
253.8000;0.3207;7.3823;
254.1000;0.3175;7.3800;
254.4000;0.3158;7.3753;
254.7000;0.3126;7.3776;
255.0000;0.3191;7.3941;
255.3000;0.3191;7.3870;
255.6000;0.3256;7.4082;
255.9000;0.3215;7.3964;
256.2000;0.3207;7.3964;
256.5000;0.3191;7.3917;
256.8000;0.3215;7.3964;
257.1000;0.3207;7.3941;
257.4000;0.3199;7.3870;
257.7000;0.3207;7.3847;
258.0000;0.3232;7.3847;
258.3000;0.3215;7.3776;
258.6000;0.3215;7.3776;
258.9000;0.3191;7.3776;
259.2000;0.3199;7.3800;
259.5000;0.3158;7.3682;
259.8000;0.3199;7.3729;
260.1000;0.3183;7.3612;
260.4000;0.3183;7.3612;
260.7000;0.3199;7.3729;
261.0000;0.3223;7.3847;
261.3000;0.3199;7.3776;
261.6000;0.3191;7.3776;
261.9000;0.3215;7.3776;
262.2000;0.3199;7.3823;
262.5000;0.3166;7.3800;
262.8000;0.3199;7.3894;
263.1000;0.3183;7.3753;
263.4000;0.3191;7.3800;
263.7000;0.3199;7.3823;
264.0000;0.3175;7.3729;
264.3000;0.3166;7.3588;
264.6000;0.3191;7.3565;
264.9000;0.3199;7.3682;
265.2000;0.3199;7.3682;
265.5000;0.3215;7.3635;
265.8000;0.3207;7.3659;
266.1000;0.3215;7.3682;
266.4000;0.3175;7.3635;
266.7000;0.3183;7.3706;
267.0000;0.3207;7.3776;
267.3000;0.3199;7.3776;
267.6000;0.3207;7.3753;
267.9000;0.3191;7.3776;
268.2000;0.3175;7.3729;
268.5000;0.3191;7.3706;
268.8000;0.3183;7.3729;
269.1000;0.3175;7.3659;
269.4000;0.3199;7.3776;
269.7000;0.3191;7.3800;
270.0000;0.3199;7.3823;
270.3000;0.3183;7.3800;
270.6000;0.3191;7.3753;
270.9000;0.3158;7.3682;
271.2000;0.3158;7.3635;
271.5000;0.3183;7.3753;
271.8000;0.3199;7.3729;
272.1000;0.3207;7.3753;
272.4000;0.3215;7.3729;
272.7000;0.3199;7.3729;
273.0000;0.3183;7.3706;
273.3000;0.3183;7.3659;
273.6000;0.3191;7.3706;
273.9000;0.3191;7.3729;
274.2000;0.3199;7.3706;
274.5000;0.3150;7.3706;
274.8000;0.3183;7.3706;
275.1000;0.3232;7.3870;
275.4000;0.3183;7.3823;
275.7000;0.3215;7.3870;
276.0000;0.3166;7.3776;
276.3000;0.3248;7.3941;
276.6000;0.3215;7.3847;
276.9000;0.3158;7.3659;
277.2000;0.3191;7.3729;
277.5000;0.3183;7.3635;
277.8000;0.3191;7.3706;
278.1000;0.3199;7.3682;
278.4000;0.3118;7.3471;
278.7000;0.3166;7.3635;
279.0000;0.3297;7.4011;
279.3000;0.3183;7.3776;
279.6000;0.3207;7.3917;
279.9000;0.3175;7.3729;
280.2000;0.3183;7.3800;
280.5000;0.3183;7.3823;
280.8000;0.3191;7.3870;
281.1000;0.3077;7.3541;
281.4000;0.3264;7.4106;
281.7000;0.3191;7.3847;
282.0000;0.3183;7.3800;
282.3000;0.3207;7.3776;
282.6000;0.3191;7.3800;
282.9000;0.3158;7.3753;
283.2000;0.3175;7.3776;
283.5000;0.3199;7.3823;
283.8000;0.3142;7.3729;
284.1000;0.3191;7.3847;
284.4000;0.3166;7.3706;
284.7000;0.3166;7.3635;
285.0000;0.3199;7.3659;
285.3000;0.3272;7.3870;
285.6000;0.3166;7.3659;
285.9000;0.3191;7.3706;
286.2000;0.3175;7.3729;
286.5000;0.3175;7.3776;
286.8000;0.3183;7.3847;
287.1000;0.3175;7.3917;
287.4000;0.3183;7.3870;
287.7000;0.3215;7.3917;
288.0000;0.3183;7.3917;
288.3000;0.3175;7.3894;
288.6000;0.3183;7.4035;
288.9000;0.3183;7.4059;
289.2000;0.3175;7.4011;
289.5000;0.3175;7.3964;
289.8000;0.3191;7.3988;
290.1000;0.3191;7.3941;
290.4000;0.3199;7.3917;
290.7000;0.3215;7.3988;
291.0000;0.3191;7.3870;
291.3000;0.3215;7.3964;
291.6000;0.3191;7.3964;
291.9000;0.3183;7.4011;
292.2000;0.3183;7.4011;
292.5000;0.3199;7.4059;
292.8000;0.3215;7.4106;
293.1000;0.3215;7.4153;
293.4000;0.3191;7.4082;
293.7000;0.3199;7.4059;
294.0000;0.3199;7.4035;
294.3000;0.3199;7.3894;
294.6000;0.3199;7.3847;
294.9000;0.3183;7.3847;
295.2000;0.3166;7.3800;
295.5000;0.3183;7.3823;
295.8000;0.3101;7.3588;
296.1000;0.3191;7.3800;
296.4000;0.3158;7.3706;
296.7000;0.3199;7.3894;
297.0000;0.3199;7.3823;
297.3000;0.3175;7.3753;
297.6000;0.3166;7.3706;
297.9000;0.3191;7.3800;
298.2000;0.3183;7.3776;
298.5000;0.3199;7.3894;
298.8000;0.3166;7.3776;
299.1000;0.3166;7.3776;
299.4000;0.3199;7.3753;
299.7000;0.3166;7.3729;
300.0000;0.3191;7.3753;
300.3000;0.3191;7.3729;
300.6000;0.3191;7.3682;
300.9000;0.3248;7.3729;
301.2000;0.3183;7.3588;
301.5000;0.3215;7.3729;
301.8000;0.3199;7.3612;
302.1000;0.3191;7.3659;
302.4000;0.3126;7.3635;
302.7000;0.3191;7.3870;
303.0000;0.3215;7.3941;
303.3000;0.3175;7.3847;
303.6000;0.3191;7.3800;
303.9000;0.3183;7.3800;
304.2000;0.3199;7.3847;
304.5000;0.3199;7.3776;
304.8000;0.3183;7.3753;
305.1000;0.3183;7.3706;
305.4000;0.3223;7.3847;
305.7000;0.3183;7.3612;
306.0000;0.3191;7.3753;
306.3000;0.3166;7.3729;
306.6000;0.3199;7.3800;
306.9000;0.3272;7.3988;
307.2000;0.3175;7.3706;
307.5000;0.3101;7.3565;
307.8000;0.3175;7.3706;
308.1000;0.3175;7.3682;
308.4000;0.3175;7.3706;
308.7000;0.3183;7.3659;
309.0000;0.3191;7.3682;
309.3000;0.3191;7.3612;
309.6000;0.3191;7.3612;
309.9000;0.3166;7.3612;
310.2000;0.3175;7.3565;
310.5000;0.3158;7.3541;
310.8000;0.3166;7.3565;
311.1000;0.3175;7.3635;
311.4000;0.3199;7.3659;
311.7000;0.3191;7.3776;
312.0000;0.3207;7.3776;
312.3000;0.3207;7.3729;
312.6000;0.3191;7.3776;
312.9000;0.3191;7.3800;
313.2000;0.3191;7.3800;
313.5000;0.3199;7.3823;
313.8000;0.3166;7.3729;
314.1000;0.3175;7.3729;
314.4000;0.3175;7.3659;
314.7000;0.3142;7.3541;
315.0000;0.3191;7.3659;
315.3000;0.3191;7.3612;
315.6000;0.3223;7.3729;
315.9000;0.3199;7.3729;
316.2000;0.3199;7.3706;
316.5000;0.3175;7.3682;
316.8000;0.3183;7.3729;
317.1000;0.3191;7.3753;
317.4000;0.3191;7.3729;
317.7000;0.3191;7.3800;
318.0000;0.3158;7.3753;
318.3000;0.3077;7.3494;
318.6000;0.3166;7.3635;
318.9000;0.3134;7.3541;
319.2000;0.3175;7.3635;
319.5000;0.3158;7.3565;
319.8000;0.3183;7.3659;
320.1000;0.3183;7.3706;
320.4000;0.3191;7.3706;
320.7000;0.3191;7.3682;
321.0000;0.3191;7.3682;
321.3000;0.3158;7.3612;
321.6000;0.3166;7.3659;
321.9000;0.3199;7.3706;
322.2000;0.3199;7.3753;
322.5000;0.3183;7.3706;
322.8000;0.3207;7.3729;
323.1000;0.3175;7.3682;
323.4000;0.3183;7.3635;
323.7000;0.3191;7.3706;
324.0000;0.3215;7.3706;
324.3000;0.3183;7.3659;
324.6000;0.3199;7.3776;
324.9000;0.3183;7.3776;
325.2000;0.3142;7.3659;
325.5000;0.3175;7.3682;
325.8000;0.3191;7.3729;
326.1000;0.3199;7.3776;
326.4000;0.3207;7.3729;
326.7000;0.3158;7.3635;
327.0000;0.3191;7.3659;
327.3000;0.3175;7.3706;
327.6000;0.3207;7.3847;
327.9000;0.3183;7.3753;
328.2000;0.3199;7.3776;
328.5000;0.3207;7.3823;
328.8000;0.3199;7.3776;
329.1000;0.3183;7.3729;
329.4000;0.3191;7.3800;
329.7000;0.3191;7.3753;
330.0000;0.3199;7.3706;
330.3000;0.3223;7.3800;
330.6000;0.3183;7.3659;
330.9000;0.3175;7.3682;
331.2000;0.3183;7.3682;
331.5000;0.3289;7.3964;
331.8000;0.3166;7.3635;
332.1000;0.3183;7.3565;
332.4000;0.3109;7.3424;
332.7000;0.3191;7.3588;
333.0000;0.3183;7.3565;
333.3000;0.3191;7.3659;
333.6000;0.3191;7.3635;
333.9000;0.3183;7.3635;
334.2000;0.3175;7.3682;
334.5000;0.3199;7.3612;
334.8000;0.3199;7.3729;
335.1000;0.3166;7.3682;
335.4000;0.3175;7.3659;
335.7000;0.3191;7.3635;
336.0000;0.3207;7.3588;
336.3000;0.3199;7.3518;
336.6000;0.3199;7.3494;
336.9000;0.3191;7.3588;
337.2000;0.3126;7.3471;
337.5000;0.3199;7.3588;
337.8000;0.3199;7.3588;
338.1000;0.3166;7.3494;
338.4000;0.3199;7.3541;
338.7000;0.3199;7.3565;
339.0000;0.3191;7.3471;
339.3000;0.3191;7.3494;
339.6000;0.3207;7.3565;
339.9000;0.3215;7.3588;
340.2000;0.3199;7.3588;
340.5000;0.3191;7.3612;
340.8000;0.3191;7.3588;
341.1000;0.3191;7.3541;
341.4000;0.3183;7.3635;
341.7000;0.3191;7.3612;
342.0000;0.3207;7.3541;
342.3000;0.3166;7.3471;
342.6000;0.3191;7.3518;
342.9000;0.3199;7.3565;
343.2000;0.3166;7.3518;
343.5000;0.3191;7.3565;
343.8000;0.3215;7.3659;
344.1000;0.3183;7.3706;
344.4000;0.3150;7.3635;
344.7000;0.3191;7.3706;
345.0000;0.3199;7.3682;
345.3000;0.3166;7.3612;
345.6000;0.3175;7.3588;
345.9000;0.3183;7.3612;
346.2000;0.3150;7.3682;
346.5000;0.3150;7.3682;
346.8000;0.3207;7.3800;
347.1000;0.3142;7.3682;
347.4000;0.3183;7.3753;
347.7000;0.3093;7.3565;
348.0000;0.3166;7.3659;
348.3000;0.3183;7.3682;
348.6000;0.3109;7.3518;
348.9000;0.3199;7.3776;
349.2000;0.3191;7.3753;
349.5000;0.3223;7.3682;
349.8000;0.3175;7.3541;
350.1000;0.3166;7.3588;
350.4000;0.3256;7.3729;
350.7000;0.3191;7.3565;
351.0000;0.3183;7.3541;
351.3000;0.3191;7.3494;
351.6000;0.3166;7.3447;
351.9000;0.3199;7.3471;
352.2000;0.3166;7.3424;
352.5000;0.3183;7.3376;
352.8000;0.3199;7.3494;
353.1000;0.3207;7.3588;
353.4000;0.3232;7.3635;
353.7000;0.3215;7.3494;
354.0000;0.3199;7.3447;
354.3000;0.3199;7.3424;
354.6000;0.3183;7.3353;
354.9000;0.3166;7.3400;
355.2000;0.3191;7.3494;
355.5000;0.3183;7.3424;
355.8000;0.3183;7.3494;
356.1000;0.3199;7.3565;
356.4000;0.3199;7.3635;
356.7000;0.3183;7.3612;
357.0000;0.3191;7.3612;
357.3000;0.3175;7.3588;
357.6000;0.3175;7.3588;
357.9000;0.3109;7.3353;
358.2000;0.3191;7.3635;
358.5000;0.3191;7.3659;
358.8000;0.3199;7.3682;
359.1000;0.3191;7.3612;
359.4000;0.3199;7.3706;
359.7000;0.3175;7.3588;
360.0000;0.3175;7.3494;
360.3000;0.3199;7.3541;
360.6000;0.3175;7.3471;
360.9000;0.3191;7.3518;
361.2000;0.3264;7.3682;
361.5000;0.3199;7.3494;
361.8000;0.3191;7.3518;
362.1000;0.3183;7.3588;
362.4000;0.3207;7.3635;
362.7000;0.3207;7.3635;
363.0000;0.3207;7.3565;
363.3000;0.3191;7.3471;
363.6000;0.3207;7.3541;
363.9000;0.3199;7.3612;
364.2000;0.3191;7.3612;
364.5000;0.3191;7.3541;
364.8000;0.3199;7.3565;
365.1000;0.3175;7.3518;
365.4000;0.3215;7.3541;
365.7000;0.3191;7.3612;
366.0000;0.3166;7.3612;
366.3000;0.3191;7.3659;
366.6000;0.3166;7.3494;
366.9000;0.3183;7.3565;
367.2000;0.3207;7.3541;
367.5000;0.3175;7.3447;
367.8000;0.3191;7.3494;
368.1000;0.3191;7.3541;
368.4000;0.3101;7.3376;
368.7000;0.3215;7.3635;
369.0000;0.3215;7.3682;
369.3000;0.3175;7.3659;
369.6000;0.3134;7.3635;
369.9000;0.3166;7.3659;
370.2000;0.3158;7.3659;
370.5000;0.3150;7.3541;
370.8000;0.3142;7.3635;
371.1000;0.3158;7.3682;
371.4000;0.3199;7.3729;
371.7000;0.3126;7.3635;
372.0000;0.3175;7.3682;
372.3000;0.3191;7.3659;
372.6000;0.3199;7.3753;
372.9000;0.3191;7.3635;
373.2000;0.3199;7.3635;
373.5000;0.3191;7.3588;
373.8000;0.3199;7.3635;
374.1000;0.3191;7.3635;
374.4000;0.3191;7.3659;
374.7000;0.3175;7.3612;
375.0000;0.3191;7.3706;
375.3000;0.3191;7.3659;
375.6000;0.3183;7.3682;
375.9000;0.3166;7.3635;
376.2000;0.3183;7.3635;
376.5000;0.3199;7.3659;
376.8000;0.3280;7.3941;
377.1000;0.3166;7.3659;
377.4000;0.3240;7.3800;
377.7000;0.3183;7.3659;
378.0000;0.3191;7.3706;
378.3000;0.3142;7.3682;
378.6000;0.3191;7.3823;
378.9000;0.3207;7.3847;
379.2000;0.3199;7.3800;
379.5000;0.3191;7.3753;
379.8000;0.3175;7.3706;
380.1000;0.3150;7.3588;
380.4000;0.3175;7.3612;
380.7000;0.3126;7.3541;
381.0000;0.3191;7.3682;
381.3000;0.3150;7.3635;
381.6000;0.3191;7.3447;
381.9000;0.3175;7.3494;
382.2000;0.3191;7.3494;
382.5000;0.3191;7.3518;
382.8000;0.3166;7.3565;
383.1000;0.3191;7.3541;
383.4000;0.3191;7.3565;
383.7000;0.3207;7.3612;
384.0000;0.3126;7.3424;
384.3000;0.3199;7.3612;
384.6000;0.3191;7.3612;
384.9000;0.3223;7.3706;
385.2000;0.3109;7.3518;
385.5000;0.3183;7.3753;
385.8000;0.3199;7.3776;
386.1000;0.3142;7.3635;
386.4000;0.3207;7.3870;
386.7000;0.3256;7.4129;
387.0000;0.3175;7.3988;
387.3000;0.3183;7.4011;
387.6000;0.3166;7.3941;
387.9000;0.3199;7.4035;
388.2000;0.3223;7.4129;
388.5000;0.3175;7.4082;
388.8000;0.3158;7.3917;
389.1000;0.3215;7.3894;
389.4000;0.3166;7.3800;
389.7000;0.3183;7.3776;
390.0000;0.3207;7.3823;
390.3000;0.3191;7.3847;
390.6000;0.3191;7.3870;
390.9000;0.3199;7.3823;
391.2000;0.3207;7.3964;
391.5000;0.3199;7.3894;
391.8000;0.3207;7.3964;
392.1000;0.3191;7.3847;
392.4000;0.3191;7.3847;
392.7000;0.3199;7.3800;
393.0000;0.3199;7.3823;
393.3000;0.3215;7.3823;
393.6000;0.3223;7.3823;
393.9000;0.3191;7.3823;
394.2000;0.3191;7.3800;
394.5000;0.3150;7.3635;
394.8000;0.3207;7.3729;
395.1000;0.3264;7.3800;
395.4000;0.3191;7.3588;
395.7000;0.3207;7.3635;
396.0000;0.3183;7.3588;
396.3000;0.3183;7.3612;
396.6000;0.3142;7.3541;
396.9000;0.3166;7.3588;
397.2000;0.3166;7.3541;
397.5000;0.3207;7.3588;
397.8000;0.3158;7.3494;
398.1000;0.3175;7.3612;
398.4000;0.3166;7.3612;
398.7000;0.3183;7.3565;
399.0000;0.3183;7.3588;
399.3000;0.3118;7.3424;
399.6000;0.3199;7.3588;
399.9000;0.3191;7.3494;
400.2000;0.3191;7.3565;
400.5000;0.3183;7.3588;
400.8000;0.3207;7.3682;
401.1000;0.3207;7.3706;
401.4000;0.3093;7.3494;
401.7000;0.3175;7.3776;
402.0000;0.3175;7.3729;
402.3000;0.3101;7.3494;
402.6000;0.3183;7.3729;
402.9000;0.3150;7.3753;
403.2000;0.3183;7.3753;
403.5000;0.3191;7.3706;
403.8000;0.3175;7.3753;
404.1000;0.3175;7.3682;
404.4000;0.3183;7.3729;
404.7000;0.3166;7.3682;
405.0000;0.3191;7.3753;
405.3000;0.3158;7.3565;
405.6000;0.3191;7.3588;
405.9000;0.3199;7.3612;
406.2000;0.3207;7.3612;
406.5000;0.3175;7.3400;
406.8000;0.3150;7.3353;
407.1000;0.3199;7.3518;
407.4000;0.3191;7.3494;
407.7000;0.3175;7.3518;
408.0000;0.3240;7.3635;
408.3000;0.3183;7.3612;
408.6000;0.3199;7.3706;
408.9000;0.3142;7.3518;
409.2000;0.3150;7.3588;
409.5000;0.3272;7.3917;
409.8000;0.3191;7.3706;
410.1000;0.3183;7.3753;
410.4000;0.3199;7.3753;
410.7000;0.3199;7.3776;
411.0000;0.3175;7.3635;
411.3000;0.3191;7.3706;
411.6000;0.3183;7.3753;
411.9000;0.3191;7.3729;
412.2000;0.3223;7.3847;
412.5000;0.3183;7.3776;
412.8000;0.3166;7.3753;
413.1000;0.3166;7.3753;
413.4000;0.3183;7.3706;
413.7000;0.3175;7.3682;
414.0000;0.3199;7.3588;
414.3000;0.3191;7.3612;
414.6000;0.3215;7.3729;
414.9000;0.3199;7.3659;
415.2000;0.3183;7.3659;
415.5000;0.3183;7.3612;
415.8000;0.3166;7.3635;
416.1000;0.3207;7.3776;
416.4000;0.3175;7.3823;
416.7000;0.3175;7.3823;
417.0000;0.3183;7.3729;
417.3000;0.3199;7.3682;
417.6000;0.3183;7.3659;
417.9000;0.3199;7.3823;
418.2000;0.3191;7.3870;
418.5000;0.3191;7.3894;
418.8000;0.3207;7.3870;
419.1000;0.3183;7.3847;
419.4000;0.3191;7.3823;
419.7000;0.3207;7.3917;
420.0000;0.3199;7.3894;
420.3000;0.3207;7.3941;
420.6000;0.3256;7.4059;
420.9000;0.3199;7.3847;
421.2000;0.3175;7.3847;
421.5000;0.3183;7.3870;
421.8000;0.3183;7.3917;
422.1000;0.3199;7.3964;
422.4000;0.3199;7.3917;
422.7000;0.3191;7.3870;
423.0000;0.3199;7.3870;
423.3000;0.3215;7.3941;
423.6000;0.3191;7.3776;
423.9000;0.3191;7.3753;
424.2000;0.3199;7.3729;
424.5000;0.3183;7.3706;
424.8000;0.3166;7.3635;
425.1000;0.3207;7.3706;
425.4000;0.3166;7.3706;
425.7000;0.3191;7.3823;
426.0000;0.3191;7.3823;
426.3000;0.3191;7.3870;
426.6000;0.3191;7.3800;
426.9000;0.3175;7.3776;
427.2000;0.3183;7.3847;
427.5000;0.3183;7.3753;
427.8000;0.3199;7.3753;
428.1000;0.3150;7.3659;
428.4000;0.3191;7.3776;
428.7000;0.3183;7.3800;
429.0000;0.3191;7.3823;
429.3000;0.3183;7.3800;
429.6000;0.3175;7.3753;
429.9000;0.3134;7.3635;
430.2000;0.3166;7.3682;
430.5000;0.3183;7.3659;
430.8000;0.3166;7.3706;
431.1000;0.3158;7.3729;
431.4000;0.3191;7.3729;
431.7000;0.3191;7.3753;
432.0000;0.3134;7.3588;
432.3000;0.3191;7.3659;
432.6000;0.3183;7.3612;
432.9000;0.3191;7.3635;
433.2000;0.3191;7.3659;
433.5000;0.3207;7.3682;
433.8000;0.3199;7.3635;
434.1000;0.3142;7.3447;
434.4000;0.3199;7.3682;
434.7000;0.3175;7.3588;
435.0000;0.3191;7.3612;
435.3000;0.3199;7.3635;
435.6000;0.3175;7.3635;
435.9000;0.3207;7.3682;
436.2000;0.3183;7.3659;
436.5000;0.3183;7.3706;
436.8000;0.3256;7.3941;
437.1000;0.3158;7.3776;
437.4000;0.3166;7.3706;
437.7000;0.3199;7.3729;
438.0000;0.3199;7.3706;
438.3000;0.3207;7.3682;
438.6000;0.3183;7.3659;
438.9000;0.3207;7.3659;
439.2000;0.3183;7.3635;
439.5000;0.3183;7.3706;
439.8000;0.3166;7.3706;
440.1000;0.3101;7.3565;
440.4000;0.3199;7.3706;
440.7000;0.3183;7.3612;
441.0000;0.3175;7.3565;
441.3000;0.3166;7.3494;
441.6000;0.3166;7.3494;
441.9000;0.3199;7.3706;
442.2000;0.3126;7.3612;
442.5000;0.3183;7.3776;
442.8000;0.3175;7.3659;
443.1000;0.3166;7.3659;
443.4000;0.3183;7.3635;
443.7000;0.3166;7.3588;
444.0000;0.3191;7.3659;
444.3000;0.3175;7.3682;
444.6000;0.3175;7.3635;
444.9000;0.3199;7.3682;
445.2000;0.3199;7.3659;
445.5000;0.3183;7.3565;
445.8000;0.3240;7.3659;
446.1000;0.3150;7.3494;
446.4000;0.3175;7.3565;
446.7000;0.3183;7.3635;
447.0000;0.3191;7.3588;
447.3000;0.3150;7.3518;
447.6000;0.3207;7.3565;
447.9000;0.3207;7.3565;
448.2000;0.3183;7.3612;
448.5000;0.3191;7.3659;
448.8000;0.3191;7.3729;
449.1000;0.3199;7.3823;
449.4000;0.3207;7.3870;
449.7000;0.3175;7.3776;
450.0000;0.3183;7.3847;
450.3000;0.3207;7.3776;
450.6000;0.3183;7.3659;
450.9000;0.3183;7.3753;
451.2000;0.3191;7.3706;
451.5000;0.3175;7.3659;
451.8000;0.3191;7.3659;
452.1000;0.3175;7.3588;
452.4000;0.3191;7.3659;
452.7000;0.3199;7.3682;
453.0000;0.3150;7.3612;
453.3000;0.3199;7.3682;
453.6000;0.3166;7.3682;
453.9000;0.3158;7.3729;
454.2000;0.3166;7.3776;
454.5000;0.3191;7.3870;
454.8000;0.3199;7.3870;
455.1000;0.3085;7.3541;
455.4000;0.3207;7.3729;
455.7000;0.3191;7.3659;
456.0000;0.3158;7.3565;
456.3000;0.3272;7.3776;
456.6000;0.3183;7.3565;
456.9000;0.3166;7.3588;
457.2000;0.3199;7.3635;
457.5000;0.3191;7.3635;
457.8000;0.3158;7.3565;
458.1000;0.3134;7.3635;
458.4000;0.3191;7.3706;
458.7000;0.3183;7.3753;
459.0000;0.3280;7.3988;
459.3000;0.3183;7.3800;
459.6000;0.3166;7.3800;
459.9000;0.3166;7.3776;
460.2000;0.3207;7.3753;
460.5000;0.3272;7.3823;
460.8000;0.3191;7.3776;
461.1000;0.3126;7.3729;
461.4000;0.3183;7.3776;
461.7000;0.3199;7.3776;
462.0000;0.3191;7.3776;
462.3000;0.3199;7.3729;
462.6000;0.3101;7.3518;
462.9000;0.3126;7.3729;
463.2000;0.3223;7.3964;
463.5000;0.3346;7.4106;
463.8000;0.3191;7.3706;
464.1000;0.3166;7.3565;
464.4000;0.3199;7.3659;
464.7000;0.3248;7.3870;
465.0000;0.3183;7.3706;
465.3000;0.3158;7.3635;
465.6000;0.3175;7.3682;
465.9000;0.3199;7.3823;
466.2000;0.3175;7.3753;
466.5000;0.3101;7.3471;
466.8000;0.3191;7.3682;
467.1000;0.3166;7.3588;
467.4000;0.3183;7.3635;
467.7000;0.3166;7.3588;
468.0000;0.3175;7.3612;
468.3000;0.3183;7.3565;
468.6000;0.3191;7.3612;
468.9000;0.3207;7.3659;
469.2000;0.3175;7.3588;
469.5000;0.3207;7.3729;
469.8000;0.3175;7.3659;
470.1000;0.3183;7.3776;
470.4000;0.3183;7.3729;
470.7000;0.3199;7.3800;
471.0000;0.3158;7.3706;
471.3000;0.3191;7.3776;
471.6000;0.3191;7.3870;
471.9000;0.3166;7.3800;
472.2000;0.3207;7.3847;
472.5000;0.3232;7.3870;
472.8000;0.3183;7.3659;
473.1000;0.3215;7.3729;
473.4000;0.3183;7.3706;
473.7000;0.3183;7.3659;
474.0000;0.3175;7.3635;
474.3000;0.3183;7.3565;
474.6000;0.3199;7.3612;
474.9000;0.3207;7.3635;
475.2000;0.3183;7.3659;
475.5000;0.3183;7.3612;
475.8000;0.3199;7.3612;
476.1000;0.3166;7.3706;
476.4000;0.3183;7.3823;
476.7000;0.3183;7.3776;
477.0000;0.3175;7.3682;
477.3000;0.3191;7.3612;
477.6000;0.3199;7.3541;
477.9000;0.3109;7.3329;
478.2000;0.3215;7.3565;
478.5000;0.3199;7.3565;
478.8000;0.3191;7.3635;
479.1000;0.3101;7.3400;
479.4000;0.3166;7.3635;
479.7000;0.3158;7.3612;
480.0000;0.3183;7.3635;
480.3000;0.3199;7.3706;
480.6000;0.3223;7.3776;
480.9000;0.3199;7.3682;
481.2000;0.3199;7.3565;
481.5000;0.3191;7.3588;
481.8000;0.3248;7.3706;
482.1000;0.3183;7.3588;
482.4000;0.3191;7.3659;
482.7000;0.3199;7.3659;
483.0000;0.3166;7.3612;
483.3000;0.3183;7.3706;
483.6000;0.3232;7.3917;
483.9000;0.3183;7.3800;
484.2000;0.3191;7.3776;
484.5000;0.3232;7.3917;
484.8000;0.3134;7.3800;
485.1000;0.3207;7.3917;
485.4000;0.3191;7.3847;
485.7000;0.3191;7.3823;
486.0000;0.3191;7.3776;
486.3000;0.3183;7.3753;
486.6000;0.3166;7.3823;
486.9000;0.3175;7.3753;
487.2000;0.3175;7.3682;
487.5000;0.3199;7.3729;
487.8000;0.3175;7.3682;
488.1000;0.3183;7.3706;
488.4000;0.3223;7.3800;
488.7000;0.3199;7.3729;
489.0000;0.3199;7.3776;
489.3000;0.3199;7.3753;
489.6000;0.3175;7.3659;
489.9000;0.3166;7.3659;
490.2000;0.3158;7.3659;
490.5000;0.3183;7.3729;
490.8000;0.3142;7.3659;
491.1000;0.3191;7.3753;
491.4000;0.3191;7.3753;
491.7000;0.3175;7.3776;
492.0000;0.3166;7.3753;
492.3000;0.3175;7.3776;
492.6000;0.3166;7.3800;
492.9000;0.3191;7.3800;
493.2000;0.3191;7.3823;
493.5000;0.3150;7.3776;
493.8000;0.3183;7.3800;
494.1000;0.3215;7.3847;
494.4000;0.3183;7.3823;
494.7000;0.3199;7.3753;
495.0000;0.3175;7.3659;
495.3000;0.3183;7.3635;
495.6000;0.3166;7.3541;
495.9000;0.3166;7.3565;
496.2000;0.3183;7.3612;
496.5000;0.3175;7.3565;
496.8000;0.3183;7.3612;
497.1000;0.3199;7.3729;
497.4000;0.3175;7.3682;
497.7000;0.3199;7.3682;
498.0000;0.3183;7.3659;
498.3000;0.3199;7.3776;
498.6000;0.3199;7.3776;
498.9000;0.3158;7.3729;
499.2000;0.3232;7.3894;
499.5000;0.3175;7.3847;
499.8000;0.3166;7.3776;
500.1000;0.3166;7.3776;
500.4000;0.3207;7.3823;
500.7000;0.3166;7.3729;
501.0000;0.3232;7.3753;
501.3000;0.3199;7.3682;
501.6000;0.3199;7.3518;
501.9000;0.3199;7.3471;
502.2000;0.3191;7.3424;
502.5000;0.3183;7.3518;
502.8000;0.3199;7.3588;
503.1000;0.3191;7.3588;
503.4000;0.3191;7.3565;
503.7000;0.3183;7.3518;
504.0000;0.3191;7.3588;
504.3000;0.3199;7.3706;
504.6000;0.3215;7.3706;
504.9000;0.3166;7.3729;
505.2000;0.3215;7.3776;
505.5000;0.3199;7.3706;
505.8000;0.3175;7.3541;
506.1000;0.3191;7.3494;
506.4000;0.3166;7.3518;
506.7000;0.3175;7.3612;
507.0000;0.3191;7.3659;
507.3000;0.3191;7.3706;
507.6000;0.3223;7.3894;
507.9000;0.3191;7.3776;
508.2000;0.3183;7.3729;
508.5000;0.3191;7.3753;
508.8000;0.3256;7.3988;
509.1000;0.3199;7.3800;
509.4000;0.3191;7.3729;
509.7000;0.3175;7.3706;
510.0000;0.3191;7.3706;
510.3000;0.3158;7.3682;
510.6000;0.3256;7.4035;
510.9000;0.3166;7.3776;
511.2000;0.3232;7.3941;
511.5000;0.3183;7.3776;
511.8000;0.3183;7.3776;
512.1000;0.3207;7.3729;
512.4000;0.3166;7.3682;
512.7000;0.3183;7.3682;
513.0000;0.3207;7.3682;
513.3000;0.3191;7.3541;
513.6000;0.3150;7.3518;
513.9000;0.3199;7.3588;
514.2000;0.3166;7.3471;
514.5000;0.3166;7.3353;
514.8000;0.3183;7.3400;
515.1000;0.3183;7.3400;
515.4000;0.3191;7.3447;
515.7000;0.3166;7.3424;
516.0000;0.3199;7.3565;
516.3000;0.3215;7.3659;
516.6000;0.3191;7.3494;
516.9000;0.3207;7.3541;
517.2000;0.3183;7.3541;
517.5000;0.3183;7.3565;
517.8000;0.3191;7.3612;
518.1000;0.3191;7.3635;
518.4000;0.3240;7.3706;
518.7000;0.3191;7.3635;
519.0000;0.3199;7.3635;
519.3000;0.3199;7.3659;
519.6000;0.3199;7.3682;
519.9000;0.3118;7.3424;
520.2000;0.3191;7.3588;
520.5000;0.3183;7.3588;
520.8000;0.3191;7.3635;
521.1000;0.3150;7.3682;
521.4000;0.3183;7.3706;
521.7000;0.3166;7.3659;
522.0000;0.3175;7.3659;
522.3000;0.3166;7.3753;
522.6000;0.3175;7.3800;
522.9000;0.3191;7.3800;
523.2000;0.3215;7.3847;
523.5000;0.3191;7.3776;
523.8000;0.3191;7.3776;
524.1000;0.3191;7.3823;
524.4000;0.3199;7.3823;
524.7000;0.3199;7.3753;
525.0000;0.3191;7.3635;
525.3000;0.3199;7.3635;
525.6000;0.3240;7.3729;
525.9000;0.3134;7.3588;
526.2000;0.3191;7.3682;
526.5000;0.3166;7.3682;
526.8000;0.3166;7.3659;
527.1000;0.3289;7.3964;
527.4000;0.3183;7.3682;
527.7000;0.3191;7.3682;
528.0000;0.3199;7.3706;
528.3000;0.3183;7.3729;
528.6000;0.3183;7.3682;
528.9000;0.3183;7.3682;
529.2000;0.3199;7.3682;
529.5000;0.3166;7.3612;
529.8000;0.3191;7.3729;
530.1000;0.3175;7.3682;
530.4000;0.3199;7.3682;
530.7000;0.3191;7.3706;
531.0000;0.3175;7.3776;
531.3000;0.3223;7.3894;
531.6000;0.3175;7.3682;
531.9000;0.3158;7.3776;
532.2000;0.3166;7.3706;
532.5000;0.3166;7.3706;
532.8000;0.3175;7.3682;
533.1000;0.3175;7.3612;
533.4000;0.3191;7.3565;
533.7000;0.3166;7.3541;
534.0000;0.3240;7.3706;
534.3000;0.3199;7.3494;
534.6000;0.3199;7.3424;
534.9000;0.3183;7.3494;
535.2000;0.3207;7.3659;
535.5000;0.3183;7.3706;
535.8000;0.3166;7.3659;
536.1000;0.3175;7.3753;
536.4000;0.3183;7.3753;
536.7000;0.3166;7.3706;
537.0000;0.3199;7.3776;
537.3000;0.3215;7.3753;
537.6000;0.3166;7.3659;
537.9000;0.3158;7.3635;
538.2000;0.3150;7.3518;
538.5000;0.3134;7.3447;
538.8000;0.3191;7.3494;
539.1000;0.3183;7.3541;
539.4000;0.3142;7.3541;
539.7000;0.3199;7.3682;
540.0000;0.3191;7.3682;
540.3000;0.3134;7.3541;
540.6000;0.3183;7.3659;
540.9000;0.3207;7.3706;
541.2000;0.3191;7.3565;
541.5000;0.3126;7.3376;
541.8000;0.3191;7.3588;
542.1000;0.3175;7.3612;
542.4000;0.3126;7.3494;
542.7000;0.3183;7.3612;
543.0000;0.3183;7.3635;
543.3000;0.3175;7.3659;
543.6000;0.3191;7.3706;
543.9000;0.3183;7.3776;
544.2000;0.3215;7.3847;
544.5000;0.3207;7.3800;
544.8000;0.3191;7.3753;
545.1000;0.3199;7.3753;
545.4000;0.3158;7.3729;
545.7000;0.3158;7.3706;
546.0000;0.3175;7.3823;
546.3000;0.3199;7.3894;
546.6000;0.3175;7.3870;
546.9000;0.3183;7.3823;
547.2000;0.3183;7.3800;
547.5000;0.3175;7.3753;
547.8000;0.3142;7.3635;
548.1000;0.3248;7.3776;
548.4000;0.3183;7.3612;
548.7000;0.3175;7.3588;
549.0000;0.3175;7.3635;
549.3000;0.3183;7.3635;
549.6000;0.3256;7.3753;
549.9000;0.3223;7.3659;
550.2000;0.3199;7.3682;
550.5000;0.3191;7.3635;
550.8000;0.3199;7.3565;
551.1000;0.3183;7.3565;
551.4000;0.3183;7.3494;
551.7000;0.3191;7.3471;
552.0000;0.3175;7.3400;
552.3000;0.3175;7.3447;
552.6000;0.3183;7.3447;
552.9000;0.3150;7.3424;
553.2000;0.3150;7.3518;
553.5000;0.3175;7.3635;
553.8000;0.3199;7.3659;
554.1000;0.3183;7.3588;
554.4000;0.3223;7.3682;
554.7000;0.3223;7.3729;
555.0000;0.3297;7.3823;
555.3000;0.3183;7.3588;
555.6000;0.3158;7.3565;
555.9000;0.3191;7.3588;
556.2000;0.3248;7.3635;
556.5000;0.3166;7.3494;
556.8000;0.3232;7.3659;
557.1000;0.3142;7.3471;
557.4000;0.3223;7.3659;
557.7000;0.3183;7.3588;
558.0000;0.3207;7.3588;
558.3000;0.3166;7.3612;
558.6000;0.3158;7.3588;
558.9000;0.3183;7.3494;
559.2000;0.3207;7.3588;
559.5000;0.3175;7.3565;
559.8000;0.3191;7.3706;
560.1000;0.3191;7.3682;
560.4000;0.3199;7.3800;
560.7000;0.3199;7.3776;
561.0000;0.3175;7.3682;
561.3000;0.3183;7.3776;
561.6000;0.3166;7.3753;
561.9000;0.3191;7.3729;
562.2000;0.3142;7.3565;
562.5000;0.3199;7.3612;
562.8000;0.3150;7.3541;
563.1000;0.3166;7.3635;
563.4000;0.3223;7.3753;
563.7000;0.3207;7.3776;
564.0000;0.3191;7.3682;
564.3000;0.3166;7.3518;
564.6000;0.3150;7.3612;
564.9000;0.3199;7.3706;
565.2000;0.3191;7.3729;
565.5000;0.3118;7.3471;
565.8000;0.3199;7.3682;
566.1000;0.3183;7.3612;
566.4000;0.3175;7.3518;
566.7000;0.3215;7.3635;
567.0000;0.3199;7.3494;
567.3000;0.3215;7.3541;
567.6000;0.3207;7.3541;
567.9000;0.3183;7.3447;
568.2000;0.3191;7.3518;
568.5000;0.3158;7.3612;
568.8000;0.3199;7.3776;
569.1000;0.3175;7.3682;
569.4000;0.3183;7.3659;
569.7000;0.3199;7.3753;
570.0000;0.3183;7.3682;
570.3000;0.3175;7.3612;
570.6000;0.3158;7.3541;
570.9000;0.3175;7.3541;
571.2000;0.3183;7.3541;
571.5000;0.3183;7.3635;
571.8000;0.3166;7.3588;
572.1000;0.3142;7.3541;
572.4000;0.3191;7.3682;
572.7000;0.3191;7.3706;
573.0000;0.3199;7.3776;
573.3000;0.3191;7.3753;
573.6000;0.3118;7.3518;
573.9000;0.3199;7.3612;
574.2000;0.3158;7.3588;
574.5000;0.3191;7.3729;
574.8000;0.3150;7.3612;
575.1000;0.3158;7.3659;
575.4000;0.3199;7.3729;
575.7000;0.3191;7.3659;
576.0000;0.3191;7.3659;
576.3000;0.3158;7.3494;
576.6000;0.3199;7.3424;
576.9000;0.3158;7.3329;
577.2000;0.3158;7.3329;
577.5000;0.3183;7.3447;
577.8000;0.3175;7.3424;
578.1000;0.3175;7.3424;
578.4000;0.3183;7.3565;
578.7000;0.3183;7.3565;
579.0000;0.3158;7.3541;
579.3000;0.3158;7.3659;
579.6000;0.3183;7.3682;
579.9000;0.3183;7.3659;
580.2000;0.3272;7.3870;
580.5000;0.3175;7.3706;
580.8000;0.3183;7.3729;
581.1000;0.3134;7.3518;
581.4000;0.3166;7.3588;
581.7000;0.3158;7.3518;
582.0000;0.3166;7.3518;
582.3000;0.3158;7.3565;
582.6000;0.3158;7.3612;
582.9000;0.3175;7.3635;
583.2000;0.3150;7.3588;
583.5000;0.3199;7.3659;
583.8000;0.3191;7.3659;
584.1000;0.3158;7.3612;
584.4000;0.3183;7.3706;
584.7000;0.3183;7.3753;
585.0000;0.3183;7.3729;
585.3000;0.3199;7.3635;
585.6000;0.3199;7.3612;
585.9000;0.3142;7.3494;
586.2000;0.3191;7.3659;
586.5000;0.3215;7.3753;
586.8000;0.3183;7.3682;
587.1000;0.3166;7.3635;
587.4000;0.3183;7.3635;
587.7000;0.3183;7.3612;
588.0000;0.3183;7.3659;
588.3000;0.3183;7.3682;
588.6000;0.3191;7.3659;
588.9000;0.3215;7.3800;
589.2000;0.3232;7.3870;
589.5000;0.3191;7.3847;
589.8000;0.3150;7.3706;
590.1000;0.3191;7.3800;
590.4000;0.3093;7.3588;
590.7000;0.3175;7.3776;
591.0000;0.3175;7.3706;
591.3000;0.3166;7.3659;
591.6000;0.3207;7.3800;
591.9000;0.3191;7.3729;
592.2000;0.3191;7.3635;
592.5000;0.3175;7.3612;
592.8000;0.3191;7.3612;
593.1000;0.3158;7.3541;
593.4000;0.3158;7.3541;
593.7000;0.3142;7.3447;
594.0000;0.3191;7.3494;
594.3000;0.3175;7.3565;
594.6000;0.3248;7.3847;
594.9000;0.3158;7.3588;
595.2000;0.3175;7.3588;
595.5000;0.3183;7.3635;
595.8000;0.3166;7.3635;
596.1000;0.3175;7.3541;
596.4000;0.3175;7.3588;
596.7000;0.3158;7.3518;
597.0000;0.3191;7.3659;
597.3000;0.3256;7.3753;
597.6000;0.3191;7.3588;
597.9000;0.3199;7.3494;
598.2000;0.3183;7.3588;
598.5000;0.3191;7.3588;
598.8000;0.3256;7.3753;
599.1000;0.3183;7.3659;
599.4000;0.3183;7.3612;
599.7000;0.3199;7.3588;
600.0000;0.3191;7.3588;
600.3000;0.3264;7.3659;
600.6000;0.3175;7.3282;
600.9000;0.3175;7.3188;
601.2000;0.3150;7.3094;
601.5000;0.3101;7.2953;
601.8000;0.3077;7.2836;
602.1000;0.3020;7.2600;
602.4000;0.3012;7.2600;
602.7000;0.3077;7.2812;
603.0000;0.2979;7.2553;
603.3000;0.2963;7.2506;
603.6000;0.2922;7.2436;
603.9000;0.2906;7.2412;
604.2000;0.2882;7.2412;
604.5000;0.2857;7.2271;
604.8000;0.2922;7.2318;
605.1000;0.2857;7.2083;
605.4000;0.2833;7.1989;
605.7000;0.2800;7.2036;
606.0000;0.2768;7.1918;
606.3000;0.2849;7.2012;
606.6000;0.2694;7.1613;
606.9000;0.2735;7.1707;
607.2000;0.2727;7.1542;
607.5000;0.2735;7.1589;
607.8000;0.2702;7.1519;
608.1000;0.2735;7.1613;
608.4000;0.2686;7.1448;
608.7000;0.2694;7.1448;
609.0000;0.2670;7.1377;
609.3000;0.2759;7.1566;
609.6000;0.2678;7.1377;
609.9000;0.2637;7.1354;
610.2000;0.2646;7.1377;
610.5000;0.2613;7.1354;
610.8000;0.2507;7.1001;
611.1000;0.2597;7.1213;
611.4000;0.2605;7.1283;
611.7000;0.2605;7.1307;
612.0000;0.2605;7.1260;
612.3000;0.2572;7.1213;
612.6000;0.2572;7.1189;
612.9000;0.2572;7.1142;
613.2000;0.2556;7.1166;
613.5000;0.2580;7.1166;
613.8000;0.2548;7.1236;
614.1000;0.2540;7.1260;
614.4000;0.2523;7.1213;
614.7000;0.2556;7.1283;
615.0000;0.2548;7.1307;
615.3000;0.2523;7.1213;
615.6000;0.2483;7.1166;
615.9000;0.2450;7.1095;
616.2000;0.2532;7.1307;
616.5000;0.2475;7.1166;
616.8000;0.2475;7.1119;
617.1000;0.2540;7.1260;
617.4000;0.2458;7.1048;
617.7000;0.2499;7.1166;
618.0000;0.2450;7.1048;
618.3000;0.2475;7.1072;
618.6000;0.2442;7.0954;
618.9000;0.2434;7.0978;
619.2000;0.2442;7.1095;
619.5000;0.2377;7.0931;
619.8000;0.2450;7.1025;
620.1000;0.2442;7.1048;
620.4000;0.2418;7.1001;
620.7000;0.2491;7.1166;
621.0000;0.2385;7.0789;
621.3000;0.2434;7.0695;
621.6000;0.2393;7.0625;
621.9000;0.2385;7.0742;
622.2000;0.2377;7.0742;
622.5000;0.2401;7.0837;
622.8000;0.2393;7.0813;
623.1000;0.2393;7.0860;
623.4000;0.2385;7.0884;
623.7000;0.2385;7.0907;
624.0000;0.2491;7.1166;
624.3000;0.2361;7.0860;
624.6000;0.2385;7.0931;
624.9000;0.2377;7.0813;
625.2000;0.2344;7.0695;
625.5000;0.2336;7.0789;
625.8000;0.2352;7.0837;
626.1000;0.2352;7.0907;
626.4000;0.2361;7.0837;
626.7000;0.2344;7.0884;
627.0000;0.2336;7.0813;
627.3000;0.2239;7.0625;
627.6000;0.2344;7.0837;
627.9000;0.2328;7.0766;
628.2000;0.2312;7.0766;
628.5000;0.2320;7.0789;
628.8000;0.2320;7.0813;
629.1000;0.2328;7.0766;
629.4000;0.2287;7.0648;
629.7000;0.2344;7.0742;
630.0000;0.2312;7.0578;
630.3000;0.2312;7.0554;
630.6000;0.2295;7.0578;
630.9000;0.2312;7.0719;
631.2000;0.2295;7.0695;
631.5000;0.2295;7.0648;
631.8000;0.2295;7.0672;
632.1000;0.2295;7.0625;
632.4000;0.2328;7.0719;
632.7000;0.2279;7.0742;
633.0000;0.2287;7.0742;
633.3000;0.2304;7.0742;
633.6000;0.2295;7.0766;
633.9000;0.2287;7.0837;
634.2000;0.2271;7.0766;
634.5000;0.2263;7.0695;
634.8000;0.2279;7.0766;
635.1000;0.2255;7.0742;
635.4000;0.2190;7.0625;
635.7000;0.2271;7.0789;
636.0000;0.2263;7.0789;
636.3000;0.2263;7.0695;
636.6000;0.2263;7.0742;
636.9000;0.2239;7.0695;
637.2000;0.2247;7.0719;
637.5000;0.2239;7.0719;
637.8000;0.2222;7.0719;
638.1000;0.2230;7.0625;
638.4000;0.2247;7.0672;
638.7000;0.2312;7.0907;
639.0000;0.2239;7.0813;
639.3000;0.2206;7.0813;
639.6000;0.2222;7.0766;
639.9000;0.2206;7.0719;
640.2000;0.2239;7.0813;
640.5000;0.2206;7.0766;
640.8000;0.2214;7.0672;
641.1000;0.2230;7.0742;
641.4000;0.2230;7.0672;
641.7000;0.2214;7.0648;
642.0000;0.2214;7.0554;
642.3000;0.2206;7.0507;
642.6000;0.2206;7.0578;
642.9000;0.2190;7.0625;
643.2000;0.2198;7.0648;
643.5000;0.2214;7.0813;
643.8000;0.2222;7.0860;
644.1000;0.2222;7.0766;
644.4000;0.2190;7.0695;
644.7000;0.2190;7.0766;
645.0000;0.2206;7.0766;
645.3000;0.2206;7.0766;
645.6000;0.2206;7.0766;
645.9000;0.2182;7.0695;
646.2000;0.2198;7.0672;
646.5000;0.2190;7.0742;
646.8000;0.2279;7.0884;
647.1000;0.2165;7.0578;
647.4000;0.2173;7.0695;
647.7000;0.2182;7.0813;
648.0000;0.2133;7.0672;
648.3000;0.2214;7.0884;
648.6000;0.2182;7.0695;
648.9000;0.2182;7.0672;
649.2000;0.2165;7.0601;
649.5000;0.2182;7.0648;
649.8000;0.2173;7.0719;
650.1000;0.2182;7.0719;
650.4000;0.2230;7.0884;
650.7000;0.2149;7.0672;
651.0000;0.2165;7.0648;
651.3000;0.2165;7.0601;
651.6000;0.2116;7.0484;
651.9000;0.2157;7.0601;
652.2000;0.2157;7.0554;
652.5000;0.2133;7.0531;
652.8000;0.2165;7.0648;
653.1000;0.2149;7.0648;
653.4000;0.2133;7.0601;
653.7000;0.2157;7.0695;
654.0000;0.2165;7.0695;
654.3000;0.2100;7.0554;
654.6000;0.2157;7.0578;
654.9000;0.2133;7.0484;
655.2000;0.2165;7.0578;
655.5000;0.2141;7.0437;
655.8000;0.2157;7.0507;
656.1000;0.2149;7.0507;
656.4000;0.2165;7.0531;
656.7000;0.2157;7.0648;
657.0000;0.2141;7.0672;
657.3000;0.2125;7.0601;
657.6000;0.2149;7.0554;
657.9000;0.2149;7.0695;
658.2000;0.2239;7.0907;
658.5000;0.2133;7.0625;
658.8000;0.2125;7.0531;
659.1000;0.2141;7.0601;
659.4000;0.2125;7.0578;
659.7000;0.2133;7.0648;
660.0000;0.2141;7.0578;
660.3000;0.2133;7.0578;
660.6000;0.2165;7.0695;
660.9000;0.2133;7.0648;
661.2000;0.2108;7.0625;
661.5000;0.2116;7.0695;
661.8000;0.2141;7.0742;
662.1000;0.2149;7.0813;
662.4000;0.2116;7.0766;
662.7000;0.2116;7.0648;
663.0000;0.2133;7.0719;
663.3000;0.2116;7.0648;
663.6000;0.2100;7.0719;
663.9000;0.2125;7.0789;
664.2000;0.2133;7.0789;
664.5000;0.2125;7.0695;
664.8000;0.2116;7.0719;
665.1000;0.2125;7.0789;
665.4000;0.2100;7.0648;
665.7000;0.2133;7.0719;
666.0000;0.2076;7.0695;
666.3000;0.2092;7.0719;
666.6000;0.2108;7.0789;
666.9000;0.2108;7.0813;
667.2000;0.2027;7.0672;
667.5000;0.2092;7.0860;
667.8000;0.2100;7.0860;
668.1000;0.2092;7.0884;
668.4000;0.2108;7.0884;
668.7000;0.2108;7.0766;
669.0000;0.2100;7.0742;
669.3000;0.2092;7.0742;
669.6000;0.2092;7.0766;
669.9000;0.2051;7.0578;
670.2000;0.2173;7.0954;
670.5000;0.2100;7.0813;
670.8000;0.2084;7.0813;
671.1000;0.2092;7.0789;
671.4000;0.2133;7.0884;
671.7000;0.2084;7.0766;
672.0000;0.2100;7.0789;
672.3000;0.2133;7.0860;
672.6000;0.2084;7.0742;
672.9000;0.2084;7.0719;
673.2000;0.2084;7.0766;
673.5000;0.2084;7.0860;
673.8000;0.2068;7.0813;
674.1000;0.2100;7.0837;
674.4000;0.2173;7.1072;
674.7000;0.2059;7.0789;
675.0000;0.2068;7.0813;
675.3000;0.2116;7.0766;
675.6000;0.2149;7.0789;
675.9000;0.2116;7.0719;
676.2000;0.2076;7.0672;
676.5000;0.2068;7.0695;
676.8000;0.2084;7.0813;
677.1000;0.2092;7.0813;
677.4000;0.2068;7.0719;
677.7000;0.2076;7.0719;
678.0000;0.2068;7.0742;
678.3000;0.2133;7.0837;
678.6000;0.2059;7.0695;
678.9000;0.2084;7.0789;
679.2000;0.2092;7.0742;
679.5000;0.2084;7.0766;
679.8000;0.2100;7.0742;
680.1000;0.2076;7.0766;
680.4000;0.2051;7.0813;
680.7000;0.2084;7.0860;
681.0000;0.2084;7.0837;
681.3000;0.2084;7.0837;
681.6000;0.2076;7.0837;
681.9000;0.2076;7.0837;
682.2000;0.2092;7.0742;
682.5000;0.2068;7.0695;
682.8000;0.2108;7.0672;
683.1000;0.2051;7.0554;
683.4000;0.2059;7.0625;
683.7000;0.2051;7.0625;
684.0000;0.2076;7.0648;
684.3000;0.2043;7.0578;
684.6000;0.2068;7.0648;
684.9000;0.2100;7.0719;
685.2000;0.2027;7.0601;
685.5000;0.2084;7.0719;
685.8000;0.2043;7.0695;
686.1000;0.2027;7.0484;
686.4000;0.2051;7.0578;
686.7000;0.2051;7.0625;
687.0000;0.2011;7.0507;
687.3000;0.2108;7.0766;
687.6000;0.2043;7.0719;
687.9000;0.1962;7.0484;
688.2000;0.2027;7.0625;
688.5000;0.2035;7.0625;
688.8000;0.2019;7.0578;
689.1000;0.1905;7.0366;
689.4000;0.2043;7.0648;
689.7000;0.2035;7.0578;
690.0000;0.2108;7.0766;
690.3000;0.2027;7.0625;
690.6000;0.2043;7.0648;
690.9000;0.2068;7.0719;
691.2000;0.2059;7.0742;
691.5000;0.2027;7.0695;
691.8000;0.2051;7.0742;
692.1000;0.2043;7.0766;
692.4000;0.2043;7.0907;
692.7000;0.2043;7.0837;
693.0000;0.2043;7.0813;
693.3000;0.1994;7.0766;
693.6000;0.2043;7.0860;
693.9000;0.2002;7.0742;
694.2000;0.2059;7.0789;
694.5000;0.2043;7.0813;
694.8000;0.2051;7.0766;
695.1000;0.2027;7.0837;
695.4000;0.2059;7.0931;
695.7000;0.2043;7.0907;
696.0000;0.2043;7.1001;
696.3000;0.2100;7.1166;
696.6000;0.2043;7.1048;
696.9000;0.2035;7.1095;
697.2000;0.2043;7.1166;
697.5000;0.2043;7.1166;
697.8000;0.2019;7.1119;
698.1000;0.2035;7.1166;
698.4000;0.2100;7.1260;
698.7000;0.2043;7.1142;
699.0000;0.1986;7.0978;
699.3000;0.2019;7.1142;
699.6000;0.2002;7.1142;
699.9000;0.2035;7.1236;
700.2000;0.2027;7.1283;
700.5000;0.1994;7.1189;
700.8000;0.2035;7.1213;
701.1000;0.2051;7.1213;
701.4000;0.2011;7.1142;
701.7000;0.2043;7.1166;
702.0000;0.2051;7.1119;
702.3000;0.2019;7.1166;
702.6000;0.2011;7.1048;
702.9000;0.2011;7.1025;
703.2000;0.1978;7.1001;
703.5000;0.2043;7.1095;
703.8000;0.2027;7.1001;
704.1000;0.2051;7.1072;
704.4000;0.2019;7.1095;
704.7000;0.2019;7.1213;
705.0000;0.1978;7.1048;
705.3000;0.2027;7.1166;
705.6000;0.2027;7.1119;
705.9000;0.2068;7.1166;
706.2000;0.2043;7.1119;
706.5000;0.2011;7.1236;
706.8000;0.2027;7.1260;
707.1000;0.2027;7.1119;
707.4000;0.2011;7.1142;
707.7000;0.2011;7.1119;
708.0000;0.2019;7.1189;
708.3000;0.2019;7.1166;
708.6000;0.2027;7.1236;
708.9000;0.1978;7.1048;
709.2000;0.2035;7.1166;
709.5000;0.1913;7.0931;
709.8000;0.2019;7.1048;
710.1000;0.2043;7.1048;
710.4000;0.2043;7.0978;
710.7000;0.2011;7.0931;
711.0000;0.2002;7.0978;
711.3000;0.2002;7.0931;
711.6000;0.2011;7.0884;
711.9000;0.1978;7.0907;
712.2000;0.1986;7.0884;
712.5000;0.2019;7.0978;
712.8000;0.2002;7.0978;
713.1000;0.1994;7.0954;
713.4000;0.1994;7.1072;
713.7000;0.2035;7.1095;
714.0000;0.2043;7.1142;
714.3000;0.2051;7.1142;
714.6000;0.2027;7.1095;
714.9000;0.2019;7.1119;
715.2000;0.2027;7.1142;
715.5000;0.2035;7.1142;
715.8000;0.1954;7.0884;
716.1000;0.2011;7.1001;
716.4000;0.1978;7.1001;
716.7000;0.2027;7.1048;
717.0000;0.2019;7.1025;
717.3000;0.2002;7.0978;
717.6000;0.2002;7.0978;
717.9000;0.1994;7.0978;
718.2000;0.2027;7.1025;
718.5000;0.2027;7.1001;
718.8000;0.2027;7.1072;
719.1000;0.2027;7.1095;
719.4000;0.1937;7.0931;
719.7000;0.2002;7.1048;
720.0000;0.2011;7.1119;
720.3000;0.2002;7.1119;
720.6000;0.2011;7.1095;
720.9000;0.2011;7.1048;
721.2000;0.2019;7.1048;
721.5000;0.2002;7.1142;
721.8000;0.2002;7.1166;
722.1000;0.2002;7.1142;
722.4000;0.2002;7.1213;
722.7000;0.2011;7.1260;
723.0000;0.1962;7.1142;
723.3000;0.2002;7.1213;
723.6000;0.1986;7.1213;
723.9000;0.2019;7.1213;
724.2000;0.2011;7.1330;
724.5000;0.2076;7.1448;
724.8000;0.2019;7.1307;
725.1000;0.2019;7.1330;
725.4000;0.2002;7.1260;
725.7000;0.2002;7.1260;
726.0000;0.1986;7.1213;
726.3000;0.1986;7.1236;
726.6000;0.2011;7.1213;
726.9000;0.1986;7.1142;
727.2000;0.1970;7.1189;
727.5000;0.2043;7.1448;
727.8000;0.2002;7.1307;
728.1000;0.1913;7.1166;
728.4000;0.1921;7.1095;
728.7000;0.1994;7.1307;
729.0000;0.2019;7.1377;
729.3000;0.2019;7.1401;
729.6000;0.2002;7.1283;
729.9000;0.1986;7.1283;
730.2000;0.1986;7.1330;
730.5000;0.2027;7.1401;
730.8000;0.1994;7.1283;
731.1000;0.1994;7.1424;
731.4000;0.2002;7.1448;
731.7000;0.1994;7.1401;
732.0000;0.1970;7.1354;
732.3000;0.1986;7.1377;
732.6000;0.1986;7.1307;
732.9000;0.1986;7.1330;
733.2000;0.1978;7.1377;
733.5000;0.2043;7.1472;
733.8000;0.1945;7.1307;
734.1000;0.1994;7.1424;
734.4000;0.1978;7.1448;
734.7000;0.1962;7.1377;
735.0000;0.1986;7.1401;
735.3000;0.2002;7.1448;
735.6000;0.1970;7.1401;
735.9000;0.1954;7.1401;
736.2000;0.1970;7.1448;
736.5000;0.1994;7.1542;
736.8000;0.2019;7.1519;
737.1000;0.1978;7.1401;
737.4000;0.1986;7.1354;
737.7000;0.1986;7.1377;
738.0000;0.2002;7.1448;
738.3000;0.1978;7.1401;
738.6000;0.1962;7.1401;
738.9000;0.1978;7.1472;
739.2000;0.1986;7.1566;
739.5000;0.1978;7.1566;
739.8000;0.1978;7.1589;
740.1000;0.1986;7.1589;
740.4000;0.1986;7.1542;
740.7000;0.1945;7.1519;
741.0000;0.1962;7.1472;
741.3000;0.1986;7.1495;
741.6000;0.2002;7.1566;
741.9000;0.1970;7.1519;
742.2000;0.1962;7.1519;
742.5000;0.1962;7.1448;
742.8000;0.1970;7.1424;
743.1000;0.1962;7.1448;
743.4000;0.1970;7.1401;
743.7000;0.1970;7.1354;
744.0000;0.1962;7.1354;
744.3000;0.1986;7.1330;
744.6000;0.1880;7.1001;
744.9000;0.1962;7.1330;
745.2000;0.1962;7.1330;
745.5000;0.1962;7.1401;
745.8000;0.1962;7.1519;
746.1000;0.1970;7.1566;
746.4000;0.1994;7.1683;
746.7000;0.1970;7.1589;
747.0000;0.1970;7.1589;
747.3000;0.1970;7.1589;
747.6000;0.1954;7.1566;
747.9000;0.1986;7.1613;
748.2000;0.1962;7.1542;
748.5000;0.1937;7.1472;
748.8000;0.1978;7.1519;
749.1000;0.1978;7.1519;
749.4000;0.1986;7.1613;
749.7000;0.1970;7.1519;
750.0000;0.1970;7.1519;
750.3000;0.1970;7.1542;
750.6000;0.1986;7.1566;
750.9000;0.1986;7.1566;
751.2000;0.1978;7.1589;
751.5000;0.1954;7.1589;
751.8000;0.2002;7.1683;
752.1000;0.1986;7.1589;
752.4000;0.1954;7.1472;
752.7000;0.1970;7.1519;
753.0000;0.1978;7.1542;
753.3000;0.2002;7.1636;
753.6000;0.1970;7.1472;
753.9000;0.1978;7.1472;
754.2000;0.2051;7.1660;
754.5000;0.1970;7.1424;
754.8000;0.1970;7.1448;
755.1000;0.1978;7.1566;
755.4000;0.1978;7.1660;
755.7000;0.1970;7.1660;
756.0000;0.1970;7.1707;
756.3000;0.1978;7.1730;
756.6000;0.1970;7.1660;
756.9000;0.1954;7.1566;
757.2000;0.1954;7.1519;
757.5000;0.1962;7.1589;
757.8000;0.1954;7.1542;
758.1000;0.1945;7.1613;
758.4000;0.1954;7.1566;
758.7000;0.1937;7.1495;
759.0000;0.1937;7.1519;
759.3000;0.1970;7.1589;
759.6000;0.1986;7.1589;
759.9000;0.1970;7.1519;
760.2000;0.1986;7.1566;
760.5000;0.1962;7.1495;
760.8000;0.1962;7.1472;
761.1000;0.1962;7.1542;
761.4000;0.1970;7.1613;
761.7000;0.1970;7.1613;
762.0000;0.1970;7.1589;
762.3000;0.1962;7.1566;
762.6000;0.1954;7.1472;
762.9000;0.1945;7.1519;
763.2000;0.1937;7.1542;
763.5000;0.1954;7.1636;
763.8000;0.1888;7.1566;
764.1000;0.1962;7.1754;
764.4000;0.2027;7.1918;
764.7000;0.1954;7.1660;
765.0000;0.1962;7.1589;
765.3000;0.2011;7.1683;
765.6000;0.1970;7.1613;
765.9000;0.1978;7.1613;
766.2000;0.1970;7.1613;
766.5000;0.1978;7.1730;
766.8000;0.1937;7.1613;
767.1000;0.1962;7.1707;
767.4000;0.1962;7.1801;
767.7000;0.1929;7.1707;
768.0000;0.1954;7.1683;
768.3000;0.1954;7.1636;
768.6000;0.1929;7.1495;
768.9000;0.1945;7.1472;
769.2000;0.1962;7.1589;
769.5000;0.1962;7.1660;
769.8000;0.2084;7.2107;
770.1000;0.1945;7.1730;
770.4000;0.1807;7.1401;
770.7000;0.1962;7.1754;
771.0000;0.1962;7.1848;
771.3000;0.1929;7.1730;
771.6000;0.1954;7.1848;
771.9000;0.1945;7.1777;
772.2000;0.1962;7.1777;
772.5000;0.1986;7.1777;
772.8000;0.1937;7.1683;
773.1000;0.1978;7.1707;
773.4000;0.1954;7.1589;
773.7000;0.1954;7.1448;
774.0000;0.1937;7.1495;
774.3000;0.1962;7.1495;
774.6000;0.1954;7.1542;
774.9000;0.1970;7.1636;
775.2000;0.1970;7.1636;
775.5000;0.1954;7.1683;
775.8000;0.2027;7.1918;
776.1000;0.1954;7.1824;
776.4000;0.1937;7.1824;
776.7000;0.1937;7.1754;
777.0000;0.1962;7.1777;
777.3000;0.1978;7.1683;
777.6000;0.1986;7.1707;
777.9000;0.1945;7.1683;
778.2000;0.1986;7.1824;
778.5000;0.1954;7.1777;
778.8000;0.1945;7.1777;
779.1000;0.1962;7.1777;
779.4000;0.1945;7.1754;
779.7000;0.1937;7.1683;
780.0000;0.2011;7.1730;
780.3000;0.2019;7.1824;
780.6000;0.1937;7.1566;
780.9000;0.1945;7.1589;
781.2000;0.1888;7.1519;
781.5000;0.1945;7.1707;
781.8000;0.1945;7.1730;
782.1000;0.1897;7.1613;
782.4000;0.1921;7.1589;
782.7000;0.1986;7.1730;
783.0000;0.1832;7.1307;
783.3000;0.1945;7.1542;
783.6000;0.1954;7.1519;
783.9000;0.1954;7.1589;
784.2000;0.1945;7.1542;
784.5000;0.1945;7.1589;
784.8000;0.1945;7.1613;
785.1000;0.1954;7.1660;
785.4000;0.1962;7.1660;
785.7000;0.1954;7.1683;
786.0000;0.1905;7.1542;
786.3000;0.1962;7.1636;
786.6000;0.2002;7.1636;
786.9000;0.1970;7.1589;
787.2000;0.1954;7.1542;
787.5000;0.1929;7.1495;
787.8000;0.1970;7.1636;
788.1000;0.1929;7.1542;
788.4000;0.1962;7.1519;
788.7000;0.1954;7.1519;
789.0000;0.1954;7.1589;
789.3000;0.1937;7.1707;
789.6000;0.1945;7.1707;
789.9000;0.1962;7.1730;
790.2000;0.1962;7.1754;
790.5000;0.2002;7.1871;
790.8000;0.1986;7.1707;
791.1000;0.1945;7.1683;
791.4000;0.1986;7.1707;
791.7000;0.1945;7.1660;
792.0000;0.1954;7.1589;
792.3000;0.1929;7.1636;
792.6000;0.1913;7.1519;
792.9000;0.1945;7.1519;
793.2000;0.1937;7.1472;
793.5000;0.1897;7.1330;
793.8000;0.1962;7.1519;
794.1000;0.1945;7.1401;
794.4000;0.1962;7.1448;
794.7000;0.1954;7.1424;
795.0000;0.1970;7.1472;
795.3000;0.1945;7.1448;
795.6000;0.1937;7.1472;
795.9000;0.1954;7.1566;
796.2000;0.1962;7.1660;
796.5000;0.1937;7.1660;
796.8000;0.1954;7.1636;
797.1000;0.2035;7.1848;
797.4000;0.1929;7.1589;
797.7000;0.1929;7.1542;
798.0000;0.1954;7.1613;
798.3000;0.1962;7.1589;
798.6000;0.1954;7.1683;
798.9000;0.1937;7.1660;
799.2000;0.1970;7.1636;
799.5000;0.1945;7.1589;
799.8000;0.1962;7.1542;
800.1000;0.1954;7.1495;
800.4000;0.1962;7.1472;
800.7000;0.1954;7.1495;
801.0000;0.1962;7.1613;
801.3000;0.1954;7.1566;
801.6000;0.1937;7.1589;
801.9000;0.1929;7.1542;
802.2000;0.1945;7.1519;
802.5000;0.1954;7.1566;
802.8000;0.1954;7.1613;
803.1000;0.1897;7.1495;
803.4000;0.1913;7.1519;
803.7000;0.1945;7.1566;
804.0000;0.1954;7.1566;
804.3000;0.1954;7.1519;
804.6000;0.1962;7.1542;
804.9000;0.1921;7.1542;
805.2000;0.1921;7.1495;
805.5000;0.1937;7.1636;
805.8000;0.1945;7.1589;
806.1000;0.1840;7.1307;
806.4000;0.1970;7.1660;
806.7000;0.1945;7.1660;
807.0000;0.1954;7.1707;
807.3000;0.1888;7.1495;
807.6000;0.1945;7.1613;
807.9000;0.2019;7.1777;
808.2000;0.1945;7.1519;
808.5000;0.1937;7.1448;
808.8000;0.1937;7.1472;
809.1000;0.1945;7.1448;
809.4000;0.1962;7.1495;
809.7000;0.1864;7.1354;
810.0000;0.1913;7.1448;
810.3000;0.1945;7.1519;
810.6000;0.1937;7.1495;
810.9000;0.1937;7.1472;
811.2000;0.1921;7.1472;
811.5000;0.1962;7.1636;
811.8000;0.1929;7.1683;
812.1000;0.1937;7.1707;
812.4000;0.1937;7.1589;
812.7000;0.1945;7.1636;
813.0000;0.1945;7.1660;
813.3000;0.1864;7.1519;
813.6000;0.1905;7.1589;
813.9000;0.1945;7.1683;
814.2000;0.1945;7.1801;
814.5000;0.1970;7.1848;
814.8000;0.1937;7.1801;
815.1000;0.1937;7.1871;
815.4000;0.1970;7.1895;
815.7000;0.1962;7.1895;
816.0000;0.1929;7.1801;
816.3000;0.1945;7.1848;
816.6000;0.1913;7.1683;
816.9000;0.1937;7.1660;
817.2000;0.1945;7.1683;
817.5000;0.1864;7.1472;
817.8000;0.1929;7.1683;
818.1000;0.1937;7.1754;
818.4000;0.1921;7.1683;
818.7000;0.1937;7.1707;
819.0000;0.2002;7.1942;
819.3000;0.1962;7.1801;
819.6000;0.1937;7.1683;
819.9000;0.1954;7.1777;
820.2000;0.1888;7.1589;
820.5000;0.1945;7.1801;
820.8000;0.1945;7.1777;
821.1000;0.1832;7.1424;
821.4000;0.1856;7.1401;
821.7000;0.1945;7.1589;
822.0000;0.1913;7.1566;
822.3000;0.1921;7.1542;
822.6000;0.1937;7.1495;
822.9000;0.1937;7.1448;
823.2000;0.1945;7.1495;
823.5000;0.1921;7.1448;
823.8000;0.1954;7.1542;
824.1000;0.1937;7.1613;
824.4000;0.1929;7.1613;
824.7000;0.1921;7.1636;
825.0000;0.1945;7.1660;
825.3000;0.1937;7.1707;
825.6000;0.1954;7.1730;
825.9000;0.2011;7.1848;
826.2000;0.1929;7.1683;
826.5000;0.1945;7.1589;
826.8000;0.1954;7.1566;
827.1000;0.2059;7.1824;
827.4000;0.1937;7.1636;
827.7000;0.1945;7.1660;
828.0000;0.1986;7.1730;
828.3000;0.1954;7.1613;
828.6000;0.1937;7.1613;
828.9000;0.1905;7.1683;
829.2000;0.1945;7.1824;
829.5000;0.1937;7.1824;
829.8000;0.1954;7.1801;
830.1000;0.1929;7.1801;
830.4000;0.1954;7.1777;
830.7000;0.1937;7.1824;
831.0000;0.1954;7.1918;
831.3000;0.1962;7.1871;
831.6000;0.1945;7.1754;
831.9000;0.1921;7.1730;
832.2000;0.1962;7.1730;
832.5000;0.1937;7.1636;
832.8000;0.1929;7.1636;
833.1000;0.1929;7.1613;
833.4000;0.1937;7.1589;
833.7000;0.1962;7.1542;
834.0000;0.1921;7.1519;
834.3000;0.1921;7.1589;
834.6000;0.1945;7.1636;
834.9000;0.1945;7.1730;
835.2000;0.1945;7.1660;
835.5000;0.1954;7.1801;
835.8000;0.1945;7.1824;
836.1000;0.1945;7.1754;
836.4000;0.1929;7.1707;
836.7000;0.1937;7.1683;
837.0000;0.1929;7.1660;
837.3000;0.1970;7.1730;
837.6000;0.1929;7.1589;
837.9000;0.1945;7.1566;
838.2000;0.1945;7.1613;
838.5000;0.1937;7.1660;
838.8000;0.1921;7.1613;
839.1000;0.1929;7.1660;
839.4000;0.1905;7.1613;
839.7000;0.1937;7.1777;
840.0000;0.1921;7.1730;
840.3000;0.1937;7.1801;
840.6000;0.1937;7.1683;
840.9000;0.1945;7.1660;
841.2000;0.1913;7.1495;
841.5000;0.1945;7.1636;
841.8000;0.1864;7.1566;
842.1000;0.1929;7.1730;
842.4000;0.1897;7.1519;
842.7000;0.1937;7.1660;
843.0000;0.2019;7.1895;
843.3000;0.1978;7.1824;
843.6000;0.1929;7.1754;
843.9000;0.1905;7.1730;
844.2000;0.1897;7.1683;
844.5000;0.1848;7.1566;
844.8000;0.1929;7.1707;
845.1000;0.1921;7.1730;
845.4000;0.1856;7.1519;
845.7000;0.1921;7.1730;
846.0000;0.1840;7.1542;
846.3000;0.1921;7.1730;
846.6000;0.1929;7.1754;
846.9000;0.1937;7.1824;
847.2000;0.1954;7.1848;
847.5000;0.1937;7.1754;
847.8000;0.1937;7.1895;
848.1000;0.1921;7.1824;
848.4000;0.1962;7.1895;
848.7000;0.1929;7.1707;
849.0000;0.1945;7.1707;
849.3000;0.1888;7.1542;
849.6000;0.1945;7.1613;
849.9000;0.1929;7.1589;
850.2000;0.1954;7.1636;
850.5000;0.1921;7.1660;
850.8000;0.1945;7.1754;
851.1000;0.1905;7.1707;
851.4000;0.1937;7.1824;
851.7000;0.1929;7.1848;
852.0000;0.1929;7.1871;
852.3000;0.1880;7.1777;
852.6000;0.1921;7.1848;
852.9000;0.1921;7.1824;
853.2000;0.1945;7.1801;
853.5000;0.1954;7.1754;
853.8000;0.1937;7.1801;
854.1000;0.1929;7.1777;
854.4000;0.1921;7.1707;
854.7000;0.1945;7.1824;
855.0000;0.1937;7.1801;
855.3000;0.1929;7.1754;
855.6000;0.1945;7.1683;
855.9000;0.1945;7.1754;
856.2000;0.1913;7.1683;
856.5000;0.1937;7.1683;
856.8000;0.1921;7.1801;
857.1000;0.1929;7.1895;
857.4000;0.1921;7.1730;
857.7000;0.1937;7.1707;
858.0000;0.1945;7.1636;
858.3000;0.2059;7.2036;
858.6000;0.1929;7.1683;
858.9000;0.1929;7.1777;
859.2000;0.1888;7.1707;
859.5000;0.1921;7.1801;
859.8000;0.1929;7.1777;
860.1000;0.1937;7.1754;
860.4000;0.1937;7.1589;
860.7000;0.1913;7.1589;
861.0000;0.1921;7.1566;
861.3000;0.1929;7.1613;
861.6000;0.1929;7.1636;
861.9000;0.1921;7.1707;
862.2000;0.1929;7.1683;
862.5000;0.1937;7.1730;
862.8000;0.1921;7.1801;
863.1000;0.1913;7.1683;
863.4000;0.1921;7.1730;
863.7000;0.1921;7.1660;
864.0000;0.1921;7.1636;
864.3000;0.1913;7.1589;
864.6000;0.1937;7.1613;
864.9000;0.1913;7.1566;
865.2000;0.1872;7.1472;
865.5000;0.1929;7.1636;
865.8000;0.1913;7.1636;
866.1000;0.1913;7.1707;
866.4000;0.1945;7.1824;
866.7000;0.1921;7.1707;
867.0000;0.1978;7.1895;
867.3000;0.1945;7.1801;
867.6000;0.1937;7.1871;
867.9000;0.1921;7.1895;
868.2000;0.1921;7.1777;
868.5000;0.1905;7.1777;
868.8000;0.1954;7.1965;
869.1000;0.1945;7.1965;
869.4000;0.1937;7.1918;
869.7000;0.1945;7.1824;
870.0000;0.1921;7.1824;
870.3000;0.1929;7.1848;
870.6000;0.1945;7.1965;
870.9000;0.1937;7.1942;
871.2000;0.1937;7.1895;
871.5000;0.1954;7.1895;
871.8000;0.1937;7.1824;
872.1000;0.1921;7.1848;
872.4000;0.1937;7.1895;
872.7000;0.1945;7.1918;
873.0000;0.1937;7.1918;
873.3000;0.1905;7.1895;
873.6000;0.1913;7.1942;
873.9000;0.1954;7.2083;
874.2000;0.1954;7.1965;
874.5000;0.1929;7.1801;
874.8000;0.1856;7.1589;
875.1000;0.1913;7.1707;
875.4000;0.1937;7.1754;
875.7000;0.1929;7.1660;
876.0000;0.1937;7.1707;
876.3000;0.1954;7.1754;
876.6000;0.1945;7.1707;
876.9000;0.1937;7.1660;
877.2000;0.1921;7.1683;
877.5000;0.1937;7.1754;
877.8000;0.1945;7.1730;
878.1000;0.1832;7.1542;
878.4000;0.1897;7.1660;
878.7000;0.1921;7.1777;
879.0000;0.1929;7.1848;
879.3000;0.1921;7.1848;
879.6000;0.1921;7.1895;
879.9000;0.1905;7.1848;
880.2000;0.1937;7.1871;
880.5000;0.1913;7.1754;
880.8000;0.1921;7.1730;
881.1000;0.1929;7.1707;
881.4000;0.1929;7.1754;
881.7000;0.1937;7.1848;
882.0000;0.1921;7.1824;
882.3000;0.1945;7.1871;
882.6000;0.1921;7.1848;
882.9000;0.1913;7.1871;
883.2000;0.1921;7.1848;
883.5000;0.1937;7.1895;
883.8000;0.1921;7.1801;
884.1000;0.1937;7.1871;
884.4000;0.1913;7.1848;
884.7000;0.2019;7.2154;
885.0000;0.1897;7.1871;
885.3000;0.1921;7.1871;
885.6000;0.1921;7.1777;
885.9000;0.1937;7.1965;
886.2000;0.1921;7.1895;
886.5000;0.1929;7.1965;
886.8000;0.1929;7.1871;
887.1000;0.1929;7.1824;
887.4000;0.1905;7.1824;
887.7000;0.1921;7.1824;
888.0000;0.1888;7.1636;
888.3000;0.1897;7.1730;
888.6000;0.1913;7.1824;
888.9000;0.1905;7.1707;
889.2000;0.1937;7.1824;
889.5000;0.1921;7.1848;
889.8000;0.1937;7.1918;
890.1000;0.1937;7.1871;
890.4000;0.1913;7.1801;
890.7000;0.1921;7.1754;
891.0000;0.1929;7.1801;
891.3000;0.1921;7.1871;
891.6000;0.1888;7.1871;
891.9000;0.1986;7.2083;
892.2000;0.1937;7.1895;
892.5000;0.1921;7.1777;
892.8000;0.1913;7.1660;
893.1000;0.1937;7.1660;
893.4000;0.1913;7.1542;
893.7000;0.1905;7.1566;
894.0000;0.1832;7.1424;
894.3000;0.1921;7.1683;
894.6000;0.1921;7.1707;
894.9000;0.1905;7.1660;
895.2000;0.1921;7.1730;
895.5000;0.1929;7.1707;
895.8000;0.1921;7.1707;
896.1000;0.1913;7.1707;
896.4000;0.1897;7.1754;
896.7000;0.1937;7.1848;
897.0000;0.2019;7.2107;
897.3000;0.1921;7.1918;
897.6000;0.1921;7.1918;
897.9000;0.1905;7.1895;
898.2000;0.1937;7.1871;
898.5000;0.1905;7.1636;
898.8000;0.1897;7.1589;
899.1000;0.1775;7.1354;
899.4000;0.1897;7.1730;
899.7000;0.1937;7.1754;
900.0000;0.1929;7.1777;
900.3000;0.1905;7.1754;
900.6000;0.1921;7.1730;
900.9000;0.1978;7.1801;
901.2000;0.1921;7.1613;
901.5000;0.1929;7.1777;
901.8000;0.1929;7.1730;
902.1000;0.1905;7.1730;
902.4000;0.1929;7.1777;
902.7000;0.1897;7.1707;
903.0000;0.1888;7.1754;
903.3000;0.1888;7.1754;
903.6000;0.1897;7.1730;
903.9000;0.1897;7.1777;
904.2000;0.1921;7.1942;
904.5000;0.1937;7.1824;
904.8000;0.1986;7.1801;
905.1000;0.1913;7.1660;
905.4000;0.1937;7.1683;
905.7000;0.1929;7.1660;
906.0000;0.1954;7.1730;
906.3000;0.1929;7.1707;
906.6000;0.1856;7.1589;
906.9000;0.1937;7.1754;
907.2000;0.1929;7.1730;
907.5000;0.1913;7.1730;
907.8000;0.1880;7.1730;
908.1000;0.1921;7.1777;
908.4000;0.1954;7.1871;
908.7000;0.1929;7.1801;
909.0000;0.1897;7.1707;
909.3000;0.1937;7.1707;
909.6000;0.1921;7.1707;
909.9000;0.1921;7.1683;
910.2000;0.1913;7.1824;
910.5000;0.1929;7.1848;
910.8000;0.1905;7.1754;
911.1000;0.1945;7.1730;
911.4000;0.1913;7.1613;
911.7000;0.1897;7.1613;
912.0000;0.1897;7.1707;
912.3000;0.1880;7.1613;
912.6000;0.1921;7.1777;
912.9000;0.1937;7.1848;
913.2000;0.1921;7.1824;
913.5000;0.1864;7.1660;
913.8000;0.1905;7.1683;
914.1000;0.1856;7.1472;
914.4000;0.1954;7.1707;
914.7000;0.1921;7.1754;
915.0000;0.1929;7.1730;
915.3000;0.1929;7.1848;
915.6000;0.1929;7.1754;
915.9000;0.1945;7.1801;
916.2000;0.1921;7.1707;
916.5000;0.1937;7.1613;
916.8000;0.1897;7.1566;
917.1000;0.1937;7.1707;
917.4000;0.1937;7.1683;
917.7000;0.1994;7.1871;
918.0000;0.1905;7.1707;
918.3000;0.1937;7.1777;
918.6000;0.1929;7.1824;
918.9000;0.1913;7.1730;
919.2000;0.1945;7.1707;
919.5000;0.1929;7.1707;
919.8000;0.1929;7.1683;
920.1000;0.1929;7.1636;
920.4000;0.1954;7.1660;
920.7000;0.1872;7.1495;
921.0000;0.1954;7.1683;
921.3000;0.1929;7.1660;
921.6000;0.1921;7.1613;
921.9000;0.1945;7.1777;
922.2000;0.1929;7.1707;
922.5000;0.1905;7.1613;
922.8000;0.1921;7.1566;
923.1000;0.1897;7.1448;
923.4000;0.1897;7.1542;
923.7000;0.1905;7.1566;
924.0000;0.1888;7.1472;
924.3000;0.1905;7.1519;
924.6000;0.1921;7.1542;
924.9000;0.1962;7.1660;
925.2000;0.1921;7.1566;
925.5000;0.1921;7.1613;
925.8000;0.1921;7.1683;
926.1000;0.1888;7.1566;
926.4000;0.1913;7.1589;
926.7000;0.1929;7.1660;
927.0000;0.1921;7.1801;
927.3000;0.1921;7.1848;
927.6000;0.1937;7.1871;
927.9000;0.1905;7.1754;
928.2000;0.1872;7.1707;
928.5000;0.1929;7.1683;
928.8000;0.1913;7.1660;
929.1000;0.1921;7.1636;
929.4000;0.1905;7.1566;
929.7000;0.1986;7.1660;
930.0000;0.1929;7.1566;
930.3000;0.1905;7.1589;
930.6000;0.1921;7.1613;
930.9000;0.1921;7.1730;
931.2000;0.1913;7.1589;
931.5000;0.1937;7.1636;
931.8000;0.1929;7.1613;
932.1000;0.1913;7.1636;
932.4000;0.1913;7.1589;
932.7000;0.1913;7.1589;
933.0000;0.1913;7.1519;
933.3000;0.1913;7.1589;
933.6000;0.1945;7.1730;
933.9000;0.1945;7.1777;
934.2000;0.1921;7.1777;
934.5000;0.1937;7.1754;
934.8000;0.1880;7.1566;
935.1000;0.1913;7.1683;
935.4000;0.1954;7.1754;
935.7000;0.1921;7.1707;
936.0000;0.1872;7.1730;
936.3000;0.1897;7.1801;
936.6000;0.1913;7.1683;
936.9000;0.1954;7.1707;
937.2000;0.1880;7.1613;
937.5000;0.1921;7.1660;
937.8000;0.1937;7.1707;
938.1000;0.1872;7.1566;
938.4000;0.1913;7.1636;
938.7000;0.1888;7.1660;
939.0000;0.1945;7.1754;
939.3000;0.1905;7.1636;
939.6000;0.1905;7.1542;
939.9000;0.1913;7.1519;
940.2000;0.1921;7.1566;
940.5000;0.1921;7.1589;
940.8000;0.1921;7.1683;
941.1000;0.1913;7.1683;
941.4000;0.1929;7.1801;
941.7000;0.1913;7.1824;
942.0000;0.1937;7.1824;
942.3000;0.1905;7.1730;
942.6000;0.1929;7.1777;
942.9000;0.1921;7.1754;
943.2000;0.1921;7.1730;
943.5000;0.1921;7.1777;
943.8000;0.1913;7.1824;
944.1000;0.1913;7.1730;
944.4000;0.1913;7.1707;
944.7000;0.1897;7.1660;
945.0000;0.1921;7.1871;
945.3000;0.1880;7.1754;
945.6000;0.1913;7.1824;
945.9000;0.1929;7.1895;
946.2000;0.1897;7.1848;
946.5000;0.1921;7.1848;
946.8000;0.1937;7.1848;
947.1000;0.1929;7.1730;
947.4000;0.1897;7.1589;
947.7000;0.1937;7.1754;
948.0000;0.1913;7.1683;
948.3000;0.1929;7.1730;
948.6000;0.1913;7.1683;
948.9000;0.1905;7.1660;
949.2000;0.1929;7.1754;
949.5000;0.1921;7.1589;
949.8000;0.1913;7.1542;
950.1000;0.1905;7.1495;
950.4000;0.1913;7.1495;
950.7000;0.1913;7.1424;
951.0000;0.1905;7.1448;
951.3000;0.1913;7.1424;
951.6000;0.1913;7.1448;
951.9000;0.1921;7.1542;
952.2000;0.1832;7.1354;
952.5000;0.1929;7.1613;
952.8000;0.1905;7.1589;
953.1000;0.1921;7.1566;
953.4000;0.1913;7.1495;
953.7000;0.1962;7.1472;
954.0000;0.1913;7.1424;
954.3000;0.1872;7.1377;
954.6000;0.1905;7.1542;
954.9000;0.1905;7.1542;
955.2000;0.1994;7.1777;
955.5000;0.1880;7.1542;
955.8000;0.1913;7.1636;
956.1000;0.1888;7.1613;
956.4000;0.1929;7.1707;
956.7000;0.1913;7.1683;
957.0000;0.1970;7.1730;
957.3000;0.1905;7.1613;
957.6000;0.1913;7.1683;
957.9000;0.1913;7.1683;
958.2000;0.1994;7.1730;
958.5000;0.1880;7.1424;
958.8000;0.1945;7.1660;
959.1000;0.1929;7.1472;
959.4000;0.1954;7.1472;
959.7000;0.1921;7.1377;
960.0000;0.1880;7.1330;
960.3000;0.1872;7.1260;
960.6000;0.1921;7.1401;
960.9000;0.1864;7.1354;
961.2000;0.2011;7.1777;
961.5000;0.1913;7.1566;
961.8000;0.1921;7.1636;
962.1000;0.1905;7.1636;
962.4000;0.1921;7.1707;
962.7000;0.1929;7.1848;
963.0000;0.1945;7.1848;
963.3000;0.1921;7.1801;
963.6000;0.1897;7.1777;
963.9000;0.1921;7.1801;
964.2000;0.1913;7.1754;
964.5000;0.1937;7.1707;
964.8000;0.1897;7.1683;
965.1000;0.1913;7.1660;
965.4000;0.1929;7.1777;
965.7000;0.1937;7.1918;
966.0000;0.1929;7.1918;
966.3000;0.1913;7.1942;
966.6000;0.1945;7.1942;
966.9000;0.1897;7.1848;
967.2000;0.1888;7.1777;
967.5000;0.1913;7.1777;
967.8000;0.1913;7.1730;
968.1000;0.1954;7.1848;
968.4000;0.1929;7.1730;
968.7000;0.1913;7.1683;
969.0000;0.1921;7.1636;
969.3000;0.1921;7.1730;
969.6000;0.1921;7.1754;
969.9000;0.1897;7.1918;
970.2000;0.1905;7.1918;
970.5000;0.1913;7.1918;
970.8000;0.1913;7.1871;
971.1000;0.1905;7.1871;
971.4000;0.1905;7.1801;
971.7000;0.1929;7.1895;
972.0000;0.1929;7.1777;
972.3000;0.1905;7.1636;
972.6000;0.1913;7.1707;
972.9000;0.1929;7.1777;
973.2000;0.1921;7.1636;
973.5000;0.1913;7.1636;
973.8000;0.1921;7.1754;
974.1000;0.1913;7.1660;
974.4000;0.1905;7.1660;
974.7000;0.1905;7.1707;
975.0000;0.1921;7.1707;
975.3000;0.1945;7.1824;
975.6000;0.1913;7.1683;
975.9000;0.1921;7.1660;
976.2000;0.1929;7.1660;
976.5000;0.1913;7.1707;
976.8000;0.1921;7.1660;
977.1000;0.1937;7.1613;
977.4000;0.1848;7.1519;
977.7000;0.1913;7.1660;
978.0000;0.1913;7.1683;
978.3000;0.1937;7.1777;
978.6000;0.1905;7.1636;
978.9000;0.1888;7.1589;
979.2000;0.1921;7.1707;
979.5000;0.1921;7.1730;
979.8000;0.1929;7.1730;
980.1000;0.1921;7.1707;
980.4000;0.1905;7.1707;
980.7000;0.1913;7.1707;
981.0000;0.1937;7.1801;
981.3000;0.1913;7.1824;
981.6000;0.1905;7.1871;
981.9000;0.1913;7.1848;
982.2000;0.1921;7.1660;
982.5000;0.1905;7.1683;
982.8000;0.1913;7.1707;
983.1000;0.1888;7.1613;
983.4000;0.1913;7.1683;
983.7000;0.1937;7.1754;
984.0000;0.1905;7.1660;
984.3000;0.1905;7.1589;
984.6000;0.1913;7.1613;
984.9000;0.1872;7.1448;
985.2000;0.1905;7.1519;
985.5000;0.1897;7.1542;
985.8000;0.1929;7.1542;
986.1000;0.1921;7.1472;
986.4000;0.1986;7.1566;
986.7000;0.1929;7.1495;
987.0000;0.1929;7.1589;
987.3000;0.1913;7.1519;
987.6000;0.1929;7.1519;
987.9000;0.1913;7.1613;
988.2000;0.1905;7.1542;
988.5000;0.1921;7.1542;
988.8000;0.1929;7.1566;
989.1000;0.1921;7.1542;
989.4000;0.1913;7.1377;
989.7000;0.1913;7.1307;
990.0000;0.1905;7.1330;
990.3000;0.1897;7.1307;
990.6000;0.1913;7.1377;
990.9000;0.1913;7.1472;
991.2000;0.1913;7.1519;
991.5000;0.1905;7.1566;
991.8000;0.1864;7.1566;
992.1000;0.1913;7.1660;
992.4000;0.1913;7.1566;
992.7000;0.1888;7.1448;
993.0000;0.1905;7.1542;
993.3000;0.1913;7.1495;
993.6000;0.1905;7.1519;
993.9000;0.1880;7.1377;
994.2000;0.1905;7.1472;
994.5000;0.1921;7.1448;
994.8000;0.1905;7.1472;
995.1000;0.1905;7.1495;
995.4000;0.1929;7.1519;
995.7000;0.1880;7.1495;
996.0000;0.1921;7.1566;
996.3000;0.1905;7.1566;
996.6000;0.1913;7.1589;
996.9000;0.1921;7.1636;
997.2000;0.1913;7.1613;
997.5000;0.1913;7.1589;
997.8000;0.1921;7.1589;
998.1000;0.1913;7.1472;
998.4000;0.1913;7.1472;
998.7000;0.1905;7.1448;
999.0000;0.1905;7.1566;
999.3000;0.1913;7.1707;
999.6000;0.1913;7.1801;
999.9000;0.1856;7.1613;
1000.2000;0.1921;7.1707;
1000.5000;0.1913;7.1660;
1000.8000;0.1872;7.1589;
1001.1000;0.1913;7.1707;
1001.4000;0.1913;7.1683;
1001.7000;0.1913;7.1730;
1002.0000;0.1897;7.1660;
1002.3000;0.1929;7.1707;
1002.6000;0.1937;7.1660;
1002.9000;0.1970;7.1730;
1003.2000;0.1937;7.1542;
1003.5000;0.1840;7.1354;
1003.8000;0.1921;7.1613;
1004.1000;0.1937;7.1613;
1004.4000;0.1905;7.1683;
1004.7000;0.1897;7.1777;
1005.0000;0.1921;7.1777;
1005.3000;0.1913;7.1848;
1005.6000;0.1913;7.1989;
1005.9000;0.1897;7.1942;
1006.2000;0.1913;7.1942;
1006.5000;0.1913;7.2012;
1006.8000;0.1864;7.1848;
1007.1000;0.1913;7.1918;
1007.4000;0.1921;7.1965;
1007.7000;0.1905;7.1895;
1008.0000;0.1921;7.1848;
1008.3000;0.1840;7.1542;
1008.6000;0.1937;7.1801;
1008.9000;0.1921;7.1730;
1009.2000;0.1921;7.1707;
1009.5000;0.1929;7.1707;
1009.8000;0.1921;7.1730;
1010.1000;0.1978;7.1895;
1010.4000;0.1905;7.1589;
1010.7000;0.1913;7.1613;
1011.0000;0.1913;7.1636;
1011.3000;0.1897;7.1683;
1011.6000;0.1921;7.1754;
1011.9000;0.1937;7.1683;
1012.2000;0.1913;7.1542;
1012.5000;0.1937;7.1589;
1012.8000;0.1929;7.1683;
1013.1000;0.1929;7.1636;
1013.4000;0.1913;7.1613;
1013.7000;0.1921;7.1683;
1014.0000;0.1897;7.1636;
1014.3000;0.1937;7.1683;
1014.6000;0.1905;7.1613;
1014.9000;0.1937;7.1660;
1015.2000;0.1880;7.1472;
1015.5000;0.1921;7.1566;
1015.8000;0.1913;7.1519;
1016.1000;0.1929;7.1542;
1016.4000;0.1929;7.1613;
1016.7000;0.1937;7.1613;
1017.0000;0.1913;7.1636;
1017.3000;0.1929;7.1636;
1017.6000;0.1921;7.1566;
1017.9000;0.1888;7.1542;
1018.2000;0.1913;7.1660;
1018.5000;0.1888;7.1589;
1018.8000;0.1913;7.1566;
1019.1000;0.1905;7.1589;
1019.4000;0.1913;7.1660;
1019.7000;0.1888;7.1683;
1020.0000;0.1897;7.1636;
1020.3000;0.1954;7.1824;
1020.6000;0.1929;7.1707;
1020.9000;0.1921;7.1801;
1021.2000;0.1929;7.1918;
1021.5000;0.1945;7.1989;
1021.8000;0.1921;7.1918;
1022.1000;0.1929;7.1871;
1022.4000;0.1929;7.1730;
1022.7000;0.1937;7.1660;
1023.0000;0.1921;7.1613;
1023.3000;0.1913;7.1542;
1023.6000;0.1929;7.1589;
1023.9000;0.1913;7.1589;
1024.2000;0.1913;7.1495;
1024.5000;0.1913;7.1519;
1024.8000;0.1856;7.1401;
1025.1000;0.1913;7.1566;
1025.4000;0.1945;7.1683;
1025.7000;0.1913;7.1589;
1026.0000;0.1921;7.1613;
1026.3000;0.1888;7.1566;
1026.6000;0.1937;7.1683;
1026.9000;0.1921;7.1636;
1027.2000;0.1888;7.1566;
1027.5000;0.1937;7.1613;
1027.8000;0.1913;7.1542;
1028.1000;0.1905;7.1542;
1028.4000;0.1864;7.1472;
1028.7000;0.1897;7.1495;
1029.0000;0.1921;7.1519;
1029.3000;0.1986;7.1660;
1029.6000;0.1880;7.1472;
1029.9000;0.1913;7.1519;
1030.2000;0.1937;7.1566;
1030.5000;0.1970;7.1683;
1030.8000;0.1945;7.1636;
1031.1000;0.1872;7.1542;
1031.4000;0.1888;7.1519;
1031.7000;0.1905;7.1542;
1032.0000;0.2002;7.1801;
1032.3000;0.1905;7.1448;
1032.6000;0.1913;7.1448;
1032.9000;0.1929;7.1448;
1033.2000;0.1905;7.1377;
1033.5000;0.1905;7.1401;
1033.8000;0.1872;7.1307;
1034.1000;0.1970;7.1542;
1034.4000;0.1921;7.1424;
1034.7000;0.1905;7.1377;
1035.0000;0.1905;7.1377;
1035.3000;0.1897;7.1377;
1035.6000;0.1921;7.1424;
1035.9000;0.1905;7.1401;
1036.2000;0.1864;7.1260;
1036.5000;0.1905;7.1472;
1036.8000;0.1913;7.1519;
1037.1000;0.1954;7.1613;
1037.4000;0.1929;7.1472;
1037.7000;0.1913;7.1519;
1038.0000;0.1897;7.1283;
1038.3000;0.1880;7.1213;
1038.6000;0.1888;7.1283;
1038.9000;0.1888;7.1330;
1039.2000;0.1888;7.1283;
1039.5000;0.1913;7.1354;
1039.8000;0.1897;7.1330;
1040.1000;0.1905;7.1448;
1040.4000;0.1905;7.1424;
1040.7000;0.1905;7.1448;
1041.0000;0.1913;7.1519;
1041.3000;0.1905;7.1613;
1041.6000;0.2019;7.1871;
1041.9000;0.1921;7.1660;
1042.2000;0.1880;7.1542;
1042.5000;0.1897;7.1542;
1042.8000;0.1929;7.1660;
1043.1000;0.1913;7.1566;
1043.4000;0.1905;7.1542;
1043.7000;0.1913;7.1566;
1044.0000;0.1905;7.1495;
1044.3000;0.1913;7.1566;
1044.6000;0.1913;7.1542;
1044.9000;0.1897;7.1377;
1045.2000;0.1921;7.1401;
1045.5000;0.1921;7.1401;
1045.8000;0.1954;7.1542;
1046.1000;0.1905;7.1519;
1046.4000;0.1945;7.1542;
1046.7000;0.1897;7.1424;
1047.0000;0.1905;7.1401;
1047.3000;0.1921;7.1495;
1047.6000;0.1913;7.1495;
1047.9000;0.1905;7.1495;
1048.2000;0.1913;7.1542;
1048.5000;0.1905;7.1566;
1048.8000;0.1905;7.1519;
1049.1000;0.1905;7.1566;
1049.4000;0.1937;7.1730;
1049.7000;0.1913;7.1660;
1050.0000;0.1905;7.1613;
1050.3000;0.1840;7.1566;
1050.6000;0.1905;7.1660;
1050.9000;0.1888;7.1683;
1051.2000;0.1905;7.1566;
1051.5000;0.1897;7.1519;
1051.8000;0.1880;7.1472;
1052.1000;0.1913;7.1542;
1052.4000;0.1905;7.1613;
1052.7000;0.1897;7.1613;
1053.0000;0.1937;7.1777;
1053.3000;0.1945;7.1707;
1053.6000;0.1799;7.1401;
1053.9000;0.1905;7.1589;
1054.2000;0.1913;7.1683;
1054.5000;0.1913;7.1660;
1054.8000;0.1856;7.1542;
1055.1000;0.1897;7.1660;
1055.4000;0.1937;7.1707;
1055.7000;0.1888;7.1589;
1056.0000;0.1905;7.1613;
1056.3000;0.1880;7.1542;
1056.6000;0.1913;7.1730;
1056.9000;0.1897;7.1613;
1057.2000;0.1897;7.1519;
1057.5000;0.1929;7.1519;
1057.8000;0.1905;7.1519;
1058.1000;0.1921;7.1542;
1058.4000;0.1905;7.1566;
1058.7000;0.1921;7.1613;
1059.0000;0.1897;7.1495;
1059.3000;0.1905;7.1613;
1059.6000;0.1962;7.1613;
1059.9000;0.1913;7.1542;
1060.2000;0.1937;7.1566;
1060.5000;0.1913;7.1495;
1060.8000;0.1929;7.1448;
1061.1000;0.1913;7.1424;
1061.4000;0.1921;7.1401;
1061.7000;0.1905;7.1354;
1062.0000;0.1913;7.1424;
1062.3000;0.1880;7.1354;
1062.6000;0.1905;7.1354;
1062.9000;0.1897;7.1448;
1063.2000;0.1921;7.1542;
1063.5000;0.1864;7.1354;
1063.8000;0.1913;7.1448;
1064.1000;0.1880;7.1330;
1064.4000;0.1913;7.1377;
1064.7000;0.1888;7.1307;
1065.0000;0.1905;7.1495;
1065.3000;0.1929;7.1566;
1065.6000;0.1905;7.1542;
1065.9000;0.1921;7.1589;
1066.2000;0.1848;7.1472;
1066.5000;0.1905;7.1660;
1066.8000;0.1954;7.1754;
1067.1000;0.1897;7.1542;
1067.4000;0.1913;7.1589;
1067.7000;0.1897;7.1589;
1068.0000;0.1897;7.1566;
1068.3000;0.1921;7.1589;
1068.6000;0.1921;7.1519;
1068.9000;0.1872;7.1401;
1069.2000;0.1880;7.1472;
1069.5000;0.1913;7.1636;
1069.8000;0.1897;7.1660;
1070.1000;0.1880;7.1566;
1070.4000;0.1905;7.1613;
1070.7000;0.1905;7.1707;
1071.0000;0.1921;7.1683;
1071.3000;0.1913;7.1589;
1071.6000;0.1913;7.1589;
1071.9000;0.1945;7.1660;
1072.2000;0.1897;7.1730;
1072.5000;0.1929;7.1754;
1072.8000;0.1986;7.1965;
1073.1000;0.1880;7.1707;
1073.4000;0.1897;7.1683;
1073.7000;0.1913;7.1730;
1074.0000;0.1897;7.1660;
1074.3000;0.1823;7.1542;
1074.6000;0.1897;7.1683;
1074.9000;0.1872;7.1660;
1075.2000;0.1913;7.1848;
1075.5000;0.1888;7.1824;
1075.8000;0.1888;7.1801;
1076.1000;0.1913;7.1683;
1076.4000;0.1962;7.1707;
1076.7000;0.1905;7.1566;
1077.0000;0.1897;7.1542;
1077.3000;0.1880;7.1495;
1077.6000;0.1897;7.1566;
1077.9000;0.1905;7.1636;
1078.2000;0.1897;7.1707;
1078.5000;0.1880;7.1754;
1078.8000;0.1905;7.1754;
1079.1000;0.1897;7.1777;
1079.4000;0.1921;7.1801;
1079.7000;0.1897;7.1777;
1080.0000;0.1897;7.1754;
1080.3000;0.1880;7.1660;
1080.6000;0.1897;7.1754;
1080.9000;0.1921;7.1730;
1081.2000;0.1905;7.1683;
1081.5000;0.1929;7.1871;
1081.8000;0.1913;7.1848;
1082.1000;0.1888;7.1707;
1082.4000;0.1913;7.1683;
1082.7000;0.1921;7.1660;
1083.0000;0.1905;7.1613;
1083.3000;0.1913;7.1683;
1083.6000;0.1921;7.1754;
1083.9000;0.1897;7.1730;
1084.2000;0.1888;7.1730;
1084.5000;0.1897;7.1871;
1084.8000;0.1880;7.1824;
1085.1000;0.1888;7.1848;
1085.4000;0.1880;7.1683;
1085.7000;0.1929;7.1754;
1086.0000;0.1913;7.1707;
1086.3000;0.1929;7.1754;
1086.6000;0.1905;7.1636;
1086.9000;0.1897;7.1613;
1087.2000;0.1888;7.1660;
1087.5000;0.1921;7.1636;
1087.8000;0.1913;7.1636;
1088.1000;0.1888;7.1683;
1088.4000;0.1880;7.1613;
1088.7000;0.1897;7.1613;
1089.0000;0.1888;7.1636;
1089.3000;0.1945;7.1707;
1089.6000;0.1888;7.1495;
1089.9000;0.1888;7.1472;
1090.2000;0.1921;7.1542;
1090.5000;0.1888;7.1472;
1090.8000;0.1872;7.1424;
1091.1000;0.1856;7.1330;
1091.4000;0.1897;7.1519;
1091.7000;0.1913;7.1495;
1092.0000;0.1905;7.1401;
1092.3000;0.1897;7.1377;
1092.6000;0.1905;7.1354;
1092.9000;0.1913;7.1377;
1093.2000;0.1897;7.1424;
1093.5000;0.1905;7.1613;
1093.8000;0.1897;7.1660;
1094.1000;0.1913;7.1660;
1094.4000;0.1888;7.1683;
1094.7000;0.1897;7.1660;
1095.0000;0.1913;7.1636;
1095.3000;0.1897;7.1495;
1095.6000;0.1905;7.1495;
1095.9000;0.1905;7.1495;
1096.2000;0.1913;7.1495;
1096.5000;0.1913;7.1566;
1096.8000;0.1978;7.1754;
1097.1000;0.1913;7.1495;
1097.4000;0.1913;7.1495;
1097.7000;0.1921;7.1448;
1098.0000;0.1897;7.1542;
1098.3000;0.1888;7.1589;
1098.6000;0.1905;7.1660;
1098.9000;0.1913;7.1707;
1099.2000;0.1905;7.1589;
1099.5000;0.1897;7.1566;
1099.8000;0.1888;7.1542;
1100.1000;0.1880;7.1566;
1100.4000;0.1913;7.1589;
1100.7000;0.1945;7.1660;
1101.0000;0.1897;7.1683;
1101.3000;0.1905;7.1707;
1101.6000;0.1929;7.1613;
1101.9000;0.1913;7.1542;
1102.2000;0.1905;7.1636;
1102.5000;0.1815;7.1401;
1102.8000;0.1913;7.1636;
1103.1000;0.1929;7.1707;
1103.4000;0.1905;7.1707;
1103.7000;0.1929;7.1754;
1104.0000;0.1945;7.1777;
1104.3000;0.1929;7.1777;
1104.6000;0.1913;7.1871;
1104.9000;0.1897;7.1824;
1105.2000;0.1929;7.1942;
1105.5000;0.1929;7.1942;
1105.8000;0.1905;7.1895;
1106.1000;0.1945;7.1942;
1106.4000;0.1945;7.1965;
1106.7000;0.1913;7.1895;
1107.0000;0.1913;7.1989;
1107.3000;0.1929;7.2036;
1107.6000;0.1929;7.1895;
1107.9000;0.1913;7.1895;
1108.2000;0.1872;7.1777;
1108.5000;0.1905;7.1871;
1108.8000;0.1937;7.1895;
1109.1000;0.1905;7.1895;
1109.4000;0.1913;7.1965;
1109.7000;0.1905;7.1918;
1110.0000;0.1929;7.1895;
1110.3000;0.1905;7.1848;
1110.6000;0.1905;7.1848;
1110.9000;0.1897;7.1895;
1111.2000;0.1897;7.1824;
1111.5000;0.1905;7.1824;
1111.8000;0.1929;7.1848;
1112.1000;0.1929;7.1871;
1112.4000;0.1905;7.1824;
1112.7000;0.1897;7.1848;
1113.0000;0.2011;7.2036;
1113.3000;0.1880;7.1707;
1113.6000;0.1897;7.1754;
1113.9000;0.1905;7.1754;
1114.2000;0.1864;7.1683;
1114.5000;0.1905;7.1824;
1114.8000;0.1905;7.1965;
1115.1000;0.1897;7.1918;
1115.4000;0.1905;7.1848;
1115.7000;0.1905;7.1824;
1116.0000;0.1905;7.1754;
1116.3000;0.1921;7.1848;
1116.6000;0.1897;7.1707;
1116.9000;0.1905;7.1707;
1117.2000;0.1937;7.1824;
1117.5000;0.1905;7.1801;
1117.8000;0.1921;7.1895;
1118.1000;0.1970;7.1989;
1118.4000;0.1897;7.1777;
1118.7000;0.1840;7.1542;
1119.0000;0.1872;7.1589;
1119.3000;0.1905;7.1754;
1119.6000;0.1905;7.1683;
1119.9000;0.1913;7.1777;
1120.2000;0.1921;7.1754;
1120.5000;0.1897;7.1707;
1120.8000;0.1897;7.1777;
1121.1000;0.1905;7.1730;
1121.4000;0.1905;7.1801;
1121.7000;0.1897;7.1824;
1122.0000;0.1937;7.1871;
1122.3000;0.1880;7.1801;
1122.6000;0.1897;7.1824;
1122.9000;0.1937;7.1895;
1123.2000;0.1913;7.1801;
1123.5000;0.1921;7.1895;
1123.8000;0.1880;7.1824;
1124.1000;0.1905;7.1824;
1124.4000;0.1970;7.1942;
1124.7000;0.1913;7.1801;
1125.0000;0.1929;7.1848;
1125.3000;0.1897;7.1848;
1125.6000;0.1913;7.1942;
1125.9000;0.1848;7.1801;
1126.2000;0.1888;7.1918;
1126.5000;0.1921;7.2012;
1126.8000;0.1913;7.2036;
1127.1000;0.1897;7.2107;
1127.4000;0.1897;7.2154;
1127.7000;0.1913;7.2130;
1128.0000;0.1905;7.2083;
1128.3000;0.1921;7.2059;
1128.6000;0.1913;7.1848;
1128.9000;0.1921;7.1871;
1129.2000;0.1880;7.1660;
1129.5000;0.1905;7.1754;
1129.8000;0.1937;7.1754;
1130.1000;0.1888;7.1589;
1130.4000;0.1897;7.1613;
1130.7000;0.1897;7.1613;
1131.0000;0.1905;7.1636;
1131.3000;0.1905;7.1754;
1131.6000;0.1921;7.1871;
1131.9000;0.1905;7.1848;
1132.2000;0.1905;7.1871;
1132.5000;0.1913;7.1918;
1132.8000;0.1905;7.1965;
1133.1000;0.1905;7.1918;
1133.4000;0.1913;7.1918;
1133.7000;0.1921;7.1871;
1134.0000;0.1905;7.1777;
1134.3000;0.1905;7.1777;
1134.6000;0.1913;7.1777;
1134.9000;0.1897;7.1683;
1135.2000;0.1921;7.1707;
1135.5000;0.1905;7.1683;
1135.8000;0.1913;7.1613;
1136.1000;0.1929;7.1683;
1136.4000;0.1888;7.1613;
1136.7000;0.1921;7.1660;
1137.0000;0.1921;7.1660;
1137.3000;0.1905;7.1636;
1137.6000;0.1880;7.1636;
1137.9000;0.1913;7.1613;
1138.2000;0.1921;7.1566;
1138.5000;0.1921;7.1542;
1138.8000;0.1937;7.1519;
1139.1000;0.1905;7.1542;
1139.4000;0.1905;7.1589;
1139.7000;0.1929;7.1730;
1140.0000;0.1897;7.1613;
1140.3000;0.1905;7.1660;
1140.6000;0.1880;7.1613;
1140.9000;0.1888;7.1683;
1141.2000;0.1913;7.1730;
1141.5000;0.1913;7.1683;
1141.8000;0.1945;7.1801;
1142.1000;0.1897;7.1683;
1142.4000;0.1888;7.1589;
1142.7000;0.1913;7.1613;
1143.0000;0.1929;7.1660;
1143.3000;0.1921;7.1519;
1143.6000;0.1921;7.1636;
1143.9000;0.1905;7.1636;
1144.2000;0.1913;7.1660;
1144.5000;0.1913;7.1683;
1144.8000;0.1880;7.1707;
1145.1000;0.1880;7.1707;
1145.4000;0.1856;7.1566;
1145.7000;0.1929;7.1754;
1146.0000;0.1962;7.1824;
1146.3000;0.1929;7.1683;
1146.6000;0.1905;7.1683;
1146.9000;0.1954;7.1848;
1147.2000;0.1921;7.1777;
1147.5000;0.1815;7.1472;
1147.8000;0.1945;7.1871;
1148.1000;0.1832;7.1613;
1148.4000;0.1872;7.1683;
1148.7000;0.1913;7.1848;
1149.0000;0.1921;7.1918;
1149.3000;0.1905;7.1824;
1149.6000;0.1905;7.1707;
1149.9000;0.1921;7.1848;
1150.2000;0.1913;7.1777;
1150.5000;0.1897;7.1777;
1150.8000;0.1905;7.1848;
1151.1000;0.1872;7.1730;
1151.4000;0.1897;7.1754;
1151.7000;0.1905;7.1754;
1152.0000;0.1905;7.1730;
1152.3000;0.1897;7.1660;
1152.6000;0.1913;7.1707;
1152.9000;0.1905;7.1707;
1153.2000;0.1962;7.1801;
1153.5000;0.1937;7.1777;
1153.8000;0.1994;7.1965;
1154.1000;0.1913;7.1730;
1154.4000;0.1905;7.1777;
1154.7000;0.1921;7.1918;
1155.0000;0.1913;7.1942;
1155.3000;0.1921;7.1918;
1155.6000;0.1921;7.1989;
1155.9000;0.1905;7.1942;
1156.2000;0.1921;7.1989;
1156.5000;0.1897;7.1965;
1156.8000;0.1880;7.1848;
1157.1000;0.1905;7.2012;
1157.4000;0.1888;7.1989;
1157.7000;0.1929;7.2012;
1158.0000;0.1888;7.1871;
1158.3000;0.1921;7.1801;
1158.6000;0.1897;7.1730;
1158.9000;0.1913;7.1707;
1159.2000;0.1905;7.1660;
1159.5000;0.1913;7.1566;
1159.8000;0.1888;7.1542;
1160.1000;0.1986;7.1801;
1160.4000;0.1897;7.1495;
1160.7000;0.1905;7.1613;
1161.0000;0.1848;7.1519;
1161.3000;0.1937;7.1824;
1161.6000;0.1897;7.1754;
1161.9000;0.1888;7.1754;
1162.2000;0.1888;7.1777;
1162.5000;0.1905;7.1660;
1162.8000;0.1872;7.1589;
1163.1000;0.1897;7.1613;
1163.4000;0.1986;7.1871;
1163.7000;0.1921;7.1824;
1164.0000;0.1815;7.1566;
1164.3000;0.2027;7.2154;
1164.6000;0.1921;7.1848;
1164.9000;0.1880;7.1848;
1165.2000;0.1897;7.1848;
1165.5000;0.1897;7.1895;
1165.8000;0.1897;7.1848;
1166.1000;0.1905;7.1848;
1166.4000;0.1905;7.1801;
1166.7000;0.1921;7.1918;
1167.0000;0.1970;7.2012;
1167.3000;0.1888;7.1824;
1167.6000;0.1913;7.1848;
1167.9000;0.1913;7.1871;
1168.2000;0.1937;7.1871;
1168.5000;0.1905;7.1754;
1168.8000;0.1913;7.1801;
1169.1000;0.1929;7.1801;
1169.4000;0.1888;7.1754;
1169.7000;0.1929;7.1777;
1170.0000;0.1905;7.1683;
1170.3000;0.1905;7.1707;
1170.6000;0.1913;7.1683;
1170.9000;0.1864;7.1660;
1171.2000;0.1848;7.1707;
1171.5000;0.1905;7.1848;
1171.8000;0.1929;7.1824;
1172.1000;0.1880;7.1683;
1172.4000;0.1913;7.1660;
1172.7000;0.1905;7.1730;
1173.0000;0.1905;7.1707;
1173.3000;0.1905;7.1613;
1173.6000;0.1880;7.1542;
1173.9000;0.1888;7.1566;
1174.2000;0.1913;7.1566;
1174.5000;0.1905;7.1519;
1174.8000;0.1905;7.1519;
1175.1000;0.1905;7.1472;
1175.4000;0.1897;7.1448;
1175.7000;0.1905;7.1448;
1176.0000;0.1921;7.1613;
1176.3000;0.1905;7.1566;
1176.6000;0.1913;7.1683;
1176.9000;0.1905;7.1707;
1177.2000;0.2011;7.2107;
1177.5000;0.1921;7.1918;
1177.8000;0.1929;7.1942;
1178.1000;0.1921;7.1848;
1178.4000;0.1937;7.1871;
1178.7000;0.1905;7.1660;
1179.0000;0.1913;7.1613;
1179.3000;0.1913;7.1613;
1179.6000;0.1913;7.1660;
1179.9000;0.1929;7.1754;
1180.2000;0.1905;7.1730;
1180.5000;0.1905;7.1848;
1180.8000;0.1921;7.1824;
1181.1000;0.1888;7.1730;
1181.4000;0.1905;7.1754;
1181.7000;0.1897;7.1683;
1182.0000;0.1929;7.1566;
1182.3000;0.1823;7.1307;
1182.6000;0.1897;7.1566;
1182.9000;0.1921;7.1519;
1183.2000;0.1921;7.1519;
1183.5000;0.1905;7.1589;
1183.8000;0.1905;7.1613;
1184.1000;0.1905;7.1754;
1184.4000;0.1840;7.1519;
1184.7000;0.1888;7.1660;
1185.0000;0.1921;7.1707;
1185.3000;0.1913;7.1707;
1185.6000;0.1913;7.1777;
1185.9000;0.1905;7.1824;
1186.2000;0.1888;7.1707;
1186.5000;0.1913;7.1777;
1186.8000;0.1897;7.1824;
1187.1000;0.1888;7.1848;
1187.4000;0.1864;7.1801;
1187.7000;0.1921;7.1918;
1188.0000;0.1897;7.1824;
1188.3000;0.1962;7.1824;
1188.6000;0.1913;7.1707;
1188.9000;0.1921;7.1754;
1189.2000;0.1905;7.1754;
1189.5000;0.1929;7.1824;
1189.8000;0.1913;7.1871;
1190.1000;0.1986;7.1989;
1190.4000;0.1856;7.1636;
1190.7000;0.1913;7.1777;
1191.0000;0.1913;7.1754;
1191.3000;0.1913;7.1683;
1191.6000;0.1913;7.1777;
1191.9000;0.1856;7.1730;
1192.2000;0.1897;7.1918;
1192.5000;0.1905;7.1918;
1192.8000;0.1937;7.1918;
1193.1000;0.1921;7.1848;
1193.4000;0.1929;7.1801;
1193.7000;0.1897;7.1754;
1194.0000;0.1888;7.1754;
1194.3000;0.1929;7.1801;
1194.6000;0.1913;7.1730;
1194.9000;0.1880;7.1707;
1195.2000;0.1905;7.1777;
1195.5000;0.1921;7.1801;
1195.8000;0.1905;7.1754;
1196.1000;0.1905;7.1848;
1196.4000;0.1897;7.1754;
1196.7000;0.1897;7.1777;
1197.0000;0.1929;7.1871;
1197.3000;0.1897;7.1777;
1197.6000;0.1897;7.1754;
1197.9000;0.1913;7.1707;
1198.2000;0.1913;7.1660;
1198.5000;0.1897;7.1542;
1198.8000;0.1880;7.1566;
1199.1000;0.1872;7.1660;
1199.4000;0.1897;7.1754;
1199.7000;0.1913;7.1801;
1200.0000;0.1880;7.1730;
1200.3000;0.1905;7.1754;
1200.6000;0.1856;7.1660;
1200.9000;0.1905;7.1683;
1201.2000;0.1921;7.1754;
1201.5000;0.1905;7.1636;
1201.8000;0.1905;7.1660;
1202.1000;0.1905;7.1730;
1202.4000;0.1913;7.1683;
1202.7000;0.1929;7.1730;
1203.0000;0.1921;7.1683;
1203.3000;0.1937;7.1754;
1203.6000;0.1905;7.1824;
1203.9000;0.1921;7.1824;
1204.2000;0.1921;7.1918;
1204.5000;0.1905;7.1848;
1204.8000;0.1872;7.1777;
1205.1000;0.1888;7.1754;
1205.4000;0.1954;7.1942;
1205.7000;0.1913;7.1918;
1206.0000;0.1905;7.1848;
1206.3000;0.1913;7.1801;
1206.6000;0.1986;7.1989;
1206.9000;0.1888;7.1707;
1207.2000;0.1905;7.1777;
1207.5000;0.1888;7.1754;
1207.8000;0.1905;7.1636;
1208.1000;0.1929;7.1754;
1208.4000;0.1905;7.1707;
1208.7000;0.1913;7.1683;
1209.0000;0.1913;7.1707;
1209.3000;0.1929;7.1777;
1209.6000;0.1921;7.1754;
1209.9000;0.1913;7.1754;
1210.2000;0.1897;7.1754;
1210.5000;0.1913;7.1777;
1210.8000;0.1897;7.1730;
1211.1000;0.1921;7.1777;
1211.4000;0.1929;7.1848;
1211.7000;0.1897;7.1777;
1212.0000;0.1929;7.1824;
1212.3000;0.1905;7.1824;
1212.6000;0.2002;7.2059;
1212.9000;0.1905;7.1777;
1213.2000;0.1929;7.1707;
1213.5000;0.1905;7.1660;
1213.8000;0.1905;7.1683;
1214.1000;0.1888;7.1683;
1214.4000;0.1905;7.1730;
1214.7000;0.1921;7.1801;
1215.0000;0.1905;7.1754;
1215.3000;0.1905;7.1707;
1215.6000;0.1913;7.1801;
1215.9000;0.1905;7.1801;
1216.2000;0.1888;7.1754;
1216.5000;0.1905;7.1942;
1216.8000;0.1905;7.2059;
1217.1000;0.1921;7.1965;
1217.4000;0.1880;7.1777;
1217.7000;0.1929;7.1895;
1218.0000;0.1888;7.1918;
1218.3000;0.1815;7.1754;
1218.6000;0.1937;7.2083;
1218.9000;0.1913;7.1989;
1219.2000;0.1905;7.1895;
1219.5000;0.1913;7.1801;
1219.8000;0.1913;7.1848;
1220.1000;0.1913;7.1730;
1220.4000;0.1840;7.1589;
1220.7000;0.1864;7.1613;
1221.0000;0.1913;7.1824;
1221.3000;0.1921;7.1801;
1221.6000;0.1913;7.1824;
1221.9000;0.1913;7.1754;
1222.2000;0.1937;7.1754;
1222.5000;0.1913;7.1730;
1222.8000;0.1888;7.1754;
1223.1000;0.1880;7.1660;
1223.4000;0.1929;7.1730;
1223.7000;0.1913;7.1660;
1224.0000;0.1897;7.1683;
1224.3000;0.1929;7.1613;
1224.6000;0.1913;7.1495;
1224.9000;0.1921;7.1589;
1225.2000;0.1880;7.1566;
1225.5000;0.1905;7.1519;
1225.8000;0.1929;7.1566;
1226.1000;0.1913;7.1589;
1226.4000;0.1978;7.1777;
1226.7000;0.1921;7.1683;
1227.0000;0.1897;7.1683;
1227.3000;0.1986;7.1801;
1227.6000;0.1921;7.1542;
1227.9000;0.1913;7.1519;
1228.2000;0.1921;7.1519;
1228.5000;0.1913;7.1542;
1228.8000;0.1905;7.1542;
1229.1000;0.1888;7.1495;
1229.4000;0.1888;7.1448;
1229.7000;0.1905;7.1495;
1230.0000;0.1872;7.1519;
1230.3000;0.1848;7.1377;
1230.6000;0.1913;7.1519;
1230.9000;0.1937;7.1613;
1231.2000;0.1970;7.1707;
1231.5000;0.1913;7.1495;
1231.8000;0.1921;7.1519;
1232.1000;0.1880;7.1354;
1232.4000;0.1921;7.1448;
1232.7000;0.1929;7.1495;
1233.0000;0.1913;7.1495;
1233.3000;0.1905;7.1613;
1233.6000;0.1913;7.1660;
1233.9000;0.1937;7.1636;
1234.2000;0.1913;7.1589;
1234.5000;0.1905;7.1660;
1234.8000;0.1897;7.1660;
1235.1000;0.1913;7.1683;
1235.4000;0.1905;7.1730;
1235.7000;0.1888;7.1660;
1236.0000;0.1913;7.1660;
1236.3000;0.1921;7.1683;
1236.6000;0.1880;7.1589;
1236.9000;0.1823;7.1448;
1237.2000;0.1888;7.1636;
1237.5000;0.1913;7.1730;
1237.8000;0.1905;7.1730;
1238.1000;0.1888;7.1589;
1238.4000;0.1888;7.1683;
1238.7000;0.1970;7.1871;
1239.0000;0.1815;7.1495;
1239.3000;0.1994;7.1989;
1239.6000;0.1880;7.1824;
1239.9000;0.1905;7.1848;
1240.2000;0.1872;7.1730;
1240.5000;0.1954;7.1871;
1240.8000;0.1823;7.1589;
1241.1000;0.1888;7.1824;
1241.4000;0.1791;7.1542;
1241.7000;0.1888;7.1730;
1242.0000;0.1799;7.1495;
1242.3000;0.1840;7.1542;
1242.6000;0.1921;7.1683;
1242.9000;0.1929;7.1636;
1243.2000;0.1897;7.1707;
1243.5000;0.1913;7.1683;
1243.8000;0.1937;7.1730;
1244.1000;0.1929;7.1777;
1244.4000;0.1856;7.1660;
1244.7000;0.1905;7.1801;
1245.0000;0.1888;7.1754;
1245.3000;0.1913;7.1848;
1245.6000;0.1913;7.1707;
1245.9000;0.1929;7.1754;
1246.2000;0.1905;7.1660;
1246.5000;0.1897;7.1636;
1246.8000;0.1913;7.1613;
1247.1000;0.1921;7.1660;
1247.4000;0.1897;7.1613;
1247.7000;0.1905;7.1683;
1248.0000;0.1888;7.1613;
1248.3000;0.1905;7.1683;
1248.6000;0.1913;7.1777;
1248.9000;0.1897;7.1707;
1249.2000;0.1897;7.1636;
1249.5000;0.1913;7.1660;
1249.8000;0.1897;7.1566;
1250.1000;0.1945;7.1730;
1250.4000;0.1897;7.1660;
1250.7000;0.1897;7.1636;
1251.0000;0.1897;7.1613;
1251.3000;0.1872;7.1636;
1251.6000;0.1921;7.1777;
1251.9000;0.1897;7.1730;
1252.2000;0.1888;7.1636;
1252.5000;0.1913;7.1777;
1252.8000;0.1872;7.1848;
1253.1000;0.1888;7.1895;
1253.4000;0.1888;7.1965;
1253.7000;0.1921;7.2059;
1254.0000;0.1921;7.2059;
1254.3000;0.1872;7.2012;
1254.6000;0.1913;7.2036;
1254.9000;0.1945;7.2083;
1255.2000;0.1905;7.1942;
1255.5000;0.1888;7.1848;
1255.8000;0.1897;7.1895;
1256.1000;0.1954;7.1942;
1256.4000;0.1880;7.1730;
1256.7000;0.1913;7.1801;
1257.0000;0.1986;7.1942;
1257.3000;0.1929;7.1848;
1257.6000;0.1913;7.1848;
1257.9000;0.1954;7.2059;
1258.2000;0.1913;7.1871;
1258.5000;0.1913;7.1824;
1258.8000;0.1848;7.1707;
1259.1000;0.1937;7.1895;
1259.4000;0.1921;7.1918;
1259.7000;0.1880;7.1895;
1260.0000;0.1913;7.1942;
1260.3000;0.1937;7.2036;
1260.6000;0.1897;7.1965;
1260.9000;0.1872;7.1942;
1261.2000;0.1905;7.2083;
1261.5000;0.1864;7.2059;
1261.8000;0.1913;7.2154;
1262.1000;0.1905;7.2130;
1262.4000;0.1905;7.2083;
1262.7000;0.1921;7.2059;
1263.0000;0.1962;7.2083;
1263.3000;0.1897;7.1895;
1263.6000;0.1897;7.1848;
1263.9000;0.1897;7.1848;
1264.2000;0.1864;7.1754;
1264.5000;0.1880;7.1730;
1264.8000;0.1864;7.1730;
1265.1000;0.1888;7.1824;
1265.4000;0.1913;7.2012;
1265.7000;0.1921;7.1989;
1266.0000;0.1905;7.1871;
1266.3000;0.1897;7.1824;
1266.6000;0.1888;7.1730;
1266.9000;0.1913;7.1777;
1267.2000;0.1921;7.1707;
1267.5000;0.1913;7.1801;
1267.8000;0.1921;7.1871;
1268.1000;0.1929;7.1918;
1268.4000;0.1921;7.1871;
1268.7000;0.1905;7.1918;
1269.0000;0.1921;7.1942;
1269.3000;0.1905;7.1848;
1269.6000;0.1913;7.1895;
1269.9000;0.1962;7.1965;
1270.2000;0.1888;7.1824;
1270.5000;0.1945;7.1895;
1270.8000;0.1888;7.1895;
1271.1000;0.1888;7.1848;
1271.4000;0.1799;7.1613;
1271.7000;0.1905;7.1801;
1272.0000;0.1913;7.1801;
1272.3000;0.1913;7.1777;
1272.6000;0.1888;7.1848;
1272.9000;0.1921;7.1942;
1273.2000;0.1913;7.1942;
1273.5000;0.1913;7.1942;
1273.8000;0.1929;7.2036;
1274.1000;0.1962;7.2107;
1274.4000;0.1937;7.2036;
1274.7000;0.1897;7.2012;
1275.0000;0.1929;7.1942;
1275.3000;0.1905;7.1848;
1275.6000;0.1905;7.1801;
1275.9000;0.1929;7.1895;
1276.2000;0.1913;7.1848;
1276.5000;0.1905;7.1824;
1276.8000;0.1937;7.1895;
1277.1000;0.1929;7.1895;
1277.4000;0.1905;7.1895;
1277.7000;0.1921;7.1918;
1278.0000;0.1897;7.1871;
1278.3000;0.1905;7.1942;
1278.6000;0.1913;7.1848;
1278.9000;0.1905;7.1660;
1279.2000;0.1832;7.1472;
1279.5000;0.1921;7.1683;
1279.8000;0.1913;7.1707;
1280.1000;0.1905;7.1754;
1280.4000;0.1856;7.1707;
1280.7000;0.1880;7.1824;
1281.0000;0.1929;7.1989;
1281.3000;0.1921;7.1989;
1281.6000;0.1905;7.1989;
1281.9000;0.1937;7.2083;
1282.2000;0.1905;7.1989;
1282.5000;0.1905;7.1918;
1282.8000;0.1921;7.1965;
1283.1000;0.1913;7.2012;
1283.4000;0.1897;7.2012;
1283.7000;0.1962;7.2224;
1284.0000;0.1897;7.2059;
1284.3000;0.1913;7.2059;
1284.6000;0.1921;7.2107;
1284.9000;0.1913;7.2083;
1285.2000;0.1880;7.2107;
1285.5000;0.1913;7.2130;
1285.8000;0.1897;7.2036;
1286.1000;0.1905;7.1965;
1286.4000;0.1905;7.1801;
1286.7000;0.1905;7.1777;
1287.0000;0.1832;7.1636;
1287.3000;0.1897;7.1730;
1287.6000;0.1897;7.1777;
1287.9000;0.1888;7.1848;
1288.2000;0.1945;7.1918;
1288.5000;0.1888;7.1777;
1288.8000;0.1897;7.1777;
1289.1000;0.1880;7.1754;
1289.4000;0.1913;7.1848;
1289.7000;0.1921;7.1777;
1290.0000;0.1856;7.1660;
1290.3000;0.1954;7.1871;
1290.6000;0.1905;7.1801;
1290.9000;0.1888;7.1777;
1291.2000;0.1913;7.1848;
1291.5000;0.1913;7.1871;
1291.8000;0.1913;7.1895;
1292.1000;0.1913;7.1918;
1292.4000;0.1905;7.1965;
1292.7000;0.1921;7.1989;
1293.0000;0.1913;7.1989;
1293.3000;0.1921;7.2012;
1293.6000;0.1929;7.1895;
1293.9000;0.1937;7.1871;
1294.2000;0.1913;7.1801;
1294.5000;0.1913;7.1895;
1294.8000;0.1913;7.1848;
1295.1000;0.1905;7.1660;
1295.4000;0.1897;7.1707;
1295.7000;0.1897;7.1801;
1296.0000;0.1905;7.1824;
1296.3000;0.1913;7.1895;
1296.6000;0.1905;7.1824;
1296.9000;0.1937;7.1824;
1297.2000;0.1921;7.1801;
1297.5000;0.1897;7.1754;
1297.8000;0.1897;7.1730;
1298.1000;0.1905;7.1824;
1298.4000;0.1897;7.1777;
1298.7000;0.1888;7.1777;
1299.0000;0.1888;7.1801;
1299.3000;0.1913;7.1871;
1299.6000;0.1921;7.1730;
1299.9000;0.1929;7.1801;
1300.2000;0.1897;7.1613;
1300.5000;0.1888;7.1636;
1300.8000;0.1888;7.1707;
1301.1000;0.1897;7.1777;
1301.4000;0.1929;7.1801;
1301.7000;0.1905;7.1801;
1302.0000;0.1880;7.1730;
1302.3000;0.1856;7.1801;
1302.6000;0.1905;7.1801;
1302.9000;0.1905;7.1707;
1303.2000;0.1986;7.1895;
1303.5000;0.1921;7.1801;
1303.8000;0.1897;7.1754;
1304.1000;0.1897;7.1683;
1304.4000;0.1929;7.1707;
1304.7000;0.1888;7.1636;
1305.0000;0.1913;7.1707;
1305.3000;0.1897;7.1730;
1305.6000;0.1929;7.1801;
1305.9000;0.1840;7.1589;
1306.2000;0.1897;7.1730;
1306.5000;0.1880;7.1707;
1306.8000;0.1905;7.1777;
1307.1000;0.1913;7.1754;
1307.4000;0.1905;7.1777;
1307.7000;0.1905;7.1777;
1308.0000;0.1929;7.1683;
1308.3000;0.1888;7.1683;
1308.6000;0.1913;7.1730;
1308.9000;0.1897;7.1730;
1309.2000;0.1864;7.1707;
1309.5000;0.1905;7.1777;
1309.8000;0.1897;7.1848;
1310.1000;0.1897;7.1848;
1310.4000;0.1913;7.1895;
1310.7000;0.1897;7.1777;
1311.0000;0.1921;7.1848;
1311.3000;0.1929;7.1895;
1311.6000;0.1888;7.1707;
1311.9000;0.1897;7.1754;
1312.2000;0.1888;7.1824;
1312.5000;0.1913;7.1965;
1312.8000;0.1913;7.1918;
1313.1000;0.1929;7.1942;
1313.4000;0.1913;7.1942;
1313.7000;0.1897;7.1965;
1314.0000;0.1913;7.2036;
1314.3000;0.1897;7.1942;
1314.6000;0.1921;7.1965;
1314.9000;0.1929;7.1942;
1315.2000;0.1880;7.1801;
1315.5000;0.1929;7.1871;
1315.8000;0.1921;7.1895;
1316.1000;0.1913;7.1918;
1316.4000;0.1929;7.1942;
1316.7000;0.1921;7.1942;
1317.0000;0.1905;7.1895;
1317.3000;0.1954;7.2012;
1317.6000;0.1929;7.2036;
1317.9000;0.1913;7.1989;
1318.2000;0.1913;7.2012;
1318.5000;0.1913;7.2012;
1318.8000;0.1905;7.1989;
1319.1000;0.1945;7.2107;
1319.4000;0.1888;7.2059;
1319.7000;0.1888;7.2012;
1320.0000;0.1913;7.1965;
1320.3000;0.1913;7.1895;
1320.6000;0.1897;7.1801;
1320.9000;0.1897;7.1754;
1321.2000;0.1905;7.1848;
1321.5000;0.1921;7.1848;
1321.8000;0.1921;7.1801;
1322.1000;0.1880;7.1730;
1322.4000;0.1905;7.1871;
1322.7000;0.1905;7.1824;
1323.0000;0.1913;7.1801;
1323.3000;0.1905;7.1730;
1323.6000;0.1888;7.1636;
1323.9000;0.1905;7.1683;
1324.2000;0.1897;7.1660;
1324.5000;0.1888;7.1707;
1324.8000;0.1970;7.1918;
1325.1000;0.1888;7.1613;
1325.4000;0.1913;7.1636;
1325.7000;0.1905;7.1472;
1326.0000;0.1921;7.1424;
1326.3000;0.1897;7.1401;
1326.6000;0.1905;7.1542;
1326.9000;0.1897;7.1589;
1327.2000;0.1888;7.1589;
1327.5000;0.1897;7.1613;
1327.8000;0.1897;7.1660;
1328.1000;0.1888;7.1660;
1328.4000;0.1897;7.1754;
1328.7000;0.1880;7.1660;
1329.0000;0.1937;7.1683;
1329.3000;0.1905;7.1589;
1329.6000;0.1905;7.1636;
1329.9000;0.1799;7.1377;
1330.2000;0.1937;7.1730;
1330.5000;0.1929;7.1636;
1330.8000;0.1913;7.1589;
1331.1000;0.1897;7.1542;
1331.4000;0.1905;7.1613;
1331.7000;0.1823;7.1519;
1332.0000;0.1913;7.1777;
1332.3000;0.1905;7.1824;
1332.6000;0.1880;7.1754;
1332.9000;0.1897;7.1730;
1333.2000;0.1888;7.1824;
1333.5000;0.1897;7.1801;
1333.8000;0.1888;7.1871;
1334.1000;0.1897;7.1989;
1334.4000;0.1880;7.1895;
1334.7000;0.1888;7.1895;
1335.0000;0.1913;7.1895;
1335.3000;0.1905;7.1871;
1335.6000;0.1897;7.1730;
1335.9000;0.1905;7.1707;
1336.2000;0.1888;7.1660;
1336.5000;0.1897;7.1683;
1336.8000;0.1888;7.1613;
1337.1000;0.1921;7.1754;
1337.4000;0.1905;7.1777;
1337.7000;0.1921;7.1824;
1338.0000;0.1921;7.1848;
1338.3000;0.1929;7.1918;
1338.6000;0.1913;7.1824;
1338.9000;0.1905;7.1801;
1339.2000;0.1921;7.1871;
1339.5000;0.1913;7.1871;
1339.8000;0.1929;7.1871;
1340.1000;0.1905;7.1824;
1340.4000;0.1921;7.1824;
1340.7000;0.1937;7.1871;
1341.0000;0.1913;7.1824;
1341.3000;0.1945;7.1895;
1341.6000;0.1921;7.1801;
1341.9000;0.1954;7.1848;
1342.2000;0.1888;7.1707;
1342.5000;0.1897;7.1707;
1342.8000;0.1962;7.1871;
1343.1000;0.1921;7.1754;
1343.4000;0.1905;7.1683;
1343.7000;0.1905;7.1613;
1344.0000;0.1913;7.1613;
1344.3000;0.1921;7.1660;
1344.6000;0.1905;7.1660;
1344.9000;0.1888;7.1495;
1345.2000;0.1921;7.1636;
1345.5000;0.1856;7.1495;
1345.8000;0.1905;7.1683;
1346.1000;0.1880;7.1613;
1346.4000;0.1913;7.1613;
1346.7000;0.1905;7.1495;
1347.0000;0.1937;7.1495;
1347.3000;0.1905;7.1401;
1347.6000;0.1897;7.1354;
1347.9000;0.1970;7.1589;
1348.2000;0.1929;7.1424;
1348.5000;0.1897;7.1307;
1348.8000;0.1905;7.1283;
1349.1000;0.1913;7.1354;
1349.4000;0.1913;7.1424;
1349.7000;0.1864;7.1307;
1350.0000;0.1913;7.1377;
1350.3000;0.1864;7.1377;
1350.6000;0.1913;7.1495;
1350.9000;0.1913;7.1589;
1351.2000;0.1905;7.1566;
1351.5000;0.1905;7.1566;
1351.8000;0.1905;7.1589;
1352.1000;0.1945;7.1636;
1352.4000;0.1921;7.1636;
1352.7000;0.1897;7.1636;
1353.0000;0.1905;7.1754;
1353.3000;0.1913;7.1871;
1353.6000;0.1905;7.1918;
1353.9000;0.1994;7.2036;
1354.2000;0.1913;7.1754;
1354.5000;0.1897;7.1660;
1354.8000;0.1807;7.1401;
1355.1000;0.1913;7.1683;
1355.4000;0.1905;7.1754;
1355.7000;0.1929;7.1801;
1356.0000;0.2011;7.2036;
1356.3000;0.1905;7.1707;
1356.6000;0.1880;7.1613;
1356.9000;0.1913;7.1730;
1357.2000;0.1905;7.1730;
1357.5000;0.1880;7.1589;
1357.8000;0.1913;7.1589;
1358.1000;0.1929;7.1683;
1358.4000;0.1945;7.1730;
1358.7000;0.1913;7.1636;
1359.0000;0.1905;7.1660;
1359.3000;0.1921;7.1707;
1359.6000;0.1921;7.1683;
1359.9000;0.1913;7.1754;
1360.2000;0.1921;7.1730;
1360.5000;0.1913;7.1660;
1360.8000;0.1913;7.1707;
1361.1000;0.1905;7.1707;
1361.4000;0.1954;7.1707;
1361.7000;0.1913;7.1660;
1362.0000;0.1913;7.1566;
1362.3000;0.1888;7.1424;
1362.6000;0.1905;7.1377;
1362.9000;0.1872;7.1283;
1363.2000;0.1945;7.1448;
1363.5000;0.1929;7.1354;
1363.8000;0.1913;7.1307;
1364.1000;0.1921;7.1283;
1364.4000;0.1905;7.1166;
1364.7000;0.1913;7.1166;
1365.0000;0.1929;7.1236;
1365.3000;0.1897;7.1095;
1365.6000;0.1905;7.1213;
1365.9000;0.1913;7.1260;
1366.2000;0.1921;7.1354;
1366.5000;0.1905;7.1330;
1366.8000;0.1954;7.1307;
1367.1000;0.1897;7.1189;
1367.4000;0.1929;7.1307;
1367.7000;0.1807;7.1025;
1368.0000;0.1929;7.1354;
1368.3000;0.1905;7.1401;
1368.6000;0.1872;7.1401;
1368.9000;0.1864;7.1401;
1369.2000;0.1897;7.1472;
1369.5000;0.1888;7.1472;
1369.8000;0.1954;7.1636;
1370.1000;0.1913;7.1542;
1370.4000;0.1880;7.1495;
1370.7000;0.1897;7.1495;
1371.0000;0.1856;7.1448;
1371.3000;0.1905;7.1566;
1371.6000;0.1872;7.1448;
1371.9000;0.1921;7.1566;
1372.2000;0.1929;7.1660;
1372.5000;0.1905;7.1566;
1372.8000;0.1905;7.1613;
1373.1000;0.1897;7.1566;
1373.4000;0.1962;7.1754;
1373.7000;0.1897;7.1589;
1374.0000;0.1888;7.1589;
1374.3000;0.1929;7.1683;
1374.6000;0.1897;7.1636;
1374.9000;0.1905;7.1589;
1375.2000;0.1905;7.1542;
1375.5000;0.1921;7.1636;
1375.8000;0.1954;7.1754;
1376.1000;0.1921;7.1730;
1376.4000;0.1897;7.1707;
1376.7000;0.1945;7.1895;
1377.0000;0.1905;7.1824;
1377.3000;0.1897;7.1801;
1377.6000;0.1921;7.1871;
1377.9000;0.1888;7.1848;
1378.2000;0.1897;7.1848;
1378.5000;0.1913;7.1824;
1378.8000;0.1921;7.1871;
1379.1000;0.1880;7.1730;
1379.4000;0.1905;7.1754;
1379.7000;0.1913;7.1824;
1380.0000;0.1880;7.1801;
1380.3000;0.1905;7.1848;
1380.6000;0.1897;7.1754;
1380.9000;0.1921;7.1801;
1381.2000;0.1897;7.1801;
1381.5000;0.1888;7.1754;
1381.8000;0.1905;7.1754;
1382.1000;0.1913;7.1848;
1382.4000;0.1872;7.1754;
1382.7000;0.1897;7.1754;
1383.0000;0.1872;7.1730;
1383.3000;0.1888;7.1801;
1383.6000;0.1921;7.1824;
1383.9000;0.1897;7.1754;
1384.2000;0.1929;7.1871;
1384.5000;0.1888;7.1683;
1384.8000;0.1913;7.1777;
1385.1000;0.1888;7.1730;
1385.4000;0.1872;7.1707;
1385.7000;0.1864;7.1660;
1386.0000;0.1905;7.1683;
1386.3000;0.1905;7.1636;
1386.6000;0.1921;7.1566;
1386.9000;0.1905;7.1566;
1387.2000;0.1978;7.1801;
1387.5000;0.1913;7.1589;
1387.8000;0.1897;7.1730;
1388.1000;0.1856;7.1660;
1388.4000;0.1897;7.1754;
1388.7000;0.1913;7.1848;
1389.0000;0.1945;7.1965;
1389.3000;0.1905;7.1918;
1389.6000;0.1937;7.2012;
1389.9000;0.1905;7.1989;
1390.2000;0.1921;7.2012;
1390.5000;0.1929;7.1965;
1390.8000;0.1897;7.1918;
1391.1000;0.1888;7.1895;
1391.4000;0.1872;7.1871;
1391.7000;0.1913;7.1918;
1392.0000;0.1888;7.1824;
1392.3000;0.1897;7.1754;
1392.6000;0.1905;7.1777;
1392.9000;0.1897;7.1777;
1393.2000;0.1880;7.1707;
1393.5000;0.1945;7.1754;
1393.8000;0.1905;7.1636;
1394.1000;0.1905;7.1707;
1394.4000;0.1856;7.1566;
1394.7000;0.1905;7.1613;
1395.0000;0.1905;7.1613;
1395.3000;0.1921;7.1683;
1395.6000;0.1888;7.1636;
1395.9000;0.1880;7.1660;
1396.2000;0.1897;7.1683;
1396.5000;0.1905;7.1707;
1396.8000;0.1888;7.1613;
1397.1000;0.1897;7.1566;
1397.4000;0.1897;7.1495;
1397.7000;0.1905;7.1542;
1398.0000;0.1897;7.1542;
1398.3000;0.1913;7.1519;
1398.6000;0.1888;7.1519;
1398.9000;0.1905;7.1519;
1399.2000;0.1897;7.1589;
1399.5000;0.1872;7.1495;
1399.8000;0.1905;7.1566;
