time/ms;Fluo/V;P700 deltaI/I x10³;
-199.8000;0.2019;7.1213;
-199.5000;0.2011;7.1283;
-199.2000;0.2011;7.1236;
-198.9000;0.1994;7.1189;
-198.6000;0.2011;7.1213;
-198.3000;0.2002;7.1048;
-198.0000;0.1994;7.1072;
-197.7000;0.2019;7.1095;
-197.4000;0.2019;7.1142;
-197.1000;0.2035;7.1189;
-196.8000;0.2011;7.1142;
-196.5000;0.1994;7.1142;
-196.2000;0.2011;7.1213;
-195.9000;0.2035;7.1260;
-195.6000;0.2027;7.1142;
-195.3000;0.2027;7.1189;
-195.0000;0.2019;7.1189;
-194.7000;0.2035;7.1260;
-194.4000;0.2027;7.1236;
-194.1000;0.2011;7.1307;
-193.8000;0.2019;7.1260;
-193.5000;0.2019;7.1283;
-193.2000;0.2011;7.1236;
-192.9000;0.2002;7.1213;
-192.6000;0.1986;7.1189;
-192.3000;0.2011;7.1307;
-192.0000;0.2011;7.1283;
-191.7000;0.2002;7.1236;
-191.4000;0.2011;7.1166;
-191.1000;0.2002;7.1119;
-190.8000;0.2019;7.1189;
-190.5000;0.2019;7.1283;
-190.2000;0.2011;7.1354;
-189.9000;0.2011;7.1330;
-189.6000;0.2011;7.1307;
-189.3000;0.2027;7.1377;
-189.0000;0.2027;7.1330;
-188.7000;0.2011;7.1260;
-188.4000;0.2027;7.1189;
-188.1000;0.2027;7.1236;
-187.8000;0.2035;7.1307;
-187.5000;0.2100;7.1495;
-187.2000;0.1994;7.1260;
-186.9000;0.2011;7.1166;
-186.6000;0.1994;7.1119;
-186.3000;0.2002;7.1095;
-186.0000;0.2019;7.1095;
-185.7000;0.2035;7.1166;
-185.4000;0.2011;7.1072;
-185.1000;0.2019;7.1142;
-184.8000;0.2019;7.1142;
-184.5000;0.2035;7.1283;
-184.2000;0.2027;7.1283;
-183.9000;0.1994;7.1213;
-183.6000;0.2011;7.1213;
-183.3000;0.2002;7.1236;
-183.0000;0.2019;7.1283;
-182.7000;0.2019;7.1283;
-182.4000;0.1986;7.1189;
-182.1000;0.1986;7.1189;
-181.8000;0.1986;7.1166;
-181.5000;0.2002;7.1330;
-181.2000;0.1994;7.1236;
-180.9000;0.2011;7.1260;
-180.6000;0.2002;7.1260;
-180.3000;0.2011;7.1283;
-180.0000;0.2002;7.1213;
-179.7000;0.2011;7.1260;
-179.4000;0.2035;7.1354;
-179.1000;0.2011;7.1260;
-178.8000;0.2002;7.1330;
-178.5000;0.2002;7.1236;
-178.2000;0.2011;7.1213;
-177.9000;0.2011;7.1189;
-177.6000;0.1994;7.1142;
-177.3000;0.2002;7.1119;
-177.0000;0.2002;7.1095;
-176.7000;0.2002;7.1025;
-176.4000;0.2002;7.1072;
-176.1000;0.1994;7.1095;
-175.8000;0.2011;7.1142;
-175.5000;0.1978;7.1095;
-175.2000;0.2011;7.1236;
-174.9000;0.2002;7.1307;
-174.6000;0.2011;7.1283;
-174.3000;0.2002;7.1330;
-174.0000;0.2011;7.1330;
-173.7000;0.2002;7.1260;
-173.4000;0.2011;7.1283;
-173.1000;0.1994;7.1236;
-172.8000;0.1994;7.1213;
-172.5000;0.2011;7.1189;
-172.2000;0.1986;7.1095;
-171.9000;0.2002;7.1142;
-171.6000;0.1978;7.1095;
-171.3000;0.1994;7.1166;
-171.0000;0.1994;7.1166;
-170.7000;0.2002;7.1166;
-170.4000;0.2019;7.1189;
-170.1000;0.2011;7.1213;
-169.8000;0.2019;7.1213;
-169.5000;0.2002;7.1095;
-169.2000;0.2027;7.1119;
-168.9000;0.2002;7.0931;
-168.6000;0.1994;7.0907;
-168.3000;0.2002;7.0954;
-168.0000;0.2011;7.1048;
-167.7000;0.2002;7.1001;
-167.4000;0.2076;7.1283;
-167.1000;0.2068;7.1283;
-166.8000;0.2002;7.1072;
-166.5000;0.2002;7.1189;
-166.2000;0.1994;7.1095;
-165.9000;0.1994;7.1142;
-165.6000;0.2011;7.1213;
-165.3000;0.2011;7.1283;
-165.0000;0.1994;7.1307;
-164.7000;0.2002;7.1354;
-164.4000;0.2011;7.1307;
-164.1000;0.2027;7.1283;
-163.8000;0.2019;7.1213;
-163.5000;0.2011;7.1189;
-163.2000;0.2019;7.1142;
-162.9000;0.2027;7.1119;
-162.6000;0.2011;7.1119;
-162.3000;0.2002;7.1119;
-162.0000;0.1994;7.1095;
-161.7000;0.2011;7.1142;
-161.4000;0.2019;7.1119;
-161.1000;0.1962;7.1025;
-160.8000;0.2019;7.1213;
-160.5000;0.2019;7.1283;
-160.2000;0.2002;7.1236;
-159.9000;0.2019;7.1260;
-159.6000;0.2027;7.1307;
-159.3000;0.2027;7.1330;
-159.0000;0.2011;7.1307;
-158.7000;0.2019;7.1283;
-158.4000;0.2011;7.1142;
-158.1000;0.2011;7.1142;
-157.8000;0.2019;7.1260;
-157.5000;0.2035;7.1260;
-157.2000;0.2027;7.1260;
-156.9000;0.2002;7.1260;
-156.6000;0.2011;7.1283;
-156.3000;0.2019;7.1283;
-156.0000;0.2027;7.1260;
-155.7000;0.2043;7.1260;
-155.4000;0.1994;7.1095;
-155.1000;0.2011;7.1119;
-154.8000;0.2011;7.1095;
-154.5000;0.2002;7.1119;
-154.2000;0.2019;7.1189;
-153.9000;0.2019;7.1283;
-153.6000;0.2019;7.1283;
-153.3000;0.2035;7.1142;
-153.0000;0.2019;7.1142;
-152.7000;0.2027;7.1142;
-152.4000;0.2011;7.1119;
-152.1000;0.2019;7.1236;
-151.8000;0.2019;7.1189;
-151.5000;0.2035;7.1283;
-151.2000;0.2059;7.1236;
-150.9000;0.2019;7.1166;
-150.6000;0.2002;7.1142;
-150.3000;0.2084;7.1377;
-150.0000;0.2019;7.1189;
-149.7000;0.2011;7.1213;
-149.4000;0.2011;7.1189;
-149.1000;0.2027;7.1166;
-148.8000;0.2019;7.1166;
-148.5000;0.2019;7.1119;
-148.2000;0.1986;7.1095;
-147.9000;0.2002;7.1142;
-147.6000;0.2019;7.1095;
-147.3000;0.2011;7.1048;
-147.0000;0.2068;7.1072;
-146.7000;0.2011;7.0931;
-146.4000;0.2002;7.0954;
-146.1000;0.1994;7.0931;
-145.8000;0.2002;7.0931;
-145.5000;0.2011;7.1048;
-145.2000;0.1994;7.0978;
-144.9000;0.2011;7.1001;
-144.6000;0.2011;7.1142;
-144.3000;0.2011;7.1166;
-144.0000;0.2002;7.1166;
-143.7000;0.2019;7.1142;
-143.4000;0.2019;7.1048;
-143.1000;0.1921;7.0813;
-142.8000;0.2027;7.1072;
-142.5000;0.2002;7.1095;
-142.2000;0.1905;7.0813;
-141.9000;0.2011;7.0954;
-141.6000;0.1994;7.0907;
-141.3000;0.1978;7.0907;
-141.0000;0.1994;7.0837;
-140.7000;0.1994;7.0742;
-140.4000;0.2019;7.0884;
-140.1000;0.1986;7.0789;
-139.8000;0.2027;7.0813;
-139.5000;0.1986;7.0766;
-139.2000;0.2002;7.0813;
-138.9000;0.2019;7.0837;
-138.6000;0.2043;7.0978;
-138.3000;0.2068;7.1119;
-138.0000;0.2027;7.1142;
-137.7000;0.2011;7.1166;
-137.4000;0.2019;7.1189;
-137.1000;0.2027;7.1119;
-136.8000;0.2002;7.1119;
-136.5000;0.2011;7.1189;
-136.2000;0.2027;7.1330;
-135.9000;0.2002;7.1260;
-135.6000;0.2019;7.1260;
-135.3000;0.2027;7.1307;
-135.0000;0.2002;7.1213;
-134.7000;0.2011;7.1236;
-134.4000;0.2027;7.1283;
-134.1000;0.1994;7.1095;
-133.8000;0.2011;7.1119;
-133.5000;0.2035;7.1048;
-133.2000;0.2002;7.0954;
-132.9000;0.1994;7.0884;
-132.6000;0.2002;7.0860;
-132.3000;0.2019;7.0884;
-132.0000;0.2051;7.0978;
-131.7000;0.2002;7.0884;
-131.4000;0.2011;7.0907;
-131.1000;0.1994;7.1048;
-130.8000;0.1994;7.1072;
-130.5000;0.2051;7.1236;
-130.2000;0.2002;7.1166;
-129.9000;0.1905;7.0978;
-129.6000;0.2002;7.1236;
-129.3000;0.1986;7.1236;
-129.0000;0.2019;7.1189;
-128.7000;0.2019;7.1189;
-128.4000;0.2002;7.1119;
-128.1000;0.2019;7.1260;
-127.8000;0.2002;7.1283;
-127.5000;0.1986;7.1213;
-127.2000;0.2002;7.1142;
-126.9000;0.2011;7.1166;
-126.6000;0.1994;7.1142;
-126.3000;0.2011;7.1142;
-126.0000;0.2019;7.1072;
-125.7000;0.2027;7.1001;
-125.4000;0.2011;7.1072;
-125.1000;0.2019;7.1095;
-124.8000;0.2035;7.1189;
-124.5000;0.2035;7.1213;
-124.2000;0.2019;7.1119;
-123.9000;0.2011;7.1072;
-123.6000;0.2043;7.1236;
-123.3000;0.2035;7.1166;
-123.0000;0.2002;7.1236;
-122.7000;0.2011;7.1260;
-122.4000;0.2011;7.1260;
-122.1000;0.2019;7.1260;
-121.8000;0.2011;7.1260;
-121.5000;0.2002;7.1189;
-121.2000;0.2027;7.1189;
-120.9000;0.2011;7.1142;
-120.6000;0.1970;7.1001;
-120.3000;0.2019;7.1072;
-120.0000;0.2027;7.1095;
-119.7000;0.2019;7.1142;
-119.4000;0.2019;7.1095;
-119.1000;0.2027;7.1142;
-118.8000;0.2019;7.1072;
-118.5000;0.2035;7.1095;
-118.2000;0.2043;7.1166;
-117.9000;0.2002;7.1213;
-117.6000;0.2027;7.1119;
-117.3000;0.2027;7.1072;
-117.0000;0.2011;7.1048;
-116.7000;0.2019;7.1095;
-116.4000;0.2002;7.1001;
-116.1000;0.2019;7.1119;
-115.8000;0.2035;7.1142;
-115.5000;0.2035;7.1166;
-115.2000;0.2002;7.1142;
-114.9000;0.1978;7.1166;
-114.6000;0.2011;7.1260;
-114.3000;0.2011;7.1236;
-114.0000;0.2011;7.1213;
-113.7000;0.2011;7.1283;
-113.4000;0.2011;7.1213;
-113.1000;0.1994;7.1142;
-112.8000;0.1994;7.1072;
-112.5000;0.2011;7.1213;
-112.2000;0.2011;7.1236;
-111.9000;0.2035;7.1236;
-111.6000;0.2011;7.1213;
-111.3000;0.2051;7.1330;
-111.0000;0.2043;7.1307;
-110.7000;0.2002;7.1213;
-110.4000;0.1986;7.1189;
-110.1000;0.2019;7.1330;
-109.8000;0.1994;7.1260;
-109.5000;0.2019;7.1307;
-109.2000;0.2027;7.1307;
-108.9000;0.2027;7.1283;
-108.6000;0.2002;7.1236;
-108.3000;0.2035;7.1260;
-108.0000;0.2002;7.1236;
-107.7000;0.2027;7.1401;
-107.4000;0.2019;7.1424;
-107.1000;0.1962;7.1354;
-106.8000;0.1929;7.1213;
-106.5000;0.2027;7.1330;
-106.2000;0.2027;7.1330;
-105.9000;0.1994;7.1236;
-105.6000;0.2002;7.1236;
-105.3000;0.2011;7.1213;
-105.0000;0.1986;7.1119;
-104.7000;0.1994;7.1260;
-104.4000;0.2011;7.1260;
-104.1000;0.1986;7.1189;
-103.8000;0.2002;7.1119;
-103.5000;0.2002;7.1119;
-103.2000;0.2019;7.1119;
-102.9000;0.2011;7.1025;
-102.6000;0.2011;7.1072;
-102.3000;0.2002;7.1095;
-102.0000;0.2002;7.1072;
-101.7000;0.2002;7.1072;
-101.4000;0.1945;7.0813;
-101.1000;0.2011;7.1048;
-100.8000;0.2002;7.1072;
-100.5000;0.1994;7.1048;
-100.2000;0.2002;7.1072;
-99.9000;0.2002;7.1001;
-99.6000;0.1994;7.0954;
-99.3000;0.2002;7.0978;
-99.0000;0.2035;7.1095;
-98.7000;0.2027;7.1048;
-98.4000;0.2027;7.1072;
-98.1000;0.2011;7.1166;
-97.8000;0.2019;7.1213;
-97.5000;0.2011;7.1166;
-97.2000;0.2002;7.1166;
-96.9000;0.2019;7.1166;
-96.6000;0.2002;7.1119;
-96.3000;0.1994;7.1166;
-96.0000;0.1962;7.1095;
-95.7000;0.1994;7.1166;
-95.4000;0.1986;7.1072;
-95.1000;0.1945;7.1001;
-94.8000;0.1994;7.1095;
-94.5000;0.1986;7.1025;
-94.2000;0.2011;7.1142;
-93.9000;0.2011;7.1142;
-93.6000;0.2011;7.1119;
-93.3000;0.2035;7.1095;
-93.0000;0.2011;7.1142;
-92.7000;0.1994;7.1025;
-92.4000;0.2076;7.1213;
-92.1000;0.1994;7.1095;
-91.8000;0.1970;7.1166;
-91.5000;0.1994;7.1213;
-91.2000;0.2011;7.1189;
-90.9000;0.2027;7.1260;
-90.6000;0.1994;7.1307;
-90.3000;0.2043;7.1213;
-90.0000;0.2011;7.1072;
-89.7000;0.1994;7.0978;
-89.4000;0.1913;7.0837;
-89.1000;0.2002;7.1072;
-88.8000;0.2019;7.1072;
-88.5000;0.2059;7.1142;
-88.2000;0.1986;7.0860;
-87.9000;0.2019;7.1001;
-87.6000;0.1994;7.0907;
-87.3000;0.1921;7.0837;
-87.0000;0.2027;7.1095;
-86.7000;0.2011;7.0978;
-86.4000;0.1994;7.0931;
-86.1000;0.2011;7.1001;
-85.8000;0.1994;7.1048;
-85.5000;0.2002;7.1095;
-85.2000;0.2011;7.1048;
-84.9000;0.2002;7.1142;
-84.6000;0.2002;7.1142;
-84.3000;0.2019;7.1142;
-84.0000;0.2035;7.1189;
-83.7000;0.2076;7.1283;
-83.4000;0.2002;7.1166;
-83.1000;0.2059;7.1330;
-82.8000;0.1986;7.1166;
-82.5000;0.2011;7.1213;
-82.2000;0.1994;7.1189;
-81.9000;0.1994;7.1189;
-81.6000;0.2002;7.1307;
-81.3000;0.2027;7.1330;
-81.0000;0.2011;7.1236;
-80.7000;0.2019;7.1189;
-80.4000;0.1970;7.1142;
-80.1000;0.2011;7.1330;
-79.8000;0.1994;7.1260;
-79.5000;0.2019;7.1377;
-79.2000;0.1986;7.1330;
-78.9000;0.2027;7.1354;
-78.6000;0.1986;7.1213;
-78.3000;0.2002;7.1189;
-78.0000;0.2011;7.1283;
-77.7000;0.2011;7.1119;
-77.4000;0.2002;7.1072;
-77.1000;0.2011;7.1072;
-76.8000;0.2011;7.0978;
-76.5000;0.2002;7.0978;
-76.2000;0.2051;7.1119;
-75.9000;0.1970;7.0931;
-75.6000;0.1994;7.0954;
-75.3000;0.2011;7.1072;
-75.0000;0.2019;7.1119;
-74.7000;0.2011;7.1119;
-74.4000;0.2011;7.1142;
-74.1000;0.2011;7.1095;
-73.8000;0.1962;7.0907;
-73.5000;0.2019;7.1025;
-73.2000;0.2002;7.1001;
-72.9000;0.2002;7.1025;
-72.6000;0.2035;7.1072;
-72.3000;0.2051;7.1072;
-72.0000;0.2011;7.1072;
-71.7000;0.1994;7.0978;
-71.4000;0.1994;7.0954;
-71.1000;0.1978;7.0884;
-70.8000;0.2002;7.1001;
-70.5000;0.2019;7.1001;
-70.2000;0.2002;7.0884;
-69.9000;0.2011;7.0931;
-69.6000;0.1897;7.0813;
-69.3000;0.2084;7.1330;
-69.0000;0.2035;7.1260;
-68.7000;0.2011;7.1166;
-68.4000;0.2051;7.1213;
-68.1000;0.1994;7.1025;
-67.8000;0.2011;7.1048;
-67.5000;0.2027;7.1001;
-67.2000;0.2019;7.1119;
-66.9000;0.2002;7.1119;
-66.6000;0.2019;7.1166;
-66.3000;0.2116;7.1472;
-66.0000;0.2043;7.1260;
-65.7000;0.2027;7.1189;
-65.4000;0.2027;7.1142;
-65.1000;0.2027;7.1166;
-64.8000;0.2011;7.1095;
-64.5000;0.1994;7.1001;
-64.2000;0.2027;7.1095;
-63.9000;0.2027;7.1142;
-63.6000;0.2011;7.1095;
-63.3000;0.2068;7.1260;
-63.0000;0.2019;7.1166;
-62.7000;0.2019;7.1236;
-62.4000;0.2011;7.1119;
-62.1000;0.2027;7.1189;
-61.8000;0.2002;7.1142;
-61.5000;0.2035;7.1189;
-61.2000;0.2011;7.1119;
-60.9000;0.1994;7.0978;
-60.6000;0.2100;7.1307;
-60.3000;0.2019;7.1072;
-60.0000;0.2027;7.1142;
-59.7000;0.2027;7.1166;
-59.4000;0.2019;7.1142;
-59.1000;0.2002;7.1001;
-58.8000;0.2011;7.1048;
-58.5000;0.2076;7.1119;
-58.2000;0.2019;7.0954;
-57.9000;0.2011;7.0931;
-57.6000;0.2002;7.0884;
-57.3000;0.1986;7.0813;
-57.0000;0.2011;7.0931;
-56.7000;0.2011;7.1048;
-56.4000;0.2002;7.1119;
-56.1000;0.2002;7.1166;
-55.8000;0.2002;7.1025;
-55.5000;0.2002;7.1025;
-55.2000;0.2011;7.1095;
-54.9000;0.2027;7.1119;
-54.6000;0.2011;7.1072;
-54.3000;0.1978;7.0954;
-54.0000;0.1994;7.0954;
-53.7000;0.2051;7.1095;
-53.4000;0.2059;7.1025;
-53.1000;0.2011;7.0978;
-52.8000;0.2002;7.0954;
-52.5000;0.2002;7.0931;
-52.2000;0.1994;7.0907;
-51.9000;0.1994;7.0954;
-51.6000;0.1994;7.1001;
-51.3000;0.2027;7.1048;
-51.0000;0.1978;7.0907;
-50.7000;0.1986;7.0978;
-50.4000;0.1986;7.0954;
-50.1000;0.2019;7.0954;
-49.8000;0.2011;7.0954;
-49.5000;0.2002;7.0907;
-49.2000;0.2092;7.1072;
-48.9000;0.2011;7.0931;
-48.6000;0.2059;7.1072;
-48.3000;0.2027;7.1072;
-48.0000;0.2011;7.0978;
-47.7000;0.2011;7.1025;
-47.4000;0.2068;7.1213;
-47.1000;0.2027;7.1189;
-46.8000;0.1986;7.1166;
-46.5000;0.1978;7.1119;
-46.2000;0.2002;7.1095;
-45.9000;0.2019;7.1166;
-45.6000;0.2011;7.1095;
-45.3000;0.2035;7.1048;
-45.0000;0.2011;7.0907;
-44.7000;0.2011;7.0813;
-44.4000;0.2051;7.0931;
-44.1000;0.1994;7.0766;
-43.8000;0.1986;7.0742;
-43.5000;0.2011;7.0719;
-43.2000;0.2002;7.0672;
-42.9000;0.1986;7.0766;
-42.6000;0.2011;7.0907;
-42.3000;0.2019;7.0931;
-42.0000;0.2002;7.1025;
-41.7000;0.2011;7.1025;
-41.4000;0.1986;7.1025;
-41.1000;0.1994;7.0978;
-40.8000;0.2002;7.0954;
-40.5000;0.2002;7.1048;
-40.2000;0.2002;7.1072;
-39.9000;0.2019;7.1189;
-39.6000;0.2019;7.1189;
-39.3000;0.2019;7.1142;
-39.0000;0.2002;7.1048;
-38.7000;0.2011;7.1001;
-38.4000;0.1986;7.1001;
-38.1000;0.2019;7.1072;
-37.8000;0.2019;7.0978;
-37.5000;0.2002;7.0931;
-37.2000;0.2027;7.0954;
-36.9000;0.2019;7.1048;
-36.6000;0.2019;7.1119;
-36.3000;0.2002;7.1072;
-36.0000;0.1954;7.0954;
-35.7000;0.2059;7.1119;
-35.4000;0.2019;7.1048;
-35.1000;0.2002;7.1095;
-34.8000;0.2011;7.1119;
-34.5000;0.1978;7.1025;
-34.2000;0.2035;7.1095;
-33.9000;0.2027;7.1072;
-33.6000;0.2002;7.1048;
-33.3000;0.2035;7.1095;
-33.0000;0.2035;7.1048;
-32.7000;0.2011;7.1048;
-32.4000;0.2027;7.1095;
-32.1000;0.1921;7.0884;
-31.8000;0.2002;7.1142;
-31.5000;0.2019;7.1142;
-31.2000;0.2011;7.1119;
-30.9000;0.2002;7.1095;
-30.6000;0.2011;7.1142;
-30.3000;0.1962;7.1025;
-30.0000;0.2011;7.1048;
-29.7000;0.2011;7.1072;
-29.4000;0.1937;7.1048;
-29.1000;0.2011;7.1283;
-28.8000;0.2002;7.1236;
-28.5000;0.2011;7.1213;
-28.2000;0.2125;7.1495;
-27.9000;0.2027;7.1260;
-27.6000;0.2019;7.1283;
-27.3000;0.2011;7.1142;
-27.0000;0.2019;7.1095;
-26.7000;0.2002;7.0954;
-26.4000;0.1994;7.0931;
-26.1000;0.1986;7.0860;
-25.8000;0.2002;7.0954;
-25.5000;0.2002;7.0931;
-25.2000;0.2019;7.1001;
-24.9000;0.2011;7.1001;
-24.6000;0.2011;7.1142;
-24.3000;0.2027;7.1189;
-24.0000;0.2002;7.1048;
-23.7000;0.2011;7.1025;
-23.4000;0.2019;7.1025;
-23.1000;0.2002;7.1025;
-22.8000;0.2002;7.1001;
-22.5000;0.2019;7.1119;
-22.2000;0.2019;7.1095;
-21.9000;0.2002;7.1072;
-21.6000;0.2011;7.1142;
-21.3000;0.1994;7.1072;
-21.0000;0.2011;7.1048;
-20.7000;0.2035;7.1213;
-20.4000;0.2002;7.1095;
-20.1000;0.2068;7.1307;
-19.8000;0.2011;7.1166;
-19.5000;0.1921;7.0931;
-19.2000;0.1970;7.1119;
-18.9000;0.2011;7.1142;
-18.6000;0.2019;7.1072;
-18.3000;0.2019;7.1119;
-18.0000;0.2043;7.1260;
-17.7000;0.1937;7.1072;
-17.4000;0.2011;7.1307;
-17.1000;0.2011;7.1213;
-16.8000;0.1994;7.1189;
-16.5000;0.2002;7.1166;
-16.2000;0.1978;7.1025;
-15.9000;0.1986;7.1025;
-15.6000;0.2027;7.1048;
-15.3000;0.2011;7.1072;
-15.0000;0.1986;7.1048;
-14.7000;0.2027;7.1166;
-14.4000;0.2002;7.1166;
-14.1000;0.1970;7.1072;
-13.8000;0.2019;7.1166;
-13.5000;0.1954;7.1025;
-13.2000;0.2027;7.1189;
-12.9000;0.2027;7.1166;
-12.6000;0.2035;7.1142;
-12.3000;0.2011;7.1142;
-12.0000;0.2027;7.1142;
-11.7000;0.1986;7.1025;
-11.4000;0.2019;7.1095;
-11.1000;0.2002;7.1095;
-10.8000;0.2011;7.1213;
-10.5000;0.2011;7.1236;
-10.2000;0.2027;7.1236;
-9.9000;0.2011;7.1166;
-9.6000;0.2043;7.1142;
-9.3000;0.2043;7.1189;
-9.0000;0.2133;7.1424;
-8.7000;0.2019;7.1119;
-8.4000;0.1994;7.1072;
-8.1000;0.2019;7.1119;
-7.8000;0.2011;7.1189;
-7.5000;0.2019;7.1236;
-7.2000;0.2027;7.1213;
-6.9000;0.1954;7.1048;
-6.6000;0.2011;7.1213;
-6.3000;0.2092;7.1519;
-6.0000;0.1978;7.1260;
-5.7000;0.1978;7.1236;
-5.4000;0.2027;7.1260;
-5.1000;0.2011;7.1142;
-4.8000;0.1913;7.0884;
-4.5000;0.2002;7.1048;
-4.2000;0.2059;7.1142;
-3.9000;0.1945;7.0766;
-3.6000;0.2035;7.1025;
-3.3000;0.2027;7.1025;
-3.0000;0.2019;7.1072;
-2.7000;0.2027;7.1119;
-2.4000;0.2019;7.1072;
-2.1000;0.2002;7.0978;
-1.8000;0.2011;7.1095;
-1.5000;0.1978;7.1166;
-1.2000;0.2027;7.1377;
-0.9000;0.1994;7.1283;
-0.6000;0.1962;7.1119;
-0.3000;0.1856;7.0837;
0.0000;0.1856;7.0837;
0.3000;0.2059;7.0813;
0.6000;0.2190;7.1048;
0.9000;0.2304;7.1260;
1.2000;0.2401;7.1448;
1.5000;0.2499;7.1730;
1.8000;0.2540;7.1942;
2.1000;0.2613;7.2201;
2.4000;0.2637;7.2318;
2.7000;0.2751;7.2694;
3.0000;0.2759;7.2859;
3.3000;0.2694;7.2671;
3.6000;0.2702;7.2741;
3.9000;0.2702;7.2812;
4.2000;0.2670;7.2812;
4.5000;0.2792;7.3212;
4.8000;0.2751;7.3094;
5.1000;0.2768;7.3165;
5.4000;0.2759;7.3071;
5.7000;0.2743;7.3094;
6.0000;0.2727;7.3141;
6.3000;0.2751;7.3212;
6.6000;0.2768;7.3094;
6.9000;0.2751;7.3094;
7.2000;0.2776;7.3094;
7.5000;0.2759;7.3141;
7.8000;0.2784;7.3188;
8.1000;0.2735;7.3141;
8.4000;0.2792;7.3212;
8.7000;0.2792;7.3188;
9.0000;0.2784;7.3094;
9.3000;0.2792;7.3118;
9.6000;0.2792;7.3071;
9.9000;0.2792;7.3188;
10.2000;0.2833;7.3188;
10.5000;0.2751;7.2953;
10.8000;0.2816;7.3094;
11.1000;0.2841;7.3212;
11.4000;0.2849;7.3282;
11.7000;0.2825;7.3212;
12.0000;0.2849;7.3282;
12.3000;0.2849;7.3188;
12.6000;0.2816;7.3212;
12.9000;0.2857;7.3282;
13.2000;0.2873;7.3282;
13.5000;0.2849;7.3259;
13.8000;0.2873;7.3235;
14.1000;0.2906;7.3282;
14.4000;0.2873;7.3165;
14.7000;0.2873;7.3282;
15.0000;0.2857;7.3282;
15.3000;0.2882;7.3259;
15.6000;0.2882;7.3235;
15.9000;0.2882;7.3259;
16.2000;0.2873;7.3188;
16.5000;0.2898;7.3282;
16.8000;0.2890;7.3165;
17.1000;0.2906;7.3235;
17.4000;0.2890;7.3212;
17.7000;0.2890;7.3165;
18.0000;0.2865;7.3165;
18.3000;0.2882;7.3165;
18.6000;0.2906;7.3235;
18.9000;0.2906;7.3353;
19.2000;0.2898;7.3329;
19.5000;0.2890;7.3235;
19.8000;0.2914;7.3235;
20.1000;0.2914;7.3306;
20.4000;0.2890;7.3141;
20.7000;0.2963;7.3376;
21.0000;0.2882;7.3282;
21.3000;0.2930;7.3353;
21.6000;0.2947;7.3400;
21.9000;0.2939;7.3329;
22.2000;0.2939;7.3353;
22.5000;0.2996;7.3471;
22.8000;0.2873;7.3188;
23.1000;0.2922;7.3329;
23.4000;0.2947;7.3353;
23.7000;0.2987;7.3447;
24.0000;0.2971;7.3259;
24.3000;0.2939;7.3165;
24.6000;0.2882;7.3071;
24.9000;0.2939;7.3212;
25.2000;0.2890;7.3047;
25.5000;0.2906;7.3118;
25.8000;0.2914;7.3165;
26.1000;0.2922;7.3118;
26.4000;0.2971;7.3165;
26.7000;0.3053;7.3447;
27.0000;0.2963;7.3212;
27.3000;0.2963;7.3188;
27.6000;0.2971;7.3235;
27.9000;0.2971;7.3188;
28.2000;0.3036;7.3306;
28.5000;0.2963;7.3118;
28.8000;0.2971;7.3047;
29.1000;0.2987;7.3165;
29.4000;0.3020;7.3282;
29.7000;0.2971;7.3188;
30.0000;0.2996;7.3212;
30.3000;0.3004;7.3353;
30.6000;0.3012;7.3400;
30.9000;0.3004;7.3447;
31.2000;0.3020;7.3518;
31.5000;0.2979;7.3353;
31.8000;0.3012;7.3447;
32.1000;0.3028;7.3447;
32.4000;0.3028;7.3424;
32.7000;0.2996;7.3376;
33.0000;0.2996;7.3494;
33.3000;0.2987;7.3306;
33.6000;0.3028;7.3376;
33.9000;0.3028;7.3306;
34.2000;0.3053;7.3282;
34.5000;0.3044;7.3165;
34.8000;0.3053;7.3094;
35.1000;0.3044;7.3071;
35.4000;0.3036;7.3047;
35.7000;0.3020;7.3024;
36.0000;0.3036;7.3071;
36.3000;0.3053;7.2977;
36.6000;0.3053;7.3000;
36.9000;0.3044;7.2930;
37.2000;0.3036;7.3000;
37.5000;0.3036;7.3024;
37.8000;0.3061;7.3000;
38.1000;0.3061;7.3071;
38.4000;0.3044;7.3000;
38.7000;0.3142;7.3188;
39.0000;0.3044;7.3071;
39.3000;0.3044;7.3165;
39.6000;0.3085;7.3329;
39.9000;0.3069;7.3329;
40.2000;0.3053;7.3259;
40.5000;0.3061;7.3259;
40.8000;0.3053;7.3306;
41.1000;0.3061;7.3353;
41.4000;0.3093;7.3353;
41.7000;0.2979;7.3165;
42.0000;0.3077;7.3329;
42.3000;0.3053;7.3235;
42.6000;0.3061;7.3094;
42.9000;0.3077;7.3141;
43.2000;0.3085;7.3165;
43.5000;0.3118;7.3235;
43.8000;0.3077;7.3141;
44.1000;0.3077;7.3118;
44.4000;0.3142;7.3282;
44.7000;0.3069;7.3094;
45.0000;0.3085;7.3071;
45.3000;0.3085;7.3118;
45.6000;0.3134;7.3118;
45.9000;0.3109;7.3094;
46.2000;0.3077;7.3000;
46.5000;0.3036;7.2953;
46.8000;0.3118;7.3071;
47.1000;0.3126;7.3094;
47.4000;0.3077;7.3047;
47.7000;0.3126;7.3165;
48.0000;0.3093;7.3047;
48.3000;0.3101;7.3024;
48.6000;0.3109;7.3071;
48.9000;0.3069;7.2836;
49.2000;0.3101;7.2930;
49.5000;0.3101;7.2859;
49.8000;0.3093;7.2836;
50.1000;0.3036;7.2694;
50.4000;0.3093;7.2883;
50.7000;0.3207;7.3212;
51.0000;0.3183;7.3188;
51.3000;0.3109;7.3047;
51.6000;0.3109;7.3024;
51.9000;0.3118;7.3141;
52.2000;0.3101;7.3000;
52.5000;0.3109;7.3000;
52.8000;0.3118;7.2953;
53.1000;0.3101;7.2953;
53.4000;0.3118;7.3000;
53.7000;0.3134;7.3024;
54.0000;0.3118;7.3047;
54.3000;0.3118;7.3118;
54.6000;0.3142;7.3165;
54.9000;0.3101;7.3165;
55.2000;0.3101;7.3235;
55.5000;0.3101;7.3188;
55.8000;0.3109;7.3235;
56.1000;0.3126;7.3259;
56.4000;0.3109;7.3282;
56.7000;0.3142;7.3259;
57.0000;0.3142;7.3259;
57.3000;0.3101;7.3071;
57.6000;0.3118;7.3188;
57.9000;0.3134;7.3212;
58.2000;0.3134;7.3141;
58.5000;0.3134;7.2977;
58.8000;0.3118;7.2930;
59.1000;0.3134;7.3000;
59.4000;0.3142;7.3094;
59.7000;0.3126;7.3118;
60.0000;0.3134;7.3141;
60.3000;0.3134;7.3024;
60.6000;0.3150;7.3094;
60.9000;0.3134;7.3094;
61.2000;0.3134;7.2953;
61.5000;0.3142;7.2953;
61.8000;0.3134;7.3000;
62.1000;0.3109;7.2977;
62.4000;0.3150;7.3071;
62.7000;0.3118;7.3071;
63.0000;0.3134;7.3141;
63.3000;0.3183;7.3259;
63.6000;0.3101;7.3047;
63.9000;0.3150;7.3071;
64.2000;0.3150;7.3071;
64.5000;0.3142;7.2953;
64.8000;0.3158;7.2930;
65.1000;0.3150;7.2883;
65.4000;0.3126;7.2883;
65.7000;0.3142;7.3000;
66.0000;0.3150;7.3024;
66.3000;0.3166;7.3000;
66.6000;0.3142;7.2953;
66.9000;0.3142;7.3000;
67.2000;0.3166;7.3000;
67.5000;0.3240;7.3235;
67.8000;0.3175;7.3047;
68.1000;0.3191;7.3024;
68.4000;0.3158;7.2953;
68.7000;0.3183;7.2953;
69.0000;0.3158;7.2836;
69.3000;0.3150;7.2812;
69.6000;0.3126;7.2765;
69.9000;0.3158;7.2741;
70.2000;0.3166;7.2671;
70.5000;0.3150;7.2671;
70.8000;0.3215;7.2836;
71.1000;0.3183;7.2694;
71.4000;0.3191;7.2836;
71.7000;0.3191;7.2765;
72.0000;0.3183;7.2836;
72.3000;0.3175;7.2789;
72.6000;0.3175;7.2741;
72.9000;0.3166;7.2718;
73.2000;0.3175;7.2741;
73.5000;0.3175;7.2765;
73.8000;0.3158;7.2741;
74.1000;0.3158;7.2741;
74.4000;0.3191;7.2836;
74.7000;0.3175;7.2789;
75.0000;0.3183;7.2859;
75.3000;0.3166;7.2859;
75.6000;0.3183;7.2977;
75.9000;0.3183;7.3047;
76.2000;0.3191;7.3071;
76.5000;0.3183;7.3094;
76.8000;0.3183;7.3071;
77.1000;0.3183;7.3118;
77.4000;0.3191;7.3165;
77.7000;0.3215;7.3212;
78.0000;0.3183;7.3024;
78.3000;0.3158;7.2953;
78.6000;0.3191;7.3024;
78.9000;0.3191;7.3000;
79.2000;0.3183;7.2930;
79.5000;0.3199;7.2859;
79.8000;0.3183;7.2906;
80.1000;0.3183;7.2812;
80.4000;0.3199;7.2883;
80.7000;0.3191;7.2859;
81.0000;0.3199;7.2883;
81.3000;0.3256;7.3024;
81.6000;0.3232;7.2930;
81.9000;0.3199;7.2906;
82.2000;0.3207;7.2906;
82.5000;0.3215;7.2883;
82.8000;0.3207;7.2930;
83.1000;0.3175;7.2883;
83.4000;0.3191;7.2930;
83.7000;0.3183;7.2883;
84.0000;0.3215;7.3024;
84.3000;0.3183;7.2977;
84.6000;0.3191;7.2953;
84.9000;0.3191;7.2859;
85.2000;0.3199;7.3024;
85.5000;0.3191;7.2953;
85.8000;0.3175;7.2836;
86.1000;0.3207;7.2953;
86.4000;0.3207;7.2906;
86.7000;0.3191;7.2906;
87.0000;0.3175;7.2836;
87.3000;0.3199;7.2930;
87.6000;0.3207;7.2930;
87.9000;0.3175;7.2906;
88.2000;0.3207;7.2977;
88.5000;0.3191;7.3047;
88.8000;0.3191;7.3094;
89.1000;0.3191;7.3118;
89.4000;0.3223;7.3047;
89.7000;0.3199;7.2953;
90.0000;0.3207;7.3000;
90.3000;0.3223;7.3071;
90.6000;0.3215;7.3141;
90.9000;0.3207;7.3118;
91.2000;0.3223;7.3118;
91.5000;0.3199;7.3071;
91.8000;0.3207;7.3071;
92.1000;0.3207;7.3047;
92.4000;0.3215;7.3024;
92.7000;0.3215;7.2953;
93.0000;0.3223;7.3000;
93.3000;0.3207;7.2883;
93.6000;0.3223;7.2906;
93.9000;0.3223;7.2953;
94.2000;0.3215;7.2930;
94.5000;0.3199;7.2883;
94.8000;0.3215;7.2836;
95.1000;0.3232;7.2953;
95.4000;0.3215;7.3024;
95.7000;0.3223;7.3024;
96.0000;0.3223;7.2977;
96.3000;0.3207;7.2930;
96.6000;0.3232;7.2977;
96.9000;0.3215;7.2953;
97.2000;0.3223;7.2930;
97.5000;0.3223;7.3000;
97.8000;0.3175;7.2812;
98.1000;0.3223;7.3000;
98.4000;0.3240;7.3047;
98.7000;0.3232;7.3118;
99.0000;0.3337;7.3471;
99.3000;0.3215;7.3212;
99.6000;0.3232;7.3235;
99.9000;0.3289;7.3400;
100.2000;0.3215;7.3165;
100.5000;0.3232;7.3188;
100.8000;0.3223;7.3188;
101.1000;0.3248;7.3259;
101.4000;0.3232;7.3212;
101.7000;0.3223;7.3118;
102.0000;0.3207;7.3212;
102.3000;0.3264;7.3282;
102.6000;0.3223;7.3165;
102.9000;0.3248;7.3235;
103.2000;0.3232;7.3235;
103.5000;0.3158;7.3094;
103.8000;0.3207;7.3235;
104.1000;0.3232;7.3306;
104.4000;0.3223;7.3259;
104.7000;0.3232;7.3212;
105.0000;0.3158;7.3094;
105.3000;0.3207;7.3165;
105.6000;0.3248;7.3282;
105.9000;0.3215;7.3165;
106.2000;0.3240;7.3306;
106.5000;0.3207;7.3141;
106.8000;0.3240;7.3282;
107.1000;0.3240;7.3306;
107.4000;0.3256;7.3353;
107.7000;0.3256;7.3400;
108.0000;0.3264;7.3400;
108.3000;0.3240;7.3353;
108.6000;0.3223;7.3282;
108.9000;0.3223;7.3235;
109.2000;0.3240;7.3259;
109.5000;0.3248;7.3259;
109.8000;0.3248;7.3165;
110.1000;0.3215;7.3141;
110.4000;0.3248;7.3165;
110.7000;0.3223;7.3118;
111.0000;0.3240;7.3071;
111.3000;0.3248;7.3024;
111.6000;0.3248;7.3071;
111.9000;0.3223;7.3071;
112.2000;0.3248;7.3141;
112.5000;0.3232;7.3141;
112.8000;0.3207;7.3047;
113.1000;0.3207;7.3047;
113.4000;0.3223;7.3071;
113.7000;0.3215;7.3047;
114.0000;0.3240;7.3188;
114.3000;0.3232;7.3141;
114.6000;0.3256;7.3118;
114.9000;0.3232;7.3165;
115.2000;0.3240;7.3212;
115.5000;0.3215;7.3118;
115.8000;0.3240;7.3071;
116.1000;0.3223;7.3094;
116.4000;0.3240;7.3118;
116.7000;0.3264;7.3188;
117.0000;0.3256;7.3235;
117.3000;0.3232;7.3118;
117.6000;0.3232;7.3024;
117.9000;0.3232;7.2977;
118.2000;0.3362;7.3259;
118.5000;0.3264;7.2953;
118.8000;0.3223;7.2859;
119.1000;0.3183;7.2671;
119.4000;0.3248;7.2906;
119.7000;0.3150;7.2718;
120.0000;0.3199;7.2812;
120.3000;0.3223;7.2812;
120.6000;0.3232;7.2836;
120.9000;0.3256;7.2953;
121.2000;0.3191;7.2930;
121.5000;0.3232;7.3024;
121.8000;0.3248;7.2977;
122.1000;0.3223;7.2906;
122.4000;0.3248;7.2883;
122.7000;0.3256;7.2977;
123.0000;0.3207;7.2953;
123.3000;0.3256;7.2930;
123.6000;0.3240;7.2883;
123.9000;0.3175;7.2718;
124.2000;0.3240;7.2812;
124.5000;0.3280;7.2906;
124.8000;0.3223;7.2765;
125.1000;0.3232;7.2765;
125.4000;0.3248;7.2789;
125.7000;0.3248;7.2883;
126.0000;0.3264;7.2953;
126.3000;0.3256;7.2977;
126.6000;0.3256;7.3094;
126.9000;0.3256;7.3118;
127.2000;0.3240;7.3071;
127.5000;0.3232;7.3094;
127.8000;0.3280;7.3047;
128.1000;0.3264;7.3071;
128.4000;0.3280;7.3024;
128.7000;0.3264;7.2977;
129.0000;0.3256;7.3000;
129.3000;0.3248;7.3047;
129.6000;0.3232;7.2883;
129.9000;0.3248;7.2883;
130.2000;0.3256;7.2930;
130.5000;0.3256;7.2836;
130.8000;0.3272;7.2883;
131.1000;0.3248;7.2718;
131.4000;0.3240;7.2718;
131.7000;0.3248;7.2812;
132.0000;0.3240;7.2836;
132.3000;0.3248;7.2930;
132.6000;0.3240;7.2836;
132.9000;0.3240;7.2812;
133.2000;0.3240;7.2765;
133.5000;0.3264;7.2812;
133.8000;0.3223;7.2789;
134.1000;0.3223;7.2836;
134.4000;0.3264;7.2953;
134.7000;0.3223;7.2930;
135.0000;0.3232;7.3000;
135.3000;0.3199;7.2836;
135.6000;0.3256;7.3000;
135.9000;0.3256;7.3071;
136.2000;0.3223;7.3000;
136.5000;0.3240;7.2930;
136.8000;0.3240;7.2930;
137.1000;0.3240;7.2883;
137.4000;0.3199;7.2765;
137.7000;0.3215;7.2859;
138.0000;0.3272;7.2953;
138.3000;0.3248;7.2859;
138.6000;0.3305;7.2977;
138.9000;0.3223;7.2883;
139.2000;0.3256;7.3000;
139.5000;0.3264;7.3024;
139.8000;0.3232;7.2930;
140.1000;0.3175;7.2836;
140.4000;0.3240;7.2930;
140.7000;0.3256;7.2836;
141.0000;0.3240;7.2765;
141.3000;0.3240;7.2718;
141.6000;0.3280;7.2741;
141.9000;0.3240;7.2671;
142.2000;0.3272;7.2859;
142.5000;0.3264;7.2789;
142.8000;0.3248;7.2859;
143.1000;0.3223;7.2906;
143.4000;0.3248;7.2977;
143.7000;0.3248;7.2953;
144.0000;0.3240;7.3024;
144.3000;0.3232;7.2859;
144.6000;0.3232;7.2789;
144.9000;0.3256;7.2789;
145.2000;0.3248;7.2765;
145.5000;0.3223;7.2741;
145.8000;0.3240;7.2765;
146.1000;0.3256;7.2765;
146.4000;0.3248;7.2741;
146.7000;0.3256;7.2789;
147.0000;0.3272;7.2836;
147.3000;0.3256;7.2718;
147.6000;0.3272;7.2765;
147.9000;0.3264;7.2741;
148.2000;0.3232;7.2671;
148.5000;0.3248;7.2718;
148.8000;0.3264;7.2789;
149.1000;0.3215;7.2718;
149.4000;0.3232;7.2741;
149.7000;0.3248;7.2836;
150.0000;0.3248;7.2789;
150.3000;0.3248;7.2741;
150.6000;0.3248;7.2694;
150.9000;0.3240;7.2671;
151.2000;0.3232;7.2694;
151.5000;0.3240;7.2647;
151.8000;0.3248;7.2718;
152.1000;0.3232;7.2741;
152.4000;0.3264;7.2836;
152.7000;0.3256;7.2812;
153.0000;0.3256;7.2953;
153.3000;0.3240;7.2812;
153.6000;0.3232;7.2789;
153.9000;0.3256;7.2789;
154.2000;0.3215;7.2718;
154.5000;0.3248;7.2812;
154.8000;0.3232;7.2789;
155.1000;0.3240;7.2836;
155.4000;0.3248;7.2812;
155.7000;0.3191;7.2624;
156.0000;0.3223;7.2694;
156.3000;0.3240;7.2812;
156.6000;0.3207;7.2741;
156.9000;0.3240;7.2859;
157.2000;0.3256;7.2836;
157.5000;0.3215;7.2812;
157.8000;0.3280;7.2930;
158.1000;0.3158;7.2671;
158.4000;0.3248;7.2883;
158.7000;0.3297;7.2953;
159.0000;0.3256;7.2953;
159.3000;0.3232;7.2953;
159.6000;0.3232;7.3000;
159.9000;0.3248;7.2977;
160.2000;0.3256;7.2930;
160.5000;0.3240;7.2883;
160.8000;0.3248;7.2930;
161.1000;0.3232;7.2859;
161.4000;0.3264;7.2883;
161.7000;0.3272;7.2836;
162.0000;0.3272;7.2836;
162.3000;0.3264;7.2859;
162.6000;0.3240;7.2789;
162.9000;0.3256;7.2765;
163.2000;0.3248;7.2694;
163.5000;0.3142;7.2389;
163.8000;0.3256;7.2741;
164.1000;0.3248;7.2718;
164.4000;0.3240;7.2789;
164.7000;0.3240;7.2741;
165.0000;0.3248;7.2789;
165.3000;0.3240;7.2883;
165.6000;0.3272;7.2859;
165.9000;0.3305;7.2977;
166.2000;0.3240;7.2836;
166.5000;0.3256;7.2953;
166.8000;0.3240;7.2883;
167.1000;0.3240;7.2906;
167.4000;0.3264;7.3047;
167.7000;0.3256;7.2977;
168.0000;0.3256;7.3000;
168.3000;0.3232;7.2836;
168.6000;0.3256;7.2883;
168.9000;0.3240;7.2930;
169.2000;0.3264;7.2953;
169.5000;0.3240;7.2883;
169.8000;0.3264;7.2930;
170.1000;0.3280;7.2977;
170.4000;0.3264;7.2930;
170.7000;0.3256;7.2906;
171.0000;0.3240;7.2859;
171.3000;0.3272;7.2883;
171.6000;0.3264;7.2812;
171.9000;0.3240;7.2718;
172.2000;0.3256;7.2812;
172.5000;0.3256;7.2789;
172.8000;0.3264;7.2953;
173.1000;0.3272;7.2977;
173.4000;0.3248;7.2930;
173.7000;0.3248;7.2906;
174.0000;0.3256;7.2977;
174.3000;0.3289;7.3118;
174.6000;0.3240;7.3000;
174.9000;0.3256;7.3071;
175.2000;0.3256;7.3094;
175.5000;0.3248;7.3047;
175.8000;0.3289;7.2883;
176.1000;0.3272;7.2859;
176.4000;0.3240;7.2812;
176.7000;0.3264;7.2883;
177.0000;0.3248;7.2765;
177.3000;0.3280;7.2906;
177.6000;0.3264;7.2836;
177.9000;0.3248;7.2836;
178.2000;0.3272;7.2836;
178.5000;0.3272;7.2859;
178.8000;0.3256;7.2883;
179.1000;0.3240;7.2906;
179.4000;0.3240;7.2930;
179.7000;0.3264;7.2930;
180.0000;0.3256;7.2883;
180.3000;0.3232;7.2812;
180.6000;0.3313;7.2953;
180.9000;0.3232;7.2859;
181.2000;0.3280;7.2977;
181.5000;0.3248;7.2953;
181.8000;0.3248;7.2883;
182.1000;0.3256;7.2812;
182.4000;0.3240;7.2812;
182.7000;0.3256;7.2883;
183.0000;0.3256;7.2859;
183.3000;0.3264;7.2836;
183.6000;0.3264;7.2741;
183.9000;0.3256;7.2694;
184.2000;0.3272;7.2741;
184.5000;0.3248;7.2718;
184.8000;0.3232;7.2718;
185.1000;0.3256;7.2694;
185.4000;0.3264;7.2718;
185.7000;0.3329;7.2812;
186.0000;0.3264;7.2694;
186.3000;0.3264;7.2812;
186.6000;0.3264;7.2836;
186.9000;0.3264;7.2883;
187.2000;0.3264;7.2977;
187.5000;0.3248;7.3071;
187.8000;0.3248;7.3024;
188.1000;0.3256;7.2953;
188.4000;0.3256;7.2977;
188.7000;0.3272;7.2930;
189.0000;0.3256;7.2930;
189.3000;0.3264;7.2930;
189.6000;0.3272;7.2906;
189.9000;0.3264;7.2859;
190.2000;0.3264;7.2859;
190.5000;0.3264;7.2718;
190.8000;0.3264;7.2718;
191.1000;0.3256;7.2718;
191.4000;0.3248;7.2789;
191.7000;0.3272;7.2930;
192.0000;0.3240;7.2859;
192.3000;0.3256;7.2789;
192.6000;0.3272;7.2741;
192.9000;0.3240;7.2694;
193.2000;0.3256;7.2741;
193.5000;0.3264;7.2789;
193.8000;0.3207;7.2647;
194.1000;0.3256;7.2836;
194.4000;0.3248;7.2883;
194.7000;0.3264;7.2836;
195.0000;0.3248;7.2812;
195.3000;0.3256;7.2789;
195.6000;0.3280;7.2836;
195.9000;0.3248;7.2741;
196.2000;0.3264;7.2671;
196.5000;0.3256;7.2647;
196.8000;0.3248;7.2694;
197.1000;0.3248;7.2765;
197.4000;0.3240;7.2812;
197.7000;0.3248;7.2765;
198.0000;0.3305;7.2883;
198.3000;0.3232;7.2812;
198.6000;0.3248;7.2953;
198.9000;0.3272;7.2953;
199.2000;0.3264;7.2930;
199.5000;0.3256;7.2906;
199.8000;0.3232;7.2812;
200.1000;0.3232;7.2694;
200.4000;0.3256;7.2647;
200.7000;0.3256;7.2600;
201.0000;0.3248;7.2600;
201.3000;0.3256;7.2624;
201.6000;0.3232;7.2506;
201.9000;0.3264;7.2577;
202.2000;0.3272;7.2600;
202.5000;0.3256;7.2600;
202.8000;0.3232;7.2647;
203.1000;0.3272;7.2694;
203.4000;0.3264;7.2765;
203.7000;0.3191;7.2647;
204.0000;0.3280;7.2812;
204.3000;0.3256;7.2718;
204.6000;0.3280;7.2836;
204.9000;0.3256;7.2789;
205.2000;0.3248;7.2718;
205.5000;0.3272;7.2836;
205.8000;0.3256;7.2812;
206.1000;0.3256;7.2765;
206.4000;0.3240;7.2765;
206.7000;0.3264;7.2836;
207.0000;0.3264;7.2836;
207.3000;0.3272;7.2906;
207.6000;0.3264;7.2812;
207.9000;0.3272;7.2836;
208.2000;0.3272;7.2930;
208.5000;0.3272;7.2883;
208.8000;0.3378;7.3141;
209.1000;0.3256;7.2765;
209.4000;0.3248;7.2741;
209.7000;0.3264;7.2883;
210.0000;0.3305;7.2953;
210.3000;0.3280;7.2812;
210.6000;0.3272;7.2765;
210.9000;0.3240;7.2671;
211.2000;0.3264;7.2765;
211.5000;0.3272;7.2883;
211.8000;0.3248;7.2859;
212.1000;0.3191;7.2624;
212.4000;0.3280;7.2836;
212.7000;0.3264;7.2883;
213.0000;0.3215;7.2859;
213.3000;0.3256;7.2977;
213.6000;0.3264;7.2930;
213.9000;0.3264;7.2977;
214.2000;0.3248;7.2930;
214.5000;0.3272;7.2906;
214.8000;0.3256;7.2836;
215.1000;0.3256;7.2789;
215.4000;0.3280;7.2883;
215.7000;0.3264;7.2859;
216.0000;0.3264;7.2906;
216.3000;0.3264;7.2953;
216.6000;0.3256;7.2906;
216.9000;0.3264;7.2836;
217.2000;0.3272;7.2883;
217.5000;0.3240;7.2741;
217.8000;0.3272;7.2812;
218.1000;0.3264;7.2836;
218.4000;0.3256;7.2859;
218.7000;0.3272;7.2836;
219.0000;0.3256;7.2883;
219.3000;0.3280;7.2953;
219.6000;0.3256;7.2906;
219.9000;0.3264;7.3024;
220.2000;0.3248;7.3024;
220.5000;0.3256;7.3000;
220.8000;0.3240;7.2930;
221.1000;0.3248;7.2977;
221.4000;0.3256;7.3000;
221.7000;0.3272;7.2906;
222.0000;0.3272;7.2977;
222.3000;0.3264;7.2930;
222.6000;0.3256;7.2789;
222.9000;0.3256;7.2789;
223.2000;0.3264;7.2789;
223.5000;0.3232;7.2671;
223.8000;0.3175;7.2577;
224.1000;0.3305;7.2977;
224.4000;0.3321;7.2977;
224.7000;0.3272;7.2859;
225.0000;0.3256;7.2741;
225.3000;0.3256;7.2812;
225.6000;0.3248;7.2859;
225.9000;0.3256;7.2883;
226.2000;0.3272;7.2906;
226.5000;0.3264;7.2883;
226.8000;0.3264;7.2789;
227.1000;0.3264;7.2836;
227.4000;0.3264;7.2906;
227.7000;0.3256;7.2906;
228.0000;0.3297;7.3024;
228.3000;0.3272;7.2906;
228.6000;0.3280;7.2953;
228.9000;0.3337;7.3024;
229.2000;0.3272;7.2953;
229.5000;0.3240;7.2883;
229.8000;0.3256;7.2883;
230.1000;0.3272;7.2859;
230.4000;0.3272;7.2930;
230.7000;0.3248;7.2906;
231.0000;0.3272;7.2859;
231.3000;0.3272;7.2883;
231.6000;0.3272;7.2859;
231.9000;0.3150;7.2530;
232.2000;0.3256;7.2765;
232.5000;0.3289;7.2836;
232.8000;0.3264;7.2883;
233.1000;0.3256;7.2906;
233.4000;0.3199;7.2789;
233.7000;0.3248;7.2812;
234.0000;0.3256;7.2789;
234.3000;0.3240;7.2741;
234.6000;0.3329;7.2906;
234.9000;0.3215;7.2718;
235.2000;0.3240;7.2789;
235.5000;0.3248;7.2812;
235.8000;0.3232;7.2694;
236.1000;0.3215;7.2600;
236.4000;0.3256;7.2694;
236.7000;0.3256;7.2812;
237.0000;0.3289;7.3071;
237.3000;0.3264;7.2930;
237.6000;0.3264;7.3000;
237.9000;0.3223;7.2906;
238.2000;0.3240;7.2977;
238.5000;0.3264;7.2906;
238.8000;0.3207;7.2789;
239.1000;0.3289;7.2977;
239.4000;0.3256;7.2883;
239.7000;0.3264;7.2789;
240.0000;0.3256;7.2694;
240.3000;0.3264;7.2812;
240.6000;0.3256;7.2883;
240.9000;0.3280;7.2977;
241.2000;0.3256;7.3024;
241.5000;0.3248;7.2953;
241.8000;0.3272;7.3047;
242.1000;0.3272;7.3118;
242.4000;0.3264;7.3047;
242.7000;0.3272;7.3141;
243.0000;0.3272;7.3118;
243.3000;0.3264;7.3141;
243.6000;0.3264;7.3141;
243.9000;0.3223;7.3000;
244.2000;0.3256;7.3141;
244.5000;0.3289;7.3259;
244.8000;0.3232;7.3071;
245.1000;0.3305;7.3165;
245.4000;0.3256;7.3024;
245.7000;0.3256;7.3000;
246.0000;0.3346;7.3188;
246.3000;0.3272;7.3118;
246.6000;0.3346;7.3212;
246.9000;0.3256;7.2930;
247.2000;0.3272;7.3047;
247.5000;0.3370;7.3212;
247.8000;0.3305;7.3000;
248.1000;0.3272;7.2883;
248.4000;0.3272;7.2883;
248.7000;0.3272;7.2859;
249.0000;0.3272;7.2836;
249.3000;0.3289;7.2883;
249.6000;0.3280;7.2836;
249.9000;0.3272;7.2741;
250.2000;0.3354;7.2930;
250.5000;0.3321;7.2836;
250.8000;0.3232;7.2671;
251.1000;0.3264;7.2789;
251.4000;0.3297;7.2930;
251.7000;0.3272;7.2836;
252.0000;0.3223;7.2812;
252.3000;0.3280;7.2906;
252.6000;0.3232;7.2883;
252.9000;0.3272;7.2953;
253.2000;0.3223;7.2836;
253.5000;0.3232;7.2883;
253.8000;0.3264;7.2953;
254.1000;0.3264;7.3047;
254.4000;0.3264;7.3047;
254.7000;0.3264;7.3094;
255.0000;0.3256;7.3047;
255.3000;0.3272;7.3188;
255.6000;0.3272;7.3235;
255.9000;0.3256;7.3165;
256.2000;0.3256;7.3188;
256.5000;0.3256;7.3165;
256.8000;0.3264;7.3165;
257.1000;0.3264;7.3094;
257.4000;0.3264;7.3024;
257.7000;0.3280;7.3071;
258.0000;0.3183;7.2836;
258.3000;0.3264;7.3024;
258.6000;0.3248;7.2977;
258.9000;0.3264;7.3024;
259.2000;0.3256;7.3047;
259.5000;0.3280;7.3000;
259.8000;0.3248;7.2906;
260.1000;0.3264;7.2977;
260.4000;0.3272;7.2977;
260.7000;0.3272;7.3000;
261.0000;0.3248;7.2836;
261.3000;0.3248;7.2789;
261.6000;0.3272;7.2812;
261.9000;0.3272;7.2859;
262.2000;0.3256;7.2883;
262.5000;0.3280;7.2906;
262.8000;0.3272;7.2883;
263.1000;0.3232;7.2694;
263.4000;0.3264;7.2836;
263.7000;0.3272;7.2859;
264.0000;0.3264;7.2812;
264.3000;0.3240;7.2765;
264.6000;0.3297;7.2930;
264.9000;0.3272;7.2859;
265.2000;0.3264;7.2789;
265.5000;0.3264;7.2789;
265.8000;0.3264;7.2859;
266.1000;0.3289;7.2836;
266.4000;0.3248;7.2812;
266.7000;0.3272;7.2859;
267.0000;0.3280;7.2883;
267.3000;0.3289;7.2883;
267.6000;0.3248;7.2789;
267.9000;0.3256;7.2741;
268.2000;0.3272;7.2836;
268.5000;0.3272;7.2859;
268.8000;0.3272;7.2836;
269.1000;0.3256;7.2836;
269.4000;0.3256;7.2883;
269.7000;0.3232;7.2789;
270.0000;0.3256;7.2953;
270.3000;0.3248;7.2930;
270.6000;0.3199;7.2930;
270.9000;0.3232;7.3024;
271.2000;0.3232;7.2859;
271.5000;0.3256;7.2930;
271.8000;0.3248;7.2883;
272.1000;0.3256;7.2883;
272.4000;0.3248;7.2906;
272.7000;0.3248;7.2859;
273.0000;0.3248;7.2883;
273.3000;0.3256;7.2977;
273.6000;0.3256;7.3000;
273.9000;0.3256;7.2883;
274.2000;0.3256;7.2859;
274.5000;0.3280;7.2859;
274.8000;0.3183;7.2671;
275.1000;0.3256;7.2859;
275.4000;0.3280;7.2883;
275.7000;0.3256;7.2718;
276.0000;0.3280;7.2765;
276.3000;0.3256;7.2741;
276.6000;0.3248;7.2765;
276.9000;0.3280;7.2836;
277.2000;0.3248;7.2718;
277.5000;0.3256;7.2694;
277.8000;0.3248;7.2694;
278.1000;0.3223;7.2694;
278.4000;0.3256;7.2859;
278.7000;0.3248;7.2741;
279.0000;0.3297;7.2883;
279.3000;0.3256;7.2883;
279.6000;0.3264;7.2836;
279.9000;0.3256;7.2789;
280.2000;0.3264;7.2789;
280.5000;0.3248;7.2765;
280.8000;0.3248;7.2883;
281.1000;0.3256;7.2883;
281.4000;0.3240;7.2906;
281.7000;0.3248;7.2953;
282.0000;0.3248;7.3024;
282.3000;0.3256;7.3024;
282.6000;0.3256;7.3047;
282.9000;0.3264;7.2930;
283.2000;0.3248;7.2765;
283.5000;0.3272;7.2836;
283.8000;0.3264;7.2765;
284.1000;0.3256;7.2765;
284.4000;0.3264;7.2812;
284.7000;0.3289;7.2883;
285.0000;0.3264;7.2836;
285.3000;0.3240;7.2671;
285.6000;0.3264;7.2718;
285.9000;0.3248;7.2647;
286.2000;0.3313;7.2812;
286.5000;0.3280;7.2765;
286.8000;0.3264;7.2694;
287.1000;0.3264;7.2718;
287.4000;0.3240;7.2671;
287.7000;0.3256;7.2647;
288.0000;0.3256;7.2671;
288.3000;0.3256;7.2765;
288.6000;0.3264;7.2789;
288.9000;0.3264;7.2765;
289.2000;0.3272;7.2859;
289.5000;0.3264;7.2812;
289.8000;0.3264;7.2812;
290.1000;0.3248;7.2671;
290.4000;0.3215;7.2530;
290.7000;0.3272;7.2765;
291.0000;0.3289;7.2906;
291.3000;0.3240;7.2765;
291.6000;0.3232;7.2741;
291.9000;0.3256;7.2718;
292.2000;0.3264;7.2789;
292.5000;0.3272;7.2836;
292.8000;0.3232;7.2718;
293.1000;0.3264;7.2859;
293.4000;0.3272;7.2765;
293.7000;0.3272;7.2883;
294.0000;0.3264;7.2859;
294.3000;0.3248;7.2789;
294.6000;0.3248;7.2789;
294.9000;0.3248;7.2671;
295.2000;0.3272;7.2765;
295.5000;0.3321;7.3024;
295.8000;0.3256;7.2836;
296.1000;0.3248;7.2836;
296.4000;0.3289;7.2906;
296.7000;0.3362;7.3118;
297.0000;0.3264;7.2859;
297.3000;0.3272;7.2906;
297.6000;0.3305;7.3094;
297.9000;0.3232;7.2906;
298.2000;0.3264;7.2930;
298.5000;0.3264;7.2930;
298.8000;0.3264;7.2812;
299.1000;0.3256;7.2836;
299.4000;0.3256;7.2906;
299.7000;0.3166;7.2718;
300.0000;0.3248;7.3000;
300.3000;0.3256;7.3047;
300.6000;0.3313;7.3282;
300.9000;0.3232;7.3071;
301.2000;0.3248;7.3118;
301.5000;0.3256;7.3212;
301.8000;0.3240;7.3118;
302.1000;0.3264;7.3188;
302.4000;0.3272;7.3118;
302.7000;0.3248;7.3047;
303.0000;0.3240;7.2977;
303.3000;0.3272;7.3047;
303.6000;0.3264;7.2953;
303.9000;0.3280;7.2953;
304.2000;0.3264;7.2906;
304.5000;0.3264;7.2906;
304.8000;0.3264;7.2906;
305.1000;0.3272;7.2977;
305.4000;0.3264;7.2953;
305.7000;0.3256;7.2977;
306.0000;0.3256;7.2953;
306.3000;0.3248;7.2883;
306.6000;0.3264;7.2883;
306.9000;0.3256;7.2859;
307.2000;0.3256;7.2836;
307.5000;0.3280;7.2930;
307.8000;0.3256;7.2859;
308.1000;0.3297;7.2977;
308.4000;0.3280;7.2859;
308.7000;0.3256;7.2812;
309.0000;0.3272;7.2859;
309.3000;0.3264;7.2906;
309.6000;0.3264;7.2953;
309.9000;0.3264;7.2953;
310.2000;0.3232;7.2836;
310.5000;0.3289;7.3024;
310.8000;0.3256;7.2977;
311.1000;0.3232;7.2977;
311.4000;0.3280;7.2953;
311.7000;0.3264;7.2953;
312.0000;0.3305;7.3118;
312.3000;0.3256;7.3000;
312.6000;0.3240;7.2836;
312.9000;0.3256;7.2812;
313.2000;0.3240;7.2859;
313.5000;0.3256;7.2906;
313.8000;0.3248;7.2836;
314.1000;0.3280;7.2930;
314.4000;0.3232;7.2883;
314.7000;0.3280;7.2906;
315.0000;0.3264;7.2906;
315.3000;0.3264;7.2836;
315.6000;0.3256;7.2765;
315.9000;0.3272;7.2765;
316.2000;0.3264;7.2859;
316.5000;0.3199;7.2624;
316.8000;0.3264;7.2789;
317.1000;0.3280;7.2789;
317.4000;0.3264;7.2765;
317.7000;0.3191;7.2577;
318.0000;0.3215;7.2718;
318.3000;0.3289;7.2789;
318.6000;0.3256;7.2765;
318.9000;0.3264;7.2789;
319.2000;0.3305;7.2836;
319.5000;0.3272;7.2741;
319.8000;0.3232;7.2671;
320.1000;0.3289;7.2906;
320.4000;0.3272;7.2930;
320.7000;0.3272;7.2930;
321.0000;0.3272;7.2836;
321.3000;0.3248;7.2671;
321.6000;0.3248;7.2718;
321.9000;0.3240;7.2671;
322.2000;0.3256;7.2577;
322.5000;0.3240;7.2600;
322.8000;0.3207;7.2553;
323.1000;0.3305;7.2906;
323.4000;0.3272;7.2930;
323.7000;0.3248;7.2883;
324.0000;0.3248;7.2906;
324.3000;0.3240;7.2953;
324.6000;0.3248;7.3000;
324.9000;0.3280;7.3118;
325.2000;0.3248;7.3047;
325.5000;0.3264;7.3000;
325.8000;0.3297;7.3000;
326.1000;0.3256;7.2883;
326.4000;0.3256;7.2836;
326.7000;0.3240;7.2859;
327.0000;0.3232;7.2930;
327.3000;0.3248;7.3071;
327.6000;0.3272;7.3141;
327.9000;0.3223;7.3094;
328.2000;0.3264;7.3165;
328.5000;0.3289;7.3118;
328.8000;0.3248;7.3094;
329.1000;0.3272;7.3118;
329.4000;0.3264;7.3071;
329.7000;0.3272;7.3024;
330.0000;0.3264;7.3024;
330.3000;0.3280;7.3094;
330.6000;0.3248;7.3024;
330.9000;0.3264;7.3000;
331.2000;0.3264;7.2977;
331.5000;0.3256;7.2930;
331.8000;0.3280;7.3024;
332.1000;0.3280;7.3118;
332.4000;0.3272;7.3118;
332.7000;0.3264;7.3071;
333.0000;0.3272;7.3071;
333.3000;0.3256;7.3094;
333.6000;0.3272;7.3165;
333.9000;0.3272;7.3141;
334.2000;0.3264;7.3094;
334.5000;0.3264;7.3235;
334.8000;0.3256;7.3188;
335.1000;0.3199;7.3000;
335.4000;0.3264;7.3071;
335.7000;0.3272;7.3000;
336.0000;0.3248;7.2812;
336.3000;0.3248;7.2836;
336.6000;0.3280;7.3000;
336.9000;0.3264;7.2930;
337.2000;0.3248;7.2883;
337.5000;0.3240;7.2836;
337.8000;0.3215;7.2836;
338.1000;0.3256;7.2859;
338.4000;0.3272;7.2859;
338.7000;0.3240;7.2836;
339.0000;0.3272;7.2930;
339.3000;0.3280;7.3000;
339.6000;0.3256;7.2930;
339.9000;0.3280;7.2930;
340.2000;0.3272;7.2836;
340.5000;0.3264;7.2741;
340.8000;0.3264;7.2883;
341.1000;0.3264;7.2812;
341.4000;0.3272;7.2812;
341.7000;0.3248;7.2718;
342.0000;0.3297;7.2906;
342.3000;0.3207;7.2694;
342.6000;0.3305;7.2930;
342.9000;0.3191;7.2718;
343.2000;0.3362;7.3047;
343.5000;0.3264;7.2836;
343.8000;0.3256;7.2930;
344.1000;0.3199;7.2812;
344.4000;0.3264;7.2883;
344.7000;0.3289;7.2859;
345.0000;0.3280;7.2836;
345.3000;0.3272;7.2812;
345.6000;0.3240;7.2741;
345.9000;0.3370;7.3118;
346.2000;0.3272;7.2859;
346.5000;0.3223;7.2836;
346.8000;0.3272;7.2836;
347.1000;0.3321;7.3071;
347.4000;0.3264;7.2906;
347.7000;0.3264;7.2859;
348.0000;0.3264;7.2765;
348.3000;0.3280;7.2789;
348.6000;0.3297;7.2953;
348.9000;0.3240;7.2765;
349.2000;0.3272;7.2789;
349.5000;0.3297;7.2836;
349.8000;0.3313;7.2906;
350.1000;0.3248;7.2789;
350.4000;0.3329;7.2883;
350.7000;0.3256;7.2718;
351.0000;0.3215;7.2789;
351.3000;0.3256;7.2859;
351.6000;0.3313;7.3000;
351.9000;0.3256;7.2836;
352.2000;0.3232;7.2741;
352.5000;0.3272;7.2906;
352.8000;0.3264;7.2859;
353.1000;0.3256;7.2836;
353.4000;0.3264;7.2883;
353.7000;0.3256;7.2883;
354.0000;0.3264;7.2930;
354.3000;0.3264;7.3024;
354.6000;0.3272;7.3047;
354.9000;0.3248;7.2977;
355.2000;0.3264;7.2977;
355.5000;0.3256;7.2906;
355.8000;0.3248;7.2930;
356.1000;0.3264;7.3000;
356.4000;0.3272;7.2930;
356.7000;0.3256;7.2906;
357.0000;0.3256;7.2883;
357.3000;0.3264;7.3047;
357.6000;0.3272;7.3024;
357.9000;0.3264;7.3000;
358.2000;0.3305;7.3047;
358.5000;0.3272;7.3024;
358.8000;0.3264;7.2906;
359.1000;0.3289;7.3000;
359.4000;0.3256;7.3000;
359.7000;0.3248;7.2977;
360.0000;0.3256;7.2953;
360.3000;0.3256;7.2883;
360.6000;0.3256;7.2765;
360.9000;0.3264;7.2765;
361.2000;0.3248;7.2789;
361.5000;0.3289;7.2883;
361.8000;0.3264;7.2859;
362.1000;0.3240;7.2836;
362.4000;0.3272;7.2930;
362.7000;0.3264;7.2930;
363.0000;0.3256;7.2836;
363.3000;0.3313;7.2953;
363.6000;0.3264;7.2883;
363.9000;0.3289;7.2930;
364.2000;0.3272;7.2953;
364.5000;0.3297;7.3047;
364.8000;0.3289;7.2953;
365.1000;0.3223;7.2836;
365.4000;0.3280;7.2930;
365.7000;0.3272;7.2836;
366.0000;0.3272;7.2883;
366.3000;0.3321;7.3047;
366.6000;0.3280;7.2953;
366.9000;0.3297;7.2953;
367.2000;0.3297;7.2930;
367.5000;0.3272;7.2930;
367.8000;0.3248;7.2836;
368.1000;0.3126;7.2600;
368.4000;0.3256;7.2883;
368.7000;0.3256;7.2906;
369.0000;0.3272;7.3071;
369.3000;0.3264;7.2906;
369.6000;0.3248;7.2883;
369.9000;0.3256;7.2953;
370.2000;0.3272;7.3047;
370.5000;0.3232;7.2930;
370.8000;0.3272;7.3024;
371.1000;0.3256;7.3071;
371.4000;0.3305;7.3141;
371.7000;0.3264;7.3000;
372.0000;0.3264;7.2977;
372.3000;0.3256;7.2953;
372.6000;0.3280;7.3047;
372.9000;0.3223;7.2812;
373.2000;0.3272;7.2883;
373.5000;0.3248;7.2859;
373.8000;0.3272;7.2859;
374.1000;0.3297;7.2883;
374.4000;0.3280;7.2812;
374.7000;0.3248;7.2741;
375.0000;0.3264;7.2765;
375.3000;0.3280;7.2812;
375.6000;0.3248;7.2836;
375.9000;0.3248;7.2812;
376.2000;0.3289;7.2953;
376.5000;0.3256;7.2906;
376.8000;0.3313;7.3000;
377.1000;0.3256;7.2906;
377.4000;0.3256;7.2836;
377.7000;0.3264;7.2812;
378.0000;0.3272;7.2765;
378.3000;0.3256;7.2812;
378.6000;0.3272;7.2906;
378.9000;0.3264;7.2883;
379.2000;0.3272;7.2930;
379.5000;0.3272;7.2930;
379.8000;0.3280;7.3024;
380.1000;0.3256;7.2977;
380.4000;0.3248;7.2883;
380.7000;0.3280;7.2906;
381.0000;0.3272;7.2859;
381.3000;0.3264;7.2859;
381.6000;0.3272;7.2883;
381.9000;0.3264;7.2906;
382.2000;0.3223;7.2812;
382.5000;0.3313;7.2906;
382.8000;0.3313;7.2977;
383.1000;0.3183;7.2694;
383.4000;0.3232;7.2765;
383.7000;0.3289;7.2977;
384.0000;0.3199;7.2718;
384.3000;0.3289;7.2765;
384.6000;0.3280;7.2694;
384.9000;0.3264;7.2671;
385.2000;0.3264;7.2718;
385.5000;0.3264;7.2741;
385.8000;0.3240;7.2718;
386.1000;0.3256;7.2765;
386.4000;0.3264;7.2741;
386.7000;0.3256;7.2765;
387.0000;0.3280;7.2859;
387.3000;0.3240;7.2812;
387.6000;0.3256;7.2789;
387.9000;0.3240;7.2694;
388.2000;0.3256;7.2812;
388.5000;0.3256;7.2883;
388.8000;0.3264;7.2883;
389.1000;0.3215;7.2718;
389.4000;0.3264;7.2836;
389.7000;0.3264;7.2789;
390.0000;0.3272;7.2789;
390.3000;0.3272;7.2859;
390.6000;0.3272;7.2836;
390.9000;0.3264;7.2765;
391.2000;0.3264;7.2671;
391.5000;0.3256;7.2577;
391.8000;0.3264;7.2647;
392.1000;0.3232;7.2553;
392.4000;0.3248;7.2600;
392.7000;0.3297;7.2718;
393.0000;0.3256;7.2600;
393.3000;0.3256;7.2718;
393.6000;0.3256;7.2647;
393.9000;0.3264;7.2718;
394.2000;0.3272;7.2812;
394.5000;0.3248;7.2859;
394.8000;0.3256;7.2930;
395.1000;0.3248;7.2883;
395.4000;0.3248;7.2859;
395.7000;0.3264;7.2789;
396.0000;0.3256;7.2741;
396.3000;0.3256;7.2741;
396.6000;0.3264;7.2789;
396.9000;0.3248;7.2741;
397.2000;0.3240;7.2694;
397.5000;0.3256;7.2718;
397.8000;0.3256;7.2812;
398.1000;0.3264;7.2883;
398.4000;0.3264;7.2836;
398.7000;0.3248;7.2812;
399.0000;0.3256;7.2789;
399.3000;0.3272;7.2906;
399.6000;0.3272;7.2906;
399.9000;0.3240;7.2765;
400.2000;0.3272;7.2883;
400.5000;0.3264;7.2812;
400.8000;0.3272;7.2789;
401.1000;0.3256;7.2694;
401.4000;0.3264;7.2741;
401.7000;0.3280;7.2789;
402.0000;0.3289;7.2812;
402.3000;0.3264;7.2741;
402.6000;0.3264;7.2812;
402.9000;0.3264;7.2812;
403.2000;0.3256;7.2741;
403.5000;0.3280;7.2906;
403.8000;0.3256;7.2906;
404.1000;0.3256;7.2883;
404.4000;0.3280;7.2906;
404.7000;0.3280;7.2930;
405.0000;0.3264;7.2906;
405.3000;0.3248;7.2883;
405.6000;0.3248;7.2977;
405.9000;0.3272;7.3094;
406.2000;0.3264;7.3000;
406.5000;0.3272;7.3000;
406.8000;0.3264;7.2977;
407.1000;0.3264;7.2953;
407.4000;0.3215;7.2812;
407.7000;0.3240;7.2859;
408.0000;0.3272;7.2836;
408.3000;0.3289;7.2836;
408.6000;0.3248;7.2765;
408.9000;0.3240;7.2789;
409.2000;0.3313;7.2930;
409.5000;0.3272;7.2836;
409.8000;0.3264;7.2812;
410.1000;0.3256;7.2812;
410.4000;0.3256;7.2789;
410.7000;0.3223;7.2741;
411.0000;0.3248;7.2741;
411.3000;0.3272;7.2836;
411.6000;0.3297;7.2930;
411.9000;0.3256;7.2765;
412.2000;0.3256;7.2718;
412.5000;0.3240;7.2741;
412.8000;0.3248;7.2741;
413.1000;0.3313;7.2930;
413.4000;0.3256;7.2859;
413.7000;0.3313;7.2953;
414.0000;0.3264;7.2836;
414.3000;0.3272;7.2836;
414.6000;0.3280;7.2812;
414.9000;0.3280;7.2812;
415.2000;0.3207;7.2694;
415.5000;0.3280;7.2789;
415.8000;0.3272;7.2741;
416.1000;0.3256;7.2836;
416.4000;0.3289;7.2930;
416.7000;0.3256;7.2836;
417.0000;0.3256;7.2836;
417.3000;0.3264;7.2859;
417.6000;0.3248;7.2741;
417.9000;0.3321;7.2953;
418.2000;0.3264;7.2812;
418.5000;0.3256;7.2765;
418.8000;0.3256;7.2671;
419.1000;0.3264;7.2789;
419.4000;0.3264;7.2789;
419.7000;0.3321;7.2906;
420.0000;0.3264;7.2765;
420.3000;0.3256;7.2836;
420.6000;0.3264;7.2930;
420.9000;0.3280;7.3000;
421.2000;0.3248;7.2906;
421.5000;0.3240;7.2836;
421.8000;0.3256;7.2859;
422.1000;0.3248;7.2671;
422.4000;0.3248;7.2671;
422.7000;0.3232;7.2671;
423.0000;0.3248;7.2600;
423.3000;0.3264;7.2624;
423.6000;0.3256;7.2553;
423.9000;0.3264;7.2577;
424.2000;0.3264;7.2647;
424.5000;0.3256;7.2600;
424.8000;0.3264;7.2718;
425.1000;0.3256;7.2789;
425.4000;0.3264;7.2789;
425.7000;0.3280;7.2836;
426.0000;0.3264;7.2930;
426.3000;0.3240;7.2836;
426.6000;0.3256;7.2859;
426.9000;0.3256;7.2859;
427.2000;0.3232;7.2765;
427.5000;0.3256;7.2836;
427.8000;0.3248;7.2859;
428.1000;0.3256;7.2930;
428.4000;0.3280;7.3047;
428.7000;0.3264;7.2930;
429.0000;0.3264;7.2883;
429.3000;0.3264;7.2883;
429.6000;0.3264;7.2836;
429.9000;0.3256;7.2789;
430.2000;0.3215;7.2789;
430.5000;0.3256;7.2765;
430.8000;0.3240;7.2718;
431.1000;0.3297;7.2789;
431.4000;0.3215;7.2671;
431.7000;0.3248;7.2694;
432.0000;0.3256;7.2765;
432.3000;0.3256;7.2836;
432.6000;0.3264;7.2836;
432.9000;0.3256;7.2836;
433.2000;0.3272;7.2859;
433.5000;0.3346;7.3000;
433.8000;0.3289;7.2812;
434.1000;0.3280;7.2718;
434.4000;0.3272;7.2624;
434.7000;0.3280;7.2671;
435.0000;0.3264;7.2671;
435.3000;0.3264;7.2671;
435.6000;0.3272;7.2694;
435.9000;0.3289;7.2765;
436.2000;0.3272;7.2812;
436.5000;0.3272;7.2906;
436.8000;0.3280;7.2977;
437.1000;0.3256;7.2953;
437.4000;0.3272;7.2953;
437.7000;0.3272;7.2906;
438.0000;0.3248;7.2859;
438.3000;0.3264;7.2930;
438.6000;0.3240;7.2906;
438.9000;0.3256;7.2953;
439.2000;0.3264;7.3000;
439.5000;0.3272;7.2953;
439.8000;0.3256;7.2977;
440.1000;0.3272;7.2953;
440.4000;0.3272;7.2859;
440.7000;0.3264;7.2836;
441.0000;0.3272;7.2906;
441.3000;0.3289;7.2953;
441.6000;0.3289;7.2883;
441.9000;0.3280;7.2930;
442.2000;0.3272;7.3000;
442.5000;0.3232;7.2930;
442.8000;0.3305;7.3024;
443.1000;0.3264;7.3047;
443.4000;0.3305;7.3212;
443.7000;0.3272;7.3141;
444.0000;0.3175;7.2836;
444.3000;0.3264;7.2977;
444.6000;0.3256;7.2930;
444.9000;0.3256;7.2836;
445.2000;0.3264;7.2812;
445.5000;0.3240;7.2741;
445.8000;0.3272;7.2812;
446.1000;0.3256;7.2859;
446.4000;0.3264;7.2765;
446.7000;0.3264;7.2694;
447.0000;0.3232;7.2647;
447.3000;0.3272;7.2718;
447.6000;0.3256;7.2812;
447.9000;0.3264;7.2883;
448.2000;0.3248;7.2906;
448.5000;0.3248;7.2906;
448.8000;0.3272;7.3000;
449.1000;0.3272;7.2953;
449.4000;0.3248;7.2930;
449.7000;0.3264;7.2930;
450.0000;0.3272;7.3000;
450.3000;0.3256;7.2930;
450.6000;0.3232;7.2883;
450.9000;0.3256;7.2930;
451.2000;0.3240;7.3000;
451.5000;0.3272;7.3000;
451.8000;0.3264;7.2906;
452.1000;0.3297;7.3000;
452.4000;0.3264;7.2906;
452.7000;0.3223;7.2765;
453.0000;0.3248;7.2765;
453.3000;0.3248;7.2741;
453.6000;0.3248;7.2741;
453.9000;0.3289;7.2789;
454.2000;0.3297;7.2836;
454.5000;0.3272;7.2741;
454.8000;0.3256;7.2671;
455.1000;0.3256;7.2624;
455.4000;0.3256;7.2694;
455.7000;0.3280;7.2671;
456.0000;0.3256;7.2600;
456.3000;0.3272;7.2600;
456.6000;0.3264;7.2553;
456.9000;0.3232;7.2459;
457.2000;0.3207;7.2530;
457.5000;0.3289;7.2741;
457.8000;0.3240;7.2718;
458.1000;0.3215;7.2671;
458.4000;0.3248;7.2718;
458.7000;0.3199;7.2483;
459.0000;0.3297;7.2671;
459.3000;0.3215;7.2530;
459.6000;0.3264;7.2694;
459.9000;0.3232;7.2694;
460.2000;0.3289;7.2906;
460.5000;0.3256;7.2694;
460.8000;0.3256;7.2694;
461.1000;0.3256;7.2741;
461.4000;0.3305;7.2859;
461.7000;0.3256;7.2765;
462.0000;0.3232;7.2718;
462.3000;0.3272;7.2694;
462.6000;0.3280;7.2741;
462.9000;0.3240;7.2624;
463.2000;0.3248;7.2624;
463.5000;0.3240;7.2577;
463.8000;0.3256;7.2694;
464.1000;0.3264;7.2789;
464.4000;0.3223;7.2694;
464.7000;0.3289;7.2812;
465.0000;0.3337;7.3000;
465.3000;0.3280;7.2812;
465.6000;0.3280;7.2765;
465.9000;0.3272;7.2718;
466.2000;0.3289;7.2718;
466.5000;0.3272;7.2694;
466.8000;0.3280;7.2718;
467.1000;0.3272;7.2694;
467.4000;0.3264;7.2694;
467.7000;0.3175;7.2483;
468.0000;0.3280;7.2765;
468.3000;0.3264;7.2694;
468.6000;0.3248;7.2718;
468.9000;0.3264;7.2789;
469.2000;0.3264;7.2718;
469.5000;0.3272;7.2718;
469.8000;0.3256;7.2553;
470.1000;0.3272;7.2577;
470.4000;0.3264;7.2577;
470.7000;0.3264;7.2530;
471.0000;0.3289;7.2624;
471.3000;0.3264;7.2647;
471.6000;0.3264;7.2671;
471.9000;0.3264;7.2741;
472.2000;0.3248;7.2741;
472.5000;0.3264;7.2765;
472.8000;0.3223;7.2741;
473.1000;0.3280;7.2789;
473.4000;0.3272;7.2741;
473.7000;0.3256;7.2694;
474.0000;0.3313;7.2906;
474.3000;0.3256;7.2741;
474.6000;0.3256;7.2694;
474.9000;0.3280;7.2718;
475.2000;0.3256;7.2694;
475.5000;0.3272;7.2812;
475.8000;0.3256;7.2789;
476.1000;0.3248;7.2812;
476.4000;0.3248;7.2812;
476.7000;0.3248;7.2765;
477.0000;0.3272;7.2789;
477.3000;0.3232;7.2671;
477.6000;0.3232;7.2624;
477.9000;0.3289;7.2671;
478.2000;0.3256;7.2624;
478.5000;0.3207;7.2436;
478.8000;0.3215;7.2483;
479.1000;0.3240;7.2600;
479.4000;0.3264;7.2530;
479.7000;0.3215;7.2506;
480.0000;0.3248;7.2671;
480.3000;0.3305;7.2765;
480.6000;0.3256;7.2671;
480.9000;0.3280;7.2718;
481.2000;0.3313;7.2812;
481.5000;0.3256;7.2671;
481.8000;0.3264;7.2718;
482.1000;0.3215;7.2577;
482.4000;0.3321;7.2765;
482.7000;0.3256;7.2624;
483.0000;0.3191;7.2577;
483.3000;0.3305;7.2836;
483.6000;0.3289;7.2859;
483.9000;0.3248;7.2647;
484.2000;0.3232;7.2600;
484.5000;0.3256;7.2600;
484.8000;0.3248;7.2694;
485.1000;0.3321;7.2906;
485.4000;0.3264;7.2718;
485.7000;0.3272;7.2741;
486.0000;0.3183;7.2600;
486.3000;0.3240;7.2765;
486.6000;0.3248;7.2694;
486.9000;0.3256;7.2694;
487.2000;0.3256;7.2718;
487.5000;0.3248;7.2718;
487.8000;0.3256;7.2694;
488.1000;0.3256;7.2718;
488.4000;0.3248;7.2671;
488.7000;0.3232;7.2647;
489.0000;0.3256;7.2624;
489.3000;0.3272;7.2647;
489.6000;0.3240;7.2600;
489.9000;0.3240;7.2506;
490.2000;0.3248;7.2624;
490.5000;0.3256;7.2694;
490.8000;0.3264;7.2671;
491.1000;0.3264;7.2600;
491.4000;0.3264;7.2647;
491.7000;0.3256;7.2600;
492.0000;0.3280;7.2671;
492.3000;0.3289;7.2741;
492.6000;0.3256;7.2694;
492.9000;0.3280;7.2789;
493.2000;0.3264;7.2741;
493.5000;0.3272;7.2624;
493.8000;0.3264;7.2577;
494.1000;0.3256;7.2530;
494.4000;0.3272;7.2553;
494.7000;0.3272;7.2600;
495.0000;0.3256;7.2553;
495.3000;0.3256;7.2647;
495.6000;0.3264;7.2647;
495.9000;0.3272;7.2694;
496.2000;0.3256;7.2765;
496.5000;0.3264;7.2718;
496.8000;0.3240;7.2694;
497.1000;0.3248;7.2647;
497.4000;0.3199;7.2577;
497.7000;0.3272;7.2694;
498.0000;0.3256;7.2718;
498.3000;0.3305;7.2812;
498.6000;0.3256;7.2741;
498.9000;0.3280;7.2836;
499.2000;0.3297;7.2906;
499.5000;0.3199;7.2718;
499.8000;0.3289;7.2930;
500.1000;0.3272;7.2930;
500.4000;0.3289;7.2883;
500.7000;0.3297;7.2883;
501.0000;0.3240;7.2812;
501.3000;0.3199;7.2694;
501.6000;0.3232;7.2741;
501.9000;0.3264;7.2836;
502.2000;0.3280;7.2859;
502.5000;0.3264;7.2906;
502.8000;0.3248;7.2977;
503.1000;0.3264;7.2930;
503.4000;0.3240;7.2906;
503.7000;0.3272;7.2977;
504.0000;0.3256;7.2930;
504.3000;0.3264;7.2906;
504.6000;0.3272;7.3000;
504.9000;0.3264;7.3047;
505.2000;0.3264;7.3047;
505.5000;0.3264;7.2953;
505.8000;0.3272;7.2812;
506.1000;0.3272;7.2883;
506.4000;0.3248;7.2741;
506.7000;0.3215;7.2671;
507.0000;0.3272;7.2789;
507.3000;0.3313;7.2883;
507.6000;0.3248;7.2789;
507.9000;0.3256;7.2812;
508.2000;0.3248;7.2883;
508.5000;0.3256;7.2883;
508.8000;0.3256;7.2883;
509.1000;0.3199;7.2836;
509.4000;0.3240;7.2859;
509.7000;0.3264;7.2906;
510.0000;0.3272;7.2906;
510.3000;0.3256;7.2789;
510.6000;0.3256;7.2836;
510.9000;0.3256;7.2883;
511.2000;0.3264;7.2859;
511.5000;0.3264;7.2883;
511.8000;0.3264;7.2930;
512.1000;0.3264;7.2906;
512.4000;0.3272;7.2977;
512.7000;0.3280;7.3024;
513.0000;0.3248;7.3000;
513.3000;0.3264;7.3000;
513.6000;0.3280;7.3094;
513.9000;0.3256;7.3094;
514.2000;0.3264;7.3047;
514.5000;0.3248;7.3024;
514.8000;0.3272;7.3118;
515.1000;0.3280;7.3047;
515.4000;0.3264;7.3024;
515.7000;0.3248;7.2883;
516.0000;0.3272;7.2930;
516.3000;0.3329;7.3118;
516.6000;0.3248;7.2883;
516.9000;0.3248;7.2883;
517.2000;0.3264;7.2883;
517.5000;0.3256;7.2977;
517.8000;0.3256;7.3000;
518.1000;0.3223;7.2977;
518.4000;0.3264;7.3071;
518.7000;0.3289;7.3188;
519.0000;0.3248;7.3094;
519.3000;0.3248;7.3141;
519.6000;0.3223;7.3047;
519.9000;0.3280;7.3165;
520.2000;0.3297;7.3188;
520.5000;0.3240;7.3071;
520.8000;0.3272;7.3071;
521.1000;0.3272;7.3047;
521.4000;0.3272;7.3071;
521.7000;0.3272;7.3071;
522.0000;0.3240;7.3000;
522.3000;0.3264;7.3000;
522.6000;0.3264;7.3000;
522.9000;0.3256;7.2977;
523.2000;0.3223;7.2836;
523.5000;0.3223;7.2789;
523.8000;0.3272;7.2836;
524.1000;0.3305;7.2859;
524.4000;0.3305;7.2906;
524.7000;0.3256;7.2883;
525.0000;0.3272;7.2977;
525.3000;0.3297;7.3047;
525.6000;0.3272;7.2906;
525.9000;0.3256;7.2836;
526.2000;0.3280;7.2859;
526.5000;0.3297;7.2930;
526.8000;0.3256;7.2836;
527.1000;0.3256;7.2789;
527.4000;0.3223;7.2741;
527.7000;0.3272;7.2812;
528.0000;0.3256;7.2836;
528.3000;0.3297;7.2953;
528.6000;0.3248;7.2859;
528.9000;0.3272;7.2883;
529.2000;0.3256;7.2883;
529.5000;0.3264;7.2836;
529.8000;0.3272;7.2930;
530.1000;0.3264;7.2906;
530.4000;0.3272;7.3024;
530.7000;0.3272;7.2953;
531.0000;0.3272;7.2930;
531.3000;0.3264;7.2789;
531.6000;0.3272;7.2859;
531.9000;0.3264;7.2859;
532.2000;0.3232;7.2836;
532.5000;0.3240;7.2883;
532.8000;0.3272;7.2930;
533.1000;0.3232;7.2883;
533.4000;0.3232;7.2836;
533.7000;0.3256;7.2883;
534.0000;0.3264;7.2930;
534.3000;0.3280;7.2930;
534.6000;0.3264;7.2906;
534.9000;0.3264;7.2906;
535.2000;0.3272;7.2930;
535.5000;0.3297;7.2906;
535.8000;0.3264;7.2836;
536.1000;0.3264;7.2812;
536.4000;0.3248;7.2836;
536.7000;0.3215;7.2859;
537.0000;0.3248;7.2836;
537.3000;0.3240;7.2765;
537.6000;0.3256;7.2765;
537.9000;0.3248;7.2836;
538.2000;0.3256;7.2836;
538.5000;0.3248;7.2694;
538.8000;0.3264;7.2718;
539.1000;0.3248;7.2789;
539.4000;0.3256;7.2836;
539.7000;0.3272;7.2836;
540.0000;0.3256;7.2812;
540.3000;0.3289;7.2883;
540.6000;0.3264;7.2859;
540.9000;0.3272;7.2789;
541.2000;0.3272;7.2671;
541.5000;0.3272;7.2694;
541.8000;0.3272;7.2718;
542.1000;0.3272;7.2789;
542.4000;0.3256;7.2694;
542.7000;0.3305;7.2930;
543.0000;0.3272;7.2789;
543.3000;0.3256;7.2741;
543.6000;0.3264;7.2765;
543.9000;0.3256;7.2789;
544.2000;0.3248;7.2836;
544.5000;0.3289;7.2930;
544.8000;0.3207;7.2812;
545.1000;0.3256;7.3000;
545.4000;0.3280;7.3071;
545.7000;0.3248;7.2977;
546.0000;0.3264;7.3047;
546.3000;0.3207;7.2977;
546.6000;0.3272;7.3071;
546.9000;0.3264;7.2977;
547.2000;0.3337;7.3047;
547.5000;0.3264;7.2859;
547.8000;0.3264;7.2883;
548.1000;0.3240;7.2836;
548.4000;0.3191;7.2671;
548.7000;0.3240;7.2812;
549.0000;0.3223;7.2859;
549.3000;0.3223;7.2789;
549.6000;0.3264;7.2930;
549.9000;0.3272;7.2859;
550.2000;0.3256;7.2883;
550.5000;0.3272;7.2930;
550.8000;0.3232;7.2836;
551.1000;0.3256;7.2930;
551.4000;0.3256;7.2930;
551.7000;0.3264;7.2906;
552.0000;0.3256;7.2883;
552.3000;0.3248;7.2859;
552.6000;0.3248;7.2859;
552.9000;0.3256;7.2883;
553.2000;0.3223;7.2906;
553.5000;0.3248;7.3000;
553.8000;0.3215;7.2953;
554.1000;0.3313;7.3141;
554.4000;0.3264;7.2953;
554.7000;0.3264;7.2953;
555.0000;0.3272;7.2977;
555.3000;0.3248;7.2906;
555.6000;0.3240;7.2836;
555.9000;0.3240;7.2883;
556.2000;0.3240;7.2859;
556.5000;0.3248;7.2883;
556.8000;0.3248;7.2836;
557.1000;0.3256;7.2859;
557.4000;0.3256;7.2836;
557.7000;0.3240;7.2859;
558.0000;0.3272;7.2930;
558.3000;0.3256;7.2930;
558.6000;0.3248;7.2883;
558.9000;0.3289;7.2883;
559.2000;0.3280;7.2836;
559.5000;0.3272;7.2741;
559.8000;0.3248;7.2694;
560.1000;0.3272;7.2836;
560.4000;0.3256;7.2718;
560.7000;0.3264;7.2812;
561.0000;0.3280;7.2883;
561.3000;0.3264;7.2836;
561.6000;0.3256;7.2859;
561.9000;0.3240;7.2812;
562.2000;0.3256;7.2930;
562.5000;0.3256;7.3000;
562.8000;0.3256;7.2953;
563.1000;0.3240;7.2977;
563.4000;0.3272;7.3024;
563.7000;0.3183;7.2906;
564.0000;0.3256;7.3047;
564.3000;0.3280;7.3000;
564.6000;0.3264;7.2977;
564.9000;0.3264;7.3024;
565.2000;0.3240;7.2859;
565.5000;0.3264;7.2953;
565.8000;0.3264;7.2953;
566.1000;0.3272;7.2765;
566.4000;0.3248;7.2741;
566.7000;0.3264;7.2765;
567.0000;0.3248;7.2718;
567.3000;0.3264;7.2789;
567.6000;0.3264;7.2718;
567.9000;0.3248;7.2671;
568.2000;0.3248;7.2671;
568.5000;0.3272;7.2694;
568.8000;0.3272;7.2718;
569.1000;0.3256;7.2694;
569.4000;0.3272;7.2718;
569.7000;0.3256;7.2789;
570.0000;0.3256;7.2812;
570.3000;0.3248;7.2741;
570.6000;0.3264;7.2836;
570.9000;0.3321;7.3000;
571.2000;0.3272;7.2812;
571.5000;0.3264;7.2836;
571.8000;0.3191;7.2741;
572.1000;0.3256;7.2930;
572.4000;0.3256;7.3047;
572.7000;0.3329;7.3212;
573.0000;0.3289;7.3118;
573.3000;0.3232;7.3024;
573.6000;0.3223;7.3094;
573.9000;0.3256;7.3141;
574.2000;0.3248;7.3071;
574.5000;0.3248;7.3071;
574.8000;0.3223;7.2906;
575.1000;0.3256;7.3000;
575.4000;0.3280;7.3000;
575.7000;0.3175;7.2859;
576.0000;0.3264;7.3165;
576.3000;0.3289;7.3165;
576.6000;0.3264;7.3000;
576.9000;0.3248;7.2906;
577.2000;0.3321;7.3094;
577.5000;0.3321;7.3047;
577.8000;0.3240;7.2883;
578.1000;0.3272;7.2953;
578.4000;0.3264;7.3024;
578.7000;0.3289;7.3188;
579.0000;0.3256;7.3024;
579.3000;0.3256;7.3071;
579.6000;0.3256;7.3141;
579.9000;0.3272;7.3235;
580.2000;0.3240;7.3094;
580.5000;0.3248;7.3024;
580.8000;0.3215;7.2977;
581.1000;0.3264;7.3047;
581.4000;0.3248;7.3047;
581.7000;0.3248;7.2930;
582.0000;0.3232;7.2859;
582.3000;0.3264;7.2906;
582.6000;0.3272;7.2883;
582.9000;0.3248;7.2906;
583.2000;0.3232;7.2883;
583.5000;0.3240;7.2883;
583.8000;0.3240;7.2977;
584.1000;0.3248;7.3047;
584.4000;0.3240;7.3094;
584.7000;0.3297;7.3188;
585.0000;0.3264;7.3118;
585.3000;0.3248;7.3071;
585.6000;0.3264;7.3188;
585.9000;0.3240;7.3141;
586.2000;0.3264;7.3188;
586.5000;0.3223;7.3071;
586.8000;0.3248;7.3165;
587.1000;0.3256;7.3259;
587.4000;0.3248;7.3188;
587.7000;0.3256;7.3141;
588.0000;0.3272;7.3094;
588.3000;0.3248;7.2953;
588.6000;0.3289;7.3071;
588.9000;0.3256;7.3047;
589.2000;0.3240;7.3047;
589.5000;0.3256;7.3118;
589.8000;0.3240;7.3071;
590.1000;0.3272;7.3024;
590.4000;0.3272;7.2977;
590.7000;0.3256;7.2953;
591.0000;0.3183;7.2741;
591.3000;0.3289;7.2930;
591.6000;0.3248;7.2953;
591.9000;0.3370;7.3306;
592.2000;0.3289;7.3094;
592.5000;0.3223;7.2930;
592.8000;0.3264;7.2953;
593.1000;0.3256;7.2859;
593.4000;0.3207;7.2765;
593.7000;0.3264;7.2883;
594.0000;0.3232;7.2789;
594.3000;0.3305;7.3024;
594.6000;0.3248;7.2930;
594.9000;0.3240;7.2906;
595.2000;0.3248;7.2953;
595.5000;0.3175;7.2765;
595.8000;0.3264;7.2883;
596.1000;0.3232;7.2789;
596.4000;0.3264;7.2765;
596.7000;0.3272;7.2789;
597.0000;0.3232;7.2741;
597.3000;0.3280;7.2836;
597.6000;0.3264;7.2883;
597.9000;0.3240;7.2953;
598.2000;0.3248;7.3024;
598.5000;0.3240;7.2977;
598.8000;0.3223;7.2906;
599.1000;0.3289;7.3118;
599.4000;0.3248;7.3071;
599.7000;0.3264;7.3118;
600.0000;0.3232;7.3071;
600.3000;0.3264;7.3094;
600.6000;0.3248;7.2906;
600.9000;0.3232;7.2741;
601.2000;0.3240;7.2694;
601.5000;0.3223;7.2577;
601.8000;0.3175;7.2295;
602.1000;0.3061;7.1942;
602.4000;0.3118;7.2083;
602.7000;0.3085;7.1989;
603.0000;0.3069;7.1942;
603.3000;0.3044;7.1754;
603.6000;0.3020;7.1519;
603.9000;0.3036;7.1542;
604.2000;0.2996;7.1495;
604.5000;0.2979;7.1495;
604.8000;0.2971;7.1495;
605.1000;0.2955;7.1472;
605.4000;0.2971;7.1495;
605.7000;0.2922;7.1448;
606.0000;0.2906;7.1377;
606.3000;0.2939;7.1495;
606.6000;0.2906;7.1472;
606.9000;0.2939;7.1542;
607.2000;0.2865;7.1401;
607.5000;0.2873;7.1424;
607.8000;0.2849;7.1307;
608.1000;0.2841;7.1236;
608.4000;0.2825;7.1236;
608.7000;0.2849;7.1330;
609.0000;0.2833;7.1213;
609.3000;0.2784;7.1166;
609.6000;0.2784;7.1072;
609.9000;0.2768;7.0978;
610.2000;0.2784;7.0931;
610.5000;0.2784;7.0907;
610.8000;0.2759;7.0931;
611.1000;0.2751;7.0954;
611.4000;0.2743;7.0978;
611.7000;0.2759;7.0978;
612.0000;0.2743;7.0907;
612.3000;0.2711;7.0837;
612.6000;0.2646;7.0742;
612.9000;0.2702;7.0860;
613.2000;0.2694;7.0813;
613.5000;0.2646;7.0789;
613.8000;0.2678;7.0837;
614.1000;0.2727;7.0931;
614.4000;0.2702;7.0813;
614.7000;0.2670;7.0719;
615.0000;0.2727;7.0789;
615.3000;0.2654;7.0672;
615.6000;0.2670;7.0884;
615.9000;0.2646;7.0837;
616.2000;0.2613;7.0813;
616.5000;0.2646;7.0860;
616.8000;0.2580;7.0672;
617.1000;0.2605;7.0719;
617.4000;0.2556;7.0507;
617.7000;0.2605;7.0648;
618.0000;0.2646;7.0719;
618.3000;0.2564;7.0601;
618.6000;0.2597;7.0672;
618.9000;0.2646;7.0648;
619.2000;0.2589;7.0507;
619.5000;0.2670;7.0695;
619.8000;0.2540;7.0343;
620.1000;0.2523;7.0343;
620.4000;0.2491;7.0249;
620.7000;0.2613;7.0554;
621.0000;0.2564;7.0437;
621.3000;0.2662;7.0766;
621.6000;0.2540;7.0437;
621.9000;0.2540;7.0437;
622.2000;0.2548;7.0413;
622.5000;0.2540;7.0460;
622.8000;0.2564;7.0484;
623.1000;0.2548;7.0413;
623.4000;0.2515;7.0343;
623.7000;0.2507;7.0366;
624.0000;0.2507;7.0390;
624.3000;0.2499;7.0343;
624.6000;0.2491;7.0249;
624.9000;0.2515;7.0272;
625.2000;0.2499;7.0272;
625.5000;0.2483;7.0343;
625.8000;0.2491;7.0390;
626.1000;0.2466;7.0390;
626.4000;0.2499;7.0437;
626.7000;0.2466;7.0413;
627.0000;0.2483;7.0484;
627.3000;0.2458;7.0437;
627.6000;0.2450;7.0437;
627.9000;0.2483;7.0437;
628.2000;0.2475;7.0366;
628.5000;0.2475;7.0319;
628.8000;0.2466;7.0249;
629.1000;0.2483;7.0249;
629.4000;0.2458;7.0178;
629.7000;0.2458;7.0202;
630.0000;0.2442;7.0202;
630.3000;0.2450;7.0296;
630.6000;0.2426;7.0296;
630.9000;0.2426;7.0390;
631.2000;0.2426;7.0296;
631.5000;0.2409;7.0202;
631.8000;0.2434;7.0225;
632.1000;0.2426;7.0249;
632.4000;0.2418;7.0272;
632.7000;0.2401;7.0343;
633.0000;0.2377;7.0296;
633.3000;0.2401;7.0272;
633.6000;0.2450;7.0202;
633.9000;0.2475;7.0249;
634.2000;0.2393;7.0154;
634.5000;0.2393;7.0154;
634.8000;0.2377;7.0084;
635.1000;0.2418;7.0107;
635.4000;0.2458;7.0225;
635.7000;0.2385;7.0154;
636.0000;0.2401;7.0225;
636.3000;0.2369;7.0249;
636.6000;0.2361;7.0272;
636.9000;0.2385;7.0343;
637.2000;0.2393;7.0413;
637.5000;0.2369;7.0343;
637.8000;0.2352;7.0296;
638.1000;0.2401;7.0413;
638.4000;0.2361;7.0272;
638.7000;0.2369;7.0225;
639.0000;0.2385;7.0249;
639.3000;0.2344;7.0178;
639.6000;0.2312;6.9966;
639.9000;0.2352;7.0131;
640.2000;0.2295;7.0013;
640.5000;0.2336;7.0178;
640.8000;0.2361;7.0249;
641.1000;0.2336;7.0202;
641.4000;0.2361;7.0272;
641.7000;0.2352;7.0343;
642.0000;0.2287;7.0225;
642.3000;0.2369;7.0366;
642.6000;0.2320;7.0249;
642.9000;0.2312;7.0272;
643.2000;0.2320;7.0343;
643.5000;0.2312;7.0366;
643.8000;0.2320;7.0390;
644.1000;0.2295;7.0319;
644.4000;0.2312;7.0225;
644.7000;0.2320;7.0272;
645.0000;0.2304;7.0084;
645.3000;0.2287;7.0037;
645.6000;0.2320;7.0202;
645.9000;0.2312;7.0249;
646.2000;0.2295;7.0249;
646.5000;0.2279;7.0225;
646.8000;0.2271;7.0131;
647.1000;0.2295;7.0202;
647.4000;0.2304;7.0202;
647.7000;0.2295;7.0107;
648.0000;0.2279;7.0060;
648.3000;0.2304;7.0131;
648.6000;0.2279;7.0131;
648.9000;0.2287;7.0178;
649.2000;0.2206;6.9966;
649.5000;0.2287;7.0084;
649.8000;0.2279;7.0107;
650.1000;0.2279;7.0037;
650.4000;0.2279;6.9990;
650.7000;0.2295;7.0013;
651.0000;0.2279;7.0107;
651.3000;0.2271;7.0202;
651.6000;0.2255;7.0272;
651.9000;0.2263;7.0225;
652.2000;0.2279;7.0249;
652.5000;0.2328;7.0366;
652.8000;0.2271;7.0202;
653.1000;0.2263;7.0107;
653.4000;0.2328;7.0249;
653.7000;0.2271;7.0202;
654.0000;0.2287;7.0249;
654.3000;0.2263;7.0178;
654.6000;0.2230;7.0084;
654.9000;0.2352;7.0296;
655.2000;0.2263;7.0178;
655.5000;0.2206;7.0178;
655.8000;0.2255;7.0249;
656.1000;0.2255;7.0249;
656.4000;0.2255;7.0319;
656.7000;0.2255;7.0390;
657.0000;0.2222;7.0296;
657.3000;0.2239;7.0319;
657.6000;0.2239;7.0343;
657.9000;0.2222;7.0343;
658.2000;0.2247;7.0390;
658.5000;0.2230;7.0296;
658.8000;0.2230;7.0178;
659.1000;0.2230;7.0154;
659.4000;0.2230;7.0154;
659.7000;0.2239;7.0131;
660.0000;0.2247;7.0154;
660.3000;0.2206;6.9966;
660.6000;0.2190;6.9825;
660.9000;0.2230;6.9919;
661.2000;0.2263;7.0084;
661.5000;0.2255;7.0107;
661.8000;0.2222;7.0131;
662.1000;0.2214;7.0202;
662.4000;0.2230;7.0249;
662.7000;0.2239;7.0272;
663.0000;0.2214;7.0202;
663.3000;0.2214;7.0296;
663.6000;0.2206;7.0178;
663.9000;0.2255;7.0178;
664.2000;0.2165;6.9919;
664.5000;0.2182;7.0013;
664.8000;0.2100;6.9825;
665.1000;0.2206;7.0084;
665.4000;0.2206;7.0107;
665.7000;0.2141;6.9872;
666.0000;0.2198;7.0084;
666.3000;0.2214;7.0178;
666.6000;0.2263;7.0366;
666.9000;0.2182;7.0154;
667.2000;0.2165;7.0178;
667.5000;0.2206;7.0296;
667.8000;0.2214;7.0296;
668.1000;0.2206;7.0272;
668.4000;0.2182;7.0202;
668.7000;0.2173;7.0272;
669.0000;0.2182;7.0272;
669.3000;0.2190;7.0178;
669.6000;0.2182;7.0178;
669.9000;0.2190;7.0249;
670.2000;0.2190;7.0249;
670.5000;0.2108;6.9966;
670.8000;0.2173;7.0202;
671.1000;0.2206;7.0249;
671.4000;0.2173;7.0225;
671.7000;0.2173;7.0202;
672.0000;0.2206;7.0225;
672.3000;0.2125;7.0154;
672.6000;0.2206;7.0319;
672.9000;0.2190;7.0343;
673.2000;0.2198;7.0437;
673.5000;0.2173;7.0319;
673.8000;0.2173;7.0343;
674.1000;0.2173;7.0319;
674.4000;0.2157;7.0249;
674.7000;0.2222;7.0413;
675.0000;0.2157;7.0296;
675.3000;0.2190;7.0413;
675.6000;0.2157;7.0390;
675.9000;0.2116;7.0225;
676.2000;0.2198;7.0413;
676.5000;0.2116;7.0202;
676.8000;0.2198;7.0390;
677.1000;0.2173;7.0319;
677.4000;0.2198;7.0390;
677.7000;0.2182;7.0484;
678.0000;0.2182;7.0413;
678.3000;0.2157;7.0366;
678.6000;0.2198;7.0390;
678.9000;0.2165;7.0390;
679.2000;0.2149;7.0390;
679.5000;0.2125;7.0366;
679.8000;0.2157;7.0343;
680.1000;0.2157;7.0272;
680.4000;0.2165;7.0225;
680.7000;0.2157;7.0202;
681.0000;0.2108;7.0131;
681.3000;0.2173;7.0249;
681.6000;0.2165;7.0225;
681.9000;0.2182;7.0249;
682.2000;0.2173;7.0272;
682.5000;0.2149;7.0319;
682.8000;0.2116;7.0178;
683.1000;0.2165;7.0249;
683.4000;0.2141;7.0202;
683.7000;0.2149;7.0202;
684.0000;0.2149;7.0154;
684.3000;0.2165;7.0202;
684.6000;0.2149;7.0202;
684.9000;0.2133;7.0178;
685.2000;0.2141;7.0154;
685.5000;0.2149;7.0249;
685.8000;0.2141;7.0249;
686.1000;0.2084;7.0084;
686.4000;0.2141;7.0249;
686.7000;0.2182;7.0319;
687.0000;0.2157;7.0272;
687.3000;0.2125;7.0202;
687.6000;0.2100;7.0154;
687.9000;0.2149;7.0249;
688.2000;0.2149;7.0107;
688.5000;0.2157;7.0060;
688.8000;0.2182;7.0060;
689.1000;0.2198;7.0107;
689.4000;0.2125;7.0013;
689.7000;0.2084;6.9966;
690.0000;0.2116;7.0060;
690.3000;0.2198;7.0272;
690.6000;0.2116;7.0202;
690.9000;0.2108;7.0107;
691.2000;0.2116;7.0131;
691.5000;0.2116;7.0084;
691.8000;0.2141;7.0178;
692.1000;0.2100;7.0154;
692.4000;0.2108;7.0202;
692.7000;0.2100;7.0178;
693.0000;0.2084;7.0131;
693.3000;0.2173;7.0390;
693.6000;0.2133;7.0296;
693.9000;0.2116;7.0202;
694.2000;0.2133;7.0202;
694.5000;0.2116;7.0131;
694.8000;0.2116;7.0084;
695.1000;0.2125;7.0131;
695.4000;0.2116;7.0202;
695.7000;0.2133;7.0202;
696.0000;0.2100;7.0178;
696.3000;0.2108;7.0178;
696.6000;0.2141;7.0225;
696.9000;0.2125;7.0202;
697.2000;0.2206;7.0366;
697.5000;0.2125;7.0131;
697.8000;0.2141;7.0131;
698.1000;0.2133;7.0249;
698.4000;0.2133;7.0272;
698.7000;0.2116;7.0202;
699.0000;0.2116;7.0202;
699.3000;0.2108;7.0178;
699.6000;0.2100;7.0107;
699.9000;0.2141;7.0202;
700.2000;0.2100;7.0202;
700.5000;0.2116;7.0202;
700.8000;0.2125;7.0249;
701.1000;0.2125;7.0272;
701.4000;0.2100;7.0202;
701.7000;0.2141;7.0296;
702.0000;0.2059;7.0131;
702.3000;0.2116;7.0272;
702.6000;0.2092;7.0272;
702.9000;0.2100;7.0390;
703.2000;0.2125;7.0484;
703.5000;0.2173;7.0672;
703.8000;0.2108;7.0390;
704.1000;0.2092;7.0366;
704.4000;0.2100;7.0413;
704.7000;0.2092;7.0319;
705.0000;0.2108;7.0437;
705.3000;0.2084;7.0366;
705.6000;0.2125;7.0437;
705.9000;0.2100;7.0366;
706.2000;0.2051;7.0202;
706.5000;0.2051;7.0178;
706.8000;0.2116;7.0390;
707.1000;0.2084;7.0272;
707.4000;0.2141;7.0366;
707.7000;0.2100;7.0366;
708.0000;0.2214;7.0625;
708.3000;0.2116;7.0437;
708.6000;0.2108;7.0319;
708.9000;0.2116;7.0249;
709.2000;0.2100;7.0202;
709.5000;0.2002;6.9966;
709.8000;0.2068;7.0154;
710.1000;0.2116;7.0272;
710.4000;0.2100;7.0178;
710.7000;0.2068;7.0107;
711.0000;0.2059;7.0154;
711.3000;0.2084;7.0319;
711.6000;0.2108;7.0390;
711.9000;0.2173;7.0625;
712.2000;0.2084;7.0390;
712.5000;0.2100;7.0296;
712.8000;0.2059;7.0178;
713.1000;0.2068;7.0178;
713.4000;0.2100;7.0249;
713.7000;0.2035;7.0131;
714.0000;0.2084;7.0272;
714.3000;0.2076;7.0296;
714.6000;0.2084;7.0296;
714.9000;0.2076;7.0225;
715.2000;0.2084;7.0178;
715.5000;0.2116;7.0296;
715.8000;0.2092;7.0319;
716.1000;0.2100;7.0296;
716.4000;0.2084;7.0343;
716.7000;0.2092;7.0249;
717.0000;0.2108;7.0296;
717.3000;0.2084;7.0272;
717.6000;0.2084;7.0390;
717.9000;0.2084;7.0437;
718.2000;0.2027;7.0249;
718.5000;0.2084;7.0390;
718.8000;0.2068;7.0343;
719.1000;0.2076;7.0413;
719.4000;0.2092;7.0507;
719.7000;0.2092;7.0460;
720.0000;0.2068;7.0437;
720.3000;0.2084;7.0484;
720.6000;0.2068;7.0437;
720.9000;0.2092;7.0437;
721.2000;0.2084;7.0343;
721.5000;0.2059;7.0390;
721.8000;0.2092;7.0507;
722.1000;0.2092;7.0484;
722.4000;0.2059;7.0460;
722.7000;0.2059;7.0460;
723.0000;0.2100;7.0484;
723.3000;0.2068;7.0366;
723.6000;0.2068;7.0390;
723.9000;0.2084;7.0343;
724.2000;0.2059;7.0413;
724.5000;0.2076;7.0484;
724.8000;0.2068;7.0437;
725.1000;0.2059;7.0437;
725.4000;0.2084;7.0507;
725.7000;0.2076;7.0507;
726.0000;0.2076;7.0578;
726.3000;0.2043;7.0413;
726.6000;0.2019;7.0366;
726.9000;0.2068;7.0437;
727.2000;0.2051;7.0437;
727.5000;0.2076;7.0507;
727.8000;0.2027;7.0390;
728.1000;0.2043;7.0413;
728.4000;0.2043;7.0437;
728.7000;0.2059;7.0531;
729.0000;0.2068;7.0554;
729.3000;0.2051;7.0554;
729.6000;0.2068;7.0648;
729.9000;0.2068;7.0672;
730.2000;0.1994;7.0507;
730.5000;0.2108;7.0695;
730.8000;0.2076;7.0625;
731.1000;0.2043;7.0507;
731.4000;0.2092;7.0648;
731.7000;0.2076;7.0625;
732.0000;0.2068;7.0719;
732.3000;0.2092;7.0766;
732.6000;0.2068;7.0789;
732.9000;0.2068;7.0719;
733.2000;0.2059;7.0601;
733.5000;0.2043;7.0601;
733.8000;0.2084;7.0766;
734.1000;0.2059;7.0578;
734.4000;0.2068;7.0648;
734.7000;0.2068;7.0648;
735.0000;0.2125;7.0789;
735.3000;0.2051;7.0672;
735.6000;0.2059;7.0742;
735.9000;0.2076;7.0837;
736.2000;0.2084;7.0813;
736.5000;0.2068;7.0813;
736.8000;0.2051;7.0789;
737.1000;0.2068;7.0766;
737.4000;0.1986;7.0554;
737.7000;0.2059;7.0719;
738.0000;0.2051;7.0601;
738.3000;0.2051;7.0578;
738.6000;0.2068;7.0578;
738.9000;0.2068;7.0601;
739.2000;0.2059;7.0531;
739.5000;0.2051;7.0484;
739.8000;0.2068;7.0531;
740.1000;0.2068;7.0531;
740.4000;0.2051;7.0437;
740.7000;0.2059;7.0507;
741.0000;0.2035;7.0413;
741.3000;0.2116;7.0625;
741.6000;0.2059;7.0554;
741.9000;0.2059;7.0554;
742.2000;0.2076;7.0601;
742.5000;0.2068;7.0625;
742.8000;0.2068;7.0507;
743.1000;0.2068;7.0460;
743.4000;0.2051;7.0484;
743.7000;0.2043;7.0460;
744.0000;0.2043;7.0507;
744.3000;0.2043;7.0531;
744.6000;0.1986;7.0343;
744.9000;0.2068;7.0484;
745.2000;0.2035;7.0601;
745.5000;0.2043;7.0672;
745.8000;0.2051;7.0625;
746.1000;0.2027;7.0578;
746.4000;0.2051;7.0578;
746.7000;0.2068;7.0601;
747.0000;0.2043;7.0554;
747.3000;0.2059;7.0625;
747.6000;0.2076;7.0648;
747.9000;0.2043;7.0531;
748.2000;0.2051;7.0531;
748.5000;0.2043;7.0507;
748.8000;0.2043;7.0460;
749.1000;0.2059;7.0390;
749.4000;0.2051;7.0437;
749.7000;0.2011;7.0319;
750.0000;0.2051;7.0460;
750.3000;0.2051;7.0460;
750.6000;0.2035;7.0531;
750.9000;0.2043;7.0625;
751.2000;0.2027;7.0625;
751.5000;0.2084;7.0742;
751.8000;0.2035;7.0578;
752.1000;0.2035;7.0625;
752.4000;0.2035;7.0648;
752.7000;0.2043;7.0648;
753.0000;0.2051;7.0695;
753.3000;0.2043;7.0695;
753.6000;0.2043;7.0672;
753.9000;0.2035;7.0601;
754.2000;0.2076;7.0672;
754.5000;0.2035;7.0578;
754.8000;0.2019;7.0484;
755.1000;0.2043;7.0507;
755.4000;0.2068;7.0554;
755.7000;0.2043;7.0507;
756.0000;0.2051;7.0460;
756.3000;0.2035;7.0484;
756.6000;0.2068;7.0625;
756.9000;0.1994;7.0531;
757.2000;0.2002;7.0554;
757.5000;0.2035;7.0625;
757.8000;0.2011;7.0554;
758.1000;0.2019;7.0507;
758.4000;0.2059;7.0601;
758.7000;0.2059;7.0742;
759.0000;0.2019;7.0578;
759.3000;0.2035;7.0554;
759.6000;0.2019;7.0578;
759.9000;0.2035;7.0625;
760.2000;0.2035;7.0672;
760.5000;0.2019;7.0789;
760.8000;0.2002;7.0695;
761.1000;0.2051;7.0742;
761.4000;0.2035;7.0813;
761.7000;0.2043;7.0789;
762.0000;0.2027;7.0813;
762.3000;0.2027;7.0695;
762.6000;0.2051;7.0742;
762.9000;0.2043;7.0672;
763.2000;0.2059;7.0695;
763.5000;0.2027;7.0578;
763.8000;0.2019;7.0648;
764.1000;0.1962;7.0460;
764.4000;0.2027;7.0601;
764.7000;0.2027;7.0625;
765.0000;0.2019;7.0625;
765.3000;0.2011;7.0601;
765.6000;0.2043;7.0695;
765.9000;0.2002;7.0648;
766.2000;0.2027;7.0742;
766.5000;0.2019;7.0695;
766.8000;0.2051;7.0719;
767.1000;0.2019;7.0578;
767.4000;0.2035;7.0625;
767.7000;0.2027;7.0554;
768.0000;0.2035;7.0578;
768.3000;0.2035;7.0625;
768.6000;0.2051;7.0742;
768.9000;0.2035;7.0766;
769.2000;0.2027;7.0766;
769.5000;0.2043;7.0789;
769.8000;0.2002;7.0601;
770.1000;0.2019;7.0648;
770.4000;0.2019;7.0648;
770.7000;0.2011;7.0695;
771.0000;0.1921;7.0507;
771.3000;0.2027;7.0813;
771.6000;0.1978;7.0742;
771.9000;0.1962;7.0719;
772.2000;0.2002;7.0837;
772.5000;0.2051;7.1025;
772.8000;0.1994;7.0954;
773.1000;0.2027;7.1072;
773.4000;0.2027;7.0978;
773.7000;0.2019;7.0860;
774.0000;0.2002;7.0884;
774.3000;0.2019;7.0954;
774.6000;0.2027;7.0954;
774.9000;0.2035;7.1025;
775.2000;0.2019;7.0978;
775.5000;0.2035;7.0907;
775.8000;0.2019;7.0907;
776.1000;0.2035;7.0789;
776.4000;0.2011;7.0837;
776.7000;0.2019;7.0766;
777.0000;0.2019;7.0789;
777.3000;0.2019;7.0742;
777.6000;0.2011;7.0742;
777.9000;0.1994;7.0719;
778.2000;0.2035;7.0813;
778.5000;0.1986;7.0672;
778.8000;0.2035;7.0789;
779.1000;0.2002;7.0766;
779.4000;0.1970;7.0742;
779.7000;0.2002;7.0813;
780.0000;0.2092;7.1166;
780.3000;0.2051;7.1001;
780.6000;0.2027;7.0884;
780.9000;0.2084;7.1119;
781.2000;0.2019;7.0860;
781.5000;0.1986;7.0813;
781.8000;0.2043;7.0954;
782.1000;0.2125;7.1142;
782.4000;0.2019;7.0907;
782.7000;0.2068;7.0931;
783.0000;0.2011;7.0789;
783.3000;0.2027;7.0766;
783.6000;0.2011;7.0719;
783.9000;0.2019;7.0672;
784.2000;0.1986;7.0625;
784.5000;0.2027;7.0766;
784.8000;0.2019;7.0766;
785.1000;0.1994;7.0719;
785.4000;0.2011;7.0742;
785.7000;0.2019;7.0789;
786.0000;0.2019;7.0789;
786.3000;0.2019;7.0789;
786.6000;0.2011;7.0742;
786.9000;0.2019;7.0672;
787.2000;0.1978;7.0578;
787.5000;0.2011;7.0578;
787.8000;0.2019;7.0601;
788.1000;0.1994;7.0625;
788.4000;0.1994;7.0742;
788.7000;0.1970;7.0742;
789.0000;0.2002;7.0860;
789.3000;0.2019;7.0884;
789.6000;0.1994;7.0860;
789.9000;0.2011;7.0789;
790.2000;0.2019;7.0742;
790.5000;0.2011;7.0625;
790.8000;0.2027;7.0601;
791.1000;0.2027;7.0695;
791.4000;0.1994;7.0648;
791.7000;0.2002;7.0601;
792.0000;0.2011;7.0672;
792.3000;0.2011;7.0789;
792.6000;0.2002;7.0884;
792.9000;0.2043;7.0954;
793.2000;0.2019;7.0931;
793.5000;0.2011;7.0978;
793.8000;0.2002;7.1095;
794.1000;0.2019;7.1095;
794.4000;0.1994;7.0954;
794.7000;0.2002;7.1001;
795.0000;0.1986;7.0837;
795.3000;0.2011;7.0884;
795.6000;0.1978;7.0837;
795.9000;0.1888;7.0531;
796.2000;0.1994;7.0884;
796.5000;0.2011;7.0907;
796.8000;0.1986;7.0789;
797.1000;0.2002;7.0860;
797.4000;0.1986;7.0813;
797.7000;0.1994;7.0884;
798.0000;0.1986;7.0884;
798.3000;0.2002;7.0837;
798.6000;0.2019;7.0766;
798.9000;0.2043;7.0813;
799.2000;0.1986;7.0672;
799.5000;0.2019;7.0766;
799.8000;0.1937;7.0648;
800.1000;0.1994;7.0719;
800.4000;0.1994;7.0742;
800.7000;0.2002;7.0766;
801.0000;0.2019;7.0813;
801.3000;0.2035;7.0719;
801.6000;0.2019;7.0695;
801.9000;0.2076;7.0931;
802.2000;0.1978;7.0719;
802.5000;0.1978;7.0766;
802.8000;0.2019;7.0789;
803.1000;0.2002;7.0742;
803.4000;0.1978;7.0719;
803.7000;0.2002;7.0813;
804.0000;0.1888;7.0507;
804.3000;0.2035;7.0860;
804.6000;0.1994;7.0719;
804.9000;0.2027;7.0813;
805.2000;0.2027;7.0837;
805.5000;0.2019;7.0907;
805.8000;0.1970;7.0789;
806.1000;0.2002;7.0837;
806.4000;0.1945;7.0695;
806.7000;0.2035;7.0837;
807.0000;0.2002;7.0766;
807.3000;0.2051;7.0931;
807.6000;0.2027;7.0884;
807.9000;0.2043;7.0978;
808.2000;0.2002;7.0931;
808.5000;0.2027;7.0860;
808.8000;0.2002;7.0837;
809.1000;0.2002;7.0813;
809.4000;0.2002;7.0837;
809.7000;0.1970;7.0789;
810.0000;0.1986;7.0860;
810.3000;0.2002;7.0954;
810.6000;0.2002;7.0907;
810.9000;0.1986;7.0978;
811.2000;0.1945;7.0931;
811.5000;0.1970;7.0907;
811.8000;0.2002;7.0931;
812.1000;0.2002;7.0837;
812.4000;0.2002;7.0907;
812.7000;0.1994;7.0931;
813.0000;0.2002;7.0907;
813.3000;0.2002;7.0837;
813.6000;0.2002;7.0837;
813.9000;0.1978;7.0884;
814.2000;0.1978;7.0931;
814.5000;0.1978;7.0931;
814.8000;0.1986;7.0931;
815.1000;0.2002;7.0954;
815.4000;0.1978;7.0860;
815.7000;0.1978;7.0813;
816.0000;0.1978;7.0884;
816.3000;0.1978;7.1025;
816.6000;0.1994;7.1048;
816.9000;0.1986;7.0954;
817.2000;0.1978;7.0860;
817.5000;0.1994;7.0789;
817.8000;0.1986;7.0813;
818.1000;0.2027;7.0978;
818.4000;0.1929;7.0719;
818.7000;0.1986;7.0907;
819.0000;0.1970;7.0837;
819.3000;0.2002;7.0837;
819.6000;0.2035;7.0837;
819.9000;0.1994;7.0789;
820.2000;0.2002;7.0907;
820.5000;0.1986;7.0931;
820.8000;0.1970;7.0860;
821.1000;0.1978;7.0860;
821.4000;0.2011;7.0931;
821.7000;0.1994;7.0907;
822.0000;0.1970;7.0813;
822.3000;0.1986;7.0884;
822.6000;0.1978;7.0884;
822.9000;0.1994;7.0954;
823.2000;0.1970;7.0931;
823.5000;0.1986;7.0907;
823.8000;0.1954;7.0907;
824.1000;0.1970;7.0860;
824.4000;0.1970;7.0837;
824.7000;0.1978;7.0813;
825.0000;0.2002;7.0907;
825.3000;0.1994;7.0931;
825.6000;0.1970;7.0954;
825.9000;0.1962;7.0954;
826.2000;0.1970;7.1001;
826.5000;0.1986;7.1025;
826.8000;0.1994;7.1001;
827.1000;0.1986;7.0954;
827.4000;0.1929;7.0719;
827.7000;0.2002;7.1001;
828.0000;0.2043;7.1142;
828.3000;0.1937;7.0931;
828.6000;0.1978;7.1048;
828.9000;0.1986;7.1025;
829.2000;0.1978;7.1048;
829.5000;0.1978;7.1119;
829.8000;0.1986;7.1213;
830.1000;0.2002;7.1236;
830.4000;0.2043;7.1307;
830.7000;0.1986;7.1095;
831.0000;0.2011;7.1072;
831.3000;0.2011;7.0978;
831.6000;0.2011;7.1048;
831.9000;0.1994;7.0931;
832.2000;0.1970;7.0907;
832.5000;0.2084;7.1213;
832.8000;0.2002;7.1119;
833.1000;0.2019;7.1213;
833.4000;0.1970;7.1048;
833.7000;0.1986;7.1166;
834.0000;0.1986;7.1095;
834.3000;0.1970;7.1025;
834.6000;0.1897;7.0884;
834.9000;0.1986;7.1166;
835.2000;0.2011;7.1142;
835.5000;0.2002;7.1142;
835.8000;0.1978;7.1142;
836.1000;0.1978;7.1166;
836.4000;0.1970;7.1142;
836.7000;0.2002;7.1166;
837.0000;0.2002;7.1048;
837.3000;0.1986;7.0954;
837.6000;0.1986;7.0978;
837.9000;0.1937;7.0766;
838.2000;0.1986;7.1025;
838.5000;0.2002;7.1072;
838.8000;0.1937;7.0860;
839.1000;0.2002;7.1025;
839.4000;0.1970;7.1048;
839.7000;0.1986;7.1048;
840.0000;0.1970;7.1048;
840.3000;0.2002;7.1236;
840.6000;0.1994;7.1260;
840.9000;0.1970;7.1189;
841.2000;0.1978;7.1189;
841.5000;0.1937;7.1142;
841.8000;0.1994;7.1142;
842.1000;0.1937;7.1025;
842.4000;0.1888;7.0931;
842.7000;0.1986;7.1142;
843.0000;0.1986;7.1142;
843.3000;0.1994;7.1189;
843.6000;0.1921;7.1025;
843.9000;0.1986;7.1142;
844.2000;0.1994;7.1119;
844.5000;0.1978;7.1142;
844.8000;0.1970;7.1095;
845.1000;0.1880;7.0813;
845.4000;0.1994;7.1048;
845.7000;0.1986;7.1119;
846.0000;0.1962;7.1142;
846.3000;0.2002;7.1166;
846.6000;0.1978;7.1166;
846.9000;0.2002;7.1236;
847.2000;0.1970;7.1142;
847.5000;0.1994;7.1166;
847.8000;0.1978;7.1048;
848.1000;0.1994;7.1119;
848.4000;0.1994;7.1142;
848.7000;0.2051;7.1283;
849.0000;0.1978;7.1119;
849.3000;0.1954;7.1119;
849.6000;0.1970;7.1025;
849.9000;0.1978;7.1072;
850.2000;0.1994;7.1095;
850.5000;0.1970;7.1025;
850.8000;0.1978;7.1025;
851.1000;0.1954;7.0978;
851.4000;0.2019;7.1166;
851.7000;0.1986;7.1095;
852.0000;0.1978;7.1119;
852.3000;0.1978;7.0954;
852.6000;0.1897;7.0813;
852.9000;0.1986;7.1001;
853.2000;0.1978;7.0978;
853.5000;0.1978;7.0954;
853.8000;0.1994;7.1001;
854.1000;0.1978;7.1001;
854.4000;0.1994;7.1001;
854.7000;0.1970;7.0931;
855.0000;0.1994;7.1025;
855.3000;0.1937;7.1001;
855.6000;0.1970;7.1048;
855.9000;0.2011;7.1236;
856.2000;0.1937;7.1142;
856.5000;0.1945;7.1189;
856.8000;0.1962;7.1166;
857.1000;0.1945;7.1119;
857.4000;0.1945;7.1142;
857.7000;0.1962;7.1095;
858.0000;0.1962;7.1025;
858.3000;0.1978;7.1072;
858.6000;0.1994;7.1095;
858.9000;0.1978;7.1072;
859.2000;0.1986;7.1189;
859.5000;0.1970;7.1189;
859.8000;0.1970;7.1142;
860.1000;0.2019;7.1260;
860.4000;0.1994;7.1189;
860.7000;0.1994;7.1260;
861.0000;0.1962;7.1142;
861.3000;0.2002;7.1213;
861.6000;0.1970;7.1072;
861.9000;0.1994;7.1142;
862.2000;0.1994;7.1048;
862.5000;0.1921;7.0954;
862.8000;0.1970;7.0954;
863.1000;0.1978;7.0931;
863.4000;0.1978;7.0931;
863.7000;0.2027;7.1025;
864.0000;0.1978;7.0931;
864.3000;0.2019;7.1025;
864.6000;0.1962;7.0978;
864.9000;0.1954;7.0931;
865.2000;0.1970;7.0954;
865.5000;0.1937;7.0954;
865.8000;0.1970;7.1048;
866.1000;0.1986;7.1189;
866.4000;0.1978;7.1236;
866.7000;0.1978;7.1213;
867.0000;0.1994;7.1330;
867.3000;0.1970;7.1236;
867.6000;0.2011;7.1330;
867.9000;0.1986;7.1283;
868.2000;0.1962;7.1142;
868.5000;0.1986;7.1119;
868.8000;0.1954;7.1119;
869.1000;0.1954;7.1095;
869.4000;0.1945;7.1095;
869.7000;0.1962;7.1213;
870.0000;0.1962;7.1189;
870.3000;0.1962;7.1189;
870.6000;0.1986;7.1236;
870.9000;0.1970;7.1142;
871.2000;0.1970;7.1072;
871.5000;0.1962;7.1072;
871.8000;0.1962;7.1142;
872.1000;0.1962;7.1189;
872.4000;0.1954;7.1189;
872.7000;0.1986;7.1189;
873.0000;0.1970;7.1213;
873.3000;0.1962;7.1189;
873.6000;0.1986;7.1166;
873.9000;0.1970;7.1236;
874.2000;0.1970;7.1283;
874.5000;0.1978;7.1401;
874.8000;0.1978;7.1330;
875.1000;0.1945;7.1377;
875.4000;0.1954;7.1401;
875.7000;0.1978;7.1401;
876.0000;0.1986;7.1330;
876.3000;0.1962;7.1330;
876.6000;0.1962;7.1307;
876.9000;0.1978;7.1377;
877.2000;0.2035;7.1495;
877.5000;0.2027;7.1519;
877.8000;0.2043;7.1519;
878.1000;0.1994;7.1448;
878.4000;0.1962;7.1377;
878.7000;0.1978;7.1354;
879.0000;0.1978;7.1354;
879.3000;0.1937;7.1354;
879.6000;0.1970;7.1401;
879.9000;0.1945;7.1330;
880.2000;0.1929;7.1260;
880.5000;0.1962;7.1354;
880.8000;0.1945;7.1307;
881.1000;0.1986;7.1424;
881.4000;0.1954;7.1377;
881.7000;0.1962;7.1424;
882.0000;0.1970;7.1354;
882.3000;0.2068;7.1448;
882.6000;0.1962;7.1283;
882.9000;0.1970;7.1236;
883.2000;0.1978;7.1166;
883.5000;0.1962;7.1166;
883.8000;0.1937;7.1119;
884.1000;0.1986;7.1189;
884.4000;0.2019;7.1307;
884.7000;0.1970;7.1260;
885.0000;0.1986;7.1189;
885.3000;0.1986;7.1189;
885.6000;0.1954;7.1095;
885.9000;0.1986;7.1142;
886.2000;0.1970;7.1142;
886.5000;0.1978;7.1166;
886.8000;0.1970;7.1095;
887.1000;0.1913;7.0907;
887.4000;0.1962;7.1119;
887.7000;0.1986;7.1119;
888.0000;0.1970;7.1048;
888.3000;0.1970;7.1119;
888.6000;0.1994;7.1189;
888.9000;0.1978;7.1307;
889.2000;0.1962;7.1283;
889.5000;0.1937;7.1307;
889.8000;0.1962;7.1213;
890.1000;0.1962;7.1213;
890.4000;0.1954;7.1072;
890.7000;0.1945;7.1025;
891.0000;0.1962;7.0954;
891.3000;0.1954;7.0907;
891.6000;0.1970;7.0860;
891.9000;0.1962;7.0837;
892.2000;0.1962;7.0884;
892.5000;0.1929;7.0931;
892.8000;0.1937;7.0931;
893.1000;0.1970;7.0954;
893.4000;0.1954;7.0931;
893.7000;0.1945;7.1025;
894.0000;0.1970;7.1095;
894.3000;0.1929;7.1001;
894.6000;0.1945;7.0978;
894.9000;0.1954;7.1001;
895.2000;0.1937;7.0860;
895.5000;0.1970;7.0789;
895.8000;0.2002;7.0813;
896.1000;0.1954;7.0625;
896.4000;0.1962;7.0719;
896.7000;0.1978;7.0766;
897.0000;0.1986;7.0813;
897.3000;0.1994;7.0884;
897.6000;0.1962;7.0884;
897.9000;0.1962;7.0907;
898.2000;0.1954;7.0954;
898.5000;0.1864;7.0789;
898.8000;0.1970;7.1072;
899.1000;0.1954;7.0954;
899.4000;0.1986;7.1048;
899.7000;0.1962;7.0978;
900.0000;0.1978;7.1025;
900.3000;0.1978;7.0978;
900.6000;0.1970;7.0954;
900.9000;0.1954;7.1001;
901.2000;0.1954;7.1001;
901.5000;0.1937;7.1119;
901.8000;0.1945;7.1166;
902.1000;0.1937;7.1142;
902.4000;0.1978;7.1213;
902.7000;0.1962;7.1236;
903.0000;0.1986;7.1213;
903.3000;0.2002;7.1166;
903.6000;0.1937;7.0954;
903.9000;0.1970;7.0978;
904.2000;0.1962;7.0978;
904.5000;0.1954;7.0884;
904.8000;0.1970;7.0954;
905.1000;0.1962;7.1001;
905.4000;0.1945;7.0978;
905.7000;0.1954;7.0954;
906.0000;0.1970;7.0978;
906.3000;0.1954;7.0931;
906.6000;0.1945;7.1001;
906.9000;0.1970;7.1048;
907.2000;0.1978;7.0978;
907.5000;0.1954;7.0907;
907.8000;0.2002;7.0978;
908.1000;0.1970;7.0978;
908.4000;0.1962;7.1001;
908.7000;0.1962;7.1025;
909.0000;0.1994;7.1189;
909.3000;0.1970;7.1236;
909.6000;0.1962;7.1025;
909.9000;0.1986;7.1025;
910.2000;0.1978;7.1001;
910.5000;0.1945;7.1001;
910.8000;0.1897;7.0884;
911.1000;0.1921;7.1001;
911.4000;0.1945;7.1142;
911.7000;0.1945;7.1025;
912.0000;0.1986;7.1119;
912.3000;0.1970;7.1119;
912.6000;0.1954;7.1142;
912.9000;0.1962;7.1095;
913.2000;0.1970;7.1119;
913.5000;0.1954;7.1119;
913.8000;0.1962;7.1189;
914.1000;0.1937;7.1072;
914.4000;0.1954;7.1213;
914.7000;0.1962;7.1189;
915.0000;0.1929;7.1095;
915.3000;0.1937;7.1166;
915.6000;0.1937;7.1048;
915.9000;0.1937;7.1001;
916.2000;0.1970;7.1048;
916.5000;0.1945;7.1025;
916.8000;0.1840;7.0672;
917.1000;0.1954;7.0954;
917.4000;0.1954;7.0978;
917.7000;0.1945;7.0954;
918.0000;0.2027;7.1095;
918.3000;0.1954;7.0978;
918.6000;0.1937;7.0860;
918.9000;0.1929;7.0860;
919.2000;0.1888;7.0860;
919.5000;0.1954;7.1025;
919.8000;0.1970;7.1025;
920.1000;0.1962;7.0954;
920.4000;0.1962;7.1001;
920.7000;0.1962;7.0907;
921.0000;0.2027;7.1072;
921.3000;0.1970;7.1001;
921.6000;0.1970;7.1072;
921.9000;0.1945;7.1095;
922.2000;0.1978;7.1095;
922.5000;0.1945;7.1072;
922.8000;0.2027;7.1236;
923.1000;0.1962;7.1095;
923.4000;0.1945;7.1189;
923.7000;0.1954;7.1283;
924.0000;0.1945;7.1307;
924.3000;0.1954;7.1424;
924.6000;0.1962;7.1377;
924.9000;0.1954;7.1307;
925.2000;0.1913;7.1166;
925.5000;0.1929;7.1189;
925.8000;0.1929;7.1166;
926.1000;0.1954;7.1166;
926.4000;0.1929;7.1048;
926.7000;0.1945;7.1048;
927.0000;0.1937;7.1095;
927.3000;0.1945;7.1142;
927.6000;0.1937;7.1166;
927.9000;0.1905;7.0978;
928.2000;0.1954;7.1048;
928.5000;0.1954;7.0907;
928.8000;0.2019;7.1025;
929.1000;0.1970;7.0954;
929.4000;0.1954;7.0978;
929.7000;0.1978;7.1072;
930.0000;0.1962;7.1048;
930.3000;0.1970;7.1001;
930.6000;0.1962;7.1001;
930.9000;0.1978;7.1119;
931.2000;0.1986;7.1048;
931.5000;0.1905;7.0766;
931.8000;0.1872;7.0719;
932.1000;0.1945;7.0789;
932.4000;0.1978;7.0884;
932.7000;0.1962;7.0931;
933.0000;0.1986;7.1025;
933.3000;0.1962;7.1072;
933.6000;0.1986;7.1095;
933.9000;0.2019;7.1119;
934.2000;0.1970;7.1072;
934.5000;0.2043;7.1354;
934.8000;0.1962;7.1119;
935.1000;0.1929;7.1001;
935.4000;0.1962;7.1072;
935.7000;0.1954;7.1119;
936.0000;0.1913;7.1025;
936.3000;0.1945;7.1142;
936.6000;0.1970;7.1142;
936.9000;0.1937;7.1072;
937.2000;0.1994;7.1119;
937.5000;0.1954;7.1095;
937.8000;0.1913;7.1025;
938.1000;0.1905;7.1025;
938.4000;0.1962;7.1119;
938.7000;0.1978;7.1189;
939.0000;0.1945;7.1142;
939.3000;0.1945;7.1095;
939.6000;0.1945;7.1048;
939.9000;0.1962;7.1072;
940.2000;0.1978;7.1025;
940.5000;0.1954;7.1025;
940.8000;0.1937;7.1001;
941.1000;0.1954;7.0931;
941.4000;0.1962;7.1048;
941.7000;0.1954;7.1119;
942.0000;0.1921;7.1025;
942.3000;0.1978;7.1213;
942.6000;0.1945;7.1048;
942.9000;0.1929;7.1119;
943.2000;0.1962;7.1166;
943.5000;0.1954;7.1119;
943.8000;0.1962;7.1048;
944.1000;0.1937;7.1001;
944.4000;0.1954;7.1119;
944.7000;0.1945;7.1001;
945.0000;0.1929;7.1001;
945.3000;0.1945;7.1001;
945.6000;0.1962;7.1072;
945.9000;0.1962;7.1166;
946.2000;0.2043;7.1401;
946.5000;0.1962;7.1189;
946.8000;0.1929;7.1072;
947.1000;0.1945;7.1095;
947.4000;0.1994;7.1189;
947.7000;0.1970;7.1142;
948.0000;0.1945;7.1072;
948.3000;0.1962;7.1048;
948.6000;0.1970;7.1095;
948.9000;0.1962;7.1072;
949.2000;0.2011;7.1307;
949.5000;0.1970;7.1283;
949.8000;0.1970;7.1260;
950.1000;0.1945;7.1142;
950.4000;0.1929;7.1072;
950.7000;0.1945;7.1213;
951.0000;0.1937;7.1189;
951.3000;0.1954;7.1236;
951.6000;0.1937;7.1142;
951.9000;0.2043;7.1448;
952.2000;0.1945;7.1119;
952.5000;0.1978;7.1189;
952.8000;0.1945;7.1072;
953.1000;0.1945;7.1189;
953.4000;0.1954;7.1260;
953.7000;0.1937;7.1330;
954.0000;0.1954;7.1424;
954.3000;0.1962;7.1424;
954.6000;0.1937;7.1424;
954.9000;0.1962;7.1377;
955.2000;0.1945;7.1166;
955.5000;0.1945;7.1001;
955.8000;0.2011;7.1119;
956.1000;0.1962;7.1025;
956.4000;0.1937;7.0978;
956.7000;0.1994;7.0978;
957.0000;0.1962;7.0860;
957.3000;0.1962;7.0884;
957.6000;0.1994;7.0907;
957.9000;0.2002;7.0978;
958.2000;0.1970;7.0954;
958.5000;0.1970;7.1001;
958.8000;0.1913;7.0837;
959.1000;0.2043;7.1189;
959.4000;0.2011;7.1142;
959.7000;0.1913;7.0884;
960.0000;0.1954;7.0978;
960.3000;0.1954;7.1001;
960.6000;0.1962;7.0978;
960.9000;0.1954;7.0978;
961.2000;0.1978;7.0954;
961.5000;0.1954;7.0978;
961.8000;0.1954;7.1048;
962.1000;0.1937;7.1072;
962.4000;0.1954;7.1189;
962.7000;0.1962;7.1307;
963.0000;0.1937;7.1142;
963.3000;0.1937;7.1189;
963.6000;0.1962;7.1236;
963.9000;0.1913;7.1095;
964.2000;0.1937;7.1260;
964.5000;0.1921;7.1166;
964.8000;0.1937;7.1142;
965.1000;0.1929;7.1048;
965.4000;0.1937;7.1119;
965.7000;0.1937;7.1142;
966.0000;0.1945;7.1236;
966.3000;0.1888;7.1048;
966.6000;0.1945;7.1095;
966.9000;0.1954;7.1119;
967.2000;0.1978;7.1166;
967.5000;0.1954;7.1095;
967.8000;0.1954;7.1166;
968.1000;0.1945;7.1213;
968.4000;0.1929;7.1283;
968.7000;0.1954;7.1424;
969.0000;0.1945;7.1307;
969.3000;0.1929;7.1236;
969.6000;0.1945;7.1307;
969.9000;0.1962;7.1307;
970.2000;0.1986;7.1448;
970.5000;0.1945;7.1448;
970.8000;0.1937;7.1424;
971.1000;0.1945;7.1330;
971.4000;0.1937;7.1307;
971.7000;0.1970;7.1472;
972.0000;0.1994;7.1519;
972.3000;0.1929;7.1401;
972.6000;0.1905;7.1236;
972.9000;0.1954;7.1330;
973.2000;0.1937;7.1377;
973.5000;0.1954;7.1377;
973.8000;0.1954;7.1354;
974.1000;0.1954;7.1472;
974.4000;0.1954;7.1519;
974.7000;0.1945;7.1519;
975.0000;0.1929;7.1472;
975.3000;0.1945;7.1472;
975.6000;0.1954;7.1307;
975.9000;0.1937;7.1330;
976.2000;0.1954;7.1283;
976.5000;0.1945;7.1213;
976.8000;0.1954;7.1283;
977.1000;0.1945;7.1330;
977.4000;0.1945;7.1330;
977.7000;0.1978;7.1377;
978.0000;0.1962;7.1260;
978.3000;0.1970;7.1213;
978.6000;0.1954;7.1283;
978.9000;0.1929;7.1236;
979.2000;0.1970;7.1283;
979.5000;0.1840;7.1025;
979.8000;0.1954;7.1354;
980.1000;0.1954;7.1424;
980.4000;0.1954;7.1377;
980.7000;0.1954;7.1424;
981.0000;0.1945;7.1330;
981.3000;0.1962;7.1401;
981.6000;0.1962;7.1354;
981.9000;0.1945;7.1377;
982.2000;0.1954;7.1401;
982.5000;0.1945;7.1354;
982.8000;0.1962;7.1330;
983.1000;0.1929;7.1283;
983.4000;0.1978;7.1401;
983.7000;0.1921;7.1377;
984.0000;0.1962;7.1448;
984.3000;0.1970;7.1495;
984.6000;0.1954;7.1424;
984.9000;0.1929;7.1307;
985.2000;0.1937;7.1307;
985.5000;0.1937;7.1377;
985.8000;0.1945;7.1495;
986.1000;0.1970;7.1519;
986.4000;0.1962;7.1519;
986.7000;0.1978;7.1542;
987.0000;0.1986;7.1613;
987.3000;0.1970;7.1613;
987.6000;0.1954;7.1566;
987.9000;0.1962;7.1589;
988.2000;0.1945;7.1613;
988.5000;0.1945;7.1660;
988.8000;0.1929;7.1707;
989.1000;0.1945;7.1801;
989.4000;0.1954;7.1801;
989.7000;0.1937;7.1777;
990.0000;0.1962;7.1824;
990.3000;0.1945;7.1730;
990.6000;0.1945;7.1730;
990.9000;0.1954;7.1754;
991.2000;0.1929;7.1613;
991.5000;0.1929;7.1566;
991.8000;0.1954;7.1519;
992.1000;0.1994;7.1448;
992.4000;0.1937;7.1401;
992.7000;0.1945;7.1401;
993.0000;0.1929;7.1401;
993.3000;0.1970;7.1448;
993.6000;0.1954;7.1424;
993.9000;0.1937;7.1283;
994.2000;0.1970;7.1424;
994.5000;0.1945;7.1448;
994.8000;0.1913;7.1448;
995.1000;0.1954;7.1566;
995.4000;0.1937;7.1495;
995.7000;0.1937;7.1542;
996.0000;0.1970;7.1707;
996.3000;0.1856;7.1424;
996.6000;0.1929;7.1589;
996.9000;0.1937;7.1613;
997.2000;0.1970;7.1613;
997.5000;0.1872;7.1401;
997.8000;0.1937;7.1542;
998.1000;0.2002;7.1683;
998.4000;0.1954;7.1472;
998.7000;0.1954;7.1424;
999.0000;0.1945;7.1377;
999.3000;0.1954;7.1424;
999.6000;0.1921;7.1330;
999.9000;0.1945;7.1424;
1000.2000;0.1929;7.1377;
1000.5000;0.1954;7.1377;
1000.8000;0.1970;7.1260;
1001.1000;0.1937;7.1189;
1001.4000;0.1913;7.1213;
1001.7000;0.1954;7.1236;
1002.0000;0.1937;7.1166;
1002.3000;0.1945;7.1166;
1002.6000;0.1937;7.1189;
1002.9000;0.1962;7.1330;
1003.2000;0.1945;7.1260;
1003.5000;0.1954;7.1307;
1003.8000;0.1921;7.1213;
1004.1000;0.1945;7.1283;
1004.4000;0.2002;7.1354;
1004.7000;0.1945;7.1189;
1005.0000;0.1945;7.1260;
1005.3000;0.1937;7.1307;
1005.6000;0.1945;7.1377;
1005.9000;0.1970;7.1424;
1006.2000;0.1937;7.1448;
1006.5000;0.1937;7.1519;
1006.8000;0.2002;7.1589;
1007.1000;0.1962;7.1448;
1007.4000;0.1937;7.1424;
1007.7000;0.1913;7.1354;
1008.0000;0.1954;7.1424;
1008.3000;0.1937;7.1354;
1008.6000;0.1921;7.1283;
1008.9000;0.1921;7.1354;
1009.2000;0.1945;7.1283;
1009.5000;0.1954;7.1283;
1009.8000;0.1954;7.1307;
1010.1000;0.1937;7.1330;
1010.4000;0.1945;7.1307;
1010.7000;0.1945;7.1330;
1011.0000;0.1954;7.1401;
1011.3000;0.1945;7.1377;
1011.6000;0.1921;7.1330;
1011.9000;0.1945;7.1448;
1012.2000;0.1954;7.1448;
1012.5000;0.1937;7.1377;
1012.8000;0.1929;7.1330;
1013.1000;0.1945;7.1354;
1013.4000;0.1962;7.1354;
1013.7000;0.1848;7.1072;
1014.0000;0.1986;7.1495;
1014.3000;0.1954;7.1472;
1014.6000;0.2011;7.1613;
1014.9000;0.1937;7.1472;
1015.2000;0.1872;7.1189;
1015.5000;0.1937;7.1236;
1015.8000;0.1929;7.1236;
1016.1000;0.1986;7.1424;
1016.4000;0.1929;7.1307;
1016.7000;0.1937;7.1377;
1017.0000;0.1954;7.1330;
1017.3000;0.1945;7.1354;
1017.6000;0.1945;7.1401;
1017.9000;0.1921;7.1377;
1018.2000;0.1945;7.1354;
1018.5000;0.1954;7.1377;
1018.8000;0.1929;7.1401;
1019.1000;0.1945;7.1377;
1019.4000;0.1937;7.1283;
1019.7000;0.1937;7.1354;
1020.0000;0.1905;7.1307;
1020.3000;0.1954;7.1307;
1020.6000;0.1929;7.1236;
1020.9000;0.1978;7.1377;
1021.2000;0.1929;7.1307;
1021.5000;0.1929;7.1401;
1021.8000;0.1848;7.1119;
1022.1000;0.2011;7.1448;
1022.4000;0.1945;7.1260;
1022.7000;0.1929;7.1283;
1023.0000;0.1945;7.1354;
1023.3000;0.1945;7.1401;
1023.6000;0.1954;7.1307;
1023.9000;0.1978;7.1354;
1024.2000;0.1986;7.1448;
1024.5000;0.1937;7.1354;
1024.8000;0.1945;7.1377;
1025.1000;0.1929;7.1448;
1025.4000;0.1986;7.1660;
1025.7000;0.1921;7.1519;
1026.0000;0.1937;7.1542;
1026.3000;0.1937;7.1495;
1026.6000;0.1872;7.1236;
1026.9000;0.1945;7.1377;
1027.2000;0.1954;7.1424;
1027.5000;0.1929;7.1424;
1027.8000;0.1970;7.1448;
1028.1000;0.1937;7.1354;
1028.4000;0.1945;7.1401;
1028.7000;0.1978;7.1495;
1029.0000;0.2011;7.1660;
1029.3000;0.1970;7.1542;
1029.6000;0.1905;7.1330;
1029.9000;0.1937;7.1401;
1030.2000;0.1929;7.1330;
1030.5000;0.1929;7.1307;
1030.8000;0.1929;7.1236;
1031.1000;0.1954;7.1283;
1031.4000;0.1929;7.1260;
1031.7000;0.1929;7.1166;
1032.0000;0.1913;7.1142;
1032.3000;0.1937;7.1260;
1032.6000;0.1945;7.1307;
1032.9000;0.1994;7.1260;
1033.2000;0.1905;7.1095;
1033.5000;0.1937;7.1142;
1033.8000;0.1945;7.1189;
1034.1000;0.1929;7.1166;
1034.4000;0.1945;7.1142;
1034.7000;0.1937;7.1119;
1035.0000;0.1937;7.1166;
1035.3000;0.1945;7.1236;
1035.6000;0.1937;7.1236;
1035.9000;0.1929;7.1283;
1036.2000;0.1937;7.1236;
1036.5000;0.1937;7.1189;
1036.8000;0.1913;7.1072;
1037.1000;0.1945;7.1048;
1037.4000;0.2035;7.1307;
1037.7000;0.1945;7.1001;
1038.0000;0.1929;7.0931;
1038.3000;0.1978;7.1095;
1038.6000;0.1954;7.1095;
1038.9000;0.1945;7.1048;
1039.2000;0.2002;7.1330;
1039.5000;0.1970;7.1260;
1039.8000;0.1945;7.1283;
1040.1000;0.1945;7.1260;
1040.4000;0.1945;7.1330;
1040.7000;0.2011;7.1519;
1041.0000;0.1945;7.1307;
1041.3000;0.1937;7.1307;
1041.6000;0.1945;7.1330;
1041.9000;0.1905;7.1283;
1042.2000;0.1937;7.1260;
1042.5000;0.1937;7.1260;
1042.8000;0.1856;7.1072;
1043.1000;0.1913;7.1142;
1043.4000;0.1921;7.1142;
1043.7000;0.1937;7.1189;
1044.0000;0.1945;7.1213;
1044.3000;0.1937;7.1283;
1044.6000;0.1945;7.1330;
1044.9000;0.1929;7.1260;
1045.2000;0.1945;7.1307;
1045.5000;0.1945;7.1260;
1045.8000;0.1954;7.1213;
1046.1000;0.1929;7.1072;
1046.4000;0.1937;7.1236;
1046.7000;0.1929;7.1213;
1047.0000;0.1937;7.1189;
1047.3000;0.1945;7.1283;
1047.6000;0.1937;7.1236;
1047.9000;0.1954;7.1260;
1048.2000;0.1945;7.1283;
1048.5000;0.1962;7.1330;
1048.8000;0.1945;7.1213;
1049.1000;0.1921;7.1166;
1049.4000;0.1954;7.1330;
1049.7000;0.1954;7.1401;
1050.0000;0.1945;7.1448;
1050.3000;0.1945;7.1472;
1050.6000;0.1921;7.1424;
1050.9000;0.1937;7.1542;
1051.2000;0.1945;7.1542;
1051.5000;0.1945;7.1542;
1051.8000;0.1986;7.1613;
1052.1000;0.1856;7.1354;
1052.4000;0.1913;7.1542;
1052.7000;0.1921;7.1589;
1053.0000;0.1937;7.1613;
1053.3000;0.1929;7.1566;
1053.6000;0.1937;7.1589;
1053.9000;0.1921;7.1401;
1054.2000;0.1962;7.1377;
1054.5000;0.1945;7.1354;
1054.8000;0.1954;7.1424;
1055.1000;0.1962;7.1472;
1055.4000;0.1954;7.1472;
1055.7000;0.1945;7.1448;
1056.0000;0.1921;7.1401;
1056.3000;0.1945;7.1330;
1056.6000;0.1913;7.1236;
1056.9000;0.1937;7.1166;
1057.2000;0.1929;7.1213;
1057.5000;0.1954;7.1236;
1057.8000;0.1945;7.1260;
1058.1000;0.1978;7.1401;
1058.4000;0.1937;7.1307;
1058.7000;0.1929;7.1283;
1059.0000;0.1954;7.1401;
1059.3000;0.1970;7.1354;
1059.6000;0.1962;7.1307;
1059.9000;0.1954;7.1260;
1060.2000;0.1937;7.1236;
1060.5000;0.1945;7.1213;
1060.8000;0.1937;7.1236;
1061.1000;0.1929;7.1189;
1061.4000;0.1970;7.1377;
1061.7000;0.1937;7.1189;
1062.0000;0.1954;7.1283;
1062.3000;0.1937;7.1213;
1062.6000;0.1954;7.1377;
1062.9000;0.1929;7.1283;
1063.2000;0.1945;7.1236;
1063.5000;0.1945;7.1260;
1063.8000;0.1937;7.1236;
1064.1000;0.1945;7.1307;
1064.4000;0.1954;7.1283;
1064.7000;0.1921;7.1260;
1065.0000;0.1929;7.1330;
1065.3000;0.1929;7.1424;
1065.6000;0.1937;7.1472;
1065.9000;0.1921;7.1495;
1066.2000;0.1872;7.1354;
1066.5000;0.1937;7.1448;
1066.8000;0.1937;7.1472;
1067.1000;0.1921;7.1307;
1067.4000;0.1937;7.1424;
1067.7000;0.1937;7.1448;
1068.0000;0.1897;7.1377;
1068.3000;0.2002;7.1777;
1068.6000;0.1954;7.1472;
1068.9000;0.1945;7.1472;
1069.2000;0.2059;7.1754;
1069.5000;0.1970;7.1424;
1069.8000;0.1929;7.1283;
1070.1000;0.1954;7.1354;
1070.4000;0.1962;7.1401;
1070.7000;0.1945;7.1377;
1071.0000;0.1937;7.1401;
1071.3000;0.1937;7.1448;
1071.6000;0.1840;7.1260;
1071.9000;0.1954;7.1613;
1072.2000;0.1921;7.1424;
1072.5000;0.1929;7.1448;
1072.8000;0.1945;7.1495;
1073.1000;0.1945;7.1401;
1073.4000;0.1937;7.1307;
1073.7000;0.1954;7.1448;
1074.0000;0.1945;7.1424;
1074.3000;0.1962;7.1448;
1074.6000;0.1937;7.1377;
1074.9000;0.1848;7.1236;
1075.2000;0.1937;7.1472;
1075.5000;0.1954;7.1448;
1075.8000;0.1905;7.1377;
1076.1000;0.2011;7.1636;
1076.4000;0.1937;7.1448;
1076.7000;0.1929;7.1401;
1077.0000;0.1945;7.1401;
1077.3000;0.1921;7.1260;
1077.6000;0.1937;7.1307;
1077.9000;0.1945;7.1283;
1078.2000;0.1937;7.1189;
1078.5000;0.1929;7.1142;
1078.8000;0.1945;7.1236;
1079.1000;0.1937;7.1213;
1079.4000;0.1954;7.1260;
1079.7000;0.1954;7.1236;
1080.0000;0.1929;7.1095;
1080.3000;0.1929;7.1095;
1080.6000;0.1937;7.1095;
1080.9000;0.1921;7.1001;
1081.2000;0.1945;7.1213;
1081.5000;0.1945;7.1283;
1081.8000;0.1945;7.1330;
1082.1000;0.1921;7.1330;
1082.4000;0.1937;7.1307;
1082.7000;0.1929;7.1260;
1083.0000;0.1954;7.1236;
1083.3000;0.1929;7.1166;
1083.6000;0.1937;7.1213;
1083.9000;0.1945;7.1330;
1084.2000;0.1929;7.1354;
1084.5000;0.1962;7.1448;
1084.8000;0.1962;7.1448;
1085.1000;0.1978;7.1472;
1085.4000;0.1945;7.1354;
1085.7000;0.1945;7.1330;
1086.0000;0.1970;7.1401;
1086.3000;0.1921;7.1260;
1086.6000;0.1929;7.1330;
1086.9000;0.1954;7.1401;
1087.2000;0.1986;7.1542;
1087.5000;0.1929;7.1377;
1087.8000;0.1905;7.1283;
1088.1000;0.1872;7.1119;
1088.4000;0.1945;7.1283;
1088.7000;0.1929;7.1236;
1089.0000;0.1945;7.1189;
1089.3000;0.1929;7.1142;
1089.6000;0.1954;7.1189;
1089.9000;0.1937;7.1189;
1090.2000;0.1978;7.1236;
1090.5000;0.1994;7.1307;
1090.8000;0.1945;7.1236;
1091.1000;0.1905;7.1283;
1091.4000;0.1921;7.1401;
1091.7000;0.1929;7.1448;
1092.0000;0.1954;7.1448;
1092.3000;0.1978;7.1448;
1092.6000;0.1945;7.1401;
1092.9000;0.1921;7.1401;
1093.2000;0.1937;7.1448;
1093.5000;0.1945;7.1495;
1093.8000;0.1970;7.1448;
1094.1000;0.1937;7.1377;
1094.4000;0.1945;7.1377;
1094.7000;0.1954;7.1401;
1095.0000;0.1945;7.1283;
1095.3000;0.1937;7.1307;
1095.6000;0.1954;7.1283;
1095.9000;0.1994;7.1354;
1096.2000;0.1978;7.1330;
1096.5000;0.1970;7.1213;
1096.8000;0.1945;7.1189;
1097.1000;0.1929;7.1189;
1097.4000;0.1945;7.1166;
1097.7000;0.1962;7.1119;
1098.0000;0.1929;7.1095;
1098.3000;0.1921;7.1142;
1098.6000;0.1954;7.1213;
1098.9000;0.1937;7.1283;
1099.2000;0.1945;7.1354;
1099.5000;0.1929;7.1283;
1099.8000;0.1929;7.1307;
1100.1000;0.1888;7.1095;
1100.4000;0.1929;7.1213;
1100.7000;0.1937;7.1236;
1101.0000;0.1856;7.0978;
1101.3000;0.1921;7.1166;
1101.6000;0.1913;7.1119;
1101.9000;0.1921;7.1166;
1102.2000;0.1913;7.1236;
1102.5000;0.1954;7.1330;
1102.8000;0.1945;7.1307;
1103.1000;0.1929;7.1236;
1103.4000;0.1945;7.1377;
1103.7000;0.1954;7.1330;
1104.0000;0.1937;7.1354;
1104.3000;0.1929;7.1377;
1104.6000;0.1937;7.1424;
1104.9000;0.1937;7.1472;
1105.2000;0.1913;7.1472;
1105.5000;0.1921;7.1472;
1105.8000;0.1929;7.1542;
1106.1000;0.1905;7.1495;
1106.4000;0.1921;7.1542;
1106.7000;0.1913;7.1495;
1107.0000;0.2043;7.1824;
1107.3000;0.1937;7.1613;
1107.6000;0.1929;7.1589;
1107.9000;0.1962;7.1589;
1108.2000;0.1945;7.1542;
1108.5000;0.1945;7.1472;
1108.8000;0.1945;7.1519;
1109.1000;0.1994;7.1589;
1109.4000;0.1954;7.1519;
1109.7000;0.1945;7.1519;
1110.0000;0.1937;7.1472;
1110.3000;0.1954;7.1519;
1110.6000;0.1954;7.1448;
1110.9000;0.1921;7.1354;
1111.2000;0.1929;7.1330;
1111.5000;0.1937;7.1354;
1111.8000;0.1929;7.1354;
1112.1000;0.1937;7.1424;
1112.4000;0.1929;7.1424;
1112.7000;0.1937;7.1448;
1113.0000;0.1937;7.1330;
1113.3000;0.1929;7.1330;
1113.6000;0.1921;7.1283;
1113.9000;0.1905;7.1236;
1114.2000;0.1937;7.1260;
1114.5000;0.1945;7.1401;
1114.8000;0.1937;7.1354;
1115.1000;0.1962;7.1424;
1115.4000;0.1962;7.1472;
1115.7000;0.1929;7.1330;
1116.0000;0.1937;7.1401;
1116.3000;0.1929;7.1354;
1116.6000;0.1913;7.1260;
1116.9000;0.1905;7.1283;
1117.2000;0.1913;7.1283;
1117.5000;0.1921;7.1283;
1117.8000;0.1945;7.1354;
1118.1000;0.1954;7.1354;
1118.4000;0.1929;7.1354;
1118.7000;0.1937;7.1401;
1119.0000;0.1937;7.1448;
1119.3000;0.1937;7.1519;
1119.6000;0.1954;7.1636;
1119.9000;0.1888;7.1472;
1120.2000;0.1937;7.1542;
1120.5000;0.1954;7.1495;
1120.8000;0.1921;7.1401;
1121.1000;0.1929;7.1401;
1121.4000;0.1945;7.1354;
1121.7000;0.1888;7.1236;
1122.0000;0.1937;7.1283;
1122.3000;0.1937;7.1283;
1122.6000;0.1945;7.1260;
1122.9000;0.1937;7.1119;
1123.2000;0.1913;7.1048;
1123.5000;0.1921;7.1048;
1123.8000;0.1921;7.1166;
1124.1000;0.1929;7.1189;
1124.4000;0.1921;7.1189;
1124.7000;0.1929;7.1189;
1125.0000;0.1864;7.0931;
1125.3000;0.1945;7.1189;
1125.6000;0.1986;7.1236;
1125.9000;0.1954;7.1095;
1126.2000;0.1937;7.1095;
1126.5000;0.1937;7.1142;
1126.8000;0.1986;7.1283;
1127.1000;0.1954;7.1189;
1127.4000;0.1962;7.1283;
1127.7000;0.1962;7.1307;
1128.0000;0.1937;7.1189;
1128.3000;0.1937;7.1213;
1128.6000;0.1937;7.1283;
1128.9000;0.1913;7.1377;
1129.2000;0.1921;7.1424;
1129.5000;0.1945;7.1519;
1129.8000;0.1970;7.1589;
1130.1000;0.2027;7.1636;
1130.4000;0.1962;7.1354;
1130.7000;0.1994;7.1519;
1131.0000;0.1921;7.1401;
1131.3000;0.1921;7.1472;
1131.6000;0.1937;7.1377;
1131.9000;0.1937;7.1401;
1132.2000;0.1929;7.1354;
1132.5000;0.1921;7.1424;
1132.8000;0.1921;7.1542;
1133.1000;0.1962;7.1707;
1133.4000;0.2035;7.1730;
1133.7000;0.1945;7.1472;
1134.0000;0.1970;7.1542;
1134.3000;0.1954;7.1519;
1134.6000;0.1994;7.1566;
1134.9000;0.1945;7.1495;
1135.2000;0.1945;7.1566;
1135.5000;0.1945;7.1636;
1135.8000;0.1954;7.1519;
1136.1000;0.1937;7.1401;
1136.4000;0.1929;7.1401;
1136.7000;0.1945;7.1424;
1137.0000;0.1937;7.1401;
1137.3000;0.1945;7.1424;
1137.6000;0.1921;7.1354;
1137.9000;0.1937;7.1424;
1138.2000;0.1921;7.1377;
1138.5000;0.1937;7.1377;
1138.8000;0.1929;7.1377;
1139.1000;0.1945;7.1424;
1139.4000;0.1929;7.1495;
1139.7000;0.1937;7.1542;
1140.0000;0.1921;7.1542;
1140.3000;0.1929;7.1566;
1140.6000;0.1945;7.1472;
1140.9000;0.1962;7.1566;
1141.2000;0.1921;7.1542;
1141.5000;0.2019;7.1871;
1141.8000;0.1905;7.1495;
1142.1000;0.1929;7.1401;
1142.4000;0.1913;7.1377;
1142.7000;0.2002;7.1660;
1143.0000;0.1945;7.1636;
1143.3000;0.1954;7.1636;
1143.6000;0.1856;7.1260;
1143.9000;0.1913;7.1307;
1144.2000;0.1921;7.1283;
1144.5000;0.1945;7.1377;
1144.8000;0.1929;7.1424;
1145.1000;0.1962;7.1519;
1145.4000;0.1929;7.1495;
1145.7000;0.1937;7.1566;
1146.0000;0.1929;7.1613;
1146.3000;0.1962;7.1707;
1146.6000;0.1913;7.1613;
1146.9000;0.1929;7.1636;
1147.2000;0.1921;7.1448;
1147.5000;0.1921;7.1472;
1147.8000;0.1905;7.1424;
1148.1000;0.1905;7.1472;
1148.4000;0.1954;7.1589;
1148.7000;0.1864;7.1330;
1149.0000;0.1929;7.1519;
1149.3000;0.1954;7.1636;
1149.6000;0.1937;7.1542;
1149.9000;0.1945;7.1613;
1150.2000;0.1921;7.1566;
1150.5000;0.1937;7.1589;
1150.8000;0.1929;7.1613;
1151.1000;0.1897;7.1495;
1151.4000;0.1970;7.1589;
1151.7000;0.1937;7.1566;
1152.0000;0.1921;7.1542;
1152.3000;0.1921;7.1495;
1152.6000;0.1945;7.1495;
1152.9000;0.1929;7.1589;
1153.2000;0.1986;7.1801;
1153.5000;0.1937;7.1754;
1153.8000;0.1954;7.1683;
1154.1000;0.1937;7.1683;
1154.4000;0.1970;7.1777;
1154.7000;0.1913;7.1660;
1155.0000;0.1937;7.1660;
1155.3000;0.1888;7.1495;
1155.6000;0.1929;7.1566;
1155.9000;0.1929;7.1589;
1156.2000;0.1929;7.1589;
1156.5000;0.1905;7.1542;
1156.8000;0.1937;7.1589;
1157.1000;0.1954;7.1730;
1157.4000;0.2002;7.1801;
1157.7000;0.1937;7.1636;
1158.0000;0.1913;7.1589;
1158.3000;0.1929;7.1636;
1158.6000;0.1921;7.1636;
1158.9000;0.1962;7.1660;
1159.2000;0.1929;7.1519;
1159.5000;0.1929;7.1566;
1159.8000;0.1921;7.1589;
1160.1000;0.1945;7.1542;
1160.4000;0.1888;7.1354;
1160.7000;0.1937;7.1424;
1161.0000;0.1970;7.1495;
1161.3000;0.1929;7.1401;
1161.6000;0.1945;7.1424;
1161.9000;0.1937;7.1424;
1162.2000;0.1970;7.1424;
1162.5000;0.2027;7.1542;
1162.8000;0.1913;7.1283;
1163.1000;0.1937;7.1377;
1163.4000;0.1986;7.1472;
1163.7000;0.1962;7.1495;
1164.0000;0.1970;7.1472;
1164.3000;0.1937;7.1519;
1164.6000;0.1929;7.1495;
1164.9000;0.1978;7.1566;
1165.2000;0.1937;7.1542;
1165.5000;0.1913;7.1542;
1165.8000;0.1921;7.1472;
1166.1000;0.1970;7.1613;
1166.4000;0.1929;7.1448;
1166.7000;0.1937;7.1377;
1167.0000;0.1929;7.1307;
1167.3000;0.1945;7.1307;
1167.6000;0.1945;7.1354;
1167.9000;0.1905;7.1283;
1168.2000;0.1913;7.1189;
1168.5000;0.1897;7.1236;
1168.8000;0.1937;7.1424;
1169.1000;0.1921;7.1424;
1169.4000;0.1937;7.1401;
1169.7000;0.1945;7.1377;
1170.0000;0.1929;7.1401;
1170.3000;0.1937;7.1330;
1170.6000;0.1937;7.1354;
1170.9000;0.1937;7.1401;
1171.2000;0.1913;7.1236;
1171.5000;0.1929;7.1213;
1171.8000;0.1937;7.1236;
1172.1000;0.1929;7.1213;
1172.4000;0.1945;7.1189;
1172.7000;0.1937;7.1354;
1173.0000;0.1921;7.1448;
1173.3000;0.1945;7.1519;
1173.6000;0.1937;7.1472;
1173.9000;0.1945;7.1472;
1174.2000;0.1937;7.1495;
1174.5000;0.1945;7.1542;
1174.8000;0.1937;7.1472;
1175.1000;0.1937;7.1472;
1175.4000;0.1937;7.1566;
1175.7000;0.1921;7.1542;
1176.0000;0.1945;7.1542;
1176.3000;0.1954;7.1495;
1176.6000;0.1929;7.1495;
1176.9000;0.1937;7.1448;
1177.2000;0.1937;7.1448;
1177.5000;0.1945;7.1424;
1177.8000;0.1954;7.1519;
1178.1000;0.1945;7.1354;
1178.4000;0.1954;7.1283;
1178.7000;0.1929;7.1189;
1179.0000;0.1929;7.1236;
1179.3000;0.1937;7.1283;
1179.6000;0.1945;7.1377;
1179.9000;0.1954;7.1354;
1180.2000;0.1945;7.1354;
1180.5000;0.1937;7.1236;
1180.8000;0.1954;7.1307;
1181.1000;0.2051;7.1589;
1181.4000;0.1937;7.1307;
1181.7000;0.1937;7.1307;
1182.0000;0.1929;7.1236;
1182.3000;0.1937;7.1213;
1182.6000;0.1921;7.1119;
1182.9000;0.1929;7.1095;
1183.2000;0.1905;7.1095;
1183.5000;0.1921;7.1142;
1183.8000;0.1937;7.1166;
1184.1000;0.1937;7.1283;
1184.4000;0.1937;7.1213;
1184.7000;0.1929;7.1283;
1185.0000;0.1937;7.1236;
1185.3000;0.1905;7.1119;
1185.6000;0.1954;7.1401;
1185.9000;0.1929;7.1519;
1186.2000;0.1913;7.1542;
1186.5000;0.1929;7.1566;
1186.8000;0.1937;7.1636;
1187.1000;0.1913;7.1613;
1187.4000;0.1937;7.1589;
1187.7000;0.1929;7.1589;
1188.0000;0.1929;7.1542;
1188.3000;0.1945;7.1566;
1188.6000;0.1937;7.1519;
1188.9000;0.1929;7.1495;
1189.2000;0.1937;7.1424;
1189.5000;0.1937;7.1448;
1189.8000;0.1937;7.1519;
1190.1000;0.1921;7.1472;
1190.4000;0.1945;7.1589;
1190.7000;0.1937;7.1424;
1191.0000;0.1945;7.1330;
1191.3000;0.1929;7.1354;
1191.6000;0.1929;7.1330;
1191.9000;0.1921;7.1354;
1192.2000;0.1945;7.1424;
1192.5000;0.1905;7.1424;
1192.8000;0.1929;7.1472;
1193.1000;0.1937;7.1330;
1193.4000;0.1937;7.1377;
1193.7000;0.1929;7.1377;
1194.0000;0.1937;7.1448;
1194.3000;0.1921;7.1424;
1194.6000;0.1929;7.1472;
1194.9000;0.1921;7.1472;
1195.2000;0.1905;7.1448;
1195.5000;0.1905;7.1495;
1195.8000;0.1921;7.1566;
1196.1000;0.1937;7.1589;
1196.4000;0.1937;7.1613;
1196.7000;0.1921;7.1542;
1197.0000;0.1937;7.1589;
1197.3000;0.1913;7.1566;
1197.6000;0.1921;7.1636;
1197.9000;0.1945;7.1777;
1198.2000;0.2027;7.1942;
1198.5000;0.1962;7.1824;
1198.8000;0.1937;7.1754;
1199.1000;0.1937;7.1754;
1199.4000;0.1937;7.1730;
1199.7000;0.1962;7.1754;
1200.0000;0.1970;7.1777;
1200.3000;0.1945;7.1707;
1200.6000;0.1929;7.1636;
1200.9000;0.1929;7.1613;
1201.2000;0.1962;7.1707;
1201.5000;0.1913;7.1542;
1201.8000;0.1945;7.1519;
1202.1000;0.1937;7.1542;
1202.4000;0.1913;7.1519;
1202.7000;0.1929;7.1566;
1203.0000;0.1913;7.1566;
1203.3000;0.1945;7.1636;
1203.6000;0.1921;7.1566;
1203.9000;0.1945;7.1566;
1204.2000;0.1945;7.1589;
1204.5000;0.1937;7.1566;
1204.8000;0.1937;7.1495;
1205.1000;0.1929;7.1448;
1205.4000;0.1937;7.1542;
1205.7000;0.1945;7.1707;
1206.0000;0.1962;7.1683;
1206.3000;0.1897;7.1542;
1206.6000;0.1937;7.1613;
1206.9000;0.1929;7.1589;
1207.2000;0.1937;7.1542;
1207.5000;0.1921;7.1495;
1207.8000;0.1937;7.1495;
1208.1000;0.1954;7.1542;
1208.4000;0.1929;7.1589;
1208.7000;0.1929;7.1613;
1209.0000;0.1937;7.1613;
1209.3000;0.1937;7.1636;
1209.6000;0.1929;7.1542;
1209.9000;0.1937;7.1613;
1210.2000;0.1945;7.1589;
1210.5000;0.1929;7.1542;
1210.8000;0.1937;7.1542;
1211.1000;0.1954;7.1589;
1211.4000;0.1929;7.1589;
1211.7000;0.1937;7.1566;
1212.0000;0.1913;7.1566;
1212.3000;0.1929;7.1495;
1212.6000;0.1937;7.1566;
1212.9000;0.1888;7.1424;
1213.2000;0.1913;7.1448;
1213.5000;0.1913;7.1519;
1213.8000;0.1929;7.1566;
1214.1000;0.1929;7.1542;
1214.4000;0.1929;7.1613;
1214.7000;0.1921;7.1495;
1215.0000;0.1921;7.1401;
1215.3000;0.1937;7.1401;
1215.6000;0.1937;7.1424;
1215.9000;0.1929;7.1377;
1216.2000;0.1954;7.1448;
1216.5000;0.1921;7.1424;
1216.8000;0.1921;7.1377;
1217.1000;0.1937;7.1472;
1217.4000;0.1913;7.1401;
1217.7000;0.1937;7.1448;
1218.0000;0.1905;7.1377;
1218.3000;0.1945;7.1519;
1218.6000;0.1929;7.1613;
1218.9000;0.1929;7.1542;
1219.2000;0.1929;7.1613;
1219.5000;0.1945;7.1636;
1219.8000;0.1954;7.1613;
1220.1000;0.1864;7.1377;
1220.4000;0.1937;7.1542;
1220.7000;0.1929;7.1613;
1221.0000;0.1945;7.1660;
1221.3000;0.1945;7.1613;
1221.6000;0.1929;7.1636;
1221.9000;0.1945;7.1683;
1222.2000;0.1921;7.1660;
1222.5000;0.1921;7.1613;
1222.8000;0.1921;7.1542;
1223.1000;0.1897;7.1495;
1223.4000;0.1929;7.1566;
1223.7000;0.1929;7.1566;
1224.0000;0.1945;7.1683;
1224.3000;0.1929;7.1683;
1224.6000;0.1937;7.1636;
1224.9000;0.1929;7.1542;
1225.2000;0.1962;7.1613;
1225.5000;0.1921;7.1589;
1225.8000;0.1937;7.1613;
1226.1000;0.1937;7.1613;
1226.4000;0.1937;7.1519;
1226.7000;0.1929;7.1542;
1227.0000;0.1921;7.1519;
1227.3000;0.1937;7.1542;
1227.6000;0.1921;7.1589;
1227.9000;0.1921;7.1589;
1228.2000;0.1978;7.1566;
1228.5000;0.1937;7.1448;
1228.8000;0.1954;7.1613;
1229.1000;0.1921;7.1519;
1229.4000;0.1937;7.1472;
1229.7000;0.1929;7.1519;
1230.0000;0.1986;7.1660;
1230.3000;0.1929;7.1542;
1230.6000;0.1937;7.1683;
1230.9000;0.1937;7.1683;
1231.2000;0.1921;7.1707;
1231.5000;0.1945;7.1730;
1231.8000;0.1929;7.1683;
1232.1000;0.1954;7.1683;
1232.4000;0.1921;7.1589;
1232.7000;0.1937;7.1589;
1233.0000;0.1913;7.1542;
1233.3000;0.1929;7.1589;
1233.6000;0.2002;7.1730;
1233.9000;0.1929;7.1566;
1234.2000;0.1913;7.1566;
1234.5000;0.1937;7.1613;
1234.8000;0.1945;7.1683;
1235.1000;0.1994;7.1707;
1235.4000;0.1929;7.1566;
1235.7000;0.1921;7.1636;
1236.0000;0.1986;7.1824;
1236.3000;0.1945;7.1754;
1236.6000;0.1970;7.1871;
1236.9000;0.1913;7.1683;
1237.2000;0.1937;7.1707;
1237.5000;0.1937;7.1754;
1237.8000;0.1897;7.1636;
1238.1000;0.1888;7.1566;
1238.4000;0.1929;7.1707;
1238.7000;0.1937;7.1707;
1239.0000;0.1832;7.1307;
1239.3000;0.1954;7.1519;
1239.6000;0.1905;7.1401;
1239.9000;0.2051;7.1777;
1240.2000;0.1954;7.1589;
1240.5000;0.1954;7.1542;
1240.8000;0.1945;7.1542;
1241.1000;0.1954;7.1636;
1241.4000;0.1921;7.1589;
1241.7000;0.1937;7.1613;
1242.0000;0.1978;7.1730;
1242.3000;0.1945;7.1613;
1242.6000;0.1937;7.1636;
1242.9000;0.1921;7.1613;
1243.2000;0.1921;7.1566;
1243.5000;0.1921;7.1636;
1243.8000;0.1905;7.1660;
1244.1000;0.1970;7.1754;
1244.4000;0.1945;7.1683;
1244.7000;0.1929;7.1636;
1245.0000;0.1937;7.1683;
1245.3000;0.1929;7.1636;
1245.6000;0.1921;7.1636;
1245.9000;0.1937;7.1707;
1246.2000;0.1929;7.1707;
1246.5000;0.1937;7.1660;
1246.8000;0.1937;7.1636;
1247.1000;0.1962;7.1683;
1247.4000;0.1945;7.1730;
1247.7000;0.1848;7.1424;
1248.0000;0.1929;7.1660;
1248.3000;0.1954;7.1660;
1248.6000;0.1945;7.1660;
1248.9000;0.1937;7.1707;
1249.2000;0.1913;7.1707;
1249.5000;0.1929;7.1895;
1249.8000;0.1913;7.1895;
1250.1000;0.1962;7.2012;
1250.4000;0.1937;7.1918;
1250.7000;0.1921;7.1848;
1251.0000;0.1945;7.1848;
1251.3000;0.1954;7.1918;
1251.6000;0.1937;7.1801;
1251.9000;0.1994;7.1848;
1252.2000;0.1945;7.1613;
1252.5000;0.1945;7.1566;
1252.8000;0.1962;7.1683;
1253.1000;0.2011;7.1754;
1253.4000;0.1929;7.1542;
1253.7000;0.1921;7.1519;
1254.0000;0.1954;7.1566;
1254.3000;0.1921;7.1566;
1254.6000;0.1937;7.1636;
1254.9000;0.1945;7.1660;
1255.2000;0.1937;7.1707;
1255.5000;0.1937;7.1754;
1255.8000;0.1937;7.1754;
1256.1000;0.1945;7.1824;
1256.4000;0.1937;7.1730;
1256.7000;0.1929;7.1660;
1257.0000;0.1921;7.1707;
1257.3000;0.1937;7.1824;
1257.6000;0.1994;7.1942;
1257.9000;0.1913;7.1660;
1258.2000;0.1913;7.1801;
1258.5000;0.1929;7.1895;
1258.8000;0.1945;7.1848;
1259.1000;0.1970;7.1848;
1259.4000;0.1937;7.1707;
1259.7000;0.1921;7.1777;
1260.0000;0.1986;7.1871;
1260.3000;0.1945;7.1801;
1260.6000;0.1937;7.1824;
1260.9000;0.1921;7.1801;
1261.2000;0.1945;7.1871;
1261.5000;0.1954;7.1801;
1261.8000;0.1962;7.1848;
1262.1000;0.1913;7.1660;
1262.4000;0.1921;7.1636;
1262.7000;0.1962;7.1660;
1263.0000;0.1913;7.1566;
1263.3000;0.1921;7.1589;
1263.6000;0.1929;7.1542;
1263.9000;0.1913;7.1589;
1264.2000;0.1929;7.1589;
1264.5000;0.1929;7.1566;
1264.8000;0.1945;7.1636;
1265.1000;0.1921;7.1495;
1265.4000;0.1962;7.1519;
1265.7000;0.1937;7.1495;
1266.0000;0.1921;7.1472;
1266.3000;0.1921;7.1613;
1266.6000;0.1954;7.1754;
1266.9000;0.1937;7.1683;
1267.2000;0.1970;7.1824;
1267.5000;0.1929;7.1824;
1267.8000;0.1888;7.1754;
1268.1000;0.1937;7.1660;
1268.4000;0.1856;7.1472;
1268.7000;0.1937;7.1636;
1269.0000;0.1929;7.1730;
1269.3000;0.1921;7.1683;
1269.6000;0.1880;7.1660;
1269.9000;0.1929;7.1754;
1270.2000;0.1921;7.1777;
1270.5000;0.1962;7.1871;
1270.8000;0.1913;7.1754;
1271.1000;0.1913;7.1707;
1271.4000;0.1937;7.1824;
1271.7000;0.1954;7.1848;
1272.0000;0.1937;7.1707;
1272.3000;0.1937;7.1754;
1272.6000;0.1929;7.1683;
1272.9000;0.1921;7.1542;
1273.2000;0.1921;7.1448;
1273.5000;0.1937;7.1448;
1273.8000;0.1929;7.1495;
1274.1000;0.1913;7.1424;
1274.4000;0.1929;7.1472;
1274.7000;0.1929;7.1495;
1275.0000;0.1921;7.1424;
1275.3000;0.1937;7.1424;
1275.6000;0.1905;7.1424;
1275.9000;0.1921;7.1542;
1276.2000;0.1864;7.1354;
1276.5000;0.1937;7.1589;
1276.8000;0.1937;7.1589;
1277.1000;0.1905;7.1472;
1277.4000;0.1937;7.1566;
1277.7000;0.1945;7.1613;
1278.0000;0.1945;7.1519;
1278.3000;0.2011;7.1683;
1278.6000;0.1945;7.1519;
1278.9000;0.1954;7.1589;
1279.2000;0.1945;7.1636;
1279.5000;0.1929;7.1566;
1279.8000;0.1929;7.1519;
1280.1000;0.1913;7.1472;
1280.4000;0.1937;7.1566;
1280.7000;0.1929;7.1613;
1281.0000;0.1921;7.1730;
1281.3000;0.1929;7.1754;
1281.6000;0.1913;7.1730;
1281.9000;0.1921;7.1754;
1282.2000;0.1929;7.1707;
1282.5000;0.1913;7.1707;
1282.8000;0.1937;7.1707;
1283.1000;0.1962;7.1730;
1283.4000;0.1913;7.1613;
1283.7000;0.1929;7.1495;
1284.0000;0.1937;7.1519;
1284.3000;0.1937;7.1589;
1284.6000;0.1929;7.1542;
1284.9000;0.1929;7.1613;
1285.2000;0.1954;7.1660;
1285.5000;0.1937;7.1777;
1285.8000;0.1945;7.1801;
1286.1000;0.1937;7.1707;
1286.4000;0.1945;7.1754;
1286.7000;0.1913;7.1683;
1287.0000;0.1929;7.1730;
1287.3000;0.1921;7.1636;
1287.6000;0.1905;7.1660;
1287.9000;0.1913;7.1754;
1288.2000;0.1945;7.1730;
1288.5000;0.1913;7.1636;
1288.8000;0.1929;7.1613;
1289.1000;0.1986;7.1660;
1289.4000;0.1937;7.1660;
1289.7000;0.1929;7.1660;
1290.0000;0.1905;7.1707;
1290.3000;0.1897;7.1683;
1290.6000;0.1994;7.1777;
1290.9000;0.1937;7.1589;
1291.2000;0.2002;7.1848;
1291.5000;0.1929;7.1613;
1291.8000;0.1929;7.1566;
1292.1000;0.1945;7.1566;
1292.4000;0.1937;7.1519;
1292.7000;0.1929;7.1519;
1293.0000;0.1913;7.1519;
1293.3000;0.1856;7.1236;
1293.6000;0.1921;7.1448;
1293.9000;0.1921;7.1495;
1294.2000;0.1888;7.1424;
1294.5000;0.1945;7.1636;
1294.8000;0.1921;7.1589;
1295.1000;0.1954;7.1566;
1295.4000;0.1921;7.1424;
1295.7000;0.1945;7.1472;
1296.0000;0.1954;7.1472;
1296.3000;0.1945;7.1519;
1296.6000;0.1937;7.1542;
1296.9000;0.1921;7.1424;
1297.2000;0.1970;7.1542;
1297.5000;0.1921;7.1613;
1297.8000;0.2019;7.1871;
1298.1000;0.1913;7.1519;
1298.4000;0.1937;7.1519;
1298.7000;0.2002;7.1589;
1299.0000;0.1962;7.1401;
1299.3000;0.1913;7.1401;
1299.6000;0.1962;7.1519;
1299.9000;0.1921;7.1354;
1300.2000;0.1913;7.1330;
1300.5000;0.1945;7.1330;
1300.8000;0.1937;7.1283;
1301.1000;0.1954;7.1401;
1301.4000;0.1945;7.1542;
1301.7000;0.1929;7.1613;
1302.0000;0.1937;7.1636;
1302.3000;0.1962;7.1683;
1302.6000;0.1937;7.1589;
1302.9000;0.1929;7.1542;
1303.2000;0.1921;7.1542;
1303.5000;0.1945;7.1660;
1303.8000;0.1945;7.1730;
1304.1000;0.1921;7.1613;
1304.4000;0.1937;7.1589;
1304.7000;0.2027;7.1730;
1305.0000;0.1945;7.1519;
1305.3000;0.1937;7.1472;
1305.6000;0.1978;7.1589;
1305.9000;0.1921;7.1519;
1306.2000;0.1929;7.1636;
1306.5000;0.1921;7.1636;
1306.8000;0.1929;7.1636;
1307.1000;0.1929;7.1636;
1307.4000;0.1945;7.1660;
1307.7000;0.1913;7.1613;
1308.0000;0.1856;7.1472;
1308.3000;0.1921;7.1683;
1308.6000;0.1937;7.1636;
1308.9000;0.1921;7.1519;
1309.2000;0.1921;7.1424;
1309.5000;0.1929;7.1448;
1309.8000;0.1929;7.1519;
1310.1000;0.1913;7.1519;
1310.4000;0.1913;7.1472;
1310.7000;0.1913;7.1424;
1311.0000;0.1954;7.1448;
1311.3000;0.1921;7.1354;
1311.6000;0.1937;7.1307;
1311.9000;0.1929;7.1330;
1312.2000;0.1929;7.1424;
1312.5000;0.1937;7.1542;
1312.8000;0.1945;7.1542;
1313.1000;0.1970;7.1542;
1313.4000;0.1937;7.1448;
1313.7000;0.1929;7.1495;
1314.0000;0.1929;7.1495;
1314.3000;0.1986;7.1613;
1314.6000;0.1929;7.1472;
1314.9000;0.1929;7.1401;
1315.2000;0.1937;7.1377;
1315.5000;0.1921;7.1354;
1315.8000;0.1897;7.1401;
1316.1000;0.1921;7.1472;
1316.4000;0.1921;7.1566;
1316.7000;0.1913;7.1495;
1317.0000;0.1921;7.1401;
1317.3000;0.1929;7.1566;
1317.6000;0.1929;7.1660;
1317.9000;0.1929;7.1660;
1318.2000;0.1945;7.1730;
1318.5000;0.1929;7.1660;
1318.8000;0.1937;7.1660;
1319.1000;0.1921;7.1636;
1319.4000;0.1937;7.1660;
1319.7000;0.1929;7.1542;
1320.0000;0.1954;7.1636;
1320.3000;0.1905;7.1589;
1320.6000;0.1921;7.1636;
1320.9000;0.1929;7.1707;
1321.2000;0.1986;7.1777;
1321.5000;0.1929;7.1636;
1321.8000;0.1913;7.1448;
1322.1000;0.1921;7.1472;
1322.4000;0.1913;7.1424;
1322.7000;0.1945;7.1519;
1323.0000;0.1937;7.1542;
1323.3000;0.1832;7.1236;
1323.6000;0.1929;7.1472;
1323.9000;0.1872;7.1213;
1324.2000;0.1962;7.1401;
1324.5000;0.1921;7.1354;
1324.8000;0.1921;7.1448;
1325.1000;0.1945;7.1424;
1325.4000;0.1929;7.1377;
1325.7000;0.1913;7.1354;
1326.0000;0.1921;7.1377;
1326.3000;0.1937;7.1377;
1326.6000;0.1921;7.1472;
1326.9000;0.1921;7.1542;
1327.2000;0.1945;7.1613;
1327.5000;0.1929;7.1589;
1327.8000;0.1937;7.1519;
1328.1000;0.1913;7.1495;
1328.4000;0.1897;7.1307;
1328.7000;0.1929;7.1377;
1329.0000;0.1921;7.1424;
1329.3000;0.1937;7.1495;
1329.6000;0.1945;7.1566;
1329.9000;0.1929;7.1519;
1330.2000;0.1921;7.1495;
1330.5000;0.1929;7.1542;
1330.8000;0.1937;7.1519;
1331.1000;0.1880;7.1401;
1331.4000;0.1929;7.1472;
1331.7000;0.1954;7.1519;
1332.0000;0.1929;7.1424;
1332.3000;0.1945;7.1307;
1332.6000;0.1929;7.1283;
1332.9000;0.1994;7.1448;
1333.2000;0.1937;7.1354;
1333.5000;0.1921;7.1401;
1333.8000;0.1937;7.1519;
1334.1000;0.1929;7.1519;
1334.4000;0.1937;7.1495;
1334.7000;0.1970;7.1495;
1335.0000;0.1970;7.1519;
1335.3000;0.1945;7.1495;
1335.6000;0.1937;7.1472;
1335.9000;0.1937;7.1519;
1336.2000;0.1954;7.1542;
1336.5000;0.1945;7.1495;
1336.8000;0.1945;7.1519;
1337.1000;0.1937;7.1448;
1337.4000;0.1913;7.1448;
1337.7000;0.1994;7.1636;
1338.0000;0.1937;7.1424;
1338.3000;0.2043;7.1754;
1338.6000;0.1945;7.1448;
1338.9000;0.1888;7.1401;
1339.2000;0.1970;7.1519;
1339.5000;0.1921;7.1354;
1339.8000;0.1905;7.1330;
1340.1000;0.2035;7.1683;
1340.4000;0.1929;7.1448;
1340.7000;0.1937;7.1472;
1341.0000;0.1929;7.1424;
1341.3000;0.1913;7.1448;
1341.6000;0.1921;7.1566;
1341.9000;0.1913;7.1448;
1342.2000;0.1913;7.1377;
1342.5000;0.1929;7.1495;
1342.8000;0.1937;7.1448;
1343.1000;0.1929;7.1377;
1343.4000;0.1945;7.1424;
1343.7000;0.1937;7.1401;
1344.0000;0.1937;7.1424;
1344.3000;0.1929;7.1377;
1344.6000;0.1921;7.1401;
1344.9000;0.1921;7.1424;
1345.2000;0.1937;7.1377;
1345.5000;0.1929;7.1283;
1345.8000;0.1962;7.1401;
1346.1000;0.1921;7.1330;
1346.4000;0.1913;7.1260;
1346.7000;0.1929;7.1283;
1347.0000;0.1929;7.1424;
1347.3000;0.1921;7.1401;
1347.6000;0.1937;7.1354;
1347.9000;0.1937;7.1377;
1348.2000;0.1954;7.1472;
1348.5000;0.1929;7.1519;
1348.8000;0.1994;7.1636;
1349.1000;0.1937;7.1542;
1349.4000;0.1929;7.1472;
1349.7000;0.1921;7.1472;
1350.0000;0.1913;7.1519;
1350.3000;0.1929;7.1566;
1350.6000;0.1929;7.1495;
1350.9000;0.1929;7.1354;
1351.2000;0.1945;7.1307;
1351.5000;0.1929;7.1330;
1351.8000;0.1929;7.1377;
1352.1000;0.1921;7.1330;
1352.4000;0.1913;7.1236;
1352.7000;0.1937;7.1260;
1353.0000;0.1945;7.1354;
1353.3000;0.1929;7.1377;
1353.6000;0.1921;7.1354;
1353.9000;0.1913;7.1307;
1354.2000;0.1929;7.1307;
1354.5000;0.1962;7.1330;
1354.8000;0.1921;7.1307;
1355.1000;0.1945;7.1495;
1355.4000;0.1929;7.1542;
1355.7000;0.1929;7.1542;
1356.0000;0.1945;7.1472;
1356.3000;0.1929;7.1448;
1356.6000;0.1945;7.1377;
1356.9000;0.1945;7.1330;
1357.2000;0.1929;7.1236;
1357.5000;0.1929;7.1166;
1357.8000;0.1954;7.1189;
1358.1000;0.1937;7.1142;
1358.4000;0.2019;7.1354;
1358.7000;0.2027;7.1424;
1359.0000;0.1945;7.1189;
1359.3000;0.1929;7.1142;
1359.6000;0.1913;7.1119;
1359.9000;0.1921;7.1236;
1360.2000;0.1913;7.1354;
1360.5000;0.1921;7.1424;
1360.8000;0.1913;7.1448;
1361.1000;0.1905;7.1401;
1361.4000;0.1945;7.1472;
1361.7000;0.1840;7.1260;
1362.0000;0.1945;7.1448;
1362.3000;0.1929;7.1354;
1362.6000;0.1929;7.1377;
1362.9000;0.1897;7.1307;
1363.2000;0.1913;7.1377;
1363.5000;0.1921;7.1283;
1363.8000;0.1970;7.1424;
1364.1000;0.1913;7.1330;
1364.4000;0.1929;7.1354;
1364.7000;0.1872;7.1236;
1365.0000;0.1921;7.1330;
1365.3000;0.1929;7.1354;
1365.6000;0.1921;7.1330;
1365.9000;0.1913;7.1260;
1366.2000;0.1929;7.1283;
1366.5000;0.1905;7.1283;
1366.8000;0.1929;7.1307;
1367.1000;0.1937;7.1377;
1367.4000;0.1937;7.1448;
1367.7000;0.1921;7.1448;
1368.0000;0.1945;7.1495;
1368.3000;0.1954;7.1495;
1368.6000;0.1929;7.1542;
1368.9000;0.1921;7.1448;
1369.2000;0.1986;7.1707;
1369.5000;0.1937;7.1495;
1369.8000;0.1856;7.1354;
1370.1000;0.1832;7.1236;
1370.4000;0.1929;7.1448;
1370.7000;0.1937;7.1566;
1371.0000;0.1962;7.1660;
1371.3000;0.1937;7.1613;
1371.6000;0.1921;7.1730;
1371.9000;0.1937;7.1730;
1372.2000;0.1905;7.1636;
1372.5000;0.1929;7.1636;
1372.8000;0.1945;7.1660;
1373.1000;0.1945;7.1683;
1373.4000;0.1937;7.1636;
1373.7000;0.1929;7.1636;
1374.0000;0.1945;7.1707;
1374.3000;0.1929;7.1683;
1374.6000;0.1937;7.1636;
1374.9000;0.1905;7.1495;
1375.2000;0.1913;7.1401;
1375.5000;0.1929;7.1448;
1375.8000;0.1937;7.1424;
1376.1000;0.1937;7.1424;
1376.4000;0.1921;7.1401;
1376.7000;0.1921;7.1424;
1377.0000;0.1962;7.1519;
1377.3000;0.1921;7.1448;
1377.6000;0.1945;7.1448;
1377.9000;0.1897;7.1448;
1378.2000;0.1929;7.1566;
1378.5000;0.1962;7.1636;
1378.8000;0.1897;7.1472;
1379.1000;0.1962;7.1495;
1379.4000;0.1856;7.1189;
1379.7000;0.1937;7.1448;
1380.0000;0.1954;7.1495;
1380.3000;0.1929;7.1566;
1380.6000;0.1913;7.1613;
1380.9000;0.1937;7.1566;
1381.2000;0.1937;7.1542;
1381.5000;0.1921;7.1566;
1381.8000;0.1954;7.1589;
1382.1000;0.1945;7.1566;
1382.4000;0.1913;7.1495;
1382.7000;0.1864;7.1424;
1383.0000;0.1929;7.1589;
1383.3000;0.1929;7.1707;
1383.6000;0.1929;7.1613;
1383.9000;0.1921;7.1636;
1384.2000;0.1929;7.1613;
1384.5000;0.1937;7.1754;
1384.8000;0.1929;7.1754;
1385.1000;0.1937;7.1777;
1385.4000;0.2002;7.2012;
1385.7000;0.1913;7.1777;
1386.0000;0.1929;7.1754;
1386.3000;0.1962;7.1777;
1386.6000;0.1929;7.1754;
1386.9000;0.1929;7.1777;
1387.2000;0.2011;7.1942;
1387.5000;0.1913;7.1707;
1387.8000;0.1913;7.1636;
1388.1000;0.1921;7.1660;
1388.4000;0.1937;7.1566;
1388.7000;0.1929;7.1519;
1389.0000;0.1954;7.1519;
1389.3000;0.1921;7.1566;
1389.6000;0.1921;7.1542;
1389.9000;0.1945;7.1636;
1390.2000;0.1929;7.1660;
1390.5000;0.1921;7.1589;
1390.8000;0.1945;7.1566;
1391.1000;0.1921;7.1589;
1391.4000;0.1929;7.1566;
1391.7000;0.1929;7.1542;
1392.0000;0.1921;7.1542;
1392.3000;0.1921;7.1519;
1392.6000;0.1913;7.1448;
1392.9000;0.1929;7.1377;
1393.2000;0.1913;7.1401;
1393.5000;0.1913;7.1283;
1393.8000;0.1978;7.1448;
1394.1000;0.1937;7.1330;
1394.4000;0.1905;7.1377;
1394.7000;0.1905;7.1519;
1395.0000;0.1945;7.1519;
1395.3000;0.1921;7.1448;
1395.6000;0.1913;7.1354;
1395.9000;0.1937;7.1330;
1396.2000;0.1929;7.1401;
1396.5000;0.1921;7.1401;
1396.8000;0.1929;7.1424;
1397.1000;0.1913;7.1424;
1397.4000;0.1937;7.1519;
1397.7000;0.1945;7.1589;
1398.0000;0.1905;7.1566;
1398.3000;0.1905;7.1566;
1398.6000;0.1937;7.1542;
1398.9000;0.1937;7.1519;
1399.2000;0.1937;7.1448;
1399.5000;0.1954;7.1495;
1399.8000;0.1929;7.1424;
