time/ms;Fluo/V;P700 deltaI/I x10³;
-199.8000;0.2914;7.2318;
-199.5000;0.2930;7.2389;
-199.2000;0.2906;7.2248;
-198.9000;0.2939;7.2389;
-198.6000;0.2930;7.2318;
-198.3000;0.2930;7.2295;
-198.0000;0.2939;7.2365;
-197.7000;0.2922;7.2412;
-197.4000;0.2922;7.2436;
-197.1000;0.2939;7.2436;
-196.8000;0.2930;7.2459;
-196.5000;0.2930;7.2412;
-196.2000;0.2922;7.2436;
-195.9000;0.2922;7.2365;
-195.6000;0.2922;7.2389;
-195.3000;0.2930;7.2365;
-195.0000;0.2939;7.2342;
-194.7000;0.2939;7.2318;
-194.4000;0.2930;7.2318;
-194.1000;0.2939;7.2389;
-193.8000;0.2922;7.2342;
-193.5000;0.2930;7.2412;
-193.2000;0.2930;7.2365;
-192.9000;0.2930;7.2389;
-192.6000;0.2939;7.2389;
-192.3000;0.2922;7.2389;
-192.0000;0.2939;7.2412;
-191.7000;0.2922;7.2318;
-191.4000;0.2930;7.2342;
-191.1000;0.2930;7.2295;
-190.8000;0.2930;7.2295;
-190.5000;0.2914;7.2295;
-190.2000;0.2939;7.2506;
-189.9000;0.2939;7.2553;
-189.6000;0.2914;7.2483;
-189.3000;0.2922;7.2506;
-189.0000;0.2914;7.2459;
-188.7000;0.2930;7.2530;
-188.4000;0.2930;7.2483;
-188.1000;0.2930;7.2483;
-187.8000;0.2939;7.2436;
-187.5000;0.2914;7.2483;
-187.2000;0.2930;7.2577;
-186.9000;0.2922;7.2577;
-186.6000;0.2939;7.2459;
-186.3000;0.2939;7.2436;
-186.0000;0.2955;7.2459;
-185.7000;0.2922;7.2412;
-185.4000;0.2930;7.2436;
-185.1000;0.2955;7.2436;
-184.8000;0.2939;7.2342;
-184.5000;0.2939;7.2389;
-184.2000;0.2939;7.2365;
-183.9000;0.2930;7.2342;
-183.6000;0.2939;7.2412;
-183.3000;0.2930;7.2412;
-183.0000;0.2930;7.2389;
-182.7000;0.2930;7.2342;
-182.4000;0.2979;7.2483;
-182.1000;0.2922;7.2412;
-181.8000;0.2939;7.2483;
-181.5000;0.2955;7.2553;
-181.2000;0.2939;7.2553;
-180.9000;0.2939;7.2577;
-180.6000;0.2922;7.2577;
-180.3000;0.2930;7.2577;
-180.0000;0.2930;7.2647;
-179.7000;0.2930;7.2600;
-179.4000;0.2947;7.2624;
-179.1000;0.2955;7.2671;
-178.8000;0.2922;7.2647;
-178.5000;0.2947;7.2647;
-178.2000;0.2939;7.2553;
-177.9000;0.2930;7.2506;
-177.6000;0.2914;7.2459;
-177.3000;0.2930;7.2459;
-177.0000;0.2930;7.2530;
-176.7000;0.2914;7.2530;
-176.4000;0.2914;7.2553;
-176.1000;0.2939;7.2506;
-175.8000;0.2930;7.2483;
-175.5000;0.2922;7.2459;
-175.2000;0.2939;7.2412;
-174.9000;0.2930;7.2459;
-174.6000;0.2930;7.2436;
-174.3000;0.2939;7.2459;
-174.0000;0.2947;7.2483;
-173.7000;0.2930;7.2459;
-173.4000;0.2930;7.2365;
-173.1000;0.2914;7.2342;
-172.8000;0.2922;7.2459;
-172.5000;0.2939;7.2577;
-172.2000;0.2930;7.2553;
-171.9000;0.2939;7.2577;
-171.6000;0.2939;7.2624;
-171.3000;0.2939;7.2530;
-171.0000;0.2947;7.2483;
-170.7000;0.2947;7.2459;
-170.4000;0.2930;7.2389;
-170.1000;0.2914;7.2342;
-169.8000;0.2939;7.2342;
-169.5000;0.2914;7.2389;
-169.2000;0.2922;7.2412;
-168.9000;0.2922;7.2271;
-168.6000;0.2922;7.2224;
-168.3000;0.2947;7.2248;
-168.0000;0.2939;7.2224;
-167.7000;0.2857;7.2012;
-167.4000;0.2922;7.2130;
-167.1000;0.2939;7.2130;
-166.8000;0.2939;7.2036;
-166.5000;0.2930;7.2083;
-166.2000;0.2890;7.1989;
-165.9000;0.2930;7.2107;
-165.6000;0.2914;7.2083;
-165.3000;0.2914;7.2130;
-165.0000;0.2922;7.2271;
-164.7000;0.2890;7.2271;
-164.4000;0.2939;7.2342;
-164.1000;0.2939;7.2295;
-163.8000;0.2922;7.2365;
-163.5000;0.3044;7.2765;
-163.2000;0.2947;7.2600;
-162.9000;0.2939;7.2577;
-162.6000;0.2906;7.2506;
-162.3000;0.2930;7.2624;
-162.0000;0.2906;7.2506;
-161.7000;0.2930;7.2694;
-161.4000;0.2922;7.2765;
-161.1000;0.2930;7.2741;
-160.8000;0.2947;7.2812;
-160.5000;0.2963;7.2812;
-160.2000;0.2930;7.2765;
-159.9000;0.2996;7.2859;
-159.6000;0.2947;7.2624;
-159.3000;0.2930;7.2506;
-159.0000;0.2898;7.2412;
-158.7000;0.2882;7.2318;
-158.4000;0.2922;7.2365;
-158.1000;0.2898;7.2224;
-157.8000;0.2947;7.2318;
-157.5000;0.3004;7.2506;
-157.2000;0.2930;7.2318;
-156.9000;0.2947;7.2295;
-156.6000;0.2922;7.2224;
-156.3000;0.2930;7.2177;
-156.0000;0.2947;7.2201;
-155.7000;0.2955;7.2201;
-155.4000;0.2930;7.2271;
-155.1000;0.2939;7.2295;
-154.8000;0.2922;7.2224;
-154.5000;0.2939;7.2248;
-154.2000;0.2922;7.2295;
-153.9000;0.2939;7.2295;
-153.6000;0.2922;7.2248;
-153.3000;0.2922;7.2224;
-153.0000;0.2939;7.2365;
-152.7000;0.2914;7.2389;
-152.4000;0.2930;7.2389;
-152.1000;0.2922;7.2342;
-151.8000;0.2922;7.2318;
-151.5000;0.2930;7.2459;
-151.2000;0.2914;7.2530;
-150.9000;0.2930;7.2553;
-150.6000;0.2906;7.2506;
-150.3000;0.2939;7.2530;
-150.0000;0.2906;7.2412;
-149.7000;0.2930;7.2436;
-149.4000;0.2939;7.2506;
-149.1000;0.2930;7.2506;
-148.8000;0.2971;7.2530;
-148.5000;0.2906;7.2389;
-148.2000;0.2930;7.2365;
-147.9000;0.2930;7.2389;
-147.6000;0.2939;7.2412;
-147.3000;0.2971;7.2530;
-147.0000;0.2947;7.2530;
-146.7000;0.2906;7.2389;
-146.4000;0.2930;7.2459;
-146.1000;0.2922;7.2483;
-145.8000;0.2930;7.2530;
-145.5000;0.2914;7.2600;
-145.2000;0.2939;7.2671;
-144.9000;0.2898;7.2553;
-144.6000;0.2930;7.2600;
-144.3000;0.2906;7.2577;
-144.0000;0.2930;7.2647;
-143.7000;0.2947;7.2741;
-143.4000;0.2930;7.2647;
-143.1000;0.2906;7.2577;
-142.8000;0.2939;7.2600;
-142.5000;0.2947;7.2671;
-142.2000;0.2914;7.2577;
-141.9000;0.2987;7.2812;
-141.6000;0.2947;7.2600;
-141.3000;0.2930;7.2506;
-141.0000;0.2922;7.2553;
-140.7000;0.2930;7.2600;
-140.4000;0.2939;7.2553;
-140.1000;0.2890;7.2530;
-139.8000;0.2930;7.2530;
-139.5000;0.2930;7.2506;
-139.2000;0.2947;7.2553;
-138.9000;0.2922;7.2577;
-138.6000;0.2914;7.2577;
-138.3000;0.2947;7.2530;
-138.0000;0.2930;7.2506;
-137.7000;0.2939;7.2553;
-137.4000;0.2930;7.2506;
-137.1000;0.2947;7.2553;
-136.8000;0.2963;7.2553;
-136.5000;0.2898;7.2365;
-136.2000;0.2939;7.2483;
-135.9000;0.2914;7.2389;
-135.6000;0.2922;7.2342;
-135.3000;0.2922;7.2412;
-135.0000;0.2930;7.2459;
-134.7000;0.2914;7.2459;
-134.4000;0.2939;7.2483;
-134.1000;0.2955;7.2553;
-133.8000;0.2914;7.2506;
-133.5000;0.2971;7.2624;
-133.2000;0.2906;7.2600;
-132.9000;0.2930;7.2624;
-132.6000;0.2963;7.2789;
-132.3000;0.3093;7.3141;
-132.0000;0.2898;7.2577;
-131.7000;0.2922;7.2530;
-131.4000;0.2898;7.2436;
-131.1000;0.2930;7.2530;
-130.8000;0.2922;7.2483;
-130.5000;0.2914;7.2483;
-130.2000;0.2890;7.2459;
-129.9000;0.2987;7.2577;
-129.6000;0.2930;7.2553;
-129.3000;0.2922;7.2553;
-129.0000;0.2947;7.2624;
-128.7000;0.2930;7.2624;
-128.4000;0.2914;7.2624;
-128.1000;0.2914;7.2600;
-127.8000;0.2996;7.2765;
-127.5000;0.2947;7.2577;
-127.2000;0.2922;7.2459;
-126.9000;0.2857;7.2271;
-126.6000;0.2922;7.2459;
-126.3000;0.2906;7.2389;
-126.0000;0.2930;7.2506;
-125.7000;0.2906;7.2436;
-125.4000;0.2939;7.2577;
-125.1000;0.2914;7.2506;
-124.8000;0.2930;7.2436;
-124.5000;0.2922;7.2436;
-124.2000;0.2930;7.2342;
-123.9000;0.2979;7.2365;
-123.6000;0.2930;7.2271;
-123.3000;0.2947;7.2365;
-123.0000;0.2955;7.2318;
-122.7000;0.2955;7.2318;
-122.4000;0.2955;7.2483;
-122.1000;0.3004;7.2553;
-121.8000;0.2955;7.2506;
-121.5000;0.2939;7.2506;
-121.2000;0.2947;7.2577;
-120.9000;0.2939;7.2577;
-120.6000;0.2930;7.2459;
-120.3000;0.2939;7.2436;
-120.0000;0.2939;7.2506;
-119.7000;0.2906;7.2436;
-119.4000;0.2939;7.2577;
-119.1000;0.2849;7.2436;
-118.8000;0.2930;7.2553;
-118.5000;0.2939;7.2506;
-118.2000;0.2930;7.2483;
-117.9000;0.2898;7.2436;
-117.6000;0.2947;7.2553;
-117.3000;0.2947;7.2506;
-117.0000;0.2930;7.2365;
-116.7000;0.2939;7.2365;
-116.4000;0.2955;7.2412;
-116.1000;0.2914;7.2318;
-115.8000;0.2906;7.2248;
-115.5000;0.2922;7.2318;
-115.2000;0.2914;7.2436;
-114.9000;0.2890;7.2389;
-114.6000;0.2922;7.2506;
-114.3000;0.2922;7.2506;
-114.0000;0.2939;7.2459;
-113.7000;0.2914;7.2436;
-113.4000;0.3004;7.2647;
-113.1000;0.2947;7.2506;
-112.8000;0.2906;7.2412;
-112.5000;0.2922;7.2459;
-112.2000;0.2987;7.2647;
-111.9000;0.2922;7.2436;
-111.6000;0.2922;7.2436;
-111.3000;0.2898;7.2365;
-111.0000;0.2906;7.2412;
-110.7000;0.2914;7.2436;
-110.4000;0.2930;7.2365;
-110.1000;0.2963;7.2553;
-109.8000;0.2963;7.2530;
-109.5000;0.2947;7.2506;
-109.2000;0.2963;7.2483;
-108.9000;0.2930;7.2389;
-108.6000;0.2922;7.2389;
-108.3000;0.3020;7.2671;
-108.0000;0.2955;7.2436;
-107.7000;0.2930;7.2365;
-107.4000;0.2930;7.2365;
-107.1000;0.2922;7.2412;
-106.8000;0.2930;7.2483;
-106.5000;0.2939;7.2553;
-106.2000;0.2955;7.2600;
-105.9000;0.2922;7.2624;
-105.6000;0.2906;7.2506;
-105.3000;0.2914;7.2459;
-105.0000;0.2930;7.2459;
-104.7000;0.2939;7.2483;
-104.4000;0.2906;7.2506;
-104.1000;0.2922;7.2530;
-103.8000;0.2947;7.2624;
-103.5000;0.2963;7.2718;
-103.2000;0.2930;7.2647;
-102.9000;0.2947;7.2600;
-102.6000;0.2873;7.2365;
-102.3000;0.2930;7.2506;
-102.0000;0.2930;7.2436;
-101.7000;0.2906;7.2342;
-101.4000;0.2922;7.2412;
-101.1000;0.2906;7.2389;
-100.8000;0.2939;7.2342;
-100.5000;0.2930;7.2342;
-100.2000;0.2882;7.2295;
-99.9000;0.2922;7.2365;
-99.6000;0.2930;7.2389;
-99.3000;0.2906;7.2342;
-99.0000;0.2906;7.2342;
-98.7000;0.2922;7.2483;
-98.4000;0.2947;7.2577;
-98.1000;0.2922;7.2600;
-97.8000;0.2898;7.2506;
-97.5000;0.2947;7.2530;
-97.2000;0.2947;7.2553;
-96.9000;0.2939;7.2577;
-96.6000;0.2906;7.2624;
-96.3000;0.2947;7.2624;
-96.0000;0.2930;7.2577;
-95.7000;0.2939;7.2506;
-95.4000;0.2930;7.2506;
-95.1000;0.2947;7.2483;
-94.8000;0.2922;7.2506;
-94.5000;0.2930;7.2553;
-94.2000;0.2963;7.2483;
-93.9000;0.2922;7.2436;
-93.6000;0.2930;7.2506;
-93.3000;0.2987;7.2647;
-93.0000;0.2939;7.2530;
-92.7000;0.2939;7.2530;
-92.4000;0.2930;7.2459;
-92.1000;0.2987;7.2624;
-91.8000;0.2930;7.2530;
-91.5000;0.2922;7.2506;
-91.2000;0.3036;7.2694;
-90.9000;0.2955;7.2483;
-90.6000;0.2947;7.2436;
-90.3000;0.2914;7.2459;
-90.0000;0.2971;7.2577;
-89.7000;0.2922;7.2412;
-89.4000;0.2963;7.2553;
-89.1000;0.2930;7.2530;
-88.8000;0.2922;7.2530;
-88.5000;0.2947;7.2577;
-88.2000;0.3061;7.2836;
-87.9000;0.2947;7.2624;
-87.6000;0.2922;7.2577;
-87.3000;0.2963;7.2624;
-87.0000;0.2947;7.2600;
-86.7000;0.2947;7.2647;
-86.4000;0.2873;7.2412;
-86.1000;0.2939;7.2436;
-85.8000;0.2947;7.2459;
-85.5000;0.2963;7.2483;
-85.2000;0.2971;7.2389;
-84.9000;0.2922;7.2295;
-84.6000;0.2971;7.2436;
-84.3000;0.2947;7.2436;
-84.0000;0.2939;7.2553;
-83.7000;0.2939;7.2577;
-83.4000;0.2922;7.2553;
-83.1000;0.2922;7.2577;
-82.8000;0.2996;7.2718;
-82.5000;0.2947;7.2577;
-82.2000;0.2947;7.2624;
-81.9000;0.2971;7.2647;
-81.6000;0.2930;7.2647;
-81.3000;0.2882;7.2459;
-81.0000;0.2939;7.2530;
-80.7000;0.2914;7.2389;
-80.4000;0.2882;7.2271;
-80.1000;0.2947;7.2389;
-79.8000;0.2963;7.2389;
-79.5000;0.2922;7.2318;
-79.2000;0.2922;7.2271;
-78.9000;0.2922;7.2154;
-78.6000;0.2890;7.2130;
-78.3000;0.2939;7.2295;
-78.0000;0.2947;7.2295;
-77.7000;0.2947;7.2295;
-77.4000;0.2955;7.2365;
-77.1000;0.2939;7.2295;
-76.8000;0.2939;7.2318;
-76.5000;0.2947;7.2436;
-76.2000;0.2898;7.2295;
-75.9000;0.2979;7.2459;
-75.6000;0.2947;7.2318;
-75.3000;0.2939;7.2342;
-75.0000;0.2922;7.2271;
-74.7000;0.2930;7.2271;
-74.4000;0.2922;7.2248;
-74.1000;0.2947;7.2342;
-73.8000;0.2939;7.2342;
-73.5000;0.2963;7.2459;
-73.2000;0.2947;7.2459;
-72.9000;0.2898;7.2318;
-72.6000;0.2955;7.2365;
-72.3000;0.2939;7.2295;
-72.0000;0.2930;7.2295;
-71.7000;0.2930;7.2342;
-71.4000;0.2922;7.2389;
-71.1000;0.2922;7.2459;
-70.8000;0.2939;7.2412;
-70.5000;0.2922;7.2318;
-70.2000;0.2939;7.2318;
-69.9000;0.2930;7.2436;
-69.6000;0.2914;7.2530;
-69.3000;0.2922;7.2577;
-69.0000;0.2922;7.2506;
-68.7000;0.2930;7.2483;
-68.4000;0.2930;7.2483;
-68.1000;0.2882;7.2271;
-67.8000;0.2947;7.2506;
-67.5000;0.2890;7.2365;
-67.2000;0.2922;7.2412;
-66.9000;0.2971;7.2671;
-66.6000;0.2922;7.2624;
-66.3000;0.2898;7.2506;
-66.0000;0.2890;7.2553;
-65.7000;0.2914;7.2624;
-65.4000;0.2914;7.2671;
-65.1000;0.2963;7.2765;
-64.8000;0.2914;7.2577;
-64.5000;0.2939;7.2647;
-64.2000;0.2979;7.2671;
-63.9000;0.2947;7.2459;
-63.6000;0.2914;7.2295;
-63.3000;0.3012;7.2600;
-63.0000;0.2955;7.2506;
-62.7000;0.2955;7.2483;
-62.4000;0.2947;7.2577;
-62.1000;0.2930;7.2553;
-61.8000;0.2922;7.2624;
-61.5000;0.2955;7.2671;
-61.2000;0.2930;7.2530;
-60.9000;0.2939;7.2412;
-60.6000;0.2939;7.2389;
-60.3000;0.2947;7.2412;
-60.0000;0.2922;7.2342;
-59.7000;0.2930;7.2389;
-59.4000;0.2906;7.2295;
-59.1000;0.2930;7.2271;
-58.8000;0.2922;7.2201;
-58.5000;0.2939;7.2248;
-58.2000;0.2922;7.2201;
-57.9000;0.3004;7.2412;
-57.6000;0.2947;7.2271;
-57.3000;0.2930;7.2201;
-57.0000;0.2914;7.2201;
-56.7000;0.2930;7.2318;
-56.4000;0.2963;7.2436;
-56.1000;0.2955;7.2412;
-55.8000;0.2914;7.2295;
-55.5000;0.2930;7.2365;
-55.2000;0.2955;7.2483;
-54.9000;0.2947;7.2483;
-54.6000;0.2939;7.2506;
-54.3000;0.2906;7.2530;
-54.0000;0.2930;7.2647;
-53.7000;0.2930;7.2577;
-53.4000;0.2930;7.2506;
-53.1000;0.2930;7.2483;
-52.8000;0.2914;7.2365;
-52.5000;0.2930;7.2342;
-52.2000;0.2922;7.2365;
-51.9000;0.2922;7.2436;
-51.6000;0.2947;7.2459;
-51.3000;0.2947;7.2506;
-51.0000;0.2955;7.2530;
-50.7000;0.2922;7.2389;
-50.4000;0.2939;7.2342;
-50.1000;0.3036;7.2624;
-49.8000;0.2922;7.2389;
-49.5000;0.2939;7.2389;
-49.2000;0.2898;7.2342;
-48.9000;0.2873;7.2318;
-48.6000;0.2939;7.2506;
-48.3000;0.2914;7.2483;
-48.0000;0.2922;7.2553;
-47.7000;0.2914;7.2530;
-47.4000;0.2947;7.2483;
-47.1000;0.2955;7.2483;
-46.8000;0.2930;7.2506;
-46.5000;0.2930;7.2506;
-46.2000;0.2930;7.2530;
-45.9000;0.2890;7.2436;
-45.6000;0.2914;7.2483;
-45.3000;0.2939;7.2577;
-45.0000;0.2914;7.2506;
-44.7000;0.2930;7.2459;
-44.4000;0.2930;7.2459;
-44.1000;0.3004;7.2553;
-43.8000;0.2939;7.2459;
-43.5000;0.2947;7.2577;
-43.2000;0.2898;7.2553;
-42.9000;0.2930;7.2553;
-42.6000;0.2922;7.2577;
-42.3000;0.2922;7.2506;
-42.0000;0.2947;7.2624;
-41.7000;0.2955;7.2671;
-41.4000;0.2930;7.2694;
-41.1000;0.2939;7.2577;
-40.8000;0.2930;7.2530;
-40.5000;0.2930;7.2459;
-40.2000;0.2955;7.2459;
-39.9000;0.2955;7.2436;
-39.6000;0.2939;7.2506;
-39.3000;0.2947;7.2506;
-39.0000;0.2979;7.2553;
-38.7000;0.2963;7.2530;
-38.4000;0.2939;7.2506;
-38.1000;0.2955;7.2459;
-37.8000;0.2947;7.2459;
-37.5000;0.2939;7.2389;
-37.2000;0.2947;7.2436;
-36.9000;0.2939;7.2412;
-36.6000;0.2922;7.2318;
-36.3000;0.2963;7.2506;
-36.0000;0.2922;7.2459;
-35.7000;0.2914;7.2389;
-35.4000;0.2930;7.2365;
-35.1000;0.2930;7.2365;
-34.8000;0.2922;7.2412;
-34.5000;0.2930;7.2365;
-34.2000;0.2914;7.2365;
-33.9000;0.2939;7.2365;
-33.6000;0.2939;7.2318;
-33.3000;0.2922;7.2389;
-33.0000;0.2922;7.2389;
-32.7000;0.2930;7.2436;
-32.4000;0.2922;7.2436;
-32.1000;0.2906;7.2436;
-31.8000;0.2898;7.2365;
-31.5000;0.2922;7.2483;
-31.2000;0.2914;7.2389;
-30.9000;0.2906;7.2318;
-30.6000;0.2906;7.2365;
-30.3000;0.2930;7.2318;
-30.0000;0.2922;7.2318;
-29.7000;0.2890;7.2177;
-29.4000;0.2922;7.2154;
-29.1000;0.2922;7.2130;
-28.8000;0.2930;7.2154;
-28.5000;0.2955;7.2154;
-28.2000;0.2963;7.2295;
-27.9000;0.2930;7.2295;
-27.6000;0.2939;7.2365;
-27.3000;0.2930;7.2459;
-27.0000;0.2963;7.2553;
-26.7000;0.2939;7.2459;
-26.4000;0.2939;7.2389;
-26.1000;0.2939;7.2436;
-25.8000;0.2939;7.2389;
-25.5000;0.2939;7.2389;
-25.2000;0.2898;7.2412;
-24.9000;0.2930;7.2436;
-24.6000;0.2947;7.2389;
-24.3000;0.2922;7.2365;
-24.0000;0.2922;7.2412;
-23.7000;0.2922;7.2365;
-23.4000;0.2930;7.2295;
-23.1000;0.2890;7.2130;
-22.8000;0.2922;7.2201;
-22.5000;0.2930;7.2248;
-22.2000;0.2955;7.2248;
-21.9000;0.2922;7.2295;
-21.6000;0.2922;7.2365;
-21.3000;0.2914;7.2412;
-21.0000;0.2906;7.2365;
-20.7000;0.2922;7.2248;
-20.4000;0.2922;7.2224;
-20.1000;0.2914;7.2318;
-19.8000;0.2922;7.2271;
-19.5000;0.2930;7.2224;
-19.2000;0.2963;7.2224;
-18.9000;0.2930;7.2177;
-18.6000;0.2849;7.1918;
-18.3000;0.2947;7.2248;
-18.0000;0.2939;7.2224;
-17.7000;0.2914;7.2248;
-17.4000;0.2947;7.2318;
-17.1000;0.2922;7.2342;
-16.8000;0.2947;7.2436;
-16.5000;0.2922;7.2412;
-16.2000;0.2971;7.2506;
-15.9000;0.2922;7.2342;
-15.6000;0.2930;7.2365;
-15.3000;0.2922;7.2342;
-15.0000;0.2922;7.2342;
-14.7000;0.2922;7.2412;
-14.4000;0.2939;7.2412;
-14.1000;0.2939;7.2459;
-13.8000;0.2906;7.2295;
-13.5000;0.2930;7.2436;
-13.2000;0.2963;7.2459;
-12.9000;0.2955;7.2483;
-12.6000;0.2947;7.2530;
-12.3000;0.2914;7.2436;
-12.0000;0.2979;7.2553;
-11.7000;0.2939;7.2459;
-11.4000;0.2939;7.2459;
-11.1000;0.2914;7.2389;
-10.8000;0.2930;7.2389;
-10.5000;0.2922;7.2436;
-10.2000;0.2930;7.2412;
-9.9000;0.2939;7.2342;
-9.6000;0.2979;7.2365;
-9.3000;0.2922;7.2295;
-9.0000;0.2922;7.2295;
-8.7000;0.2939;7.2342;
-8.4000;0.2922;7.2342;
-8.1000;0.2930;7.2436;
-7.8000;0.2906;7.2436;
-7.5000;0.2882;7.2389;
-7.2000;0.2939;7.2483;
-6.9000;0.2939;7.2483;
-6.6000;0.2922;7.2436;
-6.3000;0.2963;7.2483;
-6.0000;0.2939;7.2342;
-5.7000;0.2939;7.2342;
-5.4000;0.2922;7.2459;
-5.1000;0.2939;7.2459;
-4.8000;0.2947;7.2530;
-4.5000;0.2939;7.2436;
-4.2000;0.2882;7.2365;
-3.9000;0.2930;7.2600;
-3.6000;0.2939;7.2694;
-3.3000;0.2939;7.2647;
-3.0000;0.2947;7.2624;
-2.7000;0.2947;7.2600;
-2.4000;0.2930;7.2671;
-2.1000;0.2939;7.2741;
-1.8000;0.2971;7.2789;
-1.5000;0.2914;7.2671;
-1.2000;0.2939;7.2671;
-0.9000;0.2930;7.2671;
-0.6000;0.2955;7.2647;
-0.3000;0.2955;7.2600;
0.0000;0.2955;7.2600;
0.3000;0.2939;7.2248;
0.6000;0.2947;7.2365;
0.9000;0.2971;7.2436;
1.2000;0.2979;7.2553;
1.5000;0.2955;7.2694;
1.8000;0.3069;7.3094;
2.1000;0.3020;7.3071;
2.4000;0.3020;7.3188;
2.7000;0.3053;7.3188;
3.0000;0.3093;7.3329;
3.3000;0.3053;7.3353;
3.6000;0.3077;7.3424;
3.9000;0.2963;7.3141;
4.2000;0.3069;7.3376;
4.5000;0.3069;7.3447;
4.8000;0.2955;7.3094;
5.1000;0.3012;7.3282;
5.4000;0.3061;7.3447;
5.7000;0.3077;7.3400;
6.0000;0.3085;7.3541;
6.3000;0.3053;7.3494;
6.6000;0.3061;7.3588;
6.9000;0.3077;7.3588;
7.2000;0.3101;7.3706;
7.5000;0.3085;7.3706;
7.8000;0.3044;7.3541;
8.1000;0.3077;7.3682;
8.4000;0.3069;7.3776;
8.7000;0.3093;7.3776;
9.0000;0.3118;7.3753;
9.3000;0.3093;7.3729;
9.6000;0.3109;7.3753;
9.9000;0.3101;7.3729;
10.2000;0.3109;7.3682;
10.5000;0.3109;7.3729;
10.8000;0.3085;7.3682;
11.1000;0.3085;7.3659;
11.4000;0.3085;7.3659;
11.7000;0.3101;7.3753;
12.0000;0.3109;7.3753;
12.3000;0.3061;7.3635;
12.6000;0.3085;7.3729;
12.9000;0.3085;7.3706;
13.2000;0.3044;7.3541;
13.5000;0.3109;7.3729;
13.8000;0.3142;7.3800;
14.1000;0.3109;7.3706;
14.4000;0.3101;7.3706;
14.7000;0.3093;7.3776;
15.0000;0.3101;7.3823;
15.3000;0.3158;7.3917;
15.6000;0.3150;7.3964;
15.9000;0.3093;7.3847;
16.2000;0.3085;7.3847;
16.5000;0.3101;7.3894;
16.8000;0.3150;7.3917;
17.1000;0.3109;7.3870;
17.4000;0.3134;7.3894;
17.7000;0.3118;7.3776;
18.0000;0.3118;7.3894;
18.3000;0.3126;7.3870;
18.6000;0.3166;7.3917;
18.9000;0.3150;7.3894;
19.2000;0.3044;7.3565;
19.5000;0.3142;7.3682;
19.8000;0.3118;7.3612;
20.1000;0.3069;7.3471;
20.4000;0.3101;7.3541;
20.7000;0.3126;7.3635;
21.0000;0.3093;7.3588;
21.3000;0.3126;7.3706;
21.6000;0.3126;7.3729;
21.9000;0.3142;7.3847;
22.2000;0.3126;7.3870;
22.5000;0.3150;7.4011;
22.8000;0.3044;7.3823;
23.1000;0.3134;7.3988;
23.4000;0.3126;7.3917;
23.7000;0.3166;7.3941;
24.0000;0.3077;7.3776;
24.3000;0.3126;7.3870;
24.6000;0.3134;7.3894;
24.9000;0.3109;7.3894;
25.2000;0.3109;7.3847;
25.5000;0.3118;7.3776;
25.8000;0.3232;7.3941;
26.1000;0.3126;7.3706;
26.4000;0.3126;7.3800;
26.7000;0.3109;7.3870;
27.0000;0.3085;7.3917;
27.3000;0.3142;7.3941;
27.6000;0.3134;7.3988;
27.9000;0.3069;7.3800;
28.2000;0.3126;7.3917;
28.5000;0.3134;7.3800;
28.8000;0.3150;7.3847;
29.1000;0.3126;7.3729;
29.4000;0.3118;7.3635;
29.7000;0.3126;7.3565;
30.0000;0.3142;7.3682;
30.3000;0.3126;7.3706;
30.6000;0.3126;7.3635;
30.9000;0.3150;7.3682;
31.2000;0.3126;7.3565;
31.5000;0.3150;7.3565;
31.8000;0.3150;7.3588;
32.1000;0.3158;7.3612;
32.4000;0.3134;7.3565;
32.7000;0.3158;7.3612;
33.0000;0.3134;7.3659;
33.3000;0.3166;7.3682;
33.6000;0.3118;7.3612;
33.9000;0.3158;7.3659;
34.2000;0.3101;7.3612;
34.5000;0.3142;7.3659;
34.8000;0.3150;7.3682;
35.1000;0.3142;7.3682;
35.4000;0.3134;7.3612;
35.7000;0.3150;7.3682;
36.0000;0.3142;7.3753;
36.3000;0.3207;7.3870;
36.6000;0.3044;7.3400;
36.9000;0.3134;7.3635;
37.2000;0.3150;7.3612;
37.5000;0.3150;7.3541;
37.8000;0.3142;7.3424;
38.1000;0.3158;7.3306;
38.4000;0.3166;7.3400;
38.7000;0.3166;7.3424;
39.0000;0.3158;7.3565;
39.3000;0.3158;7.3565;
39.6000;0.3158;7.3541;
39.9000;0.3142;7.3541;
40.2000;0.3175;7.3612;
40.5000;0.3183;7.3612;
40.8000;0.3191;7.3659;
41.1000;0.3207;7.3659;
41.4000;0.3158;7.3518;
41.7000;0.3166;7.3447;
42.0000;0.3207;7.3518;
42.3000;0.3158;7.3424;
42.6000;0.3166;7.3424;
42.9000;0.3118;7.3235;
43.2000;0.3207;7.3376;
43.5000;0.3166;7.3259;
43.8000;0.3223;7.3376;
44.1000;0.3191;7.3306;
44.4000;0.3158;7.3282;
44.7000;0.3158;7.3282;
45.0000;0.3166;7.3259;
45.3000;0.3166;7.3188;
45.6000;0.3166;7.3212;
45.9000;0.3142;7.3212;
46.2000;0.3150;7.3212;
46.5000;0.3150;7.3188;
46.8000;0.3166;7.3212;
47.1000;0.3166;7.3306;
47.4000;0.3142;7.3259;
47.7000;0.3191;7.3376;
48.0000;0.3109;7.3212;
48.3000;0.3142;7.3424;
48.6000;0.3150;7.3471;
48.9000;0.3232;7.3565;
49.2000;0.3158;7.3353;
49.5000;0.3150;7.3282;
49.8000;0.3175;7.3376;
50.1000;0.3158;7.3353;
50.4000;0.3175;7.3376;
50.7000;0.3126;7.3282;
51.0000;0.3150;7.3329;
51.3000;0.3134;7.3447;
51.6000;0.3175;7.3494;
51.9000;0.3166;7.3518;
52.2000;0.3175;7.3447;
52.5000;0.3158;7.3400;
52.8000;0.3232;7.3588;
53.1000;0.3183;7.3424;
53.4000;0.3150;7.3306;
53.7000;0.3175;7.3306;
54.0000;0.3158;7.3282;
54.3000;0.3158;7.3282;
54.6000;0.3175;7.3329;
54.9000;0.3142;7.3259;
55.2000;0.3166;7.3212;
55.5000;0.3191;7.3329;
55.8000;0.3150;7.3329;
56.1000;0.3175;7.3329;
56.4000;0.3183;7.3329;
56.7000;0.3175;7.3329;
57.0000;0.3101;7.3165;
57.3000;0.3142;7.3376;
57.6000;0.3166;7.3424;
57.9000;0.3158;7.3400;
58.2000;0.3158;7.3329;
58.5000;0.3158;7.3400;
58.8000;0.3150;7.3329;
59.1000;0.3158;7.3306;
59.4000;0.3150;7.3400;
59.7000;0.3166;7.3494;
60.0000;0.3142;7.3494;
60.3000;0.3150;7.3659;
60.6000;0.3166;7.3729;
60.9000;0.3166;7.3706;
61.2000;0.3150;7.3776;
61.5000;0.3175;7.3894;
61.8000;0.3183;7.3964;
62.1000;0.3191;7.3964;
62.4000;0.3166;7.3847;
62.7000;0.3166;7.3800;
63.0000;0.3191;7.3870;
63.3000;0.3142;7.3706;
63.6000;0.3158;7.3635;
63.9000;0.3142;7.3588;
64.2000;0.3166;7.3588;
64.5000;0.3158;7.3565;
64.8000;0.3175;7.3588;
65.1000;0.3134;7.3565;
65.4000;0.3166;7.3612;
65.7000;0.3166;7.3659;
66.0000;0.3101;7.3682;
66.3000;0.3142;7.3659;
66.6000;0.3158;7.3635;
66.9000;0.3134;7.3659;
67.2000;0.3150;7.3729;
67.5000;0.3142;7.3729;
67.8000;0.3150;7.3706;
68.1000;0.3166;7.3706;
68.4000;0.3175;7.3635;
68.7000;0.3158;7.3565;
69.0000;0.3150;7.3494;
69.3000;0.3175;7.3471;
69.6000;0.3158;7.3471;
69.9000;0.3158;7.3471;
70.2000;0.3175;7.3494;
70.5000;0.3166;7.3471;
70.8000;0.3158;7.3376;
71.1000;0.3158;7.3447;
71.4000;0.3150;7.3471;
71.7000;0.3150;7.3612;
72.0000;0.3215;7.3635;
72.3000;0.3175;7.3565;
72.6000;0.3142;7.3447;
72.9000;0.3232;7.3635;
73.2000;0.3175;7.3471;
73.5000;0.3158;7.3541;
73.8000;0.3150;7.3424;
74.1000;0.3166;7.3518;
74.4000;0.3175;7.3541;
74.7000;0.3150;7.3447;
75.0000;0.3150;7.3400;
75.3000;0.3142;7.3376;
75.6000;0.3126;7.3306;
75.9000;0.3150;7.3306;
76.2000;0.3142;7.3259;
76.5000;0.3207;7.3424;
76.8000;0.3175;7.3329;
77.1000;0.3158;7.3282;
77.4000;0.3175;7.3212;
77.7000;0.3166;7.3306;
78.0000;0.3134;7.3306;
78.3000;0.3158;7.3376;
78.6000;0.3158;7.3400;
78.9000;0.3166;7.3447;
79.2000;0.3183;7.3565;
79.5000;0.3199;7.3612;
79.8000;0.3175;7.3635;
80.1000;0.3166;7.3588;
80.4000;0.3158;7.3565;
80.7000;0.3191;7.3612;
81.0000;0.3150;7.3541;
81.3000;0.3175;7.3494;
81.6000;0.3166;7.3471;
81.9000;0.3158;7.3518;
82.2000;0.3223;7.3612;
82.5000;0.3175;7.3424;
82.8000;0.3158;7.3494;
83.1000;0.3183;7.3541;
83.4000;0.3175;7.3565;
83.7000;0.3183;7.3682;
84.0000;0.3142;7.3565;
84.3000;0.3175;7.3635;
84.6000;0.3158;7.3682;
84.9000;0.3166;7.3635;
85.2000;0.3166;7.3682;
85.5000;0.3166;7.3659;
85.8000;0.3150;7.3612;
86.1000;0.3199;7.3729;
86.4000;0.3158;7.3612;
86.7000;0.3150;7.3518;
87.0000;0.3183;7.3565;
87.3000;0.3191;7.3518;
87.6000;0.3166;7.3471;
87.9000;0.3175;7.3471;
88.2000;0.3175;7.3494;
88.5000;0.3175;7.3471;
88.8000;0.3150;7.3471;
89.1000;0.3142;7.3541;
89.4000;0.3158;7.3682;
89.7000;0.3158;7.3729;
90.0000;0.3101;7.3541;
90.3000;0.3166;7.3659;
90.6000;0.3256;7.3894;
90.9000;0.3183;7.3659;
91.2000;0.3191;7.3706;
91.5000;0.3191;7.3635;
91.8000;0.3191;7.3518;
92.1000;0.3166;7.3518;
92.4000;0.3175;7.3565;
92.7000;0.3175;7.3588;
93.0000;0.3166;7.3565;
93.3000;0.3183;7.3541;
93.6000;0.3183;7.3518;
93.9000;0.3175;7.3471;
94.2000;0.3175;7.3471;
94.5000;0.3175;7.3518;
94.8000;0.3207;7.3612;
95.1000;0.3175;7.3494;
95.4000;0.3166;7.3447;
95.7000;0.3175;7.3471;
96.0000;0.3207;7.3565;
96.3000;0.3175;7.3588;
96.6000;0.3109;7.3471;
96.9000;0.3158;7.3612;
97.2000;0.3142;7.3659;
97.5000;0.3183;7.3659;
97.8000;0.3183;7.3635;
98.1000;0.3183;7.3706;
98.4000;0.3175;7.3706;
98.7000;0.3256;7.3823;
99.0000;0.3150;7.3635;
99.3000;0.3150;7.3612;
99.6000;0.3166;7.3471;
99.9000;0.3175;7.3447;
100.2000;0.3183;7.3376;
100.5000;0.3158;7.3376;
100.8000;0.3150;7.3400;
101.1000;0.3183;7.3353;
101.4000;0.3175;7.3353;
101.7000;0.3199;7.3329;
102.0000;0.3150;7.3306;
102.3000;0.3175;7.3282;
102.6000;0.3183;7.3259;
102.9000;0.3175;7.3329;
103.2000;0.3166;7.3353;
103.5000;0.3134;7.3282;
103.8000;0.3134;7.3400;
104.1000;0.3142;7.3424;
104.4000;0.3150;7.3518;
104.7000;0.3158;7.3541;
105.0000;0.3142;7.3471;
105.3000;0.3240;7.3729;
105.6000;0.3150;7.3541;
105.9000;0.3158;7.3541;
106.2000;0.3191;7.3659;
106.5000;0.3183;7.3659;
106.8000;0.3166;7.3659;
107.1000;0.3175;7.3729;
107.4000;0.3183;7.3682;
107.7000;0.3175;7.3588;
108.0000;0.3166;7.3588;
108.3000;0.3126;7.3565;
108.6000;0.3175;7.3753;
108.9000;0.3183;7.3753;
109.2000;0.3264;7.3964;
109.5000;0.3175;7.3706;
109.8000;0.3166;7.3659;
110.1000;0.3158;7.3588;
110.4000;0.3158;7.3588;
110.7000;0.3142;7.3471;
111.0000;0.3126;7.3424;
111.3000;0.3150;7.3471;
111.6000;0.3175;7.3518;
111.9000;0.3150;7.3424;
112.2000;0.3109;7.3353;
112.5000;0.3166;7.3565;
112.8000;0.3175;7.3541;
113.1000;0.3166;7.3447;
113.4000;0.3199;7.3541;
113.7000;0.3183;7.3635;
114.0000;0.3191;7.3823;
114.3000;0.3166;7.3682;
114.6000;0.3175;7.3682;
114.9000;0.3150;7.3588;
115.2000;0.3183;7.3612;
115.5000;0.3134;7.3518;
115.8000;0.3175;7.3612;
116.1000;0.3142;7.3612;
116.4000;0.3101;7.3541;
116.7000;0.3158;7.3753;
117.0000;0.3142;7.3729;
117.3000;0.3175;7.3753;
117.6000;0.3175;7.3706;
117.9000;0.3183;7.3753;
118.2000;0.3166;7.3682;
118.5000;0.3150;7.3706;
118.8000;0.3175;7.3706;
119.1000;0.3158;7.3729;
119.4000;0.3166;7.3729;
119.7000;0.3166;7.3659;
120.0000;0.3077;7.3447;
120.3000;0.3134;7.3659;
120.6000;0.3175;7.3823;
120.9000;0.3199;7.3800;
121.2000;0.3175;7.3729;
121.5000;0.3183;7.3706;
121.8000;0.3223;7.3706;
122.1000;0.3158;7.3447;
122.4000;0.3183;7.3424;
122.7000;0.3134;7.3353;
123.0000;0.3223;7.3635;
123.3000;0.3158;7.3471;
123.6000;0.3150;7.3424;
123.9000;0.3175;7.3518;
124.2000;0.3183;7.3565;
124.5000;0.3158;7.3447;
124.8000;0.3175;7.3424;
125.1000;0.3158;7.3306;
125.4000;0.3109;7.3188;
125.7000;0.3175;7.3353;
126.0000;0.3118;7.3282;
126.3000;0.3183;7.3447;
126.6000;0.3183;7.3424;
126.9000;0.3175;7.3541;
127.2000;0.3207;7.3518;
127.5000;0.3158;7.3471;
127.8000;0.3158;7.3353;
128.1000;0.3183;7.3353;
128.4000;0.3207;7.3447;
128.7000;0.3150;7.3306;
129.0000;0.3183;7.3541;
129.3000;0.3199;7.3729;
129.6000;0.3191;7.3682;
129.9000;0.3150;7.3635;
130.2000;0.3166;7.3635;
130.5000;0.3166;7.3682;
130.8000;0.3183;7.3588;
131.1000;0.3158;7.3541;
131.4000;0.3134;7.3424;
131.7000;0.3150;7.3494;
132.0000;0.3158;7.3471;
132.3000;0.3166;7.3518;
132.6000;0.3118;7.3400;
132.9000;0.3183;7.3494;
133.2000;0.3248;7.3659;
133.5000;0.3191;7.3541;
133.8000;0.3215;7.3635;
134.1000;0.3166;7.3471;
134.4000;0.3150;7.3518;
134.7000;0.3223;7.3565;
135.0000;0.3158;7.3424;
135.3000;0.3256;7.3823;
135.6000;0.3126;7.3494;
135.9000;0.3175;7.3565;
136.2000;0.3175;7.3541;
136.5000;0.3191;7.3588;
136.8000;0.3199;7.3565;
137.1000;0.3166;7.3565;
137.4000;0.3175;7.3565;
137.7000;0.3158;7.3518;
138.0000;0.3191;7.3588;
138.3000;0.3191;7.3612;
138.6000;0.3166;7.3588;
138.9000;0.3077;7.3400;
139.2000;0.3166;7.3635;
139.5000;0.3183;7.3635;
139.8000;0.3183;7.3612;
140.1000;0.3191;7.3588;
140.4000;0.3183;7.3565;
140.7000;0.3166;7.3565;
141.0000;0.3199;7.3588;
141.3000;0.3166;7.3447;
141.6000;0.3150;7.3518;
141.9000;0.3158;7.3518;
142.2000;0.3183;7.3588;
142.5000;0.3166;7.3588;
142.8000;0.3199;7.3706;
143.1000;0.3158;7.3565;
143.4000;0.3199;7.3612;
143.7000;0.3150;7.3588;
144.0000;0.3142;7.3471;
144.3000;0.3175;7.3541;
144.6000;0.3158;7.3424;
144.9000;0.3109;7.3376;
145.2000;0.3175;7.3471;
145.5000;0.3166;7.3447;
145.8000;0.3256;7.3635;
146.1000;0.3166;7.3494;
146.4000;0.3175;7.3565;
146.7000;0.3166;7.3635;
147.0000;0.3134;7.3588;
147.3000;0.3150;7.3682;
147.6000;0.3158;7.3753;
147.9000;0.3150;7.3659;
148.2000;0.3158;7.3706;
148.5000;0.3248;7.3988;
148.8000;0.3166;7.3870;
149.1000;0.3150;7.3776;
149.4000;0.3166;7.3753;
149.7000;0.3175;7.3776;
150.0000;0.3175;7.3800;
150.3000;0.3191;7.3894;
150.6000;0.3166;7.3917;
150.9000;0.3207;7.3964;
151.2000;0.3191;7.3870;
151.5000;0.3166;7.3753;
151.8000;0.3142;7.3588;
152.1000;0.3191;7.3729;
152.4000;0.3158;7.3706;
152.7000;0.3183;7.3776;
153.0000;0.3134;7.3753;
153.3000;0.3175;7.3823;
153.6000;0.3166;7.3776;
153.9000;0.3166;7.3706;
154.2000;0.3175;7.3753;
154.5000;0.3191;7.3729;
154.8000;0.3175;7.3753;
155.1000;0.3175;7.3753;
155.4000;0.3158;7.3706;
155.7000;0.3166;7.3682;
156.0000;0.3150;7.3635;
156.3000;0.3158;7.3729;
156.6000;0.3158;7.3682;
156.9000;0.3175;7.3706;
157.2000;0.3142;7.3612;
157.5000;0.3175;7.3635;
157.8000;0.3280;7.3941;
158.1000;0.3175;7.3682;
158.4000;0.3158;7.3729;
158.7000;0.3166;7.3753;
159.0000;0.3183;7.3847;
159.3000;0.3191;7.3894;
159.6000;0.3142;7.3847;
159.9000;0.3183;7.3800;
160.2000;0.3166;7.3800;
160.5000;0.3158;7.3753;
160.8000;0.3289;7.4035;
161.1000;0.3232;7.3847;
161.4000;0.3175;7.3682;
161.7000;0.3142;7.3541;
162.0000;0.3191;7.3588;
162.3000;0.3191;7.3565;
162.6000;0.3150;7.3447;
162.9000;0.3158;7.3471;
163.2000;0.3183;7.3494;
163.5000;0.3158;7.3424;
163.8000;0.3158;7.3541;
164.1000;0.3175;7.3612;
164.4000;0.3134;7.3447;
164.7000;0.3166;7.3447;
165.0000;0.3150;7.3353;
165.3000;0.3158;7.3282;
165.6000;0.3150;7.3306;
165.9000;0.3150;7.3424;
166.2000;0.3158;7.3447;
166.5000;0.3158;7.3494;
166.8000;0.3126;7.3494;
167.1000;0.3142;7.3588;
167.4000;0.3142;7.3588;
167.7000;0.3166;7.3541;
168.0000;0.3166;7.3518;
168.3000;0.3191;7.3635;
168.6000;0.3166;7.3635;
168.9000;0.3183;7.3682;
169.2000;0.3150;7.3612;
169.5000;0.3166;7.3682;
169.8000;0.3166;7.3682;
170.1000;0.3207;7.3800;
170.4000;0.3142;7.3753;
170.7000;0.3158;7.3729;
171.0000;0.3142;7.3635;
171.3000;0.3150;7.3659;
171.6000;0.3199;7.3729;
171.9000;0.3134;7.3729;
172.2000;0.3150;7.3659;
172.5000;0.3175;7.3635;
172.8000;0.3150;7.3518;
173.1000;0.3118;7.3376;
173.4000;0.3175;7.3565;
173.7000;0.3175;7.3565;
174.0000;0.3101;7.3424;
174.3000;0.3166;7.3753;
174.6000;0.3158;7.3706;
174.9000;0.3175;7.3706;
175.2000;0.3183;7.3682;
175.5000;0.3126;7.3588;
175.8000;0.3142;7.3588;
176.1000;0.3264;7.3823;
176.4000;0.3175;7.3565;
176.7000;0.3158;7.3424;
177.0000;0.3134;7.3376;
177.3000;0.3166;7.3541;
177.6000;0.3142;7.3424;
177.9000;0.3142;7.3424;
178.2000;0.3256;7.3706;
178.5000;0.3150;7.3518;
178.8000;0.3150;7.3541;
179.1000;0.3183;7.3565;
179.4000;0.3166;7.3588;
179.7000;0.3199;7.3612;
180.0000;0.3150;7.3541;
180.3000;0.3240;7.3682;
180.6000;0.3215;7.3588;
180.9000;0.3150;7.3588;
181.2000;0.3150;7.3635;
181.5000;0.3166;7.3565;
181.8000;0.3191;7.3588;
182.1000;0.3175;7.3518;
182.4000;0.3158;7.3471;
182.7000;0.3191;7.3541;
183.0000;0.3142;7.3494;
183.3000;0.3150;7.3518;
183.6000;0.3166;7.3682;
183.9000;0.3150;7.3565;
184.2000;0.3175;7.3541;
184.5000;0.3166;7.3588;
184.8000;0.3215;7.3659;
185.1000;0.3158;7.3541;
185.4000;0.3158;7.3541;
185.7000;0.3175;7.3471;
186.0000;0.3150;7.3471;
186.3000;0.3183;7.3588;
186.6000;0.3248;7.3776;
186.9000;0.3158;7.3588;
187.2000;0.3166;7.3565;
187.5000;0.3183;7.3659;
187.8000;0.3175;7.3682;
188.1000;0.3199;7.3800;
188.4000;0.3175;7.3729;
188.7000;0.3191;7.3823;
189.0000;0.3215;7.3894;
189.3000;0.3191;7.3847;
189.6000;0.3166;7.3753;
189.9000;0.3166;7.3800;
190.2000;0.3158;7.3800;
190.5000;0.3183;7.3823;
190.8000;0.3175;7.3729;
191.1000;0.3126;7.3682;
191.4000;0.3166;7.3800;
191.7000;0.3158;7.3800;
192.0000;0.3166;7.3776;
192.3000;0.3158;7.3706;
192.6000;0.3183;7.3823;
192.9000;0.3150;7.3800;
193.2000;0.3183;7.3823;
193.5000;0.3158;7.3847;
193.8000;0.3166;7.3847;
194.1000;0.3166;7.3800;
194.4000;0.3166;7.3776;
194.7000;0.3175;7.3823;
195.0000;0.3158;7.3753;
195.3000;0.3158;7.3776;
195.6000;0.3150;7.3729;
195.9000;0.3158;7.3753;
196.2000;0.3215;7.3894;
196.5000;0.3166;7.3800;
196.8000;0.3175;7.3753;
197.1000;0.3150;7.3682;
197.4000;0.3166;7.3682;
197.7000;0.3175;7.3706;
198.0000;0.3183;7.3706;
198.3000;0.3191;7.3659;
198.6000;0.3175;7.3565;
198.9000;0.3175;7.3588;
199.2000;0.3191;7.3541;
199.5000;0.3166;7.3518;
199.8000;0.3191;7.3518;
200.1000;0.3183;7.3447;
200.4000;0.3183;7.3518;
200.7000;0.3183;7.3588;
201.0000;0.3158;7.3541;
201.3000;0.3175;7.3635;
201.6000;0.3166;7.3659;
201.9000;0.3207;7.3682;
202.2000;0.3166;7.3612;
202.5000;0.3175;7.3612;
202.8000;0.3175;7.3659;
203.1000;0.3166;7.3612;
203.4000;0.3166;7.3635;
203.7000;0.3183;7.3659;
204.0000;0.3175;7.3635;
204.3000;0.3175;7.3635;
204.6000;0.3175;7.3612;
204.9000;0.3175;7.3682;
205.2000;0.3175;7.3729;
205.5000;0.3191;7.3776;
205.8000;0.3134;7.3635;
206.1000;0.3175;7.3706;
206.4000;0.3166;7.3635;
206.7000;0.3175;7.3588;
207.0000;0.3199;7.3659;
207.3000;0.3166;7.3471;
207.6000;0.3183;7.3565;
207.9000;0.3142;7.3541;
208.2000;0.3191;7.3659;
208.5000;0.3175;7.3518;
208.8000;0.3158;7.3518;
209.1000;0.3191;7.3612;
209.4000;0.3175;7.3635;
209.7000;0.3191;7.3706;
210.0000;0.3166;7.3682;
210.3000;0.3175;7.3635;
210.6000;0.3175;7.3659;
210.9000;0.3166;7.3612;
211.2000;0.3166;7.3588;
211.5000;0.3191;7.3588;
211.8000;0.3175;7.3588;
212.1000;0.3118;7.3471;
212.4000;0.3158;7.3588;
212.7000;0.3166;7.3494;
213.0000;0.3142;7.3447;
213.3000;0.3166;7.3447;
213.6000;0.3191;7.3471;
213.9000;0.3134;7.3329;
214.2000;0.3175;7.3471;
214.5000;0.3175;7.3588;
214.8000;0.3158;7.3588;
215.1000;0.3207;7.3659;
215.4000;0.3166;7.3565;
215.7000;0.3150;7.3494;
216.0000;0.3158;7.3494;
216.3000;0.3166;7.3565;
216.6000;0.3248;7.3800;
216.9000;0.3191;7.3635;
217.2000;0.3183;7.3565;
217.5000;0.3191;7.3612;
217.8000;0.3175;7.3612;
218.1000;0.3166;7.3541;
218.4000;0.3166;7.3424;
218.7000;0.3150;7.3494;
219.0000;0.3158;7.3541;
219.3000;0.3150;7.3494;
219.6000;0.3183;7.3588;
219.9000;0.3158;7.3494;
220.2000;0.3272;7.3729;
220.5000;0.3158;7.3565;
220.8000;0.3175;7.3518;
221.1000;0.3150;7.3541;
221.4000;0.3150;7.3612;
221.7000;0.3142;7.3659;
222.0000;0.3101;7.3612;
222.3000;0.3150;7.3706;
222.6000;0.3150;7.3776;
222.9000;0.3215;7.3964;
223.2000;0.3175;7.3823;
223.5000;0.3166;7.3659;
223.8000;0.3158;7.3635;
224.1000;0.3166;7.3635;
224.4000;0.3199;7.3823;
224.7000;0.3183;7.3776;
225.0000;0.3166;7.3729;
225.3000;0.3175;7.3729;
225.6000;0.3142;7.3729;
225.9000;0.3134;7.3776;
226.2000;0.3158;7.3776;
226.5000;0.3158;7.3800;
226.8000;0.3158;7.3800;
227.1000;0.3158;7.3894;
227.4000;0.3166;7.3870;
227.7000;0.3207;7.4011;
228.0000;0.3093;7.3682;
228.3000;0.3166;7.3894;
228.6000;0.3166;7.3847;
228.9000;0.3126;7.3800;
229.2000;0.3183;7.3941;
229.5000;0.3158;7.3870;
229.8000;0.3175;7.3800;
230.1000;0.3207;7.3870;
230.4000;0.3183;7.3823;
230.7000;0.3126;7.3753;
231.0000;0.3166;7.3870;
231.3000;0.3183;7.3988;
231.6000;0.3175;7.3964;
231.9000;0.3175;7.3988;
232.2000;0.3183;7.4011;
232.5000;0.3207;7.4129;
232.8000;0.3175;7.4129;
233.1000;0.3207;7.4153;
233.4000;0.3150;7.4011;
233.7000;0.3158;7.4011;
234.0000;0.3118;7.3964;
234.3000;0.3175;7.4129;
234.6000;0.3240;7.4270;
234.9000;0.3183;7.4059;
235.2000;0.3191;7.4059;
235.5000;0.3142;7.3988;
235.8000;0.3175;7.4082;
236.1000;0.3166;7.4035;
236.4000;0.3142;7.3917;
236.7000;0.3142;7.3894;
237.0000;0.3077;7.3729;
237.3000;0.3158;7.3917;
237.6000;0.3166;7.3941;
237.9000;0.3166;7.3917;
238.2000;0.3158;7.3988;
238.5000;0.3183;7.4035;
238.8000;0.3183;7.3988;
239.1000;0.3223;7.4035;
239.4000;0.3175;7.3847;
239.7000;0.3199;7.3894;
240.0000;0.3166;7.3800;
240.3000;0.3175;7.3800;
240.6000;0.3183;7.3800;
240.9000;0.3150;7.3753;
241.2000;0.3166;7.3870;
241.5000;0.3166;7.3823;
241.8000;0.3183;7.3917;
242.1000;0.3183;7.3870;
242.4000;0.3199;7.3894;
242.7000;0.3166;7.3870;
243.0000;0.3166;7.3847;
243.3000;0.3183;7.3800;
243.6000;0.3175;7.3870;
243.9000;0.3183;7.3847;
244.2000;0.3150;7.3800;
244.5000;0.3175;7.3964;
244.8000;0.3175;7.3964;
245.1000;0.3191;7.4011;
245.4000;0.3191;7.3894;
245.7000;0.3158;7.3823;
246.0000;0.3207;7.3847;
246.3000;0.3175;7.3776;
246.6000;0.3134;7.3729;
246.9000;0.3150;7.3753;
247.2000;0.3199;7.3870;
247.5000;0.3183;7.3823;
247.8000;0.3175;7.3847;
248.1000;0.3166;7.3870;
248.4000;0.3166;7.3823;
248.7000;0.3069;7.3471;
249.0000;0.3142;7.3682;
249.3000;0.3142;7.3659;
249.6000;0.3199;7.3776;
249.9000;0.3134;7.3659;
250.2000;0.3158;7.3729;
250.5000;0.3175;7.3706;
250.8000;0.3126;7.3588;
251.1000;0.3142;7.3823;
251.4000;0.3175;7.3894;
251.7000;0.3183;7.3988;
252.0000;0.3158;7.3894;
252.3000;0.3199;7.3941;
252.6000;0.3199;7.3917;
252.9000;0.3175;7.3823;
253.2000;0.3158;7.3753;
253.5000;0.3142;7.3612;
253.8000;0.3150;7.3588;
254.1000;0.3126;7.3494;
254.4000;0.3150;7.3659;
254.7000;0.3134;7.3588;
255.0000;0.3175;7.3706;
255.3000;0.3175;7.3729;
255.6000;0.3166;7.3800;
255.9000;0.3150;7.3729;
256.2000;0.3183;7.3753;
256.5000;0.3166;7.3776;
256.8000;0.3150;7.3776;
257.1000;0.3158;7.3776;
257.4000;0.3191;7.3894;
257.7000;0.3166;7.3823;
258.0000;0.3166;7.3870;
258.3000;0.3150;7.3870;
258.6000;0.3150;7.3964;
258.9000;0.3158;7.4011;
259.2000;0.3166;7.4059;
259.5000;0.3166;7.4011;
259.8000;0.3175;7.4082;
260.1000;0.3183;7.4129;
260.4000;0.3166;7.4106;
260.7000;0.3150;7.4059;
261.0000;0.3150;7.4106;
261.3000;0.3166;7.4153;
261.6000;0.3166;7.4176;
261.9000;0.3183;7.4106;
262.2000;0.3158;7.4011;
262.5000;0.3150;7.4011;
262.8000;0.3166;7.4059;
263.1000;0.3158;7.3894;
263.4000;0.3142;7.3800;
263.7000;0.3166;7.3870;
264.0000;0.3118;7.3682;
264.3000;0.3183;7.3729;
264.6000;0.3158;7.3635;
264.9000;0.3175;7.3729;
265.2000;0.3175;7.3729;
265.5000;0.3166;7.3776;
265.8000;0.3183;7.3706;
266.1000;0.3150;7.3635;
266.4000;0.3158;7.3659;
266.7000;0.3150;7.3729;
267.0000;0.3150;7.3753;
267.3000;0.3142;7.3823;
267.6000;0.3142;7.3847;
267.9000;0.3158;7.3894;
268.2000;0.3134;7.3823;
268.5000;0.3158;7.3894;
268.8000;0.3158;7.3847;
269.1000;0.3207;7.3870;
269.4000;0.3183;7.3682;
269.7000;0.3158;7.3612;
270.0000;0.3191;7.3588;
270.3000;0.3191;7.3635;
270.6000;0.3166;7.3541;
270.9000;0.3166;7.3518;
271.2000;0.3158;7.3494;
271.5000;0.3166;7.3494;
271.8000;0.3175;7.3588;
272.1000;0.3183;7.3635;
272.4000;0.3158;7.3635;
272.7000;0.3166;7.3682;
273.0000;0.3183;7.3823;
273.3000;0.3142;7.3753;
273.6000;0.3150;7.3729;
273.9000;0.3175;7.3729;
274.2000;0.3158;7.3776;
274.5000;0.3150;7.3682;
274.8000;0.3142;7.3706;
275.1000;0.3142;7.3682;
275.4000;0.3199;7.3729;
275.7000;0.3232;7.3776;
276.0000;0.3158;7.3612;
276.3000;0.3126;7.3565;
276.6000;0.3077;7.3471;
276.9000;0.3134;7.3682;
277.2000;0.3256;7.3988;
277.5000;0.3166;7.3682;
277.8000;0.3166;7.3729;
278.1000;0.3240;7.3870;
278.4000;0.3183;7.3682;
278.7000;0.3134;7.3612;
279.0000;0.3215;7.3753;
279.3000;0.3232;7.3800;
279.6000;0.3166;7.3729;
279.9000;0.3166;7.3800;
280.2000;0.3158;7.3870;
280.5000;0.3175;7.3894;
280.8000;0.3175;7.3941;
281.1000;0.3166;7.3988;
281.4000;0.3166;7.4035;
281.7000;0.3134;7.4011;
282.0000;0.3175;7.4129;
282.3000;0.3158;7.4082;
282.6000;0.3199;7.4059;
282.9000;0.3191;7.4106;
283.2000;0.3183;7.4035;
283.5000;0.3175;7.3964;
283.8000;0.3183;7.3941;
284.1000;0.3109;7.3847;
284.4000;0.3183;7.3894;
284.7000;0.3199;7.3941;
285.0000;0.3158;7.3870;
285.3000;0.3166;7.3800;
285.6000;0.3191;7.3776;
285.9000;0.3183;7.3753;
286.2000;0.3183;7.3659;
286.5000;0.3158;7.3635;
286.8000;0.3158;7.3706;
287.1000;0.3126;7.3753;
287.4000;0.3175;7.3800;
287.7000;0.3101;7.3706;
288.0000;0.3183;7.3894;
288.3000;0.3175;7.3823;
288.6000;0.3191;7.3776;
288.9000;0.3191;7.3847;
289.2000;0.3175;7.3800;
289.5000;0.3191;7.3800;
289.8000;0.3101;7.3682;
290.1000;0.3183;7.3917;
290.4000;0.3207;7.3964;
290.7000;0.3191;7.3941;
291.0000;0.3215;7.4011;
291.3000;0.3183;7.3870;
291.6000;0.3183;7.3823;
291.9000;0.3166;7.3753;
292.2000;0.3183;7.3753;
292.5000;0.3158;7.3753;
292.8000;0.3166;7.3729;
293.1000;0.3175;7.3847;
293.4000;0.3175;7.3870;
293.7000;0.3166;7.3776;
294.0000;0.3183;7.3800;
294.3000;0.3175;7.3706;
294.6000;0.3183;7.3729;
294.9000;0.3150;7.3635;
295.2000;0.3175;7.3729;
295.5000;0.3158;7.3729;
295.8000;0.3158;7.3588;
296.1000;0.3142;7.3565;
296.4000;0.3175;7.3588;
296.7000;0.3158;7.3518;
297.0000;0.3199;7.3612;
297.3000;0.3175;7.3659;
297.6000;0.3158;7.3706;
297.9000;0.3093;7.3635;
298.2000;0.3215;7.3706;
298.5000;0.3150;7.3541;
298.8000;0.3158;7.3541;
299.1000;0.3166;7.3565;
299.4000;0.3191;7.3612;
299.7000;0.3199;7.3682;
300.0000;0.3158;7.3565;
300.3000;0.3126;7.3565;
300.6000;0.3199;7.3776;
300.9000;0.3183;7.3753;
301.2000;0.3077;7.3541;
301.5000;0.3126;7.3706;
301.8000;0.3150;7.3753;
302.1000;0.3150;7.3823;
302.4000;0.3166;7.3800;
302.7000;0.3191;7.3823;
303.0000;0.3150;7.3682;
303.3000;0.3158;7.3635;
303.6000;0.3158;7.3635;
303.9000;0.3150;7.3635;
304.2000;0.3183;7.3729;
304.5000;0.3166;7.3682;
304.8000;0.3166;7.3706;
305.1000;0.3175;7.3729;
305.4000;0.3166;7.3659;
305.7000;0.3150;7.3635;
306.0000;0.3175;7.3682;
306.3000;0.3134;7.3682;
306.6000;0.3191;7.3847;
306.9000;0.3166;7.3753;
307.2000;0.3118;7.3612;
307.5000;0.3223;7.3706;
307.8000;0.3150;7.3471;
308.1000;0.3297;7.3870;
308.4000;0.3166;7.3541;
308.7000;0.3183;7.3612;
309.0000;0.3175;7.3612;
309.3000;0.3175;7.3541;
309.6000;0.3166;7.3635;
309.9000;0.3175;7.3588;
310.2000;0.3150;7.3541;
310.5000;0.3158;7.3588;
310.8000;0.3166;7.3612;
311.1000;0.3240;7.3847;
311.4000;0.3183;7.3776;
311.7000;0.3158;7.3776;
312.0000;0.3199;7.3753;
312.3000;0.3191;7.3659;
312.6000;0.3175;7.3612;
312.9000;0.3223;7.3776;
313.2000;0.3232;7.3776;
313.5000;0.3175;7.3682;
313.8000;0.3248;7.3870;
314.1000;0.3158;7.3635;
314.4000;0.3175;7.3729;
314.7000;0.3191;7.3706;
315.0000;0.3175;7.3635;
315.3000;0.3175;7.3612;
315.6000;0.3150;7.3518;
315.9000;0.3158;7.3541;
316.2000;0.3175;7.3682;
316.5000;0.3158;7.3776;
316.8000;0.3158;7.3800;
317.1000;0.3183;7.3776;
317.4000;0.3166;7.3659;
317.7000;0.3166;7.3729;
318.0000;0.3166;7.3612;
318.3000;0.3158;7.3612;
318.6000;0.3175;7.3659;
318.9000;0.3077;7.3518;
319.2000;0.3142;7.3659;
319.5000;0.3166;7.3682;
319.8000;0.3134;7.3612;
320.1000;0.3175;7.3635;
320.4000;0.3166;7.3541;
320.7000;0.3150;7.3518;
321.0000;0.3166;7.3565;
321.3000;0.3158;7.3471;
321.6000;0.3183;7.3447;
321.9000;0.3134;7.3376;
322.2000;0.3175;7.3447;
322.5000;0.3166;7.3518;
322.8000;0.3150;7.3588;
323.1000;0.3077;7.3447;
323.4000;0.3175;7.3659;
323.7000;0.3158;7.3635;
324.0000;0.3166;7.3635;
324.3000;0.3207;7.3847;
324.6000;0.3175;7.3823;
324.9000;0.3158;7.3870;
325.2000;0.3158;7.3800;
325.5000;0.3150;7.3823;
325.8000;0.3207;7.3941;
326.1000;0.3166;7.3847;
326.4000;0.3166;7.3823;
326.7000;0.3101;7.3729;
327.0000;0.3158;7.3870;
327.3000;0.3150;7.3870;
327.6000;0.3166;7.3847;
327.9000;0.3175;7.3729;
328.2000;0.3150;7.3682;
328.5000;0.3199;7.3753;
328.8000;0.3183;7.3729;
329.1000;0.3215;7.3847;
329.4000;0.3183;7.3753;
329.7000;0.3183;7.3753;
330.0000;0.3215;7.3823;
330.3000;0.3175;7.3800;
330.6000;0.3150;7.3753;
330.9000;0.3207;7.3870;
331.2000;0.3166;7.3776;
331.5000;0.3166;7.3659;
331.8000;0.3158;7.3753;
332.1000;0.3142;7.3706;
332.4000;0.3150;7.3706;
332.7000;0.3158;7.3706;
333.0000;0.3183;7.3729;
333.3000;0.3158;7.3682;
333.6000;0.3166;7.3706;
333.9000;0.3183;7.3776;
334.2000;0.3183;7.3847;
334.5000;0.3183;7.3823;
334.8000;0.3183;7.3776;
335.1000;0.3118;7.3659;
335.4000;0.3150;7.3682;
335.7000;0.3126;7.3635;
336.0000;0.3158;7.3776;
336.3000;0.3158;7.3729;
336.6000;0.3199;7.3635;
336.9000;0.3142;7.3635;
337.2000;0.3142;7.3588;
337.5000;0.3150;7.3612;
337.8000;0.3166;7.3635;
338.1000;0.3158;7.3565;
338.4000;0.3199;7.3635;
338.7000;0.3101;7.3518;
339.0000;0.3166;7.3776;
339.3000;0.3158;7.3823;
339.6000;0.3150;7.3823;
339.9000;0.3183;7.3894;
340.2000;0.3134;7.3870;
340.5000;0.3175;7.3964;
340.8000;0.3166;7.3894;
341.1000;0.3191;7.3870;
341.4000;0.3158;7.3800;
341.7000;0.3183;7.3753;
342.0000;0.3150;7.3706;
342.3000;0.3158;7.3800;
342.6000;0.3142;7.3776;
342.9000;0.3166;7.3847;
343.2000;0.3191;7.3917;
343.5000;0.3142;7.3847;
343.8000;0.3150;7.3870;
344.1000;0.3175;7.3870;
344.4000;0.3158;7.3847;
344.7000;0.3256;7.4129;
345.0000;0.3158;7.4011;
345.3000;0.3223;7.4153;
345.6000;0.3207;7.4035;
345.9000;0.3085;7.3753;
346.2000;0.3158;7.3941;
346.5000;0.3150;7.3941;
346.8000;0.3134;7.3847;
347.1000;0.3175;7.3894;
347.4000;0.3150;7.3894;
347.7000;0.3166;7.3917;
348.0000;0.3166;7.3847;
348.3000;0.3175;7.3823;
348.6000;0.3175;7.3894;
348.9000;0.3150;7.3847;
349.2000;0.3175;7.3847;
349.5000;0.3069;7.3565;
349.8000;0.3166;7.3917;
350.1000;0.3150;7.3847;
350.4000;0.3166;7.3941;
350.7000;0.3183;7.3894;
351.0000;0.3175;7.3800;
351.3000;0.3183;7.3847;
351.6000;0.3150;7.3800;
351.9000;0.3207;7.3941;
352.2000;0.3150;7.3800;
352.5000;0.3142;7.3823;
352.8000;0.3166;7.3894;
353.1000;0.3199;7.3894;
353.4000;0.3126;7.3659;
353.7000;0.3175;7.3659;
354.0000;0.3175;7.3729;
354.3000;0.3158;7.3706;
354.6000;0.3077;7.3471;
354.9000;0.3175;7.3776;
355.2000;0.3126;7.3659;
355.5000;0.3175;7.3612;
355.8000;0.3158;7.3565;
356.1000;0.3158;7.3494;
356.4000;0.3158;7.3494;
356.7000;0.3183;7.3588;
357.0000;0.3150;7.3518;
357.3000;0.3166;7.3565;
357.6000;0.3166;7.3659;
357.9000;0.3126;7.3635;
358.2000;0.3175;7.3847;
358.5000;0.3150;7.3753;
358.8000;0.3166;7.3847;
359.1000;0.3232;7.3964;
359.4000;0.3158;7.3800;
359.7000;0.3175;7.3847;
360.0000;0.3240;7.4082;
360.3000;0.3158;7.3894;
360.6000;0.3166;7.3894;
360.9000;0.3166;7.3917;
361.2000;0.3166;7.3894;
361.5000;0.3166;7.4011;
361.8000;0.3175;7.3964;
362.1000;0.3215;7.3847;
362.4000;0.3158;7.3659;
362.7000;0.3166;7.3682;
363.0000;0.3175;7.3729;
363.3000;0.3175;7.3682;
363.6000;0.3150;7.3541;
363.9000;0.3150;7.3518;
364.2000;0.3240;7.3729;
364.5000;0.3158;7.3588;
364.8000;0.3175;7.3659;
365.1000;0.3191;7.3706;
365.4000;0.3158;7.3659;
365.7000;0.3166;7.3706;
366.0000;0.3158;7.3588;
366.3000;0.3183;7.3541;
366.6000;0.3183;7.3541;
366.9000;0.3191;7.3612;
367.2000;0.3150;7.3588;
367.5000;0.3183;7.3612;
367.8000;0.3109;7.3400;
368.1000;0.3126;7.3329;
368.4000;0.3175;7.3588;
368.7000;0.3166;7.3635;
369.0000;0.3150;7.3635;
369.3000;0.3207;7.3776;
369.6000;0.3077;7.3424;
369.9000;0.3166;7.3659;
370.2000;0.3061;7.3424;
370.5000;0.3158;7.3729;
370.8000;0.3166;7.3800;
371.1000;0.3183;7.3800;
371.4000;0.3118;7.3706;
371.7000;0.3134;7.3635;
372.0000;0.3150;7.3565;
372.3000;0.3175;7.3635;
372.6000;0.3158;7.3659;
372.9000;0.3142;7.3729;
373.2000;0.3158;7.3894;
373.5000;0.3134;7.3847;
373.8000;0.3142;7.4011;
374.1000;0.3175;7.3964;
374.4000;0.3175;7.3870;
374.7000;0.3166;7.3894;
375.0000;0.3126;7.3894;
375.3000;0.3183;7.3964;
375.6000;0.3166;7.3988;
375.9000;0.3175;7.3917;
376.2000;0.3183;7.3917;
376.5000;0.3158;7.3870;
376.8000;0.3166;7.3823;
377.1000;0.3166;7.3800;
377.4000;0.3166;7.3776;
377.7000;0.3134;7.3753;
378.0000;0.3183;7.3870;
378.3000;0.3158;7.3847;
378.6000;0.3150;7.3753;
378.9000;0.3150;7.3776;
379.2000;0.3175;7.3800;
379.5000;0.3166;7.3706;
379.8000;0.3158;7.3659;
380.1000;0.3142;7.3612;
380.4000;0.3150;7.3706;
380.7000;0.3175;7.3776;
381.0000;0.3166;7.3823;
381.3000;0.3158;7.3823;
381.6000;0.3158;7.3753;
381.9000;0.3183;7.3729;
382.2000;0.3175;7.3776;
382.5000;0.3166;7.3729;
382.8000;0.3175;7.3776;
383.1000;0.3150;7.3847;
383.4000;0.3175;7.3870;
383.7000;0.3199;7.3894;
384.0000;0.3207;7.3917;
384.3000;0.3150;7.3706;
384.6000;0.3166;7.3706;
384.9000;0.3183;7.3776;
385.2000;0.3118;7.3659;
385.5000;0.3183;7.3847;
385.8000;0.3175;7.3800;
386.1000;0.3183;7.3823;
386.4000;0.3142;7.3659;
386.7000;0.3191;7.3823;
387.0000;0.3175;7.3776;
387.3000;0.3215;7.3800;
387.6000;0.3053;7.3447;
387.9000;0.3175;7.3800;
388.2000;0.3175;7.3847;
388.5000;0.3183;7.3917;
388.8000;0.3150;7.3894;
389.1000;0.3207;7.3847;
389.4000;0.3166;7.3776;
389.7000;0.3142;7.3729;
390.0000;0.3175;7.3682;
390.3000;0.3166;7.3659;
390.6000;0.3109;7.3541;
390.9000;0.3150;7.3612;
391.2000;0.3175;7.3635;
391.5000;0.3175;7.3753;
391.8000;0.3158;7.3635;
392.1000;0.3175;7.3588;
392.4000;0.3183;7.3612;
392.7000;0.3175;7.3541;
393.0000;0.3158;7.3541;
393.3000;0.3175;7.3518;
393.6000;0.3150;7.3588;
393.9000;0.3175;7.3753;
394.2000;0.3166;7.3753;
394.5000;0.3166;7.3800;
394.8000;0.3183;7.3823;
395.1000;0.3175;7.3847;
395.4000;0.3158;7.3847;
395.7000;0.3150;7.3753;
396.0000;0.3175;7.3776;
396.3000;0.3183;7.3706;
396.6000;0.3158;7.3635;
396.9000;0.3175;7.3729;
397.2000;0.3175;7.3682;
397.5000;0.3166;7.3682;
397.8000;0.3191;7.3800;
398.1000;0.3118;7.3706;
398.4000;0.3109;7.3706;
398.7000;0.3166;7.3776;
399.0000;0.3166;7.3870;
399.3000;0.3142;7.3800;
399.6000;0.3150;7.3823;
399.9000;0.3134;7.3776;
400.2000;0.3150;7.3823;
400.5000;0.3101;7.3682;
400.8000;0.3158;7.3823;
401.1000;0.3158;7.3870;
401.4000;0.3191;7.3870;
401.7000;0.3166;7.3870;
402.0000;0.3175;7.3847;
402.3000;0.3166;7.3800;
402.6000;0.3175;7.3729;
402.9000;0.3248;7.3894;
403.2000;0.3142;7.3612;
403.5000;0.3158;7.3729;
403.8000;0.3158;7.3776;
404.1000;0.3191;7.3917;
404.4000;0.3158;7.3870;
404.7000;0.3166;7.3917;
405.0000;0.3134;7.3917;
405.3000;0.3134;7.3800;
405.6000;0.3142;7.3870;
405.9000;0.3150;7.3823;
406.2000;0.3101;7.3729;
406.5000;0.3183;7.3917;
406.8000;0.3166;7.3870;
407.1000;0.3158;7.3870;
407.4000;0.3150;7.3917;
407.7000;0.3199;7.4011;
408.0000;0.3126;7.3800;
408.3000;0.3150;7.3870;
408.6000;0.3142;7.3847;
408.9000;0.3118;7.3776;
409.2000;0.3101;7.3753;
409.5000;0.3150;7.3823;
409.8000;0.3158;7.3776;
410.1000;0.3158;7.3659;
410.4000;0.3166;7.3706;
410.7000;0.3183;7.3800;
411.0000;0.3183;7.3800;
411.3000;0.3142;7.3682;
411.6000;0.3183;7.3753;
411.9000;0.3183;7.3635;
412.2000;0.3175;7.3659;
412.5000;0.3109;7.3565;
412.8000;0.3175;7.3682;
413.1000;0.3158;7.3729;
413.4000;0.3158;7.3776;
413.7000;0.3158;7.3776;
414.0000;0.3142;7.3776;
414.3000;0.3142;7.3800;
414.6000;0.3175;7.3823;
414.9000;0.3166;7.3706;
415.2000;0.3166;7.3753;
415.5000;0.3183;7.3823;
415.8000;0.3166;7.3776;
416.1000;0.3166;7.3729;
416.4000;0.3166;7.3706;
416.7000;0.3199;7.3729;
417.0000;0.3207;7.3706;
417.3000;0.3158;7.3588;
417.6000;0.3150;7.3612;
417.9000;0.3175;7.3682;
418.2000;0.3166;7.3729;
418.5000;0.3175;7.3729;
418.8000;0.3158;7.3659;
419.1000;0.3166;7.3706;
419.4000;0.3175;7.3682;
419.7000;0.3150;7.3588;
420.0000;0.3166;7.3635;
420.3000;0.3175;7.3706;
420.6000;0.3223;7.3776;
420.9000;0.3191;7.3706;
421.2000;0.3166;7.3635;
421.5000;0.3158;7.3682;
421.8000;0.3142;7.3659;
422.1000;0.3166;7.3729;
422.4000;0.3150;7.3729;
422.7000;0.3166;7.3753;
423.0000;0.3142;7.3753;
423.3000;0.3175;7.3776;
423.6000;0.3150;7.3706;
423.9000;0.3150;7.3753;
424.2000;0.3150;7.3682;
424.5000;0.3158;7.3706;
424.8000;0.3134;7.3635;
425.1000;0.3175;7.3706;
425.4000;0.3158;7.3729;
425.7000;0.3166;7.3659;
426.0000;0.3289;7.3894;
426.3000;0.3175;7.3635;
426.6000;0.3175;7.3588;
426.9000;0.3191;7.3471;
427.2000;0.3207;7.3518;
427.5000;0.3183;7.3471;
427.8000;0.3175;7.3518;
428.1000;0.3142;7.3588;
428.4000;0.3142;7.3565;
428.7000;0.3142;7.3659;
429.0000;0.3166;7.3729;
429.3000;0.3150;7.3659;
429.6000;0.3166;7.3706;
429.9000;0.3166;7.3753;
430.2000;0.3256;7.3894;
430.5000;0.3215;7.3823;
430.8000;0.3191;7.3753;
431.1000;0.3158;7.3729;
431.4000;0.3232;7.3870;
431.7000;0.3118;7.3635;
432.0000;0.3175;7.3729;
432.3000;0.3175;7.3776;
432.6000;0.3183;7.3870;
432.9000;0.3166;7.3823;
433.2000;0.3183;7.3870;
433.5000;0.3175;7.3776;
433.8000;0.3183;7.3612;
434.1000;0.3166;7.3635;
434.4000;0.3166;7.3776;
434.7000;0.3158;7.3823;
435.0000;0.3126;7.3729;
435.3000;0.3166;7.3753;
435.6000;0.3175;7.3800;
435.9000;0.3183;7.3800;
436.2000;0.3191;7.3847;
436.5000;0.3101;7.3682;
436.8000;0.3158;7.3753;
437.1000;0.3183;7.3870;
437.4000;0.3175;7.3847;
437.7000;0.3158;7.3917;
438.0000;0.3158;7.3988;
438.3000;0.3158;7.3988;
438.6000;0.3126;7.3917;
438.9000;0.3158;7.3917;
439.2000;0.3256;7.4153;
439.5000;0.3150;7.3941;
439.8000;0.3142;7.3847;
440.1000;0.3142;7.3823;
440.4000;0.3158;7.3894;
440.7000;0.3166;7.3870;
441.0000;0.3166;7.3847;
441.3000;0.3166;7.3847;
441.6000;0.3158;7.3753;
441.9000;0.3150;7.3706;
442.2000;0.3166;7.3635;
442.5000;0.3158;7.3541;
442.8000;0.3020;7.3141;
443.1000;0.3175;7.3565;
443.4000;0.3175;7.3635;
443.7000;0.3183;7.3635;
444.0000;0.3199;7.3659;
444.3000;0.3166;7.3612;
444.6000;0.3175;7.3706;
444.9000;0.3199;7.3870;
445.2000;0.3166;7.3776;
445.5000;0.3175;7.3729;
445.8000;0.3191;7.3612;
446.1000;0.3240;7.3588;
446.4000;0.3166;7.3376;
446.7000;0.3150;7.3376;
447.0000;0.3191;7.3471;
447.3000;0.3158;7.3565;
447.6000;0.3142;7.3471;
447.9000;0.3142;7.3565;
448.2000;0.3166;7.3659;
448.5000;0.3134;7.3565;
448.8000;0.3158;7.3588;
449.1000;0.3158;7.3565;
449.4000;0.3150;7.3518;
449.7000;0.3175;7.3541;
450.0000;0.3183;7.3588;
450.3000;0.3158;7.3635;
450.6000;0.3134;7.3635;
450.9000;0.3118;7.3635;
451.2000;0.3166;7.3776;
451.5000;0.3158;7.3776;
451.8000;0.3150;7.3776;
452.1000;0.3175;7.3753;
452.4000;0.3166;7.3729;
452.7000;0.3166;7.3659;
453.0000;0.3166;7.3659;
453.3000;0.3175;7.3682;
453.6000;0.3183;7.3682;
453.9000;0.3166;7.3776;
454.2000;0.3158;7.3682;
454.5000;0.3134;7.3565;
454.8000;0.3191;7.3682;
455.1000;0.3175;7.3682;
455.4000;0.3191;7.3682;
455.7000;0.3191;7.3776;
456.0000;0.3175;7.3706;
456.3000;0.3166;7.3682;
456.6000;0.3158;7.3635;
456.9000;0.3166;7.3682;
457.2000;0.3175;7.3776;
457.5000;0.3166;7.3729;
457.8000;0.3191;7.3800;
458.1000;0.3166;7.3729;
458.4000;0.3150;7.3659;
458.7000;0.3134;7.3565;
459.0000;0.3158;7.3659;
459.3000;0.3166;7.3659;
459.6000;0.3223;7.3800;
459.9000;0.3118;7.3612;
460.2000;0.3142;7.3729;
460.5000;0.3240;7.3870;
460.8000;0.3240;7.3870;
461.1000;0.3109;7.3565;
461.4000;0.3142;7.3729;
461.7000;0.3166;7.3800;
462.0000;0.3126;7.3729;
462.3000;0.3256;7.4082;
462.6000;0.3118;7.3753;
462.9000;0.3150;7.3776;
463.2000;0.3289;7.4035;
463.5000;0.3134;7.3659;
463.8000;0.3207;7.3870;
464.1000;0.3264;7.4035;
464.4000;0.3134;7.3753;
464.7000;0.3142;7.3706;
465.0000;0.3175;7.3753;
465.3000;0.3183;7.3706;
465.6000;0.3158;7.3682;
465.9000;0.3166;7.3729;
466.2000;0.3175;7.3776;
466.5000;0.3175;7.3753;
466.8000;0.3142;7.3659;
467.1000;0.3158;7.3659;
467.4000;0.3175;7.3706;
467.7000;0.3183;7.3729;
468.0000;0.3175;7.3706;
468.3000;0.3142;7.3682;
468.6000;0.3150;7.3753;
468.9000;0.3175;7.3729;
469.2000;0.3183;7.3682;
469.5000;0.3158;7.3682;
469.8000;0.3150;7.3682;
470.1000;0.3166;7.3800;
470.4000;0.3158;7.3800;
470.7000;0.3166;7.3847;
471.0000;0.3126;7.3870;
471.3000;0.3183;7.3941;
471.6000;0.3183;7.3941;
471.9000;0.3126;7.3870;
472.2000;0.3150;7.3941;
472.5000;0.3191;7.3870;
472.8000;0.3199;7.3988;
473.1000;0.3142;7.3870;
473.4000;0.3142;7.3870;
473.7000;0.3142;7.3847;
474.0000;0.3142;7.3823;
474.3000;0.3166;7.3753;
474.6000;0.3175;7.3823;
474.9000;0.3158;7.3894;
475.2000;0.3183;7.3988;
475.5000;0.3175;7.3894;
475.8000;0.3118;7.3823;
476.1000;0.3183;7.3941;
476.4000;0.3191;7.3917;
476.7000;0.3248;7.3988;
477.0000;0.3166;7.3753;
477.3000;0.3166;7.3753;
477.6000;0.3134;7.3682;
477.9000;0.3118;7.3659;
478.2000;0.3101;7.3659;
478.5000;0.3256;7.3988;
478.8000;0.3150;7.3823;
479.1000;0.3166;7.3847;
479.4000;0.3158;7.3800;
479.7000;0.3183;7.3847;
480.0000;0.3126;7.3729;
480.3000;0.3142;7.3706;
480.6000;0.3118;7.3706;
480.9000;0.3166;7.3870;
481.2000;0.3142;7.3870;
481.5000;0.3183;7.4059;
481.8000;0.3183;7.4035;
482.1000;0.3191;7.3941;
482.4000;0.3158;7.3847;
482.7000;0.3191;7.3941;
483.0000;0.3166;7.3847;
483.3000;0.3150;7.3800;
483.6000;0.3158;7.3894;
483.9000;0.3215;7.4011;
484.2000;0.3158;7.3776;
484.5000;0.3191;7.3823;
484.8000;0.3223;7.3894;
485.1000;0.3223;7.3823;
485.4000;0.3166;7.3682;
485.7000;0.3183;7.3800;
486.0000;0.3150;7.3847;
486.3000;0.3166;7.3917;
486.6000;0.3175;7.3870;
486.9000;0.3191;7.3847;
487.2000;0.3166;7.3847;
487.5000;0.3158;7.3823;
487.8000;0.3175;7.3847;
488.1000;0.3223;7.3894;
488.4000;0.3158;7.3659;
488.7000;0.3175;7.3706;
489.0000;0.3175;7.3682;
489.3000;0.3166;7.3635;
489.6000;0.3191;7.3753;
489.9000;0.3150;7.3682;
490.2000;0.3166;7.3635;
490.5000;0.3175;7.3682;
490.8000;0.3166;7.3729;
491.1000;0.3191;7.3753;
491.4000;0.3183;7.3776;
491.7000;0.3175;7.3823;
492.0000;0.3183;7.3964;
492.3000;0.3166;7.3894;
492.6000;0.3175;7.3823;
492.9000;0.3166;7.3800;
493.2000;0.3166;7.3776;
493.5000;0.3158;7.3800;
493.8000;0.3166;7.3753;
494.1000;0.3109;7.3612;
494.4000;0.3150;7.3612;
494.7000;0.3158;7.3659;
495.0000;0.3158;7.3635;
495.3000;0.3166;7.3659;
495.6000;0.3183;7.3635;
495.9000;0.3085;7.3259;
496.2000;0.3134;7.3518;
496.5000;0.3150;7.3541;
496.8000;0.3158;7.3635;
497.1000;0.3158;7.3729;
497.4000;0.3158;7.3729;
497.7000;0.3158;7.3659;
498.0000;0.3150;7.3729;
498.3000;0.3150;7.3706;
498.6000;0.3134;7.3635;
498.9000;0.3175;7.3612;
499.2000;0.3158;7.3612;
499.5000;0.3142;7.3659;
499.8000;0.3158;7.3635;
500.1000;0.3207;7.3823;
500.4000;0.3158;7.3729;
500.7000;0.3158;7.3729;
501.0000;0.3207;7.3776;
501.3000;0.3150;7.3635;
501.6000;0.3191;7.3729;
501.9000;0.3142;7.3776;
502.2000;0.3134;7.3729;
502.5000;0.3166;7.3729;
502.8000;0.3134;7.3659;
503.1000;0.3158;7.3682;
503.4000;0.3175;7.3659;
503.7000;0.3175;7.3588;
504.0000;0.3158;7.3518;
504.3000;0.3183;7.3612;
504.6000;0.3150;7.3612;
504.9000;0.3183;7.3729;
505.2000;0.3166;7.3706;
505.5000;0.3126;7.3612;
505.8000;0.3175;7.3706;
506.1000;0.3183;7.3729;
506.4000;0.3166;7.3706;
506.7000;0.3240;7.3870;
507.0000;0.3166;7.3588;
507.3000;0.3142;7.3565;
507.6000;0.3118;7.3588;
507.9000;0.3207;7.3800;
508.2000;0.3126;7.3588;
508.5000;0.3166;7.3706;
508.8000;0.3150;7.3706;
509.1000;0.3158;7.3706;
509.4000;0.3175;7.3753;
509.7000;0.3158;7.3635;
510.0000;0.3166;7.3612;
510.3000;0.3150;7.3612;
510.6000;0.3158;7.3729;
510.9000;0.3150;7.3706;
511.2000;0.3166;7.3776;
511.5000;0.3166;7.3823;
511.8000;0.3166;7.3776;
512.1000;0.3158;7.3753;
512.4000;0.3158;7.3800;
512.7000;0.3150;7.3800;
513.0000;0.3199;7.3729;
513.3000;0.3158;7.3682;
513.6000;0.3158;7.3659;
513.9000;0.3175;7.3612;
514.2000;0.3150;7.3541;
514.5000;0.3158;7.3541;
514.8000;0.3166;7.3447;
515.1000;0.3142;7.3447;
515.4000;0.3166;7.3400;
515.7000;0.3175;7.3353;
516.0000;0.3191;7.3329;
516.3000;0.3175;7.3400;
516.6000;0.3166;7.3400;
516.9000;0.3134;7.3329;
517.2000;0.3166;7.3494;
517.5000;0.3158;7.3565;
517.8000;0.3126;7.3635;
518.1000;0.3175;7.3682;
518.4000;0.3126;7.3494;
518.7000;0.3175;7.3588;
519.0000;0.3215;7.3659;
519.3000;0.3166;7.3541;
519.6000;0.3166;7.3588;
519.9000;0.3166;7.3541;
520.2000;0.3150;7.3541;
520.5000;0.3166;7.3541;
520.8000;0.3175;7.3565;
521.1000;0.3223;7.3682;
521.4000;0.3150;7.3588;
521.7000;0.3150;7.3635;
522.0000;0.3158;7.3588;
522.3000;0.3166;7.3635;
522.6000;0.3166;7.3565;
522.9000;0.3150;7.3541;
523.2000;0.3134;7.3541;
523.5000;0.3175;7.3565;
523.8000;0.3256;7.3823;
524.1000;0.3166;7.3635;
524.4000;0.3158;7.3541;
524.7000;0.3191;7.3706;
525.0000;0.3158;7.3729;
525.3000;0.3175;7.3588;
525.6000;0.3166;7.3612;
525.9000;0.3183;7.3659;
526.2000;0.3158;7.3682;
526.5000;0.3191;7.3800;
526.8000;0.3207;7.3917;
527.1000;0.3109;7.3588;
527.4000;0.3183;7.3753;
527.7000;0.3191;7.3776;
528.0000;0.3150;7.3776;
528.3000;0.3166;7.3729;
528.6000;0.3166;7.3729;
528.9000;0.3183;7.3800;
529.2000;0.3150;7.3729;
529.5000;0.3166;7.3659;
529.8000;0.3150;7.3729;
530.1000;0.3175;7.3729;
530.4000;0.3150;7.3800;
530.7000;0.3175;7.3729;
531.0000;0.3175;7.3706;
531.3000;0.3158;7.3682;
531.6000;0.3150;7.3612;
531.9000;0.3166;7.3494;
532.2000;0.3166;7.3400;
532.5000;0.3158;7.3424;
532.8000;0.3150;7.3541;
533.1000;0.3150;7.3682;
533.4000;0.3166;7.3753;
533.7000;0.3175;7.3753;
534.0000;0.3166;7.3753;
534.3000;0.3142;7.3706;
534.6000;0.3158;7.3776;
534.9000;0.3150;7.3776;
535.2000;0.3150;7.3753;
535.5000;0.3158;7.3753;
535.8000;0.3158;7.3847;
536.1000;0.3166;7.3917;
536.4000;0.3175;7.3800;
536.7000;0.3166;7.3729;
537.0000;0.3191;7.3753;
537.3000;0.3175;7.3706;
537.6000;0.3183;7.3729;
537.9000;0.3134;7.3635;
538.2000;0.3150;7.3800;
538.5000;0.3142;7.3706;
538.8000;0.3175;7.3776;
539.1000;0.3158;7.3659;
539.4000;0.3158;7.3706;
539.7000;0.3166;7.3659;
540.0000;0.3215;7.3729;
540.3000;0.3183;7.3635;
540.6000;0.3158;7.3659;
540.9000;0.3069;7.3471;
541.2000;0.3150;7.3729;
541.5000;0.3175;7.3800;
541.8000;0.3166;7.3729;
542.1000;0.3166;7.3729;
542.4000;0.3175;7.3776;
542.7000;0.3183;7.3870;
543.0000;0.3142;7.3682;
543.3000;0.3166;7.3659;
543.6000;0.3175;7.3659;
543.9000;0.3158;7.3659;
544.2000;0.3158;7.3565;
544.5000;0.3150;7.3541;
544.8000;0.3150;7.3588;
545.1000;0.3150;7.3635;
545.4000;0.3150;7.3612;
545.7000;0.3142;7.3659;
546.0000;0.3134;7.3612;
546.3000;0.3158;7.3753;
546.6000;0.3158;7.3823;
546.9000;0.3158;7.3729;
547.2000;0.3158;7.3706;
547.5000;0.3166;7.3753;
547.8000;0.3118;7.3588;
548.1000;0.3150;7.3635;
548.4000;0.3191;7.3635;
548.7000;0.3158;7.3588;
549.0000;0.3166;7.3635;
549.3000;0.3158;7.3612;
549.6000;0.3175;7.3753;
549.9000;0.3175;7.3823;
550.2000;0.3142;7.3800;
550.5000;0.3240;7.4011;
550.8000;0.3150;7.3753;
551.1000;0.3175;7.3729;
551.4000;0.3150;7.3659;
551.7000;0.3158;7.3659;
552.0000;0.3175;7.3659;
552.3000;0.3199;7.3682;
552.6000;0.3166;7.3706;
552.9000;0.3183;7.3800;
553.2000;0.3150;7.3659;
553.5000;0.3142;7.3706;
553.8000;0.3158;7.3753;
554.1000;0.3150;7.3870;
554.4000;0.3166;7.3823;
554.7000;0.3158;7.3800;
555.0000;0.3134;7.3682;
555.3000;0.3166;7.3706;
555.6000;0.3142;7.3635;
555.9000;0.3126;7.3541;
556.2000;0.3150;7.3565;
556.5000;0.3150;7.3659;
556.8000;0.3166;7.3682;
557.1000;0.3142;7.3706;
557.4000;0.3150;7.3706;
557.7000;0.3166;7.3753;
558.0000;0.3191;7.3776;
558.3000;0.3158;7.3706;
558.6000;0.3142;7.3612;
558.9000;0.3044;7.3400;
559.2000;0.3166;7.3682;
559.5000;0.3175;7.3682;
559.8000;0.3150;7.3565;
560.1000;0.3118;7.3518;
560.4000;0.3166;7.3612;
560.7000;0.3166;7.3588;
561.0000;0.3142;7.3659;
561.3000;0.3166;7.3588;
561.6000;0.3158;7.3682;
561.9000;0.3223;7.3753;
562.2000;0.3158;7.3612;
562.5000;0.3191;7.3612;
562.8000;0.3166;7.3588;
563.1000;0.3183;7.3682;
563.4000;0.3109;7.3635;
563.7000;0.3142;7.3729;
564.0000;0.3093;7.3612;
564.3000;0.3158;7.3800;
564.6000;0.3134;7.3682;
564.9000;0.3150;7.3729;
565.2000;0.3158;7.3800;
565.5000;0.3158;7.3776;
565.8000;0.3158;7.3729;
566.1000;0.3166;7.3776;
566.4000;0.3150;7.3847;
566.7000;0.3150;7.3894;
567.0000;0.3175;7.3941;
567.3000;0.3142;7.3847;
567.6000;0.3256;7.4082;
567.9000;0.3166;7.3800;
568.2000;0.3166;7.3776;
568.5000;0.3158;7.3729;
568.8000;0.3142;7.3706;
569.1000;0.3158;7.3800;
569.4000;0.3150;7.3823;
569.7000;0.3150;7.3894;
570.0000;0.3207;7.3988;
570.3000;0.3150;7.3941;
570.6000;0.3166;7.4011;
570.9000;0.3158;7.3941;
571.2000;0.3166;7.3870;
571.5000;0.3158;7.3870;
571.8000;0.3183;7.3941;
572.1000;0.3183;7.3870;
572.4000;0.3158;7.3776;
572.7000;0.3191;7.3823;
573.0000;0.3166;7.3823;
573.3000;0.3175;7.3847;
573.6000;0.3118;7.3800;
573.9000;0.3118;7.3729;
574.2000;0.3158;7.3894;
574.5000;0.3183;7.3917;
574.8000;0.3166;7.3847;
575.1000;0.3158;7.3635;
575.4000;0.3166;7.3659;
575.7000;0.3183;7.3635;
576.0000;0.3183;7.3588;
576.3000;0.3183;7.3635;
576.6000;0.3223;7.3823;
576.9000;0.3175;7.3729;
577.2000;0.3166;7.3753;
577.5000;0.3126;7.3706;
577.8000;0.3199;7.3964;
578.1000;0.3158;7.3870;
578.4000;0.3158;7.3941;
578.7000;0.3142;7.3823;
579.0000;0.3134;7.3753;
579.3000;0.3101;7.3565;
579.6000;0.3150;7.3823;
579.9000;0.3093;7.3682;
580.2000;0.3134;7.3776;
580.5000;0.3134;7.3682;
580.8000;0.3093;7.3635;
581.1000;0.3166;7.3776;
581.4000;0.3158;7.3823;
581.7000;0.3158;7.3870;
582.0000;0.3175;7.3847;
582.3000;0.3175;7.3800;
582.6000;0.3158;7.3823;
582.9000;0.3142;7.3776;
583.2000;0.3166;7.3753;
583.5000;0.3142;7.3776;
583.8000;0.3158;7.3706;
584.1000;0.3166;7.3729;
584.4000;0.3150;7.3682;
584.7000;0.3175;7.3776;
585.0000;0.3199;7.3823;
585.3000;0.3223;7.3753;
585.6000;0.3166;7.3588;
585.9000;0.3166;7.3565;
586.2000;0.3248;7.3800;
586.5000;0.3175;7.3518;
586.8000;0.3183;7.3612;
587.1000;0.3183;7.3588;
587.4000;0.3207;7.3682;
587.7000;0.3166;7.3635;
588.0000;0.3183;7.3659;
588.3000;0.3134;7.3635;
588.6000;0.3085;7.3541;
588.9000;0.3142;7.3682;
589.2000;0.3142;7.3776;
589.5000;0.3175;7.3847;
589.8000;0.3134;7.3894;
590.1000;0.3134;7.3917;
590.4000;0.3158;7.3894;
590.7000;0.3085;7.3729;
591.0000;0.3166;7.3823;
591.3000;0.3158;7.3729;
591.6000;0.3134;7.3659;
591.9000;0.3158;7.3612;
592.2000;0.3175;7.3565;
592.5000;0.3166;7.3565;
592.8000;0.3142;7.3612;
593.1000;0.3126;7.3682;
593.4000;0.3280;7.4153;
593.7000;0.3118;7.3870;
594.0000;0.3199;7.4011;
594.3000;0.3150;7.3894;
594.6000;0.3166;7.3894;
594.9000;0.3150;7.3800;
595.2000;0.3223;7.3941;
595.5000;0.3191;7.3823;
595.8000;0.3142;7.3776;
596.1000;0.3158;7.3800;
596.4000;0.3150;7.3823;
596.7000;0.3118;7.3753;
597.0000;0.3166;7.3870;
597.3000;0.3150;7.3776;
597.6000;0.3150;7.3753;
597.9000;0.3158;7.3753;
598.2000;0.3150;7.3753;
598.5000;0.3126;7.3612;
598.8000;0.3183;7.3682;
599.1000;0.3150;7.3729;
599.4000;0.3150;7.3706;
599.7000;0.3199;7.3776;
600.0000;0.3158;7.3659;
600.3000;0.3150;7.3753;
600.6000;0.3085;7.3518;
600.9000;0.3142;7.3494;
601.2000;0.3109;7.3329;
601.5000;0.3118;7.3329;
601.8000;0.3101;7.3235;
602.1000;0.3044;7.3047;
602.4000;0.3028;7.2906;
602.7000;0.2996;7.2789;
603.0000;0.2955;7.2553;
603.3000;0.2947;7.2459;
603.6000;0.2939;7.2389;
603.9000;0.2898;7.2318;
604.2000;0.2890;7.2248;
604.5000;0.2873;7.2154;
604.8000;0.2841;7.2177;
605.1000;0.2833;7.2271;
605.4000;0.2792;7.2107;
605.7000;0.2776;7.2059;
606.0000;0.2743;7.1965;
606.3000;0.2759;7.2012;
606.6000;0.2735;7.2012;
606.9000;0.2678;7.1754;
607.2000;0.2711;7.1777;
607.5000;0.2702;7.1707;
607.8000;0.2702;7.1636;
608.1000;0.2678;7.1566;
608.4000;0.2694;7.1636;
608.7000;0.2670;7.1589;
609.0000;0.2686;7.1683;
609.3000;0.2629;7.1613;
609.6000;0.2637;7.1566;
609.9000;0.2621;7.1589;
610.2000;0.2605;7.1495;
610.5000;0.2613;7.1424;
610.8000;0.2589;7.1354;
611.1000;0.2589;7.1283;
611.4000;0.2597;7.1330;
611.7000;0.2613;7.1401;
612.0000;0.2670;7.1495;
612.3000;0.2572;7.1236;
612.6000;0.2572;7.1354;
612.9000;0.2556;7.1401;
613.2000;0.2540;7.1377;
613.5000;0.2540;7.1213;
613.8000;0.2621;7.1424;
614.1000;0.2515;7.1095;
614.4000;0.2515;7.1142;
614.7000;0.2499;7.1142;
615.0000;0.2499;7.1072;
615.3000;0.2613;7.1283;
615.6000;0.2491;7.1048;
615.9000;0.2491;7.1213;
616.2000;0.2450;7.1142;
616.5000;0.2475;7.1166;
616.8000;0.2393;7.0931;
617.1000;0.2515;7.1236;
617.4000;0.2475;7.1025;
617.7000;0.2450;7.1001;
618.0000;0.2475;7.1095;
618.3000;0.2434;7.1025;
618.6000;0.2418;7.0978;
618.9000;0.2418;7.0978;
619.2000;0.2409;7.0931;
619.5000;0.2426;7.0978;
619.8000;0.2352;7.0813;
620.1000;0.2434;7.0978;
620.4000;0.2409;7.0860;
620.7000;0.2377;7.0789;
621.0000;0.2377;7.0954;
621.3000;0.2385;7.0978;
621.6000;0.2385;7.1025;
621.9000;0.2377;7.0907;
622.2000;0.2385;7.0884;
622.5000;0.2377;7.0837;
622.8000;0.2352;7.0742;
623.1000;0.2377;7.0837;
623.4000;0.2377;7.0907;
623.7000;0.2377;7.0931;
624.0000;0.2361;7.0860;
624.3000;0.2328;7.0789;
624.6000;0.2401;7.0931;
624.9000;0.2336;7.0719;
625.2000;0.2344;7.0695;
625.5000;0.2336;7.0719;
625.8000;0.2312;7.0672;
626.1000;0.2320;7.0719;
626.4000;0.2328;7.0789;
626.7000;0.2344;7.0766;
627.0000;0.2328;7.0695;
627.3000;0.2312;7.0719;
627.6000;0.2295;7.0719;
627.9000;0.2320;7.0766;
628.2000;0.2320;7.0742;
628.5000;0.2304;7.0789;
628.8000;0.2295;7.0742;
629.1000;0.2287;7.0672;
629.4000;0.2295;7.0648;
629.7000;0.2271;7.0531;
630.0000;0.2279;7.0554;
630.3000;0.2287;7.0554;
630.6000;0.2279;7.0554;
630.9000;0.2279;7.0578;
631.2000;0.2287;7.0648;
631.5000;0.2295;7.0695;
631.8000;0.2287;7.0766;
632.1000;0.2239;7.0672;
632.4000;0.2271;7.0789;
632.7000;0.2271;7.0813;
633.0000;0.2279;7.0719;
633.3000;0.2304;7.0789;
633.6000;0.2247;7.0625;
633.9000;0.2271;7.0672;
634.2000;0.2206;7.0601;
634.5000;0.2214;7.0578;
634.8000;0.2230;7.0578;
635.1000;0.2369;7.0789;
635.4000;0.2271;7.0601;
635.7000;0.2263;7.0460;
636.0000;0.2239;7.0390;
636.3000;0.2230;7.0484;
636.6000;0.2295;7.0766;
636.9000;0.2239;7.0695;
637.2000;0.2239;7.0719;
637.5000;0.2247;7.0837;
637.8000;0.2230;7.0789;
638.1000;0.2247;7.0789;
638.4000;0.2239;7.0719;
638.7000;0.2214;7.0742;
639.0000;0.2239;7.0695;
639.3000;0.2230;7.0695;
639.6000;0.2222;7.0742;
639.9000;0.2222;7.0789;
640.2000;0.2206;7.0719;
640.5000;0.2230;7.0813;
640.8000;0.2222;7.0789;
641.1000;0.2214;7.0813;
641.4000;0.2222;7.0860;
641.7000;0.2271;7.0931;
642.0000;0.2214;7.0813;
642.3000;0.2206;7.0766;
642.6000;0.2239;7.0860;
642.9000;0.2255;7.0907;
643.2000;0.2206;7.0789;
643.5000;0.2198;7.0648;
643.8000;0.2182;7.0672;
644.1000;0.2206;7.0719;
644.4000;0.2182;7.0672;
644.7000;0.2173;7.0719;
645.0000;0.2173;7.0672;
645.3000;0.2157;7.0672;
645.6000;0.2198;7.0672;
645.9000;0.2173;7.0625;
646.2000;0.2165;7.0648;
646.5000;0.2173;7.0719;
646.8000;0.2141;7.0695;
647.1000;0.2173;7.0766;
647.4000;0.2165;7.0813;
647.7000;0.2165;7.0766;
648.0000;0.2165;7.0789;
648.3000;0.2157;7.0860;
648.6000;0.2173;7.0789;
648.9000;0.2206;7.0860;
649.2000;0.2157;7.0766;
649.5000;0.2141;7.0789;
649.8000;0.2165;7.0931;
650.1000;0.2182;7.0860;
650.4000;0.2173;7.0860;
650.7000;0.2173;7.0766;
651.0000;0.2141;7.0672;
651.3000;0.2165;7.0766;
651.6000;0.2149;7.0813;
651.9000;0.2173;7.0837;
652.2000;0.2165;7.0860;
652.5000;0.2149;7.0931;
652.8000;0.2157;7.0884;
653.1000;0.2173;7.0978;
653.4000;0.2165;7.0954;
653.7000;0.2149;7.0860;
654.0000;0.2125;7.0813;
654.3000;0.2092;7.0719;
654.6000;0.2149;7.0860;
654.9000;0.2141;7.0766;
655.2000;0.2133;7.0695;
655.5000;0.2125;7.0648;
655.8000;0.2165;7.0672;
656.1000;0.2149;7.0648;
656.4000;0.2141;7.0648;
656.7000;0.2141;7.0601;
657.0000;0.2100;7.0484;
657.3000;0.2133;7.0578;
657.6000;0.2108;7.0625;
657.9000;0.2125;7.0625;
658.2000;0.2125;7.0625;
658.5000;0.2125;7.0578;
658.8000;0.2133;7.0578;
659.1000;0.2141;7.0648;
659.4000;0.2108;7.0648;
659.7000;0.2108;7.0625;
660.0000;0.2116;7.0625;
660.3000;0.2116;7.0554;
660.6000;0.2165;7.0742;
660.9000;0.2108;7.0695;
661.2000;0.2141;7.0719;
661.5000;0.2125;7.0578;
661.8000;0.2116;7.0625;
662.1000;0.2125;7.0648;
662.4000;0.2125;7.0625;
662.7000;0.2116;7.0695;
663.0000;0.2133;7.0813;
663.3000;0.2108;7.0695;
663.6000;0.2100;7.0601;
663.9000;0.2092;7.0484;
664.2000;0.2100;7.0531;
664.5000;0.2108;7.0437;
664.8000;0.2116;7.0531;
665.1000;0.2100;7.0578;
665.4000;0.2059;7.0531;
665.7000;0.2084;7.0578;
666.0000;0.2116;7.0648;
666.3000;0.2100;7.0648;
666.6000;0.2043;7.0601;
666.9000;0.2076;7.0601;
667.2000;0.2100;7.0695;
667.5000;0.2100;7.0766;
667.8000;0.2092;7.0719;
668.1000;0.2084;7.0766;
668.4000;0.2100;7.0837;
668.7000;0.2141;7.0954;
669.0000;0.2084;7.0837;
669.3000;0.2084;7.0860;
669.6000;0.2116;7.0884;
669.9000;0.2092;7.0813;
670.2000;0.2068;7.0789;
670.5000;0.2084;7.0860;
670.8000;0.2068;7.0766;
671.1000;0.2108;7.0813;
671.4000;0.2068;7.0695;
671.7000;0.2092;7.0719;
672.0000;0.2019;7.0507;
672.3000;0.2084;7.0601;
672.6000;0.2092;7.0719;
672.9000;0.2068;7.0648;
673.2000;0.2051;7.0601;
673.5000;0.2068;7.0601;
673.8000;0.2027;7.0366;
674.1000;0.2035;7.0390;
674.4000;0.2068;7.0413;
674.7000;0.2068;7.0460;
675.0000;0.2084;7.0437;
675.3000;0.2035;7.0413;
675.6000;0.2059;7.0578;
675.9000;0.2068;7.0648;
676.2000;0.2076;7.0672;
676.5000;0.2068;7.0625;
676.8000;0.2059;7.0601;
677.1000;0.2076;7.0648;
677.4000;0.2084;7.0625;
677.7000;0.2076;7.0625;
678.0000;0.2076;7.0601;
678.3000;0.2051;7.0554;
678.6000;0.2076;7.0578;
678.9000;0.2059;7.0554;
679.2000;0.2100;7.0601;
679.5000;0.2043;7.0460;
679.8000;0.2076;7.0507;
680.1000;0.2059;7.0484;
680.4000;0.2051;7.0460;
680.7000;0.2035;7.0437;
681.0000;0.2043;7.0484;
681.3000;0.2051;7.0437;
681.6000;0.2051;7.0460;
681.9000;0.2149;7.0695;
682.2000;0.2116;7.0578;
682.5000;0.2051;7.0460;
682.8000;0.2019;7.0390;
683.1000;0.2051;7.0390;
683.4000;0.2068;7.0390;
683.7000;0.2068;7.0460;
684.0000;0.2068;7.0531;
684.3000;0.2035;7.0460;
684.6000;0.2059;7.0601;
684.9000;0.2059;7.0672;
685.2000;0.2043;7.0601;
685.5000;0.2043;7.0648;
685.8000;0.2051;7.0719;
686.1000;0.2043;7.0672;
686.4000;0.2059;7.0648;
686.7000;0.2068;7.0742;
687.0000;0.2027;7.0695;
687.3000;0.2043;7.0742;
687.6000;0.2043;7.0766;
687.9000;0.2027;7.0695;
688.2000;0.2051;7.0695;
688.5000;0.2043;7.0648;
688.8000;0.2035;7.0601;
689.1000;0.2027;7.0625;
689.4000;0.2043;7.0648;
689.7000;0.2027;7.0601;
690.0000;0.2051;7.0625;
690.3000;0.2043;7.0578;
690.6000;0.2035;7.0601;
690.9000;0.2019;7.0578;
691.2000;0.2035;7.0625;
691.5000;0.2133;7.0907;
691.8000;0.2035;7.0554;
692.1000;0.2043;7.0578;
692.4000;0.2059;7.0578;
692.7000;0.1994;7.0437;
693.0000;0.2068;7.0625;
693.3000;0.2027;7.0625;
693.6000;0.2068;7.0742;
693.9000;0.2051;7.0695;
694.2000;0.2043;7.0789;
694.5000;0.2035;7.0719;
694.8000;0.2011;7.0719;
695.1000;0.2019;7.0742;
695.4000;0.2011;7.0719;
695.7000;0.2019;7.0789;
696.0000;0.1978;7.0719;
696.3000;0.2027;7.0860;
696.6000;0.2019;7.0837;
696.9000;0.2019;7.0766;
697.2000;0.2011;7.0789;
697.5000;0.2059;7.0884;
697.8000;0.2035;7.0907;
698.1000;0.2027;7.0978;
698.4000;0.2035;7.1095;
698.7000;0.2035;7.1095;
699.0000;0.2035;7.1095;
699.3000;0.2051;7.1048;
699.6000;0.2035;7.0978;
699.9000;0.2011;7.0954;
700.2000;0.2051;7.1025;
700.5000;0.2019;7.1001;
700.8000;0.2019;7.0907;
701.1000;0.2059;7.1025;
701.4000;0.2019;7.0978;
701.7000;0.2027;7.1025;
702.0000;0.2011;7.1025;
702.3000;0.2019;7.1142;
702.6000;0.2043;7.1166;
702.9000;0.2011;7.1095;
703.2000;0.1962;7.0931;
703.5000;0.2019;7.1025;
703.8000;0.2002;7.1072;
704.1000;0.2027;7.1072;
704.4000;0.2011;7.1095;
704.7000;0.1970;7.0884;
705.0000;0.1905;7.0719;
705.3000;0.2027;7.1095;
705.6000;0.2002;7.1072;
705.9000;0.1986;7.1095;
706.2000;0.2035;7.1260;
706.5000;0.2019;7.1283;
706.8000;0.1945;7.1095;
707.1000;0.2035;7.1236;
707.4000;0.2011;7.1142;
707.7000;0.1986;7.1142;
708.0000;0.2002;7.1095;
708.3000;0.2011;7.1119;
708.6000;0.1986;7.1025;
708.9000;0.2043;7.1260;
709.2000;0.1970;7.1142;
709.5000;0.2027;7.1236;
709.8000;0.1937;7.1072;
710.1000;0.2043;7.1401;
710.4000;0.2019;7.1330;
710.7000;0.2011;7.1307;
711.0000;0.2019;7.1236;
711.3000;0.2019;7.1307;
711.6000;0.2011;7.1283;
711.9000;0.2019;7.1354;
712.2000;0.1978;7.1236;
712.5000;0.2002;7.1189;
712.8000;0.2116;7.1519;
713.1000;0.2027;7.1307;
713.4000;0.2002;7.1283;
713.7000;0.1962;7.1189;
714.0000;0.2027;7.1307;
714.3000;0.1986;7.1307;
714.6000;0.2019;7.1377;
714.9000;0.1978;7.1307;
715.2000;0.1994;7.1448;
715.5000;0.1994;7.1401;
715.8000;0.2002;7.1354;
716.1000;0.2019;7.1377;
716.4000;0.2002;7.1354;
716.7000;0.1994;7.1377;
717.0000;0.2068;7.1448;
717.3000;0.1978;7.1213;
717.6000;0.1978;7.1166;
717.9000;0.2002;7.1095;
718.2000;0.2019;7.1095;
718.5000;0.2002;7.1048;
718.8000;0.2002;7.1048;
719.1000;0.2002;7.1025;
719.4000;0.2011;7.1142;
719.7000;0.1986;7.1142;
720.0000;0.1994;7.1119;
720.3000;0.1994;7.1142;
720.6000;0.2002;7.1189;
720.9000;0.1945;7.1119;
721.2000;0.1994;7.1213;
721.5000;0.1978;7.1189;
721.8000;0.2002;7.1260;
722.1000;0.1970;7.1119;
722.4000;0.2002;7.1095;
722.7000;0.1970;7.1048;
723.0000;0.2002;7.1119;
723.3000;0.1929;7.1025;
723.6000;0.1994;7.1189;
723.9000;0.1978;7.1260;
724.2000;0.1978;7.1213;
724.5000;0.2011;7.1189;
724.8000;0.1986;7.1119;
725.1000;0.2043;7.1260;
725.4000;0.1978;7.1095;
725.7000;0.1994;7.1166;
726.0000;0.1986;7.1189;
726.3000;0.1970;7.1119;
726.6000;0.1929;7.0931;
726.9000;0.1978;7.1048;
727.2000;0.2002;7.1025;
727.5000;0.1978;7.1072;
727.8000;0.1986;7.1119;
728.1000;0.1929;7.1072;
728.4000;0.2019;7.1330;
728.7000;0.1978;7.1236;
729.0000;0.1986;7.1189;
729.3000;0.1970;7.1119;
729.6000;0.2019;7.1213;
729.9000;0.1970;7.1095;
730.2000;0.1945;7.1001;
730.5000;0.1978;7.1048;
730.8000;0.2002;7.1095;
731.1000;0.1962;7.1072;
731.4000;0.1994;7.1189;
731.7000;0.1986;7.1213;
732.0000;0.1929;7.1001;
732.3000;0.1978;7.1166;
732.6000;0.1986;7.1119;
732.9000;0.2011;7.1236;
733.2000;0.1986;7.1189;
733.5000;0.2002;7.1283;
733.8000;0.2002;7.1283;
734.1000;0.1994;7.1283;
734.4000;0.1986;7.1330;
734.7000;0.1986;7.1354;
735.0000;0.2027;7.1424;
735.3000;0.1954;7.1307;
735.6000;0.1986;7.1354;
735.9000;0.1994;7.1401;
736.2000;0.2043;7.1495;
736.5000;0.1978;7.1330;
736.8000;0.1978;7.1330;
737.1000;0.2011;7.1354;
737.4000;0.1954;7.1142;
737.7000;0.1954;7.1260;
738.0000;0.1962;7.1354;
738.3000;0.1986;7.1354;
738.6000;0.1994;7.1330;
738.9000;0.2002;7.1307;
739.2000;0.1986;7.1236;
739.5000;0.1954;7.1119;
739.8000;0.1978;7.1236;
740.1000;0.1962;7.1213;
740.4000;0.1970;7.1236;
740.7000;0.1962;7.1260;
741.0000;0.1978;7.1330;
741.3000;0.1954;7.1260;
741.6000;0.1954;7.1236;
741.9000;0.1945;7.1260;
742.2000;0.1937;7.1260;
742.5000;0.1978;7.1330;
742.8000;0.1954;7.1330;
743.1000;0.1978;7.1213;
743.4000;0.1986;7.1283;
743.7000;0.1994;7.1354;
744.0000;0.2011;7.1424;
744.3000;0.1962;7.1377;
744.6000;0.1970;7.1377;
744.9000;0.1962;7.1307;
745.2000;0.2002;7.1495;
745.5000;0.1978;7.1401;
745.8000;0.2019;7.1448;
746.1000;0.1970;7.1283;
746.4000;0.1978;7.1448;
746.7000;0.1970;7.1519;
747.0000;0.2076;7.1730;
747.3000;0.1986;7.1519;
747.6000;0.1978;7.1472;
747.9000;0.1994;7.1424;
748.2000;0.2011;7.1566;
748.5000;0.1994;7.1495;
748.8000;0.1970;7.1472;
749.1000;0.1986;7.1472;
749.4000;0.1978;7.1354;
749.7000;0.1978;7.1236;
750.0000;0.1986;7.1213;
750.3000;0.2002;7.1213;
750.6000;0.1962;7.1166;
750.9000;0.1978;7.1283;
751.2000;0.2002;7.1377;
751.5000;0.1954;7.1307;
751.8000;0.1954;7.1260;
752.1000;0.1986;7.1283;
752.4000;0.1954;7.1260;
752.7000;0.1962;7.1213;
753.0000;0.1970;7.1260;
753.3000;0.1962;7.1330;
753.6000;0.1978;7.1330;
753.9000;0.1962;7.1166;
754.2000;0.1994;7.1166;
754.5000;0.1962;7.1142;
754.8000;0.1962;7.1072;
755.1000;0.1945;7.1119;
755.4000;0.1929;7.1072;
755.7000;0.1970;7.1189;
756.0000;0.1978;7.1307;
756.3000;0.1970;7.1236;
756.6000;0.1929;7.1095;
756.9000;0.1954;7.1142;
757.2000;0.1962;7.1236;
757.5000;0.1970;7.1260;
757.8000;0.1937;7.1189;
758.1000;0.1962;7.1166;
758.4000;0.1970;7.1095;
758.7000;0.1962;7.0978;
759.0000;0.1954;7.1048;
759.3000;0.1945;7.1001;
759.6000;0.1954;7.1072;
759.9000;0.1970;7.1095;
760.2000;0.1962;7.1095;
760.5000;0.1954;7.1142;
760.8000;0.1954;7.1166;
761.1000;0.1945;7.1189;
761.4000;0.1954;7.1260;
761.7000;0.1962;7.1283;
762.0000;0.1945;7.1213;
762.3000;0.1897;7.1095;
762.6000;0.2027;7.1377;
762.9000;0.1954;7.1189;
763.2000;0.1929;7.1166;
763.5000;0.1954;7.1307;
763.8000;0.1945;7.1330;
764.1000;0.1945;7.1260;
764.4000;0.1962;7.1283;
764.7000;0.1937;7.1307;
765.0000;0.1962;7.1307;
765.3000;0.1970;7.1330;
765.6000;0.1954;7.1236;
765.9000;0.1937;7.1330;
766.2000;0.1945;7.1260;
766.5000;0.1994;7.1354;
766.8000;0.1970;7.1260;
767.1000;0.1978;7.1283;
767.4000;0.1954;7.1283;
767.7000;0.1945;7.1307;
768.0000;0.1880;7.1236;
768.3000;0.1954;7.1401;
768.6000;0.1986;7.1377;
768.9000;0.1962;7.1330;
769.2000;0.1994;7.1448;
769.5000;0.1954;7.1354;
769.8000;0.1962;7.1377;
770.1000;0.1970;7.1401;
770.4000;0.1970;7.1354;
770.7000;0.1954;7.1330;
771.0000;0.1945;7.1260;
771.3000;0.1962;7.1260;
771.6000;0.1945;7.1166;
771.9000;0.1994;7.1236;
772.2000;0.1954;7.1142;
772.5000;0.1962;7.1236;
772.8000;0.1962;7.1307;
773.1000;0.1945;7.1236;
773.4000;0.1905;7.1048;
773.7000;0.1929;7.1213;
774.0000;0.1962;7.1401;
774.3000;0.1962;7.1424;
774.6000;0.1970;7.1448;
774.9000;0.1962;7.1354;
775.2000;0.1962;7.1401;
775.5000;0.1970;7.1472;
775.8000;0.1978;7.1495;
776.1000;0.2002;7.1448;
776.4000;0.1970;7.1424;
776.7000;0.1945;7.1354;
777.0000;0.1954;7.1354;
777.3000;0.1994;7.1448;
777.6000;0.1962;7.1377;
777.9000;0.1954;7.1377;
778.2000;0.1954;7.1495;
778.5000;0.1945;7.1472;
778.8000;0.1954;7.1424;
779.1000;0.1945;7.1354;
779.4000;0.1945;7.1330;
779.7000;0.1962;7.1307;
780.0000;0.1970;7.1307;
780.3000;0.1929;7.1213;
780.6000;0.1962;7.1307;
780.9000;0.1937;7.1260;
781.2000;0.1954;7.1213;
781.5000;0.1954;7.1189;
781.8000;0.1913;7.1001;
782.1000;0.1937;7.1072;
782.4000;0.1962;7.1213;
782.7000;0.1945;7.1213;
783.0000;0.1954;7.1166;
783.3000;0.1945;7.1001;
783.6000;0.1970;7.1001;
783.9000;0.1954;7.1001;
784.2000;0.1986;7.1166;
784.5000;0.2019;7.1330;
784.8000;0.1978;7.1236;
785.1000;0.1945;7.1166;
785.4000;0.1929;7.1166;
785.7000;0.1937;7.1307;
786.0000;0.1921;7.1307;
786.3000;0.1945;7.1401;
786.6000;0.1970;7.1424;
786.9000;0.1954;7.1424;
787.2000;0.1937;7.1424;
787.5000;0.1848;7.1236;
787.8000;0.2002;7.1542;
788.1000;0.1962;7.1519;
788.4000;0.1978;7.1519;
788.7000;0.1986;7.1472;
789.0000;0.1954;7.1424;
789.3000;0.1978;7.1519;
789.6000;0.1954;7.1566;
789.9000;0.1880;7.1448;
790.2000;0.1945;7.1566;
790.5000;0.1888;7.1401;
790.8000;0.1954;7.1495;
791.1000;0.1929;7.1401;
791.4000;0.1945;7.1472;
791.7000;0.1929;7.1472;
792.0000;0.1945;7.1401;
792.3000;0.1929;7.1354;
792.6000;0.1929;7.1519;
792.9000;0.1945;7.1542;
793.2000;0.1937;7.1542;
793.5000;0.1945;7.1472;
793.8000;0.1929;7.1495;
794.1000;0.1962;7.1519;
794.4000;0.1848;7.1213;
794.7000;0.1937;7.1495;
795.0000;0.1921;7.1519;
795.3000;0.1945;7.1495;
795.6000;0.1937;7.1448;
795.9000;0.1929;7.1354;
796.2000;0.1921;7.1307;
796.5000;0.1856;7.1189;
796.8000;0.1929;7.1283;
797.1000;0.1986;7.1401;
797.4000;0.1937;7.1330;
797.7000;0.1945;7.1377;
798.0000;0.1937;7.1354;
798.3000;0.1954;7.1354;
798.6000;0.1937;7.1330;
798.9000;0.1945;7.1377;
799.2000;0.1954;7.1519;
799.5000;0.1937;7.1495;
799.8000;0.1945;7.1519;
800.1000;0.1954;7.1566;
800.4000;0.1929;7.1519;
800.7000;0.1945;7.1566;
801.0000;0.1913;7.1495;
801.3000;0.1913;7.1448;
801.6000;0.1929;7.1542;
801.9000;0.1905;7.1448;
802.2000;0.1921;7.1330;
802.5000;0.1970;7.1448;
802.8000;0.1929;7.1401;
803.1000;0.1897;7.1307;
803.4000;0.1954;7.1401;
803.7000;0.1921;7.1307;
804.0000;0.1888;7.1213;
804.3000;0.1945;7.1354;
804.6000;0.1962;7.1495;
804.9000;0.1945;7.1519;
805.2000;0.1840;7.1236;
805.5000;0.1945;7.1424;
805.8000;0.1921;7.1354;
806.1000;0.2011;7.1589;
806.4000;0.1913;7.1424;
806.7000;0.1937;7.1448;
807.0000;0.1962;7.1589;
807.3000;0.1929;7.1472;
807.6000;0.1913;7.1330;
807.9000;0.1954;7.1401;
808.2000;0.1921;7.1283;
808.5000;0.1978;7.1401;
808.8000;0.1937;7.1307;
809.1000;0.1962;7.1330;
809.4000;0.1937;7.1330;
809.7000;0.1937;7.1307;
810.0000;0.1954;7.1307;
810.3000;0.1945;7.1189;
810.6000;0.1937;7.1166;
810.9000;0.1945;7.1166;
811.2000;0.1937;7.1095;
811.5000;0.1986;7.1260;
811.8000;0.1921;7.1260;
812.1000;0.1929;7.1283;
812.4000;0.1929;7.1377;
812.7000;0.1929;7.1354;
813.0000;0.1872;7.1213;
813.3000;0.1929;7.1377;
813.6000;0.1921;7.1354;
813.9000;0.1945;7.1472;
814.2000;0.1937;7.1424;
814.5000;0.1937;7.1424;
814.8000;0.1945;7.1377;
815.1000;0.1937;7.1330;
815.4000;0.1913;7.1166;
815.7000;0.1954;7.1236;
816.0000;0.1962;7.1260;
816.3000;0.1921;7.1213;
816.6000;0.1913;7.1283;
816.9000;0.1937;7.1283;
817.2000;0.1945;7.1260;
817.5000;0.1994;7.1354;
817.8000;0.1954;7.1377;
818.1000;0.1921;7.1260;
818.4000;0.1921;7.1330;
818.7000;0.1937;7.1260;
819.0000;0.1937;7.1189;
819.3000;0.1945;7.1213;
819.6000;0.1888;7.1095;
819.9000;0.1905;7.1119;
820.2000;0.1921;7.1166;
820.5000;0.1913;7.1260;
820.8000;0.1921;7.1354;
821.1000;0.2027;7.1566;
821.4000;0.1937;7.1307;
821.7000;0.1929;7.1377;
822.0000;0.1921;7.1401;
822.3000;0.1986;7.1613;
822.6000;0.1921;7.1542;
822.9000;0.1929;7.1519;
823.2000;0.1929;7.1472;
823.5000;0.1945;7.1472;
823.8000;0.1994;7.1589;
824.1000;0.1954;7.1519;
824.4000;0.1945;7.1542;
824.7000;0.1978;7.1589;
825.0000;0.1929;7.1495;
825.3000;0.1913;7.1472;
825.6000;0.1913;7.1566;
825.9000;0.1921;7.1613;
826.2000;0.1937;7.1683;
826.5000;0.1929;7.1613;
826.8000;0.1929;7.1472;
827.1000;0.1945;7.1519;
827.4000;0.1905;7.1448;
827.7000;0.1880;7.1424;
828.0000;0.1937;7.1589;
828.3000;0.1954;7.1566;
828.6000;0.1937;7.1589;
828.9000;0.1929;7.1589;
829.2000;0.1880;7.1424;
829.5000;0.1945;7.1589;
829.8000;0.1945;7.1636;
830.1000;0.1970;7.1589;
830.4000;0.1929;7.1542;
830.7000;0.1937;7.1566;
831.0000;0.1937;7.1589;
831.3000;0.1937;7.1589;
831.6000;0.1937;7.1566;
831.9000;0.1929;7.1542;
832.2000;0.1929;7.1683;
832.5000;0.1945;7.1636;
832.8000;0.1937;7.1613;
833.1000;0.1921;7.1448;
833.4000;0.1937;7.1495;
833.7000;0.1921;7.1472;
834.0000;0.1921;7.1495;
834.3000;0.1913;7.1542;
834.6000;0.1929;7.1542;
834.9000;0.1913;7.1519;
835.2000;0.1945;7.1472;
835.5000;0.1986;7.1589;
835.8000;0.1929;7.1519;
836.1000;0.1921;7.1542;
836.4000;0.1954;7.1660;
836.7000;0.1937;7.1566;
837.0000;0.1945;7.1566;
837.3000;0.1929;7.1495;
837.6000;0.1954;7.1566;
837.9000;0.1937;7.1542;
838.2000;0.1913;7.1472;
838.5000;0.1913;7.1542;
838.8000;0.1913;7.1448;
839.1000;0.1937;7.1613;
839.4000;0.1945;7.1636;
839.7000;0.1945;7.1542;
840.0000;0.1945;7.1542;
840.3000;0.1897;7.1472;
840.6000;0.1864;7.1472;
840.9000;0.1880;7.1589;
841.2000;0.1929;7.1660;
841.5000;0.1905;7.1589;
841.8000;0.1937;7.1683;
842.1000;0.1905;7.1613;
842.4000;0.1905;7.1636;
842.7000;0.1921;7.1683;
843.0000;0.1937;7.1824;
843.3000;0.1945;7.1777;
843.6000;0.1856;7.1401;
843.9000;0.1888;7.1495;
844.2000;0.1897;7.1448;
844.5000;0.1864;7.1377;
844.8000;0.1937;7.1519;
845.1000;0.1929;7.1566;
845.4000;0.1921;7.1519;
845.7000;0.1905;7.1448;
846.0000;0.1978;7.1636;
846.3000;0.1921;7.1424;
846.6000;0.1905;7.1377;
846.9000;0.1945;7.1472;
847.2000;0.1856;7.1401;
847.5000;0.2019;7.1824;
847.8000;0.1913;7.1636;
848.1000;0.1937;7.1636;
848.4000;0.1913;7.1495;
848.7000;0.1897;7.1401;
849.0000;0.1937;7.1519;
849.3000;0.1937;7.1519;
849.6000;0.1929;7.1589;
849.9000;0.1954;7.1683;
850.2000;0.1937;7.1707;
850.5000;0.1929;7.1730;
850.8000;0.1978;7.1824;
851.1000;0.1945;7.1660;
851.4000;0.1945;7.1566;
851.7000;0.1913;7.1472;
852.0000;0.1913;7.1542;
852.3000;0.1929;7.1636;
852.6000;0.1937;7.1660;
852.9000;0.1962;7.1801;
853.2000;0.1937;7.1707;
853.5000;0.1872;7.1566;
853.8000;0.1937;7.1707;
854.1000;0.1945;7.1801;
854.4000;0.1945;7.1730;
854.7000;0.1994;7.1848;
855.0000;0.1937;7.1683;
855.3000;0.1945;7.1660;
855.6000;0.1913;7.1495;
855.9000;0.1929;7.1589;
856.2000;0.1929;7.1613;
856.5000;0.1937;7.1683;
856.8000;0.1921;7.1613;
857.1000;0.1913;7.1730;
857.4000;0.1921;7.1777;
857.7000;0.1913;7.1801;
858.0000;0.1929;7.1801;
858.3000;0.1945;7.1871;
858.6000;0.1929;7.1730;
858.9000;0.1937;7.1754;
859.2000;0.1921;7.1754;
859.5000;0.1913;7.1660;
859.8000;0.1913;7.1542;
860.1000;0.1913;7.1495;
860.4000;0.1937;7.1472;
860.7000;0.1937;7.1542;
861.0000;0.1945;7.1660;
861.3000;0.1897;7.1613;
861.6000;0.1954;7.1730;
861.9000;0.1945;7.1707;
862.2000;0.1929;7.1613;
862.5000;0.1962;7.1777;
862.8000;0.1905;7.1730;
863.1000;0.1929;7.1730;
863.4000;0.1954;7.1754;
863.7000;0.1937;7.1660;
864.0000;0.1937;7.1589;
864.3000;0.1913;7.1589;
864.6000;0.1921;7.1636;
864.9000;0.1880;7.1589;
865.2000;0.1954;7.1707;
865.5000;0.1954;7.1660;
865.8000;0.1937;7.1707;
866.1000;0.1962;7.1848;
866.4000;0.1921;7.1801;
866.7000;0.1929;7.1895;
867.0000;0.1905;7.1871;
867.3000;0.1921;7.1918;
867.6000;0.1897;7.1848;
867.9000;0.1945;7.1918;
868.2000;0.1945;7.1895;
868.5000;0.1888;7.1777;
868.8000;0.1945;7.1848;
869.1000;0.1905;7.1801;
869.4000;0.1945;7.1918;
869.7000;0.1929;7.1871;
870.0000;0.1913;7.1848;
870.3000;0.1921;7.1824;
870.6000;0.1937;7.1871;
870.9000;0.1921;7.1801;
871.2000;0.1929;7.1871;
871.5000;0.1913;7.1707;
871.8000;0.1848;7.1613;
872.1000;0.1937;7.1965;
872.4000;0.1921;7.1871;
872.7000;0.1937;7.1895;
873.0000;0.1937;7.1895;
873.3000;0.1832;7.1566;
873.6000;0.1937;7.1707;
873.9000;0.1872;7.1519;
874.2000;0.1921;7.1754;
874.5000;0.1929;7.1848;
874.8000;0.1913;7.1801;
875.1000;0.1921;7.1777;
875.4000;0.1921;7.1777;
875.7000;0.1994;7.1918;
876.0000;0.1945;7.1707;
876.3000;0.1864;7.1401;
876.6000;0.1897;7.1519;
876.9000;0.1888;7.1401;
877.2000;0.1905;7.1377;
877.5000;0.1897;7.1472;
877.8000;0.1921;7.1660;
878.1000;0.1913;7.1683;
878.4000;0.1921;7.1707;
878.7000;0.1888;7.1777;
879.0000;0.1921;7.1965;
879.3000;0.1937;7.1989;
879.6000;0.1937;7.1989;
879.9000;0.1913;7.1918;
880.2000;0.1929;7.1942;
880.5000;0.1937;7.1918;
880.8000;0.1929;7.1895;
881.1000;0.1921;7.1801;
881.4000;0.1945;7.1801;
881.7000;0.1921;7.1754;
882.0000;0.1929;7.1754;
882.3000;0.1937;7.1707;
882.6000;0.1913;7.1613;
882.9000;0.1929;7.1589;
883.2000;0.1905;7.1542;
883.5000;0.1929;7.1566;
883.8000;0.1929;7.1566;
884.1000;0.1921;7.1589;
884.4000;0.1856;7.1424;
884.7000;0.1945;7.1660;
885.0000;0.1937;7.1566;
885.3000;0.1864;7.1472;
885.6000;0.1929;7.1613;
885.9000;0.1945;7.1636;
886.2000;0.1954;7.1660;
886.5000;0.1921;7.1660;
886.8000;0.1921;7.1636;
887.1000;0.1929;7.1613;
887.4000;0.1921;7.1566;
887.7000;0.1905;7.1519;
888.0000;0.1921;7.1636;
888.3000;0.1880;7.1589;
888.6000;0.1913;7.1660;
888.9000;0.1921;7.1613;
889.2000;0.1921;7.1589;
889.5000;0.1921;7.1613;
889.8000;0.1929;7.1613;
890.1000;0.1921;7.1542;
890.4000;0.1945;7.1566;
890.7000;0.2027;7.1848;
891.0000;0.1897;7.1519;
891.3000;0.1921;7.1613;
891.6000;0.1905;7.1472;
891.9000;0.1913;7.1519;
892.2000;0.1929;7.1542;
892.5000;0.1929;7.1448;
892.8000;0.1897;7.1401;
893.1000;0.1929;7.1495;
893.4000;0.1929;7.1424;
893.7000;0.1929;7.1377;
894.0000;0.1913;7.1377;
894.3000;0.1937;7.1495;
894.6000;0.1962;7.1542;
894.9000;0.1945;7.1472;
895.2000;0.1937;7.1495;
895.5000;0.1921;7.1472;
895.8000;0.1929;7.1472;
896.1000;0.1937;7.1448;
896.4000;0.1888;7.1330;
896.7000;0.1921;7.1330;
897.0000;0.1921;7.1401;
897.3000;0.1913;7.1424;
897.6000;0.1913;7.1377;
897.9000;0.1897;7.1307;
898.2000;0.1929;7.1472;
898.5000;0.1913;7.1566;
898.8000;0.1913;7.1519;
899.1000;0.1905;7.1613;
899.4000;0.1888;7.1707;
899.7000;0.1913;7.1754;
900.0000;0.1905;7.1777;
900.3000;0.1921;7.1707;
900.6000;0.1913;7.1660;
900.9000;0.1905;7.1683;
901.2000;0.1905;7.1707;
901.5000;0.1921;7.1777;
901.8000;0.1913;7.1636;
902.1000;0.1897;7.1519;
902.4000;0.1921;7.1636;
902.7000;0.2002;7.1848;
903.0000;0.1929;7.1636;
903.3000;0.1905;7.1589;
903.6000;0.1913;7.1636;
903.9000;0.1954;7.1660;
904.2000;0.1921;7.1566;
904.5000;0.1929;7.1613;
904.8000;0.1945;7.1613;
905.1000;0.1921;7.1542;
905.4000;0.1937;7.1542;
905.7000;0.1913;7.1495;
906.0000;0.1937;7.1730;
906.3000;0.1937;7.1683;
906.6000;0.1921;7.1613;
906.9000;0.1905;7.1519;
907.2000;0.1913;7.1566;
907.5000;0.1897;7.1589;
907.8000;0.1913;7.1566;
908.1000;0.1913;7.1542;
908.4000;0.1897;7.1472;
908.7000;0.1937;7.1636;
909.0000;0.1937;7.1613;
909.3000;0.1929;7.1636;
909.6000;0.1921;7.1636;
909.9000;0.1937;7.1660;
910.2000;0.1937;7.1589;
910.5000;0.1913;7.1613;
910.8000;0.1929;7.1660;
911.1000;0.1929;7.1636;
911.4000;0.1913;7.1589;
911.7000;0.1897;7.1542;
912.0000;0.1921;7.1613;
912.3000;0.1888;7.1495;
912.6000;0.1888;7.1589;
912.9000;0.1897;7.1613;
913.2000;0.1872;7.1566;
913.5000;0.1929;7.1683;
913.8000;0.1921;7.1707;
914.1000;0.1913;7.1754;
914.4000;0.1905;7.1777;
914.7000;0.1905;7.1683;
915.0000;0.1905;7.1683;
915.3000;0.1913;7.1707;
915.6000;0.1954;7.1848;
915.9000;0.1905;7.1754;
916.2000;0.1913;7.1754;
916.5000;0.1905;7.1777;
916.8000;0.1913;7.1730;
917.1000;0.1921;7.1754;
917.4000;0.1921;7.1660;
917.7000;0.1929;7.1660;
918.0000;0.1921;7.1683;
918.3000;0.1888;7.1613;
918.6000;0.1937;7.1636;
918.9000;0.1905;7.1472;
919.2000;0.1921;7.1589;
919.5000;0.1929;7.1566;
919.8000;0.1905;7.1472;
920.1000;0.1921;7.1707;
920.4000;0.1913;7.1683;
920.7000;0.1937;7.1707;
921.0000;0.1913;7.1707;
921.3000;0.1929;7.1707;
921.6000;0.1929;7.1683;
921.9000;0.1905;7.1660;
922.2000;0.1929;7.1683;
922.5000;0.1921;7.1660;
922.8000;0.2011;7.1965;
923.1000;0.1905;7.1754;
923.4000;0.1921;7.1730;
923.7000;0.1880;7.1707;
924.0000;0.1897;7.1566;
924.3000;0.1905;7.1519;
924.6000;0.1913;7.1542;
924.9000;0.1905;7.1424;
925.2000;0.1905;7.1519;
925.5000;0.1945;7.1730;
925.8000;0.1872;7.1636;
926.1000;0.1913;7.1777;
926.4000;0.1888;7.1754;
926.7000;0.1937;7.1824;
927.0000;0.1905;7.1683;
927.3000;0.1913;7.1683;
927.6000;0.1905;7.1636;
927.9000;0.1937;7.1683;
928.2000;0.1945;7.1777;
928.5000;0.1921;7.1683;
928.8000;0.1929;7.1730;
929.1000;0.1962;7.1777;
929.4000;0.1905;7.1542;
929.7000;0.1913;7.1448;
930.0000;0.1929;7.1472;
930.3000;0.1929;7.1448;
930.6000;0.1978;7.1542;
930.9000;0.1921;7.1472;
931.2000;0.1937;7.1542;
931.5000;0.1897;7.1542;
931.8000;0.1937;7.1683;
932.1000;0.1905;7.1683;
932.4000;0.1937;7.1660;
932.7000;0.1921;7.1730;
933.0000;0.1929;7.1777;
933.3000;0.1929;7.1848;
933.6000;0.1945;7.1871;
933.9000;0.1954;7.1824;
934.2000;0.1913;7.1754;
934.5000;0.1978;7.1848;
934.8000;0.1905;7.1683;
935.1000;0.1921;7.1660;
935.4000;0.1937;7.1824;
935.7000;0.1929;7.1777;
936.0000;0.1848;7.1472;
936.3000;0.1905;7.1636;
936.6000;0.1897;7.1636;
936.9000;0.1913;7.1707;
937.2000;0.1986;7.1824;
937.5000;0.1962;7.1777;
937.8000;0.1921;7.1683;
938.1000;0.1937;7.1730;
938.4000;0.1905;7.1683;
938.7000;0.1913;7.1660;
939.0000;0.1921;7.1730;
939.3000;0.1945;7.1777;
939.6000;0.2011;7.1895;
939.9000;0.1929;7.1754;
940.2000;0.2027;7.1942;
940.5000;0.1905;7.1636;
940.8000;0.1954;7.1730;
941.1000;0.1994;7.1801;
941.4000;0.1897;7.1566;
941.7000;0.1872;7.1566;
942.0000;0.1921;7.1660;
942.3000;0.1913;7.1683;
942.6000;0.1913;7.1589;
942.9000;0.1905;7.1542;
943.2000;0.1921;7.1542;
943.5000;0.1913;7.1495;
943.8000;0.1954;7.1566;
944.1000;0.1937;7.1542;
944.4000;0.1921;7.1660;
944.7000;0.1905;7.1660;
945.0000;0.1913;7.1707;
945.3000;0.1905;7.1683;
945.6000;0.1929;7.1754;
945.9000;0.1986;7.1777;
946.2000;0.1913;7.1589;
946.5000;0.1888;7.1495;
946.8000;0.1921;7.1636;
947.1000;0.1913;7.1660;
947.4000;0.1856;7.1566;
947.7000;0.1888;7.1636;
948.0000;0.1921;7.1777;
948.3000;0.1929;7.1754;
948.6000;0.1921;7.1542;
948.9000;0.1929;7.1613;
949.2000;0.1913;7.1660;
949.5000;0.1921;7.1613;
949.8000;0.1905;7.1589;
950.1000;0.1921;7.1636;
950.4000;0.1921;7.1589;
950.7000;0.1921;7.1589;
951.0000;0.1913;7.1683;
951.3000;0.1905;7.1754;
951.6000;0.1905;7.1683;
951.9000;0.1913;7.1707;
952.2000;0.1888;7.1754;
952.5000;0.1897;7.1777;
952.8000;0.1921;7.1754;
953.1000;0.1921;7.1777;
953.4000;0.1929;7.1683;
953.7000;0.1913;7.1589;
954.0000;0.1905;7.1519;
954.3000;0.1913;7.1519;
954.6000;0.1921;7.1472;
954.9000;0.1913;7.1472;
955.2000;0.1799;7.1236;
955.5000;0.1888;7.1495;
955.8000;0.1945;7.1566;
956.1000;0.1921;7.1636;
956.4000;0.1905;7.1542;
956.7000;0.1937;7.1589;
957.0000;0.1929;7.1519;
957.3000;0.1913;7.1495;
957.6000;0.1929;7.1660;
957.9000;0.1905;7.1542;
958.2000;0.1937;7.1519;
958.5000;0.1929;7.1613;
958.8000;0.1913;7.1613;
959.1000;0.1921;7.1683;
959.4000;0.1970;7.1824;
959.7000;0.1945;7.1754;
960.0000;0.1872;7.1566;
960.3000;0.1913;7.1707;
960.6000;0.1970;7.1777;
960.9000;0.1888;7.1542;
961.2000;0.1913;7.1636;
961.5000;0.1888;7.1566;
961.8000;0.1913;7.1707;
962.1000;0.1905;7.1660;
962.4000;0.1913;7.1683;
962.7000;0.1880;7.1566;
963.0000;0.1888;7.1542;
963.3000;0.1929;7.1566;
963.6000;0.1913;7.1636;
963.9000;0.1929;7.1660;
964.2000;0.1929;7.1660;
964.5000;0.1897;7.1683;
964.8000;0.1897;7.1730;
965.1000;0.1913;7.1707;
965.4000;0.1913;7.1730;
965.7000;0.1872;7.1589;
966.0000;0.1888;7.1566;
966.3000;0.1888;7.1519;
966.6000;0.1913;7.1519;
966.9000;0.1905;7.1519;
967.2000;0.1921;7.1589;
967.5000;0.1921;7.1707;
967.8000;0.1921;7.1707;
968.1000;0.1897;7.1542;
968.4000;0.1913;7.1636;
968.7000;0.1929;7.1660;
969.0000;0.1929;7.1613;
969.3000;0.1921;7.1519;
969.6000;0.1921;7.1589;
969.9000;0.1921;7.1495;
970.2000;0.1929;7.1519;
970.5000;0.1921;7.1589;
970.8000;0.1872;7.1495;
971.1000;0.1905;7.1589;
971.4000;0.1913;7.1613;
971.7000;0.1905;7.1660;
972.0000;0.1880;7.1542;
972.3000;0.1913;7.1636;
972.6000;0.1905;7.1660;
972.9000;0.1872;7.1589;
973.2000;0.1888;7.1613;
973.5000;0.1921;7.1777;
973.8000;0.1929;7.1777;
974.1000;0.1929;7.1660;
974.4000;0.1929;7.1542;
974.7000;0.1937;7.1613;
975.0000;0.1897;7.1589;
975.3000;0.1937;7.1730;
975.6000;0.1970;7.1848;
975.9000;0.1897;7.1730;
976.2000;0.1888;7.1707;
976.5000;0.1921;7.1730;
976.8000;0.1921;7.1777;
977.1000;0.1913;7.1754;
977.4000;0.1913;7.1730;
977.7000;0.1937;7.1777;
978.0000;0.1921;7.1683;
978.3000;0.1913;7.1660;
978.6000;0.1937;7.1754;
978.9000;0.1880;7.1566;
979.2000;0.1921;7.1707;
979.5000;0.1921;7.1636;
979.8000;0.1921;7.1636;
980.1000;0.1954;7.1730;
980.4000;0.1921;7.1707;
980.7000;0.1921;7.1754;
981.0000;0.1872;7.1754;
981.3000;0.1929;7.1801;
981.6000;0.1921;7.1754;
981.9000;0.1937;7.1801;
982.2000;0.1937;7.1730;
982.5000;0.1929;7.1730;
982.8000;0.1929;7.1683;
983.1000;0.1937;7.1707;
983.4000;0.1921;7.1636;
983.7000;0.1921;7.1660;
984.0000;0.1929;7.1707;
984.3000;0.1840;7.1472;
984.6000;0.1913;7.1589;
984.9000;0.1954;7.1683;
985.2000;0.1929;7.1660;
985.5000;0.1929;7.1683;
985.8000;0.1921;7.1730;
986.1000;0.1921;7.1871;
986.4000;0.1905;7.1848;
986.7000;0.1905;7.1777;
987.0000;0.1921;7.1730;
987.3000;0.1937;7.1730;
987.6000;0.1905;7.1707;
987.9000;0.1945;7.1777;
988.2000;0.1905;7.1707;
988.5000;0.1905;7.1754;
988.8000;0.1905;7.1777;
989.1000;0.1929;7.1918;
989.4000;0.1929;7.1942;
989.7000;0.1848;7.1754;
990.0000;0.1929;7.1989;
990.3000;0.1994;7.2107;
990.6000;0.1905;7.1848;
990.9000;0.1897;7.1730;
991.2000;0.1921;7.1707;
991.5000;0.1921;7.1871;
991.8000;0.1929;7.1895;
992.1000;0.1945;7.1965;
992.4000;0.1945;7.1965;
992.7000;0.1937;7.2012;
993.0000;0.1913;7.1989;
993.3000;0.1913;7.1989;
993.6000;0.1897;7.1989;
993.9000;0.1921;7.2036;
994.2000;0.1921;7.1895;
994.5000;0.1888;7.1895;
994.8000;0.1913;7.1895;
995.1000;0.1921;7.1918;
995.4000;0.1897;7.1871;
995.7000;0.1888;7.1824;
996.0000;0.1962;7.1942;
996.3000;0.1856;7.1636;
996.6000;0.1880;7.1683;
996.9000;0.1864;7.1542;
997.2000;0.1905;7.1707;
997.5000;0.1945;7.1754;
997.8000;0.2011;7.1895;
998.1000;0.1888;7.1542;
998.4000;0.1905;7.1566;
998.7000;0.1913;7.1589;
999.0000;0.1905;7.1613;
999.3000;0.1921;7.1683;
999.6000;0.1921;7.1589;
999.9000;0.1921;7.1613;
1000.2000;0.2002;7.1848;
1000.5000;0.1929;7.1660;
1000.8000;0.1954;7.1730;
1001.1000;0.1913;7.1566;
1001.4000;0.1905;7.1542;
1001.7000;0.1913;7.1613;
1002.0000;0.1929;7.1613;
1002.3000;0.1937;7.1707;
1002.6000;0.1913;7.1613;
1002.9000;0.1921;7.1754;
1003.2000;0.1888;7.1777;
1003.5000;0.1897;7.1777;
1003.8000;0.1913;7.1730;
1004.1000;0.1921;7.1754;
1004.4000;0.1913;7.1707;
1004.7000;0.1921;7.1707;
1005.0000;0.1921;7.1636;
1005.3000;0.1799;7.1354;
1005.6000;0.1897;7.1707;
1005.9000;0.1905;7.1730;
1006.2000;0.1905;7.1754;
1006.5000;0.1856;7.1707;
1006.8000;0.1905;7.1824;
1007.1000;0.1897;7.1824;
1007.4000;0.1897;7.1848;
1007.7000;0.1913;7.1965;
1008.0000;0.1921;7.1942;
1008.3000;0.1929;7.1942;
1008.6000;0.1905;7.1895;
1008.9000;0.1897;7.1848;
1009.2000;0.1897;7.1895;
1009.5000;0.1929;7.1871;
1009.8000;0.1937;7.1965;
1010.1000;0.1921;7.1895;
1010.4000;0.1864;7.1777;
1010.7000;0.1921;7.1989;
1011.0000;0.2011;7.2177;
1011.3000;0.1913;7.2012;
1011.6000;0.1929;7.2130;
1011.9000;0.1897;7.1942;
1012.2000;0.1888;7.1848;
1012.5000;0.1929;7.1848;
1012.8000;0.1897;7.1707;
1013.1000;0.1897;7.1801;
1013.4000;0.1905;7.1848;
1013.7000;0.1880;7.1777;
1014.0000;0.1905;7.1989;
1014.3000;0.1929;7.1989;
1014.6000;0.1905;7.1942;
1014.9000;0.1913;7.1871;
1015.2000;0.1913;7.1824;
1015.5000;0.1905;7.1895;
1015.8000;0.1913;7.1942;
1016.1000;0.1905;7.2012;
1016.4000;0.1913;7.2012;
1016.7000;0.1921;7.1989;
1017.0000;0.1880;7.1871;
1017.3000;0.1929;7.1965;
1017.6000;0.1905;7.2012;
1017.9000;0.1905;7.1989;
1018.2000;0.1888;7.1918;
1018.5000;0.1937;7.2012;
1018.8000;0.1905;7.1848;
1019.1000;0.1897;7.1895;
1019.4000;0.1913;7.1895;
1019.7000;0.1905;7.1871;
1020.0000;0.1897;7.1777;
1020.3000;0.1913;7.1754;
1020.6000;0.1921;7.1777;
1020.9000;0.1929;7.1848;
1021.2000;0.1913;7.1754;
1021.5000;0.1970;7.1848;
1021.8000;0.1897;7.1730;
1022.1000;0.1913;7.1777;
1022.4000;0.1897;7.1871;
1022.7000;0.1897;7.1824;
1023.0000;0.1913;7.1801;
1023.3000;0.1937;7.1918;
1023.6000;0.1856;7.1636;
1023.9000;0.1913;7.1801;
1024.2000;0.1921;7.1895;
1024.5000;0.1856;7.1824;
1024.8000;0.1880;7.1871;
1025.1000;0.1905;7.1871;
1025.4000;0.1897;7.1895;
1025.7000;0.1897;7.1918;
1026.0000;0.1897;7.1918;
1026.3000;0.1856;7.1918;
1026.6000;0.1905;7.1965;
1026.9000;0.1905;7.1895;
1027.2000;0.1905;7.1754;
1027.5000;0.1905;7.1683;
1027.8000;0.1905;7.1636;
1028.1000;0.1905;7.1707;
1028.4000;0.1913;7.1613;
1028.7000;0.1913;7.1566;
1029.0000;0.1929;7.1707;
1029.3000;0.1937;7.1660;
1029.6000;0.1897;7.1636;
1029.9000;0.1937;7.1683;
1030.2000;0.1888;7.1660;
1030.5000;0.1921;7.1824;
1030.8000;0.1929;7.1848;
1031.1000;0.1888;7.1777;
1031.4000;0.1921;7.1707;
1031.7000;0.1888;7.1636;
1032.0000;0.2027;7.2083;
1032.3000;0.1921;7.1848;
1032.6000;0.1897;7.1848;
1032.9000;0.1921;7.1871;
1033.2000;0.1913;7.1777;
1033.5000;0.1913;7.1777;
1033.8000;0.1897;7.1754;
1034.1000;0.1905;7.1660;
1034.4000;0.1905;7.1636;
1034.7000;0.1954;7.1730;
1035.0000;0.1921;7.1613;
1035.3000;0.1888;7.1636;
1035.6000;0.1913;7.1683;
1035.9000;0.1905;7.1683;
1036.2000;0.1929;7.1589;
1036.5000;0.1913;7.1542;
1036.8000;0.1978;7.1824;
1037.1000;0.1905;7.1589;
1037.4000;0.1905;7.1589;
1037.7000;0.1888;7.1613;
1038.0000;0.1905;7.1636;
1038.3000;0.1921;7.1636;
1038.6000;0.1921;7.1589;
1038.9000;0.1905;7.1542;
1039.2000;0.1905;7.1472;
1039.5000;0.1905;7.1519;
1039.8000;0.1913;7.1542;
1040.1000;0.1945;7.1542;
1040.4000;0.1913;7.1542;
1040.7000;0.1921;7.1519;
1041.0000;0.1921;7.1636;
1041.3000;0.1921;7.1660;
1041.6000;0.1921;7.1660;
1041.9000;0.1929;7.1730;
1042.2000;0.1921;7.1683;
1042.5000;0.1921;7.1613;
1042.8000;0.1872;7.1613;
1043.1000;0.1913;7.1824;
1043.4000;0.1921;7.1848;
1043.7000;0.1921;7.1942;
1044.0000;0.1905;7.1918;
1044.3000;0.1921;7.1918;
1044.6000;0.1872;7.1801;
1044.9000;0.1921;7.1942;
1045.2000;0.1913;7.1965;
1045.5000;0.1913;7.1895;
1045.8000;0.1905;7.1918;
1046.1000;0.1921;7.1918;
1046.4000;0.1921;7.1871;
1046.7000;0.1913;7.1895;
1047.0000;0.1913;7.1871;
1047.3000;0.1905;7.1871;
1047.6000;0.1913;7.1989;
1047.9000;0.1897;7.1989;
1048.2000;0.1913;7.2012;
1048.5000;0.1897;7.1942;
1048.8000;0.1913;7.2012;
1049.1000;0.1929;7.2036;
1049.4000;0.1864;7.1824;
1049.7000;0.1897;7.1989;
1050.0000;0.1913;7.2036;
1050.3000;0.1929;7.2036;
1050.6000;0.1986;7.2059;
1050.9000;0.1913;7.1871;
1051.2000;0.2027;7.2154;
1051.5000;0.1970;7.1895;
1051.8000;0.1905;7.1730;
1052.1000;0.1897;7.1683;
1052.4000;0.1905;7.1683;
1052.7000;0.1929;7.1660;
1053.0000;0.1921;7.1660;
1053.3000;0.1905;7.1636;
1053.6000;0.1815;7.1448;
1053.9000;0.1921;7.1777;
1054.2000;0.1897;7.1683;
1054.5000;0.1905;7.1636;
1054.8000;0.1888;7.1636;
1055.1000;0.1905;7.1683;
1055.4000;0.1921;7.1683;
1055.7000;0.1913;7.1660;
1056.0000;0.1888;7.1589;
1056.3000;0.1905;7.1636;
1056.6000;0.1905;7.1636;
1056.9000;0.1921;7.1613;
1057.2000;0.1921;7.1613;
1057.5000;0.1888;7.1542;
1057.8000;0.1905;7.1683;
1058.1000;0.1913;7.1730;
1058.4000;0.1897;7.1683;
1058.7000;0.1888;7.1754;
1059.0000;0.1921;7.1895;
1059.3000;0.1905;7.1824;
1059.6000;0.1897;7.1730;
1059.9000;0.1872;7.1824;
1060.2000;0.1913;7.1942;
1060.5000;0.1921;7.1942;
1060.8000;0.1897;7.1801;
1061.1000;0.1888;7.1754;
1061.4000;0.1913;7.1824;
1061.7000;0.1913;7.1824;
1062.0000;0.1888;7.1754;
1062.3000;0.1913;7.1777;
1062.6000;0.1913;7.1824;
1062.9000;0.1921;7.1801;
1063.2000;0.1937;7.1707;
1063.5000;0.1905;7.1589;
1063.8000;0.1880;7.1566;
1064.1000;0.1888;7.1683;
1064.4000;0.1913;7.1730;
1064.7000;0.1872;7.1660;
1065.0000;0.1905;7.1754;
1065.3000;0.1921;7.1707;
1065.6000;0.1929;7.1777;
1065.9000;0.1905;7.1660;
1066.2000;0.1913;7.1589;
1066.5000;0.1897;7.1589;
1066.8000;0.1913;7.1636;
1067.1000;0.1897;7.1519;
1067.4000;0.1897;7.1542;
1067.7000;0.1888;7.1542;
1068.0000;0.1986;7.1801;
1068.3000;0.1929;7.1754;
1068.6000;0.1905;7.1730;
1068.9000;0.1888;7.1730;
1069.2000;0.1864;7.1613;
1069.5000;0.1897;7.1660;
1069.8000;0.1921;7.1707;
1070.1000;0.1905;7.1707;
1070.4000;0.1921;7.1730;
1070.7000;0.1897;7.1660;
1071.0000;0.1913;7.1707;
1071.3000;0.1913;7.1754;
1071.6000;0.1970;7.1918;
1071.9000;0.1921;7.1871;
1072.2000;0.1913;7.1754;
1072.5000;0.1880;7.1707;
1072.8000;0.1905;7.1636;
1073.1000;0.1929;7.1754;
1073.4000;0.1897;7.1777;
1073.7000;0.1937;7.1824;
1074.0000;0.1929;7.1777;
1074.3000;0.1913;7.1660;
1074.6000;0.1970;7.1777;
1074.9000;0.1905;7.1636;
1075.2000;0.1970;7.1754;
1075.5000;0.1897;7.1613;
1075.8000;0.1929;7.1683;
1076.1000;0.1897;7.1660;
1076.4000;0.1856;7.1589;
1076.7000;0.1905;7.1730;
1077.0000;0.1905;7.1730;
1077.3000;0.1921;7.1707;
1077.6000;0.1864;7.1636;
1077.9000;0.1913;7.1730;
1078.2000;0.1921;7.1754;
1078.5000;0.1913;7.1777;
1078.8000;0.1921;7.1730;
1079.1000;0.1929;7.1730;
1079.4000;0.1897;7.1589;
1079.7000;0.1913;7.1683;
1080.0000;0.1897;7.1683;
1080.3000;0.1921;7.1707;
1080.6000;0.1921;7.1707;
1080.9000;0.1897;7.1636;
1081.2000;0.1921;7.1707;
1081.5000;0.1905;7.1636;
1081.8000;0.1864;7.1566;
1082.1000;0.1913;7.1613;
1082.4000;0.1921;7.1636;
1082.7000;0.1897;7.1589;
1083.0000;0.1913;7.1730;
1083.3000;0.1921;7.1730;
1083.6000;0.1905;7.1683;
1083.9000;0.1913;7.1660;
1084.2000;0.1905;7.1660;
1084.5000;0.1929;7.1636;
1084.8000;0.1913;7.1660;
1085.1000;0.1937;7.1660;
1085.4000;0.1937;7.1683;
1085.7000;0.1888;7.1566;
1086.0000;0.1929;7.1801;
1086.3000;0.1921;7.1801;
1086.6000;0.1913;7.1777;
1086.9000;0.1880;7.1707;
1087.2000;0.1905;7.1707;
1087.5000;0.1921;7.1777;
1087.8000;0.1905;7.1754;
1088.1000;0.1905;7.1660;
1088.4000;0.1921;7.1707;
1088.7000;0.1897;7.1589;
1089.0000;0.1921;7.1636;
1089.3000;0.1913;7.1589;
1089.6000;0.1872;7.1542;
1089.9000;0.1905;7.1589;
1090.2000;0.1897;7.1542;
1090.5000;0.1970;7.1754;
1090.8000;0.1986;7.1871;
1091.1000;0.1905;7.1636;
1091.4000;0.1897;7.1613;
1091.7000;0.1905;7.1660;
1092.0000;0.1848;7.1424;
1092.3000;0.1905;7.1589;
1092.6000;0.1888;7.1495;
1092.9000;0.1888;7.1448;
1093.2000;0.1897;7.1519;
1093.5000;0.1864;7.1354;
1093.8000;0.1921;7.1495;
1094.1000;0.1937;7.1613;
1094.4000;0.1921;7.1542;
1094.7000;0.1913;7.1542;
1095.0000;0.1913;7.1660;
1095.3000;0.1905;7.1683;
1095.6000;0.1897;7.1636;
1095.9000;0.1913;7.1683;
1096.2000;0.1913;7.1636;
1096.5000;0.1929;7.1660;
1096.8000;0.1921;7.1566;
1097.1000;0.1921;7.1636;
1097.4000;0.1913;7.1660;
1097.7000;0.1921;7.1754;
1098.0000;0.1905;7.1801;
1098.3000;0.1929;7.1754;
1098.6000;0.1954;7.1801;
1098.9000;0.1897;7.1660;
1099.2000;0.1913;7.1683;
1099.5000;0.1905;7.1683;
1099.8000;0.1905;7.1707;
1100.1000;0.1929;7.1777;
1100.4000;0.1880;7.1613;
1100.7000;0.1888;7.1613;
1101.0000;0.1905;7.1730;
1101.3000;0.1897;7.1777;
1101.6000;0.1872;7.1754;
1101.9000;0.1913;7.1777;
1102.2000;0.1905;7.1707;
1102.5000;0.1921;7.1777;
1102.8000;0.1888;7.1754;
1103.1000;0.1872;7.1707;
1103.4000;0.1888;7.1707;
1103.7000;0.1913;7.1707;
1104.0000;0.1921;7.1730;
1104.3000;0.1970;7.1918;
1104.6000;0.1929;7.1871;
1104.9000;0.1905;7.1777;
1105.2000;0.1897;7.1777;
1105.5000;0.1921;7.1848;
1105.8000;0.1970;7.1989;
1106.1000;0.1921;7.1848;
1106.4000;0.1913;7.1777;
1106.7000;0.1913;7.1754;
1107.0000;0.1929;7.1801;
1107.3000;0.1929;7.1871;
1107.6000;0.1921;7.1801;
1107.9000;0.1937;7.1848;
1108.2000;0.1913;7.1777;
1108.5000;0.1929;7.1871;
1108.8000;0.1880;7.1824;
1109.1000;0.1905;7.1989;
1109.4000;0.1937;7.2036;
1109.7000;0.1937;7.1989;
1110.0000;0.1929;7.1801;
1110.3000;0.1921;7.1777;
1110.6000;0.1929;7.1754;
1110.9000;0.1913;7.1613;
1111.2000;0.1929;7.1660;
1111.5000;0.1913;7.1730;
1111.8000;0.1897;7.1730;
1112.1000;0.1937;7.1848;
1112.4000;0.1913;7.1754;
1112.7000;0.1913;7.1730;
1113.0000;0.1888;7.1589;
1113.3000;0.1913;7.1613;
1113.6000;0.1945;7.1660;
1113.9000;0.1913;7.1613;
1114.2000;0.1962;7.1754;
1114.5000;0.1913;7.1683;
1114.8000;0.1913;7.1683;
1115.1000;0.1929;7.1730;
1115.4000;0.1880;7.1542;
1115.7000;0.1913;7.1613;
1116.0000;0.1986;7.1777;
1116.3000;0.1970;7.1801;
1116.6000;0.1913;7.1683;
1116.9000;0.1897;7.1754;
1117.2000;0.1913;7.1871;
1117.5000;0.1921;7.1871;
1117.8000;0.1905;7.1824;
1118.1000;0.1905;7.1754;
1118.4000;0.1921;7.1730;
1118.7000;0.1913;7.1754;
1119.0000;0.1897;7.1801;
1119.3000;0.1905;7.1730;
1119.6000;0.1897;7.1730;
1119.9000;0.1929;7.1918;
1120.2000;0.1921;7.1965;
1120.5000;0.1929;7.1918;
1120.8000;0.1872;7.1801;
1121.1000;0.1913;7.1871;
1121.4000;0.1897;7.1777;
1121.7000;0.1913;7.1754;
1122.0000;0.1921;7.1683;
1122.3000;0.1937;7.1777;
1122.6000;0.1897;7.1683;
1122.9000;0.1913;7.1683;
1123.2000;0.1945;7.1613;
1123.5000;0.1929;7.1589;
1123.8000;0.1921;7.1683;
1124.1000;0.1888;7.1660;
1124.4000;0.1872;7.1660;
1124.7000;0.1897;7.1848;
1125.0000;0.1921;7.1824;
1125.3000;0.1929;7.1918;
1125.6000;0.1897;7.1848;
1125.9000;0.1897;7.1777;
1126.2000;0.1905;7.1801;
1126.5000;0.1913;7.1730;
1126.8000;0.1848;7.1613;
1127.1000;0.1856;7.1683;
1127.4000;0.1897;7.1730;
1127.7000;0.1897;7.1730;
1128.0000;0.1897;7.1707;
1128.3000;0.1905;7.1707;
1128.6000;0.1864;7.1660;
1128.9000;0.1954;7.1895;
1129.2000;0.1880;7.1871;
1129.5000;0.1880;7.1871;
1129.8000;0.1913;7.1942;
1130.1000;0.1905;7.1895;
1130.4000;0.1913;7.1871;
1130.7000;0.1913;7.1824;
1131.0000;0.1872;7.1754;
1131.3000;0.1897;7.1801;
1131.6000;0.1897;7.1801;
1131.9000;0.1905;7.1754;
1132.2000;0.1888;7.1683;
1132.5000;0.1945;7.1730;
1132.8000;0.1921;7.1707;
1133.1000;0.1897;7.1754;
1133.4000;0.1905;7.1754;
1133.7000;0.1897;7.1801;
1134.0000;0.1905;7.1871;
1134.3000;0.1905;7.1848;
1134.6000;0.1897;7.1871;
1134.9000;0.1880;7.1707;
1135.2000;0.1888;7.1801;
1135.5000;0.1913;7.1965;
1135.8000;0.1913;7.1942;
1136.1000;0.1913;7.1918;
1136.4000;0.1880;7.1777;
1136.7000;0.1913;7.1754;
1137.0000;0.1897;7.1801;
1137.3000;0.1856;7.1707;
1137.6000;0.1929;7.1918;
1137.9000;0.1897;7.1871;
1138.2000;0.1905;7.1871;
1138.5000;0.1888;7.1801;
1138.8000;0.1888;7.1848;
1139.1000;0.1897;7.1871;
1139.4000;0.1888;7.1942;
1139.7000;0.1888;7.1942;
1140.0000;0.1913;7.1965;
1140.3000;0.1921;7.1942;
1140.6000;0.1913;7.1824;
1140.9000;0.1921;7.1801;
1141.2000;0.1888;7.1707;
1141.5000;0.1913;7.1730;
1141.8000;0.1913;7.1824;
1142.1000;0.1913;7.1918;
1142.4000;0.1888;7.1871;
1142.7000;0.1921;7.1918;
1143.0000;0.1937;7.1989;
1143.3000;0.1913;7.1965;
1143.6000;0.1888;7.1942;
1143.9000;0.1888;7.1895;
1144.2000;0.1929;7.1989;
1144.5000;0.1905;7.1895;
1144.8000;0.1921;7.1871;
1145.1000;0.1921;7.1871;
1145.4000;0.1856;7.1683;
1145.7000;0.1937;7.1848;
1146.0000;0.1880;7.1777;
1146.3000;0.1897;7.1754;
1146.6000;0.1880;7.1707;
1146.9000;0.1921;7.1777;
1147.2000;0.1913;7.1754;
1147.5000;0.1913;7.1683;
1147.8000;0.1929;7.1730;
1148.1000;0.2027;7.1942;
1148.4000;0.1970;7.1777;
1148.7000;0.1913;7.1777;
1149.0000;0.1921;7.1730;
1149.3000;0.1970;7.1895;
1149.6000;0.1848;7.1730;
1149.9000;0.1937;7.1942;
1150.2000;0.1921;7.1965;
1150.5000;0.1913;7.1965;
1150.8000;0.1913;7.1918;
1151.1000;0.1872;7.1824;
1151.4000;0.1954;7.1989;
1151.7000;0.1913;7.1801;
1152.0000;0.1921;7.1848;
1152.3000;0.1921;7.1824;
1152.6000;0.1994;7.2012;
1152.9000;0.1888;7.1777;
1153.2000;0.1905;7.1824;
1153.5000;0.1897;7.1824;
1153.8000;0.1913;7.1895;
1154.1000;0.1913;7.1942;
1154.4000;0.1921;7.1871;
1154.7000;0.1921;7.1871;
1155.0000;0.1888;7.1871;
1155.3000;0.1880;7.1777;
1155.6000;0.1913;7.1918;
1155.9000;0.1913;7.1965;
1156.2000;0.1913;7.1895;
1156.5000;0.1905;7.1871;
1156.8000;0.1913;7.1848;
1157.1000;0.1872;7.1683;
1157.4000;0.1929;7.1730;
1157.7000;0.1945;7.1660;
1158.0000;0.1929;7.1519;
1158.3000;0.1913;7.1519;
1158.6000;0.1897;7.1424;
1158.9000;0.1905;7.1472;
1159.2000;0.1921;7.1519;
1159.5000;0.1921;7.1472;
1159.8000;0.1880;7.1401;
1160.1000;0.1921;7.1542;
1160.4000;0.1929;7.1660;
1160.7000;0.1921;7.1730;
1161.0000;0.1937;7.1707;
1161.3000;0.1913;7.1683;
1161.6000;0.1913;7.1636;
1161.9000;0.1929;7.1542;
1162.2000;0.1929;7.1448;
1162.5000;0.1913;7.1448;
1162.8000;0.1921;7.1566;
1163.1000;0.1897;7.1566;
1163.4000;0.1913;7.1683;
1163.7000;0.1905;7.1777;
1164.0000;0.1888;7.1777;
1164.3000;0.1970;7.1942;
1164.6000;0.1986;7.2107;
1164.9000;0.1864;7.1777;
1165.2000;0.1897;7.1871;
1165.5000;0.1905;7.1871;
1165.8000;0.1913;7.1895;
1166.1000;0.1913;7.1871;
1166.4000;0.1905;7.1871;
1166.7000;0.1905;7.1824;
1167.0000;0.1913;7.1871;
1167.3000;0.1897;7.1871;
1167.6000;0.1913;7.1871;
1167.9000;0.1921;7.1871;
1168.2000;0.1913;7.1754;
1168.5000;0.1905;7.1660;
1168.8000;0.1913;7.1589;
1169.1000;0.1937;7.1636;
1169.4000;0.1913;7.1589;
1169.7000;0.1905;7.1613;
1170.0000;0.1954;7.1730;
1170.3000;0.1848;7.1519;
1170.6000;0.1905;7.1707;
1170.9000;0.1913;7.1660;
1171.2000;0.1888;7.1613;
1171.5000;0.1913;7.1730;
1171.8000;0.1913;7.1777;
1172.1000;0.1913;7.1871;
1172.4000;0.1888;7.1707;
1172.7000;0.1888;7.1683;
1173.0000;0.1905;7.1707;
1173.3000;0.1921;7.1824;
1173.6000;0.1905;7.1754;
1173.9000;0.1888;7.1730;
1174.2000;0.1888;7.1636;
1174.5000;0.1905;7.1613;
1174.8000;0.1921;7.1683;
1175.1000;0.1929;7.1660;
1175.4000;0.1913;7.1660;
1175.7000;0.1945;7.1730;
1176.0000;0.1905;7.1683;
1176.3000;0.1897;7.1660;
1176.6000;0.1929;7.1660;
1176.9000;0.1913;7.1589;
1177.2000;0.1929;7.1730;
1177.5000;0.1905;7.1636;
1177.8000;0.1954;7.1613;
1178.1000;0.1897;7.1448;
1178.4000;0.1897;7.1424;
1178.7000;0.1888;7.1401;
1179.0000;0.1888;7.1401;
1179.3000;0.1897;7.1519;
1179.6000;0.1937;7.1566;
1179.9000;0.1921;7.1472;
1180.2000;0.1905;7.1495;
1180.5000;0.1921;7.1566;
1180.8000;0.1921;7.1542;
1181.1000;0.1913;7.1448;
1181.4000;0.1921;7.1448;
1181.7000;0.1905;7.1401;
1182.0000;0.1905;7.1401;
1182.3000;0.1921;7.1495;
1182.6000;0.1913;7.1472;
1182.9000;0.1929;7.1448;
1183.2000;0.1921;7.1519;
1183.5000;0.1905;7.1636;
1183.8000;0.1848;7.1495;
1184.1000;0.1921;7.1683;
1184.4000;0.1880;7.1683;
1184.7000;0.1962;7.1824;
1185.0000;0.1913;7.1519;
1185.3000;0.1905;7.1472;
1185.6000;0.1848;7.1307;
1185.9000;0.1815;7.1236;
1186.2000;0.1937;7.1566;
1186.5000;0.1921;7.1636;
1186.8000;0.1913;7.1660;
1187.1000;0.1929;7.1660;
1187.4000;0.1921;7.1613;
1187.7000;0.1921;7.1613;
1188.0000;0.1897;7.1589;
1188.3000;0.1880;7.1566;
1188.6000;0.1897;7.1589;
1188.9000;0.1905;7.1636;
1189.2000;0.1905;7.1613;
1189.5000;0.1888;7.1542;
1189.8000;0.1945;7.1613;
1190.1000;0.1905;7.1613;
1190.4000;0.1945;7.1660;
1190.7000;0.1929;7.1613;
1191.0000;0.1856;7.1401;
1191.3000;0.1897;7.1424;
1191.6000;0.1905;7.1495;
1191.9000;0.1921;7.1542;
1192.2000;0.1905;7.1660;
1192.5000;0.1929;7.1636;
1192.8000;0.1897;7.1589;
1193.1000;0.1897;7.1589;
1193.4000;0.1905;7.1636;
1193.7000;0.1888;7.1613;
1194.0000;0.1905;7.1683;
1194.3000;0.1905;7.1636;
1194.6000;0.1897;7.1613;
1194.9000;0.1905;7.1683;
1195.2000;0.1897;7.1566;
1195.5000;0.1913;7.1707;
1195.8000;0.1880;7.1683;
1196.1000;0.1913;7.1777;
1196.4000;0.1921;7.1754;
1196.7000;0.1929;7.1777;
1197.0000;0.1913;7.1683;
1197.3000;0.1954;7.1871;
1197.6000;0.1937;7.1777;
1197.9000;0.1921;7.1730;
1198.2000;0.1897;7.1613;
1198.5000;0.1897;7.1589;
1198.8000;0.1905;7.1683;
1199.1000;0.1905;7.1566;
1199.4000;0.1905;7.1613;
1199.7000;0.1897;7.1589;
1200.0000;0.1888;7.1589;
1200.3000;0.1880;7.1566;
1200.6000;0.1913;7.1730;
1200.9000;0.1921;7.1730;
1201.2000;0.1897;7.1636;
1201.5000;0.1888;7.1589;
1201.8000;0.1913;7.1589;
1202.1000;0.1880;7.1542;
1202.4000;0.1921;7.1519;
1202.7000;0.1913;7.1519;
1203.0000;0.1929;7.1519;
1203.3000;0.1897;7.1472;
1203.6000;0.1872;7.1542;
1203.9000;0.1872;7.1566;
1204.2000;0.1913;7.1613;
1204.5000;0.1864;7.1589;
1204.8000;0.1945;7.1801;
1205.1000;0.1888;7.1589;
1205.4000;0.1905;7.1566;
1205.7000;0.1897;7.1566;
1206.0000;0.1913;7.1613;
1206.3000;0.1880;7.1613;
1206.6000;0.1945;7.1707;
1206.9000;0.1905;7.1613;
1207.2000;0.1897;7.1566;
1207.5000;0.1888;7.1495;
1207.8000;0.1840;7.1424;
1208.1000;0.1888;7.1566;
1208.4000;0.1840;7.1495;
1208.7000;0.1888;7.1566;
1209.0000;0.1905;7.1589;
1209.3000;0.1913;7.1566;
1209.6000;0.1929;7.1613;
1209.9000;0.1897;7.1519;
1210.2000;0.1905;7.1566;
1210.5000;0.1872;7.1495;
1210.8000;0.1897;7.1566;
1211.1000;0.1913;7.1566;
1211.4000;0.1945;7.1542;
1211.7000;0.1921;7.1519;
1212.0000;0.1921;7.1519;
1212.3000;0.1913;7.1566;
1212.6000;0.1921;7.1613;
1212.9000;0.1905;7.1542;
1213.2000;0.1913;7.1707;
1213.5000;0.1905;7.1683;
1213.8000;0.1897;7.1566;
1214.1000;0.1905;7.1589;
1214.4000;0.1905;7.1660;
1214.7000;0.1937;7.1683;
1215.0000;0.1897;7.1660;
1215.3000;0.1897;7.1707;
1215.6000;0.1905;7.1707;
1215.9000;0.1913;7.1636;
1216.2000;0.1913;7.1566;
1216.5000;0.1913;7.1542;
1216.8000;0.1905;7.1495;
1217.1000;0.1897;7.1660;
1217.4000;0.1905;7.1636;
1217.7000;0.1888;7.1613;
1218.0000;0.1921;7.1683;
1218.3000;0.1888;7.1542;
1218.6000;0.1970;7.1707;
1218.9000;0.1905;7.1636;
1219.2000;0.1888;7.1589;
1219.5000;0.1856;7.1566;
1219.8000;0.1921;7.1660;
1220.1000;0.1872;7.1495;
1220.4000;0.1905;7.1589;
1220.7000;0.1970;7.1730;
1221.0000;0.1888;7.1660;
1221.3000;0.1913;7.1636;
1221.6000;0.1978;7.1824;
1221.9000;0.1921;7.1730;
1222.2000;0.1929;7.1707;
1222.5000;0.1913;7.1660;
1222.8000;0.1905;7.1542;
1223.1000;0.1921;7.1636;
1223.4000;0.1921;7.1801;
1223.7000;0.1905;7.1824;
1224.0000;0.1913;7.1871;
1224.3000;0.2019;7.2059;
1224.6000;0.1905;7.1754;
1224.9000;0.1799;7.1566;
1225.2000;0.1897;7.1730;
1225.5000;0.1921;7.1730;
1225.8000;0.1921;7.1754;
1226.1000;0.1905;7.1613;
1226.4000;0.1905;7.1613;
1226.7000;0.1913;7.1613;
1227.0000;0.1921;7.1660;
1227.3000;0.1929;7.1707;
1227.6000;0.1905;7.1613;
1227.9000;0.1921;7.1613;
1228.2000;0.1905;7.1707;
1228.5000;0.1880;7.1730;
1228.8000;0.1888;7.1801;
1229.1000;0.1913;7.1942;
1229.4000;0.1888;7.1965;
1229.7000;0.1872;7.1895;
1230.0000;0.1897;7.1895;
1230.3000;0.1832;7.1801;
1230.6000;0.1880;7.1848;
1230.9000;0.1905;7.1801;
1231.2000;0.1897;7.1777;
1231.5000;0.1913;7.1730;
1231.8000;0.1913;7.1730;
1232.1000;0.1905;7.1589;
1232.4000;0.1970;7.1754;
1232.7000;0.1913;7.1589;
1233.0000;0.1913;7.1589;
1233.3000;0.1905;7.1589;
1233.6000;0.1905;7.1589;
1233.9000;0.1880;7.1613;
1234.2000;0.1848;7.1589;
1234.5000;0.1986;7.1848;
1234.8000;0.1872;7.1519;
1235.1000;0.1897;7.1589;
1235.4000;0.1905;7.1613;
1235.7000;0.1880;7.1495;
1236.0000;0.1905;7.1660;
1236.3000;0.1945;7.1801;
1236.6000;0.1929;7.1824;
1236.9000;0.1929;7.1824;
1237.2000;0.1921;7.1871;
1237.5000;0.1913;7.1895;
1237.8000;0.1913;7.1754;
1238.1000;0.1921;7.1824;
1238.4000;0.1856;7.1589;
1238.7000;0.1929;7.1683;
1239.0000;0.1807;7.1330;
1239.3000;0.1872;7.1542;
1239.6000;0.1913;7.1683;
1239.9000;0.1913;7.1707;
1240.2000;0.1897;7.1707;
1240.5000;0.1880;7.1707;
1240.8000;0.1905;7.1730;
1241.1000;0.1880;7.1777;
1241.4000;0.2002;7.2059;
1241.7000;0.1856;7.1707;
1242.0000;0.1897;7.1730;
1242.3000;0.1905;7.1730;
1242.6000;0.1864;7.1589;
1242.9000;0.1913;7.1683;
1243.2000;0.1905;7.1636;
1243.5000;0.1864;7.1495;
1243.8000;0.1945;7.1730;
1244.1000;0.1864;7.1495;
1244.4000;0.1897;7.1542;
1244.7000;0.1905;7.1589;
1245.0000;0.1864;7.1472;
1245.3000;0.1888;7.1495;
1245.6000;0.1888;7.1542;
1245.9000;0.1905;7.1636;
1246.2000;0.1897;7.1566;
1246.5000;0.1913;7.1660;
1246.8000;0.1888;7.1683;
1247.1000;0.1921;7.1707;
1247.4000;0.1913;7.1777;
1247.7000;0.1832;7.1636;
1248.0000;0.1913;7.1754;
1248.3000;0.1921;7.1777;
1248.6000;0.1937;7.1918;
1248.9000;0.1913;7.1942;
1249.2000;0.1905;7.1871;
1249.5000;0.1937;7.1871;
1249.8000;0.1913;7.1754;
1250.1000;0.1921;7.1660;
1250.4000;0.1921;7.1754;
1250.7000;0.1921;7.1707;
1251.0000;0.1929;7.1754;
1251.3000;0.1913;7.1683;
1251.6000;0.1888;7.1754;
1251.9000;0.1905;7.1824;
1252.2000;0.1913;7.1730;
1252.5000;0.1913;7.1730;
1252.8000;0.1905;7.1754;
1253.1000;0.1905;7.1824;
1253.4000;0.1921;7.1801;
1253.7000;0.1913;7.1801;
1254.0000;0.1888;7.1707;
1254.3000;0.1905;7.1683;
1254.6000;0.1872;7.1636;
1254.9000;0.1913;7.1589;
1255.2000;0.1921;7.1566;
1255.5000;0.1905;7.1566;
1255.8000;0.1921;7.1660;
1256.1000;0.1929;7.1589;
1256.4000;0.1913;7.1613;
1256.7000;0.1962;7.1660;
1257.0000;0.1929;7.1636;
1257.3000;0.1921;7.1636;
1257.6000;0.1905;7.1613;
1257.9000;0.1913;7.1683;
1258.2000;0.1905;7.1566;
1258.5000;0.1937;7.1613;
1258.8000;0.1880;7.1472;
1259.1000;0.1888;7.1472;
1259.4000;0.1897;7.1566;
1259.7000;0.1921;7.1589;
1260.0000;0.1921;7.1589;
1260.3000;0.1880;7.1542;
1260.6000;0.1929;7.1707;
1260.9000;0.1929;7.1801;
1261.2000;0.1937;7.1848;
1261.5000;0.1905;7.1754;
1261.8000;0.1880;7.1660;
1262.1000;0.1945;7.1801;
1262.4000;0.1929;7.1730;
1262.7000;0.1905;7.1707;
1263.0000;0.1905;7.1660;
1263.3000;0.1888;7.1589;
1263.6000;0.1921;7.1707;
1263.9000;0.1888;7.1613;
1264.2000;0.1840;7.1472;
1264.5000;0.1954;7.1730;
1264.8000;0.1905;7.1683;
1265.1000;0.1815;7.1472;
1265.4000;0.1897;7.1636;
1265.7000;0.1864;7.1424;
1266.0000;0.1888;7.1519;
1266.3000;0.1897;7.1424;
1266.6000;0.1905;7.1401;
1266.9000;0.1897;7.1424;
1267.2000;0.1905;7.1424;
1267.5000;0.1897;7.1472;
1267.8000;0.1913;7.1472;
1268.1000;0.1880;7.1354;
1268.4000;0.1913;7.1472;
1268.7000;0.1864;7.1377;
1269.0000;0.1888;7.1401;
1269.3000;0.1897;7.1472;
1269.6000;0.1913;7.1589;
1269.9000;0.1945;7.1660;
1270.2000;0.1913;7.1636;
1270.5000;0.1921;7.1707;
1270.8000;0.1888;7.1707;
1271.1000;0.1913;7.1801;
1271.4000;0.1897;7.1754;
1271.7000;0.1921;7.1683;
1272.0000;0.1905;7.1589;
1272.3000;0.1921;7.1636;
1272.6000;0.1913;7.1613;
1272.9000;0.1929;7.1613;
1273.2000;0.1913;7.1613;
1273.5000;0.1897;7.1519;
1273.8000;0.1921;7.1589;
1274.1000;0.1888;7.1424;
1274.4000;0.1864;7.1354;
1274.7000;0.1905;7.1424;
1275.0000;0.1921;7.1424;
1275.3000;0.1888;7.1283;
1275.6000;0.1880;7.1377;
1275.9000;0.1905;7.1542;
1276.2000;0.1888;7.1613;
1276.5000;0.1872;7.1636;
1276.8000;0.1864;7.1636;
1277.1000;0.1905;7.1754;
1277.4000;0.1913;7.1777;
1277.7000;0.1880;7.1660;
1278.0000;0.1888;7.1730;
1278.3000;0.1888;7.1754;
1278.6000;0.1913;7.1824;
1278.9000;0.1921;7.1965;
1279.2000;0.1888;7.1895;
1279.5000;0.1897;7.1918;
1279.8000;0.1888;7.1754;
1280.1000;0.1921;7.1895;
1280.4000;0.1913;7.1824;
1280.7000;0.1913;7.1801;
1281.0000;0.1929;7.1848;
1281.3000;0.1888;7.1707;
1281.6000;0.1905;7.1754;
1281.9000;0.1888;7.1683;
1282.2000;0.1897;7.1754;
1282.5000;0.1897;7.1683;
1282.8000;0.1897;7.1660;
1283.1000;0.1929;7.1636;
1283.4000;0.1880;7.1495;
1283.7000;0.1888;7.1495;
1284.0000;0.1921;7.1542;
1284.3000;0.1913;7.1519;
1284.6000;0.1905;7.1542;
1284.9000;0.1913;7.1660;
1285.2000;0.1921;7.1754;
1285.5000;0.1929;7.1848;
1285.8000;0.1929;7.1871;
1286.1000;0.1937;7.1895;
1286.4000;0.1929;7.1895;
1286.7000;0.1913;7.1730;
1287.0000;0.1921;7.1730;
1287.3000;0.1856;7.1542;
1287.6000;0.1921;7.1660;
1287.9000;0.1913;7.1730;
1288.2000;0.1913;7.1754;
1288.5000;0.1937;7.1848;
1288.8000;0.1905;7.1777;
1289.1000;0.1929;7.1824;
1289.4000;0.1897;7.1636;
1289.7000;0.1921;7.1660;
1290.0000;0.1905;7.1613;
1290.3000;0.1897;7.1636;
1290.6000;0.1897;7.1636;
1290.9000;0.1897;7.1660;
1291.2000;0.1888;7.1589;
1291.5000;0.1954;7.1777;
1291.8000;0.1880;7.1683;
1292.1000;0.1888;7.1660;
1292.4000;0.1905;7.1730;
1292.7000;0.1905;7.1754;
1293.0000;0.1897;7.1754;
1293.3000;0.1897;7.1777;
1293.6000;0.1897;7.1777;
1293.9000;0.1905;7.1754;
1294.2000;0.1897;7.1730;
1294.5000;0.1897;7.1730;
1294.8000;0.1888;7.1660;
1295.1000;0.1897;7.1542;
1295.4000;0.1888;7.1542;
1295.7000;0.1913;7.1566;
1296.0000;0.1913;7.1636;
1296.3000;0.1888;7.1660;
1296.6000;0.1921;7.1660;
1296.9000;0.1921;7.1495;
1297.2000;0.1905;7.1448;
1297.5000;0.1913;7.1424;
1297.8000;0.1872;7.1354;
1298.1000;0.1888;7.1472;
1298.4000;0.1945;7.1613;
1298.7000;0.1921;7.1566;
1299.0000;0.1897;7.1495;
1299.3000;0.1880;7.1401;
1299.6000;0.1905;7.1566;
1299.9000;0.1880;7.1542;
1300.2000;0.1954;7.1636;
1300.5000;0.1905;7.1566;
1300.8000;0.1880;7.1613;
1301.1000;0.1897;7.1636;
1301.4000;0.1897;7.1683;
1301.7000;0.1945;7.1754;
1302.0000;0.1937;7.1730;
1302.3000;0.1888;7.1660;
1302.6000;0.1888;7.1730;
1302.9000;0.1913;7.1824;
1303.2000;0.1921;7.1824;
1303.5000;0.1913;7.1801;
1303.8000;0.1823;7.1683;
1304.1000;0.1905;7.1777;
1304.4000;0.1888;7.1730;
1304.7000;0.1905;7.1707;
1305.0000;0.1913;7.1730;
1305.3000;0.1905;7.1801;
1305.6000;0.1888;7.1801;
1305.9000;0.1913;7.1801;
1306.2000;0.1888;7.1707;
1306.5000;0.1905;7.1660;
1306.8000;0.1905;7.1754;
1307.1000;0.1897;7.1707;
1307.4000;0.1888;7.1613;
1307.7000;0.1913;7.1613;
1308.0000;0.1888;7.1519;
1308.3000;0.1913;7.1542;
1308.6000;0.1897;7.1472;
1308.9000;0.1888;7.1519;
1309.2000;0.1929;7.1566;
1309.5000;0.1905;7.1401;
1309.8000;0.1888;7.1424;
1310.1000;0.1905;7.1542;
1310.4000;0.1888;7.1589;
1310.7000;0.1913;7.1636;
1311.0000;0.1880;7.1542;
1311.3000;0.1823;7.1495;
1311.6000;0.1872;7.1683;
1311.9000;0.1929;7.1683;
1312.2000;0.1913;7.1566;
1312.5000;0.1897;7.1566;
1312.8000;0.1913;7.1660;
1313.1000;0.1905;7.1683;
1313.4000;0.1888;7.1613;
1313.7000;0.1864;7.1542;
1314.0000;0.1864;7.1519;
1314.3000;0.1905;7.1589;
1314.6000;0.1888;7.1542;
1314.9000;0.1913;7.1589;
1315.2000;0.1913;7.1636;
1315.5000;0.1913;7.1707;
1315.8000;0.1978;7.1918;
1316.1000;0.1954;7.1824;
1316.4000;0.1905;7.1707;
1316.7000;0.1962;7.1895;
1317.0000;0.1864;7.1613;
1317.3000;0.1921;7.1824;
1317.6000;0.1905;7.1918;
1317.9000;0.1888;7.1871;
1318.2000;0.1905;7.1801;
1318.5000;0.1905;7.1707;
1318.8000;0.2084;7.2083;
1319.1000;0.1888;7.1660;
1319.4000;0.1913;7.1660;
1319.7000;0.1905;7.1566;
1320.0000;0.1905;7.1495;
1320.3000;0.1905;7.1566;
1320.6000;0.1888;7.1589;
1320.9000;0.1897;7.1683;
1321.2000;0.1897;7.1683;
1321.5000;0.1929;7.1730;
1321.8000;0.1913;7.1660;
1322.1000;0.1888;7.1660;
1322.4000;0.1905;7.1707;
1322.7000;0.1905;7.1636;
1323.0000;0.1888;7.1613;
1323.3000;0.1880;7.1519;
1323.6000;0.1945;7.1660;
1323.9000;0.1970;7.1589;
1324.2000;0.1856;7.1330;
1324.5000;0.1888;7.1519;
1324.8000;0.1897;7.1495;
1325.1000;0.1897;7.1566;
1325.4000;0.1905;7.1542;
1325.7000;0.1905;7.1495;
1326.0000;0.1864;7.1377;
1326.3000;0.1913;7.1424;
1326.6000;0.1897;7.1448;
1326.9000;0.1994;7.1801;
1327.2000;0.1913;7.1660;
1327.5000;0.1905;7.1519;
1327.8000;0.1913;7.1613;
1328.1000;0.1905;7.1542;
1328.4000;0.1913;7.1519;
1328.7000;0.1897;7.1448;
1329.0000;0.1913;7.1519;
1329.3000;0.1897;7.1472;
1329.6000;0.1888;7.1495;
1329.9000;0.1897;7.1448;
1330.2000;0.1888;7.1472;
1330.5000;0.1872;7.1424;
1330.8000;0.1897;7.1495;
1331.1000;0.1888;7.1472;
1331.4000;0.1872;7.1401;
1331.7000;0.1888;7.1424;
1332.0000;0.1897;7.1472;
1332.3000;0.1864;7.1354;
1332.6000;0.1872;7.1236;
1332.9000;0.1897;7.1354;
1333.2000;0.1864;7.1401;
1333.5000;0.1888;7.1448;
1333.8000;0.1897;7.1401;
1334.1000;0.1929;7.1519;
1334.4000;0.1880;7.1519;
1334.7000;0.1905;7.1613;
1335.0000;0.1880;7.1589;
1335.3000;0.1880;7.1660;
1335.6000;0.1888;7.1707;
1335.9000;0.1880;7.1754;
1336.2000;0.1897;7.1801;
1336.5000;0.1888;7.1777;
1336.8000;0.1937;7.1848;
1337.1000;0.1905;7.1777;
1337.4000;0.1913;7.1660;
1337.7000;0.1913;7.1660;
1338.0000;0.1888;7.1613;
1338.3000;0.1905;7.1636;
1338.6000;0.1913;7.1754;
1338.9000;0.1848;7.1613;
1339.2000;0.1897;7.1730;
1339.5000;0.1913;7.1660;
1339.8000;0.1945;7.1730;
1340.1000;0.1897;7.1613;
1340.4000;0.1905;7.1566;
1340.7000;0.1921;7.1566;
1341.0000;0.1921;7.1613;
1341.3000;0.1905;7.1636;
1341.6000;0.1913;7.1707;
1341.9000;0.1864;7.1589;
1342.2000;0.1913;7.1683;
1342.5000;0.1921;7.1707;
1342.8000;0.1832;7.1448;
1343.1000;0.1905;7.1754;
1343.4000;0.1921;7.1848;
1343.7000;0.1905;7.1848;
1344.0000;0.1880;7.1777;
1344.3000;0.1897;7.1824;
1344.6000;0.1897;7.1754;
1344.9000;0.1913;7.1754;
1345.2000;0.1897;7.1730;
1345.5000;0.1905;7.1660;
1345.8000;0.1913;7.1683;
1346.1000;0.1897;7.1589;
1346.4000;0.1888;7.1636;
1346.7000;0.1888;7.1636;
1347.0000;0.1888;7.1613;
1347.3000;0.1832;7.1448;
1347.6000;0.1905;7.1636;
1347.9000;0.1897;7.1636;
1348.2000;0.1905;7.1495;
1348.5000;0.1848;7.1330;
1348.8000;0.1897;7.1401;
1349.1000;0.1888;7.1424;
1349.4000;0.1913;7.1589;
1349.7000;0.1888;7.1472;
1350.0000;0.1888;7.1542;
1350.3000;0.1897;7.1636;
1350.6000;0.1905;7.1707;
1350.9000;0.1929;7.1707;
1351.2000;0.1913;7.1754;
1351.5000;0.1945;7.1824;
1351.8000;0.1880;7.1660;
1352.1000;0.1888;7.1707;
1352.4000;0.1832;7.1566;
1352.7000;0.1921;7.1848;
1353.0000;0.1897;7.1707;
1353.3000;0.1929;7.1801;
1353.6000;0.1913;7.1824;
1353.9000;0.1913;7.1777;
1354.2000;0.1840;7.1542;
1354.5000;0.1864;7.1495;
1354.8000;0.1880;7.1424;
1355.1000;0.1945;7.1636;
1355.4000;0.1897;7.1566;
1355.7000;0.1880;7.1566;
1356.0000;0.1913;7.1707;
1356.3000;0.1880;7.1754;
1356.6000;0.1897;7.1824;
1356.9000;0.1929;7.1895;
1357.2000;0.1913;7.1848;
1357.5000;0.1905;7.1824;
1357.8000;0.1888;7.1824;
1358.1000;0.1929;7.1895;
1358.4000;0.1905;7.1895;
1358.7000;0.1913;7.1918;
1359.0000;0.1880;7.1871;
1359.3000;0.1888;7.1871;
1359.6000;0.1897;7.1895;
1359.9000;0.1921;7.1895;
1360.2000;0.1913;7.1942;
1360.5000;0.1897;7.2012;
1360.8000;0.1880;7.1989;
1361.1000;0.1970;7.2177;
1361.4000;0.1905;7.1989;
1361.7000;0.1815;7.1824;
1362.0000;0.1929;7.2059;
1362.3000;0.1897;7.1965;
1362.6000;0.1897;7.1871;
1362.9000;0.1921;7.1895;
1363.2000;0.1880;7.1777;
1363.5000;0.1905;7.1824;
1363.8000;0.1897;7.1848;
1364.1000;0.1888;7.1777;
1364.4000;0.1880;7.1777;
1364.7000;0.1880;7.1895;
1365.0000;0.1962;7.2059;
1365.3000;0.1888;7.1942;
1365.6000;0.1880;7.1942;
1365.9000;0.1872;7.1942;
1366.2000;0.1872;7.1895;
1366.5000;0.1905;7.2036;
1366.8000;0.1897;7.2036;
1367.1000;0.1897;7.2012;
1367.4000;0.1897;7.2036;
1367.7000;0.1913;7.2059;
1368.0000;0.1913;7.2107;
1368.3000;0.1913;7.1989;
1368.6000;0.1897;7.1989;
1368.9000;0.1897;7.1942;
1369.2000;0.1921;7.2012;
1369.5000;0.1913;7.1965;
1369.8000;0.1905;7.2012;
1370.1000;0.1897;7.1989;
1370.4000;0.1905;7.1871;
1370.7000;0.1888;7.1754;
1371.0000;0.1905;7.1848;
1371.3000;0.1945;7.1895;
1371.6000;0.1905;7.1754;
1371.9000;0.1856;7.1542;
1372.2000;0.1897;7.1542;
1372.5000;0.1888;7.1613;
1372.8000;0.1913;7.1754;
1373.1000;0.1913;7.1660;
1373.4000;0.1929;7.1754;
1373.7000;0.1897;7.1660;
1374.0000;0.1978;7.1871;
1374.3000;0.1905;7.1683;
1374.6000;0.1872;7.1589;
1374.9000;0.1913;7.1660;
1375.2000;0.1864;7.1495;
1375.5000;0.1921;7.1613;
1375.8000;0.1905;7.1613;
1376.1000;0.1913;7.1613;
1376.4000;0.1945;7.1824;
1376.7000;0.1913;7.1777;
1377.0000;0.1913;7.1683;
1377.3000;0.1872;7.1636;
1377.6000;0.1897;7.1660;
1377.9000;0.1905;7.1777;
1378.2000;0.1913;7.1895;
1378.5000;0.1897;7.1801;
1378.8000;0.1929;7.1895;
1379.1000;0.1897;7.1824;
1379.4000;0.1897;7.1801;
1379.7000;0.1929;7.1707;
1380.0000;0.1897;7.1566;
1380.3000;0.1905;7.1589;
1380.6000;0.1921;7.1589;
1380.9000;0.1937;7.1589;
1381.2000;0.1897;7.1495;
1381.5000;0.1823;7.1307;
1381.8000;0.1905;7.1495;
1382.1000;0.1905;7.1472;
1382.4000;0.1913;7.1519;
1382.7000;0.1888;7.1472;
1383.0000;0.1888;7.1495;
1383.3000;0.1905;7.1566;
1383.6000;0.1856;7.1519;
1383.9000;0.1913;7.1613;
1384.2000;0.1913;7.1660;
1384.5000;0.1929;7.1754;
1384.8000;0.1840;7.1589;
1385.1000;0.1897;7.1660;
1385.4000;0.1888;7.1707;
1385.7000;0.1954;7.1871;
1386.0000;0.1856;7.1754;
1386.3000;0.1905;7.1871;
1386.6000;0.1897;7.1754;
1386.9000;0.1888;7.1707;
1387.2000;0.1913;7.1660;
1387.5000;0.1905;7.1519;
1387.8000;0.1921;7.1495;
1388.1000;0.1913;7.1448;
1388.4000;0.1921;7.1519;
1388.7000;0.1905;7.1542;
1389.0000;0.1888;7.1519;
1389.3000;0.1929;7.1707;
1389.6000;0.1888;7.1683;
1389.9000;0.1888;7.1660;
1390.2000;0.1897;7.1636;
1390.5000;0.1905;7.1754;
1390.8000;0.1888;7.1730;
1391.1000;0.1880;7.1777;
1391.4000;0.1897;7.1895;
1391.7000;0.1823;7.1801;
1392.0000;0.1913;7.1965;
1392.3000;0.1905;7.1918;
1392.6000;0.1905;7.1942;
1392.9000;0.1888;7.1871;
1393.2000;0.1921;7.2059;
1393.5000;0.1880;7.1965;
1393.8000;0.1888;7.1942;
1394.1000;0.1832;7.1848;
1394.4000;0.1888;7.1965;
1394.7000;0.1888;7.1895;
1395.0000;0.1937;7.1942;
1395.3000;0.1880;7.1824;
1395.6000;0.1872;7.1871;
1395.9000;0.1905;7.1777;
1396.2000;0.1880;7.1636;
1396.5000;0.1888;7.1613;
1396.8000;0.1897;7.1636;
1397.1000;0.1921;7.1636;
1397.4000;0.1888;7.1613;
1397.7000;0.1913;7.1707;
1398.0000;0.1880;7.1707;
1398.3000;0.1905;7.1801;
1398.6000;0.1880;7.1754;
1398.9000;0.1897;7.1824;
1399.2000;0.1913;7.1895;
1399.5000;0.1880;7.1918;
1399.8000;0.1880;7.1848;
