time/ms;Fluo/V;P700 deltaI/I x10³;
-199.8000;0.7790;0.8530;
-199.5000;0.7839;0.8554;
-199.2000;0.7855;0.8506;
-198.9000;0.7798;0.8364;
-198.6000;0.7823;0.8435;
-198.3000;0.7839;0.8459;
-198.0000;0.7912;0.8578;
-197.7000;0.7839;0.8412;
-197.4000;0.7831;0.8530;
-197.1000;0.7839;0.8483;
-196.8000;0.7920;0.8720;
-196.5000;0.7855;0.8554;
-196.2000;0.7839;0.8530;
-195.9000;0.7839;0.8625;
-195.6000;0.7847;0.8554;
-195.3000;0.7831;0.8578;
-195.0000;0.7839;0.8554;
-194.7000;0.7839;0.8459;
-194.4000;0.7855;0.8364;
-194.1000;0.7847;0.8341;
-193.8000;0.7847;0.8435;
-193.5000;0.7855;0.8388;
-193.2000;0.7871;0.8578;
-192.9000;0.7855;0.8625;
-192.6000;0.7839;0.8578;
-192.3000;0.7839;0.8601;
-192.0000;0.7798;0.8554;
-191.7000;0.7823;0.8649;
-191.4000;0.7863;0.8696;
-191.1000;0.7847;0.8791;
-190.8000;0.7806;0.8791;
-190.5000;0.7839;0.8838;
-190.2000;0.7831;0.8696;
-189.9000;0.7839;0.8743;
-189.6000;0.7839;0.8696;
-189.3000;0.7839;0.8649;
-189.0000;0.7839;0.8601;
-188.7000;0.7847;0.8625;
-188.4000;0.7839;0.8625;
-188.1000;0.7831;0.8578;
-187.8000;0.7888;0.8672;
-187.5000;0.7823;0.8530;
-187.2000;0.7823;0.8578;
-186.9000;0.7839;0.8601;
-186.6000;0.7847;0.8672;
-186.3000;0.7847;0.8696;
-186.0000;0.7831;0.8743;
-185.7000;0.7823;0.8791;
-185.4000;0.7953;0.9075;
-185.1000;0.7782;0.8720;
-184.8000;0.7831;0.8862;
-184.5000;0.7831;0.8862;
-184.2000;0.7831;0.8862;
-183.9000;0.7871;0.8957;
-183.6000;0.7831;0.8909;
-183.3000;0.7847;0.8957;
-183.0000;0.7831;0.8838;
-182.7000;0.7839;0.8838;
-182.4000;0.7823;0.8720;
-182.1000;0.7831;0.8649;
-181.8000;0.7839;0.8649;
-181.5000;0.7823;0.8530;
-181.2000;0.7855;0.8649;
-180.9000;0.7831;0.8578;
-180.6000;0.7831;0.8601;
-180.3000;0.7831;0.8649;
-180.0000;0.7847;0.8791;
-179.7000;0.7863;0.8767;
-179.4000;0.7855;0.8838;
-179.1000;0.7831;0.8862;
-178.8000;0.7839;0.8814;
-178.5000;0.7855;0.8886;
-178.2000;0.7871;0.8862;
-177.9000;0.7855;0.8814;
-177.6000;0.7847;0.8767;
-177.3000;0.7871;0.8672;
-177.0000;0.7839;0.8672;
-176.7000;0.7839;0.8625;
-176.4000;0.7855;0.8625;
-176.1000;0.7831;0.8625;
-175.8000;0.7855;0.8743;
-175.5000;0.7823;0.8696;
-175.2000;0.7863;0.8696;
-174.9000;0.7847;0.8696;
-174.6000;0.7847;0.8720;
-174.3000;0.7847;0.8720;
-174.0000;0.7839;0.8743;
-173.7000;0.7847;0.8696;
-173.4000;0.7855;0.8720;
-173.1000;0.7814;0.8649;
-172.8000;0.7855;0.8838;
-172.5000;0.7847;0.8886;
-172.2000;0.7855;0.8909;
-171.9000;0.7847;0.8886;
-171.6000;0.7888;0.8886;
-171.3000;0.7839;0.8767;
-171.0000;0.7847;0.8767;
-170.7000;0.7896;0.8886;
-170.4000;0.7831;0.8743;
-170.1000;0.7823;0.8720;
-169.8000;0.7839;0.8862;
-169.5000;0.7774;0.8672;
-169.2000;0.7823;0.8743;
-168.9000;0.7839;0.8862;
-168.6000;0.7871;0.8886;
-168.3000;0.7847;0.8791;
-168.0000;0.7831;0.8720;
-167.7000;0.7839;0.8743;
-167.4000;0.7847;0.8838;
-167.1000;0.7855;0.8814;
-166.8000;0.7831;0.8767;
-166.5000;0.7831;0.8743;
-166.2000;0.7839;0.8767;
-165.9000;0.7839;0.8767;
-165.6000;0.7871;0.8933;
-165.3000;0.7855;0.8814;
-165.0000;0.7855;0.8814;
-164.7000;0.7847;0.8838;
-164.4000;0.7847;0.8814;
-164.1000;0.7847;0.8767;
-163.8000;0.7847;0.8838;
-163.5000;0.7831;0.8862;
-163.2000;0.7855;0.8909;
-162.9000;0.7823;0.8838;
-162.6000;0.7831;0.8909;
-162.3000;0.7831;0.8909;
-162.0000;0.7831;0.8862;
-161.7000;0.7823;0.8743;
-161.4000;0.7790;0.8625;
-161.1000;0.7847;0.8791;
-160.8000;0.7839;0.8791;
-160.5000;0.7831;0.8743;
-160.2000;0.7823;0.8767;
-159.9000;0.7831;0.8862;
-159.6000;0.7831;0.8838;
-159.3000;0.7847;0.8933;
-159.0000;0.7839;0.8862;
-158.7000;0.7855;0.8886;
-158.4000;0.7814;0.8791;
-158.1000;0.7839;0.8767;
-157.8000;0.7839;0.8791;
-157.5000;0.7831;0.8720;
-157.2000;0.7831;0.8720;
-156.9000;0.7904;0.8980;
-156.6000;0.7790;0.8743;
-156.3000;0.7814;0.8862;
-156.0000;0.7831;0.8862;
-155.7000;0.7839;0.8862;
-155.4000;0.7823;0.8909;
-155.1000;0.7831;0.8862;
-154.8000;0.7814;0.8767;
-154.5000;0.7855;0.8767;
-154.2000;0.7839;0.8720;
-153.9000;0.7831;0.8767;
-153.6000;0.7814;0.8672;
-153.3000;0.7839;0.8720;
-153.0000;0.7863;0.8886;
-152.7000;0.7839;0.8743;
-152.4000;0.7823;0.8743;
-152.1000;0.7814;0.8720;
-151.8000;0.7831;0.8743;
-151.5000;0.7831;0.8743;
-151.2000;0.7823;0.8720;
-150.9000;0.7757;0.8506;
-150.6000;0.7880;0.8767;
-150.3000;0.7847;0.8601;
-150.0000;0.7839;0.8554;
-149.7000;0.7831;0.8530;
-149.4000;0.7855;0.8625;
-149.1000;0.7790;0.8554;
-148.8000;0.7855;0.8743;
-148.5000;0.7847;0.8814;
-148.2000;0.7839;0.8838;
-147.9000;0.7863;0.8957;
-147.6000;0.7847;0.8791;
-147.3000;0.7839;0.8767;
-147.0000;0.7839;0.8791;
-146.7000;0.7888;0.8862;
-146.4000;0.7831;0.8814;
-146.1000;0.7847;0.8838;
-145.8000;0.7839;0.8862;
-145.5000;0.7880;0.9028;
-145.2000;0.7847;0.8838;
-144.9000;0.7847;0.8767;
-144.6000;0.7847;0.8696;
-144.3000;0.7847;0.8601;
-144.0000;0.7814;0.8483;
-143.7000;0.7831;0.8412;
-143.4000;0.7839;0.8435;
-143.1000;0.7839;0.8317;
-142.8000;0.7847;0.8269;
-142.5000;0.7847;0.8198;
-142.2000;0.7839;0.8175;
-141.9000;0.7831;0.8175;
-141.6000;0.7839;0.8246;
-141.3000;0.7831;0.8364;
-141.0000;0.7839;0.8388;
-140.7000;0.7855;0.8388;
-140.4000;0.7839;0.8412;
-140.1000;0.7847;0.8388;
-139.8000;0.7831;0.8388;
-139.5000;0.7871;0.8578;
-139.2000;0.7871;0.8554;
-138.9000;0.7847;0.8412;
-138.6000;0.7790;0.8269;
-138.3000;0.7863;0.8459;
-138.0000;0.7847;0.8483;
-137.7000;0.7847;0.8530;
-137.4000;0.7806;0.8483;
-137.1000;0.7831;0.8459;
-136.8000;0.7831;0.8435;
-136.5000;0.7855;0.8483;
-136.2000;0.7847;0.8435;
-135.9000;0.7839;0.8388;
-135.6000;0.7839;0.8435;
-135.3000;0.7847;0.8435;
-135.0000;0.7831;0.8412;
-134.7000;0.7855;0.8459;
-134.4000;0.7839;0.8459;
-134.1000;0.7880;0.8506;
-133.8000;0.7839;0.8459;
-133.5000;0.7839;0.8530;
-133.2000;0.7839;0.8625;
-132.9000;0.7839;0.8672;
-132.6000;0.7847;0.8649;
-132.3000;0.7839;0.8578;
-132.0000;0.7839;0.8601;
-131.7000;0.7831;0.8601;
-131.4000;0.7798;0.8530;
-131.1000;0.7896;0.8720;
-130.8000;0.7839;0.8506;
-130.5000;0.7823;0.8483;
-130.2000;0.7774;0.8269;
-129.9000;0.7847;0.8412;
-129.6000;0.7871;0.8459;
-129.3000;0.7741;0.8151;
-129.0000;0.7847;0.8483;
-128.7000;0.7863;0.8554;
-128.4000;0.7847;0.8578;
-128.1000;0.7839;0.8601;
-127.8000;0.7855;0.8720;
-127.5000;0.7871;0.8791;
-127.2000;0.7888;0.8814;
-126.9000;0.7880;0.8743;
-126.6000;0.7888;0.8743;
-126.3000;0.7847;0.8625;
-126.0000;0.7823;0.8625;
-125.7000;0.7823;0.8672;
-125.4000;0.7831;0.8625;
-125.1000;0.7863;0.8743;
-124.8000;0.7855;0.8720;
-124.5000;0.7847;0.8649;
-124.2000;0.7839;0.8649;
-123.9000;0.7847;0.8578;
-123.6000;0.7839;0.8506;
-123.3000;0.7847;0.8459;
-123.0000;0.7798;0.8222;
-122.7000;0.7806;0.8388;
-122.4000;0.7847;0.8506;
-122.1000;0.7839;0.8506;
-121.8000;0.7831;0.8530;
-121.5000;0.7847;0.8649;
-121.2000;0.7904;0.8791;
-120.9000;0.7831;0.8625;
-120.6000;0.7839;0.8601;
-120.3000;0.7847;0.8554;
-120.0000;0.7831;0.8672;
-119.7000;0.7847;0.8767;
-119.4000;0.7855;0.8649;
-119.1000;0.7847;0.8483;
-118.8000;0.7831;0.8435;
-118.5000;0.7847;0.8554;
-118.2000;0.7839;0.8459;
-117.9000;0.7855;0.8459;
-117.6000;0.7839;0.8435;
-117.3000;0.7896;0.8530;
-117.0000;0.7839;0.8412;
-116.7000;0.7839;0.8483;
-116.4000;0.7823;0.8530;
-116.1000;0.7831;0.8554;
-115.8000;0.7888;0.8720;
-115.5000;0.7839;0.8601;
-115.2000;0.7774;0.8364;
-114.9000;0.7912;0.8578;
-114.6000;0.7831;0.8388;
-114.3000;0.7814;0.8293;
-114.0000;0.7839;0.8341;
-113.7000;0.7863;0.8483;
-113.4000;0.7847;0.8388;
-113.1000;0.7847;0.8412;
-112.8000;0.7814;0.8341;
-112.5000;0.7863;0.8483;
-112.2000;0.7847;0.8530;
-111.9000;0.7880;0.8625;
-111.6000;0.7847;0.8578;
-111.3000;0.7847;0.8459;
-111.0000;0.7847;0.8459;
-110.7000;0.7855;0.8506;
-110.4000;0.7814;0.8506;
-110.1000;0.7839;0.8649;
-109.8000;0.7847;0.8625;
-109.5000;0.7806;0.8506;
-109.2000;0.7774;0.8459;
-108.9000;0.7839;0.8601;
-108.6000;0.7847;0.8649;
-108.3000;0.7847;0.8649;
-108.0000;0.7814;0.8625;
-107.7000;0.7831;0.8672;
-107.4000;0.7823;0.8696;
-107.1000;0.7806;0.8649;
-106.8000;0.7888;0.8838;
-106.5000;0.7847;0.8814;
-106.2000;0.7839;0.8791;
-105.9000;0.7863;0.8862;
-105.6000;0.7855;0.8767;
-105.3000;0.7782;0.8578;
-105.0000;0.7831;0.8601;
-104.7000;0.7863;0.8696;
-104.4000;0.7831;0.8530;
-104.1000;0.7806;0.8459;
-103.8000;0.7888;0.8625;
-103.5000;0.7847;0.8578;
-103.2000;0.7839;0.8625;
-102.9000;0.7896;0.8814;
-102.6000;0.7823;0.8554;
-102.3000;0.7806;0.8506;
-102.0000;0.7847;0.8625;
-101.7000;0.7855;0.8601;
-101.4000;0.7847;0.8530;
-101.1000;0.7880;0.8625;
-100.8000;0.7847;0.8530;
-100.5000;0.7863;0.8578;
-100.2000;0.7839;0.8554;
-99.9000;0.7823;0.8530;
-99.6000;0.7855;0.8649;
-99.3000;0.7831;0.8720;
-99.0000;0.7806;0.8625;
-98.7000;0.7839;0.8625;
-98.4000;0.7831;0.8601;
-98.1000;0.7855;0.8696;
-97.8000;0.7831;0.8672;
-97.5000;0.7839;0.8696;
-97.2000;0.7823;0.8625;
-96.9000;0.7847;0.8625;
-96.6000;0.7839;0.8625;
-96.3000;0.7831;0.8578;
-96.0000;0.7847;0.8601;
-95.7000;0.7839;0.8696;
-95.4000;0.7847;0.8696;
-95.1000;0.7839;0.8578;
-94.8000;0.7831;0.8578;
-94.5000;0.7823;0.8625;
-94.2000;0.7863;0.8720;
-93.9000;0.7863;0.8649;
-93.6000;0.7831;0.8578;
-93.3000;0.7831;0.8459;
-93.0000;0.7831;0.8435;
-92.7000;0.7847;0.8483;
-92.4000;0.7823;0.8483;
-92.1000;0.7831;0.8530;
-91.8000;0.7839;0.8530;
-91.5000;0.7839;0.8530;
-91.2000;0.7831;0.8459;
-90.9000;0.7839;0.8506;
-90.6000;0.7847;0.8530;
-90.3000;0.7871;0.8578;
-90.0000;0.7904;0.8767;
-89.7000;0.7823;0.8601;
-89.4000;0.7912;0.8743;
-89.1000;0.7855;0.8649;
-88.8000;0.7847;0.8601;
-88.5000;0.7839;0.8601;
-88.2000;0.7871;0.8649;
-87.9000;0.7839;0.8483;
-87.6000;0.7839;0.8554;
-87.3000;0.7855;0.8554;
-87.0000;0.7823;0.8412;
-86.7000;0.7839;0.8364;
-86.4000;0.7880;0.8435;
-86.1000;0.7880;0.8435;
-85.8000;0.7880;0.8388;
-85.5000;0.7888;0.8554;
-85.2000;0.7839;0.8388;
-84.9000;0.7839;0.8388;
-84.6000;0.7823;0.8364;
-84.3000;0.7823;0.8317;
-84.0000;0.7847;0.8435;
-83.7000;0.7814;0.8459;
-83.4000;0.7814;0.8530;
-83.1000;0.7839;0.8672;
-82.8000;0.7839;0.8625;
-82.5000;0.7839;0.8672;
-82.2000;0.7847;0.8601;
-81.9000;0.7839;0.8625;
-81.6000;0.7904;0.8743;
-81.3000;0.7839;0.8530;
-81.0000;0.7839;0.8530;
-80.7000;0.7839;0.8578;
-80.4000;0.7839;0.8649;
-80.1000;0.7847;0.8601;
-79.8000;0.7831;0.8601;
-79.5000;0.7823;0.8530;
-79.2000;0.7847;0.8601;
-78.9000;0.7847;0.8578;
-78.6000;0.7847;0.8578;
-78.3000;0.7823;0.8554;
-78.0000;0.7831;0.8506;
-77.7000;0.7790;0.8435;
-77.4000;0.7823;0.8625;
-77.1000;0.7839;0.8601;
-76.8000;0.7798;0.8506;
-76.5000;0.7839;0.8578;
-76.2000;0.7839;0.8649;
-75.9000;0.7839;0.8672;
-75.6000;0.7823;0.8625;
-75.3000;0.7831;0.8649;
-75.0000;0.7839;0.8720;
-74.7000;0.7831;0.8767;
-74.4000;0.7823;0.8791;
-74.1000;0.7823;0.8696;
-73.8000;0.7847;0.8696;
-73.5000;0.7823;0.8649;
-73.2000;0.7831;0.8720;
-72.9000;0.7839;0.8743;
-72.6000;0.7798;0.8672;
-72.3000;0.7806;0.8743;
-72.0000;0.7831;0.8791;
-71.7000;0.7831;0.8767;
-71.4000;0.7806;0.8720;
-71.1000;0.7863;0.8720;
-70.8000;0.7839;0.8625;
-70.5000;0.7831;0.8578;
-70.2000;0.7847;0.8601;
-69.9000;0.7831;0.8506;
-69.6000;0.7847;0.8459;
-69.3000;0.7839;0.8435;
-69.0000;0.7839;0.8459;
-68.7000;0.7847;0.8506;
-68.4000;0.7871;0.8601;
-68.1000;0.7790;0.8364;
-67.8000;0.7831;0.8506;
-67.5000;0.7831;0.8459;
-67.2000;0.7953;0.8791;
-66.9000;0.7839;0.8554;
-66.6000;0.7839;0.8649;
-66.3000;0.7855;0.8672;
-66.0000;0.7839;0.8625;
-65.7000;0.7855;0.8649;
-65.4000;0.7831;0.8554;
-65.1000;0.7823;0.8530;
-64.8000;0.7831;0.8554;
-64.5000;0.7806;0.8459;
-64.2000;0.7823;0.8578;
-63.9000;0.7831;0.8625;
-63.6000;0.7839;0.8649;
-63.3000;0.7839;0.8601;
-63.0000;0.7831;0.8554;
-62.7000;0.7831;0.8506;
-62.4000;0.7847;0.8530;
-62.1000;0.7831;0.8554;
-61.8000;0.7920;0.8743;
-61.5000;0.7847;0.8530;
-61.2000;0.7847;0.8601;
-60.9000;0.7839;0.8578;
-60.6000;0.7871;0.8672;
-60.3000;0.7823;0.8530;
-60.0000;0.7847;0.8506;
-59.7000;0.7847;0.8554;
-59.4000;0.7823;0.8483;
-59.1000;0.7847;0.8506;
-58.8000;0.7709;0.8198;
-58.5000;0.7855;0.8530;
-58.2000;0.7839;0.8459;
-57.9000;0.7863;0.8483;
-57.6000;0.7920;0.8743;
-57.3000;0.7847;0.8601;
-57.0000;0.7839;0.8672;
-56.7000;0.7823;0.8578;
-56.4000;0.7831;0.8530;
-56.1000;0.7920;0.8743;
-55.8000;0.7831;0.8530;
-55.5000;0.7847;0.8578;
-55.2000;0.7823;0.8506;
-54.9000;0.7798;0.8530;
-54.6000;0.7888;0.8743;
-54.3000;0.7831;0.8578;
-54.0000;0.7847;0.8578;
-53.7000;0.7839;0.8625;
-53.4000;0.7839;0.8743;
-53.1000;0.7831;0.8720;
-52.8000;0.7823;0.8672;
-52.5000;0.7823;0.8625;
-52.2000;0.7847;0.8625;
-51.9000;0.7831;0.8601;
-51.6000;0.7831;0.8601;
-51.3000;0.7855;0.8672;
-51.0000;0.7847;0.8601;
-50.7000;0.7855;0.8672;
-50.4000;0.7871;0.8530;
-50.1000;0.7831;0.8459;
-49.8000;0.7928;0.8601;
-49.5000;0.7855;0.8459;
-49.2000;0.7855;0.8554;
-48.9000;0.7823;0.8459;
-48.6000;0.7831;0.8435;
-48.3000;0.7831;0.8459;
-48.0000;0.7831;0.8459;
-47.7000;0.7814;0.8459;
-47.4000;0.7823;0.8530;
-47.1000;0.7847;0.8601;
-46.8000;0.7839;0.8625;
-46.5000;0.7847;0.8696;
-46.2000;0.7863;0.8814;
-45.9000;0.7847;0.8696;
-45.6000;0.7847;0.8649;
-45.3000;0.7839;0.8578;
-45.0000;0.7855;0.8601;
-44.7000;0.7871;0.8649;
-44.4000;0.7855;0.8696;
-44.1000;0.7839;0.8672;
-43.8000;0.7839;0.8720;
-43.5000;0.7839;0.8696;
-43.2000;0.7823;0.8601;
-42.9000;0.7847;0.8625;
-42.6000;0.7823;0.8601;
-42.3000;0.7839;0.8554;
-42.0000;0.7863;0.8625;
-41.7000;0.7823;0.8506;
-41.4000;0.7831;0.8435;
-41.1000;0.7782;0.8435;
-40.8000;0.7839;0.8696;
-40.5000;0.7880;0.8720;
-40.2000;0.7839;0.8720;
-39.9000;0.7888;0.8791;
-39.6000;0.7839;0.8601;
-39.3000;0.7831;0.8601;
-39.0000;0.7839;0.8601;
-38.7000;0.7831;0.8625;
-38.4000;0.7847;0.8649;
-38.1000;0.7847;0.8672;
-37.8000;0.7831;0.8506;
-37.5000;0.7831;0.8554;
-37.2000;0.7831;0.8506;
-36.9000;0.7814;0.8483;
-36.6000;0.7757;0.8459;
-36.3000;0.7831;0.8459;
-36.0000;0.7839;0.8483;
-35.7000;0.7839;0.8459;
-35.4000;0.7847;0.8459;
-35.1000;0.7839;0.8459;
-34.8000;0.7831;0.8459;
-34.5000;0.7839;0.8530;
-34.2000;0.7847;0.8554;
-33.9000;0.7847;0.8530;
-33.6000;0.7839;0.8530;
-33.3000;0.7823;0.8506;
-33.0000;0.7839;0.8506;
-32.7000;0.7839;0.8506;
-32.4000;0.7823;0.8506;
-32.1000;0.7831;0.8530;
-31.8000;0.7814;0.8530;
-31.5000;0.7774;0.8435;
-31.2000;0.7831;0.8578;
-30.9000;0.7823;0.8578;
-30.6000;0.7782;0.8412;
-30.3000;0.7847;0.8625;
-30.0000;0.7806;0.8506;
-29.7000;0.7847;0.8578;
-29.4000;0.7823;0.8412;
-29.1000;0.7839;0.8506;
-28.8000;0.7823;0.8459;
-28.5000;0.7839;0.8459;
-28.2000;0.7798;0.8412;
-27.9000;0.7839;0.8459;
-27.6000;0.7839;0.8364;
-27.3000;0.7847;0.8364;
-27.0000;0.7847;0.8388;
-26.7000;0.7831;0.8388;
-26.4000;0.7871;0.8483;
-26.1000;0.7831;0.8388;
-25.8000;0.7831;0.8459;
-25.5000;0.7863;0.8459;
-25.2000;0.7839;0.8506;
-24.9000;0.7839;0.8530;
-24.6000;0.7831;0.8625;
-24.3000;0.7839;0.8578;
-24.0000;0.7839;0.8578;
-23.7000;0.7863;0.8601;
-23.4000;0.7855;0.8625;
-23.1000;0.7839;0.8672;
-22.8000;0.7871;0.8767;
-22.5000;0.7839;0.8791;
-22.2000;0.7847;0.8672;
-21.9000;0.7823;0.8530;
-21.6000;0.7847;0.8601;
-21.3000;0.7790;0.8506;
-21.0000;0.7814;0.8601;
-20.7000;0.7839;0.8649;
-20.4000;0.7831;0.8672;
-20.1000;0.7847;0.8601;
-19.8000;0.7831;0.8483;
-19.5000;0.7831;0.8530;
-19.2000;0.7855;0.8506;
-18.9000;0.7839;0.8483;
-18.6000;0.7831;0.8459;
-18.3000;0.7823;0.8459;
-18.0000;0.7823;0.8459;
-17.7000;0.7839;0.8578;
-17.4000;0.7847;0.8530;
-17.1000;0.7839;0.8530;
-16.8000;0.7814;0.8412;
-16.5000;0.7839;0.8530;
-16.2000;0.7839;0.8578;
-15.9000;0.7847;0.8625;
-15.6000;0.7839;0.8601;
-15.3000;0.7790;0.8412;
-15.0000;0.7847;0.8601;
-14.7000;0.7823;0.8554;
-14.4000;0.7839;0.8554;
-14.1000;0.7823;0.8530;
-13.8000;0.7847;0.8625;
-13.5000;0.7823;0.8459;
-13.2000;0.7774;0.8364;
-12.9000;0.7831;0.8554;
-12.6000;0.7831;0.8625;
-12.3000;0.7749;0.8317;
-12.0000;0.7847;0.8412;
-11.7000;0.7798;0.8412;
-11.4000;0.7823;0.8459;
-11.1000;0.7823;0.8506;
-10.8000;0.7806;0.8530;
-10.5000;0.7847;0.8672;
-10.2000;0.7823;0.8649;
-9.9000;0.7814;0.8743;
-9.6000;0.7847;0.8886;
-9.3000;0.7831;0.8767;
-9.0000;0.7774;0.8601;
-8.7000;0.7847;0.8791;
-8.4000;0.7831;0.8672;
-8.1000;0.7896;0.8814;
-7.8000;0.7880;0.8838;
-7.5000;0.7839;0.8625;
-7.2000;0.7855;0.8649;
-6.9000;0.7920;0.8838;
-6.6000;0.7839;0.8625;
-6.3000;0.7863;0.8720;
-6.0000;0.7847;0.8720;
-5.7000;0.7920;0.8909;
-5.4000;0.7839;0.8696;
-5.1000;0.7831;0.8649;
-4.8000;0.7839;0.8720;
-4.5000;0.7863;0.8696;
-4.2000;0.7839;0.8601;
-3.9000;0.7847;0.8601;
-3.6000;0.7839;0.8649;
-3.3000;0.7839;0.8649;
-3.0000;0.7847;0.8720;
-2.7000;0.7863;0.8720;
-2.4000;0.7823;0.8601;
-2.1000;0.7855;0.8601;
-1.8000;0.7839;0.8601;
-1.5000;0.7839;0.8601;
-1.2000;0.7855;0.8696;
-0.9000;0.7871;0.8720;
-0.6000;0.7831;0.8696;
-0.3000;0.7839;0.8672;
0.0000;0.7839;0.8672;
0.3000;0.8164;0.8791;
0.6000;0.8759;0.9312;
0.9000;0.9223;0.9881;
1.2000;0.9597;1.0402;
1.5000;0.9841;1.0639;
1.8000;1.0118;1.1042;
2.1000;1.0338;1.1397;
2.4000;1.0476;1.1516;
2.7000;1.0663;1.1729;
3.0000;1.0761;1.1824;
3.3000;1.0842;1.2013;
3.6000;1.0973;1.2274;
3.9000;1.1062;1.2416;
4.2000;1.1119;1.2416;
4.5000;1.1217;1.2463;
4.8000;1.1306;1.2558;
5.1000;1.1372;1.2463;
5.4000;1.1437;1.2535;
5.7000;1.1502;1.2606;
6.0000;1.1583;1.2629;
6.3000;1.1616;1.2487;
6.6000;1.1665;1.2582;
6.9000;1.1730;1.2606;
7.2000;1.1754;1.2535;
7.5000;1.1811;1.2582;
7.8000;1.1852;1.2629;
8.1000;1.1933;1.2724;
8.4000;1.1917;1.2582;
8.7000;1.1950;1.2463;
9.0000;1.2055;1.2724;
9.3000;1.2047;1.2653;
9.6000;1.2055;1.2606;
9.9000;1.2145;1.2771;
10.2000;1.2145;1.2558;
10.5000;1.2194;1.2558;
10.8000;1.2218;1.2535;
11.1000;1.2275;1.2606;
11.4000;1.2275;1.2582;
11.7000;1.2348;1.2677;
12.0000;1.2340;1.2677;
12.3000;1.2283;1.2487;
12.6000;1.2365;1.2582;
12.9000;1.2324;1.2416;
13.2000;1.2454;1.2677;
13.5000;1.2454;1.2558;
13.8000;1.2438;1.2558;
14.1000;1.2462;1.2582;
14.4000;1.2495;1.2653;
14.7000;1.2519;1.2700;
15.0000;1.2536;1.2653;
15.3000;1.2552;1.2653;
15.6000;1.2568;1.2724;
15.9000;1.2633;1.2724;
16.2000;1.2609;1.2558;
16.5000;1.2633;1.2582;
16.8000;1.2658;1.2606;
17.1000;1.2682;1.2653;
17.4000;1.2666;1.2629;
17.7000;1.2674;1.2606;
18.0000;1.2715;1.2606;
18.3000;1.2715;1.2535;
18.6000;1.2707;1.2392;
18.9000;1.2715;1.2392;
19.2000;1.2739;1.2463;
19.5000;1.2715;1.2440;
19.8000;1.2853;1.2700;
20.1000;1.2755;1.2511;
20.4000;1.2764;1.2440;
20.7000;1.2772;1.2416;
21.0000;1.2796;1.2511;
21.3000;1.2796;1.2582;
21.6000;1.2796;1.2582;
21.9000;1.2821;1.2606;
22.2000;1.2829;1.2582;
22.5000;1.2837;1.2629;
22.8000;1.2837;1.2653;
23.1000;1.2821;1.2535;
23.4000;1.2845;1.2606;
23.7000;1.2829;1.2487;
24.0000;1.2853;1.2463;
24.3000;1.2861;1.2487;
24.6000;1.2877;1.2558;
24.9000;1.2886;1.2558;
25.2000;1.2886;1.2535;
25.5000;1.2902;1.2606;
25.8000;1.2910;1.2582;
26.1000;1.2943;1.2677;
26.4000;1.2975;1.2748;
26.7000;1.2926;1.2653;
27.0000;1.2926;1.2558;
27.3000;1.2951;1.2582;
27.6000;1.2959;1.2606;
27.9000;1.2943;1.2511;
28.2000;1.2975;1.2606;
28.5000;1.2975;1.2653;
28.8000;1.2975;1.2724;
29.1000;1.2943;1.2511;
29.4000;1.2975;1.2582;
29.7000;1.2943;1.2487;
30.0000;1.2983;1.2629;
30.3000;1.2983;1.2535;
30.6000;1.3040;1.2629;
30.9000;1.3040;1.2629;
31.2000;1.3032;1.2700;
31.5000;1.3000;1.2558;
31.8000;1.3024;1.2558;
32.1000;1.3000;1.2535;
32.4000;1.3024;1.2629;
32.7000;1.3040;1.2582;
33.0000;1.3008;1.2535;
33.3000;1.3057;1.2700;
33.6000;1.3008;1.2511;
33.9000;1.3057;1.2487;
34.2000;1.3057;1.2463;
34.5000;1.3040;1.2487;
34.8000;1.3040;1.2606;
35.1000;1.3040;1.2558;
35.4000;1.3040;1.2463;
35.7000;1.3008;1.2250;
36.0000;1.3065;1.2440;
36.3000;1.3065;1.2487;
36.6000;1.3073;1.2535;
36.9000;1.3073;1.2440;
37.2000;1.3097;1.2535;
37.5000;1.3105;1.2582;
37.8000;1.3097;1.2535;
38.1000;1.3105;1.2511;
38.4000;1.3089;1.2416;
38.7000;1.3114;1.2440;
39.0000;1.3097;1.2416;
39.3000;1.3114;1.2369;
39.6000;1.3097;1.2345;
39.9000;1.3114;1.2369;
40.2000;1.3146;1.2345;
40.5000;1.3130;1.2298;
40.8000;1.3105;1.2274;
41.1000;1.3122;1.2345;
41.4000;1.3105;1.2250;
41.7000;1.3105;1.2250;
42.0000;1.3122;1.2250;
42.3000;1.3146;1.2298;
42.6000;1.3130;1.2321;
42.9000;1.3146;1.2298;
43.2000;1.3154;1.2298;
43.5000;1.3146;1.2250;
43.8000;1.3146;1.2203;
44.1000;1.3154;1.2179;
44.4000;1.3146;1.2250;
44.7000;1.3171;1.2298;
45.0000;1.3122;1.2227;
45.3000;1.3187;1.2321;
45.6000;1.3146;1.2155;
45.9000;1.3146;1.2179;
46.2000;1.3146;1.2155;
46.5000;1.3187;1.2298;
46.8000;1.3154;1.2132;
47.1000;1.3162;1.2227;
47.4000;1.3179;1.2203;
47.7000;1.3171;1.2227;
48.0000;1.3187;1.2227;
48.3000;1.3187;1.2203;
48.6000;1.3276;1.2369;
48.9000;1.3179;1.2179;
49.2000;1.3203;1.2274;
49.5000;1.3146;1.2203;
49.8000;1.3179;1.2227;
50.1000;1.3195;1.2155;
50.4000;1.3179;1.2179;
50.7000;1.3179;1.2155;
51.0000;1.3171;1.2250;
51.3000;1.3179;1.2274;
51.6000;1.3187;1.2416;
51.9000;1.3171;1.2440;
52.2000;1.3244;1.2629;
52.5000;1.3195;1.2535;
52.8000;1.3195;1.2463;
53.1000;1.3187;1.2369;
53.4000;1.3203;1.2369;
53.7000;1.3195;1.2369;
54.0000;1.3203;1.2369;
54.3000;1.3203;1.2392;
54.6000;1.3195;1.2345;
54.9000;1.3211;1.2369;
55.2000;1.3211;1.2416;
55.5000;1.3219;1.2298;
55.8000;1.3187;1.2179;
56.1000;1.3228;1.2345;
56.4000;1.3211;1.2274;
56.7000;1.3228;1.2345;
57.0000;1.3203;1.2250;
57.3000;1.3236;1.2345;
57.6000;1.3236;1.2392;
57.9000;1.3228;1.2369;
58.2000;1.3236;1.2463;
58.5000;1.3236;1.2558;
58.8000;1.3228;1.2606;
59.1000;1.3187;1.2535;
59.4000;1.3228;1.2606;
59.7000;1.3187;1.2511;
60.0000;1.3236;1.2629;
60.3000;1.3228;1.2582;
60.6000;1.3236;1.2535;
60.9000;1.3211;1.2369;
61.2000;1.3236;1.2345;
61.5000;1.3236;1.2321;
61.8000;1.3244;1.2274;
62.1000;1.3211;1.2250;
62.4000;1.3293;1.2440;
62.7000;1.3228;1.2250;
63.0000;1.3171;1.2155;
63.3000;1.3228;1.2321;
63.6000;1.3252;1.2345;
63.9000;1.3268;1.2392;
64.2000;1.3236;1.2416;
64.5000;1.3236;1.2511;
64.8000;1.3236;1.2463;
65.1000;1.3333;1.2700;
65.4000;1.3236;1.2463;
65.7000;1.3260;1.2606;
66.0000;1.3260;1.2487;
66.3000;1.3252;1.2606;
66.6000;1.3236;1.2629;
66.9000;1.3268;1.2795;
67.2000;1.3244;1.2629;
67.5000;1.3268;1.2606;
67.8000;1.3268;1.2653;
68.1000;1.3276;1.2677;
68.4000;1.3252;1.2653;
68.7000;1.3236;1.2606;
69.0000;1.3236;1.2582;
69.3000;1.3268;1.2629;
69.6000;1.3260;1.2677;
69.9000;1.3268;1.2700;
70.2000;1.3268;1.2700;
70.5000;1.3252;1.2535;
70.8000;1.3244;1.2558;
71.1000;1.3260;1.2535;
71.4000;1.3252;1.2535;
71.7000;1.3244;1.2582;
72.0000;1.3252;1.2535;
72.3000;1.3268;1.2535;
72.6000;1.3244;1.2463;
72.9000;1.3260;1.2440;
73.2000;1.3268;1.2511;
73.5000;1.3268;1.2463;
73.8000;1.3284;1.2463;
74.1000;1.3268;1.2369;
74.4000;1.3284;1.2463;
74.7000;1.3268;1.2463;
75.0000;1.3268;1.2535;
75.3000;1.3244;1.2487;
75.6000;1.3276;1.2511;
75.9000;1.3260;1.2487;
76.2000;1.3284;1.2535;
76.5000;1.3260;1.2558;
76.8000;1.3284;1.2582;
77.1000;1.3276;1.2558;
77.4000;1.3252;1.2511;
77.7000;1.3260;1.2440;
78.0000;1.3260;1.2511;
78.3000;1.3276;1.2487;
78.6000;1.3268;1.2535;
78.9000;1.3317;1.2606;
79.2000;1.3260;1.2535;
79.5000;1.3260;1.2416;
79.8000;1.3301;1.2440;
80.1000;1.3260;1.2369;
80.4000;1.3276;1.2463;
80.7000;1.3244;1.2369;
81.0000;1.3260;1.2321;
81.3000;1.3276;1.2345;
81.6000;1.3268;1.2321;
81.9000;1.3268;1.2298;
82.2000;1.3276;1.2298;
82.5000;1.3268;1.2345;
82.8000;1.3276;1.2440;
83.1000;1.3268;1.2416;
83.4000;1.3195;1.2250;
83.7000;1.3252;1.2487;
84.0000;1.3268;1.2535;
84.3000;1.3219;1.2440;
84.6000;1.3284;1.2535;
84.9000;1.3260;1.2416;
85.2000;1.3236;1.2321;
85.5000;1.3284;1.2440;
85.8000;1.3268;1.2392;
86.1000;1.3276;1.2463;
86.4000;1.3260;1.2440;
86.7000;1.3244;1.2392;
87.0000;1.3309;1.2511;
87.3000;1.3252;1.2416;
87.6000;1.3268;1.2487;
87.9000;1.3284;1.2558;
88.2000;1.3276;1.2558;
88.5000;1.3390;1.2724;
88.8000;1.3301;1.2558;
89.1000;1.3284;1.2558;
89.4000;1.3268;1.2511;
89.7000;1.3284;1.2606;
90.0000;1.3301;1.2606;
90.3000;1.3293;1.2653;
90.6000;1.3301;1.2535;
90.9000;1.3284;1.2606;
91.2000;1.3293;1.2629;
91.5000;1.3244;1.2511;
91.8000;1.3284;1.2487;
92.1000;1.3301;1.2487;
92.4000;1.3309;1.2582;
92.7000;1.3293;1.2606;
93.0000;1.3284;1.2582;
93.3000;1.3301;1.2511;
93.6000;1.3293;1.2511;
93.9000;1.3284;1.2345;
94.2000;1.3301;1.2345;
94.5000;1.3301;1.2369;
94.8000;1.3301;1.2345;
95.1000;1.3284;1.2345;
95.4000;1.3268;1.2345;
95.7000;1.3276;1.2440;
96.0000;1.3301;1.2463;
96.3000;1.3293;1.2440;
96.6000;1.3236;1.2274;
96.9000;1.3284;1.2416;
97.2000;1.3284;1.2321;
97.5000;1.3309;1.2321;
97.8000;1.3301;1.2203;
98.1000;1.3252;1.2084;
98.4000;1.3293;1.2227;
98.7000;1.3293;1.2227;
99.0000;1.3317;1.2298;
99.3000;1.3301;1.2179;
99.6000;1.3309;1.2179;
99.9000;1.3260;1.2013;
100.2000;1.3325;1.2132;
100.5000;1.3317;1.2155;
100.8000;1.3293;1.2132;
101.1000;1.3309;1.2203;
101.4000;1.3317;1.2227;
101.7000;1.3317;1.2179;
102.0000;1.3341;1.2203;
102.3000;1.3301;1.2084;
102.6000;1.3293;1.2108;
102.9000;1.3276;1.2084;
103.2000;1.3293;1.2108;
103.5000;1.3284;1.2108;
103.8000;1.3293;1.2132;
104.1000;1.3309;1.2132;
104.4000;1.3293;1.2155;
104.7000;1.3293;1.2298;
105.0000;1.3325;1.2392;
105.3000;1.3317;1.2345;
105.6000;1.3309;1.2392;
105.9000;1.3309;1.2369;
106.2000;1.3325;1.2416;
106.5000;1.3325;1.2416;
106.8000;1.3317;1.2463;
107.1000;1.3333;1.2606;
107.4000;1.3309;1.2511;
107.7000;1.3236;1.2298;
108.0000;1.3309;1.2463;
108.3000;1.3284;1.2463;
108.6000;1.3309;1.2440;
108.9000;1.3309;1.2392;
109.2000;1.3293;1.2369;
109.5000;1.3309;1.2416;
109.8000;1.3301;1.2440;
110.1000;1.3325;1.2463;
110.4000;1.3333;1.2535;
110.7000;1.3309;1.2487;
111.0000;1.3309;1.2440;
111.3000;1.3309;1.2535;
111.6000;1.3333;1.2558;
111.9000;1.3317;1.2440;
112.2000;1.3325;1.2392;
112.5000;1.3333;1.2392;
112.8000;1.3309;1.2298;
113.1000;1.3309;1.2274;
113.4000;1.3309;1.2298;
113.7000;1.3309;1.2298;
114.0000;1.3301;1.2250;
114.3000;1.3284;1.2250;
114.6000;1.3309;1.2298;
114.9000;1.3236;1.2132;
115.2000;1.3309;1.2298;
115.5000;1.3333;1.2463;
115.8000;1.3317;1.2298;
116.1000;1.3301;1.2203;
116.4000;1.3325;1.2298;
116.7000;1.3301;1.2203;
117.0000;1.3309;1.2298;
117.3000;1.3284;1.2274;
117.6000;1.3260;1.2203;
117.9000;1.3293;1.2321;
118.2000;1.3293;1.2369;
118.5000;1.3301;1.2463;
118.8000;1.3284;1.2369;
119.1000;1.3309;1.2392;
119.4000;1.3301;1.2274;
119.7000;1.3333;1.2298;
120.0000;1.3317;1.2274;
120.3000;1.3301;1.2203;
120.6000;1.3382;1.2369;
120.9000;1.3317;1.2155;
121.2000;1.3309;1.2155;
121.5000;1.3301;1.2227;
121.8000;1.3325;1.2298;
122.1000;1.3284;1.2321;
122.4000;1.3293;1.2274;
122.7000;1.3293;1.2250;
123.0000;1.3301;1.2203;
123.3000;1.3301;1.2179;
123.6000;1.3252;1.2037;
123.9000;1.3317;1.2132;
124.2000;1.3309;1.2084;
124.5000;1.3317;1.2084;
124.8000;1.3358;1.2250;
125.1000;1.3333;1.2250;
125.4000;1.3350;1.2345;
125.7000;1.3358;1.2345;
126.0000;1.3317;1.2274;
126.3000;1.3317;1.2274;
126.6000;1.3293;1.2345;
126.9000;1.3317;1.2369;
127.2000;1.3309;1.2369;
127.5000;1.3276;1.2298;
127.8000;1.3301;1.2416;
128.1000;1.3309;1.2511;
128.4000;1.3317;1.2487;
128.7000;1.3309;1.2511;
129.0000;1.3309;1.2535;
129.3000;1.3317;1.2558;
129.6000;1.3284;1.2535;
129.9000;1.3309;1.2535;
130.2000;1.3309;1.2535;
130.5000;1.3284;1.2463;
130.8000;1.3325;1.2511;
131.1000;1.3317;1.2416;
131.4000;1.3301;1.2298;
131.7000;1.3309;1.2392;
132.0000;1.3309;1.2392;
132.3000;1.3317;1.2369;
132.6000;1.3341;1.2416;
132.9000;1.3317;1.2321;
133.2000;1.3341;1.2345;
133.5000;1.3341;1.2392;
133.8000;1.3309;1.2440;
134.1000;1.3317;1.2392;
134.4000;1.3333;1.2392;
134.7000;1.3341;1.2440;
135.0000;1.3325;1.2392;
135.3000;1.3309;1.2274;
135.6000;1.3309;1.2298;
135.9000;1.3398;1.2487;
136.2000;1.3333;1.2321;
136.5000;1.3333;1.2345;
136.8000;1.3317;1.2345;
137.1000;1.3309;1.2298;
137.4000;1.3309;1.2298;
137.7000;1.3317;1.2392;
138.0000;1.3309;1.2392;
138.3000;1.3301;1.2416;
138.6000;1.3301;1.2392;
138.9000;1.3317;1.2416;
139.2000;1.3317;1.2416;
139.5000;1.3390;1.2558;
139.8000;1.3341;1.2487;
140.1000;1.3325;1.2440;
140.4000;1.3293;1.2274;
140.7000;1.3333;1.2321;
141.0000;1.3317;1.2298;
141.3000;1.3341;1.2321;
141.6000;1.3341;1.2392;
141.9000;1.3317;1.2345;
142.2000;1.3358;1.2487;
142.5000;1.3325;1.2463;
142.8000;1.3276;1.2298;
143.1000;1.3276;1.2487;
143.4000;1.3276;1.2511;
143.7000;1.3350;1.2629;
144.0000;1.3309;1.2511;
144.3000;1.3293;1.2440;
144.6000;1.3366;1.2677;
144.9000;1.3325;1.2558;
145.2000;1.3309;1.2629;
145.5000;1.3333;1.2724;
145.8000;1.3325;1.2653;
146.1000;1.3309;1.2582;
146.4000;1.3317;1.2606;
146.7000;1.3284;1.2487;
147.0000;1.3309;1.2511;
147.3000;1.3317;1.2463;
147.6000;1.3333;1.2392;
147.9000;1.3317;1.2298;
148.2000;1.3317;1.2369;
148.5000;1.3317;1.2369;
148.8000;1.3333;1.2535;
149.1000;1.3333;1.2511;
149.4000;1.3341;1.2582;
149.7000;1.3301;1.2511;
150.0000;1.3341;1.2535;
150.3000;1.3333;1.2487;
150.6000;1.3333;1.2558;
150.9000;1.3398;1.2629;
151.2000;1.3244;1.2227;
151.5000;1.3317;1.2463;
151.8000;1.3325;1.2416;
152.1000;1.3309;1.2345;
152.4000;1.3333;1.2298;
152.7000;1.3341;1.2321;
153.0000;1.3333;1.2369;
153.3000;1.3325;1.2440;
153.6000;1.3333;1.2487;
153.9000;1.3333;1.2535;
154.2000;1.3317;1.2535;
154.5000;1.3325;1.2345;
154.8000;1.3309;1.2298;
155.1000;1.3333;1.2298;
155.4000;1.3325;1.2321;
155.7000;1.3341;1.2463;
156.0000;1.3293;1.2463;
156.3000;1.3374;1.2606;
156.6000;1.3333;1.2487;
156.9000;1.3309;1.2487;
157.2000;1.3317;1.2558;
157.5000;1.3325;1.2535;
157.8000;1.3293;1.2416;
158.1000;1.3325;1.2487;
158.4000;1.3301;1.2463;
158.7000;1.3317;1.2463;
159.0000;1.3325;1.2487;
159.3000;1.3374;1.2724;
159.6000;1.3325;1.2511;
159.9000;1.3333;1.2463;
160.2000;1.3333;1.2535;
160.5000;1.3317;1.2535;
160.8000;1.3317;1.2487;
161.1000;1.3333;1.2487;
161.4000;1.3350;1.2558;
161.7000;1.3333;1.2606;
162.0000;1.3284;1.2440;
162.3000;1.3260;1.2345;
162.6000;1.3317;1.2463;
162.9000;1.3341;1.2440;
163.2000;1.3398;1.2582;
163.5000;1.3325;1.2440;
163.8000;1.3317;1.2463;
164.1000;1.3317;1.2440;
164.4000;1.3350;1.2440;
164.7000;1.3293;1.2274;
165.0000;1.3301;1.2298;
165.3000;1.3309;1.2321;
165.6000;1.3293;1.2227;
165.9000;1.3333;1.2369;
166.2000;1.3341;1.2298;
166.5000;1.3317;1.2298;
166.8000;1.3276;1.2250;
167.1000;1.3317;1.2416;
167.4000;1.3341;1.2511;
167.7000;1.3325;1.2535;
168.0000;1.3317;1.2463;
168.3000;1.3325;1.2392;
168.6000;1.3325;1.2440;
168.9000;1.3325;1.2392;
169.2000;1.3341;1.2416;
169.5000;1.3325;1.2440;
169.8000;1.3301;1.2416;
170.1000;1.3317;1.2487;
170.4000;1.3333;1.2535;
170.7000;1.3301;1.2440;
171.0000;1.3309;1.2440;
171.3000;1.3309;1.2511;
171.6000;1.3309;1.2440;
171.9000;1.3325;1.2416;
172.2000;1.3309;1.2440;
172.5000;1.3325;1.2511;
172.8000;1.3358;1.2629;
173.1000;1.3333;1.2535;
173.4000;1.3309;1.2558;
173.7000;1.3366;1.2677;
174.0000;1.3333;1.2582;
174.3000;1.3350;1.2606;
174.6000;1.3333;1.2558;
174.9000;1.3309;1.2487;
175.2000;1.3309;1.2345;
175.5000;1.3317;1.2345;
175.8000;1.3333;1.2440;
176.1000;1.3325;1.2487;
176.4000;1.3309;1.2487;
176.7000;1.3333;1.2582;
177.0000;1.3358;1.2629;
177.3000;1.3325;1.2606;
177.6000;1.3341;1.2582;
177.9000;1.3341;1.2582;
178.2000;1.3358;1.2582;
178.5000;1.3301;1.2463;
178.8000;1.3350;1.2463;
179.1000;1.3317;1.2369;
179.4000;1.3341;1.2511;
179.7000;1.3333;1.2487;
180.0000;1.3317;1.2416;
180.3000;1.3309;1.2298;
180.6000;1.3325;1.2274;
180.9000;1.3276;1.2227;
181.2000;1.3317;1.2298;
181.5000;1.3252;1.2179;
181.8000;1.3309;1.2345;
182.1000;1.3325;1.2345;
182.4000;1.3317;1.2250;
182.7000;1.3301;1.2227;
183.0000;1.3276;1.2203;
183.3000;1.3333;1.2321;
183.6000;1.3333;1.2250;
183.9000;1.3341;1.2298;
184.2000;1.3317;1.2298;
184.5000;1.3325;1.2227;
184.8000;1.3317;1.2203;
185.1000;1.3309;1.2227;
185.4000;1.3333;1.2321;
185.7000;1.3325;1.2369;
186.0000;1.3341;1.2369;
186.3000;1.3341;1.2369;
186.6000;1.3309;1.2274;
186.9000;1.3341;1.2392;
187.2000;1.3333;1.2463;
187.5000;1.3325;1.2392;
187.8000;1.3333;1.2369;
188.1000;1.3358;1.2392;
188.4000;1.3358;1.2321;
188.7000;1.3301;1.2298;
189.0000;1.3333;1.2369;
189.3000;1.3317;1.2321;
189.6000;1.3309;1.2416;
189.9000;1.3325;1.2440;
190.2000;1.3309;1.2392;
190.5000;1.3423;1.2535;
190.8000;1.3325;1.2250;
191.1000;1.3341;1.2250;
191.4000;1.3317;1.2250;
191.7000;1.3341;1.2321;
192.0000;1.3325;1.2321;
192.3000;1.3341;1.2392;
192.6000;1.3333;1.2416;
192.9000;1.3317;1.2463;
193.2000;1.3325;1.2487;
193.5000;1.3317;1.2487;
193.8000;1.3309;1.2416;
194.1000;1.3325;1.2416;
194.4000;1.3325;1.2321;
194.7000;1.3333;1.2345;
195.0000;1.3293;1.2369;
195.3000;1.3309;1.2321;
195.6000;1.3317;1.2321;
195.9000;1.3325;1.2345;
196.2000;1.3325;1.2274;
196.5000;1.3325;1.2250;
196.8000;1.3325;1.2203;
197.1000;1.3325;1.2227;
197.4000;1.3341;1.2250;
197.7000;1.3366;1.2298;
198.0000;1.3317;1.2298;
198.3000;1.3333;1.2369;
198.6000;1.3341;1.2416;
198.9000;1.3228;1.2250;
199.2000;1.3317;1.2487;
199.5000;1.3301;1.2511;
199.8000;1.3260;1.2392;
200.1000;1.3268;1.2416;
200.4000;1.3228;1.2274;
200.7000;1.3309;1.2392;
201.0000;1.3325;1.2487;
201.3000;1.3317;1.2511;
201.6000;1.3325;1.2416;
201.9000;1.3309;1.2345;
202.2000;1.3268;1.2179;
202.5000;1.3309;1.2250;
202.8000;1.3333;1.2321;
203.1000;1.3309;1.2321;
203.4000;1.3333;1.2321;
203.7000;1.3317;1.2345;
204.0000;1.3333;1.2321;
204.3000;1.3333;1.2227;
204.6000;1.3317;1.2227;
204.9000;1.3325;1.2274;
205.2000;1.3333;1.2274;
205.5000;1.3268;1.2132;
205.8000;1.3301;1.2179;
206.1000;1.3358;1.2298;
206.4000;1.3333;1.2274;
206.7000;1.3325;1.2274;
207.0000;1.3390;1.2392;
207.3000;1.3301;1.2179;
207.6000;1.3350;1.2274;
207.9000;1.3309;1.2250;
208.2000;1.3317;1.2345;
208.5000;1.3341;1.2416;
208.8000;1.3350;1.2511;
209.1000;1.3333;1.2511;
209.4000;1.3341;1.2487;
209.7000;1.3333;1.2463;
210.0000;1.3317;1.2392;
210.3000;1.3350;1.2463;
210.6000;1.3325;1.2463;
210.9000;1.3309;1.2392;
211.2000;1.3341;1.2487;
211.5000;1.3341;1.2440;
211.8000;1.3341;1.2463;
212.1000;1.3333;1.2487;
212.4000;1.3341;1.2535;
212.7000;1.3341;1.2535;
213.0000;1.3317;1.2392;
213.3000;1.3317;1.2416;
213.6000;1.3333;1.2416;
213.9000;1.3341;1.2440;
214.2000;1.3333;1.2487;
214.5000;1.3341;1.2416;
214.8000;1.3317;1.2369;
215.1000;1.3350;1.2321;
215.4000;1.3382;1.2274;
215.7000;1.3333;1.2274;
216.0000;1.3333;1.2203;
216.3000;1.3333;1.2155;
216.6000;1.3333;1.2203;
216.9000;1.3333;1.2227;
217.2000;1.3317;1.2179;
217.5000;1.3317;1.2227;
217.8000;1.3341;1.2274;
218.1000;1.3333;1.2274;
218.4000;1.3309;1.2321;
218.7000;1.3309;1.2463;
219.0000;1.3325;1.2487;
219.3000;1.3325;1.2392;
219.6000;1.3333;1.2369;
219.9000;1.3317;1.2392;
220.2000;1.3309;1.2463;
220.5000;1.3317;1.2345;
220.8000;1.3317;1.2298;
221.1000;1.3333;1.2274;
221.4000;1.3333;1.2416;
221.7000;1.3325;1.2345;
222.0000;1.3317;1.2321;
222.3000;1.3333;1.2392;
222.6000;1.3309;1.2321;
222.9000;1.3317;1.2250;
223.2000;1.3301;1.2179;
223.5000;1.3301;1.2227;
223.8000;1.3317;1.2274;
224.1000;1.3325;1.2369;
224.4000;1.3333;1.2463;
224.7000;1.3333;1.2416;
225.0000;1.3309;1.2345;
225.3000;1.3325;1.2298;
225.6000;1.3333;1.2416;
225.9000;1.3301;1.2321;
226.2000;1.3301;1.2274;
226.5000;1.3317;1.2250;
226.8000;1.3350;1.2369;
227.1000;1.3317;1.2345;
227.4000;1.3317;1.2345;
227.7000;1.3301;1.2274;
228.0000;1.3333;1.2321;
228.3000;1.3325;1.2392;
228.6000;1.3333;1.2345;
228.9000;1.3341;1.2345;
229.2000;1.3325;1.2345;
229.5000;1.3407;1.2463;
229.8000;1.3341;1.2392;
230.1000;1.3325;1.2321;
230.4000;1.3325;1.2345;
230.7000;1.3325;1.2321;
231.0000;1.3309;1.2298;
231.3000;1.3244;1.2084;
231.6000;1.3325;1.2274;
231.9000;1.3301;1.2274;
232.2000;1.3325;1.2392;
232.5000;1.3317;1.2369;
232.8000;1.3358;1.2535;
233.1000;1.3350;1.2511;
233.4000;1.3366;1.2535;
233.7000;1.3333;1.2416;
234.0000;1.3317;1.2416;
234.3000;1.3341;1.2440;
234.6000;1.3317;1.2416;
234.9000;1.3325;1.2416;
235.2000;1.3325;1.2440;
235.5000;1.3350;1.2487;
235.8000;1.3333;1.2511;
236.1000;1.3309;1.2416;
236.4000;1.3309;1.2369;
236.7000;1.3317;1.2345;
237.0000;1.3325;1.2250;
237.3000;1.3317;1.2203;
237.6000;1.3219;1.1990;
237.9000;1.3309;1.2227;
238.2000;1.3317;1.2227;
238.5000;1.3333;1.2274;
238.8000;1.3317;1.2298;
239.1000;1.3341;1.2369;
239.4000;1.3333;1.2392;
239.7000;1.3358;1.2511;
240.0000;1.3333;1.2440;
240.3000;1.3333;1.2487;
240.6000;1.3309;1.2416;
240.9000;1.3350;1.2511;
241.2000;1.3325;1.2416;
241.5000;1.3309;1.2416;
241.8000;1.3301;1.2392;
242.1000;1.3325;1.2345;
242.4000;1.3317;1.2392;
242.7000;1.3350;1.2440;
243.0000;1.3317;1.2345;
243.3000;1.3325;1.2416;
243.6000;1.3309;1.2369;
243.9000;1.3317;1.2392;
244.2000;1.3284;1.2345;
244.5000;1.3333;1.2321;
244.8000;1.3390;1.2487;
245.1000;1.3333;1.2345;
245.4000;1.3333;1.2369;
245.7000;1.3301;1.2179;
246.0000;1.3341;1.2250;
246.3000;1.3317;1.2132;
246.6000;1.3333;1.2132;
246.9000;1.3333;1.2227;
247.2000;1.3301;1.2179;
247.5000;1.3333;1.2227;
247.8000;1.3333;1.2108;
248.1000;1.3341;1.2132;
248.4000;1.3325;1.2179;
248.7000;1.3341;1.2274;
249.0000;1.3350;1.2298;
249.3000;1.3341;1.2250;
249.6000;1.3333;1.2179;
249.9000;1.3325;1.2179;
250.2000;1.3252;1.2037;
250.5000;1.3317;1.2250;
250.8000;1.3325;1.2227;
251.1000;1.3325;1.2227;
251.4000;1.3325;1.2274;
251.7000;1.3333;1.2274;
252.0000;1.3333;1.2203;
252.3000;1.3358;1.2203;
252.6000;1.3228;1.1942;
252.9000;1.3341;1.2274;
253.2000;1.3325;1.2321;
253.5000;1.3333;1.2392;
253.8000;1.3333;1.2487;
254.1000;1.3333;1.2535;
254.4000;1.3325;1.2582;
254.7000;1.3317;1.2463;
255.0000;1.3325;1.2416;
255.3000;1.3415;1.2677;
255.6000;1.3260;1.2227;
255.9000;1.3333;1.2392;
256.2000;1.3341;1.2369;
256.5000;1.3358;1.2440;
256.8000;1.3333;1.2321;
257.1000;1.3341;1.2416;
257.4000;1.3390;1.2487;
257.7000;1.3333;1.2298;
258.0000;1.3333;1.2369;
258.3000;1.3333;1.2321;
258.6000;1.3293;1.2132;
258.9000;1.3341;1.2203;
259.2000;1.3341;1.2179;
259.5000;1.3341;1.2084;
259.8000;1.3333;1.2061;
260.1000;1.3252;1.1895;
260.4000;1.3333;1.2227;
260.7000;1.3333;1.2179;
261.0000;1.3309;1.2132;
261.3000;1.3317;1.2179;
261.6000;1.3382;1.2132;
261.9000;1.3366;1.2203;
262.2000;1.3317;1.2179;
262.5000;1.3317;1.2227;
262.8000;1.3317;1.2274;
263.1000;1.3309;1.2321;
263.4000;1.3309;1.2321;
263.7000;1.3317;1.2298;
264.0000;1.3350;1.2392;
264.3000;1.3325;1.2345;
264.6000;1.3309;1.2321;
264.9000;1.3325;1.2463;
265.2000;1.3317;1.2369;
265.5000;1.3325;1.2345;
265.8000;1.3317;1.2250;
266.1000;1.3333;1.2345;
266.4000;1.3325;1.2345;
266.7000;1.3325;1.2298;
267.0000;1.3236;1.2084;
267.3000;1.3325;1.2132;
267.6000;1.3325;1.2061;
267.9000;1.3309;1.2108;
268.2000;1.3317;1.2250;
268.5000;1.3317;1.2155;
268.8000;1.3325;1.2132;
269.1000;1.3350;1.2108;
269.4000;1.3325;1.2084;
269.7000;1.3317;1.2084;
270.0000;1.3325;1.2203;
270.3000;1.3341;1.2155;
270.6000;1.3350;1.2132;
270.9000;1.3325;1.2061;
271.2000;1.3423;1.2250;
271.5000;1.3341;1.2084;
271.8000;1.3341;1.2108;
272.1000;1.3333;1.2084;
272.4000;1.3317;1.1990;
272.7000;1.3284;1.1918;
273.0000;1.3333;1.2061;
273.3000;1.3374;1.2155;
273.6000;1.3317;1.2013;
273.9000;1.3366;1.2037;
274.2000;1.3350;1.1990;
274.5000;1.3325;1.1942;
274.8000;1.3341;1.1990;
275.1000;1.3341;1.1990;
275.4000;1.3317;1.1918;
275.7000;1.3350;1.2013;
276.0000;1.3333;1.1990;
276.3000;1.3325;1.2061;
276.6000;1.3341;1.2203;
276.9000;1.3333;1.2203;
277.2000;1.3309;1.2227;
277.5000;1.3317;1.2274;
277.8000;1.3341;1.2345;
278.1000;1.3325;1.2298;
278.4000;1.3309;1.2227;
278.7000;1.3325;1.2227;
279.0000;1.3333;1.2132;
279.3000;1.3309;1.2037;
279.6000;1.3333;1.2037;
279.9000;1.3317;1.2084;
280.2000;1.3325;1.2061;
280.5000;1.3341;1.2108;
280.8000;1.3325;1.2061;
281.1000;1.3309;1.2108;
281.4000;1.3350;1.2155;
281.7000;1.3325;1.2203;
282.0000;1.3350;1.2203;
282.3000;1.3325;1.2037;
282.6000;1.3276;1.1847;
282.9000;1.3333;1.2037;
283.2000;1.3317;1.2061;
283.5000;1.3309;1.2179;
283.8000;1.3325;1.2084;
284.1000;1.3333;1.2061;
284.4000;1.3341;1.2061;
284.7000;1.3325;1.1966;
285.0000;1.3325;1.1942;
285.3000;1.3333;1.1966;
285.6000;1.3350;1.2013;
285.9000;1.3333;1.2013;
286.2000;1.3333;1.2037;
286.5000;1.3317;1.2037;
286.8000;1.3325;1.2037;
287.1000;1.3325;1.1966;
287.4000;1.3366;1.2061;
287.7000;1.3325;1.2037;
288.0000;1.3333;1.2155;
288.3000;1.3333;1.2108;
288.6000;1.3317;1.2084;
288.9000;1.3317;1.2155;
289.2000;1.3341;1.2298;
289.5000;1.3341;1.2179;
289.8000;1.3325;1.2203;
290.1000;1.3325;1.2250;
290.4000;1.3325;1.2250;
290.7000;1.3317;1.2369;
291.0000;1.3333;1.2392;
291.3000;1.3317;1.2345;
291.6000;1.3317;1.2392;
291.9000;1.3244;1.2227;
292.2000;1.3317;1.2416;
292.5000;1.3358;1.2369;
292.8000;1.3358;1.2369;
293.1000;1.3358;1.2416;
293.4000;1.3358;1.2463;
293.7000;1.3325;1.2321;
294.0000;1.3341;1.2416;
294.3000;1.3333;1.2274;
294.6000;1.3350;1.2203;
294.9000;1.3333;1.2155;
295.2000;1.3317;1.2084;
295.5000;1.3317;1.2037;
295.8000;1.3374;1.2108;
296.1000;1.3341;1.2013;
296.4000;1.3374;1.2227;
296.7000;1.3333;1.2013;
297.0000;1.3341;1.1990;
297.3000;1.3301;1.1966;
297.6000;1.3317;1.2108;
297.9000;1.3325;1.2227;
298.2000;1.3317;1.2274;
298.5000;1.3228;1.1990;
298.8000;1.3333;1.2179;
299.1000;1.3309;1.2155;
299.4000;1.3341;1.2155;
299.7000;1.3276;1.2084;
300.0000;1.3301;1.2132;
300.3000;1.3325;1.2155;
300.6000;1.3333;1.2132;
300.9000;1.3333;1.2179;
301.2000;1.3317;1.2179;
301.5000;1.3325;1.2227;
301.8000;1.3333;1.2203;
302.1000;1.3341;1.2203;
302.4000;1.3341;1.2227;
302.7000;1.3350;1.2203;
303.0000;1.3325;1.2132;
303.3000;1.3325;1.2084;
303.6000;1.3341;1.2013;
303.9000;1.3333;1.2037;
304.2000;1.3333;1.2061;
304.5000;1.3333;1.2108;
304.8000;1.3358;1.2084;
305.1000;1.3333;1.2132;
305.4000;1.3317;1.2084;
305.7000;1.3333;1.2084;
306.0000;1.3333;1.2013;
306.3000;1.3341;1.2084;
306.6000;1.3317;1.2084;
306.9000;1.3325;1.2227;
307.2000;1.3325;1.2250;
307.5000;1.3301;1.2084;
307.8000;1.3333;1.2179;
308.1000;1.3309;1.2155;
308.4000;1.3317;1.2227;
308.7000;1.3325;1.2155;
309.0000;1.3333;1.2179;
309.3000;1.3317;1.2179;
309.6000;1.3325;1.2155;
309.9000;1.3325;1.2084;
310.2000;1.3317;1.2013;
310.5000;1.3333;1.2013;
310.8000;1.3341;1.2013;
311.1000;1.3260;1.1776;
311.4000;1.3333;1.1990;
311.7000;1.3333;1.1990;
312.0000;1.3317;1.1918;
312.3000;1.3341;1.2037;
312.6000;1.3374;1.2155;
312.9000;1.3341;1.2132;
313.2000;1.3333;1.2132;
313.5000;1.3268;1.2037;
313.8000;1.3333;1.2155;
314.1000;1.3317;1.2155;
314.4000;1.3317;1.2084;
314.7000;1.3325;1.2061;
315.0000;1.3325;1.1918;
315.3000;1.3341;1.2037;
315.6000;1.3317;1.2084;
315.9000;1.3382;1.2298;
316.2000;1.3350;1.2203;
316.5000;1.3341;1.2274;
316.8000;1.3350;1.2298;
317.1000;1.3268;1.2061;
317.4000;1.3333;1.2179;
317.7000;1.3325;1.2179;
318.0000;1.3276;1.2037;
318.3000;1.3309;1.2037;
318.6000;1.3284;1.2013;
318.9000;1.3325;1.2084;
319.2000;1.3325;1.2013;
319.5000;1.3317;1.2061;
319.8000;1.3325;1.2037;
320.1000;1.3350;1.2013;
320.4000;1.3325;1.2013;
320.7000;1.3333;1.2061;
321.0000;1.3325;1.2037;
321.3000;1.3333;1.2084;
321.6000;1.3317;1.2179;
321.9000;1.3341;1.2227;
322.2000;1.3309;1.2108;
322.5000;1.3325;1.2108;
322.8000;1.3333;1.2155;
323.1000;1.3325;1.2108;
323.4000;1.3358;1.2179;
323.7000;1.3350;1.2155;
324.0000;1.3341;1.2155;
324.3000;1.3350;1.2227;
324.6000;1.3317;1.2227;
324.9000;1.3325;1.2203;
325.2000;1.3341;1.2250;
325.5000;1.3358;1.2250;
325.8000;1.3341;1.2203;
326.1000;1.3333;1.2227;
326.4000;1.3333;1.2298;
326.7000;1.3341;1.2369;
327.0000;1.3325;1.2321;
327.3000;1.3317;1.2321;
327.6000;1.3325;1.2345;
327.9000;1.3350;1.2392;
328.2000;1.3341;1.2440;
328.5000;1.3325;1.2440;
328.8000;1.3317;1.2369;
329.1000;1.3293;1.2321;
329.4000;1.3333;1.2250;
329.7000;1.3309;1.2203;
330.0000;1.3284;1.2155;
330.3000;1.3301;1.2298;
330.6000;1.3333;1.2250;
330.9000;1.3317;1.2227;
331.2000;1.3325;1.2274;
331.5000;1.3423;1.2511;
331.8000;1.3333;1.2274;
332.1000;1.3358;1.2392;
332.4000;1.3301;1.2227;
332.7000;1.3333;1.2179;
333.0000;1.3358;1.2274;
333.3000;1.3350;1.2250;
333.6000;1.3317;1.2084;
333.9000;1.3317;1.2084;
334.2000;1.3317;1.2179;
334.5000;1.3317;1.2274;
334.8000;1.3317;1.2274;
335.1000;1.3317;1.2298;
335.4000;1.3317;1.2321;
335.7000;1.3325;1.2298;
336.0000;1.3309;1.2227;
336.3000;1.3309;1.2274;
336.6000;1.3333;1.2369;
336.9000;1.3325;1.2250;
337.2000;1.3309;1.2250;
337.5000;1.3325;1.2203;
337.8000;1.3350;1.2274;
338.1000;1.3325;1.2250;
338.4000;1.3317;1.2274;
338.7000;1.3333;1.2369;
339.0000;1.3333;1.2463;
339.3000;1.3293;1.2345;
339.6000;1.3325;1.2392;
339.9000;1.3341;1.2392;
340.2000;1.3276;1.2227;
340.5000;1.3333;1.2250;
340.8000;1.3325;1.2274;
341.1000;1.3333;1.2321;
341.4000;1.3276;1.2132;
341.7000;1.3333;1.2227;
342.0000;1.3333;1.2227;
342.3000;1.3341;1.2298;
342.6000;1.3325;1.2250;
342.9000;1.3252;1.2155;
343.2000;1.3333;1.2392;
343.5000;1.3309;1.2321;
343.8000;1.3341;1.2440;
344.1000;1.3317;1.2298;
344.4000;1.3325;1.2345;
344.7000;1.3309;1.2298;
345.0000;1.3309;1.2227;
345.3000;1.3301;1.2203;
345.6000;1.3301;1.2274;
345.9000;1.3293;1.2155;
346.2000;1.3317;1.2227;
346.5000;1.3309;1.2227;
346.8000;1.3309;1.2274;
347.1000;1.3333;1.2345;
347.4000;1.3252;1.2155;
347.7000;1.3309;1.2463;
348.0000;1.3350;1.2487;
348.3000;1.3317;1.2345;
348.6000;1.3366;1.2345;
348.9000;1.3333;1.2250;
349.2000;1.3358;1.2321;
349.5000;1.3333;1.2227;
349.8000;1.3350;1.2203;
350.1000;1.3341;1.2155;
350.4000;1.3309;1.2203;
350.7000;1.3333;1.2274;
351.0000;1.3350;1.2227;
351.3000;1.3317;1.2061;
351.6000;1.3333;1.2061;
351.9000;1.3333;1.2108;
352.2000;1.3341;1.2061;
352.5000;1.3333;1.2108;
352.8000;1.3293;1.2037;
353.1000;1.3341;1.2179;
353.4000;1.3333;1.2298;
353.7000;1.3333;1.2345;
354.0000;1.3325;1.2227;
354.3000;1.3423;1.2558;
354.6000;1.3317;1.2321;
354.9000;1.3341;1.2321;
355.2000;1.3341;1.2321;
355.5000;1.3333;1.2227;
355.8000;1.3333;1.2227;
356.1000;1.3341;1.2203;
356.4000;1.3317;1.2274;
356.7000;1.3293;1.2203;
357.0000;1.3325;1.2274;
357.3000;1.3325;1.2203;
357.6000;1.3325;1.2155;
357.9000;1.3333;1.2203;
358.2000;1.3325;1.2227;
358.5000;1.3341;1.2274;
358.8000;1.3325;1.2227;
359.1000;1.3325;1.2132;
359.4000;1.3333;1.2132;
359.7000;1.3350;1.2155;
360.0000;1.3341;1.2203;
360.3000;1.3325;1.2203;
360.6000;1.3325;1.2203;
360.9000;1.3333;1.2155;
361.2000;1.3341;1.2298;
361.5000;1.3333;1.2345;
361.8000;1.3325;1.2369;
362.1000;1.3333;1.2392;
362.4000;1.3350;1.2416;
362.7000;1.3341;1.2392;
363.0000;1.3333;1.2416;
363.3000;1.3333;1.2392;
363.6000;1.3333;1.2345;
363.9000;1.3276;1.2250;
364.2000;1.3415;1.2629;
364.5000;1.3341;1.2463;
364.8000;1.3317;1.2298;
365.1000;1.3317;1.2298;
365.4000;1.3293;1.2250;
365.7000;1.3341;1.2392;
366.0000;1.3333;1.2392;
366.3000;1.3341;1.2416;
366.6000;1.3309;1.2321;
366.9000;1.3350;1.2392;
367.2000;1.3333;1.2369;
367.5000;1.3358;1.2440;
367.8000;1.3309;1.2298;
368.1000;1.3333;1.2250;
368.4000;1.3276;1.2227;
368.7000;1.3358;1.2392;
369.0000;1.3333;1.2298;
369.3000;1.3309;1.2250;
369.6000;1.3309;1.2298;
369.9000;1.3333;1.2274;
370.2000;1.3325;1.2345;
370.5000;1.3325;1.2369;
370.8000;1.3325;1.2298;
371.1000;1.3333;1.2250;
371.4000;1.3325;1.2250;
371.7000;1.3325;1.2227;
372.0000;1.3325;1.2250;
372.3000;1.3341;1.2250;
372.6000;1.3325;1.2298;
372.9000;1.3317;1.2274;
373.2000;1.3325;1.2345;
373.5000;1.3317;1.2298;
373.8000;1.3341;1.2274;
374.1000;1.3341;1.2227;
374.4000;1.3350;1.2203;
374.7000;1.3350;1.2155;
375.0000;1.3350;1.2227;
375.3000;1.3350;1.2203;
375.6000;1.3333;1.2227;
375.9000;1.3325;1.2250;
376.2000;1.3341;1.2369;
376.5000;1.3341;1.2369;
376.8000;1.3236;1.2179;
377.1000;1.3309;1.2392;
377.4000;1.3333;1.2440;
377.7000;1.3333;1.2392;
378.0000;1.3317;1.2321;
378.3000;1.3301;1.2345;
378.6000;1.3317;1.2298;
378.9000;1.3325;1.2345;
379.2000;1.3317;1.2274;
379.5000;1.3301;1.2203;
379.8000;1.3325;1.2321;
380.1000;1.3309;1.2345;
380.4000;1.3325;1.2369;
380.7000;1.3260;1.2321;
381.0000;1.3333;1.2416;
381.3000;1.3341;1.2463;
381.6000;1.3317;1.2535;
381.9000;1.3317;1.2535;
382.2000;1.3309;1.2487;
382.5000;1.3325;1.2511;
382.8000;1.3325;1.2535;
383.1000;1.3301;1.2440;
383.4000;1.3317;1.2416;
383.7000;1.3341;1.2392;
384.0000;1.3350;1.2369;
384.3000;1.3333;1.2369;
384.6000;1.3325;1.2369;
384.9000;1.3325;1.2321;
385.2000;1.3325;1.2203;
385.5000;1.3325;1.2298;
385.8000;1.3333;1.2321;
386.1000;1.3309;1.2274;
386.4000;1.3350;1.2345;
386.7000;1.3341;1.2345;
387.0000;1.3317;1.2369;
387.3000;1.3333;1.2392;
387.6000;1.3317;1.2392;
387.9000;1.3423;1.2677;
388.2000;1.3260;1.2345;
388.5000;1.3317;1.2416;
388.8000;1.3317;1.2440;
389.1000;1.3341;1.2392;
389.4000;1.3341;1.2416;
389.7000;1.3341;1.2321;
390.0000;1.3317;1.2274;
390.3000;1.3398;1.2440;
390.6000;1.3341;1.2274;
390.9000;1.3350;1.2250;
391.2000;1.3317;1.2179;
391.5000;1.3350;1.2321;
391.8000;1.3341;1.2321;
392.1000;1.3325;1.2274;
392.4000;1.3268;1.2179;
392.7000;1.3333;1.2298;
393.0000;1.3325;1.2274;
393.3000;1.3350;1.2227;
393.6000;1.3325;1.2108;
393.9000;1.3333;1.2108;
394.2000;1.3333;1.2227;
394.5000;1.3341;1.2321;
394.8000;1.3325;1.2298;
395.1000;1.3333;1.2345;
395.4000;1.3317;1.2440;
395.7000;1.3317;1.2392;
396.0000;1.3333;1.2416;
396.3000;1.3309;1.2463;
396.6000;1.3317;1.2487;
396.9000;1.3341;1.2511;
397.2000;1.3325;1.2535;
397.5000;1.3309;1.2487;
397.8000;1.3260;1.2369;
398.1000;1.3317;1.2511;
398.4000;1.3309;1.2535;
398.7000;1.3325;1.2606;
399.0000;1.3317;1.2582;
399.3000;1.3333;1.2487;
399.6000;1.3333;1.2392;
399.9000;1.3333;1.2369;
400.2000;1.3333;1.2369;
400.5000;1.3341;1.2369;
400.8000;1.3366;1.2369;
401.1000;1.3374;1.2535;
401.4000;1.3333;1.2463;
401.7000;1.3309;1.2298;
402.0000;1.3341;1.2321;
402.3000;1.3309;1.2274;
402.6000;1.3309;1.2298;
402.9000;1.3301;1.2250;
403.2000;1.3325;1.2321;
403.5000;1.3333;1.2345;
403.8000;1.3333;1.2487;
404.1000;1.3317;1.2535;
404.4000;1.3325;1.2558;
404.7000;1.3301;1.2629;
405.0000;1.3317;1.2629;
405.3000;1.3333;1.2653;
405.6000;1.3317;1.2700;
405.9000;1.3341;1.2771;
406.2000;1.3309;1.2606;
406.5000;1.3341;1.2606;
406.8000;1.3341;1.2558;
407.1000;1.3398;1.2700;
407.4000;1.3317;1.2487;
407.7000;1.3309;1.2463;
408.0000;1.3333;1.2582;
408.3000;1.3333;1.2582;
408.6000;1.3341;1.2535;
408.9000;1.3325;1.2511;
409.2000;1.3301;1.2463;
409.5000;1.3333;1.2463;
409.8000;1.3341;1.2463;
410.1000;1.3341;1.2511;
410.4000;1.3325;1.2463;
410.7000;1.3358;1.2582;
411.0000;1.3341;1.2535;
411.3000;1.3317;1.2582;
411.6000;1.3317;1.2558;
411.9000;1.3293;1.2535;
412.2000;1.3325;1.2653;
412.5000;1.3325;1.2629;
412.8000;1.3309;1.2653;
413.1000;1.3317;1.2629;
413.4000;1.3301;1.2582;
413.7000;1.3358;1.2677;
414.0000;1.3301;1.2535;
414.3000;1.3309;1.2511;
414.6000;1.3301;1.2440;
414.9000;1.3309;1.2345;
415.2000;1.3317;1.2392;
415.5000;1.3333;1.2511;
415.8000;1.3317;1.2558;
416.1000;1.3317;1.2558;
416.4000;1.3276;1.2511;
416.7000;1.3325;1.2558;
417.0000;1.3325;1.2511;
417.3000;1.3333;1.2629;
417.6000;1.3341;1.2606;
417.9000;1.3309;1.2535;
418.2000;1.3325;1.2629;
418.5000;1.3333;1.2771;
418.8000;1.3341;1.2819;
419.1000;1.3333;1.2771;
419.4000;1.3301;1.2771;
419.7000;1.3341;1.2819;
420.0000;1.3341;1.2771;
420.3000;1.3317;1.2748;
420.6000;1.3333;1.2748;
420.9000;1.3398;1.2866;
421.2000;1.3284;1.2582;
421.5000;1.3317;1.2748;
421.8000;1.3325;1.2748;
422.1000;1.3260;1.2582;
422.4000;1.3301;1.2653;
422.7000;1.3341;1.2748;
423.0000;1.3325;1.2700;
423.3000;1.3309;1.2724;
423.6000;1.3317;1.2771;
423.9000;1.3317;1.2653;
424.2000;1.3301;1.2629;
424.5000;1.3317;1.2629;
424.8000;1.3317;1.2677;
425.1000;1.3317;1.2677;
425.4000;1.3317;1.2629;
425.7000;1.3325;1.2629;
426.0000;1.3260;1.2463;
426.3000;1.3350;1.2653;
426.6000;1.3325;1.2653;
426.9000;1.3309;1.2558;
427.2000;1.3301;1.2487;
427.5000;1.3423;1.2795;
427.8000;1.3309;1.2535;
428.1000;1.3366;1.2629;
428.4000;1.3309;1.2416;
428.7000;1.3325;1.2511;
429.0000;1.3407;1.2771;
429.3000;1.3325;1.2629;
429.6000;1.3325;1.2700;
429.9000;1.3382;1.2937;
430.2000;1.3333;1.2795;
430.5000;1.3325;1.2724;
430.8000;1.3301;1.2653;
431.1000;1.3325;1.2535;
431.4000;1.3325;1.2558;
431.7000;1.3333;1.2487;
432.0000;1.3301;1.2487;
432.3000;1.3325;1.2582;
432.6000;1.3341;1.2582;
432.9000;1.3325;1.2629;
433.2000;1.3309;1.2653;
433.5000;1.3317;1.2653;
433.8000;1.3350;1.2700;
434.1000;1.3333;1.2677;
434.4000;1.3341;1.2606;
434.7000;1.3301;1.2416;
435.0000;1.3317;1.2487;
435.3000;1.3382;1.2700;
435.6000;1.3341;1.2535;
435.9000;1.3374;1.2582;
436.2000;1.3309;1.2392;
436.5000;1.3358;1.2606;
436.8000;1.3333;1.2511;
437.1000;1.3317;1.2582;
437.4000;1.3374;1.2748;
437.7000;1.3325;1.2653;
438.0000;1.3309;1.2653;
438.3000;1.3301;1.2606;
438.6000;1.3284;1.2535;
438.9000;1.3309;1.2558;
439.2000;1.3309;1.2440;
439.5000;1.3325;1.2511;
439.8000;1.3309;1.2440;
440.1000;1.3309;1.2511;
440.4000;1.3317;1.2487;
440.7000;1.3325;1.2535;
441.0000;1.3317;1.2535;
441.3000;1.3317;1.2606;
441.6000;1.3333;1.2606;
441.9000;1.3333;1.2535;
442.2000;1.3317;1.2463;
442.5000;1.3301;1.2463;
442.8000;1.3317;1.2463;
443.1000;1.3325;1.2582;
443.4000;1.3415;1.2771;
443.7000;1.3317;1.2487;
444.0000;1.3333;1.2535;
444.3000;1.3325;1.2416;
444.6000;1.3341;1.2440;
444.9000;1.3325;1.2511;
445.2000;1.3309;1.2440;
445.5000;1.3309;1.2440;
445.8000;1.3317;1.2582;
446.1000;1.3309;1.2653;
446.4000;1.3325;1.2724;
446.7000;1.3333;1.2677;
447.0000;1.3325;1.2653;
447.3000;1.3325;1.2582;
447.6000;1.3333;1.2558;
447.9000;1.3333;1.2511;
448.2000;1.3333;1.2558;
448.5000;1.3325;1.2463;
448.8000;1.3333;1.2511;
449.1000;1.3317;1.2440;
449.4000;1.3325;1.2321;
449.7000;1.3317;1.2274;
450.0000;1.3341;1.2369;
450.3000;1.3325;1.2416;
450.6000;1.3301;1.2321;
450.9000;1.3325;1.2392;
451.2000;1.3301;1.2250;
451.5000;1.3358;1.2298;
451.8000;1.3317;1.2250;
452.1000;1.3284;1.2155;
452.4000;1.3317;1.2298;
452.7000;1.3325;1.2345;
453.0000;1.3309;1.2416;
453.3000;1.3333;1.2511;
453.6000;1.3341;1.2606;
453.9000;1.3333;1.2558;
454.2000;1.3325;1.2511;
454.5000;1.3317;1.2535;
454.8000;1.3309;1.2558;
455.1000;1.3325;1.2558;
455.4000;1.3325;1.2582;
455.7000;1.3309;1.2558;
456.0000;1.3301;1.2582;
456.3000;1.3309;1.2629;
456.6000;1.3301;1.2653;
456.9000;1.3358;1.2771;
457.2000;1.3325;1.2653;
457.5000;1.3325;1.2677;
457.8000;1.3309;1.2535;
458.1000;1.3219;1.2369;
458.4000;1.3333;1.2535;
458.7000;1.3325;1.2487;
459.0000;1.3293;1.2463;
459.3000;1.3350;1.2582;
459.6000;1.3309;1.2440;
459.9000;1.3333;1.2487;
460.2000;1.3317;1.2463;
460.5000;1.3333;1.2558;
460.8000;1.3317;1.2463;
461.1000;1.3309;1.2321;
461.4000;1.3317;1.2369;
461.7000;1.3325;1.2463;
462.0000;1.3317;1.2558;
462.3000;1.3293;1.2511;
462.6000;1.3317;1.2629;
462.9000;1.3309;1.2629;
463.2000;1.3317;1.2724;
463.5000;1.3358;1.2748;
463.8000;1.3341;1.2511;
464.1000;1.3317;1.2463;
464.4000;1.3301;1.2463;
464.7000;1.3333;1.2487;
465.0000;1.3317;1.2487;
465.3000;1.3333;1.2653;
465.6000;1.3325;1.2677;
465.9000;1.3350;1.2748;
466.2000;1.3325;1.2700;
466.5000;1.3301;1.2582;
466.8000;1.3325;1.2629;
467.1000;1.3317;1.2582;
467.4000;1.3293;1.2511;
467.7000;1.3325;1.2582;
468.0000;1.3333;1.2653;
468.3000;1.3325;1.2606;
468.6000;1.3374;1.2724;
468.9000;1.3317;1.2606;
469.2000;1.3350;1.2653;
469.5000;1.3350;1.2629;
469.8000;1.3333;1.2487;
470.1000;1.3317;1.2463;
470.4000;1.3301;1.2440;
470.7000;1.3301;1.2511;
471.0000;1.3309;1.2511;
471.3000;1.3317;1.2463;
471.6000;1.3309;1.2416;
471.9000;1.3301;1.2416;
472.2000;1.3317;1.2463;
472.5000;1.3309;1.2463;
472.8000;1.3309;1.2440;
473.1000;1.3301;1.2487;
473.4000;1.3317;1.2511;
473.7000;1.3341;1.2511;
474.0000;1.3325;1.2535;
474.3000;1.3333;1.2558;
474.6000;1.3325;1.2606;
474.9000;1.3325;1.2535;
475.2000;1.3284;1.2511;
475.5000;1.3317;1.2535;
475.8000;1.3309;1.2535;
476.1000;1.3333;1.2511;
476.4000;1.3325;1.2463;
476.7000;1.3309;1.2345;
477.0000;1.3317;1.2392;
477.3000;1.3317;1.2416;
477.6000;1.3333;1.2606;
477.9000;1.3341;1.2653;
478.2000;1.3333;1.2653;
478.5000;1.3358;1.2653;
478.8000;1.3350;1.2606;
479.1000;1.3341;1.2558;
479.4000;1.3382;1.2700;
479.7000;1.3333;1.2677;
480.0000;1.3325;1.2606;
480.3000;1.3358;1.2629;
480.6000;1.3309;1.2463;
480.9000;1.3301;1.2416;
481.2000;1.3293;1.2392;
481.5000;1.3317;1.2416;
481.8000;1.3309;1.2416;
482.1000;1.3325;1.2463;
482.4000;1.3325;1.2558;
482.7000;1.3325;1.2629;
483.0000;1.3317;1.2535;
483.3000;1.3341;1.2535;
483.6000;1.3325;1.2511;
483.9000;1.3341;1.2582;
484.2000;1.3325;1.2558;
484.5000;1.3333;1.2582;
484.8000;1.3317;1.2582;
485.1000;1.3309;1.2606;
485.4000;1.3350;1.2677;
485.7000;1.3309;1.2558;
486.0000;1.3309;1.2653;
486.3000;1.3293;1.2748;
486.6000;1.3309;1.2819;
486.9000;1.3309;1.2795;
487.2000;1.3317;1.2724;
487.5000;1.3333;1.2724;
487.8000;1.3333;1.2771;
488.1000;1.3309;1.2748;
488.4000;1.3325;1.2748;
488.7000;1.3325;1.2795;
489.0000;1.3341;1.2795;
489.3000;1.3325;1.2771;
489.6000;1.3333;1.2771;
489.9000;1.3325;1.2700;
490.2000;1.3317;1.2653;
490.5000;1.3317;1.2606;
490.8000;1.3309;1.2629;
491.1000;1.3317;1.2629;
491.4000;1.3317;1.2558;
491.7000;1.3325;1.2606;
492.0000;1.3317;1.2677;
492.3000;1.3333;1.2819;
492.6000;1.3276;1.2700;
492.9000;1.3276;1.2629;
493.2000;1.3317;1.2700;
493.5000;1.3325;1.2724;
493.8000;1.3325;1.2843;
494.1000;1.3325;1.2819;
494.4000;1.3325;1.2771;
494.7000;1.3325;1.2748;
495.0000;1.3325;1.2771;
495.3000;1.3333;1.2771;
495.6000;1.3309;1.2700;
495.9000;1.3309;1.2700;
496.2000;1.3317;1.2677;
496.5000;1.3309;1.2677;
496.8000;1.3317;1.2724;
497.1000;1.3309;1.2606;
497.4000;1.3301;1.2653;
497.7000;1.3301;1.2629;
498.0000;1.3309;1.2677;
498.3000;1.3317;1.2771;
498.6000;1.3301;1.2890;
498.9000;1.3301;1.2866;
499.2000;1.3333;1.2819;
499.5000;1.3309;1.2771;
499.8000;1.3284;1.2724;
500.1000;1.3309;1.2795;
500.4000;1.3301;1.2819;
500.7000;1.3301;1.2795;
501.0000;1.3293;1.2771;
501.3000;1.3301;1.2724;
501.6000;1.3301;1.2866;
501.9000;1.3301;1.2866;
502.2000;1.3301;1.2843;
502.5000;1.3309;1.2819;
502.8000;1.3244;1.2629;
503.1000;1.3301;1.2771;
503.4000;1.3317;1.2819;
503.7000;1.3325;1.2866;
504.0000;1.3317;1.2843;
504.3000;1.3350;1.2866;
504.6000;1.3309;1.2724;
504.9000;1.3309;1.2653;
505.2000;1.3325;1.2771;
505.5000;1.3341;1.2843;
505.8000;1.3301;1.2819;
506.1000;1.3317;1.2866;
506.4000;1.3260;1.2724;
506.7000;1.3317;1.2724;
507.0000;1.3333;1.2724;
507.3000;1.3325;1.2724;
507.6000;1.3309;1.2677;
507.9000;1.3293;1.2748;
508.2000;1.3325;1.2771;
508.5000;1.3219;1.2535;
508.8000;1.3317;1.2795;
509.1000;1.3301;1.2724;
509.4000;1.3293;1.2748;
509.7000;1.3301;1.2724;
510.0000;1.3317;1.2748;
510.3000;1.3317;1.2866;
510.6000;1.3301;1.2819;
510.9000;1.3309;1.2843;
511.2000;1.3301;1.2819;
511.5000;1.3293;1.2819;
511.8000;1.3276;1.2771;
512.1000;1.3325;1.2819;
512.4000;1.3325;1.2795;
512.7000;1.3317;1.2748;
513.0000;1.3317;1.2771;
513.3000;1.3309;1.2771;
513.6000;1.3317;1.2771;
513.9000;1.3358;1.2724;
514.2000;1.3309;1.2582;
514.5000;1.3333;1.2629;
514.8000;1.3317;1.2700;
515.1000;1.3309;1.2795;
515.4000;1.3317;1.2795;
515.7000;1.3333;1.2843;
516.0000;1.3317;1.2795;
516.3000;1.3317;1.2700;
516.6000;1.3325;1.2677;
516.9000;1.3309;1.2724;
517.2000;1.3317;1.2724;
517.5000;1.3325;1.2724;
517.8000;1.3309;1.2700;
518.1000;1.3398;1.2771;
518.4000;1.3333;1.2629;
518.7000;1.3309;1.2677;
519.0000;1.3301;1.2677;
519.3000;1.3333;1.2724;
519.6000;1.3276;1.2558;
519.9000;1.3374;1.2700;
520.2000;1.3333;1.2487;
520.5000;1.3301;1.2487;
520.8000;1.3309;1.2558;
521.1000;1.3301;1.2582;
521.4000;1.3317;1.2535;
521.7000;1.3301;1.2535;
522.0000;1.3309;1.2463;
522.3000;1.3309;1.2535;
522.6000;1.3309;1.2653;
522.9000;1.3309;1.2724;
523.2000;1.3309;1.2700;
523.5000;1.3333;1.2700;
523.8000;1.3309;1.2606;
524.1000;1.3301;1.2629;
524.4000;1.3333;1.2748;
524.7000;1.3325;1.2700;
525.0000;1.3317;1.2724;
525.3000;1.3333;1.2748;
525.6000;1.3317;1.2771;
525.9000;1.3333;1.2748;
526.2000;1.3325;1.2795;
526.5000;1.3325;1.2819;
526.8000;1.3325;1.2843;
527.1000;1.3317;1.2771;
527.4000;1.3325;1.2724;
527.7000;1.3317;1.2748;
528.0000;1.3309;1.2677;
528.3000;1.3268;1.2606;
528.6000;1.3301;1.2606;
528.9000;1.3309;1.2629;
529.2000;1.3317;1.2629;
529.5000;1.3309;1.2700;
529.8000;1.3268;1.2558;
530.1000;1.3317;1.2700;
530.4000;1.3301;1.2653;
530.7000;1.3301;1.2677;
531.0000;1.3309;1.2677;
531.3000;1.3317;1.2653;
531.6000;1.3317;1.2606;
531.9000;1.3309;1.2558;
532.2000;1.3309;1.2606;
532.5000;1.3252;1.2463;
532.8000;1.3317;1.2771;
533.1000;1.3301;1.2819;
533.4000;1.3293;1.2771;
533.7000;1.3301;1.2795;
534.0000;1.3317;1.2795;
534.3000;1.3309;1.2748;
534.6000;1.3325;1.2748;
534.9000;1.3398;1.2866;
535.2000;1.3309;1.2700;
535.5000;1.3325;1.2677;
535.8000;1.3317;1.2748;
536.1000;1.3333;1.2843;
536.4000;1.3325;1.2843;
536.7000;1.3244;1.2700;
537.0000;1.3325;1.2890;
537.3000;1.3309;1.2914;
537.6000;1.3358;1.2985;
537.9000;1.3317;1.2795;
538.2000;1.3350;1.2771;
538.5000;1.3317;1.2677;
538.8000;1.3325;1.2677;
539.1000;1.3309;1.2700;
539.4000;1.3317;1.2771;
539.7000;1.3309;1.2724;
540.0000;1.3301;1.2771;
540.3000;1.3333;1.2795;
540.6000;1.3293;1.2653;
540.9000;1.3317;1.2677;
541.2000;1.3317;1.2653;
541.5000;1.3317;1.2700;
541.8000;1.3244;1.2511;
542.1000;1.3301;1.2677;
542.4000;1.3309;1.2677;
542.7000;1.3236;1.2558;
543.0000;1.3301;1.2629;
543.3000;1.3301;1.2558;
543.6000;1.3325;1.2677;
543.9000;1.3325;1.2677;
544.2000;1.3325;1.2629;
544.5000;1.3325;1.2606;
544.8000;1.3309;1.2677;
545.1000;1.3317;1.2748;
545.4000;1.3325;1.2724;
545.7000;1.3317;1.2700;
546.0000;1.3333;1.2724;
546.3000;1.3341;1.2843;
546.6000;1.3325;1.2795;
546.9000;1.3317;1.2795;
547.2000;1.3293;1.2724;
547.5000;1.3309;1.2653;
547.8000;1.3374;1.2748;
548.1000;1.3317;1.2606;
548.4000;1.3309;1.2582;
548.7000;1.3309;1.2653;
549.0000;1.3317;1.2582;
549.3000;1.3284;1.2511;
549.6000;1.3341;1.2558;
549.9000;1.3325;1.2582;
550.2000;1.3333;1.2558;
550.5000;1.3341;1.2582;
550.8000;1.3358;1.2677;
551.1000;1.3284;1.2629;
551.4000;1.3284;1.2606;
551.7000;1.3317;1.2677;
552.0000;1.3317;1.2606;
552.3000;1.3333;1.2606;
552.6000;1.3309;1.2535;
552.9000;1.3284;1.2463;
553.2000;1.3317;1.2558;
553.5000;1.3268;1.2511;
553.8000;1.3309;1.2629;
554.1000;1.3309;1.2653;
554.4000;1.3309;1.2700;
554.7000;1.3301;1.2771;
555.0000;1.3309;1.2771;
555.3000;1.3317;1.2819;
555.6000;1.3317;1.2748;
555.9000;1.3309;1.2724;
556.2000;1.3301;1.2771;
556.5000;1.3317;1.2724;
556.8000;1.3317;1.2819;
557.1000;1.3309;1.2843;
557.4000;1.3309;1.2890;
557.7000;1.3309;1.2866;
558.0000;1.3325;1.2914;
558.3000;1.3309;1.2937;
558.6000;1.3252;1.2724;
558.9000;1.3309;1.2866;
559.2000;1.3309;1.2748;
559.5000;1.3301;1.2629;
559.8000;1.3301;1.2629;
560.1000;1.3309;1.2700;
560.4000;1.3301;1.2748;
560.7000;1.3333;1.2795;
561.0000;1.3301;1.2677;
561.3000;1.3317;1.2700;
561.6000;1.3374;1.2771;
561.9000;1.3325;1.2677;
562.2000;1.3423;1.2890;
562.5000;1.3317;1.2653;
562.8000;1.3309;1.2677;
563.1000;1.3325;1.2724;
563.4000;1.3309;1.2771;
563.7000;1.3301;1.2700;
564.0000;1.3276;1.2582;
564.3000;1.3228;1.2487;
564.6000;1.3317;1.2653;
564.9000;1.3317;1.2700;
565.2000;1.3317;1.2771;
565.5000;1.3293;1.2771;
565.8000;1.3374;1.2937;
566.1000;1.3309;1.2748;
566.4000;1.3276;1.2629;
566.7000;1.3301;1.2606;
567.0000;1.3309;1.2653;
567.3000;1.3309;1.2771;
567.6000;1.3325;1.2819;
567.9000;1.3309;1.2700;
568.2000;1.3317;1.2795;
568.5000;1.3317;1.2819;
568.8000;1.3260;1.2677;
569.1000;1.3301;1.2724;
569.4000;1.3317;1.2677;
569.7000;1.3325;1.2700;
570.0000;1.3309;1.2606;
570.3000;1.3293;1.2535;
570.6000;1.3309;1.2558;
570.9000;1.3341;1.2582;
571.2000;1.3284;1.2511;
571.5000;1.3317;1.2558;
571.8000;1.3301;1.2511;
572.1000;1.3309;1.2558;
572.4000;1.3358;1.2748;
572.7000;1.3325;1.2700;
573.0000;1.3317;1.2582;
573.3000;1.3325;1.2582;
573.6000;1.3284;1.2511;
573.9000;1.3341;1.2677;
574.2000;1.3301;1.2629;
574.5000;1.3341;1.2724;
574.8000;1.3284;1.2582;
575.1000;1.3252;1.2463;
575.4000;1.3284;1.2535;
575.7000;1.3309;1.2558;
576.0000;1.3293;1.2511;
576.3000;1.3350;1.2558;
576.6000;1.3293;1.2511;
576.9000;1.3284;1.2369;
577.2000;1.3317;1.2463;
577.5000;1.3244;1.2321;
577.8000;1.3309;1.2440;
578.1000;1.3284;1.2392;
578.4000;1.3228;1.2227;
578.7000;1.3309;1.2369;
579.0000;1.3293;1.2345;
579.3000;1.3325;1.2487;
579.6000;1.3301;1.2558;
579.9000;1.3325;1.2629;
580.2000;1.3309;1.2535;
580.5000;1.3325;1.2511;
580.8000;1.3309;1.2582;
581.1000;1.3317;1.2724;
581.4000;1.3284;1.2677;
581.7000;1.3276;1.2677;
582.0000;1.3293;1.2677;
582.3000;1.3317;1.2748;
582.6000;1.3309;1.2677;
582.9000;1.3309;1.2629;
583.2000;1.3293;1.2582;
583.5000;1.3301;1.2606;
583.8000;1.3333;1.2653;
584.1000;1.3268;1.2440;
584.4000;1.3309;1.2487;
584.7000;1.3284;1.2582;
585.0000;1.3309;1.2724;
585.3000;1.3284;1.2629;
585.6000;1.3284;1.2558;
585.9000;1.3301;1.2629;
586.2000;1.3293;1.2677;
586.5000;1.3293;1.2629;
586.8000;1.3268;1.2629;
587.1000;1.3309;1.2771;
587.4000;1.3309;1.2724;
587.7000;1.3293;1.2653;
588.0000;1.3309;1.2653;
588.3000;1.3398;1.2866;
588.6000;1.3301;1.2653;
588.9000;1.3309;1.2677;
589.2000;1.3301;1.2677;
589.5000;1.3325;1.2653;
589.8000;1.3301;1.2606;
590.1000;1.3325;1.2771;
590.4000;1.3293;1.2795;
590.7000;1.3293;1.2748;
591.0000;1.3293;1.2724;
591.3000;1.3325;1.2700;
591.6000;1.3350;1.2819;
591.9000;1.3350;1.2843;
592.2000;1.3309;1.2748;
592.5000;1.3293;1.2748;
592.8000;1.3309;1.2677;
593.1000;1.3317;1.2677;
593.4000;1.3301;1.2629;
593.7000;1.3293;1.2724;
594.0000;1.3317;1.2795;
594.3000;1.3293;1.2748;
594.6000;1.3276;1.2677;
594.9000;1.3309;1.2677;
595.2000;1.3301;1.2653;
595.5000;1.3293;1.2606;
595.8000;1.3301;1.2724;
596.1000;1.3293;1.2653;
596.4000;1.3293;1.2582;
596.7000;1.3301;1.2629;
597.0000;1.3309;1.2677;
597.3000;1.3284;1.2677;
597.6000;1.3317;1.2677;
597.9000;1.3276;1.2582;
598.2000;1.3341;1.2724;
598.5000;1.3309;1.2724;
598.8000;1.3317;1.2677;
599.1000;1.3293;1.2629;
599.4000;1.3293;1.2535;
599.7000;1.3293;1.2535;
600.0000;1.3301;1.2558;
600.3000;1.3382;1.2629;
600.6000;1.3415;1.2582;
600.9000;1.3301;1.2227;
601.2000;1.3268;1.2084;
601.5000;1.3219;1.1966;
601.8000;1.3138;1.1776;
602.1000;1.3032;1.1563;
602.4000;1.2853;1.1184;
602.7000;1.2837;1.1231;
603.0000;1.2821;1.1208;
603.3000;1.2723;1.1018;
603.6000;1.2650;1.0876;
603.9000;1.2560;1.0781;
604.2000;1.2511;1.0734;
604.5000;1.2487;1.0734;
604.8000;1.2373;1.0520;
605.1000;1.2291;1.0449;
605.4000;1.2226;1.0402;
605.7000;1.2161;1.0307;
606.0000;1.2088;1.0236;
606.3000;1.2047;1.0331;
606.6000;1.1982;1.0212;
606.9000;1.1941;1.0141;
607.2000;1.1901;1.0070;
607.5000;1.1819;0.9952;
607.8000;1.1811;1.0094;
608.1000;1.1746;0.9904;
608.4000;1.1697;0.9786;
608.7000;1.1632;0.9715;
609.0000;1.1600;0.9715;
609.3000;1.1534;0.9667;
609.6000;1.1486;0.9525;
609.9000;1.1445;0.9525;
610.2000;1.1372;0.9454;
610.5000;1.1372;0.9549;
610.8000;1.1331;0.9525;
611.1000;1.1306;0.9525;
611.4000;1.1217;0.9454;
611.7000;1.1209;0.9383;
612.0000;1.1152;0.9336;
612.3000;1.1103;0.9407;
612.6000;1.1062;0.9241;
612.9000;1.1046;0.9312;
613.2000;1.1005;0.9241;
613.5000;1.0965;0.9122;
613.8000;1.0932;0.9051;
614.1000;1.0899;0.9028;
614.4000;1.0859;0.9051;
614.7000;1.0810;0.8909;
615.0000;1.0753;0.8862;
615.3000;1.0737;0.8838;
615.6000;1.0720;0.8909;
615.9000;1.0688;0.8862;
616.2000;1.0623;0.8743;
616.5000;1.0606;0.8696;
616.8000;1.0574;0.8767;
617.1000;1.0558;0.8743;
617.4000;1.0525;0.8767;
617.7000;1.0484;0.8743;
618.0000;1.0460;0.8743;
618.3000;1.0435;0.8791;
618.6000;1.0395;0.8743;
618.9000;1.0346;0.8720;
619.2000;1.0387;0.8886;
619.5000;1.0313;0.8838;
619.8000;1.0265;0.8814;
620.1000;1.0256;0.8886;
620.4000;1.0273;0.9122;
620.7000;1.0199;0.8957;
621.0000;1.0167;0.8980;
621.3000;1.0151;0.8933;
621.6000;1.0102;0.8957;
621.9000;1.0094;0.8909;
622.2000;1.0110;0.9028;
622.5000;1.0037;0.8909;
622.8000;1.0020;0.8886;
623.1000;0.9988;0.8886;
623.4000;0.9972;0.8909;
623.7000;0.9939;0.8838;
624.0000;0.9906;0.8814;
624.3000;0.9939;0.8886;
624.6000;0.9890;0.8743;
624.9000;0.9849;0.8720;
625.2000;0.9817;0.8625;
625.5000;0.9792;0.8649;
625.8000;0.9768;0.8601;
626.1000;0.9784;0.8696;
626.4000;0.9719;0.8601;
626.7000;0.9703;0.8554;
627.0000;0.9687;0.8672;
627.3000;0.9646;0.8696;
627.6000;0.9646;0.8720;
627.9000;0.9621;0.8720;
628.2000;0.9613;0.8791;
628.5000;0.9589;0.8862;
628.8000;0.9573;0.8909;
629.1000;0.9540;0.8886;
629.4000;0.9524;0.8791;
629.7000;0.9573;0.8909;
630.0000;0.9467;0.8696;
630.3000;0.9475;0.8625;
630.6000;0.9451;0.8578;
630.9000;0.9442;0.8625;
631.2000;0.9385;0.8530;
631.5000;0.9385;0.8530;
631.8000;0.9328;0.8483;
632.1000;0.9345;0.8601;
632.4000;0.9328;0.8649;
632.7000;0.9239;0.8530;
633.0000;0.9296;0.8743;
633.3000;0.9247;0.8672;
633.6000;0.9304;0.8767;
633.9000;0.9239;0.8578;
634.2000;0.9263;0.8696;
634.5000;0.9198;0.8625;
634.8000;0.9117;0.8459;
635.1000;0.9182;0.8625;
635.4000;0.9149;0.8625;
635.7000;0.9190;0.8649;
636.0000;0.9141;0.8601;
636.3000;0.9133;0.8530;
636.6000;0.9109;0.8530;
636.9000;0.9149;0.8743;
637.2000;0.9068;0.8672;
637.5000;0.9060;0.8649;
637.8000;0.9052;0.8672;
638.1000;0.9027;0.8530;
638.4000;0.8978;0.8506;
638.7000;0.9003;0.8601;
639.0000;0.8978;0.8554;
639.3000;0.8962;0.8483;
639.6000;0.8954;0.8554;
639.9000;0.8954;0.8506;
640.2000;0.8921;0.8530;
640.5000;0.8913;0.8506;
640.8000;0.8873;0.8341;
641.1000;0.8889;0.8317;
641.4000;0.8873;0.8317;
641.7000;0.8856;0.8293;
642.0000;0.8848;0.8246;
642.3000;0.8807;0.8246;
642.6000;0.8816;0.8364;
642.9000;0.8799;0.8341;
643.2000;0.8799;0.8341;
643.5000;0.8791;0.8341;
643.8000;0.8799;0.8459;
644.1000;0.8775;0.8459;
644.4000;0.8767;0.8412;
644.7000;0.8742;0.8435;
645.0000;0.8742;0.8506;
645.3000;0.8742;0.8554;
645.6000;0.8710;0.8530;
645.9000;0.8669;0.8483;
646.2000;0.8677;0.8459;
646.5000;0.8669;0.8530;
646.8000;0.8661;0.8601;
647.1000;0.8628;0.8601;
647.4000;0.8653;0.8696;
647.7000;0.8628;0.8696;
648.0000;0.8612;0.8625;
648.3000;0.8604;0.8554;
648.6000;0.8571;0.8483;
648.9000;0.8571;0.8530;
649.2000;0.8580;0.8649;
649.5000;0.8612;0.8767;
649.8000;0.8531;0.8554;
650.1000;0.8555;0.8649;
650.4000;0.8531;0.8578;
650.7000;0.8523;0.8601;
651.0000;0.8588;0.8767;
651.3000;0.8523;0.8578;
651.6000;0.8490;0.8578;
651.9000;0.8498;0.8649;
652.2000;0.8474;0.8578;
652.5000;0.8474;0.8554;
652.8000;0.8466;0.8554;
653.1000;0.8457;0.8459;
653.4000;0.8441;0.8412;
653.7000;0.8466;0.8483;
654.0000;0.8441;0.8435;
654.3000;0.8417;0.8435;
654.6000;0.8441;0.8578;
654.9000;0.8433;0.8649;
655.2000;0.8392;0.8530;
655.5000;0.8368;0.8578;
655.8000;0.8344;0.8530;
656.1000;0.8352;0.8506;
656.4000;0.8352;0.8483;
656.7000;0.8327;0.8435;
657.0000;0.8352;0.8412;
657.3000;0.8327;0.8388;
657.6000;0.8319;0.8246;
657.9000;0.8311;0.8317;
658.2000;0.8303;0.8317;
658.5000;0.8303;0.8293;
658.8000;0.8295;0.8222;
659.1000;0.8278;0.8198;
659.4000;0.8278;0.8222;
659.7000;0.8295;0.8222;
660.0000;0.8254;0.8175;
660.3000;0.8278;0.8198;
660.6000;0.8262;0.8056;
660.9000;0.8238;0.8033;
661.2000;0.8230;0.8080;
661.5000;0.8221;0.8104;
661.8000;0.8230;0.8175;
662.1000;0.8213;0.8246;
662.4000;0.8197;0.8127;
662.7000;0.8197;0.8198;
663.0000;0.8197;0.8198;
663.3000;0.8197;0.8151;
663.6000;0.8181;0.8175;
663.9000;0.8189;0.8222;
664.2000;0.8189;0.8246;
664.5000;0.8173;0.8198;
664.8000;0.8221;0.8483;
665.1000;0.8164;0.8388;
665.4000;0.8221;0.8601;
665.7000;0.8148;0.8578;
666.0000;0.8107;0.8459;
666.3000;0.8116;0.8459;
666.6000;0.8140;0.8483;
666.9000;0.8083;0.8364;
667.2000;0.8091;0.8412;
667.5000;0.8091;0.8435;
667.8000;0.8083;0.8435;
668.1000;0.8091;0.8483;
668.4000;0.8026;0.8246;
668.7000;0.8026;0.8317;
669.0000;0.8050;0.8341;
669.3000;0.8067;0.8364;
669.6000;0.8050;0.8364;
669.9000;0.8050;0.8412;
670.2000;0.8026;0.8388;
670.5000;0.8042;0.8459;
670.8000;0.8034;0.8364;
671.1000;0.8018;0.8269;
671.4000;0.8042;0.8364;
671.7000;0.8018;0.8151;
672.0000;0.7993;0.8056;
672.3000;0.8010;0.8175;
672.6000;0.8002;0.8127;
672.9000;0.7985;0.8151;
673.2000;0.7993;0.8198;
673.5000;0.7977;0.8317;
673.8000;0.7977;0.8293;
674.1000;0.7969;0.8246;
674.4000;0.7985;0.8175;
674.7000;0.8034;0.8269;
675.0000;0.7953;0.8104;
675.3000;0.7977;0.8246;
675.6000;0.7953;0.8246;
675.9000;0.7928;0.8127;
676.2000;0.7937;0.8198;
676.5000;0.7928;0.8246;
676.8000;0.7928;0.8293;
677.1000;0.7920;0.8293;
677.4000;0.7920;0.8293;
677.7000;0.7904;0.8198;
678.0000;0.7904;0.8175;
678.3000;0.7928;0.8175;
678.6000;0.7912;0.8104;
678.9000;0.7888;0.8033;
679.2000;0.7896;0.8009;
679.5000;0.7888;0.7938;
679.8000;0.7855;0.7772;
680.1000;0.7839;0.7748;
680.4000;0.7880;0.7843;
680.7000;0.7888;0.7961;
681.0000;0.7847;0.7867;
681.3000;0.7888;0.7938;
681.6000;0.7871;0.7985;
681.9000;0.7847;0.7914;
682.2000;0.7847;0.7890;
682.5000;0.7831;0.7843;
682.8000;0.7806;0.7819;
683.1000;0.7863;0.8033;
683.4000;0.7831;0.7985;
683.7000;0.7782;0.8009;
684.0000;0.7831;0.8104;
684.3000;0.7823;0.8033;
684.6000;0.7814;0.7938;
684.9000;0.7823;0.7961;
685.2000;0.7814;0.7890;
685.5000;0.7782;0.7890;
685.8000;0.7855;0.8056;
686.1000;0.7798;0.8009;
686.4000;0.7798;0.8056;
686.7000;0.7790;0.8009;
687.0000;0.7839;0.8151;
687.3000;0.7847;0.8222;
687.6000;0.7766;0.7961;
687.9000;0.7814;0.8127;
688.2000;0.7766;0.8033;
688.5000;0.7790;0.8104;
688.8000;0.7757;0.7985;
689.1000;0.7766;0.8080;
689.4000;0.7766;0.8056;
689.7000;0.7757;0.8127;
690.0000;0.7725;0.8009;
690.3000;0.7717;0.8080;
690.6000;0.7733;0.8080;
690.9000;0.7725;0.7961;
691.2000;0.7717;0.7938;
691.5000;0.7725;0.8009;
691.8000;0.7725;0.8033;
692.1000;0.7725;0.8104;
692.4000;0.7741;0.8175;
692.7000;0.7717;0.8033;
693.0000;0.7717;0.8056;
693.3000;0.7700;0.8127;
693.6000;0.7749;0.8317;
693.9000;0.7700;0.8246;
694.2000;0.7692;0.8222;
694.5000;0.7757;0.8317;
694.8000;0.7709;0.8222;
695.1000;0.7692;0.8175;
695.4000;0.7700;0.8175;
695.7000;0.7692;0.8246;
696.0000;0.7709;0.8341;
696.3000;0.7692;0.8269;
696.6000;0.7660;0.8127;
696.9000;0.7643;0.8104;
697.2000;0.7660;0.8033;
697.5000;0.7611;0.7938;
697.8000;0.7660;0.8104;
698.1000;0.7635;0.8175;
698.4000;0.7635;0.8222;
698.7000;0.7643;0.8222;
699.0000;0.7643;0.8317;
699.3000;0.7619;0.8341;
699.6000;0.7627;0.8341;
699.9000;0.7652;0.8364;
700.2000;0.7635;0.8269;
700.5000;0.7627;0.8269;
700.8000;0.7611;0.8222;
701.1000;0.7611;0.8222;
701.4000;0.7627;0.8080;
701.7000;0.7627;0.8080;
702.0000;0.7603;0.8104;
702.3000;0.7611;0.8104;
702.6000;0.7635;0.8175;
702.9000;0.7619;0.8175;
703.2000;0.7619;0.8269;
703.5000;0.7586;0.8246;
703.8000;0.7611;0.8364;
704.1000;0.7603;0.8412;
704.4000;0.7595;0.8341;
704.7000;0.7586;0.8293;
705.0000;0.7595;0.8364;
705.3000;0.7603;0.8435;
705.6000;0.7595;0.8412;
705.9000;0.7578;0.8388;
706.2000;0.7570;0.8269;
706.5000;0.7595;0.8246;
706.8000;0.7595;0.8222;
707.1000;0.7611;0.8269;
707.4000;0.7578;0.8269;
707.7000;0.7578;0.8293;
708.0000;0.7562;0.8246;
708.3000;0.7546;0.8246;
708.6000;0.7554;0.8198;
708.9000;0.7586;0.8293;
709.2000;0.7578;0.8317;
709.5000;0.7562;0.8317;
709.8000;0.7586;0.8483;
710.1000;0.7546;0.8412;
710.4000;0.7586;0.8412;
710.7000;0.7554;0.8317;
711.0000;0.7546;0.8317;
711.3000;0.7586;0.8412;
711.6000;0.7586;0.8388;
711.9000;0.7513;0.8175;
712.2000;0.7530;0.8198;
712.5000;0.7554;0.8364;
712.8000;0.7546;0.8317;
713.1000;0.7521;0.8341;
713.4000;0.7530;0.8317;
713.7000;0.7546;0.8317;
714.0000;0.7530;0.8269;
714.3000;0.7554;0.8341;
714.6000;0.7530;0.8269;
714.9000;0.7521;0.8246;
715.2000;0.7513;0.8293;
715.5000;0.7546;0.8364;
715.8000;0.7513;0.8293;
716.1000;0.7513;0.8317;
716.4000;0.7481;0.8246;
716.7000;0.7513;0.8246;
717.0000;0.7505;0.8127;
717.3000;0.7513;0.8222;
717.6000;0.7448;0.8080;
717.9000;0.7497;0.8198;
718.2000;0.7538;0.8317;
718.5000;0.7521;0.8246;
718.8000;0.7481;0.8175;
719.1000;0.7505;0.8175;
719.4000;0.7464;0.8104;
719.7000;0.7489;0.8151;
720.0000;0.7489;0.8198;
720.3000;0.7489;0.8175;
720.6000;0.7481;0.8222;
720.9000;0.7489;0.8127;
721.2000;0.7464;0.8080;
721.5000;0.7489;0.8127;
721.8000;0.7464;0.8080;
722.1000;0.7473;0.8033;
722.4000;0.7456;0.8033;
722.7000;0.7481;0.8127;
723.0000;0.7464;0.8080;
723.3000;0.7448;0.8104;
723.6000;0.7505;0.8341;
723.9000;0.7456;0.8246;
724.2000;0.7473;0.8198;
724.5000;0.7473;0.8222;
724.8000;0.7448;0.8222;
725.1000;0.7448;0.8269;
725.4000;0.7456;0.8364;
725.7000;0.7440;0.8317;
726.0000;0.7448;0.8364;
726.3000;0.7456;0.8412;
726.6000;0.7432;0.8341;
726.9000;0.7473;0.8435;
727.2000;0.7456;0.8341;
727.5000;0.7440;0.8341;
727.8000;0.7424;0.8317;
728.1000;0.7456;0.8364;
728.4000;0.7456;0.8341;
728.7000;0.7440;0.8364;
729.0000;0.7440;0.8293;
729.3000;0.7432;0.8317;
729.6000;0.7448;0.8364;
729.9000;0.7416;0.8364;
730.2000;0.7391;0.8293;
730.5000;0.7424;0.8388;
730.8000;0.7440;0.8412;
731.1000;0.7424;0.8364;
731.4000;0.7424;0.8388;
731.7000;0.7432;0.8388;
732.0000;0.7464;0.8530;
732.3000;0.7440;0.8459;
732.6000;0.7513;0.8506;
732.9000;0.7407;0.8246;
733.2000;0.7416;0.8341;
733.5000;0.7424;0.8435;
733.8000;0.7399;0.8435;
734.1000;0.7407;0.8364;
734.4000;0.7424;0.8435;
734.7000;0.7399;0.8388;
735.0000;0.7399;0.8364;
735.3000;0.7399;0.8364;
735.6000;0.7399;0.8412;
735.9000;0.7383;0.8364;
736.2000;0.7399;0.8341;
736.5000;0.7407;0.8435;
736.8000;0.7383;0.8412;
737.1000;0.7416;0.8578;
737.4000;0.7391;0.8506;
737.7000;0.7399;0.8530;
738.0000;0.7391;0.8506;
738.3000;0.7375;0.8364;
738.6000;0.7416;0.8364;
738.9000;0.7424;0.8293;
739.2000;0.7375;0.8175;
739.5000;0.7342;0.8056;
739.8000;0.7391;0.8222;
740.1000;0.7375;0.8222;
740.4000;0.7334;0.8151;
740.7000;0.7407;0.8269;
741.0000;0.7391;0.8269;
741.3000;0.7350;0.8317;
741.6000;0.7367;0.8364;
741.9000;0.7383;0.8435;
742.2000;0.7367;0.8459;
742.5000;0.7326;0.8317;
742.8000;0.7359;0.8435;
743.1000;0.7375;0.8412;
743.4000;0.7367;0.8459;
743.7000;0.7383;0.8506;
744.0000;0.7310;0.8341;
744.3000;0.7375;0.8530;
744.6000;0.7359;0.8554;
744.9000;0.7350;0.8554;
745.2000;0.7359;0.8412;
745.5000;0.7367;0.8459;
745.8000;0.7350;0.8459;
746.1000;0.7318;0.8341;
746.4000;0.7367;0.8483;
746.7000;0.7367;0.8483;
747.0000;0.7359;0.8506;
747.3000;0.7367;0.8506;
747.6000;0.7350;0.8459;
747.9000;0.7342;0.8435;
748.2000;0.7326;0.8293;
748.5000;0.7350;0.8364;
748.8000;0.7359;0.8412;
749.1000;0.7359;0.8412;
749.4000;0.7350;0.8364;
749.7000;0.7350;0.8341;
750.0000;0.7342;0.8222;
750.3000;0.7375;0.8246;
750.6000;0.7359;0.8222;
750.9000;0.7342;0.8246;
751.2000;0.7342;0.8246;
751.5000;0.7350;0.8269;
751.8000;0.7334;0.8341;
752.1000;0.7253;0.8198;
752.4000;0.7334;0.8435;
752.7000;0.7302;0.8341;
753.0000;0.7334;0.8435;
753.3000;0.7326;0.8412;
753.6000;0.7342;0.8459;
753.9000;0.7350;0.8435;
754.2000;0.7342;0.8412;
754.5000;0.7334;0.8435;
754.8000;0.7318;0.8341;
755.1000;0.7293;0.8198;
755.4000;0.7326;0.8293;
755.7000;0.7318;0.8198;
756.0000;0.7310;0.8198;
756.3000;0.7318;0.8246;
756.6000;0.7285;0.8246;
756.9000;0.7350;0.8364;
757.2000;0.7318;0.8317;
757.5000;0.7334;0.8412;
757.8000;0.7334;0.8364;
758.1000;0.7326;0.8341;
758.4000;0.7285;0.8269;
758.7000;0.7326;0.8459;
759.0000;0.7310;0.8412;
759.3000;0.7310;0.8388;
759.6000;0.7293;0.8364;
759.9000;0.7350;0.8459;
760.2000;0.7293;0.8364;
760.5000;0.7302;0.8341;
760.8000;0.7302;0.8364;
761.1000;0.7310;0.8364;
761.4000;0.7310;0.8388;
761.7000;0.7310;0.8364;
762.0000;0.7310;0.8317;
762.3000;0.7318;0.8459;
762.6000;0.7293;0.8459;
762.9000;0.7302;0.8506;
763.2000;0.7302;0.8530;
763.5000;0.7285;0.8483;
763.8000;0.7318;0.8554;
764.1000;0.7293;0.8435;
764.4000;0.7310;0.8506;
764.7000;0.7302;0.8435;
765.0000;0.7310;0.8459;
765.3000;0.7293;0.8435;
765.6000;0.7302;0.8388;
765.9000;0.7302;0.8364;
766.2000;0.7277;0.8341;
766.5000;0.7318;0.8459;
766.8000;0.7285;0.8246;
767.1000;0.7302;0.8127;
767.4000;0.7302;0.8080;
767.7000;0.7310;0.8127;
768.0000;0.7236;0.8009;
768.3000;0.7285;0.8246;
768.6000;0.7359;0.8317;
768.9000;0.7293;0.8246;
769.2000;0.7302;0.8317;
769.5000;0.7302;0.8317;
769.8000;0.7285;0.8341;
770.1000;0.7285;0.8388;
770.4000;0.7293;0.8364;
770.7000;0.7285;0.8341;
771.0000;0.7302;0.8483;
771.3000;0.7269;0.8435;
771.6000;0.7285;0.8364;
771.9000;0.7277;0.8293;
772.2000;0.7285;0.8388;
772.5000;0.7293;0.8388;
772.8000;0.7293;0.8388;
773.1000;0.7285;0.8506;
773.4000;0.7285;0.8483;
773.7000;0.7293;0.8459;
774.0000;0.7302;0.8435;
774.3000;0.7293;0.8412;
774.6000;0.7285;0.8459;
774.9000;0.7269;0.8483;
775.2000;0.7261;0.8412;
775.5000;0.7285;0.8459;
775.8000;0.7277;0.8388;
776.1000;0.7277;0.8412;
776.4000;0.7261;0.8364;
776.7000;0.7277;0.8364;
777.0000;0.7269;0.8364;
777.3000;0.7269;0.8364;
777.6000;0.7277;0.8412;
777.9000;0.7285;0.8435;
778.2000;0.7285;0.8459;
778.5000;0.7245;0.8483;
778.8000;0.7277;0.8506;
779.1000;0.7188;0.8269;
779.4000;0.7269;0.8459;
779.7000;0.7269;0.8506;
780.0000;0.7269;0.8483;
780.3000;0.7261;0.8364;
780.6000;0.7318;0.8459;
780.9000;0.7261;0.8317;
781.2000;0.7269;0.8317;
781.5000;0.7318;0.8341;
781.8000;0.7196;0.8127;
782.1000;0.7261;0.8317;
782.4000;0.7277;0.8317;
782.7000;0.7220;0.8293;
783.0000;0.7245;0.8317;
783.3000;0.7253;0.8317;
783.6000;0.7253;0.8293;
783.9000;0.7261;0.8435;
784.2000;0.7261;0.8412;
784.5000;0.7261;0.8483;
784.8000;0.7245;0.8483;
785.1000;0.7245;0.8506;
785.4000;0.7253;0.8483;
785.7000;0.7269;0.8459;
786.0000;0.7253;0.8412;
786.3000;0.7269;0.8459;
786.6000;0.7245;0.8269;
786.9000;0.7269;0.8317;
787.2000;0.7261;0.8317;
787.5000;0.7253;0.8293;
787.8000;0.7236;0.8269;
788.1000;0.7253;0.8388;
788.4000;0.7261;0.8435;
788.7000;0.7245;0.8435;
789.0000;0.7277;0.8483;
789.3000;0.7318;0.8578;
789.6000;0.7261;0.8506;
789.9000;0.7253;0.8506;
790.2000;0.7253;0.8578;
790.5000;0.7147;0.8364;
790.8000;0.7245;0.8578;
791.1000;0.7245;0.8554;
791.4000;0.7245;0.8578;
791.7000;0.7269;0.8601;
792.0000;0.7236;0.8578;
792.3000;0.7277;0.8625;
792.6000;0.7245;0.8554;
792.9000;0.7228;0.8649;
793.2000;0.7236;0.8649;
793.5000;0.7253;0.8672;
793.8000;0.7245;0.8720;
794.1000;0.7228;0.8649;
794.4000;0.7236;0.8649;
794.7000;0.7220;0.8649;
795.0000;0.7236;0.8743;
795.3000;0.7220;0.8791;
795.6000;0.7245;0.8720;
795.9000;0.7236;0.8625;
796.2000;0.7228;0.8578;
796.5000;0.7236;0.8483;
796.8000;0.7204;0.8506;
797.1000;0.7220;0.8578;
797.4000;0.7228;0.8601;
797.7000;0.7212;0.8601;
798.0000;0.7220;0.8625;
798.3000;0.7212;0.8578;
798.6000;0.7245;0.8554;
798.9000;0.7220;0.8530;
799.2000;0.7212;0.8506;
799.5000;0.7220;0.8625;
799.8000;0.7245;0.8625;
800.1000;0.7220;0.8601;
800.4000;0.7212;0.8483;
800.7000;0.7228;0.8483;
801.0000;0.7228;0.8530;
801.3000;0.7228;0.8483;
801.6000;0.7228;0.8435;
801.9000;0.7212;0.8483;
802.2000;0.7220;0.8530;
802.5000;0.7220;0.8483;
802.8000;0.7228;0.8506;
803.1000;0.7228;0.8388;
803.4000;0.7220;0.8388;
803.7000;0.7228;0.8388;
804.0000;0.7220;0.8388;
804.3000;0.7228;0.8483;
804.6000;0.7228;0.8578;
804.9000;0.7245;0.8578;
805.2000;0.7228;0.8459;
805.5000;0.7179;0.8435;
805.8000;0.7253;0.8672;
806.1000;0.7220;0.8649;
806.4000;0.7220;0.8649;
806.7000;0.7196;0.8554;
807.0000;0.7212;0.8625;
807.3000;0.7212;0.8625;
807.6000;0.7220;0.8672;
807.9000;0.7204;0.8649;
808.2000;0.7188;0.8506;
808.5000;0.7196;0.8483;
808.8000;0.7261;0.8578;
809.1000;0.7220;0.8483;
809.4000;0.7196;0.8506;
809.7000;0.7228;0.8601;
810.0000;0.7220;0.8720;
810.3000;0.7236;0.8814;
810.6000;0.7228;0.8743;
810.9000;0.7212;0.8696;
811.2000;0.7220;0.8672;
811.5000;0.7212;0.8578;
811.8000;0.7212;0.8578;
812.1000;0.7196;0.8578;
812.4000;0.7179;0.8625;
812.7000;0.7188;0.8601;
813.0000;0.7212;0.8625;
813.3000;0.7155;0.8435;
813.6000;0.7163;0.8459;
813.9000;0.7228;0.8578;
814.2000;0.7204;0.8435;
814.5000;0.7269;0.8578;
814.8000;0.7204;0.8435;
815.1000;0.7212;0.8412;
815.4000;0.7212;0.8435;
815.7000;0.7236;0.8554;
816.0000;0.7220;0.8483;
816.3000;0.7212;0.8554;
816.6000;0.7220;0.8530;
816.9000;0.7196;0.8412;
817.2000;0.7212;0.8459;
817.5000;0.7204;0.8483;
817.8000;0.7204;0.8459;
818.1000;0.7196;0.8578;
818.4000;0.7204;0.8554;
818.7000;0.7220;0.8483;
819.0000;0.7220;0.8554;
819.3000;0.7179;0.8459;
819.6000;0.7277;0.8672;
819.9000;0.7196;0.8578;
820.2000;0.7212;0.8649;
820.5000;0.7188;0.8530;
820.8000;0.7196;0.8554;
821.1000;0.7196;0.8459;
821.4000;0.7212;0.8483;
821.7000;0.7204;0.8483;
822.0000;0.7204;0.8435;
822.3000;0.7204;0.8412;
822.6000;0.7204;0.8412;
822.9000;0.7179;0.8388;
823.2000;0.7220;0.8388;
823.5000;0.7220;0.8435;
823.8000;0.7212;0.8341;
824.1000;0.7220;0.8364;
824.4000;0.7245;0.8459;
824.7000;0.7179;0.8246;
825.0000;0.7204;0.8293;
825.3000;0.7204;0.8293;
825.6000;0.7204;0.8269;
825.9000;0.7188;0.8246;
826.2000;0.7188;0.8222;
826.5000;0.7261;0.8388;
826.8000;0.7220;0.8222;
827.1000;0.7188;0.8222;
827.4000;0.7179;0.8198;
827.7000;0.7196;0.8317;
828.0000;0.7196;0.8269;
828.3000;0.7204;0.8269;
828.6000;0.7188;0.8269;
828.9000;0.7196;0.8269;
829.2000;0.7188;0.8246;
829.5000;0.7204;0.8317;
829.8000;0.7196;0.8364;
830.1000;0.7212;0.8412;
830.4000;0.7228;0.8459;
830.7000;0.7196;0.8506;
831.0000;0.7188;0.8530;
831.3000;0.7196;0.8506;
831.6000;0.7204;0.8506;
831.9000;0.7204;0.8530;
832.2000;0.7228;0.8506;
832.5000;0.7196;0.8459;
832.8000;0.7204;0.8483;
833.1000;0.7196;0.8554;
833.4000;0.7204;0.8601;
833.7000;0.7179;0.8554;
834.0000;0.7188;0.8578;
834.3000;0.7163;0.8530;
834.6000;0.7236;0.8601;
834.9000;0.7179;0.8435;
835.2000;0.7212;0.8412;
835.5000;0.7204;0.8364;
835.8000;0.7196;0.8317;
836.1000;0.7196;0.8341;
836.4000;0.7179;0.8317;
836.7000;0.7204;0.8364;
837.0000;0.7196;0.8364;
837.3000;0.7131;0.8151;
837.6000;0.7163;0.8269;
837.9000;0.7179;0.8341;
838.2000;0.7196;0.8341;
838.5000;0.7179;0.8388;
838.8000;0.7179;0.8317;
839.1000;0.7179;0.8317;
839.4000;0.7204;0.8435;
839.7000;0.7204;0.8530;
840.0000;0.7188;0.8388;
840.3000;0.7204;0.8435;
840.6000;0.7188;0.8364;
840.9000;0.7204;0.8459;
841.2000;0.7179;0.8388;
841.5000;0.7179;0.8364;
841.8000;0.7188;0.8412;
842.1000;0.7188;0.8435;
842.4000;0.7196;0.8388;
842.7000;0.7196;0.8412;
843.0000;0.7196;0.8483;
843.3000;0.7196;0.8483;
843.6000;0.7245;0.8649;
843.9000;0.7179;0.8483;
844.2000;0.7196;0.8459;
844.5000;0.7179;0.8435;
844.8000;0.7196;0.8483;
845.1000;0.7179;0.8483;
845.4000;0.7204;0.8530;
845.7000;0.7196;0.8506;
846.0000;0.7171;0.8506;
846.3000;0.7188;0.8412;
846.6000;0.7188;0.8388;
846.9000;0.7171;0.8388;
847.2000;0.7204;0.8435;
847.5000;0.7204;0.8412;
847.8000;0.7188;0.8388;
848.1000;0.7188;0.8364;
848.4000;0.7261;0.8506;
848.7000;0.7179;0.8364;
849.0000;0.7188;0.8364;
849.3000;0.7171;0.8435;
849.6000;0.7163;0.8506;
849.9000;0.7212;0.8601;
850.2000;0.7163;0.8435;
850.5000;0.7139;0.8412;
850.8000;0.7196;0.8601;
851.1000;0.7179;0.8601;
851.4000;0.7155;0.8483;
851.7000;0.7171;0.8459;
852.0000;0.7228;0.8649;
852.3000;0.7188;0.8601;
852.6000;0.7179;0.8601;
852.9000;0.7171;0.8578;
853.2000;0.7188;0.8601;
853.5000;0.7171;0.8412;
853.8000;0.7171;0.8412;
854.1000;0.7179;0.8364;
854.4000;0.7188;0.8388;
854.7000;0.7171;0.8341;
855.0000;0.7171;0.8364;
855.3000;0.7179;0.8388;
855.6000;0.7188;0.8483;
855.9000;0.7188;0.8506;
856.2000;0.7171;0.8530;
856.5000;0.7179;0.8530;
856.8000;0.7179;0.8625;
857.1000;0.7179;0.8601;
857.4000;0.7179;0.8649;
857.7000;0.7171;0.8649;
858.0000;0.7163;0.8530;
858.3000;0.7179;0.8435;
858.6000;0.7179;0.8412;
858.9000;0.7188;0.8459;
859.2000;0.7179;0.8459;
859.5000;0.7188;0.8459;
859.8000;0.7179;0.8412;
860.1000;0.7171;0.8459;
860.4000;0.7171;0.8554;
860.7000;0.7179;0.8578;
861.0000;0.7171;0.8578;
861.3000;0.7179;0.8601;
861.6000;0.7188;0.8578;
861.9000;0.7188;0.8506;
862.2000;0.7188;0.8554;
862.5000;0.7179;0.8483;
862.8000;0.7179;0.8578;
863.1000;0.7171;0.8625;
863.4000;0.7179;0.8672;
863.7000;0.7179;0.8625;
864.0000;0.7179;0.8601;
864.3000;0.7171;0.8554;
864.6000;0.7163;0.8506;
864.9000;0.7163;0.8554;
865.2000;0.7188;0.8578;
865.5000;0.7163;0.8506;
865.8000;0.7163;0.8483;
866.1000;0.7163;0.8459;
866.4000;0.7179;0.8506;
866.7000;0.7155;0.8578;
867.0000;0.7163;0.8625;
867.3000;0.7253;0.8791;
867.6000;0.7188;0.8578;
867.9000;0.7179;0.8530;
868.2000;0.7179;0.8435;
868.5000;0.7171;0.8459;
868.8000;0.7163;0.8459;
869.1000;0.7171;0.8459;
869.4000;0.7147;0.8364;
869.7000;0.7082;0.8127;
870.0000;0.7171;0.8388;
870.3000;0.7163;0.8435;
870.6000;0.7147;0.8506;
870.9000;0.7179;0.8601;
871.2000;0.7179;0.8649;
871.5000;0.7188;0.8696;
871.8000;0.7163;0.8649;
872.1000;0.7204;0.8767;
872.4000;0.7163;0.8696;
872.7000;0.7171;0.8743;
873.0000;0.7171;0.8720;
873.3000;0.7155;0.8601;
873.6000;0.7163;0.8625;
873.9000;0.7171;0.8649;
874.2000;0.7155;0.8625;
874.5000;0.7147;0.8554;
874.8000;0.7155;0.8506;
875.1000;0.7098;0.8459;
875.4000;0.7163;0.8649;
875.7000;0.7179;0.8625;
876.0000;0.7228;0.8791;
876.3000;0.7179;0.8672;
876.6000;0.7171;0.8814;
876.9000;0.7171;0.8720;
877.2000;0.7171;0.8672;
877.5000;0.7163;0.8672;
877.8000;0.7179;0.8696;
878.1000;0.7163;0.8601;
878.4000;0.7163;0.8696;
878.7000;0.7163;0.8720;
879.0000;0.7171;0.8649;
879.3000;0.7179;0.8625;
879.6000;0.7163;0.8601;
879.9000;0.7155;0.8530;
880.2000;0.7171;0.8696;
880.5000;0.7188;0.8767;
880.8000;0.7155;0.8720;
881.1000;0.7155;0.8649;
881.4000;0.7163;0.8649;
881.7000;0.7188;0.8601;
882.0000;0.7179;0.8530;
882.3000;0.7171;0.8578;
882.6000;0.7147;0.8578;
882.9000;0.7179;0.8625;
883.2000;0.7179;0.8459;
883.5000;0.7236;0.8601;
883.8000;0.7179;0.8483;
884.1000;0.7171;0.8435;
884.4000;0.7163;0.8435;
884.7000;0.7220;0.8625;
885.0000;0.7163;0.8388;
885.3000;0.7171;0.8483;
885.6000;0.7188;0.8601;
885.9000;0.7155;0.8459;
886.2000;0.7163;0.8483;
886.5000;0.7179;0.8483;
886.8000;0.7171;0.8412;
887.1000;0.7171;0.8435;
887.4000;0.7163;0.8483;
887.7000;0.7139;0.8483;
888.0000;0.7261;0.8720;
888.3000;0.7163;0.8506;
888.6000;0.7163;0.8483;
888.9000;0.7188;0.8578;
889.2000;0.7147;0.8483;
889.5000;0.7171;0.8578;
889.8000;0.7171;0.8578;
890.1000;0.7147;0.8601;
890.4000;0.7163;0.8554;
890.7000;0.7188;0.8578;
891.0000;0.7163;0.8459;
891.3000;0.7188;0.8578;
891.6000;0.7147;0.8435;
891.9000;0.7196;0.8459;
892.2000;0.7236;0.8578;
892.5000;0.7155;0.8317;
892.8000;0.7139;0.8364;
893.1000;0.7171;0.8435;
893.4000;0.7204;0.8483;
893.7000;0.7163;0.8293;
894.0000;0.7163;0.8341;
894.3000;0.7171;0.8341;
894.6000;0.7228;0.8435;
894.9000;0.7163;0.8459;
895.2000;0.7139;0.8435;
895.5000;0.7163;0.8530;
895.8000;0.7163;0.8483;
896.1000;0.7147;0.8530;
896.4000;0.7155;0.8554;
896.7000;0.7155;0.8601;
897.0000;0.7220;0.8720;
897.3000;0.7171;0.8578;
897.6000;0.7155;0.8601;
897.9000;0.7147;0.8578;
898.2000;0.7155;0.8649;
898.5000;0.7171;0.8696;
898.8000;0.7155;0.8672;
899.1000;0.7139;0.8601;
899.4000;0.7147;0.8720;
899.7000;0.7163;0.8696;
900.0000;0.7163;0.8601;
900.3000;0.7163;0.8530;
900.6000;0.7204;0.8625;
900.9000;0.7139;0.8530;
901.2000;0.7155;0.8459;
901.5000;0.7147;0.8435;
901.8000;0.7155;0.8459;
902.1000;0.7163;0.8459;
902.4000;0.7147;0.8435;
902.7000;0.7171;0.8483;
903.0000;0.7163;0.8483;
903.3000;0.7188;0.8554;
903.6000;0.7171;0.8459;
903.9000;0.7114;0.8341;
904.2000;0.7139;0.8459;
904.5000;0.7155;0.8530;
904.8000;0.7179;0.8506;
905.1000;0.7163;0.8554;
905.4000;0.7155;0.8506;
905.7000;0.7171;0.8554;
906.0000;0.7155;0.8672;
906.3000;0.7155;0.8649;
906.6000;0.7147;0.8625;
906.9000;0.7114;0.8530;
907.2000;0.7155;0.8554;
907.5000;0.7155;0.8530;
907.8000;0.7139;0.8459;
908.1000;0.7163;0.8578;
908.4000;0.7155;0.8601;
908.7000;0.7139;0.8506;
909.0000;0.7147;0.8601;
909.3000;0.7155;0.8625;
909.6000;0.7147;0.8649;
909.9000;0.7163;0.8720;
910.2000;0.7139;0.8696;
910.5000;0.7139;0.8767;
910.8000;0.7131;0.8791;
911.1000;0.7163;0.8886;
911.4000;0.7147;0.8791;
911.7000;0.7212;0.8814;
912.0000;0.7155;0.8649;
912.3000;0.7155;0.8743;
912.6000;0.7131;0.8743;
912.9000;0.7147;0.8672;
913.2000;0.7163;0.8672;
913.5000;0.7147;0.8649;
913.8000;0.7123;0.8625;
914.1000;0.7139;0.8672;
914.4000;0.7139;0.8720;
914.7000;0.7057;0.8459;
915.0000;0.7147;0.8696;
915.3000;0.7196;0.8838;
915.6000;0.7139;0.8767;
915.9000;0.7147;0.8791;
916.2000;0.7155;0.8720;
916.5000;0.7139;0.8720;
916.8000;0.7139;0.8649;
917.1000;0.7147;0.8672;
917.4000;0.7147;0.8720;
917.7000;0.7163;0.8696;
918.0000;0.7147;0.8720;
918.3000;0.7155;0.8767;
918.6000;0.7139;0.8696;
918.9000;0.7147;0.8696;
919.2000;0.7139;0.8672;
919.5000;0.7163;0.8767;
919.8000;0.7155;0.8672;
920.1000;0.7147;0.8625;
920.4000;0.7123;0.8649;
920.7000;0.7147;0.8720;
921.0000;0.7163;0.8672;
921.3000;0.7171;0.8578;
921.6000;0.7204;0.8578;
921.9000;0.7155;0.8530;
922.2000;0.7155;0.8530;
922.5000;0.7171;0.8530;
922.8000;0.7171;0.8530;
923.1000;0.7155;0.8601;
923.4000;0.7171;0.8767;
923.7000;0.7171;0.8814;
924.0000;0.7171;0.8791;
924.3000;0.7171;0.8720;
924.6000;0.7147;0.8720;
924.9000;0.7163;0.8672;
925.2000;0.7171;0.8625;
925.5000;0.7155;0.8625;
925.8000;0.7147;0.8601;
926.1000;0.7155;0.8625;
926.4000;0.7114;0.8601;
926.7000;0.7163;0.8696;
927.0000;0.7155;0.8814;
927.3000;0.7147;0.8767;
927.6000;0.7163;0.8791;
927.9000;0.7147;0.8791;
928.2000;0.7204;0.8862;
928.5000;0.7131;0.8578;
928.8000;0.7147;0.8530;
929.1000;0.7155;0.8601;
929.4000;0.7139;0.8530;
929.7000;0.7147;0.8483;
930.0000;0.7155;0.8530;
930.3000;0.7131;0.8459;
930.6000;0.7131;0.8530;
930.9000;0.7139;0.8554;
931.2000;0.7147;0.8554;
931.5000;0.7147;0.8625;
931.8000;0.7147;0.8601;
932.1000;0.7131;0.8743;
932.4000;0.7131;0.8838;
932.7000;0.7163;0.8909;
933.0000;0.7155;0.8862;
933.3000;0.7139;0.8791;
933.6000;0.7147;0.8743;
933.9000;0.7147;0.8720;
934.2000;0.7163;0.8838;
934.5000;0.7155;0.8696;
934.8000;0.7147;0.8672;
935.1000;0.7163;0.8743;
935.4000;0.7163;0.8696;
935.7000;0.7155;0.8578;
936.0000;0.7139;0.8530;
936.3000;0.7114;0.8483;
936.6000;0.7106;0.8506;
936.9000;0.7131;0.8672;
937.2000;0.7147;0.8720;
937.5000;0.7139;0.8696;
937.8000;0.7147;0.8649;
938.1000;0.7098;0.8601;
938.4000;0.7139;0.8625;
938.7000;0.7131;0.8506;
939.0000;0.7147;0.8578;
939.3000;0.7131;0.8649;
939.6000;0.7139;0.8814;
939.9000;0.7139;0.8791;
940.2000;0.7147;0.8838;
940.5000;0.7131;0.8814;
940.8000;0.7123;0.8696;
941.1000;0.7131;0.8601;
941.4000;0.7147;0.8625;
941.7000;0.7155;0.8601;
942.0000;0.7139;0.8578;
942.3000;0.7139;0.8554;
942.6000;0.7074;0.8293;
942.9000;0.7139;0.8459;
943.2000;0.7123;0.8483;
943.5000;0.7139;0.8483;
943.8000;0.7139;0.8483;
944.1000;0.7131;0.8506;
944.4000;0.7212;0.8743;
944.7000;0.7131;0.8554;
945.0000;0.7147;0.8530;
945.3000;0.7139;0.8435;
945.6000;0.7090;0.8269;
945.9000;0.7163;0.8459;
946.2000;0.7139;0.8412;
946.5000;0.7147;0.8435;
946.8000;0.7147;0.8483;
947.1000;0.7147;0.8483;
947.4000;0.7147;0.8459;
947.7000;0.7131;0.8412;
948.0000;0.7220;0.8649;
948.3000;0.7171;0.8578;
948.6000;0.7163;0.8506;
948.9000;0.7163;0.8554;
949.2000;0.7131;0.8601;
949.5000;0.7155;0.8625;
949.8000;0.7147;0.8625;
950.1000;0.7114;0.8601;
950.4000;0.7147;0.8720;
950.7000;0.7147;0.8649;
951.0000;0.7131;0.8649;
951.3000;0.7131;0.8601;
951.6000;0.7139;0.8554;
951.9000;0.7147;0.8601;
952.2000;0.7139;0.8649;
952.5000;0.7131;0.8578;
952.8000;0.7131;0.8601;
953.1000;0.7155;0.8649;
953.4000;0.7123;0.8649;
953.7000;0.7139;0.8672;
954.0000;0.7131;0.8601;
954.3000;0.7139;0.8554;
954.6000;0.7139;0.8554;
954.9000;0.7123;0.8412;
955.2000;0.7123;0.8412;
955.5000;0.7123;0.8483;
955.8000;0.7147;0.8459;
956.1000;0.7131;0.8412;
956.4000;0.7131;0.8435;
956.7000;0.7123;0.8435;
957.0000;0.7139;0.8459;
957.3000;0.7131;0.8483;
957.6000;0.7147;0.8625;
957.9000;0.7123;0.8578;
958.2000;0.7106;0.8459;
958.5000;0.7139;0.8459;
958.8000;0.7114;0.8554;
959.1000;0.7123;0.8578;
959.4000;0.7147;0.8554;
959.7000;0.7131;0.8506;
960.0000;0.7123;0.8506;
960.3000;0.7123;0.8530;
960.6000;0.7139;0.8483;
960.9000;0.7139;0.8530;
961.2000;0.7098;0.8412;
961.5000;0.7147;0.8601;
961.8000;0.7163;0.8672;
962.1000;0.7147;0.8672;
962.4000;0.7098;0.8625;
962.7000;0.7139;0.8696;
963.0000;0.7123;0.8696;
963.3000;0.7179;0.8862;
963.6000;0.7131;0.8791;
963.9000;0.7139;0.8672;
964.2000;0.7139;0.8767;
964.5000;0.7147;0.8838;
964.8000;0.7155;0.8862;
965.1000;0.7131;0.8791;
965.4000;0.7131;0.8767;
965.7000;0.7131;0.8672;
966.0000;0.7139;0.8649;
966.3000;0.7171;0.8672;
966.6000;0.7106;0.8506;
966.9000;0.7041;0.8246;
967.2000;0.7114;0.8530;
967.5000;0.7123;0.8483;
967.8000;0.7114;0.8483;
968.1000;0.7147;0.8459;
968.4000;0.7147;0.8506;
968.7000;0.7163;0.8578;
969.0000;0.7131;0.8554;
969.3000;0.7139;0.8554;
969.6000;0.7139;0.8554;
969.9000;0.7212;0.8743;
970.2000;0.7147;0.8578;
970.5000;0.7131;0.8601;
970.8000;0.7139;0.8601;
971.1000;0.7147;0.8672;
971.4000;0.7147;0.8649;
971.7000;0.7139;0.8649;
972.0000;0.7139;0.8696;
972.3000;0.7114;0.8743;
972.6000;0.7147;0.8767;
972.9000;0.7123;0.8578;
973.2000;0.7131;0.8483;
973.5000;0.7139;0.8554;
973.8000;0.7147;0.8578;
974.1000;0.7114;0.8506;
974.4000;0.7155;0.8625;
974.7000;0.7155;0.8601;
975.0000;0.7147;0.8578;
975.3000;0.7123;0.8554;
975.6000;0.7139;0.8578;
975.9000;0.7139;0.8483;
976.2000;0.7131;0.8435;
976.5000;0.7123;0.8435;
976.8000;0.7123;0.8483;
977.1000;0.7131;0.8506;
977.4000;0.7131;0.8483;
977.7000;0.7155;0.8435;
978.0000;0.7147;0.8364;
978.3000;0.7139;0.8341;
978.6000;0.7131;0.8364;
978.9000;0.7139;0.8341;
979.2000;0.7139;0.8412;
979.5000;0.7033;0.8175;
979.8000;0.7139;0.8435;
980.1000;0.7139;0.8506;
980.4000;0.7131;0.8459;
980.7000;0.7131;0.8412;
981.0000;0.7131;0.8412;
981.3000;0.7131;0.8388;
981.6000;0.7179;0.8530;
981.9000;0.7147;0.8412;
982.2000;0.7139;0.8435;
982.5000;0.7123;0.8506;
982.8000;0.7131;0.8601;
983.1000;0.7131;0.8601;
983.4000;0.7139;0.8601;
983.7000;0.7131;0.8625;
984.0000;0.7139;0.8601;
984.3000;0.7114;0.8530;
984.6000;0.7139;0.8649;
984.9000;0.7131;0.8672;
985.2000;0.7147;0.8672;
985.5000;0.7131;0.8625;
985.8000;0.7139;0.8649;
986.1000;0.7123;0.8767;
986.4000;0.7123;0.8720;
986.7000;0.7131;0.8672;
987.0000;0.7131;0.8720;
987.3000;0.7106;0.8720;
987.6000;0.7139;0.8791;
987.9000;0.7147;0.8720;
988.2000;0.7123;0.8649;
988.5000;0.7171;0.8814;
988.8000;0.7131;0.8743;
989.1000;0.7139;0.8767;
989.4000;0.7123;0.8720;
989.7000;0.7131;0.8767;
990.0000;0.7139;0.8720;
990.3000;0.7147;0.8720;
990.6000;0.7163;0.8767;
990.9000;0.7171;0.8838;
991.2000;0.7114;0.8649;
991.5000;0.7131;0.8672;
991.8000;0.7139;0.8720;
992.1000;0.7139;0.8767;
992.4000;0.7131;0.8720;
992.7000;0.7131;0.8672;
993.0000;0.7131;0.8696;
993.3000;0.7123;0.8720;
993.6000;0.7123;0.8720;
993.9000;0.7204;0.8933;
994.2000;0.7139;0.8720;
994.5000;0.7155;0.8743;
994.8000;0.7139;0.8743;
995.1000;0.7131;0.8672;
995.4000;0.7123;0.8625;
995.7000;0.7123;0.8554;
996.0000;0.7123;0.8625;
996.3000;0.7131;0.8672;
996.6000;0.7139;0.8625;
996.9000;0.7106;0.8625;
997.2000;0.7123;0.8601;
997.5000;0.7106;0.8554;
997.8000;0.7114;0.8578;
998.1000;0.7131;0.8483;
998.4000;0.7131;0.8435;
998.7000;0.7131;0.8459;
999.0000;0.7131;0.8483;
999.3000;0.7131;0.8459;
999.6000;0.7114;0.8483;
999.9000;0.7114;0.8554;
1000.2000;0.7106;0.8483;
1000.5000;0.7139;0.8435;
1000.8000;0.7147;0.8459;
1001.1000;0.7114;0.8269;
1001.4000;0.7131;0.8269;
1001.7000;0.7123;0.8317;
1002.0000;0.7123;0.8388;
1002.3000;0.7131;0.8412;
1002.6000;0.7123;0.8388;
1002.9000;0.7114;0.8341;
1003.2000;0.7131;0.8388;
1003.5000;0.7131;0.8506;
1003.8000;0.7131;0.8530;
1004.1000;0.7147;0.8625;
1004.4000;0.7131;0.8672;
1004.7000;0.7131;0.8672;
1005.0000;0.7123;0.8649;
1005.3000;0.7131;0.8649;
1005.6000;0.7163;0.8720;
1005.9000;0.7139;0.8743;
1006.2000;0.7131;0.8649;
1006.5000;0.7147;0.8672;
1006.8000;0.7066;0.8506;
1007.1000;0.7131;0.8672;
1007.4000;0.7106;0.8530;
1007.7000;0.7049;0.8341;
1008.0000;0.7131;0.8506;
1008.3000;0.7098;0.8459;
1008.6000;0.7139;0.8578;
1008.9000;0.7106;0.8459;
1009.2000;0.7131;0.8530;
1009.5000;0.7123;0.8459;
1009.8000;0.7123;0.8530;
1010.1000;0.7131;0.8601;
1010.4000;0.7131;0.8649;
1010.7000;0.7139;0.8649;
1011.0000;0.7131;0.8554;
1011.3000;0.7114;0.8530;
1011.6000;0.7123;0.8459;
1011.9000;0.7123;0.8506;
1012.2000;0.7131;0.8435;
1012.5000;0.7123;0.8459;
1012.8000;0.7114;0.8388;
1013.1000;0.7123;0.8435;
1013.4000;0.7155;0.8459;
1013.7000;0.7131;0.8483;
1014.0000;0.7082;0.8364;
1014.3000;0.7139;0.8459;
1014.6000;0.7041;0.8198;
1014.9000;0.7114;0.8483;
1015.2000;0.7131;0.8601;
1015.5000;0.7131;0.8649;
1015.8000;0.7098;0.8601;
1016.1000;0.7131;0.8625;
1016.4000;0.7196;0.8696;
1016.7000;0.7123;0.8578;
1017.0000;0.7123;0.8506;
1017.3000;0.7114;0.8435;
1017.6000;0.7114;0.8388;
1017.9000;0.7106;0.8388;
1018.2000;0.7131;0.8412;
1018.5000;0.7123;0.8435;
1018.8000;0.7123;0.8388;
1019.1000;0.7114;0.8435;
1019.4000;0.7139;0.8530;
1019.7000;0.7139;0.8435;
1020.0000;0.7123;0.8435;
1020.3000;0.7098;0.8483;
1020.6000;0.7131;0.8578;
1020.9000;0.7131;0.8649;
1021.2000;0.7074;0.8530;
1021.5000;0.7114;0.8530;
1021.8000;0.7123;0.8578;
1022.1000;0.7131;0.8578;
1022.4000;0.7131;0.8601;
1022.7000;0.7123;0.8625;
1023.0000;0.7106;0.8649;
1023.3000;0.7123;0.8672;
1023.6000;0.7131;0.8672;
1023.9000;0.7090;0.8625;
1024.2000;0.7123;0.8720;
1024.5000;0.7123;0.8649;
1024.8000;0.7139;0.8696;
1025.1000;0.7114;0.8720;
1025.4000;0.7114;0.8767;
1025.7000;0.7098;0.8743;
1026.0000;0.7123;0.8838;
1026.3000;0.7139;0.8862;
1026.6000;0.7114;0.8838;
1026.9000;0.7131;0.8791;
1027.2000;0.7139;0.8696;
1027.5000;0.7139;0.8672;
1027.8000;0.7131;0.8720;
1028.1000;0.7131;0.8696;
1028.4000;0.7123;0.8625;
1028.7000;0.7123;0.8743;
1029.0000;0.7114;0.8791;
1029.3000;0.7106;0.8743;
1029.6000;0.7147;0.8720;
1029.9000;0.7131;0.8720;
1030.2000;0.7098;0.8601;
1030.5000;0.7114;0.8578;
1030.8000;0.7114;0.8530;
1031.1000;0.7114;0.8578;
1031.4000;0.7090;0.8554;
1031.7000;0.7041;0.8483;
1032.0000;0.7090;0.8601;
1032.3000;0.7131;0.8601;
1032.6000;0.7106;0.8601;
1032.9000;0.7114;0.8601;
1033.2000;0.7106;0.8601;
1033.5000;0.7204;0.8909;
1033.8000;0.7123;0.8625;
1034.1000;0.7131;0.8672;
1034.4000;0.7131;0.8696;
1034.7000;0.7114;0.8720;
1035.0000;0.7147;0.8862;
1035.3000;0.7123;0.8743;
1035.6000;0.7123;0.8767;
1035.9000;0.7074;0.8672;
1036.2000;0.7123;0.8838;
1036.5000;0.7123;0.8862;
1036.8000;0.7123;0.8862;
1037.1000;0.7139;0.8862;
1037.4000;0.7131;0.8814;
1037.7000;0.7188;0.8957;
1038.0000;0.7106;0.8743;
1038.3000;0.7123;0.8767;
1038.6000;0.7131;0.8814;
1038.9000;0.7228;0.8909;
1039.2000;0.7147;0.8672;
1039.5000;0.7090;0.8530;
1039.8000;0.7114;0.8601;
1040.1000;0.7123;0.8601;
1040.4000;0.7114;0.8601;
1040.7000;0.7114;0.8554;
1041.0000;0.7131;0.8649;
1041.3000;0.7139;0.8767;
1041.6000;0.7123;0.8720;
1041.9000;0.7114;0.8720;
1042.2000;0.7114;0.8672;
1042.5000;0.7131;0.8625;
1042.8000;0.7131;0.8601;
1043.1000;0.7131;0.8649;
1043.4000;0.7106;0.8672;
1043.7000;0.7106;0.8625;
1044.0000;0.7131;0.8720;
1044.3000;0.7131;0.8696;
1044.6000;0.7139;0.8672;
1044.9000;0.7106;0.8649;
1045.2000;0.7082;0.8672;
1045.5000;0.7114;0.8720;
1045.8000;0.7123;0.8743;
1046.1000;0.7082;0.8672;
1046.4000;0.7098;0.8625;
1046.7000;0.7123;0.8601;
1047.0000;0.7098;0.8625;
1047.3000;0.7114;0.8672;
1047.6000;0.7147;0.8862;
1047.9000;0.7114;0.8767;
1048.2000;0.7114;0.8720;
1048.5000;0.7123;0.8672;
1048.8000;0.7114;0.8649;
1049.1000;0.7123;0.8649;
1049.4000;0.7114;0.8672;
1049.7000;0.7114;0.8649;
1050.0000;0.7123;0.8743;
1050.3000;0.7123;0.8720;
1050.6000;0.7114;0.8672;
1050.9000;0.7188;0.8838;
1051.2000;0.7114;0.8672;
1051.5000;0.7131;0.8672;
1051.8000;0.7131;0.8672;
1052.1000;0.7131;0.8743;
1052.4000;0.7123;0.8696;
1052.7000;0.7114;0.8601;
1053.0000;0.7139;0.8649;
1053.3000;0.7123;0.8696;
1053.6000;0.7114;0.8743;
1053.9000;0.7106;0.8743;
1054.2000;0.7106;0.8814;
1054.5000;0.7131;0.8862;
1054.8000;0.7114;0.8862;
1055.1000;0.7114;0.8814;
1055.4000;0.7114;0.8814;
1055.7000;0.7106;0.8743;
1056.0000;0.7147;0.8814;
1056.3000;0.7090;0.8838;
1056.6000;0.7131;0.8814;
1056.9000;0.7131;0.8743;
1057.2000;0.7106;0.8672;
1057.5000;0.7139;0.8672;
1057.8000;0.7123;0.8696;
1058.1000;0.7131;0.8814;
1058.4000;0.7163;0.8933;
1058.7000;0.7123;0.8814;
1059.0000;0.7123;0.8886;
1059.3000;0.7131;0.8886;
1059.6000;0.7131;0.8886;
1059.9000;0.7106;0.8814;
1060.2000;0.7114;0.8743;
1060.5000;0.7114;0.8696;
1060.8000;0.7139;0.8649;
1061.1000;0.7131;0.8578;
1061.4000;0.7163;0.8625;
1061.7000;0.7114;0.8601;
1062.0000;0.7114;0.8649;
1062.3000;0.7123;0.8649;
1062.6000;0.7041;0.8483;
1062.9000;0.7123;0.8791;
1063.2000;0.7131;0.8743;
1063.5000;0.7114;0.8720;
1063.8000;0.7123;0.8767;
1064.1000;0.7123;0.8743;
1064.4000;0.7123;0.8767;
1064.7000;0.7139;0.8814;
1065.0000;0.7106;0.8696;
1065.3000;0.7106;0.8625;
1065.6000;0.7114;0.8625;
1065.9000;0.7106;0.8649;
1066.2000;0.7114;0.8625;
1066.5000;0.7090;0.8506;
1066.8000;0.7114;0.8530;
1067.1000;0.7106;0.8530;
1067.4000;0.7098;0.8554;
1067.7000;0.7106;0.8601;
1068.0000;0.7123;0.8672;
1068.3000;0.7106;0.8649;
1068.6000;0.7106;0.8601;
1068.9000;0.7090;0.8625;
1069.2000;0.7098;0.8506;
1069.5000;0.7106;0.8578;
1069.8000;0.7123;0.8530;
1070.1000;0.7123;0.8530;
1070.4000;0.7106;0.8578;
1070.7000;0.7123;0.8530;
1071.0000;0.7114;0.8530;
1071.3000;0.7106;0.8554;
1071.6000;0.7106;0.8578;
1071.9000;0.7114;0.8601;
1072.2000;0.7114;0.8601;
1072.5000;0.7123;0.8649;
1072.8000;0.7171;0.8862;
1073.1000;0.7131;0.8767;
1073.4000;0.7123;0.8696;
1073.7000;0.7131;0.8720;
1074.0000;0.7114;0.8767;
1074.3000;0.7114;0.8767;
1074.6000;0.7131;0.8743;
1074.9000;0.7123;0.8743;
1075.2000;0.7098;0.8696;
1075.5000;0.7147;0.8696;
1075.8000;0.7123;0.8649;
1076.1000;0.7114;0.8625;
1076.4000;0.7131;0.8672;
1076.7000;0.7106;0.8696;
1077.0000;0.7114;0.8720;
1077.3000;0.7196;0.8791;
1077.6000;0.7123;0.8601;
1077.9000;0.7106;0.8578;
1078.2000;0.7123;0.8530;
1078.5000;0.7123;0.8530;
1078.8000;0.7139;0.8578;
1079.1000;0.7131;0.8554;
1079.4000;0.7114;0.8483;
1079.7000;0.7131;0.8506;
1080.0000;0.7163;0.8578;
1080.3000;0.7179;0.8649;
1080.6000;0.7114;0.8483;
1080.9000;0.7114;0.8506;
1081.2000;0.7123;0.8412;
1081.5000;0.7106;0.8317;
1081.8000;0.7123;0.8506;
1082.1000;0.7123;0.8578;
1082.4000;0.7123;0.8578;
1082.7000;0.7123;0.8530;
1083.0000;0.7123;0.8530;
1083.3000;0.7098;0.8530;
1083.6000;0.7123;0.8578;
1083.9000;0.7098;0.8530;
1084.2000;0.7123;0.8578;
1084.5000;0.7131;0.8459;
1084.8000;0.7114;0.8412;
1085.1000;0.7114;0.8459;
1085.4000;0.7098;0.8435;
1085.7000;0.7106;0.8341;
1086.0000;0.7098;0.8341;
1086.3000;0.7106;0.8435;
1086.6000;0.7131;0.8506;
1086.9000;0.7114;0.8506;
1087.2000;0.7106;0.8483;
1087.5000;0.7066;0.8506;
1087.8000;0.7123;0.8649;
1088.1000;0.7098;0.8601;
1088.4000;0.7114;0.8696;
1088.7000;0.7114;0.8672;
1089.0000;0.7098;0.8625;
1089.3000;0.7114;0.8672;
1089.6000;0.7114;0.8625;
1089.9000;0.7114;0.8601;
1090.2000;0.7106;0.8649;
1090.5000;0.7098;0.8625;
1090.8000;0.7082;0.8530;
1091.1000;0.7114;0.8625;
1091.4000;0.7106;0.8578;
1091.7000;0.7098;0.8530;
1092.0000;0.7082;0.8459;
1092.3000;0.7114;0.8506;
1092.6000;0.7098;0.8435;
1092.9000;0.7106;0.8293;
1093.2000;0.7114;0.8364;
1093.5000;0.7041;0.8127;
1093.8000;0.7106;0.8341;
1094.1000;0.7114;0.8341;
1094.4000;0.7106;0.8341;
1094.7000;0.7090;0.8364;
1095.0000;0.7090;0.8341;
1095.3000;0.7106;0.8435;
1095.6000;0.7106;0.8435;
1095.9000;0.7106;0.8388;
1096.2000;0.7106;0.8412;
1096.5000;0.7114;0.8459;
1096.8000;0.7139;0.8530;
1097.1000;0.7114;0.8435;
1097.4000;0.7106;0.8459;
1097.7000;0.7098;0.8459;
1098.0000;0.7106;0.8459;
1098.3000;0.7114;0.8483;
1098.6000;0.7131;0.8530;
1098.9000;0.7066;0.8364;
1099.2000;0.7114;0.8554;
1099.5000;0.7106;0.8554;
1099.8000;0.7106;0.8554;
1100.1000;0.7147;0.8743;
1100.4000;0.7106;0.8649;
1100.7000;0.7114;0.8649;
1101.0000;0.7155;0.8720;
1101.3000;0.7131;0.8649;
1101.6000;0.7114;0.8649;
1101.9000;0.7106;0.8649;
1102.2000;0.7074;0.8578;
1102.5000;0.7106;0.8578;
1102.8000;0.7090;0.8435;
1103.1000;0.7106;0.8530;
1103.4000;0.7041;0.8483;
1103.7000;0.7098;0.8601;
1104.0000;0.7123;0.8625;
1104.3000;0.7074;0.8506;
1104.6000;0.7139;0.8720;
1104.9000;0.7114;0.8720;
1105.2000;0.7114;0.8672;
1105.5000;0.7179;0.8862;
1105.8000;0.7139;0.8672;
1106.1000;0.7114;0.8649;
1106.4000;0.7131;0.8578;
1106.7000;0.7114;0.8578;
1107.0000;0.7114;0.8578;
1107.3000;0.7041;0.8483;
1107.6000;0.7066;0.8530;
1107.9000;0.7098;0.8554;
1108.2000;0.7123;0.8649;
1108.5000;0.7114;0.8696;
1108.8000;0.7114;0.8672;
1109.1000;0.7114;0.8625;
1109.4000;0.7082;0.8554;
1109.7000;0.7114;0.8554;
1110.0000;0.7106;0.8483;
1110.3000;0.7082;0.8530;
1110.6000;0.7123;0.8601;
1110.9000;0.7123;0.8578;
1111.2000;0.7098;0.8506;
1111.5000;0.7090;0.8459;
1111.8000;0.7082;0.8341;
1112.1000;0.7106;0.8483;
1112.4000;0.7188;0.8743;
1112.7000;0.7123;0.8601;
1113.0000;0.7114;0.8649;
1113.3000;0.7155;0.8696;
1113.6000;0.7114;0.8672;
1113.9000;0.7114;0.8649;
1114.2000;0.7009;0.8435;
1114.5000;0.7098;0.8649;
1114.8000;0.7179;0.8838;
1115.1000;0.7090;0.8720;
1115.4000;0.7098;0.8767;
1115.7000;0.7066;0.8767;
1116.0000;0.7114;0.8838;
1116.3000;0.7098;0.8720;
1116.6000;0.7098;0.8767;
1116.9000;0.7114;0.8814;
1117.2000;0.7123;0.8814;
1117.5000;0.7049;0.8696;
1117.8000;0.7106;0.8791;
1118.1000;0.7098;0.8767;
1118.4000;0.7106;0.8838;
1118.7000;0.7106;0.8791;
1119.0000;0.7131;0.8838;
1119.3000;0.7114;0.8649;
1119.6000;0.7131;0.8672;
1119.9000;0.7098;0.8649;
1120.2000;0.7106;0.8601;
1120.5000;0.7106;0.8625;
1120.8000;0.7123;0.8767;
1121.1000;0.7090;0.8743;
1121.4000;0.7090;0.8672;
1121.7000;0.7114;0.8625;
1122.0000;0.7131;0.8601;
1122.3000;0.7090;0.8554;
1122.6000;0.7147;0.8743;
1122.9000;0.7041;0.8459;
1123.2000;0.7114;0.8554;
1123.5000;0.7098;0.8530;
1123.8000;0.7090;0.8601;
1124.1000;0.7114;0.8649;
1124.4000;0.7090;0.8696;
1124.7000;0.7106;0.8743;
1125.0000;0.7114;0.8672;
1125.3000;0.7123;0.8672;
1125.6000;0.7131;0.8672;
1125.9000;0.7131;0.8696;
1126.2000;0.7098;0.8601;
1126.5000;0.7098;0.8672;
1126.8000;0.7106;0.8696;
1127.1000;0.7139;0.8720;
1127.4000;0.7098;0.8649;
1127.7000;0.7098;0.8649;
1128.0000;0.7025;0.8435;
1128.3000;0.7106;0.8578;
1128.6000;0.7147;0.8696;
1128.9000;0.7098;0.8625;
1129.2000;0.7106;0.8696;
1129.5000;0.7000;0.8435;
1129.8000;0.7114;0.8743;
1130.1000;0.7098;0.8672;
1130.4000;0.7106;0.8743;
1130.7000;0.7057;0.8578;
1131.0000;0.7074;0.8720;
1131.3000;0.7106;0.8767;
1131.6000;0.7106;0.8838;
1131.9000;0.7123;0.8862;
1132.2000;0.7131;0.8909;
1132.5000;0.7098;0.8814;
1132.8000;0.7017;0.8483;
1133.1000;0.7074;0.8601;
1133.4000;0.7114;0.8767;
1133.7000;0.7163;0.8814;
1134.0000;0.7106;0.8672;
1134.3000;0.7066;0.8554;
1134.6000;0.7123;0.8672;
1134.9000;0.7139;0.8838;
1135.2000;0.7098;0.8743;
1135.5000;0.7114;0.8696;
1135.8000;0.7090;0.8696;
1136.1000;0.7098;0.8672;
1136.4000;0.7074;0.8625;
1136.7000;0.7114;0.8649;
1137.0000;0.7123;0.8578;
1137.3000;0.7098;0.8625;
1137.6000;0.7106;0.8601;
1137.9000;0.7090;0.8554;
1138.2000;0.7114;0.8649;
1138.5000;0.7106;0.8672;
1138.8000;0.7114;0.8743;
1139.1000;0.7123;0.8791;
1139.4000;0.7114;0.8767;
1139.7000;0.7106;0.8696;
1140.0000;0.7131;0.8743;
1140.3000;0.7106;0.8767;
1140.6000;0.7147;0.8862;
1140.9000;0.7106;0.8791;
1141.2000;0.7123;0.8814;
1141.5000;0.7098;0.8838;
1141.8000;0.7066;0.8720;
1142.1000;0.7114;0.8767;
1142.4000;0.7098;0.8720;
1142.7000;0.7114;0.8601;
1143.0000;0.7131;0.8696;
1143.3000;0.7098;0.8649;
1143.6000;0.7033;0.8554;
1143.9000;0.7106;0.8838;
1144.2000;0.7106;0.8862;
1144.5000;0.7106;0.8886;
1144.8000;0.7139;0.8862;
1145.1000;0.7098;0.8814;
1145.4000;0.7123;0.8862;
1145.7000;0.7114;0.8814;
1146.0000;0.7114;0.8814;
1146.3000;0.7114;0.8767;
1146.6000;0.7098;0.8696;
1146.9000;0.7139;0.8814;
1147.2000;0.7106;0.8814;
1147.5000;0.7074;0.8814;
1147.8000;0.7114;0.8886;
1148.1000;0.7049;0.8767;
1148.4000;0.7090;0.8814;
1148.7000;0.7106;0.8862;
1149.0000;0.7082;0.8814;
1149.3000;0.7098;0.8814;
1149.6000;0.7098;0.8909;
1149.9000;0.7074;0.8862;
1150.2000;0.7090;0.8862;
1150.5000;0.7090;0.8767;
1150.8000;0.7090;0.8743;
1151.1000;0.7074;0.8767;
1151.4000;0.7114;0.8862;
1151.7000;0.7114;0.8791;
1152.0000;0.7114;0.8767;
1152.3000;0.7106;0.8743;
1152.6000;0.7131;0.8743;
1152.9000;0.7066;0.8601;
1153.2000;0.7098;0.8696;
1153.5000;0.7066;0.8625;
1153.8000;0.7123;0.8720;
1154.1000;0.7123;0.8720;
1154.4000;0.7098;0.8720;
1154.7000;0.7131;0.8743;
1155.0000;0.7098;0.8767;
1155.3000;0.7106;0.8791;
1155.6000;0.7098;0.8767;
1155.9000;0.7131;0.8743;
1156.2000;0.7114;0.8743;
1156.5000;0.7106;0.8720;
1156.8000;0.7033;0.8459;
1157.1000;0.7098;0.8649;
1157.4000;0.7106;0.8672;
1157.7000;0.7114;0.8696;
1158.0000;0.7090;0.8696;
1158.3000;0.7098;0.8767;
1158.6000;0.7082;0.8767;
1158.9000;0.7082;0.8767;
1159.2000;0.7106;0.8743;
1159.5000;0.7082;0.8696;
1159.8000;0.7098;0.8672;
1160.1000;0.7074;0.8554;
1160.4000;0.7082;0.8649;
1160.7000;0.7098;0.8720;
1161.0000;0.7082;0.8791;
1161.3000;0.7098;0.8838;
1161.6000;0.7114;0.8862;
1161.9000;0.7106;0.8814;
1162.2000;0.7106;0.8909;
1162.5000;0.7106;0.8862;
1162.8000;0.7114;0.8886;
1163.1000;0.7114;0.8909;
1163.4000;0.7090;0.8791;
1163.7000;0.7106;0.8743;
1164.0000;0.7098;0.8743;
1164.3000;0.7090;0.8649;
1164.6000;0.7074;0.8530;
1164.9000;0.7106;0.8625;
1165.2000;0.7114;0.8601;
1165.5000;0.7123;0.8625;
1165.8000;0.7082;0.8578;
1166.1000;0.7090;0.8530;
1166.4000;0.7098;0.8506;
1166.7000;0.7123;0.8578;
1167.0000;0.7106;0.8649;
1167.3000;0.7106;0.8625;
1167.6000;0.7090;0.8720;
1167.9000;0.7090;0.8838;
1168.2000;0.7123;0.8957;
1168.5000;0.7098;0.8909;
1168.8000;0.7049;0.8696;
1169.1000;0.7057;0.8696;
1169.4000;0.7098;0.8743;
1169.7000;0.7106;0.8767;
1170.0000;0.7090;0.8743;
1170.3000;0.7196;0.9028;
1170.6000;0.7098;0.8767;
1170.9000;0.7098;0.8743;
1171.2000;0.7098;0.8649;
1171.5000;0.7074;0.8625;
1171.8000;0.7114;0.8601;
1172.1000;0.7057;0.8459;
1172.4000;0.7090;0.8578;
1172.7000;0.7106;0.8625;
1173.0000;0.7098;0.8672;
1173.3000;0.7082;0.8554;
1173.6000;0.7090;0.8601;
1173.9000;0.7098;0.8530;
1174.2000;0.7057;0.8388;
1174.5000;0.7114;0.8601;
1174.8000;0.7106;0.8625;
1175.1000;0.7082;0.8554;
1175.4000;0.7106;0.8578;
1175.7000;0.7098;0.8625;
1176.0000;0.7106;0.8601;
1176.3000;0.7114;0.8625;
1176.6000;0.7098;0.8696;
1176.9000;0.7123;0.8838;
1177.2000;0.7114;0.8767;
1177.5000;0.7074;0.8625;
1177.8000;0.7098;0.8767;
1178.1000;0.7098;0.8791;
1178.4000;0.7123;0.8933;
1178.7000;0.7106;0.8862;
1179.0000;0.7090;0.8743;
1179.3000;0.7106;0.8814;
1179.6000;0.7090;0.8672;
1179.9000;0.7017;0.8483;
1180.2000;0.7106;0.8720;
1180.5000;0.7090;0.8625;
1180.8000;0.7114;0.8530;
1181.1000;0.7106;0.8554;
1181.4000;0.7131;0.8625;
1181.7000;0.7114;0.8530;
1182.0000;0.7123;0.8649;
1182.3000;0.7098;0.8601;
1182.6000;0.7106;0.8625;
1182.9000;0.7114;0.8672;
1183.2000;0.7106;0.8672;
1183.5000;0.7114;0.8720;
1183.8000;0.7106;0.8743;
1184.1000;0.7098;0.8838;
1184.4000;0.7106;0.8814;
1184.7000;0.7114;0.8767;
1185.0000;0.7074;0.8625;
1185.3000;0.7090;0.8649;
1185.6000;0.7106;0.8814;
1185.9000;0.7114;0.8696;
1186.2000;0.7106;0.8649;
1186.5000;0.7090;0.8649;
1186.8000;0.7098;0.8625;
1187.1000;0.7098;0.8696;
1187.4000;0.7114;0.8767;
1187.7000;0.7090;0.8767;
1188.0000;0.7106;0.8649;
1188.3000;0.7098;0.8672;
1188.6000;0.7090;0.8672;
1188.9000;0.7098;0.8696;
1189.2000;0.7074;0.8696;
1189.5000;0.7098;0.8696;
1189.8000;0.7114;0.8649;
1190.1000;0.7082;0.8625;
1190.4000;0.7082;0.8601;
1190.7000;0.7090;0.8530;
1191.0000;0.7090;0.8625;
1191.3000;0.7155;0.8814;
1191.6000;0.7090;0.8767;
1191.9000;0.7090;0.8838;
1192.2000;0.7106;0.8886;
1192.5000;0.7106;0.8838;
1192.8000;0.7106;0.8791;
1193.1000;0.7131;0.8862;
1193.4000;0.7106;0.8862;
1193.7000;0.7106;0.8838;
1194.0000;0.7066;0.8720;
1194.3000;0.7131;0.8791;
1194.6000;0.7090;0.8743;
1194.9000;0.7098;0.8743;
1195.2000;0.7082;0.8720;
1195.5000;0.7090;0.8791;
1195.8000;0.7090;0.8814;
1196.1000;0.7139;0.8862;
1196.4000;0.7098;0.8838;
1196.7000;0.7098;0.8791;
1197.0000;0.7082;0.8720;
1197.3000;0.7147;0.8814;
1197.6000;0.7114;0.8720;
1197.9000;0.7090;0.8625;
1198.2000;0.7057;0.8578;
1198.5000;0.7090;0.8578;
1198.8000;0.7114;0.8649;
1199.1000;0.7082;0.8672;
1199.4000;0.7106;0.8767;
1199.7000;0.7098;0.8696;
1200.0000;0.7074;0.8672;
1200.3000;0.7098;0.8720;
1200.6000;0.7098;0.8767;
1200.9000;0.7106;0.8743;
1201.2000;0.7114;0.8743;
1201.5000;0.7106;0.8767;
1201.8000;0.7090;0.8862;
1202.1000;0.7066;0.8791;
1202.4000;0.7106;0.8886;
1202.7000;0.7106;0.8886;
1203.0000;0.7074;0.8767;
1203.3000;0.7090;0.8720;
1203.6000;0.7106;0.8791;
1203.9000;0.7090;0.8767;
1204.2000;0.7090;0.8720;
1204.5000;0.7090;0.8672;
1204.8000;0.7098;0.8672;
1205.1000;0.7090;0.8649;
1205.4000;0.7106;0.8743;
1205.7000;0.7106;0.8767;
1206.0000;0.7106;0.8791;
1206.3000;0.7090;0.8720;
1206.6000;0.7196;0.9004;
1206.9000;0.7106;0.8696;
1207.2000;0.7106;0.8696;
1207.5000;0.7106;0.8672;
1207.8000;0.7106;0.8672;
1208.1000;0.7090;0.8720;
1208.4000;0.7098;0.8720;
1208.7000;0.7106;0.8791;
1209.0000;0.7114;0.8886;
1209.3000;0.7106;0.8791;
1209.6000;0.7082;0.8814;
1209.9000;0.7082;0.8791;
1210.2000;0.7106;0.8862;
1210.5000;0.7049;0.8767;
1210.8000;0.7098;0.8838;
1211.1000;0.7082;0.8838;
1211.4000;0.7098;0.8862;
1211.7000;0.7082;0.8791;
1212.0000;0.7082;0.8767;
1212.3000;0.7066;0.8838;
1212.6000;0.7106;0.8814;
1212.9000;0.7123;0.8862;
1213.2000;0.7106;0.8886;
1213.5000;0.7082;0.8862;
1213.8000;0.7090;0.8862;
1214.1000;0.7106;0.8743;
1214.4000;0.7090;0.8720;
1214.7000;0.7082;0.8696;
1215.0000;0.7098;0.8814;
1215.3000;0.7098;0.8814;
1215.6000;0.7082;0.8814;
1215.9000;0.7082;0.8743;
1216.2000;0.7098;0.8672;
1216.5000;0.7066;0.8530;
1216.8000;0.7106;0.8601;
1217.1000;0.7082;0.8578;
1217.4000;0.7114;0.8530;
1217.7000;0.7106;0.8506;
1218.0000;0.7139;0.8601;
1218.3000;0.7098;0.8435;
1218.6000;0.7082;0.8483;
1218.9000;0.7139;0.8696;
1219.2000;0.7033;0.8459;
1219.5000;0.7147;0.8696;
1219.8000;0.7171;0.8862;
1220.1000;0.7082;0.8672;
1220.4000;0.7106;0.8649;
1220.7000;0.7098;0.8625;
1221.0000;0.7090;0.8625;
1221.3000;0.7123;0.8672;
1221.6000;0.7114;0.8743;
1221.9000;0.7106;0.8625;
1222.2000;0.7082;0.8601;
1222.5000;0.7098;0.8649;
1222.8000;0.7074;0.8649;
1223.1000;0.7057;0.8530;
1223.4000;0.7090;0.8649;
1223.7000;0.7074;0.8601;
1224.0000;0.7049;0.8554;
1224.3000;0.7098;0.8743;
1224.6000;0.7090;0.8696;
1224.9000;0.7098;0.8672;
1225.2000;0.7098;0.8720;
1225.5000;0.7106;0.8696;
1225.8000;0.7090;0.8625;
1226.1000;0.7090;0.8625;
1226.4000;0.7082;0.8601;
1226.7000;0.7082;0.8578;
1227.0000;0.7106;0.8696;
1227.3000;0.7090;0.8601;
1227.6000;0.7090;0.8720;
1227.9000;0.7131;0.8886;
1228.2000;0.7106;0.8814;
1228.5000;0.7106;0.8862;
1228.8000;0.7171;0.9122;
1229.1000;0.7098;0.8980;
1229.4000;0.7114;0.8980;
1229.7000;0.7106;0.8862;
1230.0000;0.7090;0.8814;
1230.3000;0.7074;0.8814;
1230.6000;0.7098;0.8814;
1230.9000;0.7074;0.8720;
1231.2000;0.7082;0.8672;
1231.5000;0.7098;0.8696;
1231.8000;0.7082;0.8672;
1232.1000;0.7098;0.8672;
1232.4000;0.7090;0.8696;
1232.7000;0.7066;0.8578;
1233.0000;0.7106;0.8720;
1233.3000;0.7098;0.8791;
1233.6000;0.7057;0.8767;
1233.9000;0.7098;0.8767;
1234.2000;0.7098;0.8696;
1234.5000;0.7106;0.8649;
1234.8000;0.7098;0.8672;
1235.1000;0.7074;0.8578;
1235.4000;0.7082;0.8554;
1235.7000;0.7090;0.8578;
1236.0000;0.7106;0.8530;
1236.3000;0.7106;0.8530;
1236.6000;0.7082;0.8435;
1236.9000;0.7090;0.8530;
1237.2000;0.7098;0.8459;
1237.5000;0.7163;0.8696;
1237.8000;0.7098;0.8601;
1238.1000;0.7114;0.8649;
1238.4000;0.7106;0.8696;
1238.7000;0.7123;0.8767;
1239.0000;0.7098;0.8672;
1239.3000;0.7123;0.8791;
1239.6000;0.7106;0.8767;
1239.9000;0.7114;0.8838;
1240.2000;0.7098;0.8909;
1240.5000;0.7098;0.8886;
1240.8000;0.7114;0.8862;
1241.1000;0.7090;0.8720;
1241.4000;0.7098;0.8720;
1241.7000;0.7098;0.8578;
1242.0000;0.7123;0.8696;
1242.3000;0.7106;0.8696;
1242.6000;0.7098;0.8672;
1242.9000;0.7066;0.8649;
1243.2000;0.7106;0.8720;
1243.5000;0.7098;0.8743;
1243.8000;0.7098;0.8814;
1244.1000;0.7090;0.8743;
1244.4000;0.7074;0.8720;
1244.7000;0.7082;0.8672;
1245.0000;0.7057;0.8672;
1245.3000;0.7074;0.8720;
1245.6000;0.7074;0.8672;
1245.9000;0.7114;0.8720;
1246.2000;0.7090;0.8696;
1246.5000;0.7082;0.8649;
1246.8000;0.7074;0.8578;
1247.1000;0.7131;0.8696;
1247.4000;0.7090;0.8625;
1247.7000;0.7098;0.8601;
1248.0000;0.7123;0.8649;
1248.3000;0.7098;0.8530;
1248.6000;0.7090;0.8601;
1248.9000;0.7041;0.8483;
1249.2000;0.7090;0.8601;
1249.5000;0.7090;0.8601;
1249.8000;0.7082;0.8649;
1250.1000;0.7074;0.8625;
1250.4000;0.7082;0.8672;
1250.7000;0.7074;0.8649;
1251.0000;0.7090;0.8649;
1251.3000;0.7074;0.8578;
1251.6000;0.7066;0.8578;
1251.9000;0.7066;0.8601;
1252.2000;0.7098;0.8625;
1252.5000;0.7106;0.8578;
1252.8000;0.7074;0.8530;
1253.1000;0.7098;0.8530;
1253.4000;0.7082;0.8506;
1253.7000;0.7082;0.8506;
1254.0000;0.7114;0.8578;
1254.3000;0.7090;0.8435;
1254.6000;0.7090;0.8459;
1254.9000;0.7114;0.8578;
1255.2000;0.7098;0.8530;
1255.5000;0.7106;0.8649;
1255.8000;0.7074;0.8578;
1256.1000;0.7106;0.8601;
1256.4000;0.7090;0.8578;
1256.7000;0.7098;0.8672;
1257.0000;0.7082;0.8743;
1257.3000;0.7090;0.8791;
1257.6000;0.7106;0.8862;
1257.9000;0.7090;0.8838;
1258.2000;0.7082;0.8767;
1258.5000;0.7082;0.8696;
1258.8000;0.7139;0.8720;
1259.1000;0.7090;0.8601;
1259.4000;0.7090;0.8672;
1259.7000;0.7057;0.8649;
1260.0000;0.7090;0.8672;
1260.3000;0.7090;0.8672;
1260.6000;0.7098;0.8649;
1260.9000;0.7098;0.8554;
1261.2000;0.7098;0.8506;
1261.5000;0.7090;0.8483;
1261.8000;0.7074;0.8506;
1262.1000;0.7098;0.8578;
1262.4000;0.7106;0.8578;
1262.7000;0.7090;0.8554;
1263.0000;0.7082;0.8578;
1263.3000;0.7098;0.8672;
1263.6000;0.7066;0.8601;
1263.9000;0.7098;0.8649;
1264.2000;0.7114;0.8720;
1264.5000;0.7098;0.8696;
1264.8000;0.7171;0.8814;
1265.1000;0.7066;0.8578;
1265.4000;0.7106;0.8672;
1265.7000;0.7106;0.8791;
1266.0000;0.7082;0.8814;
1266.3000;0.7090;0.8767;
1266.6000;0.7114;0.8791;
1266.9000;0.7098;0.8838;
1267.2000;0.7082;0.8814;
1267.5000;0.7188;0.9075;
1267.8000;0.7139;0.8957;
1268.1000;0.7066;0.8862;
1268.4000;0.7098;0.9004;
1268.7000;0.7098;0.9028;
1269.0000;0.7114;0.9099;
1269.3000;0.7098;0.9004;
1269.6000;0.7098;0.8933;
1269.9000;0.7090;0.8814;
1270.2000;0.7090;0.8696;
1270.5000;0.7074;0.8649;
1270.8000;0.7090;0.8767;
1271.1000;0.7090;0.8720;
1271.4000;0.7098;0.8743;
1271.7000;0.7114;0.8767;
1272.0000;0.7074;0.8649;
1272.3000;0.7090;0.8743;
1272.6000;0.7082;0.8791;
1272.9000;0.7106;0.8909;
1273.2000;0.7074;0.8862;
1273.5000;0.7066;0.8814;
1273.8000;0.7106;0.8957;
1274.1000;0.7106;0.8957;
1274.4000;0.7074;0.8886;
1274.7000;0.7098;0.8862;
1275.0000;0.7098;0.8862;
1275.3000;0.7098;0.8909;
1275.6000;0.7114;0.8862;
1275.9000;0.7098;0.8838;
1276.2000;0.7082;0.8696;
1276.5000;0.7090;0.8720;
1276.8000;0.7114;0.8767;
1277.1000;0.7090;0.8838;
1277.4000;0.7082;0.8791;
1277.7000;0.7074;0.8838;
1278.0000;0.7082;0.8886;
1278.3000;0.7090;0.8957;
1278.6000;0.7057;0.8909;
1278.9000;0.7098;0.8980;
1279.2000;0.7074;0.8909;
1279.5000;0.7049;0.8838;
1279.8000;0.7066;0.8909;
1280.1000;0.7074;0.8957;
1280.4000;0.7098;0.8933;
1280.7000;0.7090;0.8886;
1281.0000;0.7098;0.8743;
1281.3000;0.7074;0.8649;
1281.6000;0.7074;0.8649;
1281.9000;0.7098;0.8649;
1282.2000;0.7082;0.8672;
1282.5000;0.7098;0.8696;
1282.8000;0.7082;0.8625;
1283.1000;0.7090;0.8601;
1283.4000;0.7074;0.8601;
1283.7000;0.7090;0.8649;
1284.0000;0.7082;0.8649;
1284.3000;0.7082;0.8696;
1284.6000;0.7090;0.8767;
1284.9000;0.7090;0.8696;
1285.2000;0.7123;0.8838;
1285.5000;0.7090;0.8743;
1285.8000;0.7098;0.8862;
1286.1000;0.7074;0.8814;
1286.4000;0.7049;0.8767;
1286.7000;0.7074;0.8814;
1287.0000;0.7057;0.8743;
1287.3000;0.7066;0.8696;
1287.6000;0.7066;0.8720;
1287.9000;0.7082;0.8696;
1288.2000;0.7057;0.8649;
1288.5000;0.7098;0.8791;
1288.8000;0.7114;0.8791;
1289.1000;0.7155;0.8957;
1289.4000;0.7066;0.8672;
1289.7000;0.7098;0.8696;
1290.0000;0.7114;0.8767;
1290.3000;0.7123;0.8791;
1290.6000;0.7082;0.8720;
1290.9000;0.7057;0.8672;
1291.2000;0.7074;0.8625;
1291.5000;0.7090;0.8672;
1291.8000;0.7082;0.8696;
1292.1000;0.7066;0.8672;
1292.4000;0.7074;0.8696;
1292.7000;0.7074;0.8649;
1293.0000;0.7098;0.8791;
1293.3000;0.7090;0.8791;
1293.6000;0.7098;0.8814;
1293.9000;0.7082;0.8814;
1294.2000;0.7082;0.8814;
1294.5000;0.7106;0.8838;
1294.8000;0.7106;0.8791;
1295.1000;0.7090;0.8696;
1295.4000;0.7090;0.8696;
1295.7000;0.7090;0.8791;
1296.0000;0.7139;0.8909;
1296.3000;0.7106;0.8886;
1296.6000;0.7090;0.8886;
1296.9000;0.7082;0.8838;
1297.2000;0.7090;0.8933;
1297.5000;0.7090;0.9028;
1297.8000;0.7025;0.8862;
1298.1000;0.7090;0.8838;
1298.4000;0.7090;0.8791;
1298.7000;0.7106;0.8862;
1299.0000;0.7066;0.8814;
1299.3000;0.7082;0.8814;
1299.6000;0.7082;0.8886;
1299.9000;0.7114;0.8838;
1300.2000;0.7090;0.8696;
1300.5000;0.7082;0.8649;
1300.8000;0.7098;0.8601;
1301.1000;0.7114;0.8672;
1301.4000;0.7090;0.8625;
1301.7000;0.7098;0.8601;
1302.0000;0.7090;0.8649;
1302.3000;0.7082;0.8720;
1302.6000;0.7098;0.8696;
1302.9000;0.7106;0.8720;
1303.2000;0.7090;0.8720;
1303.5000;0.7106;0.8743;
1303.8000;0.7098;0.8696;
1304.1000;0.7090;0.8696;
1304.4000;0.7098;0.8791;
1304.7000;0.7098;0.8814;
1305.0000;0.7098;0.8862;
1305.3000;0.7066;0.8720;
1305.6000;0.7090;0.8814;
1305.9000;0.7082;0.8791;
1306.2000;0.7082;0.8838;
1306.5000;0.7123;0.8886;
1306.8000;0.7082;0.8791;
1307.1000;0.7082;0.8791;
1307.4000;0.7090;0.8767;
1307.7000;0.7082;0.8838;
1308.0000;0.7057;0.8838;
1308.3000;0.7082;0.8814;
1308.6000;0.7066;0.8838;
1308.9000;0.7090;0.8909;
1309.2000;0.7090;0.8980;
1309.5000;0.7074;0.8909;
1309.8000;0.7049;0.8838;
1310.1000;0.7090;0.8838;
1310.4000;0.7098;0.8862;
1310.7000;0.7098;0.8814;
1311.0000;0.7106;0.8814;
1311.3000;0.7139;0.8957;
1311.6000;0.7098;0.8814;
1311.9000;0.7082;0.8791;
1312.2000;0.7090;0.8720;
1312.5000;0.7179;0.8862;
1312.8000;0.7090;0.8625;
1313.1000;0.7082;0.8625;
1313.4000;0.7074;0.8649;
1313.7000;0.7074;0.8625;
1314.0000;0.7082;0.8649;
1314.3000;0.7090;0.8649;
1314.6000;0.7066;0.8672;
1314.9000;0.7082;0.8720;
1315.2000;0.7098;0.8791;
1315.5000;0.7082;0.8767;
1315.8000;0.7098;0.8696;
1316.1000;0.7098;0.8696;
1316.4000;0.7098;0.8720;
1316.7000;0.7106;0.8767;
1317.0000;0.7074;0.8743;
1317.3000;0.7074;0.8720;
1317.6000;0.7114;0.8791;
1317.9000;0.7098;0.8767;
1318.2000;0.7074;0.8649;
1318.5000;0.7090;0.8696;
1318.8000;0.7090;0.8696;
1319.1000;0.7090;0.8696;
1319.4000;0.7090;0.8625;
1319.7000;0.7106;0.8696;
1320.0000;0.7066;0.8767;
1320.3000;0.7106;0.8838;
1320.6000;0.7082;0.8862;
1320.9000;0.7074;0.8838;
1321.2000;0.7106;0.8957;
1321.5000;0.7098;0.8862;
1321.8000;0.7114;0.8909;
1322.1000;0.7090;0.8862;
1322.4000;0.7090;0.8862;
1322.7000;0.7074;0.8791;
1323.0000;0.7082;0.8886;
1323.3000;0.7074;0.8957;
1323.6000;0.7090;0.9051;
1323.9000;0.7090;0.8980;
1324.2000;0.7098;0.8886;
1324.5000;0.7082;0.8791;
1324.8000;0.7082;0.8791;
1325.1000;0.7082;0.8743;
1325.4000;0.7090;0.8720;
1325.7000;0.7066;0.8672;
1326.0000;0.7082;0.8672;
1326.3000;0.7082;0.8696;
1326.6000;0.7098;0.8696;
1326.9000;0.7074;0.8625;
1327.2000;0.7114;0.8672;
1327.5000;0.7082;0.8625;
1327.8000;0.7090;0.8625;
1328.1000;0.7074;0.8649;
1328.4000;0.7025;0.8578;
1328.7000;0.7066;0.8649;
1329.0000;0.7098;0.8649;
1329.3000;0.7082;0.8625;
1329.6000;0.7123;0.8743;
1329.9000;0.7123;0.8720;
1330.2000;0.7106;0.8696;
1330.5000;0.7106;0.8767;
1330.8000;0.7017;0.8601;
1331.1000;0.7090;0.8720;
1331.4000;0.7057;0.8672;
1331.7000;0.7082;0.8791;
1332.0000;0.7082;0.8886;
1332.3000;0.7090;0.8814;
1332.6000;0.7090;0.8838;
1332.9000;0.7074;0.8720;
1333.2000;0.7082;0.8743;
1333.5000;0.7082;0.8767;
1333.8000;0.7090;0.8791;
1334.1000;0.7074;0.8672;
1334.4000;0.7066;0.8672;
1334.7000;0.7090;0.8649;
1335.0000;0.7041;0.8625;
1335.3000;0.7074;0.8649;
1335.6000;0.7074;0.8720;
1335.9000;0.7090;0.8649;
1336.2000;0.7179;0.8720;
1336.5000;0.7074;0.8483;
1336.8000;0.7090;0.8554;
1337.1000;0.7098;0.8672;
1337.4000;0.7106;0.8649;
1337.7000;0.7098;0.8720;
1338.0000;0.7090;0.8696;
1338.3000;0.7106;0.8696;
1338.6000;0.7082;0.8672;
1338.9000;0.7090;0.8672;
1339.2000;0.7033;0.8578;
1339.5000;0.7074;0.8649;
1339.8000;0.7090;0.8696;
1340.1000;0.7074;0.8625;
1340.4000;0.7098;0.8791;
1340.7000;0.7090;0.8838;
1341.0000;0.7066;0.8743;
1341.3000;0.7082;0.8814;
1341.6000;0.7082;0.8862;
1341.9000;0.7082;0.8838;
1342.2000;0.7098;0.8791;
1342.5000;0.7066;0.8743;
1342.8000;0.7090;0.8672;
1343.1000;0.7066;0.8672;
1343.4000;0.7074;0.8578;
1343.7000;0.7082;0.8649;
1344.0000;0.7049;0.8696;
1344.3000;0.7098;0.8814;
1344.6000;0.7057;0.8791;
1344.9000;0.7082;0.8767;
1345.2000;0.7090;0.8767;
1345.5000;0.7074;0.8743;
1345.8000;0.7074;0.8767;
1346.1000;0.7082;0.8838;
1346.4000;0.7090;0.8791;
1346.7000;0.7090;0.8743;
1347.0000;0.7098;0.8720;
1347.3000;0.7090;0.8696;
1347.6000;0.7106;0.8743;
1347.9000;0.7082;0.8720;
1348.2000;0.7114;0.8838;
1348.5000;0.7114;0.8886;
1348.8000;0.7082;0.8933;
1349.1000;0.7074;0.8886;
1349.4000;0.7098;0.8957;
1349.7000;0.7090;0.8933;
1350.0000;0.7074;0.8862;
1350.3000;0.7025;0.8814;
1350.6000;0.7098;0.8886;
1350.9000;0.7074;0.8909;
1351.2000;0.7066;0.8909;
1351.5000;0.7082;0.8838;
1351.8000;0.7074;0.8886;
1352.1000;0.7090;0.8886;
1352.4000;0.7025;0.8791;
1352.7000;0.7082;0.8886;
1353.0000;0.7090;0.8933;
1353.3000;0.7082;0.8886;
1353.6000;0.7074;0.8886;
1353.9000;0.7074;0.8791;
1354.2000;0.7074;0.8791;
1354.5000;0.7074;0.8767;
1354.8000;0.7090;0.8814;
1355.1000;0.7082;0.8720;
1355.4000;0.7074;0.8743;
1355.7000;0.7082;0.8696;
1356.0000;0.7098;0.8696;
1356.3000;0.7090;0.8720;
1356.6000;0.7131;0.8838;
1356.9000;0.7139;0.8838;
1357.2000;0.7090;0.8767;
1357.5000;0.7090;0.8814;
1357.8000;0.7090;0.8767;
1358.1000;0.7114;0.8743;
1358.4000;0.7074;0.8625;
1358.7000;0.7106;0.8743;
1359.0000;0.7090;0.8672;
1359.3000;0.7066;0.8672;
1359.6000;0.7147;0.8886;
1359.9000;0.7090;0.8743;
1360.2000;0.7074;0.8649;
1360.5000;0.7049;0.8625;
1360.8000;0.7082;0.8696;
1361.1000;0.7090;0.8767;
1361.4000;0.7074;0.8767;
1361.7000;0.7041;0.8743;
1362.0000;0.7082;0.8862;
1362.3000;0.7082;0.8838;
1362.6000;0.7090;0.8862;
1362.9000;0.7074;0.8838;
1363.2000;0.7082;0.8862;
1363.5000;0.7098;0.8933;
1363.8000;0.7082;0.8933;
1364.1000;0.7090;0.8862;
1364.4000;0.7057;0.8862;
1364.7000;0.7090;0.9028;
1365.0000;0.7082;0.9051;
1365.3000;0.7074;0.8980;
1365.6000;0.7074;0.8933;
1365.9000;0.7074;0.8886;
1366.2000;0.7074;0.8862;
1366.5000;0.7041;0.8814;
1366.8000;0.7066;0.8838;
1367.1000;0.7074;0.8886;
1367.4000;0.7082;0.8933;
1367.7000;0.7082;0.8980;
1368.0000;0.7090;0.9028;
1368.3000;0.7074;0.8957;
1368.6000;0.7074;0.8980;
1368.9000;0.7098;0.9004;
1369.2000;0.7082;0.9028;
1369.5000;0.7082;0.9004;
1369.8000;0.7090;0.9028;
1370.1000;0.7082;0.9004;
1370.4000;0.7074;0.8957;
1370.7000;0.7090;0.8980;
1371.0000;0.7066;0.8933;
1371.3000;0.7074;0.8957;
1371.6000;0.7074;0.8886;
1371.9000;0.7082;0.8909;
1372.2000;0.7074;0.8980;
1372.5000;0.7074;0.9004;
1372.8000;0.7074;0.8980;
1373.1000;0.7066;0.9028;
1373.4000;0.7082;0.9004;
1373.7000;0.7049;0.8909;
1374.0000;0.7074;0.8980;
1374.3000;0.7066;0.9051;
1374.6000;0.7074;0.9004;
1374.9000;0.7098;0.9075;
1375.2000;0.7098;0.9028;
1375.5000;0.7066;0.8886;
1375.8000;0.7082;0.9004;
1376.1000;0.7090;0.8957;
1376.4000;0.7074;0.8957;
1376.7000;0.7082;0.8933;
1377.0000;0.7082;0.8862;
1377.3000;0.7082;0.8980;
1377.6000;0.7098;0.9028;
1377.9000;0.7090;0.8933;
1378.2000;0.7074;0.8909;
1378.5000;0.7082;0.8933;
1378.8000;0.7090;0.9004;
1379.1000;0.7082;0.8980;
1379.4000;0.7090;0.9004;
1379.7000;0.7074;0.8933;
1380.0000;0.7066;0.8980;
1380.3000;0.7033;0.8791;
1380.6000;0.7082;0.8933;
1380.9000;0.7074;0.8886;
1381.2000;0.7098;0.8980;
1381.5000;0.7066;0.8933;
1381.8000;0.7066;0.8933;
1382.1000;0.7082;0.8909;
1382.4000;0.7082;0.8814;
1382.7000;0.7098;0.8886;
1383.0000;0.7106;0.8909;
1383.3000;0.7090;0.8957;
1383.6000;0.7098;0.8980;
1383.9000;0.7106;0.9099;
1384.2000;0.7090;0.9051;
1384.5000;0.7098;0.9099;
1384.8000;0.7074;0.9146;
1385.1000;0.7082;0.9170;
1385.4000;0.7057;0.9170;
1385.7000;0.7082;0.9217;
1386.0000;0.7082;0.8980;
1386.3000;0.7066;0.8909;
1386.6000;0.7090;0.8933;
1386.9000;0.7082;0.8957;
1387.2000;0.7009;0.8814;
1387.5000;0.7082;0.8933;
1387.8000;0.7082;0.8957;
1388.1000;0.7066;0.8957;
1388.4000;0.7066;0.9028;
1388.7000;0.7082;0.9099;
1389.0000;0.7074;0.9075;
1389.3000;0.7090;0.9146;
1389.6000;0.7082;0.9122;
1389.9000;0.7066;0.9122;
1390.2000;0.7066;0.9075;
1390.5000;0.7082;0.9122;
1390.8000;0.7074;0.9051;
1391.1000;0.7074;0.8838;
1391.4000;0.7041;0.8720;
1391.7000;0.7090;0.8886;
1392.0000;0.7082;0.8933;
1392.3000;0.7090;0.8909;
1392.6000;0.7074;0.8862;
1392.9000;0.7066;0.8909;
1393.2000;0.7074;0.8933;
1393.5000;0.7114;0.9028;
1393.8000;0.7082;0.8957;
1394.1000;0.7098;0.8909;
1394.4000;0.7082;0.8886;
1394.7000;0.7074;0.8767;
1395.0000;0.7066;0.8791;
1395.3000;0.7066;0.8838;
1395.6000;0.7082;0.8909;
1395.9000;0.7074;0.9028;
1396.2000;0.7074;0.9075;
1396.5000;0.7082;0.9051;
1396.8000;0.7074;0.9028;
1397.1000;0.7098;0.8980;
1397.4000;0.7155;0.9028;
1397.7000;0.7066;0.8838;
1398.0000;0.7082;0.9004;
1398.3000;0.7082;0.9004;
1398.6000;0.7082;0.9028;
1398.9000;0.7074;0.9051;
1399.2000;0.7082;0.9075;
1399.5000;0.7066;0.9051;
1399.8000;0.7082;0.9004;
