time/ms;Fluo/V;P700 deltaI/I x10³;
-199.8000;0.8107;0.9028;
-199.5000;0.8099;0.9004;
-199.2000;0.8107;0.8980;
-198.9000;0.8107;0.8980;
-198.6000;0.8107;0.9028;
-198.3000;0.8116;0.9051;
-198.0000;0.8148;0.9217;
-197.7000;0.8107;0.9170;
-197.4000;0.8148;0.9217;
-197.1000;0.8107;0.9146;
-196.8000;0.8091;0.9075;
-196.5000;0.8107;0.9170;
-196.2000;0.8124;0.9241;
-195.9000;0.8107;0.9241;
-195.6000;0.8116;0.9265;
-195.3000;0.8140;0.9383;
-195.0000;0.8107;0.9312;
-194.7000;0.8107;0.9241;
-194.4000;0.8099;0.9170;
-194.1000;0.8107;0.9170;
-193.8000;0.8124;0.9122;
-193.5000;0.8099;0.9051;
-193.2000;0.8132;0.9146;
-192.9000;0.8091;0.9170;
-192.6000;0.8116;0.9170;
-192.3000;0.8107;0.9194;
-192.0000;0.8107;0.9241;
-191.7000;0.8140;0.9288;
-191.4000;0.8116;0.9217;
-191.1000;0.8116;0.9217;
-190.8000;0.8091;0.9170;
-190.5000;0.8091;0.9146;
-190.2000;0.8173;0.9383;
-189.9000;0.8181;0.9407;
-189.6000;0.8107;0.9336;
-189.3000;0.8132;0.9312;
-189.0000;0.8140;0.9383;
-188.7000;0.8221;0.9478;
-188.4000;0.8116;0.9217;
-188.1000;0.8091;0.9146;
-187.8000;0.8099;0.9075;
-187.5000;0.8124;0.9146;
-187.2000;0.8099;0.9122;
-186.9000;0.8099;0.9194;
-186.6000;0.8083;0.9122;
-186.3000;0.8099;0.9170;
-186.0000;0.8107;0.9288;
-185.7000;0.8099;0.9241;
-185.4000;0.8148;0.9288;
-185.1000;0.8107;0.9170;
-184.8000;0.8181;0.9241;
-184.5000;0.8042;0.8980;
-184.2000;0.8116;0.9099;
-183.9000;0.8181;0.9265;
-183.6000;0.8124;0.9122;
-183.3000;0.8107;0.9194;
-183.0000;0.8124;0.9170;
-182.7000;0.8148;0.9217;
-182.4000;0.8132;0.9194;
-182.1000;0.8116;0.9217;
-181.8000;0.8107;0.9194;
-181.5000;0.8099;0.9265;
-181.2000;0.8107;0.9336;
-180.9000;0.8116;0.9288;
-180.6000;0.8010;0.9028;
-180.3000;0.8099;0.9146;
-180.0000;0.8116;0.9170;
-179.7000;0.8116;0.9146;
-179.4000;0.8099;0.9004;
-179.1000;0.8099;0.9028;
-178.8000;0.8099;0.9099;
-178.5000;0.8140;0.9170;
-178.2000;0.8099;0.8980;
-177.9000;0.8099;0.8886;
-177.6000;0.8107;0.9004;
-177.3000;0.8099;0.9122;
-177.0000;0.8124;0.9170;
-176.7000;0.8083;0.9075;
-176.4000;0.8107;0.9146;
-176.1000;0.8116;0.9170;
-175.8000;0.8091;0.9051;
-175.5000;0.8091;0.9051;
-175.2000;0.8091;0.8957;
-174.9000;0.8083;0.8957;
-174.6000;0.8132;0.8980;
-174.3000;0.8107;0.8909;
-174.0000;0.8099;0.8980;
-173.7000;0.8083;0.8957;
-173.4000;0.8099;0.9051;
-173.1000;0.8091;0.8980;
-172.8000;0.8132;0.9004;
-172.5000;0.8107;0.9004;
-172.2000;0.8124;0.9075;
-171.9000;0.8099;0.9051;
-171.6000;0.8099;0.9099;
-171.3000;0.8132;0.9122;
-171.0000;0.8132;0.9051;
-170.7000;0.8124;0.9028;
-170.4000;0.8132;0.9051;
-170.1000;0.8083;0.8933;
-169.8000;0.8107;0.9075;
-169.5000;0.8107;0.9051;
-169.2000;0.8091;0.9028;
-168.9000;0.8116;0.8957;
-168.6000;0.8083;0.8957;
-168.3000;0.8107;0.9075;
-168.0000;0.8107;0.9170;
-167.7000;0.8099;0.9217;
-167.4000;0.8116;0.9288;
-167.1000;0.8116;0.9336;
-166.8000;0.8099;0.9288;
-166.5000;0.8107;0.9241;
-166.2000;0.8156;0.9336;
-165.9000;0.8116;0.9194;
-165.6000;0.8124;0.9170;
-165.3000;0.8107;0.9122;
-165.0000;0.8107;0.9075;
-164.7000;0.8124;0.9075;
-164.4000;0.8116;0.9051;
-164.1000;0.8107;0.9028;
-163.8000;0.8132;0.9099;
-163.5000;0.8116;0.9122;
-163.2000;0.8132;0.9146;
-162.9000;0.8099;0.9122;
-162.6000;0.8116;0.9170;
-162.3000;0.8116;0.9122;
-162.0000;0.8116;0.9265;
-161.7000;0.8116;0.9312;
-161.4000;0.8099;0.9241;
-161.1000;0.8050;0.9075;
-160.8000;0.8116;0.9194;
-160.5000;0.8091;0.9146;
-160.2000;0.8116;0.9170;
-159.9000;0.8099;0.9028;
-159.6000;0.8099;0.9099;
-159.3000;0.8091;0.9099;
-159.0000;0.8124;0.9122;
-158.7000;0.8107;0.9051;
-158.4000;0.8124;0.9170;
-158.1000;0.8107;0.9170;
-157.8000;0.8067;0.9004;
-157.5000;0.8116;0.9241;
-157.2000;0.8099;0.9265;
-156.9000;0.8132;0.9336;
-156.6000;0.8099;0.9312;
-156.3000;0.8107;0.9217;
-156.0000;0.8124;0.9241;
-155.7000;0.8116;0.9288;
-155.4000;0.8107;0.9170;
-155.1000;0.8107;0.9194;
-154.8000;0.8107;0.9170;
-154.5000;0.8083;0.9051;
-154.2000;0.8116;0.9194;
-153.9000;0.8099;0.9099;
-153.6000;0.8050;0.8957;
-153.3000;0.8132;0.9028;
-153.0000;0.8124;0.9146;
-152.7000;0.8099;0.9170;
-152.4000;0.8124;0.9146;
-152.1000;0.8099;0.9146;
-151.8000;0.8124;0.9122;
-151.5000;0.8116;0.9122;
-151.2000;0.8099;0.9004;
-150.9000;0.8107;0.8933;
-150.6000;0.8124;0.8980;
-150.3000;0.8099;0.9028;
-150.0000;0.8091;0.8909;
-149.7000;0.8116;0.8886;
-149.4000;0.8132;0.8909;
-149.1000;0.8116;0.8933;
-148.8000;0.8107;0.9004;
-148.5000;0.8091;0.8957;
-148.2000;0.8116;0.9075;
-147.9000;0.8124;0.9146;
-147.6000;0.8116;0.9122;
-147.3000;0.8083;0.9028;
-147.0000;0.8099;0.9028;
-146.7000;0.8107;0.9051;
-146.4000;0.8107;0.9099;
-146.1000;0.8107;0.9099;
-145.8000;0.8116;0.9051;
-145.5000;0.8099;0.9075;
-145.2000;0.8099;0.9051;
-144.9000;0.8099;0.9028;
-144.6000;0.8132;0.9004;
-144.3000;0.8116;0.9004;
-144.0000;0.8132;0.9051;
-143.7000;0.8116;0.9004;
-143.4000;0.8091;0.9051;
-143.1000;0.8213;0.9265;
-142.8000;0.8091;0.8957;
-142.5000;0.8124;0.9004;
-142.2000;0.8083;0.8980;
-141.9000;0.8067;0.8909;
-141.6000;0.8140;0.9075;
-141.3000;0.8075;0.8862;
-141.0000;0.8116;0.8933;
-140.7000;0.8075;0.8791;
-140.4000;0.8132;0.8933;
-140.1000;0.8124;0.8862;
-139.8000;0.8099;0.8791;
-139.5000;0.8075;0.8767;
-139.2000;0.8075;0.8767;
-138.9000;0.8124;0.8933;
-138.6000;0.8099;0.8886;
-138.3000;0.8034;0.8720;
-138.0000;0.8107;0.8862;
-137.7000;0.8116;0.8838;
-137.4000;0.8116;0.8957;
-137.1000;0.8099;0.8933;
-136.8000;0.8083;0.8886;
-136.5000;0.8099;0.8862;
-136.2000;0.8059;0.8838;
-135.9000;0.8091;0.8933;
-135.6000;0.8107;0.8886;
-135.3000;0.8116;0.8886;
-135.0000;0.8116;0.8838;
-134.7000;0.8042;0.8672;
-134.4000;0.8107;0.8814;
-134.1000;0.8107;0.8933;
-133.8000;0.8107;0.9004;
-133.5000;0.8099;0.9051;
-133.2000;0.8099;0.9051;
-132.9000;0.8083;0.8980;
-132.6000;0.8107;0.9051;
-132.3000;0.8099;0.9099;
-132.0000;0.8124;0.9146;
-131.7000;0.8107;0.9051;
-131.4000;0.8107;0.9004;
-131.1000;0.8116;0.9028;
-130.8000;0.8107;0.9051;
-130.5000;0.8107;0.9028;
-130.2000;0.8107;0.9028;
-129.9000;0.8107;0.8957;
-129.6000;0.8099;0.8933;
-129.3000;0.8107;0.9051;
-129.0000;0.8107;0.9004;
-128.7000;0.8116;0.9028;
-128.4000;0.8107;0.8980;
-128.1000;0.8107;0.8957;
-127.8000;0.8173;0.9075;
-127.5000;0.8107;0.8909;
-127.2000;0.8116;0.8933;
-126.9000;0.8050;0.8743;
-126.6000;0.8107;0.8862;
-126.3000;0.8067;0.8767;
-126.0000;0.8116;0.8886;
-125.7000;0.8116;0.8791;
-125.4000;0.8091;0.8696;
-125.1000;0.8083;0.8672;
-124.8000;0.8124;0.8767;
-124.5000;0.8107;0.8862;
-124.2000;0.8099;0.8933;
-123.9000;0.8107;0.8980;
-123.6000;0.8116;0.8957;
-123.3000;0.8107;0.8980;
-123.0000;0.8083;0.8933;
-122.7000;0.8132;0.9075;
-122.4000;0.8107;0.9028;
-122.1000;0.8156;0.9194;
-121.8000;0.8099;0.9004;
-121.5000;0.8099;0.8933;
-121.2000;0.8156;0.9146;
-120.9000;0.8099;0.9004;
-120.6000;0.8099;0.8933;
-120.3000;0.8091;0.8933;
-120.0000;0.8156;0.9004;
-119.7000;0.8116;0.9004;
-119.4000;0.8099;0.8957;
-119.1000;0.8148;0.9122;
-118.8000;0.8124;0.9051;
-118.5000;0.8026;0.8838;
-118.2000;0.8132;0.9122;
-117.9000;0.8116;0.9051;
-117.6000;0.8107;0.9099;
-117.3000;0.8124;0.9122;
-117.0000;0.8148;0.9051;
-116.7000;0.8067;0.8838;
-116.4000;0.8099;0.8957;
-116.1000;0.8075;0.8862;
-115.8000;0.8116;0.8980;
-115.5000;0.8083;0.8957;
-115.2000;0.8099;0.8957;
-114.9000;0.8107;0.8957;
-114.6000;0.8132;0.9028;
-114.3000;0.8107;0.9028;
-114.0000;0.8067;0.8862;
-113.7000;0.8099;0.8886;
-113.4000;0.8124;0.9075;
-113.1000;0.8116;0.9051;
-112.8000;0.8083;0.9051;
-112.5000;0.8107;0.9170;
-112.2000;0.8124;0.9122;
-111.9000;0.8116;0.8980;
-111.6000;0.8116;0.8909;
-111.3000;0.8091;0.8909;
-111.0000;0.8107;0.8980;
-110.7000;0.8107;0.9075;
-110.4000;0.8099;0.9075;
-110.1000;0.8091;0.9075;
-109.8000;0.8034;0.8933;
-109.5000;0.8124;0.9051;
-109.2000;0.8107;0.8957;
-108.9000;0.8099;0.8957;
-108.6000;0.8116;0.8957;
-108.3000;0.8107;0.8933;
-108.0000;0.8107;0.8909;
-107.7000;0.8132;0.9028;
-107.4000;0.8124;0.9004;
-107.1000;0.8124;0.9004;
-106.8000;0.8107;0.8886;
-106.5000;0.8099;0.8933;
-106.2000;0.8091;0.8957;
-105.9000;0.8116;0.8957;
-105.6000;0.8124;0.8980;
-105.3000;0.8107;0.8814;
-105.0000;0.8091;0.8838;
-104.7000;0.8124;0.8909;
-104.4000;0.8099;0.8886;
-104.1000;0.8116;0.8980;
-103.8000;0.8164;0.9146;
-103.5000;0.8034;0.8791;
-103.2000;0.8238;0.9312;
-102.9000;0.8124;0.9004;
-102.6000;0.8107;0.8957;
-102.3000;0.8083;0.8886;
-102.0000;0.8116;0.8909;
-101.7000;0.8099;0.8933;
-101.4000;0.8132;0.8933;
-101.1000;0.8116;0.8980;
-100.8000;0.8099;0.8980;
-100.5000;0.8099;0.8933;
-100.2000;0.8091;0.9004;
-99.9000;0.8099;0.9028;
-99.6000;0.8099;0.9051;
-99.3000;0.8099;0.9028;
-99.0000;0.8205;0.9170;
-98.7000;0.8099;0.8886;
-98.4000;0.8083;0.8814;
-98.1000;0.8099;0.8838;
-97.8000;0.8099;0.8767;
-97.5000;0.8099;0.8696;
-97.2000;0.8124;0.8696;
-96.9000;0.8124;0.8625;
-96.6000;0.8099;0.8530;
-96.3000;0.8124;0.8554;
-96.0000;0.8107;0.8435;
-95.7000;0.8124;0.8435;
-95.4000;0.8107;0.8459;
-95.1000;0.8107;0.8578;
-94.8000;0.8099;0.8672;
-94.5000;0.8099;0.8720;
-94.2000;0.8099;0.8649;
-93.9000;0.8107;0.8814;
-93.6000;0.8099;0.8957;
-93.3000;0.8091;0.8957;
-93.0000;0.8116;0.8980;
-92.7000;0.8116;0.8862;
-92.4000;0.8205;0.9028;
-92.1000;0.8116;0.8791;
-91.8000;0.8124;0.8886;
-91.5000;0.8107;0.8933;
-91.2000;0.8148;0.8980;
-90.9000;0.8083;0.8767;
-90.6000;0.8116;0.8838;
-90.3000;0.8099;0.8838;
-90.0000;0.8099;0.8886;
-89.7000;0.8099;0.8862;
-89.4000;0.8099;0.8980;
-89.1000;0.8116;0.8980;
-88.8000;0.8132;0.9028;
-88.5000;0.8107;0.8980;
-88.2000;0.8091;0.8909;
-87.9000;0.8148;0.9122;
-87.6000;0.8116;0.9004;
-87.3000;0.8099;0.8980;
-87.0000;0.8116;0.8933;
-86.7000;0.8116;0.9028;
-86.4000;0.8116;0.9170;
-86.1000;0.8124;0.9217;
-85.8000;0.8107;0.9122;
-85.5000;0.8116;0.9075;
-85.2000;0.8107;0.9004;
-84.9000;0.8091;0.8909;
-84.6000;0.8091;0.9004;
-84.3000;0.8099;0.9075;
-84.0000;0.8099;0.9075;
-83.7000;0.8124;0.9170;
-83.4000;0.8091;0.9099;
-83.1000;0.8091;0.9099;
-82.8000;0.8083;0.9004;
-82.5000;0.8124;0.8980;
-82.2000;0.8132;0.9051;
-81.9000;0.8099;0.8933;
-81.6000;0.8107;0.8980;
-81.3000;0.8107;0.8957;
-81.0000;0.8099;0.8980;
-80.7000;0.8042;0.8862;
-80.4000;0.8107;0.9004;
-80.1000;0.8091;0.8957;
-79.8000;0.8116;0.8933;
-79.5000;0.8107;0.8838;
-79.2000;0.8107;0.8933;
-78.9000;0.8107;0.9028;
-78.6000;0.8099;0.9004;
-78.3000;0.8067;0.8933;
-78.0000;0.8075;0.8957;
-77.7000;0.8132;0.8980;
-77.4000;0.8107;0.8838;
-77.1000;0.8099;0.8720;
-76.8000;0.8099;0.8838;
-76.5000;0.8091;0.8814;
-76.2000;0.8107;0.8814;
-75.9000;0.8116;0.8720;
-75.6000;0.8107;0.8720;
-75.3000;0.8107;0.8696;
-75.0000;0.8132;0.8743;
-74.7000;0.8116;0.8672;
-74.4000;0.8099;0.8625;
-74.1000;0.8124;0.8720;
-73.8000;0.8099;0.8791;
-73.5000;0.8156;0.8909;
-73.2000;0.8099;0.8767;
-72.9000;0.8116;0.8838;
-72.6000;0.8091;0.8767;
-72.3000;0.8116;0.8814;
-72.0000;0.8091;0.8791;
-71.7000;0.8083;0.8696;
-71.4000;0.8075;0.8743;
-71.1000;0.8107;0.8933;
-70.8000;0.8026;0.8743;
-70.5000;0.8018;0.8720;
-70.2000;0.8116;0.8933;
-69.9000;0.8107;0.8909;
-69.6000;0.8099;0.8862;
-69.3000;0.8140;0.9004;
-69.0000;0.8099;0.8957;
-68.7000;0.8099;0.8957;
-68.4000;0.8156;0.9028;
-68.1000;0.8107;0.8933;
-67.8000;0.8099;0.8838;
-67.5000;0.8107;0.8862;
-67.2000;0.8099;0.8838;
-66.9000;0.8091;0.8886;
-66.6000;0.8116;0.8933;
-66.3000;0.8116;0.8838;
-66.0000;0.8107;0.8791;
-65.7000;0.8083;0.8767;
-65.4000;0.8099;0.8743;
-65.1000;0.8099;0.8767;
-64.8000;0.8116;0.8791;
-64.5000;0.8099;0.8743;
-64.2000;0.8099;0.8767;
-63.9000;0.8148;0.8909;
-63.6000;0.8091;0.8625;
-63.3000;0.8107;0.8696;
-63.0000;0.8059;0.8578;
-62.7000;0.8099;0.8720;
-62.4000;0.8107;0.8767;
-62.1000;0.8099;0.8767;
-61.8000;0.8083;0.8696;
-61.5000;0.8107;0.8649;
-61.2000;0.8107;0.8625;
-60.9000;0.8124;0.8696;
-60.6000;0.8116;0.8672;
-60.3000;0.8107;0.8625;
-60.0000;0.8099;0.8672;
-59.7000;0.8132;0.8791;
-59.4000;0.8059;0.8601;
-59.1000;0.8075;0.8696;
-58.8000;0.8107;0.8767;
-58.5000;0.8116;0.8791;
-58.2000;0.8091;0.8720;
-57.9000;0.8107;0.8791;
-57.6000;0.8148;0.8886;
-57.3000;0.8099;0.8791;
-57.0000;0.8083;0.8767;
-56.7000;0.8099;0.8791;
-56.4000;0.8107;0.8838;
-56.1000;0.8116;0.8838;
-55.8000;0.8091;0.8814;
-55.5000;0.8116;0.8933;
-55.2000;0.8116;0.9028;
-54.9000;0.8091;0.9004;
-54.6000;0.8010;0.8720;
-54.3000;0.8124;0.8862;
-54.0000;0.8083;0.8862;
-53.7000;0.8099;0.8886;
-53.4000;0.8067;0.8862;
-53.1000;0.8091;0.8933;
-52.8000;0.8099;0.8933;
-52.5000;0.8099;0.8886;
-52.2000;0.8107;0.8862;
-51.9000;0.8132;0.8957;
-51.6000;0.8099;0.8933;
-51.3000;0.8116;0.8957;
-51.0000;0.8116;0.8980;
-50.7000;0.8099;0.8980;
-50.4000;0.8107;0.9099;
-50.1000;0.8107;0.9028;
-49.8000;0.8116;0.9051;
-49.5000;0.8124;0.9004;
-49.2000;0.8107;0.8862;
-48.9000;0.8107;0.8886;
-48.6000;0.8099;0.8862;
-48.3000;0.8124;0.8909;
-48.0000;0.8059;0.8743;
-47.7000;0.8116;0.8791;
-47.4000;0.8107;0.8696;
-47.1000;0.8181;0.8886;
-46.8000;0.8091;0.8672;
-46.5000;0.8099;0.8601;
-46.2000;0.8107;0.8625;
-45.9000;0.8156;0.8720;
-45.6000;0.8132;0.8672;
-45.3000;0.8116;0.8649;
-45.0000;0.8205;0.8909;
-44.7000;0.8059;0.8625;
-44.4000;0.8107;0.8672;
-44.1000;0.8107;0.8649;
-43.8000;0.8091;0.8696;
-43.5000;0.8091;0.8767;
-43.2000;0.8083;0.8649;
-42.9000;0.8124;0.8601;
-42.6000;0.8107;0.8554;
-42.3000;0.8132;0.8578;
-42.0000;0.8107;0.8601;
-41.7000;0.8132;0.8625;
-41.4000;0.8107;0.8554;
-41.1000;0.8124;0.8578;
-40.8000;0.8116;0.8554;
-40.5000;0.8107;0.8530;
-40.2000;0.8132;0.8601;
-39.9000;0.8099;0.8483;
-39.6000;0.8124;0.8601;
-39.3000;0.8107;0.8578;
-39.0000;0.8091;0.8530;
-38.7000;0.8091;0.8412;
-38.4000;0.8107;0.8459;
-38.1000;0.8099;0.8435;
-37.8000;0.8083;0.8459;
-37.5000;0.8091;0.8578;
-37.2000;0.8107;0.8696;
-36.9000;0.8140;0.8791;
-36.6000;0.8099;0.8625;
-36.3000;0.8107;0.8649;
-36.0000;0.8124;0.8720;
-35.7000;0.8140;0.8720;
-35.4000;0.8124;0.8743;
-35.1000;0.8099;0.8814;
-34.8000;0.8116;0.8886;
-34.5000;0.8099;0.8909;
-34.2000;0.8116;0.9028;
-33.9000;0.8107;0.9051;
-33.6000;0.8107;0.8980;
-33.3000;0.8107;0.9004;
-33.0000;0.8083;0.9075;
-32.7000;0.8205;0.9359;
-32.4000;0.8099;0.9146;
-32.1000;0.8099;0.9099;
-31.8000;0.8083;0.9028;
-31.5000;0.8107;0.9075;
-31.2000;0.8132;0.9051;
-30.9000;0.8124;0.9004;
-30.6000;0.8107;0.9051;
-30.3000;0.8124;0.8980;
-30.0000;0.8124;0.8957;
-29.7000;0.8083;0.8909;
-29.4000;0.8075;0.8909;
-29.1000;0.8026;0.8720;
-28.8000;0.8107;0.8886;
-28.5000;0.8099;0.8933;
-28.2000;0.8116;0.8933;
-27.9000;0.8099;0.8933;
-27.6000;0.8099;0.8814;
-27.3000;0.8107;0.8862;
-27.0000;0.8148;0.9028;
-26.7000;0.8107;0.8933;
-26.4000;0.8116;0.8886;
-26.1000;0.8050;0.8743;
-25.8000;0.8099;0.8933;
-25.5000;0.8116;0.8980;
-25.2000;0.8107;0.8957;
-24.9000;0.8116;0.8909;
-24.6000;0.8018;0.8672;
-24.3000;0.8091;0.8838;
-24.0000;0.8059;0.8672;
-23.7000;0.8083;0.8814;
-23.4000;0.8091;0.8838;
-23.1000;0.8116;0.9004;
-22.8000;0.8124;0.8957;
-22.5000;0.8107;0.8886;
-22.2000;0.8083;0.8767;
-21.9000;0.8099;0.8791;
-21.6000;0.8116;0.8814;
-21.3000;0.8107;0.8791;
-21.0000;0.8099;0.8767;
-20.7000;0.8107;0.8743;
-20.4000;0.8099;0.8743;
-20.1000;0.8116;0.8767;
-19.8000;0.8107;0.8814;
-19.5000;0.8124;0.8909;
-19.2000;0.8116;0.8909;
-18.9000;0.8124;0.8957;
-18.6000;0.8107;0.8909;
-18.3000;0.8107;0.8838;
-18.0000;0.8116;0.8862;
-17.7000;0.8156;0.8957;
-17.4000;0.8124;0.8814;
-17.1000;0.8107;0.8743;
-16.8000;0.8067;0.8696;
-16.5000;0.8099;0.8838;
-16.2000;0.8107;0.8814;
-15.9000;0.8124;0.8814;
-15.6000;0.8099;0.8838;
-15.3000;0.8107;0.8933;
-15.0000;0.8116;0.8909;
-14.7000;0.8083;0.8838;
-14.4000;0.8116;0.8862;
-14.1000;0.8091;0.8814;
-13.8000;0.8107;0.8838;
-13.5000;0.8107;0.8862;
-13.2000;0.8099;0.8791;
-12.9000;0.8107;0.8814;
-12.6000;0.8099;0.8720;
-12.3000;0.8099;0.8767;
-12.0000;0.8124;0.8696;
-11.7000;0.8091;0.8696;
-11.4000;0.8099;0.8696;
-11.1000;0.8116;0.8767;
-10.8000;0.8099;0.8791;
-10.5000;0.8124;0.8791;
-10.2000;0.8107;0.8838;
-9.9000;0.8107;0.8886;
-9.6000;0.8148;0.8909;
-9.3000;0.8099;0.8767;
-9.0000;0.8124;0.8909;
-8.7000;0.8116;0.9004;
-8.4000;0.8099;0.8957;
-8.1000;0.8107;0.9122;
-7.8000;0.8091;0.9028;
-7.5000;0.8107;0.9028;
-7.2000;0.8067;0.8886;
-6.9000;0.8083;0.8862;
-6.6000;0.8107;0.8909;
-6.3000;0.8107;0.8862;
-6.0000;0.8148;0.8957;
-5.7000;0.8099;0.8838;
-5.4000;0.8091;0.8838;
-5.1000;0.8116;0.8933;
-4.8000;0.8107;0.8980;
-4.5000;0.8116;0.9004;
-4.2000;0.8099;0.8980;
-3.9000;0.8132;0.8957;
-3.6000;0.8132;0.8957;
-3.3000;0.8116;0.8886;
-3.0000;0.8124;0.8814;
-2.7000;0.8197;0.9004;
-2.4000;0.8116;0.8767;
-2.1000;0.8083;0.8625;
-1.8000;0.8099;0.8625;
-1.5000;0.8107;0.8625;
-1.2000;0.8091;0.8649;
-0.9000;0.8099;0.8601;
-0.6000;0.8107;0.8578;
-0.3000;0.8107;0.8601;
0.0000;0.8107;0.8601;
0.3000;0.8433;0.9099;
0.6000;0.8987;0.9644;
0.9000;0.9410;1.0118;
1.2000;0.9719;1.0568;
1.5000;1.0004;1.1065;
1.8000;1.0224;1.1373;
2.1000;1.0387;1.1563;
2.4000;1.0525;1.1776;
2.7000;1.0680;1.1966;
3.0000;1.0802;1.2132;
3.3000;1.0875;1.2203;
3.6000;1.0956;1.2250;
3.9000;1.1038;1.2250;
4.2000;1.1127;1.2416;
4.5000;1.1249;1.2629;
4.8000;1.1249;1.2535;
5.1000;1.1306;1.2629;
5.4000;1.1331;1.2582;
5.7000;1.1453;1.2795;
6.0000;1.1494;1.2677;
6.3000;1.1534;1.2606;
6.6000;1.1608;1.2582;
6.9000;1.1648;1.2535;
7.2000;1.1681;1.2535;
7.5000;1.1722;1.2582;
7.8000;1.1738;1.2487;
8.1000;1.1803;1.2558;
8.4000;1.1852;1.2629;
8.7000;1.1860;1.2629;
9.0000;1.1909;1.2582;
9.3000;1.1941;1.2558;
9.6000;1.1950;1.2558;
9.9000;1.1974;1.2511;
10.2000;1.2023;1.2487;
10.5000;1.2039;1.2440;
10.8000;1.2072;1.2487;
11.1000;1.2088;1.2487;
11.4000;1.2120;1.2463;
11.7000;1.2120;1.2392;
12.0000;1.2186;1.2558;
12.3000;1.2186;1.2582;
12.6000;1.2210;1.2606;
12.9000;1.2243;1.2606;
13.2000;1.2259;1.2677;
13.5000;1.2275;1.2677;
13.8000;1.2332;1.2819;
14.1000;1.2291;1.2771;
14.4000;1.2316;1.2653;
14.7000;1.2340;1.2653;
15.0000;1.2340;1.2748;
15.3000;1.2365;1.2843;
15.6000;1.2357;1.2771;
15.9000;1.2389;1.2748;
16.2000;1.2397;1.2724;
16.5000;1.2454;1.2795;
16.8000;1.2414;1.2748;
17.1000;1.2438;1.2795;
17.4000;1.2405;1.2748;
17.7000;1.2454;1.2748;
18.0000;1.2479;1.2771;
18.3000;1.2495;1.2795;
18.6000;1.2479;1.2653;
18.9000;1.2503;1.2724;
19.2000;1.2527;1.2629;
19.5000;1.2568;1.2653;
19.8000;1.2536;1.2511;
20.1000;1.2568;1.2511;
20.4000;1.2601;1.2582;
20.7000;1.2601;1.2629;
21.0000;1.2552;1.2606;
21.3000;1.2601;1.2724;
21.6000;1.2609;1.2724;
21.9000;1.2593;1.2629;
22.2000;1.2633;1.2677;
22.5000;1.2625;1.2606;
22.8000;1.2593;1.2392;
23.1000;1.2641;1.2535;
23.4000;1.2650;1.2582;
23.7000;1.2650;1.2535;
24.0000;1.2666;1.2582;
24.3000;1.2650;1.2558;
24.6000;1.2641;1.2440;
24.9000;1.2682;1.2392;
25.2000;1.2674;1.2416;
25.5000;1.2674;1.2416;
25.8000;1.2674;1.2392;
26.1000;1.2674;1.2440;
26.4000;1.2698;1.2487;
26.7000;1.2707;1.2463;
27.0000;1.2715;1.2487;
27.3000;1.2755;1.2582;
27.6000;1.2747;1.2582;
27.9000;1.2690;1.2463;
28.2000;1.2739;1.2558;
28.5000;1.2739;1.2511;
28.8000;1.2739;1.2606;
29.1000;1.2739;1.2606;
29.4000;1.2731;1.2558;
29.7000;1.2764;1.2582;
30.0000;1.2755;1.2511;
30.3000;1.2747;1.2511;
30.6000;1.2772;1.2653;
30.9000;1.2780;1.2724;
31.2000;1.2780;1.2819;
31.5000;1.2764;1.2843;
31.8000;1.2772;1.2795;
32.1000;1.2780;1.2653;
32.4000;1.2796;1.2677;
32.7000;1.2780;1.2629;
33.0000;1.2788;1.2724;
33.3000;1.2886;1.2843;
33.6000;1.2804;1.2677;
33.9000;1.2796;1.2653;
34.2000;1.2772;1.2677;
34.5000;1.2812;1.2843;
34.8000;1.2788;1.2819;
35.1000;1.2821;1.2771;
35.4000;1.2804;1.2724;
35.7000;1.2837;1.2771;
36.0000;1.2829;1.2819;
36.3000;1.2821;1.2677;
36.6000;1.2821;1.2700;
36.9000;1.2837;1.2724;
37.2000;1.2845;1.2748;
37.5000;1.2894;1.2700;
37.8000;1.2845;1.2558;
38.1000;1.2845;1.2558;
38.4000;1.2861;1.2487;
38.7000;1.2853;1.2487;
39.0000;1.2796;1.2392;
39.3000;1.2796;1.2440;
39.6000;1.2821;1.2535;
39.9000;1.2861;1.2582;
40.2000;1.2861;1.2558;
40.5000;1.2780;1.2274;
40.8000;1.2796;1.2321;
41.1000;1.2853;1.2463;
41.4000;1.2877;1.2487;
41.7000;1.2967;1.2724;
42.0000;1.2877;1.2487;
42.3000;1.2869;1.2487;
42.6000;1.2886;1.2487;
42.9000;1.2877;1.2440;
43.2000;1.2877;1.2416;
43.5000;1.2894;1.2463;
43.8000;1.2853;1.2345;
44.1000;1.2886;1.2440;
44.4000;1.2894;1.2440;
44.7000;1.2894;1.2535;
45.0000;1.2902;1.2535;
45.3000;1.2837;1.2298;
45.6000;1.2902;1.2511;
45.9000;1.2902;1.2487;
46.2000;1.2877;1.2463;
46.5000;1.2910;1.2606;
46.8000;1.2934;1.2629;
47.1000;1.2902;1.2582;
47.4000;1.2926;1.2606;
47.7000;1.2918;1.2700;
48.0000;1.2967;1.2819;
48.3000;1.2918;1.2724;
48.6000;1.2910;1.2795;
48.9000;1.2918;1.2724;
49.2000;1.2959;1.2819;
49.5000;1.2918;1.2748;
49.8000;1.2861;1.2535;
50.1000;1.2902;1.2558;
50.4000;1.2967;1.2700;
50.7000;1.2943;1.2511;
51.0000;1.2926;1.2535;
51.3000;1.2861;1.2392;
51.6000;1.2934;1.2511;
51.9000;1.3000;1.2677;
52.2000;1.2926;1.2582;
52.5000;1.2902;1.2463;
52.8000;1.2943;1.2487;
53.1000;1.2926;1.2463;
53.4000;1.2959;1.2463;
53.7000;1.2943;1.2463;
54.0000;1.2943;1.2487;
54.3000;1.2943;1.2487;
54.6000;1.2918;1.2511;
54.9000;1.2951;1.2629;
55.2000;1.2951;1.2653;
55.5000;1.2943;1.2653;
55.8000;1.2943;1.2653;
56.1000;1.2943;1.2582;
56.4000;1.2943;1.2582;
56.7000;1.2951;1.2653;
57.0000;1.2943;1.2487;
57.3000;1.2902;1.2345;
57.6000;1.2951;1.2392;
57.9000;1.2967;1.2440;
58.2000;1.2934;1.2369;
58.5000;1.2951;1.2392;
58.8000;1.2934;1.2416;
59.1000;1.2951;1.2440;
59.4000;1.2975;1.2535;
59.7000;1.2951;1.2511;
60.0000;1.2959;1.2535;
60.3000;1.2943;1.2558;
60.6000;1.2951;1.2653;
60.9000;1.2959;1.2748;
61.2000;1.2894;1.2582;
61.5000;1.2951;1.2653;
61.8000;1.2975;1.2724;
62.1000;1.2959;1.2677;
62.4000;1.2975;1.2748;
62.7000;1.2975;1.2819;
63.0000;1.2975;1.2866;
63.3000;1.2869;1.2582;
63.6000;1.2967;1.2748;
63.9000;1.2959;1.2819;
64.2000;1.2951;1.2653;
64.5000;1.2967;1.2653;
64.8000;1.2959;1.2606;
65.1000;1.2943;1.2463;
65.4000;1.2975;1.2606;
65.7000;1.2951;1.2653;
66.0000;1.2991;1.2724;
66.3000;1.2959;1.2582;
66.6000;1.2967;1.2582;
66.9000;1.2967;1.2606;
67.2000;1.2959;1.2511;
67.5000;1.2959;1.2582;
67.8000;1.2975;1.2653;
68.1000;1.3016;1.2795;
68.4000;1.2983;1.2724;
68.7000;1.2983;1.2795;
69.0000;1.2951;1.2700;
69.3000;1.2983;1.2771;
69.6000;1.2975;1.2771;
69.9000;1.2991;1.2866;
70.2000;1.2983;1.2914;
70.5000;1.2975;1.2866;
70.8000;1.2983;1.2819;
71.1000;1.2983;1.2843;
71.4000;1.2959;1.2677;
71.7000;1.2975;1.2653;
72.0000;1.2991;1.2771;
72.3000;1.2991;1.2795;
72.6000;1.2975;1.2748;
72.9000;1.3008;1.2937;
73.2000;1.2983;1.2985;
73.5000;1.2975;1.2961;
73.8000;1.2943;1.2890;
74.1000;1.2983;1.3080;
74.4000;1.2991;1.2961;
74.7000;1.2991;1.2937;
75.0000;1.2983;1.2890;
75.3000;1.2991;1.2843;
75.6000;1.3000;1.2843;
75.9000;1.2983;1.2843;
76.2000;1.2991;1.2843;
76.5000;1.2975;1.2890;
76.8000;1.2991;1.2937;
77.1000;1.2983;1.2961;
77.4000;1.2991;1.2866;
77.7000;1.2991;1.2866;
78.0000;1.2983;1.2819;
78.3000;1.3008;1.2914;
78.6000;1.2967;1.2890;
78.9000;1.2991;1.2961;
79.2000;1.2983;1.2890;
79.5000;1.2991;1.2843;
79.8000;1.3000;1.2819;
80.1000;1.3008;1.2795;
80.4000;1.2983;1.2677;
80.7000;1.3008;1.2748;
81.0000;1.3008;1.2843;
81.3000;1.3000;1.2819;
81.6000;1.2983;1.2795;
81.9000;1.2991;1.2771;
82.2000;1.3032;1.2866;
82.5000;1.3008;1.2866;
82.8000;1.2983;1.2795;
83.1000;1.2991;1.2795;
83.4000;1.2991;1.2795;
83.7000;1.3016;1.2866;
84.0000;1.3024;1.2937;
84.3000;1.3024;1.2937;
84.6000;1.2975;1.2819;
84.9000;1.3000;1.2914;
85.2000;1.3032;1.2961;
85.5000;1.3008;1.2866;
85.8000;1.3081;1.3103;
86.1000;1.3040;1.2937;
86.4000;1.3000;1.2795;
86.7000;1.2991;1.2819;
87.0000;1.3008;1.2843;
87.3000;1.2975;1.2843;
87.6000;1.3008;1.2866;
87.9000;1.3016;1.2843;
88.2000;1.3032;1.2890;
88.5000;1.2991;1.2771;
88.8000;1.3008;1.2866;
89.1000;1.2991;1.2795;
89.4000;1.3000;1.2795;
89.7000;1.3024;1.2771;
90.0000;1.3048;1.2914;
90.3000;1.3008;1.2819;
90.6000;1.3016;1.2961;
90.9000;1.3008;1.2890;
91.2000;1.3024;1.2890;
91.5000;1.2975;1.2795;
91.8000;1.3000;1.2961;
92.1000;1.2975;1.2937;
92.4000;1.3016;1.3008;
92.7000;1.3016;1.3032;
93.0000;1.3016;1.3151;
93.3000;1.3008;1.3056;
93.6000;1.3048;1.3151;
93.9000;1.3057;1.3151;
94.2000;1.3024;1.3080;
94.5000;1.3024;1.3056;
94.8000;1.3024;1.3080;
95.1000;1.2991;1.3008;
95.4000;1.3040;1.2961;
95.7000;1.3008;1.2914;
96.0000;1.3000;1.2866;
96.3000;1.3000;1.2914;
96.6000;1.3008;1.2890;
96.9000;1.2967;1.2866;
97.2000;1.3000;1.2914;
97.5000;1.3000;1.2890;
97.8000;1.3008;1.2795;
98.1000;1.3024;1.2700;
98.4000;1.3008;1.2677;
98.7000;1.3008;1.2700;
99.0000;1.3024;1.2866;
99.3000;1.3000;1.2819;
99.6000;1.3024;1.2843;
99.9000;1.3000;1.2819;
100.2000;1.3016;1.2843;
100.5000;1.3000;1.2795;
100.8000;1.3008;1.2843;
101.1000;1.3000;1.2795;
101.4000;1.3016;1.2890;
101.7000;1.3016;1.2890;
102.0000;1.3024;1.2866;
102.3000;1.3000;1.2914;
102.6000;1.3032;1.2866;
102.9000;1.3040;1.2843;
103.2000;1.3032;1.2771;
103.5000;1.3024;1.2795;
103.8000;1.3016;1.2843;
104.1000;1.3032;1.2819;
104.4000;1.3024;1.2771;
104.7000;1.3040;1.2843;
105.0000;1.3024;1.2819;
105.3000;1.3008;1.2795;
105.6000;1.3008;1.2843;
105.9000;1.3008;1.2937;
106.2000;1.3000;1.2819;
106.5000;1.3016;1.2724;
106.8000;1.2991;1.2653;
107.1000;1.3000;1.2724;
107.4000;1.3000;1.2748;
107.7000;1.2943;1.2677;
108.0000;1.3008;1.2795;
108.3000;1.2991;1.2748;
108.6000;1.3000;1.2724;
108.9000;1.3032;1.2771;
109.2000;1.3024;1.2653;
109.5000;1.3008;1.2606;
109.8000;1.3089;1.2843;
110.1000;1.3032;1.2748;
110.4000;1.3024;1.2771;
110.7000;1.2991;1.2653;
111.0000;1.2959;1.2606;
111.3000;1.3016;1.2677;
111.6000;1.3008;1.2677;
111.9000;1.3024;1.2748;
112.2000;1.3024;1.2700;
112.5000;1.3000;1.2700;
112.8000;1.3016;1.2748;
113.1000;1.3000;1.2771;
113.4000;1.3016;1.2771;
113.7000;1.3008;1.2700;
114.0000;1.2967;1.2677;
114.3000;1.3024;1.2795;
114.6000;1.3048;1.2843;
114.9000;1.3008;1.2748;
115.2000;1.3008;1.2700;
115.5000;1.3032;1.2724;
115.8000;1.3040;1.2700;
116.1000;1.3016;1.2748;
116.4000;1.3024;1.2771;
116.7000;1.3024;1.2771;
117.0000;1.3032;1.2724;
117.3000;1.3016;1.2653;
117.6000;1.3032;1.2653;
117.9000;1.3032;1.2558;
118.2000;1.3016;1.2606;
118.5000;1.3016;1.2700;
118.8000;1.3008;1.2748;
119.1000;1.3024;1.2724;
119.4000;1.3016;1.2700;
119.7000;1.3048;1.2795;
120.0000;1.3024;1.2819;
120.3000;1.3032;1.2890;
120.6000;1.3024;1.2843;
120.9000;1.3032;1.2937;
121.2000;1.3024;1.2914;
121.5000;1.3032;1.2914;
121.8000;1.3024;1.2866;
122.1000;1.3008;1.2795;
122.4000;1.2991;1.2748;
122.7000;1.3016;1.2819;
123.0000;1.3008;1.2843;
123.3000;1.3024;1.2819;
123.6000;1.3000;1.2890;
123.9000;1.3008;1.2866;
124.2000;1.3016;1.2890;
124.5000;1.3008;1.2890;
124.8000;1.2991;1.2914;
125.1000;1.3016;1.2937;
125.4000;1.3032;1.2843;
125.7000;1.3024;1.2724;
126.0000;1.3024;1.2795;
126.3000;1.3040;1.2866;
126.6000;1.3040;1.2890;
126.9000;1.3008;1.2795;
127.2000;1.3032;1.2771;
127.5000;1.3065;1.2795;
127.8000;1.3032;1.2677;
128.1000;1.3032;1.2606;
128.4000;1.3032;1.2629;
128.7000;1.3016;1.2653;
129.0000;1.3016;1.2677;
129.3000;1.3040;1.2724;
129.6000;1.3032;1.2748;
129.9000;1.3016;1.2653;
130.2000;1.3016;1.2629;
130.5000;1.3008;1.2606;
130.8000;1.2959;1.2440;
131.1000;1.3024;1.2582;
131.4000;1.3016;1.2558;
131.7000;1.3040;1.2629;
132.0000;1.3032;1.2629;
132.3000;1.3024;1.2653;
132.6000;1.3048;1.2795;
132.9000;1.3008;1.2724;
133.2000;1.3016;1.2582;
133.5000;1.3016;1.2535;
133.8000;1.3000;1.2487;
134.1000;1.3024;1.2463;
134.4000;1.3016;1.2463;
134.7000;1.3032;1.2535;
135.0000;1.3024;1.2653;
135.3000;1.2975;1.2558;
135.6000;1.3032;1.2677;
135.9000;1.3122;1.2890;
136.2000;1.3016;1.2629;
136.5000;1.3024;1.2653;
136.8000;1.3081;1.2748;
137.1000;1.3024;1.2606;
137.4000;1.3040;1.2558;
137.7000;1.3008;1.2463;
138.0000;1.3024;1.2487;
138.3000;1.3032;1.2535;
138.6000;1.3024;1.2558;
138.9000;1.3048;1.2653;
139.2000;1.3040;1.2606;
139.5000;1.3032;1.2535;
139.8000;1.3040;1.2535;
140.1000;1.3040;1.2511;
140.4000;1.3040;1.2558;
140.7000;1.3040;1.2582;
141.0000;1.3032;1.2629;
141.3000;1.3024;1.2771;
141.6000;1.3040;1.2819;
141.9000;1.3032;1.2771;
142.2000;1.3024;1.2748;
142.5000;1.3032;1.2724;
142.8000;1.3008;1.2653;
143.1000;1.3008;1.2700;
143.4000;1.3008;1.2748;
143.7000;1.3008;1.2795;
144.0000;1.3008;1.2771;
144.3000;1.2991;1.2748;
144.6000;1.3008;1.2724;
144.9000;1.3008;1.2724;
145.2000;1.3000;1.2795;
145.5000;1.3008;1.2866;
145.8000;1.3032;1.2795;
146.1000;1.3032;1.2748;
146.4000;1.3016;1.2748;
146.7000;1.3040;1.2724;
147.0000;1.3016;1.2606;
147.3000;1.3024;1.2606;
147.6000;1.3024;1.2606;
147.9000;1.3008;1.2582;
148.2000;1.3008;1.2653;
148.5000;1.3024;1.2748;
148.8000;1.3016;1.2748;
149.1000;1.3008;1.2629;
149.4000;1.3032;1.2629;
149.7000;1.3016;1.2535;
150.0000;1.3048;1.2558;
150.3000;1.2959;1.2392;
150.6000;1.3024;1.2558;
150.9000;1.3024;1.2558;
151.2000;1.3040;1.2511;
151.5000;1.3024;1.2535;
151.8000;1.3016;1.2535;
152.1000;1.3024;1.2487;
152.4000;1.3040;1.2511;
152.7000;1.3040;1.2535;
153.0000;1.3024;1.2558;
153.3000;1.3032;1.2535;
153.6000;1.3016;1.2558;
153.9000;1.3016;1.2724;
154.2000;1.3008;1.2724;
154.5000;1.2983;1.2606;
154.8000;1.3040;1.2724;
155.1000;1.3032;1.2748;
155.4000;1.3024;1.2748;
155.7000;1.3048;1.2795;
156.0000;1.3024;1.2771;
156.3000;1.3024;1.2771;
156.6000;1.3024;1.2724;
156.9000;1.3097;1.2843;
157.2000;1.3032;1.2582;
157.5000;1.3032;1.2653;
157.8000;1.3024;1.2653;
158.1000;1.3000;1.2582;
158.4000;1.3008;1.2700;
158.7000;1.2934;1.2416;
159.0000;1.3008;1.2463;
159.3000;1.3122;1.2748;
159.6000;1.3040;1.2582;
159.9000;1.3016;1.2535;
160.2000;1.3024;1.2606;
160.5000;1.3040;1.2700;
160.8000;1.3032;1.2629;
161.1000;1.3073;1.2866;
161.4000;1.2983;1.2724;
161.7000;1.3048;1.2890;
162.0000;1.3024;1.2843;
162.3000;1.3032;1.2795;
162.6000;1.2967;1.2606;
162.9000;1.3032;1.2843;
163.2000;1.3016;1.2748;
163.5000;1.3040;1.2748;
163.8000;1.3032;1.2724;
164.1000;1.3040;1.2724;
164.4000;1.3024;1.2606;
164.7000;1.3032;1.2653;
165.0000;1.3024;1.2629;
165.3000;1.3032;1.2700;
165.6000;1.3024;1.2700;
165.9000;1.3024;1.2629;
166.2000;1.3024;1.2606;
166.5000;1.3032;1.2629;
166.8000;1.3032;1.2629;
167.1000;1.3040;1.2558;
167.4000;1.3048;1.2558;
167.7000;1.3016;1.2653;
168.0000;1.3032;1.2700;
168.3000;1.2975;1.2511;
168.6000;1.3032;1.2606;
168.9000;1.3114;1.2819;
169.2000;1.3032;1.2582;
169.5000;1.3016;1.2535;
169.8000;1.3032;1.2653;
170.1000;1.2959;1.2487;
170.4000;1.3057;1.2700;
170.7000;1.2983;1.2463;
171.0000;1.2991;1.2463;
171.3000;1.2943;1.2345;
171.6000;1.3024;1.2558;
171.9000;1.3048;1.2558;
172.2000;1.3032;1.2463;
172.5000;1.3032;1.2416;
172.8000;1.3048;1.2440;
173.1000;1.3040;1.2463;
173.4000;1.3048;1.2463;
173.7000;1.3008;1.2321;
174.0000;1.3032;1.2440;
174.3000;1.3040;1.2535;
174.6000;1.3024;1.2582;
174.9000;1.3024;1.2629;
175.2000;1.3024;1.2582;
175.5000;1.3048;1.2582;
175.8000;1.3040;1.2629;
176.1000;1.3024;1.2700;
176.4000;1.3032;1.2700;
176.7000;1.3032;1.2843;
177.0000;1.3024;1.2771;
177.3000;1.3032;1.2819;
177.6000;1.3024;1.2795;
177.9000;1.3024;1.2700;
178.2000;1.3040;1.2748;
178.5000;1.3024;1.2629;
178.8000;1.3073;1.2795;
179.1000;1.3057;1.2795;
179.4000;1.3016;1.2700;
179.7000;1.3024;1.2629;
180.0000;1.3024;1.2582;
180.3000;1.3040;1.2535;
180.6000;1.3016;1.2416;
180.9000;1.3024;1.2369;
181.2000;1.3000;1.2369;
181.5000;1.3024;1.2535;
181.8000;1.3057;1.2724;
182.1000;1.3065;1.2677;
182.4000;1.3016;1.2582;
182.7000;1.3000;1.2629;
183.0000;1.3000;1.2606;
183.3000;1.3024;1.2653;
183.6000;1.3024;1.2653;
183.9000;1.3016;1.2700;
184.2000;1.3024;1.2700;
184.5000;1.3040;1.2700;
184.8000;1.2983;1.2535;
185.1000;1.3016;1.2487;
185.4000;1.3032;1.2677;
185.7000;1.3032;1.2653;
186.0000;1.2983;1.2558;
186.3000;1.3016;1.2629;
186.6000;1.2991;1.2606;
186.9000;1.3040;1.2653;
187.2000;1.3032;1.2629;
187.5000;1.3138;1.2890;
187.8000;1.3032;1.2700;
188.1000;1.3081;1.2866;
188.4000;1.3040;1.2677;
188.7000;1.3024;1.2771;
189.0000;1.3040;1.2771;
189.3000;1.3048;1.2748;
189.6000;1.3016;1.2653;
189.9000;1.3040;1.2606;
190.2000;1.3024;1.2606;
190.5000;1.3040;1.2748;
190.8000;1.3040;1.2795;
191.1000;1.3024;1.2724;
191.4000;1.3032;1.2771;
191.7000;1.3016;1.2795;
192.0000;1.3040;1.2795;
192.3000;1.3040;1.2866;
192.6000;1.3032;1.2819;
192.9000;1.3040;1.2866;
193.2000;1.3016;1.2629;
193.5000;1.3016;1.2535;
193.8000;1.2991;1.2440;
194.1000;1.3016;1.2582;
194.4000;1.3032;1.2653;
194.7000;1.3024;1.2582;
195.0000;1.3016;1.2558;
195.3000;1.3016;1.2582;
195.6000;1.2991;1.2582;
195.9000;1.3008;1.2582;
196.2000;1.3008;1.2582;
196.5000;1.3008;1.2440;
196.8000;1.3024;1.2535;
197.1000;1.3032;1.2582;
197.4000;1.3032;1.2558;
197.7000;1.3048;1.2558;
198.0000;1.3048;1.2582;
198.3000;1.3048;1.2558;
198.6000;1.3032;1.2582;
198.9000;1.3008;1.2487;
199.2000;1.3032;1.2558;
199.5000;1.3008;1.2440;
199.8000;1.3040;1.2416;
200.1000;1.3024;1.2369;
200.4000;1.3016;1.2369;
200.7000;1.3114;1.2629;
201.0000;1.3032;1.2463;
201.3000;1.3016;1.2416;
201.6000;1.3032;1.2440;
201.9000;1.3016;1.2392;
202.2000;1.3032;1.2392;
202.5000;1.3089;1.2511;
202.8000;1.2983;1.2298;
203.1000;1.3024;1.2416;
203.4000;1.3057;1.2416;
203.7000;1.2967;1.2203;
204.0000;1.3073;1.2440;
204.3000;1.3024;1.2321;
204.6000;1.3130;1.2606;
204.9000;1.3057;1.2511;
205.2000;1.3032;1.2440;
205.5000;1.2991;1.2416;
205.8000;1.2975;1.2440;
206.1000;1.3016;1.2606;
206.4000;1.3032;1.2653;
206.7000;1.3024;1.2653;
207.0000;1.3008;1.2629;
207.3000;1.3032;1.2748;
207.6000;1.3040;1.2724;
207.9000;1.3032;1.2724;
208.2000;1.3032;1.2748;
208.5000;1.3065;1.2795;
208.8000;1.3048;1.2700;
209.1000;1.3024;1.2677;
209.4000;1.3122;1.2843;
209.7000;1.3032;1.2606;
210.0000;1.3032;1.2558;
210.3000;1.3024;1.2487;
210.6000;1.3024;1.2440;
210.9000;1.3065;1.2558;
211.2000;1.3040;1.2558;
211.5000;1.3024;1.2558;
211.8000;1.3016;1.2629;
212.1000;1.2975;1.2511;
212.4000;1.2983;1.2463;
212.7000;1.3032;1.2653;
213.0000;1.3040;1.2511;
213.3000;1.3032;1.2511;
213.6000;1.3032;1.2558;
213.9000;1.3032;1.2558;
214.2000;1.3057;1.2653;
214.5000;1.3024;1.2677;
214.8000;1.3040;1.2653;
215.1000;1.3040;1.2700;
215.4000;1.3040;1.2748;
215.7000;1.3024;1.2629;
216.0000;1.3048;1.2724;
216.3000;1.3024;1.2677;
216.6000;1.3024;1.2700;
216.9000;1.3016;1.2677;
217.2000;1.3008;1.2724;
217.5000;1.3024;1.2795;
217.8000;1.3016;1.2771;
218.1000;1.3040;1.2771;
218.4000;1.3016;1.2748;
218.7000;1.3024;1.2771;
219.0000;1.3016;1.2700;
219.3000;1.3024;1.2724;
219.6000;1.3024;1.2606;
219.9000;1.3024;1.2606;
220.2000;1.3024;1.2582;
220.5000;1.3057;1.2629;
220.8000;1.3024;1.2535;
221.1000;1.3016;1.2606;
221.4000;1.3024;1.2724;
221.7000;1.3065;1.2843;
222.0000;1.3024;1.2795;
222.3000;1.3008;1.2748;
222.6000;1.3024;1.2677;
222.9000;1.3024;1.2677;
223.2000;1.3032;1.2653;
223.5000;1.3057;1.2748;
223.8000;1.3016;1.2629;
224.1000;1.3024;1.2677;
224.4000;1.3032;1.2653;
224.7000;1.3008;1.2629;
225.0000;1.3032;1.2677;
225.3000;1.3024;1.2653;
225.6000;1.3040;1.2748;
225.9000;1.3000;1.2700;
226.2000;1.3016;1.2795;
226.5000;1.2983;1.2724;
226.8000;1.3040;1.2866;
227.1000;1.3032;1.2819;
227.4000;1.3024;1.2819;
227.7000;1.3057;1.2890;
228.0000;1.3016;1.2795;
228.3000;1.3040;1.2866;
228.6000;1.3016;1.2819;
228.9000;1.3016;1.2866;
229.2000;1.3024;1.2890;
229.5000;1.3105;1.3008;
229.8000;1.3016;1.2724;
230.1000;1.3016;1.2677;
230.4000;1.3016;1.2629;
230.7000;1.3024;1.2582;
231.0000;1.3057;1.2677;
231.3000;1.3032;1.2582;
231.6000;1.3016;1.2582;
231.9000;1.2991;1.2463;
232.2000;1.3089;1.2819;
232.5000;1.3000;1.2558;
232.8000;1.3008;1.2535;
233.1000;1.3040;1.2629;
233.4000;1.3081;1.2771;
233.7000;1.3016;1.2653;
234.0000;1.3000;1.2606;
234.3000;1.3024;1.2795;
234.6000;1.3032;1.2914;
234.9000;1.3032;1.2795;
235.2000;1.3024;1.2795;
235.5000;1.3040;1.2819;
235.8000;1.3048;1.2748;
236.1000;1.3016;1.2629;
236.4000;1.3024;1.2677;
236.7000;1.3024;1.2677;
237.0000;1.3032;1.2843;
237.3000;1.3008;1.2795;
237.6000;1.3032;1.2890;
237.9000;1.3016;1.2843;
238.2000;1.3048;1.2866;
238.5000;1.3016;1.2866;
238.8000;1.3016;1.2795;
239.1000;1.2967;1.2700;
239.4000;1.3040;1.2748;
239.7000;1.3040;1.2629;
240.0000;1.3032;1.2677;
240.3000;1.3032;1.2677;
240.6000;1.3040;1.2748;
240.9000;1.2991;1.2653;
241.2000;1.3040;1.2795;
241.5000;1.3032;1.2795;
241.8000;1.2991;1.2677;
242.1000;1.3008;1.2748;
242.4000;1.3016;1.2795;
242.7000;1.3024;1.2795;
243.0000;1.3040;1.2843;
243.3000;1.3032;1.2890;
243.6000;1.3016;1.2890;
243.9000;1.3032;1.2961;
244.2000;1.3040;1.2866;
244.5000;1.3024;1.2724;
244.8000;1.3032;1.2819;
245.1000;1.3024;1.2819;
245.4000;1.3016;1.2843;
245.7000;1.3032;1.2890;
246.0000;1.3016;1.2866;
246.3000;1.3024;1.2843;
246.6000;1.3024;1.2819;
246.9000;1.3032;1.2843;
247.2000;1.3089;1.2914;
247.5000;1.3032;1.2843;
247.8000;1.3040;1.2843;
248.1000;1.3024;1.2819;
248.4000;1.3016;1.2795;
248.7000;1.3024;1.2795;
249.0000;1.3032;1.2819;
249.3000;1.3016;1.2914;
249.6000;1.3065;1.3032;
249.9000;1.3040;1.2914;
250.2000;1.3032;1.2819;
250.5000;1.3040;1.2866;
250.8000;1.3032;1.2866;
251.1000;1.3024;1.2771;
251.4000;1.3048;1.2748;
251.7000;1.3008;1.2629;
252.0000;1.2991;1.2653;
252.3000;1.3000;1.2677;
252.6000;1.3008;1.2606;
252.9000;1.2983;1.2653;
253.2000;1.3105;1.2866;
253.5000;1.3065;1.2700;
253.8000;1.3024;1.2511;
254.1000;1.3040;1.2535;
254.4000;1.3024;1.2558;
254.7000;1.3032;1.2629;
255.0000;1.3024;1.2653;
255.3000;1.3032;1.2771;
255.6000;1.3065;1.2724;
255.9000;1.3016;1.2700;
256.2000;1.3016;1.2724;
256.5000;1.3040;1.2700;
256.8000;1.3032;1.2606;
257.1000;1.3016;1.2582;
257.4000;1.3040;1.2677;
257.7000;1.3024;1.2724;
258.0000;1.3032;1.2748;
258.3000;1.3032;1.2748;
258.6000;1.3032;1.2629;
258.9000;1.3024;1.2535;
259.2000;1.3032;1.2582;
259.5000;1.3024;1.2558;
259.8000;1.3008;1.2582;
260.1000;1.2951;1.2487;
260.4000;1.3024;1.2677;
260.7000;1.3057;1.2771;
261.0000;1.3024;1.2748;
261.3000;1.3024;1.2795;
261.6000;1.3008;1.2795;
261.9000;1.2991;1.2748;
262.2000;1.3016;1.2795;
262.5000;1.3032;1.2724;
262.8000;1.3032;1.2677;
263.1000;1.3032;1.2700;
263.4000;1.3000;1.2535;
263.7000;1.3016;1.2653;
264.0000;1.3008;1.2653;
264.3000;1.3008;1.2606;
264.6000;1.3016;1.2582;
264.9000;1.3040;1.2606;
265.2000;1.3024;1.2558;
265.5000;1.3016;1.2511;
265.8000;1.3024;1.2582;
266.1000;1.3008;1.2629;
266.4000;1.3016;1.2677;
266.7000;1.3024;1.2582;
267.0000;1.3016;1.2463;
267.3000;1.3024;1.2558;
267.6000;1.3016;1.2582;
267.9000;1.3040;1.2653;
268.2000;1.3008;1.2653;
268.5000;1.3016;1.2700;
268.8000;1.3016;1.2677;
269.1000;1.3008;1.2629;
269.4000;1.3032;1.2700;
269.7000;1.2991;1.2629;
270.0000;1.3024;1.2677;
270.3000;1.3040;1.2677;
270.6000;1.3040;1.2629;
270.9000;1.3016;1.2629;
271.2000;1.3016;1.2700;
271.5000;1.3024;1.2748;
271.8000;1.3016;1.2724;
272.1000;1.3016;1.2795;
272.4000;1.3024;1.2795;
272.7000;1.3032;1.2819;
273.0000;1.3024;1.2843;
273.3000;1.3024;1.2795;
273.6000;1.3016;1.2795;
273.9000;1.3040;1.2795;
274.2000;1.3000;1.2795;
274.5000;1.3000;1.2653;
274.8000;1.3057;1.2629;
275.1000;1.3040;1.2629;
275.4000;1.3000;1.2535;
275.7000;1.3040;1.2535;
276.0000;1.3008;1.2463;
276.3000;1.3016;1.2487;
276.6000;1.2983;1.2440;
276.9000;1.3024;1.2487;
277.2000;1.3032;1.2369;
277.5000;1.3024;1.2392;
277.8000;1.3032;1.2392;
278.1000;1.3040;1.2487;
278.4000;1.3130;1.2677;
278.7000;1.3008;1.2392;
279.0000;1.3024;1.2416;
279.3000;1.3057;1.2606;
279.6000;1.3008;1.2582;
279.9000;1.3040;1.2582;
280.2000;1.3032;1.2582;
280.5000;1.3032;1.2511;
280.8000;1.3040;1.2511;
281.1000;1.3048;1.2558;
281.4000;1.3040;1.2487;
281.7000;1.3024;1.2511;
282.0000;1.3024;1.2677;
282.3000;1.3024;1.2700;
282.6000;1.3032;1.2677;
282.9000;1.3024;1.2653;
283.2000;1.3024;1.2653;
283.5000;1.3000;1.2558;
283.8000;1.3016;1.2629;
284.1000;1.3000;1.2653;
284.4000;1.3024;1.2724;
284.7000;1.3016;1.2748;
285.0000;1.3016;1.2653;
285.3000;1.3122;1.2866;
285.6000;1.3032;1.2606;
285.9000;1.3008;1.2511;
286.2000;1.2951;1.2298;
286.5000;1.3032;1.2511;
286.8000;1.3008;1.2416;
287.1000;1.3016;1.2416;
287.4000;1.3024;1.2487;
287.7000;1.2983;1.2416;
288.0000;1.3016;1.2487;
288.3000;1.2975;1.2440;
288.6000;1.2991;1.2487;
288.9000;1.3016;1.2416;
289.2000;1.3032;1.2369;
289.5000;1.3016;1.2392;
289.8000;1.3008;1.2416;
290.1000;1.3016;1.2511;
290.4000;1.3024;1.2558;
290.7000;1.3040;1.2606;
291.0000;1.3024;1.2440;
291.3000;1.3040;1.2558;
291.6000;1.3024;1.2487;
291.9000;1.3040;1.2558;
292.2000;1.3048;1.2677;
292.5000;1.2983;1.2487;
292.8000;1.3016;1.2440;
293.1000;1.3016;1.2487;
293.4000;1.3040;1.2535;
293.7000;1.3032;1.2511;
294.0000;1.3024;1.2416;
294.3000;1.3073;1.2535;
294.6000;1.3040;1.2416;
294.9000;1.3032;1.2463;
295.2000;1.2991;1.2440;
295.5000;1.3040;1.2487;
295.8000;1.3032;1.2511;
296.1000;1.3016;1.2558;
296.4000;1.3032;1.2629;
296.7000;1.3016;1.2535;
297.0000;1.3000;1.2463;
297.3000;1.3048;1.2558;
297.6000;1.3024;1.2629;
297.9000;1.3016;1.2606;
298.2000;1.3032;1.2629;
298.5000;1.3024;1.2677;
298.8000;1.3008;1.2606;
299.1000;1.2975;1.2558;
299.4000;1.2943;1.2416;
299.7000;1.3016;1.2582;
300.0000;1.3032;1.2582;
300.3000;1.3024;1.2558;
300.6000;1.3016;1.2535;
300.9000;1.3016;1.2535;
301.2000;1.3032;1.2582;
301.5000;1.2975;1.2487;
301.8000;1.3065;1.2677;
302.1000;1.3032;1.2582;
302.4000;1.3032;1.2535;
302.7000;1.3024;1.2487;
303.0000;1.3008;1.2535;
303.3000;1.3008;1.2463;
303.6000;1.2991;1.2369;
303.9000;1.3016;1.2392;
304.2000;1.3024;1.2606;
304.5000;1.3016;1.2606;
304.8000;1.3024;1.2653;
305.1000;1.3040;1.2558;
305.4000;1.3048;1.2487;
305.7000;1.3016;1.2487;
306.0000;1.3040;1.2535;
306.3000;1.3024;1.2463;
306.6000;1.3024;1.2440;
306.9000;1.3065;1.2606;
307.2000;1.3024;1.2582;
307.5000;1.3024;1.2582;
307.8000;1.3040;1.2582;
308.1000;1.3016;1.2558;
308.4000;1.3008;1.2653;
308.7000;1.3032;1.2700;
309.0000;1.3008;1.2558;
309.3000;1.3040;1.2606;
309.6000;1.3016;1.2582;
309.9000;1.3032;1.2582;
310.2000;1.3065;1.2653;
310.5000;1.3024;1.2558;
310.8000;1.3008;1.2463;
311.1000;1.3008;1.2463;
311.4000;1.3040;1.2511;
311.7000;1.3024;1.2369;
312.0000;1.3016;1.2369;
312.3000;1.3032;1.2487;
312.6000;1.3057;1.2487;
312.9000;1.2991;1.2345;
313.2000;1.3016;1.2392;
313.5000;1.3040;1.2535;
313.8000;1.3016;1.2440;
314.1000;1.3008;1.2416;
314.4000;1.2991;1.2345;
314.7000;1.3000;1.2392;
315.0000;1.3040;1.2463;
315.3000;1.3008;1.2463;
315.6000;1.3024;1.2416;
315.9000;1.3040;1.2416;
316.2000;1.3032;1.2345;
316.5000;1.2959;1.2250;
316.8000;1.2967;1.2392;
317.1000;1.3008;1.2582;
317.4000;1.3040;1.2724;
317.7000;1.3016;1.2724;
318.0000;1.3024;1.2700;
318.3000;1.3024;1.2700;
318.6000;1.3024;1.2629;
318.9000;1.3040;1.2606;
319.2000;1.3024;1.2606;
319.5000;1.3016;1.2511;
319.8000;1.3000;1.2416;
320.1000;1.3024;1.2511;
320.4000;1.3016;1.2535;
320.7000;1.3032;1.2558;
321.0000;1.3008;1.2535;
321.3000;1.3032;1.2606;
321.6000;1.2983;1.2535;
321.9000;1.3008;1.2606;
322.2000;1.3016;1.2700;
322.5000;1.3040;1.2724;
322.8000;1.3040;1.2724;
323.1000;1.3040;1.2653;
323.4000;1.3016;1.2606;
323.7000;1.3008;1.2677;
324.0000;1.3008;1.2724;
324.3000;1.3000;1.2653;
324.6000;1.3040;1.2771;
324.9000;1.3024;1.2748;
325.2000;1.3008;1.2677;
325.5000;1.3000;1.2700;
325.8000;1.3032;1.2795;
326.1000;1.3008;1.2653;
326.4000;1.3000;1.2629;
326.7000;1.3032;1.2653;
327.0000;1.3024;1.2582;
327.3000;1.3048;1.2535;
327.6000;1.2983;1.2369;
327.9000;1.3024;1.2416;
328.2000;1.3024;1.2463;
328.5000;1.3024;1.2416;
328.8000;1.3016;1.2392;
329.1000;1.3008;1.2440;
329.4000;1.3000;1.2463;
329.7000;1.3008;1.2487;
330.0000;1.3024;1.2558;
330.3000;1.3000;1.2558;
330.6000;1.2967;1.2582;
330.9000;1.3016;1.2653;
331.2000;1.3097;1.2748;
331.5000;1.3016;1.2463;
331.8000;1.3024;1.2487;
332.1000;1.3032;1.2511;
332.4000;1.3032;1.2558;
332.7000;1.3048;1.2653;
333.0000;1.3032;1.2606;
333.3000;1.3024;1.2582;
333.6000;1.3040;1.2629;
333.9000;1.3024;1.2558;
334.2000;1.3040;1.2558;
334.5000;1.3032;1.2463;
334.8000;1.3016;1.2345;
335.1000;1.3008;1.2345;
335.4000;1.3016;1.2392;
335.7000;1.2967;1.2321;
336.0000;1.3008;1.2487;
336.3000;1.3000;1.2511;
336.6000;1.3024;1.2606;
336.9000;1.3008;1.2606;
337.2000;1.3008;1.2558;
337.5000;1.3024;1.2653;
337.8000;1.3008;1.2558;
338.1000;1.3008;1.2558;
338.4000;1.3008;1.2653;
338.7000;1.3000;1.2582;
339.0000;1.3008;1.2629;
339.3000;1.2991;1.2511;
339.6000;1.3048;1.2606;
339.9000;1.3024;1.2558;
340.2000;1.3048;1.2653;
340.5000;1.3008;1.2582;
340.8000;1.2991;1.2558;
341.1000;1.3024;1.2582;
341.4000;1.3057;1.2771;
341.7000;1.3008;1.2700;
342.0000;1.3008;1.2700;
342.3000;1.2975;1.2582;
342.6000;1.3032;1.2677;
342.9000;1.3008;1.2629;
343.2000;1.2983;1.2463;
343.5000;1.3040;1.2629;
343.8000;1.3081;1.2700;
344.1000;1.3032;1.2511;
344.4000;1.3000;1.2440;
344.7000;1.3032;1.2535;
345.0000;1.3048;1.2582;
345.3000;1.3024;1.2582;
345.6000;1.3000;1.2535;
345.9000;1.2991;1.2582;
346.2000;1.3032;1.2629;
346.5000;1.3008;1.2511;
346.8000;1.3016;1.2440;
347.1000;1.3032;1.2392;
347.4000;1.3024;1.2463;
347.7000;1.3008;1.2487;
348.0000;1.3016;1.2487;
348.3000;1.3040;1.2511;
348.6000;1.2943;1.2227;
348.9000;1.3032;1.2440;
349.2000;1.3016;1.2345;
349.5000;1.3016;1.2416;
349.8000;1.3040;1.2582;
350.1000;1.3000;1.2629;
350.4000;1.3000;1.2700;
350.7000;1.3024;1.2724;
351.0000;1.3016;1.2771;
351.3000;1.3016;1.2771;
351.6000;1.3000;1.2724;
351.9000;1.3016;1.2748;
352.2000;1.3016;1.2653;
352.5000;1.3016;1.2653;
352.8000;1.3016;1.2582;
353.1000;1.3024;1.2582;
353.4000;1.3016;1.2558;
353.7000;1.3016;1.2487;
354.0000;1.3016;1.2487;
354.3000;1.3008;1.2463;
354.6000;1.3016;1.2535;
354.9000;1.3008;1.2629;
355.2000;1.3024;1.2771;
355.5000;1.3016;1.2819;
355.8000;1.3032;1.2677;
356.1000;1.3008;1.2582;
356.4000;1.2934;1.2416;
356.7000;1.3016;1.2582;
357.0000;1.3008;1.2558;
357.3000;1.3016;1.2606;
357.6000;1.3000;1.2487;
357.9000;1.3073;1.2606;
358.2000;1.3024;1.2487;
358.5000;1.3040;1.2463;
358.8000;1.3008;1.2392;
359.1000;1.3016;1.2416;
359.4000;1.3000;1.2369;
359.7000;1.3000;1.2345;
360.0000;1.3024;1.2440;
360.3000;1.3008;1.2463;
360.6000;1.3024;1.2463;
360.9000;1.3089;1.2558;
361.2000;1.3000;1.2345;
361.5000;1.3024;1.2274;
361.8000;1.3008;1.2392;
362.1000;1.3008;1.2511;
362.4000;1.3016;1.2558;
362.7000;1.3024;1.2606;
363.0000;1.3008;1.2677;
363.3000;1.3016;1.2724;
363.6000;1.3024;1.2771;
363.9000;1.3008;1.2677;
364.2000;1.3024;1.2677;
364.5000;1.3008;1.2629;
364.8000;1.3024;1.2629;
365.1000;1.3008;1.2558;
365.4000;1.3040;1.2535;
365.7000;1.3032;1.2511;
366.0000;1.3032;1.2582;
366.3000;1.3040;1.2677;
366.6000;1.3048;1.2700;
366.9000;1.3016;1.2558;
367.2000;1.3008;1.2582;
367.5000;1.3024;1.2606;
367.8000;1.3016;1.2700;
368.1000;1.3016;1.2677;
368.4000;1.3048;1.2700;
368.7000;1.3024;1.2748;
369.0000;1.3008;1.2795;
369.3000;1.3024;1.2843;
369.6000;1.3000;1.2748;
369.9000;1.3024;1.2748;
370.2000;1.3024;1.2771;
370.5000;1.3000;1.2700;
370.8000;1.3000;1.2606;
371.1000;1.2991;1.2558;
371.4000;1.2991;1.2606;
371.7000;1.3000;1.2653;
372.0000;1.3000;1.2535;
372.3000;1.3065;1.2653;
372.6000;1.3008;1.2582;
372.9000;1.3024;1.2629;
373.2000;1.3105;1.2819;
373.5000;1.3024;1.2653;
373.8000;1.3016;1.2558;
374.1000;1.3032;1.2700;
374.4000;1.3000;1.2677;
374.7000;1.2983;1.2629;
375.0000;1.3016;1.2700;
375.3000;1.3048;1.2795;
375.6000;1.3105;1.2890;
375.9000;1.3024;1.2606;
376.2000;1.3008;1.2535;
376.5000;1.3024;1.2558;
376.8000;1.3008;1.2511;
377.1000;1.3000;1.2416;
377.4000;1.3000;1.2487;
377.7000;1.3008;1.2535;
378.0000;1.3016;1.2511;
378.3000;1.3008;1.2558;
378.6000;1.3032;1.2748;
378.9000;1.3065;1.2771;
379.2000;1.3024;1.2582;
379.5000;1.3040;1.2582;
379.8000;1.3081;1.2629;
380.1000;1.3032;1.2629;
380.4000;1.3016;1.2700;
380.7000;1.3016;1.2582;
381.0000;1.3008;1.2535;
381.3000;1.3024;1.2582;
381.6000;1.2991;1.2511;
381.9000;1.2943;1.2392;
382.2000;1.2983;1.2487;
382.5000;1.3016;1.2582;
382.8000;1.2967;1.2463;
383.1000;1.3040;1.2606;
383.4000;1.3024;1.2558;
383.7000;1.3032;1.2629;
384.0000;1.3016;1.2653;
384.3000;1.3024;1.2653;
384.6000;1.3024;1.2606;
384.9000;1.3016;1.2487;
385.2000;1.3000;1.2416;
385.5000;1.3024;1.2392;
385.8000;1.3000;1.2345;
386.1000;1.3024;1.2369;
386.4000;1.3048;1.2606;
386.7000;1.3016;1.2606;
387.0000;1.3024;1.2629;
387.3000;1.3040;1.2748;
387.6000;1.3000;1.2771;
387.9000;1.3048;1.2890;
388.2000;1.3024;1.2771;
388.5000;1.3057;1.2819;
388.8000;1.3032;1.2748;
389.1000;1.3024;1.2724;
389.4000;1.3000;1.2724;
389.7000;1.3000;1.2653;
390.0000;1.2910;1.2392;
390.3000;1.3016;1.2629;
390.6000;1.3016;1.2700;
390.9000;1.2975;1.2582;
391.2000;1.2975;1.2629;
391.5000;1.3016;1.2724;
391.8000;1.3114;1.2985;
392.1000;1.3000;1.2535;
392.4000;1.3016;1.2558;
392.7000;1.3024;1.2558;
393.0000;1.3048;1.2558;
393.3000;1.3016;1.2392;
393.6000;1.3000;1.2369;
393.9000;1.3016;1.2416;
394.2000;1.3048;1.2535;
394.5000;1.3040;1.2653;
394.8000;1.3024;1.2677;
395.1000;1.2991;1.2629;
395.4000;1.3024;1.2748;
395.7000;1.3032;1.2748;
396.0000;1.3008;1.2677;
396.3000;1.3024;1.2653;
396.6000;1.2934;1.2463;
396.9000;1.3016;1.2653;
397.2000;1.3008;1.2606;
397.5000;1.3016;1.2511;
397.8000;1.3024;1.2535;
398.1000;1.3057;1.2606;
398.4000;1.3024;1.2558;
398.7000;1.3016;1.2653;
399.0000;1.3024;1.2653;
399.3000;1.3008;1.2700;
399.6000;1.3016;1.2629;
399.9000;1.3032;1.2582;
400.2000;1.3008;1.2606;
400.5000;1.2991;1.2653;
400.8000;1.3016;1.2677;
401.1000;1.3024;1.2700;
401.4000;1.3008;1.2771;
401.7000;1.3016;1.2819;
402.0000;1.3024;1.2748;
402.3000;1.2967;1.2629;
402.6000;1.3016;1.2724;
402.9000;1.2991;1.2677;
403.2000;1.3000;1.2677;
403.5000;1.3016;1.2653;
403.8000;1.3008;1.2582;
404.1000;1.3008;1.2629;
404.4000;1.3008;1.2700;
404.7000;1.3000;1.2653;
405.0000;1.3008;1.2653;
405.3000;1.3008;1.2629;
405.6000;1.3024;1.2771;
405.9000;1.3008;1.2771;
406.2000;1.3008;1.2795;
406.5000;1.3000;1.2771;
406.8000;1.3032;1.2866;
407.1000;1.3032;1.2866;
407.4000;1.3016;1.2771;
407.7000;1.3000;1.2748;
408.0000;1.2991;1.2700;
408.3000;1.3008;1.2700;
408.6000;1.3024;1.2724;
408.9000;1.3032;1.2771;
409.2000;1.3008;1.2724;
409.5000;1.3032;1.2795;
409.8000;1.3008;1.2582;
410.1000;1.2967;1.2392;
410.4000;1.3081;1.2748;
410.7000;1.2991;1.2582;
411.0000;1.3048;1.2700;
411.3000;1.3032;1.2700;
411.6000;1.3057;1.2748;
411.9000;1.3008;1.2582;
412.2000;1.3024;1.2582;
412.5000;1.3024;1.2677;
412.8000;1.3024;1.2653;
413.1000;1.3097;1.2866;
413.4000;1.3032;1.2724;
413.7000;1.3016;1.2629;
414.0000;1.3000;1.2677;
414.3000;1.3040;1.2771;
414.6000;1.3040;1.2843;
414.9000;1.3008;1.2795;
415.2000;1.3008;1.2748;
415.5000;1.3081;1.2890;
415.8000;1.2967;1.2629;
416.1000;1.3032;1.2700;
416.4000;1.3016;1.2629;
416.7000;1.3008;1.2653;
417.0000;1.2975;1.2724;
417.3000;1.3016;1.2819;
417.6000;1.2991;1.2771;
417.9000;1.2983;1.2795;
418.2000;1.3016;1.2866;
418.5000;1.2975;1.2724;
418.8000;1.3008;1.2748;
419.1000;1.3000;1.2582;
419.4000;1.2934;1.2250;
419.7000;1.3008;1.2369;
420.0000;1.2959;1.2321;
420.3000;1.3024;1.2535;
420.6000;1.3000;1.2535;
420.9000;1.3016;1.2606;
421.2000;1.3016;1.2558;
421.5000;1.3000;1.2487;
421.8000;1.3008;1.2511;
422.1000;1.3016;1.2511;
422.4000;1.3024;1.2535;
422.7000;1.3016;1.2558;
423.0000;1.3016;1.2653;
423.3000;1.3016;1.2653;
423.6000;1.3024;1.2653;
423.9000;1.2991;1.2558;
424.2000;1.2991;1.2558;
424.5000;1.3008;1.2629;
424.8000;1.2991;1.2629;
425.1000;1.2983;1.2582;
425.4000;1.3000;1.2724;
425.7000;1.3008;1.2700;
426.0000;1.3000;1.2724;
426.3000;1.3016;1.2795;
426.6000;1.3016;1.2771;
426.9000;1.3000;1.2748;
427.2000;1.3008;1.2748;
427.5000;1.3016;1.2748;
427.8000;1.3016;1.2819;
428.1000;1.3000;1.2748;
428.4000;1.2991;1.2724;
428.7000;1.2983;1.2771;
429.0000;1.3008;1.2795;
429.3000;1.2983;1.2748;
429.6000;1.3000;1.2819;
429.9000;1.2991;1.2653;
430.2000;1.3016;1.2748;
430.5000;1.3008;1.2771;
430.8000;1.3008;1.2771;
431.1000;1.3008;1.2748;
431.4000;1.3016;1.2771;
431.7000;1.3024;1.2795;
432.0000;1.3016;1.2843;
432.3000;1.3000;1.2843;
432.6000;1.3000;1.2890;
432.9000;1.3008;1.2937;
433.2000;1.3024;1.2914;
433.5000;1.3057;1.2985;
433.8000;1.3016;1.3008;
434.1000;1.3016;1.2961;
434.4000;1.2934;1.2724;
434.7000;1.3024;1.2985;
435.0000;1.3024;1.2961;
435.3000;1.3000;1.2866;
435.6000;1.3000;1.2819;
435.9000;1.3016;1.2866;
436.2000;1.3073;1.3056;
436.5000;1.2943;1.2677;
436.8000;1.3016;1.2771;
437.1000;1.3032;1.2795;
437.4000;1.3032;1.2771;
437.7000;1.2991;1.2677;
438.0000;1.3016;1.2771;
438.3000;1.3008;1.2795;
438.6000;1.3008;1.2795;
438.9000;1.3008;1.2843;
439.2000;1.3024;1.2843;
439.5000;1.2991;1.2771;
439.8000;1.3000;1.2771;
440.1000;1.3008;1.2819;
440.4000;1.3105;1.3032;
440.7000;1.2991;1.2819;
441.0000;1.2991;1.2937;
441.3000;1.3016;1.2985;
441.6000;1.3016;1.3008;
441.9000;1.3048;1.3056;
442.2000;1.3000;1.3008;
442.5000;1.3008;1.2937;
442.8000;1.3008;1.2890;
443.1000;1.3016;1.2866;
443.4000;1.2991;1.2843;
443.7000;1.3000;1.2795;
444.0000;1.3000;1.2795;
444.3000;1.3024;1.2937;
444.6000;1.3024;1.2961;
444.9000;1.3016;1.2985;
445.2000;1.3016;1.2961;
445.5000;1.3016;1.2937;
445.8000;1.3024;1.2961;
446.1000;1.3000;1.3008;
446.4000;1.3024;1.3056;
446.7000;1.3016;1.2914;
447.0000;1.3000;1.2914;
447.3000;1.3008;1.2866;
447.6000;1.3000;1.2890;
447.9000;1.3016;1.2819;
448.2000;1.3008;1.2724;
448.5000;1.3008;1.2724;
448.8000;1.3024;1.2700;
449.1000;1.3008;1.2771;
449.4000;1.3065;1.2866;
449.7000;1.3008;1.2724;
450.0000;1.3000;1.2677;
450.3000;1.3073;1.2866;
450.6000;1.2991;1.2819;
450.9000;1.3008;1.2819;
451.2000;1.2983;1.2700;
451.5000;1.3016;1.2771;
451.8000;1.3008;1.2748;
452.1000;1.3008;1.2771;
452.4000;1.3008;1.2771;
452.7000;1.2959;1.2629;
453.0000;1.2991;1.2748;
453.3000;1.3016;1.2819;
453.6000;1.3000;1.2819;
453.9000;1.3008;1.2843;
454.2000;1.3040;1.2914;
454.5000;1.3016;1.2819;
454.8000;1.2991;1.2771;
455.1000;1.2983;1.2771;
455.4000;1.3008;1.2795;
455.7000;1.3032;1.2819;
456.0000;1.3000;1.2724;
456.3000;1.3089;1.2914;
456.6000;1.3016;1.2819;
456.9000;1.3016;1.2866;
457.2000;1.3016;1.2890;
457.5000;1.3105;1.3127;
457.8000;1.3016;1.2890;
458.1000;1.3016;1.2914;
458.4000;1.3016;1.2866;
458.7000;1.3024;1.2866;
459.0000;1.3008;1.2795;
459.3000;1.3040;1.2937;
459.6000;1.3057;1.2961;
459.9000;1.2983;1.2724;
460.2000;1.2983;1.2724;
460.5000;1.3048;1.2890;
460.8000;1.3024;1.2819;
461.1000;1.3008;1.2795;
461.4000;1.3024;1.2795;
461.7000;1.2959;1.2629;
462.0000;1.3016;1.2795;
462.3000;1.3008;1.2843;
462.6000;1.3008;1.2748;
462.9000;1.3000;1.2748;
463.2000;1.3008;1.2771;
463.5000;1.2967;1.2653;
463.8000;1.3008;1.2677;
464.1000;1.2991;1.2677;
464.4000;1.3008;1.2795;
464.7000;1.3008;1.2700;
465.0000;1.2983;1.2606;
465.3000;1.2983;1.2606;
465.6000;1.3000;1.2724;
465.9000;1.3000;1.2795;
466.2000;1.2991;1.2795;
466.5000;1.2991;1.2819;
466.8000;1.3000;1.2985;
467.1000;1.3008;1.3056;
467.4000;1.2926;1.2914;
467.7000;1.3016;1.3032;
468.0000;1.3000;1.2914;
468.3000;1.3024;1.2961;
468.6000;1.3000;1.2937;
468.9000;1.2991;1.2890;
469.2000;1.3008;1.2843;
469.5000;1.2991;1.2724;
469.8000;1.3016;1.2819;
470.1000;1.2991;1.2748;
470.4000;1.2983;1.2724;
470.7000;1.3016;1.2937;
471.0000;1.3024;1.3080;
471.3000;1.3000;1.3032;
471.6000;1.2975;1.2914;
471.9000;1.2991;1.3008;
472.2000;1.3048;1.3174;
472.5000;1.3016;1.3032;
472.8000;1.3016;1.3008;
473.1000;1.2991;1.2866;
473.4000;1.2934;1.2724;
473.7000;1.2967;1.2748;
474.0000;1.2991;1.2890;
474.3000;1.2991;1.2748;
474.6000;1.2975;1.2700;
474.9000;1.2910;1.2606;
475.2000;1.2991;1.2677;
475.5000;1.2975;1.2677;
475.8000;1.2983;1.2700;
476.1000;1.3008;1.2748;
476.4000;1.2983;1.2819;
476.7000;1.2967;1.2819;
477.0000;1.2991;1.2961;
477.3000;1.2991;1.3008;
477.6000;1.3016;1.3056;
477.9000;1.3016;1.2985;
478.2000;1.3008;1.2843;
478.5000;1.3024;1.2843;
478.8000;1.3122;1.3151;
479.1000;1.3000;1.2866;
479.4000;1.3008;1.2914;
479.7000;1.3008;1.2937;
480.0000;1.3024;1.2961;
480.3000;1.3008;1.2914;
480.6000;1.3000;1.2819;
480.9000;1.2991;1.2819;
481.2000;1.3000;1.2843;
481.5000;1.2975;1.2748;
481.8000;1.3008;1.2843;
482.1000;1.3008;1.2890;
482.4000;1.3024;1.2961;
482.7000;1.3016;1.2866;
483.0000;1.3008;1.2866;
483.3000;1.3008;1.2819;
483.6000;1.3032;1.2866;
483.9000;1.3000;1.2795;
484.2000;1.2983;1.2843;
484.5000;1.2967;1.2843;
484.8000;1.2983;1.2890;
485.1000;1.3000;1.2819;
485.4000;1.3008;1.2795;
485.7000;1.2983;1.2795;
486.0000;1.3000;1.2819;
486.3000;1.3000;1.2724;
486.6000;1.2983;1.2724;
486.9000;1.3008;1.2819;
487.2000;1.2983;1.2795;
487.5000;1.3008;1.2890;
487.8000;1.3008;1.2890;
488.1000;1.3000;1.2914;
488.4000;1.3008;1.2890;
488.7000;1.3008;1.2819;
489.0000;1.3000;1.2890;
489.3000;1.2991;1.2843;
489.6000;1.2943;1.2677;
489.9000;1.3000;1.2795;
490.2000;1.3008;1.2819;
490.5000;1.2959;1.2724;
490.8000;1.2991;1.2771;
491.1000;1.3000;1.2819;
491.4000;1.2991;1.2866;
491.7000;1.3008;1.2914;
492.0000;1.2943;1.2748;
492.3000;1.2991;1.2819;
492.6000;1.3000;1.2843;
492.9000;1.3016;1.2985;
493.2000;1.2975;1.2914;
493.5000;1.3008;1.3008;
493.8000;1.3016;1.2985;
494.1000;1.3000;1.2890;
494.4000;1.2983;1.2890;
494.7000;1.3008;1.2890;
495.0000;1.3000;1.2866;
495.3000;1.3016;1.2866;
495.6000;1.3016;1.2866;
495.9000;1.3000;1.2843;
496.2000;1.2975;1.2795;
496.5000;1.3000;1.2890;
496.8000;1.3000;1.2795;
497.1000;1.2983;1.2653;
497.4000;1.2934;1.2606;
497.7000;1.2991;1.2653;
498.0000;1.2991;1.2724;
498.3000;1.2951;1.2700;
498.6000;1.2991;1.2771;
498.9000;1.3000;1.2795;
499.2000;1.3016;1.2866;
499.5000;1.2983;1.2795;
499.8000;1.2983;1.2700;
500.1000;1.2991;1.2653;
500.4000;1.3000;1.2677;
500.7000;1.2983;1.2653;
501.0000;1.2991;1.2819;
501.3000;1.2991;1.2890;
501.6000;1.2983;1.2866;
501.9000;1.2975;1.2866;
502.2000;1.3000;1.2890;
502.5000;1.2975;1.2771;
502.8000;1.3000;1.2771;
503.1000;1.3065;1.2866;
503.4000;1.2983;1.2653;
503.7000;1.2991;1.2677;
504.0000;1.3000;1.2724;
504.3000;1.3000;1.2795;
504.6000;1.3008;1.2771;
504.9000;1.3000;1.2724;
505.2000;1.2991;1.2677;
505.5000;1.2967;1.2535;
505.8000;1.3000;1.2700;
506.1000;1.2983;1.2724;
506.4000;1.2959;1.2606;
506.7000;1.3008;1.2677;
507.0000;1.2991;1.2677;
507.3000;1.3008;1.2677;
507.6000;1.3000;1.2677;
507.9000;1.3000;1.2724;
508.2000;1.3000;1.2724;
508.5000;1.3000;1.2748;
508.8000;1.3000;1.2819;
509.1000;1.3008;1.2748;
509.4000;1.2991;1.2724;
509.7000;1.3008;1.2795;
510.0000;1.2975;1.2795;
510.3000;1.3008;1.2819;
510.6000;1.2991;1.2795;
510.9000;1.2991;1.2795;
511.2000;1.2991;1.2819;
511.5000;1.2967;1.2819;
511.8000;1.3032;1.2914;
512.1000;1.2951;1.2866;
512.4000;1.3032;1.3008;
512.7000;1.3008;1.2961;
513.0000;1.3016;1.2961;
513.3000;1.3008;1.2819;
513.6000;1.3016;1.2748;
513.9000;1.3000;1.2677;
514.2000;1.3057;1.2819;
514.5000;1.3089;1.2866;
514.8000;1.3008;1.2653;
515.1000;1.3008;1.2582;
515.4000;1.3000;1.2487;
515.7000;1.3000;1.2487;
516.0000;1.3024;1.2653;
516.3000;1.3016;1.2629;
516.6000;1.2991;1.2582;
516.9000;1.2983;1.2629;
517.2000;1.3000;1.2677;
517.5000;1.2975;1.2606;
517.8000;1.3000;1.2629;
518.1000;1.3000;1.2629;
518.4000;1.3000;1.2582;
518.7000;1.3000;1.2511;
519.0000;1.3008;1.2606;
519.3000;1.3008;1.2700;
519.6000;1.3016;1.2677;
519.9000;1.3000;1.2677;
520.2000;1.2943;1.2653;
520.5000;1.2991;1.2795;
520.8000;1.2991;1.2771;
521.1000;1.2991;1.2677;
521.4000;1.2983;1.2677;
521.7000;1.3000;1.2677;
522.0000;1.3008;1.2653;
522.3000;1.2991;1.2748;
522.6000;1.2983;1.2819;
522.9000;1.2983;1.2771;
523.2000;1.3000;1.2819;
523.5000;1.3000;1.2890;
523.8000;1.3000;1.2795;
524.1000;1.3000;1.2914;
524.4000;1.2991;1.2961;
524.7000;1.3000;1.2985;
525.0000;1.2991;1.2843;
525.3000;1.2983;1.2795;
525.6000;1.2991;1.2843;
525.9000;1.2991;1.2890;
526.2000;1.3008;1.2795;
526.5000;1.2943;1.2724;
526.8000;1.3016;1.2890;
527.1000;1.2886;1.2440;
527.4000;1.3000;1.2724;
527.7000;1.2983;1.2582;
528.0000;1.2967;1.2511;
528.3000;1.3008;1.2700;
528.6000;1.3000;1.2700;
528.9000;1.2991;1.2724;
529.2000;1.2991;1.2677;
529.5000;1.3073;1.2819;
529.8000;1.3016;1.2677;
530.1000;1.3024;1.2677;
530.4000;1.2991;1.2511;
530.7000;1.2991;1.2463;
531.0000;1.2991;1.2440;
531.3000;1.3024;1.2463;
531.6000;1.2991;1.2463;
531.9000;1.3008;1.2558;
532.2000;1.3016;1.2558;
532.5000;1.3008;1.2606;
532.8000;1.2991;1.2535;
533.1000;1.2991;1.2677;
533.4000;1.3000;1.2748;
533.7000;1.3000;1.2748;
534.0000;1.2943;1.2582;
534.3000;1.2983;1.2700;
534.6000;1.2975;1.2700;
534.9000;1.3024;1.2724;
535.2000;1.3008;1.2748;
535.5000;1.3016;1.2819;
535.8000;1.2991;1.2819;
536.1000;1.3008;1.2866;
536.4000;1.2975;1.2795;
536.7000;1.2991;1.2819;
537.0000;1.3032;1.2843;
537.3000;1.3000;1.2795;
537.6000;1.3008;1.2724;
537.9000;1.2943;1.2677;
538.2000;1.2991;1.2819;
538.5000;1.2991;1.2771;
538.8000;1.3000;1.2843;
539.1000;1.2991;1.2914;
539.4000;1.3097;1.3103;
539.7000;1.3000;1.2866;
540.0000;1.3000;1.2914;
540.3000;1.3008;1.2819;
540.6000;1.2983;1.2748;
540.9000;1.3008;1.2748;
541.2000;1.3000;1.2700;
541.5000;1.3000;1.2653;
541.8000;1.2991;1.2558;
542.1000;1.2983;1.2582;
542.4000;1.2983;1.2606;
542.7000;1.2991;1.2606;
543.0000;1.2991;1.2629;
543.3000;1.2991;1.2629;
543.6000;1.2991;1.2724;
543.9000;1.2934;1.2558;
544.2000;1.2951;1.2629;
544.5000;1.2991;1.2724;
544.8000;1.2943;1.2535;
545.1000;1.2967;1.2629;
545.4000;1.2967;1.2748;
545.7000;1.2983;1.2843;
546.0000;1.2983;1.2937;
546.3000;1.2902;1.2748;
546.6000;1.2967;1.2914;
546.9000;1.2991;1.2985;
547.2000;1.2983;1.2961;
547.5000;1.2967;1.2937;
547.8000;1.2983;1.2866;
548.1000;1.2983;1.2795;
548.4000;1.2967;1.2653;
548.7000;1.2975;1.2629;
549.0000;1.2991;1.2653;
549.3000;1.2975;1.2771;
549.6000;1.2983;1.2819;
549.9000;1.2991;1.2819;
550.2000;1.2975;1.2819;
550.5000;1.2967;1.2748;
550.8000;1.3000;1.2795;
551.1000;1.2983;1.2771;
551.4000;1.2991;1.2748;
551.7000;1.3016;1.2795;
552.0000;1.2991;1.2771;
552.3000;1.2991;1.2890;
552.6000;1.2934;1.2700;
552.9000;1.3008;1.2843;
553.2000;1.2983;1.2843;
553.5000;1.3048;1.3008;
553.8000;1.2975;1.2819;
554.1000;1.3000;1.2819;
554.4000;1.2991;1.2771;
554.7000;1.2910;1.2535;
555.0000;1.2983;1.2677;
555.3000;1.3008;1.2795;
555.6000;1.2951;1.2700;
555.9000;1.2975;1.2724;
556.2000;1.2983;1.2677;
556.5000;1.3008;1.2700;
556.8000;1.2991;1.2629;
557.1000;1.2983;1.2606;
557.4000;1.2975;1.2653;
557.7000;1.2983;1.2606;
558.0000;1.2983;1.2653;
558.3000;1.2983;1.2606;
558.6000;1.2943;1.2487;
558.9000;1.3065;1.2748;
559.2000;1.2983;1.2511;
559.5000;1.2926;1.2463;
559.8000;1.2983;1.2606;
560.1000;1.3000;1.2653;
560.4000;1.3024;1.2653;
560.7000;1.2983;1.2653;
561.0000;1.2967;1.2700;
561.3000;1.2983;1.2795;
561.6000;1.2991;1.2771;
561.9000;1.3000;1.2795;
562.2000;1.2983;1.2700;
562.5000;1.2967;1.2724;
562.8000;1.2975;1.2819;
563.1000;1.3000;1.2819;
563.4000;1.2959;1.2771;
563.7000;1.2983;1.2795;
564.0000;1.3008;1.2771;
564.3000;1.2991;1.2700;
564.6000;1.3024;1.2653;
564.9000;1.3000;1.2582;
565.2000;1.2926;1.2511;
565.5000;1.2983;1.2677;
565.8000;1.3008;1.2771;
566.1000;1.3008;1.2748;
566.4000;1.3008;1.2748;
566.7000;1.3008;1.2795;
567.0000;1.3000;1.2795;
567.3000;1.2991;1.2724;
567.6000;1.3008;1.2771;
567.9000;1.3000;1.2700;
568.2000;1.3057;1.2748;
568.5000;1.2983;1.2677;
568.8000;1.2991;1.2677;
569.1000;1.2991;1.2653;
569.4000;1.3000;1.2724;
569.7000;1.2975;1.2771;
570.0000;1.2983;1.2748;
570.3000;1.2991;1.2700;
570.6000;1.3000;1.2771;
570.9000;1.3032;1.2866;
571.2000;1.2983;1.2748;
571.5000;1.2975;1.2677;
571.8000;1.2975;1.2700;
572.1000;1.3008;1.2795;
572.4000;1.2991;1.2795;
572.7000;1.2975;1.2724;
573.0000;1.2983;1.2748;
573.3000;1.3032;1.2843;
573.6000;1.3008;1.2677;
573.9000;1.2983;1.2653;
574.2000;1.2991;1.2629;
574.5000;1.3000;1.2582;
574.8000;1.3000;1.2653;
575.1000;1.2943;1.2511;
575.4000;1.3008;1.2724;
575.7000;1.2991;1.2748;
576.0000;1.2967;1.2582;
576.3000;1.3000;1.2700;
576.6000;1.2975;1.2629;
576.9000;1.2991;1.2653;
577.2000;1.3000;1.2653;
577.5000;1.2991;1.2724;
577.8000;1.3008;1.2748;
578.1000;1.2991;1.2819;
578.4000;1.2983;1.2843;
578.7000;1.3000;1.2843;
579.0000;1.2991;1.2866;
579.3000;1.2975;1.2771;
579.6000;1.3057;1.2937;
579.9000;1.2967;1.2819;
580.2000;1.2991;1.2819;
580.5000;1.2983;1.2677;
580.8000;1.2991;1.2771;
581.1000;1.2975;1.2724;
581.4000;1.2951;1.2629;
581.7000;1.2983;1.2677;
582.0000;1.2983;1.2558;
582.3000;1.2991;1.2677;
582.6000;1.2975;1.2629;
582.9000;1.2967;1.2629;
583.2000;1.3000;1.2629;
583.5000;1.2975;1.2416;
583.8000;1.2975;1.2558;
584.1000;1.2959;1.2582;
584.4000;1.3048;1.2724;
584.7000;1.2983;1.2558;
585.0000;1.2975;1.2558;
585.3000;1.3008;1.2653;
585.6000;1.2975;1.2558;
585.9000;1.3000;1.2606;
586.2000;1.2983;1.2558;
586.5000;1.2983;1.2416;
586.8000;1.2975;1.2345;
587.1000;1.2991;1.2416;
587.4000;1.2983;1.2487;
587.7000;1.2975;1.2511;
588.0000;1.2975;1.2463;
588.3000;1.2983;1.2511;
588.6000;1.2983;1.2511;
588.9000;1.2967;1.2463;
589.2000;1.3016;1.2511;
589.5000;1.2967;1.2392;
589.8000;1.2959;1.2321;
590.1000;1.2983;1.2298;
590.4000;1.2975;1.2321;
590.7000;1.2975;1.2345;
591.0000;1.2967;1.2392;
591.3000;1.3000;1.2392;
591.6000;1.2983;1.2321;
591.9000;1.2983;1.2345;
592.2000;1.2983;1.2392;
592.5000;1.2991;1.2535;
592.8000;1.2983;1.2558;
593.1000;1.2991;1.2487;
593.4000;1.2983;1.2606;
593.7000;1.2983;1.2606;
594.0000;1.2967;1.2653;
594.3000;1.2967;1.2748;
594.6000;1.2967;1.2795;
594.9000;1.2967;1.2819;
595.2000;1.2983;1.2914;
595.5000;1.2967;1.2866;
595.8000;1.2975;1.2771;
596.1000;1.2983;1.2819;
596.4000;1.3016;1.2961;
596.7000;1.2967;1.2795;
597.0000;1.2975;1.2819;
597.3000;1.2918;1.2795;
597.6000;1.2983;1.2961;
597.9000;1.2983;1.2866;
598.2000;1.2975;1.2914;
598.5000;1.2991;1.2914;
598.8000;1.2991;1.2843;
599.1000;1.2983;1.2795;
599.4000;1.3000;1.2700;
599.7000;1.2983;1.2677;
600.0000;1.2967;1.2653;
600.3000;1.3048;1.2677;
600.6000;1.3008;1.2440;
600.9000;1.2991;1.2298;
601.2000;1.2943;1.2227;
601.5000;1.2877;1.2013;
601.8000;1.2804;1.1824;
602.1000;1.2707;1.1682;
602.4000;1.2650;1.1634;
602.7000;1.2544;1.1445;
603.0000;1.2470;1.1255;
603.3000;1.2389;1.1137;
603.6000;1.2283;1.0971;
603.9000;1.2259;1.1042;
604.2000;1.2120;1.0781;
604.5000;1.2055;1.0663;
604.8000;1.1958;1.0473;
605.1000;1.1909;1.0473;
605.4000;1.1884;1.0473;
605.7000;1.1787;1.0355;
606.0000;1.1722;1.0212;
606.3000;1.1673;1.0284;
606.6000;1.1608;1.0260;
606.9000;1.1559;1.0236;
607.2000;1.1494;1.0141;
607.5000;1.1445;1.0047;
607.8000;1.1404;1.0141;
608.1000;1.1323;0.9999;
608.4000;1.1306;1.0023;
608.7000;1.1233;0.9928;
609.0000;1.1184;0.9904;
609.3000;1.1136;0.9881;
609.6000;1.1087;0.9739;
609.9000;1.1046;0.9691;
610.2000;1.1005;0.9620;
610.5000;1.0948;0.9596;
610.8000;1.0916;0.9525;
611.1000;1.0834;0.9478;
611.4000;1.0842;0.9644;
611.7000;1.0810;0.9596;
612.0000;1.0745;0.9502;
612.3000;1.0704;0.9502;
612.6000;1.0663;0.9525;
612.9000;1.0639;0.9525;
613.2000;1.0566;0.9478;
613.5000;1.0549;0.9383;
613.8000;1.0492;0.9336;
614.1000;1.0444;0.9241;
614.4000;1.0427;0.9312;
614.7000;1.0387;0.9194;
615.0000;1.0354;0.9170;
615.3000;1.0273;0.9028;
615.6000;1.0281;0.9075;
615.9000;1.0232;0.8957;
616.2000;1.0216;0.8933;
616.5000;1.0183;0.9004;
616.8000;1.0142;0.9004;
617.1000;1.0118;0.9051;
617.4000;1.0053;0.9028;
617.7000;1.0053;0.9099;
618.0000;1.0037;0.9122;
618.3000;1.0020;0.9028;
618.6000;0.9955;0.9004;
618.9000;0.9923;0.8980;
619.2000;0.9931;0.9099;
619.5000;0.9858;0.9099;
619.8000;0.9841;0.9051;
620.1000;0.9801;0.9075;
620.4000;0.9735;0.9075;
620.7000;0.9760;0.9217;
621.0000;0.9711;0.9051;
621.3000;0.9695;0.8909;
621.6000;0.9678;0.9004;
621.9000;0.9662;0.8980;
622.2000;0.9621;0.8862;
622.5000;0.9581;0.8933;
622.8000;0.9556;0.8909;
623.1000;0.9597;0.9004;
623.4000;0.9516;0.8791;
623.7000;0.9491;0.8814;
624.0000;0.9442;0.8696;
624.3000;0.9499;0.8814;
624.6000;0.9426;0.8743;
624.9000;0.9418;0.8720;
625.2000;0.9361;0.8601;
625.5000;0.9271;0.8341;
625.8000;0.9304;0.8412;
626.1000;0.9288;0.8412;
626.4000;0.9255;0.8459;
626.7000;0.9255;0.8554;
627.0000;0.9231;0.8459;
627.3000;0.9239;0.8554;
627.6000;0.9190;0.8506;
627.9000;0.9174;0.8578;
628.2000;0.9149;0.8601;
628.5000;0.9125;0.8625;
628.8000;0.9076;0.8435;
629.1000;0.9125;0.8506;
629.4000;0.9076;0.8459;
629.7000;0.9060;0.8483;
630.0000;0.9044;0.8435;
630.3000;0.9003;0.8412;
630.6000;0.8970;0.8364;
630.9000;0.8954;0.8341;
631.2000;0.8954;0.8364;
631.5000;0.8873;0.8269;
631.8000;0.8913;0.8388;
632.1000;0.8921;0.8412;
632.4000;0.8897;0.8435;
632.7000;0.8873;0.8317;
633.0000;0.8848;0.8269;
633.3000;0.8856;0.8341;
633.6000;0.8824;0.8341;
633.9000;0.8864;0.8459;
634.2000;0.8775;0.8317;
634.5000;0.8759;0.8317;
634.8000;0.8775;0.8341;
635.1000;0.8734;0.8293;
635.4000;0.8718;0.8269;
635.7000;0.8694;0.8293;
636.0000;0.8694;0.8269;
636.3000;0.8685;0.8246;
636.6000;0.8669;0.8317;
636.9000;0.8628;0.8198;
637.2000;0.8571;0.8080;
637.5000;0.8612;0.8151;
637.8000;0.8645;0.8222;
638.1000;0.8596;0.8175;
638.4000;0.8523;0.7985;
638.7000;0.8604;0.8246;
639.0000;0.8563;0.8175;
639.3000;0.8547;0.8198;
639.6000;0.8547;0.8246;
639.9000;0.8482;0.8127;
640.2000;0.8490;0.8104;
640.5000;0.8474;0.8104;
640.8000;0.8563;0.8412;
641.1000;0.8457;0.8222;
641.4000;0.8433;0.8222;
641.7000;0.8425;0.8246;
642.0000;0.8425;0.8198;
642.3000;0.8400;0.8222;
642.6000;0.8392;0.8246;
642.9000;0.8376;0.8175;
643.2000;0.8335;0.8080;
643.5000;0.8360;0.8246;
643.8000;0.8360;0.8222;
644.1000;0.8327;0.8151;
644.4000;0.8327;0.8222;
644.7000;0.8319;0.8198;
645.0000;0.8311;0.8198;
645.3000;0.8311;0.8151;
645.6000;0.8270;0.8198;
645.9000;0.8287;0.8246;
646.2000;0.8278;0.8222;
646.5000;0.8197;0.8009;
646.8000;0.8254;0.8080;
647.1000;0.8238;0.8127;
647.4000;0.8246;0.8127;
647.7000;0.8246;0.8127;
648.0000;0.8221;0.8056;
648.3000;0.8205;0.7961;
648.6000;0.8107;0.7796;
648.9000;0.8181;0.7914;
649.2000;0.8156;0.7914;
649.5000;0.8197;0.7961;
649.8000;0.8148;0.7914;
650.1000;0.8173;0.8009;
650.4000;0.8124;0.7843;
650.7000;0.8140;0.7985;
651.0000;0.8083;0.7843;
651.3000;0.8107;0.7938;
651.6000;0.8083;0.7890;
651.9000;0.8083;0.7890;
652.2000;0.8067;0.7961;
652.5000;0.8075;0.7914;
652.8000;0.8059;0.7867;
653.1000;0.8059;0.7819;
653.4000;0.8034;0.7843;
653.7000;0.8026;0.7819;
654.0000;0.8002;0.7796;
654.3000;0.8010;0.7843;
654.6000;0.7912;0.7630;
654.9000;0.8002;0.7938;
655.2000;0.7985;0.7890;
655.5000;0.7985;0.7914;
655.8000;0.7969;0.8033;
656.1000;0.7953;0.8198;
656.4000;0.7945;0.8175;
656.7000;0.7953;0.8246;
657.0000;0.7937;0.8175;
657.3000;0.7920;0.8198;
657.6000;0.7937;0.8222;
657.9000;0.7920;0.8222;
658.2000;0.7904;0.8222;
658.5000;0.7904;0.8246;
658.8000;0.7904;0.8222;
659.1000;0.7896;0.8246;
659.4000;0.7871;0.8269;
659.7000;0.7920;0.8364;
660.0000;0.7806;0.7985;
660.3000;0.7896;0.8317;
660.6000;0.7855;0.8293;
660.9000;0.7823;0.8246;
661.2000;0.7831;0.8246;
661.5000;0.7814;0.8151;
661.8000;0.7823;0.8175;
662.1000;0.7774;0.8127;
662.4000;0.7814;0.8317;
662.7000;0.7798;0.8246;
663.0000;0.7798;0.8246;
663.3000;0.7798;0.8198;
663.6000;0.7774;0.8175;
663.9000;0.7774;0.8198;
664.2000;0.7766;0.8246;
664.5000;0.7733;0.8175;
664.8000;0.7757;0.8222;
665.1000;0.7749;0.8127;
665.4000;0.7749;0.8151;
665.7000;0.7725;0.8104;
666.0000;0.7733;0.8222;
666.3000;0.7749;0.8246;
666.6000;0.7725;0.8175;
666.9000;0.7725;0.8151;
667.2000;0.7725;0.8127;
667.5000;0.7700;0.8056;
667.8000;0.7700;0.8056;
668.1000;0.7709;0.8104;
668.4000;0.7692;0.8080;
668.7000;0.7660;0.8056;
669.0000;0.7676;0.8080;
669.3000;0.7668;0.8080;
669.6000;0.7684;0.8009;
669.9000;0.7676;0.7985;
670.2000;0.7660;0.8033;
670.5000;0.7668;0.8033;
670.8000;0.7668;0.8056;
671.1000;0.7635;0.7938;
671.4000;0.7668;0.8080;
671.7000;0.7611;0.7938;
672.0000;0.7643;0.8033;
672.3000;0.7603;0.7914;
672.6000;0.7611;0.7890;
672.9000;0.7595;0.7890;
673.2000;0.7595;0.7938;
673.5000;0.7578;0.7961;
673.8000;0.7578;0.7961;
674.1000;0.7586;0.7961;
674.4000;0.7611;0.7985;
674.7000;0.7611;0.7938;
675.0000;0.7570;0.7890;
675.3000;0.7586;0.7890;
675.6000;0.7554;0.7772;
675.9000;0.7570;0.7772;
676.2000;0.7562;0.7819;
676.5000;0.7505;0.7725;
676.8000;0.7554;0.7890;
677.1000;0.7627;0.8080;
677.4000;0.7530;0.7867;
677.7000;0.7546;0.7914;
678.0000;0.7546;0.7961;
678.3000;0.7538;0.7985;
678.6000;0.7473;0.7867;
678.9000;0.7505;0.8009;
679.2000;0.7562;0.8246;
679.5000;0.7481;0.8056;
679.8000;0.7513;0.8104;
680.1000;0.7521;0.8151;
680.4000;0.7481;0.8033;
680.7000;0.7481;0.7961;
681.0000;0.7489;0.7985;
681.3000;0.7464;0.7914;
681.6000;0.7464;0.7890;
681.9000;0.7473;0.7890;
682.2000;0.7481;0.7914;
682.5000;0.7440;0.7890;
682.8000;0.7456;0.7938;
683.1000;0.7464;0.8033;
683.4000;0.7456;0.8009;
683.7000;0.7473;0.8056;
684.0000;0.7448;0.8009;
684.3000;0.7448;0.8056;
684.6000;0.7448;0.8104;
684.9000;0.7432;0.8104;
685.2000;0.7448;0.8175;
685.5000;0.7432;0.8175;
685.8000;0.7424;0.8175;
686.1000;0.7424;0.8127;
686.4000;0.7432;0.8246;
686.7000;0.7391;0.8104;
687.0000;0.7407;0.8080;
687.3000;0.7424;0.8175;
687.6000;0.7399;0.8033;
687.9000;0.7416;0.8151;
688.2000;0.7416;0.8151;
688.5000;0.7399;0.8151;
688.8000;0.7375;0.8127;
689.1000;0.7391;0.8198;
689.4000;0.7391;0.8175;
689.7000;0.7391;0.8198;
690.0000;0.7375;0.8198;
690.3000;0.7383;0.8293;
690.6000;0.7375;0.8269;
690.9000;0.7383;0.8293;
691.2000;0.7367;0.8222;
691.5000;0.7334;0.8080;
691.8000;0.7359;0.8080;
692.1000;0.7367;0.8056;
692.4000;0.7359;0.8033;
692.7000;0.7342;0.8080;
693.0000;0.7342;0.8009;
693.3000;0.7350;0.8104;
693.6000;0.7350;0.8198;
693.9000;0.7326;0.8198;
694.2000;0.7334;0.8246;
694.5000;0.7334;0.8198;
694.8000;0.7350;0.8222;
695.1000;0.7342;0.8246;
695.4000;0.7342;0.8269;
695.7000;0.7326;0.8388;
696.0000;0.7318;0.8483;
696.3000;0.7334;0.8554;
696.6000;0.7310;0.8506;
696.9000;0.7302;0.8459;
697.2000;0.7310;0.8530;
697.5000;0.7293;0.8412;
697.8000;0.7302;0.8459;
698.1000;0.7277;0.8364;
698.4000;0.7318;0.8388;
698.7000;0.7293;0.8341;
699.0000;0.7253;0.8364;
699.3000;0.7277;0.8483;
699.6000;0.7383;0.8625;
699.9000;0.7293;0.8435;
700.2000;0.7269;0.8506;
700.5000;0.7367;0.8767;
700.8000;0.7277;0.8554;
701.1000;0.7236;0.8412;
701.4000;0.7261;0.8435;
701.7000;0.7269;0.8412;
702.0000;0.7261;0.8435;
702.3000;0.7253;0.8506;
702.6000;0.7261;0.8459;
702.9000;0.7261;0.8364;
703.2000;0.7253;0.8317;
703.5000;0.7269;0.8388;
703.8000;0.7253;0.8364;
704.1000;0.7253;0.8388;
704.4000;0.7245;0.8317;
704.7000;0.7253;0.8364;
705.0000;0.7253;0.8388;
705.3000;0.7236;0.8364;
705.6000;0.7228;0.8293;
705.9000;0.7245;0.8293;
706.2000;0.7236;0.8341;
706.5000;0.7236;0.8364;
706.8000;0.7236;0.8317;
707.1000;0.7220;0.8269;
707.4000;0.7228;0.8222;
707.7000;0.7228;0.8269;
708.0000;0.7220;0.8246;
708.3000;0.7212;0.8198;
708.6000;0.7220;0.8246;
708.9000;0.7228;0.8269;
709.2000;0.7196;0.8246;
709.5000;0.7228;0.8364;
709.8000;0.7212;0.8317;
710.1000;0.7212;0.8341;
710.4000;0.7212;0.8364;
710.7000;0.7196;0.8293;
711.0000;0.7212;0.8198;
711.3000;0.7196;0.8222;
711.6000;0.7179;0.8269;
711.9000;0.7179;0.8246;
712.2000;0.7179;0.8175;
712.5000;0.7188;0.8127;
712.8000;0.7188;0.8104;
713.1000;0.7155;0.8080;
713.4000;0.7163;0.8175;
713.7000;0.7188;0.8269;
714.0000;0.7188;0.8341;
714.3000;0.7171;0.8412;
714.6000;0.7179;0.8459;
714.9000;0.7155;0.8341;
715.2000;0.7163;0.8435;
715.5000;0.7163;0.8364;
715.8000;0.7147;0.8293;
716.1000;0.7155;0.8269;
716.4000;0.7179;0.8364;
716.7000;0.7163;0.8293;
717.0000;0.7163;0.8269;
717.3000;0.7204;0.8341;
717.6000;0.7155;0.8222;
717.9000;0.7139;0.8151;
718.2000;0.7147;0.8198;
718.5000;0.7155;0.8151;
718.8000;0.7163;0.8175;
719.1000;0.7155;0.8127;
719.4000;0.7147;0.8198;
719.7000;0.7147;0.8222;
720.0000;0.7139;0.8246;
720.3000;0.7155;0.8269;
720.6000;0.7139;0.8293;
720.9000;0.7163;0.8341;
721.2000;0.7131;0.8246;
721.5000;0.7131;0.8317;
721.8000;0.7131;0.8364;
722.1000;0.7139;0.8388;
722.4000;0.7114;0.8341;
722.7000;0.7114;0.8341;
723.0000;0.7179;0.8459;
723.3000;0.7114;0.8412;
723.6000;0.7106;0.8388;
723.9000;0.7139;0.8341;
724.2000;0.7131;0.8317;
724.5000;0.7139;0.8317;
724.8000;0.7131;0.8388;
725.1000;0.7147;0.8388;
725.4000;0.7212;0.8578;
725.7000;0.7131;0.8317;
726.0000;0.7131;0.8364;
726.3000;0.7098;0.8293;
726.6000;0.7131;0.8364;
726.9000;0.7139;0.8388;
727.2000;0.7114;0.8317;
727.5000;0.7106;0.8388;
727.8000;0.7098;0.8364;
728.1000;0.7106;0.8459;
728.4000;0.7123;0.8530;
728.7000;0.7090;0.8459;
729.0000;0.7098;0.8483;
729.3000;0.7090;0.8554;
729.6000;0.7098;0.8530;
729.9000;0.7098;0.8554;
730.2000;0.7106;0.8578;
730.5000;0.7098;0.8483;
730.8000;0.7098;0.8412;
731.1000;0.7074;0.8435;
731.4000;0.7098;0.8530;
731.7000;0.7082;0.8601;
732.0000;0.7066;0.8554;
732.3000;0.7106;0.8625;
732.6000;0.7082;0.8601;
732.9000;0.7098;0.8625;
733.2000;0.7090;0.8601;
733.5000;0.7057;0.8649;
733.8000;0.7049;0.8649;
734.1000;0.7082;0.8649;
734.4000;0.7049;0.8578;
734.7000;0.7049;0.8578;
735.0000;0.6976;0.8364;
735.3000;0.7074;0.8578;
735.6000;0.7066;0.8649;
735.9000;0.7041;0.8601;
736.2000;0.7041;0.8506;
736.5000;0.7066;0.8412;
736.8000;0.7066;0.8341;
737.1000;0.7106;0.8530;
737.4000;0.7057;0.8412;
737.7000;0.7057;0.8435;
738.0000;0.7049;0.8435;
738.3000;0.7066;0.8578;
738.6000;0.7066;0.8506;
738.9000;0.7041;0.8412;
739.2000;0.7041;0.8364;
739.5000;0.7025;0.8364;
739.8000;0.7033;0.8459;
740.1000;0.6960;0.8269;
740.4000;0.7033;0.8364;
740.7000;0.7131;0.8530;
741.0000;0.7049;0.8341;
741.3000;0.7074;0.8412;
741.6000;0.7098;0.8530;
741.9000;0.7057;0.8459;
742.2000;0.7041;0.8506;
742.5000;0.7041;0.8506;
742.8000;0.7041;0.8435;
743.1000;0.7033;0.8388;
743.4000;0.7041;0.8459;
743.7000;0.7057;0.8341;
744.0000;0.7033;0.8269;
744.3000;0.7025;0.8317;
744.6000;0.7033;0.8435;
744.9000;0.7033;0.8459;
745.2000;0.7009;0.8412;
745.5000;0.7049;0.8506;
745.8000;0.7033;0.8483;
746.1000;0.7049;0.8601;
746.4000;0.7017;0.8554;
746.7000;0.7033;0.8601;
747.0000;0.7009;0.8578;
747.3000;0.6992;0.8459;
747.6000;0.7017;0.8506;
747.9000;0.7009;0.8435;
748.2000;0.6968;0.8388;
748.5000;0.7000;0.8530;
748.8000;0.7033;0.8601;
749.1000;0.7017;0.8506;
749.4000;0.7017;0.8459;
749.7000;0.7017;0.8506;
750.0000;0.7000;0.8388;
750.3000;0.7000;0.8364;
750.6000;0.7009;0.8459;
750.9000;0.7017;0.8506;
751.2000;0.7017;0.8554;
751.5000;0.6992;0.8435;
751.8000;0.7000;0.8506;
752.1000;0.7025;0.8578;
752.4000;0.7049;0.8625;
752.7000;0.6992;0.8483;
753.0000;0.6992;0.8364;
753.3000;0.7009;0.8483;
753.6000;0.7017;0.8530;
753.9000;0.6992;0.8459;
754.2000;0.6984;0.8459;
754.5000;0.6992;0.8506;
754.8000;0.7017;0.8412;
755.1000;0.7009;0.8364;
755.4000;0.7000;0.8341;
755.7000;0.6992;0.8317;
756.0000;0.6992;0.8317;
756.3000;0.6992;0.8198;
756.6000;0.7000;0.8222;
756.9000;0.6992;0.8222;
757.2000;0.6984;0.8198;
757.5000;0.6984;0.8222;
757.8000;0.6960;0.8293;
758.1000;0.6968;0.8412;
758.4000;0.6984;0.8506;
758.7000;0.6992;0.8506;
759.0000;0.6943;0.8412;
759.3000;0.6992;0.8506;
759.6000;0.6992;0.8388;
759.9000;0.7000;0.8269;
760.2000;0.6984;0.8293;
760.5000;0.6943;0.8269;
760.8000;0.6984;0.8341;
761.1000;0.7017;0.8483;
761.4000;0.7049;0.8530;
761.7000;0.7017;0.8388;
762.0000;0.6960;0.8364;
762.3000;0.6992;0.8483;
762.6000;0.6984;0.8483;
762.9000;0.7009;0.8530;
763.2000;0.6976;0.8554;
763.5000;0.6984;0.8530;
763.8000;0.6992;0.8601;
764.1000;0.7000;0.8578;
764.4000;0.6952;0.8435;
764.7000;0.7082;0.8767;
765.0000;0.6968;0.8530;
765.3000;0.6968;0.8506;
765.6000;0.6968;0.8554;
765.9000;0.6960;0.8554;
766.2000;0.6984;0.8601;
766.5000;0.6976;0.8578;
766.8000;0.6960;0.8530;
767.1000;0.6960;0.8554;
767.4000;0.6992;0.8767;
767.7000;0.6968;0.8649;
768.0000;0.6960;0.8672;
768.3000;0.6960;0.8625;
768.6000;0.6960;0.8554;
768.9000;0.6984;0.8554;
769.2000;0.6976;0.8554;
769.5000;0.6960;0.8578;
769.8000;0.6960;0.8649;
770.1000;0.6911;0.8601;
770.4000;0.6960;0.8720;
770.7000;0.6960;0.8696;
771.0000;0.6976;0.8791;
771.3000;0.6992;0.8909;
771.6000;0.6895;0.8672;
771.9000;0.6952;0.8743;
772.2000;0.6952;0.8720;
772.5000;0.6976;0.8767;
772.8000;0.6984;0.8696;
773.1000;0.6935;0.8649;
773.4000;0.6960;0.8672;
773.7000;0.6952;0.8554;
774.0000;0.6968;0.8578;
774.3000;0.6943;0.8578;
774.6000;0.6935;0.8530;
774.9000;0.6943;0.8530;
775.2000;0.6952;0.8601;
775.5000;0.6952;0.8506;
775.8000;0.6960;0.8459;
776.1000;0.6952;0.8435;
776.4000;0.7000;0.8601;
776.7000;0.6952;0.8530;
777.0000;0.6903;0.8293;
777.3000;0.6927;0.8388;
777.6000;0.6976;0.8554;
777.9000;0.6960;0.8625;
778.2000;0.6919;0.8578;
778.5000;0.6943;0.8601;
778.8000;0.6952;0.8530;
779.1000;0.6952;0.8578;
779.4000;0.6935;0.8578;
779.7000;0.6943;0.8578;
780.0000;0.7009;0.8625;
780.3000;0.6952;0.8483;
780.6000;0.6960;0.8506;
780.9000;0.6943;0.8483;
781.2000;0.6919;0.8412;
781.5000;0.6952;0.8459;
781.8000;0.6968;0.8459;
782.1000;0.6943;0.8412;
782.4000;0.6968;0.8530;
782.7000;0.6935;0.8625;
783.0000;0.6927;0.8530;
783.3000;0.6952;0.8530;
783.6000;0.6935;0.8578;
783.9000;0.6911;0.8554;
784.2000;0.6943;0.8530;
784.5000;0.6919;0.8364;
784.8000;0.6927;0.8459;
785.1000;0.6927;0.8435;
785.4000;0.6927;0.8364;
785.7000;0.6935;0.8483;
786.0000;0.6927;0.8412;
786.3000;0.6919;0.8388;
786.6000;0.6935;0.8412;
786.9000;0.6943;0.8483;
787.2000;0.6927;0.8388;
787.5000;0.6943;0.8412;
787.8000;0.6935;0.8412;
788.1000;0.6960;0.8412;
788.4000;0.6927;0.8388;
788.7000;0.6927;0.8317;
789.0000;0.6911;0.8222;
789.3000;0.6943;0.8364;
789.6000;0.6919;0.8293;
789.9000;0.6960;0.8388;
790.2000;0.6927;0.8341;
790.5000;0.6911;0.8364;
790.8000;0.6927;0.8341;
791.1000;0.6919;0.8364;
791.4000;0.6911;0.8364;
791.7000;0.6919;0.8435;
792.0000;0.6927;0.8459;
792.3000;0.6862;0.8317;
792.6000;0.6952;0.8506;
792.9000;0.6935;0.8435;
793.2000;0.6968;0.8554;
793.5000;0.6935;0.8530;
793.8000;0.6919;0.8483;
794.1000;0.6919;0.8412;
794.4000;0.6870;0.8317;
794.7000;0.6911;0.8483;
795.0000;0.6911;0.8483;
795.3000;0.6903;0.8483;
795.6000;0.6895;0.8459;
795.9000;0.6911;0.8459;
796.2000;0.6911;0.8435;
796.5000;0.6919;0.8412;
796.8000;0.6911;0.8459;
797.1000;0.6919;0.8388;
797.4000;0.6935;0.8412;
797.7000;0.6911;0.8435;
798.0000;0.6911;0.8412;
798.3000;0.6927;0.8388;
798.6000;0.6919;0.8317;
798.9000;0.6903;0.8317;
799.2000;0.6911;0.8364;
799.5000;0.6919;0.8364;
799.8000;0.6911;0.8364;
800.1000;0.6895;0.8317;
800.4000;0.6976;0.8530;
800.7000;0.6903;0.8293;
801.0000;0.6919;0.8293;
801.3000;0.6903;0.8341;
801.6000;0.6903;0.8246;
801.9000;0.6911;0.8269;
802.2000;0.6903;0.8246;
802.5000;0.6911;0.8317;
802.8000;0.6903;0.8317;
803.1000;0.6911;0.8317;
803.4000;0.6895;0.8341;
803.7000;0.6903;0.8341;
804.0000;0.6903;0.8293;
804.3000;0.6919;0.8317;
804.6000;0.6903;0.8317;
804.9000;0.6911;0.8317;
805.2000;0.6886;0.8317;
805.5000;0.6911;0.8364;
805.8000;0.6903;0.8364;
806.1000;0.6886;0.8412;
806.4000;0.6895;0.8388;
806.7000;0.6878;0.8388;
807.0000;0.6903;0.8459;
807.3000;0.6903;0.8364;
807.6000;0.6886;0.8388;
807.9000;0.6911;0.8483;
808.2000;0.6927;0.8435;
808.5000;0.6911;0.8435;
808.8000;0.6903;0.8530;
809.1000;0.6911;0.8506;
809.4000;0.6878;0.8412;
809.7000;0.6895;0.8435;
810.0000;0.6903;0.8388;
810.3000;0.6846;0.8246;
810.6000;0.6895;0.8506;
810.9000;0.6919;0.8530;
811.2000;0.6911;0.8506;
811.5000;0.6895;0.8435;
811.8000;0.6903;0.8483;
812.1000;0.6886;0.8506;
812.4000;0.6919;0.8506;
812.7000;0.6911;0.8483;
813.0000;0.6903;0.8435;
813.3000;0.6895;0.8435;
813.6000;0.6895;0.8412;
813.9000;0.6903;0.8435;
814.2000;0.6862;0.8364;
814.5000;0.6903;0.8435;
814.8000;0.6886;0.8364;
815.1000;0.6878;0.8388;
815.4000;0.6886;0.8412;
815.7000;0.6886;0.8364;
816.0000;0.6895;0.8412;
816.3000;0.6854;0.8364;
816.6000;0.6870;0.8459;
816.9000;0.6903;0.8506;
817.2000;0.6935;0.8578;
817.5000;0.6870;0.8435;
817.8000;0.6895;0.8506;
818.1000;0.6895;0.8483;
818.4000;0.6895;0.8483;
818.7000;0.6895;0.8506;
819.0000;0.6911;0.8554;
819.3000;0.6919;0.8483;
819.6000;0.6886;0.8412;
819.9000;0.6911;0.8578;
820.2000;0.6903;0.8506;
820.5000;0.6895;0.8483;
820.8000;0.6878;0.8483;
821.1000;0.6895;0.8506;
821.4000;0.6927;0.8506;
821.7000;0.6895;0.8364;
822.0000;0.6886;0.8388;
822.3000;0.6895;0.8483;
822.6000;0.6878;0.8554;
822.9000;0.6862;0.8578;
823.2000;0.6895;0.8601;
823.5000;0.6903;0.8625;
823.8000;0.6919;0.8696;
824.1000;0.6870;0.8554;
824.4000;0.6878;0.8649;
824.7000;0.6878;0.8649;
825.0000;0.6895;0.8696;
825.3000;0.6903;0.8696;
825.6000;0.6870;0.8625;
825.9000;0.6886;0.8649;
826.2000;0.6878;0.8720;
826.5000;0.6878;0.8720;
826.8000;0.6862;0.8672;
827.1000;0.6878;0.8743;
827.4000;0.6829;0.8672;
827.7000;0.6935;0.8909;
828.0000;0.6886;0.8791;
828.3000;0.6895;0.8767;
828.6000;0.6878;0.8767;
828.9000;0.6886;0.8696;
829.2000;0.6878;0.8601;
829.5000;0.6870;0.8649;
829.8000;0.6895;0.8672;
830.1000;0.6878;0.8578;
830.4000;0.6846;0.8388;
830.7000;0.6862;0.8483;
831.0000;0.6878;0.8459;
831.3000;0.6927;0.8506;
831.6000;0.6878;0.8435;
831.9000;0.6862;0.8435;
832.2000;0.6886;0.8435;
832.5000;0.6870;0.8364;
832.8000;0.6878;0.8364;
833.1000;0.6862;0.8388;
833.4000;0.6878;0.8341;
833.7000;0.6870;0.8412;
834.0000;0.6895;0.8554;
834.3000;0.6878;0.8530;
834.6000;0.6886;0.8625;
834.9000;0.6862;0.8672;
835.2000;0.6878;0.8672;
835.5000;0.6911;0.8601;
835.8000;0.6854;0.8412;
836.1000;0.6870;0.8483;
836.4000;0.6846;0.8459;
836.7000;0.6870;0.8483;
837.0000;0.6862;0.8530;
837.3000;0.6878;0.8601;
837.6000;0.6870;0.8672;
837.9000;0.6870;0.8649;
838.2000;0.6862;0.8578;
838.5000;0.6862;0.8506;
838.8000;0.6886;0.8459;
839.1000;0.6903;0.8364;
839.4000;0.6903;0.8412;
839.7000;0.6878;0.8364;
840.0000;0.6870;0.8483;
840.3000;0.6846;0.8506;
840.6000;0.6886;0.8578;
840.9000;0.6862;0.8459;
841.2000;0.6870;0.8506;
841.5000;0.6870;0.8506;
841.8000;0.6878;0.8554;
842.1000;0.6870;0.8601;
842.4000;0.6846;0.8601;
842.7000;0.6862;0.8578;
843.0000;0.6878;0.8601;
843.3000;0.6870;0.8649;
843.6000;0.6862;0.8649;
843.9000;0.6846;0.8578;
844.2000;0.6870;0.8530;
844.5000;0.6870;0.8601;
844.8000;0.6870;0.8625;
845.1000;0.6870;0.8625;
845.4000;0.6862;0.8601;
845.7000;0.6895;0.8696;
846.0000;0.6943;0.8838;
846.3000;0.6813;0.8696;
846.6000;0.6862;0.8791;
846.9000;0.6854;0.8743;
847.2000;0.6846;0.8767;
847.5000;0.6862;0.8743;
847.8000;0.6862;0.8791;
848.1000;0.6878;0.8791;
848.4000;0.6854;0.8767;
848.7000;0.6862;0.8720;
849.0000;0.6870;0.8743;
849.3000;0.6952;0.8862;
849.6000;0.6886;0.8672;
849.9000;0.6870;0.8601;
850.2000;0.6862;0.8530;
850.5000;0.6870;0.8601;
850.8000;0.6886;0.8625;
851.1000;0.6870;0.8578;
851.4000;0.6813;0.8483;
851.7000;0.6878;0.8601;
852.0000;0.6903;0.8720;
852.3000;0.6829;0.8625;
852.6000;0.6862;0.8601;
852.9000;0.6862;0.8601;
853.2000;0.6854;0.8506;
853.5000;0.6854;0.8601;
853.8000;0.6854;0.8625;
854.1000;0.6862;0.8625;
854.4000;0.6870;0.8601;
854.7000;0.6870;0.8578;
855.0000;0.6862;0.8578;
855.3000;0.6846;0.8578;
855.6000;0.6927;0.8791;
855.9000;0.6862;0.8672;
856.2000;0.6838;0.8672;
856.5000;0.6854;0.8672;
856.8000;0.6870;0.8649;
857.1000;0.6781;0.8412;
857.4000;0.6846;0.8530;
857.7000;0.6846;0.8459;
858.0000;0.6838;0.8412;
858.3000;0.6854;0.8412;
858.6000;0.6870;0.8459;
858.9000;0.6846;0.8364;
859.2000;0.6854;0.8459;
859.5000;0.6764;0.8317;
859.8000;0.6781;0.8435;
860.1000;0.6846;0.8625;
860.4000;0.6846;0.8696;
860.7000;0.6862;0.8649;
861.0000;0.6838;0.8625;
861.3000;0.6805;0.8578;
861.6000;0.6846;0.8672;
861.9000;0.6854;0.8649;
862.2000;0.6870;0.8767;
862.5000;0.6846;0.8625;
862.8000;0.6854;0.8601;
863.1000;0.6854;0.8625;
863.4000;0.6862;0.8649;
863.7000;0.6854;0.8743;
864.0000;0.6870;0.8791;
864.3000;0.6878;0.8743;
864.6000;0.6862;0.8672;
864.9000;0.6862;0.8672;
865.2000;0.6862;0.8625;
865.5000;0.6862;0.8601;
865.8000;0.6862;0.8578;
866.1000;0.6870;0.8530;
866.4000;0.6838;0.8483;
866.7000;0.6854;0.8601;
867.0000;0.6862;0.8649;
867.3000;0.6838;0.8649;
867.6000;0.6846;0.8578;
867.9000;0.6829;0.8459;
868.2000;0.6854;0.8554;
868.5000;0.6862;0.8625;
868.8000;0.6854;0.8554;
869.1000;0.6838;0.8530;
869.4000;0.6903;0.8672;
869.7000;0.6846;0.8554;
870.0000;0.6846;0.8649;
870.3000;0.6886;0.8767;
870.6000;0.6862;0.8767;
870.9000;0.6895;0.8791;
871.2000;0.6878;0.8672;
871.5000;0.6862;0.8672;
871.8000;0.6838;0.8720;
872.1000;0.6846;0.8743;
872.4000;0.6846;0.8720;
872.7000;0.6846;0.8767;
873.0000;0.6821;0.8720;
873.3000;0.6854;0.8814;
873.6000;0.6846;0.8814;
873.9000;0.6829;0.8743;
874.2000;0.6805;0.8767;
874.5000;0.6862;0.8909;
874.8000;0.6854;0.8886;
875.1000;0.6846;0.8909;
875.4000;0.6846;0.8814;
875.7000;0.6821;0.8814;
876.0000;0.6862;0.8862;
876.3000;0.6846;0.8862;
876.6000;0.6862;0.8886;
876.9000;0.6829;0.8814;
877.2000;0.6854;0.8838;
877.5000;0.6895;0.8767;
877.8000;0.6846;0.8649;
878.1000;0.6870;0.8743;
878.4000;0.6829;0.8649;
878.7000;0.6846;0.8625;
879.0000;0.6846;0.8720;
879.3000;0.6854;0.8720;
879.6000;0.6838;0.8696;
879.9000;0.6789;0.8554;
880.2000;0.6829;0.8649;
880.5000;0.6764;0.8506;
880.8000;0.6862;0.8743;
881.1000;0.6789;0.8530;
881.4000;0.6854;0.8743;
881.7000;0.6829;0.8767;
882.0000;0.6829;0.8743;
882.3000;0.6854;0.8743;
882.6000;0.6846;0.8767;
882.9000;0.6854;0.8720;
883.2000;0.6789;0.8483;
883.5000;0.6854;0.8672;
883.8000;0.6854;0.8649;
884.1000;0.6838;0.8625;
884.4000;0.6838;0.8625;
884.7000;0.6821;0.8672;
885.0000;0.6846;0.8791;
885.3000;0.6797;0.8506;
885.6000;0.6862;0.8743;
885.9000;0.6846;0.8649;
886.2000;0.6854;0.8767;
886.5000;0.6886;0.8696;
886.8000;0.6862;0.8578;
887.1000;0.6846;0.8649;
887.4000;0.6813;0.8625;
887.7000;0.6854;0.8814;
888.0000;0.6838;0.8838;
888.3000;0.6821;0.8814;
888.6000;0.6919;0.8957;
888.9000;0.6846;0.8767;
889.2000;0.6854;0.8696;
889.5000;0.6821;0.8578;
889.8000;0.6838;0.8530;
890.1000;0.6838;0.8649;
890.4000;0.6854;0.8672;
890.7000;0.6838;0.8672;
891.0000;0.6854;0.8649;
891.3000;0.6846;0.8625;
891.6000;0.6854;0.8625;
891.9000;0.6838;0.8554;
892.2000;0.6854;0.8672;
892.5000;0.6870;0.8696;
892.8000;0.6813;0.8625;
893.1000;0.6821;0.8649;
893.4000;0.6838;0.8625;
893.7000;0.6813;0.8483;
894.0000;0.6854;0.8601;
894.3000;0.6838;0.8601;
894.6000;0.6846;0.8625;
894.9000;0.6821;0.8578;
895.2000;0.6838;0.8672;
895.5000;0.6854;0.8625;
895.8000;0.6846;0.8530;
896.1000;0.6813;0.8506;
896.4000;0.6911;0.8838;
896.7000;0.6854;0.8743;
897.0000;0.6854;0.8791;
897.3000;0.6854;0.8767;
897.6000;0.6829;0.8767;
897.9000;0.6838;0.8886;
898.2000;0.6805;0.8696;
898.5000;0.6829;0.8649;
898.8000;0.6821;0.8625;
899.1000;0.6805;0.8601;
899.4000;0.6821;0.8625;
899.7000;0.6821;0.8578;
900.0000;0.6838;0.8578;
900.3000;0.6829;0.8625;
900.6000;0.6838;0.8696;
900.9000;0.6829;0.8649;
901.2000;0.6829;0.8578;
901.5000;0.6846;0.8672;
901.8000;0.6838;0.8743;
902.1000;0.6829;0.8743;
902.4000;0.6846;0.8767;
902.7000;0.6854;0.8743;
903.0000;0.6838;0.8743;
903.3000;0.6821;0.8743;
903.6000;0.6838;0.8767;
903.9000;0.6821;0.8696;
904.2000;0.6854;0.8696;
904.5000;0.6846;0.8672;
904.8000;0.6829;0.8625;
905.1000;0.6821;0.8601;
905.4000;0.6829;0.8625;
905.7000;0.6838;0.8649;
906.0000;0.6838;0.8743;
906.3000;0.6838;0.8814;
906.6000;0.6821;0.8767;
906.9000;0.6846;0.8791;
907.2000;0.6862;0.8743;
907.5000;0.6878;0.8767;
907.8000;0.6862;0.8743;
908.1000;0.6846;0.8862;
908.4000;0.6821;0.8791;
908.7000;0.6829;0.8909;
909.0000;0.6829;0.8814;
909.3000;0.6813;0.8767;
909.6000;0.6854;0.8909;
909.9000;0.6935;0.9051;
910.2000;0.6813;0.8672;
910.5000;0.6854;0.8767;
910.8000;0.6846;0.8791;
911.1000;0.6846;0.8862;
911.4000;0.6838;0.8814;
911.7000;0.6829;0.8814;
912.0000;0.6854;0.8838;
912.3000;0.6838;0.8838;
912.6000;0.6862;0.8838;
912.9000;0.6846;0.8814;
913.2000;0.6838;0.8886;
913.5000;0.6846;0.8909;
913.8000;0.6829;0.8886;
914.1000;0.6821;0.8791;
914.4000;0.6821;0.8814;
914.7000;0.6805;0.8696;
915.0000;0.6838;0.8743;
915.3000;0.6838;0.8743;
915.6000;0.6838;0.8791;
915.9000;0.6797;0.8696;
916.2000;0.6838;0.8814;
916.5000;0.6838;0.8767;
916.8000;0.6813;0.8720;
917.1000;0.6846;0.8862;
917.4000;0.6838;0.8767;
917.7000;0.6821;0.8814;
918.0000;0.6829;0.8909;
918.3000;0.6854;0.8886;
918.6000;0.6846;0.8814;
918.9000;0.6927;0.9028;
919.2000;0.6829;0.8720;
919.5000;0.6846;0.8720;
919.8000;0.6838;0.8672;
920.1000;0.6821;0.8649;
920.4000;0.6870;0.8743;
920.7000;0.6829;0.8696;
921.0000;0.6846;0.8814;
921.3000;0.6829;0.8814;
921.6000;0.6821;0.8720;
921.9000;0.6895;0.8767;
922.2000;0.6846;0.8720;
922.5000;0.6878;0.8909;
922.8000;0.6846;0.8838;
923.1000;0.6846;0.8838;
923.4000;0.6813;0.8933;
923.7000;0.6846;0.8980;
924.0000;0.6805;0.8862;
924.3000;0.6886;0.9075;
924.6000;0.6813;0.8814;
924.9000;0.6797;0.8814;
925.2000;0.6805;0.8838;
925.5000;0.6846;0.8838;
925.8000;0.6821;0.8791;
926.1000;0.6829;0.8791;
926.4000;0.6854;0.8862;
926.7000;0.6911;0.9004;
927.0000;0.6846;0.8767;
927.3000;0.6846;0.8814;
927.6000;0.6805;0.8814;
927.9000;0.6829;0.8862;
928.2000;0.6829;0.8862;
928.5000;0.6829;0.8743;
928.8000;0.6829;0.8743;
929.1000;0.6797;0.8672;
929.4000;0.6829;0.8743;
929.7000;0.6829;0.8814;
930.0000;0.6821;0.8909;
930.3000;0.6805;0.8886;
930.6000;0.6829;0.8957;
930.9000;0.6821;0.8957;
931.2000;0.6821;0.9051;
931.5000;0.6886;0.9194;
931.8000;0.6813;0.9004;
932.1000;0.6911;0.9265;
932.4000;0.6829;0.9004;
932.7000;0.6829;0.8980;
933.0000;0.6838;0.9004;
933.3000;0.6805;0.8909;
933.6000;0.6821;0.8909;
933.9000;0.6821;0.8838;
934.2000;0.6789;0.8886;
934.5000;0.6813;0.9004;
934.8000;0.6838;0.9051;
935.1000;0.6829;0.9028;
935.4000;0.6813;0.8957;
935.7000;0.6821;0.9004;
936.0000;0.6764;0.8862;
936.3000;0.6846;0.9122;
936.6000;0.6838;0.9028;
936.9000;0.6789;0.8862;
937.2000;0.6821;0.8957;
937.5000;0.6829;0.9028;
937.8000;0.6838;0.9075;
938.1000;0.6821;0.8980;
938.4000;0.6829;0.8886;
938.7000;0.6805;0.9004;
939.0000;0.6813;0.8980;
939.3000;0.6813;0.8957;
939.6000;0.6813;0.8909;
939.9000;0.6821;0.8909;
940.2000;0.6829;0.8933;
940.5000;0.6821;0.8886;
940.8000;0.6813;0.8838;
941.1000;0.6829;0.8862;
941.4000;0.6821;0.8886;
941.7000;0.6829;0.8886;
942.0000;0.6813;0.8814;
942.3000;0.6805;0.8767;
942.6000;0.6829;0.8743;
942.9000;0.6829;0.8696;
943.2000;0.6838;0.8767;
943.5000;0.6829;0.8767;
943.8000;0.6829;0.8696;
944.1000;0.6838;0.8791;
944.4000;0.6846;0.8838;
944.7000;0.6813;0.8649;
945.0000;0.6838;0.8743;
945.3000;0.6813;0.8743;
945.6000;0.6829;0.8720;
945.9000;0.6805;0.8743;
946.2000;0.6838;0.8886;
946.5000;0.6846;0.8909;
946.8000;0.6838;0.8909;
947.1000;0.6838;0.8909;
947.4000;0.6805;0.8886;
947.7000;0.6829;0.8957;
948.0000;0.6821;0.9004;
948.3000;0.6927;0.9336;
948.6000;0.6821;0.9028;
948.9000;0.6821;0.9004;
949.2000;0.6813;0.8933;
949.5000;0.6764;0.8767;
949.8000;0.6813;0.8933;
950.1000;0.6797;0.8886;
950.4000;0.6821;0.8862;
950.7000;0.6821;0.8862;
951.0000;0.6813;0.8933;
951.3000;0.6838;0.9051;
951.6000;0.6829;0.8980;
951.9000;0.6813;0.8957;
952.2000;0.6821;0.9028;
952.5000;0.6821;0.9004;
952.8000;0.6821;0.9028;
953.1000;0.6846;0.9028;
953.4000;0.6829;0.8957;
953.7000;0.6821;0.8957;
954.0000;0.6846;0.8980;
954.3000;0.6854;0.8933;
954.6000;0.6821;0.8909;
954.9000;0.6821;0.8933;
955.2000;0.6813;0.8933;
955.5000;0.6821;0.8886;
955.8000;0.6829;0.8814;
956.1000;0.6805;0.8720;
956.4000;0.6821;0.8838;
956.7000;0.6821;0.8767;
957.0000;0.6838;0.8838;
957.3000;0.6789;0.8767;
957.6000;0.6805;0.8743;
957.9000;0.6829;0.8791;
958.2000;0.6805;0.8886;
958.5000;0.6838;0.8980;
958.8000;0.6813;0.8933;
959.1000;0.6805;0.8909;
959.4000;0.6821;0.8909;
959.7000;0.6821;0.8838;
960.0000;0.6805;0.8720;
960.3000;0.6813;0.8720;
960.6000;0.6797;0.8649;
960.9000;0.6821;0.8625;
961.2000;0.6805;0.8530;
961.5000;0.6829;0.8601;
961.8000;0.6789;0.8459;
962.1000;0.6903;0.8720;
962.4000;0.6805;0.8483;
962.7000;0.6805;0.8459;
963.0000;0.6813;0.8435;
963.3000;0.6821;0.8483;
963.6000;0.6805;0.8483;
963.9000;0.6797;0.8412;
964.2000;0.6813;0.8483;
964.5000;0.6813;0.8459;
964.8000;0.6821;0.8554;
965.1000;0.6797;0.8578;
965.4000;0.6772;0.8483;
965.7000;0.6821;0.8649;
966.0000;0.6781;0.8554;
966.3000;0.6829;0.8625;
966.6000;0.6797;0.8554;
966.9000;0.6740;0.8341;
967.2000;0.6846;0.8625;
967.5000;0.6821;0.8601;
967.8000;0.6821;0.8578;
968.1000;0.6829;0.8696;
968.4000;0.6829;0.8767;
968.7000;0.6813;0.8814;
969.0000;0.6829;0.8767;
969.3000;0.6805;0.8743;
969.6000;0.6821;0.8814;
969.9000;0.6838;0.8838;
970.2000;0.6813;0.8814;
970.5000;0.6797;0.8767;
970.8000;0.6813;0.8862;
971.1000;0.6838;0.8814;
971.4000;0.6805;0.8743;
971.7000;0.6756;0.8601;
972.0000;0.6829;0.8649;
972.3000;0.6829;0.8554;
972.6000;0.6838;0.8625;
972.9000;0.6805;0.8625;
973.2000;0.6805;0.8625;
973.5000;0.6829;0.8625;
973.8000;0.6821;0.8554;
974.1000;0.6732;0.8293;
974.4000;0.6903;0.8649;
974.7000;0.6829;0.8530;
975.0000;0.6838;0.8601;
975.3000;0.6829;0.8601;
975.6000;0.6813;0.8578;
975.9000;0.6838;0.8649;
976.2000;0.6813;0.8554;
976.5000;0.6813;0.8672;
976.8000;0.6813;0.8672;
977.1000;0.6821;0.8672;
977.4000;0.6805;0.8672;
977.7000;0.6829;0.8672;
978.0000;0.6805;0.8672;
978.3000;0.6805;0.8649;
978.6000;0.6838;0.8814;
978.9000;0.6829;0.8862;
979.2000;0.6805;0.8886;
979.5000;0.6821;0.8862;
979.8000;0.6838;0.8814;
980.1000;0.6805;0.8696;
980.4000;0.6813;0.8814;
980.7000;0.6813;0.8814;
981.0000;0.6838;0.8862;
981.3000;0.6813;0.8720;
981.6000;0.6821;0.8743;
981.9000;0.6821;0.8862;
982.2000;0.6813;0.8862;
982.5000;0.6821;0.8838;
982.8000;0.6821;0.8743;
983.1000;0.6797;0.8696;
983.4000;0.6829;0.8720;
983.7000;0.6838;0.8743;
984.0000;0.6821;0.8814;
984.3000;0.6813;0.8791;
984.6000;0.6829;0.8862;
984.9000;0.6813;0.8862;
985.2000;0.6821;0.8862;
985.5000;0.6821;0.8909;
985.8000;0.6805;0.8886;
986.1000;0.6821;0.8933;
986.4000;0.6821;0.8862;
986.7000;0.6821;0.8791;
987.0000;0.6862;0.8862;
987.3000;0.6846;0.8909;
987.6000;0.6805;0.8838;
987.9000;0.6821;0.8886;
988.2000;0.6756;0.8767;
988.5000;0.6805;0.8814;
988.8000;0.6764;0.8625;
989.1000;0.6813;0.8838;
989.4000;0.6805;0.8909;
989.7000;0.6813;0.8957;
990.0000;0.6854;0.8957;
990.3000;0.6813;0.8814;
990.6000;0.6821;0.8791;
990.9000;0.6797;0.8672;
991.2000;0.6821;0.8696;
991.5000;0.6821;0.8696;
991.8000;0.6813;0.8672;
992.1000;0.6797;0.8672;
992.4000;0.6813;0.8696;
992.7000;0.6805;0.8767;
993.0000;0.6838;0.8814;
993.3000;0.6813;0.8767;
993.6000;0.6838;0.8838;
993.9000;0.6797;0.8862;
994.2000;0.6821;0.9004;
994.5000;0.6805;0.8957;
994.8000;0.6813;0.8862;
995.1000;0.6821;0.8862;
995.4000;0.6821;0.8791;
995.7000;0.6805;0.8791;
996.0000;0.6805;0.8767;
996.3000;0.6813;0.8814;
996.6000;0.6821;0.8814;
996.9000;0.6813;0.8767;
997.2000;0.6789;0.8720;
997.5000;0.6821;0.8767;
997.8000;0.6813;0.8672;
998.1000;0.6821;0.8767;
998.4000;0.6813;0.8743;
998.7000;0.6813;0.8696;
999.0000;0.6838;0.8767;
999.3000;0.6805;0.8696;
999.6000;0.6813;0.8743;
999.9000;0.6805;0.8743;
1000.2000;0.6805;0.8791;
1000.5000;0.6805;0.8909;
1000.8000;0.6797;0.8862;
1001.1000;0.6805;0.8862;
1001.4000;0.6797;0.8862;
1001.7000;0.6805;0.8886;
1002.0000;0.6805;0.8838;
1002.3000;0.6797;0.8767;
1002.6000;0.6903;0.9075;
1002.9000;0.6829;0.8862;
1003.2000;0.6813;0.8838;
1003.5000;0.6813;0.8838;
1003.8000;0.6895;0.9028;
1004.1000;0.6821;0.8838;
1004.4000;0.6781;0.8767;
1004.7000;0.6805;0.8838;
1005.0000;0.6813;0.8838;
1005.3000;0.6797;0.8791;
1005.6000;0.6789;0.8767;
1005.9000;0.6756;0.8743;
1006.2000;0.6805;0.8838;
1006.5000;0.6805;0.8886;
1006.8000;0.6772;0.8720;
1007.1000;0.6813;0.8791;
1007.4000;0.6797;0.8743;
1007.7000;0.6821;0.8767;
1008.0000;0.6805;0.8696;
1008.3000;0.6789;0.8672;
1008.6000;0.6781;0.8625;
1008.9000;0.6797;0.8649;
1009.2000;0.6805;0.8578;
1009.5000;0.6797;0.8554;
1009.8000;0.6805;0.8554;
1010.1000;0.6805;0.8649;
1010.4000;0.6838;0.8743;
1010.7000;0.6797;0.8672;
1011.0000;0.6821;0.8649;
1011.3000;0.6797;0.8601;
1011.6000;0.6797;0.8578;
1011.9000;0.6813;0.8625;
1012.2000;0.6805;0.8672;
1012.5000;0.6797;0.8601;
1012.8000;0.6805;0.8601;
1013.1000;0.6805;0.8672;
1013.4000;0.6895;0.8791;
1013.7000;0.6821;0.8649;
1014.0000;0.6813;0.8672;
1014.3000;0.6805;0.8767;
1014.6000;0.6813;0.8743;
1014.9000;0.6805;0.8720;
1015.2000;0.6813;0.8672;
1015.5000;0.6789;0.8649;
1015.8000;0.6821;0.8743;
1016.1000;0.6813;0.8672;
1016.4000;0.6821;0.8601;
1016.7000;0.6821;0.8554;
1017.0000;0.6789;0.8530;
1017.3000;0.6813;0.8506;
1017.6000;0.6805;0.8506;
1017.9000;0.6821;0.8578;
1018.2000;0.6789;0.8459;
1018.5000;0.6821;0.8506;
1018.8000;0.6797;0.8554;
1019.1000;0.6797;0.8506;
1019.4000;0.6854;0.8578;
1019.7000;0.6805;0.8601;
1020.0000;0.6764;0.8506;
1020.3000;0.6805;0.8625;
1020.6000;0.6813;0.8649;
1020.9000;0.6813;0.8649;
1021.2000;0.6821;0.8649;
1021.5000;0.6805;0.8578;
1021.8000;0.6805;0.8506;
1022.1000;0.6813;0.8506;
1022.4000;0.6789;0.8459;
1022.7000;0.6797;0.8459;
1023.0000;0.6789;0.8435;
1023.3000;0.6797;0.8459;
1023.6000;0.6805;0.8483;
1023.9000;0.6781;0.8435;
1024.2000;0.6838;0.8530;
1024.5000;0.6789;0.8412;
1024.8000;0.6821;0.8506;
1025.1000;0.6781;0.8435;
1025.4000;0.6797;0.8435;
1025.7000;0.6878;0.8672;
1026.0000;0.6838;0.8625;
1026.3000;0.6846;0.8625;
1026.6000;0.6805;0.8554;
1026.9000;0.6805;0.8601;
1027.2000;0.6781;0.8601;
1027.5000;0.6813;0.8649;
1027.8000;0.6805;0.8625;
1028.1000;0.6724;0.8506;
1028.4000;0.6781;0.8649;
1028.7000;0.6772;0.8601;
1029.0000;0.6821;0.8743;
1029.3000;0.6805;0.8625;
1029.6000;0.6789;0.8506;
1029.9000;0.6797;0.8578;
1030.2000;0.6789;0.8578;
1030.5000;0.6797;0.8554;
1030.8000;0.6805;0.8554;
1031.1000;0.6781;0.8483;
1031.4000;0.6797;0.8459;
1031.7000;0.6797;0.8483;
1032.0000;0.6789;0.8483;
1032.3000;0.6813;0.8554;
1032.6000;0.6805;0.8459;
1032.9000;0.6797;0.8459;
1033.2000;0.6805;0.8435;
1033.5000;0.6805;0.8364;
1033.8000;0.6805;0.8364;
1034.1000;0.6797;0.8317;
1034.4000;0.6829;0.8364;
1034.7000;0.6813;0.8317;
1035.0000;0.6805;0.8269;
1035.3000;0.6797;0.8246;
1035.6000;0.6789;0.8293;
1035.9000;0.6805;0.8341;
1036.2000;0.6813;0.8435;
1036.5000;0.6813;0.8483;
1036.8000;0.6805;0.8459;
1037.1000;0.6821;0.8506;
1037.4000;0.6797;0.8483;
1037.7000;0.6805;0.8483;
1038.0000;0.6829;0.8601;
1038.3000;0.6813;0.8578;
1038.6000;0.6813;0.8483;
1038.9000;0.6805;0.8530;
1039.2000;0.6821;0.8554;
1039.5000;0.6805;0.8459;
1039.8000;0.6813;0.8483;
1040.1000;0.6805;0.8530;
1040.4000;0.6748;0.8435;
1040.7000;0.6813;0.8530;
1041.0000;0.6813;0.8506;
1041.3000;0.6805;0.8459;
1041.6000;0.6797;0.8435;
1041.9000;0.6789;0.8459;
1042.2000;0.6748;0.8364;
1042.5000;0.6903;0.8720;
1042.8000;0.6781;0.8412;
1043.1000;0.6772;0.8364;
1043.4000;0.6789;0.8435;
1043.7000;0.6805;0.8459;
1044.0000;0.6805;0.8459;
1044.3000;0.6748;0.8364;
1044.6000;0.6789;0.8459;
1044.9000;0.6813;0.8530;
1045.2000;0.6805;0.8554;
1045.5000;0.6821;0.8578;
1045.8000;0.6813;0.8625;
1046.1000;0.6821;0.8672;
1046.4000;0.6813;0.8649;
1046.7000;0.6797;0.8554;
1047.0000;0.6813;0.8530;
1047.3000;0.6748;0.8317;
1047.6000;0.6821;0.8483;
1047.9000;0.6805;0.8530;
1048.2000;0.6805;0.8578;
1048.5000;0.6813;0.8649;
1048.8000;0.6805;0.8649;
1049.1000;0.6805;0.8649;
1049.4000;0.6781;0.8554;
1049.7000;0.6797;0.8649;
1050.0000;0.6813;0.8720;
1050.3000;0.6797;0.8578;
1050.6000;0.6789;0.8506;
1050.9000;0.6764;0.8459;
1051.2000;0.6797;0.8506;
1051.5000;0.6805;0.8578;
1051.8000;0.6821;0.8720;
1052.1000;0.6797;0.8625;
1052.4000;0.6813;0.8601;
1052.7000;0.6797;0.8483;
1053.0000;0.6789;0.8483;
1053.3000;0.6781;0.8435;
1053.6000;0.6781;0.8412;
1053.9000;0.6789;0.8388;
1054.2000;0.6772;0.8293;
1054.5000;0.6772;0.8269;
1054.8000;0.6797;0.8364;
1055.1000;0.6854;0.8435;
1055.4000;0.6821;0.8293;
1055.7000;0.6789;0.8269;
1056.0000;0.6789;0.8388;
1056.3000;0.6821;0.8506;
1056.6000;0.6805;0.8554;
1056.9000;0.6797;0.8601;
1057.2000;0.6740;0.8388;
1057.5000;0.6789;0.8483;
1057.8000;0.6805;0.8506;
1058.1000;0.6781;0.8435;
1058.4000;0.6789;0.8506;
1058.7000;0.6805;0.8483;
1059.0000;0.6805;0.8459;
1059.3000;0.6789;0.8388;
1059.6000;0.6781;0.8341;
1059.9000;0.6797;0.8341;
1060.2000;0.6797;0.8364;
1060.5000;0.6789;0.8293;
1060.8000;0.6789;0.8341;
1061.1000;0.6781;0.8388;
1061.4000;0.6805;0.8459;
1061.7000;0.6813;0.8483;
1062.0000;0.6878;0.8672;
1062.3000;0.6813;0.8435;
1062.6000;0.6821;0.8483;
1062.9000;0.6813;0.8506;
1063.2000;0.6813;0.8530;
1063.5000;0.6813;0.8554;
1063.8000;0.6797;0.8459;
1064.1000;0.6805;0.8530;
1064.4000;0.6805;0.8459;
1064.7000;0.6789;0.8412;
1065.0000;0.6797;0.8435;
1065.3000;0.6789;0.8317;
1065.6000;0.6813;0.8412;
1065.9000;0.6789;0.8388;
1066.2000;0.6740;0.8269;
1066.5000;0.6772;0.8293;
1066.8000;0.6813;0.8412;
1067.1000;0.6789;0.8388;
1067.4000;0.6797;0.8435;
1067.7000;0.6789;0.8435;
1068.0000;0.6805;0.8459;
1068.3000;0.6797;0.8554;
1068.6000;0.6797;0.8578;
1068.9000;0.6789;0.8578;
1069.2000;0.6813;0.8625;
1069.5000;0.6789;0.8506;
1069.8000;0.6789;0.8412;
1070.1000;0.6805;0.8364;
1070.4000;0.6805;0.8388;
1070.7000;0.6805;0.8459;
1071.0000;0.6838;0.8530;
1071.3000;0.6797;0.8459;
1071.6000;0.6805;0.8530;
1071.9000;0.6805;0.8554;
1072.2000;0.6813;0.8506;
1072.5000;0.6805;0.8554;
1072.8000;0.6813;0.8649;
1073.1000;0.6821;0.8601;
1073.4000;0.6805;0.8554;
1073.7000;0.6789;0.8530;
1074.0000;0.6813;0.8601;
1074.3000;0.6740;0.8483;
1074.6000;0.6797;0.8554;
1074.9000;0.6829;0.8696;
1075.2000;0.6740;0.8530;
1075.5000;0.6732;0.8364;
1075.8000;0.6805;0.8506;
1076.1000;0.6813;0.8530;
1076.4000;0.6805;0.8483;
1076.7000;0.6797;0.8459;
1077.0000;0.6789;0.8483;
1077.3000;0.6772;0.8459;
1077.6000;0.6797;0.8459;
1077.9000;0.6781;0.8530;
1078.2000;0.6789;0.8601;
1078.5000;0.6797;0.8649;
1078.8000;0.6789;0.8649;
1079.1000;0.6805;0.8767;
1079.4000;0.6797;0.8720;
1079.7000;0.6781;0.8720;
1080.0000;0.6789;0.8720;
1080.3000;0.6789;0.8672;
1080.6000;0.6805;0.8554;
1080.9000;0.6805;0.8601;
1081.2000;0.6797;0.8554;
1081.5000;0.6805;0.8530;
1081.8000;0.6813;0.8578;
1082.1000;0.6821;0.8601;
1082.4000;0.6732;0.8412;
1082.7000;0.6805;0.8578;
1083.0000;0.6797;0.8578;
1083.3000;0.6740;0.8506;
1083.6000;0.6805;0.8649;
1083.9000;0.6781;0.8625;
1084.2000;0.6789;0.8649;
1084.5000;0.6797;0.8791;
1084.8000;0.6789;0.8791;
1085.1000;0.6797;0.8649;
1085.4000;0.6789;0.8625;
1085.7000;0.6895;0.8862;
1086.0000;0.6821;0.8625;
1086.3000;0.6813;0.8649;
1086.6000;0.6805;0.8554;
1086.9000;0.6813;0.8530;
1087.2000;0.6821;0.8506;
1087.5000;0.6829;0.8530;
1087.8000;0.6805;0.8459;
1088.1000;0.6797;0.8388;
1088.4000;0.6797;0.8388;
1088.7000;0.6789;0.8388;
1089.0000;0.6829;0.8530;
1089.3000;0.6764;0.8459;
1089.6000;0.6789;0.8483;
1089.9000;0.6789;0.8530;
1090.2000;0.6813;0.8483;
1090.5000;0.6854;0.8601;
1090.8000;0.6789;0.8506;
1091.1000;0.6764;0.8506;
1091.4000;0.6813;0.8601;
1091.7000;0.6764;0.8483;
1092.0000;0.6797;0.8601;
1092.3000;0.6813;0.8672;
1092.6000;0.6789;0.8625;
1092.9000;0.6789;0.8601;
1093.2000;0.6789;0.8554;
1093.5000;0.6789;0.8530;
1093.8000;0.6813;0.8625;
1094.1000;0.6748;0.8412;
1094.4000;0.6772;0.8530;
1094.7000;0.6805;0.8554;
1095.0000;0.6805;0.8672;
1095.3000;0.6813;0.8672;
1095.6000;0.6781;0.8625;
1095.9000;0.6732;0.8578;
1096.2000;0.6805;0.8767;
1096.5000;0.6748;0.8649;
1096.8000;0.6772;0.8649;
1097.1000;0.6797;0.8625;
1097.4000;0.6805;0.8696;
1097.7000;0.6789;0.8672;
1098.0000;0.6838;0.8814;
1098.3000;0.6732;0.8578;
1098.6000;0.6789;0.8649;
1098.9000;0.6797;0.8601;
1099.2000;0.6838;0.8767;
1099.5000;0.6805;0.8649;
1099.8000;0.6813;0.8625;
1100.1000;0.6813;0.8578;
1100.4000;0.6813;0.8625;
1100.7000;0.6805;0.8601;
1101.0000;0.6781;0.8554;
1101.3000;0.6797;0.8672;
1101.6000;0.6805;0.8720;
1101.9000;0.6797;0.8720;
1102.2000;0.6789;0.8625;
1102.5000;0.6813;0.8720;
1102.8000;0.6781;0.8696;
1103.1000;0.6781;0.8649;
1103.4000;0.6805;0.8601;
1103.7000;0.6781;0.8578;
1104.0000;0.6789;0.8649;
1104.3000;0.6772;0.8578;
1104.6000;0.6789;0.8578;
1104.9000;0.6805;0.8578;
1105.2000;0.6805;0.8601;
1105.5000;0.6797;0.8578;
1105.8000;0.6805;0.8696;
1106.1000;0.6805;0.8672;
1106.4000;0.6813;0.8743;
1106.7000;0.6805;0.8696;
1107.0000;0.6805;0.8625;
1107.3000;0.6813;0.8649;
1107.6000;0.6805;0.8743;
1107.9000;0.6716;0.8530;
1108.2000;0.6789;0.8649;
1108.5000;0.6805;0.8649;
1108.8000;0.6813;0.8649;
1109.1000;0.6813;0.8625;
1109.4000;0.6797;0.8578;
1109.7000;0.6797;0.8649;
1110.0000;0.6813;0.8720;
1110.3000;0.6805;0.8672;
1110.6000;0.6789;0.8554;
1110.9000;0.6789;0.8601;
1111.2000;0.6789;0.8601;
1111.5000;0.6797;0.8554;
1111.8000;0.6789;0.8459;
1112.1000;0.6846;0.8554;
1112.4000;0.6772;0.8483;
1112.7000;0.6781;0.8554;
1113.0000;0.6748;0.8459;
1113.3000;0.6797;0.8625;
1113.6000;0.6772;0.8554;
1113.9000;0.6813;0.8720;
1114.2000;0.6797;0.8720;
1114.5000;0.6740;0.8530;
1114.8000;0.6789;0.8672;
1115.1000;0.6797;0.8672;
1115.4000;0.6797;0.8649;
1115.7000;0.6821;0.8862;
1116.0000;0.6748;0.8720;
1116.3000;0.6821;0.8862;
1116.6000;0.6813;0.8838;
1116.9000;0.6772;0.8720;
1117.2000;0.6781;0.8720;
1117.5000;0.6813;0.8720;
1117.8000;0.6797;0.8578;
1118.1000;0.6789;0.8530;
1118.4000;0.6748;0.8364;
1118.7000;0.6789;0.8412;
1119.0000;0.6789;0.8483;
1119.3000;0.6797;0.8530;
1119.6000;0.6797;0.8625;
1119.9000;0.6821;0.8649;
1120.2000;0.6805;0.8601;
1120.5000;0.6781;0.8506;
1120.8000;0.6805;0.8530;
1121.1000;0.6772;0.8578;
1121.4000;0.6764;0.8578;
1121.7000;0.6756;0.8578;
1122.0000;0.6764;0.8530;
1122.3000;0.6829;0.8720;
1122.6000;0.6789;0.8578;
1122.9000;0.6797;0.8554;
1123.2000;0.6797;0.8625;
1123.5000;0.6797;0.8767;
1123.8000;0.6781;0.8672;
1124.1000;0.6797;0.8743;
1124.4000;0.6781;0.8767;
1124.7000;0.6789;0.8720;
1125.0000;0.6797;0.8791;
1125.3000;0.6805;0.8791;
1125.6000;0.6789;0.8767;
1125.9000;0.6797;0.8649;
1126.2000;0.6838;0.8696;
1126.5000;0.6781;0.8554;
1126.8000;0.6781;0.8601;
1127.1000;0.6781;0.8625;
1127.4000;0.6772;0.8601;
1127.7000;0.6781;0.8720;
1128.0000;0.6789;0.8601;
1128.3000;0.6781;0.8435;
1128.6000;0.6781;0.8483;
1128.9000;0.6781;0.8459;
1129.2000;0.6789;0.8578;
1129.5000;0.6813;0.8601;
1129.8000;0.6789;0.8578;
1130.1000;0.6805;0.8625;
1130.4000;0.6789;0.8554;
1130.7000;0.6805;0.8672;
1131.0000;0.6789;0.8696;
1131.3000;0.6756;0.8720;
1131.6000;0.6781;0.8743;
1131.9000;0.6797;0.8743;
1132.2000;0.6789;0.8743;
1132.5000;0.6764;0.8696;
1132.8000;0.6797;0.8672;
1133.1000;0.6805;0.8672;
1133.4000;0.6805;0.8743;
1133.7000;0.6862;0.8814;
1134.0000;0.6772;0.8696;
1134.3000;0.6797;0.8696;
1134.6000;0.6748;0.8649;
1134.9000;0.6805;0.8743;
1135.2000;0.6821;0.8838;
1135.5000;0.6789;0.8791;
1135.8000;0.6805;0.8767;
1136.1000;0.6764;0.8672;
1136.4000;0.6813;0.8814;
1136.7000;0.6797;0.8743;
1137.0000;0.6797;0.8672;
1137.3000;0.6846;0.8814;
1137.6000;0.6772;0.8649;
1137.9000;0.6781;0.8720;
1138.2000;0.6789;0.8672;
1138.5000;0.6813;0.8696;
1138.8000;0.6789;0.8672;
1139.1000;0.6797;0.8791;
1139.4000;0.6764;0.8672;
1139.7000;0.6846;0.8791;
1140.0000;0.6781;0.8649;
1140.3000;0.6797;0.8649;
1140.6000;0.6797;0.8672;
1140.9000;0.6789;0.8649;
1141.2000;0.6789;0.8601;
1141.5000;0.6789;0.8483;
1141.8000;0.6781;0.8483;
1142.1000;0.6797;0.8506;
1142.4000;0.6805;0.8601;
1142.7000;0.6789;0.8625;
1143.0000;0.6789;0.8625;
1143.3000;0.6789;0.8625;
1143.6000;0.6789;0.8649;
1143.9000;0.6781;0.8672;
1144.2000;0.6797;0.8672;
1144.5000;0.6797;0.8649;
1144.8000;0.6797;0.8625;
1145.1000;0.6781;0.8649;
1145.4000;0.6756;0.8672;
1145.7000;0.6772;0.8672;
1146.0000;0.6805;0.8649;
1146.3000;0.6764;0.8578;
1146.6000;0.6797;0.8649;
1146.9000;0.6781;0.8578;
1147.2000;0.6821;0.8625;
1147.5000;0.6789;0.8530;
1147.8000;0.6764;0.8483;
1148.1000;0.6781;0.8506;
1148.4000;0.6797;0.8578;
1148.7000;0.6781;0.8435;
1149.0000;0.6805;0.8554;
1149.3000;0.6781;0.8530;
1149.6000;0.6789;0.8506;
1149.9000;0.6805;0.8506;
1150.2000;0.6789;0.8530;
1150.5000;0.6789;0.8554;
1150.8000;0.6781;0.8554;
1151.1000;0.6789;0.8530;
1151.4000;0.6789;0.8578;
1151.7000;0.6781;0.8578;
1152.0000;0.6781;0.8601;
1152.3000;0.6772;0.8554;
1152.6000;0.6781;0.8625;
1152.9000;0.6797;0.8672;
1153.2000;0.6797;0.8672;
1153.5000;0.6805;0.8720;
1153.8000;0.6797;0.8649;
1154.1000;0.6797;0.8649;
1154.4000;0.6756;0.8506;
1154.7000;0.6781;0.8554;
1155.0000;0.6789;0.8578;
1155.3000;0.6789;0.8554;
1155.6000;0.6772;0.8459;
1155.9000;0.6789;0.8578;
1156.2000;0.6772;0.8506;
1156.5000;0.6797;0.8530;
1156.8000;0.6772;0.8483;
1157.1000;0.6781;0.8578;
1157.4000;0.6772;0.8601;
1157.7000;0.6781;0.8625;
1158.0000;0.6756;0.8578;
1158.3000;0.6813;0.8720;
1158.6000;0.6797;0.8672;
1158.9000;0.6829;0.8791;
1159.2000;0.6797;0.8649;
1159.5000;0.6781;0.8578;
1159.8000;0.6805;0.8625;
1160.1000;0.6797;0.8720;
1160.4000;0.6764;0.8554;
1160.7000;0.6805;0.8578;
1161.0000;0.6789;0.8530;
1161.3000;0.6797;0.8554;
1161.6000;0.6764;0.8530;
1161.9000;0.6789;0.8649;
1162.2000;0.6764;0.8601;
1162.5000;0.6789;0.8601;
1162.8000;0.6772;0.8625;
1163.1000;0.6732;0.8530;
1163.4000;0.6707;0.8483;
1163.7000;0.6797;0.8720;
1164.0000;0.6789;0.8743;
1164.3000;0.6781;0.8720;
1164.6000;0.6772;0.8696;
1164.9000;0.6789;0.8696;
1165.2000;0.6789;0.8814;
1165.5000;0.6789;0.8838;
1165.8000;0.6789;0.8933;
1166.1000;0.6821;0.8933;
1166.4000;0.6797;0.8933;
1166.7000;0.6797;0.8933;
1167.0000;0.6789;0.8767;
1167.3000;0.6789;0.8720;
1167.6000;0.6789;0.8720;
1167.9000;0.6797;0.8838;
1168.2000;0.6781;0.8814;
1168.5000;0.6781;0.8838;
1168.8000;0.6781;0.8838;
1169.1000;0.6797;0.8838;
1169.4000;0.6797;0.8862;
1169.7000;0.6789;0.8933;
1170.0000;0.6781;0.8933;
1170.3000;0.6789;0.8909;
1170.6000;0.6797;0.8862;
1170.9000;0.6764;0.8814;
1171.2000;0.6764;0.8814;
1171.5000;0.6781;0.8862;
1171.8000;0.6772;0.8814;
1172.1000;0.6789;0.8909;
1172.4000;0.6764;0.8838;
1172.7000;0.6781;0.8767;
1173.0000;0.6797;0.8767;
1173.3000;0.6789;0.8743;
1173.6000;0.6789;0.8791;
1173.9000;0.6789;0.8862;
1174.2000;0.6781;0.8791;
1174.5000;0.6789;0.8862;
1174.8000;0.6797;0.8838;
1175.1000;0.6789;0.8838;
1175.4000;0.6764;0.8767;
1175.7000;0.6797;0.8791;
1176.0000;0.6789;0.8743;
1176.3000;0.6895;0.8957;
1176.6000;0.6797;0.8625;
1176.9000;0.6789;0.8601;
1177.2000;0.6781;0.8649;
1177.5000;0.6781;0.8649;
1177.8000;0.6789;0.8743;
1178.1000;0.6805;0.8791;
1178.4000;0.6789;0.8791;
1178.7000;0.6772;0.8767;
1179.0000;0.6789;0.8791;
1179.3000;0.6789;0.8720;
1179.6000;0.6764;0.8649;
1179.9000;0.6781;0.8696;
1180.2000;0.6772;0.8767;
1180.5000;0.6756;0.8767;
1180.8000;0.6838;0.8957;
1181.1000;0.6724;0.8649;
1181.4000;0.6781;0.8909;
1181.7000;0.6781;0.8933;
1182.0000;0.6781;0.8886;
1182.3000;0.6797;0.8933;
1182.6000;0.6756;0.8791;
1182.9000;0.6797;0.8862;
1183.2000;0.6781;0.8767;
1183.5000;0.6764;0.8696;
1183.8000;0.6772;0.8672;
1184.1000;0.6764;0.8649;
1184.4000;0.6797;0.8649;
1184.7000;0.6829;0.8767;
1185.0000;0.6854;0.8838;
1185.3000;0.6772;0.8743;
1185.6000;0.6781;0.8814;
1185.9000;0.6789;0.8909;
1186.2000;0.6781;0.8814;
1186.5000;0.6797;0.8791;
1186.8000;0.6789;0.8767;
1187.1000;0.6781;0.8791;
1187.4000;0.6772;0.8791;
1187.7000;0.6772;0.8791;
1188.0000;0.6789;0.8814;
1188.3000;0.6797;0.8886;
1188.6000;0.6805;0.8886;
1188.9000;0.6789;0.8814;
1189.2000;0.6805;0.8862;
1189.5000;0.6789;0.8886;
1189.8000;0.6862;0.9099;
1190.1000;0.6797;0.9051;
1190.4000;0.6781;0.9099;
1190.7000;0.6789;0.9075;
1191.0000;0.6781;0.9004;
1191.3000;0.6781;0.9004;
1191.6000;0.6781;0.9028;
1191.9000;0.6772;0.9004;
1192.2000;0.6805;0.9028;
1192.5000;0.6781;0.8909;
1192.8000;0.6789;0.8909;
1193.1000;0.6781;0.8862;
1193.4000;0.6781;0.8933;
1193.7000;0.6756;0.8814;
1194.0000;0.6781;0.8838;
1194.3000;0.6789;0.8838;
1194.6000;0.6772;0.8886;
1194.9000;0.6781;0.8862;
1195.2000;0.6683;0.8601;
1195.5000;0.6805;0.8886;
1195.8000;0.6781;0.8838;
1196.1000;0.6797;0.8886;
1196.4000;0.6716;0.8649;
1196.7000;0.6781;0.8838;
1197.0000;0.6797;0.8838;
1197.3000;0.6724;0.8578;
1197.6000;0.6813;0.8791;
1197.9000;0.6789;0.8767;
1198.2000;0.6789;0.8838;
1198.5000;0.6781;0.8886;
1198.8000;0.6789;0.8838;
1199.1000;0.6748;0.8791;
1199.4000;0.6781;0.8862;
1199.7000;0.6772;0.8862;
1200.0000;0.6764;0.8886;
1200.3000;0.6789;0.8886;
1200.6000;0.6756;0.8791;
1200.9000;0.6772;0.8862;
1201.2000;0.6772;0.8814;
1201.5000;0.6813;0.8862;
1201.8000;0.6781;0.8814;
1202.1000;0.6756;0.8743;
1202.4000;0.6789;0.8649;
1202.7000;0.6805;0.8743;
1203.0000;0.6797;0.8696;
1203.3000;0.6797;0.8649;
1203.6000;0.6781;0.8601;
1203.9000;0.6789;0.8672;
1204.2000;0.6797;0.8649;
1204.5000;0.6732;0.8530;
1204.8000;0.6781;0.8672;
1205.1000;0.6732;0.8506;
1205.4000;0.6781;0.8696;
1205.7000;0.6772;0.8720;
1206.0000;0.6732;0.8601;
1206.3000;0.6781;0.8767;
1206.6000;0.6838;0.8886;
1206.9000;0.6797;0.8743;
1207.2000;0.6748;0.8578;
1207.5000;0.6813;0.8791;
1207.8000;0.6797;0.8743;
1208.1000;0.6797;0.8767;
1208.4000;0.6789;0.8862;
1208.7000;0.6781;0.8862;
1209.0000;0.6772;0.8886;
1209.3000;0.6772;0.8791;
1209.6000;0.6764;0.8791;
1209.9000;0.6878;0.9028;
1210.2000;0.6797;0.8886;
1210.5000;0.6781;0.8767;
1210.8000;0.6724;0.8720;
1211.1000;0.6756;0.8814;
1211.4000;0.6724;0.8743;
1211.7000;0.6772;0.8814;
1212.0000;0.6748;0.8767;
1212.3000;0.6813;0.8957;
1212.6000;0.6797;0.8838;
1212.9000;0.6781;0.8791;
1213.2000;0.6781;0.8672;
1213.5000;0.6789;0.8720;
1213.8000;0.6805;0.8791;
1214.1000;0.6781;0.8649;
1214.4000;0.6764;0.8506;
1214.7000;0.6781;0.8578;
1215.0000;0.6707;0.8459;
1215.3000;0.6764;0.8554;
1215.6000;0.6789;0.8554;
1215.9000;0.6756;0.8530;
1216.2000;0.6764;0.8554;
1216.5000;0.6764;0.8578;
1216.8000;0.6772;0.8649;
1217.1000;0.6756;0.8554;
1217.4000;0.6781;0.8578;
1217.7000;0.6781;0.8601;
1218.0000;0.6772;0.8672;
1218.3000;0.6781;0.8649;
1218.6000;0.6764;0.8649;
1218.9000;0.6756;0.8696;
1219.2000;0.6772;0.8814;
1219.5000;0.6781;0.8862;
1219.8000;0.6756;0.8814;
1220.1000;0.6764;0.8909;
1220.4000;0.6772;0.8933;
1220.7000;0.6756;0.8862;
1221.0000;0.6756;0.8814;
1221.3000;0.6716;0.8625;
1221.6000;0.6748;0.8672;
1221.9000;0.6724;0.8506;
1222.2000;0.6781;0.8696;
1222.5000;0.6732;0.8625;
1222.8000;0.6781;0.8720;
1223.1000;0.6805;0.8862;
1223.4000;0.6772;0.8720;
1223.7000;0.6781;0.8814;
1224.0000;0.6756;0.8814;
1224.3000;0.6781;0.8838;
1224.6000;0.6781;0.8957;
1224.9000;0.6781;0.8862;
1225.2000;0.6764;0.8838;
1225.5000;0.6772;0.8886;
1225.8000;0.6870;0.9099;
1226.1000;0.6772;0.8886;
1226.4000;0.6764;0.8886;
1226.7000;0.6772;0.8862;
1227.0000;0.6781;0.8838;
1227.3000;0.6781;0.8767;
1227.6000;0.6821;0.8886;
1227.9000;0.6797;0.8791;
1228.2000;0.6781;0.8720;
1228.5000;0.6764;0.8554;
1228.8000;0.6789;0.8578;
1229.1000;0.6805;0.8625;
1229.4000;0.6772;0.8672;
1229.7000;0.6781;0.8554;
1230.0000;0.6781;0.8554;
1230.3000;0.6772;0.8554;
1230.6000;0.6772;0.8554;
1230.9000;0.6772;0.8435;
1231.2000;0.6781;0.8483;
1231.5000;0.6781;0.8483;
1231.8000;0.6772;0.8530;
1232.1000;0.6756;0.8483;
1232.4000;0.6764;0.8530;
1232.7000;0.6772;0.8459;
1233.0000;0.6789;0.8483;
1233.3000;0.6756;0.8435;
1233.6000;0.6781;0.8459;
1233.9000;0.6797;0.8435;
1234.2000;0.6756;0.8412;
1234.5000;0.6781;0.8483;
1234.8000;0.6813;0.8578;
1235.1000;0.6781;0.8506;
1235.4000;0.6772;0.8506;
1235.7000;0.6764;0.8554;
1236.0000;0.6756;0.8483;
1236.3000;0.6781;0.8530;
1236.6000;0.6789;0.8506;
1236.9000;0.6813;0.8530;
1237.2000;0.6764;0.8459;
1237.5000;0.6789;0.8601;
1237.8000;0.6764;0.8578;
1238.1000;0.6781;0.8649;
1238.4000;0.6789;0.8649;
1238.7000;0.6805;0.8625;
1239.0000;0.6772;0.8530;
1239.3000;0.6789;0.8696;
1239.6000;0.6781;0.8696;
1239.9000;0.6772;0.8625;
1240.2000;0.6781;0.8743;
1240.5000;0.6781;0.8767;
1240.8000;0.6789;0.8720;
1241.1000;0.6772;0.8696;
1241.4000;0.6772;0.8696;
1241.7000;0.6789;0.8696;
1242.0000;0.6789;0.8791;
1242.3000;0.6772;0.8767;
1242.6000;0.6772;0.8767;
1242.9000;0.6789;0.8814;
1243.2000;0.6781;0.8791;
1243.5000;0.6772;0.8791;
1243.8000;0.6772;0.8743;
1244.1000;0.6789;0.8743;
1244.4000;0.6821;0.8838;
1244.7000;0.6781;0.8743;
1245.0000;0.6756;0.8743;
1245.3000;0.6805;0.8886;
1245.6000;0.6829;0.8933;
1245.9000;0.6764;0.8743;
1246.2000;0.6781;0.8743;
1246.5000;0.6781;0.8791;
1246.8000;0.6797;0.8838;
1247.1000;0.6789;0.8767;
1247.4000;0.6699;0.8554;
1247.7000;0.6781;0.8696;
1248.0000;0.6756;0.8672;
1248.3000;0.6781;0.8743;
1248.6000;0.6789;0.8767;
1248.9000;0.6781;0.8720;
1249.2000;0.6789;0.8720;
1249.5000;0.6772;0.8696;
1249.8000;0.6772;0.8625;
1250.1000;0.6813;0.8767;
1250.4000;0.6772;0.8625;
1250.7000;0.6772;0.8649;
1251.0000;0.6781;0.8554;
1251.3000;0.6797;0.8506;
1251.6000;0.6781;0.8483;
1251.9000;0.6789;0.8601;
1252.2000;0.6813;0.8649;
1252.5000;0.6683;0.8341;
1252.8000;0.6781;0.8554;
1253.1000;0.6781;0.8554;
1253.4000;0.6781;0.8696;
1253.7000;0.6781;0.8767;
1254.0000;0.6781;0.8696;
1254.3000;0.6821;0.8814;
1254.6000;0.6772;0.8696;
1254.9000;0.6781;0.8696;
1255.2000;0.6789;0.8649;
1255.5000;0.6756;0.8601;
1255.8000;0.6781;0.8601;
1256.1000;0.6789;0.8578;
1256.4000;0.6781;0.8601;
1256.7000;0.6789;0.8649;
1257.0000;0.6772;0.8601;
1257.3000;0.6781;0.8672;
1257.6000;0.6781;0.8649;
1257.9000;0.6772;0.8649;
1258.2000;0.6772;0.8696;
1258.5000;0.6781;0.8814;
1258.8000;0.6789;0.8743;
1259.1000;0.6789;0.8767;
1259.4000;0.6789;0.8625;
1259.7000;0.6789;0.8554;
1260.0000;0.6772;0.8459;
1260.3000;0.6756;0.8435;
1260.6000;0.6772;0.8506;
1260.9000;0.6764;0.8554;
1261.2000;0.6772;0.8554;
1261.5000;0.6781;0.8459;
1261.8000;0.6781;0.8412;
1262.1000;0.6756;0.8435;
1262.4000;0.6813;0.8506;
1262.7000;0.6781;0.8412;
1263.0000;0.6789;0.8459;
1263.3000;0.6797;0.8578;
1263.6000;0.6781;0.8649;
1263.9000;0.6756;0.8530;
1264.2000;0.6756;0.8601;
1264.5000;0.6756;0.8696;
1264.8000;0.6781;0.8743;
1265.1000;0.6789;0.8696;
1265.4000;0.6724;0.8578;
1265.7000;0.6756;0.8625;
1266.0000;0.6789;0.8649;
1266.3000;0.6781;0.8506;
1266.6000;0.6732;0.8364;
1266.9000;0.6764;0.8506;
1267.2000;0.6764;0.8459;
1267.5000;0.6756;0.8435;
1267.8000;0.6781;0.8506;
1268.1000;0.6764;0.8412;
1268.4000;0.6781;0.8412;
1268.7000;0.6781;0.8412;
1269.0000;0.6781;0.8412;
1269.3000;0.6772;0.8341;
1269.6000;0.6756;0.8293;
1269.9000;0.6772;0.8388;
1270.2000;0.6789;0.8388;
1270.5000;0.6756;0.8364;
1270.8000;0.6772;0.8459;
1271.1000;0.6740;0.8364;
1271.4000;0.6724;0.8435;
1271.7000;0.6789;0.8601;
1272.0000;0.6707;0.8483;
1272.3000;0.6748;0.8625;
1272.6000;0.6781;0.8791;
1272.9000;0.6772;0.8791;
1273.2000;0.6772;0.8886;
1273.5000;0.6764;0.8909;
1273.8000;0.6781;0.8933;
1274.1000;0.6772;0.8933;
1274.4000;0.6772;0.8933;
1274.7000;0.6813;0.8909;
1275.0000;0.6781;0.8814;
1275.3000;0.6821;0.8933;
1275.6000;0.6781;0.8862;
1275.9000;0.6772;0.8862;
1276.2000;0.6724;0.8720;
1276.5000;0.6781;0.8933;
1276.8000;0.6772;0.8862;
1277.1000;0.6781;0.8886;
1277.4000;0.6781;0.8743;
1277.7000;0.6764;0.8672;
1278.0000;0.6789;0.8720;
1278.3000;0.6781;0.8696;
1278.6000;0.6756;0.8578;
1278.9000;0.6781;0.8625;
1279.2000;0.6805;0.8649;
1279.5000;0.6781;0.8530;
1279.8000;0.6781;0.8530;
1280.1000;0.6781;0.8601;
1280.4000;0.6797;0.8672;
1280.7000;0.6772;0.8649;
1281.0000;0.6781;0.8625;
1281.3000;0.6772;0.8578;
1281.6000;0.6781;0.8459;
1281.9000;0.6772;0.8530;
1282.2000;0.6748;0.8578;
1282.5000;0.6781;0.8720;
1282.8000;0.6772;0.8696;
1283.1000;0.6789;0.8720;
1283.4000;0.6772;0.8625;
1283.7000;0.6781;0.8767;
1284.0000;0.6781;0.8743;
1284.3000;0.6756;0.8625;
1284.6000;0.6789;0.8696;
1284.9000;0.6789;0.8578;
1285.2000;0.6789;0.8649;
1285.5000;0.6772;0.8720;
1285.8000;0.6789;0.8696;
1286.1000;0.6789;0.8601;
1286.4000;0.6781;0.8506;
1286.7000;0.6781;0.8554;
1287.0000;0.6789;0.8530;
1287.3000;0.6772;0.8530;
1287.6000;0.6805;0.8625;
1287.9000;0.6781;0.8530;
1288.2000;0.6781;0.8506;
1288.5000;0.6764;0.8435;
1288.8000;0.6772;0.8483;
1289.1000;0.6764;0.8459;
1289.4000;0.6772;0.8483;
1289.7000;0.6789;0.8506;
1290.0000;0.6756;0.8459;
1290.3000;0.6756;0.8483;
1290.6000;0.6772;0.8578;
1290.9000;0.6748;0.8506;
1291.2000;0.6748;0.8483;
1291.5000;0.6772;0.8578;
1291.8000;0.6772;0.8578;
1292.1000;0.6781;0.8649;
1292.4000;0.6781;0.8696;
1292.7000;0.6756;0.8649;
1293.0000;0.6756;0.8672;
1293.3000;0.6781;0.8720;
1293.6000;0.6740;0.8625;
1293.9000;0.6707;0.8554;
1294.2000;0.6772;0.8696;
1294.5000;0.6789;0.8720;
1294.8000;0.6781;0.8720;
1295.1000;0.6772;0.8696;
1295.4000;0.6756;0.8625;
1295.7000;0.6781;0.8743;
1296.0000;0.6764;0.8720;
1296.3000;0.6756;0.8696;
1296.6000;0.6772;0.8601;
1296.9000;0.6813;0.8720;
1297.2000;0.6781;0.8625;
1297.5000;0.6764;0.8506;
1297.8000;0.6772;0.8625;
1298.1000;0.6764;0.8649;
1298.4000;0.6764;0.8601;
1298.7000;0.6756;0.8530;
1299.0000;0.6764;0.8625;
1299.3000;0.6829;0.8791;
1299.6000;0.6789;0.8672;
1299.9000;0.6781;0.8506;
1300.2000;0.6772;0.8483;
1300.5000;0.6781;0.8554;
1300.8000;0.6781;0.8530;
1301.1000;0.6781;0.8554;
1301.4000;0.6789;0.8578;
1301.7000;0.6797;0.8459;
1302.0000;0.6764;0.8412;
1302.3000;0.6789;0.8554;
1302.6000;0.6772;0.8530;
1302.9000;0.6740;0.8578;
1303.2000;0.6772;0.8791;
1303.5000;0.6781;0.8767;
1303.8000;0.6781;0.8672;
1304.1000;0.6748;0.8625;
1304.4000;0.6772;0.8649;
1304.7000;0.6789;0.8672;
1305.0000;0.6764;0.8625;
1305.3000;0.6764;0.8625;
1305.6000;0.6724;0.8649;
1305.9000;0.6772;0.8743;
1306.2000;0.6781;0.8838;
1306.5000;0.6756;0.8743;
1306.8000;0.6756;0.8814;
1307.1000;0.6772;0.8862;
1307.4000;0.6756;0.8791;
1307.7000;0.6740;0.8720;
1308.0000;0.6740;0.8696;
1308.3000;0.6764;0.8767;
1308.6000;0.6764;0.8814;
1308.9000;0.6732;0.8696;
1309.2000;0.6756;0.8720;
1309.5000;0.6821;0.8791;
1309.8000;0.6772;0.8649;
1310.1000;0.6764;0.8649;
1310.4000;0.6772;0.8696;
1310.7000;0.6789;0.8672;
1311.0000;0.6797;0.8791;
1311.3000;0.6797;0.8814;
1311.6000;0.6781;0.8696;
1311.9000;0.6789;0.8696;
1312.2000;0.6772;0.8625;
1312.5000;0.6764;0.8578;
1312.8000;0.6764;0.8554;
1313.1000;0.6764;0.8601;
1313.4000;0.6748;0.8625;
1313.7000;0.6781;0.8672;
1314.0000;0.6772;0.8601;
1314.3000;0.6772;0.8649;
1314.6000;0.6732;0.8578;
1314.9000;0.6764;0.8649;
1315.2000;0.6781;0.8720;
1315.5000;0.6781;0.8767;
1315.8000;0.6781;0.8838;
1316.1000;0.6789;0.8814;
1316.4000;0.6821;0.8886;
1316.7000;0.6756;0.8743;
1317.0000;0.6732;0.8720;
1317.3000;0.6789;0.8767;
1317.6000;0.6772;0.8696;
1317.9000;0.6781;0.8696;
1318.2000;0.6756;0.8767;
1318.5000;0.6756;0.8743;
1318.8000;0.6764;0.8838;
1319.1000;0.6748;0.8814;
1319.4000;0.6781;0.8767;
1319.7000;0.6772;0.8767;
1320.0000;0.6797;0.8791;
1320.3000;0.6764;0.8720;
1320.6000;0.6772;0.8720;
1320.9000;0.6716;0.8625;
1321.2000;0.6764;0.8696;
1321.5000;0.6781;0.8743;
1321.8000;0.6781;0.8720;
1322.1000;0.6781;0.8767;
1322.4000;0.6797;0.8933;
1322.7000;0.6789;0.8980;
1323.0000;0.6781;0.8980;
1323.3000;0.6716;0.8814;
1323.6000;0.6764;0.8957;
1323.9000;0.6772;0.9004;
1324.2000;0.6781;0.9028;
1324.5000;0.6756;0.8957;
1324.8000;0.6797;0.9004;
1325.1000;0.6789;0.8886;
1325.4000;0.6821;0.8957;
1325.7000;0.6764;0.8743;
1326.0000;0.6748;0.8649;
1326.3000;0.6764;0.8672;
1326.6000;0.6781;0.8720;
1326.9000;0.6772;0.8720;
1327.2000;0.6838;0.8862;
1327.5000;0.6772;0.8720;
1327.8000;0.6797;0.8838;
1328.1000;0.6789;0.8814;
1328.4000;0.6740;0.8672;
1328.7000;0.6781;0.8696;
1329.0000;0.6756;0.8625;
1329.3000;0.6772;0.8649;
1329.6000;0.6748;0.8625;
1329.9000;0.6797;0.8767;
1330.2000;0.6813;0.8743;
1330.5000;0.6789;0.8696;
1330.8000;0.6781;0.8720;
1331.1000;0.6805;0.8767;
1331.4000;0.6772;0.8791;
1331.7000;0.6781;0.8791;
1332.0000;0.6756;0.8649;
1332.3000;0.6756;0.8672;
1332.6000;0.6732;0.8649;
1332.9000;0.6756;0.8743;
1333.2000;0.6764;0.8791;
1333.5000;0.6764;0.8696;
1333.8000;0.6764;0.8696;
1334.1000;0.6772;0.8720;
1334.4000;0.6732;0.8554;
1334.7000;0.6764;0.8578;
1335.0000;0.6764;0.8554;
1335.3000;0.6772;0.8672;
1335.6000;0.6772;0.8672;
1335.9000;0.6772;0.8672;
1336.2000;0.6797;0.8696;
1336.5000;0.6781;0.8672;
1336.8000;0.6772;0.8672;
1337.1000;0.6781;0.8649;
1337.4000;0.6748;0.8578;
1337.7000;0.6748;0.8578;
1338.0000;0.6772;0.8649;
1338.3000;0.6756;0.8625;
1338.6000;0.6772;0.8625;
1338.9000;0.6716;0.8530;
1339.2000;0.6789;0.8696;
1339.5000;0.6748;0.8720;
1339.8000;0.6756;0.8720;
1340.1000;0.6781;0.8743;
1340.4000;0.6789;0.8672;
1340.7000;0.6772;0.8625;
1341.0000;0.6829;0.8814;
1341.3000;0.6772;0.8672;
1341.6000;0.6789;0.8720;
1341.9000;0.6789;0.8720;
1342.2000;0.6756;0.8696;
1342.5000;0.6756;0.8672;
1342.8000;0.6764;0.8791;
1343.1000;0.6748;0.8767;
1343.4000;0.6724;0.8720;
1343.7000;0.6764;0.8814;
1344.0000;0.6756;0.8791;
1344.3000;0.6772;0.8862;
1344.6000;0.6764;0.8886;
1344.9000;0.6756;0.8886;
1345.2000;0.6764;0.8838;
1345.5000;0.6772;0.8814;
1345.8000;0.6772;0.8791;
1346.1000;0.6789;0.8838;
1346.4000;0.6805;0.8838;
1346.7000;0.6772;0.8743;
1347.0000;0.6789;0.8814;
1347.3000;0.6764;0.8791;
1347.6000;0.6756;0.8814;
1347.9000;0.6781;0.8886;
1348.2000;0.6789;0.8838;
1348.5000;0.6748;0.8862;
1348.8000;0.6764;0.8814;
1349.1000;0.6756;0.8720;
1349.4000;0.6756;0.8672;
1349.7000;0.6781;0.8720;
1350.0000;0.6772;0.8886;
1350.3000;0.6764;0.8886;
1350.6000;0.6781;0.8980;
1350.9000;0.6764;0.8909;
1351.2000;0.6764;0.8957;
1351.5000;0.6781;0.8957;
1351.8000;0.6756;0.8862;
1352.1000;0.6789;0.8862;
1352.4000;0.6748;0.8743;
1352.7000;0.6764;0.8743;
1353.0000;0.6748;0.8767;
1353.3000;0.6772;0.8838;
1353.6000;0.6764;0.8838;
1353.9000;0.6772;0.8862;
1354.2000;0.6724;0.8767;
1354.5000;0.6772;0.8909;
1354.8000;0.6764;0.8838;
1355.1000;0.6772;0.8743;
1355.4000;0.6740;0.8625;
1355.7000;0.6748;0.8720;
1356.0000;0.6748;0.8696;
1356.3000;0.6756;0.8696;
1356.6000;0.6756;0.8696;
1356.9000;0.6772;0.8743;
1357.2000;0.6772;0.8767;
1357.5000;0.6772;0.8767;
1357.8000;0.6781;0.8720;
1358.1000;0.6789;0.8767;
1358.4000;0.6781;0.8696;
1358.7000;0.6781;0.8672;
1359.0000;0.6772;0.8720;
1359.3000;0.6870;0.8980;
1359.6000;0.6789;0.8720;
1359.9000;0.6781;0.8767;
1360.2000;0.6756;0.8672;
1360.5000;0.6748;0.8601;
1360.8000;0.6781;0.8743;
1361.1000;0.6781;0.8743;
1361.4000;0.6772;0.8720;
1361.7000;0.6797;0.8743;
1362.0000;0.6781;0.8672;
1362.3000;0.6772;0.8720;
1362.6000;0.6748;0.8601;
1362.9000;0.6716;0.8483;
1363.2000;0.6756;0.8625;
1363.5000;0.6781;0.8720;
1363.8000;0.6772;0.8649;
1364.1000;0.6756;0.8601;
1364.4000;0.6756;0.8578;
1364.7000;0.6691;0.8459;
1365.0000;0.6748;0.8625;
1365.3000;0.6772;0.8720;
1365.6000;0.6764;0.8696;
1365.9000;0.6772;0.8767;
1366.2000;0.6772;0.8886;
1366.5000;0.6789;0.8933;
1366.8000;0.6764;0.8933;
1367.1000;0.6781;0.8909;
1367.4000;0.6838;0.9004;
1367.7000;0.6789;0.8886;
1368.0000;0.6756;0.8767;
1368.3000;0.6772;0.8838;
1368.6000;0.6764;0.8886;
1368.9000;0.6781;0.8933;
1369.2000;0.6756;0.8814;
1369.5000;0.6805;0.8862;
1369.8000;0.6781;0.8696;
1370.1000;0.6781;0.8838;
1370.4000;0.6764;0.8886;
1370.7000;0.6781;0.8909;
1371.0000;0.6748;0.8838;
1371.3000;0.6781;0.8933;
1371.6000;0.6781;0.8886;
1371.9000;0.6789;0.8886;
1372.2000;0.6781;0.8909;
1372.5000;0.6772;0.8933;
1372.8000;0.6764;0.8886;
1373.1000;0.6756;0.8909;
1373.4000;0.6772;0.8862;
1373.7000;0.6772;0.8862;
1374.0000;0.6764;0.8720;
1374.3000;0.6756;0.8649;
1374.6000;0.6772;0.8672;
1374.9000;0.6756;0.8720;
1375.2000;0.6756;0.8720;
1375.5000;0.6683;0.8506;
1375.8000;0.6772;0.8720;
1376.1000;0.6772;0.8696;
1376.4000;0.6781;0.8791;
1376.7000;0.6764;0.8791;
1377.0000;0.6764;0.8767;
1377.3000;0.6772;0.8791;
1377.6000;0.6797;0.8838;
1377.9000;0.6764;0.8791;
1378.2000;0.6699;0.8578;
1378.5000;0.6764;0.8791;
1378.8000;0.6772;0.8743;
1379.1000;0.6789;0.8791;
1379.4000;0.6724;0.8791;
1379.7000;0.6756;0.8838;
1380.0000;0.6772;0.8862;
1380.3000;0.6764;0.8791;
1380.6000;0.6764;0.8814;
1380.9000;0.6764;0.8743;
1381.2000;0.6764;0.8743;
1381.5000;0.6764;0.8672;
1381.8000;0.6772;0.8672;
1382.1000;0.6764;0.8578;
1382.4000;0.6772;0.8506;
1382.7000;0.6781;0.8506;
1383.0000;0.6764;0.8506;
1383.3000;0.6756;0.8578;
1383.6000;0.6781;0.8625;
1383.9000;0.6781;0.8625;
1384.2000;0.6764;0.8625;
1384.5000;0.6846;0.8909;
1384.8000;0.6748;0.8720;
1385.1000;0.6764;0.8743;
1385.4000;0.6748;0.8720;
1385.7000;0.6781;0.8696;
1386.0000;0.6756;0.8578;
1386.3000;0.6756;0.8601;
1386.6000;0.6756;0.8578;
1386.9000;0.6797;0.8743;
1387.2000;0.6756;0.8672;
1387.5000;0.6756;0.8696;
1387.8000;0.6764;0.8696;
1388.1000;0.6829;0.8767;
1388.4000;0.6805;0.8696;
1388.7000;0.6821;0.8696;
1389.0000;0.6764;0.8601;
1389.3000;0.6756;0.8554;
1389.6000;0.6740;0.8483;
1389.9000;0.6732;0.8578;
1390.2000;0.6781;0.8696;
1390.5000;0.6740;0.8601;
1390.8000;0.6772;0.8672;
1391.1000;0.6781;0.8672;
1391.4000;0.6764;0.8720;
1391.7000;0.6716;0.8649;
1392.0000;0.6764;0.8767;
1392.3000;0.6764;0.8862;
1392.6000;0.6764;0.8980;
1392.9000;0.6756;0.9028;
1393.2000;0.6764;0.9075;
1393.5000;0.6846;0.9194;
1393.8000;0.6781;0.8838;
1394.1000;0.6667;0.8364;
1394.4000;0.6764;0.8601;
1394.7000;0.6781;0.8649;
1395.0000;0.6789;0.8720;
1395.3000;0.6764;0.8743;
1395.6000;0.6764;0.8791;
1395.9000;0.6764;0.8743;
1396.2000;0.6748;0.8791;
1396.5000;0.6772;0.8743;
1396.8000;0.6781;0.8767;
1397.1000;0.6781;0.8886;
1397.4000;0.6789;0.8862;
1397.7000;0.6772;0.8791;
1398.0000;0.6764;0.8767;
1398.3000;0.6789;0.8791;
1398.6000;0.6772;0.8696;
1398.9000;0.6772;0.8672;
1399.2000;0.6781;0.8720;
1399.5000;0.6748;0.8696;
1399.8000;0.6805;0.8886;
