time/ms;Fluo/V;P700 deltaI/I x10³;
-199.8000;0.8311;0.9028;
-199.5000;0.8319;0.9075;
-199.2000;0.8327;0.9075;
-198.9000;0.8311;0.9099;
-198.6000;0.8319;0.9099;
-198.3000;0.8335;0.9099;
-198.0000;0.8327;0.9028;
-197.7000;0.8311;0.9075;
-197.4000;0.8295;0.9004;
-197.1000;0.8392;0.9217;
-196.8000;0.8311;0.9099;
-196.5000;0.8319;0.9051;
-196.2000;0.8319;0.8980;
-195.9000;0.8327;0.8980;
-195.6000;0.8262;0.8838;
-195.3000;0.8319;0.9004;
-195.0000;0.8319;0.9028;
-194.7000;0.8303;0.8909;
-194.4000;0.8344;0.8957;
-194.1000;0.8327;0.8933;
-193.8000;0.8376;0.8957;
-193.5000;0.8319;0.8909;
-193.2000;0.8335;0.9028;
-192.9000;0.8327;0.9075;
-192.6000;0.8335;0.9099;
-192.3000;0.8319;0.9028;
-192.0000;0.8327;0.9051;
-191.7000;0.8344;0.9146;
-191.4000;0.8327;0.9051;
-191.1000;0.8319;0.9028;
-190.8000;0.8287;0.9004;
-190.5000;0.8311;0.9075;
-190.2000;0.8319;0.9122;
-189.9000;0.8303;0.9122;
-189.6000;0.8352;0.9146;
-189.3000;0.8327;0.9099;
-189.0000;0.8327;0.9122;
-188.7000;0.8319;0.9075;
-188.4000;0.8303;0.9146;
-188.1000;0.8319;0.9288;
-187.8000;0.8327;0.9288;
-187.5000;0.8352;0.9312;
-187.2000;0.8327;0.9099;
-186.9000;0.8311;0.9122;
-186.6000;0.8287;0.9099;
-186.3000;0.8311;0.9194;
-186.0000;0.8311;0.9170;
-185.7000;0.8311;0.9122;
-185.4000;0.8303;0.9194;
-185.1000;0.8327;0.9241;
-184.8000;0.8311;0.9170;
-184.5000;0.8344;0.9241;
-184.2000;0.8319;0.9217;
-183.9000;0.8335;0.9265;
-183.6000;0.8319;0.9194;
-183.3000;0.8327;0.9194;
-183.0000;0.8344;0.9217;
-182.7000;0.8335;0.9194;
-182.4000;0.8319;0.9170;
-182.1000;0.8335;0.9051;
-181.8000;0.8344;0.9099;
-181.5000;0.8327;0.9099;
-181.2000;0.8327;0.9099;
-180.9000;0.8319;0.9051;
-180.6000;0.8335;0.9194;
-180.3000;0.8327;0.9336;
-180.0000;0.8319;0.9359;
-179.7000;0.8335;0.9336;
-179.4000;0.8433;0.9596;
-179.1000;0.8311;0.9359;
-178.8000;0.8319;0.9359;
-178.5000;0.8319;0.9336;
-178.2000;0.8303;0.9288;
-177.9000;0.8327;0.9241;
-177.6000;0.8311;0.9217;
-177.3000;0.8319;0.9217;
-177.0000;0.8254;0.9028;
-176.7000;0.8344;0.9265;
-176.4000;0.8311;0.9217;
-176.1000;0.8311;0.9194;
-175.8000;0.8319;0.9122;
-175.5000;0.8327;0.9028;
-175.2000;0.8327;0.9004;
-174.9000;0.8319;0.9075;
-174.6000;0.8319;0.9170;
-174.3000;0.8311;0.9075;
-174.0000;0.8319;0.9075;
-173.7000;0.8335;0.9099;
-173.4000;0.8384;0.9288;
-173.1000;0.8311;0.9194;
-172.8000;0.8319;0.9217;
-172.5000;0.8327;0.9194;
-172.2000;0.8327;0.9170;
-171.9000;0.8327;0.9170;
-171.6000;0.8295;0.9099;
-171.3000;0.8327;0.9194;
-171.0000;0.8295;0.9075;
-170.7000;0.8319;0.9075;
-170.4000;0.8311;0.8933;
-170.1000;0.8319;0.9028;
-169.8000;0.8376;0.9241;
-169.5000;0.8303;0.9146;
-169.2000;0.8311;0.9170;
-168.9000;0.8319;0.9075;
-168.6000;0.8327;0.9075;
-168.3000;0.8311;0.8980;
-168.0000;0.8327;0.9051;
-167.7000;0.8344;0.9051;
-167.4000;0.8335;0.9075;
-167.1000;0.8303;0.9028;
-166.8000;0.8303;0.8957;
-166.5000;0.8327;0.9028;
-166.2000;0.8344;0.9051;
-165.9000;0.8278;0.8909;
-165.6000;0.8335;0.9194;
-165.3000;0.8344;0.9146;
-165.0000;0.8335;0.9170;
-164.7000;0.8311;0.9099;
-164.4000;0.8295;0.9075;
-164.1000;0.8311;0.9075;
-163.8000;0.8319;0.9099;
-163.5000;0.8335;0.9194;
-163.2000;0.8335;0.9241;
-162.9000;0.8311;0.9122;
-162.6000;0.8303;0.9099;
-162.3000;0.8319;0.9028;
-162.0000;0.8238;0.8862;
-161.7000;0.8319;0.9028;
-161.4000;0.8311;0.9004;
-161.1000;0.8319;0.9004;
-160.8000;0.8319;0.9028;
-160.5000;0.8360;0.9122;
-160.2000;0.8327;0.9028;
-159.9000;0.8335;0.9146;
-159.6000;0.8303;0.9004;
-159.3000;0.8327;0.9051;
-159.0000;0.8319;0.9099;
-158.7000;0.8287;0.9051;
-158.4000;0.8368;0.9170;
-158.1000;0.8295;0.9028;
-157.8000;0.8335;0.9099;
-157.5000;0.8392;0.9336;
-157.2000;0.8327;0.9051;
-156.9000;0.8335;0.9051;
-156.6000;0.8319;0.9099;
-156.3000;0.8344;0.9075;
-156.0000;0.8344;0.9170;
-155.7000;0.8319;0.9122;
-155.4000;0.8319;0.9146;
-155.1000;0.8262;0.9004;
-154.8000;0.8352;0.9122;
-154.5000;0.8319;0.9099;
-154.2000;0.8295;0.9075;
-153.9000;0.8319;0.9075;
-153.6000;0.8368;0.9217;
-153.3000;0.8319;0.9028;
-153.0000;0.8278;0.8957;
-152.7000;0.8311;0.9028;
-152.4000;0.8344;0.9099;
-152.1000;0.8344;0.9099;
-151.8000;0.8311;0.9075;
-151.5000;0.8303;0.9028;
-151.2000;0.8344;0.9051;
-150.9000;0.8303;0.9075;
-150.6000;0.8319;0.9146;
-150.3000;0.8213;0.8886;
-150.0000;0.8303;0.9099;
-149.7000;0.8311;0.9051;
-149.4000;0.8360;0.9217;
-149.1000;0.8319;0.9099;
-148.8000;0.8295;0.9099;
-148.5000;0.8270;0.9051;
-148.2000;0.8311;0.9170;
-147.9000;0.8270;0.9146;
-147.6000;0.8303;0.9241;
-147.3000;0.8319;0.9241;
-147.0000;0.8335;0.9359;
-146.7000;0.8262;0.9217;
-146.4000;0.8327;0.9312;
-146.1000;0.8319;0.9241;
-145.8000;0.8335;0.9217;
-145.5000;0.8327;0.9146;
-145.2000;0.8311;0.9075;
-144.9000;0.8327;0.9170;
-144.6000;0.8319;0.9122;
-144.3000;0.8327;0.9288;
-144.0000;0.8319;0.9217;
-143.7000;0.8311;0.9241;
-143.4000;0.8327;0.9265;
-143.1000;0.8319;0.9265;
-142.8000;0.8327;0.9288;
-142.5000;0.8327;0.9288;
-142.2000;0.8335;0.9241;
-141.9000;0.8352;0.9265;
-141.6000;0.8335;0.9146;
-141.3000;0.8311;0.9099;
-141.0000;0.8319;0.8957;
-140.7000;0.8335;0.9028;
-140.4000;0.8311;0.9051;
-140.1000;0.8319;0.9028;
-139.8000;0.8352;0.9170;
-139.5000;0.8319;0.9051;
-139.2000;0.8303;0.9004;
-138.9000;0.8368;0.9122;
-138.6000;0.8319;0.8980;
-138.3000;0.8319;0.9028;
-138.0000;0.8311;0.9028;
-137.7000;0.8335;0.9028;
-137.4000;0.8303;0.8980;
-137.1000;0.8327;0.9146;
-136.8000;0.8327;0.9241;
-136.5000;0.8360;0.9217;
-136.2000;0.8319;0.9170;
-135.9000;0.8319;0.9194;
-135.6000;0.8311;0.9265;
-135.3000;0.8303;0.9217;
-135.0000;0.8303;0.9288;
-134.7000;0.8311;0.9288;
-134.4000;0.8425;0.9502;
-134.1000;0.8335;0.9312;
-133.8000;0.8400;0.9359;
-133.5000;0.8303;0.9194;
-133.2000;0.8303;0.9194;
-132.9000;0.8335;0.9217;
-132.6000;0.8311;0.9265;
-132.3000;0.8319;0.9407;
-132.0000;0.8295;0.9359;
-131.7000;0.8335;0.9383;
-131.4000;0.8319;0.9312;
-131.1000;0.8303;0.9241;
-130.8000;0.8319;0.9288;
-130.5000;0.8352;0.9312;
-130.2000;0.8319;0.9217;
-129.9000;0.8327;0.9288;
-129.6000;0.8311;0.9217;
-129.3000;0.8344;0.9241;
-129.0000;0.8368;0.9265;
-128.7000;0.8327;0.9265;
-128.4000;0.8303;0.9241;
-128.1000;0.8327;0.9359;
-127.8000;0.8344;0.9407;
-127.5000;0.8311;0.9288;
-127.2000;0.8319;0.9359;
-126.9000;0.8335;0.9407;
-126.6000;0.8327;0.9336;
-126.3000;0.8311;0.9241;
-126.0000;0.8319;0.9194;
-125.7000;0.8278;0.9051;
-125.4000;0.8352;0.9312;
-125.1000;0.8311;0.9312;
-124.8000;0.8319;0.9265;
-124.5000;0.8303;0.9265;
-124.2000;0.8319;0.9454;
-123.9000;0.8311;0.9383;
-123.6000;0.8368;0.9383;
-123.3000;0.8319;0.9122;
-123.0000;0.8335;0.9194;
-122.7000;0.8335;0.9194;
-122.4000;0.8327;0.9194;
-122.1000;0.8311;0.9170;
-121.8000;0.8360;0.9288;
-121.5000;0.8327;0.9217;
-121.2000;0.8327;0.9170;
-120.9000;0.8295;0.9075;
-120.6000;0.8311;0.9051;
-120.3000;0.8295;0.9028;
-120.0000;0.8319;0.9004;
-119.7000;0.8335;0.9028;
-119.4000;0.8303;0.8957;
-119.1000;0.8287;0.8933;
-118.8000;0.8311;0.8980;
-118.5000;0.8303;0.9028;
-118.2000;0.8311;0.9075;
-117.9000;0.8311;0.9051;
-117.6000;0.8319;0.9028;
-117.3000;0.8311;0.9099;
-117.0000;0.8295;0.9028;
-116.7000;0.8303;0.9051;
-116.4000;0.8335;0.9241;
-116.1000;0.8303;0.9217;
-115.8000;0.8327;0.9170;
-115.5000;0.8311;0.9170;
-115.2000;0.8278;0.9075;
-114.9000;0.8335;0.9170;
-114.6000;0.8295;0.9099;
-114.3000;0.8319;0.9170;
-114.0000;0.8287;0.9170;
-113.7000;0.8319;0.9241;
-113.4000;0.8319;0.9312;
-113.1000;0.8319;0.9383;
-112.8000;0.8327;0.9288;
-112.5000;0.8303;0.9217;
-112.2000;0.8311;0.9194;
-111.9000;0.8246;0.9028;
-111.6000;0.8311;0.9194;
-111.3000;0.8335;0.9217;
-111.0000;0.8319;0.9217;
-110.7000;0.8327;0.9241;
-110.4000;0.8319;0.9241;
-110.1000;0.8335;0.9383;
-109.8000;0.8311;0.9288;
-109.5000;0.8335;0.9312;
-109.2000;0.8327;0.9241;
-108.9000;0.8344;0.9359;
-108.6000;0.8327;0.9359;
-108.3000;0.8335;0.9383;
-108.0000;0.8303;0.9288;
-107.7000;0.8319;0.9288;
-107.4000;0.8311;0.9170;
-107.1000;0.8344;0.9241;
-106.8000;0.8303;0.9194;
-106.5000;0.8303;0.9122;
-106.2000;0.8344;0.9265;
-105.9000;0.8327;0.9170;
-105.6000;0.8327;0.9146;
-105.3000;0.8303;0.9170;
-105.0000;0.8335;0.9312;
-104.7000;0.8409;0.9691;
-104.4000;0.8303;0.9359;
-104.1000;0.8303;0.9265;
-103.8000;0.8319;0.9241;
-103.5000;0.8327;0.9265;
-103.2000;0.8303;0.9217;
-102.9000;0.8303;0.9336;
-102.6000;0.8311;0.9265;
-102.3000;0.8344;0.9383;
-102.0000;0.8319;0.9383;
-101.7000;0.8311;0.9336;
-101.4000;0.8311;0.9312;
-101.1000;0.8319;0.9312;
-100.8000;0.8344;0.9431;
-100.5000;0.8335;0.9359;
-100.2000;0.8303;0.9194;
-99.9000;0.8335;0.9265;
-99.6000;0.8360;0.9312;
-99.3000;0.8295;0.9099;
-99.0000;0.8319;0.9146;
-98.7000;0.8278;0.9099;
-98.4000;0.8327;0.9241;
-98.1000;0.8295;0.9146;
-97.8000;0.8319;0.9075;
-97.5000;0.8327;0.9194;
-97.2000;0.8352;0.9288;
-96.9000;0.8311;0.9194;
-96.6000;0.8352;0.9288;
-96.3000;0.8303;0.9122;
-96.0000;0.8311;0.9241;
-95.7000;0.8311;0.9288;
-95.4000;0.8327;0.9312;
-95.1000;0.8335;0.9336;
-94.8000;0.8352;0.9336;
-94.5000;0.8344;0.9265;
-94.2000;0.8409;0.9431;
-93.9000;0.8335;0.9217;
-93.6000;0.8352;0.9265;
-93.3000;0.8311;0.9217;
-93.0000;0.8327;0.9217;
-92.7000;0.8319;0.9146;
-92.4000;0.8352;0.9288;
-92.1000;0.8319;0.9146;
-91.8000;0.8327;0.9099;
-91.5000;0.8295;0.9051;
-91.2000;0.8311;0.9099;
-90.9000;0.8392;0.9383;
-90.6000;0.8327;0.9194;
-90.3000;0.8319;0.9122;
-90.0000;0.8311;0.9146;
-89.7000;0.8319;0.9170;
-89.4000;0.8327;0.9099;
-89.1000;0.8303;0.9004;
-88.8000;0.8303;0.9122;
-88.5000;0.8311;0.9122;
-88.2000;0.8319;0.9099;
-87.9000;0.8303;0.9122;
-87.6000;0.8335;0.9194;
-87.3000;0.8303;0.9194;
-87.0000;0.8335;0.9170;
-86.7000;0.8335;0.9170;
-86.4000;0.8376;0.9383;
-86.1000;0.8319;0.9194;
-85.8000;0.8384;0.9241;
-85.5000;0.8319;0.9288;
-85.2000;0.8311;0.9336;
-84.9000;0.8327;0.9383;
-84.6000;0.8319;0.9383;
-84.3000;0.8335;0.9383;
-84.0000;0.8327;0.9383;
-83.7000;0.8319;0.9407;
-83.4000;0.8327;0.9431;
-83.1000;0.8335;0.9431;
-82.8000;0.8327;0.9407;
-82.5000;0.8319;0.9431;
-82.2000;0.8311;0.9383;
-81.9000;0.8335;0.9478;
-81.6000;0.8287;0.9336;
-81.3000;0.8278;0.9241;
-81.0000;0.8335;0.9288;
-80.7000;0.8400;0.9383;
-80.4000;0.8327;0.9146;
-80.1000;0.8409;0.9383;
-79.8000;0.8327;0.9170;
-79.5000;0.8352;0.9194;
-79.2000;0.8221;0.8791;
-78.9000;0.8327;0.9075;
-78.6000;0.8319;0.9075;
-78.3000;0.8311;0.9028;
-78.0000;0.8319;0.9051;
-77.7000;0.8295;0.9051;
-77.4000;0.8319;0.9099;
-77.1000;0.8327;0.9122;
-76.8000;0.8270;0.9051;
-76.5000;0.8327;0.9194;
-76.2000;0.8319;0.9194;
-75.9000;0.8311;0.9217;
-75.6000;0.8319;0.9359;
-75.3000;0.8319;0.9336;
-75.0000;0.8319;0.9336;
-74.7000;0.8319;0.9336;
-74.4000;0.8303;0.9194;
-74.1000;0.8335;0.9194;
-73.8000;0.8352;0.9288;
-73.5000;0.8344;0.9288;
-73.2000;0.8327;0.9241;
-72.9000;0.8327;0.9217;
-72.6000;0.8344;0.9194;
-72.3000;0.8319;0.9241;
-72.0000;0.8327;0.9265;
-71.7000;0.8335;0.9241;
-71.4000;0.8319;0.9265;
-71.1000;0.8327;0.9241;
-70.8000;0.8327;0.9407;
-70.5000;0.8319;0.9431;
-70.2000;0.8311;0.9312;
-69.9000;0.8327;0.9336;
-69.6000;0.8335;0.9336;
-69.3000;0.8319;0.9288;
-69.0000;0.8344;0.9241;
-68.7000;0.8335;0.9217;
-68.4000;0.8335;0.9194;
-68.1000;0.8319;0.9265;
-67.8000;0.8335;0.9336;
-67.5000;0.8344;0.9312;
-67.2000;0.8335;0.9407;
-66.9000;0.8311;0.9359;
-66.6000;0.8327;0.9383;
-66.3000;0.8335;0.9502;
-66.0000;0.8295;0.9407;
-65.7000;0.8319;0.9454;
-65.4000;0.8335;0.9383;
-65.1000;0.8327;0.9336;
-64.8000;0.8319;0.9217;
-64.5000;0.8335;0.9288;
-64.2000;0.8335;0.9359;
-63.9000;0.8327;0.9383;
-63.6000;0.8327;0.9431;
-63.3000;0.8319;0.9407;
-63.0000;0.8335;0.9431;
-62.7000;0.8327;0.9431;
-62.4000;0.8295;0.9407;
-62.1000;0.8303;0.9525;
-61.8000;0.8311;0.9502;
-61.5000;0.8344;0.9620;
-61.2000;0.8319;0.9525;
-60.9000;0.8311;0.9478;
-60.6000;0.8295;0.9359;
-60.3000;0.8327;0.9407;
-60.0000;0.8327;0.9383;
-59.7000;0.8319;0.9431;
-59.4000;0.8352;0.9549;
-59.1000;0.8335;0.9573;
-58.8000;0.8327;0.9573;
-58.5000;0.8319;0.9502;
-58.2000;0.8344;0.9525;
-57.9000;0.8327;0.9502;
-57.6000;0.8295;0.9454;
-57.3000;0.8287;0.9359;
-57.0000;0.8262;0.9383;
-56.7000;0.8230;0.9312;
-56.4000;0.8319;0.9431;
-56.1000;0.8327;0.9478;
-55.8000;0.8319;0.9478;
-55.5000;0.8335;0.9502;
-55.2000;0.8287;0.9407;
-54.9000;0.8327;0.9407;
-54.6000;0.8352;0.9431;
-54.3000;0.8327;0.9336;
-54.0000;0.8327;0.9336;
-53.7000;0.8344;0.9383;
-53.4000;0.8319;0.9407;
-53.1000;0.8319;0.9359;
-52.8000;0.8327;0.9359;
-52.5000;0.8319;0.9407;
-52.2000;0.8327;0.9478;
-51.9000;0.8311;0.9383;
-51.6000;0.8327;0.9454;
-51.3000;0.8327;0.9431;
-51.0000;0.8319;0.9383;
-50.7000;0.8295;0.9336;
-50.4000;0.8303;0.9312;
-50.1000;0.8303;0.9265;
-49.8000;0.8319;0.9288;
-49.5000;0.8319;0.9288;
-49.2000;0.8319;0.9146;
-48.9000;0.8311;0.9170;
-48.6000;0.8311;0.9170;
-48.3000;0.8319;0.9217;
-48.0000;0.8246;0.9051;
-47.7000;0.8319;0.9241;
-47.4000;0.8327;0.9217;
-47.1000;0.8319;0.9217;
-46.8000;0.8327;0.9146;
-46.5000;0.8335;0.9217;
-46.2000;0.8319;0.9288;
-45.9000;0.8327;0.9407;
-45.6000;0.8319;0.9383;
-45.3000;0.8319;0.9359;
-45.0000;0.8327;0.9383;
-44.7000;0.8344;0.9383;
-44.4000;0.8319;0.9312;
-44.1000;0.8319;0.9336;
-43.8000;0.8335;0.9407;
-43.5000;0.8335;0.9288;
-43.2000;0.8335;0.9359;
-42.9000;0.8311;0.9265;
-42.6000;0.8327;0.9312;
-42.3000;0.8360;0.9502;
-42.0000;0.8311;0.9383;
-41.7000;0.8246;0.9146;
-41.4000;0.8303;0.9265;
-41.1000;0.8311;0.9312;
-40.8000;0.8311;0.9288;
-40.5000;0.8303;0.9241;
-40.2000;0.8319;0.9265;
-39.9000;0.8319;0.9170;
-39.6000;0.8327;0.9217;
-39.3000;0.8303;0.9170;
-39.0000;0.8319;0.9217;
-38.7000;0.8335;0.9241;
-38.4000;0.8335;0.9265;
-38.1000;0.8327;0.9312;
-37.8000;0.8344;0.9288;
-37.5000;0.8327;0.9146;
-37.2000;0.8344;0.9146;
-36.9000;0.8311;0.9075;
-36.6000;0.8327;0.9170;
-36.3000;0.8335;0.9217;
-36.0000;0.8319;0.9241;
-35.7000;0.8327;0.9241;
-35.4000;0.8344;0.9312;
-35.1000;0.8311;0.9217;
-34.8000;0.8246;0.9051;
-34.5000;0.8319;0.9194;
-34.2000;0.8311;0.9122;
-33.9000;0.8246;0.9004;
-33.6000;0.8287;0.9122;
-33.3000;0.8327;0.9170;
-33.0000;0.8335;0.9241;
-32.7000;0.8262;0.9122;
-32.4000;0.8303;0.9265;
-32.1000;0.8335;0.9359;
-31.8000;0.8327;0.9312;
-31.5000;0.8384;0.9454;
-31.2000;0.8319;0.9194;
-30.9000;0.8311;0.9099;
-30.6000;0.8311;0.9122;
-30.3000;0.8335;0.9194;
-30.0000;0.8327;0.9194;
-29.7000;0.8335;0.9241;
-29.4000;0.8344;0.9265;
-29.1000;0.8319;0.9217;
-28.8000;0.8335;0.9146;
-28.5000;0.8335;0.9241;
-28.2000;0.8344;0.9288;
-27.9000;0.8327;0.9241;
-27.6000;0.8278;0.9122;
-27.3000;0.8319;0.9170;
-27.0000;0.8311;0.9217;
-26.7000;0.8344;0.9265;
-26.4000;0.8335;0.9265;
-26.1000;0.8319;0.9217;
-25.8000;0.8327;0.9217;
-25.5000;0.8319;0.9075;
-25.2000;0.8319;0.9075;
-24.9000;0.8392;0.9241;
-24.6000;0.8327;0.9004;
-24.3000;0.8327;0.9075;
-24.0000;0.8327;0.9122;
-23.7000;0.8319;0.9170;
-23.4000;0.8262;0.9051;
-23.1000;0.8344;0.9194;
-22.8000;0.8311;0.9170;
-22.5000;0.8303;0.9217;
-22.2000;0.8335;0.9288;
-21.9000;0.8311;0.9288;
-21.6000;0.8384;0.9478;
-21.3000;0.8311;0.9265;
-21.0000;0.8303;0.9241;
-20.7000;0.8295;0.9336;
-20.4000;0.8360;0.9478;
-20.1000;0.8311;0.9265;
-19.8000;0.8368;0.9431;
-19.5000;0.8287;0.9217;
-19.2000;0.8319;0.9288;
-18.9000;0.8311;0.9217;
-18.6000;0.8311;0.9241;
-18.3000;0.8319;0.9241;
-18.0000;0.8311;0.9217;
-17.7000;0.8311;0.9170;
-17.4000;0.8392;0.9407;
-17.1000;0.8327;0.9265;
-16.8000;0.8344;0.9312;
-16.5000;0.8327;0.9312;
-16.2000;0.8327;0.9336;
-15.9000;0.8335;0.9312;
-15.6000;0.8335;0.9265;
-15.3000;0.8335;0.9217;
-15.0000;0.8319;0.9075;
-14.7000;0.8327;0.9004;
-14.4000;0.8319;0.9051;
-14.1000;0.8344;0.9075;
-13.8000;0.8335;0.8980;
-13.5000;0.8335;0.9004;
-13.2000;0.8360;0.9099;
-12.9000;0.8335;0.9099;
-12.6000;0.8327;0.9075;
-12.3000;0.8327;0.9075;
-12.0000;0.8319;0.9075;
-11.7000;0.8319;0.9075;
-11.4000;0.8344;0.9075;
-11.1000;0.8311;0.9217;
-10.8000;0.8254;0.9146;
-10.5000;0.8254;0.9004;
-10.2000;0.8311;0.9194;
-9.9000;0.8295;0.9075;
-9.6000;0.8311;0.9122;
-9.3000;0.8221;0.8957;
-9.0000;0.8352;0.9194;
-8.7000;0.8335;0.9265;
-8.4000;0.8311;0.9170;
-8.1000;0.8311;0.9241;
-7.8000;0.8352;0.9336;
-7.5000;0.8335;0.9265;
-7.2000;0.8287;0.9146;
-6.9000;0.8327;0.9217;
-6.6000;0.8311;0.9194;
-6.3000;0.8295;0.9075;
-6.0000;0.8335;0.9194;
-5.7000;0.8327;0.9241;
-5.4000;0.8311;0.9288;
-5.1000;0.8352;0.9359;
-4.8000;0.8327;0.9312;
-4.5000;0.8311;0.9288;
-4.2000;0.8270;0.9241;
-3.9000;0.8319;0.9312;
-3.6000;0.8319;0.9336;
-3.3000;0.8311;0.9265;
-3.0000;0.8311;0.9288;
-2.7000;0.8344;0.9407;
-2.4000;0.8303;0.9288;
-2.1000;0.8392;0.9502;
-1.8000;0.8352;0.9431;
-1.5000;0.8344;0.9336;
-1.2000;0.8311;0.9288;
-0.9000;0.8344;0.9265;
-0.6000;0.8303;0.9194;
-0.3000;0.8327;0.9241;
0.0000;0.8327;0.9241;
0.3000;0.8588;0.9407;
0.6000;0.9117;0.9999;
0.9000;0.9508;1.0568;
1.2000;0.9792;1.0947;
1.5000;1.0037;1.1302;
1.8000;1.0248;1.1634;
2.1000;1.0411;1.1942;
2.4000;1.0541;1.2179;
2.7000;1.0639;1.2274;
3.0000;1.0777;1.2487;
3.3000;1.0867;1.2558;
3.6000;1.0940;1.2629;
3.9000;1.1030;1.2748;
4.2000;1.1095;1.2819;
4.5000;1.1152;1.2866;
4.8000;1.1209;1.2843;
5.1000;1.1282;1.2866;
5.4000;1.1323;1.2843;
5.7000;1.1372;1.2843;
6.0000;1.1404;1.2866;
6.3000;1.1461;1.2937;
6.6000;1.1494;1.2937;
6.9000;1.1526;1.2937;
7.2000;1.1543;1.2866;
7.5000;1.1616;1.2890;
7.8000;1.1648;1.2914;
8.1000;1.1673;1.2914;
8.4000;1.1689;1.2866;
8.7000;1.1689;1.2771;
9.0000;1.1754;1.2961;
9.3000;1.1787;1.2819;
9.6000;1.1819;1.2866;
9.9000;1.1844;1.2771;
10.2000;1.1852;1.2700;
10.5000;1.1917;1.2771;
10.8000;1.1876;1.2653;
11.1000;1.1901;1.2748;
11.4000;1.1966;1.2771;
11.7000;1.1990;1.2795;
12.0000;1.1966;1.2748;
12.3000;1.2023;1.2843;
12.6000;1.2039;1.2866;
12.9000;1.2055;1.2819;
13.2000;1.2072;1.2795;
13.5000;1.2104;1.2843;
13.8000;1.2031;1.2677;
14.1000;1.2120;1.2985;
14.4000;1.2145;1.2985;
14.7000;1.2120;1.2866;
15.0000;1.2194;1.3008;
15.3000;1.2186;1.2961;
15.6000;1.2210;1.2961;
15.9000;1.2218;1.2866;
16.2000;1.2210;1.2843;
16.5000;1.2226;1.2914;
16.8000;1.2259;1.2890;
17.1000;1.2267;1.2890;
17.4000;1.2259;1.2866;
17.7000;1.2226;1.2724;
18.0000;1.2267;1.2819;
18.3000;1.2291;1.2819;
18.6000;1.2316;1.2795;
18.9000;1.2324;1.2771;
19.2000;1.2308;1.2629;
19.5000;1.2340;1.2748;
19.8000;1.2365;1.2819;
20.1000;1.2357;1.2771;
20.4000;1.2357;1.2843;
20.7000;1.2381;1.2914;
21.0000;1.2357;1.2843;
21.3000;1.2381;1.2843;
21.6000;1.2405;1.2914;
21.9000;1.2414;1.3032;
22.2000;1.2365;1.2961;
22.5000;1.2389;1.2961;
22.8000;1.2397;1.2961;
23.1000;1.2381;1.2890;
23.4000;1.2438;1.3032;
23.7000;1.2422;1.2890;
24.0000;1.2446;1.2866;
24.3000;1.2454;1.2890;
24.6000;1.2454;1.2961;
24.9000;1.2446;1.2914;
25.2000;1.2446;1.2914;
25.5000;1.2462;1.3008;
25.8000;1.2454;1.2961;
26.1000;1.2479;1.2914;
26.4000;1.2462;1.2937;
26.7000;1.2487;1.2985;
27.0000;1.2503;1.2961;
27.3000;1.2503;1.3032;
27.6000;1.2454;1.2961;
27.9000;1.2511;1.3032;
28.2000;1.2584;1.3127;
28.5000;1.2560;1.2937;
28.8000;1.2519;1.2724;
29.1000;1.2536;1.2795;
29.4000;1.2536;1.2890;
29.7000;1.2536;1.2961;
30.0000;1.2544;1.2866;
30.3000;1.2544;1.2819;
30.6000;1.2544;1.2843;
30.9000;1.2544;1.2890;
31.2000;1.2552;1.3008;
31.5000;1.2560;1.2890;
31.8000;1.2568;1.2843;
32.1000;1.2519;1.2724;
32.4000;1.2576;1.2843;
32.7000;1.2576;1.2914;
33.0000;1.2584;1.2914;
33.3000;1.2601;1.2843;
33.6000;1.2584;1.2819;
33.9000;1.2593;1.2866;
34.2000;1.2593;1.2866;
34.5000;1.2593;1.2937;
34.8000;1.2650;1.3080;
35.1000;1.2593;1.2985;
35.4000;1.2536;1.2937;
35.7000;1.2641;1.3245;
36.0000;1.2633;1.3222;
36.3000;1.2601;1.3174;
36.6000;1.2552;1.3056;
36.9000;1.2601;1.3080;
37.2000;1.2601;1.3056;
37.5000;1.2584;1.3103;
37.8000;1.2617;1.3103;
38.1000;1.2625;1.3103;
38.4000;1.2609;1.3056;
38.7000;1.2641;1.3103;
39.0000;1.2633;1.3056;
39.3000;1.2650;1.3080;
39.6000;1.2633;1.3151;
39.9000;1.2633;1.3222;
40.2000;1.2625;1.3151;
40.5000;1.2609;1.3008;
40.8000;1.2625;1.3103;
41.1000;1.2641;1.3056;
41.4000;1.2633;1.3008;
41.7000;1.2633;1.2961;
42.0000;1.2641;1.2914;
42.3000;1.2641;1.2914;
42.6000;1.2633;1.2890;
42.9000;1.2658;1.2866;
43.2000;1.2609;1.2795;
43.5000;1.2666;1.2890;
43.8000;1.2641;1.2890;
44.1000;1.2625;1.2961;
44.4000;1.2666;1.3080;
44.7000;1.2601;1.2961;
45.0000;1.2625;1.2985;
45.3000;1.2650;1.3080;
45.6000;1.2641;1.3080;
45.9000;1.2658;1.3151;
46.2000;1.2650;1.3080;
46.5000;1.2666;1.3103;
46.8000;1.2641;1.2961;
47.1000;1.2650;1.2937;
47.4000;1.2568;1.2771;
47.7000;1.2658;1.2961;
48.0000;1.2650;1.2890;
48.3000;1.2641;1.2795;
48.6000;1.2707;1.2985;
48.9000;1.2650;1.2914;
49.2000;1.2650;1.2890;
49.5000;1.2633;1.2843;
49.8000;1.2666;1.2985;
50.1000;1.2666;1.2961;
50.4000;1.2650;1.2890;
50.7000;1.2690;1.3008;
51.0000;1.2690;1.2914;
51.3000;1.2690;1.2985;
51.6000;1.2666;1.2961;
51.9000;1.2682;1.2961;
52.2000;1.2707;1.2985;
52.5000;1.2641;1.2748;
52.8000;1.2682;1.2795;
53.1000;1.2674;1.2890;
53.4000;1.2658;1.2843;
53.7000;1.2674;1.2795;
54.0000;1.2682;1.2748;
54.3000;1.2650;1.2724;
54.6000;1.2682;1.2795;
54.9000;1.2674;1.2843;
55.2000;1.2707;1.2985;
55.5000;1.2690;1.2866;
55.8000;1.2666;1.2771;
56.1000;1.2690;1.2771;
56.4000;1.2666;1.2677;
56.7000;1.2682;1.2724;
57.0000;1.2698;1.2795;
57.3000;1.2682;1.2677;
57.6000;1.2690;1.2653;
57.9000;1.2682;1.2653;
58.2000;1.2731;1.2771;
58.5000;1.2715;1.2700;
58.8000;1.2707;1.2677;
59.1000;1.2707;1.2700;
59.4000;1.2650;1.2677;
59.7000;1.2698;1.2819;
60.0000;1.2715;1.2890;
60.3000;1.2666;1.2843;
60.6000;1.2682;1.2961;
60.9000;1.2690;1.3008;
61.2000;1.2723;1.3056;
61.5000;1.2658;1.2937;
61.8000;1.2698;1.2914;
62.1000;1.2698;1.2914;
62.4000;1.2682;1.2866;
62.7000;1.2698;1.2843;
63.0000;1.2633;1.2677;
63.3000;1.2690;1.2866;
63.6000;1.2690;1.2937;
63.9000;1.2690;1.2961;
64.2000;1.2715;1.2937;
64.5000;1.2698;1.2819;
64.8000;1.2723;1.2771;
65.1000;1.2707;1.2819;
65.4000;1.2715;1.2890;
65.7000;1.2707;1.2961;
66.0000;1.2747;1.3008;
66.3000;1.2690;1.2819;
66.6000;1.2715;1.2819;
66.9000;1.2698;1.2843;
67.2000;1.2682;1.2961;
67.5000;1.2707;1.3056;
67.8000;1.2715;1.3127;
68.1000;1.2715;1.3151;
68.4000;1.2690;1.3032;
68.7000;1.2690;1.2914;
69.0000;1.2707;1.2914;
69.3000;1.2690;1.2866;
69.6000;1.2682;1.2795;
69.9000;1.2698;1.2843;
70.2000;1.2707;1.2937;
70.5000;1.2723;1.2985;
70.8000;1.2707;1.2937;
71.1000;1.2707;1.2843;
71.4000;1.2723;1.2843;
71.7000;1.2723;1.2795;
72.0000;1.2715;1.2771;
72.3000;1.2723;1.2843;
72.6000;1.2723;1.2890;
72.9000;1.2731;1.2914;
73.2000;1.2674;1.2700;
73.5000;1.2715;1.2843;
73.8000;1.2707;1.2866;
74.1000;1.2723;1.2843;
74.4000;1.2715;1.2795;
74.7000;1.2723;1.2771;
75.0000;1.2715;1.2795;
75.3000;1.2731;1.2866;
75.6000;1.2715;1.2795;
75.9000;1.2707;1.2866;
76.2000;1.2731;1.2890;
76.5000;1.2707;1.2866;
76.8000;1.2723;1.3008;
77.1000;1.2731;1.3032;
77.4000;1.2723;1.2985;
77.7000;1.2731;1.2890;
78.0000;1.2723;1.2890;
78.3000;1.2755;1.2985;
78.6000;1.2764;1.2961;
78.9000;1.2739;1.2937;
79.2000;1.2731;1.2937;
79.5000;1.2731;1.2937;
79.8000;1.2731;1.2961;
80.1000;1.2723;1.3032;
80.4000;1.2715;1.3032;
80.7000;1.2731;1.3056;
81.0000;1.2731;1.3008;
81.3000;1.2747;1.3008;
81.6000;1.2731;1.2985;
81.9000;1.2723;1.2890;
82.2000;1.2723;1.2866;
82.5000;1.2715;1.2819;
82.8000;1.2731;1.2795;
83.1000;1.2739;1.2724;
83.4000;1.2715;1.2748;
83.7000;1.2715;1.2748;
84.0000;1.2731;1.2843;
84.3000;1.2739;1.2866;
84.6000;1.2747;1.2866;
84.9000;1.2707;1.2724;
85.2000;1.2715;1.2795;
85.5000;1.2764;1.3008;
85.8000;1.2731;1.2961;
86.1000;1.2715;1.2914;
86.4000;1.2731;1.2961;
86.7000;1.2723;1.2961;
87.0000;1.2804;1.3103;
87.3000;1.2723;1.2843;
87.6000;1.2747;1.2866;
87.9000;1.2723;1.2819;
88.2000;1.2731;1.2819;
88.5000;1.2707;1.2819;
88.8000;1.2731;1.2866;
89.1000;1.2731;1.2795;
89.4000;1.2715;1.2843;
89.7000;1.2747;1.2890;
90.0000;1.2804;1.3056;
90.3000;1.2715;1.2866;
90.6000;1.2755;1.2937;
90.9000;1.2739;1.2914;
91.2000;1.2731;1.2890;
91.5000;1.2731;1.2937;
91.8000;1.2747;1.2985;
92.1000;1.2739;1.3008;
92.4000;1.2796;1.3174;
92.7000;1.2739;1.3127;
93.0000;1.2739;1.3151;
93.3000;1.2707;1.3127;
93.6000;1.2804;1.3293;
93.9000;1.2739;1.3103;
94.2000;1.2723;1.3103;
94.5000;1.2707;1.3032;
94.8000;1.2747;1.3103;
95.1000;1.2707;1.3127;
95.4000;1.2625;1.2890;
95.7000;1.2747;1.3103;
96.0000;1.2821;1.3222;
96.3000;1.2772;1.3127;
96.6000;1.2739;1.3056;
96.9000;1.2747;1.3032;
97.2000;1.2755;1.3151;
97.5000;1.2755;1.3080;
97.8000;1.2723;1.2937;
98.1000;1.2739;1.2914;
98.4000;1.2731;1.2819;
98.7000;1.2633;1.2582;
99.0000;1.2715;1.2795;
99.3000;1.2723;1.2843;
99.6000;1.2829;1.3127;
99.9000;1.2739;1.2890;
100.2000;1.2723;1.2890;
100.5000;1.2682;1.2748;
100.8000;1.2707;1.2819;
101.1000;1.2731;1.2866;
101.4000;1.2739;1.2937;
101.7000;1.2739;1.3008;
102.0000;1.2674;1.2795;
102.3000;1.2764;1.3008;
102.6000;1.2755;1.2985;
102.9000;1.2755;1.2985;
103.2000;1.2755;1.2985;
103.5000;1.2739;1.3032;
103.8000;1.2755;1.3032;
104.1000;1.2739;1.2985;
104.4000;1.2731;1.2914;
104.7000;1.2723;1.2890;
105.0000;1.2747;1.3008;
105.3000;1.2764;1.3151;
105.6000;1.2739;1.3056;
105.9000;1.2739;1.3056;
106.2000;1.2755;1.3127;
106.5000;1.2674;1.2937;
106.8000;1.2731;1.2985;
107.1000;1.2772;1.3103;
107.4000;1.2788;1.3080;
107.7000;1.2764;1.2961;
108.0000;1.2723;1.2866;
108.3000;1.2755;1.2914;
108.6000;1.2731;1.2866;
108.9000;1.2739;1.2795;
109.2000;1.2747;1.2890;
109.5000;1.2707;1.2843;
109.8000;1.2739;1.2890;
110.1000;1.2723;1.2819;
110.4000;1.2747;1.2843;
110.7000;1.2723;1.2843;
111.0000;1.2682;1.2606;
111.3000;1.2755;1.2795;
111.6000;1.2764;1.2771;
111.9000;1.2739;1.2748;
112.2000;1.2747;1.2700;
112.5000;1.2764;1.2795;
112.8000;1.2755;1.2748;
113.1000;1.2739;1.2748;
113.4000;1.2755;1.2866;
113.7000;1.2764;1.2937;
114.0000;1.2764;1.2914;
114.3000;1.2772;1.2866;
114.6000;1.2755;1.2890;
114.9000;1.2731;1.2961;
115.2000;1.2764;1.3056;
115.5000;1.2780;1.3222;
115.8000;1.2731;1.3103;
116.1000;1.2731;1.3103;
116.4000;1.2747;1.3127;
116.7000;1.2747;1.3080;
117.0000;1.2731;1.3008;
117.3000;1.2739;1.2985;
117.6000;1.2739;1.2914;
117.9000;1.2747;1.2914;
118.2000;1.2755;1.2819;
118.5000;1.2747;1.2866;
118.8000;1.2755;1.2914;
119.1000;1.2772;1.2866;
119.4000;1.2755;1.2843;
119.7000;1.2739;1.2795;
120.0000;1.2755;1.2795;
120.3000;1.2747;1.2700;
120.6000;1.2715;1.2653;
120.9000;1.2739;1.2771;
121.2000;1.2747;1.2843;
121.5000;1.2739;1.2961;
121.8000;1.2747;1.2914;
122.1000;1.2739;1.2914;
122.4000;1.2731;1.2890;
122.7000;1.2739;1.2890;
123.0000;1.2739;1.2866;
123.3000;1.2755;1.2866;
123.6000;1.2723;1.2843;
123.9000;1.2747;1.2866;
124.2000;1.2731;1.2748;
124.5000;1.2739;1.2843;
124.8000;1.2731;1.2914;
125.1000;1.2747;1.2890;
125.4000;1.2780;1.3008;
125.7000;1.2764;1.2914;
126.0000;1.2755;1.2961;
126.3000;1.2755;1.3056;
126.6000;1.2764;1.3032;
126.9000;1.2755;1.3032;
127.2000;1.2755;1.3056;
127.5000;1.2755;1.2985;
127.8000;1.2715;1.2795;
128.1000;1.2755;1.2866;
128.4000;1.2755;1.2795;
128.7000;1.2723;1.2700;
129.0000;1.2747;1.2771;
129.3000;1.2731;1.2771;
129.6000;1.2658;1.2629;
129.9000;1.2747;1.2819;
130.2000;1.2739;1.2748;
130.5000;1.2755;1.2748;
130.8000;1.2698;1.2700;
131.1000;1.2739;1.2795;
131.4000;1.2747;1.2866;
131.7000;1.2747;1.2914;
132.0000;1.2755;1.2961;
132.3000;1.2731;1.2866;
132.6000;1.2739;1.2961;
132.9000;1.2747;1.3056;
133.2000;1.2764;1.3056;
133.5000;1.2723;1.2914;
133.8000;1.2739;1.2985;
134.1000;1.2739;1.2914;
134.4000;1.2739;1.2961;
134.7000;1.2747;1.3056;
135.0000;1.2747;1.2985;
135.3000;1.2715;1.2937;
135.6000;1.2739;1.3032;
135.9000;1.2755;1.3103;
136.2000;1.2731;1.3008;
136.5000;1.2723;1.3008;
136.8000;1.2747;1.3008;
137.1000;1.2764;1.3103;
137.4000;1.2731;1.3008;
137.7000;1.2764;1.3056;
138.0000;1.2764;1.3080;
138.3000;1.2764;1.3056;
138.6000;1.2764;1.3080;
138.9000;1.2747;1.2961;
139.2000;1.2772;1.2961;
139.5000;1.2796;1.3080;
139.8000;1.2739;1.3008;
140.1000;1.2747;1.2961;
140.4000;1.2755;1.2985;
140.7000;1.2731;1.2937;
141.0000;1.2739;1.2914;
141.3000;1.2723;1.2890;
141.6000;1.2731;1.2937;
141.9000;1.2747;1.2914;
142.2000;1.2739;1.2914;
142.5000;1.2739;1.2937;
142.8000;1.2715;1.2866;
143.1000;1.2747;1.2890;
143.4000;1.2772;1.2890;
143.7000;1.2764;1.2914;
144.0000;1.2755;1.2937;
144.3000;1.2764;1.2843;
144.6000;1.2707;1.2629;
144.9000;1.2772;1.2771;
145.2000;1.2739;1.2653;
145.5000;1.2739;1.2724;
145.8000;1.2731;1.2771;
146.1000;1.2731;1.2771;
146.4000;1.2739;1.2700;
146.7000;1.2739;1.2677;
147.0000;1.2755;1.2653;
147.3000;1.2731;1.2606;
147.6000;1.2755;1.2771;
147.9000;1.2755;1.2748;
148.2000;1.2812;1.2866;
148.5000;1.2755;1.2795;
148.8000;1.2764;1.2795;
149.1000;1.2739;1.2819;
149.4000;1.2747;1.2843;
149.7000;1.2780;1.2866;
150.0000;1.2764;1.2795;
150.3000;1.2764;1.2795;
150.6000;1.2739;1.2748;
150.9000;1.2747;1.2629;
151.2000;1.2739;1.2629;
151.5000;1.2755;1.2677;
151.8000;1.2821;1.2819;
152.1000;1.2821;1.2795;
152.4000;1.2764;1.2677;
152.7000;1.2747;1.2677;
153.0000;1.2739;1.2629;
153.3000;1.2698;1.2653;
153.6000;1.2666;1.2606;
153.9000;1.2755;1.2890;
154.2000;1.2755;1.2890;
154.5000;1.2764;1.2843;
154.8000;1.2747;1.2771;
155.1000;1.2755;1.2748;
155.4000;1.2739;1.2843;
155.7000;1.2739;1.2795;
156.0000;1.2715;1.2795;
156.3000;1.2739;1.2937;
156.6000;1.2731;1.2937;
156.9000;1.2755;1.2961;
157.2000;1.2747;1.2914;
157.5000;1.2731;1.2890;
157.8000;1.2739;1.2748;
158.1000;1.2755;1.2724;
158.4000;1.2747;1.2700;
158.7000;1.2747;1.2771;
159.0000;1.2739;1.2771;
159.3000;1.2747;1.2890;
159.6000;1.2747;1.2819;
159.9000;1.2747;1.2819;
160.2000;1.2731;1.2795;
160.5000;1.2755;1.2843;
160.8000;1.2755;1.2866;
161.1000;1.2772;1.2937;
161.4000;1.2739;1.2890;
161.7000;1.2739;1.2843;
162.0000;1.2747;1.2819;
162.3000;1.2788;1.2961;
162.6000;1.2723;1.2819;
162.9000;1.2739;1.2771;
163.2000;1.2747;1.2819;
163.5000;1.2772;1.2843;
163.8000;1.2764;1.2961;
164.1000;1.2764;1.2961;
164.4000;1.2739;1.2937;
164.7000;1.2731;1.3032;
165.0000;1.2780;1.3080;
165.3000;1.2747;1.2937;
165.6000;1.2731;1.2866;
165.9000;1.2723;1.2843;
166.2000;1.2747;1.2843;
166.5000;1.2698;1.2700;
166.8000;1.2690;1.2700;
167.1000;1.2723;1.2866;
167.4000;1.2731;1.2937;
167.7000;1.2698;1.2771;
168.0000;1.2731;1.2843;
168.3000;1.2723;1.2890;
168.6000;1.2747;1.3008;
168.9000;1.2764;1.3056;
169.2000;1.2739;1.2985;
169.5000;1.2755;1.3008;
169.8000;1.2812;1.3080;
170.1000;1.2764;1.2914;
170.4000;1.2747;1.2866;
170.7000;1.2821;1.3032;
171.0000;1.2747;1.2819;
171.3000;1.2747;1.2843;
171.6000;1.2772;1.2890;
171.9000;1.2747;1.2819;
172.2000;1.2780;1.2771;
172.5000;1.2796;1.2890;
172.8000;1.2755;1.2748;
173.1000;1.2755;1.2677;
173.4000;1.2747;1.2653;
173.7000;1.2764;1.2700;
174.0000;1.2723;1.2748;
174.3000;1.2755;1.2795;
174.6000;1.2796;1.2890;
174.9000;1.2747;1.2700;
175.2000;1.2764;1.2771;
175.5000;1.2764;1.2866;
175.8000;1.2764;1.2866;
176.1000;1.2747;1.2795;
176.4000;1.2731;1.2795;
176.7000;1.2739;1.2890;
177.0000;1.2723;1.2843;
177.3000;1.2747;1.3008;
177.6000;1.2731;1.2890;
177.9000;1.2764;1.2985;
178.2000;1.2747;1.2937;
178.5000;1.2739;1.2985;
178.8000;1.2755;1.3032;
179.1000;1.2755;1.3056;
179.4000;1.2723;1.3080;
179.7000;1.2747;1.3080;
180.0000;1.2755;1.3008;
180.3000;1.2747;1.3008;
180.6000;1.2731;1.2961;
180.9000;1.2780;1.2866;
181.2000;1.2731;1.2724;
181.5000;1.2747;1.2748;
181.8000;1.2755;1.2771;
182.1000;1.2723;1.2724;
182.4000;1.2731;1.2771;
182.7000;1.2739;1.2771;
183.0000;1.2739;1.2819;
183.3000;1.2739;1.2890;
183.6000;1.2723;1.2890;
183.9000;1.2747;1.2890;
184.2000;1.2764;1.2985;
184.5000;1.2747;1.3032;
184.8000;1.2747;1.2914;
185.1000;1.2723;1.2866;
185.4000;1.2731;1.2866;
185.7000;1.2747;1.2937;
186.0000;1.2731;1.2890;
186.3000;1.2747;1.2985;
186.6000;1.2747;1.2961;
186.9000;1.2764;1.3032;
187.2000;1.2739;1.3008;
187.5000;1.2812;1.3127;
187.8000;1.2755;1.3056;
188.1000;1.2755;1.3056;
188.4000;1.2764;1.3056;
188.7000;1.2772;1.3127;
189.0000;1.2764;1.3174;
189.3000;1.2747;1.3056;
189.6000;1.2755;1.3174;
189.9000;1.2723;1.3127;
190.2000;1.2739;1.3103;
190.5000;1.2764;1.3103;
190.8000;1.2715;1.3056;
191.1000;1.2731;1.3174;
191.4000;1.2739;1.3127;
191.7000;1.2739;1.3056;
192.0000;1.2731;1.2985;
192.3000;1.2723;1.3008;
192.6000;1.2723;1.2914;
192.9000;1.2731;1.2937;
193.2000;1.2731;1.2914;
193.5000;1.2747;1.2937;
193.8000;1.2723;1.2985;
194.1000;1.2715;1.2985;
194.4000;1.2747;1.3056;
194.7000;1.2755;1.3080;
195.0000;1.2747;1.2985;
195.3000;1.2747;1.2914;
195.6000;1.2731;1.2890;
195.9000;1.2764;1.2914;
196.2000;1.2764;1.2914;
196.5000;1.2821;1.2937;
196.8000;1.2796;1.3008;
197.1000;1.2739;1.2890;
197.4000;1.2739;1.2819;
197.7000;1.2747;1.2771;
198.0000;1.2804;1.2914;
198.3000;1.2755;1.2890;
198.6000;1.2755;1.2866;
198.9000;1.2739;1.2937;
199.2000;1.2755;1.3032;
199.5000;1.2755;1.3008;
199.8000;1.2747;1.2985;
200.1000;1.2739;1.2890;
200.4000;1.2723;1.2843;
200.7000;1.2812;1.3032;
201.0000;1.2739;1.2961;
201.3000;1.2772;1.3056;
201.6000;1.2731;1.3032;
201.9000;1.2747;1.3174;
202.2000;1.2755;1.3198;
202.5000;1.2723;1.3269;
202.8000;1.2723;1.3245;
203.1000;1.2707;1.3127;
203.4000;1.2755;1.3127;
203.7000;1.2739;1.3008;
204.0000;1.2747;1.3008;
204.3000;1.2731;1.3008;
204.6000;1.2764;1.3032;
204.9000;1.2731;1.2961;
205.2000;1.2739;1.2961;
205.5000;1.2739;1.2890;
205.8000;1.2764;1.2914;
206.1000;1.2755;1.2866;
206.4000;1.2747;1.2937;
206.7000;1.2739;1.3032;
207.0000;1.2739;1.2985;
207.3000;1.2739;1.2890;
207.6000;1.2723;1.2914;
207.9000;1.2731;1.2843;
208.2000;1.2739;1.2914;
208.5000;1.2764;1.2843;
208.8000;1.2788;1.2819;
209.1000;1.2747;1.2795;
209.4000;1.2723;1.2724;
209.7000;1.2747;1.2724;
210.0000;1.2788;1.2843;
210.3000;1.2715;1.2724;
210.6000;1.2788;1.2866;
210.9000;1.2764;1.2890;
211.2000;1.2780;1.2961;
211.5000;1.2739;1.2819;
211.8000;1.2812;1.3080;
212.1000;1.2755;1.2985;
212.4000;1.2755;1.2914;
212.7000;1.2747;1.2890;
213.0000;1.2739;1.2937;
213.3000;1.2739;1.3032;
213.6000;1.2731;1.3103;
213.9000;1.2780;1.3151;
214.2000;1.2723;1.3008;
214.5000;1.2715;1.3008;
214.8000;1.2690;1.2843;
215.1000;1.2731;1.3008;
215.4000;1.2739;1.3008;
215.7000;1.2739;1.3032;
216.0000;1.2707;1.2961;
216.3000;1.2739;1.2985;
216.6000;1.2707;1.2890;
216.9000;1.2804;1.3056;
217.2000;1.2764;1.2985;
217.5000;1.2780;1.3080;
217.8000;1.2739;1.2937;
218.1000;1.2747;1.2961;
218.4000;1.2747;1.2914;
218.7000;1.2772;1.2985;
219.0000;1.2821;1.3151;
219.3000;1.2747;1.2937;
219.6000;1.2739;1.2961;
219.9000;1.2772;1.3008;
220.2000;1.2747;1.2914;
220.5000;1.2747;1.2866;
220.8000;1.2747;1.2843;
221.1000;1.2747;1.2890;
221.4000;1.2755;1.2985;
221.7000;1.2690;1.2866;
222.0000;1.2764;1.3008;
222.3000;1.2764;1.2866;
222.6000;1.2755;1.2890;
222.9000;1.2747;1.2914;
223.2000;1.2731;1.2866;
223.5000;1.2707;1.2914;
223.8000;1.2788;1.3103;
224.1000;1.2739;1.2985;
224.4000;1.2747;1.2937;
224.7000;1.2739;1.2890;
225.0000;1.2715;1.2795;
225.3000;1.2796;1.3008;
225.6000;1.2739;1.2795;
225.9000;1.2739;1.2700;
226.2000;1.2723;1.2653;
226.5000;1.2747;1.2748;
226.8000;1.2739;1.2819;
227.1000;1.2747;1.2771;
227.4000;1.2731;1.2819;
227.7000;1.2755;1.2937;
228.0000;1.2739;1.2914;
228.3000;1.2731;1.2795;
228.6000;1.2731;1.2771;
228.9000;1.2764;1.2819;
229.2000;1.2739;1.2677;
229.5000;1.2755;1.2771;
229.8000;1.2731;1.2795;
230.1000;1.2764;1.2819;
230.4000;1.2755;1.2843;
230.7000;1.2747;1.2843;
231.0000;1.2731;1.2866;
231.3000;1.2747;1.2866;
231.6000;1.2747;1.2819;
231.9000;1.2731;1.2795;
232.2000;1.2739;1.2819;
232.5000;1.2739;1.2843;
232.8000;1.2739;1.2843;
233.1000;1.2707;1.2748;
233.4000;1.2764;1.2985;
233.7000;1.2747;1.2937;
234.0000;1.2739;1.2937;
234.3000;1.2780;1.2937;
234.6000;1.2739;1.2866;
234.9000;1.2731;1.2890;
235.2000;1.2739;1.2961;
235.5000;1.2755;1.3056;
235.8000;1.2739;1.3008;
236.1000;1.2731;1.2961;
236.4000;1.2747;1.2985;
236.7000;1.2747;1.2961;
237.0000;1.2747;1.2961;
237.3000;1.2715;1.2843;
237.6000;1.2723;1.2914;
237.9000;1.2764;1.2937;
238.2000;1.2723;1.2937;
238.5000;1.2731;1.2819;
238.8000;1.2739;1.2890;
239.1000;1.2731;1.2890;
239.4000;1.2747;1.2890;
239.7000;1.2666;1.2653;
240.0000;1.2747;1.2819;
240.3000;1.2731;1.2890;
240.6000;1.2731;1.2937;
240.9000;1.2731;1.2866;
241.2000;1.2739;1.2866;
241.5000;1.2755;1.2771;
241.8000;1.2747;1.2771;
242.1000;1.2731;1.2795;
242.4000;1.2747;1.2866;
242.7000;1.2764;1.2914;
243.0000;1.2755;1.2890;
243.3000;1.2788;1.2985;
243.6000;1.2764;1.2890;
243.9000;1.2739;1.2866;
244.2000;1.2739;1.2937;
244.5000;1.2739;1.2937;
244.8000;1.2723;1.2890;
245.1000;1.2731;1.2866;
245.4000;1.2739;1.2890;
245.7000;1.2755;1.3008;
246.0000;1.2755;1.2937;
246.3000;1.2731;1.2843;
246.6000;1.2707;1.2795;
246.9000;1.2739;1.2961;
247.2000;1.2723;1.3032;
247.5000;1.2739;1.3008;
247.8000;1.2682;1.2771;
248.1000;1.2755;1.2843;
248.4000;1.2715;1.2866;
248.7000;1.2739;1.2890;
249.0000;1.2739;1.2914;
249.3000;1.2731;1.2961;
249.6000;1.2731;1.2795;
249.9000;1.2739;1.2771;
250.2000;1.2747;1.2819;
250.5000;1.2723;1.2843;
250.8000;1.2747;1.2890;
251.1000;1.2715;1.2748;
251.4000;1.2755;1.2890;
251.7000;1.2731;1.2890;
252.0000;1.2739;1.2819;
252.3000;1.2739;1.2724;
252.6000;1.2739;1.2677;
252.9000;1.2674;1.2511;
253.2000;1.2747;1.2700;
253.5000;1.2739;1.2724;
253.8000;1.2715;1.2700;
254.1000;1.2731;1.2748;
254.4000;1.2723;1.2724;
254.7000;1.2739;1.2724;
255.0000;1.2731;1.2629;
255.3000;1.2731;1.2463;
255.6000;1.2739;1.2487;
255.9000;1.2747;1.2582;
256.2000;1.2731;1.2582;
256.5000;1.2723;1.2558;
256.8000;1.2764;1.2629;
257.1000;1.2731;1.2582;
257.4000;1.2764;1.2677;
257.7000;1.2731;1.2582;
258.0000;1.2731;1.2535;
258.3000;1.2707;1.2535;
258.6000;1.2731;1.2535;
258.9000;1.2731;1.2535;
259.2000;1.2739;1.2629;
259.5000;1.2731;1.2606;
259.8000;1.2812;1.2890;
260.1000;1.2764;1.2700;
260.4000;1.2698;1.2606;
260.7000;1.2723;1.2700;
261.0000;1.2755;1.2795;
261.3000;1.2739;1.2795;
261.6000;1.2772;1.2866;
261.9000;1.2739;1.2771;
262.2000;1.2731;1.2795;
262.5000;1.2658;1.2653;
262.8000;1.2723;1.2914;
263.1000;1.2731;1.2961;
263.4000;1.2739;1.2985;
263.7000;1.2821;1.3174;
264.0000;1.2739;1.2961;
264.3000;1.2707;1.2866;
264.6000;1.2739;1.2985;
264.9000;1.2739;1.2843;
265.2000;1.2739;1.2795;
265.5000;1.2731;1.2866;
265.8000;1.2731;1.2748;
266.1000;1.2780;1.2771;
266.4000;1.2739;1.2700;
266.7000;1.2731;1.2677;
267.0000;1.2755;1.2748;
267.3000;1.2764;1.2771;
267.6000;1.2755;1.2819;
267.9000;1.2764;1.2866;
268.2000;1.2747;1.2866;
268.5000;1.2747;1.2724;
268.8000;1.2772;1.2677;
269.1000;1.2739;1.2653;
269.4000;1.2739;1.2582;
269.7000;1.2739;1.2558;
270.0000;1.2747;1.2653;
270.3000;1.2715;1.2606;
270.6000;1.2739;1.2653;
270.9000;1.2731;1.2771;
271.2000;1.2723;1.2795;
271.5000;1.2739;1.2819;
271.8000;1.2731;1.2843;
272.1000;1.2723;1.2771;
272.4000;1.2731;1.2748;
272.7000;1.2715;1.2748;
273.0000;1.2731;1.2890;
273.3000;1.2739;1.2937;
273.6000;1.2731;1.2914;
273.9000;1.2747;1.2819;
274.2000;1.2723;1.2677;
274.5000;1.2715;1.2629;
274.8000;1.2723;1.2558;
275.1000;1.2723;1.2582;
275.4000;1.2723;1.2606;
275.7000;1.2715;1.2558;
276.0000;1.2723;1.2582;
276.3000;1.2739;1.2606;
276.6000;1.2747;1.2582;
276.9000;1.2731;1.2558;
277.2000;1.2739;1.2677;
277.5000;1.2747;1.2771;
277.8000;1.2723;1.2700;
278.1000;1.2764;1.2819;
278.4000;1.2747;1.2914;
278.7000;1.2772;1.2985;
279.0000;1.2772;1.2914;
279.3000;1.2747;1.2866;
279.6000;1.2747;1.2843;
279.9000;1.2739;1.2771;
280.2000;1.2739;1.2771;
280.5000;1.2731;1.2629;
280.8000;1.2731;1.2606;
281.1000;1.2723;1.2440;
281.4000;1.2747;1.2440;
281.7000;1.2731;1.2416;
282.0000;1.2723;1.2440;
282.3000;1.2747;1.2535;
282.6000;1.2723;1.2606;
282.9000;1.2747;1.2582;
283.2000;1.2747;1.2511;
283.5000;1.2739;1.2582;
283.8000;1.2755;1.2700;
284.1000;1.2772;1.2771;
284.4000;1.2723;1.2677;
284.7000;1.2755;1.2677;
285.0000;1.2739;1.2582;
285.3000;1.2747;1.2629;
285.6000;1.2707;1.2606;
285.9000;1.2731;1.2653;
286.2000;1.2707;1.2582;
286.5000;1.2853;1.2985;
286.8000;1.2715;1.2819;
287.1000;1.2707;1.2795;
287.4000;1.2690;1.2795;
287.7000;1.2731;1.2843;
288.0000;1.2772;1.2890;
288.3000;1.2739;1.2771;
288.6000;1.2731;1.2724;
288.9000;1.2723;1.2771;
289.2000;1.2764;1.2795;
289.5000;1.2739;1.2748;
289.8000;1.2690;1.2558;
290.1000;1.2715;1.2724;
290.4000;1.2747;1.2795;
290.7000;1.2739;1.2914;
291.0000;1.2739;1.2937;
291.3000;1.2739;1.2985;
291.6000;1.2755;1.2961;
291.9000;1.2715;1.2843;
292.2000;1.2715;1.2819;
292.5000;1.2650;1.2653;
292.8000;1.2690;1.2748;
293.1000;1.2731;1.2843;
293.4000;1.2715;1.2795;
293.7000;1.2690;1.2724;
294.0000;1.2739;1.2866;
294.3000;1.2723;1.2843;
294.6000;1.2715;1.2771;
294.9000;1.2731;1.2795;
295.2000;1.2723;1.2819;
295.5000;1.2723;1.2771;
295.8000;1.2747;1.2866;
296.1000;1.2739;1.2795;
296.4000;1.2772;1.2890;
296.7000;1.2739;1.2843;
297.0000;1.2698;1.2771;
297.3000;1.2707;1.2771;
297.6000;1.2715;1.2843;
297.9000;1.2698;1.2795;
298.2000;1.2723;1.2819;
298.5000;1.2723;1.2937;
298.8000;1.2723;1.2961;
299.1000;1.2739;1.3103;
299.4000;1.2747;1.3056;
299.7000;1.2731;1.3008;
300.0000;1.2731;1.2985;
300.3000;1.2739;1.2819;
300.6000;1.2731;1.2843;
300.9000;1.2723;1.2795;
301.2000;1.2731;1.2843;
301.5000;1.2739;1.2843;
301.8000;1.2747;1.2866;
302.1000;1.2739;1.2819;
302.4000;1.2707;1.2843;
302.7000;1.2739;1.2890;
303.0000;1.2731;1.2937;
303.3000;1.2747;1.3032;
303.6000;1.2707;1.2914;
303.9000;1.2723;1.2914;
304.2000;1.2764;1.2961;
304.5000;1.2715;1.2914;
304.8000;1.2731;1.2914;
305.1000;1.2747;1.2985;
305.4000;1.2772;1.3103;
305.7000;1.2723;1.2937;
306.0000;1.2698;1.2866;
306.3000;1.2723;1.2795;
306.6000;1.2641;1.2700;
306.9000;1.2739;1.2985;
307.2000;1.2723;1.2937;
307.5000;1.2715;1.2914;
307.8000;1.2723;1.2961;
308.1000;1.2739;1.3032;
308.4000;1.2723;1.3080;
308.7000;1.2723;1.3127;
309.0000;1.2682;1.3032;
309.3000;1.2723;1.3127;
309.6000;1.2723;1.3056;
309.9000;1.2690;1.2890;
310.2000;1.2715;1.2866;
310.5000;1.2755;1.2890;
310.8000;1.2723;1.2866;
311.1000;1.2739;1.2937;
311.4000;1.2731;1.2914;
311.7000;1.2731;1.2914;
312.0000;1.2731;1.2890;
312.3000;1.2739;1.2914;
312.6000;1.2731;1.2914;
312.9000;1.2739;1.2985;
313.2000;1.2715;1.3056;
313.5000;1.2747;1.3127;
313.8000;1.2812;1.3198;
314.1000;1.2715;1.3080;
314.4000;1.2747;1.3127;
314.7000;1.2747;1.3127;
315.0000;1.2739;1.3080;
315.3000;1.2796;1.3151;
315.6000;1.2731;1.2937;
315.9000;1.2707;1.2866;
316.2000;1.2739;1.2937;
316.5000;1.2739;1.2961;
316.8000;1.2723;1.2890;
317.1000;1.2731;1.2890;
317.4000;1.2772;1.2937;
317.7000;1.2731;1.2843;
318.0000;1.2723;1.2866;
318.3000;1.2723;1.2866;
318.6000;1.2723;1.2843;
318.9000;1.2739;1.2843;
319.2000;1.2723;1.2843;
319.5000;1.2723;1.2890;
319.8000;1.2747;1.2961;
320.1000;1.2731;1.2985;
320.4000;1.2739;1.3008;
320.7000;1.2739;1.3056;
321.0000;1.2772;1.3151;
321.3000;1.2731;1.2985;
321.6000;1.2731;1.2890;
321.9000;1.2731;1.2866;
322.2000;1.2739;1.2890;
322.5000;1.2731;1.2914;
322.8000;1.2723;1.2890;
323.1000;1.2723;1.2914;
323.4000;1.2739;1.2937;
323.7000;1.2755;1.2937;
324.0000;1.2739;1.2985;
324.3000;1.2731;1.2961;
324.6000;1.2731;1.2890;
324.9000;1.2755;1.2961;
325.2000;1.2796;1.2985;
325.5000;1.2747;1.2937;
325.8000;1.2747;1.2961;
326.1000;1.2641;1.2795;
326.4000;1.2755;1.2961;
326.7000;1.2723;1.2985;
327.0000;1.2739;1.3008;
327.3000;1.2739;1.3056;
327.6000;1.2764;1.3032;
327.9000;1.2715;1.2914;
328.2000;1.2723;1.2890;
328.5000;1.2723;1.2866;
328.8000;1.2731;1.2819;
329.1000;1.2715;1.2677;
329.4000;1.2731;1.2700;
329.7000;1.2731;1.2748;
330.0000;1.2707;1.2700;
330.3000;1.2731;1.2724;
330.6000;1.2723;1.2795;
330.9000;1.2715;1.2771;
331.2000;1.2723;1.2795;
331.5000;1.2731;1.2771;
331.8000;1.2723;1.2771;
332.1000;1.2715;1.2771;
332.4000;1.2707;1.2795;
332.7000;1.2731;1.2866;
333.0000;1.2755;1.2914;
333.3000;1.2731;1.2843;
333.6000;1.2731;1.2795;
333.9000;1.2723;1.2771;
334.2000;1.2723;1.2795;
334.5000;1.2812;1.3080;
334.8000;1.2723;1.2795;
335.1000;1.2772;1.2914;
335.4000;1.2715;1.2866;
335.7000;1.2723;1.2843;
336.0000;1.2739;1.2843;
336.3000;1.2731;1.2866;
336.6000;1.2715;1.2795;
336.9000;1.2731;1.2795;
337.2000;1.2731;1.2795;
337.5000;1.2731;1.2914;
337.8000;1.2747;1.2985;
338.1000;1.2650;1.2748;
338.4000;1.2731;1.2843;
338.7000;1.2764;1.2890;
339.0000;1.2723;1.2890;
339.3000;1.2731;1.2890;
339.6000;1.2715;1.2890;
339.9000;1.2715;1.2890;
340.2000;1.2731;1.2937;
340.5000;1.2715;1.2937;
340.8000;1.2723;1.2985;
341.1000;1.2723;1.2937;
341.4000;1.2747;1.3032;
341.7000;1.2764;1.3127;
342.0000;1.2755;1.3056;
342.3000;1.2723;1.2937;
342.6000;1.2723;1.2937;
342.9000;1.2731;1.2890;
343.2000;1.2723;1.2914;
343.5000;1.2723;1.2937;
343.8000;1.2723;1.2866;
344.1000;1.2812;1.2985;
344.4000;1.2739;1.2843;
344.7000;1.2731;1.2914;
345.0000;1.2723;1.2985;
345.3000;1.2723;1.3032;
345.6000;1.2747;1.3008;
345.9000;1.2755;1.3103;
346.2000;1.2764;1.3174;
346.5000;1.2739;1.3174;
346.8000;1.2731;1.3151;
347.1000;1.2747;1.3151;
347.4000;1.2723;1.3080;
347.7000;1.2731;1.3032;
348.0000;1.2739;1.3127;
348.3000;1.2715;1.3080;
348.6000;1.2739;1.3080;
348.9000;1.2747;1.3103;
349.2000;1.2731;1.3056;
349.5000;1.2739;1.3056;
349.8000;1.2747;1.3056;
350.1000;1.2715;1.3056;
350.4000;1.2731;1.3127;
350.7000;1.2739;1.3103;
351.0000;1.2707;1.3056;
351.3000;1.2682;1.2961;
351.6000;1.2723;1.2961;
351.9000;1.2731;1.3008;
352.2000;1.2715;1.3032;
352.5000;1.2715;1.3032;
352.8000;1.2739;1.3056;
353.1000;1.2698;1.2937;
353.4000;1.2715;1.2866;
353.7000;1.2707;1.2843;
354.0000;1.2764;1.2914;
354.3000;1.2723;1.2914;
354.6000;1.2731;1.2985;
354.9000;1.2707;1.2961;
355.2000;1.2723;1.2985;
355.5000;1.2666;1.2914;
355.8000;1.2707;1.2985;
356.1000;1.2690;1.2961;
356.4000;1.2723;1.2985;
356.7000;1.2739;1.3103;
357.0000;1.2715;1.3080;
357.3000;1.2723;1.3080;
357.6000;1.2715;1.3008;
357.9000;1.2723;1.3008;
358.2000;1.2707;1.3056;
358.5000;1.2715;1.3008;
358.8000;1.2723;1.3008;
359.1000;1.2723;1.3032;
359.4000;1.2723;1.3103;
359.7000;1.2764;1.3222;
360.0000;1.2707;1.3080;
360.3000;1.2739;1.3080;
360.6000;1.2731;1.3008;
360.9000;1.2731;1.2937;
361.2000;1.2731;1.2914;
361.5000;1.2739;1.2890;
361.8000;1.2755;1.2890;
362.1000;1.2747;1.2819;
362.4000;1.2723;1.2724;
362.7000;1.2755;1.2795;
363.0000;1.2723;1.2748;
363.3000;1.2739;1.2890;
363.6000;1.2698;1.2819;
363.9000;1.2715;1.2866;
364.2000;1.2723;1.2866;
364.5000;1.2715;1.2914;
364.8000;1.2723;1.2961;
365.1000;1.2731;1.2890;
365.4000;1.2755;1.2890;
365.7000;1.2739;1.2843;
366.0000;1.2715;1.2724;
366.3000;1.2731;1.2606;
366.6000;1.2731;1.2629;
366.9000;1.2698;1.2629;
367.2000;1.2715;1.2748;
367.5000;1.2715;1.2748;
367.8000;1.2715;1.2771;
368.1000;1.2723;1.2795;
368.4000;1.2731;1.2795;
368.7000;1.2739;1.2843;
369.0000;1.2682;1.2748;
369.3000;1.2723;1.2985;
369.6000;1.2723;1.3008;
369.9000;1.2731;1.2985;
370.2000;1.2723;1.2985;
370.5000;1.2723;1.2890;
370.8000;1.2747;1.2937;
371.1000;1.2731;1.2914;
371.4000;1.2739;1.2914;
371.7000;1.2739;1.2795;
372.0000;1.2747;1.2843;
372.3000;1.2739;1.2795;
372.6000;1.2731;1.2819;
372.9000;1.2707;1.2866;
373.2000;1.2731;1.2914;
373.5000;1.2747;1.2914;
373.8000;1.2731;1.2866;
374.1000;1.2755;1.3032;
374.4000;1.2723;1.3008;
374.7000;1.2731;1.3032;
375.0000;1.2698;1.2937;
375.3000;1.2731;1.2961;
375.6000;1.2723;1.2961;
375.9000;1.2715;1.2985;
376.2000;1.2739;1.3080;
376.5000;1.2698;1.3008;
376.8000;1.2707;1.3008;
377.1000;1.2723;1.3008;
377.4000;1.2739;1.2937;
377.7000;1.2739;1.2961;
378.0000;1.2772;1.3080;
378.3000;1.2731;1.3056;
378.6000;1.2715;1.3032;
378.9000;1.2698;1.3103;
379.2000;1.2682;1.2961;
379.5000;1.2707;1.3032;
379.8000;1.2707;1.3008;
380.1000;1.2788;1.3222;
380.4000;1.2715;1.3008;
380.7000;1.2723;1.3032;
381.0000;1.2723;1.3151;
381.3000;1.2739;1.3198;
381.6000;1.2739;1.3222;
381.9000;1.2747;1.3245;
382.2000;1.2731;1.3269;
382.5000;1.2723;1.3222;
382.8000;1.2731;1.3151;
383.1000;1.2731;1.3103;
383.4000;1.2731;1.3008;
383.7000;1.2739;1.3103;
384.0000;1.2723;1.3032;
384.3000;1.2707;1.3056;
384.6000;1.2731;1.3056;
384.9000;1.2747;1.3056;
385.2000;1.2723;1.3032;
385.5000;1.2723;1.2985;
385.8000;1.2731;1.2866;
386.1000;1.2723;1.2890;
386.4000;1.2707;1.2819;
386.7000;1.2723;1.2795;
387.0000;1.2723;1.2819;
387.3000;1.2723;1.2819;
387.6000;1.2723;1.2866;
387.9000;1.2707;1.2819;
388.2000;1.2723;1.2914;
388.5000;1.2674;1.2819;
388.8000;1.2715;1.2890;
389.1000;1.2755;1.2937;
389.4000;1.2715;1.2890;
389.7000;1.2707;1.2843;
390.0000;1.2698;1.2748;
390.3000;1.2715;1.2724;
390.6000;1.2707;1.2700;
390.9000;1.2731;1.2771;
391.2000;1.2715;1.2795;
391.5000;1.2731;1.2866;
391.8000;1.2707;1.2819;
392.1000;1.2723;1.2890;
392.4000;1.2739;1.3008;
392.7000;1.2731;1.3056;
393.0000;1.2715;1.3032;
393.3000;1.2723;1.2985;
393.6000;1.2715;1.2937;
393.9000;1.2715;1.2819;
394.2000;1.2739;1.2819;
394.5000;1.2723;1.2843;
394.8000;1.2723;1.2771;
395.1000;1.2715;1.2890;
395.4000;1.2715;1.2914;
395.7000;1.2715;1.2914;
396.0000;1.2723;1.2914;
396.3000;1.2715;1.2914;
396.6000;1.2666;1.2866;
396.9000;1.2658;1.2819;
397.2000;1.2707;1.2914;
397.5000;1.2715;1.2985;
397.8000;1.2723;1.3103;
398.1000;1.2707;1.3151;
398.4000;1.2723;1.3127;
398.7000;1.2747;1.3056;
399.0000;1.2723;1.2985;
399.3000;1.2715;1.2985;
399.6000;1.2755;1.3032;
399.9000;1.2723;1.2961;
400.2000;1.2698;1.2914;
400.5000;1.2731;1.2961;
400.8000;1.2707;1.2985;
401.1000;1.2715;1.3032;
401.4000;1.2739;1.3127;
401.7000;1.2755;1.3127;
402.0000;1.2715;1.3008;
402.3000;1.2715;1.3103;
402.6000;1.2707;1.3056;
402.9000;1.2739;1.3174;
403.2000;1.2625;1.2890;
403.5000;1.2731;1.3127;
403.8000;1.2723;1.3103;
404.1000;1.2731;1.3151;
404.4000;1.2698;1.3198;
404.7000;1.2723;1.3151;
405.0000;1.2707;1.3080;
405.3000;1.2723;1.2961;
405.6000;1.2707;1.2985;
405.9000;1.2715;1.3008;
406.2000;1.2715;1.2985;
406.5000;1.2723;1.3008;
406.8000;1.2715;1.3127;
407.1000;1.2707;1.3127;
407.4000;1.2707;1.3032;
407.7000;1.2715;1.2985;
408.0000;1.2723;1.3032;
408.3000;1.2739;1.2985;
408.6000;1.2723;1.2961;
408.9000;1.2723;1.2914;
409.2000;1.2715;1.2866;
409.5000;1.2723;1.2866;
409.8000;1.2731;1.2795;
410.1000;1.2715;1.2795;
410.4000;1.2715;1.2771;
410.7000;1.2723;1.2771;
411.0000;1.2715;1.2724;
411.3000;1.2715;1.2629;
411.6000;1.2731;1.2677;
411.9000;1.2731;1.2771;
412.2000;1.2707;1.2724;
412.5000;1.2731;1.2700;
412.8000;1.2812;1.2985;
413.1000;1.2731;1.2748;
413.4000;1.2707;1.2677;
413.7000;1.2707;1.2700;
414.0000;1.2715;1.2724;
414.3000;1.2723;1.2771;
414.6000;1.2723;1.2795;
414.9000;1.2674;1.2771;
415.2000;1.2707;1.2890;
415.5000;1.2739;1.2961;
415.8000;1.2764;1.2937;
416.1000;1.2723;1.2748;
416.4000;1.2739;1.2866;
416.7000;1.2715;1.2985;
417.0000;1.2739;1.3056;
417.3000;1.2723;1.3127;
417.6000;1.2731;1.3103;
417.9000;1.2723;1.3151;
418.2000;1.2723;1.3103;
418.5000;1.2739;1.3056;
418.8000;1.2723;1.3008;
419.1000;1.2707;1.2914;
419.4000;1.2715;1.2985;
419.7000;1.2715;1.3008;
420.0000;1.2707;1.2961;
420.3000;1.2723;1.2937;
420.6000;1.2650;1.2819;
420.9000;1.2755;1.2985;
421.2000;1.2723;1.2914;
421.5000;1.2707;1.2890;
421.8000;1.2723;1.2890;
422.1000;1.2747;1.2985;
422.4000;1.2682;1.2819;
422.7000;1.2707;1.2914;
423.0000;1.2707;1.2937;
423.3000;1.2731;1.2961;
423.6000;1.2674;1.2819;
423.9000;1.2715;1.2819;
424.2000;1.2698;1.2819;
424.5000;1.2723;1.2795;
424.8000;1.2715;1.2819;
425.1000;1.2715;1.2843;
425.4000;1.2764;1.3008;
425.7000;1.2723;1.2914;
426.0000;1.2715;1.2985;
426.3000;1.2707;1.2937;
426.6000;1.2715;1.2890;
426.9000;1.2723;1.2866;
427.2000;1.2723;1.2890;
427.5000;1.2723;1.2843;
427.8000;1.2707;1.2819;
428.1000;1.2658;1.2748;
428.4000;1.2731;1.2937;
428.7000;1.2707;1.2914;
429.0000;1.2723;1.2961;
429.3000;1.2707;1.2937;
429.6000;1.2715;1.2985;
429.9000;1.2650;1.2724;
430.2000;1.2707;1.2890;
430.5000;1.2715;1.2961;
430.8000;1.2723;1.2961;
431.1000;1.2707;1.2866;
431.4000;1.2715;1.2819;
431.7000;1.2715;1.2819;
432.0000;1.2715;1.2843;
432.3000;1.2715;1.2819;
432.6000;1.2723;1.2748;
432.9000;1.2690;1.2606;
433.2000;1.2739;1.2677;
433.5000;1.2723;1.2724;
433.8000;1.2731;1.2795;
434.1000;1.2715;1.2843;
434.4000;1.2617;1.2606;
434.7000;1.2723;1.2819;
435.0000;1.2666;1.2748;
435.3000;1.2755;1.3032;
435.6000;1.2707;1.2914;
435.9000;1.2715;1.2914;
436.2000;1.2715;1.2914;
436.5000;1.2707;1.2843;
436.8000;1.2690;1.2771;
437.1000;1.2731;1.2866;
437.4000;1.2788;1.3008;
437.7000;1.2739;1.2914;
438.0000;1.2715;1.2866;
438.3000;1.2707;1.2890;
438.6000;1.2739;1.2914;
438.9000;1.2731;1.2914;
439.2000;1.2723;1.2914;
439.5000;1.2707;1.2866;
439.8000;1.2707;1.2866;
440.1000;1.2723;1.2985;
440.4000;1.2715;1.3056;
440.7000;1.2715;1.3080;
441.0000;1.2690;1.3008;
441.3000;1.2707;1.3008;
441.6000;1.2723;1.2985;
441.9000;1.2715;1.2985;
442.2000;1.2723;1.3008;
442.5000;1.2715;1.2985;
442.8000;1.2682;1.2937;
443.1000;1.2755;1.3127;
443.4000;1.2723;1.3103;
443.7000;1.2739;1.3127;
444.0000;1.2739;1.3151;
444.3000;1.2723;1.3103;
444.6000;1.2698;1.2961;
444.9000;1.2715;1.2961;
445.2000;1.2715;1.2985;
445.5000;1.2731;1.3008;
445.8000;1.2707;1.3008;
446.1000;1.2715;1.3032;
446.4000;1.2715;1.2985;
446.7000;1.2715;1.3008;
447.0000;1.2698;1.2985;
447.3000;1.2690;1.3056;
447.6000;1.2707;1.3056;
447.9000;1.2723;1.3080;
448.2000;1.2715;1.3127;
448.5000;1.2723;1.3245;
448.8000;1.2707;1.3103;
449.1000;1.2707;1.3056;
449.4000;1.2707;1.3103;
449.7000;1.2698;1.3151;
450.0000;1.2731;1.3245;
450.3000;1.2731;1.3222;
450.6000;1.2698;1.3151;
450.9000;1.2690;1.3127;
451.2000;1.2690;1.3127;
451.5000;1.2715;1.3222;
451.8000;1.2698;1.3127;
452.1000;1.2698;1.3032;
452.4000;1.2690;1.3080;
452.7000;1.2715;1.3103;
453.0000;1.2739;1.3151;
453.3000;1.2723;1.2961;
453.6000;1.2715;1.2961;
453.9000;1.2682;1.3008;
454.2000;1.2707;1.3032;
454.5000;1.2731;1.3103;
454.8000;1.2723;1.3103;
455.1000;1.2698;1.3032;
455.4000;1.2772;1.3222;
455.7000;1.2715;1.3080;
456.0000;1.2723;1.3056;
456.3000;1.2731;1.3056;
456.6000;1.2715;1.3056;
456.9000;1.2707;1.2985;
457.2000;1.2690;1.2961;
457.5000;1.2698;1.3008;
457.8000;1.2723;1.3103;
458.1000;1.2698;1.3008;
458.4000;1.2755;1.3080;
458.7000;1.2707;1.2961;
459.0000;1.2715;1.2937;
459.3000;1.2780;1.3174;
459.6000;1.2723;1.3056;
459.9000;1.2674;1.2961;
460.2000;1.2731;1.3127;
460.5000;1.2707;1.3056;
460.8000;1.2674;1.2937;
461.1000;1.2723;1.2985;
461.4000;1.2707;1.3008;
461.7000;1.2698;1.3008;
462.0000;1.2707;1.2961;
462.3000;1.2707;1.2914;
462.6000;1.2707;1.2985;
462.9000;1.2715;1.3174;
463.2000;1.2747;1.3269;
463.5000;1.2690;1.3245;
463.8000;1.2690;1.3151;
464.1000;1.2707;1.3151;
464.4000;1.2698;1.3198;
464.7000;1.2698;1.3222;
465.0000;1.2690;1.3103;
465.3000;1.2723;1.3103;
465.6000;1.2690;1.2985;
465.9000;1.2682;1.3008;
466.2000;1.2690;1.3008;
466.5000;1.2715;1.3080;
466.8000;1.2715;1.3008;
467.1000;1.2723;1.2937;
467.4000;1.2682;1.2890;
467.7000;1.2698;1.3008;
468.0000;1.2715;1.3032;
468.3000;1.2690;1.3008;
468.6000;1.2682;1.2961;
468.9000;1.2715;1.2985;
469.2000;1.2690;1.2961;
469.5000;1.2698;1.3056;
469.8000;1.2715;1.3080;
470.1000;1.2690;1.3008;
470.4000;1.2666;1.2985;
470.7000;1.2707;1.2985;
471.0000;1.2764;1.3127;
471.3000;1.2698;1.3056;
471.6000;1.2658;1.3008;
471.9000;1.2715;1.3103;
472.2000;1.2690;1.3056;
472.5000;1.2707;1.3127;
472.8000;1.2658;1.2985;
473.1000;1.2682;1.3127;
473.4000;1.2715;1.3127;
473.7000;1.2707;1.3127;
474.0000;1.2764;1.3293;
474.3000;1.2723;1.3174;
474.6000;1.2707;1.3032;
474.9000;1.2707;1.3056;
475.2000;1.2731;1.3032;
475.5000;1.2707;1.2890;
475.8000;1.2715;1.2866;
476.1000;1.2715;1.2819;
476.4000;1.2707;1.2866;
476.7000;1.2723;1.2914;
477.0000;1.2707;1.2961;
477.3000;1.2715;1.2961;
477.6000;1.2723;1.2914;
477.9000;1.2723;1.2890;
478.2000;1.2723;1.2819;
478.5000;1.2715;1.2866;
478.8000;1.2715;1.2937;
479.1000;1.2723;1.2985;
479.4000;1.2707;1.2985;
479.7000;1.2715;1.3008;
480.0000;1.2723;1.3008;
480.3000;1.2674;1.2914;
480.6000;1.2707;1.3008;
480.9000;1.2723;1.3008;
481.2000;1.2707;1.3008;
481.5000;1.2690;1.2914;
481.8000;1.2731;1.2937;
482.1000;1.2715;1.3056;
482.4000;1.2674;1.2961;
482.7000;1.2698;1.2961;
483.0000;1.2715;1.2961;
483.3000;1.2723;1.2985;
483.6000;1.2715;1.2985;
483.9000;1.2715;1.3008;
484.2000;1.2698;1.3032;
484.5000;1.2650;1.2937;
484.8000;1.2715;1.3103;
485.1000;1.2690;1.2985;
485.4000;1.2682;1.2985;
485.7000;1.2707;1.3103;
486.0000;1.2723;1.3127;
486.3000;1.2682;1.3080;
486.6000;1.2633;1.2985;
486.9000;1.2698;1.3151;
487.2000;1.2674;1.3056;
487.5000;1.2715;1.3151;
487.8000;1.2690;1.3127;
488.1000;1.2658;1.3008;
488.4000;1.2723;1.3151;
488.7000;1.2690;1.3174;
489.0000;1.2707;1.3245;
489.3000;1.2674;1.3103;
489.6000;1.2698;1.3151;
489.9000;1.2715;1.3174;
490.2000;1.2690;1.3103;
490.5000;1.2707;1.3103;
490.8000;1.2707;1.3080;
491.1000;1.2707;1.3032;
491.4000;1.2707;1.2890;
491.7000;1.2715;1.2985;
492.0000;1.2715;1.3032;
492.3000;1.2690;1.3032;
492.6000;1.2723;1.3080;
492.9000;1.2707;1.3032;
493.2000;1.2698;1.2985;
493.5000;1.2617;1.2843;
493.8000;1.2698;1.2961;
494.1000;1.2666;1.2795;
494.4000;1.2690;1.2866;
494.7000;1.2772;1.3080;
495.0000;1.2715;1.3008;
495.3000;1.2715;1.2937;
495.6000;1.2682;1.2843;
495.9000;1.2698;1.2961;
496.2000;1.2690;1.3080;
496.5000;1.2682;1.3103;
496.8000;1.2698;1.3056;
497.1000;1.2698;1.3032;
497.4000;1.2698;1.2985;
497.7000;1.2698;1.2961;
498.0000;1.2690;1.2937;
498.3000;1.2698;1.2937;
498.6000;1.2707;1.2937;
498.9000;1.2707;1.2937;
499.2000;1.2707;1.2985;
499.5000;1.2707;1.3032;
499.8000;1.2715;1.3080;
500.1000;1.2707;1.3080;
500.4000;1.2698;1.3127;
500.7000;1.2707;1.3174;
501.0000;1.2731;1.3222;
501.3000;1.2723;1.3127;
501.6000;1.2715;1.3103;
501.9000;1.2715;1.3056;
502.2000;1.2698;1.2961;
502.5000;1.2715;1.2985;
502.8000;1.2707;1.2914;
503.1000;1.2682;1.3008;
503.4000;1.2698;1.3032;
503.7000;1.2690;1.3080;
504.0000;1.2698;1.3127;
504.3000;1.2674;1.3080;
504.6000;1.2698;1.3056;
504.9000;1.2707;1.2985;
505.2000;1.2698;1.2937;
505.5000;1.2715;1.2937;
505.8000;1.2723;1.3008;
506.1000;1.2715;1.2985;
506.4000;1.2715;1.2985;
506.7000;1.2731;1.3080;
507.0000;1.2698;1.3080;
507.3000;1.2707;1.3103;
507.6000;1.2698;1.3008;
507.9000;1.2715;1.2961;
508.2000;1.2698;1.2961;
508.5000;1.2625;1.2677;
508.8000;1.2690;1.2985;
509.1000;1.2698;1.3032;
509.4000;1.2698;1.3032;
509.7000;1.2690;1.3008;
510.0000;1.2723;1.3151;
510.3000;1.2723;1.3222;
510.6000;1.2682;1.3127;
510.9000;1.2690;1.3127;
511.2000;1.2698;1.3127;
511.5000;1.2707;1.3151;
511.8000;1.2707;1.3198;
512.1000;1.2707;1.3174;
512.4000;1.2698;1.3127;
512.7000;1.2658;1.2961;
513.0000;1.2698;1.3056;
513.3000;1.2674;1.2914;
513.6000;1.2641;1.2748;
513.9000;1.2690;1.2937;
514.2000;1.2707;1.3032;
514.5000;1.2641;1.2819;
514.8000;1.2690;1.2914;
515.1000;1.2707;1.2914;
515.4000;1.2707;1.2866;
515.7000;1.2707;1.2843;
516.0000;1.2707;1.2937;
516.3000;1.2707;1.2937;
516.6000;1.2698;1.3008;
516.9000;1.2698;1.2985;
517.2000;1.2723;1.3032;
517.5000;1.2707;1.3032;
517.8000;1.2747;1.3127;
518.1000;1.2707;1.3103;
518.4000;1.2690;1.3103;
518.7000;1.2666;1.2914;
519.0000;1.2690;1.2914;
519.3000;1.2698;1.2937;
519.6000;1.2698;1.3008;
519.9000;1.2682;1.2890;
520.2000;1.2690;1.2843;
520.5000;1.2707;1.2914;
520.8000;1.2690;1.2866;
521.1000;1.2690;1.2937;
521.4000;1.2690;1.2985;
521.7000;1.2690;1.3056;
522.0000;1.2698;1.3080;
522.3000;1.2698;1.3056;
522.6000;1.2682;1.3008;
522.9000;1.2698;1.3032;
523.2000;1.2715;1.2985;
523.5000;1.2707;1.3056;
523.8000;1.2698;1.3103;
524.1000;1.2698;1.3032;
524.4000;1.2698;1.2937;
524.7000;1.2707;1.2985;
525.0000;1.2690;1.2985;
525.3000;1.2698;1.3008;
525.6000;1.2731;1.3032;
525.9000;1.2707;1.3008;
526.2000;1.2707;1.3008;
526.5000;1.2707;1.3056;
526.8000;1.2698;1.3056;
527.1000;1.2715;1.3056;
527.4000;1.2698;1.3032;
527.7000;1.2698;1.3056;
528.0000;1.2707;1.2985;
528.3000;1.2707;1.2961;
528.6000;1.2739;1.3056;
528.9000;1.2698;1.2985;
529.2000;1.2682;1.2937;
529.5000;1.2690;1.3032;
529.8000;1.2723;1.3103;
530.1000;1.2707;1.3032;
530.4000;1.2698;1.2985;
530.7000;1.2698;1.2985;
531.0000;1.2715;1.3056;
531.3000;1.2690;1.3008;
531.6000;1.2690;1.2985;
531.9000;1.2707;1.3032;
532.2000;1.2707;1.3056;
532.5000;1.2690;1.3056;
532.8000;1.2690;1.3032;
533.1000;1.2698;1.3056;
533.4000;1.2698;1.3008;
533.7000;1.2682;1.2914;
534.0000;1.2707;1.2961;
534.3000;1.2682;1.2890;
534.6000;1.2707;1.2985;
534.9000;1.2698;1.3008;
535.2000;1.2682;1.2914;
535.5000;1.2690;1.2985;
535.8000;1.2690;1.2914;
536.1000;1.2690;1.2866;
536.4000;1.2690;1.2843;
536.7000;1.2682;1.2819;
537.0000;1.2739;1.2890;
537.3000;1.2707;1.2771;
537.6000;1.2707;1.2795;
537.9000;1.2731;1.2795;
538.2000;1.2698;1.2819;
538.5000;1.2698;1.2843;
538.8000;1.2698;1.2866;
539.1000;1.2698;1.2866;
539.4000;1.2690;1.2937;
539.7000;1.2755;1.3103;
540.0000;1.2707;1.2961;
540.3000;1.2698;1.2961;
540.6000;1.2666;1.2843;
540.9000;1.2796;1.3103;
541.2000;1.2723;1.2961;
541.5000;1.2698;1.2890;
541.8000;1.2747;1.3032;
542.1000;1.2707;1.2937;
542.4000;1.2682;1.2937;
542.7000;1.2682;1.3008;
543.0000;1.2650;1.2914;
543.3000;1.2707;1.3056;
543.6000;1.2715;1.3127;
543.9000;1.2698;1.3080;
544.2000;1.2707;1.3032;
544.5000;1.2682;1.3008;
544.8000;1.2690;1.3008;
545.1000;1.2755;1.3198;
545.4000;1.2682;1.3056;
545.7000;1.2682;1.3080;
546.0000;1.2698;1.3103;
546.3000;1.2674;1.3127;
546.6000;1.2698;1.3151;
546.9000;1.2690;1.3032;
547.2000;1.2690;1.2985;
547.5000;1.2707;1.3080;
547.8000;1.2690;1.3056;
548.1000;1.2690;1.2985;
548.4000;1.2682;1.2985;
548.7000;1.2698;1.3032;
549.0000;1.2666;1.2985;
549.3000;1.2682;1.3080;
549.6000;1.2682;1.3008;
549.9000;1.2674;1.2985;
550.2000;1.2682;1.3008;
550.5000;1.2707;1.3032;
550.8000;1.2690;1.2961;
551.1000;1.2690;1.3032;
551.4000;1.2739;1.3151;
551.7000;1.2690;1.3008;
552.0000;1.2682;1.3008;
552.3000;1.2682;1.2985;
552.6000;1.2707;1.2985;
552.9000;1.2698;1.2937;
553.2000;1.2698;1.2866;
553.5000;1.2690;1.2843;
553.8000;1.2698;1.2937;
554.1000;1.2731;1.3080;
554.4000;1.2674;1.3032;
554.7000;1.2698;1.3008;
555.0000;1.2682;1.3032;
555.3000;1.2658;1.2985;
555.6000;1.2674;1.2985;
555.9000;1.2690;1.2866;
556.2000;1.2682;1.2843;
556.5000;1.2674;1.2843;
556.8000;1.2674;1.2843;
557.1000;1.2674;1.2795;
557.4000;1.2707;1.2795;
557.7000;1.2690;1.2890;
558.0000;1.2707;1.2961;
558.3000;1.2690;1.2985;
558.6000;1.2698;1.2985;
558.9000;1.2690;1.2961;
559.2000;1.2650;1.2866;
559.5000;1.2682;1.2914;
559.8000;1.2698;1.2985;
560.1000;1.2698;1.2985;
560.4000;1.2674;1.2961;
560.7000;1.2690;1.2985;
561.0000;1.2641;1.2748;
561.3000;1.2698;1.2866;
561.6000;1.2674;1.2843;
561.9000;1.2690;1.2866;
562.2000;1.2690;1.2866;
562.5000;1.2698;1.2866;
562.8000;1.2698;1.2866;
563.1000;1.2698;1.2961;
563.4000;1.2707;1.2961;
563.7000;1.2698;1.3032;
564.0000;1.2739;1.3080;
564.3000;1.2698;1.3008;
564.6000;1.2698;1.3008;
564.9000;1.2698;1.3032;
565.2000;1.2747;1.3151;
565.5000;1.2690;1.2890;
565.8000;1.2690;1.2914;
566.1000;1.2674;1.2866;
566.4000;1.2698;1.2819;
566.7000;1.2674;1.2748;
567.0000;1.2707;1.2819;
567.3000;1.2682;1.2819;
567.6000;1.2739;1.3080;
567.9000;1.2715;1.3032;
568.2000;1.2747;1.3127;
568.5000;1.2772;1.3151;
568.8000;1.2666;1.3008;
569.1000;1.2690;1.3056;
569.4000;1.2682;1.3080;
569.7000;1.2690;1.3056;
570.0000;1.2682;1.3127;
570.3000;1.2690;1.3080;
570.6000;1.2682;1.3056;
570.9000;1.2690;1.3032;
571.2000;1.2698;1.2937;
571.5000;1.2690;1.2985;
571.8000;1.2698;1.2985;
572.1000;1.2674;1.2937;
572.4000;1.2674;1.2961;
572.7000;1.2674;1.2937;
573.0000;1.2707;1.3008;
573.3000;1.2715;1.3056;
573.6000;1.2698;1.2985;
573.9000;1.2682;1.2961;
574.2000;1.2723;1.3080;
574.5000;1.2723;1.3103;
574.8000;1.2674;1.3032;
575.1000;1.2690;1.3103;
575.4000;1.2682;1.3151;
575.7000;1.2788;1.3364;
576.0000;1.2715;1.3103;
576.3000;1.2698;1.2985;
576.6000;1.2682;1.2914;
576.9000;1.2682;1.2890;
577.2000;1.2690;1.2937;
577.5000;1.2682;1.3008;
577.8000;1.2674;1.2961;
578.1000;1.2707;1.2961;
578.4000;1.2698;1.2961;
578.7000;1.2690;1.2937;
579.0000;1.2690;1.2890;
579.3000;1.2707;1.2961;
579.6000;1.2658;1.2914;
579.9000;1.2698;1.3008;
580.2000;1.2682;1.2985;
580.5000;1.2682;1.3008;
580.8000;1.2698;1.3080;
581.1000;1.2682;1.2985;
581.4000;1.2650;1.2914;
581.7000;1.2674;1.2937;
582.0000;1.2666;1.2961;
582.3000;1.2682;1.2985;
582.6000;1.2690;1.2914;
582.9000;1.2690;1.2961;
583.2000;1.2698;1.2961;
583.5000;1.2690;1.2985;
583.8000;1.2674;1.3032;
584.1000;1.2780;1.3269;
584.4000;1.2674;1.3080;
584.7000;1.2698;1.3174;
585.0000;1.2707;1.3222;
585.3000;1.2682;1.3056;
585.6000;1.2715;1.3127;
585.9000;1.2698;1.3032;
586.2000;1.2666;1.2985;
586.5000;1.2625;1.2866;
586.8000;1.2682;1.3008;
587.1000;1.2707;1.2985;
587.4000;1.2682;1.2914;
587.7000;1.2698;1.2914;
588.0000;1.2715;1.2985;
588.3000;1.2690;1.2961;
588.6000;1.2698;1.2961;
588.9000;1.2690;1.2961;
589.2000;1.2690;1.2914;
589.5000;1.2731;1.2985;
589.8000;1.2674;1.2843;
590.1000;1.2658;1.2819;
590.4000;1.2674;1.2795;
590.7000;1.2674;1.2795;
591.0000;1.2633;1.2700;
591.3000;1.2658;1.2677;
591.6000;1.2641;1.2558;
591.9000;1.2666;1.2653;
592.2000;1.2666;1.2724;
592.5000;1.2715;1.2890;
592.8000;1.2674;1.2771;
593.1000;1.2658;1.2771;
593.4000;1.2690;1.2771;
593.7000;1.2690;1.2748;
594.0000;1.2682;1.2771;
594.3000;1.2674;1.2819;
594.6000;1.2690;1.2795;
594.9000;1.2690;1.2748;
595.2000;1.2666;1.2819;
595.5000;1.2682;1.2914;
595.8000;1.2658;1.2866;
596.1000;1.2674;1.2866;
596.4000;1.2682;1.2843;
596.7000;1.2666;1.2771;
597.0000;1.2690;1.2771;
597.3000;1.2690;1.2843;
597.6000;1.2658;1.2748;
597.9000;1.2666;1.2748;
598.2000;1.2674;1.2748;
598.5000;1.2690;1.2748;
598.8000;1.2715;1.2771;
599.1000;1.2690;1.2724;
599.4000;1.2690;1.2771;
599.7000;1.2658;1.2819;
600.0000;1.2641;1.2771;
600.3000;1.2723;1.2843;
600.6000;1.2658;1.2535;
600.9000;1.2682;1.2511;
601.2000;1.2633;1.2369;
601.5000;1.2552;1.2227;
601.8000;1.2454;1.2013;
602.1000;1.2397;1.1942;
602.4000;1.2283;1.1658;
602.7000;1.2202;1.1445;
603.0000;1.2055;1.1160;
603.3000;1.2080;1.1302;
603.6000;1.1974;1.1065;
603.9000;1.1917;1.1065;
604.2000;1.1811;1.0900;
604.5000;1.1754;1.0734;
604.8000;1.1648;1.0544;
605.1000;1.1640;1.0663;
605.4000;1.1518;1.0426;
605.7000;1.1453;1.0378;
606.0000;1.1404;1.0260;
606.3000;1.1249;1.0047;
606.6000;1.1266;1.0165;
606.9000;1.1225;1.0141;
607.2000;1.1127;1.0023;
607.5000;1.1103;1.0070;
607.8000;1.1046;0.9976;
608.1000;1.1005;0.9999;
608.4000;1.0932;0.9976;
608.7000;1.0899;0.9999;
609.0000;1.0851;0.9999;
609.3000;1.0786;1.0047;
609.6000;1.0761;1.0047;
609.9000;1.0712;0.9952;
610.2000;1.0615;0.9833;
610.5000;1.0566;0.9833;
610.8000;1.0582;0.9999;
611.1000;1.0517;0.9881;
611.4000;1.0574;0.9928;
611.7000;1.0403;0.9525;
612.0000;1.0379;0.9525;
612.3000;1.0354;0.9573;
612.6000;1.0346;0.9620;
612.9000;1.0281;0.9502;
613.2000;1.0224;0.9431;
613.5000;1.0256;0.9573;
613.8000;1.0142;0.9407;
614.1000;1.0077;0.9359;
614.4000;1.0053;0.9359;
614.7000;1.0020;0.9431;
615.0000;1.0004;0.9383;
615.3000;0.9955;0.9359;
615.6000;0.9923;0.9288;
615.9000;0.9882;0.9194;
616.2000;0.9858;0.9217;
616.5000;0.9833;0.9170;
616.8000;0.9776;0.9075;
617.1000;0.9735;0.9075;
617.4000;0.9711;0.8980;
617.7000;0.9703;0.8957;
618.0000;0.9654;0.8862;
618.3000;0.9638;0.9004;
618.6000;0.9573;0.8909;
618.9000;0.9589;0.8980;
619.2000;0.9548;0.9004;
619.5000;0.9508;0.8957;
619.8000;0.9483;0.8957;
620.1000;0.9467;0.9004;
620.4000;0.9426;0.8980;
620.7000;0.9385;0.8957;
621.0000;0.9353;0.8933;
621.3000;0.9337;0.8886;
621.6000;0.9304;0.8862;
621.9000;0.9271;0.8862;
622.2000;0.9280;0.8886;
622.5000;0.9239;0.8814;
622.8000;0.9206;0.8767;
623.1000;0.9174;0.8767;
623.4000;0.9166;0.8767;
623.7000;0.9125;0.8696;
624.0000;0.9125;0.8649;
624.3000;0.9084;0.8649;
624.6000;0.9060;0.8672;
624.9000;0.9011;0.8601;
625.2000;0.9011;0.8696;
625.5000;0.8995;0.8814;
625.8000;0.8946;0.8767;
626.1000;0.8978;0.8743;
626.4000;0.8921;0.8672;
626.7000;0.8848;0.8649;
627.0000;0.8897;0.8743;
627.3000;0.8856;0.8672;
627.6000;0.8848;0.8720;
627.9000;0.8840;0.8791;
628.2000;0.8775;0.8649;
628.5000;0.8791;0.8649;
628.8000;0.8694;0.8506;
629.1000;0.8742;0.8649;
629.4000;0.8710;0.8720;
629.7000;0.8702;0.8743;
630.0000;0.8645;0.8625;
630.3000;0.8669;0.8743;
630.6000;0.8685;0.8862;
630.9000;0.8628;0.8862;
631.2000;0.8596;0.8862;
631.5000;0.8571;0.8886;
631.8000;0.8571;0.8814;
632.1000;0.8547;0.8838;
632.4000;0.8539;0.8791;
632.7000;0.8523;0.8791;
633.0000;0.8514;0.8814;
633.3000;0.8482;0.8767;
633.6000;0.8482;0.8720;
633.9000;0.8449;0.8672;
634.2000;0.8441;0.8743;
634.5000;0.8425;0.8767;
634.8000;0.8400;0.8791;
635.1000;0.8392;0.8814;
635.4000;0.8392;0.8886;
635.7000;0.8287;0.8649;
636.0000;0.8352;0.8838;
636.3000;0.8327;0.8886;
636.6000;0.8303;0.8838;
636.9000;0.8319;0.8767;
637.2000;0.8262;0.8649;
637.5000;0.8287;0.8672;
637.8000;0.8270;0.8696;
638.1000;0.8246;0.8720;
638.4000;0.8230;0.8672;
638.7000;0.8213;0.8625;
639.0000;0.8197;0.8601;
639.3000;0.8205;0.8743;
639.6000;0.8181;0.8743;
639.9000;0.8164;0.8743;
640.2000;0.8164;0.8814;
640.5000;0.8164;0.8767;
640.8000;0.8140;0.8672;
641.1000;0.8140;0.8696;
641.4000;0.8116;0.8672;
641.7000;0.8099;0.8601;
642.0000;0.8099;0.8672;
642.3000;0.8067;0.8530;
642.6000;0.8075;0.8554;
642.9000;0.8050;0.8530;
643.2000;0.8042;0.8578;
643.5000;0.8042;0.8554;
643.8000;0.8010;0.8506;
644.1000;0.7985;0.8506;
644.4000;0.7969;0.8649;
644.7000;0.7985;0.8649;
645.0000;0.7969;0.8530;
645.3000;0.7888;0.8388;
645.6000;0.7961;0.8578;
645.9000;0.7969;0.8696;
646.2000;0.7937;0.8578;
646.5000;0.7928;0.8530;
646.8000;0.7928;0.8625;
647.1000;0.7928;0.8672;
647.4000;0.7928;0.8672;
647.7000;0.7896;0.8601;
648.0000;0.7871;0.8554;
648.3000;0.7880;0.8601;
648.6000;0.7863;0.8578;
648.9000;0.7863;0.8578;
649.2000;0.7814;0.8554;
649.5000;0.7831;0.8578;
649.8000;0.7831;0.8601;
650.1000;0.7806;0.8649;
650.4000;0.7806;0.8649;
650.7000;0.7790;0.8578;
651.0000;0.7782;0.8672;
651.3000;0.7782;0.8696;
651.6000;0.7782;0.8672;
651.9000;0.7717;0.8506;
652.2000;0.7782;0.8838;
652.5000;0.7766;0.8814;
652.8000;0.7709;0.8625;
653.1000;0.7700;0.8696;
653.4000;0.7733;0.8720;
653.7000;0.7709;0.8649;
654.0000;0.7700;0.8554;
654.3000;0.7692;0.8506;
654.6000;0.7692;0.8530;
654.9000;0.7709;0.8625;
655.2000;0.7668;0.8554;
655.5000;0.7668;0.8696;
655.8000;0.7676;0.8814;
656.1000;0.7676;0.8886;
656.4000;0.7643;0.8886;
656.7000;0.7660;0.8814;
657.0000;0.7611;0.8649;
657.3000;0.7619;0.8696;
657.6000;0.7627;0.8720;
657.9000;0.7660;0.8862;
658.2000;0.7595;0.8601;
658.5000;0.7595;0.8625;
658.8000;0.7603;0.8601;
659.1000;0.7570;0.8530;
659.4000;0.7562;0.8530;
659.7000;0.7562;0.8530;
660.0000;0.7578;0.8578;
660.3000;0.7554;0.8554;
660.6000;0.7554;0.8554;
660.9000;0.7546;0.8625;
661.2000;0.7473;0.8483;
661.5000;0.7538;0.8649;
661.8000;0.7505;0.8554;
662.1000;0.7521;0.8601;
662.4000;0.7521;0.8554;
662.7000;0.7530;0.8578;
663.0000;0.7497;0.8506;
663.3000;0.7489;0.8530;
663.6000;0.7497;0.8578;
663.9000;0.7489;0.8578;
664.2000;0.7481;0.8578;
664.5000;0.7489;0.8720;
664.8000;0.7456;0.8720;
665.1000;0.7464;0.8720;
665.4000;0.7448;0.8743;
665.7000;0.7448;0.8720;
666.0000;0.7448;0.8672;
666.3000;0.7456;0.8672;
666.6000;0.7424;0.8649;
666.9000;0.7416;0.8672;
667.2000;0.7424;0.8578;
667.5000;0.7416;0.8672;
667.8000;0.7416;0.8672;
668.1000;0.7416;0.8649;
668.4000;0.7391;0.8578;
668.7000;0.7375;0.8506;
669.0000;0.7375;0.8506;
669.3000;0.7383;0.8530;
669.6000;0.7350;0.8578;
669.9000;0.7367;0.8530;
670.2000;0.7367;0.8506;
670.5000;0.7350;0.8459;
670.8000;0.7359;0.8506;
671.1000;0.7350;0.8530;
671.4000;0.7359;0.8578;
671.7000;0.7359;0.8625;
672.0000;0.7326;0.8530;
672.3000;0.7342;0.8601;
672.6000;0.7318;0.8601;
672.9000;0.7326;0.8649;
673.2000;0.7318;0.8625;
673.5000;0.7302;0.8601;
673.8000;0.7318;0.8696;
674.1000;0.7285;0.8696;
674.4000;0.7277;0.8601;
674.7000;0.7310;0.8554;
675.0000;0.7285;0.8530;
675.3000;0.7253;0.8530;
675.6000;0.7277;0.8649;
675.9000;0.7310;0.8743;
676.2000;0.7350;0.8791;
676.5000;0.7277;0.8625;
676.8000;0.7261;0.8625;
677.1000;0.7285;0.8625;
677.4000;0.7269;0.8625;
677.7000;0.7277;0.8696;
678.0000;0.7269;0.8625;
678.3000;0.7261;0.8625;
678.6000;0.7245;0.8530;
678.9000;0.7228;0.8554;
679.2000;0.7228;0.8506;
679.5000;0.7228;0.8388;
679.8000;0.7204;0.8341;
680.1000;0.7196;0.8364;
680.4000;0.7196;0.8388;
680.7000;0.7245;0.8506;
681.0000;0.7196;0.8412;
681.3000;0.7196;0.8459;
681.6000;0.7147;0.8317;
681.9000;0.7171;0.8364;
682.2000;0.7123;0.8317;
682.5000;0.7147;0.8317;
682.8000;0.7147;0.8269;
683.1000;0.7212;0.8412;
683.4000;0.7171;0.8317;
683.7000;0.7228;0.8554;
684.0000;0.7188;0.8412;
684.3000;0.7179;0.8364;
684.6000;0.7139;0.8269;
684.9000;0.7155;0.8341;
685.2000;0.7139;0.8246;
685.5000;0.7147;0.8269;
685.8000;0.7147;0.8269;
686.1000;0.7147;0.8293;
686.4000;0.7147;0.8341;
686.7000;0.7147;0.8459;
687.0000;0.7155;0.8412;
687.3000;0.7131;0.8435;
687.6000;0.7147;0.8554;
687.9000;0.7123;0.8506;
688.2000;0.7131;0.8483;
688.5000;0.7131;0.8435;
688.8000;0.7106;0.8388;
689.1000;0.7114;0.8388;
689.4000;0.7139;0.8506;
689.7000;0.7114;0.8435;
690.0000;0.7106;0.8388;
690.3000;0.7074;0.8341;
690.6000;0.7106;0.8388;
690.9000;0.7098;0.8483;
691.2000;0.7090;0.8483;
691.5000;0.7106;0.8483;
691.8000;0.7090;0.8435;
692.1000;0.7090;0.8506;
692.4000;0.7188;0.8720;
692.7000;0.7066;0.8435;
693.0000;0.7106;0.8483;
693.3000;0.7098;0.8388;
693.6000;0.7074;0.8317;
693.9000;0.7066;0.8317;
694.2000;0.7066;0.8269;
694.5000;0.7074;0.8364;
694.8000;0.7082;0.8435;
695.1000;0.7066;0.8459;
695.4000;0.7049;0.8317;
695.7000;0.7049;0.8246;
696.0000;0.7033;0.8198;
696.3000;0.7017;0.8175;
696.6000;0.7049;0.8341;
696.9000;0.7066;0.8459;
697.2000;0.7041;0.8412;
697.5000;0.7049;0.8459;
697.8000;0.7025;0.8506;
698.1000;0.6976;0.8412;
698.4000;0.7033;0.8649;
698.7000;0.7009;0.8601;
699.0000;0.7057;0.8696;
699.3000;0.7074;0.8720;
699.6000;0.6968;0.8341;
699.9000;0.6952;0.8341;
700.2000;0.7000;0.8412;
700.5000;0.7082;0.8554;
700.8000;0.7000;0.8293;
701.1000;0.7090;0.8530;
701.4000;0.7017;0.8222;
701.7000;0.7000;0.8104;
702.0000;0.7017;0.8151;
702.3000;0.7000;0.8198;
702.6000;0.7033;0.8364;
702.9000;0.6992;0.8341;
703.2000;0.7025;0.8435;
703.5000;0.6984;0.8412;
703.8000;0.6992;0.8412;
704.1000;0.6943;0.8317;
704.4000;0.6992;0.8530;
704.7000;0.6968;0.8459;
705.0000;0.6984;0.8388;
705.3000;0.6968;0.8388;
705.6000;0.6992;0.8341;
705.9000;0.6976;0.8222;
706.2000;0.6952;0.8317;
706.5000;0.6984;0.8435;
706.8000;0.6968;0.8388;
707.1000;0.6927;0.8293;
707.4000;0.6960;0.8341;
707.7000;0.6984;0.8388;
708.0000;0.6952;0.8317;
708.3000;0.6943;0.8412;
708.6000;0.6935;0.8364;
708.9000;0.6943;0.8459;
709.2000;0.6943;0.8364;
709.5000;0.6935;0.8341;
709.8000;0.6935;0.8364;
710.1000;0.6952;0.8341;
710.4000;0.6935;0.8364;
710.7000;0.6952;0.8364;
711.0000;0.6968;0.8435;
711.3000;0.6960;0.8364;
711.6000;0.6952;0.8364;
711.9000;0.6943;0.8341;
712.2000;0.6943;0.8435;
712.5000;0.6943;0.8435;
712.8000;0.6935;0.8293;
713.1000;0.6927;0.8317;
713.4000;0.6927;0.8293;
713.7000;0.6952;0.8293;
714.0000;0.6919;0.8198;
714.3000;0.6919;0.8246;
714.6000;0.6935;0.8317;
714.9000;0.6919;0.8293;
715.2000;0.6919;0.8364;
715.5000;0.6903;0.8269;
715.8000;0.6911;0.8293;
716.1000;0.6911;0.8341;
716.4000;0.6911;0.8412;
716.7000;0.6886;0.8412;
717.0000;0.6911;0.8435;
717.3000;0.6895;0.8483;
717.6000;0.6911;0.8506;
717.9000;0.6911;0.8554;
718.2000;0.6895;0.8483;
718.5000;0.6886;0.8483;
718.8000;0.6895;0.8578;
719.1000;0.6870;0.8530;
719.4000;0.6903;0.8601;
719.7000;0.6870;0.8601;
720.0000;0.6854;0.8601;
720.3000;0.6911;0.8814;
720.6000;0.6878;0.8791;
720.9000;0.6895;0.8767;
721.2000;0.6870;0.8767;
721.5000;0.6886;0.8791;
721.8000;0.6838;0.8649;
722.1000;0.6952;0.8933;
722.4000;0.6886;0.8696;
722.7000;0.6870;0.8672;
723.0000;0.6797;0.8506;
723.3000;0.6870;0.8672;
723.6000;0.6895;0.8672;
723.9000;0.6886;0.8625;
724.2000;0.6870;0.8672;
724.5000;0.6870;0.8625;
724.8000;0.6903;0.8791;
725.1000;0.6854;0.8720;
725.4000;0.6821;0.8578;
725.7000;0.6886;0.8625;
726.0000;0.6878;0.8554;
726.3000;0.6854;0.8483;
726.6000;0.6838;0.8388;
726.9000;0.6846;0.8412;
727.2000;0.6870;0.8625;
727.5000;0.6846;0.8696;
727.8000;0.6854;0.8601;
728.1000;0.6846;0.8601;
728.4000;0.6829;0.8578;
728.7000;0.6846;0.8506;
729.0000;0.6854;0.8672;
729.3000;0.6838;0.8672;
729.6000;0.6870;0.8625;
729.9000;0.6838;0.8459;
730.2000;0.6846;0.8530;
730.5000;0.6813;0.8341;
730.8000;0.6838;0.8412;
731.1000;0.6829;0.8435;
731.4000;0.6813;0.8435;
731.7000;0.6821;0.8388;
732.0000;0.6829;0.8459;
732.3000;0.6813;0.8483;
732.6000;0.6813;0.8530;
732.9000;0.6821;0.8554;
733.2000;0.6829;0.8601;
733.5000;0.6813;0.8554;
733.8000;0.6821;0.8506;
734.1000;0.6846;0.8578;
734.4000;0.6805;0.8506;
734.7000;0.6821;0.8554;
735.0000;0.6838;0.8625;
735.3000;0.6829;0.8554;
735.6000;0.6813;0.8506;
735.9000;0.6821;0.8578;
736.2000;0.6797;0.8483;
736.5000;0.6813;0.8483;
736.8000;0.6789;0.8435;
737.1000;0.6813;0.8435;
737.4000;0.6805;0.8530;
737.7000;0.6805;0.8578;
738.0000;0.6821;0.8459;
738.3000;0.6764;0.8412;
738.6000;0.6829;0.8530;
738.9000;0.6805;0.8435;
739.2000;0.6813;0.8483;
739.5000;0.6805;0.8530;
739.8000;0.6797;0.8506;
740.1000;0.6813;0.8601;
740.4000;0.6813;0.8625;
740.7000;0.6805;0.8554;
741.0000;0.6797;0.8578;
741.3000;0.6789;0.8530;
741.6000;0.6797;0.8554;
741.9000;0.6797;0.8483;
742.2000;0.6781;0.8459;
742.5000;0.6781;0.8412;
742.8000;0.6756;0.8435;
743.1000;0.6805;0.8530;
743.4000;0.6797;0.8530;
743.7000;0.6789;0.8506;
744.0000;0.6813;0.8506;
744.3000;0.6797;0.8483;
744.6000;0.6829;0.8554;
744.9000;0.6789;0.8412;
745.2000;0.6789;0.8388;
745.5000;0.6789;0.8388;
745.8000;0.6797;0.8388;
746.1000;0.6772;0.8412;
746.4000;0.6781;0.8459;
746.7000;0.6797;0.8483;
747.0000;0.6764;0.8506;
747.3000;0.6772;0.8554;
747.6000;0.6781;0.8554;
747.9000;0.6789;0.8578;
748.2000;0.6781;0.8506;
748.5000;0.6789;0.8483;
748.8000;0.6805;0.8483;
749.1000;0.6789;0.8412;
749.4000;0.6789;0.8388;
749.7000;0.6772;0.8388;
750.0000;0.6772;0.8412;
750.3000;0.6789;0.8483;
750.6000;0.6716;0.8246;
750.9000;0.6772;0.8341;
751.2000;0.6756;0.8269;
751.5000;0.6740;0.8246;
751.8000;0.6756;0.8246;
752.1000;0.6756;0.8198;
752.4000;0.6756;0.8151;
752.7000;0.6740;0.8222;
753.0000;0.6748;0.8222;
753.3000;0.6740;0.8246;
753.6000;0.6772;0.8341;
753.9000;0.6764;0.8388;
754.2000;0.6764;0.8483;
754.5000;0.6772;0.8506;
754.8000;0.6821;0.8578;
755.1000;0.6781;0.8530;
755.4000;0.6756;0.8483;
755.7000;0.6764;0.8412;
756.0000;0.6748;0.8412;
756.3000;0.6756;0.8483;
756.6000;0.6740;0.8554;
756.9000;0.6740;0.8601;
757.2000;0.6748;0.8601;
757.5000;0.6732;0.8578;
757.8000;0.6732;0.8506;
758.1000;0.6756;0.8506;
758.4000;0.6740;0.8459;
758.7000;0.6813;0.8696;
759.0000;0.6740;0.8530;
759.3000;0.6756;0.8483;
759.6000;0.6748;0.8412;
759.9000;0.6732;0.8459;
760.2000;0.6740;0.8435;
760.5000;0.6707;0.8459;
760.8000;0.6724;0.8530;
761.1000;0.6740;0.8506;
761.4000;0.6724;0.8435;
761.7000;0.6724;0.8483;
762.0000;0.6724;0.8601;
762.3000;0.6716;0.8530;
762.6000;0.6724;0.8506;
762.9000;0.6716;0.8459;
763.2000;0.6707;0.8435;
763.5000;0.6740;0.8506;
763.8000;0.6716;0.8483;
764.1000;0.6724;0.8578;
764.4000;0.6724;0.8649;
764.7000;0.6740;0.8649;
765.0000;0.6732;0.8649;
765.3000;0.6732;0.8649;
765.6000;0.6675;0.8625;
765.9000;0.6764;0.8791;
766.2000;0.6764;0.8767;
766.5000;0.6724;0.8649;
766.8000;0.6610;0.8364;
767.1000;0.6716;0.8625;
767.4000;0.6732;0.8601;
767.7000;0.6748;0.8672;
768.0000;0.6716;0.8554;
768.3000;0.6683;0.8459;
768.6000;0.6732;0.8601;
768.9000;0.6707;0.8554;
769.2000;0.6707;0.8625;
769.5000;0.6740;0.8554;
769.8000;0.6724;0.8459;
770.1000;0.6740;0.8483;
770.4000;0.6724;0.8388;
770.7000;0.6724;0.8364;
771.0000;0.6716;0.8341;
771.3000;0.6732;0.8483;
771.6000;0.6707;0.8435;
771.9000;0.6707;0.8412;
772.2000;0.6716;0.8388;
772.5000;0.6724;0.8435;
772.8000;0.6716;0.8435;
773.1000;0.6707;0.8459;
773.4000;0.6699;0.8459;
773.7000;0.6724;0.8554;
774.0000;0.6716;0.8554;
774.3000;0.6707;0.8388;
774.6000;0.6716;0.8530;
774.9000;0.6707;0.8625;
775.2000;0.6707;0.8554;
775.5000;0.6699;0.8578;
775.8000;0.6732;0.8601;
776.1000;0.6707;0.8554;
776.4000;0.6707;0.8506;
776.7000;0.6691;0.8435;
777.0000;0.6675;0.8364;
777.3000;0.6683;0.8341;
777.6000;0.6707;0.8459;
777.9000;0.6707;0.8388;
778.2000;0.6699;0.8435;
778.5000;0.6724;0.8601;
778.8000;0.6683;0.8459;
779.1000;0.6691;0.8483;
779.4000;0.6707;0.8459;
779.7000;0.6756;0.8530;
780.0000;0.6691;0.8364;
780.3000;0.6707;0.8317;
780.6000;0.6716;0.8341;
780.9000;0.6699;0.8317;
781.2000;0.6707;0.8388;
781.5000;0.6732;0.8530;
781.8000;0.6699;0.8506;
782.1000;0.6740;0.8554;
782.4000;0.6691;0.8388;
782.7000;0.6707;0.8364;
783.0000;0.6683;0.8293;
783.3000;0.6691;0.8293;
783.6000;0.6691;0.8435;
783.9000;0.6675;0.8435;
784.2000;0.6667;0.8435;
784.5000;0.6691;0.8412;
784.8000;0.6675;0.8459;
785.1000;0.6683;0.8554;
785.4000;0.6691;0.8530;
785.7000;0.6675;0.8459;
786.0000;0.6667;0.8412;
786.3000;0.6667;0.8388;
786.6000;0.6659;0.8412;
786.9000;0.6683;0.8459;
787.2000;0.6675;0.8435;
787.5000;0.6675;0.8435;
787.8000;0.6650;0.8412;
788.1000;0.6659;0.8412;
788.4000;0.6642;0.8293;
788.7000;0.6667;0.8269;
789.0000;0.6764;0.8601;
789.3000;0.6659;0.8412;
789.6000;0.6691;0.8483;
789.9000;0.6659;0.8388;
790.2000;0.6683;0.8364;
790.5000;0.6691;0.8412;
790.8000;0.6691;0.8554;
791.1000;0.6691;0.8601;
791.4000;0.6683;0.8554;
791.7000;0.6683;0.8601;
792.0000;0.6683;0.8625;
792.3000;0.6667;0.8601;
792.6000;0.6724;0.8696;
792.9000;0.6699;0.8672;
793.2000;0.6659;0.8601;
793.5000;0.6683;0.8672;
793.8000;0.6659;0.8578;
794.1000;0.6683;0.8554;
794.4000;0.6675;0.8578;
794.7000;0.6683;0.8459;
795.0000;0.6675;0.8483;
795.3000;0.6683;0.8554;
795.6000;0.6691;0.8483;
795.9000;0.6683;0.8483;
796.2000;0.6675;0.8483;
796.5000;0.6675;0.8530;
796.8000;0.6667;0.8554;
797.1000;0.6683;0.8578;
797.4000;0.6675;0.8578;
797.7000;0.6650;0.8506;
798.0000;0.6667;0.8554;
798.3000;0.6675;0.8554;
798.6000;0.6683;0.8625;
798.9000;0.6659;0.8720;
799.2000;0.6675;0.8720;
799.5000;0.6667;0.8601;
799.8000;0.6650;0.8601;
800.1000;0.6659;0.8530;
800.4000;0.6675;0.8601;
800.7000;0.6683;0.8672;
801.0000;0.6675;0.8649;
801.3000;0.6659;0.8578;
801.6000;0.6667;0.8649;
801.9000;0.6675;0.8720;
802.2000;0.6659;0.8791;
802.5000;0.6650;0.8696;
802.8000;0.6659;0.8696;
803.1000;0.6683;0.8814;
803.4000;0.6667;0.8862;
803.7000;0.6667;0.8838;
804.0000;0.6634;0.8649;
804.3000;0.6667;0.8720;
804.6000;0.6675;0.8672;
804.9000;0.6667;0.8435;
805.2000;0.6659;0.8435;
805.5000;0.6667;0.8435;
805.8000;0.6650;0.8388;
806.1000;0.6675;0.8412;
806.4000;0.6659;0.8506;
806.7000;0.6650;0.8601;
807.0000;0.6683;0.8601;
807.3000;0.6675;0.8459;
807.6000;0.6667;0.8412;
807.9000;0.6618;0.8364;
808.2000;0.6642;0.8364;
808.5000;0.6683;0.8435;
808.8000;0.6634;0.8412;
809.1000;0.6610;0.8364;
809.4000;0.6650;0.8388;
809.7000;0.6650;0.8317;
810.0000;0.6650;0.8317;
810.3000;0.6642;0.8435;
810.6000;0.6618;0.8412;
810.9000;0.6659;0.8530;
811.2000;0.6650;0.8578;
811.5000;0.6650;0.8578;
811.8000;0.6659;0.8601;
812.1000;0.6675;0.8625;
812.4000;0.6642;0.8530;
812.7000;0.6667;0.8578;
813.0000;0.6659;0.8578;
813.3000;0.6659;0.8578;
813.6000;0.6642;0.8720;
813.9000;0.6707;0.8909;
814.2000;0.6724;0.8957;
814.5000;0.6650;0.8743;
814.8000;0.6634;0.8672;
815.1000;0.6642;0.8649;
815.4000;0.6642;0.8696;
815.7000;0.6675;0.8743;
816.0000;0.6642;0.8625;
816.3000;0.6691;0.8696;
816.6000;0.6642;0.8601;
816.9000;0.6675;0.8649;
817.2000;0.6707;0.8696;
817.5000;0.6642;0.8578;
817.8000;0.6659;0.8554;
818.1000;0.6650;0.8554;
818.4000;0.6707;0.8672;
818.7000;0.6642;0.8554;
819.0000;0.6634;0.8530;
819.3000;0.6634;0.8530;
819.6000;0.6683;0.8672;
819.9000;0.6634;0.8530;
820.2000;0.6642;0.8506;
820.5000;0.6634;0.8578;
820.8000;0.6634;0.8672;
821.1000;0.6642;0.8649;
821.4000;0.6650;0.8672;
821.7000;0.6626;0.8649;
822.0000;0.6618;0.8601;
822.3000;0.6626;0.8672;
822.6000;0.6634;0.8743;
822.9000;0.6626;0.8625;
823.2000;0.6634;0.8530;
823.5000;0.6650;0.8578;
823.8000;0.6650;0.8578;
824.1000;0.6634;0.8530;
824.4000;0.6634;0.8506;
824.7000;0.6602;0.8459;
825.0000;0.6626;0.8554;
825.3000;0.6642;0.8578;
825.6000;0.6642;0.8625;
825.9000;0.6642;0.8791;
826.2000;0.6642;0.8838;
826.5000;0.6659;0.8791;
826.8000;0.6650;0.8720;
827.1000;0.6659;0.8767;
827.4000;0.6642;0.8672;
827.7000;0.6650;0.8743;
828.0000;0.6642;0.8672;
828.3000;0.6659;0.8672;
828.6000;0.6626;0.8720;
828.9000;0.6659;0.8791;
829.2000;0.6634;0.8672;
829.5000;0.6626;0.8625;
829.8000;0.6634;0.8672;
830.1000;0.6593;0.8506;
830.4000;0.6626;0.8578;
830.7000;0.6602;0.8601;
831.0000;0.6626;0.8672;
831.3000;0.6634;0.8767;
831.6000;0.6626;0.8743;
831.9000;0.6667;0.8886;
832.2000;0.6610;0.8743;
832.5000;0.6642;0.8838;
832.8000;0.6675;0.8862;
833.1000;0.6626;0.8720;
833.4000;0.6626;0.8743;
833.7000;0.6626;0.8743;
834.0000;0.6667;0.8743;
834.3000;0.6634;0.8601;
834.6000;0.6634;0.8625;
834.9000;0.6659;0.8649;
835.2000;0.6634;0.8649;
835.5000;0.6634;0.8696;
835.8000;0.6602;0.8554;
836.1000;0.6610;0.8530;
836.4000;0.6634;0.8625;
836.7000;0.6545;0.8435;
837.0000;0.6618;0.8530;
837.3000;0.6593;0.8483;
837.6000;0.6642;0.8601;
837.9000;0.6650;0.8459;
838.2000;0.6626;0.8412;
838.5000;0.6642;0.8459;
838.8000;0.6634;0.8554;
839.1000;0.6618;0.8554;
839.4000;0.6626;0.8672;
839.7000;0.6610;0.8649;
840.0000;0.6602;0.8554;
840.3000;0.6626;0.8625;
840.6000;0.6626;0.8649;
840.9000;0.6642;0.8743;
841.2000;0.6626;0.8672;
841.5000;0.6618;0.8601;
841.8000;0.6618;0.8625;
842.1000;0.6642;0.8696;
842.4000;0.6667;0.8791;
842.7000;0.6642;0.8720;
843.0000;0.6626;0.8720;
843.3000;0.6618;0.8767;
843.6000;0.6618;0.8743;
843.9000;0.6626;0.8720;
844.2000;0.6610;0.8720;
844.5000;0.6610;0.8743;
844.8000;0.6610;0.8696;
845.1000;0.6610;0.8578;
845.4000;0.6675;0.8743;
845.7000;0.6610;0.8649;
846.0000;0.6610;0.8625;
846.3000;0.6602;0.8696;
846.6000;0.6610;0.8696;
846.9000;0.6610;0.8720;
847.2000;0.6610;0.8696;
847.5000;0.6626;0.8720;
847.8000;0.6618;0.8743;
848.1000;0.6618;0.8791;
848.4000;0.6626;0.8791;
848.7000;0.6618;0.8838;
849.0000;0.6618;0.8862;
849.3000;0.6634;0.8933;
849.6000;0.6602;0.8838;
849.9000;0.6602;0.8838;
850.2000;0.6626;0.8933;
850.5000;0.6642;0.8980;
850.8000;0.6602;0.8886;
851.1000;0.6626;0.8886;
851.4000;0.6610;0.8791;
851.7000;0.6707;0.8957;
852.0000;0.6585;0.8554;
852.3000;0.6618;0.8530;
852.6000;0.6618;0.8625;
852.9000;0.6626;0.8601;
853.2000;0.6618;0.8530;
853.5000;0.6610;0.8506;
853.8000;0.6577;0.8506;
854.1000;0.6618;0.8625;
854.4000;0.6650;0.8672;
854.7000;0.6610;0.8578;
855.0000;0.6691;0.8791;
855.3000;0.6618;0.8649;
855.6000;0.6610;0.8649;
855.9000;0.6585;0.8625;
856.2000;0.6602;0.8625;
856.5000;0.6602;0.8696;
856.8000;0.6602;0.8649;
857.1000;0.6634;0.8625;
857.4000;0.6650;0.8649;
857.7000;0.6626;0.8672;
858.0000;0.6602;0.8649;
858.3000;0.6618;0.8625;
858.6000;0.6618;0.8672;
858.9000;0.6618;0.8743;
859.2000;0.6602;0.8720;
859.5000;0.6610;0.8720;
859.8000;0.6585;0.8720;
860.1000;0.6553;0.8625;
860.4000;0.6610;0.8814;
860.7000;0.6618;0.8814;
861.0000;0.6610;0.8814;
861.3000;0.6602;0.8791;
861.6000;0.6642;0.8767;
861.9000;0.6642;0.8791;
862.2000;0.6610;0.8743;
862.5000;0.6602;0.8720;
862.8000;0.6610;0.8838;
863.1000;0.6561;0.8743;
863.4000;0.6618;0.8886;
863.7000;0.6610;0.8886;
864.0000;0.6602;0.8791;
864.3000;0.6602;0.8862;
864.6000;0.6626;0.8791;
864.9000;0.6602;0.8649;
865.2000;0.6683;0.8838;
865.5000;0.6602;0.8649;
865.8000;0.6610;0.8720;
866.1000;0.6602;0.8696;
866.4000;0.6593;0.8672;
866.7000;0.6593;0.8601;
867.0000;0.6602;0.8672;
867.3000;0.6626;0.8743;
867.6000;0.6602;0.8649;
867.9000;0.6593;0.8625;
868.2000;0.6602;0.8672;
868.5000;0.6618;0.8625;
868.8000;0.6610;0.8601;
869.1000;0.6602;0.8649;
869.4000;0.6602;0.8649;
869.7000;0.6610;0.8720;
870.0000;0.6602;0.8720;
870.3000;0.6610;0.8743;
870.6000;0.6536;0.8578;
870.9000;0.6602;0.8672;
871.2000;0.6602;0.8743;
871.5000;0.6593;0.8743;
871.8000;0.6593;0.8696;
872.1000;0.6610;0.8696;
872.4000;0.6610;0.8625;
872.7000;0.6602;0.8506;
873.0000;0.6618;0.8649;
873.3000;0.6610;0.8625;
873.6000;0.6569;0.8578;
873.9000;0.6626;0.8649;
874.2000;0.6593;0.8578;
874.5000;0.6610;0.8601;
874.8000;0.6602;0.8625;
875.1000;0.6626;0.8743;
875.4000;0.6593;0.8649;
875.7000;0.6585;0.8554;
876.0000;0.6602;0.8601;
876.3000;0.6602;0.8506;
876.6000;0.6618;0.8554;
876.9000;0.6593;0.8530;
877.2000;0.6634;0.8720;
877.5000;0.6585;0.8672;
877.8000;0.6585;0.8578;
878.1000;0.6626;0.8649;
878.4000;0.6618;0.8625;
878.7000;0.6610;0.8672;
879.0000;0.6561;0.8483;
879.3000;0.6610;0.8601;
879.6000;0.6610;0.8554;
879.9000;0.6602;0.8554;
880.2000;0.6602;0.8506;
880.5000;0.6520;0.8246;
880.8000;0.6610;0.8483;
881.1000;0.6650;0.8625;
881.4000;0.6593;0.8649;
881.7000;0.6577;0.8601;
882.0000;0.6585;0.8649;
882.3000;0.6602;0.8578;
882.6000;0.6593;0.8720;
882.9000;0.6602;0.8791;
883.2000;0.6610;0.8791;
883.5000;0.6618;0.8743;
883.8000;0.6618;0.8720;
884.1000;0.6610;0.8696;
884.4000;0.6602;0.8625;
884.7000;0.6593;0.8601;
885.0000;0.6634;0.8672;
885.3000;0.6642;0.8743;
885.6000;0.6593;0.8578;
885.9000;0.6602;0.8601;
886.2000;0.6626;0.8696;
886.5000;0.6610;0.8649;
886.8000;0.6602;0.8625;
887.1000;0.6618;0.8696;
887.4000;0.6602;0.8696;
887.7000;0.6675;0.8838;
888.0000;0.6593;0.8696;
888.3000;0.6585;0.8672;
888.6000;0.6610;0.8649;
888.9000;0.6602;0.8578;
889.2000;0.6593;0.8554;
889.5000;0.6602;0.8601;
889.8000;0.6626;0.8649;
890.1000;0.6610;0.8625;
890.4000;0.6593;0.8506;
890.7000;0.6593;0.8483;
891.0000;0.6610;0.8554;
891.3000;0.6602;0.8578;
891.6000;0.6626;0.8672;
891.9000;0.6593;0.8554;
892.2000;0.6593;0.8578;
892.5000;0.6618;0.8649;
892.8000;0.6602;0.8672;
893.1000;0.6585;0.8625;
893.4000;0.6602;0.8625;
893.7000;0.6585;0.8672;
894.0000;0.6593;0.8720;
894.3000;0.6593;0.8696;
894.6000;0.6593;0.8696;
894.9000;0.6618;0.8791;
895.2000;0.6593;0.8672;
895.5000;0.6593;0.8720;
895.8000;0.6610;0.8743;
896.1000;0.6512;0.8554;
896.4000;0.6610;0.8791;
896.7000;0.6602;0.8791;
897.0000;0.6602;0.8838;
897.3000;0.6569;0.8720;
897.6000;0.6610;0.8814;
897.9000;0.6602;0.8886;
898.2000;0.6585;0.8838;
898.5000;0.6593;0.8909;
898.8000;0.6593;0.8862;
899.1000;0.6536;0.8696;
899.4000;0.6593;0.8838;
899.7000;0.6569;0.8720;
900.0000;0.6585;0.8743;
900.3000;0.6585;0.8720;
900.6000;0.6585;0.8767;
900.9000;0.6569;0.8886;
901.2000;0.6593;0.8933;
901.5000;0.6593;0.8933;
901.8000;0.6585;0.8838;
902.1000;0.6488;0.8578;
902.4000;0.6577;0.8838;
902.7000;0.6577;0.8838;
903.0000;0.6593;0.8886;
903.3000;0.6593;0.8814;
903.6000;0.6577;0.8767;
903.9000;0.6593;0.8814;
904.2000;0.6593;0.8791;
904.5000;0.6561;0.8696;
904.8000;0.6577;0.8838;
905.1000;0.6585;0.8814;
905.4000;0.6593;0.8814;
905.7000;0.6585;0.8791;
906.0000;0.6561;0.8838;
906.3000;0.6585;0.8886;
906.6000;0.6585;0.8886;
906.9000;0.6585;0.8886;
907.2000;0.6593;0.8909;
907.5000;0.6626;0.9028;
907.8000;0.6577;0.8814;
908.1000;0.6683;0.9122;
908.4000;0.6585;0.8838;
908.7000;0.6593;0.8791;
909.0000;0.6585;0.8767;
909.3000;0.6618;0.8767;
909.6000;0.6585;0.8649;
909.9000;0.6520;0.8435;
910.2000;0.6602;0.8625;
910.5000;0.6585;0.8672;
910.8000;0.6602;0.8743;
911.1000;0.6585;0.8767;
911.4000;0.6626;0.8767;
911.7000;0.6585;0.8649;
912.0000;0.6602;0.8720;
912.3000;0.6602;0.8814;
912.6000;0.6561;0.8601;
912.9000;0.6585;0.8720;
913.2000;0.6577;0.8625;
913.5000;0.6610;0.8672;
913.8000;0.6585;0.8601;
914.1000;0.6577;0.8672;
914.4000;0.6593;0.8720;
914.7000;0.6585;0.8649;
915.0000;0.6585;0.8601;
915.3000;0.6593;0.8578;
915.6000;0.6593;0.8601;
915.9000;0.6585;0.8649;
916.2000;0.6577;0.8601;
916.5000;0.6585;0.8578;
916.8000;0.6569;0.8625;
917.1000;0.6577;0.8625;
917.4000;0.6593;0.8625;
917.7000;0.6585;0.8601;
918.0000;0.6585;0.8649;
918.3000;0.6569;0.8601;
918.6000;0.6593;0.8625;
918.9000;0.6610;0.8720;
919.2000;0.6577;0.8814;
919.5000;0.6602;0.8862;
919.8000;0.6585;0.8862;
920.1000;0.6602;0.8862;
920.4000;0.6593;0.8743;
920.7000;0.6585;0.8672;
921.0000;0.6593;0.8625;
921.3000;0.6577;0.8578;
921.6000;0.6593;0.8720;
921.9000;0.6593;0.8672;
922.2000;0.6585;0.8672;
922.5000;0.6602;0.8672;
922.8000;0.6585;0.8720;
923.1000;0.6593;0.8814;
923.4000;0.6585;0.8862;
923.7000;0.6593;0.8933;
924.0000;0.6553;0.8791;
924.3000;0.6585;0.8838;
924.6000;0.6585;0.8814;
924.9000;0.6585;0.8791;
925.2000;0.6545;0.8649;
925.5000;0.6585;0.8743;
925.8000;0.6602;0.8696;
926.1000;0.6593;0.8791;
926.4000;0.6561;0.8743;
926.7000;0.6593;0.8767;
927.0000;0.6553;0.8649;
927.3000;0.6569;0.8625;
927.6000;0.6561;0.8625;
927.9000;0.6569;0.8696;
928.2000;0.6569;0.8743;
928.5000;0.6585;0.8767;
928.8000;0.6577;0.8767;
929.1000;0.6569;0.8838;
929.4000;0.6585;0.8886;
929.7000;0.6553;0.8814;
930.0000;0.6528;0.8791;
930.3000;0.6585;0.8886;
930.6000;0.6520;0.8649;
930.9000;0.6577;0.8838;
931.2000;0.6585;0.8767;
931.5000;0.6561;0.8696;
931.8000;0.6593;0.8791;
932.1000;0.6553;0.8601;
932.4000;0.6585;0.8696;
932.7000;0.6602;0.8672;
933.0000;0.6569;0.8625;
933.3000;0.6577;0.8672;
933.6000;0.6585;0.8672;
933.9000;0.6585;0.8672;
934.2000;0.6569;0.8649;
934.5000;0.6602;0.8767;
934.8000;0.6536;0.8625;
935.1000;0.6569;0.8720;
935.4000;0.6561;0.8696;
935.7000;0.6593;0.8720;
936.0000;0.6585;0.8696;
936.3000;0.6585;0.8625;
936.6000;0.6553;0.8625;
936.9000;0.6593;0.8720;
937.2000;0.6585;0.8838;
937.5000;0.6545;0.8720;
937.8000;0.6561;0.8720;
938.1000;0.6569;0.8696;
938.4000;0.6569;0.8720;
938.7000;0.6577;0.8720;
939.0000;0.6577;0.8767;
939.3000;0.6561;0.8743;
939.6000;0.6569;0.8743;
939.9000;0.6569;0.8767;
940.2000;0.6577;0.8720;
940.5000;0.6569;0.8672;
940.8000;0.6593;0.8720;
941.1000;0.6585;0.8601;
941.4000;0.6593;0.8554;
941.7000;0.6561;0.8554;
942.0000;0.6585;0.8578;
942.3000;0.6585;0.8672;
942.6000;0.6593;0.8720;
942.9000;0.6569;0.8720;
943.2000;0.6577;0.8649;
943.5000;0.6577;0.8649;
943.8000;0.6561;0.8649;
944.1000;0.6610;0.8814;
944.4000;0.6585;0.8696;
944.7000;0.6577;0.8625;
945.0000;0.6618;0.8791;
945.3000;0.6585;0.8767;
945.6000;0.6577;0.8767;
945.9000;0.6512;0.8554;
946.2000;0.6520;0.8601;
946.5000;0.6642;0.8886;
946.8000;0.6593;0.8767;
947.1000;0.6626;0.8791;
947.4000;0.6569;0.8767;
947.7000;0.6577;0.8743;
948.0000;0.6496;0.8530;
948.3000;0.6553;0.8625;
948.6000;0.6569;0.8601;
948.9000;0.6536;0.8483;
949.2000;0.6561;0.8459;
949.5000;0.6577;0.8506;
949.8000;0.6577;0.8578;
950.1000;0.6642;0.8649;
950.4000;0.6536;0.8388;
950.7000;0.6610;0.8554;
951.0000;0.6577;0.8578;
951.3000;0.6585;0.8601;
951.6000;0.6561;0.8554;
951.9000;0.6618;0.8649;
952.2000;0.6585;0.8601;
952.5000;0.6577;0.8506;
952.8000;0.6585;0.8530;
953.1000;0.6577;0.8506;
953.4000;0.6577;0.8506;
953.7000;0.6569;0.8435;
954.0000;0.6561;0.8435;
954.3000;0.6593;0.8412;
954.6000;0.6561;0.8364;
954.9000;0.6569;0.8506;
955.2000;0.6545;0.8506;
955.5000;0.6569;0.8649;
955.8000;0.6610;0.8720;
956.1000;0.6577;0.8601;
956.4000;0.6585;0.8601;
956.7000;0.6569;0.8578;
957.0000;0.6577;0.8578;
957.3000;0.6569;0.8696;
957.6000;0.6569;0.8838;
957.9000;0.6512;0.8720;
958.2000;0.6585;0.8886;
958.5000;0.6561;0.8838;
958.8000;0.6577;0.8838;
959.1000;0.6585;0.8767;
959.4000;0.6577;0.8743;
959.7000;0.6569;0.8720;
960.0000;0.6585;0.8672;
960.3000;0.6593;0.8672;
960.6000;0.6577;0.8625;
960.9000;0.6585;0.8743;
961.2000;0.6569;0.8720;
961.5000;0.6585;0.8720;
961.8000;0.6561;0.8625;
962.1000;0.6585;0.8672;
962.4000;0.6561;0.8672;
962.7000;0.6585;0.8672;
963.0000;0.6577;0.8696;
963.3000;0.6585;0.8672;
963.6000;0.6577;0.8625;
963.9000;0.6553;0.8625;
964.2000;0.6585;0.8791;
964.5000;0.6577;0.8791;
964.8000;0.6561;0.8696;
965.1000;0.6569;0.8696;
965.4000;0.6577;0.8649;
965.7000;0.6577;0.8601;
966.0000;0.6561;0.8601;
966.3000;0.6561;0.8649;
966.6000;0.6561;0.8578;
966.9000;0.6569;0.8506;
967.2000;0.6569;0.8506;
967.5000;0.6569;0.8530;
967.8000;0.6561;0.8625;
968.1000;0.6593;0.8649;
968.4000;0.6577;0.8530;
968.7000;0.6569;0.8412;
969.0000;0.6577;0.8364;
969.3000;0.6593;0.8435;
969.6000;0.6585;0.8435;
969.9000;0.6675;0.8696;
970.2000;0.6553;0.8364;
970.5000;0.6585;0.8388;
970.8000;0.6569;0.8364;
971.1000;0.6585;0.8388;
971.4000;0.6610;0.8412;
971.7000;0.6561;0.8388;
972.0000;0.6561;0.8388;
972.3000;0.6585;0.8459;
972.6000;0.6569;0.8412;
972.9000;0.6593;0.8506;
973.2000;0.6569;0.8435;
973.5000;0.6618;0.8483;
973.8000;0.6585;0.8269;
974.1000;0.6577;0.8246;
974.4000;0.6553;0.8222;
974.7000;0.6585;0.8293;
975.0000;0.6561;0.8198;
975.3000;0.6561;0.8269;
975.6000;0.6561;0.8317;
975.9000;0.6569;0.8388;
976.2000;0.6561;0.8435;
976.5000;0.6553;0.8412;
976.8000;0.6569;0.8412;
977.1000;0.6577;0.8483;
977.4000;0.6577;0.8506;
977.7000;0.6569;0.8435;
978.0000;0.6577;0.8435;
978.3000;0.6561;0.8412;
978.6000;0.6577;0.8530;
978.9000;0.6569;0.8506;
979.2000;0.6553;0.8459;
979.5000;0.6667;0.8720;
979.8000;0.6585;0.8530;
980.1000;0.6545;0.8554;
980.4000;0.6561;0.8649;
980.7000;0.6569;0.8506;
981.0000;0.6569;0.8554;
981.3000;0.6561;0.8554;
981.6000;0.6553;0.8506;
981.9000;0.6577;0.8530;
982.2000;0.6569;0.8459;
982.5000;0.6561;0.8388;
982.8000;0.6585;0.8388;
983.1000;0.6577;0.8483;
983.4000;0.6561;0.8435;
983.7000;0.6561;0.8459;
984.0000;0.6569;0.8459;
984.3000;0.6553;0.8459;
984.6000;0.6593;0.8649;
984.9000;0.6569;0.8649;
985.2000;0.6561;0.8649;
985.5000;0.6553;0.8625;
985.8000;0.6577;0.8649;
986.1000;0.6553;0.8672;
986.4000;0.6536;0.8649;
986.7000;0.6561;0.8720;
987.0000;0.6545;0.8743;
987.3000;0.6561;0.8743;
987.6000;0.6545;0.8720;
987.9000;0.6561;0.8743;
988.2000;0.6553;0.8696;
988.5000;0.6561;0.8720;
988.8000;0.6553;0.8814;
989.1000;0.6545;0.8720;
989.4000;0.6553;0.8720;
989.7000;0.6545;0.8743;
990.0000;0.6577;0.8791;
990.3000;0.6569;0.8791;
990.6000;0.6577;0.8743;
990.9000;0.6577;0.8696;
991.2000;0.6561;0.8625;
991.5000;0.6577;0.8554;
991.8000;0.6577;0.8506;
992.1000;0.6577;0.8506;
992.4000;0.6610;0.8625;
992.7000;0.6585;0.8601;
993.0000;0.6569;0.8506;
993.3000;0.6553;0.8459;
993.6000;0.6602;0.8483;
993.9000;0.6569;0.8364;
994.2000;0.6585;0.8483;
994.5000;0.6585;0.8530;
994.8000;0.6577;0.8506;
995.1000;0.6561;0.8459;
995.4000;0.6561;0.8483;
995.7000;0.6561;0.8506;
996.0000;0.6553;0.8506;
996.3000;0.6545;0.8483;
996.6000;0.6569;0.8554;
996.9000;0.6561;0.8625;
997.2000;0.6528;0.8459;
997.5000;0.6553;0.8578;
997.8000;0.6561;0.8530;
998.1000;0.6561;0.8412;
998.4000;0.6577;0.8364;
998.7000;0.6610;0.8435;
999.0000;0.6561;0.8293;
999.3000;0.6577;0.8341;
999.6000;0.6553;0.8246;
999.9000;0.6561;0.8388;
1000.2000;0.6634;0.8530;
1000.5000;0.6553;0.8435;
1000.8000;0.6553;0.8435;
1001.1000;0.6553;0.8388;
1001.4000;0.6553;0.8412;
1001.7000;0.6545;0.8388;
1002.0000;0.6545;0.8435;
1002.3000;0.6561;0.8554;
1002.6000;0.6569;0.8578;
1002.9000;0.6512;0.8412;
1003.2000;0.6561;0.8506;
1003.5000;0.6585;0.8483;
1003.8000;0.6553;0.8412;
1004.1000;0.6561;0.8506;
1004.4000;0.6577;0.8625;
1004.7000;0.6561;0.8672;
1005.0000;0.6659;0.8886;
1005.3000;0.6569;0.8625;
1005.6000;0.6634;0.8814;
1005.9000;0.6569;0.8601;
1006.2000;0.6561;0.8672;
1006.5000;0.6577;0.8720;
1006.8000;0.6561;0.8672;
1007.1000;0.6553;0.8649;
1007.4000;0.6577;0.8649;
1007.7000;0.6561;0.8625;
1008.0000;0.6561;0.8720;
1008.3000;0.6553;0.8720;
1008.6000;0.6610;0.8743;
1008.9000;0.6569;0.8649;
1009.2000;0.6569;0.8649;
1009.5000;0.6569;0.8625;
1009.8000;0.6545;0.8554;
1010.1000;0.6585;0.8625;
1010.4000;0.6577;0.8625;
1010.7000;0.6561;0.8672;
1011.0000;0.6545;0.8601;
1011.3000;0.6553;0.8554;
1011.6000;0.6577;0.8530;
1011.9000;0.6561;0.8506;
1012.2000;0.6561;0.8601;
1012.5000;0.6561;0.8696;
1012.8000;0.6577;0.8767;
1013.1000;0.6553;0.8696;
1013.4000;0.6569;0.8838;
1013.7000;0.6553;0.8791;
1014.0000;0.6569;0.8696;
1014.3000;0.6577;0.8696;
1014.6000;0.6561;0.8649;
1014.9000;0.6561;0.8743;
1015.2000;0.6536;0.8625;
1015.5000;0.6569;0.8743;
1015.8000;0.6577;0.8862;
1016.1000;0.6585;0.8886;
1016.4000;0.6561;0.8838;
1016.7000;0.6569;0.8838;
1017.0000;0.6577;0.8957;
1017.3000;0.6561;0.8909;
1017.6000;0.6569;0.8767;
1017.9000;0.6569;0.8838;
1018.2000;0.6553;0.8767;
1018.5000;0.6561;0.8814;
1018.8000;0.6585;0.8838;
1019.1000;0.6569;0.8814;
1019.4000;0.6561;0.8767;
1019.7000;0.6585;0.8838;
1020.0000;0.6553;0.8720;
1020.3000;0.6553;0.8791;
1020.6000;0.6561;0.8838;
1020.9000;0.6553;0.8814;
1021.2000;0.6528;0.8791;
1021.5000;0.6545;0.8886;
1021.8000;0.6561;0.8933;
1022.1000;0.6561;0.8933;
1022.4000;0.6553;0.8886;
1022.7000;0.6569;0.8862;
1023.0000;0.6593;0.8814;
1023.3000;0.6569;0.8743;
1023.6000;0.6561;0.8743;
1023.9000;0.6520;0.8625;
1024.2000;0.6577;0.8767;
1024.5000;0.6569;0.8696;
1024.8000;0.6561;0.8696;
1025.1000;0.6569;0.8720;
1025.4000;0.6577;0.8672;
1025.7000;0.6569;0.8672;
1026.0000;0.6577;0.8601;
1026.3000;0.6618;0.8649;
1026.6000;0.6569;0.8554;
1026.9000;0.6642;0.8814;
1027.2000;0.6561;0.8649;
1027.5000;0.6553;0.8578;
1027.8000;0.6504;0.8506;
1028.1000;0.6577;0.8696;
1028.4000;0.6553;0.8672;
1028.7000;0.6561;0.8625;
1029.0000;0.6536;0.8554;
1029.3000;0.6569;0.8483;
1029.6000;0.6553;0.8530;
1029.9000;0.6545;0.8506;
1030.2000;0.6553;0.8530;
1030.5000;0.6561;0.8554;
1030.8000;0.6561;0.8506;
1031.1000;0.6553;0.8530;
1031.4000;0.6545;0.8435;
1031.7000;0.6545;0.8483;
1032.0000;0.6577;0.8601;
1032.3000;0.6577;0.8578;
1032.6000;0.6561;0.8720;
1032.9000;0.6585;0.8767;
1033.2000;0.6569;0.8791;
1033.5000;0.6569;0.8791;
1033.8000;0.6577;0.8814;
1034.1000;0.6561;0.8791;
1034.4000;0.6553;0.8672;
1034.7000;0.6626;0.8838;
1035.0000;0.6536;0.8649;
1035.3000;0.6561;0.8578;
1035.6000;0.6569;0.8625;
1035.9000;0.6577;0.8625;
1036.2000;0.6545;0.8578;
1036.5000;0.6536;0.8506;
1036.8000;0.6545;0.8554;
1037.1000;0.6561;0.8601;
1037.4000;0.6577;0.8672;
1037.7000;0.6561;0.8625;
1038.0000;0.6569;0.8672;
1038.3000;0.6569;0.8672;
1038.6000;0.6520;0.8601;
1038.9000;0.6545;0.8554;
1039.2000;0.6553;0.8554;
1039.5000;0.6553;0.8625;
1039.8000;0.6650;0.8862;
1040.1000;0.6520;0.8601;
1040.4000;0.6553;0.8696;
1040.7000;0.6520;0.8601;
1041.0000;0.6569;0.8720;
1041.3000;0.6520;0.8625;
1041.6000;0.6545;0.8720;
1041.9000;0.6528;0.8696;
1042.2000;0.6577;0.8720;
1042.5000;0.6602;0.8767;
1042.8000;0.6536;0.8649;
1043.1000;0.6561;0.8672;
1043.4000;0.6561;0.8601;
1043.7000;0.6545;0.8601;
1044.0000;0.6553;0.8601;
1044.3000;0.6553;0.8554;
1044.6000;0.6553;0.8530;
1044.9000;0.6561;0.8578;
1045.2000;0.6569;0.8601;
1045.5000;0.6545;0.8554;
1045.8000;0.6536;0.8506;
1046.1000;0.6553;0.8554;
1046.4000;0.6528;0.8483;
1046.7000;0.6626;0.8672;
1047.0000;0.6561;0.8506;
1047.3000;0.6553;0.8459;
1047.6000;0.6561;0.8578;
1047.9000;0.6610;0.8672;
1048.2000;0.6553;0.8578;
1048.5000;0.6561;0.8601;
1048.8000;0.6561;0.8601;
1049.1000;0.6545;0.8601;
1049.4000;0.6561;0.8625;
1049.7000;0.6561;0.8625;
1050.0000;0.6536;0.8601;
1050.3000;0.6545;0.8696;
1050.6000;0.6545;0.8743;
1050.9000;0.6593;0.8814;
1051.2000;0.6561;0.8720;
1051.5000;0.6561;0.8672;
1051.8000;0.6561;0.8743;
1052.1000;0.6561;0.8862;
1052.4000;0.6569;0.8862;
1052.7000;0.6593;0.8957;
1053.0000;0.6545;0.8886;
1053.3000;0.6561;0.8957;
1053.6000;0.6528;0.8720;
1053.9000;0.6561;0.8767;
1054.2000;0.6536;0.8649;
1054.5000;0.6528;0.8554;
1054.8000;0.6561;0.8720;
1055.1000;0.6553;0.8767;
1055.4000;0.6545;0.8743;
1055.7000;0.6553;0.8720;
1056.0000;0.6545;0.8601;
1056.3000;0.6577;0.8696;
1056.6000;0.6528;0.8601;
1056.9000;0.6536;0.8554;
1057.2000;0.6545;0.8530;
1057.5000;0.6545;0.8483;
1057.8000;0.6520;0.8459;
1058.1000;0.6577;0.8601;
1058.4000;0.6577;0.8625;
1058.7000;0.6553;0.8601;
1059.0000;0.6569;0.8767;
1059.3000;0.6561;0.8814;
1059.6000;0.6569;0.8886;
1059.9000;0.6585;0.8791;
1060.2000;0.6577;0.8791;
1060.5000;0.6610;0.8862;
1060.8000;0.6545;0.8814;
1061.1000;0.6561;0.8814;
1061.4000;0.6561;0.8838;
1061.7000;0.6504;0.8696;
1062.0000;0.6504;0.8601;
1062.3000;0.6536;0.8625;
1062.6000;0.6553;0.8767;
1062.9000;0.6520;0.8625;
1063.2000;0.6520;0.8625;
1063.5000;0.6545;0.8743;
1063.8000;0.6561;0.8814;
1064.1000;0.6585;0.8767;
1064.4000;0.6569;0.8767;
1064.7000;0.6553;0.8743;
1065.0000;0.6545;0.8814;
1065.3000;0.6512;0.8696;
1065.6000;0.6520;0.8720;
1065.9000;0.6528;0.8791;
1066.2000;0.6545;0.8791;
1066.5000;0.6536;0.8672;
1066.8000;0.6610;0.8933;
1067.1000;0.6536;0.8696;
1067.4000;0.6545;0.8720;
1067.7000;0.6545;0.8672;
1068.0000;0.6545;0.8625;
1068.3000;0.6569;0.8672;
1068.6000;0.6520;0.8601;
1068.9000;0.6553;0.8625;
1069.2000;0.6528;0.8672;
1069.5000;0.6585;0.8743;
1069.8000;0.6545;0.8625;
1070.1000;0.6561;0.8625;
1070.4000;0.6553;0.8601;
1070.7000;0.6569;0.8625;
1071.0000;0.6545;0.8625;
1071.3000;0.6561;0.8720;
1071.6000;0.6569;0.8743;
1071.9000;0.6569;0.8672;
1072.2000;0.6520;0.8530;
1072.5000;0.6553;0.8625;
1072.8000;0.6561;0.8625;
1073.1000;0.6561;0.8554;
1073.4000;0.6553;0.8435;
1073.7000;0.6553;0.8578;
1074.0000;0.6553;0.8696;
1074.3000;0.6553;0.8743;
1074.6000;0.6545;0.8696;
1074.9000;0.6528;0.8743;
1075.2000;0.6536;0.8814;
1075.5000;0.6553;0.8672;
1075.8000;0.6569;0.8696;
1076.1000;0.6553;0.8601;
1076.4000;0.6569;0.8649;
1076.7000;0.6553;0.8578;
1077.0000;0.6536;0.8554;
1077.3000;0.6545;0.8554;
1077.6000;0.6536;0.8530;
1077.9000;0.6536;0.8506;
1078.2000;0.6545;0.8483;
1078.5000;0.6536;0.8412;
1078.8000;0.6545;0.8388;
1079.1000;0.6561;0.8506;
1079.4000;0.6553;0.8601;
1079.7000;0.6577;0.8720;
1080.0000;0.6536;0.8672;
1080.3000;0.6545;0.8743;
1080.6000;0.6553;0.8696;
1080.9000;0.6577;0.8791;
1081.2000;0.6545;0.8720;
1081.5000;0.6528;0.8672;
1081.8000;0.6553;0.8672;
1082.1000;0.6536;0.8649;
1082.4000;0.6561;0.8672;
1082.7000;0.6561;0.8625;
1083.0000;0.6561;0.8601;
1083.3000;0.6553;0.8578;
1083.6000;0.6569;0.8649;
1083.9000;0.6569;0.8601;
1084.2000;0.6626;0.8862;
1084.5000;0.6577;0.8625;
1084.8000;0.6553;0.8506;
1085.1000;0.6553;0.8625;
1085.4000;0.6553;0.8649;
1085.7000;0.6536;0.8649;
1086.0000;0.6553;0.8672;
1086.3000;0.6528;0.8625;
1086.6000;0.6528;0.8530;
1086.9000;0.6618;0.8625;
1087.2000;0.6561;0.8459;
1087.5000;0.6561;0.8483;
1087.8000;0.6545;0.8554;
1088.1000;0.6463;0.8435;
1088.4000;0.6642;0.8838;
1088.7000;0.6585;0.8696;
1089.0000;0.6569;0.8625;
1089.3000;0.6553;0.8601;
1089.6000;0.6561;0.8696;
1089.9000;0.6545;0.8696;
1090.2000;0.6585;0.8791;
1090.5000;0.6545;0.8672;
1090.8000;0.6553;0.8743;
1091.1000;0.6553;0.8767;
1091.4000;0.6561;0.8791;
1091.7000;0.6577;0.8814;
1092.0000;0.6561;0.8791;
1092.3000;0.6545;0.8720;
1092.6000;0.6545;0.8696;
1092.9000;0.6553;0.8649;
1093.2000;0.6618;0.8791;
1093.5000;0.6504;0.8578;
1093.8000;0.6545;0.8554;
1094.1000;0.6545;0.8506;
1094.4000;0.6545;0.8649;
1094.7000;0.6553;0.8672;
1095.0000;0.6553;0.8743;
1095.3000;0.6553;0.8696;
1095.6000;0.6593;0.8838;
1095.9000;0.6545;0.8672;
1096.2000;0.6650;0.8980;
1096.5000;0.6545;0.8743;
1096.8000;0.6569;0.8767;
1097.1000;0.6561;0.8743;
1097.4000;0.6561;0.8578;
1097.7000;0.6569;0.8743;
1098.0000;0.6545;0.8814;
1098.3000;0.6553;0.8838;
1098.6000;0.6561;0.8791;
1098.9000;0.6545;0.8743;
1099.2000;0.6545;0.8767;
1099.5000;0.6561;0.8791;
1099.8000;0.6536;0.8814;
1100.1000;0.6545;0.8791;
1100.4000;0.6545;0.8838;
1100.7000;0.6553;0.8791;
1101.0000;0.6569;0.8838;
1101.3000;0.6561;0.8791;
1101.6000;0.6553;0.8814;
1101.9000;0.6536;0.8720;
1102.2000;0.6561;0.8696;
1102.5000;0.6528;0.8625;
1102.8000;0.6545;0.8625;
1103.1000;0.6536;0.8625;
1103.4000;0.6528;0.8625;
1103.7000;0.6577;0.8649;
1104.0000;0.6545;0.8625;
1104.3000;0.6528;0.8601;
1104.6000;0.6545;0.8672;
1104.9000;0.6536;0.8720;
1105.2000;0.6545;0.8720;
1105.5000;0.6553;0.8720;
1105.8000;0.6520;0.8720;
1106.1000;0.6569;0.8791;
1106.4000;0.6553;0.8791;
1106.7000;0.6545;0.8814;
1107.0000;0.6553;0.8838;
1107.3000;0.6561;0.8886;
1107.6000;0.6561;0.8909;
1107.9000;0.6545;0.8838;
1108.2000;0.6553;0.8791;
1108.5000;0.6569;0.8814;
1108.8000;0.6545;0.8767;
1109.1000;0.6545;0.8625;
1109.4000;0.6553;0.8649;
1109.7000;0.6545;0.8672;
1110.0000;0.6602;0.8838;
1110.3000;0.6569;0.8767;
1110.6000;0.6536;0.8767;
1110.9000;0.6561;0.8838;
1111.2000;0.6561;0.8814;
1111.5000;0.6561;0.8791;
1111.8000;0.6561;0.8814;
1112.1000;0.6553;0.8767;
1112.4000;0.6561;0.8814;
1112.7000;0.6553;0.8791;
1113.0000;0.6545;0.8838;
1113.3000;0.6553;0.8886;
1113.6000;0.6545;0.8909;
1113.9000;0.6545;0.8886;
1114.2000;0.6545;0.8862;
1114.5000;0.6545;0.8838;
1114.8000;0.6545;0.8838;
1115.1000;0.6553;0.8814;
1115.4000;0.6561;0.8814;
1115.7000;0.6561;0.8814;
1116.0000;0.6553;0.8862;
1116.3000;0.6569;0.8933;
1116.6000;0.6577;0.8909;
1116.9000;0.6536;0.8862;
1117.2000;0.6553;0.8743;
1117.5000;0.6545;0.8838;
1117.8000;0.6536;0.8886;
1118.1000;0.6488;0.8696;
1118.4000;0.6528;0.8838;
1118.7000;0.6561;0.8862;
1119.0000;0.6553;0.8862;
1119.3000;0.6479;0.8696;
1119.6000;0.6545;0.8886;
1119.9000;0.6545;0.8886;
1120.2000;0.6545;0.8909;
1120.5000;0.6545;0.8980;
1120.8000;0.6561;0.8980;
1121.1000;0.6545;0.8862;
1121.4000;0.6561;0.8814;
1121.7000;0.6536;0.8767;
1122.0000;0.6553;0.8838;
1122.3000;0.6536;0.8743;
1122.6000;0.6536;0.8696;
1122.9000;0.6553;0.8743;
1123.2000;0.6545;0.8720;
1123.5000;0.6545;0.8838;
1123.8000;0.6561;0.8862;
1124.1000;0.6585;0.8886;
1124.4000;0.6553;0.8791;
1124.7000;0.6536;0.8696;
1125.0000;0.6561;0.8720;
1125.3000;0.6561;0.8696;
1125.6000;0.6512;0.8554;
1125.9000;0.6553;0.8649;
1126.2000;0.6561;0.8720;
1126.5000;0.6553;0.8720;
1126.8000;0.6553;0.8767;
1127.1000;0.6553;0.8743;
1127.4000;0.6553;0.8767;
1127.7000;0.6545;0.8838;
1128.0000;0.6561;0.8886;
1128.3000;0.6545;0.8886;
1128.6000;0.6545;0.8720;
1128.9000;0.6577;0.8791;
1129.2000;0.6553;0.8672;
1129.5000;0.6561;0.8720;
1129.8000;0.6553;0.8649;
1130.1000;0.6536;0.8578;
1130.4000;0.6528;0.8625;
1130.7000;0.6479;0.8483;
1131.0000;0.6553;0.8767;
1131.3000;0.6553;0.8767;
1131.6000;0.6553;0.8838;
1131.9000;0.6553;0.8838;
1132.2000;0.6602;0.8980;
1132.5000;0.6553;0.8886;
1132.8000;0.6553;0.8767;
1133.1000;0.6536;0.8720;
1133.4000;0.6536;0.8696;
1133.7000;0.6536;0.8767;
1134.0000;0.6536;0.8886;
1134.3000;0.6545;0.8886;
1134.6000;0.6545;0.8886;
1134.9000;0.6545;0.9004;
1135.2000;0.6545;0.8980;
1135.5000;0.6553;0.9004;
1135.8000;0.6545;0.9051;
1136.1000;0.6536;0.9028;
1136.4000;0.6545;0.9075;
1136.7000;0.6553;0.9051;
1137.0000;0.6626;0.9099;
1137.3000;0.6553;0.8933;
1137.6000;0.6577;0.9051;
1137.9000;0.6545;0.8957;
1138.2000;0.6553;0.8933;
1138.5000;0.6553;0.8862;
1138.8000;0.6536;0.8814;
1139.1000;0.6561;0.8791;
1139.4000;0.6561;0.8838;
1139.7000;0.6545;0.8743;
1140.0000;0.6536;0.8791;
1140.3000;0.6553;0.8862;
1140.6000;0.6561;0.8838;
1140.9000;0.6553;0.8791;
1141.2000;0.6553;0.8791;
1141.5000;0.6569;0.8838;
1141.8000;0.6561;0.8886;
1142.1000;0.6585;0.9004;
1142.4000;0.6545;0.8933;
1142.7000;0.6536;0.9004;
1143.0000;0.6528;0.9004;
1143.3000;0.6512;0.8980;
1143.6000;0.6569;0.9051;
1143.9000;0.6545;0.8886;
1144.2000;0.6553;0.8933;
1144.5000;0.6553;0.8909;
1144.8000;0.6528;0.8838;
1145.1000;0.6585;0.9099;
1145.4000;0.6528;0.9028;
1145.7000;0.6536;0.9075;
1146.0000;0.6545;0.8980;
1146.3000;0.6528;0.8933;
1146.6000;0.6536;0.9004;
1146.9000;0.6536;0.9028;
1147.2000;0.6528;0.9099;
1147.5000;0.6626;0.9312;
1147.8000;0.6545;0.9075;
1148.1000;0.6536;0.9146;
1148.4000;0.6536;0.9122;
1148.7000;0.6545;0.9099;
1149.0000;0.6536;0.9004;
1149.3000;0.6553;0.8957;
1149.6000;0.6553;0.8980;
1149.9000;0.6569;0.9004;
1150.2000;0.6553;0.8980;
1150.5000;0.6496;0.8814;
1150.8000;0.6528;0.8909;
1151.1000;0.6536;0.8933;
1151.4000;0.6545;0.8957;
1151.7000;0.6545;0.9051;
1152.0000;0.6545;0.9028;
1152.3000;0.6569;0.9122;
1152.6000;0.6561;0.9028;
1152.9000;0.6528;0.9028;
1153.2000;0.6545;0.9028;
1153.5000;0.6536;0.9004;
1153.8000;0.6553;0.9099;
1154.1000;0.6561;0.9122;
1154.4000;0.6545;0.9146;
1154.7000;0.6520;0.9146;
1155.0000;0.6520;0.9146;
1155.3000;0.6536;0.9146;
1155.6000;0.6536;0.9146;
1155.9000;0.6626;0.9312;
1156.2000;0.6553;0.9099;
1156.5000;0.6545;0.9122;
1156.8000;0.6545;0.9122;
1157.1000;0.6553;0.9051;
1157.4000;0.6602;0.9075;
1157.7000;0.6528;0.8862;
1158.0000;0.6618;0.9004;
1158.3000;0.6496;0.8696;
1158.6000;0.6536;0.8862;
1158.9000;0.6479;0.8601;
1159.2000;0.6512;0.8649;
1159.5000;0.6471;0.8672;
1159.8000;0.6561;0.8980;
1160.1000;0.6536;0.8886;
1160.4000;0.6545;0.8909;
1160.7000;0.6512;0.8814;
1161.0000;0.6610;0.9122;
1161.3000;0.6520;0.8909;
1161.6000;0.6545;0.8933;
1161.9000;0.6528;0.8909;
1162.2000;0.6536;0.9004;
1162.5000;0.6536;0.9004;
1162.8000;0.6536;0.8909;
1163.1000;0.6528;0.8933;
1163.4000;0.6536;0.8957;
1163.7000;0.6553;0.8933;
1164.0000;0.6528;0.8838;
1164.3000;0.6536;0.8814;
1164.6000;0.6545;0.8862;
1164.9000;0.6545;0.8838;
1165.2000;0.6545;0.8886;
1165.5000;0.6561;0.8909;
1165.8000;0.6536;0.8862;
1166.1000;0.6553;0.8980;
1166.4000;0.6553;0.9004;
1166.7000;0.6536;0.9051;
1167.0000;0.6536;0.8886;
1167.3000;0.6553;0.8957;
1167.6000;0.6561;0.9004;
1167.9000;0.6553;0.8862;
1168.2000;0.6561;0.8814;
1168.5000;0.6569;0.8743;
1168.8000;0.6553;0.8696;
1169.1000;0.6561;0.8696;
1169.4000;0.6561;0.8720;
1169.7000;0.6536;0.8743;
1170.0000;0.6536;0.8743;
1170.3000;0.6569;0.8743;
1170.6000;0.6545;0.8720;
1170.9000;0.6536;0.8720;
1171.2000;0.6553;0.8791;
1171.5000;0.6569;0.8886;
1171.8000;0.6512;0.8743;
1172.1000;0.6561;0.8862;
1172.4000;0.6536;0.8838;
1172.7000;0.6545;0.8814;
1173.0000;0.6569;0.8814;
1173.3000;0.6561;0.8814;
1173.6000;0.6528;0.8862;
1173.9000;0.6602;0.9004;
1174.2000;0.6528;0.8720;
1174.5000;0.6528;0.8649;
1174.8000;0.6520;0.8743;
1175.1000;0.6536;0.8743;
1175.4000;0.6536;0.8720;
1175.7000;0.6512;0.8625;
1176.0000;0.6561;0.8743;
1176.3000;0.6536;0.8672;
1176.6000;0.6536;0.8696;
1176.9000;0.6536;0.8672;
1177.2000;0.6553;0.8720;
1177.5000;0.6512;0.8696;
1177.8000;0.6561;0.8909;
1178.1000;0.6536;0.8838;
1178.4000;0.6512;0.8767;
1178.7000;0.6512;0.8767;
1179.0000;0.6561;0.8886;
1179.3000;0.6545;0.8814;
1179.6000;0.6545;0.8672;
1179.9000;0.6545;0.8649;
1180.2000;0.6561;0.8672;
1180.5000;0.6553;0.8720;
1180.8000;0.6528;0.8720;
1181.1000;0.6528;0.8791;
1181.4000;0.6569;0.8957;
1181.7000;0.6528;0.8886;
1182.0000;0.6512;0.8791;
1182.3000;0.6471;0.8743;
1182.6000;0.6545;0.8838;
1182.9000;0.6528;0.8767;
1183.2000;0.6545;0.8862;
1183.5000;0.6488;0.8649;
1183.8000;0.6545;0.8720;
1184.1000;0.6536;0.8720;
1184.4000;0.6545;0.8649;
1184.7000;0.6528;0.8649;
1185.0000;0.6504;0.8672;
1185.3000;0.6528;0.8791;
1185.6000;0.6528;0.8743;
1185.9000;0.6528;0.8791;
1186.2000;0.6528;0.8767;
1186.5000;0.6504;0.8696;
1186.8000;0.6520;0.8838;
1187.1000;0.6528;0.8957;
1187.4000;0.6520;0.9004;
1187.7000;0.6536;0.8957;
1188.0000;0.6536;0.8862;
1188.3000;0.6536;0.8696;
1188.6000;0.6545;0.8696;
1188.9000;0.6553;0.8767;
1189.2000;0.6561;0.8767;
1189.5000;0.6536;0.8720;
1189.8000;0.6536;0.8672;
1190.1000;0.6553;0.8791;
1190.4000;0.6569;0.8743;
1190.7000;0.6545;0.8649;
1191.0000;0.6536;0.8601;
1191.3000;0.6545;0.8625;
1191.6000;0.6545;0.8720;
1191.9000;0.6545;0.8743;
1192.2000;0.6553;0.8767;
1192.5000;0.6545;0.8720;
1192.8000;0.6553;0.8672;
1193.1000;0.6561;0.8625;
1193.4000;0.6536;0.8554;
1193.7000;0.6520;0.8364;
1194.0000;0.6561;0.8435;
1194.3000;0.6553;0.8364;
1194.6000;0.6561;0.8364;
1194.9000;0.6520;0.8341;
1195.2000;0.6520;0.8435;
1195.5000;0.6536;0.8506;
1195.8000;0.6545;0.8578;
1196.1000;0.6545;0.8601;
1196.4000;0.6512;0.8483;
1196.7000;0.6520;0.8506;
1197.0000;0.6545;0.8601;
1197.3000;0.6528;0.8625;
1197.6000;0.6528;0.8649;
1197.9000;0.6504;0.8672;
1198.2000;0.6545;0.8743;
1198.5000;0.6545;0.8696;
1198.8000;0.6528;0.8720;
1199.1000;0.6528;0.8791;
1199.4000;0.6545;0.8791;
1199.7000;0.6536;0.8767;
1200.0000;0.6520;0.8672;
1200.3000;0.6545;0.8720;
1200.6000;0.6577;0.8862;
1200.9000;0.6545;0.8838;
1201.2000;0.6528;0.8814;
1201.5000;0.6520;0.8791;
1201.8000;0.6536;0.8886;
1202.1000;0.6553;0.9004;
1202.4000;0.6536;0.9004;
1202.7000;0.6536;0.8957;
1203.0000;0.6471;0.8814;
1203.3000;0.6520;0.8909;
1203.6000;0.6536;0.8862;
1203.9000;0.6577;0.8933;
1204.2000;0.6528;0.8791;
1204.5000;0.6553;0.8791;
1204.8000;0.6528;0.8696;
1205.1000;0.6536;0.8578;
1205.4000;0.6528;0.8412;
1205.7000;0.6545;0.8530;
1206.0000;0.6536;0.8578;
1206.3000;0.6536;0.8554;
1206.6000;0.6536;0.8530;
1206.9000;0.6536;0.8483;
1207.2000;0.6512;0.8601;
1207.5000;0.6528;0.8625;
1207.8000;0.6528;0.8649;
1208.1000;0.6545;0.8791;
1208.4000;0.6545;0.8791;
1208.7000;0.6545;0.8743;
1209.0000;0.6610;0.8933;
1209.3000;0.6528;0.8696;
1209.6000;0.6536;0.8767;
1209.9000;0.6553;0.8743;
1210.2000;0.6536;0.8649;
1210.5000;0.6553;0.8814;
1210.8000;0.6553;0.8743;
1211.1000;0.6618;0.8933;
1211.4000;0.6553;0.8743;
1211.7000;0.6520;0.8649;
1212.0000;0.6528;0.8672;
1212.3000;0.6512;0.8696;
1212.6000;0.6536;0.8838;
1212.9000;0.6545;0.8862;
1213.2000;0.6593;0.8886;
1213.5000;0.6447;0.8483;
1213.8000;0.6561;0.8743;
1214.1000;0.6561;0.8696;
1214.4000;0.6528;0.8625;
1214.7000;0.6545;0.8743;
1215.0000;0.6536;0.8696;
1215.3000;0.6536;0.8720;
1215.6000;0.6553;0.8767;
1215.9000;0.6553;0.8838;
1216.2000;0.6553;0.8814;
1216.5000;0.6528;0.8791;
1216.8000;0.6512;0.8720;
1217.1000;0.6536;0.8767;
1217.4000;0.6553;0.8720;
1217.7000;0.6577;0.8720;
1218.0000;0.6545;0.8578;
1218.3000;0.6536;0.8601;
1218.6000;0.6520;0.8530;
1218.9000;0.6545;0.8601;
1219.2000;0.6553;0.8672;
1219.5000;0.6528;0.8578;
1219.8000;0.6569;0.8601;
1220.1000;0.6545;0.8601;
1220.4000;0.6512;0.8530;
1220.7000;0.6561;0.8672;
1221.0000;0.6585;0.8672;
1221.3000;0.6520;0.8554;
1221.6000;0.6553;0.8649;
1221.9000;0.6593;0.8672;
1222.2000;0.6528;0.8601;
1222.5000;0.6545;0.8625;
1222.8000;0.6528;0.8601;
1223.1000;0.6618;0.8838;
1223.4000;0.6545;0.8625;
1223.7000;0.6561;0.8601;
1224.0000;0.6545;0.8530;
1224.3000;0.6553;0.8578;
1224.6000;0.6545;0.8530;
1224.9000;0.6528;0.8578;
1225.2000;0.6553;0.8696;
1225.5000;0.6553;0.8696;
1225.8000;0.6536;0.8601;
1226.1000;0.6512;0.8530;
1226.4000;0.6545;0.8530;
1226.7000;0.6520;0.8578;
1227.0000;0.6512;0.8483;
1227.3000;0.6545;0.8649;
1227.6000;0.6536;0.8601;
1227.9000;0.6536;0.8601;
1228.2000;0.6496;0.8506;
1228.5000;0.6536;0.8672;
1228.8000;0.6528;0.8720;
1229.1000;0.6528;0.8767;
1229.4000;0.6561;0.8909;
1229.7000;0.6553;0.8862;
1230.0000;0.6528;0.8791;
1230.3000;0.6536;0.8696;
1230.6000;0.6520;0.8720;
1230.9000;0.6536;0.8720;
1231.2000;0.6528;0.8578;
1231.5000;0.6536;0.8578;
1231.8000;0.6520;0.8530;
1232.1000;0.6528;0.8506;
1232.4000;0.6528;0.8578;
1232.7000;0.6520;0.8649;
1233.0000;0.6602;0.8814;
1233.3000;0.6512;0.8720;
1233.6000;0.6545;0.8814;
1233.9000;0.6528;0.8814;
1234.2000;0.6545;0.8862;
1234.5000;0.6553;0.8862;
1234.8000;0.6520;0.8743;
1235.1000;0.6536;0.8767;
1235.4000;0.6536;0.8767;
1235.7000;0.6553;0.8838;
1236.0000;0.6528;0.8862;
1236.3000;0.6528;0.8909;
1236.6000;0.6553;0.8862;
1236.9000;0.6536;0.8791;
1237.2000;0.6545;0.8767;
1237.5000;0.6561;0.8862;
1237.8000;0.6553;0.8814;
1238.1000;0.6577;0.8957;
1238.4000;0.6545;0.8886;
1238.7000;0.6536;0.8791;
1239.0000;0.6545;0.8743;
1239.3000;0.6610;0.8909;
1239.6000;0.6536;0.8767;
1239.9000;0.6545;0.8791;
1240.2000;0.6561;0.8933;
1240.5000;0.6553;0.8957;
1240.8000;0.6561;0.8980;
1241.1000;0.6545;0.9051;
1241.4000;0.6602;0.9075;
1241.7000;0.6553;0.8957;
1242.0000;0.6545;0.8862;
1242.3000;0.6553;0.8909;
1242.6000;0.6536;0.8886;
1242.9000;0.6569;0.9004;
1243.2000;0.6536;0.8933;
1243.5000;0.6536;0.9028;
1243.8000;0.6536;0.9099;
1244.1000;0.6569;0.9194;
1244.4000;0.6520;0.9051;
1244.7000;0.6536;0.9028;
1245.0000;0.6553;0.9099;
1245.3000;0.6504;0.9051;
1245.6000;0.6585;0.9146;
1245.9000;0.6545;0.9028;
1246.2000;0.6528;0.9051;
1246.5000;0.6536;0.9099;
1246.8000;0.6561;0.9146;
1247.1000;0.6520;0.9004;
1247.4000;0.6520;0.8980;
1247.7000;0.6545;0.8933;
1248.0000;0.6561;0.8838;
1248.3000;0.6545;0.8862;
1248.6000;0.6585;0.8957;
1248.9000;0.6528;0.8814;
1249.2000;0.6545;0.8886;
1249.5000;0.6577;0.8957;
1249.8000;0.6512;0.8791;
1250.1000;0.6520;0.8791;
1250.4000;0.6528;0.8814;
1250.7000;0.6553;0.8933;
1251.0000;0.6520;0.8933;
1251.3000;0.6536;0.8980;
1251.6000;0.6553;0.9004;
1251.9000;0.6471;0.8791;
1252.2000;0.6553;0.9004;
1252.5000;0.6536;0.8886;
1252.8000;0.6528;0.8838;
1253.1000;0.6545;0.8838;
1253.4000;0.6536;0.8862;
1253.7000;0.6545;0.8957;
1254.0000;0.6545;0.8933;
1254.3000;0.6520;0.8886;
1254.6000;0.6593;0.8957;
1254.9000;0.6520;0.8767;
1255.2000;0.6520;0.8743;
1255.5000;0.6618;0.9075;
1255.8000;0.6545;0.8909;
1256.1000;0.6528;0.8743;
1256.4000;0.6471;0.8625;
1256.7000;0.6536;0.8886;
1257.0000;0.6545;0.8838;
1257.3000;0.6520;0.8838;
1257.6000;0.6520;0.8814;
1257.9000;0.6536;0.8862;
1258.2000;0.6536;0.8862;
1258.5000;0.6520;0.8886;
1258.8000;0.6520;0.8838;
1259.1000;0.6536;0.8909;
1259.4000;0.6512;0.8814;
1259.7000;0.6528;0.8886;
1260.0000;0.6520;0.8838;
1260.3000;0.6528;0.8886;
1260.6000;0.6528;0.8909;
1260.9000;0.6545;0.8933;
1261.2000;0.6512;0.8791;
1261.5000;0.6528;0.8743;
1261.8000;0.6545;0.8862;
1262.1000;0.6545;0.8862;
1262.4000;0.6553;0.8886;
1262.7000;0.6545;0.8791;
1263.0000;0.6553;0.8791;
1263.3000;0.6528;0.8720;
1263.6000;0.6545;0.8720;
1263.9000;0.6528;0.8696;
1264.2000;0.6553;0.8672;
1264.5000;0.6553;0.8696;
1264.8000;0.6553;0.8672;
1265.1000;0.6536;0.8649;
1265.4000;0.6545;0.8767;
1265.7000;0.6520;0.8743;
1266.0000;0.6569;0.8862;
1266.3000;0.6553;0.8886;
1266.6000;0.6553;0.8909;
1266.9000;0.6496;0.8743;
1267.2000;0.6536;0.8814;
1267.5000;0.6512;0.8743;
1267.8000;0.6545;0.8933;
1268.1000;0.6536;0.8862;
1268.4000;0.6536;0.8957;
1268.7000;0.6610;0.9099;
1269.0000;0.6545;0.8886;
1269.3000;0.6528;0.8957;
1269.6000;0.6536;0.8957;
1269.9000;0.6528;0.8957;
1270.2000;0.6512;0.8862;
1270.5000;0.6545;0.8909;
1270.8000;0.6536;0.8886;
1271.1000;0.6528;0.8909;
1271.4000;0.6520;0.8838;
1271.7000;0.6528;0.8791;
1272.0000;0.6528;0.8720;
1272.3000;0.6528;0.8767;
1272.6000;0.6553;0.8886;
1272.9000;0.6545;0.8886;
1273.2000;0.6520;0.8838;
1273.5000;0.6528;0.8909;
1273.8000;0.6504;0.8838;
1274.1000;0.6496;0.8886;
1274.4000;0.6536;0.9075;
1274.7000;0.6520;0.9028;
1275.0000;0.6569;0.9265;
1275.3000;0.6553;0.9170;
1275.6000;0.6528;0.9028;
1275.9000;0.6496;0.8862;
1276.2000;0.6545;0.8980;
1276.5000;0.6431;0.8672;
1276.8000;0.6545;0.8886;
1277.1000;0.6536;0.8838;
1277.4000;0.6553;0.8814;
1277.7000;0.6545;0.8814;
1278.0000;0.6553;0.8838;
1278.3000;0.6520;0.8814;
1278.6000;0.6545;0.8862;
1278.9000;0.6545;0.8862;
1279.2000;0.6561;0.8933;
1279.5000;0.6561;0.8980;
1279.8000;0.6528;0.8933;
1280.1000;0.6536;0.8980;
1280.4000;0.6545;0.9075;
1280.7000;0.6520;0.9028;
1281.0000;0.6536;0.9051;
1281.3000;0.6545;0.9099;
1281.6000;0.6536;0.9122;
1281.9000;0.6528;0.9122;
1282.2000;0.6545;0.9075;
1282.5000;0.6536;0.9075;
1282.8000;0.6512;0.9004;
1283.1000;0.6610;0.9170;
1283.4000;0.6528;0.9028;
1283.7000;0.6496;0.8980;
1284.0000;0.6545;0.9028;
1284.3000;0.6536;0.9004;
1284.6000;0.6496;0.8886;
1284.9000;0.6528;0.8909;
1285.2000;0.6520;0.8886;
1285.5000;0.6528;0.8886;
1285.8000;0.6512;0.8862;
1286.1000;0.6512;0.8909;
1286.4000;0.6471;0.8791;
1286.7000;0.6496;0.8838;
1287.0000;0.6528;0.8838;
1287.3000;0.6536;0.8886;
1287.6000;0.6455;0.8696;
1287.9000;0.6545;0.8957;
1288.2000;0.6520;0.8909;
1288.5000;0.6536;0.8862;
1288.8000;0.6553;0.8886;
1289.1000;0.6569;0.8886;
1289.4000;0.6536;0.8862;
1289.7000;0.6496;0.8696;
1290.0000;0.6504;0.8767;
1290.3000;0.6561;0.9004;
1290.6000;0.6545;0.8933;
1290.9000;0.6431;0.8696;
1291.2000;0.6545;0.8933;
1291.5000;0.6536;0.8957;
1291.8000;0.6439;0.8696;
1292.1000;0.6455;0.8720;
1292.4000;0.6528;0.8838;
1292.7000;0.6536;0.8743;
1293.0000;0.6520;0.8814;
1293.3000;0.6512;0.8767;
1293.6000;0.6520;0.8743;
1293.9000;0.6545;0.8886;
1294.2000;0.6512;0.8838;
1294.5000;0.6504;0.8862;
1294.8000;0.6512;0.8909;
1295.1000;0.6512;0.8886;
1295.4000;0.6577;0.9028;
1295.7000;0.6545;0.8886;
1296.0000;0.6528;0.8886;
1296.3000;0.6496;0.8838;
1296.6000;0.6545;0.9028;
1296.9000;0.6528;0.9028;
1297.2000;0.6528;0.8957;
1297.5000;0.6512;0.8886;
1297.8000;0.6561;0.9028;
1298.1000;0.6528;0.9004;
1298.4000;0.6520;0.9004;
1298.7000;0.6520;0.9004;
1299.0000;0.6488;0.8909;
1299.3000;0.6512;0.8957;
1299.6000;0.6528;0.9075;
1299.9000;0.6528;0.9028;
1300.2000;0.6520;0.8957;
1300.5000;0.6463;0.8791;
1300.8000;0.6528;0.8933;
1301.1000;0.6528;0.8886;
1301.4000;0.6528;0.8886;
1301.7000;0.6536;0.8933;
1302.0000;0.6536;0.8957;
1302.3000;0.6536;0.8957;
1302.6000;0.6504;0.8814;
1302.9000;0.6545;0.8886;
1303.2000;0.6569;0.8933;
1303.5000;0.6536;0.8838;
1303.8000;0.6528;0.8814;
1304.1000;0.6520;0.8838;
1304.4000;0.6504;0.8814;
1304.7000;0.6528;0.8862;
1305.0000;0.6520;0.8814;
1305.3000;0.6512;0.8791;
1305.6000;0.6520;0.8862;
1305.9000;0.6528;0.8957;
1306.2000;0.6528;0.8886;
1306.5000;0.6528;0.8814;
1306.8000;0.6545;0.8838;
1307.1000;0.6536;0.8838;
1307.4000;0.6536;0.8791;
1307.7000;0.6528;0.8814;
1308.0000;0.6536;0.8767;
1308.3000;0.6545;0.8886;
1308.6000;0.6496;0.8743;
1308.9000;0.6512;0.8696;
1309.2000;0.6512;0.8767;
1309.5000;0.6520;0.8720;
1309.8000;0.6512;0.8601;
1310.1000;0.6528;0.8601;
1310.4000;0.6536;0.8625;
1310.7000;0.6536;0.8649;
1311.0000;0.6520;0.8554;
1311.3000;0.6528;0.8459;
1311.6000;0.6536;0.8483;
1311.9000;0.6602;0.8814;
1312.2000;0.6520;0.8672;
1312.5000;0.6528;0.8696;
1312.8000;0.6520;0.8696;
1313.1000;0.6512;0.8672;
1313.4000;0.6536;0.8696;
1313.7000;0.6577;0.8838;
1314.0000;0.6536;0.8767;
1314.3000;0.6528;0.8767;
1314.6000;0.6520;0.8791;
1314.9000;0.6520;0.8743;
1315.2000;0.6520;0.8791;
1315.5000;0.6545;0.8838;
1315.8000;0.6512;0.8862;
1316.1000;0.6479;0.8649;
1316.4000;0.6536;0.8767;
1316.7000;0.6520;0.8791;
1317.0000;0.6528;0.8862;
1317.3000;0.6545;0.8791;
1317.6000;0.6520;0.8720;
1317.9000;0.6520;0.8649;
1318.2000;0.6577;0.8814;
1318.5000;0.6528;0.8743;
1318.8000;0.6528;0.8791;
1319.1000;0.6520;0.8838;
1319.4000;0.6528;0.8814;
1319.7000;0.6528;0.8814;
1320.0000;0.6536;0.8743;
1320.3000;0.6512;0.8696;
1320.6000;0.6479;0.8601;
1320.9000;0.6520;0.8672;
1321.2000;0.6536;0.8601;
1321.5000;0.6545;0.8672;
1321.8000;0.6512;0.8767;
1322.1000;0.6471;0.8696;
1322.4000;0.6520;0.8767;
1322.7000;0.6496;0.8720;
1323.0000;0.6553;0.8767;
1323.3000;0.6545;0.8720;
1323.6000;0.6545;0.8720;
1323.9000;0.6536;0.8743;
1324.2000;0.6520;0.8720;
1324.5000;0.6545;0.8696;
1324.8000;0.6569;0.8791;
1325.1000;0.6536;0.8791;
1325.4000;0.6528;0.8838;
1325.7000;0.6528;0.8791;
1326.0000;0.6561;0.8862;
1326.3000;0.6528;0.8720;
1326.6000;0.6536;0.8767;
1326.9000;0.6520;0.8767;
1327.2000;0.6520;0.8767;
1327.5000;0.6528;0.8696;
1327.8000;0.6545;0.8743;
1328.1000;0.6528;0.8672;
1328.4000;0.6528;0.8720;
1328.7000;0.6536;0.8743;
1329.0000;0.6545;0.8672;
1329.3000;0.6561;0.8743;
1329.6000;0.6471;0.8601;
1329.9000;0.6504;0.8625;
1330.2000;0.6447;0.8506;
1330.5000;0.6496;0.8601;
1330.8000;0.6528;0.8601;
1331.1000;0.6553;0.8696;
1331.4000;0.6520;0.8672;
1331.7000;0.6512;0.8649;
1332.0000;0.6504;0.8530;
1332.3000;0.6536;0.8601;
1332.6000;0.6528;0.8578;
1332.9000;0.6528;0.8506;
1333.2000;0.6545;0.8601;
1333.5000;0.6528;0.8625;
1333.8000;0.6536;0.8649;
1334.1000;0.6545;0.8625;
1334.4000;0.6512;0.8554;
1334.7000;0.6488;0.8530;
1335.0000;0.6520;0.8578;
1335.3000;0.6512;0.8601;
1335.6000;0.6520;0.8672;
1335.9000;0.6553;0.8696;
1336.2000;0.6431;0.8435;
1336.5000;0.6520;0.8696;
1336.8000;0.6488;0.8578;
1337.1000;0.6520;0.8649;
1337.4000;0.6536;0.8720;
1337.7000;0.6545;0.8625;
1338.0000;0.6520;0.8483;
1338.3000;0.6520;0.8483;
1338.6000;0.6545;0.8506;
1338.9000;0.6536;0.8530;
1339.2000;0.6545;0.8554;
1339.5000;0.6545;0.8530;
1339.8000;0.6536;0.8506;
1340.1000;0.6545;0.8530;
1340.4000;0.6512;0.8554;
1340.7000;0.6528;0.8720;
1341.0000;0.6528;0.8743;
1341.3000;0.6528;0.8743;
1341.6000;0.6520;0.8743;
1341.9000;0.6520;0.8814;
1342.2000;0.6520;0.8743;
1342.5000;0.6512;0.8696;
1342.8000;0.6528;0.8649;
1343.1000;0.6528;0.8625;
1343.4000;0.6528;0.8649;
1343.7000;0.6520;0.8649;
1344.0000;0.6536;0.8672;
1344.3000;0.6536;0.8720;
1344.6000;0.6520;0.8649;
1344.9000;0.6512;0.8601;
1345.2000;0.6536;0.8554;
1345.5000;0.6561;0.8649;
1345.8000;0.6528;0.8578;
1346.1000;0.6569;0.8743;
1346.4000;0.6528;0.8578;
1346.7000;0.6520;0.8578;
1347.0000;0.6528;0.8601;
1347.3000;0.6536;0.8649;
1347.6000;0.6528;0.8625;
1347.9000;0.6504;0.8625;
1348.2000;0.6536;0.8649;
1348.5000;0.6528;0.8672;
1348.8000;0.6561;0.8767;
1349.1000;0.6528;0.8696;
1349.4000;0.6536;0.8767;
1349.7000;0.6520;0.8791;
1350.0000;0.6528;0.8838;
1350.3000;0.6479;0.8743;
1350.6000;0.6512;0.8838;
1350.9000;0.6536;0.8862;
1351.2000;0.6512;0.8814;
1351.5000;0.6528;0.8886;
1351.8000;0.6528;0.8838;
1352.1000;0.6528;0.8862;
1352.4000;0.6528;0.8886;
1352.7000;0.6520;0.8957;
1353.0000;0.6536;0.9004;
1353.3000;0.6528;0.8933;
1353.6000;0.6528;0.8909;
1353.9000;0.6536;0.8933;
1354.2000;0.6553;0.8957;
1354.5000;0.6545;0.8886;
1354.8000;0.6536;0.8886;
1355.1000;0.6512;0.8767;
1355.4000;0.6536;0.8862;
1355.7000;0.6528;0.8886;
1356.0000;0.6536;0.8862;
1356.3000;0.6536;0.8886;
1356.6000;0.6536;0.8838;
1356.9000;0.6512;0.8814;
1357.2000;0.6512;0.8791;
1357.5000;0.6610;0.8957;
1357.8000;0.6528;0.8672;
1358.1000;0.6512;0.8672;
1358.4000;0.6512;0.8743;
1358.7000;0.6545;0.8814;
1359.0000;0.6528;0.8791;
1359.3000;0.6545;0.8838;
1359.6000;0.6520;0.8862;
1359.9000;0.6512;0.8838;
1360.2000;0.6545;0.8933;
1360.5000;0.6512;0.8838;
1360.8000;0.6512;0.8814;
1361.1000;0.6520;0.8862;
1361.4000;0.6520;0.8862;
1361.7000;0.6520;0.8838;
1362.0000;0.6528;0.8814;
1362.3000;0.6520;0.8814;
1362.6000;0.6496;0.8791;
1362.9000;0.6512;0.8743;
1363.2000;0.6512;0.8696;
1363.5000;0.6512;0.8530;
1363.8000;0.6545;0.8649;
1364.1000;0.6528;0.8649;
1364.4000;0.6536;0.8696;
1364.7000;0.6512;0.8625;
1365.0000;0.6488;0.8578;
1365.3000;0.6496;0.8625;
1365.6000;0.6520;0.8767;
1365.9000;0.6553;0.8814;
1366.2000;0.6528;0.8743;
1366.5000;0.6520;0.8696;
1366.8000;0.6471;0.8625;
1367.1000;0.6536;0.8696;
1367.4000;0.6569;0.8696;
1367.7000;0.6528;0.8625;
1368.0000;0.6479;0.8601;
1368.3000;0.6504;0.8672;
1368.6000;0.6512;0.8649;
1368.9000;0.6504;0.8672;
1369.2000;0.6512;0.8767;
1369.5000;0.6528;0.8909;
1369.8000;0.6610;0.9075;
1370.1000;0.6585;0.8909;
1370.4000;0.6577;0.8862;
1370.7000;0.6528;0.8814;
1371.0000;0.6520;0.8814;
1371.3000;0.6528;0.8814;
1371.6000;0.6536;0.8909;
1371.9000;0.6528;0.8838;
1372.2000;0.6504;0.8862;
1372.5000;0.6528;0.8933;
1372.8000;0.6447;0.8720;
1373.1000;0.6561;0.8980;
1373.4000;0.6520;0.8886;
1373.7000;0.6536;0.8886;
1374.0000;0.6528;0.8814;
1374.3000;0.6536;0.8886;
1374.6000;0.6496;0.8743;
1374.9000;0.6528;0.8743;
1375.2000;0.6536;0.8767;
1375.5000;0.6528;0.8814;
1375.8000;0.6536;0.8886;
1376.1000;0.6528;0.8886;
1376.4000;0.6536;0.8814;
1376.7000;0.6512;0.8838;
1377.0000;0.6520;0.8838;
1377.3000;0.6536;0.8886;
1377.6000;0.6528;0.8743;
1377.9000;0.6512;0.8814;
1378.2000;0.6520;0.8838;
1378.5000;0.6520;0.8767;
1378.8000;0.6545;0.8767;
1379.1000;0.6536;0.8814;
1379.4000;0.6545;0.8767;
1379.7000;0.6536;0.8649;
1380.0000;0.6520;0.8601;
1380.3000;0.6512;0.8578;
1380.6000;0.6528;0.8601;
1380.9000;0.6536;0.8649;
1381.2000;0.6545;0.8649;
1381.5000;0.6528;0.8601;
1381.8000;0.6512;0.8506;
1382.1000;0.6569;0.8625;
1382.4000;0.6520;0.8530;
1382.7000;0.6528;0.8649;
1383.0000;0.6545;0.8791;
1383.3000;0.6512;0.8696;
1383.6000;0.6536;0.8767;
1383.9000;0.6520;0.8720;
1384.2000;0.6512;0.8696;
1384.5000;0.6536;0.8767;
1384.8000;0.6504;0.8554;
1385.1000;0.6545;0.8649;
1385.4000;0.6528;0.8672;
1385.7000;0.6528;0.8672;
1386.0000;0.6536;0.8767;
1386.3000;0.6545;0.8767;
1386.6000;0.6536;0.8791;
1386.9000;0.6447;0.8649;
1387.2000;0.6520;0.8767;
1387.5000;0.6504;0.8743;
1387.8000;0.6520;0.8791;
1388.1000;0.6528;0.8814;
1388.4000;0.6488;0.8649;
1388.7000;0.6520;0.8696;
1389.0000;0.6512;0.8696;
1389.3000;0.6512;0.8696;
1389.6000;0.6528;0.8649;
1389.9000;0.6520;0.8625;
1390.2000;0.6528;0.8625;
1390.5000;0.6528;0.8554;
1390.8000;0.6528;0.8483;
1391.1000;0.6528;0.8506;
1391.4000;0.6536;0.8530;
1391.7000;0.6520;0.8483;
1392.0000;0.6528;0.8435;
1392.3000;0.6520;0.8412;
1392.6000;0.6520;0.8506;
1392.9000;0.6520;0.8459;
1393.2000;0.6512;0.8506;
1393.5000;0.6528;0.8530;
1393.8000;0.6545;0.8554;
1394.1000;0.6536;0.8506;
1394.4000;0.6545;0.8483;
1394.7000;0.6536;0.8530;
1395.0000;0.6545;0.8578;
1395.3000;0.6545;0.8625;
1395.6000;0.6528;0.8554;
1395.9000;0.6528;0.8483;
1396.2000;0.6545;0.8506;
1396.5000;0.6528;0.8578;
1396.8000;0.6520;0.8601;
1397.1000;0.6512;0.8601;
1397.4000;0.6520;0.8696;
1397.7000;0.6520;0.8767;
1398.0000;0.6504;0.8743;
1398.3000;0.6488;0.8696;
1398.6000;0.6504;0.8720;
1398.9000;0.6520;0.8696;
1399.2000;0.6528;0.8601;
1399.5000;0.6536;0.8625;
1399.8000;0.6512;0.8672;
