time/ms;Fluo/V;P700 deltaI/I x10³;
-199.8000;1.0094;1.0141;
-199.5000;1.0085;1.0118;
-199.2000;1.0077;1.0070;
-198.9000;1.0077;1.0070;
-198.6000;1.0069;1.0141;
-198.3000;1.0094;1.0094;
-198.0000;1.0094;1.0070;
-197.7000;1.0094;1.0070;
-197.4000;1.0085;0.9976;
-197.1000;1.0085;0.9952;
-196.8000;1.0077;0.9999;
-196.5000;1.0077;1.0094;
-196.2000;1.0069;1.0023;
-195.9000;1.0077;1.0047;
-195.6000;1.0069;1.0023;
-195.3000;1.0134;1.0047;
-195.0000;1.0085;0.9904;
-194.7000;1.0085;1.0070;
-194.4000;1.0077;1.0141;
-194.1000;1.0085;1.0118;
-193.8000;1.0077;1.0047;
-193.5000;1.0077;1.0047;
-193.2000;1.0094;1.0141;
-192.9000;1.0102;1.0165;
-192.6000;1.0069;1.0165;
-192.3000;1.0077;1.0212;
-192.0000;1.0077;1.0189;
-191.7000;1.0077;1.0165;
-191.4000;1.0069;1.0165;
-191.1000;1.0069;1.0212;
-190.8000;1.0085;1.0260;
-190.5000;1.0069;1.0236;
-190.2000;1.0061;1.0212;
-189.9000;1.0061;1.0165;
-189.6000;1.0061;1.0165;
-189.3000;1.0061;1.0094;
-189.0000;1.0069;0.9976;
-188.7000;1.0094;0.9999;
-188.4000;1.0069;1.0023;
-188.1000;1.0061;1.0118;
-187.8000;1.0085;1.0047;
-187.5000;1.0077;1.0094;
-187.2000;1.0069;1.0047;
-186.9000;1.0134;1.0284;
-186.6000;1.0061;1.0118;
-186.3000;1.0077;1.0165;
-186.0000;1.0053;1.0141;
-185.7000;1.0053;1.0070;
-185.4000;1.0077;1.0141;
-185.1000;1.0061;1.0118;
-184.8000;1.0077;1.0070;
-184.5000;1.0069;1.0118;
-184.2000;1.0094;1.0141;
-183.9000;1.0094;1.0212;
-183.6000;1.0094;1.0284;
-183.3000;1.0077;1.0212;
-183.0000;1.0134;1.0307;
-182.7000;1.0102;1.0260;
-182.4000;1.0085;1.0331;
-182.1000;1.0069;1.0212;
-181.8000;1.0077;1.0236;
-181.5000;1.0077;1.0236;
-181.2000;1.0077;1.0212;
-180.9000;1.0085;1.0260;
-180.6000;1.0061;1.0260;
-180.3000;1.0061;1.0284;
-180.0000;1.0061;1.0284;
-179.7000;1.0094;1.0236;
-179.4000;1.0085;1.0236;
-179.1000;1.0069;1.0236;
-178.8000;1.0012;1.0070;
-178.5000;1.0085;1.0212;
-178.2000;1.0045;1.0189;
-177.9000;1.0085;1.0212;
-177.6000;1.0094;1.0307;
-177.3000;1.0085;1.0307;
-177.0000;1.0045;1.0094;
-176.7000;1.0077;1.0141;
-176.4000;1.0077;1.0165;
-176.1000;1.0085;1.0189;
-175.8000;1.0028;1.0070;
-175.5000;1.0077;1.0189;
-175.2000;1.0077;1.0189;
-174.9000;1.0085;1.0236;
-174.6000;0.9996;1.0023;
-174.3000;1.0069;1.0260;
-174.0000;1.0094;1.0355;
-173.7000;1.0077;1.0260;
-173.4000;1.0077;1.0284;
-173.1000;1.0085;1.0236;
-172.8000;1.0094;1.0165;
-172.5000;1.0094;1.0165;
-172.2000;1.0102;1.0165;
-171.9000;1.0069;1.0094;
-171.6000;1.0085;1.0141;
-171.3000;1.0085;1.0189;
-171.0000;1.0102;1.0307;
-170.7000;1.0069;1.0212;
-170.4000;1.0085;1.0260;
-170.1000;1.0077;1.0165;
-169.8000;1.0085;1.0189;
-169.5000;1.0085;1.0189;
-169.2000;1.0077;1.0118;
-168.9000;1.0085;1.0118;
-168.6000;1.0102;1.0189;
-168.3000;1.0085;1.0212;
-168.0000;1.0012;0.9999;
-167.7000;1.0085;1.0165;
-167.4000;1.0094;1.0141;
-167.1000;1.0077;1.0070;
-166.8000;1.0077;1.0023;
-166.5000;1.0085;1.0047;
-166.2000;1.0077;1.0023;
-165.9000;1.0077;1.0094;
-165.6000;1.0085;1.0141;
-165.3000;1.0077;1.0165;
-165.0000;1.0085;1.0118;
-164.7000;1.0069;1.0094;
-164.4000;1.0094;1.0141;
-164.1000;1.0085;1.0118;
-163.8000;1.0077;1.0070;
-163.5000;1.0094;1.0023;
-163.2000;1.0077;1.0070;
-162.9000;1.0061;1.0023;
-162.6000;1.0045;0.9976;
-162.3000;1.0094;0.9999;
-162.0000;1.0069;0.9999;
-161.7000;1.0004;0.9952;
-161.4000;1.0085;1.0118;
-161.1000;1.0045;1.0118;
-160.8000;1.0077;1.0141;
-160.5000;1.0085;1.0141;
-160.2000;1.0094;1.0094;
-159.9000;1.0028;0.9952;
-159.6000;1.0077;1.0070;
-159.3000;1.0077;1.0047;
-159.0000;1.0069;1.0047;
-158.7000;1.0085;1.0023;
-158.4000;1.0077;1.0070;
-158.1000;1.0077;1.0118;
-157.8000;1.0077;1.0189;
-157.5000;1.0069;1.0260;
-157.2000;1.0102;1.0331;
-156.9000;1.0085;1.0426;
-156.6000;1.0077;1.0402;
-156.3000;1.0094;1.0497;
-156.0000;1.0077;1.0473;
-155.7000;1.0077;1.0473;
-155.4000;1.0094;1.0473;
-155.1000;1.0069;1.0402;
-154.8000;1.0085;1.0307;
-154.5000;1.0094;1.0284;
-154.2000;1.0077;1.0236;
-153.9000;1.0077;1.0212;
-153.6000;1.0085;1.0260;
-153.3000;1.0085;1.0260;
-153.0000;1.0094;1.0236;
-152.7000;1.0061;1.0189;
-152.4000;0.9988;1.0070;
-152.1000;1.0077;1.0260;
-151.8000;1.0061;1.0260;
-151.5000;1.0053;1.0284;
-151.2000;1.0053;1.0355;
-150.9000;1.0045;1.0307;
-150.6000;1.0069;1.0426;
-150.3000;1.0020;1.0212;
-150.0000;1.0077;1.0402;
-149.7000;1.0053;1.0449;
-149.4000;1.0069;1.0449;
-149.1000;1.0159;1.0568;
-148.8000;1.0085;1.0378;
-148.5000;1.0094;1.0378;
-148.2000;1.0102;1.0307;
-147.9000;1.0167;1.0378;
-147.6000;1.0077;1.0141;
-147.3000;1.0069;1.0070;
-147.0000;1.0061;1.0047;
-146.7000;1.0094;1.0141;
-146.4000;1.0118;1.0165;
-146.1000;1.0077;1.0212;
-145.8000;1.0102;1.0260;
-145.5000;1.0085;1.0212;
-145.2000;1.0069;1.0165;
-144.9000;1.0061;1.0165;
-144.6000;1.0077;1.0165;
-144.3000;1.0085;1.0212;
-144.0000;1.0077;1.0165;
-143.7000;1.0085;1.0165;
-143.4000;1.0094;1.0118;
-143.1000;1.0061;1.0118;
-142.8000;1.0085;1.0236;
-142.5000;1.0077;1.0236;
-142.2000;1.0069;1.0378;
-141.9000;1.0077;1.0402;
-141.6000;1.0077;1.0426;
-141.3000;1.0077;1.0331;
-141.0000;1.0077;1.0402;
-140.7000;1.0085;1.0520;
-140.4000;1.0061;1.0497;
-140.1000;1.0069;1.0449;
-139.8000;1.0077;1.0449;
-139.5000;1.0085;1.0473;
-139.2000;1.0085;1.0402;
-138.9000;1.0094;1.0449;
-138.6000;1.0085;1.0520;
-138.3000;1.0061;1.0520;
-138.0000;1.0069;1.0592;
-137.7000;1.0085;1.0639;
-137.4000;1.0012;1.0355;
-137.1000;1.0151;1.0710;
-136.8000;1.0077;1.0639;
-136.5000;1.0077;1.0686;
-136.2000;1.0077;1.0663;
-135.9000;1.0077;1.0639;
-135.6000;1.0077;1.0663;
-135.3000;1.0069;1.0639;
-135.0000;1.0159;1.0781;
-134.7000;1.0077;1.0544;
-134.4000;1.0077;1.0449;
-134.1000;1.0085;1.0497;
-133.8000;1.0094;1.0449;
-133.5000;1.0077;1.0378;
-133.2000;1.0085;1.0402;
-132.9000;1.0020;1.0284;
-132.6000;1.0085;1.0378;
-132.3000;1.0102;1.0426;
-132.0000;1.0085;1.0331;
-131.7000;1.0094;1.0331;
-131.4000;1.0110;1.0355;
-131.1000;1.0085;1.0284;
-130.8000;1.0102;1.0236;
-130.5000;1.0094;1.0284;
-130.2000;1.0094;1.0284;
-129.9000;1.0077;1.0284;
-129.6000;0.9980;1.0094;
-129.3000;1.0085;1.0355;
-129.0000;1.0085;1.0331;
-128.7000;1.0085;1.0260;
-128.4000;0.9980;0.9999;
-128.1000;1.0077;1.0212;
-127.8000;1.0094;1.0260;
-127.5000;1.0094;1.0260;
-127.2000;1.0094;1.0284;
-126.9000;1.0077;1.0307;
-126.6000;1.0110;1.0402;
-126.3000;1.0085;1.0426;
-126.0000;1.0102;1.0473;
-125.7000;1.0151;1.0592;
-125.4000;1.0085;1.0355;
-125.1000;1.0077;1.0189;
-124.8000;1.0061;1.0094;
-124.5000;1.0069;1.0141;
-124.2000;1.0110;1.0212;
-123.9000;1.0004;1.0047;
-123.6000;1.0094;1.0118;
-123.3000;1.0102;1.0118;
-123.0000;1.0053;1.0118;
-122.7000;1.0085;1.0070;
-122.4000;1.0061;0.9976;
-122.1000;1.0077;0.9999;
-121.8000;1.0077;1.0023;
-121.5000;1.0094;1.0141;
-121.2000;1.0085;1.0070;
-120.9000;1.0094;1.0023;
-120.6000;0.9988;0.9762;
-120.3000;1.0094;1.0023;
-120.0000;1.0102;1.0070;
-119.7000;1.0077;1.0023;
-119.4000;1.0094;1.0070;
-119.1000;1.0061;1.0070;
-118.8000;1.0077;1.0118;
-118.5000;1.0094;1.0165;
-118.2000;1.0094;1.0141;
-117.9000;1.0061;1.0094;
-117.6000;1.0118;1.0260;
-117.3000;1.0077;1.0189;
-117.0000;1.0069;1.0165;
-116.7000;1.0053;1.0070;
-116.4000;1.0094;1.0141;
-116.1000;1.0077;1.0070;
-115.8000;1.0069;1.0023;
-115.5000;1.0077;1.0070;
-115.2000;1.0069;1.0094;
-114.9000;1.0085;1.0141;
-114.6000;1.0053;1.0047;
-114.3000;1.0061;1.0141;
-114.0000;1.0053;1.0094;
-113.7000;1.0077;1.0189;
-113.4000;1.0110;1.0236;
-113.1000;1.0069;1.0141;
-112.8000;1.0077;1.0094;
-112.5000;1.0061;1.0047;
-112.2000;1.0061;1.0094;
-111.9000;1.0077;1.0212;
-111.6000;1.0077;1.0236;
-111.3000;1.0094;1.0165;
-111.0000;1.0045;1.0094;
-110.7000;1.0199;1.0426;
-110.4000;1.0077;1.0189;
-110.1000;1.0094;1.0212;
-109.8000;1.0053;1.0189;
-109.5000;1.0077;1.0236;
-109.2000;1.0053;1.0141;
-108.9000;1.0069;1.0094;
-108.6000;1.0126;1.0260;
-108.3000;1.0134;1.0236;
-108.0000;1.0045;1.0118;
-107.7000;1.0045;1.0165;
-107.4000;1.0061;1.0189;
-107.1000;1.0069;1.0260;
-106.8000;1.0069;1.0212;
-106.5000;1.0053;1.0141;
-106.2000;1.0110;1.0236;
-105.9000;1.0102;1.0070;
-105.6000;0.9996;0.9833;
-105.3000;1.0126;1.0141;
-105.0000;1.0094;1.0070;
-104.7000;1.0069;0.9952;
-104.4000;1.0077;0.9928;
-104.1000;1.0085;0.9999;
-103.8000;1.0077;0.9976;
-103.5000;1.0077;1.0023;
-103.2000;1.0053;0.9999;
-102.9000;1.0077;1.0070;
-102.6000;1.0085;1.0141;
-102.3000;1.0085;1.0118;
-102.0000;1.0142;1.0236;
-101.7000;1.0102;1.0165;
-101.4000;1.0151;1.0378;
-101.1000;1.0077;1.0141;
-100.8000;1.0126;1.0355;
-100.5000;1.0069;1.0212;
-100.2000;1.0085;1.0212;
-99.9000;1.0094;1.0236;
-99.6000;1.0102;1.0165;
-99.3000;1.0094;1.0189;
-99.0000;1.0102;1.0189;
-98.7000;1.0077;1.0212;
-98.4000;1.0069;1.0284;
-98.1000;1.0077;1.0378;
-97.8000;1.0126;1.0473;
-97.5000;1.0094;1.0355;
-97.2000;1.0077;1.0260;
-96.9000;1.0134;1.0331;
-96.6000;1.0167;1.0402;
-96.3000;1.0077;1.0165;
-96.0000;1.0094;1.0141;
-95.7000;1.0085;1.0165;
-95.4000;1.0126;1.0212;
-95.1000;1.0085;1.0047;
-94.8000;1.0102;0.9928;
-94.5000;1.0110;1.0023;
-94.2000;1.0094;0.9952;
-93.9000;1.0085;0.9928;
-93.6000;1.0118;0.9999;
-93.3000;1.0094;0.9881;
-93.0000;1.0085;0.9881;
-92.7000;1.0085;0.9928;
-92.4000;1.0061;0.9952;
-92.1000;1.0085;0.9952;
-91.8000;1.0077;0.9952;
-91.5000;1.0085;1.0070;
-91.2000;1.0085;1.0141;
-90.9000;1.0069;1.0070;
-90.6000;1.0102;1.0141;
-90.3000;1.0085;1.0094;
-90.0000;1.0061;1.0094;
-89.7000;1.0061;1.0118;
-89.4000;1.0085;1.0141;
-89.1000;1.0061;1.0094;
-88.8000;1.0085;1.0212;
-88.5000;1.0069;1.0212;
-88.2000;1.0077;1.0331;
-87.9000;1.0085;1.0331;
-87.6000;1.0102;1.0331;
-87.3000;1.0045;1.0189;
-87.0000;1.0085;1.0236;
-86.7000;1.0077;1.0260;
-86.4000;1.0085;1.0331;
-86.1000;1.0077;1.0378;
-85.8000;1.0061;1.0212;
-85.5000;1.0053;1.0141;
-85.2000;1.0069;1.0165;
-84.9000;1.0053;1.0189;
-84.6000;1.0077;1.0260;
-84.3000;1.0102;1.0284;
-84.0000;1.0053;1.0189;
-83.7000;1.0077;1.0189;
-83.4000;1.0053;1.0070;
-83.1000;1.0077;1.0141;
-82.8000;1.0085;1.0236;
-82.5000;1.0045;0.9999;
-82.2000;1.0110;1.0047;
-81.9000;1.0085;1.0047;
-81.6000;1.0069;1.0141;
-81.3000;1.0126;1.0331;
-81.0000;1.0077;1.0212;
-80.7000;1.0069;1.0165;
-80.4000;1.0077;1.0165;
-80.1000;1.0094;1.0212;
-79.8000;1.0094;1.0141;
-79.5000;1.0102;1.0212;
-79.2000;1.0085;1.0236;
-78.9000;1.0094;1.0212;
-78.6000;1.0085;1.0141;
-78.3000;1.0085;1.0118;
-78.0000;1.0077;1.0094;
-77.7000;1.0069;1.0023;
-77.4000;1.0094;1.0070;
-77.1000;1.0053;0.9999;
-76.8000;1.0085;1.0070;
-76.5000;1.0085;0.9976;
-76.2000;1.0085;0.9904;
-75.9000;1.0077;0.9904;
-75.6000;1.0085;0.9952;
-75.3000;1.0085;0.9833;
-75.0000;1.0077;0.9786;
-74.7000;1.0094;0.9762;
-74.4000;1.0085;0.9810;
-74.1000;1.0094;0.9857;
-73.8000;1.0069;0.9786;
-73.5000;1.0085;0.9881;
-73.2000;1.0085;0.9786;
-72.9000;1.0077;0.9881;
-72.6000;1.0077;0.9928;
-72.3000;1.0053;1.0023;
-72.0000;1.0061;1.0094;
-71.7000;1.0077;1.0141;
-71.4000;1.0077;1.0070;
-71.1000;1.0077;1.0141;
-70.8000;1.0077;1.0070;
-70.5000;1.0085;1.0070;
-70.2000;1.0069;1.0023;
-69.9000;1.0077;1.0023;
-69.6000;1.0077;1.0047;
-69.3000;1.0094;1.0070;
-69.0000;1.0142;1.0165;
-68.7000;1.0085;1.0047;
-68.4000;1.0069;1.0094;
-68.1000;1.0142;1.0284;
-67.8000;1.0069;1.0094;
-67.5000;1.0069;1.0094;
-67.2000;1.0077;1.0118;
-66.9000;1.0077;1.0118;
-66.6000;1.0102;1.0070;
-66.3000;1.0094;1.0023;
-66.0000;1.0085;1.0094;
-65.7000;1.0085;1.0070;
-65.4000;1.0069;1.0023;
-65.1000;1.0151;1.0236;
-64.8000;1.0085;1.0118;
-64.5000;1.0085;1.0094;
-64.2000;1.0102;1.0141;
-63.9000;1.0110;1.0189;
-63.6000;1.0094;1.0165;
-63.3000;1.0069;1.0189;
-63.0000;1.0077;1.0236;
-62.7000;1.0094;1.0236;
-62.4000;1.0118;1.0260;
-62.1000;1.0085;1.0212;
-61.8000;1.0094;1.0165;
-61.5000;1.0094;1.0165;
-61.2000;1.0126;1.0236;
-60.9000;1.0085;1.0141;
-60.6000;1.0110;1.0236;
-60.3000;1.0053;1.0070;
-60.0000;1.0183;1.0355;
-59.7000;1.0085;1.0236;
-59.4000;1.0077;1.0165;
-59.1000;1.0069;1.0165;
-58.8000;1.0077;1.0212;
-58.5000;1.0069;1.0165;
-58.2000;1.0118;1.0260;
-57.9000;1.0061;1.0141;
-57.6000;1.0077;1.0212;
-57.3000;1.0037;1.0212;
-57.0000;1.0094;1.0284;
-56.7000;1.0077;1.0307;
-56.4000;1.0085;1.0307;
-56.1000;1.0110;1.0260;
-55.8000;1.0085;1.0189;
-55.5000;1.0094;1.0141;
-55.2000;1.0094;1.0094;
-54.9000;1.0094;1.0118;
-54.6000;1.0085;1.0118;
-54.3000;1.0061;0.9999;
-54.0000;1.0061;1.0023;
-53.7000;1.0077;1.0070;
-53.4000;1.0077;1.0047;
-53.1000;1.0077;1.0189;
-52.8000;1.0069;1.0141;
-52.5000;1.0077;1.0212;
-52.2000;1.0077;1.0165;
-51.9000;1.0085;1.0212;
-51.6000;1.0077;1.0236;
-51.3000;1.0061;1.0165;
-51.0000;1.0077;1.0165;
-50.7000;1.0069;1.0212;
-50.4000;1.0077;1.0212;
-50.1000;1.0077;1.0189;
-49.8000;1.0077;1.0141;
-49.5000;1.0061;1.0141;
-49.2000;1.0061;1.0165;
-48.9000;1.0069;1.0189;
-48.6000;1.0085;1.0141;
-48.3000;1.0102;1.0141;
-48.0000;1.0085;1.0118;
-47.7000;1.0061;1.0070;
-47.4000;1.0061;1.0023;
-47.1000;1.0069;1.0070;
-46.8000;1.0069;1.0094;
-46.5000;1.0077;0.9976;
-46.2000;1.0053;0.9952;
-45.9000;1.0069;0.9999;
-45.6000;1.0094;1.0070;
-45.3000;1.0085;0.9928;
-45.0000;1.0118;0.9952;
-44.7000;1.0085;0.9881;
-44.4000;1.0077;0.9833;
-44.1000;1.0118;0.9976;
-43.8000;1.0061;0.9928;
-43.5000;1.0077;1.0047;
-43.2000;1.0069;1.0047;
-42.9000;1.0020;0.9881;
-42.6000;1.0094;1.0070;
-42.3000;1.0053;1.0070;
-42.0000;1.0134;1.0212;
-41.7000;1.0085;1.0118;
-41.4000;1.0069;1.0189;
-41.1000;1.0094;1.0236;
-40.8000;1.0094;1.0212;
-40.5000;1.0102;1.0260;
-40.2000;1.0094;1.0236;
-39.9000;1.0061;1.0141;
-39.6000;1.0094;1.0165;
-39.3000;1.0077;1.0212;
-39.0000;1.0061;1.0141;
-38.7000;1.0077;1.0141;
-38.4000;1.0069;1.0047;
-38.1000;1.0069;0.9952;
-37.8000;1.0077;0.9976;
-37.5000;1.0094;0.9999;
-37.2000;1.0069;0.9881;
-36.9000;1.0085;0.9904;
-36.6000;1.0094;0.9976;
-36.3000;1.0069;0.9904;
-36.0000;1.0077;0.9833;
-35.7000;1.0085;0.9833;
-35.4000;1.0085;0.9810;
-35.1000;1.0077;0.9810;
-34.8000;1.0077;0.9833;
-34.5000;1.0069;0.9928;
-34.2000;1.0085;0.9952;
-33.9000;1.0069;0.9928;
-33.6000;1.0061;0.9904;
-33.3000;1.0069;0.9999;
-33.0000;1.0069;0.9999;
-32.7000;1.0061;0.9976;
-32.4000;1.0045;0.9881;
-32.1000;1.0077;0.9904;
-31.8000;1.0069;0.9928;
-31.5000;1.0077;0.9952;
-31.2000;1.0069;0.9904;
-30.9000;1.0077;0.9881;
-30.6000;1.0094;1.0023;
-30.3000;1.0077;1.0070;
-30.0000;1.0069;1.0047;
-29.7000;1.0077;0.9999;
-29.4000;1.0102;1.0047;
-29.1000;1.0085;1.0047;
-28.8000;1.0085;1.0023;
-28.5000;1.0077;0.9999;
-28.2000;1.0004;0.9833;
-27.9000;1.0085;1.0023;
-27.6000;1.0061;1.0047;
-27.3000;1.0077;1.0023;
-27.0000;1.0069;0.9928;
-26.7000;1.0077;0.9928;
-26.4000;1.0077;0.9904;
-26.1000;1.0061;0.9976;
-25.8000;1.0077;1.0023;
-25.5000;1.0085;1.0047;
-25.2000;1.0077;1.0070;
-24.9000;1.0085;1.0047;
-24.6000;1.0085;1.0047;
-24.3000;1.0085;0.9999;
-24.0000;1.0094;0.9999;
-23.7000;1.0061;0.9952;
-23.4000;1.0004;0.9786;
-23.1000;1.0061;0.9952;
-22.8000;1.0110;1.0047;
-22.5000;1.0069;0.9999;
-22.2000;1.0094;1.0094;
-21.9000;1.0053;1.0118;
-21.6000;1.0085;1.0236;
-21.3000;1.0077;1.0284;
-21.0000;1.0069;1.0284;
-20.7000;1.0077;1.0212;
-20.4000;1.0102;1.0212;
-20.1000;1.0077;1.0094;
-19.8000;1.0053;1.0023;
-19.5000;1.0061;0.9928;
-19.2000;1.0069;1.0023;
-18.9000;1.0061;1.0047;
-18.6000;1.0061;1.0023;
-18.3000;1.0077;0.9928;
-18.0000;1.0102;0.9952;
-17.7000;1.0061;0.9976;
-17.4000;1.0085;0.9976;
-17.1000;1.0061;0.9952;
-16.8000;1.0126;1.0236;
-16.5000;1.0085;1.0141;
-16.2000;1.0085;1.0165;
-15.9000;1.0061;1.0118;
-15.6000;1.0077;1.0118;
-15.3000;1.0085;1.0070;
-15.0000;1.0053;0.9999;
-14.7000;1.0085;1.0023;
-14.4000;1.0061;0.9810;
-14.1000;1.0077;0.9904;
-13.8000;1.0069;0.9881;
-13.5000;1.0085;0.9928;
-13.2000;1.0085;0.9928;
-12.9000;1.0077;0.9904;
-12.6000;1.0110;0.9999;
-12.3000;1.0012;0.9786;
-12.0000;1.0069;0.9952;
-11.7000;1.0094;0.9952;
-11.4000;1.0061;0.9881;
-11.1000;1.0069;0.9976;
-10.8000;1.0053;0.9928;
-10.5000;1.0061;0.9976;
-10.2000;1.0053;0.9999;
-9.9000;1.0053;0.9976;
-9.6000;1.0004;0.9881;
-9.3000;1.0061;1.0023;
-9.0000;1.0077;0.9952;
-8.7000;1.0069;0.9833;
-8.4000;1.0085;0.9881;
-8.1000;1.0077;0.9881;
-7.8000;1.0094;0.9976;
-7.5000;1.0077;0.9881;
-7.2000;1.0094;0.9857;
-6.9000;1.0085;0.9857;
-6.6000;1.0069;0.9857;
-6.3000;1.0069;0.9833;
-6.0000;1.0094;0.9928;
-5.7000;0.9980;0.9620;
-5.4000;1.0094;0.9928;
-5.1000;1.0094;0.9952;
-4.8000;1.0232;1.0307;
-4.5000;1.0077;0.9952;
-4.2000;1.0053;0.9857;
-3.9000;1.0085;0.9976;
-3.6000;1.0151;1.0141;
-3.3000;1.0134;1.0023;
-3.0000;1.0085;0.9904;
-2.7000;1.0077;0.9904;
-2.4000;1.0102;0.9952;
-2.1000;1.0094;0.9976;
-1.8000;1.0094;1.0047;
-1.5000;1.0118;1.0094;
-1.2000;1.0102;1.0094;
-0.9000;1.0094;1.0023;
-0.6000;1.0069;0.9881;
-0.3000;1.0085;0.9881;
0.0000;1.0085;0.9881;
0.3000;1.0248;0.9596;
0.6000;1.0484;1.0047;
0.9000;1.0663;1.0449;
1.2000;1.0826;1.0829;
1.5000;1.0940;1.1137;
1.8000;1.1046;1.1350;
2.1000;1.1119;1.1610;
2.4000;1.1144;1.1776;
2.7000;1.1274;1.2037;
3.0000;1.1347;1.2250;
3.3000;1.1363;1.2369;
3.6000;1.1477;1.2558;
3.9000;1.1429;1.2487;
4.2000;1.1461;1.2748;
4.5000;1.1494;1.2771;
4.8000;1.1518;1.2819;
5.1000;1.1551;1.2937;
5.4000;1.1608;1.2914;
5.7000;1.1608;1.2890;
6.0000;1.1624;1.2985;
6.3000;1.1665;1.2937;
6.6000;1.1665;1.2937;
6.9000;1.1689;1.2937;
7.2000;1.1713;1.2937;
7.5000;1.1730;1.2961;
7.8000;1.1738;1.2985;
8.1000;1.1770;1.3056;
8.4000;1.1787;1.3008;
8.7000;1.1795;1.3056;
9.0000;1.1811;1.3080;
9.3000;1.1844;1.3103;
9.6000;1.1819;1.3080;
9.9000;1.1836;1.3151;
10.2000;1.1836;1.3127;
10.5000;1.1852;1.3032;
10.8000;1.1925;1.3151;
11.1000;1.1876;1.3008;
11.4000;1.1884;1.3008;
11.7000;1.1909;1.2937;
12.0000;1.1901;1.2866;
12.3000;1.1901;1.2890;
12.6000;1.1950;1.2961;
12.9000;1.1941;1.2937;
13.2000;1.1925;1.2937;
13.5000;1.1941;1.2985;
13.8000;1.1998;1.3174;
14.1000;1.1974;1.3103;
14.4000;1.1982;1.3174;
14.7000;1.1990;1.3198;
15.0000;1.1974;1.3127;
15.3000;1.1966;1.2985;
15.6000;1.1990;1.3032;
15.9000;1.2007;1.3032;
16.2000;1.2031;1.3174;
16.5000;1.2015;1.3080;
16.8000;1.1974;1.2914;
17.1000;1.2031;1.3080;
17.4000;1.2023;1.3032;
17.7000;1.2047;1.3056;
18.0000;1.2039;1.3056;
18.3000;1.2047;1.3151;
18.6000;1.2055;1.3056;
18.9000;1.2039;1.3080;
19.2000;1.2015;1.2985;
19.5000;1.2080;1.3127;
19.8000;1.2063;1.3151;
20.1000;1.2080;1.3127;
20.4000;1.2039;1.2961;
20.7000;1.2080;1.3080;
21.0000;1.2080;1.3127;
21.3000;1.2080;1.3198;
21.6000;1.2088;1.3316;
21.9000;1.2088;1.3316;
22.2000;1.2080;1.3340;
22.5000;1.2104;1.3435;
22.8000;1.2096;1.3388;
23.1000;1.2104;1.3459;
23.4000;1.2104;1.3435;
23.7000;1.2080;1.3435;
24.0000;1.2112;1.3435;
24.3000;1.2112;1.3388;
24.6000;1.2137;1.3340;
24.9000;1.2120;1.3269;
25.2000;1.2129;1.3269;
25.5000;1.2137;1.3293;
25.8000;1.2104;1.3151;
26.1000;1.2153;1.3127;
26.4000;1.2104;1.2937;
26.7000;1.2137;1.2914;
27.0000;1.2104;1.2771;
27.3000;1.2137;1.2866;
27.6000;1.2137;1.2937;
27.9000;1.2129;1.2890;
28.2000;1.2169;1.2937;
28.5000;1.2161;1.2961;
28.8000;1.2145;1.2985;
29.1000;1.2145;1.2937;
29.4000;1.2161;1.2937;
29.7000;1.2186;1.3103;
30.0000;1.2129;1.3080;
30.3000;1.2145;1.3103;
30.6000;1.2153;1.3056;
30.9000;1.2169;1.3032;
31.2000;1.2153;1.2961;
31.5000;1.2145;1.3008;
31.8000;1.2169;1.3032;
32.1000;1.2153;1.3080;
32.4000;1.2161;1.3127;
32.7000;1.2161;1.3127;
33.0000;1.2186;1.3174;
33.3000;1.2186;1.3222;
33.6000;1.2161;1.3222;
33.9000;1.2120;1.3151;
34.2000;1.2177;1.3269;
34.5000;1.2202;1.3269;
34.8000;1.2259;1.3459;
35.1000;1.2177;1.3222;
35.4000;1.2194;1.3127;
35.7000;1.2169;1.3174;
36.0000;1.2186;1.3245;
36.3000;1.2177;1.3222;
36.6000;1.2177;1.3293;
36.9000;1.2145;1.3316;
37.2000;1.2186;1.3435;
37.5000;1.2194;1.3411;
37.8000;1.2169;1.3364;
38.1000;1.2177;1.3388;
38.4000;1.2161;1.3388;
38.7000;1.2177;1.3388;
39.0000;1.2186;1.3411;
39.3000;1.2161;1.3316;
39.6000;1.2202;1.3340;
39.9000;1.2202;1.3316;
40.2000;1.2177;1.3293;
40.5000;1.2186;1.3293;
40.8000;1.2194;1.3340;
41.1000;1.2210;1.3293;
41.4000;1.2194;1.3316;
41.7000;1.2186;1.3198;
42.0000;1.2202;1.3245;
42.3000;1.2202;1.3340;
42.6000;1.2202;1.3293;
42.9000;1.2186;1.3198;
43.2000;1.2194;1.3151;
43.5000;1.2186;1.3151;
43.8000;1.2210;1.3222;
44.1000;1.2186;1.3198;
44.4000;1.2177;1.3222;
44.7000;1.2194;1.3245;
45.0000;1.2169;1.3174;
45.3000;1.2177;1.3269;
45.6000;1.2194;1.3198;
45.9000;1.2218;1.3245;
46.2000;1.2161;1.3127;
46.5000;1.2177;1.3151;
46.8000;1.2194;1.3151;
47.1000;1.2186;1.3151;
47.4000;1.2251;1.3269;
47.7000;1.2202;1.3198;
48.0000;1.2210;1.3245;
48.3000;1.2194;1.3293;
48.6000;1.2137;1.3198;
48.9000;1.2210;1.3388;
49.2000;1.2202;1.3340;
49.5000;1.2194;1.3269;
49.8000;1.2186;1.3316;
50.1000;1.2161;1.3198;
50.4000;1.2186;1.3222;
50.7000;1.2194;1.3151;
51.0000;1.2267;1.3293;
51.3000;1.2210;1.3127;
51.6000;1.2194;1.3056;
51.9000;1.2202;1.3103;
52.2000;1.2186;1.2914;
52.5000;1.2202;1.2961;
52.8000;1.2218;1.3008;
53.1000;1.2194;1.2937;
53.4000;1.2210;1.3056;
53.7000;1.2210;1.3056;
54.0000;1.2226;1.3127;
54.3000;1.2210;1.3127;
54.6000;1.2218;1.3103;
54.9000;1.2218;1.3032;
55.2000;1.2226;1.3056;
55.5000;1.2210;1.3151;
55.8000;1.2226;1.3174;
56.1000;1.2218;1.3222;
56.4000;1.2218;1.3269;
56.7000;1.2169;1.3174;
57.0000;1.2218;1.3174;
57.3000;1.2218;1.3174;
57.6000;1.2218;1.3293;
57.9000;1.2202;1.3198;
58.2000;1.2194;1.3174;
58.5000;1.2202;1.3151;
58.8000;1.2243;1.3245;
59.1000;1.2218;1.3222;
59.4000;1.2210;1.3222;
59.7000;1.2234;1.3269;
60.0000;1.2202;1.3340;
60.3000;1.2218;1.3411;
60.6000;1.2210;1.3293;
60.9000;1.2186;1.3245;
61.2000;1.2194;1.3364;
61.5000;1.2210;1.3388;
61.8000;1.2186;1.3340;
62.1000;1.2202;1.3340;
62.4000;1.2194;1.3293;
62.7000;1.2243;1.3388;
63.0000;1.2226;1.3222;
63.3000;1.2243;1.3245;
63.6000;1.2210;1.3151;
63.9000;1.2218;1.3174;
64.2000;1.2210;1.3174;
64.5000;1.2210;1.3222;
64.8000;1.2161;1.3056;
65.1000;1.2218;1.3174;
65.4000;1.2202;1.3103;
65.7000;1.2202;1.3032;
66.0000;1.2210;1.3080;
66.3000;1.2161;1.3032;
66.6000;1.2210;1.3174;
66.9000;1.2226;1.3245;
67.2000;1.2194;1.3174;
67.5000;1.2169;1.3127;
67.8000;1.2218;1.3222;
68.1000;1.2210;1.3198;
68.4000;1.2202;1.3222;
68.7000;1.2218;1.3340;
69.0000;1.2226;1.3411;
69.3000;1.2202;1.3364;
69.6000;1.2226;1.3411;
69.9000;1.2177;1.3269;
70.2000;1.2218;1.3245;
70.5000;1.2226;1.3269;
70.8000;1.2218;1.3222;
71.1000;1.2210;1.3151;
71.4000;1.2210;1.3151;
71.7000;1.2218;1.3103;
72.0000;1.2316;1.3198;
72.3000;1.2202;1.2914;
72.6000;1.2210;1.2914;
72.9000;1.2169;1.2890;
73.2000;1.2226;1.3103;
73.5000;1.2226;1.3080;
73.8000;1.2210;1.3056;
74.1000;1.2226;1.3103;
74.4000;1.2259;1.3127;
74.7000;1.2194;1.3103;
75.0000;1.2218;1.3103;
75.3000;1.2210;1.3032;
75.6000;1.2234;1.3080;
75.9000;1.2218;1.3151;
76.2000;1.2210;1.3127;
76.5000;1.2226;1.3127;
76.8000;1.2226;1.3127;
77.1000;1.2218;1.3174;
77.4000;1.2210;1.3198;
77.7000;1.2202;1.3151;
78.0000;1.2226;1.3056;
78.3000;1.2243;1.3008;
78.6000;1.2243;1.3056;
78.9000;1.2226;1.3080;
79.2000;1.2234;1.3080;
79.5000;1.2226;1.3056;
79.8000;1.2218;1.3032;
80.1000;1.2210;1.3056;
80.4000;1.2218;1.3080;
80.7000;1.2210;1.3127;
81.0000;1.2226;1.3174;
81.3000;1.2202;1.3222;
81.6000;1.2243;1.3293;
81.9000;1.2202;1.3198;
82.2000;1.2202;1.3174;
82.5000;1.2226;1.3222;
82.8000;1.2177;1.3151;
83.1000;1.2226;1.3245;
83.4000;1.2243;1.3222;
83.7000;1.2202;1.3198;
84.0000;1.2210;1.3174;
84.3000;1.2210;1.3151;
84.6000;1.2226;1.3293;
84.9000;1.2218;1.3222;
85.2000;1.2243;1.3293;
85.5000;1.2218;1.3269;
85.8000;1.2234;1.3340;
86.1000;1.2210;1.3245;
86.4000;1.2202;1.3127;
86.7000;1.2210;1.3198;
87.0000;1.2226;1.3222;
87.3000;1.2210;1.3198;
87.6000;1.2186;1.3008;
87.9000;1.2210;1.3056;
88.2000;1.2202;1.3032;
88.5000;1.2210;1.2961;
88.8000;1.2210;1.2937;
89.1000;1.2218;1.3008;
89.4000;1.2226;1.3056;
89.7000;1.2161;1.2914;
90.0000;1.2218;1.3056;
90.3000;1.2218;1.3103;
90.6000;1.2210;1.3032;
90.9000;1.2218;1.3127;
91.2000;1.2218;1.3127;
91.5000;1.2218;1.3032;
91.8000;1.2218;1.3080;
92.1000;1.2234;1.3080;
92.4000;1.2218;1.3056;
92.7000;1.2218;1.3032;
93.0000;1.2210;1.3056;
93.3000;1.2259;1.3174;
93.6000;1.2218;1.3127;
93.9000;1.2202;1.3174;
94.2000;1.2161;1.3032;
94.5000;1.2226;1.3080;
94.8000;1.2234;1.3103;
95.1000;1.2218;1.3127;
95.4000;1.2210;1.3198;
95.7000;1.2202;1.3174;
96.0000;1.2202;1.3127;
96.3000;1.2234;1.3151;
96.6000;1.2226;1.3103;
96.9000;1.2226;1.3174;
97.2000;1.2259;1.3222;
97.5000;1.2210;1.3080;
97.8000;1.2226;1.3151;
98.1000;1.2218;1.3127;
98.4000;1.2226;1.3222;
98.7000;1.2243;1.3174;
99.0000;1.2218;1.3174;
99.3000;1.2218;1.3245;
99.6000;1.2210;1.3174;
99.9000;1.2202;1.3174;
100.2000;1.2194;1.3174;
100.5000;1.2210;1.3127;
100.8000;1.2218;1.3103;
101.1000;1.2210;1.2985;
101.4000;1.2202;1.2985;
101.7000;1.2210;1.2985;
102.0000;1.2161;1.2961;
102.3000;1.2210;1.3080;
102.6000;1.2210;1.3008;
102.9000;1.2194;1.2914;
103.2000;1.2218;1.2937;
103.5000;1.2210;1.2937;
103.8000;1.2218;1.2961;
104.1000;1.2194;1.2961;
104.4000;1.2202;1.3032;
104.7000;1.2226;1.3032;
105.0000;1.2210;1.3056;
105.3000;1.2218;1.3032;
105.6000;1.2324;1.3269;
105.9000;1.2218;1.3080;
106.2000;1.2202;1.3032;
106.5000;1.2210;1.3056;
106.8000;1.2243;1.3151;
107.1000;1.2194;1.3056;
107.4000;1.2210;1.3151;
107.7000;1.2202;1.3127;
108.0000;1.2202;1.3127;
108.3000;1.2186;1.3080;
108.6000;1.2202;1.3151;
108.9000;1.2145;1.3056;
109.2000;1.2202;1.3127;
109.5000;1.2259;1.3269;
109.8000;1.2202;1.3103;
110.1000;1.2202;1.3008;
110.4000;1.2169;1.2914;
110.7000;1.2194;1.2890;
111.0000;1.2202;1.2961;
111.3000;1.2210;1.2914;
111.6000;1.2210;1.2866;
111.9000;1.2210;1.2843;
112.2000;1.2210;1.2866;
112.5000;1.2210;1.2866;
112.8000;1.2210;1.2866;
113.1000;1.2218;1.2866;
113.4000;1.2210;1.2748;
113.7000;1.2218;1.2843;
114.0000;1.2226;1.2985;
114.3000;1.2234;1.3008;
114.6000;1.2210;1.2937;
114.9000;1.2218;1.2961;
115.2000;1.2226;1.2961;
115.5000;1.2226;1.2866;
115.8000;1.2210;1.2985;
116.1000;1.2202;1.2819;
116.4000;1.2259;1.2914;
116.7000;1.2218;1.2890;
117.0000;1.2210;1.2937;
117.3000;1.2202;1.2985;
117.6000;1.2210;1.3056;
117.9000;1.2202;1.2985;
118.2000;1.2210;1.2961;
118.5000;1.2186;1.3008;
118.8000;1.2210;1.2985;
119.1000;1.2210;1.2914;
119.4000;1.2120;1.2677;
119.7000;1.2210;1.2985;
120.0000;1.2210;1.2961;
120.3000;1.2202;1.2985;
120.6000;1.2202;1.3032;
120.9000;1.2202;1.3103;
121.2000;1.2194;1.3056;
121.5000;1.2169;1.2985;
121.8000;1.2218;1.3080;
122.1000;1.2169;1.3008;
122.4000;1.2202;1.3056;
122.7000;1.2153;1.3056;
123.0000;1.2210;1.3080;
123.3000;1.2194;1.3032;
123.6000;1.2202;1.3008;
123.9000;1.2202;1.3056;
124.2000;1.2218;1.3103;
124.5000;1.2161;1.3080;
124.8000;1.2104;1.2866;
125.1000;1.2210;1.3032;
125.4000;1.2194;1.2985;
125.7000;1.2194;1.2961;
126.0000;1.2210;1.2985;
126.3000;1.2194;1.2937;
126.6000;1.2234;1.2985;
126.9000;1.2194;1.2843;
127.2000;1.2202;1.2843;
127.5000;1.2210;1.2890;
127.8000;1.2202;1.2843;
128.1000;1.2194;1.2795;
128.4000;1.2194;1.2914;
128.7000;1.2267;1.3127;
129.0000;1.2194;1.3032;
129.3000;1.2194;1.3103;
129.6000;1.2153;1.2890;
129.9000;1.2202;1.3008;
130.2000;1.2194;1.2985;
130.5000;1.2202;1.3008;
130.8000;1.2169;1.3008;
131.1000;1.2202;1.3008;
131.4000;1.2194;1.3056;
131.7000;1.2186;1.3103;
132.0000;1.2202;1.3103;
132.3000;1.2210;1.3127;
132.6000;1.2194;1.3056;
132.9000;1.2202;1.3103;
133.2000;1.2218;1.3174;
133.5000;1.2202;1.3174;
133.8000;1.2210;1.3198;
134.1000;1.2218;1.3151;
134.4000;1.2210;1.3174;
134.7000;1.2210;1.3198;
135.0000;1.2210;1.3103;
135.3000;1.2194;1.3032;
135.6000;1.2218;1.3056;
135.9000;1.2218;1.2961;
136.2000;1.2202;1.2890;
136.5000;1.2194;1.2866;
136.8000;1.2186;1.2843;
137.1000;1.2218;1.2890;
137.4000;1.2137;1.2700;
137.7000;1.2194;1.2890;
138.0000;1.2218;1.3008;
138.3000;1.2202;1.2961;
138.6000;1.2210;1.3008;
138.9000;1.2202;1.2985;
139.2000;1.2194;1.2937;
139.5000;1.2186;1.2961;
139.8000;1.2210;1.3151;
140.1000;1.2186;1.3174;
140.4000;1.2169;1.3174;
140.7000;1.2275;1.3388;
141.0000;1.2218;1.3245;
141.3000;1.2202;1.3198;
141.6000;1.2210;1.3198;
141.9000;1.2202;1.3245;
142.2000;1.2210;1.3340;
142.5000;1.2202;1.3293;
142.8000;1.2210;1.3222;
143.1000;1.2226;1.3293;
143.4000;1.2202;1.3316;
143.7000;1.2186;1.3174;
144.0000;1.2210;1.3151;
144.3000;1.2202;1.3174;
144.6000;1.2251;1.3174;
144.9000;1.2194;1.3056;
145.2000;1.2210;1.3032;
145.5000;1.2161;1.3008;
145.8000;1.2210;1.3198;
146.1000;1.2210;1.3222;
146.4000;1.2202;1.3222;
146.7000;1.2210;1.3269;
147.0000;1.2194;1.3245;
147.3000;1.2226;1.3340;
147.6000;1.2218;1.3364;
147.9000;1.2186;1.3293;
148.2000;1.2194;1.3316;
148.5000;1.2186;1.3269;
148.8000;1.2210;1.3245;
149.1000;1.2186;1.3245;
149.4000;1.2194;1.3293;
149.7000;1.2194;1.3174;
150.0000;1.2194;1.3245;
150.3000;1.2186;1.3174;
150.6000;1.2194;1.3127;
150.9000;1.2202;1.3127;
151.2000;1.2202;1.3056;
151.5000;1.2186;1.2961;
151.8000;1.2243;1.3008;
152.1000;1.2210;1.2914;
152.4000;1.2177;1.2795;
152.7000;1.2210;1.2914;
153.0000;1.2218;1.2985;
153.3000;1.2186;1.2914;
153.6000;1.2186;1.3080;
153.9000;1.2186;1.3127;
154.2000;1.2210;1.3198;
154.5000;1.2186;1.3245;
154.8000;1.2251;1.3411;
155.1000;1.2186;1.3316;
155.4000;1.2194;1.3411;
155.7000;1.2194;1.3364;
156.0000;1.2210;1.3388;
156.3000;1.2210;1.3364;
156.6000;1.2161;1.3151;
156.9000;1.2259;1.3340;
157.2000;1.2210;1.3174;
157.5000;1.2218;1.3222;
157.8000;1.2169;1.3056;
158.1000;1.2202;1.3080;
158.4000;1.2177;1.3127;
158.7000;1.2226;1.3151;
159.0000;1.2202;1.3056;
159.3000;1.2210;1.3032;
159.6000;1.2210;1.3032;
159.9000;1.2194;1.3056;
160.2000;1.2202;1.3080;
160.5000;1.2202;1.3080;
160.8000;1.2169;1.3080;
161.1000;1.2194;1.3174;
161.4000;1.2210;1.3245;
161.7000;1.2202;1.3198;
162.0000;1.2202;1.3245;
162.3000;1.2234;1.3293;
162.6000;1.2186;1.3198;
162.9000;1.2202;1.3364;
163.2000;1.2186;1.3222;
163.5000;1.2226;1.3293;
163.8000;1.2202;1.3222;
164.1000;1.2202;1.3245;
164.4000;1.2243;1.3340;
164.7000;1.2210;1.3245;
165.0000;1.2202;1.3293;
165.3000;1.2210;1.3293;
165.6000;1.2218;1.3293;
165.9000;1.2194;1.3245;
166.2000;1.2210;1.3340;
166.5000;1.2153;1.3198;
166.8000;1.2194;1.3245;
167.1000;1.2194;1.3293;
167.4000;1.2186;1.3245;
167.7000;1.2218;1.3222;
168.0000;1.2194;1.3198;
168.3000;1.2194;1.3293;
168.6000;1.2210;1.3435;
168.9000;1.2202;1.3388;
169.2000;1.2194;1.3364;
169.5000;1.2153;1.3316;
169.8000;1.2202;1.3388;
170.1000;1.2210;1.3459;
170.4000;1.2194;1.3459;
170.7000;1.2194;1.3411;
171.0000;1.2194;1.3388;
171.3000;1.2202;1.3364;
171.6000;1.2202;1.3411;
171.9000;1.2202;1.3435;
172.2000;1.2202;1.3411;
172.5000;1.2194;1.3388;
172.8000;1.2226;1.3435;
173.1000;1.2202;1.3364;
173.4000;1.2202;1.3364;
173.7000;1.2202;1.3364;
174.0000;1.2194;1.3316;
174.3000;1.2186;1.3222;
174.6000;1.2226;1.3222;
174.9000;1.2186;1.3056;
175.2000;1.2202;1.3174;
175.5000;1.2202;1.3103;
175.8000;1.2177;1.3103;
176.1000;1.2186;1.3222;
176.4000;1.2177;1.3245;
176.7000;1.2177;1.3269;
177.0000;1.2194;1.3316;
177.3000;1.2194;1.3340;
177.6000;1.2145;1.3151;
177.9000;1.2202;1.3245;
178.2000;1.2202;1.3198;
178.5000;1.2194;1.3103;
178.8000;1.2161;1.3008;
179.1000;1.2186;1.3008;
179.4000;1.2186;1.3056;
179.7000;1.2218;1.3080;
180.0000;1.2194;1.2985;
180.3000;1.2177;1.3008;
180.6000;1.2202;1.3032;
180.9000;1.2218;1.3080;
181.2000;1.2186;1.3127;
181.5000;1.2177;1.3198;
181.8000;1.2234;1.3364;
182.1000;1.2177;1.3222;
182.4000;1.2259;1.3388;
182.7000;1.2226;1.3293;
183.0000;1.2186;1.3269;
183.3000;1.2210;1.3340;
183.6000;1.2177;1.3245;
183.9000;1.2186;1.3222;
184.2000;1.2194;1.3222;
184.5000;1.2202;1.3222;
184.8000;1.2186;1.3222;
185.1000;1.2177;1.3127;
185.4000;1.2169;1.3032;
185.7000;1.2202;1.3080;
186.0000;1.2194;1.3032;
186.3000;1.2186;1.3056;
186.6000;1.2186;1.2961;
186.9000;1.2194;1.2985;
187.2000;1.2186;1.2890;
187.5000;1.2186;1.2890;
187.8000;1.2186;1.2914;
188.1000;1.2186;1.2961;
188.4000;1.2194;1.2985;
188.7000;1.2194;1.2985;
189.0000;1.2226;1.3198;
189.3000;1.2194;1.3056;
189.6000;1.2202;1.3008;
189.9000;1.2194;1.2961;
190.2000;1.2186;1.3032;
190.5000;1.2194;1.3103;
190.8000;1.2194;1.3080;
191.1000;1.2186;1.2937;
191.4000;1.2186;1.2961;
191.7000;1.2186;1.2914;
192.0000;1.2186;1.2937;
192.3000;1.2194;1.2985;
192.6000;1.2194;1.3032;
192.9000;1.2186;1.3080;
193.2000;1.2177;1.2985;
193.5000;1.2177;1.2985;
193.8000;1.2186;1.2914;
194.1000;1.2186;1.2961;
194.4000;1.2226;1.3056;
194.7000;1.2194;1.2985;
195.0000;1.2202;1.2985;
195.3000;1.2194;1.2961;
195.6000;1.2194;1.2914;
195.9000;1.2202;1.3032;
196.2000;1.2194;1.2937;
196.5000;1.2169;1.2890;
196.8000;1.2177;1.2914;
197.1000;1.2194;1.2985;
197.4000;1.2202;1.2937;
197.7000;1.2169;1.2914;
198.0000;1.2177;1.2914;
198.3000;1.2194;1.2866;
198.6000;1.2145;1.2771;
198.9000;1.2186;1.2819;
199.2000;1.2202;1.2843;
199.5000;1.2169;1.2700;
199.8000;1.2194;1.2843;
200.1000;1.2194;1.2795;
200.4000;1.2177;1.2771;
200.7000;1.2194;1.2866;
201.0000;1.2186;1.2866;
201.3000;1.2194;1.2866;
201.6000;1.2153;1.2724;
201.9000;1.2194;1.2795;
202.2000;1.2194;1.2724;
202.5000;1.2202;1.2748;
202.8000;1.2234;1.2937;
203.1000;1.2177;1.2890;
203.4000;1.2177;1.3032;
203.7000;1.2194;1.3103;
204.0000;1.2186;1.3008;
204.3000;1.2177;1.3032;
204.6000;1.2177;1.3008;
204.9000;1.2218;1.3127;
205.2000;1.2202;1.3056;
205.5000;1.2186;1.3080;
205.8000;1.2194;1.3080;
206.1000;1.2202;1.3032;
206.4000;1.2120;1.2866;
206.7000;1.2226;1.3127;
207.0000;1.2186;1.2961;
207.3000;1.2202;1.3103;
207.6000;1.2177;1.3080;
207.9000;1.2194;1.3151;
208.2000;1.2234;1.3293;
208.5000;1.2210;1.3198;
208.8000;1.2186;1.3127;
209.1000;1.2177;1.3032;
209.4000;1.2202;1.3032;
209.7000;1.2210;1.3032;
210.0000;1.2202;1.3056;
210.3000;1.2226;1.3032;
210.6000;1.2194;1.3008;
210.9000;1.2202;1.3032;
211.2000;1.2186;1.2985;
211.5000;1.2161;1.2937;
211.8000;1.2186;1.3008;
212.1000;1.2186;1.3008;
212.4000;1.2169;1.2985;
212.7000;1.2194;1.2985;
213.0000;1.2234;1.3151;
213.3000;1.2177;1.2961;
213.6000;1.2226;1.2937;
213.9000;1.2210;1.3008;
214.2000;1.2210;1.3032;
214.5000;1.2210;1.3080;
214.8000;1.2218;1.3032;
215.1000;1.2186;1.2961;
215.4000;1.2202;1.2937;
215.7000;1.2210;1.3032;
216.0000;1.2226;1.3080;
216.3000;1.2210;1.3222;
216.6000;1.2202;1.3151;
216.9000;1.2177;1.3151;
217.2000;1.2153;1.3198;
217.5000;1.2186;1.3222;
217.8000;1.2177;1.3198;
218.1000;1.2129;1.3103;
218.4000;1.2186;1.3222;
218.7000;1.2243;1.3293;
219.0000;1.2177;1.3103;
219.3000;1.2194;1.3151;
219.6000;1.2218;1.3198;
219.9000;1.2194;1.3056;
220.2000;1.2186;1.3080;
220.5000;1.2234;1.3364;
220.8000;1.2202;1.3293;
221.1000;1.2226;1.3364;
221.4000;1.2202;1.3340;
221.7000;1.2120;1.3174;
222.0000;1.2186;1.3340;
222.3000;1.2291;1.3553;
222.6000;1.2210;1.3151;
222.9000;1.2202;1.3174;
223.2000;1.2202;1.3103;
223.5000;1.2186;1.2985;
223.8000;1.2129;1.2843;
224.1000;1.2202;1.3008;
224.4000;1.2186;1.3080;
224.7000;1.2186;1.3032;
225.0000;1.2210;1.3103;
225.3000;1.2210;1.3127;
225.6000;1.2291;1.3364;
225.9000;1.2194;1.3127;
226.2000;1.2194;1.3103;
226.5000;1.2186;1.3103;
226.8000;1.2194;1.3127;
227.1000;1.2186;1.3103;
227.4000;1.2186;1.3222;
227.7000;1.2186;1.3269;
228.0000;1.2169;1.3293;
228.3000;1.2194;1.3340;
228.6000;1.2186;1.3293;
228.9000;1.2194;1.3340;
229.2000;1.2226;1.3459;
229.5000;1.2218;1.3459;
229.8000;1.2194;1.3411;
230.1000;1.2202;1.3482;
230.4000;1.2177;1.3482;
230.7000;1.2194;1.3530;
231.0000;1.2194;1.3411;
231.3000;1.2194;1.3411;
231.6000;1.2218;1.3506;
231.9000;1.2186;1.3435;
232.2000;1.2169;1.3364;
232.5000;1.2177;1.3340;
232.8000;1.2186;1.3316;
233.1000;1.2169;1.3269;
233.4000;1.2169;1.3222;
233.7000;1.2186;1.3316;
234.0000;1.2194;1.3459;
234.3000;1.2300;1.3625;
234.6000;1.2194;1.3269;
234.9000;1.2194;1.3316;
235.2000;1.2259;1.3506;
235.5000;1.2194;1.3364;
235.8000;1.2202;1.3293;
236.1000;1.2226;1.3293;
236.4000;1.2194;1.3245;
236.7000;1.2202;1.3222;
237.0000;1.2186;1.3151;
237.3000;1.2169;1.3127;
237.6000;1.2161;1.3198;
237.9000;1.2169;1.3293;
238.2000;1.2177;1.3364;
238.5000;1.2186;1.3506;
238.8000;1.2153;1.3388;
239.1000;1.2137;1.3340;
239.4000;1.2177;1.3388;
239.7000;1.2202;1.3411;
240.0000;1.2169;1.3245;
240.3000;1.2186;1.3293;
240.6000;1.2186;1.3269;
240.9000;1.2194;1.3269;
241.2000;1.2177;1.3198;
241.5000;1.2194;1.3269;
241.8000;1.2177;1.3293;
242.1000;1.2234;1.3388;
242.4000;1.2186;1.3340;
242.7000;1.2194;1.3269;
243.0000;1.2186;1.3198;
243.3000;1.2186;1.3293;
243.6000;1.2145;1.3103;
243.9000;1.2153;1.3293;
244.2000;1.2194;1.3316;
244.5000;1.2194;1.3293;
244.8000;1.2177;1.3316;
245.1000;1.2177;1.3316;
245.4000;1.2186;1.3293;
245.7000;1.2234;1.3316;
246.0000;1.2186;1.3056;
246.3000;1.2153;1.2914;
246.6000;1.2177;1.2914;
246.9000;1.2153;1.2890;
247.2000;1.2161;1.2866;
247.5000;1.2153;1.2914;
247.8000;1.2120;1.2843;
248.1000;1.2194;1.3008;
248.4000;1.2210;1.3032;
248.7000;1.2177;1.3032;
249.0000;1.2169;1.2961;
249.3000;1.2177;1.2937;
249.6000;1.2169;1.2961;
249.9000;1.2186;1.2985;
250.2000;1.2186;1.3080;
250.5000;1.2112;1.3032;
250.8000;1.2177;1.3127;
251.1000;1.2186;1.3103;
251.4000;1.2129;1.3008;
251.7000;1.2169;1.3080;
252.0000;1.2177;1.3056;
252.3000;1.2137;1.2961;
252.6000;1.2186;1.3032;
252.9000;1.2194;1.3032;
253.2000;1.2177;1.3008;
253.5000;1.2161;1.3008;
253.8000;1.2161;1.2961;
254.1000;1.2186;1.2937;
254.4000;1.2177;1.2890;
254.7000;1.2275;1.3198;
255.0000;1.2145;1.2937;
255.3000;1.2218;1.3080;
255.6000;1.2194;1.3032;
255.9000;1.2210;1.3103;
256.2000;1.2177;1.3032;
256.5000;1.2177;1.2914;
256.8000;1.2177;1.2961;
257.1000;1.2177;1.2937;
257.4000;1.2194;1.2985;
257.7000;1.2186;1.2937;
258.0000;1.2177;1.2961;
258.3000;1.2234;1.3080;
258.6000;1.2129;1.2819;
258.9000;1.2186;1.2937;
259.2000;1.2194;1.3032;
259.5000;1.2186;1.3032;
259.8000;1.2177;1.3056;
260.1000;1.2169;1.3056;
260.4000;1.2161;1.2961;
260.7000;1.2243;1.3269;
261.0000;1.2177;1.3127;
261.3000;1.2177;1.3222;
261.6000;1.2194;1.3198;
261.9000;1.2161;1.3174;
262.2000;1.2234;1.3293;
262.5000;1.2194;1.3198;
262.8000;1.2169;1.3174;
263.1000;1.2218;1.3364;
263.4000;1.2194;1.3198;
263.7000;1.2186;1.3198;
264.0000;1.2194;1.3151;
264.3000;1.2186;1.3056;
264.6000;1.2186;1.3080;
264.9000;1.2218;1.3174;
265.2000;1.2243;1.3222;
265.5000;1.2186;1.3056;
265.8000;1.2177;1.3032;
266.1000;1.2202;1.3056;
266.4000;1.2194;1.2961;
266.7000;1.2202;1.2985;
267.0000;1.2218;1.3032;
267.3000;1.2177;1.3008;
267.6000;1.2169;1.3056;
267.9000;1.2186;1.3080;
268.2000;1.2186;1.3080;
268.5000;1.2186;1.3032;
268.8000;1.2177;1.2985;
269.1000;1.2169;1.3080;
269.4000;1.2153;1.3103;
269.7000;1.2202;1.3174;
270.0000;1.2194;1.3127;
270.3000;1.2177;1.3103;
270.6000;1.2137;1.3080;
270.9000;1.2169;1.3222;
271.2000;1.2169;1.3198;
271.5000;1.2194;1.3245;
271.8000;1.2177;1.3293;
272.1000;1.2177;1.3316;
272.4000;1.2161;1.3364;
272.7000;1.2145;1.3316;
273.0000;1.2161;1.3340;
273.3000;1.2129;1.3293;
273.6000;1.2161;1.3316;
273.9000;1.2169;1.3293;
274.2000;1.2169;1.3245;
274.5000;1.2177;1.3293;
274.8000;1.2161;1.3340;
275.1000;1.2186;1.3435;
275.4000;1.2186;1.3293;
275.7000;1.2153;1.3198;
276.0000;1.2169;1.3198;
276.3000;1.2177;1.3269;
276.6000;1.2186;1.3245;
276.9000;1.2177;1.3245;
277.2000;1.2153;1.3222;
277.5000;1.2186;1.3245;
277.8000;1.2194;1.3269;
278.1000;1.2177;1.3245;
278.4000;1.2177;1.3198;
278.7000;1.2177;1.3198;
279.0000;1.2186;1.3151;
279.3000;1.2186;1.3198;
279.6000;1.2177;1.3269;
279.9000;1.2161;1.3293;
280.2000;1.2186;1.3364;
280.5000;1.2194;1.3364;
280.8000;1.2169;1.3340;
281.1000;1.2177;1.3316;
281.4000;1.2177;1.3293;
281.7000;1.2186;1.3340;
282.0000;1.2186;1.3316;
282.3000;1.2169;1.3340;
282.6000;1.2186;1.3388;
282.9000;1.2194;1.3411;
283.2000;1.2186;1.3364;
283.5000;1.2120;1.3198;
283.8000;1.2169;1.3316;
284.1000;1.2169;1.3364;
284.4000;1.2153;1.3293;
284.7000;1.2169;1.3340;
285.0000;1.2153;1.3340;
285.3000;1.2161;1.3293;
285.6000;1.2186;1.3340;
285.9000;1.2161;1.3364;
286.2000;1.2153;1.3293;
286.5000;1.2169;1.3222;
286.8000;1.2186;1.3316;
287.1000;1.2161;1.3269;
287.4000;1.2177;1.3269;
287.7000;1.2169;1.3269;
288.0000;1.2177;1.3293;
288.3000;1.2186;1.3269;
288.6000;1.2177;1.3316;
288.9000;1.2177;1.3364;
289.2000;1.2161;1.3293;
289.5000;1.2177;1.3435;
289.8000;1.2177;1.3388;
290.1000;1.2186;1.3388;
290.4000;1.2169;1.3340;
290.7000;1.2186;1.3316;
291.0000;1.2194;1.3388;
291.3000;1.2186;1.3459;
291.6000;1.2112;1.3245;
291.9000;1.2177;1.3459;
292.2000;1.2169;1.3435;
292.5000;1.2169;1.3411;
292.8000;1.2153;1.3316;
293.1000;1.2194;1.3245;
293.4000;1.2194;1.3269;
293.7000;1.2169;1.3080;
294.0000;1.2186;1.3032;
294.3000;1.2186;1.3056;
294.6000;1.2202;1.3245;
294.9000;1.2186;1.3198;
295.2000;1.2169;1.3222;
295.5000;1.2145;1.3103;
295.8000;1.2169;1.3127;
296.1000;1.2161;1.3151;
296.4000;1.2161;1.3127;
296.7000;1.2169;1.3127;
297.0000;1.2169;1.3151;
297.3000;1.2145;1.3151;
297.6000;1.2161;1.3151;
297.9000;1.2186;1.3151;
298.2000;1.2186;1.3151;
298.5000;1.2194;1.3127;
298.8000;1.2137;1.3056;
299.1000;1.2186;1.3174;
299.4000;1.2161;1.3127;
299.7000;1.2145;1.3008;
300.0000;1.2186;1.3008;
300.3000;1.2161;1.2985;
300.6000;1.2169;1.3080;
300.9000;1.2177;1.3127;
301.2000;1.2177;1.3127;
301.5000;1.2161;1.3008;
301.8000;1.2186;1.3103;
302.1000;1.2169;1.3103;
302.4000;1.2177;1.3222;
302.7000;1.2186;1.3340;
303.0000;1.2169;1.3269;
303.3000;1.2177;1.3388;
303.6000;1.2169;1.3388;
303.9000;1.2161;1.3269;
304.2000;1.2169;1.3222;
304.5000;1.2169;1.3293;
304.8000;1.2169;1.3245;
305.1000;1.2153;1.3198;
305.4000;1.2161;1.3198;
305.7000;1.2169;1.3198;
306.0000;1.2169;1.3222;
306.3000;1.2169;1.3245;
306.6000;1.2153;1.3245;
306.9000;1.2169;1.3269;
307.2000;1.2145;1.3293;
307.5000;1.2137;1.3269;
307.8000;1.2186;1.3388;
308.1000;1.2169;1.3364;
308.4000;1.2161;1.3340;
308.7000;1.2153;1.3269;
309.0000;1.2153;1.3269;
309.3000;1.2177;1.3364;
309.6000;1.2153;1.3364;
309.9000;1.2161;1.3411;
310.2000;1.2153;1.3435;
310.5000;1.2186;1.3459;
310.8000;1.2177;1.3435;
311.1000;1.2186;1.3506;
311.4000;1.2169;1.3435;
311.7000;1.2153;1.3340;
312.0000;1.2161;1.3340;
312.3000;1.2169;1.3364;
312.6000;1.2177;1.3411;
312.9000;1.2177;1.3411;
313.2000;1.2177;1.3435;
313.5000;1.2194;1.3340;
313.8000;1.2186;1.3340;
314.1000;1.2194;1.3340;
314.4000;1.2177;1.3293;
314.7000;1.2186;1.3340;
315.0000;1.2161;1.3293;
315.3000;1.2169;1.3316;
315.6000;1.2153;1.3269;
315.9000;1.2186;1.3388;
316.2000;1.2177;1.3388;
316.5000;1.2177;1.3293;
316.8000;1.2161;1.3245;
317.1000;1.2186;1.3222;
317.4000;1.2161;1.3174;
317.7000;1.2153;1.3127;
318.0000;1.2161;1.3127;
318.3000;1.2169;1.3127;
318.6000;1.2194;1.3174;
318.9000;1.2177;1.3222;
319.2000;1.2153;1.3245;
319.5000;1.2153;1.3364;
319.8000;1.2161;1.3364;
320.1000;1.2169;1.3340;
320.4000;1.2259;1.3482;
320.7000;1.2169;1.3174;
321.0000;1.2169;1.3151;
321.3000;1.2088;1.2985;
321.6000;1.2153;1.3080;
321.9000;1.2153;1.3103;
322.2000;1.2169;1.3174;
322.5000;1.2186;1.3174;
322.8000;1.2153;1.3151;
323.1000;1.2137;1.3080;
323.4000;1.2161;1.3080;
323.7000;1.2161;1.3222;
324.0000;1.2177;1.3222;
324.3000;1.2169;1.3198;
324.6000;1.2186;1.3222;
324.9000;1.2169;1.3198;
325.2000;1.2169;1.3127;
325.5000;1.2153;1.3080;
325.8000;1.2137;1.3127;
326.1000;1.2161;1.3293;
326.4000;1.2161;1.3316;
326.7000;1.2153;1.3340;
327.0000;1.2112;1.3269;
327.3000;1.2161;1.3388;
327.6000;1.2194;1.3435;
327.9000;1.2177;1.3316;
328.2000;1.2153;1.3340;
328.5000;1.2153;1.3411;
328.8000;1.2177;1.3411;
329.1000;1.2153;1.3411;
329.4000;1.2137;1.3388;
329.7000;1.2161;1.3411;
330.0000;1.2177;1.3364;
330.3000;1.2169;1.3245;
330.6000;1.2137;1.3151;
330.9000;1.2153;1.3293;
331.2000;1.2169;1.3388;
331.5000;1.2120;1.3293;
331.8000;1.2145;1.3316;
332.1000;1.2161;1.3293;
332.4000;1.2153;1.3269;
332.7000;1.2161;1.3316;
333.0000;1.2161;1.3293;
333.3000;1.2153;1.3293;
333.6000;1.2129;1.3198;
333.9000;1.2153;1.3245;
334.2000;1.2153;1.3198;
334.5000;1.2153;1.3222;
334.8000;1.2145;1.3222;
335.1000;1.2112;1.3293;
335.4000;1.2137;1.3340;
335.7000;1.2145;1.3340;
336.0000;1.2088;1.3245;
336.3000;1.2096;1.3198;
336.6000;1.2161;1.3293;
336.9000;1.2153;1.3174;
337.2000;1.2145;1.3198;
337.5000;1.2145;1.3174;
337.8000;1.2161;1.3245;
338.1000;1.2161;1.3245;
338.4000;1.2161;1.3127;
338.7000;1.2145;1.3080;
339.0000;1.2161;1.2985;
339.3000;1.2153;1.2937;
339.6000;1.2161;1.2866;
339.9000;1.2161;1.2961;
340.2000;1.2161;1.2937;
340.5000;1.2169;1.2985;
340.8000;1.2234;1.3174;
341.1000;1.2145;1.3032;
341.4000;1.2153;1.2985;
341.7000;1.2177;1.2985;
342.0000;1.2161;1.2961;
342.3000;1.2137;1.2937;
342.6000;1.2145;1.3032;
342.9000;1.2145;1.3056;
343.2000;1.2169;1.3151;
343.5000;1.2186;1.3222;
343.8000;1.2161;1.3245;
344.1000;1.2169;1.3293;
344.4000;1.2161;1.3222;
344.7000;1.2088;1.3032;
345.0000;1.2161;1.3245;
345.3000;1.2137;1.3174;
345.6000;1.2161;1.3222;
345.9000;1.2153;1.3174;
346.2000;1.2161;1.3174;
346.5000;1.2169;1.3080;
346.8000;1.2161;1.3032;
347.1000;1.2145;1.3032;
347.4000;1.2145;1.3056;
347.7000;1.2153;1.3103;
348.0000;1.2177;1.3198;
348.3000;1.2153;1.3151;
348.6000;1.2161;1.3151;
348.9000;1.2153;1.3174;
349.2000;1.2161;1.3222;
349.5000;1.2137;1.3103;
349.8000;1.2169;1.3174;
350.1000;1.2153;1.3151;
350.4000;1.2137;1.3056;
350.7000;1.2145;1.3032;
351.0000;1.2153;1.3056;
351.3000;1.2161;1.3056;
351.6000;1.2226;1.3174;
351.9000;1.2153;1.2985;
352.2000;1.2161;1.2985;
352.5000;1.2153;1.2961;
352.8000;1.2153;1.2961;
353.1000;1.2137;1.2961;
353.4000;1.2080;1.2795;
353.7000;1.2161;1.2937;
354.0000;1.2161;1.3080;
354.3000;1.2153;1.3103;
354.6000;1.2137;1.3056;
354.9000;1.2137;1.3080;
355.2000;1.2226;1.3364;
355.5000;1.2177;1.3222;
355.8000;1.2161;1.3245;
356.1000;1.2169;1.3222;
356.4000;1.2137;1.3080;
356.7000;1.2153;1.3103;
357.0000;1.2153;1.3127;
357.3000;1.2153;1.3151;
357.6000;1.2137;1.3174;
357.9000;1.2169;1.3198;
358.2000;1.2145;1.3174;
358.5000;1.2145;1.3222;
358.8000;1.2153;1.3269;
359.1000;1.2096;1.3127;
359.4000;1.2129;1.3269;
359.7000;1.2112;1.3340;
360.0000;1.2145;1.3435;
360.3000;1.2161;1.3506;
360.6000;1.2145;1.3388;
360.9000;1.2161;1.3364;
361.2000;1.2104;1.3174;
361.5000;1.2145;1.3293;
361.8000;1.2153;1.3222;
362.1000;1.2137;1.3269;
362.4000;1.2169;1.3388;
362.7000;1.2267;1.3553;
363.0000;1.2145;1.3269;
363.3000;1.2153;1.3151;
363.6000;1.2137;1.3080;
363.9000;1.2145;1.3151;
364.2000;1.2161;1.3198;
364.5000;1.2145;1.3151;
364.8000;1.2161;1.3174;
365.1000;1.2145;1.3127;
365.4000;1.2177;1.3245;
365.7000;1.2177;1.3222;
366.0000;1.2161;1.3174;
366.3000;1.2096;1.3127;
366.6000;1.2194;1.3364;
366.9000;1.2145;1.3245;
367.2000;1.2153;1.3269;
367.5000;1.2145;1.3269;
367.8000;1.2129;1.3198;
368.1000;1.2137;1.3174;
368.4000;1.2153;1.3127;
368.7000;1.2177;1.3151;
369.0000;1.2153;1.3032;
369.3000;1.2137;1.3080;
369.6000;1.2161;1.3151;
369.9000;1.2161;1.3103;
370.2000;1.2161;1.3151;
370.5000;1.2169;1.3222;
370.8000;1.2177;1.3293;
371.1000;1.2161;1.3364;
371.4000;1.2153;1.3245;
371.7000;1.2145;1.3245;
372.0000;1.2137;1.3245;
372.3000;1.2129;1.3222;
372.6000;1.2145;1.3174;
372.9000;1.2145;1.3080;
373.2000;1.2153;1.3032;
373.5000;1.2161;1.3127;
373.8000;1.2169;1.3080;
374.1000;1.2161;1.3103;
374.4000;1.2169;1.3151;
374.7000;1.2153;1.3080;
375.0000;1.2153;1.3198;
375.3000;1.2153;1.3151;
375.6000;1.2259;1.3340;
375.9000;1.2153;1.3080;
376.2000;1.2169;1.3103;
376.5000;1.2169;1.3103;
376.8000;1.2153;1.3151;
377.1000;1.2145;1.3127;
377.4000;1.2161;1.3198;
377.7000;1.2161;1.3174;
378.0000;1.2047;1.2937;
378.3000;1.2145;1.3222;
378.6000;1.2137;1.3151;
378.9000;1.2137;1.3174;
379.2000;1.2177;1.3293;
379.5000;1.2145;1.3222;
379.8000;1.2137;1.3174;
380.1000;1.2153;1.3222;
380.4000;1.2145;1.3222;
380.7000;1.2145;1.3198;
381.0000;1.2137;1.3127;
381.3000;1.2145;1.3103;
381.6000;1.2137;1.3080;
381.9000;1.2104;1.3032;
382.2000;1.2129;1.3056;
382.5000;1.2186;1.3245;
382.8000;1.2259;1.3316;
383.1000;1.2169;1.3151;
383.4000;1.2145;1.3103;
383.7000;1.2210;1.3222;
384.0000;1.2169;1.3151;
384.3000;1.2145;1.3080;
384.6000;1.2145;1.3151;
384.9000;1.2112;1.3103;
385.2000;1.2161;1.3222;
385.5000;1.2169;1.3151;
385.8000;1.2137;1.3222;
386.1000;1.2145;1.3316;
386.4000;1.2161;1.3388;
386.7000;1.2161;1.3388;
387.0000;1.2153;1.3388;
387.3000;1.2145;1.3388;
387.6000;1.2169;1.3553;
387.9000;1.2137;1.3506;
388.2000;1.2129;1.3506;
388.5000;1.2145;1.3577;
388.8000;1.2153;1.3506;
389.1000;1.2161;1.3506;
389.4000;1.2129;1.3411;
389.7000;1.2153;1.3388;
390.0000;1.2161;1.3388;
390.3000;1.2153;1.3435;
390.6000;1.2153;1.3411;
390.9000;1.2129;1.3364;
391.2000;1.2145;1.3435;
391.5000;1.2169;1.3459;
391.8000;1.2186;1.3506;
392.1000;1.2137;1.3411;
392.4000;1.2145;1.3435;
392.7000;1.2137;1.3411;
393.0000;1.2145;1.3388;
393.3000;1.2202;1.3553;
393.6000;1.2145;1.3459;
393.9000;1.2145;1.3459;
394.2000;1.2137;1.3364;
394.5000;1.2137;1.3340;
394.8000;1.2202;1.3411;
395.1000;1.2137;1.3245;
395.4000;1.2137;1.3245;
395.7000;1.2120;1.3222;
396.0000;1.2145;1.3316;
396.3000;1.2153;1.3316;
396.6000;1.2169;1.3411;
396.9000;1.2112;1.3388;
397.2000;1.2145;1.3577;
397.5000;1.2129;1.3506;
397.8000;1.2137;1.3553;
398.1000;1.2145;1.3625;
398.4000;1.2145;1.3530;
398.7000;1.2145;1.3364;
399.0000;1.2129;1.3340;
399.3000;1.2153;1.3293;
399.6000;1.2129;1.3245;
399.9000;1.2129;1.3151;
400.2000;1.2161;1.3198;
400.5000;1.2137;1.3222;
400.8000;1.2088;1.3151;
401.1000;1.2153;1.3364;
401.4000;1.2145;1.3388;
401.7000;1.2137;1.3411;
402.0000;1.2137;1.3411;
402.3000;1.2145;1.3459;
402.6000;1.2145;1.3482;
402.9000;1.2153;1.3411;
403.2000;1.2153;1.3364;
403.5000;1.2161;1.3459;
403.8000;1.2153;1.3435;
404.1000;1.2145;1.3364;
404.4000;1.2153;1.3316;
404.7000;1.2161;1.3245;
405.0000;1.2161;1.3245;
405.3000;1.2129;1.3151;
405.6000;1.2153;1.3174;
405.9000;1.2112;1.3103;
406.2000;1.2153;1.3222;
406.5000;1.2218;1.3388;
406.8000;1.2177;1.3435;
407.1000;1.2177;1.3388;
407.4000;1.2137;1.3316;
407.7000;1.2161;1.3340;
408.0000;1.2129;1.3269;
408.3000;1.2137;1.3388;
408.6000;1.2096;1.3316;
408.9000;1.2120;1.3388;
409.2000;1.2177;1.3530;
409.5000;1.2153;1.3577;
409.8000;1.2137;1.3482;
410.1000;1.2129;1.3506;
410.4000;1.2145;1.3435;
410.7000;1.2194;1.3648;
411.0000;1.2137;1.3459;
411.3000;1.2177;1.3553;
411.6000;1.2137;1.3482;
411.9000;1.2145;1.3364;
412.2000;1.2145;1.3435;
412.5000;1.2153;1.3435;
412.8000;1.2104;1.3316;
413.1000;1.2129;1.3316;
413.4000;1.2202;1.3482;
413.7000;1.2145;1.3364;
414.0000;1.2137;1.3340;
414.3000;1.2153;1.3364;
414.6000;1.2194;1.3340;
414.9000;1.2137;1.3269;
415.2000;1.2137;1.3222;
415.5000;1.2137;1.3198;
415.8000;1.2153;1.3293;
416.1000;1.2153;1.3364;
416.4000;1.2137;1.3388;
416.7000;1.2161;1.3388;
417.0000;1.2137;1.3411;
417.3000;1.2161;1.3530;
417.6000;1.2137;1.3553;
417.9000;1.2145;1.3553;
418.2000;1.2137;1.3577;
418.5000;1.2161;1.3601;
418.8000;1.2145;1.3530;
419.1000;1.2129;1.3459;
419.4000;1.2145;1.3388;
419.7000;1.2161;1.3364;
420.0000;1.2112;1.3316;
420.3000;1.2120;1.3340;
420.6000;1.2120;1.3245;
420.9000;1.2112;1.3340;
421.2000;1.2129;1.3388;
421.5000;1.2129;1.3411;
421.8000;1.2129;1.3459;
422.1000;1.2137;1.3459;
422.4000;1.2153;1.3506;
422.7000;1.2137;1.3506;
423.0000;1.2137;1.3435;
423.3000;1.2137;1.3506;
423.6000;1.2145;1.3388;
423.9000;1.2129;1.3364;
424.2000;1.2153;1.3506;
424.5000;1.2145;1.3459;
424.8000;1.2145;1.3459;
425.1000;1.2137;1.3340;
425.4000;1.2194;1.3411;
425.7000;1.2153;1.3340;
426.0000;1.2153;1.3411;
426.3000;1.2145;1.3435;
426.6000;1.2137;1.3459;
426.9000;1.2129;1.3459;
427.2000;1.2145;1.3530;
427.5000;1.2137;1.3601;
427.8000;1.2153;1.3625;
428.1000;1.2120;1.3530;
428.4000;1.2137;1.3625;
428.7000;1.2112;1.3601;
429.0000;1.2137;1.3767;
429.3000;1.2137;1.3790;
429.6000;1.2186;1.3885;
429.9000;1.2137;1.3767;
430.2000;1.2137;1.3719;
430.5000;1.2120;1.3648;
430.8000;1.2145;1.3553;
431.1000;1.2120;1.3459;
431.4000;1.2120;1.3364;
431.7000;1.2112;1.3222;
432.0000;1.2137;1.3174;
432.3000;1.2145;1.3245;
432.6000;1.2169;1.3293;
432.9000;1.2137;1.3245;
433.2000;1.2120;1.3245;
433.5000;1.2161;1.3293;
433.8000;1.2145;1.3222;
434.1000;1.2137;1.3222;
434.4000;1.2145;1.3293;
434.7000;1.2137;1.3198;
435.0000;1.2137;1.3198;
435.3000;1.2129;1.3174;
435.6000;1.2137;1.3222;
435.9000;1.2129;1.3222;
436.2000;1.2137;1.3222;
436.5000;1.2120;1.3245;
436.8000;1.2112;1.3198;
437.1000;1.2137;1.3174;
437.4000;1.2129;1.3174;
437.7000;1.2120;1.3222;
438.0000;1.2120;1.3269;
438.3000;1.2112;1.3293;
438.6000;1.2112;1.3269;
438.9000;1.2129;1.3340;
439.2000;1.2129;1.3364;
439.5000;1.2129;1.3245;
439.8000;1.2129;1.3269;
440.1000;1.2145;1.3364;
440.4000;1.2129;1.3364;
440.7000;1.2129;1.3293;
441.0000;1.2120;1.3222;
441.3000;1.2120;1.3222;
441.6000;1.2129;1.3245;
441.9000;1.2137;1.3222;
442.2000;1.2137;1.3198;
442.5000;1.2145;1.3245;
442.8000;1.2137;1.3293;
443.1000;1.2153;1.3245;
443.4000;1.2137;1.3174;
443.7000;1.2137;1.3245;
444.0000;1.2161;1.3364;
444.3000;1.2137;1.3293;
444.6000;1.2137;1.3316;
444.9000;1.2129;1.3340;
445.2000;1.2137;1.3411;
445.5000;1.2120;1.3388;
445.8000;1.2137;1.3459;
446.1000;1.2137;1.3435;
446.4000;1.2169;1.3459;
446.7000;1.2153;1.3293;
447.0000;1.2129;1.3222;
447.3000;1.2153;1.3316;
447.6000;1.2129;1.3340;
447.9000;1.2129;1.3245;
448.2000;1.2153;1.3222;
448.5000;1.2145;1.3245;
448.8000;1.2129;1.3174;
449.1000;1.2145;1.3198;
449.4000;1.2137;1.3269;
449.7000;1.2120;1.3293;
450.0000;1.2153;1.3459;
450.3000;1.2120;1.3506;
450.6000;1.2145;1.3506;
450.9000;1.2072;1.3293;
451.2000;1.2120;1.3388;
451.5000;1.2104;1.3388;
451.8000;1.2120;1.3388;
452.1000;1.2120;1.3459;
452.4000;1.2129;1.3530;
452.7000;1.2137;1.3530;
453.0000;1.2120;1.3506;
453.3000;1.2120;1.3506;
453.6000;1.2120;1.3459;
453.9000;1.2096;1.3364;
454.2000;1.2112;1.3435;
454.5000;1.2104;1.3388;
454.8000;1.2120;1.3435;
455.1000;1.2120;1.3388;
455.4000;1.2137;1.3435;
455.7000;1.2129;1.3435;
456.0000;1.2120;1.3435;
456.3000;1.2120;1.3388;
456.6000;1.2129;1.3435;
456.9000;1.2104;1.3435;
457.2000;1.2104;1.3435;
457.5000;1.2120;1.3340;
457.8000;1.2120;1.3293;
458.1000;1.2145;1.3388;
458.4000;1.2112;1.3293;
458.7000;1.2120;1.3269;
459.0000;1.2129;1.3293;
459.3000;1.2120;1.3364;
459.6000;1.2112;1.3388;
459.9000;1.2145;1.3411;
460.2000;1.2129;1.3388;
460.5000;1.2129;1.3364;
460.8000;1.2129;1.3245;
461.1000;1.2120;1.3198;
461.4000;1.2120;1.3245;
461.7000;1.2137;1.3316;
462.0000;1.2137;1.3245;
462.3000;1.2096;1.3127;
462.6000;1.2112;1.3222;
462.9000;1.2145;1.3269;
463.2000;1.2055;1.3080;
463.5000;1.2120;1.3269;
463.8000;1.2023;1.3080;
464.1000;1.2145;1.3435;
464.4000;1.2112;1.3435;
464.7000;1.2137;1.3411;
465.0000;1.2129;1.3411;
465.3000;1.2088;1.3293;
465.6000;1.2186;1.3506;
465.9000;1.2177;1.3577;
466.2000;1.2120;1.3435;
466.5000;1.2096;1.3411;
466.8000;1.2104;1.3388;
467.1000;1.2055;1.3293;
467.4000;1.2112;1.3459;
467.7000;1.2120;1.3435;
468.0000;1.2120;1.3459;
468.3000;1.2112;1.3459;
468.6000;1.2096;1.3340;
468.9000;1.2112;1.3340;
469.2000;1.2129;1.3388;
469.5000;1.2137;1.3222;
469.8000;1.2145;1.3174;
470.1000;1.2120;1.3103;
470.4000;1.2096;1.3103;
470.7000;1.2129;1.3198;
471.0000;1.2177;1.3269;
471.3000;1.2145;1.3174;
471.6000;1.2088;1.3080;
471.9000;1.2120;1.3245;
472.2000;1.2129;1.3293;
472.5000;1.2137;1.3340;
472.8000;1.2120;1.3364;
473.1000;1.2177;1.3459;
473.4000;1.2120;1.3340;
473.7000;1.2129;1.3293;
474.0000;1.2023;1.3008;
474.3000;1.2112;1.3198;
474.6000;1.2104;1.3222;
474.9000;1.2112;1.3198;
475.2000;1.2120;1.3245;
475.5000;1.2137;1.3269;
475.8000;1.2120;1.3269;
476.1000;1.2104;1.3316;
476.4000;1.2194;1.3435;
476.7000;1.2112;1.3340;
477.0000;1.2112;1.3269;
477.3000;1.2129;1.3364;
477.6000;1.2129;1.3316;
477.9000;1.2120;1.3293;
478.2000;1.2120;1.3245;
478.5000;1.2129;1.3198;
478.8000;1.2177;1.3411;
479.1000;1.2137;1.3245;
479.4000;1.2112;1.3151;
479.7000;1.2120;1.3245;
480.0000;1.2104;1.3222;
480.3000;1.2129;1.3293;
480.6000;1.2088;1.3174;
480.9000;1.2120;1.3222;
481.2000;1.2129;1.3174;
481.5000;1.2153;1.3293;
481.8000;1.2096;1.3198;
482.1000;1.2088;1.3222;
482.4000;1.2096;1.3222;
482.7000;1.2104;1.3198;
483.0000;1.2104;1.3269;
483.3000;1.2137;1.3340;
483.6000;1.2177;1.3435;
483.9000;1.2104;1.3364;
484.2000;1.2120;1.3411;
484.5000;1.2161;1.3506;
484.8000;1.2177;1.3553;
485.1000;1.2137;1.3388;
485.4000;1.2120;1.3364;
485.7000;1.2112;1.3364;
486.0000;1.2120;1.3388;
486.3000;1.2096;1.3411;
486.6000;1.2161;1.3625;
486.9000;1.2112;1.3506;
487.2000;1.2218;1.3743;
487.5000;1.2177;1.3601;
487.8000;1.2112;1.3340;
488.1000;1.2129;1.3388;
488.4000;1.2145;1.3411;
488.7000;1.2129;1.3293;
489.0000;1.2120;1.3245;
489.3000;1.2015;1.3008;
489.6000;1.2104;1.3198;
489.9000;1.2120;1.3245;
490.2000;1.2145;1.3269;
490.5000;1.2112;1.3151;
490.8000;1.2120;1.3127;
491.1000;1.2096;1.3127;
491.4000;1.2120;1.3174;
491.7000;1.2120;1.3174;
492.0000;1.2153;1.3293;
492.3000;1.2112;1.3245;
492.6000;1.2137;1.3198;
492.9000;1.2112;1.3103;
493.2000;1.2120;1.3103;
493.5000;1.2120;1.3222;
493.8000;1.2129;1.3245;
494.1000;1.2112;1.3269;
494.4000;1.2120;1.3340;
494.7000;1.2120;1.3269;
495.0000;1.2137;1.3340;
495.3000;1.2137;1.3364;
495.6000;1.2112;1.3340;
495.9000;1.2120;1.3340;
496.2000;1.2112;1.3364;
496.5000;1.2112;1.3435;
496.8000;1.2120;1.3459;
497.1000;1.2112;1.3388;
497.4000;1.2112;1.3293;
497.7000;1.2120;1.3388;
498.0000;1.2129;1.3411;
498.3000;1.2120;1.3435;
498.6000;1.2088;1.3459;
498.9000;1.2088;1.3388;
499.2000;1.2104;1.3506;
499.5000;1.2080;1.3340;
499.8000;1.2096;1.3316;
500.1000;1.2104;1.3316;
500.4000;1.2137;1.3340;
500.7000;1.2072;1.3245;
501.0000;1.2112;1.3388;
501.3000;1.2145;1.3530;
501.6000;1.2104;1.3530;
501.9000;1.2104;1.3506;
502.2000;1.2096;1.3459;
502.5000;1.2169;1.3553;
502.8000;1.2112;1.3435;
503.1000;1.2104;1.3364;
503.4000;1.2104;1.3340;
503.7000;1.2080;1.3245;
504.0000;1.2120;1.3435;
504.3000;1.2072;1.3364;
504.6000;1.2112;1.3388;
504.9000;1.2104;1.3364;
505.2000;1.2120;1.3411;
505.5000;1.2120;1.3340;
505.8000;1.2169;1.3435;
506.1000;1.2129;1.3245;
506.4000;1.2137;1.3340;
506.7000;1.2080;1.3103;
507.0000;1.2104;1.3198;
507.3000;1.2096;1.3198;
507.6000;1.2104;1.3245;
507.9000;1.2112;1.3340;
508.2000;1.2120;1.3364;
508.5000;1.2120;1.3316;
508.8000;1.2129;1.3340;
509.1000;1.2177;1.3340;
509.4000;1.2129;1.3340;
509.7000;1.2104;1.3411;
510.0000;1.2120;1.3482;
510.3000;1.2112;1.3506;
510.6000;1.2120;1.3506;
510.9000;1.2120;1.3553;
511.2000;1.2177;1.3530;
511.5000;1.2120;1.3388;
511.8000;1.2080;1.3411;
512.1000;1.2104;1.3482;
512.4000;1.2120;1.3482;
512.7000;1.2120;1.3364;
513.0000;1.2072;1.3245;
513.3000;1.2112;1.3293;
513.6000;1.2104;1.3269;
513.9000;1.2104;1.3269;
514.2000;1.2129;1.3316;
514.5000;1.2120;1.3340;
514.8000;1.2112;1.3364;
515.1000;1.2096;1.3364;
515.4000;1.2112;1.3293;
515.7000;1.2145;1.3435;
516.0000;1.2112;1.3388;
516.3000;1.2104;1.3435;
516.6000;1.2129;1.3388;
516.9000;1.2129;1.3340;
517.2000;1.2104;1.3388;
517.5000;1.2145;1.3364;
517.8000;1.2120;1.3316;
518.1000;1.2120;1.3340;
518.4000;1.2104;1.3411;
518.7000;1.2104;1.3388;
519.0000;1.2104;1.3364;
519.3000;1.2120;1.3340;
519.6000;1.2112;1.3364;
519.9000;1.2120;1.3340;
520.2000;1.2129;1.3316;
520.5000;1.2137;1.3222;
520.8000;1.2120;1.3222;
521.1000;1.2112;1.3222;
521.4000;1.2120;1.3245;
521.7000;1.2112;1.3222;
522.0000;1.2104;1.3269;
522.3000;1.2104;1.3222;
522.6000;1.2129;1.3269;
522.9000;1.2112;1.3198;
523.2000;1.2112;1.3245;
523.5000;1.2120;1.3316;
523.8000;1.2096;1.3269;
524.1000;1.2096;1.3340;
524.4000;1.2104;1.3364;
524.7000;1.2161;1.3506;
525.0000;1.2104;1.3435;
525.3000;1.2129;1.3388;
525.6000;1.2120;1.3340;
525.9000;1.2129;1.3293;
526.2000;1.2129;1.3245;
526.5000;1.2145;1.3245;
526.8000;1.2129;1.3103;
527.1000;1.2137;1.3127;
527.4000;1.2137;1.3103;
527.7000;1.2104;1.3103;
528.0000;1.2104;1.3151;
528.3000;1.2120;1.3245;
528.6000;1.2120;1.3245;
528.9000;1.2129;1.3127;
529.2000;1.2096;1.3151;
529.5000;1.2096;1.3174;
529.8000;1.2120;1.3151;
530.1000;1.2112;1.3103;
530.4000;1.2120;1.3056;
530.7000;1.2112;1.2985;
531.0000;1.2120;1.2985;
531.3000;1.2112;1.2914;
531.6000;1.2129;1.2937;
531.9000;1.2112;1.2985;
532.2000;1.2129;1.3032;
532.5000;1.2129;1.3103;
532.8000;1.2104;1.3103;
533.1000;1.2096;1.3151;
533.4000;1.2104;1.3056;
533.7000;1.2112;1.3151;
534.0000;1.2104;1.3198;
534.3000;1.2112;1.3127;
534.6000;1.2112;1.3127;
534.9000;1.2112;1.3127;
535.2000;1.2104;1.3127;
535.5000;1.2088;1.3151;
535.8000;1.2112;1.3222;
536.1000;1.2104;1.3269;
536.4000;1.2104;1.3222;
536.7000;1.2104;1.3174;
537.0000;1.2088;1.3222;
537.3000;1.2104;1.3316;
537.6000;1.2120;1.3340;
537.9000;1.2112;1.3222;
538.2000;1.2096;1.3245;
538.5000;1.2129;1.3293;
538.8000;1.2137;1.3198;
539.1000;1.2120;1.3174;
539.4000;1.2120;1.3245;
539.7000;1.2120;1.3198;
540.0000;1.2112;1.3174;
540.3000;1.2129;1.3269;
540.6000;1.2080;1.3269;
540.9000;1.2112;1.3316;
541.2000;1.2129;1.3293;
541.5000;1.2129;1.3293;
541.8000;1.2096;1.3269;
542.1000;1.2120;1.3364;
542.4000;1.2120;1.3364;
542.7000;1.2129;1.3388;
543.0000;1.2112;1.3364;
543.3000;1.2096;1.3198;
543.6000;1.2096;1.3222;
543.9000;1.2112;1.3222;
544.2000;1.2104;1.3222;
544.5000;1.2088;1.3198;
544.8000;1.2096;1.3222;
545.1000;1.2096;1.3293;
545.4000;1.2088;1.3364;
545.7000;1.2080;1.3269;
546.0000;1.2104;1.3340;
546.3000;1.2129;1.3411;
546.6000;1.2169;1.3577;
546.9000;1.2112;1.3364;
547.2000;1.2080;1.3364;
547.5000;1.2104;1.3411;
547.8000;1.2088;1.3316;
548.1000;1.2088;1.3388;
548.4000;1.2088;1.3364;
548.7000;1.2104;1.3411;
549.0000;1.2088;1.3435;
549.3000;1.2080;1.3435;
549.6000;1.2088;1.3459;
549.9000;1.2112;1.3435;
550.2000;1.2112;1.3388;
550.5000;1.2104;1.3340;
550.8000;1.2104;1.3364;
551.1000;1.2129;1.3340;
551.4000;1.2112;1.3364;
551.7000;1.2088;1.3293;
552.0000;1.2096;1.3340;
552.3000;1.2112;1.3316;
552.6000;1.2120;1.3316;
552.9000;1.2120;1.3364;
553.2000;1.2120;1.3459;
553.5000;1.2129;1.3506;
553.8000;1.2129;1.3411;
554.1000;1.2112;1.3364;
554.4000;1.2063;1.3198;
554.7000;1.2088;1.3222;
555.0000;1.2088;1.3222;
555.3000;1.2112;1.3198;
555.6000;1.2112;1.3174;
555.9000;1.2104;1.3198;
556.2000;1.2088;1.3127;
556.5000;1.2080;1.3127;
556.8000;1.2104;1.3222;
557.1000;1.2088;1.3411;
557.4000;1.2096;1.3388;
557.7000;1.2112;1.3459;
558.0000;1.2104;1.3482;
558.3000;1.2104;1.3506;
558.6000;1.2080;1.3482;
558.9000;1.2096;1.3506;
559.2000;1.2096;1.3506;
559.5000;1.2096;1.3388;
559.8000;1.2080;1.3293;
560.1000;1.2120;1.3388;
560.4000;1.2072;1.3340;
560.7000;1.2096;1.3435;
561.0000;1.2080;1.3293;
561.3000;1.2096;1.3222;
561.6000;1.2096;1.3245;
561.9000;1.2104;1.3364;
562.2000;1.2063;1.3340;
562.5000;1.2088;1.3459;
562.8000;1.2112;1.3459;
563.1000;1.2137;1.3530;
563.4000;1.2120;1.3530;
563.7000;1.2080;1.3459;
564.0000;1.2104;1.3364;
564.3000;1.2112;1.3364;
564.6000;1.2088;1.3388;
564.9000;1.2055;1.3340;
565.2000;1.2104;1.3482;
565.5000;1.2096;1.3459;
565.8000;1.2096;1.3435;
566.1000;1.2096;1.3435;
566.4000;1.2104;1.3435;
566.7000;1.2112;1.3411;
567.0000;1.2063;1.3316;
567.3000;1.2104;1.3506;
567.6000;1.2080;1.3411;
567.9000;1.2088;1.3530;
568.2000;1.2088;1.3553;
568.5000;1.2096;1.3553;
568.8000;1.2096;1.3435;
569.1000;1.2055;1.3340;
569.4000;1.2096;1.3435;
569.7000;1.2088;1.3435;
570.0000;1.2055;1.3269;
570.3000;1.2096;1.3293;
570.6000;1.2080;1.3316;
570.9000;1.2104;1.3411;
571.2000;1.2031;1.3388;
571.5000;1.2096;1.3506;
571.8000;1.2145;1.3601;
572.1000;1.2096;1.3459;
572.4000;1.2072;1.3411;
572.7000;1.2080;1.3411;
573.0000;1.2112;1.3459;
573.3000;1.2096;1.3388;
573.6000;1.2112;1.3435;
573.9000;1.2063;1.3293;
574.2000;1.2112;1.3340;
574.5000;1.2104;1.3411;
574.8000;1.2088;1.3388;
575.1000;1.2169;1.3553;
575.4000;1.2104;1.3411;
575.7000;1.2120;1.3388;
576.0000;1.2104;1.3388;
576.3000;1.2096;1.3411;
576.6000;1.2112;1.3435;
576.9000;1.2104;1.3435;
577.2000;1.2112;1.3506;
577.5000;1.2096;1.3506;
577.8000;1.2088;1.3459;
578.1000;1.2177;1.3625;
578.4000;1.2120;1.3435;
578.7000;1.2023;1.3151;
579.0000;1.2088;1.3269;
579.3000;1.2039;1.3174;
579.6000;1.1998;1.3056;
579.9000;1.2096;1.3222;
580.2000;1.2007;1.2985;
580.5000;1.2080;1.3174;
580.8000;1.2169;1.3388;
581.1000;1.2145;1.3388;
581.4000;1.2120;1.3364;
581.7000;1.2063;1.3174;
582.0000;1.2104;1.3364;
582.3000;1.2112;1.3388;
582.6000;1.2112;1.3316;
582.9000;1.2055;1.3198;
583.2000;1.2088;1.3293;
583.5000;1.2088;1.3316;
583.8000;1.2088;1.3245;
584.1000;1.2080;1.3245;
584.4000;1.2080;1.3269;
584.7000;1.2104;1.3340;
585.0000;1.2080;1.3316;
585.3000;1.2088;1.3388;
585.6000;1.2072;1.3364;
585.9000;1.2080;1.3316;
586.2000;1.2080;1.3269;
586.5000;1.2023;1.3127;
586.8000;1.2080;1.3222;
587.1000;1.2063;1.3198;
587.4000;1.1982;1.3008;
587.7000;1.2096;1.3411;
588.0000;1.2080;1.3364;
588.3000;1.2096;1.3245;
588.6000;1.2088;1.3174;
588.9000;1.2104;1.3222;
589.2000;1.2063;1.3198;
589.5000;1.2096;1.3198;
589.8000;1.2088;1.3174;
590.1000;1.2072;1.3080;
590.4000;1.2088;1.3056;
590.7000;1.2088;1.3008;
591.0000;1.2088;1.3080;
591.3000;1.2080;1.3032;
591.6000;1.2088;1.3056;
591.9000;1.2080;1.3174;
592.2000;1.2080;1.3198;
592.5000;1.2096;1.3269;
592.8000;1.2088;1.3269;
593.1000;1.2104;1.3269;
593.4000;1.2055;1.3127;
593.7000;1.2096;1.3245;
594.0000;1.2096;1.3198;
594.3000;1.2063;1.3151;
594.6000;1.2031;1.3127;
594.9000;1.2088;1.3293;
595.2000;1.2007;1.3127;
595.5000;1.2096;1.3222;
595.8000;1.2088;1.3127;
596.1000;1.2072;1.3151;
596.4000;1.2088;1.3151;
596.7000;1.2039;1.3056;
597.0000;1.2063;1.3080;
597.3000;1.2088;1.3151;
597.6000;1.2096;1.3174;
597.9000;1.2096;1.3151;
598.2000;1.2177;1.3364;
598.5000;1.2096;1.3198;
598.8000;1.2104;1.3269;
599.1000;1.2112;1.3222;
599.4000;1.2063;1.3151;
599.7000;1.2055;1.3198;
600.0000;1.2120;1.3388;
600.3000;1.2023;1.3103;
600.6000;1.2080;1.3127;
600.9000;1.2072;1.2985;
601.2000;1.2007;1.2771;
601.5000;1.1925;1.2582;
601.8000;1.1852;1.2369;
602.1000;1.1811;1.2250;
602.4000;1.1705;1.2108;
602.7000;1.1591;1.1895;
603.0000;1.1510;1.1729;
603.3000;1.1429;1.1563;
603.6000;1.1323;1.1373;
603.9000;1.1290;1.1302;
604.2000;1.1217;1.1137;
604.5000;1.1103;1.0900;
604.8000;1.1095;1.0947;
605.1000;1.0989;1.0710;
605.4000;1.0932;1.0686;
605.7000;1.0834;1.0592;
606.0000;1.0810;1.0639;
606.3000;1.0729;1.0544;
606.6000;1.0672;1.0473;
606.9000;1.0631;1.0402;
607.2000;1.0566;1.0355;
607.5000;1.0509;1.0260;
607.8000;1.0460;1.0260;
608.1000;1.0395;1.0260;
608.4000;1.0370;1.0284;
608.7000;1.0305;1.0307;
609.0000;1.0273;1.0260;
609.3000;1.0199;1.0189;
609.6000;1.0142;1.0047;
609.9000;1.0102;1.0023;
610.2000;1.0069;0.9976;
610.5000;1.0012;0.9928;
610.8000;0.9963;0.9810;
611.1000;0.9931;0.9739;
611.4000;0.9882;0.9739;
611.7000;0.9849;0.9786;
612.0000;0.9801;0.9739;
612.3000;0.9768;0.9596;
612.6000;0.9711;0.9478;
612.9000;0.9678;0.9407;
613.2000;0.9662;0.9431;
613.5000;0.9589;0.9217;
613.8000;0.9565;0.9265;
614.1000;0.9524;0.9194;
614.4000;0.9475;0.9099;
614.7000;0.9434;0.9146;
615.0000;0.9385;0.9122;
615.3000;0.9426;0.9312;
615.6000;0.9353;0.9241;
615.9000;0.9280;0.9217;
616.2000;0.9271;0.9241;
616.5000;0.9247;0.9241;
616.8000;0.9182;0.9170;
617.1000;0.9174;0.9194;
617.4000;0.9101;0.9122;
617.7000;0.9109;0.9217;
618.0000;0.9060;0.9146;
618.3000;0.9011;0.9122;
618.6000;0.8987;0.9051;
618.9000;0.9003;0.9170;
619.2000;0.9044;0.9336;
619.5000;0.8930;0.9028;
619.8000;0.8897;0.9004;
620.1000;0.8873;0.8980;
620.4000;0.8856;0.9122;
620.7000;0.8840;0.9170;
621.0000;0.8767;0.9122;
621.3000;0.8742;0.9075;
621.6000;0.8751;0.9194;
621.9000;0.8718;0.9170;
622.2000;0.8637;0.8980;
622.5000;0.8661;0.9075;
622.8000;0.8653;0.9051;
623.1000;0.8596;0.8980;
623.4000;0.8596;0.9051;
623.7000;0.8580;0.9051;
624.0000;0.8571;0.9122;
624.3000;0.8571;0.9099;
624.6000;0.8506;0.9075;
624.9000;0.8449;0.8980;
625.2000;0.8457;0.8957;
625.5000;0.8466;0.8909;
625.8000;0.8417;0.8909;
626.1000;0.8400;0.8886;
626.4000;0.8392;0.8957;
626.7000;0.8344;0.8862;
627.0000;0.8352;0.8886;
627.3000;0.8319;0.8814;
627.6000;0.8311;0.8791;
627.9000;0.8262;0.8720;
628.2000;0.8278;0.8862;
628.5000;0.8221;0.8791;
628.8000;0.8221;0.8743;
629.1000;0.8205;0.8743;
629.4000;0.8205;0.8838;
629.7000;0.8270;0.9028;
630.0000;0.8173;0.8767;
630.3000;0.8140;0.8720;
630.6000;0.8132;0.8767;
630.9000;0.8107;0.8814;
631.2000;0.8083;0.8791;
631.5000;0.8042;0.8743;
631.8000;0.8067;0.8743;
632.1000;0.8050;0.8743;
632.4000;0.7993;0.8696;
632.7000;0.8018;0.8814;
633.0000;0.7985;0.8791;
633.3000;0.7969;0.8743;
633.6000;0.7945;0.8720;
633.9000;0.7937;0.8649;
634.2000;0.7928;0.8696;
634.5000;0.7920;0.8814;
634.8000;0.7896;0.8720;
635.1000;0.7880;0.8743;
635.4000;0.7863;0.8696;
635.7000;0.7896;0.8814;
636.0000;0.7855;0.8838;
636.3000;0.7855;0.8886;
636.6000;0.7823;0.8862;
636.9000;0.7806;0.8767;
637.2000;0.7814;0.8743;
637.5000;0.7733;0.8578;
637.8000;0.7774;0.8601;
638.1000;0.7749;0.8554;
638.4000;0.7717;0.8506;
638.7000;0.7757;0.8743;
639.0000;0.7725;0.8578;
639.3000;0.7717;0.8696;
639.6000;0.7700;0.8649;
639.9000;0.7684;0.8578;
640.2000;0.7684;0.8625;
640.5000;0.7700;0.8696;
640.8000;0.7660;0.8696;
641.1000;0.7643;0.8601;
641.4000;0.7619;0.8578;
641.7000;0.7619;0.8625;
642.0000;0.7603;0.8649;
642.3000;0.7595;0.8720;
642.6000;0.7546;0.8696;
642.9000;0.7546;0.8767;
643.2000;0.7570;0.8743;
643.5000;0.7570;0.8672;
643.8000;0.7554;0.8672;
644.1000;0.7530;0.8649;
644.4000;0.7530;0.8743;
644.7000;0.7554;0.8814;
645.0000;0.7448;0.8649;
645.3000;0.7464;0.8814;
645.6000;0.7489;0.8767;
645.9000;0.7481;0.8672;
646.2000;0.7432;0.8578;
646.5000;0.7448;0.8696;
646.8000;0.7432;0.8625;
647.1000;0.7440;0.8554;
647.4000;0.7432;0.8554;
647.7000;0.7440;0.8649;
648.0000;0.7416;0.8601;
648.3000;0.7399;0.8530;
648.6000;0.7399;0.8578;
648.9000;0.7375;0.8506;
649.2000;0.7391;0.8578;
649.5000;0.7399;0.8601;
649.8000;0.7367;0.8625;
650.1000;0.7359;0.8672;
650.4000;0.7269;0.8435;
650.7000;0.7350;0.8601;
651.0000;0.7350;0.8696;
651.3000;0.7383;0.8814;
651.6000;0.7310;0.8696;
651.9000;0.7302;0.8672;
652.2000;0.7310;0.8649;
652.5000;0.7302;0.8696;
652.8000;0.7269;0.8578;
653.1000;0.7269;0.8554;
653.4000;0.7277;0.8649;
653.7000;0.7269;0.8625;
654.0000;0.7277;0.8625;
654.3000;0.7261;0.8696;
654.6000;0.7261;0.8625;
654.9000;0.7261;0.8578;
655.2000;0.7253;0.8578;
655.5000;0.7228;0.8530;
655.8000;0.7228;0.8578;
656.1000;0.7228;0.8649;
656.4000;0.7188;0.8601;
656.7000;0.7196;0.8696;
657.0000;0.7188;0.8696;
657.3000;0.7196;0.8672;
657.6000;0.7171;0.8672;
657.9000;0.7179;0.8625;
658.2000;0.7163;0.8578;
658.5000;0.7123;0.8459;
658.8000;0.7171;0.8483;
659.1000;0.7179;0.8506;
659.4000;0.7163;0.8412;
659.7000;0.7155;0.8412;
660.0000;0.7147;0.8506;
660.3000;0.7139;0.8483;
660.6000;0.7131;0.8483;
660.9000;0.7123;0.8435;
661.2000;0.7114;0.8388;
661.5000;0.7106;0.8341;
661.8000;0.7098;0.8341;
662.1000;0.7106;0.8388;
662.4000;0.7106;0.8483;
662.7000;0.7082;0.8506;
663.0000;0.7066;0.8459;
663.3000;0.7106;0.8506;
663.6000;0.7041;0.8459;
663.9000;0.7049;0.8459;
664.2000;0.7057;0.8435;
664.5000;0.7025;0.8341;
664.8000;0.7057;0.8483;
665.1000;0.7025;0.8459;
665.4000;0.7057;0.8720;
665.7000;0.7049;0.8743;
666.0000;0.6984;0.8672;
666.3000;0.7025;0.8814;
666.6000;0.7033;0.8720;
666.9000;0.7017;0.8649;
667.2000;0.7009;0.8601;
667.5000;0.7000;0.8506;
667.8000;0.6992;0.8625;
668.1000;0.6992;0.8601;
668.4000;0.6984;0.8530;
668.7000;0.6960;0.8506;
669.0000;0.6952;0.8554;
669.3000;0.6984;0.8578;
669.6000;0.7025;0.8696;
669.9000;0.6976;0.8530;
670.2000;0.6984;0.8601;
670.5000;0.6960;0.8578;
670.8000;0.6960;0.8625;
671.1000;0.6919;0.8578;
671.4000;0.6960;0.8601;
671.7000;0.6911;0.8483;
672.0000;0.6935;0.8483;
672.3000;0.6968;0.8578;
672.6000;0.6927;0.8435;
672.9000;0.6911;0.8483;
673.2000;0.6927;0.8578;
673.5000;0.6919;0.8601;
673.8000;0.6903;0.8578;
674.1000;0.6919;0.8554;
674.4000;0.6903;0.8459;
674.7000;0.6878;0.8388;
675.0000;0.6878;0.8341;
675.3000;0.6935;0.8459;
675.6000;0.6886;0.8364;
675.9000;0.6886;0.8341;
676.2000;0.6870;0.8293;
676.5000;0.6870;0.8151;
676.8000;0.6886;0.8246;
677.1000;0.6870;0.8293;
677.4000;0.6960;0.8530;
677.7000;0.6846;0.8317;
678.0000;0.6854;0.8341;
678.3000;0.6846;0.8388;
678.6000;0.6862;0.8483;
678.9000;0.6846;0.8412;
679.2000;0.6821;0.8317;
679.5000;0.6854;0.8293;
679.8000;0.6829;0.8317;
680.1000;0.6838;0.8412;
680.4000;0.6838;0.8435;
680.7000;0.6838;0.8459;
681.0000;0.6821;0.8530;
681.3000;0.6805;0.8483;
681.6000;0.6821;0.8459;
681.9000;0.6805;0.8483;
682.2000;0.6797;0.8506;
682.5000;0.6797;0.8530;
682.8000;0.6854;0.8578;
683.1000;0.6781;0.8412;
683.4000;0.6789;0.8412;
683.7000;0.6789;0.8459;
684.0000;0.6797;0.8506;
684.3000;0.6797;0.8530;
684.6000;0.6781;0.8530;
684.9000;0.6756;0.8459;
685.2000;0.6781;0.8459;
685.5000;0.6764;0.8435;
685.8000;0.6772;0.8388;
686.1000;0.6756;0.8412;
686.4000;0.6764;0.8435;
686.7000;0.6764;0.8459;
687.0000;0.6764;0.8435;
687.3000;0.6772;0.8435;
687.6000;0.6748;0.8530;
687.9000;0.6740;0.8506;
688.2000;0.6740;0.8483;
688.5000;0.6740;0.8530;
688.8000;0.6772;0.8554;
689.1000;0.6699;0.8388;
689.4000;0.6699;0.8341;
689.7000;0.6764;0.8412;
690.0000;0.6732;0.8222;
690.3000;0.6748;0.8293;
690.6000;0.6756;0.8388;
690.9000;0.6732;0.8483;
691.2000;0.6740;0.8578;
691.5000;0.6732;0.8696;
691.8000;0.6716;0.8672;
692.1000;0.6772;0.8838;
692.4000;0.6707;0.8720;
692.7000;0.6707;0.8743;
693.0000;0.6675;0.8672;
693.3000;0.6699;0.8578;
693.6000;0.6610;0.8269;
693.9000;0.6732;0.8483;
694.2000;0.6675;0.8364;
694.5000;0.6699;0.8341;
694.8000;0.6699;0.8341;
695.1000;0.6675;0.8364;
695.4000;0.6716;0.8554;
695.7000;0.6683;0.8554;
696.0000;0.6667;0.8459;
696.3000;0.6683;0.8530;
696.6000;0.6675;0.8554;
696.9000;0.6675;0.8601;
697.2000;0.6650;0.8554;
697.5000;0.6675;0.8530;
697.8000;0.6650;0.8530;
698.1000;0.6667;0.8554;
698.4000;0.6675;0.8578;
698.7000;0.6699;0.8649;
699.0000;0.6650;0.8578;
699.3000;0.6659;0.8530;
699.6000;0.6691;0.8601;
699.9000;0.6642;0.8435;
700.2000;0.6650;0.8483;
700.5000;0.6642;0.8554;
700.8000;0.6626;0.8578;
701.1000;0.6642;0.8672;
701.4000;0.6642;0.8625;
701.7000;0.6650;0.8672;
702.0000;0.6634;0.8649;
702.3000;0.6626;0.8578;
702.6000;0.6650;0.8649;
702.9000;0.6626;0.8578;
703.2000;0.6650;0.8601;
703.5000;0.6642;0.8530;
703.8000;0.6667;0.8625;
704.1000;0.6593;0.8435;
704.4000;0.6602;0.8483;
704.7000;0.6610;0.8554;
705.0000;0.6626;0.8459;
705.3000;0.6561;0.8341;
705.6000;0.6626;0.8483;
705.9000;0.6610;0.8578;
706.2000;0.6593;0.8554;
706.5000;0.6626;0.8696;
706.8000;0.6585;0.8649;
707.1000;0.6585;0.8625;
707.4000;0.6618;0.8696;
707.7000;0.6602;0.8601;
708.0000;0.6577;0.8506;
708.3000;0.6642;0.8601;
708.6000;0.6593;0.8435;
708.9000;0.6585;0.8435;
709.2000;0.6634;0.8554;
709.5000;0.6602;0.8435;
709.8000;0.6602;0.8364;
710.1000;0.6585;0.8341;
710.4000;0.6593;0.8388;
710.7000;0.6536;0.8222;
711.0000;0.6593;0.8388;
711.3000;0.6569;0.8388;
711.6000;0.6593;0.8341;
711.9000;0.6545;0.8269;
712.2000;0.6577;0.8388;
712.5000;0.6626;0.8506;
712.8000;0.6545;0.8317;
713.1000;0.6577;0.8341;
713.4000;0.6642;0.8530;
713.7000;0.6593;0.8388;
714.0000;0.6561;0.8269;
714.3000;0.6561;0.8341;
714.6000;0.6602;0.8412;
714.9000;0.6561;0.8269;
715.2000;0.6602;0.8341;
715.5000;0.6569;0.8364;
715.8000;0.6520;0.8222;
716.1000;0.6561;0.8317;
716.4000;0.6561;0.8364;
716.7000;0.6561;0.8317;
717.0000;0.6545;0.8364;
717.3000;0.6553;0.8412;
717.6000;0.6553;0.8388;
717.9000;0.6536;0.8412;
718.2000;0.6545;0.8388;
718.5000;0.6536;0.8435;
718.8000;0.6561;0.8459;
719.1000;0.6561;0.8483;
719.4000;0.6528;0.8506;
719.7000;0.6545;0.8530;
720.0000;0.6545;0.8506;
720.3000;0.6545;0.8483;
720.6000;0.6561;0.8412;
720.9000;0.6545;0.8364;
721.2000;0.6536;0.8388;
721.5000;0.6536;0.8412;
721.8000;0.6553;0.8435;
722.1000;0.6520;0.8388;
722.4000;0.6545;0.8459;
722.7000;0.6536;0.8601;
723.0000;0.6536;0.8601;
723.3000;0.6512;0.8530;
723.6000;0.6528;0.8601;
723.9000;0.6536;0.8649;
724.2000;0.6536;0.8649;
724.5000;0.6512;0.8649;
724.8000;0.6512;0.8672;
725.1000;0.6512;0.8791;
725.4000;0.6520;0.8814;
725.7000;0.6520;0.8767;
726.0000;0.6504;0.8696;
726.3000;0.6488;0.8625;
726.6000;0.6512;0.8672;
726.9000;0.6496;0.8649;
727.2000;0.6488;0.8696;
727.5000;0.6512;0.8767;
727.8000;0.6479;0.8625;
728.1000;0.6504;0.8649;
728.4000;0.6479;0.8530;
728.7000;0.6496;0.8578;
729.0000;0.6479;0.8435;
729.3000;0.6512;0.8530;
729.6000;0.6512;0.8601;
729.9000;0.6471;0.8625;
730.2000;0.6455;0.8601;
730.5000;0.6479;0.8696;
730.8000;0.6504;0.8767;
731.1000;0.6479;0.8791;
731.4000;0.6479;0.8649;
731.7000;0.6479;0.8554;
732.0000;0.6471;0.8625;
732.3000;0.6479;0.8625;
732.6000;0.6479;0.8578;
732.9000;0.6504;0.8578;
733.2000;0.6471;0.8459;
733.5000;0.6479;0.8412;
733.8000;0.6471;0.8483;
734.1000;0.6496;0.8578;
734.4000;0.6471;0.8554;
734.7000;0.6504;0.8720;
735.0000;0.6463;0.8601;
735.3000;0.6439;0.8578;
735.6000;0.6479;0.8649;
735.9000;0.6471;0.8601;
736.2000;0.6504;0.8601;
736.5000;0.6471;0.8530;
736.8000;0.6455;0.8459;
737.1000;0.6463;0.8578;
737.4000;0.6471;0.8554;
737.7000;0.6455;0.8483;
738.0000;0.6463;0.8601;
738.3000;0.6471;0.8720;
738.6000;0.6463;0.8672;
738.9000;0.6479;0.8672;
739.2000;0.6496;0.8743;
739.5000;0.6479;0.8649;
739.8000;0.6455;0.8601;
740.1000;0.6463;0.8601;
740.4000;0.6463;0.8601;
740.7000;0.6439;0.8625;
741.0000;0.6463;0.8601;
741.3000;0.6422;0.8530;
741.6000;0.6463;0.8625;
741.9000;0.6447;0.8578;
742.2000;0.6463;0.8554;
742.5000;0.6455;0.8578;
742.8000;0.6463;0.8578;
743.1000;0.6455;0.8649;
743.4000;0.6414;0.8625;
743.7000;0.6447;0.8743;
744.0000;0.6455;0.8743;
744.3000;0.6471;0.8791;
744.6000;0.6455;0.8814;
744.9000;0.6439;0.8862;
745.2000;0.6439;0.8886;
745.5000;0.6479;0.8957;
745.8000;0.6431;0.8720;
746.1000;0.6439;0.8649;
746.4000;0.6414;0.8578;
746.7000;0.6431;0.8601;
747.0000;0.6447;0.8554;
747.3000;0.6406;0.8530;
747.6000;0.6422;0.8530;
747.9000;0.6447;0.8483;
748.2000;0.6439;0.8578;
748.5000;0.6422;0.8530;
748.8000;0.6431;0.8601;
749.1000;0.6431;0.8601;
749.4000;0.6463;0.8672;
749.7000;0.6422;0.8696;
750.0000;0.6422;0.8696;
750.3000;0.6422;0.8767;
750.6000;0.6422;0.8791;
750.9000;0.6422;0.8838;
751.2000;0.6479;0.8933;
751.5000;0.6414;0.8696;
751.8000;0.6406;0.8791;
752.1000;0.6431;0.8838;
752.4000;0.6390;0.8696;
752.7000;0.6447;0.8814;
753.0000;0.6398;0.8672;
753.3000;0.6414;0.8743;
753.6000;0.6398;0.8720;
753.9000;0.6398;0.8696;
754.2000;0.6374;0.8696;
754.5000;0.6406;0.8838;
754.8000;0.6390;0.8767;
755.1000;0.6333;0.8672;
755.4000;0.6406;0.8767;
755.7000;0.6374;0.8672;
756.0000;0.6406;0.8696;
756.3000;0.6414;0.8625;
756.6000;0.6390;0.8649;
756.9000;0.6414;0.8649;
757.2000;0.6447;0.8696;
757.5000;0.6406;0.8625;
757.8000;0.6390;0.8601;
758.1000;0.6414;0.8625;
758.4000;0.6447;0.8720;
758.7000;0.6414;0.8672;
759.0000;0.6414;0.8696;
759.3000;0.6422;0.8672;
759.6000;0.6414;0.8767;
759.9000;0.6398;0.8696;
760.2000;0.6414;0.8720;
760.5000;0.6431;0.8720;
760.8000;0.6382;0.8649;
761.1000;0.6390;0.8578;
761.4000;0.6390;0.8530;
761.7000;0.6382;0.8530;
762.0000;0.6414;0.8578;
762.3000;0.6398;0.8625;
762.6000;0.6374;0.8578;
762.9000;0.6406;0.8601;
763.2000;0.6390;0.8601;
763.5000;0.6398;0.8649;
763.8000;0.6390;0.8767;
764.1000;0.6390;0.8791;
764.4000;0.6374;0.8720;
764.7000;0.6390;0.8791;
765.0000;0.6398;0.8767;
765.3000;0.6382;0.8814;
765.6000;0.6414;0.8814;
765.9000;0.6406;0.8862;
766.2000;0.6398;0.8886;
766.5000;0.6382;0.8862;
766.8000;0.6382;0.8838;
767.1000;0.6390;0.8980;
767.4000;0.6414;0.8980;
767.7000;0.6406;0.8909;
768.0000;0.6390;0.8862;
768.3000;0.6357;0.8814;
768.6000;0.6365;0.8886;
768.9000;0.6406;0.8980;
769.2000;0.6390;0.8909;
769.5000;0.6365;0.8791;
769.8000;0.6447;0.8909;
770.1000;0.6390;0.8838;
770.4000;0.6406;0.8886;
770.7000;0.6374;0.8814;
771.0000;0.6374;0.8886;
771.3000;0.6365;0.8862;
771.6000;0.6374;0.8838;
771.9000;0.6374;0.8862;
772.2000;0.6382;0.8909;
772.5000;0.6341;0.8791;
772.8000;0.6374;0.8862;
773.1000;0.6390;0.8862;
773.4000;0.6349;0.8720;
773.7000;0.6365;0.8838;
774.0000;0.6374;0.8862;
774.3000;0.6333;0.8743;
774.6000;0.6382;0.8862;
774.9000;0.6365;0.8862;
775.2000;0.6374;0.8909;
775.5000;0.6292;0.8696;
775.8000;0.6365;0.8862;
776.1000;0.6341;0.8791;
776.4000;0.6406;0.8933;
776.7000;0.6382;0.8838;
777.0000;0.6349;0.8791;
777.3000;0.6341;0.8814;
777.6000;0.6365;0.8862;
777.9000;0.6333;0.8743;
778.2000;0.6341;0.8814;
778.5000;0.6365;0.8886;
778.8000;0.6374;0.8862;
779.1000;0.6406;0.9004;
779.4000;0.6374;0.8909;
779.7000;0.6365;0.8791;
780.0000;0.6374;0.8886;
780.3000;0.6325;0.8814;
780.6000;0.6374;0.8933;
780.9000;0.6374;0.8791;
781.2000;0.6374;0.8791;
781.5000;0.6382;0.8838;
781.8000;0.6349;0.8720;
782.1000;0.6357;0.8767;
782.4000;0.6341;0.8720;
782.7000;0.6374;0.8814;
783.0000;0.6349;0.8814;
783.3000;0.6447;0.9099;
783.6000;0.6414;0.9051;
783.9000;0.6357;0.9004;
784.2000;0.6398;0.9075;
784.5000;0.6382;0.9051;
784.8000;0.6292;0.8838;
785.1000;0.6406;0.9146;
785.4000;0.6341;0.8933;
785.7000;0.6333;0.8862;
786.0000;0.6382;0.8886;
786.3000;0.6325;0.8720;
786.6000;0.6365;0.8862;
786.9000;0.6357;0.8886;
787.2000;0.6333;0.8814;
787.5000;0.6325;0.8720;
787.8000;0.6349;0.8767;
788.1000;0.6349;0.8791;
788.4000;0.6357;0.8791;
788.7000;0.6341;0.8743;
789.0000;0.6349;0.8743;
789.3000;0.6374;0.8838;
789.6000;0.6357;0.8909;
789.9000;0.6333;0.8814;
790.2000;0.6333;0.8743;
790.5000;0.6333;0.8649;
790.8000;0.6341;0.8625;
791.1000;0.6333;0.8649;
791.4000;0.6349;0.8814;
791.7000;0.6341;0.8720;
792.0000;0.6341;0.8672;
792.3000;0.6333;0.8625;
792.6000;0.6349;0.8696;
792.9000;0.6341;0.8696;
793.2000;0.6349;0.8791;
793.5000;0.6292;0.8649;
793.8000;0.6374;0.8814;
794.1000;0.6341;0.8743;
794.4000;0.6341;0.8814;
794.7000;0.6333;0.8791;
795.0000;0.6325;0.8814;
795.3000;0.6349;0.8862;
795.6000;0.6357;0.8980;
795.9000;0.6341;0.9004;
796.2000;0.6341;0.9004;
796.5000;0.6341;0.8957;
796.8000;0.6243;0.8767;
797.1000;0.6349;0.8980;
797.4000;0.6325;0.8862;
797.7000;0.6333;0.8909;
798.0000;0.6349;0.8909;
798.3000;0.6333;0.8886;
798.6000;0.6243;0.8672;
798.9000;0.6341;0.8838;
799.2000;0.6325;0.8838;
799.5000;0.6349;0.8838;
799.8000;0.6341;0.8720;
800.1000;0.6357;0.8767;
800.4000;0.6333;0.8649;
800.7000;0.6341;0.8625;
801.0000;0.6341;0.8625;
801.3000;0.6243;0.8341;
801.6000;0.6317;0.8530;
801.9000;0.6341;0.8625;
802.2000;0.6333;0.8649;
802.5000;0.6317;0.8625;
802.8000;0.6317;0.8672;
803.1000;0.6325;0.8720;
803.4000;0.6341;0.8791;
803.7000;0.6260;0.8672;
804.0000;0.6309;0.8791;
804.3000;0.6333;0.8886;
804.6000;0.6365;0.8909;
804.9000;0.6333;0.8909;
805.2000;0.6325;0.8838;
805.5000;0.6325;0.8791;
805.8000;0.6333;0.8791;
806.1000;0.6333;0.8814;
806.4000;0.6260;0.8578;
806.7000;0.6252;0.8530;
807.0000;0.6292;0.8672;
807.3000;0.6317;0.8672;
807.6000;0.6300;0.8578;
807.9000;0.6300;0.8625;
808.2000;0.6260;0.8578;
808.5000;0.6325;0.8767;
808.8000;0.6333;0.8720;
809.1000;0.6300;0.8672;
809.4000;0.6333;0.8720;
809.7000;0.6349;0.8791;
810.0000;0.6284;0.8672;
810.3000;0.6309;0.8767;
810.6000;0.6292;0.8672;
810.9000;0.6325;0.8649;
811.2000;0.6243;0.8506;
811.5000;0.6317;0.8743;
811.8000;0.6317;0.8743;
812.1000;0.6333;0.8886;
812.4000;0.6341;0.8862;
812.7000;0.6309;0.8814;
813.0000;0.6300;0.8791;
813.3000;0.6300;0.8791;
813.6000;0.6325;0.8862;
813.9000;0.6325;0.8862;
814.2000;0.6325;0.8862;
814.5000;0.6341;0.8933;
814.8000;0.6325;0.8862;
815.1000;0.6317;0.8838;
815.4000;0.6300;0.8862;
815.7000;0.6309;0.8909;
816.0000;0.6325;0.8933;
816.3000;0.6309;0.8862;
816.6000;0.6284;0.8791;
816.9000;0.6260;0.8720;
817.2000;0.6325;0.8862;
817.5000;0.6284;0.8838;
817.8000;0.6284;0.8814;
818.1000;0.6284;0.8767;
818.4000;0.6300;0.8791;
818.7000;0.6317;0.8814;
819.0000;0.6292;0.8814;
819.3000;0.6333;0.8838;
819.6000;0.6317;0.8767;
819.9000;0.6333;0.8862;
820.2000;0.6284;0.8814;
820.5000;0.6284;0.8862;
820.8000;0.6309;0.8886;
821.1000;0.6292;0.8862;
821.4000;0.6317;0.8886;
821.7000;0.6276;0.8862;
822.0000;0.6317;0.8814;
822.3000;0.6292;0.8720;
822.6000;0.6292;0.8767;
822.9000;0.6309;0.8696;
823.2000;0.6252;0.8601;
823.5000;0.6300;0.8767;
823.8000;0.6317;0.8791;
824.1000;0.6325;0.8791;
824.4000;0.6309;0.8743;
824.7000;0.6292;0.8720;
825.0000;0.6309;0.8743;
825.3000;0.6325;0.8791;
825.6000;0.6317;0.8720;
825.9000;0.6300;0.8743;
826.2000;0.6300;0.8720;
826.5000;0.6333;0.8862;
826.8000;0.6317;0.8814;
827.1000;0.6325;0.8696;
827.4000;0.6292;0.8554;
827.7000;0.6357;0.8767;
828.0000;0.6292;0.8672;
828.3000;0.6292;0.8672;
828.6000;0.6309;0.8720;
828.9000;0.6374;0.8838;
829.2000;0.6292;0.8767;
829.5000;0.6284;0.8649;
829.8000;0.6235;0.8554;
830.1000;0.6268;0.8601;
830.4000;0.6300;0.8720;
830.7000;0.6325;0.8767;
831.0000;0.6309;0.8720;
831.3000;0.6333;0.8838;
831.6000;0.6292;0.8743;
831.9000;0.6300;0.8767;
832.2000;0.6292;0.8814;
832.5000;0.6300;0.8767;
832.8000;0.6317;0.8720;
833.1000;0.6300;0.8625;
833.4000;0.6276;0.8625;
833.7000;0.6203;0.8483;
834.0000;0.6235;0.8483;
834.3000;0.6292;0.8672;
834.6000;0.6276;0.8672;
834.9000;0.6300;0.8601;
835.2000;0.6357;0.8672;
835.5000;0.6317;0.8554;
835.8000;0.6309;0.8601;
836.1000;0.6292;0.8649;
836.4000;0.6309;0.8791;
836.7000;0.6260;0.8672;
837.0000;0.6284;0.8743;
837.3000;0.6292;0.8814;
837.6000;0.6309;0.8886;
837.9000;0.6325;0.8909;
838.2000;0.6325;0.8886;
838.5000;0.6309;0.8862;
838.8000;0.6317;0.8814;
839.1000;0.6292;0.8720;
839.4000;0.6309;0.8672;
839.7000;0.6292;0.8578;
840.0000;0.6284;0.8554;
840.3000;0.6292;0.8554;
840.6000;0.6300;0.8625;
840.9000;0.6300;0.8601;
841.2000;0.6284;0.8506;
841.5000;0.6309;0.8554;
841.8000;0.6292;0.8601;
842.1000;0.6284;0.8601;
842.4000;0.6309;0.8767;
842.7000;0.6284;0.8838;
843.0000;0.6300;0.8909;
843.3000;0.6284;0.8957;
843.6000;0.6300;0.8957;
843.9000;0.6268;0.8957;
844.2000;0.6268;0.8886;
844.5000;0.6227;0.8767;
844.8000;0.6284;0.8862;
845.1000;0.6276;0.8814;
845.4000;0.6235;0.8696;
845.7000;0.6309;0.8862;
846.0000;0.6284;0.8814;
846.3000;0.6276;0.8743;
846.6000;0.6268;0.8767;
846.9000;0.6292;0.8933;
847.2000;0.6317;0.9051;
847.5000;0.6292;0.8933;
847.8000;0.6300;0.8909;
848.1000;0.6325;0.8957;
848.4000;0.6292;0.8838;
848.7000;0.6268;0.8743;
849.0000;0.6276;0.8720;
849.3000;0.6317;0.8720;
849.6000;0.6292;0.8743;
849.9000;0.6309;0.8791;
850.2000;0.6357;0.8862;
850.5000;0.6325;0.8743;
850.8000;0.6276;0.8554;
851.1000;0.6300;0.8601;
851.4000;0.6333;0.8672;
851.7000;0.6252;0.8435;
852.0000;0.6268;0.8483;
852.3000;0.6252;0.8435;
852.6000;0.6276;0.8530;
852.9000;0.6276;0.8506;
853.2000;0.6268;0.8459;
853.5000;0.6268;0.8435;
853.8000;0.6260;0.8459;
854.1000;0.6268;0.8459;
854.4000;0.6284;0.8530;
854.7000;0.6276;0.8506;
855.0000;0.6268;0.8459;
855.3000;0.6252;0.8412;
855.6000;0.6284;0.8506;
855.9000;0.6268;0.8554;
856.2000;0.6284;0.8530;
856.5000;0.6276;0.8530;
856.8000;0.6284;0.8554;
857.1000;0.6284;0.8601;
857.4000;0.6268;0.8625;
857.7000;0.6268;0.8767;
858.0000;0.6276;0.8838;
858.3000;0.6276;0.8814;
858.6000;0.6276;0.8743;
858.9000;0.6268;0.8672;
859.2000;0.6284;0.8720;
859.5000;0.6284;0.8696;
859.8000;0.6292;0.8696;
860.1000;0.6276;0.8601;
860.4000;0.6284;0.8554;
860.7000;0.6284;0.8625;
861.0000;0.6284;0.8743;
861.3000;0.6284;0.8791;
861.6000;0.6243;0.8720;
861.9000;0.6276;0.8838;
862.2000;0.6292;0.8767;
862.5000;0.6292;0.8767;
862.8000;0.6268;0.8720;
863.1000;0.6252;0.8743;
863.4000;0.6276;0.8838;
863.7000;0.6260;0.8767;
864.0000;0.6268;0.8696;
864.3000;0.6276;0.8767;
864.6000;0.6276;0.8838;
864.9000;0.6276;0.8862;
865.2000;0.6284;0.8791;
865.5000;0.6276;0.8791;
865.8000;0.6284;0.8720;
866.1000;0.6268;0.8672;
866.4000;0.6325;0.8767;
866.7000;0.6268;0.8625;
867.0000;0.6276;0.8625;
867.3000;0.6268;0.8506;
867.6000;0.6317;0.8601;
867.9000;0.6260;0.8601;
868.2000;0.6235;0.8625;
868.5000;0.6341;0.8909;
868.8000;0.6260;0.8767;
869.1000;0.6252;0.8672;
869.4000;0.6292;0.8672;
869.7000;0.6235;0.8649;
870.0000;0.6235;0.8672;
870.3000;0.6284;0.8767;
870.6000;0.6268;0.8720;
870.9000;0.6268;0.8720;
871.2000;0.6276;0.8791;
871.5000;0.6260;0.8767;
871.8000;0.6260;0.8767;
872.1000;0.6203;0.8625;
872.4000;0.6309;0.8767;
872.7000;0.6260;0.8625;
873.0000;0.6276;0.8625;
873.3000;0.6276;0.8672;
873.6000;0.6309;0.8767;
873.9000;0.6276;0.8672;
874.2000;0.6284;0.8649;
874.5000;0.6268;0.8601;
874.8000;0.6268;0.8578;
875.1000;0.6268;0.8601;
875.4000;0.6276;0.8601;
875.7000;0.6268;0.8578;
876.0000;0.6252;0.8554;
876.3000;0.6268;0.8696;
876.6000;0.6260;0.8601;
876.9000;0.6260;0.8649;
877.2000;0.6195;0.8388;
877.5000;0.6243;0.8578;
877.8000;0.6276;0.8601;
878.1000;0.6268;0.8578;
878.4000;0.6260;0.8625;
878.7000;0.6243;0.8601;
879.0000;0.6260;0.8649;
879.3000;0.6252;0.8649;
879.6000;0.6268;0.8696;
879.9000;0.6243;0.8649;
880.2000;0.6260;0.8720;
880.5000;0.6219;0.8649;
880.8000;0.6252;0.8838;
881.1000;0.6260;0.8743;
881.4000;0.6260;0.8791;
881.7000;0.6243;0.8791;
882.0000;0.6235;0.8743;
882.3000;0.6300;0.8767;
882.6000;0.6268;0.8672;
882.9000;0.6284;0.8743;
883.2000;0.6252;0.8720;
883.5000;0.6243;0.8649;
883.8000;0.6276;0.8767;
884.1000;0.6260;0.8791;
884.4000;0.6268;0.8862;
884.7000;0.6268;0.8862;
885.0000;0.6252;0.8957;
885.3000;0.6260;0.8886;
885.6000;0.6276;0.8886;
885.9000;0.6268;0.8838;
886.2000;0.6268;0.8838;
886.5000;0.6268;0.8838;
886.8000;0.6243;0.8672;
887.1000;0.6276;0.8791;
887.4000;0.6260;0.8791;
887.7000;0.6260;0.8886;
888.0000;0.6268;0.9004;
888.3000;0.6260;0.8980;
888.6000;0.6252;0.8980;
888.9000;0.6268;0.9028;
889.2000;0.6252;0.9004;
889.5000;0.6309;0.9194;
889.8000;0.6235;0.9051;
890.1000;0.6252;0.9099;
890.4000;0.6195;0.9028;
890.7000;0.6252;0.9075;
891.0000;0.6243;0.8980;
891.3000;0.6268;0.9028;
891.6000;0.6219;0.8909;
891.9000;0.6252;0.8886;
892.2000;0.6260;0.8814;
892.5000;0.6260;0.8791;
892.8000;0.6341;0.8933;
893.1000;0.6276;0.8743;
893.4000;0.6260;0.8720;
893.7000;0.6252;0.8625;
894.0000;0.6260;0.8578;
894.3000;0.6252;0.8554;
894.6000;0.6252;0.8506;
894.9000;0.6243;0.8506;
895.2000;0.6235;0.8578;
895.5000;0.6268;0.8672;
895.8000;0.6243;0.8649;
896.1000;0.6243;0.8649;
896.4000;0.6292;0.8814;
896.7000;0.6268;0.8767;
897.0000;0.6243;0.8696;
897.3000;0.6268;0.8720;
897.6000;0.6268;0.8767;
897.9000;0.6252;0.8814;
898.2000;0.6276;0.8814;
898.5000;0.6276;0.8933;
898.8000;0.6317;0.8980;
899.1000;0.6260;0.8838;
899.4000;0.6284;0.8814;
899.7000;0.6260;0.8720;
900.0000;0.6252;0.8672;
900.3000;0.6268;0.8720;
900.6000;0.6268;0.8720;
900.9000;0.6243;0.8649;
901.2000;0.6227;0.8672;
901.5000;0.6178;0.8530;
901.8000;0.6252;0.8696;
902.1000;0.6186;0.8554;
902.4000;0.6252;0.8791;
902.7000;0.6243;0.8791;
903.0000;0.6252;0.8767;
903.3000;0.6243;0.8696;
903.6000;0.6235;0.8649;
903.9000;0.6243;0.8720;
904.2000;0.6227;0.8696;
904.5000;0.6243;0.8672;
904.8000;0.6235;0.8720;
905.1000;0.6227;0.8696;
905.4000;0.6243;0.8720;
905.7000;0.6268;0.8791;
906.0000;0.6260;0.8838;
906.3000;0.6252;0.8862;
906.6000;0.6260;0.8886;
906.9000;0.6268;0.8957;
907.2000;0.6243;0.8980;
907.5000;0.6276;0.8980;
907.8000;0.6178;0.8743;
908.1000;0.6252;0.8838;
908.4000;0.6260;0.8862;
908.7000;0.6243;0.8838;
909.0000;0.6252;0.8743;
909.3000;0.6243;0.8720;
909.6000;0.6243;0.8791;
909.9000;0.6260;0.8720;
910.2000;0.6252;0.8696;
910.5000;0.6252;0.8625;
910.8000;0.6276;0.8672;
911.1000;0.6243;0.8435;
911.4000;0.6252;0.8483;
911.7000;0.6227;0.8554;
912.0000;0.6243;0.8625;
912.3000;0.6243;0.8696;
912.6000;0.6300;0.8886;
912.9000;0.6252;0.8767;
913.2000;0.6260;0.8838;
913.5000;0.6243;0.8743;
913.8000;0.6252;0.8672;
914.1000;0.6219;0.8649;
914.4000;0.6252;0.8767;
914.7000;0.6317;0.8909;
915.0000;0.6252;0.8743;
915.3000;0.6276;0.8743;
915.6000;0.6243;0.8672;
915.9000;0.6235;0.8672;
916.2000;0.6243;0.8696;
916.5000;0.6235;0.8672;
916.8000;0.6243;0.8720;
917.1000;0.6260;0.8720;
917.4000;0.6243;0.8743;
917.7000;0.6252;0.8720;
918.0000;0.6252;0.8814;
918.3000;0.6268;0.8909;
918.6000;0.6243;0.8909;
918.9000;0.6243;0.8886;
919.2000;0.6235;0.8862;
919.5000;0.6235;0.8814;
919.8000;0.6260;0.8767;
920.1000;0.6252;0.8672;
920.4000;0.6235;0.8649;
920.7000;0.6186;0.8530;
921.0000;0.6243;0.8672;
921.3000;0.6227;0.8743;
921.6000;0.6252;0.8838;
921.9000;0.6235;0.8791;
922.2000;0.6252;0.8743;
922.5000;0.6276;0.8886;
922.8000;0.6252;0.8886;
923.1000;0.6260;0.8886;
923.4000;0.6243;0.8838;
923.7000;0.6252;0.8814;
924.0000;0.6227;0.8743;
924.3000;0.6252;0.8743;
924.6000;0.6252;0.8767;
924.9000;0.6243;0.8791;
925.2000;0.6235;0.8862;
925.5000;0.6243;0.8862;
925.8000;0.6243;0.8886;
926.1000;0.6260;0.8909;
926.4000;0.6219;0.8814;
926.7000;0.6235;0.8791;
927.0000;0.6235;0.8814;
927.3000;0.6243;0.8886;
927.6000;0.6252;0.8933;
927.9000;0.6276;0.9028;
928.2000;0.6268;0.9051;
928.5000;0.6260;0.8957;
928.8000;0.6252;0.8886;
929.1000;0.6235;0.8886;
929.4000;0.6243;0.8886;
929.7000;0.6260;0.8980;
930.0000;0.6268;0.9004;
930.3000;0.6178;0.8791;
930.6000;0.6260;0.8933;
930.9000;0.6260;0.9028;
931.2000;0.6268;0.8957;
931.5000;0.6252;0.8957;
931.8000;0.6252;0.8980;
932.1000;0.6235;0.9004;
932.4000;0.6260;0.8957;
932.7000;0.6219;0.8791;
933.0000;0.6252;0.8838;
933.3000;0.6252;0.8886;
933.6000;0.6252;0.8838;
933.9000;0.6276;0.8886;
934.2000;0.6260;0.8886;
934.5000;0.6268;0.8909;
934.8000;0.6219;0.8886;
935.1000;0.6243;0.8933;
935.4000;0.6235;0.8838;
935.7000;0.6276;0.8886;
936.0000;0.6195;0.8672;
936.3000;0.6252;0.8743;
936.6000;0.6211;0.8625;
936.9000;0.6219;0.8743;
937.2000;0.6243;0.8814;
937.5000;0.6252;0.8814;
937.8000;0.6235;0.8814;
938.1000;0.6203;0.8720;
938.4000;0.6235;0.8814;
938.7000;0.6243;0.8814;
939.0000;0.6154;0.8506;
939.3000;0.6235;0.8672;
939.6000;0.6252;0.8672;
939.9000;0.6235;0.8649;
940.2000;0.6235;0.8696;
940.5000;0.6227;0.8743;
940.8000;0.6252;0.8814;
941.1000;0.6211;0.8743;
941.4000;0.6252;0.8838;
941.7000;0.6252;0.8814;
942.0000;0.6227;0.8838;
942.3000;0.6227;0.8886;
942.6000;0.6227;0.8886;
942.9000;0.6235;0.8886;
943.2000;0.6219;0.8838;
943.5000;0.6260;0.8909;
943.8000;0.6243;0.8862;
944.1000;0.6260;0.8814;
944.4000;0.6252;0.8814;
944.7000;0.6292;0.8838;
945.0000;0.6252;0.8767;
945.3000;0.6260;0.8791;
945.6000;0.6252;0.8838;
945.9000;0.6252;0.8791;
946.2000;0.6227;0.8838;
946.5000;0.6203;0.8886;
946.8000;0.6260;0.8957;
947.1000;0.6243;0.8957;
947.4000;0.6178;0.8791;
947.7000;0.6300;0.9004;
948.0000;0.6235;0.8791;
948.3000;0.6235;0.8814;
948.6000;0.6211;0.8814;
948.9000;0.6235;0.8767;
949.2000;0.6235;0.8767;
949.5000;0.6227;0.8767;
949.8000;0.6170;0.8625;
950.1000;0.6211;0.8791;
950.4000;0.6235;0.8933;
950.7000;0.6268;0.8980;
951.0000;0.6252;0.8933;
951.3000;0.6227;0.8909;
951.6000;0.6243;0.8933;
951.9000;0.6243;0.8909;
952.2000;0.6243;0.8909;
952.5000;0.6252;0.8886;
952.8000;0.6252;0.8933;
953.1000;0.6243;0.8886;
953.4000;0.6243;0.8814;
953.7000;0.6235;0.8791;
954.0000;0.6235;0.8909;
954.3000;0.6227;0.8909;
954.6000;0.6260;0.8886;
954.9000;0.6235;0.8767;
955.2000;0.6235;0.8743;
955.5000;0.6260;0.8909;
955.8000;0.6235;0.8909;
956.1000;0.6252;0.9028;
956.4000;0.6235;0.9051;
956.7000;0.6235;0.9004;
957.0000;0.6235;0.9051;
957.3000;0.6235;0.9051;
957.6000;0.6252;0.9028;
957.9000;0.6276;0.9099;
958.2000;0.6227;0.9051;
958.5000;0.6219;0.9004;
958.8000;0.6227;0.9075;
959.1000;0.6243;0.9099;
959.4000;0.6227;0.9075;
959.7000;0.6243;0.9146;
960.0000;0.6268;0.9217;
960.3000;0.6203;0.9099;
960.6000;0.6276;0.9241;
960.9000;0.6260;0.9170;
961.2000;0.6235;0.9099;
961.5000;0.6219;0.9051;
961.8000;0.6227;0.9004;
962.1000;0.6227;0.8933;
962.4000;0.6325;0.9194;
962.7000;0.6219;0.9028;
963.0000;0.6292;0.9241;
963.3000;0.6186;0.8838;
963.6000;0.6243;0.8957;
963.9000;0.6260;0.9028;
964.2000;0.6243;0.8980;
964.5000;0.6219;0.8957;
964.8000;0.6243;0.9028;
965.1000;0.6243;0.9051;
965.4000;0.6178;0.8933;
965.7000;0.6235;0.9028;
966.0000;0.6252;0.9051;
966.3000;0.6178;0.8957;
966.6000;0.6219;0.9099;
966.9000;0.6243;0.9122;
967.2000;0.6235;0.9099;
967.5000;0.6211;0.9051;
967.8000;0.6211;0.9004;
968.1000;0.6235;0.8957;
968.4000;0.6243;0.8933;
968.7000;0.6243;0.8886;
969.0000;0.6219;0.8814;
969.3000;0.6243;0.8838;
969.6000;0.6227;0.8886;
969.9000;0.6235;0.8838;
970.2000;0.6178;0.8672;
970.5000;0.6235;0.8838;
970.8000;0.6235;0.8933;
971.1000;0.6235;0.8886;
971.4000;0.6243;0.8980;
971.7000;0.6243;0.8957;
972.0000;0.6243;0.8957;
972.3000;0.6243;0.8886;
972.6000;0.6227;0.8862;
972.9000;0.6227;0.8862;
973.2000;0.6129;0.8601;
973.5000;0.6227;0.8838;
973.8000;0.6243;0.8791;
974.1000;0.6219;0.8791;
974.4000;0.6235;0.8838;
974.7000;0.6227;0.8814;
975.0000;0.6235;0.8743;
975.3000;0.6235;0.8696;
975.6000;0.6227;0.8743;
975.9000;0.6235;0.8743;
976.2000;0.6235;0.8649;
976.5000;0.6219;0.8625;
976.8000;0.6243;0.8625;
977.1000;0.6235;0.8625;
977.4000;0.6227;0.8625;
977.7000;0.6195;0.8625;
978.0000;0.6235;0.8838;
978.3000;0.6284;0.9004;
978.6000;0.6252;0.8957;
978.9000;0.6235;0.8838;
979.2000;0.6219;0.8791;
979.5000;0.6227;0.8862;
979.8000;0.6219;0.8957;
980.1000;0.6235;0.8957;
980.4000;0.6203;0.8838;
980.7000;0.6252;0.8909;
981.0000;0.6227;0.8838;
981.3000;0.6235;0.8791;
981.6000;0.6235;0.8838;
981.9000;0.6252;0.8838;
982.2000;0.6260;0.8838;
982.5000;0.6252;0.8743;
982.8000;0.6276;0.8862;
983.1000;0.6235;0.8886;
983.4000;0.6284;0.9004;
983.7000;0.6260;0.8980;
984.0000;0.6227;0.8862;
984.3000;0.6252;0.8957;
984.6000;0.6203;0.8814;
984.9000;0.6227;0.8909;
985.2000;0.6235;0.8909;
985.5000;0.6235;0.8886;
985.8000;0.6227;0.8838;
986.1000;0.6243;0.8909;
986.4000;0.6219;0.8933;
986.7000;0.6227;0.8933;
987.0000;0.6235;0.8933;
987.3000;0.6243;0.8909;
987.6000;0.6243;0.8862;
987.9000;0.6243;0.8791;
988.2000;0.6211;0.8838;
988.5000;0.6227;0.8933;
988.8000;0.6203;0.8909;
989.1000;0.6235;0.9051;
989.4000;0.6219;0.9122;
989.7000;0.6219;0.9170;
990.0000;0.6219;0.9217;
990.3000;0.6235;0.9170;
990.6000;0.6227;0.9051;
990.9000;0.6252;0.9075;
991.2000;0.6235;0.9051;
991.5000;0.6227;0.9146;
991.8000;0.6317;0.9336;
992.1000;0.6203;0.9004;
992.4000;0.6227;0.9004;
992.7000;0.6219;0.9004;
993.0000;0.6227;0.9028;
993.3000;0.6211;0.8909;
993.6000;0.6219;0.8980;
993.9000;0.6235;0.8957;
994.2000;0.6252;0.9099;
994.5000;0.6219;0.8957;
994.8000;0.6219;0.9004;
995.1000;0.6219;0.9004;
995.4000;0.6219;0.8980;
995.7000;0.6243;0.9004;
996.0000;0.6235;0.8980;
996.3000;0.6211;0.8886;
996.6000;0.6235;0.8933;
996.9000;0.6211;0.8814;
997.2000;0.6227;0.8862;
997.5000;0.6227;0.8814;
997.8000;0.6203;0.8814;
998.1000;0.6235;0.8909;
998.4000;0.6211;0.9004;
998.7000;0.6235;0.8957;
999.0000;0.6219;0.8933;
999.3000;0.6203;0.8909;
999.6000;0.6211;0.8957;
999.9000;0.6219;0.9004;
1000.2000;0.6219;0.9004;
1000.5000;0.6195;0.9051;
1000.8000;0.6219;0.9051;
1001.1000;0.6219;0.9051;
1001.4000;0.6227;0.9028;
1001.7000;0.6219;0.8957;
1002.0000;0.6219;0.8862;
1002.3000;0.6235;0.8862;
1002.6000;0.6227;0.8814;
1002.9000;0.6219;0.8838;
1003.2000;0.6219;0.8720;
1003.5000;0.6219;0.8767;
1003.8000;0.6260;0.8814;
1004.1000;0.6227;0.8672;
1004.4000;0.6211;0.8672;
1004.7000;0.6227;0.8767;
1005.0000;0.6211;0.8814;
1005.3000;0.6309;0.8957;
1005.6000;0.6292;0.9004;
1005.9000;0.6235;0.8957;
1006.2000;0.6211;0.8933;
1006.5000;0.6227;0.9004;
1006.8000;0.6211;0.8933;
1007.1000;0.6227;0.9075;
1007.4000;0.6243;0.9146;
1007.7000;0.6260;0.9170;
1008.0000;0.6235;0.9051;
1008.3000;0.6219;0.8933;
1008.6000;0.6219;0.8933;
1008.9000;0.6252;0.8980;
1009.2000;0.6235;0.8909;
1009.5000;0.6227;0.8838;
1009.8000;0.6227;0.8838;
1010.1000;0.6227;0.8791;
1010.4000;0.6219;0.8814;
1010.7000;0.6252;0.8862;
1011.0000;0.6243;0.8909;
1011.3000;0.6243;0.8886;
1011.6000;0.6268;0.8957;
1011.9000;0.6243;0.8909;
1012.2000;0.6252;0.8980;
1012.5000;0.6235;0.8909;
1012.8000;0.6227;0.8886;
1013.1000;0.6235;0.8933;
1013.4000;0.6227;0.8791;
1013.7000;0.6219;0.8743;
1014.0000;0.6219;0.8886;
1014.3000;0.6138;0.8672;
1014.6000;0.6219;0.8886;
1014.9000;0.6227;0.8980;
1015.2000;0.6154;0.8791;
1015.5000;0.6211;0.8814;
1015.8000;0.6211;0.8814;
1016.1000;0.6219;0.8814;
1016.4000;0.6227;0.8886;
1016.7000;0.6219;0.8933;
1017.0000;0.6235;0.8933;
1017.3000;0.6170;0.8625;
1017.6000;0.6211;0.8886;
1017.9000;0.6211;0.8862;
1018.2000;0.6219;0.8767;
1018.5000;0.6211;0.8720;
1018.8000;0.6219;0.8720;
1019.1000;0.6219;0.8743;
1019.4000;0.6227;0.8814;
1019.7000;0.6211;0.8696;
1020.0000;0.6211;0.8767;
1020.3000;0.6195;0.8791;
1020.6000;0.6252;0.8886;
1020.9000;0.6219;0.8814;
1021.2000;0.6219;0.8743;
1021.5000;0.6235;0.8791;
1021.8000;0.6227;0.8696;
1022.1000;0.6227;0.8696;
1022.4000;0.6211;0.8720;
1022.7000;0.6284;0.8838;
1023.0000;0.6243;0.8696;
1023.3000;0.6211;0.8625;
1023.6000;0.6235;0.8767;
1023.9000;0.6219;0.8743;
1024.2000;0.6284;0.8909;
1024.5000;0.6211;0.8743;
1024.8000;0.6211;0.8696;
1025.1000;0.6211;0.8696;
1025.4000;0.6219;0.8696;
1025.7000;0.6195;0.8672;
1026.0000;0.6219;0.8791;
1026.3000;0.6235;0.8909;
1026.6000;0.6219;0.8862;
1026.9000;0.6219;0.8743;
1027.2000;0.6252;0.8720;
1027.5000;0.6227;0.8672;
1027.8000;0.6219;0.8625;
1028.1000;0.6219;0.8720;
1028.4000;0.6195;0.8767;
1028.7000;0.6219;0.8862;
1029.0000;0.6219;0.8862;
1029.3000;0.6219;0.8862;
1029.6000;0.6227;0.8909;
1029.9000;0.6219;0.8814;
1030.2000;0.6219;0.8696;
1030.5000;0.6219;0.8814;
1030.8000;0.6219;0.8886;
1031.1000;0.6243;0.8933;
1031.4000;0.6211;0.8791;
1031.7000;0.6219;0.8838;
1032.0000;0.6235;0.8980;
1032.3000;0.6235;0.8933;
1032.6000;0.6227;0.8862;
1032.9000;0.6333;0.9075;
1033.2000;0.6268;0.8838;
1033.5000;0.6227;0.8743;
1033.8000;0.6162;0.8696;
1034.1000;0.6219;0.8767;
1034.4000;0.6211;0.8720;
1034.7000;0.6219;0.8767;
1035.0000;0.6219;0.8767;
1035.3000;0.6252;0.8862;
1035.6000;0.6219;0.8814;
1035.9000;0.6252;0.8838;
1036.2000;0.6227;0.8720;
1036.5000;0.6243;0.8743;
1036.8000;0.6243;0.8814;
1037.1000;0.6227;0.8838;
1037.4000;0.6227;0.8933;
1037.7000;0.6203;0.8767;
1038.0000;0.6227;0.8767;
1038.3000;0.6235;0.8838;
1038.6000;0.6235;0.8814;
1038.9000;0.6219;0.8791;
1039.2000;0.6235;0.8838;
1039.5000;0.6219;0.8862;
1039.8000;0.6227;0.8838;
1040.1000;0.6219;0.8838;
1040.4000;0.6203;0.8791;
1040.7000;0.6203;0.8767;
1041.0000;0.6219;0.8791;
1041.3000;0.6227;0.8696;
1041.6000;0.6219;0.8649;
1041.9000;0.6227;0.8672;
1042.2000;0.6219;0.8601;
1042.5000;0.6211;0.8554;
1042.8000;0.6243;0.8672;
1043.1000;0.6219;0.8578;
1043.4000;0.6227;0.8672;
1043.7000;0.6219;0.8743;
1044.0000;0.6227;0.8814;
1044.3000;0.6211;0.8886;
1044.6000;0.6235;0.8886;
1044.9000;0.6219;0.8814;
1045.2000;0.6227;0.8862;
1045.5000;0.6186;0.8743;
1045.8000;0.6203;0.8791;
1046.1000;0.6219;0.8838;
1046.4000;0.6211;0.8767;
1046.7000;0.6170;0.8696;
1047.0000;0.6260;0.8909;
1047.3000;0.6235;0.8743;
1047.6000;0.6243;0.8767;
1047.9000;0.6227;0.8696;
1048.2000;0.6227;0.8696;
1048.5000;0.6219;0.8696;
1048.8000;0.6195;0.8649;
1049.1000;0.6211;0.8554;
1049.4000;0.6195;0.8483;
1049.7000;0.6260;0.8601;
1050.0000;0.6252;0.8506;
1050.3000;0.6284;0.8578;
1050.6000;0.6186;0.8269;
1050.9000;0.6235;0.8317;
1051.2000;0.6203;0.8222;
1051.5000;0.6227;0.8412;
1051.8000;0.6219;0.8412;
1052.1000;0.6186;0.8388;
1052.4000;0.6195;0.8364;
1052.7000;0.6170;0.8317;
1053.0000;0.6195;0.8412;
1053.3000;0.6219;0.8506;
1053.6000;0.6227;0.8601;
1053.9000;0.6268;0.8791;
1054.2000;0.6203;0.8672;
1054.5000;0.6195;0.8672;
1054.8000;0.6284;0.8886;
1055.1000;0.6195;0.8720;
1055.4000;0.6195;0.8649;
1055.7000;0.6203;0.8696;
1056.0000;0.6260;0.8791;
1056.3000;0.6219;0.8743;
1056.6000;0.6178;0.8554;
1056.9000;0.6219;0.8625;
1057.2000;0.6203;0.8601;
1057.5000;0.6219;0.8649;
1057.8000;0.6235;0.8838;
1058.1000;0.6203;0.8814;
1058.4000;0.6219;0.8886;
1058.7000;0.6219;0.8862;
1059.0000;0.6219;0.8909;
1059.3000;0.6235;0.8909;
1059.6000;0.6219;0.8862;
1059.9000;0.6211;0.8886;
1060.2000;0.6211;0.8862;
1060.5000;0.6211;0.8838;
1060.8000;0.6219;0.8886;
1061.1000;0.6211;0.8838;
1061.4000;0.6227;0.8838;
1061.7000;0.6276;0.8886;
1062.0000;0.6219;0.8743;
1062.3000;0.6154;0.8601;
1062.6000;0.6219;0.8696;
1062.9000;0.6243;0.8720;
1063.2000;0.6211;0.8720;
1063.5000;0.6211;0.8791;
1063.8000;0.6219;0.8791;
1064.1000;0.6219;0.8767;
1064.4000;0.6268;0.8957;
1064.7000;0.6219;0.8957;
1065.0000;0.6211;0.8886;
1065.3000;0.6178;0.8791;
1065.6000;0.6243;0.8933;
1065.9000;0.6219;0.8886;
1066.2000;0.6211;0.8886;
1066.5000;0.6227;0.8957;
1066.8000;0.6235;0.8957;
1067.1000;0.6186;0.8838;
1067.4000;0.6186;0.8862;
1067.7000;0.6178;0.8791;
1068.0000;0.6203;0.8909;
1068.3000;0.6203;0.8909;
1068.6000;0.6211;0.9028;
1068.9000;0.6211;0.9028;
1069.2000;0.6203;0.8909;
1069.5000;0.6219;0.8814;
1069.8000;0.6211;0.8791;
1070.1000;0.6211;0.8814;
1070.4000;0.6243;0.8862;
1070.7000;0.6203;0.8838;
1071.0000;0.6186;0.8886;
1071.3000;0.6211;0.8933;
1071.6000;0.6211;0.8886;
1071.9000;0.6195;0.8767;
1072.2000;0.6276;0.9004;
1072.5000;0.6195;0.8838;
1072.8000;0.6195;0.8933;
1073.1000;0.6211;0.9004;
1073.4000;0.6186;0.8933;
1073.7000;0.6227;0.8957;
1074.0000;0.6227;0.8862;
1074.3000;0.6211;0.8696;
1074.6000;0.6170;0.8696;
1074.9000;0.6292;0.9051;
1075.2000;0.6186;0.8862;
1075.5000;0.6178;0.8791;
1075.8000;0.6211;0.8909;
1076.1000;0.6195;0.8862;
1076.4000;0.6219;0.8980;
1076.7000;0.6195;0.8909;
1077.0000;0.6227;0.9051;
1077.3000;0.6203;0.9075;
1077.6000;0.6243;0.9194;
1077.9000;0.6243;0.9194;
1078.2000;0.6195;0.9075;
1078.5000;0.6227;0.9004;
1078.8000;0.6252;0.9051;
1079.1000;0.6186;0.8933;
1079.4000;0.6292;0.9146;
1079.7000;0.6203;0.8980;
1080.0000;0.6211;0.8980;
1080.3000;0.6195;0.8957;
1080.6000;0.6219;0.8933;
1080.9000;0.6243;0.9004;
1081.2000;0.6219;0.8933;
1081.5000;0.6219;0.8909;
1081.8000;0.6227;0.8980;
1082.1000;0.6203;0.9004;
1082.4000;0.6243;0.9099;
1082.7000;0.6219;0.8957;
1083.0000;0.6211;0.8862;
1083.3000;0.6211;0.8838;
1083.6000;0.6227;0.8957;
1083.9000;0.6203;0.8838;
1084.2000;0.6195;0.8838;
1084.5000;0.6227;0.8957;
1084.8000;0.6227;0.9004;
1085.1000;0.6203;0.8933;
1085.4000;0.6162;0.8767;
1085.7000;0.6219;0.8980;
1086.0000;0.6243;0.9051;
1086.3000;0.6211;0.8933;
1086.6000;0.6227;0.8957;
1086.9000;0.6203;0.9028;
1087.2000;0.6203;0.9122;
1087.5000;0.6203;0.9075;
1087.8000;0.6203;0.9028;
1088.1000;0.6186;0.8957;
1088.4000;0.6219;0.8980;
1088.7000;0.6211;0.8933;
1089.0000;0.6203;0.8933;
1089.3000;0.6243;0.9004;
1089.6000;0.6186;0.8886;
1089.9000;0.6211;0.8933;
1090.2000;0.6203;0.8933;
1090.5000;0.6219;0.8838;
1090.8000;0.6219;0.8791;
1091.1000;0.6243;0.8886;
1091.4000;0.6219;0.8886;
1091.7000;0.6203;0.8838;
1092.0000;0.6292;0.8957;
1092.3000;0.6203;0.8696;
1092.6000;0.6211;0.8720;
1092.9000;0.6203;0.8743;
1093.2000;0.6211;0.8767;
1093.5000;0.6219;0.8743;
1093.8000;0.6219;0.8767;
1094.1000;0.6252;0.8814;
1094.4000;0.6203;0.8696;
1094.7000;0.6219;0.8649;
1095.0000;0.6227;0.8743;
1095.3000;0.6260;0.8838;
1095.6000;0.6219;0.8767;
1095.9000;0.6227;0.8791;
1096.2000;0.6211;0.8720;
1096.5000;0.6211;0.8814;
1096.8000;0.6203;0.8838;
1097.1000;0.6227;0.8909;
1097.4000;0.6219;0.8862;
1097.7000;0.6252;0.8862;
1098.0000;0.6203;0.8767;
1098.3000;0.6203;0.8814;
1098.6000;0.6211;0.8814;
1098.9000;0.6170;0.8672;
1099.2000;0.6186;0.8649;
1099.5000;0.6203;0.8672;
1099.8000;0.6211;0.8743;
1100.1000;0.6235;0.8838;
1100.4000;0.6186;0.8672;
1100.7000;0.6195;0.8672;
1101.0000;0.6203;0.8720;
1101.3000;0.6227;0.8814;
1101.6000;0.6211;0.8672;
1101.9000;0.6211;0.8743;
1102.2000;0.6219;0.8720;
1102.5000;0.6219;0.8672;
1102.8000;0.6203;0.8625;
1103.1000;0.6211;0.8649;
1103.4000;0.6211;0.8649;
1103.7000;0.6211;0.8649;
1104.0000;0.6203;0.8696;
1104.3000;0.6235;0.8743;
1104.6000;0.6211;0.8767;
1104.9000;0.6219;0.8696;
1105.2000;0.6203;0.8625;
1105.5000;0.6195;0.8578;
1105.8000;0.6195;0.8649;
1106.1000;0.6203;0.8720;
1106.4000;0.6211;0.8791;
1106.7000;0.6203;0.8838;
1107.0000;0.6211;0.8933;
1107.3000;0.6203;0.8886;
1107.6000;0.6219;0.8980;
1107.9000;0.6211;0.8814;
1108.2000;0.6211;0.8767;
1108.5000;0.6219;0.8743;
1108.8000;0.6203;0.8862;
1109.1000;0.6195;0.8791;
1109.4000;0.6162;0.8672;
1109.7000;0.6195;0.8791;
1110.0000;0.6203;0.8767;
1110.3000;0.6195;0.8720;
1110.6000;0.6211;0.8696;
1110.9000;0.6186;0.8696;
1111.2000;0.6195;0.8767;
1111.5000;0.6203;0.8791;
1111.8000;0.6211;0.8814;
1112.1000;0.6211;0.8862;
1112.4000;0.6195;0.8838;
1112.7000;0.6195;0.8838;
1113.0000;0.6186;0.8862;
1113.3000;0.6227;0.8957;
1113.6000;0.6203;0.8838;
1113.9000;0.6235;0.8862;
1114.2000;0.6203;0.8743;
1114.5000;0.6203;0.8625;
1114.8000;0.6203;0.8696;
1115.1000;0.6235;0.8838;
1115.4000;0.6243;0.8886;
1115.7000;0.6178;0.8720;
1116.0000;0.6186;0.8743;
1116.3000;0.6138;0.8578;
1116.6000;0.6203;0.8696;
1116.9000;0.6162;0.8696;
1117.2000;0.6203;0.8743;
1117.5000;0.6203;0.8720;
1117.8000;0.6219;0.8791;
1118.1000;0.6203;0.8791;
1118.4000;0.6186;0.8743;
1118.7000;0.6178;0.8767;
1119.0000;0.6186;0.8696;
1119.3000;0.6203;0.8767;
1119.6000;0.6219;0.8838;
1119.9000;0.6219;0.8886;
1120.2000;0.6211;0.8838;
1120.5000;0.6211;0.8862;
1120.8000;0.6219;0.8909;
1121.1000;0.6178;0.8862;
1121.4000;0.6219;0.8862;
1121.7000;0.6162;0.8743;
1122.0000;0.6211;0.8862;
1122.3000;0.6195;0.8862;
1122.6000;0.6203;0.8814;
1122.9000;0.6146;0.8554;
1123.2000;0.6203;0.8767;
1123.5000;0.6211;0.8791;
1123.8000;0.6178;0.8720;
1124.1000;0.6227;0.8838;
1124.4000;0.6211;0.8838;
1124.7000;0.6211;0.8814;
1125.0000;0.6211;0.8838;
1125.3000;0.6227;0.8814;
1125.6000;0.6235;0.8838;
1125.9000;0.6211;0.8862;
1126.2000;0.6211;0.8909;
1126.5000;0.6211;0.8980;
1126.8000;0.6219;0.9075;
1127.1000;0.6219;0.9122;
1127.4000;0.6203;0.9051;
1127.7000;0.6211;0.9028;
1128.0000;0.6203;0.8957;
1128.3000;0.6219;0.9004;
1128.6000;0.6211;0.8909;
1128.9000;0.6203;0.8743;
1129.2000;0.6227;0.8767;
1129.5000;0.6203;0.8696;
1129.8000;0.6211;0.8767;
1130.1000;0.6203;0.8743;
1130.4000;0.6178;0.8672;
1130.7000;0.6227;0.8767;
1131.0000;0.6211;0.8791;
1131.3000;0.6268;0.8957;
1131.6000;0.6227;0.8957;
1131.9000;0.6235;0.8886;
1132.2000;0.6203;0.8743;
1132.5000;0.6195;0.8720;
1132.8000;0.6227;0.8743;
1133.1000;0.6211;0.8720;
1133.4000;0.6219;0.8791;
1133.7000;0.6219;0.8743;
1134.0000;0.6195;0.8720;
1134.3000;0.6203;0.8720;
1134.6000;0.6203;0.8814;
1134.9000;0.6203;0.8838;
1135.2000;0.6203;0.8862;
1135.5000;0.6211;0.8862;
1135.8000;0.6211;0.8862;
1136.1000;0.6211;0.8814;
1136.4000;0.6211;0.8814;
1136.7000;0.6227;0.8814;
1137.0000;0.6219;0.8838;
1137.3000;0.6203;0.8838;
1137.6000;0.6203;0.8909;
1137.9000;0.6211;0.8933;
1138.2000;0.6195;0.8933;
1138.5000;0.6211;0.8933;
1138.8000;0.6227;0.8886;
1139.1000;0.6284;0.8980;
1139.4000;0.6195;0.8743;
1139.7000;0.6162;0.8625;
1140.0000;0.6195;0.8791;
1140.3000;0.6186;0.8791;
1140.6000;0.6211;0.8838;
1140.9000;0.6219;0.8862;
1141.2000;0.6203;0.8814;
1141.5000;0.6203;0.8767;
1141.8000;0.6203;0.8814;
1142.1000;0.6203;0.8838;
1142.4000;0.6211;0.8838;
1142.7000;0.6195;0.8791;
1143.0000;0.6178;0.8720;
1143.3000;0.6186;0.8791;
1143.6000;0.6203;0.8743;
1143.9000;0.6129;0.8625;
1144.2000;0.6178;0.8720;
1144.5000;0.6203;0.8767;
1144.8000;0.6235;0.8862;
1145.1000;0.6203;0.8696;
1145.4000;0.6211;0.8720;
1145.7000;0.6186;0.8672;
1146.0000;0.6203;0.8767;
1146.3000;0.6203;0.8791;
1146.6000;0.6235;0.8909;
1146.9000;0.6195;0.8814;
1147.2000;0.6235;0.8838;
1147.5000;0.6203;0.8862;
1147.8000;0.6203;0.8767;
1148.1000;0.6203;0.8720;
1148.4000;0.6195;0.8696;
1148.7000;0.6203;0.8720;
1149.0000;0.6154;0.8625;
1149.3000;0.6219;0.8814;
1149.6000;0.6138;0.8554;
1149.9000;0.6211;0.8743;
1150.2000;0.6219;0.8696;
1150.5000;0.6203;0.8720;
1150.8000;0.6227;0.8767;
1151.1000;0.6227;0.8720;
1151.4000;0.6211;0.8578;
1151.7000;0.6195;0.8601;
1152.0000;0.6203;0.8554;
1152.3000;0.6235;0.8696;
1152.6000;0.6211;0.8578;
1152.9000;0.6211;0.8578;
1153.2000;0.6203;0.8601;
1153.5000;0.6211;0.8625;
1153.8000;0.6211;0.8743;
1154.1000;0.6195;0.8696;
1154.4000;0.6178;0.8743;
1154.7000;0.6195;0.8838;
1155.0000;0.6203;0.8909;
1155.3000;0.6138;0.8743;
1155.6000;0.6203;0.8862;
1155.9000;0.6203;0.8862;
1156.2000;0.6211;0.8791;
1156.5000;0.6203;0.8767;
1156.8000;0.6203;0.8791;
1157.1000;0.6186;0.8814;
1157.4000;0.6243;0.8862;
1157.7000;0.6186;0.8767;
1158.0000;0.6195;0.8838;
1158.3000;0.6186;0.8838;
1158.6000;0.6203;0.8814;
1158.9000;0.6195;0.8814;
1159.2000;0.6195;0.8743;
1159.5000;0.6203;0.8791;
1159.8000;0.6203;0.8767;
1160.1000;0.6203;0.8886;
1160.4000;0.6211;0.8957;
1160.7000;0.6219;0.9051;
1161.0000;0.6219;0.9051;
1161.3000;0.6227;0.9028;
1161.6000;0.6203;0.8957;
1161.9000;0.6219;0.9028;
1162.2000;0.6211;0.8933;
1162.5000;0.6211;0.8886;
1162.8000;0.6211;0.8862;
1163.1000;0.6170;0.8862;
1163.4000;0.6260;0.9146;
1163.7000;0.6211;0.9004;
1164.0000;0.6186;0.8886;
1164.3000;0.6211;0.8980;
1164.6000;0.6219;0.9004;
1164.9000;0.6203;0.8933;
1165.2000;0.6203;0.8886;
1165.5000;0.6203;0.8862;
1165.8000;0.6195;0.8933;
1166.1000;0.6227;0.9028;
1166.4000;0.6195;0.8886;
1166.7000;0.6154;0.8814;
1167.0000;0.6203;0.8909;
1167.3000;0.6211;0.8909;
1167.6000;0.6227;0.9075;
1167.9000;0.6227;0.9051;
1168.2000;0.6186;0.8933;
1168.5000;0.6211;0.8862;
1168.8000;0.6203;0.8838;
1169.1000;0.6195;0.8814;
1169.4000;0.6186;0.8743;
1169.7000;0.6178;0.8696;
1170.0000;0.6195;0.8838;
1170.3000;0.6203;0.8791;
1170.6000;0.6178;0.8838;
1170.9000;0.6170;0.8767;
1171.2000;0.6195;0.8767;
1171.5000;0.6186;0.8625;
1171.8000;0.6219;0.8720;
1172.1000;0.6276;0.8957;
1172.4000;0.6146;0.8672;
1172.7000;0.6195;0.8814;
1173.0000;0.6219;0.8909;
1173.3000;0.6203;0.8909;
1173.6000;0.6186;0.8838;
1173.9000;0.6162;0.8791;
1174.2000;0.6211;0.8909;
1174.5000;0.6211;0.8886;
1174.8000;0.6211;0.8838;
1175.1000;0.6211;0.8838;
1175.4000;0.6203;0.8814;
1175.7000;0.6195;0.8696;
1176.0000;0.6195;0.8672;
1176.3000;0.6162;0.8625;
1176.6000;0.6195;0.8767;
1176.9000;0.6203;0.8743;
1177.2000;0.6203;0.8767;
1177.5000;0.6203;0.8791;
1177.8000;0.6219;0.8886;
1178.1000;0.6211;0.8909;
1178.4000;0.6243;0.9004;
1178.7000;0.6203;0.8909;
1179.0000;0.6211;0.8909;
1179.3000;0.6186;0.8909;
1179.6000;0.6162;0.8838;
1179.9000;0.6211;0.8957;
1180.2000;0.6195;0.8957;
1180.5000;0.6219;0.9004;
1180.8000;0.6203;0.9004;
1181.1000;0.6195;0.9028;
1181.4000;0.6211;0.9075;
1181.7000;0.6219;0.9028;
1182.0000;0.6211;0.9028;
1182.3000;0.6195;0.9004;
1182.6000;0.6203;0.8980;
1182.9000;0.6203;0.8862;
1183.2000;0.6203;0.8862;
1183.5000;0.6203;0.8886;
1183.8000;0.6203;0.8862;
1184.1000;0.6235;0.8933;
1184.4000;0.6186;0.8886;
1184.7000;0.6178;0.8838;
1185.0000;0.6186;0.8862;
1185.3000;0.6186;0.8838;
1185.6000;0.6203;0.8909;
1185.9000;0.6195;0.8838;
1186.2000;0.6195;0.8862;
1186.5000;0.6097;0.8720;
1186.8000;0.6203;0.8886;
1187.1000;0.6170;0.8814;
1187.4000;0.6178;0.8886;
1187.7000;0.6178;0.8814;
1188.0000;0.6252;0.9004;
1188.3000;0.6268;0.9028;
1188.6000;0.6235;0.8980;
1188.9000;0.6227;0.8886;
1189.2000;0.6211;0.8838;
1189.5000;0.6235;0.8791;
1189.8000;0.6203;0.8767;
1190.1000;0.6211;0.8767;
1190.4000;0.6211;0.8838;
1190.7000;0.6195;0.8862;
1191.0000;0.6170;0.8814;
1191.3000;0.6186;0.8862;
1191.6000;0.6235;0.9028;
1191.9000;0.6227;0.8957;
1192.2000;0.6186;0.8886;
1192.5000;0.6203;0.8886;
1192.8000;0.6195;0.8862;
1193.1000;0.6203;0.8933;
1193.4000;0.6211;0.8862;
1193.7000;0.6178;0.8791;
1194.0000;0.6243;0.8909;
1194.3000;0.6219;0.8909;
1194.6000;0.6203;0.8957;
1194.9000;0.6211;0.9004;
1195.2000;0.6235;0.8957;
1195.5000;0.6195;0.8886;
1195.8000;0.6203;0.8909;
1196.1000;0.6235;0.8980;
1196.4000;0.6203;0.8933;
1196.7000;0.6203;0.9051;
1197.0000;0.6219;0.9075;
1197.3000;0.6243;0.9099;
1197.6000;0.6219;0.8957;
1197.9000;0.6195;0.8886;
1198.2000;0.6227;0.8933;
1198.5000;0.6186;0.8767;
1198.8000;0.6203;0.8814;
1199.1000;0.6235;0.8933;
1199.4000;0.6227;0.9004;
1199.7000;0.6203;0.8957;
1200.0000;0.6211;0.8957;
1200.3000;0.6195;0.8933;
1200.6000;0.6195;0.8957;
1200.9000;0.6195;0.8909;
1201.2000;0.6195;0.8933;
1201.5000;0.6186;0.8909;
1201.8000;0.6203;0.9004;
1202.1000;0.6170;0.8933;
1202.4000;0.6211;0.8980;
1202.7000;0.6211;0.8980;
1203.0000;0.6195;0.8957;
1203.3000;0.6219;0.8886;
1203.6000;0.6195;0.8909;
1203.9000;0.6195;0.8980;
1204.2000;0.6211;0.8980;
1204.5000;0.6211;0.8957;
1204.8000;0.6219;0.9004;
1205.1000;0.6211;0.9028;
1205.4000;0.6186;0.8886;
1205.7000;0.6203;0.8909;
1206.0000;0.6235;0.8933;
1206.3000;0.6211;0.8909;
1206.6000;0.6186;0.8862;
1206.9000;0.6195;0.8957;
1207.2000;0.6203;0.8980;
1207.5000;0.6186;0.8933;
1207.8000;0.6203;0.8933;
1208.1000;0.6203;0.9004;
1208.4000;0.6211;0.9099;
1208.7000;0.6195;0.8980;
1209.0000;0.6195;0.8886;
1209.3000;0.6203;0.8838;
1209.6000;0.6219;0.8957;
1209.9000;0.6203;0.8909;
1210.2000;0.6211;0.8980;
1210.5000;0.6138;0.8767;
1210.8000;0.6178;0.8791;
1211.1000;0.6195;0.8791;
1211.4000;0.6235;0.8909;
1211.7000;0.6195;0.8838;
1212.0000;0.6186;0.8886;
1212.3000;0.6178;0.8862;
1212.6000;0.6195;0.8980;
1212.9000;0.6186;0.8909;
1213.2000;0.6170;0.8886;
1213.5000;0.6203;0.9004;
1213.8000;0.6195;0.9075;
1214.1000;0.6195;0.9122;
1214.4000;0.6203;0.9146;
1214.7000;0.6203;0.9075;
1215.0000;0.6186;0.8980;
1215.3000;0.6203;0.9051;
1215.6000;0.6195;0.9099;
1215.9000;0.6186;0.9099;
1216.2000;0.6186;0.9051;
1216.5000;0.6203;0.8933;
1216.8000;0.6203;0.8909;
1217.1000;0.6219;0.8980;
1217.4000;0.6195;0.8886;
1217.7000;0.6186;0.8814;
1218.0000;0.6195;0.8838;
1218.3000;0.6195;0.8791;
1218.6000;0.6203;0.8814;
1218.9000;0.6203;0.8838;
1219.2000;0.6195;0.8838;
1219.5000;0.6178;0.8862;
1219.8000;0.6203;0.8886;
1220.1000;0.6186;0.8886;
1220.4000;0.6186;0.8957;
1220.7000;0.6211;0.9004;
1221.0000;0.6186;0.8980;
1221.3000;0.6162;0.8909;
1221.6000;0.6195;0.9028;
1221.9000;0.6186;0.9028;
1222.2000;0.6129;0.8862;
1222.5000;0.6219;0.9122;
1222.8000;0.6211;0.9099;
1223.1000;0.6252;0.9217;
1223.4000;0.6195;0.9146;
1223.7000;0.6203;0.9099;
1224.0000;0.6195;0.9146;
1224.3000;0.6284;0.9312;
1224.6000;0.6235;0.9170;
1224.9000;0.6195;0.9028;
1225.2000;0.6203;0.9004;
1225.5000;0.6203;0.8886;
1225.8000;0.6195;0.8933;
1226.1000;0.6178;0.8957;
1226.4000;0.6195;0.9075;
1226.7000;0.6186;0.9075;
1227.0000;0.6203;0.9146;
1227.3000;0.6203;0.9146;
1227.6000;0.6178;0.9122;
1227.9000;0.6195;0.9099;
1228.2000;0.6186;0.9099;
1228.5000;0.6203;0.9075;
1228.8000;0.6203;0.9004;
1229.1000;0.6203;0.9028;
1229.4000;0.6105;0.8814;
1229.7000;0.6195;0.9051;
1230.0000;0.6219;0.9051;
1230.3000;0.6235;0.9099;
1230.6000;0.6203;0.9146;
1230.9000;0.6211;0.9146;
1231.2000;0.6211;0.9194;
1231.5000;0.6170;0.9075;
1231.8000;0.6211;0.9099;
1232.1000;0.6186;0.9028;
1232.4000;0.6203;0.9028;
1232.7000;0.6195;0.8980;
1233.0000;0.6211;0.8980;
1233.3000;0.6211;0.8980;
1233.6000;0.6129;0.8838;
1233.9000;0.6203;0.8980;
1234.2000;0.6219;0.8980;
1234.5000;0.6219;0.8933;
1234.8000;0.6195;0.8862;
1235.1000;0.6186;0.8862;
1235.4000;0.6219;0.8862;
1235.7000;0.6203;0.8909;
1236.0000;0.6203;0.8838;
1236.3000;0.6186;0.8720;
1236.6000;0.6203;0.8791;
1236.9000;0.6203;0.8886;
1237.2000;0.6195;0.8886;
1237.5000;0.6219;0.8933;
1237.8000;0.6105;0.8696;
1238.1000;0.6211;0.8933;
1238.4000;0.6211;0.8909;
1238.7000;0.6252;0.8957;
1239.0000;0.6235;0.8886;
1239.3000;0.6211;0.8862;
1239.6000;0.6203;0.8862;
1239.9000;0.6211;0.8862;
1240.2000;0.6219;0.8886;
1240.5000;0.6235;0.8886;
1240.8000;0.6203;0.8886;
1241.1000;0.6227;0.8909;
1241.4000;0.6203;0.8933;
1241.7000;0.6211;0.9004;
1242.0000;0.6219;0.9028;
1242.3000;0.6219;0.8980;
1242.6000;0.6195;0.8862;
1242.9000;0.6211;0.8862;
1243.2000;0.6203;0.8838;
1243.5000;0.6203;0.8838;
1243.8000;0.6195;0.8791;
1244.1000;0.6211;0.8886;
1244.4000;0.6203;0.8886;
1244.7000;0.6178;0.8814;
1245.0000;0.6186;0.8814;
1245.3000;0.6211;0.8909;
1245.6000;0.6203;0.8909;
1245.9000;0.6211;0.8886;
1246.2000;0.6211;0.8862;
1246.5000;0.6203;0.8767;
1246.8000;0.6211;0.8838;
1247.1000;0.6203;0.8838;
1247.4000;0.6129;0.8601;
1247.7000;0.6162;0.8625;
1248.0000;0.6195;0.8743;
1248.3000;0.6186;0.8791;
1248.6000;0.6186;0.8672;
1248.9000;0.6195;0.8672;
1249.2000;0.6178;0.8720;
1249.5000;0.6219;0.8838;
1249.8000;0.6113;0.8672;
1250.1000;0.6195;0.8980;
1250.4000;0.6121;0.8862;
1250.7000;0.6162;0.8957;
1251.0000;0.6219;0.9099;
1251.3000;0.6203;0.9028;
1251.6000;0.6219;0.9004;
1251.9000;0.6195;0.8980;
1252.2000;0.6195;0.8980;
1252.5000;0.6195;0.8862;
1252.8000;0.6178;0.8862;
1253.1000;0.6203;0.8957;
1253.4000;0.6211;0.9028;
1253.7000;0.6186;0.8957;
1254.0000;0.6203;0.8980;
1254.3000;0.6195;0.9004;
1254.6000;0.6203;0.9075;
1254.9000;0.6195;0.9028;
1255.2000;0.6203;0.9051;
1255.5000;0.6195;0.9028;
1255.8000;0.6211;0.9099;
1256.1000;0.6186;0.8980;
1256.4000;0.6195;0.9004;
1256.7000;0.6235;0.9075;
1257.0000;0.6195;0.8909;
1257.3000;0.6186;0.8886;
1257.6000;0.6195;0.8862;
1257.9000;0.6178;0.8791;
1258.2000;0.6195;0.8838;
1258.5000;0.6341;0.9170;
1258.8000;0.6243;0.8909;
1259.1000;0.6203;0.8791;
1259.4000;0.6195;0.8838;
1259.7000;0.6195;0.8767;
1260.0000;0.6178;0.8672;
1260.3000;0.6186;0.8767;
1260.6000;0.6195;0.8909;
1260.9000;0.6186;0.8838;
1261.2000;0.6211;0.8933;
1261.5000;0.6219;0.8933;
1261.8000;0.6195;0.8909;
1262.1000;0.6195;0.8980;
1262.4000;0.6170;0.8909;
1262.7000;0.6195;0.8862;
1263.0000;0.6211;0.8886;
1263.3000;0.6203;0.8886;
1263.6000;0.6243;0.8957;
1263.9000;0.6219;0.8909;
1264.2000;0.6203;0.8886;
1264.5000;0.6178;0.8933;
1264.8000;0.6211;0.9075;
1265.1000;0.6219;0.9051;
1265.4000;0.6195;0.9051;
1265.7000;0.6211;0.9028;
1266.0000;0.6227;0.9004;
1266.3000;0.6211;0.8980;
1266.6000;0.6284;0.9099;
1266.9000;0.6170;0.8838;
1267.2000;0.6170;0.8791;
1267.5000;0.6186;0.8838;
1267.8000;0.6195;0.8838;
1268.1000;0.6186;0.8791;
1268.4000;0.6186;0.8720;
1268.7000;0.6170;0.8720;
1269.0000;0.6235;0.8767;
1269.3000;0.6186;0.8767;
1269.6000;0.6203;0.8886;
1269.9000;0.6195;0.8838;
1270.2000;0.6260;0.9004;
1270.5000;0.6203;0.8838;
1270.8000;0.6211;0.8838;
1271.1000;0.6211;0.8791;
1271.4000;0.6235;0.8838;
1271.7000;0.6195;0.8814;
1272.0000;0.6186;0.8743;
1272.3000;0.6162;0.8814;
1272.6000;0.6203;0.8980;
1272.9000;0.6178;0.8862;
1273.2000;0.6203;0.8862;
1273.5000;0.6235;0.9004;
1273.8000;0.6203;0.8957;
1274.1000;0.6186;0.8933;
1274.4000;0.6203;0.9004;
1274.7000;0.6170;0.8957;
1275.0000;0.6203;0.8980;
1275.3000;0.6186;0.8909;
1275.6000;0.6186;0.8814;
1275.9000;0.6195;0.8743;
1276.2000;0.6203;0.8672;
1276.5000;0.6195;0.8649;
1276.8000;0.6211;0.8696;
1277.1000;0.6186;0.8720;
1277.4000;0.6211;0.8791;
1277.7000;0.6097;0.8578;
1278.0000;0.6195;0.8862;
1278.3000;0.6170;0.8767;
1278.6000;0.6154;0.8672;
1278.9000;0.6178;0.8767;
1279.2000;0.6178;0.8791;
1279.5000;0.6203;0.8838;
1279.8000;0.6211;0.8933;
1280.1000;0.6203;0.8933;
1280.4000;0.6195;0.8933;
1280.7000;0.6211;0.8957;
1281.0000;0.6203;0.8909;
1281.3000;0.6203;0.8886;
1281.6000;0.6154;0.8791;
1281.9000;0.6170;0.8886;
1282.2000;0.6170;0.8838;
1282.5000;0.6203;0.9028;
1282.8000;0.6219;0.9051;
1283.1000;0.6170;0.8957;
1283.4000;0.6178;0.8909;
1283.7000;0.6178;0.8909;
1284.0000;0.6211;0.8980;
1284.3000;0.6211;0.9004;
1284.6000;0.6195;0.8957;
1284.9000;0.6186;0.9075;
1285.2000;0.6203;0.9122;
1285.5000;0.6170;0.9051;
1285.8000;0.6195;0.9194;
1286.1000;0.6195;0.9170;
1286.4000;0.6227;0.9288;
1286.7000;0.6203;0.9146;
1287.0000;0.6195;0.9122;
1287.3000;0.6195;0.9146;
1287.6000;0.6211;0.9051;
1287.9000;0.6195;0.8980;
1288.2000;0.6203;0.8980;
1288.5000;0.6178;0.8957;
1288.8000;0.6211;0.9099;
1289.1000;0.6186;0.9028;
1289.4000;0.6195;0.9075;
1289.7000;0.6268;0.9241;
1290.0000;0.6178;0.9028;
1290.3000;0.6203;0.9028;
1290.6000;0.6260;0.9170;
1290.9000;0.6195;0.8933;
1291.2000;0.6178;0.8933;
1291.5000;0.6203;0.9004;
1291.8000;0.6203;0.9028;
1292.1000;0.6178;0.9004;
1292.4000;0.6170;0.9004;
1292.7000;0.6195;0.9099;
1293.0000;0.6195;0.9075;
1293.3000;0.6186;0.9004;
1293.6000;0.6186;0.8933;
1293.9000;0.6186;0.8980;
1294.2000;0.6129;0.8909;
1294.5000;0.6170;0.9099;
1294.8000;0.6178;0.9075;
1295.1000;0.6178;0.8980;
1295.4000;0.6203;0.9075;
1295.7000;0.6195;0.9051;
1296.0000;0.6195;0.9051;
1296.3000;0.6186;0.9099;
1296.6000;0.6186;0.9028;
1296.9000;0.6186;0.8957;
1297.2000;0.6195;0.8886;
1297.5000;0.6121;0.8720;
1297.8000;0.6186;0.8886;
1298.1000;0.6195;0.8862;
1298.4000;0.6203;0.8909;
1298.7000;0.6195;0.8838;
1299.0000;0.6195;0.8743;
1299.3000;0.6195;0.8814;
1299.6000;0.6219;0.8909;
1299.9000;0.6211;0.8957;
1300.2000;0.6203;0.8933;
1300.5000;0.6203;0.8909;
1300.8000;0.6186;0.8814;
1301.1000;0.6203;0.8814;
1301.4000;0.6195;0.8791;
1301.7000;0.6178;0.8862;
1302.0000;0.6227;0.8838;
1302.3000;0.6260;0.8980;
1302.6000;0.6186;0.8720;
1302.9000;0.6195;0.8814;
1303.2000;0.6195;0.8909;
1303.5000;0.6170;0.8909;
1303.8000;0.6211;0.8933;
1304.1000;0.6235;0.9004;
1304.4000;0.6195;0.9028;
1304.7000;0.6146;0.8933;
1305.0000;0.6178;0.8933;
1305.3000;0.6186;0.8886;
1305.6000;0.6186;0.8933;
1305.9000;0.6186;0.8980;
1306.2000;0.6162;0.8909;
1306.5000;0.6195;0.8933;
1306.8000;0.6195;0.8933;
1307.1000;0.6268;0.8980;
1307.4000;0.6186;0.8862;
1307.7000;0.6186;0.8862;
1308.0000;0.6186;0.8791;
1308.3000;0.6195;0.8838;
1308.6000;0.6186;0.8791;
1308.9000;0.6195;0.8743;
1309.2000;0.6170;0.8720;
1309.5000;0.6195;0.8767;
1309.8000;0.6195;0.8767;
1310.1000;0.6186;0.8767;
1310.4000;0.6178;0.8720;
1310.7000;0.6178;0.8696;
1311.0000;0.6186;0.8743;
1311.3000;0.6186;0.8720;
1311.6000;0.6195;0.8767;
1311.9000;0.6243;0.8862;
1312.2000;0.6186;0.8791;
1312.5000;0.6211;0.8957;
1312.8000;0.6186;0.9028;
1313.1000;0.6129;0.8862;
1313.4000;0.6203;0.9075;
1313.7000;0.6170;0.8957;
1314.0000;0.6178;0.8933;
1314.3000;0.6186;0.8909;
1314.6000;0.6195;0.8886;
1314.9000;0.6162;0.8791;
1315.2000;0.6195;0.8886;
1315.5000;0.6186;0.8862;
1315.8000;0.6186;0.8980;
1316.1000;0.6186;0.9004;
1316.4000;0.6219;0.9099;
1316.7000;0.6162;0.8933;
1317.0000;0.6178;0.9028;
1317.3000;0.6203;0.9028;
1317.6000;0.6186;0.8909;
1317.9000;0.6195;0.9004;
1318.2000;0.6211;0.9122;
1318.5000;0.6195;0.9122;
1318.8000;0.6195;0.9075;
1319.1000;0.6203;0.8957;
1319.4000;0.6162;0.8814;
1319.7000;0.6211;0.8909;
1320.0000;0.6203;0.8886;
1320.3000;0.6219;0.8957;
1320.6000;0.6195;0.8886;
1320.9000;0.6195;0.8909;
1321.2000;0.6105;0.8720;
1321.5000;0.6219;0.8933;
1321.8000;0.6195;0.8814;
1322.1000;0.6186;0.8814;
1322.4000;0.6203;0.8933;
1322.7000;0.6186;0.8909;
1323.0000;0.6219;0.8957;
1323.3000;0.6203;0.8909;
1323.6000;0.6227;0.8933;
1323.9000;0.6162;0.8838;
1324.2000;0.6178;0.8886;
1324.5000;0.6170;0.8814;
1324.8000;0.6203;0.8814;
1325.1000;0.6113;0.8672;
1325.4000;0.6195;0.8886;
1325.7000;0.6243;0.8933;
1326.0000;0.6252;0.8980;
1326.3000;0.6138;0.8696;
1326.6000;0.6195;0.8814;
1326.9000;0.6178;0.8838;
1327.2000;0.6186;0.8933;
1327.5000;0.6211;0.8957;
1327.8000;0.6195;0.8957;
1328.1000;0.6178;0.8980;
1328.4000;0.6146;0.8933;
1328.7000;0.6195;0.8886;
1329.0000;0.6178;0.8838;
1329.3000;0.6203;0.9051;
1329.6000;0.6195;0.8980;
1329.9000;0.6203;0.9028;
1330.2000;0.6178;0.8980;
1330.5000;0.6195;0.8933;
1330.8000;0.6203;0.8980;
1331.1000;0.6219;0.9004;
1331.4000;0.6203;0.9004;
1331.7000;0.6203;0.9004;
1332.0000;0.6186;0.8980;
1332.3000;0.6203;0.9004;
1332.6000;0.6195;0.9075;
1332.9000;0.6186;0.9075;
1333.2000;0.6186;0.9051;
1333.5000;0.6178;0.9099;
1333.8000;0.6203;0.9099;
1334.1000;0.6203;0.9004;
1334.4000;0.6195;0.9004;
1334.7000;0.6203;0.9028;
1335.0000;0.6211;0.8980;
1335.3000;0.6203;0.8909;
1335.6000;0.6186;0.8862;
1335.9000;0.6178;0.8909;
1336.2000;0.6219;0.9004;
1336.5000;0.6203;0.9004;
1336.8000;0.6170;0.8909;
1337.1000;0.6203;0.8980;
1337.4000;0.6211;0.8957;
1337.7000;0.6195;0.8886;
1338.0000;0.6195;0.8980;
1338.3000;0.6178;0.8980;
1338.6000;0.6162;0.8957;
1338.9000;0.6178;0.8980;
1339.2000;0.6162;0.8980;
1339.5000;0.6170;0.8957;
1339.8000;0.6186;0.8933;
1340.1000;0.6162;0.8886;
1340.4000;0.6203;0.9004;
1340.7000;0.6186;0.8980;
1341.0000;0.6178;0.9004;
1341.3000;0.6186;0.9028;
1341.6000;0.6211;0.9146;
1341.9000;0.6178;0.8957;
1342.2000;0.6211;0.8933;
1342.5000;0.6203;0.8886;
1342.8000;0.6203;0.8909;
1343.1000;0.6195;0.8957;
1343.4000;0.6186;0.9004;
1343.7000;0.6195;0.9051;
1344.0000;0.6203;0.8980;
1344.3000;0.6203;0.9004;
1344.6000;0.6154;0.8886;
1344.9000;0.6195;0.8980;
1345.2000;0.6235;0.9122;
1345.5000;0.6219;0.9028;
1345.8000;0.6186;0.9004;
1346.1000;0.6178;0.8980;
1346.4000;0.6195;0.8980;
1346.7000;0.6186;0.9004;
1347.0000;0.6195;0.9051;
1347.3000;0.6186;0.8980;
1347.6000;0.6186;0.8957;
1347.9000;0.6203;0.8980;
1348.2000;0.6186;0.8909;
1348.5000;0.6195;0.8909;
1348.8000;0.6211;0.8933;
1349.1000;0.6227;0.8886;
1349.4000;0.6203;0.8933;
1349.7000;0.6178;0.8886;
1350.0000;0.6243;0.9004;
1350.3000;0.6203;0.8957;
1350.6000;0.6203;0.9004;
1350.9000;0.6219;0.9028;
1351.2000;0.6186;0.8957;
1351.5000;0.6195;0.8933;
1351.8000;0.6113;0.8767;
1352.1000;0.6186;0.8933;
1352.4000;0.6211;0.9051;
1352.7000;0.6146;0.8886;
1353.0000;0.6195;0.8933;
1353.3000;0.6138;0.8814;
1353.6000;0.6203;0.8957;
1353.9000;0.6178;0.8909;
1354.2000;0.6268;0.9146;
1354.5000;0.6203;0.8862;
1354.8000;0.6211;0.8862;
1355.1000;0.6186;0.8838;
1355.4000;0.6186;0.8909;
1355.7000;0.6178;0.8957;
1356.0000;0.6186;0.8957;
1356.3000;0.6186;0.8957;
1356.6000;0.6186;0.8957;
1356.9000;0.6195;0.8909;
1357.2000;0.6211;0.8933;
1357.5000;0.6195;0.8838;
1357.8000;0.6178;0.8814;
1358.1000;0.6203;0.8767;
1358.4000;0.6195;0.8791;
1358.7000;0.6186;0.8767;
1359.0000;0.6178;0.8672;
1359.3000;0.6178;0.8743;
1359.6000;0.6170;0.8814;
1359.9000;0.6195;0.8838;
1360.2000;0.6186;0.8862;
1360.5000;0.6195;0.8838;
1360.8000;0.6211;0.8838;
1361.1000;0.6178;0.8862;
1361.4000;0.6195;0.8886;
1361.7000;0.6186;0.8862;
1362.0000;0.6186;0.8862;
1362.3000;0.6211;0.8814;
1362.6000;0.6195;0.8672;
1362.9000;0.6252;0.8862;
1363.2000;0.6178;0.8767;
1363.5000;0.6195;0.8720;
1363.8000;0.6235;0.8957;
1364.1000;0.6178;0.8886;
1364.4000;0.6186;0.8886;
1364.7000;0.6186;0.8838;
1365.0000;0.6186;0.8838;
1365.3000;0.6186;0.8838;
1365.6000;0.6203;0.8838;
1365.9000;0.6284;0.8957;
1366.2000;0.6235;0.8814;
1366.5000;0.6203;0.8743;
1366.8000;0.6211;0.8814;
1367.1000;0.6203;0.8791;
1367.4000;0.6178;0.8767;
1367.7000;0.6195;0.8791;
1368.0000;0.6195;0.8862;
1368.3000;0.6203;0.8791;
1368.6000;0.6203;0.8791;
1368.9000;0.6203;0.8933;
1369.2000;0.6186;0.8980;
1369.5000;0.6146;0.8933;
1369.8000;0.6162;0.9075;
1370.1000;0.6162;0.8980;
1370.4000;0.6186;0.9075;
1370.7000;0.6162;0.9099;
1371.0000;0.6186;0.9099;
1371.3000;0.6170;0.9028;
1371.6000;0.6186;0.9028;
1371.9000;0.6186;0.9028;
1372.2000;0.6195;0.9075;
1372.5000;0.6195;0.9170;
1372.8000;0.6186;0.9099;
1373.1000;0.6203;0.9146;
1373.4000;0.6211;0.9122;
1373.7000;0.6186;0.9028;
1374.0000;0.6195;0.9051;
1374.3000;0.6186;0.8980;
1374.6000;0.6203;0.9004;
1374.9000;0.6195;0.8957;
1375.2000;0.6097;0.8720;
1375.5000;0.6105;0.8672;
1375.8000;0.6203;0.8886;
1376.1000;0.6186;0.8980;
1376.4000;0.6195;0.9028;
1376.7000;0.6195;0.9099;
1377.0000;0.6186;0.9146;
1377.3000;0.6219;0.9194;
1377.6000;0.6211;0.9122;
1377.9000;0.6154;0.8980;
1378.2000;0.6211;0.9170;
1378.5000;0.6203;0.9099;
1378.8000;0.6195;0.8980;
1379.1000;0.6203;0.8957;
1379.4000;0.6203;0.8933;
1379.7000;0.6203;0.9075;
1380.0000;0.6195;0.9028;
1380.3000;0.6203;0.8933;
1380.6000;0.6195;0.8957;
1380.9000;0.6195;0.8980;
1381.2000;0.6211;0.9051;
1381.5000;0.6195;0.9122;
1381.8000;0.6252;0.9265;
1382.1000;0.6186;0.9051;
1382.4000;0.6186;0.9099;
1382.7000;0.6211;0.9075;
1383.0000;0.6186;0.9051;
1383.3000;0.6162;0.8957;
1383.6000;0.6195;0.8933;
1383.9000;0.6227;0.8957;
1384.2000;0.6195;0.8814;
1384.5000;0.6186;0.8862;
1384.8000;0.6162;0.8838;
1385.1000;0.6203;0.8886;
1385.4000;0.6227;0.8933;
1385.7000;0.6121;0.8696;
1386.0000;0.6178;0.8933;
1386.3000;0.6186;0.9004;
1386.6000;0.6178;0.8862;
1386.9000;0.6170;0.8862;
1387.2000;0.6138;0.8720;
1387.5000;0.6178;0.8909;
1387.8000;0.6186;0.8933;
1388.1000;0.6227;0.9075;
1388.4000;0.6195;0.9004;
1388.7000;0.6186;0.9028;
1389.0000;0.6211;0.9028;
1389.3000;0.6235;0.9170;
1389.6000;0.6203;0.9051;
1389.9000;0.6211;0.9075;
1390.2000;0.6203;0.8980;
1390.5000;0.6195;0.8886;
1390.8000;0.6178;0.8814;
1391.1000;0.6195;0.8838;
1391.4000;0.6195;0.8838;
1391.7000;0.6162;0.8814;
1392.0000;0.6186;0.8838;
1392.3000;0.6211;0.8886;
1392.6000;0.6203;0.8743;
1392.9000;0.6195;0.8672;
1393.2000;0.6195;0.8649;
1393.5000;0.6146;0.8578;
1393.8000;0.6170;0.8767;
1394.1000;0.6203;0.8862;
1394.4000;0.6195;0.8791;
1394.7000;0.6203;0.8980;
1395.0000;0.6203;0.9028;
1395.3000;0.6178;0.8980;
1395.6000;0.6195;0.8933;
1395.9000;0.6178;0.8909;
1396.2000;0.6186;0.8933;
1396.5000;0.6186;0.8933;
1396.8000;0.6195;0.8957;
1397.1000;0.6178;0.8886;
1397.4000;0.6162;0.8886;
1397.7000;0.6186;0.8886;
1398.0000;0.6186;0.8838;
1398.3000;0.6178;0.8909;
1398.6000;0.6195;0.9004;
1398.9000;0.6178;0.9004;
1399.2000;0.6178;0.8980;
1399.5000;0.6195;0.8886;
1399.8000;0.6195;0.8886;
