time/ms;Fluo/V;P700 deltaI/I x10³;
-199.8000;0.3582;1.2530;
-199.5000;0.3565;1.2506;
-199.2000;0.3590;1.2604;
-198.9000;0.3565;1.2628;
-198.6000;0.3565;1.2579;
-198.3000;0.3516;1.2432;
-198.0000;0.3598;1.2604;
-197.7000;0.3557;1.2579;
-197.4000;0.3476;1.2285;
-197.1000;0.3582;1.2604;
-196.8000;0.3549;1.2555;
-196.5000;0.3557;1.2628;
-196.2000;0.3557;1.2604;
-195.9000;0.3582;1.2628;
-195.6000;0.3565;1.2628;
-195.3000;0.3565;1.2677;
-195.0000;0.3565;1.2579;
-194.7000;0.3541;1.2555;
-194.4000;0.3582;1.2506;
-194.1000;0.3622;1.2653;
-193.8000;0.3541;1.2481;
-193.5000;0.3606;1.2677;
-193.2000;0.3598;1.2604;
-192.9000;0.3639;1.2677;
-192.6000;0.3549;1.2359;
-192.3000;0.3492;1.2212;
-192.0000;0.3598;1.2506;
-191.7000;0.3573;1.2383;
-191.4000;0.3565;1.2334;
-191.1000;0.3557;1.2310;
-190.8000;0.3598;1.2334;
-190.5000;0.3557;1.2310;
-190.2000;0.3573;1.2432;
-189.9000;0.3549;1.2359;
-189.6000;0.3557;1.2334;
-189.3000;0.3573;1.2432;
-189.0000;0.3590;1.2555;
-188.7000;0.3557;1.2530;
-188.4000;0.3565;1.2481;
-188.1000;0.3582;1.2555;
-187.8000;0.3598;1.2579;
-187.5000;0.3557;1.2432;
-187.2000;0.3557;1.2408;
-186.9000;0.3541;1.2432;
-186.6000;0.3557;1.2530;
-186.3000;0.3549;1.2481;
-186.0000;0.3508;1.2432;
-185.7000;0.3557;1.2604;
-185.4000;0.3565;1.2579;
-185.1000;0.3549;1.2604;
-184.8000;0.3565;1.2604;
-184.5000;0.3549;1.2555;
-184.2000;0.3557;1.2506;
-183.9000;0.3565;1.2506;
-183.6000;0.3549;1.2481;
-183.3000;0.3557;1.2579;
-183.0000;0.3573;1.2481;
-182.7000;0.3582;1.2506;
-182.4000;0.3549;1.2457;
-182.1000;0.3565;1.2432;
-181.8000;0.3557;1.2457;
-181.5000;0.3565;1.2457;
-181.2000;0.3549;1.2310;
-180.9000;0.3557;1.2334;
-180.6000;0.3549;1.2334;
-180.3000;0.3573;1.2285;
-180.0000;0.3557;1.2236;
-179.7000;0.3565;1.2236;
-179.4000;0.3565;1.2212;
-179.1000;0.3565;1.2285;
-178.8000;0.3573;1.2334;
-178.5000;0.3557;1.2334;
-178.2000;0.3557;1.2285;
-177.9000;0.3573;1.2359;
-177.6000;0.3590;1.2383;
-177.3000;0.3549;1.2310;
-177.0000;0.3549;1.2310;
-176.7000;0.3606;1.2481;
-176.4000;0.3573;1.2457;
-176.1000;0.3557;1.2432;
-175.8000;0.3557;1.2481;
-175.5000;0.3573;1.2481;
-175.2000;0.3557;1.2408;
-174.9000;0.3557;1.2383;
-174.6000;0.3573;1.2408;
-174.3000;0.3557;1.2432;
-174.0000;0.3565;1.2457;
-173.7000;0.3565;1.2408;
-173.4000;0.3582;1.2261;
-173.1000;0.3582;1.2334;
-172.8000;0.3573;1.2408;
-172.5000;0.3565;1.2457;
-172.2000;0.3582;1.2481;
-171.9000;0.3565;1.2408;
-171.6000;0.3573;1.2457;
-171.3000;0.3557;1.2481;
-171.0000;0.3582;1.2432;
-170.7000;0.3557;1.2481;
-170.4000;0.3557;1.2530;
-170.1000;0.3573;1.2579;
-169.8000;0.3565;1.2579;
-169.5000;0.3541;1.2604;
-169.2000;0.3573;1.2653;
-168.9000;0.3590;1.2726;
-168.6000;0.3565;1.2677;
-168.3000;0.3565;1.2726;
-168.0000;0.3557;1.2677;
-167.7000;0.3590;1.2677;
-167.4000;0.3590;1.2726;
-167.1000;0.3622;1.2947;
-166.8000;0.3557;1.2726;
-166.5000;0.3557;1.2628;
-166.2000;0.3590;1.2530;
-165.9000;0.3557;1.2432;
-165.6000;0.3557;1.2506;
-165.3000;0.3573;1.2530;
-165.0000;0.3549;1.2457;
-164.7000;0.3606;1.2677;
-164.4000;0.3565;1.2506;
-164.1000;0.3557;1.2506;
-163.8000;0.3573;1.2530;
-163.5000;0.3565;1.2481;
-163.2000;0.3565;1.2481;
-162.9000;0.3573;1.2555;
-162.6000;0.3671;1.2849;
-162.3000;0.3557;1.2481;
-162.0000;0.3557;1.2481;
-161.7000;0.3533;1.2383;
-161.4000;0.3557;1.2408;
-161.1000;0.3549;1.2359;
-160.8000;0.3549;1.2310;
-160.5000;0.3557;1.2285;
-160.2000;0.3557;1.2310;
-159.9000;0.3565;1.2285;
-159.6000;0.3557;1.2285;
-159.3000;0.3557;1.2310;
-159.0000;0.3549;1.2334;
-158.7000;0.3573;1.2457;
-158.4000;0.3573;1.2555;
-158.1000;0.3573;1.2555;
-157.8000;0.3565;1.2530;
-157.5000;0.3565;1.2359;
-157.2000;0.3565;1.2334;
-156.9000;0.3573;1.2408;
-156.6000;0.3565;1.2383;
-156.3000;0.3573;1.2359;
-156.0000;0.3573;1.2432;
-155.7000;0.3573;1.2506;
-155.4000;0.3557;1.2457;
-155.1000;0.3549;1.2383;
-154.8000;0.3573;1.2457;
-154.5000;0.3565;1.2383;
-154.2000;0.3557;1.2383;
-153.9000;0.3573;1.2457;
-153.6000;0.3541;1.2408;
-153.3000;0.3573;1.2555;
-153.0000;0.3565;1.2530;
-152.7000;0.3557;1.2506;
-152.4000;0.3630;1.2653;
-152.1000;0.3590;1.2653;
-151.8000;0.3557;1.2604;
-151.5000;0.3557;1.2653;
-151.2000;0.3590;1.2628;
-150.9000;0.3565;1.2604;
-150.6000;0.3525;1.2604;
-150.3000;0.3549;1.2653;
-150.0000;0.3573;1.2653;
-149.7000;0.3533;1.2555;
-149.4000;0.3573;1.2604;
-149.1000;0.3573;1.2579;
-148.8000;0.3549;1.2481;
-148.5000;0.3590;1.2555;
-148.2000;0.3557;1.2506;
-147.9000;0.3533;1.2383;
-147.6000;0.3582;1.2530;
-147.3000;0.3549;1.2579;
-147.0000;0.3549;1.2579;
-146.7000;0.3525;1.2506;
-146.4000;0.3557;1.2506;
-146.1000;0.3598;1.2555;
-145.8000;0.3565;1.2481;
-145.5000;0.3549;1.2432;
-145.2000;0.3516;1.2457;
-144.9000;0.3565;1.2653;
-144.6000;0.3590;1.2702;
-144.3000;0.3533;1.2506;
-144.0000;0.3549;1.2628;
-143.7000;0.3598;1.2677;
-143.4000;0.3565;1.2555;
-143.1000;0.3630;1.2628;
-142.8000;0.3582;1.2530;
-142.5000;0.3565;1.2432;
-142.2000;0.3590;1.2555;
-141.9000;0.3582;1.2628;
-141.6000;0.3614;1.2653;
-141.3000;0.3582;1.2579;
-141.0000;0.3582;1.2481;
-140.7000;0.3565;1.2334;
-140.4000;0.3541;1.2285;
-140.1000;0.3590;1.2481;
-139.8000;0.3614;1.2506;
-139.5000;0.3582;1.2408;
-139.2000;0.3598;1.2506;
-138.9000;0.3582;1.2628;
-138.6000;0.3590;1.2677;
-138.3000;0.3573;1.2628;
-138.0000;0.3647;1.2800;
-137.7000;0.3565;1.2506;
-137.4000;0.3582;1.2506;
-137.1000;0.3573;1.2628;
-136.8000;0.3549;1.2555;
-136.5000;0.3565;1.2604;
-136.2000;0.3573;1.2653;
-135.9000;0.3549;1.2604;
-135.6000;0.3565;1.2604;
-135.3000;0.3516;1.2506;
-135.0000;0.3533;1.2481;
-134.7000;0.3565;1.2628;
-134.4000;0.3557;1.2555;
-134.1000;0.3557;1.2628;
-133.8000;0.3541;1.2579;
-133.5000;0.3565;1.2530;
-133.2000;0.3573;1.2506;
-132.9000;0.3582;1.2481;
-132.6000;0.3557;1.2408;
-132.3000;0.3573;1.2457;
-132.0000;0.3557;1.2481;
-131.7000;0.3582;1.2481;
-131.4000;0.3557;1.2310;
-131.1000;0.3573;1.2481;
-130.8000;0.3565;1.2628;
-130.5000;0.3557;1.2506;
-130.2000;0.3557;1.2530;
-129.9000;0.3573;1.2481;
-129.6000;0.3573;1.2481;
-129.3000;0.3549;1.2408;
-129.0000;0.3557;1.2457;
-128.7000;0.3565;1.2579;
-128.4000;0.3565;1.2530;
-128.1000;0.3598;1.2653;
-127.8000;0.3573;1.2555;
-127.5000;0.3590;1.2530;
-127.2000;0.3573;1.2530;
-126.9000;0.3565;1.2555;
-126.6000;0.3573;1.2555;
-126.3000;0.3573;1.2628;
-126.0000;0.3565;1.2702;
-125.7000;0.3565;1.2653;
-125.4000;0.3557;1.2555;
-125.1000;0.3557;1.2457;
-124.8000;0.3557;1.2530;
-124.5000;0.3573;1.2506;
-124.2000;0.3582;1.2604;
-123.9000;0.3573;1.2653;
-123.6000;0.3549;1.2579;
-123.3000;0.3573;1.2506;
-123.0000;0.3557;1.2457;
-122.7000;0.3525;1.2383;
-122.4000;0.3557;1.2481;
-122.1000;0.3565;1.2408;
-121.8000;0.3565;1.2408;
-121.5000;0.3590;1.2334;
-121.2000;0.3590;1.2383;
-120.9000;0.3565;1.2359;
-120.6000;0.3582;1.2383;
-120.3000;0.3590;1.2432;
-120.0000;0.3533;1.2383;
-119.7000;0.3565;1.2408;
-119.4000;0.3582;1.2579;
-119.1000;0.3630;1.2776;
-118.8000;0.3573;1.2628;
-118.5000;0.3582;1.2653;
-118.2000;0.3557;1.2653;
-117.9000;0.3557;1.2579;
-117.6000;0.3582;1.2653;
-117.3000;0.3557;1.2653;
-117.0000;0.3573;1.2751;
-116.7000;0.3573;1.2628;
-116.4000;0.3549;1.2628;
-116.1000;0.3549;1.2530;
-115.8000;0.3533;1.2579;
-115.5000;0.3565;1.2579;
-115.2000;0.3598;1.2579;
-114.9000;0.3598;1.2555;
-114.6000;0.3565;1.2506;
-114.3000;0.3557;1.2506;
-114.0000;0.3565;1.2579;
-113.7000;0.3557;1.2555;
-113.4000;0.3557;1.2457;
-113.1000;0.3582;1.2579;
-112.8000;0.3582;1.2530;
-112.5000;0.3557;1.2481;
-112.2000;0.3573;1.2481;
-111.9000;0.3565;1.2432;
-111.6000;0.3565;1.2408;
-111.3000;0.3565;1.2432;
-111.0000;0.3525;1.2285;
-110.7000;0.3557;1.2506;
-110.4000;0.3565;1.2555;
-110.1000;0.3557;1.2457;
-109.8000;0.3549;1.2481;
-109.5000;0.3573;1.2481;
-109.2000;0.3565;1.2457;
-108.9000;0.3582;1.2432;
-108.6000;0.3582;1.2432;
-108.3000;0.3516;1.2432;
-108.0000;0.3565;1.2457;
-107.7000;0.3565;1.2432;
-107.4000;0.3573;1.2481;
-107.1000;0.3573;1.2432;
-106.8000;0.3565;1.2481;
-106.5000;0.3573;1.2555;
-106.2000;0.3557;1.2506;
-105.9000;0.3557;1.2530;
-105.6000;0.3557;1.2432;
-105.3000;0.3573;1.2481;
-105.0000;0.3557;1.2408;
-104.7000;0.3541;1.2457;
-104.4000;0.3565;1.2408;
-104.1000;0.3557;1.2457;
-103.8000;0.3573;1.2530;
-103.5000;0.3565;1.2506;
-103.2000;0.3541;1.2481;
-102.9000;0.3549;1.2604;
-102.6000;0.3541;1.2481;
-102.3000;0.3549;1.2481;
-102.0000;0.3565;1.2628;
-101.7000;0.3573;1.2677;
-101.4000;0.3565;1.2677;
-101.1000;0.3565;1.2604;
-100.8000;0.3614;1.2825;
-100.5000;0.3541;1.2702;
-100.2000;0.3557;1.2653;
-99.9000;0.3565;1.2555;
-99.6000;0.3565;1.2506;
-99.3000;0.3573;1.2530;
-99.0000;0.3565;1.2506;
-98.7000;0.3557;1.2481;
-98.4000;0.3557;1.2481;
-98.1000;0.3565;1.2457;
-97.8000;0.3557;1.2555;
-97.5000;0.3573;1.2628;
-97.2000;0.3573;1.2457;
-96.9000;0.3549;1.2383;
-96.6000;0.3582;1.2310;
-96.3000;0.3565;1.2261;
-96.0000;0.3565;1.2212;
-95.7000;0.3573;1.2212;
-95.4000;0.3549;1.2285;
-95.1000;0.3590;1.2383;
-94.8000;0.3557;1.2408;
-94.5000;0.3590;1.2481;
-94.2000;0.3614;1.2506;
-93.9000;0.3565;1.2481;
-93.6000;0.3557;1.2530;
-93.3000;0.3630;1.2677;
-93.0000;0.3533;1.2506;
-92.7000;0.3582;1.2579;
-92.4000;0.3565;1.2506;
-92.1000;0.3557;1.2579;
-91.8000;0.3606;1.2849;
-91.5000;0.3549;1.2702;
-91.2000;0.3541;1.2604;
-90.9000;0.3541;1.2653;
-90.6000;0.3549;1.2726;
-90.3000;0.3557;1.2776;
-90.0000;0.3573;1.2776;
-89.7000;0.3533;1.2653;
-89.4000;0.3549;1.2530;
-89.1000;0.3565;1.2481;
-88.8000;0.3508;1.2383;
-88.5000;0.3541;1.2628;
-88.2000;0.3565;1.2726;
-87.9000;0.3549;1.2628;
-87.6000;0.3549;1.2604;
-87.3000;0.3565;1.2677;
-87.0000;0.3549;1.2653;
-86.7000;0.3590;1.2653;
-86.4000;0.3557;1.2579;
-86.1000;0.3565;1.2579;
-85.8000;0.3565;1.2555;
-85.5000;0.3557;1.2506;
-85.2000;0.3541;1.2530;
-84.9000;0.3557;1.2579;
-84.6000;0.3565;1.2653;
-84.3000;0.3590;1.2726;
-84.0000;0.3557;1.2628;
-83.7000;0.3582;1.2628;
-83.4000;0.3630;1.2702;
-83.1000;0.3582;1.2530;
-82.8000;0.3573;1.2530;
-82.5000;0.3541;1.2408;
-82.2000;0.3541;1.2506;
-81.9000;0.3541;1.2506;
-81.6000;0.3614;1.2604;
-81.3000;0.3557;1.2408;
-81.0000;0.3557;1.2481;
-80.7000;0.3565;1.2457;
-80.4000;0.3549;1.2457;
-80.1000;0.3573;1.2530;
-79.8000;0.3525;1.2432;
-79.5000;0.3541;1.2481;
-79.2000;0.3541;1.2506;
-78.9000;0.3516;1.2506;
-78.6000;0.3565;1.2506;
-78.3000;0.3549;1.2432;
-78.0000;0.3573;1.2506;
-77.7000;0.3565;1.2506;
-77.4000;0.3573;1.2530;
-77.1000;0.3582;1.2604;
-76.8000;0.3565;1.2653;
-76.5000;0.3516;1.2506;
-76.2000;0.3582;1.2726;
-75.9000;0.3573;1.2604;
-75.6000;0.3573;1.2653;
-75.3000;0.3557;1.2530;
-75.0000;0.3565;1.2628;
-74.7000;0.3573;1.2604;
-74.4000;0.3582;1.2628;
-74.1000;0.3582;1.2653;
-73.8000;0.3484;1.2457;
-73.5000;0.3630;1.2898;
-73.2000;0.3582;1.2726;
-72.9000;0.3582;1.2726;
-72.6000;0.3573;1.2751;
-72.3000;0.3582;1.2653;
-72.0000;0.3549;1.2604;
-71.7000;0.3549;1.2555;
-71.4000;0.3573;1.2628;
-71.1000;0.3582;1.2579;
-70.8000;0.3549;1.2481;
-70.5000;0.3582;1.2555;
-70.2000;0.3614;1.2628;
-69.9000;0.3582;1.2555;
-69.6000;0.3565;1.2481;
-69.3000;0.3573;1.2383;
-69.0000;0.3516;1.2187;
-68.7000;0.3573;1.2261;
-68.4000;0.3573;1.2383;
-68.1000;0.3573;1.2359;
-67.8000;0.3565;1.2408;
-67.5000;0.3525;1.2359;
-67.2000;0.3622;1.2677;
-66.9000;0.3565;1.2555;
-66.6000;0.3549;1.2555;
-66.3000;0.3557;1.2555;
-66.0000;0.3549;1.2604;
-65.7000;0.3573;1.2579;
-65.4000;0.3590;1.2506;
-65.1000;0.3541;1.2359;
-64.8000;0.3565;1.2408;
-64.5000;0.3573;1.2457;
-64.2000;0.3557;1.2383;
-63.9000;0.3565;1.2481;
-63.6000;0.3582;1.2555;
-63.3000;0.3565;1.2481;
-63.0000;0.3565;1.2506;
-62.7000;0.3557;1.2432;
-62.4000;0.3565;1.2481;
-62.1000;0.3582;1.2555;
-61.8000;0.3598;1.2555;
-61.5000;0.3541;1.2457;
-61.2000;0.3557;1.2530;
-60.9000;0.3573;1.2530;
-60.6000;0.3582;1.2530;
-60.3000;0.3565;1.2506;
-60.0000;0.3565;1.2555;
-59.7000;0.3557;1.2555;
-59.4000;0.3565;1.2604;
-59.1000;0.3606;1.2726;
-58.8000;0.3549;1.2628;
-58.5000;0.3582;1.2726;
-58.2000;0.3573;1.2751;
-57.9000;0.3557;1.2702;
-57.6000;0.3573;1.2702;
-57.3000;0.3557;1.2653;
-57.0000;0.3565;1.2726;
-56.7000;0.3533;1.2702;
-56.4000;0.3573;1.2825;
-56.1000;0.3573;1.2849;
-55.8000;0.3565;1.2849;
-55.5000;0.3573;1.2825;
-55.2000;0.3557;1.2751;
-54.9000;0.3565;1.2726;
-54.6000;0.3557;1.2653;
-54.3000;0.3582;1.2579;
-54.0000;0.3582;1.2653;
-53.7000;0.3533;1.2579;
-53.4000;0.3573;1.2751;
-53.1000;0.3549;1.2604;
-52.8000;0.3590;1.2776;
-52.5000;0.3598;1.2751;
-52.2000;0.3614;1.2849;
-51.9000;0.3582;1.2849;
-51.6000;0.3525;1.2653;
-51.3000;0.3573;1.2849;
-51.0000;0.3557;1.2874;
-50.7000;0.3582;1.2898;
-50.4000;0.3549;1.2825;
-50.1000;0.3500;1.2677;
-49.8000;0.3557;1.2800;
-49.5000;0.3565;1.2776;
-49.2000;0.3622;1.2947;
-48.9000;0.3573;1.2825;
-48.6000;0.3557;1.2776;
-48.3000;0.3565;1.2825;
-48.0000;0.3541;1.2776;
-47.7000;0.3598;1.2923;
-47.4000;0.3541;1.2653;
-47.1000;0.3622;1.2825;
-46.8000;0.3557;1.2653;
-46.5000;0.3508;1.2530;
-46.2000;0.3573;1.2726;
-45.9000;0.3549;1.2653;
-45.6000;0.3573;1.2702;
-45.3000;0.3565;1.2677;
-45.0000;0.3508;1.2530;
-44.7000;0.3500;1.2604;
-44.4000;0.3557;1.2702;
-44.1000;0.3516;1.2628;
-43.8000;0.3541;1.2653;
-43.5000;0.3565;1.2677;
-43.2000;0.3573;1.2726;
-42.9000;0.3549;1.2702;
-42.6000;0.3590;1.2849;
-42.3000;0.3557;1.2677;
-42.0000;0.3565;1.2604;
-41.7000;0.3565;1.2555;
-41.4000;0.3573;1.2579;
-41.1000;0.3573;1.2677;
-40.8000;0.3573;1.2677;
-40.5000;0.3573;1.2677;
-40.2000;0.3525;1.2481;
-39.9000;0.3606;1.2604;
-39.6000;0.3598;1.2530;
-39.3000;0.3598;1.2604;
-39.0000;0.3573;1.2530;
-38.7000;0.3565;1.2555;
-38.4000;0.3565;1.2653;
-38.1000;0.3590;1.2702;
-37.8000;0.3573;1.2653;
-37.5000;0.3549;1.2653;
-37.2000;0.3565;1.2628;
-36.9000;0.3573;1.2579;
-36.6000;0.3590;1.2677;
-36.3000;0.3582;1.2604;
-36.0000;0.3590;1.2653;
-35.7000;0.3598;1.2653;
-35.4000;0.3590;1.2677;
-35.1000;0.3573;1.2530;
-34.8000;0.3557;1.2530;
-34.5000;0.3541;1.2506;
-34.2000;0.3573;1.2579;
-33.9000;0.3590;1.2579;
-33.6000;0.3573;1.2628;
-33.3000;0.3565;1.2677;
-33.0000;0.3557;1.2702;
-32.7000;0.3590;1.2702;
-32.4000;0.3557;1.2604;
-32.1000;0.3549;1.2628;
-31.8000;0.3590;1.2726;
-31.5000;0.3582;1.2751;
-31.2000;0.3549;1.2751;
-30.9000;0.3549;1.2726;
-30.6000;0.3557;1.2653;
-30.3000;0.3557;1.2604;
-30.0000;0.3606;1.2702;
-29.7000;0.3573;1.2628;
-29.4000;0.3565;1.2555;
-29.1000;0.3557;1.2604;
-28.8000;0.3582;1.2702;
-28.5000;0.3573;1.2702;
-28.2000;0.3573;1.2677;
-27.9000;0.3582;1.2702;
-27.6000;0.3573;1.2653;
-27.3000;0.3557;1.2628;
-27.0000;0.3622;1.2726;
-26.7000;0.3565;1.2677;
-26.4000;0.3573;1.2677;
-26.1000;0.3565;1.2579;
-25.8000;0.3573;1.2628;
-25.5000;0.3565;1.2628;
-25.2000;0.3582;1.2653;
-24.9000;0.3573;1.2579;
-24.6000;0.3582;1.2653;
-24.3000;0.3549;1.2702;
-24.0000;0.3565;1.2702;
-23.7000;0.3557;1.2579;
-23.4000;0.3565;1.2579;
-23.1000;0.3573;1.2628;
-22.8000;0.3590;1.2677;
-22.5000;0.3582;1.2653;
-22.2000;0.3549;1.2604;
-21.9000;0.3549;1.2579;
-21.6000;0.3549;1.2530;
-21.3000;0.3549;1.2726;
-21.0000;0.3565;1.2751;
-20.7000;0.3549;1.2751;
-20.4000;0.3582;1.2800;
-20.1000;0.3606;1.2898;
-19.8000;0.3541;1.2751;
-19.5000;0.3557;1.2800;
-19.2000;0.3557;1.2825;
-18.9000;0.3639;1.2972;
-18.6000;0.3557;1.2702;
-18.3000;0.3565;1.2726;
-18.0000;0.3565;1.2751;
-17.7000;0.3573;1.2776;
-17.4000;0.3582;1.2702;
-17.1000;0.3565;1.2702;
-16.8000;0.3565;1.2653;
-16.5000;0.3557;1.2726;
-16.2000;0.3557;1.2702;
-15.9000;0.3573;1.2702;
-15.6000;0.3565;1.2726;
-15.3000;0.3565;1.2776;
-15.0000;0.3573;1.2726;
-14.7000;0.3565;1.2653;
-14.4000;0.3565;1.2579;
-14.1000;0.3549;1.2555;
-13.8000;0.3565;1.2628;
-13.5000;0.3573;1.2702;
-13.2000;0.3614;1.2825;
-12.9000;0.3598;1.2702;
-12.6000;0.3582;1.2628;
-12.3000;0.3606;1.2677;
-12.0000;0.3582;1.2653;
-11.7000;0.3573;1.2702;
-11.4000;0.3573;1.2677;
-11.1000;0.3557;1.2579;
-10.8000;0.3557;1.2506;
-10.5000;0.3549;1.2457;
-10.2000;0.3590;1.2555;
-9.9000;0.3565;1.2481;
-9.6000;0.3573;1.2481;
-9.3000;0.3541;1.2432;
-9.0000;0.3565;1.2506;
-8.7000;0.3557;1.2530;
-8.4000;0.3565;1.2579;
-8.1000;0.3565;1.2555;
-7.8000;0.3565;1.2579;
-7.5000;0.3533;1.2481;
-7.2000;0.3565;1.2530;
-6.9000;0.3565;1.2506;
-6.6000;0.3549;1.2457;
-6.3000;0.3565;1.2530;
-6.0000;0.3500;1.2310;
-5.7000;0.3557;1.2506;
-5.4000;0.3557;1.2481;
-5.1000;0.3508;1.2383;
-4.8000;0.3557;1.2555;
-4.5000;0.3565;1.2530;
-4.2000;0.3549;1.2481;
-3.9000;0.3565;1.2408;
-3.6000;0.3565;1.2383;
-3.3000;0.3557;1.2310;
-3.0000;0.3582;1.2432;
-2.7000;0.3582;1.2481;
-2.4000;0.3573;1.2506;
-2.1000;0.3516;1.2334;
-1.8000;0.3565;1.2432;
-1.5000;0.3565;1.2432;
-1.2000;0.3573;1.2408;
-0.9000;0.3549;1.2383;
-0.6000;0.3565;1.2408;
-0.3000;0.3565;1.2432;
0.0000;0.3565;1.2432;
0.3000;0.3785;1.2310;
0.6000;0.4151;1.2677;
0.9000;0.4412;1.3070;
1.2000;0.4664;1.3536;
1.5000;0.4803;1.3756;
1.8000;0.4900;1.4051;
2.1000;0.4949;1.4124;
2.4000;0.5079;1.4418;
2.7000;0.5136;1.4566;
3.0000;0.5201;1.4737;
3.3000;0.5242;1.4860;
3.6000;0.5291;1.5031;
3.9000;0.5340;1.5154;
4.2000;0.5356;1.5105;
4.5000;0.5405;1.5154;
4.8000;0.5429;1.5154;
5.1000;0.5462;1.5179;
5.4000;0.5486;1.5228;
5.7000;0.5535;1.5252;
6.0000;0.5551;1.5203;
6.3000;0.5576;1.5130;
6.6000;0.5592;1.5056;
6.9000;0.5600;1.5154;
7.2000;0.5641;1.5105;
7.5000;0.5641;1.5081;
7.8000;0.5690;1.5154;
8.1000;0.5674;1.5056;
8.4000;0.5706;1.5105;
8.7000;0.5722;1.5154;
9.0000;0.5747;1.5228;
9.3000;0.5747;1.5154;
9.6000;0.5771;1.5228;
9.9000;0.5804;1.5326;
10.2000;0.5820;1.5326;
10.5000;0.5836;1.5350;
10.8000;0.5853;1.5301;
11.1000;0.5877;1.5301;
11.4000;0.5877;1.5301;
11.7000;0.5885;1.5277;
12.0000;0.5893;1.5203;
12.3000;0.5926;1.5154;
12.6000;0.5958;1.5277;
12.9000;0.5950;1.5203;
13.2000;0.5983;1.5203;
13.5000;0.5991;1.5228;
13.8000;0.5983;1.5277;
14.1000;0.5950;1.5203;
14.4000;0.6007;1.5326;
14.7000;0.6024;1.5399;
15.0000;0.6024;1.5399;
15.3000;0.6040;1.5424;
15.6000;0.6056;1.5424;
15.9000;0.6032;1.5301;
16.2000;0.6064;1.5301;
16.5000;0.6081;1.5375;
16.8000;0.6113;1.5448;
17.1000;0.6056;1.5277;
17.4000;0.6113;1.5424;
17.7000;0.6146;1.5448;
18.0000;0.6154;1.5375;
18.3000;0.6162;1.5301;
18.6000;0.6186;1.5399;
18.9000;0.6178;1.5399;
19.2000;0.6170;1.5350;
19.5000;0.6195;1.5375;
19.8000;0.6170;1.5277;
20.1000;0.6203;1.5399;
20.4000;0.6195;1.5350;
20.7000;0.6276;1.5546;
21.0000;0.6211;1.5350;
21.3000;0.6227;1.5375;
21.6000;0.6227;1.5350;
21.9000;0.6186;1.5228;
22.2000;0.6243;1.5424;
22.5000;0.6260;1.5375;
22.8000;0.6260;1.5350;
23.1000;0.6276;1.5399;
23.4000;0.6268;1.5350;
23.7000;0.6268;1.5326;
24.0000;0.6284;1.5375;
24.3000;0.6309;1.5424;
24.6000;0.6309;1.5375;
24.9000;0.6284;1.5277;
25.2000;0.6268;1.5277;
25.5000;0.6325;1.5326;
25.8000;0.6325;1.5424;
26.1000;0.6300;1.5252;
26.4000;0.6325;1.5326;
26.7000;0.6333;1.5375;
27.0000;0.6333;1.5399;
27.3000;0.6365;1.5424;
27.6000;0.6325;1.5301;
27.9000;0.6374;1.5301;
28.2000;0.6341;1.5252;
28.5000;0.6365;1.5375;
28.8000;0.6365;1.5301;
29.1000;0.6374;1.5277;
29.4000;0.6406;1.5252;
29.7000;0.6390;1.5130;
30.0000;0.6382;1.5105;
30.3000;0.6439;1.5301;
30.6000;0.6390;1.5154;
30.9000;0.6406;1.5154;
31.2000;0.6471;1.5399;
31.5000;0.6414;1.5277;
31.8000;0.6414;1.5179;
32.1000;0.6422;1.5203;
32.4000;0.6398;1.5154;
32.7000;0.6422;1.5277;
33.0000;0.6431;1.5301;
33.3000;0.6349;1.5081;
33.6000;0.6414;1.5203;
33.9000;0.6431;1.5277;
34.2000;0.6439;1.5252;
34.5000;0.6455;1.5350;
34.8000;0.6447;1.5301;
35.1000;0.6439;1.5130;
35.4000;0.6447;1.5179;
35.7000;0.6455;1.5228;
36.0000;0.6455;1.5179;
36.3000;0.6455;1.5130;
36.6000;0.6471;1.5154;
36.9000;0.6463;1.5179;
37.2000;0.6479;1.5277;
37.5000;0.6463;1.5277;
37.8000;0.6479;1.5326;
38.1000;0.6496;1.5326;
38.4000;0.6496;1.5203;
38.7000;0.6488;1.5203;
39.0000;0.6463;1.5105;
39.3000;0.6504;1.5252;
39.6000;0.6520;1.5277;
39.9000;0.6496;1.5252;
40.2000;0.6488;1.5203;
40.5000;0.6512;1.5277;
40.8000;0.6520;1.5399;
41.1000;0.6512;1.5375;
41.4000;0.6463;1.5326;
41.7000;0.6496;1.5301;
42.0000;0.6471;1.5179;
42.3000;0.6545;1.5277;
42.6000;0.6520;1.5154;
42.9000;0.6536;1.5179;
43.2000;0.6545;1.5203;
43.5000;0.6528;1.5105;
43.8000;0.6561;1.5105;
44.1000;0.6553;1.5056;
44.4000;0.6553;1.4982;
44.7000;0.6545;1.4982;
45.0000;0.6553;1.5056;
45.3000;0.6561;1.4982;
45.6000;0.6561;1.4982;
45.9000;0.6569;1.5056;
46.2000;0.6553;1.5056;
46.5000;0.6553;1.5105;
46.8000;0.6569;1.5154;
47.1000;0.6577;1.5154;
47.4000;0.6610;1.5228;
47.7000;0.6610;1.5277;
48.0000;0.6577;1.5154;
48.3000;0.6618;1.5228;
48.6000;0.6626;1.5252;
48.9000;0.6593;1.5179;
49.2000;0.6618;1.5179;
49.5000;0.6626;1.5203;
49.8000;0.6602;1.5130;
50.1000;0.6675;1.5277;
50.4000;0.6577;1.5031;
50.7000;0.6593;1.5081;
51.0000;0.6610;1.5154;
51.3000;0.6602;1.5203;
51.6000;0.6593;1.5203;
51.9000;0.6618;1.5179;
52.2000;0.6634;1.5105;
52.5000;0.6593;1.5081;
52.8000;0.6642;1.5154;
53.1000;0.6626;1.5081;
53.4000;0.6626;1.5081;
53.7000;0.6659;1.5130;
54.0000;0.6650;1.5203;
54.3000;0.6650;1.5203;
54.6000;0.6650;1.5301;
54.9000;0.6659;1.5252;
55.2000;0.6642;1.5179;
55.5000;0.6642;1.5179;
55.8000;0.6634;1.5130;
56.1000;0.6650;1.5081;
56.4000;0.6642;1.4933;
56.7000;0.6683;1.5007;
57.0000;0.6675;1.4909;
57.3000;0.6683;1.4909;
57.6000;0.6683;1.4909;
57.9000;0.6675;1.4860;
58.2000;0.6740;1.4982;
58.5000;0.6691;1.4860;
58.8000;0.6707;1.4933;
59.1000;0.6691;1.4884;
59.4000;0.6691;1.4884;
59.7000;0.6699;1.4909;
60.0000;0.6716;1.4982;
60.3000;0.6699;1.5031;
60.6000;0.6634;1.4835;
60.9000;0.6683;1.4884;
61.2000;0.6683;1.5007;
61.5000;0.6699;1.5081;
61.8000;0.6716;1.5105;
62.1000;0.6699;1.4982;
62.4000;0.6716;1.4982;
62.7000;0.6716;1.5056;
63.0000;0.6707;1.4933;
63.3000;0.6707;1.5007;
63.6000;0.6732;1.5081;
63.9000;0.6659;1.4835;
64.2000;0.6732;1.4982;
64.5000;0.6724;1.5007;
64.8000;0.6707;1.5007;
65.1000;0.6724;1.4982;
65.4000;0.6724;1.4909;
65.7000;0.6724;1.4786;
66.0000;0.6732;1.4737;
66.3000;0.6748;1.4762;
66.6000;0.6732;1.4713;
66.9000;0.6789;1.4933;
67.2000;0.6732;1.4884;
67.5000;0.6756;1.4909;
67.8000;0.6781;1.4933;
68.1000;0.6756;1.4835;
68.4000;0.6748;1.4909;
68.7000;0.6740;1.4909;
69.0000;0.6748;1.4860;
69.3000;0.6756;1.4884;
69.6000;0.6740;1.4884;
69.9000;0.6691;1.4762;
70.2000;0.6772;1.4958;
70.5000;0.6756;1.4909;
70.8000;0.6724;1.4884;
71.1000;0.6764;1.4909;
71.4000;0.6772;1.4909;
71.7000;0.6748;1.4835;
72.0000;0.6764;1.4909;
72.3000;0.6756;1.4835;
72.6000;0.6764;1.4884;
72.9000;0.6789;1.4933;
73.2000;0.6781;1.4835;
73.5000;0.6772;1.4909;
73.8000;0.6772;1.4933;
74.1000;0.6764;1.4909;
74.4000;0.6772;1.4835;
74.7000;0.6829;1.4958;
75.0000;0.6789;1.4786;
75.3000;0.6781;1.4762;
75.6000;0.6781;1.4811;
75.9000;0.6781;1.4786;
76.2000;0.6756;1.4811;
76.5000;0.6772;1.4811;
76.8000;0.6789;1.4835;
77.1000;0.6781;1.4835;
77.4000;0.6772;1.4835;
77.7000;0.6789;1.4835;
78.0000;0.6797;1.4860;
78.3000;0.6797;1.4860;
78.6000;0.6764;1.4786;
78.9000;0.6781;1.4909;
79.2000;0.6813;1.4958;
79.5000;0.6805;1.4860;
79.8000;0.6805;1.4884;
80.1000;0.6821;1.4909;
80.4000;0.6797;1.4958;
80.7000;0.6805;1.5031;
81.0000;0.6789;1.4884;
81.3000;0.6797;1.4811;
81.6000;0.6813;1.4835;
81.9000;0.6797;1.4811;
82.2000;0.6813;1.4786;
82.5000;0.6748;1.4688;
82.8000;0.6805;1.4786;
83.1000;0.6797;1.4835;
83.4000;0.6797;1.4762;
83.7000;0.6789;1.4713;
84.0000;0.6805;1.4737;
84.3000;0.6805;1.4762;
84.6000;0.6756;1.4615;
84.9000;0.6805;1.4737;
85.2000;0.6829;1.4786;
85.5000;0.6772;1.4590;
85.8000;0.6813;1.4737;
86.1000;0.6789;1.4664;
86.4000;0.6805;1.4762;
86.7000;0.6829;1.4811;
87.0000;0.6813;1.4835;
87.3000;0.6838;1.4860;
87.6000;0.6821;1.4786;
87.9000;0.6829;1.4811;
88.2000;0.6838;1.4786;
88.5000;0.6821;1.4713;
88.8000;0.6838;1.4737;
89.1000;0.6805;1.4786;
89.4000;0.6829;1.4933;
89.7000;0.6838;1.5007;
90.0000;0.6813;1.4884;
90.3000;0.6813;1.4884;
90.6000;0.6846;1.4933;
90.9000;0.6846;1.4884;
91.2000;0.6821;1.4786;
91.5000;0.6846;1.4786;
91.8000;0.6829;1.4811;
92.1000;0.6846;1.4811;
92.4000;0.6846;1.4762;
92.7000;0.6838;1.4713;
93.0000;0.6846;1.4688;
93.3000;0.6829;1.4639;
93.6000;0.6846;1.4713;
93.9000;0.6911;1.4909;
94.2000;0.6838;1.4786;
94.5000;0.6838;1.4811;
94.8000;0.6821;1.4688;
95.1000;0.6838;1.4737;
95.4000;0.6838;1.4688;
95.7000;0.6846;1.4786;
96.0000;0.6846;1.4860;
96.3000;0.6829;1.4909;
96.6000;0.6838;1.4958;
96.9000;0.6846;1.4982;
97.2000;0.6846;1.5031;
97.5000;0.6838;1.4958;
97.8000;0.6829;1.4933;
98.1000;0.6829;1.5007;
98.4000;0.6846;1.5007;
98.7000;0.6838;1.4884;
99.0000;0.6838;1.4884;
99.3000;0.6846;1.4860;
99.6000;0.6846;1.4786;
99.9000;0.6862;1.4811;
100.2000;0.6838;1.4786;
100.5000;0.6789;1.4688;
100.8000;0.6838;1.4884;
101.1000;0.6846;1.4884;
101.4000;0.6821;1.4786;
101.7000;0.6870;1.4811;
102.0000;0.6813;1.4713;
102.3000;0.6829;1.4688;
102.6000;0.6895;1.4933;
102.9000;0.6846;1.4835;
103.2000;0.6854;1.4835;
103.5000;0.6854;1.4737;
103.8000;0.6854;1.4688;
104.1000;0.6846;1.4737;
104.4000;0.6854;1.4713;
104.7000;0.6854;1.4713;
105.0000;0.6838;1.4737;
105.3000;0.6829;1.4762;
105.6000;0.6886;1.4982;
105.9000;0.6862;1.4909;
106.2000;0.6838;1.4762;
106.5000;0.6846;1.4786;
106.8000;0.6772;1.4615;
107.1000;0.6846;1.4786;
107.4000;0.6870;1.4933;
107.7000;0.6829;1.4884;
108.0000;0.6838;1.4786;
108.3000;0.6846;1.4786;
108.6000;0.6838;1.4860;
108.9000;0.6821;1.4835;
109.2000;0.6846;1.4884;
109.5000;0.6805;1.4786;
109.8000;0.6854;1.4860;
110.1000;0.6805;1.4713;
110.4000;0.6895;1.5007;
110.7000;0.6829;1.4860;
111.0000;0.6927;1.5007;
111.3000;0.6854;1.4664;
111.6000;0.6838;1.4615;
111.9000;0.6846;1.4615;
112.2000;0.6878;1.4835;
112.5000;0.6903;1.4958;
112.8000;0.6805;1.4811;
113.1000;0.6838;1.4933;
113.4000;0.6829;1.4884;
113.7000;0.6838;1.4860;
114.0000;0.6821;1.4884;
114.3000;0.6862;1.4958;
114.6000;0.6846;1.4933;
114.9000;0.6846;1.4982;
115.2000;0.6829;1.4909;
115.5000;0.6829;1.4909;
115.8000;0.6829;1.4958;
116.1000;0.6838;1.4958;
116.4000;0.6829;1.4933;
116.7000;0.6821;1.4884;
117.0000;0.6854;1.5007;
117.3000;0.6846;1.4860;
117.6000;0.6838;1.4860;
117.9000;0.6846;1.4860;
118.2000;0.6846;1.4811;
118.5000;0.6854;1.4811;
118.8000;0.6829;1.4811;
119.1000;0.6838;1.4811;
119.4000;0.6805;1.4737;
119.7000;0.6870;1.4860;
120.0000;0.6862;1.4762;
120.3000;0.6854;1.4884;
120.6000;0.6854;1.4884;
120.9000;0.6854;1.4835;
121.2000;0.6846;1.4835;
121.5000;0.6878;1.4884;
121.8000;0.6854;1.4762;
122.1000;0.6854;1.4786;
122.4000;0.6854;1.4811;
122.7000;0.6862;1.4835;
123.0000;0.6838;1.4811;
123.3000;0.6854;1.4958;
123.6000;0.6829;1.4982;
123.9000;0.6838;1.4909;
124.2000;0.6838;1.4860;
124.5000;0.6878;1.4909;
124.8000;0.6838;1.4737;
125.1000;0.6846;1.4737;
125.4000;0.6829;1.4664;
125.7000;0.6862;1.4713;
126.0000;0.6838;1.4688;
126.3000;0.6813;1.4615;
126.6000;0.6813;1.4590;
126.9000;0.6846;1.4664;
127.2000;0.6838;1.4664;
127.5000;0.6838;1.4688;
127.8000;0.6813;1.4639;
128.1000;0.6838;1.4737;
128.4000;0.6838;1.4835;
128.7000;0.6838;1.4884;
129.0000;0.6789;1.4762;
129.3000;0.6846;1.4909;
129.6000;0.6846;1.4884;
129.9000;0.6829;1.4860;
130.2000;0.6838;1.4909;
130.5000;0.6829;1.4860;
130.8000;0.6821;1.4860;
131.1000;0.6854;1.4860;
131.4000;0.6846;1.4762;
131.7000;0.6829;1.4860;
132.0000;0.6829;1.4884;
132.3000;0.6846;1.4860;
132.6000;0.6862;1.4909;
132.9000;0.6854;1.4909;
133.2000;0.6789;1.4664;
133.5000;0.6829;1.4884;
133.8000;0.6846;1.5007;
134.1000;0.6756;1.4737;
134.4000;0.6838;1.4835;
134.7000;0.6838;1.4860;
135.0000;0.6903;1.4909;
135.3000;0.6846;1.4786;
135.6000;0.6838;1.4860;
135.9000;0.6813;1.4860;
136.2000;0.6846;1.4933;
136.5000;0.6927;1.5154;
136.8000;0.6813;1.4860;
137.1000;0.6756;1.4713;
137.4000;0.6838;1.4835;
137.7000;0.6911;1.5056;
138.0000;0.6829;1.4835;
138.3000;0.6846;1.4909;
138.6000;0.6829;1.4884;
138.9000;0.6821;1.4884;
139.2000;0.6838;1.4884;
139.5000;0.6821;1.4884;
139.8000;0.6838;1.4860;
140.1000;0.6829;1.4811;
140.4000;0.6846;1.4835;
140.7000;0.6829;1.4835;
141.0000;0.6838;1.4811;
141.3000;0.6838;1.4737;
141.6000;0.6829;1.4737;
141.9000;0.6829;1.4713;
142.2000;0.6829;1.4713;
142.5000;0.6838;1.4737;
142.8000;0.6838;1.4737;
143.1000;0.6821;1.4737;
143.4000;0.6829;1.4688;
143.7000;0.6838;1.4615;
144.0000;0.6829;1.4541;
144.3000;0.6821;1.4492;
144.6000;0.6821;1.4467;
144.9000;0.6829;1.4467;
145.2000;0.6838;1.4541;
145.5000;0.6838;1.4541;
145.8000;0.6821;1.4517;
146.1000;0.6805;1.4467;
146.4000;0.6829;1.4443;
146.7000;0.6838;1.4492;
147.0000;0.6813;1.4541;
147.3000;0.6805;1.4615;
147.6000;0.6829;1.4688;
147.9000;0.6846;1.4688;
148.2000;0.6854;1.4737;
148.5000;0.6813;1.4664;
148.8000;0.6829;1.4688;
149.1000;0.6829;1.4786;
149.4000;0.6813;1.4811;
149.7000;0.6805;1.4737;
150.0000;0.6821;1.4835;
150.3000;0.6854;1.4884;
150.6000;0.6813;1.4860;
150.9000;0.6797;1.4811;
151.2000;0.6772;1.4688;
151.5000;0.6829;1.4860;
151.8000;0.6821;1.4909;
152.1000;0.6903;1.5130;
152.4000;0.6813;1.4884;
152.7000;0.6805;1.4884;
153.0000;0.6797;1.4811;
153.3000;0.6805;1.4786;
153.6000;0.6821;1.4811;
153.9000;0.6797;1.4786;
154.2000;0.6805;1.4786;
154.5000;0.6748;1.4639;
154.8000;0.6789;1.4811;
155.1000;0.6813;1.4909;
155.4000;0.6854;1.5056;
155.7000;0.6813;1.4958;
156.0000;0.6805;1.4884;
156.3000;0.6829;1.5031;
156.6000;0.6781;1.4909;
156.9000;0.6781;1.5007;
157.2000;0.6805;1.5056;
157.5000;0.6805;1.5130;
157.8000;0.6829;1.5130;
158.1000;0.6789;1.5031;
158.4000;0.6821;1.4933;
158.7000;0.6797;1.4909;
159.0000;0.6805;1.4958;
159.3000;0.6838;1.5007;
159.6000;0.6797;1.4909;
159.9000;0.6821;1.4933;
160.2000;0.6797;1.4958;
160.5000;0.6805;1.4982;
160.8000;0.6789;1.4835;
161.1000;0.6805;1.4909;
161.4000;0.6789;1.4835;
161.7000;0.6789;1.4835;
162.0000;0.6789;1.4835;
162.3000;0.6797;1.4884;
162.6000;0.6797;1.4933;
162.9000;0.6781;1.4909;
163.2000;0.6805;1.4909;
163.5000;0.6854;1.4933;
163.8000;0.6764;1.4786;
164.1000;0.6813;1.4958;
164.4000;0.6821;1.4909;
164.7000;0.6829;1.4860;
165.0000;0.6821;1.4909;
165.3000;0.6789;1.4786;
165.6000;0.6805;1.4835;
165.9000;0.6805;1.4786;
166.2000;0.6797;1.4811;
166.5000;0.6789;1.4835;
166.8000;0.6789;1.4835;
167.1000;0.6838;1.4982;
167.4000;0.6813;1.4884;
167.7000;0.6813;1.4884;
168.0000;0.6789;1.4835;
168.3000;0.6821;1.4982;
168.6000;0.6789;1.4958;
168.9000;0.6797;1.5081;
169.2000;0.6813;1.5154;
169.5000;0.6805;1.5130;
169.8000;0.6797;1.5031;
170.1000;0.6797;1.5056;
170.4000;0.6789;1.5056;
170.7000;0.6789;1.5056;
171.0000;0.6805;1.5007;
171.3000;0.6805;1.5056;
171.6000;0.6797;1.5056;
171.9000;0.6813;1.5056;
172.2000;0.6805;1.5130;
172.5000;0.6789;1.5031;
172.8000;0.6813;1.5081;
173.1000;0.6805;1.5081;
173.4000;0.6854;1.5031;
173.7000;0.6805;1.4958;
174.0000;0.6789;1.4909;
174.3000;0.6764;1.4909;
174.6000;0.6813;1.5056;
174.9000;0.6805;1.4982;
175.2000;0.6748;1.4811;
175.5000;0.6789;1.4860;
175.8000;0.6781;1.4884;
176.1000;0.6772;1.4860;
176.4000;0.6764;1.4860;
176.7000;0.6797;1.5007;
177.0000;0.6821;1.5081;
177.3000;0.6789;1.4909;
177.6000;0.6797;1.4835;
177.9000;0.6870;1.5007;
178.2000;0.6805;1.4811;
178.5000;0.6789;1.4762;
178.8000;0.6781;1.4713;
179.1000;0.6797;1.4860;
179.4000;0.6797;1.4958;
179.7000;0.6805;1.4933;
180.0000;0.6813;1.4958;
180.3000;0.6838;1.5031;
180.6000;0.6797;1.4958;
180.9000;0.6789;1.5031;
181.2000;0.6748;1.4958;
181.5000;0.6756;1.5056;
181.8000;0.6781;1.5105;
182.1000;0.6797;1.5130;
182.4000;0.6789;1.5081;
182.7000;0.6789;1.5105;
183.0000;0.6789;1.5081;
183.3000;0.6797;1.5203;
183.6000;0.6781;1.5105;
183.9000;0.6805;1.5130;
184.2000;0.6772;1.5056;
184.5000;0.6781;1.5081;
184.8000;0.6805;1.5130;
185.1000;0.6789;1.5130;
185.4000;0.6797;1.5154;
185.7000;0.6756;1.5031;
186.0000;0.6797;1.5179;
186.3000;0.6805;1.5179;
186.6000;0.6797;1.5081;
186.9000;0.6781;1.5179;
187.2000;0.6805;1.5203;
187.5000;0.6716;1.4982;
187.8000;0.6789;1.5105;
188.1000;0.6781;1.5105;
188.4000;0.6789;1.5081;
188.7000;0.6789;1.5007;
189.0000;0.6797;1.5031;
189.3000;0.6781;1.4909;
189.6000;0.6789;1.4884;
189.9000;0.6805;1.4860;
190.2000;0.6772;1.4811;
190.5000;0.6789;1.4811;
190.8000;0.6781;1.4860;
191.1000;0.6805;1.4958;
191.4000;0.6772;1.4811;
191.7000;0.6781;1.4786;
192.0000;0.6764;1.4811;
192.3000;0.6781;1.4811;
192.6000;0.6772;1.4909;
192.9000;0.6748;1.4762;
193.2000;0.6772;1.4737;
193.5000;0.6797;1.4811;
193.8000;0.6797;1.4909;
194.1000;0.6748;1.4762;
194.4000;0.6772;1.4835;
194.7000;0.6813;1.4884;
195.0000;0.6756;1.4762;
195.3000;0.6772;1.4860;
195.6000;0.6789;1.4909;
195.9000;0.6797;1.4958;
196.2000;0.6789;1.5007;
196.5000;0.6764;1.4933;
196.8000;0.6772;1.4884;
197.1000;0.6724;1.4860;
197.4000;0.6781;1.5081;
197.7000;0.6756;1.5031;
198.0000;0.6756;1.5056;
198.3000;0.6764;1.5056;
198.6000;0.6732;1.4958;
198.9000;0.6748;1.5081;
199.2000;0.6764;1.5081;
199.5000;0.6756;1.5081;
199.8000;0.6756;1.5056;
200.1000;0.6781;1.5130;
200.4000;0.6764;1.5031;
200.7000;0.6764;1.4958;
201.0000;0.6772;1.4982;
201.3000;0.6772;1.5007;
201.6000;0.6756;1.5056;
201.9000;0.6813;1.5081;
202.2000;0.6748;1.4860;
202.5000;0.6772;1.4860;
202.8000;0.6748;1.4909;
203.1000;0.6781;1.4982;
203.4000;0.6764;1.4884;
203.7000;0.6781;1.4860;
204.0000;0.6772;1.4811;
204.3000;0.6764;1.4811;
204.6000;0.6724;1.4737;
204.9000;0.6781;1.4909;
205.2000;0.6772;1.4958;
205.5000;0.6764;1.4860;
205.8000;0.6740;1.4762;
206.1000;0.6789;1.4909;
206.4000;0.6789;1.4909;
206.7000;0.6748;1.4811;
207.0000;0.6748;1.4786;
207.3000;0.6748;1.4786;
207.6000;0.6781;1.4835;
207.9000;0.6764;1.4762;
208.2000;0.6756;1.4786;
208.5000;0.6764;1.4786;
208.8000;0.6756;1.4811;
209.1000;0.6740;1.4786;
209.4000;0.6740;1.4835;
209.7000;0.6740;1.4786;
210.0000;0.6813;1.4982;
210.3000;0.6748;1.4737;
210.6000;0.6756;1.4762;
210.9000;0.6748;1.4664;
211.2000;0.6740;1.4541;
211.5000;0.6748;1.4590;
211.8000;0.6748;1.4639;
212.1000;0.6740;1.4688;
212.4000;0.6764;1.4737;
212.7000;0.6740;1.4639;
213.0000;0.6732;1.4590;
213.3000;0.6740;1.4615;
213.6000;0.6756;1.4615;
213.9000;0.6756;1.4688;
214.2000;0.6789;1.4762;
214.5000;0.6764;1.4762;
214.8000;0.6756;1.4762;
215.1000;0.6756;1.4664;
215.4000;0.6764;1.4615;
215.7000;0.6724;1.4517;
216.0000;0.6748;1.4590;
216.3000;0.6764;1.4639;
216.6000;0.6756;1.4664;
216.9000;0.6748;1.4713;
217.2000;0.6756;1.4762;
217.5000;0.6805;1.4884;
217.8000;0.6732;1.4762;
218.1000;0.6748;1.4835;
218.4000;0.6748;1.4933;
218.7000;0.6748;1.5007;
219.0000;0.6748;1.4933;
219.3000;0.6781;1.5056;
219.6000;0.6716;1.4958;
219.9000;0.6748;1.4958;
220.2000;0.6756;1.4958;
220.5000;0.6764;1.5031;
220.8000;0.6740;1.5007;
221.1000;0.6732;1.4958;
221.4000;0.6740;1.4884;
221.7000;0.6691;1.4688;
222.0000;0.6748;1.4835;
222.3000;0.6748;1.4786;
222.6000;0.6748;1.4786;
222.9000;0.6756;1.4811;
223.2000;0.6740;1.4664;
223.5000;0.6748;1.4639;
223.8000;0.6838;1.4884;
224.1000;0.6748;1.4737;
224.4000;0.6756;1.4762;
224.7000;0.6756;1.4786;
225.0000;0.6756;1.4713;
225.3000;0.6756;1.4688;
225.6000;0.6756;1.4615;
225.9000;0.6740;1.4590;
226.2000;0.6740;1.4639;
226.5000;0.6756;1.4664;
226.8000;0.6748;1.4664;
227.1000;0.6675;1.4517;
227.4000;0.6740;1.4688;
227.7000;0.6748;1.4762;
228.0000;0.6756;1.4835;
228.3000;0.6748;1.4909;
228.6000;0.6724;1.4860;
228.9000;0.6724;1.4909;
229.2000;0.6732;1.4909;
229.5000;0.6740;1.4835;
229.8000;0.6740;1.4786;
230.1000;0.6732;1.4786;
230.4000;0.6756;1.4811;
230.7000;0.6740;1.4786;
231.0000;0.6732;1.4835;
231.3000;0.6740;1.4835;
231.6000;0.6756;1.4786;
231.9000;0.6740;1.4737;
232.2000;0.6732;1.4762;
232.5000;0.6732;1.4762;
232.8000;0.6740;1.4737;
233.1000;0.6740;1.4664;
233.4000;0.6740;1.4615;
233.7000;0.6740;1.4566;
234.0000;0.6748;1.4639;
234.3000;0.6756;1.4590;
234.6000;0.6764;1.4664;
234.9000;0.6789;1.4737;
235.2000;0.6756;1.4786;
235.5000;0.6748;1.4835;
235.8000;0.6740;1.4909;
236.1000;0.6740;1.4909;
236.4000;0.6724;1.4884;
236.7000;0.6748;1.4884;
237.0000;0.6740;1.4786;
237.3000;0.6756;1.4786;
237.6000;0.6740;1.4762;
237.9000;0.6748;1.4737;
238.2000;0.6756;1.4835;
238.5000;0.6740;1.4835;
238.8000;0.6740;1.4860;
239.1000;0.6748;1.4933;
239.4000;0.6756;1.4933;
239.7000;0.6748;1.4958;
240.0000;0.6764;1.5031;
240.3000;0.6724;1.4958;
240.6000;0.6740;1.5056;
240.9000;0.6707;1.5031;
241.2000;0.6732;1.5031;
241.5000;0.6732;1.5081;
241.8000;0.6699;1.4982;
242.1000;0.6732;1.5056;
242.4000;0.6740;1.5056;
242.7000;0.6772;1.5203;
243.0000;0.6740;1.5179;
243.3000;0.6748;1.5203;
243.6000;0.6716;1.5154;
243.9000;0.6716;1.5130;
244.2000;0.6724;1.5179;
244.5000;0.6740;1.5130;
244.8000;0.6724;1.5081;
245.1000;0.6716;1.4982;
245.4000;0.6699;1.4909;
245.7000;0.6716;1.5007;
246.0000;0.6740;1.5056;
246.3000;0.6716;1.4884;
246.6000;0.6748;1.4982;
246.9000;0.6724;1.4982;
247.2000;0.6732;1.4958;
247.5000;0.6716;1.4835;
247.8000;0.6732;1.4909;
248.1000;0.6716;1.4884;
248.4000;0.6748;1.4982;
248.7000;0.6797;1.5105;
249.0000;0.6724;1.5007;
249.3000;0.6740;1.5081;
249.6000;0.6724;1.5056;
249.9000;0.6724;1.5031;
250.2000;0.6724;1.4933;
250.5000;0.6732;1.5031;
250.8000;0.6724;1.5130;
251.1000;0.6797;1.5277;
251.4000;0.6724;1.4958;
251.7000;0.6724;1.4982;
252.0000;0.6716;1.4860;
252.3000;0.6699;1.4982;
252.6000;0.6724;1.5007;
252.9000;0.6789;1.5081;
253.2000;0.6724;1.4909;
253.5000;0.6724;1.4811;
253.8000;0.6724;1.4762;
254.1000;0.6707;1.4811;
254.4000;0.6724;1.4811;
254.7000;0.6699;1.4786;
255.0000;0.6724;1.4933;
255.3000;0.6732;1.4982;
255.6000;0.6724;1.4982;
255.9000;0.6707;1.4958;
256.2000;0.6748;1.5105;
256.5000;0.6707;1.5031;
256.8000;0.6667;1.4884;
257.1000;0.6732;1.5130;
257.4000;0.6716;1.5081;
257.7000;0.6781;1.5130;
258.0000;0.6675;1.5007;
258.3000;0.6740;1.5130;
258.6000;0.6748;1.5056;
258.9000;0.6716;1.5105;
259.2000;0.6756;1.5179;
259.5000;0.6716;1.5130;
259.8000;0.6740;1.5179;
260.1000;0.6716;1.5179;
260.4000;0.6724;1.5130;
260.7000;0.6740;1.5154;
261.0000;0.6740;1.5203;
261.3000;0.6724;1.5228;
261.6000;0.6740;1.5179;
261.9000;0.6724;1.5105;
262.2000;0.6724;1.5056;
262.5000;0.6724;1.4982;
262.8000;0.6707;1.4982;
263.1000;0.6724;1.4982;
263.4000;0.6707;1.5081;
263.7000;0.6707;1.4982;
264.0000;0.6707;1.4933;
264.3000;0.6716;1.4884;
264.6000;0.6724;1.4933;
264.9000;0.6724;1.4835;
265.2000;0.6716;1.4860;
265.5000;0.6740;1.4958;
265.8000;0.6707;1.4909;
266.1000;0.6797;1.5056;
266.4000;0.6707;1.4884;
266.7000;0.6740;1.4982;
267.0000;0.6699;1.4860;
267.3000;0.6716;1.4884;
267.6000;0.6716;1.4860;
267.9000;0.6716;1.4909;
268.2000;0.6707;1.4909;
268.5000;0.6683;1.4835;
268.8000;0.6707;1.4933;
269.1000;0.6642;1.4762;
269.4000;0.6707;1.4909;
269.7000;0.6707;1.4909;
270.0000;0.6707;1.4884;
270.3000;0.6716;1.4909;
270.6000;0.6707;1.4786;
270.9000;0.6707;1.4835;
271.2000;0.6716;1.4933;
271.5000;0.6707;1.4933;
271.8000;0.6667;1.4786;
272.1000;0.6707;1.4909;
272.4000;0.6732;1.5056;
272.7000;0.6699;1.5007;
273.0000;0.6675;1.4811;
273.3000;0.6699;1.4909;
273.6000;0.6724;1.4982;
273.9000;0.6650;1.4909;
274.2000;0.6683;1.5056;
274.5000;0.6642;1.4982;
274.8000;0.6707;1.5105;
275.1000;0.6748;1.5228;
275.4000;0.6813;1.5448;
275.7000;0.6716;1.5252;
276.0000;0.6732;1.5326;
276.3000;0.6805;1.5473;
276.6000;0.6618;1.5031;
276.9000;0.6691;1.5179;
277.2000;0.6642;1.5007;
277.5000;0.6699;1.5154;
277.8000;0.6740;1.5154;
278.1000;0.6683;1.5105;
278.4000;0.6707;1.5130;
278.7000;0.6740;1.5203;
279.0000;0.6732;1.5154;
279.3000;0.6683;1.5056;
279.6000;0.6724;1.5031;
279.9000;0.6716;1.5056;
280.2000;0.6707;1.4958;
280.5000;0.6716;1.4958;
280.8000;0.6716;1.5007;
281.1000;0.6707;1.4958;
281.4000;0.6724;1.5056;
281.7000;0.6699;1.5081;
282.0000;0.6691;1.5081;
282.3000;0.6732;1.5105;
282.6000;0.6707;1.5031;
282.9000;0.6707;1.5056;
283.2000;0.6732;1.5056;
283.5000;0.6724;1.5007;
283.8000;0.6707;1.5056;
284.1000;0.6691;1.5081;
284.4000;0.6707;1.5081;
284.7000;0.6691;1.5105;
285.0000;0.6691;1.5056;
285.3000;0.6716;1.5056;
285.6000;0.6740;1.5105;
285.9000;0.6699;1.4958;
286.2000;0.6691;1.4958;
286.5000;0.6740;1.5031;
286.8000;0.6691;1.4982;
287.1000;0.6691;1.5031;
287.4000;0.6683;1.5031;
287.7000;0.6699;1.5081;
288.0000;0.6716;1.4982;
288.3000;0.6699;1.4860;
288.6000;0.6699;1.4884;
288.9000;0.6699;1.4884;
289.2000;0.6707;1.4933;
289.5000;0.6699;1.4982;
289.8000;0.6716;1.5007;
290.1000;0.6707;1.5031;
290.4000;0.6707;1.5031;
290.7000;0.6683;1.4982;
291.0000;0.6683;1.5056;
291.3000;0.6707;1.5105;
291.6000;0.6650;1.4786;
291.9000;0.6699;1.4958;
292.2000;0.6699;1.4811;
292.5000;0.6699;1.4835;
292.8000;0.6707;1.4884;
293.1000;0.6707;1.4884;
293.4000;0.6740;1.4933;
293.7000;0.6707;1.4811;
294.0000;0.6707;1.4786;
294.3000;0.6724;1.4713;
294.6000;0.6691;1.4639;
294.9000;0.6699;1.4786;
295.2000;0.6724;1.4860;
295.5000;0.6691;1.4762;
295.8000;0.6732;1.4933;
296.1000;0.6724;1.4933;
296.4000;0.6691;1.4860;
296.7000;0.6691;1.4811;
297.0000;0.6707;1.4835;
297.3000;0.6675;1.4909;
297.6000;0.6683;1.5031;
297.9000;0.6716;1.5228;
298.2000;0.6675;1.5130;
298.5000;0.6650;1.4982;
298.8000;0.6683;1.4958;
299.1000;0.6618;1.4811;
299.4000;0.6634;1.4811;
299.7000;0.6691;1.4909;
300.0000;0.6683;1.4958;
300.3000;0.6683;1.4909;
300.6000;0.6707;1.5007;
300.9000;0.6699;1.5007;
301.2000;0.6732;1.5007;
301.5000;0.6691;1.5007;
301.8000;0.6707;1.5056;
302.1000;0.6699;1.5031;
302.4000;0.6691;1.4958;
302.7000;0.6716;1.4884;
303.0000;0.6675;1.4811;
303.3000;0.6683;1.4909;
303.6000;0.6683;1.5007;
303.9000;0.6675;1.5056;
304.2000;0.6707;1.5081;
304.5000;0.6683;1.5081;
304.8000;0.6667;1.5031;
305.1000;0.6659;1.4982;
305.4000;0.6699;1.5081;
305.7000;0.6699;1.5081;
306.0000;0.6683;1.5031;
306.3000;0.6667;1.4933;
306.6000;0.6683;1.4958;
306.9000;0.6691;1.5031;
307.2000;0.6675;1.5007;
307.5000;0.6683;1.5081;
307.8000;0.6683;1.5081;
308.1000;0.6691;1.5056;
308.4000;0.6707;1.5056;
308.7000;0.6675;1.4909;
309.0000;0.6707;1.5007;
309.3000;0.6707;1.5007;
309.6000;0.6683;1.5031;
309.9000;0.6683;1.5105;
310.2000;0.6699;1.5130;
310.5000;0.6699;1.5179;
310.8000;0.6691;1.5252;
311.1000;0.6675;1.5203;
311.4000;0.6675;1.5228;
311.7000;0.6691;1.5179;
312.0000;0.6675;1.5081;
312.3000;0.6634;1.4982;
312.6000;0.6699;1.5105;
312.9000;0.6675;1.5056;
313.2000;0.6691;1.5105;
313.5000;0.6675;1.5130;
313.8000;0.6650;1.5031;
314.1000;0.6659;1.5056;
314.4000;0.6675;1.5081;
314.7000;0.6675;1.5007;
315.0000;0.6675;1.4909;
315.3000;0.6683;1.4909;
315.6000;0.6634;1.4884;
315.9000;0.6667;1.5031;
316.2000;0.6675;1.4958;
316.5000;0.6716;1.5081;
316.8000;0.6691;1.5031;
317.1000;0.6699;1.5031;
317.4000;0.6667;1.5056;
317.7000;0.6561;1.4835;
318.0000;0.6667;1.5081;
318.3000;0.6699;1.5130;
318.6000;0.6683;1.5056;
318.9000;0.6659;1.5031;
319.2000;0.6675;1.5007;
319.5000;0.6716;1.5105;
319.8000;0.6691;1.5007;
320.1000;0.6675;1.4982;
320.4000;0.6626;1.4860;
320.7000;0.6683;1.5056;
321.0000;0.6675;1.5031;
321.3000;0.6691;1.5081;
321.6000;0.6691;1.5056;
321.9000;0.6699;1.5154;
322.2000;0.6675;1.5228;
322.5000;0.6659;1.5154;
322.8000;0.6659;1.5154;
323.1000;0.6691;1.5252;
323.4000;0.6667;1.5105;
323.7000;0.6683;1.5130;
324.0000;0.6675;1.5130;
324.3000;0.6740;1.5252;
324.6000;0.6667;1.5105;
324.9000;0.6691;1.5154;
325.2000;0.6650;1.5154;
325.5000;0.6659;1.5154;
325.8000;0.6675;1.5154;
326.1000;0.6683;1.5154;
326.4000;0.6675;1.5056;
326.7000;0.6659;1.5007;
327.0000;0.6667;1.4933;
327.3000;0.6683;1.4933;
327.6000;0.6659;1.4884;
327.9000;0.6618;1.4762;
328.2000;0.6667;1.4860;
328.5000;0.6667;1.4786;
328.8000;0.6659;1.4762;
329.1000;0.6707;1.4909;
329.4000;0.6667;1.4884;
329.7000;0.6675;1.5007;
330.0000;0.6602;1.4835;
330.3000;0.6659;1.5007;
330.6000;0.6683;1.5007;
330.9000;0.6675;1.4958;
331.2000;0.6716;1.5105;
331.5000;0.6659;1.4958;
331.8000;0.6675;1.5007;
332.1000;0.6683;1.5007;
332.4000;0.6691;1.5130;
332.7000;0.6659;1.5081;
333.0000;0.6659;1.5056;
333.3000;0.6675;1.5081;
333.6000;0.6683;1.5154;
333.9000;0.6675;1.5081;
334.2000;0.6659;1.5007;
334.5000;0.6634;1.4933;
334.8000;0.6659;1.5056;
335.1000;0.6659;1.5007;
335.4000;0.6667;1.5031;
335.7000;0.6675;1.5007;
336.0000;0.6667;1.5056;
336.3000;0.6724;1.5130;
336.6000;0.6675;1.4982;
336.9000;0.6683;1.5007;
337.2000;0.6642;1.5081;
337.5000;0.6659;1.5130;
337.8000;0.6642;1.5081;
338.1000;0.6634;1.5105;
338.4000;0.6642;1.5056;
338.7000;0.6650;1.5031;
339.0000;0.6634;1.4860;
339.3000;0.6561;1.4664;
339.6000;0.6610;1.4811;
339.9000;0.6691;1.4933;
340.2000;0.6642;1.4835;
340.5000;0.6716;1.5007;
340.8000;0.6659;1.4958;
341.1000;0.6675;1.4982;
341.4000;0.6691;1.4909;
341.7000;0.6659;1.4982;
342.0000;0.6634;1.4958;
342.3000;0.6650;1.5031;
342.6000;0.6650;1.5130;
342.9000;0.6642;1.5056;
343.2000;0.6659;1.5031;
343.5000;0.6667;1.5081;
343.8000;0.6650;1.5081;
344.1000;0.6659;1.5130;
344.4000;0.6626;1.5081;
344.7000;0.6659;1.5203;
345.0000;0.6650;1.5277;
345.3000;0.6659;1.5252;
345.6000;0.6659;1.5228;
345.9000;0.6675;1.5252;
346.2000;0.6659;1.5179;
346.5000;0.6659;1.5154;
346.8000;0.6650;1.5081;
347.1000;0.6626;1.4958;
347.4000;0.6659;1.4958;
347.7000;0.6659;1.4860;
348.0000;0.6642;1.4835;
348.3000;0.6650;1.4811;
348.6000;0.6642;1.4786;
348.9000;0.6716;1.4982;
349.2000;0.6642;1.4884;
349.5000;0.6675;1.5007;
349.8000;0.6634;1.4958;
350.1000;0.6659;1.5031;
350.4000;0.6642;1.4933;
350.7000;0.6650;1.4982;
351.0000;0.6585;1.4811;
351.3000;0.6642;1.4933;
351.6000;0.6634;1.4860;
351.9000;0.6634;1.4786;
352.2000;0.6634;1.4811;
352.5000;0.6650;1.4860;
352.8000;0.6626;1.4933;
353.1000;0.6634;1.4909;
353.4000;0.6634;1.4835;
353.7000;0.6650;1.4958;
354.0000;0.6683;1.5031;
354.3000;0.6650;1.4982;
354.6000;0.6634;1.4982;
354.9000;0.6650;1.5031;
355.2000;0.6667;1.5056;
355.5000;0.6650;1.4909;
355.8000;0.6642;1.4933;
356.1000;0.6659;1.5031;
356.4000;0.6667;1.5056;
356.7000;0.6642;1.5007;
357.0000;0.6667;1.4884;
357.3000;0.6659;1.4909;
357.6000;0.6642;1.4860;
357.9000;0.6650;1.4811;
358.2000;0.6634;1.4786;
358.5000;0.6659;1.4811;
358.8000;0.6667;1.4811;
359.1000;0.6659;1.4786;
359.4000;0.6659;1.4835;
359.7000;0.6626;1.4762;
360.0000;0.6650;1.4860;
360.3000;0.6650;1.4933;
360.6000;0.6691;1.5007;
360.9000;0.6642;1.4860;
361.2000;0.6659;1.4909;
361.5000;0.6659;1.5031;
361.8000;0.6650;1.4982;
362.1000;0.6642;1.4958;
362.4000;0.6642;1.4982;
362.7000;0.6650;1.5007;
363.0000;0.6659;1.5056;
363.3000;0.6642;1.4958;
363.6000;0.6610;1.4884;
363.9000;0.6650;1.4982;
364.2000;0.6634;1.5031;
364.5000;0.6667;1.5179;
364.8000;0.6740;1.5301;
365.1000;0.6691;1.5228;
365.4000;0.6642;1.5130;
365.7000;0.6667;1.5007;
366.0000;0.6650;1.4982;
366.3000;0.6667;1.4933;
366.6000;0.6659;1.4958;
366.9000;0.6642;1.4811;
367.2000;0.6634;1.4786;
367.5000;0.6642;1.4713;
367.8000;0.6650;1.4664;
368.1000;0.6561;1.4566;
368.4000;0.6732;1.5105;
368.7000;0.6650;1.5007;
369.0000;0.6650;1.4958;
369.3000;0.6659;1.5081;
369.6000;0.6618;1.4958;
369.9000;0.6593;1.4909;
370.2000;0.6650;1.5007;
370.5000;0.6659;1.5007;
370.8000;0.6659;1.4982;
371.1000;0.6610;1.4884;
371.4000;0.6667;1.5007;
371.7000;0.6659;1.5031;
372.0000;0.6650;1.5056;
372.3000;0.6699;1.5105;
372.6000;0.6642;1.4958;
372.9000;0.6667;1.4982;
373.2000;0.6642;1.4933;
373.5000;0.6634;1.5031;
373.8000;0.6618;1.5031;
374.1000;0.6602;1.4909;
374.4000;0.6626;1.5007;
374.7000;0.6634;1.5031;
375.0000;0.6618;1.4982;
375.3000;0.6634;1.5007;
375.6000;0.6642;1.5031;
375.9000;0.6634;1.5031;
376.2000;0.6561;1.4835;
376.5000;0.6650;1.4982;
376.8000;0.6675;1.5130;
377.1000;0.6642;1.5130;
377.4000;0.6642;1.5081;
377.7000;0.6634;1.5105;
378.0000;0.6642;1.5031;
378.3000;0.6642;1.5056;
378.6000;0.6626;1.5031;
378.9000;0.6618;1.5007;
379.2000;0.6626;1.5031;
379.5000;0.6626;1.5007;
379.8000;0.6626;1.5007;
380.1000;0.6667;1.5105;
380.4000;0.6667;1.5081;
380.7000;0.6650;1.5081;
381.0000;0.6610;1.5031;
381.3000;0.6626;1.5056;
381.6000;0.6618;1.5007;
381.9000;0.6618;1.5056;
382.2000;0.6610;1.5081;
382.5000;0.6618;1.5154;
382.8000;0.6626;1.5228;
383.1000;0.6642;1.5154;
383.4000;0.6634;1.5105;
383.7000;0.6618;1.5105;
384.0000;0.6602;1.5105;
384.3000;0.6577;1.5031;
384.6000;0.6634;1.5154;
384.9000;0.6626;1.5031;
385.2000;0.6634;1.5031;
385.5000;0.6626;1.4982;
385.8000;0.6650;1.5007;
386.1000;0.6626;1.5007;
386.4000;0.6650;1.5179;
386.7000;0.6618;1.5081;
387.0000;0.6634;1.5130;
387.3000;0.6618;1.5179;
387.6000;0.6626;1.5203;
387.9000;0.6642;1.5105;
388.2000;0.6659;1.5179;
388.5000;0.6618;1.5154;
388.8000;0.6626;1.5203;
389.1000;0.6626;1.5203;
389.4000;0.6610;1.5203;
389.7000;0.6626;1.5228;
390.0000;0.6569;1.5031;
390.3000;0.6626;1.5203;
390.6000;0.6650;1.5130;
390.9000;0.6659;1.5105;
391.2000;0.6618;1.5056;
391.5000;0.6634;1.5007;
391.8000;0.6626;1.4982;
392.1000;0.6618;1.4982;
392.4000;0.6642;1.5081;
392.7000;0.6634;1.5105;
393.0000;0.6659;1.5056;
393.3000;0.6618;1.4933;
393.6000;0.6602;1.4933;
393.9000;0.6626;1.5031;
394.2000;0.6626;1.5007;
394.5000;0.6634;1.5031;
394.8000;0.6634;1.5081;
395.1000;0.6642;1.5154;
395.4000;0.6634;1.5179;
395.7000;0.6618;1.5105;
396.0000;0.6642;1.5105;
396.3000;0.6667;1.5056;
396.6000;0.6626;1.4982;
396.9000;0.6642;1.5031;
397.2000;0.6634;1.5056;
397.5000;0.6626;1.5056;
397.8000;0.6602;1.5056;
398.1000;0.6585;1.5007;
398.4000;0.6634;1.5154;
398.7000;0.6618;1.5228;
399.0000;0.6610;1.5203;
399.3000;0.6593;1.5154;
399.6000;0.6618;1.5203;
399.9000;0.6610;1.5228;
400.2000;0.6691;1.5350;
400.5000;0.6602;1.5130;
400.8000;0.6536;1.4933;
401.1000;0.6650;1.5105;
401.4000;0.6618;1.5105;
401.7000;0.6626;1.5056;
402.0000;0.6642;1.5105;
402.3000;0.6569;1.4982;
402.6000;0.6618;1.5179;
402.9000;0.6634;1.5130;
403.2000;0.6626;1.5228;
403.5000;0.6634;1.5203;
403.8000;0.6642;1.5203;
404.1000;0.6602;1.5203;
404.4000;0.6634;1.5350;
404.7000;0.6634;1.5375;
405.0000;0.6626;1.5301;
405.3000;0.6642;1.5326;
405.6000;0.6618;1.5277;
405.9000;0.6618;1.5203;
406.2000;0.6642;1.5203;
406.5000;0.6626;1.5105;
406.8000;0.6675;1.5252;
407.1000;0.6618;1.5130;
407.4000;0.6634;1.5031;
407.7000;0.6561;1.4811;
408.0000;0.6626;1.5056;
408.3000;0.6634;1.5130;
408.6000;0.6650;1.5179;
408.9000;0.6634;1.5130;
409.2000;0.6634;1.5228;
409.5000;0.6634;1.5228;
409.8000;0.6699;1.5448;
410.1000;0.6618;1.5203;
410.4000;0.6634;1.5228;
410.7000;0.6667;1.5277;
411.0000;0.6618;1.5081;
411.3000;0.6618;1.5056;
411.6000;0.6642;1.5056;
411.9000;0.6577;1.4958;
412.2000;0.6610;1.5056;
412.5000;0.6634;1.5130;
412.8000;0.6610;1.5154;
413.1000;0.6610;1.5056;
413.4000;0.6634;1.5081;
413.7000;0.6634;1.5130;
414.0000;0.6618;1.5056;
414.3000;0.6618;1.4982;
414.6000;0.6634;1.5056;
414.9000;0.6634;1.5056;
415.2000;0.6618;1.5031;
415.5000;0.6626;1.5056;
415.8000;0.6626;1.5081;
416.1000;0.6618;1.5154;
416.4000;0.6650;1.5154;
416.7000;0.6634;1.5031;
417.0000;0.6618;1.5031;
417.3000;0.6610;1.5031;
417.6000;0.6618;1.5007;
417.9000;0.6610;1.5007;
418.2000;0.6618;1.5105;
418.5000;0.6618;1.5228;
418.8000;0.6602;1.5130;
419.1000;0.6618;1.5203;
419.4000;0.6602;1.5105;
419.7000;0.6634;1.5228;
420.0000;0.6626;1.5326;
420.3000;0.6634;1.5228;
420.6000;0.6626;1.5277;
420.9000;0.6610;1.5228;
421.2000;0.6618;1.5252;
421.5000;0.6618;1.5154;
421.8000;0.6593;1.5081;
422.1000;0.6602;1.4982;
422.4000;0.6610;1.4982;
422.7000;0.6610;1.5031;
423.0000;0.6610;1.5056;
423.3000;0.6618;1.5081;
423.6000;0.6610;1.5130;
423.9000;0.6626;1.5179;
424.2000;0.6610;1.5031;
424.5000;0.6602;1.5031;
424.8000;0.6626;1.4958;
425.1000;0.6610;1.4835;
425.4000;0.6626;1.4786;
425.7000;0.6626;1.4835;
426.0000;0.6610;1.4933;
426.3000;0.6618;1.4982;
426.6000;0.6626;1.4958;
426.9000;0.6610;1.5007;
427.2000;0.6626;1.5105;
427.5000;0.6626;1.5081;
427.8000;0.6618;1.4982;
428.1000;0.6593;1.4958;
428.4000;0.6561;1.4786;
428.7000;0.6602;1.4860;
429.0000;0.6675;1.5056;
429.3000;0.6618;1.4884;
429.6000;0.6561;1.4762;
429.9000;0.6602;1.4933;
430.2000;0.6691;1.5130;
430.5000;0.6577;1.4909;
430.8000;0.6585;1.4958;
431.1000;0.6569;1.4909;
431.4000;0.6610;1.5081;
431.7000;0.6593;1.5105;
432.0000;0.6602;1.5081;
432.3000;0.6650;1.5179;
432.6000;0.6634;1.5081;
432.9000;0.6602;1.5105;
433.2000;0.6618;1.5130;
433.5000;0.6577;1.4933;
433.8000;0.6642;1.5105;
434.1000;0.6602;1.4933;
434.4000;0.6618;1.4958;
434.7000;0.6610;1.5031;
435.0000;0.6610;1.5007;
435.3000;0.6602;1.4933;
435.6000;0.6618;1.4860;
435.9000;0.6683;1.5081;
436.2000;0.6610;1.4958;
436.5000;0.6626;1.4982;
436.8000;0.6626;1.4982;
437.1000;0.6553;1.4884;
437.4000;0.6585;1.5007;
437.7000;0.6626;1.5154;
438.0000;0.6650;1.5228;
438.3000;0.6593;1.5031;
438.6000;0.6593;1.4933;
438.9000;0.6602;1.4909;
439.2000;0.6707;1.5277;
439.5000;0.6610;1.5081;
439.8000;0.6593;1.5007;
440.1000;0.6618;1.5007;
440.4000;0.6716;1.5277;
440.7000;0.6634;1.5056;
441.0000;0.6618;1.5007;
441.3000;0.6618;1.4933;
441.6000;0.6626;1.5031;
441.9000;0.6618;1.5056;
442.2000;0.6618;1.5031;
442.5000;0.6618;1.4982;
442.8000;0.6626;1.4982;
443.1000;0.6618;1.4884;
443.4000;0.6610;1.4982;
443.7000;0.6602;1.4958;
444.0000;0.6602;1.4835;
444.3000;0.6593;1.4786;
444.6000;0.6602;1.4835;
444.9000;0.6593;1.4762;
445.2000;0.6610;1.4860;
445.5000;0.6610;1.4909;
445.8000;0.6553;1.4762;
446.1000;0.6618;1.4933;
446.4000;0.6602;1.4958;
446.7000;0.6618;1.4958;
447.0000;0.6618;1.5007;
447.3000;0.6618;1.5056;
447.6000;0.6602;1.5081;
447.9000;0.6642;1.5179;
448.2000;0.6585;1.5007;
448.5000;0.6602;1.5007;
448.8000;0.6585;1.4982;
449.1000;0.6593;1.5007;
449.4000;0.6593;1.4982;
449.7000;0.6593;1.4933;
450.0000;0.6634;1.4958;
450.3000;0.6610;1.4860;
450.6000;0.6610;1.4860;
450.9000;0.6602;1.4811;
451.2000;0.6593;1.4835;
451.5000;0.6610;1.4933;
451.8000;0.6602;1.5007;
452.1000;0.6610;1.5031;
452.4000;0.6602;1.4982;
452.7000;0.6602;1.4909;
453.0000;0.6618;1.5007;
453.3000;0.6610;1.4982;
453.6000;0.6618;1.5056;
453.9000;0.6602;1.4982;
454.2000;0.6610;1.4958;
454.5000;0.6618;1.4933;
454.8000;0.6610;1.4933;
455.1000;0.6585;1.4860;
455.4000;0.6634;1.5081;
455.7000;0.6593;1.4958;
456.0000;0.6610;1.4982;
456.3000;0.6610;1.5031;
456.6000;0.6602;1.5031;
456.9000;0.6626;1.5031;
457.2000;0.6602;1.4982;
457.5000;0.6602;1.5007;
457.8000;0.6618;1.5056;
458.1000;0.6610;1.5031;
458.4000;0.6602;1.5056;
458.7000;0.6610;1.5154;
459.0000;0.6585;1.5031;
459.3000;0.6602;1.5056;
459.6000;0.6610;1.5031;
459.9000;0.6577;1.5007;
460.2000;0.6561;1.4933;
460.5000;0.6593;1.5130;
460.8000;0.6593;1.5081;
461.1000;0.6585;1.5031;
461.4000;0.6553;1.4909;
461.7000;0.6593;1.5031;
462.0000;0.6593;1.5130;
462.3000;0.6593;1.5056;
462.6000;0.6585;1.5056;
462.9000;0.6593;1.5056;
463.2000;0.6585;1.5007;
463.5000;0.6593;1.4958;
463.8000;0.6585;1.5056;
464.1000;0.6610;1.5056;
464.4000;0.6593;1.5081;
464.7000;0.6593;1.4982;
465.0000;0.6585;1.4982;
465.3000;0.6585;1.4982;
465.6000;0.6561;1.4982;
465.9000;0.6569;1.5081;
466.2000;0.6593;1.5081;
466.5000;0.6585;1.5031;
466.8000;0.6610;1.5081;
467.1000;0.6602;1.5081;
467.4000;0.6602;1.5081;
467.7000;0.6602;1.5007;
468.0000;0.6602;1.4933;
468.3000;0.6593;1.5007;
468.6000;0.6545;1.4982;
468.9000;0.6585;1.4982;
469.2000;0.6512;1.4835;
469.5000;0.6602;1.5056;
469.8000;0.6667;1.5228;
470.1000;0.6512;1.4835;
470.4000;0.6593;1.4884;
470.7000;0.6577;1.4762;
471.0000;0.6618;1.4811;
471.3000;0.6618;1.4860;
471.6000;0.6585;1.4835;
471.9000;0.6577;1.4860;
472.2000;0.6593;1.4811;
472.5000;0.6585;1.4909;
472.8000;0.6577;1.4982;
473.1000;0.6593;1.5007;
473.4000;0.6610;1.5031;
473.7000;0.6593;1.5056;
474.0000;0.6512;1.4811;
474.3000;0.6602;1.5105;
474.6000;0.6593;1.5031;
474.9000;0.6602;1.5007;
475.2000;0.6650;1.5179;
475.5000;0.6593;1.4982;
475.8000;0.6593;1.4909;
476.1000;0.6602;1.4884;
476.4000;0.6626;1.4982;
476.7000;0.6585;1.4884;
477.0000;0.6593;1.4884;
477.3000;0.6602;1.4835;
477.6000;0.6577;1.4811;
477.9000;0.6593;1.4811;
478.2000;0.6602;1.4835;
478.5000;0.6602;1.4884;
478.8000;0.6593;1.4835;
479.1000;0.6528;1.4664;
479.4000;0.6585;1.4860;
479.7000;0.6610;1.5031;
480.0000;0.6659;1.5179;
480.3000;0.6569;1.4982;
480.6000;0.6585;1.4958;
480.9000;0.6593;1.4958;
481.2000;0.6602;1.4958;
481.5000;0.6610;1.5031;
481.8000;0.6675;1.5228;
482.1000;0.6561;1.4933;
482.4000;0.6593;1.4958;
482.7000;0.6593;1.4982;
483.0000;0.6577;1.4982;
483.3000;0.6585;1.4982;
483.6000;0.6585;1.4909;
483.9000;0.6585;1.4958;
484.2000;0.6626;1.5081;
484.5000;0.6545;1.4762;
484.8000;0.6585;1.4860;
485.1000;0.6642;1.5007;
485.4000;0.6536;1.4835;
485.7000;0.6585;1.4909;
486.0000;0.6610;1.4982;
486.3000;0.6642;1.5203;
486.6000;0.6593;1.4958;
486.9000;0.6593;1.4909;
487.2000;0.6642;1.5031;
487.5000;0.6593;1.4933;
487.8000;0.6593;1.4762;
488.1000;0.6585;1.4737;
488.4000;0.6577;1.4811;
488.7000;0.6593;1.4835;
489.0000;0.6618;1.4909;
489.3000;0.6577;1.4884;
489.6000;0.6593;1.4933;
489.9000;0.6585;1.4884;
490.2000;0.6593;1.4933;
490.5000;0.6585;1.4933;
490.8000;0.6602;1.4958;
491.1000;0.6536;1.4835;
491.4000;0.6569;1.4958;
491.7000;0.6626;1.5130;
492.0000;0.6561;1.4958;
492.3000;0.6577;1.4933;
492.6000;0.6577;1.4933;
492.9000;0.6512;1.4835;
493.2000;0.6577;1.4982;
493.5000;0.6585;1.4982;
493.8000;0.6553;1.4958;
494.1000;0.6675;1.5301;
494.4000;0.6569;1.4982;
494.7000;0.6577;1.5007;
495.0000;0.6569;1.4958;
495.3000;0.6585;1.5007;
495.6000;0.6561;1.4860;
495.9000;0.6593;1.4909;
496.2000;0.6585;1.4982;
496.5000;0.6602;1.5130;
496.8000;0.6585;1.5007;
497.1000;0.6585;1.5056;
497.4000;0.6593;1.5154;
497.7000;0.6610;1.5252;
498.0000;0.6585;1.5130;
498.3000;0.6577;1.5154;
498.6000;0.6585;1.5203;
498.9000;0.6585;1.5228;
499.2000;0.6488;1.4982;
499.5000;0.6577;1.5252;
499.8000;0.6593;1.5301;
500.1000;0.6659;1.5473;
500.4000;0.6561;1.5203;
500.7000;0.6577;1.5203;
501.0000;0.6675;1.5424;
501.3000;0.6618;1.5326;
501.6000;0.6585;1.5179;
501.9000;0.6585;1.5203;
502.2000;0.6561;1.5105;
502.5000;0.6561;1.5130;
502.8000;0.6561;1.5105;
503.1000;0.6577;1.5203;
503.4000;0.6577;1.5130;
503.7000;0.6553;1.5081;
504.0000;0.6569;1.5007;
504.3000;0.6569;1.4884;
504.6000;0.6553;1.4860;
504.9000;0.6512;1.4835;
505.2000;0.6528;1.4860;
505.5000;0.6585;1.4884;
505.8000;0.6585;1.4958;
506.1000;0.6569;1.5007;
506.4000;0.6585;1.5081;
506.7000;0.6561;1.5056;
507.0000;0.6504;1.4884;
507.3000;0.6561;1.5081;
507.6000;0.6577;1.5130;
507.9000;0.6569;1.5007;
508.2000;0.6577;1.5081;
508.5000;0.6577;1.5105;
508.8000;0.6593;1.5105;
509.1000;0.6561;1.5105;
509.4000;0.6553;1.5105;
509.7000;0.6569;1.5179;
510.0000;0.6561;1.5228;
510.3000;0.6585;1.5301;
510.6000;0.6593;1.5424;
510.9000;0.6593;1.5399;
511.2000;0.6593;1.5350;
511.5000;0.6545;1.5179;
511.8000;0.6585;1.5179;
512.1000;0.6577;1.5130;
512.4000;0.6577;1.5154;
512.7000;0.6569;1.5105;
513.0000;0.6602;1.5203;
513.3000;0.6585;1.5179;
513.6000;0.6577;1.5252;
513.9000;0.6577;1.5277;
514.2000;0.6553;1.5252;
514.5000;0.6593;1.5252;
514.8000;0.6536;1.5130;
515.1000;0.6585;1.5203;
515.4000;0.6602;1.5252;
515.7000;0.6561;1.5130;
516.0000;0.6520;1.5081;
516.3000;0.6593;1.5252;
516.6000;0.6569;1.5301;
516.9000;0.6528;1.5154;
517.2000;0.6569;1.5301;
517.5000;0.6569;1.5399;
517.8000;0.6585;1.5448;
518.1000;0.6585;1.5473;
518.4000;0.6577;1.5399;
518.7000;0.6585;1.5399;
519.0000;0.6577;1.5350;
519.3000;0.6577;1.5252;
519.6000;0.6577;1.5252;
519.9000;0.6626;1.5399;
520.2000;0.6553;1.5228;
520.5000;0.6593;1.5399;
520.8000;0.6585;1.5424;
521.1000;0.6585;1.5375;
521.4000;0.6585;1.5301;
521.7000;0.6577;1.5301;
522.0000;0.6561;1.5301;
522.3000;0.6569;1.5301;
522.6000;0.6536;1.5203;
522.9000;0.6593;1.5350;
523.2000;0.6536;1.5228;
523.5000;0.6602;1.5350;
523.8000;0.6585;1.5277;
524.1000;0.6585;1.5228;
524.4000;0.6561;1.5105;
524.7000;0.6569;1.5105;
525.0000;0.6577;1.5130;
525.3000;0.6553;1.5056;
525.6000;0.6569;1.5081;
525.9000;0.6585;1.5081;
526.2000;0.6618;1.5154;
526.5000;0.6593;1.5056;
526.8000;0.6593;1.5179;
527.1000;0.6561;1.4958;
527.4000;0.6593;1.5056;
527.7000;0.6585;1.4958;
528.0000;0.6577;1.4933;
528.3000;0.6569;1.4982;
528.6000;0.6577;1.5007;
528.9000;0.6569;1.5007;
529.2000;0.6585;1.5154;
529.5000;0.6585;1.5179;
529.8000;0.6553;1.5081;
530.1000;0.6569;1.5105;
530.4000;0.6569;1.5154;
530.7000;0.6577;1.5081;
531.0000;0.6585;1.5130;
531.3000;0.6585;1.4982;
531.6000;0.6561;1.4958;
531.9000;0.6585;1.5031;
532.2000;0.6593;1.5081;
532.5000;0.6545;1.4958;
532.8000;0.6569;1.5154;
533.1000;0.6577;1.5154;
533.4000;0.6577;1.5203;
533.7000;0.6561;1.5203;
534.0000;0.6561;1.5252;
534.3000;0.6561;1.5252;
534.6000;0.6520;1.5179;
534.9000;0.6577;1.5228;
535.2000;0.6569;1.5154;
535.5000;0.6561;1.5228;
535.8000;0.6602;1.5326;
536.1000;0.6553;1.5203;
536.4000;0.6593;1.5252;
536.7000;0.6577;1.5179;
537.0000;0.6569;1.5228;
537.3000;0.6561;1.5203;
537.6000;0.6577;1.5252;
537.9000;0.6561;1.5326;
538.2000;0.6561;1.5350;
538.5000;0.6561;1.5326;
538.8000;0.6536;1.5252;
539.1000;0.6561;1.5326;
539.4000;0.6577;1.5350;
539.7000;0.6585;1.5326;
540.0000;0.6561;1.5228;
540.3000;0.6553;1.5277;
540.6000;0.6545;1.5179;
540.9000;0.6561;1.5228;
541.2000;0.6569;1.5154;
541.5000;0.6553;1.5056;
541.8000;0.6585;1.5105;
542.1000;0.6553;1.5056;
542.4000;0.6569;1.5056;
542.7000;0.6593;1.5056;
543.0000;0.6553;1.5031;
543.3000;0.6545;1.4958;
543.6000;0.6561;1.5007;
543.9000;0.6593;1.5154;
544.2000;0.6593;1.5179;
544.5000;0.6577;1.5179;
544.8000;0.6585;1.5228;
545.1000;0.6553;1.5203;
545.4000;0.6569;1.5179;
545.7000;0.6577;1.5252;
546.0000;0.6569;1.5228;
546.3000;0.6577;1.5277;
546.6000;0.6536;1.5130;
546.9000;0.6561;1.5203;
547.2000;0.6585;1.5301;
547.5000;0.6667;1.5424;
547.8000;0.6585;1.5326;
548.1000;0.6545;1.5203;
548.4000;0.6593;1.5375;
548.7000;0.6585;1.5350;
549.0000;0.6569;1.5277;
549.3000;0.6545;1.5203;
549.6000;0.6536;1.5056;
549.9000;0.6553;1.5179;
550.2000;0.6561;1.5154;
550.5000;0.6561;1.5154;
550.8000;0.6569;1.5154;
551.1000;0.6618;1.5301;
551.4000;0.6561;1.5277;
551.7000;0.6569;1.5301;
552.0000;0.6610;1.5399;
552.3000;0.6569;1.5301;
552.6000;0.6585;1.5350;
552.9000;0.6602;1.5375;
553.2000;0.6545;1.5301;
553.5000;0.6561;1.5326;
553.8000;0.6561;1.5277;
554.1000;0.6553;1.5301;
554.4000;0.6545;1.5277;
554.7000;0.6536;1.5301;
555.0000;0.6561;1.5350;
555.3000;0.6545;1.5326;
555.6000;0.6642;1.5473;
555.9000;0.6545;1.5228;
556.2000;0.6585;1.5277;
556.5000;0.6569;1.5228;
556.8000;0.6569;1.5203;
557.1000;0.6593;1.5228;
557.4000;0.6585;1.5203;
557.7000;0.6577;1.5130;
558.0000;0.6577;1.5179;
558.3000;0.6569;1.5203;
558.6000;0.6577;1.5277;
558.9000;0.6593;1.5301;
559.2000;0.6569;1.5228;
559.5000;0.6553;1.5179;
559.8000;0.6561;1.5203;
560.1000;0.6577;1.5326;
560.4000;0.6561;1.5252;
560.7000;0.6553;1.5130;
561.0000;0.6553;1.5130;
561.3000;0.6577;1.5105;
561.6000;0.6561;1.5105;
561.9000;0.6569;1.5105;
562.2000;0.6504;1.4933;
562.5000;0.6585;1.5031;
562.8000;0.6610;1.5130;
563.1000;0.6569;1.5130;
563.4000;0.6577;1.5228;
563.7000;0.6561;1.5326;
564.0000;0.6569;1.5375;
564.3000;0.6642;1.5669;
564.6000;0.6553;1.5424;
564.9000;0.6561;1.5375;
565.2000;0.6569;1.5350;
565.5000;0.6553;1.5350;
565.8000;0.6536;1.5350;
566.1000;0.6553;1.5399;
566.4000;0.6577;1.5448;
566.7000;0.6577;1.5375;
567.0000;0.6561;1.5277;
567.3000;0.6569;1.5277;
567.6000;0.6569;1.5301;
567.9000;0.6577;1.5301;
568.2000;0.6561;1.5228;
568.5000;0.6553;1.5228;
568.8000;0.6602;1.5375;
569.1000;0.6569;1.5375;
569.4000;0.6561;1.5399;
569.7000;0.6561;1.5350;
570.0000;0.6561;1.5277;
570.3000;0.6561;1.5252;
570.6000;0.6561;1.5301;
570.9000;0.6602;1.5399;
571.2000;0.6569;1.5375;
571.5000;0.6569;1.5350;
571.8000;0.6553;1.5301;
572.1000;0.6553;1.5228;
572.4000;0.6561;1.5301;
572.7000;0.6528;1.5252;
573.0000;0.6577;1.5350;
573.3000;0.6569;1.5277;
573.6000;0.6569;1.5203;
573.9000;0.6577;1.5154;
574.2000;0.6569;1.5179;
574.5000;0.6569;1.5203;
574.8000;0.6545;1.5130;
575.1000;0.6561;1.5277;
575.4000;0.6569;1.5301;
575.7000;0.6561;1.5228;
576.0000;0.6593;1.5252;
576.3000;0.6569;1.5081;
576.6000;0.6569;1.5154;
576.9000;0.6561;1.5056;
577.2000;0.6545;1.5056;
577.5000;0.6602;1.5179;
577.8000;0.6545;1.5130;
578.1000;0.6545;1.5130;
578.4000;0.6553;1.5154;
578.7000;0.6545;1.5130;
579.0000;0.6561;1.5203;
579.3000;0.6569;1.5154;
579.6000;0.6561;1.5081;
579.9000;0.6553;1.5081;
580.2000;0.6528;1.5007;
580.5000;0.6585;1.5105;
580.8000;0.6553;1.4982;
581.1000;0.6545;1.4958;
581.4000;0.6471;1.4786;
581.7000;0.6545;1.4982;
582.0000;0.6569;1.5081;
582.3000;0.6536;1.5031;
582.6000;0.6561;1.5056;
582.9000;0.6569;1.5203;
583.2000;0.6569;1.5179;
583.5000;0.6536;1.5105;
583.8000;0.6561;1.5130;
584.1000;0.6569;1.5154;
584.4000;0.6585;1.5179;
584.7000;0.6553;1.5031;
585.0000;0.6545;1.5056;
585.3000;0.6569;1.5031;
585.6000;0.6561;1.4958;
585.9000;0.6536;1.4933;
586.2000;0.6585;1.5081;
586.5000;0.6569;1.5105;
586.8000;0.6610;1.5277;
587.1000;0.6561;1.5154;
587.4000;0.6520;1.5031;
587.7000;0.6512;1.5007;
588.0000;0.6577;1.5179;
588.3000;0.6561;1.5056;
588.6000;0.6536;1.5031;
588.9000;0.6553;1.5081;
589.2000;0.6536;1.5056;
589.5000;0.6553;1.5154;
589.8000;0.6528;1.5081;
590.1000;0.6569;1.5105;
590.4000;0.6561;1.5179;
590.7000;0.6553;1.5130;
591.0000;0.6545;1.5130;
591.3000;0.6569;1.5228;
591.6000;0.6553;1.5154;
591.9000;0.6545;1.5203;
592.2000;0.6536;1.5203;
592.5000;0.6545;1.5301;
592.8000;0.6545;1.5277;
593.1000;0.6553;1.5228;
593.4000;0.6545;1.5252;
593.7000;0.6545;1.5277;
594.0000;0.6553;1.5277;
594.3000;0.6569;1.5301;
594.6000;0.6577;1.5301;
594.9000;0.6553;1.5350;
595.2000;0.6528;1.5350;
595.5000;0.6561;1.5375;
595.8000;0.6569;1.5350;
596.1000;0.6561;1.5277;
596.4000;0.6577;1.5350;
596.7000;0.6553;1.5350;
597.0000;0.6553;1.5301;
597.3000;0.6593;1.5375;
597.6000;0.6545;1.5252;
597.9000;0.6585;1.5301;
598.2000;0.6545;1.5252;
598.5000;0.6553;1.5350;
598.8000;0.6553;1.5350;
599.1000;0.6553;1.5326;
599.4000;0.6553;1.5301;
599.7000;0.6561;1.5350;
600.0000;0.6471;1.5081;
600.3000;0.6545;1.5179;
600.6000;0.6488;1.4958;
600.9000;0.6447;1.4982;
601.2000;0.6284;1.4762;
601.5000;0.6129;1.4492;
601.8000;0.6064;1.4467;
602.1000;0.5918;1.4271;
602.4000;0.5836;1.4222;
602.7000;0.5714;1.3953;
603.0000;0.5625;1.3854;
603.3000;0.5535;1.3781;
603.6000;0.5438;1.3609;
603.9000;0.5356;1.3536;
604.2000;0.5299;1.3438;
604.5000;0.5218;1.3266;
604.8000;0.5161;1.3168;
605.1000;0.5104;1.2996;
605.4000;0.5063;1.2947;
605.7000;0.5014;1.2947;
606.0000;0.4965;1.2923;
606.3000;0.4925;1.2898;
606.6000;0.4868;1.2972;
606.9000;0.4851;1.2898;
607.2000;0.4811;1.2898;
607.5000;0.4778;1.2874;
607.8000;0.4729;1.2800;
608.1000;0.4721;1.2776;
608.4000;0.4681;1.2702;
608.7000;0.4648;1.2702;
609.0000;0.4640;1.2726;
609.3000;0.4599;1.2702;
609.6000;0.4583;1.2677;
609.9000;0.4575;1.2604;
610.2000;0.4550;1.2530;
610.5000;0.4518;1.2530;
610.8000;0.4518;1.2530;
611.1000;0.4510;1.2481;
611.4000;0.4469;1.2334;
611.7000;0.4461;1.2212;
612.0000;0.4428;1.2089;
612.3000;0.4404;1.2040;
612.6000;0.4420;1.2212;
612.9000;0.4363;1.2113;
613.2000;0.4412;1.2261;
613.5000;0.4355;1.2162;
613.8000;0.4330;1.2089;
614.1000;0.4371;1.2285;
614.4000;0.4314;1.2187;
614.7000;0.4298;1.2236;
615.0000;0.4290;1.2212;
615.3000;0.4265;1.2162;
615.6000;0.4241;1.2113;
615.9000;0.4265;1.2212;
616.2000;0.4257;1.2310;
616.5000;0.4249;1.2359;
616.8000;0.4233;1.2334;
617.1000;0.4265;1.2481;
617.4000;0.4225;1.2408;
617.7000;0.4233;1.2408;
618.0000;0.4184;1.2261;
618.3000;0.4160;1.2187;
618.6000;0.4127;1.2212;
618.9000;0.4176;1.2359;
619.2000;0.4062;1.2236;
619.5000;0.4168;1.2481;
619.8000;0.4160;1.2457;
620.1000;0.4127;1.2432;
620.4000;0.4103;1.2285;
620.7000;0.4151;1.2334;
621.0000;0.4127;1.2261;
621.3000;0.4184;1.2408;
621.6000;0.4054;1.2089;
621.9000;0.4103;1.2162;
622.2000;0.4094;1.2162;
622.5000;0.4037;1.2138;
622.8000;0.4103;1.2285;
623.1000;0.4070;1.2064;
623.4000;0.4086;1.2187;
623.7000;0.4143;1.2334;
624.0000;0.4070;1.2212;
624.3000;0.4078;1.2212;
624.6000;0.4062;1.2187;
624.9000;0.3972;1.1917;
625.2000;0.4086;1.2236;
625.5000;0.4029;1.2162;
625.8000;0.4021;1.2064;
626.1000;0.4021;1.2113;
626.4000;0.4029;1.2113;
626.7000;0.4013;1.2113;
627.0000;0.4005;1.2064;
627.3000;0.4013;1.2089;
627.6000;0.4013;1.2040;
627.9000;0.3989;1.2015;
628.2000;0.3980;1.2040;
628.5000;0.3980;1.2064;
628.8000;0.3980;1.2040;
629.1000;0.3923;1.1868;
629.4000;0.3972;1.2040;
629.7000;0.3972;1.2138;
630.0000;0.3972;1.2138;
630.3000;0.3956;1.2064;
630.6000;0.3940;1.2187;
630.9000;0.3932;1.2212;
631.2000;0.3940;1.2285;
631.5000;0.3940;1.2285;
631.8000;0.3972;1.2285;
632.1000;0.3923;1.2187;
632.4000;0.3948;1.2261;
632.7000;0.3932;1.2212;
633.0000;0.3907;1.2113;
633.3000;0.3891;1.2162;
633.6000;0.3923;1.2310;
633.9000;0.3907;1.2310;
634.2000;0.3899;1.2285;
634.5000;0.3915;1.2359;
634.8000;0.3891;1.2334;
635.1000;0.3915;1.2506;
635.4000;0.3899;1.2432;
635.7000;0.3875;1.2359;
636.0000;0.3883;1.2359;
636.3000;0.3891;1.2383;
636.6000;0.3875;1.2261;
636.9000;0.3883;1.2334;
637.2000;0.3875;1.2359;
637.5000;0.3883;1.2310;
637.8000;0.3875;1.2359;
638.1000;0.3875;1.2334;
638.4000;0.3899;1.2432;
638.7000;0.3867;1.2432;
639.0000;0.3850;1.2408;
639.3000;0.3850;1.2432;
639.6000;0.3850;1.2359;
639.9000;0.3842;1.2285;
640.2000;0.3842;1.2261;
640.5000;0.3850;1.2236;
640.8000;0.3834;1.2261;
641.1000;0.3858;1.2359;
641.4000;0.3826;1.2261;
641.7000;0.3826;1.2285;
642.0000;0.3826;1.2285;
642.3000;0.3793;1.2236;
642.6000;0.3785;1.2310;
642.9000;0.3801;1.2359;
643.2000;0.3818;1.2383;
643.5000;0.3818;1.2334;
643.8000;0.3818;1.2285;
644.1000;0.3810;1.2187;
644.4000;0.3801;1.2089;
644.7000;0.3753;1.1942;
645.0000;0.3777;1.2064;
645.3000;0.3826;1.2162;
645.6000;0.3826;1.2285;
645.9000;0.3761;1.2089;
646.2000;0.3793;1.2162;
646.5000;0.3793;1.2261;
646.8000;0.3785;1.2187;
647.1000;0.3793;1.2236;
647.4000;0.3769;1.2310;
647.7000;0.3793;1.2261;
648.0000;0.3744;1.2089;
648.3000;0.3761;1.2138;
648.6000;0.3777;1.2162;
648.9000;0.3785;1.2285;
649.2000;0.3761;1.2212;
649.5000;0.3769;1.2236;
649.8000;0.3785;1.2285;
650.1000;0.3769;1.2310;
650.4000;0.3728;1.2261;
650.7000;0.3753;1.2236;
651.0000;0.3753;1.2212;
651.3000;0.3744;1.2261;
651.6000;0.3761;1.2261;
651.9000;0.3769;1.2236;
652.2000;0.3753;1.2187;
652.5000;0.3761;1.2236;
652.8000;0.3761;1.2187;
653.1000;0.3753;1.2089;
653.4000;0.3736;1.2015;
653.7000;0.3753;1.2138;
654.0000;0.3761;1.2162;
654.3000;0.3736;1.2138;
654.6000;0.3728;1.2040;
654.9000;0.3736;1.2113;
655.2000;0.3712;1.2138;
655.5000;0.3720;1.2089;
655.8000;0.3671;1.1917;
656.1000;0.3696;1.1966;
656.4000;0.3753;1.2138;
656.7000;0.3720;1.2187;
657.0000;0.3712;1.2236;
657.3000;0.3712;1.2285;
657.6000;0.3704;1.2285;
657.9000;0.3761;1.2310;
658.2000;0.3736;1.2285;
658.5000;0.3704;1.2212;
658.8000;0.3704;1.2089;
659.1000;0.3679;1.1991;
659.4000;0.3704;1.2113;
659.7000;0.3663;1.2064;
660.0000;0.3687;1.2285;
660.3000;0.3696;1.2261;
660.6000;0.3704;1.2285;
660.9000;0.3679;1.2236;
661.2000;0.3720;1.2285;
661.5000;0.3696;1.2187;
661.8000;0.3687;1.2138;
662.1000;0.3687;1.2089;
662.4000;0.3696;1.2113;
662.7000;0.3696;1.2113;
663.0000;0.3704;1.2089;
663.3000;0.3704;1.2113;
663.6000;0.3671;1.2064;
663.9000;0.3679;1.2040;
664.2000;0.3679;1.1991;
664.5000;0.3655;1.1917;
664.8000;0.3663;1.1966;
665.1000;0.3671;1.1966;
665.4000;0.3687;1.1966;
665.7000;0.3647;1.1819;
666.0000;0.3655;1.1795;
666.3000;0.3647;1.1795;
666.6000;0.3655;1.1868;
666.9000;0.3655;1.1917;
667.2000;0.3639;1.1868;
667.5000;0.3622;1.1942;
667.8000;0.3639;1.2064;
668.1000;0.3655;1.2113;
668.4000;0.3630;1.2064;
668.7000;0.3622;1.2040;
669.0000;0.3639;1.1942;
669.3000;0.3655;1.1942;
669.6000;0.3704;1.2064;
669.9000;0.3639;1.2015;
670.2000;0.3639;1.1966;
670.5000;0.3679;1.2064;
670.8000;0.3679;1.1991;
671.1000;0.3622;1.1917;
671.4000;0.3639;1.1991;
671.7000;0.3647;1.2015;
672.0000;0.3630;1.2064;
672.3000;0.3639;1.2138;
672.6000;0.3630;1.2187;
672.9000;0.3647;1.2187;
673.2000;0.3639;1.2236;
673.5000;0.3639;1.2162;
673.8000;0.3630;1.2261;
674.1000;0.3622;1.2261;
674.4000;0.3573;1.2040;
674.7000;0.3639;1.2089;
675.0000;0.3630;1.2089;
675.3000;0.3622;1.2064;
675.6000;0.3622;1.2015;
675.9000;0.3630;1.2089;
676.2000;0.3622;1.2089;
676.5000;0.3606;1.2040;
676.8000;0.3639;1.2089;
677.1000;0.3630;1.2064;
677.4000;0.3622;1.2113;
677.7000;0.3655;1.2162;
678.0000;0.3622;1.2064;
678.3000;0.3630;1.2113;
678.6000;0.3598;1.1917;
678.9000;0.3622;1.2040;
679.2000;0.3614;1.2138;
679.5000;0.3630;1.2261;
679.8000;0.3606;1.2187;
680.1000;0.3622;1.2187;
680.4000;0.3622;1.2285;
680.7000;0.3647;1.2359;
681.0000;0.3590;1.2285;
681.3000;0.3573;1.2187;
681.6000;0.3557;1.2162;
681.9000;0.3590;1.2212;
682.2000;0.3590;1.2162;
682.5000;0.3606;1.2212;
682.8000;0.3565;1.2089;
683.1000;0.3590;1.2138;
683.4000;0.3606;1.2236;
683.7000;0.3663;1.2359;
684.0000;0.3590;1.2187;
684.3000;0.3598;1.2089;
684.6000;0.3598;1.2113;
684.9000;0.3590;1.2040;
685.2000;0.3573;1.2040;
685.5000;0.3573;1.2089;
685.8000;0.3606;1.2138;
686.1000;0.3590;1.2212;
686.4000;0.3557;1.2187;
686.7000;0.3582;1.2212;
687.0000;0.3582;1.2212;
687.3000;0.3582;1.2089;
687.6000;0.3606;1.2162;
687.9000;0.3541;1.2089;
688.2000;0.3582;1.2187;
688.5000;0.3573;1.2113;
688.8000;0.3582;1.2113;
689.1000;0.3582;1.2064;
689.4000;0.3549;1.2015;
689.7000;0.3582;1.1991;
690.0000;0.3573;1.1893;
690.3000;0.3541;1.1893;
690.6000;0.3598;1.2089;
690.9000;0.3590;1.2113;
691.2000;0.3557;1.2113;
691.5000;0.3598;1.2261;
691.8000;0.3573;1.2187;
692.1000;0.3565;1.2162;
692.4000;0.3549;1.2089;
692.7000;0.3557;1.2015;
693.0000;0.3557;1.2040;
693.3000;0.3565;1.2089;
693.6000;0.3549;1.2138;
693.9000;0.3573;1.2162;
694.2000;0.3549;1.2040;
694.5000;0.3549;1.2040;
694.8000;0.3557;1.2064;
695.1000;0.3541;1.2015;
695.4000;0.3598;1.2187;
695.7000;0.3549;1.2113;
696.0000;0.3549;1.2089;
696.3000;0.3565;1.2089;
696.6000;0.3573;1.2064;
696.9000;0.3557;1.1868;
697.2000;0.3582;1.1819;
697.5000;0.3565;1.1868;
697.8000;0.3573;1.1868;
698.1000;0.3549;1.1819;
698.4000;0.3557;1.1966;
698.7000;0.3565;1.1966;
699.0000;0.3541;1.1966;
699.3000;0.3533;1.1966;
699.6000;0.3549;1.2064;
699.9000;0.3533;1.2064;
700.2000;0.3541;1.2089;
700.5000;0.3516;1.2138;
700.8000;0.3533;1.2089;
701.1000;0.3549;1.2138;
701.4000;0.3565;1.2015;
701.7000;0.3525;1.1917;
702.0000;0.3533;1.1966;
702.3000;0.3541;1.1917;
702.6000;0.3541;1.1991;
702.9000;0.3533;1.1942;
703.2000;0.3582;1.2089;
703.5000;0.3549;1.1991;
703.8000;0.3541;1.1991;
704.1000;0.3533;1.2089;
704.4000;0.3525;1.2138;
704.7000;0.3516;1.2212;
705.0000;0.3541;1.2261;
705.3000;0.3516;1.2236;
705.6000;0.3508;1.2138;
705.9000;0.3500;1.2089;
706.2000;0.3516;1.2015;
706.5000;0.3525;1.1991;
706.8000;0.3500;1.1795;
707.1000;0.3500;1.1795;
707.4000;0.3492;1.1868;
707.7000;0.3516;1.1844;
708.0000;0.3508;1.1868;
708.3000;0.3533;1.1942;
708.6000;0.3508;1.1966;
708.9000;0.3516;1.1942;
709.2000;0.3573;1.2113;
709.5000;0.3516;1.2064;
709.8000;0.3533;1.2187;
710.1000;0.3500;1.2138;
710.4000;0.3508;1.2064;
710.7000;0.3500;1.2064;
711.0000;0.3516;1.2113;
711.3000;0.3516;1.2113;
711.6000;0.3508;1.2113;
711.9000;0.3516;1.2138;
712.2000;0.3508;1.2162;
712.5000;0.3492;1.2089;
712.8000;0.3516;1.2162;
713.1000;0.3541;1.2261;
713.4000;0.3508;1.2113;
713.7000;0.3525;1.2064;
714.0000;0.3508;1.2113;
714.3000;0.3492;1.2113;
714.6000;0.3492;1.2138;
714.9000;0.3460;1.1991;
715.2000;0.3557;1.2236;
715.5000;0.3484;1.2040;
715.8000;0.3484;1.2040;
716.1000;0.3484;1.2089;
716.4000;0.3460;1.2040;
716.7000;0.3508;1.2089;
717.0000;0.3484;1.1966;
717.3000;0.3500;1.1966;
717.6000;0.3492;1.1966;
717.9000;0.3484;1.1966;
718.2000;0.3500;1.2015;
718.5000;0.3484;1.1868;
718.8000;0.3492;1.1795;
719.1000;0.3435;1.1623;
719.4000;0.3476;1.1868;
719.7000;0.3484;1.1893;
720.0000;0.3549;1.2064;
720.3000;0.3500;1.1917;
720.6000;0.3492;1.1991;
720.9000;0.3492;1.1942;
721.2000;0.3484;1.1966;
721.5000;0.3492;1.1991;
721.8000;0.3484;1.1991;
722.1000;0.3468;1.1893;
722.4000;0.3508;1.2064;
722.7000;0.3476;1.2015;
723.0000;0.3492;1.2040;
723.3000;0.3468;1.1844;
723.6000;0.3476;1.1844;
723.9000;0.3460;1.1893;
724.2000;0.3468;1.1966;
724.5000;0.3484;1.1966;
724.8000;0.3476;1.2089;
725.1000;0.3492;1.2113;
725.4000;0.3476;1.2138;
725.7000;0.3468;1.2113;
726.0000;0.3500;1.2236;
726.3000;0.3516;1.2236;
726.6000;0.3484;1.2089;
726.9000;0.3451;1.1991;
727.2000;0.3468;1.2064;
727.5000;0.3476;1.2089;
727.8000;0.3484;1.2187;
728.1000;0.3443;1.2138;
728.4000;0.3468;1.2212;
728.7000;0.3484;1.2212;
729.0000;0.3468;1.2236;
729.3000;0.3476;1.2162;
729.6000;0.3460;1.2113;
729.9000;0.3516;1.2236;
730.2000;0.3468;1.2212;
730.5000;0.3468;1.2187;
730.8000;0.3435;1.2187;
731.1000;0.3443;1.2187;
731.4000;0.3468;1.2261;
731.7000;0.3468;1.2261;
732.0000;0.3508;1.2334;
732.3000;0.3451;1.2187;
732.6000;0.3460;1.2212;
732.9000;0.3476;1.2261;
733.2000;0.3460;1.2138;
733.5000;0.3476;1.2089;
733.8000;0.3492;1.2040;
734.1000;0.3476;1.2089;
734.4000;0.3484;1.2113;
734.7000;0.3468;1.2113;
735.0000;0.3468;1.2187;
735.3000;0.3508;1.2359;
735.6000;0.3460;1.2212;
735.9000;0.3460;1.2310;
736.2000;0.3419;1.2162;
736.5000;0.3411;1.2138;
736.8000;0.3451;1.2138;
737.1000;0.3451;1.2162;
737.4000;0.3484;1.2187;
737.7000;0.3451;1.2138;
738.0000;0.3541;1.2285;
738.3000;0.3451;1.2113;
738.6000;0.3508;1.2261;
738.9000;0.3451;1.2162;
739.2000;0.3468;1.2138;
739.5000;0.3508;1.2285;
739.8000;0.3451;1.2138;
740.1000;0.3394;1.1966;
740.4000;0.3443;1.2064;
740.7000;0.3386;1.1942;
741.0000;0.3435;1.2040;
741.3000;0.3435;1.2064;
741.6000;0.3443;1.2113;
741.9000;0.3451;1.2236;
742.2000;0.3386;1.2015;
742.5000;0.3435;1.2138;
742.8000;0.3468;1.2138;
743.1000;0.3451;1.2212;
743.4000;0.3468;1.2285;
743.7000;0.3451;1.2285;
744.0000;0.3419;1.2285;
744.3000;0.3443;1.2310;
744.6000;0.3443;1.2187;
744.9000;0.3435;1.2138;
745.2000;0.3443;1.2089;
745.5000;0.3443;1.2040;
745.8000;0.3427;1.2040;
746.1000;0.3460;1.2064;
746.4000;0.3451;1.2064;
746.7000;0.3419;1.2064;
747.0000;0.3516;1.2285;
747.3000;0.3443;1.2015;
747.6000;0.3435;1.1966;
747.9000;0.3443;1.2113;
748.2000;0.3476;1.2187;
748.5000;0.3443;1.2236;
748.8000;0.3451;1.2310;
749.1000;0.3443;1.2285;
749.4000;0.3468;1.2310;
749.7000;0.3435;1.2212;
750.0000;0.3419;1.2138;
750.3000;0.3443;1.2138;
750.6000;0.3451;1.2113;
750.9000;0.3386;1.1917;
751.2000;0.3427;1.2089;
751.5000;0.3435;1.2113;
751.8000;0.3435;1.2089;
752.1000;0.3443;1.2113;
752.4000;0.3435;1.2040;
752.7000;0.3451;1.2113;
753.0000;0.3435;1.2089;
753.3000;0.3427;1.2040;
753.6000;0.3435;1.2089;
753.9000;0.3394;1.1991;
754.2000;0.3419;1.2040;
754.5000;0.3386;1.2089;
754.8000;0.3427;1.2138;
755.1000;0.3419;1.2113;
755.4000;0.3427;1.2089;
755.7000;0.3435;1.2113;
756.0000;0.3419;1.2212;
756.3000;0.3419;1.2261;
756.6000;0.3435;1.2310;
756.9000;0.3427;1.2236;
757.2000;0.3435;1.2359;
757.5000;0.3411;1.2113;
757.8000;0.3427;1.2138;
758.1000;0.3435;1.2162;
758.4000;0.3435;1.2261;
758.7000;0.3427;1.2212;
759.0000;0.3427;1.2089;
759.3000;0.3468;1.2285;
759.6000;0.3451;1.2261;
759.9000;0.3427;1.2285;
760.2000;0.3419;1.2310;
760.5000;0.3435;1.2359;
760.8000;0.3427;1.2408;
761.1000;0.3419;1.2334;
761.4000;0.3419;1.2383;
761.7000;0.3451;1.2481;
762.0000;0.3427;1.2432;
762.3000;0.3460;1.2481;
762.6000;0.3419;1.2383;
762.9000;0.3403;1.2261;
763.2000;0.3419;1.2261;
763.5000;0.3403;1.2212;
763.8000;0.3427;1.2359;
764.1000;0.3419;1.2383;
764.4000;0.3427;1.2432;
764.7000;0.3411;1.2457;
765.0000;0.3411;1.2457;
765.3000;0.3403;1.2432;
765.6000;0.3411;1.2481;
765.9000;0.3419;1.2506;
766.2000;0.3427;1.2506;
766.5000;0.3427;1.2628;
766.8000;0.3403;1.2628;
767.1000;0.3427;1.2555;
767.4000;0.3427;1.2604;
767.7000;0.3419;1.2653;
768.0000;0.3427;1.2653;
768.3000;0.3427;1.2653;
768.6000;0.3427;1.2579;
768.9000;0.3419;1.2555;
769.2000;0.3451;1.2604;
769.5000;0.3403;1.2481;
769.8000;0.3419;1.2555;
770.1000;0.3411;1.2604;
770.4000;0.3427;1.2604;
770.7000;0.3403;1.2506;
771.0000;0.3419;1.2555;
771.3000;0.3403;1.2530;
771.6000;0.3419;1.2506;
771.9000;0.3386;1.2432;
772.2000;0.3403;1.2432;
772.5000;0.3378;1.2359;
772.8000;0.3386;1.2285;
773.1000;0.3394;1.2310;
773.4000;0.3411;1.2359;
773.7000;0.3419;1.2383;
774.0000;0.3435;1.2506;
774.3000;0.3403;1.2481;
774.6000;0.3403;1.2506;
774.9000;0.3403;1.2506;
775.2000;0.3403;1.2530;
775.5000;0.3386;1.2481;
775.8000;0.3346;1.2359;
776.1000;0.3403;1.2579;
776.4000;0.3394;1.2555;
776.7000;0.3394;1.2506;
777.0000;0.3394;1.2481;
777.3000;0.3386;1.2432;
777.6000;0.3386;1.2457;
777.9000;0.3378;1.2359;
778.2000;0.3419;1.2457;
778.5000;0.3411;1.2457;
778.8000;0.3394;1.2457;
779.1000;0.3403;1.2383;
779.4000;0.3394;1.2359;
779.7000;0.3403;1.2359;
780.0000;0.3419;1.2432;
780.3000;0.3403;1.2408;
780.6000;0.3386;1.2359;
780.9000;0.3362;1.2383;
781.2000;0.3394;1.2506;
781.5000;0.3394;1.2579;
781.8000;0.3411;1.2506;
782.1000;0.3419;1.2530;
782.4000;0.3403;1.2408;
782.7000;0.3419;1.2408;
783.0000;0.3403;1.2359;
783.3000;0.3403;1.2383;
783.6000;0.3427;1.2506;
783.9000;0.3403;1.2432;
784.2000;0.3419;1.2432;
784.5000;0.3403;1.2481;
784.8000;0.3427;1.2530;
785.1000;0.3443;1.2555;
785.4000;0.3460;1.2604;
785.7000;0.3403;1.2555;
786.0000;0.3378;1.2530;
786.3000;0.3411;1.2530;
786.6000;0.3337;1.2383;
786.9000;0.3403;1.2506;
787.2000;0.3378;1.2457;
787.5000;0.3411;1.2506;
787.8000;0.3403;1.2383;
788.1000;0.3370;1.2408;
788.4000;0.3403;1.2481;
788.7000;0.3411;1.2506;
789.0000;0.3419;1.2432;
789.3000;0.3394;1.2432;
789.6000;0.3378;1.2334;
789.9000;0.3386;1.2334;
790.2000;0.3386;1.2359;
790.5000;0.3394;1.2432;
790.8000;0.3411;1.2432;
791.1000;0.3394;1.2383;
791.4000;0.3346;1.2261;
791.7000;0.3386;1.2383;
792.0000;0.3403;1.2359;
792.3000;0.3394;1.2310;
792.6000;0.3386;1.2359;
792.9000;0.3386;1.2408;
793.2000;0.3386;1.2432;
793.5000;0.3394;1.2383;
793.8000;0.3403;1.2432;
794.1000;0.3403;1.2408;
794.4000;0.3386;1.2383;
794.7000;0.3403;1.2432;
795.0000;0.3394;1.2310;
795.3000;0.3394;1.2285;
795.6000;0.3370;1.2261;
795.9000;0.3394;1.2334;
796.2000;0.3394;1.2359;
796.5000;0.3403;1.2481;
796.8000;0.3394;1.2506;
797.1000;0.3386;1.2506;
797.4000;0.3403;1.2506;
797.7000;0.3394;1.2457;
798.0000;0.3386;1.2457;
798.3000;0.3451;1.2628;
798.6000;0.3394;1.2604;
798.9000;0.3394;1.2653;
799.2000;0.3386;1.2530;
799.5000;0.3378;1.2530;
799.8000;0.3378;1.2506;
800.1000;0.3378;1.2555;
800.4000;0.3386;1.2653;
800.7000;0.3394;1.2702;
801.0000;0.3370;1.2653;
801.3000;0.3378;1.2628;
801.6000;0.3370;1.2677;
801.9000;0.3378;1.2604;
802.2000;0.3378;1.2506;
802.5000;0.3394;1.2530;
802.8000;0.3394;1.2604;
803.1000;0.3394;1.2604;
803.4000;0.3386;1.2555;
803.7000;0.3386;1.2506;
804.0000;0.3386;1.2506;
804.3000;0.3394;1.2555;
804.6000;0.3386;1.2530;
804.9000;0.3403;1.2628;
805.2000;0.3386;1.2604;
805.5000;0.3394;1.2751;
805.8000;0.3370;1.2628;
806.1000;0.3378;1.2628;
806.4000;0.3370;1.2628;
806.7000;0.3386;1.2677;
807.0000;0.3370;1.2604;
807.3000;0.3427;1.2677;
807.6000;0.3370;1.2530;
807.9000;0.3378;1.2481;
808.2000;0.3411;1.2579;
808.5000;0.3386;1.2530;
808.8000;0.3386;1.2530;
809.1000;0.3378;1.2481;
809.4000;0.3346;1.2383;
809.7000;0.3378;1.2432;
810.0000;0.3378;1.2432;
810.3000;0.3394;1.2506;
810.6000;0.3386;1.2555;
810.9000;0.3370;1.2555;
811.2000;0.3313;1.2383;
811.5000;0.3346;1.2359;
811.8000;0.3370;1.2383;
812.1000;0.3370;1.2481;
812.4000;0.3354;1.2506;
812.7000;0.3370;1.2481;
813.0000;0.3362;1.2481;
813.3000;0.3354;1.2334;
813.6000;0.3362;1.2408;
813.9000;0.3378;1.2481;
814.2000;0.3419;1.2677;
814.5000;0.3337;1.2408;
814.8000;0.3354;1.2359;
815.1000;0.3435;1.2506;
815.4000;0.3378;1.2359;
815.7000;0.3370;1.2334;
816.0000;0.3386;1.2432;
816.3000;0.3362;1.2432;
816.6000;0.3378;1.2506;
816.9000;0.3394;1.2628;
817.2000;0.3370;1.2530;
817.5000;0.3386;1.2457;
817.8000;0.3337;1.2359;
818.1000;0.3362;1.2457;
818.4000;0.3346;1.2334;
818.7000;0.3362;1.2310;
819.0000;0.3354;1.2310;
819.3000;0.3370;1.2334;
819.6000;0.3362;1.2334;
819.9000;0.3337;1.2236;
820.2000;0.3370;1.2285;
820.5000;0.3370;1.2334;
820.8000;0.3354;1.2408;
821.1000;0.3337;1.2383;
821.4000;0.3370;1.2334;
821.7000;0.3378;1.2310;
822.0000;0.3378;1.2359;
822.3000;0.3362;1.2261;
822.6000;0.3370;1.2187;
822.9000;0.3362;1.2285;
823.2000;0.3378;1.2261;
823.5000;0.3378;1.2334;
823.8000;0.3354;1.2408;
824.1000;0.3370;1.2408;
824.4000;0.3378;1.2334;
824.7000;0.3370;1.2285;
825.0000;0.3370;1.2310;
825.3000;0.3354;1.2236;
825.6000;0.3346;1.2236;
825.9000;0.3346;1.2187;
826.2000;0.3346;1.2138;
826.5000;0.3386;1.2187;
826.8000;0.3337;1.2236;
827.1000;0.3354;1.2236;
827.4000;0.3346;1.2236;
827.7000;0.3354;1.2236;
828.0000;0.3378;1.2285;
828.3000;0.3346;1.2261;
828.6000;0.3362;1.2285;
828.9000;0.3346;1.2310;
829.2000;0.3362;1.2334;
829.5000;0.3346;1.2261;
829.8000;0.3346;1.2285;
830.1000;0.3329;1.2187;
830.4000;0.3346;1.2138;
830.7000;0.3354;1.2113;
831.0000;0.3337;1.1966;
831.3000;0.3362;1.2138;
831.6000;0.3419;1.2408;
831.9000;0.3403;1.2432;
832.2000;0.3354;1.2261;
832.5000;0.3403;1.2432;
832.8000;0.3386;1.2432;
833.1000;0.3346;1.2432;
833.4000;0.3329;1.2481;
833.7000;0.3354;1.2653;
834.0000;0.3337;1.2530;
834.3000;0.3354;1.2555;
834.6000;0.3362;1.2506;
834.9000;0.3370;1.2457;
835.2000;0.3337;1.2408;
835.5000;0.3346;1.2408;
835.8000;0.3370;1.2481;
836.1000;0.3362;1.2579;
836.4000;0.3346;1.2555;
836.7000;0.3346;1.2604;
837.0000;0.3370;1.2653;
837.3000;0.3370;1.2751;
837.6000;0.3354;1.2628;
837.9000;0.3354;1.2604;
838.2000;0.3362;1.2653;
838.5000;0.3354;1.2702;
838.8000;0.3370;1.2653;
839.1000;0.3354;1.2653;
839.4000;0.3370;1.2800;
839.7000;0.3378;1.2776;
840.0000;0.3362;1.2751;
840.3000;0.3362;1.2751;
840.6000;0.3313;1.2653;
840.9000;0.3362;1.2800;
841.2000;0.3362;1.2726;
841.5000;0.3346;1.2677;
841.8000;0.3346;1.2555;
842.1000;0.3370;1.2530;
842.4000;0.3370;1.2481;
842.7000;0.3378;1.2310;
843.0000;0.3362;1.2310;
843.3000;0.3346;1.2187;
843.6000;0.3346;1.2162;
843.9000;0.3346;1.2138;
844.2000;0.3321;1.2113;
844.5000;0.3337;1.2162;
844.8000;0.3346;1.2285;
845.1000;0.3337;1.2285;
845.4000;0.3370;1.2432;
845.7000;0.3346;1.2506;
846.0000;0.3435;1.2751;
846.3000;0.3370;1.2653;
846.6000;0.3362;1.2726;
846.9000;0.3354;1.2702;
847.2000;0.3419;1.2726;
847.5000;0.3370;1.2604;
847.8000;0.3354;1.2628;
848.1000;0.3362;1.2726;
848.4000;0.3386;1.2776;
848.7000;0.3337;1.2653;
849.0000;0.3378;1.2702;
849.3000;0.3362;1.2677;
849.6000;0.3362;1.2677;
849.9000;0.3378;1.2677;
850.2000;0.3337;1.2530;
850.5000;0.3313;1.2506;
850.8000;0.3346;1.2481;
851.1000;0.3346;1.2457;
851.4000;0.3337;1.2408;
851.7000;0.3370;1.2432;
852.0000;0.3346;1.2481;
852.3000;0.3337;1.2457;
852.6000;0.3354;1.2530;
852.9000;0.3354;1.2530;
853.2000;0.3362;1.2579;
853.5000;0.3329;1.2555;
853.8000;0.3354;1.2653;
854.1000;0.3346;1.2628;
854.4000;0.3362;1.2702;
854.7000;0.3378;1.2726;
855.0000;0.3370;1.2726;
855.3000;0.3354;1.2702;
855.6000;0.3386;1.2726;
855.9000;0.3362;1.2604;
856.2000;0.3354;1.2628;
856.5000;0.3354;1.2555;
856.8000;0.3346;1.2530;
857.1000;0.3346;1.2530;
857.4000;0.3362;1.2481;
857.7000;0.3354;1.2432;
858.0000;0.3354;1.2408;
858.3000;0.3354;1.2359;
858.6000;0.3337;1.2408;
858.9000;0.3337;1.2432;
859.2000;0.3280;1.2359;
859.5000;0.3337;1.2506;
859.8000;0.3346;1.2506;
860.1000;0.3378;1.2604;
860.4000;0.3346;1.2530;
860.7000;0.3354;1.2555;
861.0000;0.3346;1.2579;
861.3000;0.3362;1.2628;
861.6000;0.3337;1.2604;
861.9000;0.3354;1.2579;
862.2000;0.3321;1.2530;
862.5000;0.3354;1.2653;
862.8000;0.3337;1.2604;
863.1000;0.3321;1.2604;
863.4000;0.3337;1.2677;
863.7000;0.3354;1.2628;
864.0000;0.3321;1.2604;
864.3000;0.3370;1.2628;
864.6000;0.3346;1.2555;
864.9000;0.3346;1.2579;
865.2000;0.3329;1.2604;
865.5000;0.3354;1.2555;
865.8000;0.3337;1.2481;
866.1000;0.3329;1.2408;
866.4000;0.3346;1.2555;
866.7000;0.3346;1.2579;
867.0000;0.3337;1.2555;
867.3000;0.3329;1.2555;
867.6000;0.3354;1.2628;
867.9000;0.3354;1.2555;
868.2000;0.3386;1.2677;
868.5000;0.3346;1.2579;
868.8000;0.3354;1.2579;
869.1000;0.3337;1.2628;
869.4000;0.3386;1.2726;
869.7000;0.3362;1.2628;
870.0000;0.3337;1.2506;
870.3000;0.3370;1.2506;
870.6000;0.3337;1.2506;
870.9000;0.3337;1.2530;
871.2000;0.3321;1.2506;
871.5000;0.3337;1.2530;
871.8000;0.3337;1.2530;
872.1000;0.3346;1.2530;
872.4000;0.3329;1.2457;
872.7000;0.3346;1.2383;
873.0000;0.3329;1.2285;
873.3000;0.3248;1.2089;
873.6000;0.3337;1.2408;
873.9000;0.3346;1.2457;
874.2000;0.3346;1.2359;
874.5000;0.3362;1.2310;
874.8000;0.3346;1.2285;
875.1000;0.3362;1.2334;
875.4000;0.3370;1.2310;
875.7000;0.3346;1.2285;
876.0000;0.3354;1.2334;
876.3000;0.3346;1.2383;
876.6000;0.3354;1.2457;
876.9000;0.3346;1.2408;
877.2000;0.3354;1.2432;
877.5000;0.3337;1.2383;
877.8000;0.3354;1.2359;
878.1000;0.3346;1.2408;
878.4000;0.3256;1.2138;
878.7000;0.3354;1.2432;
879.0000;0.3346;1.2481;
879.3000;0.3370;1.2530;
879.6000;0.3346;1.2530;
879.9000;0.3329;1.2506;
880.2000;0.3346;1.2432;
880.5000;0.3346;1.2383;
880.8000;0.3354;1.2334;
881.1000;0.3354;1.2481;
881.4000;0.3313;1.2383;
881.7000;0.3337;1.2481;
882.0000;0.3354;1.2579;
882.3000;0.3346;1.2579;
882.6000;0.3386;1.2702;
882.9000;0.3346;1.2628;
883.2000;0.3346;1.2604;
883.5000;0.3435;1.2898;
883.8000;0.3354;1.2628;
884.1000;0.3346;1.2653;
884.4000;0.3329;1.2555;
884.7000;0.3313;1.2457;
885.0000;0.3329;1.2432;
885.3000;0.3419;1.2579;
885.6000;0.3337;1.2432;
885.9000;0.3346;1.2408;
886.2000;0.3403;1.2628;
886.5000;0.3346;1.2457;
886.8000;0.3394;1.2677;
887.1000;0.3346;1.2530;
887.4000;0.3346;1.2530;
887.7000;0.3337;1.2555;
888.0000;0.3346;1.2702;
888.3000;0.3337;1.2653;
888.6000;0.3346;1.2604;
888.9000;0.3354;1.2579;
889.2000;0.3346;1.2555;
889.5000;0.3354;1.2579;
889.8000;0.3354;1.2604;
890.1000;0.3354;1.2604;
890.4000;0.3362;1.2677;
890.7000;0.3354;1.2604;
891.0000;0.3346;1.2604;
891.3000;0.3337;1.2604;
891.6000;0.3354;1.2628;
891.9000;0.3346;1.2555;
892.2000;0.3346;1.2506;
892.5000;0.3337;1.2506;
892.8000;0.3337;1.2530;
893.1000;0.3337;1.2628;
893.4000;0.3354;1.2751;
893.7000;0.3321;1.2677;
894.0000;0.3403;1.2825;
894.3000;0.3337;1.2653;
894.6000;0.3346;1.2677;
894.9000;0.3321;1.2653;
895.2000;0.3329;1.2628;
895.5000;0.3354;1.2579;
895.8000;0.3337;1.2555;
896.1000;0.3346;1.2530;
896.4000;0.3321;1.2506;
896.7000;0.3329;1.2555;
897.0000;0.3337;1.2604;
897.3000;0.3321;1.2604;
897.6000;0.3346;1.2604;
897.9000;0.3337;1.2628;
898.2000;0.3346;1.2653;
898.5000;0.3362;1.2653;
898.8000;0.3346;1.2628;
899.1000;0.3305;1.2506;
899.4000;0.3354;1.2579;
899.7000;0.3346;1.2555;
900.0000;0.3337;1.2579;
900.3000;0.3329;1.2579;
900.6000;0.3337;1.2604;
900.9000;0.3329;1.2579;
901.2000;0.3329;1.2555;
901.5000;0.3329;1.2604;
901.8000;0.3329;1.2579;
902.1000;0.3337;1.2555;
902.4000;0.3337;1.2530;
902.7000;0.3329;1.2506;
903.0000;0.3329;1.2359;
903.3000;0.3329;1.2334;
903.6000;0.3337;1.2359;
903.9000;0.3321;1.2432;
904.2000;0.3337;1.2481;
904.5000;0.3337;1.2506;
904.8000;0.3337;1.2530;
905.1000;0.3289;1.2359;
905.4000;0.3313;1.2261;
905.7000;0.3329;1.2285;
906.0000;0.3321;1.2261;
906.3000;0.3313;1.2285;
906.6000;0.3329;1.2334;
906.9000;0.3329;1.2310;
907.2000;0.3329;1.2310;
907.5000;0.3264;1.2162;
907.8000;0.3321;1.2310;
908.1000;0.3297;1.2359;
908.4000;0.3272;1.2236;
908.7000;0.3321;1.2408;
909.0000;0.3305;1.2310;
909.3000;0.3313;1.2359;
909.6000;0.3280;1.2236;
909.9000;0.3329;1.2285;
910.2000;0.3337;1.2285;
910.5000;0.3329;1.2334;
910.8000;0.3346;1.2334;
911.1000;0.3337;1.2383;
911.4000;0.3329;1.2359;
911.7000;0.3321;1.2359;
912.0000;0.3337;1.2432;
912.3000;0.3313;1.2457;
912.6000;0.3337;1.2506;
912.9000;0.3337;1.2506;
913.2000;0.3337;1.2579;
913.5000;0.3337;1.2506;
913.8000;0.3337;1.2579;
914.1000;0.3337;1.2628;
914.4000;0.3313;1.2457;
914.7000;0.3329;1.2530;
915.0000;0.3378;1.2653;
915.3000;0.3313;1.2530;
915.6000;0.3329;1.2530;
915.9000;0.3321;1.2628;
916.2000;0.3329;1.2579;
916.5000;0.3313;1.2481;
916.8000;0.3321;1.2432;
917.1000;0.3329;1.2408;
917.4000;0.3321;1.2383;
917.7000;0.3321;1.2334;
918.0000;0.3346;1.2310;
918.3000;0.3337;1.2236;
918.6000;0.3337;1.2359;
918.9000;0.3346;1.2432;
919.2000;0.3346;1.2457;
919.5000;0.3329;1.2457;
919.8000;0.3256;1.2359;
920.1000;0.3337;1.2579;
920.4000;0.3313;1.2555;
920.7000;0.3321;1.2579;
921.0000;0.3337;1.2628;
921.3000;0.3329;1.2604;
921.6000;0.3329;1.2579;
921.9000;0.3329;1.2530;
922.2000;0.3337;1.2555;
922.5000;0.3321;1.2506;
922.8000;0.3321;1.2506;
923.1000;0.3329;1.2506;
923.4000;0.3337;1.2653;
923.7000;0.3346;1.2628;
924.0000;0.3378;1.2628;
924.3000;0.3419;1.2776;
924.6000;0.3329;1.2530;
924.9000;0.3337;1.2579;
925.2000;0.3346;1.2530;
925.5000;0.3346;1.2530;
925.8000;0.3321;1.2506;
926.1000;0.3313;1.2457;
926.4000;0.3321;1.2408;
926.7000;0.3313;1.2334;
927.0000;0.3305;1.2383;
927.3000;0.3313;1.2432;
927.6000;0.3313;1.2457;
927.9000;0.3305;1.2481;
928.2000;0.3289;1.2359;
928.5000;0.3321;1.2334;
928.8000;0.3321;1.2359;
929.1000;0.3280;1.2236;
929.4000;0.3329;1.2432;
929.7000;0.3313;1.2408;
930.0000;0.3354;1.2457;
930.3000;0.3329;1.2359;
930.6000;0.3305;1.2383;
930.9000;0.3321;1.2408;
931.2000;0.3321;1.2432;
931.5000;0.3321;1.2334;
931.8000;0.3321;1.2359;
932.1000;0.3329;1.2408;
932.4000;0.3329;1.2432;
932.7000;0.3337;1.2334;
933.0000;0.3346;1.2334;
933.3000;0.3329;1.2236;
933.6000;0.3329;1.2285;
933.9000;0.3337;1.2383;
934.2000;0.3337;1.2334;
934.5000;0.3346;1.2310;
934.8000;0.3305;1.2261;
935.1000;0.3362;1.2481;
935.4000;0.3305;1.2383;
935.7000;0.3362;1.2579;
936.0000;0.3354;1.2530;
936.3000;0.3313;1.2506;
936.6000;0.3321;1.2432;
936.9000;0.3362;1.2481;
937.2000;0.3321;1.2383;
937.5000;0.3321;1.2408;
937.8000;0.3337;1.2506;
938.1000;0.3321;1.2408;
938.4000;0.3297;1.2334;
938.7000;0.3240;1.2261;
939.0000;0.3321;1.2506;
939.3000;0.3313;1.2530;
939.6000;0.3321;1.2555;
939.9000;0.3329;1.2579;
940.2000;0.3232;1.2261;
940.5000;0.3321;1.2408;
940.8000;0.3321;1.2334;
941.1000;0.3297;1.2285;
941.4000;0.3313;1.2408;
941.7000;0.3313;1.2457;
942.0000;0.3321;1.2506;
942.3000;0.3337;1.2653;
942.6000;0.3321;1.2555;
942.9000;0.3289;1.2432;
943.2000;0.3313;1.2530;
943.5000;0.3297;1.2481;
943.8000;0.3313;1.2506;
944.1000;0.3305;1.2530;
944.4000;0.3280;1.2432;
944.7000;0.3354;1.2555;
945.0000;0.3321;1.2481;
945.3000;0.3329;1.2555;
945.6000;0.3337;1.2653;
945.9000;0.3329;1.2677;
946.2000;0.3362;1.2751;
946.5000;0.3362;1.2776;
946.8000;0.3321;1.2653;
947.1000;0.3313;1.2653;
947.4000;0.3419;1.2874;
947.7000;0.3346;1.2702;
948.0000;0.3329;1.2702;
948.3000;0.3297;1.2530;
948.6000;0.3313;1.2530;
948.9000;0.3337;1.2677;
949.2000;0.3329;1.2751;
949.5000;0.3297;1.2555;
949.8000;0.3329;1.2604;
950.1000;0.3329;1.2604;
950.4000;0.3329;1.2530;
950.7000;0.3175;1.2089;
951.0000;0.3313;1.2457;
951.3000;0.3337;1.2481;
951.6000;0.3346;1.2653;
951.9000;0.3403;1.2825;
952.2000;0.3289;1.2481;
952.5000;0.3297;1.2408;
952.8000;0.3313;1.2481;
953.1000;0.3313;1.2506;
953.4000;0.3313;1.2506;
953.7000;0.3321;1.2579;
954.0000;0.3321;1.2530;
954.3000;0.3305;1.2555;
954.6000;0.3321;1.2677;
954.9000;0.3305;1.2628;
955.2000;0.3337;1.2653;
955.5000;0.3321;1.2628;
955.8000;0.3329;1.2628;
956.1000;0.3321;1.2579;
956.4000;0.3346;1.2702;
956.7000;0.3313;1.2653;
957.0000;0.3354;1.2677;
957.3000;0.3321;1.2628;
957.6000;0.3305;1.2530;
957.9000;0.3289;1.2506;
958.2000;0.3313;1.2530;
958.5000;0.3329;1.2481;
958.8000;0.3289;1.2432;
959.1000;0.3313;1.2579;
959.4000;0.3346;1.2628;
959.7000;0.3329;1.2604;
960.0000;0.3313;1.2604;
960.3000;0.3321;1.2628;
960.6000;0.3329;1.2677;
960.9000;0.3337;1.2751;
961.2000;0.3337;1.2702;
961.5000;0.3321;1.2702;
961.8000;0.3329;1.2653;
962.1000;0.3321;1.2628;
962.4000;0.3313;1.2653;
962.7000;0.3305;1.2653;
963.0000;0.3264;1.2506;
963.3000;0.3321;1.2555;
963.6000;0.3313;1.2579;
963.9000;0.3321;1.2481;
964.2000;0.3451;1.2898;
964.5000;0.3305;1.2604;
964.8000;0.3297;1.2628;
965.1000;0.3354;1.2800;
965.4000;0.3329;1.2702;
965.7000;0.3321;1.2628;
966.0000;0.3346;1.2628;
966.3000;0.3321;1.2579;
966.6000;0.3337;1.2677;
966.9000;0.3321;1.2653;
967.2000;0.3313;1.2677;
967.5000;0.3313;1.2677;
967.8000;0.3329;1.2677;
968.1000;0.3329;1.2653;
968.4000;0.3419;1.2947;
968.7000;0.3329;1.2653;
969.0000;0.3321;1.2628;
969.3000;0.3329;1.2530;
969.6000;0.3346;1.2506;
969.9000;0.3354;1.2555;
970.2000;0.3321;1.2579;
970.5000;0.3215;1.2359;
970.8000;0.3346;1.2751;
971.1000;0.3321;1.2726;
971.4000;0.3321;1.2653;
971.7000;0.3329;1.2628;
972.0000;0.3321;1.2604;
972.3000;0.3313;1.2628;
972.6000;0.3337;1.2653;
972.9000;0.3321;1.2628;
973.2000;0.3337;1.2702;
973.5000;0.3272;1.2530;
973.8000;0.3305;1.2604;
974.1000;0.3297;1.2555;
974.4000;0.3329;1.2653;
974.7000;0.3329;1.2776;
975.0000;0.3305;1.2702;
975.3000;0.3305;1.2677;
975.6000;0.3297;1.2751;
975.9000;0.3313;1.2751;
976.2000;0.3313;1.2726;
976.5000;0.3313;1.2726;
976.8000;0.3321;1.2726;
977.1000;0.3305;1.2677;
977.4000;0.3305;1.2506;
977.7000;0.3321;1.2506;
978.0000;0.3321;1.2628;
978.3000;0.3329;1.2653;
978.6000;0.3232;1.2334;
978.9000;0.3321;1.2555;
979.2000;0.3329;1.2579;
979.5000;0.3411;1.2800;
979.8000;0.3321;1.2653;
980.1000;0.3321;1.2604;
980.4000;0.3313;1.2506;
980.7000;0.3337;1.2604;
981.0000;0.3329;1.2653;
981.3000;0.3240;1.2432;
981.6000;0.3354;1.2776;
981.9000;0.3240;1.2481;
982.2000;0.3313;1.2653;
982.5000;0.3321;1.2653;
982.8000;0.3232;1.2506;
983.1000;0.3289;1.2653;
983.4000;0.3329;1.2677;
983.7000;0.3321;1.2604;
984.0000;0.3289;1.2579;
984.3000;0.3297;1.2506;
984.6000;0.3313;1.2506;
984.9000;0.3305;1.2506;
985.2000;0.3313;1.2506;
985.5000;0.3321;1.2555;
985.8000;0.3337;1.2579;
986.1000;0.3321;1.2530;
986.4000;0.3272;1.2383;
986.7000;0.3305;1.2481;
987.0000;0.3289;1.2383;
987.3000;0.3313;1.2432;
987.6000;0.3305;1.2432;
987.9000;0.3289;1.2408;
988.2000;0.3297;1.2310;
988.5000;0.3321;1.2310;
988.8000;0.3321;1.2334;
989.1000;0.3329;1.2432;
989.4000;0.3305;1.2408;
989.7000;0.3305;1.2334;
990.0000;0.3329;1.2506;
990.3000;0.3305;1.2408;
990.6000;0.3321;1.2481;
990.9000;0.3337;1.2481;
991.2000;0.3321;1.2383;
991.5000;0.3362;1.2506;
991.8000;0.3329;1.2481;
992.1000;0.3337;1.2432;
992.4000;0.3346;1.2383;
992.7000;0.3329;1.2285;
993.0000;0.3329;1.2236;
993.3000;0.3321;1.2285;
993.6000;0.3346;1.2359;
993.9000;0.3321;1.2334;
994.2000;0.3321;1.2236;
994.5000;0.3313;1.2113;
994.8000;0.3313;1.2113;
995.1000;0.3329;1.2187;
995.4000;0.3337;1.2187;
995.7000;0.3321;1.2285;
996.0000;0.3329;1.2310;
996.3000;0.3313;1.2285;
996.6000;0.3280;1.2334;
996.9000;0.3289;1.2285;
997.2000;0.3321;1.2310;
997.5000;0.3313;1.2261;
997.8000;0.3329;1.2261;
998.1000;0.3297;1.2187;
998.4000;0.3297;1.2162;
998.7000;0.3313;1.2212;
999.0000;0.3321;1.2187;
999.3000;0.3305;1.2187;
999.6000;0.3289;1.2187;
999.9000;0.3313;1.2310;
1000.2000;0.3305;1.2359;
1000.5000;0.3321;1.2506;
1000.8000;0.3313;1.2481;
1001.1000;0.3337;1.2604;
1001.4000;0.3321;1.2604;
1001.7000;0.3305;1.2506;
1002.0000;0.3305;1.2506;
1002.3000;0.3321;1.2481;
1002.6000;0.3223;1.2310;
1002.9000;0.3289;1.2408;
1003.2000;0.3362;1.2530;
1003.5000;0.3329;1.2408;
1003.8000;0.3321;1.2359;
1004.1000;0.3321;1.2334;
1004.4000;0.3313;1.2432;
1004.7000;0.3321;1.2481;
1005.0000;0.3329;1.2481;
1005.3000;0.3297;1.2408;
1005.6000;0.3329;1.2457;
1005.9000;0.3305;1.2334;
1006.2000;0.3370;1.2457;
1006.5000;0.3305;1.2383;
1006.8000;0.3321;1.2359;
1007.1000;0.3305;1.2408;
1007.4000;0.3313;1.2481;
1007.7000;0.3313;1.2506;
1008.0000;0.3305;1.2530;
1008.3000;0.3297;1.2653;
1008.6000;0.3313;1.2726;
1008.9000;0.3272;1.2726;
1009.2000;0.3321;1.2776;
1009.5000;0.3297;1.2825;
1009.8000;0.3305;1.2800;
1010.1000;0.3280;1.2677;
1010.4000;0.3305;1.2653;
1010.7000;0.3321;1.2653;
1011.0000;0.3305;1.2628;
1011.3000;0.3321;1.2702;
1011.6000;0.3337;1.2677;
1011.9000;0.3321;1.2702;
1012.2000;0.3313;1.2726;
1012.5000;0.3313;1.2726;
1012.8000;0.3313;1.2653;
1013.1000;0.3313;1.2677;
1013.4000;0.3280;1.2653;
1013.7000;0.3313;1.2825;
1014.0000;0.3313;1.2776;
1014.3000;0.3313;1.2702;
1014.6000;0.3305;1.2555;
1014.9000;0.3321;1.2579;
1015.2000;0.3305;1.2530;
1015.5000;0.3305;1.2579;
1015.8000;0.3297;1.2506;
1016.1000;0.3313;1.2579;
1016.4000;0.3305;1.2555;
1016.7000;0.3305;1.2628;
1017.0000;0.3313;1.2653;
1017.3000;0.3329;1.2604;
1017.6000;0.3321;1.2506;
1017.9000;0.3305;1.2481;
1018.2000;0.3280;1.2432;
1018.5000;0.3313;1.2432;
1018.8000;0.3313;1.2383;
1019.1000;0.3313;1.2481;
1019.4000;0.3297;1.2432;
1019.7000;0.3321;1.2506;
1020.0000;0.3305;1.2383;
1020.3000;0.3305;1.2432;
1020.6000;0.3321;1.2359;
1020.9000;0.3232;1.2089;
1021.2000;0.3321;1.2310;
1021.5000;0.3346;1.2408;
1021.8000;0.3321;1.2334;
1022.1000;0.3321;1.2408;
1022.4000;0.3280;1.2310;
1022.7000;0.3321;1.2383;
1023.0000;0.3321;1.2310;
1023.3000;0.3346;1.2310;
1023.6000;0.3305;1.2261;
1023.9000;0.3313;1.2334;
1024.2000;0.3313;1.2383;
1024.5000;0.3337;1.2432;
1024.8000;0.3305;1.2432;
1025.1000;0.3329;1.2432;
1025.4000;0.3337;1.2457;
1025.7000;0.3305;1.2481;
1026.0000;0.3313;1.2481;
1026.3000;0.3346;1.2653;
1026.6000;0.3321;1.2628;
1026.9000;0.3313;1.2702;
1027.2000;0.3297;1.2702;
1027.5000;0.3305;1.2726;
1027.8000;0.3329;1.2825;
1028.1000;0.3313;1.2800;
1028.4000;0.3313;1.2751;
1028.7000;0.3297;1.2604;
1029.0000;0.3297;1.2579;
1029.3000;0.3297;1.2628;
1029.6000;0.3313;1.2653;
1029.9000;0.3321;1.2604;
1030.2000;0.3329;1.2579;
1030.5000;0.3321;1.2604;
1030.8000;0.3313;1.2653;
1031.1000;0.3313;1.2653;
1031.4000;0.3313;1.2555;
1031.7000;0.3313;1.2530;
1032.0000;0.3321;1.2481;
1032.3000;0.3305;1.2481;
1032.6000;0.3313;1.2530;
1032.9000;0.3305;1.2530;
1033.2000;0.3329;1.2604;
1033.5000;0.3321;1.2579;
1033.8000;0.3297;1.2481;
1034.1000;0.3313;1.2457;
1034.4000;0.3378;1.2653;
1034.7000;0.3297;1.2481;
1035.0000;0.3305;1.2457;
1035.3000;0.3329;1.2457;
1035.6000;0.3313;1.2506;
1035.9000;0.3313;1.2506;
1036.2000;0.3297;1.2457;
1036.5000;0.3329;1.2555;
1036.8000;0.3346;1.2653;
1037.1000;0.3321;1.2579;
1037.4000;0.3394;1.2776;
1037.7000;0.3305;1.2555;
1038.0000;0.3313;1.2677;
1038.3000;0.3272;1.2555;
1038.6000;0.3321;1.2628;
1038.9000;0.3305;1.2604;
1039.2000;0.3297;1.2604;
1039.5000;0.3305;1.2604;
1039.8000;0.3321;1.2530;
1040.1000;0.3313;1.2555;
1040.4000;0.3362;1.2776;
1040.7000;0.3297;1.2604;
1041.0000;0.3313;1.2555;
1041.3000;0.3329;1.2506;
1041.6000;0.3297;1.2481;
1041.9000;0.3305;1.2579;
1042.2000;0.3297;1.2579;
1042.5000;0.3297;1.2481;
1042.8000;0.3313;1.2506;
1043.1000;0.3305;1.2555;
1043.4000;0.3297;1.2506;
1043.7000;0.3305;1.2579;
1044.0000;0.3321;1.2604;
1044.3000;0.3297;1.2604;
1044.6000;0.3305;1.2653;
1044.9000;0.3297;1.2604;
1045.2000;0.3305;1.2530;
1045.5000;0.3321;1.2530;
1045.8000;0.3329;1.2408;
1046.1000;0.3264;1.2236;
1046.4000;0.3297;1.2408;
1046.7000;0.3305;1.2334;
1047.0000;0.3297;1.2359;
1047.3000;0.3305;1.2359;
1047.6000;0.3289;1.2383;
1047.9000;0.3329;1.2481;
1048.2000;0.3313;1.2481;
1048.5000;0.3289;1.2432;
1048.8000;0.3313;1.2481;
1049.1000;0.3370;1.2677;
1049.4000;0.3313;1.2677;
1049.7000;0.3321;1.2677;
1050.0000;0.3272;1.2555;
1050.3000;0.3297;1.2604;
1050.6000;0.3313;1.2628;
1050.9000;0.3313;1.2604;
1051.2000;0.3329;1.2555;
1051.5000;0.3329;1.2604;
1051.8000;0.3305;1.2530;
1052.1000;0.3329;1.2579;
1052.4000;0.3313;1.2481;
1052.7000;0.3305;1.2457;
1053.0000;0.3346;1.2653;
1053.3000;0.3321;1.2726;
1053.6000;0.3313;1.2677;
1053.9000;0.3313;1.2579;
1054.2000;0.3305;1.2579;
1054.5000;0.3321;1.2628;
1054.8000;0.3313;1.2555;
1055.1000;0.3313;1.2506;
1055.4000;0.3346;1.2604;
1055.7000;0.3321;1.2530;
1056.0000;0.3305;1.2604;
1056.3000;0.3354;1.2751;
1056.6000;0.3321;1.2604;
1056.9000;0.3419;1.2825;
1057.2000;0.3354;1.2677;
1057.5000;0.3305;1.2481;
1057.8000;0.3346;1.2481;
1058.1000;0.3289;1.2310;
1058.4000;0.3297;1.2383;
1058.7000;0.3313;1.2383;
1059.0000;0.3313;1.2432;
1059.3000;0.3321;1.2481;
1059.6000;0.3321;1.2579;
1059.9000;0.3378;1.2751;
1060.2000;0.3297;1.2579;
1060.5000;0.3305;1.2604;
1060.8000;0.3305;1.2579;
1061.1000;0.3305;1.2555;
1061.4000;0.3305;1.2653;
1061.7000;0.3305;1.2677;
1062.0000;0.3370;1.2776;
1062.3000;0.3386;1.2923;
1062.6000;0.3297;1.2653;
1062.9000;0.3354;1.2898;
1063.2000;0.3305;1.2751;
1063.5000;0.3362;1.2874;
1063.8000;0.3297;1.2702;
1064.1000;0.3313;1.2677;
1064.4000;0.3289;1.2751;
1064.7000;0.3403;1.3143;
1065.0000;0.3305;1.2874;
1065.3000;0.3297;1.2800;
1065.6000;0.3313;1.2702;
1065.9000;0.3386;1.2825;
1066.2000;0.3305;1.2628;
1066.5000;0.3297;1.2628;
1066.8000;0.3313;1.2579;
1067.1000;0.3313;1.2604;
1067.4000;0.3313;1.2481;
1067.7000;0.3313;1.2530;
1068.0000;0.3305;1.2579;
1068.3000;0.3313;1.2653;
1068.6000;0.3313;1.2653;
1068.9000;0.3297;1.2677;
1069.2000;0.3297;1.2726;
1069.5000;0.3297;1.2653;
1069.8000;0.3305;1.2653;
1070.1000;0.3313;1.2677;
1070.4000;0.3256;1.2408;
1070.7000;0.3289;1.2530;
1071.0000;0.3321;1.2604;
1071.3000;0.3256;1.2432;
1071.6000;0.3313;1.2677;
1071.9000;0.3305;1.2604;
1072.2000;0.3223;1.2383;
1072.5000;0.3321;1.2628;
1072.8000;0.3305;1.2702;
1073.1000;0.3297;1.2604;
1073.4000;0.3321;1.2628;
1073.7000;0.3321;1.2579;
1074.0000;0.3362;1.2751;
1074.3000;0.3305;1.2628;
1074.6000;0.3305;1.2677;
1074.9000;0.3321;1.2653;
1075.2000;0.3329;1.2653;
1075.5000;0.3305;1.2579;
1075.8000;0.3313;1.2555;
1076.1000;0.3289;1.2579;
1076.4000;0.3329;1.2628;
1076.7000;0.3313;1.2604;
1077.0000;0.3321;1.2726;
1077.3000;0.3313;1.2776;
1077.6000;0.3337;1.2776;
1077.9000;0.3362;1.2825;
1078.2000;0.3329;1.2825;
1078.5000;0.3297;1.2751;
1078.8000;0.3313;1.2702;
1079.1000;0.3329;1.2726;
1079.4000;0.3305;1.2579;
1079.7000;0.3313;1.2579;
1080.0000;0.3297;1.2604;
1080.3000;0.3297;1.2653;
1080.6000;0.3313;1.2628;
1080.9000;0.3305;1.2555;
1081.2000;0.3313;1.2457;
1081.5000;0.3321;1.2457;
1081.8000;0.3305;1.2457;
1082.1000;0.3313;1.2506;
1082.4000;0.3305;1.2432;
1082.7000;0.3313;1.2432;
1083.0000;0.3305;1.2530;
1083.3000;0.3297;1.2555;
1083.6000;0.3297;1.2530;
1083.9000;0.3329;1.2702;
1084.2000;0.3297;1.2628;
1084.5000;0.3313;1.2677;
1084.8000;0.3297;1.2628;
1085.1000;0.3321;1.2653;
1085.4000;0.3321;1.2677;
1085.7000;0.3313;1.2677;
1086.0000;0.3337;1.2776;
1086.3000;0.3305;1.2677;
1086.6000;0.3313;1.2628;
1086.9000;0.3297;1.2604;
1087.2000;0.3289;1.2555;
1087.5000;0.3256;1.2506;
1087.8000;0.3305;1.2579;
1088.1000;0.3223;1.2432;
1088.4000;0.3272;1.2530;
1088.7000;0.3313;1.2628;
1089.0000;0.3272;1.2506;
1089.3000;0.3256;1.2432;
1089.6000;0.3297;1.2628;
1089.9000;0.3378;1.2874;
1090.2000;0.3321;1.2677;
1090.5000;0.3297;1.2653;
1090.8000;0.3346;1.2776;
1091.1000;0.3313;1.2751;
1091.4000;0.3321;1.2800;
1091.7000;0.3313;1.2776;
1092.0000;0.3305;1.2702;
1092.3000;0.3354;1.2751;
1092.6000;0.3321;1.2653;
1092.9000;0.3313;1.2653;
1093.2000;0.3289;1.2555;
1093.5000;0.3313;1.2653;
1093.8000;0.3264;1.2457;
1094.1000;0.3337;1.2702;
1094.4000;0.3297;1.2604;
1094.7000;0.3305;1.2530;
1095.0000;0.3289;1.2530;
1095.3000;0.3289;1.2555;
1095.6000;0.3207;1.2334;
1095.9000;0.3272;1.2530;
1096.2000;0.3297;1.2579;
1096.5000;0.3207;1.2334;
1096.8000;0.3313;1.2677;
1097.1000;0.3305;1.2579;
1097.4000;0.3272;1.2408;
1097.7000;0.3313;1.2408;
1098.0000;0.3280;1.2383;
1098.3000;0.3289;1.2506;
1098.6000;0.3289;1.2457;
1098.9000;0.3289;1.2506;
1099.2000;0.3297;1.2457;
1099.5000;0.3297;1.2481;
1099.8000;0.3272;1.2383;
1100.1000;0.3305;1.2481;
1100.4000;0.3354;1.2604;
1100.7000;0.3297;1.2432;
1101.0000;0.3305;1.2506;
1101.3000;0.3280;1.2359;
1101.6000;0.3297;1.2408;
1101.9000;0.3272;1.2408;
1102.2000;0.3305;1.2530;
1102.5000;0.3305;1.2481;
1102.8000;0.3321;1.2457;
1103.1000;0.3329;1.2359;
1103.4000;0.3280;1.2285;
1103.7000;0.3297;1.2359;
1104.0000;0.3223;1.2040;
1104.3000;0.3272;1.2162;
1104.6000;0.3297;1.2310;
1104.9000;0.3289;1.2383;
1105.2000;0.3305;1.2457;
1105.5000;0.3305;1.2481;
1105.8000;0.3313;1.2432;
1106.1000;0.3305;1.2432;
1106.4000;0.3305;1.2432;
1106.7000;0.3305;1.2383;
1107.0000;0.3289;1.2408;
1107.3000;0.3321;1.2506;
1107.6000;0.3313;1.2481;
1107.9000;0.3321;1.2555;
1108.2000;0.3313;1.2628;
1108.5000;0.3280;1.2530;
1108.8000;0.3272;1.2481;
1109.1000;0.3297;1.2506;
1109.4000;0.3297;1.2506;
1109.7000;0.3305;1.2481;
1110.0000;0.3297;1.2457;
1110.3000;0.3305;1.2457;
1110.6000;0.3313;1.2432;
1110.9000;0.3321;1.2677;
1111.2000;0.3305;1.2628;
1111.5000;0.3419;1.2898;
1111.8000;0.3329;1.2579;
1112.1000;0.3305;1.2530;
1112.4000;0.3313;1.2579;
1112.7000;0.3305;1.2555;
1113.0000;0.3354;1.2579;
1113.3000;0.3305;1.2457;
1113.6000;0.3321;1.2432;
1113.9000;0.3305;1.2383;
1114.2000;0.3297;1.2285;
1114.5000;0.3313;1.2359;
1114.8000;0.3313;1.2408;
1115.1000;0.3297;1.2334;
1115.4000;0.3272;1.2310;
1115.7000;0.3313;1.2408;
1116.0000;0.3280;1.2334;
1116.3000;0.3321;1.2457;
1116.6000;0.3313;1.2408;
1116.9000;0.3313;1.2481;
1117.2000;0.3321;1.2506;
1117.5000;0.3386;1.2726;
1117.8000;0.3313;1.2506;
1118.1000;0.3289;1.2530;
1118.4000;0.3297;1.2604;
1118.7000;0.3297;1.2677;
1119.0000;0.3297;1.2653;
1119.3000;0.3297;1.2677;
1119.6000;0.3289;1.2604;
1119.9000;0.3305;1.2604;
1120.2000;0.3289;1.2481;
1120.5000;0.3297;1.2555;
1120.8000;0.3313;1.2677;
1121.1000;0.3305;1.2555;
1121.4000;0.3313;1.2506;
1121.7000;0.3305;1.2628;
1122.0000;0.3313;1.2726;
1122.3000;0.3297;1.2726;
1122.6000;0.3305;1.2702;
1122.9000;0.3305;1.2653;
1123.2000;0.3321;1.2726;
1123.5000;0.3321;1.2653;
1123.8000;0.3297;1.2555;
1124.1000;0.3313;1.2555;
1124.4000;0.3289;1.2579;
1124.7000;0.3305;1.2677;
1125.0000;0.3337;1.2726;
1125.3000;0.3305;1.2628;
1125.6000;0.3297;1.2604;
1125.9000;0.3329;1.2555;
1126.2000;0.3346;1.2530;
1126.5000;0.3313;1.2506;
1126.8000;0.3305;1.2408;
1127.1000;0.3297;1.2408;
1127.4000;0.3297;1.2457;
1127.7000;0.3297;1.2579;
1128.0000;0.3313;1.2628;
1128.3000;0.3305;1.2677;
1128.6000;0.3297;1.2628;
1128.9000;0.3264;1.2506;
1129.2000;0.3289;1.2530;
1129.5000;0.3289;1.2530;
1129.8000;0.3305;1.2506;
1130.1000;0.3297;1.2530;
1130.4000;0.3297;1.2481;
1130.7000;0.3313;1.2506;
1131.0000;0.3354;1.2628;
1131.3000;0.3313;1.2530;
1131.6000;0.3313;1.2604;
1131.9000;0.3280;1.2604;
1132.2000;0.3305;1.2726;
1132.5000;0.3289;1.2579;
1132.8000;0.3289;1.2530;
1133.1000;0.3313;1.2555;
1133.4000;0.3297;1.2530;
1133.7000;0.3297;1.2579;
1134.0000;0.3313;1.2579;
1134.3000;0.3305;1.2506;
1134.6000;0.3305;1.2530;
1134.9000;0.3248;1.2408;
1135.2000;0.3280;1.2653;
1135.5000;0.3280;1.2653;
1135.8000;0.3289;1.2628;
1136.1000;0.3321;1.2702;
1136.4000;0.3321;1.2628;
1136.7000;0.3321;1.2604;
1137.0000;0.3313;1.2530;
1137.3000;0.3321;1.2555;
1137.6000;0.3305;1.2432;
1137.9000;0.3297;1.2457;
1138.2000;0.3297;1.2555;
1138.5000;0.3337;1.2628;
1138.8000;0.3313;1.2579;
1139.1000;0.3321;1.2579;
1139.4000;0.3313;1.2604;
1139.7000;0.3289;1.2506;
1140.0000;0.3305;1.2481;
1140.3000;0.3362;1.2653;
1140.6000;0.3313;1.2628;
1140.9000;0.3354;1.2751;
1141.2000;0.3313;1.2726;
1141.5000;0.3305;1.2653;
1141.8000;0.3305;1.2751;
1142.1000;0.3248;1.2481;
1142.4000;0.3313;1.2604;
1142.7000;0.3305;1.2555;
1143.0000;0.3289;1.2530;
1143.3000;0.3313;1.2604;
1143.6000;0.3297;1.2506;
1143.9000;0.3289;1.2408;
1144.2000;0.3337;1.2481;
1144.5000;0.3272;1.2285;
1144.8000;0.3313;1.2408;
1145.1000;0.3305;1.2334;
1145.4000;0.3305;1.2334;
1145.7000;0.3313;1.2408;
1146.0000;0.3305;1.2432;
1146.3000;0.3313;1.2432;
1146.6000;0.3313;1.2457;
1146.9000;0.3297;1.2506;
1147.2000;0.3264;1.2481;
1147.5000;0.3321;1.2653;
1147.8000;0.3313;1.2530;
1148.1000;0.3313;1.2579;
1148.4000;0.3280;1.2457;
1148.7000;0.3313;1.2506;
1149.0000;0.3289;1.2432;
1149.3000;0.3297;1.2408;
1149.6000;0.3305;1.2383;
1149.9000;0.3313;1.2310;
1150.2000;0.3297;1.2310;
1150.5000;0.3297;1.2285;
1150.8000;0.3297;1.2310;
1151.1000;0.3321;1.2285;
1151.4000;0.3362;1.2432;
1151.7000;0.3321;1.2310;
1152.0000;0.3321;1.2334;
1152.3000;0.3313;1.2408;
1152.6000;0.3329;1.2457;
1152.9000;0.3313;1.2408;
1153.2000;0.3289;1.2310;
1153.5000;0.3313;1.2359;
1153.8000;0.3329;1.2383;
1154.1000;0.3305;1.2285;
1154.4000;0.3280;1.2383;
1154.7000;0.3240;1.2334;
1155.0000;0.3329;1.2530;
1155.3000;0.3337;1.2555;
1155.6000;0.3305;1.2506;
1155.9000;0.3305;1.2432;
1156.2000;0.3305;1.2506;
1156.5000;0.3362;1.2726;
1156.8000;0.3289;1.2579;
1157.1000;0.3280;1.2506;
1157.4000;0.3313;1.2653;
1157.7000;0.3305;1.2579;
1158.0000;0.3289;1.2555;
1158.3000;0.3240;1.2457;
1158.6000;0.3321;1.2628;
1158.9000;0.3297;1.2555;
1159.2000;0.3321;1.2506;
1159.5000;0.3297;1.2481;
1159.8000;0.3305;1.2530;
1160.1000;0.3305;1.2432;
1160.4000;0.3305;1.2383;
1160.7000;0.3321;1.2383;
1161.0000;0.3297;1.2285;
1161.3000;0.3313;1.2310;
1161.6000;0.3313;1.2310;
1161.9000;0.3305;1.2285;
1162.2000;0.3313;1.2334;
1162.5000;0.3321;1.2310;
1162.8000;0.3329;1.2285;
1163.1000;0.3329;1.2261;
1163.4000;0.3297;1.2285;
1163.7000;0.3305;1.2334;
1164.0000;0.3305;1.2310;
1164.3000;0.3329;1.2310;
1164.6000;0.3305;1.2285;
1164.9000;0.3305;1.2310;
1165.2000;0.3337;1.2408;
1165.5000;0.3411;1.2751;
1165.8000;0.3313;1.2481;
1166.1000;0.3313;1.2432;
1166.4000;0.3313;1.2432;
1166.7000;0.3329;1.2481;
1167.0000;0.3321;1.2555;
1167.3000;0.3321;1.2506;
1167.6000;0.3321;1.2555;
1167.9000;0.3313;1.2579;
1168.2000;0.3329;1.2579;
1168.5000;0.3305;1.2555;
1168.8000;0.3297;1.2579;
1169.1000;0.3305;1.2530;
1169.4000;0.3289;1.2604;
1169.7000;0.3297;1.2751;
1170.0000;0.3329;1.2800;
1170.3000;0.3329;1.2849;
1170.6000;0.3297;1.2653;
1170.9000;0.3321;1.2702;
1171.2000;0.3289;1.2628;
1171.5000;0.3297;1.2555;
1171.8000;0.3313;1.2555;
1172.1000;0.3305;1.2530;
1172.4000;0.3280;1.2481;
1172.7000;0.3289;1.2481;
1173.0000;0.3297;1.2530;
1173.3000;0.3297;1.2628;
1173.6000;0.3313;1.2604;
1173.9000;0.3321;1.2530;
1174.2000;0.3346;1.2555;
1174.5000;0.3313;1.2530;
1174.8000;0.3232;1.2408;
1175.1000;0.3289;1.2432;
1175.4000;0.3321;1.2481;
1175.7000;0.3321;1.2555;
1176.0000;0.3313;1.2555;
1176.3000;0.3297;1.2555;
1176.6000;0.3297;1.2555;
1176.9000;0.3313;1.2555;
1177.2000;0.3305;1.2481;
1177.5000;0.3313;1.2481;
1177.8000;0.3313;1.2506;
1178.1000;0.3297;1.2432;
1178.4000;0.3305;1.2481;
1178.7000;0.3248;1.2285;
1179.0000;0.3321;1.2408;
1179.3000;0.3305;1.2310;
1179.6000;0.3280;1.2359;
1179.9000;0.3223;1.2212;
1180.2000;0.3289;1.2481;
1180.5000;0.3215;1.2334;
1180.8000;0.3297;1.2555;
1181.1000;0.3313;1.2604;
1181.4000;0.3305;1.2579;
1181.7000;0.3321;1.2628;
1182.0000;0.3305;1.2653;
1182.3000;0.3297;1.2653;
1182.6000;0.3289;1.2677;
1182.9000;0.3321;1.2751;
1183.2000;0.3313;1.2702;
1183.5000;0.3313;1.2653;
1183.8000;0.3289;1.2677;
1184.1000;0.3305;1.2653;
1184.4000;0.3305;1.2628;
1184.7000;0.3305;1.2579;
1185.0000;0.3305;1.2555;
1185.3000;0.3329;1.2604;
1185.6000;0.3329;1.2579;
1185.9000;0.3305;1.2579;
1186.2000;0.3297;1.2579;
1186.5000;0.3329;1.2653;
1186.8000;0.3329;1.2653;
1187.1000;0.3321;1.2702;
1187.4000;0.3297;1.2702;
1187.7000;0.3313;1.2776;
1188.0000;0.3305;1.2800;
1188.3000;0.3264;1.2653;
1188.6000;0.3289;1.2726;
1188.9000;0.3313;1.2726;
1189.2000;0.3297;1.2702;
1189.5000;0.3321;1.2677;
1189.8000;0.3313;1.2628;
1190.1000;0.3297;1.2628;
1190.4000;0.3289;1.2579;
1190.7000;0.3313;1.2604;
1191.0000;0.3297;1.2555;
1191.3000;0.3297;1.2555;
1191.6000;0.3305;1.2579;
1191.9000;0.3305;1.2628;
1192.2000;0.3297;1.2579;
1192.5000;0.3305;1.2530;
1192.8000;0.3305;1.2432;
1193.1000;0.3305;1.2457;
1193.4000;0.3297;1.2383;
1193.7000;0.3297;1.2359;
1194.0000;0.3297;1.2334;
1194.3000;0.3346;1.2579;
1194.6000;0.3313;1.2579;
1194.9000;0.3297;1.2530;
1195.2000;0.3313;1.2481;
1195.5000;0.3305;1.2432;
1195.8000;0.3313;1.2334;
1196.1000;0.3313;1.2359;
1196.4000;0.3313;1.2359;
1196.7000;0.3321;1.2359;
1197.0000;0.3321;1.2457;
1197.3000;0.3321;1.2555;
1197.6000;0.3305;1.2628;
1197.9000;0.3289;1.2579;
1198.2000;0.3313;1.2702;
1198.5000;0.3305;1.2653;
1198.8000;0.3289;1.2604;
1199.1000;0.3289;1.2530;
1199.4000;0.3289;1.2432;
1199.7000;0.3321;1.2506;
1200.0000;0.3305;1.2530;
1200.3000;0.3297;1.2481;
1200.6000;0.3313;1.2628;
1200.9000;0.3386;1.2849;
1201.2000;0.3321;1.2702;
1201.5000;0.3305;1.2653;
1201.8000;0.3305;1.2653;
1202.1000;0.3289;1.2604;
1202.4000;0.3289;1.2604;
1202.7000;0.3289;1.2555;
1203.0000;0.3313;1.2481;
1203.3000;0.3305;1.2432;
1203.6000;0.3305;1.2481;
1203.9000;0.3280;1.2408;
1204.2000;0.3289;1.2506;
1204.5000;0.3313;1.2653;
1204.8000;0.3289;1.2653;
1205.1000;0.3297;1.2555;
1205.4000;0.3321;1.2579;
1205.7000;0.3264;1.2481;
1206.0000;0.3321;1.2677;
1206.3000;0.3403;1.2898;
1206.6000;0.3305;1.2653;
1206.9000;0.3305;1.2677;
1207.2000;0.3321;1.2726;
1207.5000;0.3289;1.2604;
1207.8000;0.3313;1.2579;
1208.1000;0.3337;1.2555;
1208.4000;0.3346;1.2628;
1208.7000;0.3321;1.2604;
1209.0000;0.3313;1.2628;
1209.3000;0.3199;1.2334;
1209.6000;0.3305;1.2579;
1209.9000;0.3280;1.2555;
1210.2000;0.3354;1.2653;
1210.5000;0.3289;1.2555;
1210.8000;0.3313;1.2628;
1211.1000;0.3272;1.2481;
1211.4000;0.3305;1.2653;
1211.7000;0.3329;1.2726;
1212.0000;0.3346;1.2776;
1212.3000;0.3313;1.2702;
1212.6000;0.3337;1.2751;
1212.9000;0.3297;1.2628;
1213.2000;0.3289;1.2653;
1213.5000;0.3280;1.2604;
1213.8000;0.3297;1.2555;
1214.1000;0.3403;1.2825;
1214.4000;0.3305;1.2530;
1214.7000;0.3297;1.2555;
1215.0000;0.3329;1.2653;
1215.3000;0.3305;1.2579;
1215.6000;0.3289;1.2555;
1215.9000;0.3313;1.2555;
1216.2000;0.3305;1.2506;
1216.5000;0.3305;1.2481;
1216.8000;0.3248;1.2408;
1217.1000;0.3305;1.2408;
1217.4000;0.3297;1.2481;
1217.7000;0.3297;1.2530;
1218.0000;0.3305;1.2481;
1218.3000;0.3321;1.2432;
1218.6000;0.3313;1.2432;
1218.9000;0.3297;1.2506;
1219.2000;0.3329;1.2604;
1219.5000;0.3305;1.2604;
1219.8000;0.3337;1.2751;
1220.1000;0.3305;1.2677;
1220.4000;0.3297;1.2604;
1220.7000;0.3297;1.2457;
1221.0000;0.3321;1.2530;
1221.3000;0.3321;1.2604;
1221.6000;0.3313;1.2579;
1221.9000;0.3297;1.2628;
1222.2000;0.3280;1.2604;
1222.5000;0.3313;1.2800;
1222.8000;0.3313;1.2776;
1223.1000;0.3313;1.2923;
1223.4000;0.3289;1.2898;
1223.7000;0.3313;1.2898;
1224.0000;0.3280;1.2825;
1224.3000;0.3297;1.2800;
1224.6000;0.3321;1.2702;
1224.9000;0.3305;1.2555;
1225.2000;0.3289;1.2530;
1225.5000;0.3362;1.2726;
1225.8000;0.3289;1.2604;
1226.1000;0.3313;1.2653;
1226.4000;0.3256;1.2457;
1226.7000;0.3411;1.2874;
1227.0000;0.3313;1.2677;
1227.3000;0.3248;1.2408;
1227.6000;0.3321;1.2530;
1227.9000;0.3337;1.2555;
1228.2000;0.3280;1.2359;
1228.5000;0.3329;1.2481;
1228.8000;0.3313;1.2481;
1229.1000;0.3297;1.2506;
1229.4000;0.3289;1.2432;
1229.7000;0.3215;1.2236;
1230.0000;0.3313;1.2408;
1230.3000;0.3329;1.2432;
1230.6000;0.3313;1.2383;
1230.9000;0.3305;1.2310;
1231.2000;0.3329;1.2383;
1231.5000;0.3346;1.2555;
1231.8000;0.3313;1.2530;
1232.1000;0.3305;1.2383;
1232.4000;0.3297;1.2408;
1232.7000;0.3321;1.2432;
1233.0000;0.3313;1.2408;
1233.3000;0.3313;1.2457;
1233.6000;0.3313;1.2457;
1233.9000;0.3313;1.2408;
1234.2000;0.3313;1.2506;
1234.5000;0.3346;1.2506;
1234.8000;0.3305;1.2408;
1235.1000;0.3354;1.2432;
1235.4000;0.3264;1.2334;
1235.7000;0.3297;1.2506;
1236.0000;0.3321;1.2481;
1236.3000;0.3321;1.2432;
1236.6000;0.3305;1.2383;
1236.9000;0.3321;1.2310;
1237.2000;0.3337;1.2457;
1237.5000;0.3297;1.2359;
1237.8000;0.3313;1.2383;
1238.1000;0.3297;1.2383;
1238.4000;0.3329;1.2530;
1238.7000;0.3321;1.2506;
1239.0000;0.3305;1.2457;
1239.3000;0.3305;1.2457;
1239.6000;0.3305;1.2506;
1239.9000;0.3313;1.2555;
1240.2000;0.3329;1.2677;
1240.5000;0.3305;1.2555;
1240.8000;0.3313;1.2530;
1241.1000;0.3321;1.2408;
1241.4000;0.3321;1.2432;
1241.7000;0.3305;1.2359;
1242.0000;0.3313;1.2408;
1242.3000;0.3321;1.2457;
1242.6000;0.3321;1.2457;
1242.9000;0.3337;1.2481;
1243.2000;0.3305;1.2383;
1243.5000;0.3280;1.2432;
1243.8000;0.3313;1.2506;
1244.1000;0.3305;1.2555;
1244.4000;0.3346;1.2604;
1244.7000;0.3289;1.2432;
1245.0000;0.3289;1.2506;
1245.3000;0.3321;1.2506;
1245.6000;0.3313;1.2506;
1245.9000;0.3289;1.2481;
1246.2000;0.3289;1.2457;
1246.5000;0.3289;1.2432;
1246.8000;0.3313;1.2481;
1247.1000;0.3321;1.2457;
1247.4000;0.3313;1.2310;
1247.7000;0.3305;1.2334;
1248.0000;0.3305;1.2334;
1248.3000;0.3297;1.2310;
1248.6000;0.3297;1.2310;
1248.9000;0.3297;1.2310;
1249.2000;0.3305;1.2359;
1249.5000;0.3297;1.2310;
1249.8000;0.3313;1.2334;
1250.1000;0.3297;1.2334;
1250.4000;0.3289;1.2236;
1250.7000;0.3313;1.2334;
1251.0000;0.3378;1.2579;
1251.3000;0.3289;1.2334;
1251.6000;0.3329;1.2457;
1251.9000;0.3313;1.2432;
1252.2000;0.3313;1.2432;
1252.5000;0.3207;1.2138;
1252.8000;0.3313;1.2457;
1253.1000;0.3313;1.2555;
1253.4000;0.3313;1.2506;
1253.7000;0.3321;1.2555;
1254.0000;0.3337;1.2604;
1254.3000;0.3297;1.2481;
1254.6000;0.3329;1.2530;
1254.9000;0.3289;1.2579;
1255.2000;0.3321;1.2579;
1255.5000;0.3321;1.2677;
1255.8000;0.3313;1.2726;
1256.1000;0.3280;1.2751;
1256.4000;0.3329;1.2849;
1256.7000;0.3305;1.2751;
1257.0000;0.3321;1.2702;
1257.3000;0.3329;1.2702;
1257.6000;0.3313;1.2604;
1257.9000;0.3305;1.2604;
1258.2000;0.3313;1.2628;
1258.5000;0.3321;1.2628;
1258.8000;0.3321;1.2628;
1259.1000;0.3272;1.2555;
1259.4000;0.3297;1.2579;
1259.7000;0.3305;1.2628;
1260.0000;0.3313;1.2677;
1260.3000;0.3240;1.2481;
1260.6000;0.3305;1.2751;
1260.9000;0.3313;1.2677;
1261.2000;0.3280;1.2604;
1261.5000;0.3329;1.2604;
1261.8000;0.3297;1.2432;
1262.1000;0.3305;1.2530;
1262.4000;0.3289;1.2530;
1262.7000;0.3305;1.2481;
1263.0000;0.3313;1.2457;
1263.3000;0.3329;1.2530;
1263.6000;0.3329;1.2579;
1263.9000;0.3313;1.2579;
1264.2000;0.3329;1.2604;
1264.5000;0.3321;1.2506;
1264.8000;0.3305;1.2506;
1265.1000;0.3305;1.2481;
1265.4000;0.3321;1.2506;
1265.7000;0.3313;1.2555;
1266.0000;0.3321;1.2628;
1266.3000;0.3297;1.2555;
1266.6000;0.3305;1.2506;
1266.9000;0.3305;1.2506;
1267.2000;0.3305;1.2506;
1267.5000;0.3321;1.2530;
1267.8000;0.3321;1.2530;
1268.1000;0.3337;1.2604;
1268.4000;0.3329;1.2628;
1268.7000;0.3297;1.2555;
1269.0000;0.3321;1.2653;
1269.3000;0.3362;1.2677;
1269.6000;0.3329;1.2579;
1269.9000;0.3289;1.2481;
1270.2000;0.3313;1.2506;
1270.5000;0.3321;1.2481;
1270.8000;0.3321;1.2432;
1271.1000;0.3305;1.2432;
1271.4000;0.3280;1.2408;
1271.7000;0.3289;1.2481;
1272.0000;0.3297;1.2481;
1272.3000;0.3329;1.2604;
1272.6000;0.3337;1.2677;
1272.9000;0.3321;1.2653;
1273.2000;0.3297;1.2604;
1273.5000;0.3289;1.2628;
1273.8000;0.3297;1.2579;
1274.1000;0.3305;1.2579;
1274.4000;0.3305;1.2555;
1274.7000;0.3313;1.2530;
1275.0000;0.3443;1.2923;
1275.3000;0.3313;1.2653;
1275.6000;0.3297;1.2702;
1275.9000;0.3321;1.2702;
1276.2000;0.3297;1.2628;
1276.5000;0.3264;1.2628;
1276.8000;0.3297;1.2825;
1277.1000;0.3297;1.2751;
1277.4000;0.3305;1.2751;
1277.7000;0.3297;1.2751;
1278.0000;0.3297;1.2800;
1278.3000;0.3305;1.2776;
1278.6000;0.3321;1.2849;
1278.9000;0.3305;1.2776;
1279.2000;0.3313;1.2776;
1279.5000;0.3329;1.2751;
1279.8000;0.3313;1.2677;
1280.1000;0.3305;1.2579;
1280.4000;0.3297;1.2481;
1280.7000;0.3297;1.2506;
1281.0000;0.3321;1.2506;
1281.3000;0.3297;1.2383;
1281.6000;0.3280;1.2334;
1281.9000;0.3313;1.2481;
1282.2000;0.3289;1.2530;
1282.5000;0.3297;1.2457;
1282.8000;0.3321;1.2432;
1283.1000;0.3289;1.2359;
1283.4000;0.3337;1.2481;
1283.7000;0.3305;1.2408;
1284.0000;0.3346;1.2604;
1284.3000;0.3305;1.2506;
1284.6000;0.3297;1.2530;
1284.9000;0.3248;1.2432;
1285.2000;0.3321;1.2653;
1285.5000;0.3289;1.2530;
1285.8000;0.3321;1.2604;
1286.1000;0.3305;1.2579;
1286.4000;0.3313;1.2530;
1286.7000;0.3321;1.2555;
1287.0000;0.3329;1.2653;
1287.3000;0.3305;1.2677;
1287.6000;0.3313;1.2579;
1287.9000;0.3297;1.2653;
1288.2000;0.3264;1.2457;
1288.5000;0.3321;1.2628;
1288.8000;0.3305;1.2653;
1289.1000;0.3297;1.2579;
1289.4000;0.3305;1.2579;
1289.7000;0.3305;1.2628;
1290.0000;0.3305;1.2604;
1290.3000;0.3337;1.2653;
1290.6000;0.3305;1.2579;
1290.9000;0.3321;1.2677;
1291.2000;0.3329;1.2751;
1291.5000;0.3289;1.2653;
1291.8000;0.3305;1.2555;
1292.1000;0.3321;1.2530;
1292.4000;0.3321;1.2506;
1292.7000;0.3321;1.2506;
1293.0000;0.3329;1.2628;
1293.3000;0.3346;1.2702;
1293.6000;0.3321;1.2702;
1293.9000;0.3321;1.2800;
1294.2000;0.3313;1.2751;
1294.5000;0.3289;1.2677;
1294.8000;0.3305;1.2726;
1295.1000;0.3354;1.2849;
1295.4000;0.3321;1.2751;
1295.7000;0.3272;1.2677;
1296.0000;0.3337;1.2776;
1296.3000;0.3346;1.2825;
1296.6000;0.3305;1.2628;
1296.9000;0.3289;1.2604;
1297.2000;0.3346;1.2751;
1297.5000;0.3313;1.2604;
1297.8000;0.3313;1.2579;
1298.1000;0.3289;1.2481;
1298.4000;0.3223;1.2261;
1298.7000;0.3313;1.2408;
1299.0000;0.3289;1.2359;
1299.3000;0.3256;1.2285;
1299.6000;0.3289;1.2457;
1299.9000;0.3289;1.2457;
1300.2000;0.3354;1.2604;
1300.5000;0.3297;1.2432;
1300.8000;0.3305;1.2481;
1301.1000;0.3297;1.2481;
1301.4000;0.3329;1.2579;
1301.7000;0.3305;1.2506;
1302.0000;0.3329;1.2383;
1302.3000;0.3329;1.2310;
1302.6000;0.3321;1.2310;
1302.9000;0.3313;1.2408;
1303.2000;0.3329;1.2530;
1303.5000;0.3313;1.2506;
1303.8000;0.3313;1.2530;
1304.1000;0.3329;1.2555;
1304.4000;0.3248;1.2261;
1304.7000;0.3305;1.2457;
1305.0000;0.3321;1.2530;
1305.3000;0.3305;1.2506;
1305.6000;0.3297;1.2555;
1305.9000;0.3346;1.2579;
1306.2000;0.3289;1.2555;
1306.5000;0.3232;1.2359;
1306.8000;0.3313;1.2383;
1307.1000;0.3337;1.2432;
1307.4000;0.3248;1.2212;
1307.7000;0.3305;1.2506;
1308.0000;0.3297;1.2506;
1308.3000;0.3354;1.2677;
1308.6000;0.3313;1.2555;
1308.9000;0.3280;1.2555;
1309.2000;0.3305;1.2530;
1309.5000;0.3305;1.2506;
1309.8000;0.3289;1.2310;
1310.1000;0.3321;1.2310;
1310.4000;0.3305;1.2310;
1310.7000;0.3248;1.2236;
1311.0000;0.3313;1.2432;
1311.3000;0.3305;1.2457;
1311.6000;0.3321;1.2530;
1311.9000;0.3313;1.2530;
1312.2000;0.3321;1.2481;
1312.5000;0.3346;1.2432;
1312.8000;0.3321;1.2334;
1313.1000;0.3313;1.2261;
1313.4000;0.3313;1.2212;
1313.7000;0.3329;1.2236;
1314.0000;0.3346;1.2187;
1314.3000;0.3370;1.2236;
1314.6000;0.3313;1.2040;
1314.9000;0.3297;1.2113;
1315.2000;0.3362;1.2334;
1315.5000;0.3321;1.2212;
1315.8000;0.3305;1.2162;
1316.1000;0.3297;1.2187;
1316.4000;0.3313;1.2285;
1316.7000;0.3305;1.2334;
1317.0000;0.3329;1.2383;
1317.3000;0.3305;1.2359;
1317.6000;0.3313;1.2408;
1317.9000;0.3337;1.2457;
1318.2000;0.3329;1.2383;
1318.5000;0.3362;1.2506;
1318.8000;0.3313;1.2457;
1319.1000;0.3313;1.2408;
1319.4000;0.3305;1.2359;
1319.7000;0.3305;1.2408;
1320.0000;0.3280;1.2432;
1320.3000;0.3264;1.2334;
1320.6000;0.3313;1.2506;
1320.9000;0.3329;1.2530;
1321.2000;0.3321;1.2506;
1321.5000;0.3297;1.2359;
1321.8000;0.3313;1.2432;
1322.1000;0.3289;1.2261;
1322.4000;0.3232;1.2064;
1322.7000;0.3370;1.2530;
1323.0000;0.3346;1.2506;
1323.3000;0.3321;1.2530;
1323.6000;0.3321;1.2530;
1323.9000;0.3370;1.2604;
1324.2000;0.3313;1.2457;
1324.5000;0.3321;1.2530;
1324.8000;0.3297;1.2530;
1325.1000;0.3272;1.2334;
1325.4000;0.3280;1.2334;
1325.7000;0.3313;1.2359;
1326.0000;0.3329;1.2383;
1326.3000;0.3280;1.2261;
1326.6000;0.3289;1.2310;
1326.9000;0.3280;1.2310;
1327.2000;0.3297;1.2334;
1327.5000;0.3313;1.2310;
1327.8000;0.3289;1.2285;
1328.1000;0.3362;1.2555;
1328.4000;0.3321;1.2481;
1328.7000;0.3305;1.2432;
1329.0000;0.3297;1.2408;
1329.3000;0.3280;1.2432;
1329.6000;0.3346;1.2579;
1329.9000;0.3305;1.2383;
1330.2000;0.3272;1.2187;
1330.5000;0.3305;1.2187;
1330.8000;0.3305;1.2285;
1331.1000;0.3272;1.2261;
1331.4000;0.3337;1.2408;
1331.7000;0.3289;1.2334;
1332.0000;0.3362;1.2530;
1332.3000;0.3313;1.2481;
1332.6000;0.3297;1.2457;
1332.9000;0.3321;1.2432;
1333.2000;0.3305;1.2432;
1333.5000;0.3321;1.2359;
1333.8000;0.3297;1.2261;
1334.1000;0.3313;1.2236;
1334.4000;0.3313;1.2236;
1334.7000;0.3297;1.2212;
1335.0000;0.3305;1.2162;
1335.3000;0.3329;1.2261;
1335.6000;0.3297;1.2187;
1335.9000;0.3321;1.2236;
1336.2000;0.3411;1.2408;
1336.5000;0.3305;1.2162;
1336.8000;0.3297;1.2162;
1337.1000;0.3313;1.2212;
1337.4000;0.3305;1.2162;
1337.7000;0.3280;1.2064;
1338.0000;0.3313;1.2064;
1338.3000;0.3321;1.2113;
1338.6000;0.3313;1.2138;
1338.9000;0.3329;1.2138;
1339.2000;0.3419;1.2383;
1339.5000;0.3321;1.2162;
1339.8000;0.3305;1.2089;
1340.1000;0.3305;1.1991;
1340.4000;0.3297;1.1893;
1340.7000;0.3321;1.1868;
1341.0000;0.3321;1.1917;
1341.3000;0.3232;1.1721;
1341.6000;0.3305;1.1893;
1341.9000;0.3321;1.1966;
1342.2000;0.3313;1.2040;
1342.5000;0.3337;1.2113;
1342.8000;0.3305;1.2089;
1343.1000;0.3354;1.2261;
1343.4000;0.3280;1.2138;
1343.7000;0.3321;1.2334;
1344.0000;0.3305;1.2432;
1344.3000;0.3313;1.2432;
1344.6000;0.3264;1.2212;
1344.9000;0.3329;1.2457;
1345.2000;0.3289;1.2334;
1345.5000;0.3329;1.2432;
1345.8000;0.3305;1.2457;
1346.1000;0.3321;1.2457;
1346.4000;0.3386;1.2628;
1346.7000;0.3329;1.2481;
1347.0000;0.3313;1.2506;
1347.3000;0.3337;1.2506;
1347.6000;0.3289;1.2359;
1347.9000;0.3313;1.2408;
1348.2000;0.3346;1.2481;
1348.5000;0.3305;1.2408;
1348.8000;0.3313;1.2408;
1349.1000;0.3297;1.2457;
1349.4000;0.3313;1.2457;
1349.7000;0.3305;1.2359;
1350.0000;0.3321;1.2310;
1350.3000;0.3305;1.2261;
1350.6000;0.3305;1.2310;
1350.9000;0.3305;1.2334;
1351.2000;0.3313;1.2383;
1351.5000;0.3321;1.2334;
1351.8000;0.3313;1.2310;
1352.1000;0.3362;1.2432;
1352.4000;0.3337;1.2359;
1352.7000;0.3313;1.2310;
1353.0000;0.3313;1.2432;
1353.3000;0.3313;1.2457;
1353.6000;0.3329;1.2481;
1353.9000;0.3305;1.2457;
1354.2000;0.3313;1.2481;
1354.5000;0.3305;1.2604;
1354.8000;0.3305;1.2555;
1355.1000;0.3289;1.2457;
1355.4000;0.3280;1.2432;
1355.7000;0.3297;1.2432;
1356.0000;0.3321;1.2457;
1356.3000;0.3297;1.2432;
1356.6000;0.3313;1.2359;
1356.9000;0.3321;1.2334;
1357.2000;0.3354;1.2334;
1357.5000;0.3329;1.2236;
1357.8000;0.3305;1.2285;
1358.1000;0.3313;1.2334;
1358.4000;0.3313;1.2261;
1358.7000;0.3321;1.2310;
1359.0000;0.3297;1.2261;
1359.3000;0.3305;1.2236;
1359.6000;0.3321;1.2383;
1359.9000;0.3313;1.2359;
1360.2000;0.3305;1.2310;
1360.5000;0.3321;1.2334;
1360.8000;0.3313;1.2359;
1361.1000;0.3329;1.2383;
1361.4000;0.3313;1.2359;
1361.7000;0.3280;1.2383;
1362.0000;0.3313;1.2481;
1362.3000;0.3362;1.2432;
1362.6000;0.3346;1.2383;
1362.9000;0.3329;1.2359;
1363.2000;0.3329;1.2285;
1363.5000;0.3346;1.2383;
1363.8000;0.3313;1.2334;
1364.1000;0.3305;1.2310;
1364.4000;0.3313;1.2359;
1364.7000;0.3386;1.2702;
1365.0000;0.3297;1.2383;
1365.3000;0.3272;1.2236;
1365.6000;0.3289;1.2408;
1365.9000;0.3313;1.2506;
1366.2000;0.3289;1.2432;
1366.5000;0.3321;1.2530;
1366.8000;0.3305;1.2530;
1367.1000;0.3354;1.2653;
1367.4000;0.3313;1.2555;
1367.7000;0.3313;1.2579;
1368.0000;0.3272;1.2481;
1368.3000;0.3256;1.2506;
1368.6000;0.3313;1.2604;
1368.9000;0.3329;1.2604;
1369.2000;0.3297;1.2506;
1369.5000;0.3280;1.2481;
1369.8000;0.3321;1.2579;
1370.1000;0.3313;1.2530;
1370.4000;0.3305;1.2579;
1370.7000;0.3313;1.2481;
1371.0000;0.3321;1.2604;
1371.3000;0.3329;1.2555;
1371.6000;0.3305;1.2506;
1371.9000;0.3313;1.2555;
1372.2000;0.3313;1.2481;
1372.5000;0.3321;1.2481;
1372.8000;0.3329;1.2408;
1373.1000;0.3329;1.2457;
1373.4000;0.3313;1.2457;
1373.7000;0.3329;1.2457;
1374.0000;0.3313;1.2383;
1374.3000;0.3346;1.2457;
1374.6000;0.3305;1.2408;
1374.9000;0.3313;1.2408;
1375.2000;0.3337;1.2359;
1375.5000;0.3329;1.2285;
1375.8000;0.3313;1.2236;
1376.1000;0.3313;1.2236;
1376.4000;0.3321;1.2285;
1376.7000;0.3313;1.2383;
1377.0000;0.3305;1.2408;
1377.3000;0.3305;1.2408;
1377.6000;0.3321;1.2481;
1377.9000;0.3321;1.2408;
1378.2000;0.3289;1.2457;
1378.5000;0.3297;1.2408;
1378.8000;0.3321;1.2408;
1379.1000;0.3329;1.2432;
1379.4000;0.3313;1.2408;
1379.7000;0.3321;1.2481;
1380.0000;0.3313;1.2604;
1380.3000;0.3329;1.2481;
1380.6000;0.3313;1.2408;
1380.9000;0.3321;1.2408;
1381.2000;0.3305;1.2359;
1381.5000;0.3313;1.2481;
1381.8000;0.3329;1.2481;
1382.1000;0.3321;1.2432;
1382.4000;0.3272;1.2310;
1382.7000;0.3329;1.2359;
1383.0000;0.3321;1.2310;
1383.3000;0.3297;1.2261;
1383.6000;0.3329;1.2310;
1383.9000;0.3313;1.2261;
1384.2000;0.3305;1.2212;
1384.5000;0.3321;1.2285;
1384.8000;0.3305;1.2236;
1385.1000;0.3313;1.2310;
1385.4000;0.3337;1.2432;
1385.7000;0.3321;1.2408;
1386.0000;0.3289;1.2432;
1386.3000;0.3305;1.2506;
1386.6000;0.3329;1.2506;
1386.9000;0.3337;1.2408;
1387.2000;0.3313;1.2334;
1387.5000;0.3313;1.2212;
1387.8000;0.3321;1.2212;
1388.1000;0.3329;1.2261;
1388.4000;0.3305;1.2138;
1388.7000;0.3321;1.2187;
1389.0000;0.3321;1.2113;
1389.3000;0.3321;1.2261;
1389.6000;0.3321;1.2310;
1389.9000;0.3297;1.2212;
1390.2000;0.3321;1.2285;
1390.5000;0.3321;1.2285;
1390.8000;0.3313;1.2261;
1391.1000;0.3321;1.2212;
1391.4000;0.3329;1.2236;
1391.7000;0.3305;1.2187;
1392.0000;0.3313;1.2261;
1392.3000;0.3313;1.2334;
1392.6000;0.3313;1.2310;
1392.9000;0.3329;1.2383;
1393.2000;0.3305;1.2310;
1393.5000;0.3321;1.2310;
1393.8000;0.3362;1.2334;
1394.1000;0.3313;1.2113;
1394.4000;0.3321;1.2138;
1394.7000;0.3394;1.2285;
1395.0000;0.3289;1.2113;
1395.3000;0.3313;1.2162;
1395.6000;0.3305;1.2187;
1395.9000;0.3313;1.2285;
1396.2000;0.3280;1.2310;
1396.5000;0.3321;1.2432;
1396.8000;0.3329;1.2457;
1397.1000;0.3362;1.2604;
1397.4000;0.3321;1.2481;
1397.7000;0.3305;1.2481;
1398.0000;0.3313;1.2555;
1398.3000;0.3305;1.2481;
1398.6000;0.3321;1.2530;
1398.9000;0.3321;1.2457;
1399.2000;0.3305;1.2334;
1399.5000;0.3378;1.2481;
1399.8000;0.3337;1.2359;
