time/ms;Fluo/V;P700 deltaI/I x10³;
-199.8000;0.3614;0.9574;
-199.5000;0.3598;0.9550;
-199.2000;0.3614;0.9476;
-198.9000;0.3516;0.9231;
-198.6000;0.3606;0.9476;
-198.3000;0.3614;0.9476;
-198.0000;0.3590;0.9353;
-197.7000;0.3606;0.9452;
-197.4000;0.3614;0.9476;
-197.1000;0.3630;0.9378;
-196.8000;0.3622;0.9402;
-196.5000;0.3647;0.9501;
-196.2000;0.3679;0.9550;
-195.9000;0.3663;0.9550;
-195.6000;0.3598;0.9476;
-195.3000;0.3606;0.9476;
-195.0000;0.3614;0.9550;
-194.7000;0.3630;0.9722;
-194.4000;0.3606;0.9672;
-194.1000;0.3598;0.9574;
-193.8000;0.3606;0.9550;
-193.5000;0.3549;0.9378;
-193.2000;0.3606;0.9525;
-192.9000;0.3671;0.9672;
-192.6000;0.3565;0.9452;
-192.3000;0.3606;0.9550;
-192.0000;0.3606;0.9574;
-191.7000;0.3606;0.9574;
-191.4000;0.3622;0.9672;
-191.1000;0.3598;0.9623;
-190.8000;0.3598;0.9623;
-190.5000;0.3598;0.9599;
-190.2000;0.3639;0.9746;
-189.9000;0.3614;0.9623;
-189.6000;0.3590;0.9525;
-189.3000;0.3549;0.9378;
-189.0000;0.3582;0.9476;
-188.7000;0.3622;0.9648;
-188.4000;0.3622;0.9648;
-188.1000;0.3614;0.9599;
-187.8000;0.3598;0.9525;
-187.5000;0.3573;0.9402;
-187.2000;0.3622;0.9550;
-186.9000;0.3598;0.9525;
-186.6000;0.3573;0.9525;
-186.3000;0.3598;0.9501;
-186.0000;0.3533;0.9280;
-185.7000;0.3671;0.9550;
-185.4000;0.3606;0.9378;
-185.1000;0.3598;0.9255;
-184.8000;0.3630;0.9378;
-184.5000;0.3598;0.9329;
-184.2000;0.3598;0.9378;
-183.9000;0.3598;0.9353;
-183.6000;0.3525;0.9108;
-183.3000;0.3606;0.9304;
-183.0000;0.3598;0.9255;
-182.7000;0.3590;0.9231;
-182.4000;0.3614;0.9378;
-182.1000;0.3598;0.9501;
-181.8000;0.3606;0.9501;
-181.5000;0.3606;0.9550;
-181.2000;0.3606;0.9476;
-180.9000;0.3614;0.9353;
-180.6000;0.3614;0.9452;
-180.3000;0.3606;0.9452;
-180.0000;0.3598;0.9402;
-179.7000;0.3630;0.9378;
-179.4000;0.3614;0.9378;
-179.1000;0.3630;0.9402;
-178.8000;0.3606;0.9378;
-178.5000;0.3582;0.9353;
-178.2000;0.3598;0.9329;
-177.9000;0.3639;0.9476;
-177.6000;0.3598;0.9378;
-177.3000;0.3582;0.9402;
-177.0000;0.3598;0.9452;
-176.7000;0.3590;0.9402;
-176.4000;0.3598;0.9427;
-176.1000;0.3549;0.9353;
-175.8000;0.3622;0.9550;
-175.5000;0.3598;0.9525;
-175.2000;0.3549;0.9304;
-174.9000;0.3598;0.9476;
-174.6000;0.3590;0.9476;
-174.3000;0.3614;0.9427;
-174.0000;0.3622;0.9304;
-173.7000;0.3606;0.9231;
-173.4000;0.3639;0.9255;
-173.1000;0.3614;0.9255;
-172.8000;0.3598;0.9206;
-172.5000;0.3614;0.9157;
-172.2000;0.3614;0.9182;
-171.9000;0.3606;0.9255;
-171.6000;0.3606;0.9304;
-171.3000;0.3598;0.9329;
-171.0000;0.3606;0.9378;
-170.7000;0.3606;0.9427;
-170.4000;0.3598;0.9353;
-170.1000;0.3590;0.9353;
-169.8000;0.3598;0.9329;
-169.5000;0.3598;0.9353;
-169.2000;0.3614;0.9427;
-168.9000;0.3549;0.9280;
-168.6000;0.3598;0.9427;
-168.3000;0.3582;0.9452;
-168.0000;0.3614;0.9501;
-167.7000;0.3598;0.9476;
-167.4000;0.3582;0.9427;
-167.1000;0.3606;0.9452;
-166.8000;0.3598;0.9427;
-166.5000;0.3614;0.9452;
-166.2000;0.3606;0.9550;
-165.9000;0.3598;0.9525;
-165.6000;0.3573;0.9476;
-165.3000;0.3614;0.9550;
-165.0000;0.3598;0.9501;
-164.7000;0.3582;0.9427;
-164.4000;0.3622;0.9525;
-164.1000;0.3630;0.9525;
-163.8000;0.3573;0.9353;
-163.5000;0.3598;0.9329;
-163.2000;0.3639;0.9501;
-162.9000;0.3606;0.9452;
-162.6000;0.3598;0.9427;
-162.3000;0.3614;0.9427;
-162.0000;0.3622;0.9501;
-161.7000;0.3639;0.9550;
-161.4000;0.3598;0.9402;
-161.1000;0.3525;0.9059;
-160.8000;0.3549;0.9083;
-160.5000;0.3614;0.9255;
-160.2000;0.3614;0.9231;
-159.9000;0.3590;0.9182;
-159.6000;0.3590;0.9231;
-159.3000;0.3598;0.9206;
-159.0000;0.3606;0.9182;
-158.7000;0.3647;0.9353;
-158.4000;0.3590;0.9231;
-158.1000;0.3606;0.9231;
-157.8000;0.3630;0.9304;
-157.5000;0.3639;0.9304;
-157.2000;0.3606;0.9255;
-156.9000;0.3647;0.9378;
-156.6000;0.3606;0.9329;
-156.3000;0.3606;0.9501;
-156.0000;0.3647;0.9574;
-155.7000;0.3655;0.9746;
-155.4000;0.3606;0.9525;
-155.1000;0.3647;0.9574;
-154.8000;0.3606;0.9525;
-154.5000;0.3671;0.9746;
-154.2000;0.3573;0.9525;
-153.9000;0.3614;0.9623;
-153.6000;0.3639;0.9574;
-153.3000;0.3508;0.9206;
-153.0000;0.3573;0.9452;
-152.7000;0.3614;0.9476;
-152.4000;0.3590;0.9427;
-152.1000;0.3647;0.9648;
-151.8000;0.3598;0.9501;
-151.5000;0.3622;0.9501;
-151.2000;0.3622;0.9574;
-150.9000;0.3622;0.9550;
-150.6000;0.3606;0.9427;
-150.3000;0.3622;0.9501;
-150.0000;0.3606;0.9378;
-149.7000;0.3606;0.9427;
-149.4000;0.3598;0.9452;
-149.1000;0.3606;0.9501;
-148.8000;0.3614;0.9599;
-148.5000;0.3614;0.9648;
-148.2000;0.3582;0.9574;
-147.9000;0.3639;0.9722;
-147.6000;0.3598;0.9623;
-147.3000;0.3590;0.9550;
-147.0000;0.3606;0.9476;
-146.7000;0.3573;0.9378;
-146.4000;0.3606;0.9427;
-146.1000;0.3606;0.9378;
-145.8000;0.3606;0.9402;
-145.5000;0.3606;0.9402;
-145.2000;0.3614;0.9525;
-144.9000;0.3614;0.9378;
-144.6000;0.3573;0.9304;
-144.3000;0.3590;0.9378;
-144.0000;0.3606;0.9550;
-143.7000;0.3598;0.9599;
-143.4000;0.3582;0.9476;
-143.1000;0.3598;0.9402;
-142.8000;0.3598;0.9353;
-142.5000;0.3614;0.9378;
-142.2000;0.3598;0.9329;
-141.9000;0.3598;0.9304;
-141.6000;0.3598;0.9329;
-141.3000;0.3630;0.9501;
-141.0000;0.3606;0.9452;
-140.7000;0.3614;0.9402;
-140.4000;0.3614;0.9353;
-140.1000;0.3614;0.9452;
-139.8000;0.3622;0.9353;
-139.5000;0.3598;0.9231;
-139.2000;0.3614;0.9255;
-138.9000;0.3614;0.9231;
-138.6000;0.3614;0.9255;
-138.3000;0.3614;0.9206;
-138.0000;0.3582;0.9206;
-137.7000;0.3614;0.9304;
-137.4000;0.3582;0.9255;
-137.1000;0.3582;0.9304;
-136.8000;0.3598;0.9329;
-136.5000;0.3590;0.9402;
-136.2000;0.3541;0.9280;
-135.9000;0.3606;0.9501;
-135.6000;0.3598;0.9427;
-135.3000;0.3606;0.9378;
-135.0000;0.3598;0.9501;
-134.7000;0.3606;0.9550;
-134.4000;0.3614;0.9427;
-134.1000;0.3582;0.9255;
-133.8000;0.3606;0.9206;
-133.5000;0.3606;0.9206;
-133.2000;0.3598;0.9231;
-132.9000;0.3557;0.9108;
-132.6000;0.3582;0.9182;
-132.3000;0.3630;0.9206;
-132.0000;0.3598;0.9182;
-131.7000;0.3614;0.9280;
-131.4000;0.3598;0.9206;
-131.1000;0.3606;0.9329;
-130.8000;0.3622;0.9378;
-130.5000;0.3590;0.9353;
-130.2000;0.3582;0.9378;
-129.9000;0.3614;0.9501;
-129.6000;0.3606;0.9501;
-129.3000;0.3590;0.9501;
-129.0000;0.3606;0.9525;
-128.7000;0.3614;0.9623;
-128.4000;0.3606;0.9648;
-128.1000;0.3598;0.9574;
-127.8000;0.3590;0.9574;
-127.5000;0.3598;0.9599;
-127.2000;0.3598;0.9427;
-126.9000;0.3590;0.9378;
-126.6000;0.3606;0.9452;
-126.3000;0.3606;0.9550;
-126.0000;0.3622;0.9550;
-125.7000;0.3622;0.9574;
-125.4000;0.3606;0.9501;
-125.1000;0.3614;0.9476;
-124.8000;0.3598;0.9378;
-124.5000;0.3557;0.9206;
-124.2000;0.3606;0.9353;
-123.9000;0.3606;0.9255;
-123.6000;0.3622;0.9329;
-123.3000;0.3614;0.9353;
-123.0000;0.3606;0.9378;
-122.7000;0.3622;0.9402;
-122.4000;0.3565;0.9329;
-122.1000;0.3622;0.9353;
-121.8000;0.3606;0.9280;
-121.5000;0.3606;0.9304;
-121.2000;0.3582;0.9378;
-120.9000;0.3622;0.9501;
-120.6000;0.3598;0.9550;
-120.3000;0.3606;0.9599;
-120.0000;0.3614;0.9599;
-119.7000;0.3598;0.9550;
-119.4000;0.3565;0.9452;
-119.1000;0.3606;0.9501;
-118.8000;0.3614;0.9476;
-118.5000;0.3622;0.9452;
-118.2000;0.3671;0.9648;
-117.9000;0.3606;0.9452;
-117.6000;0.3606;0.9476;
-117.3000;0.3614;0.9599;
-117.0000;0.3590;0.9525;
-116.7000;0.3598;0.9525;
-116.4000;0.3590;0.9525;
-116.1000;0.3533;0.9402;
-115.8000;0.3614;0.9672;
-115.5000;0.3598;0.9648;
-115.2000;0.3606;0.9648;
-114.9000;0.3622;0.9648;
-114.6000;0.3606;0.9648;
-114.3000;0.3606;0.9648;
-114.0000;0.3598;0.9550;
-113.7000;0.3582;0.9427;
-113.4000;0.3590;0.9378;
-113.1000;0.3614;0.9402;
-112.8000;0.3622;0.9525;
-112.5000;0.3606;0.9550;
-112.2000;0.3606;0.9574;
-111.9000;0.3622;0.9550;
-111.6000;0.3598;0.9476;
-111.3000;0.3614;0.9574;
-111.0000;0.3614;0.9525;
-110.7000;0.3622;0.9599;
-110.4000;0.3598;0.9550;
-110.1000;0.3630;0.9648;
-109.8000;0.3614;0.9623;
-109.5000;0.3590;0.9574;
-109.2000;0.3606;0.9476;
-108.9000;0.3606;0.9402;
-108.6000;0.3590;0.9402;
-108.3000;0.3606;0.9574;
-108.0000;0.3598;0.9623;
-107.7000;0.3606;0.9722;
-107.4000;0.3582;0.9697;
-107.1000;0.3598;0.9648;
-106.8000;0.3590;0.9574;
-106.5000;0.3598;0.9599;
-106.2000;0.3614;0.9574;
-105.9000;0.3679;0.9746;
-105.6000;0.3598;0.9476;
-105.3000;0.3598;0.9501;
-105.0000;0.3590;0.9550;
-104.7000;0.3598;0.9648;
-104.4000;0.3606;0.9574;
-104.1000;0.3590;0.9525;
-103.8000;0.3606;0.9550;
-103.5000;0.3598;0.9525;
-103.2000;0.3614;0.9623;
-102.9000;0.3606;0.9574;
-102.6000;0.3606;0.9525;
-102.3000;0.3614;0.9574;
-102.0000;0.3614;0.9574;
-101.7000;0.3606;0.9476;
-101.4000;0.3598;0.9452;
-101.1000;0.3614;0.9550;
-100.8000;0.3614;0.9501;
-100.5000;0.3614;0.9402;
-100.2000;0.3606;0.9304;
-99.9000;0.3655;0.9353;
-99.6000;0.3622;0.9402;
-99.3000;0.3614;0.9476;
-99.0000;0.3606;0.9402;
-98.7000;0.3598;0.9402;
-98.4000;0.3614;0.9452;
-98.1000;0.3622;0.9476;
-97.8000;0.3598;0.9427;
-97.5000;0.3630;0.9525;
-97.2000;0.3598;0.9574;
-96.9000;0.3598;0.9722;
-96.6000;0.3606;0.9722;
-96.3000;0.3590;0.9672;
-96.0000;0.3557;0.9599;
-95.7000;0.3606;0.9771;
-95.4000;0.3598;0.9746;
-95.1000;0.3598;0.9697;
-94.8000;0.3598;0.9623;
-94.5000;0.3606;0.9623;
-94.2000;0.3606;0.9525;
-93.9000;0.3598;0.9550;
-93.6000;0.3606;0.9525;
-93.3000;0.3606;0.9574;
-93.0000;0.3622;0.9648;
-92.7000;0.3606;0.9525;
-92.4000;0.3622;0.9599;
-92.1000;0.3606;0.9574;
-91.8000;0.3582;0.9452;
-91.5000;0.3614;0.9427;
-91.2000;0.3614;0.9427;
-90.9000;0.3598;0.9452;
-90.6000;0.3606;0.9427;
-90.3000;0.3614;0.9329;
-90.0000;0.3598;0.9353;
-89.7000;0.3598;0.9353;
-89.4000;0.3606;0.9329;
-89.1000;0.3606;0.9304;
-88.8000;0.3606;0.9304;
-88.5000;0.3606;0.9329;
-88.2000;0.3671;0.9501;
-87.9000;0.3598;0.9378;
-87.6000;0.3606;0.9402;
-87.3000;0.3590;0.9427;
-87.0000;0.3663;0.9623;
-86.7000;0.3614;0.9501;
-86.4000;0.3606;0.9525;
-86.1000;0.3606;0.9476;
-85.8000;0.3614;0.9452;
-85.5000;0.3622;0.9353;
-85.2000;0.3679;0.9550;
-84.9000;0.3622;0.9452;
-84.6000;0.3622;0.9402;
-84.3000;0.3614;0.9329;
-84.0000;0.3590;0.9280;
-83.7000;0.3614;0.9255;
-83.4000;0.3606;0.9255;
-83.1000;0.3622;0.9329;
-82.8000;0.3614;0.9402;
-82.5000;0.3606;0.9402;
-82.2000;0.3590;0.9452;
-81.9000;0.3622;0.9452;
-81.6000;0.3598;0.9353;
-81.3000;0.3582;0.9280;
-81.0000;0.3606;0.9353;
-80.7000;0.3622;0.9402;
-80.4000;0.3606;0.9353;
-80.1000;0.3598;0.9378;
-79.8000;0.3614;0.9329;
-79.5000;0.3614;0.9304;
-79.2000;0.3663;0.9402;
-78.9000;0.3590;0.9231;
-78.6000;0.3622;0.9280;
-78.3000;0.3573;0.9255;
-78.0000;0.3606;0.9452;
-77.7000;0.3671;0.9648;
-77.4000;0.3598;0.9476;
-77.1000;0.3598;0.9525;
-76.8000;0.3606;0.9452;
-76.5000;0.3606;0.9452;
-76.2000;0.3582;0.9378;
-75.9000;0.3590;0.9402;
-75.6000;0.3614;0.9402;
-75.3000;0.3606;0.9427;
-75.0000;0.3622;0.9452;
-74.7000;0.3630;0.9452;
-74.4000;0.3622;0.9427;
-74.1000;0.3606;0.9402;
-73.8000;0.3606;0.9255;
-73.5000;0.3639;0.9353;
-73.2000;0.3582;0.9280;
-72.9000;0.3590;0.9329;
-72.6000;0.3582;0.9378;
-72.3000;0.3606;0.9427;
-72.0000;0.3582;0.9427;
-71.7000;0.3614;0.9599;
-71.4000;0.3598;0.9574;
-71.1000;0.3606;0.9574;
-70.8000;0.3590;0.9574;
-70.5000;0.3614;0.9599;
-70.2000;0.3622;0.9623;
-69.9000;0.3598;0.9623;
-69.6000;0.3614;0.9599;
-69.3000;0.3598;0.9599;
-69.0000;0.3606;0.9599;
-68.7000;0.3573;0.9525;
-68.4000;0.3582;0.9501;
-68.1000;0.3598;0.9476;
-67.8000;0.3565;0.9476;
-67.5000;0.3598;0.9574;
-67.2000;0.3606;0.9574;
-66.9000;0.3573;0.9501;
-66.6000;0.3606;0.9525;
-66.3000;0.3606;0.9599;
-66.0000;0.3590;0.9525;
-65.7000;0.3630;0.9599;
-65.4000;0.3582;0.9501;
-65.1000;0.3614;0.9550;
-64.8000;0.3614;0.9476;
-64.5000;0.3614;0.9476;
-64.2000;0.3541;0.9280;
-63.9000;0.3639;0.9550;
-63.6000;0.3606;0.9476;
-63.3000;0.3573;0.9402;
-63.0000;0.3630;0.9599;
-62.7000;0.3606;0.9599;
-62.4000;0.3606;0.9599;
-62.1000;0.3622;0.9746;
-61.8000;0.3590;0.9648;
-61.5000;0.3598;0.9623;
-61.2000;0.3622;0.9697;
-60.9000;0.3573;0.9648;
-60.6000;0.3590;0.9697;
-60.3000;0.3630;0.9746;
-60.0000;0.3614;0.9574;
-59.7000;0.3606;0.9427;
-59.4000;0.3606;0.9476;
-59.1000;0.3639;0.9378;
-58.8000;0.3606;0.9353;
-58.5000;0.3606;0.9329;
-58.2000;0.3606;0.9378;
-57.9000;0.3606;0.9378;
-57.6000;0.3582;0.9378;
-57.3000;0.3598;0.9427;
-57.0000;0.3590;0.9501;
-56.7000;0.3573;0.9452;
-56.4000;0.3647;0.9672;
-56.1000;0.3630;0.9648;
-55.8000;0.3598;0.9599;
-55.5000;0.3606;0.9599;
-55.2000;0.3590;0.9525;
-54.9000;0.3557;0.9501;
-54.6000;0.3606;0.9574;
-54.3000;0.3639;0.9697;
-54.0000;0.3590;0.9550;
-53.7000;0.3606;0.9599;
-53.4000;0.3598;0.9501;
-53.1000;0.3606;0.9452;
-52.8000;0.3630;0.9476;
-52.5000;0.3622;0.9427;
-52.2000;0.3606;0.9427;
-51.9000;0.3590;0.9452;
-51.6000;0.3598;0.9402;
-51.3000;0.3606;0.9476;
-51.0000;0.3630;0.9525;
-50.7000;0.3622;0.9476;
-50.4000;0.3598;0.9452;
-50.1000;0.3606;0.9378;
-49.8000;0.3598;0.9353;
-49.5000;0.3606;0.9402;
-49.2000;0.3598;0.9378;
-48.9000;0.3622;0.9353;
-48.6000;0.3622;0.9280;
-48.3000;0.3614;0.9206;
-48.0000;0.3614;0.9329;
-47.7000;0.3598;0.9378;
-47.4000;0.3606;0.9427;
-47.1000;0.3582;0.9402;
-46.8000;0.3614;0.9476;
-46.5000;0.3647;0.9623;
-46.2000;0.3606;0.9501;
-45.9000;0.3598;0.9525;
-45.6000;0.3565;0.9452;
-45.3000;0.3582;0.9525;
-45.0000;0.3590;0.9476;
-44.7000;0.3630;0.9550;
-44.4000;0.3598;0.9550;
-44.1000;0.3557;0.9476;
-43.8000;0.3573;0.9452;
-43.5000;0.3598;0.9623;
-43.2000;0.3582;0.9574;
-42.9000;0.3590;0.9550;
-42.6000;0.3606;0.9599;
-42.3000;0.3590;0.9599;
-42.0000;0.3573;0.9452;
-41.7000;0.3573;0.9378;
-41.4000;0.3606;0.9452;
-41.1000;0.3590;0.9476;
-40.8000;0.3582;0.9501;
-40.5000;0.3598;0.9525;
-40.2000;0.3590;0.9476;
-39.9000;0.3606;0.9550;
-39.6000;0.3622;0.9501;
-39.3000;0.3614;0.9452;
-39.0000;0.3598;0.9427;
-38.7000;0.3663;0.9599;
-38.4000;0.3590;0.9427;
-38.1000;0.3622;0.9550;
-37.8000;0.3573;0.9501;
-37.5000;0.3598;0.9623;
-37.2000;0.3582;0.9525;
-36.9000;0.3639;0.9672;
-36.6000;0.3614;0.9574;
-36.3000;0.3590;0.9501;
-36.0000;0.3614;0.9550;
-35.7000;0.3598;0.9525;
-35.4000;0.3598;0.9476;
-35.1000;0.3614;0.9402;
-34.8000;0.3622;0.9378;
-34.5000;0.3614;0.9280;
-34.2000;0.3606;0.9304;
-33.9000;0.3606;0.9329;
-33.6000;0.3606;0.9427;
-33.3000;0.3606;0.9452;
-33.0000;0.3614;0.9599;
-32.7000;0.3590;0.9501;
-32.4000;0.3598;0.9452;
-32.1000;0.3606;0.9476;
-31.8000;0.3590;0.9427;
-31.5000;0.3598;0.9476;
-31.2000;0.3614;0.9476;
-30.9000;0.3614;0.9550;
-30.6000;0.3655;0.9672;
-30.3000;0.3590;0.9427;
-30.0000;0.3557;0.9280;
-29.7000;0.3598;0.9402;
-29.4000;0.3606;0.9378;
-29.1000;0.3590;0.9280;
-28.8000;0.3565;0.9182;
-28.5000;0.3590;0.9231;
-28.2000;0.3606;0.9304;
-27.9000;0.3622;0.9427;
-27.6000;0.3622;0.9427;
-27.3000;0.3614;0.9501;
-27.0000;0.3598;0.9476;
-26.7000;0.3614;0.9574;
-26.4000;0.3614;0.9574;
-26.1000;0.3590;0.9476;
-25.8000;0.3614;0.9525;
-25.5000;0.3614;0.9501;
-25.2000;0.3663;0.9648;
-24.9000;0.3614;0.9501;
-24.6000;0.3516;0.9182;
-24.3000;0.3614;0.9353;
-24.0000;0.3639;0.9427;
-23.7000;0.3622;0.9452;
-23.4000;0.3663;0.9501;
-23.1000;0.3614;0.9353;
-22.8000;0.3598;0.9329;
-22.5000;0.3590;0.9353;
-22.2000;0.3590;0.9402;
-21.9000;0.3582;0.9329;
-21.6000;0.3606;0.9304;
-21.3000;0.3606;0.9231;
-21.0000;0.3606;0.9182;
-20.7000;0.3614;0.9182;
-20.4000;0.3622;0.9231;
-20.1000;0.3606;0.9231;
-19.8000;0.3614;0.9329;
-19.5000;0.3630;0.9353;
-19.2000;0.3614;0.9452;
-18.9000;0.3630;0.9476;
-18.6000;0.3598;0.9501;
-18.3000;0.3573;0.9574;
-18.0000;0.3590;0.9525;
-17.7000;0.3590;0.9501;
-17.4000;0.3598;0.9452;
-17.1000;0.3598;0.9476;
-16.8000;0.3598;0.9402;
-16.5000;0.3590;0.9501;
-16.2000;0.3590;0.9501;
-15.9000;0.3630;0.9501;
-15.6000;0.3622;0.9402;
-15.3000;0.3590;0.9304;
-15.0000;0.3614;0.9353;
-14.7000;0.3614;0.9304;
-14.4000;0.3606;0.9353;
-14.1000;0.3614;0.9525;
-13.8000;0.3622;0.9574;
-13.5000;0.3614;0.9550;
-13.2000;0.3614;0.9427;
-12.9000;0.3639;0.9525;
-12.6000;0.3606;0.9427;
-12.3000;0.3598;0.9476;
-12.0000;0.3590;0.9280;
-11.7000;0.3598;0.9280;
-11.4000;0.3598;0.9304;
-11.1000;0.3590;0.9280;
-10.8000;0.3614;0.9304;
-10.5000;0.3614;0.9280;
-10.2000;0.3606;0.9304;
-9.9000;0.3598;0.9329;
-9.6000;0.3639;0.9452;
-9.3000;0.3606;0.9402;
-9.0000;0.3590;0.9402;
-8.7000;0.3606;0.9501;
-8.4000;0.3606;0.9623;
-8.1000;0.3614;0.9722;
-7.8000;0.3590;0.9648;
-7.5000;0.3598;0.9648;
-7.2000;0.3614;0.9672;
-6.9000;0.3606;0.9672;
-6.6000;0.3614;0.9722;
-6.3000;0.3622;0.9648;
-6.0000;0.3614;0.9525;
-5.7000;0.3606;0.9427;
-5.4000;0.3639;0.9525;
-5.1000;0.3606;0.9402;
-4.8000;0.3614;0.9452;
-4.5000;0.3606;0.9378;
-4.2000;0.3639;0.9476;
-3.9000;0.3630;0.9476;
-3.6000;0.3622;0.9452;
-3.3000;0.3598;0.9476;
-3.0000;0.3606;0.9550;
-2.7000;0.3630;0.9599;
-2.4000;0.3663;0.9672;
-2.1000;0.3606;0.9574;
-1.8000;0.3590;0.9648;
-1.5000;0.3598;0.9746;
-1.2000;0.3598;0.9672;
-0.9000;0.3598;0.9525;
-0.6000;0.3598;0.9476;
-0.3000;0.3614;0.9501;
0.0000;0.3614;0.9501;
0.3000;0.3614;0.9206;
0.6000;0.3704;0.9378;
0.9000;0.3753;0.9501;
1.2000;0.3793;0.9623;
1.5000;0.3810;0.9795;
1.8000;0.3899;1.0114;
2.1000;0.3867;1.0188;
2.4000;0.3875;1.0311;
2.7000;0.3899;1.0262;
3.0000;0.3923;1.0360;
3.3000;0.3923;1.0458;
3.6000;0.3915;1.0532;
3.9000;0.3923;1.0605;
4.2000;0.3932;1.0507;
4.5000;0.3956;1.0507;
4.8000;0.3948;1.0532;
5.1000;0.3932;1.0507;
5.4000;0.3964;1.0605;
5.7000;0.3964;1.0630;
6.0000;0.3956;1.0704;
6.3000;0.3956;1.0753;
6.6000;0.3972;1.0728;
6.9000;0.4029;1.0900;
7.2000;0.3989;1.0875;
7.5000;0.3989;1.0802;
7.8000;0.3972;1.0826;
8.1000;0.3989;1.0802;
8.4000;0.4005;1.0875;
8.7000;0.3989;1.0802;
9.0000;0.3972;1.0728;
9.3000;0.3989;1.0777;
9.6000;0.3997;1.0802;
9.9000;0.4013;1.0900;
10.2000;0.4013;1.0974;
10.5000;0.4005;1.0974;
10.8000;0.4013;1.0900;
11.1000;0.4021;1.0925;
11.4000;0.3964;1.0753;
11.7000;0.4029;1.0949;
12.0000;0.4013;1.0900;
12.3000;0.4029;1.0875;
12.6000;0.4029;1.0826;
12.9000;0.4070;1.0998;
13.2000;0.4037;1.0875;
13.5000;0.4029;1.0875;
13.8000;0.4029;1.0900;
14.1000;0.4046;1.0974;
14.4000;0.4037;1.0998;
14.7000;0.4029;1.1072;
15.0000;0.4046;1.1072;
15.3000;0.4054;1.1121;
15.6000;0.4062;1.1047;
15.9000;0.4062;1.0949;
16.2000;0.4037;1.0949;
16.5000;0.4046;1.0998;
16.8000;0.4062;1.0974;
17.1000;0.4062;1.0974;
17.4000;0.4070;1.0974;
17.7000;0.4013;1.0826;
18.0000;0.4054;1.0998;
18.3000;0.3980;1.0851;
18.6000;0.4054;1.0974;
18.9000;0.4078;1.1072;
19.2000;0.4094;1.1072;
19.5000;0.4103;1.1072;
19.8000;0.4086;1.0949;
20.1000;0.4086;1.1023;
20.4000;0.4078;1.0974;
20.7000;0.4086;1.0974;
21.0000;0.4103;1.0900;
21.3000;0.4103;1.0875;
21.6000;0.4078;1.0851;
21.9000;0.4094;1.0900;
22.2000;0.4086;1.0925;
22.5000;0.4078;1.0875;
22.8000;0.4078;1.0851;
23.1000;0.4086;1.0728;
23.4000;0.4119;1.0753;
23.7000;0.4119;1.0826;
24.0000;0.4111;1.0851;
24.3000;0.4111;1.0851;
24.6000;0.4094;1.0949;
24.9000;0.4119;1.1047;
25.2000;0.4111;1.0949;
25.5000;0.4103;1.0998;
25.8000;0.4119;1.1121;
26.1000;0.4119;1.1096;
26.4000;0.4111;1.1121;
26.7000;0.4127;1.1145;
27.0000;0.4127;1.1072;
27.3000;0.4111;1.0949;
27.6000;0.4103;1.0974;
27.9000;0.4111;1.0925;
28.2000;0.4119;1.0875;
28.5000;0.4119;1.0900;
28.8000;0.4127;1.0925;
29.1000;0.4151;1.0974;
29.4000;0.4127;1.0925;
29.7000;0.4168;1.1023;
30.0000;0.4111;1.1023;
30.3000;0.4135;1.1047;
30.6000;0.4135;1.0949;
30.9000;0.4078;1.0802;
31.2000;0.4135;1.0974;
31.5000;0.4160;1.0949;
31.8000;0.4135;1.0826;
32.1000;0.4062;1.0704;
32.4000;0.4127;1.0900;
32.7000;0.4127;1.0802;
33.0000;0.4094;1.0704;
33.3000;0.4127;1.0851;
33.6000;0.4135;1.0875;
33.9000;0.4135;1.0900;
34.2000;0.4135;1.0949;
34.5000;0.4143;1.0949;
34.8000;0.4143;1.1023;
35.1000;0.4151;1.1047;
35.4000;0.4168;1.1072;
35.7000;0.4160;1.0974;
36.0000;0.4176;1.0974;
36.3000;0.4151;1.0974;
36.6000;0.4143;1.0949;
36.9000;0.4151;1.0851;
37.2000;0.4160;1.0851;
37.5000;0.4143;1.0851;
37.8000;0.4160;1.0777;
38.1000;0.4160;1.0826;
38.4000;0.4151;1.0777;
38.7000;0.4160;1.0777;
39.0000;0.4184;1.0851;
39.3000;0.4143;1.0777;
39.6000;0.4160;1.0875;
39.9000;0.4168;1.0925;
40.2000;0.4151;1.0826;
40.5000;0.4168;1.0826;
40.8000;0.4176;1.0826;
41.1000;0.4168;1.0900;
41.4000;0.4168;1.0974;
41.7000;0.4143;1.0949;
42.0000;0.4200;1.1096;
42.3000;0.4119;1.0925;
42.6000;0.4160;1.0998;
42.9000;0.4160;1.1047;
43.2000;0.4160;1.0949;
43.5000;0.4176;1.0925;
43.8000;0.4225;1.1023;
44.1000;0.4168;1.0875;
44.4000;0.4160;1.0875;
44.7000;0.4184;1.0900;
45.0000;0.4160;1.0753;
45.3000;0.4184;1.0826;
45.6000;0.4168;1.0777;
45.9000;0.4184;1.0777;
46.2000;0.4168;1.0851;
46.5000;0.4176;1.0900;
46.8000;0.4184;1.0875;
47.1000;0.4151;1.0802;
47.4000;0.4119;1.0654;
47.7000;0.4241;1.0998;
48.0000;0.4176;1.0851;
48.3000;0.4078;1.0532;
48.6000;0.4151;1.0826;
48.9000;0.4192;1.0998;
49.2000;0.4192;1.0998;
49.5000;0.4249;1.1145;
49.8000;0.4208;1.0998;
50.1000;0.4184;1.1072;
50.4000;0.4200;1.1121;
50.7000;0.4233;1.1244;
51.0000;0.4192;1.1145;
51.3000;0.4192;1.1121;
51.6000;0.4184;1.1121;
51.9000;0.4192;1.1072;
52.2000;0.4135;1.0925;
52.5000;0.4176;1.1072;
52.8000;0.4184;1.1145;
53.1000;0.4127;1.1047;
53.4000;0.4184;1.1121;
53.7000;0.4160;1.1096;
54.0000;0.4119;1.0875;
54.3000;0.4184;1.1096;
54.6000;0.4184;1.0998;
54.9000;0.4217;1.0974;
55.2000;0.4176;1.0925;
55.5000;0.4168;1.0900;
55.8000;0.4176;1.0925;
56.1000;0.4176;1.0949;
56.4000;0.4168;1.0949;
56.7000;0.4184;1.0974;
57.0000;0.4200;1.0925;
57.3000;0.4200;1.0900;
57.6000;0.4184;1.0802;
57.9000;0.4192;1.0900;
58.2000;0.4217;1.0949;
58.5000;0.4192;1.0974;
58.8000;0.4192;1.0900;
59.1000;0.4192;1.0925;
59.4000;0.4192;1.0949;
59.7000;0.4200;1.0949;
60.0000;0.4217;1.0949;
60.3000;0.4176;1.0875;
60.6000;0.4200;1.0900;
60.9000;0.4217;1.0875;
61.2000;0.4192;1.0851;
61.5000;0.4200;1.0925;
61.8000;0.4200;1.1023;
62.1000;0.4200;1.0974;
62.4000;0.4184;1.0875;
62.7000;0.4192;1.0875;
63.0000;0.4200;1.1023;
63.3000;0.4192;1.1023;
63.6000;0.4184;1.1096;
63.9000;0.4184;1.1047;
64.2000;0.4168;1.1023;
64.5000;0.4208;1.1145;
64.8000;0.4192;1.1072;
65.1000;0.4257;1.1170;
65.4000;0.4184;1.1072;
65.7000;0.4192;1.1096;
66.0000;0.4168;1.1047;
66.3000;0.4200;1.1072;
66.6000;0.4192;1.1096;
66.9000;0.4192;1.1145;
67.2000;0.4184;1.1096;
67.5000;0.4192;1.1170;
67.8000;0.4168;1.1170;
68.1000;0.4200;1.1145;
68.4000;0.4233;1.1195;
68.7000;0.4200;1.1121;
69.0000;0.4208;1.1121;
69.3000;0.4217;1.1145;
69.6000;0.4217;1.1047;
69.9000;0.4233;1.1023;
70.2000;0.4200;1.0949;
70.5000;0.4208;1.0998;
70.8000;0.4225;1.1023;
71.1000;0.4217;1.0974;
71.4000;0.4208;1.0875;
71.7000;0.4217;1.0875;
72.0000;0.4208;1.0875;
72.3000;0.4217;1.0925;
72.6000;0.4208;1.0875;
72.9000;0.4282;1.1121;
73.2000;0.4217;1.0949;
73.5000;0.4225;1.1072;
73.8000;0.4225;1.1121;
74.1000;0.4257;1.1219;
74.4000;0.4208;1.1145;
74.7000;0.4225;1.1096;
75.0000;0.4217;1.1047;
75.3000;0.4208;1.1072;
75.6000;0.4200;1.1023;
75.9000;0.4241;1.1170;
76.2000;0.4192;1.0998;
76.5000;0.4192;1.0974;
76.8000;0.4192;1.0925;
77.1000;0.4176;1.0851;
77.4000;0.4217;1.0974;
77.7000;0.4184;1.0875;
78.0000;0.4225;1.0925;
78.3000;0.4225;1.0925;
78.6000;0.4208;1.0925;
78.9000;0.4200;1.0925;
79.2000;0.4225;1.0974;
79.5000;0.4225;1.1047;
79.8000;0.4225;1.1195;
80.1000;0.4217;1.1145;
80.4000;0.4225;1.1145;
80.7000;0.4217;1.1121;
81.0000;0.4217;1.1121;
81.3000;0.4217;1.1047;
81.6000;0.4184;1.0949;
81.9000;0.4192;1.0875;
82.2000;0.4200;1.0925;
82.5000;0.4208;1.0974;
82.8000;0.4217;1.1072;
83.1000;0.4200;1.0974;
83.4000;0.4176;1.0900;
83.7000;0.4217;1.0998;
84.0000;0.4208;1.1023;
84.3000;0.4192;1.0998;
84.6000;0.4192;1.1047;
84.9000;0.4217;1.1047;
85.2000;0.4208;1.1096;
85.5000;0.4208;1.1072;
85.8000;0.4233;1.1096;
86.1000;0.4217;1.1047;
86.4000;0.4217;1.0974;
86.7000;0.4282;1.1195;
87.0000;0.4200;1.0998;
87.3000;0.4192;1.0974;
87.6000;0.4176;1.0925;
87.9000;0.4208;1.1023;
88.2000;0.4208;1.0974;
88.5000;0.4217;1.1047;
88.8000;0.4225;1.0974;
89.1000;0.4192;1.0925;
89.4000;0.4225;1.0900;
89.7000;0.4225;1.0875;
90.0000;0.4217;1.0925;
90.3000;0.4217;1.0949;
90.6000;0.4208;1.0998;
90.9000;0.4233;1.0974;
91.2000;0.4208;1.0949;
91.5000;0.4200;1.0900;
91.8000;0.4168;1.0925;
92.1000;0.4200;1.0974;
92.4000;0.4200;1.1047;
92.7000;0.4217;1.1047;
93.0000;0.4241;1.1145;
93.3000;0.4217;1.1047;
93.6000;0.4200;1.0925;
93.9000;0.4249;1.1096;
94.2000;0.4200;1.1072;
94.5000;0.4257;1.1219;
94.8000;0.4306;1.1268;
95.1000;0.4200;1.1023;
95.4000;0.4233;1.1121;
95.7000;0.4208;1.1023;
96.0000;0.4249;1.1096;
96.3000;0.4217;1.1072;
96.6000;0.4192;1.1121;
96.9000;0.4233;1.1195;
97.2000;0.4217;1.1072;
97.5000;0.4225;1.1023;
97.8000;0.4265;1.1121;
98.1000;0.4184;1.0998;
98.4000;0.4217;1.1145;
98.7000;0.4176;1.1023;
99.0000;0.4217;1.1145;
99.3000;0.4217;1.1170;
99.6000;0.4217;1.1121;
99.9000;0.4233;1.1121;
100.2000;0.4192;1.0974;
100.5000;0.4217;1.0998;
100.8000;0.4233;1.1072;
101.1000;0.4225;1.1072;
101.4000;0.4192;1.0900;
101.7000;0.4184;1.0900;
102.0000;0.4192;1.0949;
102.3000;0.4217;1.0998;
102.6000;0.4208;1.1072;
102.9000;0.4200;1.1047;
103.2000;0.4192;1.0974;
103.5000;0.4184;1.0949;
103.8000;0.4233;1.0998;
104.1000;0.4208;1.0900;
104.4000;0.4217;1.0949;
104.7000;0.4233;1.1072;
105.0000;0.4217;1.1072;
105.3000;0.4217;1.1047;
105.6000;0.4217;1.1047;
105.9000;0.4208;1.1023;
106.2000;0.4217;1.0998;
106.5000;0.4233;1.0998;
106.8000;0.4208;1.0974;
107.1000;0.4208;1.0998;
107.4000;0.4233;1.1096;
107.7000;0.4208;1.0974;
108.0000;0.4225;1.0998;
108.3000;0.4208;1.0949;
108.6000;0.4217;1.0998;
108.9000;0.4225;1.0998;
109.2000;0.4184;1.0851;
109.5000;0.4225;1.0851;
109.8000;0.4208;1.0777;
110.1000;0.4225;1.0728;
110.4000;0.4208;1.0728;
110.7000;0.4241;1.0802;
111.0000;0.4225;1.0851;
111.3000;0.4208;1.0826;
111.6000;0.4274;1.0875;
111.9000;0.4200;1.0679;
112.2000;0.4217;1.0753;
112.5000;0.4200;1.0728;
112.8000;0.4200;1.0704;
113.1000;0.4217;1.0753;
113.4000;0.4225;1.0925;
113.7000;0.4160;1.0679;
114.0000;0.4217;1.0802;
114.3000;0.4176;1.0679;
114.6000;0.4217;1.0851;
114.9000;0.4233;1.0998;
115.2000;0.4225;1.0998;
115.5000;0.4233;1.1121;
115.8000;0.4200;1.1047;
116.1000;0.4184;1.1023;
116.4000;0.4217;1.1170;
116.7000;0.4208;1.1145;
117.0000;0.4217;1.1121;
117.3000;0.4241;1.1268;
117.6000;0.4225;1.1170;
117.9000;0.4217;1.1145;
118.2000;0.4208;1.1047;
118.5000;0.4192;1.1072;
118.8000;0.4217;1.1072;
119.1000;0.4208;1.1170;
119.4000;0.4192;1.1145;
119.7000;0.4225;1.1293;
120.0000;0.4217;1.1244;
120.3000;0.4225;1.1195;
120.6000;0.4233;1.1244;
120.9000;0.4192;1.1195;
121.2000;0.4225;1.1219;
121.5000;0.4225;1.1170;
121.8000;0.4217;1.1170;
122.1000;0.4208;1.1145;
122.4000;0.4217;1.1195;
122.7000;0.4225;1.1170;
123.0000;0.4241;1.1195;
123.3000;0.4217;1.1195;
123.6000;0.4217;1.1244;
123.9000;0.4217;1.1170;
124.2000;0.4208;1.1170;
124.5000;0.4225;1.1121;
124.8000;0.4217;1.1145;
125.1000;0.4217;1.1047;
125.4000;0.4233;1.1023;
125.7000;0.4233;1.1096;
126.0000;0.4225;1.1121;
126.3000;0.4217;1.1145;
126.6000;0.4225;1.1170;
126.9000;0.4217;1.1096;
127.2000;0.4208;1.0925;
127.5000;0.4217;1.0802;
127.8000;0.4225;1.0826;
128.1000;0.4233;1.0851;
128.4000;0.4200;1.0875;
128.7000;0.4208;1.0875;
129.0000;0.4257;1.0998;
129.3000;0.4217;1.0925;
129.6000;0.4225;1.0875;
129.9000;0.4192;1.0826;
130.2000;0.4217;1.0998;
130.5000;0.4208;1.1072;
130.8000;0.4208;1.1023;
131.1000;0.4184;1.1023;
131.4000;0.4200;1.1023;
131.7000;0.4233;1.0974;
132.0000;0.4290;1.1023;
132.3000;0.4225;1.0851;
132.6000;0.4241;1.0974;
132.9000;0.4225;1.0826;
133.2000;0.4208;1.0777;
133.5000;0.4249;1.0875;
133.8000;0.4208;1.0753;
134.1000;0.4257;1.0949;
134.4000;0.4208;1.0900;
134.7000;0.4143;1.0777;
135.0000;0.4200;1.0949;
135.3000;0.4208;1.0826;
135.6000;0.4217;1.0753;
135.9000;0.4233;1.0728;
136.2000;0.4265;1.0826;
136.5000;0.4225;1.0777;
136.8000;0.4217;1.0826;
137.1000;0.4143;1.0654;
137.4000;0.4208;1.0826;
137.7000;0.4208;1.0851;
138.0000;0.4225;1.0949;
138.3000;0.4208;1.0974;
138.6000;0.4225;1.0998;
138.9000;0.4217;1.0826;
139.2000;0.4217;1.0900;
139.5000;0.4282;1.1121;
139.8000;0.4184;1.0925;
140.1000;0.4217;1.0998;
140.4000;0.4233;1.0998;
140.7000;0.4233;1.0998;
141.0000;0.4233;1.1023;
141.3000;0.4249;1.1170;
141.6000;0.4217;1.1096;
141.9000;0.4217;1.1023;
142.2000;0.4217;1.0998;
142.5000;0.4217;1.0925;
142.8000;0.4225;1.0925;
143.1000;0.4225;1.1072;
143.4000;0.4208;1.1072;
143.7000;0.4233;1.1023;
144.0000;0.4241;1.0974;
144.3000;0.4233;1.1023;
144.6000;0.4217;1.0949;
144.9000;0.4233;1.0949;
145.2000;0.4225;1.0974;
145.5000;0.4225;1.1072;
145.8000;0.4217;1.1121;
146.1000;0.4217;1.1072;
146.4000;0.4208;1.1072;
146.7000;0.4265;1.1219;
147.0000;0.4225;1.1023;
147.3000;0.4200;1.0949;
147.6000;0.4200;1.0900;
147.9000;0.4208;1.0925;
148.2000;0.4208;1.0875;
148.5000;0.4241;1.0949;
148.8000;0.4217;1.0925;
149.1000;0.4208;1.0875;
149.4000;0.4241;1.0974;
149.7000;0.4225;1.0875;
150.0000;0.4274;1.0925;
150.3000;0.4225;1.0826;
150.6000;0.4192;1.0777;
150.9000;0.4274;1.0851;
151.2000;0.4225;1.0777;
151.5000;0.4217;1.0753;
151.8000;0.4200;1.0679;
152.1000;0.4184;1.0581;
152.4000;0.4225;1.0679;
152.7000;0.4208;1.0654;
153.0000;0.4192;1.0581;
153.3000;0.4208;1.0654;
153.6000;0.4225;1.0679;
153.9000;0.4217;1.0679;
154.2000;0.4200;1.0654;
154.5000;0.4225;1.0728;
154.8000;0.4208;1.0654;
155.1000;0.4184;1.0654;
155.4000;0.4233;1.0704;
155.7000;0.4217;1.0728;
156.0000;0.4217;1.0753;
156.3000;0.4249;1.0826;
156.6000;0.4151;1.0630;
156.9000;0.4208;1.0875;
157.2000;0.4217;1.1023;
157.5000;0.4208;1.0998;
157.8000;0.4233;1.1047;
158.1000;0.4241;1.1145;
158.4000;0.4225;1.1145;
158.7000;0.4200;1.1096;
159.0000;0.4225;1.1047;
159.3000;0.4208;1.0998;
159.6000;0.4217;1.0900;
159.9000;0.4217;1.0875;
160.2000;0.4233;1.0998;
160.5000;0.4225;1.1072;
160.8000;0.4282;1.1244;
161.1000;0.4184;1.0949;
161.4000;0.4225;1.0974;
161.7000;0.4233;1.1096;
162.0000;0.4233;1.1023;
162.3000;0.4233;1.0998;
162.6000;0.4208;1.0875;
162.9000;0.4265;1.0974;
163.2000;0.4225;1.0925;
163.5000;0.4233;1.1023;
163.8000;0.4257;1.1096;
164.1000;0.4200;1.0949;
164.4000;0.4217;1.0974;
164.7000;0.4217;1.0949;
165.0000;0.4200;1.0900;
165.3000;0.4225;1.0900;
165.6000;0.4241;1.1023;
165.9000;0.4233;1.0974;
166.2000;0.4184;1.0826;
166.5000;0.4208;1.0900;
166.8000;0.4282;1.1023;
167.1000;0.4217;1.0826;
167.4000;0.4225;1.0777;
167.7000;0.4192;1.0728;
168.0000;0.4192;1.0753;
168.3000;0.4184;1.0826;
168.6000;0.4119;1.0728;
168.9000;0.4200;1.0900;
169.2000;0.4217;1.0826;
169.5000;0.4217;1.0802;
169.8000;0.4184;1.0826;
170.1000;0.4200;1.0875;
170.4000;0.4151;1.0802;
170.7000;0.4265;1.1121;
171.0000;0.4208;1.1047;
171.3000;0.4208;1.0998;
171.6000;0.4192;1.0974;
171.9000;0.4200;1.0949;
172.2000;0.4208;1.0900;
172.5000;0.4225;1.0900;
172.8000;0.4217;1.0826;
173.1000;0.4225;1.0826;
173.4000;0.4200;1.0802;
173.7000;0.4208;1.0826;
174.0000;0.4184;1.0728;
174.3000;0.4225;1.0900;
174.6000;0.4217;1.0900;
174.9000;0.4217;1.0949;
175.2000;0.4217;1.0974;
175.5000;0.4217;1.1023;
175.8000;0.4208;1.0998;
176.1000;0.4233;1.0974;
176.4000;0.4233;1.0949;
176.7000;0.4233;1.0949;
177.0000;0.4217;1.0875;
177.3000;0.4241;1.0925;
177.6000;0.4184;1.0753;
177.9000;0.4200;1.0802;
178.2000;0.4176;1.0728;
178.5000;0.4200;1.0802;
178.8000;0.4217;1.0851;
179.1000;0.4265;1.0900;
179.4000;0.4208;1.0826;
179.7000;0.4160;1.0679;
180.0000;0.4241;1.0925;
180.3000;0.4217;1.0875;
180.6000;0.4200;1.0900;
180.9000;0.4208;1.0802;
181.2000;0.4225;1.0826;
181.5000;0.4208;1.0802;
181.8000;0.4217;1.0851;
182.1000;0.4176;1.0753;
182.4000;0.4217;1.0753;
182.7000;0.4233;1.0826;
183.0000;0.4225;1.0802;
183.3000;0.4184;1.0753;
183.6000;0.4241;1.0826;
183.9000;0.4241;1.0851;
184.2000;0.4217;1.0802;
184.5000;0.4192;1.0728;
184.8000;0.4217;1.0826;
185.1000;0.4225;1.0925;
185.4000;0.4184;1.0851;
185.7000;0.4135;1.0728;
186.0000;0.4225;1.0974;
186.3000;0.4225;1.0998;
186.6000;0.4225;1.0974;
186.9000;0.4192;1.0925;
187.2000;0.4233;1.0998;
187.5000;0.4257;1.1047;
187.8000;0.4192;1.0998;
188.1000;0.4208;1.1047;
188.4000;0.4233;1.1023;
188.7000;0.4217;1.1023;
189.0000;0.4233;1.0998;
189.3000;0.4200;1.0925;
189.6000;0.4200;1.0900;
189.9000;0.4225;1.0998;
190.2000;0.4233;1.1072;
190.5000;0.4217;1.1023;
190.8000;0.4217;1.0949;
191.1000;0.4225;1.0900;
191.4000;0.4217;1.0900;
191.7000;0.4225;1.0974;
192.0000;0.4200;1.0826;
192.3000;0.4192;1.0826;
192.6000;0.4208;1.0875;
192.9000;0.4208;1.0949;
193.2000;0.4200;1.0925;
193.5000;0.4217;1.0949;
193.8000;0.4217;1.0900;
194.1000;0.4217;1.0900;
194.4000;0.4208;1.0875;
194.7000;0.4217;1.0949;
195.0000;0.4290;1.1145;
195.3000;0.4225;1.1023;
195.6000;0.4217;1.0974;
195.9000;0.4192;1.0925;
196.2000;0.4200;1.0998;
196.5000;0.4225;1.0998;
196.8000;0.4200;1.0974;
197.1000;0.4225;1.1023;
197.4000;0.4217;1.0974;
197.7000;0.4217;1.0925;
198.0000;0.4208;1.0925;
198.3000;0.4282;1.1121;
198.6000;0.4217;1.1047;
198.9000;0.4233;1.0998;
199.2000;0.4233;1.0974;
199.5000;0.4217;1.0998;
199.8000;0.4217;1.0974;
200.1000;0.4217;1.0949;
200.4000;0.4225;1.0949;
200.7000;0.4192;1.0851;
201.0000;0.4192;1.0851;
201.3000;0.4208;1.0974;
201.6000;0.4176;1.0875;
201.9000;0.4208;1.0974;
202.2000;0.4208;1.0974;
202.5000;0.4249;1.1096;
202.8000;0.4200;1.0851;
203.1000;0.4200;1.0777;
203.4000;0.4192;1.0900;
203.7000;0.4217;1.0998;
204.0000;0.4176;1.0900;
204.3000;0.4208;1.1023;
204.6000;0.4208;1.0998;
204.9000;0.4208;1.0925;
205.2000;0.4208;1.0949;
205.5000;0.4111;1.0679;
205.8000;0.4217;1.0925;
206.1000;0.4208;1.0826;
206.4000;0.4225;1.0875;
206.7000;0.4168;1.0728;
207.0000;0.4217;1.0900;
207.3000;0.4200;1.0802;
207.6000;0.4217;1.0925;
207.9000;0.4200;1.0900;
208.2000;0.4225;1.0900;
208.5000;0.4192;1.0900;
208.8000;0.4225;1.0998;
209.1000;0.4200;1.0875;
209.4000;0.4208;1.0826;
209.7000;0.4217;1.0875;
210.0000;0.4208;1.0949;
210.3000;0.4225;1.1023;
210.6000;0.4233;1.0998;
210.9000;0.4208;1.1023;
211.2000;0.4225;1.0998;
211.5000;0.4274;1.1170;
211.8000;0.4208;1.0949;
212.1000;0.4249;1.1096;
212.4000;0.4322;1.1293;
212.7000;0.4217;1.1023;
213.0000;0.4217;1.1023;
213.3000;0.4241;1.0974;
213.6000;0.4217;1.0826;
213.9000;0.4225;1.0851;
214.2000;0.4217;1.0949;
214.5000;0.4217;1.0875;
214.8000;0.4208;1.0875;
215.1000;0.4151;1.0654;
215.4000;0.4225;1.0900;
215.7000;0.4217;1.0826;
216.0000;0.4217;1.0826;
216.3000;0.4200;1.0875;
216.6000;0.4217;1.0974;
216.9000;0.4217;1.1047;
217.2000;0.4225;1.1023;
217.5000;0.4225;1.0998;
217.8000;0.4208;1.0900;
218.1000;0.4233;1.0900;
218.4000;0.4225;1.0851;
218.7000;0.4225;1.0826;
219.0000;0.4225;1.0728;
219.3000;0.4225;1.0826;
219.6000;0.4217;1.0753;
219.9000;0.4208;1.0777;
220.2000;0.4282;1.1096;
220.5000;0.4217;1.0974;
220.8000;0.4233;1.0998;
221.1000;0.4249;1.1047;
221.4000;0.4217;1.0925;
221.7000;0.4217;1.0998;
222.0000;0.4217;1.1047;
222.3000;0.4200;1.1023;
222.6000;0.4200;1.1096;
222.9000;0.4225;1.1096;
223.2000;0.4233;1.1145;
223.5000;0.4225;1.1121;
223.8000;0.4217;1.1170;
224.1000;0.4217;1.1121;
224.4000;0.4217;1.1145;
224.7000;0.4208;1.1195;
225.0000;0.4200;1.1145;
225.3000;0.4192;1.1096;
225.6000;0.4208;1.1023;
225.9000;0.4217;1.0949;
226.2000;0.4143;1.0728;
226.5000;0.4233;1.0851;
226.8000;0.4225;1.0802;
227.1000;0.4217;1.0826;
227.4000;0.4233;1.0826;
227.7000;0.4208;1.0875;
228.0000;0.4225;1.0875;
228.3000;0.4217;1.0949;
228.6000;0.4290;1.1121;
228.9000;0.4208;1.0949;
229.2000;0.4208;1.0925;
229.5000;0.4217;1.0949;
229.8000;0.4208;1.0998;
230.1000;0.4208;1.0998;
230.4000;0.4160;1.0826;
230.7000;0.4217;1.0949;
231.0000;0.4217;1.0949;
231.3000;0.4208;1.0851;
231.6000;0.4217;1.0802;
231.9000;0.4225;1.0851;
232.2000;0.4217;1.0900;
232.5000;0.4225;1.0925;
232.8000;0.4200;1.0802;
233.1000;0.4217;1.0875;
233.4000;0.4290;1.1047;
233.7000;0.4225;1.0900;
234.0000;0.4208;1.0875;
234.3000;0.4233;1.0974;
234.6000;0.4217;1.1023;
234.9000;0.4184;1.0900;
235.2000;0.4233;1.1072;
235.5000;0.4225;1.0974;
235.8000;0.4217;1.0925;
236.1000;0.4225;1.0925;
236.4000;0.4208;1.0851;
236.7000;0.4160;1.0704;
237.0000;0.4233;1.0777;
237.3000;0.4217;1.0704;
237.6000;0.4217;1.0728;
237.9000;0.4208;1.0728;
238.2000;0.4192;1.0654;
238.5000;0.4217;1.0777;
238.8000;0.4217;1.0679;
239.1000;0.4217;1.0654;
239.4000;0.4225;1.0802;
239.7000;0.4225;1.0851;
240.0000;0.4217;1.0851;
240.3000;0.4225;1.0875;
240.6000;0.4200;1.0802;
240.9000;0.4233;1.0851;
241.2000;0.4225;1.0826;
241.5000;0.4233;1.0851;
241.8000;0.4225;1.0826;
242.1000;0.4217;1.0875;
242.4000;0.4217;1.0826;
242.7000;0.4225;1.0753;
243.0000;0.4217;1.0704;
243.3000;0.4119;1.0458;
243.6000;0.4217;1.0679;
243.9000;0.4217;1.0728;
244.2000;0.4208;1.0728;
244.5000;0.4225;1.0777;
244.8000;0.4208;1.0826;
245.1000;0.4208;1.0826;
245.4000;0.4208;1.0875;
245.7000;0.4225;1.0949;
246.0000;0.4225;1.0974;
246.3000;0.4208;1.0900;
246.6000;0.4241;1.0900;
246.9000;0.4225;1.0826;
247.2000;0.4225;1.0826;
247.5000;0.4249;1.0900;
247.8000;0.4208;1.0826;
248.1000;0.4225;1.0802;
248.4000;0.4217;1.0753;
248.7000;0.4217;1.0900;
249.0000;0.4200;1.0826;
249.3000;0.4217;1.0753;
249.6000;0.4192;1.0679;
249.9000;0.4208;1.0802;
250.2000;0.4192;1.0777;
250.5000;0.4160;1.0654;
250.8000;0.4217;1.0753;
251.1000;0.4225;1.0826;
251.4000;0.4225;1.0777;
251.7000;0.4208;1.0753;
252.0000;0.4241;1.0826;
252.3000;0.4217;1.0753;
252.6000;0.4355;1.1145;
252.9000;0.4184;1.0753;
253.2000;0.4274;1.1023;
253.5000;0.4265;1.0925;
253.8000;0.4208;1.0826;
254.1000;0.4217;1.0875;
254.4000;0.4217;1.0753;
254.7000;0.4225;1.0777;
255.0000;0.4225;1.0679;
255.3000;0.4208;1.0654;
255.6000;0.4217;1.0630;
255.9000;0.4225;1.0679;
256.2000;0.4217;1.0704;
256.5000;0.4208;1.0753;
256.8000;0.4217;1.0875;
257.1000;0.4208;1.0925;
257.4000;0.4241;1.0998;
257.7000;0.4233;1.0974;
258.0000;0.4208;1.0851;
258.3000;0.4208;1.0777;
258.6000;0.4217;1.0777;
258.9000;0.4217;1.0802;
259.2000;0.4208;1.0753;
259.5000;0.4208;1.0753;
259.8000;0.4233;1.0875;
260.1000;0.4225;1.0777;
260.4000;0.4217;1.0777;
260.7000;0.4200;1.0679;
261.0000;0.4208;1.0581;
261.3000;0.4225;1.0654;
261.6000;0.4143;1.0483;
261.9000;0.4208;1.0654;
262.2000;0.4160;1.0581;
262.5000;0.4217;1.0753;
262.8000;0.4257;1.0851;
263.1000;0.4241;1.0777;
263.4000;0.4208;1.0654;
263.7000;0.4119;1.0409;
264.0000;0.4217;1.0532;
264.3000;0.4225;1.0605;
264.6000;0.4225;1.0581;
264.9000;0.4217;1.0630;
265.2000;0.4176;1.0556;
265.5000;0.4249;1.0679;
265.8000;0.4233;1.0704;
266.1000;0.4233;1.0802;
266.4000;0.4233;1.0851;
266.7000;0.4241;1.1023;
267.0000;0.4233;1.0949;
267.3000;0.4217;1.0875;
267.6000;0.4241;1.0949;
267.9000;0.4208;1.0974;
268.2000;0.4192;1.0974;
268.5000;0.4200;1.1023;
268.8000;0.4225;1.1096;
269.1000;0.4233;1.1072;
269.4000;0.4233;1.1023;
269.7000;0.4241;1.0998;
270.0000;0.4208;1.0875;
270.3000;0.4217;1.0826;
270.6000;0.4225;1.0925;
270.9000;0.4208;1.0949;
271.2000;0.4217;1.1023;
271.5000;0.4208;1.0974;
271.8000;0.4217;1.1096;
272.1000;0.4200;1.0998;
272.4000;0.4192;1.0925;
272.7000;0.4200;1.0974;
273.0000;0.4135;1.0704;
273.3000;0.4208;1.0851;
273.6000;0.4290;1.1145;
273.9000;0.4233;1.0900;
274.2000;0.4127;1.0556;
274.5000;0.4217;1.0704;
274.8000;0.4208;1.0851;
275.1000;0.4200;1.0802;
275.4000;0.4200;1.0802;
275.7000;0.4217;1.0851;
276.0000;0.4192;1.0802;
276.3000;0.4265;1.0974;
276.6000;0.4217;1.0875;
276.9000;0.4306;1.1096;
277.2000;0.4200;1.0826;
277.5000;0.4184;1.0728;
277.8000;0.4200;1.0851;
278.1000;0.4151;1.0753;
278.4000;0.4217;1.0900;
278.7000;0.4200;1.0826;
279.0000;0.4208;1.0826;
279.3000;0.4208;1.0875;
279.6000;0.4208;1.0704;
279.9000;0.4208;1.0679;
280.2000;0.4200;1.0753;
280.5000;0.4192;1.0777;
280.8000;0.4208;1.0875;
281.1000;0.4225;1.0900;
281.4000;0.4225;1.0875;
281.7000;0.4217;1.0777;
282.0000;0.4233;1.0826;
282.3000;0.4192;1.0728;
282.6000;0.4200;1.0875;
282.9000;0.4192;1.0851;
283.2000;0.4168;1.0777;
283.5000;0.4200;1.0753;
283.8000;0.4192;1.0679;
284.1000;0.4217;1.0826;
284.4000;0.4217;1.0900;
284.7000;0.4208;1.0851;
285.0000;0.4208;1.0802;
285.3000;0.4184;1.0728;
285.6000;0.4208;1.0704;
285.9000;0.4208;1.0630;
286.2000;0.4217;1.0679;
286.5000;0.4208;1.0654;
286.8000;0.4176;1.0630;
287.1000;0.4160;1.0532;
287.4000;0.4225;1.0753;
287.7000;0.4208;1.0704;
288.0000;0.4200;1.0728;
288.3000;0.4200;1.0728;
288.6000;0.4208;1.0728;
288.9000;0.4200;1.0728;
289.2000;0.4241;1.0875;
289.5000;0.4217;1.0802;
289.8000;0.4233;1.0900;
290.1000;0.4200;1.0900;
290.4000;0.4225;1.0925;
290.7000;0.4225;1.0900;
291.0000;0.4184;1.0826;
291.3000;0.4192;1.0875;
291.6000;0.4208;1.0925;
291.9000;0.4200;1.0925;
292.2000;0.4192;1.0875;
292.5000;0.4200;1.1023;
292.8000;0.4217;1.1047;
293.1000;0.4233;1.0974;
293.4000;0.4241;1.0949;
293.7000;0.4217;1.0826;
294.0000;0.4200;1.0826;
294.3000;0.4225;1.0875;
294.6000;0.4233;1.0777;
294.9000;0.4200;1.0826;
295.2000;0.4217;1.0777;
295.5000;0.4217;1.0802;
295.8000;0.4208;1.0777;
296.1000;0.4192;1.0704;
296.4000;0.4233;1.0826;
296.7000;0.4225;1.0753;
297.0000;0.4241;1.0753;
297.3000;0.4200;1.0654;
297.6000;0.4274;1.0777;
297.9000;0.4208;1.0630;
298.2000;0.4241;1.0728;
298.5000;0.4208;1.0630;
298.8000;0.4217;1.0630;
299.1000;0.4184;1.0605;
299.4000;0.4298;1.0900;
299.7000;0.4233;1.0728;
300.0000;0.4225;1.0777;
300.3000;0.4257;1.0802;
300.6000;0.4217;1.0728;
300.9000;0.4241;1.0875;
301.2000;0.4217;1.0851;
301.5000;0.4217;1.0777;
301.8000;0.4265;1.0851;
302.1000;0.4208;1.0777;
302.4000;0.4217;1.0728;
302.7000;0.4192;1.0728;
303.0000;0.4217;1.0900;
303.3000;0.4225;1.0900;
303.6000;0.4208;1.0875;
303.9000;0.4241;1.0998;
304.2000;0.4241;1.0949;
304.5000;0.4208;1.0925;
304.8000;0.4208;1.0900;
305.1000;0.4217;1.0679;
305.4000;0.4217;1.0654;
305.7000;0.4225;1.0630;
306.0000;0.4192;1.0556;
306.3000;0.4208;1.0679;
306.6000;0.4200;1.0704;
306.9000;0.4217;1.0826;
307.2000;0.4225;1.0851;
307.5000;0.4208;1.0802;
307.8000;0.4200;1.0875;
308.1000;0.4217;1.0949;
308.4000;0.4217;1.0925;
308.7000;0.4200;1.0974;
309.0000;0.4192;1.0998;
309.3000;0.4233;1.1072;
309.6000;0.4225;1.0998;
309.9000;0.4143;1.0728;
310.2000;0.4200;1.0851;
310.5000;0.4217;1.0925;
310.8000;0.4200;1.0875;
311.1000;0.4184;1.0925;
311.4000;0.4200;1.0900;
311.7000;0.4208;1.0949;
312.0000;0.4225;1.0900;
312.3000;0.4200;1.0875;
312.6000;0.4200;1.0949;
312.9000;0.4225;1.0974;
313.2000;0.4233;1.1047;
313.5000;0.4217;1.1072;
313.8000;0.4200;1.0998;
314.1000;0.4208;1.1023;
314.4000;0.4200;1.1023;
314.7000;0.4241;1.1072;
315.0000;0.4257;1.1072;
315.3000;0.4217;1.0998;
315.6000;0.4208;1.1072;
315.9000;0.4217;1.1072;
316.2000;0.4176;1.0974;
316.5000;0.4208;1.0925;
316.8000;0.4233;1.0900;
317.1000;0.4200;1.0875;
317.4000;0.4225;1.0949;
317.7000;0.4192;1.0900;
318.0000;0.4225;1.0900;
318.3000;0.4217;1.0900;
318.6000;0.4282;1.1023;
318.9000;0.4233;1.0900;
319.2000;0.4225;1.0974;
319.5000;0.4208;1.0875;
319.8000;0.4233;1.0925;
320.1000;0.4225;1.0875;
320.4000;0.4168;1.0777;
320.7000;0.4200;1.0900;
321.0000;0.4208;1.0949;
321.3000;0.4208;1.0925;
321.6000;0.4282;1.1170;
321.9000;0.4208;1.0875;
322.2000;0.4217;1.0875;
322.5000;0.4217;1.0826;
322.8000;0.4200;1.0777;
323.1000;0.4208;1.0826;
323.4000;0.4184;1.0826;
323.7000;0.4233;1.0949;
324.0000;0.4208;1.0851;
324.3000;0.4184;1.0826;
324.6000;0.4265;1.1121;
324.9000;0.4241;1.1096;
325.2000;0.4217;1.1072;
325.5000;0.4217;1.1047;
325.8000;0.4314;1.1293;
326.1000;0.4233;1.1047;
326.4000;0.4225;1.0949;
326.7000;0.4200;1.0925;
327.0000;0.4208;1.0974;
327.3000;0.4217;1.1047;
327.6000;0.4200;1.1023;
327.9000;0.4241;1.0974;
328.2000;0.4208;1.0925;
328.5000;0.4160;1.0826;
328.8000;0.4225;1.0998;
329.1000;0.4217;1.0998;
329.4000;0.4217;1.0949;
329.7000;0.4217;1.0900;
330.0000;0.4208;1.0900;
330.3000;0.4184;1.0851;
330.6000;0.4217;1.0875;
330.9000;0.4217;1.0826;
331.2000;0.4208;1.0777;
331.5000;0.4208;1.0728;
331.8000;0.4208;1.0728;
332.1000;0.4200;1.0753;
332.4000;0.4208;1.0777;
332.7000;0.4233;1.0925;
333.0000;0.4217;1.0900;
333.3000;0.4208;1.0925;
333.6000;0.4225;1.0826;
333.9000;0.4208;1.0777;
334.2000;0.4208;1.0802;
334.5000;0.4192;1.0900;
334.8000;0.4200;1.0900;
335.1000;0.4217;1.0900;
335.4000;0.4208;1.0949;
335.7000;0.4225;1.0949;
336.0000;0.4192;1.0925;
336.3000;0.4208;1.0949;
336.6000;0.4200;1.0925;
336.9000;0.4200;1.0826;
337.2000;0.4192;1.0802;
337.5000;0.4217;1.0875;
337.8000;0.4225;1.0851;
338.1000;0.4225;1.0875;
338.4000;0.4217;1.0826;
338.7000;0.4233;1.0851;
339.0000;0.4208;1.0875;
339.3000;0.4208;1.0925;
339.6000;0.4217;1.0900;
339.9000;0.4184;1.0875;
340.2000;0.4208;1.0875;
340.5000;0.4208;1.0851;
340.8000;0.4208;1.0753;
341.1000;0.4225;1.0753;
341.4000;0.4217;1.0679;
341.7000;0.4217;1.0777;
342.0000;0.4192;1.0777;
342.3000;0.4176;1.0728;
342.6000;0.4208;1.0851;
342.9000;0.4233;1.0925;
343.2000;0.4192;1.0826;
343.5000;0.4233;1.0802;
343.8000;0.4176;1.0704;
344.1000;0.4192;1.0704;
344.4000;0.4160;1.0581;
344.7000;0.4217;1.0704;
345.0000;0.4225;1.0777;
345.3000;0.4217;1.0753;
345.6000;0.4168;1.0654;
345.9000;0.4208;1.0802;
346.2000;0.4208;1.0802;
346.5000;0.4143;1.0654;
346.8000;0.4200;1.0875;
347.1000;0.4192;1.0851;
347.4000;0.4208;1.0900;
347.7000;0.4225;1.0900;
348.0000;0.4225;1.0900;
348.3000;0.4200;1.0826;
348.6000;0.4208;1.0875;
348.9000;0.4208;1.0851;
349.2000;0.4225;1.0900;
349.5000;0.4217;1.0851;
349.8000;0.4225;1.0925;
350.1000;0.4233;1.0925;
350.4000;0.4225;1.0851;
350.7000;0.4217;1.0753;
351.0000;0.4217;1.0802;
351.3000;0.4208;1.0900;
351.6000;0.4225;1.0900;
351.9000;0.4208;1.0900;
352.2000;0.4208;1.0826;
352.5000;0.4192;1.0826;
352.8000;0.4225;1.0826;
353.1000;0.4208;1.0753;
353.4000;0.4160;1.0679;
353.7000;0.4200;1.0728;
354.0000;0.4208;1.0753;
354.3000;0.4217;1.0753;
354.6000;0.4217;1.0802;
354.9000;0.4200;1.0704;
355.2000;0.4233;1.0802;
355.5000;0.4225;1.0875;
355.8000;0.4208;1.0826;
356.1000;0.4233;1.0802;
356.4000;0.4225;1.0802;
356.7000;0.4217;1.0826;
357.0000;0.4225;1.0802;
357.3000;0.4225;1.0728;
357.6000;0.4225;1.0704;
357.9000;0.4257;1.0753;
358.2000;0.4200;1.0654;
358.5000;0.4208;1.0679;
358.8000;0.4217;1.0777;
359.1000;0.4225;1.0728;
359.4000;0.4208;1.0753;
359.7000;0.4217;1.0777;
360.0000;0.4208;1.0777;
360.3000;0.4225;1.0802;
360.6000;0.4217;1.0826;
360.9000;0.4208;1.0704;
361.2000;0.4217;1.0753;
361.5000;0.4225;1.0802;
361.8000;0.4217;1.0753;
362.1000;0.4208;1.0728;
362.4000;0.4217;1.0777;
362.7000;0.4208;1.0728;
363.0000;0.4208;1.0777;
363.3000;0.4192;1.0728;
363.6000;0.4208;1.0802;
363.9000;0.4200;1.0753;
364.2000;0.4208;1.0802;
364.5000;0.4176;1.0777;
364.8000;0.4200;1.0949;
365.1000;0.4200;1.0998;
365.4000;0.4217;1.1023;
365.7000;0.4208;1.0974;
366.0000;0.4217;1.0949;
366.3000;0.4184;1.0777;
366.6000;0.4233;1.0802;
366.9000;0.4200;1.0777;
367.2000;0.4208;1.0753;
367.5000;0.4208;1.0777;
367.8000;0.4208;1.0777;
368.1000;0.4200;1.0802;
368.4000;0.4217;1.0802;
368.7000;0.4208;1.0630;
369.0000;0.4225;1.0753;
369.3000;0.4233;1.0826;
369.6000;0.4265;1.1072;
369.9000;0.4184;1.0949;
370.2000;0.4208;1.0925;
370.5000;0.4241;1.0925;
370.8000;0.4217;1.0900;
371.1000;0.4208;1.0851;
371.4000;0.4160;1.0728;
371.7000;0.4168;1.0704;
372.0000;0.4200;1.0728;
372.3000;0.4184;1.0704;
372.6000;0.4208;1.0728;
372.9000;0.4217;1.0654;
373.2000;0.4217;1.0728;
373.5000;0.4208;1.0728;
373.8000;0.4225;1.0826;
374.1000;0.4208;1.0826;
374.4000;0.4217;1.0875;
374.7000;0.4217;1.0900;
375.0000;0.4176;1.0900;
375.3000;0.4208;1.0998;
375.6000;0.4217;1.1047;
375.9000;0.4151;1.0851;
376.2000;0.4200;1.0974;
376.5000;0.4200;1.0925;
376.8000;0.4233;1.0949;
377.1000;0.4249;1.0900;
377.4000;0.4208;1.0826;
377.7000;0.4208;1.0802;
378.0000;0.4217;1.0679;
378.3000;0.4200;1.0605;
378.6000;0.4225;1.0679;
378.9000;0.4176;1.0605;
379.2000;0.4184;1.0654;
379.5000;0.4200;1.0728;
379.8000;0.4200;1.0728;
380.1000;0.4103;1.0458;
380.4000;0.4208;1.0753;
380.7000;0.4233;1.0875;
381.0000;0.4217;1.0777;
381.3000;0.4217;1.0753;
381.6000;0.4233;1.0875;
381.9000;0.4176;1.0728;
382.2000;0.4151;1.0630;
382.5000;0.4184;1.0654;
382.8000;0.4208;1.0605;
383.1000;0.4249;1.0826;
383.4000;0.4200;1.0704;
383.7000;0.4200;1.0728;
384.0000;0.4274;1.0974;
384.3000;0.4217;1.0851;
384.6000;0.4176;1.0826;
384.9000;0.4217;1.0851;
385.2000;0.4200;1.0851;
385.5000;0.4208;1.0875;
385.8000;0.4217;1.0851;
386.1000;0.4151;1.0605;
386.4000;0.4192;1.0704;
386.7000;0.4217;1.0728;
387.0000;0.4200;1.0704;
387.3000;0.4192;1.0777;
387.6000;0.4200;1.0704;
387.9000;0.4160;1.0581;
388.2000;0.4217;1.0728;
388.5000;0.4200;1.0630;
388.8000;0.4200;1.0654;
389.1000;0.4192;1.0654;
389.4000;0.4208;1.0679;
389.7000;0.4217;1.0679;
390.0000;0.4208;1.0679;
390.3000;0.4217;1.0654;
390.6000;0.4257;1.0704;
390.9000;0.4274;1.0802;
391.2000;0.4217;1.0630;
391.5000;0.4217;1.0777;
391.8000;0.4241;1.0875;
392.1000;0.4200;1.0777;
392.4000;0.4265;1.0900;
392.7000;0.4192;1.0728;
393.0000;0.4200;1.0753;
393.3000;0.4217;1.0851;
393.6000;0.4208;1.0802;
393.9000;0.4208;1.0900;
394.2000;0.4208;1.0974;
394.5000;0.4200;1.0998;
394.8000;0.4290;1.1195;
395.1000;0.4225;1.0974;
395.4000;0.4200;1.0974;
395.7000;0.4168;1.0925;
396.0000;0.4217;1.0949;
396.3000;0.4168;1.0777;
396.6000;0.4192;1.0777;
396.9000;0.4225;1.0777;
397.2000;0.4208;1.0826;
397.5000;0.4200;1.0826;
397.8000;0.4200;1.0802;
398.1000;0.4200;1.0753;
398.4000;0.4208;1.0654;
398.7000;0.4192;1.0556;
399.0000;0.4217;1.0532;
399.3000;0.4225;1.0630;
399.6000;0.4208;1.0605;
399.9000;0.4192;1.0556;
400.2000;0.4200;1.0532;
400.5000;0.4200;1.0532;
400.8000;0.4217;1.0605;
401.1000;0.4225;1.0630;
401.4000;0.4217;1.0630;
401.7000;0.4208;1.0507;
402.0000;0.4225;1.0581;
402.3000;0.4217;1.0556;
402.6000;0.4208;1.0605;
402.9000;0.4200;1.0605;
403.2000;0.4217;1.0728;
403.5000;0.4208;1.0728;
403.8000;0.4200;1.0753;
404.1000;0.4200;1.0777;
404.4000;0.4208;1.0875;
404.7000;0.4217;1.0925;
405.0000;0.4200;1.0925;
405.3000;0.4208;1.0900;
405.6000;0.4143;1.0753;
405.9000;0.4217;1.0974;
406.2000;0.4200;1.0974;
406.5000;0.4200;1.0998;
406.8000;0.4217;1.0949;
407.1000;0.4208;1.0998;
407.4000;0.4184;1.0974;
407.7000;0.4200;1.0974;
408.0000;0.4233;1.1047;
408.3000;0.4208;1.1023;
408.6000;0.4217;1.0974;
408.9000;0.4217;1.0974;
409.2000;0.4160;1.0753;
409.5000;0.4241;1.0974;
409.8000;0.4225;1.0925;
410.1000;0.4233;1.0998;
410.4000;0.4192;1.0900;
410.7000;0.4225;1.0925;
411.0000;0.4233;1.0974;
411.3000;0.4208;1.0974;
411.6000;0.4217;1.1072;
411.9000;0.4217;1.1096;
412.2000;0.4233;1.1219;
412.5000;0.4225;1.1219;
412.8000;0.4241;1.1195;
413.1000;0.4233;1.1219;
413.4000;0.4176;1.1096;
413.7000;0.4176;1.1244;
414.0000;0.4225;1.1317;
414.3000;0.4135;1.0998;
414.6000;0.4135;1.1023;
414.9000;0.4241;1.1268;
415.2000;0.4208;1.1195;
415.5000;0.4265;1.1342;
415.8000;0.4208;1.1096;
416.1000;0.4208;1.0974;
416.4000;0.4217;1.1047;
416.7000;0.4192;1.0974;
417.0000;0.4200;1.1023;
417.3000;0.4217;1.1072;
417.6000;0.4290;1.1195;
417.9000;0.4168;1.0998;
418.2000;0.4200;1.1170;
418.5000;0.4208;1.1121;
418.8000;0.4225;1.1121;
419.1000;0.4233;1.1072;
419.4000;0.4200;1.0998;
419.7000;0.4225;1.1023;
420.0000;0.4233;1.0998;
420.3000;0.4225;1.0925;
420.6000;0.4217;1.0900;
420.9000;0.4217;1.0851;
421.2000;0.4225;1.0826;
421.5000;0.4274;1.0998;
421.8000;0.4200;1.0900;
422.1000;0.4192;1.0949;
422.4000;0.4192;1.1023;
422.7000;0.4200;1.0974;
423.0000;0.4200;1.0974;
423.3000;0.4217;1.0974;
423.6000;0.4208;1.1023;
423.9000;0.4225;1.1072;
424.2000;0.4225;1.0998;
424.5000;0.4208;1.0974;
424.8000;0.4225;1.1096;
425.1000;0.4200;1.1072;
425.4000;0.4225;1.1047;
425.7000;0.4200;1.0974;
426.0000;0.4217;1.0998;
426.3000;0.4225;1.0998;
426.6000;0.4217;1.1023;
426.9000;0.4184;1.0974;
427.2000;0.4192;1.0998;
427.5000;0.4192;1.0925;
427.8000;0.4233;1.1072;
428.1000;0.4208;1.1047;
428.4000;0.4184;1.1047;
428.7000;0.4200;1.1072;
429.0000;0.4208;1.1096;
429.3000;0.4208;1.1096;
429.6000;0.4192;1.1121;
429.9000;0.4208;1.1219;
430.2000;0.4200;1.1195;
430.5000;0.4249;1.1219;
430.8000;0.4274;1.1317;
431.1000;0.4192;1.1170;
431.4000;0.4192;1.1219;
431.7000;0.4217;1.1219;
432.0000;0.4208;1.1145;
432.3000;0.4208;1.1121;
432.6000;0.4208;1.1072;
432.9000;0.4257;1.1145;
433.2000;0.4200;1.0998;
433.5000;0.4233;1.1170;
433.8000;0.4233;1.1145;
434.1000;0.4225;1.1121;
434.4000;0.4225;1.1047;
434.7000;0.4200;1.0998;
435.0000;0.4217;1.0974;
435.3000;0.4217;1.0949;
435.6000;0.4225;1.1047;
435.9000;0.4184;1.0925;
436.2000;0.4208;1.0998;
436.5000;0.4233;1.1023;
436.8000;0.4192;1.0949;
437.1000;0.4208;1.0949;
437.4000;0.4176;1.0925;
437.7000;0.4176;1.0998;
438.0000;0.4192;1.1145;
438.3000;0.4192;1.1121;
438.6000;0.4200;1.1195;
438.9000;0.4200;1.1096;
439.2000;0.4200;1.1072;
439.5000;0.4200;1.1047;
439.8000;0.4200;1.1072;
440.1000;0.4208;1.1072;
440.4000;0.4217;1.1023;
440.7000;0.4217;1.0925;
441.0000;0.4225;1.0900;
441.3000;0.4217;1.0851;
441.6000;0.4233;1.0826;
441.9000;0.4200;1.0679;
442.2000;0.4217;1.0728;
442.5000;0.4200;1.0851;
442.8000;0.4208;1.0998;
443.1000;0.4200;1.0998;
443.4000;0.4200;1.0949;
443.7000;0.4208;1.1023;
444.0000;0.4208;1.1023;
444.3000;0.4200;1.0974;
444.6000;0.4217;1.0998;
444.9000;0.4217;1.0949;
445.2000;0.4217;1.0974;
445.5000;0.4208;1.0875;
445.8000;0.4208;1.0925;
446.1000;0.4217;1.0998;
446.4000;0.4217;1.0949;
446.7000;0.4225;1.1072;
447.0000;0.4217;1.0949;
447.3000;0.4217;1.1023;
447.6000;0.4200;1.0998;
447.9000;0.4208;1.1072;
448.2000;0.4217;1.0998;
448.5000;0.4217;1.0998;
448.8000;0.4208;1.1072;
449.1000;0.4233;1.1072;
449.4000;0.4241;1.1023;
449.7000;0.4208;1.1072;
450.0000;0.4217;1.1047;
450.3000;0.4217;1.1023;
450.6000;0.4233;1.1047;
450.9000;0.4208;1.0998;
451.2000;0.4200;1.0998;
451.5000;0.4225;1.1047;
451.8000;0.4241;1.1121;
452.1000;0.4225;1.1023;
452.4000;0.4208;1.0851;
452.7000;0.4314;1.1121;
453.0000;0.4217;1.0802;
453.3000;0.4217;1.0802;
453.6000;0.4225;1.0851;
453.9000;0.4217;1.0851;
454.2000;0.4217;1.0777;
454.5000;0.4208;1.0802;
454.8000;0.4233;1.0900;
455.1000;0.4208;1.0875;
455.4000;0.4225;1.0875;
455.7000;0.4192;1.0802;
456.0000;0.4217;1.0826;
456.3000;0.4217;1.0925;
456.6000;0.4200;1.0974;
456.9000;0.4217;1.0925;
457.2000;0.4225;1.0925;
457.5000;0.4192;1.0802;
457.8000;0.4200;1.0875;
458.1000;0.4208;1.0949;
458.4000;0.4176;1.0900;
458.7000;0.4200;1.0900;
459.0000;0.4184;1.0875;
459.3000;0.4176;1.0900;
459.6000;0.4217;1.1121;
459.9000;0.4192;1.1096;
460.2000;0.4168;1.1047;
460.5000;0.4208;1.1145;
460.8000;0.4208;1.1023;
461.1000;0.4200;1.0974;
461.4000;0.4184;1.0974;
461.7000;0.4192;1.1121;
462.0000;0.4184;1.1072;
462.3000;0.4192;1.1121;
462.6000;0.4233;1.1268;
462.9000;0.4208;1.1219;
463.2000;0.4192;1.1195;
463.5000;0.4217;1.1170;
463.8000;0.4217;1.1219;
464.1000;0.4200;1.1145;
464.4000;0.4208;1.1096;
464.7000;0.4217;1.1096;
465.0000;0.4184;1.1096;
465.3000;0.4176;1.0974;
465.6000;0.4184;1.0949;
465.9000;0.4184;1.0875;
466.2000;0.4208;1.0900;
466.5000;0.4233;1.0998;
466.8000;0.4217;1.0900;
467.1000;0.4208;1.0900;
467.4000;0.4200;1.0851;
467.7000;0.4200;1.0875;
468.0000;0.4208;1.0900;
468.3000;0.4200;1.0851;
468.6000;0.4208;1.0875;
468.9000;0.4192;1.0925;
469.2000;0.4151;1.0900;
469.5000;0.4200;1.1047;
469.8000;0.4192;1.1023;
470.1000;0.4200;1.0974;
470.4000;0.4176;1.0925;
470.7000;0.4217;1.0974;
471.0000;0.4217;1.1023;
471.3000;0.4217;1.1047;
471.6000;0.4192;1.0974;
471.9000;0.4200;1.0974;
472.2000;0.4208;1.1023;
472.5000;0.4208;1.0998;
472.8000;0.4200;1.0949;
473.1000;0.4200;1.0949;
473.4000;0.4184;1.0925;
473.7000;0.4160;1.0802;
474.0000;0.4200;1.0826;
474.3000;0.4200;1.0777;
474.6000;0.4192;1.0777;
474.9000;0.4208;1.0679;
475.2000;0.4200;1.0753;
475.5000;0.4200;1.0875;
475.8000;0.4217;1.0900;
476.1000;0.4119;1.0704;
476.4000;0.4200;1.0802;
476.7000;0.4257;1.0998;
477.0000;0.4208;1.0949;
477.3000;0.4200;1.0925;
477.6000;0.4200;1.0974;
477.9000;0.4184;1.0925;
478.2000;0.4200;1.0974;
478.5000;0.4192;1.0974;
478.8000;0.4217;1.0998;
479.1000;0.4233;1.1023;
479.4000;0.4217;1.0900;
479.7000;0.4217;1.0949;
480.0000;0.4208;1.0974;
480.3000;0.4233;1.0998;
480.6000;0.4200;1.0974;
480.9000;0.4200;1.0974;
481.2000;0.4208;1.1072;
481.5000;0.4192;1.0998;
481.8000;0.4192;1.1047;
482.1000;0.4217;1.1072;
482.4000;0.4160;1.0875;
482.7000;0.4168;1.0900;
483.0000;0.4208;1.0998;
483.3000;0.4257;1.1047;
483.6000;0.4217;1.0925;
483.9000;0.4200;1.0900;
484.2000;0.4225;1.0900;
484.5000;0.4192;1.0925;
484.8000;0.4200;1.0875;
485.1000;0.4200;1.0900;
485.4000;0.4208;1.0900;
485.7000;0.4225;1.0925;
486.0000;0.4217;1.0875;
486.3000;0.4233;1.0900;
486.6000;0.4200;1.0802;
486.9000;0.4208;1.0753;
487.2000;0.4208;1.0753;
487.5000;0.4225;1.0949;
487.8000;0.4233;1.0949;
488.1000;0.4217;1.0826;
488.4000;0.4217;1.0802;
488.7000;0.4200;1.0802;
489.0000;0.4208;1.0900;
489.3000;0.4192;1.0925;
489.6000;0.4208;1.0851;
489.9000;0.4192;1.0826;
490.2000;0.4192;1.0851;
490.5000;0.4176;1.0851;
490.8000;0.4208;1.0925;
491.1000;0.4192;1.0998;
491.4000;0.4160;1.0925;
491.7000;0.4192;1.1047;
492.0000;0.4208;1.0998;
492.3000;0.4184;1.0900;
492.6000;0.4192;1.0974;
492.9000;0.4200;1.1023;
493.2000;0.4290;1.1244;
493.5000;0.4200;1.0998;
493.8000;0.4208;1.0998;
494.1000;0.4184;1.0949;
494.4000;0.4192;1.1023;
494.7000;0.4200;1.0998;
495.0000;0.4208;1.1072;
495.3000;0.4208;1.0974;
495.6000;0.4225;1.0949;
495.9000;0.4208;1.0925;
496.2000;0.4200;1.0851;
496.5000;0.4200;1.0851;
496.8000;0.4200;1.0802;
497.1000;0.4217;1.0900;
497.4000;0.4217;1.0998;
497.7000;0.4176;1.0900;
498.0000;0.4200;1.0875;
498.3000;0.4208;1.0925;
498.6000;0.4160;1.0875;
498.9000;0.4200;1.0998;
499.2000;0.4184;1.1023;
499.5000;0.4184;1.1121;
499.8000;0.4192;1.1195;
500.1000;0.4143;1.1047;
500.4000;0.4208;1.1170;
500.7000;0.4274;1.1416;
501.0000;0.4192;1.1170;
501.3000;0.4208;1.1244;
501.6000;0.4184;1.1121;
501.9000;0.4192;1.1145;
502.2000;0.4176;1.1023;
502.5000;0.4217;1.1072;
502.8000;0.4184;1.0925;
503.1000;0.4184;1.0974;
503.4000;0.4184;1.0925;
503.7000;0.4200;1.0998;
504.0000;0.4184;1.0998;
504.3000;0.4168;1.0974;
504.6000;0.4200;1.1121;
504.9000;0.4208;1.1219;
505.2000;0.4200;1.1195;
505.5000;0.4217;1.1170;
505.8000;0.4200;1.1096;
506.1000;0.4217;1.1219;
506.4000;0.4151;1.1145;
506.7000;0.4208;1.1244;
507.0000;0.4200;1.1170;
507.3000;0.4192;1.1170;
507.6000;0.4208;1.1121;
507.9000;0.4217;1.1072;
508.2000;0.4208;1.1047;
508.5000;0.4200;1.1096;
508.8000;0.4200;1.1047;
509.1000;0.4192;1.1023;
509.4000;0.4151;1.0802;
509.7000;0.4192;1.0875;
510.0000;0.4208;1.0900;
510.3000;0.4241;1.1023;
510.6000;0.4184;1.0925;
510.9000;0.4192;1.0925;
511.2000;0.4184;1.0900;
511.5000;0.4217;1.0925;
511.8000;0.4208;1.0875;
512.1000;0.4192;1.0826;
512.4000;0.4217;1.0925;
512.7000;0.4225;1.0851;
513.0000;0.4200;1.0826;
513.3000;0.4184;1.0900;
513.6000;0.4208;1.0949;
513.9000;0.4225;1.0998;
514.2000;0.4225;1.1096;
514.5000;0.4225;1.1047;
514.8000;0.4217;1.1072;
515.1000;0.4217;1.1072;
515.4000;0.4233;1.1072;
515.7000;0.4208;1.1047;
516.0000;0.4225;1.1072;
516.3000;0.4225;1.0974;
516.6000;0.4208;1.0974;
516.9000;0.4192;1.0949;
517.2000;0.4192;1.0900;
517.5000;0.4208;1.0851;
517.8000;0.4241;1.0851;
518.1000;0.4184;1.0753;
518.4000;0.4217;1.0900;
518.7000;0.4217;1.0925;
519.0000;0.4225;1.0900;
519.3000;0.4208;1.0900;
519.6000;0.4200;1.0900;
519.9000;0.4192;1.0802;
520.2000;0.4168;1.0753;
520.5000;0.4200;1.0802;
520.8000;0.4192;1.0753;
521.1000;0.4200;1.0753;
521.4000;0.4208;1.0826;
521.7000;0.4208;1.0826;
522.0000;0.4192;1.0704;
522.3000;0.4176;1.0679;
522.6000;0.4192;1.0728;
522.9000;0.4208;1.0777;
523.2000;0.4225;1.0826;
523.5000;0.4192;1.0802;
523.8000;0.4184;1.0925;
524.1000;0.4192;1.1047;
524.4000;0.4217;1.1072;
524.7000;0.4208;1.1023;
525.0000;0.4208;1.1023;
525.3000;0.4314;1.1317;
525.6000;0.4200;1.1023;
525.9000;0.4290;1.1219;
526.2000;0.4241;1.1121;
526.5000;0.4265;1.1195;
526.8000;0.4200;1.0998;
527.1000;0.4192;1.0900;
527.4000;0.4168;1.0949;
527.7000;0.4217;1.1023;
528.0000;0.4184;1.0900;
528.3000;0.4208;1.0900;
528.6000;0.4192;1.0900;
528.9000;0.4208;1.0851;
529.2000;0.4200;1.0851;
529.5000;0.4127;1.0654;
529.8000;0.4208;1.0826;
530.1000;0.4241;1.0875;
530.4000;0.4094;1.0532;
530.7000;0.4168;1.0900;
531.0000;0.4257;1.1170;
531.3000;0.4192;1.1047;
531.6000;0.4225;1.1170;
531.9000;0.4176;1.1047;
532.2000;0.4200;1.1072;
532.5000;0.4200;1.0998;
532.8000;0.4233;1.1023;
533.1000;0.4208;1.0998;
533.4000;0.4208;1.0974;
533.7000;0.4192;1.0900;
534.0000;0.4184;1.0875;
534.3000;0.4192;1.0900;
534.6000;0.4233;1.0998;
534.9000;0.4233;1.0974;
535.2000;0.4200;1.0974;
535.5000;0.4208;1.0974;
535.8000;0.4192;1.0949;
536.1000;0.4192;1.0949;
536.4000;0.4192;1.0875;
536.7000;0.4208;1.0900;
537.0000;0.4208;1.0998;
537.3000;0.4184;1.0875;
537.6000;0.4200;1.0925;
537.9000;0.4184;1.0949;
538.2000;0.4200;1.0851;
538.5000;0.4192;1.0875;
538.8000;0.4192;1.0875;
539.1000;0.4208;1.0826;
539.4000;0.4217;1.0826;
539.7000;0.4200;1.0802;
540.0000;0.4200;1.0826;
540.3000;0.4200;1.0802;
540.6000;0.4200;1.0826;
540.9000;0.4249;1.0949;
541.2000;0.4217;1.0875;
541.5000;0.4282;1.1023;
541.8000;0.4208;1.0802;
542.1000;0.4208;1.0851;
542.4000;0.4217;1.0704;
542.7000;0.4135;1.0581;
543.0000;0.4217;1.0654;
543.3000;0.4151;1.0458;
543.6000;0.4192;1.0679;
543.9000;0.4200;1.0802;
544.2000;0.4176;1.0777;
544.5000;0.4208;1.0826;
544.8000;0.4192;1.0802;
545.1000;0.4200;1.0851;
545.4000;0.4200;1.0753;
545.7000;0.4176;1.0753;
546.0000;0.4200;1.0875;
546.3000;0.4200;1.0728;
546.6000;0.4184;1.0728;
546.9000;0.4192;1.0753;
547.2000;0.4184;1.0679;
547.5000;0.4168;1.0581;
547.8000;0.4184;1.0556;
548.1000;0.4176;1.0728;
548.4000;0.4208;1.0925;
548.7000;0.4151;1.0777;
549.0000;0.4151;1.0851;
549.3000;0.4225;1.0998;
549.6000;0.4233;1.1096;
549.9000;0.4233;1.1023;
550.2000;0.4217;1.0998;
550.5000;0.4200;1.0949;
550.8000;0.4225;1.0974;
551.1000;0.4217;1.0925;
551.4000;0.4200;1.0826;
551.7000;0.4249;1.0925;
552.0000;0.4184;1.0704;
552.3000;0.4192;1.0802;
552.6000;0.4200;1.0851;
552.9000;0.4192;1.0826;
553.2000;0.4225;1.0875;
553.5000;0.4168;1.0802;
553.8000;0.4225;1.0826;
554.1000;0.4200;1.0704;
554.4000;0.4233;1.0753;
554.7000;0.4160;1.0605;
555.0000;0.4208;1.0777;
555.3000;0.4192;1.0753;
555.6000;0.4241;1.0753;
555.9000;0.4225;1.0654;
556.2000;0.4200;1.0630;
556.5000;0.4192;1.0605;
556.8000;0.4192;1.0556;
557.1000;0.4192;1.0556;
557.4000;0.4192;1.0434;
557.7000;0.4200;1.0458;
558.0000;0.4192;1.0458;
558.3000;0.4208;1.0507;
558.6000;0.4192;1.0507;
558.9000;0.4200;1.0458;
559.2000;0.4192;1.0556;
559.5000;0.4208;1.0654;
559.8000;0.4208;1.0581;
560.1000;0.4200;1.0581;
560.4000;0.4233;1.0802;
560.7000;0.4217;1.0777;
561.0000;0.4217;1.0802;
561.3000;0.4184;1.0605;
561.6000;0.4200;1.0581;
561.9000;0.4200;1.0581;
562.2000;0.4200;1.0605;
562.5000;0.4192;1.0556;
562.8000;0.4225;1.0704;
563.1000;0.4192;1.0605;
563.4000;0.4200;1.0654;
563.7000;0.4192;1.0728;
564.0000;0.4192;1.0654;
564.3000;0.4192;1.0679;
564.6000;0.4208;1.0679;
564.9000;0.4225;1.0728;
565.2000;0.4200;1.0630;
565.5000;0.4217;1.0679;
565.8000;0.4127;1.0581;
566.1000;0.4192;1.0802;
566.4000;0.4192;1.0753;
566.7000;0.4184;1.0728;
567.0000;0.4200;1.0802;
567.3000;0.4200;1.0925;
567.6000;0.4200;1.0826;
567.9000;0.4200;1.0753;
568.2000;0.4233;1.0974;
568.5000;0.4208;1.0875;
568.8000;0.4192;1.0851;
569.1000;0.4200;1.0851;
569.4000;0.4200;1.0851;
569.7000;0.4184;1.0851;
570.0000;0.4200;1.0875;
570.3000;0.4265;1.1023;
570.6000;0.4208;1.0925;
570.9000;0.4192;1.0875;
571.2000;0.4249;1.0998;
571.5000;0.4184;1.0925;
571.8000;0.4176;1.0900;
572.1000;0.4208;1.0974;
572.4000;0.4200;1.0974;
572.7000;0.4184;1.0851;
573.0000;0.4200;1.0998;
573.3000;0.4184;1.0998;
573.6000;0.4184;1.0925;
573.9000;0.4192;1.0925;
574.2000;0.4192;1.0949;
574.5000;0.4200;1.0949;
574.8000;0.4200;1.0925;
575.1000;0.4200;1.0974;
575.4000;0.4184;1.0851;
575.7000;0.4192;1.0777;
576.0000;0.4200;1.0802;
576.3000;0.4151;1.0630;
576.6000;0.4217;1.0753;
576.9000;0.4208;1.0753;
577.2000;0.4200;1.0753;
577.5000;0.4184;1.0802;
577.8000;0.4200;1.0826;
578.1000;0.4192;1.0753;
578.4000;0.4241;1.0949;
578.7000;0.4208;1.0925;
579.0000;0.4200;1.0875;
579.3000;0.4160;1.0802;
579.6000;0.4168;1.0925;
579.9000;0.4192;1.0974;
580.2000;0.4200;1.1023;
580.5000;0.4192;1.1047;
580.8000;0.4176;1.1072;
581.1000;0.4192;1.0998;
581.4000;0.4274;1.1145;
581.7000;0.4184;1.0875;
582.0000;0.4184;1.0826;
582.3000;0.4184;1.0753;
582.6000;0.4176;1.0728;
582.9000;0.4184;1.0679;
583.2000;0.4176;1.0605;
583.5000;0.4233;1.0777;
583.8000;0.4200;1.0753;
584.1000;0.4225;1.0851;
584.4000;0.4208;1.0875;
584.7000;0.4208;1.0802;
585.0000;0.4200;1.0900;
585.3000;0.4200;1.0925;
585.6000;0.4208;1.0875;
585.9000;0.4200;1.0875;
586.2000;0.4208;1.0925;
586.5000;0.4192;1.0875;
586.8000;0.4192;1.0900;
587.1000;0.4192;1.0949;
587.4000;0.4217;1.0900;
587.7000;0.4184;1.0777;
588.0000;0.4192;1.0777;
588.3000;0.4168;1.0679;
588.6000;0.4135;1.0679;
588.9000;0.4282;1.0998;
589.2000;0.4200;1.0802;
589.5000;0.4200;1.0777;
589.8000;0.4151;1.0630;
590.1000;0.4217;1.0777;
590.4000;0.4217;1.0925;
590.7000;0.4151;1.0630;
591.0000;0.4168;1.0777;
591.3000;0.4143;1.0704;
591.6000;0.4233;1.0949;
591.9000;0.4192;1.0875;
592.2000;0.4160;1.0777;
592.5000;0.4192;1.0900;
592.8000;0.4225;1.0925;
593.1000;0.4200;1.0900;
593.4000;0.4200;1.0826;
593.7000;0.4208;1.0900;
594.0000;0.4217;1.0949;
594.3000;0.4233;1.0974;
594.6000;0.4208;1.0900;
594.9000;0.4192;1.0900;
595.2000;0.4225;1.0974;
595.5000;0.4217;1.0974;
595.8000;0.4184;1.0875;
596.1000;0.4200;1.0925;
596.4000;0.4217;1.0875;
596.7000;0.4225;1.0900;
597.0000;0.4200;1.0925;
597.3000;0.4274;1.1072;
597.6000;0.4200;1.0826;
597.9000;0.4192;1.0826;
598.2000;0.4208;1.0704;
598.5000;0.4192;1.0679;
598.8000;0.4192;1.0630;
599.1000;0.4217;1.0605;
599.4000;0.4208;1.0605;
599.7000;0.4200;1.0679;
600.0000;0.4249;1.0851;
600.3000;0.4200;1.0532;
600.6000;0.4217;1.0483;
600.9000;0.4200;1.0458;
601.2000;0.4192;1.0360;
601.5000;0.4143;1.0286;
601.8000;0.4111;1.0163;
602.1000;0.4094;1.0090;
602.4000;0.4062;1.0065;
602.7000;0.4046;1.0016;
603.0000;0.4029;1.0041;
603.3000;0.4013;0.9918;
603.6000;0.3972;0.9722;
603.9000;0.3964;0.9574;
604.2000;0.3923;0.9550;
604.5000;0.3899;0.9427;
604.8000;0.3875;0.9329;
605.1000;0.3875;0.9427;
605.4000;0.3858;0.9378;
605.7000;0.3818;0.9304;
606.0000;0.3769;0.9206;
606.3000;0.3801;0.9353;
606.6000;0.3785;0.9353;
606.9000;0.3793;0.9378;
607.2000;0.3744;0.9280;
607.5000;0.3720;0.9280;
607.8000;0.3663;0.9157;
608.1000;0.3704;0.9255;
608.4000;0.3622;0.9108;
608.7000;0.3704;0.9353;
609.0000;0.3679;0.9280;
609.3000;0.3614;0.9280;
609.6000;0.3655;0.9476;
609.9000;0.3663;0.9501;
610.2000;0.3606;0.9280;
610.5000;0.3647;0.9402;
610.8000;0.3647;0.9353;
611.1000;0.3614;0.9206;
611.4000;0.3614;0.9182;
611.7000;0.3598;0.9157;
612.0000;0.3565;0.9108;
612.3000;0.3630;0.9304;
612.6000;0.3565;0.9182;
612.9000;0.3549;0.9132;
613.2000;0.3565;0.9255;
613.5000;0.3533;0.9132;
613.8000;0.3500;0.8985;
614.1000;0.3508;0.9083;
614.4000;0.3500;0.9010;
614.7000;0.3492;0.8985;
615.0000;0.3492;0.9010;
615.3000;0.3533;0.9132;
615.6000;0.3492;0.9108;
615.9000;0.3476;0.9083;
616.2000;0.3476;0.9010;
616.5000;0.3468;0.8961;
616.8000;0.3468;0.9034;
617.1000;0.3476;0.9010;
617.4000;0.3443;0.8985;
617.7000;0.3427;0.9034;
618.0000;0.3411;0.8985;
618.3000;0.3435;0.9083;
618.6000;0.3427;0.9157;
618.9000;0.3419;0.9108;
619.2000;0.3419;0.9059;
619.5000;0.3386;0.8961;
619.8000;0.3370;0.8936;
620.1000;0.3362;0.8985;
620.4000;0.3427;0.9108;
620.7000;0.3427;0.9132;
621.0000;0.3394;0.9010;
621.3000;0.3386;0.8887;
621.6000;0.3370;0.8838;
621.9000;0.3362;0.8838;
622.2000;0.3435;0.9010;
622.5000;0.3313;0.8592;
622.8000;0.3354;0.8715;
623.1000;0.3297;0.8666;
623.4000;0.3362;0.8862;
623.7000;0.3305;0.8740;
624.0000;0.3394;0.9010;
624.3000;0.3321;0.8862;
624.6000;0.3329;0.8887;
624.9000;0.3280;0.8715;
625.2000;0.3272;0.8813;
625.5000;0.3337;0.9108;
625.8000;0.3321;0.8985;
626.1000;0.3305;0.8936;
626.4000;0.3280;0.8838;
626.7000;0.3272;0.8789;
627.0000;0.3280;0.8764;
627.3000;0.3272;0.8838;
627.6000;0.3264;0.8764;
627.9000;0.3280;0.8813;
628.2000;0.3264;0.8740;
628.5000;0.3280;0.8911;
628.8000;0.3264;0.8838;
629.1000;0.3232;0.8813;
629.4000;0.3248;0.8789;
629.7000;0.3264;0.8862;
630.0000;0.3232;0.8789;
630.3000;0.3240;0.8936;
630.6000;0.3240;0.8813;
630.9000;0.3256;0.8887;
631.2000;0.3248;0.8887;
631.5000;0.3207;0.8862;
631.8000;0.3305;0.9034;
632.1000;0.3191;0.8789;
632.4000;0.3191;0.8862;
632.7000;0.3199;0.8936;
633.0000;0.3183;0.8862;
633.3000;0.3183;0.8789;
633.6000;0.3175;0.8764;
633.9000;0.3166;0.8715;
634.2000;0.3175;0.8691;
634.5000;0.3175;0.8715;
634.8000;0.3150;0.8691;
635.1000;0.3166;0.8789;
635.4000;0.3142;0.8740;
635.7000;0.3150;0.8813;
636.0000;0.3158;0.8936;
636.3000;0.3142;0.8911;
636.6000;0.3150;0.8789;
636.9000;0.3142;0.8862;
637.2000;0.3142;0.8887;
637.5000;0.3142;0.8813;
637.8000;0.3134;0.8691;
638.1000;0.3093;0.8617;
638.4000;0.3118;0.8789;
638.7000;0.3215;0.9059;
639.0000;0.3126;0.8911;
639.3000;0.3126;0.8936;
639.6000;0.3069;0.8789;
639.9000;0.3158;0.8961;
640.2000;0.3126;0.8764;
640.5000;0.3109;0.8740;
640.8000;0.3118;0.8764;
641.1000;0.3093;0.8666;
641.4000;0.3077;0.8617;
641.7000;0.3085;0.8641;
642.0000;0.3069;0.8617;
642.3000;0.3093;0.8740;
642.6000;0.3077;0.8641;
642.9000;0.3069;0.8641;
643.2000;0.3077;0.8519;
643.5000;0.3061;0.8494;
643.8000;0.3061;0.8592;
644.1000;0.3069;0.8691;
644.4000;0.3061;0.8617;
644.7000;0.3053;0.8543;
645.0000;0.3004;0.8322;
645.3000;0.3036;0.8445;
645.6000;0.3053;0.8543;
645.9000;0.3061;0.8691;
646.2000;0.3069;0.8887;
646.5000;0.3036;0.8961;
646.8000;0.3036;0.8985;
647.1000;0.3044;0.9010;
647.4000;0.3012;0.8887;
647.7000;0.3012;0.8862;
648.0000;0.3028;0.8936;
648.3000;0.3036;0.8936;
648.6000;0.3069;0.8961;
648.9000;0.3020;0.8789;
649.2000;0.3004;0.8911;
649.5000;0.3020;0.8985;
649.8000;0.3028;0.8936;
650.1000;0.3004;0.8862;
650.4000;0.2947;0.8740;
650.7000;0.2987;0.8862;
651.0000;0.2971;0.8813;
651.3000;0.2987;0.8862;
651.6000;0.2996;0.8838;
651.9000;0.2979;0.8813;
652.2000;0.2979;0.8764;
652.5000;0.3012;0.8838;
652.8000;0.2947;0.8715;
653.1000;0.2963;0.8666;
653.4000;0.3028;0.8813;
653.7000;0.2987;0.8740;
654.0000;0.2963;0.8740;
654.3000;0.2963;0.8617;
654.6000;0.2947;0.8519;
654.9000;0.2955;0.8543;
655.2000;0.2979;0.8543;
655.5000;0.2971;0.8519;
655.8000;0.2955;0.8445;
656.1000;0.2955;0.8420;
656.4000;0.2971;0.8568;
656.7000;0.2979;0.8617;
657.0000;0.2979;0.8666;
657.3000;0.2971;0.8666;
657.6000;0.2963;0.8666;
657.9000;0.2939;0.8543;
658.2000;0.2955;0.8592;
658.5000;0.2971;0.8764;
658.8000;0.2955;0.8641;
659.1000;0.2955;0.8691;
659.4000;0.2963;0.8764;
659.7000;0.2939;0.8813;
660.0000;0.2947;0.8862;
660.3000;0.2939;0.8813;
660.6000;0.2914;0.8764;
660.9000;0.2939;0.8838;
661.2000;0.2930;0.8862;
661.5000;0.2930;0.8838;
661.8000;0.2930;0.8838;
662.1000;0.2914;0.8813;
662.4000;0.2930;0.8838;
662.7000;0.2849;0.8715;
663.0000;0.2898;0.8887;
663.3000;0.2930;0.8887;
663.6000;0.2922;0.8813;
663.9000;0.2930;0.8838;
664.2000;0.2914;0.8862;
664.5000;0.2906;0.8789;
664.8000;0.2914;0.8789;
665.1000;0.2873;0.8691;
665.4000;0.2906;0.8715;
665.7000;0.2914;0.8764;
666.0000;0.2906;0.8789;
666.3000;0.2898;0.8740;
666.6000;0.2898;0.8715;
666.9000;0.2906;0.8715;
667.2000;0.2898;0.8666;
667.5000;0.2906;0.8691;
667.8000;0.2906;0.8666;
668.1000;0.2890;0.8666;
668.4000;0.2873;0.8691;
668.7000;0.2898;0.8862;
669.0000;0.2906;0.8961;
669.3000;0.2906;0.8911;
669.6000;0.2865;0.8813;
669.9000;0.2873;0.8813;
670.2000;0.2996;0.9083;
670.5000;0.2898;0.8838;
670.8000;0.2906;0.8911;
671.1000;0.2882;0.8813;
671.4000;0.2882;0.8862;
671.7000;0.2857;0.8813;
672.0000;0.2882;0.8789;
672.3000;0.2865;0.8862;
672.6000;0.2922;0.8961;
672.9000;0.2849;0.8715;
673.2000;0.2865;0.8691;
673.5000;0.2833;0.8666;
673.8000;0.2865;0.8641;
674.1000;0.2865;0.8592;
674.4000;0.2865;0.8641;
674.7000;0.2849;0.8617;
675.0000;0.2841;0.8494;
675.3000;0.2873;0.8543;
675.6000;0.2873;0.8617;
675.9000;0.2841;0.8568;
676.2000;0.2865;0.8740;
676.5000;0.2841;0.8740;
676.8000;0.2865;0.8789;
677.1000;0.2849;0.8764;
677.4000;0.2816;0.8617;
677.7000;0.2857;0.8862;
678.0000;0.2857;0.8764;
678.3000;0.2808;0.8641;
678.6000;0.2857;0.8691;
678.9000;0.2865;0.8592;
679.2000;0.2849;0.8568;
679.5000;0.2890;0.8617;
679.8000;0.2841;0.8519;
680.1000;0.2857;0.8617;
680.4000;0.2898;0.8838;
680.7000;0.2825;0.8666;
681.0000;0.2849;0.8617;
681.3000;0.2825;0.8617;
681.6000;0.2841;0.8641;
681.9000;0.2849;0.8666;
682.2000;0.2833;0.8641;
682.5000;0.2825;0.8715;
682.8000;0.2865;0.8789;
683.1000;0.2784;0.8543;
683.4000;0.2825;0.8641;
683.7000;0.2833;0.8592;
684.0000;0.2857;0.8617;
684.3000;0.2841;0.8592;
684.6000;0.2865;0.8568;
684.9000;0.2833;0.8568;
685.2000;0.2825;0.8592;
685.5000;0.2816;0.8641;
685.8000;0.2841;0.8715;
686.1000;0.2825;0.8715;
686.4000;0.2800;0.8764;
686.7000;0.2768;0.8740;
687.0000;0.2825;0.8813;
687.3000;0.2816;0.8740;
687.6000;0.2841;0.8789;
687.9000;0.2816;0.8691;
688.2000;0.2825;0.8666;
688.5000;0.2800;0.8617;
688.8000;0.2816;0.8715;
689.1000;0.2816;0.8740;
689.4000;0.2800;0.8764;
689.7000;0.2808;0.8740;
690.0000;0.2776;0.8617;
690.3000;0.2825;0.8666;
690.6000;0.2833;0.8715;
690.9000;0.2808;0.8740;
691.2000;0.2841;0.8862;
691.5000;0.2800;0.8838;
691.8000;0.2816;0.8911;
692.1000;0.2808;0.8862;
692.4000;0.2808;0.8813;
692.7000;0.2808;0.8813;
693.0000;0.2825;0.8838;
693.3000;0.2825;0.8838;
693.6000;0.2784;0.8764;
693.9000;0.2784;0.8813;
694.2000;0.2800;0.8813;
694.5000;0.2833;0.8862;
694.8000;0.2816;0.8862;
695.1000;0.2808;0.8862;
695.4000;0.2784;0.8789;
695.7000;0.2825;0.8961;
696.0000;0.2759;0.8911;
696.3000;0.2800;0.8936;
696.6000;0.2784;0.8887;
696.9000;0.2800;0.9034;
697.2000;0.2800;0.9083;
697.5000;0.2776;0.9034;
697.8000;0.2768;0.9059;
698.1000;0.2792;0.9083;
698.4000;0.2816;0.9083;
698.7000;0.2759;0.8813;
699.0000;0.2768;0.8764;
699.3000;0.2776;0.8862;
699.6000;0.2768;0.8838;
699.9000;0.2792;0.8887;
700.2000;0.2792;0.8838;
700.5000;0.2784;0.8813;
700.8000;0.2768;0.8813;
701.1000;0.2776;0.8862;
701.4000;0.2792;0.8961;
701.7000;0.2808;0.8936;
702.0000;0.2719;0.8740;
702.3000;0.2792;0.8985;
702.6000;0.2776;0.8936;
702.9000;0.2849;0.9034;
703.2000;0.2776;0.8887;
703.5000;0.2759;0.8789;
703.8000;0.2792;0.8813;
704.1000;0.2792;0.8740;
704.4000;0.2751;0.8666;
704.7000;0.2784;0.8715;
705.0000;0.2759;0.8641;
705.3000;0.2768;0.8592;
705.6000;0.2776;0.8740;
705.9000;0.2776;0.8740;
706.2000;0.2759;0.8666;
706.5000;0.2784;0.8715;
706.8000;0.2808;0.8813;
707.1000;0.2768;0.8764;
707.4000;0.2759;0.8740;
707.7000;0.2743;0.8740;
708.0000;0.2743;0.8789;
708.3000;0.2768;0.8789;
708.6000;0.2784;0.8789;
708.9000;0.2768;0.8789;
709.2000;0.2768;0.8789;
709.5000;0.2784;0.8887;
709.8000;0.2759;0.8887;
710.1000;0.2751;0.8838;
710.4000;0.2784;0.8961;
710.7000;0.2776;0.8936;
711.0000;0.2751;0.8887;
711.3000;0.2768;0.8936;
711.6000;0.2751;0.8936;
711.9000;0.2768;0.8887;
712.2000;0.2768;0.8911;
712.5000;0.2759;0.8961;
712.8000;0.2776;0.8961;
713.1000;0.2735;0.8936;
713.4000;0.2768;0.8911;
713.7000;0.2759;0.8862;
714.0000;0.2751;0.8813;
714.3000;0.2727;0.8740;
714.6000;0.2735;0.8764;
714.9000;0.2776;0.8887;
715.2000;0.2743;0.8887;
715.5000;0.2759;0.8838;
715.8000;0.2759;0.8838;
716.1000;0.2719;0.8740;
716.4000;0.2751;0.8740;
716.7000;0.2727;0.8764;
717.0000;0.2735;0.8789;
717.3000;0.2759;0.8764;
717.6000;0.2727;0.8691;
717.9000;0.2743;0.8887;
718.2000;0.2670;0.8641;
718.5000;0.2759;0.8887;
718.8000;0.2743;0.8862;
719.1000;0.2727;0.8813;
719.4000;0.2735;0.8838;
719.7000;0.2727;0.8715;
720.0000;0.2800;0.8813;
720.3000;0.2727;0.8691;
720.6000;0.2735;0.8617;
720.9000;0.2735;0.8691;
721.2000;0.2727;0.8641;
721.5000;0.2702;0.8568;
721.8000;0.2702;0.8617;
722.1000;0.2662;0.8543;
722.4000;0.2719;0.8764;
722.7000;0.2735;0.8813;
723.0000;0.2711;0.8764;
723.3000;0.2743;0.8764;
723.6000;0.2727;0.8715;
723.9000;0.2743;0.8838;
724.2000;0.2719;0.8838;
724.5000;0.2735;0.8936;
724.8000;0.2727;0.9010;
725.1000;0.2702;0.9034;
725.4000;0.2792;0.9280;
725.7000;0.2735;0.9083;
726.0000;0.2727;0.9010;
726.3000;0.2735;0.8862;
726.6000;0.2735;0.8838;
726.9000;0.2719;0.8838;
727.2000;0.2743;0.8887;
727.5000;0.2719;0.8764;
727.8000;0.2662;0.8715;
728.1000;0.2711;0.8887;
728.4000;0.2719;0.8838;
728.7000;0.2711;0.8838;
729.0000;0.2719;0.8862;
729.3000;0.2735;0.8961;
729.6000;0.2727;0.9034;
729.9000;0.2727;0.9010;
730.2000;0.2686;0.9010;
730.5000;0.2702;0.8985;
730.8000;0.2735;0.9010;
731.1000;0.2735;0.8961;
731.4000;0.2719;0.8887;
731.7000;0.2678;0.8789;
732.0000;0.2702;0.8789;
732.3000;0.2686;0.8764;
732.6000;0.2694;0.8715;
732.9000;0.2686;0.8764;
733.2000;0.2654;0.8691;
733.5000;0.2694;0.8862;
733.8000;0.2678;0.8862;
734.1000;0.2711;0.8936;
734.4000;0.2711;0.8985;
734.7000;0.2719;0.9010;
735.0000;0.2702;0.8985;
735.3000;0.2702;0.8911;
735.6000;0.2694;0.8862;
735.9000;0.2719;0.8862;
736.2000;0.2735;0.8961;
736.5000;0.2702;0.8862;
736.8000;0.2702;0.8813;
737.1000;0.2678;0.8862;
737.4000;0.2702;0.8789;
737.7000;0.2719;0.8740;
738.0000;0.2678;0.8568;
738.3000;0.2694;0.8641;
738.6000;0.2702;0.8691;
738.9000;0.2711;0.8641;
739.2000;0.2686;0.8617;
739.5000;0.2670;0.8715;
739.8000;0.2686;0.8789;
740.1000;0.2694;0.8740;
740.4000;0.2702;0.8789;
740.7000;0.2686;0.8862;
741.0000;0.2702;0.8838;
741.3000;0.2702;0.8887;
741.6000;0.2662;0.8813;
741.9000;0.2694;0.9010;
742.2000;0.2694;0.8985;
742.5000;0.2694;0.8985;
742.8000;0.2694;0.9034;
743.1000;0.2670;0.9010;
743.4000;0.2613;0.8887;
743.7000;0.2686;0.8985;
744.0000;0.2637;0.8887;
744.3000;0.2702;0.9059;
744.6000;0.2678;0.9083;
744.9000;0.2694;0.9083;
745.2000;0.2694;0.9034;
745.5000;0.2759;0.9157;
745.8000;0.2686;0.8985;
746.1000;0.2678;0.9034;
746.4000;0.2686;0.9108;
746.7000;0.2678;0.9157;
747.0000;0.2711;0.9206;
747.3000;0.2686;0.9108;
747.6000;0.2694;0.9059;
747.9000;0.2686;0.9010;
748.2000;0.2702;0.8985;
748.5000;0.2686;0.8887;
748.8000;0.2686;0.8936;
749.1000;0.2702;0.8936;
749.4000;0.2678;0.8985;
749.7000;0.2678;0.8985;
750.0000;0.2711;0.8961;
750.3000;0.2702;0.8961;
750.6000;0.2702;0.8961;
750.9000;0.2694;0.8936;
751.2000;0.2686;0.8936;
751.5000;0.2711;0.8911;
751.8000;0.2646;0.8838;
752.1000;0.2662;0.8862;
752.4000;0.2702;0.8911;
752.7000;0.2686;0.8911;
753.0000;0.2670;0.8862;
753.3000;0.2694;0.8911;
753.6000;0.2694;0.8862;
753.9000;0.2694;0.8813;
754.2000;0.2727;0.8936;
754.5000;0.2678;0.8764;
754.8000;0.2686;0.8691;
755.1000;0.2711;0.8813;
755.4000;0.2670;0.8838;
755.7000;0.2662;0.8862;
756.0000;0.2670;0.8961;
756.3000;0.2686;0.8985;
756.6000;0.2678;0.9034;
756.9000;0.2686;0.8985;
757.2000;0.2670;0.8985;
757.5000;0.2670;0.8961;
757.8000;0.2719;0.9059;
758.1000;0.2678;0.9010;
758.4000;0.2686;0.9157;
758.7000;0.2670;0.9034;
759.0000;0.2686;0.8985;
759.3000;0.2702;0.8985;
759.6000;0.2670;0.8838;
759.9000;0.2670;0.8764;
760.2000;0.2702;0.8911;
760.5000;0.2678;0.8813;
760.8000;0.2678;0.8838;
761.1000;0.2670;0.8838;
761.4000;0.2662;0.8838;
761.7000;0.2670;0.8862;
762.0000;0.2670;0.8862;
762.3000;0.2678;0.8911;
762.6000;0.2662;0.8961;
762.9000;0.2694;0.8936;
763.2000;0.2662;0.8911;
763.5000;0.2654;0.8936;
763.8000;0.2662;0.8985;
764.1000;0.2719;0.9108;
764.4000;0.2719;0.9083;
764.7000;0.2670;0.9059;
765.0000;0.2670;0.9132;
765.3000;0.2670;0.9132;
765.6000;0.2686;0.9108;
765.9000;0.2670;0.9034;
766.2000;0.2670;0.8887;
766.5000;0.2670;0.8936;
766.8000;0.2662;0.8887;
767.1000;0.2670;0.8887;
767.4000;0.2654;0.8887;
767.7000;0.2654;0.8936;
768.0000;0.2670;0.8985;
768.3000;0.2654;0.8961;
768.6000;0.2678;0.9010;
768.9000;0.2621;0.8813;
769.2000;0.2654;0.8936;
769.5000;0.2654;0.8985;
769.8000;0.2662;0.9010;
770.1000;0.2670;0.8985;
770.4000;0.2662;0.8985;
770.7000;0.2662;0.8911;
771.0000;0.2662;0.8911;
771.3000;0.2605;0.8764;
771.6000;0.2662;0.8862;
771.9000;0.2670;0.8911;
772.2000;0.2662;0.8813;
772.5000;0.2727;0.9059;
772.8000;0.2686;0.8985;
773.1000;0.2670;0.8936;
773.4000;0.2670;0.8911;
773.7000;0.2654;0.8911;
774.0000;0.2662;0.8862;
774.3000;0.2670;0.9059;
774.6000;0.2662;0.9010;
774.9000;0.2646;0.8961;
775.2000;0.2662;0.9034;
775.5000;0.2662;0.8985;
775.8000;0.2662;0.8961;
776.1000;0.2662;0.8887;
776.4000;0.2662;0.8985;
776.7000;0.2646;0.8911;
777.0000;0.2597;0.8838;
777.3000;0.2654;0.9010;
777.6000;0.2646;0.8961;
777.9000;0.2637;0.8936;
778.2000;0.2646;0.8838;
778.5000;0.2670;0.8838;
778.8000;0.2532;0.8592;
779.1000;0.2605;0.8789;
779.4000;0.2662;0.8936;
779.7000;0.2711;0.9182;
780.0000;0.2646;0.8985;
780.3000;0.2629;0.8985;
780.6000;0.2646;0.8985;
780.9000;0.2637;0.8936;
781.2000;0.2654;0.8887;
781.5000;0.2613;0.8740;
781.8000;0.2654;0.8887;
782.1000;0.2662;0.8936;
782.4000;0.2621;0.8838;
782.7000;0.2637;0.8887;
783.0000;0.2662;0.8985;
783.3000;0.2629;0.8911;
783.6000;0.2637;0.8911;
783.9000;0.2637;0.8961;
784.2000;0.2646;0.8961;
784.5000;0.2637;0.8936;
784.8000;0.2637;0.8936;
785.1000;0.2629;0.8887;
785.4000;0.2637;0.8911;
785.7000;0.2646;0.8936;
786.0000;0.2662;0.9010;
786.3000;0.2654;0.9059;
786.6000;0.2646;0.8936;
786.9000;0.2702;0.8985;
787.2000;0.2646;0.8838;
787.5000;0.2637;0.8838;
787.8000;0.2654;0.8813;
788.1000;0.2662;0.8764;
788.4000;0.2637;0.8740;
788.7000;0.2637;0.8911;
789.0000;0.2646;0.9010;
789.3000;0.2637;0.9059;
789.6000;0.2662;0.9010;
789.9000;0.2629;0.8911;
790.2000;0.2654;0.8911;
790.5000;0.2662;0.8911;
790.8000;0.2646;0.8887;
791.1000;0.2629;0.8813;
791.4000;0.2629;0.8813;
791.7000;0.2621;0.8740;
792.0000;0.2662;0.8838;
792.3000;0.2646;0.8813;
792.6000;0.2694;0.8887;
792.9000;0.2629;0.8838;
793.2000;0.2629;0.8911;
793.5000;0.2629;0.8838;
793.8000;0.2646;0.8961;
794.1000;0.2621;0.8911;
794.4000;0.2654;0.8936;
794.7000;0.2654;0.8985;
795.0000;0.2580;0.8838;
795.3000;0.2621;0.8887;
795.6000;0.2646;0.8936;
795.9000;0.2646;0.8862;
796.2000;0.2646;0.8740;
796.5000;0.2654;0.8789;
796.8000;0.2646;0.8789;
797.1000;0.2637;0.8764;
797.4000;0.2678;0.8838;
797.7000;0.2646;0.8764;
798.0000;0.2629;0.8740;
798.3000;0.2629;0.8764;
798.6000;0.2646;0.8838;
798.9000;0.2654;0.8911;
799.2000;0.2646;0.8887;
799.5000;0.2629;0.8789;
799.8000;0.2654;0.8911;
800.1000;0.2646;0.8936;
800.4000;0.2629;0.8862;
800.7000;0.2629;0.8838;
801.0000;0.2646;0.8813;
801.3000;0.2613;0.8764;
801.6000;0.2637;0.8862;
801.9000;0.2629;0.8887;
802.2000;0.2621;0.8789;
802.5000;0.2629;0.8862;
802.8000;0.2613;0.8862;
803.1000;0.2507;0.8592;
803.4000;0.2646;0.8961;
803.7000;0.2629;0.8911;
804.0000;0.2621;0.8911;
804.3000;0.2613;0.8789;
804.6000;0.2629;0.8740;
804.9000;0.2605;0.8740;
805.2000;0.2629;0.8715;
805.5000;0.2637;0.8715;
805.8000;0.2629;0.8838;
806.1000;0.2629;0.8911;
806.4000;0.2629;0.9010;
806.7000;0.2654;0.9034;
807.0000;0.2613;0.8936;
807.3000;0.2621;0.8936;
807.6000;0.2613;0.8887;
807.9000;0.2589;0.8789;
808.2000;0.2597;0.8764;
808.5000;0.2629;0.8887;
808.8000;0.2621;0.8813;
809.1000;0.2637;0.8813;
809.4000;0.2613;0.8789;
809.7000;0.2646;0.8813;
810.0000;0.2654;0.8862;
810.3000;0.2580;0.8764;
810.6000;0.2621;0.8961;
810.9000;0.2613;0.8985;
811.2000;0.2629;0.8911;
811.5000;0.2621;0.8961;
811.8000;0.2613;0.8911;
812.1000;0.2613;0.8862;
812.4000;0.2629;0.8887;
812.7000;0.2629;0.8887;
813.0000;0.2629;0.8911;
813.3000;0.2564;0.8691;
813.6000;0.2621;0.8862;
813.9000;0.2646;0.8985;
814.2000;0.2605;0.8838;
814.5000;0.2613;0.8862;
814.8000;0.2589;0.8813;
815.1000;0.2637;0.8887;
815.4000;0.2670;0.8985;
815.7000;0.2637;0.8961;
816.0000;0.2670;0.9083;
816.3000;0.2621;0.8985;
816.6000;0.2613;0.8961;
816.9000;0.2629;0.9034;
817.2000;0.2662;0.9083;
817.5000;0.2613;0.8961;
817.8000;0.2613;0.8985;
818.1000;0.2629;0.9083;
818.4000;0.2621;0.9108;
818.7000;0.2597;0.9083;
819.0000;0.2637;0.9206;
819.3000;0.2654;0.9304;
819.6000;0.2613;0.9157;
819.9000;0.2621;0.9206;
820.2000;0.2621;0.9182;
820.5000;0.2629;0.9206;
820.8000;0.2629;0.9206;
821.1000;0.2621;0.9132;
821.4000;0.2613;0.9083;
821.7000;0.2613;0.9157;
822.0000;0.2605;0.9157;
822.3000;0.2621;0.9182;
822.6000;0.2621;0.9255;
822.9000;0.2629;0.9255;
823.2000;0.2621;0.9182;
823.5000;0.2605;0.9059;
823.8000;0.2605;0.9083;
824.1000;0.2613;0.9157;
824.4000;0.2629;0.9132;
824.7000;0.2597;0.9059;
825.0000;0.2621;0.8985;
825.3000;0.2605;0.8911;
825.6000;0.2621;0.8961;
825.9000;0.2580;0.8936;
826.2000;0.2491;0.8691;
826.5000;0.2613;0.8961;
826.8000;0.2605;0.8961;
827.1000;0.2686;0.9157;
827.4000;0.2597;0.8862;
827.7000;0.2605;0.8887;
828.0000;0.2605;0.8911;
828.3000;0.2605;0.8887;
828.6000;0.2629;0.9010;
828.9000;0.2613;0.8961;
829.2000;0.2564;0.8813;
829.5000;0.2605;0.8838;
829.8000;0.2580;0.8813;
830.1000;0.2613;0.8961;
830.4000;0.2605;0.8961;
830.7000;0.2613;0.8961;
831.0000;0.2597;0.9010;
831.3000;0.2589;0.8985;
831.6000;0.2605;0.9059;
831.9000;0.2613;0.9157;
832.2000;0.2597;0.9132;
832.5000;0.2597;0.9083;
832.8000;0.2621;0.9059;
833.1000;0.2589;0.9010;
833.4000;0.2613;0.9108;
833.7000;0.2605;0.9182;
834.0000;0.2629;0.9231;
834.3000;0.2564;0.9083;
834.6000;0.2613;0.9182;
834.9000;0.2621;0.9182;
835.2000;0.2613;0.9132;
835.5000;0.2621;0.9132;
835.8000;0.2621;0.9010;
836.1000;0.2597;0.9010;
836.4000;0.2678;0.9231;
836.7000;0.2613;0.9059;
837.0000;0.2605;0.9010;
837.3000;0.2613;0.8961;
837.6000;0.2597;0.8911;
837.9000;0.2613;0.9010;
838.2000;0.2597;0.8961;
838.5000;0.2613;0.8985;
838.8000;0.2597;0.9010;
839.1000;0.2589;0.8961;
839.4000;0.2605;0.8961;
839.7000;0.2646;0.9010;
840.0000;0.2605;0.8911;
840.3000;0.2613;0.9010;
840.6000;0.2605;0.9010;
840.9000;0.2605;0.9034;
841.2000;0.2621;0.9010;
841.5000;0.2654;0.9132;
841.8000;0.2613;0.9083;
842.1000;0.2613;0.9083;
842.4000;0.2605;0.9010;
842.7000;0.2613;0.8985;
843.0000;0.2597;0.8961;
843.3000;0.2629;0.8985;
843.6000;0.2621;0.8911;
843.9000;0.2605;0.8887;
844.2000;0.2629;0.8936;
844.5000;0.2613;0.8911;
844.8000;0.2605;0.8961;
845.1000;0.2613;0.8985;
845.4000;0.2621;0.8961;
845.7000;0.2605;0.8838;
846.0000;0.2613;0.8887;
846.3000;0.2597;0.8862;
846.6000;0.2613;0.8936;
846.9000;0.2637;0.9034;
847.2000;0.2621;0.8911;
847.5000;0.2597;0.8887;
847.8000;0.2629;0.8936;
848.1000;0.2572;0.8789;
848.4000;0.2597;0.8789;
848.7000;0.2613;0.8764;
849.0000;0.2621;0.8862;
849.3000;0.2637;0.8862;
849.6000;0.2572;0.8740;
849.9000;0.2605;0.8862;
850.2000;0.2621;0.8911;
850.5000;0.2613;0.8789;
850.8000;0.2589;0.8715;
851.1000;0.2613;0.8813;
851.4000;0.2629;0.8838;
851.7000;0.2605;0.8887;
852.0000;0.2686;0.9157;
852.3000;0.2621;0.8936;
852.6000;0.2654;0.8961;
852.9000;0.2548;0.8813;
853.2000;0.2605;0.9059;
853.5000;0.2597;0.9059;
853.8000;0.2605;0.8985;
854.1000;0.2613;0.8985;
854.4000;0.2605;0.8936;
854.7000;0.2597;0.8985;
855.0000;0.2580;0.8961;
855.3000;0.2621;0.8961;
855.6000;0.2613;0.8961;
855.9000;0.2597;0.8936;
856.2000;0.2548;0.8764;
856.5000;0.2580;0.8961;
856.8000;0.2548;0.8813;
857.1000;0.2589;0.8936;
857.4000;0.2621;0.9083;
857.7000;0.2580;0.8961;
858.0000;0.2629;0.9083;
858.3000;0.2662;0.9132;
858.6000;0.2629;0.8985;
858.9000;0.2589;0.8911;
859.2000;0.2597;0.8813;
859.5000;0.2613;0.8838;
859.8000;0.2613;0.8985;
860.1000;0.2613;0.8862;
860.4000;0.2605;0.8838;
860.7000;0.2686;0.9132;
861.0000;0.2597;0.8911;
861.3000;0.2589;0.8936;
861.6000;0.2605;0.8985;
861.9000;0.2589;0.8985;
862.2000;0.2621;0.9083;
862.5000;0.2572;0.8936;
862.8000;0.2589;0.8936;
863.1000;0.2597;0.9034;
863.4000;0.2597;0.9083;
863.7000;0.2580;0.9108;
864.0000;0.2637;0.9231;
864.3000;0.2589;0.9059;
864.6000;0.2613;0.9059;
864.9000;0.2597;0.8961;
865.2000;0.2605;0.8936;
865.5000;0.2605;0.8961;
865.8000;0.2646;0.9034;
866.1000;0.2589;0.8961;
866.4000;0.2580;0.8961;
866.7000;0.2589;0.9010;
867.0000;0.2589;0.8985;
867.3000;0.2605;0.9059;
867.6000;0.2605;0.9108;
867.9000;0.2597;0.9083;
868.2000;0.2613;0.9108;
868.5000;0.2515;0.8838;
868.8000;0.2589;0.9034;
869.1000;0.2597;0.9059;
869.4000;0.2589;0.9083;
869.7000;0.2564;0.9083;
870.0000;0.2637;0.9255;
870.3000;0.2580;0.9231;
870.6000;0.2597;0.9280;
870.9000;0.2670;0.9501;
871.2000;0.2621;0.9329;
871.5000;0.2605;0.9157;
871.8000;0.2572;0.9108;
872.1000;0.2613;0.9206;
872.4000;0.2637;0.9231;
872.7000;0.2515;0.8887;
873.0000;0.2564;0.8961;
873.3000;0.2580;0.9010;
873.6000;0.2621;0.9083;
873.9000;0.2572;0.9059;
874.2000;0.2580;0.9157;
874.5000;0.2589;0.9206;
874.8000;0.2597;0.9182;
875.1000;0.2605;0.9132;
875.4000;0.2580;0.9157;
875.7000;0.2605;0.9182;
876.0000;0.2589;0.9157;
876.3000;0.2580;0.9231;
876.6000;0.2523;0.9083;
876.9000;0.2564;0.9280;
877.2000;0.2515;0.9206;
877.5000;0.2589;0.9304;
877.8000;0.2605;0.9304;
878.1000;0.2580;0.9182;
878.4000;0.2629;0.9231;
878.7000;0.2523;0.8985;
879.0000;0.2589;0.9206;
879.3000;0.2580;0.9231;
879.6000;0.2605;0.9329;
879.9000;0.2621;0.9353;
880.2000;0.2540;0.9182;
880.5000;0.2564;0.9108;
880.8000;0.2597;0.9132;
881.1000;0.2589;0.9108;
881.4000;0.2605;0.9157;
881.7000;0.2605;0.9083;
882.0000;0.2589;0.9108;
882.3000;0.2589;0.9034;
882.6000;0.2589;0.9010;
882.9000;0.2580;0.9010;
883.2000;0.2589;0.9010;
883.5000;0.2589;0.9034;
883.8000;0.2597;0.9010;
884.1000;0.2564;0.9034;
884.4000;0.2580;0.9034;
884.7000;0.2597;0.9083;
885.0000;0.2605;0.9108;
885.3000;0.2580;0.9083;
885.6000;0.2597;0.9083;
885.9000;0.2597;0.8985;
886.2000;0.2597;0.9010;
886.5000;0.2572;0.8911;
886.8000;0.2548;0.8887;
887.1000;0.2540;0.8887;
887.4000;0.2589;0.9108;
887.7000;0.2589;0.9083;
888.0000;0.2564;0.8961;
888.3000;0.2589;0.9034;
888.6000;0.2605;0.9083;
888.9000;0.2572;0.8961;
889.2000;0.2580;0.9010;
889.5000;0.2589;0.8961;
889.8000;0.2589;0.8961;
890.1000;0.2589;0.8985;
890.4000;0.2580;0.8961;
890.7000;0.2572;0.9010;
891.0000;0.2605;0.9182;
891.3000;0.2613;0.9206;
891.6000;0.2589;0.9034;
891.9000;0.2572;0.9034;
892.2000;0.2605;0.9132;
892.5000;0.2589;0.9108;
892.8000;0.2597;0.9083;
893.1000;0.2597;0.9010;
893.4000;0.2589;0.9010;
893.7000;0.2605;0.9034;
894.0000;0.2621;0.9083;
894.3000;0.2548;0.8985;
894.6000;0.2605;0.9182;
894.9000;0.2589;0.9231;
895.2000;0.2580;0.9280;
895.5000;0.2605;0.9304;
895.8000;0.2580;0.9206;
896.1000;0.2613;0.9132;
896.4000;0.2597;0.9108;
896.7000;0.2556;0.9010;
897.0000;0.2572;0.9083;
897.3000;0.2589;0.9108;
897.6000;0.2580;0.9132;
897.9000;0.2572;0.9059;
898.2000;0.2564;0.8961;
898.5000;0.2580;0.9034;
898.8000;0.2613;0.9182;
899.1000;0.2548;0.9157;
899.4000;0.2556;0.9329;
899.7000;0.2580;0.9329;
900.0000;0.2556;0.9231;
900.3000;0.2589;0.9280;
900.6000;0.2580;0.9329;
900.9000;0.2597;0.9329;
901.2000;0.2580;0.9452;
901.5000;0.2605;0.9501;
901.8000;0.2589;0.9476;
902.1000;0.2572;0.9353;
902.4000;0.2589;0.9280;
902.7000;0.2580;0.9231;
903.0000;0.2572;0.9182;
903.3000;0.2597;0.9157;
903.6000;0.2580;0.9206;
903.9000;0.2605;0.9353;
904.2000;0.2597;0.9427;
904.5000;0.2597;0.9452;
904.8000;0.2597;0.9427;
905.1000;0.2589;0.9501;
905.4000;0.2589;0.9378;
905.7000;0.2589;0.9378;
906.0000;0.2580;0.9329;
906.3000;0.2589;0.9231;
906.6000;0.2589;0.9280;
906.9000;0.2597;0.9231;
907.2000;0.2597;0.9280;
907.5000;0.2597;0.9304;
907.8000;0.2589;0.9280;
908.1000;0.2572;0.9157;
908.4000;0.2572;0.9132;
908.7000;0.2572;0.8985;
909.0000;0.2572;0.8985;
909.3000;0.2580;0.9034;
909.6000;0.2564;0.8961;
909.9000;0.2580;0.8887;
910.2000;0.2580;0.8936;
910.5000;0.2637;0.9108;
910.8000;0.2572;0.8985;
911.1000;0.2523;0.8887;
911.4000;0.2556;0.8911;
911.7000;0.2572;0.8985;
912.0000;0.2572;0.9059;
912.3000;0.2613;0.9182;
912.6000;0.2564;0.9059;
912.9000;0.2589;0.9108;
913.2000;0.2580;0.9083;
913.5000;0.2564;0.9034;
913.8000;0.2654;0.9353;
914.1000;0.2564;0.9034;
914.4000;0.2580;0.9059;
914.7000;0.2556;0.9034;
915.0000;0.2580;0.9157;
915.3000;0.2572;0.9059;
915.6000;0.2589;0.9108;
915.9000;0.2589;0.9157;
916.2000;0.2605;0.9157;
916.5000;0.2572;0.9182;
916.8000;0.2564;0.9132;
917.1000;0.2556;0.9108;
917.4000;0.2564;0.9083;
917.7000;0.2572;0.9182;
918.0000;0.2597;0.9304;
918.3000;0.2515;0.9010;
918.6000;0.2572;0.9132;
918.9000;0.2548;0.9083;
919.2000;0.2556;0.8961;
919.5000;0.2548;0.8911;
919.8000;0.2572;0.8985;
920.1000;0.2564;0.8985;
920.4000;0.2589;0.9157;
920.7000;0.2556;0.9157;
921.0000;0.2564;0.9182;
921.3000;0.2580;0.9255;
921.6000;0.2572;0.9157;
921.9000;0.2580;0.9157;
922.2000;0.2580;0.9157;
922.5000;0.2580;0.9034;
922.8000;0.2564;0.9034;
923.1000;0.2572;0.9108;
923.4000;0.2621;0.9182;
923.7000;0.2564;0.9010;
924.0000;0.2564;0.8936;
924.3000;0.2523;0.8936;
924.6000;0.2580;0.9157;
924.9000;0.2580;0.9132;
925.2000;0.2564;0.9132;
925.5000;0.2564;0.9132;
925.8000;0.2564;0.9206;
926.1000;0.2572;0.9182;
926.4000;0.2654;0.9378;
926.7000;0.2637;0.9280;
927.0000;0.2572;0.9108;
927.3000;0.2580;0.9108;
927.6000;0.2572;0.8961;
927.9000;0.2564;0.8961;
928.2000;0.2580;0.9034;
928.5000;0.2572;0.9206;
928.8000;0.2580;0.9182;
929.1000;0.2589;0.9206;
929.4000;0.2597;0.9157;
929.7000;0.2605;0.9206;
930.0000;0.2605;0.9108;
930.3000;0.2564;0.9034;
930.6000;0.2564;0.9083;
930.9000;0.2564;0.9059;
931.2000;0.2556;0.9059;
931.5000;0.2523;0.9108;
931.8000;0.2564;0.9255;
932.1000;0.2597;0.9353;
932.4000;0.2564;0.9231;
932.7000;0.2572;0.9255;
933.0000;0.2564;0.9157;
933.3000;0.2572;0.9182;
933.6000;0.2564;0.9206;
933.9000;0.2564;0.9083;
934.2000;0.2629;0.9255;
934.5000;0.2589;0.9206;
934.8000;0.2564;0.9034;
935.1000;0.2580;0.8985;
935.4000;0.2532;0.8936;
935.7000;0.2580;0.9132;
936.0000;0.2564;0.9182;
936.3000;0.2597;0.9182;
936.6000;0.2572;0.9132;
936.9000;0.2597;0.9108;
937.2000;0.2540;0.8961;
937.5000;0.2572;0.8985;
937.8000;0.2564;0.8985;
938.1000;0.2580;0.9034;
938.4000;0.2580;0.9034;
938.7000;0.2572;0.9059;
939.0000;0.2556;0.9083;
939.3000;0.2580;0.9108;
939.6000;0.2564;0.9108;
939.9000;0.2564;0.9132;
940.2000;0.2540;0.9059;
940.5000;0.2580;0.9132;
940.8000;0.2572;0.9083;
941.1000;0.2589;0.9108;
941.4000;0.2556;0.9010;
941.7000;0.2556;0.9034;
942.0000;0.2613;0.9157;
942.3000;0.2597;0.9206;
942.6000;0.2548;0.9182;
942.9000;0.2532;0.9108;
943.2000;0.2564;0.9182;
943.5000;0.2564;0.9231;
943.8000;0.2572;0.9182;
944.1000;0.2540;0.9083;
944.4000;0.2572;0.9132;
944.7000;0.2572;0.9108;
945.0000;0.2540;0.8936;
945.3000;0.2556;0.9010;
945.6000;0.2589;0.9059;
945.9000;0.2629;0.9132;
946.2000;0.2532;0.9010;
946.5000;0.2572;0.9034;
946.8000;0.2540;0.9010;
947.1000;0.2589;0.9083;
947.4000;0.2548;0.8985;
947.7000;0.2597;0.9034;
948.0000;0.2483;0.8789;
948.3000;0.2589;0.9132;
948.6000;0.2572;0.9157;
948.9000;0.2556;0.9182;
949.2000;0.2572;0.9255;
949.5000;0.2580;0.9182;
949.8000;0.2572;0.9255;
950.1000;0.2475;0.8985;
950.4000;0.2597;0.9353;
950.7000;0.2556;0.9304;
951.0000;0.2564;0.9280;
951.3000;0.2564;0.9280;
951.6000;0.2564;0.9231;
951.9000;0.2564;0.9231;
952.2000;0.2572;0.9329;
952.5000;0.2572;0.9206;
952.8000;0.2564;0.9231;
953.1000;0.2564;0.9132;
953.4000;0.2483;0.8911;
953.7000;0.2580;0.9157;
954.0000;0.2556;0.8985;
954.3000;0.2572;0.9034;
954.6000;0.2572;0.8985;
954.9000;0.2556;0.8936;
955.2000;0.2564;0.9010;
955.5000;0.2548;0.9083;
955.8000;0.2637;0.9329;
956.1000;0.2564;0.9206;
956.4000;0.2564;0.9157;
956.7000;0.2564;0.9255;
957.0000;0.2580;0.9353;
957.3000;0.2572;0.9329;
957.6000;0.2589;0.9329;
957.9000;0.2564;0.9280;
958.2000;0.2613;0.9353;
958.5000;0.2572;0.9182;
958.8000;0.2580;0.9206;
959.1000;0.2572;0.9255;
959.4000;0.2646;0.9427;
959.7000;0.2580;0.9206;
960.0000;0.2572;0.9157;
960.3000;0.2564;0.9182;
960.6000;0.2572;0.9206;
960.9000;0.2580;0.9182;
961.2000;0.2523;0.9083;
961.5000;0.2572;0.9280;
961.8000;0.2572;0.9206;
962.1000;0.2556;0.9157;
962.4000;0.2572;0.9157;
962.7000;0.2564;0.9132;
963.0000;0.2548;0.9108;
963.3000;0.2548;0.9157;
963.6000;0.2548;0.9206;
963.9000;0.2580;0.9304;
964.2000;0.2556;0.9304;
964.5000;0.2564;0.9329;
964.8000;0.2580;0.9501;
965.1000;0.2580;0.9501;
965.4000;0.2548;0.9353;
965.7000;0.2564;0.9378;
966.0000;0.2540;0.9304;
966.3000;0.2556;0.9378;
966.6000;0.2564;0.9353;
966.9000;0.2597;0.9476;
967.2000;0.2466;0.9206;
967.5000;0.2556;0.9353;
967.8000;0.2507;0.9182;
968.1000;0.2572;0.9231;
968.4000;0.2572;0.9231;
968.7000;0.2572;0.9255;
969.0000;0.2540;0.9157;
969.3000;0.2458;0.8936;
969.6000;0.2556;0.9182;
969.9000;0.2548;0.9206;
970.2000;0.2523;0.9059;
970.5000;0.2532;0.8961;
970.8000;0.2515;0.9010;
971.1000;0.2564;0.9182;
971.4000;0.2605;0.9132;
971.7000;0.2548;0.9108;
972.0000;0.2597;0.9182;
972.3000;0.2564;0.9108;
972.6000;0.2556;0.9231;
972.9000;0.2540;0.9206;
973.2000;0.2564;0.9157;
973.5000;0.2523;0.9034;
973.8000;0.2572;0.9083;
974.1000;0.2548;0.9010;
974.4000;0.2564;0.9132;
974.7000;0.2556;0.9108;
975.0000;0.2572;0.9132;
975.3000;0.2556;0.9231;
975.6000;0.2564;0.9231;
975.9000;0.2556;0.9182;
976.2000;0.2564;0.9132;
976.5000;0.2556;0.9108;
976.8000;0.2540;0.9108;
977.1000;0.2540;0.9083;
977.4000;0.2540;0.9059;
977.7000;0.2540;0.9034;
978.0000;0.2532;0.9059;
978.3000;0.2523;0.8985;
978.6000;0.2548;0.9010;
978.9000;0.2540;0.8961;
979.2000;0.2532;0.8985;
979.5000;0.2548;0.9059;
979.8000;0.2556;0.9182;
980.1000;0.2515;0.9010;
980.4000;0.2580;0.9132;
980.7000;0.2556;0.9010;
981.0000;0.2572;0.9059;
981.3000;0.2564;0.8985;
981.6000;0.2556;0.8961;
981.9000;0.2605;0.9034;
982.2000;0.2564;0.8936;
982.5000;0.2548;0.8887;
982.8000;0.2556;0.8936;
983.1000;0.2564;0.8911;
983.4000;0.2564;0.8911;
983.7000;0.2597;0.8985;
984.0000;0.2572;0.8936;
984.3000;0.2580;0.9083;
984.6000;0.2572;0.9108;
984.9000;0.2572;0.9083;
985.2000;0.2580;0.9206;
985.5000;0.2572;0.9231;
985.8000;0.2540;0.9206;
986.1000;0.2548;0.9083;
986.4000;0.2564;0.9132;
986.7000;0.2564;0.9157;
987.0000;0.2564;0.9157;
987.3000;0.2556;0.9083;
987.6000;0.2548;0.8961;
987.9000;0.2580;0.9083;
988.2000;0.2540;0.9059;
988.5000;0.2548;0.9010;
988.8000;0.2580;0.9157;
989.1000;0.2548;0.9108;
989.4000;0.2548;0.9157;
989.7000;0.2548;0.9132;
990.0000;0.2532;0.9157;
990.3000;0.2564;0.9255;
990.6000;0.2580;0.9206;
990.9000;0.2621;0.9231;
991.2000;0.2564;0.9108;
991.5000;0.2548;0.8985;
991.8000;0.2548;0.9059;
992.1000;0.2556;0.9108;
992.4000;0.2580;0.9182;
992.7000;0.2556;0.9157;
993.0000;0.2556;0.9182;
993.3000;0.2548;0.9182;
993.6000;0.2548;0.9132;
993.9000;0.2564;0.9182;
994.2000;0.2572;0.9304;
994.5000;0.2564;0.9280;
994.8000;0.2580;0.9304;
995.1000;0.2548;0.9206;
995.4000;0.2572;0.9255;
995.7000;0.2556;0.9108;
996.0000;0.2556;0.9034;
996.3000;0.2572;0.9010;
996.6000;0.2589;0.9034;
996.9000;0.2580;0.9034;
997.2000;0.2507;0.8936;
997.5000;0.2564;0.9010;
997.8000;0.2556;0.9010;
998.1000;0.2556;0.9034;
998.4000;0.2564;0.9108;
998.7000;0.2556;0.8961;
999.0000;0.2556;0.8936;
999.3000;0.2564;0.8985;
999.6000;0.2556;0.8961;
999.9000;0.2540;0.8961;
1000.2000;0.2556;0.9010;
1000.5000;0.2564;0.9059;
1000.8000;0.2564;0.8985;
1001.1000;0.2556;0.8862;
1001.4000;0.2515;0.8813;
1001.7000;0.2564;0.8936;
1002.0000;0.2597;0.9010;
1002.3000;0.2572;0.8985;
1002.6000;0.2548;0.8985;
1002.9000;0.2548;0.9059;
1003.2000;0.2597;0.9157;
1003.5000;0.2540;0.9083;
1003.8000;0.2540;0.9059;
1004.1000;0.2491;0.8985;
1004.4000;0.2540;0.9108;
1004.7000;0.2540;0.9132;
1005.0000;0.2491;0.8961;
1005.3000;0.2572;0.9083;
1005.6000;0.2548;0.9059;
1005.9000;0.2548;0.9083;
1006.2000;0.2572;0.9010;
1006.5000;0.2572;0.9010;
1006.8000;0.2556;0.8961;
1007.1000;0.2572;0.9108;
1007.4000;0.2548;0.9132;
1007.7000;0.2548;0.9132;
1008.0000;0.2564;0.9206;
1008.3000;0.2580;0.9108;
1008.6000;0.2540;0.9059;
1008.9000;0.2540;0.9132;
1009.2000;0.2564;0.9206;
1009.5000;0.2523;0.9157;
1009.8000;0.2580;0.9255;
1010.1000;0.2540;0.9157;
1010.4000;0.2540;0.9157;
1010.7000;0.2540;0.9206;
1011.0000;0.2540;0.9182;
1011.3000;0.2548;0.9157;
1011.6000;0.2532;0.9132;
1011.9000;0.2556;0.9157;
1012.2000;0.2523;0.9059;
1012.5000;0.2548;0.9034;
1012.8000;0.2548;0.9034;
1013.1000;0.2597;0.9206;
1013.4000;0.2564;0.9206;
1013.7000;0.2540;0.9206;
1014.0000;0.2556;0.9329;
1014.3000;0.2540;0.9329;
1014.6000;0.2556;0.9329;
1014.9000;0.2556;0.9329;
1015.2000;0.2540;0.9182;
1015.5000;0.2556;0.9132;
1015.8000;0.2564;0.9132;
1016.1000;0.2548;0.9010;
1016.4000;0.2564;0.9034;
1016.7000;0.2564;0.9010;
1017.0000;0.2556;0.8985;
1017.3000;0.2613;0.9182;
1017.6000;0.2548;0.8985;
1017.9000;0.2548;0.8887;
1018.2000;0.2556;0.8862;
1018.5000;0.2564;0.8936;
1018.8000;0.2523;0.8911;
1019.1000;0.2548;0.8936;
1019.4000;0.2564;0.8911;
1019.7000;0.2564;0.8936;
1020.0000;0.2564;0.8961;
1020.3000;0.2532;0.8789;
1020.6000;0.2491;0.8715;
1020.9000;0.2548;0.8911;
1021.2000;0.2556;0.8838;
1021.5000;0.2548;0.8789;
1021.8000;0.2556;0.8911;
1022.1000;0.2532;0.8911;
1022.4000;0.2556;0.8936;
1022.7000;0.2548;0.8862;
1023.0000;0.2532;0.8887;
1023.3000;0.2532;0.8887;
1023.6000;0.2548;0.8961;
1023.9000;0.2564;0.9034;
1024.2000;0.2556;0.9010;
1024.5000;0.2532;0.8911;
1024.8000;0.2572;0.9059;
1025.1000;0.2540;0.9010;
1025.4000;0.2597;0.9157;
1025.7000;0.2556;0.9034;
1026.0000;0.2532;0.8911;
1026.3000;0.2580;0.9108;
1026.6000;0.2572;0.8936;
1026.9000;0.2556;0.8887;
1027.2000;0.2613;0.9083;
1027.5000;0.2515;0.8862;
1027.8000;0.2548;0.8911;
1028.1000;0.2475;0.8813;
1028.4000;0.2515;0.8764;
1028.7000;0.2532;0.8813;
1029.0000;0.2532;0.8789;
1029.3000;0.2556;0.8887;
1029.6000;0.2556;0.8887;
1029.9000;0.2548;0.8764;
1030.2000;0.2564;0.8838;
1030.5000;0.2556;0.8789;
1030.8000;0.2564;0.8911;
1031.1000;0.2572;0.8936;
1031.4000;0.2556;0.8813;
1031.7000;0.2540;0.8838;
1032.0000;0.2564;0.9010;
1032.3000;0.2564;0.8985;
1032.6000;0.2540;0.8985;
1032.9000;0.2532;0.9010;
1033.2000;0.2540;0.8961;
1033.5000;0.2548;0.8961;
1033.8000;0.2556;0.8961;
1034.1000;0.2532;0.9034;
1034.4000;0.2556;0.9108;
1034.7000;0.2556;0.9034;
1035.0000;0.2523;0.8911;
1035.3000;0.2507;0.8838;
1035.6000;0.2548;0.8887;
1035.9000;0.2556;0.8911;
1036.2000;0.2532;0.8911;
1036.5000;0.2548;0.8961;
1036.8000;0.2556;0.8887;
1037.1000;0.2556;0.8936;
1037.4000;0.2523;0.8887;
1037.7000;0.2580;0.8936;
1038.0000;0.2540;0.8789;
1038.3000;0.2507;0.8887;
1038.6000;0.2556;0.9010;
1038.9000;0.2523;0.8985;
1039.2000;0.2540;0.8985;
1039.5000;0.2556;0.9083;
1039.8000;0.2540;0.9108;
1040.1000;0.2540;0.9059;
1040.4000;0.2540;0.9108;
1040.7000;0.2556;0.9108;
1041.0000;0.2564;0.9157;
1041.3000;0.2532;0.9108;
1041.6000;0.2548;0.9132;
1041.9000;0.2556;0.9206;
1042.2000;0.2540;0.9157;
1042.5000;0.2548;0.9108;
1042.8000;0.2548;0.9083;
1043.1000;0.2548;0.9108;
1043.4000;0.2499;0.9132;
1043.7000;0.2548;0.9280;
1044.0000;0.2548;0.9231;
1044.3000;0.2646;0.9525;
1044.6000;0.2540;0.9255;
1044.9000;0.2548;0.9231;
1045.2000;0.2540;0.9157;
1045.5000;0.2532;0.9132;
1045.8000;0.2548;0.9157;
1046.1000;0.2556;0.9034;
1046.4000;0.2556;0.8985;
1046.7000;0.2532;0.8985;
1047.0000;0.2540;0.8985;
1047.3000;0.2548;0.9083;
1047.6000;0.2540;0.9108;
1047.9000;0.2548;0.9132;
1048.2000;0.2532;0.9059;
1048.5000;0.2540;0.9083;
1048.8000;0.2548;0.9034;
1049.1000;0.2540;0.9108;
1049.4000;0.2556;0.9059;
1049.7000;0.2597;0.9132;
1050.0000;0.2556;0.9157;
1050.3000;0.2548;0.9108;
1050.6000;0.2556;0.9083;
1050.9000;0.2564;0.9108;
1051.2000;0.2548;0.9157;
1051.5000;0.2548;0.9157;
1051.8000;0.2580;0.9231;
1052.1000;0.2540;0.9182;
1052.4000;0.2564;0.9231;
1052.7000;0.2548;0.9132;
1053.0000;0.2548;0.9255;
1053.3000;0.2556;0.9280;
1053.6000;0.2548;0.9132;
1053.9000;0.2515;0.9059;
1054.2000;0.2532;0.9083;
1054.5000;0.2548;0.9034;
1054.8000;0.2540;0.9059;
1055.1000;0.2540;0.9157;
1055.4000;0.2564;0.9182;
1055.7000;0.2540;0.9157;
1056.0000;0.2532;0.9182;
1056.3000;0.2515;0.9182;
1056.6000;0.2540;0.9157;
1056.9000;0.2556;0.9157;
1057.2000;0.2540;0.9157;
1057.5000;0.2540;0.9182;
1057.8000;0.2540;0.9182;
1058.1000;0.2556;0.9231;
1058.4000;0.2540;0.9157;
1058.7000;0.2548;0.9231;
1059.0000;0.2637;0.9452;
1059.3000;0.2532;0.9182;
1059.6000;0.2540;0.9157;
1059.9000;0.2605;0.9255;
1060.2000;0.2540;0.9059;
1060.5000;0.2548;0.9059;
1060.8000;0.2548;0.8985;
1061.1000;0.2556;0.9059;
1061.4000;0.2564;0.9059;
1061.7000;0.2556;0.9132;
1062.0000;0.2589;0.9231;
1062.3000;0.2556;0.9108;
1062.6000;0.2564;0.9108;
1062.9000;0.2589;0.9132;
1063.2000;0.2556;0.9034;
1063.5000;0.2540;0.9010;
1063.8000;0.2572;0.9182;
1064.1000;0.2540;0.9059;
1064.4000;0.2523;0.9108;
1064.7000;0.2540;0.9206;
1065.0000;0.2548;0.9255;
1065.3000;0.2556;0.9206;
1065.6000;0.2564;0.9182;
1065.9000;0.2458;0.8862;
1066.2000;0.2515;0.9059;
1066.5000;0.2548;0.9157;
1066.8000;0.2507;0.8936;
1067.1000;0.2523;0.9034;
1067.4000;0.2556;0.9108;
1067.7000;0.2540;0.9059;
1068.0000;0.2483;0.8936;
1068.3000;0.2532;0.9083;
1068.6000;0.2548;0.9206;
1068.9000;0.2548;0.9206;
1069.2000;0.2556;0.9157;
1069.5000;0.2556;0.9157;
1069.8000;0.2556;0.9304;
1070.1000;0.2556;0.9206;
1070.4000;0.2556;0.9206;
1070.7000;0.2540;0.9206;
1071.0000;0.2532;0.9206;
1071.3000;0.2564;0.9304;
1071.6000;0.2556;0.9206;
1071.9000;0.2540;0.9157;
1072.2000;0.2556;0.9132;
1072.5000;0.2540;0.9108;
1072.8000;0.2540;0.9182;
1073.1000;0.2540;0.9108;
1073.4000;0.2564;0.9059;
1073.7000;0.2548;0.9059;
1074.0000;0.2458;0.8838;
1074.3000;0.2556;0.9132;
1074.6000;0.2540;0.9182;
1074.9000;0.2621;0.9402;
1075.2000;0.2466;0.9034;
1075.5000;0.2540;0.9255;
1075.8000;0.2556;0.9206;
1076.1000;0.2540;0.9034;
1076.4000;0.2556;0.9083;
1076.7000;0.2564;0.9083;
1077.0000;0.2540;0.9083;
1077.3000;0.2523;0.9059;
1077.6000;0.2556;0.9157;
1077.9000;0.2548;0.9157;
1078.2000;0.2540;0.9108;
1078.5000;0.2548;0.9157;
1078.8000;0.2540;0.9132;
1079.1000;0.2540;0.9132;
1079.4000;0.2540;0.9206;
1079.7000;0.2548;0.9132;
1080.0000;0.2548;0.9157;
1080.3000;0.2556;0.9083;
1080.6000;0.2548;0.9083;
1080.9000;0.2564;0.9132;
1081.2000;0.2556;0.9083;
1081.5000;0.2548;0.9132;
1081.8000;0.2556;0.9182;
1082.1000;0.2507;0.9083;
1082.4000;0.2532;0.9108;
1082.7000;0.2540;0.9108;
1083.0000;0.2556;0.9157;
1083.3000;0.2540;0.9157;
1083.6000;0.2532;0.9083;
1083.9000;0.2548;0.9010;
1084.2000;0.2556;0.9034;
1084.5000;0.2532;0.9132;
1084.8000;0.2532;0.9059;
1085.1000;0.2548;0.9182;
1085.4000;0.2564;0.9206;
1085.7000;0.2548;0.9231;
1086.0000;0.2548;0.9255;
1086.3000;0.2556;0.9329;
1086.6000;0.2532;0.9206;
1086.9000;0.2564;0.9280;
1087.2000;0.2572;0.9231;
1087.5000;0.2532;0.9206;
1087.8000;0.2540;0.9182;
1088.1000;0.2564;0.9231;
1088.4000;0.2589;0.9329;
1088.7000;0.2540;0.9255;
1089.0000;0.2540;0.9255;
1089.3000;0.2556;0.9132;
1089.6000;0.2556;0.9108;
1089.9000;0.2548;0.9182;
1090.2000;0.2540;0.9157;
1090.5000;0.2540;0.9280;
1090.8000;0.2540;0.9280;
1091.1000;0.2523;0.9231;
1091.4000;0.2548;0.9304;
1091.7000;0.2564;0.9304;
1092.0000;0.2532;0.9304;
1092.3000;0.2523;0.9280;
1092.6000;0.2556;0.9378;
1092.9000;0.2515;0.9182;
1093.2000;0.2548;0.9231;
1093.5000;0.2540;0.9231;
1093.8000;0.2556;0.9304;
1094.1000;0.2523;0.9231;
1094.4000;0.2548;0.9304;
1094.7000;0.2532;0.9304;
1095.0000;0.2548;0.9353;
1095.3000;0.2556;0.9353;
1095.6000;0.2580;0.9402;
1095.9000;0.2475;0.9059;
1096.2000;0.2523;0.9108;
1096.5000;0.2548;0.9132;
1096.8000;0.2556;0.9157;
1097.1000;0.2507;0.8985;
1097.4000;0.2548;0.9059;
1097.7000;0.2556;0.9108;
1098.0000;0.2597;0.9108;
1098.3000;0.2523;0.8961;
1098.6000;0.2532;0.8936;
1098.9000;0.2466;0.8764;
1099.2000;0.2556;0.8936;
1099.5000;0.2548;0.9034;
1099.8000;0.2548;0.9083;
1100.1000;0.2564;0.9108;
1100.4000;0.2540;0.9132;
1100.7000;0.2548;0.9132;
1101.0000;0.2507;0.8985;
1101.3000;0.2556;0.9034;
1101.6000;0.2523;0.9010;
1101.9000;0.2532;0.9083;
1102.2000;0.2548;0.9157;
1102.5000;0.2540;0.9157;
1102.8000;0.2523;0.9010;
1103.1000;0.2532;0.8985;
1103.4000;0.2548;0.9083;
1103.7000;0.2507;0.9010;
1104.0000;0.2532;0.9083;
1104.3000;0.2548;0.9157;
1104.6000;0.2556;0.9157;
1104.9000;0.2548;0.9059;
1105.2000;0.2548;0.9083;
1105.5000;0.2548;0.9182;
1105.8000;0.2564;0.9255;
1106.1000;0.2548;0.9304;
1106.4000;0.2515;0.9280;
1106.7000;0.2466;0.9083;
1107.0000;0.2540;0.9280;
1107.3000;0.2556;0.9353;
1107.6000;0.2532;0.9378;
1107.9000;0.2548;0.9402;
1108.2000;0.2548;0.9378;
1108.5000;0.2548;0.9329;
1108.8000;0.2540;0.9255;
1109.1000;0.2499;0.9206;
1109.4000;0.2540;0.9206;
1109.7000;0.2532;0.9206;
1110.0000;0.2548;0.9280;
1110.3000;0.2532;0.9231;
1110.6000;0.2540;0.9157;
1110.9000;0.2556;0.9182;
1111.2000;0.2613;0.9353;
1111.5000;0.2548;0.9132;
1111.8000;0.2532;0.9108;
1112.1000;0.2548;0.9182;
1112.4000;0.2483;0.9034;
1112.7000;0.2564;0.9182;
1113.0000;0.2548;0.8961;
1113.3000;0.2580;0.9108;
1113.6000;0.2540;0.8985;
1113.9000;0.2572;0.9034;
1114.2000;0.2450;0.8740;
1114.5000;0.2564;0.9083;
1114.8000;0.2548;0.9034;
1115.1000;0.2532;0.8936;
1115.4000;0.2532;0.8961;
1115.7000;0.2548;0.9010;
1116.0000;0.2548;0.9034;
1116.3000;0.2572;0.9059;
1116.6000;0.2540;0.8961;
1116.9000;0.2532;0.8985;
1117.2000;0.2564;0.9034;
1117.5000;0.2540;0.8985;
1117.8000;0.2532;0.9034;
1118.1000;0.2515;0.8985;
1118.4000;0.2540;0.9083;
1118.7000;0.2540;0.9010;
1119.0000;0.2532;0.9034;
1119.3000;0.2564;0.9108;
1119.6000;0.2540;0.8985;
1119.9000;0.2556;0.9010;
1120.2000;0.2572;0.9083;
1120.5000;0.2540;0.8961;
1120.8000;0.2523;0.8936;
1121.1000;0.2540;0.8961;
1121.4000;0.2548;0.9034;
1121.7000;0.2532;0.8961;
1122.0000;0.2515;0.8911;
1122.3000;0.2540;0.9108;
1122.6000;0.2532;0.9182;
1122.9000;0.2548;0.9304;
1123.2000;0.2540;0.9304;
1123.5000;0.2532;0.9206;
1123.8000;0.2540;0.9132;
1124.1000;0.2523;0.9206;
1124.4000;0.2548;0.9304;
1124.7000;0.2540;0.9255;
1125.0000;0.2548;0.9304;
1125.3000;0.2532;0.9304;
1125.6000;0.2556;0.9280;
1125.9000;0.2548;0.9378;
1126.2000;0.2532;0.9329;
1126.5000;0.2532;0.9353;
1126.8000;0.2523;0.9255;
1127.1000;0.2548;0.9231;
1127.4000;0.2556;0.9231;
1127.7000;0.2548;0.9206;
1128.0000;0.2556;0.9182;
1128.3000;0.2540;0.9182;
1128.6000;0.2540;0.9182;
1128.9000;0.2548;0.9206;
1129.2000;0.2556;0.9255;
1129.5000;0.2540;0.9157;
1129.8000;0.2564;0.9255;
1130.1000;0.2540;0.9231;
1130.4000;0.2548;0.9255;
1130.7000;0.2540;0.9280;
1131.0000;0.2564;0.9427;
1131.3000;0.2540;0.9402;
1131.6000;0.2548;0.9378;
1131.9000;0.2523;0.9329;
1132.2000;0.2556;0.9280;
1132.5000;0.2532;0.9157;
1132.8000;0.2532;0.9182;
1133.1000;0.2532;0.9231;
1133.4000;0.2523;0.9255;
1133.7000;0.2556;0.9304;
1134.0000;0.2556;0.9280;
1134.3000;0.2564;0.9206;
1134.6000;0.2621;0.9402;
1134.9000;0.2540;0.9231;
1135.2000;0.2556;0.9231;
1135.5000;0.2532;0.9182;
1135.8000;0.2491;0.8936;
1136.1000;0.2564;0.9108;
1136.4000;0.2540;0.9157;
1136.7000;0.2540;0.9182;
1137.0000;0.2515;0.9059;
1137.3000;0.2491;0.8936;
1137.6000;0.2548;0.9034;
1137.9000;0.2540;0.9034;
1138.2000;0.2532;0.9059;
1138.5000;0.2515;0.9059;
1138.8000;0.2548;0.9132;
1139.1000;0.2540;0.9108;
1139.4000;0.2532;0.9083;
1139.7000;0.2540;0.9132;
1140.0000;0.2556;0.9157;
1140.3000;0.2556;0.9132;
1140.6000;0.2548;0.9132;
1140.9000;0.2507;0.9010;
1141.2000;0.2540;0.9157;
1141.5000;0.2540;0.9182;
1141.8000;0.2523;0.9108;
1142.1000;0.2540;0.9206;
1142.4000;0.2540;0.9329;
1142.7000;0.2540;0.9304;
1143.0000;0.2540;0.9231;
1143.3000;0.2556;0.9304;
1143.6000;0.2540;0.9206;
1143.9000;0.2548;0.9280;
1144.2000;0.2532;0.9329;
1144.5000;0.2540;0.9353;
1144.8000;0.2548;0.9304;
1145.1000;0.2572;0.9329;
1145.4000;0.2540;0.9304;
1145.7000;0.2548;0.9255;
1146.0000;0.2523;0.9157;
1146.3000;0.2548;0.9132;
1146.6000;0.2548;0.9108;
1146.9000;0.2548;0.9182;
1147.2000;0.2540;0.9083;
1147.5000;0.2532;0.9157;
1147.8000;0.2556;0.9255;
1148.1000;0.2532;0.9206;
1148.4000;0.2540;0.9231;
1148.7000;0.2548;0.9206;
1149.0000;0.2556;0.9255;
1149.3000;0.2515;0.9157;
1149.6000;0.2523;0.9182;
1149.9000;0.2540;0.9304;
1150.2000;0.2548;0.9280;
1150.5000;0.2556;0.9182;
1150.8000;0.2556;0.9182;
1151.1000;0.2540;0.9182;
1151.4000;0.2548;0.9255;
1151.7000;0.2540;0.9231;
1152.0000;0.2532;0.9304;
1152.3000;0.2532;0.9255;
1152.6000;0.2540;0.9280;
1152.9000;0.2532;0.9255;
1153.2000;0.2507;0.9108;
1153.5000;0.2523;0.9083;
1153.8000;0.2523;0.9059;
1154.1000;0.2589;0.9083;
1154.4000;0.2556;0.8985;
1154.7000;0.2548;0.8936;
1155.0000;0.2548;0.8887;
1155.3000;0.2548;0.8862;
1155.6000;0.2515;0.8789;
1155.9000;0.2548;0.8911;
1156.2000;0.2564;0.9010;
1156.5000;0.2491;0.8862;
1156.8000;0.2548;0.9010;
1157.1000;0.2540;0.8985;
1157.4000;0.2523;0.8887;
1157.7000;0.2523;0.8961;
1158.0000;0.2548;0.8936;
1158.3000;0.2564;0.8887;
1158.6000;0.2605;0.9083;
1158.9000;0.2540;0.8985;
1159.2000;0.2556;0.9083;
1159.5000;0.2515;0.8862;
1159.8000;0.2548;0.8985;
1160.1000;0.2540;0.9010;
1160.4000;0.2564;0.9010;
1160.7000;0.2605;0.9182;
1161.0000;0.2572;0.9157;
1161.3000;0.2548;0.9132;
1161.6000;0.2548;0.8985;
1161.9000;0.2532;0.8936;
1162.2000;0.2515;0.8936;
1162.5000;0.2540;0.8985;
1162.8000;0.2532;0.9010;
1163.1000;0.2572;0.9132;
1163.4000;0.2523;0.8985;
1163.7000;0.2523;0.8911;
1164.0000;0.2532;0.8961;
1164.3000;0.2564;0.8985;
1164.6000;0.2540;0.8911;
1164.9000;0.2540;0.8813;
1165.2000;0.2450;0.8519;
1165.5000;0.2556;0.8789;
1165.8000;0.2548;0.8740;
1166.1000;0.2523;0.8740;
1166.4000;0.2556;0.8862;
1166.7000;0.2540;0.8862;
1167.0000;0.2572;0.8936;
1167.3000;0.2540;0.8887;
1167.6000;0.2540;0.8838;
1167.9000;0.2532;0.8740;
1168.2000;0.2540;0.8715;
1168.5000;0.2540;0.8715;
1168.8000;0.2532;0.8740;
1169.1000;0.2540;0.8838;
1169.4000;0.2548;0.8838;
1169.7000;0.2548;0.8961;
1170.0000;0.2540;0.8985;
1170.3000;0.2540;0.8887;
1170.6000;0.2556;0.8911;
1170.9000;0.2548;0.8911;
1171.2000;0.2532;0.8911;
1171.5000;0.2548;0.8961;
1171.8000;0.2540;0.9010;
1172.1000;0.2605;0.9132;
1172.4000;0.2548;0.8961;
1172.7000;0.2540;0.8985;
1173.0000;0.2548;0.8985;
1173.3000;0.2556;0.8985;
1173.6000;0.2532;0.8961;
1173.9000;0.2540;0.9108;
1174.2000;0.2491;0.8936;
1174.5000;0.2548;0.9132;
1174.8000;0.2532;0.9108;
1175.1000;0.2466;0.8961;
1175.4000;0.2540;0.9304;
1175.7000;0.2507;0.9206;
1176.0000;0.2548;0.9231;
1176.3000;0.2589;0.9304;
1176.6000;0.2532;0.9182;
1176.9000;0.2523;0.9182;
1177.2000;0.2589;0.9231;
1177.5000;0.2556;0.9157;
1177.8000;0.2523;0.9083;
1178.1000;0.2540;0.9108;
1178.4000;0.2540;0.9157;
1178.7000;0.2515;0.9108;
1179.0000;0.2540;0.9231;
1179.3000;0.2532;0.9206;
1179.6000;0.2580;0.9378;
1179.9000;0.2475;0.9083;
1180.2000;0.2556;0.9255;
1180.5000;0.2540;0.9182;
1180.8000;0.2548;0.9206;
1181.1000;0.2515;0.9132;
1181.4000;0.2548;0.9329;
1181.7000;0.2580;0.9501;
1182.0000;0.2556;0.9427;
1182.3000;0.2532;0.9280;
1182.6000;0.2540;0.9206;
1182.9000;0.2540;0.9280;
1183.2000;0.2548;0.9378;
1183.5000;0.2548;0.9329;
1183.8000;0.2540;0.9329;
1184.1000;0.2540;0.9353;
1184.4000;0.2540;0.9402;
1184.7000;0.2540;0.9353;
1185.0000;0.2523;0.9182;
1185.3000;0.2556;0.9231;
1185.6000;0.2523;0.9157;
1185.9000;0.2548;0.9280;
1186.2000;0.2532;0.9255;
1186.5000;0.2548;0.9280;
1186.8000;0.2548;0.9378;
1187.1000;0.2564;0.9452;
1187.4000;0.2548;0.9353;
1187.7000;0.2540;0.9402;
1188.0000;0.2564;0.9476;
1188.3000;0.2540;0.9402;
1188.6000;0.2548;0.9427;
1188.9000;0.2507;0.9353;
1189.2000;0.2556;0.9452;
1189.5000;0.2523;0.9378;
1189.8000;0.2540;0.9427;
1190.1000;0.2556;0.9427;
1190.4000;0.2540;0.9353;
1190.7000;0.2523;0.9427;
1191.0000;0.2540;0.9427;
1191.3000;0.2548;0.9329;
1191.6000;0.2540;0.9329;
1191.9000;0.2540;0.9329;
1192.2000;0.2523;0.9329;
1192.5000;0.2589;0.9353;
1192.8000;0.2540;0.9231;
1193.1000;0.2532;0.9304;
1193.4000;0.2540;0.9304;
1193.7000;0.2523;0.9304;
1194.0000;0.2556;0.9231;
1194.3000;0.2540;0.9304;
1194.6000;0.2548;0.9378;
1194.9000;0.2540;0.9402;
1195.2000;0.2515;0.9304;
1195.5000;0.2532;0.9329;
1195.8000;0.2556;0.9427;
1196.1000;0.2507;0.9304;
1196.4000;0.2564;0.9525;
1196.7000;0.2540;0.9353;
1197.0000;0.2556;0.9353;
1197.3000;0.2458;0.9182;
1197.6000;0.2548;0.9427;
1197.9000;0.2548;0.9452;
1198.2000;0.2523;0.9329;
1198.5000;0.2556;0.9353;
1198.8000;0.2523;0.9304;
1199.1000;0.2532;0.9206;
1199.4000;0.2548;0.9157;
1199.7000;0.2556;0.9206;
1200.0000;0.2605;0.9353;
1200.3000;0.2572;0.9280;
1200.6000;0.2532;0.9132;
1200.9000;0.2556;0.9206;
1201.2000;0.2564;0.9255;
1201.5000;0.2548;0.9280;
1201.8000;0.2572;0.9304;
1202.1000;0.2556;0.9255;
1202.4000;0.2540;0.9231;
1202.7000;0.2507;0.9132;
1203.0000;0.2548;0.9182;
1203.3000;0.2540;0.9255;
1203.6000;0.2580;0.9304;
1203.9000;0.2532;0.9255;
1204.2000;0.2523;0.9255;
1204.5000;0.2548;0.9353;
1204.8000;0.2532;0.9304;
1205.1000;0.2548;0.9304;
1205.4000;0.2540;0.9378;
1205.7000;0.2523;0.9206;
1206.0000;0.2597;0.9280;
1206.3000;0.2532;0.9132;
1206.6000;0.2507;0.9083;
1206.9000;0.2540;0.9157;
1207.2000;0.2548;0.9157;
1207.5000;0.2532;0.9132;
1207.8000;0.2540;0.9157;
1208.1000;0.2532;0.9157;
1208.4000;0.2540;0.9182;
1208.7000;0.2548;0.9255;
1209.0000;0.2523;0.9157;
1209.3000;0.2540;0.9206;
1209.6000;0.2629;0.9427;
1209.9000;0.2556;0.9206;
1210.2000;0.2556;0.9182;
1210.5000;0.2532;0.9231;
1210.8000;0.2564;0.9304;
1211.1000;0.2540;0.9280;
1211.4000;0.2523;0.9231;
1211.7000;0.2556;0.9329;
1212.0000;0.2532;0.9231;
1212.3000;0.2580;0.9280;
1212.6000;0.2548;0.9255;
1212.9000;0.2540;0.9255;
1213.2000;0.2548;0.9255;
1213.5000;0.2540;0.9255;
1213.8000;0.2556;0.9255;
1214.1000;0.2532;0.9206;
1214.4000;0.2605;0.9427;
1214.7000;0.2532;0.9231;
1215.0000;0.2450;0.9083;
1215.3000;0.2483;0.9083;
1215.6000;0.2532;0.9206;
1215.9000;0.2605;0.9304;
1216.2000;0.2556;0.9206;
1216.5000;0.2613;0.9353;
1216.8000;0.2540;0.9157;
1217.1000;0.2540;0.9231;
1217.4000;0.2580;0.9353;
1217.7000;0.2540;0.9329;
1218.0000;0.2556;0.9280;
1218.3000;0.2507;0.9182;
1218.6000;0.2548;0.9255;
1218.9000;0.2548;0.9329;
1219.2000;0.2532;0.9206;
1219.5000;0.2523;0.9206;
1219.8000;0.2548;0.9206;
1220.1000;0.2556;0.9157;
1220.4000;0.2548;0.9108;
1220.7000;0.2564;0.8985;
1221.0000;0.2564;0.9034;
1221.3000;0.2523;0.8961;
1221.6000;0.2532;0.8985;
1221.9000;0.2540;0.9108;
1222.2000;0.2532;0.9206;
1222.5000;0.2556;0.9182;
1222.8000;0.2540;0.9206;
1223.1000;0.2532;0.9157;
1223.4000;0.2564;0.9182;
1223.7000;0.2523;0.9132;
1224.0000;0.2556;0.9157;
1224.3000;0.2548;0.9255;
1224.6000;0.2523;0.9157;
1224.9000;0.2556;0.9206;
1225.2000;0.2548;0.9206;
1225.5000;0.2483;0.8985;
1225.8000;0.2556;0.9034;
1226.1000;0.2532;0.9034;
1226.4000;0.2532;0.9083;
1226.7000;0.2597;0.9255;
1227.0000;0.2572;0.9182;
1227.3000;0.2548;0.9108;
1227.6000;0.2523;0.9108;
1227.9000;0.2491;0.8961;
1228.2000;0.2540;0.9083;
1228.5000;0.2532;0.9182;
1228.8000;0.2540;0.9157;
1229.1000;0.2580;0.9280;
1229.4000;0.2556;0.9182;
1229.7000;0.2523;0.9182;
1230.0000;0.2540;0.9182;
1230.3000;0.2548;0.9231;
1230.6000;0.2532;0.9108;
1230.9000;0.2540;0.9157;
1231.2000;0.2532;0.9083;
1231.5000;0.2548;0.9157;
1231.8000;0.2540;0.9157;
1232.1000;0.2548;0.9157;
1232.4000;0.2523;0.9083;
1232.7000;0.2548;0.9132;
1233.0000;0.2532;0.9231;
1233.3000;0.2466;0.9010;
1233.6000;0.2548;0.9206;
1233.9000;0.2556;0.9255;
1234.2000;0.2540;0.9231;
1234.5000;0.2523;0.9182;
1234.8000;0.2556;0.9206;
1235.1000;0.2515;0.9132;
1235.4000;0.2548;0.9206;
1235.7000;0.2556;0.9182;
1236.0000;0.2572;0.9206;
1236.3000;0.2556;0.9157;
1236.6000;0.2556;0.9231;
1236.9000;0.2540;0.9157;
1237.2000;0.2532;0.9157;
1237.5000;0.2540;0.9059;
1237.8000;0.2548;0.9083;
1238.1000;0.2540;0.9108;
1238.4000;0.2540;0.9059;
1238.7000;0.2523;0.9059;
1239.0000;0.2548;0.9010;
1239.3000;0.2556;0.9034;
1239.6000;0.2515;0.8961;
1239.9000;0.2532;0.9083;
1240.2000;0.2532;0.9108;
1240.5000;0.2523;0.9108;
1240.8000;0.2515;0.9034;
1241.1000;0.2499;0.9083;
1241.4000;0.2515;0.9157;
1241.7000;0.2532;0.9231;
1242.0000;0.2515;0.9231;
1242.3000;0.2540;0.9304;
1242.6000;0.2540;0.9255;
1242.9000;0.2532;0.9231;
1243.2000;0.2491;0.9059;
1243.5000;0.2507;0.9182;
1243.8000;0.2540;0.9182;
1244.1000;0.2548;0.9132;
1244.4000;0.2540;0.9083;
1244.7000;0.2515;0.8936;
1245.0000;0.2540;0.9132;
1245.3000;0.2540;0.9206;
1245.6000;0.2515;0.9132;
1245.9000;0.2532;0.9108;
1246.2000;0.2540;0.9010;
1246.5000;0.2548;0.8936;
1246.8000;0.2556;0.8936;
1247.1000;0.2523;0.8862;
1247.4000;0.2523;0.8862;
1247.7000;0.2540;0.8862;
1248.0000;0.2572;0.8961;
1248.3000;0.2540;0.8961;
1248.6000;0.2532;0.8936;
1248.9000;0.2556;0.8936;
1249.2000;0.2597;0.9034;
1249.5000;0.2548;0.8911;
1249.8000;0.2540;0.8862;
1250.1000;0.2540;0.8985;
1250.4000;0.2540;0.8911;
1250.7000;0.2540;0.8887;
1251.0000;0.2483;0.8641;
1251.3000;0.2548;0.8813;
1251.6000;0.2572;0.8838;
1251.9000;0.2499;0.8641;
1252.2000;0.2556;0.8862;
1252.5000;0.2507;0.8740;
1252.8000;0.2515;0.8813;
1253.1000;0.2515;0.8789;
1253.4000;0.2515;0.8764;
1253.7000;0.2532;0.8789;
1254.0000;0.2540;0.8936;
1254.3000;0.2532;0.8961;
1254.6000;0.2532;0.9010;
1254.9000;0.2532;0.8936;
1255.2000;0.2556;0.8936;
1255.5000;0.2548;0.8911;
1255.8000;0.2556;0.8838;
1256.1000;0.2564;0.8887;
1256.4000;0.2532;0.8764;
1256.7000;0.2540;0.8789;
1257.0000;0.2540;0.8887;
1257.3000;0.2507;0.8789;
1257.6000;0.2532;0.8961;
1257.9000;0.2556;0.9059;
1258.2000;0.2540;0.9034;
1258.5000;0.2540;0.8961;
1258.8000;0.2532;0.8985;
1259.1000;0.2532;0.8961;
1259.4000;0.2548;0.9010;
1259.7000;0.2540;0.9010;
1260.0000;0.2540;0.9059;
1260.3000;0.2548;0.8936;
1260.6000;0.2540;0.8862;
1260.9000;0.2548;0.8862;
1261.2000;0.2548;0.8911;
1261.5000;0.2532;0.8862;
1261.8000;0.2532;0.8887;
1262.1000;0.2532;0.8887;
1262.4000;0.2540;0.8862;
1262.7000;0.2532;0.8838;
1263.0000;0.2515;0.8911;
1263.3000;0.2532;0.8936;
1263.6000;0.2532;0.9132;
1263.9000;0.2532;0.9157;
1264.2000;0.2540;0.9132;
1264.5000;0.2540;0.9132;
1264.8000;0.2548;0.9132;
1265.1000;0.2556;0.9108;
1265.4000;0.2507;0.9010;
1265.7000;0.2523;0.9132;
1266.0000;0.2548;0.9157;
1266.3000;0.2532;0.9132;
1266.6000;0.2540;0.9034;
1266.9000;0.2548;0.9010;
1267.2000;0.2540;0.9010;
1267.5000;0.2523;0.9010;
1267.8000;0.2540;0.8961;
1268.1000;0.2532;0.8961;
1268.4000;0.2540;0.9010;
1268.7000;0.2483;0.8838;
1269.0000;0.2532;0.9010;
1269.3000;0.2507;0.8936;
1269.6000;0.2548;0.9059;
1269.9000;0.2491;0.8985;
1270.2000;0.2523;0.9034;
1270.5000;0.2548;0.9132;
1270.8000;0.2548;0.9206;
1271.1000;0.2564;0.9108;
1271.4000;0.2540;0.9059;
1271.7000;0.2475;0.8838;
1272.0000;0.2540;0.9010;
1272.3000;0.2564;0.9132;
1272.6000;0.2540;0.9108;
1272.9000;0.2523;0.9034;
1273.2000;0.2532;0.9157;
1273.5000;0.2548;0.9231;
1273.8000;0.2540;0.9157;
1274.1000;0.2523;0.9083;
1274.4000;0.2613;0.9427;
1274.7000;0.2532;0.9157;
1275.0000;0.2572;0.9304;
1275.3000;0.2540;0.9157;
1275.6000;0.2540;0.9157;
1275.9000;0.2540;0.9157;
1276.2000;0.2507;0.9132;
1276.5000;0.2466;0.9132;
1276.8000;0.2532;0.9206;
1277.1000;0.2523;0.9132;
1277.4000;0.2499;0.9108;
1277.7000;0.2523;0.9108;
1278.0000;0.2532;0.9059;
1278.3000;0.2548;0.9059;
1278.6000;0.2548;0.9034;
1278.9000;0.2532;0.8985;
1279.2000;0.2532;0.9010;
1279.5000;0.2540;0.8936;
1279.8000;0.2540;0.8887;
1280.1000;0.2572;0.8887;
1280.4000;0.2540;0.8838;
1280.7000;0.2548;0.8764;
1281.0000;0.2548;0.8789;
1281.3000;0.2556;0.8911;
1281.6000;0.2548;0.8911;
1281.9000;0.2540;0.9034;
1282.2000;0.2523;0.9034;
1282.5000;0.2540;0.9034;
1282.8000;0.2540;0.8985;
1283.1000;0.2548;0.9059;
1283.4000;0.2532;0.9010;
1283.7000;0.2515;0.8936;
1284.0000;0.2475;0.8789;
1284.3000;0.2523;0.9010;
1284.6000;0.2548;0.9182;
1284.9000;0.2572;0.9255;
1285.2000;0.2597;0.9378;
1285.5000;0.2515;0.9182;
1285.8000;0.2540;0.9231;
1286.1000;0.2532;0.9255;
1286.4000;0.2523;0.9182;
1286.7000;0.2532;0.9182;
1287.0000;0.2532;0.9206;
1287.3000;0.2540;0.9231;
1287.6000;0.2532;0.9255;
1287.9000;0.2532;0.9206;
1288.2000;0.2515;0.9206;
1288.5000;0.2532;0.9157;
1288.8000;0.2532;0.9010;
1289.1000;0.2532;0.8985;
1289.4000;0.2483;0.8838;
1289.7000;0.2572;0.9034;
1290.0000;0.2532;0.8936;
1290.3000;0.2564;0.8862;
1290.6000;0.2523;0.8887;
1290.9000;0.2548;0.8961;
1291.2000;0.2532;0.8985;
1291.5000;0.2556;0.9034;
1291.8000;0.2556;0.9059;
1292.1000;0.2499;0.8985;
1292.4000;0.2540;0.9231;
1292.7000;0.2540;0.9231;
1293.0000;0.2532;0.9182;
1293.3000;0.2507;0.9132;
1293.6000;0.2540;0.9157;
1293.9000;0.2532;0.9231;
1294.2000;0.2540;0.9182;
1294.5000;0.2540;0.9132;
1294.8000;0.2515;0.9157;
1295.1000;0.2556;0.9182;
1295.4000;0.2548;0.9255;
1295.7000;0.2532;0.9182;
1296.0000;0.2556;0.9255;
1296.3000;0.2540;0.9206;
1296.6000;0.2548;0.9157;
1296.9000;0.2532;0.9206;
1297.2000;0.2540;0.9206;
1297.5000;0.2548;0.9182;
1297.8000;0.2540;0.9132;
1298.1000;0.2523;0.9034;
1298.4000;0.2523;0.8936;
1298.7000;0.2580;0.8961;
1299.0000;0.2450;0.8691;
1299.3000;0.2523;0.8887;
1299.6000;0.2532;0.8936;
1299.9000;0.2589;0.9132;
1300.2000;0.2556;0.9059;
1300.5000;0.2540;0.9083;
1300.8000;0.2523;0.9034;
1301.1000;0.2548;0.9108;
1301.4000;0.2548;0.9083;
1301.7000;0.2532;0.9083;
1302.0000;0.2548;0.9010;
1302.3000;0.2523;0.8985;
1302.6000;0.2532;0.9083;
1302.9000;0.2548;0.9108;
1303.2000;0.2523;0.9108;
1303.5000;0.2532;0.8985;
1303.8000;0.2523;0.8887;
1304.1000;0.2548;0.8936;
1304.4000;0.2556;0.8911;
1304.7000;0.2556;0.8813;
1305.0000;0.2523;0.8789;
1305.3000;0.2499;0.8764;
1305.6000;0.2605;0.9010;
1305.9000;0.2589;0.9010;
1306.2000;0.2605;0.8911;
1306.5000;0.2523;0.8715;
1306.8000;0.2556;0.8911;
1307.1000;0.2442;0.8691;
1307.4000;0.2523;0.8862;
1307.7000;0.2523;0.8887;
1308.0000;0.2515;0.8911;
1308.3000;0.2507;0.8936;
1308.6000;0.2548;0.9083;
1308.9000;0.2540;0.9059;
1309.2000;0.2523;0.9083;
1309.5000;0.2507;0.8985;
1309.8000;0.2426;0.8862;
1310.1000;0.2540;0.9182;
1310.4000;0.2532;0.9182;
1310.7000;0.2532;0.9157;
1311.0000;0.2523;0.9108;
1311.3000;0.2540;0.9108;
1311.6000;0.2466;0.8862;
1311.9000;0.2532;0.9132;
1312.2000;0.2540;0.9157;
1312.5000;0.2515;0.9083;
1312.8000;0.2507;0.8961;
1313.1000;0.2499;0.8838;
1313.4000;0.2523;0.8911;
1313.7000;0.2556;0.8985;
1314.0000;0.2532;0.8911;
1314.3000;0.2540;0.8961;
1314.6000;0.2540;0.8961;
1314.9000;0.2556;0.9010;
1315.2000;0.2548;0.8985;
1315.5000;0.2540;0.9010;
1315.8000;0.2540;0.9157;
1316.1000;0.2532;0.9132;
1316.4000;0.2540;0.9034;
1316.7000;0.2540;0.8961;
1317.0000;0.2532;0.8985;
1317.3000;0.2532;0.8961;
1317.6000;0.2540;0.8961;
1317.9000;0.2507;0.8887;
1318.2000;0.2523;0.8985;
1318.5000;0.2540;0.9010;
1318.8000;0.2556;0.8985;
1319.1000;0.2532;0.8961;
1319.4000;0.2556;0.9059;
1319.7000;0.2523;0.8936;
1320.0000;0.2515;0.8985;
1320.3000;0.2532;0.9010;
1320.6000;0.2499;0.8936;
1320.9000;0.2540;0.9059;
1321.2000;0.2532;0.9157;
1321.5000;0.2548;0.9182;
1321.8000;0.2605;0.9206;
1322.1000;0.2540;0.9034;
1322.4000;0.2564;0.9108;
1322.7000;0.2532;0.9010;
1323.0000;0.2507;0.8961;
1323.3000;0.2507;0.8985;
1323.6000;0.2523;0.8961;
1323.9000;0.2540;0.9034;
1324.2000;0.2532;0.9034;
1324.5000;0.2499;0.8985;
1324.8000;0.2532;0.9083;
1325.1000;0.2499;0.8961;
1325.4000;0.2556;0.9132;
1325.7000;0.2540;0.9157;
1326.0000;0.2540;0.9182;
1326.3000;0.2556;0.9280;
1326.6000;0.2532;0.9206;
1326.9000;0.2564;0.9255;
1327.2000;0.2532;0.9157;
1327.5000;0.2499;0.8961;
1327.8000;0.2499;0.8936;
1328.1000;0.2540;0.9010;
1328.4000;0.2507;0.8887;
1328.7000;0.2523;0.8911;
1329.0000;0.2523;0.8936;
1329.3000;0.2548;0.8985;
1329.6000;0.2540;0.8936;
1329.9000;0.2540;0.8911;
1330.2000;0.2556;0.8985;
1330.5000;0.2515;0.8887;
1330.8000;0.2572;0.8985;
1331.1000;0.2532;0.8789;
1331.4000;0.2475;0.8666;
1331.7000;0.2507;0.8764;
1332.0000;0.2613;0.9010;
1332.3000;0.2580;0.8961;
1332.6000;0.2523;0.8740;
1332.9000;0.2540;0.8789;
1333.2000;0.2523;0.8838;
1333.5000;0.2532;0.8764;
1333.8000;0.2515;0.8789;
1334.1000;0.2515;0.8887;
1334.4000;0.2540;0.8911;
1334.7000;0.2532;0.8911;
1335.0000;0.2548;0.8985;
1335.3000;0.2540;0.8911;
1335.6000;0.2564;0.8961;
1335.9000;0.2540;0.8911;
1336.2000;0.2532;0.8862;
1336.5000;0.2523;0.8862;
1336.8000;0.2548;0.9010;
1337.1000;0.2548;0.8985;
1337.4000;0.2532;0.8985;
1337.7000;0.2548;0.9034;
1338.0000;0.2523;0.9108;
1338.3000;0.2532;0.9157;
1338.6000;0.2556;0.9231;
1338.9000;0.2556;0.9206;
1339.2000;0.2629;0.9402;
1339.5000;0.2540;0.9157;
1339.8000;0.2548;0.9083;
1340.1000;0.2507;0.8985;
1340.4000;0.2556;0.9132;
1340.7000;0.2564;0.9108;
1341.0000;0.2556;0.9010;
1341.3000;0.2572;0.9059;
1341.6000;0.2532;0.9010;
1341.9000;0.2523;0.8911;
1342.2000;0.2564;0.8985;
1342.5000;0.2515;0.8887;
1342.8000;0.2548;0.8936;
1343.1000;0.2532;0.8936;
1343.4000;0.2532;0.9010;
1343.7000;0.2532;0.9034;
1344.0000;0.2548;0.9108;
1344.3000;0.2532;0.9034;
1344.6000;0.2515;0.8936;
1344.9000;0.2523;0.9034;
1345.2000;0.2540;0.9132;
1345.5000;0.2548;0.9083;
1345.8000;0.2540;0.9083;
1346.1000;0.2548;0.9108;
1346.4000;0.2393;0.8666;
1346.7000;0.2548;0.8985;
1347.0000;0.2548;0.8911;
1347.3000;0.2621;0.9108;
1347.6000;0.2523;0.8887;
1347.9000;0.2556;0.9059;
1348.2000;0.2580;0.9059;
1348.5000;0.2540;0.8985;
1348.8000;0.2532;0.8936;
1349.1000;0.2556;0.8961;
1349.4000;0.2523;0.8936;
1349.7000;0.2548;0.8985;
1350.0000;0.2515;0.8911;
1350.3000;0.2523;0.8911;
1350.6000;0.2556;0.8936;
1350.9000;0.2523;0.8911;
1351.2000;0.2540;0.8936;
1351.5000;0.2540;0.8936;
1351.8000;0.2548;0.8961;
1352.1000;0.2532;0.8961;
1352.4000;0.2540;0.8961;
1352.7000;0.2532;0.8961;
1353.0000;0.2572;0.9059;
1353.3000;0.2540;0.8985;
1353.6000;0.2556;0.9010;
1353.9000;0.2507;0.8911;
1354.2000;0.2523;0.8985;
1354.5000;0.2532;0.9083;
1354.8000;0.2523;0.9083;
1355.1000;0.2491;0.9083;
1355.4000;0.2540;0.9157;
1355.7000;0.2540;0.9132;
1356.0000;0.2491;0.8961;
1356.3000;0.2523;0.9083;
1356.6000;0.2515;0.9108;
1356.9000;0.2540;0.9157;
1357.2000;0.2515;0.9083;
1357.5000;0.2523;0.9010;
1357.8000;0.2548;0.9083;
1358.1000;0.2548;0.9083;
1358.4000;0.2548;0.9010;
1358.7000;0.2523;0.8838;
1359.0000;0.2540;0.8764;
1359.3000;0.2540;0.8813;
1359.6000;0.2556;0.8887;
1359.9000;0.2548;0.8813;
1360.2000;0.2548;0.8691;
1360.5000;0.2540;0.8740;
1360.8000;0.2556;0.8764;
1361.1000;0.2564;0.8813;
1361.4000;0.2548;0.8789;
1361.7000;0.2532;0.8789;
1362.0000;0.2548;0.8789;
1362.3000;0.2556;0.8789;
1362.6000;0.2556;0.8740;
1362.9000;0.2540;0.8715;
1363.2000;0.2523;0.8617;
1363.5000;0.2556;0.8715;
1363.8000;0.2564;0.8666;
1364.1000;0.2540;0.8592;
1364.4000;0.2523;0.8641;
1364.7000;0.2532;0.8617;
1365.0000;0.2540;0.8666;
1365.3000;0.2507;0.8641;
1365.6000;0.2515;0.8641;
1365.9000;0.2548;0.8764;
1366.2000;0.2523;0.8691;
1366.5000;0.2499;0.8568;
1366.8000;0.2532;0.8641;
1367.1000;0.2523;0.8641;
1367.4000;0.2540;0.8862;
1367.7000;0.2548;0.8911;
1368.0000;0.2548;0.8911;
1368.3000;0.2556;0.8936;
1368.6000;0.2556;0.8911;
1368.9000;0.2532;0.8911;
1369.2000;0.2540;0.8911;
1369.5000;0.2515;0.8911;
1369.8000;0.2540;0.8961;
1370.1000;0.2548;0.8961;
1370.4000;0.2499;0.8887;
1370.7000;0.2548;0.8961;
1371.0000;0.2515;0.8985;
1371.3000;0.2532;0.8961;
1371.6000;0.2556;0.9083;
1371.9000;0.2523;0.8961;
1372.2000;0.2507;0.8887;
1372.5000;0.2548;0.8985;
1372.8000;0.2507;0.8936;
1373.1000;0.2532;0.8936;
1373.4000;0.2491;0.8813;
1373.7000;0.2556;0.8985;
1374.0000;0.2515;0.8985;
1374.3000;0.2540;0.9132;
1374.6000;0.2532;0.9108;
1374.9000;0.2540;0.9108;
1375.2000;0.2483;0.8887;
1375.5000;0.2523;0.9108;
1375.8000;0.2523;0.9083;
1376.1000;0.2540;0.9132;
1376.4000;0.2532;0.9157;
1376.7000;0.2548;0.9108;
1377.0000;0.2532;0.9010;
1377.3000;0.2532;0.8985;
1377.6000;0.2523;0.9083;
1377.9000;0.2540;0.9059;
1378.2000;0.2523;0.8961;
1378.5000;0.2532;0.9010;
1378.8000;0.2548;0.9108;
1379.1000;0.2613;0.9231;
1379.4000;0.2532;0.9157;
1379.7000;0.2540;0.9206;
1380.0000;0.2548;0.9304;
1380.3000;0.2548;0.9231;
1380.6000;0.2572;0.9182;
1380.9000;0.2556;0.9083;
1381.2000;0.2532;0.8961;
1381.5000;0.2564;0.9034;
1381.8000;0.2540;0.9034;
1382.1000;0.2499;0.8961;
1382.4000;0.2532;0.8887;
1382.7000;0.2548;0.8887;
1383.0000;0.2540;0.8936;
1383.3000;0.2548;0.8887;
1383.6000;0.2532;0.8936;
1383.9000;0.2572;0.9157;
1384.2000;0.2540;0.9034;
1384.5000;0.2540;0.8985;
1384.8000;0.2548;0.9034;
1385.1000;0.2540;0.9108;
1385.4000;0.2532;0.9108;
1385.7000;0.2548;0.9206;
1386.0000;0.2556;0.9132;
1386.3000;0.2507;0.9059;
1386.6000;0.2548;0.9083;
1386.9000;0.2548;0.9108;
1387.2000;0.2515;0.9034;
1387.5000;0.2532;0.9034;
1387.8000;0.2540;0.9059;
1388.1000;0.2548;0.9010;
1388.4000;0.2540;0.8936;
1388.7000;0.2605;0.8985;
1389.0000;0.2523;0.8838;
1389.3000;0.2540;0.8789;
1389.6000;0.2532;0.8789;
1389.9000;0.2540;0.8789;
1390.2000;0.2499;0.8691;
1390.5000;0.2548;0.8813;
1390.8000;0.2540;0.8789;
1391.1000;0.2523;0.8764;
1391.4000;0.2523;0.8666;
1391.7000;0.2540;0.8740;
1392.0000;0.2556;0.8862;
1392.3000;0.2532;0.8862;
1392.6000;0.2548;0.8838;
1392.9000;0.2580;0.8985;
1393.2000;0.2548;0.8961;
1393.5000;0.2532;0.8911;
1393.8000;0.2523;0.8936;
1394.1000;0.2548;0.8862;
1394.4000;0.2540;0.8862;
1394.7000;0.2532;0.8813;
1395.0000;0.2540;0.8862;
1395.3000;0.2540;0.8838;
1395.6000;0.2532;0.8838;
1395.9000;0.2548;0.8911;
1396.2000;0.2540;0.8936;
1396.5000;0.2540;0.9010;
1396.8000;0.2548;0.9059;
1397.1000;0.2564;0.9059;
1397.4000;0.2523;0.8961;
1397.7000;0.2540;0.9010;
1398.0000;0.2491;0.8862;
1398.3000;0.2532;0.8911;
1398.6000;0.2540;0.9034;
1398.9000;0.2523;0.8985;
1399.2000;0.2629;0.9255;
1399.5000;0.2548;0.8936;
1399.8000;0.2523;0.8911;
