time/ms;Fluo/V;P700 deltaI/I x10³;
-199.8000;0.5828;0.7520;
-199.5000;0.5845;0.7494;
-199.2000;0.5804;0.7289;
-198.9000;0.5934;0.7545;
-198.6000;0.5836;0.7186;
-198.3000;0.5853;0.7186;
-198.0000;0.5893;0.7340;
-197.7000;0.5926;0.7391;
-197.4000;0.5853;0.7135;
-197.1000;0.5861;0.7083;
-196.8000;0.5877;0.7083;
-196.5000;0.5885;0.7109;
-196.2000;0.5893;0.7032;
-195.9000;0.5869;0.6929;
-195.6000;0.5893;0.6955;
-195.3000;0.5910;0.6904;
-195.0000;0.5861;0.6852;
-194.7000;0.5918;0.7006;
-194.4000;0.5902;0.6955;
-194.1000;0.5926;0.7006;
-193.8000;0.5893;0.6929;
-193.5000;0.5918;0.7058;
-193.2000;0.5885;0.6955;
-192.9000;0.5902;0.6981;
-192.6000;0.5926;0.7032;
-192.3000;0.5926;0.7135;
-192.0000;0.5918;0.6981;
-191.7000;0.5918;0.7006;
-191.4000;0.5942;0.7006;
-191.1000;0.5942;0.7032;
-190.8000;0.5926;0.7058;
-190.5000;0.5950;0.7160;
-190.2000;0.5958;0.7135;
-189.9000;0.5934;0.7006;
-189.6000;0.5942;0.7006;
-189.3000;0.5950;0.7083;
-189.0000;0.5983;0.7160;
-188.7000;0.5967;0.7212;
-188.4000;0.5950;0.7160;
-188.1000;0.5958;0.7263;
-187.8000;0.5975;0.7391;
-187.5000;0.6040;0.7571;
-187.2000;0.5967;0.7366;
-186.9000;0.5975;0.7391;
-186.6000;0.5975;0.7417;
-186.3000;0.5983;0.7443;
-186.0000;0.5999;0.7391;
-185.7000;0.5999;0.7391;
-185.4000;0.5999;0.7340;
-185.1000;0.6007;0.7391;
-184.8000;0.5975;0.7263;
-184.5000;0.6015;0.7314;
-184.2000;0.6024;0.7443;
-183.9000;0.6024;0.7443;
-183.6000;0.6024;0.7391;
-183.3000;0.6024;0.7289;
-183.0000;0.6032;0.7314;
-182.7000;0.6032;0.7366;
-182.4000;0.6048;0.7289;
-182.1000;0.6024;0.7109;
-181.8000;0.6015;0.7109;
-181.5000;0.6040;0.7109;
-181.2000;0.6056;0.7135;
-180.9000;0.6064;0.7237;
-180.6000;0.6056;0.7212;
-180.3000;0.6056;0.7186;
-180.0000;0.6064;0.7186;
-179.7000;0.6024;0.7109;
-179.4000;0.6064;0.7083;
-179.1000;0.6081;0.7135;
-178.8000;0.6089;0.7160;
-178.5000;0.6081;0.7083;
-178.2000;0.6089;0.7109;
-177.9000;0.6081;0.7058;
-177.6000;0.6089;0.7109;
-177.3000;0.6089;0.7160;
-177.0000;0.6097;0.7135;
-176.7000;0.6056;0.7058;
-176.4000;0.6121;0.7237;
-176.1000;0.6113;0.7237;
-175.8000;0.6129;0.7289;
-175.5000;0.6121;0.7160;
-175.2000;0.6129;0.7186;
-174.9000;0.6113;0.7237;
-174.6000;0.6146;0.7314;
-174.3000;0.6129;0.7263;
-174.0000;0.6146;0.7366;
-173.7000;0.6105;0.7212;
-173.4000;0.6146;0.7314;
-173.1000;0.6154;0.7340;
-172.8000;0.6162;0.7237;
-172.5000;0.6170;0.7289;
-172.2000;0.6178;0.7237;
-171.9000;0.6178;0.7135;
-171.6000;0.6162;0.7135;
-171.3000;0.6178;0.7186;
-171.0000;0.6178;0.7212;
-170.7000;0.6170;0.7160;
-170.4000;0.6162;0.7135;
-170.1000;0.6195;0.7135;
-169.8000;0.6195;0.7135;
-169.5000;0.6178;0.7160;
-169.2000;0.6186;0.7186;
-168.9000;0.6186;0.7160;
-168.6000;0.6211;0.7314;
-168.3000;0.6211;0.7314;
-168.0000;0.6211;0.7443;
-167.7000;0.6219;0.7468;
-167.4000;0.6219;0.7468;
-167.1000;0.6235;0.7443;
-166.8000;0.6227;0.7417;
-166.5000;0.6203;0.7391;
-166.2000;0.6227;0.7494;
-165.9000;0.6252;0.7545;
-165.6000;0.6235;0.7545;
-165.3000;0.6309;0.7674;
-165.0000;0.6235;0.7494;
-164.7000;0.6260;0.7443;
-164.4000;0.6252;0.7468;
-164.1000;0.6243;0.7366;
-163.8000;0.6300;0.7494;
-163.5000;0.6276;0.7417;
-163.2000;0.6252;0.7237;
-162.9000;0.6284;0.7212;
-162.6000;0.6284;0.7391;
-162.3000;0.6284;0.7391;
-162.0000;0.6292;0.7366;
-161.7000;0.6309;0.7340;
-161.4000;0.6284;0.7314;
-161.1000;0.6300;0.7314;
-160.8000;0.6300;0.7417;
-160.5000;0.6276;0.7237;
-160.2000;0.6325;0.7314;
-159.9000;0.6300;0.7237;
-159.6000;0.6333;0.7314;
-159.3000;0.6309;0.7289;
-159.0000;0.6325;0.7314;
-158.7000;0.6276;0.7160;
-158.4000;0.6341;0.7417;
-158.1000;0.6341;0.7366;
-157.8000;0.6317;0.7289;
-157.5000;0.6325;0.7340;
-157.2000;0.6365;0.7340;
-156.9000;0.6357;0.7160;
-156.6000;0.6349;0.7058;
-156.3000;0.6333;0.6955;
-156.0000;0.6357;0.7006;
-155.7000;0.6374;0.6981;
-155.4000;0.6365;0.7032;
-155.1000;0.6365;0.6981;
-154.8000;0.6382;0.7083;
-154.5000;0.6398;0.7135;
-154.2000;0.6374;0.7083;
-153.9000;0.6382;0.7083;
-153.6000;0.6398;0.7135;
-153.3000;0.6390;0.7186;
-153.0000;0.6382;0.7135;
-152.7000;0.6398;0.7160;
-152.4000;0.6398;0.7160;
-152.1000;0.6414;0.7186;
-151.8000;0.6406;0.7058;
-151.5000;0.6455;0.7083;
-151.2000;0.6398;0.6955;
-150.9000;0.6414;0.7006;
-150.6000;0.6414;0.7083;
-150.3000;0.6414;0.6981;
-150.0000;0.6422;0.7058;
-149.7000;0.6309;0.6724;
-149.4000;0.6447;0.6904;
-149.1000;0.6447;0.6929;
-148.8000;0.6471;0.6955;
-148.5000;0.6455;0.7032;
-148.2000;0.6463;0.7135;
-147.9000;0.6496;0.7212;
-147.6000;0.6447;0.7083;
-147.3000;0.6471;0.7160;
-147.0000;0.6455;0.7109;
-146.7000;0.6471;0.7160;
-146.4000;0.6463;0.7160;
-146.1000;0.6471;0.7135;
-145.8000;0.6488;0.7212;
-145.5000;0.6439;0.7083;
-145.2000;0.6479;0.7135;
-144.9000;0.6463;0.7083;
-144.6000;0.6504;0.7032;
-144.3000;0.6496;0.7109;
-144.0000;0.6463;0.7006;
-143.7000;0.6488;0.7032;
-143.4000;0.6447;0.6981;
-143.1000;0.6536;0.7135;
-142.8000;0.6528;0.7160;
-142.5000;0.6536;0.7109;
-142.2000;0.6528;0.7109;
-141.9000;0.6520;0.7083;
-141.6000;0.6528;0.7058;
-141.3000;0.6520;0.7006;
-141.0000;0.6536;0.6981;
-140.7000;0.6463;0.6852;
-140.4000;0.6545;0.7006;
-140.1000;0.6545;0.7058;
-139.8000;0.6561;0.7160;
-139.5000;0.6561;0.7006;
-139.2000;0.6569;0.7058;
-138.9000;0.6561;0.7032;
-138.6000;0.6520;0.6878;
-138.3000;0.6520;0.6801;
-138.0000;0.6569;0.6929;
-137.7000;0.6626;0.7032;
-137.4000;0.6577;0.6878;
-137.1000;0.6602;0.6904;
-136.8000;0.6585;0.6852;
-136.5000;0.6618;0.6955;
-136.2000;0.6593;0.6852;
-135.9000;0.6577;0.6827;
-135.6000;0.6577;0.6775;
-135.3000;0.6602;0.6801;
-135.0000;0.6593;0.6852;
-134.7000;0.6634;0.6878;
-134.4000;0.6618;0.6852;
-134.1000;0.6626;0.6852;
-133.8000;0.6634;0.6827;
-133.5000;0.6650;0.6827;
-133.2000;0.6626;0.6852;
-132.9000;0.6642;0.6929;
-132.6000;0.6659;0.6955;
-132.3000;0.6553;0.6673;
-132.0000;0.6659;0.6955;
-131.7000;0.6650;0.6981;
-131.4000;0.6659;0.7006;
-131.1000;0.6626;0.6878;
-130.8000;0.6650;0.6878;
-130.5000;0.6675;0.6904;
-130.2000;0.6683;0.6878;
-129.9000;0.6642;0.6775;
-129.6000;0.6683;0.6827;
-129.3000;0.6683;0.6827;
-129.0000;0.6683;0.6775;
-128.7000;0.6667;0.6724;
-128.4000;0.6707;0.6775;
-128.1000;0.6707;0.6750;
-127.8000;0.6699;0.6647;
-127.5000;0.6716;0.6621;
-127.2000;0.6683;0.6596;
-126.9000;0.6699;0.6698;
-126.6000;0.6716;0.6750;
-126.3000;0.6732;0.6852;
-126.0000;0.6724;0.6981;
-125.7000;0.6781;0.7135;
-125.4000;0.6716;0.6929;
-125.1000;0.6716;0.6827;
-124.8000;0.6740;0.6827;
-124.5000;0.6707;0.6852;
-124.2000;0.6716;0.6981;
-123.9000;0.6748;0.7058;
-123.6000;0.6748;0.7032;
-123.3000;0.6756;0.7160;
-123.0000;0.6813;0.7237;
-122.7000;0.6772;0.7135;
-122.4000;0.6764;0.7083;
-122.1000;0.6740;0.7006;
-121.8000;0.6756;0.7160;
-121.5000;0.6805;0.7212;
-121.2000;0.6797;0.7058;
-120.9000;0.6772;0.6981;
-120.6000;0.6772;0.6955;
-120.3000;0.6805;0.7083;
-120.0000;0.6797;0.7032;
-119.7000;0.6797;0.6955;
-119.4000;0.6764;0.6955;
-119.1000;0.6829;0.7083;
-118.8000;0.6781;0.6955;
-118.5000;0.6724;0.6852;
-118.2000;0.6797;0.7032;
-117.9000;0.6813;0.6904;
-117.6000;0.6813;0.6852;
-117.3000;0.6838;0.6827;
-117.0000;0.6821;0.6827;
-116.7000;0.6805;0.6827;
-116.4000;0.6886;0.6981;
-116.1000;0.6846;0.6852;
-115.8000;0.6838;0.6750;
-115.5000;0.6813;0.6673;
-115.2000;0.6838;0.6698;
-114.9000;0.6846;0.6673;
-114.6000;0.6838;0.6698;
-114.3000;0.6854;0.6698;
-114.0000;0.6805;0.6673;
-113.7000;0.6854;0.6801;
-113.4000;0.6870;0.6904;
-113.1000;0.6870;0.6955;
-112.8000;0.6862;0.6904;
-112.5000;0.6764;0.6724;
-112.2000;0.6952;0.7160;
-111.9000;0.6886;0.7083;
-111.6000;0.6886;0.7160;
-111.3000;0.6854;0.7032;
-111.0000;0.6895;0.7135;
-110.7000;0.6886;0.7006;
-110.4000;0.6846;0.6904;
-110.1000;0.6903;0.7032;
-109.8000;0.6903;0.6981;
-109.5000;0.6838;0.6775;
-109.2000;0.6903;0.6955;
-108.9000;0.6919;0.7058;
-108.6000;0.6919;0.7186;
-108.3000;0.6895;0.7160;
-108.0000;0.6927;0.7109;
-107.7000;0.6903;0.7006;
-107.4000;0.6943;0.7058;
-107.1000;0.6935;0.6929;
-106.8000;0.6895;0.6775;
-106.5000;0.6927;0.6878;
-106.2000;0.6854;0.6596;
-105.9000;0.6960;0.6878;
-105.6000;0.6935;0.6878;
-105.3000;0.6960;0.6955;
-105.0000;0.6952;0.6852;
-104.7000;0.6943;0.6827;
-104.4000;0.6960;0.6827;
-104.1000;0.6952;0.6801;
-103.8000;0.6960;0.6852;
-103.5000;0.6968;0.6955;
-103.2000;0.6968;0.6929;
-102.9000;0.6943;0.6801;
-102.6000;0.6960;0.6878;
-102.3000;0.6984;0.6929;
-102.0000;0.6960;0.6801;
-101.7000;0.6968;0.6852;
-101.4000;0.6976;0.6827;
-101.1000;0.6976;0.6827;
-100.8000;0.6984;0.6852;
-100.5000;0.7000;0.6955;
-100.2000;0.6992;0.6929;
-99.9000;0.6984;0.6955;
-99.6000;0.6992;0.7006;
-99.3000;0.7000;0.7083;
-99.0000;0.7000;0.6981;
-98.7000;0.7017;0.7083;
-98.4000;0.6992;0.7032;
-98.1000;0.7009;0.6904;
-97.8000;0.7009;0.6955;
-97.5000;0.7074;0.7135;
-97.2000;0.7025;0.7058;
-96.9000;0.7033;0.7083;
-96.6000;0.7049;0.7083;
-96.3000;0.7033;0.7006;
-96.0000;0.7041;0.7032;
-95.7000;0.7049;0.6904;
-95.4000;0.7017;0.6801;
-95.1000;0.7066;0.6852;
-94.8000;0.7057;0.6878;
-94.5000;0.7041;0.6904;
-94.2000;0.7066;0.6929;
-93.9000;0.7033;0.6827;
-93.6000;0.7066;0.6955;
-93.3000;0.7049;0.6929;
-93.0000;0.7082;0.7058;
-92.7000;0.7098;0.7083;
-92.4000;0.7082;0.7083;
-92.1000;0.7098;0.7083;
-91.8000;0.7098;0.7006;
-91.5000;0.7139;0.7160;
-91.2000;0.7033;0.6852;
-90.9000;0.7066;0.7083;
-90.6000;0.7179;0.7314;
-90.3000;0.7082;0.6981;
-90.0000;0.7049;0.6981;
-89.7000;0.7131;0.7160;
-89.4000;0.7114;0.7032;
-89.1000;0.7025;0.6801;
-88.8000;0.7098;0.6955;
-88.5000;0.7114;0.6929;
-88.2000;0.7106;0.6904;
-87.9000;0.7114;0.6904;
-87.6000;0.7163;0.6904;
-87.3000;0.7131;0.6827;
-87.0000;0.7123;0.6852;
-86.7000;0.7114;0.6955;
-86.4000;0.7066;0.6878;
-86.1000;0.7106;0.7006;
-85.8000;0.7114;0.7032;
-85.5000;0.7114;0.7006;
-85.2000;0.7163;0.7212;
-84.9000;0.7114;0.7058;
-84.6000;0.7114;0.7135;
-84.3000;0.7114;0.7083;
-84.0000;0.7106;0.7032;
-83.7000;0.7114;0.6955;
-83.4000;0.7139;0.6981;
-83.1000;0.7163;0.7006;
-82.8000;0.7171;0.7109;
-82.5000;0.7179;0.7032;
-82.2000;0.7139;0.6878;
-81.9000;0.7155;0.6981;
-81.6000;0.7163;0.6955;
-81.3000;0.7123;0.6827;
-81.0000;0.7171;0.6955;
-80.7000;0.7147;0.6904;
-80.4000;0.7163;0.6929;
-80.1000;0.7147;0.6852;
-79.8000;0.7163;0.6878;
-79.5000;0.7155;0.6801;
-79.2000;0.7155;0.6724;
-78.9000;0.7196;0.6775;
-78.6000;0.7171;0.6724;
-78.3000;0.7212;0.6852;
-78.0000;0.7204;0.6827;
-77.7000;0.7204;0.6775;
-77.4000;0.7196;0.6775;
-77.1000;0.7212;0.6878;
-76.8000;0.7212;0.6981;
-76.5000;0.7196;0.6981;
-76.2000;0.7204;0.6955;
-75.9000;0.7196;0.6929;
-75.6000;0.7212;0.6929;
-75.3000;0.7220;0.6801;
-75.0000;0.7245;0.6827;
-74.7000;0.7204;0.6801;
-74.4000;0.7188;0.6852;
-74.1000;0.7212;0.6827;
-73.8000;0.7228;0.6904;
-73.5000;0.7228;0.6955;
-73.2000;0.7245;0.7006;
-72.9000;0.7212;0.6852;
-72.6000;0.7293;0.7083;
-72.3000;0.7261;0.7058;
-72.0000;0.7253;0.7006;
-71.7000;0.7277;0.7058;
-71.4000;0.7253;0.6981;
-71.1000;0.7228;0.6852;
-70.8000;0.7285;0.6981;
-70.5000;0.7277;0.7006;
-70.2000;0.7269;0.6955;
-69.9000;0.7253;0.6929;
-69.6000;0.7261;0.7032;
-69.3000;0.7245;0.6904;
-69.0000;0.7253;0.6929;
-68.7000;0.7253;0.7006;
-68.4000;0.7277;0.7058;
-68.1000;0.7269;0.7083;
-67.8000;0.7269;0.7006;
-67.5000;0.7261;0.6929;
-67.2000;0.7293;0.6981;
-66.9000;0.7293;0.6981;
-66.6000;0.7350;0.7135;
-66.3000;0.7302;0.7032;
-66.0000;0.7245;0.6878;
-65.7000;0.7261;0.6929;
-65.4000;0.7293;0.7006;
-65.1000;0.7302;0.7032;
-64.8000;0.7277;0.6878;
-64.5000;0.7277;0.6827;
-64.2000;0.7302;0.6878;
-63.9000;0.7293;0.6904;
-63.6000;0.7310;0.6904;
-63.3000;0.7302;0.6929;
-63.0000;0.7302;0.6904;
-62.7000;0.7326;0.7006;
-62.4000;0.7350;0.7006;
-62.1000;0.7302;0.6878;
-61.8000;0.7318;0.6929;
-61.5000;0.7334;0.7006;
-61.2000;0.7302;0.7058;
-60.9000;0.7326;0.7135;
-60.6000;0.7318;0.7109;
-60.3000;0.7326;0.7083;
-60.0000;0.7334;0.7083;
-59.7000;0.7310;0.6955;
-59.4000;0.7391;0.7160;
-59.1000;0.7326;0.6904;
-58.8000;0.7342;0.6929;
-58.5000;0.7342;0.6878;
-58.2000;0.7277;0.6724;
-57.9000;0.7326;0.6852;
-57.6000;0.7326;0.6852;
-57.3000;0.7342;0.6955;
-57.0000;0.7350;0.6955;
-56.7000;0.7310;0.6904;
-56.4000;0.7342;0.7006;
-56.1000;0.7359;0.7083;
-55.8000;0.7334;0.6981;
-55.5000;0.7350;0.6955;
-55.2000;0.7359;0.7006;
-54.9000;0.7367;0.6981;
-54.6000;0.7334;0.6852;
-54.3000;0.7367;0.6852;
-54.0000;0.7375;0.6852;
-53.7000;0.7383;0.6852;
-53.4000;0.7367;0.6878;
-53.1000;0.7342;0.6750;
-52.8000;0.7375;0.6801;
-52.5000;0.7375;0.6904;
-52.2000;0.7359;0.6775;
-51.9000;0.7375;0.6878;
-51.6000;0.7391;0.6904;
-51.3000;0.7399;0.7006;
-51.0000;0.7367;0.6775;
-50.7000;0.7391;0.6827;
-50.4000;0.7367;0.6724;
-50.1000;0.7326;0.6544;
-49.8000;0.7391;0.6724;
-49.5000;0.7383;0.6724;
-49.2000;0.7318;0.6621;
-48.9000;0.7399;0.6801;
-48.6000;0.7399;0.6801;
-48.3000;0.7464;0.6904;
-48.0000;0.7383;0.6647;
-47.7000;0.7391;0.6621;
-47.4000;0.7407;0.6673;
-47.1000;0.7383;0.6596;
-46.8000;0.7416;0.6673;
-46.5000;0.7359;0.6519;
-46.2000;0.7424;0.6673;
-45.9000;0.7424;0.6673;
-45.6000;0.7391;0.6621;
-45.3000;0.7416;0.6698;
-45.0000;0.7416;0.6647;
-44.7000;0.7416;0.6698;
-44.4000;0.7464;0.6852;
-44.1000;0.7416;0.6775;
-43.8000;0.7424;0.6775;
-43.5000;0.7448;0.6878;
-43.2000;0.7432;0.6852;
-42.9000;0.7424;0.6852;
-42.6000;0.7416;0.6801;
-42.3000;0.7440;0.6955;
-42.0000;0.7432;0.6929;
-41.7000;0.7432;0.6878;
-41.4000;0.7464;0.6904;
-41.1000;0.7440;0.6852;
-40.8000;0.7440;0.6878;
-40.5000;0.7456;0.6878;
-40.2000;0.7448;0.6981;
-39.9000;0.7464;0.7058;
-39.6000;0.7440;0.7083;
-39.3000;0.7432;0.7032;
-39.0000;0.7440;0.7083;
-38.7000;0.7424;0.7032;
-38.4000;0.7464;0.6981;
-38.1000;0.7448;0.6929;
-37.8000;0.7464;0.6929;
-37.5000;0.7456;0.6904;
-37.2000;0.7448;0.6878;
-36.9000;0.7456;0.6852;
-36.6000;0.7456;0.6852;
-36.3000;0.7456;0.6775;
-36.0000;0.7456;0.6750;
-35.7000;0.7505;0.6929;
-35.4000;0.7456;0.6878;
-35.1000;0.7473;0.6878;
-34.8000;0.7448;0.6801;
-34.5000;0.7456;0.6724;
-34.2000;0.7440;0.6621;
-33.9000;0.7464;0.6775;
-33.6000;0.7464;0.6750;
-33.3000;0.7464;0.6750;
-33.0000;0.7456;0.6750;
-32.7000;0.7473;0.6775;
-32.4000;0.7473;0.6673;
-32.1000;0.7497;0.6647;
-31.8000;0.7481;0.6673;
-31.5000;0.7473;0.6724;
-31.2000;0.7473;0.6724;
-30.9000;0.7497;0.6724;
-30.6000;0.7481;0.6647;
-30.3000;0.7489;0.6673;
-30.0000;0.7456;0.6647;
-29.7000;0.7464;0.6673;
-29.4000;0.7497;0.6775;
-29.1000;0.7530;0.6904;
-28.8000;0.7473;0.6775;
-28.5000;0.7497;0.6724;
-28.2000;0.7513;0.6724;
-27.9000;0.7489;0.6750;
-27.6000;0.7505;0.6827;
-27.3000;0.7481;0.6801;
-27.0000;0.7407;0.6570;
-26.7000;0.7513;0.6801;
-26.4000;0.7497;0.6647;
-26.1000;0.7448;0.6544;
-25.8000;0.7513;0.6673;
-25.5000;0.7521;0.6621;
-25.2000;0.7513;0.6596;
-24.9000;0.7513;0.6596;
-24.6000;0.7546;0.6801;
-24.3000;0.7513;0.6698;
-24.0000;0.7513;0.6750;
-23.7000;0.7521;0.6827;
-23.4000;0.7530;0.6750;
-23.1000;0.7521;0.6827;
-22.8000;0.7505;0.6827;
-22.5000;0.7497;0.6750;
-22.2000;0.7521;0.6929;
-21.9000;0.7530;0.6929;
-21.6000;0.7513;0.6878;
-21.3000;0.7505;0.6801;
-21.0000;0.7505;0.6801;
-20.7000;0.7513;0.6775;
-20.4000;0.7513;0.6698;
-20.1000;0.7513;0.6673;
-19.8000;0.7521;0.6698;
-19.5000;0.7513;0.6698;
-19.2000;0.7513;0.6698;
-18.9000;0.7530;0.6801;
-18.6000;0.7505;0.6673;
-18.3000;0.7546;0.6724;
-18.0000;0.7546;0.6801;
-17.7000;0.7546;0.6750;
-17.4000;0.7530;0.6673;
-17.1000;0.7530;0.6724;
-16.8000;0.7562;0.6750;
-16.5000;0.7554;0.6673;
-16.2000;0.7546;0.6673;
-15.9000;0.7546;0.6724;
-15.6000;0.7530;0.6775;
-15.3000;0.7562;0.6904;
-15.0000;0.7546;0.6852;
-14.7000;0.7570;0.6827;
-14.4000;0.7546;0.6750;
-14.1000;0.7538;0.6750;
-13.8000;0.7538;0.6673;
-13.5000;0.7538;0.6750;
-13.2000;0.7546;0.6724;
-12.9000;0.7578;0.6673;
-12.6000;0.7538;0.6544;
-12.3000;0.7530;0.6544;
-12.0000;0.7538;0.6570;
-11.7000;0.7505;0.6493;
-11.4000;0.7562;0.6698;
-11.1000;0.7554;0.6621;
-10.8000;0.7521;0.6519;
-10.5000;0.7562;0.6698;
-10.2000;0.7546;0.6673;
-9.9000;0.7578;0.6724;
-9.6000;0.7603;0.6724;
-9.3000;0.7546;0.6647;
-9.0000;0.7538;0.6775;
-8.7000;0.7546;0.6775;
-8.4000;0.7513;0.6724;
-8.1000;0.7554;0.6827;
-7.8000;0.7595;0.6929;
-7.5000;0.7538;0.6827;
-7.2000;0.7546;0.6724;
-6.9000;0.7530;0.6698;
-6.6000;0.7562;0.6827;
-6.3000;0.7521;0.6698;
-6.0000;0.7562;0.6801;
-5.7000;0.7554;0.6878;
-5.4000;0.7554;0.6904;
-5.1000;0.7505;0.6750;
-4.8000;0.7562;0.6750;
-4.5000;0.7570;0.6775;
-4.2000;0.7489;0.6544;
-3.9000;0.7562;0.6647;
-3.6000;0.7554;0.6698;
-3.3000;0.7578;0.6673;
-3.0000;0.7578;0.6673;
-2.7000;0.7578;0.6698;
-2.4000;0.7586;0.6775;
-2.1000;0.7570;0.6698;
-1.8000;0.7554;0.6647;
-1.5000;0.7578;0.6775;
-1.2000;0.7603;0.6878;
-0.9000;0.7578;0.6801;
-0.6000;0.7586;0.6775;
-0.3000;0.7595;0.6775;
0.0000;0.7595;0.6775;
0.3000;0.7880;0.6698;
0.6000;0.8409;0.7135;
0.9000;0.8840;0.7545;
1.2000;0.9174;0.7905;
1.5000;0.9451;0.8238;
1.8000;0.9678;0.8469;
2.1000;0.9874;0.8700;
2.4000;1.0012;0.8854;
2.7000;1.0167;0.9059;
3.0000;1.0256;0.9136;
3.3000;1.0338;0.9265;
3.6000;1.0533;0.9650;
3.9000;1.0525;0.9470;
4.2000;1.0558;0.9470;
4.5000;1.0623;0.9573;
4.8000;1.0598;0.9419;
5.1000;1.0729;0.9624;
5.4000;1.0777;0.9624;
5.7000;1.0802;0.9650;
6.0000;1.0851;0.9727;
6.3000;1.0875;0.9624;
6.6000;1.0908;0.9547;
6.9000;1.0932;0.9521;
7.2000;1.0965;0.9598;
7.5000;1.0997;0.9521;
7.8000;1.1013;0.9547;
8.1000;1.1022;0.9598;
8.4000;1.1062;0.9624;
8.7000;1.1111;0.9650;
9.0000;1.1119;0.9598;
9.3000;1.1152;0.9650;
9.6000;1.1168;0.9727;
9.9000;1.1201;0.9727;
10.2000;1.1176;0.9598;
10.5000;1.1225;0.9675;
10.8000;1.1274;0.9752;
11.1000;1.1298;0.9752;
11.4000;1.1282;0.9701;
11.7000;1.1282;0.9701;
12.0000;1.1274;0.9650;
12.3000;1.1306;0.9778;
12.6000;1.1306;0.9752;
12.9000;1.1331;0.9906;
13.2000;1.1347;0.9932;
13.5000;1.1339;0.9855;
13.8000;1.1388;0.9829;
14.1000;1.1396;0.9855;
14.4000;1.1404;0.9855;
14.7000;1.1404;0.9804;
15.0000;1.1420;0.9829;
15.3000;1.1445;0.9855;
15.6000;1.1453;0.9881;
15.9000;1.1453;0.9804;
16.2000;1.1445;0.9752;
16.5000;1.1486;0.9752;
16.8000;1.1494;0.9650;
17.1000;1.1477;0.9624;
17.4000;1.1477;0.9675;
17.7000;1.1534;0.9727;
18.0000;1.1502;0.9650;
18.3000;1.1486;0.9701;
18.6000;1.1518;0.9804;
18.9000;1.1534;0.9855;
19.2000;1.1567;0.9829;
19.5000;1.1543;0.9778;
19.8000;1.1559;0.9855;
20.1000;1.1559;0.9881;
20.4000;1.1510;0.9727;
20.7000;1.1396;0.9342;
21.0000;1.1616;0.9778;
21.3000;1.1567;0.9573;
21.6000;1.1681;0.9958;
21.9000;1.1583;0.9650;
22.2000;1.1583;0.9727;
22.5000;1.1600;0.9752;
22.8000;1.1608;0.9675;
23.1000;1.1648;0.9650;
23.4000;1.1616;0.9598;
23.7000;1.1518;0.9316;
24.0000;1.1648;0.9650;
24.3000;1.1591;0.9573;
24.6000;1.1640;0.9752;
24.9000;1.1648;0.9778;
25.2000;1.1559;0.9573;
25.5000;1.1648;0.9752;
25.8000;1.1665;0.9752;
26.1000;1.1640;0.9675;
26.4000;1.1648;0.9675;
26.7000;1.1665;0.9624;
27.0000;1.1673;0.9573;
27.3000;1.1648;0.9598;
27.6000;1.1665;0.9624;
27.9000;1.1681;0.9675;
28.2000;1.1656;0.9598;
28.5000;1.1665;0.9598;
28.8000;1.1738;0.9675;
29.1000;1.1673;0.9496;
29.4000;1.1689;0.9496;
29.7000;1.1681;0.9393;
30.0000;1.1705;0.9496;
30.3000;1.1713;0.9419;
30.6000;1.1705;0.9367;
30.9000;1.1713;0.9393;
31.2000;1.1713;0.9342;
31.5000;1.1730;0.9316;
31.8000;1.1722;0.9444;
32.1000;1.1722;0.9521;
32.4000;1.1713;0.9521;
32.7000;1.1722;0.9598;
33.0000;1.1722;0.9624;
33.3000;1.1713;0.9675;
33.6000;1.1722;0.9752;
33.9000;1.1738;0.9675;
34.2000;1.1746;0.9573;
34.5000;1.1746;0.9547;
34.8000;1.1746;0.9496;
35.1000;1.1770;0.9598;
35.4000;1.1746;0.9547;
35.7000;1.1770;0.9624;
36.0000;1.1770;0.9547;
36.3000;1.1762;0.9701;
36.6000;1.1795;0.9752;
36.9000;1.1787;0.9804;
37.2000;1.1746;0.9624;
37.5000;1.1787;0.9675;
37.8000;1.1754;0.9521;
38.1000;1.1754;0.9547;
38.4000;1.1754;0.9547;
38.7000;1.1803;0.9650;
39.0000;1.1779;0.9547;
39.3000;1.1787;0.9496;
39.6000;1.1787;0.9470;
39.9000;1.1762;0.9419;
40.2000;1.1787;0.9598;
40.5000;1.1770;0.9547;
40.8000;1.1852;0.9701;
41.1000;1.1722;0.9393;
41.4000;1.1844;0.9701;
41.7000;1.1811;0.9650;
42.0000;1.1754;0.9470;
42.3000;1.1770;0.9547;
42.6000;1.1795;0.9650;
42.9000;1.1868;0.9804;
43.2000;1.1787;0.9547;
43.5000;1.1811;0.9547;
43.8000;1.1795;0.9444;
44.1000;1.1787;0.9444;
44.4000;1.1795;0.9444;
44.7000;1.1811;0.9367;
45.0000;1.1795;0.9470;
45.3000;1.1811;0.9444;
45.6000;1.1819;0.9521;
45.9000;1.1819;0.9470;
46.2000;1.1779;0.9444;
46.5000;1.1803;0.9419;
46.8000;1.1827;0.9496;
47.1000;1.1827;0.9573;
47.4000;1.1811;0.9624;
47.7000;1.1925;0.9958;
48.0000;1.1827;0.9598;
48.3000;1.1827;0.9624;
48.6000;1.1827;0.9521;
48.9000;1.1836;0.9419;
49.2000;1.1803;0.9342;
49.5000;1.1852;0.9521;
49.8000;1.1819;0.9547;
50.1000;1.1836;0.9624;
50.4000;1.1836;0.9598;
50.7000;1.1836;0.9624;
51.0000;1.1827;0.9598;
51.3000;1.1827;0.9624;
51.6000;1.1827;0.9573;
51.9000;1.1836;0.9573;
52.2000;1.1836;0.9573;
52.5000;1.1827;0.9444;
52.8000;1.1852;0.9521;
53.1000;1.1827;0.9393;
53.4000;1.1860;0.9444;
53.7000;1.1844;0.9419;
54.0000;1.1836;0.9265;
54.3000;1.1836;0.9265;
54.6000;1.1852;0.9290;
54.9000;1.1868;0.9393;
55.2000;1.1844;0.9316;
55.5000;1.1884;0.9521;
55.8000;1.1852;0.9547;
56.1000;1.1884;0.9573;
56.4000;1.1844;0.9419;
56.7000;1.1811;0.9393;
57.0000;1.1860;0.9573;
57.3000;1.1844;0.9598;
57.6000;1.1827;0.9573;
57.9000;1.1827;0.9470;
58.2000;1.1836;0.9444;
58.5000;1.1844;0.9470;
58.8000;1.1803;0.9393;
59.1000;1.1844;0.9470;
59.4000;1.1836;0.9521;
59.7000;1.1860;0.9521;
60.0000;1.1868;0.9521;
60.3000;1.1762;0.9213;
60.6000;1.1852;0.9470;
60.9000;1.1836;0.9367;
61.2000;1.1868;0.9470;
61.5000;1.1876;0.9470;
61.8000;1.1860;0.9367;
62.1000;1.1925;0.9496;
62.4000;1.1852;0.9393;
62.7000;1.1827;0.9316;
63.0000;1.1852;0.9342;
63.3000;1.1852;0.9547;
63.6000;1.1868;0.9521;
63.9000;1.1860;0.9393;
64.2000;1.1868;0.9367;
64.5000;1.1787;0.9136;
64.8000;1.1860;0.9316;
65.1000;1.1933;0.9444;
65.4000;1.1844;0.9265;
65.7000;1.1819;0.9290;
66.0000;1.1917;0.9573;
66.3000;1.1893;0.9598;
66.6000;1.1860;0.9470;
66.9000;1.1941;0.9650;
67.2000;1.1868;0.9419;
67.5000;1.1876;0.9444;
67.8000;1.1884;0.9419;
68.1000;1.1860;0.9419;
68.4000;1.1811;0.9265;
68.7000;1.1868;0.9290;
69.0000;1.1868;0.9265;
69.3000;1.1868;0.9290;
69.6000;1.1868;0.9316;
69.9000;1.1876;0.9342;
70.2000;1.1884;0.9393;
70.5000;1.1974;0.9624;
70.8000;1.1876;0.9342;
71.1000;1.1893;0.9444;
71.4000;1.1876;0.9393;
71.7000;1.1893;0.9470;
72.0000;1.1901;0.9419;
72.3000;1.1901;0.9393;
72.6000;1.1893;0.9393;
72.9000;1.1876;0.9342;
73.2000;1.1876;0.9290;
73.5000;1.1901;0.9393;
73.8000;1.1901;0.9342;
74.1000;1.1909;0.9342;
74.4000;1.1893;0.9316;
74.7000;1.1884;0.9342;
75.0000;1.1893;0.9367;
75.3000;1.1868;0.9239;
75.6000;1.1884;0.9265;
75.9000;1.1901;0.9290;
76.2000;1.1901;0.9265;
76.5000;1.1909;0.9316;
76.8000;1.1876;0.9265;
77.1000;1.1884;0.9265;
77.4000;1.1901;0.9342;
77.7000;1.1917;0.9342;
78.0000;1.1876;0.9316;
78.3000;1.1893;0.9367;
78.6000;1.1884;0.9342;
78.9000;1.1901;0.9444;
79.2000;1.1884;0.9470;
79.5000;1.1876;0.9419;
79.8000;1.1868;0.9342;
80.1000;1.1884;0.9316;
80.4000;1.1917;0.9496;
80.7000;1.1901;0.9496;
81.0000;1.1893;0.9393;
81.3000;1.1917;0.9444;
81.6000;1.1909;0.9393;
81.9000;1.1901;0.9444;
82.2000;1.1917;0.9419;
82.5000;1.1893;0.9444;
82.8000;1.1925;0.9470;
83.1000;1.1893;0.9316;
83.4000;1.1893;0.9367;
83.7000;1.1917;0.9470;
84.0000;1.1852;0.9239;
84.3000;1.1893;0.9393;
84.6000;1.1909;0.9496;
84.9000;1.1884;0.9470;
85.2000;1.1966;0.9675;
85.5000;1.1958;0.9624;
85.8000;1.1909;0.9624;
86.1000;1.1901;0.9675;
86.4000;1.1893;0.9701;
86.7000;1.1901;0.9727;
87.0000;1.1884;0.9650;
87.3000;1.1893;0.9675;
87.6000;1.1884;0.9727;
87.9000;1.1901;0.9727;
88.2000;1.1901;0.9650;
88.5000;1.1893;0.9521;
88.8000;1.1909;0.9547;
89.1000;1.1901;0.9470;
89.4000;1.1933;0.9444;
89.7000;1.1917;0.9367;
90.0000;1.1917;0.9290;
90.3000;1.1909;0.9213;
90.6000;1.1909;0.9188;
90.9000;1.1909;0.9316;
91.2000;1.1909;0.9316;
91.5000;1.1901;0.9367;
91.8000;1.1909;0.9367;
92.1000;1.1860;0.9239;
92.4000;1.1909;0.9393;
92.7000;1.1909;0.9393;
93.0000;1.1909;0.9393;
93.3000;1.1876;0.9265;
93.6000;1.1901;0.9290;
93.9000;1.1925;0.9265;
94.2000;1.1909;0.9213;
94.5000;1.1909;0.9290;
94.8000;1.1884;0.9342;
95.1000;1.1909;0.9367;
95.4000;1.1941;0.9419;
95.7000;1.1925;0.9393;
96.0000;1.1917;0.9470;
96.3000;1.1917;0.9444;
96.6000;1.1925;0.9496;
96.9000;1.1917;0.9470;
97.2000;1.1909;0.9521;
97.5000;1.1917;0.9650;
97.8000;1.1909;0.9598;
98.1000;1.1909;0.9521;
98.4000;1.1909;0.9470;
98.7000;1.1909;0.9444;
99.0000;1.1925;0.9367;
99.3000;1.1925;0.9444;
99.6000;1.1925;0.9419;
99.9000;1.1893;0.9316;
100.2000;1.1893;0.9367;
100.5000;1.1917;0.9393;
100.8000;1.1909;0.9393;
101.1000;1.1909;0.9367;
101.4000;1.1933;0.9496;
101.7000;1.1917;0.9496;
102.0000;1.1941;0.9496;
102.3000;1.1917;0.9419;
102.6000;1.1925;0.9470;
102.9000;1.1909;0.9367;
103.2000;1.1933;0.9393;
103.5000;1.1909;0.9342;
103.8000;1.1901;0.9342;
104.1000;1.1925;0.9393;
104.4000;1.1909;0.9367;
104.7000;1.1901;0.9342;
105.0000;1.1909;0.9419;
105.3000;1.1893;0.9444;
105.6000;1.1909;0.9444;
105.9000;1.1982;0.9650;
106.2000;1.1909;0.9547;
106.5000;1.1917;0.9650;
106.8000;1.1950;0.9778;
107.1000;1.1917;0.9701;
107.4000;1.1917;0.9624;
107.7000;1.1909;0.9547;
108.0000;1.1925;0.9521;
108.3000;1.1990;0.9675;
108.6000;1.1884;0.9444;
108.9000;1.1884;0.9444;
109.2000;1.1901;0.9521;
109.5000;1.1941;0.9496;
109.8000;1.1917;0.9316;
110.1000;1.1917;0.9316;
110.4000;1.1909;0.9239;
110.7000;1.1909;0.9265;
111.0000;1.1933;0.9290;
111.3000;1.1925;0.9290;
111.6000;1.1925;0.9393;
111.9000;1.1901;0.9342;
112.2000;1.1925;0.9393;
112.5000;1.1925;0.9265;
112.8000;1.1917;0.9213;
113.1000;1.1917;0.9290;
113.4000;1.1925;0.9342;
113.7000;1.1909;0.9239;
114.0000;1.1909;0.9290;
114.3000;1.1884;0.9162;
114.6000;1.1909;0.9162;
114.9000;1.1917;0.9162;
115.2000;1.1901;0.9136;
115.5000;1.1917;0.9059;
115.8000;1.1941;0.9162;
116.1000;1.1925;0.9290;
116.4000;1.1982;0.9496;
116.7000;1.1917;0.9342;
117.0000;1.1917;0.9239;
117.3000;1.1933;0.9188;
117.6000;1.1925;0.9188;
117.9000;1.1909;0.9085;
118.2000;1.1917;0.9034;
118.5000;1.1909;0.9034;
118.8000;1.1901;0.9034;
119.1000;1.1901;0.9085;
119.4000;1.1909;0.9162;
119.7000;1.1925;0.9111;
120.0000;1.1917;0.9034;
120.3000;1.1933;0.9059;
120.6000;1.1909;0.9188;
120.9000;1.1917;0.9316;
121.2000;1.1933;0.9419;
121.5000;1.1941;0.9419;
121.8000;1.1860;0.9265;
122.1000;1.1917;0.9419;
122.4000;1.1909;0.9316;
122.7000;1.1876;0.9290;
123.0000;1.1917;0.9470;
123.3000;1.1941;0.9496;
123.6000;1.1917;0.9419;
123.9000;1.1933;0.9444;
124.2000;1.1909;0.9419;
124.5000;1.1941;0.9496;
124.8000;1.1917;0.9342;
125.1000;1.1917;0.9290;
125.4000;1.1925;0.9342;
125.7000;1.1917;0.9316;
126.0000;1.1917;0.9290;
126.3000;1.1933;0.9393;
126.6000;1.1917;0.9367;
126.9000;1.1909;0.9470;
127.2000;1.1941;0.9547;
127.5000;1.1941;0.9547;
127.8000;1.1917;0.9496;
128.1000;1.1917;0.9470;
128.4000;1.1958;0.9624;
128.7000;1.1925;0.9598;
129.0000;1.1917;0.9521;
129.3000;1.1925;0.9521;
129.6000;1.1917;0.9521;
129.9000;1.1925;0.9419;
130.2000;1.1925;0.9316;
130.5000;1.1917;0.9265;
130.8000;1.1917;0.9290;
131.1000;1.1901;0.9239;
131.4000;1.1933;0.9316;
131.7000;1.1925;0.9290;
132.0000;1.1909;0.9367;
132.3000;1.1933;0.9367;
132.6000;1.1917;0.9367;
132.9000;1.1925;0.9342;
133.2000;1.1917;0.9316;
133.5000;1.1868;0.9290;
133.8000;1.1901;0.9367;
134.1000;1.1917;0.9419;
134.4000;1.1917;0.9419;
134.7000;1.1917;0.9342;
135.0000;1.1933;0.9316;
135.3000;1.1909;0.9316;
135.6000;1.1990;0.9521;
135.9000;1.1909;0.9367;
136.2000;1.1925;0.9470;
136.5000;1.1925;0.9470;
136.8000;1.1966;0.9444;
137.1000;1.1925;0.9316;
137.4000;1.1941;0.9367;
137.7000;1.1933;0.9367;
138.0000;1.1917;0.9393;
138.3000;1.1901;0.9419;
138.6000;1.1933;0.9496;
138.9000;1.1933;0.9547;
139.2000;1.1925;0.9521;
139.5000;1.1925;0.9573;
139.8000;1.1909;0.9496;
140.1000;1.1933;0.9444;
140.4000;1.1982;0.9444;
140.7000;1.1974;0.9367;
141.0000;1.1917;0.9265;
141.3000;1.1974;0.9367;
141.6000;1.1917;0.9213;
141.9000;1.1909;0.9290;
142.2000;1.1950;0.9367;
142.5000;1.1893;0.9213;
142.8000;1.1917;0.9316;
143.1000;1.1917;0.9213;
143.4000;1.1909;0.9188;
143.7000;1.1852;0.9059;
144.0000;1.1909;0.9188;
144.3000;1.1884;0.9085;
144.6000;1.1917;0.9213;
144.9000;1.1909;0.9290;
145.2000;1.1901;0.9342;
145.5000;1.1901;0.9367;
145.8000;1.1901;0.9393;
146.1000;1.1917;0.9496;
146.4000;1.1901;0.9393;
146.7000;1.1917;0.9419;
147.0000;1.1909;0.9470;
147.3000;1.1893;0.9496;
147.6000;1.1909;0.9547;
147.9000;1.1925;0.9496;
148.2000;1.1909;0.9419;
148.5000;1.1925;0.9470;
148.8000;1.1974;0.9521;
149.1000;1.1917;0.9367;
149.4000;1.1909;0.9290;
149.7000;1.1917;0.9342;
150.0000;1.1909;0.9342;
150.3000;1.1917;0.9316;
150.6000;1.1917;0.9342;
150.9000;1.1860;0.9239;
151.2000;1.1909;0.9316;
151.5000;1.1909;0.9393;
151.8000;1.1933;0.9470;
152.1000;1.1901;0.9419;
152.4000;1.1909;0.9444;
152.7000;1.1933;0.9521;
153.0000;1.1909;0.9444;
153.3000;1.1917;0.9367;
153.6000;1.1925;0.9393;
153.9000;1.1917;0.9367;
154.2000;1.1974;0.9598;
154.5000;1.1917;0.9470;
154.8000;1.1925;0.9496;
155.1000;1.1901;0.9367;
155.4000;1.1909;0.9444;
155.7000;1.1884;0.9367;
156.0000;1.1958;0.9521;
156.3000;1.1860;0.9316;
156.6000;1.1925;0.9521;
156.9000;1.1950;0.9547;
157.2000;1.1917;0.9444;
157.5000;1.1909;0.9419;
157.8000;1.1982;0.9547;
158.1000;1.1917;0.9342;
158.4000;1.1933;0.9367;
158.7000;1.1974;0.9496;
159.0000;1.1917;0.9444;
159.3000;1.1958;0.9573;
159.6000;1.1933;0.9470;
159.9000;1.1925;0.9419;
160.2000;1.1933;0.9367;
160.5000;1.1933;0.9393;
160.8000;1.1909;0.9393;
161.1000;1.1917;0.9316;
161.4000;1.1909;0.9213;
161.7000;1.1901;0.9213;
162.0000;1.1925;0.9444;
162.3000;1.1901;0.9367;
162.6000;1.1901;0.9342;
162.9000;1.1925;0.9316;
163.2000;1.1925;0.9290;
163.5000;1.1933;0.9290;
163.8000;1.1909;0.9136;
164.1000;1.1909;0.9136;
164.4000;1.1917;0.9162;
164.7000;1.1925;0.9188;
165.0000;1.1917;0.9136;
165.3000;1.1893;0.9136;
165.6000;1.1901;0.9162;
165.9000;1.1901;0.9239;
166.2000;1.1901;0.9393;
166.5000;1.1917;0.9316;
166.8000;1.1917;0.9367;
167.1000;1.1901;0.9393;
167.4000;1.1909;0.9444;
167.7000;1.1876;0.9444;
168.0000;1.1917;0.9470;
168.3000;1.1917;0.9496;
168.6000;1.1917;0.9496;
168.9000;1.1933;0.9470;
169.2000;1.1925;0.9521;
169.5000;1.1925;0.9496;
169.8000;1.1925;0.9444;
170.1000;1.1941;0.9521;
170.4000;1.1917;0.9367;
170.7000;1.1917;0.9316;
171.0000;1.1917;0.9316;
171.3000;1.1909;0.9342;
171.6000;1.1933;0.9393;
171.9000;1.1917;0.9367;
172.2000;1.1917;0.9521;
172.5000;1.1909;0.9521;
172.8000;1.1933;0.9624;
173.1000;1.1876;0.9496;
173.4000;1.1917;0.9470;
173.7000;1.1909;0.9444;
174.0000;1.1884;0.9290;
174.3000;1.1925;0.9393;
174.6000;1.1925;0.9419;
174.9000;1.1893;0.9342;
175.2000;1.1901;0.9419;
175.5000;1.1925;0.9444;
175.8000;1.1941;0.9470;
176.1000;1.1941;0.9444;
176.4000;1.1909;0.9419;
176.7000;1.1884;0.9393;
177.0000;1.1909;0.9521;
177.3000;1.1925;0.9521;
177.6000;1.1893;0.9342;
177.9000;1.1917;0.9342;
178.2000;1.1917;0.9393;
178.5000;1.1917;0.9393;
178.8000;1.1941;0.9444;
179.1000;1.1917;0.9393;
179.4000;1.1925;0.9419;
179.7000;1.1884;0.9290;
180.0000;1.1966;0.9393;
180.3000;1.1909;0.9265;
180.6000;1.1901;0.9265;
180.9000;1.1998;0.9496;
181.2000;1.1893;0.9290;
181.5000;1.1901;0.9239;
181.8000;1.1909;0.9290;
182.1000;1.1917;0.9342;
182.4000;1.1917;0.9444;
182.7000;1.1925;0.9496;
183.0000;1.1925;0.9444;
183.3000;1.1925;0.9470;
183.6000;1.1917;0.9393;
183.9000;1.1917;0.9470;
184.2000;1.1893;0.9444;
184.5000;1.1909;0.9521;
184.8000;1.1933;0.9598;
185.1000;1.1909;0.9521;
185.4000;1.1901;0.9521;
185.7000;1.1893;0.9521;
186.0000;1.1909;0.9573;
186.3000;1.1925;0.9598;
186.6000;1.1893;0.9624;
186.9000;1.1909;0.9496;
187.2000;1.1909;0.9470;
187.5000;1.1917;0.9547;
187.8000;1.1925;0.9444;
188.1000;1.1925;0.9470;
188.4000;1.1933;0.9598;
188.7000;1.1925;0.9573;
189.0000;1.1933;0.9573;
189.3000;1.1917;0.9573;
189.6000;1.1909;0.9521;
189.9000;1.1917;0.9521;
190.2000;1.1909;0.9393;
190.5000;1.1901;0.9367;
190.8000;1.1925;0.9419;
191.1000;1.1925;0.9419;
191.4000;1.1925;0.9470;
191.7000;1.1909;0.9367;
192.0000;1.1917;0.9419;
192.3000;1.1925;0.9444;
192.6000;1.1917;0.9444;
192.9000;1.1917;0.9419;
193.2000;1.1917;0.9419;
193.5000;1.1917;0.9419;
193.8000;1.1893;0.9316;
194.1000;1.1925;0.9393;
194.4000;1.1917;0.9367;
194.7000;1.1950;0.9367;
195.0000;1.1884;0.9265;
195.3000;1.1901;0.9239;
195.6000;1.1901;0.9188;
195.9000;1.1917;0.9239;
196.2000;1.1933;0.9316;
196.5000;1.1933;0.9496;
196.8000;1.1925;0.9624;
197.1000;1.1917;0.9521;
197.4000;1.1925;0.9598;
197.7000;1.1966;0.9675;
198.0000;1.1901;0.9444;
198.3000;1.1925;0.9419;
198.6000;1.1917;0.9342;
198.9000;1.1852;0.9316;
199.2000;1.1901;0.9367;
199.5000;1.1917;0.9393;
199.8000;1.1933;0.9470;
200.1000;1.1966;0.9650;
200.4000;1.1893;0.9470;
200.7000;1.1884;0.9367;
201.0000;1.1917;0.9393;
201.3000;1.1868;0.9316;
201.6000;1.1909;0.9496;
201.9000;1.1917;0.9547;
202.2000;1.1958;0.9624;
202.5000;1.1901;0.9393;
202.8000;1.1909;0.9290;
203.1000;1.1909;0.9367;
203.4000;1.1950;0.9393;
203.7000;1.1901;0.9239;
204.0000;1.1925;0.9265;
204.3000;1.1925;0.9265;
204.6000;1.1901;0.9239;
204.9000;1.1884;0.9213;
205.2000;1.1909;0.9419;
205.5000;1.1933;0.9521;
205.8000;1.1893;0.9393;
206.1000;1.1909;0.9316;
206.4000;1.1925;0.9393;
206.7000;1.1901;0.9393;
207.0000;1.1909;0.9419;
207.3000;1.1966;0.9547;
207.6000;1.1925;0.9342;
207.9000;1.1933;0.9419;
208.2000;1.1909;0.9419;
208.5000;1.1901;0.9290;
208.8000;1.1909;0.9265;
209.1000;1.1925;0.9342;
209.4000;1.1893;0.9393;
209.7000;1.1893;0.9419;
210.0000;1.1917;0.9393;
210.3000;1.1884;0.9316;
210.6000;1.1893;0.9342;
210.9000;1.1909;0.9342;
211.2000;1.1990;0.9573;
211.5000;1.1893;0.9367;
211.8000;1.1901;0.9393;
212.1000;1.1901;0.9393;
212.4000;1.1901;0.9419;
212.7000;1.1909;0.9496;
213.0000;1.1925;0.9470;
213.3000;1.1884;0.9419;
213.6000;1.1909;0.9419;
213.9000;1.1909;0.9521;
214.2000;1.1917;0.9521;
214.5000;1.1901;0.9573;
214.8000;1.1884;0.9598;
215.1000;1.1909;0.9701;
215.4000;1.1909;0.9650;
215.7000;1.1893;0.9650;
216.0000;1.1893;0.9624;
216.3000;1.1917;0.9650;
216.6000;1.1933;0.9650;
216.9000;1.1901;0.9547;
217.2000;1.1933;0.9650;
217.5000;1.1933;0.9598;
217.8000;1.1909;0.9573;
218.1000;1.1901;0.9547;
218.4000;1.1893;0.9624;
218.7000;1.1893;0.9650;
219.0000;1.1909;0.9675;
219.3000;1.1893;0.9675;
219.6000;1.1958;0.9855;
219.9000;1.1876;0.9624;
220.2000;1.1868;0.9675;
220.5000;1.1901;0.9675;
220.8000;1.1893;0.9573;
221.1000;1.1909;0.9598;
221.4000;1.1893;0.9598;
221.7000;1.1893;0.9547;
222.0000;1.1844;0.9496;
222.3000;1.1893;0.9675;
222.6000;1.1893;0.9624;
222.9000;1.1917;0.9701;
223.2000;1.1917;0.9727;
223.5000;1.1893;0.9752;
223.8000;1.1909;0.9675;
224.1000;1.1909;0.9701;
224.4000;1.1909;0.9650;
224.7000;1.1941;0.9675;
225.0000;1.1917;0.9598;
225.3000;1.1909;0.9573;
225.6000;1.1925;0.9650;
225.9000;1.1917;0.9701;
226.2000;1.1860;0.9624;
226.5000;1.1917;0.9727;
226.8000;1.1909;0.9752;
227.1000;1.1909;0.9701;
227.4000;1.1917;0.9675;
227.7000;1.1917;0.9727;
228.0000;1.1917;0.9650;
228.3000;1.1901;0.9624;
228.6000;1.1909;0.9573;
228.9000;1.1909;0.9573;
229.2000;1.1901;0.9573;
229.5000;1.1901;0.9598;
229.8000;1.1901;0.9624;
230.1000;1.1884;0.9650;
230.4000;1.1909;0.9624;
230.7000;1.1917;0.9573;
231.0000;1.1901;0.9547;
231.3000;1.1901;0.9573;
231.6000;1.1893;0.9496;
231.9000;1.1811;0.9316;
232.2000;1.1933;0.9624;
232.5000;1.1909;0.9547;
232.8000;1.1884;0.9470;
233.1000;1.1909;0.9470;
233.4000;1.1852;0.9367;
233.7000;1.1893;0.9547;
234.0000;1.1901;0.9573;
234.3000;1.1836;0.9444;
234.6000;1.1795;0.9316;
234.9000;1.1884;0.9598;
235.2000;1.1868;0.9598;
235.5000;1.1884;0.9624;
235.8000;1.1893;0.9752;
236.1000;1.1893;0.9804;
236.4000;1.1893;0.9855;
236.7000;1.1901;0.9855;
237.0000;1.1925;0.9881;
237.3000;1.1909;0.9727;
237.6000;1.1909;0.9675;
237.9000;1.1893;0.9727;
238.2000;1.1893;0.9701;
238.5000;1.1893;0.9675;
238.8000;1.1917;0.9752;
239.1000;1.1917;0.9675;
239.4000;1.1917;0.9598;
239.7000;1.1925;0.9675;
240.0000;1.1909;0.9701;
240.3000;1.1925;0.9675;
240.6000;1.1917;0.9624;
240.9000;1.1909;0.9675;
241.2000;1.1901;0.9727;
241.5000;1.1893;0.9727;
241.8000;1.1884;0.9778;
242.1000;1.1884;0.9701;
242.4000;1.1990;1.0009;
242.7000;1.1884;0.9778;
243.0000;1.1893;0.9675;
243.3000;1.1893;0.9675;
243.6000;1.1893;0.9675;
243.9000;1.1893;0.9752;
244.2000;1.1893;0.9650;
244.5000;1.1901;0.9624;
244.8000;1.1901;0.9521;
245.1000;1.1893;0.9419;
245.4000;1.1901;0.9470;
245.7000;1.1893;0.9547;
246.0000;1.1876;0.9470;
246.3000;1.1909;0.9547;
246.6000;1.1893;0.9496;
246.9000;1.1884;0.9521;
247.2000;1.1974;0.9727;
247.5000;1.1917;0.9624;
247.8000;1.1958;0.9804;
248.1000;1.1868;0.9701;
248.4000;1.1909;0.9829;
248.7000;1.1925;0.9932;
249.0000;1.1909;0.9906;
249.3000;1.1909;0.9855;
249.6000;1.1893;0.9829;
249.9000;1.1917;0.9906;
250.2000;1.1901;0.9829;
250.5000;1.1901;0.9804;
250.8000;1.1933;0.9804;
251.1000;1.1893;0.9675;
251.4000;1.1884;0.9650;
251.7000;1.1901;0.9675;
252.0000;1.1909;0.9932;
252.3000;1.1917;0.9932;
252.6000;1.1909;0.9829;
252.9000;1.1941;0.9804;
253.2000;1.1884;0.9675;
253.5000;1.1868;0.9624;
253.8000;1.1933;0.9855;
254.1000;1.1958;0.9906;
254.4000;1.1893;0.9752;
254.7000;1.1827;0.9624;
255.0000;1.1925;0.9855;
255.3000;1.1901;0.9778;
255.6000;1.1901;0.9804;
255.9000;1.1901;0.9855;
256.2000;1.1901;0.9855;
256.5000;1.1901;0.9804;
256.8000;1.1844;0.9650;
257.1000;1.1884;0.9752;
257.4000;1.1941;0.9881;
257.7000;1.1917;0.9752;
258.0000;1.1901;0.9650;
258.3000;1.1860;0.9624;
258.6000;1.1901;0.9624;
258.9000;1.1909;0.9778;
259.2000;1.1901;0.9778;
259.5000;1.1893;0.9727;
259.8000;1.1884;0.9650;
260.1000;1.1901;0.9521;
260.4000;1.1941;0.9624;
260.7000;1.1876;0.9547;
261.0000;1.1884;0.9598;
261.3000;1.1901;0.9650;
261.6000;1.1925;0.9727;
261.9000;1.1917;0.9778;
262.2000;1.1893;0.9727;
262.5000;1.1909;0.9752;
262.8000;1.1884;0.9701;
263.1000;1.1893;0.9727;
263.4000;1.1884;0.9752;
263.7000;1.1901;0.9855;
264.0000;1.1884;0.9829;
264.3000;1.1876;0.9778;
264.6000;1.1893;0.9804;
264.9000;1.1901;0.9829;
265.2000;1.1893;0.9804;
265.5000;1.1893;0.9804;
265.8000;1.1909;0.9727;
266.1000;1.1901;0.9752;
266.4000;1.1909;0.9829;
266.7000;1.1909;0.9881;
267.0000;1.1901;0.9829;
267.3000;1.1884;0.9829;
267.6000;1.1884;0.9804;
267.9000;1.1901;0.9829;
268.2000;1.1901;0.9752;
268.5000;1.1909;0.9752;
268.8000;1.1884;0.9675;
269.1000;1.1893;0.9701;
269.4000;1.1876;0.9624;
269.7000;1.1884;0.9598;
270.0000;1.1933;0.9804;
270.3000;1.1893;0.9727;
270.6000;1.1876;0.9804;
270.9000;1.1958;1.0163;
271.2000;1.1909;0.9932;
271.5000;1.1909;0.9958;
271.8000;1.1901;0.9983;
272.1000;1.1860;0.9881;
272.4000;1.1868;0.9881;
272.7000;1.1868;0.9881;
273.0000;1.1811;0.9778;
273.3000;1.1893;1.0035;
273.6000;1.1876;1.0060;
273.9000;1.1860;0.9983;
274.2000;1.1884;0.9983;
274.5000;1.1860;0.9855;
274.8000;1.1844;0.9752;
275.1000;1.1925;1.0035;
275.4000;1.1909;0.9906;
275.7000;1.1901;0.9881;
276.0000;1.1893;0.9932;
276.3000;1.1901;0.9932;
276.6000;1.1884;0.9958;
276.9000;1.1827;0.9906;
277.2000;1.1876;1.0035;
277.5000;1.1868;0.9906;
277.8000;1.1876;0.9983;
278.1000;1.1884;1.0009;
278.4000;1.1876;1.0009;
278.7000;1.1876;1.0060;
279.0000;1.2007;1.0445;
279.3000;1.1925;1.0214;
279.6000;1.1893;1.0086;
279.9000;1.1893;1.0112;
280.2000;1.1901;1.0086;
280.5000;1.1909;1.0009;
280.8000;1.1893;0.9958;
281.1000;1.1909;0.9983;
281.4000;1.1901;1.0009;
281.7000;1.1925;1.0112;
282.0000;1.1893;1.0163;
282.3000;1.1876;1.0137;
282.6000;1.1893;1.0163;
282.9000;1.1884;1.0137;
283.2000;1.1868;1.0086;
283.5000;1.1884;1.0163;
283.8000;1.1884;1.0163;
284.1000;1.1893;1.0163;
284.4000;1.1901;1.0163;
284.7000;1.1876;1.0060;
285.0000;1.1884;1.0060;
285.3000;1.1893;1.0086;
285.6000;1.1893;1.0060;
285.9000;1.1909;1.0240;
286.2000;1.1901;1.0189;
286.5000;1.1933;1.0240;
286.8000;1.1917;1.0240;
287.1000;1.1917;1.0214;
287.4000;1.1901;1.0189;
287.7000;1.1901;1.0112;
288.0000;1.1893;1.0086;
288.3000;1.1868;0.9983;
288.6000;1.1884;0.9958;
288.9000;1.1884;0.9881;
289.2000;1.1901;1.0035;
289.5000;1.1876;1.0035;
289.8000;1.1868;0.9906;
290.1000;1.1844;0.9829;
290.4000;1.1884;0.9881;
290.7000;1.1876;1.0035;
291.0000;1.1893;1.0137;
291.3000;1.1884;1.0035;
291.6000;1.1884;1.0035;
291.9000;1.1884;0.9932;
292.2000;1.1884;1.0009;
292.5000;1.1893;1.0035;
292.8000;1.1803;0.9906;
293.1000;1.1876;1.0163;
293.4000;1.1893;1.0137;
293.7000;1.1868;1.0112;
294.0000;1.1884;1.0060;
294.3000;1.1803;0.9855;
294.6000;1.1893;1.0035;
294.9000;1.1868;0.9932;
295.2000;1.1876;0.9983;
295.5000;1.1884;0.9958;
295.8000;1.1909;0.9983;
296.1000;1.1901;1.0035;
296.4000;1.1884;1.0060;
296.7000;1.1884;1.0009;
297.0000;1.1909;0.9983;
297.3000;1.1884;0.9932;
297.6000;1.1868;0.9932;
297.9000;1.1860;0.9752;
298.2000;1.1876;0.9855;
298.5000;1.1901;0.9906;
298.8000;1.1884;0.9829;
299.1000;1.1876;0.9804;
299.4000;1.1901;0.9881;
299.7000;1.1884;0.9829;
300.0000;1.1876;0.9778;
300.3000;1.1884;0.9829;
300.6000;1.1884;0.9932;
300.9000;1.1876;1.0009;
301.2000;1.1893;1.0086;
301.5000;1.1909;1.0137;
301.8000;1.1893;1.0086;
302.1000;1.1901;1.0137;
302.4000;1.1901;1.0163;
302.7000;1.1876;1.0112;
303.0000;1.1893;1.0137;
303.3000;1.1876;1.0009;
303.6000;1.1893;1.0009;
303.9000;1.1868;0.9932;
304.2000;1.1884;0.9932;
304.5000;1.1974;1.0240;
304.8000;1.1884;0.9932;
305.1000;1.1884;0.9983;
305.4000;1.1884;0.9932;
305.7000;1.1868;0.9958;
306.0000;1.1884;0.9932;
306.3000;1.1893;0.9983;
306.6000;1.1876;0.9906;
306.9000;1.1876;1.0009;
307.2000;1.1893;1.0009;
307.5000;1.1876;0.9906;
307.8000;1.1884;0.9778;
308.1000;1.1876;0.9778;
308.4000;1.1876;0.9829;
308.7000;1.1884;0.9855;
309.0000;1.1893;0.9906;
309.3000;1.1868;0.9855;
309.6000;1.1893;0.9958;
309.9000;1.1884;1.0009;
310.2000;1.1901;1.0086;
310.5000;1.1893;1.0086;
310.8000;1.1901;1.0035;
311.1000;1.1909;1.0163;
311.4000;1.1901;0.9983;
311.7000;1.1893;0.9906;
312.0000;1.1884;0.9932;
312.3000;1.1884;1.0112;
312.6000;1.1884;1.0189;
312.9000;1.1884;1.0137;
313.2000;1.1876;1.0060;
313.5000;1.1893;1.0112;
313.8000;1.1868;1.0137;
314.1000;1.1836;0.9932;
314.4000;1.1876;1.0009;
314.7000;1.1893;1.0086;
315.0000;1.1925;1.0112;
315.3000;1.1909;1.0086;
315.6000;1.1884;0.9932;
315.9000;1.1868;0.9932;
316.2000;1.1941;1.0086;
316.5000;1.1884;0.9958;
316.8000;1.1941;1.0035;
317.1000;1.1868;0.9829;
317.4000;1.1901;0.9958;
317.7000;1.1860;0.9855;
318.0000;1.1901;1.0060;
318.3000;1.1811;0.9932;
318.6000;1.1925;1.0240;
318.9000;1.1876;1.0240;
319.2000;1.1868;1.0266;
319.5000;1.1860;1.0240;
319.8000;1.1852;1.0163;
320.1000;1.1893;1.0189;
320.4000;1.1811;0.9932;
320.7000;1.1868;1.0137;
321.0000;1.1941;1.0240;
321.3000;1.1876;1.0266;
321.6000;1.1884;1.0291;
321.9000;1.1876;1.0317;
322.2000;1.1884;1.0266;
322.5000;1.1941;1.0497;
322.8000;1.1868;1.0266;
323.1000;1.1884;1.0240;
323.4000;1.1868;1.0189;
323.7000;1.1884;1.0317;
324.0000;1.1876;1.0266;
324.3000;1.1868;1.0214;
324.6000;1.1868;1.0214;
324.9000;1.1901;1.0317;
325.2000;1.1884;1.0266;
325.5000;1.1811;1.0086;
325.8000;1.1884;1.0266;
326.1000;1.1884;1.0189;
326.4000;1.1876;1.0137;
326.7000;1.1884;1.0214;
327.0000;1.1884;1.0240;
327.3000;1.1876;1.0214;
327.6000;1.1876;1.0240;
327.9000;1.1884;1.0291;
328.2000;1.1860;1.0343;
328.5000;1.1868;1.0420;
328.8000;1.1868;1.0343;
329.1000;1.1860;1.0291;
329.4000;1.1868;1.0317;
329.7000;1.1860;1.0394;
330.0000;1.1860;1.0343;
330.3000;1.1860;1.0343;
330.6000;1.1933;1.0497;
330.9000;1.1876;1.0343;
331.2000;1.1884;1.0368;
331.5000;1.1893;1.0368;
331.8000;1.1868;1.0343;
332.1000;1.1884;1.0317;
332.4000;1.1884;1.0317;
332.7000;1.1884;1.0368;
333.0000;1.1876;1.0343;
333.3000;1.1876;1.0420;
333.6000;1.1868;1.0420;
333.9000;1.1893;1.0522;
334.2000;1.1876;1.0497;
334.5000;1.1868;1.0471;
334.8000;1.1884;1.0574;
335.1000;1.1893;1.0625;
335.4000;1.1876;1.0625;
335.7000;1.1876;1.0651;
336.0000;1.1852;1.0574;
336.3000;1.1884;1.0651;
336.6000;1.1917;1.0753;
336.9000;1.1884;1.0625;
337.2000;1.1884;1.0599;
337.5000;1.1876;1.0522;
337.8000;1.1819;1.0317;
338.1000;1.1868;1.0394;
338.4000;1.1876;1.0343;
338.7000;1.1836;1.0317;
339.0000;1.1901;1.0497;
339.3000;1.1876;1.0420;
339.6000;1.1844;1.0343;
339.9000;1.1860;1.0343;
340.2000;1.1868;1.0291;
340.5000;1.1893;1.0240;
340.8000;1.1884;1.0317;
341.1000;1.1876;1.0317;
341.4000;1.1811;1.0163;
341.7000;1.1901;1.0368;
342.0000;1.1893;1.0420;
342.3000;1.1876;1.0471;
342.6000;1.1876;1.0420;
342.9000;1.1917;1.0343;
343.2000;1.1933;1.0368;
343.5000;1.1876;1.0214;
343.8000;1.1868;1.0189;
344.1000;1.1884;1.0266;
344.4000;1.1876;1.0266;
344.7000;1.1876;1.0291;
345.0000;1.1868;1.0317;
345.3000;1.1868;1.0291;
345.6000;1.1876;1.0291;
345.9000;1.1925;1.0420;
346.2000;1.1868;1.0266;
346.5000;1.1884;1.0317;
346.8000;1.1844;1.0137;
347.1000;1.1893;1.0343;
347.4000;1.1876;1.0266;
347.7000;1.1876;1.0240;
348.0000;1.1876;1.0214;
348.3000;1.1876;1.0214;
348.6000;1.1901;1.0266;
348.9000;1.1925;1.0368;
349.2000;1.1876;1.0189;
349.5000;1.1844;1.0163;
349.8000;1.1860;1.0266;
350.1000;1.1884;1.0317;
350.4000;1.1860;1.0394;
350.7000;1.1893;1.0471;
351.0000;1.1884;1.0471;
351.3000;1.1868;1.0445;
351.6000;1.1893;1.0420;
351.9000;1.1876;1.0420;
352.2000;1.1868;1.0368;
352.5000;1.1868;1.0266;
352.8000;1.1860;1.0291;
353.1000;1.1860;1.0317;
353.4000;1.1852;1.0317;
353.7000;1.1868;1.0240;
354.0000;1.1876;1.0189;
354.3000;1.1876;1.0291;
354.6000;1.1868;1.0291;
354.9000;1.1876;1.0368;
355.2000;1.1884;1.0343;
355.5000;1.1868;1.0291;
355.8000;1.1868;1.0394;
356.1000;1.1860;1.0420;
356.4000;1.1860;1.0497;
356.7000;1.1884;1.0548;
357.0000;1.1884;1.0522;
357.3000;1.1884;1.0445;
357.6000;1.1876;1.0394;
357.9000;1.1884;1.0368;
358.2000;1.1876;1.0317;
358.5000;1.1893;1.0343;
358.8000;1.1868;1.0266;
359.1000;1.1852;1.0240;
359.4000;1.1868;1.0317;
359.7000;1.1868;1.0343;
360.0000;1.1876;1.0368;
360.3000;1.1868;1.0394;
360.6000;1.1868;1.0394;
360.9000;1.1933;1.0574;
361.2000;1.1860;1.0394;
361.5000;1.1860;1.0291;
361.8000;1.1836;1.0317;
362.1000;1.1893;1.0471;
362.4000;1.1893;1.0471;
362.7000;1.1884;1.0497;
363.0000;1.1868;1.0420;
363.3000;1.1884;1.0445;
363.6000;1.1933;1.0599;
363.9000;1.1893;1.0497;
364.2000;1.1884;1.0574;
364.5000;1.1876;1.0574;
364.8000;1.1868;1.0548;
365.1000;1.1811;1.0317;
365.4000;1.1860;1.0445;
365.7000;1.1868;1.0548;
366.0000;1.1884;1.0599;
366.3000;1.1876;1.0522;
366.6000;1.1868;1.0522;
366.9000;1.1884;1.0599;
367.2000;1.1884;1.0625;
367.5000;1.1876;1.0651;
367.8000;1.1966;1.0882;
368.1000;1.1868;1.0625;
368.4000;1.1876;1.0625;
368.7000;1.1868;1.0702;
369.0000;1.1819;1.0548;
369.3000;1.1868;1.0599;
369.6000;1.1868;1.0599;
369.9000;1.1901;1.0574;
370.2000;1.1876;1.0368;
370.5000;1.1860;1.0266;
370.8000;1.1860;1.0189;
371.1000;1.1950;1.0343;
371.4000;1.1868;1.0137;
371.7000;1.1876;1.0214;
372.0000;1.1868;1.0214;
372.3000;1.1884;1.0266;
372.6000;1.1884;1.0291;
372.9000;1.1860;1.0163;
373.2000;1.1852;1.0137;
373.5000;1.1836;1.0137;
373.8000;1.1876;1.0240;
374.1000;1.1860;1.0189;
374.4000;1.1852;1.0214;
374.7000;1.1852;1.0137;
375.0000;1.1868;1.0291;
375.3000;1.1860;1.0343;
375.6000;1.1876;1.0343;
375.9000;1.1884;1.0420;
376.2000;1.1876;1.0317;
376.5000;1.1876;1.0343;
376.8000;1.1884;1.0420;
377.1000;1.1876;1.0471;
377.4000;1.1860;1.0394;
377.7000;1.1868;1.0420;
378.0000;1.1876;1.0471;
378.3000;1.1868;1.0394;
378.6000;1.1876;1.0394;
378.9000;1.1909;1.0394;
379.2000;1.1868;1.0368;
379.5000;1.1860;1.0266;
379.8000;1.1803;1.0214;
380.1000;1.1868;1.0394;
380.4000;1.1876;1.0420;
380.7000;1.1860;1.0368;
381.0000;1.1868;1.0291;
381.3000;1.1852;1.0240;
381.6000;1.1868;1.0214;
381.9000;1.1868;1.0163;
382.2000;1.1868;1.0163;
382.5000;1.1852;1.0137;
382.8000;1.1868;1.0163;
383.1000;1.1860;1.0189;
383.4000;1.1852;1.0086;
383.7000;1.1868;1.0163;
384.0000;1.1884;1.0291;
384.3000;1.1876;1.0189;
384.6000;1.1827;0.9906;
384.9000;1.1868;1.0060;
385.2000;1.1827;0.9983;
385.5000;1.1787;0.9983;
385.8000;1.1803;1.0060;
386.1000;1.1787;1.0009;
386.4000;1.1868;1.0343;
386.7000;1.1852;1.0266;
387.0000;1.1917;1.0368;
387.3000;1.1876;1.0266;
387.6000;1.1860;1.0343;
387.9000;1.1819;1.0317;
388.2000;1.1779;1.0214;
388.5000;1.1844;1.0394;
388.8000;1.1852;1.0420;
389.1000;1.1876;1.0343;
389.4000;1.1868;1.0291;
389.7000;1.1860;1.0317;
390.0000;1.1852;1.0266;
390.3000;1.1868;1.0266;
390.6000;1.1852;1.0266;
390.9000;1.1852;1.0214;
391.2000;1.1917;1.0394;
391.5000;1.1868;1.0214;
391.8000;1.1852;1.0214;
392.1000;1.1852;1.0240;
392.4000;1.1860;1.0266;
392.7000;1.1868;1.0317;
393.0000;1.1819;1.0189;
393.3000;1.1884;1.0266;
393.6000;1.1876;1.0266;
393.9000;1.1884;1.0317;
394.2000;1.1876;1.0368;
394.5000;1.1909;1.0497;
394.8000;1.1860;1.0420;
395.1000;1.1860;1.0420;
395.4000;1.1884;1.0445;
395.7000;1.1868;1.0317;
396.0000;1.1974;1.0625;
396.3000;1.1868;1.0291;
396.6000;1.1860;1.0291;
396.9000;1.1860;1.0420;
397.2000;1.1844;1.0394;
397.5000;1.1860;1.0471;
397.8000;1.1868;1.0445;
398.1000;1.1860;1.0394;
398.4000;1.1901;1.0522;
398.7000;1.1884;1.0420;
399.0000;1.1860;1.0420;
399.3000;1.1876;1.0420;
399.6000;1.1884;1.0394;
399.9000;1.1884;1.0497;
400.2000;1.1852;1.0368;
400.5000;1.1868;1.0420;
400.8000;1.1836;1.0291;
401.1000;1.1868;1.0291;
401.4000;1.1852;1.0266;
401.7000;1.1909;1.0394;
402.0000;1.1860;1.0291;
402.3000;1.1852;1.0368;
402.6000;1.1884;1.0445;
402.9000;1.1860;1.0317;
403.2000;1.1876;1.0420;
403.5000;1.1852;1.0394;
403.8000;1.1811;1.0343;
404.1000;1.1884;1.0420;
404.4000;1.1876;1.0343;
404.7000;1.1868;1.0317;
405.0000;1.1836;1.0343;
405.3000;1.1844;1.0317;
405.6000;1.1876;1.0317;
405.9000;1.1852;1.0343;
406.2000;1.1876;1.0420;
406.5000;1.1876;1.0394;
406.8000;1.1868;1.0394;
407.1000;1.1860;1.0343;
407.4000;1.1852;1.0291;
407.7000;1.1868;1.0343;
408.0000;1.1868;1.0317;
408.3000;1.1852;1.0189;
408.6000;1.1909;1.0343;
408.9000;1.1909;1.0343;
409.2000;1.1836;1.0137;
409.5000;1.1893;1.0343;
409.8000;1.1917;1.0317;
410.1000;1.1917;1.0317;
410.4000;1.1860;1.0317;
410.7000;1.1860;1.0317;
411.0000;1.1836;1.0266;
411.3000;1.1860;1.0343;
411.6000;1.1852;1.0317;
411.9000;1.1876;1.0394;
412.2000;1.1876;1.0471;
412.5000;1.1893;1.0497;
412.8000;1.1860;1.0368;
413.1000;1.1762;1.0060;
413.4000;1.1917;1.0394;
413.7000;1.1884;1.0317;
414.0000;1.1868;1.0394;
414.3000;1.1876;1.0420;
414.6000;1.1884;1.0471;
414.9000;1.1844;1.0343;
415.2000;1.1836;1.0368;
415.5000;1.1876;1.0471;
415.8000;1.1868;1.0445;
416.1000;1.1868;1.0394;
416.4000;1.1844;1.0368;
416.7000;1.1893;1.0497;
417.0000;1.1860;1.0394;
417.3000;1.1868;1.0420;
417.6000;1.1852;1.0420;
417.9000;1.1836;1.0368;
418.2000;1.1860;1.0445;
418.5000;1.1876;1.0497;
418.8000;1.1860;1.0471;
419.1000;1.1868;1.0445;
419.4000;1.1893;1.0497;
419.7000;1.1860;1.0420;
420.0000;1.1860;1.0471;
420.3000;1.1876;1.0548;
420.6000;1.1884;1.0497;
420.9000;1.1852;1.0394;
421.2000;1.1852;1.0394;
421.5000;1.1836;1.0368;
421.8000;1.1819;1.0240;
422.1000;1.1868;1.0368;
422.4000;1.1844;1.0266;
422.7000;1.1819;1.0214;
423.0000;1.1852;1.0266;
423.3000;1.1868;1.0291;
423.6000;1.1844;1.0317;
423.9000;1.1836;1.0266;
424.2000;1.1844;1.0266;
424.5000;1.1868;1.0317;
424.8000;1.1868;1.0394;
425.1000;1.1868;1.0394;
425.4000;1.1868;1.0394;
425.7000;1.1770;1.0291;
426.0000;1.1860;1.0497;
426.3000;1.1860;1.0497;
426.6000;1.1860;1.0522;
426.9000;1.1852;1.0471;
427.2000;1.1901;1.0625;
427.5000;1.1852;1.0522;
427.8000;1.1779;1.0317;
428.1000;1.1860;1.0548;
428.4000;1.1779;1.0317;
428.7000;1.1844;1.0574;
429.0000;1.1844;1.0445;
429.3000;1.1860;1.0522;
429.6000;1.1852;1.0471;
429.9000;1.1860;1.0574;
430.2000;1.1844;1.0599;
430.5000;1.1852;1.0599;
430.8000;1.1844;1.0599;
431.1000;1.1836;1.0548;
431.4000;1.1958;1.0830;
431.7000;1.1852;1.0522;
432.0000;1.1852;1.0625;
432.3000;1.1868;1.0651;
432.6000;1.1852;1.0574;
432.9000;1.1852;1.0574;
433.2000;1.1860;1.0497;
433.5000;1.1868;1.0471;
433.8000;1.1836;1.0420;
434.1000;1.1844;1.0471;
434.4000;1.1844;1.0445;
434.7000;1.1844;1.0394;
435.0000;1.1852;1.0471;
435.3000;1.1844;1.0471;
435.6000;1.1852;1.0548;
435.9000;1.1860;1.0599;
436.2000;1.1860;1.0445;
436.5000;1.1819;1.0368;
436.8000;1.1844;1.0420;
437.1000;1.1852;1.0394;
437.4000;1.1868;1.0394;
437.7000;1.1876;1.0420;
438.0000;1.1868;1.0368;
438.3000;1.1860;1.0368;
438.6000;1.1852;1.0343;
438.9000;1.1868;1.0291;
439.2000;1.1868;1.0317;
439.5000;1.1868;1.0291;
439.8000;1.1876;1.0266;
440.1000;1.1917;1.0445;
440.4000;1.1844;1.0240;
440.7000;1.1876;1.0266;
441.0000;1.1876;1.0317;
441.3000;1.1868;1.0343;
441.6000;1.1852;1.0471;
441.9000;1.1811;1.0240;
442.2000;1.1860;1.0368;
442.5000;1.1795;1.0214;
442.8000;1.1860;1.0420;
443.1000;1.1950;1.0728;
443.4000;1.1860;1.0497;
443.7000;1.1860;1.0420;
444.0000;1.1852;1.0471;
444.3000;1.1852;1.0548;
444.6000;1.1852;1.0522;
444.9000;1.1852;1.0599;
445.2000;1.1860;1.0651;
445.5000;1.1811;1.0445;
445.8000;1.1827;1.0522;
446.1000;1.1819;1.0497;
446.4000;1.1844;1.0702;
446.7000;1.1836;1.0651;
447.0000;1.1827;1.0599;
447.3000;1.1836;1.0548;
447.6000;1.1860;1.0522;
447.9000;1.1844;1.0548;
448.2000;1.1844;1.0445;
448.5000;1.1811;1.0343;
448.8000;1.1844;1.0368;
449.1000;1.1852;1.0420;
449.4000;1.1852;1.0522;
449.7000;1.1811;1.0368;
450.0000;1.1860;1.0445;
450.3000;1.1868;1.0445;
450.6000;1.1844;1.0445;
450.9000;1.1844;1.0394;
451.2000;1.1852;1.0445;
451.5000;1.1860;1.0394;
451.8000;1.1844;1.0471;
452.1000;1.1868;1.0471;
452.4000;1.1844;1.0445;
452.7000;1.1844;1.0445;
453.0000;1.1844;1.0420;
453.3000;1.1860;1.0420;
453.6000;1.1860;1.0471;
453.9000;1.1836;1.0471;
454.2000;1.1868;1.0522;
454.5000;1.1860;1.0394;
454.8000;1.1852;1.0291;
455.1000;1.1868;1.0420;
455.4000;1.1893;1.0420;
455.7000;1.1860;1.0368;
456.0000;1.1836;1.0291;
456.3000;1.1852;1.0420;
456.6000;1.1852;1.0420;
456.9000;1.1844;1.0343;
457.2000;1.1836;1.0317;
457.5000;1.1836;1.0343;
457.8000;1.1811;1.0317;
458.1000;1.1844;1.0420;
458.4000;1.1836;1.0394;
458.7000;1.1836;1.0343;
459.0000;1.1844;1.0445;
459.3000;1.1852;1.0522;
459.6000;1.1844;1.0676;
459.9000;1.1836;1.0625;
460.2000;1.1844;1.0599;
460.5000;1.1860;1.0651;
460.8000;1.1852;1.0625;
461.1000;1.1844;1.0599;
461.4000;1.1884;1.0599;
461.7000;1.1860;1.0574;
462.0000;1.1827;1.0394;
462.3000;1.1917;1.0574;
462.6000;1.1917;1.0625;
462.9000;1.1860;1.0471;
463.2000;1.1860;1.0497;
463.5000;1.1860;1.0522;
463.8000;1.1860;1.0676;
464.1000;1.1852;1.0753;
464.4000;1.1852;1.0779;
464.7000;1.1860;1.0830;
465.0000;1.1844;1.0882;
465.3000;1.1860;1.0856;
465.6000;1.1860;1.0856;
465.9000;1.1868;1.0805;
466.2000;1.1860;1.0728;
466.5000;1.1852;1.0702;
466.8000;1.1876;1.0856;
467.1000;1.1852;1.0882;
467.4000;1.1836;1.0882;
467.7000;1.1852;1.0882;
468.0000;1.1827;1.0830;
468.3000;1.1844;1.0830;
468.6000;1.1836;1.0805;
468.9000;1.1844;1.0779;
469.2000;1.1852;1.0702;
469.5000;1.1836;1.0599;
469.8000;1.1860;1.0522;
470.1000;1.1852;1.0522;
470.4000;1.1844;1.0497;
470.7000;1.1852;1.0471;
471.0000;1.1844;1.0471;
471.3000;1.1811;1.0445;
471.6000;1.1852;1.0471;
471.9000;1.1876;1.0548;
472.2000;1.1844;1.0471;
472.5000;1.1811;1.0394;
472.8000;1.1827;1.0548;
473.1000;1.1852;1.0599;
473.4000;1.1836;1.0548;
473.7000;1.1860;1.0599;
474.0000;1.1836;1.0651;
474.3000;1.1852;1.0702;
474.6000;1.1836;1.0728;
474.9000;1.1844;1.0702;
475.2000;1.1827;1.0702;
475.5000;1.1852;1.0702;
475.8000;1.1876;1.0805;
476.1000;1.1844;1.0676;
476.4000;1.1811;1.0651;
476.7000;1.1827;1.0728;
477.0000;1.1836;1.0753;
477.3000;1.1852;1.0779;
477.6000;1.1844;1.0702;
477.9000;1.1852;1.0702;
478.2000;1.1844;1.0779;
478.5000;1.1844;1.0651;
478.8000;1.1868;1.0676;
479.1000;1.1852;1.0522;
479.4000;1.1852;1.0599;
479.7000;1.1852;1.0574;
480.0000;1.1860;1.0574;
480.3000;1.1868;1.0625;
480.6000;1.1803;1.0471;
480.9000;1.1836;1.0574;
481.2000;1.1836;1.0599;
481.5000;1.1844;1.0651;
481.8000;1.1917;1.0805;
482.1000;1.1827;1.0625;
482.4000;1.1803;1.0574;
482.7000;1.1811;1.0599;
483.0000;1.1836;1.0676;
483.3000;1.1868;1.0830;
483.6000;1.1917;1.0856;
483.9000;1.1819;1.0522;
484.2000;1.1917;1.0779;
484.5000;1.1852;1.0676;
484.8000;1.1836;1.0574;
485.1000;1.1836;1.0625;
485.4000;1.1844;1.0625;
485.7000;1.1852;1.0702;
486.0000;1.1795;1.0522;
486.3000;1.1827;1.0599;
486.6000;1.1836;1.0625;
486.9000;1.1860;1.0651;
487.2000;1.1917;1.0805;
487.5000;1.1852;1.0574;
487.8000;1.1819;1.0548;
488.1000;1.1819;1.0625;
488.4000;1.1852;1.0651;
488.7000;1.1844;1.0599;
489.0000;1.1844;1.0728;
489.3000;1.1852;1.0753;
489.6000;1.1852;1.0728;
489.9000;1.1844;1.0676;
490.2000;1.1860;1.0728;
490.5000;1.1860;1.0702;
490.8000;1.1852;1.0625;
491.1000;1.1836;1.0574;
491.4000;1.1844;1.0548;
491.7000;1.1852;1.0625;
492.0000;1.1852;1.0625;
492.3000;1.1803;1.0599;
492.6000;1.1844;1.0651;
492.9000;1.1844;1.0651;
493.2000;1.1868;1.0728;
493.5000;1.1844;1.0599;
493.8000;1.1819;1.0497;
494.1000;1.1852;1.0574;
494.4000;1.1827;1.0548;
494.7000;1.1860;1.0574;
495.0000;1.1860;1.0574;
495.3000;1.1819;1.0599;
495.6000;1.1860;1.0728;
495.9000;1.1860;1.0779;
496.2000;1.1860;1.0753;
496.5000;1.1852;1.0702;
496.8000;1.1803;1.0625;
497.1000;1.1860;1.0753;
497.4000;1.1876;1.0753;
497.7000;1.1868;1.0702;
498.0000;1.1860;1.0625;
498.3000;1.1844;1.0599;
498.6000;1.1844;1.0599;
498.9000;1.1844;1.0625;
499.2000;1.1827;1.0625;
499.5000;1.1852;1.0702;
499.8000;1.1860;1.0753;
500.1000;1.1884;1.0856;
500.4000;1.1860;1.0779;
500.7000;1.1836;1.0676;
501.0000;1.1819;1.0625;
501.3000;1.1811;1.0676;
501.6000;1.1868;1.0856;
501.9000;1.1844;1.0753;
502.2000;1.1917;1.0830;
502.5000;1.1868;1.0753;
502.8000;1.1901;1.0933;
503.1000;1.1836;1.0830;
503.4000;1.1844;1.0907;
503.7000;1.1860;1.0933;
504.0000;1.1852;1.0805;
504.3000;1.1836;1.0753;
504.6000;1.1925;1.0907;
504.9000;1.1868;1.0856;
505.2000;1.1901;1.0882;
505.5000;1.1811;1.0702;
505.8000;1.1876;1.0805;
506.1000;1.1852;1.0728;
506.4000;1.1844;1.0779;
506.7000;1.1836;1.0753;
507.0000;1.1836;1.0753;
507.3000;1.1836;1.0753;
507.6000;1.1827;1.0805;
507.9000;1.1868;1.0933;
508.2000;1.1852;1.0882;
508.5000;1.1836;1.0882;
508.8000;1.1836;1.0959;
509.1000;1.1860;1.0984;
509.4000;1.1819;1.0830;
509.7000;1.1836;1.0805;
510.0000;1.1836;1.0779;
510.3000;1.1852;1.0779;
510.6000;1.1860;1.0830;
510.9000;1.1844;1.0702;
511.2000;1.1844;1.0676;
511.5000;1.1836;1.0728;
511.8000;1.1852;1.0805;
512.1000;1.1827;1.0830;
512.4000;1.1844;1.0805;
512.7000;1.1860;1.0856;
513.0000;1.1844;1.0805;
513.3000;1.1836;1.0753;
513.6000;1.1860;1.0882;
513.9000;1.1819;1.0702;
514.2000;1.1893;1.0933;
514.5000;1.1852;1.0805;
514.8000;1.1827;1.0728;
515.1000;1.1827;1.0779;
515.4000;1.1827;1.0753;
515.7000;1.1836;1.0702;
516.0000;1.1819;1.0599;
516.3000;1.1844;1.0651;
516.6000;1.1860;1.0728;
516.9000;1.1844;1.0702;
517.2000;1.1827;1.0728;
517.5000;1.1860;1.0779;
517.8000;1.1836;1.0728;
518.1000;1.1836;1.0830;
518.4000;1.1836;1.0805;
518.7000;1.1811;1.0830;
519.0000;1.1844;1.0933;
519.3000;1.1844;1.0984;
519.6000;1.1852;1.0933;
519.9000;1.1884;1.0907;
520.2000;1.1844;1.0805;
520.5000;1.1852;1.0882;
520.8000;1.1844;1.0805;
521.1000;1.1852;1.0882;
521.4000;1.1852;1.0830;
521.7000;1.1852;1.0830;
522.0000;1.1844;1.0830;
522.3000;1.1836;1.0856;
522.6000;1.1852;1.0959;
522.9000;1.1852;1.0959;
523.2000;1.1819;1.0805;
523.5000;1.1860;1.0959;
523.8000;1.1852;1.0907;
524.1000;1.1819;1.0830;
524.4000;1.1836;1.0805;
524.7000;1.1836;1.0753;
525.0000;1.1836;1.0805;
525.3000;1.1844;1.0907;
525.6000;1.1860;1.0959;
525.9000;1.1795;1.0805;
526.2000;1.1819;1.0882;
526.5000;1.1836;1.0959;
526.8000;1.1852;1.0933;
527.1000;1.1827;1.0882;
527.4000;1.1860;1.1061;
527.7000;1.1836;1.0984;
528.0000;1.1917;1.1164;
528.3000;1.1893;1.1036;
528.6000;1.1876;1.0959;
528.9000;1.1819;1.0830;
529.2000;1.1860;1.0907;
529.5000;1.1827;1.0779;
529.8000;1.1827;1.0779;
530.1000;1.1852;1.0856;
530.4000;1.1836;1.0882;
530.7000;1.1827;1.0907;
531.0000;1.1860;1.1010;
531.3000;1.1836;1.0907;
531.6000;1.1844;1.0933;
531.9000;1.1852;1.0933;
532.2000;1.1893;1.1036;
532.5000;1.1844;1.0830;
532.8000;1.1827;1.0830;
533.1000;1.1836;1.0856;
533.4000;1.1827;1.0830;
533.7000;1.1836;1.0856;
534.0000;1.1933;1.1087;
534.3000;1.1860;1.0959;
534.6000;1.1844;1.0907;
534.9000;1.1836;1.0830;
535.2000;1.1844;1.0882;
535.5000;1.1844;1.0805;
535.8000;1.1852;1.0856;
536.1000;1.1844;1.0882;
536.4000;1.1827;1.0805;
536.7000;1.1819;1.0856;
537.0000;1.1901;1.0933;
537.3000;1.1852;1.0830;
537.6000;1.1836;1.0753;
537.9000;1.1860;1.0805;
538.2000;1.1795;1.0676;
538.5000;1.1811;1.0753;
538.8000;1.1811;1.0830;
539.1000;1.1827;1.0933;
539.4000;1.1811;1.0959;
539.7000;1.1819;1.0933;
540.0000;1.1811;1.0805;
540.3000;1.1836;1.0959;
540.6000;1.1827;1.0856;
540.9000;1.1844;1.0933;
541.2000;1.1836;1.0882;
541.5000;1.1770;1.0779;
541.8000;1.1803;1.0830;
542.1000;1.1811;1.0805;
542.4000;1.1836;1.0830;
542.7000;1.1819;1.0882;
543.0000;1.1836;1.0933;
543.3000;1.1844;1.0959;
543.6000;1.1762;1.0779;
543.9000;1.1868;1.1010;
544.2000;1.1827;1.0907;
544.5000;1.1844;1.0933;
544.8000;1.1836;1.0830;
545.1000;1.1819;1.0728;
545.4000;1.1844;1.0753;
545.7000;1.1852;1.0830;
546.0000;1.1844;1.0805;
546.3000;1.1852;1.0753;
546.6000;1.1852;1.0753;
546.9000;1.1836;1.0779;
547.2000;1.1844;1.0830;
547.5000;1.1836;1.0856;
547.8000;1.1836;1.0882;
548.1000;1.1819;1.0856;
548.4000;1.1852;1.0959;
548.7000;1.1852;1.1010;
549.0000;1.1852;1.1010;
549.3000;1.1844;1.0959;
549.6000;1.1795;1.0856;
549.9000;1.1836;1.0959;
550.2000;1.1811;1.0907;
550.5000;1.1836;1.0907;
550.8000;1.1876;1.1061;
551.1000;1.1844;1.0984;
551.4000;1.1852;1.0959;
551.7000;1.1827;1.0907;
552.0000;1.1876;1.1010;
552.3000;1.1844;1.0907;
552.6000;1.1852;1.0856;
552.9000;1.1819;1.0753;
553.2000;1.1836;1.0805;
553.5000;1.1836;1.0779;
553.8000;1.1844;1.0805;
554.1000;1.1827;1.0805;
554.4000;1.1844;1.0830;
554.7000;1.1836;1.0779;
555.0000;1.1844;1.0882;
555.3000;1.1827;1.0856;
555.6000;1.1836;1.0907;
555.9000;1.1901;1.1036;
556.2000;1.1836;1.0882;
556.5000;1.1836;1.0856;
556.8000;1.1811;1.0779;
557.1000;1.1868;1.0830;
557.4000;1.1836;1.0728;
557.7000;1.1819;1.0702;
558.0000;1.1819;1.0830;
558.3000;1.1827;1.0882;
558.6000;1.1819;1.0779;
558.9000;1.1779;1.0599;
559.2000;1.1762;1.0471;
559.5000;1.1827;1.0625;
559.8000;1.1836;1.0625;
560.1000;1.1852;1.0651;
560.4000;1.1836;1.0651;
560.7000;1.1827;1.0599;
561.0000;1.1827;1.0676;
561.3000;1.1844;1.0830;
561.6000;1.1836;1.0805;
561.9000;1.1827;1.0805;
562.2000;1.1844;1.0907;
562.5000;1.1860;1.0882;
562.8000;1.1852;1.0907;
563.1000;1.1844;1.0882;
563.4000;1.1836;1.0933;
563.7000;1.1844;1.0830;
564.0000;1.1827;1.0830;
564.3000;1.1811;1.0856;
564.6000;1.1844;1.0907;
564.9000;1.1827;1.0933;
565.2000;1.1827;1.0933;
565.5000;1.1819;1.0907;
565.8000;1.1836;1.0933;
566.1000;1.1827;1.0959;
566.4000;1.1868;1.1113;
566.7000;1.1827;1.0959;
567.0000;1.1844;1.1010;
567.3000;1.1836;1.0984;
567.6000;1.1827;1.0984;
567.9000;1.1868;1.0984;
568.2000;1.1819;1.0856;
568.5000;1.1787;1.0753;
568.8000;1.1844;1.0933;
569.1000;1.1860;1.0907;
569.4000;1.1827;1.0856;
569.7000;1.1836;1.0805;
570.0000;1.1819;1.0882;
570.3000;1.1844;1.1061;
570.6000;1.1844;1.0984;
570.9000;1.1852;1.0984;
571.2000;1.1844;1.0933;
571.5000;1.1836;1.0959;
571.8000;1.1852;1.1061;
572.1000;1.1827;1.0933;
572.4000;1.1852;1.1010;
572.7000;1.1852;1.1113;
573.0000;1.1779;1.1010;
573.3000;1.1770;1.0984;
573.6000;1.1836;1.1138;
573.9000;1.1770;1.1036;
574.2000;1.1836;1.1190;
574.5000;1.1827;1.1215;
574.8000;1.1819;1.1138;
575.1000;1.1827;1.1138;
575.4000;1.1803;1.1190;
575.7000;1.1901;1.1369;
576.0000;1.1811;1.1036;
576.3000;1.1811;1.1010;
576.6000;1.1803;1.0984;
576.9000;1.1803;1.1036;
577.2000;1.1803;1.1113;
577.5000;1.1819;1.1113;
577.8000;1.1844;1.1215;
578.1000;1.1819;1.1190;
578.4000;1.1819;1.1061;
578.7000;1.1819;1.1138;
579.0000;1.1836;1.1164;
579.3000;1.1827;1.1113;
579.6000;1.1811;1.0984;
579.9000;1.1811;1.1010;
580.2000;1.1827;1.1061;
580.5000;1.1827;1.0907;
580.8000;1.1819;1.0856;
581.1000;1.1819;1.0882;
581.4000;1.1811;1.0984;
581.7000;1.1819;1.1036;
582.0000;1.1836;1.0984;
582.3000;1.1811;1.0933;
582.6000;1.1827;1.0959;
582.9000;1.1819;1.0882;
583.2000;1.1819;1.0959;
583.5000;1.1811;1.0882;
583.8000;1.1811;1.0830;
584.1000;1.1770;1.0728;
584.4000;1.1827;1.0830;
584.7000;1.1836;1.0805;
585.0000;1.1819;1.0753;
585.3000;1.1827;1.0805;
585.6000;1.1844;1.0907;
585.9000;1.1811;1.0907;
586.2000;1.1819;1.0882;
586.5000;1.1836;1.0959;
586.8000;1.1836;1.0984;
587.1000;1.1844;1.0933;
587.4000;1.1844;1.1087;
587.7000;1.1811;1.0984;
588.0000;1.1827;1.1087;
588.3000;1.1827;1.1061;
588.6000;1.1787;1.0882;
588.9000;1.1827;1.0933;
589.2000;1.1819;1.0882;
589.5000;1.1819;1.0856;
589.8000;1.1803;1.0856;
590.1000;1.1803;1.0753;
590.4000;1.1803;1.0805;
590.7000;1.1827;1.0830;
591.0000;1.1819;1.0882;
591.3000;1.1819;1.0830;
591.6000;1.1827;1.0882;
591.9000;1.1787;1.0753;
592.2000;1.1819;1.0753;
592.5000;1.1819;1.0805;
592.8000;1.1811;1.0779;
593.1000;1.1827;1.0882;
593.4000;1.1811;1.0959;
593.7000;1.1803;1.0933;
594.0000;1.1803;1.0856;
594.3000;1.1860;1.0984;
594.6000;1.1852;1.1010;
594.9000;1.1836;1.0959;
595.2000;1.1852;1.1010;
595.5000;1.1860;1.1010;
595.8000;1.1860;1.0933;
596.1000;1.1827;1.0882;
596.4000;1.1819;1.0856;
596.7000;1.1819;1.0856;
597.0000;1.1827;1.0959;
597.3000;1.1795;1.0933;
597.6000;1.1860;1.1061;
597.9000;1.1827;1.0907;
598.2000;1.1901;1.1087;
598.5000;1.1860;1.0984;
598.8000;1.1909;1.1138;
599.1000;1.1787;1.0882;
599.4000;1.1844;1.1010;
599.7000;1.1868;1.1138;
600.0000;1.1852;1.1036;
600.3000;1.1819;1.0676;
600.6000;1.1803;1.0599;
600.9000;1.1746;1.0471;
601.2000;1.1608;1.0189;
601.5000;1.1583;1.0086;
601.8000;1.1461;0.9958;
602.1000;1.1477;1.0189;
602.4000;1.1282;0.9855;
602.7000;1.1168;0.9752;
603.0000;1.1046;0.9573;
603.3000;1.0997;0.9547;
603.6000;1.0891;0.9342;
603.9000;1.0826;0.9188;
604.2000;1.0729;0.9085;
604.5000;1.0688;0.9111;
604.8000;1.0598;0.9111;
605.1000;1.0525;0.9059;
605.4000;1.0476;0.9034;
605.7000;1.0379;0.8905;
606.0000;1.0346;0.8905;
606.3000;1.0289;0.8828;
606.6000;1.0175;0.8700;
606.9000;1.0142;0.8700;
607.2000;1.0102;0.8674;
607.5000;1.0045;0.8597;
607.8000;1.0004;0.8546;
608.1000;0.9947;0.8546;
608.4000;0.9898;0.8700;
608.7000;0.9858;0.8674;
609.0000;0.9817;0.8700;
609.3000;0.9768;0.8726;
609.6000;0.9711;0.8649;
609.9000;0.9654;0.8546;
610.2000;0.9581;0.8520;
610.5000;0.9581;0.8597;
610.8000;0.9508;0.8444;
611.1000;0.9491;0.8546;
611.4000;0.9410;0.8392;
611.7000;0.9394;0.8444;
612.0000;0.9361;0.8392;
612.3000;0.9328;0.8444;
612.6000;0.9263;0.8495;
612.9000;0.9247;0.8444;
613.2000;0.9239;0.8444;
613.5000;0.9158;0.8264;
613.8000;0.9166;0.8213;
614.1000;0.9101;0.8136;
614.4000;0.9092;0.8187;
614.7000;0.9052;0.8238;
615.0000;0.9019;0.8187;
615.3000;0.8970;0.8187;
615.6000;0.8987;0.8315;
615.9000;0.8921;0.8213;
616.2000;0.8873;0.8213;
616.5000;0.8832;0.8187;
616.8000;0.8840;0.8264;
617.1000;0.8783;0.8161;
617.4000;0.8751;0.8033;
617.7000;0.8726;0.7956;
618.0000;0.8751;0.8187;
618.3000;0.8669;0.8110;
618.6000;0.8661;0.8238;
618.9000;0.8628;0.8290;
619.2000;0.8580;0.8161;
619.5000;0.8563;0.8238;
619.8000;0.8547;0.8213;
620.1000;0.8547;0.8315;
620.4000;0.8482;0.8161;
620.7000;0.8466;0.8161;
621.0000;0.8441;0.8161;
621.3000;0.8433;0.8187;
621.6000;0.8335;0.8136;
621.9000;0.8352;0.8161;
622.2000;0.8368;0.8315;
622.5000;0.8335;0.8341;
622.8000;0.8368;0.8520;
623.1000;0.8311;0.8341;
623.4000;0.8270;0.8213;
623.7000;0.8230;0.8110;
624.0000;0.8205;0.8187;
624.3000;0.8189;0.8161;
624.6000;0.8173;0.8187;
624.9000;0.8173;0.8238;
625.2000;0.8116;0.8084;
625.5000;0.8099;0.8059;
625.8000;0.8083;0.8033;
626.1000;0.8091;0.8059;
626.4000;0.8083;0.8084;
626.7000;0.8050;0.8007;
627.0000;0.7977;0.7905;
627.3000;0.8026;0.7982;
627.6000;0.8002;0.8033;
627.9000;0.8067;0.8213;
628.2000;0.7953;0.7930;
628.5000;0.7945;0.7930;
628.8000;0.7928;0.7956;
629.1000;0.7912;0.7930;
629.4000;0.7896;0.7982;
629.7000;0.7855;0.8033;
630.0000;0.7855;0.8033;
630.3000;0.7847;0.7956;
630.6000;0.7831;0.7828;
630.9000;0.7798;0.7776;
631.2000;0.7839;0.7982;
631.5000;0.7774;0.7751;
631.8000;0.7757;0.7751;
632.1000;0.7725;0.7725;
632.4000;0.7741;0.7802;
632.7000;0.7749;0.7828;
633.0000;0.7692;0.7802;
633.3000;0.7700;0.7879;
633.6000;0.7676;0.7879;
633.9000;0.7635;0.7828;
634.2000;0.7676;0.7982;
634.5000;0.7668;0.8084;
634.8000;0.7611;0.7956;
635.1000;0.7611;0.7930;
635.4000;0.7595;0.7905;
635.7000;0.7603;0.7930;
636.0000;0.7578;0.7905;
636.3000;0.7538;0.7751;
636.6000;0.7521;0.7751;
636.9000;0.7538;0.7905;
637.2000;0.7546;0.7853;
637.5000;0.7546;0.7853;
637.8000;0.7497;0.7776;
638.1000;0.7505;0.7802;
638.4000;0.7497;0.7776;
638.7000;0.7562;0.8033;
639.0000;0.7530;0.8007;
639.3000;0.7473;0.7930;
639.6000;0.7424;0.7828;
639.9000;0.7464;0.7905;
640.2000;0.7424;0.7879;
640.5000;0.7432;0.7853;
640.8000;0.7407;0.7853;
641.1000;0.7399;0.7930;
641.4000;0.7383;0.7956;
641.7000;0.7367;0.7853;
642.0000;0.7367;0.7802;
642.3000;0.7350;0.7725;
642.6000;0.7350;0.7802;
642.9000;0.7302;0.7597;
643.2000;0.7318;0.7571;
643.5000;0.7310;0.7545;
643.8000;0.7310;0.7545;
644.1000;0.7302;0.7520;
644.4000;0.7310;0.7545;
644.7000;0.7285;0.7520;
645.0000;0.7236;0.7391;
645.3000;0.7293;0.7597;
645.6000;0.7269;0.7545;
645.9000;0.7253;0.7622;
646.2000;0.7236;0.7674;
646.5000;0.7228;0.7674;
646.8000;0.7204;0.7622;
647.1000;0.7204;0.7674;
647.4000;0.7220;0.7725;
647.7000;0.7188;0.7571;
648.0000;0.7163;0.7597;
648.3000;0.7196;0.7699;
648.6000;0.7179;0.7699;
648.9000;0.7163;0.7597;
649.2000;0.7163;0.7520;
649.5000;0.7139;0.7545;
649.8000;0.7139;0.7571;
650.1000;0.7139;0.7571;
650.4000;0.7123;0.7571;
650.7000;0.7123;0.7597;
651.0000;0.7123;0.7674;
651.3000;0.7098;0.7699;
651.6000;0.7090;0.7597;
651.9000;0.7098;0.7597;
652.2000;0.7082;0.7571;
652.5000;0.7074;0.7674;
652.8000;0.7074;0.7674;
653.1000;0.7066;0.7699;
653.4000;0.7066;0.7699;
653.7000;0.7066;0.7648;
654.0000;0.7041;0.7699;
654.3000;0.7025;0.7648;
654.6000;0.7009;0.7597;
654.9000;0.7041;0.7699;
655.2000;0.7041;0.7776;
655.5000;0.7009;0.7802;
655.8000;0.6992;0.7776;
656.1000;0.6984;0.7776;
656.4000;0.6960;0.7648;
656.7000;0.6984;0.7674;
657.0000;0.6984;0.7648;
657.3000;0.6927;0.7520;
657.6000;0.6976;0.7674;
657.9000;0.6960;0.7571;
658.2000;0.6935;0.7622;
658.5000;0.6952;0.7776;
658.8000;0.6960;0.7828;
659.1000;0.6943;0.7828;
659.4000;0.6943;0.7828;
659.7000;0.6927;0.7776;
660.0000;0.6927;0.7776;
660.3000;0.6911;0.7802;
660.6000;0.6927;0.7828;
660.9000;0.6903;0.7725;
661.2000;0.6886;0.7648;
661.5000;0.6943;0.7776;
661.8000;0.6895;0.7699;
662.1000;0.6919;0.7699;
662.4000;0.6886;0.7674;
662.7000;0.6862;0.7622;
663.0000;0.6870;0.7622;
663.3000;0.6846;0.7622;
663.6000;0.6846;0.7648;
663.9000;0.6846;0.7648;
664.2000;0.6846;0.7648;
664.5000;0.6838;0.7622;
664.8000;0.6846;0.7674;
665.1000;0.6838;0.7520;
665.4000;0.6829;0.7494;
665.7000;0.6821;0.7443;
666.0000;0.6821;0.7494;
666.3000;0.6821;0.7571;
666.6000;0.6813;0.7597;
666.9000;0.6797;0.7622;
667.2000;0.6797;0.7622;
667.5000;0.6797;0.7674;
667.8000;0.6764;0.7545;
668.1000;0.6846;0.7699;
668.4000;0.6781;0.7674;
668.7000;0.6789;0.7674;
669.0000;0.6813;0.7674;
669.3000;0.6781;0.7520;
669.6000;0.6756;0.7545;
669.9000;0.6764;0.7622;
670.2000;0.6748;0.7571;
670.5000;0.6756;0.7648;
670.8000;0.6740;0.7622;
671.1000;0.6740;0.7622;
671.4000;0.6732;0.7648;
671.7000;0.6724;0.7725;
672.0000;0.6724;0.7622;
672.3000;0.6699;0.7622;
672.6000;0.6707;0.7648;
672.9000;0.6707;0.7674;
673.2000;0.6683;0.7622;
673.5000;0.6748;0.7776;
673.8000;0.6724;0.7751;
674.1000;0.6707;0.7674;
674.4000;0.6699;0.7776;
674.7000;0.6699;0.7853;
675.0000;0.6675;0.7776;
675.3000;0.6699;0.7725;
675.6000;0.6691;0.7674;
675.9000;0.6683;0.7597;
676.2000;0.6650;0.7648;
676.5000;0.6683;0.7751;
676.8000;0.6675;0.7648;
677.1000;0.6683;0.7622;
677.4000;0.6667;0.7699;
677.7000;0.6659;0.7699;
678.0000;0.6650;0.7648;
678.3000;0.6650;0.7648;
678.6000;0.6659;0.7597;
678.9000;0.6650;0.7545;
679.2000;0.6650;0.7494;
679.5000;0.6618;0.7417;
679.8000;0.6650;0.7494;
680.1000;0.6634;0.7520;
680.4000;0.6602;0.7520;
680.7000;0.6650;0.7699;
681.0000;0.6642;0.7751;
681.3000;0.6610;0.7699;
681.6000;0.6610;0.7648;
681.9000;0.6650;0.7802;
682.2000;0.6585;0.7648;
682.5000;0.6593;0.7699;
682.8000;0.6593;0.7674;
683.1000;0.6602;0.7648;
683.4000;0.6585;0.7520;
683.7000;0.6602;0.7494;
684.0000;0.6577;0.7417;
684.3000;0.6585;0.7391;
684.6000;0.6577;0.7391;
684.9000;0.6577;0.7520;
685.2000;0.6569;0.7494;
685.5000;0.6585;0.7494;
685.8000;0.6561;0.7391;
686.1000;0.6577;0.7494;
686.4000;0.6577;0.7494;
686.7000;0.6561;0.7443;
687.0000;0.6545;0.7417;
687.3000;0.6561;0.7545;
687.6000;0.6561;0.7622;
687.9000;0.6569;0.7648;
688.2000;0.6577;0.7725;
688.5000;0.6553;0.7622;
688.8000;0.6553;0.7571;
689.1000;0.6536;0.7545;
689.4000;0.6536;0.7571;
689.7000;0.6553;0.7597;
690.0000;0.6553;0.7622;
690.3000;0.6545;0.7648;
690.6000;0.6520;0.7648;
690.9000;0.6520;0.7751;
691.2000;0.6520;0.7751;
691.5000;0.6528;0.7699;
691.8000;0.6553;0.7725;
692.1000;0.6512;0.7571;
692.4000;0.6512;0.7622;
692.7000;0.6504;0.7699;
693.0000;0.6520;0.7776;
693.3000;0.6504;0.7751;
693.6000;0.6496;0.7699;
693.9000;0.6520;0.7776;
694.2000;0.6504;0.7699;
694.5000;0.6488;0.7674;
694.8000;0.6488;0.7545;
695.1000;0.6496;0.7648;
695.4000;0.6504;0.7648;
695.7000;0.6479;0.7597;
696.0000;0.6479;0.7751;
696.3000;0.6471;0.7699;
696.6000;0.6447;0.7545;
696.9000;0.6471;0.7597;
697.2000;0.6479;0.7674;
697.5000;0.6471;0.7751;
697.8000;0.6479;0.7725;
698.1000;0.6439;0.7648;
698.4000;0.6447;0.7622;
698.7000;0.6488;0.7699;
699.0000;0.6553;0.7956;
699.3000;0.6496;0.7699;
699.6000;0.6463;0.7648;
699.9000;0.6422;0.7674;
700.2000;0.6471;0.7879;
700.5000;0.6471;0.7802;
700.8000;0.6455;0.7853;
701.1000;0.6447;0.7674;
701.4000;0.6431;0.7622;
701.7000;0.6455;0.7751;
702.0000;0.6422;0.7725;
702.3000;0.6431;0.7725;
702.6000;0.6455;0.7828;
702.9000;0.6447;0.7853;
703.2000;0.6431;0.7879;
703.5000;0.6398;0.7751;
703.8000;0.6431;0.7776;
704.1000;0.6447;0.7828;
704.4000;0.6431;0.7930;
704.7000;0.6471;0.7956;
705.0000;0.6439;0.7802;
705.3000;0.6439;0.7751;
705.6000;0.6414;0.7699;
705.9000;0.6390;0.7699;
706.2000;0.6414;0.7802;
706.5000;0.6382;0.7699;
706.8000;0.6439;0.7879;
707.1000;0.6406;0.7802;
707.4000;0.6365;0.7725;
707.7000;0.6414;0.7905;
708.0000;0.6406;0.7853;
708.3000;0.6382;0.7802;
708.6000;0.6406;0.7853;
708.9000;0.6390;0.7802;
709.2000;0.6398;0.7802;
709.5000;0.6390;0.7699;
709.8000;0.6398;0.7648;
710.1000;0.6406;0.7597;
710.4000;0.6414;0.7648;
710.7000;0.6390;0.7545;
711.0000;0.6357;0.7597;
711.3000;0.6390;0.7699;
711.6000;0.6382;0.7674;
711.9000;0.6406;0.7776;
712.2000;0.6382;0.7725;
712.5000;0.6341;0.7597;
712.8000;0.6374;0.7674;
713.1000;0.6382;0.7699;
713.4000;0.6382;0.7725;
713.7000;0.6374;0.7776;
714.0000;0.6325;0.7648;
714.3000;0.6374;0.7751;
714.6000;0.6349;0.7699;
714.9000;0.6341;0.7571;
715.2000;0.6365;0.7648;
715.5000;0.6357;0.7494;
715.8000;0.6414;0.7699;
716.1000;0.6349;0.7622;
716.4000;0.6374;0.7751;
716.7000;0.6365;0.7751;
717.0000;0.6349;0.7699;
717.3000;0.6365;0.7648;
717.6000;0.6333;0.7545;
717.9000;0.6357;0.7494;
718.2000;0.6349;0.7494;
718.5000;0.6333;0.7494;
718.8000;0.6341;0.7494;
719.1000;0.6357;0.7597;
719.4000;0.6365;0.7751;
719.7000;0.6349;0.7699;
720.0000;0.6390;0.7776;
720.3000;0.6333;0.7597;
720.6000;0.6292;0.7494;
720.9000;0.6349;0.7622;
721.2000;0.6325;0.7545;
721.5000;0.6341;0.7520;
721.8000;0.6317;0.7520;
722.1000;0.6333;0.7545;
722.4000;0.6382;0.7648;
722.7000;0.6325;0.7545;
723.0000;0.6333;0.7545;
723.3000;0.6317;0.7494;
723.6000;0.6325;0.7597;
723.9000;0.6300;0.7520;
724.2000;0.6325;0.7468;
724.5000;0.6333;0.7494;
724.8000;0.6333;0.7545;
725.1000;0.6341;0.7520;
725.4000;0.6317;0.7494;
725.7000;0.6325;0.7571;
726.0000;0.6325;0.7622;
726.3000;0.6309;0.7520;
726.6000;0.6309;0.7545;
726.9000;0.6317;0.7545;
727.2000;0.6325;0.7622;
727.5000;0.6317;0.7622;
727.8000;0.6309;0.7674;
728.1000;0.6317;0.7699;
728.4000;0.6276;0.7622;
728.7000;0.6317;0.7725;
729.0000;0.6309;0.7622;
729.3000;0.6300;0.7597;
729.6000;0.6309;0.7699;
729.9000;0.6284;0.7751;
730.2000;0.6276;0.7802;
730.5000;0.6284;0.7828;
730.8000;0.6300;0.7751;
731.1000;0.6309;0.7776;
731.4000;0.6292;0.7776;
731.7000;0.6219;0.7648;
732.0000;0.6276;0.7853;
732.3000;0.6292;0.7905;
732.6000;0.6276;0.7879;
732.9000;0.6268;0.7776;
733.2000;0.6284;0.7776;
733.5000;0.6243;0.7674;
733.8000;0.6268;0.7674;
734.1000;0.6284;0.7648;
734.4000;0.6292;0.7725;
734.7000;0.6284;0.7699;
735.0000;0.6276;0.7699;
735.3000;0.6276;0.7802;
735.6000;0.6300;0.7725;
735.9000;0.6276;0.7622;
736.2000;0.6300;0.7622;
736.5000;0.6268;0.7699;
736.8000;0.6268;0.7674;
737.1000;0.6243;0.7622;
737.4000;0.6292;0.7776;
737.7000;0.6252;0.7725;
738.0000;0.6260;0.7828;
738.3000;0.6276;0.7802;
738.6000;0.6252;0.7674;
738.9000;0.6260;0.7725;
739.2000;0.6284;0.7776;
739.5000;0.6260;0.7648;
739.8000;0.6195;0.7417;
740.1000;0.6243;0.7520;
740.4000;0.6252;0.7622;
740.7000;0.6260;0.7571;
741.0000;0.6260;0.7494;
741.3000;0.6252;0.7545;
741.6000;0.6252;0.7622;
741.9000;0.6260;0.7699;
742.2000;0.6260;0.7725;
742.5000;0.6292;0.7751;
742.8000;0.6252;0.7674;
743.1000;0.6252;0.7674;
743.4000;0.6252;0.7571;
743.7000;0.6219;0.7571;
744.0000;0.6195;0.7468;
744.3000;0.6219;0.7571;
744.6000;0.6146;0.7417;
744.9000;0.6284;0.7674;
745.2000;0.6235;0.7520;
745.5000;0.6219;0.7417;
745.8000;0.6243;0.7417;
746.1000;0.6252;0.7314;
746.4000;0.6260;0.7391;
746.7000;0.6252;0.7366;
747.0000;0.6252;0.7391;
747.3000;0.6268;0.7520;
747.6000;0.6268;0.7545;
747.9000;0.6235;0.7545;
748.2000;0.6211;0.7545;
748.5000;0.6243;0.7545;
748.8000;0.6243;0.7648;
749.1000;0.6227;0.7622;
749.4000;0.6178;0.7494;
749.7000;0.6243;0.7571;
750.0000;0.6252;0.7571;
750.3000;0.6227;0.7545;
750.6000;0.6252;0.7545;
750.9000;0.6211;0.7520;
751.2000;0.6219;0.7571;
751.5000;0.6227;0.7674;
751.8000;0.6203;0.7545;
752.1000;0.6219;0.7545;
752.4000;0.6203;0.7520;
752.7000;0.6203;0.7494;
753.0000;0.6195;0.7520;
753.3000;0.6211;0.7520;
753.6000;0.6203;0.7545;
753.9000;0.6211;0.7571;
754.2000;0.6219;0.7597;
754.5000;0.6211;0.7468;
754.8000;0.6203;0.7443;
755.1000;0.6219;0.7468;
755.4000;0.6219;0.7494;
755.7000;0.6219;0.7571;
756.0000;0.6211;0.7494;
756.3000;0.6219;0.7520;
756.6000;0.6203;0.7494;
756.9000;0.6203;0.7417;
757.2000;0.6227;0.7443;
757.5000;0.6203;0.7520;
757.8000;0.6227;0.7545;
758.1000;0.6186;0.7622;
758.4000;0.6186;0.7622;
758.7000;0.6203;0.7597;
759.0000;0.6178;0.7468;
759.3000;0.6186;0.7494;
759.6000;0.6203;0.7571;
759.9000;0.6211;0.7648;
760.2000;0.6227;0.7725;
760.5000;0.6219;0.7725;
760.8000;0.6219;0.7674;
761.1000;0.6203;0.7699;
761.4000;0.6219;0.7674;
761.7000;0.6219;0.7622;
762.0000;0.6211;0.7597;
762.3000;0.6203;0.7545;
762.6000;0.6195;0.7520;
762.9000;0.6186;0.7520;
763.2000;0.6178;0.7494;
763.5000;0.6186;0.7545;
763.8000;0.6186;0.7545;
764.1000;0.6203;0.7648;
764.4000;0.6219;0.7674;
764.7000;0.6186;0.7545;
765.0000;0.6260;0.7674;
765.3000;0.6195;0.7571;
765.6000;0.6195;0.7597;
765.9000;0.6162;0.7545;
766.2000;0.6195;0.7622;
766.5000;0.6203;0.7648;
766.8000;0.6227;0.7776;
767.1000;0.6170;0.7674;
767.4000;0.6170;0.7674;
767.7000;0.6170;0.7725;
768.0000;0.6195;0.7802;
768.3000;0.6178;0.7802;
768.6000;0.6170;0.7751;
768.9000;0.6162;0.7674;
769.2000;0.6178;0.7648;
769.5000;0.6146;0.7622;
769.8000;0.6170;0.7674;
770.1000;0.6227;0.7802;
770.4000;0.6186;0.7648;
770.7000;0.6162;0.7571;
771.0000;0.6170;0.7520;
771.3000;0.6170;0.7571;
771.6000;0.6138;0.7571;
771.9000;0.6186;0.7725;
772.2000;0.6170;0.7725;
772.5000;0.6178;0.7751;
772.8000;0.6146;0.7648;
773.1000;0.6186;0.7751;
773.4000;0.6178;0.7828;
773.7000;0.6268;0.8059;
774.0000;0.6170;0.7751;
774.3000;0.6178;0.7725;
774.6000;0.6170;0.7674;
774.9000;0.6154;0.7648;
775.2000;0.6178;0.7751;
775.5000;0.6178;0.7725;
775.8000;0.6195;0.7725;
776.1000;0.6178;0.7776;
776.4000;0.6178;0.7828;
776.7000;0.6129;0.7699;
777.0000;0.6154;0.7751;
777.3000;0.6129;0.7494;
777.6000;0.6154;0.7520;
777.9000;0.6170;0.7494;
778.2000;0.6178;0.7494;
778.5000;0.6146;0.7443;
778.8000;0.6146;0.7468;
779.1000;0.6170;0.7545;
779.4000;0.6146;0.7366;
779.7000;0.6154;0.7391;
780.0000;0.6154;0.7391;
780.3000;0.6162;0.7443;
780.6000;0.6195;0.7494;
780.9000;0.6186;0.7571;
781.2000;0.6170;0.7674;
781.5000;0.6162;0.7648;
781.8000;0.6195;0.7751;
782.1000;0.6170;0.7674;
782.4000;0.6243;0.7879;
782.7000;0.6162;0.7648;
783.0000;0.6203;0.7776;
783.3000;0.6162;0.7622;
783.6000;0.6162;0.7725;
783.9000;0.6146;0.7622;
784.2000;0.6154;0.7776;
784.5000;0.6146;0.7776;
784.8000;0.6154;0.7751;
785.1000;0.6154;0.7699;
785.4000;0.6170;0.7776;
785.7000;0.6138;0.7699;
786.0000;0.6056;0.7443;
786.3000;0.6146;0.7776;
786.6000;0.6146;0.7725;
786.9000;0.6154;0.7828;
787.2000;0.6146;0.7828;
787.5000;0.6138;0.7699;
787.8000;0.6162;0.7674;
788.1000;0.6162;0.7725;
788.4000;0.6138;0.7674;
788.7000;0.6146;0.7725;
789.0000;0.6121;0.7648;
789.3000;0.6146;0.7699;
789.6000;0.6170;0.7622;
789.9000;0.6129;0.7545;
790.2000;0.6121;0.7571;
790.5000;0.6170;0.7776;
790.8000;0.6097;0.7468;
791.1000;0.6146;0.7597;
791.4000;0.6129;0.7545;
791.7000;0.6113;0.7520;
792.0000;0.6129;0.7597;
792.3000;0.6146;0.7674;
792.6000;0.6121;0.7571;
792.9000;0.6072;0.7468;
793.2000;0.6138;0.7699;
793.5000;0.6146;0.7776;
793.8000;0.6211;0.7930;
794.1000;0.6129;0.7725;
794.4000;0.6129;0.7648;
794.7000;0.6138;0.7648;
795.0000;0.6138;0.7674;
795.3000;0.6146;0.7597;
795.6000;0.6129;0.7545;
795.9000;0.6162;0.7571;
796.2000;0.6146;0.7571;
796.5000;0.6146;0.7674;
796.8000;0.6146;0.7648;
797.1000;0.6146;0.7751;
797.4000;0.6138;0.7776;
797.7000;0.6162;0.7725;
798.0000;0.6138;0.7674;
798.3000;0.6146;0.7648;
798.6000;0.6146;0.7648;
798.9000;0.6129;0.7622;
799.2000;0.6113;0.7597;
799.5000;0.6121;0.7648;
799.8000;0.6138;0.7699;
800.1000;0.6113;0.7674;
800.4000;0.6129;0.7622;
800.7000;0.6129;0.7674;
801.0000;0.6138;0.7648;
801.3000;0.6138;0.7648;
801.6000;0.6129;0.7597;
801.9000;0.6138;0.7571;
802.2000;0.6138;0.7622;
802.5000;0.6105;0.7622;
802.8000;0.6146;0.7725;
803.1000;0.6129;0.7622;
803.4000;0.6138;0.7648;
803.7000;0.6113;0.7597;
804.0000;0.6138;0.7699;
804.3000;0.6121;0.7674;
804.6000;0.6138;0.7648;
804.9000;0.6129;0.7545;
805.2000;0.6146;0.7571;
805.5000;0.6097;0.7520;
805.8000;0.6162;0.7622;
806.1000;0.6138;0.7520;
806.4000;0.6089;0.7391;
806.7000;0.6138;0.7545;
807.0000;0.6129;0.7545;
807.3000;0.6129;0.7545;
807.6000;0.6129;0.7494;
807.9000;0.6097;0.7545;
808.2000;0.6178;0.7802;
808.5000;0.6146;0.7674;
808.8000;0.6121;0.7597;
809.1000;0.6138;0.7597;
809.4000;0.6105;0.7520;
809.7000;0.6129;0.7494;
810.0000;0.6129;0.7494;
810.3000;0.6138;0.7545;
810.6000;0.6129;0.7494;
810.9000;0.6121;0.7545;
811.2000;0.6138;0.7545;
811.5000;0.6097;0.7520;
811.8000;0.6138;0.7597;
812.1000;0.6170;0.7674;
812.4000;0.6121;0.7545;
812.7000;0.6121;0.7545;
813.0000;0.6072;0.7468;
813.3000;0.6081;0.7520;
813.6000;0.6121;0.7674;
813.9000;0.6113;0.7674;
814.2000;0.6081;0.7571;
814.5000;0.6105;0.7725;
814.8000;0.6138;0.7776;
815.1000;0.6105;0.7699;
815.4000;0.6105;0.7699;
815.7000;0.6113;0.7828;
816.0000;0.6170;0.8007;
816.3000;0.6113;0.7776;
816.6000;0.6121;0.7699;
816.9000;0.6138;0.7725;
817.2000;0.6121;0.7751;
817.5000;0.6121;0.7828;
817.8000;0.6097;0.7776;
818.1000;0.6113;0.7802;
818.4000;0.6113;0.7879;
818.7000;0.6097;0.7853;
819.0000;0.6113;0.7802;
819.3000;0.6097;0.7802;
819.6000;0.6105;0.7699;
819.9000;0.6113;0.7699;
820.2000;0.6121;0.7751;
820.5000;0.6129;0.7725;
820.8000;0.6089;0.7699;
821.1000;0.6097;0.7622;
821.4000;0.6121;0.7648;
821.7000;0.6097;0.7597;
822.0000;0.6113;0.7571;
822.3000;0.6129;0.7622;
822.6000;0.6121;0.7725;
822.9000;0.6154;0.7879;
823.2000;0.6089;0.7751;
823.5000;0.6138;0.7879;
823.8000;0.6105;0.7776;
824.1000;0.6129;0.7828;
824.4000;0.6121;0.7725;
824.7000;0.6097;0.7597;
825.0000;0.6113;0.7648;
825.3000;0.6129;0.7622;
825.6000;0.6105;0.7545;
825.9000;0.6089;0.7597;
826.2000;0.6089;0.7648;
826.5000;0.6113;0.7751;
826.8000;0.6138;0.7776;
827.1000;0.6121;0.7725;
827.4000;0.6089;0.7725;
827.7000;0.6138;0.7930;
828.0000;0.6097;0.7776;
828.3000;0.6129;0.7828;
828.6000;0.6113;0.7725;
828.9000;0.6105;0.7776;
829.2000;0.6146;0.7879;
829.5000;0.6105;0.7828;
829.8000;0.6146;0.7930;
830.1000;0.6105;0.7905;
830.4000;0.6113;0.8033;
830.7000;0.6097;0.8007;
831.0000;0.6089;0.7982;
831.3000;0.6040;0.7853;
831.6000;0.6113;0.8059;
831.9000;0.6097;0.7982;
832.2000;0.6072;0.7853;
832.5000;0.6105;0.7982;
832.8000;0.6097;0.7982;
833.1000;0.6121;0.8110;
833.4000;0.6089;0.8136;
833.7000;0.6105;0.8084;
834.0000;0.6032;0.7853;
834.3000;0.6121;0.8110;
834.6000;0.6138;0.8136;
834.9000;0.6097;0.8084;
835.2000;0.6064;0.8084;
835.5000;0.6113;0.8110;
835.8000;0.6064;0.8110;
836.1000;0.6089;0.8084;
836.4000;0.6089;0.8059;
836.7000;0.6081;0.8007;
837.0000;0.6081;0.8007;
837.3000;0.6081;0.7982;
837.6000;0.6097;0.8007;
837.9000;0.6097;0.7956;
838.2000;0.6129;0.8161;
838.5000;0.6064;0.7982;
838.8000;0.6081;0.7930;
839.1000;0.6089;0.7828;
839.4000;0.6105;0.7828;
839.7000;0.6024;0.7725;
840.0000;0.6097;0.7956;
840.3000;0.6097;0.7982;
840.6000;0.6154;0.8084;
840.9000;0.6097;0.7905;
841.2000;0.6097;0.7802;
841.5000;0.6105;0.7802;
841.8000;0.6113;0.7725;
842.1000;0.6105;0.7725;
842.4000;0.6064;0.7571;
842.7000;0.6089;0.7571;
843.0000;0.6072;0.7545;
843.3000;0.6097;0.7597;
843.6000;0.6064;0.7571;
843.9000;0.6113;0.7751;
844.2000;0.6072;0.7725;
844.5000;0.6081;0.7699;
844.8000;0.6121;0.7725;
845.1000;0.6105;0.7751;
845.4000;0.6113;0.7853;
845.7000;0.6121;0.7853;
846.0000;0.6081;0.7725;
846.3000;0.6056;0.7699;
846.6000;0.6040;0.7597;
846.9000;0.6097;0.7674;
847.2000;0.6105;0.7699;
847.5000;0.6121;0.7802;
847.8000;0.6105;0.7622;
848.1000;0.6097;0.7597;
848.4000;0.6072;0.7597;
848.7000;0.6129;0.7776;
849.0000;0.6089;0.7648;
849.3000;0.6007;0.7443;
849.6000;0.6064;0.7622;
849.9000;0.6048;0.7674;
850.2000;0.6097;0.7725;
850.5000;0.6064;0.7699;
850.8000;0.6097;0.7802;
851.1000;0.6081;0.7802;
851.4000;0.6105;0.7853;
851.7000;0.6154;0.8059;
852.0000;0.6089;0.7828;
852.3000;0.6089;0.7751;
852.6000;0.6097;0.7776;
852.9000;0.6089;0.7776;
853.2000;0.6089;0.7751;
853.5000;0.6089;0.7725;
853.8000;0.6089;0.7674;
854.1000;0.6089;0.7597;
854.4000;0.6089;0.7520;
854.7000;0.6121;0.7520;
855.0000;0.6097;0.7520;
855.3000;0.6121;0.7571;
855.6000;0.6089;0.7571;
855.9000;0.6105;0.7699;
856.2000;0.6105;0.7725;
856.5000;0.6072;0.7597;
856.8000;0.6097;0.7725;
857.1000;0.6113;0.7751;
857.4000;0.6081;0.7725;
857.7000;0.6081;0.7648;
858.0000;0.6081;0.7674;
858.3000;0.6089;0.7802;
858.6000;0.6081;0.7802;
858.9000;0.6097;0.7879;
859.2000;0.6064;0.7751;
859.5000;0.6089;0.7802;
859.8000;0.6056;0.7699;
860.1000;0.6081;0.7828;
860.4000;0.6081;0.7879;
860.7000;0.6089;0.7828;
861.0000;0.6105;0.7802;
861.3000;0.6081;0.7751;
861.6000;0.6032;0.7622;
861.9000;0.6081;0.7776;
862.2000;0.6064;0.7776;
862.5000;0.6081;0.7802;
862.8000;0.6081;0.7776;
863.1000;0.6081;0.7751;
863.4000;0.6064;0.7674;
863.7000;0.6081;0.7776;
864.0000;0.6064;0.7853;
864.3000;0.6072;0.7802;
864.6000;0.6138;0.7905;
864.9000;0.6056;0.7725;
865.2000;0.6081;0.7674;
865.5000;0.6064;0.7648;
865.8000;0.6064;0.7622;
866.1000;0.6097;0.7725;
866.4000;0.6081;0.7802;
866.7000;0.6072;0.7725;
867.0000;0.6081;0.7699;
867.3000;0.6081;0.7725;
867.6000;0.6154;0.7930;
867.9000;0.6089;0.7725;
868.2000;0.6081;0.7674;
868.5000;0.6121;0.7828;
868.8000;0.6081;0.7699;
869.1000;0.6072;0.7699;
869.4000;0.6048;0.7699;
869.7000;0.6064;0.7751;
870.0000;0.6064;0.7828;
870.3000;0.6056;0.7879;
870.6000;0.6048;0.7853;
870.9000;0.6072;0.7930;
871.2000;0.6072;0.7982;
871.5000;0.6056;0.7956;
871.8000;0.6081;0.8033;
872.1000;0.6072;0.8033;
872.4000;0.6081;0.8033;
872.7000;0.6081;0.7930;
873.0000;0.6072;0.7905;
873.3000;0.6064;0.7905;
873.6000;0.6081;0.7930;
873.9000;0.6072;0.7905;
874.2000;0.6064;0.7879;
874.5000;0.6072;0.7879;
874.8000;0.6170;0.8161;
875.1000;0.6089;0.7956;
875.4000;0.6121;0.8110;
875.7000;0.6089;0.8033;
876.0000;0.6072;0.7956;
876.3000;0.6072;0.8007;
876.6000;0.6089;0.7982;
876.9000;0.6072;0.7930;
877.2000;0.6064;0.7905;
877.5000;0.6089;0.7956;
877.8000;0.6081;0.8007;
878.1000;0.6064;0.8007;
878.4000;0.6064;0.8007;
878.7000;0.6089;0.8110;
879.0000;0.6089;0.8084;
879.3000;0.6089;0.8059;
879.6000;0.6105;0.8084;
879.9000;0.6138;0.8187;
880.2000;0.6089;0.8033;
880.5000;0.6105;0.8033;
880.8000;0.6097;0.8033;
881.1000;0.6113;0.8059;
881.4000;0.6081;0.8059;
881.7000;0.6081;0.8084;
882.0000;0.6056;0.8007;
882.3000;0.6081;0.8084;
882.6000;0.6097;0.8213;
882.9000;0.6089;0.8213;
883.2000;0.6081;0.8161;
883.5000;0.6064;0.8059;
883.8000;0.6064;0.8084;
884.1000;0.6081;0.8161;
884.4000;0.6040;0.8084;
884.7000;0.6121;0.8392;
885.0000;0.6064;0.8290;
885.3000;0.6056;0.8238;
885.6000;0.6015;0.8110;
885.9000;0.6064;0.8213;
886.2000;0.6048;0.8213;
886.5000;0.6032;0.8110;
886.8000;0.6048;0.7956;
887.1000;0.6056;0.7930;
887.4000;0.6056;0.7879;
887.7000;0.6072;0.7905;
888.0000;0.6146;0.8136;
888.3000;0.6081;0.7853;
888.6000;0.6081;0.7853;
888.9000;0.6089;0.7853;
889.2000;0.6072;0.7956;
889.5000;0.6089;0.8084;
889.8000;0.6064;0.8033;
890.1000;0.6105;0.8161;
890.4000;0.6081;0.8084;
890.7000;0.6072;0.8110;
891.0000;0.6081;0.8213;
891.3000;0.6072;0.8290;
891.6000;0.6081;0.8341;
891.9000;0.6056;0.8213;
892.2000;0.6072;0.8161;
892.5000;0.6072;0.8213;
892.8000;0.6081;0.8238;
893.1000;0.6072;0.8367;
893.4000;0.6056;0.8341;
893.7000;0.6056;0.8238;
894.0000;0.6064;0.8290;
894.3000;0.6089;0.8290;
894.6000;0.6072;0.8187;
894.9000;0.6081;0.8161;
895.2000;0.6081;0.8213;
895.5000;0.6081;0.8264;
895.8000;0.6089;0.8290;
896.1000;0.6064;0.8136;
896.4000;0.6064;0.8161;
896.7000;0.6162;0.8469;
897.0000;0.6072;0.8161;
897.3000;0.6056;0.8161;
897.6000;0.6056;0.8136;
897.9000;0.6081;0.8264;
898.2000;0.6064;0.8161;
898.5000;0.6032;0.8033;
898.8000;0.6064;0.8084;
899.1000;0.6072;0.8161;
899.4000;0.6081;0.8110;
899.7000;0.6072;0.8110;
900.0000;0.6072;0.8161;
900.3000;0.6048;0.8084;
900.6000;0.6089;0.8161;
900.9000;0.6007;0.7905;
901.2000;0.6056;0.7982;
901.5000;0.6048;0.8084;
901.8000;0.6113;0.8238;
902.1000;0.6072;0.8161;
902.4000;0.6056;0.8033;
902.7000;0.6064;0.8033;
903.0000;0.6048;0.8007;
903.3000;0.6048;0.8033;
903.6000;0.6056;0.8161;
903.9000;0.6072;0.8290;
904.2000;0.6081;0.8213;
904.5000;0.6072;0.8213;
904.8000;0.6081;0.8264;
905.1000;0.6089;0.8290;
905.4000;0.6056;0.8187;
905.7000;0.6097;0.8290;
906.0000;0.6040;0.8213;
906.3000;0.6081;0.8264;
906.6000;0.6072;0.8187;
906.9000;0.6081;0.8187;
907.2000;0.6072;0.8136;
907.5000;0.6048;0.8213;
907.8000;0.6064;0.8238;
908.1000;0.6064;0.8290;
908.4000;0.6056;0.8315;
908.7000;0.6105;0.8392;
909.0000;0.6064;0.8315;
909.3000;0.6064;0.8290;
909.6000;0.6048;0.8264;
909.9000;0.6056;0.8315;
910.2000;0.6064;0.8315;
910.5000;0.6081;0.8367;
910.8000;0.6081;0.8367;
911.1000;0.6072;0.8341;
911.4000;0.6081;0.8341;
911.7000;0.6064;0.8290;
912.0000;0.6089;0.8290;
912.3000;0.6072;0.8213;
912.6000;0.6048;0.8213;
912.9000;0.6056;0.8238;
913.2000;0.6081;0.8367;
913.5000;0.6072;0.8418;
913.8000;0.6089;0.8444;
914.1000;0.6072;0.8392;
914.4000;0.6064;0.8341;
914.7000;0.6097;0.8367;
915.0000;0.6064;0.8315;
915.3000;0.6072;0.8290;
915.6000;0.6064;0.8213;
915.9000;0.6089;0.8136;
916.2000;0.6081;0.8161;
916.5000;0.6056;0.8084;
916.8000;0.6072;0.8084;
917.1000;0.6072;0.8136;
917.4000;0.6081;0.8161;
917.7000;0.6056;0.8110;
918.0000;0.6072;0.8136;
918.3000;0.6007;0.8110;
918.6000;0.6064;0.8315;
918.9000;0.6056;0.8290;
919.2000;0.6040;0.8392;
919.5000;0.5999;0.8238;
919.8000;0.6064;0.8341;
920.1000;0.6056;0.8290;
920.4000;0.6032;0.8213;
920.7000;0.6056;0.8290;
921.0000;0.6040;0.8290;
921.3000;0.6056;0.8290;
921.6000;0.6048;0.8264;
921.9000;0.6048;0.8213;
922.2000;0.6064;0.8238;
922.5000;0.6048;0.8187;
922.8000;0.6064;0.8110;
923.1000;0.6064;0.8059;
923.4000;0.6072;0.8084;
923.7000;0.6072;0.8110;
924.0000;0.6072;0.8136;
924.3000;0.6056;0.8110;
924.6000;0.6064;0.8187;
924.9000;0.6081;0.8315;
925.2000;0.6056;0.8238;
925.5000;0.6056;0.8161;
925.8000;0.6007;0.7956;
926.1000;0.6056;0.8059;
926.4000;0.6064;0.8007;
926.7000;0.6064;0.7905;
927.0000;0.6064;0.7879;
927.3000;0.6040;0.7802;
927.6000;0.6064;0.7956;
927.9000;0.6064;0.7956;
928.2000;0.6072;0.7956;
928.5000;0.6113;0.8084;
928.8000;0.6056;0.7982;
929.1000;0.6048;0.7982;
929.4000;0.6040;0.8033;
929.7000;0.5991;0.7853;
930.0000;0.6064;0.8136;
930.3000;0.6048;0.8110;
930.6000;0.6040;0.8110;
930.9000;0.6056;0.8084;
931.2000;0.6081;0.8033;
931.5000;0.6056;0.7982;
931.8000;0.6015;0.7982;
932.1000;0.6056;0.8059;
932.4000;0.6056;0.8007;
932.7000;0.6072;0.7905;
933.0000;0.6056;0.7905;
933.3000;0.6064;0.8007;
933.6000;0.6064;0.8007;
933.9000;0.6072;0.7956;
934.2000;0.6056;0.7956;
934.5000;0.6048;0.7879;
934.8000;0.6056;0.7930;
935.1000;0.6056;0.7905;
935.4000;0.6113;0.8059;
935.7000;0.6048;0.7982;
936.0000;0.6072;0.8059;
936.3000;0.6081;0.7982;
936.6000;0.6072;0.7956;
936.9000;0.6072;0.8033;
937.2000;0.6072;0.7982;
937.5000;0.6081;0.8033;
937.8000;0.6072;0.8059;
938.1000;0.6056;0.8084;
938.4000;0.6064;0.8110;
938.7000;0.6056;0.8161;
939.0000;0.6040;0.8136;
939.3000;0.6056;0.8238;
939.6000;0.6072;0.8238;
939.9000;0.6056;0.8136;
940.2000;0.6064;0.8213;
940.5000;0.6007;0.8033;
940.8000;0.6040;0.8059;
941.1000;0.6056;0.8007;
941.4000;0.6056;0.8110;
941.7000;0.6105;0.8264;
942.0000;0.6032;0.8084;
942.3000;0.6072;0.8161;
942.6000;0.6081;0.8187;
942.9000;0.6040;0.8084;
943.2000;0.6048;0.8084;
943.5000;0.6064;0.8110;
943.8000;0.6105;0.8187;
944.1000;0.6056;0.8161;
944.4000;0.6064;0.8110;
944.7000;0.6056;0.8110;
945.0000;0.6032;0.8033;
945.3000;0.6089;0.8161;
945.6000;0.6056;0.8161;
945.9000;0.6097;0.8341;
946.2000;0.6056;0.8264;
946.5000;0.6064;0.8238;
946.8000;0.6072;0.8238;
947.1000;0.6064;0.8238;
947.4000;0.6081;0.8341;
947.7000;0.6064;0.8341;
948.0000;0.6048;0.8315;
948.3000;0.6064;0.8367;
948.6000;0.6056;0.8341;
948.9000;0.6032;0.8136;
949.2000;0.6007;0.7982;
949.5000;0.6072;0.8136;
949.8000;0.6056;0.8059;
950.1000;0.6064;0.7956;
950.4000;0.6064;0.8084;
950.7000;0.6040;0.8007;
951.0000;0.6040;0.8033;
951.3000;0.6072;0.8059;
951.6000;0.6064;0.7956;
951.9000;0.6056;0.7905;
952.2000;0.6064;0.8007;
952.5000;0.6048;0.8007;
952.8000;0.6064;0.8033;
953.1000;0.6056;0.8110;
953.4000;0.6056;0.8136;
953.7000;0.6048;0.8033;
954.0000;0.6056;0.8136;
954.3000;0.6048;0.8161;
954.6000;0.5999;0.8059;
954.9000;0.6048;0.8213;
955.2000;0.6056;0.8187;
955.5000;0.6064;0.8136;
955.8000;0.6040;0.8059;
956.1000;0.6089;0.8007;
956.4000;0.6081;0.8007;
956.7000;0.6072;0.8033;
957.0000;0.6072;0.8084;
957.3000;0.6064;0.8033;
957.6000;0.6064;0.8059;
957.9000;0.6081;0.8161;
958.2000;0.6048;0.8136;
958.5000;0.6048;0.8161;
958.8000;0.6081;0.8161;
959.1000;0.6064;0.8110;
959.4000;0.5967;0.7751;
959.7000;0.6040;0.8007;
960.0000;0.6040;0.8007;
960.3000;0.6072;0.8007;
960.6000;0.6048;0.7879;
960.9000;0.6072;0.7956;
961.2000;0.6056;0.7905;
961.5000;0.6081;0.7982;
961.8000;0.6064;0.7905;
962.1000;0.6064;0.7853;
962.4000;0.6056;0.7905;
962.7000;0.6129;0.8110;
963.0000;0.6072;0.7982;
963.3000;0.6072;0.7956;
963.6000;0.6040;0.7879;
963.9000;0.6040;0.8033;
964.2000;0.6064;0.8059;
964.5000;0.6007;0.7956;
964.8000;0.6040;0.7982;
965.1000;0.6048;0.7982;
965.4000;0.6040;0.7982;
965.7000;0.6154;0.8161;
966.0000;0.6048;0.7930;
966.3000;0.6048;0.7930;
966.6000;0.6064;0.7956;
966.9000;0.6056;0.7982;
967.2000;0.6056;0.7982;
967.5000;0.6024;0.7853;
967.8000;0.6048;0.8059;
968.1000;0.6056;0.8161;
968.4000;0.6007;0.8084;
968.7000;0.6040;0.8136;
969.0000;0.6048;0.8187;
969.3000;0.6064;0.8187;
969.6000;0.6056;0.8213;
969.9000;0.6032;0.8059;
970.2000;0.6064;0.8084;
970.5000;0.6064;0.8110;
970.8000;0.6056;0.8187;
971.1000;0.6048;0.8213;
971.4000;0.6024;0.8059;
971.7000;0.6072;0.8187;
972.0000;0.6064;0.8136;
972.3000;0.6064;0.8059;
972.6000;0.6072;0.8059;
972.9000;0.6064;0.8033;
973.2000;0.6064;0.8059;
973.5000;0.6072;0.7956;
973.8000;0.6024;0.7930;
974.1000;0.6024;0.7956;
974.4000;0.6040;0.8007;
974.7000;0.6032;0.8136;
975.0000;0.6072;0.8213;
975.3000;0.6064;0.8187;
975.6000;0.6081;0.8264;
975.9000;0.6048;0.8187;
976.2000;0.6072;0.8110;
976.5000;0.6064;0.8059;
976.8000;0.6007;0.7930;
977.1000;0.6032;0.7879;
977.4000;0.6064;0.8084;
977.7000;0.6072;0.8084;
978.0000;0.6072;0.8007;
978.3000;0.6056;0.7956;
978.6000;0.6081;0.8033;
978.9000;0.6056;0.8084;
979.2000;0.6056;0.8059;
979.5000;0.6048;0.8161;
979.8000;0.6040;0.8136;
980.1000;0.6081;0.8084;
980.4000;0.6105;0.8110;
980.7000;0.6056;0.7905;
981.0000;0.6056;0.7879;
981.3000;0.6064;0.7879;
981.6000;0.6032;0.7853;
981.9000;0.6072;0.7956;
982.2000;0.6064;0.7956;
982.5000;0.6056;0.7930;
982.8000;0.6056;0.8033;
983.1000;0.6064;0.8136;
983.4000;0.6056;0.8110;
983.7000;0.5942;0.7751;
984.0000;0.6032;0.7853;
984.3000;0.6056;0.7828;
984.6000;0.6056;0.7879;
984.9000;0.6064;0.7956;
985.2000;0.6048;0.8033;
985.5000;0.6056;0.8059;
985.8000;0.6064;0.8084;
986.1000;0.6072;0.8161;
986.4000;0.6064;0.8110;
986.7000;0.6056;0.8136;
987.0000;0.6072;0.8187;
987.3000;0.6056;0.8213;
987.6000;0.6064;0.8238;
987.9000;0.6048;0.8290;
988.2000;0.6056;0.8213;
988.5000;0.6056;0.8238;
988.8000;0.6048;0.8187;
989.1000;0.6048;0.8161;
989.4000;0.6040;0.8161;
989.7000;0.6048;0.8238;
990.0000;0.6040;0.8341;
990.3000;0.6048;0.8290;
990.6000;0.6056;0.8238;
990.9000;0.6056;0.8187;
991.2000;0.6056;0.8161;
991.5000;0.6040;0.8187;
991.8000;0.6024;0.8059;
992.1000;0.6064;0.8161;
992.4000;0.6056;0.8161;
992.7000;0.6056;0.8136;
993.0000;0.6015;0.8007;
993.3000;0.6048;0.8059;
993.6000;0.6081;0.8187;
993.9000;0.6032;0.8213;
994.2000;0.6064;0.8238;
994.5000;0.6056;0.8290;
994.8000;0.6072;0.8187;
995.1000;0.6056;0.8161;
995.4000;0.6048;0.8084;
995.7000;0.6048;0.8110;
996.0000;0.5999;0.7982;
996.3000;0.6040;0.8007;
996.6000;0.6081;0.8084;
996.9000;0.6048;0.8084;
997.2000;0.6064;0.8161;
997.5000;0.6040;0.8238;
997.8000;0.6064;0.8315;
998.1000;0.6040;0.8315;
998.4000;0.6032;0.8290;
998.7000;0.6064;0.8392;
999.0000;0.6007;0.8238;
999.3000;0.6032;0.8315;
999.6000;0.6040;0.8187;
999.9000;0.6064;0.8187;
1000.2000;0.6048;0.8187;
1000.5000;0.5983;0.7982;
1000.8000;0.6072;0.8213;
1001.1000;0.6064;0.8187;
1001.4000;0.5975;0.8007;
1001.7000;0.6064;0.8264;
1002.0000;0.6064;0.8136;
1002.3000;0.6056;0.8161;
1002.6000;0.6064;0.8238;
1002.9000;0.6048;0.8110;
1003.2000;0.6032;0.8084;
1003.5000;0.6056;0.8161;
1003.8000;0.6040;0.8033;
1004.1000;0.6056;0.8033;
1004.4000;0.6121;0.8238;
1004.7000;0.6056;0.8059;
1005.0000;0.6064;0.8084;
1005.3000;0.6056;0.8059;
1005.6000;0.6048;0.8084;
1005.9000;0.6056;0.8007;
1006.2000;0.6040;0.8007;
1006.5000;0.6072;0.8084;
1006.8000;0.6064;0.8033;
1007.1000;0.6064;0.8059;
1007.4000;0.6072;0.8084;
1007.7000;0.6064;0.8059;
1008.0000;0.6064;0.7956;
1008.3000;0.6072;0.7956;
1008.6000;0.6064;0.8033;
1008.9000;0.6056;0.7956;
1009.2000;0.6064;0.8007;
1009.5000;0.6056;0.8033;
1009.8000;0.6048;0.8059;
1010.1000;0.6064;0.8136;
1010.4000;0.5983;0.7853;
1010.7000;0.5999;0.7930;
1011.0000;0.6032;0.7956;
1011.3000;0.6040;0.7930;
1011.6000;0.6048;0.7905;
1011.9000;0.6032;0.7879;
1012.2000;0.6048;0.7956;
1012.5000;0.6056;0.8084;
1012.8000;0.6040;0.8161;
1013.1000;0.6032;0.8110;
1013.4000;0.6040;0.8136;
1013.7000;0.6032;0.8084;
1014.0000;0.6032;0.8084;
1014.3000;0.6040;0.8007;
1014.6000;0.6040;0.7956;
1014.9000;0.6015;0.7905;
1015.2000;0.6056;0.7956;
1015.5000;0.6040;0.7853;
1015.8000;0.6032;0.7905;
1016.1000;0.6040;0.8033;
1016.4000;0.6056;0.8136;
1016.7000;0.6040;0.8033;
1017.0000;0.6024;0.8033;
1017.3000;0.6056;0.8059;
1017.6000;0.6040;0.7956;
1017.9000;0.6064;0.7982;
1018.2000;0.6048;0.7956;
1018.5000;0.6040;0.7930;
1018.8000;0.6048;0.7853;
1019.1000;0.6064;0.7930;
1019.4000;0.6064;0.7956;
1019.7000;0.6056;0.7982;
1020.0000;0.6064;0.7982;
1020.3000;0.6064;0.7956;
1020.6000;0.6072;0.7956;
1020.9000;0.6056;0.7982;
1021.2000;0.5991;0.7956;
1021.5000;0.6081;0.8084;
1021.8000;0.6064;0.8136;
1022.1000;0.6064;0.8136;
1022.4000;0.6015;0.8110;
1022.7000;0.6064;0.8367;
1023.0000;0.6040;0.8290;
1023.3000;0.6064;0.8238;
1023.6000;0.6024;0.8136;
1023.9000;0.6040;0.8213;
1024.2000;0.6048;0.8213;
1024.5000;0.6024;0.8136;
1024.8000;0.6072;0.8213;
1025.1000;0.6056;0.8161;
1025.4000;0.6097;0.8213;
1025.7000;0.6024;0.8033;
1026.0000;0.6048;0.8059;
1026.3000;0.6032;0.8033;
1026.6000;0.6048;0.7930;
1026.9000;0.6064;0.7982;
1027.2000;0.6015;0.7982;
1027.5000;0.6097;0.8213;
1027.8000;0.6072;0.8136;
1028.1000;0.6056;0.8007;
1028.4000;0.6056;0.8007;
1028.7000;0.6040;0.7982;
1029.0000;0.6032;0.8033;
1029.3000;0.6048;0.8033;
1029.6000;0.6048;0.8033;
1029.9000;0.6056;0.8033;
1030.2000;0.6040;0.8033;
1030.5000;0.6040;0.8110;
1030.8000;0.6032;0.8084;
1031.1000;0.6048;0.8136;
1031.4000;0.6032;0.8007;
1031.7000;0.6032;0.7982;
1032.0000;0.6040;0.7982;
1032.3000;0.6048;0.8084;
1032.6000;0.6040;0.8084;
1032.9000;0.6056;0.8007;
1033.2000;0.6040;0.7982;
1033.5000;0.6056;0.7982;
1033.8000;0.6032;0.7956;
1034.1000;0.6048;0.8033;
1034.4000;0.6064;0.8007;
1034.7000;0.6056;0.8059;
1035.0000;0.6048;0.8007;
1035.3000;0.6040;0.7982;
1035.6000;0.6056;0.8084;
1035.9000;0.6105;0.8238;
1036.2000;0.6064;0.8110;
1036.5000;0.6040;0.8033;
1036.8000;0.6024;0.7956;
1037.1000;0.6048;0.8007;
1037.4000;0.6056;0.8084;
1037.7000;0.6040;0.8033;
1038.0000;0.6056;0.8084;
1038.3000;0.6032;0.8059;
1038.6000;0.6048;0.8110;
1038.9000;0.5999;0.7879;
1039.2000;0.6048;0.8110;
1039.5000;0.6048;0.8161;
1039.8000;0.6048;0.8213;
1040.1000;0.6015;0.8161;
1040.4000;0.6048;0.8110;
1040.7000;0.6048;0.8033;
1041.0000;0.6048;0.8007;
1041.3000;0.6056;0.8059;
1041.6000;0.6032;0.8007;
1041.9000;0.6032;0.8110;
1042.2000;0.6056;0.8161;
1042.5000;0.6048;0.8110;
1042.8000;0.6048;0.8059;
1043.1000;0.6064;0.8136;
1043.4000;0.6015;0.8059;
1043.7000;0.6032;0.8033;
1044.0000;0.6056;0.8084;
1044.3000;0.6056;0.8110;
1044.6000;0.6032;0.8136;
1044.9000;0.6064;0.8213;
1045.2000;0.6048;0.8213;
1045.5000;0.6015;0.8110;
1045.8000;0.6032;0.8161;
1046.1000;0.6040;0.8110;
1046.4000;0.6048;0.8110;
1046.7000;0.6064;0.8161;
1047.0000;0.6040;0.8084;
1047.3000;0.6064;0.8059;
1047.6000;0.6064;0.8059;
1047.9000;0.6056;0.8033;
1048.2000;0.6048;0.8084;
1048.5000;0.6048;0.8059;
1048.8000;0.6032;0.7982;
1049.1000;0.6056;0.8007;
1049.4000;0.6056;0.8033;
1049.7000;0.6072;0.8033;
1050.0000;0.6048;0.7982;
1050.3000;0.6048;0.7905;
1050.6000;0.6064;0.7905;
1050.9000;0.6072;0.7982;
1051.2000;0.5991;0.7828;
1051.5000;0.6056;0.8059;
1051.8000;0.6056;0.8007;
1052.1000;0.6048;0.7956;
1052.4000;0.6113;0.8238;
1052.7000;0.6056;0.8059;
1053.0000;0.6048;0.8033;
1053.3000;0.6081;0.8161;
1053.6000;0.6056;0.8136;
1053.9000;0.6056;0.8161;
1054.2000;0.6056;0.8187;
1054.5000;0.6064;0.8084;
1054.8000;0.6081;0.8136;
1055.1000;0.6064;0.8084;
1055.4000;0.6048;0.8136;
1055.7000;0.6040;0.8033;
1056.0000;0.6081;0.8161;
1056.3000;0.6048;0.8187;
1056.6000;0.6040;0.8161;
1056.9000;0.6048;0.8187;
1057.2000;0.6056;0.8264;
1057.5000;0.6056;0.8367;
1057.8000;0.6024;0.8264;
1058.1000;0.6056;0.8315;
1058.4000;0.6064;0.8367;
1058.7000;0.5999;0.8238;
1059.0000;0.6048;0.8315;
1059.3000;0.6064;0.8341;
1059.6000;0.6048;0.8264;
1059.9000;0.6072;0.8341;
1060.2000;0.6056;0.8341;
1060.5000;0.6064;0.8418;
1060.8000;0.6064;0.8367;
1061.1000;0.6056;0.8341;
1061.4000;0.6072;0.8392;
1061.7000;0.6048;0.8315;
1062.0000;0.6048;0.8238;
1062.3000;0.6015;0.8187;
1062.6000;0.6056;0.8341;
1062.9000;0.6040;0.8238;
1063.2000;0.6048;0.8136;
1063.5000;0.6040;0.8084;
1063.8000;0.6048;0.8187;
1064.1000;0.6048;0.8238;
1064.4000;0.6081;0.8315;
1064.7000;0.6064;0.8290;
1065.0000;0.6064;0.8238;
1065.3000;0.6056;0.8290;
1065.6000;0.5942;0.7879;
1065.9000;0.6064;0.8213;
1066.2000;0.6040;0.8161;
1066.5000;0.6048;0.8136;
1066.8000;0.6056;0.8110;
1067.1000;0.6056;0.8136;
1067.4000;0.6064;0.8264;
1067.7000;0.6048;0.8213;
1068.0000;0.6064;0.8187;
1068.3000;0.6056;0.8213;
1068.6000;0.6081;0.8161;
1068.9000;0.6048;0.8059;
1069.2000;0.6064;0.8033;
1069.5000;0.6024;0.8007;
1069.8000;0.6064;0.8007;
1070.1000;0.6072;0.8033;
1070.4000;0.6081;0.8084;
1070.7000;0.6040;0.7956;
1071.0000;0.6032;0.7930;
1071.3000;0.6056;0.8059;
1071.6000;0.6032;0.8059;
1071.9000;0.6048;0.8110;
1072.2000;0.6056;0.8238;
1072.5000;0.6048;0.8264;
1072.8000;0.6015;0.8187;
1073.1000;0.6024;0.8213;
1073.4000;0.5967;0.8007;
1073.7000;0.5991;0.8161;
1074.0000;0.6064;0.8392;
1074.3000;0.6040;0.8290;
1074.6000;0.6121;0.8367;
1074.9000;0.6048;0.8110;
1075.2000;0.6064;0.8110;
1075.5000;0.6081;0.8136;
1075.8000;0.6032;0.8007;
1076.1000;0.6056;0.8084;
1076.4000;0.6048;0.8110;
1076.7000;0.6048;0.8059;
1077.0000;0.6056;0.8084;
1077.3000;0.6032;0.7982;
1077.6000;0.6048;0.8007;
1077.9000;0.6064;0.8033;
1078.2000;0.6064;0.8007;
1078.5000;0.6048;0.8033;
1078.8000;0.6072;0.8161;
1079.1000;0.6064;0.8161;
1079.4000;0.6056;0.8161;
1079.7000;0.6048;0.8084;
1080.0000;0.6048;0.8033;
1080.3000;0.6072;0.8084;
1080.6000;0.6064;0.7956;
1080.9000;0.5991;0.7853;
1081.2000;0.6048;0.7982;
1081.5000;0.6040;0.7982;
1081.8000;0.5999;0.7828;
1082.1000;0.6040;0.8007;
1082.4000;0.6040;0.7930;
1082.7000;0.6056;0.7905;
1083.0000;0.6056;0.7982;
1083.3000;0.6048;0.7982;
1083.6000;0.6056;0.8033;
1083.9000;0.6056;0.8033;
1084.2000;0.6024;0.7982;
1084.5000;0.6056;0.8033;
1084.8000;0.6048;0.8007;
1085.1000;0.6040;0.8059;
1085.4000;0.6040;0.8007;
1085.7000;0.6064;0.8084;
1086.0000;0.6048;0.8110;
1086.3000;0.6048;0.8033;
1086.6000;0.6040;0.7982;
1086.9000;0.6040;0.8007;
1087.2000;0.6024;0.8007;
1087.5000;0.6015;0.7982;
1087.8000;0.6040;0.7982;
1088.1000;0.6040;0.8007;
1088.4000;0.6040;0.8084;
1088.7000;0.6007;0.8007;
1089.0000;0.6089;0.8187;
1089.3000;0.5942;0.7828;
1089.6000;0.6056;0.8084;
1089.9000;0.6056;0.7982;
1090.2000;0.6081;0.8033;
1090.5000;0.6040;0.8033;
1090.8000;0.6040;0.8033;
1091.1000;0.6024;0.8033;
1091.4000;0.6048;0.8161;
1091.7000;0.5975;0.7956;
1092.0000;0.6129;0.8315;
1092.3000;0.6040;0.8033;
1092.6000;0.6097;0.8238;
1092.9000;0.6064;0.8110;
1093.2000;0.6072;0.8059;
1093.5000;0.5975;0.7879;
1093.8000;0.5983;0.7956;
1094.1000;0.6048;0.8187;
1094.4000;0.6024;0.8161;
1094.7000;0.6048;0.8213;
1095.0000;0.6007;0.8033;
1095.3000;0.6056;0.8059;
1095.6000;0.6089;0.8187;
1095.9000;0.6072;0.8187;
1096.2000;0.6056;0.8161;
1096.5000;0.6007;0.8110;
1096.8000;0.6015;0.8264;
1097.1000;0.5991;0.8187;
1097.4000;0.6113;0.8418;
1097.7000;0.6048;0.8213;
1098.0000;0.6032;0.8161;
1098.3000;0.6056;0.8238;
1098.6000;0.6040;0.8238;
1098.9000;0.6048;0.8264;
1099.2000;0.6064;0.8213;
1099.5000;0.6056;0.8187;
1099.8000;0.6056;0.8084;
1100.1000;0.6081;0.8059;
1100.4000;0.6056;0.7982;
1100.7000;0.6040;0.7982;
1101.0000;0.5975;0.7853;
1101.3000;0.6040;0.7982;
1101.6000;0.6040;0.7930;
1101.9000;0.6056;0.7982;
1102.2000;0.6056;0.7930;
1102.5000;0.6056;0.8007;
1102.8000;0.6056;0.7982;
1103.1000;0.6056;0.7956;
1103.4000;0.6089;0.8110;
1103.7000;0.6048;0.8007;
1104.0000;0.6056;0.8007;
1104.3000;0.6048;0.8084;
1104.6000;0.6056;0.8059;
1104.9000;0.6064;0.8136;
1105.2000;0.6040;0.8059;
1105.5000;0.6064;0.8161;
1105.8000;0.6040;0.8084;
1106.1000;0.6056;0.8084;
1106.4000;0.6015;0.8059;
1106.7000;0.6040;0.8059;
1107.0000;0.6040;0.8033;
1107.3000;0.6048;0.8007;
1107.6000;0.6056;0.8007;
1107.9000;0.6040;0.7930;
1108.2000;0.6032;0.7905;
1108.5000;0.6048;0.7982;
1108.8000;0.6072;0.7982;
1109.1000;0.6056;0.8033;
1109.4000;0.6072;0.8136;
1109.7000;0.6056;0.8110;
1110.0000;0.6040;0.8110;
1110.3000;0.6056;0.8187;
1110.6000;0.6040;0.8110;
1110.9000;0.6015;0.7956;
1111.2000;0.6056;0.7930;
1111.5000;0.6064;0.7956;
1111.8000;0.6048;0.7879;
1112.1000;0.6040;0.7853;
1112.4000;0.6056;0.7956;
1112.7000;0.6129;0.8238;
1113.0000;0.5967;0.7853;
1113.3000;0.6048;0.8007;
1113.6000;0.6129;0.8161;
1113.9000;0.6064;0.8084;
1114.2000;0.6048;0.8110;
1114.5000;0.5983;0.7930;
1114.8000;0.6064;0.8110;
1115.1000;0.6064;0.8084;
1115.4000;0.6072;0.8084;
1115.7000;0.5975;0.7853;
1116.0000;0.6064;0.8033;
1116.3000;0.6056;0.7982;
1116.6000;0.5991;0.7802;
1116.9000;0.6040;0.8059;
1117.2000;0.6032;0.8033;
1117.5000;0.5991;0.7879;
1117.8000;0.6048;0.7879;
1118.1000;0.6048;0.7905;
1118.4000;0.6032;0.7776;
1118.7000;0.6040;0.7853;
1119.0000;0.6056;0.7853;
1119.3000;0.6048;0.7879;
1119.6000;0.6032;0.7982;
1119.9000;0.6056;0.8059;
1120.2000;0.6064;0.8059;
1120.5000;0.6056;0.8084;
1120.8000;0.6056;0.8110;
1121.1000;0.6072;0.8110;
1121.4000;0.6048;0.8033;
1121.7000;0.6048;0.8059;
1122.0000;0.6064;0.8059;
1122.3000;0.6064;0.8213;
1122.6000;0.6048;0.8238;
1122.9000;0.6056;0.8341;
1123.2000;0.6040;0.8290;
1123.5000;0.6048;0.8290;
1123.8000;0.6072;0.8290;
1124.1000;0.6056;0.8264;
1124.4000;0.6048;0.8161;
1124.7000;0.6056;0.8136;
1125.0000;0.6064;0.8136;
1125.3000;0.6064;0.8290;
1125.6000;0.6056;0.8367;
1125.9000;0.6032;0.8213;
1126.2000;0.6056;0.8264;
1126.5000;0.6024;0.8187;
1126.8000;0.6040;0.8187;
1127.1000;0.6032;0.8161;
1127.4000;0.6089;0.8290;
1127.7000;0.6048;0.8110;
1128.0000;0.6040;0.8187;
1128.3000;0.6048;0.8213;
1128.6000;0.6072;0.8161;
1128.9000;0.6015;0.8059;
1129.2000;0.6024;0.8084;
1129.5000;0.6007;0.8033;
1129.8000;0.6056;0.8136;
1130.1000;0.6056;0.8110;
1130.4000;0.6048;0.8136;
1130.7000;0.6048;0.8084;
1131.0000;0.6040;0.8059;
1131.3000;0.6064;0.8084;
1131.6000;0.6048;0.7982;
1131.9000;0.6015;0.7930;
1132.2000;0.6040;0.7982;
1132.5000;0.6040;0.8033;
1132.8000;0.6048;0.8059;
1133.1000;0.6048;0.8084;
1133.4000;0.6072;0.8059;
1133.7000;0.6048;0.7982;
1134.0000;0.6081;0.8110;
1134.3000;0.6056;0.8136;
1134.6000;0.6072;0.8110;
1134.9000;0.6113;0.8187;
1135.2000;0.6064;0.8059;
1135.5000;0.6032;0.7905;
1135.8000;0.6048;0.7956;
1136.1000;0.6048;0.7930;
1136.4000;0.6064;0.7930;
1136.7000;0.6056;0.7982;
1137.0000;0.6040;0.7930;
1137.3000;0.6040;0.7905;
1137.6000;0.6056;0.7930;
1137.9000;0.6064;0.7930;
1138.2000;0.6032;0.7982;
1138.5000;0.6048;0.8033;
1138.8000;0.6056;0.7956;
1139.1000;0.6056;0.8007;
1139.4000;0.6064;0.8161;
1139.7000;0.6040;0.8110;
1140.0000;0.6056;0.8110;
1140.3000;0.6048;0.8084;
1140.6000;0.6032;0.8059;
1140.9000;0.6032;0.7956;
1141.2000;0.6048;0.7905;
1141.5000;0.6056;0.7982;
1141.8000;0.6089;0.8084;
1142.1000;0.6048;0.7982;
1142.4000;0.6040;0.7956;
1142.7000;0.6032;0.7956;
1143.0000;0.6040;0.8033;
1143.3000;0.6048;0.8084;
1143.6000;0.6097;0.8213;
1143.9000;0.6056;0.8084;
1144.2000;0.6064;0.8059;
1144.5000;0.6056;0.8033;
1144.8000;0.6056;0.8007;
1145.1000;0.6056;0.8084;
1145.4000;0.6040;0.7956;
1145.7000;0.6072;0.8059;
1146.0000;0.6048;0.7905;
1146.3000;0.6048;0.7956;
1146.6000;0.6072;0.8084;
1146.9000;0.6048;0.8084;
1147.2000;0.6032;0.8084;
1147.5000;0.5975;0.7930;
1147.8000;0.6121;0.8341;
1148.1000;0.6048;0.8033;
1148.4000;0.6056;0.8007;
1148.7000;0.5991;0.7905;
1149.0000;0.6032;0.7982;
1149.3000;0.6056;0.8084;
1149.6000;0.6056;0.8033;
1149.9000;0.6056;0.8033;
1150.2000;0.6056;0.7956;
1150.5000;0.6032;0.7879;
1150.8000;0.6024;0.7828;
1151.1000;0.6040;0.7751;
1151.4000;0.6040;0.7776;
1151.7000;0.6040;0.7751;
1152.0000;0.6056;0.7776;
1152.3000;0.6056;0.7725;
1152.6000;0.6064;0.7879;
1152.9000;0.6064;0.7905;
1153.2000;0.6048;0.7879;
1153.5000;0.6064;0.7956;
1153.8000;0.6048;0.7982;
1154.1000;0.6040;0.8110;
1154.4000;0.6081;0.8110;
1154.7000;0.6048;0.8007;
1155.0000;0.6040;0.8136;
1155.3000;0.6048;0.8161;
1155.6000;0.6056;0.8213;
1155.9000;0.6097;0.8238;
1156.2000;0.6040;0.8007;
1156.5000;0.6032;0.8007;
1156.8000;0.6032;0.8059;
1157.1000;0.6048;0.8007;
1157.4000;0.5991;0.7828;
1157.7000;0.6032;0.7853;
1158.0000;0.6056;0.7905;
1158.3000;0.6048;0.7956;
1158.6000;0.6040;0.8033;
1158.9000;0.5991;0.7853;
1159.2000;0.6048;0.8007;
1159.5000;0.6081;0.8033;
1159.8000;0.6032;0.7956;
1160.1000;0.6048;0.8033;
1160.4000;0.6032;0.7930;
1160.7000;0.6072;0.7982;
1161.0000;0.6072;0.7982;
1161.3000;0.6064;0.8007;
1161.6000;0.6056;0.7905;
1161.9000;0.6072;0.7802;
1162.2000;0.6064;0.7853;
1162.5000;0.6040;0.7930;
1162.8000;0.6048;0.7879;
1163.1000;0.6081;0.7930;
1163.4000;0.6072;0.8033;
1163.7000;0.6129;0.8059;
1164.0000;0.6040;0.7751;
1164.3000;0.6048;0.7751;
1164.6000;0.6072;0.7828;
1164.9000;0.6113;0.7982;
1165.2000;0.6056;0.7956;
1165.5000;0.6072;0.8007;
1165.8000;0.6064;0.7930;
1166.1000;0.6072;0.7956;
1166.4000;0.6048;0.7879;
1166.7000;0.6040;0.7905;
1167.0000;0.6048;0.7982;
1167.3000;0.6040;0.7956;
1167.6000;0.6032;0.7879;
1167.9000;0.6040;0.7879;
1168.2000;0.6024;0.7905;
1168.5000;0.6162;0.8238;
1168.8000;0.6064;0.8033;
1169.1000;0.6064;0.7930;
1169.4000;0.6072;0.7982;
1169.7000;0.6081;0.7956;
1170.0000;0.6056;0.7905;
1170.3000;0.6040;0.7751;
1170.6000;0.6056;0.7699;
1170.9000;0.6064;0.7597;
1171.2000;0.6024;0.7443;
1171.5000;0.6064;0.7545;
1171.8000;0.6040;0.7597;
1172.1000;0.6048;0.7725;
1172.4000;0.6072;0.7699;
1172.7000;0.6089;0.7699;
1173.0000;0.6056;0.7597;
1173.3000;0.6056;0.7648;
1173.6000;0.6048;0.7648;
1173.9000;0.6113;0.7853;
1174.2000;0.6064;0.7776;
1174.5000;0.6048;0.7828;
1174.8000;0.6064;0.7905;
1175.1000;0.6056;0.7853;
1175.4000;0.6056;0.7982;
1175.7000;0.6056;0.8059;
1176.0000;0.6056;0.8136;
1176.3000;0.6048;0.8084;
1176.6000;0.6040;0.8059;
1176.9000;0.6040;0.8033;
1177.2000;0.6056;0.8059;
1177.5000;0.6048;0.7956;
1177.8000;0.6032;0.7956;
1178.1000;0.6040;0.7956;
1178.4000;0.6024;0.7879;
1178.7000;0.6024;0.7930;
1179.0000;0.6048;0.7956;
1179.3000;0.6056;0.7930;
1179.6000;0.6056;0.7956;
1179.9000;0.6121;0.8264;
1180.2000;0.6089;0.8187;
1180.5000;0.6105;0.8315;
1180.8000;0.6048;0.8187;
1181.1000;0.6056;0.8238;
1181.4000;0.6048;0.8187;
1181.7000;0.6040;0.8187;
1182.0000;0.6040;0.8238;
1182.3000;0.6072;0.8161;
1182.6000;0.6072;0.8161;
1182.9000;0.6056;0.8136;
1183.2000;0.6048;0.8110;
1183.5000;0.6081;0.8187;
1183.8000;0.6056;0.8213;
1184.1000;0.6064;0.8213;
1184.4000;0.5999;0.8007;
1184.7000;0.6105;0.8264;
1185.0000;0.6032;0.8110;
1185.3000;0.6064;0.8136;
1185.6000;0.6048;0.8059;
1185.9000;0.6056;0.8059;
1186.2000;0.6081;0.8187;
1186.5000;0.6056;0.8213;
1186.8000;0.6048;0.8238;
1187.1000;0.6015;0.8187;
1187.4000;0.6048;0.8238;
1187.7000;0.6064;0.8213;
1188.0000;0.6072;0.8238;
1188.3000;0.6072;0.8315;
1188.6000;0.6089;0.8367;
1188.9000;0.6081;0.8367;
1189.2000;0.6072;0.8367;
1189.5000;0.6072;0.8392;
1189.8000;0.6015;0.8187;
1190.1000;0.6105;0.8469;
1190.4000;0.6105;0.8418;
1190.7000;0.6015;0.8213;
1191.0000;0.6015;0.8136;
1191.3000;0.6048;0.8187;
1191.6000;0.6097;0.8264;
1191.9000;0.6064;0.8136;
1192.2000;0.6032;0.8161;
1192.5000;0.6064;0.8315;
1192.8000;0.6048;0.8290;
1193.1000;0.6040;0.8290;
1193.4000;0.6097;0.8444;
1193.7000;0.6048;0.8238;
1194.0000;0.6048;0.8264;
1194.3000;0.6048;0.8213;
1194.6000;0.6064;0.8238;
1194.9000;0.6072;0.8290;
1195.2000;0.6081;0.8315;
1195.5000;0.6064;0.8238;
1195.8000;0.6056;0.8341;
1196.1000;0.6056;0.8444;
1196.4000;0.6064;0.8597;
1196.7000;0.6064;0.8597;
1197.0000;0.6056;0.8597;
1197.3000;0.6064;0.8597;
1197.6000;0.6056;0.8572;
1197.9000;0.6024;0.8469;
1198.2000;0.6097;0.8546;
1198.5000;0.6040;0.8444;
1198.8000;0.6048;0.8367;
1199.1000;0.6081;0.8392;
1199.4000;0.6056;0.8315;
1199.7000;0.6048;0.8290;
1200.0000;0.6089;0.8341;
1200.3000;0.6072;0.8367;
1200.6000;0.6064;0.8444;
1200.9000;0.6040;0.8444;
1201.2000;0.6064;0.8469;
1201.5000;0.6081;0.8444;
1201.8000;0.6064;0.8367;
1202.1000;0.6064;0.8418;
1202.4000;0.6040;0.8367;
1202.7000;0.5999;0.8238;
1203.0000;0.6089;0.8392;
1203.3000;0.6081;0.8264;
1203.6000;0.6048;0.8213;
1203.9000;0.6032;0.8136;
1204.2000;0.6048;0.8059;
1204.5000;0.6032;0.8084;
1204.8000;0.6056;0.8161;
1205.1000;0.6032;0.8084;
1205.4000;0.6064;0.8136;
1205.7000;0.6097;0.8213;
1206.0000;0.6072;0.8136;
1206.3000;0.6064;0.8136;
1206.6000;0.6138;0.8444;
1206.9000;0.6072;0.8264;
1207.2000;0.6064;0.8161;
1207.5000;0.5958;0.7930;
1207.8000;0.6040;0.8238;
1208.1000;0.6048;0.8315;
1208.4000;0.6113;0.8520;
1208.7000;0.6040;0.8367;
1209.0000;0.6048;0.8392;
1209.3000;0.6105;0.8520;
1209.6000;0.6072;0.8469;
1209.9000;0.6056;0.8444;
1210.2000;0.6056;0.8469;
1210.5000;0.6081;0.8495;
1210.8000;0.6072;0.8469;
1211.1000;0.6064;0.8469;
1211.4000;0.6081;0.8520;
1211.7000;0.6072;0.8520;
1212.0000;0.6064;0.8495;
1212.3000;0.6048;0.8418;
1212.6000;0.6064;0.8469;
1212.9000;0.6056;0.8469;
1213.2000;0.6007;0.8341;
1213.5000;0.6097;0.8546;
1213.8000;0.6105;0.8597;
1214.1000;0.6040;0.8392;
1214.4000;0.6007;0.8444;
1214.7000;0.6040;0.8469;
1215.0000;0.6105;0.8546;
1215.3000;0.6056;0.8392;
1215.6000;0.6089;0.8546;
1215.9000;0.6048;0.8392;
1216.2000;0.6048;0.8341;
1216.5000;0.6048;0.8264;
1216.8000;0.6064;0.8238;
1217.1000;0.6072;0.8213;
1217.4000;0.6072;0.8213;
1217.7000;0.6048;0.8161;
1218.0000;0.6072;0.8187;
1218.3000;0.6056;0.8213;
1218.6000;0.6048;0.8238;
1218.9000;0.6056;0.8290;
1219.2000;0.6064;0.8392;
1219.5000;0.6064;0.8495;
1219.8000;0.6072;0.8520;
1220.1000;0.6040;0.8367;
1220.4000;0.6056;0.8367;
1220.7000;0.6015;0.8187;
1221.0000;0.6064;0.8290;
1221.3000;0.6056;0.8315;
1221.6000;0.6064;0.8213;
1221.9000;0.6056;0.8136;
1222.2000;0.6064;0.8161;
1222.5000;0.6056;0.8161;
1222.8000;0.6024;0.8136;
1223.1000;0.6056;0.8290;
1223.4000;0.6097;0.8367;
1223.7000;0.6015;0.8213;
1224.0000;0.6048;0.8264;
1224.3000;0.6040;0.8213;
1224.6000;0.6048;0.8187;
1224.9000;0.6064;0.8238;
1225.2000;0.6048;0.8187;
1225.5000;0.6056;0.8238;
1225.8000;0.6048;0.8161;
1226.1000;0.6064;0.8264;
1226.4000;0.6064;0.8290;
1226.7000;0.6048;0.8264;
1227.0000;0.6064;0.8290;
1227.3000;0.6064;0.8290;
1227.6000;0.6056;0.8367;
1227.9000;0.6064;0.8341;
1228.2000;0.6048;0.8238;
1228.5000;0.6056;0.8315;
1228.8000;0.6040;0.8238;
1229.1000;0.6032;0.8161;
1229.4000;0.6048;0.8110;
1229.7000;0.6056;0.8110;
1230.0000;0.6007;0.7982;
1230.3000;0.6064;0.8084;
1230.6000;0.6064;0.8110;
1230.9000;0.6089;0.8161;
1231.2000;0.6081;0.8161;
1231.5000;0.6064;0.8084;
1231.8000;0.6081;0.8136;
1232.1000;0.6072;0.8264;
1232.4000;0.6097;0.8520;
1232.7000;0.6056;0.8367;
1233.0000;0.6048;0.8290;
1233.3000;0.6056;0.8238;
1233.6000;0.6040;0.8187;
1233.9000;0.6040;0.8238;
1234.2000;0.6056;0.8315;
1234.5000;0.6089;0.8315;
1234.8000;0.6048;0.8187;
1235.1000;0.6048;0.8136;
1235.4000;0.6072;0.8290;
1235.7000;0.6072;0.8315;
1236.0000;0.6072;0.8290;
1236.3000;0.6048;0.8315;
1236.6000;0.6048;0.8495;
1236.9000;0.6064;0.8546;
1237.2000;0.6072;0.8546;
1237.5000;0.6072;0.8597;
1237.8000;0.6072;0.8546;
1238.1000;0.6064;0.8520;
1238.4000;0.6064;0.8418;
1238.7000;0.6064;0.8495;
1239.0000;0.6048;0.8546;
1239.3000;0.6056;0.8649;
1239.6000;0.6056;0.8597;
1239.9000;0.6081;0.8674;
1240.2000;0.6048;0.8623;
1240.5000;0.6040;0.8572;
1240.8000;0.6040;0.8546;
1241.1000;0.6064;0.8520;
1241.4000;0.6056;0.8392;
1241.7000;0.6040;0.8315;
1242.0000;0.6072;0.8341;
1242.3000;0.6072;0.8341;
1242.6000;0.6064;0.8418;
1242.9000;0.6056;0.8367;
1243.2000;0.6064;0.8315;
1243.5000;0.6072;0.8444;
1243.8000;0.6048;0.8469;
1244.1000;0.6056;0.8495;
1244.4000;0.6048;0.8418;
1244.7000;0.5967;0.8213;
1245.0000;0.6048;0.8392;
1245.3000;0.6048;0.8290;
1245.6000;0.6024;0.8238;
1245.9000;0.6040;0.8290;
1246.2000;0.6056;0.8367;
1246.5000;0.6064;0.8367;
1246.8000;0.6040;0.8238;
1247.1000;0.6040;0.8264;
1247.4000;0.6056;0.8315;
1247.7000;0.6040;0.8290;
1248.0000;0.6064;0.8392;
1248.3000;0.6056;0.8392;
1248.6000;0.6040;0.8418;
1248.9000;0.6064;0.8520;
1249.2000;0.6048;0.8367;
1249.5000;0.6056;0.8290;
1249.8000;0.6064;0.8367;
1250.1000;0.6040;0.8264;
1250.4000;0.6064;0.8290;
1250.7000;0.6048;0.8290;
1251.0000;0.6056;0.8238;
1251.3000;0.6064;0.8238;
1251.6000;0.6064;0.8290;
1251.9000;0.6048;0.8392;
1252.2000;0.6064;0.8469;
1252.5000;0.6064;0.8418;
1252.8000;0.6072;0.8264;
1253.1000;0.6048;0.8187;
1253.4000;0.6056;0.8110;
1253.7000;0.6048;0.8084;
1254.0000;0.6064;0.8110;
1254.3000;0.6064;0.8007;
1254.6000;0.6024;0.7956;
1254.9000;0.6056;0.8161;
1255.2000;0.6072;0.8213;
1255.5000;0.6040;0.8161;
1255.8000;0.6056;0.8136;
1256.1000;0.6048;0.8213;
1256.4000;0.6089;0.8367;
1256.7000;0.6064;0.8264;
1257.0000;0.6072;0.8264;
1257.3000;0.6056;0.8341;
1257.6000;0.6072;0.8367;
1257.9000;0.6064;0.8341;
1258.2000;0.6064;0.8341;
1258.5000;0.6056;0.8367;
1258.8000;0.6064;0.8444;
1259.1000;0.6064;0.8341;
1259.4000;0.6048;0.8290;
1259.7000;0.6056;0.8341;
1260.0000;0.6064;0.8392;
1260.3000;0.6040;0.8238;
1260.6000;0.5991;0.8084;
1260.9000;0.6064;0.8187;
1261.2000;0.6064;0.8187;
1261.5000;0.6064;0.8238;
1261.8000;0.6072;0.8290;
1262.1000;0.6056;0.8136;
1262.4000;0.6056;0.8136;
1262.7000;0.6064;0.8238;
1263.0000;0.6056;0.8187;
1263.3000;0.6081;0.8213;
1263.6000;0.5893;0.7699;
1263.9000;0.6056;0.8059;
1264.2000;0.6072;0.8084;
1264.5000;0.6064;0.8161;
1264.8000;0.6056;0.8213;
1265.1000;0.6056;0.8187;
1265.4000;0.6064;0.8213;
1265.7000;0.6064;0.8161;
1266.0000;0.6048;0.8187;
1266.3000;0.6056;0.8213;
1266.6000;0.6056;0.8264;
1266.9000;0.6064;0.8187;
1267.2000;0.6056;0.8110;
1267.5000;0.6048;0.8084;
1267.8000;0.6056;0.7982;
1268.1000;0.6056;0.7956;
1268.4000;0.6064;0.7982;
1268.7000;0.6097;0.8136;
1269.0000;0.6056;0.8161;
1269.3000;0.6072;0.8290;
1269.6000;0.6048;0.8238;
1269.9000;0.6072;0.8315;
1270.2000;0.6064;0.8264;
1270.5000;0.6072;0.8341;
1270.8000;0.6048;0.8213;
1271.1000;0.6056;0.8290;
1271.4000;0.6040;0.8238;
1271.7000;0.6064;0.8315;
1272.0000;0.6048;0.8238;
1272.3000;0.6072;0.8341;
1272.6000;0.6056;0.8315;
1272.9000;0.6064;0.8367;
1273.2000;0.6081;0.8444;
1273.5000;0.6048;0.8392;
1273.8000;0.6072;0.8341;
1274.1000;0.6048;0.8213;
1274.4000;0.6032;0.8110;
1274.7000;0.6040;0.8110;
1275.0000;0.6056;0.8110;
1275.3000;0.6081;0.8161;
1275.6000;0.6064;0.8187;
1275.9000;0.6056;0.8136;
1276.2000;0.6040;0.8110;
1276.5000;0.6040;0.8187;
1276.8000;0.6105;0.8367;
1277.1000;0.6056;0.8341;
1277.4000;0.6072;0.8264;
1277.7000;0.6064;0.8315;
1278.0000;0.6015;0.8187;
1278.3000;0.5983;0.8136;
1278.6000;0.6048;0.8315;
1278.9000;0.6056;0.8238;
1279.2000;0.6048;0.8161;
1279.5000;0.6032;0.8033;
1279.8000;0.6064;0.8187;
1280.1000;0.6048;0.8238;
1280.4000;0.6064;0.8187;
1280.7000;0.6081;0.8187;
1281.0000;0.6089;0.8238;
1281.3000;0.6007;0.8007;
1281.6000;0.6089;0.8161;
1281.9000;0.6129;0.8213;
1282.2000;0.6056;0.8084;
1282.5000;0.6056;0.8084;
1282.8000;0.6064;0.8161;
1283.1000;0.6056;0.8110;
1283.4000;0.6064;0.8213;
1283.7000;0.6032;0.8136;
1284.0000;0.6056;0.8213;
1284.3000;0.6056;0.8213;
1284.6000;0.6056;0.8238;
1284.9000;0.6056;0.8213;
1285.2000;0.6040;0.8136;
1285.5000;0.6064;0.8136;
1285.8000;0.6064;0.8264;
1286.1000;0.6056;0.8341;
1286.4000;0.6056;0.8315;
1286.7000;0.6064;0.8315;
1287.0000;0.6064;0.8264;
1287.3000;0.6056;0.8187;
1287.6000;0.6040;0.8110;
1287.9000;0.6064;0.8136;
1288.2000;0.6040;0.7956;
1288.5000;0.6064;0.8033;
1288.8000;0.6040;0.7930;
1289.1000;0.6056;0.7930;
1289.4000;0.5999;0.7802;
1289.7000;0.6064;0.7982;
1290.0000;0.6064;0.7956;
1290.3000;0.6056;0.8007;
1290.6000;0.6072;0.8007;
1290.9000;0.6105;0.8110;
1291.2000;0.6056;0.7905;
1291.5000;0.6056;0.7905;
1291.8000;0.6138;0.8187;
1292.1000;0.6064;0.7982;
1292.4000;0.6081;0.8110;
1292.7000;0.6048;0.8136;
1293.0000;0.6072;0.8136;
1293.3000;0.6056;0.8136;
1293.6000;0.6064;0.8110;
1293.9000;0.6081;0.8238;
1294.2000;0.6048;0.8136;
1294.5000;0.6064;0.8290;
1294.8000;0.6064;0.8264;
1295.1000;0.6040;0.8187;
1295.4000;0.6064;0.8213;
1295.7000;0.6064;0.8161;
1296.0000;0.6056;0.8213;
1296.3000;0.6048;0.8136;
1296.6000;0.6048;0.8264;
1296.9000;0.6024;0.8187;
1297.2000;0.6048;0.8315;
1297.5000;0.6089;0.8418;
1297.8000;0.6064;0.8341;
1298.1000;0.6056;0.8367;
1298.4000;0.6064;0.8392;
1298.7000;0.6032;0.8264;
1299.0000;0.5991;0.8161;
1299.3000;0.6048;0.8238;
1299.6000;0.6072;0.8315;
1299.9000;0.6064;0.8264;
1300.2000;0.6072;0.8264;
1300.5000;0.6048;0.8238;
1300.8000;0.6072;0.8238;
1301.1000;0.6040;0.8110;
1301.4000;0.6048;0.8110;
1301.7000;0.6072;0.8059;
1302.0000;0.6048;0.8059;
1302.3000;0.6097;0.8238;
1302.6000;0.6064;0.8238;
1302.9000;0.6072;0.8238;
1303.2000;0.6048;0.8213;
1303.5000;0.6040;0.8264;
1303.8000;0.6048;0.8264;
1304.1000;0.6072;0.8290;
1304.4000;0.6048;0.8264;
1304.7000;0.6048;0.8264;
1305.0000;0.6056;0.8264;
1305.3000;0.6072;0.8264;
1305.6000;0.6097;0.8341;
1305.9000;0.6089;0.8238;
1306.2000;0.6048;0.8161;
1306.5000;0.6040;0.8136;
1306.8000;0.6040;0.8238;
1307.1000;0.6048;0.8315;
1307.4000;0.6015;0.8290;
1307.7000;0.6064;0.8444;
1308.0000;0.6064;0.8418;
1308.3000;0.6056;0.8315;
1308.6000;0.6072;0.8367;
1308.9000;0.6121;0.8392;
1309.2000;0.6072;0.8290;
1309.5000;0.6048;0.8290;
1309.8000;0.6032;0.8213;
1310.1000;0.6081;0.8418;
1310.4000;0.6040;0.8290;
1310.7000;0.6056;0.8213;
1311.0000;0.6072;0.8290;
1311.3000;0.6064;0.8264;
1311.6000;0.6056;0.8341;
1311.9000;0.6040;0.8315;
1312.2000;0.6040;0.8341;
1312.5000;0.6064;0.8392;
1312.8000;0.6089;0.8572;
1313.1000;0.6064;0.8572;
1313.4000;0.6064;0.8572;
1313.7000;0.6056;0.8469;
1314.0000;0.6089;0.8444;
1314.3000;0.6048;0.8418;
1314.6000;0.6064;0.8418;
1314.9000;0.6072;0.8392;
1315.2000;0.6048;0.8315;
1315.5000;0.6056;0.8290;
1315.8000;0.6048;0.8341;
1316.1000;0.6064;0.8367;
1316.4000;0.6056;0.8444;
1316.7000;0.6048;0.8418;
1317.0000;0.6024;0.8341;
1317.3000;0.6048;0.8367;
1317.6000;0.6040;0.8367;
1317.9000;0.6072;0.8444;
1318.2000;0.6064;0.8392;
1318.5000;0.6048;0.8290;
1318.8000;0.6040;0.8290;
1319.1000;0.6072;0.8392;
1319.4000;0.6024;0.8290;
1319.7000;0.6113;0.8418;
1320.0000;0.6056;0.8161;
1320.3000;0.6064;0.8161;
1320.6000;0.6113;0.8367;
1320.9000;0.5999;0.8161;
1321.2000;0.6056;0.8315;
1321.5000;0.6064;0.8315;
1321.8000;0.6072;0.8315;
1322.1000;0.6048;0.8290;
1322.4000;0.6072;0.8315;
1322.7000;0.6056;0.8367;
1323.0000;0.6064;0.8469;
1323.3000;0.6056;0.8367;
1323.6000;0.6040;0.8341;
1323.9000;0.6072;0.8367;
1324.2000;0.6056;0.8341;
1324.5000;0.6072;0.8469;
1324.8000;0.6064;0.8469;
1325.1000;0.6072;0.8495;
1325.4000;0.6072;0.8367;
1325.7000;0.6064;0.8341;
1326.0000;0.6015;0.8315;
1326.3000;0.6048;0.8418;
1326.6000;0.6040;0.8469;
1326.9000;0.6064;0.8444;
1327.2000;0.6064;0.8520;
1327.5000;0.6129;0.8726;
1327.8000;0.6146;0.8623;
1328.1000;0.6081;0.8495;
1328.4000;0.6056;0.8444;
1328.7000;0.6105;0.8546;
1329.0000;0.6064;0.8418;
1329.3000;0.6072;0.8572;
1329.6000;0.6056;0.8572;
1329.9000;0.6081;0.8572;
1330.2000;0.6081;0.8597;
1330.5000;0.6056;0.8597;
1330.8000;0.6040;0.8546;
1331.1000;0.6032;0.8546;
1331.4000;0.6056;0.8572;
1331.7000;0.6072;0.8597;
1332.0000;0.6056;0.8469;
1332.3000;0.6048;0.8392;
1332.6000;0.6048;0.8367;
1332.9000;0.6064;0.8392;
1333.2000;0.6048;0.8392;
1333.5000;0.6040;0.8418;
1333.8000;0.6072;0.8367;
1334.1000;0.6056;0.8367;
1334.4000;0.6072;0.8469;
1334.7000;0.6089;0.8495;
1335.0000;0.6064;0.8418;
1335.3000;0.6072;0.8367;
1335.6000;0.6064;0.8341;
1335.9000;0.6064;0.8290;
1336.2000;0.6072;0.8341;
1336.5000;0.6081;0.8495;
1336.8000;0.6072;0.8469;
1337.1000;0.6072;0.8495;
1337.4000;0.6056;0.8495;
1337.7000;0.5975;0.8136;
1338.0000;0.6056;0.8290;
1338.3000;0.6064;0.8418;
1338.6000;0.6032;0.8315;
1338.9000;0.5999;0.8213;
1339.2000;0.6056;0.8315;
1339.5000;0.6072;0.8367;
1339.8000;0.6056;0.8315;
1340.1000;0.6056;0.8238;
1340.4000;0.6040;0.8213;
1340.7000;0.6048;0.8264;
1341.0000;0.6040;0.8290;
1341.3000;0.6056;0.8418;
1341.6000;0.6056;0.8392;
1341.9000;0.6081;0.8392;
1342.2000;0.6048;0.8444;
1342.5000;0.6064;0.8546;
1342.8000;0.6032;0.8367;
1343.1000;0.6040;0.8392;
1343.4000;0.6072;0.8520;
1343.7000;0.6056;0.8495;
1344.0000;0.6056;0.8495;
1344.3000;0.6064;0.8597;
1344.6000;0.6072;0.8597;
1344.9000;0.6032;0.8520;
1345.2000;0.6024;0.8444;
1345.5000;0.6064;0.8649;
1345.8000;0.6048;0.8597;
1346.1000;0.6040;0.8520;
1346.4000;0.6048;0.8469;
1346.7000;0.6105;0.8495;
1347.0000;0.5942;0.8161;
1347.3000;0.6105;0.8546;
1347.6000;0.6032;0.8315;
1347.9000;0.6048;0.8238;
1348.2000;0.6121;0.8495;
1348.5000;0.6056;0.8341;
1348.8000;0.6056;0.8392;
1349.1000;0.6072;0.8341;
1349.4000;0.6064;0.8315;
1349.7000;0.6072;0.8418;
1350.0000;0.6056;0.8469;
1350.3000;0.6040;0.8469;
1350.6000;0.6081;0.8520;
1350.9000;0.6064;0.8444;
1351.2000;0.6064;0.8495;
1351.5000;0.6056;0.8392;
1351.8000;0.6056;0.8520;
1352.1000;0.6056;0.8520;
1352.4000;0.6072;0.8546;
1352.7000;0.6015;0.8444;
1353.0000;0.6097;0.8520;
1353.3000;0.6056;0.8469;
1353.6000;0.6064;0.8495;
1353.9000;0.6048;0.8444;
1354.2000;0.6056;0.8418;
1354.5000;0.6081;0.8444;
1354.8000;0.6170;0.8726;
1355.1000;0.6064;0.8495;
1355.4000;0.6056;0.8444;
1355.7000;0.6064;0.8444;
1356.0000;0.6072;0.8520;
1356.3000;0.6056;0.8392;
1356.6000;0.6056;0.8238;
1356.9000;0.6040;0.8264;
1357.2000;0.6072;0.8315;
1357.5000;0.6072;0.8290;
1357.8000;0.6081;0.8290;
1358.1000;0.6072;0.8392;
1358.4000;0.6048;0.8341;
1358.7000;0.6048;0.8341;
1359.0000;0.6040;0.8264;
1359.3000;0.6056;0.8290;
1359.6000;0.6081;0.8367;
1359.9000;0.6064;0.8290;
1360.2000;0.6072;0.8290;
1360.5000;0.6081;0.8290;
1360.8000;0.5967;0.8007;
1361.1000;0.6072;0.8290;
1361.4000;0.6048;0.8290;
1361.7000;0.6072;0.8315;
1362.0000;0.6072;0.8315;
1362.3000;0.6072;0.8367;
1362.6000;0.6072;0.8444;
1362.9000;0.6113;0.8572;
1363.2000;0.6048;0.8315;
1363.5000;0.6089;0.8444;
1363.8000;0.6064;0.8444;
1364.1000;0.6064;0.8469;
1364.4000;0.6056;0.8469;
1364.7000;0.6056;0.8418;
1365.0000;0.6056;0.8392;
1365.3000;0.6064;0.8418;
1365.6000;0.6064;0.8520;
1365.9000;0.6072;0.8520;
1366.2000;0.6081;0.8572;
1366.5000;0.6064;0.8546;
1366.8000;0.6056;0.8520;
1367.1000;0.6056;0.8469;
1367.4000;0.6064;0.8418;
1367.7000;0.6064;0.8315;
1368.0000;0.6048;0.8290;
1368.3000;0.6048;0.8315;
1368.6000;0.6040;0.8238;
1368.9000;0.6129;0.8546;
1369.2000;0.5999;0.8238;
1369.5000;0.5991;0.8367;
1369.8000;0.6064;0.8597;
1370.1000;0.6072;0.8649;
1370.4000;0.6072;0.8700;
1370.7000;0.6056;0.8597;
1371.0000;0.6040;0.8469;
1371.3000;0.6015;0.8392;
1371.6000;0.6056;0.8367;
1371.9000;0.6040;0.8418;
1372.2000;0.6056;0.8341;
1372.5000;0.6056;0.8367;
1372.8000;0.6040;0.8187;
1373.1000;0.6040;0.8161;
1373.4000;0.6015;0.8084;
1373.7000;0.6056;0.8238;
1374.0000;0.6056;0.8315;
1374.3000;0.6040;0.8290;
1374.6000;0.6081;0.8315;
1374.9000;0.6064;0.8290;
1375.2000;0.6072;0.8264;
1375.5000;0.6056;0.8264;
1375.8000;0.6064;0.8290;
1376.1000;0.6056;0.8187;
1376.4000;0.6081;0.8315;
1376.7000;0.6048;0.8315;
1377.0000;0.6048;0.8290;
1377.3000;0.6056;0.8290;
1377.6000;0.6170;0.8597;
1377.9000;0.6072;0.8392;
1378.2000;0.6072;0.8315;
1378.5000;0.6064;0.8290;
1378.8000;0.6048;0.8264;
1379.1000;0.6056;0.8367;
1379.4000;0.6072;0.8392;
1379.7000;0.6015;0.8213;
1380.0000;0.6056;0.8341;
1380.3000;0.6081;0.8418;
1380.6000;0.6072;0.8315;
1380.9000;0.6040;0.8315;
1381.2000;0.6064;0.8315;
1381.5000;0.6048;0.8213;
1381.8000;0.6064;0.8290;
1382.1000;0.6048;0.8315;
1382.4000;0.6072;0.8341;
1382.7000;0.6097;0.8444;
1383.0000;0.6056;0.8418;
1383.3000;0.6064;0.8469;
1383.6000;0.6048;0.8495;
1383.9000;0.6040;0.8444;
1384.2000;0.6048;0.8392;
1384.5000;0.6064;0.8392;
1384.8000;0.6040;0.8392;
1385.1000;0.6056;0.8495;
1385.4000;0.6056;0.8495;
1385.7000;0.6048;0.8367;
1386.0000;0.6048;0.8315;
1386.3000;0.6064;0.8418;
1386.6000;0.6064;0.8315;
1386.9000;0.6032;0.8136;
1387.2000;0.6056;0.8136;
1387.5000;0.6056;0.8238;
1387.8000;0.6072;0.8290;
1388.1000;0.6048;0.8187;
1388.4000;0.6048;0.8187;
1388.7000;0.6056;0.8187;
1389.0000;0.6056;0.8264;
1389.3000;0.6064;0.8290;
1389.6000;0.6056;0.8213;
1389.9000;0.6064;0.8238;
1390.2000;0.6056;0.8290;
1390.5000;0.6040;0.8213;
1390.8000;0.6064;0.8290;
1391.1000;0.6056;0.8315;
1391.4000;0.6048;0.8187;
1391.7000;0.6064;0.8136;
1392.0000;0.6040;0.8033;
1392.3000;0.6048;0.8110;
1392.6000;0.6056;0.8059;
1392.9000;0.6015;0.7982;
1393.2000;0.6048;0.8084;
1393.5000;0.6056;0.8136;
1393.8000;0.6056;0.8161;
1394.1000;0.6064;0.8110;
1394.4000;0.6040;0.8161;
1394.7000;0.6048;0.8264;
1395.0000;0.6056;0.8290;
1395.3000;0.6064;0.8315;
1395.6000;0.6064;0.8264;
1395.9000;0.6089;0.8315;
1396.2000;0.6072;0.8341;
1396.5000;0.5999;0.8136;
1396.8000;0.6064;0.8238;
1397.1000;0.6048;0.8187;
1397.4000;0.6048;0.8136;
1397.7000;0.6072;0.8161;
1398.0000;0.6048;0.7982;
1398.3000;0.6048;0.7905;
1398.6000;0.6048;0.7828;
1398.9000;0.5975;0.7622;
1399.2000;0.6024;0.7802;
1399.5000;0.6048;0.7905;
1399.8000;0.6048;0.8033;
