time/ms;Fluo/V;P700 deltaI/I x10³;
-199.8000;0.8287;0.8290;
-199.5000;0.8254;0.8213;
-199.2000;0.8319;0.8469;
-198.9000;0.8205;0.8033;
-198.6000;0.8287;0.8213;
-198.3000;0.8254;0.8264;
-198.0000;0.8246;0.8187;
-197.7000;0.8262;0.8315;
-197.4000;0.8270;0.8315;
-197.1000;0.8270;0.8264;
-196.8000;0.8246;0.8290;
-196.5000;0.8230;0.8264;
-196.2000;0.8278;0.8315;
-195.9000;0.8262;0.8264;
-195.6000;0.8262;0.8213;
-195.3000;0.8197;0.8059;
-195.0000;0.8287;0.8213;
-194.7000;0.8262;0.8084;
-194.4000;0.8278;0.8033;
-194.1000;0.8213;0.7853;
-193.8000;0.8278;0.7879;
-193.5000;0.8246;0.7751;
-193.2000;0.8246;0.7776;
-192.9000;0.8287;0.7879;
-192.6000;0.8270;0.7776;
-192.3000;0.8246;0.7725;
-192.0000;0.8246;0.7725;
-191.7000;0.8254;0.7751;
-191.4000;0.8246;0.7828;
-191.1000;0.8303;0.8059;
-190.8000;0.8270;0.7982;
-190.5000;0.8262;0.7905;
-190.2000;0.8278;0.7956;
-189.9000;0.8270;0.7905;
-189.6000;0.8311;0.8033;
-189.3000;0.8287;0.7905;
-189.0000;0.8262;0.7956;
-188.7000;0.8270;0.7982;
-188.4000;0.8278;0.8136;
-188.1000;0.8344;0.8418;
-187.8000;0.8238;0.8110;
-187.5000;0.8303;0.8187;
-187.2000;0.8246;0.8033;
-186.9000;0.8262;0.8084;
-186.6000;0.8278;0.8161;
-186.3000;0.8246;0.8007;
-186.0000;0.8262;0.8007;
-185.7000;0.8221;0.8007;
-185.4000;0.8278;0.8110;
-185.1000;0.8197;0.7853;
-184.8000;0.8262;0.8033;
-184.5000;0.8254;0.7956;
-184.2000;0.8278;0.7930;
-183.9000;0.8246;0.7828;
-183.6000;0.8270;0.7853;
-183.3000;0.8270;0.7879;
-183.0000;0.8278;0.7982;
-182.7000;0.8254;0.7982;
-182.4000;0.8254;0.7982;
-182.1000;0.8319;0.8161;
-181.8000;0.8278;0.8007;
-181.5000;0.8287;0.7905;
-181.2000;0.8262;0.7853;
-180.9000;0.8270;0.7930;
-180.6000;0.8278;0.8007;
-180.3000;0.8287;0.8007;
-180.0000;0.8278;0.7956;
-179.7000;0.8295;0.7982;
-179.4000;0.8278;0.7982;
-179.1000;0.8278;0.8033;
-178.8000;0.8246;0.8007;
-178.5000;0.8262;0.8059;
-178.2000;0.8295;0.8238;
-177.9000;0.8262;0.8136;
-177.6000;0.8246;0.8059;
-177.3000;0.8262;0.8059;
-177.0000;0.8278;0.8059;
-176.7000;0.8270;0.8084;
-176.4000;0.8238;0.8007;
-176.1000;0.8262;0.8161;
-175.8000;0.8278;0.8187;
-175.5000;0.8254;0.8136;
-175.2000;0.8295;0.8213;
-174.9000;0.8238;0.8059;
-174.6000;0.8278;0.8084;
-174.3000;0.8278;0.8136;
-174.0000;0.8246;0.8084;
-173.7000;0.8270;0.8110;
-173.4000;0.8156;0.7879;
-173.1000;0.8246;0.8084;
-172.8000;0.8270;0.8084;
-172.5000;0.8270;0.8110;
-172.2000;0.8221;0.7982;
-171.9000;0.8278;0.8084;
-171.6000;0.8246;0.8059;
-171.3000;0.8254;0.7956;
-171.0000;0.8246;0.7930;
-170.7000;0.8270;0.8033;
-170.4000;0.8327;0.8136;
-170.1000;0.8254;0.7982;
-169.8000;0.8270;0.8033;
-169.5000;0.8295;0.8213;
-169.2000;0.8221;0.8033;
-168.9000;0.8254;0.8033;
-168.6000;0.8262;0.8161;
-168.3000;0.8213;0.8084;
-168.0000;0.8221;0.8136;
-167.7000;0.8262;0.8187;
-167.4000;0.8287;0.8315;
-167.1000;0.8246;0.8187;
-166.8000;0.8246;0.8136;
-166.5000;0.8238;0.8136;
-166.2000;0.8262;0.8213;
-165.9000;0.8238;0.8213;
-165.6000;0.8246;0.8161;
-165.3000;0.8254;0.8136;
-165.0000;0.8287;0.8238;
-164.7000;0.8254;0.8238;
-164.4000;0.8254;0.8161;
-164.1000;0.8278;0.8213;
-163.8000;0.8262;0.8161;
-163.5000;0.8254;0.8136;
-163.2000;0.8254;0.8033;
-162.9000;0.8262;0.8136;
-162.6000;0.8262;0.8161;
-162.3000;0.8270;0.8264;
-162.0000;0.8246;0.8290;
-161.7000;0.8262;0.8367;
-161.4000;0.8254;0.8264;
-161.1000;0.8262;0.8238;
-160.8000;0.8262;0.8264;
-160.5000;0.8278;0.8367;
-160.2000;0.8262;0.8238;
-159.9000;0.8254;0.8213;
-159.6000;0.8270;0.8290;
-159.3000;0.8335;0.8418;
-159.0000;0.8278;0.8290;
-158.7000;0.8262;0.8290;
-158.4000;0.8287;0.8418;
-158.1000;0.8246;0.8290;
-157.8000;0.8254;0.8341;
-157.5000;0.8319;0.8546;
-157.2000;0.8238;0.8290;
-156.9000;0.8270;0.8418;
-156.6000;0.8278;0.8444;
-156.3000;0.8311;0.8469;
-156.0000;0.8164;0.8007;
-155.7000;0.8262;0.8238;
-155.4000;0.8262;0.8238;
-155.1000;0.8270;0.8264;
-154.8000;0.8287;0.8290;
-154.5000;0.8262;0.8341;
-154.2000;0.8287;0.8392;
-153.9000;0.8311;0.8444;
-153.6000;0.8278;0.8367;
-153.3000;0.8270;0.8315;
-153.0000;0.8254;0.8367;
-152.7000;0.8262;0.8392;
-152.4000;0.8278;0.8444;
-152.1000;0.8262;0.8290;
-151.8000;0.8270;0.8238;
-151.5000;0.8262;0.8315;
-151.2000;0.8278;0.8315;
-150.9000;0.8238;0.8238;
-150.6000;0.8262;0.8264;
-150.3000;0.8344;0.8444;
-150.0000;0.8262;0.8264;
-149.7000;0.8270;0.8264;
-149.4000;0.8270;0.8213;
-149.1000;0.8238;0.8264;
-148.8000;0.8254;0.8213;
-148.5000;0.8270;0.8187;
-148.2000;0.8262;0.8264;
-147.9000;0.8262;0.8315;
-147.6000;0.8254;0.8290;
-147.3000;0.8246;0.8290;
-147.0000;0.8246;0.8367;
-146.7000;0.8246;0.8392;
-146.4000;0.8287;0.8495;
-146.1000;0.8262;0.8392;
-145.8000;0.8246;0.8315;
-145.5000;0.8238;0.8264;
-145.2000;0.8262;0.8315;
-144.9000;0.8270;0.8290;
-144.6000;0.8270;0.8290;
-144.3000;0.8246;0.8136;
-144.0000;0.8278;0.8264;
-143.7000;0.8270;0.8187;
-143.4000;0.8270;0.8136;
-143.1000;0.8270;0.8136;
-142.8000;0.8262;0.8161;
-142.5000;0.8270;0.8187;
-142.2000;0.8278;0.8161;
-141.9000;0.8262;0.8136;
-141.6000;0.8254;0.8084;
-141.3000;0.8270;0.8033;
-141.0000;0.8270;0.8033;
-140.7000;0.8278;0.8136;
-140.4000;0.8270;0.8110;
-140.1000;0.8278;0.8136;
-139.8000;0.8287;0.8161;
-139.5000;0.8262;0.8136;
-139.2000;0.8262;0.8136;
-138.9000;0.8254;0.8084;
-138.6000;0.8278;0.8238;
-138.3000;0.8262;0.8290;
-138.0000;0.8278;0.8315;
-137.7000;0.8287;0.8315;
-137.4000;0.8278;0.8367;
-137.1000;0.8303;0.8341;
-136.8000;0.8230;0.8136;
-136.5000;0.8254;0.8187;
-136.2000;0.8197;0.7982;
-135.9000;0.8278;0.8084;
-135.6000;0.8254;0.7956;
-135.3000;0.8303;0.8033;
-135.0000;0.8262;0.8084;
-134.7000;0.8278;0.8136;
-134.4000;0.8287;0.8213;
-134.1000;0.8254;0.8110;
-133.8000;0.8270;0.8136;
-133.5000;0.8295;0.8264;
-133.2000;0.8254;0.8238;
-132.9000;0.8262;0.8290;
-132.6000;0.8262;0.8238;
-132.3000;0.8262;0.8290;
-132.0000;0.8230;0.8110;
-131.7000;0.8270;0.8264;
-131.4000;0.8270;0.8290;
-131.1000;0.8287;0.8264;
-130.8000;0.8278;0.8238;
-130.5000;0.8262;0.8264;
-130.2000;0.8270;0.8444;
-129.9000;0.8287;0.8418;
-129.6000;0.8303;0.8367;
-129.3000;0.8246;0.8341;
-129.0000;0.8278;0.8418;
-128.7000;0.8262;0.8392;
-128.4000;0.8287;0.8495;
-128.1000;0.8278;0.8469;
-127.8000;0.8287;0.8469;
-127.5000;0.8246;0.8341;
-127.2000;0.8278;0.8341;
-126.9000;0.8278;0.8290;
-126.6000;0.8278;0.8187;
-126.3000;0.8270;0.8161;
-126.0000;0.8278;0.8136;
-125.7000;0.8262;0.8136;
-125.4000;0.8278;0.8264;
-125.1000;0.8262;0.8315;
-124.8000;0.8278;0.8341;
-124.5000;0.8311;0.8315;
-124.2000;0.8254;0.8238;
-123.9000;0.8246;0.8264;
-123.6000;0.8254;0.8315;
-123.3000;0.8270;0.8392;
-123.0000;0.8262;0.8367;
-122.7000;0.8262;0.8315;
-122.4000;0.8238;0.8136;
-122.1000;0.8270;0.8187;
-121.8000;0.8270;0.8290;
-121.5000;0.8287;0.8469;
-121.2000;0.8238;0.8367;
-120.9000;0.8238;0.8418;
-120.6000;0.8254;0.8367;
-120.3000;0.8270;0.8341;
-120.0000;0.8246;0.8315;
-119.7000;0.8270;0.8418;
-119.4000;0.8319;0.8649;
-119.1000;0.8278;0.8444;
-118.8000;0.8270;0.8341;
-118.5000;0.8270;0.8444;
-118.2000;0.8278;0.8341;
-117.9000;0.8254;0.8264;
-117.6000;0.8254;0.8187;
-117.3000;0.8278;0.8238;
-117.0000;0.8262;0.8161;
-116.7000;0.8262;0.8187;
-116.4000;0.8287;0.8290;
-116.1000;0.8287;0.8367;
-115.8000;0.8262;0.8315;
-115.5000;0.8254;0.8418;
-115.2000;0.8246;0.8444;
-114.9000;0.8278;0.8469;
-114.6000;0.8278;0.8392;
-114.3000;0.8270;0.8341;
-114.0000;0.8262;0.8392;
-113.7000;0.8262;0.8495;
-113.4000;0.8189;0.8315;
-113.1000;0.8319;0.8546;
-112.8000;0.8246;0.8341;
-112.5000;0.8254;0.8264;
-112.2000;0.8189;0.8007;
-111.9000;0.8262;0.8110;
-111.6000;0.8262;0.8161;
-111.3000;0.8262;0.8110;
-111.0000;0.8319;0.8213;
-110.7000;0.8270;0.8161;
-110.4000;0.8254;0.8084;
-110.1000;0.8246;0.8033;
-109.8000;0.8270;0.8084;
-109.5000;0.8287;0.8238;
-109.2000;0.8270;0.8290;
-108.9000;0.8270;0.8392;
-108.6000;0.8287;0.8495;
-108.3000;0.8278;0.8469;
-108.0000;0.8278;0.8418;
-107.7000;0.8295;0.8495;
-107.4000;0.8270;0.8341;
-107.1000;0.8246;0.8213;
-106.8000;0.8262;0.8187;
-106.5000;0.8262;0.8213;
-106.2000;0.8254;0.8187;
-105.9000;0.8262;0.8187;
-105.6000;0.8262;0.8315;
-105.3000;0.8287;0.8341;
-105.0000;0.8287;0.8341;
-104.7000;0.8270;0.8341;
-104.4000;0.8278;0.8418;
-104.1000;0.8278;0.8444;
-103.8000;0.8262;0.8367;
-103.5000;0.8335;0.8520;
-103.2000;0.8278;0.8392;
-102.9000;0.8254;0.8290;
-102.6000;0.8278;0.8418;
-102.3000;0.8270;0.8290;
-102.0000;0.8278;0.8315;
-101.7000;0.8376;0.8495;
-101.4000;0.8254;0.8187;
-101.1000;0.8278;0.8264;
-100.8000;0.8270;0.8315;
-100.5000;0.8238;0.8187;
-100.2000;0.8295;0.8290;
-99.9000;0.8246;0.8187;
-99.6000;0.8287;0.8264;
-99.3000;0.8270;0.8238;
-99.0000;0.8278;0.8341;
-98.7000;0.8278;0.8264;
-98.4000;0.8262;0.8238;
-98.1000;0.8278;0.8315;
-97.8000;0.8287;0.8367;
-97.5000;0.8221;0.8290;
-97.2000;0.8270;0.8392;
-96.9000;0.8262;0.8341;
-96.6000;0.8254;0.8341;
-96.3000;0.8238;0.8264;
-96.0000;0.8262;0.8341;
-95.7000;0.8270;0.8264;
-95.4000;0.8230;0.8213;
-95.1000;0.8181;0.8136;
-94.8000;0.8262;0.8264;
-94.5000;0.8270;0.8213;
-94.2000;0.8270;0.8213;
-93.9000;0.8270;0.8187;
-93.6000;0.8278;0.8136;
-93.3000;0.8262;0.8110;
-93.0000;0.8270;0.8187;
-92.7000;0.8270;0.8110;
-92.4000;0.8278;0.8187;
-92.1000;0.8238;0.8136;
-91.8000;0.8270;0.8110;
-91.5000;0.8311;0.8238;
-91.2000;0.8262;0.8161;
-90.9000;0.8270;0.8187;
-90.6000;0.8270;0.8290;
-90.3000;0.8246;0.8213;
-90.0000;0.8213;0.8033;
-89.7000;0.8254;0.8059;
-89.4000;0.8262;0.8084;
-89.1000;0.8262;0.8161;
-88.8000;0.8287;0.8187;
-88.5000;0.8262;0.8161;
-88.2000;0.8270;0.8290;
-87.9000;0.8287;0.8341;
-87.6000;0.8262;0.8290;
-87.3000;0.8230;0.8136;
-87.0000;0.8254;0.8187;
-86.7000;0.8278;0.8161;
-86.4000;0.8270;0.8136;
-86.1000;0.8287;0.8238;
-85.8000;0.8254;0.8213;
-85.5000;0.8246;0.8161;
-85.2000;0.8262;0.8110;
-84.9000;0.8270;0.8110;
-84.6000;0.8262;0.8084;
-84.3000;0.8246;0.8033;
-84.0000;0.8213;0.7982;
-83.7000;0.8246;0.8161;
-83.4000;0.8254;0.8136;
-83.1000;0.8319;0.8315;
-82.8000;0.8295;0.8187;
-82.5000;0.8270;0.8161;
-82.2000;0.8270;0.8161;
-81.9000;0.8262;0.8161;
-81.6000;0.8287;0.8187;
-81.3000;0.8270;0.8238;
-81.0000;0.8213;0.8110;
-80.7000;0.8262;0.8213;
-80.4000;0.8246;0.8161;
-80.1000;0.8270;0.8264;
-79.8000;0.8262;0.8264;
-79.5000;0.8246;0.8187;
-79.2000;0.8246;0.8187;
-78.9000;0.8270;0.8238;
-78.6000;0.8262;0.8161;
-78.3000;0.8278;0.8187;
-78.0000;0.8262;0.8187;
-77.7000;0.8205;0.8110;
-77.4000;0.8295;0.8341;
-77.1000;0.8270;0.8290;
-76.8000;0.8246;0.8110;
-76.5000;0.8335;0.8290;
-76.2000;0.8270;0.8136;
-75.9000;0.8213;0.7956;
-75.6000;0.8254;0.7982;
-75.3000;0.8262;0.8033;
-75.0000;0.8254;0.8033;
-74.7000;0.8278;0.8033;
-74.4000;0.8246;0.7982;
-74.1000;0.8319;0.8238;
-73.8000;0.8270;0.8213;
-73.5000;0.8270;0.8290;
-73.2000;0.8254;0.8213;
-72.9000;0.8254;0.8110;
-72.6000;0.8254;0.8084;
-72.3000;0.8278;0.8136;
-72.0000;0.8262;0.8161;
-71.7000;0.8262;0.8084;
-71.4000;0.8254;0.8033;
-71.1000;0.8189;0.7879;
-70.8000;0.8262;0.8161;
-70.5000;0.8270;0.8238;
-70.2000;0.8278;0.8264;
-69.9000;0.8278;0.8392;
-69.6000;0.8270;0.8392;
-69.3000;0.8270;0.8367;
-69.0000;0.8270;0.8238;
-68.7000;0.8246;0.8187;
-68.4000;0.8270;0.8264;
-68.1000;0.8254;0.8238;
-67.8000;0.8278;0.8290;
-67.5000;0.8254;0.8213;
-67.2000;0.8270;0.8238;
-66.9000;0.8270;0.8187;
-66.6000;0.8262;0.8187;
-66.3000;0.8270;0.8187;
-66.0000;0.8238;0.8187;
-65.7000;0.8262;0.8161;
-65.4000;0.8303;0.8392;
-65.1000;0.8262;0.8341;
-64.8000;0.8254;0.8315;
-64.5000;0.8270;0.8367;
-64.2000;0.8262;0.8264;
-63.9000;0.8270;0.8315;
-63.6000;0.8278;0.8315;
-63.3000;0.8270;0.8315;
-63.0000;0.8319;0.8469;
-62.7000;0.8254;0.8341;
-62.4000;0.8278;0.8444;
-62.1000;0.8262;0.8495;
-61.8000;0.8278;0.8495;
-61.5000;0.8197;0.8264;
-61.2000;0.8254;0.8444;
-60.9000;0.8213;0.8290;
-60.6000;0.8262;0.8444;
-60.3000;0.8270;0.8444;
-60.0000;0.8262;0.8418;
-59.7000;0.8262;0.8444;
-59.4000;0.8278;0.8469;
-59.1000;0.8270;0.8367;
-58.8000;0.8278;0.8418;
-58.5000;0.8270;0.8392;
-58.2000;0.8278;0.8418;
-57.9000;0.8262;0.8520;
-57.6000;0.8238;0.8444;
-57.3000;0.8287;0.8444;
-57.0000;0.8287;0.8418;
-56.7000;0.8262;0.8315;
-56.4000;0.8246;0.8264;
-56.1000;0.8254;0.8161;
-55.8000;0.8270;0.8238;
-55.5000;0.8278;0.8187;
-55.2000;0.8262;0.8187;
-54.9000;0.8295;0.8367;
-54.6000;0.8254;0.8238;
-54.3000;0.8319;0.8341;
-54.0000;0.8246;0.8187;
-53.7000;0.8254;0.8238;
-53.4000;0.8197;0.8059;
-53.1000;0.8246;0.8238;
-52.8000;0.8254;0.8238;
-52.5000;0.8246;0.8264;
-52.2000;0.8262;0.8341;
-51.9000;0.8278;0.8341;
-51.6000;0.8262;0.8367;
-51.3000;0.8262;0.8341;
-51.0000;0.8270;0.8392;
-50.7000;0.8278;0.8341;
-50.4000;0.8270;0.8290;
-50.1000;0.8270;0.8341;
-49.8000;0.8254;0.8341;
-49.5000;0.8287;0.8341;
-49.2000;0.8295;0.8392;
-48.9000;0.8287;0.8264;
-48.6000;0.8254;0.8187;
-48.3000;0.8278;0.8238;
-48.0000;0.8238;0.8187;
-47.7000;0.8254;0.8264;
-47.4000;0.8270;0.8290;
-47.1000;0.8262;0.8213;
-46.8000;0.8278;0.8187;
-46.5000;0.8270;0.8290;
-46.2000;0.8270;0.8315;
-45.9000;0.8270;0.8290;
-45.6000;0.8327;0.8444;
-45.3000;0.8311;0.8341;
-45.0000;0.8254;0.8290;
-44.7000;0.8262;0.8341;
-44.4000;0.8270;0.8418;
-44.1000;0.8213;0.8315;
-43.8000;0.8254;0.8469;
-43.5000;0.8262;0.8520;
-43.2000;0.8262;0.8444;
-42.9000;0.8287;0.8520;
-42.6000;0.8262;0.8495;
-42.3000;0.8205;0.8290;
-42.0000;0.8295;0.8520;
-41.7000;0.8278;0.8495;
-41.4000;0.8262;0.8444;
-41.1000;0.8230;0.8418;
-40.8000;0.8327;0.8623;
-40.5000;0.8254;0.8495;
-40.2000;0.8262;0.8495;
-39.9000;0.8262;0.8444;
-39.6000;0.8246;0.8367;
-39.3000;0.8230;0.8392;
-39.0000;0.8254;0.8495;
-38.7000;0.8270;0.8546;
-38.4000;0.8270;0.8597;
-38.1000;0.8230;0.8418;
-37.8000;0.8254;0.8444;
-37.5000;0.8270;0.8444;
-37.2000;0.8278;0.8418;
-36.9000;0.8270;0.8341;
-36.6000;0.8270;0.8469;
-36.3000;0.8270;0.8520;
-36.0000;0.8262;0.8444;
-35.7000;0.8278;0.8495;
-35.4000;0.8270;0.8546;
-35.1000;0.8262;0.8546;
-34.8000;0.8278;0.8546;
-34.5000;0.8319;0.8623;
-34.2000;0.8287;0.8649;
-33.9000;0.8254;0.8623;
-33.6000;0.8262;0.8597;
-33.3000;0.8254;0.8495;
-33.0000;0.8295;0.8572;
-32.7000;0.8254;0.8520;
-32.4000;0.8278;0.8597;
-32.1000;0.8254;0.8572;
-31.8000;0.8360;0.8803;
-31.5000;0.8262;0.8520;
-31.2000;0.8270;0.8572;
-30.9000;0.8230;0.8392;
-30.6000;0.8262;0.8623;
-30.3000;0.8246;0.8597;
-30.0000;0.8262;0.8649;
-29.7000;0.8246;0.8623;
-29.4000;0.8270;0.8649;
-29.1000;0.8262;0.8546;
-28.8000;0.8270;0.8546;
-28.5000;0.8270;0.8520;
-28.2000;0.8287;0.8469;
-27.9000;0.8295;0.8495;
-27.6000;0.8278;0.8469;
-27.3000;0.8303;0.8495;
-27.0000;0.8270;0.8418;
-26.7000;0.8270;0.8392;
-26.4000;0.8278;0.8367;
-26.1000;0.8278;0.8341;
-25.8000;0.8262;0.8290;
-25.5000;0.8278;0.8290;
-25.2000;0.8262;0.8161;
-24.9000;0.8246;0.8110;
-24.6000;0.8278;0.8136;
-24.3000;0.8270;0.8110;
-24.0000;0.8238;0.8033;
-23.7000;0.8246;0.8059;
-23.4000;0.8254;0.8007;
-23.1000;0.8254;0.8059;
-22.8000;0.8311;0.8290;
-22.5000;0.8262;0.8238;
-22.2000;0.8246;0.8213;
-21.9000;0.8238;0.8161;
-21.6000;0.8262;0.8264;
-21.3000;0.8262;0.8290;
-21.0000;0.8327;0.8469;
-20.7000;0.8295;0.8315;
-20.4000;0.8262;0.8136;
-20.1000;0.8262;0.8213;
-19.8000;0.8221;0.8033;
-19.5000;0.8262;0.8187;
-19.2000;0.8254;0.8161;
-18.9000;0.8270;0.8213;
-18.6000;0.8270;0.8187;
-18.3000;0.8287;0.8264;
-18.0000;0.8254;0.8059;
-17.7000;0.8278;0.8110;
-17.4000;0.8335;0.8238;
-17.1000;0.8270;0.8033;
-16.8000;0.8278;0.8084;
-16.5000;0.8278;0.8161;
-16.2000;0.8262;0.8213;
-15.9000;0.8270;0.8161;
-15.6000;0.8254;0.8136;
-15.3000;0.8262;0.8110;
-15.0000;0.8262;0.8187;
-14.7000;0.8246;0.8213;
-14.4000;0.8278;0.8315;
-14.1000;0.8254;0.8315;
-13.8000;0.8270;0.8341;
-13.5000;0.8278;0.8341;
-13.2000;0.8278;0.8341;
-12.9000;0.8344;0.8572;
-12.6000;0.8254;0.8367;
-12.3000;0.8270;0.8367;
-12.0000;0.8246;0.8315;
-11.7000;0.8213;0.8213;
-11.4000;0.8262;0.8367;
-11.1000;0.8262;0.8392;
-10.8000;0.8254;0.8392;
-10.5000;0.8287;0.8469;
-10.2000;0.8246;0.8418;
-9.9000;0.8278;0.8444;
-9.6000;0.8262;0.8392;
-9.3000;0.8246;0.8341;
-9.0000;0.8254;0.8290;
-8.7000;0.8278;0.8315;
-8.4000;0.8278;0.8341;
-8.1000;0.8278;0.8213;
-7.8000;0.8278;0.8264;
-7.5000;0.8246;0.8238;
-7.2000;0.8287;0.8315;
-6.9000;0.8278;0.8341;
-6.6000;0.8254;0.8341;
-6.3000;0.8295;0.8418;
-6.0000;0.8254;0.8264;
-5.7000;0.8270;0.8290;
-5.4000;0.8262;0.8290;
-5.1000;0.8270;0.8264;
-4.8000;0.8287;0.8290;
-4.5000;0.8278;0.8290;
-4.2000;0.8246;0.8238;
-3.9000;0.8278;0.8213;
-3.6000;0.8295;0.8290;
-3.3000;0.8327;0.8444;
-3.0000;0.8254;0.8213;
-2.7000;0.8360;0.8367;
-2.4000;0.8278;0.8110;
-2.1000;0.8278;0.8161;
-1.8000;0.8246;0.8084;
-1.5000;0.8270;0.8187;
-1.2000;0.8278;0.8264;
-0.9000;0.8238;0.8059;
-0.6000;0.8295;0.8161;
-0.3000;0.8278;0.8161;
0.0000;0.8278;0.8161;
0.3000;0.8392;0.8444;
0.6000;0.8645;0.8905;
0.9000;0.8775;0.9034;
1.2000;0.8913;0.9367;
1.5000;0.8987;0.9624;
1.8000;0.9109;0.9881;
2.1000;0.9149;1.0009;
2.4000;0.9214;1.0112;
2.7000;0.9312;1.0420;
3.0000;0.9280;1.0394;
3.3000;0.9345;1.0574;
3.6000;0.9369;1.0625;
3.9000;0.9410;1.0599;
4.2000;0.9442;1.0625;
4.5000;0.9467;1.0625;
4.8000;0.9467;1.0497;
5.1000;0.9516;1.0625;
5.4000;0.9540;1.0702;
5.7000;0.9532;1.0728;
6.0000;0.9573;1.0728;
6.3000;0.9581;1.0702;
6.6000;0.9605;1.0676;
6.9000;0.9638;1.0728;
7.2000;0.9646;1.0728;
7.5000;0.9662;1.0856;
7.8000;0.9678;1.0882;
8.1000;0.9678;1.0882;
8.4000;0.9695;1.0753;
8.7000;0.9670;1.0599;
9.0000;0.9760;1.0753;
9.3000;0.9833;1.1061;
9.6000;0.9727;1.0882;
9.9000;0.9744;1.0805;
10.2000;0.9752;1.0753;
10.5000;0.9719;1.0651;
10.8000;0.9768;1.0805;
11.1000;0.9809;1.0856;
11.4000;0.9792;1.0753;
11.7000;0.9817;1.0728;
12.0000;0.9874;1.0907;
12.3000;0.9833;1.0728;
12.6000;0.9841;1.0805;
12.9000;0.9833;1.0830;
13.2000;0.9866;1.0907;
13.5000;0.9849;1.0856;
13.8000;0.9866;1.0856;
14.1000;0.9858;1.0805;
14.4000;0.9882;1.0882;
14.7000;0.9890;1.0933;
15.0000;0.9882;1.0882;
15.3000;0.9882;1.0779;
15.6000;0.9890;1.0753;
15.9000;0.9923;1.0830;
16.2000;0.9890;1.0805;
16.5000;0.9963;1.0882;
16.8000;0.9939;1.0805;
17.1000;0.9915;1.0728;
17.4000;0.9923;1.0651;
17.7000;0.9947;1.0753;
18.0000;0.9939;1.0753;
18.3000;0.9915;1.0753;
18.6000;0.9988;1.0856;
18.9000;0.9890;1.0522;
19.2000;0.9955;1.0702;
19.5000;1.0020;1.0959;
19.8000;0.9972;1.0779;
20.1000;0.9955;1.0779;
20.4000;0.9955;1.0779;
20.7000;0.9963;1.0830;
21.0000;0.9931;1.0856;
21.3000;0.9955;1.1010;
21.6000;0.9980;1.1061;
21.9000;0.9963;1.1010;
22.2000;0.9988;1.0959;
22.5000;0.9980;1.0882;
22.8000;0.9972;1.0779;
23.1000;0.9988;1.0856;
23.4000;0.9947;1.0830;
23.7000;0.9980;1.0907;
24.0000;1.0012;1.1036;
24.3000;1.0028;1.0984;
24.6000;1.0012;1.0882;
24.9000;1.0020;1.0882;
25.2000;0.9996;1.0856;
25.5000;1.0012;1.0907;
25.8000;0.9996;1.0856;
26.1000;1.0012;1.0984;
26.4000;1.0004;1.0984;
26.7000;0.9996;1.0805;
27.0000;1.0094;1.1061;
27.3000;1.0028;1.0882;
27.6000;1.0004;1.0856;
27.9000;1.0012;1.0984;
28.2000;1.0028;1.1036;
28.5000;1.0020;1.0984;
28.8000;1.0020;1.1010;
29.1000;1.0012;1.0984;
29.4000;1.0028;1.0984;
29.7000;1.0028;1.0984;
30.0000;1.0053;1.1010;
30.3000;1.0020;1.0984;
30.6000;1.0020;1.1010;
30.9000;1.0020;1.0984;
31.2000;1.0028;1.1113;
31.5000;1.0020;1.1164;
31.8000;1.0028;1.1087;
32.1000;1.0028;1.0984;
32.4000;1.0012;1.0907;
32.7000;1.0037;1.0959;
33.0000;1.0037;1.0959;
33.3000;1.0037;1.1036;
33.6000;1.0020;1.1061;
33.9000;1.0037;1.1215;
34.2000;1.0028;1.1061;
34.5000;0.9996;1.0959;
34.8000;1.0053;1.0959;
35.1000;1.0037;1.0830;
35.4000;1.0020;1.0779;
35.7000;1.0061;1.0907;
36.0000;1.0061;1.0856;
36.3000;1.0085;1.0856;
36.6000;1.0110;1.0830;
36.9000;1.0061;1.0933;
37.2000;1.0037;1.0933;
37.5000;1.0037;1.0959;
37.8000;1.0061;1.0907;
38.1000;1.0053;1.0856;
38.4000;1.0028;1.0830;
38.7000;1.0069;1.0959;
39.0000;1.0069;1.1036;
39.3000;1.0045;1.0959;
39.6000;1.0037;1.0933;
39.9000;1.0012;1.0959;
40.2000;1.0053;1.1087;
40.5000;1.0045;1.0984;
40.8000;1.0061;1.0984;
41.1000;1.0085;1.0959;
41.4000;1.0077;1.0882;
41.7000;1.0069;1.0882;
42.0000;1.0069;1.0856;
42.3000;1.0077;1.0907;
42.6000;1.0069;1.0933;
42.9000;1.0069;1.0907;
43.2000;1.0061;1.0805;
43.5000;1.0061;1.0856;
43.8000;1.0085;1.0856;
44.1000;1.0077;1.0856;
44.4000;1.0077;1.0830;
44.7000;1.0077;1.0805;
45.0000;1.0094;1.0856;
45.3000;1.0077;1.0856;
45.6000;1.0077;1.0805;
45.9000;1.0085;1.0779;
46.2000;1.0012;1.0599;
46.5000;1.0077;1.0882;
46.8000;1.0085;1.0830;
47.1000;1.0077;1.0728;
47.4000;1.0102;1.0753;
47.7000;1.0102;1.0779;
48.0000;1.0094;1.0702;
48.3000;1.0085;1.0753;
48.6000;1.0094;1.0728;
48.9000;1.0085;1.0676;
49.2000;1.0085;1.0702;
49.5000;1.0069;1.0753;
49.8000;1.0077;1.0753;
50.1000;1.0094;1.0779;
50.4000;1.0085;1.0753;
50.7000;1.0069;1.0651;
51.0000;1.0077;1.0599;
51.3000;1.0094;1.0651;
51.6000;1.0085;1.0445;
51.9000;1.0053;1.0471;
52.2000;1.0069;1.0497;
52.5000;1.0094;1.0574;
52.8000;1.0012;1.0291;
53.1000;1.0085;1.0548;
53.4000;1.0085;1.0574;
53.7000;1.0102;1.0676;
54.0000;1.0110;1.0779;
54.3000;1.0061;1.0651;
54.6000;1.0077;1.0805;
54.9000;1.0085;1.0753;
55.2000;1.0094;1.0753;
55.5000;1.0134;1.0753;
55.8000;1.0069;1.0599;
56.1000;1.0094;1.0728;
56.4000;1.0094;1.0599;
56.7000;1.0102;1.0522;
57.0000;1.0053;1.0497;
57.3000;1.0077;1.0497;
57.6000;1.0061;1.0548;
57.9000;1.0118;1.0676;
58.2000;1.0094;1.0599;
58.5000;1.0028;1.0471;
58.8000;1.0094;1.0676;
59.1000;1.0053;1.0625;
59.4000;1.0118;1.0779;
59.7000;1.0085;1.0753;
60.0000;1.0110;1.0753;
60.3000;1.0085;1.0702;
60.6000;1.0102;1.0702;
60.9000;1.0085;1.0625;
61.2000;1.0077;1.0599;
61.5000;1.0110;1.0625;
61.8000;1.0085;1.0497;
62.1000;1.0077;1.0445;
62.4000;1.0085;1.0574;
62.7000;1.0094;1.0599;
63.0000;1.0102;1.0676;
63.3000;1.0102;1.0676;
63.6000;1.0102;1.0676;
63.9000;1.0094;1.0676;
64.2000;1.0094;1.0779;
64.5000;1.0085;1.0779;
64.8000;1.0077;1.0805;
65.1000;1.0094;1.0779;
65.4000;1.0094;1.0856;
65.7000;1.0053;1.0753;
66.0000;1.0077;1.0805;
66.3000;1.0077;1.0779;
66.6000;1.0094;1.0805;
66.9000;1.0167;1.0907;
67.2000;1.0134;1.0728;
67.5000;1.0085;1.0651;
67.8000;1.0085;1.0625;
68.1000;1.0094;1.0753;
68.4000;1.0069;1.0702;
68.7000;1.0085;1.0728;
69.0000;1.0077;1.0805;
69.3000;1.0142;1.0984;
69.6000;1.0085;1.0959;
69.9000;1.0085;1.0933;
70.2000;1.0094;1.0805;
70.5000;1.0102;1.0882;
70.8000;1.0094;1.0933;
71.1000;1.0085;1.0933;
71.4000;1.0069;1.1010;
71.7000;1.0134;1.1113;
72.0000;1.0085;1.0984;
72.3000;1.0118;1.1036;
72.6000;1.0061;1.0907;
72.9000;1.0094;1.0907;
73.2000;1.0085;1.0882;
73.5000;1.0102;1.1010;
73.8000;1.0037;1.0805;
74.1000;1.0126;1.1036;
74.4000;1.0094;1.0907;
74.7000;1.0110;1.0856;
75.0000;1.0110;1.0856;
75.3000;1.0102;1.0959;
75.6000;1.0085;1.0830;
75.9000;1.0102;1.0907;
76.2000;1.0053;1.0779;
76.5000;1.0085;1.0882;
76.8000;1.0037;1.0702;
77.1000;1.0053;1.0651;
77.4000;1.0134;1.0753;
77.7000;1.0069;1.0625;
78.0000;1.0053;1.0702;
78.3000;1.0142;1.0882;
78.6000;1.0126;1.0830;
78.9000;1.0077;1.0728;
79.2000;1.0110;1.0753;
79.5000;1.0085;1.0830;
79.8000;1.0094;1.0830;
80.1000;1.0085;1.0856;
80.4000;1.0004;1.0625;
80.7000;1.0094;1.0779;
81.0000;1.0077;1.0779;
81.3000;1.0085;1.0779;
81.6000;1.0077;1.0882;
81.9000;1.0094;1.0856;
82.2000;1.0045;1.0753;
82.5000;1.0094;1.0856;
82.8000;1.0085;1.0805;
83.1000;1.0085;1.0830;
83.4000;1.0175;1.1010;
83.7000;1.0077;1.0805;
84.0000;1.0061;1.0856;
84.3000;1.0110;1.0933;
84.6000;1.0102;1.0984;
84.9000;1.0102;1.0984;
85.2000;1.0110;1.0882;
85.5000;1.0094;1.0805;
85.8000;1.0094;1.0856;
86.1000;1.0102;1.0959;
86.4000;1.0094;1.0959;
86.7000;1.0077;1.1036;
87.0000;1.0102;1.1087;
87.3000;1.0069;1.0984;
87.6000;1.0077;1.0984;
87.9000;1.0069;1.0984;
88.2000;1.0077;1.0959;
88.5000;1.0085;1.0984;
88.8000;1.0094;1.0907;
89.1000;1.0134;1.1061;
89.4000;1.0094;1.1010;
89.7000;1.0020;1.0728;
90.0000;1.0077;1.0882;
90.3000;1.0094;1.0830;
90.6000;1.0134;1.1036;
90.9000;1.0110;1.0959;
91.2000;1.0102;1.0959;
91.5000;1.0094;1.1061;
91.8000;1.0069;1.0984;
92.1000;1.0102;1.1010;
92.4000;1.0102;1.1087;
92.7000;1.0069;1.1138;
93.0000;1.0126;1.1190;
93.3000;1.0077;1.1138;
93.6000;1.0085;1.1113;
93.9000;1.0085;1.1138;
94.2000;1.0085;1.1087;
94.5000;1.0077;1.1113;
94.8000;1.0110;1.1087;
95.1000;1.0094;1.1087;
95.4000;1.0110;1.1061;
95.7000;1.0077;1.0984;
96.0000;1.0094;1.0933;
96.3000;1.0085;1.0805;
96.6000;1.0094;1.0882;
96.9000;1.0102;1.0959;
97.2000;1.0077;1.0856;
97.5000;1.0085;1.0805;
97.8000;1.0069;1.0779;
98.1000;1.0077;1.0856;
98.4000;1.0102;1.0882;
98.7000;1.0102;1.0959;
99.0000;1.0077;1.0856;
99.3000;1.0102;1.0882;
99.6000;1.0110;1.0856;
99.9000;1.0094;1.0907;
100.2000;1.0094;1.0907;
100.5000;1.0061;1.0856;
100.8000;1.0069;1.0959;
101.1000;1.0094;1.0984;
101.4000;1.0020;1.0805;
101.7000;1.0094;1.1010;
102.0000;1.0069;1.0882;
102.3000;1.0085;1.1010;
102.6000;1.0110;1.1036;
102.9000;1.0134;1.0959;
103.2000;1.0094;1.0933;
103.5000;1.0175;1.1036;
103.8000;1.0102;1.0856;
104.1000;1.0191;1.1061;
104.4000;1.0061;1.0830;
104.7000;1.0094;1.0830;
105.0000;1.0045;1.0702;
105.3000;1.0077;1.0882;
105.6000;1.0167;1.1113;
105.9000;1.0085;1.0959;
106.2000;1.0077;1.0907;
106.5000;1.0061;1.0882;
106.8000;1.0069;1.0907;
107.1000;1.0167;1.1113;
107.4000;1.0094;1.0882;
107.7000;1.0085;1.0830;
108.0000;1.0085;1.0779;
108.3000;1.0077;1.0805;
108.6000;1.0037;1.0651;
108.9000;1.0069;1.0779;
109.2000;1.0110;1.0959;
109.5000;1.0085;1.0933;
109.8000;1.0077;1.0959;
110.1000;1.0077;1.0959;
110.4000;1.0094;1.0882;
110.7000;1.0134;1.0984;
111.0000;1.0085;1.0856;
111.3000;1.0077;1.0805;
111.6000;1.0085;1.0856;
111.9000;1.0085;1.0856;
112.2000;1.0102;1.0882;
112.5000;1.0094;1.0779;
112.8000;1.0094;1.0779;
113.1000;1.0085;1.0856;
113.4000;1.0085;1.0753;
113.7000;1.0134;1.0856;
114.0000;1.0094;1.0728;
114.3000;1.0085;1.0856;
114.6000;1.0085;1.0805;
114.9000;1.0069;1.0702;
115.2000;1.0094;1.0779;
115.5000;1.0102;1.0882;
115.8000;1.0077;1.0882;
116.1000;1.0085;1.0907;
116.4000;1.0061;1.0907;
116.7000;1.0085;1.0933;
117.0000;1.0028;1.0882;
117.3000;1.0069;1.0959;
117.6000;1.0094;1.1036;
117.9000;1.0085;1.1061;
118.2000;1.0077;1.1061;
118.5000;1.0069;1.0959;
118.8000;1.0077;1.1010;
119.1000;1.0077;1.1087;
119.4000;1.0102;1.1190;
119.7000;1.0069;1.1190;
120.0000;1.0069;1.1138;
120.3000;1.0094;1.1164;
120.6000;1.0102;1.1164;
120.9000;1.0077;1.1113;
121.2000;1.0061;1.1087;
121.5000;1.0077;1.1087;
121.8000;1.0118;1.1164;
122.1000;1.0085;1.1036;
122.4000;1.0077;1.1113;
122.7000;1.0085;1.1113;
123.0000;1.0085;1.1164;
123.3000;1.0045;1.1087;
123.6000;1.0053;1.1138;
123.9000;1.0085;1.1267;
124.2000;1.0094;1.1241;
124.5000;0.9988;1.0933;
124.8000;1.0061;1.1087;
125.1000;1.0094;1.1164;
125.4000;0.9980;1.0830;
125.7000;1.0094;1.1164;
126.0000;1.0069;1.1190;
126.3000;0.9988;1.1010;
126.6000;1.0126;1.1318;
126.9000;1.0077;1.1138;
127.2000;1.0069;1.1113;
127.5000;1.0126;1.1292;
127.8000;1.0061;1.1138;
128.1000;1.0102;1.1215;
128.4000;1.0061;1.1087;
128.7000;1.0077;1.1138;
129.0000;1.0037;1.1138;
129.3000;1.0102;1.1190;
129.6000;0.9947;1.0805;
129.9000;1.0053;1.1061;
130.2000;1.0061;1.1061;
130.5000;1.0053;1.1087;
130.8000;1.0077;1.1138;
131.1000;1.0028;1.1010;
131.4000;1.0069;1.1113;
131.7000;1.0094;1.1010;
132.0000;1.0069;1.0907;
132.3000;1.0053;1.0907;
132.6000;1.0053;1.0856;
132.9000;1.0061;1.0882;
133.2000;1.0045;1.0753;
133.5000;1.0077;1.0933;
133.8000;1.0069;1.1010;
134.1000;1.0085;1.1113;
134.4000;1.0069;1.1164;
134.7000;1.0077;1.1010;
135.0000;1.0012;1.0933;
135.3000;1.0102;1.1036;
135.6000;1.0118;1.1113;
135.9000;1.0077;1.0959;
136.2000;1.0061;1.0830;
136.5000;1.0061;1.0856;
136.8000;1.0110;1.1036;
137.1000;1.0028;1.0805;
137.4000;1.0077;1.0882;
137.7000;1.0069;1.0907;
138.0000;1.0069;1.0856;
138.3000;1.0142;1.0984;
138.6000;1.0085;1.0830;
138.9000;1.0085;1.0830;
139.2000;1.0077;1.0779;
139.5000;1.0077;1.0805;
139.8000;1.0077;1.0779;
140.1000;1.0069;1.0856;
140.4000;1.0069;1.0856;
140.7000;1.0094;1.0830;
141.0000;1.0077;1.0856;
141.3000;1.0069;1.0882;
141.6000;1.0085;1.0984;
141.9000;1.0069;1.0984;
142.2000;1.0077;1.1061;
142.5000;1.0077;1.1190;
142.8000;1.0053;1.1087;
143.1000;1.0061;1.1113;
143.4000;1.0077;1.1164;
143.7000;1.0069;1.1164;
144.0000;1.0012;1.1061;
144.3000;1.0069;1.1113;
144.6000;1.0077;1.1138;
144.9000;1.0077;1.1138;
145.2000;1.0069;1.1061;
145.5000;1.0110;1.1164;
145.8000;1.0094;1.1113;
146.1000;1.0069;1.1087;
146.4000;1.0053;1.1087;
146.7000;1.0037;1.1113;
147.0000;1.0094;1.1267;
147.3000;1.0077;1.1215;
147.6000;1.0110;1.1267;
147.9000;1.0069;1.1292;
148.2000;1.0061;1.1292;
148.5000;1.0069;1.1318;
148.8000;1.0077;1.1241;
149.1000;1.0069;1.1190;
149.4000;1.0061;1.1190;
149.7000;1.0069;1.1215;
150.0000;1.0028;1.1113;
150.3000;1.0077;1.1241;
150.6000;1.0061;1.1241;
150.9000;1.0069;1.1292;
151.2000;1.0077;1.1267;
151.5000;1.0118;1.1318;
151.8000;1.0077;1.1215;
152.1000;1.0028;1.1113;
152.4000;1.0118;1.1318;
152.7000;1.0077;1.1190;
153.0000;1.0045;1.1036;
153.3000;1.0102;1.1138;
153.6000;1.0077;1.1113;
153.9000;1.0077;1.0933;
154.2000;1.0175;1.1138;
154.5000;1.0061;1.0882;
154.8000;1.0061;1.0830;
155.1000;1.0061;1.0907;
155.4000;1.0077;1.0959;
155.7000;1.0077;1.0959;
156.0000;1.0094;1.1010;
156.3000;1.0061;1.1061;
156.6000;1.0085;1.1087;
156.9000;1.0077;1.1036;
157.2000;1.0069;1.1113;
157.5000;1.0069;1.1113;
157.8000;1.0077;1.1113;
158.1000;1.0085;1.1036;
158.4000;1.0069;1.0959;
158.7000;1.0085;1.0984;
159.0000;1.0069;1.0959;
159.3000;1.0061;1.0959;
159.6000;1.0077;1.0907;
159.9000;1.0077;1.0882;
160.2000;1.0077;1.0882;
160.5000;1.0061;1.0882;
160.8000;1.0061;1.0907;
161.1000;1.0085;1.0959;
161.4000;1.0069;1.0959;
161.7000;1.0061;1.0882;
162.0000;1.0053;1.0779;
162.3000;1.0053;1.0805;
162.6000;1.0077;1.0728;
162.9000;1.0069;1.0753;
163.2000;1.0053;1.0753;
163.5000;1.0053;1.0779;
163.8000;1.0053;1.0856;
164.1000;1.0045;1.0830;
164.4000;1.0045;1.0805;
164.7000;1.0061;1.0805;
165.0000;1.0077;1.0933;
165.3000;1.0053;1.0907;
165.6000;1.0061;1.0959;
165.9000;1.0028;1.0984;
166.2000;1.0061;1.1036;
166.5000;1.0069;1.0984;
166.8000;1.0102;1.1061;
167.1000;1.0069;1.1010;
167.4000;1.0028;1.0933;
167.7000;1.0069;1.1036;
168.0000;1.0061;1.0856;
168.3000;1.0077;1.0779;
168.6000;1.0069;1.0728;
168.9000;1.0134;1.0882;
169.2000;1.0077;1.0856;
169.5000;1.0069;1.0882;
169.8000;1.0053;1.0933;
170.1000;1.0045;1.0830;
170.4000;1.0183;1.1113;
170.7000;1.0085;1.0959;
171.0000;1.0028;1.0856;
171.3000;1.0069;1.0984;
171.6000;1.0069;1.0959;
171.9000;1.0069;1.1036;
172.2000;1.0061;1.1010;
172.5000;1.0077;1.1061;
172.8000;1.0069;1.1010;
173.1000;1.0069;1.1010;
173.4000;1.0069;1.0933;
173.7000;1.0085;1.0907;
174.0000;1.0077;1.0907;
174.3000;1.0061;1.0882;
174.6000;0.9972;1.0625;
174.9000;1.0061;1.0959;
175.2000;1.0102;1.1113;
175.5000;1.0053;1.1010;
175.8000;1.0069;1.1087;
176.1000;1.0069;1.1113;
176.4000;1.0069;1.1164;
176.7000;1.0126;1.1267;
177.0000;1.0102;1.1138;
177.3000;1.0077;1.1010;
177.6000;1.0077;1.1113;
177.9000;1.0134;1.1164;
178.2000;1.0061;1.0984;
178.5000;1.0069;1.0984;
178.8000;1.0134;1.1138;
179.1000;1.0077;1.0984;
179.4000;1.0069;1.0984;
179.7000;1.0061;1.0933;
180.0000;1.0045;1.0882;
180.3000;1.0069;1.0830;
180.6000;1.0077;1.0856;
180.9000;1.0077;1.0856;
181.2000;1.0053;1.0805;
181.5000;1.0069;1.0830;
181.8000;1.0102;1.0882;
182.1000;1.0061;1.0856;
182.4000;1.0085;1.0830;
182.7000;1.0045;1.0830;
183.0000;1.0085;1.0882;
183.3000;1.0061;1.0830;
183.6000;1.0061;1.0856;
183.9000;1.0053;1.0830;
184.2000;1.0077;1.0959;
184.5000;1.0069;1.0984;
184.8000;1.0069;1.1164;
185.1000;1.0061;1.1087;
185.4000;1.0094;1.1190;
185.7000;1.0053;1.1215;
186.0000;1.0045;1.1190;
186.3000;1.0053;1.1138;
186.6000;1.0053;1.1138;
186.9000;1.0045;1.1215;
187.2000;1.0053;1.1241;
187.5000;1.0069;1.1292;
187.8000;1.0085;1.1190;
188.1000;1.0085;1.1215;
188.4000;1.0077;1.1292;
188.7000;1.0102;1.1395;
189.0000;1.0053;1.1292;
189.3000;1.0061;1.1267;
189.6000;1.0053;1.1087;
189.9000;1.0037;1.1010;
190.2000;1.0037;1.1061;
190.5000;1.0061;1.1036;
190.8000;1.0061;1.1061;
191.1000;1.0069;1.1164;
191.4000;1.0053;1.1113;
191.7000;1.0069;1.1138;
192.0000;1.0061;1.1010;
192.3000;1.0077;1.0984;
192.6000;1.0061;1.0959;
192.9000;1.0028;1.0856;
193.2000;1.0053;1.0984;
193.5000;1.0053;1.0984;
193.8000;1.0069;1.0959;
194.1000;1.0061;1.0882;
194.4000;1.0061;1.0907;
194.7000;1.0053;1.0933;
195.0000;1.0077;1.1061;
195.3000;1.0053;1.0984;
195.6000;1.0151;1.1215;
195.9000;1.0053;1.1061;
196.2000;1.0045;1.0984;
196.5000;1.0045;1.1061;
196.8000;1.0061;1.1087;
197.1000;1.0037;1.0984;
197.4000;1.0126;1.1190;
197.7000;1.0028;1.0959;
198.0000;1.0134;1.1113;
198.3000;1.0077;1.1010;
198.6000;1.0053;1.1036;
198.9000;1.0061;1.1010;
199.2000;1.0069;1.1113;
199.5000;1.0045;1.1113;
199.8000;1.0142;1.1421;
200.1000;1.0045;1.1241;
200.4000;1.0053;1.1113;
200.7000;1.0053;1.1215;
201.0000;1.0069;1.1190;
201.3000;1.0053;1.1087;
201.6000;1.0069;1.1138;
201.9000;1.0085;1.1113;
202.2000;1.0077;1.1113;
202.5000;1.0061;1.1061;
202.8000;1.0053;1.1036;
203.1000;1.0053;1.1010;
203.4000;1.0061;1.1087;
203.7000;1.0037;1.0882;
204.0000;1.0069;1.1010;
204.3000;1.0053;1.0959;
204.6000;1.0037;1.0907;
204.9000;1.0053;1.0959;
205.2000;1.0045;1.0933;
205.5000;1.0053;1.1061;
205.8000;1.0045;1.1010;
206.1000;1.0069;1.1061;
206.4000;1.0053;1.1138;
206.7000;1.0053;1.1087;
207.0000;1.0069;1.1113;
207.3000;1.0053;1.1061;
207.6000;0.9988;1.0856;
207.9000;1.0061;1.0933;
208.2000;1.0142;1.1113;
208.5000;1.0077;1.0959;
208.8000;1.0020;1.0805;
209.1000;1.0053;1.0779;
209.4000;1.0053;1.0779;
209.7000;1.0077;1.0728;
210.0000;1.0053;1.0676;
210.3000;1.0061;1.0651;
210.6000;1.0037;1.0651;
210.9000;1.0045;1.0702;
211.2000;1.0077;1.0779;
211.5000;1.0045;1.0728;
211.8000;1.0045;1.0676;
212.1000;1.0053;1.0574;
212.4000;1.0110;1.0779;
212.7000;1.0061;1.0702;
213.0000;1.0028;1.0805;
213.3000;1.0045;1.0933;
213.6000;1.0061;1.0984;
213.9000;1.0028;1.0959;
214.2000;1.0061;1.1061;
214.5000;1.0053;1.0984;
214.8000;1.0069;1.0856;
215.1000;1.0069;1.0907;
215.4000;1.0037;1.0753;
215.7000;1.0053;1.0830;
216.0000;1.0037;1.0882;
216.3000;1.0077;1.0907;
216.6000;1.0069;1.0882;
216.9000;1.0069;1.0907;
217.2000;1.0053;1.0856;
217.5000;1.0053;1.0907;
217.8000;1.0069;1.0907;
218.1000;1.0037;1.0779;
218.4000;1.0077;1.0805;
218.7000;1.0077;1.0779;
219.0000;1.0045;1.0728;
219.3000;1.0037;1.0753;
219.6000;1.0053;1.0856;
219.9000;1.0053;1.0856;
220.2000;1.0045;1.0856;
220.5000;1.0061;1.0959;
220.8000;1.0053;1.0959;
221.1000;1.0020;1.0882;
221.4000;1.0053;1.0856;
221.7000;1.0053;1.0779;
222.0000;0.9988;1.0522;
222.3000;1.0061;1.0651;
222.6000;1.0053;1.0702;
222.9000;1.0045;1.0625;
223.2000;1.0020;1.0522;
223.5000;1.0053;1.0625;
223.8000;1.0061;1.0702;
224.1000;1.0045;1.0753;
224.4000;1.0118;1.0984;
224.7000;1.0037;1.0753;
225.0000;1.0069;1.0805;
225.3000;1.0045;1.0805;
225.6000;1.0053;1.0805;
225.9000;1.0012;1.0728;
226.2000;1.0053;1.0779;
226.5000;1.0028;1.0753;
226.8000;1.0004;1.0702;
227.1000;1.0069;1.0779;
227.4000;1.0069;1.0728;
227.7000;1.0159;1.0856;
228.0000;1.0110;1.0728;
228.3000;1.0069;1.0625;
228.6000;1.0085;1.0676;
228.9000;1.0061;1.0625;
229.2000;1.0028;1.0574;
229.5000;1.0085;1.0779;
229.8000;1.0110;1.0933;
230.1000;1.0061;1.0805;
230.4000;1.0069;1.0882;
230.7000;1.0037;1.0830;
231.0000;1.0028;1.0907;
231.3000;1.0037;1.0882;
231.6000;1.0037;1.0779;
231.9000;1.0037;1.0753;
232.2000;1.0045;1.0728;
232.5000;1.0053;1.0779;
232.8000;1.0159;1.1036;
233.1000;1.0053;1.0779;
233.4000;1.0028;1.0753;
233.7000;1.0061;1.0753;
234.0000;1.0061;1.0676;
234.3000;1.0053;1.0676;
234.6000;1.0069;1.0676;
234.9000;1.0045;1.0548;
235.2000;1.0053;1.0522;
235.5000;1.0053;1.0625;
235.8000;1.0045;1.0599;
236.1000;1.0045;1.0574;
236.4000;1.0045;1.0651;
236.7000;1.0053;1.0651;
237.0000;1.0045;1.0651;
237.3000;1.0053;1.0753;
237.6000;1.0061;1.0702;
237.9000;1.0061;1.0753;
238.2000;1.0053;1.0779;
238.5000;1.0053;1.0856;
238.8000;1.0134;1.1036;
239.1000;1.0077;1.0882;
239.4000;1.0053;1.0830;
239.7000;1.0028;1.0830;
240.0000;1.0061;1.0856;
240.3000;1.0094;1.0959;
240.6000;1.0061;1.0907;
240.9000;1.0069;1.0907;
241.2000;1.0053;1.0830;
241.5000;1.0045;1.0805;
241.8000;1.0077;1.0830;
242.1000;1.0053;1.0728;
242.4000;0.9988;1.0471;
242.7000;1.0069;1.0651;
243.0000;1.0053;1.0599;
243.3000;1.0061;1.0676;
243.6000;1.0077;1.0753;
243.9000;0.9996;1.0471;
244.2000;1.0061;1.0625;
244.5000;1.0053;1.0625;
244.8000;1.0037;1.0574;
245.1000;1.0094;1.0676;
245.4000;1.0053;1.0625;
245.7000;1.0020;1.0548;
246.0000;0.9996;1.0420;
246.3000;1.0037;1.0445;
246.6000;1.0045;1.0471;
246.9000;1.0028;1.0497;
247.2000;1.0061;1.0522;
247.5000;1.0045;1.0497;
247.8000;1.0053;1.0522;
248.1000;1.0037;1.0471;
248.4000;1.0045;1.0497;
248.7000;1.0037;1.0497;
249.0000;1.0037;1.0548;
249.3000;1.0061;1.0522;
249.6000;1.0045;1.0497;
249.9000;1.0045;1.0497;
250.2000;1.0045;1.0471;
250.5000;1.0061;1.0548;
250.8000;1.0061;1.0471;
251.1000;1.0028;1.0368;
251.4000;1.0053;1.0394;
251.7000;1.0053;1.0394;
252.0000;1.0061;1.0420;
252.3000;1.0045;1.0368;
252.6000;1.0053;1.0420;
252.9000;1.0061;1.0445;
253.2000;1.0061;1.0497;
253.5000;1.0045;1.0625;
253.8000;1.0053;1.0702;
254.1000;1.0069;1.0805;
254.4000;1.0069;1.0830;
254.7000;1.0028;1.0753;
255.0000;1.0045;1.0856;
255.3000;1.0061;1.0830;
255.6000;1.0077;1.0907;
255.9000;1.0053;1.0830;
256.2000;1.0053;1.0702;
256.5000;1.0053;1.0625;
256.8000;1.0053;1.0599;
257.1000;1.0053;1.0625;
257.4000;1.0069;1.0625;
257.7000;1.0037;1.0574;
258.0000;1.0061;1.0651;
258.3000;1.0004;1.0522;
258.6000;1.0037;1.0574;
258.9000;1.0085;1.0702;
259.2000;1.0061;1.0779;
259.5000;1.0061;1.0882;
259.8000;1.0061;1.0753;
260.1000;1.0053;1.0753;
260.4000;1.0037;1.0805;
260.7000;1.0085;1.0907;
261.0000;1.0045;1.0856;
261.3000;1.0045;1.0805;
261.6000;1.0061;1.0779;
261.9000;1.0053;1.0728;
262.2000;1.0037;1.0702;
262.5000;1.0028;1.0676;
262.8000;1.0037;1.0651;
263.1000;1.0053;1.0779;
263.4000;1.0037;1.0676;
263.7000;1.0069;1.0676;
264.0000;1.0053;1.0651;
264.3000;1.0045;1.0651;
264.6000;1.0053;1.0753;
264.9000;1.0037;1.0753;
265.2000;1.0045;1.0779;
265.5000;1.0004;1.0651;
265.8000;1.0061;1.0728;
266.1000;1.0045;1.0651;
266.4000;1.0037;1.0651;
266.7000;0.9988;1.0548;
267.0000;1.0053;1.0779;
267.3000;1.0061;1.0830;
267.6000;0.9988;1.0522;
267.9000;1.0037;1.0702;
268.2000;1.0069;1.0830;
268.5000;1.0061;1.0805;
268.8000;1.0053;1.0830;
269.1000;1.0012;1.0702;
269.4000;1.0069;1.0805;
269.7000;1.0020;1.0702;
270.0000;1.0028;1.0676;
270.3000;1.0037;1.0702;
270.6000;1.0110;1.0907;
270.9000;1.0028;1.0651;
271.2000;0.9988;1.0497;
271.5000;1.0037;1.0676;
271.8000;1.0037;1.0522;
272.1000;1.0045;1.0548;
272.4000;1.0053;1.0599;
272.7000;1.0102;1.0779;
273.0000;1.0053;1.0599;
273.3000;1.0045;1.0625;
273.6000;1.0045;1.0599;
273.9000;1.0037;1.0522;
274.2000;1.0045;1.0522;
274.5000;1.0045;1.0599;
274.8000;1.0053;1.0651;
275.1000;1.0037;1.0625;
275.4000;1.0037;1.0625;
275.7000;1.0028;1.0599;
276.0000;1.0037;1.0625;
276.3000;1.0053;1.0599;
276.6000;1.0053;1.0548;
276.9000;1.0045;1.0574;
277.2000;1.0061;1.0625;
277.5000;1.0045;1.0522;
277.8000;1.0045;1.0599;
278.1000;1.0053;1.0651;
278.4000;1.0045;1.0753;
278.7000;1.0053;1.0830;
279.0000;1.0053;1.0907;
279.3000;1.0045;1.0907;
279.6000;1.0045;1.0959;
279.9000;1.0061;1.1036;
280.2000;1.0053;1.0984;
280.5000;1.0053;1.0959;
280.8000;1.0085;1.1113;
281.1000;1.0045;1.0959;
281.4000;1.0037;1.0830;
281.7000;1.0037;1.0779;
282.0000;1.0012;1.0599;
282.3000;1.0037;1.0753;
282.6000;1.0053;1.0805;
282.9000;1.0045;1.0805;
283.2000;1.0037;1.0830;
283.5000;1.0045;1.0805;
283.8000;1.0053;1.0779;
284.1000;1.0037;1.0779;
284.4000;1.0028;1.0805;
284.7000;1.0028;1.0779;
285.0000;1.0053;1.0779;
285.3000;1.0053;1.0805;
285.6000;1.0045;1.0728;
285.9000;1.0061;1.0753;
286.2000;1.0061;1.0728;
286.5000;1.0004;1.0574;
286.8000;1.0069;1.0753;
287.1000;1.0061;1.0805;
287.4000;1.0037;1.0805;
287.7000;1.0061;1.0907;
288.0000;1.0045;1.0933;
288.3000;1.0037;1.0830;
288.6000;1.0045;1.0882;
288.9000;1.0037;1.0882;
289.2000;1.0061;1.0856;
289.5000;1.0053;1.0830;
289.8000;1.0045;1.0779;
290.1000;1.0037;1.0907;
290.4000;1.0102;1.0959;
290.7000;1.0020;1.0805;
291.0000;1.0037;1.0830;
291.3000;1.0037;1.0856;
291.6000;1.0053;1.0984;
291.9000;1.0028;1.0856;
292.2000;1.0037;1.0830;
292.5000;1.0028;1.0728;
292.8000;1.0020;1.0702;
293.1000;1.0037;1.0728;
293.4000;1.0037;1.0779;
293.7000;1.0037;1.0779;
294.0000;1.0020;1.0805;
294.3000;1.0045;1.0882;
294.6000;1.0045;1.0907;
294.9000;1.0037;1.0882;
295.2000;1.0037;1.0856;
295.5000;1.0045;1.0882;
295.8000;1.0037;1.0856;
296.1000;1.0037;1.0805;
296.4000;1.0053;1.0856;
296.7000;1.0061;1.0907;
297.0000;1.0037;1.0779;
297.3000;1.0037;1.0779;
297.6000;1.0037;1.0805;
297.9000;0.9972;1.0625;
298.2000;1.0020;1.0753;
298.5000;1.0037;1.0753;
298.8000;1.0028;1.0753;
299.1000;1.0037;1.0779;
299.4000;1.0045;1.0805;
299.7000;1.0004;1.0676;
300.0000;1.0037;1.0702;
300.3000;1.0045;1.0651;
300.6000;1.0037;1.0651;
300.9000;1.0028;1.0651;
301.2000;1.0045;1.0753;
301.5000;1.0012;1.0728;
301.8000;1.0037;1.0856;
302.1000;1.0028;1.0779;
302.4000;1.0020;1.0779;
302.7000;1.0020;1.0856;
303.0000;1.0020;1.0882;
303.3000;1.0028;1.0856;
303.6000;1.0004;1.0702;
303.9000;1.0012;1.0625;
304.2000;1.0037;1.0702;
304.5000;1.0028;1.0651;
304.8000;1.0037;1.0574;
305.1000;1.0037;1.0599;
305.4000;1.0045;1.0574;
305.7000;1.0045;1.0548;
306.0000;1.0028;1.0548;
306.3000;1.0061;1.0625;
306.6000;1.0045;1.0548;
306.9000;1.0053;1.0522;
307.2000;1.0045;1.0548;
307.5000;1.0045;1.0574;
307.8000;1.0053;1.0702;
308.1000;1.0053;1.0779;
308.4000;1.0045;1.0753;
308.7000;1.0045;1.0702;
309.0000;1.0053;1.0599;
309.3000;1.0053;1.0599;
309.6000;1.0053;1.0779;
309.9000;1.0053;1.0779;
310.2000;1.0061;1.0702;
310.5000;1.0020;1.0651;
310.8000;1.0053;1.0651;
311.1000;1.0053;1.0676;
311.4000;1.0045;1.0599;
311.7000;1.0045;1.0599;
312.0000;1.0053;1.0522;
312.3000;1.0037;1.0471;
312.6000;1.0045;1.0548;
312.9000;1.0037;1.0651;
313.2000;1.0045;1.0753;
313.5000;1.0012;1.0651;
313.8000;1.0053;1.0779;
314.1000;1.0037;1.0753;
314.4000;1.0045;1.0805;
314.7000;1.0028;1.0753;
315.0000;1.0045;1.0805;
315.3000;1.0028;1.0753;
315.6000;1.0085;1.0933;
315.9000;1.0028;1.0779;
316.2000;1.0037;1.0702;
316.5000;1.0045;1.0728;
316.8000;1.0037;1.0702;
317.1000;1.0053;1.0753;
317.4000;1.0053;1.0574;
317.7000;1.0028;1.0548;
318.0000;1.0028;1.0522;
318.3000;1.0045;1.0548;
318.6000;1.0045;1.0625;
318.9000;1.0028;1.0522;
319.2000;1.0028;1.0522;
319.5000;1.0028;1.0574;
319.8000;1.0020;1.0471;
320.1000;1.0045;1.0471;
320.4000;1.0045;1.0599;
320.7000;1.0053;1.0728;
321.0000;1.0045;1.0651;
321.3000;1.0037;1.0728;
321.6000;1.0053;1.0805;
321.9000;1.0045;1.0702;
322.2000;1.0037;1.0625;
322.5000;1.0061;1.0651;
322.8000;1.0077;1.0702;
323.1000;1.0037;1.0651;
323.4000;1.0037;1.0676;
323.7000;1.0045;1.0599;
324.0000;1.0012;1.0548;
324.3000;1.0037;1.0574;
324.6000;1.0053;1.0548;
324.9000;1.0004;1.0445;
325.2000;1.0028;1.0548;
325.5000;1.0045;1.0599;
325.8000;1.0037;1.0651;
326.1000;1.0037;1.0522;
326.4000;1.0045;1.0548;
326.7000;1.0037;1.0497;
327.0000;1.0045;1.0548;
327.3000;1.0085;1.0625;
327.6000;1.0037;1.0548;
327.9000;1.0028;1.0753;
328.2000;1.0102;1.0984;
328.5000;1.0037;1.0856;
328.8000;1.0012;1.0805;
329.1000;1.0037;1.0856;
329.4000;1.0037;1.0882;
329.7000;1.0020;1.0805;
330.0000;1.0012;1.0728;
330.3000;1.0037;1.0805;
330.6000;1.0053;1.0856;
330.9000;1.0045;1.0856;
331.2000;1.0061;1.0856;
331.5000;1.0061;1.0779;
331.8000;1.0053;1.0702;
332.1000;1.0037;1.0753;
332.4000;1.0053;1.0753;
332.7000;1.0037;1.0702;
333.0000;1.0037;1.0625;
333.3000;1.0028;1.0651;
333.6000;1.0037;1.0753;
333.9000;1.0037;1.0728;
334.2000;1.0045;1.0882;
334.5000;1.0028;1.0753;
334.8000;1.0037;1.0830;
335.1000;1.0053;1.0779;
335.4000;1.0045;1.0805;
335.7000;1.0045;1.0805;
336.0000;1.0037;1.0830;
336.3000;1.0110;1.0933;
336.6000;1.0045;1.0856;
336.9000;1.0037;1.0933;
337.2000;1.0012;1.0907;
337.5000;0.9996;1.0933;
337.8000;1.0028;1.1036;
338.1000;1.0045;1.1010;
338.4000;0.9980;1.0779;
338.7000;1.0053;1.1036;
339.0000;1.0020;1.0984;
339.3000;1.0012;1.0933;
339.6000;1.0020;1.0856;
339.9000;1.0012;1.0779;
340.2000;1.0020;1.0753;
340.5000;1.0053;1.0805;
340.8000;1.0037;1.0753;
341.1000;1.0045;1.0728;
341.4000;1.0053;1.0779;
341.7000;1.0037;1.0625;
342.0000;1.0045;1.0625;
342.3000;1.0045;1.0651;
342.6000;1.0077;1.0753;
342.9000;1.0061;1.0805;
343.2000;1.0037;1.0651;
343.5000;1.0045;1.0676;
343.8000;1.0053;1.0599;
344.1000;1.0053;1.0651;
344.4000;1.0037;1.0651;
344.7000;1.0037;1.0599;
345.0000;1.0020;1.0625;
345.3000;1.0037;1.0625;
345.6000;1.0077;1.0779;
345.9000;1.0037;1.0599;
346.2000;1.0061;1.0728;
346.5000;1.0037;1.0702;
346.8000;1.0028;1.0625;
347.1000;1.0061;1.0753;
347.4000;0.9972;1.0574;
347.7000;1.0037;1.0805;
348.0000;1.0028;1.0805;
348.3000;1.0004;1.0830;
348.6000;1.0028;1.0933;
348.9000;1.0061;1.0984;
349.2000;1.0028;1.0856;
349.5000;1.0028;1.0882;
349.8000;1.0037;1.0907;
350.1000;1.0012;1.0856;
350.4000;1.0037;1.0933;
350.7000;1.0028;1.0882;
351.0000;1.0020;1.0959;
351.3000;1.0004;1.0933;
351.6000;1.0037;1.1036;
351.9000;1.0069;1.1036;
352.2000;1.0045;1.0984;
352.5000;1.0053;1.1010;
352.8000;1.0053;1.1036;
353.1000;1.0028;1.0907;
353.4000;1.0037;1.0907;
353.7000;1.0037;1.0882;
354.0000;1.0020;1.0830;
354.3000;1.0028;1.0830;
354.6000;1.0020;1.0753;
354.9000;1.0028;1.0702;
355.2000;1.0028;1.0676;
355.5000;1.0020;1.0702;
355.8000;1.0077;1.0856;
356.1000;1.0061;1.0805;
356.4000;1.0085;1.0882;
356.7000;1.0037;1.0702;
357.0000;1.0037;1.0728;
357.3000;1.0094;1.0830;
357.6000;1.0012;1.0779;
357.9000;1.0037;1.0907;
358.2000;1.0037;1.0933;
358.5000;1.0012;1.0856;
358.8000;1.0020;1.0779;
359.1000;1.0012;1.0856;
359.4000;1.0028;1.0856;
359.7000;1.0012;1.0728;
360.0000;0.9988;1.0702;
360.3000;1.0037;1.0805;
360.6000;1.0045;1.0805;
360.9000;1.0028;1.0702;
361.2000;1.0037;1.0702;
361.5000;1.0045;1.0728;
361.8000;1.0037;1.0676;
362.1000;0.9988;1.0651;
362.4000;1.0004;1.0753;
362.7000;1.0069;1.0933;
363.0000;1.0012;1.0856;
363.3000;1.0020;1.0856;
363.6000;0.9996;1.0574;
363.9000;1.0012;1.0574;
364.2000;1.0020;1.0676;
364.5000;1.0045;1.0676;
364.8000;1.0028;1.0625;
365.1000;1.0020;1.0625;
365.4000;1.0085;1.0753;
365.7000;1.0012;1.0625;
366.0000;1.0020;1.0625;
366.3000;1.0037;1.0702;
366.6000;1.0045;1.0753;
366.9000;1.0012;1.0676;
367.2000;1.0037;1.0753;
367.5000;1.0028;1.0702;
367.8000;1.0028;1.0728;
368.1000;1.0045;1.0779;
368.4000;1.0028;1.0779;
368.7000;1.0037;1.0805;
369.0000;1.0045;1.0676;
369.3000;1.0053;1.0702;
369.6000;1.0004;1.0548;
369.9000;1.0037;1.0548;
370.2000;1.0028;1.0574;
370.5000;1.0045;1.0651;
370.8000;1.0037;1.0625;
371.1000;1.0053;1.0599;
371.4000;1.0045;1.0625;
371.7000;1.0061;1.0574;
372.0000;1.0028;1.0497;
372.3000;1.0045;1.0548;
372.6000;1.0012;1.0651;
372.9000;1.0020;1.0779;
373.2000;1.0020;1.0728;
373.5000;1.0020;1.0753;
373.8000;0.9996;1.0676;
374.1000;1.0020;1.0651;
374.4000;1.0020;1.0702;
374.7000;1.0004;1.0728;
375.0000;0.9996;1.0599;
375.3000;1.0020;1.0676;
375.6000;1.0012;1.0599;
375.9000;1.0045;1.0805;
376.2000;1.0037;1.0779;
376.5000;1.0053;1.0830;
376.8000;1.0045;1.0907;
377.1000;1.0028;1.0933;
377.4000;1.0012;1.0856;
377.7000;1.0004;1.0779;
378.0000;1.0045;1.0805;
378.3000;1.0037;1.0779;
378.6000;1.0037;1.0805;
378.9000;0.9996;1.0728;
379.2000;1.0045;1.0830;
379.5000;1.0028;1.0830;
379.8000;1.0020;1.0805;
380.1000;0.9988;1.0728;
380.4000;1.0061;1.0907;
380.7000;1.0037;1.0805;
381.0000;1.0028;1.0753;
381.3000;1.0045;1.0753;
381.6000;1.0028;1.0728;
381.9000;1.0037;1.0779;
382.2000;1.0028;1.0830;
382.5000;1.0045;1.0882;
382.8000;1.0037;1.0882;
383.1000;1.0045;1.0933;
383.4000;0.9996;1.0882;
383.7000;0.9996;1.0830;
384.0000;1.0020;1.0779;
384.3000;0.9996;1.0702;
384.6000;1.0020;1.0702;
384.9000;1.0028;1.0779;
385.2000;1.0012;1.0779;
385.5000;1.0004;1.0728;
385.8000;1.0028;1.0805;
386.1000;1.0037;1.0830;
386.4000;1.0126;1.1138;
386.7000;0.9996;1.0805;
387.0000;1.0020;1.0856;
387.3000;1.0037;1.0882;
387.6000;1.0037;1.0856;
387.9000;1.0028;1.0984;
388.2000;1.0037;1.0959;
388.5000;1.0045;1.0882;
388.8000;1.0020;1.0805;
389.1000;1.0012;1.0702;
389.4000;0.9996;1.0676;
389.7000;1.0037;1.0702;
390.0000;1.0037;1.0676;
390.3000;1.0028;1.0625;
390.6000;1.0028;1.0651;
390.9000;1.0037;1.0651;
391.2000;1.0037;1.0651;
391.5000;1.0037;1.0625;
391.8000;1.0020;1.0728;
392.1000;1.0053;1.0805;
392.4000;1.0045;1.0830;
392.7000;1.0045;1.0779;
393.0000;1.0037;1.0805;
393.3000;1.0037;1.0805;
393.6000;1.0037;1.0651;
393.9000;1.0037;1.0651;
394.2000;1.0004;1.0651;
394.5000;1.0020;1.0676;
394.8000;1.0028;1.0676;
395.1000;1.0012;1.0497;
395.4000;1.0012;1.0394;
395.7000;1.0012;1.0471;
396.0000;0.9980;1.0471;
396.3000;0.9996;1.0574;
396.6000;1.0004;1.0676;
396.9000;1.0020;1.0805;
397.2000;1.0020;1.0779;
397.5000;1.0020;1.0753;
397.8000;1.0004;1.0676;
398.1000;0.9963;1.0625;
398.4000;1.0028;1.0882;
398.7000;1.0020;1.0907;
399.0000;0.9980;1.0805;
399.3000;1.0020;1.0907;
399.6000;1.0028;1.0856;
399.9000;1.0028;1.0856;
400.2000;1.0053;1.1036;
400.5000;1.0020;1.0933;
400.8000;1.0028;1.0882;
401.1000;1.0037;1.0933;
401.4000;1.0037;1.0959;
401.7000;1.0012;1.0805;
402.0000;1.0004;1.0702;
402.3000;1.0012;1.0779;
402.6000;1.0045;1.0856;
402.9000;1.0037;1.0959;
403.2000;0.9980;1.0830;
403.5000;1.0004;1.0882;
403.8000;1.0004;1.0882;
404.1000;1.0012;1.0856;
404.4000;1.0012;1.0753;
404.7000;0.9988;1.0805;
405.0000;1.0020;1.0882;
405.3000;0.9980;1.0805;
405.6000;0.9996;1.0805;
405.9000;1.0028;1.0856;
406.2000;1.0012;1.0856;
406.5000;1.0020;1.0959;
406.8000;1.0020;1.0959;
407.1000;1.0004;1.0959;
407.4000;1.0012;1.0959;
407.7000;1.0045;1.0984;
408.0000;1.0020;1.0856;
408.3000;1.0037;1.0882;
408.6000;1.0012;1.0830;
408.9000;1.0012;1.0933;
409.2000;1.0012;1.1061;
409.5000;0.9996;1.0984;
409.8000;1.0020;1.0933;
410.1000;1.0004;1.0933;
410.4000;0.9996;1.0933;
410.7000;1.0012;1.0933;
411.0000;1.0012;1.0856;
411.3000;1.0028;1.0882;
411.6000;1.0028;1.0907;
411.9000;1.0004;1.0856;
412.2000;1.0004;1.0882;
412.5000;1.0012;1.0856;
412.8000;0.9955;1.0805;
413.1000;0.9996;1.0907;
413.4000;1.0020;1.0882;
413.7000;1.0028;1.0907;
414.0000;1.0020;1.0830;
414.3000;1.0004;1.0753;
414.6000;1.0020;1.0753;
414.9000;1.0037;1.0805;
415.2000;1.0020;1.0676;
415.5000;1.0004;1.0522;
415.8000;1.0028;1.0599;
416.1000;1.0028;1.0702;
416.4000;1.0037;1.0856;
416.7000;1.0020;1.0753;
417.0000;1.0069;1.0882;
417.3000;1.0045;1.0830;
417.6000;1.0069;1.0933;
417.9000;1.0020;1.0805;
418.2000;1.0045;1.0856;
418.5000;1.0020;1.0830;
418.8000;1.0028;1.0779;
419.1000;0.9947;1.0599;
419.4000;1.0004;1.0779;
419.7000;1.0012;1.0779;
420.0000;1.0012;1.0779;
420.3000;0.9996;1.0702;
420.6000;1.0004;1.0728;
420.9000;0.9988;1.0625;
421.2000;0.9996;1.0599;
421.5000;1.0020;1.0599;
421.8000;1.0004;1.0676;
422.1000;1.0012;1.0753;
422.4000;1.0004;1.0676;
422.7000;1.0028;1.0702;
423.0000;1.0061;1.0702;
423.3000;0.9996;1.0574;
423.6000;1.0028;1.0599;
423.9000;1.0069;1.0651;
424.2000;1.0037;1.0599;
424.5000;1.0020;1.0625;
424.8000;1.0028;1.0728;
425.1000;1.0020;1.0728;
425.4000;1.0028;1.0728;
425.7000;1.0004;1.0753;
426.0000;1.0020;1.0805;
426.3000;1.0028;1.0856;
426.6000;1.0012;1.0882;
426.9000;1.0012;1.0830;
427.2000;1.0012;1.0882;
427.5000;1.0012;1.1010;
427.8000;1.0037;1.1010;
428.1000;1.0012;1.0984;
428.4000;1.0020;1.0959;
428.7000;1.0028;1.1036;
429.0000;1.0012;1.0933;
429.3000;0.9955;1.0728;
429.6000;1.0012;1.0907;
429.9000;1.0012;1.0882;
430.2000;1.0004;1.0959;
430.5000;1.0020;1.0959;
430.8000;1.0028;1.0933;
431.1000;1.0012;1.0933;
431.4000;1.0037;1.0907;
431.7000;1.0037;1.0984;
432.0000;1.0020;1.0882;
432.3000;1.0012;1.0856;
432.6000;0.9996;1.0779;
432.9000;1.0020;1.0933;
433.2000;1.0028;1.0933;
433.5000;1.0012;1.0933;
433.8000;1.0012;1.0779;
434.1000;1.0020;1.0830;
434.4000;1.0061;1.0959;
434.7000;1.0004;1.0702;
435.0000;1.0004;1.0599;
435.3000;1.0020;1.0625;
435.6000;1.0020;1.0702;
435.9000;0.9988;1.0753;
436.2000;0.9980;1.0702;
436.5000;1.0061;1.0959;
436.8000;1.0012;1.0805;
437.1000;1.0020;1.0728;
437.4000;1.0004;1.0702;
437.7000;1.0053;1.0805;
438.0000;1.0004;1.0702;
438.3000;1.0020;1.0728;
438.6000;1.0012;1.0728;
438.9000;1.0012;1.0702;
439.2000;1.0004;1.0651;
439.5000;1.0028;1.0779;
439.8000;1.0020;1.0728;
440.1000;0.9996;1.0599;
440.4000;1.0028;1.0574;
440.7000;1.0004;1.0471;
441.0000;1.0004;1.0445;
441.3000;1.0012;1.0574;
441.6000;0.9955;1.0522;
441.9000;1.0012;1.0625;
442.2000;1.0012;1.0651;
442.5000;1.0053;1.0728;
442.8000;0.9988;1.0522;
443.1000;1.0004;1.0471;
443.4000;1.0012;1.0522;
443.7000;1.0012;1.0497;
444.0000;1.0004;1.0651;
444.3000;1.0020;1.0779;
444.6000;1.0020;1.0856;
444.9000;0.9996;1.0779;
445.2000;0.9988;1.0753;
445.5000;0.9996;1.0753;
445.8000;1.0061;1.0856;
446.1000;1.0012;1.0779;
446.4000;0.9996;1.0805;
446.7000;1.0004;1.0882;
447.0000;1.0012;1.0805;
447.3000;0.9988;1.0728;
447.6000;1.0020;1.0830;
447.9000;1.0028;1.0805;
448.2000;1.0020;1.0728;
448.5000;1.0004;1.0702;
448.8000;0.9996;1.0753;
449.1000;1.0012;1.0728;
449.4000;1.0012;1.0702;
449.7000;1.0020;1.0753;
450.0000;1.0012;1.0676;
450.3000;1.0037;1.0779;
450.6000;1.0012;1.0805;
450.9000;1.0012;1.0805;
451.2000;0.9963;1.0599;
451.5000;0.9996;1.0779;
451.8000;1.0020;1.0856;
452.1000;1.0020;1.0907;
452.4000;1.0028;1.0830;
452.7000;1.0012;1.0805;
453.0000;1.0012;1.0779;
453.3000;1.0020;1.0753;
453.6000;0.9980;1.0753;
453.9000;1.0012;1.0959;
454.2000;1.0020;1.0984;
454.5000;1.0037;1.1010;
454.8000;1.0037;1.0959;
455.1000;1.0012;1.0959;
455.4000;1.0012;1.1061;
455.7000;0.9988;1.0984;
456.0000;1.0012;1.1010;
456.3000;1.0004;1.1010;
456.6000;0.9988;1.0984;
456.9000;0.9996;1.1010;
457.2000;0.9996;1.1010;
457.5000;0.9980;1.1036;
457.8000;1.0037;1.1113;
458.1000;1.0004;1.1010;
458.4000;0.9988;1.0907;
458.7000;1.0020;1.0830;
459.0000;1.0012;1.0856;
459.3000;1.0020;1.0959;
459.6000;1.0020;1.1010;
459.9000;0.9980;1.0856;
460.2000;0.9988;1.0856;
460.5000;0.9996;1.0933;
460.8000;1.0004;1.0933;
461.1000;1.0061;1.1113;
461.4000;1.0012;1.0882;
461.7000;1.0004;1.0882;
462.0000;1.0012;1.0907;
462.3000;1.0012;1.0933;
462.6000;1.0004;1.0959;
462.9000;1.0045;1.0984;
463.2000;1.0012;1.0830;
463.5000;1.0020;1.0856;
463.8000;0.9980;1.0728;
464.1000;1.0012;1.0753;
464.4000;1.0004;1.0625;
464.7000;1.0102;1.0882;
465.0000;1.0004;1.0651;
465.3000;0.9996;1.0651;
465.6000;0.9996;1.0702;
465.9000;0.9996;1.0779;
466.2000;1.0012;1.0779;
466.5000;0.9980;1.0728;
466.8000;0.9980;1.0676;
467.1000;0.9988;1.0702;
467.4000;1.0004;1.0651;
467.7000;1.0004;1.0651;
468.0000;1.0004;1.0702;
468.3000;1.0012;1.0625;
468.6000;1.0028;1.0599;
468.9000;1.0126;1.0830;
469.2000;1.0020;1.0574;
469.5000;1.0037;1.0753;
469.8000;1.0045;1.0830;
470.1000;1.0012;1.0805;
470.4000;1.0020;1.0805;
470.7000;0.9980;1.0805;
471.0000;0.9923;1.0599;
471.3000;0.9996;1.0753;
471.6000;1.0004;1.0702;
471.9000;0.9988;1.0728;
472.2000;0.9980;1.0625;
472.5000;1.0085;1.0907;
472.8000;0.9955;1.0651;
473.1000;0.9996;1.0830;
473.4000;0.9996;1.0830;
473.7000;1.0028;1.0856;
474.0000;0.9988;1.0728;
474.3000;1.0012;1.0702;
474.6000;0.9996;1.0651;
474.9000;0.9996;1.0805;
475.2000;0.9996;1.0805;
475.5000;1.0045;1.1010;
475.8000;0.9996;1.0933;
476.1000;0.9996;1.0882;
476.4000;1.0004;1.0933;
476.7000;0.9996;1.0805;
477.0000;0.9988;1.0702;
477.3000;1.0004;1.0702;
477.6000;0.9980;1.0599;
477.9000;1.0004;1.0702;
478.2000;0.9996;1.0805;
478.5000;1.0004;1.0805;
478.8000;0.9980;1.0728;
479.1000;0.9980;1.0574;
479.4000;1.0012;1.0676;
479.7000;0.9915;1.0445;
480.0000;1.0053;1.0779;
480.3000;1.0004;1.0676;
480.6000;0.9996;1.0779;
480.9000;0.9996;1.0779;
481.2000;1.0004;1.0779;
481.5000;1.0012;1.0856;
481.8000;1.0004;1.0702;
482.1000;0.9972;1.0522;
482.4000;1.0004;1.0599;
482.7000;1.0028;1.0676;
483.0000;1.0012;1.0574;
483.3000;0.9988;1.0548;
483.6000;0.9980;1.0651;
483.9000;1.0004;1.0702;
484.2000;1.0004;1.0805;
484.5000;1.0004;1.0805;
484.8000;1.0020;1.0856;
485.1000;1.0020;1.0830;
485.4000;1.0012;1.0856;
485.7000;1.0004;1.0779;
486.0000;1.0004;1.0753;
486.3000;0.9988;1.0728;
486.6000;1.0020;1.0728;
486.9000;1.0004;1.0599;
487.2000;0.9988;1.0651;
487.5000;0.9996;1.0676;
487.8000;1.0004;1.0728;
488.1000;0.9996;1.0805;
488.4000;1.0004;1.0856;
488.7000;0.9939;1.0702;
489.0000;1.0004;1.0830;
489.3000;1.0037;1.0856;
489.6000;1.0004;1.0805;
489.9000;0.9955;1.0651;
490.2000;1.0012;1.0753;
490.5000;0.9996;1.0753;
490.8000;1.0012;1.0676;
491.1000;1.0004;1.0625;
491.4000;0.9996;1.0651;
491.7000;0.9996;1.0676;
492.0000;0.9988;1.0599;
492.3000;0.9988;1.0548;
492.6000;0.9996;1.0625;
492.9000;0.9988;1.0676;
493.2000;0.9996;1.0625;
493.5000;0.9988;1.0702;
493.8000;0.9955;1.0574;
494.1000;1.0012;1.0625;
494.4000;1.0020;1.0574;
494.7000;1.0004;1.0574;
495.0000;0.9996;1.0574;
495.3000;1.0028;1.0676;
495.6000;0.9996;1.0651;
495.9000;0.9972;1.0676;
496.2000;1.0004;1.0753;
496.5000;1.0020;1.0779;
496.8000;1.0012;1.0702;
497.1000;0.9996;1.0676;
497.4000;0.9963;1.0651;
497.7000;1.0004;1.0856;
498.0000;0.9996;1.0753;
498.3000;0.9988;1.0728;
498.6000;0.9988;1.0702;
498.9000;0.9988;1.0676;
499.2000;0.9996;1.0702;
499.5000;0.9972;1.0625;
499.8000;1.0004;1.0779;
500.1000;0.9996;1.0676;
500.4000;0.9996;1.0625;
500.7000;0.9996;1.0599;
501.0000;1.0004;1.0599;
501.3000;0.9988;1.0548;
501.6000;0.9980;1.0625;
501.9000;1.0012;1.0676;
502.2000;1.0012;1.0728;
502.5000;0.9996;1.0676;
502.8000;1.0004;1.0651;
503.1000;0.9996;1.0702;
503.4000;0.9996;1.0753;
503.7000;0.9996;1.0753;
504.0000;0.9988;1.0779;
504.3000;0.9988;1.0728;
504.6000;0.9996;1.0651;
504.9000;0.9996;1.0728;
505.2000;0.9988;1.0702;
505.5000;0.9988;1.0676;
505.8000;0.9996;1.0625;
506.1000;0.9988;1.0651;
506.4000;1.0004;1.0676;
506.7000;0.9996;1.0676;
507.0000;1.0045;1.0882;
507.3000;0.9996;1.0779;
507.6000;1.0004;1.0676;
507.9000;1.0004;1.0651;
508.2000;0.9996;1.0702;
508.5000;0.9963;1.0574;
508.8000;1.0020;1.0676;
509.1000;0.9996;1.0599;
509.4000;1.0012;1.0728;
509.7000;0.9988;1.0651;
510.0000;1.0004;1.0702;
510.3000;1.0004;1.0651;
510.6000;1.0020;1.0753;
510.9000;0.9947;1.0599;
511.2000;0.9988;1.0574;
511.5000;1.0020;1.0599;
511.8000;1.0004;1.0548;
512.1000;1.0012;1.0599;
512.4000;0.9988;1.0574;
512.7000;1.0037;1.0702;
513.0000;0.9988;1.0651;
513.3000;1.0037;1.0779;
513.6000;0.9996;1.0599;
513.9000;0.9972;1.0548;
514.2000;0.9996;1.0625;
514.5000;0.9996;1.0728;
514.8000;1.0012;1.0907;
515.1000;0.9996;1.0830;
515.4000;0.9988;1.0882;
515.7000;0.9972;1.0856;
516.0000;0.9939;1.0753;
516.3000;0.9980;1.0728;
516.6000;0.9980;1.0702;
516.9000;0.9988;1.0625;
517.2000;0.9988;1.0625;
517.5000;0.9996;1.0574;
517.8000;1.0004;1.0574;
518.1000;0.9996;1.0599;
518.4000;1.0004;1.0651;
518.7000;0.9996;1.0676;
519.0000;0.9988;1.0625;
519.3000;0.9980;1.0599;
519.6000;0.9988;1.0676;
519.9000;1.0004;1.0702;
520.2000;1.0004;1.0651;
520.5000;0.9988;1.0625;
520.8000;0.9996;1.0599;
521.1000;0.9996;1.0574;
521.4000;0.9996;1.0599;
521.7000;1.0004;1.0599;
522.0000;0.9988;1.0497;
522.3000;1.0004;1.0497;
522.6000;0.9980;1.0548;
522.9000;0.9996;1.0574;
523.2000;0.9996;1.0522;
523.5000;0.9996;1.0522;
523.8000;1.0012;1.0574;
524.1000;0.9988;1.0548;
524.4000;0.9996;1.0574;
524.7000;0.9980;1.0574;
525.0000;0.9988;1.0676;
525.3000;0.9988;1.0651;
525.6000;0.9963;1.0625;
525.9000;0.9972;1.0728;
526.2000;0.9972;1.0702;
526.5000;0.9980;1.0779;
526.8000;0.9988;1.0805;
527.1000;0.9980;1.0702;
527.4000;1.0020;1.0856;
527.7000;0.9988;1.0856;
528.0000;0.9963;1.0856;
528.3000;0.9972;1.0779;
528.6000;1.0004;1.0907;
528.9000;0.9972;1.0753;
529.2000;0.9988;1.0728;
529.5000;0.9955;1.0651;
529.8000;1.0004;1.0728;
530.1000;0.9988;1.0728;
530.4000;0.9980;1.0651;
530.7000;0.9972;1.0599;
531.0000;0.9988;1.0676;
531.3000;0.9988;1.0702;
531.6000;0.9972;1.0779;
531.9000;0.9980;1.0753;
532.2000;1.0053;1.0907;
532.5000;0.9980;1.0779;
532.8000;0.9963;1.0753;
533.1000;0.9963;1.0702;
533.4000;0.9972;1.0728;
533.7000;0.9923;1.0599;
534.0000;0.9988;1.0779;
534.3000;0.9972;1.0753;
534.6000;0.9972;1.0753;
534.9000;0.9931;1.0676;
535.2000;0.9988;1.0676;
535.5000;1.0004;1.0676;
535.8000;0.9972;1.0599;
536.1000;0.9988;1.0651;
536.4000;0.9980;1.0651;
536.7000;0.9980;1.0599;
537.0000;0.9972;1.0651;
537.3000;0.9988;1.0625;
537.6000;0.9988;1.0676;
537.9000;0.9947;1.0497;
538.2000;0.9980;1.0676;
538.5000;0.9980;1.0651;
538.8000;0.9980;1.0702;
539.1000;1.0020;1.0779;
539.4000;1.0020;1.0830;
539.7000;0.9988;1.0676;
540.0000;0.9931;1.0599;
540.3000;0.9996;1.0676;
540.6000;0.9972;1.0651;
540.9000;0.9988;1.0728;
541.2000;0.9988;1.0779;
541.5000;1.0012;1.0856;
541.8000;0.9939;1.0651;
542.1000;0.9980;1.0779;
542.4000;0.9988;1.0753;
542.7000;0.9988;1.0830;
543.0000;0.9955;1.0676;
543.3000;0.9972;1.0702;
543.6000;0.9980;1.0805;
543.9000;1.0037;1.1010;
544.2000;0.9988;1.0882;
544.5000;0.9996;1.0856;
544.8000;0.9980;1.0805;
545.1000;0.9996;1.0907;
545.4000;0.9988;1.0907;
545.7000;1.0004;1.0933;
546.0000;0.9988;1.0907;
546.3000;0.9988;1.0856;
546.6000;0.9988;1.0882;
546.9000;1.0037;1.0933;
547.2000;0.9988;1.0856;
547.5000;1.0012;1.0882;
547.8000;1.0028;1.0882;
548.1000;0.9996;1.0856;
548.4000;0.9996;1.0753;
548.7000;0.9996;1.0702;
549.0000;0.9996;1.0651;
549.3000;0.9980;1.0651;
549.6000;1.0020;1.0830;
549.9000;0.9988;1.0651;
550.2000;0.9988;1.0728;
550.5000;1.0020;1.0805;
550.8000;0.9972;1.0676;
551.1000;1.0069;1.0753;
551.4000;0.9988;1.0574;
551.7000;0.9972;1.0548;
552.0000;0.9988;1.0676;
552.3000;0.9988;1.0728;
552.6000;1.0061;1.0856;
552.9000;1.0012;1.0856;
553.2000;0.9996;1.0728;
553.5000;0.9972;1.0702;
553.8000;1.0012;1.0856;
554.1000;0.9988;1.0728;
554.4000;1.0020;1.0753;
554.7000;0.9988;1.0625;
555.0000;0.9963;1.0471;
555.3000;0.9980;1.0574;
555.6000;1.0004;1.0548;
555.9000;0.9988;1.0445;
556.2000;0.9988;1.0420;
556.5000;0.9996;1.0548;
556.8000;1.0012;1.0599;
557.1000;0.9963;1.0522;
557.4000;0.9963;1.0548;
557.7000;0.9972;1.0599;
558.0000;0.9988;1.0728;
558.3000;0.9988;1.0728;
558.6000;0.9972;1.0753;
558.9000;0.9963;1.0753;
559.2000;0.9988;1.0805;
559.5000;0.9972;1.0702;
559.8000;0.9980;1.0651;
560.1000;0.9963;1.0599;
560.4000;0.9988;1.0625;
560.7000;0.9988;1.0625;
561.0000;0.9955;1.0548;
561.3000;0.9988;1.0651;
561.6000;0.9980;1.0651;
561.9000;0.9988;1.0728;
562.2000;0.9988;1.0728;
562.5000;0.9988;1.0856;
562.8000;0.9972;1.0856;
563.1000;0.9972;1.0805;
563.4000;0.9972;1.0779;
563.7000;0.9955;1.0805;
564.0000;0.9996;1.0805;
564.3000;0.9963;1.0728;
564.6000;0.9972;1.0728;
564.9000;0.9947;1.0625;
565.2000;0.9980;1.0702;
565.5000;0.9972;1.0702;
565.8000;1.0028;1.0753;
566.1000;0.9996;1.0805;
566.4000;0.9972;1.0702;
566.7000;0.9972;1.0830;
567.0000;0.9988;1.0805;
567.3000;0.9988;1.0856;
567.6000;0.9972;1.0753;
567.9000;0.9947;1.0753;
568.2000;0.9972;1.0702;
568.5000;0.9890;1.0497;
568.8000;0.9955;1.0625;
569.1000;0.9955;1.0548;
569.4000;1.0077;1.0856;
569.7000;0.9996;1.0676;
570.0000;0.9972;1.0651;
570.3000;0.9963;1.0702;
570.6000;0.9963;1.0625;
570.9000;0.9996;1.0728;
571.2000;0.9972;1.0651;
571.5000;0.9939;1.0522;
571.8000;0.9988;1.0599;
572.1000;0.9988;1.0728;
572.4000;0.9955;1.0651;
572.7000;0.9963;1.0625;
573.0000;0.9923;1.0548;
573.3000;0.9980;1.0753;
573.6000;0.9923;1.0651;
573.9000;0.9963;1.0753;
574.2000;0.9980;1.0779;
574.5000;0.9980;1.0805;
574.8000;1.0045;1.0882;
575.1000;0.9963;1.0702;
575.4000;0.9980;1.0753;
575.7000;0.9963;1.0702;
576.0000;0.9988;1.0753;
576.3000;0.9972;1.0753;
576.6000;0.9996;1.0830;
576.9000;0.9988;1.0805;
577.2000;0.9988;1.0805;
577.5000;0.9972;1.0753;
577.8000;0.9980;1.0779;
578.1000;0.9980;1.0830;
578.4000;0.9980;1.0728;
578.7000;0.9980;1.0728;
579.0000;0.9947;1.0625;
579.3000;0.9980;1.0651;
579.6000;0.9972;1.0779;
579.9000;0.9980;1.0753;
580.2000;0.9988;1.0856;
580.5000;0.9972;1.0779;
580.8000;0.9988;1.0933;
581.1000;0.9980;1.0984;
581.4000;0.9955;1.0805;
581.7000;1.0012;1.0805;
582.0000;0.9988;1.0676;
582.3000;0.9939;1.0574;
582.6000;1.0012;1.0779;
582.9000;0.9972;1.0625;
583.2000;0.9939;1.0599;
583.5000;0.9972;1.0625;
583.8000;0.9980;1.0574;
584.1000;0.9955;1.0574;
584.4000;0.9980;1.0728;
584.7000;0.9980;1.0753;
585.0000;0.9988;1.0702;
585.3000;0.9980;1.0651;
585.6000;1.0004;1.0753;
585.9000;0.9939;1.0599;
586.2000;0.9972;1.0728;
586.5000;0.9972;1.0805;
586.8000;0.9988;1.0805;
587.1000;0.9972;1.0753;
587.4000;0.9980;1.0728;
587.7000;0.9980;1.0753;
588.0000;0.9963;1.0728;
588.3000;0.9906;1.0625;
588.6000;0.9939;1.0728;
588.9000;0.9972;1.0805;
589.2000;0.9955;1.0676;
589.5000;0.9947;1.0548;
589.8000;0.9980;1.0753;
590.1000;0.9963;1.0779;
590.4000;0.9963;1.0728;
590.7000;0.9955;1.0728;
591.0000;0.9980;1.0779;
591.3000;1.0012;1.0805;
591.6000;0.9980;1.0702;
591.9000;0.9972;1.0805;
592.2000;0.9988;1.0882;
592.5000;0.9947;1.0882;
592.8000;0.9955;1.0882;
593.1000;0.9988;1.1113;
593.4000;0.9963;1.0984;
593.7000;0.9988;1.0882;
594.0000;0.9980;1.0753;
594.3000;0.9955;1.0625;
594.6000;1.0028;1.0856;
594.9000;0.9963;1.0651;
595.2000;1.0061;1.0882;
595.5000;0.9963;1.0625;
595.8000;0.9955;1.0651;
596.1000;0.9955;1.0702;
596.4000;0.9980;1.0856;
596.7000;0.9947;1.0753;
597.0000;0.9996;1.0805;
597.3000;0.9972;1.0753;
597.6000;0.9947;1.0702;
597.9000;0.9963;1.0753;
598.2000;0.9947;1.0830;
598.5000;0.9955;1.0882;
598.8000;0.9963;1.0805;
599.1000;0.9963;1.0625;
599.4000;0.9963;1.0599;
599.7000;0.9947;1.0574;
600.0000;0.9963;1.0574;
600.3000;0.9963;1.0471;
600.6000;0.9963;1.0343;
600.9000;0.9923;1.0240;
601.2000;0.9882;1.0112;
601.5000;0.9833;1.0086;
601.8000;0.9727;0.9855;
602.1000;0.9630;0.9675;
602.4000;0.9597;0.9573;
602.7000;0.9491;0.9342;
603.0000;0.9451;0.9290;
603.3000;0.9337;0.9162;
603.6000;0.9271;0.8931;
603.9000;0.9214;0.8854;
604.2000;0.9125;0.8726;
604.5000;0.9052;0.8623;
604.8000;0.9011;0.8700;
605.1000;0.8954;0.8674;
605.4000;0.8913;0.8623;
605.7000;0.8840;0.8444;
606.0000;0.8775;0.8341;
606.3000;0.8718;0.8213;
606.6000;0.8685;0.8084;
606.9000;0.8628;0.8059;
607.2000;0.8588;0.8033;
607.5000;0.8563;0.8033;
607.8000;0.8514;0.8033;
608.1000;0.8441;0.8059;
608.4000;0.8417;0.8033;
608.7000;0.8352;0.7956;
609.0000;0.8311;0.7802;
609.3000;0.8278;0.7725;
609.6000;0.8221;0.7674;
609.9000;0.8270;0.7828;
610.2000;0.8189;0.7725;
610.5000;0.8164;0.7751;
610.8000;0.8067;0.7443;
611.1000;0.8075;0.7545;
611.4000;0.8034;0.7545;
611.7000;0.8026;0.7520;
612.0000;0.7912;0.7314;
612.3000;0.7937;0.7468;
612.6000;0.7928;0.7468;
612.9000;0.7920;0.7520;
613.2000;0.7863;0.7417;
613.5000;0.7839;0.7494;
613.8000;0.7782;0.7443;
614.1000;0.7774;0.7520;
614.4000;0.7692;0.7468;
614.7000;0.7692;0.7520;
615.0000;0.7668;0.7520;
615.3000;0.7635;0.7494;
615.6000;0.7611;0.7545;
615.9000;0.7595;0.7571;
616.2000;0.7562;0.7545;
616.5000;0.7554;0.7520;
616.8000;0.7546;0.7571;
617.1000;0.7505;0.7443;
617.4000;0.7481;0.7314;
617.7000;0.7456;0.7263;
618.0000;0.7424;0.7314;
618.3000;0.7407;0.7366;
618.6000;0.7367;0.7314;
618.9000;0.7359;0.7340;
619.2000;0.7350;0.7340;
619.5000;0.7318;0.7135;
619.8000;0.7318;0.7237;
620.1000;0.7269;0.7135;
620.4000;0.7285;0.7237;
620.7000;0.7212;0.7109;
621.0000;0.7220;0.7109;
621.3000;0.7204;0.7058;
621.6000;0.7171;0.7109;
621.9000;0.7155;0.7135;
622.2000;0.7155;0.7109;
622.5000;0.7131;0.7006;
622.8000;0.7090;0.6852;
623.1000;0.7106;0.6852;
623.4000;0.7074;0.6775;
623.7000;0.7057;0.6827;
624.0000;0.7033;0.6955;
624.3000;0.7009;0.6955;
624.6000;0.7000;0.7006;
624.9000;0.6952;0.6904;
625.2000;0.6952;0.6929;
625.5000;0.6935;0.6878;
625.8000;0.6952;0.6981;
626.1000;0.6846;0.6673;
626.4000;0.6846;0.6775;
626.7000;0.6935;0.7058;
627.0000;0.6846;0.6955;
627.3000;0.6903;0.7186;
627.6000;0.6846;0.6981;
627.9000;0.6821;0.7006;
628.2000;0.6829;0.6929;
628.5000;0.6805;0.6878;
628.8000;0.6805;0.6929;
629.1000;0.6789;0.6955;
629.4000;0.6781;0.6929;
629.7000;0.6764;0.7006;
630.0000;0.6740;0.6955;
630.3000;0.6716;0.6878;
630.6000;0.6724;0.6955;
630.9000;0.6724;0.6904;
631.2000;0.6691;0.6801;
631.5000;0.6667;0.6801;
631.8000;0.6683;0.6827;
632.1000;0.6667;0.6827;
632.4000;0.6650;0.6801;
632.7000;0.6667;0.6775;
633.0000;0.6610;0.6724;
633.3000;0.6610;0.6878;
633.6000;0.6650;0.7058;
633.9000;0.6593;0.6904;
634.2000;0.6585;0.6878;
634.5000;0.6577;0.6878;
634.8000;0.6577;0.6775;
635.1000;0.6553;0.6698;
635.4000;0.6553;0.6750;
635.7000;0.6561;0.6775;
636.0000;0.6520;0.6621;
636.3000;0.6528;0.6724;
636.6000;0.6496;0.6750;
636.9000;0.6496;0.6801;
637.2000;0.6504;0.6878;
637.5000;0.6488;0.6827;
637.8000;0.6471;0.6724;
638.1000;0.6479;0.6775;
638.4000;0.6455;0.6801;
638.7000;0.6455;0.6750;
639.0000;0.6422;0.6698;
639.3000;0.6357;0.6647;
639.6000;0.6439;0.6904;
639.9000;0.6414;0.6878;
640.2000;0.6390;0.6801;
640.5000;0.6382;0.6801;
640.8000;0.6439;0.6955;
641.1000;0.6390;0.6801;
641.4000;0.6292;0.6596;
641.7000;0.6382;0.6775;
642.0000;0.6390;0.6801;
642.3000;0.6349;0.6673;
642.6000;0.6300;0.6647;
642.9000;0.6357;0.6750;
643.2000;0.6333;0.6775;
643.5000;0.6317;0.6750;
643.8000;0.6243;0.6570;
644.1000;0.6309;0.6750;
644.4000;0.6357;0.6878;
644.7000;0.6300;0.6801;
645.0000;0.6284;0.6878;
645.3000;0.6260;0.6955;
645.6000;0.6252;0.7058;
645.9000;0.6186;0.6955;
646.2000;0.6243;0.7186;
646.5000;0.6219;0.7186;
646.8000;0.6219;0.7058;
647.1000;0.6219;0.7032;
647.4000;0.6227;0.7109;
647.7000;0.6203;0.6981;
648.0000;0.6252;0.7058;
648.3000;0.6235;0.6981;
648.6000;0.6219;0.6955;
648.9000;0.6178;0.6904;
649.2000;0.6170;0.6929;
649.5000;0.6195;0.6981;
649.8000;0.6170;0.6981;
650.1000;0.6162;0.6955;
650.4000;0.6154;0.6929;
650.7000;0.6146;0.6801;
651.0000;0.6129;0.6673;
651.3000;0.6146;0.6673;
651.6000;0.6129;0.6570;
651.9000;0.6121;0.6493;
652.2000;0.6129;0.6519;
652.5000;0.6129;0.6621;
652.8000;0.6121;0.6570;
653.1000;0.6129;0.6544;
653.4000;0.6113;0.6544;
653.7000;0.6121;0.6621;
654.0000;0.6113;0.6647;
654.3000;0.6097;0.6724;
654.6000;0.6072;0.6647;
654.9000;0.6097;0.6647;
655.2000;0.6072;0.6493;
655.5000;0.6097;0.6544;
655.8000;0.6072;0.6596;
656.1000;0.6089;0.6724;
656.4000;0.6007;0.6647;
656.7000;0.6056;0.6801;
657.0000;0.6032;0.6801;
657.3000;0.6040;0.6801;
657.6000;0.6032;0.6852;
657.9000;0.6064;0.6878;
658.2000;0.6032;0.6673;
658.5000;0.6048;0.6698;
658.8000;0.6032;0.6750;
659.1000;0.6007;0.6750;
659.4000;0.6015;0.6698;
659.7000;0.6056;0.6827;
660.0000;0.6105;0.7083;
660.3000;0.6072;0.7032;
660.6000;0.6007;0.6827;
660.9000;0.5999;0.6827;
661.2000;0.6007;0.6878;
661.5000;0.5991;0.6904;
661.8000;0.5983;0.6878;
662.1000;0.5983;0.6929;
662.4000;0.5975;0.6929;
662.7000;0.5983;0.6827;
663.0000;0.5991;0.6852;
663.3000;0.5983;0.6827;
663.6000;0.5967;0.6775;
663.9000;0.5958;0.6775;
664.2000;0.5950;0.6750;
664.5000;0.5918;0.6698;
664.8000;0.5967;0.6775;
665.1000;0.5958;0.6724;
665.4000;0.5999;0.7006;
665.7000;0.5910;0.6852;
666.0000;0.5926;0.6852;
666.3000;0.5934;0.6904;
666.6000;0.5918;0.6929;
666.9000;0.5918;0.6801;
667.2000;0.5918;0.6878;
667.5000;0.5877;0.6801;
667.8000;0.5885;0.6852;
668.1000;0.5902;0.6852;
668.4000;0.5877;0.6852;
668.7000;0.5910;0.6827;
669.0000;0.5902;0.6827;
669.3000;0.5902;0.6775;
669.6000;0.5893;0.6775;
669.9000;0.5804;0.6570;
670.2000;0.5885;0.6775;
670.5000;0.5877;0.6750;
670.8000;0.5885;0.6724;
671.1000;0.5877;0.6775;
671.4000;0.5877;0.6698;
671.7000;0.5885;0.6724;
672.0000;0.5836;0.6647;
672.3000;0.5845;0.6673;
672.6000;0.5853;0.6698;
672.9000;0.5861;0.6698;
673.2000;0.5845;0.6647;
673.5000;0.5845;0.6673;
673.8000;0.5836;0.6698;
674.1000;0.5836;0.6724;
674.4000;0.5853;0.6698;
674.7000;0.5836;0.6801;
675.0000;0.5836;0.6775;
675.3000;0.5836;0.6750;
675.6000;0.5796;0.6621;
675.9000;0.5804;0.6647;
676.2000;0.5804;0.6673;
676.5000;0.5804;0.6750;
676.8000;0.5845;0.6852;
677.1000;0.5788;0.6750;
677.4000;0.5779;0.6750;
677.7000;0.5828;0.6878;
678.0000;0.5796;0.6724;
678.3000;0.5788;0.6724;
678.6000;0.5779;0.6724;
678.9000;0.5804;0.6801;
679.2000;0.5812;0.6904;
679.5000;0.5796;0.6904;
679.8000;0.5779;0.6801;
680.1000;0.5771;0.6750;
680.4000;0.5861;0.6904;
680.7000;0.5779;0.6698;
681.0000;0.5771;0.6698;
681.3000;0.5747;0.6544;
681.6000;0.5828;0.6981;
681.9000;0.5739;0.6724;
682.2000;0.5763;0.6775;
682.5000;0.5731;0.6724;
682.8000;0.5796;0.6955;
683.1000;0.5763;0.6904;
683.4000;0.5771;0.6878;
683.7000;0.5657;0.6544;
684.0000;0.5665;0.6621;
684.3000;0.5755;0.6929;
684.6000;0.5763;0.6929;
684.9000;0.5698;0.6852;
685.2000;0.5747;0.6981;
685.5000;0.5788;0.7032;
685.8000;0.5747;0.6929;
686.1000;0.5731;0.6955;
686.4000;0.5771;0.7058;
686.7000;0.5739;0.7058;
687.0000;0.5690;0.6929;
687.3000;0.5698;0.6955;
687.6000;0.5739;0.7032;
687.9000;0.5714;0.7032;
688.2000;0.5722;0.6981;
688.5000;0.5722;0.7006;
688.8000;0.5722;0.6929;
689.1000;0.5714;0.6955;
689.4000;0.5698;0.6929;
689.7000;0.5690;0.6929;
690.0000;0.5731;0.6981;
690.3000;0.5714;0.6904;
690.6000;0.5796;0.7083;
690.9000;0.5698;0.6827;
691.2000;0.5682;0.6775;
691.5000;0.5690;0.6750;
691.8000;0.5698;0.6827;
692.1000;0.5690;0.6775;
692.4000;0.5698;0.6724;
692.7000;0.5682;0.6698;
693.0000;0.5674;0.6673;
693.3000;0.5698;0.6750;
693.6000;0.5698;0.6750;
693.9000;0.5698;0.6647;
694.2000;0.5690;0.6647;
694.5000;0.5698;0.6647;
694.8000;0.5682;0.6596;
695.1000;0.5690;0.6647;
695.4000;0.5665;0.6467;
695.7000;0.5682;0.6493;
696.0000;0.5747;0.6621;
696.3000;0.5649;0.6596;
696.6000;0.5674;0.6750;
696.9000;0.5625;0.6750;
697.2000;0.5657;0.6878;
697.5000;0.5665;0.6929;
697.8000;0.5633;0.6750;
698.1000;0.5665;0.6775;
698.4000;0.5657;0.6827;
698.7000;0.5674;0.6852;
699.0000;0.5665;0.6852;
699.3000;0.5641;0.6827;
699.6000;0.5674;0.6852;
699.9000;0.5657;0.6852;
700.2000;0.5690;0.6981;
700.5000;0.5657;0.7006;
700.8000;0.5649;0.7006;
701.1000;0.5649;0.6904;
701.4000;0.5641;0.6852;
701.7000;0.5625;0.6750;
702.0000;0.5657;0.6827;
702.3000;0.5633;0.6750;
702.6000;0.5617;0.6878;
702.9000;0.5608;0.6929;
703.2000;0.5608;0.6981;
703.5000;0.5625;0.6981;
703.8000;0.5608;0.6929;
704.1000;0.5625;0.6878;
704.4000;0.5641;0.7032;
704.7000;0.5625;0.7032;
705.0000;0.5649;0.7160;
705.3000;0.5600;0.7058;
705.6000;0.5617;0.7135;
705.9000;0.5608;0.7083;
706.2000;0.5600;0.7083;
706.5000;0.5535;0.6955;
706.8000;0.5600;0.7109;
707.1000;0.5625;0.7083;
707.4000;0.5608;0.6981;
707.7000;0.5617;0.7032;
708.0000;0.5649;0.7186;
708.3000;0.5608;0.7083;
708.6000;0.5600;0.7083;
708.9000;0.5608;0.7109;
709.2000;0.5600;0.7058;
709.5000;0.5617;0.7083;
709.8000;0.5625;0.7135;
710.1000;0.5600;0.7032;
710.4000;0.5633;0.7160;
710.7000;0.5592;0.7083;
711.0000;0.5592;0.7006;
711.3000;0.5576;0.6929;
711.6000;0.5576;0.6929;
711.9000;0.5568;0.6981;
712.2000;0.5600;0.7135;
712.5000;0.5576;0.7083;
712.8000;0.5584;0.7058;
713.1000;0.5617;0.7109;
713.4000;0.5584;0.7109;
713.7000;0.5568;0.7135;
714.0000;0.5584;0.7135;
714.3000;0.5560;0.7083;
714.6000;0.5560;0.7135;
714.9000;0.5592;0.7263;
715.2000;0.5568;0.7186;
715.5000;0.5576;0.7212;
715.8000;0.5568;0.7135;
716.1000;0.5568;0.7109;
716.4000;0.5560;0.7109;
716.7000;0.5568;0.7109;
717.0000;0.5551;0.7006;
717.3000;0.5535;0.6904;
717.6000;0.5568;0.7006;
717.9000;0.5543;0.6904;
718.2000;0.5576;0.6929;
718.5000;0.5543;0.6929;
718.8000;0.5568;0.7006;
719.1000;0.5551;0.6981;
719.4000;0.5560;0.6929;
719.7000;0.5543;0.6878;
720.0000;0.5568;0.6929;
720.3000;0.5568;0.6929;
720.6000;0.5551;0.7006;
720.9000;0.5543;0.7083;
721.2000;0.5600;0.7083;
721.5000;0.5543;0.7032;
721.8000;0.5511;0.6904;
722.1000;0.5511;0.6852;
722.4000;0.5535;0.6750;
722.7000;0.5519;0.6801;
723.0000;0.5527;0.6801;
723.3000;0.5519;0.6750;
723.6000;0.5519;0.6775;
723.9000;0.5527;0.6673;
724.2000;0.5527;0.6647;
724.5000;0.5519;0.6570;
724.8000;0.5519;0.6544;
725.1000;0.5560;0.6698;
725.4000;0.5535;0.6673;
725.7000;0.5511;0.6621;
726.0000;0.5543;0.6698;
726.3000;0.5535;0.6724;
726.6000;0.5519;0.6801;
726.9000;0.5519;0.6852;
727.2000;0.5519;0.6801;
727.5000;0.5511;0.6724;
727.8000;0.5535;0.6724;
728.1000;0.5511;0.6750;
728.4000;0.5527;0.6878;
728.7000;0.5511;0.6827;
729.0000;0.5551;0.7006;
729.3000;0.5535;0.6904;
729.6000;0.5511;0.6827;
729.9000;0.5527;0.6852;
730.2000;0.5527;0.6852;
730.5000;0.5535;0.6852;
730.8000;0.5503;0.6878;
731.1000;0.5495;0.6878;
731.4000;0.5503;0.6750;
731.7000;0.5503;0.6724;
732.0000;0.5495;0.6750;
732.3000;0.5495;0.6801;
732.6000;0.5511;0.6878;
732.9000;0.5511;0.6929;
733.2000;0.5478;0.6852;
733.5000;0.5495;0.6878;
733.8000;0.5495;0.6929;
734.1000;0.5503;0.6878;
734.4000;0.5503;0.6827;
734.7000;0.5519;0.6852;
735.0000;0.5511;0.6929;
735.3000;0.5503;0.7083;
735.6000;0.5511;0.7109;
735.9000;0.5527;0.7160;
736.2000;0.5495;0.7058;
736.5000;0.5511;0.7135;
736.8000;0.5519;0.7135;
737.1000;0.5478;0.7058;
737.4000;0.5503;0.7237;
737.7000;0.5478;0.7058;
738.0000;0.5438;0.6878;
738.3000;0.5470;0.6878;
738.6000;0.5470;0.6955;
738.9000;0.5527;0.7135;
739.2000;0.5551;0.7314;
739.5000;0.5470;0.7160;
739.8000;0.5470;0.7058;
740.1000;0.5462;0.7032;
740.4000;0.5397;0.6904;
740.7000;0.5519;0.7237;
741.0000;0.5486;0.7032;
741.3000;0.5470;0.7006;
741.6000;0.5495;0.7083;
741.9000;0.5519;0.7006;
742.2000;0.5470;0.6878;
742.5000;0.5454;0.6852;
742.8000;0.5462;0.6981;
743.1000;0.5478;0.7032;
743.4000;0.5478;0.6955;
743.7000;0.5495;0.6955;
744.0000;0.5470;0.6878;
744.3000;0.5462;0.6929;
744.6000;0.5462;0.6955;
744.9000;0.5495;0.7160;
745.2000;0.5527;0.7263;
745.5000;0.5478;0.7135;
745.8000;0.5495;0.7186;
746.1000;0.5454;0.7032;
746.4000;0.5462;0.7109;
746.7000;0.5397;0.6981;
747.0000;0.5454;0.7083;
747.3000;0.5503;0.7263;
747.6000;0.5454;0.7160;
747.9000;0.5462;0.7135;
748.2000;0.5405;0.6981;
748.5000;0.5454;0.7083;
748.8000;0.5454;0.7032;
749.1000;0.5421;0.6955;
749.4000;0.5454;0.6929;
749.7000;0.5495;0.7032;
750.0000;0.5397;0.6827;
750.3000;0.5454;0.6904;
750.6000;0.5454;0.6878;
750.9000;0.5429;0.6878;
751.2000;0.5446;0.6904;
751.5000;0.5454;0.6904;
751.8000;0.5462;0.6904;
752.1000;0.5454;0.6904;
752.4000;0.5454;0.6852;
752.7000;0.5462;0.6827;
753.0000;0.5438;0.6827;
753.3000;0.5454;0.6852;
753.6000;0.5454;0.6827;
753.9000;0.5446;0.6750;
754.2000;0.5438;0.6775;
754.5000;0.5462;0.6852;
754.8000;0.5454;0.6852;
755.1000;0.5429;0.6801;
755.4000;0.5454;0.6955;
755.7000;0.5446;0.6955;
756.0000;0.5446;0.6955;
756.3000;0.5429;0.6852;
756.6000;0.5495;0.7109;
756.9000;0.5446;0.7032;
757.2000;0.5438;0.7006;
757.5000;0.5462;0.7032;
757.8000;0.5446;0.6955;
758.1000;0.5438;0.7032;
758.4000;0.5446;0.7058;
758.7000;0.5454;0.7135;
759.0000;0.5429;0.7109;
759.3000;0.5446;0.7109;
759.6000;0.5413;0.7083;
759.9000;0.5454;0.7109;
760.2000;0.5421;0.7058;
760.5000;0.5413;0.6981;
760.8000;0.5429;0.6955;
761.1000;0.5446;0.6981;
761.4000;0.5486;0.7058;
761.7000;0.5495;0.7186;
762.0000;0.5438;0.7058;
762.3000;0.5438;0.7083;
762.6000;0.5421;0.7109;
762.9000;0.5429;0.7109;
763.2000;0.5429;0.7109;
763.5000;0.5421;0.7083;
763.8000;0.5421;0.7006;
764.1000;0.5421;0.6981;
764.4000;0.5397;0.6955;
764.7000;0.5438;0.6981;
765.0000;0.5454;0.7083;
765.3000;0.5397;0.6878;
765.6000;0.5421;0.6981;
765.9000;0.5397;0.6904;
766.2000;0.5446;0.7083;
766.5000;0.5429;0.7032;
766.8000;0.5429;0.7109;
767.1000;0.5421;0.6981;
767.4000;0.5421;0.6852;
767.7000;0.5405;0.6775;
768.0000;0.5438;0.6827;
768.3000;0.5429;0.6827;
768.6000;0.5413;0.6801;
768.9000;0.5446;0.6827;
769.2000;0.5397;0.6724;
769.5000;0.5413;0.6852;
769.8000;0.5470;0.7032;
770.1000;0.5421;0.6878;
770.4000;0.5413;0.6801;
770.7000;0.5413;0.6878;
771.0000;0.5364;0.6929;
771.3000;0.5413;0.7058;
771.6000;0.5397;0.7006;
771.9000;0.5389;0.6955;
772.2000;0.5429;0.7032;
772.5000;0.5405;0.7083;
772.8000;0.5397;0.7083;
773.1000;0.5413;0.7058;
773.4000;0.5381;0.7032;
773.7000;0.5405;0.7135;
774.0000;0.5405;0.7083;
774.3000;0.5397;0.7058;
774.6000;0.5421;0.7083;
774.9000;0.5421;0.7083;
775.2000;0.5389;0.7032;
775.5000;0.5389;0.6955;
775.8000;0.5405;0.6981;
776.1000;0.5405;0.6981;
776.4000;0.5462;0.7212;
776.7000;0.5372;0.6981;
777.0000;0.5397;0.6981;
777.3000;0.5405;0.7083;
777.6000;0.5454;0.7058;
777.9000;0.5389;0.6878;
778.2000;0.5381;0.6878;
778.5000;0.5372;0.6852;
778.8000;0.5397;0.6827;
779.1000;0.5405;0.6801;
779.4000;0.5421;0.6801;
779.7000;0.5389;0.6827;
780.0000;0.5421;0.6929;
780.3000;0.5421;0.6904;
780.6000;0.5381;0.6852;
780.9000;0.5405;0.6981;
781.2000;0.5429;0.7006;
781.5000;0.5348;0.6827;
781.8000;0.5397;0.6827;
782.1000;0.5389;0.6827;
782.4000;0.5438;0.6955;
782.7000;0.5381;0.6827;
783.0000;0.5372;0.6673;
783.3000;0.5356;0.6647;
783.6000;0.5381;0.6673;
783.9000;0.5381;0.6750;
784.2000;0.5389;0.6750;
784.5000;0.5389;0.6724;
784.8000;0.5397;0.6673;
785.1000;0.5413;0.6647;
785.4000;0.5454;0.6698;
785.7000;0.5397;0.6647;
786.0000;0.5397;0.6724;
786.3000;0.5389;0.6827;
786.6000;0.5381;0.6801;
786.9000;0.5389;0.6827;
787.2000;0.5389;0.6827;
787.5000;0.5405;0.6801;
787.8000;0.5381;0.6852;
788.1000;0.5389;0.6878;
788.4000;0.5372;0.6878;
788.7000;0.5381;0.6981;
789.0000;0.5389;0.6929;
789.3000;0.5381;0.6878;
789.6000;0.5372;0.6775;
789.9000;0.5389;0.6801;
790.2000;0.5381;0.6878;
790.5000;0.5405;0.6904;
790.8000;0.5381;0.6904;
791.1000;0.5389;0.6981;
791.4000;0.5381;0.7058;
791.7000;0.5397;0.7032;
792.0000;0.5381;0.7006;
792.3000;0.5397;0.7058;
792.6000;0.5381;0.6981;
792.9000;0.5356;0.6904;
793.2000;0.5421;0.6929;
793.5000;0.5389;0.6827;
793.8000;0.5372;0.6827;
794.1000;0.5372;0.6852;
794.4000;0.5372;0.6750;
794.7000;0.5372;0.6775;
795.0000;0.5372;0.6852;
795.3000;0.5397;0.6878;
795.6000;0.5364;0.6750;
795.9000;0.5372;0.6852;
796.2000;0.5364;0.6750;
796.5000;0.5405;0.6929;
796.8000;0.5397;0.6955;
797.1000;0.5397;0.6981;
797.4000;0.5389;0.7032;
797.7000;0.5413;0.7058;
798.0000;0.5405;0.7032;
798.3000;0.5348;0.6904;
798.6000;0.5372;0.6929;
798.9000;0.5381;0.6955;
799.2000;0.5348;0.6981;
799.5000;0.5364;0.7032;
799.8000;0.5372;0.7083;
800.1000;0.5364;0.7032;
800.4000;0.5413;0.7135;
800.7000;0.5397;0.7109;
801.0000;0.5429;0.7237;
801.3000;0.5389;0.7160;
801.6000;0.5381;0.7083;
801.9000;0.5372;0.7058;
802.2000;0.5332;0.6955;
802.5000;0.5356;0.6955;
802.8000;0.5372;0.7032;
803.1000;0.5364;0.6955;
803.4000;0.5340;0.6929;
803.7000;0.5364;0.7083;
804.0000;0.5389;0.7237;
804.3000;0.5356;0.7160;
804.6000;0.5348;0.7083;
804.9000;0.5429;0.7340;
805.2000;0.5364;0.7083;
805.5000;0.5356;0.7006;
805.8000;0.5356;0.6981;
806.1000;0.5364;0.6981;
806.4000;0.5356;0.6878;
806.7000;0.5348;0.6801;
807.0000;0.5356;0.6724;
807.3000;0.5348;0.6724;
807.6000;0.5348;0.6698;
807.9000;0.5356;0.6724;
808.2000;0.5340;0.6750;
808.5000;0.5340;0.6750;
808.8000;0.5356;0.6750;
809.1000;0.5356;0.6750;
809.4000;0.5356;0.6775;
809.7000;0.5348;0.6801;
810.0000;0.5438;0.7083;
810.3000;0.5364;0.6827;
810.6000;0.5364;0.6852;
810.9000;0.5372;0.6929;
811.2000;0.5364;0.6929;
811.5000;0.5356;0.6929;
811.8000;0.5364;0.7032;
812.1000;0.5356;0.7083;
812.4000;0.5348;0.7032;
812.7000;0.5348;0.7083;
813.0000;0.5348;0.7083;
813.3000;0.5356;0.7083;
813.6000;0.5348;0.7186;
813.9000;0.5356;0.7212;
814.2000;0.5356;0.7186;
814.5000;0.5381;0.7212;
814.8000;0.5372;0.7340;
815.1000;0.5356;0.7417;
815.4000;0.5438;0.7597;
815.7000;0.5389;0.7494;
816.0000;0.5348;0.7237;
816.3000;0.5364;0.7135;
816.6000;0.5356;0.7186;
816.9000;0.5446;0.7520;
817.2000;0.5364;0.7212;
817.5000;0.5348;0.7186;
817.8000;0.5340;0.7160;
818.1000;0.5332;0.7186;
818.4000;0.5348;0.7160;
818.7000;0.5307;0.7032;
819.0000;0.5340;0.7058;
819.3000;0.5356;0.7083;
819.6000;0.5332;0.6955;
819.9000;0.5356;0.6904;
820.2000;0.5340;0.6878;
820.5000;0.5372;0.7006;
820.8000;0.5364;0.6981;
821.1000;0.5348;0.7006;
821.4000;0.5372;0.7032;
821.7000;0.5356;0.7032;
822.0000;0.5372;0.7032;
822.3000;0.5356;0.7109;
822.6000;0.5356;0.7058;
822.9000;0.5348;0.6955;
823.2000;0.5348;0.6878;
823.5000;0.5413;0.7083;
823.8000;0.5348;0.6878;
824.1000;0.5356;0.7006;
824.4000;0.5348;0.6929;
824.7000;0.5332;0.6801;
825.0000;0.5324;0.6801;
825.3000;0.5348;0.6904;
825.6000;0.5348;0.6929;
825.9000;0.5340;0.6955;
826.2000;0.5389;0.7006;
826.5000;0.5356;0.6981;
826.8000;0.5372;0.7032;
827.1000;0.5356;0.6981;
827.4000;0.5364;0.6955;
827.7000;0.5372;0.6981;
828.0000;0.5356;0.6929;
828.3000;0.5340;0.6827;
828.6000;0.5356;0.6775;
828.9000;0.5340;0.6775;
829.2000;0.5348;0.6775;
829.5000;0.5340;0.6801;
829.8000;0.5356;0.6929;
830.1000;0.5340;0.6955;
830.4000;0.5332;0.6955;
830.7000;0.5340;0.6981;
831.0000;0.5348;0.7006;
831.3000;0.5348;0.7058;
831.6000;0.5340;0.7058;
831.9000;0.5340;0.7006;
832.2000;0.5381;0.7083;
832.5000;0.5356;0.7058;
832.8000;0.5340;0.7006;
833.1000;0.5250;0.6775;
833.4000;0.5372;0.7109;
833.7000;0.5332;0.6904;
834.0000;0.5340;0.6929;
834.3000;0.5348;0.6981;
834.6000;0.5348;0.6955;
834.9000;0.5364;0.7058;
835.2000;0.5372;0.7212;
835.5000;0.5356;0.7186;
835.8000;0.5332;0.7160;
836.1000;0.5348;0.7109;
836.4000;0.5340;0.7058;
836.7000;0.5332;0.7083;
837.0000;0.5348;0.7160;
837.3000;0.5340;0.7135;
837.6000;0.5348;0.7160;
837.9000;0.5340;0.7160;
838.2000;0.5348;0.7160;
838.5000;0.5348;0.7160;
838.8000;0.5332;0.7135;
839.1000;0.5324;0.7109;
839.4000;0.5389;0.7366;
839.7000;0.5332;0.7186;
840.0000;0.5275;0.7058;
840.3000;0.5340;0.7186;
840.6000;0.5348;0.7135;
840.9000;0.5315;0.7006;
841.2000;0.5356;0.7058;
841.5000;0.5315;0.6904;
841.8000;0.5340;0.6929;
842.1000;0.5340;0.6929;
842.4000;0.5340;0.6929;
842.7000;0.5324;0.6852;
843.0000;0.5340;0.6852;
843.3000;0.5324;0.6775;
843.6000;0.5315;0.6904;
843.9000;0.5332;0.7006;
844.2000;0.5307;0.6981;
844.5000;0.5315;0.7083;
844.8000;0.5315;0.7032;
845.1000;0.5332;0.7109;
845.4000;0.5340;0.7109;
845.7000;0.5324;0.7135;
846.0000;0.5405;0.7289;
846.3000;0.5340;0.7135;
846.6000;0.5299;0.6955;
846.9000;0.5315;0.7083;
847.2000;0.5340;0.7135;
847.5000;0.5324;0.7083;
847.8000;0.5364;0.7186;
848.1000;0.5324;0.7032;
848.4000;0.5324;0.6929;
848.7000;0.5340;0.6981;
849.0000;0.5324;0.6955;
849.3000;0.5258;0.6801;
849.6000;0.5324;0.7058;
849.9000;0.5324;0.6955;
850.2000;0.5315;0.6955;
850.5000;0.5332;0.6929;
850.8000;0.5291;0.6929;
851.1000;0.5332;0.6929;
851.4000;0.5405;0.7109;
851.7000;0.5340;0.6878;
852.0000;0.5307;0.6878;
852.3000;0.5340;0.6955;
852.6000;0.5340;0.6929;
852.9000;0.5381;0.7058;
853.2000;0.5340;0.6955;
853.5000;0.5315;0.7032;
853.8000;0.5250;0.6878;
854.1000;0.5315;0.7058;
854.4000;0.5315;0.6955;
854.7000;0.5324;0.6929;
855.0000;0.5315;0.6878;
855.3000;0.5332;0.6929;
855.6000;0.5315;0.6981;
855.9000;0.5332;0.6981;
856.2000;0.5307;0.6955;
856.5000;0.5324;0.7032;
856.8000;0.5291;0.6929;
857.1000;0.5315;0.6981;
857.4000;0.5324;0.7006;
857.7000;0.5332;0.7032;
858.0000;0.5356;0.7135;
858.3000;0.5324;0.7083;
858.6000;0.5315;0.7109;
858.9000;0.5291;0.7109;
859.2000;0.5340;0.7212;
859.5000;0.5299;0.7032;
859.8000;0.5299;0.7083;
860.1000;0.5299;0.7058;
860.4000;0.5315;0.7058;
860.7000;0.5324;0.7109;
861.0000;0.5291;0.7006;
861.3000;0.5299;0.6904;
861.6000;0.5315;0.6929;
861.9000;0.5218;0.6673;
862.2000;0.5324;0.6929;
862.5000;0.5315;0.6904;
862.8000;0.5332;0.6955;
863.1000;0.5291;0.6904;
863.4000;0.5307;0.6929;
863.7000;0.5324;0.6904;
864.0000;0.5299;0.6827;
864.3000;0.5324;0.6929;
864.6000;0.5299;0.6801;
864.9000;0.5299;0.6775;
865.2000;0.5315;0.6827;
865.5000;0.5307;0.6878;
865.8000;0.5291;0.6904;
866.1000;0.5307;0.6981;
866.4000;0.5348;0.7006;
866.7000;0.5307;0.6904;
867.0000;0.5315;0.6929;
867.3000;0.5307;0.7032;
867.6000;0.5324;0.7032;
867.9000;0.5307;0.7058;
868.2000;0.5307;0.7160;
868.5000;0.5299;0.7058;
868.8000;0.5324;0.7006;
869.1000;0.5307;0.7032;
869.4000;0.5315;0.7058;
869.7000;0.5332;0.7058;
870.0000;0.5340;0.7058;
870.3000;0.5315;0.7083;
870.6000;0.5291;0.7109;
870.9000;0.5315;0.7160;
871.2000;0.5299;0.7058;
871.5000;0.5307;0.7160;
871.8000;0.5291;0.7058;
872.1000;0.5315;0.7109;
872.4000;0.5340;0.7135;
872.7000;0.5324;0.7109;
873.0000;0.5324;0.7135;
873.3000;0.5307;0.7058;
873.6000;0.5332;0.7109;
873.9000;0.5324;0.7083;
874.2000;0.5307;0.7032;
874.5000;0.5315;0.7032;
874.8000;0.5307;0.6955;
875.1000;0.5291;0.6904;
875.4000;0.5291;0.6955;
875.7000;0.5340;0.7083;
876.0000;0.5299;0.6955;
876.3000;0.5299;0.7109;
876.6000;0.5291;0.7109;
876.9000;0.5291;0.7135;
877.2000;0.5324;0.7212;
877.5000;0.5299;0.7083;
877.8000;0.5324;0.7083;
878.1000;0.5324;0.7032;
878.4000;0.5324;0.7083;
878.7000;0.5307;0.6981;
879.0000;0.5299;0.6904;
879.3000;0.5332;0.7006;
879.6000;0.5315;0.7006;
879.9000;0.5299;0.7006;
880.2000;0.5250;0.6929;
880.5000;0.5307;0.7160;
880.8000;0.5307;0.7032;
881.1000;0.5315;0.7109;
881.4000;0.5315;0.7135;
881.7000;0.5275;0.7160;
882.0000;0.5324;0.7186;
882.3000;0.5315;0.7135;
882.6000;0.5291;0.7032;
882.9000;0.5315;0.7083;
883.2000;0.5413;0.7366;
883.5000;0.5307;0.7186;
883.8000;0.5291;0.7109;
884.1000;0.5315;0.7109;
884.4000;0.5332;0.7212;
884.7000;0.5307;0.7212;
885.0000;0.5315;0.7160;
885.3000;0.5291;0.7058;
885.6000;0.5307;0.7160;
885.9000;0.5324;0.7135;
886.2000;0.5315;0.7058;
886.5000;0.5283;0.6904;
886.8000;0.5315;0.6955;
887.1000;0.5299;0.6878;
887.4000;0.5307;0.6955;
887.7000;0.5299;0.6904;
888.0000;0.5315;0.6827;
888.3000;0.5299;0.6724;
888.6000;0.5299;0.6724;
888.9000;0.5299;0.6878;
889.2000;0.5283;0.6929;
889.5000;0.5315;0.7006;
889.8000;0.5299;0.6981;
890.1000;0.5299;0.6955;
890.4000;0.5283;0.6981;
890.7000;0.5275;0.7006;
891.0000;0.5299;0.7032;
891.3000;0.5299;0.7058;
891.6000;0.5332;0.7083;
891.9000;0.5291;0.7083;
892.2000;0.5299;0.7058;
892.5000;0.5299;0.7083;
892.8000;0.5283;0.7135;
893.1000;0.5299;0.7160;
893.4000;0.5299;0.7109;
893.7000;0.5291;0.7032;
894.0000;0.5258;0.6878;
894.3000;0.5324;0.6981;
894.6000;0.5356;0.7135;
894.9000;0.5299;0.6955;
895.2000;0.5307;0.6955;
895.5000;0.5324;0.7006;
895.8000;0.5307;0.6904;
896.1000;0.5291;0.6904;
896.4000;0.5275;0.6852;
896.7000;0.5291;0.6852;
897.0000;0.5291;0.6852;
897.3000;0.5299;0.7006;
897.6000;0.5299;0.7032;
897.9000;0.5291;0.6955;
898.2000;0.5299;0.7058;
898.5000;0.5315;0.7083;
898.8000;0.5340;0.7212;
899.1000;0.5291;0.7135;
899.4000;0.5299;0.7083;
899.7000;0.5299;0.7006;
900.0000;0.5315;0.7160;
900.3000;0.5291;0.7032;
900.6000;0.5291;0.7032;
900.9000;0.5307;0.7083;
901.2000;0.5299;0.6981;
901.5000;0.5299;0.7006;
901.8000;0.5250;0.6775;
902.1000;0.5291;0.6724;
902.4000;0.5299;0.6904;
902.7000;0.5307;0.6904;
903.0000;0.5275;0.6852;
903.3000;0.5291;0.6955;
903.6000;0.5299;0.6955;
903.9000;0.5291;0.6955;
904.2000;0.5315;0.7083;
904.5000;0.5307;0.6955;
904.8000;0.5315;0.6955;
905.1000;0.5299;0.6955;
905.4000;0.5307;0.7032;
905.7000;0.5283;0.6878;
906.0000;0.5299;0.6929;
906.3000;0.5324;0.7006;
906.6000;0.5291;0.6955;
906.9000;0.5381;0.7237;
907.2000;0.5291;0.6981;
907.5000;0.5299;0.7083;
907.8000;0.5250;0.6955;
908.1000;0.5307;0.7135;
908.4000;0.5283;0.7186;
908.7000;0.5299;0.7237;
909.0000;0.5291;0.7160;
909.3000;0.5250;0.7032;
909.6000;0.5283;0.7083;
909.9000;0.5299;0.7032;
910.2000;0.5250;0.6929;
910.5000;0.5275;0.7058;
910.8000;0.5275;0.7083;
911.1000;0.5283;0.7109;
911.4000;0.5299;0.7058;
911.7000;0.5299;0.7058;
912.0000;0.5291;0.7135;
912.3000;0.5291;0.7186;
912.6000;0.5307;0.7263;
912.9000;0.5258;0.7109;
913.2000;0.5299;0.7160;
913.5000;0.5291;0.7083;
913.8000;0.5275;0.7083;
914.1000;0.5291;0.7058;
914.4000;0.5250;0.6955;
914.7000;0.5283;0.7032;
915.0000;0.5267;0.7032;
915.3000;0.5291;0.7135;
915.6000;0.5299;0.7160;
915.9000;0.5291;0.7160;
916.2000;0.5291;0.7186;
916.5000;0.5291;0.7212;
916.8000;0.5283;0.7160;
917.1000;0.5283;0.7058;
917.4000;0.5283;0.7109;
917.7000;0.5291;0.7135;
918.0000;0.5299;0.7109;
918.3000;0.5283;0.7109;
918.6000;0.5283;0.7212;
918.9000;0.5291;0.7237;
919.2000;0.5324;0.7237;
919.5000;0.5291;0.7160;
919.8000;0.5299;0.7160;
920.1000;0.5307;0.7083;
920.4000;0.5324;0.7109;
920.7000;0.5283;0.7083;
921.0000;0.5315;0.7314;
921.3000;0.5299;0.7417;
921.6000;0.5315;0.7443;
921.9000;0.5299;0.7340;
922.2000;0.5291;0.7314;
922.5000;0.5275;0.7186;
922.8000;0.5299;0.7212;
923.1000;0.5299;0.7160;
923.4000;0.5291;0.7160;
923.7000;0.5291;0.7160;
924.0000;0.5210;0.7032;
924.3000;0.5299;0.7212;
924.6000;0.5283;0.7160;
924.9000;0.5283;0.7109;
925.2000;0.5283;0.7032;
925.5000;0.5299;0.7058;
925.8000;0.5283;0.7109;
926.1000;0.5291;0.7263;
926.4000;0.5291;0.7237;
926.7000;0.5275;0.7212;
927.0000;0.5210;0.7135;
927.3000;0.5250;0.7263;
927.6000;0.5291;0.7340;
927.9000;0.5299;0.7340;
928.2000;0.5267;0.7289;
928.5000;0.5283;0.7289;
928.8000;0.5299;0.7366;
929.1000;0.5348;0.7468;
929.4000;0.5267;0.7263;
929.7000;0.5299;0.7314;
930.0000;0.5299;0.7366;
930.3000;0.5267;0.7237;
930.6000;0.5291;0.7237;
930.9000;0.5275;0.7160;
931.2000;0.5315;0.7212;
931.5000;0.5283;0.7135;
931.8000;0.5291;0.7263;
932.1000;0.5283;0.7212;
932.4000;0.5307;0.7186;
932.7000;0.5291;0.7160;
933.0000;0.5291;0.7083;
933.3000;0.5275;0.7109;
933.6000;0.5283;0.7109;
933.9000;0.5283;0.7186;
934.2000;0.5348;0.7340;
934.5000;0.5291;0.7186;
934.8000;0.5291;0.7263;
935.1000;0.5283;0.7237;
935.4000;0.5315;0.7263;
935.7000;0.5307;0.7237;
936.0000;0.5267;0.7135;
936.3000;0.5291;0.7186;
936.6000;0.5283;0.7109;
936.9000;0.5299;0.7135;
937.2000;0.5283;0.7083;
937.5000;0.5283;0.7058;
937.8000;0.5275;0.7032;
938.1000;0.5291;0.7032;
938.4000;0.5283;0.7006;
938.7000;0.5258;0.7058;
939.0000;0.5283;0.7135;
939.3000;0.5299;0.7135;
939.6000;0.5283;0.7006;
939.9000;0.5275;0.6929;
940.2000;0.5267;0.6981;
940.5000;0.5275;0.7058;
940.8000;0.5315;0.7083;
941.1000;0.5307;0.7058;
941.4000;0.5275;0.6904;
941.7000;0.5291;0.6955;
942.0000;0.5283;0.7083;
942.3000;0.5283;0.7032;
942.6000;0.5210;0.6852;
942.9000;0.5283;0.7135;
943.2000;0.5275;0.7186;
943.5000;0.5267;0.7186;
943.8000;0.5291;0.7186;
944.1000;0.5275;0.7212;
944.4000;0.5291;0.7212;
944.7000;0.5315;0.7289;
945.0000;0.5283;0.7109;
945.3000;0.5283;0.7006;
945.6000;0.5283;0.7058;
945.9000;0.5299;0.7109;
946.2000;0.5258;0.7083;
946.5000;0.5283;0.7135;
946.8000;0.5275;0.7160;
947.1000;0.5250;0.7160;
947.4000;0.5291;0.7237;
947.7000;0.5267;0.7109;
948.0000;0.5307;0.7314;
948.3000;0.5291;0.7237;
948.6000;0.5291;0.7237;
948.9000;0.5275;0.7212;
949.2000;0.5307;0.7340;
949.5000;0.5283;0.7417;
949.8000;0.5291;0.7443;
950.1000;0.5315;0.7520;
950.4000;0.5307;0.7494;
950.7000;0.5348;0.7622;
951.0000;0.5275;0.7263;
951.3000;0.5275;0.7212;
951.6000;0.5283;0.7263;
951.9000;0.5291;0.7289;
952.2000;0.5275;0.7212;
952.5000;0.5275;0.7109;
952.8000;0.5275;0.7083;
953.1000;0.5283;0.7109;
953.4000;0.5283;0.7058;
953.7000;0.5283;0.7006;
954.0000;0.5275;0.7083;
954.3000;0.5275;0.7109;
954.6000;0.5283;0.7186;
954.9000;0.5291;0.7135;
955.2000;0.5299;0.7212;
955.5000;0.5283;0.7135;
955.8000;0.5267;0.7135;
956.1000;0.5275;0.7212;
956.4000;0.5258;0.7237;
956.7000;0.5291;0.7160;
957.0000;0.5291;0.7058;
957.3000;0.5291;0.7160;
957.6000;0.5258;0.7237;
957.9000;0.5267;0.7263;
958.2000;0.5332;0.7468;
958.5000;0.5315;0.7314;
958.8000;0.5283;0.7340;
959.1000;0.5267;0.7237;
959.4000;0.5242;0.7160;
959.7000;0.5299;0.7237;
960.0000;0.5356;0.7417;
960.3000;0.5283;0.7109;
960.6000;0.5291;0.7186;
960.9000;0.5258;0.7109;
961.2000;0.5275;0.7160;
961.5000;0.5332;0.7340;
961.8000;0.5267;0.7212;
962.1000;0.5299;0.7263;
962.4000;0.5283;0.7289;
962.7000;0.5324;0.7417;
963.0000;0.5226;0.7083;
963.3000;0.5267;0.7083;
963.6000;0.5307;0.7237;
963.9000;0.5307;0.7263;
964.2000;0.5275;0.7212;
964.5000;0.5283;0.7186;
964.8000;0.5267;0.7186;
965.1000;0.5291;0.7212;
965.4000;0.5299;0.7135;
965.7000;0.5283;0.7212;
966.0000;0.5307;0.7212;
966.3000;0.5299;0.7237;
966.6000;0.5291;0.7186;
966.9000;0.5258;0.7135;
967.2000;0.5291;0.7263;
967.5000;0.5250;0.7314;
967.8000;0.5283;0.7314;
968.1000;0.5242;0.7186;
968.4000;0.5275;0.7237;
968.7000;0.5340;0.7417;
969.0000;0.5275;0.7289;
969.3000;0.5267;0.7314;
969.6000;0.5299;0.7468;
969.9000;0.5218;0.7289;
970.2000;0.5291;0.7468;
970.5000;0.5283;0.7391;
970.8000;0.5185;0.7109;
971.1000;0.5283;0.7391;
971.4000;0.5275;0.7340;
971.7000;0.5275;0.7314;
972.0000;0.5250;0.7314;
972.3000;0.5267;0.7289;
972.6000;0.5258;0.7263;
972.9000;0.5267;0.7212;
973.2000;0.5267;0.7186;
973.5000;0.5283;0.7186;
973.8000;0.5291;0.7237;
974.1000;0.5291;0.7186;
974.4000;0.5275;0.7135;
974.7000;0.5299;0.7160;
975.0000;0.5299;0.7237;
975.3000;0.5299;0.7237;
975.6000;0.5307;0.7289;
975.9000;0.5267;0.7212;
976.2000;0.5267;0.7237;
976.5000;0.5250;0.7186;
976.8000;0.5267;0.7109;
977.1000;0.5250;0.7186;
977.4000;0.5275;0.7263;
977.7000;0.5267;0.7237;
978.0000;0.5258;0.7186;
978.3000;0.5267;0.7135;
978.6000;0.5258;0.7109;
978.9000;0.5275;0.7263;
979.2000;0.5283;0.7289;
979.5000;0.5291;0.7186;
979.8000;0.5283;0.7212;
980.1000;0.5291;0.7237;
980.4000;0.5283;0.7186;
980.7000;0.5275;0.7186;
981.0000;0.5267;0.7186;
981.3000;0.5267;0.7160;
981.6000;0.5283;0.7135;
981.9000;0.5275;0.7135;
982.2000;0.5267;0.7160;
982.5000;0.5275;0.7186;
982.8000;0.5267;0.7032;
983.1000;0.5258;0.6981;
983.4000;0.5267;0.7058;
983.7000;0.5267;0.7135;
984.0000;0.5299;0.7263;
984.3000;0.5267;0.7083;
984.6000;0.5210;0.6981;
984.9000;0.5201;0.7006;
985.2000;0.5291;0.7263;
985.5000;0.5283;0.7186;
985.8000;0.5283;0.7186;
986.1000;0.5283;0.7160;
986.4000;0.5291;0.7263;
986.7000;0.5291;0.7212;
987.0000;0.5307;0.7263;
987.3000;0.5299;0.7263;
987.6000;0.5275;0.7186;
987.9000;0.5275;0.7135;
988.2000;0.5283;0.7160;
988.5000;0.5226;0.7006;
988.8000;0.5267;0.7160;
989.1000;0.5267;0.7186;
989.4000;0.5258;0.7109;
989.7000;0.5275;0.7263;
990.0000;0.5291;0.7314;
990.3000;0.5250;0.7289;
990.6000;0.5275;0.7263;
990.9000;0.5315;0.7314;
991.2000;0.5275;0.7109;
991.5000;0.5275;0.7160;
991.8000;0.5307;0.7314;
992.1000;0.5283;0.7289;
992.4000;0.5275;0.7186;
992.7000;0.5291;0.7160;
993.0000;0.5283;0.7109;
993.3000;0.5291;0.7135;
993.6000;0.5250;0.7032;
993.9000;0.5275;0.7006;
994.2000;0.5283;0.6929;
994.5000;0.5267;0.6981;
994.8000;0.5258;0.6955;
995.1000;0.5275;0.7006;
995.4000;0.5258;0.7083;
995.7000;0.5258;0.7032;
996.0000;0.5267;0.7006;
996.3000;0.5283;0.7006;
996.6000;0.5267;0.7006;
996.9000;0.5283;0.7032;
997.2000;0.5275;0.6981;
997.5000;0.5275;0.7032;
997.8000;0.5267;0.7032;
998.1000;0.5283;0.6981;
998.4000;0.5291;0.7006;
998.7000;0.5275;0.6981;
999.0000;0.5267;0.6981;
999.3000;0.5267;0.6955;
999.6000;0.5299;0.7109;
999.9000;0.5275;0.7032;
1000.2000;0.5267;0.7135;
1000.5000;0.5275;0.7006;
1000.8000;0.5283;0.7032;
1001.1000;0.5267;0.6929;
1001.4000;0.5258;0.6929;
1001.7000;0.5258;0.6955;
1002.0000;0.5267;0.6929;
1002.3000;0.5315;0.7135;
1002.6000;0.5267;0.7083;
1002.9000;0.5275;0.7058;
1003.2000;0.5258;0.7058;
1003.5000;0.5267;0.7135;
1003.8000;0.5267;0.7186;
1004.1000;0.5275;0.7237;
1004.4000;0.5242;0.7135;
1004.7000;0.5267;0.7186;
1005.0000;0.5242;0.7135;
1005.3000;0.5275;0.7212;
1005.6000;0.5267;0.7135;
1005.9000;0.5275;0.7237;
1006.2000;0.5275;0.7237;
1006.5000;0.5267;0.7135;
1006.8000;0.5275;0.7006;
1007.1000;0.5291;0.7032;
1007.4000;0.5267;0.7032;
1007.7000;0.5267;0.6981;
1008.0000;0.5267;0.7006;
1008.3000;0.5258;0.7109;
1008.6000;0.5267;0.7186;
1008.9000;0.5258;0.7135;
1009.2000;0.5258;0.7135;
1009.5000;0.5258;0.7160;
1009.8000;0.5258;0.7160;
1010.1000;0.5258;0.7289;
1010.4000;0.5258;0.7212;
1010.7000;0.5258;0.7289;
1011.0000;0.5258;0.7160;
1011.3000;0.5218;0.7083;
1011.6000;0.5267;0.7109;
1011.9000;0.5267;0.7109;
1012.2000;0.5275;0.7109;
1012.5000;0.5275;0.7160;
1012.8000;0.5258;0.7135;
1013.1000;0.5258;0.7160;
1013.4000;0.5307;0.7263;
1013.7000;0.5267;0.7237;
1014.0000;0.5275;0.7237;
1014.3000;0.5275;0.7289;
1014.6000;0.5267;0.7443;
1014.9000;0.5283;0.7417;
1015.2000;0.5250;0.7160;
1015.5000;0.5275;0.7186;
1015.8000;0.5267;0.7135;
1016.1000;0.5242;0.7109;
1016.4000;0.5275;0.7135;
1016.7000;0.5258;0.7083;
1017.0000;0.5275;0.7135;
1017.3000;0.5267;0.7135;
1017.6000;0.5275;0.7109;
1017.9000;0.5258;0.7109;
1018.2000;0.5275;0.7083;
1018.5000;0.5275;0.7006;
1018.8000;0.5242;0.6955;
1019.1000;0.5250;0.6955;
1019.4000;0.5258;0.6955;
1019.7000;0.5267;0.6981;
1020.0000;0.5258;0.7083;
1020.3000;0.5283;0.7237;
1020.6000;0.5267;0.7212;
1020.9000;0.5267;0.7212;
1021.2000;0.5275;0.7135;
1021.5000;0.5283;0.7083;
1021.8000;0.5267;0.7006;
1022.1000;0.5324;0.7263;
1022.4000;0.5283;0.7135;
1022.7000;0.5283;0.7109;
1023.0000;0.5201;0.6904;
1023.3000;0.5275;0.7083;
1023.6000;0.5275;0.7109;
1023.9000;0.5275;0.7109;
1024.2000;0.5258;0.7186;
1024.5000;0.5258;0.7160;
1024.8000;0.5258;0.7135;
1025.1000;0.5283;0.7135;
1025.4000;0.5258;0.7083;
1025.7000;0.5275;0.7109;
1026.0000;0.5283;0.7135;
1026.3000;0.5275;0.7186;
1026.6000;0.5267;0.7135;
1026.9000;0.5185;0.7032;
1027.2000;0.5275;0.7237;
1027.5000;0.5267;0.7160;
1027.8000;0.5267;0.7032;
1028.1000;0.5258;0.7006;
1028.4000;0.5258;0.7135;
1028.7000;0.5234;0.7186;
1029.0000;0.5291;0.7263;
1029.3000;0.5258;0.7263;
1029.6000;0.5291;0.7366;
1029.9000;0.5258;0.7186;
1030.2000;0.5258;0.7160;
1030.5000;0.5201;0.6955;
1030.8000;0.5275;0.7237;
1031.1000;0.5348;0.7443;
1031.4000;0.5315;0.7340;
1031.7000;0.5258;0.7186;
1032.0000;0.5250;0.7109;
1032.3000;0.5267;0.7058;
1032.6000;0.5250;0.7006;
1032.9000;0.5258;0.7058;
1033.2000;0.5267;0.7058;
1033.5000;0.5267;0.7083;
1033.8000;0.5267;0.7083;
1034.1000;0.5258;0.7109;
1034.4000;0.5275;0.7058;
1034.7000;0.5267;0.7058;
1035.0000;0.5283;0.7083;
1035.3000;0.5267;0.7032;
1035.6000;0.5275;0.7006;
1035.9000;0.5258;0.6929;
1036.2000;0.5275;0.7032;
1036.5000;0.5275;0.7032;
1036.8000;0.5267;0.7083;
1037.1000;0.5267;0.7032;
1037.4000;0.5291;0.7160;
1037.7000;0.5283;0.7032;
1038.0000;0.5267;0.7006;
1038.3000;0.5258;0.7006;
1038.6000;0.5250;0.6955;
1038.9000;0.5283;0.6981;
1039.2000;0.5250;0.6929;
1039.5000;0.5242;0.6929;
1039.8000;0.5234;0.6981;
1040.1000;0.5275;0.7109;
1040.4000;0.5283;0.7109;
1040.7000;0.5364;0.7340;
1041.0000;0.5275;0.7058;
1041.3000;0.5283;0.7058;
1041.6000;0.5258;0.6981;
1041.9000;0.5267;0.6929;
1042.2000;0.5275;0.6929;
1042.5000;0.5283;0.6929;
1042.8000;0.5283;0.7006;
1043.1000;0.5283;0.6929;
1043.4000;0.5250;0.6878;
1043.7000;0.5283;0.6955;
1044.0000;0.5275;0.7058;
1044.3000;0.5258;0.7109;
1044.6000;0.5250;0.7083;
1044.9000;0.5267;0.7058;
1045.2000;0.5258;0.7058;
1045.5000;0.5291;0.7135;
1045.8000;0.5267;0.7135;
1046.1000;0.5283;0.7160;
1046.4000;0.5275;0.7237;
1046.7000;0.5258;0.7263;
1047.0000;0.5283;0.7314;
1047.3000;0.5275;0.7212;
1047.6000;0.5283;0.7237;
1047.9000;0.5275;0.7237;
1048.2000;0.5283;0.7263;
1048.5000;0.5250;0.7058;
1048.8000;0.5267;0.7109;
1049.1000;0.5275;0.7160;
1049.4000;0.5234;0.7109;
1049.7000;0.5267;0.7109;
1050.0000;0.5267;0.7160;
1050.3000;0.5267;0.7212;
1050.6000;0.5267;0.7135;
1050.9000;0.5177;0.6852;
1051.2000;0.5267;0.6981;
1051.5000;0.5275;0.7058;
1051.8000;0.5250;0.7006;
1052.1000;0.5201;0.6724;
1052.4000;0.5275;0.6904;
1052.7000;0.5242;0.6801;
1053.0000;0.5275;0.6852;
1053.3000;0.5267;0.6878;
1053.6000;0.5340;0.7212;
1053.9000;0.5258;0.7109;
1054.2000;0.5234;0.7058;
1054.5000;0.5267;0.7212;
1054.8000;0.5258;0.7237;
1055.1000;0.5258;0.7314;
1055.4000;0.5250;0.7340;
1055.7000;0.5250;0.7289;
1056.0000;0.5234;0.7212;
1056.3000;0.5275;0.7314;
1056.6000;0.5258;0.7314;
1056.9000;0.5267;0.7186;
1057.2000;0.5267;0.7083;
1057.5000;0.5267;0.7058;
1057.8000;0.5258;0.7032;
1058.1000;0.5242;0.7006;
1058.4000;0.5267;0.6981;
1058.7000;0.5283;0.6955;
1059.0000;0.5258;0.6955;
1059.3000;0.5242;0.6955;
1059.6000;0.5267;0.6981;
1059.9000;0.5250;0.6929;
1060.2000;0.5250;0.6955;
1060.5000;0.5250;0.7058;
1060.8000;0.5258;0.7083;
1061.1000;0.5258;0.7083;
1061.4000;0.5275;0.7058;
1061.7000;0.5250;0.6981;
1062.0000;0.5250;0.7006;
1062.3000;0.5275;0.7083;
1062.6000;0.5250;0.7006;
1062.9000;0.5250;0.7083;
1063.2000;0.5291;0.7237;
1063.5000;0.5258;0.7160;
1063.8000;0.5242;0.7263;
1064.1000;0.5250;0.7289;
1064.4000;0.5267;0.7340;
1064.7000;0.5218;0.7186;
1065.0000;0.5242;0.7314;
1065.3000;0.5234;0.7237;
1065.6000;0.5250;0.7263;
1065.9000;0.5267;0.7263;
1066.2000;0.5250;0.7135;
1066.5000;0.5258;0.7135;
1066.8000;0.5307;0.7391;
1067.1000;0.5250;0.7237;
1067.4000;0.5267;0.7212;
1067.7000;0.5258;0.7160;
1068.0000;0.5283;0.7186;
1068.3000;0.5267;0.7058;
1068.6000;0.5356;0.7263;
1068.9000;0.5315;0.7186;
1069.2000;0.5267;0.7006;
1069.5000;0.5258;0.7032;
1069.8000;0.5275;0.7109;
1070.1000;0.5267;0.7083;
1070.4000;0.5226;0.6981;
1070.7000;0.5258;0.7109;
1071.0000;0.5267;0.7160;
1071.3000;0.5258;0.7109;
1071.6000;0.5250;0.7032;
1071.9000;0.5267;0.7058;
1072.2000;0.5250;0.6929;
1072.5000;0.5242;0.6852;
1072.8000;0.5250;0.6929;
1073.1000;0.5299;0.7032;
1073.4000;0.5258;0.6929;
1073.7000;0.5258;0.6929;
1074.0000;0.5291;0.7058;
1074.3000;0.5267;0.7083;
1074.6000;0.5275;0.7160;
1074.9000;0.5258;0.7083;
1075.2000;0.5267;0.7135;
1075.5000;0.5258;0.7160;
1075.8000;0.5250;0.7160;
1076.1000;0.5267;0.7160;
1076.4000;0.5275;0.7186;
1076.7000;0.5267;0.7109;
1077.0000;0.5250;0.7006;
1077.3000;0.5267;0.7109;
1077.6000;0.5283;0.7109;
1077.9000;0.5267;0.7058;
1078.2000;0.5283;0.7083;
1078.5000;0.5324;0.7340;
1078.8000;0.5275;0.7186;
1079.1000;0.5275;0.7109;
1079.4000;0.5267;0.7083;
1079.7000;0.5267;0.7083;
1080.0000;0.5258;0.7083;
1080.3000;0.5210;0.6955;
1080.6000;0.5258;0.7058;
1080.9000;0.5283;0.7006;
1081.2000;0.5315;0.7083;
1081.5000;0.5267;0.7006;
1081.8000;0.5185;0.6827;
1082.1000;0.5267;0.7109;
1082.4000;0.5267;0.7083;
1082.7000;0.5283;0.7083;
1083.0000;0.5226;0.7032;
1083.3000;0.5267;0.7186;
1083.6000;0.5283;0.7314;
1083.9000;0.5267;0.7212;
1084.2000;0.5258;0.7135;
1084.5000;0.5275;0.7212;
1084.8000;0.5283;0.7160;
1085.1000;0.5275;0.7135;
1085.4000;0.5315;0.7237;
1085.7000;0.5258;0.7032;
1086.0000;0.5234;0.6929;
1086.3000;0.5299;0.7135;
1086.6000;0.5307;0.7160;
1086.9000;0.5258;0.7083;
1087.2000;0.5267;0.7058;
1087.5000;0.5242;0.7032;
1087.8000;0.5299;0.7135;
1088.1000;0.5258;0.7058;
1088.4000;0.5250;0.7083;
1088.7000;0.5250;0.7032;
1089.0000;0.5315;0.7212;
1089.3000;0.5242;0.7058;
1089.6000;0.5258;0.7058;
1089.9000;0.5242;0.7135;
1090.2000;0.5250;0.7160;
1090.5000;0.5250;0.7135;
1090.8000;0.5242;0.7032;
1091.1000;0.5283;0.7032;
1091.4000;0.5250;0.6878;
1091.7000;0.5242;0.6929;
1092.0000;0.5275;0.7032;
1092.3000;0.5283;0.6955;
1092.6000;0.5250;0.6775;
1092.9000;0.5226;0.6801;
1093.2000;0.5267;0.6878;
1093.5000;0.5283;0.6981;
1093.8000;0.5267;0.6981;
1094.1000;0.5267;0.7006;
1094.4000;0.5258;0.7006;
1094.7000;0.5258;0.7109;
1095.0000;0.5283;0.7135;
1095.3000;0.5250;0.7109;
1095.6000;0.5267;0.7135;
1095.9000;0.5267;0.7083;
1096.2000;0.5267;0.7058;
1096.5000;0.5242;0.7006;
1096.8000;0.5258;0.7083;
1097.1000;0.5299;0.7160;
1097.4000;0.5275;0.7109;
1097.7000;0.5258;0.7135;
1098.0000;0.5218;0.7032;
1098.3000;0.5267;0.7263;
1098.6000;0.5250;0.7263;
1098.9000;0.5356;0.7571;
1099.2000;0.5258;0.7366;
1099.5000;0.5234;0.7237;
1099.8000;0.5267;0.7212;
1100.1000;0.5267;0.7135;
1100.4000;0.5250;0.7058;
1100.7000;0.5250;0.7058;
1101.0000;0.5258;0.7032;
1101.3000;0.5291;0.7186;
1101.6000;0.5226;0.7135;
1101.9000;0.5242;0.7135;
1102.2000;0.5267;0.7263;
1102.5000;0.5307;0.7391;
1102.8000;0.5242;0.7340;
1103.1000;0.5267;0.7366;
1103.4000;0.5283;0.7366;
1103.7000;0.5267;0.7314;
1104.0000;0.5356;0.7494;
1104.3000;0.5250;0.7083;
1104.6000;0.5283;0.7058;
1104.9000;0.5267;0.6981;
1105.2000;0.5283;0.7083;
1105.5000;0.5242;0.6929;
1105.8000;0.5250;0.6904;
1106.1000;0.5250;0.6852;
1106.4000;0.5267;0.6878;
1106.7000;0.5275;0.6852;
1107.0000;0.5250;0.6801;
1107.3000;0.5307;0.7135;
1107.6000;0.5283;0.7109;
1107.9000;0.5242;0.7032;
1108.2000;0.5258;0.7083;
1108.5000;0.5267;0.7186;
1108.8000;0.5267;0.7186;
1109.1000;0.5267;0.7212;
1109.4000;0.5226;0.7006;
1109.7000;0.5250;0.7083;
1110.0000;0.5267;0.7109;
1110.3000;0.5315;0.7314;
1110.6000;0.5283;0.7186;
1110.9000;0.5242;0.7135;
1111.2000;0.5250;0.7160;
1111.5000;0.5242;0.7135;
1111.8000;0.5242;0.7032;
1112.1000;0.5242;0.7135;
1112.4000;0.5250;0.7109;
1112.7000;0.5267;0.7058;
1113.0000;0.5250;0.7083;
1113.3000;0.5267;0.7109;
1113.6000;0.5258;0.7058;
1113.9000;0.5242;0.7109;
1114.2000;0.5250;0.7109;
1114.5000;0.5275;0.7058;
1114.8000;0.5250;0.7032;
1115.1000;0.5258;0.7058;
1115.4000;0.5275;0.7083;
1115.7000;0.5275;0.6981;
1116.0000;0.5242;0.6981;
1116.3000;0.5242;0.7006;
1116.6000;0.5242;0.6981;
1116.9000;0.5275;0.7083;
1117.2000;0.5250;0.7032;
1117.5000;0.5275;0.7083;
1117.8000;0.5242;0.7032;
1118.1000;0.5258;0.7058;
1118.4000;0.5242;0.6955;
1118.7000;0.5267;0.7083;
1119.0000;0.5267;0.7083;
1119.3000;0.5250;0.6981;
1119.6000;0.5250;0.6981;
1119.9000;0.5275;0.7006;
1120.2000;0.5267;0.6955;
1120.5000;0.5242;0.6929;
1120.8000;0.5267;0.7032;
1121.1000;0.5283;0.7032;
1121.4000;0.5364;0.7212;
1121.7000;0.5267;0.6955;
1122.0000;0.5226;0.6827;
1122.3000;0.5250;0.6775;
1122.6000;0.5258;0.6750;
1122.9000;0.5307;0.6981;
1123.2000;0.5267;0.6878;
1123.5000;0.5250;0.6955;
1123.8000;0.5250;0.6878;
1124.1000;0.5283;0.6904;
1124.4000;0.5250;0.6955;
1124.7000;0.5226;0.6904;
1125.0000;0.5267;0.7032;
1125.3000;0.5250;0.7032;
1125.6000;0.5201;0.6878;
1125.9000;0.5258;0.7109;
1126.2000;0.5250;0.7109;
1126.5000;0.5250;0.7058;
1126.8000;0.5267;0.7109;
1127.1000;0.5267;0.7135;
1127.4000;0.5250;0.7186;
1127.7000;0.5226;0.7212;
1128.0000;0.5332;0.7545;
1128.3000;0.5267;0.7366;
1128.6000;0.5267;0.7340;
1128.9000;0.5267;0.7263;
1129.2000;0.5258;0.7263;
1129.5000;0.5275;0.7314;
1129.8000;0.5275;0.7263;
1130.1000;0.5250;0.7314;
1130.4000;0.5275;0.7391;
1130.7000;0.5250;0.7263;
1131.0000;0.5226;0.7237;
1131.3000;0.5258;0.7289;
1131.6000;0.5250;0.7212;
1131.9000;0.5267;0.7212;
1132.2000;0.5267;0.7212;
1132.5000;0.5267;0.7263;
1132.8000;0.5267;0.7289;
1133.1000;0.5275;0.7237;
1133.4000;0.5250;0.7237;
1133.7000;0.5201;0.6981;
1134.0000;0.5250;0.7058;
1134.3000;0.5267;0.7135;
1134.6000;0.5267;0.7109;
1134.9000;0.5348;0.7314;
1135.2000;0.5234;0.7032;
1135.5000;0.5234;0.7058;
1135.8000;0.5258;0.7083;
1136.1000;0.5267;0.7083;
1136.4000;0.5250;0.7083;
1136.7000;0.5258;0.7032;
1137.0000;0.5267;0.7109;
1137.3000;0.5267;0.7109;
1137.6000;0.5242;0.7109;
1137.9000;0.5242;0.7160;
1138.2000;0.5258;0.7083;
1138.5000;0.5258;0.7058;
1138.8000;0.5258;0.7006;
1139.1000;0.5299;0.7058;
1139.4000;0.5242;0.7032;
1139.7000;0.5291;0.7135;
1140.0000;0.5234;0.7006;
1140.3000;0.5250;0.7032;
1140.6000;0.5201;0.6955;
1140.9000;0.5250;0.7032;
1141.2000;0.5307;0.7032;
1141.5000;0.5258;0.6981;
1141.8000;0.5250;0.7032;
1142.1000;0.5234;0.7032;
1142.4000;0.5283;0.7083;
1142.7000;0.5275;0.7135;
1143.0000;0.5258;0.7160;
1143.3000;0.5185;0.7083;
1143.6000;0.5283;0.7289;
1143.9000;0.5315;0.7340;
1144.2000;0.5291;0.7289;
1144.5000;0.5226;0.7186;
1144.8000;0.5267;0.7160;
1145.1000;0.5250;0.7263;
1145.4000;0.5258;0.7314;
1145.7000;0.5267;0.7340;
1146.0000;0.5258;0.7263;
1146.3000;0.5234;0.7289;
1146.6000;0.5291;0.7494;
1146.9000;0.5250;0.7417;
1147.2000;0.5258;0.7443;
1147.5000;0.5275;0.7494;
1147.8000;0.5234;0.7417;
1148.1000;0.5226;0.7263;
1148.4000;0.5226;0.7237;
1148.7000;0.5258;0.7237;
1149.0000;0.5340;0.7443;
1149.3000;0.5258;0.7160;
1149.6000;0.5242;0.7058;
1149.9000;0.5258;0.7109;
1150.2000;0.5250;0.7083;
1150.5000;0.5242;0.7058;
1150.8000;0.5242;0.7083;
1151.1000;0.5242;0.7083;
1151.4000;0.5250;0.7109;
1151.7000;0.5250;0.7006;
1152.0000;0.5250;0.6981;
1152.3000;0.5258;0.7109;
1152.6000;0.5250;0.7135;
1152.9000;0.5250;0.7109;
1153.2000;0.5258;0.7109;
1153.5000;0.5258;0.7135;
1153.8000;0.5267;0.7083;
1154.1000;0.5250;0.6981;
1154.4000;0.5242;0.6929;
1154.7000;0.5267;0.6929;
1155.0000;0.5250;0.6878;
1155.3000;0.5258;0.6827;
1155.6000;0.5242;0.6904;
1155.9000;0.5258;0.7006;
1156.2000;0.5267;0.7006;
1156.5000;0.5258;0.7058;
1156.8000;0.5210;0.6929;
1157.1000;0.5250;0.7109;
1157.4000;0.5258;0.7160;
1157.7000;0.5250;0.7160;
1158.0000;0.5234;0.7212;
1158.3000;0.5250;0.7314;
1158.6000;0.5258;0.7314;
1158.9000;0.5275;0.7366;
1159.2000;0.5275;0.7289;
1159.5000;0.5275;0.7263;
1159.8000;0.5242;0.7237;
1160.1000;0.5267;0.7186;
1160.4000;0.5250;0.7109;
1160.7000;0.5267;0.7160;
1161.0000;0.5258;0.7135;
1161.3000;0.5226;0.7083;
1161.6000;0.5267;0.7160;
1161.9000;0.5242;0.7032;
1162.2000;0.5242;0.7032;
1162.5000;0.5242;0.7032;
1162.8000;0.5242;0.7135;
1163.1000;0.5250;0.7186;
1163.4000;0.5226;0.7186;
1163.7000;0.5242;0.7160;
1164.0000;0.5258;0.7109;
1164.3000;0.5267;0.7083;
1164.6000;0.5226;0.7032;
1164.9000;0.5258;0.7160;
1165.2000;0.5283;0.7263;
1165.5000;0.5267;0.7186;
1165.8000;0.5258;0.7186;
1166.1000;0.5177;0.7006;
1166.4000;0.5307;0.7186;
1166.7000;0.5234;0.7006;
1167.0000;0.5242;0.6929;
1167.3000;0.5258;0.6929;
1167.6000;0.5250;0.6878;
1167.9000;0.5258;0.6878;
1168.2000;0.5275;0.6878;
1168.5000;0.5267;0.6852;
1168.8000;0.5258;0.6827;
1169.1000;0.5258;0.6929;
1169.4000;0.5258;0.6955;
1169.7000;0.5258;0.6904;
1170.0000;0.5242;0.6929;
1170.3000;0.5258;0.6981;
1170.6000;0.5258;0.7032;
1170.9000;0.5258;0.6929;
1171.2000;0.5267;0.7006;
1171.5000;0.5250;0.7032;
1171.8000;0.5258;0.7032;
1172.1000;0.5258;0.6904;
1172.4000;0.5250;0.6955;
1172.7000;0.5250;0.7109;
1173.0000;0.5267;0.7058;
1173.3000;0.5275;0.7058;
1173.6000;0.5242;0.6955;
1173.9000;0.5275;0.6929;
1174.2000;0.5250;0.7006;
1174.5000;0.5283;0.7083;
1174.8000;0.5258;0.7058;
1175.1000;0.5258;0.7083;
1175.4000;0.5275;0.7135;
1175.7000;0.5258;0.7135;
1176.0000;0.5234;0.7058;
1176.3000;0.5267;0.7058;
1176.6000;0.5258;0.7032;
1176.9000;0.5258;0.7058;
1177.2000;0.5307;0.7135;
1177.5000;0.5250;0.7032;
1177.8000;0.5250;0.7083;
1178.1000;0.5242;0.7032;
1178.4000;0.5258;0.7032;
1178.7000;0.5242;0.7032;
1179.0000;0.5250;0.7006;
1179.3000;0.5267;0.7083;
1179.6000;0.5250;0.7160;
1179.9000;0.5242;0.7083;
1180.2000;0.5258;0.7058;
1180.5000;0.5267;0.7083;
1180.8000;0.5242;0.7058;
1181.1000;0.5258;0.6955;
1181.4000;0.5258;0.7032;
1181.7000;0.5234;0.7006;
1182.0000;0.5250;0.7083;
1182.3000;0.5226;0.7032;
1182.6000;0.5242;0.7058;
1182.9000;0.5258;0.7109;
1183.2000;0.5250;0.7032;
1183.5000;0.5234;0.7058;
1183.8000;0.5250;0.7109;
1184.1000;0.5226;0.7058;
1184.4000;0.5258;0.7058;
1184.7000;0.5242;0.7032;
1185.0000;0.5226;0.7032;
1185.3000;0.5267;0.7058;
1185.6000;0.5283;0.7160;
1185.9000;0.5275;0.7032;
1186.2000;0.5242;0.6904;
1186.5000;0.5250;0.6929;
1186.8000;0.5250;0.6955;
1187.1000;0.5226;0.6981;
1187.4000;0.5250;0.7058;
1187.7000;0.5242;0.7032;
1188.0000;0.5234;0.7032;
1188.3000;0.5242;0.7058;
1188.6000;0.5234;0.7006;
1188.9000;0.5258;0.7083;
1189.2000;0.5267;0.7083;
1189.5000;0.5275;0.7160;
1189.8000;0.5234;0.7109;
1190.1000;0.5267;0.7212;
1190.4000;0.5226;0.7186;
1190.7000;0.5299;0.7263;
1191.0000;0.5242;0.7186;
1191.3000;0.5242;0.7135;
1191.6000;0.5242;0.7186;
1191.9000;0.5120;0.6904;
1192.2000;0.5193;0.7109;
1192.5000;0.5234;0.7109;
1192.8000;0.5242;0.7109;
1193.1000;0.5315;0.7263;
1193.4000;0.5250;0.7083;
1193.7000;0.5258;0.7032;
1194.0000;0.5226;0.6904;
1194.3000;0.5250;0.6955;
1194.6000;0.5258;0.6981;
1194.9000;0.5267;0.7032;
1195.2000;0.5258;0.7058;
1195.5000;0.5234;0.7058;
1195.8000;0.5275;0.7160;
1196.1000;0.5267;0.7186;
1196.4000;0.5250;0.7160;
1196.7000;0.5242;0.7135;
1197.0000;0.5258;0.7109;
1197.3000;0.5242;0.7058;
1197.6000;0.5153;0.6801;
1197.9000;0.5250;0.7032;
1198.2000;0.5258;0.7083;
1198.5000;0.5267;0.7083;
1198.8000;0.5267;0.7006;
1199.1000;0.5250;0.7032;
1199.4000;0.5258;0.7032;
1199.7000;0.5250;0.6981;
1200.0000;0.5258;0.7006;
1200.3000;0.5258;0.7058;
1200.6000;0.5250;0.6981;
1200.9000;0.5201;0.6827;
1201.2000;0.5234;0.6904;
1201.5000;0.5258;0.7006;
1201.8000;0.5250;0.7006;
1202.1000;0.5242;0.6981;
1202.4000;0.5234;0.6955;
1202.7000;0.5242;0.6955;
1203.0000;0.5226;0.6955;
1203.3000;0.5250;0.7109;
1203.6000;0.5258;0.7160;
1203.9000;0.5234;0.7083;
1204.2000;0.5250;0.7083;
1204.5000;0.5275;0.7212;
1204.8000;0.5250;0.7135;
1205.1000;0.5267;0.7212;
1205.4000;0.5250;0.7212;
1205.7000;0.5242;0.7109;
1206.0000;0.5250;0.7135;
1206.3000;0.5275;0.7135;
1206.6000;0.5258;0.7160;
1206.9000;0.5218;0.7109;
1207.2000;0.5250;0.7135;
1207.5000;0.5258;0.7186;
1207.8000;0.5234;0.7160;
1208.1000;0.5250;0.7135;
1208.4000;0.5242;0.7135;
1208.7000;0.5267;0.7135;
1209.0000;0.5250;0.7135;
1209.3000;0.5242;0.7109;
1209.6000;0.5258;0.7186;
1209.9000;0.5275;0.7160;
1210.2000;0.5275;0.7109;
1210.5000;0.5258;0.7006;
1210.8000;0.5267;0.7058;
1211.1000;0.5250;0.7083;
1211.4000;0.5250;0.7109;
1211.7000;0.5258;0.7109;
1212.0000;0.5250;0.7135;
1212.3000;0.5250;0.7212;
1212.6000;0.5258;0.7160;
1212.9000;0.5234;0.7109;
1213.2000;0.5250;0.7083;
1213.5000;0.5267;0.7160;
1213.8000;0.5275;0.7212;
1214.1000;0.5267;0.7212;
1214.4000;0.5267;0.7186;
1214.7000;0.5275;0.7109;
1215.0000;0.5275;0.7032;
1215.3000;0.5267;0.6955;
1215.6000;0.5258;0.6981;
1215.9000;0.5307;0.7032;
1216.2000;0.5275;0.6929;
1216.5000;0.5332;0.7160;
1216.8000;0.5267;0.6981;
1217.1000;0.5258;0.7006;
1217.4000;0.5315;0.7186;
1217.7000;0.5283;0.7109;
1218.0000;0.5258;0.7058;
1218.3000;0.5250;0.7032;
1218.6000;0.5250;0.7083;
1218.9000;0.5258;0.7083;
1219.2000;0.5250;0.7058;
1219.5000;0.5258;0.7006;
1219.8000;0.5193;0.6904;
1220.1000;0.5258;0.7135;
1220.4000;0.5226;0.7109;
1220.7000;0.5275;0.7186;
1221.0000;0.5242;0.7109;
1221.3000;0.5250;0.7212;
1221.6000;0.5258;0.7237;
1221.9000;0.5267;0.7212;
1222.2000;0.5258;0.7160;
1222.5000;0.5258;0.7135;
1222.8000;0.5218;0.7032;
1223.1000;0.5234;0.7083;
1223.4000;0.5250;0.7263;
1223.7000;0.5258;0.7314;
1224.0000;0.5267;0.7340;
1224.3000;0.5267;0.7237;
1224.6000;0.5258;0.7263;
1224.9000;0.5275;0.7314;
1225.2000;0.5258;0.7237;
1225.5000;0.5258;0.7135;
1225.8000;0.5267;0.7186;
1226.1000;0.5250;0.7135;
1226.4000;0.5250;0.7186;
1226.7000;0.5250;0.7135;
1227.0000;0.5242;0.7160;
1227.3000;0.5258;0.7340;
1227.6000;0.5218;0.7109;
1227.9000;0.5242;0.7135;
1228.2000;0.5250;0.7083;
1228.5000;0.5242;0.7083;
1228.8000;0.5291;0.7237;
1229.1000;0.5242;0.7160;
1229.4000;0.5258;0.7160;
1229.7000;0.5275;0.7212;
1230.0000;0.5242;0.7263;
1230.3000;0.5250;0.7391;
1230.6000;0.5267;0.7391;
1230.9000;0.5242;0.7340;
1231.2000;0.5242;0.7340;
1231.5000;0.5250;0.7340;
1231.8000;0.5234;0.7237;
1232.1000;0.5258;0.7212;
1232.4000;0.5250;0.7263;
1232.7000;0.5250;0.7391;
1233.0000;0.5242;0.7391;
1233.3000;0.5242;0.7417;
1233.6000;0.5250;0.7468;
1233.9000;0.5234;0.7391;
1234.2000;0.5242;0.7366;
1234.5000;0.5258;0.7391;
1234.8000;0.5242;0.7391;
1235.1000;0.5258;0.7468;
1235.4000;0.5250;0.7391;
1235.7000;0.5258;0.7366;
1236.0000;0.5250;0.7340;
1236.3000;0.5283;0.7417;
1236.6000;0.5275;0.7391;
1236.9000;0.5258;0.7237;
1237.2000;0.5275;0.7289;
1237.5000;0.5267;0.7314;
1237.8000;0.5258;0.7263;
1238.1000;0.5250;0.7212;
1238.4000;0.5348;0.7443;
1238.7000;0.5250;0.7135;
1239.0000;0.5250;0.7237;
1239.3000;0.5267;0.7314;
1239.6000;0.5258;0.7237;
1239.9000;0.5250;0.7237;
1240.2000;0.5275;0.7340;
1240.5000;0.5250;0.7263;
1240.8000;0.5291;0.7391;
1241.1000;0.5242;0.7340;
1241.4000;0.5250;0.7314;
1241.7000;0.5242;0.7289;
1242.0000;0.5218;0.7160;
1242.3000;0.5250;0.7289;
1242.6000;0.5258;0.7237;
1242.9000;0.5250;0.7237;
1243.2000;0.5250;0.7237;
1243.5000;0.5242;0.7289;
1243.8000;0.5291;0.7443;
1244.1000;0.5250;0.7340;
1244.4000;0.5258;0.7417;
1244.7000;0.5250;0.7391;
1245.0000;0.5242;0.7366;
1245.3000;0.5250;0.7417;
1245.6000;0.5267;0.7443;
1245.9000;0.5250;0.7443;
1246.2000;0.5250;0.7468;
1246.5000;0.5250;0.7443;
1246.8000;0.5267;0.7417;
1247.1000;0.5234;0.7391;
1247.4000;0.5258;0.7340;
1247.7000;0.5258;0.7289;
1248.0000;0.5234;0.7263;
1248.3000;0.5242;0.7366;
1248.6000;0.5340;0.7597;
1248.9000;0.5242;0.7340;
1249.2000;0.5250;0.7263;
1249.5000;0.5250;0.7237;
1249.8000;0.5250;0.7340;
1250.1000;0.5242;0.7263;
1250.4000;0.5258;0.7314;
1250.7000;0.5258;0.7314;
1251.0000;0.5258;0.7263;
1251.3000;0.5267;0.7289;
1251.6000;0.5242;0.7160;
1251.9000;0.5267;0.7289;
1252.2000;0.5234;0.7314;
1252.5000;0.5258;0.7417;
1252.8000;0.5250;0.7366;
1253.1000;0.5242;0.7263;
1253.4000;0.5218;0.7237;
1253.7000;0.5234;0.7186;
1254.0000;0.5226;0.7160;
1254.3000;0.5258;0.7289;
1254.6000;0.5250;0.7263;
1254.9000;0.5242;0.7289;
1255.2000;0.5234;0.7212;
1255.5000;0.5258;0.7263;
1255.8000;0.5250;0.7289;
1256.1000;0.5258;0.7391;
1256.4000;0.5250;0.7391;
1256.7000;0.5250;0.7289;
1257.0000;0.5275;0.7366;
1257.3000;0.5250;0.7340;
1257.6000;0.5242;0.7237;
1257.9000;0.5291;0.7263;
1258.2000;0.5234;0.7006;
1258.5000;0.5250;0.7032;
1258.8000;0.5267;0.7058;
1259.1000;0.5250;0.6955;
1259.4000;0.5291;0.7032;
1259.7000;0.5258;0.6904;
1260.0000;0.5242;0.6929;
1260.3000;0.5250;0.6929;
1260.6000;0.5291;0.7135;
1260.9000;0.5258;0.6929;
1261.2000;0.5226;0.6904;
1261.5000;0.5267;0.6955;
1261.8000;0.5250;0.6929;
1262.1000;0.5275;0.6929;
1262.4000;0.5299;0.7032;
1262.7000;0.5267;0.7006;
1263.0000;0.5242;0.6981;
1263.3000;0.5283;0.6981;
1263.6000;0.5242;0.6955;
1263.9000;0.5258;0.6955;
1264.2000;0.5234;0.6904;
1264.5000;0.5258;0.7006;
1264.8000;0.5267;0.7006;
1265.1000;0.5250;0.7006;
1265.4000;0.5242;0.7032;
1265.7000;0.5242;0.7032;
1266.0000;0.5267;0.7032;
1266.3000;0.5275;0.6955;
1266.6000;0.5258;0.7032;
1266.9000;0.5258;0.6981;
1267.2000;0.5267;0.7083;
1267.5000;0.5242;0.7006;
1267.8000;0.5161;0.6929;
1268.1000;0.5242;0.7160;
1268.4000;0.5267;0.7237;
1268.7000;0.5258;0.7289;
1269.0000;0.5291;0.7366;
1269.3000;0.5234;0.7083;
1269.6000;0.5250;0.6981;
1269.9000;0.5267;0.7032;
1270.2000;0.5258;0.6955;
1270.5000;0.5242;0.7006;
1270.8000;0.5258;0.7083;
1271.1000;0.5267;0.6981;
1271.4000;0.5258;0.7032;
1271.7000;0.5250;0.7006;
1272.0000;0.5267;0.7109;
1272.3000;0.5275;0.7109;
1272.6000;0.5250;0.6955;
1272.9000;0.5250;0.6929;
1273.2000;0.5234;0.6981;
1273.5000;0.5307;0.7135;
1273.8000;0.5275;0.7032;
1274.1000;0.5267;0.6904;
1274.4000;0.5161;0.6775;
1274.7000;0.5258;0.7109;
1275.0000;0.5242;0.7186;
1275.3000;0.5267;0.7263;
1275.6000;0.5267;0.7160;
1275.9000;0.5250;0.7135;
1276.2000;0.5242;0.7006;
1276.5000;0.5299;0.7263;
1276.8000;0.5258;0.7212;
1277.1000;0.5234;0.7160;
1277.4000;0.5307;0.7468;
1277.7000;0.5258;0.7212;
1278.0000;0.5218;0.7058;
1278.3000;0.5242;0.7109;
1278.6000;0.5258;0.7135;
1278.9000;0.5267;0.7212;
1279.2000;0.5250;0.7212;
1279.5000;0.5234;0.7083;
1279.8000;0.5226;0.6981;
1280.1000;0.5242;0.6981;
1280.4000;0.5226;0.6981;
1280.7000;0.5242;0.6955;
1281.0000;0.5234;0.6955;
1281.3000;0.5267;0.6929;
1281.6000;0.5267;0.6878;
1281.9000;0.5226;0.6801;
1282.2000;0.5234;0.6801;
1282.5000;0.5250;0.6852;
1282.8000;0.5234;0.6801;
1283.1000;0.5267;0.6955;
1283.4000;0.5267;0.6904;
1283.7000;0.5258;0.6929;
1284.0000;0.5267;0.6955;
1284.3000;0.5324;0.7058;
1284.6000;0.5291;0.7006;
1284.9000;0.5275;0.6904;
1285.2000;0.5234;0.6852;
1285.5000;0.5307;0.7006;
1285.8000;0.5242;0.6801;
1286.1000;0.5283;0.6878;
1286.4000;0.5275;0.6904;
1286.7000;0.5258;0.6775;
1287.0000;0.5267;0.6801;
1287.3000;0.5267;0.6904;
1287.6000;0.5218;0.6904;
1287.9000;0.5242;0.6955;
1288.2000;0.5242;0.6929;
1288.5000;0.5315;0.7032;
1288.8000;0.5258;0.6878;
1289.1000;0.5210;0.6775;
1289.4000;0.5226;0.6801;
1289.7000;0.5234;0.6852;
1290.0000;0.5250;0.6904;
1290.3000;0.5250;0.6955;
1290.6000;0.5234;0.6981;
1290.9000;0.5283;0.7135;
1291.2000;0.5267;0.7083;
1291.5000;0.5242;0.7032;
1291.8000;0.5267;0.7109;
1292.1000;0.5267;0.7032;
1292.4000;0.5267;0.7006;
1292.7000;0.5258;0.7032;
1293.0000;0.5250;0.6981;
1293.3000;0.5258;0.6981;
1293.6000;0.5258;0.6981;
1293.9000;0.5234;0.6878;
1294.2000;0.5234;0.6904;
1294.5000;0.5226;0.6929;
1294.8000;0.5226;0.6955;
1295.1000;0.5250;0.7058;
1295.4000;0.5250;0.7109;
1295.7000;0.5234;0.7109;
1296.0000;0.5242;0.7135;
1296.3000;0.5267;0.7237;
1296.6000;0.5258;0.7109;
1296.9000;0.5250;0.7109;
1297.2000;0.5250;0.7083;
1297.5000;0.5242;0.7058;
1297.8000;0.5250;0.6955;
1298.1000;0.5250;0.6955;
1298.4000;0.5267;0.6955;
1298.7000;0.5242;0.6955;
1299.0000;0.5242;0.6929;
1299.3000;0.5307;0.7135;
1299.6000;0.5242;0.6827;
1299.9000;0.5234;0.6827;
1300.2000;0.5242;0.6827;
1300.5000;0.5283;0.7006;
1300.8000;0.5226;0.6852;
1301.1000;0.5234;0.6878;
1301.4000;0.5242;0.6904;
1301.7000;0.5234;0.6981;
1302.0000;0.5242;0.6981;
1302.3000;0.5267;0.6904;
1302.6000;0.5275;0.6929;
1302.9000;0.5267;0.6929;
1303.2000;0.5267;0.6955;
1303.5000;0.5242;0.6878;
1303.8000;0.5234;0.6852;
1304.1000;0.5267;0.6878;
1304.4000;0.5250;0.6904;
1304.7000;0.5258;0.7006;
1305.0000;0.5258;0.7058;
1305.3000;0.5250;0.7058;
1305.6000;0.5258;0.7135;
1305.9000;0.5291;0.7263;
1306.2000;0.5177;0.7006;
1306.5000;0.5258;0.7212;
1306.8000;0.5250;0.7186;
1307.1000;0.5250;0.7135;
1307.4000;0.5234;0.7109;
1307.7000;0.5250;0.7135;
1308.0000;0.5267;0.7212;
1308.3000;0.5234;0.7109;
1308.6000;0.5275;0.7186;
1308.9000;0.5283;0.7109;
1309.2000;0.5250;0.7032;
1309.5000;0.5242;0.7083;
1309.8000;0.5258;0.7109;
1310.1000;0.5250;0.6981;
1310.4000;0.5267;0.6929;
1310.7000;0.5185;0.6647;
1311.0000;0.5234;0.6775;
1311.3000;0.5226;0.6750;
1311.6000;0.5201;0.6673;
1311.9000;0.5250;0.6955;
1312.2000;0.5234;0.7006;
1312.5000;0.5258;0.7006;
1312.8000;0.5258;0.6981;
1313.1000;0.5267;0.7083;
1313.4000;0.5283;0.7135;
1313.7000;0.5201;0.6929;
1314.0000;0.5258;0.7032;
1314.3000;0.5258;0.6981;
1314.6000;0.5177;0.6775;
1314.9000;0.5226;0.6929;
1315.2000;0.5193;0.6878;
1315.5000;0.5267;0.7058;
1315.8000;0.5210;0.7032;
1316.1000;0.5250;0.7160;
1316.4000;0.5250;0.7109;
1316.7000;0.5275;0.7160;
1317.0000;0.5258;0.7135;
1317.3000;0.5242;0.7006;
1317.6000;0.5267;0.6981;
1317.9000;0.5275;0.7032;
1318.2000;0.5275;0.7006;
1318.5000;0.5275;0.7006;
1318.8000;0.5210;0.6878;
1319.1000;0.5250;0.6955;
1319.4000;0.5242;0.7006;
1319.7000;0.5291;0.7032;
1320.0000;0.5242;0.6852;
1320.3000;0.5226;0.6801;
1320.6000;0.5267;0.6904;
1320.9000;0.5250;0.6852;
1321.2000;0.5250;0.6827;
1321.5000;0.5332;0.7032;
1321.8000;0.5275;0.6852;
1322.1000;0.5275;0.6878;
1322.4000;0.5250;0.6827;
1322.7000;0.5144;0.6544;
1323.0000;0.5250;0.6904;
1323.3000;0.5258;0.7006;
1323.6000;0.5242;0.6981;
1323.9000;0.5226;0.6878;
1324.2000;0.5258;0.7058;
1324.5000;0.5185;0.6852;
1324.8000;0.5234;0.7032;
1325.1000;0.5226;0.7032;
1325.4000;0.5250;0.7083;
1325.7000;0.5250;0.7109;
1326.0000;0.5291;0.7314;
1326.3000;0.5250;0.7237;
1326.6000;0.5218;0.7212;
1326.9000;0.5250;0.7340;
1327.2000;0.5242;0.7340;
1327.5000;0.5242;0.7237;
1327.8000;0.5218;0.7135;
1328.1000;0.5258;0.7135;
1328.4000;0.5242;0.7083;
1328.7000;0.5258;0.7109;
1329.0000;0.5250;0.7058;
1329.3000;0.5258;0.7135;
1329.6000;0.5275;0.7160;
1329.9000;0.5250;0.7109;
1330.2000;0.5242;0.7083;
1330.5000;0.5226;0.7006;
1330.8000;0.5324;0.7186;
1331.1000;0.5250;0.6904;
1331.4000;0.5226;0.6878;
1331.7000;0.5258;0.6981;
1332.0000;0.5250;0.6929;
1332.3000;0.5258;0.7006;
1332.6000;0.5242;0.6955;
1332.9000;0.5250;0.7006;
1333.2000;0.5258;0.7006;
1333.5000;0.5218;0.6955;
1333.8000;0.5250;0.7083;
1334.1000;0.5234;0.7032;
1334.4000;0.5242;0.7006;
1334.7000;0.5250;0.7032;
1335.0000;0.5193;0.6827;
1335.3000;0.5242;0.7006;
1335.6000;0.5161;0.6852;
1335.9000;0.5267;0.7083;
1336.2000;0.5258;0.7032;
1336.5000;0.5218;0.6955;
1336.8000;0.5226;0.6955;
1337.1000;0.5258;0.6981;
1337.4000;0.5250;0.6878;
1337.7000;0.5250;0.7032;
1338.0000;0.5193;0.6852;
1338.3000;0.5250;0.6878;
1338.6000;0.5283;0.7006;
1338.9000;0.5250;0.6955;
1339.2000;0.5258;0.6955;
1339.5000;0.5210;0.6878;
1339.8000;0.5258;0.6929;
1340.1000;0.5258;0.6852;
1340.4000;0.5234;0.6852;
1340.7000;0.5234;0.6801;
1341.0000;0.5258;0.6904;
1341.3000;0.5242;0.6904;
1341.6000;0.5226;0.6852;
1341.9000;0.5250;0.6981;
1342.2000;0.5267;0.7032;
1342.5000;0.5242;0.6929;
1342.8000;0.5185;0.6698;
1343.1000;0.5250;0.6929;
1343.4000;0.5242;0.6929;
1343.7000;0.5275;0.7006;
1344.0000;0.5234;0.6904;
1344.3000;0.5250;0.6929;
1344.6000;0.5299;0.7135;
1344.9000;0.5283;0.7006;
1345.2000;0.5250;0.6981;
1345.5000;0.5234;0.7058;
1345.8000;0.5226;0.6955;
1346.1000;0.5258;0.6981;
1346.4000;0.5275;0.6904;
1346.7000;0.5177;0.6621;
1347.0000;0.5283;0.6827;
1347.3000;0.5275;0.6775;
1347.6000;0.5258;0.6775;
1347.9000;0.5250;0.6775;
1348.2000;0.5250;0.6775;
1348.5000;0.5258;0.6801;
1348.8000;0.5267;0.6775;
1349.1000;0.5250;0.6750;
1349.4000;0.5258;0.6775;
1349.7000;0.5234;0.6673;
1350.0000;0.5250;0.6647;
1350.3000;0.5332;0.6904;
1350.6000;0.5267;0.6698;
1350.9000;0.5226;0.6673;
1351.2000;0.5234;0.6621;
1351.5000;0.5250;0.6724;
1351.8000;0.5258;0.6750;
1352.1000;0.5242;0.6775;
1352.4000;0.5258;0.6852;
1352.7000;0.5234;0.6852;
1353.0000;0.5299;0.6929;
1353.3000;0.5267;0.6878;
1353.6000;0.5250;0.6852;
1353.9000;0.5267;0.6929;
1354.2000;0.5389;0.7237;
1354.5000;0.5218;0.6929;
1354.8000;0.5250;0.6929;
1355.1000;0.5242;0.6878;
1355.4000;0.5275;0.6827;
1355.7000;0.5250;0.6775;
1356.0000;0.5258;0.6775;
1356.3000;0.5250;0.6698;
1356.6000;0.5242;0.6698;
1356.9000;0.5340;0.6981;
1357.2000;0.5250;0.6801;
1357.5000;0.5234;0.6724;
1357.8000;0.5267;0.6775;
1358.1000;0.5250;0.6750;
1358.4000;0.5258;0.6852;
1358.7000;0.5250;0.6904;
1359.0000;0.5258;0.6852;
1359.3000;0.5242;0.6775;
1359.6000;0.5234;0.6698;
1359.9000;0.5242;0.6724;
1360.2000;0.5226;0.6724;
1360.5000;0.5258;0.6801;
1360.8000;0.5250;0.6775;
1361.1000;0.5258;0.6775;
1361.4000;0.5258;0.6775;
1361.7000;0.5242;0.6698;
1362.0000;0.5299;0.6852;
1362.3000;0.5234;0.6673;
1362.6000;0.5250;0.6775;
1362.9000;0.5250;0.6878;
1363.2000;0.5234;0.6827;
1363.5000;0.5234;0.6750;
1363.8000;0.5242;0.6827;
1364.1000;0.5267;0.6878;
1364.4000;0.5267;0.6904;
1364.7000;0.5242;0.6878;
1365.0000;0.5242;0.6878;
1365.3000;0.5234;0.6852;
1365.6000;0.5234;0.6801;
1365.9000;0.5275;0.6904;
1366.2000;0.5242;0.6775;
1366.5000;0.5250;0.6775;
1366.8000;0.5267;0.6827;
1367.1000;0.5258;0.6878;
1367.4000;0.5258;0.6878;
1367.7000;0.5258;0.6929;
1368.0000;0.5234;0.6852;
1368.3000;0.5250;0.6929;
1368.6000;0.5258;0.6929;
1368.9000;0.5250;0.6929;
1369.2000;0.5218;0.6878;
1369.5000;0.5242;0.6981;
1369.8000;0.5193;0.6801;
1370.1000;0.5234;0.6904;
1370.4000;0.5242;0.6955;
1370.7000;0.5242;0.6904;
1371.0000;0.5234;0.6827;
1371.3000;0.5234;0.6775;
1371.6000;0.5258;0.6827;
1371.9000;0.5250;0.6981;
1372.2000;0.5234;0.7032;
1372.5000;0.5234;0.7109;
1372.8000;0.5234;0.7109;
1373.1000;0.5218;0.7032;
1373.4000;0.5242;0.7109;
1373.7000;0.5226;0.7006;
1374.0000;0.5226;0.6955;
1374.3000;0.5291;0.7083;
1374.6000;0.5226;0.6955;
1374.9000;0.5242;0.6929;
1375.2000;0.5218;0.6801;
1375.5000;0.5242;0.6827;
1375.8000;0.5258;0.6827;
1376.1000;0.5234;0.6775;
1376.4000;0.5234;0.6775;
1376.7000;0.5218;0.6750;
1377.0000;0.5258;0.6827;
1377.3000;0.5307;0.6904;
1377.6000;0.5258;0.6929;
1377.9000;0.5234;0.6904;
1378.2000;0.5201;0.6801;
1378.5000;0.5242;0.6981;
1378.8000;0.5267;0.7006;
1379.1000;0.5242;0.7006;
1379.4000;0.5267;0.7135;
1379.7000;0.5258;0.7160;
1380.0000;0.5242;0.7083;
1380.3000;0.5258;0.7135;
1380.6000;0.5258;0.7160;
1380.9000;0.5250;0.7186;
1381.2000;0.5258;0.7212;
1381.5000;0.5242;0.7160;
1381.8000;0.5234;0.7109;
1382.1000;0.5258;0.7160;
1382.4000;0.5242;0.7135;
1382.7000;0.5242;0.7058;
1383.0000;0.5250;0.7006;
1383.3000;0.5250;0.7006;
1383.6000;0.5250;0.6929;
1383.9000;0.5250;0.6878;
1384.2000;0.5242;0.6878;
1384.5000;0.5258;0.6878;
1384.8000;0.5234;0.6775;
1385.1000;0.5267;0.6775;
1385.4000;0.5250;0.6750;
1385.7000;0.5258;0.6827;
1386.0000;0.5250;0.6801;
1386.3000;0.5250;0.6801;
1386.6000;0.5258;0.6827;
1386.9000;0.5258;0.6827;
1387.2000;0.5267;0.6827;
1387.5000;0.5193;0.6698;
1387.8000;0.5242;0.6878;
1388.1000;0.5267;0.7032;
1388.4000;0.5258;0.7058;
1388.7000;0.5283;0.7058;
1389.0000;0.5258;0.6955;
1389.3000;0.5258;0.6929;
1389.6000;0.5324;0.7058;
1389.9000;0.5267;0.6852;
1390.2000;0.5267;0.6878;
1390.5000;0.5267;0.6852;
1390.8000;0.5275;0.6981;
1391.1000;0.5258;0.6904;
1391.4000;0.5250;0.6878;
1391.7000;0.5226;0.6852;
1392.0000;0.5250;0.6929;
1392.3000;0.5258;0.6929;
1392.6000;0.5250;0.6955;
1392.9000;0.5242;0.6981;
1393.2000;0.5258;0.7083;
1393.5000;0.5226;0.7006;
1393.8000;0.5242;0.7058;
1394.1000;0.5250;0.7083;
1394.4000;0.5267;0.7058;
1394.7000;0.5283;0.7058;
1395.0000;0.5258;0.6929;
1395.3000;0.5258;0.6929;
1395.6000;0.5275;0.6981;
1395.9000;0.5250;0.6955;
1396.2000;0.5242;0.7032;
1396.5000;0.5250;0.7032;
1396.8000;0.5242;0.6904;
1397.1000;0.5242;0.6801;
1397.4000;0.5250;0.6750;
1397.7000;0.5283;0.6724;
1398.0000;0.5250;0.6596;
1398.3000;0.5258;0.6544;
1398.6000;0.5218;0.6544;
1398.9000;0.5242;0.6673;
1399.2000;0.5242;0.6698;
1399.5000;0.5234;0.6724;
1399.8000;0.5242;0.6750;
