time/ms;Fluo/V;P700 deltaI/I x10³;
-199.8000;0.8449;0.9008;
-199.5000;0.8466;0.8982;
-199.2000;0.8457;0.8931;
-198.9000;0.8457;0.8854;
-198.6000;0.8417;0.8726;
-198.3000;0.8457;0.8828;
-198.0000;0.8490;0.8854;
-197.7000;0.8482;0.8803;
-197.4000;0.8457;0.8751;
-197.1000;0.8457;0.8777;
-196.8000;0.8474;0.8751;
-196.5000;0.8539;0.8880;
-196.2000;0.8482;0.8777;
-195.9000;0.8466;0.8700;
-195.6000;0.8449;0.8751;
-195.3000;0.8449;0.8700;
-195.0000;0.8490;0.8726;
-194.7000;0.8457;0.8751;
-194.4000;0.8457;0.8828;
-194.1000;0.8457;0.8854;
-193.8000;0.8466;0.8905;
-193.5000;0.8474;0.8880;
-193.2000;0.8531;0.9059;
-192.9000;0.8466;0.8931;
-192.6000;0.8474;0.8905;
-192.3000;0.8474;0.8905;
-192.0000;0.8449;0.8828;
-191.7000;0.8457;0.8777;
-191.4000;0.8457;0.8751;
-191.1000;0.8457;0.8726;
-190.8000;0.8457;0.8751;
-190.5000;0.8457;0.8751;
-190.2000;0.8425;0.8674;
-189.9000;0.8555;0.9008;
-189.6000;0.8457;0.8726;
-189.3000;0.8466;0.8674;
-189.0000;0.8466;0.8674;
-188.7000;0.8466;0.8777;
-188.4000;0.8457;0.8777;
-188.1000;0.8474;0.8854;
-187.8000;0.8449;0.8777;
-187.5000;0.8457;0.8700;
-187.2000;0.8547;0.8931;
-186.9000;0.8457;0.8674;
-186.6000;0.8457;0.8803;
-186.3000;0.8441;0.8828;
-186.0000;0.8449;0.8803;
-185.7000;0.8490;0.8854;
-185.4000;0.8466;0.8880;
-185.1000;0.8457;0.8828;
-184.8000;0.8457;0.8803;
-184.5000;0.8466;0.8803;
-184.2000;0.8449;0.8803;
-183.9000;0.8433;0.8726;
-183.6000;0.8457;0.8751;
-183.3000;0.8457;0.8649;
-183.0000;0.8466;0.8674;
-182.7000;0.8441;0.8597;
-182.4000;0.8466;0.8674;
-182.1000;0.8506;0.8803;
-181.8000;0.8466;0.8700;
-181.5000;0.8506;0.8751;
-181.2000;0.8457;0.8726;
-180.9000;0.8449;0.8803;
-180.6000;0.8474;0.8803;
-180.3000;0.8425;0.8623;
-180.0000;0.8449;0.8700;
-179.7000;0.8474;0.8803;
-179.4000;0.8425;0.8751;
-179.1000;0.8474;0.8777;
-178.8000;0.8482;0.8931;
-178.5000;0.8523;0.9059;
-178.2000;0.8457;0.8828;
-177.9000;0.8474;0.8803;
-177.6000;0.8417;0.8649;
-177.3000;0.8449;0.8751;
-177.0000;0.8498;0.8854;
-176.7000;0.8457;0.8880;
-176.4000;0.8376;0.8623;
-176.1000;0.8466;0.8828;
-175.8000;0.8474;0.8828;
-175.5000;0.8474;0.8803;
-175.2000;0.8466;0.8828;
-174.9000;0.8433;0.8777;
-174.6000;0.8400;0.8623;
-174.3000;0.8474;0.8777;
-174.0000;0.8466;0.8880;
-173.7000;0.8441;0.8803;
-173.4000;0.8384;0.8726;
-173.1000;0.8474;0.8854;
-172.8000;0.8498;0.8957;
-172.5000;0.8449;0.8803;
-172.2000;0.8457;0.8828;
-171.9000;0.8466;0.8854;
-171.6000;0.8466;0.8880;
-171.3000;0.8506;0.8957;
-171.0000;0.8449;0.8828;
-170.7000;0.8490;0.8828;
-170.4000;0.8441;0.8803;
-170.1000;0.8392;0.8649;
-169.8000;0.8449;0.8777;
-169.5000;0.8457;0.8726;
-169.2000;0.8482;0.8803;
-168.9000;0.8466;0.8674;
-168.6000;0.8466;0.8649;
-168.3000;0.8433;0.8520;
-168.0000;0.8482;0.8572;
-167.7000;0.8441;0.8572;
-167.4000;0.8474;0.8751;
-167.1000;0.8457;0.8726;
-166.8000;0.8441;0.8700;
-166.5000;0.8441;0.8674;
-166.2000;0.8433;0.8751;
-165.9000;0.8466;0.8828;
-165.6000;0.8506;0.8957;
-165.3000;0.8498;0.8880;
-165.0000;0.8425;0.8777;
-164.7000;0.8498;0.8931;
-164.4000;0.8417;0.8726;
-164.1000;0.8474;0.8828;
-163.8000;0.8449;0.8803;
-163.5000;0.8457;0.8726;
-163.2000;0.8498;0.8854;
-162.9000;0.8482;0.8751;
-162.6000;0.8449;0.8572;
-162.3000;0.8457;0.8572;
-162.0000;0.8457;0.8520;
-161.7000;0.8449;0.8469;
-161.4000;0.8466;0.8597;
-161.1000;0.8457;0.8546;
-160.8000;0.8474;0.8674;
-160.5000;0.8482;0.8726;
-160.2000;0.8466;0.8700;
-159.9000;0.8457;0.8649;
-159.6000;0.8433;0.8597;
-159.3000;0.8482;0.8700;
-159.0000;0.8490;0.8828;
-158.7000;0.8457;0.8777;
-158.4000;0.8466;0.8803;
-158.1000;0.8482;0.8854;
-157.8000;0.8466;0.8751;
-157.5000;0.8474;0.8674;
-157.2000;0.8474;0.8700;
-156.9000;0.8457;0.8726;
-156.6000;0.8466;0.8751;
-156.3000;0.8474;0.8880;
-156.0000;0.8490;0.8905;
-155.7000;0.8449;0.8803;
-155.4000;0.8466;0.8905;
-155.1000;0.8449;0.8854;
-154.8000;0.8457;0.8803;
-154.5000;0.8457;0.8803;
-154.2000;0.8466;0.8905;
-153.9000;0.8449;0.8957;
-153.6000;0.8433;0.8880;
-153.3000;0.8457;0.8905;
-153.0000;0.8449;0.8957;
-152.7000;0.8466;0.8905;
-152.4000;0.8457;0.8726;
-152.1000;0.8474;0.8828;
-151.8000;0.8433;0.8726;
-151.5000;0.8474;0.8880;
-151.2000;0.8474;0.8931;
-150.9000;0.8441;0.8854;
-150.6000;0.8474;0.8803;
-150.3000;0.8466;0.8751;
-150.0000;0.8474;0.8777;
-149.7000;0.8490;0.8880;
-149.4000;0.8449;0.8803;
-149.1000;0.8466;0.8854;
-148.8000;0.8449;0.8828;
-148.5000;0.8433;0.8828;
-148.2000;0.8449;0.8957;
-147.9000;0.8417;0.8777;
-147.6000;0.8466;0.8905;
-147.3000;0.8474;0.9008;
-147.0000;0.8433;0.8854;
-146.7000;0.8449;0.8905;
-146.4000;0.8474;0.8957;
-146.1000;0.8457;0.8905;
-145.8000;0.8433;0.8751;
-145.5000;0.8433;0.8777;
-145.2000;0.8466;0.8905;
-144.9000;0.8425;0.8828;
-144.6000;0.8457;0.8957;
-144.3000;0.8449;0.8880;
-144.0000;0.8360;0.8649;
-143.7000;0.8466;0.8828;
-143.4000;0.8441;0.8828;
-143.1000;0.8433;0.8777;
-142.8000;0.8457;0.8803;
-142.5000;0.8449;0.8803;
-142.2000;0.8441;0.8726;
-141.9000;0.8466;0.8854;
-141.6000;0.8417;0.8777;
-141.3000;0.8466;0.8931;
-141.0000;0.8457;0.8905;
-140.7000;0.8449;0.8957;
-140.4000;0.8425;0.8854;
-140.1000;0.8466;0.8931;
-139.8000;0.8449;0.9008;
-139.5000;0.8449;0.8931;
-139.2000;0.8449;0.8905;
-138.9000;0.8449;0.8880;
-138.6000;0.8457;0.8880;
-138.3000;0.8457;0.8880;
-138.0000;0.8474;0.8905;
-137.7000;0.8490;0.8982;
-137.4000;0.8466;0.8854;
-137.1000;0.8482;0.8854;
-136.8000;0.8449;0.8777;
-136.5000;0.8466;0.8751;
-136.2000;0.8474;0.8674;
-135.9000;0.8474;0.8546;
-135.6000;0.8482;0.8546;
-135.3000;0.8466;0.8520;
-135.0000;0.8482;0.8649;
-134.7000;0.8514;0.8751;
-134.4000;0.8449;0.8597;
-134.1000;0.8466;0.8623;
-133.8000;0.8449;0.8572;
-133.5000;0.8482;0.8572;
-133.2000;0.8457;0.8520;
-132.9000;0.8466;0.8597;
-132.6000;0.8449;0.8546;
-132.3000;0.8466;0.8469;
-132.0000;0.8474;0.8444;
-131.7000;0.8466;0.8392;
-131.4000;0.8474;0.8469;
-131.1000;0.8457;0.8418;
-130.8000;0.8457;0.8495;
-130.5000;0.8466;0.8546;
-130.2000;0.8466;0.8572;
-129.9000;0.8457;0.8495;
-129.6000;0.8531;0.8623;
-129.3000;0.8449;0.8469;
-129.0000;0.8433;0.8495;
-128.7000;0.8474;0.8572;
-128.4000;0.8457;0.8649;
-128.1000;0.8490;0.8674;
-127.8000;0.8457;0.8649;
-127.5000;0.8457;0.8649;
-127.2000;0.8474;0.8649;
-126.9000;0.8506;0.8751;
-126.6000;0.8449;0.8674;
-126.3000;0.8441;0.8597;
-126.0000;0.8466;0.8674;
-125.7000;0.8433;0.8572;
-125.4000;0.8425;0.8597;
-125.1000;0.8449;0.8572;
-124.8000;0.8449;0.8495;
-124.5000;0.8466;0.8546;
-124.2000;0.8457;0.8520;
-123.9000;0.8449;0.8546;
-123.6000;0.8449;0.8572;
-123.3000;0.8466;0.8572;
-123.0000;0.8441;0.8572;
-122.7000;0.8449;0.8700;
-122.4000;0.8466;0.8880;
-122.1000;0.8466;0.8777;
-121.8000;0.8466;0.8777;
-121.5000;0.8457;0.8726;
-121.2000;0.8466;0.8751;
-120.9000;0.8457;0.8700;
-120.6000;0.8441;0.8674;
-120.3000;0.8441;0.8674;
-120.0000;0.8457;0.8726;
-119.7000;0.8482;0.8751;
-119.4000;0.8466;0.8726;
-119.1000;0.8449;0.8700;
-118.8000;0.8457;0.8803;
-118.5000;0.8457;0.8854;
-118.2000;0.8482;0.8905;
-117.9000;0.8449;0.8803;
-117.6000;0.8457;0.8828;
-117.3000;0.8474;0.8726;
-117.0000;0.8474;0.8700;
-116.7000;0.8449;0.8751;
-116.4000;0.8457;0.8777;
-116.1000;0.8466;0.8751;
-115.8000;0.8449;0.8649;
-115.5000;0.8466;0.8674;
-115.2000;0.8425;0.8597;
-114.9000;0.8474;0.8623;
-114.6000;0.8449;0.8674;
-114.3000;0.8449;0.8700;
-114.0000;0.8474;0.8777;
-113.7000;0.8474;0.8751;
-113.4000;0.8474;0.8777;
-113.1000;0.8482;0.8726;
-112.8000;0.8466;0.8623;
-112.5000;0.8449;0.8572;
-112.2000;0.8490;0.8726;
-111.9000;0.8490;0.8726;
-111.6000;0.8474;0.8751;
-111.3000;0.8474;0.8931;
-111.0000;0.8466;0.8931;
-110.7000;0.8466;0.8905;
-110.4000;0.8449;0.8726;
-110.1000;0.8466;0.8674;
-109.8000;0.8441;0.8751;
-109.5000;0.8490;0.8880;
-109.2000;0.8441;0.8803;
-108.9000;0.8466;0.8854;
-108.6000;0.8523;0.9008;
-108.3000;0.8433;0.8803;
-108.0000;0.8384;0.8700;
-107.7000;0.8466;0.8726;
-107.4000;0.8449;0.8751;
-107.1000;0.8474;0.8751;
-106.8000;0.8384;0.8469;
-106.5000;0.8474;0.8726;
-106.2000;0.8474;0.8649;
-105.9000;0.8466;0.8572;
-105.6000;0.8433;0.8546;
-105.3000;0.8466;0.8597;
-105.0000;0.8449;0.8546;
-104.7000;0.8457;0.8572;
-104.4000;0.8457;0.8572;
-104.1000;0.8449;0.8546;
-103.8000;0.8449;0.8623;
-103.5000;0.8417;0.8597;
-103.2000;0.8466;0.8777;
-102.9000;0.8433;0.8700;
-102.6000;0.8474;0.8854;
-102.3000;0.8466;0.8828;
-102.0000;0.8466;0.8828;
-101.7000;0.8482;0.8880;
-101.4000;0.8498;0.8880;
-101.1000;0.8466;0.8777;
-100.8000;0.8449;0.8751;
-100.5000;0.8498;0.8905;
-100.2000;0.8449;0.8854;
-99.9000;0.8457;0.8803;
-99.6000;0.8466;0.8777;
-99.3000;0.8449;0.8777;
-99.0000;0.8466;0.8905;
-98.7000;0.8449;0.8880;
-98.4000;0.8466;0.8905;
-98.1000;0.8466;0.8931;
-97.8000;0.8457;0.9008;
-97.5000;0.8457;0.9111;
-97.2000;0.8466;0.8982;
-96.9000;0.8417;0.8880;
-96.6000;0.8441;0.9008;
-96.3000;0.8449;0.9111;
-96.0000;0.8457;0.9034;
-95.7000;0.8360;0.8880;
-95.4000;0.8474;0.9162;
-95.1000;0.8466;0.9162;
-94.8000;0.8449;0.9111;
-94.5000;0.8466;0.9111;
-94.2000;0.8457;0.9136;
-93.9000;0.8449;0.9136;
-93.6000;0.8433;0.9111;
-93.3000;0.8457;0.9059;
-93.0000;0.8449;0.8982;
-92.7000;0.8466;0.8982;
-92.4000;0.8457;0.8957;
-92.1000;0.8466;0.9008;
-91.8000;0.8466;0.8957;
-91.5000;0.8474;0.8982;
-91.2000;0.8449;0.8982;
-90.9000;0.8457;0.9085;
-90.6000;0.8474;0.9213;
-90.3000;0.8425;0.9162;
-90.0000;0.8449;0.9136;
-89.7000;0.8466;0.9111;
-89.4000;0.8441;0.9059;
-89.1000;0.8433;0.9059;
-88.8000;0.8441;0.9162;
-88.5000;0.8490;0.9342;
-88.2000;0.8506;0.9393;
-87.9000;0.8490;0.9290;
-87.6000;0.8498;0.9188;
-87.3000;0.8466;0.9085;
-87.0000;0.8474;0.9085;
-86.7000;0.8474;0.9136;
-86.4000;0.8441;0.9162;
-86.1000;0.8457;0.9162;
-85.8000;0.8474;0.9085;
-85.5000;0.8506;0.9034;
-85.2000;0.8392;0.8674;
-84.9000;0.8457;0.8880;
-84.6000;0.8449;0.8905;
-84.3000;0.8474;0.8931;
-84.0000;0.8523;0.9085;
-83.7000;0.8449;0.8905;
-83.4000;0.8441;0.8880;
-83.1000;0.8523;0.9059;
-82.8000;0.8449;0.8803;
-82.5000;0.8457;0.8931;
-82.2000;0.8409;0.8828;
-81.9000;0.8433;0.8957;
-81.6000;0.8457;0.9034;
-81.3000;0.8457;0.8957;
-81.0000;0.8466;0.9059;
-80.7000;0.8466;0.9034;
-80.4000;0.8466;0.9059;
-80.1000;0.8457;0.9059;
-79.8000;0.8449;0.9034;
-79.5000;0.8457;0.8982;
-79.2000;0.8457;0.8957;
-78.9000;0.8466;0.9008;
-78.6000;0.8474;0.9034;
-78.3000;0.8425;0.8931;
-78.0000;0.8417;0.8854;
-77.7000;0.8466;0.8982;
-77.4000;0.8539;0.9136;
-77.1000;0.8466;0.8957;
-76.8000;0.8457;0.8957;
-76.5000;0.8466;0.8957;
-76.2000;0.8409;0.8828;
-75.9000;0.8457;0.8880;
-75.6000;0.8457;0.8854;
-75.3000;0.8466;0.8880;
-75.0000;0.8457;0.8803;
-74.7000;0.8474;0.8828;
-74.4000;0.8457;0.8726;
-74.1000;0.8433;0.8700;
-73.8000;0.8466;0.8880;
-73.5000;0.8433;0.8828;
-73.2000;0.8441;0.8854;
-72.9000;0.8433;0.8880;
-72.6000;0.8449;0.8905;
-72.3000;0.8457;0.8905;
-72.0000;0.8457;0.8880;
-71.7000;0.8425;0.8905;
-71.4000;0.8466;0.8957;
-71.1000;0.8482;0.8905;
-70.8000;0.8368;0.8623;
-70.5000;0.8449;0.8854;
-70.2000;0.8474;0.8880;
-69.9000;0.8441;0.8803;
-69.6000;0.8490;0.8828;
-69.3000;0.8449;0.8751;
-69.0000;0.8466;0.8854;
-68.7000;0.8466;0.8931;
-68.4000;0.8474;0.8957;
-68.1000;0.8449;0.8828;
-67.8000;0.8457;0.8880;
-67.5000;0.8457;0.8880;
-67.2000;0.8441;0.8854;
-66.9000;0.8433;0.8905;
-66.6000;0.8441;0.8982;
-66.3000;0.8457;0.8982;
-66.0000;0.8466;0.8931;
-65.7000;0.8417;0.8700;
-65.4000;0.8457;0.8777;
-65.1000;0.8466;0.8751;
-64.8000;0.8482;0.8726;
-64.5000;0.8457;0.8777;
-64.2000;0.8441;0.8751;
-63.9000;0.8449;0.8803;
-63.6000;0.8400;0.8726;
-63.3000;0.8425;0.8828;
-63.0000;0.8441;0.8777;
-62.7000;0.8474;0.8803;
-62.4000;0.8457;0.8751;
-62.1000;0.8482;0.8777;
-61.8000;0.8490;0.8828;
-61.5000;0.8457;0.8751;
-61.2000;0.8523;0.8854;
-60.9000;0.8457;0.8674;
-60.6000;0.8441;0.8597;
-60.3000;0.8490;0.8726;
-60.0000;0.8474;0.8649;
-59.7000;0.8449;0.8572;
-59.4000;0.8425;0.8546;
-59.1000;0.8441;0.8674;
-58.8000;0.8433;0.8649;
-58.5000;0.8433;0.8700;
-58.2000;0.8457;0.8803;
-57.9000;0.8466;0.8905;
-57.6000;0.8441;0.8880;
-57.3000;0.8466;0.8905;
-57.0000;0.8474;0.8905;
-56.7000;0.8457;0.8803;
-56.4000;0.8539;0.9034;
-56.1000;0.8482;0.9059;
-55.8000;0.8490;0.9162;
-55.5000;0.8514;0.9162;
-55.2000;0.8457;0.9008;
-54.9000;0.8433;0.9008;
-54.6000;0.8490;0.9188;
-54.3000;0.8433;0.8982;
-54.0000;0.8400;0.8905;
-53.7000;0.8449;0.9111;
-53.4000;0.8433;0.9059;
-53.1000;0.8409;0.8957;
-52.8000;0.8449;0.9136;
-52.5000;0.8457;0.9111;
-52.2000;0.8457;0.9162;
-51.9000;0.8384;0.9059;
-51.6000;0.8482;0.9316;
-51.3000;0.8482;0.9290;
-51.0000;0.8400;0.9085;
-50.7000;0.8514;0.9367;
-50.4000;0.8457;0.9239;
-50.1000;0.8457;0.9136;
-49.8000;0.8425;0.9059;
-49.5000;0.8457;0.9111;
-49.2000;0.8433;0.9085;
-48.9000;0.8441;0.9085;
-48.6000;0.8425;0.9008;
-48.3000;0.8449;0.9111;
-48.0000;0.8466;0.9085;
-47.7000;0.8474;0.9059;
-47.4000;0.8498;0.9085;
-47.1000;0.8449;0.9034;
-46.8000;0.8466;0.9136;
-46.5000;0.8449;0.9136;
-46.2000;0.8466;0.9085;
-45.9000;0.8449;0.9059;
-45.6000;0.8466;0.8957;
-45.3000;0.8449;0.8905;
-45.0000;0.8482;0.8880;
-44.7000;0.8457;0.8957;
-44.4000;0.8441;0.8982;
-44.1000;0.8449;0.9034;
-43.8000;0.8449;0.9136;
-43.5000;0.8474;0.9188;
-43.2000;0.8457;0.9085;
-42.9000;0.8466;0.9059;
-42.6000;0.8449;0.9034;
-42.3000;0.8449;0.9008;
-42.0000;0.8466;0.8982;
-41.7000;0.8441;0.8957;
-41.4000;0.8482;0.9034;
-41.1000;0.8433;0.8957;
-40.8000;0.8457;0.8982;
-40.5000;0.8466;0.9008;
-40.2000;0.8466;0.8982;
-39.9000;0.8441;0.8957;
-39.6000;0.8457;0.9008;
-39.3000;0.8466;0.9034;
-39.0000;0.8457;0.9008;
-38.7000;0.8474;0.8957;
-38.4000;0.8482;0.8957;
-38.1000;0.8433;0.8880;
-37.8000;0.8506;0.9162;
-37.5000;0.8449;0.9008;
-37.2000;0.8441;0.9008;
-36.9000;0.8474;0.9085;
-36.6000;0.8466;0.8931;
-36.3000;0.8457;0.8854;
-36.0000;0.8384;0.8649;
-35.7000;0.8490;0.8905;
-35.4000;0.8466;0.8880;
-35.1000;0.8449;0.8931;
-34.8000;0.8400;0.8828;
-34.5000;0.8466;0.9085;
-34.2000;0.8466;0.9111;
-33.9000;0.8457;0.9085;
-33.6000;0.8466;0.9136;
-33.3000;0.8474;0.9213;
-33.0000;0.8457;0.9188;
-32.7000;0.8514;0.9290;
-32.4000;0.8466;0.9213;
-32.1000;0.8457;0.9213;
-31.8000;0.8466;0.9188;
-31.5000;0.8449;0.9111;
-31.2000;0.8449;0.9111;
-30.9000;0.8441;0.9059;
-30.6000;0.8490;0.9136;
-30.3000;0.8433;0.9008;
-30.0000;0.8457;0.9136;
-29.7000;0.8417;0.9188;
-29.4000;0.8457;0.9213;
-29.1000;0.8498;0.9265;
-28.8000;0.8457;0.9188;
-28.5000;0.8449;0.9213;
-28.2000;0.8482;0.9367;
-27.9000;0.8466;0.9342;
-27.6000;0.8474;0.9316;
-27.3000;0.8457;0.9265;
-27.0000;0.8441;0.9213;
-26.7000;0.8466;0.9342;
-26.4000;0.8514;0.9521;
-26.1000;0.8514;0.9470;
-25.8000;0.8457;0.9290;
-25.5000;0.8466;0.9239;
-25.2000;0.8457;0.9188;
-24.9000;0.8441;0.9162;
-24.6000;0.8400;0.9111;
-24.3000;0.8449;0.9162;
-24.0000;0.8466;0.9085;
-23.7000;0.8441;0.9034;
-23.4000;0.8449;0.9059;
-23.1000;0.8433;0.9034;
-22.8000;0.8449;0.9059;
-22.5000;0.8449;0.9111;
-22.2000;0.8433;0.9008;
-21.9000;0.8433;0.9085;
-21.6000;0.8457;0.9188;
-21.3000;0.8482;0.9265;
-21.0000;0.8482;0.9239;
-20.7000;0.8457;0.9239;
-20.4000;0.8449;0.9316;
-20.1000;0.8457;0.9316;
-19.8000;0.8457;0.9265;
-19.5000;0.8474;0.9239;
-19.2000;0.8433;0.9162;
-18.9000;0.8482;0.9162;
-18.6000;0.8449;0.9085;
-18.3000;0.8457;0.9213;
-18.0000;0.8474;0.9239;
-17.7000;0.8449;0.9136;
-17.4000;0.8449;0.9188;
-17.1000;0.8441;0.9085;
-16.8000;0.8449;0.9111;
-16.5000;0.8433;0.9059;
-16.2000;0.8474;0.9008;
-15.9000;0.8433;0.9008;
-15.6000;0.8449;0.8931;
-15.3000;0.8466;0.8957;
-15.0000;0.8514;0.9085;
-14.7000;0.8474;0.9034;
-14.4000;0.8457;0.8982;
-14.1000;0.8482;0.9111;
-13.8000;0.8466;0.9085;
-13.5000;0.8449;0.9034;
-13.2000;0.8466;0.9059;
-12.9000;0.8457;0.9162;
-12.6000;0.8457;0.9136;
-12.3000;0.8466;0.9290;
-12.0000;0.8376;0.9059;
-11.7000;0.8457;0.9213;
-11.4000;0.8441;0.9213;
-11.1000;0.8441;0.9239;
-10.8000;0.8474;0.9367;
-10.5000;0.8433;0.9342;
-10.2000;0.8457;0.9342;
-9.9000;0.8466;0.9290;
-9.6000;0.8457;0.9239;
-9.3000;0.8474;0.9290;
-9.0000;0.8457;0.9188;
-8.7000;0.8474;0.9136;
-8.4000;0.8409;0.9034;
-8.1000;0.8457;0.9136;
-7.8000;0.8441;0.9111;
-7.5000;0.8474;0.9188;
-7.2000;0.8441;0.9213;
-6.9000;0.8457;0.9188;
-6.6000;0.8441;0.9162;
-6.3000;0.8449;0.9213;
-6.0000;0.8449;0.9265;
-5.7000;0.8400;0.9059;
-5.4000;0.8457;0.9213;
-5.1000;0.8449;0.9213;
-4.8000;0.8457;0.9188;
-4.5000;0.8441;0.9085;
-4.2000;0.8466;0.9162;
-3.9000;0.8457;0.9213;
-3.6000;0.8466;0.9188;
-3.3000;0.8474;0.9265;
-3.0000;0.8457;0.9162;
-2.7000;0.8457;0.9213;
-2.4000;0.8482;0.9316;
-2.1000;0.8449;0.9188;
-1.8000;0.8449;0.9136;
-1.5000;0.8449;0.9111;
-1.2000;0.8433;0.9162;
-0.9000;0.8433;0.9239;
-0.6000;0.8482;0.9265;
-0.3000;0.8425;0.9162;
0.0000;0.8425;0.9162;
0.3000;0.8490;0.9419;
0.6000;0.8482;0.9470;
0.9000;0.8506;0.9727;
1.2000;0.8506;0.9906;
1.5000;0.8514;1.0060;
1.8000;0.8466;1.0035;
2.1000;0.8514;1.0266;
2.4000;0.8547;1.0394;
2.7000;0.8555;1.0445;
3.0000;0.8563;1.0548;
3.3000;0.8539;1.0420;
3.6000;0.8555;1.0471;
3.9000;0.8539;1.0420;
4.2000;0.8563;1.0471;
4.5000;0.8555;1.0548;
4.8000;0.8580;1.0599;
5.1000;0.8588;1.0676;
5.4000;0.8596;1.0676;
5.7000;0.8555;1.0676;
6.0000;0.8571;1.0753;
6.3000;0.8596;1.0856;
6.6000;0.8596;1.0805;
6.9000;0.8580;1.0830;
7.2000;0.8596;1.0907;
7.5000;0.8596;1.0907;
7.8000;0.8604;1.0933;
8.1000;0.8612;1.0959;
8.4000;0.8612;1.0830;
8.7000;0.8604;1.0882;
9.0000;0.8685;1.0907;
9.3000;0.8645;1.0907;
9.6000;0.8612;1.0933;
9.9000;0.8628;1.0984;
10.2000;0.8637;1.1061;
10.5000;0.8628;1.1113;
10.8000;0.8718;1.1344;
11.1000;0.8563;1.0933;
11.4000;0.8620;1.1036;
11.7000;0.8637;1.1087;
12.0000;0.8645;1.1036;
12.3000;0.8588;1.0830;
12.6000;0.8645;1.0984;
12.9000;0.8653;1.1010;
13.2000;0.8694;1.1164;
13.5000;0.8637;1.0959;
13.8000;0.8604;1.0805;
14.1000;0.8637;1.0805;
14.4000;0.8645;1.0830;
14.7000;0.8628;1.0728;
15.0000;0.8645;1.0702;
15.3000;0.8718;1.0907;
15.6000;0.8669;1.0753;
15.9000;0.8645;1.0728;
16.2000;0.8637;1.0779;
16.5000;0.8677;1.0753;
16.8000;0.8653;1.0676;
17.1000;0.8661;1.0702;
17.4000;0.8653;1.0753;
17.7000;0.8612;1.0676;
18.0000;0.8669;1.0805;
18.3000;0.8645;1.0702;
18.6000;0.8661;1.0702;
18.9000;0.8653;1.0702;
19.2000;0.8669;1.0753;
19.5000;0.8734;1.0907;
19.8000;0.8637;1.0574;
20.1000;0.8685;1.0651;
20.4000;0.8677;1.0728;
20.7000;0.8669;1.0651;
21.0000;0.8653;1.0702;
21.3000;0.8677;1.0753;
21.6000;0.8677;1.0702;
21.9000;0.8677;1.0702;
22.2000;0.8677;1.0676;
22.5000;0.8677;1.0651;
22.8000;0.8718;1.0830;
23.1000;0.8661;1.0753;
23.4000;0.8653;1.0702;
23.7000;0.8669;1.0779;
24.0000;0.8669;1.0753;
24.3000;0.8669;1.0753;
24.6000;0.8669;1.0753;
24.9000;0.8653;1.0702;
25.2000;0.8694;1.0779;
25.5000;0.8677;1.0830;
25.8000;0.8685;1.0728;
26.1000;0.8685;1.0753;
26.4000;0.8669;1.0676;
26.7000;0.8669;1.0676;
27.0000;0.8685;1.0676;
27.3000;0.8669;1.0651;
27.6000;0.8661;1.0599;
27.9000;0.8669;1.0625;
28.2000;0.8669;1.0625;
28.5000;0.8677;1.0625;
28.8000;0.8694;1.0702;
29.1000;0.8677;1.0676;
29.4000;0.8669;1.0651;
29.7000;0.8677;1.0651;
30.0000;0.8685;1.0625;
30.3000;0.8694;1.0702;
30.6000;0.8677;1.0651;
30.9000;0.8661;1.0599;
31.2000;0.8661;1.0522;
31.5000;0.8661;1.0651;
31.8000;0.8702;1.0882;
32.1000;0.8677;1.0830;
32.4000;0.8669;1.0728;
32.7000;0.8653;1.0651;
33.0000;0.8669;1.0676;
33.3000;0.8661;1.0702;
33.6000;0.8669;1.0702;
33.9000;0.8685;1.0753;
34.2000;0.8702;1.0856;
34.5000;0.8661;1.0805;
34.8000;0.8653;1.0805;
35.1000;0.8637;1.0728;
35.4000;0.8661;1.0753;
35.7000;0.8685;1.0805;
36.0000;0.8685;1.0753;
36.3000;0.8669;1.0728;
36.6000;0.8653;1.0702;
36.9000;0.8677;1.0728;
37.2000;0.8637;1.0702;
37.5000;0.8677;1.0779;
37.8000;0.8685;1.0805;
38.1000;0.8661;1.0856;
38.4000;0.8669;1.0933;
38.7000;0.8702;1.1036;
39.0000;0.8661;1.0907;
39.3000;0.8661;1.0856;
39.6000;0.8669;1.0959;
39.9000;0.8669;1.0907;
40.2000;0.8661;1.0933;
40.5000;0.8726;1.1113;
40.8000;0.8677;1.0882;
41.1000;0.8677;1.0933;
41.4000;0.8661;1.0856;
41.7000;0.8677;1.0959;
42.0000;0.8685;1.0907;
42.3000;0.8669;1.0882;
42.6000;0.8685;1.0907;
42.9000;0.8685;1.0984;
43.2000;0.8694;1.0933;
43.5000;0.8653;1.0856;
43.8000;0.8661;1.0805;
44.1000;0.8677;1.0805;
44.4000;0.8669;1.0830;
44.7000;0.8685;1.0830;
45.0000;0.8669;1.0856;
45.3000;0.8645;1.0830;
45.6000;0.8685;1.0882;
45.9000;0.8694;1.0856;
46.2000;0.8685;1.0830;
46.5000;0.8669;1.0830;
46.8000;0.8677;1.0856;
47.1000;0.8669;1.0830;
47.4000;0.8588;1.0599;
47.7000;0.8685;1.0856;
48.0000;0.8669;1.0856;
48.3000;0.8685;1.0907;
48.6000;0.8685;1.0830;
48.9000;0.8677;1.0830;
49.2000;0.8677;1.0779;
49.5000;0.8677;1.0830;
49.8000;0.8677;1.0882;
50.1000;0.8669;1.0856;
50.4000;0.8661;1.0882;
50.7000;0.8685;1.0856;
51.0000;0.8677;1.0779;
51.3000;0.8661;1.0702;
51.6000;0.8661;1.0728;
51.9000;0.8669;1.0779;
52.2000;0.8677;1.0702;
52.5000;0.8677;1.0779;
52.8000;0.8612;1.0625;
53.1000;0.8669;1.0753;
53.4000;0.8661;1.0728;
53.7000;0.8702;1.0805;
54.0000;0.8669;1.0676;
54.3000;0.8661;1.0676;
54.6000;0.8669;1.0779;
54.9000;0.8669;1.0805;
55.2000;0.8645;1.0779;
55.5000;0.8637;1.0805;
55.8000;0.8669;1.0856;
56.1000;0.8702;1.1036;
56.4000;0.8694;1.0907;
56.7000;0.8710;1.0907;
57.0000;0.8620;1.0651;
57.3000;0.8694;1.0907;
57.6000;0.8685;1.0830;
57.9000;0.8677;1.0805;
58.2000;0.8677;1.0805;
58.5000;0.8734;1.0959;
58.8000;0.8669;1.0830;
59.1000;0.8661;1.0779;
59.4000;0.8661;1.0779;
59.7000;0.8604;1.0728;
60.0000;0.8645;1.0830;
60.3000;0.8669;1.0856;
60.6000;0.8677;1.0933;
60.9000;0.8669;1.0959;
61.2000;0.8710;1.1061;
61.5000;0.8677;1.0933;
61.8000;0.8669;1.0805;
62.1000;0.8677;1.0856;
62.4000;0.8677;1.0882;
62.7000;0.8612;1.0830;
63.0000;0.8669;1.0882;
63.3000;0.8661;1.0984;
63.6000;0.8669;1.0907;
63.9000;0.8661;1.0907;
64.2000;0.8677;1.0882;
64.5000;0.8702;1.0933;
64.8000;0.8645;1.0882;
65.1000;0.8661;1.0933;
65.4000;0.8637;1.0933;
65.7000;0.8661;1.0984;
66.0000;0.8661;1.0933;
66.3000;0.8694;1.1010;
66.6000;0.8669;1.0984;
66.9000;0.8669;1.0984;
67.2000;0.8677;1.0959;
67.5000;0.8661;1.0882;
67.8000;0.8685;1.0933;
68.1000;0.8628;1.0753;
68.4000;0.8653;1.0702;
68.7000;0.8661;1.0625;
69.0000;0.8628;1.0625;
69.3000;0.8588;1.0522;
69.6000;0.8677;1.0805;
69.9000;0.8661;1.0753;
70.2000;0.8677;1.0779;
70.5000;0.8653;1.0753;
70.8000;0.8677;1.0830;
71.1000;0.8637;1.0702;
71.4000;0.8645;1.0805;
71.7000;0.8661;1.0907;
72.0000;0.8677;1.0959;
72.3000;0.8645;1.0959;
72.6000;0.8669;1.1010;
72.9000;0.8694;1.1010;
73.2000;0.8669;1.1061;
73.5000;0.8669;1.1036;
73.8000;0.8653;1.1010;
74.1000;0.8661;1.1036;
74.4000;0.8661;1.0984;
74.7000;0.8661;1.0959;
75.0000;0.8661;1.1010;
75.3000;0.8677;1.1061;
75.6000;0.8653;1.0933;
75.9000;0.8653;1.0856;
76.2000;0.8653;1.0907;
76.5000;0.8620;1.0882;
76.8000;0.8669;1.1010;
77.1000;0.8669;1.0959;
77.4000;0.8669;1.0856;
77.7000;0.8653;1.0753;
78.0000;0.8685;1.0882;
78.3000;0.8620;1.0805;
78.6000;0.8661;1.0907;
78.9000;0.8661;1.0984;
79.2000;0.8685;1.0984;
79.5000;0.8669;1.0907;
79.8000;0.8645;1.0805;
80.1000;0.8637;1.0856;
80.4000;0.8653;1.0907;
80.7000;0.8734;1.1190;
81.0000;0.8653;1.0984;
81.3000;0.8637;1.0856;
81.6000;0.8669;1.0907;
81.9000;0.8661;1.0830;
82.2000;0.8645;1.0805;
82.5000;0.8645;1.0882;
82.8000;0.8661;1.0856;
83.1000;0.8645;1.0882;
83.4000;0.8637;1.0959;
83.7000;0.8604;1.0856;
84.0000;0.8726;1.1190;
84.3000;0.8653;1.1138;
84.6000;0.8620;1.1164;
84.9000;0.8637;1.1241;
85.2000;0.8637;1.1215;
85.5000;0.8645;1.1138;
85.8000;0.8661;1.1061;
86.1000;0.8645;1.0984;
86.4000;0.8653;1.0907;
86.7000;0.8661;1.0882;
87.0000;0.8653;1.0907;
87.3000;0.8661;1.0856;
87.6000;0.8653;1.0830;
87.9000;0.8661;1.0779;
88.2000;0.8694;1.0728;
88.5000;0.8677;1.0753;
88.8000;0.8669;1.0702;
89.1000;0.8661;1.0651;
89.4000;0.8685;1.0753;
89.7000;0.8677;1.0830;
90.0000;0.8677;1.0830;
90.3000;0.8661;1.0728;
90.6000;0.8653;1.0830;
90.9000;0.8677;1.0933;
91.2000;0.8645;1.0933;
91.5000;0.8669;1.0984;
91.8000;0.8661;1.0907;
92.1000;0.8661;1.0907;
92.4000;0.8669;1.0830;
92.7000;0.8669;1.0805;
93.0000;0.8669;1.0830;
93.3000;0.8685;1.0907;
93.6000;0.8661;1.0830;
93.9000;0.8637;1.0805;
94.2000;0.8628;1.0882;
94.5000;0.8653;1.0907;
94.8000;0.8661;1.1036;
95.1000;0.8555;1.0933;
95.4000;0.8645;1.1215;
95.7000;0.8637;1.1164;
96.0000;0.8669;1.1241;
96.3000;0.8620;1.1215;
96.6000;0.8653;1.1318;
96.9000;0.8669;1.1395;
97.2000;0.8653;1.1395;
97.5000;0.8628;1.1267;
97.8000;0.8645;1.1241;
98.1000;0.8637;1.1164;
98.4000;0.8669;1.1190;
98.7000;0.8669;1.1138;
99.0000;0.8742;1.1241;
99.3000;0.8653;1.0882;
99.6000;0.8604;1.0805;
99.9000;0.8645;1.0959;
100.2000;0.8653;1.1010;
100.5000;0.8645;1.0984;
100.8000;0.8612;1.0856;
101.1000;0.8653;1.0933;
101.4000;0.8677;1.0907;
101.7000;0.8653;1.0959;
102.0000;0.8637;1.0984;
102.3000;0.8645;1.1061;
102.6000;0.8653;1.1061;
102.9000;0.8620;1.0907;
103.2000;0.8645;1.0933;
103.5000;0.8645;1.0933;
103.8000;0.8653;1.0856;
104.1000;0.8669;1.0856;
104.4000;0.8596;1.0625;
104.7000;0.8653;1.0779;
105.0000;0.8637;1.0753;
105.3000;0.8661;1.0882;
105.6000;0.8661;1.0830;
105.9000;0.8653;1.0856;
106.2000;0.8661;1.0959;
106.5000;0.8637;1.0933;
106.8000;0.8702;1.1010;
107.1000;0.8604;1.0779;
107.4000;0.8653;1.0907;
107.7000;0.8645;1.0856;
108.0000;0.8669;1.0830;
108.3000;0.8645;1.0753;
108.6000;0.8653;1.0856;
108.9000;0.8653;1.0805;
109.2000;0.8694;1.0882;
109.5000;0.8669;1.0907;
109.8000;0.8751;1.1113;
110.1000;0.8653;1.0856;
110.4000;0.8653;1.0882;
110.7000;0.8653;1.0856;
111.0000;0.8653;1.0882;
111.3000;0.8637;1.0805;
111.6000;0.8628;1.0753;
111.9000;0.8661;1.0805;
112.2000;0.8653;1.0753;
112.5000;0.8653;1.0753;
112.8000;0.8637;1.0856;
113.1000;0.8628;1.0856;
113.4000;0.8645;1.0830;
113.7000;0.8661;1.0882;
114.0000;0.8653;1.0882;
114.3000;0.8539;1.0625;
114.6000;0.8645;1.0830;
114.9000;0.8702;1.0959;
115.2000;0.8653;1.0805;
115.5000;0.8653;1.0805;
115.8000;0.8620;1.0805;
116.1000;0.8596;1.0599;
116.4000;0.8645;1.0805;
116.7000;0.8645;1.0907;
117.0000;0.8645;1.0907;
117.3000;0.8628;1.0984;
117.6000;0.8653;1.0984;
117.9000;0.8677;1.1010;
118.2000;0.8669;1.0984;
118.5000;0.8661;1.0933;
118.8000;0.8661;1.0933;
119.1000;0.8677;1.1036;
119.4000;0.8661;1.0984;
119.7000;0.8645;1.0933;
120.0000;0.8661;1.1036;
120.3000;0.8637;1.0984;
120.6000;0.8637;1.1061;
120.9000;0.8661;1.1087;
121.2000;0.8628;1.0933;
121.5000;0.8645;1.0933;
121.8000;0.8628;1.0882;
122.1000;0.8661;1.0882;
122.4000;0.8628;1.0805;
122.7000;0.8653;1.0753;
123.0000;0.8694;1.0933;
123.3000;0.8645;1.0753;
123.6000;0.8620;1.0728;
123.9000;0.8645;1.0856;
124.2000;0.8669;1.0856;
124.5000;0.8637;1.0728;
124.8000;0.8620;1.0599;
125.1000;0.8653;1.0779;
125.4000;0.8694;1.1010;
125.7000;0.8653;1.0805;
126.0000;0.8645;1.0702;
126.3000;0.8653;1.0676;
126.6000;0.8637;1.0702;
126.9000;0.8661;1.0753;
127.2000;0.8669;1.0907;
127.5000;0.8645;1.0882;
127.8000;0.8718;1.0959;
128.1000;0.8645;1.0728;
128.4000;0.8628;1.0702;
128.7000;0.8637;1.0753;
129.0000;0.8645;1.0728;
129.3000;0.8637;1.0651;
129.6000;0.8653;1.0599;
129.9000;0.8628;1.0651;
130.2000;0.8645;1.0702;
130.5000;0.8685;1.0882;
130.8000;0.8661;1.0882;
131.1000;0.8620;1.0830;
131.4000;0.8645;1.0830;
131.7000;0.8637;1.0856;
132.0000;0.8637;1.0805;
132.3000;0.8637;1.0830;
132.6000;0.8661;1.0882;
132.9000;0.8637;1.0882;
133.2000;0.8661;1.0907;
133.5000;0.8637;1.0856;
133.8000;0.8637;1.0779;
134.1000;0.8637;1.0753;
134.4000;0.8637;1.0805;
134.7000;0.8718;1.1061;
135.0000;0.8637;1.0779;
135.3000;0.8637;1.0753;
135.6000;0.8628;1.0651;
135.9000;0.8628;1.0676;
136.2000;0.8628;1.0676;
136.5000;0.8653;1.0676;
136.8000;0.8645;1.0702;
137.1000;0.8637;1.0676;
137.4000;0.8661;1.0753;
137.7000;0.8653;1.0728;
138.0000;0.8620;1.0676;
138.3000;0.8669;1.0830;
138.6000;0.8645;1.0728;
138.9000;0.8661;1.0830;
139.2000;0.8637;1.0753;
139.5000;0.8653;1.0728;
139.8000;0.8645;1.0625;
140.1000;0.8645;1.0702;
140.4000;0.8637;1.0651;
140.7000;0.8645;1.0651;
141.0000;0.8669;1.0702;
141.3000;0.8637;1.0651;
141.6000;0.8661;1.0779;
141.9000;0.8653;1.0805;
142.2000;0.8653;1.0779;
142.5000;0.8628;1.0676;
142.8000;0.8637;1.0599;
143.1000;0.8645;1.0702;
143.4000;0.8612;1.0625;
143.7000;0.8628;1.0676;
144.0000;0.8620;1.0702;
144.3000;0.8637;1.0805;
144.6000;0.8628;1.0779;
144.9000;0.8637;1.0830;
145.2000;0.8637;1.0805;
145.5000;0.8637;1.0779;
145.8000;0.8620;1.0651;
146.1000;0.8620;1.0651;
146.4000;0.8596;1.0651;
146.7000;0.8637;1.0779;
147.0000;0.8645;1.0830;
147.3000;0.8612;1.0753;
147.6000;0.8645;1.0805;
147.9000;0.8694;1.0907;
148.2000;0.8661;1.0805;
148.5000;0.8628;1.0676;
148.8000;0.8669;1.0907;
149.1000;0.8645;1.0882;
149.4000;0.8637;1.0933;
149.7000;0.8661;1.0933;
150.0000;0.8645;1.0984;
150.3000;0.8612;1.0933;
150.6000;0.8620;1.0882;
150.9000;0.8653;1.0882;
151.2000;0.8645;1.0779;
151.5000;0.8637;1.0805;
151.8000;0.8628;1.0753;
152.1000;0.8645;1.0702;
152.4000;0.8637;1.0728;
152.7000;0.8645;1.0702;
153.0000;0.8637;1.0753;
153.3000;0.8637;1.0830;
153.6000;0.8580;1.0676;
153.9000;0.8661;1.0779;
154.2000;0.8661;1.0933;
154.5000;0.8645;1.0959;
154.8000;0.8645;1.0959;
155.1000;0.8637;1.0907;
155.4000;0.8628;1.0984;
155.7000;0.8645;1.0984;
156.0000;0.8645;1.0882;
156.3000;0.8742;1.1087;
156.6000;0.8571;1.0728;
156.9000;0.8628;1.0882;
157.2000;0.8637;1.0805;
157.5000;0.8661;1.0830;
157.8000;0.8637;1.0779;
158.1000;0.8628;1.0779;
158.4000;0.8645;1.0779;
158.7000;0.8702;1.1010;
159.0000;0.8612;1.0753;
159.3000;0.8628;1.0753;
159.6000;0.8653;1.0856;
159.9000;0.8620;1.0702;
160.2000;0.8604;1.0651;
160.5000;0.8637;1.0753;
160.8000;0.8637;1.0805;
161.1000;0.8620;1.0830;
161.4000;0.8620;1.0882;
161.7000;0.8612;1.0933;
162.0000;0.8628;1.0907;
162.3000;0.8628;1.0907;
162.6000;0.8628;1.0933;
162.9000;0.8563;1.0753;
163.2000;0.8628;1.0907;
163.5000;0.8645;1.0907;
163.8000;0.8628;1.0830;
164.1000;0.8628;1.0856;
164.4000;0.8612;1.0856;
164.7000;0.8628;1.0856;
165.0000;0.8710;1.1036;
165.3000;0.8628;1.0856;
165.6000;0.8628;1.0805;
165.9000;0.8637;1.0830;
166.2000;0.8637;1.0779;
166.5000;0.8628;1.0753;
166.8000;0.8620;1.0702;
167.1000;0.8637;1.0728;
167.4000;0.8637;1.0779;
167.7000;0.8604;1.0702;
168.0000;0.8628;1.0856;
168.3000;0.8620;1.0907;
168.6000;0.8628;1.0933;
168.9000;0.8628;1.1036;
169.2000;0.8628;1.1036;
169.5000;0.8620;1.1010;
169.8000;0.8653;1.1036;
170.1000;0.8596;1.0856;
170.4000;0.8612;1.0805;
170.7000;0.8645;1.0933;
171.0000;0.8620;1.0933;
171.3000;0.8620;1.0907;
171.6000;0.8604;1.0856;
171.9000;0.8620;1.0933;
172.2000;0.8628;1.0907;
172.5000;0.8637;1.0882;
172.8000;0.8628;1.0882;
173.1000;0.8637;1.0907;
173.4000;0.8612;1.0856;
173.7000;0.8628;1.0856;
174.0000;0.8628;1.0805;
174.3000;0.8653;1.0805;
174.6000;0.8685;1.0959;
174.9000;0.8620;1.0933;
175.2000;0.8628;1.0933;
175.5000;0.8637;1.0984;
175.8000;0.8596;1.0959;
176.1000;0.8571;1.0830;
176.4000;0.8628;1.1010;
176.7000;0.8620;1.1087;
177.0000;0.8620;1.0984;
177.3000;0.8669;1.1036;
177.6000;0.8628;1.0830;
177.9000;0.8637;1.0856;
178.2000;0.8620;1.0805;
178.5000;0.8628;1.0779;
178.8000;0.8637;1.0805;
179.1000;0.8637;1.0856;
179.4000;0.8620;1.0882;
179.7000;0.8612;1.0830;
180.0000;0.8645;1.0907;
180.3000;0.8612;1.0907;
180.6000;0.8628;1.0907;
180.9000;0.8604;1.0907;
181.2000;0.8637;1.0933;
181.5000;0.8637;1.0933;
181.8000;0.8620;1.0882;
182.1000;0.8637;1.0907;
182.4000;0.8620;1.0882;
182.7000;0.8612;1.0830;
183.0000;0.8596;1.0830;
183.3000;0.8628;1.0907;
183.6000;0.8628;1.0933;
183.9000;0.8628;1.1010;
184.2000;0.8645;1.1061;
184.5000;0.8628;1.1010;
184.8000;0.8620;1.1036;
185.1000;0.8645;1.1010;
185.4000;0.8628;1.0984;
185.7000;0.8645;1.0959;
186.0000;0.8645;1.0959;
186.3000;0.8620;1.0959;
186.6000;0.8612;1.1010;
186.9000;0.8620;1.1061;
187.2000;0.8604;1.1036;
187.5000;0.8628;1.0984;
187.8000;0.8637;1.1061;
188.1000;0.8604;1.0959;
188.4000;0.8604;1.0933;
188.7000;0.8645;1.1010;
189.0000;0.8620;1.0984;
189.3000;0.8637;1.0984;
189.6000;0.8645;1.0933;
189.9000;0.8628;1.0856;
190.2000;0.8628;1.0933;
190.5000;0.8628;1.0907;
190.8000;0.8620;1.0882;
191.1000;0.8645;1.0959;
191.4000;0.8637;1.0907;
191.7000;0.8645;1.1010;
192.0000;0.8612;1.0959;
192.3000;0.8661;1.1087;
192.6000;0.8612;1.1036;
192.9000;0.8620;1.1113;
193.2000;0.8637;1.1138;
193.5000;0.8612;1.1138;
193.8000;0.8628;1.1087;
194.1000;0.8628;1.1010;
194.4000;0.8637;1.1036;
194.7000;0.8661;1.1113;
195.0000;0.8669;1.1190;
195.3000;0.8620;1.1061;
195.6000;0.8645;1.1215;
195.9000;0.8620;1.1215;
196.2000;0.8628;1.1241;
196.5000;0.8637;1.1215;
196.8000;0.8620;1.1241;
197.1000;0.8645;1.1241;
197.4000;0.8612;1.1190;
197.7000;0.8620;1.1215;
198.0000;0.8612;1.1190;
198.3000;0.8653;1.1292;
198.6000;0.8580;1.1113;
198.9000;0.8612;1.1215;
199.2000;0.8604;1.1241;
199.5000;0.8645;1.1344;
199.8000;0.8620;1.1241;
200.1000;0.8604;1.1113;
200.4000;0.8628;1.1190;
200.7000;0.8612;1.1241;
201.0000;0.8620;1.1292;
201.3000;0.8604;1.1215;
201.6000;0.8628;1.1164;
201.9000;0.8588;1.1010;
202.2000;0.8604;1.1087;
202.5000;0.8580;1.1113;
202.8000;0.8620;1.1190;
203.1000;0.8612;1.1061;
203.4000;0.8620;1.1036;
203.7000;0.8637;1.0933;
204.0000;0.8612;1.0907;
204.3000;0.8620;1.0984;
204.6000;0.8620;1.0959;
204.9000;0.8612;1.0959;
205.2000;0.8620;1.0933;
205.5000;0.8612;1.0959;
205.8000;0.8637;1.1036;
206.1000;0.8604;1.0959;
206.4000;0.8596;1.1036;
206.7000;0.8588;1.0984;
207.0000;0.8612;1.1010;
207.3000;0.8588;1.0933;
207.6000;0.8604;1.0984;
207.9000;0.8596;1.1036;
208.2000;0.8620;1.1061;
208.5000;0.8604;1.1061;
208.8000;0.8596;1.1061;
209.1000;0.8628;1.1087;
209.4000;0.8612;1.1036;
209.7000;0.8612;1.1010;
210.0000;0.8612;1.1113;
210.3000;0.8596;1.1087;
210.6000;0.8612;1.1113;
210.9000;0.8620;1.1113;
211.2000;0.8612;1.1010;
211.5000;0.8677;1.1241;
211.8000;0.8612;1.1061;
212.1000;0.8620;1.1036;
212.4000;0.8604;1.0933;
212.7000;0.8604;1.0959;
213.0000;0.8604;1.0959;
213.3000;0.8628;1.1010;
213.6000;0.8620;1.0882;
213.9000;0.8612;1.0830;
214.2000;0.8555;1.0676;
214.5000;0.8628;1.0805;
214.8000;0.8612;1.0830;
215.1000;0.8628;1.0959;
215.4000;0.8628;1.0959;
215.7000;0.8661;1.1061;
216.0000;0.8702;1.1113;
216.3000;0.8620;1.0856;
216.6000;0.8596;1.0830;
216.9000;0.8677;1.0959;
217.2000;0.8612;1.0882;
217.5000;0.8620;1.0907;
217.8000;0.8620;1.0907;
218.1000;0.8612;1.0830;
218.4000;0.8612;1.0907;
218.7000;0.8612;1.0959;
219.0000;0.8653;1.0984;
219.3000;0.8612;1.0830;
219.6000;0.8620;1.0830;
219.9000;0.8645;1.0984;
220.2000;0.8612;1.0805;
220.5000;0.8604;1.0830;
220.8000;0.8620;1.0907;
221.1000;0.8628;1.0933;
221.4000;0.8620;1.0959;
221.7000;0.8628;1.1061;
222.0000;0.8604;1.1087;
222.3000;0.8604;1.1087;
222.6000;0.8596;1.1164;
222.9000;0.8612;1.1138;
223.2000;0.8604;1.1113;
223.5000;0.8604;1.1061;
223.8000;0.8612;1.0959;
224.1000;0.8563;1.0753;
224.4000;0.8604;1.0933;
224.7000;0.8588;1.0856;
225.0000;0.8620;1.0959;
225.3000;0.8604;1.0933;
225.6000;0.8612;1.0933;
225.9000;0.8596;1.0933;
226.2000;0.8628;1.0805;
226.5000;0.8596;1.0728;
226.8000;0.8596;1.0702;
227.1000;0.8612;1.0753;
227.4000;0.8555;1.0574;
227.7000;0.8596;1.0753;
228.0000;0.8588;1.0779;
228.3000;0.8604;1.0882;
228.6000;0.8604;1.0882;
228.9000;0.8596;1.0907;
229.2000;0.8588;1.0830;
229.5000;0.8612;1.0959;
229.8000;0.8620;1.0984;
230.1000;0.8604;1.0959;
230.4000;0.8604;1.0933;
230.7000;0.8604;1.0907;
231.0000;0.8612;1.0882;
231.3000;0.8604;1.0856;
231.6000;0.8612;1.0830;
231.9000;0.8596;1.0856;
232.2000;0.8596;1.0882;
232.5000;0.8612;1.0856;
232.8000;0.8580;1.0805;
233.1000;0.8580;1.0728;
233.4000;0.8596;1.0702;
233.7000;0.8620;1.0753;
234.0000;0.8620;1.0779;
234.3000;0.8588;1.0728;
234.6000;0.8612;1.0805;
234.9000;0.8645;1.0959;
235.2000;0.8604;1.0830;
235.5000;0.8637;1.0959;
235.8000;0.8563;1.0753;
236.1000;0.8588;1.0805;
236.4000;0.8596;1.0907;
236.7000;0.8580;1.0856;
237.0000;0.8612;1.1036;
237.3000;0.8604;1.1138;
237.6000;0.8580;1.1010;
237.9000;0.8628;1.1138;
238.2000;0.8645;1.1190;
238.5000;0.8620;1.1164;
238.8000;0.8580;1.1036;
239.1000;0.8637;1.1190;
239.4000;0.8604;1.1061;
239.7000;0.8669;1.1138;
240.0000;0.8637;1.1087;
240.3000;0.8612;1.1010;
240.6000;0.8661;1.0984;
240.9000;0.8620;1.0856;
241.2000;0.8628;1.0856;
241.5000;0.8620;1.0882;
241.8000;0.8596;1.0882;
242.1000;0.8628;1.0984;
242.4000;0.8547;1.0805;
242.7000;0.8580;1.0933;
243.0000;0.8637;1.1010;
243.3000;0.8596;1.0882;
243.6000;0.8661;1.1113;
243.9000;0.8604;1.0959;
244.2000;0.8653;1.1087;
244.5000;0.8604;1.1010;
244.8000;0.8620;1.1010;
245.1000;0.8571;1.0882;
245.4000;0.8604;1.0882;
245.7000;0.8653;1.0959;
246.0000;0.8588;1.0805;
246.3000;0.8612;1.0882;
246.6000;0.8596;1.0856;
246.9000;0.8596;1.0856;
247.2000;0.8612;1.0933;
247.5000;0.8612;1.0959;
247.8000;0.8645;1.1061;
248.1000;0.8620;1.0984;
248.4000;0.8588;1.0856;
248.7000;0.8596;1.0856;
249.0000;0.8596;1.0882;
249.3000;0.8588;1.0856;
249.6000;0.8596;1.0959;
249.9000;0.8596;1.0959;
250.2000;0.8669;1.1061;
250.5000;0.8596;1.0907;
250.8000;0.8596;1.0907;
251.1000;0.8604;1.0959;
251.4000;0.8620;1.0959;
251.7000;0.8620;1.0959;
252.0000;0.8596;1.0933;
252.3000;0.8604;1.0984;
252.6000;0.8612;1.0856;
252.9000;0.8645;1.1036;
253.2000;0.8596;1.0856;
253.5000;0.8604;1.0882;
253.8000;0.8620;1.0805;
254.1000;0.8612;1.0779;
254.4000;0.8604;1.0651;
254.7000;0.8596;1.0625;
255.0000;0.8596;1.0676;
255.3000;0.8596;1.0676;
255.6000;0.8612;1.0702;
255.9000;0.8596;1.0805;
256.2000;0.8596;1.0753;
256.5000;0.8596;1.0753;
256.8000;0.8612;1.0779;
257.1000;0.8612;1.0728;
257.4000;0.8588;1.0702;
257.7000;0.8588;1.0651;
258.0000;0.8588;1.0702;
258.3000;0.8580;1.0651;
258.6000;0.8571;1.0625;
258.9000;0.8604;1.0676;
259.2000;0.8596;1.0728;
259.5000;0.8588;1.0676;
259.8000;0.8588;1.0779;
260.1000;0.8588;1.0805;
260.4000;0.8596;1.0830;
260.7000;0.8547;1.0753;
261.0000;0.8580;1.0959;
261.3000;0.8571;1.0959;
261.6000;0.8604;1.1010;
261.9000;0.8580;1.0984;
262.2000;0.8604;1.0959;
262.5000;0.8596;1.0959;
262.8000;0.8612;1.1010;
263.1000;0.8580;1.0856;
263.4000;0.8604;1.0830;
263.7000;0.8596;1.0805;
264.0000;0.8612;1.0856;
264.3000;0.8604;1.0805;
264.6000;0.8563;1.0753;
264.9000;0.8588;1.0779;
265.2000;0.8604;1.0702;
265.5000;0.8596;1.0779;
265.8000;0.8588;1.0830;
266.1000;0.8596;1.0907;
266.4000;0.8596;1.0882;
266.7000;0.8604;1.0882;
267.0000;0.8588;1.0830;
267.3000;0.8588;1.0856;
267.6000;0.8612;1.0907;
267.9000;0.8604;1.0882;
268.2000;0.8588;1.0753;
268.5000;0.8531;1.0574;
268.8000;0.8620;1.0728;
269.1000;0.8596;1.0676;
269.4000;0.8604;1.0753;
269.7000;0.8555;1.0676;
270.0000;0.8612;1.0856;
270.3000;0.8580;1.0805;
270.6000;0.8580;1.0805;
270.9000;0.8604;1.0779;
271.2000;0.8604;1.0753;
271.5000;0.8563;1.0574;
271.8000;0.8604;1.0753;
272.1000;0.8571;1.0651;
272.4000;0.8547;1.0574;
272.7000;0.8596;1.0753;
273.0000;0.8612;1.0856;
273.3000;0.8580;1.0753;
273.6000;0.8588;1.0779;
273.9000;0.8612;1.0805;
274.2000;0.8604;1.0830;
274.5000;0.8620;1.0882;
274.8000;0.8653;1.1010;
275.1000;0.8604;1.0907;
275.4000;0.8694;1.1241;
275.7000;0.8588;1.0984;
276.0000;0.8604;1.0933;
276.3000;0.8604;1.0882;
276.6000;0.8612;1.0830;
276.9000;0.8628;1.0830;
277.2000;0.8620;1.0728;
277.5000;0.8620;1.0728;
277.8000;0.8620;1.0753;
278.1000;0.8580;1.0728;
278.4000;0.8596;1.0805;
278.7000;0.8596;1.0753;
279.0000;0.8596;1.0702;
279.3000;0.8604;1.0753;
279.6000;0.8596;1.0882;
279.9000;0.8580;1.0856;
280.2000;0.8596;1.0907;
280.5000;0.8604;1.0933;
280.8000;0.8604;1.0856;
281.1000;0.8604;1.0907;
281.4000;0.8588;1.0856;
281.7000;0.8580;1.0805;
282.0000;0.8498;1.0651;
282.3000;0.8596;1.0882;
282.6000;0.8596;1.0856;
282.9000;0.8588;1.0856;
283.2000;0.8604;1.0933;
283.5000;0.8588;1.0856;
283.8000;0.8588;1.0933;
284.1000;0.8604;1.0856;
284.4000;0.8604;1.1010;
284.7000;0.8612;1.1113;
285.0000;0.8588;1.1061;
285.3000;0.8596;1.1036;
285.6000;0.8604;1.1010;
285.9000;0.8596;1.1010;
286.2000;0.8604;1.0959;
286.5000;0.8580;1.0830;
286.8000;0.8580;1.0779;
287.1000;0.8588;1.0907;
287.4000;0.8604;1.0907;
287.7000;0.8596;1.0779;
288.0000;0.8620;1.0805;
288.3000;0.8645;1.0805;
288.6000;0.8628;1.0753;
288.9000;0.8580;1.0702;
289.2000;0.8580;1.0805;
289.5000;0.8596;1.0907;
289.8000;0.8604;1.0959;
290.1000;0.8571;1.0830;
290.4000;0.8580;1.0959;
290.7000;0.8555;1.0856;
291.0000;0.8588;1.0959;
291.3000;0.8580;1.0882;
291.6000;0.8596;1.0933;
291.9000;0.8612;1.1061;
292.2000;0.8645;1.1190;
292.5000;0.8612;1.1164;
292.8000;0.8571;1.1036;
293.1000;0.8580;1.1010;
293.4000;0.8596;1.1036;
293.7000;0.8571;1.0959;
294.0000;0.8588;1.0959;
294.3000;0.8506;1.0651;
294.6000;0.8547;1.0728;
294.9000;0.8580;1.0779;
295.2000;0.8571;1.0728;
295.5000;0.8580;1.0805;
295.8000;0.8563;1.0779;
296.1000;0.8580;1.0856;
296.4000;0.8596;1.0779;
296.7000;0.8580;1.0728;
297.0000;0.8588;1.0856;
297.3000;0.8612;1.0959;
297.6000;0.8588;1.0933;
297.9000;0.8596;1.1061;
298.2000;0.8637;1.1215;
298.5000;0.8580;1.1113;
298.8000;0.8596;1.1138;
299.1000;0.8580;1.1138;
299.4000;0.8588;1.1010;
299.7000;0.8588;1.1010;
300.0000;0.8596;1.0984;
300.3000;0.8580;1.0933;
300.6000;0.8596;1.1010;
300.9000;0.8596;1.1010;
301.2000;0.8588;1.0933;
301.5000;0.8580;1.0882;
301.8000;0.8604;1.0907;
302.1000;0.8580;1.0882;
302.4000;0.8620;1.0933;
302.7000;0.8612;1.0984;
303.0000;0.8596;1.0959;
303.3000;0.8637;1.0933;
303.6000;0.8604;1.0856;
303.9000;0.8669;1.1010;
304.2000;0.8596;1.0933;
304.5000;0.8588;1.0933;
304.8000;0.8604;1.0882;
305.1000;0.8596;1.0830;
305.4000;0.8628;1.0907;
305.7000;0.8588;1.0830;
306.0000;0.8604;1.0959;
306.3000;0.8588;1.0907;
306.6000;0.8596;1.0959;
306.9000;0.8571;1.0805;
307.2000;0.8580;1.0779;
307.5000;0.8620;1.0779;
307.8000;0.8571;1.0676;
308.1000;0.8588;1.0702;
308.4000;0.8620;1.0830;
308.7000;0.8628;1.0882;
309.0000;0.8604;1.0830;
309.3000;0.8580;1.0805;
309.6000;0.8498;1.0574;
309.9000;0.8588;1.0856;
310.2000;0.8580;1.0882;
310.5000;0.8563;1.0933;
310.8000;0.8531;1.0882;
311.1000;0.8588;1.0830;
311.4000;0.8580;1.0779;
311.7000;0.8547;1.0625;
312.0000;0.8620;1.0779;
312.3000;0.8588;1.0805;
312.6000;0.8539;1.0779;
312.9000;0.8563;1.0779;
313.2000;0.8604;1.0882;
313.5000;0.8604;1.0882;
313.8000;0.8604;1.0882;
314.1000;0.8596;1.0933;
314.4000;0.8580;1.0933;
314.7000;0.8506;1.0676;
315.0000;0.8580;1.0933;
315.3000;0.8580;1.0933;
315.6000;0.8580;1.0984;
315.9000;0.8580;1.1010;
316.2000;0.8588;1.0984;
316.5000;0.8596;1.0933;
316.8000;0.8604;1.0959;
317.1000;0.8637;1.1113;
317.4000;0.8571;1.1036;
317.7000;0.8612;1.1061;
318.0000;0.8588;1.1010;
318.3000;0.8612;1.1010;
318.6000;0.8604;1.0959;
318.9000;0.8588;1.0959;
319.2000;0.8604;1.1010;
319.5000;0.8604;1.0959;
319.8000;0.8588;1.0933;
320.1000;0.8571;1.0907;
320.4000;0.8571;1.0856;
320.7000;0.8580;1.0856;
321.0000;0.8571;1.0830;
321.3000;0.8588;1.0933;
321.6000;0.8596;1.0959;
321.9000;0.8588;1.0882;
322.2000;0.8580;1.0882;
322.5000;0.8580;1.0907;
322.8000;0.8596;1.0830;
323.1000;0.8580;1.0907;
323.4000;0.8580;1.0933;
323.7000;0.8596;1.0933;
324.0000;0.8588;1.0959;
324.3000;0.8604;1.1010;
324.6000;0.8588;1.0907;
324.9000;0.8580;1.1061;
325.2000;0.8596;1.1087;
325.5000;0.8555;1.1010;
325.8000;0.8580;1.1061;
326.1000;0.8539;1.0984;
326.4000;0.8596;1.1087;
326.7000;0.8604;1.1087;
327.0000;0.8604;1.1087;
327.3000;0.8620;1.1113;
327.6000;0.8580;1.1113;
327.9000;0.8498;1.0830;
328.2000;0.8596;1.1138;
328.5000;0.8555;1.1138;
328.8000;0.8580;1.1113;
329.1000;0.8580;1.1113;
329.4000;0.8571;1.1164;
329.7000;0.8588;1.1241;
330.0000;0.8563;1.1164;
330.3000;0.8604;1.1215;
330.6000;0.8571;1.1138;
330.9000;0.8547;1.1036;
331.2000;0.8555;1.1010;
331.5000;0.8571;1.1113;
331.8000;0.8571;1.1087;
332.1000;0.8563;1.1010;
332.4000;0.8604;1.1113;
332.7000;0.8580;1.1036;
333.0000;0.8571;1.1036;
333.3000;0.8580;1.1010;
333.6000;0.8571;1.1061;
333.9000;0.8596;1.1138;
334.2000;0.8661;1.1292;
334.5000;0.8580;1.1113;
334.8000;0.8596;1.1164;
335.1000;0.8580;1.1087;
335.4000;0.8612;1.1190;
335.7000;0.8596;1.1113;
336.0000;0.8571;1.1061;
336.3000;0.8588;1.1061;
336.6000;0.8612;1.1087;
336.9000;0.8555;1.0882;
337.2000;0.8596;1.0933;
337.5000;0.8580;1.0882;
337.8000;0.8580;1.0959;
338.1000;0.8596;1.1010;
338.4000;0.8539;1.0907;
338.7000;0.8571;1.1010;
339.0000;0.8506;1.0753;
339.3000;0.8571;1.0933;
339.6000;0.8555;1.0933;
339.9000;0.8571;1.0984;
340.2000;0.8563;1.1010;
340.5000;0.8571;1.1010;
340.8000;0.8588;1.1010;
341.1000;0.8604;1.0959;
341.4000;0.8580;1.0907;
341.7000;0.8580;1.0882;
342.0000;0.8555;1.0856;
342.3000;0.8588;1.0907;
342.6000;0.8588;1.0882;
342.9000;0.8571;1.0933;
343.2000;0.8588;1.0984;
343.5000;0.8669;1.1164;
343.8000;0.8588;1.0907;
344.1000;0.8571;1.0830;
344.4000;0.8563;1.0805;
344.7000;0.8580;1.0805;
345.0000;0.8555;1.0676;
345.3000;0.8563;1.0625;
345.6000;0.8580;1.0651;
345.9000;0.8588;1.0676;
346.2000;0.8547;1.0651;
346.5000;0.8580;1.0779;
346.8000;0.8563;1.0830;
347.1000;0.8571;1.0779;
347.4000;0.8571;1.0830;
347.7000;0.8580;1.0882;
348.0000;0.8596;1.0933;
348.3000;0.8588;1.0856;
348.6000;0.8580;1.0907;
348.9000;0.8580;1.0856;
349.2000;0.8580;1.0907;
349.5000;0.8596;1.0933;
349.8000;0.8596;1.0907;
350.1000;0.8555;1.0856;
350.4000;0.8555;1.0907;
350.7000;0.8563;1.1036;
351.0000;0.8571;1.1061;
351.3000;0.8539;1.0984;
351.6000;0.8547;1.0959;
351.9000;0.8571;1.0907;
352.2000;0.8539;1.0728;
352.5000;0.8580;1.0856;
352.8000;0.8580;1.0856;
353.1000;0.8580;1.0907;
353.4000;0.8571;1.0856;
353.7000;0.8571;1.0856;
354.0000;0.8571;1.0805;
354.3000;0.8588;1.0933;
354.6000;0.8571;1.0882;
354.9000;0.8580;1.0805;
355.2000;0.8571;1.0753;
355.5000;0.8563;1.0805;
355.8000;0.8604;1.1010;
356.1000;0.8580;1.0984;
356.4000;0.8555;1.0882;
356.7000;0.8547;1.0779;
357.0000;0.8588;1.0882;
357.3000;0.8580;1.0933;
357.6000;0.8580;1.0933;
357.9000;0.8563;1.0856;
358.2000;0.8571;1.0907;
358.5000;0.8539;1.0805;
358.8000;0.8604;1.0933;
359.1000;0.8580;1.0907;
359.4000;0.8571;1.0779;
359.7000;0.8539;1.0805;
360.0000;0.8571;1.0907;
360.3000;0.8555;1.0959;
360.6000;0.8571;1.0959;
360.9000;0.8563;1.1010;
361.2000;0.8580;1.1061;
361.5000;0.8555;1.0959;
361.8000;0.8563;1.0933;
362.1000;0.8523;1.0805;
362.4000;0.8547;1.0830;
362.7000;0.8555;1.0882;
363.0000;0.8580;1.0984;
363.3000;0.8588;1.1010;
363.6000;0.8620;1.1190;
363.9000;0.8571;1.1215;
364.2000;0.8555;1.0984;
364.5000;0.8547;1.0933;
364.8000;0.8580;1.0959;
365.1000;0.8580;1.1036;
365.4000;0.8547;1.0984;
365.7000;0.8555;1.0984;
366.0000;0.8555;1.0907;
366.3000;0.8555;1.0856;
366.6000;0.8555;1.0907;
366.9000;0.8588;1.0959;
367.2000;0.8588;1.0984;
367.5000;0.8580;1.1036;
367.8000;0.8620;1.1087;
368.1000;0.8580;1.0805;
368.4000;0.8571;1.0805;
368.7000;0.8580;1.0882;
369.0000;0.8604;1.0933;
369.3000;0.8596;1.0856;
369.6000;0.8571;1.0856;
369.9000;0.8555;1.0856;
370.2000;0.8563;1.0805;
370.5000;0.8571;1.0907;
370.8000;0.8539;1.0882;
371.1000;0.8563;1.0959;
371.4000;0.8555;1.0959;
371.7000;0.8571;1.1010;
372.0000;0.8620;1.1087;
372.3000;0.8571;1.1010;
372.6000;0.8580;1.1010;
372.9000;0.8498;1.0882;
373.2000;0.8555;1.1113;
373.5000;0.8571;1.1113;
373.8000;0.8563;1.1138;
374.1000;0.8563;1.1113;
374.4000;0.8555;1.1087;
374.7000;0.8547;1.1036;
375.0000;0.8539;1.1036;
375.3000;0.8547;1.1010;
375.6000;0.8563;1.1036;
375.9000;0.8547;1.1061;
376.2000;0.8571;1.1113;
376.5000;0.8563;1.1036;
376.8000;0.8571;1.1061;
377.1000;0.8539;1.0984;
377.4000;0.8555;1.0984;
377.7000;0.8555;1.1010;
378.0000;0.8555;1.1087;
378.3000;0.8555;1.1113;
378.6000;0.8555;1.1010;
378.9000;0.8563;1.1010;
379.2000;0.8563;1.0984;
379.5000;0.8563;1.0984;
379.8000;0.8555;1.0933;
380.1000;0.8580;1.0984;
380.4000;0.8588;1.1010;
380.7000;0.8563;1.0882;
381.0000;0.8588;1.0882;
381.3000;0.8571;1.0805;
381.6000;0.8555;1.0753;
381.9000;0.8571;1.0805;
382.2000;0.8580;1.0805;
382.5000;0.8563;1.0830;
382.8000;0.8563;1.0702;
383.1000;0.8563;1.0753;
383.4000;0.8555;1.0728;
383.7000;0.8531;1.0728;
384.0000;0.8580;1.0856;
384.3000;0.8571;1.0830;
384.6000;0.8498;1.0599;
384.9000;0.8547;1.0830;
385.2000;0.8563;1.0856;
385.5000;0.8563;1.0805;
385.8000;0.8563;1.0779;
386.1000;0.8523;1.0651;
386.4000;0.8563;1.0753;
386.7000;0.8539;1.0728;
387.0000;0.8555;1.0805;
387.3000;0.8547;1.0959;
387.6000;0.8563;1.0959;
387.9000;0.8580;1.1010;
388.2000;0.8555;1.1061;
388.5000;0.8555;1.1061;
388.8000;0.8563;1.1138;
389.1000;0.8563;1.1138;
389.4000;0.8620;1.1344;
389.7000;0.8563;1.1190;
390.0000;0.8547;1.1164;
390.3000;0.8563;1.1036;
390.6000;0.8563;1.1113;
390.9000;0.8563;1.1061;
391.2000;0.8555;1.0933;
391.5000;0.8580;1.1010;
391.8000;0.8580;1.1010;
392.1000;0.8571;1.0933;
392.4000;0.8563;1.0959;
392.7000;0.8580;1.0984;
393.0000;0.8571;1.0959;
393.3000;0.8563;1.0907;
393.6000;0.8563;1.0907;
393.9000;0.8555;1.0907;
394.2000;0.8571;1.0959;
394.5000;0.8563;1.0933;
394.8000;0.8555;1.0933;
395.1000;0.8571;1.0933;
395.4000;0.8555;1.0984;
395.7000;0.8555;1.0907;
396.0000;0.8531;1.0753;
396.3000;0.8547;1.0728;
396.6000;0.8531;1.0779;
396.9000;0.8547;1.0856;
397.2000;0.8555;1.0753;
397.5000;0.8523;1.0728;
397.8000;0.8555;1.0805;
398.1000;0.8539;1.0753;
398.4000;0.8604;1.0856;
398.7000;0.8555;1.0702;
399.0000;0.8571;1.0779;
399.3000;0.8555;1.0779;
399.6000;0.8555;1.0830;
399.9000;0.8555;1.0830;
400.2000;0.8555;1.0856;
400.5000;0.8571;1.0907;
400.8000;0.8571;1.0907;
401.1000;0.8563;1.0882;
401.4000;0.8555;1.0907;
401.7000;0.8547;1.0933;
402.0000;0.8555;1.0984;
402.3000;0.8547;1.0882;
402.6000;0.8571;1.0907;
402.9000;0.8547;1.0830;
403.2000;0.8547;1.0907;
403.5000;0.8563;1.0959;
403.8000;0.8580;1.0959;
404.1000;0.8563;1.0882;
404.4000;0.8580;1.0856;
404.7000;0.8588;1.0933;
405.0000;0.8588;1.0830;
405.3000;0.8555;1.0805;
405.6000;0.8482;1.0574;
405.9000;0.8563;1.0805;
406.2000;0.8555;1.0779;
406.5000;0.8604;1.0779;
406.8000;0.8555;1.0728;
407.1000;0.8555;1.0830;
407.4000;0.8555;1.0830;
407.7000;0.8580;1.0907;
408.0000;0.8596;1.0984;
408.3000;0.8580;1.0907;
408.6000;0.8580;1.0805;
408.9000;0.8547;1.0805;
409.2000;0.8506;1.0779;
409.5000;0.8563;1.0907;
409.8000;0.8555;1.0805;
410.1000;0.8571;1.0856;
410.4000;0.8539;1.0779;
410.7000;0.8539;1.0933;
411.0000;0.8555;1.0984;
411.3000;0.8531;1.0907;
411.6000;0.8531;1.0907;
411.9000;0.8547;1.0882;
412.2000;0.8482;1.0805;
412.5000;0.8547;1.0882;
412.8000;0.8555;1.0830;
413.1000;0.8539;1.0830;
413.4000;0.8547;1.0753;
413.7000;0.8628;1.0959;
414.0000;0.8563;1.0856;
414.3000;0.8555;1.0830;
414.6000;0.8547;1.0882;
414.9000;0.8563;1.0933;
415.2000;0.8547;1.0933;
415.5000;0.8547;1.0856;
415.8000;0.8547;1.0805;
416.1000;0.8563;1.0805;
416.4000;0.8547;1.0753;
416.7000;0.8547;1.0728;
417.0000;0.8563;1.0779;
417.3000;0.8571;1.0805;
417.6000;0.8531;1.0753;
417.9000;0.8547;1.0779;
418.2000;0.8555;1.0753;
418.5000;0.8555;1.0728;
418.8000;0.8563;1.0753;
419.1000;0.8580;1.0882;
419.4000;0.8563;1.0779;
419.7000;0.8563;1.0830;
420.0000;0.8563;1.0805;
420.3000;0.8571;1.0805;
420.6000;0.8580;1.0856;
420.9000;0.8580;1.0856;
421.2000;0.8555;1.0907;
421.5000;0.8555;1.0856;
421.8000;0.8547;1.0856;
422.1000;0.8555;1.0882;
422.4000;0.8563;1.0882;
422.7000;0.8571;1.0907;
423.0000;0.8531;1.0830;
423.3000;0.8555;1.0805;
423.6000;0.8571;1.0805;
423.9000;0.8563;1.0805;
424.2000;0.8547;1.0805;
424.5000;0.8555;1.0882;
424.8000;0.8555;1.0830;
425.1000;0.8571;1.0779;
425.4000;0.8547;1.0728;
425.7000;0.8547;1.0651;
426.0000;0.8547;1.0574;
426.3000;0.8563;1.0676;
426.6000;0.8555;1.0728;
426.9000;0.8547;1.0728;
427.2000;0.8604;1.0830;
427.5000;0.8563;1.0856;
427.8000;0.8555;1.0933;
428.1000;0.8571;1.0984;
428.4000;0.8555;1.0907;
428.7000;0.8620;1.1036;
429.0000;0.8539;1.0830;
429.3000;0.8604;1.0984;
429.6000;0.8588;1.1010;
429.9000;0.8523;1.0805;
430.2000;0.8555;1.0830;
430.5000;0.8539;1.0728;
430.8000;0.8547;1.0882;
431.1000;0.8596;1.0933;
431.4000;0.8498;1.0574;
431.7000;0.8523;1.0599;
432.0000;0.8555;1.0728;
432.3000;0.8563;1.0805;
432.6000;0.8563;1.0805;
432.9000;0.8604;1.0907;
433.2000;0.8547;1.0676;
433.5000;0.8539;1.0702;
433.8000;0.8555;1.0702;
434.1000;0.8547;1.0830;
434.4000;0.8539;1.0882;
434.7000;0.8531;1.0984;
435.0000;0.8612;1.1138;
435.3000;0.8555;1.1010;
435.6000;0.8498;1.0907;
435.9000;0.8539;1.1010;
436.2000;0.8555;1.0984;
436.5000;0.8539;1.0984;
436.8000;0.8547;1.0984;
437.1000;0.8547;1.1061;
437.4000;0.8571;1.1087;
437.7000;0.8563;1.1138;
438.0000;0.8547;1.1010;
438.3000;0.8604;1.1113;
438.6000;0.8571;1.1061;
438.9000;0.8547;1.1036;
439.2000;0.8555;1.0907;
439.5000;0.8547;1.0959;
439.8000;0.8539;1.0984;
440.1000;0.8563;1.1138;
440.4000;0.8547;1.1061;
440.7000;0.8539;1.1061;
441.0000;0.8547;1.1010;
441.3000;0.8555;1.1036;
441.6000;0.8547;1.0984;
441.9000;0.8547;1.0933;
442.2000;0.8539;1.0907;
442.5000;0.8539;1.0882;
442.8000;0.8547;1.0933;
443.1000;0.8547;1.0856;
443.4000;0.8547;1.0856;
443.7000;0.8555;1.0805;
444.0000;0.8547;1.0933;
444.3000;0.8531;1.0907;
444.6000;0.8514;1.0933;
444.9000;0.8547;1.0882;
445.2000;0.8563;1.0933;
445.5000;0.8555;1.0882;
445.8000;0.8506;1.0805;
446.1000;0.8539;1.0805;
446.4000;0.8555;1.0830;
446.7000;0.8539;1.0856;
447.0000;0.8531;1.0856;
447.3000;0.8514;1.0830;
447.6000;0.8539;1.0856;
447.9000;0.8539;1.0907;
448.2000;0.8523;1.0882;
448.5000;0.8539;1.0959;
448.8000;0.8539;1.0959;
449.1000;0.8563;1.0959;
449.4000;0.8555;1.0959;
449.7000;0.8539;1.0933;
450.0000;0.8547;1.0959;
450.3000;0.8555;1.1036;
450.6000;0.8555;1.1061;
450.9000;0.8547;1.1061;
451.2000;0.8563;1.1010;
451.5000;0.8563;1.0856;
451.8000;0.8539;1.0830;
452.1000;0.8539;1.0728;
452.4000;0.8547;1.0676;
452.7000;0.8457;1.0548;
453.0000;0.8571;1.0805;
453.3000;0.8539;1.0753;
453.6000;0.8506;1.0702;
453.9000;0.8531;1.0805;
454.2000;0.8604;1.0984;
454.5000;0.8539;1.0728;
454.8000;0.8539;1.0753;
455.1000;0.8539;1.0702;
455.4000;0.8563;1.0830;
455.7000;0.8547;1.0702;
456.0000;0.8547;1.0779;
456.3000;0.8523;1.0676;
456.6000;0.8555;1.0676;
456.9000;0.8539;1.0779;
457.2000;0.8539;1.0779;
457.5000;0.8498;1.0753;
457.8000;0.8531;1.0856;
458.1000;0.8580;1.1036;
458.4000;0.8523;1.0856;
458.7000;0.8596;1.1036;
459.0000;0.8580;1.1010;
459.3000;0.8547;1.0984;
459.6000;0.8580;1.1061;
459.9000;0.8571;1.1061;
460.2000;0.8547;1.0984;
460.5000;0.8547;1.0959;
460.8000;0.8531;1.0933;
461.1000;0.8547;1.0959;
461.4000;0.8514;1.0830;
461.7000;0.8547;1.0933;
462.0000;0.8555;1.0933;
462.3000;0.8539;1.0984;
462.6000;0.8539;1.0984;
462.9000;0.8547;1.0959;
463.2000;0.8580;1.0984;
463.5000;0.8547;1.0907;
463.8000;0.8547;1.0805;
464.1000;0.8539;1.0805;
464.4000;0.8547;1.0856;
464.7000;0.8555;1.0830;
465.0000;0.8547;1.0830;
465.3000;0.8514;1.0779;
465.6000;0.8588;1.0882;
465.9000;0.8604;1.0984;
466.2000;0.8523;1.0830;
466.5000;0.8539;1.0856;
466.8000;0.8547;1.0856;
467.1000;0.8539;1.0882;
467.4000;0.8555;1.0933;
467.7000;0.8539;1.0856;
468.0000;0.8645;1.1113;
468.3000;0.8547;1.0882;
468.6000;0.8555;1.0856;
468.9000;0.8531;1.0728;
469.2000;0.8539;1.0651;
469.5000;0.8539;1.0599;
469.8000;0.8531;1.0548;
470.1000;0.8531;1.0548;
470.4000;0.8474;1.0471;
470.7000;0.8555;1.0676;
471.0000;0.8547;1.0702;
471.3000;0.8531;1.0676;
471.6000;0.8531;1.0702;
471.9000;0.8539;1.0779;
472.2000;0.8539;1.0805;
472.5000;0.8563;1.0882;
472.8000;0.8531;1.0779;
473.1000;0.8547;1.0882;
473.4000;0.8580;1.0882;
473.7000;0.8661;1.1087;
474.0000;0.8531;1.0830;
474.3000;0.8539;1.0907;
474.6000;0.8555;1.0933;
474.9000;0.8571;1.0984;
475.2000;0.8539;1.0907;
475.5000;0.8555;1.0959;
475.8000;0.8563;1.0959;
476.1000;0.8555;1.0856;
476.4000;0.8539;1.0702;
476.7000;0.8531;1.0676;
477.0000;0.8531;1.0753;
477.3000;0.8539;1.0753;
477.6000;0.8539;1.0779;
477.9000;0.8523;1.0753;
478.2000;0.8514;1.0676;
478.5000;0.8547;1.0805;
478.8000;0.8571;1.0779;
479.1000;0.8580;1.0805;
479.4000;0.8539;1.0599;
479.7000;0.8531;1.0651;
480.0000;0.8523;1.0599;
480.3000;0.8539;1.0625;
480.6000;0.8490;1.0471;
480.9000;0.8547;1.0651;
481.2000;0.8498;1.0599;
481.5000;0.8539;1.0651;
481.8000;0.8474;1.0471;
482.1000;0.8514;1.0676;
482.4000;0.8547;1.0753;
482.7000;0.8466;1.0625;
483.0000;0.8523;1.0651;
483.3000;0.8531;1.0625;
483.6000;0.8506;1.0625;
483.9000;0.8555;1.0779;
484.2000;0.8531;1.0728;
484.5000;0.8555;1.0830;
484.8000;0.8539;1.0805;
485.1000;0.8531;1.0856;
485.4000;0.8563;1.0907;
485.7000;0.8539;1.0907;
486.0000;0.8547;1.0933;
486.3000;0.8498;1.0805;
486.6000;0.8539;1.0856;
486.9000;0.8539;1.0779;
487.2000;0.8539;1.0753;
487.5000;0.8555;1.0728;
487.8000;0.8531;1.0753;
488.1000;0.8514;1.0702;
488.4000;0.8523;1.0779;
488.7000;0.8539;1.0753;
489.0000;0.8547;1.0753;
489.3000;0.8523;1.0625;
489.6000;0.8466;1.0522;
489.9000;0.8539;1.0805;
490.2000;0.8539;1.0779;
490.5000;0.8563;1.0856;
490.8000;0.8555;1.0856;
491.1000;0.8547;1.0856;
491.4000;0.8506;1.0805;
491.7000;0.8523;1.0805;
492.0000;0.8482;1.0753;
492.3000;0.8539;1.0933;
492.6000;0.8531;1.0882;
492.9000;0.8523;1.0907;
493.2000;0.8506;1.0882;
493.5000;0.8555;1.1010;
493.8000;0.8523;1.0984;
494.1000;0.8523;1.0933;
494.4000;0.8514;1.0907;
494.7000;0.8523;1.0959;
495.0000;0.8547;1.0959;
495.3000;0.8547;1.0959;
495.6000;0.8531;1.0882;
495.9000;0.8539;1.0856;
496.2000;0.8531;1.0805;
496.5000;0.8563;1.0882;
496.8000;0.8531;1.0805;
497.1000;0.8563;1.0882;
497.4000;0.8547;1.0856;
497.7000;0.8531;1.0805;
498.0000;0.8531;1.0830;
498.3000;0.8547;1.0907;
498.6000;0.8514;1.0805;
498.9000;0.8547;1.0856;
499.2000;0.8547;1.0805;
499.5000;0.8523;1.0805;
499.8000;0.8531;1.0856;
500.1000;0.8539;1.0830;
500.4000;0.8539;1.0805;
500.7000;0.8547;1.0779;
501.0000;0.8531;1.0753;
501.3000;0.8531;1.0728;
501.6000;0.8547;1.0805;
501.9000;0.8531;1.0805;
502.2000;0.8531;1.0753;
502.5000;0.8547;1.0728;
502.8000;0.8531;1.0702;
503.1000;0.8523;1.0753;
503.4000;0.8531;1.0728;
503.7000;0.8539;1.0728;
504.0000;0.8523;1.0702;
504.3000;0.8612;1.0984;
504.6000;0.8539;1.0728;
504.9000;0.8547;1.0676;
505.2000;0.8531;1.0676;
505.5000;0.8523;1.0625;
505.8000;0.8523;1.0702;
506.1000;0.8523;1.0676;
506.4000;0.8514;1.0676;
506.7000;0.8514;1.0728;
507.0000;0.8514;1.0728;
507.3000;0.8531;1.0805;
507.6000;0.8531;1.0856;
507.9000;0.8539;1.0882;
508.2000;0.8539;1.0805;
508.5000;0.8555;1.0856;
508.8000;0.8588;1.0984;
509.1000;0.8514;1.0753;
509.4000;0.8523;1.0728;
509.7000;0.8514;1.0574;
510.0000;0.8514;1.0625;
510.3000;0.8514;1.0702;
510.6000;0.8531;1.0779;
510.9000;0.8523;1.0779;
511.2000;0.8514;1.0805;
511.5000;0.8539;1.0907;
511.8000;0.8523;1.0882;
512.1000;0.8474;1.0779;
512.4000;0.8531;1.0984;
512.7000;0.8531;1.0933;
513.0000;0.8523;1.0830;
513.3000;0.8539;1.0856;
513.6000;0.8531;1.0907;
513.9000;0.8555;1.0907;
514.2000;0.8539;1.0830;
514.5000;0.8539;1.0805;
514.8000;0.8523;1.0779;
515.1000;0.8539;1.0728;
515.4000;0.8514;1.0779;
515.7000;0.8547;1.0753;
516.0000;0.8580;1.0882;
516.3000;0.8531;1.0805;
516.6000;0.8514;1.0830;
516.9000;0.8539;1.0907;
517.2000;0.8531;1.0959;
517.5000;0.8531;1.0984;
517.8000;0.8555;1.0984;
518.1000;0.8523;1.0933;
518.4000;0.8523;1.0907;
518.7000;0.8531;1.0959;
519.0000;0.8523;1.0959;
519.3000;0.8514;1.0779;
519.6000;0.8531;1.0702;
519.9000;0.8523;1.0805;
520.2000;0.8523;1.0702;
520.5000;0.8514;1.0805;
520.8000;0.8523;1.0779;
521.1000;0.8506;1.0753;
521.4000;0.8531;1.0882;
521.7000;0.8588;1.1113;
522.0000;0.8539;1.0984;
522.3000;0.8539;1.0984;
522.6000;0.8523;1.0856;
522.9000;0.8547;1.0830;
523.2000;0.8523;1.0753;
523.5000;0.8531;1.0753;
523.8000;0.8531;1.0856;
524.1000;0.8547;1.0984;
524.4000;0.8506;1.0856;
524.7000;0.8433;1.0779;
525.0000;0.8523;1.1087;
525.3000;0.8523;1.1087;
525.6000;0.8523;1.1138;
525.9000;0.8539;1.1215;
526.2000;0.8523;1.1113;
526.5000;0.8539;1.1164;
526.8000;0.8523;1.1113;
527.1000;0.8547;1.1138;
527.4000;0.8523;1.0984;
527.7000;0.8531;1.1010;
528.0000;0.8539;1.1036;
528.3000;0.8580;1.1087;
528.6000;0.8539;1.1036;
528.9000;0.8531;1.1010;
529.2000;0.8514;1.0907;
529.5000;0.8523;1.0882;
529.8000;0.8531;1.0933;
530.1000;0.8514;1.1010;
530.4000;0.8539;1.1164;
530.7000;0.8514;1.0984;
531.0000;0.8531;1.1010;
531.3000;0.8531;1.1010;
531.6000;0.8531;1.0959;
531.9000;0.8514;1.0882;
532.2000;0.8547;1.0933;
532.5000;0.8523;1.0856;
532.8000;0.8547;1.0805;
533.1000;0.8482;1.0753;
533.4000;0.8523;1.0856;
533.7000;0.8523;1.0856;
534.0000;0.8523;1.0753;
534.3000;0.8514;1.0779;
534.6000;0.8531;1.0779;
534.9000;0.8523;1.0779;
535.2000;0.8539;1.0933;
535.5000;0.8457;1.0753;
535.8000;0.8531;1.1010;
536.1000;0.8514;1.1061;
536.4000;0.8523;1.1113;
536.7000;0.8514;1.1087;
537.0000;0.8555;1.1113;
537.3000;0.8539;1.1010;
537.6000;0.8474;1.0805;
537.9000;0.8523;1.1010;
538.2000;0.8539;1.1061;
538.5000;0.8531;1.1061;
538.8000;0.8514;1.0959;
539.1000;0.8498;1.0882;
539.4000;0.8523;1.0959;
539.7000;0.8523;1.0933;
540.0000;0.8531;1.0830;
540.3000;0.8506;1.0882;
540.6000;0.8531;1.0907;
540.9000;0.8523;1.0933;
541.2000;0.8531;1.1010;
541.5000;0.8523;1.0933;
541.8000;0.8531;1.0959;
542.1000;0.8531;1.1036;
542.4000;0.8482;1.1010;
542.7000;0.8514;1.1113;
543.0000;0.8506;1.0984;
543.3000;0.8490;1.0933;
543.6000;0.8523;1.1010;
543.9000;0.8514;1.0882;
544.2000;0.8523;1.0933;
544.5000;0.8539;1.0959;
544.8000;0.8547;1.0959;
545.1000;0.8514;1.0907;
545.4000;0.8498;1.0882;
545.7000;0.8482;1.0753;
546.0000;0.8506;1.0882;
546.3000;0.8531;1.0959;
546.6000;0.8531;1.0984;
546.9000;0.8555;1.1010;
547.2000;0.8514;1.0933;
547.5000;0.8523;1.0933;
547.8000;0.8514;1.0882;
548.1000;0.8490;1.0805;
548.4000;0.8547;1.0959;
548.7000;0.8612;1.1138;
549.0000;0.8514;1.0933;
549.3000;0.8539;1.1010;
549.6000;0.8531;1.1061;
549.9000;0.8514;1.1010;
550.2000;0.8514;1.0933;
550.5000;0.8498;1.0882;
550.8000;0.8490;1.0907;
551.1000;0.8498;1.0805;
551.4000;0.8490;1.0856;
551.7000;0.8506;1.0907;
552.0000;0.8523;1.0933;
552.3000;0.8563;1.1087;
552.6000;0.8498;1.0907;
552.9000;0.8514;1.0933;
553.2000;0.8498;1.0882;
553.5000;0.8523;1.0959;
553.8000;0.8514;1.0907;
554.1000;0.8523;1.0882;
554.4000;0.8474;1.0753;
554.7000;0.8466;1.0830;
555.0000;0.8490;1.0959;
555.3000;0.8482;1.0933;
555.6000;0.8523;1.0984;
555.9000;0.8498;1.0805;
556.2000;0.8523;1.0856;
556.5000;0.8514;1.0856;
556.8000;0.8514;1.0882;
557.1000;0.8523;1.0959;
557.4000;0.8482;1.0779;
557.7000;0.8514;1.1010;
558.0000;0.8514;1.0984;
558.3000;0.8514;1.0959;
558.6000;0.8506;1.0882;
558.9000;0.8596;1.1138;
559.2000;0.8523;1.0907;
559.5000;0.8547;1.0984;
559.8000;0.8514;1.0959;
560.1000;0.8523;1.0933;
560.4000;0.8498;1.0830;
560.7000;0.8506;1.0933;
561.0000;0.8506;1.0984;
561.3000;0.8514;1.1036;
561.6000;0.8498;1.0984;
561.9000;0.8531;1.1061;
562.2000;0.8506;1.1036;
562.5000;0.8433;1.0830;
562.8000;0.8531;1.1010;
563.1000;0.8490;1.0882;
563.4000;0.8490;1.0830;
563.7000;0.8514;1.0907;
564.0000;0.8514;1.0933;
564.3000;0.8506;1.0933;
564.6000;0.8506;1.0882;
564.9000;0.8514;1.0856;
565.2000;0.8523;1.0933;
565.5000;0.8506;1.0907;
565.8000;0.8498;1.0882;
566.1000;0.8482;1.0907;
566.4000;0.8523;1.1061;
566.7000;0.8506;1.0907;
567.0000;0.8498;1.1036;
567.3000;0.8498;1.1113;
567.6000;0.8506;1.1036;
567.9000;0.8498;1.0984;
568.2000;0.8523;1.1036;
568.5000;0.8498;1.1036;
568.8000;0.8514;1.1061;
569.1000;0.8523;1.1010;
569.4000;0.8498;1.0984;
569.7000;0.8514;1.1087;
570.0000;0.8514;1.1036;
570.3000;0.8506;1.0984;
570.6000;0.8604;1.1241;
570.9000;0.8514;1.1036;
571.2000;0.8506;1.1087;
571.5000;0.8514;1.0959;
571.8000;0.8466;1.0907;
572.1000;0.8498;1.0933;
572.4000;0.8523;1.0959;
572.7000;0.8506;1.0882;
573.0000;0.8506;1.0907;
573.3000;0.8498;1.0882;
573.6000;0.8466;1.0830;
573.9000;0.8514;1.0907;
574.2000;0.8514;1.0907;
574.5000;0.8506;1.0984;
574.8000;0.8514;1.0933;
575.1000;0.8490;1.0882;
575.4000;0.8506;1.0933;
575.7000;0.8506;1.0907;
576.0000;0.8506;1.0984;
576.3000;0.8506;1.1010;
576.6000;0.8506;1.1010;
576.9000;0.8523;1.1113;
577.2000;0.8531;1.1138;
577.5000;0.8514;1.1036;
577.8000;0.8514;1.1138;
578.1000;0.8523;1.1164;
578.4000;0.8506;1.1036;
578.7000;0.8482;1.1061;
579.0000;0.8523;1.1164;
579.3000;0.8506;1.1087;
579.6000;0.8506;1.1010;
579.9000;0.8523;1.0959;
580.2000;0.8506;1.0830;
580.5000;0.8498;1.0830;
580.8000;0.8506;1.0830;
581.1000;0.8604;1.1087;
581.4000;0.8449;1.0805;
581.7000;0.8482;1.0933;
582.0000;0.8514;1.0933;
582.3000;0.8506;1.0933;
582.6000;0.8506;1.0907;
582.9000;0.8523;1.0984;
583.2000;0.8514;1.0959;
583.5000;0.8466;1.0805;
583.8000;0.8498;1.0856;
584.1000;0.8506;1.0907;
584.4000;0.8482;1.0779;
584.7000;0.8514;1.0856;
585.0000;0.8490;1.0907;
585.3000;0.8490;1.1010;
585.6000;0.8506;1.1087;
585.9000;0.8506;1.0907;
586.2000;0.8498;1.0830;
586.5000;0.8506;1.0805;
586.8000;0.8506;1.0728;
587.1000;0.8490;1.0805;
587.4000;0.8498;1.0830;
587.7000;0.8498;1.0830;
588.0000;0.8514;1.0856;
588.3000;0.8409;1.0574;
588.6000;0.8506;1.0753;
588.9000;0.8498;1.0676;
589.2000;0.8523;1.0779;
589.5000;0.8490;1.0779;
589.8000;0.8490;1.0779;
590.1000;0.8498;1.0753;
590.4000;0.8498;1.0753;
590.7000;0.8506;1.0779;
591.0000;0.8506;1.0830;
591.3000;0.8514;1.0830;
591.6000;0.8498;1.0728;
591.9000;0.8514;1.0728;
592.2000;0.8514;1.0753;
592.5000;0.8514;1.0805;
592.8000;0.8490;1.0779;
593.1000;0.8523;1.0805;
593.4000;0.8506;1.0676;
593.7000;0.8498;1.0728;
594.0000;0.8482;1.0779;
594.3000;0.8506;1.0907;
594.6000;0.8482;1.0882;
594.9000;0.8490;1.0907;
595.2000;0.8490;1.0907;
595.5000;0.8498;1.0907;
595.8000;0.8531;1.0959;
596.1000;0.8490;1.0753;
596.4000;0.8490;1.0779;
596.7000;0.8539;1.0933;
597.0000;0.8482;1.0882;
597.3000;0.8514;1.0959;
597.6000;0.8490;1.0907;
597.9000;0.8482;1.0779;
598.2000;0.8498;1.0882;
598.5000;0.8514;1.0856;
598.8000;0.8506;1.0933;
599.1000;0.8514;1.0959;
599.4000;0.8498;1.0856;
599.7000;0.8498;1.0779;
600.0000;0.8506;1.0779;
600.3000;0.8498;1.0753;
600.6000;0.8490;1.0676;
600.9000;0.8457;1.0548;
601.2000;0.8425;1.0394;
601.5000;0.8368;1.0112;
601.8000;0.8295;0.9829;
602.1000;0.8230;0.9701;
602.4000;0.8189;0.9547;
602.7000;0.8099;0.9342;
603.0000;0.8075;0.9265;
603.3000;0.7977;0.9059;
603.6000;0.7912;0.8931;
603.9000;0.7847;0.8828;
604.2000;0.7806;0.8751;
604.5000;0.7717;0.8444;
604.8000;0.7709;0.8495;
605.1000;0.7652;0.8367;
605.4000;0.7611;0.8238;
605.7000;0.7554;0.8187;
606.0000;0.7546;0.8136;
606.3000;0.7481;0.7905;
606.6000;0.7440;0.7930;
606.9000;0.7391;0.7930;
607.2000;0.7367;0.7879;
607.5000;0.7375;0.8033;
607.8000;0.7310;0.7905;
608.1000;0.7253;0.7725;
608.4000;0.7228;0.7751;
608.7000;0.7212;0.7751;
609.0000;0.7179;0.7674;
609.3000;0.7139;0.7699;
609.6000;0.7106;0.7622;
609.9000;0.7090;0.7545;
610.2000;0.7033;0.7468;
610.5000;0.7017;0.7391;
610.8000;0.6984;0.7314;
611.1000;0.6960;0.7443;
611.4000;0.6927;0.7443;
611.7000;0.6903;0.7417;
612.0000;0.6870;0.7314;
612.3000;0.6862;0.7237;
612.6000;0.6821;0.7160;
612.9000;0.6813;0.7160;
613.2000;0.6781;0.7160;
613.5000;0.6724;0.7083;
613.8000;0.6740;0.7340;
614.1000;0.6740;0.7289;
614.4000;0.6683;0.7237;
614.7000;0.6683;0.7186;
615.0000;0.6667;0.7263;
615.3000;0.6667;0.7237;
615.6000;0.6642;0.7186;
615.9000;0.6610;0.7058;
616.2000;0.6593;0.7083;
616.5000;0.6569;0.6929;
616.8000;0.6536;0.6878;
617.1000;0.6528;0.6904;
617.4000;0.6504;0.6878;
617.7000;0.6520;0.6904;
618.0000;0.6479;0.6801;
618.3000;0.6447;0.6801;
618.6000;0.6414;0.6673;
618.9000;0.6431;0.6801;
619.2000;0.6406;0.6801;
619.5000;0.6406;0.6827;
619.8000;0.6398;0.6904;
620.1000;0.6365;0.6904;
620.4000;0.6333;0.6904;
620.7000;0.6349;0.6929;
621.0000;0.6309;0.6929;
621.3000;0.6309;0.6929;
621.6000;0.6284;0.6775;
621.9000;0.6268;0.6801;
622.2000;0.6260;0.6878;
622.5000;0.6260;0.6878;
622.8000;0.6227;0.6878;
623.1000;0.6203;0.6929;
623.4000;0.6211;0.6955;
623.7000;0.6203;0.6929;
624.0000;0.6211;0.6904;
624.3000;0.6186;0.6904;
624.6000;0.6162;0.6929;
624.9000;0.6154;0.6878;
625.2000;0.6064;0.6621;
625.5000;0.6097;0.6647;
625.8000;0.6113;0.6621;
626.1000;0.6105;0.6596;
626.4000;0.6113;0.6673;
626.7000;0.6081;0.6673;
627.0000;0.6064;0.6621;
627.3000;0.6040;0.6673;
627.6000;0.6040;0.6750;
627.9000;0.6040;0.6775;
628.2000;0.6056;0.6801;
628.5000;0.6015;0.6673;
628.8000;0.6007;0.6698;
629.1000;0.5983;0.6673;
629.4000;0.6007;0.6801;
629.7000;0.5991;0.6724;
630.0000;0.6007;0.6775;
630.3000;0.5958;0.6698;
630.6000;0.5975;0.6673;
630.9000;0.5942;0.6698;
631.2000;0.5942;0.6673;
631.5000;0.5910;0.6647;
631.8000;0.5910;0.6544;
632.1000;0.5893;0.6570;
632.4000;0.5893;0.6673;
632.7000;0.5902;0.6673;
633.0000;0.5861;0.6647;
633.3000;0.5893;0.6801;
633.6000;0.5861;0.6750;
633.9000;0.5869;0.6750;
634.2000;0.5918;0.6878;
634.5000;0.5845;0.6775;
634.8000;0.5836;0.6724;
635.1000;0.5853;0.6801;
635.4000;0.5845;0.6827;
635.7000;0.5877;0.6929;
636.0000;0.5828;0.6801;
636.3000;0.5788;0.6647;
636.6000;0.5869;0.6852;
636.9000;0.5804;0.6647;
637.2000;0.5779;0.6621;
637.5000;0.5788;0.6647;
637.8000;0.5788;0.6621;
638.1000;0.5771;0.6544;
638.4000;0.5706;0.6442;
638.7000;0.5747;0.6673;
639.0000;0.5771;0.6673;
639.3000;0.5763;0.6596;
639.6000;0.5747;0.6519;
639.9000;0.5804;0.6750;
640.2000;0.5714;0.6544;
640.5000;0.5714;0.6570;
640.8000;0.5731;0.6698;
641.1000;0.5714;0.6673;
641.4000;0.5714;0.6596;
641.7000;0.5706;0.6544;
642.0000;0.5674;0.6365;
642.3000;0.5682;0.6493;
642.6000;0.5665;0.6416;
642.9000;0.5771;0.6724;
643.2000;0.5698;0.6570;
643.5000;0.5682;0.6519;
643.8000;0.5682;0.6544;
644.1000;0.5665;0.6519;
644.4000;0.5665;0.6570;
644.7000;0.5633;0.6519;
645.0000;0.5649;0.6519;
645.3000;0.5665;0.6673;
645.6000;0.5649;0.6647;
645.9000;0.5641;0.6596;
646.2000;0.5641;0.6519;
646.5000;0.5625;0.6596;
646.8000;0.5617;0.6596;
647.1000;0.5617;0.6519;
647.4000;0.5551;0.6390;
647.7000;0.5674;0.6827;
648.0000;0.5625;0.6698;
648.3000;0.5527;0.6416;
648.6000;0.5576;0.6519;
648.9000;0.5576;0.6493;
649.2000;0.5641;0.6698;
649.5000;0.5600;0.6544;
649.8000;0.5592;0.6519;
650.1000;0.5560;0.6442;
650.4000;0.5568;0.6493;
650.7000;0.5576;0.6544;
651.0000;0.5568;0.6570;
651.3000;0.5551;0.6519;
651.6000;0.5519;0.6442;
651.9000;0.5543;0.6519;
652.2000;0.5560;0.6596;
652.5000;0.5560;0.6596;
652.8000;0.5551;0.6621;
653.1000;0.5592;0.6801;
653.4000;0.5503;0.6596;
653.7000;0.5527;0.6724;
654.0000;0.5535;0.6775;
654.3000;0.5519;0.6852;
654.6000;0.5503;0.6801;
654.9000;0.5527;0.6852;
655.2000;0.5503;0.6673;
655.5000;0.5511;0.6673;
655.8000;0.5486;0.6544;
656.1000;0.5527;0.6724;
656.4000;0.5478;0.6673;
656.7000;0.5454;0.6724;
657.0000;0.5551;0.6981;
657.3000;0.5495;0.6852;
657.6000;0.5495;0.6878;
657.9000;0.5478;0.6775;
658.2000;0.5478;0.6724;
658.5000;0.5446;0.6596;
658.8000;0.5454;0.6673;
659.1000;0.5438;0.6673;
659.4000;0.5446;0.6750;
659.7000;0.5454;0.6724;
660.0000;0.5446;0.6698;
660.3000;0.5462;0.6698;
660.6000;0.5438;0.6596;
660.9000;0.5462;0.6698;
661.2000;0.5446;0.6647;
661.5000;0.5397;0.6596;
661.8000;0.5429;0.6621;
662.1000;0.5429;0.6596;
662.4000;0.5438;0.6621;
662.7000;0.5397;0.6544;
663.0000;0.5429;0.6570;
663.3000;0.5397;0.6493;
663.6000;0.5438;0.6570;
663.9000;0.5462;0.6596;
664.2000;0.5413;0.6467;
664.5000;0.5438;0.6544;
664.8000;0.5405;0.6544;
665.1000;0.5381;0.6621;
665.4000;0.5397;0.6647;
665.7000;0.5421;0.6647;
666.0000;0.5405;0.6570;
666.3000;0.5413;0.6647;
666.6000;0.5405;0.6698;
666.9000;0.5421;0.6750;
667.2000;0.5421;0.6698;
667.5000;0.5405;0.6698;
667.8000;0.5381;0.6647;
668.1000;0.5372;0.6519;
668.4000;0.5389;0.6596;
668.7000;0.5389;0.6673;
669.0000;0.5389;0.6673;
669.3000;0.5405;0.6673;
669.6000;0.5340;0.6442;
669.9000;0.5372;0.6647;
670.2000;0.5340;0.6647;
670.5000;0.5332;0.6647;
670.8000;0.5381;0.6827;
671.1000;0.5356;0.6724;
671.4000;0.5315;0.6519;
671.7000;0.5364;0.6621;
672.0000;0.5340;0.6596;
672.3000;0.5299;0.6416;
672.6000;0.5340;0.6570;
672.9000;0.5348;0.6544;
673.2000;0.5332;0.6570;
673.5000;0.5364;0.6673;
673.8000;0.5332;0.6647;
674.1000;0.5348;0.6724;
674.4000;0.5299;0.6570;
674.7000;0.5307;0.6647;
675.0000;0.5315;0.6647;
675.3000;0.5324;0.6570;
675.6000;0.5356;0.6544;
675.9000;0.5348;0.6544;
676.2000;0.5332;0.6493;
676.5000;0.5299;0.6442;
676.8000;0.5307;0.6519;
677.1000;0.5332;0.6698;
677.4000;0.5332;0.6724;
677.7000;0.5307;0.6570;
678.0000;0.5299;0.6493;
678.3000;0.5291;0.6519;
678.6000;0.5307;0.6673;
678.9000;0.5291;0.6621;
679.2000;0.5291;0.6621;
679.5000;0.5356;0.6750;
679.8000;0.5299;0.6621;
680.1000;0.5299;0.6673;
680.4000;0.5307;0.6750;
680.7000;0.5275;0.6750;
681.0000;0.5291;0.6827;
681.3000;0.5275;0.6878;
681.6000;0.5299;0.6904;
681.9000;0.5291;0.6852;
682.2000;0.5258;0.6878;
682.5000;0.5324;0.6955;
682.8000;0.5275;0.6801;
683.1000;0.5267;0.6750;
683.4000;0.5258;0.6801;
683.7000;0.5250;0.6775;
684.0000;0.5250;0.6724;
684.3000;0.5258;0.6750;
684.6000;0.5258;0.6673;
684.9000;0.5267;0.6673;
685.2000;0.5250;0.6544;
685.5000;0.5267;0.6570;
685.8000;0.5283;0.6519;
686.1000;0.5267;0.6519;
686.4000;0.5258;0.6493;
686.7000;0.5242;0.6519;
687.0000;0.5258;0.6544;
687.3000;0.5242;0.6519;
687.6000;0.5242;0.6544;
687.9000;0.5250;0.6544;
688.2000;0.5234;0.6544;
688.5000;0.5242;0.6519;
688.8000;0.5242;0.6570;
689.1000;0.5242;0.6596;
689.4000;0.5267;0.6647;
689.7000;0.5250;0.6596;
690.0000;0.5258;0.6673;
690.3000;0.5234;0.6647;
690.6000;0.5242;0.6698;
690.9000;0.5234;0.6698;
691.2000;0.5242;0.6596;
691.5000;0.5234;0.6596;
691.8000;0.5250;0.6750;
692.1000;0.5234;0.6775;
692.4000;0.5218;0.6801;
692.7000;0.5258;0.6929;
693.0000;0.5210;0.6750;
693.3000;0.5193;0.6724;
693.6000;0.5161;0.6673;
693.9000;0.5210;0.6801;
694.2000;0.5193;0.6698;
694.5000;0.5201;0.6775;
694.8000;0.5218;0.6827;
695.1000;0.5210;0.6775;
695.4000;0.5210;0.6750;
695.7000;0.5193;0.6647;
696.0000;0.5201;0.6647;
696.3000;0.5193;0.6673;
696.6000;0.5218;0.6750;
696.9000;0.5201;0.6673;
697.2000;0.5169;0.6621;
697.5000;0.5185;0.6673;
697.8000;0.5210;0.6698;
698.1000;0.5210;0.6724;
698.4000;0.5185;0.6673;
698.7000;0.5104;0.6339;
699.0000;0.5193;0.6698;
699.3000;0.5193;0.6698;
699.6000;0.5242;0.6878;
699.9000;0.5210;0.6827;
700.2000;0.5201;0.6827;
700.5000;0.5177;0.6801;
700.8000;0.5169;0.6929;
701.1000;0.5177;0.6929;
701.4000;0.5161;0.6878;
701.7000;0.5185;0.6955;
702.0000;0.5169;0.6904;
702.3000;0.5161;0.6775;
702.6000;0.5169;0.6750;
702.9000;0.5169;0.6621;
703.2000;0.5153;0.6596;
703.5000;0.5161;0.6621;
703.8000;0.5177;0.6724;
704.1000;0.5161;0.6775;
704.4000;0.5185;0.6801;
704.7000;0.5169;0.6750;
705.0000;0.5161;0.6724;
705.3000;0.5161;0.6724;
705.6000;0.5177;0.6775;
705.9000;0.5185;0.6852;
706.2000;0.5169;0.6878;
706.5000;0.5161;0.6801;
706.8000;0.5177;0.6929;
707.1000;0.5169;0.6904;
707.4000;0.5169;0.6878;
707.7000;0.5161;0.6801;
708.0000;0.5161;0.6904;
708.3000;0.5153;0.6904;
708.6000;0.5161;0.6981;
708.9000;0.5153;0.7006;
709.2000;0.5144;0.6981;
709.5000;0.5161;0.6955;
709.8000;0.5161;0.6981;
710.1000;0.5153;0.6955;
710.4000;0.5169;0.6852;
710.7000;0.5185;0.7006;
711.0000;0.5161;0.6981;
711.3000;0.5136;0.7006;
711.6000;0.5161;0.6955;
711.9000;0.5144;0.6878;
712.2000;0.5169;0.6955;
712.5000;0.5144;0.6878;
712.8000;0.5128;0.6775;
713.1000;0.5128;0.6775;
713.4000;0.5136;0.6775;
713.7000;0.5128;0.6673;
714.0000;0.5144;0.6673;
714.3000;0.5153;0.6570;
714.6000;0.5153;0.6544;
714.9000;0.5128;0.6544;
715.2000;0.5120;0.6493;
715.5000;0.5128;0.6570;
715.8000;0.5144;0.6647;
716.1000;0.5120;0.6544;
716.4000;0.5104;0.6467;
716.7000;0.5177;0.6673;
717.0000;0.5144;0.6621;
717.3000;0.5120;0.6698;
717.6000;0.5144;0.6750;
717.9000;0.5104;0.6647;
718.2000;0.5120;0.6698;
718.5000;0.5104;0.6775;
718.8000;0.5120;0.6750;
719.1000;0.5128;0.6724;
719.4000;0.5120;0.6673;
719.7000;0.5136;0.6621;
720.0000;0.5120;0.6621;
720.3000;0.5136;0.6596;
720.6000;0.5153;0.6621;
720.9000;0.5136;0.6621;
721.2000;0.5128;0.6647;
721.5000;0.5104;0.6775;
721.8000;0.5104;0.6724;
722.1000;0.5096;0.6698;
722.4000;0.5104;0.6775;
722.7000;0.5104;0.6724;
723.0000;0.5136;0.6801;
723.3000;0.5104;0.6750;
723.6000;0.5104;0.6801;
723.9000;0.5096;0.6852;
724.2000;0.5096;0.6955;
724.5000;0.5096;0.6955;
724.8000;0.5079;0.6878;
725.1000;0.5120;0.6981;
725.4000;0.5104;0.6878;
725.7000;0.5104;0.6878;
726.0000;0.5096;0.6878;
726.3000;0.5112;0.6852;
726.6000;0.5104;0.6852;
726.9000;0.5112;0.6827;
727.2000;0.5112;0.6801;
727.5000;0.5104;0.6724;
727.8000;0.5088;0.6724;
728.1000;0.5079;0.6698;
728.4000;0.5104;0.6673;
728.7000;0.5079;0.6698;
729.0000;0.5079;0.6647;
729.3000;0.5096;0.6724;
729.6000;0.5120;0.6750;
729.9000;0.5079;0.6596;
730.2000;0.5079;0.6596;
730.5000;0.5079;0.6596;
730.8000;0.5079;0.6596;
731.1000;0.5104;0.6724;
731.4000;0.5079;0.6647;
731.7000;0.5136;0.6724;
732.0000;0.5104;0.6698;
732.3000;0.5088;0.6724;
732.6000;0.5055;0.6673;
732.9000;0.5079;0.6775;
733.2000;0.5071;0.6724;
733.5000;0.5104;0.6801;
733.8000;0.5071;0.6775;
734.1000;0.5063;0.6852;
734.4000;0.5071;0.6904;
734.7000;0.5071;0.7006;
735.0000;0.5071;0.7032;
735.3000;0.5071;0.7058;
735.6000;0.5079;0.7160;
735.9000;0.5088;0.7160;
736.2000;0.5079;0.7109;
736.5000;0.5063;0.7032;
736.8000;0.5071;0.7109;
737.1000;0.5063;0.7083;
737.4000;0.5063;0.7109;
737.7000;0.5055;0.7058;
738.0000;0.5071;0.7083;
738.3000;0.5055;0.7032;
738.6000;0.5055;0.7109;
738.9000;0.5071;0.7083;
739.2000;0.5055;0.7032;
739.5000;0.4990;0.6904;
739.8000;0.5079;0.7058;
740.1000;0.5055;0.7006;
740.4000;0.5055;0.7006;
740.7000;0.5063;0.7032;
741.0000;0.5063;0.7058;
741.3000;0.5079;0.7083;
741.6000;0.5071;0.7109;
741.9000;0.5055;0.7109;
742.2000;0.5079;0.7186;
742.5000;0.5079;0.7237;
742.8000;0.5104;0.7314;
743.1000;0.5055;0.7212;
743.4000;0.5031;0.7083;
743.7000;0.5047;0.7083;
744.0000;0.5071;0.7058;
744.3000;0.5071;0.7109;
744.6000;0.5071;0.7006;
744.9000;0.5071;0.7006;
745.2000;0.5047;0.7006;
745.5000;0.5047;0.7109;
745.8000;0.5063;0.7212;
746.1000;0.5055;0.7237;
746.4000;0.5071;0.7237;
746.7000;0.5039;0.7212;
747.0000;0.5047;0.7289;
747.3000;0.5047;0.7212;
747.6000;0.5047;0.7160;
747.9000;0.5047;0.7186;
748.2000;0.5039;0.7160;
748.5000;0.5047;0.7160;
748.8000;0.5047;0.7109;
749.1000;0.5079;0.7186;
749.4000;0.5031;0.7032;
749.7000;0.5014;0.6878;
750.0000;0.5047;0.6981;
750.3000;0.5047;0.6929;
750.6000;0.5055;0.6904;
750.9000;0.5071;0.6955;
751.2000;0.5055;0.6981;
751.5000;0.5047;0.7058;
751.8000;0.5096;0.7160;
752.1000;0.5022;0.6929;
752.4000;0.5039;0.7006;
752.7000;0.5031;0.7058;
753.0000;0.5031;0.7109;
753.3000;0.5031;0.7109;
753.6000;0.5055;0.7109;
753.9000;0.5031;0.7083;
754.2000;0.5014;0.7006;
754.5000;0.5014;0.6981;
754.8000;0.5055;0.7160;
755.1000;0.4974;0.6955;
755.4000;0.5022;0.7135;
755.7000;0.5031;0.7032;
756.0000;0.5047;0.7083;
756.3000;0.5022;0.6955;
756.6000;0.5022;0.6852;
756.9000;0.5031;0.6878;
757.2000;0.5006;0.6775;
757.5000;0.5014;0.6852;
757.8000;0.5031;0.6878;
758.1000;0.5031;0.6955;
758.4000;0.5055;0.7006;
758.7000;0.5047;0.7032;
759.0000;0.5031;0.7006;
759.3000;0.5031;0.7006;
759.6000;0.5039;0.6981;
759.9000;0.5022;0.6904;
760.2000;0.5006;0.6904;
760.5000;0.4982;0.6827;
760.8000;0.5039;0.7006;
761.1000;0.5039;0.7109;
761.4000;0.5104;0.7314;
761.7000;0.5014;0.7135;
762.0000;0.5039;0.7186;
762.3000;0.4990;0.7083;
762.6000;0.4990;0.7006;
762.9000;0.5022;0.7237;
763.2000;0.5022;0.7289;
763.5000;0.5014;0.7186;
763.8000;0.5047;0.7289;
764.1000;0.5039;0.7314;
764.4000;0.5006;0.7314;
764.7000;0.5031;0.7366;
765.0000;0.5031;0.7391;
765.3000;0.5022;0.7263;
765.6000;0.5022;0.7212;
765.9000;0.5006;0.7109;
766.2000;0.5031;0.7289;
766.5000;0.4982;0.7186;
766.8000;0.5006;0.7212;
767.1000;0.5014;0.7212;
767.4000;0.5022;0.7237;
767.7000;0.4998;0.7083;
768.0000;0.4998;0.7083;
768.3000;0.4949;0.6981;
768.6000;0.5014;0.7186;
768.9000;0.5006;0.7212;
769.2000;0.5014;0.7263;
769.5000;0.5006;0.7263;
769.8000;0.4990;0.7263;
770.1000;0.4974;0.7212;
770.4000;0.4957;0.7109;
770.7000;0.5006;0.7289;
771.0000;0.5006;0.7212;
771.3000;0.5031;0.7212;
771.6000;0.5022;0.7160;
771.9000;0.5014;0.7083;
772.2000;0.5063;0.7212;
772.5000;0.5014;0.7083;
772.8000;0.5006;0.6981;
773.1000;0.5014;0.7109;
773.4000;0.5006;0.7109;
773.7000;0.4949;0.6929;
774.0000;0.4990;0.7032;
774.3000;0.4998;0.7006;
774.6000;0.5022;0.7058;
774.9000;0.4998;0.7006;
775.2000;0.5031;0.7083;
775.5000;0.5014;0.6955;
775.8000;0.4965;0.6775;
776.1000;0.5047;0.7006;
776.4000;0.4998;0.6929;
776.7000;0.4998;0.6878;
777.0000;0.5006;0.7006;
777.3000;0.4990;0.7083;
777.6000;0.4949;0.6955;
777.9000;0.4998;0.7135;
778.2000;0.4990;0.7160;
778.5000;0.5006;0.7160;
778.8000;0.5031;0.7237;
779.1000;0.4990;0.7109;
779.4000;0.4982;0.7058;
779.7000;0.5006;0.7058;
780.0000;0.4998;0.7109;
780.3000;0.4990;0.7032;
780.6000;0.5006;0.7032;
780.9000;0.5014;0.7083;
781.2000;0.5006;0.7083;
781.5000;0.4990;0.7083;
781.8000;0.4990;0.7032;
782.1000;0.5014;0.7058;
782.4000;0.5006;0.7109;
782.7000;0.4998;0.7006;
783.0000;0.4998;0.7032;
783.3000;0.4998;0.7032;
783.6000;0.5006;0.7083;
783.9000;0.4990;0.7006;
784.2000;0.5006;0.6955;
784.5000;0.4998;0.7058;
784.8000;0.5031;0.7160;
785.1000;0.4982;0.7032;
785.4000;0.5006;0.7135;
785.7000;0.5014;0.7109;
786.0000;0.5006;0.6929;
786.3000;0.4974;0.6801;
786.6000;0.4965;0.6698;
786.9000;0.4982;0.6801;
787.2000;0.4998;0.6878;
787.5000;0.5088;0.7135;
787.8000;0.4982;0.6955;
788.1000;0.4974;0.6955;
788.4000;0.4957;0.6878;
788.7000;0.4974;0.6929;
789.0000;0.4957;0.6904;
789.3000;0.5055;0.7083;
789.6000;0.4990;0.6852;
789.9000;0.4982;0.6955;
790.2000;0.4974;0.6981;
790.5000;0.4990;0.7109;
790.8000;0.4957;0.6981;
791.1000;0.4982;0.7135;
791.4000;0.5006;0.7160;
791.7000;0.4974;0.7058;
792.0000;0.4974;0.7083;
792.3000;0.4990;0.7109;
792.6000;0.5006;0.7135;
792.9000;0.4957;0.7006;
793.2000;0.4998;0.7135;
793.5000;0.4990;0.7032;
793.8000;0.4990;0.7058;
794.1000;0.4949;0.6981;
794.4000;0.4957;0.7083;
794.7000;0.4982;0.7160;
795.0000;0.4974;0.7135;
795.3000;0.4965;0.7032;
795.6000;0.4957;0.7083;
795.9000;0.4982;0.7135;
796.2000;0.4982;0.7083;
796.5000;0.4974;0.6955;
796.8000;0.4957;0.6929;
797.1000;0.4965;0.6904;
797.4000;0.4974;0.6981;
797.7000;0.4957;0.7006;
798.0000;0.4965;0.7006;
798.3000;0.4957;0.6981;
798.6000;0.4957;0.6955;
798.9000;0.4974;0.6929;
799.2000;0.4982;0.6981;
799.5000;0.4941;0.6904;
799.8000;0.4974;0.7032;
800.1000;0.4957;0.7006;
800.4000;0.4957;0.7032;
800.7000;0.4957;0.7058;
801.0000;0.4974;0.7083;
801.3000;0.4957;0.7006;
801.6000;0.4957;0.6981;
801.9000;0.4949;0.6878;
802.2000;0.4965;0.6852;
802.5000;0.4982;0.6827;
802.8000;0.4949;0.6698;
803.1000;0.4965;0.6775;
803.4000;0.4957;0.6647;
803.7000;0.4957;0.6698;
804.0000;0.4974;0.6852;
804.3000;0.4974;0.6852;
804.6000;0.5022;0.7032;
804.9000;0.4982;0.6955;
805.2000;0.5006;0.6955;
805.5000;0.4965;0.6852;
805.8000;0.4965;0.6801;
806.1000;0.4957;0.6801;
806.4000;0.4982;0.6929;
806.7000;0.4892;0.6724;
807.0000;0.4965;0.6852;
807.3000;0.4957;0.6929;
807.6000;0.4965;0.6904;
807.9000;0.4982;0.6955;
808.2000;0.4957;0.6929;
808.5000;0.5031;0.7135;
808.8000;0.4965;0.6878;
809.1000;0.4957;0.6929;
809.4000;0.4974;0.7032;
809.7000;0.5039;0.7212;
810.0000;0.4965;0.7032;
810.3000;0.4965;0.6981;
810.6000;0.4965;0.7006;
810.9000;0.4965;0.6955;
811.2000;0.4965;0.6955;
811.5000;0.4965;0.6981;
811.8000;0.4965;0.6955;
812.1000;0.4965;0.6955;
812.4000;0.4990;0.7083;
812.7000;0.4974;0.7006;
813.0000;0.4965;0.6929;
813.3000;0.4974;0.6904;
813.6000;0.4982;0.6981;
813.9000;0.4957;0.6929;
814.2000;0.4974;0.6981;
814.5000;0.4957;0.6981;
814.8000;0.4957;0.6904;
815.1000;0.4965;0.6904;
815.4000;0.5006;0.7109;
815.7000;0.4949;0.6929;
816.0000;0.4957;0.6981;
816.3000;0.4965;0.6981;
816.6000;0.4990;0.6981;
816.9000;0.4957;0.6955;
817.2000;0.4965;0.7109;
817.5000;0.4965;0.7160;
817.8000;0.4957;0.7160;
818.1000;0.4941;0.7135;
818.4000;0.4957;0.7160;
818.7000;0.4941;0.7083;
819.0000;0.4957;0.7083;
819.3000;0.4957;0.7058;
819.6000;0.4974;0.7083;
819.9000;0.4949;0.7032;
820.2000;0.4974;0.7058;
820.5000;0.4949;0.6981;
820.8000;0.4933;0.6904;
821.1000;0.4965;0.7006;
821.4000;0.4949;0.6878;
821.7000;0.4965;0.6775;
822.0000;0.4957;0.6775;
822.3000;0.4965;0.6827;
822.6000;0.4974;0.6878;
822.9000;0.4965;0.6904;
823.2000;0.4949;0.6852;
823.5000;0.4900;0.6827;
823.8000;0.4949;0.6981;
824.1000;0.4990;0.7006;
824.4000;0.4941;0.6904;
824.7000;0.4965;0.6929;
825.0000;0.4957;0.6929;
825.3000;0.4949;0.6981;
825.6000;0.4941;0.6929;
825.9000;0.4941;0.6929;
826.2000;0.4990;0.7135;
826.5000;0.4949;0.7058;
826.8000;0.4957;0.7083;
827.1000;0.4965;0.7109;
827.4000;0.4933;0.7109;
827.7000;0.4941;0.7160;
828.0000;0.4957;0.7237;
828.3000;0.4941;0.7160;
828.6000;0.4949;0.7160;
828.9000;0.4957;0.7160;
829.2000;0.4957;0.7109;
829.5000;0.4965;0.7160;
829.8000;0.4941;0.7109;
830.1000;0.4957;0.7212;
830.4000;0.4949;0.7237;
830.7000;0.4908;0.7135;
831.0000;0.4941;0.7135;
831.3000;0.4949;0.7135;
831.6000;0.4957;0.7186;
831.9000;0.4949;0.7109;
832.2000;0.4908;0.6981;
832.5000;0.4868;0.6878;
832.8000;0.4949;0.7058;
833.1000;0.4957;0.7186;
833.4000;0.4965;0.7160;
833.7000;0.4941;0.7109;
834.0000;0.4957;0.7135;
834.3000;0.4957;0.7160;
834.6000;0.4933;0.7109;
834.9000;0.4933;0.7109;
835.2000;0.4941;0.7058;
835.5000;0.4957;0.7032;
835.8000;0.4957;0.6981;
836.1000;0.4925;0.7006;
836.4000;0.4974;0.7160;
836.7000;0.4957;0.7160;
837.0000;0.4917;0.7160;
837.3000;0.4933;0.7186;
837.6000;0.4941;0.7263;
837.9000;0.4949;0.7212;
838.2000;0.4933;0.7186;
838.5000;0.4933;0.7135;
838.8000;0.4933;0.7109;
839.1000;0.5039;0.7366;
839.4000;0.4965;0.7135;
839.7000;0.4949;0.7212;
840.0000;0.4925;0.7212;
840.3000;0.4933;0.7186;
840.6000;0.4941;0.7186;
840.9000;0.4925;0.7212;
841.2000;0.4941;0.7366;
841.5000;0.4941;0.7391;
841.8000;0.4941;0.7366;
842.1000;0.4933;0.7314;
842.4000;0.4941;0.7289;
842.7000;0.4933;0.7237;
843.0000;0.4949;0.7212;
843.3000;0.4957;0.7212;
843.6000;0.4949;0.7237;
843.9000;0.4933;0.7340;
844.2000;0.4949;0.7340;
844.5000;0.4933;0.7160;
844.8000;0.4949;0.7135;
845.1000;0.4933;0.7032;
845.4000;0.4949;0.6955;
845.7000;0.4941;0.6955;
846.0000;0.4949;0.6955;
846.3000;0.4933;0.6827;
846.6000;0.4908;0.6775;
846.9000;0.4941;0.6929;
847.2000;0.4933;0.6955;
847.5000;0.4965;0.7058;
847.8000;0.4925;0.6981;
848.1000;0.4949;0.7135;
848.4000;0.4917;0.7058;
848.7000;0.4925;0.7032;
849.0000;0.4925;0.7058;
849.3000;0.4892;0.7006;
849.6000;0.4917;0.7083;
849.9000;0.4925;0.7083;
850.2000;0.4933;0.7160;
850.5000;0.4965;0.7237;
850.8000;0.4925;0.7083;
851.1000;0.4941;0.7109;
851.4000;0.4917;0.7135;
851.7000;0.4925;0.7263;
852.0000;0.4908;0.7160;
852.3000;0.4933;0.7109;
852.6000;0.4917;0.7006;
852.9000;0.4917;0.7006;
853.2000;0.4900;0.6904;
853.5000;0.4933;0.6929;
853.8000;0.4933;0.6981;
854.1000;0.4925;0.6878;
854.4000;0.4925;0.6827;
854.7000;0.4884;0.6775;
855.0000;0.4917;0.6827;
855.3000;0.4949;0.6904;
855.6000;0.4917;0.6827;
855.9000;0.4949;0.6878;
856.2000;0.4925;0.6981;
856.5000;0.4933;0.6955;
856.8000;0.4941;0.7006;
857.1000;0.4917;0.7006;
857.4000;0.4860;0.6852;
857.7000;0.4925;0.7032;
858.0000;0.4925;0.7006;
858.3000;0.4933;0.7083;
858.6000;0.4925;0.6929;
858.9000;0.4925;0.6878;
859.2000;0.4925;0.6852;
859.5000;0.4908;0.6827;
859.8000;0.4925;0.6955;
860.1000;0.4933;0.6904;
860.4000;0.4941;0.6878;
860.7000;0.4917;0.6827;
861.0000;0.4925;0.6929;
861.3000;0.4900;0.6878;
861.6000;0.4941;0.6852;
861.9000;0.4933;0.6801;
862.2000;0.4917;0.6827;
862.5000;0.4941;0.7006;
862.8000;0.4933;0.6929;
863.1000;0.4925;0.6904;
863.4000;0.4917;0.6904;
863.7000;0.4933;0.6929;
864.0000;0.4925;0.6929;
864.3000;0.4908;0.6981;
864.6000;0.4908;0.7006;
864.9000;0.4933;0.6929;
865.2000;0.4917;0.6904;
865.5000;0.4908;0.6929;
865.8000;0.4917;0.7006;
866.1000;0.5006;0.7314;
866.4000;0.4868;0.6929;
866.7000;0.4933;0.7083;
867.0000;0.4868;0.7006;
867.3000;0.4917;0.7058;
867.6000;0.4917;0.7006;
867.9000;0.4933;0.7032;
868.2000;0.4941;0.6955;
868.5000;0.4900;0.6878;
868.8000;0.4933;0.7006;
869.1000;0.4925;0.7083;
869.4000;0.4917;0.7135;
869.7000;0.4933;0.7212;
870.0000;0.4925;0.7212;
870.3000;0.4925;0.7109;
870.6000;0.4908;0.7083;
870.9000;0.4900;0.7135;
871.2000;0.4949;0.7340;
871.5000;0.4908;0.7263;
871.8000;0.4884;0.7212;
872.1000;0.4982;0.7443;
872.4000;0.4917;0.7237;
872.7000;0.4868;0.7058;
873.0000;0.4908;0.7109;
873.3000;0.4982;0.7237;
873.6000;0.4925;0.6955;
873.9000;0.4925;0.6981;
874.2000;0.4925;0.7058;
874.5000;0.4908;0.7006;
874.8000;0.4917;0.7032;
875.1000;0.4917;0.7032;
875.4000;0.4949;0.7109;
875.7000;0.4917;0.7109;
876.0000;0.4908;0.7058;
876.3000;0.4908;0.7058;
876.6000;0.4925;0.7083;
876.9000;0.4917;0.7135;
877.2000;0.4908;0.7135;
877.5000;0.4908;0.7109;
877.8000;0.4917;0.7109;
878.1000;0.4892;0.7058;
878.4000;0.4965;0.7289;
878.7000;0.4892;0.7160;
879.0000;0.4925;0.7109;
879.3000;0.4933;0.7135;
879.6000;0.4908;0.7109;
879.9000;0.4917;0.7160;
880.2000;0.4925;0.7186;
880.5000;0.4892;0.7109;
880.8000;0.4835;0.7083;
881.1000;0.4892;0.7289;
881.4000;0.4933;0.7366;
881.7000;0.4974;0.7340;
882.0000;0.4908;0.7186;
882.3000;0.4900;0.7058;
882.6000;0.4933;0.7212;
882.9000;0.4933;0.7212;
883.2000;0.4900;0.7237;
883.5000;0.4908;0.7237;
883.8000;0.4925;0.7237;
884.1000;0.4908;0.7289;
884.4000;0.4925;0.7289;
884.7000;0.4917;0.7237;
885.0000;0.4908;0.7289;
885.3000;0.4900;0.7340;
885.6000;0.4941;0.7366;
885.9000;0.4917;0.7237;
886.2000;0.4900;0.7109;
886.5000;0.4900;0.6981;
886.8000;0.4892;0.7006;
887.1000;0.4884;0.7006;
887.4000;0.4908;0.7032;
887.7000;0.4908;0.7083;
888.0000;0.4917;0.7160;
888.3000;0.4908;0.7083;
888.6000;0.4990;0.7314;
888.9000;0.4925;0.7109;
889.2000;0.4917;0.7109;
889.5000;0.4892;0.7032;
889.8000;0.4908;0.7083;
890.1000;0.4941;0.7109;
890.4000;0.4917;0.7160;
890.7000;0.4900;0.7083;
891.0000;0.4884;0.6981;
891.3000;0.4925;0.7058;
891.6000;0.4925;0.7006;
891.9000;0.4892;0.6929;
892.2000;0.4868;0.6929;
892.5000;0.4908;0.7083;
892.8000;0.4917;0.7109;
893.1000;0.4900;0.7058;
893.4000;0.4892;0.7058;
893.7000;0.4900;0.7109;
894.0000;0.4908;0.7109;
894.3000;0.4917;0.7032;
894.6000;0.4908;0.6981;
894.9000;0.4900;0.6955;
895.2000;0.4933;0.7083;
895.5000;0.4908;0.7006;
895.8000;0.4811;0.6673;
896.1000;0.4811;0.6775;
896.4000;0.4908;0.7058;
896.7000;0.4884;0.7032;
897.0000;0.4868;0.6904;
897.3000;0.4908;0.6955;
897.6000;0.4876;0.6852;
897.9000;0.4900;0.6981;
898.2000;0.4892;0.7032;
898.5000;0.4860;0.7032;
898.8000;0.4900;0.7083;
899.1000;0.4892;0.7058;
899.4000;0.4884;0.7083;
899.7000;0.4892;0.7032;
900.0000;0.4900;0.7032;
900.3000;0.4941;0.7032;
900.6000;0.4884;0.6852;
900.9000;0.4925;0.6929;
901.2000;0.4900;0.6878;
901.5000;0.4900;0.7006;
901.8000;0.4876;0.6981;
902.1000;0.4908;0.7006;
902.4000;0.4925;0.6981;
902.7000;0.4900;0.6929;
903.0000;0.4917;0.6929;
903.3000;0.4917;0.6852;
903.6000;0.4900;0.6852;
903.9000;0.4900;0.6929;
904.2000;0.4941;0.7083;
904.5000;0.4884;0.7032;
904.8000;0.4917;0.7058;
905.1000;0.4908;0.7058;
905.4000;0.4884;0.7058;
905.7000;0.4892;0.7032;
906.0000;0.4900;0.7006;
906.3000;0.4892;0.7032;
906.6000;0.4974;0.7263;
906.9000;0.4925;0.7135;
907.2000;0.4900;0.7083;
907.5000;0.4884;0.6981;
907.8000;0.4900;0.7006;
908.1000;0.4892;0.7006;
908.4000;0.4892;0.7109;
908.7000;0.4908;0.7058;
909.0000;0.4900;0.6981;
909.3000;0.4900;0.7032;
909.6000;0.4908;0.7058;
909.9000;0.4908;0.6981;
910.2000;0.4949;0.7058;
910.5000;0.4917;0.7006;
910.8000;0.4925;0.7032;
911.1000;0.4900;0.6955;
911.4000;0.4900;0.7006;
911.7000;0.4908;0.6929;
912.0000;0.4908;0.6981;
912.3000;0.4908;0.7032;
912.6000;0.4917;0.7032;
912.9000;0.4892;0.7058;
913.2000;0.4900;0.7083;
913.5000;0.4900;0.7032;
913.8000;0.4884;0.7032;
914.1000;0.4900;0.7006;
914.4000;0.4900;0.7006;
914.7000;0.4908;0.6955;
915.0000;0.4908;0.6929;
915.3000;0.4908;0.7083;
915.6000;0.4917;0.7032;
915.9000;0.4917;0.6981;
916.2000;0.4908;0.6929;
916.5000;0.4900;0.6904;
916.8000;0.4908;0.6852;
917.1000;0.4949;0.6904;
917.4000;0.4900;0.6852;
917.7000;0.4957;0.7083;
918.0000;0.4876;0.6878;
918.3000;0.4900;0.6852;
918.6000;0.4908;0.6852;
918.9000;0.4908;0.6827;
919.2000;0.4884;0.6852;
919.5000;0.4892;0.6775;
919.8000;0.4884;0.6775;
920.1000;0.4917;0.6878;
920.4000;0.4900;0.6904;
920.7000;0.4917;0.6981;
921.0000;0.4957;0.7160;
921.3000;0.4900;0.7109;
921.6000;0.4884;0.6929;
921.9000;0.4892;0.6852;
922.2000;0.4892;0.6929;
922.5000;0.4908;0.6929;
922.8000;0.4900;0.6878;
923.1000;0.4900;0.6852;
923.4000;0.4908;0.6878;
923.7000;0.4884;0.6852;
924.0000;0.4892;0.6904;
924.3000;0.4925;0.6981;
924.6000;0.4933;0.6981;
924.9000;0.4900;0.6878;
925.2000;0.4900;0.6852;
925.5000;0.4925;0.6827;
925.8000;0.4908;0.6852;
926.1000;0.4908;0.6929;
926.4000;0.4908;0.6929;
926.7000;0.4933;0.6981;
927.0000;0.4892;0.6929;
927.3000;0.4868;0.6801;
927.6000;0.4843;0.6801;
927.9000;0.4908;0.7006;
928.2000;0.4884;0.7006;
928.5000;0.4843;0.6852;
928.8000;0.4892;0.7006;
929.1000;0.4917;0.7006;
929.4000;0.4884;0.6904;
929.7000;0.4908;0.6878;
930.0000;0.4892;0.6750;
930.3000;0.4908;0.6801;
930.6000;0.4900;0.6801;
930.9000;0.4900;0.6801;
931.2000;0.4917;0.6801;
931.5000;0.4884;0.6750;
931.8000;0.4900;0.6801;
932.1000;0.4860;0.6647;
932.4000;0.4925;0.6878;
932.7000;0.4892;0.6801;
933.0000;0.4892;0.6724;
933.3000;0.4884;0.6647;
933.6000;0.4908;0.6750;
933.9000;0.4892;0.6724;
934.2000;0.4917;0.6775;
934.5000;0.4900;0.6775;
934.8000;0.4900;0.6801;
935.1000;0.4917;0.6981;
935.4000;0.4884;0.6904;
935.7000;0.4892;0.6981;
936.0000;0.4892;0.6955;
936.3000;0.4900;0.6929;
936.6000;0.4957;0.7058;
936.9000;0.4868;0.6724;
937.2000;0.4876;0.6929;
937.5000;0.4917;0.7058;
937.8000;0.4876;0.6929;
938.1000;0.4892;0.6955;
938.4000;0.4876;0.6955;
938.7000;0.4868;0.6904;
939.0000;0.4892;0.7006;
939.3000;0.4876;0.6929;
939.6000;0.4884;0.6981;
939.9000;0.4982;0.7237;
940.2000;0.4884;0.6981;
940.5000;0.4900;0.7032;
940.8000;0.4876;0.7032;
941.1000;0.4884;0.7135;
941.4000;0.4892;0.7109;
941.7000;0.4892;0.7032;
942.0000;0.4884;0.7083;
942.3000;0.4876;0.7058;
942.6000;0.4876;0.7160;
942.9000;0.4892;0.7109;
943.2000;0.4884;0.7006;
943.5000;0.4884;0.7032;
943.8000;0.4900;0.7135;
944.1000;0.4884;0.7135;
944.4000;0.4900;0.7160;
944.7000;0.4884;0.7032;
945.0000;0.4876;0.6929;
945.3000;0.4884;0.7006;
945.6000;0.4884;0.6904;
945.9000;0.4892;0.6981;
946.2000;0.4908;0.7083;
946.5000;0.4868;0.6955;
946.8000;0.4892;0.7032;
947.1000;0.4876;0.6981;
947.4000;0.4876;0.6929;
947.7000;0.4892;0.6929;
948.0000;0.4900;0.7006;
948.3000;0.4908;0.7109;
948.6000;0.4900;0.7083;
948.9000;0.4908;0.7083;
949.2000;0.4843;0.6801;
949.5000;0.4908;0.6878;
949.8000;0.4884;0.6801;
950.1000;0.4900;0.6878;
950.4000;0.4892;0.6801;
950.7000;0.4892;0.6775;
951.0000;0.4868;0.6775;
951.3000;0.4851;0.6775;
951.6000;0.4900;0.6904;
951.9000;0.4868;0.6852;
952.2000;0.4900;0.6827;
952.5000;0.4876;0.6852;
952.8000;0.4892;0.6955;
953.1000;0.4884;0.7032;
953.4000;0.4925;0.7186;
953.7000;0.4876;0.7058;
954.0000;0.4884;0.7058;
954.3000;0.4892;0.7058;
954.6000;0.4892;0.7083;
954.9000;0.4876;0.7032;
955.2000;0.4868;0.7032;
955.5000;0.4917;0.7160;
955.8000;0.4892;0.7083;
956.1000;0.4884;0.7083;
956.4000;0.4949;0.7263;
956.7000;0.4900;0.7083;
957.0000;0.4876;0.7032;
957.3000;0.4876;0.6981;
957.6000;0.4884;0.6955;
957.9000;0.4900;0.6981;
958.2000;0.4876;0.6955;
958.5000;0.4884;0.6981;
958.8000;0.4868;0.6904;
959.1000;0.4917;0.6955;
959.4000;0.4892;0.6929;
959.7000;0.4892;0.6955;
960.0000;0.4892;0.7006;
960.3000;0.4876;0.6929;
960.6000;0.4860;0.6904;
960.9000;0.4860;0.6904;
961.2000;0.4957;0.7109;
961.5000;0.4908;0.7032;
961.8000;0.4876;0.7006;
962.1000;0.4884;0.7006;
962.4000;0.4835;0.6827;
962.7000;0.4892;0.6904;
963.0000;0.4900;0.6827;
963.3000;0.4876;0.6750;
963.6000;0.4900;0.6673;
963.9000;0.4900;0.6673;
964.2000;0.4803;0.6365;
964.5000;0.4876;0.6621;
964.8000;0.4892;0.6801;
965.1000;0.4892;0.6878;
965.4000;0.4892;0.6929;
965.7000;0.4876;0.6827;
966.0000;0.4900;0.6955;
966.3000;0.4884;0.6929;
966.6000;0.4876;0.6904;
966.9000;0.4884;0.6929;
967.2000;0.4965;0.7186;
967.5000;0.4933;0.7032;
967.8000;0.4925;0.7058;
968.1000;0.4868;0.6929;
968.4000;0.4892;0.6981;
968.7000;0.4884;0.6904;
969.0000;0.4884;0.6929;
969.3000;0.4868;0.6904;
969.6000;0.4900;0.7032;
969.9000;0.4900;0.7058;
970.2000;0.4860;0.6955;
970.5000;0.4900;0.7006;
970.8000;0.4900;0.6904;
971.1000;0.4892;0.6981;
971.4000;0.4868;0.6852;
971.7000;0.4900;0.7058;
972.0000;0.4908;0.7032;
972.3000;0.4892;0.7083;
972.6000;0.4884;0.7032;
972.9000;0.4876;0.7006;
973.2000;0.4892;0.7058;
973.5000;0.4900;0.7135;
973.8000;0.4860;0.7032;
974.1000;0.4876;0.7083;
974.4000;0.4892;0.7058;
974.7000;0.4900;0.7160;
975.0000;0.4860;0.7083;
975.3000;0.4860;0.7083;
975.6000;0.4876;0.7160;
975.9000;0.4892;0.7186;
976.2000;0.4884;0.7135;
976.5000;0.4860;0.7006;
976.8000;0.4860;0.7006;
977.1000;0.4827;0.6904;
977.4000;0.4868;0.7032;
977.7000;0.4884;0.7109;
978.0000;0.4868;0.7006;
978.3000;0.4892;0.7083;
978.6000;0.4876;0.6929;
978.9000;0.4876;0.6878;
979.2000;0.4892;0.6904;
979.5000;0.4884;0.6929;
979.8000;0.4892;0.6981;
980.1000;0.4892;0.7032;
980.4000;0.4884;0.6852;
980.7000;0.4892;0.6827;
981.0000;0.4892;0.6775;
981.3000;0.4876;0.6698;
981.6000;0.4941;0.6878;
981.9000;0.4876;0.6724;
982.2000;0.4811;0.6570;
982.5000;0.4851;0.6647;
982.8000;0.4892;0.6827;
983.1000;0.4876;0.6852;
983.4000;0.4892;0.6878;
983.7000;0.4884;0.6827;
984.0000;0.4892;0.6852;
984.3000;0.4876;0.6904;
984.6000;0.4892;0.6955;
984.9000;0.4868;0.6852;
985.2000;0.4900;0.6827;
985.5000;0.4884;0.6750;
985.8000;0.4892;0.6775;
986.1000;0.4900;0.6852;
986.4000;0.4876;0.6750;
986.7000;0.4900;0.6904;
987.0000;0.4892;0.6904;
987.3000;0.4884;0.6904;
987.6000;0.4917;0.7032;
987.9000;0.4876;0.6904;
988.2000;0.4917;0.6981;
988.5000;0.4892;0.6929;
988.8000;0.4876;0.6852;
989.1000;0.4827;0.6647;
989.4000;0.4892;0.6904;
989.7000;0.4876;0.6878;
990.0000;0.4884;0.6878;
990.3000;0.4884;0.6878;
990.6000;0.4884;0.6929;
990.9000;0.4900;0.6904;
991.2000;0.4917;0.6929;
991.5000;0.4892;0.6904;
991.8000;0.4876;0.6955;
992.1000;0.4819;0.6724;
992.4000;0.4860;0.6852;
992.7000;0.4884;0.6775;
993.0000;0.4884;0.6801;
993.3000;0.4876;0.6775;
993.6000;0.4868;0.6750;
993.9000;0.4892;0.6724;
994.2000;0.4884;0.6750;
994.5000;0.4876;0.6750;
994.8000;0.4892;0.6827;
995.1000;0.4884;0.6852;
995.4000;0.4941;0.6955;
995.7000;0.4933;0.7006;
996.0000;0.4900;0.6904;
996.3000;0.4933;0.6981;
996.6000;0.4851;0.6750;
996.9000;0.4884;0.6827;
997.2000;0.4884;0.6852;
997.5000;0.4900;0.6904;
997.8000;0.4876;0.6852;
998.1000;0.4884;0.6852;
998.4000;0.4876;0.6878;
998.7000;0.4876;0.6878;
999.0000;0.4876;0.6878;
999.3000;0.4876;0.6904;
999.6000;0.4884;0.6929;
999.9000;0.4876;0.6904;
1000.2000;0.4851;0.6929;
1000.5000;0.4900;0.7109;
1000.8000;0.4876;0.6981;
1001.1000;0.4868;0.7032;
1001.4000;0.4876;0.7032;
1001.7000;0.4884;0.7186;
1002.0000;0.4868;0.7160;
1002.3000;0.4860;0.7135;
1002.6000;0.4884;0.7186;
1002.9000;0.4884;0.7160;
1003.2000;0.4908;0.7263;
1003.5000;0.4860;0.7135;
1003.8000;0.4876;0.7109;
1004.1000;0.4876;0.7135;
1004.4000;0.4819;0.7006;
1004.7000;0.4876;0.7186;
1005.0000;0.4876;0.7212;
1005.3000;0.4884;0.7160;
1005.6000;0.4860;0.7083;
1005.9000;0.4884;0.7186;
1006.2000;0.4860;0.7212;
1006.5000;0.4884;0.7263;
1006.8000;0.4868;0.7135;
1007.1000;0.4876;0.7058;
1007.4000;0.4900;0.7109;
1007.7000;0.4868;0.7083;
1008.0000;0.4884;0.7032;
1008.3000;0.4884;0.6981;
1008.6000;0.4876;0.6981;
1008.9000;0.4884;0.7032;
1009.2000;0.4868;0.7032;
1009.5000;0.4876;0.7032;
1009.8000;0.4868;0.7006;
1010.1000;0.4860;0.6904;
1010.4000;0.4868;0.6904;
1010.7000;0.4876;0.6904;
1011.0000;0.4868;0.7006;
1011.3000;0.4892;0.7109;
1011.6000;0.4941;0.7263;
1011.9000;0.4884;0.7237;
1012.2000;0.4868;0.7263;
1012.5000;0.4876;0.7263;
1012.8000;0.4860;0.7135;
1013.1000;0.4908;0.7212;
1013.4000;0.4876;0.7212;
1013.7000;0.4908;0.7212;
1014.0000;0.4876;0.7109;
1014.3000;0.4860;0.7058;
1014.6000;0.4851;0.7032;
1014.9000;0.4868;0.7058;
1015.2000;0.4868;0.7135;
1015.5000;0.4868;0.7135;
1015.8000;0.4876;0.7160;
1016.1000;0.4868;0.7212;
1016.4000;0.4876;0.7160;
1016.7000;0.4900;0.7263;
1017.0000;0.4917;0.7340;
1017.3000;0.4925;0.7366;
1017.6000;0.4835;0.7109;
1017.9000;0.4876;0.7186;
1018.2000;0.4892;0.7263;
1018.5000;0.4860;0.7186;
1018.8000;0.4884;0.7160;
1019.1000;0.4892;0.7237;
1019.4000;0.4860;0.7263;
1019.7000;0.4917;0.7366;
1020.0000;0.4876;0.7160;
1020.3000;0.4876;0.7135;
1020.6000;0.4860;0.7083;
1020.9000;0.4876;0.7237;
1021.2000;0.4884;0.7289;
1021.5000;0.4892;0.7340;
1021.8000;0.4876;0.7314;
1022.1000;0.4884;0.7263;
1022.4000;0.4876;0.7289;
1022.7000;0.4868;0.7212;
1023.0000;0.4876;0.7237;
1023.3000;0.4876;0.7263;
1023.6000;0.4876;0.7340;
1023.9000;0.4876;0.7340;
1024.2000;0.4851;0.7212;
1024.5000;0.4851;0.7314;
1024.8000;0.4868;0.7289;
1025.1000;0.4868;0.7289;
1025.4000;0.4860;0.7237;
1025.7000;0.4868;0.7160;
1026.0000;0.4860;0.7109;
1026.3000;0.4860;0.7109;
1026.6000;0.4868;0.7135;
1026.9000;0.4876;0.7135;
1027.2000;0.4860;0.7058;
1027.5000;0.4868;0.6981;
1027.8000;0.4876;0.7032;
1028.1000;0.4868;0.7058;
1028.4000;0.4868;0.7109;
1028.7000;0.4876;0.7135;
1029.0000;0.4884;0.7058;
1029.3000;0.4892;0.7109;
1029.6000;0.4965;0.7443;
1029.9000;0.4851;0.7135;
1030.2000;0.4851;0.7109;
1030.5000;0.4835;0.7083;
1030.8000;0.4876;0.7160;
1031.1000;0.4876;0.7186;
1031.4000;0.4876;0.7186;
1031.7000;0.4876;0.7340;
1032.0000;0.4892;0.7289;
1032.3000;0.4917;0.7289;
1032.6000;0.4884;0.7212;
1032.9000;0.4860;0.7237;
1033.2000;0.4876;0.7366;
1033.5000;0.4868;0.7289;
1033.8000;0.4811;0.7032;
1034.1000;0.4884;0.7237;
1034.4000;0.4876;0.7289;
1034.7000;0.4843;0.7186;
1035.0000;0.4876;0.7237;
1035.3000;0.4876;0.7212;
1035.6000;0.4868;0.7109;
1035.9000;0.4835;0.7006;
1036.2000;0.4925;0.7212;
1036.5000;0.4860;0.7160;
1036.8000;0.4811;0.7083;
1037.1000;0.4868;0.7237;
1037.4000;0.4851;0.7135;
1037.7000;0.4917;0.7340;
1038.0000;0.4851;0.7186;
1038.3000;0.4868;0.7314;
1038.6000;0.4908;0.7366;
1038.9000;0.4884;0.7186;
1039.2000;0.4876;0.7212;
1039.5000;0.4876;0.7289;
1039.8000;0.4876;0.7391;
1040.1000;0.4876;0.7391;
1040.4000;0.4843;0.7237;
1040.7000;0.4860;0.7237;
1041.0000;0.4876;0.7237;
1041.3000;0.4941;0.7468;
1041.6000;0.4860;0.7289;
1041.9000;0.4868;0.7417;
1042.2000;0.4884;0.7366;
1042.5000;0.4884;0.7340;
1042.8000;0.4876;0.7366;
1043.1000;0.4884;0.7340;
1043.4000;0.4786;0.7109;
1043.7000;0.4884;0.7340;
1044.0000;0.4892;0.7340;
1044.3000;0.4843;0.7263;
1044.6000;0.4851;0.7263;
1044.9000;0.4860;0.7212;
1045.2000;0.4843;0.7160;
1045.5000;0.4860;0.7263;
1045.8000;0.4876;0.7340;
1046.1000;0.4860;0.7314;
1046.4000;0.4957;0.7520;
1046.7000;0.4876;0.7212;
1047.0000;0.4884;0.7366;
1047.3000;0.4892;0.7289;
1047.6000;0.4876;0.7135;
1047.9000;0.4860;0.7058;
1048.2000;0.4884;0.7109;
1048.5000;0.4876;0.7109;
1048.8000;0.4868;0.7058;
1049.1000;0.4876;0.6981;
1049.4000;0.4843;0.6904;
1049.7000;0.4860;0.6852;
1050.0000;0.4876;0.6929;
1050.3000;0.4843;0.6904;
1050.6000;0.4851;0.6929;
1050.9000;0.4876;0.6929;
1051.2000;0.4876;0.7006;
1051.5000;0.4851;0.7032;
1051.8000;0.4843;0.7006;
1052.1000;0.4868;0.7083;
1052.4000;0.4868;0.7109;
1052.7000;0.4860;0.7006;
1053.0000;0.4868;0.6981;
1053.3000;0.4876;0.7083;
1053.6000;0.4868;0.7109;
1053.9000;0.4876;0.7212;
1054.2000;0.4868;0.7212;
1054.5000;0.4786;0.6955;
1054.8000;0.4868;0.7109;
1055.1000;0.4860;0.7058;
1055.4000;0.4876;0.7160;
1055.7000;0.4851;0.7006;
1056.0000;0.4868;0.7032;
1056.3000;0.4851;0.7032;
1056.6000;0.4851;0.6981;
1056.9000;0.4827;0.6929;
1057.2000;0.4860;0.7058;
1057.5000;0.4868;0.7032;
1057.8000;0.4917;0.7186;
1058.1000;0.4843;0.6955;
1058.4000;0.4876;0.7058;
1058.7000;0.4876;0.7135;
1059.0000;0.4851;0.7058;
1059.3000;0.4868;0.7058;
1059.6000;0.4851;0.6981;
1059.9000;0.4868;0.7032;
1060.2000;0.4868;0.6955;
1060.5000;0.4851;0.6904;
1060.8000;0.4876;0.6904;
1061.1000;0.4884;0.6929;
1061.4000;0.4892;0.6981;
1061.7000;0.4851;0.6929;
1062.0000;0.4884;0.6981;
1062.3000;0.4876;0.6904;
1062.6000;0.4876;0.6852;
1062.9000;0.4892;0.6929;
1063.2000;0.4884;0.6981;
1063.5000;0.4851;0.6852;
1063.8000;0.4884;0.6878;
1064.1000;0.4884;0.6929;
1064.4000;0.4851;0.6904;
1064.7000;0.4860;0.6929;
1065.0000;0.4876;0.6955;
1065.3000;0.4860;0.6904;
1065.6000;0.4851;0.6955;
1065.9000;0.4827;0.6955;
1066.2000;0.4860;0.7058;
1066.5000;0.4884;0.7160;
1066.8000;0.4868;0.7135;
1067.1000;0.4851;0.7160;
1067.4000;0.4884;0.7135;
1067.7000;0.4876;0.7058;
1068.0000;0.4868;0.7032;
1068.3000;0.4860;0.7032;
1068.6000;0.4868;0.7058;
1068.9000;0.4868;0.7083;
1069.2000;0.4851;0.7083;
1069.5000;0.4949;0.7237;
1069.8000;0.4860;0.7032;
1070.1000;0.4851;0.6981;
1070.4000;0.4892;0.6955;
1070.7000;0.4851;0.6955;
1071.0000;0.4843;0.7032;
1071.3000;0.4876;0.7135;
1071.6000;0.4860;0.7237;
1071.9000;0.4860;0.7289;
1072.2000;0.4843;0.7135;
1072.5000;0.4876;0.7109;
1072.8000;0.4868;0.7058;
1073.1000;0.4868;0.7058;
1073.4000;0.4876;0.7032;
1073.7000;0.4876;0.7058;
1074.0000;0.4868;0.7058;
1074.3000;0.4884;0.7135;
1074.6000;0.4876;0.7160;
1074.9000;0.4868;0.7032;
1075.2000;0.4876;0.7135;
1075.5000;0.4786;0.6852;
1075.8000;0.4884;0.7160;
1076.1000;0.4868;0.7032;
1076.4000;0.4917;0.7160;
1076.7000;0.4876;0.7032;
1077.0000;0.4900;0.7058;
1077.3000;0.4876;0.7006;
1077.6000;0.4884;0.6955;
1077.9000;0.4892;0.6929;
1078.2000;0.4884;0.6981;
1078.5000;0.4884;0.7006;
1078.8000;0.4892;0.7083;
1079.1000;0.4884;0.7083;
1079.4000;0.4860;0.7058;
1079.7000;0.4868;0.7135;
1080.0000;0.4925;0.7417;
1080.3000;0.4843;0.7186;
1080.6000;0.4851;0.7212;
1080.9000;0.4843;0.7160;
1081.2000;0.4835;0.7058;
1081.5000;0.4876;0.7109;
1081.8000;0.4868;0.7160;
1082.1000;0.4925;0.7340;
1082.4000;0.4835;0.7083;
1082.7000;0.4876;0.7237;
1083.0000;0.4868;0.7212;
1083.3000;0.4803;0.6981;
1083.6000;0.4851;0.7083;
1083.9000;0.4851;0.7032;
1084.2000;0.4884;0.7083;
1084.5000;0.4876;0.7083;
1084.8000;0.4860;0.7058;
1085.1000;0.4860;0.7058;
1085.4000;0.4843;0.7109;
1085.7000;0.4868;0.7109;
1086.0000;0.4835;0.7032;
1086.3000;0.4851;0.7160;
1086.6000;0.4876;0.7083;
1086.9000;0.4876;0.7058;
1087.2000;0.4860;0.7135;
1087.5000;0.4884;0.7314;
1087.8000;0.4868;0.7314;
1088.1000;0.4876;0.7289;
1088.4000;0.4876;0.7212;
1088.7000;0.4868;0.7186;
1089.0000;0.4860;0.7186;
1089.3000;0.4876;0.7109;
1089.6000;0.4884;0.7083;
1089.9000;0.4868;0.7083;
1090.2000;0.4868;0.7135;
1090.5000;0.4860;0.7109;
1090.8000;0.4868;0.7006;
1091.1000;0.4884;0.7058;
1091.4000;0.4851;0.7058;
1091.7000;0.4876;0.7083;
1092.0000;0.4868;0.7160;
1092.3000;0.4941;0.7289;
1092.6000;0.4860;0.7058;
1092.9000;0.4876;0.7160;
1093.2000;0.4876;0.7109;
1093.5000;0.4860;0.7109;
1093.8000;0.4860;0.7006;
1094.1000;0.4868;0.7006;
1094.4000;0.4843;0.7032;
1094.7000;0.4868;0.7160;
1095.0000;0.4884;0.7135;
1095.3000;0.4860;0.7160;
1095.6000;0.4851;0.7083;
1095.9000;0.4860;0.6981;
1096.2000;0.4868;0.6981;
1096.5000;0.4851;0.7058;
1096.8000;0.4868;0.7083;
1097.1000;0.4843;0.7006;
1097.4000;0.4860;0.7032;
1097.7000;0.4868;0.7109;
1098.0000;0.4876;0.7083;
1098.3000;0.4876;0.7160;
1098.6000;0.4876;0.7237;
1098.9000;0.4868;0.7135;
1099.2000;0.4835;0.7006;
1099.5000;0.4851;0.7032;
1099.8000;0.4884;0.7083;
1100.1000;0.4868;0.7032;
1100.4000;0.4876;0.7006;
1100.7000;0.4876;0.7160;
1101.0000;0.4851;0.7135;
1101.3000;0.4876;0.7109;
1101.6000;0.4876;0.7083;
1101.9000;0.4884;0.7135;
1102.2000;0.4786;0.6878;
1102.5000;0.4868;0.7160;
1102.8000;0.4884;0.7109;
1103.1000;0.4851;0.7135;
1103.4000;0.4892;0.7391;
1103.7000;0.4876;0.7314;
1104.0000;0.4860;0.7340;
1104.3000;0.4876;0.7366;
1104.6000;0.4860;0.7237;
1104.9000;0.4843;0.7160;
1105.2000;0.4811;0.7083;
1105.5000;0.4851;0.7160;
1105.8000;0.4851;0.7083;
1106.1000;0.4868;0.7109;
1106.4000;0.4851;0.6981;
1106.7000;0.4860;0.6981;
1107.0000;0.4868;0.7032;
1107.3000;0.4884;0.7135;
1107.6000;0.4794;0.6878;
1107.9000;0.4860;0.7135;
1108.2000;0.4851;0.7109;
1108.5000;0.4868;0.7135;
1108.8000;0.4876;0.7186;
1109.1000;0.4851;0.7160;
1109.4000;0.4876;0.7186;
1109.7000;0.4868;0.7186;
1110.0000;0.4811;0.7083;
1110.3000;0.4908;0.7289;
1110.6000;0.4843;0.6981;
1110.9000;0.4868;0.7006;
1111.2000;0.4868;0.7083;
1111.5000;0.4811;0.6904;
1111.8000;0.4860;0.7058;
1112.1000;0.4851;0.6955;
1112.4000;0.4794;0.6724;
1112.7000;0.4868;0.6955;
1113.0000;0.4843;0.6852;
1113.3000;0.4876;0.6904;
1113.6000;0.4868;0.6955;
1113.9000;0.4876;0.6878;
1114.2000;0.4868;0.6929;
1114.5000;0.4860;0.6904;
1114.8000;0.4876;0.6929;
1115.1000;0.4860;0.6878;
1115.4000;0.4868;0.6878;
1115.7000;0.4860;0.6827;
1116.0000;0.4868;0.6852;
1116.3000;0.4851;0.6904;
1116.6000;0.4851;0.6827;
1116.9000;0.4851;0.6827;
1117.2000;0.4851;0.6904;
1117.5000;0.4851;0.7058;
1117.8000;0.4851;0.7032;
1118.1000;0.4835;0.7006;
1118.4000;0.4860;0.7006;
1118.7000;0.4868;0.7006;
1119.0000;0.4851;0.6955;
1119.3000;0.4860;0.7058;
1119.6000;0.4851;0.7032;
1119.9000;0.4851;0.7058;
1120.2000;0.4868;0.7083;
1120.5000;0.4868;0.7083;
1120.8000;0.4860;0.7083;
1121.1000;0.4811;0.6929;
1121.4000;0.4851;0.7083;
1121.7000;0.4851;0.7109;
1122.0000;0.4860;0.7109;
1122.3000;0.4860;0.7032;
1122.6000;0.4876;0.7058;
1122.9000;0.4851;0.6904;
1123.2000;0.4851;0.6878;
1123.5000;0.4876;0.6878;
1123.8000;0.4884;0.6955;
1124.1000;0.4876;0.6904;
1124.4000;0.4860;0.6852;
1124.7000;0.4884;0.6904;
1125.0000;0.4868;0.6878;
1125.3000;0.4868;0.6904;
1125.6000;0.4884;0.6955;
1125.9000;0.4876;0.6878;
1126.2000;0.4876;0.6904;
1126.5000;0.4868;0.6955;
1126.8000;0.4803;0.6904;
1127.1000;0.4876;0.7032;
1127.4000;0.4860;0.7058;
1127.7000;0.4868;0.7212;
1128.0000;0.4851;0.7263;
1128.3000;0.4843;0.7289;
1128.6000;0.4900;0.7417;
1128.9000;0.4892;0.7340;
1129.2000;0.4876;0.7289;
1129.5000;0.4827;0.7083;
1129.8000;0.4933;0.7340;
1130.1000;0.4868;0.7186;
1130.4000;0.4908;0.7212;
1130.7000;0.4884;0.7160;
1131.0000;0.4860;0.7109;
1131.3000;0.4860;0.7109;
1131.6000;0.4884;0.7160;
1131.9000;0.4851;0.7109;
1132.2000;0.4851;0.7160;
1132.5000;0.4843;0.7160;
1132.8000;0.4860;0.7237;
1133.1000;0.4860;0.7212;
1133.4000;0.4876;0.7186;
1133.7000;0.4868;0.7212;
1134.0000;0.4876;0.7289;
1134.3000;0.4884;0.7289;
1134.6000;0.4868;0.7314;
1134.9000;0.4860;0.7289;
1135.2000;0.4868;0.7340;
1135.5000;0.4876;0.7289;
1135.8000;0.4860;0.7160;
1136.1000;0.4851;0.7083;
1136.4000;0.4908;0.7212;
1136.7000;0.4876;0.7186;
1137.0000;0.4884;0.7186;
1137.3000;0.4860;0.7186;
1137.6000;0.4876;0.7289;
1137.9000;0.4860;0.7263;
1138.2000;0.4851;0.7289;
1138.5000;0.4860;0.7443;
1138.8000;0.4876;0.7417;
1139.1000;0.4917;0.7520;
1139.4000;0.4851;0.7289;
1139.7000;0.4851;0.7212;
1140.0000;0.4868;0.7186;
1140.3000;0.4868;0.7135;
1140.6000;0.4868;0.7109;
1140.9000;0.4868;0.7135;
1141.2000;0.4868;0.7083;
1141.5000;0.4884;0.7109;
1141.8000;0.4860;0.7083;
1142.1000;0.4851;0.7186;
1142.4000;0.4835;0.7263;
1142.7000;0.4851;0.7314;
1143.0000;0.4851;0.7289;
1143.3000;0.4851;0.7186;
1143.6000;0.4884;0.7212;
1143.9000;0.4876;0.7186;
1144.2000;0.4868;0.7289;
1144.5000;0.4860;0.7314;
1144.8000;0.4876;0.7160;
1145.1000;0.4843;0.7083;
1145.4000;0.4925;0.7263;
1145.7000;0.4860;0.7083;
1146.0000;0.4860;0.7135;
1146.3000;0.4851;0.7160;
1146.6000;0.4851;0.7263;
1146.9000;0.4860;0.7263;
1147.2000;0.4860;0.7289;
1147.5000;0.4900;0.7366;
1147.8000;0.4851;0.7186;
1148.1000;0.4868;0.7237;
1148.4000;0.4884;0.7340;
1148.7000;0.4860;0.7289;
1149.0000;0.4860;0.7263;
1149.3000;0.4876;0.7314;
1149.6000;0.4843;0.7263;
1149.9000;0.4851;0.7314;
1150.2000;0.4868;0.7443;
1150.5000;0.4892;0.7468;
1150.8000;0.4884;0.7391;
1151.1000;0.4868;0.7366;
1151.4000;0.4860;0.7263;
1151.7000;0.4868;0.7212;
1152.0000;0.4851;0.7237;
1152.3000;0.4860;0.7212;
1152.6000;0.4868;0.7314;
1152.9000;0.4876;0.7237;
1153.2000;0.4835;0.7058;
1153.5000;0.4851;0.7135;
1153.8000;0.4851;0.7186;
1154.1000;0.4884;0.7237;
1154.4000;0.4868;0.7212;
1154.7000;0.4884;0.7212;
1155.0000;0.4933;0.7443;
1155.3000;0.4868;0.7289;
1155.6000;0.4868;0.7289;
1155.9000;0.4860;0.7289;
1156.2000;0.4843;0.7237;
1156.5000;0.4876;0.7340;
1156.8000;0.4843;0.7314;
1157.1000;0.4884;0.7443;
1157.4000;0.4860;0.7468;
1157.7000;0.4843;0.7391;
1158.0000;0.4868;0.7520;
1158.3000;0.4868;0.7468;
1158.6000;0.4884;0.7443;
1158.9000;0.4860;0.7314;
1159.2000;0.4860;0.7340;
1159.5000;0.4860;0.7366;
1159.8000;0.4860;0.7289;
1160.1000;0.4851;0.7237;
1160.4000;0.4884;0.7340;
1160.7000;0.4868;0.7289;
1161.0000;0.4868;0.7289;
1161.3000;0.4851;0.7263;
1161.6000;0.4843;0.7160;
1161.9000;0.4851;0.7160;
1162.2000;0.4778;0.6955;
1162.5000;0.4876;0.7160;
1162.8000;0.4851;0.7083;
1163.1000;0.4868;0.7109;
1163.4000;0.4827;0.7135;
1163.7000;0.4860;0.7212;
1164.0000;0.4868;0.7237;
1164.3000;0.4876;0.7237;
1164.6000;0.4860;0.7186;
1164.9000;0.4876;0.7160;
1165.2000;0.4794;0.6929;
1165.5000;0.4835;0.7032;
1165.8000;0.4819;0.6981;
1166.1000;0.4860;0.7083;
1166.4000;0.4843;0.7160;
1166.7000;0.4843;0.7212;
1167.0000;0.4851;0.7186;
1167.3000;0.4843;0.7083;
1167.6000;0.4794;0.6878;
1167.9000;0.4860;0.7032;
1168.2000;0.4851;0.7109;
1168.5000;0.4851;0.7135;
1168.8000;0.4843;0.7186;
1169.1000;0.4860;0.7237;
1169.4000;0.4892;0.7340;
1169.7000;0.4876;0.7212;
1170.0000;0.4925;0.7417;
1170.3000;0.4851;0.7212;
1170.6000;0.4884;0.7289;
1170.9000;0.4860;0.7366;
1171.2000;0.4860;0.7417;
1171.5000;0.4884;0.7314;
1171.8000;0.4851;0.7263;
1172.1000;0.4851;0.7237;
1172.4000;0.4868;0.7237;
1172.7000;0.4876;0.7289;
1173.0000;0.4868;0.7263;
1173.3000;0.4860;0.7314;
1173.6000;0.4868;0.7289;
1173.9000;0.4860;0.7289;
1174.2000;0.4851;0.7186;
1174.5000;0.4851;0.7160;
1174.8000;0.4868;0.7186;
1175.1000;0.4860;0.7186;
1175.4000;0.4843;0.7160;
1175.7000;0.4868;0.7135;
1176.0000;0.4868;0.7109;
1176.3000;0.4876;0.7186;
1176.6000;0.4843;0.7263;
1176.9000;0.4860;0.7237;
1177.2000;0.4876;0.7212;
1177.5000;0.4892;0.7340;
1177.8000;0.4868;0.7263;
1178.1000;0.4892;0.7314;
1178.4000;0.4851;0.7186;
1178.7000;0.4835;0.7058;
1179.0000;0.4860;0.7058;
1179.3000;0.4868;0.6929;
1179.6000;0.4868;0.6955;
1179.9000;0.4876;0.6981;
1180.2000;0.4868;0.7058;
1180.5000;0.4860;0.7109;
1180.8000;0.4851;0.7135;
1181.1000;0.4884;0.7237;
1181.4000;0.4851;0.7135;
1181.7000;0.4843;0.7109;
1182.0000;0.4860;0.7109;
1182.3000;0.4860;0.7109;
1182.6000;0.4860;0.7109;
1182.9000;0.4868;0.7109;
1183.2000;0.4860;0.7160;
1183.5000;0.4876;0.7263;
1183.8000;0.4876;0.7289;
1184.1000;0.4860;0.7263;
1184.4000;0.4851;0.7237;
1184.7000;0.4860;0.7237;
1185.0000;0.4876;0.7109;
1185.3000;0.4868;0.7083;
1185.6000;0.4860;0.6981;
1185.9000;0.4876;0.7006;
1186.2000;0.4868;0.6929;
1186.5000;0.4892;0.6981;
1186.8000;0.4876;0.6904;
1187.1000;0.4876;0.6878;
1187.4000;0.4884;0.6904;
1187.7000;0.4900;0.6955;
1188.0000;0.4860;0.6878;
1188.3000;0.4860;0.6929;
1188.6000;0.4860;0.6955;
1188.9000;0.4851;0.7006;
1189.2000;0.4827;0.6878;
1189.5000;0.4868;0.7058;
1189.8000;0.4851;0.7058;
1190.1000;0.4876;0.7135;
1190.4000;0.4851;0.7006;
1190.7000;0.4843;0.6929;
1191.0000;0.4860;0.6981;
1191.3000;0.4868;0.7006;
1191.6000;0.4868;0.7006;
1191.9000;0.4868;0.7058;
1192.2000;0.4860;0.7006;
1192.5000;0.4941;0.7314;
1192.8000;0.4851;0.7109;
1193.1000;0.4851;0.7058;
1193.4000;0.4843;0.7032;
1193.7000;0.4851;0.7083;
1194.0000;0.4851;0.7109;
1194.3000;0.4884;0.7186;
1194.6000;0.4843;0.7083;
1194.9000;0.4868;0.7083;
1195.2000;0.4851;0.7135;
1195.5000;0.4860;0.7109;
1195.8000;0.4851;0.7058;
1196.1000;0.4860;0.7083;
1196.4000;0.4868;0.7109;
1196.7000;0.4860;0.6981;
1197.0000;0.4860;0.7006;
1197.3000;0.4900;0.7135;
1197.6000;0.4860;0.7032;
1197.9000;0.4868;0.7109;
1198.2000;0.4843;0.7058;
1198.5000;0.4851;0.7083;
1198.8000;0.4868;0.7058;
1199.1000;0.4860;0.7083;
1199.4000;0.4827;0.7006;
1199.7000;0.4819;0.7109;
1200.0000;0.4860;0.7135;
1200.3000;0.4860;0.7058;
1200.6000;0.4884;0.6955;
1200.9000;0.4851;0.6955;
1201.2000;0.4860;0.7083;
1201.5000;0.4868;0.7083;
1201.8000;0.4900;0.7160;
1202.1000;0.4884;0.7314;
1202.4000;0.4900;0.7391;
1202.7000;0.4860;0.7263;
1203.0000;0.4851;0.7212;
1203.3000;0.4860;0.7237;
1203.6000;0.4860;0.7186;
1203.9000;0.4851;0.7212;
1204.2000;0.4884;0.7263;
1204.5000;0.4884;0.7160;
1204.8000;0.4860;0.7083;
1205.1000;0.4868;0.7109;
1205.4000;0.4835;0.7006;
1205.7000;0.4868;0.7109;
1206.0000;0.4860;0.7032;
1206.3000;0.4843;0.6981;
1206.6000;0.4868;0.6955;
1206.9000;0.4860;0.6955;
1207.2000;0.4884;0.6929;
1207.5000;0.4778;0.6673;
1207.8000;0.4860;0.6955;
1208.1000;0.4851;0.6827;
1208.4000;0.4835;0.6852;
1208.7000;0.4843;0.6801;
1209.0000;0.4860;0.6801;
1209.3000;0.4868;0.6775;
1209.6000;0.4868;0.6724;
1209.9000;0.4851;0.6698;
1210.2000;0.4860;0.6750;
1210.5000;0.4860;0.6801;
1210.8000;0.4860;0.6801;
1211.1000;0.4860;0.6904;
1211.4000;0.4843;0.6878;
1211.7000;0.4876;0.7006;
1212.0000;0.4860;0.6955;
1212.3000;0.4860;0.6981;
1212.6000;0.4835;0.6929;
1212.9000;0.4851;0.7058;
1213.2000;0.4851;0.7006;
1213.5000;0.4843;0.6981;
1213.8000;0.4843;0.7006;
1214.1000;0.4827;0.7083;
1214.4000;0.4876;0.7160;
1214.7000;0.4851;0.7109;
1215.0000;0.4851;0.7083;
1215.3000;0.4851;0.7032;
1215.6000;0.4827;0.7032;
1215.9000;0.4860;0.7058;
1216.2000;0.4860;0.7083;
1216.5000;0.4876;0.7109;
1216.8000;0.4860;0.7135;
1217.1000;0.4860;0.7160;
1217.4000;0.4868;0.7032;
1217.7000;0.4811;0.6929;
1218.0000;0.4827;0.7058;
1218.3000;0.4835;0.7109;
1218.6000;0.4892;0.7314;
1218.9000;0.4860;0.7263;
1219.2000;0.4835;0.7289;
1219.5000;0.4868;0.7340;
1219.8000;0.4868;0.7340;
1220.1000;0.4819;0.7109;
1220.4000;0.4851;0.7160;
1220.7000;0.4860;0.7083;
1221.0000;0.4868;0.7083;
1221.3000;0.4868;0.7135;
1221.6000;0.4851;0.7186;
1221.9000;0.4860;0.7135;
1222.2000;0.4876;0.7186;
1222.5000;0.4876;0.7058;
1222.8000;0.4941;0.7212;
1223.1000;0.4868;0.7006;
1223.4000;0.4860;0.6981;
1223.7000;0.4860;0.6955;
1224.0000;0.4868;0.7058;
1224.3000;0.4860;0.7109;
1224.6000;0.4851;0.7135;
1224.9000;0.4851;0.7186;
1225.2000;0.4819;0.7109;
1225.5000;0.4843;0.7135;
1225.8000;0.4860;0.7135;
1226.1000;0.4860;0.7058;
1226.4000;0.4851;0.7058;
1226.7000;0.4868;0.6955;
1227.0000;0.4835;0.6827;
1227.3000;0.4835;0.6827;
1227.6000;0.4876;0.7006;
1227.9000;0.4860;0.7032;
1228.2000;0.4851;0.6929;
1228.5000;0.4876;0.7032;
1228.8000;0.4843;0.6904;
1229.1000;0.4827;0.6775;
1229.4000;0.4860;0.6878;
1229.7000;0.4868;0.7006;
1230.0000;0.4868;0.7006;
1230.3000;0.4860;0.7006;
1230.6000;0.4876;0.7032;
1230.9000;0.4868;0.7135;
1231.2000;0.4868;0.7083;
1231.5000;0.4835;0.6955;
1231.8000;0.4860;0.7083;
1232.1000;0.4860;0.7083;
1232.4000;0.4860;0.7109;
1232.7000;0.4843;0.7135;
1233.0000;0.4843;0.7083;
1233.3000;0.4868;0.7135;
1233.6000;0.4843;0.7058;
1233.9000;0.4843;0.7032;
1234.2000;0.4835;0.6981;
1234.5000;0.4843;0.6955;
1234.8000;0.4843;0.7058;
1235.1000;0.4860;0.7058;
1235.4000;0.4843;0.7083;
1235.7000;0.4843;0.7058;
1236.0000;0.4851;0.7006;
1236.3000;0.4843;0.7058;
1236.6000;0.4860;0.7058;
1236.9000;0.4851;0.7006;
1237.2000;0.4876;0.6981;
1237.5000;0.4868;0.6955;
1237.8000;0.4868;0.7058;
1238.1000;0.4843;0.7032;
1238.4000;0.4851;0.7083;
1238.7000;0.4876;0.7160;
1239.0000;0.4851;0.7109;
1239.3000;0.4843;0.7058;
1239.6000;0.4786;0.6929;
1239.9000;0.4876;0.7212;
1240.2000;0.4884;0.7186;
1240.5000;0.4876;0.7160;
1240.8000;0.4884;0.7109;
1241.1000;0.4811;0.6852;
1241.4000;0.4835;0.6955;
1241.7000;0.4843;0.6955;
1242.0000;0.4868;0.6955;
1242.3000;0.4868;0.7032;
1242.6000;0.4851;0.6981;
1242.9000;0.4868;0.7032;
1243.2000;0.4835;0.6929;
1243.5000;0.4876;0.7032;
1243.8000;0.4876;0.6981;
1244.1000;0.4851;0.7032;
1244.4000;0.4851;0.6981;
1244.7000;0.4925;0.7237;
1245.0000;0.4851;0.7058;
1245.3000;0.4860;0.7032;
1245.6000;0.4803;0.6904;
1245.9000;0.4860;0.7032;
1246.2000;0.4884;0.7083;
1246.5000;0.4876;0.7058;
1246.8000;0.4900;0.7160;
1247.1000;0.4851;0.7083;
1247.4000;0.4876;0.7135;
1247.7000;0.4786;0.6878;
1248.0000;0.4851;0.7006;
1248.3000;0.4860;0.7006;
1248.6000;0.4908;0.7135;
1248.9000;0.4876;0.7083;
1249.2000;0.4851;0.6955;
1249.5000;0.4876;0.7058;
1249.8000;0.4868;0.7006;
1250.1000;0.4868;0.7006;
1250.4000;0.4868;0.6955;
1250.7000;0.4868;0.7032;
1251.0000;0.4860;0.7083;
1251.3000;0.4868;0.7058;
1251.6000;0.4868;0.7032;
1251.9000;0.4851;0.7058;
1252.2000;0.4827;0.6981;
1252.5000;0.4884;0.7083;
1252.8000;0.4860;0.7006;
1253.1000;0.4860;0.6929;
1253.4000;0.4851;0.6852;
1253.7000;0.4860;0.6878;
1254.0000;0.4868;0.6929;
1254.3000;0.4843;0.6852;
1254.6000;0.4843;0.6878;
1254.9000;0.4851;0.6955;
1255.2000;0.4860;0.6955;
1255.5000;0.4868;0.7032;
1255.8000;0.4868;0.7058;
1256.1000;0.4860;0.7032;
1256.4000;0.4860;0.6981;
1256.7000;0.4827;0.6929;
1257.0000;0.4843;0.6955;
1257.3000;0.4860;0.7109;
1257.6000;0.4851;0.7058;
1257.9000;0.4851;0.7032;
1258.2000;0.4851;0.6904;
1258.5000;0.4851;0.7006;
1258.8000;0.4868;0.7083;
1259.1000;0.4851;0.7109;
1259.4000;0.4851;0.7058;
1259.7000;0.4868;0.7058;
1260.0000;0.4851;0.7083;
1260.3000;0.4860;0.7109;
1260.6000;0.4868;0.7135;
1260.9000;0.4843;0.7135;
1261.2000;0.4868;0.7212;
1261.5000;0.4892;0.7391;
1261.8000;0.4876;0.7314;
1262.1000;0.4900;0.7391;
1262.4000;0.4827;0.7135;
1262.7000;0.4868;0.7391;
1263.0000;0.4851;0.7340;
1263.3000;0.4860;0.7340;
1263.6000;0.4819;0.7314;
1263.9000;0.4884;0.7391;
1264.2000;0.4860;0.7289;
1264.5000;0.4860;0.7237;
1264.8000;0.4851;0.7109;
1265.1000;0.4860;0.7135;
1265.4000;0.4835;0.7109;
1265.7000;0.4876;0.7135;
1266.0000;0.4860;0.7083;
1266.3000;0.4851;0.7109;
1266.6000;0.4851;0.7109;
1266.9000;0.4860;0.7109;
1267.2000;0.4860;0.7058;
1267.5000;0.4868;0.6981;
1267.8000;0.4851;0.6904;
1268.1000;0.4860;0.6878;
1268.4000;0.4868;0.6955;
1268.7000;0.4892;0.7006;
1269.0000;0.4868;0.7006;
1269.3000;0.4917;0.7135;
1269.6000;0.4843;0.7032;
1269.9000;0.4819;0.6852;
1270.2000;0.4827;0.6929;
1270.5000;0.4851;0.6904;
1270.8000;0.4876;0.6929;
1271.1000;0.4851;0.6929;
1271.4000;0.4827;0.6929;
1271.7000;0.4949;0.7289;
1272.0000;0.4860;0.7083;
1272.3000;0.4851;0.7186;
1272.6000;0.4868;0.7289;
1272.9000;0.4843;0.7289;
1273.2000;0.4851;0.7212;
1273.5000;0.4860;0.7109;
1273.8000;0.4860;0.7083;
1274.1000;0.4860;0.7160;
1274.4000;0.4868;0.7289;
1274.7000;0.4819;0.7212;
1275.0000;0.4843;0.7237;
1275.3000;0.4860;0.7314;
1275.6000;0.4860;0.7237;
1275.9000;0.4843;0.7186;
1276.2000;0.4868;0.7109;
1276.5000;0.4827;0.6955;
1276.8000;0.4868;0.7032;
1277.1000;0.4851;0.7135;
1277.4000;0.4811;0.7032;
1277.7000;0.4876;0.7186;
1278.0000;0.4868;0.7186;
1278.3000;0.4851;0.7186;
1278.6000;0.4860;0.7237;
1278.9000;0.4851;0.7263;
1279.2000;0.4868;0.7186;
1279.5000;0.4957;0.7391;
1279.8000;0.4860;0.7135;
1280.1000;0.4860;0.7135;
1280.4000;0.4843;0.7109;
1280.7000;0.4851;0.7160;
1281.0000;0.4860;0.7135;
1281.3000;0.4843;0.7083;
1281.6000;0.4827;0.7083;
1281.9000;0.4860;0.7186;
1282.2000;0.4851;0.7160;
1282.5000;0.4860;0.7160;
1282.8000;0.4876;0.7212;
1283.1000;0.4876;0.7160;
1283.4000;0.4876;0.7212;
1283.7000;0.4876;0.7289;
1284.0000;0.4876;0.7340;
1284.3000;0.4851;0.7366;
1284.6000;0.4900;0.7391;
1284.9000;0.4851;0.7186;
1285.2000;0.4860;0.7006;
1285.5000;0.4908;0.7032;
1285.8000;0.4933;0.6981;
1286.1000;0.4860;0.6827;
1286.4000;0.4868;0.6904;
1286.7000;0.4835;0.6827;
1287.0000;0.4868;0.6929;
1287.3000;0.4860;0.6955;
1287.6000;0.4851;0.7032;
1287.9000;0.4843;0.7032;
1288.2000;0.4908;0.7237;
1288.5000;0.4868;0.7109;
1288.8000;0.4851;0.7083;
1289.1000;0.4860;0.7032;
1289.4000;0.4868;0.7160;
1289.7000;0.4851;0.7109;
1290.0000;0.4843;0.7083;
1290.3000;0.4925;0.7212;
1290.6000;0.4851;0.7032;
1290.9000;0.4876;0.7006;
1291.2000;0.4851;0.6878;
1291.5000;0.4860;0.6852;
1291.8000;0.4851;0.6827;
1292.1000;0.4868;0.6929;
1292.4000;0.4949;0.7186;
1292.7000;0.4851;0.6929;
1293.0000;0.4851;0.6955;
1293.3000;0.4819;0.6929;
1293.6000;0.4843;0.7032;
1293.9000;0.4851;0.7032;
1294.2000;0.4892;0.7160;
1294.5000;0.4835;0.7032;
1294.8000;0.4860;0.7032;
1295.1000;0.4843;0.7006;
1295.4000;0.4868;0.7109;
1295.7000;0.4851;0.7109;
1296.0000;0.4860;0.7135;
1296.3000;0.4843;0.7083;
1296.6000;0.4868;0.7135;
1296.9000;0.4933;0.7314;
1297.2000;0.4843;0.7083;
1297.5000;0.4900;0.7212;
1297.8000;0.4835;0.7032;
1298.1000;0.4892;0.7083;
1298.4000;0.4933;0.7135;
1298.7000;0.4860;0.6929;
1299.0000;0.4860;0.6852;
1299.3000;0.4860;0.6852;
1299.6000;0.4876;0.6929;
1299.9000;0.4851;0.6878;
1300.2000;0.4835;0.6878;
1300.5000;0.4827;0.6929;
1300.8000;0.4860;0.7058;
1301.1000;0.4860;0.7032;
1301.4000;0.4843;0.7006;
1301.7000;0.4860;0.7006;
1302.0000;0.4851;0.7006;
1302.3000;0.4925;0.7212;
1302.6000;0.4868;0.7083;
1302.9000;0.4868;0.7135;
1303.2000;0.4860;0.7006;
1303.5000;0.4860;0.6929;
1303.8000;0.4876;0.7006;
1304.1000;0.4868;0.7006;
1304.4000;0.4884;0.7058;
1304.7000;0.4851;0.7083;
1305.0000;0.4851;0.6955;
1305.3000;0.4860;0.6981;
1305.6000;0.4860;0.6955;
1305.9000;0.4851;0.6929;
1306.2000;0.4860;0.6852;
1306.5000;0.4835;0.6852;
1306.8000;0.4843;0.6878;
1307.1000;0.4843;0.6955;
1307.4000;0.4851;0.6929;
1307.7000;0.4868;0.6827;
1308.0000;0.4868;0.6878;
1308.3000;0.4860;0.6827;
1308.6000;0.4860;0.6827;
1308.9000;0.4884;0.6878;
1309.2000;0.4868;0.6904;
1309.5000;0.4819;0.6775;
1309.8000;0.4860;0.6904;
1310.1000;0.4851;0.6904;
1310.4000;0.4827;0.6852;
1310.7000;0.4827;0.7006;
1311.0000;0.4851;0.7109;
1311.3000;0.4892;0.7263;
1311.6000;0.4860;0.7083;
1311.9000;0.4884;0.7109;
1312.2000;0.4851;0.7006;
1312.5000;0.4860;0.6904;
1312.8000;0.4868;0.6878;
1313.1000;0.4868;0.6955;
1313.4000;0.4876;0.7032;
1313.7000;0.4876;0.6981;
1314.0000;0.4843;0.7006;
1314.3000;0.4835;0.7006;
1314.6000;0.4868;0.7135;
1314.9000;0.4851;0.7083;
1315.2000;0.4868;0.7135;
1315.5000;0.4860;0.7058;
1315.8000;0.4794;0.6801;
1316.1000;0.4868;0.7006;
1316.4000;0.4868;0.7058;
1316.7000;0.4851;0.7058;
1317.0000;0.4876;0.7032;
1317.3000;0.4843;0.7109;
1317.6000;0.4884;0.7212;
1317.9000;0.4860;0.7083;
1318.2000;0.4892;0.7186;
1318.5000;0.4892;0.7186;
1318.8000;0.4868;0.7109;
1319.1000;0.4925;0.7135;
1319.4000;0.4868;0.6981;
1319.7000;0.4851;0.6929;
1320.0000;0.4941;0.7160;
1320.3000;0.4851;0.6775;
1320.6000;0.4860;0.6775;
1320.9000;0.4860;0.6929;
1321.2000;0.4892;0.6955;
1321.5000;0.4868;0.6827;
1321.8000;0.4868;0.6827;
1322.1000;0.4835;0.6878;
1322.4000;0.4851;0.6981;
1322.7000;0.4843;0.6981;
1323.0000;0.4819;0.6878;
1323.3000;0.4843;0.6929;
1323.6000;0.4827;0.7058;
1323.9000;0.4851;0.7109;
1324.2000;0.4860;0.7160;
1324.5000;0.4851;0.7135;
1324.8000;0.4843;0.7135;
1325.1000;0.4835;0.7083;
1325.4000;0.4860;0.7058;
1325.7000;0.4843;0.7058;
1326.0000;0.4843;0.6981;
1326.3000;0.4876;0.6981;
1326.6000;0.4868;0.6981;
1326.9000;0.4868;0.7109;
1327.2000;0.4835;0.7032;
1327.5000;0.4868;0.7160;
1327.8000;0.4917;0.7237;
1328.1000;0.4868;0.7083;
1328.4000;0.4860;0.7186;
1328.7000;0.4819;0.7109;
1329.0000;0.4860;0.7212;
1329.3000;0.4860;0.7186;
1329.6000;0.4876;0.7237;
1329.9000;0.4860;0.7135;
1330.2000;0.4860;0.7032;
1330.5000;0.4843;0.7006;
1330.8000;0.4851;0.7083;
1331.1000;0.4868;0.7160;
1331.4000;0.4843;0.7083;
1331.7000;0.4835;0.7058;
1332.0000;0.4843;0.7160;
1332.3000;0.4851;0.7109;
1332.6000;0.4851;0.7109;
1332.9000;0.4868;0.7135;
1333.2000;0.4860;0.7135;
1333.5000;0.4868;0.7160;
1333.8000;0.4851;0.7109;
1334.1000;0.4908;0.7212;
1334.4000;0.4876;0.7109;
1334.7000;0.4827;0.6955;
1335.0000;0.4835;0.6878;
1335.3000;0.4860;0.6955;
1335.6000;0.4843;0.6981;
1335.9000;0.4860;0.7109;
1336.2000;0.4868;0.7135;
1336.5000;0.4835;0.7058;
1336.8000;0.4868;0.7109;
1337.1000;0.4827;0.7006;
1337.4000;0.4835;0.7006;
1337.7000;0.4835;0.6929;
1338.0000;0.4851;0.7006;
1338.3000;0.4843;0.7109;
1338.6000;0.4803;0.6852;
1338.9000;0.4860;0.7058;
1339.2000;0.4819;0.6929;
1339.5000;0.4794;0.6852;
1339.8000;0.4851;0.6955;
1340.1000;0.4860;0.6955;
1340.4000;0.4860;0.6904;
1340.7000;0.4860;0.6904;
1341.0000;0.4860;0.6852;
1341.3000;0.4843;0.6852;
1341.6000;0.4843;0.6852;
1341.9000;0.4868;0.6929;
1342.2000;0.4860;0.6981;
1342.5000;0.4860;0.7058;
1342.8000;0.4860;0.7083;
1343.1000;0.4860;0.6955;
1343.4000;0.4860;0.7058;
1343.7000;0.4843;0.7006;
1344.0000;0.4884;0.7032;
1344.3000;0.4860;0.6929;
1344.6000;0.4851;0.7006;
1344.9000;0.4803;0.6904;
1345.2000;0.4811;0.6929;
1345.5000;0.4794;0.6852;
1345.8000;0.4843;0.6981;
1346.1000;0.4835;0.6955;
1346.4000;0.4827;0.6929;
1346.7000;0.4835;0.6929;
1347.0000;0.4876;0.7032;
1347.3000;0.4868;0.7032;
1347.6000;0.4827;0.6929;
1347.9000;0.4851;0.7032;
1348.2000;0.4835;0.7058;
1348.5000;0.4876;0.7263;
1348.8000;0.4851;0.7160;
1349.1000;0.4925;0.7391;
1349.4000;0.4851;0.7237;
1349.7000;0.4876;0.7340;
1350.0000;0.4868;0.7237;
1350.3000;0.4827;0.7135;
1350.6000;0.4860;0.7186;
1350.9000;0.4819;0.7058;
1351.2000;0.4843;0.7186;
1351.5000;0.4851;0.7160;
1351.8000;0.4892;0.7340;
1352.1000;0.4892;0.7289;
1352.4000;0.4843;0.7212;
1352.7000;0.4843;0.7314;
1353.0000;0.4835;0.7212;
1353.3000;0.4868;0.7212;
1353.6000;0.4917;0.7289;
1353.9000;0.4827;0.7135;
1354.2000;0.4851;0.7135;
1354.5000;0.4876;0.7289;
1354.8000;0.4860;0.7186;
1355.1000;0.4770;0.6929;
1355.4000;0.4908;0.7237;
1355.7000;0.4860;0.7058;
1356.0000;0.4860;0.7135;
1356.3000;0.4892;0.7109;
1356.6000;0.4860;0.7006;
1356.9000;0.4860;0.6981;
1357.2000;0.4851;0.6852;
1357.5000;0.4860;0.6852;
1357.8000;0.4860;0.6878;
1358.1000;0.4835;0.6852;
1358.4000;0.4868;0.7058;
1358.7000;0.4827;0.7058;
1359.0000;0.4868;0.7160;
1359.3000;0.4900;0.7212;
1359.6000;0.4884;0.7289;
1359.9000;0.4876;0.7212;
1360.2000;0.4884;0.7263;
1360.5000;0.4811;0.7109;
1360.8000;0.4835;0.7237;
1361.1000;0.4868;0.7212;
1361.4000;0.4843;0.7212;
1361.7000;0.4843;0.7058;
1362.0000;0.4843;0.7032;
1362.3000;0.4843;0.6955;
1362.6000;0.4860;0.6981;
1362.9000;0.4892;0.7058;
1363.2000;0.4868;0.6852;
1363.5000;0.4843;0.6827;
1363.8000;0.4876;0.6981;
1364.1000;0.4843;0.6878;
1364.4000;0.4868;0.6904;
1364.7000;0.4827;0.6724;
1365.0000;0.4868;0.6904;
1365.3000;0.4868;0.6981;
1365.6000;0.4925;0.7032;
1365.9000;0.4868;0.6929;
1366.2000;0.4778;0.6698;
1366.5000;0.4860;0.6955;
1366.8000;0.4868;0.7032;
1367.1000;0.4860;0.7058;
1367.4000;0.4860;0.7135;
1367.7000;0.4851;0.7186;
1368.0000;0.4868;0.7237;
1368.3000;0.4843;0.7160;
1368.6000;0.4868;0.7186;
1368.9000;0.4860;0.7160;
1369.2000;0.4811;0.7083;
1369.5000;0.4860;0.7186;
1369.8000;0.4860;0.7186;
1370.1000;0.4860;0.7160;
1370.4000;0.4860;0.7109;
1370.7000;0.4860;0.7058;
1371.0000;0.4843;0.7032;
1371.3000;0.4860;0.7109;
1371.6000;0.4835;0.7058;
1371.9000;0.4876;0.7109;
1372.2000;0.4851;0.7109;
1372.5000;0.4860;0.7186;
1372.8000;0.4851;0.7135;
1373.1000;0.4892;0.7186;
1373.4000;0.4835;0.7032;
1373.7000;0.4876;0.7160;
1374.0000;0.4851;0.7160;
1374.3000;0.4884;0.7135;
1374.6000;0.4860;0.7135;
1374.9000;0.4860;0.7186;
1375.2000;0.4868;0.7160;
1375.5000;0.4843;0.7083;
1375.8000;0.4876;0.7160;
1376.1000;0.4851;0.7006;
1376.4000;0.4892;0.7083;
1376.7000;0.4868;0.7006;
1377.0000;0.4860;0.6955;
1377.3000;0.4868;0.7032;
1377.6000;0.4803;0.6852;
1377.9000;0.4860;0.7083;
1378.2000;0.4868;0.7083;
1378.5000;0.4843;0.7032;
1378.8000;0.4860;0.7212;
1379.1000;0.4851;0.7083;
1379.4000;0.4819;0.6981;
1379.7000;0.4851;0.7083;
1380.0000;0.4876;0.7186;
1380.3000;0.4876;0.7263;
1380.6000;0.4965;0.7494;
1380.9000;0.4827;0.7135;
1381.2000;0.4835;0.7186;
1381.5000;0.4860;0.7212;
1381.8000;0.4843;0.7006;
1382.1000;0.4851;0.7032;
1382.4000;0.4786;0.6827;
1382.7000;0.4835;0.7058;
1383.0000;0.4851;0.7212;
1383.3000;0.4868;0.7289;
1383.6000;0.4860;0.7186;
1383.9000;0.4860;0.7083;
1384.2000;0.4868;0.7160;
1384.5000;0.4851;0.7058;
1384.8000;0.4876;0.7083;
1385.1000;0.4843;0.7083;
1385.4000;0.4884;0.7135;
1385.7000;0.4860;0.7083;
1386.0000;0.4843;0.7109;
1386.3000;0.4843;0.7237;
1386.6000;0.4860;0.7237;
1386.9000;0.4851;0.7032;
1387.2000;0.4876;0.7006;
1387.5000;0.4860;0.7032;
1387.8000;0.4884;0.7160;
1388.1000;0.4851;0.7135;
1388.4000;0.4925;0.7340;
1388.7000;0.4860;0.7135;
1389.0000;0.4876;0.7237;
1389.3000;0.4860;0.7186;
1389.6000;0.4851;0.7186;
1389.9000;0.4868;0.7237;
1390.2000;0.4868;0.7340;
1390.5000;0.4884;0.7237;
1390.8000;0.4868;0.7135;
1391.1000;0.4860;0.7109;
1391.4000;0.4851;0.7032;
1391.7000;0.4868;0.7083;
1392.0000;0.4868;0.7058;
1392.3000;0.4868;0.7083;
1392.6000;0.4876;0.7160;
1392.9000;0.4876;0.7340;
1393.2000;0.4851;0.7289;
1393.5000;0.4851;0.7366;
1393.8000;0.4851;0.7186;
1394.1000;0.4868;0.7160;
1394.4000;0.4843;0.7083;
1394.7000;0.4868;0.7135;
1395.0000;0.4835;0.7058;
1395.3000;0.4868;0.7006;
1395.6000;0.4868;0.6929;
1395.9000;0.4860;0.6955;
1396.2000;0.4876;0.7058;
1396.5000;0.4851;0.6981;
1396.8000;0.4827;0.6878;
1397.1000;0.4851;0.7006;
1397.4000;0.4835;0.6981;
1397.7000;0.4868;0.7135;
1398.0000;0.4884;0.7237;
1398.3000;0.4851;0.7160;
1398.6000;0.4851;0.7135;
1398.9000;0.4860;0.7083;
1399.2000;0.4851;0.6981;
1399.5000;0.4851;0.6904;
1399.8000;0.4843;0.6904;
