time/ms;Fluo/V;P700 deltaI/I x10³;
-199.8000;0.5584;0.6089;
-199.5000;0.5576;0.6089;
-199.2000;0.5576;0.6089;
-198.9000;0.5592;0.6140;
-198.6000;0.5576;0.6089;
-198.3000;0.5568;0.6013;
-198.0000;0.5584;0.6115;
-197.7000;0.5527;0.5936;
-197.4000;0.5584;0.6038;
-197.1000;0.5584;0.6013;
-196.8000;0.5576;0.6013;
-196.5000;0.5608;0.6064;
-196.2000;0.5584;0.6089;
-195.9000;0.5649;0.6242;
-195.6000;0.5584;0.6140;
-195.3000;0.5584;0.6242;
-195.0000;0.5576;0.6191;
-194.7000;0.5527;0.5987;
-194.4000;0.5576;0.6140;
-194.1000;0.5592;0.6268;
-193.8000;0.5576;0.6166;
-193.5000;0.5576;0.6242;
-193.2000;0.5584;0.6319;
-192.9000;0.5576;0.6319;
-192.6000;0.5584;0.6344;
-192.3000;0.5584;0.6395;
-192.0000;0.5568;0.6242;
-191.7000;0.5584;0.6293;
-191.4000;0.5592;0.6242;
-191.1000;0.5568;0.6293;
-190.8000;0.5592;0.6217;
-190.5000;0.5592;0.6268;
-190.2000;0.5584;0.6268;
-189.9000;0.5576;0.6166;
-189.6000;0.5617;0.6191;
-189.3000;0.5576;0.5962;
-189.0000;0.5592;0.6038;
-188.7000;0.5584;0.5987;
-188.4000;0.5576;0.6013;
-188.1000;0.5568;0.6038;
-187.8000;0.5584;0.6115;
-187.5000;0.5568;0.6166;
-187.2000;0.5576;0.6089;
-186.9000;0.5560;0.6089;
-186.6000;0.5576;0.6166;
-186.3000;0.5576;0.6191;
-186.0000;0.5592;0.6293;
-185.7000;0.5592;0.6293;
-185.4000;0.5576;0.6293;
-185.1000;0.5584;0.6344;
-184.8000;0.5592;0.6242;
-184.5000;0.5568;0.6242;
-184.2000;0.5576;0.6217;
-183.9000;0.5584;0.6191;
-183.6000;0.5568;0.6191;
-183.3000;0.5551;0.6217;
-183.0000;0.5568;0.6242;
-182.7000;0.5568;0.6217;
-182.4000;0.5568;0.6217;
-182.1000;0.5568;0.6191;
-181.8000;0.5543;0.6166;
-181.5000;0.5446;0.5885;
-181.2000;0.5584;0.6268;
-180.9000;0.5568;0.6217;
-180.6000;0.5576;0.6268;
-180.3000;0.5584;0.6293;
-180.0000;0.5592;0.6268;
-179.7000;0.5576;0.6217;
-179.4000;0.5576;0.6191;
-179.1000;0.5568;0.6166;
-178.8000;0.5584;0.6166;
-178.5000;0.5576;0.6115;
-178.2000;0.5560;0.6038;
-177.9000;0.5576;0.6038;
-177.6000;0.5568;0.6064;
-177.3000;0.5568;0.6089;
-177.0000;0.5584;0.6191;
-176.7000;0.5584;0.6089;
-176.4000;0.5584;0.6038;
-176.1000;0.5584;0.6115;
-175.8000;0.5600;0.6191;
-175.5000;0.5576;0.6217;
-175.2000;0.5584;0.6293;
-174.9000;0.5592;0.6369;
-174.6000;0.5576;0.6293;
-174.3000;0.5576;0.6217;
-174.0000;0.5592;0.6217;
-173.7000;0.5592;0.6268;
-173.4000;0.5568;0.6268;
-173.1000;0.5576;0.6217;
-172.8000;0.5576;0.6268;
-172.5000;0.5576;0.6293;
-172.2000;0.5527;0.6166;
-171.9000;0.5568;0.6344;
-171.6000;0.5568;0.6369;
-171.3000;0.5633;0.6446;
-171.0000;0.5576;0.6319;
-170.7000;0.5576;0.6293;
-170.4000;0.5568;0.6242;
-170.1000;0.5592;0.6293;
-169.8000;0.5584;0.6319;
-169.5000;0.5592;0.6395;
-169.2000;0.5600;0.6446;
-168.9000;0.5576;0.6446;
-168.6000;0.5592;0.6446;
-168.3000;0.5568;0.6344;
-168.0000;0.5576;0.6369;
-167.7000;0.5576;0.6420;
-167.4000;0.5576;0.6497;
-167.1000;0.5576;0.6522;
-166.8000;0.5576;0.6548;
-166.5000;0.5584;0.6573;
-166.2000;0.5511;0.6471;
-165.9000;0.5608;0.6701;
-165.6000;0.5584;0.6573;
-165.3000;0.5617;0.6548;
-165.0000;0.5568;0.6446;
-164.7000;0.5576;0.6497;
-164.4000;0.5576;0.6497;
-164.1000;0.5576;0.6497;
-163.8000;0.5584;0.6471;
-163.5000;0.5568;0.6369;
-163.2000;0.5576;0.6293;
-162.9000;0.5576;0.6293;
-162.6000;0.5560;0.6319;
-162.3000;0.5560;0.6319;
-162.0000;0.5576;0.6293;
-161.7000;0.5584;0.6293;
-161.4000;0.5576;0.6344;
-161.1000;0.5576;0.6268;
-160.8000;0.5592;0.6293;
-160.5000;0.5568;0.6242;
-160.2000;0.5576;0.6166;
-159.9000;0.5584;0.6268;
-159.6000;0.5592;0.6344;
-159.3000;0.5576;0.6344;
-159.0000;0.5576;0.6369;
-158.7000;0.5584;0.6395;
-158.4000;0.5592;0.6446;
-158.1000;0.5576;0.6395;
-157.8000;0.5592;0.6395;
-157.5000;0.5592;0.6369;
-157.2000;0.5592;0.6446;
-156.9000;0.5600;0.6446;
-156.6000;0.5584;0.6420;
-156.3000;0.5592;0.6446;
-156.0000;0.5608;0.6446;
-155.7000;0.5584;0.6471;
-155.4000;0.5576;0.6446;
-155.1000;0.5568;0.6369;
-154.8000;0.5584;0.6395;
-154.5000;0.5576;0.6446;
-154.2000;0.5576;0.6522;
-153.9000;0.5576;0.6522;
-153.6000;0.5576;0.6522;
-153.3000;0.5568;0.6497;
-153.0000;0.5633;0.6599;
-152.7000;0.5560;0.6446;
-152.4000;0.5543;0.6471;
-152.1000;0.5592;0.6599;
-151.8000;0.5600;0.6573;
-151.5000;0.5592;0.6522;
-151.2000;0.5592;0.6420;
-150.9000;0.5600;0.6471;
-150.6000;0.5600;0.6420;
-150.3000;0.5600;0.6497;
-150.0000;0.5592;0.6446;
-149.7000;0.5600;0.6497;
-149.4000;0.5592;0.6471;
-149.1000;0.5608;0.6497;
-148.8000;0.5576;0.6369;
-148.5000;0.5592;0.6369;
-148.2000;0.5584;0.6395;
-147.9000;0.5576;0.6420;
-147.6000;0.5584;0.6446;
-147.3000;0.5592;0.6471;
-147.0000;0.5600;0.6471;
-146.7000;0.5584;0.6395;
-146.4000;0.5576;0.6369;
-146.1000;0.5600;0.6420;
-145.8000;0.5600;0.6420;
-145.5000;0.5600;0.6471;
-145.2000;0.5592;0.6471;
-144.9000;0.5600;0.6369;
-144.6000;0.5584;0.6446;
-144.3000;0.5625;0.6548;
-144.0000;0.5584;0.6344;
-143.7000;0.5592;0.6369;
-143.4000;0.5576;0.6217;
-143.1000;0.5633;0.6420;
-142.8000;0.5560;0.6268;
-142.5000;0.5592;0.6217;
-142.2000;0.5568;0.6191;
-141.9000;0.5584;0.6217;
-141.6000;0.5584;0.6319;
-141.3000;0.5657;0.6548;
-141.0000;0.5584;0.6344;
-140.7000;0.5584;0.6344;
-140.4000;0.5592;0.6369;
-140.1000;0.5568;0.6395;
-139.8000;0.5568;0.6395;
-139.5000;0.5592;0.6369;
-139.2000;0.5576;0.6319;
-138.9000;0.5576;0.6268;
-138.6000;0.5576;0.6242;
-138.3000;0.5568;0.6242;
-138.0000;0.5527;0.6242;
-137.7000;0.5560;0.6344;
-137.4000;0.5568;0.6420;
-137.1000;0.5576;0.6497;
-136.8000;0.5568;0.6497;
-136.5000;0.5584;0.6675;
-136.2000;0.5592;0.6701;
-135.9000;0.5584;0.6701;
-135.6000;0.5600;0.6701;
-135.3000;0.5608;0.6675;
-135.0000;0.5592;0.6650;
-134.7000;0.5600;0.6624;
-134.4000;0.5584;0.6522;
-134.1000;0.5584;0.6446;
-133.8000;0.5584;0.6420;
-133.5000;0.5608;0.6471;
-133.2000;0.5617;0.6446;
-132.9000;0.5568;0.6293;
-132.6000;0.5592;0.6293;
-132.3000;0.5560;0.6217;
-132.0000;0.5560;0.6293;
-131.7000;0.5641;0.6599;
-131.4000;0.5600;0.6548;
-131.1000;0.5592;0.6522;
-130.8000;0.5576;0.6471;
-130.5000;0.5551;0.6344;
-130.2000;0.5592;0.6522;
-129.9000;0.5608;0.6599;
-129.6000;0.5576;0.6446;
-129.3000;0.5576;0.6446;
-129.0000;0.5625;0.6522;
-128.7000;0.5584;0.6471;
-128.4000;0.5568;0.6395;
-128.1000;0.5608;0.6497;
-127.8000;0.5584;0.6395;
-127.5000;0.5576;0.6344;
-127.2000;0.5560;0.6268;
-126.9000;0.5600;0.6344;
-126.6000;0.5592;0.6344;
-126.3000;0.5600;0.6293;
-126.0000;0.5592;0.6268;
-125.7000;0.5584;0.6217;
-125.4000;0.5576;0.6242;
-125.1000;0.5584;0.6217;
-124.8000;0.5592;0.6319;
-124.5000;0.5600;0.6344;
-124.2000;0.5592;0.6446;
-123.9000;0.5576;0.6369;
-123.6000;0.5657;0.6573;
-123.3000;0.5592;0.6369;
-123.0000;0.5592;0.6293;
-122.7000;0.5576;0.6268;
-122.4000;0.5584;0.6217;
-122.1000;0.5584;0.6268;
-121.8000;0.5592;0.6319;
-121.5000;0.5584;0.6293;
-121.2000;0.5592;0.6420;
-120.9000;0.5592;0.6395;
-120.6000;0.5584;0.6420;
-120.3000;0.5600;0.6446;
-120.0000;0.5592;0.6420;
-119.7000;0.5584;0.6446;
-119.4000;0.5576;0.6344;
-119.1000;0.5592;0.6446;
-118.8000;0.5576;0.6420;
-118.5000;0.5576;0.6369;
-118.2000;0.5568;0.6293;
-117.9000;0.5584;0.6191;
-117.6000;0.5568;0.6140;
-117.3000;0.5560;0.6191;
-117.0000;0.5584;0.6166;
-116.7000;0.5584;0.6166;
-116.4000;0.5592;0.6319;
-116.1000;0.5576;0.6344;
-115.8000;0.5592;0.6319;
-115.5000;0.5576;0.6268;
-115.2000;0.5592;0.6395;
-114.9000;0.5584;0.6395;
-114.6000;0.5592;0.6344;
-114.3000;0.5543;0.6115;
-114.0000;0.5600;0.6242;
-113.7000;0.5535;0.6038;
-113.4000;0.5551;0.6013;
-113.1000;0.5576;0.6115;
-112.8000;0.5649;0.6395;
-112.5000;0.5576;0.6166;
-112.2000;0.5592;0.6166;
-111.9000;0.5592;0.6140;
-111.6000;0.5584;0.6166;
-111.3000;0.5592;0.6217;
-111.0000;0.5584;0.6140;
-110.7000;0.5551;0.6191;
-110.4000;0.5576;0.6166;
-110.1000;0.5584;0.6166;
-109.8000;0.5592;0.6242;
-109.5000;0.5584;0.6344;
-109.2000;0.5600;0.6446;
-108.9000;0.5600;0.6446;
-108.6000;0.5560;0.6369;
-108.3000;0.5608;0.6522;
-108.0000;0.5584;0.6548;
-107.7000;0.5576;0.6446;
-107.4000;0.5576;0.6573;
-107.1000;0.5600;0.6599;
-106.8000;0.5584;0.6497;
-106.5000;0.5625;0.6599;
-106.2000;0.5560;0.6548;
-105.9000;0.5608;0.6650;
-105.6000;0.5584;0.6675;
-105.3000;0.5551;0.6675;
-105.0000;0.5633;0.6879;
-104.7000;0.5551;0.6624;
-104.4000;0.5560;0.6726;
-104.1000;0.5576;0.6650;
-103.8000;0.5584;0.6675;
-103.5000;0.5657;0.6777;
-103.2000;0.5625;0.6624;
-102.9000;0.5600;0.6599;
-102.6000;0.5543;0.6599;
-102.3000;0.5576;0.6675;
-102.0000;0.5576;0.6599;
-101.7000;0.5592;0.6548;
-101.4000;0.5576;0.6522;
-101.1000;0.5576;0.6471;
-100.8000;0.5592;0.6497;
-100.5000;0.5584;0.6471;
-100.2000;0.5592;0.6497;
-99.9000;0.5584;0.6497;
-99.6000;0.5592;0.6522;
-99.3000;0.5592;0.6522;
-99.0000;0.5576;0.6522;
-98.7000;0.5584;0.6522;
-98.4000;0.5600;0.6497;
-98.1000;0.5576;0.6344;
-97.8000;0.5592;0.6369;
-97.5000;0.5576;0.6319;
-97.2000;0.5592;0.6369;
-96.9000;0.5576;0.6395;
-96.6000;0.5592;0.6420;
-96.3000;0.5592;0.6497;
-96.0000;0.5600;0.6471;
-95.7000;0.5576;0.6420;
-95.4000;0.5584;0.6395;
-95.1000;0.5584;0.6420;
-94.8000;0.5576;0.6395;
-94.5000;0.5600;0.6599;
-94.2000;0.5584;0.6522;
-93.9000;0.5584;0.6446;
-93.6000;0.5592;0.6395;
-93.3000;0.5584;0.6293;
-93.0000;0.5600;0.6395;
-92.7000;0.5576;0.6446;
-92.4000;0.5600;0.6522;
-92.1000;0.5576;0.6522;
-91.8000;0.5592;0.6522;
-91.5000;0.5584;0.6471;
-91.2000;0.5592;0.6446;
-90.9000;0.5592;0.6471;
-90.6000;0.5592;0.6522;
-90.3000;0.5608;0.6548;
-90.0000;0.5608;0.6522;
-89.7000;0.5584;0.6548;
-89.4000;0.5551;0.6497;
-89.1000;0.5584;0.6522;
-88.8000;0.5617;0.6650;
-88.5000;0.5633;0.6726;
-88.2000;0.5584;0.6420;
-87.9000;0.5592;0.6420;
-87.6000;0.5649;0.6522;
-87.3000;0.5592;0.6446;
-87.0000;0.5600;0.6522;
-86.7000;0.5551;0.6344;
-86.4000;0.5576;0.6420;
-86.1000;0.5584;0.6369;
-85.8000;0.5576;0.6420;
-85.5000;0.5584;0.6471;
-85.2000;0.5608;0.6497;
-84.9000;0.5584;0.6471;
-84.6000;0.5584;0.6446;
-84.3000;0.5617;0.6497;
-84.0000;0.5592;0.6395;
-83.7000;0.5576;0.6293;
-83.4000;0.5584;0.6217;
-83.1000;0.5576;0.6191;
-82.8000;0.5592;0.6268;
-82.5000;0.5600;0.6369;
-82.2000;0.5527;0.6191;
-81.9000;0.5584;0.6344;
-81.6000;0.5592;0.6293;
-81.3000;0.5600;0.6420;
-81.0000;0.5584;0.6420;
-80.7000;0.5592;0.6446;
-80.4000;0.5625;0.6599;
-80.1000;0.5576;0.6548;
-79.8000;0.5584;0.6548;
-79.5000;0.5584;0.6624;
-79.2000;0.5584;0.6599;
-78.9000;0.5568;0.6471;
-78.6000;0.5568;0.6471;
-78.3000;0.5576;0.6369;
-78.0000;0.5592;0.6344;
-77.7000;0.5584;0.6420;
-77.4000;0.5576;0.6420;
-77.1000;0.5584;0.6446;
-76.8000;0.5576;0.6497;
-76.5000;0.5592;0.6548;
-76.2000;0.5576;0.6497;
-75.9000;0.5568;0.6548;
-75.6000;0.5560;0.6522;
-75.3000;0.5560;0.6420;
-75.0000;0.5584;0.6471;
-74.7000;0.5568;0.6420;
-74.4000;0.5584;0.6369;
-74.1000;0.5560;0.6369;
-73.8000;0.5584;0.6344;
-73.5000;0.5560;0.6344;
-73.2000;0.5592;0.6446;
-72.9000;0.5584;0.6369;
-72.6000;0.5584;0.6420;
-72.3000;0.5592;0.6369;
-72.0000;0.5576;0.6344;
-71.7000;0.5560;0.6395;
-71.4000;0.5543;0.6319;
-71.1000;0.5576;0.6369;
-70.8000;0.5608;0.6446;
-70.5000;0.5592;0.6344;
-70.2000;0.5560;0.6217;
-69.9000;0.5568;0.6166;
-69.6000;0.5551;0.6191;
-69.3000;0.5584;0.6242;
-69.0000;0.5576;0.6217;
-68.7000;0.5576;0.6268;
-68.4000;0.5568;0.6319;
-68.1000;0.5576;0.6420;
-67.8000;0.5576;0.6395;
-67.5000;0.5592;0.6369;
-67.2000;0.5576;0.6369;
-66.9000;0.5576;0.6344;
-66.6000;0.5600;0.6344;
-66.3000;0.5584;0.6395;
-66.0000;0.5576;0.6395;
-65.7000;0.5560;0.6420;
-65.4000;0.5576;0.6420;
-65.1000;0.5576;0.6293;
-64.8000;0.5576;0.6242;
-64.5000;0.5576;0.6242;
-64.2000;0.5576;0.6293;
-63.9000;0.5576;0.6369;
-63.6000;0.5592;0.6369;
-63.3000;0.5584;0.6319;
-63.0000;0.5592;0.6369;
-62.7000;0.5592;0.6293;
-62.4000;0.5584;0.6166;
-62.1000;0.5576;0.6268;
-61.8000;0.5600;0.6242;
-61.5000;0.5698;0.6446;
-61.2000;0.5592;0.6166;
-60.9000;0.5568;0.6166;
-60.6000;0.5576;0.6191;
-60.3000;0.5584;0.6166;
-60.0000;0.5584;0.6344;
-59.7000;0.5568;0.6344;
-59.4000;0.5576;0.6319;
-59.1000;0.5584;0.6344;
-58.8000;0.5592;0.6319;
-58.5000;0.5576;0.6191;
-58.2000;0.5568;0.6089;
-57.9000;0.5584;0.6089;
-57.6000;0.5600;0.6064;
-57.3000;0.5584;0.5962;
-57.0000;0.5584;0.5962;
-56.7000;0.5584;0.5962;
-56.4000;0.5592;0.6038;
-56.1000;0.5576;0.6089;
-55.8000;0.5576;0.6140;
-55.5000;0.5576;0.6089;
-55.2000;0.5592;0.6242;
-54.9000;0.5576;0.6217;
-54.6000;0.5576;0.6242;
-54.3000;0.5560;0.6268;
-54.0000;0.5576;0.6369;
-53.7000;0.5576;0.6344;
-53.4000;0.5584;0.6344;
-53.1000;0.5576;0.6369;
-52.8000;0.5584;0.6319;
-52.5000;0.5592;0.6344;
-52.2000;0.5600;0.6446;
-51.9000;0.5584;0.6369;
-51.6000;0.5576;0.6369;
-51.3000;0.5560;0.6369;
-51.0000;0.5576;0.6369;
-50.7000;0.5576;0.6395;
-50.4000;0.5584;0.6344;
-50.1000;0.5568;0.6319;
-49.8000;0.5568;0.6268;
-49.5000;0.5576;0.6369;
-49.2000;0.5543;0.6268;
-48.9000;0.5576;0.6344;
-48.6000;0.5592;0.6497;
-48.3000;0.5592;0.6573;
-48.0000;0.5592;0.6548;
-47.7000;0.5584;0.6522;
-47.4000;0.5592;0.6573;
-47.1000;0.5584;0.6573;
-46.8000;0.5576;0.6446;
-46.5000;0.5584;0.6522;
-46.2000;0.5584;0.6497;
-45.9000;0.5584;0.6446;
-45.6000;0.5584;0.6420;
-45.3000;0.5584;0.6369;
-45.0000;0.5584;0.6420;
-44.7000;0.5592;0.6420;
-44.4000;0.5527;0.6166;
-44.1000;0.5584;0.6293;
-43.8000;0.5576;0.6319;
-43.5000;0.5576;0.6268;
-43.2000;0.5592;0.6268;
-42.9000;0.5600;0.6217;
-42.6000;0.5592;0.6166;
-42.3000;0.5543;0.6089;
-42.0000;0.5560;0.6191;
-41.7000;0.5617;0.6420;
-41.4000;0.5568;0.6344;
-41.1000;0.5584;0.6446;
-40.8000;0.5527;0.6293;
-40.5000;0.5568;0.6420;
-40.2000;0.5568;0.6395;
-39.9000;0.5568;0.6369;
-39.6000;0.5560;0.6268;
-39.3000;0.5568;0.6191;
-39.0000;0.5560;0.6166;
-38.7000;0.5576;0.6166;
-38.4000;0.5576;0.6115;
-38.1000;0.5551;0.6115;
-37.8000;0.5576;0.6191;
-37.5000;0.5568;0.6140;
-37.2000;0.5576;0.6089;
-36.9000;0.5576;0.6115;
-36.6000;0.5592;0.6242;
-36.3000;0.5576;0.6319;
-36.0000;0.5576;0.6217;
-35.7000;0.5576;0.6191;
-35.4000;0.5568;0.6191;
-35.1000;0.5568;0.6166;
-34.8000;0.5584;0.6191;
-34.5000;0.5568;0.6166;
-34.2000;0.5568;0.6115;
-33.9000;0.5568;0.6140;
-33.6000;0.5584;0.6191;
-33.3000;0.5592;0.6191;
-33.0000;0.5584;0.6115;
-32.7000;0.5560;0.6013;
-32.4000;0.5576;0.6191;
-32.1000;0.5584;0.6191;
-31.8000;0.5551;0.6191;
-31.5000;0.5600;0.6293;
-31.2000;0.5576;0.6217;
-30.9000;0.5584;0.6319;
-30.6000;0.5568;0.6293;
-30.3000;0.5560;0.6319;
-30.0000;0.5560;0.6344;
-29.7000;0.5568;0.6217;
-29.4000;0.5608;0.6319;
-29.1000;0.5568;0.6166;
-28.8000;0.5535;0.6064;
-28.5000;0.5584;0.6217;
-28.2000;0.5584;0.6166;
-27.9000;0.5584;0.6166;
-27.6000;0.5576;0.6140;
-27.3000;0.5608;0.6293;
-27.0000;0.5592;0.6268;
-26.7000;0.5592;0.6293;
-26.4000;0.5568;0.6293;
-26.1000;0.5617;0.6446;
-25.8000;0.5600;0.6369;
-25.5000;0.5576;0.6344;
-25.2000;0.5584;0.6293;
-24.9000;0.5584;0.6319;
-24.6000;0.5600;0.6319;
-24.3000;0.5600;0.6268;
-24.0000;0.5584;0.6166;
-23.7000;0.5568;0.6115;
-23.4000;0.5576;0.6140;
-23.1000;0.5584;0.6242;
-22.8000;0.5584;0.6217;
-22.5000;0.5592;0.6293;
-22.2000;0.5584;0.6319;
-21.9000;0.5584;0.6293;
-21.6000;0.5568;0.6319;
-21.3000;0.5568;0.6268;
-21.0000;0.5584;0.6293;
-20.7000;0.5576;0.6166;
-20.4000;0.5551;0.6089;
-20.1000;0.5568;0.6115;
-19.8000;0.5657;0.6293;
-19.5000;0.5576;0.6166;
-19.2000;0.5568;0.6140;
-18.9000;0.5584;0.6038;
-18.6000;0.5600;0.6166;
-18.3000;0.5584;0.6089;
-18.0000;0.5592;0.6115;
-17.7000;0.5617;0.6217;
-17.4000;0.5503;0.6064;
-17.1000;0.5576;0.6217;
-16.8000;0.5617;0.6319;
-16.5000;0.5592;0.6217;
-16.2000;0.5592;0.6166;
-15.9000;0.5560;0.6089;
-15.6000;0.5617;0.6191;
-15.3000;0.5600;0.6191;
-15.0000;0.5584;0.6089;
-14.7000;0.5511;0.6013;
-14.4000;0.5584;0.6268;
-14.1000;0.5576;0.6268;
-13.8000;0.5576;0.6242;
-13.5000;0.5576;0.6217;
-13.2000;0.5592;0.6166;
-12.9000;0.5576;0.6038;
-12.6000;0.5568;0.6013;
-12.3000;0.5600;0.6115;
-12.0000;0.5568;0.5987;
-11.7000;0.5576;0.6013;
-11.4000;0.5600;0.6089;
-11.1000;0.5584;0.6140;
-10.8000;0.5576;0.6166;
-10.5000;0.5592;0.6268;
-10.2000;0.5592;0.6369;
-9.9000;0.5560;0.6268;
-9.6000;0.5576;0.6166;
-9.3000;0.5551;0.5987;
-9.0000;0.5584;0.6038;
-8.7000;0.5568;0.5987;
-8.4000;0.5576;0.5987;
-8.1000;0.5584;0.5936;
-7.8000;0.5584;0.5911;
-7.5000;0.5568;0.5834;
-7.2000;0.5560;0.5783;
-6.9000;0.5584;0.5783;
-6.6000;0.5592;0.5809;
-6.3000;0.5592;0.5707;
-6.0000;0.5568;0.5656;
-5.7000;0.5584;0.5758;
-5.4000;0.5592;0.5809;
-5.1000;0.5584;0.5809;
-4.8000;0.5584;0.5860;
-4.5000;0.5584;0.6038;
-4.2000;0.5592;0.6166;
-3.9000;0.5600;0.6115;
-3.6000;0.5608;0.6038;
-3.3000;0.5568;0.6089;
-3.0000;0.5584;0.6191;
-2.7000;0.5592;0.6268;
-2.4000;0.5576;0.6166;
-2.1000;0.5584;0.6191;
-1.8000;0.5584;0.6115;
-1.5000;0.5543;0.6038;
-1.2000;0.5576;0.6115;
-0.9000;0.5576;0.6217;
-0.6000;0.5600;0.6166;
-0.3000;0.5592;0.6115;
0.0000;0.5592;0.6115;
0.3000;0.5779;0.6268;
0.6000;0.6154;0.6854;
0.9000;0.6422;0.7287;
1.2000;0.6659;0.7720;
1.5000;0.6854;0.8204;
1.8000;0.6968;0.8382;
2.1000;0.7074;0.8561;
2.4000;0.7131;0.8662;
2.7000;0.7220;0.8892;
3.0000;0.7261;0.9019;
3.3000;0.7326;0.9248;
3.6000;0.7302;0.9223;
3.9000;0.7391;0.9427;
4.2000;0.7416;0.9478;
4.5000;0.7432;0.9503;
4.8000;0.7489;0.9631;
5.1000;0.7481;0.9631;
5.4000;0.7530;0.9733;
5.7000;0.7562;0.9733;
6.0000;0.7570;0.9656;
6.3000;0.7578;0.9682;
6.6000;0.7513;0.9503;
6.9000;0.7578;0.9631;
7.2000;0.7635;0.9758;
7.5000;0.7660;0.9758;
7.8000;0.7660;0.9758;
8.1000;0.7676;0.9809;
8.4000;0.7741;0.9809;
8.7000;0.7709;0.9682;
9.0000;0.7709;0.9605;
9.3000;0.7733;0.9682;
9.6000;0.7766;0.9784;
9.9000;0.7766;0.9707;
10.2000;0.7790;0.9682;
10.5000;0.7790;0.9707;
10.8000;0.7806;0.9784;
11.1000;0.7831;0.9784;
11.4000;0.7831;0.9758;
11.7000;0.7847;0.9860;
12.0000;0.7855;0.9809;
12.3000;0.7888;0.9834;
12.6000;0.7896;0.9885;
12.9000;0.7912;0.9885;
13.2000;0.7912;0.9936;
13.5000;0.7920;0.9987;
13.8000;0.7953;1.0013;
14.1000;0.7969;1.0038;
14.4000;0.7961;1.0115;
14.7000;0.7896;0.9911;
15.0000;0.7993;1.0038;
15.3000;0.7993;0.9936;
15.6000;0.7993;0.9860;
15.9000;0.8018;0.9860;
16.2000;0.8010;0.9809;
16.5000;0.8050;0.9834;
16.8000;0.8059;0.9834;
17.1000;0.8075;0.9860;
17.4000;0.8083;0.9885;
17.7000;0.8107;0.9911;
18.0000;0.8091;0.9885;
18.3000;0.8107;0.9911;
18.6000;0.8116;0.9860;
18.9000;0.8164;0.9911;
19.2000;0.8156;0.9936;
19.5000;0.8124;0.9834;
19.8000;0.8140;0.9860;
20.1000;0.8164;0.9809;
20.4000;0.8173;0.9809;
20.7000;0.8156;0.9656;
21.0000;0.8205;0.9707;
21.3000;0.8254;0.9834;
21.6000;0.8189;0.9631;
21.9000;0.8230;0.9758;
22.2000;0.8221;0.9758;
22.5000;0.8213;0.9784;
22.8000;0.8246;0.9809;
23.1000;0.8246;0.9707;
23.4000;0.8254;0.9784;
23.7000;0.8254;0.9758;
24.0000;0.8278;0.9809;
24.3000;0.8270;0.9733;
24.6000;0.8270;0.9631;
24.9000;0.8278;0.9682;
25.2000;0.8311;0.9758;
25.5000;0.8352;0.9885;
25.8000;0.8303;0.9834;
26.1000;0.8335;0.9936;
26.4000;0.8344;0.9911;
26.7000;0.8335;0.9962;
27.0000;0.8344;0.9860;
27.3000;0.8352;0.9860;
27.6000;0.8368;0.9809;
27.9000;0.8449;1.0064;
28.2000;0.8384;0.9809;
28.5000;0.8433;0.9885;
28.8000;0.8400;0.9682;
29.1000;0.8409;0.9682;
29.4000;0.8400;0.9758;
29.7000;0.8409;0.9682;
30.0000;0.8425;0.9809;
30.3000;0.8433;0.9631;
30.6000;0.8433;0.9758;
30.9000;0.8409;0.9758;
31.2000;0.8441;0.9834;
31.5000;0.8441;0.9758;
31.8000;0.8474;0.9758;
32.1000;0.8457;0.9656;
32.4000;0.8441;0.9580;
32.7000;0.8457;0.9682;
33.0000;0.8457;0.9631;
33.3000;0.8466;0.9554;
33.6000;0.8457;0.9503;
33.9000;0.8474;0.9503;
34.2000;0.8474;0.9529;
34.5000;0.8482;0.9529;
34.8000;0.8474;0.9478;
35.1000;0.8482;0.9554;
35.4000;0.8523;0.9580;
35.7000;0.8474;0.9376;
36.0000;0.8506;0.9503;
36.3000;0.8498;0.9503;
36.6000;0.8506;0.9580;
36.9000;0.8531;0.9529;
37.2000;0.8531;0.9503;
37.5000;0.8523;0.9478;
37.8000;0.8563;0.9605;
38.1000;0.8531;0.9554;
38.4000;0.8547;0.9605;
38.7000;0.8523;0.9554;
39.0000;0.8555;0.9707;
39.3000;0.8580;0.9758;
39.6000;0.8531;0.9605;
39.9000;0.8539;0.9554;
40.2000;0.8539;0.9605;
40.5000;0.8563;0.9707;
40.8000;0.8628;0.9962;
41.1000;0.8555;0.9784;
41.4000;0.8539;0.9682;
41.7000;0.8531;0.9605;
42.0000;0.8563;0.9707;
42.3000;0.8563;0.9784;
42.6000;0.8604;0.9809;
42.9000;0.8571;0.9707;
43.2000;0.8620;0.9784;
43.5000;0.8604;0.9656;
43.8000;0.8547;0.9401;
44.1000;0.8604;0.9554;
44.4000;0.8718;0.9834;
44.7000;0.8588;0.9478;
45.0000;0.8612;0.9554;
45.3000;0.8604;0.9554;
45.6000;0.8620;0.9580;
45.9000;0.8604;0.9503;
46.2000;0.8612;0.9478;
46.5000;0.8604;0.9503;
46.8000;0.8604;0.9529;
47.1000;0.8612;0.9554;
47.4000;0.8547;0.9350;
47.7000;0.8645;0.9656;
48.0000;0.8620;0.9605;
48.3000;0.8637;0.9631;
48.6000;0.8612;0.9605;
48.9000;0.8653;0.9733;
49.2000;0.8628;0.9631;
49.5000;0.8628;0.9656;
49.8000;0.8653;0.9656;
50.1000;0.8628;0.9478;
50.4000;0.8669;0.9554;
50.7000;0.8637;0.9529;
51.0000;0.8628;0.9580;
51.3000;0.8628;0.9605;
51.6000;0.8637;0.9631;
51.9000;0.8653;0.9682;
52.2000;0.8653;0.9733;
52.5000;0.8653;0.9809;
52.8000;0.8669;0.9809;
53.1000;0.8661;0.9784;
53.4000;0.8669;0.9733;
53.7000;0.8677;0.9707;
54.0000;0.8677;0.9707;
54.3000;0.8759;0.9885;
54.6000;0.8677;0.9682;
54.9000;0.8677;0.9682;
55.2000;0.8677;0.9580;
55.5000;0.8669;0.9554;
55.8000;0.8685;0.9605;
56.1000;0.8677;0.9707;
56.4000;0.8677;0.9682;
56.7000;0.8694;0.9809;
57.0000;0.8645;0.9707;
57.3000;0.8694;0.9834;
57.6000;0.8685;0.9809;
57.9000;0.8685;0.9809;
58.2000;0.8677;0.9834;
58.5000;0.8694;0.9733;
58.8000;0.8694;0.9656;
59.1000;0.8694;0.9733;
59.4000;0.8718;0.9707;
59.7000;0.8807;0.9885;
60.0000;0.8718;0.9580;
60.3000;0.8702;0.9427;
60.6000;0.8702;0.9401;
60.9000;0.8718;0.9427;
61.2000;0.8718;0.9401;
61.5000;0.8694;0.9401;
61.8000;0.8718;0.9529;
62.1000;0.8702;0.9452;
62.4000;0.8710;0.9401;
62.7000;0.8710;0.9401;
63.0000;0.8710;0.9350;
63.3000;0.8702;0.9478;
63.6000;0.8742;0.9580;
63.9000;0.8734;0.9529;
64.2000;0.8669;0.9376;
64.5000;0.8759;0.9580;
64.8000;0.8775;0.9580;
65.1000;0.8759;0.9529;
65.4000;0.8726;0.9427;
65.7000;0.8742;0.9503;
66.0000;0.8767;0.9656;
66.3000;0.8767;0.9682;
66.6000;0.8734;0.9656;
66.9000;0.8742;0.9580;
67.2000;0.8734;0.9656;
67.5000;0.8734;0.9554;
67.8000;0.8734;0.9427;
68.1000;0.8726;0.9452;
68.4000;0.8726;0.9503;
68.7000;0.8759;0.9605;
69.0000;0.8702;0.9554;
69.3000;0.8734;0.9605;
69.6000;0.8751;0.9733;
69.9000;0.8759;0.9656;
70.2000;0.8742;0.9554;
70.5000;0.8742;0.9503;
70.8000;0.8751;0.9427;
71.1000;0.8726;0.9401;
71.4000;0.8734;0.9554;
71.7000;0.8759;0.9580;
72.0000;0.8734;0.9656;
72.3000;0.8759;0.9631;
72.6000;0.8848;0.9784;
72.9000;0.8775;0.9580;
73.2000;0.8775;0.9631;
73.5000;0.8710;0.9478;
73.8000;0.8767;0.9605;
74.1000;0.8734;0.9554;
74.4000;0.8734;0.9529;
74.7000;0.8767;0.9656;
75.0000;0.8767;0.9656;
75.3000;0.8759;0.9656;
75.6000;0.8751;0.9707;
75.9000;0.8759;0.9682;
76.2000;0.8775;0.9682;
76.5000;0.8742;0.9605;
76.8000;0.8742;0.9605;
77.1000;0.8751;0.9631;
77.4000;0.8742;0.9656;
77.7000;0.8742;0.9580;
78.0000;0.8759;0.9605;
78.3000;0.8816;0.9682;
78.6000;0.8799;0.9554;
78.9000;0.8742;0.9452;
79.2000;0.8767;0.9529;
79.5000;0.8783;0.9503;
79.8000;0.8767;0.9503;
80.1000;0.8791;0.9529;
80.4000;0.8783;0.9554;
80.7000;0.8734;0.9427;
81.0000;0.8807;0.9580;
81.3000;0.8791;0.9452;
81.6000;0.8734;0.9274;
81.9000;0.8783;0.9427;
82.2000;0.8775;0.9401;
82.5000;0.8791;0.9401;
82.8000;0.8824;0.9503;
83.1000;0.8799;0.9376;
83.4000;0.8791;0.9274;
83.7000;0.8807;0.9350;
84.0000;0.8783;0.9350;
84.3000;0.8783;0.9350;
84.6000;0.8807;0.9350;
84.9000;0.8799;0.9376;
85.2000;0.8799;0.9452;
85.5000;0.8791;0.9452;
85.8000;0.8791;0.9427;
86.1000;0.8799;0.9376;
86.4000;0.8775;0.9350;
86.7000;0.8775;0.9427;
87.0000;0.8783;0.9376;
87.3000;0.8783;0.9427;
87.6000;0.8816;0.9401;
87.9000;0.8799;0.9299;
88.2000;0.8791;0.9299;
88.5000;0.8791;0.9223;
88.8000;0.8807;0.9248;
89.1000;0.8824;0.9172;
89.4000;0.8799;0.9121;
89.7000;0.8791;0.9121;
90.0000;0.8783;0.9172;
90.3000;0.8840;0.9274;
90.6000;0.8824;0.9147;
90.9000;0.8816;0.9121;
91.2000;0.8799;0.9096;
91.5000;0.8897;0.9248;
91.8000;0.8816;0.9070;
92.1000;0.8791;0.9019;
92.4000;0.8807;0.9121;
92.7000;0.8807;0.9223;
93.0000;0.8799;0.9248;
93.3000;0.8807;0.9274;
93.6000;0.8783;0.9172;
93.9000;0.8775;0.9147;
94.2000;0.8824;0.9172;
94.5000;0.8799;0.9070;
94.8000;0.8824;0.9172;
95.1000;0.8816;0.9198;
95.4000;0.8832;0.9172;
95.7000;0.8816;0.9121;
96.0000;0.8905;0.9401;
96.3000;0.8832;0.9274;
96.6000;0.8799;0.9172;
96.9000;0.8848;0.9274;
97.2000;0.8807;0.9198;
97.5000;0.8824;0.9350;
97.8000;0.8816;0.9427;
98.1000;0.8807;0.9376;
98.4000;0.8848;0.9401;
98.7000;0.8807;0.9299;
99.0000;0.8840;0.9427;
99.3000;0.8799;0.9274;
99.6000;0.8799;0.9198;
99.9000;0.8816;0.9172;
100.2000;0.8816;0.9070;
100.5000;0.8767;0.8968;
100.8000;0.8824;0.9045;
101.1000;0.8816;0.9070;
101.4000;0.8791;0.9198;
101.7000;0.8824;0.9299;
102.0000;0.8816;0.9376;
102.3000;0.8816;0.9325;
102.6000;0.8824;0.9350;
102.9000;0.8742;0.9096;
103.2000;0.8807;0.9223;
103.5000;0.8905;0.9452;
103.8000;0.8807;0.9198;
104.1000;0.8816;0.9198;
104.4000;0.8848;0.9198;
104.7000;0.8824;0.9045;
105.0000;0.8840;0.9070;
105.3000;0.8832;0.9070;
105.6000;0.8799;0.8994;
105.9000;0.8840;0.9019;
106.2000;0.8832;0.9096;
106.5000;0.8824;0.9223;
106.8000;0.8856;0.9478;
107.1000;0.8816;0.9325;
107.4000;0.8824;0.9299;
107.7000;0.8824;0.9299;
108.0000;0.8824;0.9248;
108.3000;0.8848;0.9248;
108.6000;0.8832;0.9248;
108.9000;0.8824;0.9198;
109.2000;0.8840;0.9223;
109.5000;0.8856;0.9147;
109.8000;0.8824;0.9045;
110.1000;0.8840;0.9096;
110.4000;0.8856;0.9121;
110.7000;0.8840;0.8968;
111.0000;0.8824;0.8994;
111.3000;0.8832;0.8994;
111.6000;0.8824;0.9096;
111.9000;0.8799;0.8994;
112.2000;0.8840;0.9045;
112.5000;0.8824;0.8994;
112.8000;0.8775;0.8815;
113.1000;0.8856;0.9019;
113.4000;0.8848;0.8994;
113.7000;0.8832;0.9019;
114.0000;0.8832;0.8994;
114.3000;0.8832;0.8968;
114.6000;0.8856;0.9070;
114.9000;0.8856;0.9019;
115.2000;0.8864;0.9045;
115.5000;0.8824;0.8994;
115.8000;0.8856;0.9121;
116.1000;0.8840;0.9096;
116.4000;0.8840;0.9121;
116.7000;0.8832;0.9121;
117.0000;0.8848;0.9223;
117.3000;0.8856;0.9198;
117.6000;0.8864;0.9121;
117.9000;0.8840;0.9121;
118.2000;0.8856;0.9248;
118.5000;0.8832;0.9223;
118.8000;0.8832;0.9198;
119.1000;0.8832;0.9147;
119.4000;0.8856;0.9198;
119.7000;0.8840;0.9147;
120.0000;0.8856;0.9248;
120.3000;0.8848;0.9248;
120.6000;0.8864;0.9325;
120.9000;0.8824;0.9198;
121.2000;0.8840;0.9248;
121.5000;0.8832;0.9198;
121.8000;0.8848;0.9198;
122.1000;0.8848;0.9172;
122.4000;0.8848;0.9121;
122.7000;0.8889;0.9121;
123.0000;0.8848;0.9172;
123.3000;0.8864;0.9223;
123.6000;0.8848;0.9274;
123.9000;0.8848;0.9223;
124.2000;0.8824;0.9019;
124.5000;0.8848;0.8968;
124.8000;0.8832;0.8943;
125.1000;0.8856;0.8994;
125.4000;0.8856;0.8968;
125.7000;0.8864;0.8892;
126.0000;0.8856;0.8917;
126.3000;0.8864;0.9019;
126.6000;0.8840;0.8994;
126.9000;0.8864;0.9121;
127.2000;0.8856;0.9070;
127.5000;0.8864;0.9019;
127.8000;0.8848;0.9019;
128.1000;0.8856;0.9070;
128.4000;0.8840;0.9096;
128.7000;0.8864;0.9121;
129.0000;0.8856;0.9019;
129.3000;0.8856;0.8917;
129.6000;0.8856;0.8917;
129.9000;0.8864;0.8917;
130.2000;0.8864;0.8866;
130.5000;0.8864;0.8841;
130.8000;0.8881;0.9045;
131.1000;0.8905;0.9096;
131.4000;0.8856;0.8943;
131.7000;0.8881;0.8917;
132.0000;0.8856;0.8892;
132.3000;0.8873;0.8917;
132.6000;0.8864;0.8968;
132.9000;0.8856;0.8917;
133.2000;0.8840;0.8994;
133.5000;0.8856;0.9070;
133.8000;0.8864;0.9045;
134.1000;0.8864;0.9070;
134.4000;0.8856;0.9045;
134.7000;0.8856;0.9045;
135.0000;0.8881;0.9121;
135.3000;0.8897;0.9223;
135.6000;0.8840;0.9045;
135.9000;0.8775;0.8943;
136.2000;0.8913;0.9070;
136.5000;0.8840;0.8994;
136.8000;0.8856;0.9019;
137.1000;0.8864;0.9096;
137.4000;0.8856;0.9019;
137.7000;0.8816;0.8968;
138.0000;0.8840;0.9070;
138.3000;0.8864;0.9121;
138.6000;0.8832;0.9045;
138.9000;0.8832;0.9096;
139.2000;0.8864;0.9096;
139.5000;0.8864;0.9121;
139.8000;0.8856;0.9070;
140.1000;0.8864;0.9070;
140.4000;0.8930;0.9299;
140.7000;0.8856;0.9096;
141.0000;0.8864;0.9070;
141.3000;0.8873;0.9121;
141.6000;0.8824;0.9019;
141.9000;0.8864;0.9172;
142.2000;0.8864;0.9045;
142.5000;0.8873;0.9147;
142.8000;0.8864;0.9172;
143.1000;0.8897;0.9274;
143.4000;0.8856;0.9172;
143.7000;0.8864;0.9223;
144.0000;0.8881;0.9223;
144.3000;0.8864;0.9248;
144.6000;0.8864;0.9147;
144.9000;0.8856;0.9096;
145.2000;0.8889;0.9223;
145.5000;0.8873;0.9248;
145.8000;0.8873;0.9147;
146.1000;0.8873;0.9172;
146.4000;0.8889;0.9198;
146.7000;0.8864;0.9198;
147.0000;0.8881;0.9198;
147.3000;0.8881;0.9147;
147.6000;0.8864;0.9147;
147.9000;0.8873;0.9045;
148.2000;0.8856;0.9019;
148.5000;0.8881;0.9045;
148.8000;0.8864;0.8943;
149.1000;0.8873;0.9019;
149.4000;0.8864;0.9019;
149.7000;0.8848;0.8968;
150.0000;0.8873;0.8968;
150.3000;0.8873;0.8994;
150.6000;0.8897;0.9070;
150.9000;0.8881;0.9045;
151.2000;0.8897;0.9096;
151.5000;0.8889;0.9070;
151.8000;0.8881;0.9045;
152.1000;0.8889;0.9045;
152.4000;0.8889;0.9070;
152.7000;0.8799;0.8841;
153.0000;0.8881;0.9019;
153.3000;0.8873;0.8994;
153.6000;0.8864;0.8994;
153.9000;0.8897;0.9045;
154.2000;0.8873;0.9019;
154.5000;0.8881;0.9070;
154.8000;0.8897;0.9045;
155.1000;0.8881;0.9070;
155.4000;0.8889;0.9045;
155.7000;0.8905;0.9070;
156.0000;0.8889;0.9045;
156.3000;0.8881;0.8994;
156.6000;0.8897;0.8943;
156.9000;0.8913;0.9045;
157.2000;0.8873;0.8917;
157.5000;0.8873;0.8968;
157.8000;0.8913;0.8994;
158.1000;0.8881;0.8943;
158.4000;0.8881;0.8943;
158.7000;0.8856;0.8943;
159.0000;0.8881;0.9045;
159.3000;0.8848;0.9019;
159.6000;0.8873;0.9045;
159.9000;0.8864;0.8994;
160.2000;0.8881;0.9096;
160.5000;0.8873;0.9070;
160.8000;0.8864;0.9147;
161.1000;0.8881;0.9121;
161.4000;0.8864;0.9096;
161.7000;0.8938;0.9274;
162.0000;0.8889;0.9172;
162.3000;0.8913;0.9121;
162.6000;0.8889;0.8994;
162.9000;0.8905;0.9019;
163.2000;0.8873;0.8943;
163.5000;0.8864;0.8866;
163.8000;0.8889;0.8866;
164.1000;0.8889;0.8994;
164.4000;0.8881;0.8943;
164.7000;0.8881;0.9045;
165.0000;0.8864;0.9045;
165.3000;0.8873;0.9070;
165.6000;0.8881;0.9070;
165.9000;0.8881;0.9070;
166.2000;0.8881;0.9019;
166.5000;0.8873;0.8994;
166.8000;0.8881;0.9121;
167.1000;0.8905;0.9147;
167.4000;0.8889;0.9096;
167.7000;0.8897;0.8994;
168.0000;0.8897;0.8943;
168.3000;0.8905;0.8968;
168.6000;0.8897;0.8943;
168.9000;0.8881;0.8866;
169.2000;0.8962;0.9147;
169.5000;0.8881;0.8943;
169.8000;0.8889;0.8917;
170.1000;0.8889;0.8892;
170.4000;0.8881;0.8943;
170.7000;0.8832;0.8688;
171.0000;0.8897;0.8841;
171.3000;0.8881;0.8866;
171.6000;0.8889;0.8764;
171.9000;0.8889;0.8764;
172.2000;0.8897;0.8764;
172.5000;0.8905;0.8739;
172.8000;0.8881;0.8739;
173.1000;0.8897;0.8815;
173.4000;0.8897;0.8764;
173.7000;0.8873;0.8688;
174.0000;0.8905;0.8790;
174.3000;0.8889;0.8815;
174.6000;0.8905;0.8866;
174.9000;0.8873;0.8790;
175.2000;0.8873;0.8688;
175.5000;0.8905;0.8688;
175.8000;0.8832;0.8484;
176.1000;0.8905;0.8713;
176.4000;0.8873;0.8688;
176.7000;0.8889;0.8764;
177.0000;0.8913;0.8790;
177.3000;0.8905;0.8713;
177.6000;0.8889;0.8713;
177.9000;0.8905;0.8688;
178.2000;0.8897;0.8790;
178.5000;0.8905;0.8790;
178.8000;0.8864;0.8739;
179.1000;0.8913;0.8815;
179.4000;0.8864;0.8713;
179.7000;0.8905;0.8739;
180.0000;0.8913;0.8841;
180.3000;0.8881;0.8764;
180.6000;0.8897;0.8815;
180.9000;0.8938;0.8866;
181.2000;0.8889;0.8815;
181.5000;0.8881;0.8790;
181.8000;0.8889;0.8790;
182.1000;0.8889;0.8790;
182.4000;0.8905;0.8739;
182.7000;0.8889;0.8688;
183.0000;0.8889;0.8713;
183.3000;0.8897;0.8790;
183.6000;0.8913;0.8790;
183.9000;0.8889;0.8713;
184.2000;0.8897;0.8764;
184.5000;0.8889;0.8841;
184.8000;0.8889;0.8815;
185.1000;0.8848;0.8688;
185.4000;0.8873;0.8764;
185.7000;0.8889;0.8917;
186.0000;0.8873;0.8841;
186.3000;0.8913;0.8943;
186.6000;0.8930;0.8968;
186.9000;0.8913;0.8917;
187.2000;0.8921;0.8892;
187.5000;0.8897;0.8815;
187.8000;0.8913;0.8764;
188.1000;0.8864;0.8637;
188.4000;0.8962;0.8943;
188.7000;0.8954;0.8841;
189.0000;0.8905;0.8688;
189.3000;0.8905;0.8713;
189.6000;0.8889;0.8815;
189.9000;0.8897;0.8790;
190.2000;0.8897;0.8841;
190.5000;0.8864;0.8790;
190.8000;0.8921;0.8866;
191.1000;0.8889;0.8764;
191.4000;0.8856;0.8713;
191.7000;0.8938;0.8841;
192.0000;0.8913;0.8790;
192.3000;0.8930;0.8917;
192.6000;0.8905;0.8968;
192.9000;0.8897;0.8994;
193.2000;0.8889;0.9019;
193.5000;0.8897;0.9019;
193.8000;0.8889;0.8968;
194.1000;0.8905;0.8968;
194.4000;0.8954;0.9070;
194.7000;0.8897;0.8866;
195.0000;0.8864;0.8841;
195.3000;0.8881;0.8917;
195.6000;0.8889;0.8968;
195.9000;0.8873;0.8917;
196.2000;0.8905;0.8994;
196.5000;0.8913;0.8943;
196.8000;0.8897;0.8917;
197.1000;0.8921;0.9019;
197.4000;0.8913;0.9096;
197.7000;0.8905;0.9121;
198.0000;0.8897;0.9172;
198.3000;0.8897;0.9019;
198.6000;0.8840;0.8892;
198.9000;0.8897;0.8968;
199.2000;0.8913;0.8943;
199.5000;0.8897;0.8892;
199.8000;0.8946;0.8943;
200.1000;0.8930;0.8739;
200.4000;0.8905;0.8637;
200.7000;0.8881;0.8662;
201.0000;0.8913;0.8790;
201.3000;0.8921;0.8917;
201.6000;0.8921;0.8790;
201.9000;0.8897;0.8739;
202.2000;0.8897;0.8764;
202.5000;0.8913;0.8917;
202.8000;0.8930;0.8866;
203.1000;0.8930;0.8815;
203.4000;0.8897;0.8764;
203.7000;0.8889;0.8815;
204.0000;0.8905;0.8917;
204.3000;0.8840;0.8764;
204.6000;0.8881;0.8841;
204.9000;0.8889;0.8790;
205.2000;0.8905;0.8917;
205.5000;0.8897;0.8943;
205.8000;0.8889;0.8892;
206.1000;0.8873;0.8866;
206.4000;0.8889;0.8994;
206.7000;0.8905;0.8994;
207.0000;0.8905;0.8968;
207.3000;0.8905;0.8917;
207.6000;0.8889;0.8815;
207.9000;0.8897;0.8790;
208.2000;0.8913;0.8841;
208.5000;0.8889;0.8739;
208.8000;0.8905;0.8739;
209.1000;0.8905;0.8739;
209.4000;0.8905;0.8739;
209.7000;0.8889;0.8713;
210.0000;0.8881;0.8688;
210.3000;0.8897;0.8637;
210.6000;0.8897;0.8739;
210.9000;0.8897;0.8662;
211.2000;0.8913;0.8637;
211.5000;0.8913;0.8662;
211.8000;0.8946;0.8790;
212.1000;0.8946;0.8815;
212.4000;0.8905;0.8662;
212.7000;0.8921;0.8764;
213.0000;0.8873;0.8713;
213.3000;0.8930;0.8866;
213.6000;0.8905;0.8815;
213.9000;0.8897;0.8790;
214.2000;0.8905;0.8815;
214.5000;0.8889;0.8866;
214.8000;0.8938;0.8943;
215.1000;0.8889;0.8841;
215.4000;0.8889;0.8917;
215.7000;0.8897;0.8968;
216.0000;0.8889;0.8943;
216.3000;0.8930;0.8994;
216.6000;0.8913;0.8892;
216.9000;0.8897;0.8866;
217.2000;0.8913;0.8790;
217.5000;0.8946;0.8841;
217.8000;0.8913;0.8764;
218.1000;0.8856;0.8586;
218.4000;0.8889;0.8688;
218.7000;0.8913;0.8662;
219.0000;0.8970;0.8764;
219.3000;0.8881;0.8637;
219.6000;0.8864;0.8484;
219.9000;0.8897;0.8484;
220.2000;0.8913;0.8535;
220.5000;0.8889;0.8535;
220.8000;0.8873;0.8586;
221.1000;0.8905;0.8662;
221.4000;0.8897;0.8713;
221.7000;0.8913;0.8866;
222.0000;0.8921;0.8943;
222.3000;0.8873;0.8688;
222.6000;0.8897;0.8739;
222.9000;0.8864;0.8637;
223.2000;0.8905;0.8764;
223.5000;0.8881;0.8662;
223.8000;0.8905;0.8739;
224.1000;0.8889;0.8790;
224.4000;0.8905;0.8764;
224.7000;0.8889;0.8790;
225.0000;0.8905;0.8815;
225.3000;0.8938;0.8790;
225.6000;0.8905;0.8764;
225.9000;0.8889;0.8586;
226.2000;0.8905;0.8688;
226.5000;0.8897;0.8586;
226.8000;0.8897;0.8612;
227.1000;0.8881;0.8586;
227.4000;0.8930;0.8866;
227.7000;0.8897;0.8841;
228.0000;0.8913;0.8841;
228.3000;0.8913;0.8790;
228.6000;0.8889;0.8841;
228.9000;0.8897;0.8892;
229.2000;0.8905;0.8866;
229.5000;0.8889;0.8790;
229.8000;0.8864;0.8713;
230.1000;0.8856;0.8612;
230.4000;0.8905;0.8688;
230.7000;0.8881;0.8637;
231.0000;0.8905;0.8662;
231.3000;0.8897;0.8688;
231.6000;0.8889;0.8790;
231.9000;0.8897;0.8841;
232.2000;0.8889;0.8943;
232.5000;0.8897;0.8968;
232.8000;0.8905;0.8994;
233.1000;0.8913;0.9070;
233.4000;0.8856;0.8917;
233.7000;0.8913;0.8968;
234.0000;0.8881;0.8917;
234.3000;0.8913;0.8994;
234.6000;0.8913;0.8917;
234.9000;0.8905;0.8892;
235.2000;0.8897;0.8815;
235.5000;0.8889;0.8739;
235.8000;0.8946;0.8917;
236.1000;0.8889;0.8892;
236.4000;0.8913;0.8866;
236.7000;0.8905;0.8790;
237.0000;0.8905;0.8713;
237.3000;0.8905;0.8612;
237.6000;0.8913;0.8637;
237.9000;0.8897;0.8637;
238.2000;0.8930;0.8739;
238.5000;0.8930;0.8739;
238.8000;0.8921;0.8586;
239.1000;0.8905;0.8586;
239.4000;0.8913;0.8586;
239.7000;0.8913;0.8561;
240.0000;0.8913;0.8586;
240.3000;0.8938;0.8637;
240.6000;0.8913;0.8510;
240.9000;0.8905;0.8484;
241.2000;0.8889;0.8408;
241.5000;0.8873;0.8535;
241.8000;0.8905;0.8764;
242.1000;0.8889;0.8637;
242.4000;0.8905;0.8688;
242.7000;0.8897;0.8688;
243.0000;0.8921;0.8662;
243.3000;0.8921;0.8510;
243.6000;0.8938;0.8484;
243.9000;0.8930;0.8484;
244.2000;0.8921;0.8484;
244.5000;0.8905;0.8535;
244.8000;0.8856;0.8535;
245.1000;0.8930;0.8612;
245.4000;0.8889;0.8510;
245.7000;0.8881;0.8484;
246.0000;0.8905;0.8612;
246.3000;0.8889;0.8561;
246.6000;0.8897;0.8586;
246.9000;0.8905;0.8637;
247.2000;0.8881;0.8612;
247.5000;0.8889;0.8662;
247.8000;0.8905;0.8662;
248.1000;0.8897;0.8612;
248.4000;0.8897;0.8637;
248.7000;0.8913;0.8637;
249.0000;0.8905;0.8662;
249.3000;0.8913;0.8662;
249.6000;0.8913;0.8688;
249.9000;0.8921;0.8612;
250.2000;0.8930;0.8561;
250.5000;0.8913;0.8459;
250.8000;0.8921;0.8612;
251.1000;0.8913;0.8586;
251.4000;0.8938;0.8713;
251.7000;0.8930;0.8662;
252.0000;0.8897;0.8637;
252.3000;0.8938;0.8713;
252.6000;0.8921;0.8713;
252.9000;0.8921;0.8637;
253.2000;0.8913;0.8662;
253.5000;0.8946;0.8688;
253.8000;0.8905;0.8535;
254.1000;0.8905;0.8637;
254.4000;0.8881;0.8561;
254.7000;0.8913;0.8637;
255.0000;0.8938;0.8637;
255.3000;0.8978;0.8713;
255.6000;0.8889;0.8459;
255.9000;0.8905;0.8510;
256.2000;0.8930;0.8637;
256.5000;0.8905;0.8662;
256.8000;0.8889;0.8586;
257.1000;0.8889;0.8586;
257.4000;0.8881;0.8561;
257.7000;0.8930;0.8713;
258.0000;0.8913;0.8662;
258.3000;0.8921;0.8739;
258.6000;0.8913;0.8713;
258.9000;0.8913;0.8637;
259.2000;0.8921;0.8637;
259.5000;0.8921;0.8612;
259.8000;0.8913;0.8637;
260.1000;0.8930;0.8662;
260.4000;0.8913;0.8637;
260.7000;0.8889;0.8535;
261.0000;0.8897;0.8535;
261.3000;0.8913;0.8662;
261.6000;0.8889;0.8662;
261.9000;0.8930;0.8713;
262.2000;0.8897;0.8688;
262.5000;0.8913;0.8586;
262.8000;0.8913;0.8586;
263.1000;0.8913;0.8510;
263.4000;0.8905;0.8535;
263.7000;0.8905;0.8459;
264.0000;0.8970;0.8713;
264.3000;0.8905;0.8561;
264.6000;0.8889;0.8561;
264.9000;0.8905;0.8688;
265.2000;0.8905;0.8688;
265.5000;0.8921;0.8739;
265.8000;0.8938;0.8739;
266.1000;0.8930;0.8790;
266.4000;0.8913;0.8688;
266.7000;0.8913;0.8662;
267.0000;0.8913;0.8561;
267.3000;0.8897;0.8561;
267.6000;0.8913;0.8510;
267.9000;0.8921;0.8433;
268.2000;0.8921;0.8484;
268.5000;0.8913;0.8484;
268.8000;0.8913;0.8484;
269.1000;0.8913;0.8484;
269.4000;0.8913;0.8561;
269.7000;0.8889;0.8586;
270.0000;0.8905;0.8637;
270.3000;0.8930;0.8662;
270.6000;0.8921;0.8688;
270.9000;0.8921;0.8688;
271.2000;0.8913;0.8637;
271.5000;0.8905;0.8637;
271.8000;0.8905;0.8612;
272.1000;0.8897;0.8612;
272.4000;0.8905;0.8612;
272.7000;0.8938;0.8612;
273.0000;0.8921;0.8484;
273.3000;0.8913;0.8535;
273.6000;0.8913;0.8662;
273.9000;0.8946;0.8739;
274.2000;0.8905;0.8662;
274.5000;0.8921;0.8713;
274.8000;0.8913;0.8688;
275.1000;0.8930;0.8637;
275.4000;0.8921;0.8535;
275.7000;0.8889;0.8510;
276.0000;0.8897;0.8561;
276.3000;0.8889;0.8433;
276.6000;0.8913;0.8510;
276.9000;0.8921;0.8535;
277.2000;0.8897;0.8459;
277.5000;0.8889;0.8433;
277.8000;0.8905;0.8459;
278.1000;0.8889;0.8484;
278.4000;0.8905;0.8535;
278.7000;0.8905;0.8561;
279.0000;0.8921;0.8561;
279.3000;0.8913;0.8612;
279.6000;0.8889;0.8586;
279.9000;0.8913;0.8561;
280.2000;0.8930;0.8612;
280.5000;0.8913;0.8561;
280.8000;0.8913;0.8586;
281.1000;0.8897;0.8612;
281.4000;0.8913;0.8637;
281.7000;0.8905;0.8662;
282.0000;0.8881;0.8586;
282.3000;0.8913;0.8612;
282.6000;0.8913;0.8586;
282.9000;0.8930;0.8535;
283.2000;0.8913;0.8484;
283.5000;0.8921;0.8510;
283.8000;0.8913;0.8535;
284.1000;0.8921;0.8586;
284.4000;0.8921;0.8535;
284.7000;0.8856;0.8408;
285.0000;0.8905;0.8561;
285.3000;0.8905;0.8688;
285.6000;0.8889;0.8662;
285.9000;0.8905;0.8612;
286.2000;0.8905;0.8561;
286.5000;0.8946;0.8688;
286.8000;0.8913;0.8612;
287.1000;0.8921;0.8612;
287.4000;0.8905;0.8535;
287.7000;0.8897;0.8433;
288.0000;0.8897;0.8535;
288.3000;0.8905;0.8662;
288.6000;0.8938;0.8688;
288.9000;0.8921;0.8612;
289.2000;0.8930;0.8688;
289.5000;0.8913;0.8688;
289.8000;0.8921;0.8764;
290.1000;0.8905;0.8764;
290.4000;0.8921;0.8764;
290.7000;0.8938;0.8764;
291.0000;0.8897;0.8662;
291.3000;0.8921;0.8688;
291.6000;0.8954;0.8739;
291.9000;0.8913;0.8637;
292.2000;0.8913;0.8586;
292.5000;0.8905;0.8612;
292.8000;0.8946;0.8713;
293.1000;0.8930;0.8764;
293.4000;0.8913;0.8790;
293.7000;0.8905;0.8739;
294.0000;0.8913;0.8739;
294.3000;0.8921;0.8713;
294.6000;0.8856;0.8561;
294.9000;0.8921;0.8815;
295.2000;0.8905;0.8764;
295.5000;0.8930;0.8815;
295.8000;0.8913;0.8866;
296.1000;0.8938;0.8815;
296.4000;0.8897;0.8713;
296.7000;0.8921;0.8713;
297.0000;0.8946;0.8688;
297.3000;0.8897;0.8535;
297.6000;0.8921;0.8662;
297.9000;0.8946;0.8713;
298.2000;0.8873;0.8561;
298.5000;0.8913;0.8561;
298.8000;0.8913;0.8612;
299.1000;0.8864;0.8561;
299.4000;0.8913;0.8713;
299.7000;0.8913;0.8688;
300.0000;0.8946;0.8815;
300.3000;0.8905;0.8637;
300.6000;0.8921;0.8612;
300.9000;0.8905;0.8612;
301.2000;0.8913;0.8637;
301.5000;0.8897;0.8535;
301.8000;0.8921;0.8561;
302.1000;0.8921;0.8561;
302.4000;0.8913;0.8535;
302.7000;0.8921;0.8637;
303.0000;0.8913;0.8662;
303.3000;0.8913;0.8688;
303.6000;0.8905;0.8637;
303.9000;0.8913;0.8688;
304.2000;0.8913;0.8739;
304.5000;0.8921;0.8739;
304.8000;0.8921;0.8790;
305.1000;0.8881;0.8688;
305.4000;0.8905;0.8739;
305.7000;0.8921;0.8764;
306.0000;0.8921;0.8815;
306.3000;0.8905;0.8790;
306.6000;0.8913;0.8790;
306.9000;0.8913;0.8866;
307.2000;0.8905;0.8841;
307.5000;0.8856;0.8713;
307.8000;0.8905;0.8968;
308.1000;0.8913;0.8968;
308.4000;0.8913;0.8943;
308.7000;0.8913;0.8866;
309.0000;0.8913;0.8815;
309.3000;0.8921;0.8764;
309.6000;0.8921;0.8739;
309.9000;0.8905;0.8739;
310.2000;0.8913;0.8764;
310.5000;0.8905;0.8688;
310.8000;0.8913;0.8713;
311.1000;0.8840;0.8535;
311.4000;0.8913;0.8815;
311.7000;0.8913;0.8713;
312.0000;0.8840;0.8535;
312.3000;0.8913;0.8790;
312.6000;0.8921;0.8892;
312.9000;0.8905;0.8815;
313.2000;0.8921;0.8764;
313.5000;0.8905;0.8713;
313.8000;0.8913;0.8713;
314.1000;0.8889;0.8739;
314.4000;0.8930;0.8764;
314.7000;0.8913;0.8713;
315.0000;0.8889;0.8688;
315.3000;0.8840;0.8586;
315.6000;0.8905;0.8790;
315.9000;0.8930;0.8841;
316.2000;0.8921;0.8764;
316.5000;0.8913;0.8688;
316.8000;0.8913;0.8637;
317.1000;0.8946;0.8815;
317.4000;0.8889;0.8688;
317.7000;0.8897;0.8764;
318.0000;0.8905;0.8815;
318.3000;0.8881;0.8713;
318.6000;0.8921;0.8841;
318.9000;0.8913;0.8841;
319.2000;0.8881;0.8815;
319.5000;0.8905;0.8764;
319.8000;0.8905;0.8739;
320.1000;0.8897;0.8662;
320.4000;0.8905;0.8739;
320.7000;0.8913;0.8764;
321.0000;0.8905;0.8739;
321.3000;0.8921;0.8662;
321.6000;0.8913;0.8637;
321.9000;0.8913;0.8484;
322.2000;0.8856;0.8382;
322.5000;0.8954;0.8662;
322.8000;0.8930;0.8586;
323.1000;0.8905;0.8510;
323.4000;0.8889;0.8561;
323.7000;0.8995;0.8866;
324.0000;0.8889;0.8662;
324.3000;0.8905;0.8662;
324.6000;0.8897;0.8637;
324.9000;0.8905;0.8688;
325.2000;0.8889;0.8688;
325.5000;0.8962;0.8790;
325.8000;0.8905;0.8688;
326.1000;0.8938;0.8790;
326.4000;0.8946;0.8739;
326.7000;0.8897;0.8637;
327.0000;0.8913;0.8764;
327.3000;0.8921;0.8764;
327.6000;0.8921;0.8815;
327.9000;0.8921;0.8713;
328.2000;0.8913;0.8662;
328.5000;0.8905;0.8662;
328.8000;0.8913;0.8713;
329.1000;0.8913;0.8764;
329.4000;0.8913;0.8815;
329.7000;0.8954;0.8892;
330.0000;0.8921;0.8739;
330.3000;0.8921;0.8713;
330.6000;0.8897;0.8662;
330.9000;0.8905;0.8637;
331.2000;0.8930;0.8637;
331.5000;0.8913;0.8586;
331.8000;0.8897;0.8510;
332.1000;0.8913;0.8459;
332.4000;0.8921;0.8561;
332.7000;0.8921;0.8612;
333.0000;0.8905;0.8535;
333.3000;0.8905;0.8484;
333.6000;0.8921;0.8586;
333.9000;0.8913;0.8662;
334.2000;0.8921;0.8637;
334.5000;0.8921;0.8662;
334.8000;0.8921;0.8662;
335.1000;0.8913;0.8739;
335.4000;0.8905;0.8764;
335.7000;0.8905;0.8764;
336.0000;0.8897;0.8739;
336.3000;0.8921;0.8790;
336.6000;0.8921;0.8688;
336.9000;0.8889;0.8561;
337.2000;0.8921;0.8739;
337.5000;0.8864;0.8586;
337.8000;0.8921;0.8688;
338.1000;0.8905;0.8612;
338.4000;0.8913;0.8662;
338.7000;0.8921;0.8662;
339.0000;0.8905;0.8637;
339.3000;0.8921;0.8612;
339.6000;0.8905;0.8713;
339.9000;0.8921;0.8841;
340.2000;0.8921;0.8917;
340.5000;0.8913;0.8968;
340.8000;0.8913;0.8917;
341.1000;0.8905;0.8866;
341.4000;0.8905;0.8841;
341.7000;0.8921;0.8815;
342.0000;0.8913;0.8713;
342.3000;0.8921;0.8739;
342.6000;0.8905;0.8688;
342.9000;0.8897;0.8662;
343.2000;0.8913;0.8662;
343.5000;0.8913;0.8688;
343.8000;0.8873;0.8535;
344.1000;0.8905;0.8637;
344.4000;0.8930;0.8612;
344.7000;0.8913;0.8561;
345.0000;0.8913;0.8510;
345.3000;0.8873;0.8382;
345.6000;0.8897;0.8433;
345.9000;0.8897;0.8408;
346.2000;0.8905;0.8408;
346.5000;0.8905;0.8408;
346.8000;0.8946;0.8662;
347.1000;0.8889;0.8510;
347.4000;0.8930;0.8561;
347.7000;0.8913;0.8433;
348.0000;0.8905;0.8382;
348.3000;0.8946;0.8612;
348.6000;0.8889;0.8408;
348.9000;0.8905;0.8535;
349.2000;0.8889;0.8459;
349.5000;0.8897;0.8561;
349.8000;0.8913;0.8586;
350.1000;0.8897;0.8561;
350.4000;0.8881;0.8561;
350.7000;0.8881;0.8535;
351.0000;0.8889;0.8612;
351.3000;0.8905;0.8612;
351.6000;0.8905;0.8612;
351.9000;0.8913;0.8612;
352.2000;0.8913;0.8739;
352.5000;0.8897;0.8637;
352.8000;0.8905;0.8612;
353.1000;0.8913;0.8637;
353.4000;0.8905;0.8637;
353.7000;0.8921;0.8637;
354.0000;0.8913;0.8637;
354.3000;0.8921;0.8815;
354.6000;0.8938;0.8917;
354.9000;0.8905;0.8892;
355.2000;0.8930;0.8943;
355.5000;0.8954;0.8994;
355.8000;0.8913;0.8943;
356.1000;0.8905;0.8943;
356.4000;0.8921;0.8968;
356.7000;0.8921;0.8994;
357.0000;0.8921;0.8943;
357.3000;0.8889;0.8866;
357.6000;0.8913;0.8943;
357.9000;0.8905;0.8866;
358.2000;0.8921;0.8866;
358.5000;0.8889;0.8790;
358.8000;0.8905;0.8892;
359.1000;0.8889;0.8968;
359.4000;0.8913;0.8968;
359.7000;0.8897;0.8790;
360.0000;0.8913;0.8790;
360.3000;0.8897;0.8739;
360.6000;0.8905;0.8662;
360.9000;0.8913;0.8713;
361.2000;0.8905;0.8688;
361.5000;0.8848;0.8535;
361.8000;0.8897;0.8713;
362.1000;0.8873;0.8637;
362.4000;0.8913;0.8713;
362.7000;0.8921;0.8713;
363.0000;0.8905;0.8790;
363.3000;0.8930;0.8815;
363.6000;0.8930;0.8764;
363.9000;0.8913;0.8688;
364.2000;0.8905;0.8586;
364.5000;0.8938;0.8688;
364.8000;0.8938;0.8561;
365.1000;0.8905;0.8433;
365.4000;0.8905;0.8433;
365.7000;0.8905;0.8382;
366.0000;0.8905;0.8357;
366.3000;0.8946;0.8510;
366.6000;0.8897;0.8510;
366.9000;0.8905;0.8561;
367.2000;0.8881;0.8510;
367.5000;0.8889;0.8484;
367.8000;0.8832;0.8408;
368.1000;0.8889;0.8612;
368.4000;0.8905;0.8662;
368.7000;0.8905;0.8662;
369.0000;0.8930;0.8764;
369.3000;0.8921;0.8764;
369.6000;0.8913;0.8688;
369.9000;0.8954;0.8713;
370.2000;0.8938;0.8612;
370.5000;0.8913;0.8612;
370.8000;0.8905;0.8586;
371.1000;0.8889;0.8535;
371.4000;0.8913;0.8637;
371.7000;0.8905;0.8612;
372.0000;0.8913;0.8713;
372.3000;0.8873;0.8662;
372.6000;0.8905;0.8662;
372.9000;0.8889;0.8612;
373.2000;0.8905;0.8637;
373.5000;0.8897;0.8612;
373.8000;0.8905;0.8612;
374.1000;0.8897;0.8535;
374.4000;0.8905;0.8510;
374.7000;0.8889;0.8484;
375.0000;0.8897;0.8662;
375.3000;0.8905;0.8764;
375.6000;0.8954;0.8917;
375.9000;0.8913;0.8688;
376.2000;0.8897;0.8790;
376.5000;0.8856;0.8662;
376.8000;0.8889;0.8637;
377.1000;0.8864;0.8612;
377.4000;0.8889;0.8764;
377.7000;0.8889;0.8739;
378.0000;0.8905;0.8790;
378.3000;0.8905;0.8815;
378.6000;0.8881;0.8713;
378.9000;0.8905;0.8815;
379.2000;0.8930;0.8841;
379.5000;0.8913;0.8739;
379.8000;0.8897;0.8713;
380.1000;0.8905;0.8688;
380.4000;0.8864;0.8459;
380.7000;0.8889;0.8484;
381.0000;0.8913;0.8561;
381.3000;0.8897;0.8637;
381.6000;0.8897;0.8484;
381.9000;0.8897;0.8484;
382.2000;0.8864;0.8408;
382.5000;0.8905;0.8662;
382.8000;0.8881;0.8688;
383.1000;0.8897;0.8637;
383.4000;0.8905;0.8637;
383.7000;0.8938;0.8739;
384.0000;0.8897;0.8739;
384.3000;0.8913;0.8815;
384.6000;0.8889;0.8841;
384.9000;0.8905;0.8841;
385.2000;0.8897;0.8841;
385.5000;0.8881;0.8866;
385.8000;0.8913;0.8892;
386.1000;0.8913;0.8790;
386.4000;0.8970;0.8968;
386.7000;0.8913;0.8662;
387.0000;0.8913;0.8637;
387.3000;0.8913;0.8713;
387.6000;0.8897;0.8688;
387.9000;0.8913;0.8739;
388.2000;0.8905;0.8662;
388.5000;0.8913;0.8739;
388.8000;0.8921;0.8790;
389.1000;0.8921;0.8815;
389.4000;0.8905;0.8790;
389.7000;0.8889;0.8790;
390.0000;0.8905;0.8841;
390.3000;0.8897;0.8764;
390.6000;0.8889;0.8688;
390.9000;0.8905;0.8790;
391.2000;0.8905;0.8841;
391.5000;0.8913;0.8764;
391.8000;0.8905;0.8764;
392.1000;0.8889;0.8662;
392.4000;0.8921;0.8713;
392.7000;0.8905;0.8612;
393.0000;0.8905;0.8510;
393.3000;0.8905;0.8510;
393.6000;0.8913;0.8535;
393.9000;0.8921;0.8612;
394.2000;0.8921;0.8561;
394.5000;0.8913;0.8561;
394.8000;0.8905;0.8586;
395.1000;0.8905;0.8637;
395.4000;0.8897;0.8662;
395.7000;0.8905;0.8637;
396.0000;0.8921;0.8688;
396.3000;0.8897;0.8688;
396.6000;0.8905;0.8790;
396.9000;0.8921;0.8841;
397.2000;0.8873;0.8612;
397.5000;0.8856;0.8484;
397.8000;0.8856;0.8561;
398.1000;0.8856;0.8637;
398.4000;0.8889;0.8739;
398.7000;0.8905;0.8790;
399.0000;0.8921;0.8841;
399.3000;0.8905;0.8790;
399.6000;0.8897;0.8739;
399.9000;0.8905;0.8739;
400.2000;0.8913;0.8815;
400.5000;0.8930;0.8790;
400.8000;0.8905;0.8688;
401.1000;0.8905;0.8739;
401.4000;0.8905;0.8764;
401.7000;0.8905;0.8764;
402.0000;0.8921;0.8790;
402.3000;0.8897;0.8612;
402.6000;0.8905;0.8662;
402.9000;0.8905;0.8637;
403.2000;0.8889;0.8535;
403.5000;0.8897;0.8586;
403.8000;0.8897;0.8662;
404.1000;0.8905;0.8688;
404.4000;0.8897;0.8764;
404.7000;0.8905;0.8790;
405.0000;0.8897;0.8764;
405.3000;0.8921;0.8790;
405.6000;0.8913;0.8764;
405.9000;0.8905;0.8688;
406.2000;0.8954;0.8790;
406.5000;0.8905;0.8688;
406.8000;0.8913;0.8662;
407.1000;0.8897;0.8713;
407.4000;0.8897;0.8713;
407.7000;0.8873;0.8713;
408.0000;0.8881;0.8764;
408.3000;0.8913;0.8866;
408.6000;0.8954;0.9045;
408.9000;0.8873;0.8688;
409.2000;0.8897;0.8764;
409.5000;0.8864;0.8637;
409.8000;0.8897;0.8637;
410.1000;0.8864;0.8535;
410.4000;0.8881;0.8662;
410.7000;0.8889;0.8662;
411.0000;0.8897;0.8713;
411.3000;0.8913;0.8662;
411.6000;0.8921;0.8612;
411.9000;0.8921;0.8586;
412.2000;0.8905;0.8586;
412.5000;0.8913;0.8561;
412.8000;0.8913;0.8586;
413.1000;0.8921;0.8510;
413.4000;0.8921;0.8561;
413.7000;0.8905;0.8612;
414.0000;0.8913;0.8586;
414.3000;0.8905;0.8459;
414.6000;0.8905;0.8484;
414.9000;0.8889;0.8408;
415.2000;0.8905;0.8433;
415.5000;0.8913;0.8510;
415.8000;0.8897;0.8535;
416.1000;0.8816;0.8357;
416.4000;0.8881;0.8637;
416.7000;0.8913;0.8612;
417.0000;0.8905;0.8535;
417.3000;0.8897;0.8535;
417.6000;0.8889;0.8561;
417.9000;0.8897;0.8612;
418.2000;0.8913;0.8662;
418.5000;0.8905;0.8637;
418.8000;0.8905;0.8688;
419.1000;0.8930;0.8790;
419.4000;0.8905;0.8764;
419.7000;0.8889;0.8688;
420.0000;0.8881;0.8662;
420.3000;0.8889;0.8637;
420.6000;0.8897;0.8688;
420.9000;0.8905;0.8713;
421.2000;0.8897;0.8841;
421.5000;0.8881;0.8764;
421.8000;0.8921;0.8892;
422.1000;0.8913;0.8892;
422.4000;0.8889;0.8815;
422.7000;0.8881;0.8637;
423.0000;0.8889;0.8535;
423.3000;0.8921;0.8586;
423.6000;0.8897;0.8510;
423.9000;0.8897;0.8535;
424.2000;0.8913;0.8510;
424.5000;0.8913;0.8586;
424.8000;0.8889;0.8662;
425.1000;0.8897;0.8662;
425.4000;0.8897;0.8637;
425.7000;0.8897;0.8612;
426.0000;0.8889;0.8586;
426.3000;0.8873;0.8535;
426.6000;0.8873;0.8510;
426.9000;0.8889;0.8612;
427.2000;0.8905;0.8713;
427.5000;0.8905;0.8815;
427.8000;0.8897;0.8815;
428.1000;0.8913;0.8841;
428.4000;0.8921;0.8815;
428.7000;0.8897;0.8688;
429.0000;0.8905;0.8688;
429.3000;0.8905;0.8662;
429.6000;0.8913;0.8739;
429.9000;0.8905;0.8662;
430.2000;0.8938;0.8688;
430.5000;0.8913;0.8612;
430.8000;0.8905;0.8484;
431.1000;0.8897;0.8459;
431.4000;0.8897;0.8433;
431.7000;0.8881;0.8382;
432.0000;0.8930;0.8612;
432.3000;0.8897;0.8586;
432.6000;0.8930;0.8713;
432.9000;0.8938;0.8688;
433.2000;0.8905;0.8662;
433.5000;0.8897;0.8688;
433.8000;0.8970;0.8892;
434.1000;0.8840;0.8561;
434.4000;0.8864;0.8688;
434.7000;0.8897;0.8739;
435.0000;0.8905;0.8739;
435.3000;0.8889;0.8713;
435.6000;0.8897;0.8713;
435.9000;0.8889;0.8841;
436.2000;0.8889;0.8841;
436.5000;0.8897;0.8713;
436.8000;0.8897;0.8739;
437.1000;0.8905;0.8713;
437.4000;0.8897;0.8815;
437.7000;0.8889;0.8739;
438.0000;0.8889;0.8739;
438.3000;0.8873;0.8586;
438.6000;0.8913;0.8713;
438.9000;0.8889;0.8688;
439.2000;0.8913;0.8764;
439.5000;0.8889;0.8739;
439.8000;0.8840;0.8586;
440.1000;0.8848;0.8713;
440.4000;0.8889;0.8662;
440.7000;0.8881;0.8586;
441.0000;0.8905;0.8637;
441.3000;0.8905;0.8612;
441.6000;0.8905;0.8535;
441.9000;0.8816;0.8204;
442.2000;0.8897;0.8408;
442.5000;0.8856;0.8382;
442.8000;0.8978;0.8713;
443.1000;0.8970;0.8688;
443.4000;0.8946;0.8612;
443.7000;0.8930;0.8586;
444.0000;0.8897;0.8510;
444.3000;0.8897;0.8357;
444.6000;0.8873;0.8280;
444.9000;0.8913;0.8331;
445.2000;0.8905;0.8331;
445.5000;0.8938;0.8459;
445.8000;0.8905;0.8459;
446.1000;0.8913;0.8612;
446.4000;0.8905;0.8612;
446.7000;0.8930;0.8688;
447.0000;0.8905;0.8662;
447.3000;0.8897;0.8612;
447.6000;0.8905;0.8612;
447.9000;0.8889;0.8713;
448.2000;0.8905;0.8688;
448.5000;0.8897;0.8637;
448.8000;0.8889;0.8612;
449.1000;0.8889;0.8612;
449.4000;0.8873;0.8662;
449.7000;0.8905;0.8739;
450.0000;0.8905;0.8764;
450.3000;0.8905;0.8713;
450.6000;0.8889;0.8662;
450.9000;0.8905;0.8739;
451.2000;0.8905;0.8815;
451.5000;0.8889;0.8764;
451.8000;0.8889;0.8790;
452.1000;0.8889;0.8739;
452.4000;0.8897;0.8739;
452.7000;0.8897;0.8637;
453.0000;0.8897;0.8662;
453.3000;0.8881;0.8612;
453.6000;0.8864;0.8510;
453.9000;0.8889;0.8662;
454.2000;0.8889;0.8662;
454.5000;0.8889;0.8637;
454.8000;0.8905;0.8637;
455.1000;0.8864;0.8612;
455.4000;0.8873;0.8662;
455.7000;0.8913;0.8790;
456.0000;0.8889;0.8637;
456.3000;0.8913;0.8662;
456.6000;0.8897;0.8535;
456.9000;0.8897;0.8561;
457.2000;0.8905;0.8586;
457.5000;0.8954;0.8764;
457.8000;0.8905;0.8586;
458.1000;0.8897;0.8535;
458.4000;0.8930;0.8612;
458.7000;0.8897;0.8484;
459.0000;0.8913;0.8510;
459.3000;0.8905;0.8459;
459.6000;0.8897;0.8408;
459.9000;0.8905;0.8535;
460.2000;0.8832;0.8280;
460.5000;0.8889;0.8433;
460.8000;0.8921;0.8612;
461.1000;0.8889;0.8561;
461.4000;0.8889;0.8484;
461.7000;0.8921;0.8561;
462.0000;0.8889;0.8433;
462.3000;0.8905;0.8459;
462.6000;0.8889;0.8459;
462.9000;0.8897;0.8459;
463.2000;0.8921;0.8561;
463.5000;0.8873;0.8586;
463.8000;0.8864;0.8739;
464.1000;0.8864;0.8739;
464.4000;0.8881;0.8662;
464.7000;0.8881;0.8637;
465.0000;0.8897;0.8612;
465.3000;0.8881;0.8561;
465.6000;0.8905;0.8662;
465.9000;0.8889;0.8612;
466.2000;0.8873;0.8510;
466.5000;0.8930;0.8612;
466.8000;0.8889;0.8433;
467.1000;0.8905;0.8484;
467.4000;0.8889;0.8459;
467.7000;0.8897;0.8561;
468.0000;0.8897;0.8535;
468.3000;0.8889;0.8561;
468.6000;0.8905;0.8535;
468.9000;0.8897;0.8484;
469.2000;0.8889;0.8408;
469.5000;0.8970;0.8510;
469.8000;0.8897;0.8357;
470.1000;0.8889;0.8331;
470.4000;0.8889;0.8408;
470.7000;0.8873;0.8382;
471.0000;0.8864;0.8433;
471.3000;0.8873;0.8535;
471.6000;0.8864;0.8612;
471.9000;0.8905;0.8612;
472.2000;0.8921;0.8739;
472.5000;0.8897;0.8764;
472.8000;0.8897;0.8713;
473.1000;0.8897;0.8713;
473.4000;0.8881;0.8586;
473.7000;0.8873;0.8612;
474.0000;0.8897;0.8688;
474.3000;0.8856;0.8662;
474.6000;0.8864;0.8662;
474.9000;0.8897;0.8739;
475.2000;0.8897;0.8841;
475.5000;0.8873;0.8790;
475.8000;0.8873;0.8739;
476.1000;0.8881;0.8713;
476.4000;0.8881;0.8739;
476.7000;0.8889;0.8841;
477.0000;0.8889;0.8841;
477.3000;0.8897;0.8764;
477.6000;0.8897;0.8688;
477.9000;0.8905;0.8790;
478.2000;0.8913;0.8713;
478.5000;0.8881;0.8688;
478.8000;0.8889;0.8612;
479.1000;0.8897;0.8561;
479.4000;0.8921;0.8535;
479.7000;0.8848;0.8408;
480.0000;0.8873;0.8484;
480.3000;0.8930;0.8561;
480.6000;0.8889;0.8510;
480.9000;0.8889;0.8561;
481.2000;0.8881;0.8382;
481.5000;0.8897;0.8484;
481.8000;0.8889;0.8484;
482.1000;0.8897;0.8459;
482.4000;0.8864;0.8382;
482.7000;0.8889;0.8459;
483.0000;0.8889;0.8484;
483.3000;0.8897;0.8535;
483.6000;0.8905;0.8535;
483.9000;0.8897;0.8484;
484.2000;0.8921;0.8535;
484.5000;0.8905;0.8535;
484.8000;0.8913;0.8561;
485.1000;0.8881;0.8535;
485.4000;0.8905;0.8662;
485.7000;0.8864;0.8637;
486.0000;0.8889;0.8612;
486.3000;0.8897;0.8688;
486.6000;0.8889;0.8637;
486.9000;0.8905;0.8662;
487.2000;0.8889;0.8662;
487.5000;0.8881;0.8688;
487.8000;0.8921;0.8815;
488.1000;0.8897;0.8764;
488.4000;0.8921;0.8841;
488.7000;0.8881;0.8764;
489.0000;0.8905;0.8790;
489.3000;0.8987;0.8968;
489.6000;0.8905;0.8662;
489.9000;0.8897;0.8612;
490.2000;0.8881;0.8612;
490.5000;0.8832;0.8510;
490.8000;0.8864;0.8561;
491.1000;0.8864;0.8484;
491.4000;0.8881;0.8612;
491.7000;0.8881;0.8612;
492.0000;0.8889;0.8637;
492.3000;0.8889;0.8586;
492.6000;0.8954;0.8764;
492.9000;0.8905;0.8586;
493.2000;0.8897;0.8688;
493.5000;0.8930;0.8739;
493.8000;0.8889;0.8764;
494.1000;0.8889;0.8713;
494.4000;0.8897;0.8637;
494.7000;0.8905;0.8637;
495.0000;0.8897;0.8561;
495.3000;0.8881;0.8535;
495.6000;0.8897;0.8510;
495.9000;0.8864;0.8357;
496.2000;0.8897;0.8535;
496.5000;0.8881;0.8535;
496.8000;0.8889;0.8586;
497.1000;0.8881;0.8561;
497.4000;0.8905;0.8459;
497.7000;0.8897;0.8433;
498.0000;0.8897;0.8484;
498.3000;0.8913;0.8586;
498.6000;0.8913;0.8561;
498.9000;0.8897;0.8586;
499.2000;0.8889;0.8586;
499.5000;0.8873;0.8586;
499.8000;0.8856;0.8561;
500.1000;0.8881;0.8739;
500.4000;0.8913;0.8688;
500.7000;0.8897;0.8612;
501.0000;0.8881;0.8612;
501.3000;0.8905;0.8713;
501.6000;0.8889;0.8612;
501.9000;0.8881;0.8561;
502.2000;0.8921;0.8662;
502.5000;0.8889;0.8612;
502.8000;0.8873;0.8561;
503.1000;0.8881;0.8561;
503.4000;0.8897;0.8535;
503.7000;0.8905;0.8535;
504.0000;0.8897;0.8510;
504.3000;0.8881;0.8612;
504.6000;0.8881;0.8637;
504.9000;0.8905;0.8713;
505.2000;0.8856;0.8561;
505.5000;0.8889;0.8688;
505.8000;0.8873;0.8790;
506.1000;0.8889;0.8713;
506.4000;0.8873;0.8612;
506.7000;0.8905;0.8662;
507.0000;0.8889;0.8637;
507.3000;0.8905;0.8688;
507.6000;0.8897;0.8662;
507.9000;0.8897;0.8586;
508.2000;0.8864;0.8535;
508.5000;0.8881;0.8637;
508.8000;0.8913;0.8790;
509.1000;0.8889;0.8688;
509.4000;0.8889;0.8612;
509.7000;0.8881;0.8561;
510.0000;0.8881;0.8586;
510.3000;0.8864;0.8535;
510.6000;0.8881;0.8561;
510.9000;0.8897;0.8535;
511.2000;0.8897;0.8739;
511.5000;0.8881;0.8713;
511.8000;0.8897;0.8739;
512.1000;0.8897;0.8688;
512.4000;0.8905;0.8739;
512.7000;0.8881;0.8739;
513.0000;0.8873;0.8688;
513.3000;0.8889;0.8764;
513.6000;0.8905;0.8739;
513.9000;0.8881;0.8662;
514.2000;0.8897;0.8688;
514.5000;0.8897;0.8713;
514.8000;0.8889;0.8637;
515.1000;0.8913;0.8688;
515.4000;0.8897;0.8637;
515.7000;0.8881;0.8662;
516.0000;0.8864;0.8612;
516.3000;0.8897;0.8637;
516.6000;0.8889;0.8637;
516.9000;0.8873;0.8637;
517.2000;0.8889;0.8713;
517.5000;0.8881;0.8841;
517.8000;0.8881;0.8866;
518.1000;0.8881;0.8841;
518.4000;0.8881;0.8790;
518.7000;0.8889;0.8866;
519.0000;0.8905;0.8892;
519.3000;0.8897;0.8892;
519.6000;0.8889;0.8790;
519.9000;0.8881;0.8790;
520.2000;0.8889;0.8866;
520.5000;0.8938;0.8968;
520.8000;0.8873;0.8739;
521.1000;0.8873;0.8662;
521.4000;0.8897;0.8764;
521.7000;0.8889;0.8637;
522.0000;0.8913;0.8662;
522.3000;0.8905;0.8662;
522.6000;0.8905;0.8637;
522.9000;0.8897;0.8637;
523.2000;0.8930;0.8739;
523.5000;0.8889;0.8688;
523.8000;0.8889;0.8790;
524.1000;0.8881;0.8739;
524.4000;0.8905;0.8662;
524.7000;0.8889;0.8662;
525.0000;0.8889;0.8637;
525.3000;0.8889;0.8662;
525.6000;0.8873;0.8688;
525.9000;0.8930;0.8764;
526.2000;0.8873;0.8637;
526.5000;0.8905;0.8688;
526.8000;0.8897;0.8612;
527.1000;0.8889;0.8637;
527.4000;0.8889;0.8637;
527.7000;0.8889;0.8637;
528.0000;0.8881;0.8637;
528.3000;0.8881;0.8637;
528.6000;0.8897;0.8739;
528.9000;0.8889;0.8764;
529.2000;0.8897;0.8662;
529.5000;0.8897;0.8637;
529.8000;0.8881;0.8561;
530.1000;0.8856;0.8510;
530.4000;0.8881;0.8535;
530.7000;0.8897;0.8535;
531.0000;0.8873;0.8484;
531.3000;0.8905;0.8510;
531.6000;0.8889;0.8586;
531.9000;0.8881;0.8561;
532.2000;0.8873;0.8637;
532.5000;0.8848;0.8637;
532.8000;0.8864;0.8662;
533.1000;0.8873;0.8561;
533.4000;0.8848;0.8535;
533.7000;0.8881;0.8561;
534.0000;0.8897;0.8561;
534.3000;0.8889;0.8637;
534.6000;0.8889;0.8688;
534.9000;0.8881;0.8739;
535.2000;0.8897;0.8790;
535.5000;0.8897;0.8790;
535.8000;0.8864;0.8713;
536.1000;0.8897;0.8815;
536.4000;0.8913;0.8815;
536.7000;0.8897;0.8739;
537.0000;0.8873;0.8688;
537.3000;0.8889;0.8612;
537.6000;0.8856;0.8586;
537.9000;0.8897;0.8662;
538.2000;0.8889;0.8662;
538.5000;0.8897;0.8586;
538.8000;0.8873;0.8535;
539.1000;0.8881;0.8612;
539.4000;0.8889;0.8586;
539.7000;0.8864;0.8637;
540.0000;0.8791;0.8408;
540.3000;0.8881;0.8739;
540.6000;0.8897;0.8739;
540.9000;0.8889;0.8764;
541.2000;0.8873;0.8662;
541.5000;0.8824;0.8612;
541.8000;0.8873;0.8688;
542.1000;0.8881;0.8688;
542.4000;0.8881;0.8688;
542.7000;0.8913;0.8739;
543.0000;0.8856;0.8688;
543.3000;0.8881;0.8790;
543.6000;0.8848;0.8739;
543.9000;0.8881;0.8815;
544.2000;0.8889;0.8841;
544.5000;0.8897;0.8841;
544.8000;0.8881;0.8764;
545.1000;0.8864;0.8790;
545.4000;0.8873;0.8815;
545.7000;0.8889;0.8815;
546.0000;0.8913;0.8866;
546.3000;0.8848;0.8739;
546.6000;0.8873;0.8841;
546.9000;0.8881;0.8841;
547.2000;0.8889;0.8764;
547.5000;0.8873;0.8790;
547.8000;0.8864;0.8790;
548.1000;0.8856;0.8739;
548.4000;0.8856;0.8764;
548.7000;0.8881;0.8739;
549.0000;0.8848;0.8662;
549.3000;0.8864;0.8637;
549.6000;0.8873;0.8688;
549.9000;0.8889;0.8688;
550.2000;0.8889;0.8739;
550.5000;0.8881;0.8790;
550.8000;0.8889;0.8790;
551.1000;0.8889;0.8739;
551.4000;0.8889;0.8688;
551.7000;0.8864;0.8612;
552.0000;0.8873;0.8688;
552.3000;0.8881;0.8688;
552.6000;0.8873;0.8662;
552.9000;0.8873;0.8561;
553.2000;0.8873;0.8612;
553.5000;0.8864;0.8662;
553.8000;0.8889;0.8612;
554.1000;0.8881;0.8586;
554.4000;0.8905;0.8612;
554.7000;0.8897;0.8561;
555.0000;0.8889;0.8510;
555.3000;0.8873;0.8408;
555.6000;0.8889;0.8561;
555.9000;0.8881;0.8484;
556.2000;0.8897;0.8535;
556.5000;0.8889;0.8637;
556.8000;0.8889;0.8713;
557.1000;0.8873;0.8637;
557.4000;0.8905;0.8688;
557.7000;0.8889;0.8612;
558.0000;0.8889;0.8561;
558.3000;0.8881;0.8612;
558.6000;0.8881;0.8739;
558.9000;0.8881;0.8739;
559.2000;0.8848;0.8637;
559.5000;0.8881;0.8790;
559.8000;0.8881;0.8790;
560.1000;0.8889;0.8764;
560.4000;0.8913;0.8739;
560.7000;0.8897;0.8713;
561.0000;0.8881;0.8688;
561.3000;0.8881;0.8739;
561.6000;0.8799;0.8535;
561.9000;0.8881;0.8739;
562.2000;0.8889;0.8790;
562.5000;0.8881;0.8866;
562.8000;0.8897;0.8790;
563.1000;0.8856;0.8790;
563.4000;0.8889;0.8866;
563.7000;0.8897;0.8841;
564.0000;0.8881;0.8713;
564.3000;0.8881;0.8612;
564.6000;0.8913;0.8586;
564.9000;0.8905;0.8561;
565.2000;0.8905;0.8637;
565.5000;0.8889;0.8586;
565.8000;0.8889;0.8535;
566.1000;0.8905;0.8612;
566.4000;0.8873;0.8561;
566.7000;0.8873;0.8561;
567.0000;0.8905;0.8713;
567.3000;0.8881;0.8586;
567.6000;0.8889;0.8612;
567.9000;0.8889;0.8535;
568.2000;0.8873;0.8535;
568.5000;0.8905;0.8764;
568.8000;0.8897;0.8815;
569.1000;0.8889;0.8892;
569.4000;0.8873;0.8815;
569.7000;0.8864;0.8841;
570.0000;0.8881;0.8841;
570.3000;0.8881;0.8841;
570.6000;0.8897;0.8841;
570.9000;0.8889;0.8790;
571.2000;0.8905;0.8790;
571.5000;0.8913;0.8841;
571.8000;0.8889;0.8764;
572.1000;0.8881;0.8790;
572.4000;0.8848;0.8764;
572.7000;0.8856;0.8841;
573.0000;0.8889;0.8917;
573.3000;0.8873;0.8866;
573.6000;0.8881;0.8968;
573.9000;0.8889;0.9045;
574.2000;0.8881;0.9121;
574.5000;0.8881;0.9096;
574.8000;0.8905;0.9121;
575.1000;0.8889;0.9019;
575.4000;0.8889;0.8968;
575.7000;0.8881;0.8866;
576.0000;0.8889;0.8866;
576.3000;0.8881;0.8892;
576.6000;0.8905;0.8866;
576.9000;0.8889;0.8790;
577.2000;0.8864;0.8739;
577.5000;0.8889;0.8841;
577.8000;0.8832;0.8713;
578.1000;0.8873;0.8866;
578.4000;0.8881;0.8841;
578.7000;0.8856;0.8866;
579.0000;0.8873;0.8917;
579.3000;0.8897;0.8994;
579.6000;0.8889;0.8841;
579.9000;0.8816;0.8688;
580.2000;0.8881;0.8892;
580.5000;0.8889;0.8917;
580.8000;0.8873;0.8815;
581.1000;0.8832;0.8739;
581.4000;0.8897;0.8841;
581.7000;0.8873;0.8815;
582.0000;0.8881;0.8764;
582.3000;0.8897;0.8739;
582.6000;0.8881;0.8662;
582.9000;0.8913;0.8790;
583.2000;0.8913;0.8841;
583.5000;0.8873;0.8739;
583.8000;0.8881;0.8815;
584.1000;0.8881;0.8892;
584.4000;0.8881;0.8943;
584.7000;0.8897;0.8917;
585.0000;0.8873;0.8917;
585.3000;0.8881;0.8892;
585.6000;0.8921;0.8994;
585.9000;0.8881;0.8943;
586.2000;0.8873;0.8841;
586.5000;0.8897;0.8943;
586.8000;0.8881;0.8943;
587.1000;0.8848;0.8790;
587.4000;0.8864;0.8917;
587.7000;0.8889;0.8943;
588.0000;0.8905;0.9019;
588.3000;0.8897;0.9045;
588.6000;0.8889;0.9019;
588.9000;0.8897;0.8917;
589.2000;0.8881;0.8841;
589.5000;0.8873;0.8841;
589.8000;0.8881;0.8739;
590.1000;0.8897;0.8815;
590.4000;0.8881;0.8662;
590.7000;0.8889;0.8790;
591.0000;0.8889;0.8866;
591.3000;0.8881;0.8866;
591.6000;0.8897;0.8841;
591.9000;0.8897;0.8790;
592.2000;0.8881;0.8790;
592.5000;0.8889;0.8815;
592.8000;0.8889;0.8892;
593.1000;0.8889;0.8841;
593.4000;0.8897;0.8866;
593.7000;0.8921;0.8815;
594.0000;0.8881;0.8739;
594.3000;0.8954;0.9019;
594.6000;0.8897;0.8917;
594.9000;0.8864;0.8790;
595.2000;0.8889;0.8815;
595.5000;0.8881;0.8841;
595.8000;0.8873;0.8815;
596.1000;0.8873;0.8790;
596.4000;0.8881;0.8713;
596.7000;0.8873;0.8637;
597.0000;0.8881;0.8739;
597.3000;0.8881;0.8713;
597.6000;0.8864;0.8790;
597.9000;0.8864;0.8841;
598.2000;0.8873;0.8815;
598.5000;0.8864;0.8790;
598.8000;0.8873;0.8790;
599.1000;0.8873;0.8790;
599.4000;0.8889;0.8866;
599.7000;0.8864;0.8866;
600.0000;0.8864;0.8866;
600.3000;0.8864;0.8713;
600.6000;0.8807;0.8459;
600.9000;0.8816;0.8331;
601.2000;0.8759;0.8127;
601.5000;0.8694;0.7924;
601.8000;0.8645;0.7720;
602.1000;0.8555;0.7516;
602.4000;0.8498;0.7287;
602.7000;0.8417;0.7057;
603.0000;0.8384;0.7032;
603.3000;0.8319;0.6854;
603.6000;0.8262;0.6726;
603.9000;0.8205;0.6624;
604.2000;0.8173;0.6548;
604.5000;0.8164;0.6497;
604.8000;0.8099;0.6319;
605.1000;0.8059;0.6319;
605.4000;0.8010;0.6395;
605.7000;0.7961;0.6369;
606.0000;0.7953;0.6446;
606.3000;0.7912;0.6395;
606.6000;0.7937;0.6446;
606.9000;0.7831;0.6242;
607.2000;0.7806;0.6217;
607.5000;0.7774;0.6242;
607.8000;0.7749;0.6191;
608.1000;0.7749;0.6268;
608.4000;0.7700;0.6115;
608.7000;0.7660;0.6089;
609.0000;0.7595;0.5962;
609.3000;0.7619;0.6013;
609.6000;0.7586;0.5885;
609.9000;0.7570;0.5911;
610.2000;0.7546;0.5860;
610.5000;0.7562;0.5936;
610.8000;0.7530;0.5885;
611.1000;0.7489;0.5936;
611.4000;0.7473;0.5936;
611.7000;0.7489;0.5936;
612.0000;0.7456;0.5936;
612.3000;0.7432;0.5885;
612.6000;0.7416;0.5860;
612.9000;0.7391;0.5911;
613.2000;0.7375;0.5758;
613.5000;0.7359;0.5707;
613.8000;0.7350;0.5656;
614.1000;0.7334;0.5631;
614.4000;0.7342;0.5733;
614.7000;0.7334;0.5682;
615.0000;0.7285;0.5605;
615.3000;0.7285;0.5580;
615.6000;0.7285;0.5631;
615.9000;0.7310;0.5809;
616.2000;0.7261;0.5860;
616.5000;0.7245;0.5783;
616.8000;0.7228;0.5860;
617.1000;0.7220;0.5783;
617.4000;0.7204;0.5707;
617.7000;0.7171;0.5682;
618.0000;0.7163;0.5656;
618.3000;0.7163;0.5656;
618.6000;0.7147;0.5605;
618.9000;0.7155;0.5682;
619.2000;0.7098;0.5478;
619.5000;0.7057;0.5427;
619.8000;0.7114;0.5656;
620.1000;0.7106;0.5605;
620.4000;0.7155;0.5809;
620.7000;0.7106;0.5783;
621.0000;0.7057;0.5682;
621.3000;0.7098;0.5834;
621.6000;0.7066;0.5809;
621.9000;0.7066;0.5834;
622.2000;0.7066;0.5809;
622.5000;0.7033;0.5707;
622.8000;0.7033;0.5656;
623.1000;0.7017;0.5733;
623.4000;0.7017;0.5733;
623.7000;0.7017;0.5783;
624.0000;0.7009;0.5707;
624.3000;0.6992;0.5656;
624.6000;0.7017;0.5656;
624.9000;0.6992;0.5554;
625.2000;0.6984;0.5529;
625.5000;0.6976;0.5605;
625.8000;0.7000;0.5758;
626.1000;0.6976;0.5733;
626.4000;0.6992;0.5809;
626.7000;0.6968;0.5834;
627.0000;0.6919;0.5682;
627.3000;0.6960;0.5783;
627.6000;0.6952;0.5783;
627.9000;0.6943;0.5707;
628.2000;0.6927;0.5631;
628.5000;0.6935;0.5631;
628.8000;0.6886;0.5452;
629.1000;0.6911;0.5580;
629.4000;0.6927;0.5656;
629.7000;0.6886;0.5656;
630.0000;0.6862;0.5580;
630.3000;0.6878;0.5631;
630.6000;0.6870;0.5631;
630.9000;0.6886;0.5631;
631.2000;0.6878;0.5656;
631.5000;0.6862;0.5554;
631.8000;0.6878;0.5682;
632.1000;0.6895;0.5783;
632.4000;0.6870;0.5733;
632.7000;0.6854;0.5656;
633.0000;0.6838;0.5605;
633.3000;0.6838;0.5503;
633.6000;0.6829;0.5478;
633.9000;0.6789;0.5350;
634.2000;0.6789;0.5376;
634.5000;0.6821;0.5503;
634.8000;0.6789;0.5605;
635.1000;0.6862;0.5783;
635.4000;0.6813;0.5656;
635.7000;0.6813;0.5733;
636.0000;0.6797;0.5631;
636.3000;0.6797;0.5580;
636.6000;0.6805;0.5605;
636.9000;0.6789;0.5580;
637.2000;0.6772;0.5452;
637.5000;0.6789;0.5452;
637.8000;0.6789;0.5503;
638.1000;0.6756;0.5401;
638.4000;0.6772;0.5427;
638.7000;0.6772;0.5376;
639.0000;0.6772;0.5401;
639.3000;0.6748;0.5376;
639.6000;0.6748;0.5376;
639.9000;0.6748;0.5376;
640.2000;0.6732;0.5376;
640.5000;0.6732;0.5452;
640.8000;0.6724;0.5478;
641.1000;0.6732;0.5427;
641.4000;0.6748;0.5427;
641.7000;0.6724;0.5350;
642.0000;0.6716;0.5325;
642.3000;0.6707;0.5350;
642.6000;0.6707;0.5427;
642.9000;0.6634;0.5172;
643.2000;0.6683;0.5376;
643.5000;0.6748;0.5656;
643.8000;0.6675;0.5503;
644.1000;0.6675;0.5478;
644.4000;0.6659;0.5452;
644.7000;0.6675;0.5350;
645.0000;0.6667;0.5350;
645.3000;0.6650;0.5350;
645.6000;0.6650;0.5376;
645.9000;0.6650;0.5401;
646.2000;0.6659;0.5478;
646.5000;0.6699;0.5529;
646.8000;0.6650;0.5401;
647.1000;0.6642;0.5452;
647.4000;0.6634;0.5503;
647.7000;0.6650;0.5529;
648.0000;0.6642;0.5452;
648.3000;0.6626;0.5554;
648.6000;0.6618;0.5529;
648.9000;0.6610;0.5503;
649.2000;0.6593;0.5478;
649.5000;0.6675;0.5656;
649.8000;0.6585;0.5452;
650.1000;0.6593;0.5529;
650.4000;0.6593;0.5554;
650.7000;0.6585;0.5529;
651.0000;0.6602;0.5452;
651.3000;0.6642;0.5580;
651.6000;0.6602;0.5478;
651.9000;0.6585;0.5452;
652.2000;0.6569;0.5452;
652.5000;0.6585;0.5554;
652.8000;0.6593;0.5682;
653.1000;0.6569;0.5605;
653.4000;0.6569;0.5605;
653.7000;0.6528;0.5554;
654.0000;0.6553;0.5503;
654.3000;0.6545;0.5478;
654.6000;0.6536;0.5427;
654.9000;0.6561;0.5452;
655.2000;0.6577;0.5452;
655.5000;0.6569;0.5478;
655.8000;0.6553;0.5529;
656.1000;0.6512;0.5503;
656.4000;0.6520;0.5503;
656.7000;0.6553;0.5478;
657.0000;0.6536;0.5376;
657.3000;0.6520;0.5452;
657.6000;0.6520;0.5427;
657.9000;0.6528;0.5427;
658.2000;0.6488;0.5274;
658.5000;0.6496;0.5248;
658.8000;0.6463;0.5248;
659.1000;0.6520;0.5376;
659.4000;0.6512;0.5401;
659.7000;0.6504;0.5376;
660.0000;0.6504;0.5401;
660.3000;0.6520;0.5427;
660.6000;0.6496;0.5350;
660.9000;0.6545;0.5605;
661.2000;0.6496;0.5503;
661.5000;0.6512;0.5478;
661.8000;0.6488;0.5503;
662.1000;0.6488;0.5503;
662.4000;0.6479;0.5478;
662.7000;0.6455;0.5452;
663.0000;0.6471;0.5580;
663.3000;0.6488;0.5733;
663.6000;0.6431;0.5554;
663.9000;0.6463;0.5554;
664.2000;0.6463;0.5554;
664.5000;0.6479;0.5656;
664.8000;0.6488;0.5758;
665.1000;0.6447;0.5758;
665.4000;0.6447;0.5860;
665.7000;0.6439;0.5834;
666.0000;0.6447;0.5860;
666.3000;0.6431;0.5834;
666.6000;0.6471;0.5911;
666.9000;0.6447;0.5733;
667.2000;0.6447;0.5682;
667.5000;0.6431;0.5656;
667.8000;0.6357;0.5452;
668.1000;0.6422;0.5631;
668.4000;0.6422;0.5707;
668.7000;0.6422;0.5733;
669.0000;0.6439;0.5783;
669.3000;0.6414;0.5707;
669.6000;0.6414;0.5631;
669.9000;0.6422;0.5656;
670.2000;0.6414;0.5554;
670.5000;0.6414;0.5707;
670.8000;0.6406;0.5605;
671.1000;0.6390;0.5656;
671.4000;0.6398;0.5783;
671.7000;0.6447;0.5936;
672.0000;0.6398;0.5809;
672.3000;0.6382;0.5783;
672.6000;0.6382;0.5758;
672.9000;0.6398;0.5809;
673.2000;0.6365;0.5707;
673.5000;0.6374;0.5656;
673.8000;0.6382;0.5758;
674.1000;0.6374;0.5758;
674.4000;0.6382;0.5758;
674.7000;0.6374;0.5758;
675.0000;0.6374;0.5783;
675.3000;0.6357;0.5733;
675.6000;0.6349;0.5758;
675.9000;0.6341;0.5758;
676.2000;0.6325;0.5656;
676.5000;0.6325;0.5529;
676.8000;0.6357;0.5605;
677.1000;0.6382;0.5707;
677.4000;0.6341;0.5554;
677.7000;0.6333;0.5554;
678.0000;0.6357;0.5656;
678.3000;0.6357;0.5707;
678.6000;0.6317;0.5605;
678.9000;0.6325;0.5682;
679.2000;0.6317;0.5605;
679.5000;0.6333;0.5733;
679.8000;0.6325;0.5758;
680.1000;0.6333;0.5707;
680.4000;0.6300;0.5554;
680.7000;0.6325;0.5529;
681.0000;0.6292;0.5580;
681.3000;0.6325;0.5733;
681.6000;0.6317;0.5707;
681.9000;0.6325;0.5605;
682.2000;0.6309;0.5682;
682.5000;0.6309;0.5605;
682.8000;0.6309;0.5656;
683.1000;0.6374;0.5860;
683.4000;0.6309;0.5783;
683.7000;0.6325;0.5733;
684.0000;0.6260;0.5656;
684.3000;0.6292;0.5707;
684.6000;0.6309;0.5783;
684.9000;0.6268;0.5682;
685.2000;0.6276;0.5580;
685.5000;0.6268;0.5554;
685.8000;0.6317;0.5631;
686.1000;0.6292;0.5580;
686.4000;0.6300;0.5605;
686.7000;0.6195;0.5427;
687.0000;0.6276;0.5631;
687.3000;0.6260;0.5631;
687.6000;0.6252;0.5656;
687.9000;0.6243;0.5707;
688.2000;0.6243;0.5707;
688.5000;0.6243;0.5656;
688.8000;0.6300;0.5733;
689.1000;0.6235;0.5452;
689.4000;0.6252;0.5452;
689.7000;0.6260;0.5401;
690.0000;0.6252;0.5376;
690.3000;0.6260;0.5503;
690.6000;0.6235;0.5427;
690.9000;0.6235;0.5529;
691.2000;0.6227;0.5452;
691.5000;0.6243;0.5529;
691.8000;0.6235;0.5478;
692.1000;0.6235;0.5503;
692.4000;0.6235;0.5427;
692.7000;0.6227;0.5478;
693.0000;0.6227;0.5554;
693.3000;0.6211;0.5605;
693.6000;0.6235;0.5656;
693.9000;0.6211;0.5631;
694.2000;0.6219;0.5580;
694.5000;0.6243;0.5605;
694.8000;0.6227;0.5656;
695.1000;0.6203;0.5682;
695.4000;0.6211;0.5733;
695.7000;0.6203;0.5758;
696.0000;0.6219;0.5834;
696.3000;0.6243;0.5987;
696.6000;0.6203;0.5936;
696.9000;0.6211;0.5860;
697.2000;0.6211;0.5885;
697.5000;0.6203;0.5911;
697.8000;0.6211;0.5834;
698.1000;0.6178;0.5707;
698.4000;0.6186;0.5682;
698.7000;0.6186;0.5682;
699.0000;0.6195;0.5682;
699.3000;0.6154;0.5529;
699.6000;0.6146;0.5376;
699.9000;0.6186;0.5452;
700.2000;0.6162;0.5452;
700.5000;0.6178;0.5554;
700.8000;0.6186;0.5580;
701.1000;0.6154;0.5503;
701.4000;0.6170;0.5605;
701.7000;0.6154;0.5554;
702.0000;0.6235;0.5758;
702.3000;0.6162;0.5580;
702.6000;0.6154;0.5529;
702.9000;0.6162;0.5580;
703.2000;0.6162;0.5580;
703.5000;0.6162;0.5682;
703.8000;0.6162;0.5758;
704.1000;0.6113;0.5656;
704.4000;0.6162;0.5758;
704.7000;0.6064;0.5401;
705.0000;0.6170;0.5605;
705.3000;0.6146;0.5554;
705.6000;0.6138;0.5580;
705.9000;0.6146;0.5580;
706.2000;0.6162;0.5656;
706.5000;0.6154;0.5554;
706.8000;0.6154;0.5580;
707.1000;0.6138;0.5529;
707.4000;0.6170;0.5503;
707.7000;0.6154;0.5478;
708.0000;0.6138;0.5376;
708.3000;0.6129;0.5401;
708.6000;0.6170;0.5529;
708.9000;0.6146;0.5554;
709.2000;0.6129;0.5452;
709.5000;0.6129;0.5529;
709.8000;0.6162;0.5631;
710.1000;0.6129;0.5554;
710.4000;0.6129;0.5554;
710.7000;0.6121;0.5554;
711.0000;0.6105;0.5478;
711.3000;0.6121;0.5376;
711.6000;0.6064;0.5248;
711.9000;0.6105;0.5299;
712.2000;0.6097;0.5376;
712.5000;0.6121;0.5503;
712.8000;0.6154;0.5605;
713.1000;0.6113;0.5427;
713.4000;0.6105;0.5376;
713.7000;0.6162;0.5503;
714.0000;0.6129;0.5529;
714.3000;0.6089;0.5503;
714.6000;0.6097;0.5478;
714.9000;0.6105;0.5478;
715.2000;0.6105;0.5529;
715.5000;0.6121;0.5452;
715.8000;0.6105;0.5401;
716.1000;0.6129;0.5478;
716.4000;0.6121;0.5478;
716.7000;0.6105;0.5478;
717.0000;0.6105;0.5478;
717.3000;0.6113;0.5529;
717.6000;0.6105;0.5554;
717.9000;0.6089;0.5503;
718.2000;0.6121;0.5631;
718.5000;0.6113;0.5580;
718.8000;0.6113;0.5656;
719.1000;0.6089;0.5580;
719.4000;0.6097;0.5503;
719.7000;0.6089;0.5503;
720.0000;0.6072;0.5503;
720.3000;0.6072;0.5427;
720.6000;0.6089;0.5478;
720.9000;0.6072;0.5452;
721.2000;0.6048;0.5376;
721.5000;0.6081;0.5401;
721.8000;0.6064;0.5478;
722.1000;0.6056;0.5503;
722.4000;0.6032;0.5325;
722.7000;0.6081;0.5427;
723.0000;0.6089;0.5376;
723.3000;0.6056;0.5350;
723.6000;0.6048;0.5248;
723.9000;0.6064;0.5427;
724.2000;0.6064;0.5554;
724.5000;0.6113;0.5631;
724.8000;0.6064;0.5427;
725.1000;0.6056;0.5452;
725.4000;0.6072;0.5427;
725.7000;0.6056;0.5452;
726.0000;0.5983;0.5299;
726.3000;0.6056;0.5478;
726.6000;0.6056;0.5529;
726.9000;0.6056;0.5580;
727.2000;0.6064;0.5580;
727.5000;0.6064;0.5554;
727.8000;0.6056;0.5427;
728.1000;0.6056;0.5401;
728.4000;0.6056;0.5478;
728.7000;0.6056;0.5503;
729.0000;0.6064;0.5529;
729.3000;0.6064;0.5580;
729.6000;0.6056;0.5554;
729.9000;0.6040;0.5605;
730.2000;0.6040;0.5605;
730.5000;0.6048;0.5656;
730.8000;0.6040;0.5707;
731.1000;0.6056;0.5656;
731.4000;0.6032;0.5631;
731.7000;0.6024;0.5580;
732.0000;0.6024;0.5529;
732.3000;0.6040;0.5580;
732.6000;0.6024;0.5554;
732.9000;0.6040;0.5554;
733.2000;0.6032;0.5503;
733.5000;0.6015;0.5503;
733.8000;0.6032;0.5401;
734.1000;0.6032;0.5427;
734.4000;0.6015;0.5503;
734.7000;0.6015;0.5580;
735.0000;0.6007;0.5554;
735.3000;0.6015;0.5554;
735.6000;0.6032;0.5580;
735.9000;0.6007;0.5478;
736.2000;0.6032;0.5478;
736.5000;0.6024;0.5529;
736.8000;0.6007;0.5554;
737.1000;0.5983;0.5401;
737.4000;0.5934;0.5172;
737.7000;0.6024;0.5478;
738.0000;0.6015;0.5503;
738.3000;0.6024;0.5554;
738.6000;0.5999;0.5452;
738.9000;0.6024;0.5503;
739.2000;0.6007;0.5529;
739.5000;0.6024;0.5529;
739.8000;0.5999;0.5401;
740.1000;0.5983;0.5350;
740.4000;0.5975;0.5376;
740.7000;0.6007;0.5427;
741.0000;0.6007;0.5427;
741.3000;0.5991;0.5350;
741.6000;0.5991;0.5376;
741.9000;0.5991;0.5325;
742.2000;0.6007;0.5376;
742.5000;0.5999;0.5376;
742.8000;0.5991;0.5325;
743.1000;0.5999;0.5401;
743.4000;0.5991;0.5452;
743.7000;0.5983;0.5427;
744.0000;0.5983;0.5401;
744.3000;0.5991;0.5554;
744.6000;0.6015;0.5656;
744.9000;0.5975;0.5478;
745.2000;0.5975;0.5427;
745.5000;0.5918;0.5299;
745.8000;0.5999;0.5478;
746.1000;0.5999;0.5554;
746.4000;0.5950;0.5503;
746.7000;0.5958;0.5554;
747.0000;0.5999;0.5707;
747.3000;0.5975;0.5656;
747.6000;0.5967;0.5605;
747.9000;0.5975;0.5580;
748.2000;0.5975;0.5707;
748.5000;0.5975;0.5631;
748.8000;0.5991;0.5682;
749.1000;0.5983;0.5682;
749.4000;0.5991;0.5605;
749.7000;0.6015;0.5656;
750.0000;0.5975;0.5580;
750.3000;0.5967;0.5580;
750.6000;0.5967;0.5503;
750.9000;0.5967;0.5554;
751.2000;0.5967;0.5529;
751.5000;0.5950;0.5401;
751.8000;0.5958;0.5427;
752.1000;0.5983;0.5503;
752.4000;0.5967;0.5554;
752.7000;0.5983;0.5580;
753.0000;0.6040;0.5758;
753.3000;0.5967;0.5452;
753.6000;0.5958;0.5529;
753.9000;0.5967;0.5452;
754.2000;0.5967;0.5427;
754.5000;0.5975;0.5478;
754.8000;0.5958;0.5452;
755.1000;0.5958;0.5529;
755.4000;0.5967;0.5631;
755.7000;0.5942;0.5605;
756.0000;0.5958;0.5529;
756.3000;0.5950;0.5452;
756.6000;0.5942;0.5401;
756.9000;0.5934;0.5325;
757.2000;0.5942;0.5223;
757.5000;0.5942;0.5299;
757.8000;0.5942;0.5223;
758.1000;0.5958;0.5223;
758.4000;0.5967;0.5299;
758.7000;0.5958;0.5350;
759.0000;0.5934;0.5299;
759.3000;0.5942;0.5274;
759.6000;0.5942;0.5274;
759.9000;0.5926;0.5452;
760.2000;0.5950;0.5503;
760.5000;0.5910;0.5376;
760.8000;0.5950;0.5554;
761.1000;0.5950;0.5554;
761.4000;0.5934;0.5529;
761.7000;0.5934;0.5478;
762.0000;0.5869;0.5274;
762.3000;0.5918;0.5427;
762.6000;0.5918;0.5427;
762.9000;0.5934;0.5427;
763.2000;0.5942;0.5376;
763.5000;0.5950;0.5401;
763.8000;0.5975;0.5503;
764.1000;0.5934;0.5529;
764.4000;0.5942;0.5503;
764.7000;0.5942;0.5554;
765.0000;0.5926;0.5503;
765.3000;0.5918;0.5554;
765.6000;0.5926;0.5554;
765.9000;0.5958;0.5631;
766.2000;0.5926;0.5580;
766.5000;0.5910;0.5554;
766.8000;0.5902;0.5656;
767.1000;0.5910;0.5707;
767.4000;0.5885;0.5656;
767.7000;0.5918;0.5656;
768.0000;0.5902;0.5554;
768.3000;0.5910;0.5631;
768.6000;0.5942;0.5758;
768.9000;0.5902;0.5605;
769.2000;0.5910;0.5656;
769.5000;0.5845;0.5452;
769.8000;0.5910;0.5707;
770.1000;0.5902;0.5682;
770.4000;0.5910;0.5783;
770.7000;0.5902;0.5758;
771.0000;0.5910;0.5707;
771.3000;0.5885;0.5631;
771.6000;0.5958;0.5783;
771.9000;0.5910;0.5605;
772.2000;0.5893;0.5605;
772.5000;0.5934;0.5707;
772.8000;0.5893;0.5580;
773.1000;0.5902;0.5503;
773.4000;0.5902;0.5554;
773.7000;0.5902;0.5503;
774.0000;0.5902;0.5452;
774.3000;0.5902;0.5478;
774.6000;0.5877;0.5503;
774.9000;0.5885;0.5656;
775.2000;0.5942;0.5834;
775.5000;0.5902;0.5758;
775.8000;0.5885;0.5758;
776.1000;0.5918;0.5758;
776.4000;0.5902;0.5631;
776.7000;0.5893;0.5580;
777.0000;0.5893;0.5554;
777.3000;0.5902;0.5605;
777.6000;0.5877;0.5503;
777.9000;0.5902;0.5605;
778.2000;0.5877;0.5478;
778.5000;0.5861;0.5529;
778.8000;0.5877;0.5554;
779.1000;0.5885;0.5529;
779.4000;0.5893;0.5656;
779.7000;0.5885;0.5580;
780.0000;0.5885;0.5605;
780.3000;0.5902;0.5605;
780.6000;0.5885;0.5580;
780.9000;0.5885;0.5605;
781.2000;0.5885;0.5682;
781.5000;0.5877;0.5707;
781.8000;0.5926;0.5834;
782.1000;0.5893;0.5758;
782.4000;0.5885;0.5758;
782.7000;0.5893;0.5911;
783.0000;0.5902;0.5758;
783.3000;0.5885;0.5656;
783.6000;0.5885;0.5656;
783.9000;0.5820;0.5580;
784.2000;0.5885;0.5758;
784.5000;0.5885;0.5885;
784.8000;0.5869;0.5809;
785.1000;0.5845;0.5834;
785.4000;0.5877;0.5936;
785.7000;0.5877;0.5809;
786.0000;0.5853;0.5783;
786.3000;0.5877;0.5834;
786.6000;0.5861;0.5758;
786.9000;0.5828;0.5733;
787.2000;0.5861;0.5809;
787.5000;0.5861;0.5834;
787.8000;0.5869;0.5809;
788.1000;0.5861;0.5733;
788.4000;0.5853;0.5682;
788.7000;0.5861;0.5707;
789.0000;0.5869;0.5707;
789.3000;0.5877;0.5733;
789.6000;0.5861;0.5707;
789.9000;0.5877;0.5783;
790.2000;0.5869;0.5631;
790.5000;0.5861;0.5580;
790.8000;0.5885;0.5580;
791.1000;0.5885;0.5631;
791.4000;0.5861;0.5580;
791.7000;0.5877;0.5529;
792.0000;0.5869;0.5554;
792.3000;0.5796;0.5401;
792.6000;0.5885;0.5605;
792.9000;0.5861;0.5529;
793.2000;0.5885;0.5529;
793.5000;0.5812;0.5274;
793.8000;0.5853;0.5478;
794.1000;0.5902;0.5580;
794.4000;0.5861;0.5503;
794.7000;0.5845;0.5503;
795.0000;0.5845;0.5529;
795.3000;0.5845;0.5631;
795.6000;0.5902;0.5860;
795.9000;0.5853;0.5656;
796.2000;0.5869;0.5656;
796.5000;0.5861;0.5656;
796.8000;0.5877;0.5580;
797.1000;0.5885;0.5554;
797.4000;0.5861;0.5452;
797.7000;0.5845;0.5427;
798.0000;0.5845;0.5427;
798.3000;0.5853;0.5478;
798.6000;0.5845;0.5529;
798.9000;0.5853;0.5580;
799.2000;0.5934;0.5834;
799.5000;0.5845;0.5631;
799.8000;0.5869;0.5758;
800.1000;0.5836;0.5656;
800.4000;0.5796;0.5452;
800.7000;0.5861;0.5554;
801.0000;0.5845;0.5503;
801.3000;0.5836;0.5529;
801.6000;0.5836;0.5554;
801.9000;0.5861;0.5605;
802.2000;0.5845;0.5554;
802.5000;0.5836;0.5631;
802.8000;0.5828;0.5733;
803.1000;0.5845;0.5783;
803.4000;0.5845;0.5783;
803.7000;0.5828;0.5834;
804.0000;0.5836;0.5860;
804.3000;0.5885;0.5962;
804.6000;0.5828;0.5860;
804.9000;0.5828;0.5809;
805.2000;0.5820;0.5682;
805.5000;0.5820;0.5707;
805.8000;0.5828;0.5758;
806.1000;0.5812;0.5758;
806.4000;0.5812;0.5733;
806.7000;0.5828;0.5758;
807.0000;0.5836;0.5758;
807.3000;0.5788;0.5733;
807.6000;0.5820;0.5783;
807.9000;0.5812;0.5733;
808.2000;0.5804;0.5758;
808.5000;0.5812;0.5758;
808.8000;0.5820;0.5682;
809.1000;0.5820;0.5758;
809.4000;0.5812;0.5809;
809.7000;0.5828;0.5758;
810.0000;0.5820;0.5733;
810.3000;0.5836;0.5733;
810.6000;0.5828;0.5682;
810.9000;0.5845;0.5707;
811.2000;0.5820;0.5707;
811.5000;0.5820;0.5733;
811.8000;0.5828;0.5707;
812.1000;0.5828;0.5783;
812.4000;0.5836;0.5860;
812.7000;0.5828;0.5783;
813.0000;0.5812;0.5733;
813.3000;0.5812;0.5707;
813.6000;0.5836;0.5707;
813.9000;0.5820;0.5733;
814.2000;0.5804;0.5733;
814.5000;0.5804;0.5758;
814.8000;0.5853;0.5860;
815.1000;0.5828;0.5707;
815.4000;0.5845;0.5783;
815.7000;0.5812;0.5809;
816.0000;0.5828;0.5860;
816.3000;0.5788;0.5758;
816.6000;0.5812;0.5758;
816.9000;0.5812;0.5656;
817.2000;0.5877;0.5860;
817.5000;0.5820;0.5783;
817.8000;0.5796;0.5783;
818.1000;0.5877;0.5936;
818.4000;0.5812;0.5834;
818.7000;0.5812;0.5834;
819.0000;0.5763;0.5580;
819.3000;0.5796;0.5631;
819.6000;0.5804;0.5631;
819.9000;0.5804;0.5656;
820.2000;0.5804;0.5605;
820.5000;0.5763;0.5580;
820.8000;0.5804;0.5656;
821.1000;0.5804;0.5656;
821.4000;0.5796;0.5733;
821.7000;0.5812;0.5733;
822.0000;0.5788;0.5733;
822.3000;0.5796;0.5605;
822.6000;0.5796;0.5529;
822.9000;0.5836;0.5733;
823.2000;0.5796;0.5605;
823.5000;0.5804;0.5707;
823.8000;0.5779;0.5580;
824.1000;0.5820;0.5682;
824.4000;0.5804;0.5656;
824.7000;0.5788;0.5580;
825.0000;0.5812;0.5682;
825.3000;0.5796;0.5758;
825.6000;0.5796;0.5885;
825.9000;0.5804;0.5987;
826.2000;0.5788;0.5987;
826.5000;0.5771;0.5962;
826.8000;0.5796;0.5962;
827.1000;0.5779;0.5834;
827.4000;0.5755;0.5758;
827.7000;0.5804;0.5809;
828.0000;0.5788;0.5733;
828.3000;0.5796;0.5682;
828.6000;0.5788;0.5707;
828.9000;0.5812;0.5707;
829.2000;0.5796;0.5682;
829.5000;0.5779;0.5707;
829.8000;0.5796;0.5707;
830.1000;0.5812;0.5631;
830.4000;0.5796;0.5605;
830.7000;0.5796;0.5554;
831.0000;0.5796;0.5529;
831.3000;0.5796;0.5529;
831.6000;0.5788;0.5478;
831.9000;0.5771;0.5580;
832.2000;0.5796;0.5605;
832.5000;0.5796;0.5656;
832.8000;0.5796;0.5682;
833.1000;0.5812;0.5656;
833.4000;0.5779;0.5554;
833.7000;0.5779;0.5554;
834.0000;0.5779;0.5605;
834.3000;0.5779;0.5631;
834.6000;0.5771;0.5580;
834.9000;0.5779;0.5580;
835.2000;0.5796;0.5605;
835.5000;0.5779;0.5529;
835.8000;0.5788;0.5605;
836.1000;0.5788;0.5707;
836.4000;0.5788;0.5783;
836.7000;0.5779;0.5783;
837.0000;0.5763;0.5783;
837.3000;0.5779;0.5885;
837.6000;0.5771;0.5860;
837.9000;0.5731;0.5758;
838.2000;0.5763;0.5834;
838.5000;0.5779;0.5809;
838.8000;0.5788;0.5809;
839.1000;0.5788;0.5885;
839.4000;0.5779;0.5936;
839.7000;0.5804;0.6038;
840.0000;0.5796;0.5962;
840.3000;0.5763;0.5885;
840.6000;0.5763;0.5885;
840.9000;0.5771;0.6013;
841.2000;0.5763;0.6089;
841.5000;0.5747;0.6064;
841.8000;0.5763;0.6115;
842.1000;0.5804;0.6089;
842.4000;0.5779;0.5987;
842.7000;0.5763;0.5962;
843.0000;0.5747;0.5987;
843.3000;0.5763;0.6038;
843.6000;0.5763;0.5987;
843.9000;0.5747;0.5911;
844.2000;0.5722;0.5809;
844.5000;0.5796;0.5936;
844.8000;0.5771;0.5885;
845.1000;0.5771;0.5962;
845.4000;0.5779;0.5911;
845.7000;0.5755;0.5911;
846.0000;0.5755;0.5885;
846.3000;0.5771;0.5783;
846.6000;0.5828;0.5987;
846.9000;0.5812;0.6013;
847.2000;0.5779;0.5885;
847.5000;0.5771;0.5834;
847.8000;0.5722;0.5656;
848.1000;0.5763;0.5758;
848.4000;0.5755;0.5758;
848.7000;0.5788;0.5860;
849.0000;0.5779;0.5834;
849.3000;0.5755;0.5860;
849.6000;0.5755;0.5783;
849.9000;0.5763;0.5809;
850.2000;0.5763;0.5809;
850.5000;0.5771;0.5733;
850.8000;0.5804;0.5860;
851.1000;0.5763;0.5885;
851.4000;0.5747;0.5885;
851.7000;0.5763;0.5911;
852.0000;0.5763;0.5860;
852.3000;0.5804;0.5860;
852.6000;0.5763;0.5783;
852.9000;0.5755;0.5707;
853.2000;0.5755;0.5733;
853.5000;0.5804;0.5962;
853.8000;0.5747;0.5834;
854.1000;0.5771;0.5860;
854.4000;0.5763;0.5809;
854.7000;0.5747;0.5783;
855.0000;0.5739;0.5783;
855.3000;0.5771;0.5911;
855.6000;0.5747;0.5962;
855.9000;0.5763;0.5962;
856.2000;0.5747;0.5962;
856.5000;0.5755;0.5936;
856.8000;0.5779;0.5962;
857.1000;0.5722;0.5860;
857.4000;0.5755;0.5911;
857.7000;0.5731;0.5834;
858.0000;0.5755;0.5911;
858.3000;0.5731;0.5885;
858.6000;0.5747;0.5860;
858.9000;0.5674;0.5656;
859.2000;0.5755;0.5911;
859.5000;0.5763;0.5911;
859.8000;0.5747;0.5885;
860.1000;0.5747;0.5911;
860.4000;0.5755;0.5936;
860.7000;0.5755;0.5885;
861.0000;0.5722;0.5758;
861.3000;0.5739;0.5783;
861.6000;0.5804;0.5962;
861.9000;0.5739;0.5809;
862.2000;0.5739;0.5834;
862.5000;0.5739;0.5885;
862.8000;0.5739;0.5936;
863.1000;0.5706;0.5783;
863.4000;0.5747;0.5834;
863.7000;0.5747;0.5809;
864.0000;0.5739;0.5860;
864.3000;0.5739;0.5936;
864.6000;0.5722;0.5860;
864.9000;0.5747;0.5885;
865.2000;0.5722;0.5885;
865.5000;0.5739;0.5936;
865.8000;0.5747;0.5962;
866.1000;0.5763;0.5987;
866.4000;0.5755;0.5962;
866.7000;0.5747;0.5936;
867.0000;0.5763;0.5987;
867.3000;0.5747;0.6038;
867.6000;0.5698;0.5936;
867.9000;0.5731;0.6064;
868.2000;0.5739;0.6115;
868.5000;0.5747;0.6242;
868.8000;0.5739;0.6191;
869.1000;0.5731;0.6140;
869.4000;0.5739;0.6140;
869.7000;0.5739;0.6064;
870.0000;0.5747;0.5936;
870.3000;0.5739;0.5834;
870.6000;0.5731;0.5885;
870.9000;0.5731;0.5987;
871.2000;0.5739;0.5987;
871.5000;0.5739;0.5911;
871.8000;0.5747;0.5962;
872.1000;0.5739;0.5911;
872.4000;0.5755;0.5860;
872.7000;0.5731;0.5834;
873.0000;0.5739;0.5860;
873.3000;0.5763;0.5962;
873.6000;0.5747;0.5962;
873.9000;0.5731;0.5987;
874.2000;0.5747;0.5987;
874.5000;0.5747;0.5962;
874.8000;0.5771;0.6064;
875.1000;0.5731;0.5987;
875.4000;0.5731;0.6038;
875.7000;0.5779;0.6115;
876.0000;0.5739;0.6038;
876.3000;0.5731;0.5962;
876.6000;0.5804;0.6140;
876.9000;0.5714;0.5911;
877.2000;0.5739;0.6013;
877.5000;0.5722;0.5936;
877.8000;0.5674;0.5783;
878.1000;0.5747;0.6013;
878.4000;0.5755;0.6038;
878.7000;0.5714;0.5987;
879.0000;0.5722;0.6013;
879.3000;0.5722;0.6013;
879.6000;0.5747;0.5987;
879.9000;0.5731;0.5911;
880.2000;0.5739;0.5936;
880.5000;0.5722;0.5809;
880.8000;0.5731;0.5783;
881.1000;0.5698;0.5860;
881.4000;0.5739;0.5885;
881.7000;0.5722;0.5783;
882.0000;0.5674;0.5656;
882.3000;0.5747;0.5809;
882.6000;0.5771;0.5860;
882.9000;0.5747;0.5783;
883.2000;0.5763;0.5885;
883.5000;0.5763;0.5860;
883.8000;0.5682;0.5631;
884.1000;0.5722;0.5707;
884.4000;0.5706;0.5733;
884.7000;0.5731;0.5783;
885.0000;0.5747;0.5783;
885.3000;0.5739;0.5809;
885.6000;0.5714;0.5758;
885.9000;0.5722;0.5783;
886.2000;0.5722;0.5860;
886.5000;0.5722;0.5885;
886.8000;0.5714;0.5885;
887.1000;0.5690;0.5656;
887.4000;0.5763;0.5911;
887.7000;0.5722;0.5809;
888.0000;0.5747;0.5860;
888.3000;0.5714;0.5885;
888.6000;0.5714;0.5860;
888.9000;0.5714;0.5809;
889.2000;0.5706;0.5885;
889.5000;0.5714;0.5962;
889.8000;0.5747;0.6140;
890.1000;0.5706;0.6038;
890.4000;0.5690;0.5962;
890.7000;0.5739;0.5987;
891.0000;0.5771;0.6115;
891.3000;0.5706;0.5911;
891.6000;0.5649;0.5733;
891.9000;0.5706;0.5885;
892.2000;0.5714;0.5911;
892.5000;0.5747;0.6013;
892.8000;0.5731;0.5936;
893.1000;0.5706;0.5809;
893.4000;0.5714;0.5834;
893.7000;0.5706;0.5860;
894.0000;0.5722;0.5911;
894.3000;0.5714;0.5987;
894.6000;0.5731;0.6038;
894.9000;0.5698;0.5936;
895.2000;0.5706;0.5885;
895.5000;0.5674;0.5860;
895.8000;0.5690;0.5885;
896.1000;0.5722;0.5987;
896.4000;0.5706;0.5962;
896.7000;0.5739;0.5911;
897.0000;0.5714;0.5962;
897.3000;0.5739;0.6140;
897.6000;0.5722;0.6089;
897.9000;0.5722;0.6013;
898.2000;0.5722;0.6038;
898.5000;0.5739;0.5962;
898.8000;0.5706;0.5911;
899.1000;0.5698;0.5885;
899.4000;0.5698;0.5860;
899.7000;0.5706;0.5809;
900.0000;0.5722;0.5783;
900.3000;0.5714;0.5834;
900.6000;0.5698;0.5783;
900.9000;0.5714;0.5860;
901.2000;0.5714;0.5809;
901.5000;0.5706;0.5809;
901.8000;0.5698;0.5758;
902.1000;0.5714;0.5809;
902.4000;0.5739;0.5936;
902.7000;0.5714;0.5885;
903.0000;0.5714;0.5834;
903.3000;0.5698;0.5783;
903.6000;0.5722;0.5834;
903.9000;0.5714;0.5834;
904.2000;0.5714;0.5860;
904.5000;0.5698;0.5860;
904.8000;0.5706;0.5885;
905.1000;0.5665;0.5733;
905.4000;0.5714;0.5860;
905.7000;0.5698;0.5860;
906.0000;0.5649;0.5682;
906.3000;0.5698;0.5860;
906.6000;0.5698;0.5911;
906.9000;0.5731;0.5911;
907.2000;0.5747;0.5936;
907.5000;0.5706;0.5809;
907.8000;0.5714;0.5860;
908.1000;0.5690;0.5733;
908.4000;0.5690;0.5834;
908.7000;0.5706;0.5834;
909.0000;0.5706;0.5758;
909.3000;0.5657;0.5656;
909.6000;0.5674;0.5631;
909.9000;0.5706;0.5707;
910.2000;0.5698;0.5733;
910.5000;0.5698;0.5758;
910.8000;0.5674;0.5758;
911.1000;0.5682;0.5834;
911.4000;0.5739;0.5987;
911.7000;0.5714;0.5885;
912.0000;0.5698;0.5860;
912.3000;0.5682;0.5936;
912.6000;0.5682;0.5860;
912.9000;0.5698;0.5885;
913.2000;0.5674;0.5834;
913.5000;0.5690;0.5885;
913.8000;0.5706;0.5885;
914.1000;0.5698;0.5860;
914.4000;0.5690;0.5783;
914.7000;0.5568;0.5554;
915.0000;0.5690;0.5911;
915.3000;0.5698;0.5936;
915.6000;0.5698;0.6013;
915.9000;0.5682;0.5962;
916.2000;0.5674;0.5962;
916.5000;0.5690;0.5987;
916.8000;0.5706;0.6013;
917.1000;0.5682;0.5885;
917.4000;0.5682;0.5885;
917.7000;0.5690;0.5885;
918.0000;0.5698;0.5911;
918.3000;0.5690;0.5885;
918.6000;0.5690;0.5885;
918.9000;0.5690;0.5911;
919.2000;0.5698;0.5783;
919.5000;0.5674;0.5783;
919.8000;0.5690;0.5885;
920.1000;0.5674;0.5834;
920.4000;0.5682;0.5885;
920.7000;0.5682;0.5885;
921.0000;0.5698;0.5860;
921.3000;0.5641;0.5682;
921.6000;0.5698;0.5783;
921.9000;0.5690;0.5783;
922.2000;0.5682;0.5783;
922.5000;0.5633;0.5656;
922.8000;0.5682;0.5707;
923.1000;0.5682;0.5758;
923.4000;0.5674;0.5783;
923.7000;0.5682;0.5834;
924.0000;0.5690;0.5860;
924.3000;0.5674;0.5834;
924.6000;0.5665;0.5860;
924.9000;0.5674;0.5809;
925.2000;0.5674;0.5783;
925.5000;0.5682;0.5682;
925.8000;0.5690;0.5656;
926.1000;0.5682;0.5656;
926.4000;0.5690;0.5605;
926.7000;0.5714;0.5758;
927.0000;0.5674;0.5733;
927.3000;0.5698;0.5783;
927.6000;0.5698;0.5834;
927.9000;0.5698;0.5758;
928.2000;0.5698;0.5733;
928.5000;0.5698;0.5758;
928.8000;0.5698;0.5733;
929.1000;0.5722;0.5758;
929.4000;0.5698;0.5707;
929.7000;0.5690;0.5834;
930.0000;0.5674;0.5834;
930.3000;0.5682;0.5885;
930.6000;0.5690;0.5987;
930.9000;0.5690;0.5987;
931.2000;0.5698;0.6038;
931.5000;0.5698;0.6038;
931.8000;0.5665;0.5987;
932.1000;0.5674;0.6013;
932.4000;0.5714;0.6089;
932.7000;0.5592;0.5758;
933.0000;0.5657;0.6038;
933.3000;0.5690;0.6115;
933.6000;0.5665;0.6064;
933.9000;0.5665;0.6038;
934.2000;0.5674;0.6089;
934.5000;0.5674;0.6013;
934.8000;0.5682;0.5987;
935.1000;0.5633;0.5936;
935.4000;0.5657;0.6013;
935.7000;0.5641;0.6038;
936.0000;0.5649;0.6013;
936.3000;0.5682;0.5987;
936.6000;0.5665;0.5885;
936.9000;0.5674;0.5962;
937.2000;0.5674;0.5936;
937.5000;0.5714;0.6089;
937.8000;0.5665;0.5962;
938.1000;0.5649;0.5962;
938.4000;0.5690;0.5987;
938.7000;0.5665;0.5987;
939.0000;0.5649;0.5987;
939.3000;0.5682;0.6064;
939.6000;0.5722;0.6166;
939.9000;0.5722;0.6140;
940.2000;0.5657;0.5962;
940.5000;0.5665;0.5987;
940.8000;0.5682;0.6064;
941.1000;0.5674;0.6115;
941.4000;0.5657;0.6166;
941.7000;0.5665;0.6140;
942.0000;0.5690;0.6166;
942.3000;0.5698;0.6166;
942.6000;0.5682;0.6166;
942.9000;0.5698;0.6166;
943.2000;0.5690;0.6089;
943.5000;0.5690;0.6013;
943.8000;0.5698;0.5962;
944.1000;0.5674;0.6013;
944.4000;0.5674;0.6013;
944.7000;0.5665;0.6038;
945.0000;0.5657;0.5987;
945.3000;0.5674;0.5936;
945.6000;0.5600;0.5758;
945.9000;0.5649;0.5911;
946.2000;0.5682;0.5987;
946.5000;0.5649;0.5885;
946.8000;0.5649;0.5962;
947.1000;0.5665;0.6013;
947.4000;0.5682;0.6013;
947.7000;0.5674;0.5987;
948.0000;0.5665;0.6013;
948.3000;0.5665;0.5987;
948.6000;0.5682;0.6064;
948.9000;0.5674;0.6038;
949.2000;0.5665;0.6064;
949.5000;0.5674;0.6038;
949.8000;0.5682;0.5987;
950.1000;0.5649;0.5885;
950.4000;0.5665;0.5885;
950.7000;0.5665;0.5834;
951.0000;0.5674;0.5860;
951.3000;0.5665;0.5860;
951.6000;0.5665;0.5860;
951.9000;0.5665;0.5860;
952.2000;0.5657;0.5885;
952.5000;0.5665;0.5936;
952.8000;0.5665;0.5962;
953.1000;0.5600;0.5733;
953.4000;0.5649;0.5885;
953.7000;0.5682;0.6013;
954.0000;0.5747;0.6242;
954.3000;0.5665;0.6013;
954.6000;0.5665;0.5911;
954.9000;0.5682;0.5885;
955.2000;0.5674;0.5911;
955.5000;0.5657;0.5911;
955.8000;0.5665;0.5911;
956.1000;0.5698;0.5962;
956.4000;0.5649;0.5834;
956.7000;0.5714;0.5962;
957.0000;0.5649;0.5783;
957.3000;0.5665;0.5860;
957.6000;0.5698;0.6038;
957.9000;0.5665;0.5885;
958.2000;0.5665;0.5860;
958.5000;0.5665;0.5860;
958.8000;0.5665;0.5860;
959.1000;0.5682;0.5885;
959.4000;0.5657;0.5885;
959.7000;0.5657;0.5860;
960.0000;0.5674;0.5885;
960.3000;0.5690;0.5962;
960.6000;0.5698;0.6115;
960.9000;0.5674;0.6089;
961.2000;0.5625;0.5911;
961.5000;0.5625;0.5860;
961.8000;0.5665;0.5936;
962.1000;0.5755;0.6268;
962.4000;0.5665;0.5987;
962.7000;0.5706;0.6089;
963.0000;0.5714;0.6064;
963.3000;0.5674;0.5962;
963.6000;0.5657;0.5911;
963.9000;0.5649;0.5911;
964.2000;0.5665;0.5987;
964.5000;0.5657;0.5987;
964.8000;0.5682;0.6013;
965.1000;0.5682;0.6038;
965.4000;0.5649;0.5911;
965.7000;0.5649;0.5911;
966.0000;0.5665;0.5962;
966.3000;0.5665;0.6038;
966.6000;0.5674;0.5962;
966.9000;0.5657;0.6038;
967.2000;0.5649;0.6064;
967.5000;0.5674;0.6166;
967.8000;0.5649;0.6038;
968.1000;0.5665;0.6064;
968.4000;0.5657;0.6013;
968.7000;0.5657;0.5987;
969.0000;0.5665;0.5885;
969.3000;0.5665;0.5809;
969.6000;0.5674;0.5809;
969.9000;0.5641;0.5758;
970.2000;0.5674;0.5885;
970.5000;0.5657;0.5936;
970.8000;0.5665;0.5962;
971.1000;0.5657;0.5885;
971.4000;0.5674;0.5885;
971.7000;0.5674;0.5885;
972.0000;0.5649;0.5885;
972.3000;0.5641;0.5885;
972.6000;0.5657;0.6013;
972.9000;0.5674;0.6115;
973.2000;0.5665;0.6064;
973.5000;0.5665;0.6038;
973.8000;0.5682;0.6038;
974.1000;0.5608;0.5911;
974.4000;0.5657;0.6064;
974.7000;0.5641;0.5936;
975.0000;0.5657;0.5936;
975.3000;0.5665;0.5962;
975.6000;0.5657;0.5962;
975.9000;0.5641;0.5936;
976.2000;0.5641;0.6089;
976.5000;0.5649;0.6064;
976.8000;0.5674;0.6166;
977.1000;0.5649;0.6089;
977.4000;0.5633;0.6064;
977.7000;0.5657;0.6089;
978.0000;0.5674;0.6115;
978.3000;0.5657;0.6064;
978.6000;0.5657;0.6115;
978.9000;0.5665;0.6064;
979.2000;0.5674;0.6089;
979.5000;0.5657;0.6064;
979.8000;0.5706;0.6191;
980.1000;0.5649;0.6038;
980.4000;0.5649;0.6064;
980.7000;0.5617;0.6064;
981.0000;0.5641;0.6115;
981.3000;0.5641;0.6115;
981.6000;0.5657;0.6140;
981.9000;0.5674;0.6115;
982.2000;0.5649;0.6064;
982.5000;0.5657;0.6089;
982.8000;0.5649;0.6115;
983.1000;0.5665;0.6064;
983.4000;0.5649;0.5987;
983.7000;0.5641;0.5962;
984.0000;0.5633;0.6038;
984.3000;0.5657;0.6064;
984.6000;0.5665;0.6038;
984.9000;0.5722;0.6242;
985.2000;0.5657;0.6064;
985.5000;0.5674;0.6038;
985.8000;0.5641;0.5911;
986.1000;0.5649;0.5911;
986.4000;0.5649;0.5987;
986.7000;0.5657;0.6064;
987.0000;0.5633;0.5962;
987.3000;0.5641;0.5962;
987.6000;0.5641;0.5911;
987.9000;0.5665;0.5987;
988.2000;0.5649;0.6038;
988.5000;0.5641;0.5962;
988.8000;0.5633;0.5911;
989.1000;0.5649;0.5936;
989.4000;0.5665;0.5936;
989.7000;0.5657;0.5911;
990.0000;0.5665;0.5936;
990.3000;0.5657;0.6013;
990.6000;0.5665;0.6038;
990.9000;0.5657;0.5987;
991.2000;0.5649;0.5936;
991.5000;0.5617;0.5885;
991.8000;0.5674;0.6038;
992.1000;0.5641;0.6013;
992.4000;0.5674;0.6089;
992.7000;0.5625;0.5987;
993.0000;0.5649;0.5987;
993.3000;0.5649;0.5962;
993.6000;0.5649;0.5962;
993.9000;0.5657;0.5962;
994.2000;0.5641;0.5962;
994.5000;0.5657;0.6064;
994.8000;0.5657;0.6115;
995.1000;0.5657;0.6140;
995.4000;0.5657;0.6166;
995.7000;0.5657;0.6140;
996.0000;0.5674;0.6166;
996.3000;0.5649;0.6064;
996.6000;0.5641;0.6013;
996.9000;0.5649;0.6115;
997.2000;0.5592;0.5987;
997.5000;0.5657;0.6089;
997.8000;0.5657;0.6064;
998.1000;0.5649;0.6013;
998.4000;0.5649;0.6013;
998.7000;0.5665;0.6064;
999.0000;0.5625;0.6038;
999.3000;0.5625;0.6064;
999.6000;0.5649;0.6166;
999.9000;0.5608;0.6038;
1000.2000;0.5641;0.6140;
1000.5000;0.5649;0.6242;
1000.8000;0.5641;0.6268;
1001.1000;0.5641;0.6319;
1001.4000;0.5625;0.6268;
1001.7000;0.5633;0.6140;
1002.0000;0.5641;0.6064;
1002.3000;0.5649;0.5987;
1002.6000;0.5608;0.5885;
1002.9000;0.5617;0.5936;
1003.2000;0.5633;0.6089;
1003.5000;0.5641;0.6064;
1003.8000;0.5608;0.6013;
1004.1000;0.5633;0.6089;
1004.4000;0.5674;0.6191;
1004.7000;0.5641;0.6038;
1005.0000;0.5633;0.6038;
1005.3000;0.5641;0.6140;
1005.6000;0.5633;0.6140;
1005.9000;0.5633;0.6268;
1006.2000;0.5617;0.6217;
1006.5000;0.5633;0.6242;
1006.8000;0.5649;0.6242;
1007.1000;0.5608;0.6013;
1007.4000;0.5633;0.6013;
1007.7000;0.5698;0.6217;
1008.0000;0.5690;0.6268;
1008.3000;0.5633;0.6089;
1008.6000;0.5698;0.6166;
1008.9000;0.5625;0.5936;
1009.2000;0.5641;0.5987;
1009.5000;0.5649;0.6013;
1009.8000;0.5657;0.6064;
1010.1000;0.5641;0.6013;
1010.4000;0.5633;0.5987;
1010.7000;0.5641;0.6038;
1011.0000;0.5641;0.6089;
1011.3000;0.5665;0.6089;
1011.6000;0.5633;0.6038;
1011.9000;0.5649;0.6013;
1012.2000;0.5633;0.6013;
1012.5000;0.5625;0.6064;
1012.8000;0.5633;0.6089;
1013.1000;0.5625;0.6013;
1013.4000;0.5641;0.5962;
1013.7000;0.5649;0.5962;
1014.0000;0.5592;0.5834;
1014.3000;0.5641;0.5962;
1014.6000;0.5641;0.5987;
1014.9000;0.5633;0.6013;
1015.2000;0.5625;0.5987;
1015.5000;0.5576;0.5860;
1015.8000;0.5625;0.5987;
1016.1000;0.5617;0.5962;
1016.4000;0.5608;0.6038;
1016.7000;0.5617;0.6064;
1017.0000;0.5633;0.6115;
1017.3000;0.5633;0.6038;
1017.6000;0.5633;0.6038;
1017.9000;0.5617;0.6013;
1018.2000;0.5633;0.6115;
1018.5000;0.5633;0.6140;
1018.8000;0.5674;0.6166;
1019.1000;0.5641;0.6115;
1019.4000;0.5641;0.6089;
1019.7000;0.5641;0.6064;
1020.0000;0.5649;0.6115;
1020.3000;0.5608;0.5962;
1020.6000;0.5641;0.5962;
1020.9000;0.5617;0.5911;
1021.2000;0.5641;0.6013;
1021.5000;0.5625;0.6013;
1021.8000;0.5633;0.6064;
1022.1000;0.5584;0.5911;
1022.4000;0.5641;0.6038;
1022.7000;0.5633;0.5936;
1023.0000;0.5641;0.5987;
1023.3000;0.5633;0.5936;
1023.6000;0.5633;0.5885;
1023.9000;0.5657;0.5987;
1024.2000;0.5641;0.6038;
1024.5000;0.5649;0.6115;
1024.8000;0.5657;0.6089;
1025.1000;0.5649;0.6064;
1025.4000;0.5633;0.5962;
1025.7000;0.5617;0.5911;
1026.0000;0.5625;0.5860;
1026.3000;0.5625;0.5885;
1026.6000;0.5633;0.5911;
1026.9000;0.5625;0.5987;
1027.2000;0.5608;0.5962;
1027.5000;0.5625;0.6064;
1027.8000;0.5641;0.6166;
1028.1000;0.5576;0.6038;
1028.4000;0.5608;0.6038;
1028.7000;0.5617;0.6038;
1029.0000;0.5584;0.5911;
1029.3000;0.5625;0.6038;
1029.6000;0.5682;0.6319;
1029.9000;0.5641;0.6191;
1030.2000;0.5682;0.6369;
1030.5000;0.5665;0.6446;
1030.8000;0.5592;0.6268;
1031.1000;0.5625;0.6268;
1031.4000;0.5617;0.6217;
1031.7000;0.5641;0.6191;
1032.0000;0.5633;0.6217;
1032.3000;0.5641;0.6140;
1032.6000;0.5625;0.6166;
1032.9000;0.5633;0.6268;
1033.2000;0.5633;0.6344;
1033.5000;0.5617;0.6242;
1033.8000;0.5641;0.6242;
1034.1000;0.5649;0.6293;
1034.4000;0.5641;0.6293;
1034.7000;0.5600;0.6115;
1035.0000;0.5625;0.6217;
1035.3000;0.5633;0.6293;
1035.6000;0.5625;0.6268;
1035.9000;0.5608;0.6191;
1036.2000;0.5633;0.6217;
1036.5000;0.5625;0.6191;
1036.8000;0.5608;0.6166;
1037.1000;0.5608;0.6115;
1037.4000;0.5617;0.6038;
1037.7000;0.5625;0.6038;
1038.0000;0.5633;0.6064;
1038.3000;0.5600;0.6013;
1038.6000;0.5682;0.6217;
1038.9000;0.5633;0.6115;
1039.2000;0.5617;0.6115;
1039.5000;0.5633;0.6115;
1039.8000;0.5641;0.6166;
1040.1000;0.5617;0.6038;
1040.4000;0.5617;0.6038;
1040.7000;0.5633;0.6089;
1041.0000;0.5633;0.6013;
1041.3000;0.5617;0.5911;
1041.6000;0.5641;0.5860;
1041.9000;0.5617;0.5860;
1042.2000;0.5600;0.5860;
1042.5000;0.5633;0.5834;
1042.8000;0.5625;0.5809;
1043.1000;0.5633;0.5733;
1043.4000;0.5608;0.5631;
1043.7000;0.5617;0.5682;
1044.0000;0.5649;0.5783;
1044.3000;0.5641;0.5834;
1044.6000;0.5617;0.5911;
1044.9000;0.5625;0.5911;
1045.2000;0.5633;0.5987;
1045.5000;0.5625;0.5987;
1045.8000;0.5608;0.5885;
1046.1000;0.5665;0.6038;
1046.4000;0.5617;0.5987;
1046.7000;0.5625;0.5962;
1047.0000;0.5617;0.5936;
1047.3000;0.5617;0.5885;
1047.6000;0.5592;0.5834;
1047.9000;0.5600;0.5885;
1048.2000;0.5633;0.5911;
1048.5000;0.5592;0.5834;
1048.8000;0.5608;0.5834;
1049.1000;0.5633;0.5911;
1049.4000;0.5682;0.6064;
1049.7000;0.5608;0.5962;
1050.0000;0.5633;0.6064;
1050.3000;0.5617;0.6013;
1050.6000;0.5633;0.6013;
1050.9000;0.5625;0.5962;
1051.2000;0.5617;0.5936;
1051.5000;0.5592;0.5834;
1051.8000;0.5625;0.5936;
1052.1000;0.5625;0.5885;
1052.4000;0.5657;0.5962;
1052.7000;0.5625;0.5860;
1053.0000;0.5625;0.5758;
1053.3000;0.5633;0.5783;
1053.6000;0.5617;0.5758;
1053.9000;0.5633;0.5885;
1054.2000;0.5633;0.5987;
1054.5000;0.5649;0.6115;
1054.8000;0.5690;0.6293;
1055.1000;0.5674;0.6319;
1055.4000;0.5625;0.6166;
1055.7000;0.5625;0.6166;
1056.0000;0.5633;0.6191;
1056.3000;0.5608;0.6064;
1056.6000;0.5625;0.6089;
1056.9000;0.5617;0.5987;
1057.2000;0.5625;0.6089;
1057.5000;0.5633;0.6166;
1057.8000;0.5617;0.6115;
1058.1000;0.5617;0.6064;
1058.4000;0.5625;0.6038;
1058.7000;0.5600;0.5962;
1059.0000;0.5608;0.5936;
1059.3000;0.5625;0.5987;
1059.6000;0.5625;0.6064;
1059.9000;0.5625;0.6038;
1060.2000;0.5625;0.6038;
1060.5000;0.5600;0.5987;
1060.8000;0.5633;0.6013;
1061.1000;0.5617;0.5962;
1061.4000;0.5608;0.5936;
1061.7000;0.5617;0.5962;
1062.0000;0.5608;0.5936;
1062.3000;0.5633;0.5962;
1062.6000;0.5576;0.5885;
1062.9000;0.5608;0.6013;
1063.2000;0.5625;0.5936;
1063.5000;0.5592;0.5809;
1063.8000;0.5592;0.5758;
1064.1000;0.5617;0.5911;
1064.4000;0.5600;0.5911;
1064.7000;0.5641;0.5987;
1065.0000;0.5649;0.6013;
1065.3000;0.5617;0.5936;
1065.6000;0.5535;0.5682;
1065.9000;0.5617;0.5885;
1066.2000;0.5617;0.5860;
1066.5000;0.5617;0.5809;
1066.8000;0.5608;0.5758;
1067.1000;0.5641;0.5809;
1067.4000;0.5625;0.5758;
1067.7000;0.5608;0.5860;
1068.0000;0.5674;0.6089;
1068.3000;0.5633;0.5987;
1068.6000;0.5625;0.5936;
1068.9000;0.5625;0.5987;
1069.2000;0.5649;0.6013;
1069.5000;0.5633;0.5987;
1069.8000;0.5641;0.5962;
1070.1000;0.5600;0.5987;
1070.4000;0.5625;0.6013;
1070.7000;0.5600;0.6038;
1071.0000;0.5665;0.6217;
1071.3000;0.5608;0.6038;
1071.6000;0.5617;0.6038;
1071.9000;0.5617;0.6140;
1072.2000;0.5617;0.6166;
1072.5000;0.5641;0.6217;
1072.8000;0.5608;0.6242;
1073.1000;0.5600;0.6242;
1073.4000;0.5617;0.6217;
1073.7000;0.5617;0.6242;
1074.0000;0.5617;0.6242;
1074.3000;0.5592;0.6217;
1074.6000;0.5617;0.6217;
1074.9000;0.5617;0.6115;
1075.2000;0.5617;0.5987;
1075.5000;0.5617;0.5860;
1075.8000;0.5592;0.5860;
1076.1000;0.5625;0.5936;
1076.4000;0.5617;0.5911;
1076.7000;0.5608;0.5885;
1077.0000;0.5576;0.5860;
1077.3000;0.5600;0.5911;
1077.6000;0.5592;0.5987;
1077.9000;0.5600;0.5962;
1078.2000;0.5600;0.5987;
1078.5000;0.5568;0.5834;
1078.8000;0.5608;0.5936;
1079.1000;0.5608;0.5936;
1079.4000;0.5600;0.5911;
1079.7000;0.5617;0.5936;
1080.0000;0.5608;0.5962;
1080.3000;0.5608;0.5834;
1080.6000;0.5584;0.5783;
1080.9000;0.5600;0.5911;
1081.2000;0.5617;0.6038;
1081.5000;0.5608;0.6013;
1081.8000;0.5625;0.5962;
1082.1000;0.5608;0.6013;
1082.4000;0.5608;0.6089;
1082.7000;0.5608;0.6038;
1083.0000;0.5600;0.6038;
1083.3000;0.5625;0.6115;
1083.6000;0.5617;0.6140;
1083.9000;0.5592;0.6089;
1084.2000;0.5600;0.6089;
1084.5000;0.5600;0.6089;
1084.8000;0.5608;0.6064;
1085.1000;0.5617;0.6038;
1085.4000;0.5608;0.6038;
1085.7000;0.5592;0.6089;
1086.0000;0.5608;0.6140;
1086.3000;0.5617;0.6038;
1086.6000;0.5617;0.6166;
1086.9000;0.5608;0.6166;
1087.2000;0.5600;0.6166;
1087.5000;0.5576;0.6089;
1087.8000;0.5608;0.6115;
1088.1000;0.5592;0.6115;
1088.4000;0.5592;0.6140;
1088.7000;0.5608;0.6166;
1089.0000;0.5617;0.6115;
1089.3000;0.5608;0.6013;
1089.6000;0.5600;0.5962;
1089.9000;0.5625;0.6115;
1090.2000;0.5641;0.6115;
1090.5000;0.5600;0.6038;
1090.8000;0.5600;0.6089;
1091.1000;0.5608;0.6038;
1091.4000;0.5608;0.6038;
1091.7000;0.5617;0.6064;
1092.0000;0.5592;0.5962;
1092.3000;0.5625;0.6115;
1092.6000;0.5608;0.6038;
1092.9000;0.5625;0.6089;
1093.2000;0.5600;0.5962;
1093.5000;0.5576;0.5936;
1093.8000;0.5592;0.6038;
1094.1000;0.5617;0.6038;
1094.4000;0.5600;0.5987;
1094.7000;0.5608;0.5962;
1095.0000;0.5592;0.5936;
1095.3000;0.5617;0.5911;
1095.6000;0.5633;0.5987;
1095.9000;0.5584;0.5885;
1096.2000;0.5625;0.5885;
1096.5000;0.5625;0.5936;
1096.8000;0.5608;0.5911;
1097.1000;0.5608;0.6064;
1097.4000;0.5592;0.6038;
1097.7000;0.5617;0.6038;
1098.0000;0.5592;0.5987;
1098.3000;0.5592;0.5962;
1098.6000;0.5617;0.5962;
1098.9000;0.5592;0.6089;
1099.2000;0.5608;0.6038;
1099.5000;0.5600;0.5987;
1099.8000;0.5576;0.5860;
1100.1000;0.5600;0.5987;
1100.4000;0.5600;0.5911;
1100.7000;0.5600;0.5885;
1101.0000;0.5600;0.5809;
1101.3000;0.5600;0.5860;
1101.6000;0.5682;0.6089;
1101.9000;0.5608;0.5936;
1102.2000;0.5584;0.5936;
1102.5000;0.5584;0.5834;
1102.8000;0.5608;0.5885;
1103.1000;0.5625;0.5911;
1103.4000;0.5576;0.5758;
1103.7000;0.5584;0.5783;
1104.0000;0.5576;0.5911;
1104.3000;0.5600;0.6038;
1104.6000;0.5584;0.5987;
1104.9000;0.5600;0.6038;
1105.2000;0.5592;0.6013;
1105.5000;0.5592;0.6038;
1105.8000;0.5592;0.5962;
1106.1000;0.5600;0.5911;
1106.4000;0.5600;0.6064;
1106.7000;0.5551;0.5987;
1107.0000;0.5617;0.6166;
1107.3000;0.5608;0.6089;
1107.6000;0.5584;0.6140;
1107.9000;0.5600;0.6166;
1108.2000;0.5592;0.6191;
1108.5000;0.5592;0.6191;
1108.8000;0.5543;0.5987;
1109.1000;0.5584;0.6064;
1109.4000;0.5568;0.5936;
1109.7000;0.5478;0.5783;
1110.0000;0.5592;0.6038;
1110.3000;0.5600;0.5936;
1110.6000;0.5576;0.5860;
1110.9000;0.5543;0.5809;
1111.2000;0.5600;0.5885;
1111.5000;0.5592;0.5809;
1111.8000;0.5608;0.5936;
1112.1000;0.5617;0.5834;
1112.4000;0.5584;0.5860;
1112.7000;0.5584;0.5783;
1113.0000;0.5608;0.5885;
1113.3000;0.5592;0.5911;
1113.6000;0.5600;0.5885;
1113.9000;0.5617;0.5885;
1114.2000;0.5617;0.5962;
1114.5000;0.5600;0.5962;
1114.8000;0.5608;0.5936;
1115.1000;0.5600;0.5911;
1115.4000;0.5592;0.5936;
1115.7000;0.5551;0.5834;
1116.0000;0.5617;0.6064;
1116.3000;0.5592;0.6064;
1116.6000;0.5584;0.5936;
1116.9000;0.5617;0.6038;
1117.2000;0.5608;0.6089;
1117.5000;0.5600;0.5987;
1117.8000;0.5560;0.5911;
1118.1000;0.5568;0.5936;
1118.4000;0.5551;0.5885;
1118.7000;0.5584;0.5936;
1119.0000;0.5568;0.5885;
1119.3000;0.5592;0.5885;
1119.6000;0.5584;0.5962;
1119.9000;0.5576;0.5962;
1120.2000;0.5576;0.6038;
1120.5000;0.5600;0.6089;
1120.8000;0.5576;0.6115;
1121.1000;0.5592;0.6166;
1121.4000;0.5584;0.6089;
1121.7000;0.5649;0.6293;
1122.0000;0.5608;0.6217;
1122.3000;0.5592;0.6166;
1122.6000;0.5576;0.6089;
1122.9000;0.5576;0.6089;
1123.2000;0.5641;0.6166;
1123.5000;0.5608;0.6140;
1123.8000;0.5576;0.6038;
1124.1000;0.5576;0.5962;
1124.4000;0.5568;0.5911;
1124.7000;0.5600;0.5860;
1125.0000;0.5617;0.5834;
1125.3000;0.5592;0.5733;
1125.6000;0.5600;0.5834;
1125.9000;0.5608;0.5936;
1126.2000;0.5600;0.5936;
1126.5000;0.5592;0.5885;
1126.8000;0.5584;0.5860;
1127.1000;0.5608;0.5885;
1127.4000;0.5617;0.5860;
1127.7000;0.5592;0.5758;
1128.0000;0.5600;0.5682;
1128.3000;0.5600;0.5707;
1128.6000;0.5592;0.5733;
1128.9000;0.5608;0.5809;
1129.2000;0.5576;0.5783;
1129.5000;0.5576;0.5809;
1129.8000;0.5617;0.5962;
1130.1000;0.5568;0.5962;
1130.4000;0.5576;0.5885;
1130.7000;0.5608;0.5936;
1131.0000;0.5608;0.5911;
1131.3000;0.5576;0.5885;
1131.6000;0.5592;0.5962;
1131.9000;0.5568;0.5860;
1132.2000;0.5608;0.5962;
1132.5000;0.5600;0.5987;
1132.8000;0.5543;0.5809;
1133.1000;0.5576;0.5911;
1133.4000;0.5584;0.6013;
1133.7000;0.5576;0.5962;
1134.0000;0.5584;0.5987;
1134.3000;0.5657;0.6140;
1134.6000;0.5584;0.5936;
1134.9000;0.5592;0.5860;
1135.2000;0.5576;0.5783;
1135.5000;0.5592;0.5809;
1135.8000;0.5600;0.5783;
1136.1000;0.5617;0.5758;
1136.4000;0.5592;0.5707;
1136.7000;0.5600;0.5758;
1137.0000;0.5592;0.5860;
1137.3000;0.5600;0.5911;
1137.6000;0.5608;0.5936;
1137.9000;0.5608;0.5885;
1138.2000;0.5641;0.6013;
1138.5000;0.5649;0.5987;
1138.8000;0.5608;0.5885;
1139.1000;0.5560;0.5834;
1139.4000;0.5584;0.5936;
1139.7000;0.5592;0.5783;
1140.0000;0.5543;0.5682;
1140.3000;0.5576;0.5834;
1140.6000;0.5535;0.5783;
1140.9000;0.5560;0.5860;
1141.2000;0.5576;0.5860;
1141.5000;0.5600;0.5885;
1141.8000;0.5592;0.5860;
1142.1000;0.5584;0.5885;
1142.4000;0.5584;0.5860;
1142.7000;0.5600;0.5834;
1143.0000;0.5633;0.5936;
1143.3000;0.5608;0.5860;
1143.6000;0.5600;0.5885;
1143.9000;0.5600;0.5885;
1144.2000;0.5576;0.5860;
1144.5000;0.5592;0.5962;
1144.8000;0.5576;0.6013;
1145.1000;0.5560;0.5962;
1145.4000;0.5608;0.5987;
1145.7000;0.5576;0.5911;
1146.0000;0.5551;0.5962;
1146.3000;0.5584;0.6013;
1146.6000;0.5592;0.5987;
1146.9000;0.5584;0.5987;
1147.2000;0.5584;0.6038;
1147.5000;0.5600;0.6166;
1147.8000;0.5584;0.6038;
1148.1000;0.5649;0.6191;
1148.4000;0.5600;0.6089;
1148.7000;0.5592;0.6013;
1149.0000;0.5600;0.6064;
1149.3000;0.5600;0.6013;
1149.6000;0.5592;0.5962;
1149.9000;0.5576;0.5911;
1150.2000;0.5592;0.5962;
1150.5000;0.5576;0.5834;
1150.8000;0.5600;0.5885;
1151.1000;0.5600;0.5885;
1151.4000;0.5600;0.5860;
1151.7000;0.5584;0.5885;
1152.0000;0.5600;0.5885;
1152.3000;0.5568;0.5885;
1152.6000;0.5592;0.5911;
1152.9000;0.5625;0.5911;
1153.2000;0.5592;0.5809;
1153.5000;0.5600;0.5783;
1153.8000;0.5617;0.5962;
1154.1000;0.5592;0.5860;
1154.4000;0.5568;0.5783;
1154.7000;0.5535;0.5707;
1155.0000;0.5592;0.5885;
1155.3000;0.5584;0.5962;
1155.6000;0.5576;0.5911;
1155.9000;0.5576;0.5911;
1156.2000;0.5592;0.5936;
1156.5000;0.5592;0.5962;
1156.8000;0.5592;0.5936;
1157.1000;0.5600;0.5987;
1157.4000;0.5608;0.5987;
1157.7000;0.5608;0.6064;
1158.0000;0.5608;0.6013;
1158.3000;0.5641;0.6038;
1158.6000;0.5592;0.5860;
1158.9000;0.5608;0.5936;
1159.2000;0.5600;0.5911;
1159.5000;0.5568;0.5860;
1159.8000;0.5576;0.5911;
1160.1000;0.5584;0.5885;
1160.4000;0.5576;0.5911;
1160.7000;0.5592;0.5911;
1161.0000;0.5584;0.5885;
1161.3000;0.5600;0.5885;
1161.6000;0.5584;0.5860;
1161.9000;0.5543;0.5707;
1162.2000;0.5592;0.5962;
1162.5000;0.5592;0.5962;
1162.8000;0.5584;0.5987;
1163.1000;0.5600;0.6013;
1163.4000;0.5560;0.5885;
1163.7000;0.5584;0.5885;
1164.0000;0.5584;0.5962;
1164.3000;0.5600;0.5987;
1164.6000;0.5592;0.6089;
1164.9000;0.5568;0.6013;
1165.2000;0.5592;0.6115;
1165.5000;0.5568;0.6115;
1165.8000;0.5584;0.6140;
1166.1000;0.5584;0.6013;
1166.4000;0.5592;0.5987;
1166.7000;0.5633;0.5987;
1167.0000;0.5657;0.6038;
1167.3000;0.5592;0.5809;
1167.6000;0.5600;0.5962;
1167.9000;0.5608;0.6013;
1168.2000;0.5584;0.5911;
1168.5000;0.5584;0.5860;
1168.8000;0.5576;0.5885;
1169.1000;0.5608;0.6115;
1169.4000;0.5584;0.6038;
1169.7000;0.5576;0.5962;
1170.0000;0.5568;0.5987;
1170.3000;0.5641;0.6140;
1170.6000;0.5592;0.5834;
1170.9000;0.5568;0.5733;
1171.2000;0.5576;0.5834;
1171.5000;0.5576;0.5911;
1171.8000;0.5633;0.5962;
1172.1000;0.5584;0.5911;
1172.4000;0.5584;0.5936;
1172.7000;0.5592;0.5962;
1173.0000;0.5592;0.5987;
1173.3000;0.5584;0.5962;
1173.6000;0.5633;0.6140;
1173.9000;0.5576;0.6038;
1174.2000;0.5584;0.6013;
1174.5000;0.5592;0.6013;
1174.8000;0.5592;0.6089;
1175.1000;0.5584;0.5987;
1175.4000;0.5600;0.5962;
1175.7000;0.5543;0.5809;
1176.0000;0.5600;0.5962;
1176.3000;0.5568;0.5962;
1176.6000;0.5576;0.6038;
1176.9000;0.5568;0.6038;
1177.2000;0.5592;0.6038;
1177.5000;0.5584;0.5962;
1177.8000;0.5592;0.5834;
1178.1000;0.5592;0.5911;
1178.4000;0.5592;0.5834;
1178.7000;0.5584;0.5936;
1179.0000;0.5568;0.5962;
1179.3000;0.5535;0.5860;
1179.6000;0.5584;0.5962;
1179.9000;0.5600;0.5911;
1180.2000;0.5568;0.5936;
1180.5000;0.5576;0.6013;
1180.8000;0.5568;0.6064;
1181.1000;0.5600;0.6064;
1181.4000;0.5600;0.5987;
1181.7000;0.5576;0.5987;
1182.0000;0.5600;0.5987;
1182.3000;0.5608;0.6115;
1182.6000;0.5527;0.5936;
1182.9000;0.5584;0.6115;
1183.2000;0.5568;0.6089;
1183.5000;0.5584;0.6140;
1183.8000;0.5543;0.5962;
1184.1000;0.5535;0.5962;
1184.4000;0.5592;0.6115;
1184.7000;0.5576;0.6089;
1185.0000;0.5600;0.6089;
1185.3000;0.5576;0.6064;
1185.6000;0.5617;0.6064;
1185.9000;0.5511;0.5783;
1186.2000;0.5568;0.6038;
1186.5000;0.5568;0.6064;
1186.8000;0.5568;0.6038;
1187.1000;0.5535;0.5758;
1187.4000;0.5600;0.6064;
1187.7000;0.5584;0.6013;
1188.0000;0.5568;0.5987;
1188.3000;0.5600;0.6089;
1188.6000;0.5576;0.6115;
1188.9000;0.5584;0.6140;
1189.2000;0.5592;0.6191;
1189.5000;0.5584;0.6242;
1189.8000;0.5576;0.6242;
1190.1000;0.5576;0.6140;
1190.4000;0.5584;0.6115;
1190.7000;0.5568;0.6013;
1191.0000;0.5584;0.6089;
1191.3000;0.5600;0.6140;
1191.6000;0.5608;0.6064;
1191.9000;0.5584;0.6013;
1192.2000;0.5608;0.6038;
1192.5000;0.5592;0.5987;
1192.8000;0.5568;0.6013;
1193.1000;0.5600;0.6013;
1193.4000;0.5592;0.6013;
1193.7000;0.5592;0.6013;
1194.0000;0.5584;0.5987;
1194.3000;0.5592;0.6013;
1194.6000;0.5568;0.5962;
1194.9000;0.5592;0.6013;
1195.2000;0.5584;0.5987;
1195.5000;0.5576;0.6038;
1195.8000;0.5600;0.6191;
1196.1000;0.5592;0.6166;
1196.4000;0.5576;0.6089;
1196.7000;0.5576;0.6064;
1197.0000;0.5584;0.6115;
1197.3000;0.5584;0.6191;
1197.6000;0.5576;0.6166;
1197.9000;0.5568;0.6191;
1198.2000;0.5576;0.6268;
1198.5000;0.5600;0.6242;
1198.8000;0.5584;0.6166;
1199.1000;0.5576;0.6089;
1199.4000;0.5600;0.6115;
1199.7000;0.5625;0.6140;
1200.0000;0.5568;0.6089;
1200.3000;0.5576;0.6140;
1200.6000;0.5568;0.6191;
1200.9000;0.5519;0.5962;
1201.2000;0.5592;0.6089;
1201.5000;0.5608;0.6064;
1201.8000;0.5592;0.5987;
1202.1000;0.5592;0.6115;
1202.4000;0.5576;0.6217;
1202.7000;0.5584;0.6217;
1203.0000;0.5551;0.6064;
1203.3000;0.5560;0.6089;
1203.6000;0.5592;0.6140;
1203.9000;0.5674;0.6344;
1204.2000;0.5576;0.6166;
1204.5000;0.5576;0.6089;
1204.8000;0.5576;0.6166;
1205.1000;0.5617;0.6293;
1205.4000;0.5568;0.6217;
1205.7000;0.5576;0.6319;
1206.0000;0.5576;0.6344;
1206.3000;0.5576;0.6369;
1206.6000;0.5560;0.6242;
1206.9000;0.5584;0.6166;
1207.2000;0.5568;0.6217;
1207.5000;0.5584;0.6268;
1207.8000;0.5576;0.6217;
1208.1000;0.5576;0.6166;
1208.4000;0.5576;0.6140;
1208.7000;0.5584;0.6140;
1209.0000;0.5576;0.6217;
1209.3000;0.5576;0.6217;
1209.6000;0.5568;0.6242;
1209.9000;0.5592;0.6293;
1210.2000;0.5592;0.6319;
1210.5000;0.5600;0.6344;
1210.8000;0.5576;0.6369;
1211.1000;0.5592;0.6344;
1211.4000;0.5576;0.6217;
1211.7000;0.5568;0.6166;
1212.0000;0.5568;0.6140;
1212.3000;0.5584;0.6140;
1212.6000;0.5584;0.6217;
1212.9000;0.5584;0.6140;
1213.2000;0.5576;0.6115;
1213.5000;0.5543;0.5987;
1213.8000;0.5568;0.6115;
1214.1000;0.5584;0.6191;
1214.4000;0.5592;0.6217;
1214.7000;0.5576;0.6293;
1215.0000;0.5568;0.6268;
1215.3000;0.5584;0.6242;
1215.6000;0.5600;0.6344;
1215.9000;0.5592;0.6369;
1216.2000;0.5560;0.6268;
1216.5000;0.5608;0.6369;
1216.8000;0.5592;0.6420;
1217.1000;0.5568;0.6395;
1217.4000;0.5576;0.6471;
1217.7000;0.5560;0.6395;
1218.0000;0.5576;0.6369;
1218.3000;0.5560;0.6293;
1218.6000;0.5576;0.6344;
1218.9000;0.5584;0.6344;
1219.2000;0.5535;0.6217;
1219.5000;0.5535;0.6191;
1219.8000;0.5600;0.6395;
1220.1000;0.5600;0.6420;
1220.4000;0.5584;0.6420;
1220.7000;0.5576;0.6446;
1221.0000;0.5551;0.6319;
1221.3000;0.5584;0.6293;
1221.6000;0.5568;0.6268;
1221.9000;0.5576;0.6217;
1222.2000;0.5592;0.6268;
1222.5000;0.5576;0.6217;
1222.8000;0.5576;0.6140;
1223.1000;0.5584;0.6140;
1223.4000;0.5551;0.6140;
1223.7000;0.5584;0.6191;
1224.0000;0.5592;0.6319;
1224.3000;0.5649;0.6522;
1224.6000;0.5560;0.6268;
1224.9000;0.5551;0.6166;
1225.2000;0.5584;0.6217;
1225.5000;0.5560;0.6217;
1225.8000;0.5560;0.6217;
1226.1000;0.5560;0.6140;
1226.4000;0.5535;0.6038;
1226.7000;0.5592;0.6166;
1227.0000;0.5560;0.6038;
1227.3000;0.5560;0.5987;
1227.6000;0.5592;0.5987;
1227.9000;0.5592;0.6013;
1228.2000;0.5584;0.6115;
1228.5000;0.5568;0.6191;
1228.8000;0.5576;0.6140;
1229.1000;0.5576;0.6242;
1229.4000;0.5576;0.6191;
1229.7000;0.5576;0.6089;
1230.0000;0.5584;0.6191;
1230.3000;0.5568;0.6242;
1230.6000;0.5551;0.6217;
1230.9000;0.5560;0.6217;
1231.2000;0.5503;0.5936;
1231.5000;0.5584;0.6166;
1231.8000;0.5584;0.6217;
1232.1000;0.5568;0.6319;
1232.4000;0.5584;0.6293;
1232.7000;0.5584;0.6268;
1233.0000;0.5592;0.6268;
1233.3000;0.5584;0.6191;
1233.6000;0.5584;0.6242;
1233.9000;0.5576;0.6217;
1234.2000;0.5576;0.6293;
1234.5000;0.5600;0.6319;
1234.8000;0.5568;0.6217;
1235.1000;0.5584;0.6268;
1235.4000;0.5584;0.6319;
1235.7000;0.5568;0.6395;
1236.0000;0.5576;0.6369;
1236.3000;0.5560;0.6242;
1236.6000;0.5543;0.6166;
1236.9000;0.5592;0.6166;
1237.2000;0.5608;0.6166;
1237.5000;0.5519;0.5987;
1237.8000;0.5592;0.6191;
1238.1000;0.5511;0.6089;
1238.4000;0.5576;0.6268;
1238.7000;0.5600;0.6293;
1239.0000;0.5600;0.6319;
1239.3000;0.5576;0.6191;
1239.6000;0.5592;0.6191;
1239.9000;0.5584;0.6089;
1240.2000;0.5600;0.6268;
1240.5000;0.5584;0.6268;
1240.8000;0.5584;0.6242;
1241.1000;0.5665;0.6446;
1241.4000;0.5551;0.6115;
1241.7000;0.5560;0.6140;
1242.0000;0.5584;0.6217;
1242.3000;0.5576;0.6089;
1242.6000;0.5641;0.6293;
1242.9000;0.5568;0.6115;
1243.2000;0.5617;0.6319;
1243.5000;0.5600;0.6268;
1243.8000;0.5576;0.6242;
1244.1000;0.5568;0.6140;
1244.4000;0.5584;0.6166;
1244.7000;0.5592;0.6191;
1245.0000;0.5543;0.6064;
1245.3000;0.5576;0.6191;
1245.6000;0.5568;0.6242;
1245.9000;0.5576;0.6268;
1246.2000;0.5568;0.6191;
1246.5000;0.5584;0.6166;
1246.8000;0.5649;0.6344;
1247.1000;0.5584;0.6191;
1247.4000;0.5568;0.6140;
1247.7000;0.5560;0.6191;
1248.0000;0.5560;0.6191;
1248.3000;0.5576;0.6293;
1248.6000;0.5576;0.6217;
1248.9000;0.5576;0.6191;
1249.2000;0.5576;0.6217;
1249.5000;0.5584;0.6268;
1249.8000;0.5600;0.6344;
1250.1000;0.5576;0.6293;
1250.4000;0.5560;0.6268;
1250.7000;0.5576;0.6319;
1251.0000;0.5576;0.6242;
1251.3000;0.5568;0.6140;
1251.6000;0.5568;0.6089;
1251.9000;0.5584;0.6089;
1252.2000;0.5584;0.6089;
1252.5000;0.5568;0.6115;
1252.8000;0.5568;0.6166;
1253.1000;0.5584;0.6191;
1253.4000;0.5576;0.6191;
1253.7000;0.5592;0.6217;
1254.0000;0.5617;0.6268;
1254.3000;0.5527;0.5987;
1254.6000;0.5568;0.6115;
1254.9000;0.5592;0.6191;
1255.2000;0.5560;0.6268;
1255.5000;0.5568;0.6344;
1255.8000;0.5592;0.6344;
1256.1000;0.5633;0.6471;
1256.4000;0.5576;0.6293;
1256.7000;0.5576;0.6293;
1257.0000;0.5657;0.6599;
1257.3000;0.5600;0.6420;
1257.6000;0.5543;0.6268;
1257.9000;0.5560;0.6395;
1258.2000;0.5560;0.6344;
1258.5000;0.5527;0.6344;
1258.8000;0.5560;0.6522;
1259.1000;0.5503;0.6344;
1259.4000;0.5600;0.6471;
1259.7000;0.5543;0.6293;
1260.0000;0.5551;0.6395;
1260.3000;0.5568;0.6471;
1260.6000;0.5568;0.6369;
1260.9000;0.5568;0.6344;
1261.2000;0.5568;0.6268;
1261.5000;0.5657;0.6522;
1261.8000;0.5584;0.6344;
1262.1000;0.5600;0.6446;
1262.4000;0.5592;0.6319;
1262.7000;0.5584;0.6293;
1263.0000;0.5576;0.6293;
1263.3000;0.5592;0.6293;
1263.6000;0.5584;0.6268;
1263.9000;0.5576;0.6293;
1264.2000;0.5535;0.6242;
1264.5000;0.5568;0.6344;
1264.8000;0.5608;0.6446;
1265.1000;0.5608;0.6369;
1265.4000;0.5568;0.6344;
1265.7000;0.5576;0.6293;
1266.0000;0.5584;0.6217;
1266.3000;0.5560;0.6140;
1266.6000;0.5568;0.6166;
1266.9000;0.5576;0.6115;
1267.2000;0.5568;0.6038;
1267.5000;0.5592;0.6013;
1267.8000;0.5576;0.6115;
1268.1000;0.5560;0.6166;
1268.4000;0.5568;0.6166;
1268.7000;0.5568;0.6140;
1269.0000;0.5584;0.6140;
1269.3000;0.5584;0.6140;
1269.6000;0.5576;0.6166;
1269.9000;0.5592;0.6344;
1270.2000;0.5592;0.6268;
1270.5000;0.5592;0.6166;
1270.8000;0.5649;0.6293;
1271.1000;0.5600;0.6166;
1271.4000;0.5560;0.6064;
1271.7000;0.5551;0.6140;
1272.0000;0.5551;0.6140;
1272.3000;0.5511;0.6064;
1272.6000;0.5592;0.6268;
1272.9000;0.5486;0.6013;
1273.2000;0.5568;0.6217;
1273.5000;0.5551;0.6166;
1273.8000;0.5584;0.6166;
1274.1000;0.5568;0.6140;
1274.4000;0.5600;0.6293;
1274.7000;0.5584;0.6242;
1275.0000;0.5584;0.6293;
1275.3000;0.5576;0.6344;
1275.6000;0.5584;0.6319;
1275.9000;0.5584;0.6268;
1276.2000;0.5592;0.6268;
1276.5000;0.5584;0.6217;
1276.8000;0.5576;0.6242;
1277.1000;0.5592;0.6344;
1277.4000;0.5560;0.6242;
1277.7000;0.5576;0.6268;
1278.0000;0.5511;0.6140;
1278.3000;0.5511;0.6115;
1278.6000;0.5568;0.6268;
1278.9000;0.5560;0.6166;
1279.2000;0.5576;0.6242;
1279.5000;0.5551;0.6140;
1279.8000;0.5568;0.6089;
1280.1000;0.5641;0.6293;
1280.4000;0.5592;0.6166;
1280.7000;0.5568;0.6013;
1281.0000;0.5560;0.5911;
1281.3000;0.5584;0.6038;
1281.6000;0.5576;0.5962;
1281.9000;0.5543;0.5987;
1282.2000;0.5551;0.6089;
1282.5000;0.5560;0.6217;
1282.8000;0.5576;0.6242;
1283.1000;0.5503;0.6038;
1283.4000;0.5576;0.6191;
1283.7000;0.5568;0.6166;
1284.0000;0.5568;0.6166;
1284.3000;0.5560;0.6166;
1284.6000;0.5511;0.5987;
1284.9000;0.5543;0.6115;
1285.2000;0.5560;0.6089;
1285.5000;0.5633;0.6268;
1285.8000;0.5543;0.5987;
1286.1000;0.5568;0.5987;
1286.4000;0.5576;0.5962;
1286.7000;0.5560;0.5936;
1287.0000;0.5568;0.5936;
1287.3000;0.5560;0.5987;
1287.6000;0.5568;0.6038;
1287.9000;0.5551;0.6038;
1288.2000;0.5568;0.6089;
1288.5000;0.5560;0.6038;
1288.8000;0.5568;0.6013;
1289.1000;0.5543;0.5987;
1289.4000;0.5584;0.6038;
1289.7000;0.5568;0.5987;
1290.0000;0.5568;0.6038;
1290.3000;0.5560;0.6064;
1290.6000;0.5568;0.6166;
1290.9000;0.5519;0.6013;
1291.2000;0.5560;0.6013;
1291.5000;0.5551;0.5987;
1291.8000;0.5511;0.5936;
1292.1000;0.5543;0.6038;
1292.4000;0.5576;0.6013;
1292.7000;0.5560;0.5962;
1293.0000;0.5551;0.5987;
1293.3000;0.5543;0.6038;
1293.6000;0.5551;0.5987;
1293.9000;0.5568;0.6089;
1294.2000;0.5584;0.6217;
1294.5000;0.5568;0.6166;
1294.8000;0.5576;0.6064;
1295.1000;0.5568;0.6089;
1295.4000;0.5535;0.5962;
1295.7000;0.5576;0.6115;
1296.0000;0.5568;0.6089;
1296.3000;0.5560;0.6013;
1296.6000;0.5608;0.6115;
1296.9000;0.5584;0.5962;
1297.2000;0.5576;0.5987;
1297.5000;0.5560;0.5911;
1297.8000;0.5511;0.5758;
1298.1000;0.5584;0.5987;
1298.4000;0.5560;0.5885;
1298.7000;0.5551;0.5911;
1299.0000;0.5560;0.6013;
1299.3000;0.5551;0.6089;
1299.6000;0.5551;0.6038;
1299.9000;0.5560;0.6013;
1300.2000;0.5535;0.5885;
1300.5000;0.5568;0.6038;
1300.8000;0.5584;0.5962;
1301.1000;0.5592;0.5962;
1301.4000;0.5568;0.5885;
1301.7000;0.5576;0.5911;
1302.0000;0.5560;0.5962;
1302.3000;0.5560;0.5962;
1302.6000;0.5560;0.5885;
1302.9000;0.5568;0.5860;
1303.2000;0.5576;0.5885;
1303.5000;0.5560;0.5885;
1303.8000;0.5592;0.5987;
1304.1000;0.5592;0.5936;
1304.4000;0.5560;0.5834;
1304.7000;0.5584;0.5936;
1305.0000;0.5568;0.5962;
1305.3000;0.5568;0.5962;
1305.6000;0.5551;0.5911;
1305.9000;0.5576;0.5987;
1306.2000;0.5576;0.6013;
1306.5000;0.5560;0.5885;
1306.8000;0.5568;0.5911;
1307.1000;0.5568;0.5962;
1307.4000;0.5576;0.5911;
1307.7000;0.5560;0.6013;
1308.0000;0.5560;0.6089;
1308.3000;0.5560;0.6064;
1308.6000;0.5503;0.5809;
1308.9000;0.5560;0.5962;
1309.2000;0.5560;0.5987;
1309.5000;0.5568;0.6013;
1309.8000;0.5633;0.6191;
1310.1000;0.5560;0.6013;
1310.4000;0.5584;0.6140;
1310.7000;0.5519;0.5936;
1311.0000;0.5576;0.6064;
1311.3000;0.5543;0.5962;
1311.6000;0.5568;0.5936;
1311.9000;0.5584;0.5911;
1312.2000;0.5560;0.5834;
1312.5000;0.5576;0.5783;
1312.8000;0.5568;0.5707;
1313.1000;0.5560;0.5605;
1313.4000;0.5568;0.5733;
1313.7000;0.5568;0.5758;
1314.0000;0.5535;0.5707;
1314.3000;0.5551;0.5656;
1314.6000;0.5511;0.5401;
1314.9000;0.5543;0.5503;
1315.2000;0.5568;0.5529;
1315.5000;0.5543;0.5529;
1315.8000;0.5576;0.5605;
1316.1000;0.5568;0.5605;
1316.4000;0.5551;0.5707;
1316.7000;0.5584;0.5707;
1317.0000;0.5608;0.5809;
1317.3000;0.5568;0.5809;
1317.6000;0.5519;0.5733;
1317.9000;0.5519;0.5834;
1318.2000;0.5560;0.6013;
1318.5000;0.5560;0.5936;
1318.8000;0.5568;0.5936;
1319.1000;0.5551;0.5809;
1319.4000;0.5560;0.5885;
1319.7000;0.5592;0.5987;
1320.0000;0.5560;0.5809;
1320.3000;0.5560;0.5733;
1320.6000;0.5568;0.5758;
1320.9000;0.5560;0.5733;
1321.2000;0.5576;0.5809;
1321.5000;0.5535;0.5758;
1321.8000;0.5543;0.5911;
1322.1000;0.5560;0.5987;
1322.4000;0.5543;0.6038;
1322.7000;0.5511;0.5860;
1323.0000;0.5551;0.5962;
1323.3000;0.5568;0.6013;
1323.6000;0.5560;0.6013;
1323.9000;0.5576;0.5936;
1324.2000;0.5608;0.6013;
1324.5000;0.5568;0.5809;
1324.8000;0.5560;0.5936;
1325.1000;0.5576;0.5936;
1325.4000;0.5560;0.5911;
1325.7000;0.5576;0.5911;
1326.0000;0.5568;0.5860;
1326.3000;0.5560;0.5987;
1326.6000;0.5592;0.6089;
1326.9000;0.5576;0.6064;
1327.2000;0.5560;0.6089;
1327.5000;0.5576;0.6140;
1327.8000;0.5560;0.6038;
1328.1000;0.5551;0.5987;
1328.4000;0.5568;0.5962;
1328.7000;0.5568;0.5962;
1329.0000;0.5560;0.5962;
1329.3000;0.5584;0.6064;
1329.6000;0.5576;0.5987;
1329.9000;0.5568;0.6013;
1330.2000;0.5560;0.6013;
1330.5000;0.5560;0.5962;
1330.8000;0.5543;0.5962;
1331.1000;0.5551;0.6013;
1331.4000;0.5551;0.6089;
1331.7000;0.5568;0.6013;
1332.0000;0.5568;0.6064;
1332.3000;0.5560;0.6089;
1332.6000;0.5568;0.6115;
1332.9000;0.5543;0.6064;
1333.2000;0.5551;0.6038;
1333.5000;0.5551;0.6140;
1333.8000;0.5560;0.6064;
1334.1000;0.5560;0.5987;
1334.4000;0.5551;0.5936;
1334.7000;0.5568;0.6013;
1335.0000;0.5560;0.6089;
1335.3000;0.5568;0.6140;
1335.6000;0.5560;0.6089;
1335.9000;0.5551;0.6089;
1336.2000;0.5568;0.6166;
1336.5000;0.5568;0.6242;
1336.8000;0.5568;0.6191;
1337.1000;0.5568;0.6140;
1337.4000;0.5576;0.6089;
1337.7000;0.5576;0.6038;
1338.0000;0.5551;0.5987;
1338.3000;0.5560;0.5936;
1338.6000;0.5568;0.5885;
1338.9000;0.5551;0.5936;
1339.2000;0.5560;0.5936;
1339.5000;0.5543;0.5962;
1339.8000;0.5551;0.5987;
1340.1000;0.5560;0.5987;
1340.4000;0.5543;0.5936;
1340.7000;0.5576;0.5987;
1341.0000;0.5568;0.5911;
1341.3000;0.5568;0.5809;
1341.6000;0.5560;0.5682;
1341.9000;0.5543;0.5631;
1342.2000;0.5551;0.5631;
1342.5000;0.5551;0.5707;
1342.8000;0.5560;0.5758;
1343.1000;0.5584;0.5758;
1343.4000;0.5560;0.5783;
1343.7000;0.5560;0.5758;
1344.0000;0.5568;0.5860;
1344.3000;0.5551;0.5885;
1344.6000;0.5560;0.5936;
1344.9000;0.5551;0.5987;
1345.2000;0.5560;0.6013;
1345.5000;0.5560;0.6013;
1345.8000;0.5560;0.5962;
1346.1000;0.5527;0.5987;
1346.4000;0.5560;0.6089;
1346.7000;0.5576;0.6013;
1347.0000;0.5576;0.6038;
1347.3000;0.5576;0.6115;
1347.6000;0.5576;0.6166;
1347.9000;0.5576;0.6140;
1348.2000;0.5568;0.6115;
1348.5000;0.5560;0.6013;
1348.8000;0.5551;0.5962;
1349.1000;0.5568;0.5936;
1349.4000;0.5551;0.5860;
1349.7000;0.5568;0.5783;
1350.0000;0.5568;0.5834;
1350.3000;0.5600;0.5987;
1350.6000;0.5576;0.5885;
1350.9000;0.5592;0.5936;
1351.2000;0.5511;0.5733;
1351.5000;0.5584;0.5783;
1351.8000;0.5584;0.5783;
1352.1000;0.5576;0.5758;
1352.4000;0.5584;0.5809;
1352.7000;0.5576;0.5783;
1353.0000;0.5584;0.5809;
1353.3000;0.5576;0.5834;
1353.6000;0.5551;0.5758;
1353.9000;0.5551;0.5809;
1354.2000;0.5560;0.5809;
1354.5000;0.5551;0.5860;
1354.8000;0.5568;0.5885;
1355.1000;0.5543;0.5860;
1355.4000;0.5600;0.6013;
1355.7000;0.5576;0.5885;
1356.0000;0.5560;0.5834;
1356.3000;0.5551;0.5936;
1356.6000;0.5568;0.6013;
1356.9000;0.5576;0.6064;
1357.2000;0.5576;0.6140;
1357.5000;0.5568;0.5987;
1357.8000;0.5560;0.6038;
1358.1000;0.5576;0.6089;
1358.4000;0.5543;0.6013;
1358.7000;0.5600;0.6115;
1359.0000;0.5551;0.6013;
1359.3000;0.5560;0.5987;
1359.6000;0.5551;0.5962;
1359.9000;0.5560;0.5936;
1360.2000;0.5568;0.5936;
1360.5000;0.5560;0.5885;
1360.8000;0.5568;0.5962;
1361.1000;0.5543;0.5860;
1361.4000;0.5535;0.5809;
1361.7000;0.5560;0.5936;
1362.0000;0.5551;0.5962;
1362.3000;0.5568;0.6013;
1362.6000;0.5576;0.5987;
1362.9000;0.5560;0.5911;
1363.2000;0.5568;0.5987;
1363.5000;0.5551;0.5987;
1363.8000;0.5551;0.5987;
1364.1000;0.5551;0.5962;
1364.4000;0.5568;0.6038;
1364.7000;0.5560;0.5987;
1365.0000;0.5543;0.5860;
1365.3000;0.5576;0.5936;
1365.6000;0.5584;0.6013;
1365.9000;0.5568;0.6013;
1366.2000;0.5543;0.6038;
1366.5000;0.5560;0.6038;
1366.8000;0.5560;0.6089;
1367.1000;0.5576;0.6115;
1367.4000;0.5560;0.6115;
1367.7000;0.5568;0.6166;
1368.0000;0.5568;0.6166;
1368.3000;0.5568;0.6140;
1368.6000;0.5576;0.6115;
1368.9000;0.5600;0.6140;
1369.2000;0.5543;0.6038;
1369.5000;0.5543;0.6013;
1369.8000;0.5568;0.6064;
1370.1000;0.5600;0.6191;
1370.4000;0.5560;0.6089;
1370.7000;0.5568;0.6191;
1371.0000;0.5560;0.6115;
1371.3000;0.5535;0.5987;
1371.6000;0.5560;0.6115;
1371.9000;0.5600;0.6140;
1372.2000;0.5551;0.6064;
1372.5000;0.5568;0.6038;
1372.8000;0.5560;0.6013;
1373.1000;0.5568;0.5962;
1373.4000;0.5568;0.5936;
1373.7000;0.5576;0.5987;
1374.0000;0.5551;0.5962;
1374.3000;0.5560;0.5834;
1374.6000;0.5560;0.5885;
1374.9000;0.5568;0.6013;
1375.2000;0.5551;0.5911;
1375.5000;0.5584;0.5911;
1375.8000;0.5551;0.5936;
1376.1000;0.5560;0.5962;
1376.4000;0.5560;0.5987;
1376.7000;0.5543;0.5911;
1377.0000;0.5584;0.5987;
1377.3000;0.5576;0.5962;
1377.6000;0.5568;0.5936;
1377.9000;0.5568;0.5860;
1378.2000;0.5576;0.5936;
1378.5000;0.5560;0.5962;
1378.8000;0.5551;0.5936;
1379.1000;0.5560;0.5987;
1379.4000;0.5551;0.5987;
1379.7000;0.5511;0.6038;
1380.0000;0.5560;0.6166;
1380.3000;0.5560;0.6140;
1380.6000;0.5527;0.6038;
1380.9000;0.5560;0.6064;
1381.2000;0.5560;0.5936;
1381.5000;0.5543;0.5860;
1381.8000;0.5519;0.5860;
1382.1000;0.5568;0.6013;
1382.4000;0.5551;0.5987;
1382.7000;0.5568;0.6013;
1383.0000;0.5543;0.5962;
1383.3000;0.5568;0.6115;
1383.6000;0.5551;0.6089;
1383.9000;0.5560;0.6166;
1384.2000;0.5551;0.6140;
1384.5000;0.5608;0.6293;
1384.8000;0.5576;0.6166;
1385.1000;0.5560;0.6089;
1385.4000;0.5543;0.6038;
1385.7000;0.5568;0.6140;
1386.0000;0.5592;0.6217;
1386.3000;0.5568;0.6089;
1386.6000;0.5560;0.5987;
1386.9000;0.5560;0.6013;
1387.2000;0.5560;0.5962;
1387.5000;0.5576;0.5987;
1387.8000;0.5600;0.6013;
1388.1000;0.5543;0.5834;
1388.4000;0.5568;0.5962;
1388.7000;0.5584;0.6064;
1389.0000;0.5608;0.6064;
1389.3000;0.5568;0.5962;
1389.6000;0.5560;0.5885;
1389.9000;0.5560;0.5911;
1390.2000;0.5576;0.5962;
1390.5000;0.5600;0.6115;
1390.8000;0.5568;0.5936;
1391.1000;0.5576;0.5860;
1391.4000;0.5568;0.5783;
1391.7000;0.5551;0.5682;
1392.0000;0.5551;0.5631;
1392.3000;0.5576;0.5631;
1392.6000;0.5560;0.5656;
1392.9000;0.5576;0.5758;
1393.2000;0.5568;0.5733;
1393.5000;0.5576;0.5783;
1393.8000;0.5560;0.5860;
1394.1000;0.5568;0.5962;
1394.4000;0.5560;0.5936;
1394.7000;0.5551;0.5962;
1395.0000;0.5560;0.6064;
1395.3000;0.5551;0.6013;
1395.6000;0.5600;0.6089;
1395.9000;0.5551;0.5936;
1396.2000;0.5551;0.5936;
1396.5000;0.5568;0.5911;
1396.8000;0.5560;0.5962;
1397.1000;0.5551;0.5987;
1397.4000;0.5551;0.5936;
1397.7000;0.5568;0.5962;
1398.0000;0.5560;0.5885;
1398.3000;0.5560;0.5885;
1398.6000;0.5568;0.5987;
1398.9000;0.5568;0.5911;
1399.2000;0.5519;0.5834;
1399.5000;0.5560;0.5962;
1399.8000;0.5551;0.5885;
