time/ms;Fluo/V;P700 deltaI/I x10³;
-199.8000;0.4925;0.5783;
-199.5000;0.4933;0.5783;
-199.2000;0.4949;0.5783;
-198.9000;0.4925;0.5783;
-198.6000;0.4941;0.5809;
-198.3000;0.4949;0.5860;
-198.0000;0.4957;0.5911;
-197.7000;0.4957;0.5860;
-197.4000;0.4933;0.5809;
-197.1000;0.4941;0.5834;
-196.8000;0.4949;0.5860;
-196.5000;0.4933;0.5885;
-196.2000;0.4941;0.5834;
-195.9000;0.5031;0.6038;
-195.6000;0.4925;0.5758;
-195.3000;0.4925;0.5758;
-195.0000;0.4949;0.5885;
-194.7000;0.4974;0.5860;
-194.4000;0.4941;0.5834;
-194.1000;0.4908;0.5656;
-193.8000;0.4941;0.5682;
-193.5000;0.4949;0.5580;
-193.2000;0.4957;0.5631;
-192.9000;0.4957;0.5682;
-192.6000;0.4965;0.5580;
-192.3000;0.4949;0.5580;
-192.0000;0.4957;0.5605;
-191.7000;0.4982;0.5682;
-191.4000;0.4957;0.5580;
-191.1000;0.4957;0.5554;
-190.8000;0.4949;0.5580;
-190.5000;0.4949;0.5682;
-190.2000;0.4941;0.5733;
-189.9000;0.4965;0.5834;
-189.6000;0.4900;0.5656;
-189.3000;0.4957;0.5809;
-189.0000;0.4949;0.5733;
-188.7000;0.4957;0.5707;
-188.4000;0.4933;0.5758;
-188.1000;0.4949;0.5783;
-187.8000;0.4965;0.5783;
-187.5000;0.4957;0.5758;
-187.2000;0.4949;0.5809;
-186.9000;0.4925;0.5783;
-186.6000;0.4949;0.5834;
-186.3000;0.4949;0.5885;
-186.0000;0.4974;0.5936;
-185.7000;0.4949;0.5911;
-185.4000;0.4998;0.5987;
-185.1000;0.4949;0.5809;
-184.8000;0.4965;0.5860;
-184.5000;0.4965;0.5911;
-184.2000;0.4957;0.5860;
-183.9000;0.4974;0.5834;
-183.6000;0.4974;0.5860;
-183.3000;0.4949;0.5809;
-183.0000;0.4925;0.5758;
-182.7000;0.4957;0.5911;
-182.4000;0.4941;0.5809;
-182.1000;0.4974;0.5860;
-181.8000;0.4957;0.5834;
-181.5000;0.4949;0.5885;
-181.2000;0.4949;0.5936;
-180.9000;0.4957;0.5860;
-180.6000;0.4941;0.5733;
-180.3000;0.4949;0.5733;
-180.0000;0.4949;0.5733;
-179.7000;0.4957;0.5758;
-179.4000;0.4957;0.5783;
-179.1000;0.4949;0.5834;
-178.8000;0.4965;0.5834;
-178.5000;0.4982;0.5860;
-178.2000;0.4949;0.5682;
-177.9000;0.4957;0.5783;
-177.6000;0.4965;0.5860;
-177.3000;0.4949;0.5834;
-177.0000;0.4949;0.5809;
-176.7000;0.4941;0.5733;
-176.4000;0.4941;0.5707;
-176.1000;0.4957;0.5809;
-175.8000;0.4957;0.5758;
-175.5000;0.4941;0.5809;
-175.2000;0.4941;0.5809;
-174.9000;0.5022;0.5962;
-174.6000;0.4965;0.5834;
-174.3000;0.5022;0.6089;
-174.0000;0.4949;0.5885;
-173.7000;0.4965;0.5936;
-173.4000;0.4974;0.5911;
-173.1000;0.4974;0.5834;
-172.8000;0.4965;0.5860;
-172.5000;0.4965;0.5885;
-172.2000;0.4949;0.5733;
-171.9000;0.4965;0.5834;
-171.6000;0.4965;0.5783;
-171.3000;0.4974;0.5834;
-171.0000;0.4982;0.5885;
-170.7000;0.4982;0.5962;
-170.4000;0.4974;0.5962;
-170.1000;0.4974;0.5936;
-169.8000;0.4957;0.6013;
-169.5000;0.4949;0.5987;
-169.2000;0.4974;0.6013;
-168.9000;0.4974;0.6013;
-168.6000;0.4990;0.5987;
-168.3000;0.4974;0.5936;
-168.0000;0.4974;0.5936;
-167.7000;0.4957;0.5936;
-167.4000;0.4982;0.6013;
-167.1000;0.4982;0.6064;
-166.8000;0.4982;0.6115;
-166.5000;0.4957;0.6089;
-166.2000;0.4965;0.6115;
-165.9000;0.5006;0.6064;
-165.6000;0.4974;0.5936;
-165.3000;0.4965;0.5962;
-165.0000;0.4974;0.5962;
-164.7000;0.4982;0.5936;
-164.4000;0.4982;0.5987;
-164.1000;0.4974;0.6064;
-163.8000;0.4982;0.6064;
-163.5000;0.4998;0.6013;
-163.2000;0.4982;0.5936;
-162.9000;0.4965;0.5885;
-162.6000;0.4974;0.5885;
-162.3000;0.4974;0.5809;
-162.0000;0.4982;0.5860;
-161.7000;0.4990;0.5911;
-161.4000;0.4990;0.5962;
-161.1000;0.4982;0.6089;
-160.8000;0.4974;0.6089;
-160.5000;0.4982;0.6038;
-160.2000;0.4982;0.6013;
-159.9000;0.4965;0.5936;
-159.6000;0.4990;0.5962;
-159.3000;0.4990;0.5936;
-159.0000;0.4974;0.5783;
-158.7000;0.4965;0.5758;
-158.4000;0.4957;0.5733;
-158.1000;0.5014;0.5936;
-157.8000;0.4990;0.5809;
-157.5000;0.4990;0.5860;
-157.2000;0.4998;0.5962;
-156.9000;0.5006;0.6013;
-156.6000;0.4990;0.5860;
-156.3000;0.4998;0.5834;
-156.0000;0.4974;0.5885;
-155.7000;0.4990;0.5936;
-155.4000;0.4982;0.5809;
-155.1000;0.4974;0.5860;
-154.8000;0.4982;0.5936;
-154.5000;0.5006;0.5987;
-154.2000;0.4957;0.5885;
-153.9000;0.4949;0.5860;
-153.6000;0.4990;0.5860;
-153.3000;0.4990;0.5962;
-153.0000;0.4998;0.5987;
-152.7000;0.4990;0.5911;
-152.4000;0.5022;0.5987;
-152.1000;0.4965;0.5911;
-151.8000;0.5006;0.5885;
-151.5000;0.4990;0.5834;
-151.2000;0.5014;0.5834;
-150.9000;0.4998;0.5834;
-150.6000;0.4990;0.5809;
-150.3000;0.5006;0.5783;
-150.0000;0.5031;0.5860;
-149.7000;0.4990;0.5783;
-149.4000;0.5006;0.5885;
-149.1000;0.4990;0.5860;
-148.8000;0.4982;0.5860;
-148.5000;0.5006;0.5860;
-148.2000;0.4998;0.5758;
-147.9000;0.5006;0.5809;
-147.6000;0.4990;0.5656;
-147.3000;0.5022;0.5733;
-147.0000;0.5014;0.5682;
-146.7000;0.5022;0.5758;
-146.4000;0.4998;0.5758;
-146.1000;0.4990;0.5783;
-145.8000;0.5006;0.5809;
-145.5000;0.5006;0.5962;
-145.2000;0.4998;0.5936;
-144.9000;0.4982;0.5885;
-144.6000;0.4998;0.5936;
-144.3000;0.4998;0.5936;
-144.0000;0.4990;0.5911;
-143.7000;0.4998;0.5860;
-143.4000;0.4974;0.5783;
-143.1000;0.4998;0.5733;
-142.8000;0.4990;0.5656;
-142.5000;0.4998;0.5707;
-142.2000;0.4933;0.5554;
-141.9000;0.4998;0.5656;
-141.6000;0.5006;0.5733;
-141.3000;0.4998;0.5733;
-141.0000;0.4998;0.5682;
-140.7000;0.4998;0.5733;
-140.4000;0.5006;0.5707;
-140.1000;0.5006;0.5783;
-139.8000;0.4982;0.5707;
-139.5000;0.4998;0.5707;
-139.2000;0.5014;0.5758;
-138.9000;0.5006;0.5758;
-138.6000;0.5014;0.5809;
-138.3000;0.5014;0.5885;
-138.0000;0.5006;0.5885;
-137.7000;0.5022;0.5911;
-137.4000;0.4990;0.5758;
-137.1000;0.5006;0.5707;
-136.8000;0.5055;0.5809;
-136.5000;0.5022;0.5707;
-136.2000;0.5006;0.5580;
-135.9000;0.5006;0.5631;
-135.6000;0.4998;0.5605;
-135.3000;0.5006;0.5656;
-135.0000;0.5014;0.5580;
-134.7000;0.5088;0.5809;
-134.4000;0.5014;0.5631;
-134.1000;0.5014;0.5682;
-133.8000;0.5031;0.5656;
-133.5000;0.5088;0.5860;
-133.2000;0.5006;0.5656;
-132.9000;0.5031;0.5682;
-132.6000;0.5039;0.5707;
-132.3000;0.5006;0.5605;
-132.0000;0.4965;0.5554;
-131.7000;0.5047;0.5834;
-131.4000;0.5039;0.5809;
-131.1000;0.4990;0.5656;
-130.8000;0.5022;0.5656;
-130.5000;0.4998;0.5656;
-130.2000;0.5022;0.5783;
-129.9000;0.4998;0.5783;
-129.6000;0.5006;0.5809;
-129.3000;0.5022;0.5809;
-129.0000;0.5055;0.5834;
-128.7000;0.5039;0.5783;
-128.4000;0.5031;0.5758;
-128.1000;0.4998;0.5758;
-127.8000;0.5022;0.5911;
-127.5000;0.5022;0.5809;
-127.2000;0.5006;0.5733;
-126.9000;0.5022;0.5580;
-126.6000;0.5088;0.5733;
-126.3000;0.5031;0.5605;
-126.0000;0.5055;0.5707;
-125.7000;0.5022;0.5733;
-125.4000;0.5055;0.5783;
-125.1000;0.5022;0.5656;
-124.8000;0.5039;0.5580;
-124.5000;0.5022;0.5580;
-124.2000;0.5031;0.5707;
-123.9000;0.5047;0.5605;
-123.6000;0.4998;0.5503;
-123.3000;0.5014;0.5605;
-123.0000;0.5031;0.5707;
-122.7000;0.5031;0.5682;
-122.4000;0.5039;0.5682;
-122.1000;0.5031;0.5682;
-121.8000;0.5031;0.5682;
-121.5000;0.5039;0.5707;
-121.2000;0.5031;0.5682;
-120.9000;0.5047;0.5656;
-120.6000;0.5031;0.5631;
-120.3000;0.5022;0.5656;
-120.0000;0.5022;0.5631;
-119.7000;0.5031;0.5656;
-119.4000;0.5031;0.5656;
-119.1000;0.5031;0.5605;
-118.8000;0.5047;0.5682;
-118.5000;0.5047;0.5707;
-118.2000;0.5031;0.5707;
-117.9000;0.5039;0.5707;
-117.6000;0.5047;0.5733;
-117.3000;0.5031;0.5707;
-117.0000;0.5047;0.5758;
-116.7000;0.5031;0.5783;
-116.4000;0.5047;0.5758;
-116.1000;0.5039;0.5631;
-115.8000;0.5039;0.5605;
-115.5000;0.5039;0.5656;
-115.2000;0.5055;0.5733;
-114.9000;0.5071;0.5656;
-114.6000;0.5088;0.5707;
-114.3000;0.5055;0.5580;
-114.0000;0.5055;0.5554;
-113.7000;0.5055;0.5605;
-113.4000;0.5047;0.5580;
-113.1000;0.5063;0.5605;
-112.8000;0.5055;0.5580;
-112.5000;0.5071;0.5605;
-112.2000;0.5063;0.5631;
-111.9000;0.5055;0.5605;
-111.6000;0.5055;0.5707;
-111.3000;0.5063;0.5656;
-111.0000;0.5055;0.5707;
-110.7000;0.5047;0.5605;
-110.4000;0.5063;0.5656;
-110.1000;0.5071;0.5682;
-109.8000;0.5063;0.5758;
-109.5000;0.5071;0.5733;
-109.2000;0.5055;0.5656;
-108.9000;0.5079;0.5682;
-108.6000;0.5071;0.5682;
-108.3000;0.5063;0.5605;
-108.0000;0.5039;0.5580;
-107.7000;0.5088;0.5631;
-107.4000;0.5047;0.5580;
-107.1000;0.5096;0.5631;
-106.8000;0.5063;0.5656;
-106.5000;0.5055;0.5605;
-106.2000;0.5055;0.5580;
-105.9000;0.5079;0.5580;
-105.6000;0.5096;0.5682;
-105.3000;0.5055;0.5503;
-105.0000;0.5055;0.5554;
-104.7000;0.5055;0.5580;
-104.4000;0.5006;0.5427;
-104.1000;0.5079;0.5631;
-103.8000;0.5071;0.5580;
-103.5000;0.5063;0.5707;
-103.2000;0.5071;0.5707;
-102.9000;0.5055;0.5733;
-102.6000;0.5079;0.5733;
-102.3000;0.5088;0.5783;
-102.0000;0.5088;0.5733;
-101.7000;0.5079;0.5605;
-101.4000;0.5079;0.5580;
-101.1000;0.5088;0.5529;
-100.8000;0.5071;0.5529;
-100.5000;0.5079;0.5503;
-100.2000;0.5079;0.5529;
-99.9000;0.5079;0.5529;
-99.6000;0.5088;0.5554;
-99.3000;0.5071;0.5580;
-99.0000;0.5088;0.5631;
-98.7000;0.5096;0.5682;
-98.4000;0.5088;0.5631;
-98.1000;0.5088;0.5631;
-97.8000;0.5104;0.5631;
-97.5000;0.5096;0.5605;
-97.2000;0.5088;0.5631;
-96.9000;0.5071;0.5529;
-96.6000;0.5088;0.5554;
-96.3000;0.5096;0.5580;
-96.0000;0.5104;0.5580;
-95.7000;0.5096;0.5580;
-95.4000;0.5112;0.5656;
-95.1000;0.5096;0.5707;
-94.8000;0.5079;0.5707;
-94.5000;0.5104;0.5809;
-94.2000;0.5088;0.5758;
-93.9000;0.5104;0.5783;
-93.6000;0.5096;0.5707;
-93.3000;0.5104;0.5707;
-93.0000;0.5104;0.5631;
-92.7000;0.5071;0.5529;
-92.4000;0.5096;0.5631;
-92.1000;0.5112;0.5758;
-91.8000;0.5120;0.5809;
-91.5000;0.5104;0.5707;
-91.2000;0.5088;0.5605;
-90.9000;0.5128;0.5733;
-90.6000;0.5161;0.5783;
-90.3000;0.5104;0.5682;
-90.0000;0.5104;0.5733;
-89.7000;0.5128;0.5809;
-89.4000;0.5144;0.5885;
-89.1000;0.5128;0.5809;
-88.8000;0.5120;0.5733;
-88.5000;0.5120;0.5733;
-88.2000;0.5096;0.5707;
-87.9000;0.5120;0.5605;
-87.6000;0.5120;0.5554;
-87.3000;0.5112;0.5682;
-87.0000;0.5144;0.5783;
-86.7000;0.5112;0.5733;
-86.4000;0.5104;0.5783;
-86.1000;0.5120;0.5758;
-85.8000;0.5128;0.5707;
-85.5000;0.5128;0.5707;
-85.2000;0.5071;0.5580;
-84.9000;0.5112;0.5758;
-84.6000;0.5120;0.5783;
-84.3000;0.5120;0.5758;
-84.0000;0.5096;0.5605;
-83.7000;0.5112;0.5605;
-83.4000;0.5136;0.5605;
-83.1000;0.5153;0.5631;
-82.8000;0.5120;0.5529;
-82.5000;0.5128;0.5580;
-82.2000;0.5120;0.5580;
-81.9000;0.5136;0.5605;
-81.6000;0.5079;0.5478;
-81.3000;0.5128;0.5605;
-81.0000;0.5120;0.5682;
-80.7000;0.5136;0.5682;
-80.4000;0.5136;0.5605;
-80.1000;0.5153;0.5580;
-79.8000;0.5128;0.5529;
-79.5000;0.5153;0.5580;
-79.2000;0.5153;0.5631;
-78.9000;0.5136;0.5529;
-78.6000;0.5144;0.5580;
-78.3000;0.5153;0.5605;
-78.0000;0.5153;0.5631;
-77.7000;0.5144;0.5580;
-77.4000;0.5161;0.5707;
-77.1000;0.5161;0.5682;
-76.8000;0.5177;0.5656;
-76.5000;0.5153;0.5580;
-76.2000;0.5136;0.5554;
-75.9000;0.5153;0.5580;
-75.6000;0.5169;0.5707;
-75.3000;0.5177;0.5707;
-75.0000;0.5169;0.5733;
-74.7000;0.5112;0.5605;
-74.4000;0.5161;0.5605;
-74.1000;0.5177;0.5605;
-73.8000;0.5153;0.5580;
-73.5000;0.5161;0.5631;
-73.2000;0.5144;0.5580;
-72.9000;0.5128;0.5478;
-72.6000;0.5169;0.5554;
-72.3000;0.5153;0.5529;
-72.0000;0.5177;0.5580;
-71.7000;0.5153;0.5554;
-71.4000;0.5144;0.5631;
-71.1000;0.5169;0.5631;
-70.8000;0.5161;0.5707;
-70.5000;0.5177;0.5911;
-70.2000;0.5185;0.5860;
-69.9000;0.5185;0.5809;
-69.6000;0.5169;0.5707;
-69.3000;0.5161;0.5733;
-69.0000;0.5226;0.5783;
-68.7000;0.5185;0.5707;
-68.4000;0.5185;0.5758;
-68.1000;0.5193;0.5733;
-67.8000;0.5185;0.5656;
-67.5000;0.5242;0.5707;
-67.2000;0.5177;0.5529;
-66.9000;0.5185;0.5580;
-66.6000;0.5177;0.5656;
-66.3000;0.5193;0.5682;
-66.0000;0.5169;0.5631;
-65.7000;0.5193;0.5733;
-65.4000;0.5185;0.5733;
-65.1000;0.5201;0.5733;
-64.8000;0.5201;0.5682;
-64.5000;0.5218;0.5631;
-64.2000;0.5218;0.5656;
-63.9000;0.5210;0.5758;
-63.6000;0.5250;0.5783;
-63.3000;0.5161;0.5529;
-63.0000;0.5193;0.5554;
-62.7000;0.5218;0.5554;
-62.4000;0.5201;0.5376;
-62.1000;0.5169;0.5299;
-61.8000;0.5218;0.5401;
-61.5000;0.5242;0.5427;
-61.2000;0.5218;0.5503;
-60.9000;0.5201;0.5478;
-60.6000;0.5185;0.5452;
-60.3000;0.5210;0.5427;
-60.0000;0.5226;0.5503;
-59.7000;0.5218;0.5452;
-59.4000;0.5234;0.5478;
-59.1000;0.5210;0.5401;
-58.8000;0.5218;0.5325;
-58.5000;0.5210;0.5376;
-58.2000;0.5210;0.5401;
-57.9000;0.5210;0.5401;
-57.6000;0.5218;0.5376;
-57.3000;0.5218;0.5350;
-57.0000;0.5242;0.5401;
-56.7000;0.5218;0.5401;
-56.4000;0.5234;0.5478;
-56.1000;0.5226;0.5401;
-55.8000;0.5234;0.5350;
-55.5000;0.5234;0.5452;
-55.2000;0.5258;0.5503;
-54.9000;0.5250;0.5503;
-54.6000;0.5250;0.5452;
-54.3000;0.5242;0.5376;
-54.0000;0.5250;0.5376;
-53.7000;0.5267;0.5503;
-53.4000;0.5250;0.5427;
-53.1000;0.5218;0.5452;
-52.8000;0.5234;0.5605;
-52.5000;0.5234;0.5656;
-52.2000;0.5250;0.5605;
-51.9000;0.5193;0.5452;
-51.6000;0.5242;0.5631;
-51.3000;0.5267;0.5733;
-51.0000;0.5267;0.5758;
-50.7000;0.5234;0.5631;
-50.4000;0.5267;0.5682;
-50.1000;0.5250;0.5733;
-49.8000;0.5267;0.5733;
-49.5000;0.5267;0.5682;
-49.2000;0.5242;0.5554;
-48.9000;0.5234;0.5554;
-48.6000;0.5275;0.5758;
-48.3000;0.5267;0.5758;
-48.0000;0.5291;0.5758;
-47.7000;0.5275;0.5733;
-47.4000;0.5275;0.5631;
-47.1000;0.5250;0.5554;
-46.8000;0.5267;0.5478;
-46.5000;0.5275;0.5478;
-46.2000;0.5283;0.5452;
-45.9000;0.5283;0.5427;
-45.6000;0.5291;0.5427;
-45.3000;0.5267;0.5299;
-45.0000;0.5291;0.5401;
-44.7000;0.5275;0.5452;
-44.4000;0.5283;0.5554;
-44.1000;0.5291;0.5580;
-43.8000;0.5291;0.5478;
-43.5000;0.5372;0.5605;
-43.2000;0.5283;0.5427;
-42.9000;0.5307;0.5427;
-42.6000;0.5283;0.5376;
-42.3000;0.5283;0.5376;
-42.0000;0.5283;0.5452;
-41.7000;0.5291;0.5478;
-41.4000;0.5283;0.5478;
-41.1000;0.5291;0.5452;
-40.8000;0.5291;0.5376;
-40.5000;0.5307;0.5427;
-40.2000;0.5307;0.5401;
-39.9000;0.5299;0.5503;
-39.6000;0.5307;0.5478;
-39.3000;0.5307;0.5427;
-39.0000;0.5299;0.5350;
-38.7000;0.5307;0.5427;
-38.4000;0.5348;0.5554;
-38.1000;0.5332;0.5503;
-37.8000;0.5307;0.5427;
-37.5000;0.5315;0.5427;
-37.2000;0.5324;0.5452;
-36.9000;0.5315;0.5401;
-36.6000;0.5332;0.5427;
-36.3000;0.5324;0.5427;
-36.0000;0.5340;0.5452;
-35.7000;0.5324;0.5452;
-35.4000;0.5315;0.5401;
-35.1000;0.5332;0.5376;
-34.8000;0.5348;0.5478;
-34.5000;0.5324;0.5478;
-34.2000;0.5315;0.5350;
-33.9000;0.5332;0.5325;
-33.6000;0.5250;0.5070;
-33.3000;0.5356;0.5350;
-33.0000;0.5332;0.5350;
-32.7000;0.5340;0.5299;
-32.4000;0.5340;0.5274;
-32.1000;0.5340;0.5248;
-31.8000;0.5364;0.5248;
-31.5000;0.5348;0.5248;
-31.2000;0.5340;0.5325;
-30.9000;0.5348;0.5376;
-30.6000;0.5348;0.5350;
-30.3000;0.5372;0.5401;
-30.0000;0.5340;0.5274;
-29.7000;0.5324;0.5248;
-29.4000;0.5348;0.5274;
-29.1000;0.5356;0.5248;
-28.8000;0.5356;0.5274;
-28.5000;0.5381;0.5350;
-28.2000;0.5356;0.5248;
-27.9000;0.5381;0.5299;
-27.6000;0.5348;0.5248;
-27.3000;0.5340;0.5197;
-27.0000;0.5348;0.5197;
-26.7000;0.5356;0.5248;
-26.4000;0.5356;0.5299;
-26.1000;0.5340;0.5325;
-25.8000;0.5381;0.5325;
-25.5000;0.5372;0.5325;
-25.2000;0.5421;0.5350;
-24.9000;0.5356;0.5197;
-24.6000;0.5389;0.5376;
-24.3000;0.5397;0.5401;
-24.0000;0.5389;0.5350;
-23.7000;0.5389;0.5248;
-23.4000;0.5389;0.5274;
-23.1000;0.5397;0.5197;
-22.8000;0.5364;0.5096;
-22.5000;0.5389;0.5197;
-22.2000;0.5397;0.5121;
-21.9000;0.5413;0.5096;
-21.6000;0.5405;0.5172;
-21.3000;0.5389;0.5096;
-21.0000;0.5397;0.5096;
-20.7000;0.5397;0.5096;
-20.4000;0.5405;0.5096;
-20.1000;0.5413;0.5096;
-19.8000;0.5405;0.5121;
-19.5000;0.5389;0.5121;
-19.2000;0.5429;0.5274;
-18.9000;0.5421;0.5274;
-18.6000;0.5381;0.5172;
-18.3000;0.5421;0.5376;
-18.0000;0.5438;0.5401;
-17.7000;0.5421;0.5376;
-17.4000;0.5421;0.5350;
-17.1000;0.5421;0.5350;
-16.8000;0.5429;0.5299;
-16.5000;0.5413;0.5197;
-16.2000;0.5421;0.5197;
-15.9000;0.5429;0.5248;
-15.6000;0.5470;0.5350;
-15.3000;0.5438;0.5248;
-15.0000;0.5429;0.5274;
-14.7000;0.5429;0.5299;
-14.4000;0.5438;0.5274;
-14.1000;0.5381;0.5121;
-13.8000;0.5446;0.5223;
-13.5000;0.5429;0.5172;
-13.2000;0.5429;0.5121;
-12.9000;0.5454;0.5121;
-12.6000;0.5454;0.4994;
-12.3000;0.5446;0.4968;
-12.0000;0.5454;0.4994;
-11.7000;0.5446;0.4968;
-11.4000;0.5454;0.4943;
-11.1000;0.5462;0.4892;
-10.8000;0.5462;0.4841;
-10.5000;0.5454;0.4815;
-10.2000;0.5454;0.4968;
-9.9000;0.5454;0.4994;
-9.6000;0.5454;0.5019;
-9.3000;0.5470;0.4994;
-9.0000;0.5470;0.4994;
-8.7000;0.5462;0.4917;
-8.4000;0.5462;0.4994;
-8.1000;0.5462;0.5045;
-7.8000;0.5478;0.5070;
-7.5000;0.5478;0.5172;
-7.2000;0.5462;0.5147;
-6.9000;0.5470;0.5223;
-6.6000;0.5462;0.5172;
-6.3000;0.5478;0.5172;
-6.0000;0.5470;0.5096;
-5.7000;0.5478;0.5096;
-5.4000;0.5486;0.5121;
-5.1000;0.5478;0.5121;
-4.8000;0.5486;0.5223;
-4.5000;0.5486;0.5223;
-4.2000;0.5503;0.5325;
-3.9000;0.5495;0.5376;
-3.6000;0.5495;0.5427;
-3.3000;0.5495;0.5325;
-3.0000;0.5503;0.5325;
-2.7000;0.5519;0.5274;
-2.4000;0.5511;0.5197;
-2.1000;0.5535;0.5274;
-1.8000;0.5503;0.5172;
-1.5000;0.5519;0.5121;
-1.2000;0.5503;0.5019;
-0.9000;0.5511;0.4968;
-0.6000;0.5519;0.4943;
-0.3000;0.5519;0.4968;
0.0000;0.5519;0.4968;
0.3000;0.5788;0.4892;
0.6000;0.6276;0.5376;
0.9000;0.6667;0.5834;
1.2000;0.6960;0.6319;
1.5000;0.7171;0.6650;
1.8000;0.7367;0.6981;
2.1000;0.7521;0.7210;
2.4000;0.7635;0.7414;
2.7000;0.7717;0.7618;
3.0000;0.7790;0.7771;
3.3000;0.7839;0.7847;
3.6000;0.7912;0.8000;
3.9000;0.7961;0.8000;
4.2000;0.7993;0.7898;
4.5000;0.7953;0.7796;
4.8000;0.8083;0.8127;
5.1000;0.8107;0.8127;
5.4000;0.8140;0.8127;
5.7000;0.8173;0.8229;
6.0000;0.8213;0.8229;
6.3000;0.8270;0.8331;
6.6000;0.8262;0.8331;
6.9000;0.8287;0.8382;
7.2000;0.8295;0.8331;
7.5000;0.8327;0.8204;
7.8000;0.8295;0.8026;
8.1000;0.8376;0.8255;
8.4000;0.8400;0.8331;
8.7000;0.8409;0.8229;
9.0000;0.8433;0.8204;
9.3000;0.8441;0.8076;
9.6000;0.8482;0.8127;
9.9000;0.8514;0.8153;
10.2000;0.8539;0.8153;
10.5000;0.8555;0.8178;
10.8000;0.8571;0.8127;
11.1000;0.8612;0.8178;
11.4000;0.8637;0.8204;
11.7000;0.8645;0.8178;
12.0000;0.8677;0.8178;
12.3000;0.8694;0.8178;
12.6000;0.8726;0.8204;
12.9000;0.8742;0.8153;
13.2000;0.8759;0.8102;
13.5000;0.8807;0.8153;
13.8000;0.8816;0.8026;
14.1000;0.8816;0.8000;
14.4000;0.8824;0.8000;
14.7000;0.8840;0.8026;
15.0000;0.8881;0.8127;
15.3000;0.8897;0.8178;
15.6000;0.8921;0.8102;
15.9000;0.8930;0.8153;
16.2000;0.8954;0.8204;
16.5000;0.8970;0.8178;
16.8000;0.8987;0.8153;
17.1000;0.9003;0.8102;
17.4000;0.9011;0.8026;
17.7000;0.9060;0.8076;
18.0000;0.9068;0.8102;
18.3000;0.9076;0.8178;
18.6000;0.9084;0.8153;
18.9000;0.9092;0.8127;
19.2000;0.9109;0.8076;
19.5000;0.9133;0.8051;
19.8000;0.9149;0.8000;
20.1000;0.9182;0.7975;
20.4000;0.9190;0.7975;
20.7000;0.9166;0.7898;
21.0000;0.9223;0.7949;
21.3000;0.9231;0.7822;
21.6000;0.9271;0.7847;
21.9000;0.9255;0.7745;
22.2000;0.9271;0.7745;
22.5000;0.9296;0.7796;
22.8000;0.9296;0.7796;
23.1000;0.9320;0.7822;
23.4000;0.9328;0.7771;
23.7000;0.9353;0.7771;
24.0000;0.9377;0.7796;
24.3000;0.9328;0.7669;
24.6000;0.9402;0.7745;
24.9000;0.9402;0.7796;
25.2000;0.9385;0.7669;
25.5000;0.9442;0.7771;
25.8000;0.9434;0.7694;
26.1000;0.9483;0.7796;
26.4000;0.9483;0.7796;
26.7000;0.9499;0.7822;
27.0000;0.9499;0.7745;
27.3000;0.9499;0.7720;
27.6000;0.9524;0.7771;
27.9000;0.9508;0.7694;
28.2000;0.9524;0.7771;
28.5000;0.9532;0.7643;
28.8000;0.9532;0.7669;
29.1000;0.9565;0.7720;
29.4000;0.9573;0.7669;
29.7000;0.9573;0.7618;
30.0000;0.9589;0.7567;
30.3000;0.9670;0.7745;
30.6000;0.9597;0.7592;
30.9000;0.9605;0.7516;
31.2000;0.9613;0.7490;
31.5000;0.9630;0.7592;
31.8000;0.9646;0.7618;
32.1000;0.9654;0.7669;
32.4000;0.9662;0.7618;
32.7000;0.9662;0.7669;
33.0000;0.9678;0.7618;
33.3000;0.9638;0.7490;
33.6000;0.9687;0.7516;
33.9000;0.9719;0.7618;
34.2000;0.9703;0.7567;
34.5000;0.9711;0.7465;
34.8000;0.9727;0.7490;
35.1000;0.9727;0.7440;
35.4000;0.9744;0.7541;
35.7000;0.9735;0.7465;
36.0000;0.9744;0.7440;
36.3000;0.9768;0.7440;
36.6000;0.9776;0.7516;
36.9000;0.9784;0.7567;
37.2000;0.9784;0.7567;
37.5000;0.9776;0.7592;
37.8000;0.9768;0.7541;
38.1000;0.9817;0.7643;
38.4000;0.9809;0.7618;
38.7000;0.9817;0.7669;
39.0000;0.9817;0.7694;
39.3000;0.9825;0.7669;
39.6000;0.9817;0.7592;
39.9000;0.9817;0.7541;
40.2000;0.9841;0.7516;
40.5000;0.9849;0.7465;
40.8000;0.9882;0.7490;
41.1000;0.9866;0.7440;
41.4000;0.9858;0.7490;
41.7000;0.9874;0.7592;
42.0000;0.9890;0.7592;
42.3000;0.9890;0.7567;
42.6000;0.9882;0.7516;
42.9000;0.9931;0.7694;
43.2000;0.9898;0.7592;
43.5000;0.9898;0.7516;
43.8000;0.9898;0.7567;
44.1000;0.9915;0.7567;
44.4000;0.9923;0.7618;
44.7000;0.9923;0.7618;
45.0000;0.9931;0.7541;
45.3000;0.9955;0.7618;
45.6000;0.9955;0.7592;
45.9000;0.9972;0.7643;
46.2000;0.9947;0.7592;
46.5000;0.9963;0.7592;
46.8000;0.9988;0.7490;
47.1000;1.0037;0.7694;
47.4000;0.9996;0.7567;
47.7000;1.0012;0.7541;
48.0000;0.9988;0.7490;
48.3000;0.9980;0.7389;
48.6000;1.0012;0.7465;
48.9000;0.9996;0.7516;
49.2000;1.0012;0.7516;
49.5000;1.0012;0.7440;
49.8000;1.0028;0.7567;
50.1000;1.0028;0.7490;
50.4000;1.0028;0.7541;
50.7000;1.0037;0.7643;
51.0000;1.0053;0.7643;
51.3000;1.0045;0.7567;
51.6000;1.0053;0.7541;
51.9000;1.0069;0.7541;
52.2000;1.0061;0.7567;
52.5000;1.0053;0.7465;
52.8000;1.0053;0.7567;
53.1000;1.0045;0.7541;
53.4000;1.0061;0.7516;
53.7000;1.0069;0.7465;
54.0000;0.9972;0.7185;
54.3000;1.0077;0.7363;
54.6000;1.0077;0.7312;
54.9000;1.0085;0.7312;
55.2000;1.0061;0.7210;
55.5000;1.0053;0.7134;
55.8000;1.0094;0.7312;
56.1000;1.0102;0.7312;
56.4000;1.0183;0.7490;
56.7000;1.0110;0.7185;
57.0000;1.0126;0.7261;
57.3000;1.0102;0.7236;
57.6000;1.0167;0.7414;
57.9000;1.0126;0.7236;
58.2000;1.0118;0.7185;
58.5000;1.0151;0.7338;
58.8000;1.0142;0.7338;
59.1000;1.0134;0.7287;
59.4000;1.0240;0.7465;
59.7000;1.0159;0.7287;
60.0000;1.0159;0.7338;
60.3000;1.0142;0.7287;
60.6000;1.0151;0.7210;
60.9000;1.0167;0.7236;
61.2000;1.0159;0.7236;
61.5000;1.0167;0.7159;
61.8000;1.0167;0.7108;
62.1000;1.0191;0.7185;
62.4000;1.0175;0.7159;
62.7000;1.0159;0.7134;
63.0000;1.0159;0.7108;
63.3000;1.0191;0.7159;
63.6000;1.0183;0.7185;
63.9000;1.0175;0.7134;
64.2000;1.0183;0.7083;
64.5000;1.0191;0.7006;
64.8000;1.0240;0.7108;
65.1000;1.0208;0.7006;
65.4000;1.0167;0.7006;
65.7000;1.0216;0.7185;
66.0000;1.0216;0.7159;
66.3000;1.0216;0.7083;
66.6000;1.0224;0.7057;
66.9000;1.0199;0.7006;
67.2000;1.0224;0.7057;
67.5000;1.0216;0.7134;
67.8000;1.0232;0.7108;
68.1000;1.0224;0.7134;
68.4000;1.0208;0.7159;
68.7000;1.0232;0.7210;
69.0000;1.0224;0.7083;
69.3000;1.0224;0.7057;
69.6000;1.0240;0.7083;
69.9000;1.0313;0.7210;
70.2000;1.0240;0.7083;
70.5000;1.0248;0.7083;
70.8000;1.0265;0.7032;
71.1000;1.0224;0.6905;
71.4000;1.0256;0.7032;
71.7000;1.0256;0.6955;
72.0000;1.0256;0.6905;
72.3000;1.0273;0.6879;
72.6000;1.0265;0.6879;
72.9000;1.0273;0.6879;
73.2000;1.0273;0.6854;
73.5000;1.0289;0.6930;
73.8000;1.0281;0.6854;
74.1000;1.0297;0.6930;
74.4000;1.0281;0.6828;
74.7000;1.0199;0.6573;
75.0000;1.0322;0.6828;
75.3000;1.0289;0.6854;
75.6000;1.0289;0.6803;
75.9000;1.0289;0.6752;
76.2000;1.0289;0.6777;
76.5000;1.0281;0.6803;
76.8000;1.0297;0.6777;
77.1000;1.0305;0.6879;
77.4000;1.0297;0.6955;
77.7000;1.0305;0.6905;
78.0000;1.0305;0.6930;
78.3000;1.0322;0.6905;
78.6000;1.0313;0.6981;
78.9000;1.0273;0.6879;
79.2000;1.0305;0.7032;
79.5000;1.0305;0.7083;
79.8000;1.0305;0.7032;
80.1000;1.0322;0.6955;
80.4000;1.0313;0.6905;
80.7000;1.0322;0.6854;
81.0000;1.0322;0.6854;
81.3000;1.0330;0.6905;
81.6000;1.0313;0.6981;
81.9000;1.0313;0.6981;
82.2000;1.0330;0.6955;
82.5000;1.0297;0.6854;
82.8000;1.0338;0.7032;
83.1000;1.0362;0.7032;
83.4000;1.0354;0.7006;
83.7000;1.0354;0.6981;
84.0000;1.0346;0.6981;
84.3000;1.0354;0.6879;
84.6000;1.0338;0.6854;
84.9000;1.0354;0.6803;
85.2000;1.0379;0.6726;
85.5000;1.0346;0.6701;
85.8000;1.0370;0.6675;
86.1000;1.0370;0.6701;
86.4000;1.0362;0.6752;
86.7000;1.0362;0.6828;
87.0000;1.0354;0.6828;
87.3000;1.0354;0.6777;
87.6000;1.0379;0.6803;
87.9000;1.0403;0.6803;
88.2000;1.0362;0.6650;
88.5000;1.0379;0.6701;
88.8000;1.0379;0.6803;
89.1000;1.0387;0.6828;
89.4000;1.0411;0.6955;
89.7000;1.0362;0.6803;
90.0000;1.0379;0.6828;
90.3000;1.0419;0.6930;
90.6000;1.0387;0.6879;
90.9000;1.0387;0.6854;
91.2000;1.0346;0.6803;
91.5000;1.0379;0.6803;
91.8000;1.0387;0.6803;
92.1000;1.0395;0.6726;
92.4000;1.0403;0.6675;
92.7000;1.0411;0.6726;
93.0000;1.0403;0.6752;
93.3000;1.0411;0.6752;
93.6000;1.0419;0.6777;
93.9000;1.0403;0.6777;
94.2000;1.0411;0.6854;
94.5000;1.0411;0.6854;
94.8000;1.0411;0.6777;
95.1000;1.0395;0.6828;
95.4000;1.0403;0.6879;
95.7000;1.0387;0.6752;
96.0000;1.0411;0.6803;
96.3000;1.0395;0.6726;
96.6000;1.0444;0.6854;
96.9000;1.0419;0.6752;
97.2000;1.0419;0.6777;
97.5000;1.0427;0.6701;
97.8000;1.0427;0.6752;
98.1000;1.0452;0.6828;
98.4000;1.0452;0.6777;
98.7000;1.0435;0.6675;
99.0000;1.0444;0.6701;
99.3000;1.0444;0.6650;
99.6000;1.0427;0.6573;
99.9000;1.0484;0.6624;
100.2000;1.0427;0.6522;
100.5000;1.0427;0.6599;
100.8000;1.0460;0.6701;
101.1000;1.0419;0.6548;
101.4000;1.0435;0.6522;
101.7000;1.0427;0.6420;
102.0000;1.0452;0.6497;
102.3000;1.0492;0.6497;
102.6000;1.0435;0.6293;
102.9000;1.0444;0.6293;
103.2000;1.0435;0.6217;
103.5000;1.0444;0.6268;
103.8000;1.0452;0.6344;
104.1000;1.0460;0.6369;
104.4000;1.0452;0.6471;
104.7000;1.0444;0.6395;
105.0000;1.0452;0.6319;
105.3000;1.0460;0.6446;
105.6000;1.0435;0.6446;
105.9000;1.0452;0.6522;
106.2000;1.0460;0.6548;
106.5000;1.0452;0.6471;
106.8000;1.0460;0.6420;
107.1000;1.0452;0.6471;
107.4000;1.0476;0.6522;
107.7000;1.0452;0.6471;
108.0000;1.0460;0.6573;
108.3000;1.0452;0.6573;
108.6000;1.0452;0.6624;
108.9000;1.0452;0.6599;
109.2000;1.0468;0.6573;
109.5000;1.0468;0.6548;
109.8000;1.0460;0.6573;
110.1000;1.0444;0.6522;
110.4000;1.0476;0.6599;
110.7000;1.0460;0.6573;
111.0000;1.0476;0.6650;
111.3000;1.0549;0.6854;
111.6000;1.0460;0.6599;
111.9000;1.0460;0.6599;
112.2000;1.0468;0.6573;
112.5000;1.0460;0.6497;
112.8000;1.0452;0.6522;
113.1000;1.0452;0.6650;
113.4000;1.0452;0.6726;
113.7000;1.0444;0.6752;
114.0000;1.0492;0.6854;
114.3000;1.0492;0.6803;
114.6000;1.0501;0.6828;
114.9000;1.0476;0.6752;
115.2000;1.0476;0.6701;
115.5000;1.0484;0.6726;
115.8000;1.0492;0.6777;
116.1000;1.0501;0.6828;
116.4000;1.0476;0.6777;
116.7000;1.0476;0.6726;
117.0000;1.0484;0.6752;
117.3000;1.0492;0.6726;
117.6000;1.0476;0.6701;
117.9000;1.0492;0.6675;
118.2000;1.0484;0.6650;
118.5000;1.0492;0.6726;
118.8000;1.0476;0.6624;
119.1000;1.0509;0.6599;
119.4000;1.0501;0.6675;
119.7000;1.0549;0.6777;
120.0000;1.0492;0.6599;
120.3000;1.0484;0.6522;
120.6000;1.0492;0.6573;
120.9000;1.0501;0.6624;
121.2000;1.0501;0.6599;
121.5000;1.0549;0.6828;
121.8000;1.0492;0.6650;
122.1000;1.0492;0.6599;
122.4000;1.0476;0.6675;
122.7000;1.0444;0.6650;
123.0000;1.0492;0.6726;
123.3000;1.0501;0.6879;
123.6000;1.0501;0.6828;
123.9000;1.0501;0.6752;
124.2000;1.0492;0.6777;
124.5000;1.0501;0.6803;
124.8000;1.0517;0.6803;
125.1000;1.0525;0.6752;
125.4000;1.0509;0.6777;
125.7000;1.0492;0.6752;
126.0000;1.0501;0.6701;
126.3000;1.0501;0.6675;
126.6000;1.0501;0.6650;
126.9000;1.0566;0.6879;
127.2000;1.0525;0.6803;
127.5000;1.0517;0.6701;
127.8000;1.0525;0.6675;
128.1000;1.0492;0.6650;
128.4000;1.0517;0.6726;
128.7000;1.0509;0.6726;
129.0000;1.0525;0.6777;
129.3000;1.0501;0.6650;
129.6000;1.0525;0.6752;
129.9000;1.0533;0.6803;
130.2000;1.0517;0.6777;
130.5000;1.0590;0.6905;
130.8000;1.0517;0.6675;
131.1000;1.0549;0.6624;
131.4000;1.0517;0.6599;
131.7000;1.0509;0.6675;
132.0000;1.0509;0.6573;
132.3000;1.0525;0.6624;
132.6000;1.0525;0.6650;
132.9000;1.0525;0.6752;
133.2000;1.0501;0.6650;
133.5000;1.0533;0.6675;
133.8000;1.0549;0.6701;
134.1000;1.0549;0.6752;
134.4000;1.0533;0.6726;
134.7000;1.0566;0.6726;
135.0000;1.0541;0.6752;
135.3000;1.0541;0.6701;
135.6000;1.0533;0.6675;
135.9000;1.0533;0.6701;
136.2000;1.0501;0.6752;
136.5000;1.0533;0.6854;
136.8000;1.0533;0.6879;
137.1000;1.0517;0.6803;
137.4000;1.0533;0.6726;
137.7000;1.0549;0.6675;
138.0000;1.0533;0.6599;
138.3000;1.0525;0.6675;
138.6000;1.0533;0.6675;
138.9000;1.0623;0.6905;
139.2000;1.0558;0.6752;
139.5000;1.0541;0.6701;
139.8000;1.0541;0.6701;
140.1000;1.0492;0.6548;
140.4000;1.0533;0.6624;
140.7000;1.0501;0.6522;
141.0000;1.0525;0.6573;
141.3000;1.0566;0.6650;
141.6000;1.0558;0.6573;
141.9000;1.0533;0.6548;
142.2000;1.0533;0.6573;
142.5000;1.0541;0.6650;
142.8000;1.0558;0.6701;
143.1000;1.0574;0.6777;
143.4000;1.0566;0.6777;
143.7000;1.0558;0.6752;
144.0000;1.0558;0.6777;
144.3000;1.0541;0.6650;
144.6000;1.0517;0.6548;
144.9000;1.0549;0.6573;
145.2000;1.0549;0.6573;
145.5000;1.0549;0.6573;
145.8000;1.0468;0.6344;
146.1000;1.0525;0.6548;
146.4000;1.0541;0.6573;
146.7000;1.0541;0.6701;
147.0000;1.0533;0.6726;
147.3000;1.0541;0.6675;
147.6000;1.0558;0.6777;
147.9000;1.0582;0.6828;
148.2000;1.0541;0.6777;
148.5000;1.0549;0.6777;
148.8000;1.0558;0.6803;
149.1000;1.0566;0.6726;
149.4000;1.0558;0.6752;
149.7000;1.0566;0.6701;
150.0000;1.0558;0.6624;
150.3000;1.0566;0.6624;
150.6000;1.0582;0.6599;
150.9000;1.0525;0.6522;
151.2000;1.0566;0.6599;
151.5000;1.0517;0.6497;
151.8000;1.0549;0.6624;
152.1000;1.0549;0.6599;
152.4000;1.0566;0.6573;
152.7000;1.0566;0.6650;
153.0000;1.0582;0.6675;
153.3000;1.0525;0.6573;
153.6000;1.0549;0.6624;
153.9000;1.0558;0.6726;
154.2000;1.0566;0.6624;
154.5000;1.0582;0.6726;
154.8000;1.0549;0.6650;
155.1000;1.0549;0.6573;
155.4000;1.0566;0.6548;
155.7000;1.0558;0.6599;
156.0000;1.0541;0.6599;
156.3000;1.0566;0.6650;
156.6000;1.0574;0.6650;
156.9000;1.0574;0.6650;
157.2000;1.0615;0.6752;
157.5000;1.0566;0.6599;
157.8000;1.0574;0.6573;
158.1000;1.0639;0.6777;
158.4000;1.0566;0.6624;
158.7000;1.0566;0.6522;
159.0000;1.0566;0.6522;
159.3000;1.0558;0.6497;
159.6000;1.0582;0.6497;
159.9000;1.0533;0.6395;
160.2000;1.0574;0.6497;
160.5000;1.0582;0.6471;
160.8000;1.0647;0.6675;
161.1000;1.0590;0.6548;
161.4000;1.0574;0.6599;
161.7000;1.0598;0.6573;
162.0000;1.0574;0.6497;
162.3000;1.0566;0.6522;
162.6000;1.0558;0.6471;
162.9000;1.0566;0.6497;
163.2000;1.0582;0.6548;
163.5000;1.0574;0.6497;
163.8000;1.0566;0.6548;
164.1000;1.0623;0.6650;
164.4000;1.0582;0.6599;
164.7000;1.0590;0.6599;
165.0000;1.0566;0.6675;
165.3000;1.0623;0.6803;
165.6000;1.0582;0.6650;
165.9000;1.0558;0.6573;
166.2000;1.0574;0.6471;
166.5000;1.0549;0.6420;
166.8000;1.0582;0.6548;
167.1000;1.0574;0.6573;
167.4000;1.0525;0.6395;
167.7000;1.0574;0.6446;
168.0000;1.0590;0.6420;
168.3000;1.0574;0.6369;
168.6000;1.0558;0.6420;
168.9000;1.0549;0.6497;
169.2000;1.0590;0.6650;
169.5000;1.0566;0.6675;
169.8000;1.0509;0.6548;
170.1000;1.0582;0.6752;
170.4000;1.0590;0.6701;
170.7000;1.0582;0.6624;
171.0000;1.0590;0.6828;
171.3000;1.0574;0.6803;
171.6000;1.0574;0.6803;
171.9000;1.0598;0.6930;
172.2000;1.0574;0.6879;
172.5000;1.0533;0.6803;
172.8000;1.0533;0.6777;
173.1000;1.0582;0.6854;
173.4000;1.0639;0.6879;
173.7000;1.0574;0.6726;
174.0000;1.0582;0.6752;
174.3000;1.0582;0.6675;
174.6000;1.0598;0.6752;
174.9000;1.0590;0.6752;
175.2000;1.0566;0.6777;
175.5000;1.0525;0.6726;
175.8000;1.0590;0.6752;
176.1000;1.0574;0.6726;
176.4000;1.0574;0.6726;
176.7000;1.0590;0.6726;
177.0000;1.0574;0.6701;
177.3000;1.0566;0.6624;
177.6000;1.0582;0.6548;
177.9000;1.0574;0.6573;
178.2000;1.0615;0.6573;
178.5000;1.0582;0.6522;
178.8000;1.0606;0.6497;
179.1000;1.0574;0.6471;
179.4000;1.0590;0.6522;
179.7000;1.0606;0.6573;
180.0000;1.0598;0.6624;
180.3000;1.0590;0.6675;
180.6000;1.0590;0.6675;
180.9000;1.0590;0.6650;
181.2000;1.0590;0.6599;
181.5000;1.0582;0.6548;
181.8000;1.0566;0.6420;
182.1000;1.0737;0.6828;
182.4000;1.0590;0.6420;
182.7000;1.0582;0.6471;
183.0000;1.0582;0.6471;
183.3000;1.0574;0.6471;
183.6000;1.0598;0.6548;
183.9000;1.0549;0.6471;
184.2000;1.0631;0.6650;
184.5000;1.0590;0.6624;
184.8000;1.0574;0.6573;
185.1000;1.0549;0.6573;
185.4000;1.0566;0.6726;
185.7000;1.0590;0.6803;
186.0000;1.0639;0.6828;
186.3000;1.0558;0.6624;
186.6000;1.0590;0.6675;
186.9000;1.0598;0.6726;
187.2000;1.0623;0.6803;
187.5000;1.0590;0.6777;
187.8000;1.0590;0.6803;
188.1000;1.0606;0.6752;
188.4000;1.0655;0.6981;
188.7000;1.0558;0.6675;
189.0000;1.0574;0.6777;
189.3000;1.0590;0.6828;
189.6000;1.0639;0.6930;
189.9000;1.0615;0.6828;
190.2000;1.0598;0.6828;
190.5000;1.0623;0.6828;
190.8000;1.0574;0.6726;
191.1000;1.0598;0.6828;
191.4000;1.0590;0.6777;
191.7000;1.0598;0.6777;
192.0000;1.0590;0.6803;
192.3000;1.0598;0.6777;
192.6000;1.0574;0.6701;
192.9000;1.0606;0.6701;
193.2000;1.0590;0.6650;
193.5000;1.0598;0.6777;
193.8000;1.0574;0.6701;
194.1000;1.0598;0.6650;
194.4000;1.0574;0.6599;
194.7000;1.0582;0.6624;
195.0000;1.0574;0.6599;
195.3000;1.0590;0.6650;
195.6000;1.0566;0.6497;
195.9000;1.0590;0.6573;
196.2000;1.0606;0.6701;
196.5000;1.0631;0.6854;
196.8000;1.0566;0.6828;
197.1000;1.0590;0.6905;
197.4000;1.0590;0.6854;
197.7000;1.0590;0.6803;
198.0000;1.0582;0.6752;
198.3000;1.0606;0.6777;
198.6000;1.0598;0.6752;
198.9000;1.0590;0.6752;
199.2000;1.0590;0.6701;
199.5000;1.0598;0.6701;
199.8000;1.0598;0.6803;
200.1000;1.0598;0.6752;
200.4000;1.0606;0.6726;
200.7000;1.0582;0.6701;
201.0000;1.0582;0.6803;
201.3000;1.0598;0.6777;
201.6000;1.0598;0.6752;
201.9000;1.0606;0.6726;
202.2000;1.0598;0.6726;
202.5000;1.0615;0.6752;
202.8000;1.0598;0.6726;
203.1000;1.0590;0.6650;
203.4000;1.0590;0.6752;
203.7000;1.0606;0.6777;
204.0000;1.0623;0.6854;
204.3000;1.0598;0.6752;
204.6000;1.0590;0.6726;
204.9000;1.0615;0.6752;
205.2000;1.0549;0.6599;
205.5000;1.0623;0.6803;
205.8000;1.0574;0.6675;
206.1000;1.0582;0.6624;
206.4000;1.0566;0.6599;
206.7000;1.0598;0.6573;
207.0000;1.0582;0.6599;
207.3000;1.0615;0.6624;
207.6000;1.0615;0.6599;
207.9000;1.0590;0.6624;
208.2000;1.0558;0.6446;
208.5000;1.0590;0.6522;
208.8000;1.0615;0.6573;
209.1000;1.0582;0.6471;
209.4000;1.0590;0.6497;
209.7000;1.0574;0.6420;
210.0000;1.0590;0.6395;
210.3000;1.0615;0.6446;
210.6000;1.0598;0.6497;
210.9000;1.0606;0.6497;
211.2000;1.0598;0.6522;
211.5000;1.0623;0.6599;
211.8000;1.0606;0.6548;
212.1000;1.0623;0.6599;
212.4000;1.0566;0.6420;
212.7000;1.0558;0.6420;
213.0000;1.0647;0.6573;
213.3000;1.0582;0.6446;
213.6000;1.0655;0.6701;
213.9000;1.0574;0.6446;
214.2000;1.0615;0.6573;
214.5000;1.0574;0.6522;
214.8000;1.0606;0.6573;
215.1000;1.0623;0.6573;
215.4000;1.0606;0.6573;
215.7000;1.0606;0.6573;
216.0000;1.0606;0.6675;
216.3000;1.0598;0.6599;
216.6000;1.0598;0.6573;
216.9000;1.0598;0.6522;
217.2000;1.0606;0.6573;
217.5000;1.0606;0.6573;
217.8000;1.0606;0.6599;
218.1000;1.0598;0.6599;
218.4000;1.0590;0.6573;
218.7000;1.0582;0.6599;
219.0000;1.0566;0.6624;
219.3000;1.0615;0.6624;
219.6000;1.0598;0.6548;
219.9000;1.0582;0.6599;
220.2000;1.0631;0.6701;
220.5000;1.0623;0.6650;
220.8000;1.0606;0.6573;
221.1000;1.0631;0.6650;
221.4000;1.0606;0.6548;
221.7000;1.0606;0.6599;
222.0000;1.0606;0.6548;
222.3000;1.0606;0.6573;
222.6000;1.0606;0.6522;
222.9000;1.0574;0.6446;
223.2000;1.0598;0.6599;
223.5000;1.0582;0.6573;
223.8000;1.0574;0.6548;
224.1000;1.0623;0.6624;
224.4000;1.0590;0.6395;
224.7000;1.0615;0.6446;
225.0000;1.0582;0.6395;
225.3000;1.0590;0.6497;
225.6000;1.0606;0.6522;
225.9000;1.0566;0.6420;
226.2000;1.0598;0.6548;
226.5000;1.0606;0.6599;
226.8000;1.0639;0.6701;
227.1000;1.0606;0.6573;
227.4000;1.0598;0.6599;
227.7000;1.0558;0.6548;
228.0000;1.0590;0.6675;
228.3000;1.0541;0.6573;
228.6000;1.0582;0.6650;
228.9000;1.0606;0.6599;
229.2000;1.0631;0.6777;
229.5000;1.0606;0.6650;
229.8000;1.0590;0.6624;
230.1000;1.0590;0.6573;
230.4000;1.0615;0.6624;
230.7000;1.0615;0.6573;
231.0000;1.0574;0.6497;
231.3000;1.0606;0.6599;
231.6000;1.0590;0.6650;
231.9000;1.0615;0.6752;
232.2000;1.0598;0.6675;
232.5000;1.0590;0.6650;
232.8000;1.0598;0.6675;
233.1000;1.0655;0.6828;
233.4000;1.0606;0.6701;
233.7000;1.0598;0.6650;
234.0000;1.0582;0.6573;
234.3000;1.0598;0.6624;
234.6000;1.0606;0.6599;
234.9000;1.0615;0.6624;
235.2000;1.0590;0.6599;
235.5000;1.0590;0.6675;
235.8000;1.0615;0.6701;
236.1000;1.0615;0.6701;
236.4000;1.0623;0.6777;
236.7000;1.0606;0.6675;
237.0000;1.0615;0.6650;
237.3000;1.0623;0.6573;
237.6000;1.0598;0.6573;
237.9000;1.0615;0.6573;
238.2000;1.0606;0.6599;
238.5000;1.0606;0.6573;
238.8000;1.0598;0.6548;
239.1000;1.0590;0.6599;
239.4000;1.0615;0.6522;
239.7000;1.0598;0.6395;
240.0000;1.0606;0.6446;
240.3000;1.0606;0.6471;
240.6000;1.0623;0.6446;
240.9000;1.0623;0.6446;
241.2000;1.0566;0.6369;
241.5000;1.0606;0.6471;
241.8000;1.0615;0.6471;
242.1000;1.0631;0.6548;
242.4000;1.0606;0.6471;
242.7000;1.0606;0.6599;
243.0000;1.0623;0.6624;
243.3000;1.0606;0.6522;
243.6000;1.0606;0.6573;
243.9000;1.0623;0.6573;
244.2000;1.0606;0.6573;
244.5000;1.0590;0.6573;
244.8000;1.0615;0.6599;
245.1000;1.0606;0.6548;
245.4000;1.0606;0.6497;
245.7000;1.0623;0.6471;
246.0000;1.0672;0.6573;
246.3000;1.0606;0.6497;
246.6000;1.0509;0.6242;
246.9000;1.0606;0.6446;
247.2000;1.0606;0.6471;
247.5000;1.0606;0.6497;
247.8000;1.0598;0.6497;
248.1000;1.0688;0.6624;
248.4000;1.0606;0.6471;
248.7000;1.0590;0.6497;
249.0000;1.0606;0.6650;
249.3000;1.0606;0.6650;
249.6000;1.0606;0.6599;
249.9000;1.0606;0.6548;
250.2000;1.0623;0.6650;
250.5000;1.0598;0.6573;
250.8000;1.0623;0.6650;
251.1000;1.0598;0.6624;
251.4000;1.0598;0.6650;
251.7000;1.0663;0.6726;
252.0000;1.0606;0.6624;
252.3000;1.0598;0.6650;
252.6000;1.0615;0.6650;
252.9000;1.0623;0.6675;
253.2000;1.0606;0.6548;
253.5000;1.0606;0.6573;
253.8000;1.0606;0.6573;
254.1000;1.0606;0.6548;
254.4000;1.0598;0.6548;
254.7000;1.0598;0.6548;
255.0000;1.0606;0.6650;
255.3000;1.0615;0.6599;
255.6000;1.0615;0.6624;
255.9000;1.0631;0.6726;
256.2000;1.0631;0.6599;
256.5000;1.0615;0.6599;
256.8000;1.0558;0.6599;
257.1000;1.0566;0.6675;
257.4000;1.0606;0.6752;
257.7000;1.0606;0.6675;
258.0000;1.0615;0.6752;
258.3000;1.0606;0.6726;
258.6000;1.0704;0.6981;
258.9000;1.0623;0.6803;
259.2000;1.0590;0.6777;
259.5000;1.0541;0.6650;
259.8000;1.0606;0.6803;
260.1000;1.0598;0.6777;
260.4000;1.0615;0.6726;
260.7000;1.0598;0.6650;
261.0000;1.0615;0.6675;
261.3000;1.0623;0.6726;
261.6000;1.0606;0.6701;
261.9000;1.0606;0.6675;
262.2000;1.0598;0.6650;
262.5000;1.0606;0.6726;
262.8000;1.0623;0.6599;
263.1000;1.0615;0.6548;
263.4000;1.0615;0.6522;
263.7000;1.0606;0.6548;
264.0000;1.0606;0.6573;
264.3000;1.0582;0.6497;
264.6000;1.0574;0.6369;
264.9000;1.0590;0.6369;
265.2000;1.0606;0.6369;
265.5000;1.0623;0.6471;
265.8000;1.0606;0.6395;
266.1000;1.0623;0.6548;
266.4000;1.0623;0.6624;
266.7000;1.0623;0.6624;
267.0000;1.0598;0.6599;
267.3000;1.0606;0.6522;
267.6000;1.0663;0.6599;
267.9000;1.0623;0.6446;
268.2000;1.0615;0.6497;
268.5000;1.0639;0.6650;
268.8000;1.0615;0.6522;
269.1000;1.0623;0.6599;
269.4000;1.0663;0.6650;
269.7000;1.0590;0.6471;
270.0000;1.0590;0.6471;
270.3000;1.0598;0.6446;
270.6000;1.0590;0.6395;
270.9000;1.0590;0.6319;
271.2000;1.0590;0.6293;
271.5000;1.0615;0.6344;
271.8000;1.0606;0.6268;
272.1000;1.0598;0.6319;
272.4000;1.0615;0.6319;
272.7000;1.0606;0.6319;
273.0000;1.0615;0.6268;
273.3000;1.0631;0.6293;
273.6000;1.0615;0.6293;
273.9000;1.0606;0.6420;
274.2000;1.0623;0.6369;
274.5000;1.0606;0.6395;
274.8000;1.0606;0.6420;
275.1000;1.0606;0.6420;
275.4000;1.0615;0.6420;
275.7000;1.0615;0.6446;
276.0000;1.0598;0.6395;
276.3000;1.0615;0.6420;
276.6000;1.0606;0.6395;
276.9000;1.0598;0.6420;
277.2000;1.0615;0.6420;
277.5000;1.0623;0.6420;
277.8000;1.0631;0.6446;
278.1000;1.0615;0.6395;
278.4000;1.0598;0.6369;
278.7000;1.0615;0.6395;
279.0000;1.0590;0.6344;
279.3000;1.0606;0.6369;
279.6000;1.0606;0.6395;
279.9000;1.0655;0.6471;
280.2000;1.0606;0.6344;
280.5000;1.0590;0.6242;
280.8000;1.0615;0.6242;
281.1000;1.0606;0.6217;
281.4000;1.0615;0.6242;
281.7000;1.0615;0.6369;
282.0000;1.0606;0.6420;
282.3000;1.0631;0.6395;
282.6000;1.0582;0.6319;
282.9000;1.0615;0.6369;
283.2000;1.0606;0.6395;
283.5000;1.0582;0.6268;
283.8000;1.0598;0.6319;
284.1000;1.0598;0.6344;
284.4000;1.0623;0.6369;
284.7000;1.0606;0.6369;
285.0000;1.0598;0.6344;
285.3000;1.0615;0.6369;
285.6000;1.0606;0.6420;
285.9000;1.0623;0.6369;
286.2000;1.0615;0.6420;
286.5000;1.0549;0.6395;
286.8000;1.0598;0.6548;
287.1000;1.0598;0.6599;
287.4000;1.0615;0.6624;
287.7000;1.0606;0.6599;
288.0000;1.0615;0.6624;
288.3000;1.0590;0.6522;
288.6000;1.0590;0.6497;
288.9000;1.0590;0.6573;
289.2000;1.0615;0.6599;
289.5000;1.0647;0.6650;
289.8000;1.0590;0.6344;
290.1000;1.0615;0.6319;
290.4000;1.0606;0.6344;
290.7000;1.0615;0.6293;
291.0000;1.0590;0.6293;
291.3000;1.0598;0.6446;
291.6000;1.0582;0.6395;
291.9000;1.0623;0.6369;
292.2000;1.0606;0.6369;
292.5000;1.0606;0.6471;
292.8000;1.0598;0.6497;
293.1000;1.0598;0.6497;
293.4000;1.0623;0.6599;
293.7000;1.0615;0.6446;
294.0000;1.0615;0.6497;
294.3000;1.0615;0.6497;
294.6000;1.0598;0.6471;
294.9000;1.0615;0.6548;
295.2000;1.0598;0.6548;
295.5000;1.0615;0.6497;
295.8000;1.0606;0.6573;
296.1000;1.0606;0.6624;
296.4000;1.0606;0.6573;
296.7000;1.0606;0.6522;
297.0000;1.0615;0.6522;
297.3000;1.0549;0.6420;
297.6000;1.0590;0.6471;
297.9000;1.0606;0.6573;
298.2000;1.0606;0.6548;
298.5000;1.0598;0.6497;
298.8000;1.0582;0.6420;
299.1000;1.0582;0.6344;
299.4000;1.0590;0.6319;
299.7000;1.0631;0.6395;
300.0000;1.0598;0.6319;
300.3000;1.0598;0.6293;
300.6000;1.0590;0.6344;
300.9000;1.0615;0.6319;
301.2000;1.0606;0.6217;
301.5000;1.0566;0.6140;
301.8000;1.0623;0.6293;
302.1000;1.0606;0.6217;
302.4000;1.0598;0.6191;
302.7000;1.0598;0.6217;
303.0000;1.0598;0.6242;
303.3000;1.0590;0.6268;
303.6000;1.0631;0.6420;
303.9000;1.0590;0.6319;
304.2000;1.0590;0.6293;
304.5000;1.0525;0.6191;
304.8000;1.0606;0.6420;
305.1000;1.0598;0.6522;
305.4000;1.0606;0.6522;
305.7000;1.0615;0.6548;
306.0000;1.0606;0.6522;
306.3000;1.0606;0.6471;
306.6000;1.0615;0.6471;
306.9000;1.0606;0.6395;
307.2000;1.0631;0.6522;
307.5000;1.0615;0.6522;
307.8000;1.0615;0.6497;
308.1000;1.0615;0.6395;
308.4000;1.0631;0.6497;
308.7000;1.0606;0.6420;
309.0000;1.0606;0.6471;
309.3000;1.0582;0.6497;
309.6000;1.0606;0.6395;
309.9000;1.0590;0.6293;
310.2000;1.0598;0.6268;
310.5000;1.0566;0.6268;
310.8000;1.0598;0.6369;
311.1000;1.0623;0.6497;
311.4000;1.0598;0.6548;
311.7000;1.0590;0.6471;
312.0000;1.0606;0.6471;
312.3000;1.0606;0.6497;
312.6000;1.0598;0.6497;
312.9000;1.0606;0.6446;
313.2000;1.0615;0.6522;
313.5000;1.0623;0.6522;
313.8000;1.0582;0.6471;
314.1000;1.0598;0.6395;
314.4000;1.0598;0.6471;
314.7000;1.0606;0.6471;
315.0000;1.0598;0.6548;
315.3000;1.0566;0.6369;
315.6000;1.0606;0.6420;
315.9000;1.0623;0.6522;
316.2000;1.0606;0.6573;
316.5000;1.0615;0.6471;
316.8000;1.0598;0.6420;
317.1000;1.0615;0.6497;
317.4000;1.0606;0.6522;
317.7000;1.0582;0.6420;
318.0000;1.0590;0.6446;
318.3000;1.0598;0.6522;
318.6000;1.0615;0.6548;
318.9000;1.0623;0.6624;
319.2000;1.0574;0.6497;
319.5000;1.0606;0.6446;
319.8000;1.0631;0.6471;
320.1000;1.0623;0.6471;
320.4000;1.0639;0.6522;
320.7000;1.0606;0.6446;
321.0000;1.0606;0.6446;
321.3000;1.0615;0.6522;
321.6000;1.0590;0.6471;
321.9000;1.0590;0.6395;
322.2000;1.0615;0.6548;
322.5000;1.0615;0.6522;
322.8000;1.0598;0.6446;
323.1000;1.0582;0.6420;
323.4000;1.0606;0.6522;
323.7000;1.0590;0.6497;
324.0000;1.0590;0.6471;
324.3000;1.0606;0.6471;
324.6000;1.0598;0.6446;
324.9000;1.0615;0.6497;
325.2000;1.0615;0.6497;
325.5000;1.0615;0.6446;
325.8000;1.0582;0.6369;
326.1000;1.0582;0.6522;
326.4000;1.0590;0.6522;
326.7000;1.0623;0.6573;
327.0000;1.0598;0.6395;
327.3000;1.0598;0.6395;
327.6000;1.0623;0.6497;
327.9000;1.0598;0.6471;
328.2000;1.0598;0.6420;
328.5000;1.0590;0.6420;
328.8000;1.0590;0.6420;
329.1000;1.0606;0.6446;
329.4000;1.0598;0.6369;
329.7000;1.0533;0.6217;
330.0000;1.0582;0.6344;
330.3000;1.0582;0.6268;
330.6000;1.0590;0.6166;
330.9000;1.0606;0.6268;
331.2000;1.0598;0.6344;
331.5000;1.0615;0.6395;
331.8000;1.0590;0.6268;
332.1000;1.0590;0.6242;
332.4000;1.0590;0.6242;
332.7000;1.0623;0.6395;
333.0000;1.0615;0.6369;
333.3000;1.0623;0.6395;
333.6000;1.0598;0.6344;
333.9000;1.0623;0.6446;
334.2000;1.0598;0.6344;
334.5000;1.0590;0.6497;
334.8000;1.0590;0.6471;
335.1000;1.0590;0.6497;
335.4000;1.0590;0.6497;
335.7000;1.0590;0.6548;
336.0000;1.0574;0.6497;
336.3000;1.0663;0.6624;
336.6000;1.0615;0.6471;
336.9000;1.0639;0.6548;
337.2000;1.0590;0.6420;
337.5000;1.0590;0.6395;
337.8000;1.0590;0.6369;
338.1000;1.0606;0.6344;
338.4000;1.0582;0.6369;
338.7000;1.0582;0.6344;
339.0000;1.0598;0.6395;
339.3000;1.0582;0.6446;
339.6000;1.0598;0.6471;
339.9000;1.0606;0.6548;
340.2000;1.0623;0.6497;
340.5000;1.0590;0.6446;
340.8000;1.0598;0.6446;
341.1000;1.0582;0.6395;
341.4000;1.0598;0.6420;
341.7000;1.0615;0.6395;
342.0000;1.0598;0.6420;
342.3000;1.0590;0.6395;
342.6000;1.0590;0.6446;
342.9000;1.0598;0.6446;
343.2000;1.0566;0.6344;
343.5000;1.0582;0.6446;
343.8000;1.0598;0.6497;
344.1000;1.0598;0.6497;
344.4000;1.0606;0.6573;
344.7000;1.0590;0.6497;
345.0000;1.0598;0.6573;
345.3000;1.0598;0.6471;
345.6000;1.0590;0.6395;
345.9000;1.0598;0.6446;
346.2000;1.0590;0.6497;
346.5000;1.0598;0.6548;
346.8000;1.0615;0.6573;
347.1000;1.0582;0.6573;
347.4000;1.0582;0.6599;
347.7000;1.0598;0.6599;
348.0000;1.0606;0.6599;
348.3000;1.0598;0.6573;
348.6000;1.0598;0.6573;
348.9000;1.0590;0.6548;
349.2000;1.0590;0.6548;
349.5000;1.0606;0.6573;
349.8000;1.0598;0.6599;
350.1000;1.0598;0.6573;
350.4000;1.0598;0.6573;
350.7000;1.0606;0.6573;
351.0000;1.0590;0.6573;
351.3000;1.0590;0.6573;
351.6000;1.0606;0.6573;
351.9000;1.0606;0.6599;
352.2000;1.0606;0.6522;
352.5000;1.0639;0.6650;
352.8000;1.0582;0.6497;
353.1000;1.0590;0.6548;
353.4000;1.0582;0.6548;
353.7000;1.0574;0.6573;
354.0000;1.0566;0.6573;
354.3000;1.0582;0.6624;
354.6000;1.0590;0.6573;
354.9000;1.0582;0.6522;
355.2000;1.0574;0.6497;
355.5000;1.0590;0.6599;
355.8000;1.0582;0.6548;
356.1000;1.0566;0.6522;
356.4000;1.0590;0.6522;
356.7000;1.0582;0.6497;
357.0000;1.0582;0.6497;
357.3000;1.0590;0.6395;
357.6000;1.0582;0.6319;
357.9000;1.0582;0.6344;
358.2000;1.0598;0.6471;
358.5000;1.0598;0.6471;
358.8000;1.0582;0.6471;
359.1000;1.0655;0.6599;
359.4000;1.0590;0.6522;
359.7000;1.0598;0.6522;
360.0000;1.0590;0.6420;
360.3000;1.0574;0.6420;
360.6000;1.0606;0.6522;
360.9000;1.0582;0.6548;
361.2000;1.0558;0.6497;
361.5000;1.0590;0.6548;
361.8000;1.0590;0.6522;
362.1000;1.0558;0.6319;
362.4000;1.0606;0.6446;
362.7000;1.0582;0.6471;
363.0000;1.0590;0.6522;
363.3000;1.0606;0.6522;
363.6000;1.0574;0.6548;
363.9000;1.0582;0.6573;
364.2000;1.0574;0.6522;
364.5000;1.0606;0.6599;
364.8000;1.0615;0.6522;
365.1000;1.0606;0.6420;
365.4000;1.0598;0.6293;
365.7000;1.0606;0.6369;
366.0000;1.0574;0.6369;
366.3000;1.0574;0.6395;
366.6000;1.0566;0.6446;
366.9000;1.0566;0.6395;
367.2000;1.0615;0.6420;
367.5000;1.0574;0.6319;
367.8000;1.0574;0.6319;
368.1000;1.0590;0.6446;
368.4000;1.0598;0.6446;
368.7000;1.0598;0.6420;
369.0000;1.0639;0.6573;
369.3000;1.0582;0.6420;
369.6000;1.0598;0.6420;
369.9000;1.0688;0.6701;
370.2000;1.0623;0.6522;
370.5000;1.0582;0.6369;
370.8000;1.0606;0.6344;
371.1000;1.0574;0.6344;
371.4000;1.0558;0.6369;
371.7000;1.0582;0.6319;
372.0000;1.0606;0.6344;
372.3000;1.0590;0.6446;
372.6000;1.0590;0.6446;
372.9000;1.0582;0.6420;
373.2000;1.0566;0.6446;
373.5000;1.0598;0.6497;
373.8000;1.0590;0.6446;
374.1000;1.0574;0.6395;
374.4000;1.0582;0.6369;
374.7000;1.0615;0.6497;
375.0000;1.0582;0.6471;
375.3000;1.0590;0.6420;
375.6000;1.0590;0.6446;
375.9000;1.0582;0.6573;
376.2000;1.0590;0.6624;
376.5000;1.0541;0.6471;
376.8000;1.0566;0.6497;
377.1000;1.0582;0.6548;
377.4000;1.0574;0.6548;
377.7000;1.0590;0.6497;
378.0000;1.0615;0.6650;
378.3000;1.0606;0.6573;
378.6000;1.0615;0.6624;
378.9000;1.0590;0.6497;
379.2000;1.0574;0.6522;
379.5000;1.0582;0.6522;
379.8000;1.0582;0.6548;
380.1000;1.0655;0.6854;
380.4000;1.0574;0.6675;
380.7000;1.0574;0.6599;
381.0000;1.0558;0.6573;
381.3000;1.0574;0.6522;
381.6000;1.0566;0.6471;
381.9000;1.0606;0.6573;
382.2000;1.0574;0.6599;
382.5000;1.0598;0.6624;
382.8000;1.0566;0.6446;
383.1000;1.0582;0.6497;
383.4000;1.0582;0.6446;
383.7000;1.0582;0.6420;
384.0000;1.0590;0.6395;
384.3000;1.0582;0.6344;
384.6000;1.0582;0.6395;
384.9000;1.0606;0.6497;
385.2000;1.0606;0.6446;
385.5000;1.0574;0.6420;
385.8000;1.0598;0.6471;
386.1000;1.0631;0.6548;
386.4000;1.0582;0.6497;
386.7000;1.0598;0.6522;
387.0000;1.0590;0.6573;
387.3000;1.0574;0.6548;
387.6000;1.0606;0.6548;
387.9000;1.0549;0.6446;
388.2000;1.0574;0.6446;
388.5000;1.0574;0.6420;
388.8000;1.0615;0.6573;
389.1000;1.0574;0.6471;
389.4000;1.0590;0.6522;
389.7000;1.0582;0.6599;
390.0000;1.0598;0.6599;
390.3000;1.0606;0.6573;
390.6000;1.0566;0.6395;
390.9000;1.0590;0.6395;
391.2000;1.0598;0.6446;
391.5000;1.0590;0.6497;
391.8000;1.0639;0.6675;
392.1000;1.0590;0.6573;
392.4000;1.0655;0.6803;
392.7000;1.0606;0.6624;
393.0000;1.0549;0.6446;
393.3000;1.0606;0.6624;
393.6000;1.0606;0.6599;
393.9000;1.0582;0.6522;
394.2000;1.0590;0.6573;
394.5000;1.0558;0.6548;
394.8000;1.0574;0.6548;
395.1000;1.0598;0.6675;
395.4000;1.0590;0.6675;
395.7000;1.0582;0.6675;
396.0000;1.0582;0.6650;
396.3000;1.0582;0.6573;
396.6000;1.0606;0.6599;
396.9000;1.0566;0.6471;
397.2000;1.0574;0.6497;
397.5000;1.0598;0.6522;
397.8000;1.0574;0.6497;
398.1000;1.0574;0.6548;
398.4000;1.0566;0.6522;
398.7000;1.0574;0.6471;
399.0000;1.0590;0.6497;
399.3000;1.0598;0.6522;
399.6000;1.0615;0.6650;
399.9000;1.0606;0.6624;
400.2000;1.0606;0.6624;
400.5000;1.0533;0.6497;
400.8000;1.0590;0.6573;
401.1000;1.0590;0.6573;
401.4000;1.0655;0.6599;
401.7000;1.0582;0.6420;
402.0000;1.0606;0.6497;
402.3000;1.0590;0.6599;
402.6000;1.0582;0.6599;
402.9000;1.0598;0.6573;
403.2000;1.0590;0.6573;
403.5000;1.0566;0.6420;
403.8000;1.0574;0.6446;
404.1000;1.0582;0.6497;
404.4000;1.0582;0.6573;
404.7000;1.0590;0.6573;
405.0000;1.0582;0.6573;
405.3000;1.0582;0.6599;
405.6000;1.0590;0.6650;
405.9000;1.0574;0.6675;
406.2000;1.0582;0.6650;
406.5000;1.0590;0.6573;
406.8000;1.0606;0.6573;
407.1000;1.0574;0.6497;
407.4000;1.0574;0.6522;
407.7000;1.0566;0.6599;
408.0000;1.0582;0.6650;
408.3000;1.0598;0.6701;
408.6000;1.0582;0.6599;
408.9000;1.0582;0.6650;
409.2000;1.0615;0.6752;
409.5000;1.0582;0.6675;
409.8000;1.0549;0.6675;
410.1000;1.0582;0.6675;
410.4000;1.0606;0.6701;
410.7000;1.0582;0.6701;
411.0000;1.0582;0.6624;
411.3000;1.0598;0.6548;
411.6000;1.0590;0.6446;
411.9000;1.0549;0.6293;
412.2000;1.0590;0.6344;
412.5000;1.0541;0.6319;
412.8000;1.0582;0.6471;
413.1000;1.0606;0.6471;
413.4000;1.0541;0.6369;
413.7000;1.0574;0.6471;
414.0000;1.0606;0.6650;
414.3000;1.0598;0.6599;
414.6000;1.0598;0.6650;
414.9000;1.0647;0.6828;
415.2000;1.0582;0.6650;
415.5000;1.0566;0.6548;
415.8000;1.0598;0.6573;
416.1000;1.0590;0.6599;
416.4000;1.0566;0.6548;
416.7000;1.0574;0.6599;
417.0000;1.0549;0.6548;
417.3000;1.0566;0.6497;
417.6000;1.0574;0.6471;
417.9000;1.0590;0.6599;
418.2000;1.0582;0.6599;
418.5000;1.0574;0.6573;
418.8000;1.0582;0.6624;
419.1000;1.0598;0.6650;
419.4000;1.0574;0.6650;
419.7000;1.0574;0.6675;
420.0000;1.0655;0.6905;
420.3000;1.0582;0.6650;
420.6000;1.0566;0.6548;
420.9000;1.0598;0.6624;
421.2000;1.0598;0.6650;
421.5000;1.0598;0.6624;
421.8000;1.0590;0.6650;
422.1000;1.0590;0.6650;
422.4000;1.0574;0.6650;
422.7000;1.0582;0.6624;
423.0000;1.0590;0.6624;
423.3000;1.0533;0.6497;
423.6000;1.0598;0.6701;
423.9000;1.0574;0.6701;
424.2000;1.0582;0.6752;
424.5000;1.0647;0.6981;
424.8000;1.0590;0.6803;
425.1000;1.0590;0.6803;
425.4000;1.0639;0.6905;
425.7000;1.0582;0.6777;
426.0000;1.0598;0.6752;
426.3000;1.0582;0.6752;
426.6000;1.0566;0.6752;
426.9000;1.0566;0.6701;
427.2000;1.0574;0.6624;
427.5000;1.0574;0.6548;
427.8000;1.0566;0.6548;
428.1000;1.0558;0.6548;
428.4000;1.0574;0.6522;
428.7000;1.0566;0.6497;
429.0000;1.0574;0.6446;
429.3000;1.0566;0.6471;
429.6000;1.0574;0.6573;
429.9000;1.0574;0.6650;
430.2000;1.0590;0.6650;
430.5000;1.0549;0.6573;
430.8000;1.0566;0.6624;
431.1000;1.0566;0.6752;
431.4000;1.0566;0.6701;
431.7000;1.0574;0.6726;
432.0000;1.0566;0.6701;
432.3000;1.0566;0.6726;
432.6000;1.0590;0.6752;
432.9000;1.0558;0.6701;
433.2000;1.0574;0.6701;
433.5000;1.0574;0.6726;
433.8000;1.0574;0.6752;
434.1000;1.0566;0.6777;
434.4000;1.0582;0.6777;
434.7000;1.0574;0.6752;
435.0000;1.0574;0.6803;
435.3000;1.0558;0.6803;
435.6000;1.0574;0.6752;
435.9000;1.0582;0.6675;
436.2000;1.0582;0.6726;
436.5000;1.0566;0.6752;
436.8000;1.0574;0.6803;
437.1000;1.0574;0.6803;
437.4000;1.0655;0.7006;
437.7000;1.0558;0.6777;
438.0000;1.0558;0.6675;
438.3000;1.0574;0.6650;
438.6000;1.0549;0.6599;
438.9000;1.0517;0.6497;
439.2000;1.0558;0.6599;
439.5000;1.0566;0.6624;
439.8000;1.0558;0.6573;
440.1000;1.0590;0.6675;
440.4000;1.0566;0.6624;
440.7000;1.0549;0.6624;
441.0000;1.0558;0.6726;
441.3000;1.0582;0.6726;
441.6000;1.0582;0.6726;
441.9000;1.0533;0.6522;
442.2000;1.0574;0.6573;
442.5000;1.0533;0.6522;
442.8000;1.0549;0.6548;
443.1000;1.0566;0.6650;
443.4000;1.0574;0.6752;
443.7000;1.0655;0.6905;
444.0000;1.0566;0.6650;
444.3000;1.0598;0.6752;
444.6000;1.0582;0.6726;
444.9000;1.0582;0.6701;
445.2000;1.0582;0.6701;
445.5000;1.0525;0.6497;
445.8000;1.0582;0.6701;
446.1000;1.0574;0.6752;
446.4000;1.0582;0.6803;
446.7000;1.0533;0.6624;
447.0000;1.0566;0.6701;
447.3000;1.0574;0.6777;
447.6000;1.0574;0.6828;
447.9000;1.0566;0.6803;
448.2000;1.0574;0.6879;
448.5000;1.0549;0.6803;
448.8000;1.0574;0.6803;
449.1000;1.0566;0.6701;
449.4000;1.0566;0.6701;
449.7000;1.0574;0.6803;
450.0000;1.0574;0.6777;
450.3000;1.0558;0.6624;
450.6000;1.0574;0.6701;
450.9000;1.0590;0.6701;
451.2000;1.0574;0.6701;
451.5000;1.0574;0.6777;
451.8000;1.0574;0.6701;
452.1000;1.0558;0.6624;
452.4000;1.0566;0.6624;
452.7000;1.0566;0.6675;
453.0000;1.0566;0.6650;
453.3000;1.0558;0.6599;
453.6000;1.0566;0.6675;
453.9000;1.0558;0.6752;
454.2000;1.0590;0.6752;
454.5000;1.0574;0.6777;
454.8000;1.0574;0.6854;
455.1000;1.0582;0.6955;
455.4000;1.0574;0.6955;
455.7000;1.0558;0.6905;
456.0000;1.0558;0.6828;
456.3000;1.0574;0.6879;
456.6000;1.0574;0.6803;
456.9000;1.0582;0.6879;
457.2000;1.0574;0.6879;
457.5000;1.0582;0.6854;
457.8000;1.0558;0.6828;
458.1000;1.0566;0.6854;
458.4000;1.0566;0.6854;
458.7000;1.0558;0.6777;
459.0000;1.0566;0.6828;
459.3000;1.0558;0.6828;
459.6000;1.0541;0.6854;
459.9000;1.0558;0.6854;
460.2000;1.0574;0.6879;
460.5000;1.0558;0.6803;
460.8000;1.0517;0.6650;
461.1000;1.0566;0.6752;
461.4000;1.0606;0.6879;
461.7000;1.0558;0.6828;
462.0000;1.0566;0.6777;
462.3000;1.0541;0.6726;
462.6000;1.0533;0.6777;
462.9000;1.0541;0.6701;
463.2000;1.0558;0.6701;
463.5000;1.0558;0.6701;
463.8000;1.0541;0.6675;
464.1000;1.0590;0.6905;
464.4000;1.0574;0.6879;
464.7000;1.0558;0.6752;
465.0000;1.0558;0.6726;
465.3000;1.0566;0.6752;
465.6000;1.0574;0.6752;
465.9000;1.0558;0.6675;
466.2000;1.0606;0.6854;
466.5000;1.0566;0.6675;
466.8000;1.0574;0.6599;
467.1000;1.0566;0.6548;
467.4000;1.0558;0.6497;
467.7000;1.0566;0.6548;
468.0000;1.0566;0.6726;
468.3000;1.0566;0.6803;
468.6000;1.0549;0.6777;
468.9000;1.0549;0.6803;
469.2000;1.0574;0.6777;
469.5000;1.0647;0.6981;
469.8000;1.0566;0.6777;
470.1000;1.0558;0.6726;
470.4000;1.0566;0.6650;
470.7000;1.0574;0.6752;
471.0000;1.0558;0.6701;
471.3000;1.0566;0.6752;
471.6000;1.0574;0.6803;
471.9000;1.0590;0.6854;
472.2000;1.0533;0.6599;
472.5000;1.0558;0.6675;
472.8000;1.0574;0.6777;
473.1000;1.0574;0.6828;
473.4000;1.0574;0.6726;
473.7000;1.0558;0.6726;
474.0000;1.0566;0.6752;
474.3000;1.0582;0.6854;
474.6000;1.0566;0.6828;
474.9000;1.0582;0.6803;
475.2000;1.0549;0.6701;
475.5000;1.0566;0.6777;
475.8000;1.0558;0.6777;
476.1000;1.0615;0.6803;
476.4000;1.0549;0.6650;
476.7000;1.0566;0.6752;
477.0000;1.0566;0.6726;
477.3000;1.0558;0.6777;
477.6000;1.0566;0.6854;
477.9000;1.0574;0.6854;
478.2000;1.0590;0.6905;
478.5000;1.0574;0.6879;
478.8000;1.0541;0.6726;
479.1000;1.0558;0.6726;
479.4000;1.0549;0.6777;
479.7000;1.0566;0.6955;
480.0000;1.0574;0.6955;
480.3000;1.0566;0.6981;
480.6000;1.0558;0.6955;
480.9000;1.0566;0.6905;
481.2000;1.0549;0.6803;
481.5000;1.0582;0.6854;
481.8000;1.0549;0.6854;
482.1000;1.0663;0.7108;
482.4000;1.0541;0.6777;
482.7000;1.0549;0.6828;
483.0000;1.0558;0.6803;
483.3000;1.0598;0.6854;
483.6000;1.0558;0.6599;
483.9000;1.0574;0.6624;
484.2000;1.0558;0.6624;
484.5000;1.0574;0.6752;
484.8000;1.0566;0.6803;
485.1000;1.0566;0.6828;
485.4000;1.0549;0.6879;
485.7000;1.0549;0.6905;
486.0000;1.0598;0.7057;
486.3000;1.0541;0.6828;
486.6000;1.0549;0.6854;
486.9000;1.0582;0.6828;
487.2000;1.0582;0.6803;
487.5000;1.0558;0.6675;
487.8000;1.0631;0.6803;
488.1000;1.0566;0.6675;
488.4000;1.0558;0.6701;
488.7000;1.0566;0.6650;
489.0000;1.0509;0.6497;
489.3000;1.0549;0.6726;
489.6000;1.0574;0.6777;
489.9000;1.0558;0.6803;
490.2000;1.0558;0.6879;
490.5000;1.0558;0.6879;
490.8000;1.0558;0.6879;
491.1000;1.0541;0.6752;
491.4000;1.0590;0.6803;
491.7000;1.0598;0.6955;
492.0000;1.0574;0.6879;
492.3000;1.0549;0.6828;
492.6000;1.0566;0.6930;
492.9000;1.0574;0.6981;
493.2000;1.0549;0.6930;
493.5000;1.0566;0.6905;
493.8000;1.0558;0.6854;
494.1000;1.0533;0.6803;
494.4000;1.0541;0.6854;
494.7000;1.0582;0.6905;
495.0000;1.0549;0.6803;
495.3000;1.0541;0.6777;
495.6000;1.0549;0.6854;
495.9000;1.0582;0.6905;
496.2000;1.0566;0.6905;
496.5000;1.0566;0.6905;
496.8000;1.0549;0.6854;
497.1000;1.0574;0.6879;
497.4000;1.0549;0.6752;
497.7000;1.0541;0.6675;
498.0000;1.0533;0.6599;
498.3000;1.0549;0.6599;
498.6000;1.0549;0.6497;
498.9000;1.0549;0.6548;
499.2000;1.0549;0.6522;
499.5000;1.0574;0.6548;
499.8000;1.0558;0.6701;
500.1000;1.0558;0.6726;
500.4000;1.0533;0.6803;
500.7000;1.0566;0.6828;
501.0000;1.0558;0.6828;
501.3000;1.0525;0.6777;
501.6000;1.0558;0.6777;
501.9000;1.0541;0.6752;
502.2000;1.0574;0.6777;
502.5000;1.0533;0.6752;
502.8000;1.0558;0.6803;
503.1000;1.0509;0.6675;
503.4000;1.0558;0.6777;
503.7000;1.0549;0.6752;
504.0000;1.0525;0.6726;
504.3000;1.0549;0.6726;
504.6000;1.0541;0.6726;
504.9000;1.0549;0.6675;
505.2000;1.0606;0.6854;
505.5000;1.0558;0.6777;
505.8000;1.0558;0.6752;
506.1000;1.0558;0.6701;
506.4000;1.0574;0.6701;
506.7000;1.0558;0.6701;
507.0000;1.0566;0.6624;
507.3000;1.0574;0.6599;
507.6000;1.0582;0.6497;
507.9000;1.0582;0.6471;
508.2000;1.0598;0.6446;
508.5000;1.0558;0.6395;
508.8000;1.0558;0.6420;
509.1000;1.0598;0.6471;
509.4000;1.0533;0.6293;
509.7000;1.0549;0.6344;
510.0000;1.0590;0.6369;
510.3000;1.0549;0.6319;
510.6000;1.0549;0.6420;
510.9000;1.0558;0.6446;
511.2000;1.0566;0.6548;
511.5000;1.0549;0.6522;
511.8000;1.0549;0.6548;
512.1000;1.0558;0.6548;
512.4000;1.0582;0.6599;
512.7000;1.0566;0.6675;
513.0000;1.0549;0.6701;
513.3000;1.0525;0.6573;
513.6000;1.0549;0.6624;
513.9000;1.0558;0.6599;
514.2000;1.0549;0.6599;
514.5000;1.0549;0.6675;
514.8000;1.0533;0.6573;
515.1000;1.0533;0.6624;
515.4000;1.0517;0.6548;
515.7000;1.0501;0.6599;
516.0000;1.0541;0.6675;
516.3000;1.0533;0.6650;
516.6000;1.0533;0.6599;
516.9000;1.0541;0.6650;
517.2000;1.0533;0.6599;
517.5000;1.0517;0.6548;
517.8000;1.0566;0.6701;
518.1000;1.0574;0.6675;
518.4000;1.0533;0.6548;
518.7000;1.0558;0.6650;
519.0000;1.0541;0.6599;
519.3000;1.0541;0.6548;
519.6000;1.0541;0.6573;
519.9000;1.0533;0.6599;
520.2000;1.0533;0.6650;
520.5000;1.0549;0.6573;
520.8000;1.0525;0.6497;
521.1000;1.0541;0.6497;
521.4000;1.0549;0.6548;
521.7000;1.0549;0.6573;
522.0000;1.0558;0.6624;
522.3000;1.0533;0.6675;
522.6000;1.0541;0.6777;
522.9000;1.0533;0.6752;
523.2000;1.0525;0.6726;
523.5000;1.0517;0.6675;
523.8000;1.0533;0.6726;
524.1000;1.0533;0.6752;
524.4000;1.0541;0.6752;
524.7000;1.0541;0.6675;
525.0000;1.0541;0.6701;
525.3000;1.0558;0.6752;
525.6000;1.0525;0.6726;
525.9000;1.0541;0.6752;
526.2000;1.0501;0.6624;
526.5000;1.0549;0.6701;
526.8000;1.0541;0.6573;
527.1000;1.0525;0.6573;
527.4000;1.0549;0.6573;
527.7000;1.0541;0.6548;
528.0000;1.0558;0.6599;
528.3000;1.0541;0.6624;
528.6000;1.0541;0.6624;
528.9000;1.0549;0.6599;
529.2000;1.0566;0.6675;
529.5000;1.0525;0.6522;
529.8000;1.0476;0.6369;
530.1000;1.0566;0.6548;
530.4000;1.0549;0.6548;
530.7000;1.0541;0.6573;
531.0000;1.0558;0.6573;
531.3000;1.0541;0.6548;
531.6000;1.0558;0.6573;
531.9000;1.0549;0.6573;
532.2000;1.0566;0.6548;
532.5000;1.0501;0.6395;
532.8000;1.0590;0.6701;
533.1000;1.0558;0.6650;
533.4000;1.0533;0.6522;
533.7000;1.0541;0.6624;
534.0000;1.0574;0.6701;
534.3000;1.0517;0.6599;
534.6000;1.0509;0.6573;
534.9000;1.0606;0.6777;
535.2000;1.0533;0.6548;
535.5000;1.0566;0.6522;
535.8000;1.0606;0.6599;
536.1000;1.0549;0.6497;
536.4000;1.0558;0.6573;
536.7000;1.0501;0.6471;
537.0000;1.0525;0.6573;
537.3000;1.0517;0.6471;
537.6000;1.0541;0.6522;
537.9000;1.0541;0.6573;
538.2000;1.0541;0.6573;
538.5000;1.0533;0.6522;
538.8000;1.0549;0.6573;
539.1000;1.0517;0.6497;
539.4000;1.0566;0.6548;
539.7000;1.0533;0.6573;
540.0000;1.0558;0.6599;
540.3000;1.0533;0.6497;
540.6000;1.0549;0.6624;
540.9000;1.0549;0.6548;
541.2000;1.0533;0.6497;
541.5000;1.0525;0.6522;
541.8000;1.0525;0.6522;
542.1000;1.0533;0.6599;
542.4000;1.0549;0.6548;
542.7000;1.0533;0.6599;
543.0000;1.0558;0.6650;
543.3000;1.0566;0.6624;
543.6000;1.0541;0.6573;
543.9000;1.0549;0.6548;
544.2000;1.0541;0.6497;
544.5000;1.0549;0.6497;
544.8000;1.0501;0.6420;
545.1000;1.0492;0.6420;
545.4000;1.0525;0.6446;
545.7000;1.0533;0.6446;
546.0000;1.0541;0.6471;
546.3000;1.0525;0.6471;
546.6000;1.0525;0.6446;
546.9000;1.0541;0.6522;
547.2000;1.0541;0.6599;
547.5000;1.0541;0.6599;
547.8000;1.0582;0.6701;
548.1000;1.0574;0.6675;
548.4000;1.0541;0.6624;
548.7000;1.0566;0.6650;
549.0000;1.0525;0.6548;
549.3000;1.0541;0.6624;
549.6000;1.0541;0.6624;
549.9000;1.0541;0.6573;
550.2000;1.0549;0.6701;
550.5000;1.0525;0.6701;
550.8000;1.0541;0.6675;
551.1000;1.0541;0.6701;
551.4000;1.0558;0.6752;
551.7000;1.0541;0.6726;
552.0000;1.0541;0.6726;
552.3000;1.0558;0.6854;
552.6000;1.0533;0.6701;
552.9000;1.0574;0.6726;
553.2000;1.0558;0.6701;
553.5000;1.0566;0.6675;
553.8000;1.0558;0.6573;
554.1000;1.0533;0.6522;
554.4000;1.0541;0.6624;
554.7000;1.0525;0.6522;
555.0000;1.0541;0.6548;
555.3000;1.0533;0.6548;
555.6000;1.0517;0.6599;
555.9000;1.0525;0.6573;
556.2000;1.0533;0.6573;
556.5000;1.0525;0.6522;
556.8000;1.0533;0.6599;
557.1000;1.0492;0.6624;
557.4000;1.0517;0.6624;
557.7000;1.0541;0.6624;
558.0000;1.0549;0.6599;
558.3000;1.0533;0.6624;
558.6000;1.0558;0.6548;
558.9000;1.0525;0.6573;
559.2000;1.0558;0.6624;
559.5000;1.0549;0.6599;
559.8000;1.0549;0.6650;
560.1000;1.0533;0.6675;
560.4000;1.0509;0.6573;
560.7000;1.0558;0.6701;
561.0000;1.0541;0.6650;
561.3000;1.0549;0.6701;
561.6000;1.0533;0.6573;
561.9000;1.0541;0.6471;
562.2000;1.0541;0.6471;
562.5000;1.0558;0.6420;
562.8000;1.0525;0.6344;
563.1000;1.0541;0.6344;
563.4000;1.0533;0.6344;
563.7000;1.0606;0.6548;
564.0000;1.0549;0.6446;
564.3000;1.0541;0.6446;
564.6000;1.0533;0.6471;
564.9000;1.0574;0.6650;
565.2000;1.0525;0.6573;
565.5000;1.0549;0.6548;
565.8000;1.0566;0.6548;
566.1000;1.0558;0.6573;
566.4000;1.0525;0.6548;
566.7000;1.0517;0.6573;
567.0000;1.0533;0.6624;
567.3000;1.0541;0.6624;
567.6000;1.0541;0.6701;
567.9000;1.0533;0.6726;
568.2000;1.0533;0.6752;
568.5000;1.0549;0.6726;
568.8000;1.0549;0.6726;
569.1000;1.0566;0.6726;
569.4000;1.0549;0.6726;
569.7000;1.0541;0.6599;
570.0000;1.0541;0.6599;
570.3000;1.0533;0.6599;
570.6000;1.0525;0.6573;
570.9000;1.0533;0.6573;
571.2000;1.0590;0.6752;
571.5000;1.0541;0.6548;
571.8000;1.0517;0.6497;
572.1000;1.0566;0.6573;
572.4000;1.0549;0.6522;
572.7000;1.0533;0.6497;
573.0000;1.0525;0.6548;
573.3000;1.0525;0.6548;
573.6000;1.0525;0.6497;
573.9000;1.0525;0.6497;
574.2000;1.0517;0.6548;
574.5000;1.0509;0.6624;
574.8000;1.0517;0.6624;
575.1000;1.0517;0.6573;
575.4000;1.0549;0.6624;
575.7000;1.0525;0.6573;
576.0000;1.0533;0.6522;
576.3000;1.0533;0.6522;
576.6000;1.0558;0.6624;
576.9000;1.0541;0.6522;
577.2000;1.0541;0.6522;
577.5000;1.0541;0.6522;
577.8000;1.0549;0.6395;
578.1000;1.0558;0.6395;
578.4000;1.0566;0.6471;
578.7000;1.0525;0.6344;
579.0000;1.0541;0.6369;
579.3000;1.0549;0.6446;
579.6000;1.0549;0.6497;
579.9000;1.0533;0.6446;
580.2000;1.0541;0.6522;
580.5000;1.0549;0.6522;
580.8000;1.0476;0.6420;
581.1000;1.0558;0.6497;
581.4000;1.0541;0.6548;
581.7000;1.0574;0.6675;
582.0000;1.0533;0.6573;
582.3000;1.0533;0.6624;
582.6000;1.0549;0.6675;
582.9000;1.0558;0.6624;
583.2000;1.0525;0.6522;
583.5000;1.0525;0.6573;
583.8000;1.0533;0.6599;
584.1000;1.0549;0.6573;
584.4000;1.0533;0.6599;
584.7000;1.0525;0.6548;
585.0000;1.0549;0.6599;
585.3000;1.0549;0.6624;
585.6000;1.0541;0.6420;
585.9000;1.0525;0.6446;
586.2000;1.0541;0.6522;
586.5000;1.0558;0.6471;
586.8000;1.0541;0.6395;
587.1000;1.0525;0.6344;
587.4000;1.0549;0.6369;
587.7000;1.0517;0.6242;
588.0000;1.0541;0.6344;
588.3000;1.0541;0.6344;
588.6000;1.0533;0.6319;
588.9000;1.0541;0.6293;
589.2000;1.0549;0.6293;
589.5000;1.0525;0.6344;
589.8000;1.0525;0.6446;
590.1000;1.0533;0.6420;
590.4000;1.0582;0.6624;
590.7000;1.0533;0.6548;
591.0000;1.0525;0.6573;
591.3000;1.0525;0.6446;
591.6000;1.0533;0.6369;
591.9000;1.0525;0.6446;
592.2000;1.0590;0.6675;
592.5000;1.0525;0.6497;
592.8000;1.0533;0.6471;
593.1000;1.0509;0.6446;
593.4000;1.0517;0.6369;
593.7000;1.0525;0.6344;
594.0000;1.0525;0.6395;
594.3000;1.0501;0.6446;
594.6000;1.0533;0.6497;
594.9000;1.0509;0.6395;
595.2000;1.0517;0.6344;
595.5000;1.0517;0.6369;
595.8000;1.0525;0.6395;
596.1000;1.0509;0.6344;
596.4000;1.0525;0.6344;
596.7000;1.0525;0.6242;
597.0000;1.0517;0.6319;
597.3000;1.0517;0.6369;
597.6000;1.0525;0.6369;
597.9000;1.0533;0.6395;
598.2000;1.0541;0.6446;
598.5000;1.0541;0.6497;
598.8000;1.0533;0.6573;
599.1000;1.0533;0.6599;
599.4000;1.0541;0.6650;
599.7000;1.0533;0.6548;
600.0000;1.0525;0.6446;
600.3000;1.0541;0.6446;
600.6000;1.0509;0.6344;
600.9000;1.0468;0.6217;
601.2000;1.0411;0.6140;
601.5000;1.0297;0.5911;
601.8000;1.0248;0.5733;
602.1000;1.0183;0.5529;
602.4000;1.0077;0.5274;
602.7000;1.0077;0.5299;
603.0000;0.9963;0.5096;
603.3000;0.9915;0.4994;
603.6000;0.9841;0.4866;
603.9000;0.9776;0.4841;
604.2000;0.9727;0.4866;
604.5000;0.9670;0.4815;
604.8000;0.9605;0.4662;
605.1000;0.9597;0.4739;
605.4000;0.9540;0.4713;
605.7000;0.9508;0.4713;
606.0000;0.9475;0.4662;
606.3000;0.9451;0.4561;
606.6000;0.9394;0.4535;
606.9000;0.9369;0.4561;
607.2000;0.9337;0.4535;
607.5000;0.9345;0.4688;
607.8000;0.9263;0.4662;
608.1000;0.9239;0.4561;
608.4000;0.9271;0.4713;
608.7000;0.9174;0.4535;
609.0000;0.9149;0.4459;
609.3000;0.9182;0.4637;
609.6000;0.9125;0.4561;
609.9000;0.9084;0.4433;
610.2000;0.9060;0.4459;
610.5000;0.9060;0.4459;
610.8000;0.9035;0.4535;
611.1000;0.9003;0.4535;
611.4000;0.9019;0.4586;
611.7000;0.8970;0.4510;
612.0000;0.8987;0.4535;
612.3000;0.8954;0.4357;
612.6000;0.8954;0.4382;
612.9000;0.8954;0.4484;
613.2000;0.8921;0.4459;
613.5000;0.8905;0.4459;
613.8000;0.8881;0.4535;
614.1000;0.8897;0.4484;
614.4000;0.8881;0.4382;
614.7000;0.8864;0.4306;
615.0000;0.8930;0.4535;
615.3000;0.8832;0.4331;
615.6000;0.8832;0.4331;
615.9000;0.8783;0.4280;
616.2000;0.8799;0.4357;
616.5000;0.8791;0.4357;
616.8000;0.8751;0.4229;
617.1000;0.8767;0.4331;
617.4000;0.8783;0.4382;
617.7000;0.8759;0.4484;
618.0000;0.8759;0.4586;
618.3000;0.8751;0.4586;
618.6000;0.8734;0.4535;
618.9000;0.8726;0.4637;
619.2000;0.8726;0.4586;
619.5000;0.8726;0.4535;
619.8000;0.8718;0.4535;
620.1000;0.8702;0.4561;
620.4000;0.8677;0.4433;
620.7000;0.8694;0.4484;
621.0000;0.8685;0.4459;
621.3000;0.8669;0.4535;
621.6000;0.8661;0.4535;
621.9000;0.8702;0.4637;
622.2000;0.8645;0.4459;
622.5000;0.8645;0.4484;
622.8000;0.8637;0.4535;
623.1000;0.8620;0.4484;
623.4000;0.8620;0.4510;
623.7000;0.8612;0.4510;
624.0000;0.8612;0.4586;
624.3000;0.8547;0.4433;
624.6000;0.8514;0.4459;
624.9000;0.8628;0.4688;
625.2000;0.8571;0.4561;
625.5000;0.8482;0.4357;
625.8000;0.8563;0.4459;
626.1000;0.8571;0.4535;
626.4000;0.8580;0.4688;
626.7000;0.8563;0.4739;
627.0000;0.8523;0.4713;
627.3000;0.8523;0.4713;
627.6000;0.8539;0.4739;
627.9000;0.8514;0.4688;
628.2000;0.8506;0.4688;
628.5000;0.8514;0.4688;
628.8000;0.8547;0.4790;
629.1000;0.8482;0.4713;
629.4000;0.8482;0.4662;
629.7000;0.8482;0.4713;
630.0000;0.8482;0.4688;
630.3000;0.8482;0.4688;
630.6000;0.8474;0.4611;
630.9000;0.8474;0.4764;
631.2000;0.8457;0.4764;
631.5000;0.8433;0.4739;
631.8000;0.8433;0.4790;
632.1000;0.8433;0.4815;
632.4000;0.8466;0.4739;
632.7000;0.8425;0.4688;
633.0000;0.8400;0.4713;
633.3000;0.8400;0.4637;
633.6000;0.8400;0.4713;
633.9000;0.8400;0.4713;
634.2000;0.8400;0.4688;
634.5000;0.8425;0.4764;
634.8000;0.8392;0.4688;
635.1000;0.8400;0.4739;
635.4000;0.8360;0.4637;
635.7000;0.8360;0.4637;
636.0000;0.8360;0.4611;
636.3000;0.8376;0.4688;
636.6000;0.8384;0.4764;
636.9000;0.8352;0.4764;
637.2000;0.8368;0.4764;
637.5000;0.8352;0.4841;
637.8000;0.8335;0.4917;
638.1000;0.8319;0.4943;
638.4000;0.8327;0.4892;
638.7000;0.8311;0.4892;
639.0000;0.8311;0.4994;
639.3000;0.8303;0.5019;
639.6000;0.8303;0.4892;
639.9000;0.8295;0.4892;
640.2000;0.8319;0.4866;
640.5000;0.8295;0.4790;
640.8000;0.8270;0.4739;
641.1000;0.8270;0.4790;
641.4000;0.8270;0.4739;
641.7000;0.8278;0.4713;
642.0000;0.8270;0.4713;
642.3000;0.8246;0.4713;
642.6000;0.8278;0.4790;
642.9000;0.8246;0.4713;
643.2000;0.8230;0.4662;
643.5000;0.8238;0.4688;
643.8000;0.8238;0.4713;
644.1000;0.8230;0.4688;
644.4000;0.8246;0.4841;
644.7000;0.8221;0.4917;
645.0000;0.8213;0.4892;
645.3000;0.8221;0.4866;
645.6000;0.8213;0.4815;
645.9000;0.8197;0.4764;
646.2000;0.8197;0.4739;
646.5000;0.8189;0.4764;
646.8000;0.8189;0.4866;
647.1000;0.8164;0.4892;
647.4000;0.8181;0.4994;
647.7000;0.8148;0.4994;
648.0000;0.8156;0.4917;
648.3000;0.8181;0.4917;
648.6000;0.8059;0.4662;
648.9000;0.8156;0.4943;
649.2000;0.8140;0.4866;
649.5000;0.8132;0.4790;
649.8000;0.8140;0.4790;
650.1000;0.8148;0.4892;
650.4000;0.8124;0.4790;
650.7000;0.8140;0.4841;
651.0000;0.8124;0.4841;
651.3000;0.8107;0.4866;
651.6000;0.8107;0.4892;
651.9000;0.8132;0.4892;
652.2000;0.8075;0.4866;
652.5000;0.8075;0.4866;
652.8000;0.8107;0.4994;
653.1000;0.8083;0.4892;
653.4000;0.8059;0.4866;
653.7000;0.8075;0.4892;
654.0000;0.8050;0.4917;
654.3000;0.8026;0.4866;
654.6000;0.8034;0.4790;
654.9000;0.8026;0.4764;
655.2000;0.8050;0.4917;
655.5000;0.8042;0.4917;
655.8000;0.8042;0.4841;
656.1000;0.8002;0.4662;
656.4000;0.8026;0.4739;
656.7000;0.8026;0.4790;
657.0000;0.8002;0.4739;
657.3000;0.8002;0.4637;
657.6000;0.7937;0.4484;
657.9000;0.8002;0.4662;
658.2000;0.7993;0.4713;
658.5000;0.7937;0.4637;
658.8000;0.7977;0.4713;
659.1000;0.8018;0.4841;
659.4000;0.7969;0.4662;
659.7000;0.7945;0.4561;
660.0000;0.7937;0.4561;
660.3000;0.7961;0.4662;
660.6000;0.7977;0.4637;
660.9000;0.7953;0.4637;
661.2000;0.7945;0.4688;
661.5000;0.7961;0.4688;
661.8000;0.7961;0.4662;
662.1000;0.7953;0.4662;
662.4000;0.7928;0.4637;
662.7000;0.7920;0.4561;
663.0000;0.7920;0.4535;
663.3000;0.7928;0.4586;
663.6000;0.7912;0.4433;
663.9000;0.7904;0.4408;
664.2000;0.7806;0.4178;
664.5000;0.7912;0.4357;
664.8000;0.7880;0.4280;
665.1000;0.7855;0.4280;
665.4000;0.7880;0.4280;
665.7000;0.7871;0.4229;
666.0000;0.7880;0.4280;
666.3000;0.7904;0.4459;
666.6000;0.7871;0.4459;
666.9000;0.7871;0.4357;
667.2000;0.7880;0.4408;
667.5000;0.7855;0.4357;
667.8000;0.7847;0.4382;
668.1000;0.7847;0.4433;
668.4000;0.7871;0.4484;
668.7000;0.7839;0.4561;
669.0000;0.7839;0.4611;
669.3000;0.7847;0.4688;
669.6000;0.7831;0.4739;
669.9000;0.7847;0.4739;
670.2000;0.7823;0.4561;
670.5000;0.7823;0.4484;
670.8000;0.7831;0.4459;
671.1000;0.7814;0.4561;
671.4000;0.7798;0.4484;
671.7000;0.7823;0.4535;
672.0000;0.7798;0.4510;
672.3000;0.7806;0.4459;
672.6000;0.7782;0.4484;
672.9000;0.7757;0.4433;
673.2000;0.7790;0.4510;
673.5000;0.7782;0.4408;
673.8000;0.7774;0.4382;
674.1000;0.7741;0.4382;
674.4000;0.7733;0.4382;
674.7000;0.7766;0.4331;
675.0000;0.7757;0.4408;
675.3000;0.7757;0.4510;
675.6000;0.7749;0.4433;
675.9000;0.7757;0.4484;
676.2000;0.7749;0.4561;
676.5000;0.7749;0.4561;
676.8000;0.7757;0.4637;
677.1000;0.7766;0.4662;
677.4000;0.7733;0.4637;
677.7000;0.7725;0.4662;
678.0000;0.7725;0.4510;
678.3000;0.7725;0.4484;
678.6000;0.7709;0.4433;
678.9000;0.7709;0.4459;
679.2000;0.7709;0.4484;
679.5000;0.7676;0.4484;
679.8000;0.7709;0.4586;
680.1000;0.7692;0.4535;
680.4000;0.7709;0.4535;
680.7000;0.7692;0.4510;
681.0000;0.7725;0.4586;
681.3000;0.7709;0.4561;
681.6000;0.7692;0.4586;
681.9000;0.7692;0.4739;
682.2000;0.7692;0.4815;
682.5000;0.7684;0.4713;
682.8000;0.7660;0.4688;
683.1000;0.7652;0.4662;
683.4000;0.7684;0.4790;
683.7000;0.7652;0.4688;
684.0000;0.7668;0.4688;
684.3000;0.7660;0.4739;
684.6000;0.7635;0.4611;
684.9000;0.7652;0.4637;
685.2000;0.7578;0.4433;
685.5000;0.7652;0.4637;
685.8000;0.7643;0.4586;
686.1000;0.7652;0.4688;
686.4000;0.7652;0.4739;
686.7000;0.7635;0.4662;
687.0000;0.7635;0.4739;
687.3000;0.7635;0.4713;
687.6000;0.7635;0.4764;
687.9000;0.7627;0.4764;
688.2000;0.7603;0.4688;
688.5000;0.7603;0.4688;
688.8000;0.7619;0.4815;
689.1000;0.7627;0.4841;
689.4000;0.7586;0.4841;
689.7000;0.7611;0.4968;
690.0000;0.7586;0.4866;
690.3000;0.7570;0.4739;
690.6000;0.7595;0.4764;
690.9000;0.7586;0.4790;
691.2000;0.7578;0.4841;
691.5000;0.7578;0.4815;
691.8000;0.7570;0.4739;
692.1000;0.7578;0.4764;
692.4000;0.7586;0.4739;
692.7000;0.7578;0.4688;
693.0000;0.7554;0.4662;
693.3000;0.7530;0.4586;
693.6000;0.7554;0.4611;
693.9000;0.7554;0.4611;
694.2000;0.7562;0.4611;
694.5000;0.7554;0.4535;
694.8000;0.7513;0.4433;
695.1000;0.7546;0.4535;
695.4000;0.7554;0.4611;
695.7000;0.7530;0.4586;
696.0000;0.7530;0.4662;
696.3000;0.7546;0.4713;
696.6000;0.7546;0.4662;
696.9000;0.7521;0.4662;
697.2000;0.7530;0.4739;
697.5000;0.7513;0.4713;
697.8000;0.7530;0.4713;
698.1000;0.7521;0.4739;
698.4000;0.7538;0.4790;
698.7000;0.7464;0.4611;
699.0000;0.7489;0.4611;
699.3000;0.7497;0.4637;
699.6000;0.7497;0.4637;
699.9000;0.7505;0.4815;
700.2000;0.7481;0.4713;
700.5000;0.7570;0.4892;
700.8000;0.7505;0.4815;
701.1000;0.7489;0.4790;
701.4000;0.7497;0.4739;
701.7000;0.7497;0.4739;
702.0000;0.7497;0.4713;
702.3000;0.7473;0.4688;
702.6000;0.7481;0.4713;
702.9000;0.7489;0.4739;
703.2000;0.7489;0.4790;
703.5000;0.7464;0.4611;
703.8000;0.7473;0.4561;
704.1000;0.7456;0.4561;
704.4000;0.7456;0.4510;
704.7000;0.7440;0.4510;
705.0000;0.7448;0.4586;
705.3000;0.7464;0.4561;
705.6000;0.7456;0.4586;
705.9000;0.7456;0.4611;
706.2000;0.7464;0.4611;
706.5000;0.7456;0.4535;
706.8000;0.7448;0.4561;
707.1000;0.7440;0.4535;
707.4000;0.7448;0.4611;
707.7000;0.7432;0.4637;
708.0000;0.7513;0.4841;
708.3000;0.7424;0.4611;
708.6000;0.7448;0.4713;
708.9000;0.7399;0.4611;
709.2000;0.7448;0.4841;
709.5000;0.7424;0.4866;
709.8000;0.7407;0.4790;
710.1000;0.7432;0.4764;
710.4000;0.7424;0.4790;
710.7000;0.7432;0.4713;
711.0000;0.7416;0.4764;
711.3000;0.7416;0.4815;
711.6000;0.7432;0.4892;
711.9000;0.7424;0.4815;
712.2000;0.7416;0.4866;
712.5000;0.7399;0.4815;
712.8000;0.7407;0.4892;
713.1000;0.7383;0.4892;
713.4000;0.7407;0.4866;
713.7000;0.7407;0.4892;
714.0000;0.7383;0.4892;
714.3000;0.7375;0.4866;
714.6000;0.7359;0.4764;
714.9000;0.7399;0.4841;
715.2000;0.7367;0.4713;
715.5000;0.7383;0.4764;
715.8000;0.7375;0.4815;
716.1000;0.7375;0.4815;
716.4000;0.7375;0.4764;
716.7000;0.7383;0.4713;
717.0000;0.7456;0.4994;
717.3000;0.7367;0.4764;
717.6000;0.7334;0.4662;
717.9000;0.7375;0.4713;
718.2000;0.7391;0.4866;
718.5000;0.7334;0.4611;
718.8000;0.7375;0.4586;
719.1000;0.7367;0.4611;
719.4000;0.7407;0.4764;
719.7000;0.7383;0.4790;
720.0000;0.7359;0.4739;
720.3000;0.7359;0.4611;
720.6000;0.7350;0.4713;
720.9000;0.7342;0.4688;
721.2000;0.7334;0.4739;
721.5000;0.7359;0.4815;
721.8000;0.7359;0.4815;
722.1000;0.7334;0.4713;
722.4000;0.7302;0.4637;
722.7000;0.7342;0.4739;
723.0000;0.7302;0.4662;
723.3000;0.7326;0.4841;
723.6000;0.7342;0.4892;
723.9000;0.7326;0.4841;
724.2000;0.7326;0.4764;
724.5000;0.7326;0.4790;
724.8000;0.7310;0.4815;
725.1000;0.7334;0.4866;
725.4000;0.7318;0.4790;
725.7000;0.7359;0.4790;
726.0000;0.7302;0.4637;
726.3000;0.7318;0.4637;
726.6000;0.7342;0.4764;
726.9000;0.7318;0.4739;
727.2000;0.7253;0.4611;
727.5000;0.7302;0.4739;
727.8000;0.7310;0.4739;
728.1000;0.7334;0.4815;
728.4000;0.7310;0.4764;
728.7000;0.7302;0.4815;
729.0000;0.7293;0.4866;
729.3000;0.7310;0.4866;
729.6000;0.7302;0.4841;
729.9000;0.7293;0.4815;
730.2000;0.7293;0.4815;
730.5000;0.7310;0.4866;
730.8000;0.7302;0.4917;
731.1000;0.7285;0.4968;
731.4000;0.7326;0.4994;
731.7000;0.7293;0.4841;
732.0000;0.7302;0.4764;
732.3000;0.7285;0.4637;
732.6000;0.7277;0.4662;
732.9000;0.7293;0.4790;
733.2000;0.7269;0.4815;
733.5000;0.7261;0.4739;
733.8000;0.7326;0.4943;
734.1000;0.7261;0.4790;
734.4000;0.7261;0.4841;
734.7000;0.7269;0.4790;
735.0000;0.7269;0.4713;
735.3000;0.7285;0.4764;
735.6000;0.7261;0.4688;
735.9000;0.7269;0.4688;
736.2000;0.7318;0.4892;
736.5000;0.7228;0.4688;
736.8000;0.7269;0.4764;
737.1000;0.7245;0.4739;
737.4000;0.7228;0.4764;
737.7000;0.7253;0.4815;
738.0000;0.7310;0.5019;
738.3000;0.7310;0.4943;
738.6000;0.7269;0.4841;
738.9000;0.7212;0.4790;
739.2000;0.7261;0.4892;
739.5000;0.7245;0.4892;
739.8000;0.7236;0.4866;
740.1000;0.7228;0.4713;
740.4000;0.7236;0.4688;
740.7000;0.7261;0.4662;
741.0000;0.7277;0.4790;
741.3000;0.7261;0.4662;
741.6000;0.7220;0.4433;
741.9000;0.7228;0.4459;
742.2000;0.7228;0.4459;
742.5000;0.7228;0.4510;
742.8000;0.7220;0.4408;
743.1000;0.7228;0.4459;
743.4000;0.7236;0.4484;
743.7000;0.7261;0.4586;
744.0000;0.7220;0.4510;
744.3000;0.7204;0.4611;
744.6000;0.7261;0.4637;
744.9000;0.7212;0.4688;
745.2000;0.7220;0.4713;
745.5000;0.7220;0.4764;
745.8000;0.7212;0.4662;
746.1000;0.7212;0.4586;
746.4000;0.7204;0.4586;
746.7000;0.7228;0.4764;
747.0000;0.7212;0.4739;
747.3000;0.7220;0.4739;
747.6000;0.7212;0.4739;
747.9000;0.7212;0.4739;
748.2000;0.7212;0.4764;
748.5000;0.7245;0.4764;
748.8000;0.7196;0.4688;
749.1000;0.7179;0.4688;
749.4000;0.7179;0.4764;
749.7000;0.7196;0.4841;
750.0000;0.7196;0.4739;
750.3000;0.7179;0.4688;
750.6000;0.7188;0.4764;
750.9000;0.7179;0.4815;
751.2000;0.7188;0.4841;
751.5000;0.7196;0.4866;
751.8000;0.7163;0.4764;
752.1000;0.7155;0.4713;
752.4000;0.7188;0.4815;
752.7000;0.7188;0.4815;
753.0000;0.7163;0.4739;
753.3000;0.7179;0.4764;
753.6000;0.7188;0.4688;
753.9000;0.7188;0.4688;
754.2000;0.7163;0.4662;
754.5000;0.7163;0.4815;
754.8000;0.7171;0.4815;
755.1000;0.7179;0.4739;
755.4000;0.7179;0.4866;
755.7000;0.7155;0.4917;
756.0000;0.7171;0.4943;
756.3000;0.7163;0.4994;
756.6000;0.7179;0.4994;
756.9000;0.7163;0.4943;
757.2000;0.7171;0.4892;
757.5000;0.7171;0.4815;
757.8000;0.7163;0.4790;
758.1000;0.7155;0.4866;
758.4000;0.7147;0.4917;
758.7000;0.7155;0.4892;
759.0000;0.7171;0.4841;
759.3000;0.7139;0.4815;
759.6000;0.7139;0.4764;
759.9000;0.7139;0.4713;
760.2000;0.7123;0.4764;
760.5000;0.7131;0.4713;
760.8000;0.7114;0.4764;
761.1000;0.7188;0.4892;
761.4000;0.7155;0.4790;
761.7000;0.7139;0.4739;
762.0000;0.7114;0.4713;
762.3000;0.7155;0.4764;
762.6000;0.7147;0.4764;
762.9000;0.7147;0.4790;
763.2000;0.7147;0.4764;
763.5000;0.7163;0.4917;
763.8000;0.7139;0.4866;
764.1000;0.7123;0.4892;
764.4000;0.7123;0.4841;
764.7000;0.7106;0.4815;
765.0000;0.7131;0.4917;
765.3000;0.7139;0.4866;
765.6000;0.7139;0.4892;
765.9000;0.7123;0.4943;
766.2000;0.7139;0.5019;
766.5000;0.7114;0.4994;
766.8000;0.7131;0.4994;
767.1000;0.7147;0.4968;
767.4000;0.7131;0.4943;
767.7000;0.7131;0.4943;
768.0000;0.7131;0.4968;
768.3000;0.7139;0.4917;
768.6000;0.7139;0.4892;
768.9000;0.7123;0.4841;
769.2000;0.7114;0.4739;
769.5000;0.7098;0.4764;
769.8000;0.7090;0.4815;
770.1000;0.7123;0.4943;
770.4000;0.7106;0.4968;
770.7000;0.7106;0.4994;
771.0000;0.7082;0.4994;
771.3000;0.7090;0.4968;
771.6000;0.7106;0.4866;
771.9000;0.7106;0.4790;
772.2000;0.7139;0.4841;
772.5000;0.7114;0.4790;
772.8000;0.7106;0.4866;
773.1000;0.7114;0.4943;
773.4000;0.7106;0.4994;
773.7000;0.7098;0.5045;
774.0000;0.7114;0.5019;
774.3000;0.7106;0.4994;
774.6000;0.7106;0.4994;
774.9000;0.7057;0.4994;
775.2000;0.7090;0.5045;
775.5000;0.7082;0.5096;
775.8000;0.7082;0.5197;
776.1000;0.7082;0.5197;
776.4000;0.7098;0.5223;
776.7000;0.7090;0.5121;
777.0000;0.7082;0.5121;
777.3000;0.7074;0.5045;
777.6000;0.7082;0.4968;
777.9000;0.7098;0.4968;
778.2000;0.7066;0.4943;
778.5000;0.7090;0.4943;
778.8000;0.7057;0.4841;
779.1000;0.7041;0.4739;
779.4000;0.7074;0.4866;
779.7000;0.7074;0.4866;
780.0000;0.7090;0.4866;
780.3000;0.7082;0.4841;
780.6000;0.7082;0.4892;
780.9000;0.7090;0.4917;
781.2000;0.7066;0.4968;
781.5000;0.7057;0.4943;
781.8000;0.7057;0.4841;
782.1000;0.7057;0.4841;
782.4000;0.7057;0.4917;
782.7000;0.7057;0.4892;
783.0000;0.7049;0.4968;
783.3000;0.7066;0.4943;
783.6000;0.7066;0.4943;
783.9000;0.7074;0.4943;
784.2000;0.7066;0.5019;
784.5000;0.7033;0.4943;
784.8000;0.7057;0.4917;
785.1000;0.7049;0.4943;
785.4000;0.7041;0.4841;
785.7000;0.7074;0.4815;
786.0000;0.7041;0.4637;
786.3000;0.7025;0.4586;
786.6000;0.7057;0.4662;
786.9000;0.7049;0.4790;
787.2000;0.7066;0.4943;
787.5000;0.7041;0.4943;
787.8000;0.7049;0.4968;
788.1000;0.7049;0.4994;
788.4000;0.7082;0.5121;
788.7000;0.7025;0.4943;
789.0000;0.7057;0.4968;
789.3000;0.7057;0.4968;
789.6000;0.7066;0.5019;
789.9000;0.6976;0.4892;
790.2000;0.7033;0.5121;
790.5000;0.7025;0.5223;
790.8000;0.7041;0.5197;
791.1000;0.7033;0.5223;
791.4000;0.7041;0.5172;
791.7000;0.7033;0.5121;
792.0000;0.7057;0.5172;
792.3000;0.7041;0.5147;
792.6000;0.7025;0.5147;
792.9000;0.7025;0.5121;
793.2000;0.7041;0.5096;
793.5000;0.7025;0.4968;
793.8000;0.7082;0.5096;
794.1000;0.7017;0.4994;
794.4000;0.7033;0.5121;
794.7000;0.7025;0.5096;
795.0000;0.7025;0.5070;
795.3000;0.7009;0.5045;
795.6000;0.7009;0.4943;
795.9000;0.7009;0.4943;
796.2000;0.6952;0.4739;
796.5000;0.6984;0.4841;
796.8000;0.7009;0.4943;
797.1000;0.7057;0.5019;
797.4000;0.7025;0.4917;
797.7000;0.7057;0.5019;
798.0000;0.7057;0.4968;
798.3000;0.7017;0.4917;
798.6000;0.7025;0.4943;
798.9000;0.7017;0.4943;
799.2000;0.7000;0.4994;
799.5000;0.7009;0.4917;
799.8000;0.7009;0.4943;
800.1000;0.7009;0.4917;
800.4000;0.6992;0.4943;
800.7000;0.7000;0.4968;
801.0000;0.7033;0.5045;
801.3000;0.7033;0.5019;
801.6000;0.7000;0.4866;
801.9000;0.7025;0.4994;
802.2000;0.7033;0.4994;
802.5000;0.6976;0.4866;
802.8000;0.6976;0.4943;
803.1000;0.7017;0.5045;
803.4000;0.7000;0.4943;
803.7000;0.7009;0.4866;
804.0000;0.6984;0.4841;
804.3000;0.6927;0.4713;
804.6000;0.7009;0.4943;
804.9000;0.7000;0.4994;
805.2000;0.6984;0.4943;
805.5000;0.6976;0.4892;
805.8000;0.6992;0.4892;
806.1000;0.7017;0.4917;
806.4000;0.6968;0.4917;
806.7000;0.6984;0.4892;
807.0000;0.6984;0.4892;
807.3000;0.7000;0.4943;
807.6000;0.7000;0.4892;
807.9000;0.6992;0.4917;
808.2000;0.7017;0.4917;
808.5000;0.7000;0.4943;
808.8000;0.7000;0.4892;
809.1000;0.6968;0.4841;
809.4000;0.7000;0.4815;
809.7000;0.6992;0.4866;
810.0000;0.6984;0.4866;
810.3000;0.6984;0.4968;
810.6000;0.6976;0.4994;
810.9000;0.6984;0.5096;
811.2000;0.6992;0.5096;
811.5000;0.6992;0.5019;
811.8000;0.6968;0.4968;
812.1000;0.6960;0.4968;
812.4000;0.6992;0.5070;
812.7000;0.6984;0.5045;
813.0000;0.6943;0.4943;
813.3000;0.6984;0.5096;
813.6000;0.6984;0.5172;
813.9000;0.6976;0.5172;
814.2000;0.6968;0.5070;
814.5000;0.6960;0.5019;
814.8000;0.7009;0.5121;
815.1000;0.6968;0.5070;
815.4000;0.6984;0.5121;
815.7000;0.6968;0.5019;
816.0000;0.6968;0.5045;
816.3000;0.6960;0.5019;
816.6000;0.6968;0.4917;
816.9000;0.6952;0.4917;
817.2000;0.6984;0.4917;
817.5000;0.6952;0.4917;
817.8000;0.6968;0.5019;
818.1000;0.6968;0.4994;
818.4000;0.6968;0.4917;
818.7000;0.6976;0.4866;
819.0000;0.6992;0.4943;
819.3000;0.6952;0.4892;
819.6000;0.6919;0.4713;
819.9000;0.6886;0.4586;
820.2000;0.6943;0.4739;
820.5000;0.6952;0.4713;
820.8000;0.6943;0.4739;
821.1000;0.7000;0.4841;
821.4000;0.6935;0.4713;
821.7000;0.6960;0.4739;
822.0000;0.6960;0.4586;
822.3000;0.6952;0.4586;
822.6000;0.6952;0.4662;
822.9000;0.6943;0.4586;
823.2000;0.6927;0.4662;
823.5000;0.6952;0.4790;
823.8000;0.6960;0.4892;
824.1000;0.6952;0.4943;
824.4000;0.6935;0.4790;
824.7000;0.6960;0.4764;
825.0000;0.6911;0.4713;
825.3000;0.6943;0.4841;
825.6000;0.6952;0.4739;
825.9000;0.6952;0.4637;
826.2000;0.6952;0.4637;
826.5000;0.6960;0.4713;
826.8000;0.6960;0.4713;
827.1000;0.6935;0.4662;
827.4000;0.6943;0.4764;
827.7000;0.6952;0.4790;
828.0000;0.6943;0.4866;
828.3000;0.6943;0.4815;
828.6000;0.6935;0.4815;
828.9000;0.6968;0.4866;
829.2000;0.6960;0.4917;
829.5000;0.6943;0.4815;
829.8000;0.6927;0.4764;
830.1000;0.6919;0.4764;
830.4000;0.6935;0.4892;
830.7000;0.6927;0.4841;
831.0000;0.6919;0.4815;
831.3000;0.6927;0.4815;
831.6000;0.6935;0.4841;
831.9000;0.6935;0.4841;
832.2000;0.6952;0.4841;
832.5000;0.6935;0.4866;
832.8000;0.6886;0.4739;
833.1000;0.6919;0.4892;
833.4000;0.6984;0.4994;
833.7000;0.6935;0.4892;
834.0000;0.6952;0.4968;
834.3000;0.6935;0.5019;
834.6000;0.6919;0.5019;
834.9000;0.6927;0.4994;
835.2000;0.6919;0.4943;
835.5000;0.6911;0.4917;
835.8000;0.6919;0.4917;
836.1000;0.6911;0.4994;
836.4000;0.6952;0.5070;
836.7000;0.6927;0.5045;
837.0000;0.6903;0.4866;
837.3000;0.6903;0.4892;
837.6000;0.6927;0.5045;
837.9000;0.6911;0.5121;
838.2000;0.6935;0.5197;
838.5000;0.6903;0.5121;
838.8000;0.6927;0.5197;
839.1000;0.6935;0.5147;
839.4000;0.6919;0.5121;
839.7000;0.6903;0.5121;
840.0000;0.6984;0.5350;
840.3000;0.6911;0.5197;
840.6000;0.6927;0.5197;
840.9000;0.6919;0.5147;
841.2000;0.6919;0.5019;
841.5000;0.6960;0.5070;
841.8000;0.6911;0.4994;
842.1000;0.6911;0.4892;
842.4000;0.6919;0.5019;
842.7000;0.6903;0.4943;
843.0000;0.6903;0.4943;
843.3000;0.6886;0.4917;
843.6000;0.6886;0.4815;
843.9000;0.6903;0.4815;
844.2000;0.6919;0.4892;
844.5000;0.6911;0.4968;
844.8000;0.6903;0.4892;
845.1000;0.6927;0.4917;
845.4000;0.6903;0.4841;
845.7000;0.6911;0.4892;
846.0000;0.6870;0.4866;
846.3000;0.6878;0.4968;
846.6000;0.6895;0.4917;
846.9000;0.6903;0.4892;
847.2000;0.6886;0.4917;
847.5000;0.6886;0.4968;
847.8000;0.6911;0.5045;
848.1000;0.6886;0.5045;
848.4000;0.6911;0.5121;
848.7000;0.6870;0.5070;
849.0000;0.6886;0.5197;
849.3000;0.6886;0.5248;
849.6000;0.6903;0.5223;
849.9000;0.6903;0.5197;
850.2000;0.6895;0.5121;
850.5000;0.6895;0.4994;
850.8000;0.6886;0.4968;
851.1000;0.6829;0.4739;
851.4000;0.6886;0.4841;
851.7000;0.6895;0.4815;
852.0000;0.6886;0.4841;
852.3000;0.6878;0.4841;
852.6000;0.6878;0.4764;
852.9000;0.6895;0.4764;
853.2000;0.6903;0.4866;
853.5000;0.6886;0.4866;
853.8000;0.6886;0.4790;
854.1000;0.6870;0.4841;
854.4000;0.6903;0.4994;
854.7000;0.6878;0.4917;
855.0000;0.6895;0.4943;
855.3000;0.6870;0.4866;
855.6000;0.6927;0.5045;
855.9000;0.6919;0.4994;
856.2000;0.6813;0.4739;
856.5000;0.6854;0.4892;
856.8000;0.6838;0.4866;
857.1000;0.6878;0.4994;
857.4000;0.6862;0.4892;
857.7000;0.6862;0.4892;
858.0000;0.6854;0.4764;
858.3000;0.6838;0.4688;
858.6000;0.6862;0.4739;
858.9000;0.6862;0.4790;
859.2000;0.6870;0.4892;
859.5000;0.6870;0.4968;
859.8000;0.6886;0.4968;
860.1000;0.6870;0.4917;
860.4000;0.6862;0.4943;
860.7000;0.6878;0.5019;
861.0000;0.6878;0.4994;
861.3000;0.6862;0.5070;
861.6000;0.6854;0.4968;
861.9000;0.6952;0.5299;
862.2000;0.6870;0.5045;
862.5000;0.6862;0.5096;
862.8000;0.6862;0.5172;
863.1000;0.6870;0.5045;
863.4000;0.6854;0.4994;
863.7000;0.6862;0.5019;
864.0000;0.6862;0.5070;
864.3000;0.6862;0.5070;
864.6000;0.6870;0.5070;
864.9000;0.6862;0.5019;
865.2000;0.6846;0.4968;
865.5000;0.6862;0.4917;
865.8000;0.6854;0.4943;
866.1000;0.6854;0.4892;
866.4000;0.6862;0.4917;
866.7000;0.6838;0.4866;
867.0000;0.6862;0.4841;
867.3000;0.6878;0.4917;
867.6000;0.6854;0.4917;
867.9000;0.6838;0.4892;
868.2000;0.6838;0.4943;
868.5000;0.6829;0.4815;
868.8000;0.6854;0.4917;
869.1000;0.6878;0.4943;
869.4000;0.6846;0.4892;
869.7000;0.6854;0.4815;
870.0000;0.6854;0.4841;
870.3000;0.6862;0.4892;
870.6000;0.6846;0.4866;
870.9000;0.6846;0.4866;
871.2000;0.6854;0.4968;
871.5000;0.6846;0.5070;
871.8000;0.6829;0.4994;
872.1000;0.6846;0.5019;
872.4000;0.6854;0.5045;
872.7000;0.6846;0.4994;
873.0000;0.6838;0.4994;
873.3000;0.6829;0.4968;
873.6000;0.6846;0.4968;
873.9000;0.6846;0.4968;
874.2000;0.6846;0.5045;
874.5000;0.6838;0.5019;
874.8000;0.6846;0.5019;
875.1000;0.6846;0.4968;
875.4000;0.6862;0.4994;
875.7000;0.6838;0.4866;
876.0000;0.6854;0.4866;
876.3000;0.6829;0.4739;
876.6000;0.6854;0.4841;
876.9000;0.6862;0.4841;
877.2000;0.6838;0.4841;
877.5000;0.6846;0.4866;
877.8000;0.6854;0.4892;
878.1000;0.6862;0.4943;
878.4000;0.6919;0.5070;
878.7000;0.6838;0.4917;
879.0000;0.6772;0.4713;
879.3000;0.6838;0.4892;
879.6000;0.6846;0.4917;
879.9000;0.6878;0.4968;
880.2000;0.6838;0.4943;
880.5000;0.6821;0.4841;
880.8000;0.6805;0.4739;
881.1000;0.6846;0.4866;
881.4000;0.6829;0.4917;
881.7000;0.6829;0.4968;
882.0000;0.6854;0.4917;
882.3000;0.6829;0.4866;
882.6000;0.6821;0.4994;
882.9000;0.6813;0.4994;
883.2000;0.6878;0.5147;
883.5000;0.6829;0.4943;
883.8000;0.6813;0.4943;
884.1000;0.6821;0.4892;
884.4000;0.6805;0.4841;
884.7000;0.6813;0.4841;
885.0000;0.6838;0.4892;
885.3000;0.6838;0.4892;
885.6000;0.6821;0.4815;
885.9000;0.6886;0.5070;
886.2000;0.6829;0.4968;
886.5000;0.6764;0.4739;
886.8000;0.6821;0.4790;
887.1000;0.6781;0.4815;
887.4000;0.6821;0.4943;
887.7000;0.6895;0.5070;
888.0000;0.6789;0.4917;
888.3000;0.6829;0.4994;
888.6000;0.6846;0.4994;
888.9000;0.6821;0.4943;
889.2000;0.6797;0.4892;
889.5000;0.6821;0.4815;
889.8000;0.6813;0.4892;
890.1000;0.6895;0.5172;
890.4000;0.6838;0.4994;
890.7000;0.6829;0.5019;
891.0000;0.6821;0.4968;
891.3000;0.6829;0.4994;
891.6000;0.6813;0.5045;
891.9000;0.6813;0.5019;
892.2000;0.6797;0.5045;
892.5000;0.6813;0.5070;
892.8000;0.6805;0.5121;
893.1000;0.6797;0.4994;
893.4000;0.6797;0.5096;
893.7000;0.6805;0.5096;
894.0000;0.6797;0.5070;
894.3000;0.6805;0.5019;
894.6000;0.6821;0.5121;
894.9000;0.6813;0.5096;
895.2000;0.6829;0.5223;
895.5000;0.6748;0.4943;
895.8000;0.6781;0.4968;
896.1000;0.6781;0.4943;
896.4000;0.6846;0.5096;
896.7000;0.6829;0.4917;
897.0000;0.6797;0.4841;
897.3000;0.6764;0.4764;
897.6000;0.6805;0.4866;
897.9000;0.6805;0.4917;
898.2000;0.6838;0.4968;
898.5000;0.6797;0.4841;
898.8000;0.6805;0.4866;
899.1000;0.6821;0.4892;
899.4000;0.6805;0.4943;
899.7000;0.6797;0.4943;
900.0000;0.6805;0.4994;
900.3000;0.6805;0.5070;
900.6000;0.6813;0.4994;
900.9000;0.6781;0.4943;
901.2000;0.6813;0.5019;
901.5000;0.6789;0.5045;
901.8000;0.6797;0.5070;
902.1000;0.6789;0.4994;
902.4000;0.6797;0.4866;
902.7000;0.6797;0.4815;
903.0000;0.6797;0.4841;
903.3000;0.6805;0.4866;
903.6000;0.6789;0.4866;
903.9000;0.6797;0.4917;
904.2000;0.6805;0.4790;
904.5000;0.6797;0.4815;
904.8000;0.6813;0.4841;
905.1000;0.6789;0.4892;
905.4000;0.6805;0.4917;
905.7000;0.6789;0.4968;
906.0000;0.6797;0.4892;
906.3000;0.6805;0.4943;
906.6000;0.6805;0.4994;
906.9000;0.6886;0.5172;
907.2000;0.6789;0.4994;
907.5000;0.6781;0.4968;
907.8000;0.6789;0.4968;
908.1000;0.6805;0.4917;
908.4000;0.6797;0.4917;
908.7000;0.6797;0.4917;
909.0000;0.6805;0.5045;
909.3000;0.6805;0.5172;
909.6000;0.6821;0.5248;
909.9000;0.6797;0.5121;
910.2000;0.6789;0.5096;
910.5000;0.6797;0.5019;
910.8000;0.6781;0.4994;
911.1000;0.6724;0.4841;
911.4000;0.6781;0.5070;
911.7000;0.6740;0.4841;
912.0000;0.6813;0.5045;
912.3000;0.6764;0.4892;
912.6000;0.6772;0.4866;
912.9000;0.6772;0.4892;
913.2000;0.6789;0.4866;
913.5000;0.6740;0.4764;
913.8000;0.6789;0.4968;
914.1000;0.6772;0.4892;
914.4000;0.6797;0.4917;
914.7000;0.6781;0.4841;
915.0000;0.6781;0.4968;
915.3000;0.6789;0.4968;
915.6000;0.6772;0.4943;
915.9000;0.6781;0.4968;
916.2000;0.6781;0.4968;
916.5000;0.6772;0.4968;
916.8000;0.6789;0.4917;
917.1000;0.6797;0.4866;
917.4000;0.6772;0.4841;
917.7000;0.6781;0.4866;
918.0000;0.6764;0.4790;
918.3000;0.6772;0.4866;
918.6000;0.6789;0.4815;
918.9000;0.6772;0.4790;
919.2000;0.6805;0.4815;
919.5000;0.6764;0.4713;
919.8000;0.6781;0.4739;
920.1000;0.6781;0.4713;
920.4000;0.6781;0.4688;
920.7000;0.6789;0.4790;
921.0000;0.6797;0.4815;
921.3000;0.6821;0.4917;
921.6000;0.6764;0.4866;
921.9000;0.6781;0.4866;
922.2000;0.6789;0.4994;
922.5000;0.6789;0.4994;
922.8000;0.6764;0.4892;
923.1000;0.6781;0.4917;
923.4000;0.6781;0.4892;
923.7000;0.6764;0.4764;
924.0000;0.6764;0.4764;
924.3000;0.6781;0.4790;
924.6000;0.6781;0.4790;
924.9000;0.6756;0.4790;
925.2000;0.6764;0.4815;
925.5000;0.6772;0.4790;
925.8000;0.6781;0.4866;
926.1000;0.6764;0.4917;
926.4000;0.6756;0.4866;
926.7000;0.6772;0.4917;
927.0000;0.6756;0.4994;
927.3000;0.6772;0.4943;
927.6000;0.6748;0.4892;
927.9000;0.6756;0.4968;
928.2000;0.6764;0.5019;
928.5000;0.6781;0.5019;
928.8000;0.6772;0.4968;
929.1000;0.6772;0.5070;
929.4000;0.6764;0.5070;
929.7000;0.6748;0.5045;
930.0000;0.6716;0.4943;
930.3000;0.6707;0.4892;
930.6000;0.6732;0.4943;
930.9000;0.6764;0.5096;
931.2000;0.6756;0.5019;
931.5000;0.6756;0.4968;
931.8000;0.6748;0.4917;
932.1000;0.6813;0.5070;
932.4000;0.6748;0.5019;
932.7000;0.6732;0.5096;
933.0000;0.6797;0.5172;
933.3000;0.6756;0.5045;
933.6000;0.6756;0.5045;
933.9000;0.6699;0.4917;
934.2000;0.6756;0.4968;
934.5000;0.6740;0.5045;
934.8000;0.6805;0.5223;
935.1000;0.6821;0.5147;
935.4000;0.6756;0.4943;
935.7000;0.6756;0.4943;
936.0000;0.6772;0.4917;
936.3000;0.6740;0.4892;
936.6000;0.6756;0.4968;
936.9000;0.6740;0.5019;
937.2000;0.6756;0.5045;
937.5000;0.6707;0.4866;
937.8000;0.6748;0.4943;
938.1000;0.6748;0.4892;
938.4000;0.6740;0.4815;
938.7000;0.6789;0.4994;
939.0000;0.6732;0.4917;
939.3000;0.6732;0.4968;
939.6000;0.6740;0.4994;
939.9000;0.6732;0.4917;
940.2000;0.6732;0.4917;
940.5000;0.6756;0.4994;
940.8000;0.6748;0.4968;
941.1000;0.6748;0.4994;
941.4000;0.6740;0.4943;
941.7000;0.6740;0.4866;
942.0000;0.6732;0.4866;
942.3000;0.6748;0.4892;
942.6000;0.6772;0.4764;
942.9000;0.6740;0.4764;
943.2000;0.6740;0.4739;
943.5000;0.6756;0.4815;
943.8000;0.6748;0.4841;
944.1000;0.6756;0.4892;
944.4000;0.6740;0.4815;
944.7000;0.6740;0.4739;
945.0000;0.6756;0.4815;
945.3000;0.6740;0.4841;
945.6000;0.6740;0.4841;
945.9000;0.6740;0.4841;
946.2000;0.6740;0.4739;
946.5000;0.6683;0.4586;
946.8000;0.6740;0.4764;
947.1000;0.6740;0.4841;
947.4000;0.6748;0.4943;
947.7000;0.6732;0.4892;
948.0000;0.6732;0.4917;
948.3000;0.6748;0.4943;
948.6000;0.6740;0.4943;
948.9000;0.6748;0.4968;
949.2000;0.6716;0.4917;
949.5000;0.6732;0.4917;
949.8000;0.6781;0.5096;
950.1000;0.6756;0.4917;
950.4000;0.6748;0.4943;
950.7000;0.6756;0.4892;
951.0000;0.6740;0.4866;
951.3000;0.6683;0.4739;
951.6000;0.6781;0.4968;
951.9000;0.6764;0.5019;
952.2000;0.6772;0.5147;
952.5000;0.6797;0.5197;
952.8000;0.6707;0.4968;
953.1000;0.6740;0.5096;
953.4000;0.6699;0.5019;
953.7000;0.6683;0.4917;
954.0000;0.6756;0.5147;
954.3000;0.6707;0.5019;
954.6000;0.6740;0.5172;
954.9000;0.6797;0.5274;
955.2000;0.6740;0.5096;
955.5000;0.6740;0.5147;
955.8000;0.6740;0.5070;
956.1000;0.6764;0.5096;
956.4000;0.6740;0.5070;
956.7000;0.6740;0.5070;
957.0000;0.6724;0.4994;
957.3000;0.6716;0.4866;
957.6000;0.6732;0.4968;
957.9000;0.6724;0.5045;
958.2000;0.6724;0.4968;
958.5000;0.6724;0.4994;
958.8000;0.6716;0.5070;
959.1000;0.6707;0.5045;
959.4000;0.6707;0.4943;
959.7000;0.6716;0.4994;
960.0000;0.6699;0.4917;
960.3000;0.6724;0.5019;
960.6000;0.6748;0.5096;
960.9000;0.6724;0.5045;
961.2000;0.6716;0.4968;
961.5000;0.6707;0.4994;
961.8000;0.6732;0.5096;
962.1000;0.6707;0.5070;
962.4000;0.6740;0.5121;
962.7000;0.6724;0.4994;
963.0000;0.6716;0.5070;
963.3000;0.6707;0.4994;
963.6000;0.6732;0.5019;
963.9000;0.6691;0.4968;
964.2000;0.6724;0.5147;
964.5000;0.6732;0.5172;
964.8000;0.6732;0.5121;
965.1000;0.6707;0.5096;
965.4000;0.6724;0.5070;
965.7000;0.6699;0.5019;
966.0000;0.6707;0.5045;
966.3000;0.6724;0.5096;
966.6000;0.6707;0.5070;
966.9000;0.6716;0.5096;
967.2000;0.6699;0.5019;
967.5000;0.6650;0.4866;
967.8000;0.6724;0.5019;
968.1000;0.6642;0.4739;
968.4000;0.6724;0.4917;
968.7000;0.6716;0.4892;
969.0000;0.6716;0.4892;
969.3000;0.6716;0.4790;
969.6000;0.6716;0.4917;
969.9000;0.6691;0.4943;
970.2000;0.6659;0.4917;
970.5000;0.6699;0.5045;
970.8000;0.6691;0.5121;
971.1000;0.6707;0.5121;
971.4000;0.6675;0.5019;
971.7000;0.6724;0.5096;
972.0000;0.6707;0.5070;
972.3000;0.6675;0.4994;
972.6000;0.6683;0.5045;
972.9000;0.6707;0.5096;
973.2000;0.6716;0.5121;
973.5000;0.6716;0.5121;
973.8000;0.6707;0.5070;
974.1000;0.6716;0.5070;
974.4000;0.6699;0.5121;
974.7000;0.6683;0.5121;
975.0000;0.6699;0.5070;
975.3000;0.6683;0.5019;
975.6000;0.6707;0.5070;
975.9000;0.6691;0.4968;
976.2000;0.6699;0.5045;
976.5000;0.6740;0.5172;
976.8000;0.6716;0.5070;
977.1000;0.6699;0.4968;
977.4000;0.6683;0.4917;
977.7000;0.6707;0.5019;
978.0000;0.6707;0.5096;
978.3000;0.6707;0.5070;
978.6000;0.6699;0.5045;
978.9000;0.6707;0.5096;
979.2000;0.6724;0.5096;
979.5000;0.6707;0.5045;
979.8000;0.6707;0.5096;
980.1000;0.6675;0.4917;
980.4000;0.6691;0.4943;
980.7000;0.6691;0.4968;
981.0000;0.6691;0.4866;
981.3000;0.6699;0.4892;
981.6000;0.6707;0.4917;
981.9000;0.6724;0.5045;
982.2000;0.6707;0.5096;
982.5000;0.6699;0.5121;
982.8000;0.6675;0.5096;
983.1000;0.6699;0.5172;
983.4000;0.6691;0.5223;
983.7000;0.6707;0.5172;
984.0000;0.6683;0.5172;
984.3000;0.6699;0.5223;
984.6000;0.6781;0.5427;
984.9000;0.6683;0.5147;
985.2000;0.6699;0.5223;
985.5000;0.6691;0.5274;
985.8000;0.6691;0.5223;
986.1000;0.6683;0.5197;
986.4000;0.6699;0.5197;
986.7000;0.6691;0.5274;
987.0000;0.6707;0.5223;
987.3000;0.6691;0.5223;
987.6000;0.6675;0.5121;
987.9000;0.6683;0.5197;
988.2000;0.6691;0.5070;
988.5000;0.6650;0.5045;
988.8000;0.6691;0.5223;
989.1000;0.6772;0.5452;
989.4000;0.6716;0.5274;
989.7000;0.6675;0.5223;
990.0000;0.6667;0.5121;
990.3000;0.6667;0.5121;
990.6000;0.6691;0.5172;
990.9000;0.6691;0.5096;
991.2000;0.6667;0.5121;
991.5000;0.6667;0.5121;
991.8000;0.6667;0.5147;
992.1000;0.6707;0.5248;
992.4000;0.6699;0.5197;
992.7000;0.6675;0.5172;
993.0000;0.6691;0.5299;
993.3000;0.6675;0.5299;
993.6000;0.6675;0.5223;
993.9000;0.6667;0.5223;
994.2000;0.6675;0.5197;
994.5000;0.6732;0.5299;
994.8000;0.6659;0.4994;
995.1000;0.6659;0.4994;
995.4000;0.6683;0.5045;
995.7000;0.6667;0.4994;
996.0000;0.6675;0.4994;
996.3000;0.6667;0.5045;
996.6000;0.6683;0.5172;
996.9000;0.6667;0.5172;
997.2000;0.6683;0.5147;
997.5000;0.6699;0.5147;
997.8000;0.6659;0.5045;
998.1000;0.6667;0.5019;
998.4000;0.6716;0.5147;
998.7000;0.6683;0.5070;
999.0000;0.6667;0.4968;
999.3000;0.6667;0.5019;
999.6000;0.6667;0.5019;
999.9000;0.6683;0.5045;
1000.2000;0.6659;0.4994;
1000.5000;0.6659;0.5070;
1000.8000;0.6667;0.5096;
1001.1000;0.6667;0.5121;
1001.4000;0.6675;0.5121;
1001.7000;0.6675;0.4968;
1002.0000;0.6675;0.4968;
1002.3000;0.6699;0.4866;
1002.6000;0.6683;0.4917;
1002.9000;0.6626;0.4917;
1003.2000;0.6675;0.5019;
1003.5000;0.6667;0.5045;
1003.8000;0.6691;0.5121;
1004.1000;0.6667;0.5121;
1004.4000;0.6650;0.5045;
1004.7000;0.6683;0.5070;
1005.0000;0.6716;0.5197;
1005.3000;0.6675;0.4994;
1005.6000;0.6659;0.4943;
1005.9000;0.6667;0.4968;
1006.2000;0.6642;0.5045;
1006.5000;0.6667;0.5070;
1006.8000;0.6659;0.4994;
1007.1000;0.6691;0.5147;
1007.4000;0.6675;0.4994;
1007.7000;0.6675;0.4968;
1008.0000;0.6675;0.5019;
1008.3000;0.6675;0.4994;
1008.6000;0.6675;0.5019;
1008.9000;0.6675;0.5096;
1009.2000;0.6667;0.5019;
1009.5000;0.6650;0.4968;
1009.8000;0.6667;0.4968;
1010.1000;0.6642;0.4943;
1010.4000;0.6650;0.4968;
1010.7000;0.6618;0.4943;
1011.0000;0.6650;0.5045;
1011.3000;0.6642;0.4994;
1011.6000;0.6650;0.4968;
1011.9000;0.6650;0.4968;
1012.2000;0.6650;0.4917;
1012.5000;0.6675;0.4968;
1012.8000;0.6691;0.5019;
1013.1000;0.6634;0.4866;
1013.4000;0.6675;0.4917;
1013.7000;0.6626;0.4892;
1014.0000;0.6675;0.5096;
1014.3000;0.6650;0.4994;
1014.6000;0.6659;0.4943;
1014.9000;0.6659;0.4994;
1015.2000;0.6650;0.4968;
1015.5000;0.6667;0.5070;
1015.8000;0.6667;0.5070;
1016.1000;0.6659;0.5096;
1016.4000;0.6642;0.4994;
1016.7000;0.6650;0.4968;
1017.0000;0.6659;0.4968;
1017.3000;0.6626;0.4943;
1017.6000;0.6659;0.5019;
1017.9000;0.6642;0.4994;
1018.2000;0.6659;0.5096;
1018.5000;0.6716;0.5223;
1018.8000;0.6667;0.5096;
1019.1000;0.6650;0.5096;
1019.4000;0.6667;0.5172;
1019.7000;0.6626;0.5096;
1020.0000;0.6667;0.5121;
1020.3000;0.6667;0.5121;
1020.6000;0.6642;0.5045;
1020.9000;0.6642;0.5045;
1021.2000;0.6675;0.5096;
1021.5000;0.6667;0.5096;
1021.8000;0.6659;0.5121;
1022.1000;0.6683;0.5325;
1022.4000;0.6642;0.5197;
1022.7000;0.6667;0.5299;
1023.0000;0.6634;0.5197;
1023.3000;0.6650;0.5172;
1023.6000;0.6732;0.5325;
1023.9000;0.6634;0.5070;
1024.2000;0.6650;0.5045;
1024.5000;0.6634;0.5172;
1024.8000;0.6667;0.5223;
1025.1000;0.6691;0.5376;
1025.4000;0.6650;0.5223;
1025.7000;0.6642;0.5197;
1026.0000;0.6626;0.5223;
1026.3000;0.6642;0.5274;
1026.6000;0.6650;0.5274;
1026.9000;0.6610;0.5147;
1027.2000;0.6642;0.5248;
1027.5000;0.6642;0.5147;
1027.8000;0.6650;0.5172;
1028.1000;0.6659;0.5248;
1028.4000;0.6650;0.5197;
1028.7000;0.6642;0.5147;
1029.0000;0.6683;0.5248;
1029.3000;0.6642;0.5197;
1029.6000;0.6642;0.5197;
1029.9000;0.6634;0.5223;
1030.2000;0.6626;0.5147;
1030.5000;0.6650;0.5096;
1030.8000;0.6642;0.5121;
1031.1000;0.6626;0.4994;
1031.4000;0.6659;0.5045;
1031.7000;0.6642;0.5070;
1032.0000;0.6642;0.5045;
1032.3000;0.6642;0.5096;
1032.6000;0.6626;0.5070;
1032.9000;0.6642;0.5299;
1033.2000;0.6634;0.5325;
1033.5000;0.6610;0.5147;
1033.8000;0.6618;0.5172;
1034.1000;0.6642;0.5172;
1034.4000;0.6650;0.5172;
1034.7000;0.6634;0.5070;
1035.0000;0.6626;0.5070;
1035.3000;0.6650;0.5172;
1035.6000;0.6642;0.5019;
1035.9000;0.6642;0.5070;
1036.2000;0.6626;0.5096;
1036.5000;0.6642;0.5147;
1036.8000;0.6667;0.5172;
1037.1000;0.6626;0.5147;
1037.4000;0.6577;0.5096;
1037.7000;0.6618;0.5147;
1038.0000;0.6642;0.5172;
1038.3000;0.6626;0.5147;
1038.6000;0.6610;0.5096;
1038.9000;0.6634;0.5197;
1039.2000;0.6642;0.5197;
1039.5000;0.6634;0.5223;
1039.8000;0.6634;0.5197;
1040.1000;0.6626;0.5121;
1040.4000;0.6626;0.5070;
1040.7000;0.6610;0.5019;
1041.0000;0.6618;0.5121;
1041.3000;0.6618;0.5070;
1041.6000;0.6610;0.4968;
1041.9000;0.6642;0.5045;
1042.2000;0.6610;0.5019;
1042.5000;0.6618;0.5096;
1042.8000;0.6610;0.5147;
1043.1000;0.6626;0.5223;
1043.4000;0.6642;0.5299;
1043.7000;0.6642;0.5325;
1044.0000;0.6626;0.5197;
1044.3000;0.6634;0.5172;
1044.6000;0.6634;0.5096;
1044.9000;0.6626;0.5045;
1045.2000;0.6626;0.5019;
1045.5000;0.6610;0.4917;
1045.8000;0.6659;0.5045;
1046.1000;0.6618;0.5045;
1046.4000;0.6626;0.5121;
1046.7000;0.6585;0.5096;
1047.0000;0.6593;0.5096;
1047.3000;0.6642;0.5274;
1047.6000;0.6618;0.5274;
1047.9000;0.6569;0.5121;
1048.2000;0.6659;0.5325;
1048.5000;0.6642;0.5172;
1048.8000;0.6602;0.5147;
1049.1000;0.6634;0.5223;
1049.4000;0.6602;0.5147;
1049.7000;0.6650;0.5248;
1050.0000;0.6618;0.5274;
1050.3000;0.6634;0.5325;
1050.6000;0.6626;0.5325;
1050.9000;0.6650;0.5401;
1051.2000;0.6626;0.5325;
1051.5000;0.6642;0.5197;
1051.8000;0.6626;0.5147;
1052.1000;0.6634;0.5096;
1052.4000;0.6593;0.4968;
1052.7000;0.6585;0.4917;
1053.0000;0.6593;0.4892;
1053.3000;0.6618;0.4994;
1053.6000;0.6642;0.4892;
1053.9000;0.6602;0.4892;
1054.2000;0.6593;0.4892;
1054.5000;0.6626;0.4994;
1054.8000;0.6610;0.4917;
1055.1000;0.6626;0.5019;
1055.4000;0.6610;0.4994;
1055.7000;0.6618;0.5121;
1056.0000;0.6659;0.5197;
1056.3000;0.6618;0.5197;
1056.6000;0.6610;0.5172;
1056.9000;0.6642;0.5172;
1057.2000;0.6626;0.5121;
1057.5000;0.6569;0.4943;
1057.8000;0.6593;0.5096;
1058.1000;0.6593;0.5045;
1058.4000;0.6626;0.4968;
1058.7000;0.6602;0.5045;
1059.0000;0.6585;0.5096;
1059.3000;0.6593;0.5070;
1059.6000;0.6618;0.5197;
1059.9000;0.6610;0.5248;
1060.2000;0.6610;0.5274;
1060.5000;0.6602;0.5299;
1060.8000;0.6610;0.5299;
1061.1000;0.6569;0.5223;
1061.4000;0.6602;0.5376;
1061.7000;0.6626;0.5325;
1062.0000;0.6602;0.5350;
1062.3000;0.6602;0.5248;
1062.6000;0.6618;0.5325;
1062.9000;0.6610;0.5248;
1063.2000;0.6618;0.5299;
1063.5000;0.6626;0.5376;
1063.8000;0.6618;0.5299;
1064.1000;0.6610;0.5274;
1064.4000;0.6593;0.5147;
1064.7000;0.6610;0.5274;
1065.0000;0.6626;0.5248;
1065.3000;0.6602;0.5197;
1065.6000;0.6610;0.5172;
1065.9000;0.6610;0.5172;
1066.2000;0.6610;0.5172;
1066.5000;0.6618;0.5147;
1066.8000;0.6610;0.5172;
1067.1000;0.6602;0.5121;
1067.4000;0.6618;0.5096;
1067.7000;0.6618;0.5096;
1068.0000;0.6593;0.5121;
1068.3000;0.6602;0.5147;
1068.6000;0.6561;0.5070;
1068.9000;0.6626;0.5299;
1069.2000;0.6618;0.5248;
1069.5000;0.6593;0.5197;
1069.8000;0.6667;0.5325;
1070.1000;0.6610;0.5147;
1070.4000;0.6618;0.5070;
1070.7000;0.6618;0.5019;
1071.0000;0.6610;0.5019;
1071.3000;0.6618;0.4994;
1071.6000;0.6642;0.5172;
1071.9000;0.6618;0.5147;
1072.2000;0.6618;0.5172;
1072.5000;0.6610;0.5172;
1072.8000;0.6610;0.5172;
1073.1000;0.6593;0.5172;
1073.4000;0.6545;0.4994;
1073.7000;0.6585;0.5248;
1074.0000;0.6602;0.5325;
1074.3000;0.6610;0.5350;
1074.6000;0.6634;0.5350;
1074.9000;0.6585;0.5223;
1075.2000;0.6634;0.5350;
1075.5000;0.6561;0.5096;
1075.8000;0.6577;0.5172;
1076.1000;0.6577;0.5197;
1076.4000;0.6561;0.5096;
1076.7000;0.6585;0.5172;
1077.0000;0.6569;0.5197;
1077.3000;0.6585;0.5325;
1077.6000;0.6585;0.5325;
1077.9000;0.6593;0.5376;
1078.2000;0.6618;0.5478;
1078.5000;0.6561;0.5350;
1078.8000;0.6618;0.5427;
1079.1000;0.6602;0.5350;
1079.4000;0.6593;0.5376;
1079.7000;0.6593;0.5376;
1080.0000;0.6585;0.5248;
1080.3000;0.6593;0.5401;
1080.6000;0.6585;0.5376;
1080.9000;0.6593;0.5376;
1081.2000;0.6634;0.5376;
1081.5000;0.6602;0.5299;
1081.8000;0.6593;0.5248;
1082.1000;0.6561;0.5274;
1082.4000;0.6593;0.5325;
1082.7000;0.6593;0.5248;
1083.0000;0.6593;0.5147;
1083.3000;0.6545;0.4917;
1083.6000;0.6610;0.5121;
1083.9000;0.6618;0.5121;
1084.2000;0.6602;0.5070;
1084.5000;0.6593;0.4968;
1084.8000;0.6602;0.4994;
1085.1000;0.6585;0.5045;
1085.4000;0.6610;0.5070;
1085.7000;0.6585;0.5070;
1086.0000;0.6585;0.5172;
1086.3000;0.6569;0.5096;
1086.6000;0.6593;0.5197;
1086.9000;0.6585;0.5197;
1087.2000;0.6593;0.5172;
1087.5000;0.6585;0.5197;
1087.8000;0.6585;0.5223;
1088.1000;0.6577;0.5197;
1088.4000;0.6585;0.5197;
1088.7000;0.6610;0.5223;
1089.0000;0.6610;0.5299;
1089.3000;0.6602;0.5248;
1089.6000;0.6618;0.5350;
1089.9000;0.6593;0.5274;
1090.2000;0.6593;0.5223;
1090.5000;0.6593;0.5299;
1090.8000;0.6585;0.5299;
1091.1000;0.6577;0.5274;
1091.4000;0.6577;0.5223;
1091.7000;0.6593;0.5274;
1092.0000;0.6593;0.5299;
1092.3000;0.6569;0.5070;
1092.6000;0.6585;0.4994;
1092.9000;0.6585;0.5070;
1093.2000;0.6577;0.5070;
1093.5000;0.6593;0.5121;
1093.8000;0.6610;0.5197;
1094.1000;0.6520;0.5019;
1094.4000;0.6569;0.5197;
1094.7000;0.6569;0.5299;
1095.0000;0.6569;0.5325;
1095.3000;0.6569;0.5350;
1095.6000;0.6593;0.5376;
1095.9000;0.6585;0.5350;
1096.2000;0.6585;0.5427;
1096.5000;0.6561;0.5350;
1096.8000;0.6569;0.5325;
1097.1000;0.6667;0.5605;
1097.4000;0.6569;0.5325;
1097.7000;0.6528;0.5223;
1098.0000;0.6545;0.5172;
1098.3000;0.6577;0.5223;
1098.6000;0.6569;0.5121;
1098.9000;0.6577;0.5147;
1099.2000;0.6602;0.5147;
1099.5000;0.6626;0.5248;
1099.8000;0.6577;0.5172;
1100.1000;0.6585;0.5172;
1100.4000;0.6593;0.5147;
1100.7000;0.6569;0.5197;
1101.0000;0.6577;0.5223;
1101.3000;0.6553;0.5197;
1101.6000;0.6561;0.5299;
1101.9000;0.6569;0.5325;
1102.2000;0.6561;0.5172;
1102.5000;0.6577;0.5172;
1102.8000;0.6585;0.5172;
1103.1000;0.6585;0.5172;
1103.4000;0.6577;0.5172;
1103.7000;0.6577;0.5121;
1104.0000;0.6569;0.5172;
1104.3000;0.6585;0.5197;
1104.6000;0.6569;0.5172;
1104.9000;0.6577;0.5223;
1105.2000;0.6585;0.5248;
1105.5000;0.6528;0.5172;
1105.8000;0.6585;0.5325;
1106.1000;0.6561;0.5401;
1106.4000;0.6569;0.5427;
1106.7000;0.6569;0.5325;
1107.0000;0.6569;0.5299;
1107.3000;0.6602;0.5427;
1107.6000;0.6569;0.5350;
1107.9000;0.6553;0.5401;
1108.2000;0.6520;0.5401;
1108.5000;0.6569;0.5503;
1108.8000;0.6577;0.5503;
1109.1000;0.6561;0.5452;
1109.4000;0.6626;0.5605;
1109.7000;0.6577;0.5401;
1110.0000;0.6561;0.5350;
1110.3000;0.6577;0.5376;
1110.6000;0.6561;0.5427;
1110.9000;0.6577;0.5350;
1111.2000;0.6569;0.5350;
1111.5000;0.6569;0.5325;
1111.8000;0.6553;0.5223;
1112.1000;0.6577;0.5325;
1112.4000;0.6545;0.5248;
1112.7000;0.6569;0.5350;
1113.0000;0.6561;0.5325;
1113.3000;0.6585;0.5401;
1113.6000;0.6577;0.5325;
1113.9000;0.6569;0.5325;
1114.2000;0.6577;0.5350;
1114.5000;0.6577;0.5478;
1114.8000;0.6585;0.5529;
1115.1000;0.6561;0.5401;
1115.4000;0.6585;0.5401;
1115.7000;0.6577;0.5401;
1116.0000;0.6577;0.5452;
1116.3000;0.6585;0.5478;
1116.6000;0.6569;0.5452;
1116.9000;0.6553;0.5325;
1117.2000;0.6561;0.5427;
1117.5000;0.6553;0.5452;
1117.8000;0.6634;0.5707;
1118.1000;0.6593;0.5580;
1118.4000;0.6569;0.5580;
1118.7000;0.6577;0.5529;
1119.0000;0.6569;0.5503;
1119.3000;0.6569;0.5350;
1119.6000;0.6561;0.5248;
1119.9000;0.6577;0.5274;
1120.2000;0.6545;0.5172;
1120.5000;0.6569;0.5197;
1120.8000;0.6561;0.5274;
1121.1000;0.6569;0.5274;
1121.4000;0.6553;0.5350;
1121.7000;0.6593;0.5452;
1122.0000;0.6553;0.5376;
1122.3000;0.6577;0.5376;
1122.6000;0.6545;0.5376;
1122.9000;0.6528;0.5325;
1123.2000;0.6618;0.5529;
1123.5000;0.6504;0.5147;
1123.8000;0.6553;0.5299;
1124.1000;0.6545;0.5274;
1124.4000;0.6545;0.5325;
1124.7000;0.6577;0.5452;
1125.0000;0.6536;0.5299;
1125.3000;0.6569;0.5427;
1125.6000;0.6569;0.5401;
1125.9000;0.6553;0.5427;
1126.2000;0.6488;0.5197;
1126.5000;0.6577;0.5427;
1126.8000;0.6553;0.5376;
1127.1000;0.6545;0.5299;
1127.4000;0.6561;0.5350;
1127.7000;0.6561;0.5350;
1128.0000;0.6553;0.5325;
1128.3000;0.6561;0.5350;
1128.6000;0.6545;0.5325;
1128.9000;0.6545;0.5325;
1129.2000;0.6569;0.5376;
1129.5000;0.6569;0.5376;
1129.8000;0.6561;0.5325;
1130.1000;0.6545;0.5427;
1130.4000;0.6553;0.5452;
1130.7000;0.6553;0.5401;
1131.0000;0.6545;0.5376;
1131.3000;0.6593;0.5452;
1131.6000;0.6553;0.5376;
1131.9000;0.6545;0.5350;
1132.2000;0.6553;0.5376;
1132.5000;0.6561;0.5427;
1132.8000;0.6545;0.5478;
1133.1000;0.6528;0.5401;
1133.4000;0.6545;0.5299;
1133.7000;0.6561;0.5299;
1134.0000;0.6553;0.5350;
1134.3000;0.6675;0.5631;
1134.6000;0.6545;0.5401;
1134.9000;0.6545;0.5427;
1135.2000;0.6561;0.5478;
1135.5000;0.6553;0.5478;
1135.8000;0.6561;0.5554;
1136.1000;0.6561;0.5503;
1136.4000;0.6504;0.5299;
1136.7000;0.6553;0.5427;
1137.0000;0.6545;0.5350;
1137.3000;0.6561;0.5427;
1137.6000;0.6585;0.5452;
1137.9000;0.6585;0.5503;
1138.2000;0.6536;0.5350;
1138.5000;0.6553;0.5350;
1138.8000;0.6504;0.5248;
1139.1000;0.6528;0.5350;
1139.4000;0.6553;0.5376;
1139.7000;0.6536;0.5376;
1140.0000;0.6569;0.5452;
1140.3000;0.6561;0.5478;
1140.6000;0.6520;0.5478;
1140.9000;0.6626;0.5682;
1141.2000;0.6520;0.5427;
1141.5000;0.6561;0.5503;
1141.8000;0.6536;0.5452;
1142.1000;0.6553;0.5350;
1142.4000;0.6528;0.5350;
1142.7000;0.6545;0.5452;
1143.0000;0.6488;0.5274;
1143.3000;0.6561;0.5427;
1143.6000;0.6577;0.5401;
1143.9000;0.6561;0.5325;
1144.2000;0.6585;0.5427;
1144.5000;0.6536;0.5325;
1144.8000;0.6520;0.5299;
1145.1000;0.6553;0.5401;
1145.4000;0.6545;0.5376;
1145.7000;0.6528;0.5401;
1146.0000;0.6561;0.5427;
1146.3000;0.6561;0.5376;
1146.6000;0.6545;0.5427;
1146.9000;0.6545;0.5401;
1147.2000;0.6536;0.5350;
1147.5000;0.6545;0.5350;
1147.8000;0.6545;0.5350;
1148.1000;0.6536;0.5376;
1148.4000;0.6553;0.5325;
1148.7000;0.6536;0.5172;
1149.0000;0.6545;0.5121;
1149.3000;0.6536;0.5070;
1149.6000;0.6536;0.5172;
1149.9000;0.6536;0.5197;
1150.2000;0.6545;0.5121;
1150.5000;0.6536;0.5121;
1150.8000;0.6536;0.5197;
1151.1000;0.6545;0.5248;
1151.4000;0.6545;0.5299;
1151.7000;0.6536;0.5376;
1152.0000;0.6536;0.5325;
1152.3000;0.6536;0.5248;
1152.6000;0.6536;0.5350;
1152.9000;0.6561;0.5401;
1153.2000;0.6528;0.5452;
1153.5000;0.6536;0.5529;
1153.8000;0.6536;0.5529;
1154.1000;0.6536;0.5580;
1154.4000;0.6528;0.5580;
1154.7000;0.6545;0.5529;
1155.0000;0.6520;0.5452;
1155.3000;0.6536;0.5478;
1155.6000;0.6536;0.5427;
1155.9000;0.6528;0.5452;
1156.2000;0.6536;0.5427;
1156.5000;0.6528;0.5427;
1156.8000;0.6545;0.5529;
1157.1000;0.6528;0.5554;
1157.4000;0.6553;0.5529;
1157.7000;0.6545;0.5427;
1158.0000;0.6553;0.5376;
1158.3000;0.6528;0.5299;
1158.6000;0.6528;0.5248;
1158.9000;0.6536;0.5121;
1159.2000;0.6545;0.5121;
1159.5000;0.6520;0.5172;
1159.8000;0.6528;0.5147;
1160.1000;0.6536;0.5096;
1160.4000;0.6488;0.4892;
1160.7000;0.6528;0.5070;
1161.0000;0.6496;0.5121;
1161.3000;0.6504;0.5147;
1161.6000;0.6528;0.5147;
1161.9000;0.6545;0.5070;
1162.2000;0.6528;0.5096;
1162.5000;0.6536;0.5096;
1162.8000;0.6536;0.5147;
1163.1000;0.6545;0.5121;
1163.4000;0.6536;0.5121;
1163.7000;0.6520;0.5045;
1164.0000;0.6569;0.5147;
1164.3000;0.6536;0.5223;
1164.6000;0.6520;0.5223;
1164.9000;0.6504;0.5274;
1165.2000;0.6553;0.5401;
1165.5000;0.6504;0.5325;
1165.8000;0.6520;0.5452;
1166.1000;0.6520;0.5427;
1166.4000;0.6512;0.5401;
1166.7000;0.6528;0.5401;
1167.0000;0.6553;0.5452;
1167.3000;0.6553;0.5427;
1167.6000;0.6512;0.5325;
1167.9000;0.6528;0.5325;
1168.2000;0.6536;0.5350;
1168.5000;0.6528;0.5350;
1168.8000;0.6512;0.5248;
1169.1000;0.6463;0.5045;
1169.4000;0.6520;0.5197;
1169.7000;0.6512;0.5274;
1170.0000;0.6504;0.5248;
1170.3000;0.6512;0.5299;
1170.6000;0.6504;0.5274;
1170.9000;0.6520;0.5325;
1171.2000;0.6520;0.5274;
1171.5000;0.6512;0.5223;
1171.8000;0.6536;0.5325;
1172.1000;0.6536;0.5325;
1172.4000;0.6553;0.5299;
1172.7000;0.6528;0.5223;
1173.0000;0.6528;0.5223;
1173.3000;0.6504;0.5248;
1173.6000;0.6528;0.5274;
1173.9000;0.6520;0.5248;
1174.2000;0.6512;0.5223;
1174.5000;0.6545;0.5299;
1174.8000;0.6545;0.5325;
1175.1000;0.6512;0.5299;
1175.4000;0.6479;0.5248;
1175.7000;0.6512;0.5350;
1176.0000;0.6520;0.5452;
1176.3000;0.6504;0.5401;
1176.6000;0.6496;0.5376;
1176.9000;0.6545;0.5452;
1177.2000;0.6528;0.5452;
1177.5000;0.6577;0.5580;
1177.8000;0.6520;0.5427;
1178.1000;0.6545;0.5554;
1178.4000;0.6536;0.5529;
1178.7000;0.6528;0.5580;
1179.0000;0.6520;0.5503;
1179.3000;0.6528;0.5478;
1179.6000;0.6504;0.5350;
1179.9000;0.6528;0.5401;
1180.2000;0.6504;0.5325;
1180.5000;0.6520;0.5350;
1180.8000;0.6528;0.5427;
1181.1000;0.6504;0.5401;
1181.4000;0.6520;0.5427;
1181.7000;0.6520;0.5427;
1182.0000;0.6536;0.5452;
1182.3000;0.6561;0.5452;
1182.6000;0.6512;0.5478;
1182.9000;0.6520;0.5529;
1183.2000;0.6520;0.5554;
1183.5000;0.6504;0.5452;
1183.8000;0.6528;0.5478;
1184.1000;0.6536;0.5478;
1184.4000;0.6496;0.5248;
1184.7000;0.6512;0.5376;
1185.0000;0.6504;0.5452;
1185.3000;0.6520;0.5605;
1185.6000;0.6520;0.5580;
1185.9000;0.6536;0.5631;
1186.2000;0.6504;0.5605;
1186.5000;0.6520;0.5580;
1186.8000;0.6520;0.5529;
1187.1000;0.6585;0.5682;
1187.4000;0.6528;0.5529;
1187.7000;0.6520;0.5452;
1188.0000;0.6504;0.5554;
1188.3000;0.6520;0.5631;
1188.6000;0.6504;0.5605;
1188.9000;0.6520;0.5605;
1189.2000;0.6512;0.5580;
1189.5000;0.6512;0.5554;
1189.8000;0.6496;0.5580;
1190.1000;0.6504;0.5529;
1190.4000;0.6496;0.5554;
1190.7000;0.6496;0.5529;
1191.0000;0.6536;0.5631;
1191.3000;0.6520;0.5580;
1191.6000;0.6545;0.5580;
1191.9000;0.6512;0.5452;
1192.2000;0.6512;0.5503;
1192.5000;0.6520;0.5580;
1192.8000;0.6520;0.5554;
1193.1000;0.6471;0.5452;
1193.4000;0.6520;0.5554;
1193.7000;0.6528;0.5580;
1194.0000;0.6504;0.5503;
1194.3000;0.6455;0.5325;
1194.6000;0.6496;0.5452;
1194.9000;0.6512;0.5452;
1195.2000;0.6479;0.5299;
1195.5000;0.6496;0.5376;
1195.8000;0.6504;0.5427;
1196.1000;0.6520;0.5478;
1196.4000;0.6561;0.5580;
1196.7000;0.6512;0.5503;
1197.0000;0.6520;0.5478;
1197.3000;0.6536;0.5605;
1197.6000;0.6504;0.5503;
1197.9000;0.6512;0.5376;
1198.2000;0.6496;0.5376;
1198.5000;0.6528;0.5427;
1198.8000;0.6512;0.5401;
1199.1000;0.6536;0.5452;
1199.4000;0.6488;0.5350;
1199.7000;0.6504;0.5274;
1200.0000;0.6512;0.5325;
1200.3000;0.6463;0.5274;
1200.6000;0.6479;0.5401;
1200.9000;0.6488;0.5452;
1201.2000;0.6447;0.5427;
1201.5000;0.6496;0.5503;
1201.8000;0.6488;0.5503;
1202.1000;0.6520;0.5452;
1202.4000;0.6520;0.5427;
1202.7000;0.6512;0.5376;
1203.0000;0.6504;0.5350;
1203.3000;0.6504;0.5325;
1203.6000;0.6496;0.5427;
1203.9000;0.6512;0.5529;
1204.2000;0.6520;0.5580;
1204.5000;0.6512;0.5452;
1204.8000;0.6488;0.5401;
1205.1000;0.6496;0.5427;
1205.4000;0.6488;0.5427;
1205.7000;0.6496;0.5376;
1206.0000;0.6496;0.5376;
1206.3000;0.6488;0.5325;
1206.6000;0.6504;0.5350;
1206.9000;0.6512;0.5350;
1207.2000;0.6504;0.5325;
1207.5000;0.6512;0.5274;
1207.8000;0.6496;0.5376;
1208.1000;0.6496;0.5401;
1208.4000;0.6504;0.5478;
1208.7000;0.6488;0.5503;
1209.0000;0.6504;0.5605;
1209.3000;0.6504;0.5656;
1209.6000;0.6447;0.5452;
1209.9000;0.6398;0.5325;
1210.2000;0.6488;0.5580;
1210.5000;0.6504;0.5554;
1210.8000;0.6496;0.5529;
1211.1000;0.6471;0.5478;
1211.4000;0.6471;0.5452;
1211.7000;0.6496;0.5427;
1212.0000;0.6496;0.5478;
1212.3000;0.6471;0.5478;
1212.6000;0.6512;0.5605;
1212.9000;0.6504;0.5554;
1213.2000;0.6488;0.5478;
1213.5000;0.6504;0.5605;
1213.8000;0.6496;0.5605;
1214.1000;0.6512;0.5580;
1214.4000;0.6512;0.5605;
1214.7000;0.6504;0.5580;
1215.0000;0.6504;0.5529;
1215.3000;0.6512;0.5478;
1215.6000;0.6463;0.5325;
1215.9000;0.6479;0.5376;
1216.2000;0.6422;0.5299;
1216.5000;0.6496;0.5478;
1216.8000;0.6496;0.5503;
1217.1000;0.6488;0.5452;
1217.4000;0.6488;0.5452;
1217.7000;0.6496;0.5427;
1218.0000;0.6471;0.5427;
1218.3000;0.6488;0.5452;
1218.6000;0.6561;0.5682;
1218.9000;0.6471;0.5427;
1219.2000;0.6488;0.5554;
1219.5000;0.6496;0.5605;
1219.8000;0.6479;0.5503;
1220.1000;0.6488;0.5478;
1220.4000;0.6479;0.5452;
1220.7000;0.6471;0.5401;
1221.0000;0.6479;0.5529;
1221.3000;0.6504;0.5529;
1221.6000;0.6479;0.5325;
1221.9000;0.6504;0.5401;
1222.2000;0.6488;0.5401;
1222.5000;0.6488;0.5427;
1222.8000;0.6496;0.5427;
1223.1000;0.6496;0.5376;
1223.4000;0.6496;0.5299;
1223.7000;0.6496;0.5350;
1224.0000;0.6488;0.5401;
1224.3000;0.6528;0.5605;
1224.6000;0.6479;0.5452;
1224.9000;0.6471;0.5376;
1225.2000;0.6488;0.5376;
1225.5000;0.6479;0.5452;
1225.8000;0.6439;0.5274;
1226.1000;0.6439;0.5299;
1226.4000;0.6463;0.5401;
1226.7000;0.6479;0.5427;
1227.0000;0.6488;0.5554;
1227.3000;0.6479;0.5554;
1227.6000;0.6488;0.5580;
1227.9000;0.6479;0.5656;
1228.2000;0.6496;0.5656;
1228.5000;0.6471;0.5554;
1228.8000;0.6479;0.5529;
1229.1000;0.6479;0.5503;
1229.4000;0.6536;0.5682;
1229.7000;0.6512;0.5554;
1230.0000;0.6479;0.5452;
1230.3000;0.6463;0.5478;
1230.6000;0.6479;0.5503;
1230.9000;0.6471;0.5503;
1231.2000;0.6488;0.5503;
1231.5000;0.6479;0.5478;
1231.8000;0.6512;0.5605;
1232.1000;0.6520;0.5656;
1232.4000;0.6496;0.5554;
1232.7000;0.6471;0.5478;
1233.0000;0.6455;0.5452;
1233.3000;0.6479;0.5580;
1233.6000;0.6488;0.5529;
1233.9000;0.6479;0.5554;
1234.2000;0.6471;0.5554;
1234.5000;0.6479;0.5580;
1234.8000;0.6455;0.5452;
1235.1000;0.6414;0.5274;
1235.4000;0.6488;0.5401;
1235.7000;0.6455;0.5376;
1236.0000;0.6488;0.5452;
1236.3000;0.6463;0.5401;
1236.6000;0.6479;0.5580;
1236.9000;0.6479;0.5529;
1237.2000;0.6504;0.5529;
1237.5000;0.6488;0.5554;
1237.8000;0.6536;0.5631;
1238.1000;0.6479;0.5478;
1238.4000;0.6488;0.5554;
1238.7000;0.6496;0.5580;
1239.0000;0.6447;0.5554;
1239.3000;0.6471;0.5580;
1239.6000;0.6431;0.5503;
1239.9000;0.6463;0.5554;
1240.2000;0.6528;0.5733;
1240.5000;0.6463;0.5656;
1240.8000;0.6479;0.5605;
1241.1000;0.6488;0.5478;
1241.4000;0.6504;0.5554;
1241.7000;0.6479;0.5529;
1242.0000;0.6471;0.5605;
1242.3000;0.6488;0.5631;
1242.6000;0.6455;0.5605;
1242.9000;0.6479;0.5682;
1243.2000;0.6479;0.5809;
1243.5000;0.6455;0.5834;
1243.8000;0.6447;0.5758;
1244.1000;0.6479;0.5860;
1244.4000;0.6463;0.5809;
1244.7000;0.6455;0.5733;
1245.0000;0.6471;0.5758;
1245.3000;0.6455;0.5707;
1245.6000;0.6488;0.5733;
1245.9000;0.6471;0.5682;
1246.2000;0.6471;0.5580;
1246.5000;0.6471;0.5529;
1246.8000;0.6471;0.5580;
1247.1000;0.6463;0.5580;
1247.4000;0.6520;0.5707;
1247.7000;0.6455;0.5503;
1248.0000;0.6471;0.5605;
1248.3000;0.6455;0.5631;
1248.6000;0.6463;0.5605;
1248.9000;0.6471;0.5631;
1249.2000;0.6471;0.5554;
1249.5000;0.6463;0.5554;
1249.8000;0.6463;0.5554;
1250.1000;0.6463;0.5554;
1250.4000;0.6455;0.5580;
1250.7000;0.6431;0.5452;
1251.0000;0.6471;0.5554;
1251.3000;0.6479;0.5605;
1251.6000;0.6471;0.5529;
1251.9000;0.6439;0.5503;
1252.2000;0.6471;0.5580;
1252.5000;0.6488;0.5605;
1252.8000;0.6496;0.5631;
1253.1000;0.6479;0.5656;
1253.4000;0.6463;0.5605;
1253.7000;0.6471;0.5707;
1254.0000;0.6471;0.5631;
1254.3000;0.6488;0.5682;
1254.6000;0.6496;0.5682;
1254.9000;0.6479;0.5605;
1255.2000;0.6471;0.5605;
1255.5000;0.6447;0.5605;
1255.8000;0.6463;0.5631;
1256.1000;0.6471;0.5605;
1256.4000;0.6463;0.5580;
1256.7000;0.6455;0.5554;
1257.0000;0.6463;0.5503;
1257.3000;0.6471;0.5580;
1257.6000;0.6479;0.5554;
1257.9000;0.6471;0.5529;
1258.2000;0.6471;0.5427;
1258.5000;0.6471;0.5350;
1258.8000;0.6471;0.5401;
1259.1000;0.6455;0.5376;
1259.4000;0.6496;0.5478;
1259.7000;0.6479;0.5529;
1260.0000;0.6422;0.5401;
1260.3000;0.6488;0.5554;
1260.6000;0.6463;0.5503;
1260.9000;0.6455;0.5401;
1261.2000;0.6504;0.5427;
1261.5000;0.6455;0.5401;
1261.8000;0.6471;0.5452;
1262.1000;0.6471;0.5503;
1262.4000;0.6455;0.5452;
1262.7000;0.6471;0.5427;
1263.0000;0.6398;0.5223;
1263.3000;0.6463;0.5478;
1263.6000;0.6455;0.5478;
1263.9000;0.6479;0.5529;
1264.2000;0.6479;0.5580;
1264.5000;0.6471;0.5580;
1264.8000;0.6463;0.5580;
1265.1000;0.6463;0.5580;
1265.4000;0.6463;0.5503;
1265.7000;0.6463;0.5529;
1266.0000;0.6447;0.5478;
1266.3000;0.6447;0.5478;
1266.6000;0.6439;0.5401;
1266.9000;0.6463;0.5452;
1267.2000;0.6439;0.5427;
1267.5000;0.6447;0.5478;
1267.8000;0.6471;0.5580;
1268.1000;0.6463;0.5554;
1268.4000;0.6471;0.5682;
1268.7000;0.6455;0.5605;
1269.0000;0.6471;0.5580;
1269.3000;0.6455;0.5478;
1269.6000;0.6439;0.5452;
1269.9000;0.6479;0.5478;
1270.2000;0.6463;0.5350;
1270.5000;0.6488;0.5376;
1270.8000;0.6463;0.5299;
1271.1000;0.6447;0.5325;
1271.4000;0.6479;0.5452;
1271.7000;0.6463;0.5478;
1272.0000;0.6447;0.5427;
1272.3000;0.6431;0.5529;
1272.6000;0.6545;0.5809;
1272.9000;0.6455;0.5554;
1273.2000;0.6455;0.5554;
1273.5000;0.6455;0.5554;
1273.8000;0.6455;0.5554;
1274.1000;0.6455;0.5554;
1274.4000;0.6455;0.5554;
1274.7000;0.6431;0.5427;
1275.0000;0.6463;0.5529;
1275.3000;0.6463;0.5478;
1275.6000;0.6520;0.5656;
1275.9000;0.6431;0.5401;
1276.2000;0.6447;0.5427;
1276.5000;0.6488;0.5401;
1276.8000;0.6455;0.5401;
1277.1000;0.6455;0.5452;
1277.4000;0.6463;0.5503;
1277.7000;0.6455;0.5401;
1278.0000;0.6471;0.5427;
1278.3000;0.6431;0.5350;
1278.6000;0.6463;0.5401;
1278.9000;0.6463;0.5427;
1279.2000;0.6463;0.5478;
1279.5000;0.6463;0.5376;
1279.8000;0.6447;0.5427;
1280.1000;0.6455;0.5401;
1280.4000;0.6447;0.5376;
1280.7000;0.6471;0.5452;
1281.0000;0.6463;0.5452;
1281.3000;0.6455;0.5427;
1281.6000;0.6463;0.5554;
1281.9000;0.6422;0.5452;
1282.2000;0.6447;0.5605;
1282.5000;0.6447;0.5631;
1282.8000;0.6447;0.5605;
1283.1000;0.6431;0.5529;
1283.4000;0.6431;0.5529;
1283.7000;0.6439;0.5580;
1284.0000;0.6463;0.5605;
1284.3000;0.6439;0.5554;
1284.6000;0.6455;0.5605;
1284.9000;0.6439;0.5580;
1285.2000;0.6431;0.5554;
1285.5000;0.6455;0.5605;
1285.8000;0.6447;0.5580;
1286.1000;0.6447;0.5605;
1286.4000;0.6431;0.5682;
1286.7000;0.6447;0.5733;
1287.0000;0.6422;0.5580;
1287.3000;0.6439;0.5682;
1287.6000;0.6431;0.5605;
1287.9000;0.6422;0.5554;
1288.2000;0.6496;0.5682;
1288.5000;0.6447;0.5401;
1288.8000;0.6463;0.5427;
1289.1000;0.6455;0.5503;
1289.4000;0.6463;0.5529;
1289.7000;0.6447;0.5503;
1290.0000;0.6447;0.5529;
1290.3000;0.6455;0.5554;
1290.6000;0.6439;0.5580;
1290.9000;0.6455;0.5631;
1291.2000;0.6463;0.5605;
1291.5000;0.6439;0.5554;
1291.8000;0.6439;0.5605;
1292.1000;0.6431;0.5605;
1292.4000;0.6431;0.5682;
1292.7000;0.6447;0.5758;
1293.0000;0.6447;0.5733;
1293.3000;0.6488;0.5860;
1293.6000;0.6439;0.5733;
1293.9000;0.6439;0.5707;
1294.2000;0.6390;0.5631;
1294.5000;0.6447;0.5707;
1294.8000;0.6439;0.5656;
1295.1000;0.6439;0.5682;
1295.4000;0.6439;0.5733;
1295.7000;0.6463;0.5631;
1296.0000;0.6447;0.5656;
1296.3000;0.6447;0.5707;
1296.6000;0.6431;0.5631;
1296.9000;0.6463;0.5707;
1297.2000;0.6447;0.5554;
1297.5000;0.6439;0.5503;
1297.8000;0.6431;0.5605;
1298.1000;0.6455;0.5656;
1298.4000;0.6471;0.5707;
1298.7000;0.6439;0.5631;
1299.0000;0.6439;0.5656;
1299.3000;0.6455;0.5733;
1299.6000;0.6439;0.5631;
1299.9000;0.6431;0.5580;
1300.2000;0.6447;0.5605;
1300.5000;0.6422;0.5580;
1300.8000;0.6471;0.5707;
1301.1000;0.6431;0.5554;
1301.4000;0.6447;0.5580;
1301.7000;0.6447;0.5580;
1302.0000;0.6471;0.5707;
1302.3000;0.6447;0.5682;
1302.6000;0.6471;0.5631;
1302.9000;0.6439;0.5580;
1303.2000;0.6422;0.5554;
1303.5000;0.6455;0.5656;
1303.8000;0.6382;0.5452;
1304.1000;0.6512;0.5834;
1304.4000;0.6447;0.5554;
1304.7000;0.6439;0.5554;
1305.0000;0.6439;0.5580;
1305.3000;0.6439;0.5554;
1305.6000;0.6422;0.5427;
1305.9000;0.6439;0.5452;
1306.2000;0.6422;0.5503;
1306.5000;0.6414;0.5529;
1306.8000;0.6439;0.5529;
1307.1000;0.6447;0.5529;
1307.4000;0.6382;0.5248;
1307.7000;0.6431;0.5350;
1308.0000;0.6431;0.5401;
1308.3000;0.6414;0.5401;
1308.6000;0.6447;0.5478;
1308.9000;0.6431;0.5427;
1309.2000;0.6390;0.5299;
1309.5000;0.6431;0.5299;
1309.8000;0.6422;0.5274;
1310.1000;0.6422;0.5325;
1310.4000;0.6504;0.5580;
1310.7000;0.6414;0.5376;
1311.0000;0.6455;0.5452;
1311.3000;0.6431;0.5350;
1311.6000;0.6439;0.5401;
1311.9000;0.6439;0.5427;
1312.2000;0.6439;0.5401;
1312.5000;0.6439;0.5427;
1312.8000;0.6439;0.5503;
1313.1000;0.6414;0.5580;
1313.4000;0.6398;0.5554;
1313.7000;0.6439;0.5605;
1314.0000;0.6398;0.5503;
1314.3000;0.6439;0.5503;
1314.6000;0.6431;0.5554;
1314.9000;0.6439;0.5656;
1315.2000;0.6479;0.5758;
1315.5000;0.6431;0.5758;
1315.8000;0.6431;0.5733;
1316.1000;0.6414;0.5733;
1316.4000;0.6349;0.5452;
1316.7000;0.6414;0.5631;
1317.0000;0.6422;0.5656;
1317.3000;0.6365;0.5452;
1317.6000;0.6431;0.5554;
1317.9000;0.6447;0.5554;
1318.2000;0.6439;0.5503;
1318.5000;0.6439;0.5452;
1318.8000;0.6431;0.5427;
1319.1000;0.6414;0.5401;
1319.4000;0.6431;0.5554;
1319.7000;0.6422;0.5580;
1320.0000;0.6431;0.5529;
1320.3000;0.6422;0.5452;
1320.6000;0.6455;0.5427;
1320.9000;0.6422;0.5376;
1321.2000;0.6431;0.5350;
1321.5000;0.6414;0.5325;
1321.8000;0.6431;0.5350;
1322.1000;0.6422;0.5274;
1322.4000;0.6447;0.5350;
1322.7000;0.6447;0.5274;
1323.0000;0.6439;0.5223;
1323.3000;0.6439;0.5376;
1323.6000;0.6496;0.5503;
1323.9000;0.6455;0.5452;
1324.2000;0.6431;0.5452;
1324.5000;0.6431;0.5376;
1324.8000;0.6463;0.5503;
1325.1000;0.6414;0.5452;
1325.4000;0.6439;0.5503;
1325.7000;0.6447;0.5580;
1326.0000;0.6439;0.5529;
1326.3000;0.6439;0.5503;
1326.6000;0.6406;0.5401;
1326.9000;0.6422;0.5452;
1327.2000;0.6414;0.5529;
1327.5000;0.6414;0.5478;
1327.8000;0.6447;0.5478;
1328.1000;0.6455;0.5580;
1328.4000;0.6414;0.5452;
1328.7000;0.6431;0.5554;
1329.0000;0.6431;0.5580;
1329.3000;0.6431;0.5605;
1329.6000;0.6422;0.5580;
1329.9000;0.6447;0.5733;
1330.2000;0.6422;0.5656;
1330.5000;0.6422;0.5656;
1330.8000;0.6422;0.5580;
1331.1000;0.6455;0.5707;
1331.4000;0.6447;0.5809;
1331.7000;0.6406;0.5682;
1332.0000;0.6390;0.5605;
1332.3000;0.6431;0.5707;
1332.6000;0.6447;0.5682;
1332.9000;0.6422;0.5733;
1333.2000;0.6374;0.5631;
1333.5000;0.6447;0.5682;
1333.8000;0.6422;0.5605;
1334.1000;0.6414;0.5682;
1334.4000;0.6382;0.5733;
1334.7000;0.6439;0.5860;
1335.0000;0.6422;0.5758;
1335.3000;0.6447;0.5733;
1335.6000;0.6431;0.5707;
1335.9000;0.6422;0.5707;
1336.2000;0.6422;0.5656;
1336.5000;0.6471;0.5809;
1336.8000;0.6431;0.5733;
1337.1000;0.6422;0.5682;
1337.4000;0.6414;0.5503;
1337.7000;0.6398;0.5554;
1338.0000;0.6398;0.5503;
1338.3000;0.6422;0.5580;
1338.6000;0.6414;0.5580;
1338.9000;0.6414;0.5580;
1339.2000;0.6422;0.5529;
1339.5000;0.6406;0.5452;
1339.8000;0.6414;0.5478;
1340.1000;0.6406;0.5478;
1340.4000;0.6431;0.5580;
1340.7000;0.6422;0.5580;
1341.0000;0.6414;0.5503;
1341.3000;0.6431;0.5452;
1341.6000;0.6406;0.5452;
1341.9000;0.6422;0.5503;
1342.2000;0.6422;0.5452;
1342.5000;0.6414;0.5427;
1342.8000;0.6414;0.5376;
1343.1000;0.6414;0.5299;
1343.4000;0.6431;0.5350;
1343.7000;0.6398;0.5325;
1344.0000;0.6422;0.5452;
1344.3000;0.6447;0.5503;
1344.6000;0.6431;0.5478;
1344.9000;0.6422;0.5350;
1345.2000;0.6414;0.5376;
1345.5000;0.6414;0.5452;
1345.8000;0.6422;0.5503;
1346.1000;0.6406;0.5503;
1346.4000;0.6406;0.5478;
1346.7000;0.6414;0.5529;
1347.0000;0.6406;0.5478;
1347.3000;0.6390;0.5478;
1347.6000;0.6390;0.5427;
1347.9000;0.6374;0.5325;
1348.2000;0.6414;0.5427;
1348.5000;0.6357;0.5299;
1348.8000;0.6406;0.5427;
1349.1000;0.6431;0.5529;
1349.4000;0.6414;0.5529;
1349.7000;0.6398;0.5580;
1350.0000;0.6406;0.5529;
1350.3000;0.6406;0.5580;
1350.6000;0.6431;0.5707;
1350.9000;0.6365;0.5554;
1351.2000;0.6406;0.5605;
1351.5000;0.6414;0.5605;
1351.8000;0.6414;0.5605;
1352.1000;0.6414;0.5605;
1352.4000;0.6374;0.5452;
1352.7000;0.6398;0.5503;
1353.0000;0.6422;0.5529;
1353.3000;0.6414;0.5580;
1353.6000;0.6398;0.5529;
1353.9000;0.6398;0.5529;
1354.2000;0.6422;0.5554;
1354.5000;0.6406;0.5580;
1354.8000;0.6422;0.5631;
1355.1000;0.6382;0.5580;
1355.4000;0.6406;0.5656;
1355.7000;0.6422;0.5631;
1356.0000;0.6398;0.5503;
1356.3000;0.6414;0.5478;
1356.6000;0.6414;0.5503;
1356.9000;0.6422;0.5554;
1357.2000;0.6447;0.5631;
1357.5000;0.6406;0.5554;
1357.8000;0.6390;0.5529;
1358.1000;0.6406;0.5529;
1358.4000;0.6422;0.5554;
1358.7000;0.6406;0.5452;
1359.0000;0.6398;0.5401;
1359.3000;0.6398;0.5427;
1359.6000;0.6398;0.5478;
1359.9000;0.6406;0.5503;
1360.2000;0.6398;0.5503;
1360.5000;0.6398;0.5427;
1360.8000;0.6431;0.5427;
1361.1000;0.6414;0.5401;
1361.4000;0.6398;0.5376;
1361.7000;0.6406;0.5299;
1362.0000;0.6422;0.5452;
1362.3000;0.6398;0.5478;
1362.6000;0.6414;0.5529;
1362.9000;0.6390;0.5503;
1363.2000;0.6422;0.5580;
1363.5000;0.6398;0.5580;
1363.8000;0.6414;0.5656;
1364.1000;0.6390;0.5631;
1364.4000;0.6414;0.5758;
1364.7000;0.6390;0.5733;
1365.0000;0.6414;0.5707;
1365.3000;0.6382;0.5554;
1365.6000;0.6398;0.5554;
1365.9000;0.6390;0.5452;
1366.2000;0.6390;0.5529;
1366.5000;0.6479;0.5860;
1366.8000;0.6398;0.5580;
1367.1000;0.6406;0.5605;
1367.4000;0.6431;0.5605;
1367.7000;0.6398;0.5580;
1368.0000;0.6390;0.5605;
1368.3000;0.6398;0.5605;
1368.6000;0.6398;0.5580;
1368.9000;0.6414;0.5554;
1369.2000;0.6398;0.5452;
1369.5000;0.6374;0.5376;
1369.8000;0.6431;0.5554;
1370.1000;0.6398;0.5580;
1370.4000;0.6390;0.5682;
1370.7000;0.6398;0.5682;
1371.0000;0.6398;0.5656;
1371.3000;0.6406;0.5707;
1371.6000;0.6341;0.5605;
1371.9000;0.6398;0.5605;
1372.2000;0.6406;0.5682;
1372.5000;0.6357;0.5580;
1372.8000;0.6390;0.5580;
1373.1000;0.6406;0.5631;
1373.4000;0.6398;0.5707;
1373.7000;0.6398;0.5682;
1374.0000;0.6398;0.5656;
1374.3000;0.6398;0.5605;
1374.6000;0.6398;0.5554;
1374.9000;0.6365;0.5554;
1375.2000;0.6382;0.5605;
1375.5000;0.6382;0.5580;
1375.8000;0.6390;0.5580;
1376.1000;0.6398;0.5605;
1376.4000;0.6398;0.5631;
1376.7000;0.6398;0.5554;
1377.0000;0.6406;0.5529;
1377.3000;0.6439;0.5580;
1377.6000;0.6349;0.5299;
1377.9000;0.6406;0.5452;
1378.2000;0.6398;0.5478;
1378.5000;0.6390;0.5452;
1378.8000;0.6398;0.5427;
1379.1000;0.6390;0.5427;
1379.4000;0.6422;0.5631;
1379.7000;0.6333;0.5478;
1380.0000;0.6406;0.5580;
1380.3000;0.6406;0.5452;
1380.6000;0.6357;0.5274;
1380.9000;0.6390;0.5350;
1381.2000;0.6398;0.5350;
1381.5000;0.6398;0.5401;
1381.8000;0.6390;0.5427;
1382.1000;0.6398;0.5452;
1382.4000;0.6390;0.5529;
1382.7000;0.6398;0.5529;
1383.0000;0.6382;0.5401;
1383.3000;0.6382;0.5427;
1383.6000;0.6439;0.5605;
1383.9000;0.6398;0.5529;
1384.2000;0.6447;0.5656;
1384.5000;0.6390;0.5529;
1384.8000;0.6406;0.5554;
1385.1000;0.6398;0.5554;
1385.4000;0.6390;0.5503;
1385.7000;0.6398;0.5529;
1386.0000;0.6422;0.5580;
1386.3000;0.6406;0.5580;
1386.6000;0.6374;0.5503;
1386.9000;0.6406;0.5656;
1387.2000;0.6422;0.5656;
1387.5000;0.6463;0.5707;
1387.8000;0.6406;0.5580;
1388.1000;0.6390;0.5554;
1388.4000;0.6398;0.5554;
1388.7000;0.6398;0.5605;
1389.0000;0.6398;0.5605;
1389.3000;0.6349;0.5554;
1389.6000;0.6398;0.5707;
1389.9000;0.6382;0.5631;
1390.2000;0.6390;0.5707;
1390.5000;0.6382;0.5631;
1390.8000;0.6374;0.5580;
1391.1000;0.6390;0.5529;
1391.4000;0.6382;0.5529;
1391.7000;0.6431;0.5605;
1392.0000;0.6406;0.5631;
1392.3000;0.6349;0.5529;
1392.6000;0.6398;0.5580;
1392.9000;0.6390;0.5554;
1393.2000;0.6333;0.5325;
1393.5000;0.6431;0.5605;
1393.8000;0.6374;0.5580;
1394.1000;0.6390;0.5656;
1394.4000;0.6398;0.5733;
1394.7000;0.6382;0.5682;
1395.0000;0.6382;0.5656;
1395.3000;0.6398;0.5707;
1395.6000;0.6382;0.5605;
1395.9000;0.6382;0.5554;
1396.2000;0.6382;0.5478;
1396.5000;0.6349;0.5427;
1396.8000;0.6382;0.5478;
1397.1000;0.6382;0.5503;
1397.4000;0.6357;0.5478;
1397.7000;0.6390;0.5478;
1398.0000;0.6398;0.5580;
1398.3000;0.6374;0.5452;
1398.6000;0.6374;0.5503;
1398.9000;0.6390;0.5529;
1399.2000;0.6398;0.5580;
1399.5000;0.6382;0.5605;
1399.8000;0.6390;0.5656;
