time/ms;Fluo/V;P700 deltaI/I x10³;
-199.8000;0.6805;0.5733;
-199.5000;0.6805;0.5783;
-199.2000;0.6756;0.5580;
-198.9000;0.6756;0.5605;
-198.6000;0.6789;0.5733;
-198.3000;0.6756;0.5682;
-198.0000;0.6764;0.5707;
-197.7000;0.6748;0.5478;
-197.4000;0.6756;0.5427;
-197.1000;0.6772;0.5427;
-196.8000;0.6748;0.5401;
-196.5000;0.6756;0.5452;
-196.2000;0.6781;0.5503;
-195.9000;0.6748;0.5478;
-195.6000;0.6740;0.5452;
-195.3000;0.6772;0.5478;
-195.0000;0.6789;0.5529;
-194.7000;0.6772;0.5554;
-194.4000;0.6748;0.5554;
-194.1000;0.6756;0.5580;
-193.8000;0.6764;0.5554;
-193.5000;0.6748;0.5554;
-193.2000;0.6772;0.5580;
-192.9000;0.6740;0.5580;
-192.6000;0.6772;0.5656;
-192.3000;0.6772;0.5656;
-192.0000;0.6756;0.5707;
-191.7000;0.6756;0.5707;
-191.4000;0.6772;0.5605;
-191.1000;0.6797;0.5656;
-190.8000;0.6764;0.5758;
-190.5000;0.6764;0.5758;
-190.2000;0.6764;0.5733;
-189.9000;0.6756;0.5758;
-189.6000;0.6772;0.5809;
-189.3000;0.6707;0.5707;
-189.0000;0.6772;0.5834;
-188.7000;0.6756;0.5809;
-188.4000;0.6740;0.5758;
-188.1000;0.6748;0.5733;
-187.8000;0.6756;0.5656;
-187.5000;0.6748;0.5707;
-187.2000;0.6781;0.5707;
-186.9000;0.6756;0.5682;
-186.6000;0.6716;0.5529;
-186.3000;0.6756;0.5707;
-186.0000;0.6748;0.5733;
-185.7000;0.6764;0.5733;
-185.4000;0.6732;0.5682;
-185.1000;0.6764;0.5656;
-184.8000;0.6764;0.5656;
-184.5000;0.6829;0.5783;
-184.2000;0.6756;0.5631;
-183.9000;0.6756;0.5733;
-183.6000;0.6756;0.5809;
-183.3000;0.6756;0.5758;
-183.0000;0.6756;0.5758;
-182.7000;0.6756;0.5733;
-182.4000;0.6764;0.5733;
-182.1000;0.6764;0.5783;
-181.8000;0.6748;0.5860;
-181.5000;0.6756;0.5834;
-181.2000;0.6748;0.5758;
-180.9000;0.6772;0.5783;
-180.6000;0.6764;0.5783;
-180.3000;0.6699;0.5605;
-180.0000;0.6756;0.5707;
-179.7000;0.6797;0.5809;
-179.4000;0.6764;0.5783;
-179.1000;0.6805;0.5860;
-178.8000;0.6764;0.5834;
-178.5000;0.6772;0.5783;
-178.2000;0.6756;0.5758;
-177.9000;0.6764;0.5758;
-177.6000;0.6732;0.5707;
-177.3000;0.6772;0.5783;
-177.0000;0.6764;0.5580;
-176.7000;0.6707;0.5401;
-176.4000;0.6797;0.5580;
-176.1000;0.6789;0.5580;
-175.8000;0.6756;0.5656;
-175.5000;0.6772;0.5682;
-175.2000;0.6756;0.5682;
-174.9000;0.6724;0.5580;
-174.6000;0.6781;0.5682;
-174.3000;0.6781;0.5580;
-174.0000;0.6764;0.5605;
-173.7000;0.6764;0.5682;
-173.4000;0.6846;0.5860;
-173.1000;0.6756;0.5682;
-172.8000;0.6805;0.5707;
-172.5000;0.6772;0.5554;
-172.2000;0.6748;0.5529;
-171.9000;0.6781;0.5503;
-171.6000;0.6772;0.5452;
-171.3000;0.6756;0.5452;
-171.0000;0.6764;0.5478;
-170.7000;0.6756;0.5554;
-170.4000;0.6772;0.5605;
-170.1000;0.6740;0.5580;
-169.8000;0.6764;0.5631;
-169.5000;0.6756;0.5605;
-169.2000;0.6756;0.5656;
-168.9000;0.6764;0.5682;
-168.6000;0.6764;0.5707;
-168.3000;0.6772;0.5733;
-168.0000;0.6756;0.5605;
-167.7000;0.6772;0.5631;
-167.4000;0.6781;0.5580;
-167.1000;0.6772;0.5529;
-166.8000;0.6691;0.5223;
-166.5000;0.6740;0.5401;
-166.2000;0.6764;0.5503;
-165.9000;0.6756;0.5529;
-165.6000;0.6781;0.5605;
-165.3000;0.6781;0.5605;
-165.0000;0.6772;0.5631;
-164.7000;0.6789;0.5682;
-164.4000;0.6772;0.5605;
-164.1000;0.6756;0.5631;
-163.8000;0.6764;0.5758;
-163.5000;0.6764;0.5631;
-163.2000;0.6797;0.5631;
-162.9000;0.6756;0.5580;
-162.6000;0.6772;0.5580;
-162.3000;0.6805;0.5631;
-162.0000;0.6756;0.5503;
-161.7000;0.6764;0.5503;
-161.4000;0.6756;0.5529;
-161.1000;0.6756;0.5580;
-160.8000;0.6764;0.5605;
-160.5000;0.6740;0.5656;
-160.2000;0.6748;0.5682;
-159.9000;0.6748;0.5682;
-159.6000;0.6772;0.5733;
-159.3000;0.6764;0.5783;
-159.0000;0.6764;0.5885;
-158.7000;0.6764;0.5885;
-158.4000;0.6764;0.5834;
-158.1000;0.6764;0.5885;
-157.8000;0.6772;0.5885;
-157.5000;0.6756;0.5809;
-157.2000;0.6756;0.5834;
-156.9000;0.6772;0.5834;
-156.6000;0.6764;0.5834;
-156.3000;0.6772;0.5758;
-156.0000;0.6756;0.5707;
-155.7000;0.6772;0.5809;
-155.4000;0.6764;0.5809;
-155.1000;0.6789;0.5783;
-154.8000;0.6772;0.5733;
-154.5000;0.6781;0.5809;
-154.2000;0.6781;0.5783;
-153.9000;0.6789;0.5783;
-153.6000;0.6772;0.5758;
-153.3000;0.6772;0.5783;
-153.0000;0.6789;0.5809;
-152.7000;0.6772;0.5783;
-152.4000;0.6772;0.5860;
-152.1000;0.6764;0.5758;
-151.8000;0.6781;0.5783;
-151.5000;0.6756;0.5733;
-151.2000;0.6756;0.5682;
-150.9000;0.6756;0.5783;
-150.6000;0.6772;0.5758;
-150.3000;0.6764;0.5733;
-150.0000;0.6789;0.5783;
-149.7000;0.6716;0.5605;
-149.4000;0.6805;0.5860;
-149.1000;0.6772;0.5783;
-148.8000;0.6764;0.5733;
-148.5000;0.6781;0.5809;
-148.2000;0.6789;0.5834;
-147.9000;0.6772;0.5860;
-147.6000;0.6781;0.5758;
-147.3000;0.6813;0.5860;
-147.0000;0.6756;0.5707;
-146.7000;0.6764;0.5758;
-146.4000;0.6756;0.5707;
-146.1000;0.6756;0.5656;
-145.8000;0.6764;0.5631;
-145.5000;0.6772;0.5554;
-145.2000;0.6772;0.5605;
-144.9000;0.6764;0.5580;
-144.6000;0.6781;0.5682;
-144.3000;0.6772;0.5605;
-144.0000;0.6764;0.5605;
-143.7000;0.6789;0.5682;
-143.4000;0.6772;0.5605;
-143.1000;0.6797;0.5682;
-142.8000;0.6781;0.5707;
-142.5000;0.6756;0.5707;
-142.2000;0.6756;0.5707;
-141.9000;0.6789;0.5834;
-141.6000;0.6838;0.5936;
-141.3000;0.6789;0.5834;
-141.0000;0.6781;0.5936;
-140.7000;0.6748;0.5834;
-140.4000;0.6789;0.5962;
-140.1000;0.6813;0.5936;
-139.8000;0.6772;0.5911;
-139.5000;0.6683;0.5758;
-139.2000;0.6772;0.6064;
-138.9000;0.6772;0.6038;
-138.6000;0.6781;0.6038;
-138.3000;0.6781;0.5962;
-138.0000;0.6805;0.5885;
-137.7000;0.6781;0.5682;
-137.4000;0.6764;0.5631;
-137.1000;0.6781;0.5656;
-136.8000;0.6740;0.5580;
-136.5000;0.6756;0.5656;
-136.2000;0.6764;0.5707;
-135.9000;0.6756;0.5682;
-135.6000;0.6756;0.5631;
-135.3000;0.6764;0.5631;
-135.0000;0.6756;0.5733;
-134.7000;0.6764;0.5707;
-134.4000;0.6740;0.5605;
-134.1000;0.6781;0.5809;
-133.8000;0.6764;0.5758;
-133.5000;0.6764;0.5758;
-133.2000;0.6764;0.5733;
-132.9000;0.6732;0.5707;
-132.6000;0.6781;0.5733;
-132.3000;0.6772;0.5758;
-132.0000;0.6829;0.5962;
-131.7000;0.6781;0.5809;
-131.4000;0.6805;0.5809;
-131.1000;0.6789;0.5733;
-130.8000;0.6707;0.5554;
-130.5000;0.6805;0.5885;
-130.2000;0.6756;0.5758;
-129.9000;0.6781;0.5783;
-129.6000;0.6772;0.5733;
-129.3000;0.6764;0.5758;
-129.0000;0.6772;0.5783;
-128.7000;0.6781;0.5834;
-128.4000;0.6772;0.5860;
-128.1000;0.6756;0.5758;
-127.8000;0.6740;0.5707;
-127.5000;0.6707;0.5631;
-127.2000;0.6764;0.5809;
-126.9000;0.6756;0.5733;
-126.6000;0.6764;0.5707;
-126.3000;0.6772;0.5834;
-126.0000;0.6789;0.5911;
-125.7000;0.6797;0.5936;
-125.4000;0.6772;0.5885;
-125.1000;0.6756;0.5860;
-124.8000;0.6748;0.5834;
-124.5000;0.6756;0.5783;
-124.2000;0.6756;0.5809;
-123.9000;0.6756;0.5834;
-123.6000;0.6781;0.5809;
-123.3000;0.6772;0.5605;
-123.0000;0.6764;0.5554;
-122.7000;0.6764;0.5554;
-122.4000;0.6772;0.5478;
-122.1000;0.6781;0.5503;
-121.8000;0.6764;0.5580;
-121.5000;0.6772;0.5554;
-121.2000;0.6764;0.5503;
-120.9000;0.6789;0.5529;
-120.6000;0.6756;0.5503;
-120.3000;0.6772;0.5631;
-120.0000;0.6781;0.5656;
-119.7000;0.6756;0.5605;
-119.4000;0.6772;0.5783;
-119.1000;0.6789;0.5936;
-118.8000;0.6764;0.5809;
-118.5000;0.6740;0.5707;
-118.2000;0.6764;0.5758;
-117.9000;0.6772;0.5758;
-117.6000;0.6732;0.5554;
-117.3000;0.6772;0.5758;
-117.0000;0.6781;0.5783;
-116.7000;0.6772;0.5783;
-116.4000;0.6716;0.5656;
-116.1000;0.6764;0.5809;
-115.8000;0.6789;0.5834;
-115.5000;0.6764;0.5783;
-115.2000;0.6756;0.5783;
-114.9000;0.6756;0.5758;
-114.6000;0.6764;0.5783;
-114.3000;0.6756;0.5783;
-114.0000;0.6764;0.5758;
-113.7000;0.6764;0.5758;
-113.4000;0.6772;0.5783;
-113.1000;0.6764;0.5783;
-112.8000;0.6781;0.5834;
-112.5000;0.6772;0.5758;
-112.2000;0.6772;0.5758;
-111.9000;0.6772;0.5682;
-111.6000;0.6756;0.5656;
-111.3000;0.6756;0.5783;
-111.0000;0.6716;0.5605;
-110.7000;0.6781;0.5580;
-110.4000;0.6740;0.5529;
-110.1000;0.6675;0.5350;
-109.8000;0.6756;0.5554;
-109.5000;0.6764;0.5580;
-109.2000;0.6756;0.5580;
-108.9000;0.6748;0.5554;
-108.6000;0.6781;0.5656;
-108.3000;0.6772;0.5529;
-108.0000;0.6781;0.5529;
-107.7000;0.6772;0.5580;
-107.4000;0.6797;0.5631;
-107.1000;0.6772;0.5631;
-106.8000;0.6772;0.5682;
-106.5000;0.6772;0.5605;
-106.2000;0.6756;0.5554;
-105.9000;0.6699;0.5452;
-105.6000;0.6781;0.5707;
-105.3000;0.6772;0.5605;
-105.0000;0.6772;0.5605;
-104.7000;0.6789;0.5707;
-104.4000;0.6821;0.5783;
-104.1000;0.6772;0.5631;
-103.8000;0.6772;0.5682;
-103.5000;0.6756;0.5605;
-103.2000;0.6707;0.5401;
-102.9000;0.6772;0.5605;
-102.6000;0.6756;0.5580;
-102.3000;0.6789;0.5631;
-102.0000;0.6772;0.5605;
-101.7000;0.6854;0.5809;
-101.4000;0.6740;0.5478;
-101.1000;0.6740;0.5503;
-100.8000;0.6781;0.5554;
-100.5000;0.6772;0.5580;
-100.2000;0.6789;0.5707;
-99.9000;0.6789;0.5707;
-99.6000;0.6781;0.5733;
-99.3000;0.6772;0.5733;
-99.0000;0.6764;0.5656;
-98.7000;0.6789;0.5733;
-98.4000;0.6805;0.5758;
-98.1000;0.6756;0.5656;
-97.8000;0.6789;0.5733;
-97.5000;0.6781;0.5682;
-97.2000;0.6789;0.5758;
-96.9000;0.6797;0.5758;
-96.6000;0.6781;0.5682;
-96.3000;0.6748;0.5554;
-96.0000;0.6772;0.5554;
-95.7000;0.6772;0.5656;
-95.4000;0.6789;0.5682;
-95.1000;0.6772;0.5733;
-94.8000;0.6781;0.5758;
-94.5000;0.6789;0.5809;
-94.2000;0.6764;0.5758;
-93.9000;0.6772;0.5682;
-93.6000;0.6805;0.5605;
-93.3000;0.6756;0.5503;
-93.0000;0.6781;0.5554;
-92.7000;0.6781;0.5503;
-92.4000;0.6764;0.5554;
-92.1000;0.6781;0.5631;
-91.8000;0.6781;0.5682;
-91.5000;0.6764;0.5656;
-91.2000;0.6797;0.5631;
-90.9000;0.6772;0.5554;
-90.6000;0.6748;0.5452;
-90.3000;0.6789;0.5605;
-90.0000;0.6748;0.5452;
-89.7000;0.6789;0.5503;
-89.4000;0.6781;0.5554;
-89.1000;0.6772;0.5631;
-88.8000;0.6732;0.5580;
-88.5000;0.6756;0.5707;
-88.2000;0.6764;0.5682;
-87.9000;0.6756;0.5605;
-87.6000;0.6764;0.5656;
-87.3000;0.6756;0.5580;
-87.0000;0.6797;0.5682;
-86.7000;0.6756;0.5554;
-86.4000;0.6781;0.5682;
-86.1000;0.6756;0.5631;
-85.8000;0.6789;0.5707;
-85.5000;0.6789;0.5682;
-85.2000;0.6781;0.5631;
-84.9000;0.6772;0.5707;
-84.6000;0.6781;0.5656;
-84.3000;0.6789;0.5656;
-84.0000;0.6772;0.5707;
-83.7000;0.6707;0.5605;
-83.4000;0.6740;0.5758;
-83.1000;0.6772;0.5834;
-82.8000;0.6781;0.5834;
-82.5000;0.6772;0.5834;
-82.2000;0.6764;0.5783;
-81.9000;0.6781;0.5834;
-81.6000;0.6781;0.5733;
-81.3000;0.6772;0.5631;
-81.0000;0.6772;0.5605;
-80.7000;0.6772;0.5605;
-80.4000;0.6772;0.5631;
-80.1000;0.6764;0.5580;
-79.8000;0.6764;0.5554;
-79.5000;0.6772;0.5554;
-79.2000;0.6772;0.5580;
-78.9000;0.6772;0.5631;
-78.6000;0.6772;0.5554;
-78.3000;0.6772;0.5529;
-78.0000;0.6781;0.5580;
-77.7000;0.6781;0.5554;
-77.4000;0.6829;0.5682;
-77.1000;0.6740;0.5554;
-76.8000;0.6781;0.5631;
-76.5000;0.6781;0.5707;
-76.2000;0.6772;0.5707;
-75.9000;0.6764;0.5707;
-75.6000;0.6764;0.5656;
-75.3000;0.6781;0.5631;
-75.0000;0.6772;0.5631;
-74.7000;0.6764;0.5605;
-74.4000;0.6772;0.5682;
-74.1000;0.6781;0.5783;
-73.8000;0.6772;0.5783;
-73.5000;0.6756;0.5707;
-73.2000;0.6781;0.5758;
-72.9000;0.6789;0.5707;
-72.6000;0.6781;0.5733;
-72.3000;0.6781;0.5707;
-72.0000;0.6781;0.5656;
-71.7000;0.6781;0.5554;
-71.4000;0.6781;0.5580;
-71.1000;0.6772;0.5554;
-70.8000;0.6748;0.5503;
-70.5000;0.6789;0.5605;
-70.2000;0.6781;0.5631;
-69.9000;0.6789;0.5682;
-69.6000;0.6740;0.5554;
-69.3000;0.6781;0.5631;
-69.0000;0.6764;0.5580;
-68.7000;0.6789;0.5631;
-68.4000;0.6756;0.5605;
-68.1000;0.6772;0.5580;
-67.8000;0.6797;0.5605;
-67.5000;0.6772;0.5529;
-67.2000;0.6764;0.5554;
-66.9000;0.6683;0.5376;
-66.6000;0.6781;0.5580;
-66.3000;0.6764;0.5631;
-66.0000;0.6781;0.5758;
-65.7000;0.6789;0.5783;
-65.4000;0.6756;0.5682;
-65.1000;0.6781;0.5733;
-64.8000;0.6781;0.5758;
-64.5000;0.6756;0.5707;
-64.2000;0.6772;0.5758;
-63.9000;0.6764;0.5580;
-63.6000;0.6764;0.5656;
-63.3000;0.6764;0.5656;
-63.0000;0.6748;0.5682;
-62.7000;0.6789;0.5707;
-62.4000;0.6797;0.5758;
-62.1000;0.6772;0.5809;
-61.8000;0.6805;0.5911;
-61.5000;0.6781;0.5885;
-61.2000;0.6789;0.5911;
-60.9000;0.6789;0.5885;
-60.6000;0.6716;0.5783;
-60.3000;0.6781;0.5911;
-60.0000;0.6789;0.5885;
-59.7000;0.6699;0.5631;
-59.4000;0.6764;0.5783;
-59.1000;0.6764;0.5707;
-58.8000;0.6756;0.5631;
-58.5000;0.6772;0.5605;
-58.2000;0.6781;0.5631;
-57.9000;0.6772;0.5554;
-57.6000;0.6748;0.5503;
-57.3000;0.6797;0.5656;
-57.0000;0.6829;0.5733;
-56.7000;0.6781;0.5605;
-56.4000;0.6805;0.5707;
-56.1000;0.6781;0.5733;
-55.8000;0.6772;0.5733;
-55.5000;0.6756;0.5682;
-55.2000;0.6764;0.5682;
-54.9000;0.6748;0.5707;
-54.6000;0.6781;0.5733;
-54.3000;0.6756;0.5682;
-54.0000;0.6772;0.5758;
-53.7000;0.6772;0.5783;
-53.4000;0.6805;0.5860;
-53.1000;0.6781;0.5834;
-52.8000;0.6781;0.5783;
-52.5000;0.6797;0.5860;
-52.2000;0.6789;0.5962;
-51.9000;0.6789;0.5987;
-51.6000;0.6781;0.5962;
-51.3000;0.6781;0.5936;
-51.0000;0.6789;0.5860;
-50.7000;0.6740;0.5758;
-50.4000;0.6781;0.5834;
-50.1000;0.6813;0.5911;
-49.8000;0.6772;0.5783;
-49.5000;0.6748;0.5733;
-49.2000;0.6772;0.5809;
-48.9000;0.6764;0.5733;
-48.6000;0.6732;0.5605;
-48.3000;0.6764;0.5707;
-48.0000;0.6789;0.5809;
-47.7000;0.6756;0.5707;
-47.4000;0.6764;0.5707;
-47.1000;0.6764;0.5733;
-46.8000;0.6772;0.5707;
-46.5000;0.6764;0.5529;
-46.2000;0.6789;0.5580;
-45.9000;0.6772;0.5580;
-45.6000;0.6789;0.5580;
-45.3000;0.6764;0.5452;
-45.0000;0.6756;0.5503;
-44.7000;0.6789;0.5580;
-44.4000;0.6797;0.5656;
-44.1000;0.6781;0.5529;
-43.8000;0.6756;0.5452;
-43.5000;0.6781;0.5529;
-43.2000;0.6756;0.5529;
-42.9000;0.6772;0.5529;
-42.6000;0.6781;0.5580;
-42.3000;0.6756;0.5580;
-42.0000;0.6797;0.5529;
-41.7000;0.6797;0.5529;
-41.4000;0.6797;0.5554;
-41.1000;0.6797;0.5656;
-40.8000;0.6797;0.5707;
-40.5000;0.6772;0.5554;
-40.2000;0.6789;0.5631;
-39.9000;0.6772;0.5656;
-39.6000;0.6789;0.5707;
-39.3000;0.6772;0.5605;
-39.0000;0.6838;0.5682;
-38.7000;0.6781;0.5554;
-38.4000;0.6756;0.5503;
-38.1000;0.6789;0.5707;
-37.8000;0.6772;0.5707;
-37.5000;0.6854;0.5936;
-37.2000;0.6781;0.5707;
-36.9000;0.6789;0.5605;
-36.6000;0.6772;0.5605;
-36.3000;0.6764;0.5580;
-36.0000;0.6789;0.5503;
-35.7000;0.6789;0.5452;
-35.4000;0.6764;0.5401;
-35.1000;0.6781;0.5427;
-34.8000;0.6772;0.5503;
-34.5000;0.6789;0.5580;
-34.2000;0.6781;0.5554;
-33.9000;0.6772;0.5554;
-33.6000;0.6772;0.5605;
-33.3000;0.6789;0.5605;
-33.0000;0.6772;0.5529;
-32.7000;0.6781;0.5605;
-32.4000;0.6789;0.5631;
-32.1000;0.6772;0.5554;
-31.8000;0.6781;0.5554;
-31.5000;0.6748;0.5503;
-31.2000;0.6764;0.5580;
-30.9000;0.6838;0.5834;
-30.6000;0.6781;0.5529;
-30.3000;0.6772;0.5554;
-30.0000;0.6789;0.5529;
-29.7000;0.6781;0.5580;
-29.4000;0.6772;0.5478;
-29.1000;0.6797;0.5580;
-28.8000;0.6764;0.5478;
-28.5000;0.6781;0.5427;
-28.2000;0.6813;0.5503;
-27.9000;0.6781;0.5350;
-27.6000;0.6781;0.5325;
-27.3000;0.6772;0.5376;
-27.0000;0.6797;0.5529;
-26.7000;0.6797;0.5605;
-26.4000;0.6781;0.5580;
-26.1000;0.6772;0.5682;
-25.8000;0.6781;0.5682;
-25.5000;0.6781;0.5631;
-25.2000;0.6846;0.5707;
-24.9000;0.6772;0.5580;
-24.6000;0.6805;0.5656;
-24.3000;0.6772;0.5707;
-24.0000;0.6772;0.5631;
-23.7000;0.6781;0.5580;
-23.4000;0.6772;0.5529;
-23.1000;0.6805;0.5631;
-22.8000;0.6772;0.5631;
-22.5000;0.6772;0.5580;
-22.2000;0.6764;0.5631;
-21.9000;0.6789;0.5656;
-21.6000;0.6772;0.5580;
-21.3000;0.6772;0.5682;
-21.0000;0.6781;0.5707;
-20.7000;0.6789;0.5783;
-20.4000;0.6781;0.5733;
-20.1000;0.6781;0.5707;
-19.8000;0.6781;0.5656;
-19.5000;0.6797;0.5605;
-19.2000;0.6829;0.5758;
-18.9000;0.6789;0.5605;
-18.6000;0.6829;0.5758;
-18.3000;0.6781;0.5631;
-18.0000;0.6789;0.5605;
-17.7000;0.6764;0.5554;
-17.4000;0.6772;0.5605;
-17.1000;0.6789;0.5529;
-16.8000;0.6764;0.5605;
-16.5000;0.6789;0.5707;
-16.2000;0.6764;0.5605;
-15.9000;0.6805;0.5656;
-15.6000;0.6789;0.5682;
-15.3000;0.6829;0.5733;
-15.0000;0.6789;0.5631;
-14.7000;0.6797;0.5758;
-14.4000;0.6772;0.5809;
-14.1000;0.6797;0.5758;
-13.8000;0.6748;0.5580;
-13.5000;0.6789;0.5529;
-13.2000;0.6764;0.5503;
-12.9000;0.6764;0.5478;
-12.6000;0.6789;0.5503;
-12.3000;0.6789;0.5580;
-12.0000;0.6772;0.5605;
-11.7000;0.6829;0.5809;
-11.4000;0.6764;0.5682;
-11.1000;0.6781;0.5605;
-10.8000;0.6821;0.5758;
-10.5000;0.6781;0.5682;
-10.2000;0.6772;0.5733;
-9.9000;0.6781;0.5707;
-9.6000;0.6789;0.5707;
-9.3000;0.6764;0.5605;
-9.0000;0.6772;0.5605;
-8.7000;0.6740;0.5478;
-8.4000;0.6772;0.5529;
-8.1000;0.6781;0.5503;
-7.8000;0.6781;0.5478;
-7.5000;0.6781;0.5452;
-7.2000;0.6756;0.5325;
-6.9000;0.6772;0.5478;
-6.6000;0.6781;0.5478;
-6.3000;0.6789;0.5478;
-6.0000;0.6781;0.5350;
-5.7000;0.6772;0.5376;
-5.4000;0.6789;0.5580;
-5.1000;0.6781;0.5554;
-4.8000;0.6781;0.5503;
-4.5000;0.6781;0.5350;
-4.2000;0.6772;0.5350;
-3.9000;0.6772;0.5401;
-3.6000;0.6764;0.5401;
-3.3000;0.6764;0.5401;
-3.0000;0.6772;0.5452;
-2.7000;0.6789;0.5452;
-2.4000;0.6772;0.5478;
-2.1000;0.6772;0.5478;
-1.8000;0.6764;0.5427;
-1.5000;0.6846;0.5783;
-1.2000;0.6781;0.5554;
-0.9000;0.6789;0.5478;
-0.6000;0.6756;0.5478;
-0.3000;0.6716;0.5427;
0.0000;0.6716;0.5427;
0.3000;0.7000;0.6115;
0.6000;0.7407;0.6522;
0.9000;0.7741;0.6930;
1.2000;0.8026;0.7261;
1.5000;0.8246;0.7490;
1.8000;0.8368;0.7618;
2.1000;0.8474;0.7847;
2.4000;0.8604;0.8153;
2.7000;0.8685;0.8408;
3.0000;0.8742;0.8433;
3.3000;0.8824;0.8510;
3.6000;0.8889;0.8662;
3.9000;0.8938;0.8790;
4.2000;0.8930;0.8764;
4.5000;0.8978;0.8764;
4.8000;0.9035;0.8841;
5.1000;0.9011;0.8713;
5.4000;0.9092;0.8841;
5.7000;0.9125;0.8892;
6.0000;0.9149;0.9045;
6.3000;0.9158;0.9045;
6.6000;0.9198;0.9121;
6.9000;0.9214;0.9070;
7.2000;0.9280;0.9198;
7.5000;0.9304;0.9299;
7.8000;0.9288;0.9223;
8.1000;0.9312;0.9198;
8.4000;0.9320;0.9096;
8.7000;0.9385;0.9096;
9.0000;0.9377;0.9019;
9.3000;0.9410;0.9019;
9.6000;0.9410;0.9070;
9.9000;0.9426;0.9019;
10.2000;0.9467;0.9121;
10.5000;0.9426;0.8943;
10.8000;0.9475;0.8968;
11.1000;0.9483;0.8917;
11.4000;0.9524;0.8892;
11.7000;0.9540;0.8994;
12.0000;0.9540;0.8892;
12.3000;0.9556;0.8917;
12.6000;0.9565;0.8943;
12.9000;0.9621;0.9045;
13.2000;0.9573;0.8815;
13.5000;0.9597;0.8943;
13.8000;0.9638;0.8968;
14.1000;0.9687;0.9121;
14.4000;0.9678;0.9096;
14.7000;0.9678;0.9070;
15.0000;0.9711;0.9070;
15.3000;0.9727;0.8968;
15.6000;0.9719;0.8968;
15.9000;0.9744;0.9045;
16.2000;0.9744;0.9121;
16.5000;0.9776;0.9172;
16.8000;0.9792;0.9172;
17.1000;0.9784;0.9096;
17.4000;0.9792;0.9070;
17.7000;0.9825;0.9070;
18.0000;0.9809;0.8968;
18.3000;0.9825;0.8994;
18.6000;0.9849;0.8943;
18.9000;0.9833;0.8841;
19.2000;0.9882;0.8764;
19.5000;0.9866;0.8713;
19.8000;0.9906;0.8764;
20.1000;0.9915;0.8790;
20.4000;0.9923;0.8790;
20.7000;0.9915;0.8739;
21.0000;0.9947;0.8841;
21.3000;0.9939;0.8815;
21.6000;0.9955;0.8866;
21.9000;0.9947;0.8866;
22.2000;0.9955;0.8790;
22.5000;0.9955;0.8739;
22.8000;0.9988;0.8713;
23.1000;0.9980;0.8713;
23.4000;0.9996;0.8764;
23.7000;1.0004;0.8662;
24.0000;0.9988;0.8561;
24.3000;1.0020;0.8637;
24.6000;1.0020;0.8688;
24.9000;1.0045;0.8739;
25.2000;1.0045;0.8790;
25.5000;1.0061;0.8815;
25.8000;1.0020;0.8764;
26.1000;1.0061;0.8917;
26.4000;1.0069;0.8841;
26.7000;1.0085;0.8815;
27.0000;1.0085;0.8841;
27.3000;1.0077;0.8764;
27.6000;1.0151;0.8866;
27.9000;1.0118;0.8866;
28.2000;1.0126;0.8943;
28.5000;1.0118;0.8841;
28.8000;1.0118;0.8815;
29.1000;1.0126;0.8866;
29.4000;1.0142;0.8917;
29.7000;1.0134;0.8815;
30.0000;1.0134;0.8815;
30.3000;1.0183;0.8994;
30.6000;1.0159;0.8968;
30.9000;1.0159;0.8866;
31.2000;1.0191;0.8917;
31.5000;1.0167;0.8713;
31.8000;1.0175;0.8688;
32.1000;1.0191;0.8713;
32.4000;1.0126;0.8637;
32.7000;1.0175;0.8764;
33.0000;1.0183;0.8790;
33.3000;1.0191;0.8815;
33.6000;1.0159;0.8713;
33.9000;1.0199;0.8815;
34.2000;1.0199;0.8713;
34.5000;1.0224;0.8790;
34.8000;1.0232;0.8764;
35.1000;1.0232;0.8739;
35.4000;1.0224;0.8688;
35.7000;1.0232;0.8790;
36.0000;1.0248;0.8866;
36.3000;1.0232;0.8917;
36.6000;1.0224;0.8892;
36.9000;1.0216;0.8866;
37.2000;1.0240;0.8841;
37.5000;1.0216;0.8815;
37.8000;1.0199;0.8739;
38.1000;1.0208;0.8764;
38.4000;1.0240;0.8790;
38.7000;1.0240;0.8815;
39.0000;1.0232;0.8815;
39.3000;1.0208;0.8790;
39.6000;1.0265;0.8841;
39.9000;1.0256;0.8841;
40.2000;1.0256;0.8815;
40.5000;1.0256;0.8713;
40.8000;1.0256;0.8713;
41.1000;1.0281;0.8688;
41.4000;1.0273;0.8688;
41.7000;1.0289;0.8739;
42.0000;1.0289;0.8764;
42.3000;1.0248;0.8637;
42.6000;1.0305;0.8841;
42.9000;1.0273;0.8790;
43.2000;1.0281;0.8764;
43.5000;1.0281;0.8739;
43.8000;1.0273;0.8612;
44.1000;1.0281;0.8713;
44.4000;1.0297;0.8662;
44.7000;1.0297;0.8662;
45.0000;1.0281;0.8713;
45.3000;1.0289;0.8739;
45.6000;1.0313;0.8764;
45.9000;1.0289;0.8662;
46.2000;1.0305;0.8637;
46.5000;1.0313;0.8612;
46.8000;1.0322;0.8586;
47.1000;1.0313;0.8637;
47.4000;1.0322;0.8662;
47.7000;1.0305;0.8637;
48.0000;1.0338;0.8790;
48.3000;1.0322;0.8790;
48.6000;1.0338;0.8764;
48.9000;1.0338;0.8586;
49.2000;1.0313;0.8561;
49.5000;1.0305;0.8484;
49.8000;1.0379;0.8586;
50.1000;1.0338;0.8433;
50.4000;1.0322;0.8331;
50.7000;1.0346;0.8459;
51.0000;1.0354;0.8535;
51.3000;1.0354;0.8535;
51.6000;1.0346;0.8510;
51.9000;1.0338;0.8535;
52.2000;1.0403;0.8739;
52.5000;1.0362;0.8510;
52.8000;1.0346;0.8433;
53.1000;1.0354;0.8510;
53.4000;1.0387;0.8713;
53.7000;1.0387;0.8713;
54.0000;1.0370;0.8688;
54.3000;1.0362;0.8586;
54.6000;1.0362;0.8561;
54.9000;1.0370;0.8561;
55.2000;1.0387;0.8586;
55.5000;1.0362;0.8612;
55.8000;1.0379;0.8586;
56.1000;1.0370;0.8612;
56.4000;1.0354;0.8535;
56.7000;1.0476;0.8790;
57.0000;1.0362;0.8535;
57.3000;1.0387;0.8535;
57.6000;1.0362;0.8459;
57.9000;1.0379;0.8382;
58.2000;1.0370;0.8433;
58.5000;1.0387;0.8535;
58.8000;1.0379;0.8459;
59.1000;1.0379;0.8510;
59.4000;1.0362;0.8408;
59.7000;1.0362;0.8408;
60.0000;1.0370;0.8408;
60.3000;1.0387;0.8382;
60.6000;1.0403;0.8382;
60.9000;1.0387;0.8510;
61.2000;1.0379;0.8535;
61.5000;1.0370;0.8408;
61.8000;1.0395;0.8535;
62.1000;1.0354;0.8433;
62.4000;1.0395;0.8561;
62.7000;1.0379;0.8561;
63.0000;1.0379;0.8586;
63.3000;1.0387;0.8688;
63.6000;1.0403;0.8790;
63.9000;1.0395;0.8739;
64.2000;1.0387;0.8713;
64.5000;1.0379;0.8662;
64.8000;1.0411;0.8662;
65.1000;1.0403;0.8637;
65.4000;1.0403;0.8739;
65.7000;1.0395;0.8688;
66.0000;1.0403;0.8790;
66.3000;1.0411;0.8764;
66.6000;1.0411;0.8713;
66.9000;1.0387;0.8612;
67.2000;1.0395;0.8484;
67.5000;1.0411;0.8484;
67.8000;1.0403;0.8382;
68.1000;1.0379;0.8382;
68.4000;1.0403;0.8331;
68.7000;1.0387;0.8382;
69.0000;1.0346;0.8153;
69.3000;1.0427;0.8382;
69.6000;1.0411;0.8459;
69.9000;1.0427;0.8484;
70.2000;1.0411;0.8408;
70.5000;1.0419;0.8408;
70.8000;1.0419;0.8382;
71.1000;1.0419;0.8459;
71.4000;1.0419;0.8459;
71.7000;1.0419;0.8459;
72.0000;1.0427;0.8433;
72.3000;1.0419;0.8382;
72.6000;1.0395;0.8357;
72.9000;1.0411;0.8408;
73.2000;1.0419;0.8382;
73.5000;1.0411;0.8331;
73.8000;1.0484;0.8484;
74.1000;1.0435;0.8408;
74.4000;1.0411;0.8382;
74.7000;1.0403;0.8408;
75.0000;1.0427;0.8510;
75.3000;1.0435;0.8484;
75.6000;1.0444;0.8484;
75.9000;1.0427;0.8433;
76.2000;1.0435;0.8459;
76.5000;1.0435;0.8510;
76.8000;1.0435;0.8612;
77.1000;1.0419;0.8561;
77.4000;1.0427;0.8637;
77.7000;1.0435;0.8688;
78.0000;1.0427;0.8688;
78.3000;1.0435;0.8713;
78.6000;1.0395;0.8637;
78.9000;1.0427;0.8662;
79.2000;1.0444;0.8713;
79.5000;1.0387;0.8561;
79.8000;1.0444;0.8612;
80.1000;1.0427;0.8561;
80.4000;1.0435;0.8586;
80.7000;1.0419;0.8535;
81.0000;1.0427;0.8612;
81.3000;1.0444;0.8764;
81.6000;1.0517;0.8943;
81.9000;1.0435;0.8764;
82.2000;1.0427;0.8815;
82.5000;1.0517;0.8994;
82.8000;1.0419;0.8739;
83.1000;1.0444;0.8790;
83.4000;1.0435;0.8764;
83.7000;1.0435;0.8790;
84.0000;1.0444;0.8790;
84.3000;1.0444;0.8764;
84.6000;1.0452;0.8662;
84.9000;1.0435;0.8662;
85.2000;1.0435;0.8713;
85.5000;1.0444;0.8637;
85.8000;1.0435;0.8662;
86.1000;1.0435;0.8612;
86.4000;1.0468;0.8713;
86.7000;1.0411;0.8561;
87.0000;1.0435;0.8637;
87.3000;1.0444;0.8535;
87.6000;1.0435;0.8459;
87.9000;1.0427;0.8433;
88.2000;1.0460;0.8484;
88.5000;1.0452;0.8433;
88.8000;1.0460;0.8408;
89.1000;1.0460;0.8331;
89.4000;1.0452;0.8408;
89.7000;1.0435;0.8357;
90.0000;1.0435;0.8280;
90.3000;1.0468;0.8357;
90.6000;1.0468;0.8357;
90.9000;1.0468;0.8306;
91.2000;1.0460;0.8280;
91.5000;1.0460;0.8255;
91.8000;1.0460;0.8280;
92.1000;1.0549;0.8433;
92.4000;1.0484;0.8382;
92.7000;1.0468;0.8331;
93.0000;1.0452;0.8382;
93.3000;1.0460;0.8382;
93.6000;1.0452;0.8408;
93.9000;1.0379;0.8204;
94.2000;1.0476;0.8535;
94.5000;1.0460;0.8484;
94.8000;1.0460;0.8586;
95.1000;1.0435;0.8586;
95.4000;1.0460;0.8586;
95.7000;1.0460;0.8535;
96.0000;1.0427;0.8484;
96.3000;1.0452;0.8561;
96.6000;1.0460;0.8535;
96.9000;1.0476;0.8561;
97.2000;1.0435;0.8561;
97.5000;1.0460;0.8662;
97.8000;1.0460;0.8561;
98.1000;1.0476;0.8612;
98.4000;1.0452;0.8586;
98.7000;1.0452;0.8535;
99.0000;1.0411;0.8459;
99.3000;1.0468;0.8535;
99.6000;1.0460;0.8484;
99.9000;1.0460;0.8357;
100.2000;1.0476;0.8357;
100.5000;1.0484;0.8357;
100.8000;1.0468;0.8306;
101.1000;1.0525;0.8433;
101.4000;1.0484;0.8255;
101.7000;1.0468;0.8204;
102.0000;1.0509;0.8408;
102.3000;1.0484;0.8382;
102.6000;1.0476;0.8408;
102.9000;1.0468;0.8459;
103.2000;1.0476;0.8510;
103.5000;1.0509;0.8612;
103.8000;1.0468;0.8459;
104.1000;1.0460;0.8484;
104.4000;1.0476;0.8433;
104.7000;1.0476;0.8331;
105.0000;1.0468;0.8280;
105.3000;1.0476;0.8255;
105.6000;1.0460;0.8178;
105.9000;1.0484;0.8331;
106.2000;1.0484;0.8331;
106.5000;1.0460;0.8306;
106.8000;1.0476;0.8459;
107.1000;1.0484;0.8535;
107.4000;1.0476;0.8586;
107.7000;1.0460;0.8586;
108.0000;1.0460;0.8510;
108.3000;1.0476;0.8510;
108.6000;1.0460;0.8535;
108.9000;1.0492;0.8586;
109.2000;1.0468;0.8535;
109.5000;1.0468;0.8535;
109.8000;1.0476;0.8561;
110.1000;1.0452;0.8408;
110.4000;1.0476;0.8484;
110.7000;1.0476;0.8586;
111.0000;1.0468;0.8586;
111.3000;1.0468;0.8561;
111.6000;1.0468;0.8688;
111.9000;1.0484;0.8815;
112.2000;1.0492;0.8815;
112.5000;1.0492;0.8764;
112.8000;1.0501;0.8688;
113.1000;1.0484;0.8662;
113.4000;1.0501;0.8688;
113.7000;1.0492;0.8612;
114.0000;1.0484;0.8637;
114.3000;1.0476;0.8586;
114.6000;1.0484;0.8586;
114.9000;1.0435;0.8433;
115.2000;1.0476;0.8535;
115.5000;1.0468;0.8535;
115.8000;1.0435;0.8357;
116.1000;1.0484;0.8433;
116.4000;1.0476;0.8484;
116.7000;1.0460;0.8408;
117.0000;1.0468;0.8484;
117.3000;1.0492;0.8535;
117.6000;1.0492;0.8510;
117.9000;1.0484;0.8535;
118.2000;1.0492;0.8535;
118.5000;1.0484;0.8561;
118.8000;1.0541;0.8764;
119.1000;1.0484;0.8561;
119.4000;1.0476;0.8586;
119.7000;1.0476;0.8637;
120.0000;1.0484;0.8586;
120.3000;1.0484;0.8612;
120.6000;1.0468;0.8561;
120.9000;1.0492;0.8535;
121.2000;1.0484;0.8510;
121.5000;1.0484;0.8459;
121.8000;1.0525;0.8561;
122.1000;1.0509;0.8433;
122.4000;1.0501;0.8408;
122.7000;1.0501;0.8433;
123.0000;1.0427;0.8306;
123.3000;1.0492;0.8433;
123.6000;1.0509;0.8484;
123.9000;1.0492;0.8510;
124.2000;1.0558;0.8662;
124.5000;1.0484;0.8433;
124.8000;1.0501;0.8459;
125.1000;1.0484;0.8510;
125.4000;1.0501;0.8561;
125.7000;1.0492;0.8484;
126.0000;1.0492;0.8535;
126.3000;1.0452;0.8280;
126.6000;1.0501;0.8331;
126.9000;1.0509;0.8280;
127.2000;1.0574;0.8535;
127.5000;1.0492;0.8255;
127.8000;1.0492;0.8331;
128.1000;1.0460;0.8306;
128.4000;1.0501;0.8459;
128.7000;1.0468;0.8408;
129.0000;1.0492;0.8433;
129.3000;1.0476;0.8433;
129.6000;1.0484;0.8408;
129.9000;1.0476;0.8280;
130.2000;1.0468;0.8331;
130.5000;1.0468;0.8306;
130.8000;1.0476;0.8408;
131.1000;1.0476;0.8382;
131.4000;1.0509;0.8382;
131.7000;1.0468;0.8255;
132.0000;1.0492;0.8408;
132.3000;1.0484;0.8255;
132.6000;1.0509;0.8382;
132.9000;1.0419;0.8331;
133.2000;1.0484;0.8586;
133.5000;1.0476;0.8561;
133.8000;1.0468;0.8561;
134.1000;1.0501;0.8612;
134.4000;1.0501;0.8561;
134.7000;1.0468;0.8459;
135.0000;1.0501;0.8484;
135.3000;1.0484;0.8535;
135.6000;1.0484;0.8459;
135.9000;1.0501;0.8408;
136.2000;1.0501;0.8433;
136.5000;1.0517;0.8510;
136.8000;1.0517;0.8484;
137.1000;1.0509;0.8535;
137.4000;1.0501;0.8535;
137.7000;1.0517;0.8561;
138.0000;1.0517;0.8561;
138.3000;1.0509;0.8510;
138.6000;1.0501;0.8535;
138.9000;1.0501;0.8637;
139.2000;1.0476;0.8637;
139.5000;1.0509;0.8662;
139.8000;1.0492;0.8561;
140.1000;1.0476;0.8484;
140.4000;1.0549;0.8637;
140.7000;1.0484;0.8408;
141.0000;1.0484;0.8382;
141.3000;1.0501;0.8408;
141.6000;1.0501;0.8408;
141.9000;1.0517;0.8535;
142.2000;1.0492;0.8586;
142.5000;1.0501;0.8535;
142.8000;1.0484;0.8586;
143.1000;1.0492;0.8586;
143.4000;1.0484;0.8561;
143.7000;1.0468;0.8459;
144.0000;1.0509;0.8484;
144.3000;1.0517;0.8535;
144.6000;1.0484;0.8459;
144.9000;1.0509;0.8484;
145.2000;1.0492;0.8331;
145.5000;1.0492;0.8382;
145.8000;1.0484;0.8357;
146.1000;1.0501;0.8433;
146.4000;1.0492;0.8484;
146.7000;1.0525;0.8535;
147.0000;1.0517;0.8561;
147.3000;1.0525;0.8586;
147.6000;1.0509;0.8612;
147.9000;1.0501;0.8510;
148.2000;1.0549;0.8688;
148.5000;1.0517;0.8637;
148.8000;1.0484;0.8612;
149.1000;1.0501;0.8612;
149.4000;1.0501;0.8510;
149.7000;1.0501;0.8510;
150.0000;1.0484;0.8382;
150.3000;1.0476;0.8408;
150.6000;1.0460;0.8357;
150.9000;1.0492;0.8433;
151.2000;1.0566;0.8662;
151.5000;1.0517;0.8510;
151.8000;1.0484;0.8433;
152.1000;1.0476;0.8459;
152.4000;1.0484;0.8408;
152.7000;1.0525;0.8535;
153.0000;1.0509;0.8561;
153.3000;1.0484;0.8637;
153.6000;1.0501;0.8586;
153.9000;1.0452;0.8433;
154.2000;1.0517;0.8561;
154.5000;1.0501;0.8408;
154.8000;1.0492;0.8459;
155.1000;1.0484;0.8382;
155.4000;1.0509;0.8433;
155.7000;1.0484;0.8408;
156.0000;1.0492;0.8433;
156.3000;1.0492;0.8382;
156.6000;1.0501;0.8408;
156.9000;1.0501;0.8408;
157.2000;1.0492;0.8408;
157.5000;1.0492;0.8382;
157.8000;1.0492;0.8382;
158.1000;1.0509;0.8484;
158.4000;1.0509;0.8459;
158.7000;1.0509;0.8484;
159.0000;1.0525;0.8459;
159.3000;1.0509;0.8433;
159.6000;1.0484;0.8459;
159.9000;1.0525;0.8510;
160.2000;1.0501;0.8433;
160.5000;1.0509;0.8484;
160.8000;1.0501;0.8408;
161.1000;1.0501;0.8357;
161.4000;1.0525;0.8382;
161.7000;1.0492;0.8331;
162.0000;1.0484;0.8331;
162.3000;1.0501;0.8408;
162.6000;1.0509;0.8433;
162.9000;1.0525;0.8484;
163.2000;1.0509;0.8484;
163.5000;1.0509;0.8331;
163.8000;1.0476;0.8306;
164.1000;1.0468;0.8178;
164.4000;1.0501;0.8280;
164.7000;1.0501;0.8280;
165.0000;1.0484;0.8204;
165.3000;1.0484;0.8178;
165.6000;1.0492;0.8255;
165.9000;1.0492;0.8229;
166.2000;1.0509;0.8255;
166.5000;1.0501;0.8357;
166.8000;1.0476;0.8255;
167.1000;1.0501;0.8204;
167.4000;1.0501;0.8306;
167.7000;1.0492;0.8357;
168.0000;1.0525;0.8408;
168.3000;1.0509;0.8382;
168.6000;1.0525;0.8331;
168.9000;1.0501;0.8357;
169.2000;1.0435;0.8255;
169.5000;1.0533;0.8433;
169.8000;1.0484;0.8280;
170.1000;1.0501;0.8229;
170.4000;1.0501;0.8255;
170.7000;1.0517;0.8408;
171.0000;1.0476;0.8306;
171.3000;1.0492;0.8306;
171.6000;1.0501;0.8280;
171.9000;1.0501;0.8255;
172.2000;1.0517;0.8229;
172.5000;1.0509;0.8280;
172.8000;1.0501;0.8306;
173.1000;1.0509;0.8357;
173.4000;1.0501;0.8331;
173.7000;1.0460;0.8306;
174.0000;1.0566;0.8561;
174.3000;1.0501;0.8357;
174.6000;1.0492;0.8357;
174.9000;1.0501;0.8357;
175.2000;1.0517;0.8331;
175.5000;1.0492;0.8229;
175.8000;1.0468;0.8153;
176.1000;1.0492;0.8204;
176.4000;1.0509;0.8255;
176.7000;1.0492;0.8306;
177.0000;1.0492;0.8280;
177.3000;1.0484;0.8204;
177.6000;1.0509;0.8255;
177.9000;1.0476;0.8331;
178.2000;1.0492;0.8408;
178.5000;1.0509;0.8561;
178.8000;1.0492;0.8484;
179.1000;1.0525;0.8637;
179.4000;1.0517;0.8586;
179.7000;1.0501;0.8484;
180.0000;1.0517;0.8586;
180.3000;1.0492;0.8510;
180.6000;1.0476;0.8510;
180.9000;1.0509;0.8535;
181.2000;1.0517;0.8535;
181.5000;1.0509;0.8484;
181.8000;1.0492;0.8433;
182.1000;1.0501;0.8433;
182.4000;1.0525;0.8484;
182.7000;1.0501;0.8586;
183.0000;1.0509;0.8637;
183.3000;1.0509;0.8612;
183.6000;1.0509;0.8612;
183.9000;1.0549;0.8713;
184.2000;1.0501;0.8612;
184.5000;1.0517;0.8586;
184.8000;1.0517;0.8535;
185.1000;1.0509;0.8510;
185.4000;1.0501;0.8408;
185.7000;1.0484;0.8382;
186.0000;1.0492;0.8408;
186.3000;1.0501;0.8382;
186.6000;1.0501;0.8433;
186.9000;1.0476;0.8408;
187.2000;1.0492;0.8357;
187.5000;1.0549;0.8408;
187.8000;1.0492;0.8306;
188.1000;1.0492;0.8306;
188.4000;1.0509;0.8408;
188.7000;1.0492;0.8408;
189.0000;1.0501;0.8382;
189.3000;1.0509;0.8331;
189.6000;1.0492;0.8229;
189.9000;1.0501;0.8357;
190.2000;1.0509;0.8433;
190.5000;1.0492;0.8306;
190.8000;1.0501;0.8331;
191.1000;1.0460;0.8229;
191.4000;1.0501;0.8459;
191.7000;1.0509;0.8459;
192.0000;1.0484;0.8408;
192.3000;1.0501;0.8357;
192.6000;1.0517;0.8306;
192.9000;1.0501;0.8255;
193.2000;1.0517;0.8204;
193.5000;1.0476;0.8076;
193.8000;1.0525;0.8204;
194.1000;1.0525;0.8127;
194.4000;1.0517;0.8051;
194.7000;1.0492;0.8127;
195.0000;1.0525;0.8331;
195.3000;1.0501;0.8306;
195.6000;1.0492;0.8255;
195.9000;1.0509;0.8255;
196.2000;1.0509;0.8229;
196.5000;1.0484;0.8153;
196.8000;1.0492;0.8280;
197.1000;1.0501;0.8357;
197.4000;1.0492;0.8306;
197.7000;1.0476;0.8229;
198.0000;1.0501;0.8255;
198.3000;1.0501;0.8382;
198.6000;1.0525;0.8586;
198.9000;1.0509;0.8637;
199.2000;1.0509;0.8561;
199.5000;1.0501;0.8535;
199.8000;1.0517;0.8510;
200.1000;1.0501;0.8459;
200.4000;1.0509;0.8459;
200.7000;1.0492;0.8357;
201.0000;1.0484;0.8408;
201.3000;1.0501;0.8510;
201.6000;1.0509;0.8484;
201.9000;1.0501;0.8459;
202.2000;1.0501;0.8382;
202.5000;1.0484;0.8433;
202.8000;1.0501;0.8433;
203.1000;1.0517;0.8459;
203.4000;1.0501;0.8382;
203.7000;1.0517;0.8408;
204.0000;1.0501;0.8433;
204.3000;1.0517;0.8459;
204.6000;1.0533;0.8433;
204.9000;1.0492;0.8408;
205.2000;1.0509;0.8586;
205.5000;1.0517;0.8612;
205.8000;1.0501;0.8510;
206.1000;1.0492;0.8510;
206.4000;1.0492;0.8331;
206.7000;1.0525;0.8331;
207.0000;1.0517;0.8331;
207.3000;1.0501;0.8280;
207.6000;1.0509;0.8306;
207.9000;1.0541;0.8382;
208.2000;1.0509;0.8408;
208.5000;1.0501;0.8280;
208.8000;1.0517;0.8306;
209.1000;1.0435;0.8127;
209.4000;1.0509;0.8204;
209.7000;1.0501;0.8280;
210.0000;1.0525;0.8331;
210.3000;1.0509;0.8408;
210.6000;1.0517;0.8357;
210.9000;1.0541;0.8408;
211.2000;1.0509;0.8255;
211.5000;1.0492;0.8204;
211.8000;1.0501;0.8204;
212.1000;1.0501;0.8204;
212.4000;1.0492;0.8204;
212.7000;1.0484;0.8204;
213.0000;1.0509;0.8204;
213.3000;1.0492;0.8229;
213.6000;1.0492;0.8306;
213.9000;1.0501;0.8382;
214.2000;1.0501;0.8408;
214.5000;1.0509;0.8306;
214.8000;1.0509;0.8306;
215.1000;1.0509;0.8331;
215.4000;1.0517;0.8357;
215.7000;1.0509;0.8408;
216.0000;1.0525;0.8484;
216.3000;1.0492;0.8357;
216.6000;1.0501;0.8382;
216.9000;1.0501;0.8280;
217.2000;1.0501;0.8357;
217.5000;1.0501;0.8408;
217.8000;1.0484;0.8433;
218.1000;1.0525;0.8459;
218.4000;1.0492;0.8357;
218.7000;1.0492;0.8357;
219.0000;1.0501;0.8459;
219.3000;1.0517;0.8535;
219.6000;1.0509;0.8510;
219.9000;1.0509;0.8459;
220.2000;1.0509;0.8510;
220.5000;1.0509;0.8535;
220.8000;1.0509;0.8637;
221.1000;1.0460;0.8459;
221.4000;1.0492;0.8510;
221.7000;1.0509;0.8484;
222.0000;1.0501;0.8433;
222.3000;1.0509;0.8331;
222.6000;1.0484;0.8280;
222.9000;1.0492;0.8306;
223.2000;1.0509;0.8382;
223.5000;1.0509;0.8331;
223.8000;1.0501;0.8331;
224.1000;1.0517;0.8331;
224.4000;1.0517;0.8331;
224.7000;1.0501;0.8306;
225.0000;1.0509;0.8331;
225.3000;1.0484;0.8306;
225.6000;1.0501;0.8255;
225.9000;1.0492;0.8280;
226.2000;1.0427;0.8178;
226.5000;1.0541;0.8433;
226.8000;1.0492;0.8357;
227.1000;1.0492;0.8382;
227.4000;1.0509;0.8280;
227.7000;1.0501;0.8331;
228.0000;1.0517;0.8255;
228.3000;1.0501;0.8255;
228.6000;1.0517;0.8229;
228.9000;1.0509;0.8204;
229.2000;1.0517;0.8153;
229.5000;1.0517;0.8280;
229.8000;1.0468;0.8178;
230.1000;1.0509;0.8204;
230.4000;1.0468;0.8102;
230.7000;1.0509;0.8178;
231.0000;1.0541;0.8255;
231.3000;1.0509;0.8153;
231.6000;1.0501;0.8178;
231.9000;1.0509;0.8178;
232.2000;1.0509;0.8204;
232.5000;1.0492;0.8102;
232.8000;1.0582;0.8357;
233.1000;1.0501;0.8153;
233.4000;1.0501;0.8076;
233.7000;1.0492;0.8076;
234.0000;1.0460;0.7975;
234.3000;1.0509;0.8102;
234.6000;1.0501;0.8127;
234.9000;1.0509;0.8255;
235.2000;1.0501;0.8229;
235.5000;1.0501;0.8255;
235.8000;1.0501;0.8255;
236.1000;1.0501;0.8306;
236.4000;1.0492;0.8331;
236.7000;1.0484;0.8306;
237.0000;1.0492;0.8382;
237.3000;1.0492;0.8408;
237.6000;1.0492;0.8357;
237.9000;1.0484;0.8357;
238.2000;1.0492;0.8382;
238.5000;1.0509;0.8357;
238.8000;1.0501;0.8382;
239.1000;1.0484;0.8306;
239.4000;1.0492;0.8280;
239.7000;1.0484;0.8229;
240.0000;1.0509;0.8280;
240.3000;1.0492;0.8280;
240.6000;1.0492;0.8229;
240.9000;1.0492;0.8255;
241.2000;1.0501;0.8255;
241.5000;1.0501;0.8178;
241.8000;1.0525;0.8280;
242.1000;1.0501;0.8255;
242.4000;1.0566;0.8382;
242.7000;1.0509;0.8255;
243.0000;1.0615;0.8484;
243.3000;1.0509;0.8382;
243.6000;1.0525;0.8433;
243.9000;1.0533;0.8510;
244.2000;1.0501;0.8484;
244.5000;1.0517;0.8612;
244.8000;1.0517;0.8662;
245.1000;1.0501;0.8535;
245.4000;1.0533;0.8459;
245.7000;1.0517;0.8382;
246.0000;1.0501;0.8357;
246.3000;1.0533;0.8433;
246.6000;1.0468;0.8382;
246.9000;1.0492;0.8408;
247.2000;1.0509;0.8510;
247.5000;1.0509;0.8510;
247.8000;1.0501;0.8484;
248.1000;1.0501;0.8408;
248.4000;1.0492;0.8357;
248.7000;1.0525;0.8382;
249.0000;1.0509;0.8357;
249.3000;1.0501;0.8408;
249.6000;1.0501;0.8459;
249.9000;1.0501;0.8382;
250.2000;1.0574;0.8662;
250.5000;1.0509;0.8408;
250.8000;1.0517;0.8484;
251.1000;1.0517;0.8408;
251.4000;1.0501;0.8357;
251.7000;1.0501;0.8280;
252.0000;1.0517;0.8331;
252.3000;1.0517;0.8357;
252.6000;1.0484;0.8229;
252.9000;1.0501;0.8331;
253.2000;1.0492;0.8204;
253.5000;1.0492;0.8229;
253.8000;1.0501;0.8280;
254.1000;1.0525;0.8382;
254.4000;1.0492;0.8306;
254.7000;1.0501;0.8229;
255.0000;1.0606;0.8484;
255.3000;1.0501;0.8280;
255.6000;1.0517;0.8255;
255.9000;1.0492;0.8178;
256.2000;1.0501;0.8229;
256.5000;1.0484;0.8229;
256.8000;1.0501;0.8280;
257.1000;1.0476;0.8204;
257.4000;1.0501;0.8280;
257.7000;1.0501;0.8433;
258.0000;1.0484;0.8357;
258.3000;1.0501;0.8382;
258.6000;1.0566;0.8637;
258.9000;1.0525;0.8459;
259.2000;1.0517;0.8433;
259.5000;1.0509;0.8433;
259.8000;1.0492;0.8433;
260.1000;1.0509;0.8459;
260.4000;1.0541;0.8586;
260.7000;1.0533;0.8662;
261.0000;1.0492;0.8637;
261.3000;1.0468;0.8637;
261.6000;1.0558;0.8790;
261.9000;1.0484;0.8510;
262.2000;1.0476;0.8433;
262.5000;1.0509;0.8433;
262.8000;1.0509;0.8433;
263.1000;1.0476;0.8306;
263.4000;1.0501;0.8357;
263.7000;1.0484;0.8357;
264.0000;1.0509;0.8331;
264.3000;1.0501;0.8229;
264.6000;1.0476;0.8127;
264.9000;1.0501;0.8229;
265.2000;1.0517;0.8255;
265.5000;1.0509;0.8255;
265.8000;1.0517;0.8331;
266.1000;1.0501;0.8255;
266.4000;1.0509;0.8229;
266.7000;1.0509;0.8280;
267.0000;1.0509;0.8357;
267.3000;1.0501;0.8280;
267.6000;1.0501;0.8255;
267.9000;1.0533;0.8280;
268.2000;1.0517;0.8255;
268.5000;1.0501;0.8204;
268.8000;1.0509;0.8204;
269.1000;1.0533;0.8357;
269.4000;1.0525;0.8408;
269.7000;1.0492;0.8331;
270.0000;1.0509;0.8229;
270.3000;1.0509;0.8255;
270.6000;1.0501;0.8178;
270.9000;1.0509;0.8255;
271.2000;1.0525;0.8306;
271.5000;1.0509;0.8331;
271.8000;1.0509;0.8382;
272.1000;1.0476;0.8306;
272.4000;1.0501;0.8280;
272.7000;1.0509;0.8357;
273.0000;1.0501;0.8408;
273.3000;1.0476;0.8280;
273.6000;1.0501;0.8204;
273.9000;1.0468;0.8102;
274.2000;1.0492;0.8153;
274.5000;1.0517;0.8153;
274.8000;1.0501;0.8178;
275.1000;1.0484;0.8127;
275.4000;1.0501;0.8306;
275.7000;1.0509;0.8408;
276.0000;1.0501;0.8484;
276.3000;1.0492;0.8484;
276.6000;1.0492;0.8459;
276.9000;1.0501;0.8408;
277.2000;1.0501;0.8408;
277.5000;1.0501;0.8382;
277.8000;1.0525;0.8561;
278.1000;1.0501;0.8561;
278.4000;1.0476;0.8382;
278.7000;1.0501;0.8433;
279.0000;1.0468;0.8331;
279.3000;1.0492;0.8408;
279.6000;1.0476;0.8357;
279.9000;1.0517;0.8484;
280.2000;1.0501;0.8408;
280.5000;1.0509;0.8510;
280.8000;1.0509;0.8586;
281.1000;1.0509;0.8535;
281.4000;1.0517;0.8510;
281.7000;1.0509;0.8484;
282.0000;1.0509;0.8484;
282.3000;1.0509;0.8382;
282.6000;1.0501;0.8357;
282.9000;1.0501;0.8357;
283.2000;1.0492;0.8408;
283.5000;1.0492;0.8357;
283.8000;1.0549;0.8433;
284.1000;1.0492;0.8280;
284.4000;1.0492;0.8357;
284.7000;1.0509;0.8382;
285.0000;1.0492;0.8280;
285.3000;1.0484;0.8331;
285.6000;1.0501;0.8357;
285.9000;1.0501;0.8382;
286.2000;1.0517;0.8484;
286.5000;1.0501;0.8408;
286.8000;1.0509;0.8408;
287.1000;1.0566;0.8561;
287.4000;1.0501;0.8408;
287.7000;1.0501;0.8433;
288.0000;1.0492;0.8433;
288.3000;1.0492;0.8382;
288.6000;1.0476;0.8433;
288.9000;1.0452;0.8280;
289.2000;1.0492;0.8357;
289.5000;1.0501;0.8331;
289.8000;1.0484;0.8331;
290.1000;1.0452;0.8229;
290.4000;1.0509;0.8433;
290.7000;1.0517;0.8433;
291.0000;1.0501;0.8357;
291.3000;1.0501;0.8357;
291.6000;1.0492;0.8382;
291.9000;1.0509;0.8535;
292.2000;1.0501;0.8459;
292.5000;1.0501;0.8459;
292.8000;1.0501;0.8484;
293.1000;1.0525;0.8510;
293.4000;1.0492;0.8331;
293.7000;1.0501;0.8408;
294.0000;1.0501;0.8459;
294.3000;1.0509;0.8510;
294.6000;1.0484;0.8510;
294.9000;1.0501;0.8459;
295.2000;1.0501;0.8433;
295.5000;1.0484;0.8484;
295.8000;1.0509;0.8586;
296.1000;1.0509;0.8586;
296.4000;1.0509;0.8535;
296.7000;1.0501;0.8484;
297.0000;1.0509;0.8637;
297.3000;1.0517;0.8612;
297.6000;1.0501;0.8586;
297.9000;1.0566;0.8790;
298.2000;1.0501;0.8637;
298.5000;1.0501;0.8637;
298.8000;1.0533;0.8688;
299.1000;1.0460;0.8433;
299.4000;1.0492;0.8408;
299.7000;1.0541;0.8535;
300.0000;1.0492;0.8408;
300.3000;1.0492;0.8433;
300.6000;1.0501;0.8510;
300.9000;1.0509;0.8612;
301.2000;1.0509;0.8561;
301.5000;1.0476;0.8433;
301.8000;1.0509;0.8408;
302.1000;1.0541;0.8382;
302.4000;1.0517;0.8331;
302.7000;1.0582;0.8586;
303.0000;1.0484;0.8280;
303.3000;1.0509;0.8433;
303.6000;1.0492;0.8357;
303.9000;1.0468;0.8178;
304.2000;1.0468;0.8204;
304.5000;1.0501;0.8331;
304.8000;1.0549;0.8433;
305.1000;1.0501;0.8382;
305.4000;1.0525;0.8484;
305.7000;1.0517;0.8459;
306.0000;1.0509;0.8433;
306.3000;1.0501;0.8433;
306.6000;1.0492;0.8382;
306.9000;1.0492;0.8382;
307.2000;1.0501;0.8382;
307.5000;1.0509;0.8382;
307.8000;1.0492;0.8306;
308.1000;1.0468;0.8255;
308.4000;1.0501;0.8306;
308.7000;1.0501;0.8357;
309.0000;1.0501;0.8382;
309.3000;1.0492;0.8433;
309.6000;1.0509;0.8586;
309.9000;1.0492;0.8561;
310.2000;1.0484;0.8484;
310.5000;1.0501;0.8433;
310.8000;1.0460;0.8331;
311.1000;1.0517;0.8408;
311.4000;1.0501;0.8280;
311.7000;1.0517;0.8331;
312.0000;1.0533;0.8408;
312.3000;1.0517;0.8331;
312.6000;1.0509;0.8357;
312.9000;1.0501;0.8306;
313.2000;1.0501;0.8306;
313.5000;1.0501;0.8306;
313.8000;1.0509;0.8433;
314.1000;1.0476;0.8306;
314.4000;1.0492;0.8255;
314.7000;1.0501;0.8280;
315.0000;1.0492;0.8255;
315.3000;1.0492;0.8178;
315.6000;1.0484;0.8127;
315.9000;1.0509;0.8076;
316.2000;1.0525;0.8102;
316.5000;1.0509;0.8076;
316.8000;1.0517;0.8178;
317.1000;1.0484;0.8076;
317.4000;1.0525;0.8204;
317.7000;1.0525;0.8229;
318.0000;1.0484;0.8178;
318.3000;1.0509;0.8229;
318.6000;1.0492;0.8178;
318.9000;1.0509;0.8255;
319.2000;1.0492;0.8306;
319.5000;1.0517;0.8357;
319.8000;1.0501;0.8280;
320.1000;1.0509;0.8204;
320.4000;1.0501;0.8204;
320.7000;1.0509;0.8178;
321.0000;1.0501;0.8153;
321.3000;1.0509;0.8178;
321.6000;1.0509;0.8178;
321.9000;1.0517;0.8306;
322.2000;1.0484;0.8229;
322.5000;1.0492;0.8331;
322.8000;1.0492;0.8433;
323.1000;1.0509;0.8510;
323.4000;1.0492;0.8459;
323.7000;1.0460;0.8408;
324.0000;1.0582;0.8739;
324.3000;1.0484;0.8535;
324.6000;1.0484;0.8586;
324.9000;1.0492;0.8561;
325.2000;1.0484;0.8535;
325.5000;1.0501;0.8612;
325.8000;1.0509;0.8662;
326.1000;1.0541;0.8764;
326.4000;1.0509;0.8637;
326.7000;1.0501;0.8662;
327.0000;1.0476;0.8713;
327.3000;1.0501;0.8739;
327.6000;1.0468;0.8713;
327.9000;1.0517;0.8892;
328.2000;1.0476;0.8841;
328.5000;1.0476;0.8866;
328.8000;1.0492;0.8841;
329.1000;1.0492;0.8815;
329.4000;1.0501;0.8841;
329.7000;1.0484;0.8790;
330.0000;1.0492;0.8662;
330.3000;1.0484;0.8586;
330.6000;1.0492;0.8561;
330.9000;1.0484;0.8535;
331.2000;1.0558;0.8713;
331.5000;1.0501;0.8586;
331.8000;1.0501;0.8637;
332.1000;1.0509;0.8535;
332.4000;1.0509;0.8561;
332.7000;1.0501;0.8510;
333.0000;1.0541;0.8510;
333.3000;1.0501;0.8459;
333.6000;1.0476;0.8433;
333.9000;1.0460;0.8357;
334.2000;1.0468;0.8357;
334.5000;1.0484;0.8382;
334.8000;1.0484;0.8357;
335.1000;1.0468;0.8408;
335.4000;1.0501;0.8433;
335.7000;1.0501;0.8382;
336.0000;1.0492;0.8357;
336.3000;1.0492;0.8408;
336.6000;1.0501;0.8459;
336.9000;1.0501;0.8408;
337.2000;1.0501;0.8408;
337.5000;1.0509;0.8459;
337.8000;1.0525;0.8433;
338.1000;1.0517;0.8484;
338.4000;1.0501;0.8484;
338.7000;1.0492;0.8408;
339.0000;1.0541;0.8484;
339.3000;1.0501;0.8433;
339.6000;1.0501;0.8459;
339.9000;1.0501;0.8459;
340.2000;1.0501;0.8510;
340.5000;1.0501;0.8561;
340.8000;1.0509;0.8586;
341.1000;1.0501;0.8510;
341.4000;1.0492;0.8484;
341.7000;1.0509;0.8561;
342.0000;1.0509;0.8612;
342.3000;1.0484;0.8561;
342.6000;1.0435;0.8331;
342.9000;1.0501;0.8561;
343.2000;1.0509;0.8561;
343.5000;1.0492;0.8433;
343.8000;1.0492;0.8408;
344.1000;1.0501;0.8433;
344.4000;1.0501;0.8331;
344.7000;1.0476;0.8331;
345.0000;1.0517;0.8510;
345.3000;1.0484;0.8433;
345.6000;1.0517;0.8484;
345.9000;1.0501;0.8459;
346.2000;1.0476;0.8408;
346.5000;1.0525;0.8535;
346.8000;1.0492;0.8510;
347.1000;1.0541;0.8637;
347.4000;1.0525;0.8561;
347.7000;1.0492;0.8459;
348.0000;1.0501;0.8433;
348.3000;1.0501;0.8433;
348.6000;1.0517;0.8382;
348.9000;1.0484;0.8408;
349.2000;1.0501;0.8382;
349.5000;1.0484;0.8357;
349.8000;1.0509;0.8433;
350.1000;1.0460;0.8306;
350.4000;1.0452;0.8229;
350.7000;1.0468;0.8280;
351.0000;1.0501;0.8280;
351.3000;1.0517;0.8280;
351.6000;1.0452;0.8102;
351.9000;1.0509;0.8178;
352.2000;1.0517;0.8255;
352.5000;1.0501;0.8306;
352.8000;1.0501;0.8331;
353.1000;1.0509;0.8382;
353.4000;1.0509;0.8408;
353.7000;1.0492;0.8306;
354.0000;1.0468;0.8204;
354.3000;1.0509;0.8204;
354.6000;1.0501;0.8153;
354.9000;1.0484;0.8076;
355.2000;1.0501;0.8102;
355.5000;1.0501;0.8102;
355.8000;1.0549;0.8204;
356.1000;1.0492;0.8127;
356.4000;1.0501;0.8178;
356.7000;1.0501;0.8153;
357.0000;1.0501;0.8229;
357.3000;1.0492;0.8229;
357.6000;1.0501;0.8306;
357.9000;1.0501;0.8280;
358.2000;1.0476;0.8306;
358.5000;1.0509;0.8382;
358.8000;1.0484;0.8408;
359.1000;1.0501;0.8331;
359.4000;1.0484;0.8280;
359.7000;1.0501;0.8280;
360.0000;1.0492;0.8357;
360.3000;1.0492;0.8408;
360.6000;1.0484;0.8433;
360.9000;1.0517;0.8510;
361.2000;1.0509;0.8484;
361.5000;1.0501;0.8510;
361.8000;1.0484;0.8433;
362.1000;1.0501;0.8408;
362.4000;1.0501;0.8357;
362.7000;1.0501;0.8280;
363.0000;1.0492;0.8459;
363.3000;1.0452;0.8306;
363.6000;1.0501;0.8459;
363.9000;1.0452;0.8357;
364.2000;1.0509;0.8408;
364.5000;1.0484;0.8306;
364.8000;1.0492;0.8408;
365.1000;1.0444;0.8331;
365.4000;1.0484;0.8382;
365.7000;1.0492;0.8433;
366.0000;1.0501;0.8408;
366.3000;1.0484;0.8331;
366.6000;1.0484;0.8255;
366.9000;1.0492;0.8306;
367.2000;1.0492;0.8408;
367.5000;1.0484;0.8408;
367.8000;1.0484;0.8484;
368.1000;1.0468;0.8408;
368.4000;1.0484;0.8357;
368.7000;1.0509;0.8357;
369.0000;1.0492;0.8331;
369.3000;1.0501;0.8459;
369.6000;1.0509;0.8433;
369.9000;1.0492;0.8357;
370.2000;1.0484;0.8433;
370.5000;1.0501;0.8510;
370.8000;1.0492;0.8459;
371.1000;1.0492;0.8382;
371.4000;1.0525;0.8408;
371.7000;1.0501;0.8382;
372.0000;1.0492;0.8357;
372.3000;1.0509;0.8459;
372.6000;1.0517;0.8535;
372.9000;1.0509;0.8484;
373.2000;1.0501;0.8510;
373.5000;1.0501;0.8433;
373.8000;1.0501;0.8408;
374.1000;1.0452;0.8331;
374.4000;1.0484;0.8382;
374.7000;1.0492;0.8382;
375.0000;1.0501;0.8408;
375.3000;1.0492;0.8408;
375.6000;1.0501;0.8484;
375.9000;1.0460;0.8357;
376.2000;1.0501;0.8484;
376.5000;1.0509;0.8433;
376.8000;1.0517;0.8357;
377.1000;1.0492;0.8306;
377.4000;1.0509;0.8255;
377.7000;1.0476;0.8204;
378.0000;1.0476;0.8280;
378.3000;1.0468;0.8255;
378.6000;1.0533;0.8484;
378.9000;1.0501;0.8382;
379.2000;1.0501;0.8306;
379.5000;1.0484;0.8229;
379.8000;1.0558;0.8357;
380.1000;1.0476;0.8178;
380.4000;1.0492;0.8280;
380.7000;1.0476;0.8255;
381.0000;1.0484;0.8357;
381.3000;1.0501;0.8433;
381.6000;1.0501;0.8510;
381.9000;1.0501;0.8484;
382.2000;1.0501;0.8433;
382.5000;1.0492;0.8612;
382.8000;1.0501;0.8586;
383.1000;1.0492;0.8535;
383.4000;1.0501;0.8510;
383.7000;1.0525;0.8459;
384.0000;1.0525;0.8357;
384.3000;1.0501;0.8306;
384.6000;1.0501;0.8280;
384.9000;1.0509;0.8331;
385.2000;1.0468;0.8255;
385.5000;1.0492;0.8306;
385.8000;1.0492;0.8357;
386.1000;1.0501;0.8433;
386.4000;1.0501;0.8433;
386.7000;1.0509;0.8433;
387.0000;1.0501;0.8433;
387.3000;1.0468;0.8331;
387.6000;1.0501;0.8382;
387.9000;1.0501;0.8331;
388.2000;1.0460;0.8280;
388.5000;1.0484;0.8382;
388.8000;1.0484;0.8382;
389.1000;1.0574;0.8662;
389.4000;1.0492;0.8408;
389.7000;1.0484;0.8408;
390.0000;1.0484;0.8459;
390.3000;1.0501;0.8484;
390.6000;1.0484;0.8408;
390.9000;1.0484;0.8357;
391.2000;1.0492;0.8382;
391.5000;1.0484;0.8357;
391.8000;1.0501;0.8408;
392.1000;1.0501;0.8459;
392.4000;1.0492;0.8459;
392.7000;1.0517;0.8510;
393.0000;1.0492;0.8408;
393.3000;1.0492;0.8484;
393.6000;1.0517;0.8535;
393.9000;1.0484;0.8459;
394.2000;1.0509;0.8535;
394.5000;1.0492;0.8433;
394.8000;1.0501;0.8433;
395.1000;1.0492;0.8484;
395.4000;1.0492;0.8433;
395.7000;1.0525;0.8408;
396.0000;1.0476;0.8178;
396.3000;1.0468;0.8102;
396.6000;1.0468;0.8051;
396.9000;1.0484;0.8102;
397.2000;1.0476;0.8127;
397.5000;1.0427;0.7949;
397.8000;1.0509;0.8204;
398.1000;1.0509;0.8229;
398.4000;1.0533;0.8229;
398.7000;1.0501;0.8178;
399.0000;1.0501;0.8255;
399.3000;1.0484;0.8280;
399.6000;1.0492;0.8331;
399.9000;1.0468;0.8280;
400.2000;1.0501;0.8433;
400.5000;1.0525;0.8459;
400.8000;1.0492;0.8331;
401.1000;1.0452;0.8255;
401.4000;1.0541;0.8408;
401.7000;1.0492;0.8280;
402.0000;1.0492;0.8255;
402.3000;1.0484;0.8204;
402.6000;1.0492;0.8204;
402.9000;1.0492;0.8204;
403.2000;1.0460;0.8051;
403.5000;1.0492;0.8204;
403.8000;1.0492;0.8178;
404.1000;1.0501;0.8178;
404.4000;1.0501;0.8153;
404.7000;1.0492;0.8000;
405.0000;1.0492;0.8026;
405.3000;1.0476;0.8076;
405.6000;1.0492;0.8102;
405.9000;1.0476;0.8127;
406.2000;1.0517;0.8331;
406.5000;1.0476;0.8178;
406.8000;1.0509;0.8178;
407.1000;1.0509;0.8153;
407.4000;1.0492;0.8127;
407.7000;1.0468;0.8076;
408.0000;1.0460;0.8026;
408.3000;1.0492;0.8026;
408.6000;1.0492;0.8051;
408.9000;1.0501;0.8076;
409.2000;1.0484;0.8000;
409.5000;1.0501;0.8051;
409.8000;1.0484;0.8000;
410.1000;1.0484;0.8026;
410.4000;1.0501;0.8026;
410.7000;1.0484;0.8026;
411.0000;1.0452;0.8000;
411.3000;1.0444;0.8051;
411.6000;1.0492;0.8178;
411.9000;1.0492;0.8229;
412.2000;1.0484;0.8255;
412.5000;1.0476;0.8280;
412.8000;1.0476;0.8229;
413.1000;1.0492;0.8229;
413.4000;1.0501;0.8331;
413.7000;1.0435;0.8229;
414.0000;1.0476;0.8331;
414.3000;1.0501;0.8357;
414.6000;1.0492;0.8306;
414.9000;1.0492;0.8178;
415.2000;1.0484;0.8178;
415.5000;1.0492;0.8255;
415.8000;1.0468;0.8229;
416.1000;1.0484;0.8204;
416.4000;1.0484;0.8229;
416.7000;1.0492;0.8331;
417.0000;1.0509;0.8408;
417.3000;1.0492;0.8382;
417.6000;1.0468;0.8331;
417.9000;1.0517;0.8357;
418.2000;1.0501;0.8382;
418.5000;1.0533;0.8408;
418.8000;1.0517;0.8280;
419.1000;1.0492;0.8204;
419.4000;1.0476;0.8102;
419.7000;1.0533;0.8280;
420.0000;1.0509;0.8357;
420.3000;1.0484;0.8306;
420.6000;1.0574;0.8459;
420.9000;1.0476;0.8229;
421.2000;1.0476;0.8204;
421.5000;1.0492;0.8229;
421.8000;1.0460;0.8153;
422.1000;1.0484;0.8280;
422.4000;1.0492;0.8331;
422.7000;1.0484;0.8306;
423.0000;1.0501;0.8357;
423.3000;1.0517;0.8357;
423.6000;1.0492;0.8306;
423.9000;1.0492;0.8382;
424.2000;1.0509;0.8433;
424.5000;1.0484;0.8408;
424.8000;1.0509;0.8408;
425.1000;1.0525;0.8484;
425.4000;1.0492;0.8433;
425.7000;1.0484;0.8357;
426.0000;1.0476;0.8229;
426.3000;1.0476;0.8178;
426.6000;1.0476;0.8229;
426.9000;1.0501;0.8255;
427.2000;1.0476;0.8127;
427.5000;1.0484;0.8102;
427.8000;1.0460;0.8076;
428.1000;1.0476;0.8178;
428.4000;1.0501;0.8204;
428.7000;1.0427;0.8051;
429.0000;1.0501;0.8229;
429.3000;1.0492;0.8357;
429.6000;1.0501;0.8510;
429.9000;1.0501;0.8561;
430.2000;1.0501;0.8586;
430.5000;1.0492;0.8510;
430.8000;1.0484;0.8433;
431.1000;1.0517;0.8433;
431.4000;1.0484;0.8382;
431.7000;1.0501;0.8331;
432.0000;1.0476;0.8255;
432.3000;1.0484;0.8280;
432.6000;1.0509;0.8306;
432.9000;1.0484;0.8153;
433.2000;1.0492;0.8204;
433.5000;1.0501;0.8280;
433.8000;1.0484;0.8255;
434.1000;1.0492;0.8331;
434.4000;1.0492;0.8433;
434.7000;1.0492;0.8535;
435.0000;1.0509;0.8561;
435.3000;1.0492;0.8459;
435.6000;1.0492;0.8306;
435.9000;1.0501;0.8331;
436.2000;1.0492;0.8280;
436.5000;1.0476;0.8229;
436.8000;1.0484;0.8153;
437.1000;1.0484;0.8102;
437.4000;1.0484;0.8102;
437.7000;1.0484;0.8127;
438.0000;1.0444;0.8051;
438.3000;1.0484;0.8204;
438.6000;1.0509;0.8229;
438.9000;1.0501;0.8178;
439.2000;1.0517;0.8178;
439.5000;1.0501;0.8153;
439.8000;1.0501;0.8127;
440.1000;1.0484;0.8153;
440.4000;1.0444;0.8076;
440.7000;1.0476;0.8178;
441.0000;1.0484;0.8204;
441.3000;1.0492;0.8255;
441.6000;1.0460;0.8229;
441.9000;1.0476;0.8255;
442.2000;1.0476;0.8331;
442.5000;1.0476;0.8382;
442.8000;1.0501;0.8408;
443.1000;1.0476;0.8357;
443.4000;1.0403;0.8204;
443.7000;1.0484;0.8306;
444.0000;1.0476;0.8306;
444.3000;1.0484;0.8153;
444.6000;1.0517;0.8255;
444.9000;1.0492;0.8153;
445.2000;1.0509;0.8204;
445.5000;1.0492;0.8127;
445.8000;1.0484;0.8026;
446.1000;1.0492;0.8127;
446.4000;1.0476;0.8076;
446.7000;1.0484;0.8178;
447.0000;1.0476;0.8306;
447.3000;1.0476;0.8357;
447.6000;1.0484;0.8408;
447.9000;1.0501;0.8408;
448.2000;1.0517;0.8484;
448.5000;1.0501;0.8433;
448.8000;1.0484;0.8408;
449.1000;1.0492;0.8433;
449.4000;1.0501;0.8459;
449.7000;1.0501;0.8459;
450.0000;1.0460;0.8433;
450.3000;1.0492;0.8535;
450.6000;1.0501;0.8535;
450.9000;1.0492;0.8459;
451.2000;1.0525;0.8510;
451.5000;1.0501;0.8433;
451.8000;1.0501;0.8459;
452.1000;1.0476;0.8433;
452.4000;1.0484;0.8433;
452.7000;1.0468;0.8433;
453.0000;1.0484;0.8510;
453.3000;1.0476;0.8459;
453.6000;1.0484;0.8484;
453.9000;1.0484;0.8510;
454.2000;1.0492;0.8433;
454.5000;1.0492;0.8357;
454.8000;1.0484;0.8382;
455.1000;1.0476;0.8382;
455.4000;1.0492;0.8382;
455.7000;1.0484;0.8484;
456.0000;1.0501;0.8459;
456.3000;1.0468;0.8382;
456.6000;1.0476;0.8433;
456.9000;1.0460;0.8408;
457.2000;1.0468;0.8408;
457.5000;1.0468;0.8357;
457.8000;1.0476;0.8331;
458.1000;1.0492;0.8459;
458.4000;1.0484;0.8382;
458.7000;1.0484;0.8382;
459.0000;1.0484;0.8408;
459.3000;1.0484;0.8357;
459.6000;1.0484;0.8408;
459.9000;1.0484;0.8408;
460.2000;1.0484;0.8459;
460.5000;1.0476;0.8459;
460.8000;1.0501;0.8484;
461.1000;1.0476;0.8459;
461.4000;1.0468;0.8408;
461.7000;1.0484;0.8331;
462.0000;1.0492;0.8357;
462.3000;1.0476;0.8306;
462.6000;1.0460;0.8280;
462.9000;1.0484;0.8306;
463.2000;1.0484;0.8280;
463.5000;1.0476;0.8280;
463.8000;1.0476;0.8280;
464.1000;1.0509;0.8382;
464.4000;1.0492;0.8408;
464.7000;1.0444;0.8331;
465.0000;1.0484;0.8382;
465.3000;1.0492;0.8459;
465.6000;1.0484;0.8510;
465.9000;1.0492;0.8510;
466.2000;1.0501;0.8459;
466.5000;1.0492;0.8382;
466.8000;1.0492;0.8433;
467.1000;1.0484;0.8408;
467.4000;1.0484;0.8357;
467.7000;1.0509;0.8408;
468.0000;1.0517;0.8408;
468.3000;1.0492;0.8357;
468.6000;1.0484;0.8408;
468.9000;1.0484;0.8459;
469.2000;1.0460;0.8382;
469.5000;1.0492;0.8408;
469.8000;1.0484;0.8408;
470.1000;1.0492;0.8408;
470.4000;1.0476;0.8357;
470.7000;1.0492;0.8382;
471.0000;1.0484;0.8331;
471.3000;1.0484;0.8357;
471.6000;1.0468;0.8331;
471.9000;1.0476;0.8433;
472.2000;1.0468;0.8382;
472.5000;1.0460;0.8382;
472.8000;1.0509;0.8459;
473.1000;1.0484;0.8382;
473.4000;1.0492;0.8357;
473.7000;1.0492;0.8255;
474.0000;1.0509;0.8255;
474.3000;1.0476;0.8204;
474.6000;1.0533;0.8357;
474.9000;1.0476;0.8153;
475.2000;1.0484;0.8229;
475.5000;1.0476;0.8204;
475.8000;1.0501;0.8306;
476.1000;1.0501;0.8280;
476.4000;1.0476;0.8331;
476.7000;1.0476;0.8382;
477.0000;1.0484;0.8408;
477.3000;1.0484;0.8331;
477.6000;1.0484;0.8382;
477.9000;1.0476;0.8331;
478.2000;1.0501;0.8433;
478.5000;1.0476;0.8306;
478.8000;1.0541;0.8535;
479.1000;1.0452;0.8306;
479.4000;1.0484;0.8357;
479.7000;1.0484;0.8331;
480.0000;1.0460;0.8331;
480.3000;1.0435;0.8255;
480.6000;1.0476;0.8382;
480.9000;1.0501;0.8408;
481.2000;1.0468;0.8306;
481.5000;1.0476;0.8255;
481.8000;1.0444;0.8178;
482.1000;1.0444;0.8204;
482.4000;1.0476;0.8255;
482.7000;1.0452;0.8229;
483.0000;1.0476;0.8229;
483.3000;1.0484;0.8178;
483.6000;1.0501;0.8357;
483.9000;1.0460;0.8306;
484.2000;1.0492;0.8510;
484.5000;1.0492;0.8510;
484.8000;1.0492;0.8612;
485.1000;1.0468;0.8586;
485.4000;1.0468;0.8688;
485.7000;1.0460;0.8612;
486.0000;1.0492;0.8662;
486.3000;1.0492;0.8713;
486.6000;1.0476;0.8688;
486.9000;1.0492;0.8688;
487.2000;1.0492;0.8739;
487.5000;1.0492;0.8739;
487.8000;1.0476;0.8662;
488.1000;1.0476;0.8535;
488.4000;1.0476;0.8484;
488.7000;1.0460;0.8408;
489.0000;1.0476;0.8484;
489.3000;1.0476;0.8484;
489.6000;1.0476;0.8510;
489.9000;1.0484;0.8561;
490.2000;1.0484;0.8535;
490.5000;1.0484;0.8433;
490.8000;1.0492;0.8433;
491.1000;1.0501;0.8459;
491.4000;1.0501;0.8484;
491.7000;1.0492;0.8459;
492.0000;1.0492;0.8433;
492.3000;1.0484;0.8586;
492.6000;1.0484;0.8535;
492.9000;1.0492;0.8459;
493.2000;1.0476;0.8408;
493.5000;1.0484;0.8408;
493.8000;1.0501;0.8459;
494.1000;1.0484;0.8484;
494.4000;1.0476;0.8484;
494.7000;1.0501;0.8510;
495.0000;1.0525;0.8612;
495.3000;1.0501;0.8510;
495.6000;1.0452;0.8382;
495.9000;1.0468;0.8331;
496.2000;1.0484;0.8408;
496.5000;1.0492;0.8382;
496.8000;1.0525;0.8433;
497.1000;1.0517;0.8382;
497.4000;1.0484;0.8255;
497.7000;1.0468;0.8306;
498.0000;1.0476;0.8331;
498.3000;1.0476;0.8280;
498.6000;1.0435;0.8153;
498.9000;1.0468;0.8280;
499.2000;1.0460;0.8127;
499.5000;1.0468;0.8178;
499.8000;1.0452;0.8204;
500.1000;1.0484;0.8255;
500.4000;1.0460;0.8204;
500.7000;1.0484;0.8127;
501.0000;1.0476;0.8076;
501.3000;1.0460;0.8102;
501.6000;1.0492;0.8153;
501.9000;1.0460;0.8204;
502.2000;1.0468;0.8178;
502.5000;1.0476;0.8204;
502.8000;1.0452;0.8153;
503.1000;1.0492;0.8229;
503.4000;1.0468;0.8255;
503.7000;1.0492;0.8331;
504.0000;1.0468;0.8331;
504.3000;1.0452;0.8280;
504.6000;1.0484;0.8280;
504.9000;1.0476;0.8280;
505.2000;1.0460;0.8306;
505.5000;1.0484;0.8357;
505.8000;1.0484;0.8280;
506.1000;1.0492;0.8255;
506.4000;1.0492;0.8357;
506.7000;1.0492;0.8357;
507.0000;1.0476;0.8306;
507.3000;1.0476;0.8306;
507.6000;1.0484;0.8331;
507.9000;1.0476;0.8280;
508.2000;1.0460;0.8255;
508.5000;1.0476;0.8382;
508.8000;1.0468;0.8510;
509.1000;1.0460;0.8459;
509.4000;1.0468;0.8535;
509.7000;1.0460;0.8510;
510.0000;1.0484;0.8561;
510.3000;1.0492;0.8484;
510.6000;1.0484;0.8459;
510.9000;1.0484;0.8382;
511.2000;1.0492;0.8357;
511.5000;1.0444;0.8204;
511.8000;1.0476;0.8306;
512.1000;1.0484;0.8357;
512.4000;1.0501;0.8459;
512.7000;1.0509;0.8459;
513.0000;1.0484;0.8408;
513.3000;1.0484;0.8433;
513.6000;1.0460;0.8357;
513.9000;1.0476;0.8408;
514.2000;1.0484;0.8408;
514.5000;1.0476;0.8382;
514.8000;1.0468;0.8331;
515.1000;1.0460;0.8331;
515.4000;1.0460;0.8331;
515.7000;1.0476;0.8382;
516.0000;1.0468;0.8408;
516.3000;1.0484;0.8331;
516.6000;1.0492;0.8306;
516.9000;1.0468;0.8357;
517.2000;1.0460;0.8331;
517.5000;1.0476;0.8484;
517.8000;1.0476;0.8484;
518.1000;1.0460;0.8433;
518.4000;1.0484;0.8433;
518.7000;1.0468;0.8459;
519.0000;1.0484;0.8510;
519.3000;1.0476;0.8561;
519.6000;1.0476;0.8586;
519.9000;1.0476;0.8612;
520.2000;1.0460;0.8586;
520.5000;1.0476;0.8739;
520.8000;1.0452;0.8688;
521.1000;1.0484;0.8815;
521.4000;1.0476;0.8739;
521.7000;1.0509;0.8790;
522.0000;1.0476;0.8688;
522.3000;1.0484;0.8688;
522.6000;1.0476;0.8637;
522.9000;1.0468;0.8637;
523.2000;1.0476;0.8637;
523.5000;1.0468;0.8637;
523.8000;1.0476;0.8688;
524.1000;1.0468;0.8713;
524.4000;1.0476;0.8662;
524.7000;1.0452;0.8586;
525.0000;1.0484;0.8535;
525.3000;1.0484;0.8484;
525.6000;1.0484;0.8433;
525.9000;1.0484;0.8408;
526.2000;1.0476;0.8357;
526.5000;1.0492;0.8459;
526.8000;1.0476;0.8357;
527.1000;1.0484;0.8306;
527.4000;1.0468;0.8357;
527.7000;1.0476;0.8306;
528.0000;1.0541;0.8459;
528.3000;1.0484;0.8408;
528.6000;1.0476;0.8331;
528.9000;1.0460;0.8280;
529.2000;1.0484;0.8280;
529.5000;1.0492;0.8229;
529.8000;1.0460;0.8178;
530.1000;1.0484;0.8255;
530.4000;1.0484;0.8382;
530.7000;1.0476;0.8408;
531.0000;1.0484;0.8459;
531.3000;1.0484;0.8433;
531.6000;1.0460;0.8408;
531.9000;1.0468;0.8459;
532.2000;1.0484;0.8459;
532.5000;1.0460;0.8459;
532.8000;1.0484;0.8510;
533.1000;1.0468;0.8382;
533.4000;1.0484;0.8357;
533.7000;1.0476;0.8306;
534.0000;1.0452;0.8280;
534.3000;1.0476;0.8382;
534.6000;1.0468;0.8331;
534.9000;1.0501;0.8357;
535.2000;1.0452;0.8102;
535.5000;1.0468;0.8255;
535.8000;1.0484;0.8255;
536.1000;1.0476;0.8280;
536.4000;1.0476;0.8255;
536.7000;1.0484;0.8229;
537.0000;1.0484;0.8255;
537.3000;1.0460;0.8306;
537.6000;1.0476;0.8459;
537.9000;1.0484;0.8510;
538.2000;1.0476;0.8561;
538.5000;1.0476;0.8484;
538.8000;1.0468;0.8459;
539.1000;1.0476;0.8357;
539.4000;1.0492;0.8331;
539.7000;1.0476;0.8255;
540.0000;1.0476;0.8357;
540.3000;1.0460;0.8408;
540.6000;1.0460;0.8433;
540.9000;1.0484;0.8612;
541.2000;1.0476;0.8612;
541.5000;1.0468;0.8612;
541.8000;1.0460;0.8561;
542.1000;1.0484;0.8612;
542.4000;1.0460;0.8662;
542.7000;1.0444;0.8561;
543.0000;1.0484;0.8586;
543.3000;1.0468;0.8510;
543.6000;1.0476;0.8408;
543.9000;1.0460;0.8484;
544.2000;1.0435;0.8459;
544.5000;1.0468;0.8459;
544.8000;1.0476;0.8433;
545.1000;1.0460;0.8280;
545.4000;1.0452;0.8382;
545.7000;1.0444;0.8357;
546.0000;1.0484;0.8433;
546.3000;1.0468;0.8459;
546.6000;1.0476;0.8408;
546.9000;1.0468;0.8408;
547.2000;1.0476;0.8510;
547.5000;1.0484;0.8637;
547.8000;1.0476;0.8561;
548.1000;1.0476;0.8561;
548.4000;1.0476;0.8535;
548.7000;1.0468;0.8510;
549.0000;1.0444;0.8433;
549.3000;1.0468;0.8561;
549.6000;1.0484;0.8586;
549.9000;1.0468;0.8510;
550.2000;1.0476;0.8535;
550.5000;1.0484;0.8561;
550.8000;1.0452;0.8510;
551.1000;1.0452;0.8586;
551.4000;1.0484;0.8637;
551.7000;1.0476;0.8535;
552.0000;1.0476;0.8713;
552.3000;1.0492;0.8790;
552.6000;1.0484;0.8713;
552.9000;1.0484;0.8637;
553.2000;1.0476;0.8586;
553.5000;1.0484;0.8510;
553.8000;1.0492;0.8484;
554.1000;1.0484;0.8459;
554.4000;1.0476;0.8510;
554.7000;1.0476;0.8561;
555.0000;1.0484;0.8612;
555.3000;1.0468;0.8561;
555.6000;1.0460;0.8662;
555.9000;1.0476;0.8688;
556.2000;1.0492;0.8688;
556.5000;1.0484;0.8612;
556.8000;1.0468;0.8535;
557.1000;1.0541;0.8764;
557.4000;1.0476;0.8637;
557.7000;1.0435;0.8637;
558.0000;1.0476;0.8739;
558.3000;1.0468;0.8637;
558.6000;1.0476;0.8739;
558.9000;1.0468;0.8637;
559.2000;1.0484;0.8612;
559.5000;1.0468;0.8459;
559.8000;1.0476;0.8484;
560.1000;1.0476;0.8510;
560.4000;1.0476;0.8561;
560.7000;1.0460;0.8561;
561.0000;1.0468;0.8561;
561.3000;1.0476;0.8637;
561.6000;1.0484;0.8637;
561.9000;1.0484;0.8637;
562.2000;1.0476;0.8713;
562.5000;1.0492;0.8713;
562.8000;1.0476;0.8739;
563.1000;1.0476;0.8662;
563.4000;1.0476;0.8637;
563.7000;1.0476;0.8561;
564.0000;1.0460;0.8535;
564.3000;1.0460;0.8510;
564.6000;1.0468;0.8484;
564.9000;1.0484;0.8510;
565.2000;1.0541;0.8764;
565.5000;1.0476;0.8535;
565.8000;1.0460;0.8510;
566.1000;1.0460;0.8535;
566.4000;1.0484;0.8612;
566.7000;1.0460;0.8535;
567.0000;1.0484;0.8535;
567.3000;1.0517;0.8586;
567.6000;1.0476;0.8535;
567.9000;1.0468;0.8484;
568.2000;1.0525;0.8612;
568.5000;1.0444;0.8408;
568.8000;1.0460;0.8433;
569.1000;1.0468;0.8357;
569.4000;1.0468;0.8382;
569.7000;1.0452;0.8382;
570.0000;1.0468;0.8408;
570.3000;1.0476;0.8357;
570.6000;1.0460;0.8382;
570.9000;1.0460;0.8357;
571.2000;1.0460;0.8408;
571.5000;1.0460;0.8408;
571.8000;1.0476;0.8459;
572.1000;1.0460;0.8408;
572.4000;1.0460;0.8433;
572.7000;1.0484;0.8459;
573.0000;1.0509;0.8433;
573.3000;1.0460;0.8280;
573.6000;1.0452;0.8255;
573.9000;1.0468;0.8178;
574.2000;1.0476;0.8178;
574.5000;1.0452;0.8153;
574.8000;1.0444;0.8102;
575.1000;1.0468;0.8229;
575.4000;1.0468;0.8280;
575.7000;1.0476;0.8306;
576.0000;1.0468;0.8306;
576.3000;1.0452;0.8178;
576.6000;1.0444;0.8127;
576.9000;1.0468;0.8204;
577.2000;1.0484;0.8229;
577.5000;1.0476;0.8178;
577.8000;1.0468;0.8178;
578.1000;1.0476;0.8280;
578.4000;1.0484;0.8229;
578.7000;1.0484;0.8229;
579.0000;1.0476;0.8178;
579.3000;1.0468;0.8153;
579.6000;1.0476;0.8229;
579.9000;1.0460;0.8153;
580.2000;1.0484;0.8153;
580.5000;1.0476;0.8153;
580.8000;1.0460;0.8178;
581.1000;1.0468;0.8255;
581.4000;1.0468;0.8255;
581.7000;1.0468;0.8204;
582.0000;1.0468;0.8255;
582.3000;1.0452;0.8306;
582.6000;1.0452;0.8306;
582.9000;1.0468;0.8255;
583.2000;1.0476;0.8306;
583.5000;1.0452;0.8255;
583.8000;1.0468;0.8280;
584.1000;1.0435;0.8153;
584.4000;1.0468;0.8229;
584.7000;1.0484;0.8178;
585.0000;1.0452;0.8178;
585.3000;1.0460;0.8178;
585.6000;1.0468;0.8204;
585.9000;1.0460;0.8153;
586.2000;1.0517;0.8306;
586.5000;1.0476;0.8255;
586.8000;1.0460;0.8229;
587.1000;1.0452;0.8280;
587.4000;1.0444;0.8280;
587.7000;1.0484;0.8382;
588.0000;1.0476;0.8280;
588.3000;1.0468;0.8255;
588.6000;1.0460;0.8255;
588.9000;1.0460;0.8229;
589.2000;1.0501;0.8280;
589.5000;1.0468;0.8204;
589.8000;1.0460;0.8229;
590.1000;1.0444;0.8178;
590.4000;1.0452;0.8255;
590.7000;1.0444;0.8357;
591.0000;1.0468;0.8433;
591.3000;1.0435;0.8357;
591.6000;1.0411;0.8204;
591.9000;1.0476;0.8408;
592.2000;1.0476;0.8433;
592.5000;1.0476;0.8408;
592.8000;1.0476;0.8433;
593.1000;1.0476;0.8357;
593.4000;1.0476;0.8306;
593.7000;1.0460;0.8280;
594.0000;1.0460;0.8331;
594.3000;1.0452;0.8357;
594.6000;1.0460;0.8306;
594.9000;1.0452;0.8255;
595.2000;1.0476;0.8153;
595.5000;1.0460;0.8153;
595.8000;1.0476;0.8153;
596.1000;1.0476;0.8127;
596.4000;1.0403;0.7949;
596.7000;1.0460;0.7949;
597.0000;1.0411;0.7796;
597.3000;1.0452;0.7898;
597.6000;1.0444;0.7949;
597.9000;1.0460;0.7949;
598.2000;1.0460;0.7949;
598.5000;1.0476;0.7949;
598.8000;1.0427;0.7796;
599.1000;1.0460;0.7924;
599.4000;1.0460;0.7924;
599.7000;1.0476;0.7924;
600.0000;1.0460;0.7873;
600.3000;1.0460;0.7796;
600.6000;1.0468;0.7669;
600.9000;1.0419;0.7440;
601.2000;1.0362;0.7185;
601.5000;1.0297;0.7006;
601.8000;1.0224;0.6752;
602.1000;1.0183;0.6777;
602.4000;1.0102;0.6522;
602.7000;1.0037;0.6395;
603.0000;0.9963;0.6242;
603.3000;0.9915;0.6191;
603.6000;0.9858;0.6115;
603.9000;0.9784;0.6064;
604.2000;0.9744;0.5987;
604.5000;0.9687;0.5936;
604.8000;0.9646;0.5962;
605.1000;0.9589;0.5885;
605.4000;0.9573;0.5885;
605.7000;0.9524;0.5809;
606.0000;0.9532;0.5860;
606.3000;0.9467;0.5707;
606.6000;0.9402;0.5580;
606.9000;0.9320;0.5554;
607.2000;0.9353;0.5656;
607.5000;0.9312;0.5580;
607.8000;0.9296;0.5580;
608.1000;0.9312;0.5733;
608.4000;0.9239;0.5605;
608.7000;0.9296;0.5783;
609.0000;0.9174;0.5554;
609.3000;0.9141;0.5631;
609.6000;0.9125;0.5580;
609.9000;0.9084;0.5605;
610.2000;0.9068;0.5554;
610.5000;0.9052;0.5554;
610.8000;0.9019;0.5605;
611.1000;0.8954;0.5452;
611.4000;0.8970;0.5554;
611.7000;0.8938;0.5554;
612.0000;0.8913;0.5554;
612.3000;0.8913;0.5580;
612.6000;0.8889;0.5529;
612.9000;0.8873;0.5605;
613.2000;0.8848;0.5554;
613.5000;0.8840;0.5631;
613.8000;0.8832;0.5631;
614.1000;0.8775;0.5503;
614.4000;0.8775;0.5580;
614.7000;0.8791;0.5733;
615.0000;0.8742;0.5529;
615.3000;0.8742;0.5554;
615.6000;0.8702;0.5478;
615.9000;0.8702;0.5452;
616.2000;0.8702;0.5554;
616.5000;0.8661;0.5478;
616.8000;0.8653;0.5478;
617.1000;0.8628;0.5427;
617.4000;0.8628;0.5401;
617.7000;0.8604;0.5274;
618.0000;0.8596;0.5223;
618.3000;0.8596;0.5274;
618.6000;0.8580;0.5274;
618.9000;0.8563;0.5248;
619.2000;0.8547;0.5274;
619.5000;0.8547;0.5478;
619.8000;0.8555;0.5580;
620.1000;0.8523;0.5401;
620.4000;0.8498;0.5376;
620.7000;0.8506;0.5452;
621.0000;0.8449;0.5401;
621.3000;0.8466;0.5452;
621.6000;0.8449;0.5401;
621.9000;0.8425;0.5427;
622.2000;0.8433;0.5427;
622.5000;0.8425;0.5478;
622.8000;0.8417;0.5503;
623.1000;0.8409;0.5478;
623.4000;0.8392;0.5529;
623.7000;0.8400;0.5631;
624.0000;0.8376;0.5605;
624.3000;0.8368;0.5682;
624.6000;0.8352;0.5580;
624.9000;0.8352;0.5554;
625.2000;0.8319;0.5478;
625.5000;0.8278;0.5401;
625.8000;0.8311;0.5554;
626.1000;0.8319;0.5529;
626.4000;0.8295;0.5529;
626.7000;0.8303;0.5529;
627.0000;0.8278;0.5503;
627.3000;0.8278;0.5427;
627.6000;0.8262;0.5427;
627.9000;0.8254;0.5401;
628.2000;0.8197;0.5350;
628.5000;0.8181;0.5350;
628.8000;0.8238;0.5554;
629.1000;0.8246;0.5605;
629.4000;0.8213;0.5478;
629.7000;0.8205;0.5529;
630.0000;0.8221;0.5580;
630.3000;0.8213;0.5452;
630.6000;0.8173;0.5427;
630.9000;0.8173;0.5427;
631.2000;0.8148;0.5503;
631.5000;0.8173;0.5554;
631.8000;0.8148;0.5605;
632.1000;0.8148;0.5554;
632.4000;0.8140;0.5529;
632.7000;0.8148;0.5529;
633.0000;0.8132;0.5478;
633.3000;0.8132;0.5529;
633.6000;0.8132;0.5478;
633.9000;0.8116;0.5503;
634.2000;0.8099;0.5529;
634.5000;0.8099;0.5529;
634.8000;0.8099;0.5554;
635.1000;0.8099;0.5529;
635.4000;0.8099;0.5427;
635.7000;0.8091;0.5376;
636.0000;0.8042;0.5274;
636.3000;0.8042;0.5401;
636.6000;0.8067;0.5529;
636.9000;0.8042;0.5554;
637.2000;0.7993;0.5376;
637.5000;0.8042;0.5529;
637.8000;0.8042;0.5529;
638.1000;0.8002;0.5503;
638.4000;0.8002;0.5401;
638.7000;0.7993;0.5427;
639.0000;0.8059;0.5682;
639.3000;0.8010;0.5605;
639.6000;0.7977;0.5580;
639.9000;0.7985;0.5580;
640.2000;0.7977;0.5554;
640.5000;0.7969;0.5529;
640.8000;0.7969;0.5478;
641.1000;0.7969;0.5503;
641.4000;0.7937;0.5427;
641.7000;0.8010;0.5605;
642.0000;0.7961;0.5503;
642.3000;0.7928;0.5401;
642.6000;0.7945;0.5427;
642.9000;0.7937;0.5376;
643.2000;0.7896;0.5172;
643.5000;0.7912;0.5325;
643.8000;0.7928;0.5376;
644.1000;0.7912;0.5427;
644.4000;0.7920;0.5376;
644.7000;0.7928;0.5401;
645.0000;0.7912;0.5452;
645.3000;0.7896;0.5478;
645.6000;0.7896;0.5452;
645.9000;0.7839;0.5248;
646.2000;0.7880;0.5401;
646.5000;0.7863;0.5376;
646.8000;0.7790;0.5197;
647.1000;0.7831;0.5299;
647.4000;0.7847;0.5350;
647.7000;0.7863;0.5478;
648.0000;0.7871;0.5478;
648.3000;0.7855;0.5529;
648.6000;0.7839;0.5503;
648.9000;0.7855;0.5452;
649.2000;0.7831;0.5452;
649.5000;0.7855;0.5554;
649.8000;0.7823;0.5631;
650.1000;0.7806;0.5554;
650.4000;0.7823;0.5529;
650.7000;0.7831;0.5529;
651.0000;0.7831;0.5605;
651.3000;0.7831;0.5605;
651.6000;0.7790;0.5554;
651.9000;0.7749;0.5427;
652.2000;0.7757;0.5478;
652.5000;0.7798;0.5529;
652.8000;0.7774;0.5478;
653.1000;0.7782;0.5605;
653.4000;0.7766;0.5580;
653.7000;0.7774;0.5631;
654.0000;0.7725;0.5529;
654.3000;0.7749;0.5631;
654.6000;0.7757;0.5682;
654.9000;0.7757;0.5554;
655.2000;0.7757;0.5529;
655.5000;0.7757;0.5401;
655.8000;0.7749;0.5376;
656.1000;0.7741;0.5401;
656.4000;0.7733;0.5325;
656.7000;0.7725;0.5274;
657.0000;0.7733;0.5274;
657.3000;0.7709;0.5325;
657.6000;0.7676;0.5248;
657.9000;0.7725;0.5350;
658.2000;0.7717;0.5350;
658.5000;0.7709;0.5376;
658.8000;0.7717;0.5427;
659.1000;0.7692;0.5350;
659.4000;0.7668;0.5401;
659.7000;0.7709;0.5401;
660.0000;0.7652;0.5350;
660.3000;0.7652;0.5325;
660.6000;0.7676;0.5376;
660.9000;0.7692;0.5452;
661.2000;0.7668;0.5350;
661.5000;0.7668;0.5350;
661.8000;0.7668;0.5325;
662.1000;0.7643;0.5248;
662.4000;0.7660;0.5299;
662.7000;0.7643;0.5350;
663.0000;0.7652;0.5478;
663.3000;0.7627;0.5478;
663.6000;0.7595;0.5452;
663.9000;0.7635;0.5503;
664.2000;0.7627;0.5529;
664.5000;0.7635;0.5554;
664.8000;0.7643;0.5529;
665.1000;0.7619;0.5452;
665.4000;0.7603;0.5401;
665.7000;0.7611;0.5452;
666.0000;0.7627;0.5452;
666.3000;0.7611;0.5427;
666.6000;0.7619;0.5427;
666.9000;0.7562;0.5299;
667.2000;0.7611;0.5478;
667.5000;0.7595;0.5529;
667.8000;0.7578;0.5478;
668.1000;0.7595;0.5452;
668.4000;0.7603;0.5401;
668.7000;0.7570;0.5350;
669.0000;0.7586;0.5401;
669.3000;0.7586;0.5350;
669.6000;0.7586;0.5401;
669.9000;0.7595;0.5427;
670.2000;0.7578;0.5452;
670.5000;0.7570;0.5401;
670.8000;0.7578;0.5478;
671.1000;0.7586;0.5503;
671.4000;0.7562;0.5401;
671.7000;0.7562;0.5478;
672.0000;0.7546;0.5376;
672.3000;0.7570;0.5376;
672.6000;0.7538;0.5325;
672.9000;0.7603;0.5427;
673.2000;0.7546;0.5376;
673.5000;0.7554;0.5325;
673.8000;0.7554;0.5350;
674.1000;0.7538;0.5350;
674.4000;0.7530;0.5376;
674.7000;0.7578;0.5529;
675.0000;0.7554;0.5554;
675.3000;0.7578;0.5682;
675.6000;0.7513;0.5452;
675.9000;0.7538;0.5529;
676.2000;0.7530;0.5580;
676.5000;0.7530;0.5580;
676.8000;0.7448;0.5350;
677.1000;0.7489;0.5376;
677.4000;0.7513;0.5401;
677.7000;0.7505;0.5427;
678.0000;0.7416;0.5274;
678.3000;0.7473;0.5452;
678.6000;0.7497;0.5452;
678.9000;0.7481;0.5427;
679.2000;0.7464;0.5325;
679.5000;0.7505;0.5452;
679.8000;0.7489;0.5452;
680.1000;0.7497;0.5401;
680.4000;0.7464;0.5427;
680.7000;0.7489;0.5376;
681.0000;0.7481;0.5325;
681.3000;0.7481;0.5274;
681.6000;0.7473;0.5248;
681.9000;0.7473;0.5325;
682.2000;0.7464;0.5223;
682.5000;0.7481;0.5274;
682.8000;0.7424;0.5096;
683.1000;0.7448;0.5172;
683.4000;0.7473;0.5325;
683.7000;0.7497;0.5503;
684.0000;0.7473;0.5452;
684.3000;0.7440;0.5350;
684.6000;0.7464;0.5452;
684.9000;0.7456;0.5554;
685.2000;0.7424;0.5554;
685.5000;0.7481;0.5656;
685.8000;0.7432;0.5478;
686.1000;0.7432;0.5554;
686.4000;0.7432;0.5503;
686.7000;0.7432;0.5452;
687.0000;0.7416;0.5325;
687.3000;0.7407;0.5350;
687.6000;0.7424;0.5427;
687.9000;0.7448;0.5580;
688.2000;0.7416;0.5529;
688.5000;0.7416;0.5631;
688.8000;0.7424;0.5605;
689.1000;0.7416;0.5529;
689.4000;0.7407;0.5529;
689.7000;0.7383;0.5452;
690.0000;0.7399;0.5478;
690.3000;0.7399;0.5452;
690.6000;0.7416;0.5478;
690.9000;0.7383;0.5401;
691.2000;0.7399;0.5503;
691.5000;0.7416;0.5529;
691.8000;0.7399;0.5427;
692.1000;0.7407;0.5401;
692.4000;0.7399;0.5427;
692.7000;0.7407;0.5503;
693.0000;0.7383;0.5401;
693.3000;0.7383;0.5401;
693.6000;0.7375;0.5401;
693.9000;0.7416;0.5580;
694.2000;0.7375;0.5452;
694.5000;0.7375;0.5427;
694.8000;0.7375;0.5376;
695.1000;0.7383;0.5427;
695.4000;0.7383;0.5376;
695.7000;0.7359;0.5274;
696.0000;0.7367;0.5248;
696.3000;0.7367;0.5248;
696.6000;0.7350;0.5223;
696.9000;0.7350;0.5274;
697.2000;0.7367;0.5325;
697.5000;0.7359;0.5376;
697.8000;0.7350;0.5350;
698.1000;0.7310;0.5248;
698.4000;0.7342;0.5299;
698.7000;0.7310;0.5274;
699.0000;0.7334;0.5452;
699.3000;0.7432;0.5707;
699.6000;0.7342;0.5427;
699.9000;0.7359;0.5529;
700.2000;0.7350;0.5503;
700.5000;0.7350;0.5427;
700.8000;0.7375;0.5554;
701.1000;0.7326;0.5452;
701.4000;0.7342;0.5401;
701.7000;0.7334;0.5401;
702.0000;0.7318;0.5478;
702.3000;0.7326;0.5580;
702.6000;0.7342;0.5529;
702.9000;0.7334;0.5427;
703.2000;0.7285;0.5350;
703.5000;0.7326;0.5478;
703.8000;0.7318;0.5427;
704.1000;0.7326;0.5478;
704.4000;0.7326;0.5427;
704.7000;0.7310;0.5401;
705.0000;0.7383;0.5631;
705.3000;0.7310;0.5478;
705.6000;0.7326;0.5376;
705.9000;0.7310;0.5299;
706.2000;0.7326;0.5350;
706.5000;0.7318;0.5376;
706.8000;0.7334;0.5401;
707.1000;0.7277;0.5248;
707.4000;0.7342;0.5427;
707.7000;0.7302;0.5325;
708.0000;0.7302;0.5325;
708.3000;0.7302;0.5350;
708.6000;0.7293;0.5478;
708.9000;0.7277;0.5427;
709.2000;0.7293;0.5503;
709.5000;0.7293;0.5580;
709.8000;0.7245;0.5452;
710.1000;0.7236;0.5401;
710.4000;0.7269;0.5376;
710.7000;0.7277;0.5452;
711.0000;0.7285;0.5401;
711.3000;0.7269;0.5325;
711.6000;0.7285;0.5299;
711.9000;0.7277;0.5223;
712.2000;0.7293;0.5325;
712.5000;0.7383;0.5605;
712.8000;0.7261;0.5223;
713.1000;0.7269;0.5274;
713.4000;0.7261;0.5325;
713.7000;0.7293;0.5478;
714.0000;0.7261;0.5325;
714.3000;0.7253;0.5325;
714.6000;0.7269;0.5376;
714.9000;0.7277;0.5427;
715.2000;0.7245;0.5274;
715.5000;0.7269;0.5350;
715.8000;0.7261;0.5376;
716.1000;0.7236;0.5274;
716.4000;0.7245;0.5274;
716.7000;0.7245;0.5248;
717.0000;0.7236;0.5274;
717.3000;0.7245;0.5325;
717.6000;0.7236;0.5274;
717.9000;0.7228;0.5274;
718.2000;0.7220;0.5325;
718.5000;0.7228;0.5299;
718.8000;0.7228;0.5223;
719.1000;0.7228;0.5121;
719.4000;0.7228;0.5197;
719.7000;0.7245;0.5248;
720.0000;0.7236;0.5274;
720.3000;0.7236;0.5223;
720.6000;0.7220;0.5350;
720.9000;0.7228;0.5401;
721.2000;0.7245;0.5325;
721.5000;0.7220;0.5248;
721.8000;0.7236;0.5274;
722.1000;0.7253;0.5299;
722.4000;0.7236;0.5274;
722.7000;0.7220;0.5197;
723.0000;0.7228;0.5172;
723.3000;0.7236;0.5147;
723.6000;0.7220;0.5070;
723.9000;0.7204;0.5121;
724.2000;0.7220;0.5223;
724.5000;0.7228;0.5223;
724.8000;0.7236;0.5172;
725.1000;0.7228;0.5121;
725.4000;0.7212;0.5197;
725.7000;0.7228;0.5274;
726.0000;0.7236;0.5325;
726.3000;0.7204;0.5248;
726.6000;0.7179;0.5274;
726.9000;0.7204;0.5248;
727.2000;0.7204;0.5274;
727.5000;0.7212;0.5248;
727.8000;0.7204;0.5376;
728.1000;0.7204;0.5452;
728.4000;0.7220;0.5503;
728.7000;0.7204;0.5478;
729.0000;0.7212;0.5478;
729.3000;0.7196;0.5529;
729.6000;0.7293;0.5631;
729.9000;0.7196;0.5427;
730.2000;0.7179;0.5325;
730.5000;0.7171;0.5325;
730.8000;0.7204;0.5427;
731.1000;0.7179;0.5248;
731.4000;0.7196;0.5299;
731.7000;0.7163;0.5172;
732.0000;0.7220;0.5376;
732.3000;0.7188;0.5248;
732.6000;0.7171;0.5197;
732.9000;0.7196;0.5172;
733.2000;0.7188;0.5096;
733.5000;0.7188;0.5197;
733.8000;0.7163;0.5197;
734.1000;0.7171;0.5248;
734.4000;0.7179;0.5248;
734.7000;0.7228;0.5452;
735.0000;0.7179;0.5274;
735.3000;0.7188;0.5427;
735.6000;0.7188;0.5478;
735.9000;0.7188;0.5401;
736.2000;0.7179;0.5350;
736.5000;0.7179;0.5299;
736.8000;0.7179;0.5274;
737.1000;0.7171;0.5248;
737.4000;0.7171;0.5350;
737.7000;0.7131;0.5197;
738.0000;0.7188;0.5325;
738.3000;0.7163;0.5274;
738.6000;0.7171;0.5376;
738.9000;0.7171;0.5325;
739.2000;0.7147;0.5299;
739.5000;0.7139;0.5197;
739.8000;0.7163;0.5172;
740.1000;0.7163;0.5172;
740.4000;0.7147;0.5121;
740.7000;0.7139;0.5096;
741.0000;0.7179;0.5147;
741.3000;0.7147;0.5070;
741.6000;0.7155;0.5147;
741.9000;0.7163;0.5197;
742.2000;0.7179;0.5223;
742.5000;0.7171;0.5248;
742.8000;0.7131;0.5070;
743.1000;0.7155;0.5070;
743.4000;0.7155;0.5121;
743.7000;0.7131;0.5070;
744.0000;0.7123;0.5070;
744.3000;0.7147;0.5096;
744.6000;0.7139;0.5147;
744.9000;0.7139;0.5197;
745.2000;0.7114;0.5147;
745.5000;0.7131;0.5147;
745.8000;0.7131;0.5172;
746.1000;0.7163;0.5299;
746.4000;0.7147;0.5223;
746.7000;0.7139;0.5274;
747.0000;0.7147;0.5299;
747.3000;0.7139;0.5299;
747.6000;0.7179;0.5325;
747.9000;0.7139;0.5121;
748.2000;0.7123;0.5045;
748.5000;0.7139;0.5121;
748.8000;0.7139;0.5121;
749.1000;0.7123;0.5197;
749.4000;0.7123;0.5172;
749.7000;0.7123;0.5172;
750.0000;0.7114;0.5147;
750.3000;0.7123;0.5096;
750.6000;0.7131;0.5147;
750.9000;0.7131;0.5248;
751.2000;0.7155;0.5401;
751.5000;0.7147;0.5401;
751.8000;0.7196;0.5452;
752.1000;0.7155;0.5376;
752.4000;0.7147;0.5325;
752.7000;0.7131;0.5325;
753.0000;0.7123;0.5248;
753.3000;0.7114;0.5045;
753.6000;0.7131;0.5070;
753.9000;0.7147;0.5172;
754.2000;0.7123;0.5121;
754.5000;0.7114;0.5147;
754.8000;0.7123;0.5121;
755.1000;0.7131;0.5147;
755.4000;0.7123;0.5274;
755.7000;0.7114;0.5223;
756.0000;0.7106;0.5147;
756.3000;0.7123;0.5248;
756.6000;0.7098;0.5172;
756.9000;0.7123;0.5197;
757.2000;0.7114;0.5248;
757.5000;0.7106;0.5274;
757.8000;0.7098;0.5274;
758.1000;0.7090;0.5197;
758.4000;0.7106;0.5274;
758.7000;0.7106;0.5248;
759.0000;0.7114;0.5274;
759.3000;0.7106;0.5248;
759.6000;0.7098;0.5121;
759.9000;0.7074;0.5019;
760.2000;0.7114;0.5197;
760.5000;0.7106;0.5274;
760.8000;0.7106;0.5172;
761.1000;0.7090;0.5147;
761.4000;0.7114;0.5197;
761.7000;0.7123;0.5197;
762.0000;0.7123;0.5197;
762.3000;0.7098;0.5147;
762.6000;0.7171;0.5452;
762.9000;0.7098;0.5376;
763.2000;0.7090;0.5427;
763.5000;0.7090;0.5376;
763.8000;0.7090;0.5325;
764.1000;0.7074;0.5223;
764.4000;0.7114;0.5325;
764.7000;0.7106;0.5274;
765.0000;0.7074;0.5172;
765.3000;0.7074;0.5172;
765.6000;0.7082;0.5147;
765.9000;0.7139;0.5376;
766.2000;0.7106;0.5223;
766.5000;0.7106;0.5248;
766.8000;0.7098;0.5248;
767.1000;0.7066;0.5147;
767.4000;0.7074;0.5274;
767.7000;0.7082;0.5299;
768.0000;0.7074;0.5248;
768.3000;0.7139;0.5427;
768.6000;0.7066;0.5223;
768.9000;0.7082;0.5274;
769.2000;0.7114;0.5350;
769.5000;0.7090;0.5325;
769.8000;0.7066;0.5299;
770.1000;0.7033;0.5274;
770.4000;0.7106;0.5401;
770.7000;0.7074;0.5299;
771.0000;0.7098;0.5299;
771.3000;0.7155;0.5478;
771.6000;0.7074;0.5274;
771.9000;0.7098;0.5274;
772.2000;0.7074;0.5274;
772.5000;0.7074;0.5299;
772.8000;0.7098;0.5376;
773.1000;0.7074;0.5376;
773.4000;0.7074;0.5376;
773.7000;0.7082;0.5401;
774.0000;0.7082;0.5350;
774.3000;0.7082;0.5376;
774.6000;0.7082;0.5376;
774.9000;0.7090;0.5427;
775.2000;0.7123;0.5554;
775.5000;0.7082;0.5452;
775.8000;0.7131;0.5682;
776.1000;0.7066;0.5580;
776.4000;0.7066;0.5529;
776.7000;0.7074;0.5580;
777.0000;0.7074;0.5605;
777.3000;0.7082;0.5554;
777.6000;0.7057;0.5503;
777.9000;0.7074;0.5478;
778.2000;0.7082;0.5554;
778.5000;0.7074;0.5580;
778.8000;0.7057;0.5503;
779.1000;0.7041;0.5401;
779.4000;0.7057;0.5478;
779.7000;0.7057;0.5299;
780.0000;0.7066;0.5350;
780.3000;0.7066;0.5299;
780.6000;0.7041;0.5299;
780.9000;0.7057;0.5350;
781.2000;0.7074;0.5427;
781.5000;0.7066;0.5376;
781.8000;0.7057;0.5376;
782.1000;0.7066;0.5427;
782.4000;0.7049;0.5427;
782.7000;0.7049;0.5350;
783.0000;0.7033;0.5350;
783.3000;0.7049;0.5401;
783.6000;0.7025;0.5274;
783.9000;0.7057;0.5452;
784.2000;0.7041;0.5376;
784.5000;0.7057;0.5478;
784.8000;0.7049;0.5478;
785.1000;0.7057;0.5427;
785.4000;0.7057;0.5452;
785.7000;0.7057;0.5452;
786.0000;0.7082;0.5631;
786.3000;0.7057;0.5478;
786.6000;0.7049;0.5401;
786.9000;0.7041;0.5376;
787.2000;0.7066;0.5478;
787.5000;0.7049;0.5427;
787.8000;0.7066;0.5427;
788.1000;0.7049;0.5376;
788.4000;0.7041;0.5427;
788.7000;0.7033;0.5478;
789.0000;0.7033;0.5452;
789.3000;0.7041;0.5401;
789.6000;0.7041;0.5427;
789.9000;0.7025;0.5401;
790.2000;0.7017;0.5350;
790.5000;0.7041;0.5350;
790.8000;0.7066;0.5274;
791.1000;0.7025;0.5070;
791.4000;0.7057;0.5147;
791.7000;0.7057;0.5223;
792.0000;0.7033;0.5248;
792.3000;0.7041;0.5274;
792.6000;0.7074;0.5299;
792.9000;0.7106;0.5401;
793.2000;0.7057;0.5197;
793.5000;0.7049;0.5147;
793.8000;0.7041;0.5274;
794.1000;0.7033;0.5248;
794.4000;0.7033;0.5274;
794.7000;0.7074;0.5325;
795.0000;0.7057;0.5350;
795.3000;0.7049;0.5299;
795.6000;0.7017;0.5197;
795.9000;0.7041;0.5248;
796.2000;0.7057;0.5350;
796.5000;0.7041;0.5401;
796.8000;0.7041;0.5401;
797.1000;0.7057;0.5299;
797.4000;0.7049;0.5350;
797.7000;0.7049;0.5376;
798.0000;0.7025;0.5274;
798.3000;0.7017;0.5147;
798.6000;0.7041;0.5248;
798.9000;0.7041;0.5299;
799.2000;0.7025;0.5172;
799.5000;0.7033;0.5172;
799.8000;0.7033;0.5147;
800.1000;0.7033;0.5197;
800.4000;0.7041;0.5223;
800.7000;0.7049;0.5325;
801.0000;0.7033;0.5299;
801.3000;0.7033;0.5248;
801.6000;0.7017;0.5248;
801.9000;0.6992;0.5274;
802.2000;0.6984;0.5147;
802.5000;0.7041;0.5325;
802.8000;0.7033;0.5274;
803.1000;0.7025;0.5350;
803.4000;0.7025;0.5376;
803.7000;0.7033;0.5325;
804.0000;0.7033;0.5376;
804.3000;0.7009;0.5325;
804.6000;0.7009;0.5376;
804.9000;0.7041;0.5478;
805.2000;0.7041;0.5452;
805.5000;0.7009;0.5299;
805.8000;0.7025;0.5376;
806.1000;0.7041;0.5478;
806.4000;0.7017;0.5350;
806.7000;0.7009;0.5376;
807.0000;0.7017;0.5376;
807.3000;0.7025;0.5478;
807.6000;0.7041;0.5554;
807.9000;0.6992;0.5376;
808.2000;0.7009;0.5478;
808.5000;0.7009;0.5605;
808.8000;0.7049;0.5605;
809.1000;0.7041;0.5580;
809.4000;0.7000;0.5554;
809.7000;0.7009;0.5452;
810.0000;0.6992;0.5401;
810.3000;0.7017;0.5478;
810.6000;0.7009;0.5529;
810.9000;0.7009;0.5503;
811.2000;0.7025;0.5503;
811.5000;0.7025;0.5554;
811.8000;0.7017;0.5580;
812.1000;0.7009;0.5478;
812.4000;0.7000;0.5554;
812.7000;0.7000;0.5580;
813.0000;0.7009;0.5554;
813.3000;0.7009;0.5529;
813.6000;0.7009;0.5605;
813.9000;0.7017;0.5631;
814.2000;0.7009;0.5503;
814.5000;0.7017;0.5427;
814.8000;0.7009;0.5478;
815.1000;0.7000;0.5427;
815.4000;0.7017;0.5529;
815.7000;0.7000;0.5554;
816.0000;0.7009;0.5554;
816.3000;0.7106;0.5758;
816.6000;0.7049;0.5503;
816.9000;0.7009;0.5427;
817.2000;0.7017;0.5376;
817.5000;0.7009;0.5452;
817.8000;0.7009;0.5401;
818.1000;0.7049;0.5503;
818.4000;0.7009;0.5427;
818.7000;0.7033;0.5503;
819.0000;0.7009;0.5401;
819.3000;0.7000;0.5299;
819.6000;0.7041;0.5427;
819.9000;0.7000;0.5401;
820.2000;0.7000;0.5478;
820.5000;0.7025;0.5529;
820.8000;0.6960;0.5325;
821.1000;0.6976;0.5376;
821.4000;0.6960;0.5325;
821.7000;0.7000;0.5529;
822.0000;0.7000;0.5452;
822.3000;0.6984;0.5427;
822.6000;0.6895;0.5197;
822.9000;0.7000;0.5478;
823.2000;0.7057;0.5605;
823.5000;0.7000;0.5478;
823.8000;0.7009;0.5478;
824.1000;0.7066;0.5605;
824.4000;0.7009;0.5427;
824.7000;0.6992;0.5427;
825.0000;0.6992;0.5401;
825.3000;0.7000;0.5401;
825.6000;0.7000;0.5529;
825.9000;0.6984;0.5350;
826.2000;0.7025;0.5478;
826.5000;0.7009;0.5452;
826.8000;0.6992;0.5401;
827.1000;0.7000;0.5401;
827.4000;0.7000;0.5401;
827.7000;0.6992;0.5452;
828.0000;0.7017;0.5529;
828.3000;0.7009;0.5529;
828.6000;0.6968;0.5427;
828.9000;0.7025;0.5503;
829.2000;0.7000;0.5350;
829.5000;0.7000;0.5350;
829.8000;0.7009;0.5427;
830.1000;0.7000;0.5376;
830.4000;0.6984;0.5401;
830.7000;0.7000;0.5529;
831.0000;0.6984;0.5580;
831.3000;0.6984;0.5554;
831.6000;0.7000;0.5554;
831.9000;0.6992;0.5452;
832.2000;0.7009;0.5452;
832.5000;0.7009;0.5478;
832.8000;0.7009;0.5529;
833.1000;0.6984;0.5554;
833.4000;0.6992;0.5554;
833.7000;0.6976;0.5656;
834.0000;0.6992;0.5733;
834.3000;0.6984;0.5605;
834.6000;0.6984;0.5656;
834.9000;0.6984;0.5631;
835.2000;0.6992;0.5707;
835.5000;0.6992;0.5605;
835.8000;0.6968;0.5580;
836.1000;0.6911;0.5376;
836.4000;0.6968;0.5529;
836.7000;0.6960;0.5529;
837.0000;0.7009;0.5580;
837.3000;0.7009;0.5605;
837.6000;0.6968;0.5503;
837.9000;0.6952;0.5427;
838.2000;0.7000;0.5554;
838.5000;0.7000;0.5554;
838.8000;0.7000;0.5580;
839.1000;0.7049;0.5656;
839.4000;0.7000;0.5478;
839.7000;0.6984;0.5350;
840.0000;0.6984;0.5325;
840.3000;0.6984;0.5350;
840.6000;0.6984;0.5299;
840.9000;0.6984;0.5350;
841.2000;0.6968;0.5401;
841.5000;0.6984;0.5401;
841.8000;0.6984;0.5427;
842.1000;0.6960;0.5376;
842.4000;0.7000;0.5452;
842.7000;0.6984;0.5376;
843.0000;0.6952;0.5248;
843.3000;0.7025;0.5529;
843.6000;0.6976;0.5452;
843.9000;0.6976;0.5529;
844.2000;0.6976;0.5452;
844.5000;0.6984;0.5452;
844.8000;0.7025;0.5605;
845.1000;0.7000;0.5529;
845.4000;0.7017;0.5554;
845.7000;0.6992;0.5554;
846.0000;0.6992;0.5452;
846.3000;0.6976;0.5427;
846.6000;0.7000;0.5529;
846.9000;0.6984;0.5580;
847.2000;0.6984;0.5580;
847.5000;0.6960;0.5605;
847.8000;0.6976;0.5580;
848.1000;0.6984;0.5580;
848.4000;0.6968;0.5605;
848.7000;0.6984;0.5631;
849.0000;0.6968;0.5554;
849.3000;0.6976;0.5554;
849.6000;0.6976;0.5554;
849.9000;0.6976;0.5580;
850.2000;0.6968;0.5554;
850.5000;0.6976;0.5529;
850.8000;0.6984;0.5452;
851.1000;0.6960;0.5401;
851.4000;0.6935;0.5427;
851.7000;0.6976;0.5478;
852.0000;0.6984;0.5529;
852.3000;0.6976;0.5554;
852.6000;0.6968;0.5503;
852.9000;0.6968;0.5452;
853.2000;0.6976;0.5427;
853.5000;0.7000;0.5350;
853.8000;0.6968;0.5401;
854.1000;0.6968;0.5376;
854.4000;0.6968;0.5427;
854.7000;0.6984;0.5478;
855.0000;0.6984;0.5529;
855.3000;0.6976;0.5503;
855.6000;0.6968;0.5452;
855.9000;0.6968;0.5503;
856.2000;0.6968;0.5529;
856.5000;0.6976;0.5503;
856.8000;0.6943;0.5478;
857.1000;0.6976;0.5580;
857.4000;0.6984;0.5605;
857.7000;0.6960;0.5580;
858.0000;0.6968;0.5656;
858.3000;0.6976;0.5682;
858.6000;0.6960;0.5580;
858.9000;0.6968;0.5605;
859.2000;0.6984;0.5631;
859.5000;0.6984;0.5605;
859.8000;0.6968;0.5631;
860.1000;0.6903;0.5452;
860.4000;0.6952;0.5605;
860.7000;0.6943;0.5554;
861.0000;0.6960;0.5503;
861.3000;0.6952;0.5478;
861.6000;0.6927;0.5401;
861.9000;0.6952;0.5478;
862.2000;0.6927;0.5299;
862.5000;0.6952;0.5401;
862.8000;0.6960;0.5401;
863.1000;0.6960;0.5452;
863.4000;0.6976;0.5299;
863.7000;0.6968;0.5299;
864.0000;0.6976;0.5274;
864.3000;0.6984;0.5401;
864.6000;0.6976;0.5452;
864.9000;0.6952;0.5529;
865.2000;0.6943;0.5427;
865.5000;0.6976;0.5376;
865.8000;0.6984;0.5529;
866.1000;0.6968;0.5529;
866.4000;0.6952;0.5452;
866.7000;0.6960;0.5452;
867.0000;0.6968;0.5554;
867.3000;0.6976;0.5605;
867.6000;0.6968;0.5529;
867.9000;0.6952;0.5529;
868.2000;0.7000;0.5605;
868.5000;0.6976;0.5401;
868.8000;0.6968;0.5427;
869.1000;0.6968;0.5503;
869.4000;0.6943;0.5427;
869.7000;0.6952;0.5478;
870.0000;0.6960;0.5631;
870.3000;0.6968;0.5554;
870.6000;0.6943;0.5452;
870.9000;0.6943;0.5452;
871.2000;0.6968;0.5401;
871.5000;0.6943;0.5376;
871.8000;0.6943;0.5401;
872.1000;0.6952;0.5401;
872.4000;0.7041;0.5707;
872.7000;0.6960;0.5503;
873.0000;0.6960;0.5503;
873.3000;0.6952;0.5529;
873.6000;0.6952;0.5427;
873.9000;0.6976;0.5478;
874.2000;0.6968;0.5529;
874.5000;0.6943;0.5478;
874.8000;0.6968;0.5503;
875.1000;0.6952;0.5452;
875.4000;0.6911;0.5325;
875.7000;0.6952;0.5529;
876.0000;0.6886;0.5376;
876.3000;0.6943;0.5554;
876.6000;0.6943;0.5631;
876.9000;0.6943;0.5580;
877.2000;0.6943;0.5656;
877.5000;0.6968;0.5733;
877.8000;0.6935;0.5631;
878.1000;0.6943;0.5707;
878.4000;0.6968;0.5758;
878.7000;0.6952;0.5733;
879.0000;0.6968;0.5631;
879.3000;0.6968;0.5631;
879.6000;0.6952;0.5554;
879.9000;0.6960;0.5631;
880.2000;0.6968;0.5707;
880.5000;0.6976;0.5733;
880.8000;0.6935;0.5733;
881.1000;0.6911;0.5605;
881.4000;0.6886;0.5529;
881.7000;0.6935;0.5656;
882.0000;0.6935;0.5605;
882.3000;0.6935;0.5478;
882.6000;0.6943;0.5529;
882.9000;0.6935;0.5478;
883.2000;0.6935;0.5452;
883.5000;0.6943;0.5478;
883.8000;0.6960;0.5631;
884.1000;0.6976;0.5707;
884.4000;0.6952;0.5733;
884.7000;0.6968;0.5809;
885.0000;0.6935;0.5707;
885.3000;0.6968;0.5758;
885.6000;0.6943;0.5580;
885.9000;0.6960;0.5554;
886.2000;0.6935;0.5503;
886.5000;0.6968;0.5631;
886.8000;0.6968;0.5656;
887.1000;0.6952;0.5478;
887.4000;0.6943;0.5452;
887.7000;0.6952;0.5580;
888.0000;0.6960;0.5605;
888.3000;0.6935;0.5631;
888.6000;0.7009;0.5834;
888.9000;0.6935;0.5656;
889.2000;0.6960;0.5682;
889.5000;0.6952;0.5580;
889.8000;0.6960;0.5529;
890.1000;0.6952;0.5478;
890.4000;0.6927;0.5427;
890.7000;0.6952;0.5427;
891.0000;0.6943;0.5503;
891.3000;0.6935;0.5401;
891.6000;0.6960;0.5478;
891.9000;0.6960;0.5427;
892.2000;0.6943;0.5452;
892.5000;0.6943;0.5401;
892.8000;0.6968;0.5529;
893.1000;0.6943;0.5631;
893.4000;0.6919;0.5478;
893.7000;0.7009;0.5733;
894.0000;0.6952;0.5580;
894.3000;0.6919;0.5452;
894.6000;0.6943;0.5427;
894.9000;0.6935;0.5401;
895.2000;0.6952;0.5452;
895.5000;0.6927;0.5452;
895.8000;0.6952;0.5427;
896.1000;0.6960;0.5376;
896.4000;0.6943;0.5401;
896.7000;0.6952;0.5427;
897.0000;0.6943;0.5401;
897.3000;0.6960;0.5427;
897.6000;0.6927;0.5401;
897.9000;0.6952;0.5554;
898.2000;0.6943;0.5529;
898.5000;0.6919;0.5554;
898.8000;0.6935;0.5554;
899.1000;0.6952;0.5605;
899.4000;0.6935;0.5605;
899.7000;0.6935;0.5554;
900.0000;0.6976;0.5682;
900.3000;0.6927;0.5656;
900.6000;0.6935;0.5656;
900.9000;0.6927;0.5631;
901.2000;0.6935;0.5707;
901.5000;0.6919;0.5631;
901.8000;0.6919;0.5656;
902.1000;0.6935;0.5682;
902.4000;0.6935;0.5605;
902.7000;0.6927;0.5605;
903.0000;0.6919;0.5605;
903.3000;0.6943;0.5554;
903.6000;0.6935;0.5580;
903.9000;0.6935;0.5503;
904.2000;0.6927;0.5478;
904.5000;0.6943;0.5529;
904.8000;0.6952;0.5554;
905.1000;0.6919;0.5656;
905.4000;0.6895;0.5554;
905.7000;0.6927;0.5656;
906.0000;0.6943;0.5682;
906.3000;0.6935;0.5580;
906.6000;0.6878;0.5503;
906.9000;0.7009;0.5809;
907.2000;0.6943;0.5580;
907.5000;0.6943;0.5529;
907.8000;0.6854;0.5350;
908.1000;0.6911;0.5452;
908.4000;0.6943;0.5478;
908.7000;0.6935;0.5350;
909.0000;0.6935;0.5401;
909.3000;0.6943;0.5529;
909.6000;0.6935;0.5554;
909.9000;0.6960;0.5605;
910.2000;0.6952;0.5631;
910.5000;0.6952;0.5631;
910.8000;0.6952;0.5580;
911.1000;0.6927;0.5580;
911.4000;0.6919;0.5605;
911.7000;0.6935;0.5682;
912.0000;0.6935;0.5631;
912.3000;0.6919;0.5529;
912.6000;0.6935;0.5503;
912.9000;0.6919;0.5580;
913.2000;0.6935;0.5682;
913.5000;0.6903;0.5707;
913.8000;0.6968;0.5936;
914.1000;0.6927;0.5733;
914.4000;0.6935;0.5707;
914.7000;0.6911;0.5707;
915.0000;0.6927;0.5682;
915.3000;0.6895;0.5503;
915.6000;0.6927;0.5554;
915.9000;0.6952;0.5605;
916.2000;0.6935;0.5605;
916.5000;0.6935;0.5707;
916.8000;0.6895;0.5682;
917.1000;0.6935;0.5809;
917.4000;0.6919;0.5758;
917.7000;0.6829;0.5554;
918.0000;0.6919;0.5733;
918.3000;0.6927;0.5733;
918.6000;0.6935;0.5707;
918.9000;0.6935;0.5631;
919.2000;0.6935;0.5580;
919.5000;0.6919;0.5580;
919.8000;0.6919;0.5605;
920.1000;0.6935;0.5631;
920.4000;0.6927;0.5554;
920.7000;0.6870;0.5401;
921.0000;0.6952;0.5682;
921.3000;0.6935;0.5529;
921.6000;0.6895;0.5350;
921.9000;0.6919;0.5554;
922.2000;0.6927;0.5529;
922.5000;0.6935;0.5631;
922.8000;0.6952;0.5656;
923.1000;0.7000;0.5783;
923.4000;0.6935;0.5580;
923.7000;0.6927;0.5580;
924.0000;0.6927;0.5580;
924.3000;0.6935;0.5605;
924.6000;0.6927;0.5503;
924.9000;0.6943;0.5478;
925.2000;0.6919;0.5427;
925.5000;0.6919;0.5427;
925.8000;0.6927;0.5452;
926.1000;0.6935;0.5427;
926.4000;0.6911;0.5376;
926.7000;0.6927;0.5427;
927.0000;0.6935;0.5478;
927.3000;0.6927;0.5452;
927.6000;0.6952;0.5452;
927.9000;0.6935;0.5401;
928.2000;0.6927;0.5427;
928.5000;0.6927;0.5376;
928.8000;0.6919;0.5427;
929.1000;0.6911;0.5452;
929.4000;0.6919;0.5478;
929.7000;0.6919;0.5427;
930.0000;0.6935;0.5427;
930.3000;0.6862;0.5197;
930.6000;0.6903;0.5401;
930.9000;0.6952;0.5580;
931.2000;0.6927;0.5580;
931.5000;0.6911;0.5554;
931.8000;0.6927;0.5631;
932.1000;0.6943;0.5707;
932.4000;0.6927;0.5682;
932.7000;0.6919;0.5707;
933.0000;0.6903;0.5656;
933.3000;0.6895;0.5707;
933.6000;0.6903;0.5707;
933.9000;0.6943;0.5809;
934.2000;0.6911;0.5733;
934.5000;0.6927;0.5707;
934.8000;0.6935;0.5733;
935.1000;0.6927;0.5631;
935.4000;0.6895;0.5529;
935.7000;0.6919;0.5478;
936.0000;0.6935;0.5427;
936.3000;0.6919;0.5401;
936.6000;0.6903;0.5299;
936.9000;0.6911;0.5299;
937.2000;0.6952;0.5427;
937.5000;0.6943;0.5401;
937.8000;0.6935;0.5427;
938.1000;0.6911;0.5427;
938.4000;0.6927;0.5478;
938.7000;0.6919;0.5478;
939.0000;0.6911;0.5376;
939.3000;0.6927;0.5325;
939.6000;0.6960;0.5376;
939.9000;0.6911;0.5274;
940.2000;0.6960;0.5401;
940.5000;0.6935;0.5401;
940.8000;0.6935;0.5376;
941.1000;0.6927;0.5401;
941.4000;0.6911;0.5325;
941.7000;0.6919;0.5427;
942.0000;0.6911;0.5478;
942.3000;0.6927;0.5452;
942.6000;0.6927;0.5478;
942.9000;0.6927;0.5427;
943.2000;0.6919;0.5452;
943.5000;0.6968;0.5656;
943.8000;0.6911;0.5503;
944.1000;0.6927;0.5503;
944.4000;0.6919;0.5376;
944.7000;0.6927;0.5376;
945.0000;0.6935;0.5350;
945.3000;0.6935;0.5376;
945.6000;0.6919;0.5401;
945.9000;0.6919;0.5529;
946.2000;0.6911;0.5605;
946.5000;0.6927;0.5580;
946.8000;0.6919;0.5554;
947.1000;0.6927;0.5529;
947.4000;0.6911;0.5478;
947.7000;0.6919;0.5503;
948.0000;0.6911;0.5503;
948.3000;0.6903;0.5503;
948.6000;0.6903;0.5503;
948.9000;0.6895;0.5401;
949.2000;0.6919;0.5452;
949.5000;0.6911;0.5350;
949.8000;0.6927;0.5427;
950.1000;0.6919;0.5427;
950.4000;0.6935;0.5503;
950.7000;0.6927;0.5503;
951.0000;0.6919;0.5478;
951.3000;0.6919;0.5478;
951.6000;0.6911;0.5452;
951.9000;0.6919;0.5376;
952.2000;0.6927;0.5376;
952.5000;0.6919;0.5427;
952.8000;0.6943;0.5503;
953.1000;0.6976;0.5605;
953.4000;0.6911;0.5401;
953.7000;0.6927;0.5554;
954.0000;0.6927;0.5503;
954.3000;0.6943;0.5580;
954.6000;0.6984;0.5605;
954.9000;0.6960;0.5529;
955.2000;0.6919;0.5554;
955.5000;0.6862;0.5452;
955.8000;0.6960;0.5707;
956.1000;0.6878;0.5478;
956.4000;0.6968;0.5656;
956.7000;0.6952;0.5580;
957.0000;0.6919;0.5478;
957.3000;0.6919;0.5478;
957.6000;0.6935;0.5554;
957.9000;0.6952;0.5631;
958.2000;0.6935;0.5503;
958.5000;0.6878;0.5376;
958.8000;0.6984;0.5707;
959.1000;0.6919;0.5554;
959.4000;0.6927;0.5529;
959.7000;0.6886;0.5452;
960.0000;0.6911;0.5554;
960.3000;0.6952;0.5733;
960.6000;0.6927;0.5682;
960.9000;0.6870;0.5529;
961.2000;0.6919;0.5554;
961.5000;0.6895;0.5478;
961.8000;0.6911;0.5478;
962.1000;0.6903;0.5427;
962.4000;0.6846;0.5299;
962.7000;0.6911;0.5478;
963.0000;0.6927;0.5554;
963.3000;0.6911;0.5503;
963.6000;0.6919;0.5554;
963.9000;0.6927;0.5529;
964.2000;0.6935;0.5529;
964.5000;0.6903;0.5503;
964.8000;0.6919;0.5554;
965.1000;0.6903;0.5503;
965.4000;0.6927;0.5580;
965.7000;0.6919;0.5605;
966.0000;0.6919;0.5580;
966.3000;0.6927;0.5554;
966.6000;0.6919;0.5478;
966.9000;0.6927;0.5452;
967.2000;0.6911;0.5376;
967.5000;0.6895;0.5274;
967.8000;0.6886;0.5274;
968.1000;0.6935;0.5427;
968.4000;0.6878;0.5325;
968.7000;0.6895;0.5299;
969.0000;0.6886;0.5299;
969.3000;0.6911;0.5427;
969.6000;0.6895;0.5325;
969.9000;0.6935;0.5427;
970.2000;0.6886;0.5401;
970.5000;0.6903;0.5503;
970.8000;0.6943;0.5478;
971.1000;0.6927;0.5478;
971.4000;0.6919;0.5427;
971.7000;0.6911;0.5478;
972.0000;0.6919;0.5478;
972.3000;0.6919;0.5452;
972.6000;0.6886;0.5350;
972.9000;0.6911;0.5401;
973.2000;0.6927;0.5529;
973.5000;0.6895;0.5478;
973.8000;0.6927;0.5478;
974.1000;0.6911;0.5427;
974.4000;0.6903;0.5554;
974.7000;0.6911;0.5580;
975.0000;0.6919;0.5580;
975.3000;0.6919;0.5503;
975.6000;0.6927;0.5554;
975.9000;0.6911;0.5452;
976.2000;0.6903;0.5427;
976.5000;0.6870;0.5427;
976.8000;0.6919;0.5554;
977.1000;0.6927;0.5682;
977.4000;0.6919;0.5631;
977.7000;0.6919;0.5707;
978.0000;0.6886;0.5631;
978.3000;0.6886;0.5580;
978.6000;0.6911;0.5605;
978.9000;0.6960;0.5682;
979.2000;0.6895;0.5503;
979.5000;0.6919;0.5401;
979.8000;0.6927;0.5427;
980.1000;0.6895;0.5350;
980.4000;0.6911;0.5401;
980.7000;0.6911;0.5503;
981.0000;0.6911;0.5554;
981.3000;0.6903;0.5503;
981.6000;0.6919;0.5427;
981.9000;0.6919;0.5401;
982.2000;0.6919;0.5503;
982.5000;0.6903;0.5503;
982.8000;0.6886;0.5427;
983.1000;0.6911;0.5529;
983.4000;0.6927;0.5631;
983.7000;0.6878;0.5452;
984.0000;0.6927;0.5529;
984.3000;0.6895;0.5503;
984.6000;0.6911;0.5631;
984.9000;0.6911;0.5554;
985.2000;0.6927;0.5554;
985.5000;0.6903;0.5529;
985.8000;0.6903;0.5529;
986.1000;0.6919;0.5554;
986.4000;0.6911;0.5580;
986.7000;0.6895;0.5554;
987.0000;0.6895;0.5478;
987.3000;0.6911;0.5554;
987.6000;0.6911;0.5605;
987.9000;0.6895;0.5529;
988.2000;0.6919;0.5554;
988.5000;0.6903;0.5478;
988.8000;0.6903;0.5503;
989.1000;0.6903;0.5605;
989.4000;0.6895;0.5529;
989.7000;0.6911;0.5554;
990.0000;0.6919;0.5580;
990.3000;0.6903;0.5605;
990.6000;0.6886;0.5605;
990.9000;0.6886;0.5554;
991.2000;0.6895;0.5682;
991.5000;0.6911;0.5682;
991.8000;0.6903;0.5656;
992.1000;0.6870;0.5554;
992.4000;0.6919;0.5758;
992.7000;0.6911;0.5707;
993.0000;0.6895;0.5656;
993.3000;0.6903;0.5580;
993.6000;0.6878;0.5503;
993.9000;0.6911;0.5580;
994.2000;0.6960;0.5605;
994.5000;0.6911;0.5580;
994.8000;0.6895;0.5554;
995.1000;0.6911;0.5503;
995.4000;0.6927;0.5529;
995.7000;0.6903;0.5503;
996.0000;0.6911;0.5503;
996.3000;0.6943;0.5529;
996.6000;0.6911;0.5580;
996.9000;0.6903;0.5580;
997.2000;0.6903;0.5554;
997.5000;0.6903;0.5529;
997.8000;0.6943;0.5554;
998.1000;0.6903;0.5478;
998.4000;0.6911;0.5427;
998.7000;0.6919;0.5503;
999.0000;0.6919;0.5452;
999.3000;0.6870;0.5274;
999.6000;0.6919;0.5452;
999.9000;0.6919;0.5503;
1000.2000;0.6911;0.5427;
1000.5000;0.6919;0.5427;
1000.8000;0.6911;0.5503;
1001.1000;0.7009;0.5783;
1001.4000;0.6919;0.5554;
1001.7000;0.6952;0.5733;
1002.0000;0.6911;0.5733;
1002.3000;0.6935;0.5809;
1002.6000;0.6943;0.5758;
1002.9000;0.6927;0.5733;
1003.2000;0.6927;0.5733;
1003.5000;0.6911;0.5682;
1003.8000;0.6903;0.5605;
1004.1000;0.6903;0.5682;
1004.4000;0.6903;0.5580;
1004.7000;0.6943;0.5631;
1005.0000;0.6911;0.5529;
1005.3000;0.6895;0.5529;
1005.6000;0.6935;0.5529;
1005.9000;0.6911;0.5452;
1006.2000;0.6886;0.5350;
1006.5000;0.6943;0.5427;
1006.8000;0.6886;0.5376;
1007.1000;0.6911;0.5376;
1007.4000;0.6911;0.5325;
1007.7000;0.6976;0.5452;
1008.0000;0.6911;0.5350;
1008.3000;0.6911;0.5376;
1008.6000;0.6935;0.5452;
1008.9000;0.6886;0.5401;
1009.2000;0.6895;0.5376;
1009.5000;0.6903;0.5376;
1009.8000;0.6895;0.5427;
1010.1000;0.6886;0.5350;
1010.4000;0.6919;0.5401;
1010.7000;0.6886;0.5248;
1011.0000;0.6886;0.5248;
1011.3000;0.6903;0.5376;
1011.6000;0.6903;0.5350;
1011.9000;0.6911;0.5401;
1012.2000;0.6919;0.5401;
1012.5000;0.6895;0.5325;
1012.8000;0.6903;0.5274;
1013.1000;0.6903;0.5248;
1013.4000;0.6903;0.5197;
1013.7000;0.6960;0.5274;
1014.0000;0.6870;0.5096;
1014.3000;0.6976;0.5376;
1014.6000;0.6886;0.5172;
1014.9000;0.6903;0.5223;
1015.2000;0.6919;0.5248;
1015.5000;0.6911;0.5274;
1015.8000;0.6870;0.5197;
1016.1000;0.6886;0.5248;
1016.4000;0.6895;0.5299;
1016.7000;0.6911;0.5376;
1017.0000;0.6878;0.5248;
1017.3000;0.6870;0.5248;
1017.6000;0.6895;0.5274;
1017.9000;0.6911;0.5452;
1018.2000;0.6878;0.5478;
1018.5000;0.6895;0.5503;
1018.8000;0.6895;0.5503;
1019.1000;0.6895;0.5503;
1019.4000;0.6895;0.5580;
1019.7000;0.6903;0.5554;
1020.0000;0.6886;0.5554;
1020.3000;0.6895;0.5580;
1020.6000;0.6919;0.5682;
1020.9000;0.6903;0.5631;
1021.2000;0.6878;0.5580;
1021.5000;0.6886;0.5554;
1021.8000;0.6903;0.5580;
1022.1000;0.6911;0.5554;
1022.4000;0.6878;0.5452;
1022.7000;0.6895;0.5478;
1023.0000;0.6903;0.5529;
1023.3000;0.6895;0.5580;
1023.6000;0.6895;0.5682;
1023.9000;0.6903;0.5631;
1024.2000;0.6854;0.5503;
1024.5000;0.6935;0.5707;
1024.8000;0.6903;0.5529;
1025.1000;0.6854;0.5401;
1025.4000;0.6895;0.5427;
1025.7000;0.6870;0.5376;
1026.0000;0.6952;0.5682;
1026.3000;0.6895;0.5529;
1026.6000;0.6943;0.5605;
1026.9000;0.6895;0.5478;
1027.2000;0.6903;0.5503;
1027.5000;0.6903;0.5401;
1027.8000;0.6911;0.5376;
1028.1000;0.6911;0.5452;
1028.4000;0.6895;0.5427;
1028.7000;0.6903;0.5401;
1029.0000;0.6903;0.5452;
1029.3000;0.6895;0.5554;
1029.6000;0.6903;0.5605;
1029.9000;0.6895;0.5631;
1030.2000;0.6895;0.5631;
1030.5000;0.6927;0.5656;
1030.8000;0.6927;0.5783;
1031.1000;0.6886;0.5758;
1031.4000;0.6960;0.5885;
1031.7000;0.6886;0.5733;
1032.0000;0.6903;0.5758;
1032.3000;0.6895;0.5733;
1032.6000;0.6903;0.5758;
1032.9000;0.6829;0.5605;
1033.2000;0.6829;0.5580;
1033.5000;0.6846;0.5478;
1033.8000;0.6903;0.5656;
1034.1000;0.6886;0.5580;
1034.4000;0.6911;0.5529;
1034.7000;0.6886;0.5376;
1035.0000;0.6886;0.5401;
1035.3000;0.6895;0.5401;
1035.6000;0.6911;0.5401;
1035.9000;0.6919;0.5503;
1036.2000;0.6911;0.5529;
1036.5000;0.6895;0.5478;
1036.8000;0.6903;0.5478;
1037.1000;0.6895;0.5478;
1037.4000;0.6886;0.5401;
1037.7000;0.6878;0.5401;
1038.0000;0.6878;0.5554;
1038.3000;0.6903;0.5631;
1038.6000;0.6903;0.5605;
1038.9000;0.6903;0.5605;
1039.2000;0.6886;0.5554;
1039.5000;0.6870;0.5452;
1039.8000;0.6895;0.5452;
1040.1000;0.6895;0.5529;
1040.4000;0.6886;0.5503;
1040.7000;0.6870;0.5427;
1041.0000;0.6903;0.5529;
1041.3000;0.6903;0.5478;
1041.6000;0.6886;0.5452;
1041.9000;0.6878;0.5478;
1042.2000;0.6895;0.5401;
1042.5000;0.6903;0.5401;
1042.8000;0.6895;0.5350;
1043.1000;0.6903;0.5274;
1043.4000;0.6919;0.5299;
1043.7000;0.6903;0.5350;
1044.0000;0.6911;0.5376;
1044.3000;0.6895;0.5350;
1044.6000;0.6886;0.5350;
1044.9000;0.6878;0.5401;
1045.2000;0.6895;0.5452;
1045.5000;0.6927;0.5580;
1045.8000;0.6878;0.5605;
1046.1000;0.6862;0.5529;
1046.4000;0.6878;0.5529;
1046.7000;0.6870;0.5529;
1047.0000;0.6886;0.5554;
1047.3000;0.6886;0.5580;
1047.6000;0.6911;0.5682;
1047.9000;0.6903;0.5631;
1048.2000;0.6903;0.5656;
1048.5000;0.6911;0.5605;
1048.8000;0.6903;0.5580;
1049.1000;0.6878;0.5503;
1049.4000;0.6878;0.5503;
1049.7000;0.6927;0.5605;
1050.0000;0.6919;0.5631;
1050.3000;0.6886;0.5427;
1050.6000;0.6870;0.5427;
1050.9000;0.6911;0.5529;
1051.2000;0.6895;0.5529;
1051.5000;0.6895;0.5605;
1051.8000;0.6903;0.5733;
1052.1000;0.6895;0.5758;
1052.4000;0.6903;0.5758;
1052.7000;0.6911;0.5707;
1053.0000;0.6878;0.5758;
1053.3000;0.6886;0.5758;
1053.6000;0.6911;0.5758;
1053.9000;0.6903;0.5758;
1054.2000;0.6968;0.5911;
1054.5000;0.6886;0.5783;
1054.8000;0.6895;0.5733;
1055.1000;0.6895;0.5783;
1055.4000;0.6878;0.5682;
1055.7000;0.6821;0.5529;
1056.0000;0.6895;0.5682;
1056.3000;0.6870;0.5605;
1056.6000;0.6895;0.5554;
1056.9000;0.6886;0.5605;
1057.2000;0.6911;0.5631;
1057.5000;0.6903;0.5605;
1057.8000;0.6927;0.5682;
1058.1000;0.6895;0.5580;
1058.4000;0.6903;0.5554;
1058.7000;0.6895;0.5631;
1059.0000;0.6878;0.5554;
1059.3000;0.6886;0.5529;
1059.6000;0.6895;0.5503;
1059.9000;0.6903;0.5452;
1060.2000;0.6878;0.5299;
1060.5000;0.6870;0.5299;
1060.8000;0.6886;0.5427;
1061.1000;0.6886;0.5401;
1061.4000;0.6895;0.5452;
1061.7000;0.6886;0.5376;
1062.0000;0.6878;0.5274;
1062.3000;0.6878;0.5248;
1062.6000;0.6886;0.5350;
1062.9000;0.6903;0.5376;
1063.2000;0.6903;0.5350;
1063.5000;0.6886;0.5299;
1063.8000;0.6911;0.5350;
1064.1000;0.6886;0.5274;
1064.4000;0.6886;0.5274;
1064.7000;0.6878;0.5299;
1065.0000;0.6895;0.5350;
1065.3000;0.6895;0.5401;
1065.6000;0.6886;0.5376;
1065.9000;0.6870;0.5376;
1066.2000;0.6862;0.5401;
1066.5000;0.6903;0.5529;
1066.8000;0.6911;0.5478;
1067.1000;0.6895;0.5478;
1067.4000;0.6878;0.5478;
1067.7000;0.6903;0.5503;
1068.0000;0.6911;0.5503;
1068.3000;0.6878;0.5503;
1068.6000;0.6838;0.5350;
1068.9000;0.6895;0.5656;
1069.2000;0.6903;0.5733;
1069.5000;0.6886;0.5758;
1069.8000;0.6870;0.5605;
1070.1000;0.6911;0.5554;
1070.4000;0.6846;0.5325;
1070.7000;0.6878;0.5376;
1071.0000;0.6895;0.5452;
1071.3000;0.6878;0.5376;
1071.6000;0.6862;0.5299;
1071.9000;0.6862;0.5299;
1072.2000;0.6878;0.5376;
1072.5000;0.6895;0.5503;
1072.8000;0.6895;0.5452;
1073.1000;0.6895;0.5529;
1073.4000;0.6886;0.5554;
1073.7000;0.6903;0.5580;
1074.0000;0.6895;0.5478;
1074.3000;0.6886;0.5503;
1074.6000;0.6895;0.5554;
1074.9000;0.6895;0.5631;
1075.2000;0.6903;0.5605;
1075.5000;0.6886;0.5605;
1075.8000;0.6903;0.5656;
1076.1000;0.6878;0.5631;
1076.4000;0.6886;0.5631;
1076.7000;0.6952;0.5733;
1077.0000;0.6903;0.5758;
1077.3000;0.6878;0.5682;
1077.6000;0.6911;0.5682;
1077.9000;0.6927;0.5733;
1078.2000;0.6903;0.5682;
1078.5000;0.6870;0.5707;
1078.8000;0.6862;0.5631;
1079.1000;0.6895;0.5783;
1079.4000;0.6903;0.5783;
1079.7000;0.6895;0.5758;
1080.0000;0.6886;0.5758;
1080.3000;0.6927;0.5936;
1080.6000;0.6895;0.5834;
1080.9000;0.6878;0.5809;
1081.2000;0.6911;0.5860;
1081.5000;0.6911;0.5860;
1081.8000;0.6878;0.5783;
1082.1000;0.6886;0.5758;
1082.4000;0.6903;0.5758;
1082.7000;0.6895;0.5733;
1083.0000;0.6903;0.5758;
1083.3000;0.6895;0.5682;
1083.6000;0.6878;0.5682;
1083.9000;0.6878;0.5631;
1084.2000;0.6903;0.5656;
1084.5000;0.6895;0.5656;
1084.8000;0.6895;0.5631;
1085.1000;0.6854;0.5605;
1085.4000;0.6878;0.5682;
1085.7000;0.6878;0.5631;
1086.0000;0.6846;0.5529;
1086.3000;0.6886;0.5554;
1086.6000;0.6895;0.5529;
1086.9000;0.6870;0.5478;
1087.2000;0.6935;0.5733;
1087.5000;0.6878;0.5554;
1087.8000;0.6870;0.5529;
1088.1000;0.6943;0.5733;
1088.4000;0.6911;0.5707;
1088.7000;0.6895;0.5707;
1089.0000;0.6919;0.5834;
1089.3000;0.6870;0.5682;
1089.6000;0.6886;0.5707;
1089.9000;0.6903;0.5758;
1090.2000;0.6854;0.5656;
1090.5000;0.6846;0.5605;
1090.8000;0.6903;0.5656;
1091.1000;0.6838;0.5452;
1091.4000;0.6895;0.5605;
1091.7000;0.6903;0.5631;
1092.0000;0.6895;0.5605;
1092.3000;0.6903;0.5656;
1092.6000;0.6886;0.5605;
1092.9000;0.6895;0.5631;
1093.2000;0.6829;0.5503;
1093.5000;0.6903;0.5631;
1093.8000;0.6862;0.5529;
1094.1000;0.6862;0.5478;
1094.4000;0.6862;0.5631;
1094.7000;0.6870;0.5656;
1095.0000;0.6886;0.5656;
1095.3000;0.6886;0.5733;
1095.6000;0.6846;0.5631;
1095.9000;0.6919;0.5783;
1096.2000;0.6878;0.5656;
1096.5000;0.6878;0.5580;
1096.8000;0.6886;0.5605;
1097.1000;0.6878;0.5682;
1097.4000;0.6886;0.5707;
1097.7000;0.6886;0.5783;
1098.0000;0.6886;0.5733;
1098.3000;0.6911;0.5809;
1098.6000;0.6895;0.5834;
1098.9000;0.6886;0.5783;
1099.2000;0.6886;0.5758;
1099.5000;0.6903;0.5758;
1099.8000;0.6895;0.5758;
1100.1000;0.6895;0.5809;
1100.4000;0.6870;0.5682;
1100.7000;0.6862;0.5605;
1101.0000;0.6911;0.5682;
1101.3000;0.6878;0.5656;
1101.6000;0.6878;0.5554;
1101.9000;0.6903;0.5631;
1102.2000;0.6895;0.5605;
1102.5000;0.6870;0.5554;
1102.8000;0.6886;0.5656;
1103.1000;0.6903;0.5707;
1103.4000;0.6911;0.5656;
1103.7000;0.6895;0.5682;
1104.0000;0.6895;0.5605;
1104.3000;0.6886;0.5452;
1104.6000;0.6895;0.5529;
1104.9000;0.6878;0.5452;
1105.2000;0.6878;0.5401;
1105.5000;0.6870;0.5452;
1105.8000;0.6813;0.5223;
1106.1000;0.6895;0.5350;
1106.4000;0.6886;0.5350;
1106.7000;0.6870;0.5274;
1107.0000;0.6952;0.5503;
1107.3000;0.6919;0.5401;
1107.6000;0.6911;0.5401;
1107.9000;0.6829;0.5172;
1108.2000;0.6919;0.5503;
1108.5000;0.6903;0.5401;
1108.8000;0.6886;0.5325;
1109.1000;0.6862;0.5350;
1109.4000;0.6895;0.5376;
1109.7000;0.6903;0.5376;
1110.0000;0.6886;0.5376;
1110.3000;0.6886;0.5325;
1110.6000;0.6878;0.5325;
1110.9000;0.6829;0.5197;
1111.2000;0.6943;0.5529;
1111.5000;0.6886;0.5452;
1111.8000;0.6952;0.5605;
1112.1000;0.6854;0.5427;
1112.4000;0.6878;0.5401;
1112.7000;0.6870;0.5401;
1113.0000;0.6878;0.5452;
1113.3000;0.6870;0.5503;
1113.6000;0.6886;0.5452;
1113.9000;0.6911;0.5478;
1114.2000;0.6870;0.5478;
1114.5000;0.6870;0.5503;
1114.8000;0.6886;0.5503;
1115.1000;0.6919;0.5631;
1115.4000;0.6878;0.5427;
1115.7000;0.6878;0.5376;
1116.0000;0.6878;0.5401;
1116.3000;0.6886;0.5376;
1116.6000;0.6886;0.5325;
1116.9000;0.6895;0.5274;
1117.2000;0.6878;0.5401;
1117.5000;0.6886;0.5427;
1117.8000;0.6903;0.5478;
1118.1000;0.6878;0.5503;
1118.4000;0.6878;0.5478;
1118.7000;0.6911;0.5529;
1119.0000;0.6911;0.5554;
1119.3000;0.6886;0.5554;
1119.6000;0.6886;0.5529;
1119.9000;0.6895;0.5529;
1120.2000;0.6870;0.5452;
1120.5000;0.6886;0.5529;
1120.8000;0.6813;0.5376;
1121.1000;0.6878;0.5605;
1121.4000;0.6870;0.5503;
1121.7000;0.6870;0.5427;
1122.0000;0.6854;0.5452;
1122.3000;0.6862;0.5503;
1122.6000;0.6886;0.5452;
1122.9000;0.6870;0.5401;
1123.2000;0.6878;0.5452;
1123.5000;0.6829;0.5299;
1123.8000;0.6895;0.5478;
1124.1000;0.6878;0.5529;
1124.4000;0.6829;0.5376;
1124.7000;0.6878;0.5503;
1125.0000;0.6895;0.5554;
1125.3000;0.6805;0.5248;
1125.6000;0.6878;0.5503;
1125.9000;0.6862;0.5580;
1126.2000;0.6878;0.5656;
1126.5000;0.6919;0.5733;
1126.8000;0.6886;0.5554;
1127.1000;0.6878;0.5503;
1127.4000;0.6870;0.5478;
1127.7000;0.6935;0.5707;
1128.0000;0.6886;0.5554;
1128.3000;0.6878;0.5631;
1128.6000;0.6886;0.5605;
1128.9000;0.6903;0.5605;
1129.2000;0.6886;0.5503;
1129.5000;0.6886;0.5529;
1129.8000;0.6886;0.5580;
1130.1000;0.6878;0.5580;
1130.4000;0.6878;0.5503;
1130.7000;0.6862;0.5427;
1131.0000;0.6870;0.5452;
1131.3000;0.6870;0.5452;
1131.6000;0.6886;0.5503;
1131.9000;0.6927;0.5580;
1132.2000;0.6886;0.5376;
1132.5000;0.6870;0.5350;
1132.8000;0.6886;0.5401;
1133.1000;0.6886;0.5427;
1133.4000;0.6895;0.5427;
1133.7000;0.6903;0.5452;
1134.0000;0.6903;0.5503;
1134.3000;0.6886;0.5580;
1134.6000;0.6895;0.5580;
1134.9000;0.6903;0.5580;
1135.2000;0.6903;0.5503;
1135.5000;0.6878;0.5427;
1135.8000;0.6895;0.5452;
1136.1000;0.6878;0.5452;
1136.4000;0.6870;0.5554;
1136.7000;0.6886;0.5529;
1137.0000;0.6878;0.5503;
1137.3000;0.6870;0.5554;
1137.6000;0.6878;0.5580;
1137.9000;0.6886;0.5580;
1138.2000;0.6886;0.5707;
1138.5000;0.6895;0.5656;
1138.8000;0.6846;0.5554;
1139.1000;0.6886;0.5605;
1139.4000;0.6886;0.5580;
1139.7000;0.6886;0.5554;
1140.0000;0.6878;0.5554;
1140.3000;0.6886;0.5631;
1140.6000;0.6854;0.5605;
1140.9000;0.6886;0.5656;
1141.2000;0.6903;0.5656;
1141.5000;0.6878;0.5631;
1141.8000;0.6903;0.5707;
1142.1000;0.6829;0.5503;
1142.4000;0.6838;0.5529;
1142.7000;0.6870;0.5605;
1143.0000;0.6878;0.5631;
1143.3000;0.6862;0.5554;
1143.6000;0.6870;0.5580;
1143.9000;0.6886;0.5631;
1144.2000;0.6886;0.5682;
1144.5000;0.6862;0.5783;
1144.8000;0.6813;0.5631;
1145.1000;0.6862;0.5707;
1145.4000;0.6870;0.5656;
1145.7000;0.6862;0.5605;
1146.0000;0.6878;0.5580;
1146.3000;0.6878;0.5605;
1146.6000;0.6886;0.5605;
1146.9000;0.6968;0.5783;
1147.2000;0.6903;0.5631;
1147.5000;0.6878;0.5707;
1147.8000;0.6886;0.5733;
1148.1000;0.6878;0.5758;
1148.4000;0.6870;0.5707;
1148.7000;0.6862;0.5707;
1149.0000;0.6878;0.5707;
1149.3000;0.6878;0.5707;
1149.6000;0.6878;0.5682;
1149.9000;0.6878;0.5682;
1150.2000;0.6895;0.5707;
1150.5000;0.6870;0.5682;
1150.8000;0.6886;0.5707;
1151.1000;0.6886;0.5682;
1151.4000;0.6886;0.5656;
1151.7000;0.6878;0.5631;
1152.0000;0.6886;0.5580;
1152.3000;0.6886;0.5631;
1152.6000;0.6870;0.5682;
1152.9000;0.6870;0.5631;
1153.2000;0.6870;0.5554;
1153.5000;0.6878;0.5580;
1153.8000;0.6886;0.5631;
1154.1000;0.6870;0.5554;
1154.4000;0.6854;0.5503;
1154.7000;0.6911;0.5707;
1155.0000;0.6886;0.5580;
1155.3000;0.6886;0.5554;
1155.6000;0.6903;0.5503;
1155.9000;0.6878;0.5427;
1156.2000;0.6895;0.5401;
1156.5000;0.6862;0.5376;
1156.8000;0.6878;0.5350;
1157.1000;0.6878;0.5376;
1157.4000;0.6895;0.5478;
1157.7000;0.6870;0.5325;
1158.0000;0.6878;0.5503;
1158.3000;0.6846;0.5452;
1158.6000;0.6870;0.5554;
1158.9000;0.6870;0.5554;
1159.2000;0.6846;0.5529;
1159.5000;0.6854;0.5529;
1159.8000;0.6862;0.5605;
1160.1000;0.6870;0.5554;
1160.4000;0.6870;0.5503;
1160.7000;0.6870;0.5529;
1161.0000;0.6895;0.5656;
1161.3000;0.6886;0.5605;
1161.6000;0.6870;0.5580;
1161.9000;0.6886;0.5554;
1162.2000;0.6895;0.5529;
1162.5000;0.6862;0.5427;
1162.8000;0.6870;0.5376;
1163.1000;0.6952;0.5605;
1163.4000;0.6878;0.5452;
1163.7000;0.6886;0.5503;
1164.0000;0.6821;0.5452;
1164.3000;0.6862;0.5631;
1164.6000;0.6862;0.5656;
1164.9000;0.6927;0.5885;
1165.2000;0.6886;0.5758;
1165.5000;0.6878;0.5936;
1165.8000;0.6895;0.5936;
1166.1000;0.6903;0.5962;
1166.4000;0.6870;0.5834;
1166.7000;0.6870;0.5860;
1167.0000;0.6895;0.5911;
1167.3000;0.6895;0.5911;
1167.6000;0.6935;0.5962;
1167.9000;0.6903;0.5783;
1168.2000;0.6903;0.5707;
1168.5000;0.6821;0.5580;
1168.8000;0.6911;0.5707;
1169.1000;0.6878;0.5656;
1169.4000;0.6895;0.5682;
1169.7000;0.6870;0.5580;
1170.0000;0.6870;0.5503;
1170.3000;0.6870;0.5376;
1170.6000;0.6886;0.5529;
1170.9000;0.6878;0.5554;
1171.2000;0.6895;0.5503;
1171.5000;0.6886;0.5503;
1171.8000;0.6862;0.5401;
1172.1000;0.6878;0.5503;
1172.4000;0.6895;0.5605;
1172.7000;0.6895;0.5605;
1173.0000;0.6878;0.5631;
1173.3000;0.6886;0.5503;
1173.6000;0.6895;0.5503;
1173.9000;0.6895;0.5478;
1174.2000;0.6870;0.5427;
1174.5000;0.6886;0.5529;
1174.8000;0.6886;0.5452;
1175.1000;0.6870;0.5503;
1175.4000;0.6895;0.5656;
1175.7000;0.6895;0.5605;
1176.0000;0.6895;0.5580;
1176.3000;0.6878;0.5529;
1176.6000;0.6862;0.5478;
1176.9000;0.6870;0.5580;
1177.2000;0.6878;0.5605;
1177.5000;0.6895;0.5707;
1177.8000;0.6878;0.5758;
1178.1000;0.6862;0.5707;
1178.4000;0.6870;0.5682;
1178.7000;0.6870;0.5758;
1179.0000;0.6854;0.5631;
1179.3000;0.6878;0.5631;
1179.6000;0.6886;0.5605;
1179.9000;0.6846;0.5478;
1180.2000;0.6846;0.5554;
1180.5000;0.6862;0.5580;
1180.8000;0.6919;0.5783;
1181.1000;0.6952;0.5885;
1181.4000;0.6886;0.5733;
1181.7000;0.6886;0.5733;
1182.0000;0.6846;0.5554;
1182.3000;0.6895;0.5707;
1182.6000;0.6878;0.5656;
1182.9000;0.6854;0.5580;
1183.2000;0.6854;0.5503;
1183.5000;0.6886;0.5529;
1183.8000;0.6870;0.5452;
1184.1000;0.6911;0.5529;
1184.4000;0.6878;0.5503;
1184.7000;0.6886;0.5580;
1185.0000;0.6862;0.5580;
1185.3000;0.6886;0.5631;
1185.6000;0.6862;0.5605;
1185.9000;0.6862;0.5605;
1186.2000;0.6878;0.5580;
1186.5000;0.6862;0.5580;
1186.8000;0.6870;0.5707;
1187.1000;0.6943;0.5783;
1187.4000;0.6862;0.5733;
1187.7000;0.6870;0.5631;
1188.0000;0.6846;0.5529;
1188.3000;0.6862;0.5707;
1188.6000;0.6829;0.5605;
1188.9000;0.6878;0.5707;
1189.2000;0.6919;0.5758;
1189.5000;0.6878;0.5554;
1189.8000;0.6862;0.5580;
1190.1000;0.6870;0.5631;
1190.4000;0.6846;0.5554;
1190.7000;0.6878;0.5656;
1191.0000;0.6870;0.5707;
1191.3000;0.6870;0.5758;
1191.6000;0.6854;0.5707;
1191.9000;0.6895;0.5809;
1192.2000;0.6870;0.5809;
1192.5000;0.6895;0.5809;
1192.8000;0.6911;0.5936;
1193.1000;0.6878;0.5783;
1193.4000;0.6862;0.5733;
1193.7000;0.6846;0.5682;
1194.0000;0.6878;0.5809;
1194.3000;0.6886;0.5809;
1194.6000;0.6870;0.5911;
1194.9000;0.6870;0.5911;
1195.2000;0.6878;0.5783;
1195.5000;0.6878;0.5809;
1195.8000;0.6870;0.5783;
1196.1000;0.6878;0.5733;
1196.4000;0.6870;0.5682;
1196.7000;0.6886;0.5682;
1197.0000;0.6870;0.5733;
1197.3000;0.6870;0.5707;
1197.6000;0.6886;0.5758;
1197.9000;0.6886;0.5758;
1198.2000;0.6911;0.5885;
1198.5000;0.6862;0.5783;
1198.8000;0.6878;0.5860;
1199.1000;0.6862;0.5733;
1199.4000;0.6878;0.5783;
1199.7000;0.6878;0.5834;
1200.0000;0.6870;0.5809;
1200.3000;0.6878;0.5733;
1200.6000;0.6911;0.5733;
1200.9000;0.6862;0.5580;
1201.2000;0.6862;0.5554;
1201.5000;0.6878;0.5656;
1201.8000;0.6919;0.5682;
1202.1000;0.6878;0.5580;
1202.4000;0.6870;0.5580;
1202.7000;0.6870;0.5529;
1203.0000;0.6911;0.5656;
1203.3000;0.6870;0.5580;
1203.6000;0.6870;0.5554;
1203.9000;0.6813;0.5478;
1204.2000;0.6870;0.5656;
1204.5000;0.6878;0.5605;
1204.8000;0.6862;0.5554;
1205.1000;0.6878;0.5529;
1205.4000;0.6886;0.5503;
1205.7000;0.6878;0.5452;
1206.0000;0.6878;0.5503;
1206.3000;0.6862;0.5503;
1206.6000;0.6878;0.5605;
1206.9000;0.6886;0.5631;
1207.2000;0.6862;0.5656;
1207.5000;0.6886;0.5733;
1207.8000;0.6886;0.5707;
1208.1000;0.6886;0.5682;
1208.4000;0.6895;0.5707;
1208.7000;0.6878;0.5682;
1209.0000;0.6838;0.5605;
1209.3000;0.6895;0.5707;
1209.6000;0.6870;0.5631;
1209.9000;0.6854;0.5605;
1210.2000;0.6846;0.5580;
1210.5000;0.6878;0.5758;
1210.8000;0.6878;0.5656;
1211.1000;0.6878;0.5605;
1211.4000;0.6878;0.5580;
1211.7000;0.6870;0.5529;
1212.0000;0.6886;0.5554;
1212.3000;0.6927;0.5656;
1212.6000;0.6870;0.5554;
1212.9000;0.6878;0.5503;
1213.2000;0.6878;0.5478;
1213.5000;0.6870;0.5427;
1213.8000;0.6886;0.5427;
1214.1000;0.6878;0.5503;
1214.4000;0.6878;0.5554;
1214.7000;0.6878;0.5631;
1215.0000;0.6878;0.5554;
1215.3000;0.6862;0.5427;
1215.6000;0.6878;0.5427;
1215.9000;0.6911;0.5478;
1216.2000;0.6870;0.5401;
1216.5000;0.6870;0.5350;
1216.8000;0.6903;0.5452;
1217.1000;0.6895;0.5452;
1217.4000;0.6886;0.5452;
1217.7000;0.6862;0.5401;
1218.0000;0.6862;0.5401;
1218.3000;0.6878;0.5401;
1218.6000;0.6862;0.5401;
1218.9000;0.6813;0.5376;
1219.2000;0.6854;0.5503;
1219.5000;0.6878;0.5503;
1219.8000;0.6829;0.5427;
1220.1000;0.6870;0.5503;
1220.4000;0.6838;0.5427;
1220.7000;0.6870;0.5554;
1221.0000;0.6870;0.5554;
1221.3000;0.6878;0.5631;
1221.6000;0.6870;0.5580;
1221.9000;0.6895;0.5605;
1222.2000;0.6870;0.5605;
1222.5000;0.6878;0.5631;
1222.8000;0.6862;0.5605;
1223.1000;0.6862;0.5656;
1223.4000;0.6870;0.5656;
1223.7000;0.6862;0.5605;
1224.0000;0.6829;0.5554;
1224.3000;0.6886;0.5707;
1224.6000;0.6903;0.5758;
1224.9000;0.6854;0.5707;
1225.2000;0.6919;0.5783;
1225.5000;0.6895;0.5707;
1225.8000;0.6878;0.5758;
1226.1000;0.6878;0.5758;
1226.4000;0.6895;0.5809;
1226.7000;0.6862;0.5682;
1227.0000;0.6862;0.5682;
1227.3000;0.6870;0.5758;
1227.6000;0.6854;0.5656;
1227.9000;0.6862;0.5707;
1228.2000;0.6870;0.5707;
1228.5000;0.6935;0.5911;
1228.8000;0.6862;0.5656;
1229.1000;0.6862;0.5707;
1229.4000;0.6870;0.5707;
1229.7000;0.6878;0.5733;
1230.0000;0.6960;0.5911;
1230.3000;0.6886;0.5682;
1230.6000;0.6870;0.5656;
1230.9000;0.6886;0.5733;
1231.2000;0.6911;0.5783;
1231.5000;0.6862;0.5733;
1231.8000;0.6870;0.5758;
1232.1000;0.6862;0.5758;
1232.4000;0.6878;0.5733;
1232.7000;0.6886;0.5758;
1233.0000;0.6878;0.5656;
1233.3000;0.6862;0.5631;
1233.6000;0.6919;0.5758;
1233.9000;0.6870;0.5580;
1234.2000;0.6870;0.5554;
1234.5000;0.6878;0.5554;
1234.8000;0.6878;0.5580;
1235.1000;0.6886;0.5580;
1235.4000;0.6870;0.5580;
1235.7000;0.6886;0.5554;
1236.0000;0.6878;0.5503;
1236.3000;0.6878;0.5503;
1236.6000;0.6870;0.5529;
1236.9000;0.6870;0.5656;
1237.2000;0.6878;0.5758;
1237.5000;0.6854;0.5682;
1237.8000;0.6878;0.5733;
1238.1000;0.6870;0.5733;
1238.4000;0.6870;0.5707;
1238.7000;0.6903;0.5682;
1239.0000;0.6862;0.5529;
1239.3000;0.6870;0.5503;
1239.6000;0.6821;0.5503;
1239.9000;0.6895;0.5656;
1240.2000;0.6878;0.5631;
1240.5000;0.6870;0.5733;
1240.8000;0.6862;0.5733;
1241.1000;0.6886;0.5682;
1241.4000;0.6870;0.5682;
1241.7000;0.6870;0.5733;
1242.0000;0.6862;0.5707;
1242.3000;0.6886;0.5682;
1242.6000;0.6878;0.5682;
1242.9000;0.6919;0.5783;
1243.2000;0.6870;0.5656;
1243.5000;0.6878;0.5783;
1243.8000;0.6862;0.5783;
1244.1000;0.6870;0.5860;
1244.4000;0.6846;0.5860;
1244.7000;0.6821;0.5834;
1245.0000;0.6886;0.5987;
1245.3000;0.6878;0.5962;
1245.6000;0.6854;0.5911;
1245.9000;0.6870;0.5911;
1246.2000;0.6870;0.5809;
1246.5000;0.6870;0.5758;
1246.8000;0.6878;0.5783;
1247.1000;0.6854;0.5758;
1247.4000;0.6878;0.5809;
1247.7000;0.6870;0.5834;
1248.0000;0.6878;0.5885;
1248.3000;0.6878;0.5809;
1248.6000;0.6870;0.5682;
1248.9000;0.6878;0.5733;
1249.2000;0.6854;0.5656;
1249.5000;0.6878;0.5707;
1249.8000;0.6846;0.5707;
1250.1000;0.6870;0.5631;
1250.4000;0.6838;0.5503;
1250.7000;0.6854;0.5427;
1251.0000;0.6870;0.5401;
1251.3000;0.6878;0.5452;
1251.6000;0.6886;0.5401;
1251.9000;0.6862;0.5325;
1252.2000;0.6854;0.5325;
1252.5000;0.6870;0.5478;
1252.8000;0.6903;0.5503;
1253.1000;0.6870;0.5503;
1253.4000;0.6878;0.5452;
1253.7000;0.6854;0.5401;
1254.0000;0.6952;0.5656;
1254.3000;0.6895;0.5554;
1254.6000;0.6862;0.5503;
1254.9000;0.6854;0.5478;
1255.2000;0.6854;0.5580;
1255.5000;0.6870;0.5580;
1255.8000;0.6870;0.5529;
1256.1000;0.6878;0.5478;
1256.4000;0.6878;0.5503;
1256.7000;0.6862;0.5554;
1257.0000;0.6870;0.5580;
1257.3000;0.6903;0.5631;
1257.6000;0.6878;0.5580;
1257.9000;0.6862;0.5503;
1258.2000;0.6870;0.5529;
1258.5000;0.6878;0.5580;
1258.8000;0.6878;0.5554;
1259.1000;0.6911;0.5656;
1259.4000;0.6886;0.5503;
1259.7000;0.6870;0.5503;
1260.0000;0.6878;0.5554;
1260.3000;0.6870;0.5605;
1260.6000;0.6878;0.5631;
1260.9000;0.6862;0.5631;
1261.2000;0.6870;0.5631;
1261.5000;0.6886;0.5580;
1261.8000;0.6886;0.5631;
1262.1000;0.6878;0.5631;
1262.4000;0.6854;0.5631;
1262.7000;0.6886;0.5707;
1263.0000;0.6878;0.5783;
1263.3000;0.6886;0.5783;
1263.6000;0.6854;0.5656;
1263.9000;0.6862;0.5656;
1264.2000;0.6878;0.5733;
1264.5000;0.6862;0.5682;
1264.8000;0.6878;0.5783;
1265.1000;0.6862;0.5733;
1265.4000;0.6854;0.5758;
1265.7000;0.6895;0.5758;
1266.0000;0.6862;0.5733;
1266.3000;0.6870;0.5758;
1266.6000;0.6854;0.5682;
1266.9000;0.6862;0.5733;
1267.2000;0.6870;0.5656;
1267.5000;0.6870;0.5707;
1267.8000;0.6878;0.5758;
1268.1000;0.6862;0.5733;
1268.4000;0.6813;0.5554;
1268.7000;0.6870;0.5707;
1269.0000;0.6862;0.5631;
1269.3000;0.6862;0.5554;
1269.6000;0.6870;0.5554;
1269.9000;0.6862;0.5529;
1270.2000;0.6878;0.5605;
1270.5000;0.6870;0.5631;
1270.8000;0.6854;0.5529;
1271.1000;0.6838;0.5529;
1271.4000;0.6862;0.5580;
1271.7000;0.6854;0.5554;
1272.0000;0.6870;0.5682;
1272.3000;0.6854;0.5631;
1272.6000;0.6854;0.5631;
1272.9000;0.6870;0.5580;
1273.2000;0.6935;0.5707;
1273.5000;0.6895;0.5554;
1273.8000;0.6854;0.5427;
1274.1000;0.6895;0.5656;
1274.4000;0.6878;0.5605;
1274.7000;0.6870;0.5682;
1275.0000;0.6870;0.5682;
1275.3000;0.6862;0.5656;
1275.6000;0.6878;0.5733;
1275.9000;0.6838;0.5682;
1276.2000;0.6862;0.5707;
1276.5000;0.6862;0.5758;
1276.8000;0.6878;0.5758;
1277.1000;0.6870;0.5809;
1277.4000;0.6862;0.5809;
1277.7000;0.6870;0.5783;
1278.0000;0.6870;0.5809;
1278.3000;0.6862;0.5758;
1278.6000;0.6870;0.5758;
1278.9000;0.6862;0.5605;
1279.2000;0.6903;0.5733;
1279.5000;0.6870;0.5631;
1279.8000;0.6878;0.5656;
1280.1000;0.6870;0.5707;
1280.4000;0.6870;0.5682;
1280.7000;0.6878;0.5733;
1281.0000;0.6878;0.5758;
1281.3000;0.6829;0.5631;
1281.6000;0.6870;0.5656;
1281.9000;0.6862;0.5580;
1282.2000;0.6870;0.5605;
1282.5000;0.6886;0.5631;
1282.8000;0.6886;0.5631;
1283.1000;0.6895;0.5682;
1283.4000;0.6886;0.5682;
1283.7000;0.6903;0.5758;
1284.0000;0.6846;0.5580;
1284.3000;0.6870;0.5656;
1284.6000;0.6862;0.5682;
1284.9000;0.6878;0.5707;
1285.2000;0.6870;0.5682;
1285.5000;0.6862;0.5605;
1285.8000;0.6862;0.5605;
1286.1000;0.6862;0.5605;
1286.4000;0.6862;0.5631;
1286.7000;0.6886;0.5733;
1287.0000;0.6878;0.5707;
1287.3000;0.6870;0.5631;
1287.6000;0.6870;0.5631;
1287.9000;0.6813;0.5503;
1288.2000;0.6870;0.5707;
1288.5000;0.6846;0.5682;
1288.8000;0.6862;0.5682;
1289.1000;0.6870;0.5656;
1289.4000;0.6862;0.5656;
1289.7000;0.6870;0.5733;
1290.0000;0.6838;0.5554;
1290.3000;0.6854;0.5605;
1290.6000;0.6870;0.5631;
1290.9000;0.6846;0.5529;
1291.2000;0.6846;0.5580;
1291.5000;0.6919;0.5733;
1291.8000;0.6870;0.5503;
1292.1000;0.6878;0.5554;
1292.4000;0.6886;0.5631;
1292.7000;0.6870;0.5631;
1293.0000;0.6862;0.5656;
1293.3000;0.6870;0.5631;
1293.6000;0.6895;0.5682;
1293.9000;0.6862;0.5733;
1294.2000;0.6870;0.5758;
1294.5000;0.6862;0.5733;
1294.8000;0.6927;0.5809;
1295.1000;0.6862;0.5580;
1295.4000;0.6854;0.5529;
1295.7000;0.6870;0.5554;
1296.0000;0.6895;0.5631;
1296.3000;0.6862;0.5452;
1296.6000;0.6862;0.5529;
1296.9000;0.6870;0.5580;
1297.2000;0.6854;0.5554;
1297.5000;0.6870;0.5554;
1297.8000;0.6862;0.5529;
1298.1000;0.6862;0.5580;
1298.4000;0.6870;0.5656;
1298.7000;0.6886;0.5682;
1299.0000;0.6870;0.5682;
1299.3000;0.6870;0.5783;
1299.6000;0.6878;0.5733;
1299.9000;0.6886;0.5783;
1300.2000;0.6870;0.5682;
1300.5000;0.6870;0.5656;
1300.8000;0.6878;0.5631;
1301.1000;0.6821;0.5478;
1301.4000;0.6911;0.5758;
1301.7000;0.6870;0.5631;
1302.0000;0.6862;0.5605;
1302.3000;0.6870;0.5580;
1302.6000;0.6870;0.5631;
1302.9000;0.6862;0.5631;
1303.2000;0.6862;0.5631;
1303.5000;0.6886;0.5631;
1303.8000;0.6878;0.5580;
1304.1000;0.6903;0.5631;
1304.4000;0.6862;0.5503;
1304.7000;0.6862;0.5478;
1305.0000;0.6878;0.5503;
1305.3000;0.6862;0.5503;
1305.6000;0.6846;0.5478;
1305.9000;0.6878;0.5529;
1306.2000;0.6895;0.5605;
1306.5000;0.6870;0.5631;
1306.8000;0.6870;0.5631;
1307.1000;0.6878;0.5580;
1307.4000;0.6870;0.5401;
1307.7000;0.6919;0.5580;
1308.0000;0.6862;0.5478;
1308.3000;0.6878;0.5452;
1308.6000;0.6895;0.5554;
1308.9000;0.6911;0.5529;
1309.2000;0.6862;0.5401;
1309.5000;0.6862;0.5478;
1309.8000;0.6870;0.5452;
1310.1000;0.6870;0.5503;
1310.4000;0.6870;0.5503;
1310.7000;0.6854;0.5401;
1311.0000;0.6878;0.5478;
1311.3000;0.6854;0.5503;
1311.6000;0.6838;0.5452;
1311.9000;0.6846;0.5452;
1312.2000;0.6862;0.5529;
1312.5000;0.6870;0.5656;
1312.8000;0.6870;0.5682;
1313.1000;0.6870;0.5682;
1313.4000;0.6862;0.5580;
1313.7000;0.6846;0.5529;
1314.0000;0.6886;0.5682;
1314.3000;0.6870;0.5707;
1314.6000;0.6854;0.5682;
1314.9000;0.6870;0.5605;
1315.2000;0.6878;0.5631;
1315.5000;0.6862;0.5554;
1315.8000;0.6854;0.5529;
1316.1000;0.6821;0.5478;
1316.4000;0.6854;0.5631;
1316.7000;0.6854;0.5733;
1317.0000;0.6846;0.5580;
1317.3000;0.6878;0.5554;
1317.6000;0.6886;0.5503;
1317.9000;0.6870;0.5580;
1318.2000;0.6870;0.5580;
1318.5000;0.6846;0.5605;
1318.8000;0.6838;0.5605;
1319.1000;0.6854;0.5682;
1319.4000;0.6878;0.5733;
1319.7000;0.6870;0.5733;
1320.0000;0.6903;0.5834;
1320.3000;0.6870;0.5656;
1320.6000;0.6886;0.5631;
1320.9000;0.6846;0.5631;
1321.2000;0.6862;0.5631;
1321.5000;0.6870;0.5707;
1321.8000;0.6870;0.5733;
1322.1000;0.6911;0.5834;
1322.4000;0.6870;0.5809;
1322.7000;0.6878;0.5809;
1323.0000;0.6886;0.5707;
1323.3000;0.6862;0.5631;
1323.6000;0.6862;0.5605;
1323.9000;0.6870;0.5605;
1324.2000;0.6854;0.5605;
1324.5000;0.6870;0.5631;
1324.8000;0.6854;0.5605;
1325.1000;0.6838;0.5631;
1325.4000;0.6870;0.5682;
1325.7000;0.6878;0.5733;
1326.0000;0.6862;0.5656;
1326.3000;0.6878;0.5758;
1326.6000;0.6862;0.5860;
1326.9000;0.6878;0.5885;
1327.2000;0.6878;0.5783;
1327.5000;0.6878;0.5809;
1327.8000;0.6862;0.5733;
1328.1000;0.6821;0.5529;
1328.4000;0.6862;0.5631;
1328.7000;0.6870;0.5733;
1329.0000;0.6870;0.5707;
1329.3000;0.6854;0.5733;
1329.6000;0.6870;0.5758;
1329.9000;0.6862;0.5707;
1330.2000;0.6854;0.5682;
1330.5000;0.6878;0.5733;
1330.8000;0.6862;0.5656;
1331.1000;0.6903;0.5733;
1331.4000;0.6870;0.5631;
1331.7000;0.6862;0.5605;
1332.0000;0.6870;0.5631;
1332.3000;0.6846;0.5656;
1332.6000;0.6878;0.5809;
1332.9000;0.6886;0.5885;
1333.2000;0.6886;0.5936;
1333.5000;0.6911;0.5936;
1333.8000;0.6862;0.5733;
1334.1000;0.6862;0.5656;
1334.4000;0.6862;0.5733;
1334.7000;0.6927;0.5758;
1335.0000;0.6854;0.5580;
1335.3000;0.6846;0.5554;
1335.6000;0.6878;0.5758;
1335.9000;0.6878;0.5911;
1336.2000;0.6854;0.5860;
1336.5000;0.6862;0.5860;
1336.8000;0.6854;0.5860;
1337.1000;0.6854;0.5885;
1337.4000;0.6862;0.5885;
1337.7000;0.6838;0.5783;
1338.0000;0.6968;0.6115;
1338.3000;0.6886;0.5834;
1338.6000;0.6862;0.5783;
1338.9000;0.6862;0.5758;
1339.2000;0.6862;0.5834;
1339.5000;0.6862;0.5809;
1339.8000;0.6862;0.5860;
1340.1000;0.6870;0.5834;
1340.4000;0.6862;0.5809;
1340.7000;0.6870;0.5834;
1341.0000;0.6862;0.5860;
1341.3000;0.6862;0.5834;
1341.6000;0.6862;0.5783;
1341.9000;0.6878;0.5885;
1342.2000;0.6903;0.5936;
1342.5000;0.6870;0.5936;
1342.8000;0.6870;0.5936;
1343.1000;0.6968;0.6191;
1343.4000;0.6878;0.5962;
1343.7000;0.6870;0.5987;
1344.0000;0.6862;0.6013;
1344.3000;0.6878;0.5987;
1344.6000;0.6862;0.5987;
1344.9000;0.6870;0.6013;
1345.2000;0.6943;0.6115;
1345.5000;0.6862;0.5809;
1345.8000;0.6846;0.5783;
1346.1000;0.6878;0.5809;
1346.4000;0.6846;0.5758;
1346.7000;0.6862;0.5783;
1347.0000;0.6895;0.5885;
1347.3000;0.6878;0.5809;
1347.6000;0.6862;0.5783;
1347.9000;0.6878;0.5809;
1348.2000;0.6854;0.5860;
1348.5000;0.6870;0.5860;
1348.8000;0.6870;0.5834;
1349.1000;0.6862;0.5834;
1349.4000;0.6878;0.5860;
1349.7000;0.6895;0.5911;
1350.0000;0.6878;0.5860;
1350.3000;0.6821;0.5783;
1350.6000;0.6870;0.5962;
1350.9000;0.6870;0.5962;
1351.2000;0.6846;0.5860;
1351.5000;0.6895;0.5911;
1351.8000;0.6870;0.5936;
1352.1000;0.6886;0.5962;
1352.4000;0.6870;0.5962;
1352.7000;0.6862;0.5987;
1353.0000;0.6838;0.5911;
1353.3000;0.6903;0.6038;
1353.6000;0.6862;0.5911;
1353.9000;0.6862;0.5834;
1354.2000;0.6854;0.5783;
1354.5000;0.6870;0.5809;
1354.8000;0.6862;0.5758;
1355.1000;0.6886;0.5733;
1355.4000;0.6878;0.5707;
1355.7000;0.6862;0.5733;
1356.0000;0.6813;0.5682;
1356.3000;0.6870;0.5758;
1356.6000;0.6870;0.5707;
1356.9000;0.6886;0.5809;
1357.2000;0.6846;0.5605;
1357.5000;0.6862;0.5656;
1357.8000;0.6854;0.5580;
1358.1000;0.6821;0.5427;
1358.4000;0.6854;0.5478;
1358.7000;0.6878;0.5529;
1359.0000;0.6854;0.5529;
1359.3000;0.6854;0.5529;
1359.6000;0.6878;0.5580;
1359.9000;0.6943;0.5758;
1360.2000;0.6862;0.5656;
1360.5000;0.6862;0.5834;
1360.8000;0.6878;0.5987;
1361.1000;0.6854;0.5936;
1361.4000;0.6862;0.5962;
1361.7000;0.6870;0.5987;
1362.0000;0.6854;0.5987;
1362.3000;0.6862;0.5987;
1362.6000;0.6854;0.5936;
1362.9000;0.6870;0.5860;
1363.2000;0.6870;0.5783;
1363.5000;0.6862;0.5758;
1363.8000;0.6862;0.5783;
1364.1000;0.6870;0.5834;
1364.4000;0.6862;0.5733;
1364.7000;0.6846;0.5733;
1365.0000;0.6846;0.5733;
1365.3000;0.6878;0.5733;
1365.6000;0.6862;0.5682;
1365.9000;0.6862;0.5682;
1366.2000;0.6878;0.5682;
1366.5000;0.6878;0.5529;
1366.8000;0.6870;0.5350;
1367.1000;0.6870;0.5401;
1367.4000;0.6862;0.5452;
1367.7000;0.6854;0.5401;
1368.0000;0.6862;0.5452;
1368.3000;0.6862;0.5427;
1368.6000;0.6862;0.5452;
1368.9000;0.6862;0.5452;
1369.2000;0.6862;0.5427;
1369.5000;0.6862;0.5427;
1369.8000;0.6805;0.5325;
1370.1000;0.6870;0.5529;
1370.4000;0.6854;0.5478;
1370.7000;0.6870;0.5580;
1371.0000;0.6854;0.5529;
1371.3000;0.6952;0.5809;
1371.6000;0.6870;0.5580;
1371.9000;0.6854;0.5529;
1372.2000;0.6870;0.5580;
1372.5000;0.6878;0.5580;
1372.8000;0.6862;0.5529;
1373.1000;0.6862;0.5503;
1373.4000;0.6862;0.5554;
1373.7000;0.6862;0.5656;
1374.0000;0.6870;0.5733;
1374.3000;0.6862;0.5707;
1374.6000;0.6862;0.5656;
1374.9000;0.6862;0.5631;
1375.2000;0.6829;0.5580;
1375.5000;0.6862;0.5682;
1375.8000;0.6838;0.5631;
1376.1000;0.6862;0.5580;
1376.4000;0.6846;0.5503;
1376.7000;0.6895;0.5656;
1377.0000;0.6870;0.5656;
1377.3000;0.6862;0.5656;
1377.6000;0.6870;0.5656;
1377.9000;0.6878;0.5707;
1378.2000;0.6854;0.5529;
1378.5000;0.6846;0.5631;
1378.8000;0.6895;0.5860;
1379.1000;0.6895;0.5936;
1379.4000;0.6870;0.5834;
1379.7000;0.6878;0.5834;
1380.0000;0.6854;0.5682;
1380.3000;0.6862;0.5733;
1380.6000;0.6854;0.5707;
1380.9000;0.6846;0.5733;
1381.2000;0.6854;0.5809;
1381.5000;0.6886;0.5860;
1381.8000;0.6854;0.5783;
1382.1000;0.6862;0.5834;
1382.4000;0.6854;0.5758;
1382.7000;0.6919;0.5962;
1383.0000;0.6862;0.5834;
1383.3000;0.6854;0.5809;
1383.6000;0.6870;0.5834;
1383.9000;0.6870;0.5911;
1384.2000;0.6846;0.5834;
1384.5000;0.6846;0.5885;
1384.8000;0.6895;0.5911;
1385.1000;0.6870;0.5809;
1385.4000;0.6870;0.5809;
1385.7000;0.6838;0.5682;
1386.0000;0.6870;0.5758;
1386.3000;0.6862;0.5783;
1386.6000;0.6862;0.5809;
1386.9000;0.6862;0.5783;
1387.2000;0.6854;0.5733;
1387.5000;0.6886;0.5809;
1387.8000;0.6862;0.5707;
1388.1000;0.6886;0.5682;
1388.4000;0.6854;0.5554;
1388.7000;0.6862;0.5503;
1389.0000;0.6878;0.5503;
1389.3000;0.6878;0.5452;
1389.6000;0.6870;0.5401;
1389.9000;0.6862;0.5427;
1390.2000;0.6862;0.5478;
1390.5000;0.6862;0.5529;
1390.8000;0.6870;0.5605;
1391.1000;0.6878;0.5605;
1391.4000;0.6870;0.5656;
1391.7000;0.6919;0.5682;
1392.0000;0.6862;0.5503;
1392.3000;0.6846;0.5478;
1392.6000;0.6878;0.5529;
1392.9000;0.6846;0.5401;
1393.2000;0.6878;0.5452;
1393.5000;0.6862;0.5427;
1393.8000;0.6878;0.5529;
1394.1000;0.6862;0.5503;
1394.4000;0.6919;0.5656;
1394.7000;0.6878;0.5656;
1395.0000;0.6846;0.5656;
1395.3000;0.6838;0.5554;
1395.6000;0.6854;0.5605;
1395.9000;0.6886;0.5733;
1396.2000;0.6838;0.5656;
1396.5000;0.6813;0.5631;
1396.8000;0.6764;0.5529;
1397.1000;0.6854;0.5758;
1397.4000;0.6829;0.5707;
1397.7000;0.6846;0.5809;
1398.0000;0.6870;0.5809;
1398.3000;0.6854;0.5834;
1398.6000;0.6838;0.5885;
1398.9000;0.6829;0.5733;
1399.2000;0.6854;0.5758;
1399.5000;0.6846;0.5860;
1399.8000;0.6862;0.5936;
