time/ms;Fluo/V;P700 deltaI/I x10³;
-199.8000;1.0045;1.3539;
-199.5000;1.0061;1.3443;
-199.2000;1.0045;1.3443;
-198.9000;1.0053;1.3491;
-198.6000;1.0045;1.3467;
-198.3000;1.0061;1.3539;
-198.0000;1.0053;1.3563;
-197.7000;1.0053;1.3515;
-197.4000;1.0037;1.3467;
-197.1000;1.0028;1.3323;
-196.8000;1.0037;1.3275;
-196.5000;1.0053;1.3299;
-196.2000;1.0053;1.3299;
-195.9000;1.0045;1.3323;
-195.6000;1.0102;1.3491;
-195.3000;1.0045;1.3371;
-195.0000;1.0045;1.3419;
-194.7000;1.0053;1.3443;
-194.4000;1.0045;1.3539;
-194.1000;1.0045;1.3515;
-193.8000;1.0053;1.3419;
-193.5000;1.0053;1.3299;
-193.2000;1.0053;1.3299;
-192.9000;1.0037;1.3323;
-192.6000;1.0045;1.3299;
-192.3000;1.0037;1.3395;
-192.0000;1.0004;1.3299;
-191.7000;1.0053;1.3371;
-191.4000;1.0045;1.3419;
-191.1000;0.9972;1.3227;
-190.8000;1.0037;1.3347;
-190.5000;1.0012;1.3371;
-190.2000;1.0053;1.3467;
-189.9000;1.0037;1.3419;
-189.6000;1.0053;1.3515;
-189.3000;1.0045;1.3443;
-189.0000;1.0102;1.3587;
-188.7000;1.0053;1.3443;
-188.4000;1.0037;1.3371;
-188.1000;1.0045;1.3299;
-187.8000;1.0053;1.3347;
-187.5000;1.0061;1.3491;
-187.2000;1.0045;1.3443;
-186.9000;1.0045;1.3419;
-186.6000;1.0045;1.3467;
-186.3000;1.0045;1.3443;
-186.0000;1.0069;1.3491;
-185.7000;1.0061;1.3467;
-185.4000;1.0045;1.3515;
-185.1000;1.0061;1.3611;
-184.8000;1.0069;1.3563;
-184.5000;1.0045;1.3467;
-184.2000;1.0061;1.3467;
-183.9000;1.0037;1.3491;
-183.6000;0.9963;1.3323;
-183.3000;0.9988;1.3371;
-183.0000;1.0061;1.3491;
-182.7000;1.0028;1.3419;
-182.4000;1.0045;1.3371;
-182.1000;1.0053;1.3275;
-181.8000;1.0037;1.3251;
-181.5000;1.0077;1.3371;
-181.2000;1.0077;1.3371;
-180.9000;1.0053;1.3323;
-180.6000;1.0037;1.3395;
-180.3000;0.9980;1.3347;
-180.0000;1.0053;1.3611;
-179.7000;1.0045;1.3659;
-179.4000;1.0045;1.3683;
-179.1000;1.0069;1.3802;
-178.8000;1.0061;1.3635;
-178.5000;1.0077;1.3707;
-178.2000;1.0053;1.3659;
-177.9000;1.0037;1.3754;
-177.6000;1.0028;1.3659;
-177.3000;1.0037;1.3635;
-177.0000;1.0102;1.3707;
-176.7000;1.0037;1.3539;
-176.4000;1.0037;1.3563;
-176.1000;1.0053;1.3539;
-175.8000;1.0069;1.3491;
-175.5000;1.0045;1.3443;
-175.2000;1.0028;1.3419;
-174.9000;1.0077;1.3683;
-174.6000;1.0159;1.3802;
-174.3000;1.0004;1.3419;
-174.0000;1.0037;1.3491;
-173.7000;1.0061;1.3539;
-173.4000;1.0045;1.3419;
-173.1000;1.0085;1.3539;
-172.8000;1.0053;1.3467;
-172.5000;1.0037;1.3515;
-172.2000;1.0069;1.3635;
-171.9000;1.0142;1.3778;
-171.6000;1.0045;1.3587;
-171.3000;1.0037;1.3635;
-171.0000;1.0053;1.3659;
-170.7000;1.0012;1.3515;
-170.4000;1.0045;1.3587;
-170.1000;1.0045;1.3563;
-169.8000;1.0061;1.3611;
-169.5000;1.0061;1.3491;
-169.2000;1.0053;1.3467;
-168.9000;0.9996;1.3323;
-168.6000;1.0061;1.3443;
-168.3000;0.9980;1.3251;
-168.0000;1.0037;1.3443;
-167.7000;1.0037;1.3443;
-167.4000;1.0045;1.3611;
-167.1000;1.0053;1.3635;
-166.8000;1.0053;1.3659;
-166.5000;1.0077;1.3731;
-166.2000;1.0045;1.3683;
-165.9000;1.0053;1.3611;
-165.6000;1.0069;1.3587;
-165.3000;1.0037;1.3443;
-165.0000;1.0028;1.3419;
-164.7000;1.0037;1.3443;
-164.4000;1.0053;1.3515;
-164.1000;1.0037;1.3491;
-163.8000;1.0037;1.3515;
-163.5000;1.0053;1.3611;
-163.2000;1.0037;1.3635;
-162.9000;1.0020;1.3539;
-162.6000;1.0045;1.3491;
-162.3000;1.0037;1.3371;
-162.0000;1.0045;1.3299;
-161.7000;1.0037;1.3275;
-161.4000;1.0028;1.3227;
-161.1000;1.0045;1.3299;
-160.8000;1.0061;1.3251;
-160.5000;1.0061;1.3323;
-160.2000;1.0037;1.3251;
-159.9000;1.0037;1.3275;
-159.6000;1.0118;1.3611;
-159.3000;1.0061;1.3443;
-159.0000;1.0037;1.3443;
-158.7000;1.0037;1.3323;
-158.4000;1.0004;1.3179;
-158.1000;1.0069;1.3323;
-157.8000;1.0045;1.3203;
-157.5000;1.0094;1.3251;
-157.2000;1.0053;1.3131;
-156.9000;1.0037;1.3179;
-156.6000;1.0045;1.3227;
-156.3000;1.0045;1.3251;
-156.0000;1.0028;1.3227;
-155.7000;1.0053;1.3251;
-155.4000;1.0126;1.3515;
-155.1000;1.0045;1.3395;
-154.8000;1.0045;1.3515;
-154.5000;1.0028;1.3467;
-154.2000;1.0053;1.3587;
-153.9000;1.0077;1.3635;
-153.6000;1.0037;1.3443;
-153.3000;1.0061;1.3419;
-153.0000;1.0061;1.3419;
-152.7000;1.0061;1.3347;
-152.4000;1.0020;1.3323;
-152.1000;1.0053;1.3419;
-151.8000;1.0037;1.3491;
-151.5000;1.0037;1.3395;
-151.2000;1.0053;1.3347;
-150.9000;1.0045;1.3347;
-150.6000;1.0045;1.3323;
-150.3000;1.0045;1.3275;
-150.0000;1.0045;1.3275;
-149.7000;1.0053;1.3251;
-149.4000;1.0053;1.3179;
-149.1000;1.0053;1.3179;
-148.8000;1.0053;1.3275;
-148.5000;0.9988;1.3227;
-148.2000;1.0045;1.3347;
-147.9000;1.0045;1.3299;
-147.6000;1.0045;1.3275;
-147.3000;1.0037;1.3251;
-147.0000;1.0045;1.3395;
-146.7000;0.9996;1.3323;
-146.4000;1.0053;1.3467;
-146.1000;1.0037;1.3443;
-145.8000;1.0045;1.3491;
-145.5000;1.0037;1.3443;
-145.2000;1.0053;1.3491;
-144.9000;1.0053;1.3587;
-144.6000;1.0053;1.3539;
-144.3000;1.0053;1.3611;
-144.0000;1.0045;1.3587;
-143.7000;0.9996;1.3395;
-143.4000;1.0069;1.3539;
-143.1000;1.0045;1.3395;
-142.8000;1.0045;1.3395;
-142.5000;1.0134;1.3611;
-142.2000;1.0053;1.3395;
-141.9000;1.0053;1.3371;
-141.6000;1.0037;1.3323;
-141.3000;1.0045;1.3299;
-141.0000;1.0028;1.3275;
-140.7000;1.0012;1.3227;
-140.4000;1.0094;1.3371;
-140.1000;1.0053;1.3419;
-139.8000;1.0028;1.3395;
-139.5000;1.0077;1.3491;
-139.2000;1.0110;1.3491;
-138.9000;1.0061;1.3347;
-138.6000;1.0118;1.3515;
-138.3000;0.9980;1.3108;
-138.0000;1.0045;1.3227;
-137.7000;1.0061;1.3227;
-137.4000;0.9963;1.2940;
-137.1000;1.0037;1.3131;
-136.8000;1.0053;1.3131;
-136.5000;1.0053;1.3155;
-136.2000;1.0045;1.3155;
-135.9000;1.0037;1.3155;
-135.6000;1.0126;1.3395;
-135.3000;1.0045;1.3251;
-135.0000;1.0037;1.3227;
-134.7000;1.0037;1.3251;
-134.4000;1.0085;1.3395;
-134.1000;1.0061;1.3323;
-133.8000;1.0069;1.3323;
-133.5000;1.0037;1.3275;
-133.2000;1.0053;1.3251;
-132.9000;1.0045;1.3131;
-132.6000;1.0061;1.3131;
-132.3000;1.0020;1.3060;
-132.0000;1.0045;1.3108;
-131.7000;1.0028;1.3155;
-131.4000;1.0061;1.3203;
-131.1000;1.0037;1.3203;
-130.8000;1.0020;1.3179;
-130.5000;1.0077;1.3275;
-130.2000;1.0028;1.3131;
-129.9000;1.0020;1.3084;
-129.6000;1.0012;1.3036;
-129.3000;1.0020;1.2988;
-129.0000;1.0053;1.3036;
-128.7000;1.0061;1.3108;
-128.4000;1.0045;1.3131;
-128.1000;1.0037;1.3131;
-127.8000;1.0045;1.3275;
-127.5000;1.0053;1.3275;
-127.2000;1.0037;1.3323;
-126.9000;1.0053;1.3371;
-126.6000;1.0037;1.3419;
-126.3000;1.0045;1.3443;
-126.0000;1.0053;1.3347;
-125.7000;1.0069;1.3371;
-125.4000;1.0028;1.3227;
-125.1000;0.9996;1.3084;
-124.8000;1.0012;1.3179;
-124.5000;1.0020;1.3227;
-124.2000;1.0028;1.3203;
-123.9000;1.0037;1.3155;
-123.6000;1.0028;1.3251;
-123.3000;1.0020;1.3275;
-123.0000;1.0037;1.3299;
-122.7000;1.0037;1.3251;
-122.4000;1.0061;1.3203;
-122.1000;1.0061;1.3251;
-121.8000;1.0045;1.3203;
-121.5000;1.0061;1.3275;
-121.2000;1.0045;1.3275;
-120.9000;1.0045;1.3323;
-120.6000;1.0085;1.3395;
-120.3000;1.0069;1.3299;
-120.0000;1.0085;1.3371;
-119.7000;1.0020;1.3131;
-119.4000;1.0069;1.3251;
-119.1000;1.0053;1.3108;
-118.8000;1.0037;1.3203;
-118.5000;1.0110;1.3371;
-118.2000;1.0053;1.3155;
-117.9000;1.0053;1.3179;
-117.6000;1.0110;1.3323;
-117.3000;1.0020;1.3131;
-117.0000;1.0020;1.3131;
-116.7000;1.0037;1.3251;
-116.4000;1.0004;1.3179;
-116.1000;1.0045;1.3251;
-115.8000;1.0037;1.3275;
-115.5000;1.0085;1.3371;
-115.2000;1.0069;1.3323;
-114.9000;1.0037;1.3251;
-114.6000;1.0053;1.3275;
-114.3000;1.0028;1.3203;
-114.0000;1.0037;1.3227;
-113.7000;1.0045;1.3227;
-113.4000;1.0028;1.3155;
-113.1000;1.0028;1.3036;
-112.8000;1.0053;1.3060;
-112.5000;1.0037;1.3012;
-112.2000;1.0053;1.2988;
-111.9000;1.0045;1.2988;
-111.6000;1.0045;1.2988;
-111.3000;1.0037;1.3036;
-111.0000;1.0061;1.2988;
-110.7000;1.0053;1.3012;
-110.4000;1.0028;1.3060;
-110.1000;1.0053;1.3108;
-109.8000;1.0061;1.3108;
-109.5000;1.0012;1.3060;
-109.2000;1.0045;1.3131;
-108.9000;1.0069;1.3155;
-108.6000;1.0053;1.3060;
-108.3000;1.0118;1.3227;
-108.0000;1.0045;1.3108;
-107.7000;1.0045;1.3203;
-107.4000;1.0053;1.3131;
-107.1000;1.0069;1.3179;
-106.8000;1.0037;1.3131;
-106.5000;1.0037;1.3131;
-106.2000;1.0028;1.3108;
-105.9000;1.0020;1.3227;
-105.6000;1.0028;1.3299;
-105.3000;1.0053;1.3395;
-105.0000;1.0028;1.3299;
-104.7000;1.0045;1.3347;
-104.4000;1.0037;1.3347;
-104.1000;1.0053;1.3347;
-103.8000;1.0085;1.3347;
-103.5000;1.0077;1.3227;
-103.2000;1.0028;1.3155;
-102.9000;1.0126;1.3443;
-102.6000;1.0020;1.3251;
-102.3000;1.0045;1.3347;
-102.0000;1.0061;1.3395;
-101.7000;1.0028;1.3227;
-101.4000;1.0037;1.3275;
-101.1000;1.0028;1.3227;
-100.8000;1.0061;1.3155;
-100.5000;1.0037;1.3036;
-100.2000;1.0037;1.3060;
-99.9000;1.0012;1.3036;
-99.6000;1.0053;1.3227;
-99.3000;1.0061;1.3155;
-99.0000;1.0053;1.3203;
-98.7000;1.0037;1.3084;
-98.4000;1.0045;1.3060;
-98.1000;1.0053;1.3179;
-97.8000;1.0028;1.3155;
-97.5000;1.0061;1.3179;
-97.2000;1.0053;1.3203;
-96.9000;1.0061;1.3275;
-96.6000;1.0045;1.3299;
-96.3000;1.0045;1.3251;
-96.0000;1.0045;1.3227;
-95.7000;1.0045;1.3323;
-95.4000;1.0053;1.3323;
-95.1000;1.0053;1.3275;
-94.8000;1.0061;1.3227;
-94.5000;1.0053;1.3179;
-94.2000;1.0102;1.3275;
-93.9000;1.0037;1.3108;
-93.6000;1.0118;1.3347;
-93.3000;1.0028;1.3275;
-93.0000;1.0045;1.3275;
-92.7000;1.0028;1.3275;
-92.4000;1.0045;1.3275;
-92.1000;1.0037;1.3251;
-91.8000;1.0037;1.3203;
-91.5000;1.0020;1.3203;
-91.2000;1.0028;1.3203;
-90.9000;1.0012;1.3155;
-90.6000;1.0037;1.3179;
-90.3000;1.0028;1.3036;
-90.0000;1.0028;1.3012;
-89.7000;1.0053;1.3012;
-89.4000;1.0094;1.3179;
-89.1000;1.0053;1.3155;
-88.8000;1.0045;1.3084;
-88.5000;1.0061;1.3012;
-88.2000;1.0061;1.2892;
-87.9000;1.0053;1.2988;
-87.6000;1.0045;1.2988;
-87.3000;1.0053;1.2988;
-87.0000;1.0077;1.3060;
-86.7000;1.0045;1.3060;
-86.4000;1.0045;1.3036;
-86.1000;1.0045;1.3036;
-85.8000;1.0020;1.3012;
-85.5000;1.0053;1.3084;
-85.2000;1.0037;1.3060;
-84.9000;1.0061;1.3155;
-84.6000;1.0045;1.3155;
-84.3000;1.0020;1.3179;
-84.0000;1.0061;1.3203;
-83.7000;1.0037;1.3203;
-83.4000;1.0053;1.3155;
-83.1000;1.0037;1.3179;
-82.8000;1.0045;1.3275;
-82.5000;1.0037;1.3299;
-82.2000;1.0053;1.3419;
-81.9000;1.0069;1.3563;
-81.6000;1.0053;1.3491;
-81.3000;1.0020;1.3323;
-81.0000;1.0037;1.3275;
-80.7000;1.0012;1.3251;
-80.4000;1.0061;1.3467;
-80.1000;1.0061;1.3467;
-79.8000;1.0037;1.3419;
-79.5000;1.0004;1.3251;
-79.2000;1.0061;1.3395;
-78.9000;1.0037;1.3299;
-78.6000;1.0004;1.3227;
-78.3000;1.0028;1.3179;
-78.0000;1.0020;1.3179;
-77.7000;1.0159;1.3419;
-77.4000;1.0053;1.3108;
-77.1000;0.9980;1.2940;
-76.8000;1.0012;1.3012;
-76.5000;1.0045;1.3155;
-76.2000;1.0118;1.3347;
-75.9000;1.0053;1.3108;
-75.6000;1.0037;1.3108;
-75.3000;1.0069;1.3179;
-75.0000;1.0028;1.3108;
-74.7000;1.0020;1.3036;
-74.4000;1.0045;1.3084;
-74.1000;1.0028;1.3179;
-73.8000;1.0045;1.3251;
-73.5000;1.0037;1.3251;
-73.2000;1.0045;1.3275;
-72.9000;1.0028;1.3299;
-72.6000;1.0077;1.3395;
-72.3000;1.0045;1.3323;
-72.0000;1.0037;1.3323;
-71.7000;1.0053;1.3323;
-71.4000;1.0037;1.3179;
-71.1000;1.0037;1.3108;
-70.8000;1.0037;1.3108;
-70.5000;1.0020;1.3108;
-70.2000;1.0045;1.3131;
-69.9000;1.0020;1.3060;
-69.6000;1.0028;1.3084;
-69.3000;1.0077;1.3227;
-69.0000;1.0037;1.3131;
-68.7000;1.0045;1.3131;
-68.4000;1.0053;1.3131;
-68.1000;1.0069;1.3084;
-67.8000;1.0053;1.2964;
-67.5000;1.0053;1.2988;
-67.2000;1.0053;1.2964;
-66.9000;1.0069;1.3012;
-66.6000;1.0061;1.2964;
-66.3000;1.0037;1.2916;
-66.0000;1.0053;1.2988;
-65.7000;1.0053;1.3060;
-65.4000;1.0037;1.2988;
-65.1000;1.0037;1.3012;
-64.8000;1.0045;1.3012;
-64.5000;1.0045;1.3036;
-64.2000;1.0061;1.3084;
-63.9000;1.0061;1.2988;
-63.6000;1.0053;1.3036;
-63.3000;1.0094;1.3084;
-63.0000;1.0069;1.3012;
-62.7000;1.0053;1.3084;
-62.4000;1.0069;1.3299;
-62.1000;1.0037;1.3203;
-61.8000;1.0028;1.3155;
-61.5000;1.0020;1.3179;
-61.2000;1.0037;1.3179;
-60.9000;1.0053;1.3155;
-60.6000;1.0037;1.3084;
-60.3000;1.0061;1.3108;
-60.0000;1.0045;1.3084;
-59.7000;1.0053;1.3131;
-59.4000;1.0061;1.3131;
-59.1000;1.0045;1.3060;
-58.8000;1.0045;1.3036;
-58.5000;1.0053;1.3131;
-58.2000;1.0053;1.3227;
-57.9000;1.0110;1.3323;
-57.6000;1.0028;1.3108;
-57.3000;1.0053;1.3155;
-57.0000;1.0028;1.3203;
-56.7000;1.0037;1.3275;
-56.4000;1.0045;1.3251;
-56.1000;1.0053;1.3251;
-55.8000;1.0077;1.3347;
-55.5000;1.0012;1.3227;
-55.2000;1.0045;1.3323;
-54.9000;1.0069;1.3419;
-54.6000;1.0037;1.3419;
-54.3000;1.0028;1.3299;
-54.0000;1.0061;1.3251;
-53.7000;1.0045;1.3251;
-53.4000;1.0061;1.3275;
-53.1000;1.0077;1.3347;
-52.8000;1.0151;1.3515;
-52.5000;1.0069;1.3203;
-52.2000;1.0053;1.3108;
-51.9000;1.0037;1.3084;
-51.6000;1.0045;1.3131;
-51.3000;1.0028;1.3131;
-51.0000;0.9963;1.3060;
-50.7000;1.0053;1.3227;
-50.4000;1.0069;1.3108;
-50.1000;1.0037;1.3060;
-49.8000;1.0037;1.3084;
-49.5000;1.0012;1.3012;
-49.2000;1.0061;1.3203;
-48.9000;1.0118;1.3347;
-48.6000;1.0028;1.3155;
-48.3000;1.0045;1.3227;
-48.0000;1.0028;1.3251;
-47.7000;1.0045;1.3299;
-47.4000;1.0004;1.3155;
-47.1000;1.0061;1.3275;
-46.8000;1.0061;1.3203;
-46.5000;1.0061;1.3179;
-46.2000;1.0053;1.3251;
-45.9000;1.0037;1.3275;
-45.6000;1.0037;1.3299;
-45.3000;1.0061;1.3203;
-45.0000;1.0045;1.3251;
-44.7000;1.0045;1.3251;
-44.4000;1.0037;1.3251;
-44.1000;1.0020;1.3203;
-43.8000;1.0012;1.3203;
-43.5000;1.0037;1.3347;
-43.2000;1.0045;1.3323;
-42.9000;1.0037;1.3251;
-42.6000;1.0012;1.3179;
-42.3000;1.0126;1.3419;
-42.0000;1.0045;1.3251;
-41.7000;1.0053;1.3179;
-41.4000;1.0053;1.3227;
-41.1000;1.0069;1.3323;
-40.8000;1.0028;1.3251;
-40.5000;1.0069;1.3419;
-40.2000;1.0053;1.3371;
-39.9000;1.0037;1.3419;
-39.6000;1.0053;1.3467;
-39.3000;1.0045;1.3443;
-39.0000;1.0028;1.3347;
-38.7000;1.0053;1.3419;
-38.4000;1.0053;1.3467;
-38.1000;1.0061;1.3443;
-37.8000;1.0045;1.3515;
-37.5000;1.0053;1.3347;
-37.2000;1.0061;1.3323;
-36.9000;1.0045;1.3227;
-36.6000;1.0077;1.3227;
-36.3000;1.0069;1.3251;
-36.0000;1.0094;1.3347;
-35.7000;1.0069;1.3347;
-35.4000;1.0069;1.3275;
-35.1000;1.0053;1.3251;
-34.8000;1.0037;1.3323;
-34.5000;1.0053;1.3323;
-34.2000;1.0037;1.3395;
-33.9000;1.0045;1.3275;
-33.6000;1.0061;1.3371;
-33.3000;1.0045;1.3371;
-33.0000;1.0118;1.3491;
-32.7000;1.0045;1.3323;
-32.4000;1.0053;1.3347;
-32.1000;1.0012;1.3275;
-31.8000;1.0045;1.3395;
-31.5000;1.0077;1.3491;
-31.2000;1.0037;1.3395;
-30.9000;1.0037;1.3419;
-30.6000;1.0045;1.3491;
-30.3000;1.0012;1.3467;
-30.0000;1.0053;1.3419;
-29.7000;1.0053;1.3419;
-29.4000;1.0045;1.3443;
-29.1000;1.0037;1.3443;
-28.8000;1.0061;1.3515;
-28.5000;1.0037;1.3539;
-28.2000;1.0045;1.3563;
-27.9000;1.0134;1.3754;
-27.6000;1.0085;1.3563;
-27.3000;1.0053;1.3491;
-27.0000;1.0053;1.3371;
-26.7000;1.0069;1.3395;
-26.4000;1.0061;1.3395;
-26.1000;1.0053;1.3299;
-25.8000;1.0053;1.3275;
-25.5000;1.0037;1.3251;
-25.2000;1.0053;1.3227;
-24.9000;0.9996;1.3203;
-24.6000;1.0037;1.3347;
-24.3000;1.0037;1.3347;
-24.0000;1.0045;1.3371;
-23.7000;1.0037;1.3395;
-23.4000;1.0053;1.3395;
-23.1000;1.0053;1.3323;
-22.8000;1.0045;1.3275;
-22.5000;1.0061;1.3347;
-22.2000;1.0102;1.3443;
-21.9000;1.0020;1.3323;
-21.6000;1.0028;1.3275;
-21.3000;1.0028;1.3299;
-21.0000;1.0037;1.3299;
-20.7000;1.0045;1.3323;
-20.4000;1.0012;1.3275;
-20.1000;1.0028;1.3347;
-19.8000;1.0028;1.3347;
-19.5000;1.0037;1.3323;
-19.2000;1.0053;1.3347;
-18.9000;1.0045;1.3323;
-18.6000;1.0012;1.3251;
-18.3000;1.0037;1.3323;
-18.0000;1.0061;1.3323;
-17.7000;1.0045;1.3299;
-17.4000;1.0045;1.3323;
-17.1000;1.0053;1.3323;
-16.8000;1.0061;1.3299;
-16.5000;1.0053;1.3323;
-16.2000;1.0037;1.3251;
-15.9000;1.0053;1.3371;
-15.6000;1.0061;1.3395;
-15.3000;1.0069;1.3371;
-15.0000;1.0061;1.3395;
-14.7000;1.0028;1.3323;
-14.4000;1.0045;1.3419;
-14.1000;1.0053;1.3491;
-13.8000;1.0020;1.3419;
-13.5000;1.0045;1.3491;
-13.2000;1.0028;1.3443;
-12.9000;1.0037;1.3419;
-12.6000;1.0020;1.3395;
-12.3000;1.0053;1.3419;
-12.0000;1.0045;1.3467;
-11.7000;1.0053;1.3419;
-11.4000;1.0020;1.3251;
-11.1000;1.0037;1.3227;
-10.8000;1.0053;1.3275;
-10.5000;1.0045;1.3203;
-10.2000;1.0028;1.3299;
-9.9000;1.0004;1.3299;
-9.6000;1.0028;1.3371;
-9.3000;1.0045;1.3395;
-9.0000;1.0118;1.3515;
-8.7000;0.9947;1.3060;
-8.4000;1.0037;1.3155;
-8.1000;1.0045;1.3155;
-7.8000;0.9988;1.2964;
-7.5000;1.0037;1.3036;
-7.2000;1.0045;1.3060;
-6.9000;1.0053;1.3084;
-6.6000;1.0020;1.3155;
-6.3000;1.0045;1.3179;
-6.0000;1.0028;1.3179;
-5.7000;1.0110;1.3443;
-5.4000;1.0061;1.3371;
-5.1000;1.0061;1.3275;
-4.8000;1.0028;1.3371;
-4.5000;1.0045;1.3419;
-4.2000;1.0028;1.3467;
-3.9000;1.0028;1.3467;
-3.6000;1.0045;1.3371;
-3.3000;1.0020;1.3227;
-3.0000;1.0028;1.3323;
-2.7000;1.0045;1.3419;
-2.4000;0.9980;1.3227;
-2.1000;1.0053;1.3467;
-1.8000;1.0077;1.3539;
-1.5000;1.0020;1.3347;
-1.2000;1.0094;1.3563;
-0.9000;1.0037;1.3419;
-0.6000;1.0028;1.3347;
-0.3000;0.9988;1.3299;
0.0000;0.9988;1.3299;
0.3000;1.0232;1.3347;
0.6000;1.0541;1.3731;
0.9000;1.0826;1.4090;
1.2000;1.1062;1.4449;
1.5000;1.1241;1.4785;
1.8000;1.1380;1.5001;
2.1000;1.1477;1.5240;
2.4000;1.1591;1.5480;
2.7000;1.1648;1.5695;
3.0000;1.1689;1.5767;
3.3000;1.1762;1.5935;
3.6000;1.1811;1.5911;
3.9000;1.1860;1.5887;
4.2000;1.1893;1.5911;
4.5000;1.1941;1.6007;
4.8000;1.1974;1.6055;
5.1000;1.2015;1.6175;
5.4000;1.1974;1.6031;
5.7000;1.2072;1.6199;
6.0000;1.2072;1.6127;
6.3000;1.2186;1.6390;
6.6000;1.2153;1.6199;
6.9000;1.2186;1.6199;
7.2000;1.2186;1.6175;
7.5000;1.2210;1.6223;
7.8000;1.2243;1.6223;
8.1000;1.2283;1.6223;
8.4000;1.2357;1.6390;
8.7000;1.2381;1.6318;
9.0000;1.2357;1.6175;
9.3000;1.2381;1.6175;
9.6000;1.2397;1.6247;
9.9000;1.2438;1.6366;
10.2000;1.2365;1.6199;
10.5000;1.2430;1.6223;
10.8000;1.2454;1.6247;
11.1000;1.2454;1.6295;
11.4000;1.2470;1.6295;
11.7000;1.2414;1.6151;
12.0000;1.2511;1.6295;
12.3000;1.2519;1.6247;
12.6000;1.2527;1.6079;
12.9000;1.2568;1.6247;
13.2000;1.2568;1.6271;
13.5000;1.2576;1.6318;
13.8000;1.2617;1.6366;
14.1000;1.2609;1.6318;
14.4000;1.2641;1.6271;
14.7000;1.2641;1.6342;
15.0000;1.2698;1.6558;
15.3000;1.2609;1.6414;
15.6000;1.2650;1.6438;
15.9000;1.2658;1.6462;
16.2000;1.2658;1.6534;
16.5000;1.2723;1.6678;
16.8000;1.2707;1.6630;
17.1000;1.2690;1.6534;
17.4000;1.2690;1.6438;
17.7000;1.2715;1.6462;
18.0000;1.2731;1.6414;
18.3000;1.2755;1.6462;
18.6000;1.2755;1.6414;
18.9000;1.2780;1.6366;
19.2000;1.2780;1.6318;
19.5000;1.2780;1.6342;
19.8000;1.2772;1.6318;
20.1000;1.2772;1.6318;
20.4000;1.2804;1.6342;
20.7000;1.2796;1.6295;
21.0000;1.2845;1.6390;
21.3000;1.2804;1.6342;
21.6000;1.2796;1.6390;
21.9000;1.2804;1.6438;
22.2000;1.2829;1.6486;
22.5000;1.2804;1.6390;
22.8000;1.2812;1.6438;
23.1000;1.2829;1.6414;
23.4000;1.2837;1.6486;
23.7000;1.2845;1.6486;
24.0000;1.2845;1.6462;
24.3000;1.2837;1.6414;
24.6000;1.2853;1.6438;
24.9000;1.2877;1.6342;
25.2000;1.2926;1.6486;
25.5000;1.2861;1.6462;
25.8000;1.2869;1.6462;
26.1000;1.2837;1.6438;
26.4000;1.2877;1.6534;
26.7000;1.2886;1.6534;
27.0000;1.2861;1.6414;
27.3000;1.2869;1.6366;
27.6000;1.2910;1.6438;
27.9000;1.2894;1.6414;
28.2000;1.2886;1.6438;
28.5000;1.2869;1.6295;
28.8000;1.2902;1.6366;
29.1000;1.2902;1.6366;
29.4000;1.2837;1.6199;
29.7000;1.2959;1.6462;
30.0000;1.2918;1.6366;
30.3000;1.2902;1.6366;
30.6000;1.2910;1.6366;
30.9000;1.2934;1.6414;
31.2000;1.3008;1.6582;
31.5000;1.2821;1.6103;
31.8000;1.2951;1.6438;
32.1000;1.2926;1.6318;
32.4000;1.2934;1.6342;
32.7000;1.2910;1.6271;
33.0000;1.2926;1.6390;
33.3000;1.2918;1.6366;
33.6000;1.2926;1.6486;
33.9000;1.2951;1.6582;
34.2000;1.2959;1.6558;
34.5000;1.2951;1.6462;
34.8000;1.2951;1.6414;
35.1000;1.2934;1.6318;
35.4000;1.2943;1.6342;
35.7000;1.2951;1.6342;
36.0000;1.2943;1.6390;
36.3000;1.2951;1.6390;
36.6000;1.2959;1.6414;
36.9000;1.2967;1.6438;
37.2000;1.2943;1.6390;
37.5000;1.2910;1.6247;
37.8000;1.2967;1.6438;
38.1000;1.2967;1.6486;
38.4000;1.2975;1.6390;
38.7000;1.2967;1.6366;
39.0000;1.3000;1.6414;
39.3000;1.2967;1.6462;
39.6000;1.2983;1.6558;
39.9000;1.2959;1.6462;
40.2000;1.2967;1.6438;
40.5000;1.2975;1.6510;
40.8000;1.3016;1.6606;
41.1000;1.2967;1.6462;
41.4000;1.2967;1.6438;
41.7000;1.2975;1.6438;
42.0000;1.3016;1.6462;
42.3000;1.2991;1.6390;
42.6000;1.2991;1.6414;
42.9000;1.2983;1.6438;
43.2000;1.2991;1.6390;
43.5000;1.2983;1.6438;
43.8000;1.2991;1.6438;
44.1000;1.2983;1.6414;
44.4000;1.2983;1.6366;
44.7000;1.3000;1.6295;
45.0000;1.3000;1.6271;
45.3000;1.2975;1.6175;
45.6000;1.3000;1.6223;
45.9000;1.3000;1.6295;
46.2000;1.3000;1.6199;
46.5000;1.2967;1.6199;
46.8000;1.3000;1.6247;
47.1000;1.3000;1.6223;
47.4000;1.2983;1.6223;
47.7000;1.2967;1.6247;
48.0000;1.2975;1.6295;
48.3000;1.2975;1.6462;
48.6000;1.2975;1.6462;
48.9000;1.2991;1.6414;
49.2000;1.2959;1.6366;
49.5000;1.3000;1.6438;
49.8000;1.3008;1.6318;
50.1000;1.2967;1.6247;
50.4000;1.3000;1.6223;
50.7000;1.3016;1.6318;
51.0000;1.3008;1.6247;
51.3000;1.2967;1.6127;
51.6000;1.2975;1.6175;
51.9000;1.2991;1.6199;
52.2000;1.2991;1.6271;
52.5000;1.2951;1.6151;
52.8000;1.2983;1.6271;
53.1000;1.3016;1.6318;
53.4000;1.2991;1.6199;
53.7000;1.3048;1.6295;
54.0000;1.3008;1.6175;
54.3000;1.3016;1.6295;
54.6000;1.2991;1.6271;
54.9000;1.3024;1.6295;
55.2000;1.3000;1.6247;
55.5000;1.3008;1.6151;
55.8000;1.3016;1.6103;
56.1000;1.3016;1.6079;
56.4000;1.3024;1.6175;
56.7000;1.3016;1.6151;
57.0000;1.3040;1.6199;
57.3000;1.3000;1.6151;
57.6000;1.3016;1.6223;
57.9000;1.3016;1.6271;
58.2000;1.3008;1.6223;
58.5000;1.3032;1.6247;
58.8000;1.3065;1.6366;
59.1000;1.3024;1.6390;
59.4000;1.3032;1.6462;
59.7000;1.3032;1.6390;
60.0000;1.3089;1.6438;
60.3000;1.3057;1.6271;
60.6000;1.3016;1.6223;
60.9000;1.3016;1.6175;
61.2000;1.3024;1.6151;
61.5000;1.3040;1.6175;
61.8000;1.3016;1.6103;
62.1000;1.3000;1.6055;
62.4000;1.3032;1.6127;
62.7000;1.3024;1.6103;
63.0000;1.3032;1.6103;
63.3000;1.3032;1.6079;
63.6000;1.3057;1.6175;
63.9000;1.3024;1.6055;
64.2000;1.3000;1.6079;
64.5000;1.2983;1.6055;
64.8000;1.3040;1.6175;
65.1000;1.3146;1.6510;
65.4000;1.3024;1.6247;
65.7000;1.3024;1.6295;
66.0000;1.3040;1.6271;
66.3000;1.3048;1.6342;
66.6000;1.3048;1.6318;
66.9000;1.3016;1.6342;
67.2000;1.3024;1.6342;
67.5000;1.3065;1.6486;
67.8000;1.3040;1.6462;
68.1000;1.3032;1.6462;
68.4000;1.3040;1.6390;
68.7000;1.3032;1.6366;
69.0000;1.3024;1.6318;
69.3000;1.3008;1.6271;
69.6000;1.3016;1.6223;
69.9000;1.3048;1.6271;
70.2000;1.2967;1.6079;
70.5000;1.3048;1.6438;
70.8000;1.3081;1.6486;
71.1000;1.3008;1.6390;
71.4000;1.3089;1.6438;
71.7000;1.3032;1.6199;
72.0000;1.3032;1.6223;
72.3000;1.3024;1.6342;
72.6000;1.3081;1.6414;
72.9000;1.3024;1.6175;
73.2000;1.3048;1.6199;
73.5000;1.3000;1.6079;
73.8000;1.3024;1.6175;
74.1000;1.3016;1.6223;
74.4000;1.3016;1.6223;
74.7000;1.3024;1.6247;
75.0000;1.3024;1.6223;
75.3000;1.3032;1.6223;
75.6000;1.3024;1.6271;
75.9000;1.3016;1.6318;
76.2000;1.3040;1.6390;
76.5000;1.3024;1.6247;
76.8000;1.3032;1.6175;
77.1000;1.3016;1.6223;
77.4000;1.3016;1.6318;
77.7000;1.3016;1.6271;
78.0000;1.3024;1.6175;
78.3000;1.3040;1.6271;
78.6000;1.3040;1.6366;
78.9000;1.3040;1.6414;
79.2000;1.3024;1.6342;
79.5000;1.3008;1.6318;
79.8000;1.3089;1.6534;
80.1000;1.3040;1.6390;
80.4000;1.3048;1.6414;
80.7000;1.3040;1.6366;
81.0000;1.3097;1.6414;
81.3000;1.3048;1.6318;
81.6000;1.3048;1.6271;
81.9000;1.3032;1.6247;
82.2000;1.3040;1.6247;
82.5000;1.3040;1.6318;
82.8000;1.3057;1.6366;
83.1000;1.3057;1.6414;
83.4000;1.3024;1.6318;
83.7000;1.3040;1.6414;
84.0000;1.3048;1.6438;
84.3000;1.3024;1.6390;
84.6000;1.3048;1.6318;
84.9000;1.3040;1.6247;
85.2000;1.3065;1.6318;
85.5000;1.3048;1.6318;
85.8000;1.3040;1.6318;
86.1000;1.3024;1.6271;
86.4000;1.3048;1.6414;
86.7000;1.3065;1.6414;
87.0000;1.3040;1.6295;
87.3000;1.3130;1.6486;
87.6000;1.3032;1.6366;
87.9000;1.3048;1.6342;
88.2000;1.3032;1.6366;
88.5000;1.3024;1.6390;
88.8000;1.3032;1.6390;
89.1000;1.3048;1.6366;
89.4000;1.3040;1.6342;
89.7000;1.3040;1.6318;
90.0000;1.3016;1.6295;
90.3000;1.3057;1.6414;
90.6000;1.3065;1.6486;
90.9000;1.3057;1.6414;
91.2000;1.3057;1.6486;
91.5000;1.3073;1.6462;
91.8000;1.3065;1.6414;
92.1000;1.3073;1.6366;
92.4000;1.3065;1.6318;
92.7000;1.3065;1.6342;
93.0000;1.3057;1.6366;
93.3000;1.3048;1.6295;
93.6000;1.2894;1.6031;
93.9000;1.3040;1.6390;
94.2000;1.3057;1.6342;
94.5000;1.3105;1.6414;
94.8000;1.3000;1.6175;
95.1000;1.3057;1.6390;
95.4000;1.3016;1.6295;
95.7000;1.3065;1.6390;
96.0000;1.3048;1.6366;
96.3000;1.3048;1.6390;
96.6000;1.2943;1.6079;
96.9000;1.3040;1.6271;
97.2000;1.3048;1.6318;
97.5000;1.3040;1.6318;
97.8000;1.3032;1.6366;
98.1000;1.3040;1.6366;
98.4000;1.3097;1.6438;
98.7000;1.3122;1.6582;
99.0000;1.3048;1.6414;
99.3000;1.3040;1.6438;
99.6000;1.3057;1.6486;
99.9000;1.3057;1.6462;
100.2000;1.3057;1.6390;
100.5000;1.3000;1.6271;
100.8000;1.3057;1.6414;
101.1000;1.3032;1.6366;
101.4000;1.3057;1.6366;
101.7000;1.3040;1.6462;
102.0000;1.3057;1.6462;
102.3000;1.3073;1.6510;
102.6000;1.3171;1.6774;
102.9000;1.3040;1.6438;
103.2000;1.3065;1.6462;
103.5000;1.3016;1.6390;
103.8000;1.3048;1.6486;
104.1000;1.3048;1.6414;
104.4000;1.2926;1.6247;
104.7000;1.3065;1.6558;
105.0000;1.3040;1.6486;
105.3000;1.3016;1.6342;
105.6000;1.3040;1.6366;
105.9000;1.3065;1.6414;
106.2000;1.3057;1.6366;
106.5000;1.3032;1.6318;
106.8000;1.3057;1.6366;
107.1000;1.3032;1.6366;
107.4000;1.3048;1.6510;
107.7000;1.3032;1.6510;
108.0000;1.3040;1.6534;
108.3000;1.3048;1.6510;
108.6000;1.3016;1.6390;
108.9000;1.3040;1.6366;
109.2000;1.3016;1.6271;
109.5000;1.3040;1.6318;
109.8000;1.3040;1.6295;
110.1000;1.3048;1.6295;
110.4000;1.3048;1.6295;
110.7000;1.3073;1.6390;
111.0000;1.3057;1.6486;
111.3000;1.3048;1.6558;
111.6000;1.3040;1.6462;
111.9000;1.3032;1.6534;
112.2000;1.3032;1.6534;
112.5000;1.3048;1.6486;
112.8000;1.3048;1.6366;
113.1000;1.3040;1.6366;
113.4000;1.3048;1.6366;
113.7000;1.3040;1.6342;
114.0000;1.3048;1.6366;
114.3000;1.3040;1.6390;
114.6000;1.3048;1.6390;
114.9000;1.3048;1.6414;
115.2000;1.3057;1.6510;
115.5000;1.3016;1.6414;
115.8000;1.3032;1.6390;
116.1000;1.3040;1.6390;
116.4000;1.3048;1.6438;
116.7000;1.2991;1.6318;
117.0000;1.3089;1.6486;
117.3000;1.3057;1.6462;
117.6000;1.3040;1.6462;
117.9000;1.3032;1.6462;
118.2000;1.3065;1.6510;
118.5000;1.3065;1.6486;
118.8000;1.3048;1.6414;
119.1000;1.3040;1.6366;
119.4000;1.3048;1.6390;
119.7000;1.3057;1.6390;
120.0000;1.2991;1.6318;
120.3000;1.3057;1.6558;
120.6000;1.3073;1.6654;
120.9000;1.3057;1.6558;
121.2000;1.3032;1.6510;
121.5000;1.3040;1.6414;
121.8000;1.3040;1.6414;
122.1000;1.3048;1.6462;
122.4000;1.3040;1.6462;
122.7000;1.3032;1.6486;
123.0000;1.3032;1.6558;
123.3000;1.3016;1.6582;
123.6000;1.3032;1.6582;
123.9000;1.3024;1.6582;
124.2000;1.3024;1.6606;
124.5000;1.3040;1.6726;
124.8000;1.3057;1.6702;
125.1000;1.3048;1.6558;
125.4000;1.3089;1.6726;
125.7000;1.2951;1.6438;
126.0000;1.3057;1.6678;
126.3000;1.3065;1.6606;
126.6000;1.3057;1.6558;
126.9000;1.3048;1.6558;
127.2000;1.3057;1.6702;
127.5000;1.3057;1.6702;
127.8000;1.3040;1.6630;
128.1000;1.3040;1.6630;
128.4000;1.3016;1.6510;
128.7000;1.3065;1.6462;
129.0000;1.3040;1.6366;
129.3000;1.3040;1.6438;
129.6000;1.3048;1.6342;
129.9000;1.3089;1.6438;
130.2000;1.3048;1.6438;
130.5000;1.3057;1.6438;
130.8000;1.3040;1.6414;
131.1000;1.3065;1.6438;
131.4000;1.3040;1.6342;
131.7000;1.3040;1.6271;
132.0000;1.3032;1.6318;
132.3000;1.3000;1.6318;
132.6000;1.3040;1.6534;
132.9000;1.3081;1.6678;
133.2000;1.3000;1.6558;
133.5000;1.3032;1.6558;
133.8000;1.3048;1.6534;
134.1000;1.3032;1.6510;
134.4000;1.3040;1.6558;
134.7000;1.3048;1.6534;
135.0000;1.3048;1.6534;
135.3000;1.3048;1.6678;
135.6000;1.3040;1.6702;
135.9000;1.3057;1.6702;
136.2000;1.3048;1.6654;
136.5000;1.3162;1.6870;
136.8000;1.3032;1.6606;
137.1000;1.3057;1.6606;
137.4000;1.3081;1.6654;
137.7000;1.3040;1.6678;
138.0000;1.3040;1.6726;
138.3000;1.3065;1.6702;
138.6000;1.3024;1.6630;
138.9000;1.3048;1.6606;
139.2000;1.3040;1.6462;
139.5000;1.3040;1.6390;
139.8000;1.3048;1.6390;
140.1000;1.3065;1.6414;
140.4000;1.3057;1.6366;
140.7000;1.3048;1.6342;
141.0000;1.3130;1.6606;
141.3000;1.3057;1.6510;
141.6000;1.3073;1.6486;
141.9000;1.3057;1.6510;
142.2000;1.3065;1.6486;
142.5000;1.3081;1.6606;
142.8000;1.3065;1.6678;
143.1000;1.3057;1.6654;
143.4000;1.3057;1.6702;
143.7000;1.3057;1.6774;
144.0000;1.3048;1.6750;
144.3000;1.3089;1.6918;
144.6000;1.3057;1.6702;
144.9000;1.3073;1.6846;
145.2000;1.3032;1.6798;
145.5000;1.3032;1.6654;
145.8000;1.3048;1.6606;
146.1000;1.3040;1.6606;
146.4000;1.3073;1.6702;
146.7000;1.3089;1.6630;
147.0000;1.3048;1.6414;
147.3000;1.3040;1.6462;
147.6000;1.3073;1.6558;
147.9000;1.3008;1.6366;
148.2000;1.3162;1.6774;
148.5000;1.3048;1.6510;
148.8000;1.3040;1.6486;
149.1000;1.3048;1.6558;
149.4000;1.3040;1.6534;
149.7000;1.3057;1.6438;
150.0000;1.3057;1.6510;
150.3000;1.3073;1.6582;
150.6000;1.3057;1.6510;
150.9000;1.3057;1.6534;
151.2000;1.3081;1.6510;
151.5000;1.3065;1.6510;
151.8000;1.3057;1.6438;
152.1000;1.3065;1.6414;
152.4000;1.3081;1.6462;
152.7000;1.3048;1.6390;
153.0000;1.3057;1.6366;
153.3000;1.3032;1.6366;
153.6000;1.3040;1.6342;
153.9000;1.3048;1.6342;
154.2000;1.3040;1.6414;
154.5000;1.3057;1.6462;
154.8000;1.3040;1.6486;
155.1000;1.3057;1.6558;
155.4000;1.3008;1.6438;
155.7000;1.3048;1.6462;
156.0000;1.3040;1.6414;
156.3000;1.3057;1.6486;
156.6000;1.3032;1.6510;
156.9000;1.3048;1.6582;
157.2000;1.3032;1.6606;
157.5000;1.3032;1.6630;
157.8000;1.3040;1.6630;
158.1000;1.3057;1.6606;
158.4000;1.3057;1.6534;
158.7000;1.3016;1.6486;
159.0000;1.3040;1.6534;
159.3000;1.3040;1.6630;
159.6000;1.3040;1.6678;
159.9000;1.3016;1.6654;
160.2000;1.3040;1.6678;
160.5000;1.3048;1.6654;
160.8000;1.3057;1.6558;
161.1000;1.3040;1.6582;
161.4000;1.3048;1.6558;
161.7000;1.3057;1.6510;
162.0000;1.3048;1.6582;
162.3000;1.3040;1.6630;
162.6000;1.3065;1.6774;
162.9000;1.3016;1.6606;
163.2000;1.3048;1.6582;
163.5000;1.3016;1.6558;
163.8000;1.3024;1.6534;
164.1000;1.3040;1.6510;
164.4000;1.3032;1.6486;
164.7000;1.3032;1.6534;
165.0000;1.2991;1.6438;
165.3000;1.3032;1.6678;
165.6000;1.3040;1.6702;
165.9000;1.3032;1.6678;
166.2000;1.3089;1.6750;
166.5000;1.3040;1.6726;
166.8000;1.3048;1.6702;
167.1000;1.3040;1.6654;
167.4000;1.3024;1.6582;
167.7000;1.3032;1.6558;
168.0000;1.3040;1.6582;
168.3000;1.3073;1.6630;
168.6000;1.3032;1.6534;
168.9000;1.2918;1.6271;
169.2000;1.3040;1.6510;
169.5000;1.3057;1.6630;
169.8000;1.3040;1.6630;
170.1000;1.3024;1.6606;
170.4000;1.3040;1.6702;
170.7000;1.3016;1.6654;
171.0000;1.3024;1.6582;
171.3000;1.3057;1.6630;
171.6000;1.2975;1.6414;
171.9000;1.3057;1.6606;
172.2000;1.3040;1.6582;
172.5000;1.3048;1.6582;
172.8000;1.3032;1.6558;
173.1000;1.3048;1.6582;
173.4000;1.3040;1.6534;
173.7000;1.3040;1.6390;
174.0000;1.3057;1.6390;
174.3000;1.3032;1.6342;
174.6000;1.3040;1.6318;
174.9000;1.3032;1.6295;
175.2000;1.3040;1.6390;
175.5000;1.3040;1.6366;
175.8000;1.3048;1.6438;
176.1000;1.3032;1.6486;
176.4000;1.3040;1.6438;
176.7000;1.3065;1.6462;
177.0000;1.3048;1.6414;
177.3000;1.3057;1.6438;
177.6000;1.3057;1.6366;
177.9000;1.3000;1.6342;
178.2000;1.3040;1.6438;
178.5000;1.3024;1.6510;
178.8000;1.3024;1.6510;
179.1000;1.3032;1.6462;
179.4000;1.3000;1.6486;
179.7000;1.3048;1.6510;
180.0000;1.3032;1.6438;
180.3000;1.2975;1.6390;
180.6000;1.3032;1.6390;
180.9000;1.3065;1.6462;
181.2000;1.3048;1.6486;
181.5000;1.3048;1.6534;
181.8000;1.3057;1.6510;
182.1000;1.3040;1.6462;
182.4000;1.3040;1.6438;
182.7000;1.3040;1.6390;
183.0000;1.3032;1.6462;
183.3000;1.3024;1.6486;
183.6000;1.3032;1.6558;
183.9000;1.3024;1.6462;
184.2000;1.3048;1.6534;
184.5000;1.3032;1.6510;
184.8000;1.3032;1.6510;
185.1000;1.2991;1.6462;
185.4000;1.3073;1.6630;
185.7000;1.3048;1.6558;
186.0000;1.3032;1.6558;
186.3000;1.3024;1.6414;
186.6000;1.2934;1.6175;
186.9000;1.3048;1.6486;
187.2000;1.3032;1.6438;
187.5000;1.3016;1.6295;
187.8000;1.3032;1.6438;
188.1000;1.3040;1.6390;
188.4000;1.3008;1.6342;
188.7000;1.3048;1.6462;
189.0000;1.3032;1.6438;
189.3000;1.3016;1.6390;
189.6000;1.3032;1.6366;
189.9000;1.3032;1.6318;
190.2000;1.3057;1.6342;
190.5000;1.3032;1.6342;
190.8000;1.3081;1.6510;
191.1000;1.3024;1.6510;
191.4000;1.3032;1.6534;
191.7000;1.3032;1.6510;
192.0000;1.3048;1.6510;
192.3000;1.3065;1.6414;
192.6000;1.3048;1.6318;
192.9000;1.3048;1.6366;
193.2000;1.3032;1.6462;
193.5000;1.3048;1.6510;
193.8000;1.3032;1.6438;
194.1000;1.3040;1.6534;
194.4000;1.3065;1.6558;
194.7000;1.3032;1.6390;
195.0000;1.3040;1.6486;
195.3000;1.3057;1.6534;
195.6000;1.3154;1.6750;
195.9000;1.3048;1.6606;
196.2000;1.3065;1.6606;
196.5000;1.3057;1.6582;
196.8000;1.3032;1.6486;
197.1000;1.3057;1.6534;
197.4000;1.3048;1.6510;
197.7000;1.3048;1.6462;
198.0000;1.3081;1.6534;
198.3000;1.3048;1.6462;
198.6000;1.3040;1.6390;
198.9000;1.3040;1.6390;
199.2000;1.3016;1.6318;
199.5000;1.3065;1.6582;
199.8000;1.3032;1.6510;
200.1000;1.3000;1.6510;
200.4000;1.3024;1.6558;
200.7000;1.3048;1.6630;
201.0000;1.3048;1.6654;
201.3000;1.3024;1.6582;
201.6000;1.3040;1.6702;
201.9000;1.3040;1.6822;
202.2000;1.3040;1.6822;
202.5000;1.3032;1.6726;
202.8000;1.2975;1.6486;
203.1000;1.3097;1.6726;
203.4000;1.3024;1.6510;
203.7000;1.3057;1.6582;
204.0000;1.3032;1.6534;
204.3000;1.3114;1.6702;
204.6000;1.3016;1.6486;
204.9000;1.3048;1.6582;
205.2000;1.3024;1.6462;
205.5000;1.3032;1.6486;
205.8000;1.3065;1.6486;
206.1000;1.3048;1.6486;
206.4000;1.3057;1.6510;
206.7000;1.3040;1.6486;
207.0000;1.2991;1.6366;
207.3000;1.3057;1.6534;
207.6000;1.3040;1.6582;
207.9000;1.3048;1.6582;
208.2000;1.3032;1.6510;
208.5000;1.3024;1.6486;
208.8000;1.3081;1.6582;
209.1000;1.3065;1.6534;
209.4000;1.3008;1.6462;
209.7000;1.3032;1.6534;
210.0000;1.3146;1.6870;
210.3000;1.3065;1.6702;
210.6000;1.3040;1.6630;
210.9000;1.2983;1.6510;
211.2000;1.3040;1.6654;
211.5000;1.3057;1.6702;
211.8000;1.3040;1.6726;
212.1000;1.3048;1.6774;
212.4000;1.2991;1.6750;
212.7000;1.3040;1.6726;
213.0000;1.3048;1.6702;
213.3000;1.3040;1.6606;
213.6000;1.3024;1.6510;
213.9000;1.3032;1.6486;
214.2000;1.3008;1.6486;
214.5000;1.3016;1.6582;
214.8000;1.3105;1.6726;
215.1000;1.3040;1.6606;
215.4000;1.3000;1.6558;
215.7000;1.3032;1.6630;
216.0000;1.3024;1.6654;
216.3000;1.3032;1.6654;
216.6000;1.3073;1.6798;
216.9000;1.3032;1.6630;
217.2000;1.3040;1.6654;
217.5000;1.3057;1.6750;
217.8000;1.3040;1.6726;
218.1000;1.3048;1.6606;
218.4000;1.3032;1.6510;
218.7000;1.3040;1.6558;
219.0000;1.3040;1.6534;
219.3000;1.3065;1.6630;
219.6000;1.3040;1.6582;
219.9000;1.2991;1.6438;
220.2000;1.3040;1.6654;
220.5000;1.3040;1.6606;
220.8000;1.3057;1.6582;
221.1000;1.3048;1.6582;
221.4000;1.3024;1.6558;
221.7000;1.3057;1.6510;
222.0000;1.3032;1.6510;
222.3000;1.3065;1.6558;
222.6000;1.3032;1.6510;
222.9000;1.3048;1.6534;
223.2000;1.3065;1.6534;
223.5000;1.3040;1.6462;
223.8000;1.3040;1.6438;
224.1000;1.3024;1.6318;
224.4000;1.3057;1.6366;
224.7000;1.3040;1.6247;
225.0000;1.2959;1.6031;
225.3000;1.3016;1.6151;
225.6000;1.3040;1.6318;
225.9000;1.3032;1.6318;
226.2000;1.3016;1.6318;
226.5000;1.3032;1.6462;
226.8000;1.3032;1.6462;
227.1000;1.3024;1.6534;
227.4000;1.3008;1.6510;
227.7000;1.3040;1.6558;
228.0000;1.3040;1.6534;
228.3000;1.3008;1.6390;
228.6000;1.3040;1.6534;
228.9000;1.3040;1.6654;
229.2000;1.3040;1.6654;
229.5000;1.3032;1.6606;
229.8000;1.3016;1.6582;
230.1000;1.3032;1.6558;
230.4000;1.3040;1.6582;
230.7000;1.3048;1.6486;
231.0000;1.3032;1.6558;
231.3000;1.3032;1.6606;
231.6000;1.3040;1.6678;
231.9000;1.3024;1.6630;
232.2000;1.3032;1.6654;
232.5000;1.3032;1.6582;
232.8000;1.3040;1.6654;
233.1000;1.3040;1.6606;
233.4000;1.3032;1.6582;
233.7000;1.3048;1.6702;
234.0000;1.3040;1.6678;
234.3000;1.3057;1.6726;
234.6000;1.3040;1.6702;
234.9000;1.3024;1.6558;
235.2000;1.3024;1.6582;
235.5000;1.3040;1.6678;
235.8000;1.3024;1.6654;
236.1000;1.3024;1.6582;
236.4000;1.3024;1.6630;
236.7000;1.3040;1.6702;
237.0000;1.3057;1.6846;
237.3000;1.3032;1.6750;
237.6000;1.3024;1.6678;
237.9000;1.3048;1.6606;
238.2000;1.3040;1.6486;
238.5000;1.3040;1.6462;
238.8000;1.3032;1.6390;
239.1000;1.3032;1.6414;
239.4000;1.3105;1.6654;
239.7000;1.3089;1.6630;
240.0000;1.3081;1.6558;
240.3000;1.3048;1.6510;
240.6000;1.3024;1.6534;
240.9000;1.3024;1.6582;
241.2000;1.3081;1.6750;
241.5000;1.3008;1.6510;
241.8000;1.3032;1.6630;
242.1000;1.3130;1.6942;
242.4000;1.3040;1.6750;
242.7000;1.3040;1.6750;
243.0000;1.3081;1.6965;
243.3000;1.3032;1.6846;
243.6000;1.3032;1.6702;
243.9000;1.3016;1.6654;
244.2000;1.3008;1.6654;
244.5000;1.3048;1.6774;
244.8000;1.3024;1.6726;
245.1000;1.3016;1.6702;
245.4000;1.3032;1.6726;
245.7000;1.3032;1.6726;
246.0000;1.3032;1.6726;
246.3000;1.3016;1.6630;
246.6000;1.3008;1.6582;
246.9000;1.3040;1.6678;
247.2000;1.3016;1.6582;
247.5000;1.2991;1.6534;
247.8000;1.3032;1.6558;
248.1000;1.3024;1.6654;
248.4000;1.3048;1.6654;
248.7000;1.3040;1.6630;
249.0000;1.3016;1.6630;
249.3000;1.3008;1.6654;
249.6000;1.3024;1.6654;
249.9000;1.3016;1.6630;
250.2000;1.3032;1.6702;
250.5000;1.3024;1.6798;
250.8000;1.3024;1.6774;
251.1000;1.3040;1.6846;
251.4000;1.3016;1.6774;
251.7000;1.3016;1.6774;
252.0000;1.3024;1.6822;
252.3000;1.3040;1.6942;
252.6000;1.3040;1.6918;
252.9000;1.3040;1.6870;
253.2000;1.3040;1.6846;
253.5000;1.3040;1.6798;
253.8000;1.3032;1.6750;
254.1000;1.3040;1.6750;
254.4000;1.3057;1.6846;
254.7000;1.3032;1.6774;
255.0000;1.3032;1.6702;
255.3000;1.3048;1.6702;
255.6000;1.3081;1.6870;
255.9000;1.3032;1.6726;
256.2000;1.3032;1.6726;
256.5000;1.3073;1.6774;
256.8000;1.3032;1.6534;
257.1000;1.3024;1.6534;
257.4000;1.3032;1.6606;
257.7000;1.3048;1.6702;
258.0000;1.3040;1.6630;
258.3000;1.3024;1.6606;
258.6000;1.3048;1.6678;
258.9000;1.3016;1.6702;
259.2000;1.3048;1.6750;
259.5000;1.3040;1.6750;
259.8000;1.3032;1.6774;
260.1000;1.2926;1.6606;
260.4000;1.3016;1.6822;
260.7000;1.3016;1.6774;
261.0000;1.3016;1.6774;
261.3000;1.3048;1.6822;
261.6000;1.3008;1.6678;
261.9000;1.3008;1.6654;
262.2000;1.3073;1.6678;
262.5000;1.3122;1.6822;
262.8000;1.3024;1.6582;
263.1000;1.3081;1.6630;
263.4000;1.3032;1.6558;
263.7000;1.3089;1.6678;
264.0000;1.3016;1.6582;
264.3000;1.3024;1.6606;
264.6000;1.3024;1.6654;
264.9000;1.3032;1.6702;
265.2000;1.3024;1.6822;
265.5000;1.3016;1.6846;
265.8000;1.3016;1.6798;
266.1000;1.3105;1.7013;
266.4000;1.3032;1.6774;
266.7000;1.3097;1.6870;
267.0000;1.3024;1.6726;
267.3000;1.3032;1.6678;
267.6000;1.3032;1.6678;
267.9000;1.3008;1.6558;
268.2000;1.2991;1.6558;
268.5000;1.3048;1.6726;
268.8000;1.3048;1.6750;
269.1000;1.3032;1.6654;
269.4000;1.3024;1.6606;
269.7000;1.3032;1.6606;
270.0000;1.3040;1.6582;
270.3000;1.3032;1.6486;
270.6000;1.3008;1.6486;
270.9000;1.3008;1.6510;
271.2000;1.3040;1.6558;
271.5000;1.3048;1.6558;
271.8000;1.3016;1.6414;
272.1000;1.3016;1.6414;
272.4000;1.3016;1.6438;
272.7000;1.3032;1.6438;
273.0000;1.3016;1.6390;
273.3000;1.3073;1.6558;
273.6000;1.3024;1.6438;
273.9000;1.3032;1.6534;
274.2000;1.3016;1.6558;
274.5000;1.3000;1.6486;
274.8000;1.3024;1.6582;
275.1000;1.3040;1.6630;
275.4000;1.3040;1.6630;
275.7000;1.3024;1.6582;
276.0000;1.3032;1.6558;
276.3000;1.3000;1.6558;
276.6000;1.3024;1.6582;
276.9000;1.3016;1.6606;
277.2000;1.3024;1.6654;
277.5000;1.3081;1.6726;
277.8000;1.3040;1.6606;
278.1000;1.3130;1.6822;
278.4000;1.3065;1.6630;
278.7000;1.3048;1.6582;
279.0000;1.3040;1.6582;
279.3000;1.3048;1.6630;
279.6000;1.3016;1.6630;
279.9000;1.3032;1.6654;
280.2000;1.3032;1.6606;
280.5000;1.3048;1.6630;
280.8000;1.3024;1.6582;
281.1000;1.3032;1.6582;
281.4000;1.3008;1.6486;
281.7000;1.3040;1.6462;
282.0000;1.3008;1.6390;
282.3000;1.3024;1.6462;
282.6000;1.3048;1.6534;
282.9000;1.3032;1.6486;
283.2000;1.3016;1.6486;
283.5000;1.3032;1.6558;
283.8000;1.3032;1.6582;
284.1000;1.3040;1.6606;
284.4000;1.3122;1.6798;
284.7000;1.3040;1.6582;
285.0000;1.3065;1.6582;
285.3000;1.3032;1.6534;
285.6000;1.3016;1.6510;
285.9000;1.3016;1.6486;
286.2000;1.2983;1.6366;
286.5000;1.3016;1.6534;
286.8000;1.3024;1.6534;
287.1000;1.3024;1.6534;
287.4000;1.3016;1.6510;
287.7000;1.3040;1.6510;
288.0000;1.3024;1.6534;
288.3000;1.3040;1.6630;
288.6000;1.3016;1.6606;
288.9000;1.3032;1.6606;
289.2000;1.3032;1.6558;
289.5000;1.3040;1.6462;
289.8000;1.3032;1.6462;
290.1000;1.3024;1.6462;
290.4000;1.3024;1.6582;
290.7000;1.3016;1.6582;
291.0000;1.3016;1.6654;
291.3000;1.3008;1.6678;
291.6000;1.3032;1.6750;
291.9000;1.3016;1.6798;
292.2000;1.3008;1.6654;
292.5000;1.3048;1.6774;
292.8000;1.3016;1.6774;
293.1000;1.3040;1.6798;
293.4000;1.3048;1.6750;
293.7000;1.3040;1.6774;
294.0000;1.3040;1.6726;
294.3000;1.3097;1.6750;
294.6000;1.3032;1.6582;
294.9000;1.3016;1.6606;
295.2000;1.3024;1.6702;
295.5000;1.3016;1.6558;
295.8000;1.3016;1.6510;
296.1000;1.3057;1.6534;
296.4000;1.2991;1.6462;
296.7000;1.3016;1.6582;
297.0000;1.2991;1.6510;
297.3000;1.3065;1.6702;
297.6000;1.2991;1.6582;
297.9000;1.3057;1.6750;
298.2000;1.3032;1.6678;
298.5000;1.3032;1.6678;
298.8000;1.2967;1.6462;
299.1000;1.3032;1.6654;
299.4000;1.3032;1.6510;
299.7000;1.3032;1.6510;
300.0000;1.3032;1.6558;
300.3000;1.3024;1.6558;
300.6000;1.3032;1.6510;
300.9000;1.2983;1.6366;
301.2000;1.2959;1.6295;
301.5000;1.3032;1.6486;
301.8000;1.3024;1.6414;
302.1000;1.2983;1.6366;
302.4000;1.3024;1.6510;
302.7000;1.3040;1.6534;
303.0000;1.3016;1.6582;
303.3000;1.3032;1.6630;
303.6000;1.3008;1.6678;
303.9000;1.3032;1.6702;
304.2000;1.3040;1.6678;
304.5000;1.3032;1.6678;
304.8000;1.3081;1.6702;
305.1000;1.2991;1.6366;
305.4000;1.3040;1.6486;
305.7000;1.3040;1.6414;
306.0000;1.3024;1.6390;
306.3000;1.3016;1.6342;
306.6000;1.3008;1.6223;
306.9000;1.3016;1.6271;
307.2000;1.3032;1.6342;
307.5000;1.3032;1.6390;
307.8000;1.2991;1.6342;
308.1000;1.2983;1.6414;
308.4000;1.3057;1.6702;
308.7000;1.3008;1.6630;
309.0000;1.3008;1.6654;
309.3000;1.3008;1.6702;
309.6000;1.3057;1.6750;
309.9000;1.3040;1.6678;
310.2000;1.3016;1.6630;
310.5000;1.3008;1.6702;
310.8000;1.2959;1.6534;
311.1000;1.3016;1.6678;
311.4000;1.2934;1.6462;
311.7000;1.3024;1.6606;
312.0000;1.3032;1.6678;
312.3000;1.3122;1.6942;
312.6000;1.3065;1.6965;
312.9000;1.2926;1.6678;
313.2000;1.3008;1.6798;
313.5000;1.3024;1.6774;
313.8000;1.3040;1.6798;
314.1000;1.3024;1.6678;
314.4000;1.3032;1.6702;
314.7000;1.3032;1.6630;
315.0000;1.3032;1.6606;
315.3000;1.3008;1.6366;
315.6000;1.3032;1.6390;
315.9000;1.3024;1.6510;
316.2000;1.3032;1.6558;
316.5000;1.3024;1.6510;
316.8000;1.2926;1.6271;
317.1000;1.3024;1.6510;
317.4000;1.2951;1.6366;
317.7000;1.3024;1.6558;
318.0000;1.3032;1.6606;
318.3000;1.3016;1.6510;
318.6000;1.3032;1.6582;
318.9000;1.3073;1.6606;
319.2000;1.3024;1.6486;
319.5000;1.3008;1.6462;
319.8000;1.3048;1.6486;
320.1000;1.3016;1.6510;
320.4000;1.3024;1.6534;
320.7000;1.2991;1.6510;
321.0000;1.3040;1.6606;
321.3000;1.3024;1.6558;
321.6000;1.3016;1.6510;
321.9000;1.3016;1.6510;
322.2000;1.3024;1.6582;
322.5000;1.3032;1.6534;
322.8000;1.3024;1.6462;
323.1000;1.3032;1.6534;
323.4000;1.3032;1.6558;
323.7000;1.3024;1.6558;
324.0000;1.3016;1.6438;
324.3000;1.3032;1.6438;
324.6000;1.3048;1.6606;
324.9000;1.3016;1.6534;
325.2000;1.3016;1.6510;
325.5000;1.3016;1.6510;
325.8000;1.3032;1.6510;
326.1000;1.3040;1.6462;
326.4000;1.3024;1.6510;
326.7000;1.3065;1.6558;
327.0000;1.3016;1.6462;
327.3000;1.3024;1.6534;
327.6000;1.2983;1.6510;
327.9000;1.3008;1.6510;
328.2000;1.3016;1.6390;
328.5000;1.3016;1.6462;
328.8000;1.3024;1.6414;
329.1000;1.3048;1.6510;
329.4000;1.3032;1.6390;
329.7000;1.3032;1.6414;
330.0000;1.3130;1.6630;
330.3000;1.2991;1.6438;
330.6000;1.3016;1.6462;
330.9000;1.3040;1.6486;
331.2000;1.3016;1.6486;
331.5000;1.3000;1.6414;
331.8000;1.3008;1.6390;
332.1000;1.3032;1.6486;
332.4000;1.3024;1.6510;
332.7000;1.3016;1.6462;
333.0000;1.2975;1.6295;
333.3000;1.3024;1.6438;
333.6000;1.3008;1.6318;
333.9000;1.3008;1.6318;
334.2000;1.3000;1.6318;
334.5000;1.3024;1.6318;
334.8000;1.3016;1.6390;
335.1000;1.3081;1.6582;
335.4000;1.3024;1.6414;
335.7000;1.2918;1.6175;
336.0000;1.3024;1.6390;
336.3000;1.3073;1.6510;
336.6000;1.2991;1.6318;
336.9000;1.3024;1.6438;
337.2000;1.3008;1.6462;
337.5000;1.3016;1.6486;
337.8000;1.3024;1.6438;
338.1000;1.3024;1.6510;
338.4000;1.2991;1.6558;
338.7000;1.3008;1.6654;
339.0000;1.3008;1.6654;
339.3000;1.3048;1.6654;
339.6000;1.3008;1.6654;
339.9000;1.3032;1.6630;
340.2000;1.3032;1.6678;
340.5000;1.3032;1.6654;
340.8000;1.2991;1.6534;
341.1000;1.3024;1.6486;
341.4000;1.3024;1.6390;
341.7000;1.3024;1.6295;
342.0000;1.3024;1.6271;
342.3000;1.3040;1.6295;
342.6000;1.3016;1.6295;
342.9000;1.3024;1.6295;
343.2000;1.3008;1.6223;
343.5000;1.3032;1.6247;
343.8000;1.3016;1.6175;
344.1000;1.3016;1.6247;
344.4000;1.3008;1.6271;
344.7000;1.3024;1.6247;
345.0000;1.3057;1.6342;
345.3000;1.3040;1.6271;
345.6000;1.3024;1.6199;
345.9000;1.3089;1.6438;
346.2000;1.3024;1.6271;
346.5000;1.3024;1.6271;
346.8000;1.3024;1.6247;
347.1000;1.3008;1.6127;
347.4000;1.3024;1.6127;
347.7000;1.3016;1.6223;
348.0000;1.3024;1.6247;
348.3000;1.3000;1.6151;
348.6000;1.3032;1.6295;
348.9000;1.3016;1.6223;
349.2000;1.3040;1.6271;
349.5000;1.2967;1.6055;
349.8000;1.3000;1.6175;
350.1000;1.3016;1.6223;
350.4000;1.3032;1.6175;
350.7000;1.3065;1.6295;
351.0000;1.3016;1.6151;
351.3000;1.3016;1.6151;
351.6000;1.2983;1.6007;
351.9000;1.3024;1.6103;
352.2000;1.3008;1.6103;
352.5000;1.2991;1.6151;
352.8000;1.3024;1.6295;
353.1000;1.3040;1.6318;
353.4000;1.3008;1.6271;
353.7000;1.3008;1.6271;
354.0000;1.3008;1.6247;
354.3000;1.3008;1.6247;
354.6000;1.3024;1.6318;
354.9000;1.3024;1.6271;
355.2000;1.3040;1.6342;
355.5000;1.3048;1.6342;
355.8000;1.3048;1.6295;
356.1000;1.3024;1.6223;
356.4000;1.3032;1.6342;
356.7000;1.3040;1.6342;
357.0000;1.3073;1.6438;
357.3000;1.3000;1.6295;
357.6000;1.2975;1.6199;
357.9000;1.3016;1.6318;
358.2000;1.3024;1.6486;
358.5000;1.2910;1.6247;
358.8000;1.3016;1.6510;
359.1000;1.3048;1.6654;
359.4000;1.3016;1.6558;
359.7000;1.3032;1.6486;
360.0000;1.2991;1.6486;
360.3000;1.3008;1.6558;
360.6000;1.3032;1.6606;
360.9000;1.3040;1.6582;
361.2000;1.3032;1.6558;
361.5000;1.3040;1.6582;
361.8000;1.3032;1.6606;
362.1000;1.3032;1.6606;
362.4000;1.3016;1.6630;
362.7000;1.3016;1.6630;
363.0000;1.3024;1.6630;
363.3000;1.3016;1.6630;
363.6000;1.3000;1.6630;
363.9000;1.3008;1.6678;
364.2000;1.3008;1.6654;
364.5000;1.3016;1.6558;
364.8000;1.3016;1.6606;
365.1000;1.3024;1.6606;
365.4000;1.3008;1.6558;
365.7000;1.3016;1.6534;
366.0000;1.3016;1.6534;
366.3000;1.3073;1.6678;
366.6000;1.3016;1.6510;
366.9000;1.3024;1.6462;
367.2000;1.3016;1.6582;
367.5000;1.3040;1.6654;
367.8000;1.2967;1.6414;
368.1000;1.3000;1.6462;
368.4000;1.3008;1.6510;
368.7000;1.3016;1.6558;
369.0000;1.3008;1.6702;
369.3000;1.3032;1.6774;
369.6000;1.3024;1.6726;
369.9000;1.3024;1.6726;
370.2000;1.3032;1.6678;
370.5000;1.3048;1.6702;
370.8000;1.3040;1.6702;
371.1000;1.3032;1.6726;
371.4000;1.2959;1.6630;
371.7000;1.3008;1.6702;
372.0000;1.3040;1.6822;
372.3000;1.3032;1.6654;
372.6000;1.3008;1.6630;
372.9000;1.3024;1.6726;
373.2000;1.3040;1.6846;
373.5000;1.3048;1.6798;
373.8000;1.3008;1.6654;
374.1000;1.3000;1.6630;
374.4000;1.2983;1.6510;
374.7000;1.2943;1.6510;
375.0000;1.3040;1.6750;
375.3000;1.3024;1.6558;
375.6000;1.3032;1.6582;
375.9000;1.3008;1.6510;
376.2000;1.3032;1.6606;
376.5000;1.3024;1.6630;
376.8000;1.3032;1.6702;
377.1000;1.3057;1.6846;
377.4000;1.3008;1.6726;
377.7000;1.3000;1.6678;
378.0000;1.3016;1.6726;
378.3000;1.2975;1.6582;
378.6000;1.3024;1.6654;
378.9000;1.2967;1.6510;
379.2000;1.3008;1.6558;
379.5000;1.3040;1.6606;
379.8000;1.3000;1.6558;
380.1000;1.3016;1.6582;
380.4000;1.3016;1.6558;
380.7000;1.3024;1.6558;
381.0000;1.3008;1.6462;
381.3000;1.3008;1.6390;
381.6000;1.3024;1.6438;
381.9000;1.3024;1.6486;
382.2000;1.3081;1.6774;
382.5000;1.3016;1.6678;
382.8000;1.3024;1.6630;
383.1000;1.3016;1.6534;
383.4000;1.3016;1.6558;
383.7000;1.3016;1.6558;
384.0000;1.3016;1.6462;
384.3000;1.3008;1.6414;
384.6000;1.3016;1.6438;
384.9000;1.3024;1.6462;
385.2000;1.3024;1.6438;
385.5000;1.3032;1.6462;
385.8000;1.3008;1.6462;
386.1000;1.3024;1.6534;
386.4000;1.3016;1.6582;
386.7000;1.3016;1.6630;
387.0000;1.3024;1.6654;
387.3000;1.3016;1.6678;
387.6000;1.3000;1.6630;
387.9000;1.3016;1.6582;
388.2000;1.3024;1.6654;
388.5000;1.3024;1.6654;
388.8000;1.3016;1.6678;
389.1000;1.3000;1.6678;
389.4000;1.2934;1.6438;
389.7000;1.3016;1.6654;
390.0000;1.3016;1.6702;
390.3000;1.3000;1.6678;
390.6000;1.3008;1.6726;
390.9000;1.3000;1.6606;
391.2000;1.3024;1.6654;
391.5000;1.3008;1.6654;
391.8000;1.3008;1.6534;
392.1000;1.3016;1.6510;
392.4000;1.3065;1.6582;
392.7000;1.3008;1.6486;
393.0000;1.3000;1.6534;
393.3000;1.3000;1.6582;
393.6000;1.3032;1.6726;
393.9000;1.3024;1.6654;
394.2000;1.3016;1.6606;
394.5000;1.2991;1.6558;
394.8000;1.3040;1.6654;
395.1000;1.3024;1.6654;
395.4000;1.3073;1.6750;
395.7000;1.3040;1.6606;
396.0000;1.3024;1.6534;
396.3000;1.3008;1.6534;
396.6000;1.3024;1.6630;
396.9000;1.3008;1.6750;
397.2000;1.3024;1.6678;
397.5000;1.3016;1.6606;
397.8000;1.3024;1.6606;
398.1000;1.3000;1.6462;
398.4000;1.3016;1.6582;
398.7000;1.3024;1.6534;
399.0000;1.2951;1.6462;
399.3000;1.3024;1.6558;
399.6000;1.2967;1.6366;
399.9000;1.3008;1.6438;
400.2000;1.3024;1.6486;
400.5000;1.3008;1.6414;
400.8000;1.3000;1.6366;
401.1000;1.3016;1.6366;
401.4000;1.3016;1.6414;
401.7000;1.3016;1.6462;
402.0000;1.2902;1.6223;
402.3000;1.3000;1.6462;
402.6000;1.3016;1.6534;
402.9000;1.3016;1.6630;
403.2000;1.3089;1.6918;
403.5000;1.3008;1.6654;
403.8000;1.3000;1.6654;
404.1000;1.3000;1.6774;
404.4000;1.3024;1.6822;
404.7000;1.3008;1.6774;
405.0000;1.3008;1.6726;
405.3000;1.3008;1.6678;
405.6000;1.3024;1.6630;
405.9000;1.3008;1.6558;
406.2000;1.3016;1.6606;
406.5000;1.3048;1.6630;
406.8000;1.3016;1.6462;
407.1000;1.3024;1.6486;
407.4000;1.3040;1.6558;
407.7000;1.3040;1.6582;
408.0000;1.3032;1.6558;
408.3000;1.2910;1.6295;
408.6000;1.3016;1.6606;
408.9000;1.3000;1.6534;
409.2000;1.3024;1.6582;
409.5000;1.3016;1.6582;
409.8000;1.3000;1.6582;
410.1000;1.3040;1.6654;
410.4000;1.3032;1.6654;
410.7000;1.3024;1.6606;
411.0000;1.3024;1.6606;
411.3000;1.3008;1.6654;
411.6000;1.3024;1.6678;
411.9000;1.3008;1.6678;
412.2000;1.2991;1.6750;
412.5000;1.3008;1.6726;
412.8000;1.3024;1.6678;
413.1000;1.3000;1.6582;
413.4000;1.3024;1.6534;
413.7000;1.3000;1.6438;
414.0000;1.3008;1.6558;
414.3000;1.3016;1.6558;
414.6000;1.3008;1.6438;
414.9000;1.3024;1.6462;
415.2000;1.3024;1.6462;
415.5000;1.3032;1.6486;
415.8000;1.3032;1.6510;
416.1000;1.3032;1.6678;
416.4000;1.3024;1.6654;
416.7000;1.3008;1.6702;
417.0000;1.3008;1.6702;
417.3000;1.3008;1.6702;
417.6000;1.3032;1.6726;
417.9000;1.3016;1.6774;
418.2000;1.3000;1.6750;
418.5000;1.3008;1.6798;
418.8000;1.2975;1.6654;
419.1000;1.3016;1.6678;
419.4000;1.3008;1.6582;
419.7000;1.3016;1.6510;
420.0000;1.2991;1.6558;
420.3000;1.3016;1.6630;
420.6000;1.3032;1.6726;
420.9000;1.2991;1.6582;
421.2000;1.3016;1.6630;
421.5000;1.3016;1.6654;
421.8000;1.3032;1.6678;
422.1000;1.3024;1.6726;
422.4000;1.3016;1.6606;
422.7000;1.3024;1.6510;
423.0000;1.3024;1.6534;
423.3000;1.3016;1.6558;
423.6000;1.3024;1.6678;
423.9000;1.2902;1.6295;
424.2000;1.3032;1.6534;
424.5000;1.3040;1.6534;
424.8000;1.3016;1.6510;
425.1000;1.3016;1.6558;
425.4000;1.2991;1.6486;
425.7000;1.3008;1.6414;
426.0000;1.3024;1.6438;
426.3000;1.3008;1.6438;
426.6000;1.2934;1.6199;
426.9000;1.3008;1.6438;
427.2000;1.3000;1.6510;
427.5000;1.2975;1.6630;
427.8000;1.3008;1.6558;
428.1000;1.3000;1.6534;
428.4000;1.3016;1.6486;
428.7000;1.3008;1.6486;
429.0000;1.3016;1.6462;
429.3000;1.2983;1.6318;
429.6000;1.3016;1.6390;
429.9000;1.3016;1.6342;
430.2000;1.3016;1.6342;
430.5000;1.3000;1.6318;
430.8000;1.3024;1.6342;
431.1000;1.3024;1.6342;
431.4000;1.3008;1.6318;
431.7000;1.3032;1.6366;
432.0000;1.2983;1.6295;
432.3000;1.2983;1.6318;
432.6000;1.3000;1.6438;
432.9000;1.3016;1.6510;
433.2000;1.3016;1.6438;
433.5000;1.3000;1.6342;
433.8000;1.3032;1.6486;
434.1000;1.3024;1.6510;
434.4000;1.3057;1.6678;
434.7000;1.3024;1.6534;
435.0000;1.3008;1.6486;
435.3000;1.3032;1.6558;
435.6000;1.3016;1.6510;
435.9000;1.3008;1.6582;
436.2000;1.3024;1.6582;
436.5000;1.3016;1.6510;
436.8000;1.2975;1.6366;
437.1000;1.3024;1.6510;
437.4000;1.3008;1.6414;
437.7000;1.3024;1.6390;
438.0000;1.3008;1.6486;
438.3000;1.3016;1.6486;
438.6000;1.2934;1.6342;
438.9000;1.3024;1.6462;
439.2000;1.3000;1.6414;
439.5000;1.3000;1.6414;
439.8000;1.3016;1.6462;
440.1000;1.3000;1.6342;
440.4000;1.2983;1.6414;
440.7000;1.3032;1.6510;
441.0000;1.3024;1.6534;
441.3000;1.2959;1.6414;
441.6000;1.3000;1.6534;
441.9000;1.3008;1.6462;
442.2000;1.2967;1.6462;
442.5000;1.3000;1.6582;
442.8000;1.3000;1.6606;
443.1000;1.3024;1.6606;
443.4000;1.3016;1.6558;
443.7000;1.3000;1.6414;
444.0000;1.2975;1.6342;
444.3000;1.3008;1.6342;
444.6000;1.3008;1.6342;
444.9000;1.3008;1.6414;
445.2000;1.3000;1.6295;
445.5000;1.2975;1.6199;
445.8000;1.3016;1.6247;
446.1000;1.2934;1.6055;
446.4000;1.3000;1.6175;
446.7000;1.2991;1.6295;
447.0000;1.2951;1.6127;
447.3000;1.3024;1.6247;
447.6000;1.3008;1.6223;
447.9000;1.3024;1.6342;
448.2000;1.3024;1.6318;
448.5000;1.3000;1.6342;
448.8000;1.3000;1.6295;
449.1000;1.2991;1.6271;
449.4000;1.2991;1.6271;
449.7000;1.3000;1.6223;
450.0000;1.3114;1.6486;
450.3000;1.3008;1.6342;
450.6000;1.3008;1.6342;
450.9000;1.3016;1.6295;
451.2000;1.3016;1.6342;
451.5000;1.2991;1.6366;
451.8000;1.3008;1.6438;
452.1000;1.3024;1.6558;
452.4000;1.3008;1.6534;
452.7000;1.3024;1.6534;
453.0000;1.3048;1.6582;
453.3000;1.2975;1.6558;
453.6000;1.3073;1.6750;
453.9000;1.3000;1.6534;
454.2000;1.2983;1.6534;
454.5000;1.3008;1.6630;
454.8000;1.3008;1.6630;
455.1000;1.3008;1.6630;
455.4000;1.3008;1.6606;
455.7000;1.3024;1.6630;
456.0000;1.3040;1.6702;
456.3000;1.3008;1.6606;
456.6000;1.3008;1.6678;
456.9000;1.3008;1.6678;
457.2000;1.3016;1.6750;
457.5000;1.3057;1.6846;
457.8000;1.3000;1.6654;
458.1000;1.3008;1.6702;
458.4000;1.3016;1.6654;
458.7000;1.3008;1.6654;
459.0000;1.3008;1.6654;
459.3000;1.2991;1.6558;
459.6000;1.3008;1.6606;
459.9000;1.3097;1.6726;
460.2000;1.3024;1.6558;
460.5000;1.3000;1.6510;
460.8000;1.3000;1.6486;
461.1000;1.3000;1.6438;
461.4000;1.3024;1.6462;
461.7000;1.3024;1.6486;
462.0000;1.2991;1.6414;
462.3000;1.3008;1.6342;
462.6000;1.2991;1.6295;
462.9000;1.3057;1.6390;
463.2000;1.3024;1.6342;
463.5000;1.2983;1.6366;
463.8000;1.3016;1.6534;
464.1000;1.3000;1.6462;
464.4000;1.3000;1.6366;
464.7000;1.2991;1.6295;
465.0000;1.3016;1.6318;
465.3000;1.3048;1.6438;
465.6000;1.2951;1.6103;
465.9000;1.3008;1.6223;
466.2000;1.3032;1.6271;
466.5000;1.3048;1.6366;
466.8000;1.3000;1.6342;
467.1000;1.3008;1.6438;
467.4000;1.2983;1.6510;
467.7000;1.3032;1.6654;
468.0000;1.3114;1.6870;
468.3000;1.3024;1.6606;
468.6000;1.3008;1.6510;
468.9000;1.3016;1.6510;
469.2000;1.3016;1.6438;
469.5000;1.2983;1.6390;
469.8000;1.2991;1.6462;
470.1000;1.3016;1.6558;
470.4000;1.3024;1.6534;
470.7000;1.3048;1.6534;
471.0000;1.3016;1.6462;
471.3000;1.3000;1.6462;
471.6000;1.2983;1.6462;
471.9000;1.3008;1.6462;
472.2000;1.3008;1.6510;
472.5000;1.3016;1.6486;
472.8000;1.3016;1.6438;
473.1000;1.3048;1.6630;
473.4000;1.3016;1.6534;
473.7000;1.3040;1.6534;
474.0000;1.3008;1.6462;
474.3000;1.2975;1.6366;
474.6000;1.3016;1.6414;
474.9000;1.2959;1.6247;
475.2000;1.2951;1.6175;
475.5000;1.3000;1.6318;
475.8000;1.2983;1.6247;
476.1000;1.2991;1.6318;
476.4000;1.2991;1.6342;
476.7000;1.3000;1.6366;
477.0000;1.3000;1.6342;
477.3000;1.3000;1.6318;
477.6000;1.3024;1.6342;
477.9000;1.3024;1.6390;
478.2000;1.3000;1.6318;
478.5000;1.3024;1.6366;
478.8000;1.2991;1.6414;
479.1000;1.3016;1.6630;
479.4000;1.2975;1.6582;
479.7000;1.2991;1.6606;
480.0000;1.3008;1.6654;
480.3000;1.3016;1.6630;
480.6000;1.3000;1.6582;
480.9000;1.3000;1.6606;
481.2000;1.3000;1.6558;
481.5000;1.3008;1.6654;
481.8000;1.3008;1.6654;
482.1000;1.3000;1.6582;
482.4000;1.3016;1.6534;
482.7000;1.3008;1.6606;
483.0000;1.2975;1.6582;
483.3000;1.3000;1.6654;
483.6000;1.3032;1.6726;
483.9000;1.2991;1.6702;
484.2000;1.3016;1.6822;
484.5000;1.3032;1.6894;
484.8000;1.3008;1.6750;
485.1000;1.2983;1.6750;
485.4000;1.3000;1.6750;
485.7000;1.3008;1.6918;
486.0000;1.2983;1.6846;
486.3000;1.2967;1.6798;
486.6000;1.3008;1.6870;
486.9000;1.3000;1.6870;
487.2000;1.3008;1.6870;
487.5000;1.2991;1.6822;
487.8000;1.3008;1.6750;
488.1000;1.3000;1.6750;
488.4000;1.2959;1.6654;
488.7000;1.2975;1.6726;
489.0000;1.3024;1.6822;
489.3000;1.3016;1.6798;
489.6000;1.3016;1.6750;
489.9000;1.3000;1.6750;
490.2000;1.2991;1.6774;
490.5000;1.3032;1.6846;
490.8000;1.3016;1.6774;
491.1000;1.3089;1.6870;
491.4000;1.3000;1.6726;
491.7000;1.3008;1.6726;
492.0000;1.3008;1.6678;
492.3000;1.3008;1.6678;
492.6000;1.2951;1.6486;
492.9000;1.3008;1.6534;
493.2000;1.3024;1.6438;
493.5000;1.3008;1.6438;
493.8000;1.3000;1.6486;
494.1000;1.3008;1.6510;
494.4000;1.3016;1.6462;
494.7000;1.3008;1.6414;
495.0000;1.3000;1.6534;
495.3000;1.2991;1.6534;
495.6000;1.3016;1.6654;
495.9000;1.3024;1.6582;
496.2000;1.3024;1.6582;
496.5000;1.3000;1.6462;
496.8000;1.3008;1.6534;
497.1000;1.3016;1.6462;
497.4000;1.2975;1.6486;
497.7000;1.3000;1.6606;
498.0000;1.2991;1.6630;
498.3000;1.3024;1.6798;
498.6000;1.3000;1.6750;
498.9000;1.2967;1.6606;
499.2000;1.2959;1.6558;
499.5000;1.3008;1.6726;
499.8000;1.3000;1.6678;
500.1000;1.3008;1.6654;
500.4000;1.2991;1.6654;
500.7000;1.2991;1.6702;
501.0000;1.3000;1.6678;
501.3000;1.2983;1.6702;
501.6000;1.2983;1.6678;
501.9000;1.3000;1.6798;
502.2000;1.3008;1.6774;
502.5000;1.2991;1.6654;
502.8000;1.3016;1.6654;
503.1000;1.3024;1.6654;
503.4000;1.3016;1.6702;
503.7000;1.3008;1.6678;
504.0000;1.3024;1.6726;
504.3000;1.3040;1.6726;
504.6000;1.3024;1.6702;
504.9000;1.3016;1.6654;
505.2000;1.3000;1.6582;
505.5000;1.2959;1.6486;
505.8000;1.3032;1.6558;
506.1000;1.3016;1.6510;
506.4000;1.2967;1.6390;
506.7000;1.3008;1.6510;
507.0000;1.3024;1.6582;
507.3000;1.3008;1.6510;
507.6000;1.3008;1.6486;
507.9000;1.3016;1.6510;
508.2000;1.3016;1.6534;
508.5000;1.3048;1.6534;
508.8000;1.3008;1.6438;
509.1000;1.3024;1.6486;
509.4000;1.3040;1.6558;
509.7000;1.3024;1.6630;
510.0000;1.3000;1.6606;
510.3000;1.3032;1.6798;
510.6000;1.2991;1.6726;
510.9000;1.2991;1.6678;
511.2000;1.3024;1.6726;
511.5000;1.3048;1.6750;
511.8000;1.2991;1.6558;
512.1000;1.3000;1.6606;
512.4000;1.3008;1.6654;
512.7000;1.3032;1.6678;
513.0000;1.2983;1.6558;
513.3000;1.2983;1.6510;
513.6000;1.3024;1.6654;
513.9000;1.3032;1.6702;
514.2000;1.3016;1.6678;
514.5000;1.3000;1.6750;
514.8000;1.3024;1.6822;
515.1000;1.3024;1.6846;
515.4000;1.3008;1.6726;
515.7000;1.3008;1.6702;
516.0000;1.3016;1.6702;
516.3000;1.2926;1.6438;
516.6000;1.2991;1.6582;
516.9000;1.3008;1.6606;
517.2000;1.2983;1.6510;
517.5000;1.3016;1.6534;
517.8000;1.3024;1.6654;
518.1000;1.3016;1.6654;
518.4000;1.3008;1.6606;
518.7000;1.3016;1.6582;
519.0000;1.2991;1.6510;
519.3000;1.3008;1.6534;
519.6000;1.3000;1.6486;
519.9000;1.3000;1.6534;
520.2000;1.3000;1.6510;
520.5000;1.3016;1.6606;
520.8000;1.3000;1.6606;
521.1000;1.3016;1.6654;
521.4000;1.2991;1.6582;
521.7000;1.3000;1.6486;
522.0000;1.3000;1.6510;
522.3000;1.3146;1.6918;
522.6000;1.3032;1.6606;
522.9000;1.3008;1.6582;
523.2000;1.2991;1.6654;
523.5000;1.3016;1.6678;
523.8000;1.3024;1.6654;
524.1000;1.2967;1.6606;
524.4000;1.3008;1.6750;
524.7000;1.2991;1.6702;
525.0000;1.3016;1.6750;
525.3000;1.3016;1.6750;
525.6000;1.3024;1.6774;
525.9000;1.2991;1.6726;
526.2000;1.3008;1.6678;
526.5000;1.3024;1.6606;
526.8000;1.3016;1.6486;
527.1000;1.2983;1.6462;
527.4000;1.3016;1.6510;
527.7000;1.3008;1.6558;
528.0000;1.2991;1.6462;
528.3000;1.3000;1.6534;
528.6000;1.3008;1.6558;
528.9000;1.3024;1.6654;
529.2000;1.3000;1.6630;
529.5000;1.3024;1.6654;
529.8000;1.3040;1.6678;
530.1000;1.3008;1.6582;
530.4000;1.3008;1.6606;
530.7000;1.2886;1.6295;
531.0000;1.2967;1.6582;
531.3000;1.3000;1.6702;
531.6000;1.3000;1.6654;
531.9000;1.2983;1.6654;
532.2000;1.2983;1.6606;
532.5000;1.3008;1.6630;
532.8000;1.3016;1.6558;
533.1000;1.3000;1.6678;
533.4000;1.3000;1.6582;
533.7000;1.3008;1.6678;
534.0000;1.3016;1.6750;
534.3000;1.3024;1.6702;
534.6000;1.3024;1.6606;
534.9000;1.3024;1.6654;
535.2000;1.3024;1.6702;
535.5000;1.3016;1.6678;
535.8000;1.2943;1.6534;
536.1000;1.2967;1.6606;
536.4000;1.3016;1.6750;
536.7000;1.3008;1.6822;
537.0000;1.3008;1.6774;
537.3000;1.2991;1.6678;
537.6000;1.3008;1.6774;
537.9000;1.3016;1.6798;
538.2000;1.2975;1.6654;
538.5000;1.3000;1.6678;
538.8000;1.3008;1.6726;
539.1000;1.3016;1.6726;
539.4000;1.3008;1.6750;
539.7000;1.2983;1.6630;
540.0000;1.2991;1.6582;
540.3000;1.2943;1.6390;
540.6000;1.2983;1.6486;
540.9000;1.3008;1.6486;
541.2000;1.2967;1.6438;
541.5000;1.2991;1.6486;
541.8000;1.3000;1.6534;
542.1000;1.2934;1.6414;
542.4000;1.2951;1.6414;
542.7000;1.3016;1.6510;
543.0000;1.2983;1.6438;
543.3000;1.2918;1.6223;
543.6000;1.2934;1.6318;
543.9000;1.3000;1.6558;
544.2000;1.3032;1.6606;
544.5000;1.3016;1.6582;
544.8000;1.3008;1.6558;
545.1000;1.2983;1.6510;
545.4000;1.3097;1.6750;
545.7000;1.2991;1.6534;
546.0000;1.3000;1.6462;
546.3000;1.2975;1.6462;
546.6000;1.2983;1.6510;
546.9000;1.3016;1.6534;
547.2000;1.3008;1.6486;
547.5000;1.3000;1.6462;
547.8000;1.3000;1.6582;
548.1000;1.2967;1.6630;
548.4000;1.2991;1.6726;
548.7000;1.3000;1.6846;
549.0000;1.2991;1.6846;
549.3000;1.3000;1.6774;
549.6000;1.3000;1.6822;
549.9000;1.2983;1.6822;
550.2000;1.2983;1.6846;
550.5000;1.3032;1.6870;
550.8000;1.3008;1.6846;
551.1000;1.3000;1.6798;
551.4000;1.3000;1.6798;
551.7000;1.3008;1.6846;
552.0000;1.3008;1.6942;
552.3000;1.2967;1.6918;
552.6000;1.2991;1.6870;
552.9000;1.2983;1.6989;
553.2000;1.2991;1.6989;
553.5000;1.3016;1.6989;
553.8000;1.3000;1.7013;
554.1000;1.3016;1.7013;
554.4000;1.3008;1.6965;
554.7000;1.2959;1.6870;
555.0000;1.2983;1.6846;
555.3000;1.2991;1.6846;
555.6000;1.3073;1.7013;
555.9000;1.3000;1.6846;
556.2000;1.3008;1.6870;
556.5000;1.2967;1.6798;
556.8000;1.3000;1.6774;
557.1000;1.3008;1.6798;
557.4000;1.2967;1.6678;
557.7000;1.2983;1.6606;
558.0000;1.2991;1.6534;
558.3000;1.3008;1.6558;
558.6000;1.3024;1.6582;
558.9000;1.3000;1.6510;
559.2000;1.2991;1.6462;
559.5000;1.3000;1.6462;
559.8000;1.3000;1.6366;
560.1000;1.3048;1.6534;
560.4000;1.3032;1.6438;
560.7000;1.3016;1.6390;
561.0000;1.3040;1.6510;
561.3000;1.3024;1.6462;
561.6000;1.3024;1.6510;
561.9000;1.3000;1.6438;
562.2000;1.3016;1.6414;
562.5000;1.2967;1.6318;
562.8000;1.3016;1.6342;
563.1000;1.3000;1.6366;
563.4000;1.3024;1.6510;
563.7000;1.3048;1.6486;
564.0000;1.3016;1.6462;
564.3000;1.2959;1.6366;
564.6000;1.3000;1.6510;
564.9000;1.2975;1.6438;
565.2000;1.2951;1.6342;
565.5000;1.2959;1.6390;
565.8000;1.3024;1.6558;
566.1000;1.3114;1.6846;
566.4000;1.3000;1.6486;
566.7000;1.3000;1.6654;
567.0000;1.3024;1.6774;
567.3000;1.2951;1.6510;
567.6000;1.3008;1.6726;
567.9000;1.2975;1.6702;
568.2000;1.2983;1.6726;
568.5000;1.3000;1.6630;
568.8000;1.2983;1.6510;
569.1000;1.2967;1.6414;
569.4000;1.2934;1.6366;
569.7000;1.2991;1.6582;
570.0000;1.3057;1.6750;
570.3000;1.2991;1.6606;
570.6000;1.2983;1.6558;
570.9000;1.3105;1.6798;
571.2000;1.2991;1.6510;
571.5000;1.3000;1.6438;
571.8000;1.2967;1.6390;
572.1000;1.3000;1.6438;
572.4000;1.3000;1.6414;
572.7000;1.2991;1.6366;
573.0000;1.3000;1.6366;
573.3000;1.3008;1.6414;
573.6000;1.3008;1.6414;
573.9000;1.3008;1.6390;
574.2000;1.3016;1.6414;
574.5000;1.3008;1.6318;
574.8000;1.3016;1.6318;
575.1000;1.3000;1.6390;
575.4000;1.3008;1.6414;
575.7000;1.3000;1.6438;
576.0000;1.3032;1.6390;
576.3000;1.3008;1.6390;
576.6000;1.2983;1.6318;
576.9000;1.3008;1.6342;
577.2000;1.3008;1.6342;
577.5000;1.3008;1.6342;
577.8000;1.2983;1.6390;
578.1000;1.2967;1.6342;
578.4000;1.2983;1.6390;
578.7000;1.2991;1.6486;
579.0000;1.2975;1.6438;
579.3000;1.3000;1.6510;
579.6000;1.3008;1.6510;
579.9000;1.2983;1.6486;
580.2000;1.3016;1.6534;
580.5000;1.3000;1.6534;
580.8000;1.3024;1.6534;
581.1000;1.3024;1.6510;
581.4000;1.3040;1.6630;
581.7000;1.2975;1.6558;
582.0000;1.3000;1.6438;
582.3000;1.3016;1.6414;
582.6000;1.3008;1.6414;
582.9000;1.2991;1.6318;
583.2000;1.2991;1.6271;
583.5000;1.2926;1.6199;
583.8000;1.2991;1.6414;
584.1000;1.3000;1.6510;
584.4000;1.2975;1.6462;
584.7000;1.3000;1.6582;
585.0000;1.3000;1.6558;
585.3000;1.2991;1.6534;
585.6000;1.3065;1.6678;
585.9000;1.3016;1.6582;
586.2000;1.3024;1.6558;
586.5000;1.3016;1.6558;
586.8000;1.3016;1.6486;
587.1000;1.3000;1.6486;
587.4000;1.2975;1.6438;
587.7000;1.3000;1.6510;
588.0000;1.2983;1.6462;
588.3000;1.2991;1.6438;
588.6000;1.3000;1.6390;
588.9000;1.2894;1.6151;
589.2000;1.2967;1.6318;
589.5000;1.2991;1.6390;
589.8000;1.3008;1.6342;
590.1000;1.2991;1.6366;
590.4000;1.3008;1.6438;
590.7000;1.2991;1.6366;
591.0000;1.3016;1.6438;
591.3000;1.2926;1.6342;
591.6000;1.3000;1.6414;
591.9000;1.2991;1.6271;
592.2000;1.3008;1.6390;
592.5000;1.2991;1.6342;
592.8000;1.3008;1.6414;
593.1000;1.2983;1.6414;
593.4000;1.2991;1.6366;
593.7000;1.2983;1.6271;
594.0000;1.2967;1.6247;
594.3000;1.3008;1.6295;
594.6000;1.3000;1.6295;
594.9000;1.3008;1.6390;
595.2000;1.3008;1.6534;
595.5000;1.3000;1.6390;
595.8000;1.3008;1.6342;
596.1000;1.3016;1.6342;
596.4000;1.3008;1.6342;
596.7000;1.3016;1.6271;
597.0000;1.2991;1.6271;
597.3000;1.3105;1.6654;
597.6000;1.3008;1.6486;
597.9000;1.3008;1.6462;
598.2000;1.3000;1.6438;
598.5000;1.3008;1.6486;
598.8000;1.2983;1.6486;
599.1000;1.3008;1.6558;
599.4000;1.3008;1.6582;
599.7000;1.3008;1.6582;
600.0000;1.3008;1.6726;
600.3000;1.2983;1.6534;
600.6000;1.2967;1.6342;
600.9000;1.2861;1.6103;
601.2000;1.2715;1.5839;
601.5000;1.2633;1.5719;
601.8000;1.2389;1.5264;
602.1000;1.2332;1.5240;
602.4000;1.2194;1.4905;
602.7000;1.2112;1.4785;
603.0000;1.2007;1.4689;
603.3000;1.1893;1.4569;
603.6000;1.1770;1.4282;
603.9000;1.1689;1.4186;
604.2000;1.1616;1.4138;
604.5000;1.1567;1.4066;
604.8000;1.1429;1.3994;
605.1000;1.1372;1.3994;
605.4000;1.1323;1.3946;
605.7000;1.1241;1.3802;
606.0000;1.1160;1.3778;
606.3000;1.1103;1.3659;
606.6000;1.1022;1.3563;
606.9000;1.0956;1.3587;
607.2000;1.0981;1.3731;
607.5000;1.0859;1.3563;
607.8000;1.0818;1.3611;
608.1000;1.0663;1.3275;
608.4000;1.0663;1.3323;
608.7000;1.0623;1.3371;
609.0000;1.0598;1.3443;
609.3000;1.0549;1.3299;
609.6000;1.0492;1.3275;
609.9000;1.0435;1.3084;
610.2000;1.0411;1.3108;
610.5000;1.0387;1.3084;
610.8000;1.0313;1.2964;
611.1000;1.0273;1.2916;
611.4000;1.0191;1.2868;
611.7000;1.0175;1.2940;
612.0000;1.0134;1.2916;
612.3000;1.0085;1.2748;
612.6000;1.0045;1.2724;
612.9000;1.0020;1.2724;
613.2000;0.9988;1.2700;
613.5000;0.9947;1.2700;
613.8000;0.9890;1.2652;
614.1000;0.9874;1.2652;
614.4000;0.9833;1.2676;
614.7000;0.9801;1.2676;
615.0000;0.9768;1.2628;
615.3000;0.9735;1.2700;
615.6000;0.9735;1.2820;
615.9000;0.9719;1.2772;
616.2000;0.9687;1.2676;
616.5000;0.9605;1.2628;
616.8000;0.9605;1.2724;
617.1000;0.9548;1.2580;
617.4000;0.9516;1.2556;
617.7000;0.9499;1.2461;
618.0000;0.9491;1.2413;
618.3000;0.9434;1.2317;
618.6000;0.9426;1.2245;
618.9000;0.9385;1.2269;
619.2000;0.9394;1.2389;
619.5000;0.9345;1.2293;
619.8000;0.9337;1.2269;
620.1000;0.9304;1.2437;
620.4000;0.9288;1.2437;
620.7000;0.9263;1.2508;
621.0000;0.9247;1.2580;
621.3000;0.9214;1.2484;
621.6000;0.9174;1.2508;
621.9000;0.9174;1.2461;
622.2000;0.9141;1.2461;
622.5000;0.9117;1.2413;
622.8000;0.9084;1.2365;
623.1000;0.9092;1.2413;
623.4000;0.9052;1.2317;
623.7000;0.9027;1.2149;
624.0000;0.9019;1.2245;
624.3000;0.9035;1.2245;
624.6000;0.8995;1.2125;
624.9000;0.8970;1.2077;
625.2000;0.8954;1.2101;
625.5000;0.8913;1.1981;
625.8000;0.8921;1.2077;
626.1000;0.8913;1.2077;
626.4000;0.8873;1.2125;
626.7000;0.8848;1.2245;
627.0000;0.8832;1.2221;
627.3000;0.8816;1.2197;
627.6000;0.8783;1.2173;
627.9000;0.8767;1.2173;
628.2000;0.8767;1.2197;
628.5000;0.8767;1.2173;
628.8000;0.8799;1.2269;
629.1000;0.8742;1.2125;
629.4000;0.8734;1.2077;
629.7000;0.8685;1.1957;
630.0000;0.8694;1.1981;
630.3000;0.8653;1.2005;
630.6000;0.8669;1.2101;
630.9000;0.8669;1.2197;
631.2000;0.8628;1.2125;
631.5000;0.8620;1.2173;
631.8000;0.8620;1.2317;
632.1000;0.8596;1.2197;
632.4000;0.8604;1.2197;
632.7000;0.8539;1.2029;
633.0000;0.8531;1.2029;
633.3000;0.8490;1.2005;
633.6000;0.8514;1.2149;
633.9000;0.8474;1.2173;
634.2000;0.8474;1.2269;
634.5000;0.8490;1.2221;
634.8000;0.8482;1.2197;
635.1000;0.8457;1.2197;
635.4000;0.8449;1.2221;
635.7000;0.8441;1.2149;
636.0000;0.8425;1.2077;
636.3000;0.8409;1.2029;
636.6000;0.8400;1.2053;
636.9000;0.8392;1.2029;
637.2000;0.8376;1.2005;
637.5000;0.8368;1.2077;
637.8000;0.8344;1.2077;
638.1000;0.8327;1.1981;
638.4000;0.8246;1.1814;
638.7000;0.8360;1.2101;
639.0000;0.8319;1.2149;
639.3000;0.8303;1.2077;
639.6000;0.8295;1.2101;
639.9000;0.8278;1.2053;
640.2000;0.8287;1.2077;
640.5000;0.8262;1.2029;
640.8000;0.8270;1.2029;
641.1000;0.8262;1.2053;
641.4000;0.8246;1.2053;
641.7000;0.8230;1.2029;
642.0000;0.8205;1.1957;
642.3000;0.8213;1.1957;
642.6000;0.8205;1.2053;
642.9000;0.8181;1.2005;
643.2000;0.8173;1.2053;
643.5000;0.8148;1.2029;
643.8000;0.8164;1.2101;
644.1000;0.8140;1.2053;
644.4000;0.8140;1.2005;
644.7000;0.8148;1.2053;
645.0000;0.8132;1.2053;
645.3000;0.8124;1.2029;
645.6000;0.8107;1.2053;
645.9000;0.8107;1.2029;
646.2000;0.8116;1.2101;
646.5000;0.8083;1.2029;
646.8000;0.8116;1.2245;
647.1000;0.8091;1.2245;
647.4000;0.8067;1.2173;
647.7000;0.8050;1.2101;
648.0000;0.8034;1.2053;
648.3000;0.8067;1.2101;
648.6000;0.8018;1.1981;
648.9000;0.8018;1.2005;
649.2000;0.7993;1.1957;
649.5000;0.8010;1.2005;
649.8000;0.8010;1.2053;
650.1000;0.8026;1.2053;
650.4000;0.7977;1.2005;
650.7000;0.7977;1.2053;
651.0000;0.7945;1.2125;
651.3000;0.7985;1.2245;
651.6000;0.7969;1.2173;
651.9000;0.7993;1.2197;
652.2000;0.7953;1.2053;
652.5000;0.7945;1.1981;
652.8000;0.7937;1.2005;
653.1000;0.7937;1.2053;
653.4000;0.7888;1.1981;
653.7000;0.7920;1.2005;
654.0000;0.7928;1.2029;
654.3000;0.7920;1.2005;
654.6000;0.7904;1.1861;
654.9000;0.7904;1.1861;
655.2000;0.7969;1.2053;
655.5000;0.7888;1.1837;
655.8000;0.7880;1.1909;
656.1000;0.7863;1.1957;
656.4000;0.7863;1.1981;
656.7000;0.7855;1.1885;
657.0000;0.7847;1.1909;
657.3000;0.7831;1.2029;
657.6000;0.7831;1.2053;
657.9000;0.7839;1.2077;
658.2000;0.7823;1.2053;
658.5000;0.7814;1.2125;
658.8000;0.7814;1.2101;
659.1000;0.7741;1.2029;
659.4000;0.7774;1.2149;
659.7000;0.7774;1.2149;
660.0000;0.7790;1.2197;
660.3000;0.7766;1.2173;
660.6000;0.7757;1.2197;
660.9000;0.7782;1.2149;
661.2000;0.7684;1.1909;
661.5000;0.7757;1.2149;
661.8000;0.7774;1.2101;
662.1000;0.7741;1.2005;
662.4000;0.7766;1.2077;
662.7000;0.7709;1.1933;
663.0000;0.7733;1.2005;
663.3000;0.7700;1.1957;
663.6000;0.7700;1.1957;
663.9000;0.7692;1.1885;
664.2000;0.7709;1.1861;
664.5000;0.7676;1.1885;
664.8000;0.7717;1.2005;
665.1000;0.7668;1.1981;
665.4000;0.7660;1.2077;
665.7000;0.7692;1.2149;
666.0000;0.7619;1.2077;
666.3000;0.7668;1.2245;
666.6000;0.7668;1.2173;
666.9000;0.7652;1.2149;
667.2000;0.7660;1.2197;
667.5000;0.7603;1.2197;
667.8000;0.7660;1.2341;
668.1000;0.7660;1.2293;
668.4000;0.7635;1.2173;
668.7000;0.7611;1.2101;
669.0000;0.7627;1.2173;
669.3000;0.7619;1.2173;
669.6000;0.7595;1.2077;
669.9000;0.7619;1.2077;
670.2000;0.7586;1.2029;
670.5000;0.7595;1.2173;
670.8000;0.7603;1.2125;
671.1000;0.7578;1.2053;
671.4000;0.7578;1.2173;
671.7000;0.7570;1.2293;
672.0000;0.7481;1.1981;
672.3000;0.7570;1.2125;
672.6000;0.7538;1.2077;
672.9000;0.7562;1.2149;
673.2000;0.7595;1.2317;
673.5000;0.7538;1.2221;
673.8000;0.7538;1.2269;
674.1000;0.7538;1.2293;
674.4000;0.7538;1.2269;
674.7000;0.7521;1.2197;
675.0000;0.7530;1.2221;
675.3000;0.7546;1.2245;
675.6000;0.7562;1.2245;
675.9000;0.7521;1.2221;
676.2000;0.7521;1.2245;
676.5000;0.7513;1.2269;
676.8000;0.7513;1.2365;
677.1000;0.7521;1.2317;
677.4000;0.7424;1.2005;
677.7000;0.7497;1.2173;
678.0000;0.7521;1.2125;
678.3000;0.7578;1.2269;
678.6000;0.7481;1.1933;
678.9000;0.7521;1.2029;
679.2000;0.7497;1.1957;
679.5000;0.7464;1.1933;
679.8000;0.7497;1.2005;
680.1000;0.7440;1.2005;
680.4000;0.7432;1.2077;
680.7000;0.7440;1.2149;
681.0000;0.7481;1.2149;
681.3000;0.7456;1.2101;
681.6000;0.7456;1.2197;
681.9000;0.7448;1.2197;
682.2000;0.7440;1.2125;
682.5000;0.7432;1.2125;
682.8000;0.7424;1.2101;
683.1000;0.7424;1.2101;
683.4000;0.7424;1.2077;
683.7000;0.7456;1.2125;
684.0000;0.7407;1.2005;
684.3000;0.7456;1.2173;
684.6000;0.7407;1.2053;
684.9000;0.7383;1.2005;
685.2000;0.7399;1.2077;
685.5000;0.7399;1.2149;
685.8000;0.7367;1.2029;
686.1000;0.7391;1.2053;
686.4000;0.7375;1.2077;
686.7000;0.7375;1.2053;
687.0000;0.7359;1.2077;
687.3000;0.7342;1.1981;
687.6000;0.7350;1.2077;
687.9000;0.7359;1.2125;
688.2000;0.7359;1.2149;
688.5000;0.7359;1.2173;
688.8000;0.7367;1.2173;
689.1000;0.7334;1.2125;
689.4000;0.7359;1.2245;
689.7000;0.7359;1.2197;
690.0000;0.7334;1.2197;
690.3000;0.7342;1.2221;
690.6000;0.7375;1.2293;
690.9000;0.7334;1.2101;
691.2000;0.7334;1.2101;
691.5000;0.7334;1.2077;
691.8000;0.7350;1.2077;
692.1000;0.7342;1.2101;
692.4000;0.7359;1.2149;
692.7000;0.7326;1.2077;
693.0000;0.7302;1.2101;
693.3000;0.7326;1.2101;
693.6000;0.7326;1.2101;
693.9000;0.7302;1.2005;
694.2000;0.7302;1.2005;
694.5000;0.7302;1.1957;
694.8000;0.7293;1.1861;
695.1000;0.7285;1.1909;
695.4000;0.7310;1.2029;
695.7000;0.7277;1.2053;
696.0000;0.7253;1.2029;
696.3000;0.7277;1.2077;
696.6000;0.7269;1.2101;
696.9000;0.7253;1.2101;
697.2000;0.7285;1.2221;
697.5000;0.7269;1.2221;
697.8000;0.7269;1.2197;
698.1000;0.7261;1.2125;
698.4000;0.7293;1.2149;
698.7000;0.7261;1.2149;
699.0000;0.7253;1.2101;
699.3000;0.7277;1.2245;
699.6000;0.7277;1.2317;
699.9000;0.7245;1.2221;
700.2000;0.7253;1.2149;
700.5000;0.7236;1.1981;
700.8000;0.7245;1.2053;
701.1000;0.7171;1.1933;
701.4000;0.7212;1.2053;
701.7000;0.7245;1.1981;
702.0000;0.7212;1.1790;
702.3000;0.7245;1.1981;
702.6000;0.7285;1.2149;
702.9000;0.7269;1.2149;
703.2000;0.7220;1.2005;
703.5000;0.7220;1.2029;
703.8000;0.7220;1.2053;
704.1000;0.7220;1.2125;
704.4000;0.7196;1.2077;
704.7000;0.7212;1.2101;
705.0000;0.7179;1.2125;
705.3000;0.7204;1.2149;
705.6000;0.7196;1.2125;
705.9000;0.7196;1.2077;
706.2000;0.7204;1.1981;
706.5000;0.7188;1.1933;
706.8000;0.7196;1.2053;
707.1000;0.7179;1.2005;
707.4000;0.7188;1.2029;
707.7000;0.7188;1.2077;
708.0000;0.7171;1.1933;
708.3000;0.7163;1.1837;
708.6000;0.7171;1.1885;
708.9000;0.7188;1.1981;
709.2000;0.7171;1.2005;
709.5000;0.7179;1.2053;
709.8000;0.7163;1.2053;
710.1000;0.7171;1.1957;
710.4000;0.7163;1.1957;
710.7000;0.7155;1.1981;
711.0000;0.7098;1.1742;
711.3000;0.7147;1.1957;
711.6000;0.7171;1.2029;
711.9000;0.7139;1.1909;
712.2000;0.7147;1.1814;
712.5000;0.7163;1.1861;
712.8000;0.7147;1.1837;
713.1000;0.7131;1.1814;
713.4000;0.7139;1.1885;
713.7000;0.7155;1.1957;
714.0000;0.7147;1.1957;
714.3000;0.7074;1.1837;
714.6000;0.7123;1.1933;
714.9000;0.7131;1.1981;
715.2000;0.7147;1.1981;
715.5000;0.7171;1.2029;
715.8000;0.7123;1.1981;
716.1000;0.7090;1.1957;
716.4000;0.7131;1.2053;
716.7000;0.7163;1.2101;
717.0000;0.7114;1.1981;
717.3000;0.7204;1.2293;
717.6000;0.7106;1.1957;
717.9000;0.7114;1.1861;
718.2000;0.7074;1.1766;
718.5000;0.7090;1.1766;
718.8000;0.7114;1.1885;
719.1000;0.7155;1.2029;
719.4000;0.7098;1.1957;
719.7000;0.7074;1.1885;
720.0000;0.7090;1.1885;
720.3000;0.7139;1.2053;
720.6000;0.7098;1.1957;
720.9000;0.7066;1.1814;
721.2000;0.7074;1.1814;
721.5000;0.7074;1.1885;
721.8000;0.7017;1.1790;
722.1000;0.7025;1.1885;
722.4000;0.7098;1.2005;
722.7000;0.7090;1.1933;
723.0000;0.7082;1.1933;
723.3000;0.7082;1.1957;
723.6000;0.7098;1.1957;
723.9000;0.7066;1.2005;
724.2000;0.7074;1.1909;
724.5000;0.7057;1.1933;
724.8000;0.7033;1.1909;
725.1000;0.7033;1.1790;
725.4000;0.7049;1.1837;
725.7000;0.7041;1.1933;
726.0000;0.7049;1.1909;
726.3000;0.7057;1.1933;
726.6000;0.7049;1.2005;
726.9000;0.7041;1.1933;
727.2000;0.7033;1.1885;
727.5000;0.7033;1.1837;
727.8000;0.7049;1.1957;
728.1000;0.7009;1.1837;
728.4000;0.7041;1.1957;
728.7000;0.7033;1.1909;
729.0000;0.7033;1.1909;
729.3000;0.7033;1.1861;
729.6000;0.7025;1.1957;
729.9000;0.7041;1.1981;
730.2000;0.7041;1.1981;
730.5000;0.7041;1.1957;
730.8000;0.6976;1.1790;
731.1000;0.7000;1.1933;
731.4000;0.7025;1.1885;
731.7000;0.7009;1.1861;
732.0000;0.7009;1.1837;
732.3000;0.7000;1.1861;
732.6000;0.7000;1.1837;
732.9000;0.7033;1.1909;
733.2000;0.7033;1.1981;
733.5000;0.7000;1.1837;
733.8000;0.6976;1.1742;
734.1000;0.7000;1.1861;
734.4000;0.6992;1.1909;
734.7000;0.6984;1.1909;
735.0000;0.6976;1.1909;
735.3000;0.7025;1.2005;
735.6000;0.7000;1.2005;
735.9000;0.7009;1.2077;
736.2000;0.7049;1.2149;
736.5000;0.6984;1.1861;
736.8000;0.6984;1.1742;
737.1000;0.6984;1.1790;
737.4000;0.7017;1.1933;
737.7000;0.6960;1.1837;
738.0000;0.7000;1.1981;
738.3000;0.7009;1.2005;
738.6000;0.6984;1.1933;
738.9000;0.6984;1.1933;
739.2000;0.6976;1.1957;
739.5000;0.6935;1.1885;
739.8000;0.6984;1.1933;
740.1000;0.7017;1.2029;
740.4000;0.7017;1.2029;
740.7000;0.7025;1.2029;
741.0000;0.6960;1.1981;
741.3000;0.6968;1.1981;
741.6000;0.6992;1.1885;
741.9000;0.6968;1.1909;
742.2000;0.6968;1.2005;
742.5000;0.6960;1.2053;
742.8000;0.6976;1.2029;
743.1000;0.6984;1.2053;
743.4000;0.6960;1.1933;
743.7000;0.6943;1.2005;
744.0000;0.7033;1.2149;
744.3000;0.6960;1.2077;
744.6000;0.6960;1.2005;
744.9000;0.6943;1.2029;
745.2000;0.6919;1.1909;
745.5000;0.6943;1.2005;
745.8000;0.6935;1.1885;
746.1000;0.6968;1.1909;
746.4000;0.6952;1.1814;
746.7000;0.6927;1.1861;
747.0000;0.6976;1.1981;
747.3000;0.6935;1.1885;
747.6000;0.6935;1.1885;
747.9000;0.6935;1.1837;
748.2000;0.6952;1.1814;
748.5000;0.6919;1.1861;
748.8000;0.6919;1.1861;
749.1000;0.6911;1.1861;
749.4000;0.6927;1.1814;
749.7000;0.6927;1.1885;
750.0000;0.6886;1.1837;
750.3000;0.6919;1.1957;
750.6000;0.6911;1.1909;
750.9000;0.6927;1.1981;
751.2000;0.6903;1.2005;
751.5000;0.6919;1.2053;
751.8000;0.6903;1.1885;
752.1000;0.6895;1.1933;
752.4000;0.6927;1.2005;
752.7000;0.6927;1.2077;
753.0000;0.6903;1.2077;
753.3000;0.7017;1.2461;
753.6000;0.6911;1.2197;
753.9000;0.7057;1.2580;
754.2000;0.6878;1.2077;
754.5000;0.6911;1.2077;
754.8000;0.6878;1.2029;
755.1000;0.6903;1.2053;
755.4000;0.6862;1.1957;
755.7000;0.6919;1.2077;
756.0000;0.6895;1.2005;
756.3000;0.6927;1.2125;
756.6000;0.6854;1.2005;
756.9000;0.6911;1.2077;
757.2000;0.6911;1.2029;
757.5000;0.6927;1.2101;
757.8000;0.6919;1.2053;
758.1000;0.6919;1.2077;
758.4000;0.6895;1.2053;
758.7000;0.6895;1.2029;
759.0000;0.6886;1.2101;
759.3000;0.6895;1.2221;
759.6000;0.6838;1.2005;
759.9000;0.6854;1.2005;
760.2000;0.6854;1.2029;
760.5000;0.6862;1.2005;
760.8000;0.6862;1.2053;
761.1000;0.6878;1.1981;
761.4000;0.6862;1.1909;
761.7000;0.6895;1.2053;
762.0000;0.6854;1.1957;
762.3000;0.6886;1.1981;
762.6000;0.6813;1.1814;
762.9000;0.6854;1.2029;
763.2000;0.6846;1.2029;
763.5000;0.6886;1.2077;
763.8000;0.6854;1.1957;
764.1000;0.6829;1.1933;
764.4000;0.6854;1.1957;
764.7000;0.6862;1.2005;
765.0000;0.6862;1.2029;
765.3000;0.6870;1.2029;
765.6000;0.6846;1.1957;
765.9000;0.6854;1.1909;
766.2000;0.6846;1.1909;
766.5000;0.6838;1.1981;
766.8000;0.6846;1.2029;
767.1000;0.6870;1.2053;
767.4000;0.6862;1.2077;
767.7000;0.6838;1.2077;
768.0000;0.6829;1.2029;
768.3000;0.6829;1.2005;
768.6000;0.6854;1.1981;
768.9000;0.6854;1.1981;
769.2000;0.6919;1.2077;
769.5000;0.6838;1.1957;
769.8000;0.6829;1.2029;
770.1000;0.6854;1.2173;
770.4000;0.6829;1.2149;
770.7000;0.6838;1.2245;
771.0000;0.6805;1.2125;
771.3000;0.6797;1.1957;
771.6000;0.6797;1.1981;
771.9000;0.6846;1.2149;
772.2000;0.6813;1.1981;
772.5000;0.6862;1.2029;
772.8000;0.6732;1.1814;
773.1000;0.6846;1.2125;
773.4000;0.6870;1.2293;
773.7000;0.6813;1.2173;
774.0000;0.6854;1.2293;
774.3000;0.6813;1.2101;
774.6000;0.6797;1.2149;
774.9000;0.6772;1.2125;
775.2000;0.6805;1.2173;
775.5000;0.6821;1.2125;
775.8000;0.6813;1.2101;
776.1000;0.6805;1.2101;
776.4000;0.6813;1.2053;
776.7000;0.6789;1.2005;
777.0000;0.6854;1.2221;
777.3000;0.6805;1.2149;
777.6000;0.6838;1.2245;
777.9000;0.6821;1.2197;
778.2000;0.6789;1.2029;
778.5000;0.6829;1.2029;
778.8000;0.6813;1.1981;
779.1000;0.6813;1.1981;
779.4000;0.6813;1.1981;
779.7000;0.6797;1.1909;
780.0000;0.6813;1.1909;
780.3000;0.6789;1.1837;
780.6000;0.6781;1.1837;
780.9000;0.6805;1.1981;
781.2000;0.6813;1.2053;
781.5000;0.6821;1.2053;
781.8000;0.6740;1.1837;
782.1000;0.6797;1.2029;
782.4000;0.6797;1.2101;
782.7000;0.6789;1.2125;
783.0000;0.6781;1.1933;
783.3000;0.6797;1.1933;
783.6000;0.6781;1.1909;
783.9000;0.6797;1.1885;
784.2000;0.6772;1.1861;
784.5000;0.6805;1.1933;
784.8000;0.6772;1.1885;
785.1000;0.6797;1.1957;
785.4000;0.6772;1.1909;
785.7000;0.6781;1.2053;
786.0000;0.6756;1.2125;
786.3000;0.6772;1.2173;
786.6000;0.6797;1.2221;
786.9000;0.6772;1.2197;
787.2000;0.6781;1.2269;
787.5000;0.6781;1.2413;
787.8000;0.6781;1.2365;
788.1000;0.6821;1.2461;
788.4000;0.6821;1.2413;
788.7000;0.6805;1.2365;
789.0000;0.6781;1.2197;
789.3000;0.6781;1.2221;
789.6000;0.6772;1.2149;
789.9000;0.6756;1.2101;
790.2000;0.6772;1.2221;
790.5000;0.6764;1.2173;
790.8000;0.6764;1.2149;
791.1000;0.6789;1.2197;
791.4000;0.6781;1.2269;
791.7000;0.6772;1.2221;
792.0000;0.6748;1.2125;
792.3000;0.6781;1.2221;
792.6000;0.6789;1.2245;
792.9000;0.6764;1.2125;
793.2000;0.6683;1.1909;
793.5000;0.6781;1.2149;
793.8000;0.6764;1.2125;
794.1000;0.6764;1.2269;
794.4000;0.6716;1.2197;
794.7000;0.6748;1.2293;
795.0000;0.6764;1.2269;
795.3000;0.6772;1.2293;
795.6000;0.6740;1.2269;
795.9000;0.6748;1.2221;
796.2000;0.6797;1.2245;
796.5000;0.6781;1.2221;
796.8000;0.6732;1.2173;
797.1000;0.6732;1.2269;
797.4000;0.6748;1.2341;
797.7000;0.6732;1.2293;
798.0000;0.6748;1.2317;
798.3000;0.6748;1.2341;
798.6000;0.6748;1.2317;
798.9000;0.6707;1.2269;
799.2000;0.6740;1.2389;
799.5000;0.6732;1.2269;
799.8000;0.6732;1.2125;
800.1000;0.6748;1.2149;
800.4000;0.6732;1.2197;
800.7000;0.6748;1.2221;
801.0000;0.6732;1.2197;
801.3000;0.6724;1.2173;
801.6000;0.6716;1.1981;
801.9000;0.6748;1.2005;
802.2000;0.6732;1.2029;
802.5000;0.6740;1.2029;
802.8000;0.6748;1.2029;
803.1000;0.6764;1.2149;
803.4000;0.6732;1.2101;
803.7000;0.6740;1.2101;
804.0000;0.6732;1.2005;
804.3000;0.6781;1.2149;
804.6000;0.6716;1.1981;
804.9000;0.6732;1.2053;
805.2000;0.6740;1.2029;
805.5000;0.6724;1.1981;
805.8000;0.6732;1.1981;
806.1000;0.6716;1.1933;
806.4000;0.6699;1.1957;
806.7000;0.6724;1.2077;
807.0000;0.6667;1.2053;
807.3000;0.6716;1.2077;
807.6000;0.6740;1.2125;
807.9000;0.6716;1.1981;
808.2000;0.6707;1.1981;
808.5000;0.6724;1.1981;
808.8000;0.6699;1.2029;
809.1000;0.6699;1.2053;
809.4000;0.6716;1.1981;
809.7000;0.6724;1.1933;
810.0000;0.6707;1.2029;
810.3000;0.6691;1.2005;
810.6000;0.6716;1.2149;
810.9000;0.6716;1.2173;
811.2000;0.6691;1.2197;
811.5000;0.6716;1.2173;
811.8000;0.6724;1.2197;
812.1000;0.6699;1.2101;
812.4000;0.6724;1.2077;
812.7000;0.6764;1.2197;
813.0000;0.6724;1.2101;
813.3000;0.6724;1.2029;
813.6000;0.6691;1.2077;
813.9000;0.6716;1.2077;
814.2000;0.6756;1.2077;
814.5000;0.6707;1.1981;
814.8000;0.6691;1.1981;
815.1000;0.6764;1.2149;
815.4000;0.6756;1.2101;
815.7000;0.6699;1.1981;
816.0000;0.6691;1.1957;
816.3000;0.6724;1.2101;
816.6000;0.6691;1.2053;
816.9000;0.6683;1.2029;
817.2000;0.6691;1.2077;
817.5000;0.6618;1.1933;
817.8000;0.6699;1.2173;
818.1000;0.6732;1.2365;
818.4000;0.6707;1.2245;
818.7000;0.6699;1.2293;
819.0000;0.6683;1.2197;
819.3000;0.6707;1.2245;
819.6000;0.6691;1.2077;
819.9000;0.6691;1.2125;
820.2000;0.6691;1.2125;
820.5000;0.6683;1.2125;
820.8000;0.6683;1.2053;
821.1000;0.6667;1.2053;
821.4000;0.6683;1.2077;
821.7000;0.6691;1.2077;
822.0000;0.6675;1.2101;
822.3000;0.6732;1.2221;
822.6000;0.6691;1.2221;
822.9000;0.6659;1.2101;
823.2000;0.6699;1.2269;
823.5000;0.6683;1.2173;
823.8000;0.6675;1.2149;
824.1000;0.6683;1.2173;
824.4000;0.6675;1.2101;
824.7000;0.6691;1.2245;
825.0000;0.6675;1.2149;
825.3000;0.6675;1.2077;
825.6000;0.6683;1.2101;
825.9000;0.6642;1.1885;
826.2000;0.6756;1.2125;
826.5000;0.6683;1.1957;
826.8000;0.6667;1.1957;
827.1000;0.6683;1.2029;
827.4000;0.6667;1.1981;
827.7000;0.6642;1.2005;
828.0000;0.6667;1.2125;
828.3000;0.6699;1.2269;
828.6000;0.6699;1.2245;
828.9000;0.6691;1.2317;
829.2000;0.6691;1.2245;
829.5000;0.6667;1.2173;
829.8000;0.6683;1.2149;
830.1000;0.6642;1.2149;
830.4000;0.6650;1.2245;
830.7000;0.6699;1.2293;
831.0000;0.6667;1.2173;
831.3000;0.6667;1.2173;
831.6000;0.6683;1.2197;
831.9000;0.6659;1.2053;
832.2000;0.6675;1.2173;
832.5000;0.6659;1.2101;
832.8000;0.6650;1.2173;
833.1000;0.6642;1.2173;
833.4000;0.6642;1.2197;
833.7000;0.6659;1.2149;
834.0000;0.6691;1.2317;
834.3000;0.6667;1.2197;
834.6000;0.6650;1.2005;
834.9000;0.6707;1.2053;
835.2000;0.6650;1.1885;
835.5000;0.6642;1.1861;
835.8000;0.6650;1.1957;
836.1000;0.6650;1.1957;
836.4000;0.6642;1.1957;
836.7000;0.6659;1.2053;
837.0000;0.6634;1.1981;
837.3000;0.6691;1.2029;
837.6000;0.6650;1.1885;
837.9000;0.6634;1.1837;
838.2000;0.6650;1.2005;
838.5000;0.6634;1.1981;
838.8000;0.6650;1.1957;
839.1000;0.6659;1.2053;
839.4000;0.6650;1.1981;
839.7000;0.6577;1.1718;
840.0000;0.6748;1.2197;
840.3000;0.6626;1.1837;
840.6000;0.6642;1.1909;
840.9000;0.6659;1.1861;
841.2000;0.6675;1.1885;
841.5000;0.6642;1.1933;
841.8000;0.6650;1.1909;
842.1000;0.6650;1.1957;
842.4000;0.6667;1.1957;
842.7000;0.6626;1.2029;
843.0000;0.6634;1.2053;
843.3000;0.6626;1.2029;
843.6000;0.6642;1.2101;
843.9000;0.6536;1.1790;
844.2000;0.6593;1.2029;
844.5000;0.6642;1.2053;
844.8000;0.6634;1.1981;
845.1000;0.6634;1.1957;
845.4000;0.6593;1.1790;
845.7000;0.6610;1.1861;
846.0000;0.6642;1.2005;
846.3000;0.6642;1.1981;
846.6000;0.6634;1.2053;
846.9000;0.6634;1.2101;
847.2000;0.6650;1.2221;
847.5000;0.6642;1.2077;
847.8000;0.6561;1.1933;
848.1000;0.6626;1.2029;
848.4000;0.6626;1.1981;
848.7000;0.6626;1.1933;
849.0000;0.6650;1.1957;
849.3000;0.6602;1.1933;
849.6000;0.6626;1.1861;
849.9000;0.6659;1.1933;
850.2000;0.6634;1.1957;
850.5000;0.6634;1.1909;
850.8000;0.6634;1.1957;
851.1000;0.6618;1.1957;
851.4000;0.6626;1.1981;
851.7000;0.6553;1.1742;
852.0000;0.6626;1.2005;
852.3000;0.6634;1.2125;
852.6000;0.6626;1.2149;
852.9000;0.6602;1.2149;
853.2000;0.6610;1.2125;
853.5000;0.6610;1.2173;
853.8000;0.6593;1.2221;
854.1000;0.6610;1.2197;
854.4000;0.6618;1.2269;
854.7000;0.6602;1.2197;
855.0000;0.6610;1.2197;
855.3000;0.6634;1.2221;
855.6000;0.6683;1.2293;
855.9000;0.6626;1.2077;
856.2000;0.6593;1.1981;
856.5000;0.6618;1.2005;
856.8000;0.6593;1.1981;
857.1000;0.6577;1.1909;
857.4000;0.6634;1.1981;
857.7000;0.6504;1.1598;
858.0000;0.6618;1.1933;
858.3000;0.6585;1.1885;
858.6000;0.6610;1.1957;
858.9000;0.6610;1.1933;
859.2000;0.6593;1.1981;
859.5000;0.6610;1.2077;
859.8000;0.6659;1.2125;
860.1000;0.6626;1.2101;
860.4000;0.6610;1.2101;
860.7000;0.6602;1.2005;
861.0000;0.6659;1.2197;
861.3000;0.6618;1.2101;
861.6000;0.6610;1.2173;
861.9000;0.6610;1.2101;
862.2000;0.6602;1.1981;
862.5000;0.6602;1.2053;
862.8000;0.6602;1.2029;
863.1000;0.6618;1.2125;
863.4000;0.6545;1.1981;
863.7000;0.6577;1.2053;
864.0000;0.6610;1.2101;
864.3000;0.6626;1.2149;
864.6000;0.6602;1.2077;
864.9000;0.6577;1.2053;
865.2000;0.6602;1.2149;
865.5000;0.6610;1.2197;
865.8000;0.6610;1.2269;
866.1000;0.6585;1.2149;
866.4000;0.6602;1.2245;
866.7000;0.6602;1.2269;
867.0000;0.6618;1.2269;
867.3000;0.6593;1.2221;
867.6000;0.6577;1.2293;
867.9000;0.6577;1.2197;
868.2000;0.6593;1.2221;
868.5000;0.6650;1.2317;
868.8000;0.6593;1.2149;
869.1000;0.6536;1.2125;
869.4000;0.6553;1.2245;
869.7000;0.6553;1.2245;
870.0000;0.6577;1.2293;
870.3000;0.6536;1.2173;
870.6000;0.6569;1.2197;
870.9000;0.6642;1.2461;
871.2000;0.6553;1.2221;
871.5000;0.6585;1.2293;
871.8000;0.6561;1.2245;
872.1000;0.6569;1.2197;
872.4000;0.6626;1.2341;
872.7000;0.6577;1.2245;
873.0000;0.6577;1.2245;
873.3000;0.6585;1.2293;
873.6000;0.6569;1.2413;
873.9000;0.6585;1.2437;
874.2000;0.6602;1.2484;
874.5000;0.6577;1.2389;
874.8000;0.6642;1.2508;
875.1000;0.6585;1.2317;
875.4000;0.6593;1.2413;
875.7000;0.6618;1.2461;
876.0000;0.6593;1.2389;
876.3000;0.6585;1.2341;
876.6000;0.6585;1.2293;
876.9000;0.6512;1.2173;
877.2000;0.6593;1.2293;
877.5000;0.6553;1.2245;
877.8000;0.6577;1.2197;
878.1000;0.6577;1.2197;
878.4000;0.6577;1.2173;
878.7000;0.6569;1.2293;
879.0000;0.6585;1.2341;
879.3000;0.6610;1.2484;
879.6000;0.6577;1.2484;
879.9000;0.6569;1.2389;
880.2000;0.6650;1.2652;
880.5000;0.6610;1.2556;
880.8000;0.6569;1.2508;
881.1000;0.6553;1.2508;
881.4000;0.6577;1.2556;
881.7000;0.6561;1.2556;
882.0000;0.6650;1.2796;
882.3000;0.6569;1.2628;
882.6000;0.6585;1.2508;
882.9000;0.6577;1.2484;
883.2000;0.6593;1.2461;
883.5000;0.6545;1.2293;
883.8000;0.6561;1.2269;
884.1000;0.6536;1.2245;
884.4000;0.6642;1.2532;
884.7000;0.6569;1.2317;
885.0000;0.6626;1.2413;
885.3000;0.6553;1.2413;
885.6000;0.6520;1.2341;
885.9000;0.6553;1.2580;
886.2000;0.6569;1.2580;
886.5000;0.6569;1.2532;
886.8000;0.6569;1.2556;
887.1000;0.6479;1.2341;
887.4000;0.6479;1.2221;
887.7000;0.6561;1.2341;
888.0000;0.6553;1.2341;
888.3000;0.6585;1.2484;
888.6000;0.6561;1.2389;
888.9000;0.6561;1.2269;
889.2000;0.6561;1.2245;
889.5000;0.6561;1.2293;
889.8000;0.6561;1.2269;
890.1000;0.6585;1.2389;
890.4000;0.6569;1.2293;
890.7000;0.6545;1.2293;
891.0000;0.6602;1.2389;
891.3000;0.6569;1.2245;
891.6000;0.6536;1.2149;
891.9000;0.6561;1.2221;
892.2000;0.6553;1.2221;
892.5000;0.6602;1.2341;
892.8000;0.6553;1.2293;
893.1000;0.6569;1.2317;
893.4000;0.6593;1.2317;
893.7000;0.6553;1.2197;
894.0000;0.6569;1.2197;
894.3000;0.6553;1.2125;
894.6000;0.6553;1.2125;
894.9000;0.6561;1.2221;
895.2000;0.6528;1.2173;
895.5000;0.6553;1.2293;
895.8000;0.6553;1.2221;
896.1000;0.6569;1.2269;
896.4000;0.6553;1.2269;
896.7000;0.6545;1.2221;
897.0000;0.6479;1.2101;
897.3000;0.6536;1.2221;
897.6000;0.6545;1.2269;
897.9000;0.6634;1.2365;
898.2000;0.6536;1.2173;
898.5000;0.6536;1.2101;
898.8000;0.6545;1.2029;
899.1000;0.6528;1.1957;
899.4000;0.6528;1.2005;
899.7000;0.6569;1.2101;
900.0000;0.6536;1.1957;
900.3000;0.6553;1.1981;
900.6000;0.6585;1.1981;
900.9000;0.6528;1.1909;
901.2000;0.6545;1.1837;
901.5000;0.6553;1.1885;
901.8000;0.6520;1.1837;
902.1000;0.6553;1.1957;
902.4000;0.6536;1.1909;
902.7000;0.6479;1.1694;
903.0000;0.6536;1.1885;
903.3000;0.6553;1.1861;
903.6000;0.6520;1.1814;
903.9000;0.6528;1.1909;
904.2000;0.6479;1.1766;
904.5000;0.6561;1.2005;
904.8000;0.6545;1.1981;
905.1000;0.6512;1.1909;
905.4000;0.6545;1.1957;
905.7000;0.6528;1.2029;
906.0000;0.6520;1.2101;
906.3000;0.6520;1.2005;
906.6000;0.6536;1.2101;
906.9000;0.6561;1.2149;
907.2000;0.6536;1.2197;
907.5000;0.6520;1.2149;
907.8000;0.6536;1.2197;
908.1000;0.6536;1.2269;
908.4000;0.6528;1.2245;
908.7000;0.6528;1.2221;
909.0000;0.6528;1.2149;
909.3000;0.6553;1.2197;
909.6000;0.6553;1.2197;
909.9000;0.6545;1.2149;
910.2000;0.6528;1.2173;
910.5000;0.6504;1.2125;
910.8000;0.6528;1.2293;
911.1000;0.6536;1.2269;
911.4000;0.6536;1.2389;
911.7000;0.6528;1.2389;
912.0000;0.6528;1.2365;
912.3000;0.6536;1.2461;
912.6000;0.6520;1.2341;
912.9000;0.6553;1.2437;
913.2000;0.6520;1.2413;
913.5000;0.6504;1.2341;
913.8000;0.6528;1.2389;
914.1000;0.6528;1.2317;
914.4000;0.6520;1.2293;
914.7000;0.6536;1.2341;
915.0000;0.6545;1.2341;
915.3000;0.6520;1.2317;
915.6000;0.6496;1.2269;
915.9000;0.6512;1.2269;
916.2000;0.6504;1.2293;
916.5000;0.6520;1.2293;
916.8000;0.6536;1.2317;
917.1000;0.6512;1.2269;
917.4000;0.6504;1.2269;
917.7000;0.6528;1.2269;
918.0000;0.6504;1.2221;
918.3000;0.6447;1.2101;
918.6000;0.6528;1.2341;
918.9000;0.6479;1.2221;
919.2000;0.6520;1.2365;
919.5000;0.6512;1.2413;
919.8000;0.6528;1.2437;
920.1000;0.6520;1.2341;
920.4000;0.6553;1.2365;
920.7000;0.6528;1.2389;
921.0000;0.6528;1.2365;
921.3000;0.6536;1.2484;
921.6000;0.6512;1.2341;
921.9000;0.6520;1.2389;
922.2000;0.6496;1.2293;
922.5000;0.6528;1.2269;
922.8000;0.6512;1.2173;
923.1000;0.6520;1.2149;
923.4000;0.6504;1.2149;
923.7000;0.6577;1.2317;
924.0000;0.6504;1.2197;
924.3000;0.6504;1.2293;
924.6000;0.6479;1.2149;
924.9000;0.6496;1.2197;
925.2000;0.6488;1.2197;
925.5000;0.6504;1.2293;
925.8000;0.6488;1.2317;
926.1000;0.6504;1.2269;
926.4000;0.6414;1.2029;
926.7000;0.6512;1.2221;
927.0000;0.6512;1.2245;
927.3000;0.6504;1.2125;
927.6000;0.6512;1.2077;
927.9000;0.6520;1.2173;
928.2000;0.6512;1.2125;
928.5000;0.6406;1.1861;
928.8000;0.6496;1.2173;
929.1000;0.6545;1.2269;
929.4000;0.6504;1.2101;
929.7000;0.6496;1.2005;
930.0000;0.6479;1.1981;
930.3000;0.6528;1.2101;
930.6000;0.6512;1.2173;
930.9000;0.6504;1.2101;
931.2000;0.6504;1.2077;
931.5000;0.6512;1.2221;
931.8000;0.6512;1.2317;
932.1000;0.6504;1.2317;
932.4000;0.6504;1.2317;
932.7000;0.6496;1.2269;
933.0000;0.6504;1.2293;
933.3000;0.6488;1.2341;
933.6000;0.6479;1.2365;
933.9000;0.6504;1.2365;
934.2000;0.6496;1.2437;
934.5000;0.6504;1.2365;
934.8000;0.6496;1.2221;
935.1000;0.6520;1.2173;
935.4000;0.6512;1.2197;
935.7000;0.6512;1.2293;
936.0000;0.6479;1.2341;
936.3000;0.6488;1.2341;
936.6000;0.6496;1.2341;
936.9000;0.6512;1.2317;
937.2000;0.6496;1.2269;
937.5000;0.6471;1.2101;
937.8000;0.6488;1.2149;
938.1000;0.6488;1.2077;
938.4000;0.6488;1.1981;
938.7000;0.6496;1.2005;
939.0000;0.6488;1.2029;
939.3000;0.6545;1.2221;
939.6000;0.6479;1.2077;
939.9000;0.6496;1.2125;
940.2000;0.6488;1.2245;
940.5000;0.6520;1.2221;
940.8000;0.6512;1.2173;
941.1000;0.6479;1.2221;
941.4000;0.6471;1.2173;
941.7000;0.6512;1.2245;
942.0000;0.6512;1.2293;
942.3000;0.6496;1.2317;
942.6000;0.6479;1.2341;
942.9000;0.6488;1.2341;
943.2000;0.6496;1.2341;
943.5000;0.6488;1.2221;
943.8000;0.6471;1.2005;
944.1000;0.6488;1.1933;
944.4000;0.6512;1.2053;
944.7000;0.6479;1.2101;
945.0000;0.6488;1.2101;
945.3000;0.6479;1.2053;
945.6000;0.6512;1.2125;
945.9000;0.6488;1.2125;
946.2000;0.6479;1.2149;
946.5000;0.6504;1.2293;
946.8000;0.6488;1.2269;
947.1000;0.6488;1.2245;
947.4000;0.6528;1.2293;
947.7000;0.6471;1.2149;
948.0000;0.6471;1.2173;
948.3000;0.6455;1.2077;
948.6000;0.6488;1.2149;
948.9000;0.6471;1.2149;
949.2000;0.6479;1.2269;
949.5000;0.6496;1.2245;
949.8000;0.6488;1.2269;
950.1000;0.6488;1.2293;
950.4000;0.6479;1.2221;
950.7000;0.6439;1.2125;
951.0000;0.6496;1.2317;
951.3000;0.6479;1.2293;
951.6000;0.6488;1.2269;
951.9000;0.6488;1.2173;
952.2000;0.6422;1.1933;
952.5000;0.6471;1.2005;
952.8000;0.6488;1.2125;
953.1000;0.6504;1.2029;
953.4000;0.6504;1.2053;
953.7000;0.6488;1.2005;
954.0000;0.6471;1.2053;
954.3000;0.6496;1.2053;
954.6000;0.6496;1.2029;
954.9000;0.6479;1.1981;
955.2000;0.6479;1.1981;
955.5000;0.6496;1.2029;
955.8000;0.6479;1.2029;
956.1000;0.6463;1.2101;
956.4000;0.6504;1.2173;
956.7000;0.6471;1.2077;
957.0000;0.6471;1.2005;
957.3000;0.6471;1.1957;
957.6000;0.6479;1.2053;
957.9000;0.6471;1.1957;
958.2000;0.6422;1.1933;
958.5000;0.6479;1.2077;
958.8000;0.6463;1.1933;
959.1000;0.6463;1.1957;
959.4000;0.6471;1.1981;
959.7000;0.6471;1.2125;
960.0000;0.6479;1.2149;
960.3000;0.6471;1.2149;
960.6000;0.6463;1.2125;
960.9000;0.6479;1.2125;
961.2000;0.6471;1.2245;
961.5000;0.6479;1.2149;
961.8000;0.6479;1.2053;
962.1000;0.6512;1.2125;
962.4000;0.6504;1.2101;
962.7000;0.6471;1.1981;
963.0000;0.6488;1.2053;
963.3000;0.6479;1.2029;
963.6000;0.6479;1.2077;
963.9000;0.6479;1.2149;
964.2000;0.6455;1.2149;
964.5000;0.6471;1.2173;
964.8000;0.6463;1.2293;
965.1000;0.6471;1.2269;
965.4000;0.6455;1.2293;
965.7000;0.6471;1.2389;
966.0000;0.6471;1.2365;
966.3000;0.6471;1.2365;
966.6000;0.6479;1.2317;
966.9000;0.6479;1.2245;
967.2000;0.6479;1.2125;
967.5000;0.6479;1.2101;
967.8000;0.6471;1.2245;
968.1000;0.6455;1.2149;
968.4000;0.6463;1.2269;
968.7000;0.6471;1.2317;
969.0000;0.6463;1.2293;
969.3000;0.6463;1.2269;
969.6000;0.6414;1.2197;
969.9000;0.6455;1.2269;
970.2000;0.6488;1.2317;
970.5000;0.6496;1.2293;
970.8000;0.6463;1.2341;
971.1000;0.6479;1.2293;
971.4000;0.6520;1.2437;
971.7000;0.6414;1.2221;
972.0000;0.6455;1.2293;
972.3000;0.6463;1.2293;
972.6000;0.6471;1.2317;
972.9000;0.6439;1.2221;
973.2000;0.6471;1.2341;
973.5000;0.6455;1.2221;
973.8000;0.6447;1.2101;
974.1000;0.6431;1.2053;
974.4000;0.6463;1.2197;
974.7000;0.6406;1.2053;
975.0000;0.6455;1.2101;
975.3000;0.6447;1.2149;
975.6000;0.6455;1.2221;
975.9000;0.6431;1.2149;
976.2000;0.6390;1.1981;
976.5000;0.6520;1.2341;
976.8000;0.6463;1.2125;
977.1000;0.6455;1.2221;
977.4000;0.6479;1.2341;
977.7000;0.6488;1.2341;
978.0000;0.6463;1.2317;
978.3000;0.6455;1.2221;
978.6000;0.6455;1.2293;
978.9000;0.6447;1.2221;
979.2000;0.6455;1.2149;
979.5000;0.6439;1.2149;
979.8000;0.6414;1.2053;
980.1000;0.6455;1.2173;
980.4000;0.6431;1.2197;
980.7000;0.6447;1.2173;
981.0000;0.6463;1.2149;
981.3000;0.6439;1.2149;
981.6000;0.6447;1.2173;
981.9000;0.6471;1.2245;
982.2000;0.6471;1.2317;
982.5000;0.6455;1.2221;
982.8000;0.6382;1.2053;
983.1000;0.6455;1.2221;
983.4000;0.6545;1.2508;
983.7000;0.6447;1.2293;
984.0000;0.6479;1.2461;
984.3000;0.6528;1.2628;
984.6000;0.6455;1.2604;
984.9000;0.6455;1.2580;
985.2000;0.6463;1.2580;
985.5000;0.6390;1.2413;
985.8000;0.6447;1.2461;
986.1000;0.6447;1.2461;
986.4000;0.6463;1.2437;
986.7000;0.6439;1.2221;
987.0000;0.6463;1.2269;
987.3000;0.6455;1.2293;
987.6000;0.6463;1.2221;
987.9000;0.6455;1.2149;
988.2000;0.6406;1.2101;
988.5000;0.6439;1.2173;
988.8000;0.6488;1.2341;
989.1000;0.6455;1.2317;
989.4000;0.6382;1.2149;
989.7000;0.6365;1.2173;
990.0000;0.6471;1.2437;
990.3000;0.6439;1.2365;
990.6000;0.6439;1.2341;
990.9000;0.6479;1.2484;
991.2000;0.6447;1.2389;
991.5000;0.6447;1.2389;
991.8000;0.6439;1.2389;
992.1000;0.6439;1.2389;
992.4000;0.6447;1.2317;
992.7000;0.6439;1.2365;
993.0000;0.6390;1.2173;
993.3000;0.6422;1.2269;
993.6000;0.6479;1.2365;
993.9000;0.6455;1.2293;
994.2000;0.6439;1.2221;
994.5000;0.6455;1.2197;
994.8000;0.6463;1.2293;
995.1000;0.6414;1.2245;
995.4000;0.6455;1.2413;
995.7000;0.6431;1.2317;
996.0000;0.6447;1.2437;
996.3000;0.6471;1.2508;
996.6000;0.6422;1.2293;
996.9000;0.6447;1.2365;
997.2000;0.6471;1.2389;
997.5000;0.6447;1.2317;
997.8000;0.6447;1.2293;
998.1000;0.6447;1.2269;
998.4000;0.6447;1.2293;
998.7000;0.6488;1.2437;
999.0000;0.6439;1.2389;
999.3000;0.6414;1.2437;
999.6000;0.6422;1.2461;
999.9000;0.6431;1.2413;
1000.2000;0.6422;1.2221;
1000.5000;0.6585;1.2484;
1000.8000;0.6463;1.2125;
1001.1000;0.6439;1.2053;
1001.4000;0.6447;1.2029;
1001.7000;0.6422;1.1909;
1002.0000;0.6439;1.2005;
1002.3000;0.6431;1.2005;
1002.6000;0.6439;1.2149;
1002.9000;0.6455;1.2269;
1003.2000;0.6455;1.2317;
1003.5000;0.6455;1.2293;
1003.8000;0.6447;1.2293;
1004.1000;0.6422;1.2245;
1004.4000;0.6431;1.2341;
1004.7000;0.6431;1.2341;
1005.0000;0.6414;1.2317;
1005.3000;0.6398;1.2173;
1005.6000;0.6431;1.2173;
1005.9000;0.6439;1.2173;
1006.2000;0.6431;1.2173;
1006.5000;0.6431;1.2245;
1006.8000;0.6447;1.2341;
1007.1000;0.6431;1.2341;
1007.4000;0.6374;1.2149;
1007.7000;0.6455;1.2269;
1008.0000;0.6439;1.2293;
1008.3000;0.6479;1.2461;
1008.6000;0.6431;1.2389;
1008.9000;0.6414;1.2317;
1009.2000;0.6431;1.2341;
1009.5000;0.6431;1.2341;
1009.8000;0.6398;1.2317;
1010.1000;0.6431;1.2508;
1010.4000;0.6447;1.2437;
1010.7000;0.6414;1.2389;
1011.0000;0.6414;1.2508;
1011.3000;0.6414;1.2389;
1011.6000;0.6406;1.2269;
1011.9000;0.6422;1.2317;
1012.2000;0.6447;1.2365;
1012.5000;0.6479;1.2437;
1012.8000;0.6439;1.2317;
1013.1000;0.6439;1.2389;
1013.4000;0.6422;1.2293;
1013.7000;0.6422;1.2341;
1014.0000;0.6439;1.2341;
1014.3000;0.6414;1.2269;
1014.6000;0.6431;1.2293;
1014.9000;0.6422;1.2269;
1015.2000;0.6406;1.2293;
1015.5000;0.6414;1.2293;
1015.8000;0.6406;1.2293;
1016.1000;0.6398;1.2341;
1016.4000;0.6512;1.2604;
1016.7000;0.6390;1.2365;
1017.0000;0.6374;1.2341;
1017.3000;0.6431;1.2365;
1017.6000;0.6496;1.2532;
1017.9000;0.6463;1.2484;
1018.2000;0.6447;1.2413;
1018.5000;0.6382;1.2293;
1018.8000;0.6422;1.2365;
1019.1000;0.6431;1.2413;
1019.4000;0.6422;1.2413;
1019.7000;0.6374;1.2269;
1020.0000;0.6422;1.2413;
1020.3000;0.6471;1.2556;
1020.6000;0.6357;1.2317;
1020.9000;0.6447;1.2604;
1021.2000;0.6365;1.2341;
1021.5000;0.6488;1.2604;
1021.8000;0.6431;1.2508;
1022.1000;0.6439;1.2437;
1022.4000;0.6414;1.2413;
1022.7000;0.6504;1.2604;
1023.0000;0.6431;1.2413;
1023.3000;0.6414;1.2437;
1023.6000;0.6422;1.2437;
1023.9000;0.6439;1.2413;
1024.2000;0.6431;1.2365;
1024.5000;0.6431;1.2389;
1024.8000;0.6431;1.2317;
1025.1000;0.6577;1.2652;
1025.4000;0.6431;1.2293;
1025.7000;0.6439;1.2317;
1026.0000;0.6422;1.2269;
1026.3000;0.6463;1.2413;
1026.6000;0.6422;1.2269;
1026.9000;0.6422;1.2269;
1027.2000;0.6422;1.2317;
1027.5000;0.6422;1.2389;
1027.8000;0.6406;1.2389;
1028.1000;0.6414;1.2365;
1028.4000;0.6431;1.2461;
1028.7000;0.6422;1.2437;
1029.0000;0.6463;1.2532;
1029.3000;0.6398;1.2389;
1029.6000;0.6382;1.2269;
1029.9000;0.6414;1.2317;
1030.2000;0.6414;1.2341;
1030.5000;0.6431;1.2389;
1030.8000;0.6406;1.2341;
1031.1000;0.6325;1.2149;
1031.4000;0.6422;1.2461;
1031.7000;0.6414;1.2508;
1032.0000;0.6414;1.2461;
1032.3000;0.6422;1.2508;
1032.6000;0.6414;1.2461;
1032.9000;0.6414;1.2461;
1033.2000;0.6382;1.2341;
1033.5000;0.6447;1.2413;
1033.8000;0.6431;1.2341;
1034.1000;0.6455;1.2389;
1034.4000;0.6390;1.2389;
1034.7000;0.6398;1.2580;
1035.0000;0.6414;1.2556;
1035.3000;0.6439;1.2532;
1035.6000;0.6479;1.2628;
1035.9000;0.6406;1.2532;
1036.2000;0.6479;1.2724;
1036.5000;0.6414;1.2580;
1036.8000;0.6406;1.2508;
1037.1000;0.6390;1.2437;
1037.4000;0.6390;1.2484;
1037.7000;0.6406;1.2532;
1038.0000;0.6471;1.2700;
1038.3000;0.6414;1.2532;
1038.6000;0.6422;1.2484;
1038.9000;0.6382;1.2365;
1039.2000;0.6414;1.2461;
1039.5000;0.6390;1.2389;
1039.8000;0.6406;1.2389;
1040.1000;0.6431;1.2461;
1040.4000;0.6382;1.2437;
1040.7000;0.6398;1.2532;
1041.0000;0.6390;1.2532;
1041.3000;0.6471;1.2772;
1041.6000;0.6463;1.2772;
1041.9000;0.6357;1.2532;
1042.2000;0.6431;1.2700;
1042.5000;0.6317;1.2389;
1042.8000;0.6422;1.2580;
1043.1000;0.6414;1.2461;
1043.4000;0.6414;1.2413;
1043.7000;0.6422;1.2389;
1044.0000;0.6422;1.2461;
1044.3000;0.6398;1.2317;
1044.6000;0.6390;1.2293;
1044.9000;0.6398;1.2341;
1045.2000;0.6414;1.2413;
1045.5000;0.6406;1.2341;
1045.8000;0.6406;1.2269;
1046.1000;0.6398;1.2245;
1046.4000;0.6414;1.2269;
1046.7000;0.6406;1.2269;
1047.0000;0.6398;1.2245;
1047.3000;0.6398;1.2293;
1047.6000;0.6390;1.2293;
1047.9000;0.6398;1.2317;
1048.2000;0.6382;1.2389;
1048.5000;0.6390;1.2389;
1048.8000;0.6398;1.2461;
1049.1000;0.6374;1.2365;
1049.4000;0.6390;1.2437;
1049.7000;0.6398;1.2341;
1050.0000;0.6414;1.2389;
1050.3000;0.6390;1.2317;
1050.6000;0.6406;1.2365;
1050.9000;0.6406;1.2437;
1051.2000;0.6406;1.2532;
1051.5000;0.6398;1.2484;
1051.8000;0.6414;1.2508;
1052.1000;0.6390;1.2461;
1052.4000;0.6398;1.2461;
1052.7000;0.6414;1.2532;
1053.0000;0.6406;1.2461;
1053.3000;0.6398;1.2413;
1053.6000;0.6390;1.2413;
1053.9000;0.6414;1.2532;
1054.2000;0.6406;1.2484;
1054.5000;0.6414;1.2437;
1054.8000;0.6382;1.2317;
1055.1000;0.6390;1.2389;
1055.4000;0.6398;1.2341;
1055.7000;0.6390;1.2317;
1056.0000;0.6398;1.2341;
1056.3000;0.6406;1.2389;
1056.6000;0.6398;1.2341;
1056.9000;0.6398;1.2269;
1057.2000;0.6439;1.2413;
1057.5000;0.6374;1.2341;
1057.8000;0.6406;1.2437;
1058.1000;0.6398;1.2461;
1058.4000;0.6309;1.2221;
1058.7000;0.6390;1.2413;
1059.0000;0.6422;1.2532;
1059.3000;0.6398;1.2437;
1059.6000;0.6390;1.2461;
1059.9000;0.6390;1.2508;
1060.2000;0.6390;1.2437;
1060.5000;0.6414;1.2461;
1060.8000;0.6406;1.2484;
1061.1000;0.6414;1.2604;
1061.4000;0.6390;1.2628;
1061.7000;0.6447;1.2796;
1062.0000;0.6406;1.2604;
1062.3000;0.6422;1.2628;
1062.6000;0.6390;1.2484;
1062.9000;0.6406;1.2437;
1063.2000;0.6414;1.2461;
1063.5000;0.6390;1.2413;
1063.8000;0.6406;1.2365;
1064.1000;0.6382;1.2365;
1064.4000;0.6382;1.2437;
1064.7000;0.6390;1.2484;
1065.0000;0.6398;1.2413;
1065.3000;0.6406;1.2413;
1065.6000;0.6406;1.2532;
1065.9000;0.6431;1.2652;
1066.2000;0.6390;1.2437;
1066.5000;0.6390;1.2389;
1066.8000;0.6431;1.2532;
1067.1000;0.6406;1.2461;
1067.4000;0.6374;1.2341;
1067.7000;0.6398;1.2461;
1068.0000;0.6431;1.2580;
1068.3000;0.6398;1.2484;
1068.6000;0.6496;1.2772;
1068.9000;0.6374;1.2484;
1069.2000;0.6406;1.2461;
1069.5000;0.6406;1.2365;
1069.8000;0.6398;1.2341;
1070.1000;0.6365;1.2269;
1070.4000;0.6398;1.2317;
1070.7000;0.6447;1.2341;
1071.0000;0.6398;1.2245;
1071.3000;0.6382;1.2245;
1071.6000;0.6398;1.2317;
1071.9000;0.6390;1.2413;
1072.2000;0.6365;1.2389;
1072.5000;0.6382;1.2437;
1072.8000;0.6390;1.2508;
1073.1000;0.6398;1.2532;
1073.4000;0.6406;1.2508;
1073.7000;0.6382;1.2508;
1074.0000;0.6382;1.2532;
1074.3000;0.6357;1.2341;
1074.6000;0.6365;1.2269;
1074.9000;0.6333;1.2197;
1075.2000;0.6349;1.2221;
1075.5000;0.6374;1.2197;
1075.8000;0.6357;1.2173;
1076.1000;0.6390;1.2245;
1076.4000;0.6365;1.2197;
1076.7000;0.6398;1.2317;
1077.0000;0.6398;1.2365;
1077.3000;0.6398;1.2293;
1077.6000;0.6382;1.2341;
1077.9000;0.6357;1.2245;
1078.2000;0.6390;1.2245;
1078.5000;0.6357;1.2101;
1078.8000;0.6406;1.2197;
1079.1000;0.6357;1.2101;
1079.4000;0.6422;1.2317;
1079.7000;0.6374;1.2221;
1080.0000;0.6390;1.2341;
1080.3000;0.6374;1.2389;
1080.6000;0.6374;1.2461;
1080.9000;0.6390;1.2508;
1081.2000;0.6390;1.2484;
1081.5000;0.6365;1.2532;
1081.8000;0.6357;1.2556;
1082.1000;0.6406;1.2628;
1082.4000;0.6382;1.2580;
1082.7000;0.6374;1.2556;
1083.0000;0.6382;1.2580;
1083.3000;0.6431;1.2676;
1083.6000;0.6414;1.2604;
1083.9000;0.6398;1.2580;
1084.2000;0.6406;1.2532;
1084.5000;0.6398;1.2508;
1084.8000;0.6406;1.2556;
1085.1000;0.6390;1.2556;
1085.4000;0.6382;1.2628;
1085.7000;0.6390;1.2580;
1086.0000;0.6382;1.2628;
1086.3000;0.6390;1.2580;
1086.6000;0.6471;1.2772;
1086.9000;0.6398;1.2580;
1087.2000;0.6374;1.2461;
1087.5000;0.6374;1.2556;
1087.8000;0.6374;1.2437;
1088.1000;0.6374;1.2389;
1088.4000;0.6398;1.2389;
1088.7000;0.6309;1.2125;
1089.0000;0.6382;1.2293;
1089.3000;0.6382;1.2269;
1089.6000;0.6357;1.2245;
1089.9000;0.6398;1.2461;
1090.2000;0.6390;1.2365;
1090.5000;0.6422;1.2413;
1090.8000;0.6382;1.2317;
1091.1000;0.6398;1.2437;
1091.4000;0.6374;1.2317;
1091.7000;0.6382;1.2413;
1092.0000;0.6292;1.2173;
1092.3000;0.6398;1.2413;
1092.6000;0.6357;1.2341;
1092.9000;0.6374;1.2389;
1093.2000;0.6333;1.2293;
1093.5000;0.6374;1.2484;
1093.8000;0.6374;1.2508;
1094.1000;0.6390;1.2580;
1094.4000;0.6390;1.2628;
1094.7000;0.6374;1.2484;
1095.0000;0.6390;1.2484;
1095.3000;0.6390;1.2652;
1095.6000;0.6365;1.2604;
1095.9000;0.6357;1.2508;
1096.2000;0.6374;1.2532;
1096.5000;0.6341;1.2437;
1096.8000;0.6374;1.2461;
1097.1000;0.6333;1.2413;
1097.4000;0.6382;1.2556;
1097.7000;0.6382;1.2437;
1098.0000;0.6365;1.2413;
1098.3000;0.6357;1.2413;
1098.6000;0.6390;1.2437;
1098.9000;0.6390;1.2461;
1099.2000;0.6398;1.2437;
1099.5000;0.6382;1.2532;
1099.8000;0.6398;1.2604;
1100.1000;0.6382;1.2628;
1100.4000;0.6382;1.2604;
1100.7000;0.6374;1.2652;
1101.0000;0.6406;1.2772;
1101.3000;0.6382;1.2676;
1101.6000;0.6398;1.2652;
1101.9000;0.6390;1.2652;
1102.2000;0.6374;1.2748;
1102.5000;0.6422;1.2772;
1102.8000;0.6414;1.2676;
1103.1000;0.6374;1.2532;
1103.4000;0.6390;1.2484;
1103.7000;0.6398;1.2365;
1104.0000;0.6357;1.2317;
1104.3000;0.6390;1.2365;
1104.6000;0.6357;1.2221;
1104.9000;0.6382;1.2245;
1105.2000;0.6382;1.2245;
1105.5000;0.6382;1.2197;
1105.8000;0.6390;1.2077;
1106.1000;0.6463;1.2413;
1106.4000;0.6374;1.2245;
1106.7000;0.6333;1.2245;
1107.0000;0.6357;1.2317;
1107.3000;0.6382;1.2365;
1107.6000;0.6365;1.2341;
1107.9000;0.6390;1.2413;
1108.2000;0.6357;1.2461;
1108.5000;0.6382;1.2556;
1108.8000;0.6382;1.2508;
1109.1000;0.6390;1.2508;
1109.4000;0.6341;1.2341;
1109.7000;0.6357;1.2269;
1110.0000;0.6357;1.2293;
1110.3000;0.6422;1.2437;
1110.6000;0.6479;1.2676;
1110.9000;0.6374;1.2461;
1111.2000;0.6390;1.2508;
1111.5000;0.6365;1.2365;
1111.8000;0.6365;1.2389;
1112.1000;0.6341;1.2293;
1112.4000;0.6390;1.2389;
1112.7000;0.6398;1.2413;
1113.0000;0.6357;1.2317;
1113.3000;0.6374;1.2317;
1113.6000;0.6374;1.2317;
1113.9000;0.6357;1.2389;
1114.2000;0.6349;1.2293;
1114.5000;0.6463;1.2556;
1114.8000;0.6374;1.2269;
1115.1000;0.6398;1.2413;
1115.4000;0.6374;1.2341;
1115.7000;0.6365;1.2365;
1116.0000;0.6398;1.2484;
1116.3000;0.6357;1.2437;
1116.6000;0.6333;1.2413;
1116.9000;0.6365;1.2461;
1117.2000;0.6341;1.2461;
1117.5000;0.6349;1.2556;
1117.8000;0.6365;1.2652;
1118.1000;0.6341;1.2508;
1118.4000;0.6357;1.2437;
1118.7000;0.6365;1.2437;
1119.0000;0.6374;1.2389;
1119.3000;0.6357;1.2341;
1119.6000;0.6325;1.2245;
1119.9000;0.6374;1.2317;
1120.2000;0.6317;1.2245;
1120.5000;0.6365;1.2484;
1120.8000;0.6284;1.2197;
1121.1000;0.6300;1.2269;
1121.4000;0.6365;1.2461;
1121.7000;0.6374;1.2437;
1122.0000;0.6390;1.2461;
1122.3000;0.6365;1.2341;
1122.6000;0.6365;1.2269;
1122.9000;0.6382;1.2293;
1123.2000;0.6365;1.2197;
1123.5000;0.6284;1.1957;
1123.8000;0.6406;1.2341;
1124.1000;0.6488;1.2604;
1124.4000;0.6390;1.2389;
1124.7000;0.6382;1.2437;
1125.0000;0.6357;1.2317;
1125.3000;0.6382;1.2413;
1125.6000;0.6357;1.2317;
1125.9000;0.6325;1.2317;
1126.2000;0.6382;1.2484;
1126.5000;0.6357;1.2437;
1126.8000;0.6349;1.2580;
1127.1000;0.6357;1.2580;
1127.4000;0.6349;1.2556;
1127.7000;0.6341;1.2580;
1128.0000;0.6349;1.2508;
1128.3000;0.6333;1.2461;
1128.6000;0.6365;1.2508;
1128.9000;0.6357;1.2604;
1129.2000;0.6382;1.2652;
1129.5000;0.6349;1.2604;
1129.8000;0.6365;1.2628;
1130.1000;0.6268;1.2293;
1130.4000;0.6374;1.2532;
1130.7000;0.6349;1.2389;
1131.0000;0.6341;1.2437;
1131.3000;0.6357;1.2556;
1131.6000;0.6365;1.2604;
1131.9000;0.6341;1.2628;
1132.2000;0.6382;1.2652;
1132.5000;0.6365;1.2628;
1132.8000;0.6406;1.2676;
1133.1000;0.6349;1.2580;
1133.4000;0.6349;1.2508;
1133.7000;0.6349;1.2484;
1134.0000;0.6455;1.2772;
1134.3000;0.6422;1.2676;
1134.6000;0.6357;1.2556;
1134.9000;0.6317;1.2461;
1135.2000;0.6349;1.2556;
1135.5000;0.6300;1.2437;
1135.8000;0.6374;1.2580;
1136.1000;0.6341;1.2652;
1136.4000;0.6374;1.2676;
1136.7000;0.6365;1.2748;
1137.0000;0.6349;1.2772;
1137.3000;0.6374;1.2772;
1137.6000;0.6374;1.2676;
1137.9000;0.6357;1.2652;
1138.2000;0.6374;1.2652;
1138.5000;0.6374;1.2700;
1138.8000;0.6341;1.2604;
1139.1000;0.6349;1.2652;
1139.4000;0.6349;1.2652;
1139.7000;0.6365;1.2700;
1140.0000;0.6333;1.2676;
1140.3000;0.6333;1.2748;
1140.6000;0.6374;1.2772;
1140.9000;0.6365;1.2700;
1141.2000;0.6325;1.2556;
1141.5000;0.6349;1.2628;
1141.8000;0.6463;1.2964;
1142.1000;0.6357;1.2676;
1142.4000;0.6341;1.2628;
1142.7000;0.6284;1.2437;
1143.0000;0.6349;1.2508;
1143.3000;0.6341;1.2508;
1143.6000;0.6357;1.2461;
1143.9000;0.6365;1.2461;
1144.2000;0.6341;1.2461;
1144.5000;0.6357;1.2508;
1144.8000;0.6374;1.2556;
1145.1000;0.6349;1.2461;
1145.4000;0.6374;1.2484;
1145.7000;0.6317;1.2365;
1146.0000;0.6365;1.2532;
1146.3000;0.6357;1.2508;
1146.6000;0.6325;1.2389;
1146.9000;0.6349;1.2508;
1147.2000;0.6325;1.2556;
1147.5000;0.6341;1.2580;
1147.8000;0.6374;1.2772;
1148.1000;0.6374;1.2772;
1148.4000;0.6341;1.2700;
1148.7000;0.6333;1.2748;
1149.0000;0.6357;1.2748;
1149.3000;0.6333;1.2700;
1149.6000;0.6325;1.2700;
1149.9000;0.6341;1.2772;
1150.2000;0.6284;1.2580;
1150.5000;0.6382;1.2844;
1150.8000;0.6365;1.2748;
1151.1000;0.6349;1.2676;
1151.4000;0.6349;1.2580;
1151.7000;0.6341;1.2604;
1152.0000;0.6349;1.2676;
1152.3000;0.6406;1.2724;
1152.6000;0.6349;1.2628;
1152.9000;0.6341;1.2652;
1153.2000;0.6333;1.2724;
1153.5000;0.6333;1.2700;
1153.8000;0.6374;1.2676;
1154.1000;0.6406;1.2676;
1154.4000;0.6333;1.2580;
1154.7000;0.6365;1.2604;
1155.0000;0.6374;1.2652;
1155.3000;0.6374;1.2652;
1155.6000;0.6333;1.2580;
1155.9000;0.6325;1.2580;
1156.2000;0.6349;1.2556;
1156.5000;0.6333;1.2437;
1156.8000;0.6398;1.2604;
1157.1000;0.6349;1.2461;
1157.4000;0.6382;1.2580;
1157.7000;0.6325;1.2508;
1158.0000;0.6325;1.2461;
1158.3000;0.6382;1.2556;
1158.6000;0.6365;1.2484;
1158.9000;0.6317;1.2437;
1159.2000;0.6357;1.2532;
1159.5000;0.6349;1.2580;
1159.8000;0.6349;1.2484;
1160.1000;0.6365;1.2484;
1160.4000;0.6341;1.2389;
1160.7000;0.6390;1.2556;
1161.0000;0.6333;1.2532;
1161.3000;0.6357;1.2556;
1161.6000;0.6341;1.2532;
1161.9000;0.6349;1.2604;
1162.2000;0.6365;1.2580;
1162.5000;0.6325;1.2532;
1162.8000;0.6357;1.2604;
1163.1000;0.6325;1.2508;
1163.4000;0.6333;1.2556;
1163.7000;0.6309;1.2437;
1164.0000;0.6341;1.2484;
1164.3000;0.6349;1.2461;
1164.6000;0.6349;1.2508;
1164.9000;0.6382;1.2556;
1165.2000;0.6357;1.2556;
1165.5000;0.6341;1.2461;
1165.8000;0.6382;1.2532;
1166.1000;0.6341;1.2389;
1166.4000;0.6357;1.2413;
1166.7000;0.6398;1.2508;
1167.0000;0.6357;1.2484;
1167.3000;0.6357;1.2484;
1167.6000;0.6431;1.2748;
1167.9000;0.6357;1.2556;
1168.2000;0.6309;1.2413;
1168.5000;0.6349;1.2508;
1168.8000;0.6365;1.2652;
1169.1000;0.6365;1.2604;
1169.4000;0.6349;1.2508;
1169.7000;0.6349;1.2484;
1170.0000;0.6357;1.2484;
1170.3000;0.6357;1.2508;
1170.6000;0.6382;1.2580;
1170.9000;0.6317;1.2413;
1171.2000;0.6365;1.2556;
1171.5000;0.6341;1.2556;
1171.8000;0.6309;1.2413;
1172.1000;0.6390;1.2700;
1172.4000;0.6349;1.2580;
1172.7000;0.6341;1.2676;
1173.0000;0.6398;1.2796;
1173.3000;0.6374;1.2724;
1173.6000;0.6333;1.2676;
1173.9000;0.6325;1.2820;
1174.2000;0.6374;1.2868;
1174.5000;0.6349;1.2796;
1174.8000;0.6309;1.2724;
1175.1000;0.6333;1.2820;
1175.4000;0.6357;1.2868;
1175.7000;0.6341;1.2868;
1176.0000;0.6349;1.2820;
1176.3000;0.6341;1.2724;
1176.6000;0.6300;1.2508;
1176.9000;0.6325;1.2532;
1177.2000;0.6333;1.2556;
1177.5000;0.6341;1.2580;
1177.8000;0.6333;1.2508;
1178.1000;0.6349;1.2532;
1178.4000;0.6309;1.2437;
1178.7000;0.6333;1.2580;
1179.0000;0.6341;1.2724;
1179.3000;0.6325;1.2700;
1179.6000;0.6325;1.2676;
1179.9000;0.6365;1.2820;
1180.2000;0.6325;1.2844;
1180.5000;0.6349;1.2892;
1180.8000;0.6341;1.2868;
1181.1000;0.6325;1.2844;
1181.4000;0.6341;1.2844;
1181.7000;0.6357;1.2772;
1182.0000;0.6333;1.2628;
1182.3000;0.6325;1.2676;
1182.6000;0.6349;1.2676;
1182.9000;0.6300;1.2508;
1183.2000;0.6333;1.2508;
1183.5000;0.6341;1.2484;
1183.8000;0.6317;1.2437;
1184.1000;0.6374;1.2580;
1184.4000;0.6341;1.2461;
1184.7000;0.6325;1.2365;
1185.0000;0.6292;1.2269;
1185.3000;0.6349;1.2461;
1185.6000;0.6333;1.2221;
1185.9000;0.6357;1.2221;
1186.2000;0.6333;1.2101;
1186.5000;0.6349;1.2101;
1186.8000;0.6284;1.1933;
1187.1000;0.6268;1.1981;
1187.4000;0.6325;1.2245;
1187.7000;0.6325;1.2317;
1188.0000;0.6333;1.2293;
1188.3000;0.6300;1.2293;
1188.6000;0.6325;1.2413;
1188.9000;0.6325;1.2413;
1189.2000;0.6398;1.2652;
1189.5000;0.6317;1.2484;
1189.8000;0.6325;1.2437;
1190.1000;0.6333;1.2556;
1190.4000;0.6333;1.2556;
1190.7000;0.6325;1.2532;
1191.0000;0.6365;1.2628;
1191.3000;0.6309;1.2556;
1191.6000;0.6341;1.2628;
1191.9000;0.6300;1.2604;
1192.2000;0.6325;1.2700;
1192.5000;0.6341;1.2724;
1192.8000;0.6333;1.2724;
1193.1000;0.6341;1.2748;
1193.4000;0.6325;1.2652;
1193.7000;0.6382;1.2844;
1194.0000;0.6317;1.2700;
1194.3000;0.6357;1.2748;
1194.6000;0.6349;1.2652;
1194.9000;0.6357;1.2604;
1195.2000;0.6374;1.2604;
1195.5000;0.6374;1.2532;
1195.8000;0.6333;1.2413;
1196.1000;0.6309;1.2389;
1196.4000;0.6317;1.2437;
1196.7000;0.6317;1.2508;
1197.0000;0.6341;1.2580;
1197.3000;0.6341;1.2532;
1197.6000;0.6317;1.2461;
1197.9000;0.6333;1.2580;
1198.2000;0.6341;1.2556;
1198.5000;0.6341;1.2556;
1198.8000;0.6325;1.2628;
1199.1000;0.6349;1.2628;
1199.4000;0.6390;1.2820;
1199.7000;0.6333;1.2748;
1200.0000;0.6276;1.2580;
1200.3000;0.6341;1.2676;
1200.6000;0.6300;1.2532;
1200.9000;0.6284;1.2461;
1201.2000;0.6325;1.2556;
1201.5000;0.6317;1.2532;
1201.8000;0.6341;1.2508;
1202.1000;0.6349;1.2508;
1202.4000;0.6317;1.2437;
1202.7000;0.6333;1.2413;
1203.0000;0.6325;1.2389;
1203.3000;0.6325;1.2580;
1203.6000;0.6317;1.2556;
1203.9000;0.6357;1.2628;
1204.2000;0.6333;1.2508;
1204.5000;0.6317;1.2484;
1204.8000;0.6333;1.2484;
1205.1000;0.6317;1.2413;
1205.4000;0.6317;1.2365;
1205.7000;0.6357;1.2389;
1206.0000;0.6341;1.2389;
1206.3000;0.6309;1.2293;
1206.6000;0.6341;1.2317;
1206.9000;0.6333;1.2269;
1207.2000;0.6325;1.2245;
1207.5000;0.6317;1.2173;
1207.8000;0.6309;1.2101;
1208.1000;0.6333;1.2197;
1208.4000;0.6309;1.2149;
1208.7000;0.6325;1.2293;
1209.0000;0.6333;1.2293;
1209.3000;0.6341;1.2221;
1209.6000;0.6333;1.2197;
1209.9000;0.6309;1.2149;
1210.2000;0.6365;1.2365;
1210.5000;0.6341;1.2365;
1210.8000;0.6341;1.2341;
1211.1000;0.6276;1.2173;
1211.4000;0.6341;1.2317;
1211.7000;0.6333;1.2461;
1212.0000;0.6349;1.2532;
1212.3000;0.6365;1.2508;
1212.6000;0.6341;1.2484;
1212.9000;0.6349;1.2508;
1213.2000;0.6374;1.2556;
1213.5000;0.6349;1.2580;
1213.8000;0.6325;1.2484;
1214.1000;0.6325;1.2508;
1214.4000;0.6333;1.2652;
1214.7000;0.6349;1.2676;
1215.0000;0.6333;1.2700;
1215.3000;0.6349;1.2700;
1215.6000;0.6309;1.2628;
1215.9000;0.6374;1.2796;
1216.2000;0.6333;1.2796;
1216.5000;0.6333;1.2820;
1216.8000;0.6333;1.2844;
1217.1000;0.6317;1.2796;
1217.4000;0.6349;1.2844;
1217.7000;0.6317;1.2748;
1218.0000;0.6317;1.2652;
1218.3000;0.6325;1.2652;
1218.6000;0.6317;1.2652;
1218.9000;0.6309;1.2628;
1219.2000;0.6317;1.2700;
1219.5000;0.6300;1.2796;
1219.8000;0.6317;1.2748;
1220.1000;0.6317;1.2676;
1220.4000;0.6325;1.2652;
1220.7000;0.6325;1.2628;
1221.0000;0.6317;1.2556;
1221.3000;0.6317;1.2580;
1221.6000;0.6325;1.2556;
1221.9000;0.6325;1.2604;
1222.2000;0.6317;1.2676;
1222.5000;0.6284;1.2604;
1222.8000;0.6333;1.2676;
1223.1000;0.6292;1.2532;
1223.4000;0.6317;1.2508;
1223.7000;0.6325;1.2532;
1224.0000;0.6349;1.2604;
1224.3000;0.6292;1.2437;
1224.6000;0.6292;1.2461;
1224.9000;0.6349;1.2580;
1225.2000;0.6309;1.2437;
1225.5000;0.6333;1.2413;
1225.8000;0.6284;1.2317;
1226.1000;0.6333;1.2437;
1226.4000;0.6349;1.2532;
1226.7000;0.6309;1.2484;
1227.0000;0.6325;1.2532;
1227.3000;0.6374;1.2580;
1227.6000;0.6333;1.2437;
1227.9000;0.6349;1.2461;
1228.2000;0.6309;1.2389;
1228.5000;0.6333;1.2484;
1228.8000;0.6276;1.2413;
1229.1000;0.6325;1.2580;
1229.4000;0.6219;1.2413;
1229.7000;0.6317;1.2604;
1230.0000;0.6357;1.2580;
1230.3000;0.6406;1.2820;
1230.6000;0.6300;1.2580;
1230.9000;0.6341;1.2676;
1231.2000;0.6341;1.2700;
1231.5000;0.6309;1.2676;
1231.8000;0.6309;1.2748;
1232.1000;0.6292;1.2676;
1232.4000;0.6374;1.2796;
1232.7000;0.6325;1.2628;
1233.0000;0.6284;1.2580;
1233.3000;0.6309;1.2724;
1233.6000;0.6260;1.2556;
1233.9000;0.6276;1.2532;
1234.2000;0.6292;1.2628;
1234.5000;0.6292;1.2676;
1234.8000;0.6309;1.2700;
1235.1000;0.6309;1.2676;
1235.4000;0.6317;1.2700;
1235.7000;0.6309;1.2676;
1236.0000;0.6325;1.2676;
1236.3000;0.6325;1.2652;
1236.6000;0.6333;1.2700;
1236.9000;0.6325;1.2580;
1237.2000;0.6357;1.2604;
1237.5000;0.6325;1.2508;
1237.8000;0.6325;1.2461;
1238.1000;0.6317;1.2341;
1238.4000;0.6325;1.2389;
1238.7000;0.6317;1.2484;
1239.0000;0.6325;1.2508;
1239.3000;0.6341;1.2556;
1239.6000;0.6349;1.2532;
1239.9000;0.6300;1.2413;
1240.2000;0.6333;1.2556;
1240.5000;0.6317;1.2508;
1240.8000;0.6317;1.2484;
1241.1000;0.6341;1.2652;
1241.4000;0.6349;1.2628;
1241.7000;0.6357;1.2604;
1242.0000;0.6357;1.2580;
1242.3000;0.6325;1.2508;
1242.6000;0.6317;1.2532;
1242.9000;0.6317;1.2532;
1243.2000;0.6398;1.2724;
1243.5000;0.6300;1.2389;
1243.8000;0.6300;1.2389;
1244.1000;0.6300;1.2389;
1244.4000;0.6292;1.2389;
1244.7000;0.6309;1.2437;
1245.0000;0.6325;1.2365;
1245.3000;0.6317;1.2341;
1245.6000;0.6317;1.2413;
1245.9000;0.6300;1.2413;
1246.2000;0.6325;1.2413;
1246.5000;0.6349;1.2461;
1246.8000;0.6325;1.2461;
1247.1000;0.6317;1.2508;
1247.4000;0.6292;1.2484;
1247.7000;0.6317;1.2556;
1248.0000;0.6317;1.2580;
1248.3000;0.6309;1.2604;
1248.6000;0.6317;1.2604;
1248.9000;0.6309;1.2676;
1249.2000;0.6309;1.2652;
1249.5000;0.6284;1.2676;
1249.8000;0.6292;1.2676;
1250.1000;0.6341;1.2676;
1250.4000;0.6292;1.2580;
1250.7000;0.6317;1.2628;
1251.0000;0.6309;1.2628;
1251.3000;0.6341;1.2748;
1251.6000;0.6325;1.2652;
1251.9000;0.6341;1.2676;
1252.2000;0.6292;1.2580;
1252.5000;0.6317;1.2628;
1252.8000;0.6398;1.2700;
1253.1000;0.6317;1.2556;
1253.4000;0.6325;1.2532;
1253.7000;0.6317;1.2437;
1254.0000;0.6325;1.2437;
1254.3000;0.6333;1.2365;
1254.6000;0.6284;1.2269;
1254.9000;0.6317;1.2413;
1255.2000;0.6300;1.2389;
1255.5000;0.6300;1.2389;
1255.8000;0.6390;1.2724;
1256.1000;0.6309;1.2508;
1256.4000;0.6317;1.2532;
1256.7000;0.6317;1.2532;
1257.0000;0.6325;1.2580;
1257.3000;0.6309;1.2508;
1257.6000;0.6333;1.2628;
1257.9000;0.6243;1.2317;
1258.2000;0.6357;1.2604;
1258.5000;0.6309;1.2413;
1258.8000;0.6309;1.2413;
1259.1000;0.6357;1.2532;
1259.4000;0.6325;1.2437;
1259.7000;0.6333;1.2413;
1260.0000;0.6317;1.2365;
1260.3000;0.6325;1.2365;
1260.6000;0.6325;1.2365;
1260.9000;0.6317;1.2317;
1261.2000;0.6309;1.2341;
1261.5000;0.6317;1.2437;
1261.8000;0.6333;1.2508;
1262.1000;0.6309;1.2484;
1262.4000;0.6300;1.2508;
1262.7000;0.6309;1.2508;
1263.0000;0.6325;1.2484;
1263.3000;0.6317;1.2461;
1263.6000;0.6309;1.2365;
1263.9000;0.6317;1.2365;
1264.2000;0.6300;1.2389;
1264.5000;0.6325;1.2508;
1264.8000;0.6309;1.2508;
1265.1000;0.6317;1.2461;
1265.4000;0.6292;1.2341;
1265.7000;0.6325;1.2389;
1266.0000;0.6260;1.2269;
1266.3000;0.6357;1.2532;
1266.6000;0.6309;1.2413;
1266.9000;0.6317;1.2437;
1267.2000;0.6317;1.2437;
1267.5000;0.6292;1.2389;
1267.8000;0.6325;1.2508;
1268.1000;0.6317;1.2437;
1268.4000;0.6292;1.2389;
1268.7000;0.6349;1.2484;
1269.0000;0.6268;1.2341;
1269.3000;0.6284;1.2365;
1269.6000;0.6349;1.2508;
1269.9000;0.6300;1.2556;
1270.2000;0.6300;1.2532;
1270.5000;0.6292;1.2580;
1270.8000;0.6300;1.2580;
1271.1000;0.6309;1.2580;
1271.4000;0.6325;1.2652;
1271.7000;0.6349;1.2676;
1272.0000;0.6357;1.2724;
1272.3000;0.6309;1.2772;
1272.6000;0.6292;1.2820;
1272.9000;0.6300;1.2772;
1273.2000;0.6317;1.2724;
1273.5000;0.6317;1.2628;
1273.8000;0.6292;1.2628;
1274.1000;0.6325;1.2628;
1274.4000;0.6309;1.2628;
1274.7000;0.6341;1.2676;
1275.0000;0.6309;1.2700;
1275.3000;0.6300;1.2676;
1275.6000;0.6300;1.2796;
1275.9000;0.6300;1.2772;
1276.2000;0.6292;1.2796;
1276.5000;0.6292;1.2820;
1276.8000;0.6300;1.2868;
1277.1000;0.6325;1.2916;
1277.4000;0.6292;1.2892;
1277.7000;0.6292;1.2844;
1278.0000;0.6300;1.2844;
1278.3000;0.6317;1.2796;
1278.6000;0.6309;1.2724;
1278.9000;0.6309;1.2748;
1279.2000;0.6276;1.2748;
1279.5000;0.6276;1.2724;
1279.8000;0.6300;1.2700;
1280.1000;0.6300;1.2652;
1280.4000;0.6300;1.2628;
1280.7000;0.6317;1.2604;
1281.0000;0.6309;1.2676;
1281.3000;0.6292;1.2604;
1281.6000;0.6300;1.2532;
1281.9000;0.6300;1.2508;
1282.2000;0.6333;1.2580;
1282.5000;0.6317;1.2437;
1282.8000;0.6309;1.2484;
1283.1000;0.6349;1.2580;
1283.4000;0.6325;1.2580;
1283.7000;0.6341;1.2652;
1284.0000;0.6309;1.2652;
1284.3000;0.6309;1.2628;
1284.6000;0.6325;1.2748;
1284.9000;0.6292;1.2772;
1285.2000;0.6227;1.2724;
1285.5000;0.6317;1.2844;
1285.8000;0.6268;1.2748;
1286.1000;0.6309;1.2796;
1286.4000;0.6292;1.2724;
1286.7000;0.6292;1.2724;
1287.0000;0.6333;1.2772;
1287.3000;0.6317;1.2676;
1287.6000;0.6300;1.2700;
1287.9000;0.6276;1.2652;
1288.2000;0.6292;1.2724;
1288.5000;0.6309;1.2748;
1288.8000;0.6325;1.2748;
1289.1000;0.6284;1.2604;
1289.4000;0.6325;1.2652;
1289.7000;0.6325;1.2652;
1290.0000;0.6341;1.2676;
1290.3000;0.6309;1.2652;
1290.6000;0.6309;1.2628;
1290.9000;0.6284;1.2676;
1291.2000;0.6317;1.2844;
1291.5000;0.6300;1.2820;
1291.8000;0.6284;1.2796;
1292.1000;0.6309;1.2868;
1292.4000;0.6309;1.2868;
1292.7000;0.6292;1.2892;
1293.0000;0.6374;1.2988;
1293.3000;0.6292;1.2796;
1293.6000;0.6292;1.2868;
1293.9000;0.6309;1.2868;
1294.2000;0.6300;1.2772;
1294.5000;0.6309;1.2796;
1294.8000;0.6276;1.2820;
1295.1000;0.6300;1.2844;
1295.4000;0.6284;1.2844;
1295.7000;0.6276;1.2796;
1296.0000;0.6252;1.2580;
1296.3000;0.6309;1.2628;
1296.6000;0.6317;1.2556;
1296.9000;0.6300;1.2580;
1297.2000;0.6309;1.2604;
1297.5000;0.6317;1.2652;
1297.8000;0.6292;1.2604;
1298.1000;0.6292;1.2676;
1298.4000;0.6300;1.2724;
1298.7000;0.6309;1.2748;
1299.0000;0.6309;1.2676;
1299.3000;0.6300;1.2652;
1299.6000;0.6341;1.2844;
1299.9000;0.6300;1.2796;
1300.2000;0.6292;1.2796;
1300.5000;0.6292;1.2772;
1300.8000;0.6260;1.2700;
1301.1000;0.6300;1.2700;
1301.4000;0.6284;1.2580;
1301.7000;0.6292;1.2604;
1302.0000;0.6309;1.2676;
1302.3000;0.6284;1.2724;
1302.6000;0.6292;1.2676;
1302.9000;0.6292;1.2748;
1303.2000;0.6341;1.2964;
1303.5000;0.6284;1.2676;
1303.8000;0.6333;1.2796;
1304.1000;0.6349;1.2820;
1304.4000;0.6300;1.2652;
1304.7000;0.6276;1.2580;
1305.0000;0.6292;1.2652;
1305.3000;0.6292;1.2724;
1305.6000;0.6292;1.2772;
1305.9000;0.6300;1.2724;
1306.2000;0.6309;1.2796;
1306.5000;0.6292;1.2700;
1306.8000;0.6300;1.2652;
1307.1000;0.6333;1.2676;
1307.4000;0.6300;1.2676;
1307.7000;0.6235;1.2508;
1308.0000;0.6284;1.2652;
1308.3000;0.6284;1.2700;
1308.6000;0.6276;1.2676;
1308.9000;0.6317;1.2724;
1309.2000;0.6292;1.2700;
1309.5000;0.6300;1.2652;
1309.8000;0.6325;1.2580;
1310.1000;0.6309;1.2580;
1310.4000;0.6309;1.2652;
1310.7000;0.6300;1.2652;
1311.0000;0.6317;1.2724;
1311.3000;0.6309;1.2652;
1311.6000;0.6292;1.2628;
1311.9000;0.6300;1.2700;
1312.2000;0.6300;1.2700;
1312.5000;0.6309;1.2700;
1312.8000;0.6317;1.2604;
1313.1000;0.6349;1.2580;
1313.4000;0.6349;1.2628;
1313.7000;0.6284;1.2532;
1314.0000;0.6309;1.2628;
1314.3000;0.6309;1.2700;
1314.6000;0.6260;1.2628;
1314.9000;0.6333;1.2796;
1315.2000;0.6292;1.2772;
1315.5000;0.6309;1.2772;
1315.8000;0.6292;1.2628;
1316.1000;0.6284;1.2676;
1316.4000;0.6317;1.2652;
1316.7000;0.6300;1.2628;
1317.0000;0.6374;1.2748;
1317.3000;0.6300;1.2604;
1317.6000;0.6292;1.2580;
1317.9000;0.6300;1.2604;
1318.2000;0.6284;1.2700;
1318.5000;0.6309;1.2724;
1318.8000;0.6317;1.2652;
1319.1000;0.6309;1.2700;
1319.4000;0.6325;1.2796;
1319.7000;0.6300;1.2628;
1320.0000;0.6243;1.2508;
1320.3000;0.6300;1.2652;
1320.6000;0.6292;1.2676;
1320.9000;0.6309;1.2748;
1321.2000;0.6309;1.2748;
1321.5000;0.6309;1.2820;
1321.8000;0.6325;1.2820;
1322.1000;0.6300;1.2724;
1322.4000;0.6292;1.2796;
1322.7000;0.6284;1.2796;
1323.0000;0.6268;1.2820;
1323.3000;0.6300;1.2892;
1323.6000;0.6325;1.3012;
1323.9000;0.6325;1.2940;
1324.2000;0.6284;1.2892;
1324.5000;0.6300;1.2916;
1324.8000;0.6284;1.2892;
1325.1000;0.6284;1.2916;
1325.4000;0.6284;1.2964;
1325.7000;0.6414;1.3299;
1326.0000;0.6268;1.2892;
1326.3000;0.6398;1.3131;
1326.6000;0.6292;1.2868;
1326.9000;0.6300;1.2820;
1327.2000;0.6284;1.2772;
1327.5000;0.6309;1.2820;
1327.8000;0.6300;1.2820;
1328.1000;0.6284;1.2796;
1328.4000;0.6309;1.2772;
1328.7000;0.6284;1.2748;
1329.0000;0.6300;1.2748;
1329.3000;0.6390;1.2940;
1329.6000;0.6300;1.2628;
1329.9000;0.6292;1.2604;
1330.2000;0.6260;1.2556;
1330.5000;0.6284;1.2676;
1330.8000;0.6292;1.2748;
1331.1000;0.6252;1.2700;
1331.4000;0.6284;1.2748;
1331.7000;0.6292;1.2700;
1332.0000;0.6284;1.2772;
1332.3000;0.6284;1.2748;
1332.6000;0.6195;1.2580;
1332.9000;0.6300;1.2868;
1333.2000;0.6309;1.2844;
1333.5000;0.6300;1.2868;
1333.8000;0.6300;1.2868;
1334.1000;0.6292;1.2796;
1334.4000;0.6300;1.2724;
1334.7000;0.6284;1.2748;
1335.0000;0.6300;1.2772;
1335.3000;0.6292;1.2772;
1335.6000;0.6292;1.2916;
1335.9000;0.6276;1.2940;
1336.2000;0.6284;1.2940;
1336.5000;0.6252;1.2916;
1336.8000;0.6284;1.2940;
1337.1000;0.6284;1.2940;
1337.4000;0.6341;1.3012;
1337.7000;0.6284;1.2868;
1338.0000;0.6284;1.2844;
1338.3000;0.6276;1.2868;
1338.6000;0.6309;1.2820;
1338.9000;0.6325;1.2940;
1339.2000;0.6276;1.2844;
1339.5000;0.6284;1.2820;
1339.8000;0.6309;1.2772;
1340.1000;0.6325;1.2772;
1340.4000;0.6276;1.2604;
1340.7000;0.6325;1.2772;
1341.0000;0.6300;1.2724;
1341.3000;0.6276;1.2676;
1341.6000;0.6292;1.2700;
1341.9000;0.6300;1.2820;
1342.2000;0.6292;1.2844;
1342.5000;0.6300;1.2820;
1342.8000;0.6260;1.2652;
1343.1000;0.6292;1.2652;
1343.4000;0.6276;1.2700;
1343.7000;0.6284;1.2676;
1344.0000;0.6284;1.2676;
1344.3000;0.6276;1.2652;
1344.6000;0.6292;1.2508;
1344.9000;0.6284;1.2532;
1345.2000;0.6276;1.2508;
1345.5000;0.6268;1.2580;
1345.8000;0.6284;1.2604;
1346.1000;0.6276;1.2652;
1346.4000;0.6292;1.2676;
1346.7000;0.6292;1.2676;
1347.0000;0.6284;1.2724;
1347.3000;0.6300;1.2724;
1347.6000;0.6268;1.2628;
1347.9000;0.6268;1.2748;
1348.2000;0.6284;1.2772;
1348.5000;0.6284;1.2868;
1348.8000;0.6382;1.3131;
1349.1000;0.6276;1.2844;
1349.4000;0.6284;1.2844;
1349.7000;0.6292;1.2868;
1350.0000;0.6252;1.2748;
1350.3000;0.6260;1.2820;
1350.6000;0.6284;1.2724;
1350.9000;0.6292;1.2652;
1351.2000;0.6284;1.2556;
1351.5000;0.6227;1.2437;
1351.8000;0.6292;1.2604;
1352.1000;0.6325;1.2748;
1352.4000;0.6268;1.2700;
1352.7000;0.6284;1.2556;
1353.0000;0.6276;1.2461;
1353.3000;0.6252;1.2413;
1353.6000;0.6317;1.2676;
1353.9000;0.6292;1.2700;
1354.2000;0.6235;1.2556;
1354.5000;0.6300;1.2796;
1354.8000;0.6309;1.2844;
1355.1000;0.6284;1.2772;
1355.4000;0.6276;1.2796;
1355.7000;0.6292;1.2820;
1356.0000;0.6300;1.2796;
1356.3000;0.6325;1.2964;
1356.6000;0.6276;1.2844;
1356.9000;0.6276;1.2748;
1357.2000;0.6292;1.2796;
1357.5000;0.6333;1.2820;
1357.8000;0.6268;1.2748;
1358.1000;0.6292;1.2724;
1358.4000;0.6268;1.2580;
1358.7000;0.6349;1.2772;
1359.0000;0.6309;1.2772;
1359.3000;0.6317;1.2724;
1359.6000;0.6309;1.2676;
1359.9000;0.6284;1.2652;
1360.2000;0.6292;1.2724;
1360.5000;0.6252;1.2628;
1360.8000;0.6235;1.2532;
1361.1000;0.6260;1.2652;
1361.4000;0.6243;1.2580;
1361.7000;0.6309;1.2700;
1362.0000;0.6325;1.2724;
1362.3000;0.6276;1.2628;
1362.6000;0.6260;1.2580;
1362.9000;0.6276;1.2628;
1363.2000;0.6268;1.2628;
1363.5000;0.6276;1.2676;
1363.8000;0.6300;1.2628;
1364.1000;0.6292;1.2580;
1364.4000;0.6260;1.2461;
1364.7000;0.6292;1.2580;
1365.0000;0.6284;1.2556;
1365.3000;0.6284;1.2604;
1365.6000;0.6276;1.2628;
1365.9000;0.6292;1.2652;
1366.2000;0.6300;1.2700;
1366.5000;0.6300;1.2700;
1366.8000;0.6292;1.2724;
1367.1000;0.6284;1.2724;
1367.4000;0.6292;1.2724;
1367.7000;0.6284;1.2604;
1368.0000;0.6284;1.2676;
1368.3000;0.6300;1.2748;
1368.6000;0.6382;1.3036;
1368.9000;0.6309;1.2868;
1369.2000;0.6292;1.2892;
1369.5000;0.6284;1.2844;
1369.8000;0.6292;1.2820;
1370.1000;0.6292;1.2772;
1370.4000;0.6284;1.2772;
1370.7000;0.6268;1.2700;
1371.0000;0.6268;1.2652;
1371.3000;0.6276;1.2628;
1371.6000;0.6317;1.2700;
1371.9000;0.6276;1.2628;
1372.2000;0.6325;1.2724;
1372.5000;0.6292;1.2676;
1372.8000;0.6227;1.2484;
1373.1000;0.6309;1.2676;
1373.4000;0.6309;1.2700;
1373.7000;0.6284;1.2700;
1374.0000;0.6292;1.2868;
1374.3000;0.6276;1.2796;
1374.6000;0.6284;1.2820;
1374.9000;0.6309;1.2772;
1375.2000;0.6382;1.2964;
1375.5000;0.6292;1.2628;
1375.8000;0.6260;1.2508;
1376.1000;0.6268;1.2484;
1376.4000;0.6284;1.2556;
1376.7000;0.6292;1.2628;
1377.0000;0.6300;1.2700;
1377.3000;0.6195;1.2532;
1377.6000;0.6292;1.2748;
1377.9000;0.6284;1.2652;
1378.2000;0.6203;1.2365;
1378.5000;0.6284;1.2580;
1378.8000;0.6300;1.2556;
1379.1000;0.6292;1.2628;
1379.4000;0.6292;1.2652;
1379.7000;0.6292;1.2820;
1380.0000;0.6284;1.2820;
1380.3000;0.6260;1.2820;
1380.6000;0.6284;1.2892;
1380.9000;0.6284;1.2844;
1381.2000;0.6333;1.2916;
1381.5000;0.6268;1.2796;
1381.8000;0.6276;1.2796;
1382.1000;0.6252;1.2724;
1382.4000;0.6276;1.2844;
1382.7000;0.6268;1.2772;
1383.0000;0.6268;1.2796;
1383.3000;0.6325;1.2988;
1383.6000;0.6284;1.2796;
1383.9000;0.6284;1.2700;
1384.2000;0.6300;1.2724;
1384.5000;0.6284;1.2700;
1384.8000;0.6276;1.2652;
1385.1000;0.6284;1.2556;
1385.4000;0.6292;1.2628;
1385.7000;0.6276;1.2628;
1386.0000;0.6260;1.2556;
1386.3000;0.6268;1.2580;
1386.6000;0.6276;1.2580;
1386.9000;0.6284;1.2580;
1387.2000;0.6268;1.2580;
1387.5000;0.6276;1.2628;
1387.8000;0.6292;1.2580;
1388.1000;0.6382;1.2868;
1388.4000;0.6276;1.2628;
1388.7000;0.6284;1.2676;
1389.0000;0.6292;1.2700;
1389.3000;0.6292;1.2652;
1389.6000;0.6284;1.2652;
1389.9000;0.6276;1.2580;
1390.2000;0.6292;1.2580;
1390.5000;0.6292;1.2604;
1390.8000;0.6284;1.2628;
1391.1000;0.6276;1.2508;
1391.4000;0.6292;1.2484;
1391.7000;0.6276;1.2437;
1392.0000;0.6300;1.2508;
1392.3000;0.6276;1.2484;
1392.6000;0.6276;1.2437;
1392.9000;0.6292;1.2413;
1393.2000;0.6276;1.2484;
1393.5000;0.6276;1.2461;
1393.8000;0.6276;1.2508;
1394.1000;0.6284;1.2604;
1394.4000;0.6260;1.2413;
1394.7000;0.6276;1.2437;
1395.0000;0.6284;1.2461;
1395.3000;0.6317;1.2556;
1395.6000;0.6292;1.2437;
1395.9000;0.6292;1.2317;
1396.2000;0.6268;1.2269;
1396.5000;0.6260;1.2365;
1396.8000;0.6284;1.2508;
1397.1000;0.6276;1.2508;
1397.4000;0.6276;1.2484;
1397.7000;0.6268;1.2508;
1398.0000;0.6284;1.2532;
1398.3000;0.6268;1.2604;
1398.6000;0.6341;1.2700;
1398.9000;0.6260;1.2484;
1399.2000;0.6195;1.2317;
1399.5000;0.6284;1.2508;
1399.8000;0.6268;1.2461;
