time/ms;Fluo/V;P700 deltaI/I x10³;
-199.8000;0.7041;1.2988;
-199.5000;0.7041;1.2964;
-199.2000;0.7074;1.2940;
-198.9000;0.7057;1.2892;
-198.6000;0.7041;1.2940;
-198.3000;0.7025;1.2916;
-198.0000;0.7033;1.2964;
-197.7000;0.7009;1.2916;
-197.4000;0.7033;1.2940;
-197.1000;0.7025;1.2868;
-196.8000;0.7049;1.2892;
-196.5000;0.7033;1.2916;
-196.2000;0.7033;1.2964;
-195.9000;0.7033;1.2940;
-195.6000;0.7025;1.2916;
-195.3000;0.7017;1.2940;
-195.0000;0.7025;1.2988;
-194.7000;0.7033;1.2988;
-194.4000;0.7033;1.2940;
-194.1000;0.7033;1.2940;
-193.8000;0.7033;1.2892;
-193.5000;0.7041;1.2844;
-193.2000;0.7049;1.2892;
-192.9000;0.7041;1.2892;
-192.6000;0.7041;1.2892;
-192.3000;0.7033;1.2868;
-192.0000;0.6943;1.2676;
-191.7000;0.7041;1.2892;
-191.4000;0.7025;1.2772;
-191.1000;0.7017;1.2796;
-190.8000;0.7025;1.2844;
-190.5000;0.7049;1.2916;
-190.2000;0.7009;1.2892;
-189.9000;0.7017;1.2940;
-189.6000;0.7033;1.2892;
-189.3000;0.7049;1.2868;
-189.0000;0.7041;1.2772;
-188.7000;0.7025;1.2724;
-188.4000;0.7033;1.2844;
-188.1000;0.7041;1.2892;
-187.8000;0.7025;1.2844;
-187.5000;0.7025;1.2892;
-187.2000;0.7033;1.2916;
-186.9000;0.7041;1.2772;
-186.6000;0.7041;1.2796;
-186.3000;0.7009;1.2700;
-186.0000;0.6992;1.2724;
-185.7000;0.7025;1.2724;
-185.4000;0.7025;1.2772;
-185.1000;0.7017;1.2820;
-184.8000;0.7017;1.2820;
-184.5000;0.7033;1.2772;
-184.2000;0.7041;1.2844;
-183.9000;0.7025;1.2868;
-183.6000;0.7033;1.2844;
-183.3000;0.7041;1.2940;
-183.0000;0.7033;1.2916;
-182.7000;0.7041;1.2892;
-182.4000;0.7025;1.2820;
-182.1000;0.7041;1.2844;
-181.8000;0.7041;1.2796;
-181.5000;0.7017;1.2796;
-181.2000;0.7009;1.2748;
-180.9000;0.7041;1.2820;
-180.6000;0.7017;1.2724;
-180.3000;0.7033;1.2676;
-180.0000;0.7017;1.2604;
-179.7000;0.7025;1.2676;
-179.4000;0.7041;1.2700;
-179.1000;0.7049;1.2844;
-178.8000;0.7041;1.2868;
-178.5000;0.7033;1.2748;
-178.2000;0.7049;1.2724;
-177.9000;0.7017;1.2724;
-177.6000;0.7049;1.2820;
-177.3000;0.7041;1.2748;
-177.0000;0.7025;1.2772;
-176.7000;0.7025;1.2724;
-176.4000;0.7033;1.2772;
-176.1000;0.7041;1.2844;
-175.8000;0.7033;1.2796;
-175.5000;0.7033;1.2724;
-175.2000;0.7033;1.2700;
-174.9000;0.7041;1.2676;
-174.6000;0.7017;1.2604;
-174.3000;0.7049;1.2724;
-174.0000;0.7025;1.2724;
-173.7000;0.7041;1.2820;
-173.4000;0.7025;1.2820;
-173.1000;0.7017;1.2820;
-172.8000;0.7033;1.2868;
-172.5000;0.6943;1.2628;
-172.2000;0.7025;1.2820;
-171.9000;0.7025;1.2796;
-171.6000;0.7025;1.2868;
-171.3000;0.7033;1.2868;
-171.0000;0.6976;1.2724;
-170.7000;0.7025;1.2796;
-170.4000;0.7041;1.2820;
-170.1000;0.7033;1.2748;
-169.8000;0.7017;1.2796;
-169.5000;0.7009;1.2796;
-169.2000;0.7017;1.2844;
-168.9000;0.7017;1.2940;
-168.6000;0.6952;1.2796;
-168.3000;0.6903;1.2724;
-168.0000;0.7033;1.2988;
-167.7000;0.7041;1.2988;
-167.4000;0.7017;1.3012;
-167.1000;0.7041;1.3060;
-166.8000;0.7033;1.2964;
-166.5000;0.7000;1.2844;
-166.2000;0.7033;1.2940;
-165.9000;0.7017;1.3012;
-165.6000;0.7057;1.3179;
-165.3000;0.6952;1.2892;
-165.0000;0.7017;1.2964;
-164.7000;0.6919;1.2628;
-164.4000;0.7033;1.2820;
-164.1000;0.7033;1.2868;
-163.8000;0.7041;1.2940;
-163.5000;0.7057;1.3036;
-163.2000;0.7049;1.2916;
-162.9000;0.7041;1.2892;
-162.6000;0.7049;1.2844;
-162.3000;0.7041;1.2868;
-162.0000;0.7009;1.2796;
-161.7000;0.7041;1.2748;
-161.4000;0.7049;1.2820;
-161.1000;0.7025;1.2748;
-160.8000;0.7033;1.2820;
-160.5000;0.7025;1.2868;
-160.2000;0.6992;1.2772;
-159.9000;0.7033;1.2868;
-159.6000;0.6992;1.2700;
-159.3000;0.7025;1.2844;
-159.0000;0.7017;1.2868;
-158.7000;0.7033;1.2892;
-158.4000;0.7106;1.3131;
-158.1000;0.7017;1.2940;
-157.8000;0.7033;1.2940;
-157.5000;0.7066;1.3036;
-157.2000;0.7041;1.2964;
-156.9000;0.6935;1.2628;
-156.6000;0.7033;1.2916;
-156.3000;0.7041;1.3060;
-156.0000;0.7025;1.3060;
-155.7000;0.7017;1.3012;
-155.4000;0.7025;1.2892;
-155.1000;0.7057;1.2916;
-154.8000;0.7049;1.2892;
-154.5000;0.7017;1.2724;
-154.2000;0.7033;1.2820;
-153.9000;0.7009;1.2892;
-153.6000;0.7066;1.3060;
-153.3000;0.7025;1.2892;
-153.0000;0.7025;1.2892;
-152.7000;0.7041;1.2940;
-152.4000;0.7025;1.2964;
-152.1000;0.7033;1.2940;
-151.8000;0.7017;1.2988;
-151.5000;0.6992;1.2868;
-151.2000;0.7033;1.2916;
-150.9000;0.7090;1.3036;
-150.6000;0.6960;1.2652;
-150.3000;0.7025;1.2748;
-150.0000;0.7049;1.2748;
-149.7000;0.7033;1.2724;
-149.4000;0.7066;1.2748;
-149.1000;0.7057;1.2748;
-148.8000;0.7025;1.2724;
-148.5000;0.6968;1.2604;
-148.2000;0.6984;1.2604;
-147.9000;0.6976;1.2508;
-147.6000;0.7000;1.2580;
-147.3000;0.7049;1.2772;
-147.0000;0.7204;1.3275;
-146.7000;0.7000;1.2892;
-146.4000;0.7033;1.2940;
-146.1000;0.7049;1.2940;
-145.8000;0.7074;1.3060;
-145.5000;0.7033;1.2964;
-145.2000;0.7033;1.2964;
-144.9000;0.7033;1.2940;
-144.6000;0.6984;1.2796;
-144.3000;0.7041;1.2940;
-144.0000;0.7033;1.3060;
-143.7000;0.7041;1.3036;
-143.4000;0.7041;1.2844;
-143.1000;0.7041;1.2868;
-142.8000;0.7098;1.2940;
-142.5000;0.7106;1.2820;
-142.2000;0.7057;1.2724;
-141.9000;0.7033;1.2748;
-141.6000;0.7041;1.2892;
-141.3000;0.7025;1.2772;
-141.0000;0.7041;1.2724;
-140.7000;0.7033;1.2676;
-140.4000;0.7017;1.2628;
-140.1000;0.7017;1.2652;
-139.8000;0.7033;1.2676;
-139.5000;0.7033;1.2724;
-139.2000;0.6976;1.2532;
-138.9000;0.7033;1.2796;
-138.6000;0.7033;1.2892;
-138.3000;0.7049;1.2892;
-138.0000;0.7090;1.2988;
-137.7000;0.7049;1.2964;
-137.4000;0.7049;1.2940;
-137.1000;0.7033;1.2892;
-136.8000;0.7114;1.3060;
-136.5000;0.7017;1.2844;
-136.2000;0.7033;1.2868;
-135.9000;0.7074;1.3036;
-135.6000;0.7041;1.2940;
-135.3000;0.7017;1.2892;
-135.0000;0.6992;1.2820;
-134.7000;0.7155;1.3203;
-134.4000;0.7057;1.2940;
-134.1000;0.7041;1.2868;
-133.8000;0.7025;1.2868;
-133.5000;0.7033;1.2892;
-133.2000;0.7025;1.2892;
-132.9000;0.7033;1.2868;
-132.6000;0.7025;1.2796;
-132.3000;0.7041;1.2796;
-132.0000;0.7025;1.2868;
-131.7000;0.7033;1.2940;
-131.4000;0.7025;1.2940;
-131.1000;0.7033;1.2916;
-130.8000;0.7025;1.2844;
-130.5000;0.7033;1.2916;
-130.2000;0.7033;1.2820;
-129.9000;0.7033;1.2724;
-129.6000;0.7025;1.2748;
-129.3000;0.7017;1.2748;
-129.0000;0.7009;1.2796;
-128.7000;0.7017;1.2844;
-128.4000;0.7025;1.2844;
-128.1000;0.7000;1.2652;
-127.8000;0.7041;1.2820;
-127.5000;0.7033;1.2868;
-127.2000;0.7000;1.2772;
-126.9000;0.7041;1.2820;
-126.6000;0.7041;1.2772;
-126.3000;0.7033;1.2820;
-126.0000;0.7033;1.2772;
-125.7000;0.7041;1.2748;
-125.4000;0.7025;1.2628;
-125.1000;0.7017;1.2580;
-124.8000;0.6976;1.2389;
-124.5000;0.7000;1.2508;
-124.2000;0.7009;1.2628;
-123.9000;0.7017;1.2628;
-123.6000;0.7017;1.2724;
-123.3000;0.7009;1.2724;
-123.0000;0.7090;1.2916;
-122.7000;0.7009;1.2844;
-122.4000;0.7025;1.2748;
-122.1000;0.7041;1.2844;
-121.8000;0.7000;1.2772;
-121.5000;0.7041;1.2820;
-121.2000;0.7041;1.2724;
-120.9000;0.7025;1.2748;
-120.6000;0.7017;1.2820;
-120.3000;0.7033;1.2844;
-120.0000;0.7009;1.2820;
-119.7000;0.7066;1.2940;
-119.4000;0.7025;1.2748;
-119.1000;0.7025;1.2796;
-118.8000;0.7017;1.2844;
-118.5000;0.7017;1.2700;
-118.2000;0.7017;1.2748;
-117.9000;0.7000;1.2796;
-117.6000;0.7017;1.2844;
-117.3000;0.7033;1.2844;
-117.0000;0.7041;1.2820;
-116.7000;0.7033;1.2772;
-116.4000;0.7025;1.2772;
-116.1000;0.7033;1.2700;
-115.8000;0.7066;1.2868;
-115.5000;0.7017;1.2772;
-115.2000;0.7041;1.2844;
-114.9000;0.7033;1.2820;
-114.6000;0.7025;1.2772;
-114.3000;0.7017;1.2820;
-114.0000;0.7033;1.2868;
-113.7000;0.7000;1.2772;
-113.4000;0.7033;1.2772;
-113.1000;0.7082;1.2868;
-112.8000;0.7025;1.2676;
-112.5000;0.7033;1.2652;
-112.2000;0.7033;1.2604;
-111.9000;0.7025;1.2484;
-111.6000;0.7033;1.2484;
-111.3000;0.7033;1.2604;
-111.0000;0.7025;1.2604;
-110.7000;0.7017;1.2556;
-110.4000;0.7057;1.2580;
-110.1000;0.7033;1.2508;
-109.8000;0.7066;1.2604;
-109.5000;0.7025;1.2556;
-109.2000;0.7041;1.2700;
-108.9000;0.7033;1.2724;
-108.6000;0.7025;1.2628;
-108.3000;0.7025;1.2604;
-108.0000;0.7025;1.2604;
-107.7000;0.7147;1.2892;
-107.4000;0.7017;1.2556;
-107.1000;0.7041;1.2676;
-106.8000;0.7066;1.2748;
-106.5000;0.7041;1.2700;
-106.2000;0.7009;1.2508;
-105.9000;0.7041;1.2532;
-105.6000;0.7049;1.2628;
-105.3000;0.7041;1.2652;
-105.0000;0.7033;1.2604;
-104.7000;0.6952;1.2365;
-104.4000;0.7090;1.2796;
-104.1000;0.7025;1.2604;
-103.8000;0.7033;1.2676;
-103.5000;0.7017;1.2556;
-103.2000;0.7009;1.2556;
-102.9000;0.7033;1.2604;
-102.6000;0.7025;1.2628;
-102.3000;0.7033;1.2652;
-102.0000;0.7049;1.2652;
-101.7000;0.7090;1.2748;
-101.4000;0.7033;1.2652;
-101.1000;0.7017;1.2604;
-100.8000;0.7009;1.2580;
-100.5000;0.7057;1.2628;
-100.2000;0.7017;1.2556;
-99.9000;0.7033;1.2628;
-99.6000;0.7025;1.2628;
-99.3000;0.7033;1.2556;
-99.0000;0.7025;1.2508;
-98.7000;0.7041;1.2580;
-98.4000;0.7017;1.2484;
-98.1000;0.7025;1.2413;
-97.8000;0.7017;1.2341;
-97.5000;0.7033;1.2437;
-97.2000;0.7017;1.2413;
-96.9000;0.7041;1.2389;
-96.6000;0.7041;1.2461;
-96.3000;0.7033;1.2437;
-96.0000;0.7033;1.2556;
-95.7000;0.6992;1.2508;
-95.4000;0.7009;1.2580;
-95.1000;0.7025;1.2580;
-94.8000;0.7009;1.2580;
-94.5000;0.7025;1.2508;
-94.2000;0.7033;1.2532;
-93.9000;0.7033;1.2556;
-93.6000;0.7033;1.2604;
-93.3000;0.7057;1.2772;
-93.0000;0.7017;1.2604;
-92.7000;0.7009;1.2652;
-92.4000;0.7049;1.2748;
-92.1000;0.7049;1.2772;
-91.8000;0.7041;1.2700;
-91.5000;0.7057;1.2820;
-91.2000;0.6992;1.2724;
-90.9000;0.7049;1.2868;
-90.6000;0.7017;1.2916;
-90.3000;0.7049;1.2892;
-90.0000;0.7041;1.2844;
-89.7000;0.7057;1.2916;
-89.4000;0.7041;1.2796;
-89.1000;0.7041;1.2892;
-88.8000;0.7033;1.2868;
-88.5000;0.7049;1.2964;
-88.2000;0.7057;1.3108;
-87.9000;0.7041;1.3012;
-87.6000;0.7066;1.2988;
-87.3000;0.7041;1.2916;
-87.0000;0.7049;1.3036;
-86.7000;0.6992;1.2940;
-86.4000;0.7025;1.3060;
-86.1000;0.7033;1.3060;
-85.8000;0.7033;1.3036;
-85.5000;0.7025;1.3131;
-85.2000;0.7025;1.3108;
-84.9000;0.7033;1.3084;
-84.6000;0.7017;1.2988;
-84.3000;0.7025;1.2940;
-84.0000;0.7009;1.2916;
-83.7000;0.7017;1.2916;
-83.4000;0.7025;1.2868;
-83.1000;0.7025;1.2748;
-82.8000;0.7025;1.2772;
-82.5000;0.6976;1.2652;
-82.2000;0.7041;1.2700;
-81.9000;0.7025;1.2556;
-81.6000;0.7009;1.2365;
-81.3000;0.7009;1.2508;
-81.0000;0.7033;1.2604;
-80.7000;0.7049;1.2652;
-80.4000;0.6952;1.2269;
-80.1000;0.7033;1.2461;
-79.8000;0.7033;1.2508;
-79.5000;0.6927;1.2197;
-79.2000;0.7009;1.2389;
-78.9000;0.7033;1.2389;
-78.6000;0.7025;1.2365;
-78.3000;0.7033;1.2317;
-78.0000;0.7041;1.2437;
-77.7000;0.7017;1.2437;
-77.4000;0.7025;1.2556;
-77.1000;0.7033;1.2676;
-76.8000;0.7033;1.2652;
-76.5000;0.7025;1.2652;
-76.2000;0.7033;1.2724;
-75.9000;0.7025;1.2820;
-75.6000;0.7033;1.2868;
-75.3000;0.7033;1.2772;
-75.0000;0.7033;1.2700;
-74.7000;0.7025;1.2700;
-74.4000;0.6952;1.2508;
-74.1000;0.7041;1.2772;
-73.8000;0.7009;1.2652;
-73.5000;0.7074;1.2748;
-73.2000;0.7009;1.2508;
-72.9000;0.7000;1.2556;
-72.6000;0.7025;1.2748;
-72.3000;0.7041;1.2772;
-72.0000;0.7041;1.2796;
-71.7000;0.7033;1.2796;
-71.4000;0.7017;1.2724;
-71.1000;0.7025;1.2796;
-70.8000;0.7041;1.2844;
-70.5000;0.7033;1.2724;
-70.2000;0.7041;1.2676;
-69.9000;0.7025;1.2580;
-69.6000;0.7074;1.2628;
-69.3000;0.7033;1.2508;
-69.0000;0.7033;1.2484;
-68.7000;0.7049;1.2532;
-68.4000;0.7041;1.2580;
-68.1000;0.7049;1.2556;
-67.8000;0.7025;1.2604;
-67.5000;0.7017;1.2556;
-67.2000;0.7025;1.2413;
-66.9000;0.7025;1.2461;
-66.6000;0.7017;1.2461;
-66.3000;0.7017;1.2532;
-66.0000;0.7033;1.2556;
-65.7000;0.7041;1.2604;
-65.4000;0.7033;1.2652;
-65.1000;0.7049;1.2700;
-64.8000;0.7049;1.2724;
-64.5000;0.7049;1.2652;
-64.2000;0.7090;1.2628;
-63.9000;0.7025;1.2484;
-63.6000;0.7017;1.2413;
-63.3000;0.7017;1.2413;
-63.0000;0.7025;1.2413;
-62.7000;0.7033;1.2461;
-62.4000;0.7033;1.2437;
-62.1000;0.7025;1.2461;
-61.8000;0.7041;1.2484;
-61.5000;0.7009;1.2437;
-61.2000;0.7049;1.2604;
-60.9000;0.7074;1.2700;
-60.6000;0.7033;1.2604;
-60.3000;0.7025;1.2676;
-60.0000;0.7009;1.2652;
-59.7000;0.7025;1.2724;
-59.4000;0.7025;1.2652;
-59.1000;0.7041;1.2724;
-58.8000;0.7025;1.2700;
-58.5000;0.7041;1.2772;
-58.2000;0.7017;1.2700;
-57.9000;0.7025;1.2748;
-57.6000;0.7098;1.2940;
-57.3000;0.7082;1.2844;
-57.0000;0.7041;1.2796;
-56.7000;0.7033;1.2724;
-56.4000;0.7009;1.2724;
-56.1000;0.7033;1.2724;
-55.8000;0.7041;1.2772;
-55.5000;0.7041;1.2724;
-55.2000;0.7033;1.2628;
-54.9000;0.7090;1.2724;
-54.6000;0.7025;1.2508;
-54.3000;0.7009;1.2484;
-54.0000;0.7041;1.2437;
-53.7000;0.7041;1.2508;
-53.4000;0.7000;1.2413;
-53.1000;0.7025;1.2508;
-52.8000;0.7025;1.2532;
-52.5000;0.7017;1.2461;
-52.2000;0.7009;1.2532;
-51.9000;0.7025;1.2580;
-51.6000;0.7033;1.2532;
-51.3000;0.7041;1.2532;
-51.0000;0.7017;1.2484;
-50.7000;0.7025;1.2652;
-50.4000;0.7017;1.2628;
-50.1000;0.7000;1.2556;
-49.8000;0.7025;1.2700;
-49.5000;0.6992;1.2556;
-49.2000;0.7033;1.2604;
-48.9000;0.7033;1.2532;
-48.6000;0.7017;1.2413;
-48.3000;0.7033;1.2461;
-48.0000;0.7033;1.2556;
-47.7000;0.7033;1.2532;
-47.4000;0.7017;1.2461;
-47.1000;0.6976;1.2341;
-46.8000;0.7090;1.2604;
-46.5000;0.7025;1.2556;
-46.2000;0.7049;1.2652;
-45.9000;0.7025;1.2628;
-45.6000;0.7049;1.2700;
-45.3000;0.6976;1.2532;
-45.0000;0.7033;1.2724;
-44.7000;0.7033;1.2748;
-44.4000;0.7025;1.2676;
-44.1000;0.7131;1.2988;
-43.8000;0.7025;1.2748;
-43.5000;0.7033;1.2796;
-43.2000;0.7025;1.2748;
-42.9000;0.7025;1.2700;
-42.6000;0.6976;1.2508;
-42.3000;0.7025;1.2748;
-42.0000;0.7041;1.2796;
-41.7000;0.7057;1.2772;
-41.4000;0.7025;1.2676;
-41.1000;0.7049;1.2652;
-40.8000;0.7033;1.2604;
-40.5000;0.7049;1.2628;
-40.2000;0.7025;1.2604;
-39.9000;0.6992;1.2461;
-39.6000;0.7025;1.2556;
-39.3000;0.7025;1.2508;
-39.0000;0.7025;1.2508;
-38.7000;0.7041;1.2556;
-38.4000;0.7033;1.2532;
-38.1000;0.7041;1.2532;
-37.8000;0.7025;1.2484;
-37.5000;0.7025;1.2437;
-37.2000;0.7033;1.2461;
-36.9000;0.7025;1.2580;
-36.6000;0.7033;1.2556;
-36.3000;0.7033;1.2508;
-36.0000;0.7009;1.2437;
-35.7000;0.6992;1.2317;
-35.4000;0.7033;1.2532;
-35.1000;0.7025;1.2461;
-34.8000;0.7033;1.2461;
-34.5000;0.7033;1.2508;
-34.2000;0.7033;1.2652;
-33.9000;0.7025;1.2700;
-33.6000;0.7025;1.2700;
-33.3000;0.7017;1.2700;
-33.0000;0.7025;1.2652;
-32.7000;0.7033;1.2724;
-32.4000;0.7009;1.2628;
-32.1000;0.7033;1.2724;
-31.8000;0.7009;1.2676;
-31.5000;0.7041;1.2724;
-31.2000;0.7041;1.2820;
-30.9000;0.7041;1.2820;
-30.6000;0.7025;1.2772;
-30.3000;0.7017;1.2772;
-30.0000;0.6976;1.2748;
-29.7000;0.7017;1.2868;
-29.4000;0.7009;1.2796;
-29.1000;0.7017;1.2772;
-28.8000;0.7041;1.2748;
-28.5000;0.7066;1.2844;
-28.2000;0.7025;1.2772;
-27.9000;0.7025;1.2868;
-27.6000;0.7017;1.2820;
-27.3000;0.7041;1.2820;
-27.0000;0.7041;1.2868;
-26.7000;0.7033;1.2916;
-26.4000;0.7009;1.2796;
-26.1000;0.7033;1.2844;
-25.8000;0.7025;1.2820;
-25.5000;0.7033;1.2820;
-25.2000;0.7033;1.2892;
-24.9000;0.7041;1.2988;
-24.6000;0.7025;1.3036;
-24.3000;0.7033;1.3084;
-24.0000;0.7033;1.3108;
-23.7000;0.7017;1.2940;
-23.4000;0.7017;1.2892;
-23.1000;0.7017;1.2796;
-22.8000;0.7009;1.2892;
-22.5000;0.7033;1.2988;
-22.2000;0.7025;1.2940;
-21.9000;0.7041;1.2988;
-21.6000;0.7025;1.2916;
-21.3000;0.7139;1.3155;
-21.0000;0.7041;1.2964;
-20.7000;0.6992;1.2796;
-20.4000;0.7025;1.2892;
-20.1000;0.7041;1.2916;
-19.8000;0.7033;1.2916;
-19.5000;0.7033;1.2772;
-19.2000;0.7000;1.2628;
-18.9000;0.7041;1.2700;
-18.6000;0.7009;1.2532;
-18.3000;0.6976;1.2413;
-18.0000;0.7017;1.2484;
-17.7000;0.6968;1.2413;
-17.4000;0.7033;1.2556;
-17.1000;0.7033;1.2484;
-16.8000;0.7033;1.2604;
-16.5000;0.7025;1.2748;
-16.2000;0.7000;1.2820;
-15.9000;0.7009;1.2892;
-15.6000;0.7025;1.2796;
-15.3000;0.7025;1.2748;
-15.0000;0.7049;1.2748;
-14.7000;0.7074;1.2844;
-14.4000;0.7025;1.2772;
-14.1000;0.7041;1.2796;
-13.8000;0.7025;1.2796;
-13.5000;0.7025;1.2868;
-13.2000;0.7025;1.2892;
-12.9000;0.7049;1.2916;
-12.6000;0.7009;1.2820;
-12.3000;0.7025;1.2868;
-12.0000;0.7025;1.2892;
-11.7000;0.7025;1.2820;
-11.4000;0.7025;1.2796;
-11.1000;0.7041;1.2796;
-10.8000;0.7123;1.2964;
-10.5000;0.7017;1.2676;
-10.2000;0.7033;1.2700;
-9.9000;0.7041;1.2652;
-9.6000;0.7033;1.2604;
-9.3000;0.7049;1.2676;
-9.0000;0.7000;1.2532;
-8.7000;0.7017;1.2532;
-8.4000;0.7025;1.2604;
-8.1000;0.7033;1.2628;
-7.8000;0.7033;1.2508;
-7.5000;0.7017;1.2461;
-7.2000;0.7017;1.2508;
-6.9000;0.7033;1.2676;
-6.6000;0.7114;1.2868;
-6.3000;0.6992;1.2532;
-6.0000;0.7066;1.2748;
-5.7000;0.7025;1.2748;
-5.4000;0.7033;1.2772;
-5.1000;0.7009;1.2844;
-4.8000;0.7025;1.2796;
-4.5000;0.7033;1.2772;
-4.2000;0.7033;1.2724;
-3.9000;0.7009;1.2652;
-3.6000;0.7131;1.2964;
-3.3000;0.7041;1.2724;
-3.0000;0.7025;1.2580;
-2.7000;0.7057;1.2652;
-2.4000;0.7025;1.2508;
-2.1000;0.7041;1.2556;
-1.8000;0.7025;1.2532;
-1.5000;0.7009;1.2508;
-1.2000;0.7033;1.2556;
-0.9000;0.7017;1.2532;
-0.6000;0.7041;1.2556;
-0.3000;0.7033;1.2508;
0.0000;0.7033;1.2508;
0.3000;0.7326;1.2676;
0.6000;0.7953;1.3299;
0.9000;0.8474;1.3898;
1.2000;0.8824;1.4258;
1.5000;0.9223;1.4833;
1.8000;0.9459;1.5168;
2.1000;0.9654;1.5480;
2.4000;0.9825;1.5791;
2.7000;0.9955;1.6031;
3.0000;1.0077;1.6151;
3.3000;1.0151;1.6175;
3.6000;1.0256;1.6247;
3.9000;1.0354;1.6366;
4.2000;1.0403;1.6462;
4.5000;1.0484;1.6510;
4.8000;1.0525;1.6534;
5.1000;1.0598;1.6630;
5.4000;1.0655;1.6750;
5.7000;1.0647;1.6630;
6.0000;1.0745;1.6774;
6.3000;1.0802;1.6798;
6.6000;1.0867;1.6846;
6.9000;1.0924;1.6798;
7.2000;1.0948;1.6750;
7.5000;1.0989;1.6894;
7.8000;1.1022;1.6870;
8.1000;1.1079;1.6870;
8.4000;1.1144;1.6894;
8.7000;1.1233;1.7037;
9.0000;1.1233;1.7061;
9.3000;1.1282;1.7181;
9.6000;1.1323;1.7109;
9.9000;1.1339;1.6989;
10.2000;1.1429;1.7061;
10.5000;1.1445;1.6942;
10.8000;1.1469;1.6798;
11.1000;1.1412;1.6582;
11.4000;1.1477;1.6630;
11.7000;1.1518;1.6558;
12.0000;1.1624;1.6654;
12.3000;1.1746;1.6870;
12.6000;1.1673;1.6726;
12.9000;1.1730;1.6822;
13.2000;1.1762;1.6774;
13.5000;1.1803;1.6750;
13.8000;1.1819;1.6678;
14.1000;1.1876;1.6822;
14.4000;1.1909;1.6822;
14.7000;1.1917;1.6774;
15.0000;1.1966;1.6750;
15.3000;1.1998;1.6774;
15.6000;1.2023;1.6822;
15.9000;1.2039;1.6870;
16.2000;1.2072;1.6918;
16.5000;1.2096;1.6965;
16.8000;1.2129;1.6965;
17.1000;1.2177;1.6918;
17.4000;1.2177;1.6774;
17.7000;1.2194;1.6726;
18.0000;1.2226;1.6726;
18.3000;1.2251;1.6678;
18.6000;1.2308;1.6726;
18.9000;1.2300;1.6678;
19.2000;1.2324;1.6702;
19.5000;1.2381;1.6702;
19.8000;1.2389;1.6750;
20.1000;1.2405;1.6822;
20.4000;1.2414;1.6846;
20.7000;1.2438;1.6894;
21.0000;1.2470;1.6846;
21.3000;1.2479;1.6846;
21.6000;1.2470;1.6774;
21.9000;1.2479;1.6606;
22.2000;1.2527;1.6534;
22.5000;1.2527;1.6390;
22.8000;1.2576;1.6486;
23.1000;1.2576;1.6630;
23.4000;1.2609;1.6702;
23.7000;1.2601;1.6678;
24.0000;1.2650;1.6798;
24.3000;1.2576;1.6630;
24.6000;1.2650;1.6774;
24.9000;1.2641;1.6726;
25.2000;1.2690;1.6798;
25.5000;1.2698;1.6702;
25.8000;1.2723;1.6702;
26.1000;1.2698;1.6678;
26.4000;1.2747;1.6750;
26.7000;1.2780;1.6726;
27.0000;1.2755;1.6678;
27.3000;1.2723;1.6630;
27.6000;1.2772;1.6726;
27.9000;1.2723;1.6582;
28.2000;1.2837;1.6774;
28.5000;1.2812;1.6630;
28.8000;1.2812;1.6654;
29.1000;1.2796;1.6678;
29.4000;1.2853;1.6702;
29.7000;1.2821;1.6582;
30.0000;1.2829;1.6558;
30.3000;1.2902;1.6606;
30.6000;1.2869;1.6606;
30.9000;1.2861;1.6654;
31.2000;1.2894;1.6630;
31.5000;1.2886;1.6630;
31.8000;1.2910;1.6702;
32.1000;1.2918;1.6678;
32.4000;1.2926;1.6726;
32.7000;1.2910;1.6750;
33.0000;1.2918;1.6750;
33.3000;1.2975;1.6894;
33.6000;1.2918;1.6630;
33.9000;1.2853;1.6534;
34.2000;1.2951;1.6702;
34.5000;1.2967;1.6726;
34.8000;1.3048;1.6918;
35.1000;1.2951;1.6678;
35.4000;1.2975;1.6606;
35.7000;1.3024;1.6654;
36.0000;1.3016;1.6558;
36.3000;1.3024;1.6558;
36.6000;1.3016;1.6510;
36.9000;1.3024;1.6486;
37.2000;1.3032;1.6558;
37.5000;1.3040;1.6582;
37.8000;1.3024;1.6534;
38.1000;1.3040;1.6582;
38.4000;1.3040;1.6534;
38.7000;1.3048;1.6606;
39.0000;1.3065;1.6750;
39.3000;1.3048;1.6678;
39.6000;1.3057;1.6606;
39.9000;1.3073;1.6654;
40.2000;1.3081;1.6630;
40.5000;1.3073;1.6606;
40.8000;1.3081;1.6630;
41.1000;1.3073;1.6582;
41.4000;1.3073;1.6582;
41.7000;1.3089;1.6630;
42.0000;1.3089;1.6582;
42.3000;1.3089;1.6486;
42.6000;1.3081;1.6510;
42.9000;1.3097;1.6558;
43.2000;1.3081;1.6510;
43.5000;1.3114;1.6630;
43.8000;1.3097;1.6582;
44.1000;1.3114;1.6630;
44.4000;1.3105;1.6606;
44.7000;1.3114;1.6630;
45.0000;1.3138;1.6558;
45.3000;1.3114;1.6534;
45.6000;1.3146;1.6558;
45.9000;1.3138;1.6486;
46.2000;1.3146;1.6534;
46.5000;1.3130;1.6510;
46.8000;1.3179;1.6606;
47.1000;1.3154;1.6558;
47.4000;1.3154;1.6558;
47.7000;1.3162;1.6582;
48.0000;1.3171;1.6510;
48.3000;1.3162;1.6438;
48.6000;1.3187;1.6486;
48.9000;1.3179;1.6534;
49.2000;1.3171;1.6486;
49.5000;1.3179;1.6342;
49.8000;1.3268;1.6606;
50.1000;1.3187;1.6462;
50.4000;1.3187;1.6534;
50.7000;1.3146;1.6366;
51.0000;1.3179;1.6390;
51.3000;1.3179;1.6414;
51.6000;1.3179;1.6390;
51.9000;1.3187;1.6390;
52.2000;1.3179;1.6438;
52.5000;1.3195;1.6582;
52.8000;1.3195;1.6606;
53.1000;1.3162;1.6486;
53.4000;1.3195;1.6486;
53.7000;1.3211;1.6462;
54.0000;1.3203;1.6534;
54.3000;1.3219;1.6534;
54.6000;1.3211;1.6510;
54.9000;1.3219;1.6510;
55.2000;1.3228;1.6510;
55.5000;1.3236;1.6582;
55.8000;1.3219;1.6534;
56.1000;1.3228;1.6534;
56.4000;1.3219;1.6462;
56.7000;1.3252;1.6414;
57.0000;1.3211;1.6390;
57.3000;1.3219;1.6486;
57.6000;1.3260;1.6558;
57.9000;1.3228;1.6486;
58.2000;1.3244;1.6510;
58.5000;1.3276;1.6558;
58.8000;1.3244;1.6438;
59.1000;1.3260;1.6510;
59.4000;1.3268;1.6462;
59.7000;1.3276;1.6438;
60.0000;1.3260;1.6366;
60.3000;1.3260;1.6366;
60.6000;1.3260;1.6414;
60.9000;1.3268;1.6390;
61.2000;1.3268;1.6342;
61.5000;1.3260;1.6390;
61.8000;1.3276;1.6366;
62.1000;1.3276;1.6271;
62.4000;1.3195;1.6055;
62.7000;1.3276;1.6199;
63.0000;1.3260;1.6127;
63.3000;1.3244;1.6079;
63.6000;1.3244;1.6055;
63.9000;1.3252;1.6103;
64.2000;1.3284;1.6151;
64.5000;1.3268;1.6175;
64.8000;1.3260;1.6247;
65.1000;1.3260;1.6342;
65.4000;1.3276;1.6342;
65.7000;1.3301;1.6342;
66.0000;1.3284;1.6271;
66.3000;1.3276;1.6318;
66.6000;1.3358;1.6534;
66.9000;1.3293;1.6462;
67.2000;1.3276;1.6390;
67.5000;1.3276;1.6366;
67.8000;1.3284;1.6318;
68.1000;1.3333;1.6510;
68.4000;1.3317;1.6414;
68.7000;1.3293;1.6342;
69.0000;1.3293;1.6390;
69.3000;1.3284;1.6342;
69.6000;1.3293;1.6271;
69.9000;1.3325;1.6390;
70.2000;1.3293;1.6366;
70.5000;1.3309;1.6414;
70.8000;1.3268;1.6318;
71.1000;1.3309;1.6366;
71.4000;1.3309;1.6295;
71.7000;1.3301;1.6223;
72.0000;1.3366;1.6271;
72.3000;1.3317;1.6151;
72.6000;1.3333;1.6247;
72.9000;1.3341;1.6271;
73.2000;1.3341;1.6342;
73.5000;1.3309;1.6318;
73.8000;1.3284;1.6271;
74.1000;1.3301;1.6247;
74.4000;1.3284;1.6103;
74.7000;1.3317;1.6175;
75.0000;1.3325;1.6223;
75.3000;1.3309;1.6199;
75.6000;1.3301;1.6271;
75.9000;1.3374;1.6510;
76.2000;1.3309;1.6318;
76.5000;1.3333;1.6271;
76.8000;1.3325;1.6342;
77.1000;1.3407;1.6534;
77.4000;1.3317;1.6366;
77.7000;1.3301;1.6366;
78.0000;1.3252;1.6247;
78.3000;1.3325;1.6390;
78.6000;1.3333;1.6390;
78.9000;1.3317;1.6342;
79.2000;1.3333;1.6366;
79.5000;1.3333;1.6414;
79.8000;1.3341;1.6462;
80.1000;1.3333;1.6366;
80.4000;1.3260;1.6199;
80.7000;1.3333;1.6342;
81.0000;1.3382;1.6438;
81.3000;1.3407;1.6438;
81.6000;1.3366;1.6342;
81.9000;1.3350;1.6247;
82.2000;1.3390;1.6295;
82.5000;1.3350;1.6103;
82.8000;1.3341;1.6007;
83.1000;1.3325;1.6031;
83.4000;1.3341;1.6103;
83.7000;1.3341;1.6151;
84.0000;1.3341;1.6151;
84.3000;1.3350;1.6199;
84.6000;1.3341;1.6199;
84.9000;1.3333;1.6247;
85.2000;1.3317;1.6247;
85.5000;1.3350;1.6271;
85.8000;1.3390;1.6342;
86.1000;1.3382;1.6295;
86.4000;1.3390;1.6366;
86.7000;1.3358;1.6366;
87.0000;1.3374;1.6342;
87.3000;1.3350;1.6247;
87.6000;1.3415;1.6295;
87.9000;1.3358;1.6247;
88.2000;1.3350;1.6103;
88.5000;1.3350;1.6103;
88.8000;1.3341;1.6079;
89.1000;1.3252;1.5959;
89.4000;1.3341;1.6199;
89.7000;1.3366;1.6223;
90.0000;1.3341;1.6175;
90.3000;1.3366;1.6271;
90.6000;1.3350;1.6175;
90.9000;1.3341;1.6199;
91.2000;1.3366;1.6271;
91.5000;1.3374;1.6223;
91.8000;1.3382;1.6175;
92.1000;1.3390;1.6247;
92.4000;1.3390;1.6199;
92.7000;1.3358;1.6079;
93.0000;1.3374;1.6079;
93.3000;1.3374;1.6127;
93.6000;1.3390;1.6247;
93.9000;1.3366;1.6295;
94.2000;1.3407;1.6318;
94.5000;1.3366;1.6103;
94.8000;1.3382;1.6103;
95.1000;1.3374;1.6103;
95.4000;1.3374;1.6079;
95.7000;1.3374;1.6127;
96.0000;1.3390;1.6127;
96.3000;1.3390;1.6223;
96.6000;1.3374;1.6199;
96.9000;1.3374;1.6199;
97.2000;1.3382;1.6271;
97.5000;1.3374;1.6127;
97.8000;1.3382;1.6007;
98.1000;1.3350;1.5815;
98.4000;1.3382;1.5839;
98.7000;1.3382;1.5935;
99.0000;1.3374;1.5983;
99.3000;1.3382;1.6007;
99.6000;1.3390;1.6031;
99.9000;1.3390;1.6175;
100.2000;1.3398;1.6175;
100.5000;1.3374;1.6103;
100.8000;1.3374;1.6223;
101.1000;1.3309;1.6199;
101.4000;1.3382;1.6366;
101.7000;1.3374;1.6295;
102.0000;1.3398;1.6295;
102.3000;1.3350;1.6127;
102.6000;1.3390;1.6175;
102.9000;1.3390;1.6223;
103.2000;1.3464;1.6342;
103.5000;1.3358;1.6079;
103.8000;1.3390;1.6055;
104.1000;1.3423;1.6199;
104.4000;1.3390;1.6151;
104.7000;1.3415;1.6223;
105.0000;1.3398;1.6199;
105.3000;1.3341;1.6103;
105.6000;1.3415;1.6318;
105.9000;1.3390;1.6199;
106.2000;1.3415;1.6199;
106.5000;1.3415;1.6127;
106.8000;1.3382;1.6007;
107.1000;1.3390;1.5935;
107.4000;1.3407;1.5911;
107.7000;1.3350;1.5767;
108.0000;1.3407;1.5959;
108.3000;1.3398;1.5815;
108.6000;1.3455;1.6031;
108.9000;1.3398;1.5983;
109.2000;1.3398;1.6031;
109.5000;1.3415;1.6127;
109.8000;1.3423;1.6223;
110.1000;1.3415;1.6271;
110.4000;1.3398;1.6151;
110.7000;1.3415;1.6175;
111.0000;1.3390;1.6031;
111.3000;1.3407;1.6103;
111.6000;1.3407;1.6055;
111.9000;1.3415;1.6079;
112.2000;1.3390;1.5983;
112.5000;1.3415;1.6151;
112.8000;1.3415;1.6199;
113.1000;1.3488;1.6318;
113.4000;1.3472;1.6295;
113.7000;1.3415;1.6151;
114.0000;1.3415;1.6127;
114.3000;1.3415;1.6055;
114.6000;1.3407;1.5935;
114.9000;1.3407;1.5983;
115.2000;1.3415;1.6031;
115.5000;1.3407;1.6055;
115.8000;1.3423;1.5983;
116.1000;1.3415;1.5959;
116.4000;1.3431;1.6031;
116.7000;1.3439;1.6079;
117.0000;1.3423;1.5959;
117.3000;1.3407;1.5839;
117.6000;1.3431;1.5887;
117.9000;1.3423;1.5863;
118.2000;1.3407;1.5839;
118.5000;1.3407;1.5815;
118.8000;1.3341;1.5600;
119.1000;1.3423;1.5791;
119.4000;1.3423;1.5839;
119.7000;1.3472;1.5887;
120.0000;1.3407;1.5743;
120.3000;1.3390;1.5839;
120.6000;1.3447;1.6007;
120.9000;1.3423;1.5959;
121.2000;1.3447;1.6055;
121.5000;1.3423;1.5935;
121.8000;1.3423;1.5935;
122.1000;1.3415;1.5935;
122.4000;1.3382;1.5863;
122.7000;1.3439;1.5935;
123.0000;1.3431;1.5887;
123.3000;1.3431;1.6007;
123.6000;1.3398;1.6031;
123.9000;1.3415;1.6103;
124.2000;1.3472;1.6175;
124.5000;1.3415;1.6031;
124.8000;1.3455;1.6199;
125.1000;1.3415;1.5911;
125.4000;1.3431;1.5911;
125.7000;1.3423;1.5887;
126.0000;1.3431;1.5815;
126.3000;1.3431;1.5767;
126.6000;1.3407;1.5743;
126.9000;1.3431;1.5815;
127.2000;1.3504;1.5959;
127.5000;1.3480;1.5959;
127.8000;1.3447;1.5791;
128.1000;1.3447;1.5767;
128.4000;1.3423;1.5743;
128.7000;1.3374;1.5743;
129.0000;1.3431;1.5887;
129.3000;1.3415;1.5767;
129.6000;1.3431;1.5815;
129.9000;1.3423;1.5743;
130.2000;1.3431;1.5719;
130.5000;1.3407;1.5624;
130.8000;1.3423;1.5648;
131.1000;1.3423;1.5695;
131.4000;1.3439;1.5695;
131.7000;1.3553;1.5983;
132.0000;1.3464;1.5767;
132.3000;1.3431;1.5743;
132.6000;1.3455;1.5719;
132.9000;1.3439;1.5743;
133.2000;1.3439;1.5767;
133.5000;1.3423;1.5791;
133.8000;1.3423;1.5695;
134.1000;1.3423;1.5719;
134.4000;1.3407;1.5767;
134.7000;1.3423;1.5719;
135.0000;1.3431;1.5767;
135.3000;1.3439;1.5815;
135.6000;1.3415;1.5743;
135.9000;1.3415;1.5695;
136.2000;1.3431;1.5743;
136.5000;1.3431;1.5743;
136.8000;1.3447;1.5743;
137.1000;1.3455;1.5719;
137.4000;1.3415;1.5695;
137.7000;1.3455;1.5911;
138.0000;1.3431;1.5959;
138.3000;1.3439;1.5959;
138.6000;1.3366;1.5695;
138.9000;1.3398;1.5695;
139.2000;1.3423;1.5719;
139.5000;1.3439;1.5743;
139.8000;1.3431;1.5648;
140.1000;1.3431;1.5719;
140.4000;1.3439;1.5815;
140.7000;1.3407;1.5743;
141.0000;1.3455;1.5911;
141.3000;1.3398;1.5791;
141.6000;1.3455;1.5935;
141.9000;1.3455;1.5983;
142.2000;1.3423;1.5911;
142.5000;1.3455;1.6007;
142.8000;1.3366;1.5767;
143.1000;1.3455;1.5959;
143.4000;1.3447;1.5983;
143.7000;1.3480;1.6079;
144.0000;1.3431;1.5935;
144.3000;1.3431;1.5983;
144.6000;1.3472;1.6103;
144.9000;1.3439;1.6031;
145.2000;1.3415;1.5839;
145.5000;1.3447;1.5887;
145.8000;1.3439;1.5863;
146.1000;1.3439;1.5935;
146.4000;1.3431;1.5911;
146.7000;1.3447;1.5887;
147.0000;1.3447;1.5791;
147.3000;1.3447;1.5839;
147.6000;1.3447;1.5911;
147.9000;1.3439;1.5911;
148.2000;1.3455;1.6031;
148.5000;1.3439;1.6079;
148.8000;1.3439;1.6007;
149.1000;1.3439;1.5959;
149.4000;1.3439;1.5911;
149.7000;1.3447;1.5767;
150.0000;1.3439;1.5791;
150.3000;1.3439;1.5767;
150.6000;1.3423;1.5791;
150.9000;1.3439;1.5839;
151.2000;1.3447;1.5767;
151.5000;1.3374;1.5528;
151.8000;1.3439;1.5695;
152.1000;1.3464;1.5719;
152.4000;1.3455;1.5791;
152.7000;1.3382;1.5719;
153.0000;1.3455;1.5887;
153.3000;1.3455;1.5887;
153.6000;1.3512;1.5983;
153.9000;1.3455;1.5911;
154.2000;1.3439;1.5839;
154.5000;1.3390;1.5719;
154.8000;1.3464;1.5839;
155.1000;1.3439;1.5767;
155.4000;1.3431;1.5743;
155.7000;1.3472;1.5959;
156.0000;1.3447;1.5959;
156.3000;1.3439;1.6007;
156.6000;1.3455;1.6079;
156.9000;1.3439;1.6079;
157.2000;1.3455;1.6055;
157.5000;1.3545;1.6151;
157.8000;1.3472;1.6007;
158.1000;1.3447;1.5983;
158.4000;1.3464;1.5983;
158.7000;1.3464;1.6007;
159.0000;1.3447;1.5935;
159.3000;1.3447;1.5863;
159.6000;1.3447;1.5839;
159.9000;1.3472;1.5959;
160.2000;1.3439;1.5959;
160.5000;1.3455;1.5959;
160.8000;1.3455;1.6007;
161.1000;1.3447;1.6007;
161.4000;1.3455;1.5959;
161.7000;1.3464;1.5887;
162.0000;1.3455;1.5839;
162.3000;1.3431;1.5815;
162.6000;1.3504;1.6031;
162.9000;1.3423;1.5863;
163.2000;1.3472;1.5935;
163.5000;1.3455;1.5911;
163.8000;1.3455;1.5791;
164.1000;1.3415;1.5695;
164.4000;1.3545;1.5983;
164.7000;1.3455;1.5743;
165.0000;1.3464;1.5839;
165.3000;1.3504;1.5935;
165.6000;1.3504;1.5911;
165.9000;1.3464;1.5863;
166.2000;1.3439;1.5791;
166.5000;1.3455;1.5767;
166.8000;1.3561;1.5959;
167.1000;1.3455;1.5791;
167.4000;1.3439;1.5839;
167.7000;1.3423;1.5767;
168.0000;1.3455;1.5791;
168.3000;1.3464;1.5791;
168.6000;1.3537;1.5983;
168.9000;1.3455;1.5839;
169.2000;1.3455;1.5911;
169.5000;1.3455;1.5935;
169.8000;1.3521;1.6031;
170.1000;1.3455;1.5839;
170.4000;1.3455;1.5887;
170.7000;1.3447;1.5887;
171.0000;1.3488;1.6007;
171.3000;1.3464;1.6031;
171.6000;1.3464;1.6127;
171.9000;1.3464;1.6031;
172.2000;1.3439;1.5959;
172.5000;1.3464;1.5983;
172.8000;1.3455;1.5983;
173.1000;1.3455;1.5935;
173.4000;1.3480;1.6031;
173.7000;1.3472;1.5935;
174.0000;1.3480;1.6007;
174.3000;1.3447;1.5959;
174.6000;1.3455;1.6007;
174.9000;1.3447;1.5935;
175.2000;1.3439;1.6055;
175.5000;1.3488;1.6103;
175.8000;1.3455;1.5983;
176.1000;1.3447;1.5887;
176.4000;1.3439;1.5791;
176.7000;1.3431;1.5791;
177.0000;1.3472;1.5887;
177.3000;1.3472;1.5959;
177.6000;1.3521;1.6007;
177.9000;1.3464;1.5791;
178.2000;1.3472;1.5815;
178.5000;1.3455;1.5863;
178.8000;1.3464;1.5959;
179.1000;1.3447;1.6007;
179.4000;1.3464;1.6031;
179.7000;1.3431;1.5983;
180.0000;1.3455;1.5959;
180.3000;1.3472;1.6007;
180.6000;1.3455;1.5911;
180.9000;1.3439;1.5815;
181.2000;1.3480;1.5863;
181.5000;1.3447;1.5815;
181.8000;1.3447;1.5839;
182.1000;1.3504;1.5959;
182.4000;1.3447;1.5839;
182.7000;1.3464;1.5911;
183.0000;1.3472;1.6007;
183.3000;1.3447;1.6079;
183.6000;1.3455;1.6175;
183.9000;1.3455;1.6151;
184.2000;1.3447;1.6079;
184.5000;1.3455;1.6127;
184.8000;1.3447;1.6079;
185.1000;1.3431;1.6103;
185.4000;1.3447;1.6079;
185.7000;1.3423;1.5983;
186.0000;1.3390;1.5887;
186.3000;1.3455;1.5959;
186.6000;1.3472;1.5935;
186.9000;1.3480;1.5911;
187.2000;1.3464;1.5863;
187.5000;1.3464;1.5911;
187.8000;1.3455;1.5839;
188.1000;1.3480;1.5911;
188.4000;1.3464;1.5959;
188.7000;1.3480;1.6031;
189.0000;1.3464;1.5959;
189.3000;1.3545;1.6151;
189.6000;1.3480;1.5959;
189.9000;1.3545;1.6247;
190.2000;1.3439;1.5983;
190.5000;1.3488;1.6007;
190.8000;1.3415;1.5887;
191.1000;1.3455;1.5959;
191.4000;1.3472;1.5983;
191.7000;1.3464;1.6007;
192.0000;1.3455;1.6031;
192.3000;1.3464;1.6079;
192.6000;1.3439;1.5911;
192.9000;1.3423;1.5767;
193.2000;1.3464;1.5815;
193.5000;1.3488;1.5863;
193.8000;1.3455;1.5791;
194.1000;1.3464;1.5935;
194.4000;1.3496;1.5911;
194.7000;1.3472;1.5863;
195.0000;1.3464;1.5863;
195.3000;1.3455;1.5887;
195.6000;1.3455;1.5959;
195.9000;1.3455;1.5959;
196.2000;1.3455;1.5959;
196.5000;1.3431;1.5911;
196.8000;1.3472;1.6031;
197.1000;1.3455;1.6079;
197.4000;1.3447;1.6103;
197.7000;1.3464;1.6079;
198.0000;1.3464;1.6007;
198.3000;1.3455;1.6055;
198.6000;1.3472;1.6007;
198.9000;1.3464;1.5983;
199.2000;1.3480;1.5959;
199.5000;1.3464;1.5863;
199.8000;1.3455;1.5887;
200.1000;1.3480;1.6007;
200.4000;1.3488;1.6055;
200.7000;1.3455;1.5935;
201.0000;1.3455;1.5959;
201.3000;1.3455;1.5911;
201.6000;1.3480;1.5887;
201.9000;1.3488;1.5935;
202.2000;1.3488;1.5911;
202.5000;1.3496;1.5911;
202.8000;1.3447;1.5839;
203.1000;1.3480;1.5863;
203.4000;1.3488;1.5863;
203.7000;1.3464;1.5839;
204.0000;1.3480;1.5911;
204.3000;1.3407;1.5815;
204.6000;1.3521;1.6127;
204.9000;1.3455;1.5887;
205.2000;1.3439;1.5839;
205.5000;1.3464;1.5983;
205.8000;1.3464;1.6031;
206.1000;1.3431;1.5887;
206.4000;1.3464;1.6103;
206.7000;1.3464;1.6103;
207.0000;1.3464;1.6127;
207.3000;1.3472;1.6055;
207.6000;1.3472;1.6103;
207.9000;1.3407;1.5863;
208.2000;1.3455;1.5959;
208.5000;1.3472;1.5935;
208.8000;1.3464;1.6007;
209.1000;1.3472;1.6031;
209.4000;1.3472;1.6055;
209.7000;1.3480;1.6007;
210.0000;1.3521;1.6127;
210.3000;1.3464;1.6079;
210.6000;1.3464;1.5983;
210.9000;1.3464;1.6055;
211.2000;1.3472;1.6055;
211.5000;1.3455;1.6055;
211.8000;1.3455;1.6103;
212.1000;1.3464;1.6103;
212.4000;1.3488;1.6295;
212.7000;1.3480;1.6247;
213.0000;1.3455;1.6103;
213.3000;1.3480;1.6175;
213.6000;1.3472;1.6175;
213.9000;1.3472;1.6103;
214.2000;1.3439;1.6055;
214.5000;1.3480;1.6151;
214.8000;1.3480;1.6007;
215.1000;1.3472;1.5959;
215.4000;1.3455;1.5935;
215.7000;1.3472;1.6151;
216.0000;1.3480;1.6199;
216.3000;1.3472;1.6295;
216.6000;1.3455;1.6271;
216.9000;1.3464;1.6271;
217.2000;1.3455;1.6175;
217.5000;1.3480;1.6175;
217.8000;1.3455;1.6103;
218.1000;1.3358;1.5839;
218.4000;1.3472;1.5959;
218.7000;1.3472;1.5959;
219.0000;1.3447;1.5983;
219.3000;1.3455;1.6007;
219.6000;1.3472;1.6175;
219.9000;1.3447;1.6127;
220.2000;1.3464;1.6103;
220.5000;1.3529;1.6175;
220.8000;1.3464;1.5911;
221.1000;1.3472;1.5887;
221.4000;1.3472;1.5863;
221.7000;1.3464;1.5935;
222.0000;1.3504;1.6031;
222.3000;1.3464;1.6031;
222.6000;1.3423;1.5911;
222.9000;1.3382;1.5887;
223.2000;1.3455;1.6007;
223.5000;1.3496;1.5983;
223.8000;1.3496;1.6055;
224.1000;1.3480;1.6007;
224.4000;1.3488;1.5911;
224.7000;1.3496;1.5791;
225.0000;1.3488;1.5815;
225.3000;1.3472;1.5815;
225.6000;1.3464;1.5815;
225.9000;1.3464;1.5815;
226.2000;1.3496;1.5887;
226.5000;1.3480;1.5887;
226.8000;1.3480;1.5935;
227.1000;1.3529;1.6223;
227.4000;1.3488;1.6103;
227.7000;1.3472;1.5983;
228.0000;1.3472;1.5959;
228.3000;1.3496;1.5935;
228.6000;1.3496;1.6031;
228.9000;1.3480;1.6055;
229.2000;1.3488;1.6031;
229.5000;1.3488;1.6007;
229.8000;1.3472;1.6031;
230.1000;1.3464;1.6103;
230.4000;1.3358;1.5887;
230.7000;1.3464;1.6079;
231.0000;1.3455;1.6103;
231.3000;1.3488;1.6127;
231.6000;1.3480;1.6055;
231.9000;1.3447;1.5959;
232.2000;1.3480;1.6055;
232.5000;1.3472;1.6007;
232.8000;1.3455;1.5935;
233.1000;1.3537;1.6031;
233.4000;1.3472;1.5983;
233.7000;1.3464;1.6103;
234.0000;1.3472;1.6103;
234.3000;1.3464;1.6031;
234.6000;1.3480;1.5983;
234.9000;1.3472;1.6031;
235.2000;1.3455;1.6079;
235.5000;1.3464;1.6031;
235.8000;1.3464;1.6007;
236.1000;1.3472;1.6079;
236.4000;1.3464;1.5959;
236.7000;1.3472;1.5887;
237.0000;1.3504;1.5983;
237.3000;1.3504;1.5935;
237.6000;1.3472;1.5791;
237.9000;1.3545;1.5935;
238.2000;1.3512;1.5983;
238.5000;1.3488;1.5863;
238.8000;1.3496;1.5959;
239.1000;1.3472;1.5911;
239.4000;1.3488;1.5983;
239.7000;1.3472;1.6031;
240.0000;1.3496;1.6151;
240.3000;1.3504;1.6175;
240.6000;1.3504;1.6127;
240.9000;1.3480;1.6151;
241.2000;1.3480;1.6151;
241.5000;1.3407;1.5839;
241.8000;1.3480;1.5959;
242.1000;1.3480;1.5959;
242.4000;1.3480;1.6055;
242.7000;1.3472;1.6079;
243.0000;1.3464;1.6079;
243.3000;1.3488;1.6055;
243.6000;1.3480;1.5959;
243.9000;1.3472;1.5911;
244.2000;1.3464;1.5935;
244.5000;1.3439;1.5863;
244.8000;1.3464;1.5839;
245.1000;1.3488;1.5815;
245.4000;1.3472;1.5863;
245.7000;1.3464;1.5767;
246.0000;1.3464;1.5767;
246.3000;1.3480;1.5815;
246.6000;1.3480;1.5839;
246.9000;1.3472;1.5839;
247.2000;1.3488;1.5767;
247.5000;1.3455;1.5624;
247.8000;1.3472;1.5767;
248.1000;1.3472;1.5791;
248.4000;1.3464;1.5791;
248.7000;1.3488;1.5887;
249.0000;1.3488;1.5911;
249.3000;1.3472;1.5815;
249.6000;1.3504;1.6007;
249.9000;1.3464;1.6031;
250.2000;1.3488;1.6127;
250.5000;1.3455;1.6103;
250.8000;1.3472;1.6151;
251.1000;1.3521;1.6247;
251.4000;1.3545;1.6318;
251.7000;1.3472;1.6127;
252.0000;1.3464;1.5983;
252.3000;1.3455;1.5863;
252.6000;1.3398;1.5743;
252.9000;1.3488;1.5791;
253.2000;1.3553;1.5863;
253.5000;1.3472;1.5719;
253.8000;1.3480;1.5815;
254.1000;1.3496;1.5839;
254.4000;1.3439;1.5839;
254.7000;1.3464;1.5911;
255.0000;1.3512;1.6031;
255.3000;1.3472;1.6031;
255.6000;1.3480;1.5959;
255.9000;1.3480;1.5863;
256.2000;1.3472;1.5767;
256.5000;1.3472;1.5911;
256.8000;1.3488;1.6031;
257.1000;1.3464;1.6103;
257.4000;1.3496;1.6055;
257.7000;1.3439;1.5887;
258.0000;1.3496;1.5983;
258.3000;1.3488;1.5887;
258.6000;1.3455;1.5839;
258.9000;1.3464;1.5887;
259.2000;1.3521;1.5959;
259.5000;1.3496;1.6007;
259.8000;1.3480;1.5935;
260.1000;1.3472;1.5863;
260.4000;1.3455;1.5719;
260.7000;1.3439;1.5671;
261.0000;1.3398;1.5600;
261.3000;1.3529;1.5911;
261.6000;1.3455;1.5791;
261.9000;1.3480;1.5791;
262.2000;1.3439;1.5767;
262.5000;1.3447;1.5791;
262.8000;1.3407;1.5671;
263.1000;1.3464;1.5935;
263.4000;1.3464;1.5959;
263.7000;1.3472;1.5983;
264.0000;1.3464;1.6007;
264.3000;1.3472;1.5959;
264.6000;1.3472;1.5983;
264.9000;1.3537;1.6151;
265.2000;1.3447;1.5983;
265.5000;1.3455;1.5911;
265.8000;1.3480;1.5959;
266.1000;1.3464;1.5887;
266.4000;1.3455;1.5887;
266.7000;1.3464;1.5959;
267.0000;1.3447;1.5887;
267.3000;1.3431;1.5839;
267.6000;1.3472;1.5863;
267.9000;1.3464;1.5791;
268.2000;1.3472;1.5815;
268.5000;1.3480;1.5791;
268.8000;1.3472;1.5839;
269.1000;1.3472;1.5935;
269.4000;1.3472;1.6007;
269.7000;1.3472;1.6079;
270.0000;1.3455;1.6031;
270.3000;1.3472;1.6127;
270.6000;1.3496;1.6127;
270.9000;1.3521;1.6103;
271.2000;1.3480;1.5959;
271.5000;1.3472;1.5983;
271.8000;1.3480;1.6055;
272.1000;1.3447;1.5911;
272.4000;1.3455;1.5911;
272.7000;1.3472;1.5959;
273.0000;1.3472;1.6079;
273.3000;1.3561;1.6318;
273.6000;1.3472;1.6103;
273.9000;1.3464;1.6031;
274.2000;1.3472;1.6007;
274.5000;1.3480;1.5959;
274.8000;1.3472;1.5839;
275.1000;1.3415;1.5791;
275.4000;1.3447;1.5935;
275.7000;1.3472;1.5983;
276.0000;1.3496;1.6103;
276.3000;1.3480;1.5983;
276.6000;1.3455;1.5887;
276.9000;1.3447;1.5815;
277.2000;1.3480;1.5767;
277.5000;1.3447;1.5648;
277.8000;1.3455;1.5576;
278.1000;1.3472;1.5552;
278.4000;1.3488;1.5695;
278.7000;1.3480;1.5719;
279.0000;1.3496;1.5719;
279.3000;1.3472;1.5719;
279.6000;1.3480;1.5719;
279.9000;1.3480;1.5743;
280.2000;1.3455;1.5719;
280.5000;1.3480;1.5791;
280.8000;1.3488;1.5815;
281.1000;1.3480;1.5743;
281.4000;1.3504;1.5791;
281.7000;1.3439;1.5695;
282.0000;1.3480;1.5791;
282.3000;1.3488;1.5791;
282.6000;1.3480;1.5767;
282.9000;1.3488;1.5743;
283.2000;1.3488;1.5815;
283.5000;1.3488;1.5887;
283.8000;1.3488;1.5887;
284.1000;1.3472;1.5791;
284.4000;1.3472;1.5791;
284.7000;1.3488;1.5791;
285.0000;1.3529;1.5887;
285.3000;1.3464;1.5719;
285.6000;1.3488;1.5767;
285.9000;1.3472;1.5743;
286.2000;1.3480;1.5767;
286.5000;1.3472;1.5743;
286.8000;1.3423;1.5504;
287.1000;1.3480;1.5624;
287.4000;1.3480;1.5600;
287.7000;1.3464;1.5576;
288.0000;1.3472;1.5600;
288.3000;1.3480;1.5624;
288.6000;1.3480;1.5743;
288.9000;1.3488;1.5624;
289.2000;1.3480;1.5648;
289.5000;1.3553;1.5863;
289.8000;1.3472;1.5791;
290.1000;1.3472;1.5767;
290.4000;1.3480;1.5815;
290.7000;1.3480;1.5767;
291.0000;1.3480;1.5767;
291.3000;1.3480;1.5743;
291.6000;1.3472;1.5695;
291.9000;1.3455;1.5695;
292.2000;1.3472;1.5671;
292.5000;1.3464;1.5671;
292.8000;1.3439;1.5648;
293.1000;1.3455;1.5671;
293.4000;1.3480;1.5743;
293.7000;1.3480;1.5648;
294.0000;1.3472;1.5576;
294.3000;1.3496;1.5600;
294.6000;1.3447;1.5480;
294.9000;1.3488;1.5600;
295.2000;1.3488;1.5600;
295.5000;1.3464;1.5552;
295.8000;1.3488;1.5576;
296.1000;1.3423;1.5384;
296.4000;1.3464;1.5504;
296.7000;1.3480;1.5576;
297.0000;1.3472;1.5528;
297.3000;1.3521;1.5600;
297.6000;1.3512;1.5576;
297.9000;1.3488;1.5480;
298.2000;1.3480;1.5432;
298.5000;1.3407;1.5216;
298.8000;1.3488;1.5504;
299.1000;1.3480;1.5528;
299.4000;1.3488;1.5600;
299.7000;1.3488;1.5480;
300.0000;1.3496;1.5384;
300.3000;1.3480;1.5288;
300.6000;1.3488;1.5336;
300.9000;1.3480;1.5408;
301.2000;1.3488;1.5456;
301.5000;1.3594;1.5671;
301.8000;1.3472;1.5528;
302.1000;1.3472;1.5552;
302.4000;1.3472;1.5624;
302.7000;1.3464;1.5528;
303.0000;1.3464;1.5504;
303.3000;1.3447;1.5456;
303.6000;1.3480;1.5648;
303.9000;1.3480;1.5600;
304.2000;1.3480;1.5600;
304.5000;1.3480;1.5624;
304.8000;1.3472;1.5552;
305.1000;1.3464;1.5504;
305.4000;1.3464;1.5504;
305.7000;1.3455;1.5504;
306.0000;1.3472;1.5528;
306.3000;1.3472;1.5695;
306.6000;1.3472;1.5695;
306.9000;1.3464;1.5671;
307.2000;1.3455;1.5719;
307.5000;1.3472;1.5719;
307.8000;1.3488;1.5791;
308.1000;1.3488;1.5743;
308.4000;1.3455;1.5648;
308.7000;1.3472;1.5671;
309.0000;1.3472;1.5600;
309.3000;1.3480;1.5624;
309.6000;1.3496;1.5671;
309.9000;1.3472;1.5671;
310.2000;1.3488;1.5743;
310.5000;1.3472;1.5648;
310.8000;1.3472;1.5695;
311.1000;1.3480;1.5695;
311.4000;1.3455;1.5504;
311.7000;1.3480;1.5552;
312.0000;1.3472;1.5552;
312.3000;1.3447;1.5671;
312.6000;1.3480;1.5791;
312.9000;1.3480;1.5719;
313.2000;1.3480;1.5695;
313.5000;1.3521;1.5791;
313.8000;1.3472;1.5695;
314.1000;1.3480;1.5743;
314.4000;1.3464;1.5719;
314.7000;1.3472;1.5695;
315.0000;1.3488;1.5648;
315.3000;1.3488;1.5624;
315.6000;1.3480;1.5504;
315.9000;1.3496;1.5576;
316.2000;1.3480;1.5504;
316.5000;1.3504;1.5480;
316.8000;1.3496;1.5456;
317.1000;1.3488;1.5480;
317.4000;1.3472;1.5408;
317.7000;1.3480;1.5480;
318.0000;1.3464;1.5504;
318.3000;1.3431;1.5456;
318.6000;1.3545;1.5767;
318.9000;1.3472;1.5600;
319.2000;1.3480;1.5719;
319.5000;1.3480;1.5719;
319.8000;1.3480;1.5671;
320.1000;1.3472;1.5648;
320.4000;1.3537;1.5719;
320.7000;1.3480;1.5504;
321.0000;1.3472;1.5384;
321.3000;1.3480;1.5432;
321.6000;1.3472;1.5432;
321.9000;1.3464;1.5504;
322.2000;1.3455;1.5576;
322.5000;1.3472;1.5624;
322.8000;1.3480;1.5695;
323.1000;1.3472;1.5552;
323.4000;1.3464;1.5600;
323.7000;1.3464;1.5504;
324.0000;1.3472;1.5528;
324.3000;1.3455;1.5528;
324.6000;1.3464;1.5504;
324.9000;1.3455;1.5432;
325.2000;1.3455;1.5360;
325.5000;1.3464;1.5384;
325.8000;1.3472;1.5384;
326.1000;1.3480;1.5480;
326.4000;1.3488;1.5480;
326.7000;1.3488;1.5552;
327.0000;1.3472;1.5552;
327.3000;1.3472;1.5552;
327.6000;1.3480;1.5576;
327.9000;1.3480;1.5624;
328.2000;1.3504;1.5743;
328.5000;1.3472;1.5648;
328.8000;1.3455;1.5552;
329.1000;1.3447;1.5504;
329.4000;1.3488;1.5576;
329.7000;1.3431;1.5432;
330.0000;1.3504;1.5480;
330.3000;1.3455;1.5504;
330.6000;1.3488;1.5648;
330.9000;1.3480;1.5719;
331.2000;1.3455;1.5600;
331.5000;1.3480;1.5576;
331.8000;1.3496;1.5648;
332.1000;1.3496;1.5576;
332.4000;1.3431;1.5360;
332.7000;1.3480;1.5528;
333.0000;1.3480;1.5480;
333.3000;1.3480;1.5456;
333.6000;1.3464;1.5456;
333.9000;1.3455;1.5384;
334.2000;1.3537;1.5648;
334.5000;1.3455;1.5480;
334.8000;1.3480;1.5504;
335.1000;1.3464;1.5456;
335.4000;1.3455;1.5384;
335.7000;1.3447;1.5408;
336.0000;1.3472;1.5528;
336.3000;1.3464;1.5624;
336.6000;1.3431;1.5504;
336.9000;1.3480;1.5576;
337.2000;1.3488;1.5552;
337.5000;1.3472;1.5456;
337.8000;1.3472;1.5480;
338.1000;1.3464;1.5408;
338.4000;1.3472;1.5432;
338.7000;1.3415;1.5312;
339.0000;1.3472;1.5480;
339.3000;1.3488;1.5408;
339.6000;1.3480;1.5456;
339.9000;1.3472;1.5480;
340.2000;1.3455;1.5456;
340.5000;1.3423;1.5312;
340.8000;1.3480;1.5480;
341.1000;1.3496;1.5432;
341.4000;1.3480;1.5456;
341.7000;1.3480;1.5552;
342.0000;1.3480;1.5552;
342.3000;1.3480;1.5552;
342.6000;1.3472;1.5552;
342.9000;1.3447;1.5432;
343.2000;1.3464;1.5432;
343.5000;1.3472;1.5432;
343.8000;1.3480;1.5504;
344.1000;1.3480;1.5504;
344.4000;1.3455;1.5504;
344.7000;1.3480;1.5576;
345.0000;1.3472;1.5552;
345.3000;1.3472;1.5695;
345.6000;1.3529;1.5911;
345.9000;1.3529;1.5935;
346.2000;1.3472;1.5815;
346.5000;1.3447;1.5719;
346.8000;1.3472;1.5695;
347.1000;1.3455;1.5648;
347.4000;1.3480;1.5671;
347.7000;1.3455;1.5648;
348.0000;1.3439;1.5624;
348.3000;1.3480;1.5648;
348.6000;1.3472;1.5695;
348.9000;1.3455;1.5600;
349.2000;1.3480;1.5671;
349.5000;1.3464;1.5648;
349.8000;1.3480;1.5671;
350.1000;1.3472;1.5648;
350.4000;1.3472;1.5648;
350.7000;1.3464;1.5624;
351.0000;1.3439;1.5576;
351.3000;1.3488;1.5719;
351.6000;1.3464;1.5743;
351.9000;1.3480;1.5743;
352.2000;1.3569;1.5911;
352.5000;1.3488;1.5624;
352.8000;1.3480;1.5504;
353.1000;1.3472;1.5552;
353.4000;1.3447;1.5480;
353.7000;1.3488;1.5528;
354.0000;1.3504;1.5528;
354.3000;1.3480;1.5528;
354.6000;1.3472;1.5552;
354.9000;1.3464;1.5552;
355.2000;1.3496;1.5576;
355.5000;1.3472;1.5695;
355.8000;1.3480;1.5671;
356.1000;1.3480;1.5695;
356.4000;1.3472;1.5719;
356.7000;1.3464;1.5719;
357.0000;1.3472;1.5671;
357.3000;1.3480;1.5624;
357.6000;1.3472;1.5648;
357.9000;1.3464;1.5719;
358.2000;1.3439;1.5719;
358.5000;1.3439;1.5719;
358.8000;1.3464;1.5791;
359.1000;1.3455;1.5791;
359.4000;1.3455;1.5743;
359.7000;1.3496;1.5911;
360.0000;1.3472;1.5815;
360.3000;1.3472;1.5695;
360.6000;1.3488;1.5648;
360.9000;1.3464;1.5600;
361.2000;1.3455;1.5624;
361.5000;1.3545;1.5839;
361.8000;1.3472;1.5624;
362.1000;1.3496;1.5624;
362.4000;1.3480;1.5648;
362.7000;1.3488;1.5600;
363.0000;1.3480;1.5504;
363.3000;1.3472;1.5528;
363.6000;1.3455;1.5576;
363.9000;1.3415;1.5528;
364.2000;1.3472;1.5695;
364.5000;1.3439;1.5671;
364.8000;1.3488;1.5767;
365.1000;1.3472;1.5791;
365.4000;1.3488;1.5863;
365.7000;1.3423;1.5624;
366.0000;1.3480;1.5695;
366.3000;1.3472;1.5648;
366.6000;1.3504;1.5743;
366.9000;1.3480;1.5671;
367.2000;1.3488;1.5624;
367.5000;1.3521;1.5671;
367.8000;1.3480;1.5695;
368.1000;1.3480;1.5624;
368.4000;1.3512;1.5695;
368.7000;1.3464;1.5719;
369.0000;1.3488;1.5815;
369.3000;1.3472;1.5791;
369.6000;1.3423;1.5671;
369.9000;1.3464;1.5743;
370.2000;1.3464;1.5791;
370.5000;1.3464;1.5743;
370.8000;1.3472;1.5767;
371.1000;1.3447;1.5624;
371.4000;1.3480;1.5719;
371.7000;1.3472;1.5719;
372.0000;1.3464;1.5791;
372.3000;1.3464;1.5767;
372.6000;1.3464;1.5695;
372.9000;1.3488;1.5743;
373.2000;1.3423;1.5695;
373.5000;1.3464;1.5815;
373.8000;1.3455;1.5863;
374.1000;1.3464;1.5839;
374.4000;1.3464;1.5815;
374.7000;1.3455;1.5815;
375.0000;1.3366;1.5552;
375.3000;1.3480;1.5791;
375.6000;1.3480;1.5863;
375.9000;1.3472;1.5767;
376.2000;1.3431;1.5576;
376.5000;1.3488;1.5695;
376.8000;1.3480;1.5767;
377.1000;1.3480;1.5791;
377.4000;1.3488;1.5815;
377.7000;1.3480;1.5743;
378.0000;1.3472;1.5695;
378.3000;1.3496;1.5767;
378.6000;1.3464;1.5719;
378.9000;1.3464;1.5695;
379.2000;1.3472;1.5719;
379.5000;1.3472;1.5767;
379.8000;1.3455;1.5671;
380.1000;1.3472;1.5743;
380.4000;1.3464;1.5719;
380.7000;1.3472;1.5671;
381.0000;1.3480;1.5671;
381.3000;1.3472;1.5671;
381.6000;1.3472;1.5719;
381.9000;1.3464;1.5719;
382.2000;1.3472;1.5791;
382.5000;1.3464;1.5791;
382.8000;1.3480;1.5839;
383.1000;1.3464;1.5767;
383.4000;1.3431;1.5767;
383.7000;1.3464;1.5839;
384.0000;1.3455;1.5863;
384.3000;1.3374;1.5600;
384.6000;1.3439;1.5743;
384.9000;1.3455;1.5791;
385.2000;1.3447;1.5815;
385.5000;1.3496;1.5863;
385.8000;1.3488;1.5959;
386.1000;1.3455;1.5959;
386.4000;1.3480;1.6007;
386.7000;1.3496;1.6007;
387.0000;1.3488;1.5983;
387.3000;1.3480;1.6055;
387.6000;1.3472;1.6103;
387.9000;1.3480;1.6175;
388.2000;1.3480;1.6223;
388.5000;1.3455;1.6055;
388.8000;1.3455;1.5983;
389.1000;1.3464;1.5911;
389.4000;1.3472;1.5983;
389.7000;1.3464;1.5887;
390.0000;1.3455;1.5791;
390.3000;1.3480;1.5743;
390.6000;1.3455;1.5791;
390.9000;1.3464;1.5863;
391.2000;1.3472;1.5887;
391.5000;1.3521;1.6055;
391.8000;1.3537;1.6079;
392.1000;1.3464;1.5887;
392.4000;1.3472;1.5911;
392.7000;1.3472;1.5863;
393.0000;1.3488;1.5911;
393.3000;1.3472;1.5815;
393.6000;1.3553;1.6055;
393.9000;1.3464;1.5863;
394.2000;1.3512;1.5983;
394.5000;1.3472;1.5935;
394.8000;1.3480;1.6031;
395.1000;1.3464;1.5983;
395.4000;1.3488;1.6055;
395.7000;1.3488;1.5983;
396.0000;1.3480;1.5911;
396.3000;1.3480;1.6055;
396.6000;1.3472;1.5935;
396.9000;1.3488;1.6031;
397.2000;1.3496;1.6079;
397.5000;1.3472;1.5959;
397.8000;1.3480;1.5959;
398.1000;1.3488;1.6007;
398.4000;1.3480;1.6007;
398.7000;1.3488;1.6031;
399.0000;1.3569;1.6295;
399.3000;1.3447;1.6055;
399.6000;1.3488;1.6223;
399.9000;1.3464;1.6127;
400.2000;1.3472;1.6031;
400.5000;1.3455;1.5887;
400.8000;1.3480;1.5935;
401.1000;1.3455;1.5887;
401.4000;1.3480;1.5935;
401.7000;1.3480;1.5935;
402.0000;1.3472;1.5863;
402.3000;1.3480;1.5791;
402.6000;1.3480;1.5791;
402.9000;1.3553;1.5959;
403.2000;1.3455;1.5743;
403.5000;1.3488;1.5719;
403.8000;1.3496;1.5767;
404.1000;1.3447;1.5791;
404.4000;1.3464;1.5791;
404.7000;1.3407;1.5624;
405.0000;1.3464;1.5719;
405.3000;1.3464;1.5648;
405.6000;1.3455;1.5648;
405.9000;1.3472;1.5671;
406.2000;1.3464;1.5624;
406.5000;1.3472;1.5648;
406.8000;1.3464;1.5600;
407.1000;1.3472;1.5552;
407.4000;1.3521;1.5671;
407.7000;1.3480;1.5624;
408.0000;1.3472;1.5648;
408.3000;1.3480;1.5815;
408.6000;1.3464;1.5815;
408.9000;1.3472;1.5815;
409.2000;1.3480;1.5815;
409.5000;1.3407;1.5719;
409.8000;1.3480;1.5815;
410.1000;1.3455;1.5815;
410.4000;1.3464;1.5887;
410.7000;1.3455;1.5959;
411.0000;1.3464;1.6007;
411.3000;1.3480;1.6079;
411.6000;1.3504;1.6079;
411.9000;1.3480;1.5959;
412.2000;1.3439;1.5839;
412.5000;1.3488;1.5983;
412.8000;1.3504;1.5959;
413.1000;1.3464;1.5887;
413.4000;1.3464;1.5791;
413.7000;1.3472;1.5887;
414.0000;1.3464;1.5743;
414.3000;1.3464;1.5791;
414.6000;1.3480;1.5791;
414.9000;1.3488;1.5791;
415.2000;1.3472;1.5767;
415.5000;1.3464;1.5839;
415.8000;1.3472;1.5887;
416.1000;1.3472;1.5863;
416.4000;1.3431;1.5719;
416.7000;1.3472;1.5839;
417.0000;1.3472;1.5815;
417.3000;1.3464;1.5815;
417.6000;1.3472;1.5767;
417.9000;1.3472;1.5815;
418.2000;1.3455;1.5839;
418.5000;1.3488;1.5911;
418.8000;1.3480;1.5839;
419.1000;1.3480;1.5815;
419.4000;1.3472;1.5743;
419.7000;1.3464;1.5695;
420.0000;1.3521;1.5911;
420.3000;1.3455;1.5767;
420.6000;1.3455;1.5791;
420.9000;1.3480;1.5815;
421.2000;1.3464;1.5743;
421.5000;1.3472;1.5743;
421.8000;1.3480;1.5719;
422.1000;1.3488;1.5624;
422.4000;1.3496;1.5600;
422.7000;1.3488;1.5600;
423.0000;1.3472;1.5624;
423.3000;1.3431;1.5600;
423.6000;1.3464;1.5767;
423.9000;1.3464;1.5791;
424.2000;1.3447;1.5743;
424.5000;1.3472;1.5648;
424.8000;1.3464;1.5671;
425.1000;1.3464;1.5767;
425.4000;1.3455;1.5791;
425.7000;1.3455;1.5815;
426.0000;1.3480;1.5791;
426.3000;1.3464;1.5695;
426.6000;1.3472;1.5648;
426.9000;1.3569;1.5959;
427.2000;1.3464;1.5791;
427.5000;1.3464;1.5719;
427.8000;1.3488;1.5815;
428.1000;1.3480;1.5815;
428.4000;1.3472;1.5839;
428.7000;1.3480;1.5935;
429.0000;1.3480;1.5983;
429.3000;1.3512;1.6031;
429.6000;1.3464;1.5887;
429.9000;1.3472;1.5887;
430.2000;1.3472;1.5839;
430.5000;1.3455;1.5767;
430.8000;1.3464;1.5719;
431.1000;1.3455;1.5671;
431.4000;1.3431;1.5528;
431.7000;1.3472;1.5695;
432.0000;1.3455;1.5767;
432.3000;1.3431;1.5695;
432.6000;1.3578;1.6079;
432.9000;1.3455;1.5791;
433.2000;1.3464;1.5719;
433.5000;1.3472;1.5648;
433.8000;1.3480;1.5719;
434.1000;1.3472;1.5743;
434.4000;1.3472;1.5743;
434.7000;1.3398;1.5600;
435.0000;1.3464;1.5863;
435.3000;1.3480;1.5935;
435.6000;1.3439;1.5815;
435.9000;1.3447;1.5815;
436.2000;1.3455;1.5815;
436.5000;1.3447;1.5791;
436.8000;1.3504;1.5887;
437.1000;1.3455;1.5743;
437.4000;1.3464;1.5791;
437.7000;1.3480;1.5767;
438.0000;1.3455;1.5695;
438.3000;1.3464;1.5719;
438.6000;1.3504;1.5911;
438.9000;1.3464;1.5887;
439.2000;1.3480;1.5887;
439.5000;1.3488;1.5887;
439.8000;1.3480;1.5791;
440.1000;1.3496;1.5839;
440.4000;1.3488;1.5743;
440.7000;1.3480;1.5791;
441.0000;1.3472;1.5839;
441.3000;1.3480;1.5839;
441.6000;1.3488;1.5959;
441.9000;1.3553;1.6175;
442.2000;1.3423;1.6007;
442.5000;1.3464;1.6103;
442.8000;1.3472;1.6055;
443.1000;1.3464;1.5935;
443.4000;1.3472;1.5935;
443.7000;1.3480;1.5935;
444.0000;1.3480;1.5935;
444.3000;1.3480;1.5839;
444.6000;1.3464;1.5791;
444.9000;1.3480;1.5791;
445.2000;1.3407;1.5743;
445.5000;1.3488;1.5935;
445.8000;1.3447;1.5863;
446.1000;1.3504;1.6031;
446.4000;1.3488;1.6031;
446.7000;1.3472;1.5959;
447.0000;1.3480;1.5983;
447.3000;1.3480;1.5935;
447.6000;1.3480;1.5959;
447.9000;1.3480;1.5911;
448.2000;1.3407;1.5648;
448.5000;1.3472;1.5743;
448.8000;1.3472;1.5767;
449.1000;1.3488;1.5863;
449.4000;1.3480;1.5863;
449.7000;1.3464;1.5791;
450.0000;1.3439;1.5695;
450.3000;1.3447;1.5839;
450.6000;1.3480;1.5959;
450.9000;1.3423;1.5767;
451.2000;1.3472;1.5815;
451.5000;1.3464;1.5815;
451.8000;1.3455;1.5791;
452.1000;1.3464;1.5839;
452.4000;1.3455;1.5887;
452.7000;1.3447;1.5863;
453.0000;1.3464;1.5815;
453.3000;1.3496;1.5839;
453.6000;1.3472;1.5815;
453.9000;1.3472;1.5815;
454.2000;1.3464;1.5887;
454.5000;1.3439;1.5839;
454.8000;1.3455;1.5863;
455.1000;1.3439;1.5791;
455.4000;1.3447;1.5743;
455.7000;1.3472;1.5791;
456.0000;1.3472;1.5815;
456.3000;1.3529;1.6055;
456.6000;1.3472;1.5959;
456.9000;1.3504;1.6007;
457.2000;1.3464;1.5935;
457.5000;1.3464;1.5959;
457.8000;1.3464;1.6031;
458.1000;1.3472;1.6103;
458.4000;1.3447;1.5887;
458.7000;1.3464;1.5959;
459.0000;1.3472;1.6007;
459.3000;1.3480;1.6151;
459.6000;1.3464;1.6007;
459.9000;1.3464;1.6031;
460.2000;1.3447;1.5935;
460.5000;1.3415;1.5815;
460.8000;1.3472;1.5959;
461.1000;1.3504;1.6055;
461.4000;1.3472;1.5983;
461.7000;1.3439;1.5983;
462.0000;1.3455;1.5935;
462.3000;1.3472;1.6007;
462.6000;1.3464;1.6055;
462.9000;1.3472;1.6151;
463.2000;1.3512;1.6199;
463.5000;1.3472;1.6223;
463.8000;1.3415;1.6079;
464.1000;1.3545;1.6295;
464.4000;1.3464;1.6031;
464.7000;1.3464;1.6031;
465.0000;1.3464;1.6031;
465.3000;1.3464;1.6031;
465.6000;1.3472;1.5935;
465.9000;1.3480;1.6079;
466.2000;1.3455;1.5959;
466.5000;1.3488;1.5863;
466.8000;1.3480;1.5815;
467.1000;1.3447;1.5791;
467.4000;1.3455;1.5839;
467.7000;1.3464;1.5815;
468.0000;1.3439;1.5743;
468.3000;1.3480;1.5935;
468.6000;1.3480;1.5935;
468.9000;1.3472;1.5911;
469.2000;1.3504;1.6079;
469.5000;1.3480;1.5959;
469.8000;1.3472;1.5911;
470.1000;1.3472;1.5863;
470.4000;1.3472;1.5935;
470.7000;1.3447;1.5839;
471.0000;1.3488;1.5983;
471.3000;1.3439;1.5791;
471.6000;1.3464;1.5791;
471.9000;1.3464;1.5815;
472.2000;1.3553;1.5983;
472.5000;1.3488;1.5815;
472.8000;1.3464;1.5839;
473.1000;1.3472;1.5887;
473.4000;1.3464;1.5863;
473.7000;1.3480;1.5983;
474.0000;1.3472;1.5935;
474.3000;1.3455;1.5983;
474.6000;1.3480;1.5983;
474.9000;1.3439;1.5911;
475.2000;1.3480;1.5959;
475.5000;1.3464;1.5887;
475.8000;1.3480;1.5935;
476.1000;1.3464;1.5815;
476.4000;1.3504;1.5815;
476.7000;1.3455;1.5791;
477.0000;1.3464;1.5839;
477.3000;1.3472;1.5887;
477.6000;1.3472;1.5839;
477.9000;1.3455;1.5887;
478.2000;1.3480;1.6007;
478.5000;1.3480;1.6031;
478.8000;1.3464;1.5959;
479.1000;1.3464;1.6031;
479.4000;1.3488;1.6007;
479.7000;1.3480;1.6007;
480.0000;1.3472;1.5959;
480.3000;1.3472;1.5959;
480.6000;1.3480;1.5887;
480.9000;1.3398;1.5743;
481.2000;1.3504;1.6103;
481.5000;1.3472;1.6103;
481.8000;1.3472;1.6103;
482.1000;1.3472;1.6175;
482.4000;1.3439;1.6055;
482.7000;1.3472;1.6127;
483.0000;1.3480;1.6199;
483.3000;1.3480;1.6079;
483.6000;1.3529;1.6151;
483.9000;1.3464;1.6079;
484.2000;1.3472;1.6151;
484.5000;1.3464;1.6127;
484.8000;1.3472;1.6055;
485.1000;1.3496;1.6055;
485.4000;1.3398;1.5791;
485.7000;1.3480;1.6007;
486.0000;1.3488;1.6007;
486.3000;1.3496;1.6007;
486.6000;1.3439;1.5839;
486.9000;1.3472;1.5959;
487.2000;1.3472;1.5935;
487.5000;1.3472;1.5959;
487.8000;1.3496;1.6055;
488.1000;1.3488;1.6031;
488.4000;1.3480;1.6031;
488.7000;1.3480;1.6031;
489.0000;1.3480;1.5983;
489.3000;1.3464;1.5959;
489.6000;1.3455;1.5935;
489.9000;1.3464;1.5959;
490.2000;1.3447;1.5935;
490.5000;1.3455;1.6007;
490.8000;1.3447;1.5983;
491.1000;1.3464;1.6031;
491.4000;1.3455;1.6127;
491.7000;1.3447;1.6103;
492.0000;1.3447;1.6175;
492.3000;1.3455;1.6055;
492.6000;1.3472;1.6007;
492.9000;1.3464;1.6055;
493.2000;1.3464;1.5959;
493.5000;1.3480;1.5983;
493.8000;1.3464;1.5911;
494.1000;1.3472;1.5863;
494.4000;1.3480;1.5911;
494.7000;1.3496;1.6055;
495.0000;1.3480;1.5983;
495.3000;1.3480;1.5959;
495.6000;1.3464;1.6031;
495.9000;1.3472;1.6031;
496.2000;1.3472;1.6031;
496.5000;1.3447;1.5983;
496.8000;1.3464;1.5983;
497.1000;1.3472;1.6007;
497.4000;1.3464;1.5911;
497.7000;1.3472;1.5935;
498.0000;1.3455;1.5815;
498.3000;1.3439;1.5791;
498.6000;1.3472;1.5887;
498.9000;1.3464;1.5959;
499.2000;1.3472;1.5983;
499.5000;1.3488;1.5959;
499.8000;1.3480;1.5911;
500.1000;1.3464;1.5791;
500.4000;1.3455;1.5671;
500.7000;1.3455;1.5743;
501.0000;1.3464;1.5767;
501.3000;1.3455;1.5671;
501.6000;1.3472;1.5671;
501.9000;1.3488;1.5695;
502.2000;1.3472;1.5767;
502.5000;1.3464;1.5839;
502.8000;1.3480;1.5791;
503.1000;1.3472;1.5863;
503.4000;1.3464;1.5839;
503.7000;1.3472;1.5863;
504.0000;1.3472;1.5815;
504.3000;1.3488;1.5887;
504.6000;1.3464;1.5815;
504.9000;1.3455;1.5863;
505.2000;1.3464;1.5959;
505.5000;1.3464;1.6031;
505.8000;1.3455;1.5935;
506.1000;1.3439;1.5839;
506.4000;1.3398;1.5624;
506.7000;1.3464;1.5815;
507.0000;1.3455;1.5863;
507.3000;1.3447;1.5815;
507.6000;1.3578;1.6079;
507.9000;1.3455;1.5863;
508.2000;1.3480;1.5863;
508.5000;1.3439;1.5695;
508.8000;1.3472;1.5767;
509.1000;1.3480;1.5863;
509.4000;1.3464;1.5815;
509.7000;1.3455;1.5839;
510.0000;1.3464;1.5863;
510.3000;1.3504;1.5911;
510.6000;1.3464;1.5863;
510.9000;1.3464;1.5743;
511.2000;1.3472;1.5791;
511.5000;1.3431;1.5743;
511.8000;1.3488;1.5839;
512.1000;1.3480;1.5695;
512.4000;1.3472;1.5719;
512.7000;1.3480;1.5839;
513.0000;1.3529;1.5935;
513.3000;1.3480;1.5863;
513.6000;1.3464;1.5887;
513.9000;1.3480;1.5911;
514.2000;1.3472;1.5959;
514.5000;1.3480;1.5983;
514.8000;1.3480;1.5983;
515.1000;1.3472;1.6007;
515.4000;1.3464;1.6079;
515.7000;1.3464;1.5983;
516.0000;1.3464;1.6031;
516.3000;1.3455;1.6007;
516.6000;1.3464;1.6031;
516.9000;1.3464;1.6007;
517.2000;1.3374;1.5767;
517.5000;1.3439;1.5983;
517.8000;1.3472;1.5959;
518.1000;1.3472;1.5983;
518.4000;1.3488;1.6031;
518.7000;1.3472;1.5983;
519.0000;1.3496;1.6007;
519.3000;1.3464;1.5887;
519.6000;1.3455;1.5887;
519.9000;1.3464;1.5887;
520.2000;1.3472;1.5887;
520.5000;1.3455;1.5911;
520.8000;1.3472;1.5839;
521.1000;1.3480;1.5863;
521.4000;1.3447;1.5863;
521.7000;1.3521;1.6127;
522.0000;1.3447;1.6007;
522.3000;1.3464;1.6031;
522.6000;1.3455;1.5983;
522.9000;1.3447;1.6007;
523.2000;1.3480;1.6079;
523.5000;1.3390;1.5815;
523.8000;1.3464;1.5983;
524.1000;1.3472;1.5887;
524.4000;1.3431;1.5743;
524.7000;1.3521;1.6007;
525.0000;1.3480;1.5959;
525.3000;1.3439;1.5959;
525.6000;1.3480;1.6055;
525.9000;1.3488;1.6103;
526.2000;1.3504;1.6247;
526.5000;1.3472;1.6247;
526.8000;1.3472;1.6271;
527.1000;1.3480;1.6271;
527.4000;1.3455;1.6151;
527.7000;1.3464;1.6103;
528.0000;1.3472;1.5983;
528.3000;1.3472;1.6007;
528.6000;1.3464;1.5863;
528.9000;1.3464;1.5911;
529.2000;1.3464;1.5959;
529.5000;1.3439;1.5911;
529.8000;1.3480;1.6055;
530.1000;1.3488;1.6079;
530.4000;1.3464;1.6079;
530.7000;1.3455;1.6007;
531.0000;1.3464;1.5959;
531.3000;1.3496;1.6031;
531.6000;1.3472;1.5983;
531.9000;1.3472;1.5983;
532.2000;1.3415;1.5815;
532.5000;1.3464;1.5839;
532.8000;1.3472;1.5959;
533.1000;1.3480;1.5959;
533.4000;1.3488;1.6007;
533.7000;1.3455;1.5935;
534.0000;1.3358;1.5719;
534.3000;1.3464;1.5935;
534.6000;1.3464;1.5983;
534.9000;1.3480;1.5959;
535.2000;1.3447;1.5815;
535.5000;1.3447;1.5863;
535.8000;1.3455;1.5911;
536.1000;1.3455;1.5959;
536.4000;1.3472;1.6007;
536.7000;1.3455;1.5911;
537.0000;1.3464;1.5959;
537.3000;1.3464;1.5983;
537.6000;1.3472;1.6007;
537.9000;1.3480;1.6127;
538.2000;1.3447;1.6031;
538.5000;1.3439;1.6079;
538.8000;1.3447;1.6079;
539.1000;1.3439;1.6127;
539.4000;1.3464;1.6199;
539.7000;1.3472;1.6199;
540.0000;1.3455;1.6175;
540.3000;1.3439;1.6055;
540.6000;1.3464;1.5935;
540.9000;1.3464;1.5983;
541.2000;1.3439;1.5863;
541.5000;1.3455;1.5887;
541.8000;1.3464;1.5935;
542.1000;1.3455;1.5959;
542.4000;1.3455;1.5983;
542.7000;1.3447;1.6007;
543.0000;1.3480;1.6079;
543.3000;1.3423;1.5911;
543.6000;1.3472;1.5935;
543.9000;1.3439;1.5815;
544.2000;1.3488;1.5791;
544.5000;1.3488;1.5791;
544.8000;1.3472;1.5743;
545.1000;1.3464;1.5648;
545.4000;1.3480;1.5671;
545.7000;1.3480;1.5743;
546.0000;1.3480;1.5935;
546.3000;1.3464;1.5791;
546.6000;1.3455;1.5815;
546.9000;1.3407;1.5719;
547.2000;1.3439;1.5791;
547.5000;1.3374;1.5695;
547.8000;1.3472;1.5935;
548.1000;1.3423;1.5887;
548.4000;1.3439;1.5935;
548.7000;1.3455;1.5959;
549.0000;1.3447;1.5911;
549.3000;1.3464;1.6007;
549.6000;1.3455;1.5935;
549.9000;1.3455;1.6031;
550.2000;1.3464;1.5959;
550.5000;1.3455;1.5983;
550.8000;1.3480;1.6079;
551.1000;1.3439;1.5935;
551.4000;1.3480;1.5911;
551.7000;1.3472;1.5815;
552.0000;1.3464;1.5863;
552.3000;1.3464;1.5863;
552.6000;1.3455;1.5887;
552.9000;1.3464;1.5815;
553.2000;1.3464;1.5815;
553.5000;1.3464;1.5767;
553.8000;1.3480;1.5959;
554.1000;1.3472;1.6007;
554.4000;1.3512;1.6199;
554.7000;1.3464;1.6055;
555.0000;1.3496;1.6103;
555.3000;1.3415;1.5911;
555.6000;1.3464;1.6031;
555.9000;1.3415;1.6007;
556.2000;1.3464;1.6007;
556.5000;1.3472;1.6031;
556.8000;1.3464;1.5959;
557.1000;1.3545;1.6127;
557.4000;1.3480;1.5959;
557.7000;1.3480;1.5935;
558.0000;1.3472;1.5911;
558.3000;1.3455;1.5911;
558.6000;1.3455;1.5815;
558.9000;1.3464;1.5911;
559.2000;1.3447;1.5959;
559.5000;1.3464;1.5935;
559.8000;1.3447;1.5815;
560.1000;1.3455;1.5839;
560.4000;1.3472;1.5911;
560.7000;1.3447;1.5887;
561.0000;1.3464;1.5959;
561.3000;1.3472;1.5887;
561.6000;1.3472;1.5887;
561.9000;1.3472;1.5959;
562.2000;1.3464;1.5959;
562.5000;1.3447;1.6007;
562.8000;1.3447;1.6031;
563.1000;1.3464;1.6103;
563.4000;1.3455;1.6031;
563.7000;1.3447;1.5911;
564.0000;1.3504;1.6031;
564.3000;1.3423;1.5887;
564.6000;1.3464;1.5911;
564.9000;1.3447;1.5935;
565.2000;1.3464;1.6103;
565.5000;1.3472;1.6055;
565.8000;1.3464;1.6007;
566.1000;1.3472;1.6007;
566.4000;1.3464;1.5959;
566.7000;1.3464;1.5983;
567.0000;1.3472;1.5911;
567.3000;1.3464;1.5887;
567.6000;1.3472;1.5887;
567.9000;1.3488;1.5935;
568.2000;1.3480;1.5935;
568.5000;1.3455;1.5887;
568.8000;1.3455;1.6007;
569.1000;1.3423;1.5959;
569.4000;1.3455;1.6175;
569.7000;1.3423;1.6031;
570.0000;1.3480;1.6103;
570.3000;1.3472;1.5983;
570.6000;1.3447;1.5935;
570.9000;1.3431;1.5959;
571.2000;1.3464;1.6103;
571.5000;1.3407;1.5959;
571.8000;1.3480;1.6175;
572.1000;1.3447;1.6103;
572.4000;1.3447;1.6007;
572.7000;1.3431;1.5983;
573.0000;1.3455;1.5983;
573.3000;1.3472;1.6055;
573.6000;1.3455;1.6079;
573.9000;1.3455;1.6055;
574.2000;1.3464;1.6031;
574.5000;1.3464;1.6127;
574.8000;1.3447;1.6079;
575.1000;1.3447;1.6079;
575.4000;1.3455;1.6031;
575.7000;1.3464;1.5983;
576.0000;1.3455;1.5959;
576.3000;1.3472;1.6103;
576.6000;1.3472;1.6055;
576.9000;1.3472;1.5983;
577.2000;1.3455;1.5911;
577.5000;1.3512;1.5983;
577.8000;1.3464;1.5863;
578.1000;1.3496;1.6079;
578.4000;1.3521;1.6079;
578.7000;1.3447;1.5863;
579.0000;1.3496;1.5983;
579.3000;1.3455;1.6007;
579.6000;1.3382;1.5839;
579.9000;1.3472;1.6055;
580.2000;1.3480;1.6055;
580.5000;1.3455;1.6103;
580.8000;1.3472;1.6103;
581.1000;1.3472;1.6055;
581.4000;1.3472;1.5983;
581.7000;1.3455;1.6151;
582.0000;1.3439;1.6079;
582.3000;1.3415;1.6103;
582.6000;1.3447;1.6175;
582.9000;1.3464;1.6271;
583.2000;1.3447;1.6223;
583.5000;1.3455;1.6151;
583.8000;1.3545;1.6295;
584.1000;1.3472;1.6079;
584.4000;1.3464;1.6079;
584.7000;1.3455;1.6079;
585.0000;1.3480;1.6031;
585.3000;1.3472;1.6031;
585.6000;1.3464;1.5959;
585.9000;1.3496;1.6031;
586.2000;1.3472;1.5959;
586.5000;1.3472;1.6007;
586.8000;1.3480;1.5887;
587.1000;1.3464;1.5887;
587.4000;1.3480;1.5887;
587.7000;1.3464;1.5863;
588.0000;1.3472;1.5911;
588.3000;1.3545;1.6103;
588.6000;1.3472;1.5959;
588.9000;1.3415;1.5767;
589.2000;1.3455;1.5815;
589.5000;1.3472;1.5839;
589.8000;1.3464;1.5935;
590.1000;1.3472;1.5935;
590.4000;1.3455;1.5935;
590.7000;1.3488;1.6007;
591.0000;1.3472;1.6031;
591.3000;1.3464;1.6031;
591.6000;1.3455;1.5935;
591.9000;1.3447;1.5983;
592.2000;1.3472;1.6031;
592.5000;1.3455;1.5887;
592.8000;1.3431;1.5839;
593.1000;1.3439;1.5935;
593.4000;1.3455;1.6007;
593.7000;1.3423;1.5983;
594.0000;1.3431;1.6007;
594.3000;1.3447;1.6031;
594.6000;1.3407;1.5887;
594.9000;1.3447;1.5935;
595.2000;1.3439;1.5935;
595.5000;1.3480;1.6031;
595.8000;1.3431;1.5887;
596.1000;1.3407;1.5743;
596.4000;1.3431;1.5719;
596.7000;1.3447;1.5791;
597.0000;1.3447;1.5935;
597.3000;1.3447;1.6007;
597.6000;1.3439;1.5911;
597.9000;1.3464;1.5935;
598.2000;1.3464;1.6007;
598.5000;1.3464;1.5911;
598.8000;1.3439;1.5815;
599.1000;1.3464;1.5887;
599.4000;1.3455;1.5863;
599.7000;1.3472;1.5935;
600.0000;1.3374;1.5743;
600.3000;1.3537;1.5911;
600.6000;1.3407;1.5552;
600.9000;1.3325;1.5480;
601.2000;1.3211;1.5288;
601.5000;1.3105;1.5072;
601.8000;1.2967;1.4833;
602.1000;1.2788;1.4593;
602.4000;1.2707;1.4473;
602.7000;1.2576;1.4162;
603.0000;1.2373;1.3874;
603.3000;1.2348;1.3922;
603.6000;1.2324;1.3922;
603.9000;1.2153;1.3731;
604.2000;1.2063;1.3563;
604.5000;1.1974;1.3515;
604.8000;1.1901;1.3515;
605.1000;1.1811;1.3443;
605.4000;1.1738;1.3395;
605.7000;1.1681;1.3395;
606.0000;1.1583;1.3275;
606.3000;1.1518;1.3227;
606.6000;1.1453;1.3155;
606.9000;1.1404;1.3155;
607.2000;1.1339;1.3131;
607.5000;1.1315;1.2964;
607.8000;1.1201;1.2844;
608.1000;1.1127;1.2748;
608.4000;1.1136;1.2868;
608.7000;1.1038;1.2700;
609.0000;1.0997;1.2796;
609.3000;1.0973;1.2844;
609.6000;1.0899;1.2796;
609.9000;1.0924;1.2892;
610.2000;1.0802;1.2652;
610.5000;1.0769;1.2724;
610.8000;1.0720;1.2772;
611.1000;1.0663;1.2772;
611.4000;1.0647;1.2796;
611.7000;1.0582;1.2676;
612.0000;1.0501;1.2532;
612.3000;1.0484;1.2652;
612.6000;1.0476;1.2652;
612.9000;1.0427;1.2580;
613.2000;1.0370;1.2604;
613.5000;1.0346;1.2628;
613.8000;1.0322;1.2580;
614.1000;1.0297;1.2580;
614.4000;1.0232;1.2461;
614.7000;1.0208;1.2389;
615.0000;1.0183;1.2365;
615.3000;1.0126;1.2365;
615.6000;1.0118;1.2365;
615.9000;1.0053;1.2245;
616.2000;1.0053;1.2269;
616.5000;1.0045;1.2365;
616.8000;0.9980;1.2269;
617.1000;0.9980;1.2389;
617.4000;0.9915;1.2317;
617.7000;0.9898;1.2437;
618.0000;0.9849;1.2293;
618.3000;0.9849;1.2341;
618.6000;0.9809;1.2341;
618.9000;0.9784;1.2269;
619.2000;0.9752;1.2197;
619.5000;0.9776;1.2293;
619.8000;0.9711;1.2221;
620.1000;0.9646;1.2053;
620.4000;0.9670;1.2173;
620.7000;0.9621;1.2125;
621.0000;0.9605;1.2077;
621.3000;0.9581;1.2053;
621.6000;0.9581;1.2149;
621.9000;0.9524;1.2125;
622.2000;0.9516;1.2245;
622.5000;0.9483;1.2197;
622.8000;0.9483;1.2125;
623.1000;0.9410;1.2077;
623.4000;0.9442;1.2269;
623.7000;0.9410;1.2245;
624.0000;0.9394;1.2149;
624.3000;0.9361;1.2101;
624.6000;0.9369;1.2173;
624.9000;0.9345;1.2221;
625.2000;0.9255;1.1957;
625.5000;0.9271;1.2029;
625.8000;0.9296;1.2149;
626.1000;0.9255;1.2149;
626.4000;0.9247;1.2125;
626.7000;0.9214;1.2149;
627.0000;0.9206;1.2125;
627.3000;0.9174;1.2101;
627.6000;0.9174;1.2149;
627.9000;0.9133;1.2077;
628.2000;0.9117;1.2125;
628.5000;0.9092;1.2101;
628.8000;0.9076;1.2053;
629.1000;0.9076;1.2077;
629.4000;0.9035;1.1885;
629.7000;0.9035;1.1909;
630.0000;0.9052;1.1957;
630.3000;0.9035;1.1957;
630.6000;0.9044;1.2101;
630.9000;0.8995;1.1957;
631.2000;0.8987;1.2005;
631.5000;0.8962;1.2005;
631.8000;0.8987;1.2149;
632.1000;0.8946;1.2173;
632.4000;0.8946;1.2173;
632.7000;0.8913;1.2053;
633.0000;0.8881;1.2053;
633.3000;0.8889;1.2053;
633.6000;0.8848;1.1957;
633.9000;0.8840;1.2101;
634.2000;0.8832;1.2101;
634.5000;0.8824;1.2077;
634.8000;0.8767;1.2101;
635.1000;0.8799;1.2245;
635.4000;0.8807;1.2197;
635.7000;0.8783;1.2221;
636.0000;0.8767;1.2221;
636.3000;0.8775;1.2221;
636.6000;0.8751;1.2197;
636.9000;0.8751;1.2269;
637.2000;0.8718;1.2149;
637.5000;0.8710;1.2149;
637.8000;0.8718;1.2197;
638.1000;0.8685;1.2149;
638.4000;0.8742;1.2221;
638.7000;0.8661;1.2077;
639.0000;0.8645;1.2029;
639.3000;0.8645;1.2029;
639.6000;0.8620;1.1957;
639.9000;0.8628;1.2053;
640.2000;0.8702;1.2293;
640.5000;0.8620;1.2125;
640.8000;0.8596;1.2173;
641.1000;0.8571;1.2221;
641.4000;0.8588;1.2293;
641.7000;0.8588;1.2293;
642.0000;0.8555;1.2197;
642.3000;0.8531;1.2101;
642.6000;0.8506;1.1981;
642.9000;0.8514;1.1909;
643.2000;0.8506;1.2053;
643.5000;0.8490;1.2005;
643.8000;0.8474;1.2029;
644.1000;0.8474;1.2029;
644.4000;0.8482;1.2125;
644.7000;0.8474;1.2101;
645.0000;0.8433;1.1981;
645.3000;0.8466;1.2005;
645.6000;0.8441;1.1981;
645.9000;0.8433;1.2005;
646.2000;0.8441;1.2053;
646.5000;0.8417;1.1933;
646.8000;0.8417;1.1981;
647.1000;0.8400;1.1981;
647.4000;0.8392;1.2029;
647.7000;0.8368;1.1957;
648.0000;0.8360;1.2005;
648.3000;0.8384;1.2125;
648.6000;0.8344;1.2053;
648.9000;0.8344;1.2125;
649.2000;0.8319;1.2077;
649.5000;0.8319;1.1957;
649.8000;0.8319;1.1933;
650.1000;0.8311;1.1861;
650.4000;0.8295;1.1909;
650.7000;0.8311;1.2005;
651.0000;0.8287;1.2029;
651.3000;0.8295;1.2125;
651.6000;0.8254;1.2029;
651.9000;0.8262;1.2125;
652.2000;0.8246;1.2149;
652.5000;0.8246;1.2029;
652.8000;0.8238;1.2101;
653.1000;0.8230;1.2173;
653.4000;0.8230;1.2173;
653.7000;0.8205;1.2197;
654.0000;0.8213;1.2269;
654.3000;0.8205;1.2221;
654.6000;0.8205;1.2365;
654.9000;0.8181;1.2173;
655.2000;0.8164;1.2125;
655.5000;0.8205;1.2149;
655.8000;0.8156;1.2125;
656.1000;0.8164;1.2149;
656.4000;0.8197;1.2317;
656.7000;0.8156;1.2245;
657.0000;0.8221;1.2461;
657.3000;0.8148;1.2269;
657.6000;0.8132;1.2245;
657.9000;0.8132;1.2149;
658.2000;0.8124;1.2077;
658.5000;0.8083;1.1909;
658.8000;0.8099;1.1957;
659.1000;0.8075;1.1957;
659.4000;0.8083;1.2077;
659.7000;0.8107;1.2101;
660.0000;0.8050;1.2053;
660.3000;0.8083;1.2125;
660.6000;0.8083;1.2077;
660.9000;0.8067;1.1909;
661.2000;0.8075;1.1909;
661.5000;0.8050;1.1909;
661.8000;0.8042;1.1885;
662.1000;0.8075;1.1981;
662.4000;0.8002;1.1885;
662.7000;0.8034;1.1957;
663.0000;0.8010;1.1909;
663.3000;0.8018;1.1933;
663.6000;0.7993;1.1885;
663.9000;0.8026;1.2029;
664.2000;0.7993;1.1981;
664.5000;0.8026;1.2053;
664.8000;0.7985;1.2029;
665.1000;0.7977;1.2005;
665.4000;0.7977;1.1981;
665.7000;0.7977;1.2029;
666.0000;0.7969;1.2005;
666.3000;0.7977;1.2005;
666.6000;0.7953;1.1933;
666.9000;0.7945;1.1957;
667.2000;0.7953;1.1981;
667.5000;0.7953;1.2005;
667.8000;0.7945;1.2005;
668.1000;0.7937;1.1933;
668.4000;0.7953;1.1933;
668.7000;0.7937;1.1885;
669.0000;0.7904;1.1909;
669.3000;0.7928;1.1981;
669.6000;0.7937;1.2029;
669.9000;0.7888;1.1981;
670.2000;0.7888;1.1981;
670.5000;0.7863;1.2029;
670.8000;0.7912;1.2149;
671.1000;0.7912;1.1981;
671.4000;0.7839;1.1718;
671.7000;0.7863;1.1861;
672.0000;0.7831;1.1814;
672.3000;0.7863;1.1933;
672.6000;0.7888;1.1957;
672.9000;0.7847;1.1814;
673.2000;0.7920;1.2029;
673.5000;0.7937;1.2053;
673.8000;0.7847;1.1861;
674.1000;0.7912;1.2101;
674.4000;0.7847;1.1957;
674.7000;0.7839;1.1981;
675.0000;0.7823;1.1981;
675.3000;0.7798;1.1885;
675.6000;0.7798;1.1885;
675.9000;0.7798;1.1814;
676.2000;0.7814;1.1885;
676.5000;0.7790;1.1885;
676.8000;0.7782;1.1933;
677.1000;0.7757;1.1885;
677.4000;0.7774;1.2005;
677.7000;0.7766;1.2005;
678.0000;0.7757;1.1957;
678.3000;0.7741;1.1861;
678.6000;0.7782;1.2005;
678.9000;0.7733;1.1861;
679.2000;0.7782;1.1957;
679.5000;0.7766;1.1885;
679.8000;0.7839;1.2077;
680.1000;0.7741;1.1861;
680.4000;0.7733;1.1933;
680.7000;0.7725;1.1981;
681.0000;0.7741;1.1957;
681.3000;0.7733;1.1981;
681.6000;0.7709;1.2053;
681.9000;0.7700;1.2029;
682.2000;0.7700;1.1981;
682.5000;0.7717;1.1957;
682.8000;0.7668;1.1885;
683.1000;0.7700;1.1981;
683.4000;0.7709;1.2005;
683.7000;0.7709;1.2077;
684.0000;0.7684;1.2053;
684.3000;0.7692;1.2029;
684.6000;0.7725;1.2125;
684.9000;0.7684;1.1981;
685.2000;0.7692;1.2149;
685.5000;0.7668;1.2053;
685.8000;0.7660;1.2053;
686.1000;0.7700;1.2077;
686.4000;0.7668;1.2077;
686.7000;0.7660;1.2125;
687.0000;0.7676;1.2149;
687.3000;0.7660;1.2029;
687.6000;0.7635;1.1885;
687.9000;0.7749;1.2149;
688.2000;0.7643;1.2005;
688.5000;0.7749;1.2269;
688.8000;0.7538;1.1837;
689.1000;0.7652;1.2029;
689.4000;0.7603;1.1933;
689.7000;0.7619;1.1909;
690.0000;0.7619;1.1885;
690.3000;0.7660;1.2029;
690.6000;0.7619;1.1909;
690.9000;0.7595;1.1885;
691.2000;0.7595;1.1933;
691.5000;0.7619;1.2029;
691.8000;0.7603;1.1981;
692.1000;0.7611;1.1981;
692.4000;0.7586;1.1909;
692.7000;0.7595;1.1981;
693.0000;0.7586;1.2053;
693.3000;0.7660;1.2221;
693.6000;0.7530;1.1957;
693.9000;0.7578;1.2125;
694.2000;0.7570;1.2197;
694.5000;0.7578;1.2221;
694.8000;0.7562;1.2245;
695.1000;0.7562;1.2269;
695.4000;0.7497;1.2077;
695.7000;0.7562;1.2149;
696.0000;0.7448;1.1814;
696.3000;0.7464;1.1909;
696.6000;0.7505;1.2053;
696.9000;0.7554;1.2173;
697.2000;0.7521;1.2029;
697.5000;0.7521;1.2005;
697.8000;0.7546;1.2077;
698.1000;0.7538;1.2125;
698.4000;0.7538;1.2053;
698.7000;0.7538;1.2077;
699.0000;0.7521;1.2173;
699.3000;0.7513;1.2149;
699.6000;0.7505;1.2221;
699.9000;0.7497;1.2173;
700.2000;0.7481;1.2149;
700.5000;0.7489;1.2221;
700.8000;0.7489;1.2197;
701.1000;0.7497;1.2197;
701.4000;0.7489;1.2149;
701.7000;0.7505;1.2173;
702.0000;0.7464;1.2029;
702.3000;0.7497;1.2077;
702.6000;0.7489;1.2125;
702.9000;0.7497;1.2149;
703.2000;0.7497;1.2101;
703.5000;0.7481;1.2053;
703.8000;0.7481;1.2029;
704.1000;0.7473;1.2005;
704.4000;0.7464;1.2053;
704.7000;0.7497;1.2173;
705.0000;0.7473;1.2029;
705.3000;0.7464;1.2029;
705.6000;0.7473;1.2173;
705.9000;0.7440;1.2245;
706.2000;0.7448;1.2269;
706.5000;0.7440;1.2221;
706.8000;0.7456;1.2317;
707.1000;0.7456;1.2341;
707.4000;0.7440;1.2173;
707.7000;0.7456;1.2173;
708.0000;0.7473;1.2245;
708.3000;0.7473;1.2317;
708.6000;0.7424;1.2149;
708.9000;0.7440;1.2053;
709.2000;0.7383;1.1885;
709.5000;0.7424;1.1957;
709.8000;0.7432;1.1933;
710.1000;0.7432;1.1933;
710.4000;0.7416;1.1861;
710.7000;0.7432;1.1909;
711.0000;0.7416;1.1909;
711.3000;0.7326;1.1790;
711.6000;0.7416;1.2029;
711.9000;0.7407;1.1981;
712.2000;0.7464;1.2053;
712.5000;0.7375;1.1790;
712.8000;0.7416;1.1909;
713.1000;0.7407;1.2053;
713.4000;0.7481;1.2221;
713.7000;0.7391;1.2125;
714.0000;0.7391;1.2149;
714.3000;0.7424;1.2149;
714.6000;0.7391;1.2101;
714.9000;0.7416;1.2029;
715.2000;0.7407;1.2005;
715.5000;0.7391;1.1981;
715.8000;0.7383;1.1885;
716.1000;0.7367;1.1790;
716.4000;0.7342;1.1718;
716.7000;0.7375;1.1790;
717.0000;0.7367;1.1742;
717.3000;0.7375;1.1837;
717.6000;0.7399;1.1885;
717.9000;0.7367;1.1790;
718.2000;0.7367;1.1814;
718.5000;0.7367;1.1861;
718.8000;0.7359;1.1885;
719.1000;0.7375;1.1861;
719.4000;0.7359;1.1909;
719.7000;0.7350;1.1885;
720.0000;0.7285;1.1766;
720.3000;0.7350;1.1861;
720.6000;0.7359;1.1885;
720.9000;0.7342;1.1790;
721.2000;0.7359;1.1766;
721.5000;0.7359;1.1742;
721.8000;0.7350;1.1694;
722.1000;0.7310;1.1670;
722.4000;0.7342;1.1814;
722.7000;0.7318;1.1718;
723.0000;0.7334;1.1670;
723.3000;0.7342;1.1814;
723.6000;0.7326;1.1790;
723.9000;0.7310;1.1885;
724.2000;0.7326;1.1861;
724.5000;0.7318;1.1909;
724.8000;0.7326;1.1933;
725.1000;0.7269;1.1837;
725.4000;0.7310;1.1909;
725.7000;0.7277;1.1837;
726.0000;0.7334;1.1933;
726.3000;0.7277;1.1790;
726.6000;0.7285;1.1909;
726.9000;0.7302;1.1909;
727.2000;0.7326;1.1957;
727.5000;0.7277;1.1814;
727.8000;0.7310;1.1957;
728.1000;0.7310;1.2053;
728.4000;0.7293;1.2005;
728.7000;0.7302;1.2029;
729.0000;0.7293;1.1957;
729.3000;0.7334;1.1957;
729.6000;0.7293;1.1909;
729.9000;0.7310;1.1909;
730.2000;0.7269;1.1814;
730.5000;0.7261;1.1837;
730.8000;0.7285;1.1885;
731.1000;0.7285;1.1909;
731.4000;0.7269;1.1885;
731.7000;0.7277;1.1933;
732.0000;0.7253;1.1933;
732.3000;0.7269;1.2005;
732.6000;0.7188;1.1646;
732.9000;0.7261;1.1814;
733.2000;0.7277;1.1861;
733.5000;0.7277;1.1837;
733.8000;0.7269;1.1861;
734.1000;0.7253;1.1861;
734.4000;0.7245;1.1885;
734.7000;0.7261;1.1981;
735.0000;0.7245;1.1933;
735.3000;0.7171;1.1766;
735.6000;0.7302;1.2053;
735.9000;0.7236;1.1957;
736.2000;0.7236;1.1957;
736.5000;0.7293;1.2125;
736.8000;0.7220;1.1933;
737.1000;0.7228;1.1957;
737.4000;0.7253;1.2029;
737.7000;0.7236;1.2077;
738.0000;0.7253;1.2149;
738.3000;0.7228;1.2125;
738.6000;0.7236;1.2149;
738.9000;0.7236;1.2053;
739.2000;0.7220;1.2029;
739.5000;0.7228;1.2005;
739.8000;0.7228;1.1933;
740.1000;0.7220;1.1957;
740.4000;0.7212;1.1957;
740.7000;0.7220;1.1885;
741.0000;0.7212;1.1933;
741.3000;0.7220;1.1933;
741.6000;0.7204;1.1909;
741.9000;0.7220;1.1933;
742.2000;0.7220;1.1909;
742.5000;0.7196;1.1957;
742.8000;0.7220;1.1957;
743.1000;0.7090;1.1670;
743.4000;0.7196;1.2029;
743.7000;0.7204;1.2077;
744.0000;0.7204;1.2053;
744.3000;0.7179;1.1957;
744.6000;0.7179;1.2029;
744.9000;0.7212;1.2149;
745.2000;0.7212;1.2197;
745.5000;0.7163;1.2125;
745.8000;0.7204;1.2149;
746.1000;0.7179;1.2101;
746.4000;0.7220;1.2269;
746.7000;0.7171;1.2149;
747.0000;0.7171;1.2101;
747.3000;0.7139;1.1957;
747.6000;0.7212;1.2101;
747.9000;0.7179;1.1957;
748.2000;0.7236;1.2173;
748.5000;0.7179;1.1981;
748.8000;0.7188;1.1981;
749.1000;0.7196;1.1933;
749.4000;0.7171;1.1885;
749.7000;0.7188;1.1957;
750.0000;0.7171;1.2005;
750.3000;0.7204;1.2029;
750.6000;0.7163;1.1933;
750.9000;0.7171;1.1909;
751.2000;0.7163;1.1909;
751.5000;0.7171;1.1957;
751.8000;0.7147;1.1957;
752.1000;0.7155;1.1981;
752.4000;0.7171;1.2005;
752.7000;0.7163;1.1981;
753.0000;0.7212;1.2101;
753.3000;0.7188;1.2125;
753.6000;0.7196;1.2077;
753.9000;0.7163;1.1981;
754.2000;0.7163;1.1981;
754.5000;0.7139;1.1981;
754.8000;0.7155;1.2029;
755.1000;0.7114;1.1933;
755.4000;0.7139;1.1981;
755.7000;0.7090;1.1885;
756.0000;0.7106;1.1981;
756.3000;0.7098;1.2029;
756.6000;0.7147;1.2029;
756.9000;0.7155;1.2101;
757.2000;0.7147;1.2125;
757.5000;0.7106;1.2053;
757.8000;0.7123;1.2125;
758.1000;0.7098;1.2149;
758.4000;0.7106;1.2245;
758.7000;0.7147;1.2293;
759.0000;0.7131;1.2245;
759.3000;0.7131;1.2245;
759.6000;0.7098;1.2221;
759.9000;0.7114;1.2293;
760.2000;0.7123;1.2269;
760.5000;0.7131;1.2221;
760.8000;0.7123;1.2173;
761.1000;0.7106;1.2005;
761.4000;0.7114;1.2053;
761.7000;0.7123;1.2077;
762.0000;0.7106;1.2005;
762.3000;0.7114;1.2053;
762.6000;0.7123;1.2077;
762.9000;0.7139;1.2173;
763.2000;0.7106;1.2197;
763.5000;0.7123;1.2221;
763.8000;0.7114;1.2197;
764.1000;0.7106;1.2197;
764.4000;0.7114;1.2149;
764.7000;0.7114;1.2221;
765.0000;0.7106;1.2197;
765.3000;0.7106;1.2197;
765.6000;0.7106;1.2269;
765.9000;0.7082;1.2197;
766.2000;0.7114;1.2221;
766.5000;0.7106;1.2149;
766.8000;0.7098;1.2173;
767.1000;0.7082;1.2149;
767.4000;0.7082;1.2149;
767.7000;0.7090;1.2269;
768.0000;0.7098;1.2317;
768.3000;0.7057;1.2293;
768.6000;0.7066;1.2317;
768.9000;0.7082;1.2269;
769.2000;0.7082;1.2245;
769.5000;0.7074;1.2293;
769.8000;0.7074;1.2245;
770.1000;0.7147;1.2413;
770.4000;0.7090;1.2197;
770.7000;0.7074;1.2221;
771.0000;0.7082;1.2269;
771.3000;0.7082;1.2269;
771.6000;0.7066;1.2149;
771.9000;0.7090;1.2221;
772.2000;0.7090;1.2173;
772.5000;0.7082;1.2101;
772.8000;0.7082;1.2077;
773.1000;0.7082;1.2101;
773.4000;0.7041;1.2005;
773.7000;0.7066;1.2053;
774.0000;0.7090;1.2101;
774.3000;0.7147;1.2365;
774.6000;0.7082;1.2269;
774.9000;0.7041;1.2173;
775.2000;0.7066;1.2149;
775.5000;0.7074;1.2053;
775.8000;0.7025;1.1981;
776.1000;0.7049;1.2053;
776.4000;0.7049;1.2005;
776.7000;0.7057;1.2053;
777.0000;0.7074;1.2125;
777.3000;0.7049;1.2053;
777.6000;0.7025;1.2077;
777.9000;0.7066;1.2149;
778.2000;0.7066;1.2173;
778.5000;0.7066;1.2197;
778.8000;0.7057;1.2173;
779.1000;0.7025;1.2101;
779.4000;0.7066;1.2173;
779.7000;0.7049;1.2149;
780.0000;0.7033;1.2101;
780.3000;0.7066;1.2077;
780.6000;0.7041;1.1909;
780.9000;0.7163;1.2245;
781.2000;0.7025;1.1814;
781.5000;0.7017;1.1814;
781.8000;0.7033;1.1885;
782.1000;0.7090;1.1981;
782.4000;0.7009;1.1837;
782.7000;0.7033;1.1909;
783.0000;0.7041;1.1981;
783.3000;0.7041;1.2005;
783.6000;0.7041;1.2029;
783.9000;0.7057;1.2101;
784.2000;0.7041;1.2125;
784.5000;0.7033;1.2173;
784.8000;0.7106;1.2317;
785.1000;0.7000;1.2101;
785.4000;0.7025;1.2077;
785.7000;0.7025;1.2101;
786.0000;0.7041;1.2125;
786.3000;0.6968;1.2005;
786.6000;0.7000;1.2053;
786.9000;0.7041;1.2245;
787.2000;0.7049;1.2293;
787.5000;0.6976;1.2197;
787.8000;0.7009;1.2341;
788.1000;0.7114;1.2532;
788.4000;0.7025;1.2389;
788.7000;0.7017;1.2317;
789.0000;0.7017;1.2245;
789.3000;0.7025;1.2101;
789.6000;0.7000;1.2101;
789.9000;0.7000;1.2077;
790.2000;0.7009;1.2101;
790.5000;0.6992;1.2029;
790.8000;0.7025;1.2125;
791.1000;0.7033;1.2149;
791.4000;0.7041;1.2269;
791.7000;0.6943;1.2077;
792.0000;0.6992;1.2293;
792.3000;0.7041;1.2389;
792.6000;0.7000;1.2293;
792.9000;0.7009;1.2293;
793.2000;0.7025;1.2317;
793.5000;0.6976;1.2173;
793.8000;0.7009;1.2173;
794.1000;0.7074;1.2317;
794.4000;0.7000;1.2125;
794.7000;0.7000;1.2125;
795.0000;0.7000;1.2125;
795.3000;0.7000;1.2173;
795.6000;0.7017;1.2173;
795.9000;0.6992;1.2149;
796.2000;0.7009;1.2221;
796.5000;0.7000;1.2101;
796.8000;0.6984;1.2125;
797.1000;0.6992;1.2125;
797.4000;0.6984;1.2029;
797.7000;0.7033;1.2077;
798.0000;0.7009;1.2005;
798.3000;0.6984;1.1933;
798.6000;0.6984;1.1957;
798.9000;0.7000;1.1933;
799.2000;0.7009;1.2005;
799.5000;0.7000;1.2005;
799.8000;0.6976;1.2077;
800.1000;0.6984;1.2125;
800.4000;0.7000;1.2101;
800.7000;0.6952;1.2005;
801.0000;0.6968;1.1981;
801.3000;0.6968;1.1981;
801.6000;0.6984;1.2101;
801.9000;0.6984;1.2149;
802.2000;0.6992;1.2149;
802.5000;0.6992;1.2149;
802.8000;0.6984;1.2125;
803.1000;0.6992;1.2197;
803.4000;0.6976;1.2149;
803.7000;0.7009;1.2269;
804.0000;0.6895;1.2053;
804.3000;0.6952;1.2077;
804.6000;0.6968;1.2101;
804.9000;0.6976;1.2077;
805.2000;0.6984;1.2101;
805.5000;0.6935;1.1981;
805.8000;0.7041;1.2101;
806.1000;0.6968;1.2005;
806.4000;0.6984;1.2029;
806.7000;0.6976;1.2029;
807.0000;0.6952;1.2005;
807.3000;0.6960;1.2125;
807.6000;0.6976;1.2101;
807.9000;0.7025;1.2149;
808.2000;0.6992;1.2029;
808.5000;0.6984;1.2053;
808.8000;0.6952;1.1909;
809.1000;0.6976;1.1909;
809.4000;0.6952;1.1981;
809.7000;0.6960;1.2005;
810.0000;0.6935;1.1885;
810.3000;0.6935;1.1909;
810.6000;0.6968;1.1957;
810.9000;0.6976;1.2029;
811.2000;0.6992;1.2101;
811.5000;0.7000;1.2197;
811.8000;0.6960;1.2053;
812.1000;0.6935;1.1957;
812.4000;0.6976;1.1981;
812.7000;0.6943;1.1981;
813.0000;0.7000;1.2221;
813.3000;0.6943;1.2053;
813.6000;0.6886;1.1861;
813.9000;0.6960;1.1933;
814.2000;0.6935;1.1933;
814.5000;0.6943;1.1981;
814.8000;0.6952;1.2029;
815.1000;0.6952;1.2077;
815.4000;0.6943;1.1981;
815.7000;0.6927;1.1957;
816.0000;0.6935;1.2029;
816.3000;0.6927;1.1933;
816.6000;0.6943;1.1957;
816.9000;0.6952;1.1957;
817.2000;0.6927;1.1957;
817.5000;0.6927;1.2029;
817.8000;0.6943;1.2125;
818.1000;0.6943;1.2053;
818.4000;0.6960;1.2077;
818.7000;0.6943;1.2077;
819.0000;0.6968;1.2077;
819.3000;0.6960;1.2053;
819.6000;0.6935;1.2005;
819.9000;0.6919;1.1957;
820.2000;0.6943;1.1909;
820.5000;0.6943;1.1957;
820.8000;0.6943;1.2005;
821.1000;0.6943;1.2005;
821.4000;0.6960;1.2101;
821.7000;0.6943;1.2077;
822.0000;0.6919;1.2005;
822.3000;0.6935;1.2077;
822.6000;0.6911;1.2077;
822.9000;0.6878;1.2077;
823.2000;0.6911;1.2125;
823.5000;0.6935;1.2197;
823.8000;0.6943;1.2245;
824.1000;0.6935;1.2173;
824.4000;0.6895;1.2149;
824.7000;0.6935;1.2197;
825.0000;0.6943;1.2269;
825.3000;0.6919;1.2197;
825.6000;0.6927;1.2269;
825.9000;0.6911;1.2341;
826.2000;0.6927;1.2413;
826.5000;0.6846;1.2149;
826.8000;0.6943;1.2341;
827.1000;0.6870;1.2173;
827.4000;0.6935;1.2389;
827.7000;0.6911;1.2269;
828.0000;0.6952;1.2437;
828.3000;0.6919;1.2365;
828.6000;0.6895;1.2269;
828.9000;0.6943;1.2437;
829.2000;0.6952;1.2389;
829.5000;0.6935;1.2389;
829.8000;0.7009;1.2508;
830.1000;0.6919;1.2317;
830.4000;0.6911;1.2269;
830.7000;0.6911;1.2341;
831.0000;0.6911;1.2293;
831.3000;0.6911;1.2413;
831.6000;0.6919;1.2389;
831.9000;0.6878;1.2437;
832.2000;0.6895;1.2389;
832.5000;0.6895;1.2413;
832.8000;0.6862;1.2365;
833.1000;0.6911;1.2365;
833.4000;0.6886;1.2245;
833.7000;0.6886;1.2101;
834.0000;0.6895;1.2101;
834.3000;0.6878;1.2125;
834.6000;0.6903;1.2077;
834.9000;0.7000;1.2365;
835.2000;0.6838;1.1933;
835.5000;0.6919;1.2077;
835.8000;0.6903;1.2053;
836.1000;0.6895;1.2005;
836.4000;0.6895;1.2101;
836.7000;0.6886;1.2053;
837.0000;0.6903;1.2101;
837.3000;0.6886;1.2077;
837.6000;0.6903;1.2149;
837.9000;0.6903;1.2149;
838.2000;0.6903;1.2149;
838.5000;0.6903;1.2029;
838.8000;0.6878;1.1933;
839.1000;0.6903;1.2077;
839.4000;0.6878;1.2029;
839.7000;0.6895;1.2029;
840.0000;0.6903;1.2053;
840.3000;0.6886;1.2029;
840.6000;0.6878;1.1981;
840.9000;0.6878;1.1933;
841.2000;0.6911;1.1957;
841.5000;0.6895;1.2029;
841.8000;0.6886;1.2077;
842.1000;0.6886;1.2101;
842.4000;0.6862;1.2077;
842.7000;0.6870;1.2101;
843.0000;0.6870;1.2101;
843.3000;0.6772;1.1790;
843.6000;0.6870;1.2053;
843.9000;0.6854;1.2005;
844.2000;0.6886;1.2173;
844.5000;0.6878;1.2221;
844.8000;0.6854;1.2173;
845.1000;0.6862;1.2245;
845.4000;0.6919;1.2389;
845.7000;0.6895;1.2197;
846.0000;0.6870;1.2173;
846.3000;0.6886;1.2197;
846.6000;0.6886;1.2053;
846.9000;0.6895;1.2101;
847.2000;0.6870;1.2005;
847.5000;0.6903;1.2173;
847.8000;0.6838;1.2029;
848.1000;0.6862;1.2053;
848.4000;0.6862;1.2101;
848.7000;0.6838;1.2029;
849.0000;0.6870;1.2149;
849.3000;0.6895;1.2125;
849.6000;0.6854;1.2125;
849.9000;0.6886;1.2173;
850.2000;0.6895;1.2101;
850.5000;0.6878;1.2125;
850.8000;0.6878;1.2173;
851.1000;0.6854;1.2101;
851.4000;0.6878;1.2197;
851.7000;0.6870;1.2173;
852.0000;0.6870;1.2245;
852.3000;0.6919;1.2341;
852.6000;0.6935;1.2365;
852.9000;0.6862;1.2149;
853.2000;0.6870;1.2101;
853.5000;0.6854;1.2029;
853.8000;0.6854;1.2053;
854.1000;0.6862;1.2029;
854.4000;0.6878;1.2101;
854.7000;0.6862;1.2053;
855.0000;0.6895;1.2125;
855.3000;0.6870;1.2125;
855.6000;0.6862;1.2269;
855.9000;0.6870;1.2317;
856.2000;0.6862;1.2293;
856.5000;0.6854;1.2125;
856.8000;0.6854;1.2293;
857.1000;0.6862;1.2221;
857.4000;0.6870;1.2197;
857.7000;0.6829;1.2077;
858.0000;0.6846;1.2053;
858.3000;0.6846;1.2053;
858.6000;0.6821;1.1981;
858.9000;0.6854;1.2029;
859.2000;0.6846;1.2029;
859.5000;0.6862;1.2125;
859.8000;0.6838;1.2149;
860.1000;0.6862;1.2173;
860.4000;0.6878;1.2221;
860.7000;0.6846;1.2197;
861.0000;0.6854;1.2245;
861.3000;0.6838;1.2245;
861.6000;0.6846;1.2245;
861.9000;0.6846;1.2245;
862.2000;0.6846;1.2221;
862.5000;0.6838;1.2269;
862.8000;0.6846;1.2269;
863.1000;0.6870;1.2317;
863.4000;0.6854;1.2317;
863.7000;0.6854;1.2293;
864.0000;0.6846;1.2317;
864.3000;0.6805;1.2293;
864.6000;0.6870;1.2437;
864.9000;0.6854;1.2389;
865.2000;0.6846;1.2413;
865.5000;0.6838;1.2365;
865.8000;0.6854;1.2461;
866.1000;0.6846;1.2437;
866.4000;0.6862;1.2413;
866.7000;0.6829;1.2341;
867.0000;0.6846;1.2293;
867.3000;0.6846;1.2365;
867.6000;0.6838;1.2365;
867.9000;0.6821;1.2365;
868.2000;0.6895;1.2461;
868.5000;0.6846;1.2389;
868.8000;0.6789;1.2197;
869.1000;0.6813;1.2245;
869.4000;0.6862;1.2317;
869.7000;0.6821;1.2293;
870.0000;0.6854;1.2389;
870.3000;0.6732;1.1981;
870.6000;0.6829;1.2197;
870.9000;0.6846;1.2365;
871.2000;0.6838;1.2341;
871.5000;0.6805;1.2293;
871.8000;0.6838;1.2461;
872.1000;0.6846;1.2389;
872.4000;0.6846;1.2413;
872.7000;0.6829;1.2389;
873.0000;0.6838;1.2365;
873.3000;0.6870;1.2341;
873.6000;0.6838;1.2245;
873.9000;0.6829;1.2269;
874.2000;0.6846;1.2245;
874.5000;0.6829;1.2317;
874.8000;0.6829;1.2317;
875.1000;0.6846;1.2365;
875.4000;0.6838;1.2341;
875.7000;0.6829;1.2341;
876.0000;0.6862;1.2341;
876.3000;0.6838;1.2365;
876.6000;0.6838;1.2245;
876.9000;0.6878;1.2341;
877.2000;0.6829;1.2197;
877.5000;0.6838;1.2269;
877.8000;0.6886;1.2484;
878.1000;0.6838;1.2317;
878.4000;0.6821;1.2197;
878.7000;0.6846;1.2341;
879.0000;0.6781;1.2149;
879.3000;0.6821;1.2245;
879.6000;0.6838;1.2293;
879.9000;0.6756;1.2077;
880.2000;0.6846;1.2341;
880.5000;0.6821;1.2365;
880.8000;0.6821;1.2341;
881.1000;0.6829;1.2389;
881.4000;0.6846;1.2389;
881.7000;0.6789;1.2341;
882.0000;0.6797;1.2293;
882.3000;0.6821;1.2437;
882.6000;0.6821;1.2508;
882.9000;0.6870;1.2628;
883.2000;0.6797;1.2341;
883.5000;0.6789;1.2389;
883.8000;0.6805;1.2484;
884.1000;0.6805;1.2437;
884.4000;0.6829;1.2556;
884.7000;0.6797;1.2556;
885.0000;0.6813;1.2532;
885.3000;0.6821;1.2484;
885.6000;0.6821;1.2484;
885.9000;0.6805;1.2437;
886.2000;0.6821;1.2484;
886.5000;0.6821;1.2461;
886.8000;0.6821;1.2437;
887.1000;0.6813;1.2341;
887.4000;0.6813;1.2389;
887.7000;0.6805;1.2461;
888.0000;0.6805;1.2461;
888.3000;0.6789;1.2461;
888.6000;0.6813;1.2461;
888.9000;0.6797;1.2413;
889.2000;0.6805;1.2437;
889.5000;0.6789;1.2413;
889.8000;0.6756;1.2269;
890.1000;0.6797;1.2317;
890.4000;0.6838;1.2365;
890.7000;0.6829;1.2317;
891.0000;0.6813;1.2317;
891.3000;0.6854;1.2484;
891.6000;0.6813;1.2437;
891.9000;0.6748;1.2269;
892.2000;0.6797;1.2484;
892.5000;0.6789;1.2580;
892.8000;0.6797;1.2556;
893.1000;0.6789;1.2532;
893.4000;0.6805;1.2532;
893.7000;0.6781;1.2437;
894.0000;0.6789;1.2341;
894.3000;0.6805;1.2389;
894.6000;0.6854;1.2484;
894.9000;0.6748;1.2221;
895.2000;0.6772;1.2245;
895.5000;0.6789;1.2341;
895.8000;0.6789;1.2413;
896.1000;0.6772;1.2461;
896.4000;0.6805;1.2461;
896.7000;0.6813;1.2508;
897.0000;0.6797;1.2437;
897.3000;0.6789;1.2437;
897.6000;0.6805;1.2484;
897.9000;0.6797;1.2508;
898.2000;0.6813;1.2556;
898.5000;0.6797;1.2532;
898.8000;0.6797;1.2484;
899.1000;0.6772;1.2532;
899.4000;0.6805;1.2628;
899.7000;0.6805;1.2604;
900.0000;0.6797;1.2532;
900.3000;0.6805;1.2532;
900.6000;0.6789;1.2532;
900.9000;0.6846;1.2604;
901.2000;0.6813;1.2556;
901.5000;0.6789;1.2580;
901.8000;0.6805;1.2628;
902.1000;0.6797;1.2508;
902.4000;0.6805;1.2413;
902.7000;0.6805;1.2484;
903.0000;0.6797;1.2389;
903.3000;0.6805;1.2437;
903.6000;0.6789;1.2437;
903.9000;0.6854;1.2484;
904.2000;0.6789;1.2245;
904.5000;0.6797;1.2293;
904.8000;0.6748;1.2197;
905.1000;0.6789;1.2317;
905.4000;0.6781;1.2389;
905.7000;0.6772;1.2389;
906.0000;0.6797;1.2365;
906.3000;0.6805;1.2389;
906.6000;0.6732;1.2293;
906.9000;0.6805;1.2413;
907.2000;0.6764;1.2317;
907.5000;0.6772;1.2389;
907.8000;0.6797;1.2413;
908.1000;0.6805;1.2461;
908.4000;0.6789;1.2437;
908.7000;0.6772;1.2437;
909.0000;0.6781;1.2461;
909.3000;0.6781;1.2317;
909.6000;0.6772;1.2341;
909.9000;0.6772;1.2341;
910.2000;0.6797;1.2365;
910.5000;0.6789;1.2341;
910.8000;0.6789;1.2293;
911.1000;0.6781;1.2317;
911.4000;0.6772;1.2317;
911.7000;0.6781;1.2365;
912.0000;0.6797;1.2365;
912.3000;0.6789;1.2245;
912.6000;0.6756;1.2149;
912.9000;0.6797;1.2293;
913.2000;0.6781;1.2293;
913.5000;0.6781;1.2245;
913.8000;0.6772;1.2293;
914.1000;0.6772;1.2245;
914.4000;0.6781;1.2245;
914.7000;0.6756;1.2197;
915.0000;0.6789;1.2317;
915.3000;0.6748;1.2293;
915.6000;0.6772;1.2437;
915.9000;0.6813;1.2508;
916.2000;0.6756;1.2437;
916.5000;0.6772;1.2461;
916.8000;0.6781;1.2461;
917.1000;0.6781;1.2484;
917.4000;0.6756;1.2413;
917.7000;0.6764;1.2484;
918.0000;0.6748;1.2461;
918.3000;0.6781;1.2580;
918.6000;0.6781;1.2508;
918.9000;0.6772;1.2532;
919.2000;0.6764;1.2604;
919.5000;0.6781;1.2700;
919.8000;0.6838;1.2796;
920.1000;0.6699;1.2484;
920.4000;0.6699;1.2461;
920.7000;0.6772;1.2724;
921.0000;0.6772;1.2700;
921.3000;0.6797;1.2700;
921.6000;0.6781;1.2580;
921.9000;0.6740;1.2413;
922.2000;0.6813;1.2676;
922.5000;0.6772;1.2676;
922.8000;0.6772;1.2652;
923.1000;0.6781;1.2748;
923.4000;0.6772;1.2700;
923.7000;0.6764;1.2700;
924.0000;0.6772;1.2652;
924.3000;0.6772;1.2700;
924.6000;0.6748;1.2580;
924.9000;0.6797;1.2604;
925.2000;0.6756;1.2365;
925.5000;0.6772;1.2365;
925.8000;0.6764;1.2484;
926.1000;0.6781;1.2508;
926.4000;0.6821;1.2604;
926.7000;0.6756;1.2437;
927.0000;0.6740;1.2389;
927.3000;0.6764;1.2365;
927.6000;0.6764;1.2389;
927.9000;0.6764;1.2437;
928.2000;0.6724;1.2365;
928.5000;0.6748;1.2413;
928.8000;0.6756;1.2437;
929.1000;0.6756;1.2389;
929.4000;0.6756;1.2389;
929.7000;0.6748;1.2437;
930.0000;0.6772;1.2461;
930.3000;0.6748;1.2484;
930.6000;0.6740;1.2437;
930.9000;0.6764;1.2365;
931.2000;0.6756;1.2269;
931.5000;0.6772;1.2365;
931.8000;0.6748;1.2317;
932.1000;0.6764;1.2317;
932.4000;0.6756;1.2341;
932.7000;0.6756;1.2317;
933.0000;0.6740;1.2269;
933.3000;0.6772;1.2269;
933.6000;0.6756;1.2269;
933.9000;0.6764;1.2484;
934.2000;0.6756;1.2484;
934.5000;0.6756;1.2413;
934.8000;0.6756;1.2437;
935.1000;0.6756;1.2484;
935.4000;0.6707;1.2389;
935.7000;0.6732;1.2508;
936.0000;0.6740;1.2461;
936.3000;0.6732;1.2437;
936.6000;0.6764;1.2508;
936.9000;0.6724;1.2389;
937.2000;0.6764;1.2556;
937.5000;0.6724;1.2484;
937.8000;0.6756;1.2437;
938.1000;0.6781;1.2461;
938.4000;0.6732;1.2461;
938.7000;0.6781;1.2508;
939.0000;0.6740;1.2461;
939.3000;0.6724;1.2508;
939.6000;0.6716;1.2461;
939.9000;0.6724;1.2532;
940.2000;0.6764;1.2532;
940.5000;0.6740;1.2365;
940.8000;0.6740;1.2245;
941.1000;0.6724;1.2197;
941.4000;0.6740;1.2197;
941.7000;0.6732;1.2317;
942.0000;0.6748;1.2365;
942.3000;0.6732;1.2365;
942.6000;0.6764;1.2389;
942.9000;0.6740;1.2365;
943.2000;0.6748;1.2365;
943.5000;0.6805;1.2556;
943.8000;0.6748;1.2461;
944.1000;0.6740;1.2389;
944.4000;0.6707;1.2389;
944.7000;0.6732;1.2508;
945.0000;0.6740;1.2628;
945.3000;0.6732;1.2724;
945.6000;0.6740;1.2628;
945.9000;0.6740;1.2700;
946.2000;0.6740;1.2628;
946.5000;0.6724;1.2508;
946.8000;0.6732;1.2484;
947.1000;0.6732;1.2413;
947.4000;0.6748;1.2532;
947.7000;0.6756;1.2556;
948.0000;0.6748;1.2437;
948.3000;0.6740;1.2389;
948.6000;0.6740;1.2341;
948.9000;0.6732;1.2341;
949.2000;0.6724;1.2389;
949.5000;0.6748;1.2508;
949.8000;0.6724;1.2341;
950.1000;0.6740;1.2365;
950.4000;0.6732;1.2317;
950.7000;0.6716;1.2317;
951.0000;0.6789;1.2508;
951.3000;0.6756;1.2413;
951.6000;0.6724;1.2317;
951.9000;0.6724;1.2293;
952.2000;0.6716;1.2341;
952.5000;0.6716;1.2389;
952.8000;0.6732;1.2389;
953.1000;0.6707;1.2269;
953.4000;0.6724;1.2269;
953.7000;0.6732;1.2197;
954.0000;0.6732;1.2269;
954.3000;0.6691;1.2149;
954.6000;0.6724;1.2293;
954.9000;0.6707;1.2245;
955.2000;0.6699;1.2317;
955.5000;0.6740;1.2437;
955.8000;0.6732;1.2365;
956.1000;0.6732;1.2365;
956.4000;0.6732;1.2413;
956.7000;0.6740;1.2484;
957.0000;0.6756;1.2532;
957.3000;0.6740;1.2508;
957.6000;0.6724;1.2317;
957.9000;0.6716;1.2389;
958.2000;0.6732;1.2437;
958.5000;0.6732;1.2437;
958.8000;0.6732;1.2389;
959.1000;0.6740;1.2341;
959.4000;0.6740;1.2389;
959.7000;0.6716;1.2317;
960.0000;0.6716;1.2389;
960.3000;0.6740;1.2484;
960.6000;0.6732;1.2580;
960.9000;0.6732;1.2556;
961.2000;0.6691;1.2532;
961.5000;0.6740;1.2676;
961.8000;0.6724;1.2700;
962.1000;0.6634;1.2508;
962.4000;0.6691;1.2652;
962.7000;0.6716;1.2604;
963.0000;0.6716;1.2628;
963.3000;0.6716;1.2532;
963.6000;0.6716;1.2556;
963.9000;0.6748;1.2628;
964.2000;0.6732;1.2604;
964.5000;0.6716;1.2461;
964.8000;0.6716;1.2461;
965.1000;0.6691;1.2365;
965.4000;0.6716;1.2389;
965.7000;0.6732;1.2389;
966.0000;0.6740;1.2437;
966.3000;0.6707;1.2413;
966.6000;0.6716;1.2365;
966.9000;0.6781;1.2532;
967.2000;0.6716;1.2413;
967.5000;0.6699;1.2317;
967.8000;0.6699;1.2413;
968.1000;0.6683;1.2389;
968.4000;0.6642;1.2317;
968.7000;0.6707;1.2461;
969.0000;0.6683;1.2484;
969.3000;0.6724;1.2628;
969.6000;0.6716;1.2532;
969.9000;0.6716;1.2580;
970.2000;0.6707;1.2532;
970.5000;0.6707;1.2484;
970.8000;0.6716;1.2532;
971.1000;0.6740;1.2604;
971.4000;0.6683;1.2341;
971.7000;0.6716;1.2317;
972.0000;0.6716;1.2461;
972.3000;0.6699;1.2532;
972.6000;0.6716;1.2604;
972.9000;0.6716;1.2604;
973.2000;0.6724;1.2580;
973.5000;0.6724;1.2484;
973.8000;0.6724;1.2484;
974.1000;0.6699;1.2461;
974.4000;0.6699;1.2389;
974.7000;0.6699;1.2461;
975.0000;0.6707;1.2508;
975.3000;0.6724;1.2628;
975.6000;0.6716;1.2580;
975.9000;0.6716;1.2532;
976.2000;0.6618;1.2293;
976.5000;0.6699;1.2508;
976.8000;0.6724;1.2580;
977.1000;0.6724;1.2556;
977.4000;0.6716;1.2532;
977.7000;0.6756;1.2700;
978.0000;0.6724;1.2628;
978.3000;0.6659;1.2413;
978.6000;0.6707;1.2508;
978.9000;0.6699;1.2484;
979.2000;0.6699;1.2484;
979.5000;0.6699;1.2532;
979.8000;0.6699;1.2556;
980.1000;0.6691;1.2437;
980.4000;0.6659;1.2341;
980.7000;0.6699;1.2389;
981.0000;0.6699;1.2317;
981.3000;0.6707;1.2389;
981.6000;0.6683;1.2437;
981.9000;0.6716;1.2556;
982.2000;0.6724;1.2508;
982.5000;0.6699;1.2365;
982.8000;0.6699;1.2389;
983.1000;0.6716;1.2461;
983.4000;0.6732;1.2508;
983.7000;0.6707;1.2413;
984.0000;0.6707;1.2461;
984.3000;0.6707;1.2389;
984.6000;0.6716;1.2341;
984.9000;0.6707;1.2341;
985.2000;0.6716;1.2437;
985.5000;0.6683;1.2413;
985.8000;0.6683;1.2365;
986.1000;0.6724;1.2389;
986.4000;0.6797;1.2556;
986.7000;0.6691;1.2317;
987.0000;0.6699;1.2413;
987.3000;0.6699;1.2437;
987.6000;0.6699;1.2484;
987.9000;0.6691;1.2508;
988.2000;0.6642;1.2461;
988.5000;0.6699;1.2628;
988.8000;0.6707;1.2652;
989.1000;0.6699;1.2604;
989.4000;0.6675;1.2604;
989.7000;0.6707;1.2628;
990.0000;0.6691;1.2580;
990.3000;0.6691;1.2532;
990.6000;0.6716;1.2484;
990.9000;0.6691;1.2437;
991.2000;0.6716;1.2437;
991.5000;0.6699;1.2389;
991.8000;0.6707;1.2437;
992.1000;0.6716;1.2508;
992.4000;0.6716;1.2508;
992.7000;0.6675;1.2437;
993.0000;0.6707;1.2556;
993.3000;0.6707;1.2652;
993.6000;0.6707;1.2628;
993.9000;0.6683;1.2628;
994.2000;0.6659;1.2628;
994.5000;0.6683;1.2556;
994.8000;0.6683;1.2532;
995.1000;0.6699;1.2604;
995.4000;0.6683;1.2628;
995.7000;0.6675;1.2652;
996.0000;0.6691;1.2676;
996.3000;0.6667;1.2604;
996.6000;0.6683;1.2580;
996.9000;0.6675;1.2556;
997.2000;0.6642;1.2389;
997.5000;0.6691;1.2532;
997.8000;0.6683;1.2532;
998.1000;0.6683;1.2580;
998.4000;0.6691;1.2532;
998.7000;0.6691;1.2508;
999.0000;0.6683;1.2437;
999.3000;0.6691;1.2365;
999.6000;0.6683;1.2341;
999.9000;0.6691;1.2269;
1000.2000;0.6675;1.2221;
1000.5000;0.6691;1.2221;
1000.8000;0.6667;1.2173;
1001.1000;0.6675;1.2221;
1001.4000;0.6683;1.2149;
1001.7000;0.6667;1.2293;
1002.0000;0.6691;1.2317;
1002.3000;0.6618;1.2101;
1002.6000;0.6659;1.2269;
1002.9000;0.6699;1.2317;
1003.2000;0.6667;1.2317;
1003.5000;0.6691;1.2245;
1003.8000;0.6699;1.2269;
1004.1000;0.6691;1.2269;
1004.4000;0.6748;1.2437;
1004.7000;0.6667;1.2221;
1005.0000;0.6724;1.2341;
1005.3000;0.6699;1.2149;
1005.6000;0.6707;1.2221;
1005.9000;0.6724;1.2269;
1006.2000;0.6691;1.2269;
1006.5000;0.6707;1.2317;
1006.8000;0.6667;1.2245;
1007.1000;0.6699;1.2341;
1007.4000;0.6707;1.2341;
1007.7000;0.6683;1.2317;
1008.0000;0.6683;1.2293;
1008.3000;0.6699;1.2437;
1008.6000;0.6626;1.2389;
1008.9000;0.6716;1.2556;
1009.2000;0.6667;1.2437;
1009.5000;0.6691;1.2461;
1009.8000;0.6593;1.2173;
1010.1000;0.6772;1.2532;
1010.4000;0.6667;1.2245;
1010.7000;0.6610;1.2197;
1011.0000;0.6748;1.2508;
1011.3000;0.6683;1.2317;
1011.6000;0.6683;1.2341;
1011.9000;0.6659;1.2341;
1012.2000;0.6683;1.2341;
1012.5000;0.6724;1.2365;
1012.8000;0.6675;1.2341;
1013.1000;0.6716;1.2652;
1013.4000;0.6691;1.2484;
1013.7000;0.6683;1.2413;
1014.0000;0.6683;1.2484;
1014.3000;0.6683;1.2484;
1014.6000;0.6675;1.2437;
1014.9000;0.6675;1.2508;
1015.2000;0.6683;1.2580;
1015.5000;0.6683;1.2461;
1015.8000;0.6699;1.2604;
1016.1000;0.6683;1.2580;
1016.4000;0.6659;1.2580;
1016.7000;0.6667;1.2604;
1017.0000;0.6675;1.2580;
1017.3000;0.6667;1.2580;
1017.6000;0.6707;1.2676;
1017.9000;0.6675;1.2532;
1018.2000;0.6675;1.2508;
1018.5000;0.6683;1.2580;
1018.8000;0.6683;1.2628;
1019.1000;0.6683;1.2580;
1019.4000;0.6667;1.2604;
1019.7000;0.6626;1.2604;
1020.0000;0.6577;1.2461;
1020.3000;0.6691;1.2676;
1020.6000;0.6683;1.2652;
1020.9000;0.6707;1.2700;
1021.2000;0.6659;1.2580;
1021.5000;0.6667;1.2652;
1021.8000;0.6683;1.2724;
1022.1000;0.6634;1.2604;
1022.4000;0.6740;1.2868;
1022.7000;0.6707;1.2796;
1023.0000;0.6667;1.2748;
1023.3000;0.6659;1.2628;
1023.6000;0.6659;1.2604;
1023.9000;0.6707;1.2748;
1024.2000;0.6675;1.2580;
1024.5000;0.6683;1.2532;
1024.8000;0.6667;1.2484;
1025.1000;0.6650;1.2437;
1025.4000;0.6691;1.2484;
1025.7000;0.6675;1.2413;
1026.0000;0.6691;1.2437;
1026.3000;0.6650;1.2341;
1026.6000;0.6675;1.2317;
1026.9000;0.6675;1.2341;
1027.2000;0.6667;1.2437;
1027.5000;0.6634;1.2413;
1027.8000;0.6675;1.2437;
1028.1000;0.6667;1.2461;
1028.4000;0.6659;1.2484;
1028.7000;0.6683;1.2508;
1029.0000;0.6683;1.2532;
1029.3000;0.6691;1.2628;
1029.6000;0.6683;1.2652;
1029.9000;0.6683;1.2556;
1030.2000;0.6675;1.2556;
1030.5000;0.6683;1.2484;
1030.8000;0.6691;1.2484;
1031.1000;0.6683;1.2532;
1031.4000;0.6602;1.2293;
1031.7000;0.6602;1.2341;
1032.0000;0.6650;1.2580;
1032.3000;0.6634;1.2628;
1032.6000;0.6650;1.2628;
1032.9000;0.6691;1.2772;
1033.2000;0.6667;1.2724;
1033.5000;0.6683;1.2772;
1033.8000;0.6683;1.2628;
1034.1000;0.6691;1.2700;
1034.4000;0.6683;1.2604;
1034.7000;0.6659;1.2580;
1035.0000;0.6642;1.2556;
1035.3000;0.6650;1.2508;
1035.6000;0.6667;1.2484;
1035.9000;0.6675;1.2484;
1036.2000;0.6667;1.2508;
1036.5000;0.6732;1.2724;
1036.8000;0.6675;1.2604;
1037.1000;0.6675;1.2652;
1037.4000;0.6699;1.2820;
1037.7000;0.6675;1.2724;
1038.0000;0.6659;1.2700;
1038.3000;0.6691;1.2796;
1038.6000;0.6650;1.2772;
1038.9000;0.6659;1.2844;
1039.2000;0.6659;1.2892;
1039.5000;0.6724;1.2964;
1039.8000;0.6675;1.2772;
1040.1000;0.6683;1.2748;
1040.4000;0.6667;1.2724;
1040.7000;0.6675;1.2556;
1041.0000;0.6667;1.2508;
1041.3000;0.6691;1.2628;
1041.6000;0.6659;1.2604;
1041.9000;0.6675;1.2676;
1042.2000;0.6642;1.2652;
1042.5000;0.6626;1.2652;
1042.8000;0.6634;1.2676;
1043.1000;0.6748;1.3084;
1043.4000;0.6659;1.2844;
1043.7000;0.6659;1.2844;
1044.0000;0.6683;1.2868;
1044.3000;0.6667;1.2796;
1044.6000;0.6675;1.2748;
1044.9000;0.6659;1.2676;
1045.2000;0.6675;1.2772;
1045.5000;0.6675;1.2748;
1045.8000;0.6650;1.2772;
1046.1000;0.6667;1.2724;
1046.4000;0.6650;1.2700;
1046.7000;0.6650;1.2628;
1047.0000;0.6683;1.2700;
1047.3000;0.6683;1.2820;
1047.6000;0.6642;1.2820;
1047.9000;0.6642;1.2820;
1048.2000;0.6650;1.2820;
1048.5000;0.6618;1.2580;
1048.8000;0.6650;1.2628;
1049.1000;0.6650;1.2652;
1049.4000;0.6650;1.2700;
1049.7000;0.6667;1.2700;
1050.0000;0.6683;1.2676;
1050.3000;0.6667;1.2652;
1050.6000;0.6650;1.2604;
1050.9000;0.6667;1.2652;
1051.2000;0.6699;1.2724;
1051.5000;0.6667;1.2676;
1051.8000;0.6659;1.2532;
1052.1000;0.6699;1.2604;
1052.4000;0.6634;1.2556;
1052.7000;0.6634;1.2532;
1053.0000;0.6650;1.2556;
1053.3000;0.6618;1.2389;
1053.6000;0.6593;1.2437;
1053.9000;0.6675;1.2748;
1054.2000;0.6659;1.2676;
1054.5000;0.6659;1.2772;
1054.8000;0.6667;1.2748;
1055.1000;0.6634;1.2796;
1055.4000;0.6659;1.2868;
1055.7000;0.6561;1.2508;
1056.0000;0.6618;1.2700;
1056.3000;0.6659;1.2796;
1056.6000;0.6634;1.2796;
1056.9000;0.6650;1.2796;
1057.2000;0.6667;1.2796;
1057.5000;0.6675;1.2724;
1057.8000;0.6642;1.2532;
1058.1000;0.6650;1.2556;
1058.4000;0.6659;1.2508;
1058.7000;0.6659;1.2508;
1059.0000;0.6626;1.2413;
1059.3000;0.6618;1.2389;
1059.6000;0.6659;1.2508;
1059.9000;0.6667;1.2652;
1060.2000;0.6626;1.2532;
1060.5000;0.6699;1.2796;
1060.8000;0.6642;1.2772;
1061.1000;0.6634;1.2724;
1061.4000;0.6659;1.2796;
1061.7000;0.6650;1.2796;
1062.0000;0.6650;1.2724;
1062.3000;0.6642;1.2796;
1062.6000;0.6650;1.2724;
1062.9000;0.6642;1.2700;
1063.2000;0.6642;1.2796;
1063.5000;0.6667;1.2820;
1063.8000;0.6659;1.2820;
1064.1000;0.6634;1.2700;
1064.4000;0.6659;1.2724;
1064.7000;0.6650;1.2724;
1065.0000;0.6650;1.2700;
1065.3000;0.6659;1.2748;
1065.6000;0.6642;1.2820;
1065.9000;0.6642;1.2772;
1066.2000;0.6642;1.2844;
1066.5000;0.6634;1.2820;
1066.8000;0.6642;1.2724;
1067.1000;0.6626;1.2748;
1067.4000;0.6642;1.2844;
1067.7000;0.6553;1.2700;
1068.0000;0.6642;1.2988;
1068.3000;0.6642;1.3012;
1068.6000;0.6642;1.2940;
1068.9000;0.6642;1.2916;
1069.2000;0.6626;1.2868;
1069.5000;0.6626;1.2820;
1069.8000;0.6634;1.2820;
1070.1000;0.6642;1.2772;
1070.4000;0.6642;1.2724;
1070.7000;0.6650;1.2748;
1071.0000;0.6634;1.2700;
1071.3000;0.6642;1.2700;
1071.6000;0.6642;1.2676;
1071.9000;0.6634;1.2700;
1072.2000;0.6610;1.2700;
1072.5000;0.6634;1.2724;
1072.8000;0.6642;1.2772;
1073.1000;0.6634;1.2820;
1073.4000;0.6650;1.2868;
1073.7000;0.6634;1.2844;
1074.0000;0.6626;1.2820;
1074.3000;0.6618;1.2604;
1074.6000;0.6642;1.2580;
1074.9000;0.6642;1.2508;
1075.2000;0.6642;1.2461;
1075.5000;0.6659;1.2628;
1075.8000;0.6642;1.2628;
1076.1000;0.6650;1.2628;
1076.4000;0.6724;1.2868;
1076.7000;0.6642;1.2700;
1077.0000;0.6642;1.2700;
1077.3000;0.6642;1.2676;
1077.6000;0.6553;1.2389;
1077.9000;0.6634;1.2676;
1078.2000;0.6602;1.2508;
1078.5000;0.6642;1.2484;
1078.8000;0.6610;1.2389;
1079.1000;0.6618;1.2461;
1079.4000;0.6650;1.2556;
1079.7000;0.6618;1.2484;
1080.0000;0.6626;1.2580;
1080.3000;0.6634;1.2580;
1080.6000;0.6634;1.2628;
1080.9000;0.6618;1.2580;
1081.2000;0.6634;1.2700;
1081.5000;0.6642;1.2652;
1081.8000;0.6610;1.2604;
1082.1000;0.6626;1.2628;
1082.4000;0.6626;1.2676;
1082.7000;0.6634;1.2676;
1083.0000;0.6642;1.2724;
1083.3000;0.6634;1.2820;
1083.6000;0.6642;1.2868;
1083.9000;0.6642;1.2868;
1084.2000;0.6650;1.2892;
1084.5000;0.6634;1.2820;
1084.8000;0.6634;1.2772;
1085.1000;0.6683;1.2844;
1085.4000;0.6642;1.2676;
1085.7000;0.6642;1.2628;
1086.0000;0.6740;1.2868;
1086.3000;0.6634;1.2652;
1086.6000;0.6650;1.2628;
1086.9000;0.6626;1.2628;
1087.2000;0.6626;1.2724;
1087.5000;0.6618;1.2724;
1087.8000;0.6642;1.2724;
1088.1000;0.6634;1.2604;
1088.4000;0.6610;1.2580;
1088.7000;0.6618;1.2580;
1089.0000;0.6650;1.2628;
1089.3000;0.6650;1.2532;
1089.6000;0.6634;1.2556;
1089.9000;0.6618;1.2580;
1090.2000;0.6642;1.2580;
1090.5000;0.6634;1.2604;
1090.8000;0.6634;1.2556;
1091.1000;0.6569;1.2365;
1091.4000;0.6659;1.2604;
1091.7000;0.6634;1.2628;
1092.0000;0.6634;1.2652;
1092.3000;0.6593;1.2508;
1092.6000;0.6610;1.2532;
1092.9000;0.6634;1.2652;
1093.2000;0.6707;1.2820;
1093.5000;0.6618;1.2556;
1093.8000;0.6626;1.2580;
1094.1000;0.6634;1.2628;
1094.4000;0.6642;1.2676;
1094.7000;0.6618;1.2724;
1095.0000;0.6626;1.2748;
1095.3000;0.6618;1.2748;
1095.6000;0.6650;1.2844;
1095.9000;0.6626;1.2772;
1096.2000;0.6618;1.2724;
1096.5000;0.6626;1.2772;
1096.8000;0.6626;1.2700;
1097.1000;0.6642;1.2820;
1097.4000;0.6618;1.2772;
1097.7000;0.6634;1.2820;
1098.0000;0.6618;1.2796;
1098.3000;0.6626;1.2796;
1098.6000;0.6642;1.2796;
1098.9000;0.6634;1.2772;
1099.2000;0.6642;1.2724;
1099.5000;0.6634;1.2676;
1099.8000;0.6618;1.2652;
1100.1000;0.6626;1.2724;
1100.4000;0.6634;1.2796;
1100.7000;0.6634;1.2796;
1101.0000;0.6642;1.2796;
1101.3000;0.6626;1.2724;
1101.6000;0.6634;1.2772;
1101.9000;0.6626;1.2700;
1102.2000;0.6642;1.2652;
1102.5000;0.6618;1.2604;
1102.8000;0.6610;1.2628;
1103.1000;0.6618;1.2604;
1103.4000;0.6634;1.2580;
1103.7000;0.6618;1.2532;
1104.0000;0.6650;1.2580;
1104.3000;0.6642;1.2532;
1104.6000;0.6634;1.2580;
1104.9000;0.6626;1.2556;
1105.2000;0.6610;1.2628;
1105.5000;0.6618;1.2724;
1105.8000;0.6626;1.2820;
1106.1000;0.6618;1.2892;
1106.4000;0.6553;1.2724;
1106.7000;0.6626;1.2916;
1107.0000;0.6593;1.2844;
1107.3000;0.6626;1.2892;
1107.6000;0.6618;1.2868;
1107.9000;0.6626;1.2844;
1108.2000;0.6512;1.2580;
1108.5000;0.6626;1.2748;
1108.8000;0.6618;1.2724;
1109.1000;0.6561;1.2604;
1109.4000;0.6642;1.2748;
1109.7000;0.6626;1.2628;
1110.0000;0.6610;1.2628;
1110.3000;0.6626;1.2772;
1110.6000;0.6659;1.2820;
1110.9000;0.6618;1.2676;
1111.2000;0.6634;1.2748;
1111.5000;0.6626;1.2652;
1111.8000;0.6610;1.2628;
1112.1000;0.6610;1.2580;
1112.4000;0.6634;1.2676;
1112.7000;0.6618;1.2652;
1113.0000;0.6634;1.2772;
1113.3000;0.6626;1.2676;
1113.6000;0.6602;1.2676;
1113.9000;0.6618;1.2676;
1114.2000;0.6626;1.2652;
1114.5000;0.6634;1.2580;
1114.8000;0.6626;1.2628;
1115.1000;0.6634;1.2652;
1115.4000;0.6634;1.2676;
1115.7000;0.6691;1.2892;
1116.0000;0.6642;1.2844;
1116.3000;0.6667;1.3012;
1116.6000;0.6610;1.2844;
1116.9000;0.6602;1.2724;
1117.2000;0.6626;1.2700;
1117.5000;0.6577;1.2652;
1117.8000;0.6683;1.2892;
1118.1000;0.6626;1.2772;
1118.4000;0.6602;1.2700;
1118.7000;0.6626;1.2724;
1119.0000;0.6610;1.2628;
1119.3000;0.6618;1.2676;
1119.6000;0.6618;1.2724;
1119.9000;0.6626;1.2676;
1120.2000;0.6618;1.2628;
1120.5000;0.6618;1.2580;
1120.8000;0.6618;1.2532;
1121.1000;0.6602;1.2484;
1121.4000;0.6610;1.2484;
1121.7000;0.6683;1.2724;
1122.0000;0.6618;1.2556;
1122.3000;0.6569;1.2389;
1122.6000;0.6618;1.2604;
1122.9000;0.6626;1.2700;
1123.2000;0.6602;1.2700;
1123.5000;0.6561;1.2796;
1123.8000;0.6634;1.3012;
1124.1000;0.6642;1.3036;
1124.4000;0.6536;1.2796;
1124.7000;0.6634;1.2916;
1125.0000;0.6642;1.2940;
1125.3000;0.6618;1.2820;
1125.6000;0.6618;1.2844;
1125.9000;0.6610;1.2892;
1126.2000;0.6626;1.2916;
1126.5000;0.6618;1.2820;
1126.8000;0.6667;1.2940;
1127.1000;0.6626;1.2772;
1127.4000;0.6593;1.2676;
1127.7000;0.6593;1.2628;
1128.0000;0.6577;1.2628;
1128.3000;0.6634;1.2700;
1128.6000;0.6626;1.2676;
1128.9000;0.6626;1.2652;
1129.2000;0.6618;1.2652;
1129.5000;0.6561;1.2532;
1129.8000;0.6618;1.2580;
1130.1000;0.6659;1.2556;
1130.4000;0.6602;1.2365;
1130.7000;0.6602;1.2389;
1131.0000;0.6602;1.2413;
1131.3000;0.6618;1.2365;
1131.6000;0.6618;1.2365;
1131.9000;0.6634;1.2365;
1132.2000;0.6585;1.2317;
1132.5000;0.6659;1.2556;
1132.8000;0.6602;1.2413;
1133.1000;0.6610;1.2508;
1133.4000;0.6610;1.2556;
1133.7000;0.6610;1.2580;
1134.0000;0.6618;1.2556;
1134.3000;0.6593;1.2389;
1134.6000;0.6585;1.2341;
1134.9000;0.6626;1.2437;
1135.2000;0.6593;1.2341;
1135.5000;0.6593;1.2269;
1135.8000;0.6602;1.2437;
1136.1000;0.6602;1.2437;
1136.4000;0.6634;1.2508;
1136.7000;0.6610;1.2484;
1137.0000;0.6602;1.2508;
1137.3000;0.6610;1.2484;
1137.6000;0.6626;1.2437;
1137.9000;0.6610;1.2389;
1138.2000;0.6593;1.2389;
1138.5000;0.6626;1.2437;
1138.8000;0.6610;1.2413;
1139.1000;0.6610;1.2341;
1139.4000;0.6610;1.2293;
1139.7000;0.6618;1.2461;
1140.0000;0.6602;1.2389;
1140.3000;0.6618;1.2437;
1140.6000;0.6618;1.2437;
1140.9000;0.6667;1.2532;
1141.2000;0.6610;1.2341;
1141.5000;0.6602;1.2437;
1141.8000;0.6602;1.2389;
1142.1000;0.6602;1.2413;
1142.4000;0.6610;1.2508;
1142.7000;0.6667;1.2748;
1143.0000;0.6618;1.2604;
1143.3000;0.6610;1.2484;
1143.6000;0.6585;1.2341;
1143.9000;0.6536;1.2173;
1144.2000;0.6618;1.2365;
1144.5000;0.6610;1.2365;
1144.8000;0.6634;1.2532;
1145.1000;0.6618;1.2604;
1145.4000;0.6626;1.2652;
1145.7000;0.6618;1.2580;
1146.0000;0.6602;1.2556;
1146.3000;0.6610;1.2508;
1146.6000;0.6618;1.2532;
1146.9000;0.6577;1.2484;
1147.2000;0.6626;1.2508;
1147.5000;0.6585;1.2365;
1147.8000;0.6618;1.2389;
1148.1000;0.6618;1.2413;
1148.4000;0.6675;1.2580;
1148.7000;0.6626;1.2437;
1149.0000;0.6626;1.2508;
1149.3000;0.6675;1.2532;
1149.6000;0.6626;1.2461;
1149.9000;0.6683;1.2652;
1150.2000;0.6618;1.2532;
1150.5000;0.6602;1.2556;
1150.8000;0.6593;1.2604;
1151.1000;0.6593;1.2508;
1151.4000;0.6593;1.2580;
1151.7000;0.6528;1.2365;
1152.0000;0.6593;1.2365;
1152.3000;0.6577;1.2317;
1152.6000;0.6593;1.2389;
1152.9000;0.6602;1.2461;
1153.2000;0.6610;1.2413;
1153.5000;0.6602;1.2580;
1153.8000;0.6593;1.2700;
1154.1000;0.6626;1.2820;
1154.4000;0.6626;1.2820;
1154.7000;0.6593;1.2700;
1155.0000;0.6512;1.2461;
1155.3000;0.6553;1.2556;
1155.6000;0.6593;1.2676;
1155.9000;0.6602;1.2652;
1156.2000;0.6602;1.2652;
1156.5000;0.6626;1.2604;
1156.8000;0.6618;1.2556;
1157.1000;0.6602;1.2556;
1157.4000;0.6593;1.2604;
1157.7000;0.6602;1.2652;
1158.0000;0.6618;1.2700;
1158.3000;0.6593;1.2628;
1158.6000;0.6602;1.2628;
1158.9000;0.6602;1.2628;
1159.2000;0.6618;1.2676;
1159.5000;0.6602;1.2748;
1159.8000;0.6593;1.2628;
1160.1000;0.6618;1.2700;
1160.4000;0.6593;1.2628;
1160.7000;0.6626;1.2700;
1161.0000;0.6610;1.2556;
1161.3000;0.6602;1.2532;
1161.6000;0.6585;1.2484;
1161.9000;0.6618;1.2532;
1162.2000;0.6610;1.2413;
1162.5000;0.6626;1.2437;
1162.8000;0.6626;1.2389;
1163.1000;0.6610;1.2389;
1163.4000;0.6634;1.2532;
1163.7000;0.6626;1.2532;
1164.0000;0.6593;1.2437;
1164.3000;0.6593;1.2389;
1164.6000;0.6610;1.2461;
1164.9000;0.6577;1.2413;
1165.2000;0.6642;1.2556;
1165.5000;0.6585;1.2365;
1165.8000;0.6602;1.2413;
1166.1000;0.6610;1.2556;
1166.4000;0.6569;1.2604;
1166.7000;0.6618;1.2652;
1167.0000;0.6593;1.2532;
1167.3000;0.6593;1.2556;
1167.6000;0.6593;1.2461;
1167.9000;0.6577;1.2508;
1168.2000;0.6618;1.2700;
1168.5000;0.6593;1.2748;
1168.8000;0.6610;1.2868;
1169.1000;0.6585;1.2868;
1169.4000;0.6569;1.2748;
1169.7000;0.6593;1.2724;
1170.0000;0.6610;1.2748;
1170.3000;0.6593;1.2676;
1170.6000;0.6593;1.2700;
1170.9000;0.6618;1.2748;
1171.2000;0.6610;1.2772;
1171.5000;0.6593;1.2676;
1171.8000;0.6610;1.2724;
1172.1000;0.6618;1.2700;
1172.4000;0.6593;1.2532;
1172.7000;0.6593;1.2508;
1173.0000;0.6626;1.2580;
1173.3000;0.6618;1.2580;
1173.6000;0.6602;1.2556;
1173.9000;0.6585;1.2484;
1174.2000;0.6585;1.2532;
1174.5000;0.6610;1.2628;
1174.8000;0.6593;1.2508;
1175.1000;0.6602;1.2652;
1175.4000;0.6593;1.2676;
1175.7000;0.6602;1.2700;
1176.0000;0.6756;1.2964;
1176.3000;0.6602;1.2580;
1176.6000;0.6667;1.2796;
1176.9000;0.6602;1.2628;
1177.2000;0.6618;1.2628;
1177.5000;0.6577;1.2652;
1177.8000;0.6593;1.2820;
1178.1000;0.6610;1.2916;
1178.4000;0.6626;1.2988;
1178.7000;0.6545;1.2796;
1179.0000;0.6585;1.2868;
1179.3000;0.6593;1.2748;
1179.6000;0.6602;1.2772;
1179.9000;0.6602;1.2772;
1180.2000;0.6577;1.2748;
1180.5000;0.6626;1.2748;
1180.8000;0.6610;1.2772;
1181.1000;0.6585;1.2724;
1181.4000;0.6577;1.2748;
1181.7000;0.6610;1.2748;
1182.0000;0.6593;1.2556;
1182.3000;0.6610;1.2508;
1182.6000;0.6602;1.2413;
1182.9000;0.6593;1.2317;
1183.2000;0.6577;1.2365;
1183.5000;0.6610;1.2461;
1183.8000;0.6585;1.2365;
1184.1000;0.6569;1.2317;
1184.4000;0.6602;1.2413;
1184.7000;0.6585;1.2461;
1185.0000;0.6585;1.2484;
1185.3000;0.6553;1.2437;
1185.6000;0.6593;1.2580;
1185.9000;0.6593;1.2700;
1186.2000;0.6593;1.2676;
1186.5000;0.6593;1.2676;
1186.8000;0.6585;1.2700;
1187.1000;0.6618;1.2820;
1187.4000;0.6618;1.2820;
1187.7000;0.6569;1.2772;
1188.0000;0.6569;1.2724;
1188.3000;0.6602;1.2772;
1188.6000;0.6585;1.2772;
1188.9000;0.6577;1.2772;
1189.2000;0.6585;1.2676;
1189.5000;0.6585;1.2676;
1189.8000;0.6561;1.2580;
1190.1000;0.6569;1.2556;
1190.4000;0.6593;1.2532;
1190.7000;0.6602;1.2580;
1191.0000;0.6602;1.2532;
1191.3000;0.6593;1.2556;
1191.6000;0.6561;1.2580;
1191.9000;0.6577;1.2652;
1192.2000;0.6602;1.2772;
1192.5000;0.6561;1.2604;
1192.8000;0.6650;1.2892;
1193.1000;0.6585;1.2724;
1193.4000;0.6479;1.2484;
1193.7000;0.6593;1.2772;
1194.0000;0.6593;1.2676;
1194.3000;0.6593;1.2700;
1194.6000;0.6593;1.2796;
1194.9000;0.6585;1.2820;
1195.2000;0.6659;1.2940;
1195.5000;0.6585;1.2724;
1195.8000;0.6585;1.2748;
1196.1000;0.6577;1.2772;
1196.4000;0.6577;1.2772;
1196.7000;0.6585;1.2748;
1197.0000;0.6585;1.2676;
1197.3000;0.6593;1.2676;
1197.6000;0.6569;1.2652;
1197.9000;0.6569;1.2748;
1198.2000;0.6585;1.2772;
1198.5000;0.6577;1.2796;
1198.8000;0.6593;1.2892;
1199.1000;0.6577;1.2892;
1199.4000;0.6585;1.2892;
1199.7000;0.6569;1.2868;
1200.0000;0.6577;1.2868;
1200.3000;0.6610;1.3012;
1200.6000;0.6585;1.2940;
1200.9000;0.6593;1.2988;
1201.2000;0.6585;1.2892;
1201.5000;0.6504;1.2700;
1201.8000;0.6569;1.2796;
1202.1000;0.6577;1.2844;
1202.4000;0.6602;1.2916;
1202.7000;0.6593;1.2844;
1203.0000;0.6602;1.2844;
1203.3000;0.6561;1.2892;
1203.6000;0.6593;1.2892;
1203.9000;0.6569;1.2892;
1204.2000;0.6593;1.2844;
1204.5000;0.6577;1.2868;
1204.8000;0.6585;1.2772;
1205.1000;0.6577;1.2748;
1205.4000;0.6569;1.2700;
1205.7000;0.6569;1.2772;
1206.0000;0.6569;1.2820;
1206.3000;0.6569;1.2844;
1206.6000;0.6602;1.2940;
1206.9000;0.6585;1.2940;
1207.2000;0.6626;1.3012;
1207.5000;0.6585;1.2916;
1207.8000;0.6577;1.2892;
1208.1000;0.6569;1.2820;
1208.4000;0.6585;1.2892;
1208.7000;0.6585;1.2820;
1209.0000;0.6577;1.2748;
1209.3000;0.6577;1.2796;
1209.6000;0.6553;1.2700;
1209.9000;0.6593;1.2724;
1210.2000;0.6577;1.2844;
1210.5000;0.6577;1.2868;
1210.8000;0.6602;1.2940;
1211.1000;0.6577;1.2916;
1211.4000;0.6593;1.2892;
1211.7000;0.6577;1.2844;
1212.0000;0.6569;1.2772;
1212.3000;0.6577;1.2748;
1212.6000;0.6577;1.2772;
1212.9000;0.6593;1.2820;
1213.2000;0.6593;1.2796;
1213.5000;0.6626;1.2916;
1213.8000;0.6577;1.2820;
1214.1000;0.6577;1.2820;
1214.4000;0.6569;1.2820;
1214.7000;0.6577;1.2796;
1215.0000;0.6577;1.2820;
1215.3000;0.6577;1.2748;
1215.6000;0.6577;1.2676;
1215.9000;0.6593;1.2748;
1216.2000;0.6569;1.2748;
1216.5000;0.6528;1.2628;
1216.8000;0.6602;1.2748;
1217.1000;0.6569;1.2700;
1217.4000;0.6577;1.2772;
1217.7000;0.6585;1.2772;
1218.0000;0.6593;1.2916;
1218.3000;0.6610;1.2796;
1218.6000;0.6577;1.2748;
1218.9000;0.6577;1.2796;
1219.2000;0.6585;1.2892;
1219.5000;0.6569;1.2940;
1219.8000;0.6561;1.2988;
1220.1000;0.6536;1.2892;
1220.4000;0.6569;1.2940;
1220.7000;0.6585;1.2940;
1221.0000;0.6569;1.2892;
1221.3000;0.6585;1.2964;
1221.6000;0.6577;1.3036;
1221.9000;0.6585;1.3084;
1222.2000;0.6561;1.3036;
1222.5000;0.6577;1.3060;
1222.8000;0.6585;1.2964;
1223.1000;0.6602;1.2940;
1223.4000;0.6569;1.2916;
1223.7000;0.6585;1.2940;
1224.0000;0.6569;1.2916;
1224.3000;0.6577;1.2844;
1224.6000;0.6569;1.2820;
1224.9000;0.6569;1.2772;
1225.2000;0.6463;1.2604;
1225.5000;0.6577;1.2892;
1225.8000;0.6561;1.2916;
1226.1000;0.6545;1.2844;
1226.4000;0.6553;1.2892;
1226.7000;0.6618;1.2940;
1227.0000;0.6650;1.3060;
1227.3000;0.6577;1.2988;
1227.6000;0.6577;1.3108;
1227.9000;0.6577;1.3131;
1228.2000;0.6618;1.3084;
1228.5000;0.6577;1.2892;
1228.8000;0.6593;1.2892;
1229.1000;0.6593;1.2868;
1229.4000;0.6593;1.2868;
1229.7000;0.6593;1.2916;
1230.0000;0.6585;1.2892;
1230.3000;0.6577;1.2916;
1230.6000;0.6577;1.2796;
1230.9000;0.6593;1.2772;
1231.2000;0.6593;1.2748;
1231.5000;0.6536;1.2604;
1231.8000;0.6602;1.2820;
1232.1000;0.6577;1.2796;
1232.4000;0.6585;1.2772;
1232.7000;0.6577;1.2868;
1233.0000;0.6593;1.2868;
1233.3000;0.6577;1.2844;
1233.6000;0.6585;1.2892;
1233.9000;0.6569;1.3012;
1234.2000;0.6585;1.3060;
1234.5000;0.6593;1.2988;
1234.8000;0.6585;1.2892;
1235.1000;0.6577;1.2892;
1235.4000;0.6569;1.3012;
1235.7000;0.6577;1.3060;
1236.0000;0.6593;1.3108;
1236.3000;0.6602;1.3036;
1236.6000;0.6650;1.3251;
1236.9000;0.6577;1.3108;
1237.2000;0.6561;1.3036;
1237.5000;0.6585;1.3036;
1237.8000;0.6569;1.3036;
1238.1000;0.6585;1.3084;
1238.4000;0.6593;1.3084;
1238.7000;0.6561;1.3036;
1239.0000;0.6659;1.3227;
1239.3000;0.6585;1.3060;
1239.6000;0.6536;1.2988;
1239.9000;0.6626;1.3203;
1240.2000;0.6585;1.3084;
1240.5000;0.6577;1.3084;
1240.8000;0.6577;1.3131;
1241.1000;0.6569;1.3179;
1241.4000;0.6577;1.3179;
1241.7000;0.6618;1.3227;
1242.0000;0.6520;1.2940;
1242.3000;0.6569;1.3012;
1242.6000;0.6569;1.3012;
1242.9000;0.6536;1.2964;
1243.2000;0.6577;1.3108;
1243.5000;0.6561;1.3036;
1243.8000;0.6553;1.3036;
1244.1000;0.6602;1.3179;
1244.4000;0.6561;1.3036;
1244.7000;0.6577;1.3203;
1245.0000;0.6569;1.3155;
1245.3000;0.6569;1.3131;
1245.6000;0.6536;1.3012;
1245.9000;0.6561;1.3084;
1246.2000;0.6667;1.3299;
1246.5000;0.6561;1.3012;
1246.8000;0.6569;1.3084;
1247.1000;0.6577;1.3131;
1247.4000;0.6561;1.3108;
1247.7000;0.6577;1.3131;
1248.0000;0.6585;1.3155;
1248.3000;0.6561;1.3084;
1248.6000;0.6585;1.3131;
1248.9000;0.6577;1.3108;
1249.2000;0.6569;1.3060;
1249.5000;0.6585;1.3060;
1249.8000;0.6593;1.3036;
1250.1000;0.6569;1.2964;
1250.4000;0.6569;1.2916;
1250.7000;0.6585;1.2988;
1251.0000;0.6577;1.2988;
1251.3000;0.6561;1.3012;
1251.6000;0.6593;1.3012;
1251.9000;0.6585;1.2988;
1252.2000;0.6585;1.2916;
1252.5000;0.6585;1.2940;
1252.8000;0.6585;1.2940;
1253.1000;0.6577;1.2892;
1253.4000;0.6642;1.3036;
1253.7000;0.6634;1.3084;
1254.0000;0.6585;1.2988;
1254.3000;0.6577;1.3036;
1254.6000;0.6618;1.3084;
1254.9000;0.6577;1.2964;
1255.2000;0.6577;1.2868;
1255.5000;0.6528;1.2724;
1255.8000;0.6569;1.2844;
1256.1000;0.6569;1.2868;
1256.4000;0.6504;1.2532;
1256.7000;0.6561;1.2772;
1257.0000;0.6545;1.2796;
1257.3000;0.6569;1.2868;
1257.6000;0.6577;1.2916;
1257.9000;0.6569;1.2964;
1258.2000;0.6561;1.2964;
1258.5000;0.6569;1.2892;
1258.8000;0.6545;1.2820;
1259.1000;0.6577;1.2964;
1259.4000;0.6569;1.3060;
1259.7000;0.6569;1.3036;
1260.0000;0.6593;1.3131;
1260.3000;0.6593;1.3131;
1260.6000;0.6569;1.3060;
1260.9000;0.6626;1.3203;
1261.2000;0.6585;1.3036;
1261.5000;0.6602;1.2964;
1261.8000;0.6536;1.2676;
1262.1000;0.6593;1.2796;
1262.4000;0.6561;1.2844;
1262.7000;0.6496;1.2652;
1263.0000;0.6577;1.2964;
1263.3000;0.6593;1.3084;
1263.6000;0.6634;1.3108;
1263.9000;0.6650;1.3179;
1264.2000;0.6561;1.3036;
1264.5000;0.6577;1.3036;
1264.8000;0.6569;1.2988;
1265.1000;0.6577;1.2940;
1265.4000;0.6585;1.2892;
1265.7000;0.6626;1.2964;
1266.0000;0.6577;1.2748;
1266.3000;0.6561;1.2796;
1266.6000;0.6569;1.2844;
1266.9000;0.6602;1.2916;
1267.2000;0.6593;1.2916;
1267.5000;0.6561;1.2844;
1267.8000;0.6545;1.2868;
1268.1000;0.6545;1.2748;
1268.4000;0.6528;1.2796;
1268.7000;0.6569;1.2844;
1269.0000;0.6390;1.2437;
1269.3000;0.6553;1.2892;
1269.6000;0.6585;1.2964;
1269.9000;0.6561;1.2892;
1270.2000;0.6553;1.2892;
1270.5000;0.6593;1.2964;
1270.8000;0.6577;1.2844;
1271.1000;0.6577;1.2892;
1271.4000;0.6577;1.2916;
1271.7000;0.6577;1.2964;
1272.0000;0.6536;1.2892;
1272.3000;0.6593;1.3084;
1272.6000;0.6577;1.3108;
1272.9000;0.6593;1.3036;
1273.2000;0.6593;1.2964;
1273.5000;0.6561;1.2916;
1273.8000;0.6545;1.2868;
1274.1000;0.6585;1.3012;
1274.4000;0.6545;1.2916;
1274.7000;0.6569;1.2940;
1275.0000;0.6577;1.2892;
1275.3000;0.6577;1.2868;
1275.6000;0.6545;1.2796;
1275.9000;0.6545;1.2868;
1276.2000;0.6561;1.2940;
1276.5000;0.6528;1.2916;
1276.8000;0.6528;1.2892;
1277.1000;0.6553;1.2844;
1277.4000;0.6593;1.2892;
1277.7000;0.6585;1.2844;
1278.0000;0.6585;1.2868;
1278.3000;0.6553;1.2868;
1278.6000;0.6569;1.2940;
1278.9000;0.6593;1.2916;
1279.2000;0.6634;1.2964;
1279.5000;0.6642;1.2988;
1279.8000;0.6577;1.2820;
1280.1000;0.6561;1.2844;
1280.4000;0.6569;1.2796;
1280.7000;0.6585;1.2892;
1281.0000;0.6577;1.2844;
1281.3000;0.6545;1.2796;
1281.6000;0.6561;1.2868;
1281.9000;0.6585;1.2916;
1282.2000;0.6553;1.2916;
1282.5000;0.6585;1.2964;
1282.8000;0.6593;1.2988;
1283.1000;0.6577;1.2964;
1283.4000;0.6602;1.3036;
1283.7000;0.6545;1.2964;
1284.0000;0.6528;1.3060;
1284.3000;0.6585;1.3275;
1284.6000;0.6577;1.3179;
1284.9000;0.6536;1.3084;
1285.2000;0.6602;1.3179;
1285.5000;0.6577;1.3036;
1285.8000;0.6569;1.3036;
1286.1000;0.6553;1.3036;
1286.4000;0.6561;1.3084;
1286.7000;0.6545;1.2964;
1287.0000;0.6577;1.3131;
1287.3000;0.6479;1.2820;
1287.6000;0.6561;1.3084;
1287.9000;0.6561;1.3036;
1288.2000;0.6585;1.3108;
1288.5000;0.6577;1.3084;
1288.8000;0.6553;1.3108;
1289.1000;0.6561;1.3155;
1289.4000;0.6561;1.3179;
1289.7000;0.6553;1.3108;
1290.0000;0.6561;1.3036;
1290.3000;0.6536;1.3036;
1290.6000;0.6585;1.3179;
1290.9000;0.6585;1.3155;
1291.2000;0.6553;1.3060;
1291.5000;0.6561;1.3108;
1291.8000;0.6577;1.3155;
1292.1000;0.6528;1.2940;
1292.4000;0.6553;1.2940;
1292.7000;0.6577;1.3036;
1293.0000;0.6618;1.3108;
1293.3000;0.6585;1.3036;
1293.6000;0.6569;1.3012;
1293.9000;0.6585;1.3012;
1294.2000;0.6577;1.3036;
1294.5000;0.6528;1.2868;
1294.8000;0.6545;1.2844;
1295.1000;0.6561;1.2844;
1295.4000;0.6545;1.2844;
1295.7000;0.6528;1.2796;
1296.0000;0.6553;1.2844;
1296.3000;0.6553;1.2844;
1296.6000;0.6553;1.2844;
1296.9000;0.6569;1.2892;
1297.2000;0.6553;1.2868;
1297.5000;0.6561;1.2892;
1297.8000;0.6553;1.2964;
1298.1000;0.6642;1.3179;
1298.4000;0.6569;1.2964;
1298.7000;0.6585;1.3012;
1299.0000;0.6553;1.2844;
1299.3000;0.6536;1.2868;
1299.6000;0.6569;1.2940;
1299.9000;0.6553;1.2796;
1300.2000;0.6561;1.2916;
1300.5000;0.6602;1.2988;
1300.8000;0.6561;1.2820;
1301.1000;0.6520;1.2748;
1301.4000;0.6561;1.2820;
1301.7000;0.6536;1.2820;
1302.0000;0.6569;1.2868;
1302.3000;0.6553;1.2820;
1302.6000;0.6553;1.2892;
1302.9000;0.6561;1.2916;
1303.2000;0.6577;1.3036;
1303.5000;0.6569;1.3108;
1303.8000;0.6561;1.3108;
1304.1000;0.6536;1.3108;
1304.4000;0.6553;1.3203;
1304.7000;0.6577;1.3131;
1305.0000;0.6553;1.3084;
1305.3000;0.6585;1.3108;
1305.6000;0.6569;1.3036;
1305.9000;0.6545;1.3036;
1306.2000;0.6536;1.3036;
1306.5000;0.6496;1.2964;
1306.8000;0.6610;1.3131;
1307.1000;0.6536;1.2988;
1307.4000;0.6569;1.3012;
1307.7000;0.6536;1.2964;
1308.0000;0.6569;1.3012;
1308.3000;0.6545;1.2868;
1308.6000;0.6561;1.2892;
1308.9000;0.6545;1.2964;
1309.2000;0.6561;1.3084;
1309.5000;0.6528;1.2988;
1309.8000;0.6569;1.3060;
1310.1000;0.6536;1.2988;
1310.4000;0.6545;1.2988;
1310.7000;0.6553;1.2940;
1311.0000;0.6585;1.2940;
1311.3000;0.6553;1.2892;
1311.6000;0.6553;1.3012;
1311.9000;0.6553;1.2988;
1312.2000;0.6536;1.2964;
1312.5000;0.6569;1.3060;
1312.8000;0.6553;1.3036;
1313.1000;0.6561;1.3012;
1313.4000;0.6561;1.2916;
1313.7000;0.6569;1.2892;
1314.0000;0.6561;1.2892;
1314.3000;0.6545;1.2940;
1314.6000;0.6585;1.3012;
1314.9000;0.6602;1.3012;
1315.2000;0.6569;1.2940;
1315.5000;0.6553;1.2916;
1315.8000;0.6553;1.2868;
1316.1000;0.6569;1.2844;
1316.4000;0.6553;1.2892;
1316.7000;0.6577;1.2916;
1317.0000;0.6610;1.3084;
1317.3000;0.6561;1.2940;
1317.6000;0.6512;1.2916;
1317.9000;0.6545;1.2964;
1318.2000;0.6512;1.2940;
1318.5000;0.6536;1.3012;
1318.8000;0.6561;1.3084;
1319.1000;0.6610;1.3251;
1319.4000;0.6553;1.3084;
1319.7000;0.6561;1.3060;
1320.0000;0.6561;1.2964;
1320.3000;0.6561;1.2988;
1320.6000;0.6553;1.2964;
1320.9000;0.6545;1.3012;
1321.2000;0.6520;1.3012;
1321.5000;0.6585;1.3084;
1321.8000;0.6553;1.3060;
1322.1000;0.6528;1.2892;
1322.4000;0.6577;1.2916;
1322.7000;0.6577;1.2940;
1323.0000;0.6553;1.2940;
1323.3000;0.6553;1.2916;
1323.6000;0.6577;1.2988;
1323.9000;0.6561;1.2964;
1324.2000;0.6545;1.2940;
1324.5000;0.6528;1.2964;
1324.8000;0.6536;1.2988;
1325.1000;0.6553;1.3108;
1325.4000;0.6479;1.2892;
1325.7000;0.6602;1.3131;
1326.0000;0.6561;1.3036;
1326.3000;0.6569;1.3036;
1326.6000;0.6553;1.2892;
1326.9000;0.6569;1.2844;
1327.2000;0.6585;1.2820;
1327.5000;0.6561;1.2796;
1327.8000;0.6536;1.2796;
1328.1000;0.6545;1.2796;
1328.4000;0.6569;1.2700;
1328.7000;0.6577;1.2676;
1329.0000;0.6569;1.2700;
1329.3000;0.6569;1.2700;
1329.6000;0.6520;1.2676;
1329.9000;0.6553;1.2772;
1330.2000;0.6553;1.2820;
1330.5000;0.6569;1.2820;
1330.8000;0.6610;1.2868;
1331.1000;0.6553;1.2676;
1331.4000;0.6545;1.2700;
1331.7000;0.6561;1.2748;
1332.0000;0.6561;1.2844;
1332.3000;0.6569;1.2892;
1332.6000;0.6561;1.2892;
1332.9000;0.6553;1.2820;
1333.2000;0.6577;1.2796;
1333.5000;0.6545;1.2676;
1333.8000;0.6536;1.2652;
1334.1000;0.6536;1.2844;
1334.4000;0.6504;1.2796;
1334.7000;0.6536;1.2820;
1335.0000;0.6553;1.2820;
1335.3000;0.6545;1.2796;
1335.6000;0.6545;1.2772;
1335.9000;0.6553;1.2772;
1336.2000;0.6512;1.2628;
1336.5000;0.6536;1.2556;
1336.8000;0.6585;1.2628;
1337.1000;0.6545;1.2604;
1337.4000;0.6536;1.2652;
1337.7000;0.6553;1.2700;
1338.0000;0.6545;1.2676;
1338.3000;0.6545;1.2652;
1338.6000;0.6561;1.2652;
1338.9000;0.6561;1.2820;
1339.2000;0.6545;1.2868;
1339.5000;0.6561;1.2940;
1339.8000;0.6569;1.2892;
1340.1000;0.6561;1.2868;
1340.4000;0.6561;1.2796;
1340.7000;0.6545;1.2796;
1341.0000;0.6553;1.2844;
1341.3000;0.6593;1.2988;
1341.6000;0.6545;1.2820;
1341.9000;0.6536;1.2748;
1342.2000;0.6545;1.2868;
1342.5000;0.6561;1.2916;
1342.8000;0.6577;1.2916;
1343.1000;0.6536;1.2820;
1343.4000;0.6528;1.2844;
1343.7000;0.6593;1.2964;
1344.0000;0.6545;1.2868;
1344.3000;0.6553;1.2868;
1344.6000;0.6553;1.2772;
1344.9000;0.6561;1.2796;
1345.2000;0.6455;1.2580;
1345.5000;0.6561;1.2844;
1345.8000;0.6553;1.2724;
1346.1000;0.6561;1.2868;
1346.4000;0.6545;1.2796;
1346.7000;0.6553;1.2724;
1347.0000;0.6528;1.2652;
1347.3000;0.6610;1.2844;
1347.6000;0.6553;1.2652;
1347.9000;0.6553;1.2628;
1348.2000;0.6536;1.2532;
1348.5000;0.6569;1.2508;
1348.8000;0.6463;1.2293;
1349.1000;0.6553;1.2628;
1349.4000;0.6610;1.2772;
1349.7000;0.6496;1.2604;
1350.0000;0.6553;1.2820;
1350.3000;0.6545;1.2844;
1350.6000;0.6528;1.2844;
1350.9000;0.6536;1.2868;
1351.2000;0.6553;1.2868;
1351.5000;0.6536;1.2868;
1351.8000;0.6553;1.2892;
1352.1000;0.6553;1.2916;
1352.4000;0.6545;1.2916;
1352.7000;0.6545;1.2868;
1353.0000;0.6536;1.2916;
1353.3000;0.6536;1.2868;
1353.6000;0.6553;1.2820;
1353.9000;0.6545;1.2844;
1354.2000;0.6561;1.2844;
1354.5000;0.6569;1.2772;
1354.8000;0.6569;1.2724;
1355.1000;0.6561;1.2796;
1355.4000;0.6577;1.2868;
1355.7000;0.6561;1.2868;
1356.0000;0.6536;1.2892;
1356.3000;0.6545;1.2964;
1356.6000;0.6569;1.3060;
1356.9000;0.6536;1.3036;
1357.2000;0.6561;1.3036;
1357.5000;0.6504;1.2892;
1357.8000;0.6553;1.2988;
1358.1000;0.6569;1.2964;
1358.4000;0.6496;1.2772;
1358.7000;0.6545;1.2844;
1359.0000;0.6553;1.2964;
1359.3000;0.6545;1.3012;
1359.6000;0.6553;1.3060;
1359.9000;0.6536;1.2964;
1360.2000;0.6561;1.3012;
1360.5000;0.6536;1.2964;
1360.8000;0.6536;1.2988;
1361.1000;0.6545;1.3012;
1361.4000;0.6512;1.2940;
1361.7000;0.6520;1.2988;
1362.0000;0.6553;1.3084;
1362.3000;0.6553;1.3131;
1362.6000;0.6577;1.3179;
1362.9000;0.6504;1.2940;
1363.2000;0.6577;1.3060;
1363.5000;0.6545;1.2916;
1363.8000;0.6536;1.2868;
1364.1000;0.6585;1.3012;
1364.4000;0.6545;1.2940;
1364.7000;0.6553;1.2940;
1365.0000;0.6634;1.3179;
1365.3000;0.6536;1.3036;
1365.6000;0.6569;1.3084;
1365.9000;0.6569;1.3108;
1366.2000;0.6536;1.2940;
1366.5000;0.6520;1.2916;
1366.8000;0.6553;1.2964;
1367.1000;0.6512;1.2748;
1367.4000;0.6569;1.2748;
1367.7000;0.6545;1.2676;
1368.0000;0.6561;1.2772;
1368.3000;0.6561;1.2724;
1368.6000;0.6577;1.2820;
1368.9000;0.6528;1.2748;
1369.2000;0.6577;1.2916;
1369.5000;0.6561;1.2892;
1369.8000;0.6553;1.2916;
1370.1000;0.6553;1.2868;
1370.4000;0.6561;1.2940;
1370.7000;0.6610;1.2964;
1371.0000;0.6610;1.3060;
1371.3000;0.6561;1.2940;
1371.6000;0.6536;1.2868;
1371.9000;0.6553;1.2844;
1372.2000;0.6561;1.2772;
1372.5000;0.6545;1.2628;
1372.8000;0.6536;1.2652;
1373.1000;0.6528;1.2700;
1373.4000;0.6545;1.2796;
1373.7000;0.6545;1.2772;
1374.0000;0.6561;1.2844;
1374.3000;0.6545;1.2748;
1374.6000;0.6553;1.2676;
1374.9000;0.6536;1.2676;
1375.2000;0.6561;1.2772;
1375.5000;0.6528;1.2676;
1375.8000;0.6561;1.2724;
1376.1000;0.6561;1.2748;
1376.4000;0.6536;1.2700;
1376.7000;0.6634;1.2916;
1377.0000;0.6528;1.2676;
1377.3000;0.6553;1.2724;
1377.6000;0.6488;1.2676;
1377.9000;0.6553;1.2820;
1378.2000;0.6593;1.2748;
1378.5000;0.6536;1.2652;
1378.8000;0.6602;1.2868;
1379.1000;0.6545;1.2748;
1379.4000;0.6577;1.2772;
1379.7000;0.6520;1.2580;
1380.0000;0.6561;1.2580;
1380.3000;0.6536;1.2532;
1380.6000;0.6463;1.2293;
1380.9000;0.6512;1.2413;
1381.2000;0.6569;1.2652;
1381.5000;0.6536;1.2724;
1381.8000;0.6569;1.2796;
1382.1000;0.6545;1.2700;
1382.4000;0.6553;1.2724;
1382.7000;0.6545;1.2748;
1383.0000;0.6520;1.2700;
1383.3000;0.6520;1.2748;
1383.6000;0.6553;1.2796;
1383.9000;0.6520;1.2748;
1384.2000;0.6561;1.2844;
1384.5000;0.6553;1.2772;
1384.8000;0.6545;1.2748;
1385.1000;0.6553;1.2844;
1385.4000;0.6569;1.2892;
1385.7000;0.6536;1.2868;
1386.0000;0.6536;1.2868;
1386.3000;0.6553;1.2844;
1386.6000;0.6553;1.2916;
1386.9000;0.6520;1.2844;
1387.2000;0.6561;1.2940;
1387.5000;0.6536;1.2892;
1387.8000;0.6553;1.2988;
1388.1000;0.6536;1.3036;
1388.4000;0.6528;1.2964;
1388.7000;0.6545;1.2940;
1389.0000;0.6569;1.2988;
1389.3000;0.6536;1.3012;
1389.6000;0.6536;1.2868;
1389.9000;0.6545;1.2892;
1390.2000;0.6545;1.2892;
1390.5000;0.6545;1.2940;
1390.8000;0.6528;1.2940;
1391.1000;0.6545;1.2964;
1391.4000;0.6536;1.2892;
1391.7000;0.6528;1.2916;
1392.0000;0.6528;1.2892;
1392.3000;0.6528;1.2844;
1392.6000;0.6536;1.2772;
1392.9000;0.6528;1.2748;
1393.2000;0.6553;1.2772;
1393.5000;0.6536;1.2748;
1393.8000;0.6545;1.2820;
1394.1000;0.6545;1.2820;
1394.4000;0.6561;1.2868;
1394.7000;0.6553;1.2820;
1395.0000;0.6553;1.2796;
1395.3000;0.6553;1.2820;
1395.6000;0.6561;1.2868;
1395.9000;0.6553;1.2844;
1396.2000;0.6553;1.2820;
1396.5000;0.6569;1.2940;
1396.8000;0.6536;1.2892;
1397.1000;0.6553;1.2964;
1397.4000;0.6553;1.2940;
1397.7000;0.6545;1.2916;
1398.0000;0.6569;1.2892;
1398.3000;0.6536;1.2916;
1398.6000;0.6536;1.2988;
1398.9000;0.6545;1.2940;
1399.2000;0.6447;1.2724;
1399.5000;0.6569;1.2964;
1399.8000;0.6577;1.3012;
