time/ms;Fluo/V;P700 deltaI/I x10³;
-199.8000;1.1046;1.4354;
-199.5000;1.1030;1.4306;
-199.2000;1.1046;1.4306;
-198.9000;1.1038;1.4258;
-198.6000;1.1054;1.4258;
-198.3000;1.1030;1.4210;
-198.0000;1.1030;1.4186;
-197.7000;1.1030;1.4234;
-197.4000;1.1013;1.4090;
-197.1000;1.1038;1.4138;
-196.8000;1.1038;1.4186;
-196.5000;1.1046;1.4210;
-196.2000;1.1046;1.4114;
-195.9000;1.1046;1.4090;
-195.6000;1.1038;1.4090;
-195.3000;1.1038;1.4138;
-195.0000;1.1030;1.4138;
-194.7000;1.1054;1.4090;
-194.4000;1.1013;1.3994;
-194.1000;1.1022;1.3994;
-193.8000;1.0973;1.3946;
-193.5000;1.1038;1.4162;
-193.2000;1.1046;1.4162;
-192.9000;1.0997;1.4042;
-192.6000;1.1038;1.4066;
-192.3000;1.1038;1.4162;
-192.0000;1.1030;1.4186;
-191.7000;1.1013;1.4186;
-191.4000;1.1111;1.4425;
-191.1000;1.1054;1.4282;
-190.8000;1.1046;1.4258;
-190.5000;1.1054;1.4258;
-190.2000;1.1038;1.4210;
-189.9000;1.1046;1.4114;
-189.6000;1.1062;1.4138;
-189.3000;1.1062;1.4018;
-189.0000;1.1062;1.4042;
-188.7000;1.0989;1.3826;
-188.4000;1.1127;1.4162;
-188.1000;1.1046;1.3994;
-187.8000;1.1046;1.4042;
-187.5000;1.1054;1.4066;
-187.2000;1.1038;1.4066;
-186.9000;1.1062;1.4066;
-186.6000;1.1046;1.3994;
-186.3000;1.0908;1.3587;
-186.0000;1.1030;1.3874;
-185.7000;1.1054;1.4018;
-185.4000;1.1062;1.4162;
-185.1000;1.1046;1.4162;
-184.8000;1.1038;1.4090;
-184.5000;1.1054;1.4138;
-184.2000;1.1038;1.4210;
-183.9000;1.1005;1.4018;
-183.6000;1.1046;1.4066;
-183.3000;1.1046;1.3994;
-183.0000;1.1046;1.3874;
-182.7000;1.1046;1.3874;
-182.4000;1.1054;1.3946;
-182.1000;1.1062;1.3994;
-181.8000;1.1013;1.3994;
-181.5000;1.1054;1.4114;
-181.2000;1.1038;1.4066;
-180.9000;1.1005;1.3922;
-180.6000;1.1054;1.4066;
-180.3000;1.0989;1.3898;
-180.0000;1.1038;1.3994;
-179.7000;1.1038;1.3994;
-179.4000;1.1103;1.4042;
-179.1000;1.1046;1.3874;
-178.8000;1.1054;1.3898;
-178.5000;1.1046;1.3994;
-178.2000;1.1054;1.3970;
-177.9000;1.1046;1.3922;
-177.6000;1.1038;1.3994;
-177.3000;1.1062;1.4018;
-177.0000;1.1054;1.4018;
-176.7000;1.1046;1.4018;
-176.4000;1.1062;1.4114;
-176.1000;1.1046;1.4114;
-175.8000;1.1062;1.4186;
-175.5000;1.1054;1.4162;
-175.2000;1.1038;1.4114;
-174.9000;1.1111;1.4306;
-174.6000;1.1030;1.4210;
-174.3000;1.1046;1.4162;
-174.0000;1.1054;1.4138;
-173.7000;1.1022;1.4066;
-173.4000;1.1062;1.4162;
-173.1000;1.1046;1.4042;
-172.8000;1.1038;1.3994;
-172.5000;1.1013;1.3898;
-172.2000;1.1054;1.3970;
-171.9000;1.1038;1.3874;
-171.6000;1.1038;1.3874;
-171.3000;1.1079;1.3946;
-171.0000;1.1038;1.3850;
-170.7000;1.1005;1.3802;
-170.4000;1.0989;1.3826;
-170.1000;1.1030;1.3946;
-169.8000;1.1070;1.4066;
-169.5000;1.1046;1.4018;
-169.2000;1.1038;1.3922;
-168.9000;1.1079;1.4018;
-168.6000;1.1103;1.3970;
-168.3000;1.1062;1.3922;
-168.0000;1.1022;1.3874;
-167.7000;1.1030;1.3874;
-167.4000;1.1038;1.3970;
-167.1000;1.1054;1.4114;
-166.8000;1.1144;1.4306;
-166.5000;1.1038;1.3970;
-166.2000;1.1168;1.4258;
-165.9000;1.1054;1.3970;
-165.6000;1.1062;1.3970;
-165.3000;1.0997;1.3922;
-165.0000;1.1038;1.4090;
-164.7000;1.1046;1.4114;
-164.4000;1.1038;1.3994;
-164.1000;1.1005;1.4018;
-163.8000;1.1038;1.4066;
-163.5000;1.1013;1.4066;
-163.2000;1.1054;1.4162;
-162.9000;1.1030;1.4018;
-162.6000;1.1013;1.4018;
-162.3000;1.1030;1.3994;
-162.0000;1.1030;1.3946;
-161.7000;1.1030;1.3922;
-161.4000;1.1013;1.3970;
-161.1000;1.1030;1.4042;
-160.8000;1.1054;1.4114;
-160.5000;1.1046;1.4042;
-160.2000;1.1046;1.4066;
-159.9000;1.1030;1.4114;
-159.6000;1.0997;1.3946;
-159.3000;1.1022;1.3946;
-159.0000;1.1038;1.4018;
-158.7000;1.1070;1.4090;
-158.4000;1.1152;1.4330;
-158.1000;1.1046;1.4090;
-157.8000;1.1022;1.4042;
-157.5000;1.1005;1.4042;
-157.2000;1.1030;1.4066;
-156.9000;1.1046;1.3994;
-156.6000;1.1054;1.3898;
-156.3000;1.1054;1.3802;
-156.0000;1.1046;1.3802;
-155.7000;1.1046;1.3754;
-155.4000;1.1079;1.3898;
-155.1000;1.1054;1.3778;
-154.8000;1.1062;1.3802;
-154.5000;1.1087;1.3802;
-154.2000;1.1070;1.3802;
-153.9000;1.1062;1.3850;
-153.6000;1.1054;1.3778;
-153.3000;1.1070;1.3731;
-153.0000;1.1062;1.3802;
-152.7000;1.1054;1.3802;
-152.4000;1.1030;1.3826;
-152.1000;1.1030;1.3826;
-151.8000;1.1038;1.3874;
-151.5000;1.1079;1.3994;
-151.2000;1.1054;1.3922;
-150.9000;1.0989;1.3802;
-150.6000;1.1005;1.3922;
-150.3000;1.1038;1.4018;
-150.0000;1.0997;1.3994;
-149.7000;1.1030;1.4018;
-149.4000;1.1038;1.4042;
-149.1000;1.1030;1.4018;
-148.8000;1.1038;1.4042;
-148.5000;1.1030;1.3946;
-148.2000;1.1054;1.4042;
-147.9000;1.1046;1.4090;
-147.6000;1.1046;1.4018;
-147.3000;1.1046;1.4114;
-147.0000;1.1038;1.4186;
-146.7000;1.1046;1.4210;
-146.4000;1.1144;1.4449;
-146.1000;1.1054;1.4210;
-145.8000;1.1038;1.4066;
-145.5000;1.1038;1.4210;
-145.2000;1.1030;1.4282;
-144.9000;1.1070;1.4354;
-144.6000;1.1054;1.4378;
-144.3000;1.1038;1.4282;
-144.0000;1.1046;1.4306;
-143.7000;1.1022;1.4162;
-143.4000;1.1030;1.4210;
-143.1000;1.1038;1.4186;
-142.8000;1.0997;1.4066;
-142.5000;1.1046;1.4042;
-142.2000;1.1054;1.4042;
-141.9000;1.1046;1.4018;
-141.6000;1.1046;1.3946;
-141.3000;1.1152;1.4162;
-141.0000;1.1070;1.3970;
-140.7000;1.1054;1.3922;
-140.4000;1.1070;1.3970;
-140.1000;1.1038;1.3922;
-139.8000;1.1030;1.3946;
-139.5000;1.1038;1.3946;
-139.2000;1.1054;1.3970;
-138.9000;1.1054;1.3898;
-138.6000;1.1013;1.3922;
-138.3000;1.1046;1.3994;
-138.0000;1.1038;1.3994;
-137.7000;1.1062;1.4090;
-137.4000;1.1062;1.4114;
-137.1000;1.0989;1.3970;
-136.8000;1.1030;1.4066;
-136.5000;1.1038;1.4090;
-136.2000;1.1038;1.4090;
-135.9000;1.1038;1.4066;
-135.6000;1.1022;1.4018;
-135.3000;1.1022;1.3946;
-135.0000;1.1038;1.3970;
-134.7000;1.1030;1.3898;
-134.4000;1.0997;1.3778;
-134.1000;1.1022;1.3826;
-133.8000;1.1038;1.3970;
-133.5000;1.1030;1.3946;
-133.2000;1.1038;1.3874;
-132.9000;1.1046;1.3874;
-132.6000;1.1054;1.3826;
-132.3000;1.1022;1.3778;
-132.0000;1.1062;1.3826;
-131.7000;1.1054;1.3850;
-131.4000;1.1038;1.3850;
-131.1000;1.1038;1.3970;
-130.8000;1.1030;1.3922;
-130.5000;1.1046;1.3994;
-130.2000;1.1030;1.3946;
-129.9000;1.1070;1.3922;
-129.6000;1.1046;1.3850;
-129.3000;1.1022;1.3778;
-129.0000;1.1062;1.3898;
-128.7000;1.1062;1.3946;
-128.4000;1.1038;1.3898;
-128.1000;1.0997;1.3850;
-127.8000;1.1103;1.4186;
-127.5000;1.1022;1.4042;
-127.2000;1.1022;1.4018;
-126.9000;1.1038;1.4066;
-126.6000;1.0989;1.4042;
-126.3000;1.1030;1.4162;
-126.0000;1.1022;1.4066;
-125.7000;1.1022;1.4018;
-125.4000;1.0997;1.4042;
-125.1000;1.1013;1.4138;
-124.8000;1.1046;1.4162;
-124.5000;1.1046;1.4234;
-124.2000;1.0981;1.4066;
-123.9000;1.1046;1.4114;
-123.6000;1.1038;1.4066;
-123.3000;1.1054;1.4066;
-123.0000;1.1038;1.4066;
-122.7000;1.1030;1.4114;
-122.4000;1.1022;1.4114;
-122.1000;1.1127;1.4234;
-121.8000;1.1030;1.4018;
-121.5000;1.1030;1.4066;
-121.2000;1.1030;1.4066;
-120.9000;1.1030;1.3970;
-120.6000;1.1070;1.4018;
-120.3000;1.1046;1.4138;
-120.0000;1.1062;1.4114;
-119.7000;1.1030;1.4042;
-119.4000;1.0989;1.3922;
-119.1000;1.1054;1.3994;
-118.8000;1.1046;1.3922;
-118.5000;1.1070;1.3946;
-118.2000;1.1046;1.3970;
-117.9000;1.1030;1.3970;
-117.6000;1.0973;1.3802;
-117.3000;1.1046;1.4114;
-117.0000;1.1038;1.4138;
-116.7000;1.1013;1.4162;
-116.4000;1.1144;1.4473;
-116.1000;1.1046;1.4258;
-115.8000;1.1038;1.4234;
-115.5000;1.1127;1.4401;
-115.2000;1.1038;1.4186;
-114.9000;1.1062;1.4138;
-114.6000;1.1046;1.4186;
-114.3000;1.1038;1.4138;
-114.0000;1.1046;1.4210;
-113.7000;1.1030;1.4258;
-113.4000;1.1070;1.4282;
-113.1000;1.1038;1.4258;
-112.8000;1.1038;1.4210;
-112.5000;1.1013;1.4210;
-112.2000;1.1013;1.4234;
-111.9000;1.1022;1.4306;
-111.6000;1.1022;1.4210;
-111.3000;1.1005;1.4162;
-111.0000;1.1013;1.4090;
-110.7000;1.1030;1.4066;
-110.4000;1.1005;1.4018;
-110.1000;1.1038;1.4066;
-109.8000;1.1103;1.4138;
-109.5000;1.1038;1.3994;
-109.2000;1.1046;1.4042;
-108.9000;1.1070;1.4186;
-108.6000;1.1038;1.4186;
-108.3000;1.1013;1.4090;
-108.0000;1.1054;1.4258;
-107.7000;1.1046;1.4234;
-107.4000;1.1022;1.4186;
-107.1000;1.1046;1.4234;
-106.8000;1.1030;1.4210;
-106.5000;1.1046;1.4210;
-106.2000;1.0997;1.4114;
-105.9000;1.1038;1.4090;
-105.6000;1.1030;1.4138;
-105.3000;1.1062;1.4114;
-105.0000;1.1022;1.4042;
-104.7000;1.1046;1.4042;
-104.4000;1.1062;1.4042;
-104.1000;1.1079;1.4042;
-103.8000;1.1046;1.3970;
-103.5000;1.1070;1.4090;
-103.2000;1.1070;1.4186;
-102.9000;1.1038;1.4138;
-102.6000;1.0997;1.4138;
-102.3000;1.1022;1.4138;
-102.0000;1.0981;1.3946;
-101.7000;1.1030;1.4018;
-101.4000;1.0997;1.3874;
-101.1000;1.0948;1.3731;
-100.8000;1.1054;1.3946;
-100.5000;1.1054;1.4066;
-100.2000;1.1054;1.4018;
-99.9000;1.1046;1.3898;
-99.6000;1.0997;1.3754;
-99.3000;1.1062;1.3874;
-99.0000;1.1038;1.3898;
-98.7000;1.1030;1.3946;
-98.4000;1.1054;1.3994;
-98.1000;1.1046;1.3970;
-97.8000;1.1038;1.3946;
-97.5000;1.1038;1.3970;
-97.2000;1.1005;1.3946;
-96.9000;1.0989;1.3922;
-96.6000;1.1030;1.4042;
-96.3000;1.1022;1.4042;
-96.0000;1.1013;1.4090;
-95.7000;1.1030;1.4186;
-95.4000;1.1030;1.4018;
-95.1000;1.1022;1.4018;
-94.8000;1.1022;1.4018;
-94.5000;1.1030;1.4018;
-94.2000;1.1062;1.4138;
-93.9000;1.1038;1.4042;
-93.6000;1.1038;1.4066;
-93.3000;1.0916;1.3850;
-93.0000;1.1030;1.4114;
-92.7000;1.1046;1.4138;
-92.4000;1.1030;1.4114;
-92.1000;1.1038;1.4114;
-91.8000;1.1005;1.4018;
-91.5000;1.1087;1.4258;
-91.2000;1.1022;1.4090;
-90.9000;1.1030;1.4018;
-90.6000;1.1046;1.4114;
-90.3000;1.1046;1.4090;
-90.0000;1.1030;1.4090;
-89.7000;1.1070;1.4162;
-89.4000;1.1038;1.4138;
-89.1000;1.1054;1.4138;
-88.8000;1.1038;1.4042;
-88.5000;1.1013;1.3994;
-88.2000;1.1054;1.4042;
-87.9000;1.1062;1.4066;
-87.6000;1.1054;1.3994;
-87.3000;1.1062;1.4042;
-87.0000;1.1022;1.4066;
-86.7000;1.1022;1.4114;
-86.4000;1.1054;1.4210;
-86.1000;1.1013;1.4138;
-85.8000;1.1038;1.4162;
-85.5000;1.1038;1.4066;
-85.2000;1.1046;1.4042;
-84.9000;1.1038;1.4042;
-84.6000;1.1030;1.4018;
-84.3000;1.1038;1.3970;
-84.0000;1.1054;1.3922;
-83.7000;1.1046;1.3850;
-83.4000;1.1119;1.3970;
-83.1000;1.1013;1.3754;
-82.8000;1.1022;1.3826;
-82.5000;1.1038;1.3898;
-82.2000;1.1013;1.3898;
-81.9000;1.1022;1.3922;
-81.6000;1.1030;1.3946;
-81.3000;1.1070;1.4090;
-81.0000;1.1030;1.4018;
-80.7000;1.1022;1.4018;
-80.4000;1.1038;1.3970;
-80.1000;1.1046;1.4042;
-79.8000;1.1022;1.3994;
-79.5000;1.1030;1.4042;
-79.2000;1.1046;1.4162;
-78.9000;1.1062;1.4162;
-78.6000;1.1013;1.4114;
-78.3000;1.1062;1.4234;
-78.0000;1.1038;1.4258;
-77.7000;1.1038;1.4354;
-77.4000;1.1038;1.4258;
-77.1000;1.0948;1.4042;
-76.8000;1.1030;1.4210;
-76.5000;1.1030;1.4210;
-76.2000;1.1038;1.4186;
-75.9000;1.1030;1.4066;
-75.6000;1.1038;1.4042;
-75.3000;1.1030;1.4018;
-75.0000;1.1030;1.4066;
-74.7000;1.1013;1.3994;
-74.4000;1.1022;1.3946;
-74.1000;1.1030;1.4018;
-73.8000;1.1038;1.4042;
-73.5000;1.1022;1.3874;
-73.2000;1.1013;1.3778;
-72.9000;1.1046;1.3802;
-72.6000;1.1030;1.3707;
-72.3000;1.1038;1.3754;
-72.0000;1.1038;1.3731;
-71.7000;1.1022;1.3731;
-71.4000;1.1013;1.3850;
-71.1000;1.1022;1.3922;
-70.8000;1.1038;1.3898;
-70.5000;1.1022;1.3922;
-70.2000;1.1030;1.3946;
-69.9000;1.1030;1.4018;
-69.6000;1.1038;1.4042;
-69.3000;1.1054;1.4066;
-69.0000;1.1038;1.4138;
-68.7000;1.1030;1.4186;
-68.4000;1.0981;1.4066;
-68.1000;1.1030;1.4186;
-67.8000;1.1046;1.4186;
-67.5000;1.1062;1.4186;
-67.2000;1.1005;1.4066;
-66.9000;1.1038;1.4186;
-66.6000;1.1022;1.4138;
-66.3000;1.1054;1.4234;
-66.0000;1.1038;1.4162;
-65.7000;1.0997;1.4114;
-65.4000;1.1038;1.4210;
-65.1000;1.1038;1.4162;
-64.8000;1.1005;1.4042;
-64.5000;1.1038;1.4138;
-64.2000;1.1038;1.4186;
-63.9000;1.1054;1.4234;
-63.6000;1.1070;1.4186;
-63.3000;1.1054;1.4138;
-63.0000;1.1054;1.4138;
-62.7000;1.1046;1.4162;
-62.4000;1.1022;1.4066;
-62.1000;1.1046;1.4090;
-61.8000;1.1046;1.3994;
-61.5000;1.1022;1.3994;
-61.2000;1.1013;1.4018;
-60.9000;1.1005;1.4018;
-60.6000;1.1030;1.4066;
-60.3000;1.1062;1.4090;
-60.0000;1.1046;1.4042;
-59.7000;1.1046;1.3970;
-59.4000;1.1054;1.4042;
-59.1000;1.1054;1.4090;
-58.8000;1.1022;1.4066;
-58.5000;1.1046;1.4114;
-58.2000;1.1038;1.4186;
-57.9000;1.1030;1.4162;
-57.6000;1.1038;1.4090;
-57.3000;1.1046;1.4066;
-57.0000;1.0965;1.3922;
-56.7000;1.1070;1.4138;
-56.4000;1.1054;1.4090;
-56.1000;1.1030;1.4138;
-55.8000;1.1005;1.4090;
-55.5000;1.1038;1.4210;
-55.2000;1.1030;1.4258;
-54.9000;1.1046;1.4306;
-54.6000;1.1046;1.4258;
-54.3000;1.1046;1.4234;
-54.0000;1.1022;1.4138;
-53.7000;1.1038;1.4114;
-53.4000;1.1038;1.4162;
-53.1000;1.1046;1.4138;
-52.8000;1.1079;1.4258;
-52.5000;1.1046;1.4234;
-52.2000;1.1022;1.4282;
-51.9000;1.1046;1.4330;
-51.6000;1.1046;1.4258;
-51.3000;1.1038;1.4114;
-51.0000;1.1030;1.4090;
-50.7000;1.1054;1.4162;
-50.4000;1.1054;1.4162;
-50.1000;1.1038;1.4162;
-49.8000;1.1046;1.4114;
-49.5000;1.1046;1.4090;
-49.2000;1.1079;1.4234;
-48.9000;1.1038;1.4162;
-48.6000;1.1046;1.4162;
-48.3000;1.1070;1.4282;
-48.0000;1.0981;1.4066;
-47.7000;1.1022;1.4090;
-47.4000;1.1013;1.4162;
-47.1000;1.1046;1.4306;
-46.8000;1.1030;1.4258;
-46.5000;1.1046;1.4282;
-46.2000;1.1054;1.4282;
-45.9000;1.1054;1.4186;
-45.6000;1.1062;1.4186;
-45.3000;1.1046;1.4186;
-45.0000;1.1046;1.4114;
-44.7000;1.1046;1.4162;
-44.4000;1.1038;1.4234;
-44.1000;1.1046;1.4282;
-43.8000;1.1103;1.4473;
-43.5000;1.1062;1.4378;
-43.2000;1.1079;1.4449;
-42.9000;1.1038;1.4354;
-42.6000;1.1013;1.4282;
-42.3000;1.1030;1.4330;
-42.0000;1.1046;1.4354;
-41.7000;1.1046;1.4378;
-41.4000;1.1046;1.4401;
-41.1000;1.1062;1.4378;
-40.8000;1.1062;1.4425;
-40.5000;1.1054;1.4354;
-40.2000;1.1046;1.4282;
-39.9000;1.1054;1.4306;
-39.6000;1.1054;1.4306;
-39.3000;1.1038;1.4282;
-39.0000;1.1030;1.4306;
-38.7000;1.1030;1.4282;
-38.4000;1.1070;1.4449;
-38.1000;1.0981;1.4234;
-37.8000;1.1046;1.4401;
-37.5000;1.1054;1.4425;
-37.2000;1.0965;1.4234;
-36.9000;1.1046;1.4425;
-36.6000;1.1022;1.4425;
-36.3000;1.1013;1.4330;
-36.0000;1.0956;1.4138;
-35.7000;1.1038;1.4354;
-35.4000;1.1030;1.4306;
-35.1000;1.1013;1.4210;
-34.8000;1.1038;1.4282;
-34.5000;1.1038;1.4282;
-34.2000;1.1030;1.4210;
-33.9000;1.1038;1.4258;
-33.6000;1.1038;1.4306;
-33.3000;1.1013;1.4186;
-33.0000;1.1054;1.4306;
-32.7000;1.1038;1.4282;
-32.4000;1.1030;1.4210;
-32.1000;1.1046;1.4234;
-31.8000;1.1054;1.4258;
-31.5000;1.1030;1.4210;
-31.2000;1.0997;1.4090;
-30.9000;1.1046;1.4138;
-30.6000;1.1046;1.4186;
-30.3000;1.1022;1.4258;
-30.0000;1.1013;1.4234;
-29.7000;1.1022;1.4258;
-29.4000;1.1022;1.4282;
-29.1000;1.1046;1.4330;
-28.8000;1.1038;1.4330;
-28.5000;1.0989;1.4282;
-28.2000;1.1022;1.4378;
-27.9000;1.1038;1.4378;
-27.6000;1.1046;1.4306;
-27.3000;1.1070;1.4425;
-27.0000;1.1038;1.4330;
-26.7000;1.1103;1.4473;
-26.4000;1.1038;1.4258;
-26.1000;1.1038;1.4210;
-25.8000;1.1005;1.4066;
-25.5000;1.1070;1.4210;
-25.2000;1.1046;1.4138;
-24.9000;1.1038;1.4090;
-24.6000;1.1038;1.4066;
-24.3000;1.1111;1.4306;
-24.0000;1.1046;1.4186;
-23.7000;1.1103;1.4306;
-23.4000;1.1030;1.4162;
-23.1000;1.1046;1.4306;
-22.8000;1.1062;1.4354;
-22.5000;1.1038;1.4306;
-22.2000;1.1062;1.4378;
-21.9000;1.1054;1.4306;
-21.6000;1.1054;1.4234;
-21.3000;1.1038;1.4234;
-21.0000;1.1103;1.4378;
-20.7000;1.1046;1.4282;
-20.4000;1.1062;1.4210;
-20.1000;1.1062;1.4210;
-19.8000;1.1079;1.4282;
-19.5000;1.1030;1.4114;
-19.2000;1.1054;1.4282;
-18.9000;1.1249;1.4785;
-18.6000;1.1005;1.4114;
-18.3000;1.0997;1.4162;
-18.0000;1.0989;1.4210;
-17.7000;1.1046;1.4330;
-17.4000;1.1013;1.4282;
-17.1000;1.1030;1.4282;
-16.8000;1.1046;1.4330;
-16.5000;1.1046;1.4330;
-16.2000;1.1046;1.4401;
-15.9000;1.1054;1.4425;
-15.6000;1.1087;1.4449;
-15.3000;1.1054;1.4354;
-15.0000;1.1054;1.4330;
-14.7000;1.1046;1.4330;
-14.4000;1.1054;1.4354;
-14.1000;1.1070;1.4354;
-13.8000;1.0965;1.3970;
-13.5000;1.1054;1.4258;
-13.2000;1.1038;1.4186;
-12.9000;1.1054;1.4258;
-12.6000;1.1062;1.4234;
-12.3000;1.1054;1.4210;
-12.0000;1.0908;1.3922;
-11.7000;1.1062;1.4330;
-11.4000;1.1054;1.4306;
-11.1000;1.1062;1.4258;
-10.8000;1.1030;1.4234;
-10.5000;1.1070;1.4449;
-10.2000;1.1038;1.4354;
-9.9000;1.1087;1.4425;
-9.6000;1.1070;1.4449;
-9.3000;1.1046;1.4473;
-9.0000;1.1030;1.4449;
-8.7000;1.1046;1.4378;
-8.4000;1.1030;1.4330;
-8.1000;1.1013;1.4330;
-7.8000;1.1062;1.4425;
-7.5000;1.1030;1.4401;
-7.2000;1.1038;1.4497;
-6.9000;1.1087;1.4521;
-6.6000;1.1022;1.4449;
-6.3000;1.1030;1.4521;
-6.0000;1.1013;1.4449;
-5.7000;1.1005;1.4378;
-5.4000;1.1013;1.4330;
-5.1000;1.1054;1.4425;
-4.8000;1.1038;1.4378;
-4.5000;1.1038;1.4378;
-4.2000;1.1030;1.4354;
-3.9000;1.1030;1.4401;
-3.6000;1.1054;1.4354;
-3.3000;1.1038;1.4234;
-3.0000;1.1054;1.4234;
-2.7000;1.1062;1.4282;
-2.4000;1.1046;1.4306;
-2.1000;1.1054;1.4186;
-1.8000;1.1062;1.4186;
-1.5000;1.1054;1.4234;
-1.2000;1.1070;1.4258;
-0.9000;1.1022;1.4234;
-0.6000;1.1030;1.4234;
-0.3000;1.1038;1.4234;
0.0000;1.1038;1.4234;
0.3000;1.1119;1.4162;
0.6000;1.1339;1.4449;
0.9000;1.1461;1.4737;
1.2000;1.1648;1.5096;
1.5000;1.1722;1.5312;
1.8000;1.1819;1.5552;
2.1000;1.1876;1.5671;
2.4000;1.1917;1.5959;
2.7000;1.2007;1.6295;
3.0000;1.2031;1.6414;
3.3000;1.2047;1.6462;
3.6000;1.2080;1.6486;
3.9000;1.2129;1.6582;
4.2000;1.2137;1.6606;
4.5000;1.2169;1.6726;
4.8000;1.2177;1.6630;
5.1000;1.2226;1.6678;
5.4000;1.2202;1.6582;
5.7000;1.2210;1.6630;
6.0000;1.2259;1.6750;
6.3000;1.2275;1.6798;
6.6000;1.2308;1.6798;
6.9000;1.2324;1.6822;
7.2000;1.2316;1.6798;
7.5000;1.2340;1.6774;
7.8000;1.2373;1.6774;
8.1000;1.2389;1.6726;
8.4000;1.2389;1.6702;
8.7000;1.2373;1.6630;
9.0000;1.2414;1.6678;
9.3000;1.2430;1.6774;
9.6000;1.2405;1.6750;
9.9000;1.2430;1.6822;
10.2000;1.2462;1.6870;
10.5000;1.2470;1.6846;
10.8000;1.2462;1.6870;
11.1000;1.2470;1.6942;
11.4000;1.2487;1.6942;
11.7000;1.2495;1.6942;
12.0000;1.2519;1.6989;
12.3000;1.2503;1.6942;
12.6000;1.2511;1.6989;
12.9000;1.2519;1.7061;
13.2000;1.2519;1.7037;
13.5000;1.2511;1.7037;
13.8000;1.2560;1.7109;
14.1000;1.2527;1.7061;
14.4000;1.2544;1.7037;
14.7000;1.2552;1.7013;
15.0000;1.2560;1.7013;
15.3000;1.2584;1.7013;
15.6000;1.2552;1.6894;
15.9000;1.2633;1.7085;
16.2000;1.2584;1.6894;
16.5000;1.2601;1.7013;
16.8000;1.2552;1.6894;
17.1000;1.2601;1.7037;
17.4000;1.2609;1.7037;
17.7000;1.2609;1.6918;
18.0000;1.2601;1.6965;
18.3000;1.2641;1.7085;
18.6000;1.2625;1.7109;
18.9000;1.2617;1.7013;
19.2000;1.2633;1.6989;
19.5000;1.2641;1.6894;
19.8000;1.2633;1.6798;
20.1000;1.2650;1.6870;
20.4000;1.2658;1.6918;
20.7000;1.2658;1.6942;
21.0000;1.2658;1.6918;
21.3000;1.2666;1.6989;
21.6000;1.2625;1.6942;
21.9000;1.2682;1.7013;
22.2000;1.2650;1.7085;
22.5000;1.2641;1.7061;
22.8000;1.2666;1.7181;
23.1000;1.2682;1.7181;
23.4000;1.2666;1.7181;
23.7000;1.2674;1.7157;
24.0000;1.2666;1.7253;
24.3000;1.2641;1.7301;
24.6000;1.2682;1.7325;
24.9000;1.2658;1.7229;
25.2000;1.2658;1.7109;
25.5000;1.2682;1.7061;
25.8000;1.2690;1.7133;
26.1000;1.2674;1.7061;
26.4000;1.2666;1.7061;
26.7000;1.2682;1.7061;
27.0000;1.2690;1.7037;
27.3000;1.2690;1.7013;
27.6000;1.2690;1.7061;
27.9000;1.2690;1.7061;
28.2000;1.2715;1.7085;
28.5000;1.2698;1.7037;
28.8000;1.2698;1.6965;
29.1000;1.2715;1.6942;
29.4000;1.2698;1.6918;
29.7000;1.2650;1.6846;
30.0000;1.2698;1.6918;
30.3000;1.2690;1.7013;
30.6000;1.2731;1.7037;
30.9000;1.2715;1.7061;
31.2000;1.2715;1.7085;
31.5000;1.2715;1.7109;
31.8000;1.2715;1.7109;
32.1000;1.2723;1.7061;
32.4000;1.2715;1.7133;
32.7000;1.2698;1.7085;
33.0000;1.2715;1.6989;
33.3000;1.2731;1.7013;
33.6000;1.2674;1.6918;
33.9000;1.2715;1.6989;
34.2000;1.2723;1.6989;
34.5000;1.2731;1.7085;
34.8000;1.2755;1.6989;
35.1000;1.2715;1.6965;
35.4000;1.2723;1.7013;
35.7000;1.2715;1.6989;
36.0000;1.2723;1.6918;
36.3000;1.2698;1.6822;
36.6000;1.2715;1.6798;
36.9000;1.2739;1.6822;
37.2000;1.2731;1.6774;
37.5000;1.2723;1.6750;
37.8000;1.2715;1.6702;
38.1000;1.2739;1.6798;
38.4000;1.2739;1.6774;
38.7000;1.2755;1.6870;
39.0000;1.2747;1.6918;
39.3000;1.2747;1.6894;
39.6000;1.2755;1.6918;
39.9000;1.2739;1.6870;
40.2000;1.2731;1.6870;
40.5000;1.2755;1.6942;
40.8000;1.2747;1.6894;
41.1000;1.2739;1.6942;
41.4000;1.2731;1.6989;
41.7000;1.2747;1.7037;
42.0000;1.2731;1.6918;
42.3000;1.2715;1.6822;
42.6000;1.2723;1.6846;
42.9000;1.2747;1.6894;
43.2000;1.2731;1.6918;
43.5000;1.2723;1.6894;
43.8000;1.2739;1.6894;
44.1000;1.2739;1.6894;
44.4000;1.2739;1.6918;
44.7000;1.2739;1.6918;
45.0000;1.2715;1.6965;
45.3000;1.2715;1.6942;
45.6000;1.2715;1.7037;
45.9000;1.2747;1.7013;
46.2000;1.2739;1.6942;
46.5000;1.2715;1.6918;
46.8000;1.2731;1.6918;
47.1000;1.2731;1.7013;
47.4000;1.2755;1.7061;
47.7000;1.2764;1.7037;
48.0000;1.2731;1.7013;
48.3000;1.2739;1.7085;
48.6000;1.2747;1.7133;
48.9000;1.2731;1.7061;
49.2000;1.2739;1.7085;
49.5000;1.2804;1.7205;
49.8000;1.2755;1.6989;
50.1000;1.2747;1.6870;
50.4000;1.2747;1.6894;
50.7000;1.2723;1.6822;
51.0000;1.2755;1.6870;
51.3000;1.2747;1.6774;
51.6000;1.2739;1.6702;
51.9000;1.2731;1.6654;
52.2000;1.2747;1.6702;
52.5000;1.2755;1.6750;
52.8000;1.2682;1.6678;
53.1000;1.2755;1.6846;
53.4000;1.2747;1.6894;
53.7000;1.2772;1.6942;
54.0000;1.2764;1.6870;
54.3000;1.2747;1.6846;
54.6000;1.2772;1.6894;
54.9000;1.2755;1.6846;
55.2000;1.2739;1.6798;
55.5000;1.2739;1.6750;
55.8000;1.2747;1.6822;
56.1000;1.2739;1.6870;
56.4000;1.2723;1.6822;
56.7000;1.2731;1.6774;
57.0000;1.2715;1.6798;
57.3000;1.2747;1.6894;
57.6000;1.2755;1.6894;
57.9000;1.2755;1.6822;
58.2000;1.2739;1.6798;
58.5000;1.2747;1.6822;
58.8000;1.2715;1.6798;
59.1000;1.2723;1.6870;
59.4000;1.2739;1.6894;
59.7000;1.2731;1.6870;
60.0000;1.2755;1.6894;
60.3000;1.2755;1.6942;
60.6000;1.2723;1.6822;
60.9000;1.2731;1.6726;
61.2000;1.2755;1.6822;
61.5000;1.2715;1.6774;
61.8000;1.2739;1.6798;
62.1000;1.2739;1.6894;
62.4000;1.2755;1.6870;
62.7000;1.2764;1.6846;
63.0000;1.2747;1.6822;
63.3000;1.2747;1.6846;
63.6000;1.2755;1.6822;
63.9000;1.2755;1.6774;
64.2000;1.2764;1.6798;
64.5000;1.2739;1.6870;
64.8000;1.2739;1.6822;
65.1000;1.2755;1.6846;
65.4000;1.2715;1.6822;
65.7000;1.2739;1.6750;
66.0000;1.2731;1.6702;
66.3000;1.2812;1.6965;
66.6000;1.2747;1.6870;
66.9000;1.2723;1.6894;
67.2000;1.2739;1.6894;
67.5000;1.2731;1.6894;
67.8000;1.2747;1.6942;
68.1000;1.2715;1.6870;
68.4000;1.2747;1.6870;
68.7000;1.2796;1.6965;
69.0000;1.2747;1.6822;
69.3000;1.2747;1.6870;
69.6000;1.2772;1.6942;
69.9000;1.2764;1.7013;
70.2000;1.2755;1.6989;
70.5000;1.2723;1.6989;
70.8000;1.2739;1.6989;
71.1000;1.2739;1.6942;
71.4000;1.2723;1.7013;
71.7000;1.2747;1.7013;
72.0000;1.2747;1.7013;
72.3000;1.2747;1.6894;
72.6000;1.2764;1.6894;
72.9000;1.2772;1.6870;
73.2000;1.2772;1.6798;
73.5000;1.2764;1.6750;
73.8000;1.2764;1.6702;
74.1000;1.2764;1.6798;
74.4000;1.2731;1.6678;
74.7000;1.2772;1.6750;
75.0000;1.2755;1.6750;
75.3000;1.2772;1.6774;
75.6000;1.2755;1.6726;
75.9000;1.2747;1.6654;
76.2000;1.2804;1.6822;
76.5000;1.2755;1.6726;
76.8000;1.2764;1.6630;
77.1000;1.2707;1.6438;
77.4000;1.2755;1.6582;
77.7000;1.2755;1.6630;
78.0000;1.2764;1.6630;
78.3000;1.2674;1.6582;
78.6000;1.2747;1.6846;
78.9000;1.2764;1.6870;
79.2000;1.2731;1.6942;
79.5000;1.2715;1.6846;
79.8000;1.2739;1.6894;
80.1000;1.2747;1.6870;
80.4000;1.2747;1.6846;
80.7000;1.2747;1.6774;
81.0000;1.2747;1.6774;
81.3000;1.2764;1.6870;
81.6000;1.2715;1.6702;
81.9000;1.2747;1.6918;
82.2000;1.2772;1.6918;
82.5000;1.2747;1.6918;
82.8000;1.2755;1.7013;
83.1000;1.2764;1.6989;
83.4000;1.2772;1.6989;
83.7000;1.2764;1.6989;
84.0000;1.2739;1.6894;
84.3000;1.2731;1.6774;
84.6000;1.2755;1.6918;
84.9000;1.2755;1.6918;
85.2000;1.2780;1.6942;
85.5000;1.2739;1.6870;
85.8000;1.2764;1.6894;
86.1000;1.2715;1.6774;
86.4000;1.2747;1.6822;
86.7000;1.2853;1.7061;
87.0000;1.2764;1.6846;
87.3000;1.2658;1.6630;
87.6000;1.2747;1.6918;
87.9000;1.2755;1.6989;
88.2000;1.2747;1.6965;
88.5000;1.2772;1.7037;
88.8000;1.2739;1.6942;
89.1000;1.2755;1.6894;
89.4000;1.2821;1.7037;
89.7000;1.2747;1.6870;
90.0000;1.2739;1.6870;
90.3000;1.2731;1.6870;
90.6000;1.2772;1.6918;
90.9000;1.2755;1.6989;
91.2000;1.2731;1.6942;
91.5000;1.2772;1.7013;
91.8000;1.2772;1.7037;
92.1000;1.2755;1.7037;
92.4000;1.2739;1.6965;
92.7000;1.2755;1.6918;
93.0000;1.2764;1.6942;
93.3000;1.2877;1.7277;
93.6000;1.2739;1.6965;
93.9000;1.2755;1.6965;
94.2000;1.2658;1.6774;
94.5000;1.2755;1.6942;
94.8000;1.2747;1.6822;
95.1000;1.2764;1.6942;
95.4000;1.2780;1.6965;
95.7000;1.2739;1.6870;
96.0000;1.2780;1.6965;
96.3000;1.2747;1.6870;
96.6000;1.2731;1.6774;
96.9000;1.2755;1.6798;
97.2000;1.2764;1.6870;
97.5000;1.2796;1.6989;
97.8000;1.2764;1.6965;
98.1000;1.2796;1.7157;
98.4000;1.2772;1.7061;
98.7000;1.2772;1.7037;
99.0000;1.2796;1.7109;
99.3000;1.2772;1.6989;
99.6000;1.2788;1.7013;
99.9000;1.2755;1.6918;
100.2000;1.2739;1.6846;
100.5000;1.2690;1.6822;
100.8000;1.2755;1.6918;
101.1000;1.2747;1.6822;
101.4000;1.2731;1.6726;
101.7000;1.2723;1.6726;
102.0000;1.2764;1.6774;
102.3000;1.2755;1.6750;
102.6000;1.2731;1.6750;
102.9000;1.2739;1.6774;
103.2000;1.2707;1.6654;
103.5000;1.2747;1.6678;
103.8000;1.2764;1.6726;
104.1000;1.2755;1.6750;
104.4000;1.2772;1.6846;
104.7000;1.2747;1.6750;
105.0000;1.2764;1.6726;
105.3000;1.2772;1.6750;
105.6000;1.2723;1.6630;
105.9000;1.2821;1.6822;
106.2000;1.2772;1.6630;
106.5000;1.2772;1.6606;
106.8000;1.2715;1.6390;
107.1000;1.2698;1.6366;
107.4000;1.2755;1.6510;
107.7000;1.2764;1.6654;
108.0000;1.2747;1.6654;
108.3000;1.2715;1.6558;
108.6000;1.2747;1.6606;
108.9000;1.2755;1.6630;
109.2000;1.2796;1.6678;
109.5000;1.2764;1.6534;
109.8000;1.2764;1.6534;
110.1000;1.2755;1.6462;
110.4000;1.2772;1.6630;
110.7000;1.2764;1.6654;
111.0000;1.2755;1.6630;
111.3000;1.2764;1.6726;
111.6000;1.2764;1.6774;
111.9000;1.2747;1.6870;
112.2000;1.2764;1.6894;
112.5000;1.2755;1.6870;
112.8000;1.2764;1.6918;
113.1000;1.2764;1.6989;
113.4000;1.2869;1.7229;
113.7000;1.2723;1.6798;
114.0000;1.2755;1.6846;
114.3000;1.2739;1.6750;
114.6000;1.2764;1.6750;
114.9000;1.2755;1.6678;
115.2000;1.2821;1.6894;
115.5000;1.2772;1.6798;
115.8000;1.2772;1.6798;
116.1000;1.2755;1.6798;
116.4000;1.2755;1.6774;
116.7000;1.2690;1.6750;
117.0000;1.2731;1.6822;
117.3000;1.2747;1.6870;
117.6000;1.2755;1.6942;
117.9000;1.2739;1.6918;
118.2000;1.2707;1.6726;
118.5000;1.2755;1.6726;
118.8000;1.2747;1.6750;
119.1000;1.2747;1.6774;
119.4000;1.2747;1.6726;
119.7000;1.2764;1.6726;
120.0000;1.2772;1.6726;
120.3000;1.2755;1.6702;
120.6000;1.2755;1.6726;
120.9000;1.2755;1.6750;
121.2000;1.2780;1.6750;
121.5000;1.2780;1.6726;
121.8000;1.2755;1.6606;
122.1000;1.2764;1.6654;
122.4000;1.2853;1.6918;
122.7000;1.2764;1.6798;
123.0000;1.2739;1.6750;
123.3000;1.2755;1.6726;
123.6000;1.2715;1.6630;
123.9000;1.2796;1.6846;
124.2000;1.2731;1.6726;
124.5000;1.2731;1.6726;
124.8000;1.2747;1.6726;
125.1000;1.2739;1.6702;
125.4000;1.2796;1.6870;
125.7000;1.2731;1.6678;
126.0000;1.2747;1.6726;
126.3000;1.2755;1.6750;
126.6000;1.2739;1.6822;
126.9000;1.2690;1.6654;
127.2000;1.2739;1.6798;
127.5000;1.2747;1.6798;
127.8000;1.2755;1.6774;
128.1000;1.2731;1.6726;
128.4000;1.2764;1.6918;
128.7000;1.2739;1.6894;
129.0000;1.2747;1.6894;
129.3000;1.2731;1.6822;
129.6000;1.2788;1.6942;
129.9000;1.2739;1.6798;
130.2000;1.2755;1.6798;
130.5000;1.2723;1.6798;
130.8000;1.2747;1.6918;
131.1000;1.2764;1.6942;
131.4000;1.2755;1.7013;
131.7000;1.2715;1.6846;
132.0000;1.2731;1.6870;
132.3000;1.2739;1.6894;
132.6000;1.2755;1.6846;
132.9000;1.2747;1.6918;
133.2000;1.2731;1.6798;
133.5000;1.2739;1.6798;
133.8000;1.2739;1.6750;
134.1000;1.2747;1.6846;
134.4000;1.2772;1.6942;
134.7000;1.2747;1.6846;
135.0000;1.2739;1.6846;
135.3000;1.2747;1.6846;
135.6000;1.2739;1.6822;
135.9000;1.2747;1.6894;
136.2000;1.2747;1.6822;
136.5000;1.2715;1.6846;
136.8000;1.2739;1.6918;
137.1000;1.2731;1.6822;
137.4000;1.2739;1.6846;
137.7000;1.2739;1.6870;
138.0000;1.2739;1.6726;
138.3000;1.2764;1.6774;
138.6000;1.2764;1.6870;
138.9000;1.2764;1.6870;
139.2000;1.2747;1.6894;
139.5000;1.2747;1.6989;
139.8000;1.2731;1.6965;
140.1000;1.2747;1.7037;
140.4000;1.2731;1.7109;
140.7000;1.2731;1.7061;
141.0000;1.2780;1.7181;
141.3000;1.2747;1.7085;
141.6000;1.2739;1.6989;
141.9000;1.2747;1.6989;
142.2000;1.2731;1.6989;
142.5000;1.2690;1.6942;
142.8000;1.2755;1.7133;
143.1000;1.2812;1.7229;
143.4000;1.2747;1.7085;
143.7000;1.2755;1.7061;
144.0000;1.2755;1.7061;
144.3000;1.2707;1.6942;
144.6000;1.2739;1.6989;
144.9000;1.2747;1.6989;
145.2000;1.2780;1.6942;
145.5000;1.2739;1.6798;
145.8000;1.2731;1.6822;
146.1000;1.2739;1.6798;
146.4000;1.2739;1.6750;
146.7000;1.2739;1.6822;
147.0000;1.2788;1.6918;
147.3000;1.2698;1.6630;
147.6000;1.2698;1.6654;
147.9000;1.2723;1.6702;
148.2000;1.2731;1.6702;
148.5000;1.2723;1.6726;
148.8000;1.2731;1.6702;
149.1000;1.2723;1.6654;
149.4000;1.2723;1.6702;
149.7000;1.2739;1.6630;
150.0000;1.2747;1.6654;
150.3000;1.2731;1.6630;
150.6000;1.2772;1.6726;
150.9000;1.2731;1.6750;
151.2000;1.2723;1.6798;
151.5000;1.2747;1.6822;
151.8000;1.2747;1.6918;
152.1000;1.2755;1.6942;
152.4000;1.2739;1.6870;
152.7000;1.2731;1.6870;
153.0000;1.2764;1.7037;
153.3000;1.2731;1.7037;
153.6000;1.2747;1.7133;
153.9000;1.2739;1.7085;
154.2000;1.2739;1.6942;
154.5000;1.2707;1.6870;
154.8000;1.2747;1.6846;
155.1000;1.2755;1.6870;
155.4000;1.2739;1.6822;
155.7000;1.2747;1.6750;
156.0000;1.2747;1.6702;
156.3000;1.2747;1.6678;
156.6000;1.2772;1.6654;
156.9000;1.2755;1.6654;
157.2000;1.2731;1.6654;
157.5000;1.2739;1.6678;
157.8000;1.2764;1.6750;
158.1000;1.2747;1.6798;
158.4000;1.2772;1.6918;
158.7000;1.2739;1.6750;
159.0000;1.2747;1.6726;
159.3000;1.2739;1.6702;
159.6000;1.2755;1.6702;
159.9000;1.2747;1.6654;
160.2000;1.2747;1.6678;
160.5000;1.2764;1.6678;
160.8000;1.2747;1.6750;
161.1000;1.2731;1.6678;
161.4000;1.2731;1.6726;
161.7000;1.2755;1.6750;
162.0000;1.2731;1.6630;
162.3000;1.2747;1.6702;
162.6000;1.2723;1.6582;
162.9000;1.2739;1.6630;
163.2000;1.2747;1.6726;
163.5000;1.2739;1.6654;
163.8000;1.2747;1.6654;
164.1000;1.2829;1.6798;
164.4000;1.2747;1.6630;
164.7000;1.2723;1.6582;
165.0000;1.2755;1.6726;
165.3000;1.2755;1.6750;
165.6000;1.2682;1.6510;
165.9000;1.2780;1.6750;
166.2000;1.2715;1.6750;
166.5000;1.2747;1.6870;
166.8000;1.2755;1.6942;
167.1000;1.2764;1.6965;
167.4000;1.2739;1.6918;
167.7000;1.2772;1.6870;
168.0000;1.2731;1.6822;
168.3000;1.2641;1.6582;
168.6000;1.2723;1.6822;
168.9000;1.2739;1.6750;
169.2000;1.2739;1.6846;
169.5000;1.2731;1.6798;
169.8000;1.2764;1.6870;
170.1000;1.2747;1.6846;
170.4000;1.2764;1.6870;
170.7000;1.2698;1.6774;
171.0000;1.2755;1.6870;
171.3000;1.2747;1.6726;
171.6000;1.2715;1.6654;
171.9000;1.2755;1.6774;
172.2000;1.2747;1.6750;
172.5000;1.2633;1.6510;
172.8000;1.2731;1.6750;
173.1000;1.2739;1.6750;
173.4000;1.2821;1.6822;
173.7000;1.2731;1.6678;
174.0000;1.2739;1.6750;
174.3000;1.2755;1.6894;
174.6000;1.2747;1.6942;
174.9000;1.2755;1.7061;
175.2000;1.2755;1.7061;
175.5000;1.2747;1.7037;
175.8000;1.2755;1.6989;
176.1000;1.2764;1.6942;
176.4000;1.2755;1.6870;
176.7000;1.2723;1.6870;
177.0000;1.2747;1.6870;
177.3000;1.2747;1.6798;
177.6000;1.2747;1.6702;
177.9000;1.2723;1.6630;
178.2000;1.2731;1.6630;
178.5000;1.2780;1.6774;
178.8000;1.2731;1.6750;
179.1000;1.2739;1.6726;
179.4000;1.2731;1.6750;
179.7000;1.2739;1.6822;
180.0000;1.2731;1.6846;
180.3000;1.2747;1.6870;
180.6000;1.2715;1.6774;
180.9000;1.2739;1.6798;
181.2000;1.2723;1.6774;
181.5000;1.2739;1.6750;
181.8000;1.2731;1.6702;
182.1000;1.2739;1.6774;
182.4000;1.2731;1.6726;
182.7000;1.2747;1.6798;
183.0000;1.2731;1.6822;
183.3000;1.2739;1.6894;
183.6000;1.2698;1.6822;
183.9000;1.2747;1.6822;
184.2000;1.2731;1.6702;
184.5000;1.2666;1.6534;
184.8000;1.2731;1.6654;
185.1000;1.2747;1.6630;
185.4000;1.2731;1.6654;
185.7000;1.2723;1.6774;
186.0000;1.2747;1.6918;
186.3000;1.2715;1.6894;
186.6000;1.2715;1.6822;
186.9000;1.2747;1.6846;
187.2000;1.2739;1.6822;
187.5000;1.2723;1.6702;
187.8000;1.2731;1.6774;
188.1000;1.2755;1.6870;
188.4000;1.2731;1.6798;
188.7000;1.2723;1.6678;
189.0000;1.2723;1.6702;
189.3000;1.2739;1.6678;
189.6000;1.2682;1.6582;
189.9000;1.2747;1.6750;
190.2000;1.2739;1.6774;
190.5000;1.2723;1.6726;
190.8000;1.2625;1.6486;
191.1000;1.2731;1.6630;
191.4000;1.2747;1.6654;
191.7000;1.2739;1.6582;
192.0000;1.2747;1.6654;
192.3000;1.2690;1.6486;
192.6000;1.2715;1.6534;
192.9000;1.2698;1.6606;
193.2000;1.2715;1.6582;
193.5000;1.2715;1.6630;
193.8000;1.2723;1.6750;
194.1000;1.2715;1.6702;
194.4000;1.2609;1.6486;
194.7000;1.2723;1.6750;
195.0000;1.2731;1.6750;
195.3000;1.2747;1.6726;
195.6000;1.2739;1.6750;
195.9000;1.2747;1.6726;
196.2000;1.2755;1.6702;
196.5000;1.2715;1.6606;
196.8000;1.2731;1.6750;
197.1000;1.2739;1.6774;
197.4000;1.2715;1.6822;
197.7000;1.2739;1.6798;
198.0000;1.2747;1.6774;
198.3000;1.2739;1.6750;
198.6000;1.2739;1.6702;
198.9000;1.2747;1.6678;
199.2000;1.2747;1.6750;
199.5000;1.2707;1.6606;
199.8000;1.2731;1.6678;
200.1000;1.2755;1.6726;
200.4000;1.2739;1.6822;
200.7000;1.2755;1.6870;
201.0000;1.2723;1.6846;
201.3000;1.2739;1.6846;
201.6000;1.2731;1.6822;
201.9000;1.2812;1.7085;
202.2000;1.2666;1.6726;
202.5000;1.2747;1.6846;
202.8000;1.2739;1.6774;
203.1000;1.2723;1.6678;
203.4000;1.2869;1.7085;
203.7000;1.2690;1.6558;
204.0000;1.2731;1.6798;
204.3000;1.2739;1.6870;
204.6000;1.2715;1.6870;
204.9000;1.2747;1.6870;
205.2000;1.2764;1.6870;
205.5000;1.2755;1.6894;
205.8000;1.2731;1.6846;
206.1000;1.2747;1.6750;
206.4000;1.2747;1.6774;
206.7000;1.2731;1.6726;
207.0000;1.2739;1.6774;
207.3000;1.2731;1.6774;
207.6000;1.2682;1.6750;
207.9000;1.2731;1.6989;
208.2000;1.2747;1.7037;
208.5000;1.2747;1.7109;
208.8000;1.2731;1.7037;
209.1000;1.2837;1.7277;
209.4000;1.2739;1.7061;
209.7000;1.2747;1.7037;
210.0000;1.2772;1.7085;
210.3000;1.2739;1.7037;
210.6000;1.2731;1.7061;
210.9000;1.2739;1.6942;
211.2000;1.2755;1.7109;
211.5000;1.2747;1.7085;
211.8000;1.2755;1.7085;
212.1000;1.2731;1.7061;
212.4000;1.2723;1.7013;
212.7000;1.2739;1.6942;
213.0000;1.2747;1.6942;
213.3000;1.2723;1.6918;
213.6000;1.2674;1.6798;
213.9000;1.2723;1.6989;
214.2000;1.2707;1.6942;
214.5000;1.2723;1.6918;
214.8000;1.2715;1.6942;
215.1000;1.2739;1.7037;
215.4000;1.2731;1.6965;
215.7000;1.2723;1.6918;
216.0000;1.2764;1.6989;
216.3000;1.2764;1.6918;
216.6000;1.2747;1.6942;
216.9000;1.2747;1.6989;
217.2000;1.2739;1.7085;
217.5000;1.2715;1.7085;
217.8000;1.2755;1.7181;
218.1000;1.2739;1.7085;
218.4000;1.2755;1.6989;
218.7000;1.2674;1.6846;
219.0000;1.2723;1.6846;
219.3000;1.2747;1.6918;
219.6000;1.2739;1.6822;
219.9000;1.2715;1.6894;
220.2000;1.2682;1.6870;
220.5000;1.2739;1.7037;
220.8000;1.2731;1.7013;
221.1000;1.2715;1.6894;
221.4000;1.2764;1.7061;
221.7000;1.2723;1.6965;
222.0000;1.2731;1.6965;
222.3000;1.2707;1.6894;
222.6000;1.2764;1.6942;
222.9000;1.2690;1.6774;
223.2000;1.2788;1.7037;
223.5000;1.2747;1.6942;
223.8000;1.2747;1.6918;
224.1000;1.2739;1.6918;
224.4000;1.2666;1.6774;
224.7000;1.2772;1.7037;
225.0000;1.2723;1.6870;
225.3000;1.2788;1.6965;
225.6000;1.2739;1.6942;
225.9000;1.2780;1.7109;
226.2000;1.2698;1.6918;
226.5000;1.2641;1.6726;
226.8000;1.2682;1.6822;
227.1000;1.2731;1.6965;
227.4000;1.2764;1.7013;
227.7000;1.2715;1.6846;
228.0000;1.2731;1.6894;
228.3000;1.2723;1.6822;
228.6000;1.2707;1.6798;
228.9000;1.2715;1.6798;
229.2000;1.2707;1.6870;
229.5000;1.2731;1.6870;
229.8000;1.2715;1.6822;
230.1000;1.2690;1.6822;
230.4000;1.2731;1.6918;
230.7000;1.2812;1.7109;
231.0000;1.2731;1.6918;
231.3000;1.2723;1.6870;
231.6000;1.2723;1.6822;
231.9000;1.2739;1.6846;
232.2000;1.2715;1.6918;
232.5000;1.2731;1.6965;
232.8000;1.2723;1.6965;
233.1000;1.2796;1.7109;
233.4000;1.2723;1.6965;
233.7000;1.2755;1.7037;
234.0000;1.2674;1.6774;
234.3000;1.2739;1.6942;
234.6000;1.2723;1.6894;
234.9000;1.2715;1.6965;
235.2000;1.2739;1.7061;
235.5000;1.2747;1.6989;
235.8000;1.2723;1.6798;
236.1000;1.2739;1.6846;
236.4000;1.2715;1.6870;
236.7000;1.2731;1.6846;
237.0000;1.2739;1.6822;
237.3000;1.2715;1.6726;
237.6000;1.2731;1.6702;
237.9000;1.2723;1.6726;
238.2000;1.2723;1.6774;
238.5000;1.2715;1.6726;
238.8000;1.2690;1.6678;
239.1000;1.2723;1.6774;
239.4000;1.2739;1.6846;
239.7000;1.2731;1.6918;
240.0000;1.2715;1.6846;
240.3000;1.2715;1.6870;
240.6000;1.2731;1.6918;
240.9000;1.2739;1.6965;
241.2000;1.2715;1.6918;
241.5000;1.2723;1.6894;
241.8000;1.2609;1.6510;
242.1000;1.2739;1.6822;
242.4000;1.2731;1.6798;
242.7000;1.2731;1.6774;
243.0000;1.2780;1.6822;
243.3000;1.2698;1.6654;
243.6000;1.2715;1.6726;
243.9000;1.2731;1.6774;
244.2000;1.2739;1.6846;
244.5000;1.2755;1.6822;
244.8000;1.2755;1.6822;
245.1000;1.2796;1.6894;
245.4000;1.2731;1.6774;
245.7000;1.2731;1.6750;
246.0000;1.2739;1.6846;
246.3000;1.2731;1.6965;
246.6000;1.2723;1.6942;
246.9000;1.2715;1.6870;
247.2000;1.2747;1.6942;
247.5000;1.2747;1.6965;
247.8000;1.2723;1.6822;
248.1000;1.2723;1.6822;
248.4000;1.2788;1.7037;
248.7000;1.2755;1.7061;
249.0000;1.2739;1.7085;
249.3000;1.2731;1.7133;
249.6000;1.2715;1.7013;
249.9000;1.2739;1.7061;
250.2000;1.2698;1.6965;
250.5000;1.2707;1.6965;
250.8000;1.2723;1.6989;
251.1000;1.2747;1.7013;
251.4000;1.2707;1.6942;
251.7000;1.2739;1.6989;
252.0000;1.2715;1.6918;
252.3000;1.2731;1.6965;
252.6000;1.2731;1.6894;
252.9000;1.2731;1.6894;
253.2000;1.2755;1.7109;
253.5000;1.2723;1.6989;
253.8000;1.2731;1.7085;
254.1000;1.2731;1.7061;
254.4000;1.2723;1.6989;
254.7000;1.2707;1.6989;
255.0000;1.2731;1.7061;
255.3000;1.2723;1.7085;
255.6000;1.2731;1.7061;
255.9000;1.2731;1.7061;
256.2000;1.2731;1.7037;
256.5000;1.2731;1.7085;
256.8000;1.2723;1.6965;
257.1000;1.2731;1.6942;
257.4000;1.2731;1.6870;
257.7000;1.2739;1.6870;
258.0000;1.2715;1.6774;
258.3000;1.2739;1.6798;
258.6000;1.2739;1.6846;
258.9000;1.2747;1.6942;
259.2000;1.2707;1.6846;
259.5000;1.2715;1.6870;
259.8000;1.2755;1.6942;
260.1000;1.2739;1.6894;
260.4000;1.2739;1.6894;
260.7000;1.2715;1.6989;
261.0000;1.2715;1.6942;
261.3000;1.2723;1.6965;
261.6000;1.2739;1.6942;
261.9000;1.2739;1.6989;
262.2000;1.2715;1.6942;
262.5000;1.2739;1.6989;
262.8000;1.2698;1.6918;
263.1000;1.2723;1.7037;
263.4000;1.2747;1.7085;
263.7000;1.2739;1.7109;
264.0000;1.2731;1.7037;
264.3000;1.2723;1.7037;
264.6000;1.2674;1.6798;
264.9000;1.2715;1.6918;
265.2000;1.2739;1.7013;
265.5000;1.2698;1.6870;
265.8000;1.2707;1.6989;
266.1000;1.2723;1.7133;
266.4000;1.2690;1.7277;
266.7000;1.2747;1.7397;
267.0000;1.2731;1.7373;
267.3000;1.2715;1.7277;
267.6000;1.2739;1.7253;
267.9000;1.2739;1.7205;
268.2000;1.2731;1.7181;
268.5000;1.2723;1.7133;
268.8000;1.2715;1.7061;
269.1000;1.2707;1.7061;
269.4000;1.2715;1.7061;
269.7000;1.2788;1.7325;
270.0000;1.2682;1.7037;
270.3000;1.2723;1.7205;
270.6000;1.2747;1.7181;
270.9000;1.2731;1.7037;
271.2000;1.2731;1.7085;
271.5000;1.2723;1.7013;
271.8000;1.2723;1.6870;
272.1000;1.2723;1.6822;
272.4000;1.2764;1.6918;
272.7000;1.2715;1.6846;
273.0000;1.2739;1.7013;
273.3000;1.2690;1.6846;
273.6000;1.2723;1.6894;
273.9000;1.2739;1.6942;
274.2000;1.2731;1.6894;
274.5000;1.2739;1.6989;
274.8000;1.2690;1.6942;
275.1000;1.2715;1.7037;
275.4000;1.2723;1.7061;
275.7000;1.2707;1.7013;
276.0000;1.2698;1.6965;
276.3000;1.2723;1.7061;
276.6000;1.2707;1.7061;
276.9000;1.2715;1.7037;
277.2000;1.2739;1.7013;
277.5000;1.2731;1.7013;
277.8000;1.2747;1.6942;
278.1000;1.2731;1.6918;
278.4000;1.2731;1.6846;
278.7000;1.2715;1.6918;
279.0000;1.2723;1.6894;
279.3000;1.2731;1.6942;
279.6000;1.2698;1.6798;
279.9000;1.2731;1.7013;
280.2000;1.2715;1.6965;
280.5000;1.2674;1.6965;
280.8000;1.2796;1.7133;
281.1000;1.2715;1.6942;
281.4000;1.2723;1.6894;
281.7000;1.2772;1.7013;
282.0000;1.2731;1.6870;
282.3000;1.2739;1.6918;
282.6000;1.2739;1.6870;
282.9000;1.2715;1.6894;
283.2000;1.2739;1.6942;
283.5000;1.2731;1.7037;
283.8000;1.2707;1.7133;
284.1000;1.2723;1.7133;
284.4000;1.2739;1.7133;
284.7000;1.2707;1.7061;
285.0000;1.2715;1.7037;
285.3000;1.2707;1.6965;
285.6000;1.2731;1.6989;
285.9000;1.2682;1.7013;
286.2000;1.2715;1.6918;
286.5000;1.2723;1.6965;
286.8000;1.2739;1.6965;
287.1000;1.2707;1.6894;
287.4000;1.2723;1.6989;
287.7000;1.2723;1.6989;
288.0000;1.2682;1.6965;
288.3000;1.2723;1.7037;
288.6000;1.2723;1.7013;
288.9000;1.2723;1.6989;
289.2000;1.2707;1.6989;
289.5000;1.2764;1.7133;
289.8000;1.2715;1.6989;
290.1000;1.2707;1.6989;
290.4000;1.2707;1.7013;
290.7000;1.2723;1.7061;
291.0000;1.2715;1.7013;
291.3000;1.2715;1.6965;
291.6000;1.2715;1.7013;
291.9000;1.2731;1.7037;
292.2000;1.2723;1.7037;
292.5000;1.2747;1.7013;
292.8000;1.2707;1.6918;
293.1000;1.2723;1.7037;
293.4000;1.2755;1.7013;
293.7000;1.2731;1.6942;
294.0000;1.2739;1.7013;
294.3000;1.2731;1.6942;
294.6000;1.2731;1.6918;
294.9000;1.2715;1.6870;
295.2000;1.2731;1.6894;
295.5000;1.2698;1.6894;
295.8000;1.2723;1.7013;
296.1000;1.2723;1.7013;
296.4000;1.2715;1.6965;
296.7000;1.2731;1.6989;
297.0000;1.2715;1.7037;
297.3000;1.2682;1.6942;
297.6000;1.2739;1.7085;
297.9000;1.2707;1.7157;
298.2000;1.2698;1.7229;
298.5000;1.2698;1.7181;
298.8000;1.2723;1.7133;
299.1000;1.2707;1.7013;
299.4000;1.2723;1.6918;
299.7000;1.2723;1.6798;
300.0000;1.2698;1.6750;
300.3000;1.2707;1.6702;
300.6000;1.2707;1.6678;
300.9000;1.2723;1.6774;
301.2000;1.2731;1.6846;
301.5000;1.2707;1.6774;
301.8000;1.2723;1.6822;
302.1000;1.2723;1.6822;
302.4000;1.2731;1.6750;
302.7000;1.2731;1.6726;
303.0000;1.2764;1.6798;
303.3000;1.2739;1.6774;
303.6000;1.2682;1.6702;
303.9000;1.2723;1.6822;
304.2000;1.2707;1.6846;
304.5000;1.2698;1.6798;
304.8000;1.2731;1.6870;
305.1000;1.2707;1.6750;
305.4000;1.2739;1.6750;
305.7000;1.2764;1.6870;
306.0000;1.2731;1.6798;
306.3000;1.2698;1.6870;
306.6000;1.2715;1.6918;
306.9000;1.2723;1.6965;
307.2000;1.2747;1.6942;
307.5000;1.2723;1.6918;
307.8000;1.2731;1.7013;
308.1000;1.2682;1.6750;
308.4000;1.2723;1.6942;
308.7000;1.2715;1.6989;
309.0000;1.2698;1.6989;
309.3000;1.2682;1.7013;
309.6000;1.2698;1.7133;
309.9000;1.2682;1.7061;
310.2000;1.2707;1.7013;
310.5000;1.2698;1.6822;
310.8000;1.2739;1.6822;
311.1000;1.2731;1.6798;
311.4000;1.2747;1.6918;
311.7000;1.2723;1.6846;
312.0000;1.2755;1.6989;
312.3000;1.2747;1.6989;
312.6000;1.2780;1.7181;
312.9000;1.2601;1.6798;
313.2000;1.2715;1.7061;
313.5000;1.2715;1.7109;
313.8000;1.2739;1.7109;
314.1000;1.2707;1.6989;
314.4000;1.2723;1.7061;
314.7000;1.2731;1.7061;
315.0000;1.2731;1.7061;
315.3000;1.2715;1.7061;
315.6000;1.2698;1.7205;
315.9000;1.2698;1.7229;
316.2000;1.2739;1.7301;
316.5000;1.2764;1.7301;
316.8000;1.2755;1.7229;
317.1000;1.2788;1.7157;
317.4000;1.2715;1.6942;
317.7000;1.2747;1.6942;
318.0000;1.2723;1.6894;
318.3000;1.2707;1.6846;
318.6000;1.2739;1.6918;
318.9000;1.2723;1.6894;
319.2000;1.2698;1.6846;
319.5000;1.2707;1.6942;
319.8000;1.2698;1.6894;
320.1000;1.2674;1.6822;
320.4000;1.2715;1.7013;
320.7000;1.2715;1.7013;
321.0000;1.2707;1.7037;
321.3000;1.2707;1.7037;
321.6000;1.2715;1.6965;
321.9000;1.2715;1.6942;
322.2000;1.2707;1.7013;
322.5000;1.2723;1.6989;
322.8000;1.2723;1.6965;
323.1000;1.2707;1.7013;
323.4000;1.2715;1.7061;
323.7000;1.2723;1.7037;
324.0000;1.2723;1.6965;
324.3000;1.2723;1.7013;
324.6000;1.2764;1.7037;
324.9000;1.2723;1.6989;
325.2000;1.2731;1.6989;
325.5000;1.2707;1.6894;
325.8000;1.2747;1.6870;
326.1000;1.2707;1.6798;
326.4000;1.2707;1.6894;
326.7000;1.2707;1.6942;
327.0000;1.2715;1.6965;
327.3000;1.2715;1.6989;
327.6000;1.2715;1.6989;
327.9000;1.2707;1.7013;
328.2000;1.2723;1.7061;
328.5000;1.2731;1.7085;
328.8000;1.2723;1.6989;
329.1000;1.2723;1.7013;
329.4000;1.2731;1.7013;
329.7000;1.2723;1.6942;
330.0000;1.2723;1.6989;
330.3000;1.2723;1.7013;
330.6000;1.2715;1.7061;
330.9000;1.2715;1.7013;
331.2000;1.2715;1.7109;
331.5000;1.2707;1.7109;
331.8000;1.2690;1.7013;
332.1000;1.2698;1.7013;
332.4000;1.2755;1.7061;
332.7000;1.2723;1.6965;
333.0000;1.2715;1.6894;
333.3000;1.2715;1.6942;
333.6000;1.2698;1.6870;
333.9000;1.2707;1.6965;
334.2000;1.2682;1.6894;
334.5000;1.2707;1.7037;
334.8000;1.2715;1.7013;
335.1000;1.2715;1.6989;
335.4000;1.2707;1.7013;
335.7000;1.2845;1.7325;
336.0000;1.2723;1.7013;
336.3000;1.2690;1.6989;
336.6000;1.2731;1.7013;
336.9000;1.2674;1.6870;
337.2000;1.2723;1.7037;
337.5000;1.2755;1.7157;
337.8000;1.2715;1.7085;
338.1000;1.2731;1.7061;
338.4000;1.2739;1.7157;
338.7000;1.2747;1.7157;
339.0000;1.2715;1.7109;
339.3000;1.2698;1.7061;
339.6000;1.2698;1.7061;
339.9000;1.2666;1.6870;
340.2000;1.2707;1.6918;
340.5000;1.2731;1.6894;
340.8000;1.2731;1.6918;
341.1000;1.2723;1.6894;
341.4000;1.2698;1.6870;
341.7000;1.2731;1.6918;
342.0000;1.2715;1.6846;
342.3000;1.2682;1.6822;
342.6000;1.2812;1.7133;
342.9000;1.2690;1.6894;
343.2000;1.2650;1.6822;
343.5000;1.2682;1.6965;
343.8000;1.2698;1.6989;
344.1000;1.2715;1.6918;
344.4000;1.2650;1.6630;
344.7000;1.2780;1.6965;
345.0000;1.2707;1.6798;
345.3000;1.2707;1.6750;
345.6000;1.2666;1.6726;
345.9000;1.2698;1.6894;
346.2000;1.2707;1.6942;
346.5000;1.2723;1.6965;
346.8000;1.2731;1.7061;
347.1000;1.2715;1.7013;
347.4000;1.2707;1.6942;
347.7000;1.2723;1.6894;
348.0000;1.2723;1.6918;
348.3000;1.2723;1.6918;
348.6000;1.2707;1.6846;
348.9000;1.2707;1.6918;
349.2000;1.2715;1.6894;
349.5000;1.2739;1.6965;
349.8000;1.2715;1.6894;
350.1000;1.2674;1.6822;
350.4000;1.2698;1.6894;
350.7000;1.2690;1.6846;
351.0000;1.2723;1.7037;
351.3000;1.2731;1.7181;
351.6000;1.2674;1.7205;
351.9000;1.2715;1.7301;
352.2000;1.2707;1.7229;
352.5000;1.2723;1.7109;
352.8000;1.2707;1.6965;
353.1000;1.2715;1.6942;
353.4000;1.2707;1.6870;
353.7000;1.2690;1.6750;
354.0000;1.2715;1.6822;
354.3000;1.2707;1.6678;
354.6000;1.2715;1.6750;
354.9000;1.2723;1.6750;
355.2000;1.2707;1.6774;
355.5000;1.2723;1.6870;
355.8000;1.2690;1.6750;
356.1000;1.2698;1.6870;
356.4000;1.2698;1.6965;
356.7000;1.2780;1.7157;
357.0000;1.2707;1.7085;
357.3000;1.2698;1.7037;
357.6000;1.2698;1.7013;
357.9000;1.2690;1.6942;
358.2000;1.2715;1.6918;
358.5000;1.2731;1.6989;
358.8000;1.2576;1.6630;
359.1000;1.2723;1.6918;
359.4000;1.2796;1.7157;
359.7000;1.2764;1.6965;
360.0000;1.2764;1.6965;
360.3000;1.2723;1.6822;
360.6000;1.2715;1.6822;
360.9000;1.2641;1.6654;
361.2000;1.2698;1.6774;
361.5000;1.2682;1.6846;
361.8000;1.2698;1.6870;
362.1000;1.2707;1.7061;
362.4000;1.2707;1.7061;
362.7000;1.2707;1.7037;
363.0000;1.2715;1.6989;
363.3000;1.2723;1.6942;
363.6000;1.2715;1.7013;
363.9000;1.2715;1.7013;
364.2000;1.2690;1.6989;
364.5000;1.2698;1.6965;
364.8000;1.2707;1.7013;
365.1000;1.2682;1.7013;
365.4000;1.2698;1.6989;
365.7000;1.2715;1.6965;
366.0000;1.2723;1.6965;
366.3000;1.2723;1.6894;
366.6000;1.2707;1.6894;
366.9000;1.2698;1.6870;
367.2000;1.2723;1.6989;
367.5000;1.2707;1.6965;
367.8000;1.2698;1.6965;
368.1000;1.2707;1.7013;
368.4000;1.2715;1.6942;
368.7000;1.2698;1.6798;
369.0000;1.2731;1.6822;
369.3000;1.2731;1.6798;
369.6000;1.2715;1.6798;
369.9000;1.2715;1.6774;
370.2000;1.2707;1.6702;
370.5000;1.2690;1.6750;
370.8000;1.2690;1.6870;
371.1000;1.2707;1.6942;
371.4000;1.2682;1.6894;
371.7000;1.2707;1.6918;
372.0000;1.2698;1.6942;
372.3000;1.2707;1.6918;
372.6000;1.2739;1.6965;
372.9000;1.2723;1.6918;
373.2000;1.2707;1.6846;
373.5000;1.2698;1.6822;
373.8000;1.2723;1.6798;
374.1000;1.2707;1.6726;
374.4000;1.2698;1.6654;
374.7000;1.2698;1.6654;
375.0000;1.2723;1.6702;
375.3000;1.2731;1.6702;
375.6000;1.2739;1.6606;
375.9000;1.2731;1.6630;
376.2000;1.2698;1.6558;
376.5000;1.2723;1.6582;
376.8000;1.2707;1.6606;
377.1000;1.2707;1.6678;
377.4000;1.2723;1.6654;
377.7000;1.2707;1.6654;
378.0000;1.2682;1.6654;
378.3000;1.2731;1.6702;
378.6000;1.2698;1.6774;
378.9000;1.2731;1.6774;
379.2000;1.2715;1.6678;
379.5000;1.2674;1.6606;
379.8000;1.2747;1.6774;
380.1000;1.2707;1.6702;
380.4000;1.2682;1.6678;
380.7000;1.2707;1.6702;
381.0000;1.2715;1.6774;
381.3000;1.2715;1.6726;
381.6000;1.2698;1.6774;
381.9000;1.2698;1.6822;
382.2000;1.2707;1.6870;
382.5000;1.2739;1.6942;
382.8000;1.2650;1.6846;
383.1000;1.2707;1.7013;
383.4000;1.2715;1.7013;
383.7000;1.2723;1.7085;
384.0000;1.2698;1.7061;
384.3000;1.2715;1.7013;
384.6000;1.2698;1.6965;
384.9000;1.2731;1.7013;
385.2000;1.2723;1.7037;
385.5000;1.2690;1.6989;
385.8000;1.2723;1.7061;
386.1000;1.2715;1.7061;
386.4000;1.2690;1.6989;
386.7000;1.2682;1.6989;
387.0000;1.2698;1.7013;
387.3000;1.2682;1.7013;
387.6000;1.2707;1.6965;
387.9000;1.2707;1.6870;
388.2000;1.2698;1.6798;
388.5000;1.2707;1.6894;
388.8000;1.2715;1.6918;
389.1000;1.2723;1.7013;
389.4000;1.2715;1.7037;
389.7000;1.2731;1.7085;
390.0000;1.2731;1.7109;
390.3000;1.2690;1.6989;
390.6000;1.2715;1.6965;
390.9000;1.2715;1.6965;
391.2000;1.2707;1.7013;
391.5000;1.2731;1.7037;
391.8000;1.2707;1.6989;
392.1000;1.2698;1.7037;
392.4000;1.2707;1.7085;
392.7000;1.2715;1.7157;
393.0000;1.2707;1.7061;
393.3000;1.2690;1.6965;
393.6000;1.2731;1.7109;
393.9000;1.2723;1.7133;
394.2000;1.2739;1.7205;
394.5000;1.2739;1.7181;
394.8000;1.2731;1.7133;
395.1000;1.2723;1.7061;
395.4000;1.2723;1.7109;
395.7000;1.2650;1.7013;
396.0000;1.2707;1.7205;
396.3000;1.2698;1.7181;
396.6000;1.2764;1.7301;
396.9000;1.2707;1.7157;
397.2000;1.2682;1.7157;
397.5000;1.2690;1.7109;
397.8000;1.2715;1.7109;
398.1000;1.2723;1.7181;
398.4000;1.2698;1.7181;
398.7000;1.2707;1.7277;
399.0000;1.2715;1.7229;
399.3000;1.2731;1.7277;
399.6000;1.2707;1.7205;
399.9000;1.2707;1.7157;
400.2000;1.2698;1.7109;
400.5000;1.2682;1.7013;
400.8000;1.2707;1.6989;
401.1000;1.2715;1.6989;
401.4000;1.2698;1.6965;
401.7000;1.2682;1.6942;
402.0000;1.2715;1.7013;
402.3000;1.2698;1.7037;
402.6000;1.2698;1.7085;
402.9000;1.2707;1.6989;
403.2000;1.2690;1.7037;
403.5000;1.2715;1.6989;
403.8000;1.2715;1.6942;
404.1000;1.2715;1.7085;
404.4000;1.2682;1.7013;
404.7000;1.2715;1.7037;
405.0000;1.2731;1.7013;
405.3000;1.2723;1.7037;
405.6000;1.2698;1.7037;
405.9000;1.2707;1.7013;
406.2000;1.2715;1.7037;
406.5000;1.2739;1.7013;
406.8000;1.2707;1.6942;
407.1000;1.2698;1.6942;
407.4000;1.2707;1.7013;
407.7000;1.2698;1.7085;
408.0000;1.2723;1.7037;
408.3000;1.2723;1.7085;
408.6000;1.2682;1.6942;
408.9000;1.2707;1.6965;
409.2000;1.2707;1.6942;
409.5000;1.2723;1.7109;
409.8000;1.2731;1.7181;
410.1000;1.2698;1.7133;
410.4000;1.2698;1.7157;
410.7000;1.2698;1.7085;
411.0000;1.2690;1.7109;
411.3000;1.2690;1.7061;
411.6000;1.2747;1.7157;
411.9000;1.2707;1.7085;
412.2000;1.2707;1.7133;
412.5000;1.2690;1.7085;
412.8000;1.2707;1.7181;
413.1000;1.2715;1.7109;
413.4000;1.2755;1.7181;
413.7000;1.2715;1.7109;
414.0000;1.2698;1.7109;
414.3000;1.2707;1.7109;
414.6000;1.2723;1.7181;
414.9000;1.2715;1.7061;
415.2000;1.2707;1.7061;
415.5000;1.2707;1.7013;
415.8000;1.2707;1.6918;
416.1000;1.2747;1.6989;
416.4000;1.2715;1.6918;
416.7000;1.2764;1.7061;
417.0000;1.2698;1.7085;
417.3000;1.2698;1.7181;
417.6000;1.2723;1.7253;
417.9000;1.2698;1.7253;
418.2000;1.2707;1.7133;
418.5000;1.2739;1.7229;
418.8000;1.2707;1.7061;
419.1000;1.2723;1.7109;
419.4000;1.2739;1.7181;
419.7000;1.2715;1.7205;
420.0000;1.2698;1.7205;
420.3000;1.2731;1.7157;
420.6000;1.2731;1.7181;
420.9000;1.2723;1.7205;
421.2000;1.2788;1.7397;
421.5000;1.2715;1.7253;
421.8000;1.2666;1.7061;
422.1000;1.2707;1.7277;
422.4000;1.2698;1.7181;
422.7000;1.2698;1.7229;
423.0000;1.2674;1.7301;
423.3000;1.2707;1.7325;
423.6000;1.2698;1.7157;
423.9000;1.2690;1.7085;
424.2000;1.2715;1.7085;
424.5000;1.2698;1.7109;
424.8000;1.2723;1.7181;
425.1000;1.2715;1.7085;
425.4000;1.2723;1.7109;
425.7000;1.2739;1.7157;
426.0000;1.2731;1.7133;
426.3000;1.2658;1.6894;
426.6000;1.2707;1.7133;
426.9000;1.2715;1.7061;
427.2000;1.2715;1.6989;
427.5000;1.2723;1.7085;
427.8000;1.2666;1.7061;
428.1000;1.2698;1.7109;
428.4000;1.2707;1.7133;
428.7000;1.2698;1.7061;
429.0000;1.2707;1.7085;
429.3000;1.2633;1.6989;
429.6000;1.2715;1.7133;
429.9000;1.2715;1.7085;
430.2000;1.2698;1.7013;
430.5000;1.2707;1.7037;
430.8000;1.2715;1.7037;
431.1000;1.2650;1.6870;
431.4000;1.2715;1.7085;
431.7000;1.2690;1.6965;
432.0000;1.2723;1.6965;
432.3000;1.2747;1.7061;
432.6000;1.2715;1.6942;
432.9000;1.2739;1.6989;
433.2000;1.2674;1.6846;
433.5000;1.2690;1.6894;
433.8000;1.2698;1.6942;
434.1000;1.2658;1.6894;
434.4000;1.2698;1.6965;
434.7000;1.2707;1.6870;
435.0000;1.2682;1.6822;
435.3000;1.2707;1.6822;
435.6000;1.2682;1.6750;
435.9000;1.2707;1.6918;
436.2000;1.2633;1.6750;
436.5000;1.2650;1.6822;
436.8000;1.2690;1.6942;
437.1000;1.2698;1.6965;
437.4000;1.2707;1.6965;
437.7000;1.2707;1.6989;
438.0000;1.2682;1.6870;
438.3000;1.2698;1.6942;
438.6000;1.2698;1.6989;
438.9000;1.2698;1.7013;
439.2000;1.2707;1.7085;
439.5000;1.2707;1.7037;
439.8000;1.2715;1.6965;
440.1000;1.2698;1.6965;
440.4000;1.2707;1.6965;
440.7000;1.2698;1.6942;
441.0000;1.2715;1.6918;
441.3000;1.2690;1.6870;
441.6000;1.2690;1.6965;
441.9000;1.2707;1.6942;
442.2000;1.2715;1.6965;
442.5000;1.2723;1.7037;
442.8000;1.2715;1.6989;
443.1000;1.2682;1.6846;
443.4000;1.2723;1.6989;
443.7000;1.2707;1.6989;
444.0000;1.2731;1.7085;
444.3000;1.2698;1.7013;
444.6000;1.2731;1.7037;
444.9000;1.2698;1.6918;
445.2000;1.2715;1.6918;
445.5000;1.2625;1.6702;
445.8000;1.2698;1.6942;
446.1000;1.2698;1.6894;
446.4000;1.2690;1.6846;
446.7000;1.2698;1.6798;
447.0000;1.2764;1.6942;
447.3000;1.2698;1.6822;
447.6000;1.2723;1.6894;
447.9000;1.2698;1.6918;
448.2000;1.2658;1.6846;
448.5000;1.2682;1.6894;
448.8000;1.2715;1.6942;
449.1000;1.2698;1.6894;
449.4000;1.2715;1.6918;
449.7000;1.2707;1.6942;
450.0000;1.2707;1.6989;
450.3000;1.2674;1.6846;
450.6000;1.2674;1.6918;
450.9000;1.2674;1.6894;
451.2000;1.2731;1.6846;
451.5000;1.2723;1.6750;
451.8000;1.2650;1.6678;
452.1000;1.2698;1.6798;
452.4000;1.2698;1.6774;
452.7000;1.2812;1.6989;
453.0000;1.2723;1.6774;
453.3000;1.2707;1.6798;
453.6000;1.2715;1.6774;
453.9000;1.2707;1.6726;
454.2000;1.2707;1.6750;
454.5000;1.2698;1.6678;
454.8000;1.2698;1.6702;
455.1000;1.2723;1.6918;
455.4000;1.2707;1.6870;
455.7000;1.2707;1.6918;
456.0000;1.2698;1.6822;
456.3000;1.2625;1.6558;
456.6000;1.2641;1.6606;
456.9000;1.2698;1.6822;
457.2000;1.2690;1.6870;
457.5000;1.2690;1.6870;
457.8000;1.2690;1.6870;
458.1000;1.2698;1.6870;
458.4000;1.2682;1.6750;
458.7000;1.2690;1.6798;
459.0000;1.2698;1.6822;
459.3000;1.2690;1.6870;
459.6000;1.2764;1.7037;
459.9000;1.2698;1.6918;
460.2000;1.2698;1.6918;
460.5000;1.2707;1.6942;
460.8000;1.2690;1.6989;
461.1000;1.2690;1.7109;
461.4000;1.2707;1.7133;
461.7000;1.2707;1.7013;
462.0000;1.2707;1.6942;
462.3000;1.2698;1.6870;
462.6000;1.2723;1.6942;
462.9000;1.2698;1.6870;
463.2000;1.2698;1.6894;
463.5000;1.2674;1.6822;
463.8000;1.2731;1.6965;
464.1000;1.2715;1.6989;
464.4000;1.2682;1.6894;
464.7000;1.2739;1.7037;
465.0000;1.2690;1.6894;
465.3000;1.2707;1.6942;
465.6000;1.2690;1.6846;
465.9000;1.2715;1.6846;
466.2000;1.2764;1.6989;
466.5000;1.2764;1.6989;
466.8000;1.2731;1.6894;
467.1000;1.2698;1.6965;
467.4000;1.2731;1.7109;
467.7000;1.2658;1.6989;
468.0000;1.2682;1.7061;
468.3000;1.2682;1.6942;
468.6000;1.2609;1.6774;
468.9000;1.2674;1.6942;
469.2000;1.2707;1.7085;
469.5000;1.2658;1.7037;
469.8000;1.2690;1.7085;
470.1000;1.2674;1.6918;
470.4000;1.2698;1.6870;
470.7000;1.2707;1.6942;
471.0000;1.2698;1.6942;
471.3000;1.2674;1.6965;
471.6000;1.2682;1.6989;
471.9000;1.2698;1.7061;
472.2000;1.2690;1.6965;
472.5000;1.2707;1.6894;
472.8000;1.2739;1.6918;
473.1000;1.2698;1.6750;
473.4000;1.2731;1.6870;
473.7000;1.2633;1.6726;
474.0000;1.2690;1.6846;
474.3000;1.2641;1.6846;
474.6000;1.2617;1.6870;
474.9000;1.2674;1.7013;
475.2000;1.2682;1.7061;
475.5000;1.2650;1.7013;
475.8000;1.2666;1.6989;
476.1000;1.2690;1.6965;
476.4000;1.2690;1.6918;
476.7000;1.2764;1.7085;
477.0000;1.2698;1.6965;
477.3000;1.2682;1.6965;
477.6000;1.2690;1.6894;
477.9000;1.2690;1.6846;
478.2000;1.2755;1.6989;
478.5000;1.2682;1.6822;
478.8000;1.2690;1.6822;
479.1000;1.2682;1.6798;
479.4000;1.2715;1.6870;
479.7000;1.2698;1.6750;
480.0000;1.2690;1.6822;
480.3000;1.2723;1.6965;
480.6000;1.2747;1.6918;
480.9000;1.2707;1.6846;
481.2000;1.2707;1.6822;
481.5000;1.2698;1.6726;
481.8000;1.2715;1.6702;
482.1000;1.2707;1.6702;
482.4000;1.2682;1.6630;
482.7000;1.2698;1.6654;
483.0000;1.2707;1.6678;
483.3000;1.2698;1.6678;
483.6000;1.2698;1.6750;
483.9000;1.2698;1.6774;
484.2000;1.2690;1.6774;
484.5000;1.2674;1.6798;
484.8000;1.2682;1.6726;
485.1000;1.2682;1.6630;
485.4000;1.2707;1.6654;
485.7000;1.2674;1.6486;
486.0000;1.2698;1.6606;
486.3000;1.2682;1.6582;
486.6000;1.2690;1.6630;
486.9000;1.2666;1.6486;
487.2000;1.2698;1.6510;
487.5000;1.2715;1.6630;
487.8000;1.2682;1.6630;
488.1000;1.2715;1.6630;
488.4000;1.2723;1.6654;
488.7000;1.2633;1.6414;
489.0000;1.2690;1.6582;
489.3000;1.2666;1.6654;
489.6000;1.2650;1.6678;
489.9000;1.2682;1.6726;
490.2000;1.2690;1.6726;
490.5000;1.2658;1.6702;
490.8000;1.2690;1.6774;
491.1000;1.2682;1.6774;
491.4000;1.2682;1.6702;
491.7000;1.2682;1.6774;
492.0000;1.2698;1.6846;
492.3000;1.2666;1.6774;
492.6000;1.2690;1.6774;
492.9000;1.2698;1.6846;
493.2000;1.2666;1.6702;
493.5000;1.2633;1.6534;
493.8000;1.2682;1.6630;
494.1000;1.2601;1.6486;
494.4000;1.2658;1.6558;
494.7000;1.2682;1.6654;
495.0000;1.2609;1.6510;
495.3000;1.2658;1.6630;
495.6000;1.2690;1.6846;
495.9000;1.2698;1.6798;
496.2000;1.2658;1.6750;
496.5000;1.2731;1.6870;
496.8000;1.2690;1.6774;
497.1000;1.2715;1.6798;
497.4000;1.2707;1.6750;
497.7000;1.2674;1.6702;
498.0000;1.2682;1.6750;
498.3000;1.2666;1.6678;
498.6000;1.2641;1.6582;
498.9000;1.2707;1.6702;
499.2000;1.2682;1.6510;
499.5000;1.2715;1.6606;
499.8000;1.2682;1.6582;
500.1000;1.2707;1.6702;
500.4000;1.2698;1.6750;
500.7000;1.2698;1.6798;
501.0000;1.2698;1.6822;
501.3000;1.2625;1.6510;
501.6000;1.2698;1.6654;
501.9000;1.2707;1.6558;
502.2000;1.2715;1.6486;
502.5000;1.2723;1.6534;
502.8000;1.2707;1.6558;
503.1000;1.2698;1.6534;
503.4000;1.2707;1.6582;
503.7000;1.2690;1.6558;
504.0000;1.2690;1.6630;
504.3000;1.2674;1.6606;
504.6000;1.2690;1.6654;
504.9000;1.2690;1.6702;
505.2000;1.2674;1.6702;
505.5000;1.2690;1.6726;
505.8000;1.2601;1.6462;
506.1000;1.2707;1.6750;
506.4000;1.2617;1.6534;
506.7000;1.2690;1.6750;
507.0000;1.2690;1.6774;
507.3000;1.2707;1.6965;
507.6000;1.2707;1.6965;
507.9000;1.2674;1.6894;
508.2000;1.2682;1.6846;
508.5000;1.2707;1.6870;
508.8000;1.2707;1.6870;
509.1000;1.2690;1.6798;
509.4000;1.2666;1.6702;
509.7000;1.2764;1.6942;
510.0000;1.2698;1.6918;
510.3000;1.2674;1.6894;
510.6000;1.2666;1.6870;
510.9000;1.2650;1.6846;
511.2000;1.2682;1.6846;
511.5000;1.2682;1.6702;
511.8000;1.2698;1.6798;
512.1000;1.2698;1.6870;
512.4000;1.2674;1.6894;
512.7000;1.2658;1.6870;
513.0000;1.2690;1.6942;
513.3000;1.2650;1.6774;
513.6000;1.2698;1.6989;
513.9000;1.2690;1.6870;
514.2000;1.2707;1.6870;
514.5000;1.2690;1.6894;
514.8000;1.2690;1.6870;
515.1000;1.2698;1.6870;
515.4000;1.2682;1.6798;
515.7000;1.2682;1.6822;
516.0000;1.2707;1.6846;
516.3000;1.2755;1.6965;
516.6000;1.2698;1.6774;
516.9000;1.2690;1.6846;
517.2000;1.2641;1.6678;
517.5000;1.2707;1.6846;
517.8000;1.2674;1.6774;
518.1000;1.2666;1.6798;
518.4000;1.2698;1.6774;
518.7000;1.2698;1.6846;
519.0000;1.2698;1.6822;
519.3000;1.2764;1.6965;
519.6000;1.2674;1.6750;
519.9000;1.2682;1.6750;
520.2000;1.2682;1.6774;
520.5000;1.2674;1.6606;
520.8000;1.2690;1.6606;
521.1000;1.2682;1.6606;
521.4000;1.2698;1.6582;
521.7000;1.2682;1.6582;
522.0000;1.2682;1.6630;
522.3000;1.2690;1.6726;
522.6000;1.2698;1.6750;
522.9000;1.2698;1.6774;
523.2000;1.2698;1.6894;
523.5000;1.2690;1.6918;
523.8000;1.2690;1.6989;
524.1000;1.2698;1.7061;
524.4000;1.2682;1.7037;
524.7000;1.2682;1.6942;
525.0000;1.2682;1.6942;
525.3000;1.2560;1.6606;
525.6000;1.2707;1.6942;
525.9000;1.2698;1.7037;
526.2000;1.2690;1.7085;
526.5000;1.2682;1.7013;
526.8000;1.2707;1.6965;
527.1000;1.2698;1.6989;
527.4000;1.2682;1.7013;
527.7000;1.2715;1.7013;
528.0000;1.2682;1.6894;
528.3000;1.2682;1.6918;
528.6000;1.2690;1.6965;
528.9000;1.2682;1.7037;
529.2000;1.2674;1.7013;
529.5000;1.2674;1.6989;
529.8000;1.2674;1.7037;
530.1000;1.2682;1.7109;
530.4000;1.2666;1.7061;
530.7000;1.2690;1.7133;
531.0000;1.2674;1.7037;
531.3000;1.2698;1.7109;
531.6000;1.2690;1.7109;
531.9000;1.2698;1.7061;
532.2000;1.2698;1.6965;
532.5000;1.2698;1.7037;
532.8000;1.2707;1.7085;
533.1000;1.2707;1.7109;
533.4000;1.2641;1.6918;
533.7000;1.2715;1.7109;
534.0000;1.2690;1.7037;
534.3000;1.2698;1.7085;
534.6000;1.2707;1.7157;
534.9000;1.2698;1.7109;
535.2000;1.2707;1.7061;
535.5000;1.2698;1.7061;
535.8000;1.2690;1.7109;
536.1000;1.2666;1.7013;
536.4000;1.2698;1.7061;
536.7000;1.2682;1.7061;
537.0000;1.2698;1.7061;
537.3000;1.2707;1.7013;
537.6000;1.2698;1.6965;
537.9000;1.2715;1.6942;
538.2000;1.2698;1.6894;
538.5000;1.2674;1.6846;
538.8000;1.2690;1.6989;
539.1000;1.2690;1.6965;
539.4000;1.2682;1.6894;
539.7000;1.2690;1.6870;
540.0000;1.2666;1.6750;
540.3000;1.2690;1.6774;
540.6000;1.2682;1.6726;
540.9000;1.2617;1.6582;
541.2000;1.2666;1.6726;
541.5000;1.2682;1.6846;
541.8000;1.2658;1.6894;
542.1000;1.2682;1.7013;
542.4000;1.2617;1.6894;
542.7000;1.2690;1.7109;
543.0000;1.2690;1.7157;
543.3000;1.2707;1.7181;
543.6000;1.2682;1.7181;
543.9000;1.2682;1.7109;
544.2000;1.2666;1.6918;
544.5000;1.2698;1.6942;
544.8000;1.2690;1.6894;
545.1000;1.2625;1.6798;
545.4000;1.2674;1.6918;
545.7000;1.2674;1.6989;
546.0000;1.2674;1.6894;
546.3000;1.2707;1.6918;
546.6000;1.2707;1.6846;
546.9000;1.2674;1.6798;
547.2000;1.2723;1.6942;
547.5000;1.2674;1.6942;
547.8000;1.2682;1.7037;
548.1000;1.2690;1.7013;
548.4000;1.2682;1.6989;
548.7000;1.2698;1.7109;
549.0000;1.2690;1.7181;
549.3000;1.2698;1.7157;
549.6000;1.2698;1.7133;
549.9000;1.2698;1.7013;
550.2000;1.2658;1.6965;
550.5000;1.2682;1.7061;
550.8000;1.2682;1.7061;
551.1000;1.2674;1.7061;
551.4000;1.2674;1.7085;
551.7000;1.2698;1.7061;
552.0000;1.2698;1.6965;
552.3000;1.2698;1.7013;
552.6000;1.2682;1.6965;
552.9000;1.2682;1.6942;
553.2000;1.2690;1.6965;
553.5000;1.2698;1.7013;
553.8000;1.2682;1.6989;
554.1000;1.2674;1.6965;
554.4000;1.2682;1.6918;
554.7000;1.2666;1.6846;
555.0000;1.2682;1.6894;
555.3000;1.2690;1.6894;
555.6000;1.2707;1.6918;
555.9000;1.2682;1.6798;
556.2000;1.2698;1.6942;
556.5000;1.2682;1.6870;
556.8000;1.2682;1.6942;
557.1000;1.2698;1.6965;
557.4000;1.2690;1.6870;
557.7000;1.2707;1.6870;
558.0000;1.2715;1.6894;
558.3000;1.2698;1.6894;
558.6000;1.2682;1.6822;
558.9000;1.2650;1.6774;
559.2000;1.2690;1.6846;
559.5000;1.2739;1.6894;
559.8000;1.2707;1.6798;
560.1000;1.2682;1.6798;
560.4000;1.2674;1.6870;
560.7000;1.2674;1.6942;
561.0000;1.2698;1.6918;
561.3000;1.2658;1.6822;
561.6000;1.2690;1.6750;
561.9000;1.2682;1.6774;
562.2000;1.2698;1.6774;
562.5000;1.2698;1.6822;
562.8000;1.2690;1.6846;
563.1000;1.2690;1.6798;
563.4000;1.2625;1.6726;
563.7000;1.2715;1.6918;
564.0000;1.2690;1.6846;
564.3000;1.2641;1.6822;
564.6000;1.2682;1.6846;
564.9000;1.2682;1.6918;
565.2000;1.2682;1.6918;
565.5000;1.2698;1.7013;
565.8000;1.2682;1.6870;
566.1000;1.2698;1.6798;
566.4000;1.2617;1.6486;
566.7000;1.2682;1.6606;
567.0000;1.2707;1.6750;
567.3000;1.2707;1.6846;
567.6000;1.2682;1.6870;
567.9000;1.2698;1.6918;
568.2000;1.2690;1.6870;
568.5000;1.2715;1.6918;
568.8000;1.2747;1.6965;
569.1000;1.2674;1.6894;
569.4000;1.2690;1.6942;
569.7000;1.2674;1.6774;
570.0000;1.2682;1.6798;
570.3000;1.2641;1.6750;
570.6000;1.2682;1.6870;
570.9000;1.2690;1.6894;
571.2000;1.2690;1.6846;
571.5000;1.2690;1.6774;
571.8000;1.2666;1.6822;
572.1000;1.2698;1.6942;
572.4000;1.2698;1.7013;
572.7000;1.2707;1.7013;
573.0000;1.2674;1.7013;
573.3000;1.2715;1.7013;
573.6000;1.2690;1.6894;
573.9000;1.2682;1.6846;
574.2000;1.2658;1.6726;
574.5000;1.2666;1.6750;
574.8000;1.2682;1.6702;
575.1000;1.2682;1.6606;
575.4000;1.2625;1.6486;
575.7000;1.2658;1.6582;
576.0000;1.2666;1.6606;
576.3000;1.2666;1.6702;
576.6000;1.2707;1.6846;
576.9000;1.2682;1.6750;
577.2000;1.2690;1.6774;
577.5000;1.2796;1.7061;
577.8000;1.2698;1.6774;
578.1000;1.2682;1.6750;
578.4000;1.2674;1.6726;
578.7000;1.2674;1.6726;
579.0000;1.2690;1.6870;
579.3000;1.2674;1.6798;
579.6000;1.2698;1.6798;
579.9000;1.2698;1.6846;
580.2000;1.2674;1.6678;
580.5000;1.2682;1.6678;
580.8000;1.2690;1.6798;
581.1000;1.2682;1.6774;
581.4000;1.2674;1.6750;
581.7000;1.2666;1.6702;
582.0000;1.2682;1.6750;
582.3000;1.2698;1.6774;
582.6000;1.2698;1.6870;
582.9000;1.2715;1.6965;
583.2000;1.2674;1.6870;
583.5000;1.2674;1.6822;
583.8000;1.2731;1.6942;
584.1000;1.2666;1.6774;
584.4000;1.2666;1.6726;
584.7000;1.2593;1.6414;
585.0000;1.2674;1.6726;
585.3000;1.2682;1.6870;
585.6000;1.2674;1.6965;
585.9000;1.2690;1.6989;
586.2000;1.2682;1.6870;
586.5000;1.2674;1.6894;
586.8000;1.2690;1.6870;
587.1000;1.2690;1.6870;
587.4000;1.2682;1.6846;
587.7000;1.2698;1.6942;
588.0000;1.2690;1.6918;
588.3000;1.2723;1.7085;
588.6000;1.2698;1.7037;
588.9000;1.2698;1.7037;
589.2000;1.2682;1.6989;
589.5000;1.2731;1.7037;
589.8000;1.2674;1.6870;
590.1000;1.2674;1.6894;
590.4000;1.2682;1.6918;
590.7000;1.2698;1.6942;
591.0000;1.2674;1.6774;
591.3000;1.2666;1.6822;
591.6000;1.2650;1.6846;
591.9000;1.2666;1.6942;
592.2000;1.2666;1.6965;
592.5000;1.2723;1.7205;
592.8000;1.2666;1.7037;
593.1000;1.2666;1.6989;
593.4000;1.2707;1.7085;
593.7000;1.2690;1.6918;
594.0000;1.2682;1.6870;
594.3000;1.2698;1.6774;
594.6000;1.2674;1.6726;
594.9000;1.2666;1.6630;
595.2000;1.2682;1.6606;
595.5000;1.2690;1.6750;
595.8000;1.2690;1.6750;
596.1000;1.2666;1.6726;
596.4000;1.2674;1.6702;
596.7000;1.2682;1.6702;
597.0000;1.2666;1.6750;
597.3000;1.2674;1.6726;
597.6000;1.2666;1.6726;
597.9000;1.2674;1.6750;
598.2000;1.2674;1.6774;
598.5000;1.2682;1.6822;
598.8000;1.2674;1.6798;
599.1000;1.2682;1.6798;
599.4000;1.2617;1.6534;
599.7000;1.2682;1.6654;
600.0000;1.2674;1.6582;
600.3000;1.2690;1.6534;
600.6000;1.2601;1.6295;
600.9000;1.2560;1.6271;
601.2000;1.2414;1.6055;
601.5000;1.2243;1.5743;
601.8000;1.2169;1.5767;
602.1000;1.2072;1.5552;
602.4000;1.1958;1.5480;
602.7000;1.1852;1.5360;
603.0000;1.1722;1.5096;
603.3000;1.1608;1.4929;
603.6000;1.1518;1.4809;
603.9000;1.1429;1.4617;
604.2000;1.1355;1.4497;
604.5000;1.1266;1.4378;
604.8000;1.1168;1.4282;
605.1000;1.1103;1.4234;
605.4000;1.1022;1.4210;
605.7000;1.0965;1.4042;
606.0000;1.0891;1.4042;
606.3000;1.0818;1.3994;
606.6000;1.0753;1.3826;
606.9000;1.0672;1.3659;
607.2000;1.0606;1.3611;
607.5000;1.0574;1.3563;
607.8000;1.0549;1.3587;
608.1000;1.0509;1.3539;
608.4000;1.0411;1.3419;
608.7000;1.0395;1.3467;
609.0000;1.0338;1.3347;
609.3000;1.0305;1.3323;
609.6000;1.0240;1.3203;
609.9000;1.0199;1.3179;
610.2000;1.0167;1.3179;
610.5000;1.0126;1.3179;
610.8000;1.0085;1.3060;
611.1000;1.0045;1.3060;
611.4000;0.9988;1.3108;
611.7000;0.9931;1.3060;
612.0000;0.9898;1.3084;
612.3000;0.9874;1.3036;
612.6000;0.9825;1.3084;
612.9000;0.9809;1.3084;
613.2000;0.9760;1.3012;
613.5000;0.9752;1.2964;
613.8000;0.9711;1.2964;
614.1000;0.9678;1.2940;
614.4000;0.9630;1.2820;
614.7000;0.9613;1.2892;
615.0000;0.9573;1.2916;
615.3000;0.9540;1.2988;
615.6000;0.9516;1.3012;
615.9000;0.9467;1.2988;
616.2000;0.9467;1.2988;
616.5000;0.9418;1.2964;
616.8000;0.9385;1.2940;
617.1000;0.9337;1.2844;
617.4000;0.9361;1.2772;
617.7000;0.9304;1.2676;
618.0000;0.9296;1.2700;
618.3000;0.9263;1.2700;
618.6000;0.9247;1.2748;
618.9000;0.9206;1.2796;
619.2000;0.9190;1.2916;
619.5000;0.9182;1.2988;
619.8000;0.9158;1.2868;
620.1000;0.9101;1.2868;
620.4000;0.9052;1.2844;
620.7000;0.9084;1.2844;
621.0000;0.9035;1.2772;
621.3000;0.9027;1.2748;
621.6000;0.9011;1.2676;
621.9000;0.8962;1.2628;
622.2000;0.8970;1.2772;
622.5000;0.8840;1.2532;
622.8000;0.8905;1.2700;
623.1000;0.8913;1.2652;
623.4000;0.8889;1.2628;
623.7000;0.8897;1.2604;
624.0000;0.8848;1.2604;
624.3000;0.8848;1.2628;
624.6000;0.8856;1.2700;
624.9000;0.8816;1.2556;
625.2000;0.8799;1.2628;
625.5000;0.8791;1.2748;
625.8000;0.8775;1.2700;
626.1000;0.8742;1.2676;
626.4000;0.8726;1.2604;
626.7000;0.8726;1.2652;
627.0000;0.8710;1.2652;
627.3000;0.8685;1.2604;
627.6000;0.8653;1.2580;
627.9000;0.8653;1.2628;
628.2000;0.8637;1.2628;
628.5000;0.8604;1.2461;
628.8000;0.8628;1.2556;
629.1000;0.8596;1.2532;
629.4000;0.8588;1.2580;
629.7000;0.8620;1.2724;
630.0000;0.8563;1.2676;
630.3000;0.8539;1.2676;
630.6000;0.8523;1.2724;
630.9000;0.8506;1.2652;
631.2000;0.8531;1.2676;
631.5000;0.8506;1.2628;
631.8000;0.8457;1.2556;
632.1000;0.8433;1.2556;
632.4000;0.8409;1.2484;
632.7000;0.8433;1.2556;
633.0000;0.8433;1.2556;
633.3000;0.8466;1.2604;
633.6000;0.8409;1.2508;
633.9000;0.8441;1.2508;
634.2000;0.8376;1.2341;
634.5000;0.8360;1.2317;
634.8000;0.8352;1.2293;
635.1000;0.8352;1.2269;
635.4000;0.8327;1.2317;
635.7000;0.8327;1.2293;
636.0000;0.8295;1.2245;
636.3000;0.8303;1.2317;
636.6000;0.8287;1.2461;
636.9000;0.8270;1.2437;
637.2000;0.8278;1.2508;
637.5000;0.8295;1.2580;
637.8000;0.8270;1.2508;
638.1000;0.8246;1.2389;
638.4000;0.8238;1.2365;
638.7000;0.8230;1.2341;
639.0000;0.8205;1.2389;
639.3000;0.8213;1.2389;
639.6000;0.8197;1.2484;
639.9000;0.8181;1.2341;
640.2000;0.8205;1.2389;
640.5000;0.8173;1.2437;
640.8000;0.8156;1.2365;
641.1000;0.8148;1.2317;
641.4000;0.8132;1.2221;
641.7000;0.8173;1.2245;
642.0000;0.8124;1.2173;
642.3000;0.8042;1.2077;
642.6000;0.8132;1.2269;
642.9000;0.8083;1.2101;
643.2000;0.8107;1.2173;
643.5000;0.8107;1.2197;
643.8000;0.8075;1.2173;
644.1000;0.8018;1.2053;
644.4000;0.8067;1.2269;
644.7000;0.8059;1.2341;
645.0000;0.8050;1.2269;
645.3000;0.8059;1.2293;
645.6000;0.8026;1.2317;
645.9000;0.8018;1.2341;
646.2000;0.8026;1.2437;
646.5000;0.8002;1.2437;
646.8000;0.7985;1.2532;
647.1000;0.7912;1.2365;
647.4000;0.8026;1.2676;
647.7000;0.7953;1.2461;
648.0000;0.7945;1.2389;
648.3000;0.7928;1.2365;
648.6000;0.7945;1.2413;
648.9000;0.7945;1.2389;
649.2000;0.7937;1.2365;
649.5000;0.7880;1.2293;
649.8000;0.7920;1.2437;
650.1000;0.7928;1.2389;
650.4000;0.7928;1.2341;
650.7000;0.7888;1.2293;
651.0000;0.7871;1.2293;
651.3000;0.7880;1.2365;
651.6000;0.7880;1.2437;
651.9000;0.7847;1.2437;
652.2000;0.7847;1.2413;
652.5000;0.7855;1.2508;
652.8000;0.7831;1.2532;
653.1000;0.7839;1.2580;
653.4000;0.7847;1.2580;
653.7000;0.7847;1.2580;
654.0000;0.7798;1.2413;
654.3000;0.7839;1.2508;
654.6000;0.7814;1.2413;
654.9000;0.7782;1.2293;
655.2000;0.7798;1.2269;
655.5000;0.7814;1.2317;
655.8000;0.7790;1.2389;
656.1000;0.7774;1.2413;
656.4000;0.7749;1.2437;
656.7000;0.7847;1.2652;
657.0000;0.7749;1.2413;
657.3000;0.7766;1.2508;
657.6000;0.7749;1.2461;
657.9000;0.7733;1.2389;
658.2000;0.7749;1.2365;
658.5000;0.7757;1.2389;
658.8000;0.7757;1.2413;
659.1000;0.7741;1.2341;
659.4000;0.7611;1.2053;
659.7000;0.7660;1.2293;
660.0000;0.7709;1.2461;
660.3000;0.7766;1.2484;
660.6000;0.7652;1.2269;
660.9000;0.7643;1.2197;
661.2000;0.7700;1.2269;
661.5000;0.7700;1.2269;
661.8000;0.7700;1.2269;
662.1000;0.7676;1.2269;
662.4000;0.7652;1.2245;
662.7000;0.7774;1.2508;
663.0000;0.7652;1.2197;
663.3000;0.7619;1.2101;
663.6000;0.7660;1.2197;
663.9000;0.7660;1.2317;
664.2000;0.7660;1.2365;
664.5000;0.7611;1.2269;
664.8000;0.7635;1.2413;
665.1000;0.7635;1.2413;
665.4000;0.7627;1.2389;
665.7000;0.7619;1.2484;
666.0000;0.7611;1.2532;
666.3000;0.7619;1.2484;
666.6000;0.7578;1.2413;
666.9000;0.7595;1.2317;
667.2000;0.7570;1.2293;
667.5000;0.7578;1.2341;
667.8000;0.7603;1.2317;
668.1000;0.7570;1.2293;
668.4000;0.7578;1.2317;
668.7000;0.7562;1.2293;
669.0000;0.7562;1.2293;
669.3000;0.7562;1.2365;
669.6000;0.7530;1.2389;
669.9000;0.7554;1.2413;
670.2000;0.7530;1.2413;
670.5000;0.7538;1.2365;
670.8000;0.7538;1.2269;
671.1000;0.7456;1.2053;
671.4000;0.7521;1.2173;
671.7000;0.7521;1.2245;
672.0000;0.7513;1.2245;
672.3000;0.7497;1.2173;
672.6000;0.7497;1.2173;
672.9000;0.7530;1.2317;
673.2000;0.7505;1.2317;
673.5000;0.7505;1.2293;
673.8000;0.7481;1.2269;
674.1000;0.7383;1.2077;
674.4000;0.7481;1.2317;
674.7000;0.7440;1.2293;
675.0000;0.7481;1.2413;
675.3000;0.7481;1.2341;
675.6000;0.7432;1.2197;
675.9000;0.7456;1.2293;
676.2000;0.7464;1.2341;
676.5000;0.7456;1.2317;
676.8000;0.7448;1.2461;
677.1000;0.7416;1.2484;
677.4000;0.7359;1.2269;
677.7000;0.7448;1.2341;
678.0000;0.7432;1.2365;
678.3000;0.7448;1.2389;
678.6000;0.7448;1.2341;
678.9000;0.7456;1.2317;
679.2000;0.7448;1.2365;
679.5000;0.7407;1.2269;
679.8000;0.7399;1.2269;
680.1000;0.7416;1.2317;
680.4000;0.7359;1.2149;
680.7000;0.7367;1.2149;
681.0000;0.7383;1.2149;
681.3000;0.7375;1.2173;
681.6000;0.7375;1.2173;
681.9000;0.7505;1.2532;
682.2000;0.7375;1.2245;
682.5000;0.7367;1.2245;
682.8000;0.7391;1.2293;
683.1000;0.7359;1.2221;
683.4000;0.7302;1.2101;
683.7000;0.7416;1.2461;
684.0000;0.7375;1.2365;
684.3000;0.7391;1.2413;
684.6000;0.7367;1.2461;
684.9000;0.7367;1.2508;
685.2000;0.7350;1.2461;
685.5000;0.7334;1.2389;
685.8000;0.7350;1.2437;
686.1000;0.7318;1.2413;
686.4000;0.7310;1.2461;
686.7000;0.7334;1.2508;
687.0000;0.7326;1.2437;
687.3000;0.7302;1.2437;
687.6000;0.7310;1.2461;
687.9000;0.7302;1.2484;
688.2000;0.7285;1.2508;
688.5000;0.7302;1.2532;
688.8000;0.7310;1.2413;
689.1000;0.7302;1.2365;
689.4000;0.7310;1.2365;
689.7000;0.7253;1.2269;
690.0000;0.7302;1.2365;
690.3000;0.7285;1.2341;
690.6000;0.7277;1.2461;
690.9000;0.7302;1.2604;
691.2000;0.7269;1.2484;
691.5000;0.7277;1.2508;
691.8000;0.7277;1.2532;
692.1000;0.7269;1.2484;
692.4000;0.7269;1.2461;
692.7000;0.7236;1.2389;
693.0000;0.7245;1.2389;
693.3000;0.7245;1.2484;
693.6000;0.7261;1.2413;
693.9000;0.7269;1.2437;
694.2000;0.7228;1.2389;
694.5000;0.7212;1.2413;
694.8000;0.7261;1.2437;
695.1000;0.7253;1.2484;
695.4000;0.7253;1.2532;
695.7000;0.7204;1.2532;
696.0000;0.7236;1.2556;
696.3000;0.7228;1.2437;
696.6000;0.7228;1.2437;
696.9000;0.7245;1.2484;
697.2000;0.7236;1.2508;
697.5000;0.7269;1.2532;
697.8000;0.7212;1.2365;
698.1000;0.7220;1.2389;
698.4000;0.7212;1.2461;
698.7000;0.7245;1.2604;
699.0000;0.7212;1.2604;
699.3000;0.7196;1.2556;
699.6000;0.7155;1.2556;
699.9000;0.7188;1.2652;
700.2000;0.7212;1.2700;
700.5000;0.7179;1.2604;
700.8000;0.7204;1.2652;
701.1000;0.7204;1.2700;
701.4000;0.7147;1.2604;
701.7000;0.7245;1.2868;
702.0000;0.7188;1.2532;
702.3000;0.7147;1.2484;
702.6000;0.7171;1.2532;
702.9000;0.7171;1.2508;
703.2000;0.7155;1.2437;
703.5000;0.7171;1.2484;
703.8000;0.7188;1.2508;
704.1000;0.7147;1.2437;
704.4000;0.7147;1.2461;
704.7000;0.7179;1.2628;
705.0000;0.7163;1.2532;
705.3000;0.7155;1.2508;
705.6000;0.7179;1.2413;
705.9000;0.7204;1.2461;
706.2000;0.7163;1.2341;
706.5000;0.7147;1.2365;
706.8000;0.7147;1.2317;
707.1000;0.7123;1.2413;
707.4000;0.7147;1.2532;
707.7000;0.7131;1.2484;
708.0000;0.7155;1.2484;
708.3000;0.7066;1.2269;
708.6000;0.7123;1.2437;
708.9000;0.7131;1.2389;
709.2000;0.7114;1.2293;
709.5000;0.7106;1.2221;
709.8000;0.7098;1.2197;
710.1000;0.7114;1.2245;
710.4000;0.7098;1.2341;
710.7000;0.7098;1.2389;
711.0000;0.7098;1.2461;
711.3000;0.7106;1.2461;
711.6000;0.7106;1.2484;
711.9000;0.7123;1.2508;
712.2000;0.7082;1.2484;
712.5000;0.7114;1.2676;
712.8000;0.7106;1.2724;
713.1000;0.7090;1.2676;
713.4000;0.7082;1.2676;
713.7000;0.7090;1.2628;
714.0000;0.7098;1.2652;
714.3000;0.7066;1.2580;
714.6000;0.7090;1.2652;
714.9000;0.7074;1.2628;
715.2000;0.7090;1.2724;
715.5000;0.7074;1.2628;
715.8000;0.7090;1.2724;
716.1000;0.7082;1.2724;
716.4000;0.6984;1.2413;
716.7000;0.7057;1.2628;
717.0000;0.7082;1.2820;
717.3000;0.7074;1.2724;
717.6000;0.7066;1.2652;
717.9000;0.7066;1.2676;
718.2000;0.7057;1.2628;
718.5000;0.7049;1.2700;
718.8000;0.7041;1.2796;
719.1000;0.7049;1.2844;
719.4000;0.7041;1.2820;
719.7000;0.7057;1.2868;
720.0000;0.7057;1.2892;
720.3000;0.7041;1.2796;
720.6000;0.7049;1.2724;
720.9000;0.7049;1.2700;
721.2000;0.7009;1.2652;
721.5000;0.7041;1.2628;
721.8000;0.7033;1.2676;
722.1000;0.7025;1.2748;
722.4000;0.7017;1.2796;
722.7000;0.7009;1.2868;
723.0000;0.7082;1.2988;
723.3000;0.7017;1.2724;
723.6000;0.6984;1.2532;
723.9000;0.6984;1.2580;
724.2000;0.7033;1.2676;
724.5000;0.7066;1.2796;
724.8000;0.7017;1.2604;
725.1000;0.6968;1.2389;
725.4000;0.7033;1.2532;
725.7000;0.7033;1.2604;
726.0000;0.7009;1.2484;
726.3000;0.7009;1.2437;
726.6000;0.7000;1.2556;
726.9000;0.7009;1.2700;
727.2000;0.6992;1.2676;
727.5000;0.7000;1.2676;
727.8000;0.6992;1.2628;
728.1000;0.7000;1.2676;
728.4000;0.6952;1.2628;
728.7000;0.6976;1.2724;
729.0000;0.6992;1.2652;
729.3000;0.6992;1.2676;
729.6000;0.6976;1.2652;
729.9000;0.6968;1.2724;
730.2000;0.6984;1.2796;
730.5000;0.6976;1.2844;
730.8000;0.6992;1.2844;
731.1000;0.6968;1.2748;
731.4000;0.6976;1.2844;
731.7000;0.6976;1.2820;
732.0000;0.6992;1.2940;
732.3000;0.6960;1.2892;
732.6000;0.6960;1.2988;
732.9000;0.6960;1.2916;
733.2000;0.6952;1.2820;
733.5000;0.6943;1.2772;
733.8000;0.6976;1.2844;
734.1000;0.6960;1.2796;
734.4000;0.6960;1.2844;
734.7000;0.6960;1.2868;
735.0000;0.6952;1.2868;
735.3000;0.6968;1.2844;
735.6000;0.6968;1.2868;
735.9000;0.6943;1.2796;
736.2000;0.6919;1.2604;
736.5000;0.6960;1.2772;
736.8000;0.6992;1.2796;
737.1000;0.6952;1.2748;
737.4000;0.6943;1.2748;
737.7000;0.6952;1.2724;
738.0000;0.6935;1.2700;
738.3000;0.6935;1.2700;
738.6000;0.6927;1.2724;
738.9000;0.6943;1.2748;
739.2000;0.6935;1.2748;
739.5000;0.6838;1.2604;
739.8000;0.6919;1.2820;
740.1000;0.6943;1.2748;
740.4000;0.6919;1.2724;
740.7000;0.6927;1.2796;
741.0000;0.6927;1.2868;
741.3000;0.6911;1.2772;
741.6000;0.6903;1.2748;
741.9000;0.6838;1.2580;
742.2000;0.6919;1.2796;
742.5000;0.6903;1.2700;
742.8000;0.6968;1.2700;
743.1000;0.6919;1.2604;
743.4000;0.6919;1.2508;
743.7000;0.6903;1.2556;
744.0000;0.6886;1.2532;
744.3000;0.6903;1.2700;
744.6000;0.6878;1.2676;
744.9000;0.6895;1.2652;
745.2000;0.6911;1.2604;
745.5000;0.6895;1.2508;
745.8000;0.6903;1.2508;
746.1000;0.6903;1.2484;
746.4000;0.6878;1.2461;
746.7000;0.6895;1.2389;
747.0000;0.6895;1.2389;
747.3000;0.6911;1.2532;
747.6000;0.6846;1.2580;
747.9000;0.6895;1.2676;
748.2000;0.6886;1.2652;
748.5000;0.6878;1.2604;
748.8000;0.6895;1.2604;
749.1000;0.6862;1.2508;
749.4000;0.6878;1.2532;
749.7000;0.6895;1.2532;
750.0000;0.6862;1.2508;
750.3000;0.6870;1.2532;
750.6000;0.6886;1.2556;
750.9000;0.6878;1.2652;
751.2000;0.6854;1.2676;
751.5000;0.6878;1.2676;
751.8000;0.6878;1.2724;
752.1000;0.6903;1.2724;
752.4000;0.6862;1.2628;
752.7000;0.6886;1.2652;
753.0000;0.6878;1.2676;
753.3000;0.6870;1.2748;
753.6000;0.6870;1.2844;
753.9000;0.6886;1.2844;
754.2000;0.6829;1.2652;
754.5000;0.6878;1.2628;
754.8000;0.6846;1.2484;
755.1000;0.6829;1.2484;
755.4000;0.6838;1.2580;
755.7000;0.6878;1.2604;
756.0000;0.6870;1.2652;
756.3000;0.6821;1.2580;
756.6000;0.6854;1.2604;
756.9000;0.6846;1.2676;
757.2000;0.6862;1.2652;
757.5000;0.6781;1.2556;
757.8000;0.6797;1.2700;
758.1000;0.6846;1.2868;
758.4000;0.6829;1.2820;
758.7000;0.6862;1.2796;
759.0000;0.6829;1.2580;
759.3000;0.6805;1.2437;
759.6000;0.6821;1.2389;
759.9000;0.6829;1.2389;
760.2000;0.6829;1.2365;
760.5000;0.6829;1.2293;
760.8000;0.6854;1.2317;
761.1000;0.6846;1.2269;
761.4000;0.6829;1.2293;
761.7000;0.6821;1.2293;
762.0000;0.6838;1.2389;
762.3000;0.6838;1.2461;
762.6000;0.6732;1.2221;
762.9000;0.6789;1.2269;
763.2000;0.6829;1.2413;
763.5000;0.6821;1.2389;
763.8000;0.6813;1.2437;
764.1000;0.6805;1.2508;
764.4000;0.6805;1.2532;
764.7000;0.6854;1.2628;
765.0000;0.6772;1.2437;
765.3000;0.6805;1.2532;
765.6000;0.6829;1.2532;
765.9000;0.6813;1.2437;
766.2000;0.6805;1.2508;
766.5000;0.6813;1.2580;
766.8000;0.6813;1.2508;
767.1000;0.6805;1.2580;
767.4000;0.6821;1.2724;
767.7000;0.6805;1.2676;
768.0000;0.6789;1.2628;
768.3000;0.6805;1.2604;
768.6000;0.6805;1.2580;
768.9000;0.6797;1.2508;
769.2000;0.6789;1.2437;
769.5000;0.6789;1.2484;
769.8000;0.6846;1.2676;
770.1000;0.6821;1.2532;
770.4000;0.6781;1.2413;
770.7000;0.6805;1.2461;
771.0000;0.6805;1.2341;
771.3000;0.6789;1.2389;
771.6000;0.6781;1.2461;
771.9000;0.6781;1.2508;
772.2000;0.6789;1.2604;
772.5000;0.6797;1.2676;
772.8000;0.6781;1.2676;
773.1000;0.6772;1.2628;
773.4000;0.6781;1.2676;
773.7000;0.6699;1.2341;
774.0000;0.6805;1.2461;
774.3000;0.6846;1.2652;
774.6000;0.6781;1.2628;
774.9000;0.6838;1.2820;
775.2000;0.6781;1.2628;
775.5000;0.6781;1.2580;
775.8000;0.6772;1.2532;
776.1000;0.6789;1.2628;
776.4000;0.6756;1.2604;
776.7000;0.6781;1.2724;
777.0000;0.6781;1.2700;
777.3000;0.6740;1.2604;
777.6000;0.6789;1.2748;
777.9000;0.6764;1.2772;
778.2000;0.6732;1.2676;
778.5000;0.6716;1.2676;
778.8000;0.6764;1.2748;
779.1000;0.6821;1.2844;
779.4000;0.6764;1.2748;
779.7000;0.6764;1.2700;
780.0000;0.6772;1.2604;
780.3000;0.6756;1.2580;
780.6000;0.6781;1.2628;
780.9000;0.6772;1.2676;
781.2000;0.6675;1.2413;
781.5000;0.6781;1.2580;
781.8000;0.6764;1.2604;
782.1000;0.6764;1.2652;
782.4000;0.6772;1.2820;
782.7000;0.6772;1.2820;
783.0000;0.6748;1.2820;
783.3000;0.6732;1.2724;
783.6000;0.6789;1.2796;
783.9000;0.6732;1.2676;
784.2000;0.6732;1.2748;
784.5000;0.6724;1.2676;
784.8000;0.6732;1.2676;
785.1000;0.6732;1.2676;
785.4000;0.6764;1.2748;
785.7000;0.6716;1.2652;
786.0000;0.6813;1.2916;
786.3000;0.6748;1.2724;
786.6000;0.6724;1.2652;
786.9000;0.6732;1.2724;
787.2000;0.6724;1.2676;
787.5000;0.6740;1.2604;
787.8000;0.6740;1.2580;
788.1000;0.6740;1.2676;
788.4000;0.6724;1.2604;
788.7000;0.6724;1.2580;
789.0000;0.6740;1.2580;
789.3000;0.6716;1.2508;
789.6000;0.6724;1.2508;
789.9000;0.6707;1.2293;
790.2000;0.6724;1.2389;
790.5000;0.6716;1.2437;
790.8000;0.6716;1.2389;
791.1000;0.6764;1.2508;
791.4000;0.6740;1.2365;
791.7000;0.6724;1.2341;
792.0000;0.6813;1.2604;
792.3000;0.6707;1.2365;
792.6000;0.6764;1.2413;
792.9000;0.6691;1.2269;
793.2000;0.6716;1.2341;
793.5000;0.6707;1.2389;
793.8000;0.6724;1.2484;
794.1000;0.6724;1.2413;
794.4000;0.6732;1.2461;
794.7000;0.6618;1.2173;
795.0000;0.6797;1.2700;
795.3000;0.6716;1.2484;
795.6000;0.6732;1.2532;
795.9000;0.6699;1.2508;
796.2000;0.6764;1.2580;
796.5000;0.6707;1.2413;
796.8000;0.6707;1.2389;
797.1000;0.6724;1.2437;
797.4000;0.6724;1.2484;
797.7000;0.6659;1.2365;
798.0000;0.6716;1.2508;
798.3000;0.6683;1.2389;
798.6000;0.6683;1.2365;
798.9000;0.6707;1.2317;
799.2000;0.6659;1.2389;
799.5000;0.6683;1.2413;
799.8000;0.6683;1.2437;
800.1000;0.6675;1.2437;
800.4000;0.6699;1.2532;
800.7000;0.6691;1.2508;
801.0000;0.6699;1.2532;
801.3000;0.6707;1.2461;
801.6000;0.6691;1.2389;
801.9000;0.6732;1.2556;
802.2000;0.6707;1.2484;
802.5000;0.6691;1.2532;
802.8000;0.6707;1.2556;
803.1000;0.6699;1.2604;
803.4000;0.6748;1.2772;
803.7000;0.6683;1.2508;
804.0000;0.6683;1.2508;
804.3000;0.6683;1.2484;
804.6000;0.6699;1.2532;
804.9000;0.6699;1.2508;
805.2000;0.6667;1.2413;
805.5000;0.6691;1.2437;
805.8000;0.6675;1.2413;
806.1000;0.6650;1.2389;
806.4000;0.6675;1.2532;
806.7000;0.6683;1.2628;
807.0000;0.6667;1.2628;
807.3000;0.6675;1.2700;
807.6000;0.6667;1.2676;
807.9000;0.6683;1.2700;
808.2000;0.6683;1.2652;
808.5000;0.6634;1.2556;
808.8000;0.6650;1.2652;
809.1000;0.6659;1.2676;
809.4000;0.6667;1.2676;
809.7000;0.6667;1.2532;
810.0000;0.6626;1.2461;
810.3000;0.6691;1.2604;
810.6000;0.6691;1.2676;
810.9000;0.6650;1.2508;
811.2000;0.6659;1.2484;
811.5000;0.6642;1.2484;
811.8000;0.6667;1.2556;
812.1000;0.6667;1.2484;
812.4000;0.6659;1.2484;
812.7000;0.6691;1.2484;
813.0000;0.6659;1.2365;
813.3000;0.6626;1.2341;
813.6000;0.6593;1.2293;
813.9000;0.6675;1.2461;
814.2000;0.6683;1.2508;
814.5000;0.6618;1.2341;
814.8000;0.6650;1.2413;
815.1000;0.6610;1.2389;
815.4000;0.6650;1.2437;
815.7000;0.6634;1.2461;
816.0000;0.6675;1.2580;
816.3000;0.6650;1.2508;
816.6000;0.6650;1.2508;
816.9000;0.6667;1.2532;
817.2000;0.6683;1.2556;
817.5000;0.6650;1.2604;
817.8000;0.6650;1.2580;
818.1000;0.6610;1.2580;
818.4000;0.6667;1.2724;
818.7000;0.6699;1.2796;
819.0000;0.6593;1.2484;
819.3000;0.6642;1.2556;
819.6000;0.6634;1.2532;
819.9000;0.6634;1.2676;
820.2000;0.6626;1.2700;
820.5000;0.6634;1.2724;
820.8000;0.6650;1.2676;
821.1000;0.6642;1.2676;
821.4000;0.6642;1.2604;
821.7000;0.6650;1.2532;
822.0000;0.6667;1.2556;
822.3000;0.6577;1.2484;
822.6000;0.6626;1.2628;
822.9000;0.6626;1.2508;
823.2000;0.6642;1.2437;
823.5000;0.6634;1.2389;
823.8000;0.6626;1.2437;
824.1000;0.6626;1.2437;
824.4000;0.6618;1.2484;
824.7000;0.6634;1.2556;
825.0000;0.6626;1.2461;
825.3000;0.6626;1.2413;
825.6000;0.6634;1.2389;
825.9000;0.6626;1.2389;
826.2000;0.6634;1.2389;
826.5000;0.6626;1.2484;
826.8000;0.6650;1.2628;
827.1000;0.6642;1.2580;
827.4000;0.6650;1.2556;
827.7000;0.6626;1.2532;
828.0000;0.6626;1.2484;
828.3000;0.6642;1.2556;
828.6000;0.6683;1.2652;
828.9000;0.6626;1.2532;
829.2000;0.6642;1.2604;
829.5000;0.6634;1.2556;
829.8000;0.6626;1.2556;
830.1000;0.6634;1.2604;
830.4000;0.6618;1.2437;
830.7000;0.6618;1.2532;
831.0000;0.6634;1.2700;
831.3000;0.6618;1.2604;
831.6000;0.6553;1.2461;
831.9000;0.6618;1.2700;
832.2000;0.6618;1.2628;
832.5000;0.6650;1.2724;
832.8000;0.6610;1.2652;
833.1000;0.6618;1.2604;
833.4000;0.6634;1.2604;
833.7000;0.6642;1.2604;
834.0000;0.6610;1.2604;
834.3000;0.6593;1.2556;
834.6000;0.6602;1.2556;
834.9000;0.6642;1.2724;
835.2000;0.6602;1.2628;
835.5000;0.6602;1.2628;
835.8000;0.6618;1.2604;
836.1000;0.6602;1.2580;
836.4000;0.6593;1.2532;
836.7000;0.6610;1.2628;
837.0000;0.6585;1.2652;
837.3000;0.6602;1.2700;
837.6000;0.6626;1.2772;
837.9000;0.6593;1.2652;
838.2000;0.6610;1.2628;
838.5000;0.6610;1.2748;
838.8000;0.6545;1.2532;
839.1000;0.6577;1.2604;
839.4000;0.6618;1.2556;
839.7000;0.6585;1.2508;
840.0000;0.6602;1.2532;
840.3000;0.6634;1.2604;
840.6000;0.6585;1.2484;
840.9000;0.6593;1.2532;
841.2000;0.6659;1.2676;
841.5000;0.6602;1.2652;
841.8000;0.6561;1.2580;
842.1000;0.6577;1.2676;
842.4000;0.6545;1.2580;
842.7000;0.6602;1.2652;
843.0000;0.6585;1.2532;
843.3000;0.6577;1.2604;
843.6000;0.6593;1.2700;
843.9000;0.6593;1.2700;
844.2000;0.6593;1.2748;
844.5000;0.6602;1.2820;
844.8000;0.6577;1.2676;
845.1000;0.6602;1.2748;
845.4000;0.6569;1.2604;
845.7000;0.6569;1.2652;
846.0000;0.6593;1.2652;
846.3000;0.6602;1.2676;
846.6000;0.6593;1.2628;
846.9000;0.6577;1.2508;
847.2000;0.6602;1.2628;
847.5000;0.6593;1.2628;
847.8000;0.6602;1.2604;
848.1000;0.6593;1.2532;
848.4000;0.6577;1.2437;
848.7000;0.6585;1.2508;
849.0000;0.6602;1.2628;
849.3000;0.6610;1.2580;
849.6000;0.6577;1.2532;
849.9000;0.6569;1.2532;
850.2000;0.6577;1.2580;
850.5000;0.6602;1.2652;
850.8000;0.6577;1.2580;
851.1000;0.6585;1.2556;
851.4000;0.6569;1.2532;
851.7000;0.6553;1.2532;
852.0000;0.6569;1.2652;
852.3000;0.6545;1.2700;
852.6000;0.6634;1.2892;
852.9000;0.6577;1.2820;
853.2000;0.6593;1.2796;
853.5000;0.6553;1.2652;
853.8000;0.6569;1.2700;
854.1000;0.6593;1.2676;
854.4000;0.6569;1.2604;
854.7000;0.6561;1.2652;
855.0000;0.6577;1.2628;
855.3000;0.6577;1.2604;
855.6000;0.6528;1.2413;
855.9000;0.6577;1.2461;
856.2000;0.6536;1.2461;
856.5000;0.6512;1.2365;
856.8000;0.6577;1.2508;
857.1000;0.6577;1.2484;
857.4000;0.6585;1.2532;
857.7000;0.6585;1.2604;
858.0000;0.6593;1.2676;
858.3000;0.6577;1.2556;
858.6000;0.6561;1.2437;
858.9000;0.6479;1.2125;
859.2000;0.6569;1.2365;
859.5000;0.6545;1.2293;
859.8000;0.6569;1.2341;
860.1000;0.6561;1.2341;
860.4000;0.6577;1.2293;
860.7000;0.6553;1.2197;
861.0000;0.6545;1.2269;
861.3000;0.6545;1.2413;
861.6000;0.6577;1.2556;
861.9000;0.6569;1.2580;
862.2000;0.6561;1.2461;
862.5000;0.6561;1.2413;
862.8000;0.6569;1.2389;
863.1000;0.6569;1.2389;
863.4000;0.6528;1.2413;
863.7000;0.6561;1.2437;
864.0000;0.6569;1.2484;
864.3000;0.6545;1.2437;
864.6000;0.6553;1.2317;
864.9000;0.6675;1.2652;
865.2000;0.6593;1.2365;
865.5000;0.6569;1.2293;
865.8000;0.6569;1.2269;
866.1000;0.6561;1.2221;
866.4000;0.6553;1.2245;
866.7000;0.6569;1.2245;
867.0000;0.6569;1.2413;
867.3000;0.6585;1.2508;
867.6000;0.6545;1.2508;
867.9000;0.6561;1.2532;
868.2000;0.6561;1.2461;
868.5000;0.6545;1.2461;
868.8000;0.6585;1.2628;
869.1000;0.6561;1.2580;
869.4000;0.6545;1.2508;
869.7000;0.6561;1.2604;
870.0000;0.6561;1.2580;
870.3000;0.6536;1.2556;
870.6000;0.6561;1.2652;
870.9000;0.6545;1.2628;
871.2000;0.6545;1.2652;
871.5000;0.6585;1.2844;
871.8000;0.6618;1.2964;
872.1000;0.6561;1.2916;
872.4000;0.6545;1.2868;
872.7000;0.6455;1.2700;
873.0000;0.6520;1.2820;
873.3000;0.6528;1.2748;
873.6000;0.6545;1.2844;
873.9000;0.6528;1.2820;
874.2000;0.6545;1.2892;
874.5000;0.6553;1.2964;
874.8000;0.6528;1.2868;
875.1000;0.6569;1.2844;
875.4000;0.6528;1.2604;
875.7000;0.6528;1.2700;
876.0000;0.6528;1.2604;
876.3000;0.6553;1.2676;
876.6000;0.6536;1.2604;
876.9000;0.6520;1.2604;
877.2000;0.6561;1.2628;
877.5000;0.6528;1.2652;
877.8000;0.6553;1.2724;
878.1000;0.6536;1.2676;
878.4000;0.6536;1.2604;
878.7000;0.6504;1.2556;
879.0000;0.6520;1.2700;
879.3000;0.6536;1.2700;
879.6000;0.6488;1.2580;
879.9000;0.6520;1.2532;
880.2000;0.6528;1.2556;
880.5000;0.6528;1.2628;
880.8000;0.6577;1.2820;
881.1000;0.6520;1.2652;
881.4000;0.6536;1.2796;
881.7000;0.6528;1.2892;
882.0000;0.6488;1.2892;
882.3000;0.6504;1.2868;
882.6000;0.6528;1.2868;
882.9000;0.6561;1.2868;
883.2000;0.6528;1.2748;
883.5000;0.6520;1.2820;
883.8000;0.6520;1.2772;
884.1000;0.6602;1.2916;
884.4000;0.6536;1.2748;
884.7000;0.6528;1.2700;
885.0000;0.6536;1.2700;
885.3000;0.6585;1.2844;
885.6000;0.6528;1.2676;
885.9000;0.6528;1.2748;
886.2000;0.6504;1.2724;
886.5000;0.6455;1.2484;
886.8000;0.6528;1.2748;
887.1000;0.6545;1.2796;
887.4000;0.6504;1.2676;
887.7000;0.6504;1.2676;
888.0000;0.6520;1.2700;
888.3000;0.6528;1.2724;
888.6000;0.6528;1.2748;
888.9000;0.6520;1.2724;
889.2000;0.6504;1.2652;
889.5000;0.6520;1.2676;
889.8000;0.6528;1.2724;
890.1000;0.6512;1.2676;
890.4000;0.6463;1.2532;
890.7000;0.6504;1.2700;
891.0000;0.6512;1.2724;
891.3000;0.6496;1.2676;
891.6000;0.6496;1.2676;
891.9000;0.6528;1.2796;
892.2000;0.6520;1.2724;
892.5000;0.6528;1.2868;
892.8000;0.6488;1.2724;
893.1000;0.6512;1.2772;
893.4000;0.6496;1.2796;
893.7000;0.6520;1.2916;
894.0000;0.6520;1.2892;
894.3000;0.6504;1.2892;
894.6000;0.6520;1.2916;
894.9000;0.6512;1.2940;
895.2000;0.6504;1.2892;
895.5000;0.6504;1.2724;
895.8000;0.6496;1.2700;
896.1000;0.6455;1.2652;
896.4000;0.6569;1.3012;
896.7000;0.6520;1.2844;
897.0000;0.6496;1.2820;
897.3000;0.6504;1.2820;
897.6000;0.6520;1.2820;
897.9000;0.6504;1.2844;
898.2000;0.6520;1.2844;
898.5000;0.6512;1.2844;
898.8000;0.6536;1.2796;
899.1000;0.6512;1.2676;
899.4000;0.6488;1.2604;
899.7000;0.6520;1.2724;
900.0000;0.6520;1.2748;
900.3000;0.6488;1.2676;
900.6000;0.6463;1.2556;
900.9000;0.6479;1.2604;
901.2000;0.6496;1.2580;
901.5000;0.6496;1.2604;
901.8000;0.6488;1.2556;
902.1000;0.6512;1.2652;
902.4000;0.6504;1.2676;
902.7000;0.6455;1.2508;
903.0000;0.6504;1.2580;
903.3000;0.6520;1.2724;
903.6000;0.6528;1.2772;
903.9000;0.6488;1.2676;
904.2000;0.6496;1.2820;
904.5000;0.6496;1.2796;
904.8000;0.6496;1.2940;
905.1000;0.6488;1.2964;
905.4000;0.6504;1.2844;
905.7000;0.6488;1.2772;
906.0000;0.6504;1.2748;
906.3000;0.6479;1.2724;
906.6000;0.6496;1.2724;
906.9000;0.6488;1.2676;
907.2000;0.6585;1.2844;
907.5000;0.6512;1.2628;
907.8000;0.6504;1.2556;
908.1000;0.6488;1.2652;
908.4000;0.6504;1.2724;
908.7000;0.6479;1.2748;
909.0000;0.6504;1.2748;
909.3000;0.6504;1.2724;
909.6000;0.6496;1.2700;
909.9000;0.6496;1.2676;
910.2000;0.6471;1.2580;
910.5000;0.6431;1.2437;
910.8000;0.6479;1.2556;
911.1000;0.6479;1.2532;
911.4000;0.6496;1.2508;
911.7000;0.6536;1.2724;
912.0000;0.6479;1.2604;
912.3000;0.6455;1.2461;
912.6000;0.6496;1.2676;
912.9000;0.6422;1.2484;
913.2000;0.6463;1.2700;
913.5000;0.6463;1.2652;
913.8000;0.6471;1.2676;
914.1000;0.6488;1.2868;
914.4000;0.6455;1.2820;
914.7000;0.6479;1.2844;
915.0000;0.6479;1.2748;
915.3000;0.6488;1.2844;
915.6000;0.6479;1.2868;
915.9000;0.6471;1.2796;
916.2000;0.6488;1.2868;
916.5000;0.6479;1.2844;
916.8000;0.6471;1.2796;
917.1000;0.6471;1.2772;
917.4000;0.6488;1.2796;
917.7000;0.6488;1.2724;
918.0000;0.6504;1.2796;
918.3000;0.6447;1.2604;
918.6000;0.6471;1.2700;
918.9000;0.6479;1.2700;
919.2000;0.6479;1.2724;
919.5000;0.6496;1.2772;
919.8000;0.6463;1.2652;
920.1000;0.6504;1.2700;
920.4000;0.6504;1.2700;
920.7000;0.6463;1.2604;
921.0000;0.6463;1.2508;
921.3000;0.6471;1.2556;
921.6000;0.6463;1.2532;
921.9000;0.6463;1.2532;
922.2000;0.6471;1.2580;
922.5000;0.6504;1.2796;
922.8000;0.6471;1.2772;
923.1000;0.6455;1.2748;
923.4000;0.6439;1.2628;
923.7000;0.6447;1.2676;
924.0000;0.6488;1.2868;
924.3000;0.6504;1.2988;
924.6000;0.6488;1.2916;
924.9000;0.6463;1.2988;
925.2000;0.6479;1.3012;
925.5000;0.6463;1.2940;
925.8000;0.6455;1.2892;
926.1000;0.6504;1.2964;
926.4000;0.6512;1.2988;
926.7000;0.6422;1.2724;
927.0000;0.6463;1.2748;
927.3000;0.6536;1.2916;
927.6000;0.6463;1.2676;
927.9000;0.6455;1.2772;
928.2000;0.6463;1.2796;
928.5000;0.6455;1.2724;
928.8000;0.6463;1.2748;
929.1000;0.6479;1.2844;
929.4000;0.6357;1.2532;
929.7000;0.6463;1.2868;
930.0000;0.6406;1.2748;
930.3000;0.6463;1.2844;
930.6000;0.6455;1.2916;
930.9000;0.6455;1.2820;
931.2000;0.6455;1.2772;
931.5000;0.6447;1.2724;
931.8000;0.6463;1.2796;
932.1000;0.6479;1.2892;
932.4000;0.6479;1.2916;
932.7000;0.6463;1.2844;
933.0000;0.6439;1.2868;
933.3000;0.6471;1.2916;
933.6000;0.6455;1.2892;
933.9000;0.6471;1.2940;
934.2000;0.6431;1.2940;
934.5000;0.6447;1.3060;
934.8000;0.6463;1.3060;
935.1000;0.6447;1.3036;
935.4000;0.6455;1.3012;
935.7000;0.6455;1.2988;
936.0000;0.6447;1.2940;
936.3000;0.6463;1.3036;
936.6000;0.6439;1.2940;
936.9000;0.6471;1.2964;
937.2000;0.6471;1.2964;
937.5000;0.6471;1.2988;
937.8000;0.6471;1.3036;
938.1000;0.6471;1.3036;
938.4000;0.6455;1.2916;
938.7000;0.6439;1.2892;
939.0000;0.6422;1.2868;
939.3000;0.6455;1.2988;
939.6000;0.6439;1.3012;
939.9000;0.6447;1.2964;
940.2000;0.6447;1.2940;
940.5000;0.6455;1.2964;
940.8000;0.6455;1.2988;
941.1000;0.6447;1.3012;
941.4000;0.6447;1.3036;
941.7000;0.6447;1.2964;
942.0000;0.6439;1.2940;
942.3000;0.6439;1.2844;
942.6000;0.6471;1.2892;
942.9000;0.6422;1.2964;
943.2000;0.6463;1.3060;
943.5000;0.6455;1.2964;
943.8000;0.6471;1.2988;
944.1000;0.6447;1.3012;
944.4000;0.6463;1.3012;
944.7000;0.6439;1.2940;
945.0000;0.6455;1.2844;
945.3000;0.6496;1.2964;
945.6000;0.6447;1.2796;
945.9000;0.6447;1.2844;
946.2000;0.6463;1.2940;
946.5000;0.6414;1.2892;
946.8000;0.6431;1.2892;
947.1000;0.6455;1.2916;
947.4000;0.6439;1.2916;
947.7000;0.6382;1.2868;
948.0000;0.6447;1.3012;
948.3000;0.6447;1.2988;
948.6000;0.6439;1.2916;
948.9000;0.6431;1.2868;
949.2000;0.6447;1.2916;
949.5000;0.6431;1.2916;
949.8000;0.6439;1.3012;
950.1000;0.6471;1.3131;
950.4000;0.6406;1.3012;
950.7000;0.6504;1.3251;
951.0000;0.6455;1.3060;
951.3000;0.6422;1.3012;
951.6000;0.6439;1.2988;
951.9000;0.6447;1.2988;
952.2000;0.6439;1.3012;
952.5000;0.6447;1.2988;
952.8000;0.6422;1.2916;
953.1000;0.6431;1.2940;
953.4000;0.6414;1.2892;
953.7000;0.6447;1.2964;
954.0000;0.6447;1.3084;
954.3000;0.6431;1.3036;
954.6000;0.6447;1.3060;
954.9000;0.6439;1.3060;
955.2000;0.6431;1.2988;
955.5000;0.6422;1.2940;
955.8000;0.6422;1.2940;
956.1000;0.6414;1.2916;
956.4000;0.6422;1.2988;
956.7000;0.6422;1.3012;
957.0000;0.6422;1.3036;
957.3000;0.6447;1.3108;
957.6000;0.6447;1.3036;
957.9000;0.6431;1.2940;
958.2000;0.6414;1.2868;
958.5000;0.6431;1.2940;
958.8000;0.6414;1.2940;
959.1000;0.6431;1.2892;
959.4000;0.6406;1.2868;
959.7000;0.6439;1.2916;
960.0000;0.6463;1.2940;
960.3000;0.6439;1.2964;
960.6000;0.6406;1.2988;
960.9000;0.6439;1.2988;
961.2000;0.6455;1.3012;
961.5000;0.6431;1.2916;
961.8000;0.6398;1.2988;
962.1000;0.6447;1.3036;
962.4000;0.6398;1.2916;
962.7000;0.6414;1.2916;
963.0000;0.6422;1.3012;
963.3000;0.6414;1.3012;
963.6000;0.6463;1.3084;
963.9000;0.6422;1.3036;
964.2000;0.6406;1.2868;
964.5000;0.6431;1.2940;
964.8000;0.6447;1.2892;
965.1000;0.6431;1.2868;
965.4000;0.6463;1.3012;
965.7000;0.6463;1.3036;
966.0000;0.6422;1.2940;
966.3000;0.6325;1.2700;
966.6000;0.6422;1.2868;
966.9000;0.6422;1.2868;
967.2000;0.6439;1.2892;
967.5000;0.6414;1.2940;
967.8000;0.6447;1.3036;
968.1000;0.6422;1.2964;
968.4000;0.6431;1.2964;
968.7000;0.6439;1.2988;
969.0000;0.6455;1.2988;
969.3000;0.6406;1.2964;
969.6000;0.6431;1.3060;
969.9000;0.6439;1.3084;
970.2000;0.6414;1.3084;
970.5000;0.6414;1.3060;
970.8000;0.6260;1.2628;
971.1000;0.6431;1.3155;
971.4000;0.6431;1.3084;
971.7000;0.6447;1.3060;
972.0000;0.6349;1.2844;
972.3000;0.6431;1.3084;
972.6000;0.6414;1.2988;
972.9000;0.6414;1.2964;
973.2000;0.6439;1.3036;
973.5000;0.6414;1.2940;
973.8000;0.6422;1.2892;
974.1000;0.6422;1.2916;
974.4000;0.6414;1.2868;
974.7000;0.6422;1.2988;
975.0000;0.6422;1.3012;
975.3000;0.6422;1.3012;
975.6000;0.6406;1.3012;
975.9000;0.6414;1.2940;
976.2000;0.6431;1.2964;
976.5000;0.6439;1.3060;
976.8000;0.6439;1.3036;
977.1000;0.6414;1.2964;
977.4000;0.6431;1.3084;
977.7000;0.6488;1.3251;
978.0000;0.6439;1.3108;
978.3000;0.6431;1.3084;
978.6000;0.6406;1.2988;
978.9000;0.6382;1.2988;
979.2000;0.6422;1.3108;
979.5000;0.6439;1.3131;
979.8000;0.6447;1.3084;
980.1000;0.6414;1.2868;
980.4000;0.6398;1.2844;
980.7000;0.6512;1.3227;
981.0000;0.6422;1.2892;
981.3000;0.6406;1.2940;
981.6000;0.6504;1.3155;
981.9000;0.6398;1.2892;
982.2000;0.6390;1.2844;
982.5000;0.6414;1.2868;
982.8000;0.6422;1.2916;
983.1000;0.6398;1.2796;
983.4000;0.6390;1.2844;
983.7000;0.6382;1.2820;
984.0000;0.6447;1.2916;
984.3000;0.6496;1.3084;
984.6000;0.6414;1.2844;
984.9000;0.6422;1.2940;
985.2000;0.6414;1.2940;
985.5000;0.6414;1.2844;
985.8000;0.6414;1.2844;
986.1000;0.6414;1.2868;
986.4000;0.6382;1.2796;
986.7000;0.6398;1.2820;
987.0000;0.6390;1.2844;
987.3000;0.6455;1.2988;
987.6000;0.6398;1.2916;
987.9000;0.6382;1.2820;
988.2000;0.6398;1.2772;
988.5000;0.6390;1.2772;
988.8000;0.6422;1.2892;
989.1000;0.6422;1.3060;
989.4000;0.6382;1.3060;
989.7000;0.6398;1.3012;
990.0000;0.6406;1.3012;
990.3000;0.6414;1.3179;
990.6000;0.6414;1.3131;
990.9000;0.6406;1.3060;
991.2000;0.6406;1.3060;
991.5000;0.6414;1.3108;
991.8000;0.6431;1.3155;
992.1000;0.6406;1.3131;
992.4000;0.6398;1.3155;
992.7000;0.6398;1.3227;
993.0000;0.6398;1.3275;
993.3000;0.6390;1.3108;
993.6000;0.6406;1.3179;
993.9000;0.6422;1.3179;
994.2000;0.6406;1.3036;
994.5000;0.6406;1.3131;
994.8000;0.6382;1.3108;
995.1000;0.6382;1.3084;
995.4000;0.6422;1.3108;
995.7000;0.6398;1.3012;
996.0000;0.6357;1.2964;
996.3000;0.6406;1.3227;
996.6000;0.6414;1.3275;
996.9000;0.6422;1.3179;
997.2000;0.6422;1.3155;
997.5000;0.6406;1.3251;
997.8000;0.6414;1.3347;
998.1000;0.6382;1.3251;
998.4000;0.6382;1.3275;
998.7000;0.6390;1.3227;
999.0000;0.6406;1.3179;
999.3000;0.6390;1.3179;
999.6000;0.6414;1.3275;
999.9000;0.6398;1.3203;
1000.2000;0.6398;1.3155;
1000.5000;0.6398;1.3131;
1000.8000;0.6390;1.3155;
1001.1000;0.6439;1.3179;
1001.4000;0.6398;1.3131;
1001.7000;0.6382;1.3131;
1002.0000;0.6422;1.3131;
1002.3000;0.6357;1.3060;
1002.6000;0.6447;1.3251;
1002.9000;0.6406;1.3131;
1003.2000;0.6374;1.3084;
1003.5000;0.6349;1.3036;
1003.8000;0.6406;1.3131;
1004.1000;0.6398;1.3275;
1004.4000;0.6374;1.3299;
1004.7000;0.6317;1.3084;
1005.0000;0.6431;1.3371;
1005.3000;0.6414;1.3275;
1005.6000;0.6422;1.3275;
1005.9000;0.6414;1.3251;
1006.2000;0.6422;1.3227;
1006.5000;0.6398;1.3203;
1006.8000;0.6406;1.3251;
1007.1000;0.6365;1.3179;
1007.4000;0.6382;1.3131;
1007.7000;0.6382;1.3012;
1008.0000;0.6439;1.3108;
1008.3000;0.6317;1.2796;
1008.6000;0.6398;1.3108;
1008.9000;0.6382;1.3108;
1009.2000;0.6390;1.3179;
1009.5000;0.6374;1.3131;
1009.8000;0.6390;1.3179;
1010.1000;0.6390;1.3203;
1010.4000;0.6414;1.3251;
1010.7000;0.6398;1.3203;
1011.0000;0.6374;1.3131;
1011.3000;0.6349;1.3036;
1011.6000;0.6382;1.3084;
1011.9000;0.6374;1.3108;
1012.2000;0.6390;1.3227;
1012.5000;0.6390;1.3251;
1012.8000;0.6365;1.3251;
1013.1000;0.6374;1.3203;
1013.4000;0.6390;1.3275;
1013.7000;0.6390;1.3371;
1014.0000;0.6374;1.3227;
1014.3000;0.6365;1.3203;
1014.6000;0.6382;1.3179;
1014.9000;0.6398;1.3084;
1015.2000;0.6374;1.3012;
1015.5000;0.6414;1.3036;
1015.8000;0.6390;1.2844;
1016.1000;0.6398;1.2892;
1016.4000;0.6390;1.2940;
1016.7000;0.6390;1.2964;
1017.0000;0.6374;1.2844;
1017.3000;0.6365;1.2892;
1017.6000;0.6365;1.2940;
1017.9000;0.6374;1.2964;
1018.2000;0.6398;1.3060;
1018.5000;0.6382;1.2964;
1018.8000;0.6398;1.3036;
1019.1000;0.6463;1.3251;
1019.4000;0.6365;1.2988;
1019.7000;0.6374;1.3036;
1020.0000;0.6390;1.2964;
1020.3000;0.6406;1.3036;
1020.6000;0.6390;1.3036;
1020.9000;0.6382;1.3084;
1021.2000;0.6390;1.3155;
1021.5000;0.6365;1.3131;
1021.8000;0.6382;1.3131;
1022.1000;0.6357;1.3155;
1022.4000;0.6349;1.3131;
1022.7000;0.6341;1.3108;
1023.0000;0.6365;1.3155;
1023.3000;0.6374;1.3155;
1023.6000;0.6374;1.3108;
1023.9000;0.6365;1.3131;
1024.2000;0.6390;1.3179;
1024.5000;0.6333;1.2964;
1024.8000;0.6382;1.3012;
1025.1000;0.6365;1.3012;
1025.4000;0.6357;1.3036;
1025.7000;0.6382;1.3060;
1026.0000;0.6382;1.3131;
1026.3000;0.6357;1.3179;
1026.6000;0.6414;1.3299;
1026.9000;0.6365;1.3108;
1027.2000;0.6398;1.3084;
1027.5000;0.6341;1.3012;
1027.8000;0.6382;1.3131;
1028.1000;0.6341;1.3060;
1028.4000;0.6390;1.3131;
1028.7000;0.6390;1.3108;
1029.0000;0.6382;1.3084;
1029.3000;0.6422;1.3155;
1029.6000;0.6390;1.3036;
1029.9000;0.6374;1.3012;
1030.2000;0.6398;1.3036;
1030.5000;0.6374;1.2916;
1030.8000;0.6365;1.2988;
1031.1000;0.6382;1.3036;
1031.4000;0.6365;1.2940;
1031.7000;0.6357;1.2916;
1032.0000;0.6374;1.2940;
1032.3000;0.6406;1.3036;
1032.6000;0.6357;1.2916;
1032.9000;0.6365;1.2964;
1033.2000;0.6365;1.3036;
1033.5000;0.6382;1.3108;
1033.8000;0.6398;1.3108;
1034.1000;0.6398;1.3036;
1034.4000;0.6414;1.3179;
1034.7000;0.6374;1.3131;
1035.0000;0.6365;1.3084;
1035.3000;0.6382;1.3084;
1035.6000;0.6382;1.3060;
1035.9000;0.6382;1.3036;
1036.2000;0.6390;1.3012;
1036.5000;0.6390;1.3131;
1036.8000;0.6382;1.3179;
1037.1000;0.6374;1.3131;
1037.4000;0.6365;1.3036;
1037.7000;0.6374;1.3084;
1038.0000;0.6382;1.3012;
1038.3000;0.6390;1.2988;
1038.6000;0.6398;1.3155;
1038.9000;0.6365;1.3084;
1039.2000;0.6390;1.3131;
1039.5000;0.6349;1.3084;
1039.8000;0.6398;1.3227;
1040.1000;0.6341;1.3131;
1040.4000;0.6325;1.2988;
1040.7000;0.6349;1.3012;
1041.0000;0.6382;1.3084;
1041.3000;0.6382;1.3036;
1041.6000;0.6365;1.2940;
1041.9000;0.6349;1.2940;
1042.2000;0.6333;1.2892;
1042.5000;0.6365;1.2940;
1042.8000;0.6365;1.2940;
1043.1000;0.6341;1.2892;
1043.4000;0.6276;1.2676;
1043.7000;0.6357;1.2868;
1044.0000;0.6390;1.2964;
1044.3000;0.6439;1.3108;
1044.6000;0.6341;1.2916;
1044.9000;0.6365;1.3012;
1045.2000;0.6382;1.3060;
1045.5000;0.6390;1.3084;
1045.8000;0.6374;1.3036;
1046.1000;0.6382;1.3060;
1046.4000;0.6365;1.3084;
1046.7000;0.6374;1.3084;
1047.0000;0.6365;1.3084;
1047.3000;0.6365;1.3012;
1047.6000;0.6365;1.3036;
1047.9000;0.6357;1.3060;
1048.2000;0.6325;1.2964;
1048.5000;0.6357;1.3012;
1048.8000;0.6365;1.3060;
1049.1000;0.6317;1.2916;
1049.4000;0.6357;1.2916;
1049.7000;0.6414;1.3060;
1050.0000;0.6349;1.3060;
1050.3000;0.6374;1.3060;
1050.6000;0.6374;1.3036;
1050.9000;0.6365;1.3036;
1051.2000;0.6365;1.3060;
1051.5000;0.6382;1.3131;
1051.8000;0.6349;1.3203;
1052.1000;0.6374;1.3131;
1052.4000;0.6341;1.3179;
1052.7000;0.6374;1.3227;
1053.0000;0.6357;1.3203;
1053.3000;0.6341;1.3060;
1053.6000;0.6349;1.3108;
1053.9000;0.6357;1.3108;
1054.2000;0.6349;1.3060;
1054.5000;0.6365;1.3131;
1054.8000;0.6374;1.3155;
1055.1000;0.6357;1.3179;
1055.4000;0.6357;1.3203;
1055.7000;0.6390;1.3203;
1056.0000;0.6349;1.3036;
1056.3000;0.6276;1.2916;
1056.6000;0.6357;1.3108;
1056.9000;0.6357;1.3131;
1057.2000;0.6341;1.3131;
1057.5000;0.6365;1.3131;
1057.8000;0.6357;1.3131;
1058.1000;0.6341;1.3036;
1058.4000;0.6357;1.3036;
1058.7000;0.6333;1.3060;
1059.0000;0.6382;1.3179;
1059.3000;0.6374;1.3084;
1059.6000;0.6357;1.3084;
1059.9000;0.6357;1.3084;
1060.2000;0.6341;1.3155;
1060.5000;0.6374;1.3299;
1060.8000;0.6357;1.3275;
1061.1000;0.6357;1.3275;
1061.4000;0.6422;1.3395;
1061.7000;0.6365;1.3203;
1062.0000;0.6414;1.3371;
1062.3000;0.6357;1.3275;
1062.6000;0.6317;1.3131;
1062.9000;0.6365;1.3275;
1063.2000;0.6349;1.3251;
1063.5000;0.6349;1.3203;
1063.8000;0.6341;1.3251;
1064.1000;0.6309;1.3227;
1064.4000;0.6333;1.3227;
1064.7000;0.6422;1.3275;
1065.0000;0.6414;1.3251;
1065.3000;0.6341;1.3203;
1065.6000;0.6349;1.3323;
1065.9000;0.6382;1.3419;
1066.2000;0.6317;1.3275;
1066.5000;0.6309;1.3155;
1066.8000;0.6300;1.3131;
1067.1000;0.6365;1.3347;
1067.4000;0.6349;1.3275;
1067.7000;0.6349;1.3227;
1068.0000;0.6341;1.3108;
1068.3000;0.6341;1.3131;
1068.6000;0.6317;1.3131;
1068.9000;0.6406;1.3299;
1069.2000;0.6349;1.3179;
1069.5000;0.6357;1.2988;
1069.8000;0.6374;1.3060;
1070.1000;0.6349;1.2988;
1070.4000;0.6341;1.3036;
1070.7000;0.6349;1.2988;
1071.0000;0.6365;1.3012;
1071.3000;0.6365;1.3036;
1071.6000;0.6365;1.3060;
1071.9000;0.6349;1.3131;
1072.2000;0.6349;1.3108;
1072.5000;0.6349;1.3131;
1072.8000;0.6357;1.3203;
1073.1000;0.6333;1.3203;
1073.4000;0.6341;1.3203;
1073.7000;0.6349;1.3251;
1074.0000;0.6365;1.3227;
1074.3000;0.6374;1.3323;
1074.6000;0.6374;1.3155;
1074.9000;0.6357;1.3108;
1075.2000;0.6317;1.3060;
1075.5000;0.6365;1.3155;
1075.8000;0.6365;1.3203;
1076.1000;0.6349;1.3203;
1076.4000;0.6333;1.3108;
1076.7000;0.6357;1.3179;
1077.0000;0.6357;1.3179;
1077.3000;0.6365;1.3227;
1077.6000;0.6341;1.3131;
1077.9000;0.6341;1.3155;
1078.2000;0.6365;1.3203;
1078.5000;0.6349;1.3179;
1078.8000;0.6333;1.3108;
1079.1000;0.6341;1.3131;
1079.4000;0.6292;1.3060;
1079.7000;0.6357;1.3155;
1080.0000;0.6341;1.3108;
1080.3000;0.6325;1.3131;
1080.6000;0.6341;1.3155;
1080.9000;0.6333;1.3203;
1081.2000;0.6333;1.3227;
1081.5000;0.6365;1.3227;
1081.8000;0.6349;1.3323;
1082.1000;0.6333;1.3323;
1082.4000;0.6341;1.3251;
1082.7000;0.6325;1.3275;
1083.0000;0.6341;1.3203;
1083.3000;0.6349;1.3131;
1083.6000;0.6357;1.3084;
1083.9000;0.6341;1.3108;
1084.2000;0.6325;1.3179;
1084.5000;0.6382;1.3155;
1084.8000;0.6333;1.3084;
1085.1000;0.6333;1.3155;
1085.4000;0.6309;1.3108;
1085.7000;0.6325;1.3227;
1086.0000;0.6390;1.3371;
1086.3000;0.6333;1.3155;
1086.6000;0.6349;1.3179;
1086.9000;0.6309;1.3203;
1087.2000;0.6349;1.3251;
1087.5000;0.6333;1.3227;
1087.8000;0.6374;1.3203;
1088.1000;0.6349;1.3131;
1088.4000;0.6341;1.3179;
1088.7000;0.6357;1.3203;
1089.0000;0.6349;1.3155;
1089.3000;0.6341;1.3131;
1089.6000;0.6341;1.3179;
1089.9000;0.6333;1.3036;
1090.2000;0.6349;1.3084;
1090.5000;0.6349;1.3108;
1090.8000;0.6455;1.3395;
1091.1000;0.6349;1.3227;
1091.4000;0.6349;1.3299;
1091.7000;0.6317;1.3227;
1092.0000;0.6309;1.3131;
1092.3000;0.6325;1.3155;
1092.6000;0.6333;1.3203;
1092.9000;0.6317;1.3203;
1093.2000;0.6309;1.3203;
1093.5000;0.6333;1.3227;
1093.8000;0.6317;1.3203;
1094.1000;0.6333;1.3227;
1094.4000;0.6325;1.3227;
1094.7000;0.6325;1.3203;
1095.0000;0.6309;1.3155;
1095.3000;0.6333;1.3227;
1095.6000;0.6325;1.3227;
1095.9000;0.6349;1.3275;
1096.2000;0.6341;1.3203;
1096.5000;0.6349;1.3251;
1096.8000;0.6317;1.3155;
1097.1000;0.6325;1.3299;
1097.4000;0.6325;1.3227;
1097.7000;0.6317;1.3203;
1098.0000;0.6309;1.3203;
1098.3000;0.6317;1.3131;
1098.6000;0.6365;1.3203;
1098.9000;0.6317;1.3108;
1099.2000;0.6309;1.3036;
1099.5000;0.6317;1.3084;
1099.8000;0.6398;1.3275;
1100.1000;0.6260;1.2964;
1100.4000;0.6309;1.3155;
1100.7000;0.6333;1.3179;
1101.0000;0.6333;1.3203;
1101.3000;0.6317;1.3179;
1101.6000;0.6333;1.3155;
1101.9000;0.6333;1.3179;
1102.2000;0.6341;1.3179;
1102.5000;0.6317;1.3155;
1102.8000;0.6341;1.3179;
1103.1000;0.6300;1.3084;
1103.4000;0.6349;1.3155;
1103.7000;0.6325;1.3036;
1104.0000;0.6309;1.3036;
1104.3000;0.6243;1.2916;
1104.6000;0.6325;1.3108;
1104.9000;0.6292;1.3084;
1105.2000;0.6325;1.3108;
1105.5000;0.6317;1.3084;
1105.8000;0.6333;1.3084;
1106.1000;0.6333;1.3108;
1106.4000;0.6414;1.3323;
1106.7000;0.6341;1.3155;
1107.0000;0.6333;1.3155;
1107.3000;0.6349;1.3275;
1107.6000;0.6325;1.3299;
1107.9000;0.6341;1.3395;
1108.2000;0.6317;1.3251;
1108.5000;0.6333;1.3203;
1108.8000;0.6439;1.3467;
1109.1000;0.6333;1.3108;
1109.4000;0.6341;1.2988;
1109.7000;0.6349;1.2964;
1110.0000;0.6374;1.3060;
1110.3000;0.6333;1.2988;
1110.6000;0.6341;1.3036;
1110.9000;0.6349;1.2988;
1111.2000;0.6341;1.3036;
1111.5000;0.6333;1.3084;
1111.8000;0.6341;1.3179;
1112.1000;0.6414;1.3347;
1112.4000;0.6317;1.3108;
1112.7000;0.6317;1.2988;
1113.0000;0.6349;1.3084;
1113.3000;0.6309;1.2964;
1113.6000;0.6341;1.2988;
1113.9000;0.6317;1.2964;
1114.2000;0.6300;1.2964;
1114.5000;0.6292;1.3036;
1114.8000;0.6284;1.2988;
1115.1000;0.6243;1.2964;
1115.4000;0.6325;1.3179;
1115.7000;0.6309;1.3179;
1116.0000;0.6309;1.3131;
1116.3000;0.6341;1.3203;
1116.6000;0.6325;1.3155;
1116.9000;0.6317;1.3036;
1117.2000;0.6300;1.3084;
1117.5000;0.6333;1.3155;
1117.8000;0.6325;1.3131;
1118.1000;0.6317;1.3060;
1118.4000;0.6317;1.2940;
1118.7000;0.6325;1.2964;
1119.0000;0.6341;1.3060;
1119.3000;0.6341;1.3036;
1119.6000;0.6317;1.2988;
1119.9000;0.6374;1.3203;
1120.2000;0.6333;1.3131;
1120.5000;0.6325;1.3131;
1120.8000;0.6341;1.3155;
1121.1000;0.6300;1.3060;
1121.4000;0.6284;1.3012;
1121.7000;0.6317;1.3084;
1122.0000;0.6309;1.3131;
1122.3000;0.6309;1.3108;
1122.6000;0.6333;1.3179;
1122.9000;0.6268;1.2988;
1123.2000;0.6333;1.3108;
1123.5000;0.6325;1.2988;
1123.8000;0.6333;1.3084;
1124.1000;0.6292;1.3036;
1124.4000;0.6374;1.3084;
1124.7000;0.6333;1.2964;
1125.0000;0.6382;1.3060;
1125.3000;0.6325;1.2916;
1125.6000;0.6341;1.2964;
1125.9000;0.6300;1.2940;
1126.2000;0.6284;1.2988;
1126.5000;0.6317;1.3060;
1126.8000;0.6292;1.3084;
1127.1000;0.6292;1.3084;
1127.4000;0.6276;1.3084;
1127.7000;0.6284;1.3084;
1128.0000;0.6317;1.3060;
1128.3000;0.6317;1.3131;
1128.6000;0.6284;1.3084;
1128.9000;0.6292;1.3131;
1129.2000;0.6317;1.3036;
1129.5000;0.6317;1.3036;
1129.8000;0.6300;1.3012;
1130.1000;0.6309;1.3131;
1130.4000;0.6292;1.3084;
1130.7000;0.6300;1.3155;
1131.0000;0.6300;1.3131;
1131.3000;0.6325;1.3203;
1131.6000;0.6349;1.3203;
1131.9000;0.6357;1.3155;
1132.2000;0.6325;1.3108;
1132.5000;0.6317;1.3084;
1132.8000;0.6317;1.3036;
1133.1000;0.6431;1.3203;
1133.4000;0.6300;1.2964;
1133.7000;0.6325;1.2940;
1134.0000;0.6317;1.2988;
1134.3000;0.6325;1.3060;
1134.6000;0.6309;1.3060;
1134.9000;0.6317;1.3227;
1135.2000;0.6300;1.3203;
1135.5000;0.6268;1.3179;
1135.8000;0.6333;1.3275;
1136.1000;0.6317;1.3203;
1136.4000;0.6374;1.3299;
1136.7000;0.6333;1.3131;
1137.0000;0.6317;1.3203;
1137.3000;0.6317;1.3251;
1137.6000;0.6317;1.3299;
1137.9000;0.6284;1.3323;
1138.2000;0.6300;1.3371;
1138.5000;0.6317;1.3275;
1138.8000;0.6292;1.3299;
1139.1000;0.6300;1.3371;
1139.4000;0.6309;1.3395;
1139.7000;0.6317;1.3299;
1140.0000;0.6292;1.3227;
1140.3000;0.6325;1.3299;
1140.6000;0.6333;1.3347;
1140.9000;0.6292;1.3227;
1141.2000;0.6300;1.3203;
1141.5000;0.6317;1.3155;
1141.8000;0.6309;1.3203;
1142.1000;0.6317;1.3155;
1142.4000;0.6300;1.3131;
1142.7000;0.6325;1.3203;
1143.0000;0.6357;1.3275;
1143.3000;0.6325;1.3155;
1143.6000;0.6406;1.3299;
1143.9000;0.6268;1.3012;
1144.2000;0.6325;1.3084;
1144.5000;0.6300;1.3060;
1144.8000;0.6333;1.3131;
1145.1000;0.6292;1.2940;
1145.4000;0.6284;1.2940;
1145.7000;0.6235;1.2844;
1146.0000;0.6333;1.3131;
1146.3000;0.6309;1.3084;
1146.6000;0.6357;1.3203;
1146.9000;0.6309;1.3131;
1147.2000;0.6284;1.3084;
1147.5000;0.6284;1.3108;
1147.8000;0.6300;1.3131;
1148.1000;0.6398;1.3347;
1148.4000;0.6309;1.3155;
1148.7000;0.6292;1.3084;
1149.0000;0.6300;1.3108;
1149.3000;0.6260;1.3084;
1149.6000;0.6300;1.3203;
1149.9000;0.6300;1.3227;
1150.2000;0.6276;1.3155;
1150.5000;0.6300;1.3203;
1150.8000;0.6317;1.3323;
1151.1000;0.6317;1.3251;
1151.4000;0.6300;1.3155;
1151.7000;0.6276;1.2964;
1152.0000;0.6284;1.3108;
1152.3000;0.6243;1.3036;
1152.6000;0.6300;1.3179;
1152.9000;0.6341;1.3323;
1153.2000;0.6292;1.3155;
1153.5000;0.6341;1.3251;
1153.8000;0.6300;1.3227;
1154.1000;0.6325;1.3203;
1154.4000;0.6309;1.3179;
1154.7000;0.6317;1.3155;
1155.0000;0.6300;1.3131;
1155.3000;0.6268;1.3179;
1155.6000;0.6333;1.3443;
1155.9000;0.6309;1.3443;
1156.2000;0.6300;1.3371;
1156.5000;0.6309;1.3347;
1156.8000;0.6300;1.3275;
1157.1000;0.6268;1.3203;
1157.4000;0.6309;1.3131;
1157.7000;0.6292;1.3036;
1158.0000;0.6309;1.3060;
1158.3000;0.6333;1.3179;
1158.6000;0.6292;1.3155;
1158.9000;0.6325;1.3251;
1159.2000;0.6309;1.3179;
1159.5000;0.6365;1.3347;
1159.8000;0.6300;1.3179;
1160.1000;0.6292;1.3179;
1160.4000;0.6235;1.3036;
1160.7000;0.6292;1.3227;
1161.0000;0.6292;1.3203;
1161.3000;0.6317;1.3203;
1161.6000;0.6300;1.3155;
1161.9000;0.6276;1.3108;
1162.2000;0.6284;1.3108;
1162.5000;0.6292;1.3131;
1162.8000;0.6292;1.3179;
1163.1000;0.6276;1.3131;
1163.4000;0.6300;1.3155;
1163.7000;0.6292;1.3084;
1164.0000;0.6292;1.3131;
1164.3000;0.6292;1.3131;
1164.6000;0.6276;1.3131;
1164.9000;0.6252;1.3108;
1165.2000;0.6284;1.3203;
1165.5000;0.6292;1.3203;
1165.8000;0.6341;1.3275;
1166.1000;0.6317;1.3251;
1166.4000;0.6317;1.3203;
1166.7000;0.6406;1.3347;
1167.0000;0.6292;1.3203;
1167.3000;0.6317;1.3203;
1167.6000;0.6374;1.3347;
1167.9000;0.6309;1.3275;
1168.2000;0.6292;1.3251;
1168.5000;0.6325;1.3323;
1168.8000;0.6284;1.3251;
1169.1000;0.6300;1.3227;
1169.4000;0.6284;1.3179;
1169.7000;0.6292;1.3299;
1170.0000;0.6325;1.3395;
1170.3000;0.6309;1.3347;
1170.6000;0.6325;1.3443;
1170.9000;0.6398;1.3635;
1171.2000;0.6300;1.3371;
1171.5000;0.6300;1.3323;
1171.8000;0.6292;1.3275;
1172.1000;0.6300;1.3275;
1172.4000;0.6260;1.3131;
1172.7000;0.6325;1.3227;
1173.0000;0.6276;1.3108;
1173.3000;0.6276;1.3084;
1173.6000;0.6284;1.3155;
1173.9000;0.6317;1.3275;
1174.2000;0.6284;1.3155;
1174.5000;0.6211;1.2964;
1174.8000;0.6284;1.3155;
1175.1000;0.6309;1.3251;
1175.4000;0.6268;1.3203;
1175.7000;0.6276;1.3275;
1176.0000;0.6300;1.3323;
1176.3000;0.6260;1.3251;
1176.6000;0.6317;1.3371;
1176.9000;0.6260;1.3299;
1177.2000;0.6268;1.3323;
1177.5000;0.6325;1.3467;
1177.8000;0.6300;1.3443;
1178.1000;0.6284;1.3275;
1178.4000;0.6300;1.3251;
1178.7000;0.6292;1.3203;
1179.0000;0.6300;1.3251;
1179.3000;0.6276;1.3155;
1179.6000;0.6268;1.3179;
1179.9000;0.6300;1.3299;
1180.2000;0.6292;1.3275;
1180.5000;0.6284;1.3131;
1180.8000;0.6292;1.3108;
1181.1000;0.6276;1.3131;
1181.4000;0.6300;1.3227;
1181.7000;0.6292;1.3227;
1182.0000;0.6300;1.3251;
1182.3000;0.6292;1.3323;
1182.6000;0.6268;1.3179;
1182.9000;0.6276;1.3203;
1183.2000;0.6260;1.3084;
1183.5000;0.6292;1.3012;
1183.8000;0.6325;1.3131;
1184.1000;0.6309;1.3084;
1184.4000;0.6292;1.3060;
1184.7000;0.6227;1.3084;
1185.0000;0.6292;1.3299;
1185.3000;0.6252;1.3227;
1185.6000;0.6284;1.3299;
1185.9000;0.6276;1.3419;
1186.2000;0.6284;1.3467;
1186.5000;0.6300;1.3419;
1186.8000;0.6260;1.3419;
1187.1000;0.6292;1.3443;
1187.4000;0.6292;1.3419;
1187.7000;0.6300;1.3587;
1188.0000;0.6284;1.3563;
1188.3000;0.6292;1.3467;
1188.6000;0.6292;1.3443;
1188.9000;0.6309;1.3395;
1189.2000;0.6300;1.3419;
1189.5000;0.6243;1.3275;
1189.8000;0.6292;1.3347;
1190.1000;0.6292;1.3395;
1190.4000;0.6292;1.3491;
1190.7000;0.6292;1.3395;
1191.0000;0.6300;1.3371;
1191.3000;0.6300;1.3419;
1191.6000;0.6309;1.3371;
1191.9000;0.6292;1.3323;
1192.2000;0.6252;1.3275;
1192.5000;0.6309;1.3419;
1192.8000;0.6300;1.3419;
1193.1000;0.6317;1.3395;
1193.4000;0.6268;1.3347;
1193.7000;0.6276;1.3395;
1194.0000;0.6268;1.3419;
1194.3000;0.6300;1.3419;
1194.6000;0.6300;1.3323;
1194.9000;0.6300;1.3395;
1195.2000;0.6284;1.3419;
1195.5000;0.6292;1.3395;
1195.8000;0.6227;1.3131;
1196.1000;0.6276;1.3251;
1196.4000;0.6252;1.3155;
1196.7000;0.6333;1.3323;
1197.0000;0.6284;1.3203;
1197.3000;0.6300;1.3108;
1197.6000;0.6276;1.3203;
1197.9000;0.6292;1.3131;
1198.2000;0.6292;1.3108;
1198.5000;0.6276;1.3036;
1198.8000;0.6292;1.3108;
1199.1000;0.6300;1.3179;
1199.4000;0.6300;1.3179;
1199.7000;0.6235;1.3036;
1200.0000;0.6276;1.3084;
1200.3000;0.6284;1.3108;
1200.6000;0.6284;1.3108;
1200.9000;0.6284;1.3179;
1201.2000;0.6252;1.3131;
1201.5000;0.6284;1.3227;
1201.8000;0.6300;1.3251;
1202.1000;0.6292;1.3275;
1202.4000;0.6325;1.3275;
1202.7000;0.6276;1.3179;
1203.0000;0.6300;1.3299;
1203.3000;0.6300;1.3251;
1203.6000;0.6300;1.3227;
1203.9000;0.6292;1.3203;
1204.2000;0.6292;1.3155;
1204.5000;0.6284;1.3131;
1204.8000;0.6252;1.3012;
1205.1000;0.6309;1.3155;
1205.4000;0.6276;1.3179;
1205.7000;0.6317;1.3227;
1206.0000;0.6292;1.3108;
1206.3000;0.6252;1.2916;
1206.6000;0.6276;1.2916;
1206.9000;0.6300;1.2916;
1207.2000;0.6276;1.2820;
1207.5000;0.6292;1.2964;
1207.8000;0.6284;1.3012;
1208.1000;0.6284;1.3060;
1208.4000;0.6284;1.3131;
1208.7000;0.6268;1.3084;
1209.0000;0.6268;1.3012;
1209.3000;0.6284;1.3084;
1209.6000;0.6292;1.3084;
1209.9000;0.6284;1.3036;
1210.2000;0.6284;1.3012;
1210.5000;0.6292;1.3108;
1210.8000;0.6243;1.3060;
1211.1000;0.6260;1.3108;
1211.4000;0.6284;1.3155;
1211.7000;0.6325;1.3299;
1212.0000;0.6276;1.3131;
1212.3000;0.6284;1.3131;
1212.6000;0.6268;1.3036;
1212.9000;0.6284;1.3012;
1213.2000;0.6309;1.3084;
1213.5000;0.6284;1.3084;
1213.8000;0.6268;1.3155;
1214.1000;0.6284;1.3299;
1214.4000;0.6284;1.3323;
1214.7000;0.6284;1.3347;
1215.0000;0.6284;1.3227;
1215.3000;0.6309;1.3275;
1215.6000;0.6292;1.3227;
1215.9000;0.6276;1.3227;
1216.2000;0.6268;1.3155;
1216.5000;0.6268;1.3060;
1216.8000;0.6284;1.3084;
1217.1000;0.6292;1.3060;
1217.4000;0.6260;1.3012;
1217.7000;0.6284;1.2988;
1218.0000;0.6284;1.3108;
1218.3000;0.6284;1.3179;
1218.6000;0.6292;1.3131;
1218.9000;0.6268;1.3084;
1219.2000;0.6325;1.3275;
1219.5000;0.6243;1.3108;
1219.8000;0.6276;1.3275;
1220.1000;0.6300;1.3227;
1220.4000;0.6276;1.3179;
1220.7000;0.6276;1.3227;
1221.0000;0.6284;1.3275;
1221.3000;0.6268;1.3275;
1221.6000;0.6276;1.3227;
1221.9000;0.6284;1.3227;
1222.2000;0.6309;1.3299;
1222.5000;0.6292;1.3323;
1222.8000;0.6276;1.3203;
1223.1000;0.6268;1.3227;
1223.4000;0.6284;1.3203;
1223.7000;0.6292;1.3203;
1224.0000;0.6292;1.3155;
1224.3000;0.6276;1.3155;
1224.6000;0.6300;1.3227;
1224.9000;0.6300;1.3227;
1225.2000;0.6260;1.3155;
1225.5000;0.6284;1.3275;
1225.8000;0.6292;1.3299;
1226.1000;0.6284;1.3203;
1226.4000;0.6268;1.3036;
1226.7000;0.6300;1.3155;
1227.0000;0.6276;1.3227;
1227.3000;0.6325;1.3299;
1227.6000;0.6252;1.3108;
1227.9000;0.6276;1.3084;
1228.2000;0.6317;1.3179;
1228.5000;0.6292;1.3275;
1228.8000;0.6276;1.3227;
1229.1000;0.6276;1.3299;
1229.4000;0.6292;1.3203;
1229.7000;0.6284;1.3251;
1230.0000;0.6268;1.3251;
1230.3000;0.6260;1.3251;
1230.6000;0.6292;1.3323;
1230.9000;0.6276;1.3251;
1231.2000;0.6284;1.3155;
1231.5000;0.6252;1.2988;
1231.8000;0.6276;1.3060;
1232.1000;0.6268;1.3060;
1232.4000;0.6268;1.3131;
1232.7000;0.6284;1.3131;
1233.0000;0.6309;1.3203;
1233.3000;0.6252;1.3155;
1233.6000;0.6235;1.3084;
1233.9000;0.6300;1.3227;
1234.2000;0.6268;1.3227;
1234.5000;0.6300;1.3323;
1234.8000;0.6268;1.3131;
1235.1000;0.6276;1.3203;
1235.4000;0.6260;1.3108;
1235.7000;0.6276;1.3227;
1236.0000;0.6252;1.3131;
1236.3000;0.6284;1.3131;
1236.6000;0.6284;1.3108;
1236.9000;0.6203;1.2916;
1237.2000;0.6284;1.3084;
1237.5000;0.6276;1.3108;
1237.8000;0.6284;1.3203;
1238.1000;0.6268;1.3131;
1238.4000;0.6252;1.3060;
1238.7000;0.6292;1.3251;
1239.0000;0.6292;1.3179;
1239.3000;0.6284;1.3203;
1239.6000;0.6276;1.3108;
1239.9000;0.6252;1.3012;
1240.2000;0.6260;1.3084;
1240.5000;0.6292;1.3203;
1240.8000;0.6252;1.3131;
1241.1000;0.6252;1.3275;
1241.4000;0.6268;1.3251;
1241.7000;0.6276;1.3108;
1242.0000;0.6268;1.3012;
1242.3000;0.6235;1.2940;
1242.6000;0.6260;1.3060;
1242.9000;0.6276;1.3060;
1243.2000;0.6268;1.3036;
1243.5000;0.6317;1.3203;
1243.8000;0.6260;1.3179;
1244.1000;0.6268;1.3155;
1244.4000;0.6260;1.3131;
1244.7000;0.6252;1.3060;
1245.0000;0.6284;1.3084;
1245.3000;0.6260;1.3060;
1245.6000;0.6284;1.3155;
1245.9000;0.6268;1.3179;
1246.2000;0.6284;1.3084;
1246.5000;0.6227;1.2964;
1246.8000;0.6276;1.2988;
1247.1000;0.6268;1.2940;
1247.4000;0.6260;1.3012;
1247.7000;0.6268;1.3084;
1248.0000;0.6276;1.3060;
1248.3000;0.6284;1.3108;
1248.6000;0.6349;1.3299;
1248.9000;0.6292;1.3108;
1249.2000;0.6284;1.3108;
1249.5000;0.6268;1.3131;
1249.8000;0.6317;1.3227;
1250.1000;0.6309;1.3203;
1250.4000;0.6325;1.3251;
1250.7000;0.6341;1.3108;
1251.0000;0.6260;1.2988;
1251.3000;0.6284;1.2964;
1251.6000;0.6365;1.3275;
1251.9000;0.6268;1.3012;
1252.2000;0.6292;1.3036;
1252.5000;0.6227;1.2988;
1252.8000;0.6284;1.3036;
1253.1000;0.6268;1.3060;
1253.4000;0.6268;1.3131;
1253.7000;0.6252;1.3179;
1254.0000;0.6268;1.3227;
1254.3000;0.6211;1.3060;
1254.6000;0.6300;1.3323;
1254.9000;0.6268;1.3251;
1255.2000;0.6276;1.3395;
1255.5000;0.6260;1.3323;
1255.8000;0.6252;1.3203;
1256.1000;0.6252;1.3179;
1256.4000;0.6268;1.3203;
1256.7000;0.6268;1.3251;
1257.0000;0.6252;1.3179;
1257.3000;0.6268;1.3251;
1257.6000;0.6284;1.3371;
1257.9000;0.6276;1.3419;
1258.2000;0.6260;1.3251;
1258.5000;0.6260;1.3251;
1258.8000;0.6252;1.3179;
1259.1000;0.6268;1.3155;
1259.4000;0.6284;1.3036;
1259.7000;0.6252;1.2988;
1260.0000;0.6300;1.3155;
1260.3000;0.6284;1.3131;
1260.6000;0.6268;1.3060;
1260.9000;0.6268;1.3060;
1261.2000;0.6268;1.3060;
1261.5000;0.6276;1.3060;
1261.8000;0.6260;1.2988;
1262.1000;0.6300;1.3131;
1262.4000;0.6276;1.3108;
1262.7000;0.6276;1.3155;
1263.0000;0.6292;1.3203;
1263.3000;0.6268;1.3131;
1263.6000;0.6252;1.3060;
1263.9000;0.6268;1.3108;
1264.2000;0.6268;1.3275;
1264.5000;0.6268;1.3323;
1264.8000;0.6235;1.3275;
1265.1000;0.6260;1.3299;
1265.4000;0.6317;1.3299;
1265.7000;0.6252;1.3108;
1266.0000;0.6260;1.3012;
1266.3000;0.6186;1.2796;
1266.6000;0.6260;1.2988;
1266.9000;0.6260;1.2964;
1267.2000;0.6235;1.2892;
1267.5000;0.6235;1.2892;
1267.8000;0.6243;1.2916;
1268.1000;0.6260;1.2988;
1268.4000;0.6260;1.2964;
1268.7000;0.6260;1.2940;
1269.0000;0.6276;1.3012;
1269.3000;0.6260;1.3108;
1269.6000;0.6260;1.3179;
1269.9000;0.6276;1.3179;
1270.2000;0.6276;1.3084;
1270.5000;0.6268;1.3084;
1270.8000;0.6268;1.3108;
1271.1000;0.6252;1.3060;
1271.4000;0.6268;1.3084;
1271.7000;0.6268;1.3108;
1272.0000;0.6252;1.3108;
1272.3000;0.6260;1.3179;
1272.6000;0.6252;1.3203;
1272.9000;0.6276;1.3203;
1273.2000;0.6284;1.3179;
1273.5000;0.6276;1.3227;
1273.8000;0.6260;1.3251;
1274.1000;0.6260;1.3251;
1274.4000;0.6276;1.3251;
1274.7000;0.6325;1.3275;
1275.0000;0.6260;1.3131;
1275.3000;0.6268;1.3108;
1275.6000;0.6276;1.3179;
1275.9000;0.6260;1.3108;
1276.2000;0.6252;1.3131;
1276.5000;0.6243;1.3012;
1276.8000;0.6268;1.3155;
1277.1000;0.6276;1.3155;
1277.4000;0.6227;1.3227;
1277.7000;0.6260;1.3275;
1278.0000;0.6260;1.3251;
1278.3000;0.6252;1.3227;
1278.6000;0.6243;1.3203;
1278.9000;0.6260;1.3251;
1279.2000;0.6260;1.3251;
1279.5000;0.6260;1.3227;
1279.8000;0.6260;1.3203;
1280.1000;0.6260;1.3084;
1280.4000;0.6252;1.3036;
1280.7000;0.6276;1.3060;
1281.0000;0.6260;1.3084;
1281.3000;0.6268;1.3012;
1281.6000;0.6260;1.3012;
1281.9000;0.6252;1.3012;
1282.2000;0.6268;1.3155;
1282.5000;0.6243;1.3251;
1282.8000;0.6260;1.3275;
1283.1000;0.6260;1.3371;
1283.4000;0.6268;1.3467;
1283.7000;0.6284;1.3419;
1284.0000;0.6276;1.3275;
1284.3000;0.6268;1.3275;
1284.6000;0.6276;1.3227;
1284.9000;0.6276;1.3275;
1285.2000;0.6268;1.3299;
1285.5000;0.6276;1.3371;
1285.8000;0.6252;1.3323;
1286.1000;0.6260;1.3275;
1286.4000;0.6317;1.3371;
1286.7000;0.6260;1.3203;
1287.0000;0.6260;1.3323;
1287.3000;0.6260;1.3347;
1287.6000;0.6243;1.3371;
1287.9000;0.6260;1.3515;
1288.2000;0.6195;1.3299;
1288.5000;0.6227;1.3371;
1288.8000;0.6260;1.3323;
1289.1000;0.6260;1.3227;
1289.4000;0.6260;1.3299;
1289.7000;0.6276;1.3299;
1290.0000;0.6268;1.3299;
1290.3000;0.6317;1.3347;
1290.6000;0.6268;1.3275;
1290.9000;0.6284;1.3299;
1291.2000;0.6252;1.3227;
1291.5000;0.6243;1.3251;
1291.8000;0.6260;1.3227;
1292.1000;0.6260;1.3323;
1292.4000;0.6260;1.3251;
1292.7000;0.6276;1.3323;
1293.0000;0.6252;1.3395;
1293.3000;0.6268;1.3491;
1293.6000;0.6260;1.3539;
1293.9000;0.6276;1.3611;
1294.2000;0.6260;1.3491;
1294.5000;0.6276;1.3467;
1294.8000;0.6260;1.3395;
1295.1000;0.6276;1.3395;
1295.4000;0.6276;1.3275;
1295.7000;0.6268;1.3323;
1296.0000;0.6276;1.3395;
1296.3000;0.6276;1.3323;
1296.6000;0.6268;1.3299;
1296.9000;0.6333;1.3443;
1297.2000;0.6260;1.3371;
1297.5000;0.6276;1.3371;
1297.8000;0.6260;1.3275;
1298.1000;0.6252;1.3371;
1298.4000;0.6260;1.3419;
1298.7000;0.6243;1.3419;
1299.0000;0.6243;1.3515;
1299.3000;0.6252;1.3491;
1299.6000;0.6252;1.3443;
1299.9000;0.6195;1.3299;
1300.2000;0.6325;1.3515;
1300.5000;0.6268;1.3371;
1300.8000;0.6243;1.3275;
1301.1000;0.6268;1.3275;
1301.4000;0.6252;1.3299;
1301.7000;0.6252;1.3467;
1302.0000;0.6260;1.3443;
1302.3000;0.6268;1.3419;
1302.6000;0.6260;1.3491;
1302.9000;0.6268;1.3587;
1303.2000;0.6252;1.3563;
1303.5000;0.6268;1.3563;
1303.8000;0.6235;1.3467;
1304.1000;0.6260;1.3443;
1304.4000;0.6268;1.3467;
1304.7000;0.6235;1.3491;
1305.0000;0.6260;1.3491;
1305.3000;0.6276;1.3491;
1305.6000;0.6252;1.3467;
1305.9000;0.6252;1.3515;
1306.2000;0.6268;1.3515;
1306.5000;0.6268;1.3491;
1306.8000;0.6260;1.3371;
1307.1000;0.6260;1.3419;
1307.4000;0.6260;1.3371;
1307.7000;0.6268;1.3323;
1308.0000;0.6276;1.3371;
1308.3000;0.6235;1.3275;
1308.6000;0.6260;1.3299;
1308.9000;0.6276;1.3203;
1309.2000;0.6284;1.3179;
1309.5000;0.6284;1.3155;
1309.8000;0.6268;1.3036;
1310.1000;0.6260;1.3036;
1310.4000;0.6243;1.3036;
1310.7000;0.6252;1.3203;
1311.0000;0.6284;1.3323;
1311.3000;0.6243;1.3203;
1311.6000;0.6276;1.3227;
1311.9000;0.6252;1.3131;
1312.2000;0.6276;1.3179;
1312.5000;0.6300;1.3251;
1312.8000;0.6268;1.3227;
1313.1000;0.6243;1.3155;
1313.4000;0.6260;1.3108;
1313.7000;0.6260;1.3084;
1314.0000;0.6268;1.3060;
1314.3000;0.6268;1.3131;
1314.6000;0.6243;1.3036;
1314.9000;0.6260;1.3036;
1315.2000;0.6276;1.3060;
1315.5000;0.6186;1.2892;
1315.8000;0.6260;1.2964;
1316.1000;0.6252;1.2916;
1316.4000;0.6268;1.2988;
1316.7000;0.6260;1.2940;
1317.0000;0.6260;1.2940;
1317.3000;0.6268;1.3036;
1317.6000;0.6268;1.3108;
1317.9000;0.6268;1.3203;
1318.2000;0.6252;1.3203;
1318.5000;0.6260;1.3227;
1318.8000;0.6276;1.3323;
1319.1000;0.6260;1.3275;
1319.4000;0.6260;1.3227;
1319.7000;0.6252;1.3251;
1320.0000;0.6260;1.3323;
1320.3000;0.6260;1.3251;
1320.6000;0.6276;1.3347;
1320.9000;0.6252;1.3275;
1321.2000;0.6268;1.3323;
1321.5000;0.6260;1.3347;
1321.8000;0.6292;1.3323;
1322.1000;0.6252;1.3155;
1322.4000;0.6252;1.3203;
1322.7000;0.6243;1.3155;
1323.0000;0.6268;1.3227;
1323.3000;0.6243;1.3179;
1323.6000;0.6235;1.3131;
1323.9000;0.6252;1.3203;
1324.2000;0.6243;1.3227;
1324.5000;0.6268;1.3347;
1324.8000;0.6235;1.3251;
1325.1000;0.6260;1.3251;
1325.4000;0.6260;1.3251;
1325.7000;0.6276;1.3275;
1326.0000;0.6203;1.3012;
1326.3000;0.6276;1.3203;
1326.6000;0.6276;1.3155;
1326.9000;0.6276;1.3155;
1327.2000;0.6252;1.3108;
1327.5000;0.6243;1.3155;
1327.8000;0.6235;1.3155;
1328.1000;0.6276;1.3251;
1328.4000;0.6252;1.3179;
1328.7000;0.6235;1.3179;
1329.0000;0.6260;1.3203;
1329.3000;0.6260;1.3251;
1329.6000;0.6276;1.3227;
1329.9000;0.6243;1.3036;
1330.2000;0.6260;1.3060;
1330.5000;0.6268;1.3108;
1330.8000;0.6357;1.3371;
1331.1000;0.6268;1.3251;
1331.4000;0.6268;1.3347;
1331.7000;0.6317;1.3491;
1332.0000;0.6121;1.3060;
1332.3000;0.6268;1.3443;
1332.6000;0.6252;1.3395;
1332.9000;0.6252;1.3371;
1333.2000;0.6276;1.3443;
1333.5000;0.6243;1.3299;
1333.8000;0.6227;1.3251;
1334.1000;0.6129;1.2964;
1334.4000;0.6276;1.3251;
1334.7000;0.6260;1.3155;
1335.0000;0.6268;1.3203;
1335.3000;0.6252;1.3203;
1335.6000;0.6260;1.3155;
1335.9000;0.6243;1.3155;
1336.2000;0.6268;1.3275;
1336.5000;0.6260;1.3347;
1336.8000;0.6268;1.3323;
1337.1000;0.6260;1.3299;
1337.4000;0.6276;1.3395;
1337.7000;0.6243;1.3395;
1338.0000;0.6252;1.3395;
1338.3000;0.6252;1.3371;
1338.6000;0.6260;1.3347;
1338.9000;0.6227;1.3275;
1339.2000;0.6260;1.3299;
1339.5000;0.6203;1.3299;
1339.8000;0.6268;1.3395;
1340.1000;0.6268;1.3371;
1340.4000;0.6243;1.3395;
1340.7000;0.6243;1.3347;
1341.0000;0.6276;1.3395;
1341.3000;0.6252;1.3299;
1341.6000;0.6235;1.3179;
1341.9000;0.6252;1.3131;
1342.2000;0.6268;1.3251;
1342.5000;0.6243;1.3251;
1342.8000;0.6252;1.3179;
1343.1000;0.6276;1.3203;
1343.4000;0.6260;1.3179;
1343.7000;0.6268;1.3179;
1344.0000;0.6211;1.3036;
1344.3000;0.6268;1.3108;
1344.6000;0.6243;1.3155;
1344.9000;0.6268;1.3299;
1345.2000;0.6252;1.3323;
1345.5000;0.6252;1.3299;
1345.8000;0.6243;1.3251;
1346.1000;0.6252;1.3155;
1346.4000;0.6309;1.3323;
1346.7000;0.6211;1.3060;
1347.0000;0.6268;1.3251;
1347.3000;0.6203;1.3084;
1347.6000;0.6219;1.3084;
1347.9000;0.6227;1.3084;
1348.2000;0.6219;1.3179;
1348.5000;0.6260;1.3131;
1348.8000;0.6260;1.3179;
1349.1000;0.6252;1.3108;
1349.4000;0.6252;1.3108;
1349.7000;0.6252;1.3108;
1350.0000;0.6268;1.3131;
1350.3000;0.6243;1.3108;
1350.6000;0.6243;1.3155;
1350.9000;0.6219;1.3203;
1351.2000;0.6243;1.3275;
1351.5000;0.6235;1.3251;
1351.8000;0.6219;1.3179;
1352.1000;0.6268;1.3299;
1352.4000;0.6268;1.3443;
1352.7000;0.6243;1.3395;
1353.0000;0.6235;1.3299;
1353.3000;0.6235;1.3299;
1353.6000;0.6243;1.3275;
1353.9000;0.6186;1.3227;
1354.2000;0.6227;1.3347;
1354.5000;0.6252;1.3419;
1354.8000;0.6276;1.3419;
1355.1000;0.6292;1.3491;
1355.4000;0.6260;1.3395;
1355.7000;0.6260;1.3299;
1356.0000;0.6268;1.3347;
1356.3000;0.6276;1.3275;
1356.6000;0.6268;1.3179;
1356.9000;0.6252;1.3108;
1357.2000;0.6252;1.3155;
1357.5000;0.6235;1.3299;
1357.8000;0.6252;1.3443;
1358.1000;0.6235;1.3371;
1358.4000;0.6235;1.3395;
1358.7000;0.6252;1.3443;
1359.0000;0.6235;1.3299;
1359.3000;0.6235;1.3227;
1359.6000;0.6309;1.3323;
1359.9000;0.6235;1.3131;
1360.2000;0.6252;1.3179;
1360.5000;0.6260;1.3203;
1360.8000;0.6243;1.3203;
1361.1000;0.6243;1.3203;
1361.4000;0.6260;1.3179;
1361.7000;0.6227;1.2988;
1362.0000;0.6235;1.2988;
1362.3000;0.6252;1.3084;
1362.6000;0.6260;1.3179;
1362.9000;0.6260;1.3155;
1363.2000;0.6260;1.3131;
1363.5000;0.6219;1.3131;
1363.8000;0.6235;1.3179;
1364.1000;0.6235;1.3179;
1364.4000;0.6243;1.3203;
1364.7000;0.6252;1.3251;
1365.0000;0.6235;1.3131;
1365.3000;0.6252;1.3084;
1365.6000;0.6235;1.3036;
1365.9000;0.6260;1.3036;
1366.2000;0.6252;1.3036;
1366.5000;0.6252;1.2988;
1366.8000;0.6243;1.2916;
1367.1000;0.6243;1.2964;
1367.4000;0.6252;1.2940;
1367.7000;0.6243;1.2964;
1368.0000;0.6252;1.2916;
1368.3000;0.6227;1.2916;
1368.6000;0.6292;1.3060;
1368.9000;0.6260;1.3012;
1369.2000;0.6243;1.2964;
1369.5000;0.6235;1.3060;
1369.8000;0.6162;1.2916;
1370.1000;0.6203;1.3084;
1370.4000;0.6195;1.3084;
1370.7000;0.6235;1.3203;
1371.0000;0.6252;1.3227;
1371.3000;0.6243;1.3203;
1371.6000;0.6309;1.3395;
1371.9000;0.6235;1.3227;
1372.2000;0.6292;1.3371;
1372.5000;0.6235;1.3251;
1372.8000;0.6252;1.3299;
1373.1000;0.6276;1.3347;
1373.4000;0.6211;1.3299;
1373.7000;0.6243;1.3491;
1374.0000;0.6227;1.3491;
1374.3000;0.6243;1.3443;
1374.6000;0.6243;1.3347;
1374.9000;0.6235;1.3275;
1375.2000;0.6252;1.3275;
1375.5000;0.6243;1.3299;
1375.8000;0.6243;1.3275;
1376.1000;0.6260;1.3203;
1376.4000;0.6260;1.3227;
1376.7000;0.6219;1.3227;
1377.0000;0.6243;1.3155;
1377.3000;0.6243;1.3227;
1377.6000;0.6243;1.3227;
1377.9000;0.6243;1.3251;
1378.2000;0.6235;1.3227;
1378.5000;0.6268;1.3275;
1378.8000;0.6243;1.3251;
1379.1000;0.6276;1.3347;
1379.4000;0.6235;1.3203;
1379.7000;0.6252;1.3179;
1380.0000;0.6260;1.3155;
1380.3000;0.6219;1.3084;
1380.6000;0.6243;1.3179;
1380.9000;0.6260;1.3131;
1381.2000;0.6243;1.3108;
1381.5000;0.6227;1.3131;
1381.8000;0.6252;1.3131;
1382.1000;0.6235;1.3084;
1382.4000;0.6252;1.3084;
1382.7000;0.6252;1.3108;
1383.0000;0.6260;1.3012;
1383.3000;0.6252;1.2964;
1383.6000;0.6243;1.2964;
1383.9000;0.6260;1.2988;
1384.2000;0.6260;1.3084;
1384.5000;0.6235;1.3084;
1384.8000;0.6243;1.3084;
1385.1000;0.6243;1.3060;
1385.4000;0.6235;1.3131;
1385.7000;0.6235;1.3155;
1386.0000;0.6243;1.3179;
1386.3000;0.6252;1.3203;
1386.6000;0.6243;1.3155;
1386.9000;0.6211;1.3012;
1387.2000;0.6235;1.3108;
1387.5000;0.6243;1.3155;
1387.8000;0.6227;1.3060;
1388.1000;0.6243;1.3036;
1388.4000;0.6235;1.3012;
1388.7000;0.6227;1.2988;
1389.0000;0.6252;1.3084;
1389.3000;0.6154;1.2916;
1389.6000;0.6252;1.3108;
1389.9000;0.6227;1.3084;
1390.2000;0.6252;1.3108;
1390.5000;0.6235;1.3155;
1390.8000;0.6252;1.3131;
1391.1000;0.6260;1.3155;
1391.4000;0.6243;1.3084;
1391.7000;0.6252;1.3084;
1392.0000;0.6252;1.3060;
1392.3000;0.6243;1.3012;
1392.6000;0.6235;1.2940;
1392.9000;0.6243;1.3036;
1393.2000;0.6243;1.3108;
1393.5000;0.6211;1.3131;
1393.8000;0.6235;1.3155;
1394.1000;0.6252;1.3203;
1394.4000;0.6252;1.3179;
1394.7000;0.6260;1.3203;
1395.0000;0.6252;1.3084;
1395.3000;0.6235;1.3108;
1395.6000;0.6227;1.3131;
1395.9000;0.6235;1.3108;
1396.2000;0.6235;1.3036;
1396.5000;0.6276;1.3131;
1396.8000;0.6252;1.3084;
1397.1000;0.6252;1.3131;
1397.4000;0.6292;1.3179;
1397.7000;0.6268;1.3060;
1398.0000;0.6252;1.3108;
1398.3000;0.6235;1.3155;
1398.6000;0.6243;1.3155;
1398.9000;0.6227;1.3203;
1399.2000;0.6219;1.3299;
1399.5000;0.6252;1.3371;
1399.8000;0.6219;1.3251;
