time/ms;Fluo/V;P700 deltaI/I x10³;
-199.8000;0.9052;1.3347;
-199.5000;0.9052;1.3371;
-199.2000;0.9027;1.3323;
-198.9000;0.9052;1.3323;
-198.6000;0.9068;1.3275;
-198.3000;0.9060;1.3275;
-198.0000;0.9076;1.3419;
-197.7000;0.9068;1.3371;
-197.4000;0.9101;1.3467;
-197.1000;0.9052;1.3299;
-196.8000;0.9044;1.3323;
-196.5000;0.9052;1.3251;
-196.2000;0.9052;1.3179;
-195.9000;0.9052;1.3251;
-195.6000;0.9092;1.3299;
-195.3000;0.9068;1.3275;
-195.0000;0.9060;1.3323;
-194.7000;0.9060;1.3347;
-194.4000;0.9052;1.3251;
-194.1000;0.9027;1.3155;
-193.8000;0.9044;1.3179;
-193.5000;0.9052;1.3131;
-193.2000;0.9019;1.3012;
-192.9000;0.9003;1.3036;
-192.6000;0.8995;1.3131;
-192.3000;0.9035;1.3179;
-192.0000;0.9101;1.3251;
-191.7000;0.9068;1.3155;
-191.4000;0.9068;1.3108;
-191.1000;0.9084;1.3084;
-190.8000;0.9068;1.3084;
-190.5000;0.9052;1.3108;
-190.2000;0.9068;1.3108;
-189.9000;0.9092;1.3084;
-189.6000;0.9158;1.3203;
-189.3000;0.9125;1.3227;
-189.0000;0.9044;1.3060;
-188.7000;0.9027;1.3012;
-188.4000;0.9068;1.3131;
-188.1000;0.9076;1.3108;
-187.8000;0.9068;1.3084;
-187.5000;0.9068;1.3036;
-187.2000;0.9052;1.3012;
-186.9000;0.9076;1.3036;
-186.6000;0.9076;1.3012;
-186.3000;0.9044;1.3012;
-186.0000;0.9044;1.2940;
-185.7000;0.9035;1.2964;
-185.4000;0.9060;1.3012;
-185.1000;0.9166;1.3227;
-184.8000;0.9035;1.2916;
-184.5000;0.9027;1.2916;
-184.2000;0.9019;1.3012;
-183.9000;0.9044;1.3036;
-183.6000;0.9060;1.3084;
-183.3000;0.9092;1.3251;
-183.0000;0.9044;1.3060;
-182.7000;0.9052;1.3155;
-182.4000;0.9052;1.3227;
-182.1000;0.9060;1.3227;
-181.8000;0.9076;1.3227;
-181.5000;0.9109;1.3299;
-181.2000;0.9052;1.3203;
-180.9000;0.9052;1.3203;
-180.6000;0.9044;1.3179;
-180.3000;0.9060;1.3155;
-180.0000;0.9060;1.3155;
-179.7000;0.9084;1.3227;
-179.4000;0.9052;1.3251;
-179.1000;0.9068;1.3179;
-178.8000;0.9068;1.3084;
-178.5000;0.9044;1.2916;
-178.2000;0.9019;1.2868;
-177.9000;0.9068;1.2988;
-177.6000;0.9060;1.3012;
-177.3000;0.9060;1.2964;
-177.0000;0.9052;1.3036;
-176.7000;0.9035;1.3036;
-176.4000;0.9060;1.3108;
-176.1000;0.9011;1.2940;
-175.8000;0.9027;1.3108;
-175.5000;0.9084;1.3203;
-175.2000;0.9060;1.3060;
-174.9000;0.9035;1.3108;
-174.6000;0.9052;1.3155;
-174.3000;0.9035;1.3131;
-174.0000;0.9060;1.3275;
-173.7000;0.9060;1.3299;
-173.4000;0.9027;1.3179;
-173.1000;0.9027;1.3108;
-172.8000;0.9044;1.3203;
-172.5000;0.9035;1.3155;
-172.2000;0.9044;1.3131;
-171.9000;0.9035;1.3131;
-171.6000;0.9044;1.3131;
-171.3000;0.9117;1.3299;
-171.0000;0.9052;1.3203;
-170.7000;0.8970;1.3012;
-170.4000;0.9052;1.3251;
-170.1000;0.9076;1.3299;
-169.8000;0.9068;1.3371;
-169.5000;0.9109;1.3491;
-169.2000;0.9027;1.3299;
-168.9000;0.9076;1.3395;
-168.6000;0.9092;1.3491;
-168.3000;0.9035;1.3275;
-168.0000;0.9052;1.3275;
-167.7000;0.9125;1.3371;
-167.4000;0.9035;1.3179;
-167.1000;0.9060;1.3299;
-166.8000;0.9068;1.3275;
-166.5000;0.9060;1.3347;
-166.2000;0.9068;1.3347;
-165.9000;0.9052;1.3395;
-165.6000;0.9060;1.3443;
-165.3000;0.9044;1.3443;
-165.0000;0.9060;1.3443;
-164.7000;0.9060;1.3395;
-164.4000;0.9060;1.3323;
-164.1000;0.9052;1.3299;
-163.8000;0.9052;1.3347;
-163.5000;0.9060;1.3299;
-163.2000;0.9052;1.3323;
-162.9000;0.9068;1.3179;
-162.6000;0.9060;1.3251;
-162.3000;0.9035;1.3227;
-162.0000;0.9044;1.3275;
-161.7000;0.9035;1.3347;
-161.4000;0.9035;1.3347;
-161.1000;0.9044;1.3371;
-160.8000;0.9044;1.3371;
-160.5000;0.9035;1.3371;
-160.2000;0.9060;1.3563;
-159.9000;0.9003;1.3467;
-159.6000;0.9052;1.3635;
-159.3000;0.9052;1.3635;
-159.0000;0.9044;1.3539;
-158.7000;0.9076;1.3587;
-158.4000;0.9027;1.3443;
-158.1000;0.9044;1.3467;
-157.8000;0.9044;1.3419;
-157.5000;0.9076;1.3467;
-157.2000;0.9052;1.3467;
-156.9000;0.9044;1.3395;
-156.6000;0.8978;1.3323;
-156.3000;0.9068;1.3515;
-156.0000;0.9084;1.3515;
-155.7000;0.9076;1.3491;
-155.4000;0.9035;1.3419;
-155.1000;0.9101;1.3515;
-154.8000;0.9060;1.3371;
-154.5000;0.9019;1.3323;
-154.2000;0.9044;1.3395;
-153.9000;0.9044;1.3539;
-153.6000;0.9035;1.3515;
-153.3000;0.9027;1.3491;
-153.0000;0.9060;1.3587;
-152.7000;0.9166;1.3826;
-152.4000;0.9052;1.3515;
-152.1000;0.9060;1.3491;
-151.8000;0.9060;1.3515;
-151.5000;0.8987;1.3251;
-151.2000;0.9052;1.3371;
-150.9000;0.9060;1.3347;
-150.6000;0.9044;1.3227;
-150.3000;0.9060;1.3299;
-150.0000;0.9068;1.3371;
-149.7000;0.9044;1.3323;
-149.4000;0.9076;1.3395;
-149.1000;0.9044;1.3323;
-148.8000;0.9044;1.3395;
-148.5000;0.9035;1.3467;
-148.2000;0.9044;1.3515;
-147.9000;0.9044;1.3563;
-147.6000;0.9052;1.3539;
-147.3000;0.9035;1.3395;
-147.0000;0.9052;1.3371;
-146.7000;0.9052;1.3467;
-146.4000;0.9044;1.3443;
-146.1000;0.9060;1.3419;
-145.8000;0.9060;1.3299;
-145.5000;0.9027;1.3227;
-145.2000;0.9060;1.3299;
-144.9000;0.9068;1.3371;
-144.6000;0.9076;1.3395;
-144.3000;0.9019;1.3251;
-144.0000;0.9060;1.3299;
-143.7000;0.9076;1.3419;
-143.4000;0.8987;1.3203;
-143.1000;0.9060;1.3347;
-142.8000;0.9019;1.3323;
-142.5000;0.9035;1.3275;
-142.2000;0.9052;1.3347;
-141.9000;0.9044;1.3299;
-141.6000;0.9044;1.3227;
-141.3000;0.9068;1.3275;
-141.0000;0.9068;1.3299;
-140.7000;0.9076;1.3347;
-140.4000;0.9044;1.3251;
-140.1000;0.9084;1.3395;
-139.8000;0.9044;1.3371;
-139.5000;0.9060;1.3347;
-139.2000;0.9044;1.3203;
-138.9000;0.9060;1.3299;
-138.6000;0.9060;1.3299;
-138.3000;0.9044;1.3371;
-138.0000;0.9052;1.3419;
-137.7000;0.9027;1.3275;
-137.4000;0.9027;1.3251;
-137.1000;0.9092;1.3419;
-136.8000;0.9027;1.3275;
-136.5000;0.9003;1.3227;
-136.2000;0.9125;1.3443;
-135.9000;0.9060;1.3227;
-135.6000;0.9060;1.3203;
-135.3000;0.9117;1.3371;
-135.0000;0.9060;1.3203;
-134.7000;0.9109;1.3275;
-134.4000;0.9052;1.3108;
-134.1000;0.9052;1.3108;
-133.8000;0.9052;1.3108;
-133.5000;0.9060;1.3155;
-133.2000;0.9109;1.3299;
-132.9000;0.9060;1.3203;
-132.6000;0.9011;1.3179;
-132.3000;0.9060;1.3395;
-132.0000;0.9052;1.3419;
-131.7000;0.9044;1.3347;
-131.4000;0.9052;1.3419;
-131.1000;0.9027;1.3419;
-130.8000;0.9060;1.3467;
-130.5000;0.9060;1.3515;
-130.2000;0.9044;1.3443;
-129.9000;0.9076;1.3563;
-129.6000;0.9052;1.3443;
-129.3000;0.9052;1.3419;
-129.0000;0.9060;1.3395;
-128.7000;0.9052;1.3347;
-128.4000;0.9011;1.3203;
-128.1000;0.9101;1.3371;
-127.8000;0.9052;1.3227;
-127.5000;0.9052;1.3203;
-127.2000;0.9060;1.3251;
-126.9000;0.9044;1.3299;
-126.6000;0.9052;1.3347;
-126.3000;0.9035;1.3203;
-126.0000;0.9117;1.3323;
-125.7000;0.9068;1.3131;
-125.4000;0.9109;1.3323;
-125.1000;0.9044;1.3251;
-124.8000;0.9044;1.3299;
-124.5000;0.8962;1.3060;
-124.2000;0.9044;1.3155;
-123.9000;0.9052;1.3227;
-123.6000;0.9060;1.3251;
-123.3000;0.9052;1.3251;
-123.0000;0.9060;1.3347;
-122.7000;0.9044;1.3371;
-122.4000;0.9084;1.3491;
-122.1000;0.9060;1.3467;
-121.8000;0.9084;1.3371;
-121.5000;0.9052;1.3347;
-121.2000;0.9068;1.3251;
-120.9000;0.9052;1.3251;
-120.6000;0.9052;1.3251;
-120.3000;0.9125;1.3443;
-120.0000;0.9052;1.3323;
-119.7000;0.9060;1.3371;
-119.4000;0.9076;1.3371;
-119.1000;0.9068;1.3371;
-118.8000;0.9076;1.3323;
-118.5000;0.9174;1.3491;
-118.2000;0.9060;1.3299;
-117.9000;0.9076;1.3323;
-117.6000;0.9068;1.3395;
-117.3000;0.9060;1.3347;
-117.0000;0.9076;1.3299;
-116.7000;0.9068;1.3323;
-116.4000;0.9076;1.3299;
-116.1000;0.9027;1.3203;
-115.8000;0.9052;1.3275;
-115.5000;0.9044;1.3251;
-115.2000;0.9092;1.3227;
-114.9000;0.9052;1.3179;
-114.6000;0.9027;1.3203;
-114.3000;0.9068;1.3347;
-114.0000;0.9068;1.3323;
-113.7000;0.9044;1.3084;
-113.4000;0.9060;1.3179;
-113.1000;0.9044;1.3155;
-112.8000;0.9060;1.3299;
-112.5000;0.9052;1.3179;
-112.2000;0.9092;1.3251;
-111.9000;0.9052;1.3155;
-111.6000;0.9044;1.3084;
-111.3000;0.9035;1.3179;
-111.0000;0.9052;1.3251;
-110.7000;0.9035;1.3203;
-110.4000;0.9011;1.3155;
-110.1000;0.9035;1.3131;
-109.8000;0.9035;1.3203;
-109.5000;0.9052;1.3275;
-109.2000;0.9052;1.3371;
-108.9000;0.9068;1.3419;
-108.6000;0.9076;1.3443;
-108.3000;0.9052;1.3371;
-108.0000;0.9060;1.3323;
-107.7000;0.9068;1.3347;
-107.4000;0.9076;1.3251;
-107.1000;0.9052;1.3251;
-106.8000;0.9068;1.3227;
-106.5000;0.8970;1.2868;
-106.2000;0.9068;1.3131;
-105.9000;0.9060;1.3084;
-105.6000;0.9044;1.3084;
-105.3000;0.9060;1.3108;
-105.0000;0.9068;1.3084;
-104.7000;0.9068;1.3108;
-104.4000;0.9060;1.3155;
-104.1000;0.9060;1.3203;
-103.8000;0.9052;1.3203;
-103.5000;0.9076;1.3227;
-103.2000;0.9060;1.3251;
-102.9000;0.9044;1.3203;
-102.6000;0.9084;1.3299;
-102.3000;0.9068;1.3275;
-102.0000;0.9044;1.3275;
-101.7000;0.9044;1.3203;
-101.4000;0.8987;1.3036;
-101.1000;0.9060;1.3108;
-100.8000;0.9052;1.3084;
-100.5000;0.9133;1.3323;
-100.2000;0.9052;1.3060;
-99.9000;0.9117;1.3203;
-99.6000;0.9044;1.3012;
-99.3000;0.9044;1.2964;
-99.0000;0.9068;1.3060;
-98.7000;0.9052;1.2988;
-98.4000;0.9068;1.3036;
-98.1000;0.9060;1.2988;
-97.8000;0.9060;1.3012;
-97.5000;0.9044;1.3108;
-97.2000;0.9060;1.3179;
-96.9000;0.9044;1.3084;
-96.6000;0.9060;1.3179;
-96.3000;0.9068;1.3203;
-96.0000;0.9052;1.3155;
-95.7000;0.9060;1.3155;
-95.4000;0.9068;1.3203;
-95.1000;0.9068;1.3131;
-94.8000;0.9044;1.2964;
-94.5000;0.9060;1.2892;
-94.2000;0.9003;1.2628;
-93.9000;0.9052;1.2628;
-93.6000;0.9076;1.2748;
-93.3000;0.9060;1.2796;
-93.0000;0.9084;1.2916;
-92.7000;0.9060;1.2916;
-92.4000;0.9109;1.2964;
-92.1000;0.9084;1.2916;
-91.8000;0.9044;1.2892;
-91.5000;0.9052;1.3012;
-91.2000;0.9068;1.3155;
-90.9000;0.9060;1.3179;
-90.6000;0.9044;1.3203;
-90.3000;0.9052;1.3203;
-90.0000;0.9052;1.3203;
-89.7000;0.9060;1.3275;
-89.4000;0.9060;1.3227;
-89.1000;0.9052;1.3251;
-88.8000;0.9035;1.3179;
-88.5000;0.9052;1.3155;
-88.2000;0.9052;1.3179;
-87.9000;0.9044;1.3108;
-87.6000;0.9068;1.3203;
-87.3000;0.9060;1.3275;
-87.0000;0.9052;1.3203;
-86.7000;0.9141;1.3467;
-86.4000;0.9052;1.3227;
-86.1000;0.9068;1.3227;
-85.8000;0.9044;1.3179;
-85.5000;0.9044;1.3251;
-85.2000;0.9035;1.3323;
-84.9000;0.9068;1.3467;
-84.6000;0.9060;1.3443;
-84.3000;0.9052;1.3347;
-84.0000;0.9060;1.3323;
-83.7000;0.9060;1.3323;
-83.4000;0.9084;1.3419;
-83.1000;0.9076;1.3419;
-82.8000;0.9076;1.3419;
-82.5000;0.9044;1.3323;
-82.2000;0.9084;1.3467;
-81.9000;0.9052;1.3371;
-81.6000;0.9052;1.3371;
-81.3000;0.9084;1.3323;
-81.0000;0.9052;1.3251;
-80.7000;0.9060;1.3251;
-80.4000;0.9052;1.3203;
-80.1000;0.9044;1.3155;
-79.8000;0.9035;1.3203;
-79.5000;0.9044;1.3275;
-79.2000;0.9076;1.3347;
-78.9000;0.9044;1.3179;
-78.6000;0.9125;1.3371;
-78.3000;0.9060;1.3203;
-78.0000;0.9117;1.3299;
-77.7000;0.9035;1.3203;
-77.4000;0.9084;1.3275;
-77.1000;0.9044;1.3203;
-76.8000;0.9076;1.3227;
-76.5000;0.9125;1.3323;
-76.2000;0.9052;1.3131;
-75.9000;0.9174;1.3419;
-75.6000;0.9044;1.3275;
-75.3000;0.9019;1.3347;
-75.0000;0.9027;1.3251;
-74.7000;0.9060;1.3371;
-74.4000;0.9076;1.3443;
-74.1000;0.9052;1.3419;
-73.8000;0.9060;1.3371;
-73.5000;0.9060;1.3371;
-73.2000;0.9092;1.3467;
-72.9000;0.9044;1.3347;
-72.6000;0.9060;1.3299;
-72.3000;0.9068;1.3227;
-72.0000;0.9035;1.3227;
-71.7000;0.9092;1.3347;
-71.4000;0.9044;1.3179;
-71.1000;0.9052;1.3155;
-70.8000;0.9052;1.3084;
-70.5000;0.9109;1.3275;
-70.2000;0.9052;1.3227;
-69.9000;0.9052;1.3131;
-69.6000;0.9052;1.3084;
-69.3000;0.9076;1.3203;
-69.0000;0.9052;1.3036;
-68.7000;0.9068;1.3084;
-68.4000;0.9149;1.3251;
-68.1000;0.9044;1.3012;
-67.8000;0.9027;1.2844;
-67.5000;0.9052;1.2892;
-67.2000;0.9068;1.2964;
-66.9000;0.9068;1.2988;
-66.6000;0.9052;1.2964;
-66.3000;0.9060;1.2940;
-66.0000;0.9044;1.3012;
-65.7000;0.8995;1.2964;
-65.4000;0.9044;1.3131;
-65.1000;0.9052;1.3131;
-64.8000;0.9019;1.3036;
-64.5000;0.9035;1.3131;
-64.2000;0.9035;1.3108;
-63.9000;0.9044;1.3179;
-63.6000;0.9027;1.3179;
-63.3000;0.9035;1.3227;
-63.0000;0.9044;1.3227;
-62.7000;0.9011;1.3179;
-62.4000;0.9092;1.3419;
-62.1000;0.9068;1.3419;
-61.8000;0.9084;1.3467;
-61.5000;0.9068;1.3347;
-61.2000;0.9141;1.3515;
-60.9000;0.9076;1.3347;
-60.6000;0.9044;1.3323;
-60.3000;0.9101;1.3539;
-60.0000;0.9060;1.3323;
-59.7000;0.9052;1.3251;
-59.4000;0.9035;1.3203;
-59.1000;0.9019;1.3155;
-58.8000;0.9052;1.3203;
-58.5000;0.9035;1.3155;
-58.2000;0.9068;1.3203;
-57.9000;0.9060;1.3227;
-57.6000;0.9076;1.3299;
-57.3000;0.9052;1.3251;
-57.0000;0.9060;1.3227;
-56.7000;0.9117;1.3419;
-56.4000;0.9019;1.3179;
-56.1000;0.9019;1.3179;
-55.8000;0.9052;1.3227;
-55.5000;0.9068;1.3251;
-55.2000;0.9068;1.3251;
-54.9000;0.9003;1.3203;
-54.6000;0.9044;1.3371;
-54.3000;0.9060;1.3419;
-54.0000;0.9060;1.3443;
-53.7000;0.9044;1.3371;
-53.4000;0.9060;1.3371;
-53.1000;0.9125;1.3563;
-52.8000;0.9068;1.3443;
-52.5000;0.9068;1.3395;
-52.2000;0.9052;1.3347;
-51.9000;0.9068;1.3371;
-51.6000;0.9068;1.3371;
-51.3000;0.9060;1.3275;
-51.0000;0.9092;1.3323;
-50.7000;0.9060;1.3323;
-50.4000;0.9060;1.3347;
-50.1000;0.9052;1.3251;
-49.8000;0.9052;1.3155;
-49.5000;0.9060;1.3227;
-49.2000;0.9060;1.3155;
-48.9000;0.9052;1.3227;
-48.6000;0.9076;1.3251;
-48.3000;0.9060;1.3227;
-48.0000;0.9084;1.3323;
-47.7000;0.9035;1.3251;
-47.4000;0.9052;1.3203;
-47.1000;0.9068;1.3251;
-46.8000;0.9076;1.3347;
-46.5000;0.9052;1.3371;
-46.2000;0.9044;1.3443;
-45.9000;0.9035;1.3467;
-45.6000;0.9044;1.3371;
-45.3000;0.9044;1.3251;
-45.0000;0.9044;1.3251;
-44.7000;0.9044;1.3227;
-44.4000;0.9035;1.3179;
-44.1000;0.9027;1.3155;
-43.8000;0.9060;1.3203;
-43.5000;0.8978;1.3060;
-43.2000;0.9068;1.3299;
-42.9000;0.9076;1.3251;
-42.6000;0.9076;1.3251;
-42.3000;0.9101;1.3347;
-42.0000;0.9052;1.3347;
-41.7000;0.9060;1.3347;
-41.4000;0.9076;1.3443;
-41.1000;0.9027;1.3371;
-40.8000;0.9027;1.3227;
-40.5000;0.9052;1.3275;
-40.2000;0.9084;1.3443;
-39.9000;0.9068;1.3419;
-39.6000;0.9044;1.3371;
-39.3000;0.9027;1.3395;
-39.0000;0.9027;1.3443;
-38.7000;0.9019;1.3371;
-38.4000;0.9035;1.3467;
-38.1000;0.9044;1.3443;
-37.8000;0.9044;1.3299;
-37.5000;0.9035;1.3203;
-37.2000;0.9092;1.3251;
-36.9000;0.9044;1.3179;
-36.6000;0.9068;1.3275;
-36.3000;0.9068;1.3299;
-36.0000;0.9068;1.3347;
-35.7000;0.9052;1.3323;
-35.4000;0.9068;1.3347;
-35.1000;0.9011;1.3251;
-34.8000;0.9044;1.3203;
-34.5000;0.9092;1.3347;
-34.2000;0.9060;1.3275;
-33.9000;0.9011;1.3227;
-33.6000;0.9019;1.3227;
-33.3000;0.9060;1.3299;
-33.0000;0.9035;1.3227;
-32.7000;0.9060;1.3371;
-32.4000;0.9076;1.3443;
-32.1000;0.9052;1.3419;
-31.8000;0.9060;1.3371;
-31.5000;0.9060;1.3419;
-31.2000;0.9060;1.3419;
-30.9000;0.9125;1.3707;
-30.6000;0.9027;1.3443;
-30.3000;0.9052;1.3419;
-30.0000;0.9068;1.3491;
-29.7000;0.9060;1.3515;
-29.4000;0.9035;1.3515;
-29.1000;0.9060;1.3515;
-28.8000;0.9052;1.3491;
-28.5000;0.9052;1.3467;
-28.2000;0.9068;1.3467;
-27.9000;0.9060;1.3395;
-27.6000;0.9068;1.3539;
-27.3000;0.9076;1.3515;
-27.0000;0.9044;1.3419;
-26.7000;0.9060;1.3395;
-26.4000;0.9044;1.3395;
-26.1000;0.9060;1.3371;
-25.8000;0.9044;1.3323;
-25.5000;0.9076;1.3539;
-25.2000;0.9044;1.3539;
-24.9000;0.9068;1.3611;
-24.6000;0.9084;1.3707;
-24.3000;0.9084;1.3635;
-24.0000;0.9060;1.3611;
-23.7000;0.9044;1.3563;
-23.4000;0.9076;1.3587;
-23.1000;0.9060;1.3467;
-22.8000;0.9052;1.3515;
-22.5000;0.9052;1.3491;
-22.2000;0.9060;1.3443;
-21.9000;0.9068;1.3467;
-21.6000;0.9117;1.3515;
-21.3000;0.9101;1.3539;
-21.0000;0.9068;1.3443;
-20.7000;0.9117;1.3587;
-20.4000;0.9035;1.3323;
-20.1000;0.9076;1.3443;
-19.8000;0.9052;1.3395;
-19.5000;0.8954;1.3203;
-19.2000;0.9060;1.3515;
-18.9000;0.9060;1.3443;
-18.6000;0.9052;1.3371;
-18.3000;0.9060;1.3395;
-18.0000;0.8978;1.3251;
-17.7000;0.9035;1.3443;
-17.4000;0.9068;1.3467;
-17.1000;0.9044;1.3539;
-16.8000;0.9068;1.3563;
-16.5000;0.9044;1.3563;
-16.2000;0.9060;1.3539;
-15.9000;0.9060;1.3563;
-15.6000;0.9060;1.3539;
-15.3000;0.9068;1.3563;
-15.0000;0.9044;1.3539;
-14.7000;0.9060;1.3491;
-14.4000;0.9084;1.3515;
-14.1000;0.9044;1.3467;
-13.8000;0.9035;1.3539;
-13.5000;0.9052;1.3563;
-13.2000;0.9035;1.3443;
-12.9000;0.9044;1.3515;
-12.6000;0.9035;1.3515;
-12.3000;0.9044;1.3563;
-12.0000;0.9084;1.3587;
-11.7000;0.9068;1.3539;
-11.4000;0.9060;1.3515;
-11.1000;0.9035;1.3467;
-10.8000;0.9060;1.3491;
-10.5000;0.9068;1.3539;
-10.2000;0.9060;1.3371;
-9.9000;0.9035;1.3251;
-9.6000;0.9060;1.3371;
-9.3000;0.9027;1.3299;
-9.0000;0.9044;1.3371;
-8.7000;0.9027;1.3323;
-8.4000;0.9084;1.3443;
-8.1000;0.9060;1.3251;
-7.8000;0.9019;1.3155;
-7.5000;0.9044;1.3131;
-7.2000;0.9052;1.3251;
-6.9000;0.9035;1.3251;
-6.6000;0.9052;1.3299;
-6.3000;0.9076;1.3299;
-6.0000;0.9035;1.3323;
-5.7000;0.9052;1.3443;
-5.4000;0.9019;1.3323;
-5.1000;0.9060;1.3371;
-4.8000;0.9060;1.3299;
-4.5000;0.9141;1.3443;
-4.2000;0.9060;1.3323;
-3.9000;0.9052;1.3371;
-3.6000;0.9052;1.3371;
-3.3000;0.9044;1.3275;
-3.0000;0.9060;1.3275;
-2.7000;0.9027;1.3251;
-2.4000;0.9044;1.3323;
-2.1000;0.9052;1.3395;
-1.8000;0.9060;1.3467;
-1.5000;0.9035;1.3419;
-1.2000;0.9076;1.3515;
-0.9000;0.9044;1.3491;
-0.6000;0.9052;1.3611;
-0.3000;0.9060;1.3659;
0.0000;0.9060;1.3659;
0.3000;0.9402;1.4066;
0.6000;0.9719;1.4210;
0.9000;1.0102;1.4593;
1.2000;1.0419;1.4977;
1.5000;1.0590;1.5120;
1.8000;1.0810;1.5432;
2.1000;1.0948;1.5600;
2.4000;1.1062;1.5767;
2.7000;1.1160;1.5911;
3.0000;1.1282;1.6223;
3.3000;1.1193;1.6007;
3.6000;1.1331;1.6342;
3.9000;1.1437;1.6438;
4.2000;1.1575;1.6678;
4.5000;1.1559;1.6558;
4.8000;1.1600;1.6582;
5.1000;1.1640;1.6558;
5.4000;1.1689;1.6558;
5.7000;1.1722;1.6534;
6.0000;1.1754;1.6654;
6.3000;1.1787;1.6654;
6.6000;1.1836;1.6678;
6.9000;1.1868;1.6750;
7.2000;1.1909;1.6726;
7.5000;1.1909;1.6702;
7.8000;1.1950;1.6750;
8.1000;1.1998;1.6798;
8.4000;1.2023;1.6798;
8.7000;1.2055;1.6870;
9.0000;1.2080;1.6702;
9.3000;1.2104;1.6702;
9.6000;1.2104;1.6606;
9.9000;1.2177;1.6678;
10.2000;1.2169;1.6630;
10.5000;1.2210;1.6702;
10.8000;1.2234;1.6654;
11.1000;1.2259;1.6654;
11.4000;1.2283;1.6654;
11.7000;1.2291;1.6606;
12.0000;1.2283;1.6462;
12.3000;1.2340;1.6534;
12.6000;1.2348;1.6414;
12.9000;1.2357;1.6462;
13.2000;1.2348;1.6390;
13.5000;1.2503;1.6702;
13.8000;1.2438;1.6558;
14.1000;1.2470;1.6630;
14.4000;1.2438;1.6462;
14.7000;1.2519;1.6630;
15.0000;1.2503;1.6534;
15.3000;1.2503;1.6438;
15.6000;1.2511;1.6486;
15.9000;1.2527;1.6534;
16.2000;1.2560;1.6534;
16.5000;1.2414;1.6175;
16.8000;1.2568;1.6486;
17.1000;1.2593;1.6582;
17.4000;1.2625;1.6630;
17.7000;1.2625;1.6678;
18.0000;1.2633;1.6702;
18.3000;1.2658;1.6822;
18.6000;1.2633;1.6750;
18.9000;1.2674;1.6846;
19.2000;1.2682;1.6798;
19.5000;1.2796;1.7061;
19.8000;1.2723;1.6822;
20.1000;1.2731;1.6750;
20.4000;1.2715;1.6774;
20.7000;1.2764;1.6750;
21.0000;1.2731;1.6774;
21.3000;1.2747;1.6726;
21.6000;1.2764;1.6774;
21.9000;1.2764;1.6678;
22.2000;1.2772;1.6774;
22.5000;1.2812;1.6870;
22.8000;1.2804;1.6798;
23.1000;1.2812;1.6702;
23.4000;1.2812;1.6750;
23.7000;1.2829;1.6726;
24.0000;1.2747;1.6486;
24.3000;1.2853;1.6630;
24.6000;1.2845;1.6510;
24.9000;1.2869;1.6654;
25.2000;1.2861;1.6630;
25.5000;1.2877;1.6654;
25.8000;1.2869;1.6678;
26.1000;1.2886;1.6726;
26.4000;1.2869;1.6630;
26.7000;1.2869;1.6630;
27.0000;1.2869;1.6606;
27.3000;1.2991;1.6918;
27.6000;1.2894;1.6726;
27.9000;1.2877;1.6726;
28.2000;1.2894;1.6726;
28.5000;1.2902;1.6726;
28.8000;1.2910;1.6678;
29.1000;1.2926;1.6702;
29.4000;1.2910;1.6726;
29.7000;1.2926;1.6606;
30.0000;1.2926;1.6558;
30.3000;1.2886;1.6510;
30.6000;1.2918;1.6654;
30.9000;1.2934;1.6630;
31.2000;1.2943;1.6582;
31.5000;1.2983;1.6606;
31.8000;1.2959;1.6630;
32.1000;1.2975;1.6726;
32.4000;1.2991;1.6774;
32.7000;1.2983;1.6750;
33.0000;1.2934;1.6630;
33.3000;1.2951;1.6606;
33.6000;1.2983;1.6558;
33.9000;1.2951;1.6486;
34.2000;1.2991;1.6702;
34.5000;1.3008;1.6654;
34.8000;1.3008;1.6606;
35.1000;1.3008;1.6558;
35.4000;1.3016;1.6534;
35.7000;1.3024;1.6462;
36.0000;1.3008;1.6318;
36.3000;1.3000;1.6342;
36.6000;1.3000;1.6414;
36.9000;1.2991;1.6414;
37.2000;1.3000;1.6414;
37.5000;1.3016;1.6510;
37.8000;1.3032;1.6558;
38.1000;1.3024;1.6510;
38.4000;1.3024;1.6510;
38.7000;1.3016;1.6654;
39.0000;1.3032;1.6654;
39.3000;1.3000;1.6558;
39.6000;1.3089;1.6870;
39.9000;1.3040;1.6774;
40.2000;1.3032;1.6726;
40.5000;1.3032;1.6654;
40.8000;1.3032;1.6510;
41.1000;1.3000;1.6510;
41.4000;1.3048;1.6606;
41.7000;1.3016;1.6534;
42.0000;1.3048;1.6510;
42.3000;1.3065;1.6510;
42.6000;1.3057;1.6510;
42.9000;1.3057;1.6582;
43.2000;1.3065;1.6510;
43.5000;1.3057;1.6606;
43.8000;1.3057;1.6678;
44.1000;1.3065;1.6630;
44.4000;1.3065;1.6558;
44.7000;1.3057;1.6582;
45.0000;1.3040;1.6510;
45.3000;1.3073;1.6558;
45.6000;1.3073;1.6558;
45.9000;1.3057;1.6558;
46.2000;1.3048;1.6534;
46.5000;1.3057;1.6534;
46.8000;1.3016;1.6510;
47.1000;1.3048;1.6510;
47.4000;1.3065;1.6582;
47.7000;1.3081;1.6558;
48.0000;1.3024;1.6414;
48.3000;1.3081;1.6534;
48.6000;1.3089;1.6654;
48.9000;1.3073;1.6678;
49.2000;1.3081;1.6678;
49.5000;1.3089;1.6750;
49.8000;1.3097;1.6726;
50.1000;1.3040;1.6654;
50.4000;1.3073;1.6702;
50.7000;1.3089;1.6750;
51.0000;1.3081;1.6678;
51.3000;1.3097;1.6702;
51.6000;1.3097;1.6630;
51.9000;1.3089;1.6558;
52.2000;1.3097;1.6534;
52.5000;1.3089;1.6534;
52.8000;1.3089;1.6558;
53.1000;1.3081;1.6630;
53.4000;1.3081;1.6630;
53.7000;1.3105;1.6678;
54.0000;1.3105;1.6606;
54.3000;1.3114;1.6582;
54.6000;1.3105;1.6606;
54.9000;1.3105;1.6606;
55.2000;1.3089;1.6582;
55.5000;1.3089;1.6654;
55.8000;1.3097;1.6582;
56.1000;1.3097;1.6630;
56.4000;1.3097;1.6510;
56.7000;1.3114;1.6486;
57.0000;1.3089;1.6486;
57.3000;1.3105;1.6534;
57.6000;1.3097;1.6534;
57.9000;1.3089;1.6486;
58.2000;1.3105;1.6534;
58.5000;1.3081;1.6510;
58.8000;1.3114;1.6486;
59.1000;1.3130;1.6534;
59.4000;1.3122;1.6486;
59.7000;1.3114;1.6510;
60.0000;1.3097;1.6438;
60.3000;1.3122;1.6462;
60.6000;1.3138;1.6414;
60.9000;1.3097;1.6295;
61.2000;1.3122;1.6438;
61.5000;1.3114;1.6486;
61.8000;1.3105;1.6438;
62.1000;1.3130;1.6462;
62.4000;1.3097;1.6510;
62.7000;1.3203;1.6822;
63.0000;1.3236;1.6894;
63.3000;1.3130;1.6654;
63.6000;1.3089;1.6534;
63.9000;1.3081;1.6462;
64.2000;1.3122;1.6534;
64.5000;1.3122;1.6486;
64.8000;1.3122;1.6462;
65.1000;1.3114;1.6510;
65.4000;1.3122;1.6558;
65.7000;1.3097;1.6510;
66.0000;1.3122;1.6582;
66.3000;1.3105;1.6510;
66.6000;1.3130;1.6558;
66.9000;1.3130;1.6558;
67.2000;1.3114;1.6510;
67.5000;1.3122;1.6510;
67.8000;1.3154;1.6486;
68.1000;1.3154;1.6486;
68.4000;1.3138;1.6510;
68.7000;1.3138;1.6582;
69.0000;1.3171;1.6606;
69.3000;1.3138;1.6558;
69.6000;1.3146;1.6534;
69.9000;1.3146;1.6534;
70.2000;1.3154;1.6462;
70.5000;1.3146;1.6486;
70.8000;1.3154;1.6438;
71.1000;1.3146;1.6486;
71.4000;1.3244;1.6798;
71.7000;1.3187;1.6726;
72.0000;1.3179;1.6750;
72.3000;1.3146;1.6774;
72.6000;1.3130;1.6630;
72.9000;1.3122;1.6606;
73.2000;1.3122;1.6582;
73.5000;1.3138;1.6702;
73.8000;1.3130;1.6678;
74.1000;1.3138;1.6630;
74.4000;1.3097;1.6534;
74.7000;1.3138;1.6630;
75.0000;1.3130;1.6726;
75.3000;1.3154;1.6654;
75.6000;1.3162;1.6558;
75.9000;1.3146;1.6438;
76.2000;1.3130;1.6366;
76.5000;1.3138;1.6318;
76.8000;1.3122;1.6295;
77.1000;1.3138;1.6390;
77.4000;1.3146;1.6390;
77.7000;1.3130;1.6271;
78.0000;1.3122;1.6318;
78.3000;1.3154;1.6534;
78.6000;1.3154;1.6534;
78.9000;1.3138;1.6510;
79.2000;1.3146;1.6510;
79.5000;1.3146;1.6462;
79.8000;1.3154;1.6558;
80.1000;1.3171;1.6582;
80.4000;1.3146;1.6534;
80.7000;1.3179;1.6606;
81.0000;1.3171;1.6534;
81.3000;1.3154;1.6486;
81.6000;1.3162;1.6486;
81.9000;1.3171;1.6486;
82.2000;1.3162;1.6486;
82.5000;1.3154;1.6462;
82.8000;1.3138;1.6390;
83.1000;1.3146;1.6510;
83.4000;1.3146;1.6438;
83.7000;1.3171;1.6510;
84.0000;1.3154;1.6510;
84.3000;1.3154;1.6486;
84.6000;1.3162;1.6486;
84.9000;1.3211;1.6582;
85.2000;1.3219;1.6678;
85.5000;1.3162;1.6510;
85.8000;1.3162;1.6462;
86.1000;1.3171;1.6462;
86.4000;1.3146;1.6510;
86.7000;1.3260;1.6822;
87.0000;1.3122;1.6558;
87.3000;1.3171;1.6654;
87.6000;1.3130;1.6534;
87.9000;1.3138;1.6582;
88.2000;1.3154;1.6654;
88.5000;1.3162;1.6630;
88.8000;1.3171;1.6630;
89.1000;1.3162;1.6630;
89.4000;1.3154;1.6606;
89.7000;1.3114;1.6534;
90.0000;1.3203;1.6630;
90.3000;1.3171;1.6462;
90.6000;1.3138;1.6342;
90.9000;1.3162;1.6342;
91.2000;1.3154;1.6271;
91.5000;1.3162;1.6271;
91.8000;1.3146;1.6247;
92.1000;1.3179;1.6295;
92.4000;1.3162;1.6318;
92.7000;1.3146;1.6295;
93.0000;1.3114;1.6151;
93.3000;1.3146;1.6318;
93.6000;1.3187;1.6486;
93.9000;1.3171;1.6510;
94.2000;1.3162;1.6510;
94.5000;1.3162;1.6510;
94.8000;1.3228;1.6678;
95.1000;1.3171;1.6654;
95.4000;1.3179;1.6678;
95.7000;1.3089;1.6462;
96.0000;1.3154;1.6654;
96.3000;1.3203;1.6678;
96.6000;1.3097;1.6414;
96.9000;1.3130;1.6414;
97.2000;1.3130;1.6414;
97.5000;1.3154;1.6486;
97.8000;1.3219;1.6606;
98.1000;1.3146;1.6462;
98.4000;1.3138;1.6534;
98.7000;1.3146;1.6582;
99.0000;1.3154;1.6582;
99.3000;1.3138;1.6534;
99.6000;1.3154;1.6582;
99.9000;1.3154;1.6534;
100.2000;1.3162;1.6510;
100.5000;1.3187;1.6558;
100.8000;1.3179;1.6510;
101.1000;1.3171;1.6510;
101.4000;1.3154;1.6414;
101.7000;1.3179;1.6534;
102.0000;1.3146;1.6438;
102.3000;1.3162;1.6390;
102.6000;1.3187;1.6510;
102.9000;1.3162;1.6558;
103.2000;1.3171;1.6558;
103.5000;1.3179;1.6510;
103.8000;1.3171;1.6462;
104.1000;1.3187;1.6462;
104.4000;1.3179;1.6414;
104.7000;1.3162;1.6390;
105.0000;1.3187;1.6510;
105.3000;1.3179;1.6486;
105.6000;1.3195;1.6486;
105.9000;1.3162;1.6510;
106.2000;1.3171;1.6486;
106.5000;1.3171;1.6534;
106.8000;1.3146;1.6414;
107.1000;1.3162;1.6438;
107.4000;1.3162;1.6510;
107.7000;1.3162;1.6582;
108.0000;1.3179;1.6534;
108.3000;1.3162;1.6438;
108.6000;1.3179;1.6558;
108.9000;1.3162;1.6558;
109.2000;1.3154;1.6582;
109.5000;1.3187;1.6558;
109.8000;1.3252;1.6702;
110.1000;1.3179;1.6582;
110.4000;1.3187;1.6654;
110.7000;1.3171;1.6606;
111.0000;1.3171;1.6654;
111.3000;1.3195;1.6702;
111.6000;1.3171;1.6534;
111.9000;1.3203;1.6630;
112.2000;1.3154;1.6558;
112.5000;1.3154;1.6510;
112.8000;1.3171;1.6462;
113.1000;1.3187;1.6462;
113.4000;1.3211;1.6630;
113.7000;1.3162;1.6486;
114.0000;1.3179;1.6582;
114.3000;1.3179;1.6582;
114.6000;1.3162;1.6534;
114.9000;1.3171;1.6486;
115.2000;1.3187;1.6510;
115.5000;1.3195;1.6558;
115.8000;1.3187;1.6558;
116.1000;1.3171;1.6558;
116.4000;1.3162;1.6606;
116.7000;1.3179;1.6582;
117.0000;1.3179;1.6606;
117.3000;1.3138;1.6510;
117.6000;1.3162;1.6486;
117.9000;1.3187;1.6462;
118.2000;1.3179;1.6438;
118.5000;1.3211;1.6558;
118.8000;1.3114;1.6414;
119.1000;1.3179;1.6486;
119.4000;1.3089;1.6247;
119.7000;1.3179;1.6462;
120.0000;1.3130;1.6438;
120.3000;1.3097;1.6271;
120.6000;1.3162;1.6414;
120.9000;1.3211;1.6606;
121.2000;1.3154;1.6486;
121.5000;1.3130;1.6414;
121.8000;1.3179;1.6510;
122.1000;1.3162;1.6486;
122.4000;1.3171;1.6414;
122.7000;1.3187;1.6414;
123.0000;1.3211;1.6534;
123.3000;1.3179;1.6462;
123.6000;1.3187;1.6414;
123.9000;1.3162;1.6414;
124.2000;1.3195;1.6510;
124.5000;1.3211;1.6510;
124.8000;1.3187;1.6462;
125.1000;1.3171;1.6366;
125.4000;1.3162;1.6271;
125.7000;1.3179;1.6318;
126.0000;1.3179;1.6318;
126.3000;1.3179;1.6318;
126.6000;1.3179;1.6295;
126.9000;1.3162;1.6199;
127.2000;1.3162;1.6271;
127.5000;1.3154;1.6295;
127.8000;1.3179;1.6342;
128.1000;1.3162;1.6366;
128.4000;1.3154;1.6366;
128.7000;1.3138;1.6318;
129.0000;1.3154;1.6318;
129.3000;1.3154;1.6390;
129.6000;1.3138;1.6414;
129.9000;1.3162;1.6558;
130.2000;1.3146;1.6558;
130.5000;1.3138;1.6558;
130.8000;1.3162;1.6582;
131.1000;1.3171;1.6558;
131.4000;1.3138;1.6582;
131.7000;1.3171;1.6726;
132.0000;1.3187;1.6750;
132.3000;1.3179;1.6702;
132.6000;1.3162;1.6654;
132.9000;1.3122;1.6558;
133.2000;1.3154;1.6726;
133.5000;1.3171;1.6702;
133.8000;1.3162;1.6606;
134.1000;1.3179;1.6582;
134.4000;1.3171;1.6534;
134.7000;1.3179;1.6606;
135.0000;1.3179;1.6510;
135.3000;1.3179;1.6558;
135.6000;1.3138;1.6486;
135.9000;1.3195;1.6654;
136.2000;1.3195;1.6654;
136.5000;1.3236;1.6726;
136.8000;1.3203;1.6630;
137.1000;1.3195;1.6654;
137.4000;1.3187;1.6486;
137.7000;1.3187;1.6366;
138.0000;1.3187;1.6271;
138.3000;1.3179;1.6366;
138.6000;1.3179;1.6366;
138.9000;1.3171;1.6295;
139.2000;1.3187;1.6414;
139.5000;1.3187;1.6414;
139.8000;1.3195;1.6438;
140.1000;1.3122;1.6199;
140.4000;1.3171;1.6390;
140.7000;1.3187;1.6462;
141.0000;1.3171;1.6486;
141.3000;1.3154;1.6558;
141.6000;1.3171;1.6582;
141.9000;1.3162;1.6606;
142.2000;1.3057;1.6390;
142.5000;1.3187;1.6630;
142.8000;1.3162;1.6558;
143.1000;1.3146;1.6438;
143.4000;1.3171;1.6462;
143.7000;1.3171;1.6534;
144.0000;1.3065;1.6318;
144.3000;1.3162;1.6558;
144.6000;1.3162;1.6582;
144.9000;1.3171;1.6606;
145.2000;1.3171;1.6558;
145.5000;1.3236;1.6702;
145.8000;1.3219;1.6630;
146.1000;1.3195;1.6582;
146.4000;1.3228;1.6726;
146.7000;1.3162;1.6558;
147.0000;1.3195;1.6582;
147.3000;1.3187;1.6558;
147.6000;1.3195;1.6486;
147.9000;1.3138;1.6199;
148.2000;1.3252;1.6390;
148.5000;1.3171;1.6127;
148.8000;1.3162;1.6031;
149.1000;1.3187;1.6031;
149.4000;1.3162;1.6031;
149.7000;1.3211;1.6127;
150.0000;1.3162;1.6031;
150.3000;1.3179;1.6151;
150.6000;1.3211;1.6151;
150.9000;1.3162;1.6127;
151.2000;1.3228;1.6342;
151.5000;1.3195;1.6223;
151.8000;1.3179;1.6318;
152.1000;1.3162;1.6199;
152.4000;1.3244;1.6414;
152.7000;1.3179;1.6223;
153.0000;1.3179;1.6247;
153.3000;1.3171;1.6271;
153.6000;1.3187;1.6295;
153.9000;1.3114;1.6151;
154.2000;1.3162;1.6342;
154.5000;1.3162;1.6390;
154.8000;1.3154;1.6271;
155.1000;1.3171;1.6247;
155.4000;1.3162;1.6247;
155.7000;1.3122;1.6127;
156.0000;1.3146;1.6151;
156.3000;1.3179;1.6199;
156.6000;1.3162;1.6223;
156.9000;1.3171;1.6055;
157.2000;1.3187;1.6079;
157.5000;1.3187;1.6031;
157.8000;1.3187;1.6007;
158.1000;1.3195;1.6079;
158.4000;1.3179;1.6079;
158.7000;1.3146;1.6031;
159.0000;1.3187;1.6175;
159.3000;1.3179;1.6151;
159.6000;1.3203;1.6247;
159.9000;1.3162;1.6151;
160.2000;1.3179;1.6199;
160.5000;1.3171;1.6199;
160.8000;1.3154;1.6079;
161.1000;1.3171;1.6175;
161.4000;1.3195;1.6223;
161.7000;1.3146;1.6055;
162.0000;1.3162;1.6175;
162.3000;1.3162;1.6247;
162.6000;1.3179;1.6390;
162.9000;1.3154;1.6247;
163.2000;1.3154;1.6247;
163.5000;1.3154;1.6318;
163.8000;1.3195;1.6438;
164.1000;1.3154;1.6295;
164.4000;1.3187;1.6390;
164.7000;1.3179;1.6414;
165.0000;1.3228;1.6510;
165.3000;1.3187;1.6366;
165.6000;1.3162;1.6390;
165.9000;1.3171;1.6390;
166.2000;1.3187;1.6438;
166.5000;1.3301;1.6702;
166.8000;1.3187;1.6486;
167.1000;1.3195;1.6510;
167.4000;1.3203;1.6510;
167.7000;1.3171;1.6438;
168.0000;1.3171;1.6414;
168.3000;1.3162;1.6318;
168.6000;1.3162;1.6342;
168.9000;1.3195;1.6366;
169.2000;1.3171;1.6318;
169.5000;1.3171;1.6295;
169.8000;1.3179;1.6390;
170.1000;1.3179;1.6390;
170.4000;1.3203;1.6438;
170.7000;1.3171;1.6486;
171.0000;1.3154;1.6462;
171.3000;1.3171;1.6438;
171.6000;1.3179;1.6486;
171.9000;1.3195;1.6486;
172.2000;1.3252;1.6654;
172.5000;1.3187;1.6486;
172.8000;1.3187;1.6486;
173.1000;1.3179;1.6510;
173.4000;1.3089;1.6247;
173.7000;1.3219;1.6510;
174.0000;1.3179;1.6414;
174.3000;1.3130;1.6390;
174.6000;1.3187;1.6414;
174.9000;1.3187;1.6295;
175.2000;1.3171;1.6271;
175.5000;1.3179;1.6366;
175.8000;1.3195;1.6414;
176.1000;1.3154;1.6366;
176.4000;1.3219;1.6558;
176.7000;1.3187;1.6462;
177.0000;1.3195;1.6438;
177.3000;1.3162;1.6462;
177.6000;1.3171;1.6462;
177.9000;1.3171;1.6510;
178.2000;1.3260;1.6606;
178.5000;1.3162;1.6390;
178.8000;1.3179;1.6414;
179.1000;1.3171;1.6366;
179.4000;1.3171;1.6366;
179.7000;1.3154;1.6390;
180.0000;1.3162;1.6414;
180.3000;1.3162;1.6390;
180.6000;1.3195;1.6486;
180.9000;1.3228;1.6438;
181.2000;1.3171;1.6223;
181.5000;1.3179;1.6127;
181.8000;1.3171;1.6127;
182.1000;1.3171;1.6151;
182.4000;1.3195;1.6175;
182.7000;1.3171;1.6223;
183.0000;1.3195;1.6366;
183.3000;1.3171;1.6366;
183.6000;1.3187;1.6390;
183.9000;1.3179;1.6342;
184.2000;1.3171;1.6295;
184.5000;1.3187;1.6390;
184.8000;1.3179;1.6390;
185.1000;1.3195;1.6366;
185.4000;1.3195;1.6366;
185.7000;1.3154;1.6223;
186.0000;1.3154;1.6199;
186.3000;1.3203;1.6247;
186.6000;1.3162;1.6199;
186.9000;1.3179;1.6271;
187.2000;1.3187;1.6390;
187.5000;1.3171;1.6223;
187.8000;1.3268;1.6438;
188.1000;1.3203;1.6318;
188.4000;1.3162;1.6295;
188.7000;1.3195;1.6438;
189.0000;1.3187;1.6510;
189.3000;1.3195;1.6462;
189.6000;1.3187;1.6366;
189.9000;1.3162;1.6318;
190.2000;1.3179;1.6414;
190.5000;1.3130;1.6318;
190.8000;1.3138;1.6414;
191.1000;1.3162;1.6438;
191.4000;1.3171;1.6462;
191.7000;1.3260;1.6702;
192.0000;1.3187;1.6486;
192.3000;1.3187;1.6414;
192.6000;1.3187;1.6438;
192.9000;1.3187;1.6486;
193.2000;1.3195;1.6606;
193.5000;1.3228;1.6630;
193.8000;1.3162;1.6558;
194.1000;1.3130;1.6486;
194.4000;1.3179;1.6558;
194.7000;1.3171;1.6606;
195.0000;1.3154;1.6534;
195.3000;1.3162;1.6486;
195.6000;1.3179;1.6534;
195.9000;1.3179;1.6486;
196.2000;1.3187;1.6558;
196.5000;1.3162;1.6558;
196.8000;1.3187;1.6534;
197.1000;1.3154;1.6414;
197.4000;1.3138;1.6462;
197.7000;1.3162;1.6558;
198.0000;1.3187;1.6630;
198.3000;1.3219;1.6678;
198.6000;1.3203;1.6606;
198.9000;1.3171;1.6534;
199.2000;1.3187;1.6582;
199.5000;1.3179;1.6510;
199.8000;1.3171;1.6438;
200.1000;1.3187;1.6510;
200.4000;1.3171;1.6534;
200.7000;1.3179;1.6558;
201.0000;1.3179;1.6534;
201.3000;1.3203;1.6510;
201.6000;1.3171;1.6414;
201.9000;1.3179;1.6390;
202.2000;1.3171;1.6414;
202.5000;1.3219;1.6558;
202.8000;1.3162;1.6390;
203.1000;1.3171;1.6390;
203.4000;1.3162;1.6342;
203.7000;1.3114;1.6223;
204.0000;1.3154;1.6414;
204.3000;1.3171;1.6486;
204.6000;1.3179;1.6486;
204.9000;1.3211;1.6582;
205.2000;1.3146;1.6414;
205.5000;1.3154;1.6390;
205.8000;1.3171;1.6438;
206.1000;1.3179;1.6486;
206.4000;1.3171;1.6486;
206.7000;1.3154;1.6366;
207.0000;1.3179;1.6414;
207.3000;1.3179;1.6486;
207.6000;1.3195;1.6462;
207.9000;1.3162;1.6390;
208.2000;1.3179;1.6510;
208.5000;1.3195;1.6558;
208.8000;1.3195;1.6558;
209.1000;1.3211;1.6558;
209.4000;1.3187;1.6486;
209.7000;1.3171;1.6486;
210.0000;1.3203;1.6534;
210.3000;1.3154;1.6438;
210.6000;1.3187;1.6510;
210.9000;1.3195;1.6534;
211.2000;1.3195;1.6582;
211.5000;1.3154;1.6462;
211.8000;1.3162;1.6462;
212.1000;1.3171;1.6414;
212.4000;1.3171;1.6342;
212.7000;1.3162;1.6271;
213.0000;1.3171;1.6247;
213.3000;1.3179;1.6199;
213.6000;1.3203;1.6247;
213.9000;1.3171;1.6271;
214.2000;1.3171;1.6318;
214.5000;1.3122;1.6127;
214.8000;1.3162;1.6247;
215.1000;1.3162;1.6271;
215.4000;1.3211;1.6414;
215.7000;1.3154;1.6223;
216.0000;1.3162;1.6247;
216.3000;1.3162;1.6199;
216.6000;1.3154;1.6295;
216.9000;1.3195;1.6390;
217.2000;1.3179;1.6342;
217.5000;1.3203;1.6366;
217.8000;1.3162;1.6318;
218.1000;1.3195;1.6342;
218.4000;1.3162;1.6271;
218.7000;1.3187;1.6318;
219.0000;1.3162;1.6199;
219.3000;1.3162;1.6175;
219.6000;1.3195;1.6247;
219.9000;1.3154;1.6271;
220.2000;1.3162;1.6247;
220.5000;1.3187;1.6318;
220.8000;1.3154;1.6318;
221.1000;1.3171;1.6318;
221.4000;1.3195;1.6390;
221.7000;1.3162;1.6318;
222.0000;1.3171;1.6295;
222.3000;1.3179;1.6414;
222.6000;1.3162;1.6366;
222.9000;1.3171;1.6295;
223.2000;1.3154;1.6342;
223.5000;1.3244;1.6510;
223.8000;1.3203;1.6438;
224.1000;1.3154;1.6390;
224.4000;1.3162;1.6462;
224.7000;1.3179;1.6486;
225.0000;1.3154;1.6486;
225.3000;1.3171;1.6438;
225.6000;1.3138;1.6390;
225.9000;1.3171;1.6486;
226.2000;1.3179;1.6462;
226.5000;1.3122;1.6366;
226.8000;1.3146;1.6318;
227.1000;1.3162;1.6318;
227.4000;1.3171;1.6342;
227.7000;1.3162;1.6438;
228.0000;1.3195;1.6534;
228.3000;1.3162;1.6486;
228.6000;1.3138;1.6438;
228.9000;1.3065;1.6223;
229.2000;1.3162;1.6486;
229.5000;1.3211;1.6630;
229.8000;1.3179;1.6486;
230.1000;1.3179;1.6462;
230.4000;1.3171;1.6462;
230.7000;1.3260;1.6606;
231.0000;1.3162;1.6366;
231.3000;1.3171;1.6295;
231.6000;1.3179;1.6271;
231.9000;1.3171;1.6247;
232.2000;1.3179;1.6295;
232.5000;1.3187;1.6318;
232.8000;1.3211;1.6462;
233.1000;1.3187;1.6486;
233.4000;1.3171;1.6342;
233.7000;1.3293;1.6534;
234.0000;1.3203;1.6295;
234.3000;1.3162;1.6175;
234.6000;1.3154;1.6151;
234.9000;1.3171;1.6175;
235.2000;1.3179;1.6199;
235.5000;1.3162;1.6223;
235.8000;1.3171;1.6271;
236.1000;1.3162;1.6318;
236.4000;1.3179;1.6390;
236.7000;1.3179;1.6342;
237.0000;1.3114;1.6199;
237.3000;1.3146;1.6271;
237.6000;1.3179;1.6318;
237.9000;1.3195;1.6390;
238.2000;1.3179;1.6390;
238.5000;1.3130;1.6318;
238.8000;1.3187;1.6438;
239.1000;1.3179;1.6486;
239.4000;1.3162;1.6510;
239.7000;1.3162;1.6462;
240.0000;1.3179;1.6438;
240.3000;1.3171;1.6462;
240.6000;1.3154;1.6414;
240.9000;1.3171;1.6342;
241.2000;1.3146;1.6438;
241.5000;1.3162;1.6510;
241.8000;1.3130;1.6390;
242.1000;1.3146;1.6390;
242.4000;1.3171;1.6342;
242.7000;1.3171;1.6366;
243.0000;1.3179;1.6366;
243.3000;1.3179;1.6390;
243.6000;1.3187;1.6438;
243.9000;1.3187;1.6486;
244.2000;1.3195;1.6486;
244.5000;1.3179;1.6390;
244.8000;1.3154;1.6342;
245.1000;1.3203;1.6414;
245.4000;1.3171;1.6295;
245.7000;1.3154;1.6223;
246.0000;1.3162;1.6247;
246.3000;1.3162;1.6199;
246.6000;1.3219;1.6366;
246.9000;1.3162;1.6175;
247.2000;1.3179;1.6199;
247.5000;1.3138;1.6151;
247.8000;1.3162;1.6318;
248.1000;1.3171;1.6366;
248.4000;1.3162;1.6295;
248.7000;1.3130;1.6223;
249.0000;1.3154;1.6247;
249.3000;1.3162;1.6318;
249.6000;1.3154;1.6271;
249.9000;1.3162;1.6295;
250.2000;1.3187;1.6390;
250.5000;1.3179;1.6486;
250.8000;1.3146;1.6414;
251.1000;1.3162;1.6438;
251.4000;1.3154;1.6438;
251.7000;1.3187;1.6342;
252.0000;1.3114;1.6366;
252.3000;1.3154;1.6510;
252.6000;1.3154;1.6510;
252.9000;1.3211;1.6486;
253.2000;1.3171;1.6271;
253.5000;1.3228;1.6390;
253.8000;1.3171;1.6295;
254.1000;1.3114;1.6223;
254.4000;1.3179;1.6390;
254.7000;1.3179;1.6342;
255.0000;1.3154;1.6295;
255.3000;1.3162;1.6342;
255.6000;1.3187;1.6318;
255.9000;1.3179;1.6247;
256.2000;1.3187;1.6318;
256.5000;1.3171;1.6366;
256.8000;1.3162;1.6342;
257.1000;1.3171;1.6295;
257.4000;1.3162;1.6342;
257.7000;1.3162;1.6342;
258.0000;1.3179;1.6366;
258.3000;1.3154;1.6390;
258.6000;1.3162;1.6318;
258.9000;1.3154;1.6342;
259.2000;1.3162;1.6295;
259.5000;1.3130;1.6295;
259.8000;1.3162;1.6390;
260.1000;1.3154;1.6342;
260.4000;1.3228;1.6654;
260.7000;1.3162;1.6558;
261.0000;1.3228;1.6726;
261.3000;1.3154;1.6558;
261.6000;1.3154;1.6558;
261.9000;1.3162;1.6606;
262.2000;1.3162;1.6558;
262.5000;1.3195;1.6510;
262.8000;1.3171;1.6462;
263.1000;1.3179;1.6534;
263.4000;1.3187;1.6582;
263.7000;1.3171;1.6486;
264.0000;1.3146;1.6366;
264.3000;1.3171;1.6390;
264.6000;1.3179;1.6247;
264.9000;1.3171;1.6175;
265.2000;1.3179;1.6271;
265.5000;1.3162;1.6366;
265.8000;1.3187;1.6462;
266.1000;1.3162;1.6390;
266.4000;1.3195;1.6486;
266.7000;1.3162;1.6414;
267.0000;1.3171;1.6342;
267.3000;1.3187;1.6390;
267.6000;1.3203;1.6462;
267.9000;1.3171;1.6390;
268.2000;1.3366;1.6798;
268.5000;1.3171;1.6390;
268.8000;1.3252;1.6510;
269.1000;1.3179;1.6318;
269.4000;1.3162;1.6295;
269.7000;1.3138;1.6223;
270.0000;1.3162;1.6342;
270.3000;1.3162;1.6366;
270.6000;1.3122;1.6127;
270.9000;1.3171;1.6223;
271.2000;1.3211;1.6342;
271.5000;1.3162;1.6271;
271.8000;1.3154;1.6271;
272.1000;1.3171;1.6318;
272.4000;1.3195;1.6318;
272.7000;1.3162;1.6223;
273.0000;1.3105;1.6151;
273.3000;1.3171;1.6390;
273.6000;1.3171;1.6414;
273.9000;1.3171;1.6342;
274.2000;1.3171;1.6366;
274.5000;1.3171;1.6366;
274.8000;1.3171;1.6366;
275.1000;1.3146;1.6295;
275.4000;1.3171;1.6366;
275.7000;1.3130;1.6247;
276.0000;1.3171;1.6366;
276.3000;1.3187;1.6414;
276.6000;1.3154;1.6342;
276.9000;1.3162;1.6318;
277.2000;1.3195;1.6366;
277.5000;1.3179;1.6342;
277.8000;1.3162;1.6342;
278.1000;1.3171;1.6223;
278.4000;1.3195;1.6390;
278.7000;1.3187;1.6318;
279.0000;1.3146;1.6127;
279.3000;1.3154;1.6031;
279.6000;1.3162;1.5935;
279.9000;1.3187;1.5911;
280.2000;1.3203;1.6103;
280.5000;1.3171;1.6103;
280.8000;1.3146;1.6127;
281.1000;1.3162;1.6223;
281.4000;1.3162;1.6247;
281.7000;1.3171;1.6366;
282.0000;1.3162;1.6271;
282.3000;1.3162;1.6223;
282.6000;1.3154;1.6175;
282.9000;1.3146;1.6175;
283.2000;1.3154;1.6223;
283.5000;1.3187;1.6295;
283.8000;1.3228;1.6438;
284.1000;1.3162;1.6318;
284.4000;1.3089;1.6151;
284.7000;1.3154;1.6318;
285.0000;1.3171;1.6438;
285.3000;1.3162;1.6486;
285.6000;1.3171;1.6486;
285.9000;1.3154;1.6510;
286.2000;1.3162;1.6462;
286.5000;1.3162;1.6414;
286.8000;1.3154;1.6414;
287.1000;1.3154;1.6366;
287.4000;1.3179;1.6438;
287.7000;1.3162;1.6390;
288.0000;1.3146;1.6318;
288.3000;1.3162;1.6318;
288.6000;1.3179;1.6342;
288.9000;1.3187;1.6318;
289.2000;1.3187;1.6342;
289.5000;1.3162;1.6366;
289.8000;1.3211;1.6510;
290.1000;1.3179;1.6462;
290.4000;1.3187;1.6510;
290.7000;1.3171;1.6438;
291.0000;1.3228;1.6414;
291.3000;1.3171;1.6175;
291.6000;1.3154;1.6007;
291.9000;1.3179;1.6055;
292.2000;1.3211;1.6103;
292.5000;1.3187;1.6007;
292.8000;1.3179;1.5959;
293.1000;1.3154;1.5983;
293.4000;1.3171;1.6007;
293.7000;1.3195;1.6031;
294.0000;1.3195;1.6007;
294.3000;1.3228;1.6151;
294.6000;1.3122;1.6007;
294.9000;1.3171;1.6031;
295.2000;1.3162;1.5983;
295.5000;1.3146;1.5959;
295.8000;1.3146;1.6079;
296.1000;1.3187;1.6127;
296.4000;1.3138;1.6031;
296.7000;1.3276;1.6438;
297.0000;1.3162;1.6295;
297.3000;1.3146;1.6414;
297.6000;1.3187;1.6438;
297.9000;1.3179;1.6414;
298.2000;1.3171;1.6366;
298.5000;1.3187;1.6366;
298.8000;1.3105;1.6127;
299.1000;1.3162;1.6342;
299.4000;1.3171;1.6390;
299.7000;1.3252;1.6462;
300.0000;1.3179;1.6271;
300.3000;1.3187;1.6271;
300.6000;1.3154;1.6318;
300.9000;1.3187;1.6295;
301.2000;1.3162;1.6342;
301.5000;1.3228;1.6510;
301.8000;1.3162;1.6390;
302.1000;1.3162;1.6390;
302.4000;1.3146;1.6342;
302.7000;1.3130;1.6199;
303.0000;1.3154;1.6271;
303.3000;1.3171;1.6295;
303.6000;1.3122;1.6271;
303.9000;1.3179;1.6438;
304.2000;1.3179;1.6390;
304.5000;1.3171;1.6366;
304.8000;1.3228;1.6462;
305.1000;1.3179;1.6390;
305.4000;1.3187;1.6462;
305.7000;1.3187;1.6438;
306.0000;1.3114;1.6295;
306.3000;1.3162;1.6438;
306.6000;1.3130;1.6318;
306.9000;1.3154;1.6366;
307.2000;1.3146;1.6414;
307.5000;1.3105;1.6390;
307.8000;1.3187;1.6534;
308.1000;1.3162;1.6510;
308.4000;1.3154;1.6534;
308.7000;1.3146;1.6558;
309.0000;1.3179;1.6582;
309.3000;1.3171;1.6534;
309.6000;1.3171;1.6558;
309.9000;1.3162;1.6534;
310.2000;1.3162;1.6510;
310.5000;1.3162;1.6510;
310.8000;1.3154;1.6414;
311.1000;1.3130;1.6295;
311.4000;1.3162;1.6462;
311.7000;1.3162;1.6486;
312.0000;1.3154;1.6534;
312.3000;1.3138;1.6438;
312.6000;1.3154;1.6462;
312.9000;1.3171;1.6510;
313.2000;1.3171;1.6342;
313.5000;1.3154;1.6223;
313.8000;1.3171;1.6223;
314.1000;1.3171;1.6271;
314.4000;1.3179;1.6271;
314.7000;1.3171;1.6247;
315.0000;1.3203;1.6414;
315.3000;1.3162;1.6366;
315.6000;1.3195;1.6342;
315.9000;1.3171;1.6223;
316.2000;1.3162;1.6175;
316.5000;1.3171;1.6199;
316.8000;1.3171;1.6151;
317.1000;1.3162;1.6199;
317.4000;1.3179;1.6247;
317.7000;1.3171;1.6223;
318.0000;1.3171;1.6247;
318.3000;1.3162;1.6318;
318.6000;1.3179;1.6342;
318.9000;1.3154;1.6295;
319.2000;1.3154;1.6271;
319.5000;1.3179;1.6271;
319.8000;1.3154;1.6342;
320.1000;1.3146;1.6366;
320.4000;1.3154;1.6342;
320.7000;1.3130;1.6247;
321.0000;1.3146;1.6318;
321.3000;1.3162;1.6271;
321.6000;1.3162;1.6175;
321.9000;1.3154;1.6199;
322.2000;1.3162;1.6199;
322.5000;1.3154;1.6295;
322.8000;1.3089;1.6175;
323.1000;1.3122;1.6199;
323.4000;1.3154;1.6318;
323.7000;1.3162;1.6247;
324.0000;1.3114;1.6103;
324.3000;1.3154;1.6247;
324.6000;1.3154;1.6271;
324.9000;1.3171;1.6271;
325.2000;1.3162;1.6199;
325.5000;1.3187;1.6342;
325.8000;1.3114;1.6247;
326.1000;1.3171;1.6390;
326.4000;1.3146;1.6271;
326.7000;1.3171;1.6318;
327.0000;1.3154;1.6271;
327.3000;1.3162;1.6342;
327.6000;1.3187;1.6438;
327.9000;1.3162;1.6414;
328.2000;1.3187;1.6462;
328.5000;1.3171;1.6366;
328.8000;1.3187;1.6462;
329.1000;1.3171;1.6414;
329.4000;1.3171;1.6438;
329.7000;1.3162;1.6414;
330.0000;1.3162;1.6414;
330.3000;1.3284;1.6630;
330.6000;1.3162;1.6223;
330.9000;1.3179;1.6271;
331.2000;1.3162;1.6127;
331.5000;1.3154;1.6007;
331.8000;1.3179;1.6055;
332.1000;1.3162;1.6103;
332.4000;1.3171;1.6223;
332.7000;1.3162;1.6247;
333.0000;1.3138;1.6199;
333.3000;1.3171;1.6271;
333.6000;1.3187;1.6318;
333.9000;1.3162;1.6295;
334.2000;1.3154;1.6295;
334.5000;1.3171;1.6271;
334.8000;1.3195;1.6390;
335.1000;1.3171;1.6462;
335.4000;1.3154;1.6534;
335.7000;1.3171;1.6558;
336.0000;1.3179;1.6582;
336.3000;1.3171;1.6558;
336.6000;1.3179;1.6606;
336.9000;1.3122;1.6438;
337.2000;1.3171;1.6486;
337.5000;1.3171;1.6366;
337.8000;1.3162;1.6247;
338.1000;1.3162;1.6127;
338.4000;1.3171;1.6055;
338.7000;1.3187;1.6055;
339.0000;1.3138;1.5983;
339.3000;1.3171;1.6127;
339.6000;1.3146;1.6151;
339.9000;1.3179;1.6151;
340.2000;1.3179;1.6079;
340.5000;1.3203;1.6199;
340.8000;1.3179;1.6223;
341.1000;1.3162;1.6342;
341.4000;1.3154;1.6295;
341.7000;1.3154;1.6223;
342.0000;1.3146;1.6295;
342.3000;1.3154;1.6318;
342.6000;1.3138;1.6271;
342.9000;1.3138;1.6366;
343.2000;1.3154;1.6318;
343.5000;1.3219;1.6462;
343.8000;1.3162;1.6342;
344.1000;1.3162;1.6318;
344.4000;1.3154;1.6318;
344.7000;1.3162;1.6390;
345.0000;1.3130;1.6342;
345.3000;1.3154;1.6366;
345.6000;1.3114;1.6247;
345.9000;1.3146;1.6318;
346.2000;1.3154;1.6271;
346.5000;1.3154;1.6342;
346.8000;1.3146;1.6295;
347.1000;1.3154;1.6390;
347.4000;1.3154;1.6414;
347.7000;1.3154;1.6390;
348.0000;1.3130;1.6414;
348.3000;1.3138;1.6510;
348.6000;1.3171;1.6606;
348.9000;1.3211;1.6630;
349.2000;1.3154;1.6462;
349.5000;1.3228;1.6606;
349.8000;1.3146;1.6462;
350.1000;1.3171;1.6558;
350.4000;1.3154;1.6534;
350.7000;1.3154;1.6510;
351.0000;1.3081;1.6318;
351.3000;1.3162;1.6534;
351.6000;1.3154;1.6462;
351.9000;1.3171;1.6558;
352.2000;1.3162;1.6534;
352.5000;1.3114;1.6414;
352.8000;1.3122;1.6438;
353.1000;1.3154;1.6558;
353.4000;1.3154;1.6630;
353.7000;1.3171;1.6678;
354.0000;1.3171;1.6630;
354.3000;1.3105;1.6342;
354.6000;1.3154;1.6438;
354.9000;1.3154;1.6486;
355.2000;1.3154;1.6486;
355.5000;1.3154;1.6510;
355.8000;1.3162;1.6462;
356.1000;1.3154;1.6438;
356.4000;1.3162;1.6558;
356.7000;1.3138;1.6438;
357.0000;1.3114;1.6414;
357.3000;1.3122;1.6414;
357.6000;1.3179;1.6582;
357.9000;1.3154;1.6510;
358.2000;1.3162;1.6534;
358.5000;1.3171;1.6390;
358.8000;1.3179;1.6414;
359.1000;1.3162;1.6318;
359.4000;1.3171;1.6247;
359.7000;1.3162;1.6223;
360.0000;1.3187;1.6342;
360.3000;1.3187;1.6414;
360.6000;1.3171;1.6366;
360.9000;1.3171;1.6366;
361.2000;1.3171;1.6342;
361.5000;1.3195;1.6414;
361.8000;1.3162;1.6271;
362.1000;1.3203;1.6366;
362.4000;1.3138;1.6223;
362.7000;1.3171;1.6318;
363.0000;1.3162;1.6390;
363.3000;1.3138;1.6438;
363.6000;1.3154;1.6318;
363.9000;1.3162;1.6271;
364.2000;1.3171;1.6366;
364.5000;1.3154;1.6318;
364.8000;1.3146;1.6342;
365.1000;1.3154;1.6390;
365.4000;1.3162;1.6438;
365.7000;1.3162;1.6462;
366.0000;1.3162;1.6438;
366.3000;1.3146;1.6414;
366.6000;1.3146;1.6414;
366.9000;1.3130;1.6342;
367.2000;1.3138;1.6295;
367.5000;1.3162;1.6342;
367.8000;1.3162;1.6342;
368.1000;1.3122;1.6390;
368.4000;1.3154;1.6438;
368.7000;1.3252;1.6750;
369.0000;1.3154;1.6414;
369.3000;1.3146;1.6318;
369.6000;1.3154;1.6318;
369.9000;1.3154;1.6366;
370.2000;1.3171;1.6438;
370.5000;1.3187;1.6438;
370.8000;1.3162;1.6390;
371.1000;1.3171;1.6486;
371.4000;1.3162;1.6534;
371.7000;1.3162;1.6582;
372.0000;1.3211;1.6582;
372.3000;1.3179;1.6510;
372.6000;1.3162;1.6438;
372.9000;1.3114;1.6318;
373.2000;1.3154;1.6462;
373.5000;1.3138;1.6414;
373.8000;1.3146;1.6462;
374.1000;1.3162;1.6558;
374.4000;1.3154;1.6558;
374.7000;1.3146;1.6510;
375.0000;1.3154;1.6606;
375.3000;1.3154;1.6606;
375.6000;1.3146;1.6582;
375.9000;1.3146;1.6630;
376.2000;1.3162;1.6654;
376.5000;1.3154;1.6558;
376.8000;1.3138;1.6486;
377.1000;1.3154;1.6438;
377.4000;1.3154;1.6390;
377.7000;1.3179;1.6342;
378.0000;1.3187;1.6438;
378.3000;1.3171;1.6438;
378.6000;1.3162;1.6366;
378.9000;1.3171;1.6486;
379.2000;1.3179;1.6582;
379.5000;1.3195;1.6558;
379.8000;1.3187;1.6486;
380.1000;1.3146;1.6318;
380.4000;1.3179;1.6390;
380.7000;1.3203;1.6486;
381.0000;1.3130;1.6271;
381.3000;1.3179;1.6414;
381.6000;1.3154;1.6342;
381.9000;1.3162;1.6390;
382.2000;1.3073;1.6151;
382.5000;1.3162;1.6318;
382.8000;1.3171;1.6199;
383.1000;1.3114;1.6055;
383.4000;1.3171;1.6223;
383.7000;1.3154;1.6295;
384.0000;1.3260;1.6606;
384.3000;1.3154;1.6366;
384.6000;1.3154;1.6342;
384.9000;1.3146;1.6295;
385.2000;1.3146;1.6247;
385.5000;1.3162;1.6295;
385.8000;1.3179;1.6390;
386.1000;1.3162;1.6318;
386.4000;1.3138;1.6366;
386.7000;1.3162;1.6534;
387.0000;1.3154;1.6630;
387.3000;1.3171;1.6630;
387.6000;1.3154;1.6462;
387.9000;1.3187;1.6558;
388.2000;1.3162;1.6438;
388.5000;1.3179;1.6414;
388.8000;1.3154;1.6318;
389.1000;1.3179;1.6390;
389.4000;1.3171;1.6390;
389.7000;1.3162;1.6462;
390.0000;1.3154;1.6462;
390.3000;1.3162;1.6414;
390.6000;1.3179;1.6486;
390.9000;1.3154;1.6366;
391.2000;1.3130;1.6247;
391.5000;1.3130;1.6247;
391.8000;1.3219;1.6510;
392.1000;1.3179;1.6390;
392.4000;1.3146;1.6342;
392.7000;1.3154;1.6414;
393.0000;1.3146;1.6414;
393.3000;1.3154;1.6438;
393.6000;1.3146;1.6366;
393.9000;1.3154;1.6223;
394.2000;1.3154;1.6295;
394.5000;1.3171;1.6318;
394.8000;1.3171;1.6438;
395.1000;1.3154;1.6534;
395.4000;1.3171;1.6510;
395.7000;1.3154;1.6462;
396.0000;1.3179;1.6438;
396.3000;1.3146;1.6390;
396.6000;1.3171;1.6414;
396.9000;1.3146;1.6366;
397.2000;1.3154;1.6342;
397.5000;1.3130;1.6366;
397.8000;1.3146;1.6414;
398.1000;1.3146;1.6366;
398.4000;1.3187;1.6390;
398.7000;1.3154;1.6342;
399.0000;1.3130;1.6175;
399.3000;1.3154;1.6175;
399.6000;1.3162;1.6295;
399.9000;1.3138;1.6175;
400.2000;1.3154;1.6175;
400.5000;1.3073;1.5959;
400.8000;1.3154;1.6127;
401.1000;1.3146;1.6151;
401.4000;1.3146;1.6151;
401.7000;1.3154;1.6247;
402.0000;1.3114;1.6247;
402.3000;1.3179;1.6438;
402.6000;1.3146;1.6438;
402.9000;1.3146;1.6558;
403.2000;1.3154;1.6486;
403.5000;1.3154;1.6486;
403.8000;1.3162;1.6462;
404.1000;1.3162;1.6486;
404.4000;1.3138;1.6414;
404.7000;1.3203;1.6534;
405.0000;1.3171;1.6390;
405.3000;1.3154;1.6366;
405.6000;1.3154;1.6318;
405.9000;1.3171;1.6271;
406.2000;1.3114;1.6055;
406.5000;1.3171;1.6127;
406.8000;1.3146;1.6055;
407.1000;1.3130;1.5983;
407.4000;1.3187;1.6175;
407.7000;1.3114;1.6055;
408.0000;1.3187;1.6247;
408.3000;1.3073;1.5935;
408.6000;1.3171;1.6175;
408.9000;1.3171;1.6295;
409.2000;1.3211;1.6318;
409.5000;1.3154;1.6199;
409.8000;1.3138;1.6151;
410.1000;1.3146;1.6127;
410.4000;1.3187;1.6199;
410.7000;1.3171;1.6247;
411.0000;1.3130;1.6103;
411.3000;1.3162;1.6103;
411.6000;1.3130;1.6103;
411.9000;1.3162;1.6151;
412.2000;1.3162;1.6199;
412.5000;1.3089;1.6055;
412.8000;1.3146;1.6223;
413.1000;1.3081;1.6103;
413.4000;1.3154;1.6271;
413.7000;1.3179;1.6247;
414.0000;1.3138;1.6103;
414.3000;1.3138;1.6103;
414.6000;1.3122;1.6079;
414.9000;1.3203;1.6318;
415.2000;1.3154;1.6103;
415.5000;1.3154;1.6103;
415.8000;1.3162;1.6175;
416.1000;1.3219;1.6366;
416.4000;1.3146;1.6151;
416.7000;1.3162;1.6079;
417.0000;1.3162;1.6175;
417.3000;1.3146;1.6199;
417.6000;1.3130;1.6103;
417.9000;1.3154;1.6223;
418.2000;1.3162;1.6271;
418.5000;1.3171;1.6318;
418.8000;1.3171;1.6318;
419.1000;1.3162;1.6390;
419.4000;1.3154;1.6342;
419.7000;1.3138;1.6223;
420.0000;1.3171;1.6366;
420.3000;1.3154;1.6366;
420.6000;1.3162;1.6366;
420.9000;1.3154;1.6271;
421.2000;1.3154;1.6318;
421.5000;1.3162;1.6223;
421.8000;1.3211;1.6342;
422.1000;1.3154;1.6199;
422.4000;1.3154;1.6199;
422.7000;1.3154;1.6271;
423.0000;1.3211;1.6438;
423.3000;1.3130;1.6199;
423.6000;1.3154;1.6295;
423.9000;1.3154;1.6295;
424.2000;1.3146;1.6295;
424.5000;1.3154;1.6342;
424.8000;1.3138;1.6318;
425.1000;1.3154;1.6390;
425.4000;1.3162;1.6342;
425.7000;1.3154;1.6223;
426.0000;1.3162;1.6271;
426.3000;1.3154;1.6247;
426.6000;1.3154;1.6223;
426.9000;1.3187;1.6295;
427.2000;1.3154;1.6318;
427.5000;1.3162;1.6271;
427.8000;1.3162;1.6175;
428.1000;1.3162;1.6247;
428.4000;1.3154;1.6199;
428.7000;1.3081;1.6103;
429.0000;1.3171;1.6295;
429.3000;1.3162;1.6295;
429.6000;1.3138;1.6151;
429.9000;1.3154;1.6223;
430.2000;1.3154;1.6295;
430.5000;1.3162;1.6247;
430.8000;1.3203;1.6318;
431.1000;1.3211;1.6438;
431.4000;1.3146;1.6295;
431.7000;1.3171;1.6366;
432.0000;1.3154;1.6390;
432.3000;1.3162;1.6366;
432.6000;1.3162;1.6342;
432.9000;1.3162;1.6342;
433.2000;1.3162;1.6390;
433.5000;1.3122;1.6342;
433.8000;1.3146;1.6438;
434.1000;1.3138;1.6390;
434.4000;1.3146;1.6318;
434.7000;1.3130;1.6223;
435.0000;1.3138;1.6151;
435.3000;1.3154;1.6247;
435.6000;1.3130;1.6127;
435.9000;1.3154;1.6151;
436.2000;1.3154;1.6199;
436.5000;1.3065;1.5935;
436.8000;1.3138;1.6175;
437.1000;1.3081;1.6055;
437.4000;1.3162;1.6223;
437.7000;1.3211;1.6295;
438.0000;1.3203;1.6223;
438.3000;1.3162;1.6055;
438.6000;1.3211;1.6151;
438.9000;1.3154;1.6007;
439.2000;1.3187;1.6175;
439.5000;1.3097;1.5935;
439.8000;1.3195;1.6175;
440.1000;1.3171;1.6151;
440.4000;1.3146;1.6007;
440.7000;1.3171;1.6079;
441.0000;1.3138;1.6151;
441.3000;1.3114;1.6127;
441.6000;1.3162;1.6199;
441.9000;1.3236;1.6342;
442.2000;1.3154;1.6127;
442.5000;1.3146;1.6103;
442.8000;1.3162;1.6175;
443.1000;1.3146;1.6151;
443.4000;1.3146;1.6055;
443.7000;1.3154;1.6055;
444.0000;1.3171;1.6103;
444.3000;1.3154;1.6127;
444.6000;1.3154;1.6031;
444.9000;1.3146;1.6055;
445.2000;1.3146;1.6127;
445.5000;1.3162;1.6175;
445.8000;1.3162;1.6271;
446.1000;1.3146;1.6271;
446.4000;1.3146;1.6271;
446.7000;1.3146;1.6199;
447.0000;1.3179;1.6247;
447.3000;1.3171;1.6271;
447.6000;1.3171;1.6247;
447.9000;1.3146;1.6055;
448.2000;1.3146;1.6031;
448.5000;1.3154;1.6175;
448.8000;1.3146;1.6223;
449.1000;1.3138;1.6223;
449.4000;1.3154;1.6271;
449.7000;1.3146;1.6199;
450.0000;1.3130;1.6223;
450.3000;1.3138;1.6199;
450.6000;1.3122;1.6199;
450.9000;1.3154;1.6295;
451.2000;1.3154;1.6295;
451.5000;1.3130;1.6295;
451.8000;1.3146;1.6342;
452.1000;1.3097;1.6342;
452.4000;1.3138;1.6414;
452.7000;1.3162;1.6630;
453.0000;1.3187;1.6726;
453.3000;1.3154;1.6558;
453.6000;1.3154;1.6462;
453.9000;1.3130;1.6414;
454.2000;1.3122;1.6414;
454.5000;1.3122;1.6462;
454.8000;1.3130;1.6486;
455.1000;1.3105;1.6318;
455.4000;1.3146;1.6462;
455.7000;1.3122;1.6438;
456.0000;1.3154;1.6462;
456.3000;1.3162;1.6414;
456.6000;1.3162;1.6438;
456.9000;1.3138;1.6366;
457.2000;1.3154;1.6438;
457.5000;1.3154;1.6390;
457.8000;1.3154;1.6318;
458.1000;1.3179;1.6390;
458.4000;1.3162;1.6390;
458.7000;1.3105;1.6223;
459.0000;1.3130;1.6366;
459.3000;1.3162;1.6390;
459.6000;1.3195;1.6390;
459.9000;1.3146;1.6151;
460.2000;1.3154;1.6151;
460.5000;1.3154;1.6223;
460.8000;1.3154;1.6318;
461.1000;1.3146;1.6318;
461.4000;1.3146;1.6271;
461.7000;1.3154;1.6318;
462.0000;1.3171;1.6318;
462.3000;1.3171;1.6342;
462.6000;1.3162;1.6223;
462.9000;1.3146;1.6247;
463.2000;1.3162;1.6318;
463.5000;1.3171;1.6295;
463.8000;1.3146;1.6079;
464.1000;1.3162;1.6127;
464.4000;1.3138;1.6151;
464.7000;1.3162;1.6247;
465.0000;1.3154;1.6318;
465.3000;1.3130;1.6318;
465.6000;1.3146;1.6366;
465.9000;1.3154;1.6366;
466.2000;1.3146;1.6390;
466.5000;1.3154;1.6438;
466.8000;1.3162;1.6462;
467.1000;1.3162;1.6486;
467.4000;1.3154;1.6534;
467.7000;1.3146;1.6486;
468.0000;1.3146;1.6462;
468.3000;1.3105;1.6342;
468.6000;1.3138;1.6462;
468.9000;1.3114;1.6438;
469.2000;1.3138;1.6486;
469.5000;1.3179;1.6510;
469.8000;1.3171;1.6486;
470.1000;1.3146;1.6462;
470.4000;1.3097;1.6366;
470.7000;1.3154;1.6534;
471.0000;1.3154;1.6630;
471.3000;1.3154;1.6582;
471.6000;1.3154;1.6510;
471.9000;1.3154;1.6486;
472.2000;1.3146;1.6438;
472.5000;1.3171;1.6510;
472.8000;1.3146;1.6414;
473.1000;1.3089;1.6295;
473.4000;1.3146;1.6486;
473.7000;1.3162;1.6486;
474.0000;1.3146;1.6510;
474.3000;1.3138;1.6534;
474.6000;1.3138;1.6462;
474.9000;1.3138;1.6366;
475.2000;1.3195;1.6462;
475.5000;1.3154;1.6247;
475.8000;1.3171;1.6342;
476.1000;1.3179;1.6342;
476.4000;1.3171;1.6390;
476.7000;1.3179;1.6486;
477.0000;1.3154;1.6486;
477.3000;1.3203;1.6582;
477.6000;1.3162;1.6534;
477.9000;1.3154;1.6510;
478.2000;1.3162;1.6510;
478.5000;1.3162;1.6414;
478.8000;1.3146;1.6390;
479.1000;1.3138;1.6486;
479.4000;1.3146;1.6486;
479.7000;1.3146;1.6462;
480.0000;1.3138;1.6462;
480.3000;1.3146;1.6438;
480.6000;1.3138;1.6342;
480.9000;1.3146;1.6271;
481.2000;1.3146;1.6247;
481.5000;1.3154;1.6175;
481.8000;1.3162;1.6175;
482.1000;1.3162;1.6175;
482.4000;1.3122;1.6151;
482.7000;1.3146;1.6295;
483.0000;1.3122;1.6247;
483.3000;1.3154;1.6390;
483.6000;1.3154;1.6342;
483.9000;1.3171;1.6318;
484.2000;1.3138;1.6223;
484.5000;1.3138;1.6223;
484.8000;1.3138;1.6247;
485.1000;1.3146;1.6175;
485.4000;1.3146;1.6247;
485.7000;1.3146;1.6247;
486.0000;1.3154;1.6271;
486.3000;1.3162;1.6295;
486.6000;1.3154;1.6223;
486.9000;1.3146;1.6223;
487.2000;1.3130;1.6223;
487.5000;1.3154;1.6318;
487.8000;1.3179;1.6271;
488.1000;1.3146;1.6223;
488.4000;1.3162;1.6223;
488.7000;1.3154;1.6247;
489.0000;1.3162;1.6342;
489.3000;1.3171;1.6366;
489.6000;1.3122;1.6271;
489.9000;1.3154;1.6414;
490.2000;1.3154;1.6414;
490.5000;1.3146;1.6342;
490.8000;1.3138;1.6295;
491.1000;1.3171;1.6366;
491.4000;1.3171;1.6438;
491.7000;1.3171;1.6414;
492.0000;1.3162;1.6414;
492.3000;1.3089;1.6199;
492.6000;1.3179;1.6390;
492.9000;1.3162;1.6223;
493.2000;1.3179;1.6271;
493.5000;1.3138;1.6175;
493.8000;1.3138;1.6199;
494.1000;1.3268;1.6510;
494.4000;1.3138;1.6247;
494.7000;1.3138;1.6247;
495.0000;1.3162;1.6271;
495.3000;1.3154;1.6318;
495.6000;1.3154;1.6414;
495.9000;1.3179;1.6438;
496.2000;1.3154;1.6390;
496.5000;1.3154;1.6438;
496.8000;1.3040;1.6079;
497.1000;1.3130;1.6342;
497.4000;1.3138;1.6366;
497.7000;1.3154;1.6438;
498.0000;1.3138;1.6462;
498.3000;1.3138;1.6438;
498.6000;1.3187;1.6438;
498.9000;1.3162;1.6342;
499.2000;1.3162;1.6366;
499.5000;1.3138;1.6318;
499.8000;1.3114;1.6223;
500.1000;1.3146;1.6366;
500.4000;1.3122;1.6390;
500.7000;1.3154;1.6390;
501.0000;1.3138;1.6342;
501.3000;1.3138;1.6247;
501.6000;1.3154;1.6223;
501.9000;1.3162;1.6271;
502.2000;1.3122;1.6223;
502.5000;1.3154;1.6247;
502.8000;1.3171;1.6223;
503.1000;1.3146;1.6151;
503.4000;1.3162;1.6199;
503.7000;1.3146;1.6175;
504.0000;1.3171;1.6223;
504.3000;1.3146;1.6199;
504.6000;1.3154;1.6271;
504.9000;1.3122;1.6175;
505.2000;1.3154;1.6199;
505.5000;1.3162;1.6295;
505.8000;1.3162;1.6366;
506.1000;1.3130;1.6271;
506.4000;1.3154;1.6295;
506.7000;1.3130;1.6271;
507.0000;1.3114;1.6271;
507.3000;1.3154;1.6438;
507.6000;1.3154;1.6414;
507.9000;1.3179;1.6438;
508.2000;1.3162;1.6414;
508.5000;1.3154;1.6414;
508.8000;1.3130;1.6462;
509.1000;1.3146;1.6342;
509.4000;1.3146;1.6318;
509.7000;1.3162;1.6318;
510.0000;1.3130;1.6271;
510.3000;1.3138;1.6342;
510.6000;1.3130;1.6223;
510.9000;1.3130;1.6223;
511.2000;1.3154;1.6342;
511.5000;1.3114;1.6247;
511.8000;1.3162;1.6318;
512.1000;1.3154;1.6342;
512.4000;1.3130;1.6342;
512.7000;1.3138;1.6390;
513.0000;1.3154;1.6390;
513.3000;1.3162;1.6438;
513.6000;1.3146;1.6366;
513.9000;1.3138;1.6342;
514.2000;1.3130;1.6342;
514.5000;1.3146;1.6366;
514.8000;1.3138;1.6342;
515.1000;1.3154;1.6366;
515.4000;1.3236;1.6486;
515.7000;1.3154;1.6295;
516.0000;1.3162;1.6414;
516.3000;1.3073;1.6247;
516.6000;1.3154;1.6414;
516.9000;1.3171;1.6271;
517.2000;1.3130;1.6199;
517.5000;1.3162;1.6151;
517.8000;1.3146;1.6151;
518.1000;1.3154;1.6103;
518.4000;1.3138;1.5983;
518.7000;1.3162;1.6127;
519.0000;1.3138;1.6295;
519.3000;1.3154;1.6366;
519.6000;1.3146;1.6342;
519.9000;1.3130;1.6271;
520.2000;1.3154;1.6271;
520.5000;1.3154;1.6199;
520.8000;1.3146;1.6271;
521.1000;1.3146;1.6199;
521.4000;1.3114;1.6079;
521.7000;1.3146;1.6223;
522.0000;1.3154;1.6271;
522.3000;1.3154;1.6199;
522.6000;1.3146;1.6151;
522.9000;1.3162;1.6199;
523.2000;1.3154;1.6199;
523.5000;1.3171;1.6271;
523.8000;1.3162;1.6127;
524.1000;1.3146;1.6031;
524.4000;1.3162;1.6007;
524.7000;1.3162;1.6127;
525.0000;1.3171;1.6127;
525.3000;1.3211;1.6271;
525.6000;1.3122;1.6031;
525.9000;1.3260;1.6438;
526.2000;1.3162;1.6127;
526.5000;1.3138;1.6079;
526.8000;1.3138;1.6055;
527.1000;1.3154;1.6175;
527.4000;1.3154;1.6199;
527.7000;1.3162;1.6223;
528.0000;1.3187;1.6271;
528.3000;1.3154;1.6199;
528.6000;1.3154;1.6175;
528.9000;1.3154;1.6127;
529.2000;1.3162;1.6223;
529.5000;1.3171;1.6223;
529.8000;1.3154;1.6151;
530.1000;1.3114;1.6031;
530.4000;1.3122;1.6031;
530.7000;1.3105;1.5959;
531.0000;1.3171;1.6079;
531.3000;1.3146;1.6175;
531.6000;1.3089;1.6055;
531.9000;1.3122;1.6079;
532.2000;1.3154;1.6175;
532.5000;1.3122;1.6151;
532.8000;1.3138;1.6199;
533.1000;1.3211;1.6486;
533.4000;1.3146;1.6342;
533.7000;1.3228;1.6558;
534.0000;1.3138;1.6318;
534.3000;1.3138;1.6295;
534.6000;1.3138;1.6318;
534.9000;1.3162;1.6390;
535.2000;1.3138;1.6318;
535.5000;1.3154;1.6366;
535.8000;1.3138;1.6366;
536.1000;1.3162;1.6366;
536.4000;1.3130;1.6390;
536.7000;1.3146;1.6366;
537.0000;1.3154;1.6366;
537.3000;1.3162;1.6414;
537.6000;1.3162;1.6462;
537.9000;1.3138;1.6342;
538.2000;1.3146;1.6295;
538.5000;1.3146;1.6247;
538.8000;1.3130;1.6151;
539.1000;1.3154;1.6079;
539.4000;1.3146;1.6127;
539.7000;1.3154;1.6151;
540.0000;1.3146;1.6007;
540.3000;1.3171;1.6007;
540.6000;1.3171;1.6055;
540.9000;1.3146;1.5983;
541.2000;1.3154;1.6127;
541.5000;1.3105;1.6055;
541.8000;1.3138;1.6103;
542.1000;1.3146;1.6199;
542.4000;1.3146;1.6223;
542.7000;1.3146;1.6295;
543.0000;1.3122;1.6295;
543.3000;1.3146;1.6247;
543.6000;1.3154;1.6366;
543.9000;1.3162;1.6414;
544.2000;1.3146;1.6342;
544.5000;1.3138;1.6295;
544.8000;1.3171;1.6271;
545.1000;1.3154;1.6175;
545.4000;1.3154;1.6199;
545.7000;1.3130;1.6055;
546.0000;1.3138;1.6079;
546.3000;1.3146;1.6031;
546.6000;1.3146;1.6175;
546.9000;1.3138;1.6175;
547.2000;1.3146;1.6223;
547.5000;1.3162;1.6342;
547.8000;1.3122;1.6414;
548.1000;1.3252;1.6774;
548.4000;1.3154;1.6582;
548.7000;1.3040;1.6271;
549.0000;1.3154;1.6510;
549.3000;1.3154;1.6510;
549.6000;1.3195;1.6582;
549.9000;1.3146;1.6486;
550.2000;1.3228;1.6654;
550.5000;1.3162;1.6438;
550.8000;1.3138;1.6366;
551.1000;1.3187;1.6414;
551.4000;1.3146;1.6271;
551.7000;1.3138;1.6247;
552.0000;1.3138;1.6271;
552.3000;1.3138;1.6342;
552.6000;1.3179;1.6438;
552.9000;1.3179;1.6390;
553.2000;1.3146;1.6318;
553.5000;1.3154;1.6295;
553.8000;1.3154;1.6295;
554.1000;1.3162;1.6318;
554.4000;1.3138;1.6199;
554.7000;1.3146;1.6247;
555.0000;1.3154;1.6318;
555.3000;1.3138;1.6295;
555.6000;1.3105;1.6247;
555.9000;1.3130;1.6295;
556.2000;1.3146;1.6318;
556.5000;1.3138;1.6318;
556.8000;1.3122;1.6342;
557.1000;1.3114;1.6271;
557.4000;1.3146;1.6342;
557.7000;1.3162;1.6390;
558.0000;1.3138;1.6342;
558.3000;1.3138;1.6366;
558.6000;1.3154;1.6318;
558.9000;1.3146;1.6318;
559.2000;1.3154;1.6247;
559.5000;1.3154;1.6247;
559.8000;1.3146;1.6199;
560.1000;1.3154;1.6295;
560.4000;1.3146;1.6247;
560.7000;1.3138;1.6175;
561.0000;1.3146;1.6199;
561.3000;1.3138;1.6199;
561.6000;1.3154;1.6199;
561.9000;1.3146;1.6175;
562.2000;1.3138;1.6175;
562.5000;1.3162;1.6342;
562.8000;1.3154;1.6295;
563.1000;1.3138;1.6223;
563.4000;1.3146;1.6223;
563.7000;1.3130;1.6199;
564.0000;1.3154;1.6295;
564.3000;1.3146;1.6271;
564.6000;1.3146;1.6318;
564.9000;1.3122;1.6223;
565.2000;1.3146;1.6318;
565.5000;1.3146;1.6247;
565.8000;1.3130;1.6295;
566.1000;1.3138;1.6271;
566.4000;1.3154;1.6390;
566.7000;1.3162;1.6414;
567.0000;1.3146;1.6366;
567.3000;1.3146;1.6414;
567.6000;1.3154;1.6486;
567.9000;1.3122;1.6414;
568.2000;1.3081;1.6295;
568.5000;1.3138;1.6366;
568.8000;1.3105;1.6295;
569.1000;1.3146;1.6438;
569.4000;1.3138;1.6390;
569.7000;1.3138;1.6366;
570.0000;1.3130;1.6295;
570.3000;1.3146;1.6247;
570.6000;1.3138;1.6247;
570.9000;1.3130;1.6271;
571.2000;1.3122;1.6318;
571.5000;1.3130;1.6342;
571.8000;1.3130;1.6342;
572.1000;1.3130;1.6366;
572.4000;1.3146;1.6390;
572.7000;1.3146;1.6438;
573.0000;1.3154;1.6438;
573.3000;1.3138;1.6318;
573.6000;1.3146;1.6247;
573.9000;1.3146;1.6318;
574.2000;1.3154;1.6366;
574.5000;1.3154;1.6366;
574.8000;1.3146;1.6366;
575.1000;1.3138;1.6414;
575.4000;1.3146;1.6390;
575.7000;1.3154;1.6414;
576.0000;1.3130;1.6462;
576.3000;1.3130;1.6342;
576.6000;1.3130;1.6318;
576.9000;1.3130;1.6318;
577.2000;1.3138;1.6318;
577.5000;1.3146;1.6342;
577.8000;1.3138;1.6295;
578.1000;1.3154;1.6295;
578.4000;1.3162;1.6271;
578.7000;1.3146;1.6271;
579.0000;1.3138;1.6271;
579.3000;1.3130;1.6295;
579.6000;1.3154;1.6318;
579.9000;1.3130;1.6318;
580.2000;1.3122;1.6414;
580.5000;1.3130;1.6462;
580.8000;1.3130;1.6486;
581.1000;1.3130;1.6414;
581.4000;1.3138;1.6366;
581.7000;1.3130;1.6342;
582.0000;1.3146;1.6342;
582.3000;1.3138;1.6342;
582.6000;1.3162;1.6438;
582.9000;1.3162;1.6390;
583.2000;1.3162;1.6342;
583.5000;1.3122;1.6223;
583.8000;1.3146;1.6271;
584.1000;1.3146;1.6175;
584.4000;1.3114;1.6031;
584.7000;1.3162;1.6103;
585.0000;1.3162;1.6175;
585.3000;1.3138;1.6199;
585.6000;1.3162;1.6199;
585.9000;1.3138;1.6175;
586.2000;1.3138;1.6175;
586.5000;1.3252;1.6438;
586.8000;1.3154;1.6175;
587.1000;1.3146;1.6103;
587.4000;1.3130;1.6175;
587.7000;1.3138;1.6127;
588.0000;1.3146;1.6151;
588.3000;1.3154;1.6271;
588.6000;1.3146;1.6223;
588.9000;1.3130;1.6247;
589.2000;1.3171;1.6390;
589.5000;1.3146;1.6318;
589.8000;1.3162;1.6438;
590.1000;1.3122;1.6390;
590.4000;1.3138;1.6342;
590.7000;1.3138;1.6366;
591.0000;1.3138;1.6295;
591.3000;1.3122;1.6247;
591.6000;1.3122;1.6247;
591.9000;1.3105;1.6151;
592.2000;1.3130;1.6271;
592.5000;1.3122;1.6199;
592.8000;1.3236;1.6342;
593.1000;1.3081;1.5911;
593.4000;1.3130;1.6007;
593.7000;1.3114;1.5935;
594.0000;1.3130;1.6007;
594.3000;1.3138;1.6055;
594.6000;1.3138;1.5935;
594.9000;1.3171;1.6055;
595.2000;1.3154;1.6175;
595.5000;1.3130;1.6199;
595.8000;1.3146;1.6318;
596.1000;1.3146;1.6366;
596.4000;1.3138;1.6390;
596.7000;1.3114;1.6342;
597.0000;1.3154;1.6462;
597.3000;1.3138;1.6366;
597.6000;1.3048;1.6079;
597.9000;1.3146;1.6295;
598.2000;1.3130;1.6247;
598.5000;1.3130;1.6295;
598.8000;1.3130;1.6271;
599.1000;1.3138;1.6295;
599.4000;1.3130;1.6295;
599.7000;1.3179;1.6390;
600.0000;1.3138;1.6199;
600.3000;1.3114;1.6031;
600.6000;1.3089;1.5983;
600.9000;1.3008;1.5767;
601.2000;1.2886;1.5480;
601.5000;1.2853;1.5480;
601.8000;1.2617;1.5001;
602.1000;1.2519;1.4857;
602.4000;1.2365;1.4689;
602.7000;1.2234;1.4449;
603.0000;1.2120;1.4306;
603.3000;1.2007;1.4162;
603.6000;1.1933;1.4114;
603.9000;1.1787;1.3826;
604.2000;1.1722;1.3778;
604.5000;1.1665;1.3778;
604.8000;1.1600;1.3683;
605.1000;1.1510;1.3563;
605.4000;1.1437;1.3467;
605.7000;1.1355;1.3299;
606.0000;1.1290;1.3323;
606.3000;1.1233;1.3323;
606.6000;1.1144;1.3179;
606.9000;1.1087;1.3108;
607.2000;1.1022;1.3012;
607.5000;1.0973;1.2964;
607.8000;1.0916;1.3084;
608.1000;1.0859;1.3108;
608.4000;1.0794;1.3012;
608.7000;1.0777;1.2964;
609.0000;1.0663;1.2748;
609.3000;1.0647;1.2844;
609.6000;1.0623;1.2916;
609.9000;1.0549;1.2892;
610.2000;1.0517;1.2940;
610.5000;1.0452;1.2916;
610.8000;1.0411;1.2868;
611.1000;1.0395;1.2772;
611.4000;1.0338;1.2652;
611.7000;1.0265;1.2484;
612.0000;1.0232;1.2532;
612.3000;1.0208;1.2413;
612.6000;1.0175;1.2461;
612.9000;1.0142;1.2484;
613.2000;1.0102;1.2556;
613.5000;0.9980;1.2317;
613.8000;1.0012;1.2461;
614.1000;0.9996;1.2508;
614.4000;0.9931;1.2389;
614.7000;0.9963;1.2461;
615.0000;0.9898;1.2461;
615.3000;0.9858;1.2365;
615.6000;0.9784;1.2221;
615.9000;0.9776;1.2173;
616.2000;0.9768;1.2293;
616.5000;0.9719;1.2293;
616.8000;0.9695;1.2293;
617.1000;0.9597;1.2077;
617.4000;0.9630;1.2269;
617.7000;0.9581;1.2245;
618.0000;0.9581;1.2221;
618.3000;0.9540;1.2197;
618.6000;0.9516;1.2173;
618.9000;0.9516;1.2341;
619.2000;0.9475;1.2317;
619.5000;0.9451;1.2341;
619.8000;0.9442;1.2437;
620.1000;0.9434;1.2437;
620.4000;0.9394;1.2413;
620.7000;0.9345;1.2317;
621.0000;0.9337;1.2293;
621.3000;0.9312;1.2269;
621.6000;0.9288;1.2269;
621.9000;0.9255;1.2221;
622.2000;0.9255;1.2221;
622.5000;0.9198;1.2149;
622.8000;0.9255;1.2173;
623.1000;0.9109;1.1909;
623.4000;0.9239;1.2269;
623.7000;0.9092;1.1933;
624.0000;0.9174;1.2173;
624.3000;0.9076;1.1957;
624.6000;0.9035;1.1837;
624.9000;0.9044;1.1861;
625.2000;0.9027;1.1933;
625.5000;0.9019;1.1957;
625.8000;0.8921;1.1861;
626.1000;0.8995;1.1981;
626.4000;0.8946;1.1957;
626.7000;0.8881;1.1909;
627.0000;0.8995;1.2245;
627.3000;0.8881;1.1957;
627.6000;0.8897;1.1933;
627.9000;0.8881;1.1933;
628.2000;0.8873;1.1909;
628.5000;0.8840;1.1909;
628.8000;0.8816;1.1909;
629.1000;0.8832;1.1933;
629.4000;0.8807;1.1981;
629.7000;0.8783;1.2077;
630.0000;0.8775;1.2245;
630.3000;0.8775;1.2341;
630.6000;0.8742;1.2245;
630.9000;0.8718;1.2269;
631.2000;0.8685;1.2125;
631.5000;0.8702;1.2221;
631.8000;0.8710;1.2173;
632.1000;0.8588;1.1861;
632.4000;0.8661;1.2029;
632.7000;0.8653;1.2005;
633.0000;0.8628;1.2005;
633.3000;0.8612;1.1909;
633.6000;0.8571;1.1814;
633.9000;0.8563;1.1814;
634.2000;0.8604;1.2053;
634.5000;0.8539;1.1861;
634.8000;0.8531;1.1957;
635.1000;0.8555;1.2029;
635.4000;0.8514;1.1933;
635.7000;0.8490;1.1909;
636.0000;0.8498;1.1933;
636.3000;0.8474;1.1957;
636.6000;0.8474;1.2053;
636.9000;0.8466;1.2005;
637.2000;0.8466;1.2029;
637.5000;0.8409;1.1909;
637.8000;0.8409;1.1909;
638.1000;0.8425;1.1957;
638.4000;0.8425;1.1909;
638.7000;0.8409;1.2005;
639.0000;0.8441;1.2029;
639.3000;0.8392;1.1957;
639.6000;0.8376;1.1957;
639.9000;0.8360;1.1909;
640.2000;0.8344;1.1981;
640.5000;0.8335;1.2005;
640.8000;0.8327;1.1981;
641.1000;0.8311;1.1933;
641.4000;0.8352;1.2077;
641.7000;0.8311;1.1909;
642.0000;0.8295;1.1933;
642.3000;0.8246;1.1814;
642.6000;0.8270;1.1933;
642.9000;0.8311;1.2005;
643.2000;0.8221;1.1766;
643.5000;0.8181;1.1718;
643.8000;0.8221;1.1837;
644.1000;0.8230;1.1837;
644.4000;0.8230;1.1718;
644.7000;0.8205;1.1622;
645.0000;0.8173;1.1622;
645.3000;0.8197;1.1670;
645.6000;0.8181;1.1670;
645.9000;0.8148;1.1622;
646.2000;0.8148;1.1670;
646.5000;0.8140;1.1694;
646.8000;0.8140;1.1574;
647.1000;0.8173;1.1646;
647.4000;0.8099;1.1550;
647.7000;0.8116;1.1670;
648.0000;0.8067;1.1574;
648.3000;0.8107;1.1766;
648.6000;0.8075;1.1837;
648.9000;0.8083;1.1933;
649.2000;0.8018;1.1837;
649.5000;0.8091;1.1933;
649.8000;0.8075;1.1885;
650.1000;0.8059;1.1957;
650.4000;0.8050;1.1981;
650.7000;0.8107;1.2101;
651.0000;0.8042;1.1885;
651.3000;0.8010;1.1885;
651.6000;0.8010;1.1861;
651.9000;0.8026;1.2005;
652.2000;0.8002;1.2053;
652.5000;0.8010;1.2005;
652.8000;0.8002;1.1933;
653.1000;0.7993;1.1885;
653.4000;0.8018;1.1933;
653.7000;0.7969;1.1909;
654.0000;0.7977;1.2005;
654.3000;0.7937;1.1981;
654.6000;0.7953;1.2029;
654.9000;0.7937;1.2053;
655.2000;0.7945;1.2077;
655.5000;0.7945;1.2101;
655.8000;0.7937;1.2053;
656.1000;0.7937;1.2101;
656.4000;0.7928;1.2125;
656.7000;0.7904;1.2029;
657.0000;0.7896;1.2005;
657.3000;0.7904;1.2053;
657.6000;0.7896;1.1957;
657.9000;0.7863;1.1933;
658.2000;0.7863;1.2005;
658.5000;0.7863;1.1933;
658.8000;0.7855;1.1957;
659.1000;0.7847;1.1885;
659.4000;0.7855;1.1933;
659.7000;0.7863;1.2029;
660.0000;0.7814;1.1885;
660.3000;0.7798;1.1837;
660.6000;0.7823;1.1957;
660.9000;0.7823;1.1981;
661.2000;0.7798;1.1909;
661.5000;0.7790;1.1814;
661.8000;0.7871;1.2077;
662.1000;0.7741;1.1718;
662.4000;0.7790;1.1861;
662.7000;0.7725;1.1766;
663.0000;0.7774;1.1885;
663.3000;0.7782;1.1885;
663.6000;0.7814;1.2005;
663.9000;0.7749;1.1885;
664.2000;0.7717;1.1814;
664.5000;0.7766;1.1909;
664.8000;0.7774;1.2005;
665.1000;0.7814;1.2221;
665.4000;0.7741;1.2125;
665.7000;0.7733;1.2101;
666.0000;0.7749;1.2245;
666.3000;0.7741;1.2149;
666.6000;0.7717;1.2077;
666.9000;0.7733;1.2101;
667.2000;0.7725;1.2005;
667.5000;0.7741;1.2053;
667.8000;0.7684;1.2005;
668.1000;0.7692;1.2005;
668.4000;0.7676;1.2005;
668.7000;0.7676;1.2149;
669.0000;0.7676;1.2101;
669.3000;0.7668;1.2125;
669.6000;0.7660;1.2077;
669.9000;0.7635;1.2077;
670.2000;0.7643;1.2101;
670.5000;0.7676;1.2245;
670.8000;0.7652;1.2269;
671.1000;0.7643;1.2269;
671.4000;0.7643;1.2125;
671.7000;0.7627;1.2005;
672.0000;0.7619;1.2101;
672.3000;0.7611;1.2053;
672.6000;0.7595;1.2005;
672.9000;0.7611;1.2005;
673.2000;0.7603;1.1981;
673.5000;0.7611;1.2125;
673.8000;0.7603;1.2101;
674.1000;0.7603;1.2077;
674.4000;0.7595;1.2125;
674.7000;0.7586;1.2053;
675.0000;0.7554;1.1909;
675.3000;0.7570;1.1957;
675.6000;0.7578;1.2077;
675.9000;0.7586;1.2101;
676.2000;0.7578;1.2029;
676.5000;0.7586;1.1981;
676.8000;0.7570;1.1933;
677.1000;0.7570;1.1885;
677.4000;0.7554;1.1909;
677.7000;0.7554;1.1957;
678.0000;0.7546;1.1981;
678.3000;0.7521;1.1933;
678.6000;0.7554;1.2077;
678.9000;0.7505;1.1957;
679.2000;0.7530;1.2005;
679.5000;0.7513;1.2029;
679.8000;0.7530;1.2125;
680.1000;0.7530;1.2077;
680.4000;0.7513;1.2053;
680.7000;0.7521;1.2029;
681.0000;0.7521;1.2005;
681.3000;0.7505;1.1981;
681.6000;0.7505;1.2005;
681.9000;0.7481;1.2005;
682.2000;0.7497;1.1981;
682.5000;0.7595;1.2269;
682.8000;0.7505;1.2101;
683.1000;0.7497;1.2101;
683.4000;0.7473;1.2173;
683.7000;0.7497;1.2221;
684.0000;0.7456;1.2077;
684.3000;0.7464;1.2053;
684.6000;0.7481;1.2029;
684.9000;0.7440;1.1885;
685.2000;0.7464;1.1981;
685.5000;0.7456;1.1957;
685.8000;0.7448;1.2029;
686.1000;0.7448;1.2077;
686.4000;0.7440;1.2053;
686.7000;0.7407;1.1981;
687.0000;0.7424;1.1981;
687.3000;0.7424;1.1909;
687.6000;0.7464;1.2149;
687.9000;0.7416;1.2125;
688.2000;0.7481;1.2341;
688.5000;0.7407;1.2173;
688.8000;0.7399;1.2101;
689.1000;0.7399;1.2149;
689.4000;0.7513;1.2461;
689.7000;0.7391;1.2101;
690.0000;0.7399;1.2005;
690.3000;0.7407;1.2005;
690.6000;0.7383;1.1909;
690.9000;0.7375;1.1933;
691.2000;0.7391;1.1861;
691.5000;0.7407;1.2005;
691.8000;0.7383;1.1885;
692.1000;0.7375;1.1981;
692.4000;0.7383;1.1933;
692.7000;0.7359;1.1861;
693.0000;0.7359;1.1909;
693.3000;0.7359;1.2029;
693.6000;0.7350;1.2053;
693.9000;0.7350;1.2101;
694.2000;0.7359;1.2029;
694.5000;0.7334;1.1981;
694.8000;0.7342;1.1981;
695.1000;0.7342;1.1933;
695.4000;0.7342;1.1981;
695.7000;0.7350;1.2005;
696.0000;0.7342;1.1981;
696.3000;0.7359;1.2053;
696.6000;0.7350;1.2029;
696.9000;0.7359;1.2101;
697.2000;0.7326;1.2125;
697.5000;0.7326;1.2125;
697.8000;0.7342;1.2029;
698.1000;0.7342;1.2101;
698.4000;0.7318;1.1981;
698.7000;0.7302;1.2053;
699.0000;0.7310;1.1933;
699.3000;0.7269;1.1861;
699.6000;0.7326;1.2029;
699.9000;0.7285;1.2053;
700.2000;0.7293;1.2077;
700.5000;0.7302;1.2101;
700.8000;0.7293;1.2101;
701.1000;0.7285;1.2005;
701.4000;0.7285;1.1981;
701.7000;0.7285;1.2077;
702.0000;0.7285;1.2005;
702.3000;0.7302;1.2029;
702.6000;0.7253;1.1957;
702.9000;0.7253;1.1933;
703.2000;0.7261;1.2029;
703.5000;0.7285;1.2125;
703.8000;0.7228;1.1981;
704.1000;0.7245;1.2029;
704.4000;0.7212;1.1909;
704.7000;0.7245;1.2005;
705.0000;0.7253;1.2029;
705.3000;0.7350;1.2245;
705.6000;0.7261;1.1981;
705.9000;0.7236;1.2005;
706.2000;0.7236;1.2053;
706.5000;0.7245;1.1957;
706.8000;0.7236;1.1885;
707.1000;0.7204;1.1837;
707.4000;0.7228;1.1933;
707.7000;0.7318;1.2125;
708.0000;0.7220;1.1909;
708.3000;0.7228;1.1885;
708.6000;0.7212;1.1837;
708.9000;0.7188;1.1694;
709.2000;0.7204;1.1766;
709.5000;0.7196;1.1814;
709.8000;0.7204;1.1909;
710.1000;0.7204;1.1981;
710.4000;0.7220;1.2053;
710.7000;0.7245;1.2197;
711.0000;0.7171;1.2005;
711.3000;0.7196;1.2053;
711.6000;0.7196;1.2053;
711.9000;0.7196;1.2077;
712.2000;0.7196;1.2101;
712.5000;0.7196;1.2029;
712.8000;0.7188;1.2029;
713.1000;0.7179;1.2005;
713.4000;0.7188;1.2053;
713.7000;0.7171;1.2029;
714.0000;0.7188;1.2077;
714.3000;0.7171;1.2029;
714.6000;0.7179;1.2077;
714.9000;0.7155;1.2053;
715.2000;0.7147;1.2053;
715.5000;0.7171;1.2053;
715.8000;0.7212;1.2125;
716.1000;0.7171;1.2077;
716.4000;0.7179;1.2149;
716.7000;0.7155;1.2197;
717.0000;0.7163;1.2293;
717.3000;0.7155;1.2317;
717.6000;0.7139;1.2221;
717.9000;0.7139;1.2221;
718.2000;0.7139;1.2293;
718.5000;0.7139;1.2341;
718.8000;0.7147;1.2221;
719.1000;0.7131;1.2125;
719.4000;0.7147;1.2197;
719.7000;0.7123;1.2197;
720.0000;0.7114;1.2125;
720.3000;0.7139;1.2173;
720.6000;0.7139;1.2173;
720.9000;0.7228;1.2437;
721.2000;0.7139;1.2197;
721.5000;0.7131;1.2197;
721.8000;0.7139;1.2221;
722.1000;0.7131;1.2365;
722.4000;0.7155;1.2437;
722.7000;0.7106;1.2269;
723.0000;0.7123;1.2293;
723.3000;0.7131;1.2221;
723.6000;0.7123;1.2197;
723.9000;0.7114;1.2317;
724.2000;0.7123;1.2341;
724.5000;0.7057;1.2077;
724.8000;0.7098;1.2173;
725.1000;0.7106;1.2269;
725.4000;0.7098;1.2365;
725.7000;0.7106;1.2389;
726.0000;0.7106;1.2317;
726.3000;0.7155;1.2413;
726.6000;0.7090;1.2197;
726.9000;0.7090;1.2197;
727.2000;0.7098;1.2101;
727.5000;0.7074;1.2077;
727.8000;0.7082;1.2149;
728.1000;0.7139;1.2245;
728.4000;0.7057;1.2029;
728.7000;0.7057;1.2125;
729.0000;0.7074;1.2125;
729.3000;0.7114;1.2221;
729.6000;0.7049;1.2125;
729.9000;0.7074;1.2221;
730.2000;0.7057;1.2173;
730.5000;0.7057;1.2149;
730.8000;0.7057;1.2101;
731.1000;0.7066;1.2245;
731.4000;0.7066;1.2269;
731.7000;0.7106;1.2293;
732.0000;0.7066;1.2197;
732.3000;0.6992;1.2029;
732.6000;0.7017;1.1981;
732.9000;0.7041;1.2005;
733.2000;0.7009;1.1933;
733.5000;0.7049;1.2077;
733.8000;0.7033;1.1933;
734.1000;0.7033;1.1933;
734.4000;0.7057;1.2077;
734.7000;0.7033;1.2005;
735.0000;0.7106;1.2221;
735.3000;0.7033;1.2101;
735.6000;0.7049;1.2053;
735.9000;0.7057;1.2029;
736.2000;0.7025;1.1957;
736.5000;0.7017;1.1981;
736.8000;0.7025;1.1957;
737.1000;0.7041;1.2125;
737.4000;0.7000;1.1981;
737.7000;0.7009;1.2077;
738.0000;0.6968;1.2029;
738.3000;0.7017;1.2077;
738.6000;0.7025;1.2101;
738.9000;0.7098;1.2197;
739.2000;0.7017;1.2029;
739.5000;0.6952;1.1957;
739.8000;0.6992;1.2053;
740.1000;0.7025;1.2197;
740.4000;0.7000;1.2245;
740.7000;0.7009;1.2269;
741.0000;0.6992;1.2269;
741.3000;0.7009;1.2341;
741.6000;0.6984;1.2197;
741.9000;0.6992;1.2269;
742.2000;0.6992;1.2245;
742.5000;0.7017;1.2293;
742.8000;0.7025;1.2293;
743.1000;0.7000;1.2197;
743.4000;0.6976;1.2149;
743.7000;0.7009;1.2245;
744.0000;0.7041;1.2269;
744.3000;0.6976;1.2101;
744.6000;0.6968;1.2173;
744.9000;0.7009;1.2293;
745.2000;0.6984;1.2341;
745.5000;0.6960;1.2365;
745.8000;0.7025;1.2484;
746.1000;0.6992;1.2341;
746.4000;0.6984;1.2341;
746.7000;0.6984;1.2317;
747.0000;0.7000;1.2221;
747.3000;0.6976;1.2125;
747.6000;0.6960;1.2077;
747.9000;0.7000;1.2149;
748.2000;0.6976;1.2125;
748.5000;0.7009;1.2197;
748.8000;0.6976;1.2125;
749.1000;0.6992;1.2173;
749.4000;0.6968;1.2125;
749.7000;0.6976;1.2077;
750.0000;0.6992;1.2149;
750.3000;0.6952;1.2029;
750.6000;0.6960;1.1909;
750.9000;0.6935;1.1766;
751.2000;0.6968;1.1861;
751.5000;0.6984;1.2077;
751.8000;0.6968;1.2029;
752.1000;0.6960;1.2053;
752.4000;0.7041;1.2413;
752.7000;0.6935;1.2221;
753.0000;0.6960;1.2317;
753.3000;0.6935;1.2197;
753.6000;0.6943;1.2245;
753.9000;0.6952;1.2341;
754.2000;0.6960;1.2365;
754.5000;0.6927;1.2197;
754.8000;0.6935;1.2197;
755.1000;0.6976;1.2341;
755.4000;0.6943;1.2221;
755.7000;0.7017;1.2389;
756.0000;0.6968;1.2245;
756.3000;0.6927;1.2173;
756.6000;0.6927;1.2245;
756.9000;0.6935;1.2341;
757.2000;0.6992;1.2484;
757.5000;0.6927;1.2317;
757.8000;0.6935;1.2221;
758.1000;0.6919;1.2101;
758.4000;0.6903;1.2005;
758.7000;0.6927;1.2149;
759.0000;0.6952;1.2341;
759.3000;0.6927;1.2293;
759.6000;0.6878;1.2269;
759.9000;0.6968;1.2556;
760.2000;0.6919;1.2461;
760.5000;0.6919;1.2413;
760.8000;0.6911;1.2365;
761.1000;0.6903;1.2317;
761.4000;0.6903;1.2245;
761.7000;0.6895;1.2293;
762.0000;0.6927;1.2365;
762.3000;0.6919;1.2413;
762.6000;0.6903;1.2341;
762.9000;0.6919;1.2269;
763.2000;0.6886;1.2125;
763.5000;0.6911;1.2173;
763.8000;0.6886;1.2029;
764.1000;0.6919;1.2125;
764.4000;0.6919;1.2149;
764.7000;0.6886;1.2101;
765.0000;0.6968;1.2293;
765.3000;0.6895;1.2221;
765.6000;0.6895;1.2293;
765.9000;0.6984;1.2484;
766.2000;0.6895;1.2317;
766.5000;0.6886;1.2341;
766.8000;0.6911;1.2365;
767.1000;0.6919;1.2317;
767.4000;0.6886;1.2317;
767.7000;0.6903;1.2245;
768.0000;0.6943;1.2245;
768.3000;0.6878;1.2077;
768.6000;0.6886;1.2101;
768.9000;0.6878;1.2029;
769.2000;0.6886;1.2149;
769.5000;0.6789;1.1933;
769.8000;0.6886;1.2173;
770.1000;0.6862;1.2197;
770.4000;0.6870;1.2221;
770.7000;0.6895;1.2245;
771.0000;0.6976;1.2461;
771.3000;0.6935;1.2389;
771.6000;0.6886;1.2245;
771.9000;0.6895;1.2317;
772.2000;0.6862;1.2221;
772.5000;0.6886;1.2341;
772.8000;0.6886;1.2317;
773.1000;0.6846;1.2365;
773.4000;0.6895;1.2437;
773.7000;0.6862;1.2293;
774.0000;0.6846;1.2197;
774.3000;0.6935;1.2389;
774.6000;0.6870;1.2269;
774.9000;0.6854;1.2245;
775.2000;0.6862;1.2365;
775.5000;0.6976;1.2676;
775.8000;0.6919;1.2484;
776.1000;0.6854;1.2317;
776.4000;0.6854;1.2293;
776.7000;0.6886;1.2341;
777.0000;0.6886;1.2365;
777.3000;0.6846;1.2365;
777.6000;0.6846;1.2437;
777.9000;0.6846;1.2461;
778.2000;0.6927;1.2556;
778.5000;0.6862;1.2413;
778.8000;0.6862;1.2365;
779.1000;0.6903;1.2484;
779.4000;0.6854;1.2317;
779.7000;0.6838;1.2173;
780.0000;0.6878;1.2221;
780.3000;0.6756;1.1885;
780.6000;0.6838;1.2077;
780.9000;0.6838;1.2005;
781.2000;0.6838;1.2005;
781.5000;0.6838;1.1981;
781.8000;0.6829;1.2053;
782.1000;0.6838;1.2101;
782.4000;0.6797;1.2077;
782.7000;0.6829;1.2101;
783.0000;0.6854;1.2173;
783.3000;0.6829;1.2077;
783.6000;0.6878;1.2269;
783.9000;0.6838;1.2077;
784.2000;0.6829;1.2101;
784.5000;0.6854;1.2221;
784.8000;0.6838;1.2149;
785.1000;0.6813;1.2173;
785.4000;0.6821;1.2245;
785.7000;0.6821;1.2317;
786.0000;0.6829;1.2341;
786.3000;0.6829;1.2293;
786.6000;0.6805;1.2293;
786.9000;0.6829;1.2389;
787.2000;0.6821;1.2389;
787.5000;0.6829;1.2365;
787.8000;0.6821;1.2341;
788.1000;0.6805;1.2293;
788.4000;0.6829;1.2413;
788.7000;0.6821;1.2365;
789.0000;0.6821;1.2341;
789.3000;0.6821;1.2317;
789.6000;0.6821;1.2341;
789.9000;0.6813;1.2293;
790.2000;0.6797;1.2317;
790.5000;0.6805;1.2341;
790.8000;0.6821;1.2317;
791.1000;0.6805;1.2245;
791.4000;0.6813;1.2317;
791.7000;0.6805;1.2293;
792.0000;0.6805;1.2269;
792.3000;0.6797;1.2245;
792.6000;0.6805;1.2197;
792.9000;0.6805;1.2077;
793.2000;0.6813;1.2197;
793.5000;0.6805;1.2197;
793.8000;0.6821;1.2269;
794.1000;0.6813;1.2341;
794.4000;0.6789;1.2341;
794.7000;0.6805;1.2413;
795.0000;0.6797;1.2437;
795.3000;0.6781;1.2437;
795.6000;0.6781;1.2437;
795.9000;0.6781;1.2389;
796.2000;0.6772;1.2365;
796.5000;0.6699;1.2101;
796.8000;0.6789;1.2269;
797.1000;0.6756;1.2197;
797.4000;0.6797;1.2293;
797.7000;0.6797;1.2221;
798.0000;0.6813;1.2293;
798.3000;0.6781;1.2245;
798.6000;0.6862;1.2437;
798.9000;0.6781;1.2293;
799.2000;0.6829;1.2389;
799.5000;0.6781;1.2221;
799.8000;0.6789;1.2293;
800.1000;0.6805;1.2317;
800.4000;0.6764;1.2197;
800.7000;0.6805;1.2173;
801.0000;0.6764;1.2077;
801.3000;0.6732;1.1885;
801.6000;0.6764;1.2029;
801.9000;0.6789;1.2125;
802.2000;0.6764;1.2005;
802.5000;0.6781;1.2053;
802.8000;0.6789;1.2125;
803.1000;0.6781;1.2077;
803.4000;0.6797;1.2077;
803.7000;0.6789;1.2125;
804.0000;0.6764;1.2005;
804.3000;0.6764;1.1957;
804.6000;0.6772;1.1933;
804.9000;0.6781;1.1981;
805.2000;0.6764;1.2005;
805.5000;0.6772;1.2029;
805.8000;0.6829;1.2269;
806.1000;0.6764;1.2101;
806.4000;0.6772;1.2125;
806.7000;0.6748;1.2125;
807.0000;0.6764;1.2101;
807.3000;0.6764;1.2053;
807.6000;0.6756;1.2197;
807.9000;0.6756;1.2245;
808.2000;0.6756;1.2293;
808.5000;0.6748;1.2245;
808.8000;0.6748;1.2245;
809.1000;0.6748;1.2221;
809.4000;0.6764;1.2293;
809.7000;0.6756;1.2317;
810.0000;0.6772;1.2317;
810.3000;0.6764;1.2269;
810.6000;0.6756;1.2221;
810.9000;0.6764;1.2317;
811.2000;0.6764;1.2269;
811.5000;0.6764;1.2293;
811.8000;0.6772;1.2317;
812.1000;0.6732;1.2221;
812.4000;0.6740;1.2149;
812.7000;0.6764;1.2269;
813.0000;0.6724;1.2221;
813.3000;0.6740;1.2341;
813.6000;0.6764;1.2341;
813.9000;0.6764;1.2269;
814.2000;0.6732;1.2221;
814.5000;0.6748;1.2197;
814.8000;0.6707;1.2125;
815.1000;0.6764;1.2269;
815.4000;0.6756;1.2149;
815.7000;0.6756;1.2173;
816.0000;0.6683;1.2053;
816.3000;0.6740;1.2269;
816.6000;0.6732;1.2221;
816.9000;0.6748;1.2173;
817.2000;0.6748;1.2245;
817.5000;0.6691;1.2101;
817.8000;0.6724;1.2149;
818.1000;0.6740;1.2125;
818.4000;0.6756;1.2125;
818.7000;0.6838;1.2341;
819.0000;0.6732;1.2197;
819.3000;0.6797;1.2293;
819.6000;0.6789;1.2149;
819.9000;0.6740;1.1957;
820.2000;0.6740;1.1933;
820.5000;0.6691;1.1837;
820.8000;0.6724;1.2029;
821.1000;0.6716;1.1981;
821.4000;0.6732;1.1933;
821.7000;0.6691;1.1837;
822.0000;0.6724;1.2029;
822.3000;0.6724;1.2125;
822.6000;0.6716;1.2149;
822.9000;0.6716;1.2125;
823.2000;0.6732;1.2197;
823.5000;0.6740;1.2173;
823.8000;0.6756;1.2293;
824.1000;0.6732;1.2341;
824.4000;0.6707;1.2269;
824.7000;0.6716;1.2317;
825.0000;0.6724;1.2413;
825.3000;0.6716;1.2341;
825.6000;0.6732;1.2437;
825.9000;0.6724;1.2365;
826.2000;0.6764;1.2461;
826.5000;0.6716;1.2365;
826.8000;0.6748;1.2532;
827.1000;0.6699;1.2461;
827.4000;0.6716;1.2389;
827.7000;0.6724;1.2317;
828.0000;0.6756;1.2341;
828.3000;0.6699;1.2269;
828.6000;0.6683;1.2173;
828.9000;0.6716;1.2221;
829.2000;0.6732;1.2245;
829.5000;0.6707;1.2173;
829.8000;0.6699;1.2125;
830.1000;0.6642;1.2005;
830.4000;0.6650;1.2053;
830.7000;0.6732;1.2293;
831.0000;0.6691;1.2149;
831.3000;0.6683;1.2077;
831.6000;0.6699;1.2077;
831.9000;0.6699;1.2125;
832.2000;0.6707;1.2293;
832.5000;0.6683;1.2173;
832.8000;0.6699;1.2221;
833.1000;0.6691;1.2221;
833.4000;0.6691;1.2197;
833.7000;0.6699;1.2173;
834.0000;0.6716;1.2293;
834.3000;0.6683;1.2293;
834.6000;0.6691;1.2293;
834.9000;0.6699;1.2341;
835.2000;0.6707;1.2317;
835.5000;0.6699;1.2221;
835.8000;0.6699;1.2125;
836.1000;0.6691;1.2101;
836.4000;0.6675;1.2125;
836.7000;0.6699;1.2149;
837.0000;0.6691;1.2197;
837.3000;0.6691;1.2245;
837.6000;0.6675;1.2293;
837.9000;0.6683;1.2269;
838.2000;0.6675;1.2341;
838.5000;0.6699;1.2413;
838.8000;0.6683;1.2461;
839.1000;0.6707;1.2580;
839.4000;0.6699;1.2652;
839.7000;0.6667;1.2532;
840.0000;0.6675;1.2556;
840.3000;0.6683;1.2556;
840.6000;0.6691;1.2508;
840.9000;0.6675;1.2461;
841.2000;0.6667;1.2484;
841.5000;0.6724;1.2652;
841.8000;0.6675;1.2556;
842.1000;0.6675;1.2484;
842.4000;0.6659;1.2389;
842.7000;0.6675;1.2389;
843.0000;0.6675;1.2484;
843.3000;0.6675;1.2461;
843.6000;0.6626;1.2293;
843.9000;0.6683;1.2413;
844.2000;0.6667;1.2389;
844.5000;0.6691;1.2437;
844.8000;0.6683;1.2413;
845.1000;0.6650;1.2293;
845.4000;0.6667;1.2317;
845.7000;0.6683;1.2245;
846.0000;0.6691;1.2269;
846.3000;0.6642;1.2149;
846.6000;0.6683;1.2245;
846.9000;0.6675;1.2293;
847.2000;0.6691;1.2365;
847.5000;0.6675;1.2365;
847.8000;0.6667;1.2341;
848.1000;0.6667;1.2389;
848.4000;0.6675;1.2293;
848.7000;0.6667;1.2173;
849.0000;0.6691;1.2245;
849.3000;0.6667;1.2197;
849.6000;0.6707;1.2413;
849.9000;0.6675;1.2389;
850.2000;0.6675;1.2365;
850.5000;0.6659;1.2341;
850.8000;0.6659;1.2245;
851.1000;0.6569;1.2101;
851.4000;0.6667;1.2317;
851.7000;0.6642;1.2317;
852.0000;0.6553;1.2053;
852.3000;0.6683;1.2293;
852.6000;0.6667;1.2269;
852.9000;0.6691;1.2389;
853.2000;0.6667;1.2317;
853.5000;0.6650;1.2245;
853.8000;0.6659;1.2293;
854.1000;0.6699;1.2293;
854.4000;0.6593;1.2077;
854.7000;0.6650;1.2173;
855.0000;0.6667;1.2197;
855.3000;0.6650;1.2269;
855.6000;0.6642;1.2293;
855.9000;0.6650;1.2245;
856.2000;0.6683;1.2413;
856.5000;0.6699;1.2461;
856.8000;0.6650;1.2293;
857.1000;0.6634;1.2173;
857.4000;0.6667;1.2197;
857.7000;0.6650;1.2173;
858.0000;0.6667;1.2173;
858.3000;0.6650;1.2125;
858.6000;0.6659;1.2077;
858.9000;0.6691;1.2149;
859.2000;0.6642;1.2077;
859.5000;0.6642;1.2197;
859.8000;0.6675;1.2245;
860.1000;0.6642;1.2221;
860.4000;0.6634;1.2245;
860.7000;0.6634;1.2245;
861.0000;0.6650;1.2317;
861.3000;0.6659;1.2341;
861.6000;0.6634;1.2245;
861.9000;0.6659;1.2149;
862.2000;0.6650;1.2125;
862.5000;0.6634;1.2149;
862.8000;0.6626;1.2125;
863.1000;0.6650;1.2221;
863.4000;0.6642;1.2293;
863.7000;0.6650;1.2245;
864.0000;0.6642;1.2317;
864.3000;0.6642;1.2437;
864.6000;0.6642;1.2413;
864.9000;0.6634;1.2484;
865.2000;0.6724;1.2724;
865.5000;0.6634;1.2341;
865.8000;0.6618;1.2341;
866.1000;0.6650;1.2341;
866.4000;0.6626;1.2245;
866.7000;0.6626;1.2245;
867.0000;0.6626;1.2221;
867.3000;0.6626;1.2197;
867.6000;0.6618;1.2245;
867.9000;0.6618;1.2197;
868.2000;0.6626;1.2245;
868.5000;0.6675;1.2461;
868.8000;0.6642;1.2437;
869.1000;0.6642;1.2413;
869.4000;0.6650;1.2413;
869.7000;0.6634;1.2341;
870.0000;0.6642;1.2269;
870.3000;0.6626;1.2293;
870.6000;0.6618;1.2365;
870.9000;0.6626;1.2389;
871.2000;0.6610;1.2341;
871.5000;0.6650;1.2484;
871.8000;0.6626;1.2508;
872.1000;0.6593;1.2413;
872.4000;0.6634;1.2293;
872.7000;0.6602;1.2173;
873.0000;0.6642;1.2245;
873.3000;0.6610;1.2245;
873.6000;0.6602;1.2293;
873.9000;0.6569;1.2269;
874.2000;0.6610;1.2365;
874.5000;0.6667;1.2437;
874.8000;0.6634;1.2437;
875.1000;0.6528;1.2197;
875.4000;0.6610;1.2341;
875.7000;0.6626;1.2317;
876.0000;0.6626;1.2293;
876.3000;0.6610;1.2221;
876.6000;0.6634;1.2173;
876.9000;0.6610;1.2173;
877.2000;0.6626;1.2173;
877.5000;0.6585;1.2077;
877.8000;0.6602;1.2125;
878.1000;0.6593;1.2197;
878.4000;0.6610;1.2317;
878.7000;0.6618;1.2317;
879.0000;0.6602;1.2389;
879.3000;0.6618;1.2389;
879.6000;0.6561;1.2173;
879.9000;0.6610;1.2269;
880.2000;0.6602;1.2341;
880.5000;0.6691;1.2413;
880.8000;0.6610;1.2245;
881.1000;0.6610;1.2269;
881.4000;0.6610;1.2293;
881.7000;0.6610;1.2269;
882.0000;0.6593;1.2293;
882.3000;0.6602;1.2317;
882.6000;0.6610;1.2461;
882.9000;0.6642;1.2580;
883.2000;0.6610;1.2413;
883.5000;0.6618;1.2413;
883.8000;0.6618;1.2413;
884.1000;0.6610;1.2365;
884.4000;0.6602;1.2389;
884.7000;0.6618;1.2341;
885.0000;0.6602;1.2197;
885.3000;0.6626;1.2269;
885.6000;0.6602;1.2317;
885.9000;0.6528;1.2197;
886.2000;0.6602;1.2389;
886.5000;0.6593;1.2317;
886.8000;0.6618;1.2317;
887.1000;0.6602;1.2341;
887.4000;0.6610;1.2484;
887.7000;0.6618;1.2532;
888.0000;0.6610;1.2604;
888.3000;0.6593;1.2532;
888.6000;0.6618;1.2532;
888.9000;0.6585;1.2508;
889.2000;0.6602;1.2556;
889.5000;0.6585;1.2532;
889.8000;0.6593;1.2532;
890.1000;0.6593;1.2532;
890.4000;0.6602;1.2604;
890.7000;0.6561;1.2437;
891.0000;0.6577;1.2484;
891.3000;0.6553;1.2484;
891.6000;0.6561;1.2461;
891.9000;0.6577;1.2508;
892.2000;0.6577;1.2461;
892.5000;0.6691;1.2748;
892.8000;0.6585;1.2532;
893.1000;0.6585;1.2580;
893.4000;0.6569;1.2484;
893.7000;0.6577;1.2437;
894.0000;0.6602;1.2389;
894.3000;0.6610;1.2389;
894.6000;0.6593;1.2317;
894.9000;0.6553;1.2293;
895.2000;0.6593;1.2461;
895.5000;0.6593;1.2413;
895.8000;0.6593;1.2437;
896.1000;0.6602;1.2437;
896.4000;0.6585;1.2437;
896.7000;0.6577;1.2461;
897.0000;0.6618;1.2604;
897.3000;0.6561;1.2508;
897.6000;0.6585;1.2508;
897.9000;0.6569;1.2532;
898.2000;0.6569;1.2604;
898.5000;0.6585;1.2580;
898.8000;0.6593;1.2604;
899.1000;0.6626;1.2628;
899.4000;0.6585;1.2461;
899.7000;0.6585;1.2413;
900.0000;0.6585;1.2461;
900.3000;0.6577;1.2437;
900.6000;0.6561;1.2413;
900.9000;0.6561;1.2413;
901.2000;0.6577;1.2532;
901.5000;0.6585;1.2580;
901.8000;0.6577;1.2652;
902.1000;0.6585;1.2724;
902.4000;0.6553;1.2796;
902.7000;0.6593;1.2892;
903.0000;0.6545;1.2796;
903.3000;0.6561;1.2700;
903.6000;0.6561;1.2652;
903.9000;0.6561;1.2556;
904.2000;0.6577;1.2724;
904.5000;0.6577;1.2724;
904.8000;0.6577;1.2772;
905.1000;0.6561;1.2748;
905.4000;0.6577;1.2796;
905.7000;0.6553;1.2580;
906.0000;0.6577;1.2532;
906.3000;0.6561;1.2532;
906.6000;0.6569;1.2580;
906.9000;0.6577;1.2604;
907.2000;0.6569;1.2461;
907.5000;0.6577;1.2508;
907.8000;0.6602;1.2508;
908.1000;0.6577;1.2484;
908.4000;0.6593;1.2461;
908.7000;0.6585;1.2484;
909.0000;0.6618;1.2580;
909.3000;0.6577;1.2461;
909.6000;0.6577;1.2484;
909.9000;0.6577;1.2508;
910.2000;0.6561;1.2484;
910.5000;0.6561;1.2628;
910.8000;0.6569;1.2628;
911.1000;0.6585;1.2532;
911.4000;0.6504;1.2413;
911.7000;0.6577;1.2676;
912.0000;0.6577;1.2772;
912.3000;0.6602;1.2796;
912.6000;0.6536;1.2604;
912.9000;0.6561;1.2604;
913.2000;0.6577;1.2652;
913.5000;0.6618;1.2820;
913.8000;0.6569;1.2796;
914.1000;0.6528;1.2580;
914.4000;0.6650;1.2868;
914.7000;0.6520;1.2508;
915.0000;0.6553;1.2652;
915.3000;0.6553;1.2652;
915.6000;0.6569;1.2700;
915.9000;0.6553;1.2628;
916.2000;0.6593;1.2652;
916.5000;0.6577;1.2676;
916.8000;0.6545;1.2604;
917.1000;0.6520;1.2508;
917.4000;0.6569;1.2580;
917.7000;0.6553;1.2556;
918.0000;0.6536;1.2484;
918.3000;0.6553;1.2556;
918.6000;0.6642;1.2796;
918.9000;0.6553;1.2532;
919.2000;0.6577;1.2652;
919.5000;0.6561;1.2604;
919.8000;0.6561;1.2676;
920.1000;0.6545;1.2580;
920.4000;0.6536;1.2508;
920.7000;0.6659;1.2748;
921.0000;0.6545;1.2484;
921.3000;0.6553;1.2437;
921.6000;0.6561;1.2437;
921.9000;0.6553;1.2389;
922.2000;0.6569;1.2437;
922.5000;0.6561;1.2461;
922.8000;0.6561;1.2437;
923.1000;0.6561;1.2532;
923.4000;0.6536;1.2484;
923.7000;0.6618;1.2700;
924.0000;0.6553;1.2484;
924.3000;0.6553;1.2604;
924.6000;0.6545;1.2604;
924.9000;0.6561;1.2628;
925.2000;0.6545;1.2484;
925.5000;0.6479;1.2317;
925.8000;0.6528;1.2341;
926.1000;0.6553;1.2341;
926.4000;0.6553;1.2341;
926.7000;0.6569;1.2484;
927.0000;0.6536;1.2532;
927.3000;0.6569;1.2604;
927.6000;0.6545;1.2556;
927.9000;0.6504;1.2437;
928.2000;0.6528;1.2484;
928.5000;0.6528;1.2437;
928.8000;0.6528;1.2413;
929.1000;0.6545;1.2413;
929.4000;0.6528;1.2341;
929.7000;0.6553;1.2532;
930.0000;0.6569;1.2604;
930.3000;0.6545;1.2461;
930.6000;0.6553;1.2437;
930.9000;0.6545;1.2365;
931.2000;0.6561;1.2389;
931.5000;0.6553;1.2461;
931.8000;0.6545;1.2508;
932.1000;0.6528;1.2532;
932.4000;0.6553;1.2580;
932.7000;0.6561;1.2532;
933.0000;0.6553;1.2508;
933.3000;0.6528;1.2556;
933.6000;0.6520;1.2628;
933.9000;0.6536;1.2652;
934.2000;0.6553;1.2700;
934.5000;0.6520;1.2580;
934.8000;0.6577;1.2604;
935.1000;0.6553;1.2508;
935.4000;0.6528;1.2461;
935.7000;0.6536;1.2389;
936.0000;0.6561;1.2437;
936.3000;0.6569;1.2508;
936.6000;0.6488;1.2341;
936.9000;0.6553;1.2484;
937.2000;0.6536;1.2365;
937.5000;0.6593;1.2484;
937.8000;0.6545;1.2365;
938.1000;0.6520;1.2389;
938.4000;0.6569;1.2484;
938.7000;0.6382;1.1957;
939.0000;0.6528;1.2293;
939.3000;0.6439;1.2125;
939.6000;0.6545;1.2317;
939.9000;0.6528;1.2245;
940.2000;0.6545;1.2269;
940.5000;0.6528;1.2173;
940.8000;0.6553;1.2125;
941.1000;0.6553;1.2149;
941.4000;0.6553;1.2173;
941.7000;0.6545;1.2317;
942.0000;0.6545;1.2389;
942.3000;0.6536;1.2317;
942.6000;0.6536;1.2245;
942.9000;0.6536;1.2413;
943.2000;0.6520;1.2413;
943.5000;0.6545;1.2556;
943.8000;0.6512;1.2532;
944.1000;0.6528;1.2484;
944.4000;0.6545;1.2532;
944.7000;0.6545;1.2532;
945.0000;0.6545;1.2580;
945.3000;0.6520;1.2508;
945.6000;0.6536;1.2508;
945.9000;0.6536;1.2532;
946.2000;0.6520;1.2389;
946.5000;0.6577;1.2484;
946.8000;0.6512;1.2365;
947.1000;0.6528;1.2484;
947.4000;0.6577;1.2580;
947.7000;0.6504;1.2437;
948.0000;0.6520;1.2556;
948.3000;0.6520;1.2604;
948.6000;0.6504;1.2508;
948.9000;0.6512;1.2484;
949.2000;0.6528;1.2484;
949.5000;0.6528;1.2508;
949.8000;0.6593;1.2604;
950.1000;0.6528;1.2532;
950.4000;0.6545;1.2604;
950.7000;0.6479;1.2365;
951.0000;0.6512;1.2508;
951.3000;0.6520;1.2580;
951.6000;0.6528;1.2508;
951.9000;0.6520;1.2532;
952.2000;0.6536;1.2556;
952.5000;0.6504;1.2413;
952.8000;0.6504;1.2484;
953.1000;0.6520;1.2580;
953.4000;0.6545;1.2628;
953.7000;0.6479;1.2532;
954.0000;0.6528;1.2580;
954.3000;0.6504;1.2413;
954.6000;0.6512;1.2365;
954.9000;0.6496;1.2389;
955.2000;0.6504;1.2437;
955.5000;0.6520;1.2508;
955.8000;0.6545;1.2580;
956.1000;0.6520;1.2484;
956.4000;0.6496;1.2365;
956.7000;0.6520;1.2365;
957.0000;0.6528;1.2437;
957.3000;0.6512;1.2341;
957.6000;0.6496;1.2245;
957.9000;0.6545;1.2389;
958.2000;0.6520;1.2341;
958.5000;0.6504;1.2341;
958.8000;0.6545;1.2484;
959.1000;0.6479;1.2341;
959.4000;0.6512;1.2556;
959.7000;0.6504;1.2508;
960.0000;0.6520;1.2532;
960.3000;0.6520;1.2508;
960.6000;0.6545;1.2628;
960.9000;0.6520;1.2580;
961.2000;0.6512;1.2652;
961.5000;0.6520;1.2580;
961.8000;0.6577;1.2628;
962.1000;0.6569;1.2508;
962.4000;0.6520;1.2437;
962.7000;0.6496;1.2461;
963.0000;0.6520;1.2532;
963.3000;0.6528;1.2604;
963.6000;0.6520;1.2580;
963.9000;0.6479;1.2484;
964.2000;0.6488;1.2461;
964.5000;0.6520;1.2532;
964.8000;0.6520;1.2508;
965.1000;0.6512;1.2437;
965.4000;0.6528;1.2484;
965.7000;0.6520;1.2532;
966.0000;0.6463;1.2365;
966.3000;0.6488;1.2461;
966.6000;0.6479;1.2532;
966.9000;0.6455;1.2508;
967.2000;0.6496;1.2580;
967.5000;0.6520;1.2676;
967.8000;0.6479;1.2604;
968.1000;0.6357;1.2245;
968.4000;0.6479;1.2556;
968.7000;0.6488;1.2508;
969.0000;0.6561;1.2580;
969.3000;0.6504;1.2365;
969.6000;0.6496;1.2365;
969.9000;0.6545;1.2437;
970.2000;0.6545;1.2532;
970.5000;0.6488;1.2461;
970.8000;0.6528;1.2604;
971.1000;0.6504;1.2556;
971.4000;0.6520;1.2676;
971.7000;0.6471;1.2604;
972.0000;0.6520;1.2676;
972.3000;0.6496;1.2652;
972.6000;0.6455;1.2556;
972.9000;0.6463;1.2580;
973.2000;0.6512;1.2628;
973.5000;0.6504;1.2628;
973.8000;0.6504;1.2676;
974.1000;0.6504;1.2676;
974.4000;0.6504;1.2700;
974.7000;0.6488;1.2604;
975.0000;0.6520;1.2604;
975.3000;0.6496;1.2604;
975.6000;0.6512;1.2652;
975.9000;0.6504;1.2556;
976.2000;0.6512;1.2628;
976.5000;0.6528;1.2652;
976.8000;0.6512;1.2604;
977.1000;0.6520;1.2700;
977.4000;0.6496;1.2748;
977.7000;0.6545;1.2772;
978.0000;0.6488;1.2652;
978.3000;0.6512;1.2652;
978.6000;0.6496;1.2604;
978.9000;0.6504;1.2652;
979.2000;0.6463;1.2580;
979.5000;0.6504;1.2676;
979.8000;0.6496;1.2772;
980.1000;0.6488;1.2724;
980.4000;0.6504;1.2796;
980.7000;0.6504;1.2772;
981.0000;0.6528;1.2748;
981.3000;0.6528;1.2700;
981.6000;0.6545;1.2628;
981.9000;0.6496;1.2484;
982.2000;0.6488;1.2413;
982.5000;0.6471;1.2437;
982.8000;0.6488;1.2532;
983.1000;0.6479;1.2508;
983.4000;0.6496;1.2484;
983.7000;0.6479;1.2461;
984.0000;0.6504;1.2556;
984.3000;0.6545;1.2628;
984.6000;0.6512;1.2508;
984.9000;0.6488;1.2461;
985.2000;0.6504;1.2508;
985.5000;0.6479;1.2508;
985.8000;0.6504;1.2604;
986.1000;0.6520;1.2724;
986.4000;0.6463;1.2580;
986.7000;0.6528;1.2772;
987.0000;0.6520;1.2676;
987.3000;0.6488;1.2580;
987.6000;0.6496;1.2652;
987.9000;0.6431;1.2580;
988.2000;0.6496;1.2724;
988.5000;0.6504;1.2700;
988.8000;0.6496;1.2676;
989.1000;0.6504;1.2700;
989.4000;0.6471;1.2652;
989.7000;0.6520;1.2772;
990.0000;0.6496;1.2796;
990.3000;0.6414;1.2484;
990.6000;0.6479;1.2580;
990.9000;0.6431;1.2508;
991.2000;0.6479;1.2700;
991.5000;0.6479;1.2676;
991.8000;0.6496;1.2676;
992.1000;0.6496;1.2413;
992.4000;0.6496;1.2413;
992.7000;0.6471;1.2413;
993.0000;0.6463;1.2269;
993.3000;0.6496;1.2365;
993.6000;0.6479;1.2317;
993.9000;0.6479;1.2365;
994.2000;0.6471;1.2413;
994.5000;0.6488;1.2461;
994.8000;0.6504;1.2532;
995.1000;0.6479;1.2484;
995.4000;0.6488;1.2413;
995.7000;0.6471;1.2437;
996.0000;0.6455;1.2508;
996.3000;0.6488;1.2556;
996.6000;0.6471;1.2604;
996.9000;0.6479;1.2604;
997.2000;0.6479;1.2580;
997.5000;0.6488;1.2580;
997.8000;0.6488;1.2580;
998.1000;0.6488;1.2604;
998.4000;0.6496;1.2700;
998.7000;0.6488;1.2628;
999.0000;0.6463;1.2580;
999.3000;0.6471;1.2580;
999.6000;0.6479;1.2676;
999.9000;0.6488;1.2724;
1000.2000;0.6439;1.2580;
1000.5000;0.6504;1.2700;
1000.8000;0.6504;1.2652;
1001.1000;0.6471;1.2580;
1001.4000;0.6479;1.2676;
1001.7000;0.6504;1.2868;
1002.0000;0.6463;1.2748;
1002.3000;0.6504;1.2844;
1002.6000;0.6496;1.2820;
1002.9000;0.6439;1.2724;
1003.2000;0.6479;1.2700;
1003.5000;0.6471;1.2628;
1003.8000;0.6455;1.2508;
1004.1000;0.6496;1.2628;
1004.4000;0.6431;1.2461;
1004.7000;0.6455;1.2508;
1005.0000;0.6398;1.2197;
1005.3000;0.6479;1.2461;
1005.6000;0.6463;1.2484;
1005.9000;0.6439;1.2484;
1006.2000;0.6431;1.2437;
1006.5000;0.6471;1.2580;
1006.8000;0.6479;1.2676;
1007.1000;0.6479;1.2700;
1007.4000;0.6545;1.2844;
1007.7000;0.6447;1.2700;
1008.0000;0.6545;1.2796;
1008.3000;0.6504;1.2724;
1008.6000;0.6447;1.2580;
1008.9000;0.6545;1.2772;
1009.2000;0.6561;1.2796;
1009.5000;0.6463;1.2461;
1009.8000;0.6479;1.2461;
1010.1000;0.6504;1.2556;
1010.4000;0.6431;1.2437;
1010.7000;0.6479;1.2508;
1011.0000;0.6479;1.2484;
1011.3000;0.6471;1.2556;
1011.6000;0.6496;1.2628;
1011.9000;0.6463;1.2532;
1012.2000;0.6471;1.2604;
1012.5000;0.6496;1.2604;
1012.8000;0.6471;1.2556;
1013.1000;0.6471;1.2556;
1013.4000;0.6471;1.2508;
1013.7000;0.6471;1.2580;
1014.0000;0.6496;1.2580;
1014.3000;0.6512;1.2652;
1014.6000;0.6479;1.2484;
1014.9000;0.6471;1.2532;
1015.2000;0.6471;1.2532;
1015.5000;0.6447;1.2556;
1015.8000;0.6488;1.2652;
1016.1000;0.6455;1.2556;
1016.4000;0.6479;1.2628;
1016.7000;0.6479;1.2676;
1017.0000;0.6455;1.2628;
1017.3000;0.6431;1.2508;
1017.6000;0.6471;1.2604;
1017.9000;0.6463;1.2580;
1018.2000;0.6447;1.2580;
1018.5000;0.6455;1.2556;
1018.8000;0.6447;1.2461;
1019.1000;0.6471;1.2604;
1019.4000;0.6455;1.2461;
1019.7000;0.6471;1.2652;
1020.0000;0.6455;1.2724;
1020.3000;0.6463;1.2748;
1020.6000;0.6439;1.2748;
1020.9000;0.6463;1.2796;
1021.2000;0.6447;1.2724;
1021.5000;0.6488;1.2844;
1021.8000;0.6463;1.2772;
1022.1000;0.6455;1.2676;
1022.4000;0.6471;1.2652;
1022.7000;0.6471;1.2628;
1023.0000;0.6471;1.2580;
1023.3000;0.6463;1.2437;
1023.6000;0.6479;1.2484;
1023.9000;0.6455;1.2484;
1024.2000;0.6439;1.2413;
1024.5000;0.6471;1.2508;
1024.8000;0.6455;1.2484;
1025.1000;0.6479;1.2484;
1025.4000;0.6471;1.2413;
1025.7000;0.6463;1.2341;
1026.0000;0.6439;1.2461;
1026.3000;0.6439;1.2437;
1026.6000;0.6447;1.2556;
1026.9000;0.6471;1.2580;
1027.2000;0.6488;1.2556;
1027.5000;0.6447;1.2461;
1027.8000;0.6439;1.2437;
1028.1000;0.6374;1.2293;
1028.4000;0.6447;1.2580;
1028.7000;0.6447;1.2652;
1029.0000;0.6488;1.2820;
1029.3000;0.6447;1.2628;
1029.6000;0.6455;1.2604;
1029.9000;0.6463;1.2676;
1030.2000;0.6447;1.2724;
1030.5000;0.6422;1.2604;
1030.8000;0.6463;1.2652;
1031.1000;0.6447;1.2676;
1031.4000;0.6382;1.2580;
1031.7000;0.6455;1.2676;
1032.0000;0.6439;1.2700;
1032.3000;0.6455;1.2676;
1032.6000;0.6406;1.2532;
1032.9000;0.6431;1.2508;
1033.2000;0.6431;1.2437;
1033.5000;0.6471;1.2437;
1033.8000;0.6455;1.2413;
1034.1000;0.6447;1.2484;
1034.4000;0.6447;1.2461;
1034.7000;0.6439;1.2365;
1035.0000;0.6447;1.2365;
1035.3000;0.6463;1.2484;
1035.6000;0.6569;1.2796;
1035.9000;0.6504;1.2652;
1036.2000;0.6553;1.2844;
1036.5000;0.6439;1.2556;
1036.8000;0.6463;1.2628;
1037.1000;0.6463;1.2628;
1037.4000;0.6447;1.2532;
1037.7000;0.6447;1.2532;
1038.0000;0.6455;1.2556;
1038.3000;0.6382;1.2365;
1038.6000;0.6447;1.2508;
1038.9000;0.6455;1.2461;
1039.2000;0.6439;1.2437;
1039.5000;0.6455;1.2484;
1039.8000;0.6447;1.2484;
1040.1000;0.6431;1.2437;
1040.4000;0.6455;1.2484;
1040.7000;0.6439;1.2508;
1041.0000;0.6431;1.2556;
1041.3000;0.6439;1.2628;
1041.6000;0.6431;1.2580;
1041.9000;0.6455;1.2676;
1042.2000;0.6447;1.2700;
1042.5000;0.6439;1.2628;
1042.8000;0.6439;1.2628;
1043.1000;0.6447;1.2724;
1043.4000;0.6439;1.2676;
1043.7000;0.6479;1.2748;
1044.0000;0.6439;1.2628;
1044.3000;0.6455;1.2748;
1044.6000;0.6398;1.2604;
1044.9000;0.6455;1.2724;
1045.2000;0.6455;1.2772;
1045.5000;0.6455;1.2724;
1045.8000;0.6447;1.2676;
1046.1000;0.6447;1.2676;
1046.4000;0.6439;1.2676;
1046.7000;0.6431;1.2652;
1047.0000;0.6455;1.2604;
1047.3000;0.6439;1.2532;
1047.6000;0.6447;1.2532;
1047.9000;0.6455;1.2556;
1048.2000;0.6447;1.2437;
1048.5000;0.6447;1.2389;
1048.8000;0.6471;1.2461;
1049.1000;0.6455;1.2461;
1049.4000;0.6479;1.2628;
1049.7000;0.6431;1.2532;
1050.0000;0.6439;1.2700;
1050.3000;0.6447;1.2844;
1050.6000;0.6447;1.2916;
1050.9000;0.6447;1.2868;
1051.2000;0.6431;1.2772;
1051.5000;0.6439;1.2676;
1051.8000;0.6317;1.2437;
1052.1000;0.6439;1.2700;
1052.4000;0.6439;1.2652;
1052.7000;0.6439;1.2676;
1053.0000;0.6414;1.2748;
1053.3000;0.6447;1.2748;
1053.6000;0.6439;1.2676;
1053.9000;0.6431;1.2724;
1054.2000;0.6414;1.2676;
1054.5000;0.6431;1.2580;
1054.8000;0.6455;1.2508;
1055.1000;0.6422;1.2389;
1055.4000;0.6398;1.2413;
1055.7000;0.6390;1.2508;
1056.0000;0.6422;1.2484;
1056.3000;0.6447;1.2556;
1056.6000;0.6422;1.2413;
1056.9000;0.6422;1.2365;
1057.2000;0.6406;1.2293;
1057.5000;0.6414;1.2317;
1057.8000;0.6422;1.2317;
1058.1000;0.6422;1.2437;
1058.4000;0.6431;1.2484;
1058.7000;0.6447;1.2508;
1059.0000;0.6447;1.2580;
1059.3000;0.6447;1.2604;
1059.6000;0.6414;1.2556;
1059.9000;0.6439;1.2652;
1060.2000;0.6431;1.2556;
1060.5000;0.6422;1.2604;
1060.8000;0.6422;1.2556;
1061.1000;0.6414;1.2461;
1061.4000;0.6398;1.2461;
1061.7000;0.6414;1.2532;
1062.0000;0.6431;1.2484;
1062.3000;0.6431;1.2484;
1062.6000;0.6431;1.2532;
1062.9000;0.6431;1.2604;
1063.2000;0.6447;1.2724;
1063.5000;0.6447;1.2628;
1063.8000;0.6447;1.2700;
1064.1000;0.6439;1.2772;
1064.4000;0.6431;1.2700;
1064.7000;0.6276;1.2413;
1065.0000;0.6431;1.2676;
1065.3000;0.6422;1.2604;
1065.6000;0.6431;1.2580;
1065.9000;0.6488;1.2724;
1066.2000;0.6447;1.2676;
1066.5000;0.6431;1.2556;
1066.8000;0.6382;1.2508;
1067.1000;0.6439;1.2652;
1067.4000;0.6447;1.2676;
1067.7000;0.6447;1.2676;
1068.0000;0.6422;1.2700;
1068.3000;0.6422;1.2628;
1068.6000;0.6447;1.2676;
1068.9000;0.6455;1.2796;
1069.2000;0.6447;1.2796;
1069.5000;0.6398;1.2724;
1069.8000;0.6398;1.2700;
1070.1000;0.6455;1.2772;
1070.4000;0.6398;1.2652;
1070.7000;0.6398;1.2652;
1071.0000;0.6422;1.2652;
1071.3000;0.6422;1.2676;
1071.6000;0.6431;1.2748;
1071.9000;0.6414;1.2724;
1072.2000;0.6439;1.2772;
1072.5000;0.6422;1.2748;
1072.8000;0.6463;1.2820;
1073.1000;0.6439;1.2844;
1073.4000;0.6431;1.2844;
1073.7000;0.6431;1.2700;
1074.0000;0.6439;1.2724;
1074.3000;0.6406;1.2652;
1074.6000;0.6431;1.2676;
1074.9000;0.6471;1.2748;
1075.2000;0.6325;1.2461;
1075.5000;0.6447;1.2748;
1075.8000;0.6414;1.2700;
1076.1000;0.6431;1.2676;
1076.4000;0.6422;1.2652;
1076.7000;0.6439;1.2772;
1077.0000;0.6496;1.2940;
1077.3000;0.6431;1.2868;
1077.6000;0.6431;1.2868;
1077.9000;0.6512;1.3131;
1078.2000;0.6455;1.2868;
1078.5000;0.6422;1.2820;
1078.8000;0.6447;1.2964;
1079.1000;0.6431;1.2916;
1079.4000;0.6422;1.2844;
1079.7000;0.6406;1.2772;
1080.0000;0.6414;1.2772;
1080.3000;0.6422;1.2772;
1080.6000;0.6455;1.2820;
1080.9000;0.6422;1.2724;
1081.2000;0.6431;1.2652;
1081.5000;0.6422;1.2604;
1081.8000;0.6431;1.2700;
1082.1000;0.6439;1.2748;
1082.4000;0.6439;1.2748;
1082.7000;0.6390;1.2748;
1083.0000;0.6455;1.2964;
1083.3000;0.6455;1.3060;
1083.6000;0.6431;1.3012;
1083.9000;0.6414;1.2940;
1084.2000;0.6447;1.3012;
1084.5000;0.6422;1.2940;
1084.8000;0.6390;1.2772;
1085.1000;0.6431;1.2868;
1085.4000;0.6406;1.2748;
1085.7000;0.6414;1.2724;
1086.0000;0.6422;1.2772;
1086.3000;0.6414;1.2820;
1086.6000;0.6414;1.2844;
1086.9000;0.6422;1.2844;
1087.2000;0.6439;1.2892;
1087.5000;0.6422;1.2868;
1087.8000;0.6431;1.2844;
1088.1000;0.6422;1.2724;
1088.4000;0.6422;1.2700;
1088.7000;0.6431;1.2700;
1089.0000;0.6455;1.2796;
1089.3000;0.6414;1.2772;
1089.6000;0.6382;1.2748;
1089.9000;0.6390;1.2700;
1090.2000;0.6431;1.2748;
1090.5000;0.6431;1.2700;
1090.8000;0.6431;1.2796;
1091.1000;0.6414;1.2820;
1091.4000;0.6422;1.2916;
1091.7000;0.6406;1.2820;
1092.0000;0.6414;1.2748;
1092.3000;0.6431;1.2676;
1092.6000;0.6422;1.2652;
1092.9000;0.6431;1.2724;
1093.2000;0.6406;1.2700;
1093.5000;0.6422;1.2748;
1093.8000;0.6414;1.2796;
1094.1000;0.6439;1.2772;
1094.4000;0.6414;1.2700;
1094.7000;0.6398;1.2676;
1095.0000;0.6455;1.2796;
1095.3000;0.6414;1.2724;
1095.6000;0.6414;1.2676;
1095.9000;0.6414;1.2676;
1096.2000;0.6414;1.2652;
1096.5000;0.6406;1.2628;
1096.8000;0.6406;1.2652;
1097.1000;0.6406;1.2676;
1097.4000;0.6414;1.2700;
1097.7000;0.6414;1.2724;
1098.0000;0.6422;1.2844;
1098.3000;0.6365;1.2580;
1098.6000;0.6422;1.2676;
1098.9000;0.6406;1.2700;
1099.2000;0.6414;1.2748;
1099.5000;0.6431;1.2700;
1099.8000;0.6398;1.2580;
1100.1000;0.6365;1.2484;
1100.4000;0.6414;1.2628;
1100.7000;0.6422;1.2556;
1101.0000;0.6447;1.2652;
1101.3000;0.6374;1.2508;
1101.6000;0.6406;1.2604;
1101.9000;0.6447;1.2724;
1102.2000;0.6357;1.2484;
1102.5000;0.6406;1.2652;
1102.8000;0.6406;1.2580;
1103.1000;0.6406;1.2484;
1103.4000;0.6406;1.2532;
1103.7000;0.6422;1.2628;
1104.0000;0.6414;1.2652;
1104.3000;0.6422;1.2700;
1104.6000;0.6431;1.2676;
1104.9000;0.6414;1.2580;
1105.2000;0.6406;1.2484;
1105.5000;0.6398;1.2508;
1105.8000;0.6422;1.2508;
1106.1000;0.6406;1.2437;
1106.4000;0.6422;1.2508;
1106.7000;0.6431;1.2437;
1107.0000;0.6414;1.2461;
1107.3000;0.6414;1.2461;
1107.6000;0.6414;1.2484;
1107.9000;0.6406;1.2413;
1108.2000;0.6422;1.2461;
1108.5000;0.6406;1.2365;
1108.8000;0.6406;1.2484;
1109.1000;0.6422;1.2556;
1109.4000;0.6414;1.2580;
1109.7000;0.6414;1.2556;
1110.0000;0.6406;1.2580;
1110.3000;0.6398;1.2628;
1110.6000;0.6455;1.2796;
1110.9000;0.6406;1.2676;
1111.2000;0.6406;1.2652;
1111.5000;0.6390;1.2676;
1111.8000;0.6414;1.2724;
1112.1000;0.6398;1.2652;
1112.4000;0.6422;1.2700;
1112.7000;0.6390;1.2628;
1113.0000;0.6365;1.2556;
1113.3000;0.6390;1.2580;
1113.6000;0.6422;1.2604;
1113.9000;0.6341;1.2437;
1114.2000;0.6406;1.2652;
1114.5000;0.6479;1.2868;
1114.8000;0.6398;1.2628;
1115.1000;0.6406;1.2556;
1115.4000;0.6414;1.2628;
1115.7000;0.6398;1.2580;
1116.0000;0.6390;1.2556;
1116.3000;0.6406;1.2484;
1116.6000;0.6398;1.2437;
1116.9000;0.6431;1.2556;
1117.2000;0.6398;1.2580;
1117.5000;0.6406;1.2604;
1117.8000;0.6431;1.2676;
1118.1000;0.6382;1.2532;
1118.4000;0.6390;1.2652;
1118.7000;0.6414;1.2652;
1119.0000;0.6398;1.2484;
1119.3000;0.6439;1.2556;
1119.6000;0.6422;1.2532;
1119.9000;0.6382;1.2580;
1120.2000;0.6398;1.2652;
1120.5000;0.6357;1.2580;
1120.8000;0.6422;1.2676;
1121.1000;0.6455;1.2724;
1121.4000;0.6365;1.2556;
1121.7000;0.6382;1.2508;
1122.0000;0.6414;1.2461;
1122.3000;0.6398;1.2413;
1122.6000;0.6398;1.2484;
1122.9000;0.6374;1.2556;
1123.2000;0.6398;1.2604;
1123.5000;0.6406;1.2652;
1123.8000;0.6374;1.2532;
1124.1000;0.6422;1.2652;
1124.4000;0.6398;1.2628;
1124.7000;0.6431;1.2652;
1125.0000;0.6471;1.2772;
1125.3000;0.6333;1.2437;
1125.6000;0.6398;1.2628;
1125.9000;0.6357;1.2461;
1126.2000;0.6406;1.2604;
1126.5000;0.6374;1.2508;
1126.8000;0.6382;1.2532;
1127.1000;0.6398;1.2556;
1127.4000;0.6406;1.2580;
1127.7000;0.6390;1.2556;
1128.0000;0.6390;1.2556;
1128.3000;0.6406;1.2580;
1128.6000;0.6406;1.2604;
1128.9000;0.6398;1.2604;
1129.2000;0.6406;1.2532;
1129.5000;0.6398;1.2437;
1129.8000;0.6406;1.2437;
1130.1000;0.6398;1.2437;
1130.4000;0.6406;1.2461;
1130.7000;0.6390;1.2484;
1131.0000;0.6374;1.2604;
1131.3000;0.6398;1.2652;
1131.6000;0.6398;1.2700;
1131.9000;0.6398;1.2604;
1132.2000;0.6406;1.2580;
1132.5000;0.6422;1.2628;
1132.8000;0.6406;1.2604;
1133.1000;0.6398;1.2580;
1133.4000;0.6390;1.2508;
1133.7000;0.6365;1.2365;
1134.0000;0.6406;1.2437;
1134.3000;0.6390;1.2365;
1134.6000;0.6406;1.2437;
1134.9000;0.6406;1.2484;
1135.2000;0.6406;1.2532;
1135.5000;0.6382;1.2508;
1135.8000;0.6382;1.2508;
1136.1000;0.6374;1.2365;
1136.4000;0.6406;1.2413;
1136.7000;0.6390;1.2365;
1137.0000;0.6398;1.2413;
1137.3000;0.6439;1.2604;
1137.6000;0.6431;1.2628;
1137.9000;0.6398;1.2508;
1138.2000;0.6390;1.2604;
1138.5000;0.6374;1.2556;
1138.8000;0.6398;1.2508;
1139.1000;0.6390;1.2580;
1139.4000;0.6431;1.2676;
1139.7000;0.6406;1.2532;
1140.0000;0.6406;1.2652;
1140.3000;0.6390;1.2628;
1140.6000;0.6374;1.2580;
1140.9000;0.6390;1.2724;
1141.2000;0.6382;1.2772;
1141.5000;0.6333;1.2604;
1141.8000;0.6406;1.2748;
1142.1000;0.6398;1.2724;
1142.4000;0.6398;1.2628;
1142.7000;0.6390;1.2532;
1143.0000;0.6357;1.2389;
1143.3000;0.6398;1.2556;
1143.6000;0.6382;1.2532;
1143.9000;0.6390;1.2604;
1144.2000;0.6455;1.2676;
1144.5000;0.6390;1.2508;
1144.8000;0.6382;1.2556;
1145.1000;0.6317;1.2389;
1145.4000;0.6398;1.2604;
1145.7000;0.6390;1.2580;
1146.0000;0.6374;1.2532;
1146.3000;0.6390;1.2580;
1146.6000;0.6398;1.2484;
1146.9000;0.6414;1.2556;
1147.2000;0.6365;1.2413;
1147.5000;0.6390;1.2437;
1147.8000;0.6431;1.2556;
1148.1000;0.6382;1.2508;
1148.4000;0.6406;1.2508;
1148.7000;0.6382;1.2413;
1149.0000;0.6374;1.2389;
1149.3000;0.6309;1.2245;
1149.6000;0.6382;1.2389;
1149.9000;0.6390;1.2413;
1150.2000;0.6414;1.2484;
1150.5000;0.6382;1.2437;
1150.8000;0.6374;1.2413;
1151.1000;0.6374;1.2389;
1151.4000;0.6398;1.2437;
1151.7000;0.6382;1.2437;
1152.0000;0.6374;1.2365;
1152.3000;0.6374;1.2317;
1152.6000;0.6374;1.2341;
1152.9000;0.6398;1.2389;
1153.2000;0.6365;1.2293;
1153.5000;0.6382;1.2245;
1153.8000;0.6390;1.2245;
1154.1000;0.6382;1.2245;
1154.4000;0.6390;1.2269;
1154.7000;0.6374;1.2245;
1155.0000;0.6390;1.2317;
1155.3000;0.6390;1.2389;
1155.6000;0.6398;1.2413;
1155.9000;0.6349;1.2341;
1156.2000;0.6382;1.2413;
1156.5000;0.6374;1.2532;
1156.8000;0.6390;1.2604;
1157.1000;0.6390;1.2604;
1157.4000;0.6374;1.2628;
1157.7000;0.6390;1.2532;
1158.0000;0.6406;1.2628;
1158.3000;0.6398;1.2628;
1158.6000;0.6374;1.2484;
1158.9000;0.6341;1.2461;
1159.2000;0.6382;1.2628;
1159.5000;0.6382;1.2700;
1159.8000;0.6341;1.2652;
1160.1000;0.6398;1.2724;
1160.4000;0.6406;1.2796;
1160.7000;0.6390;1.2748;
1161.0000;0.6382;1.2724;
1161.3000;0.6398;1.2700;
1161.6000;0.6447;1.2844;
1161.9000;0.6398;1.2772;
1162.2000;0.6390;1.2724;
1162.5000;0.6357;1.2676;
1162.8000;0.6365;1.2676;
1163.1000;0.6365;1.2580;
1163.4000;0.6382;1.2556;
1163.7000;0.6349;1.2437;
1164.0000;0.6365;1.2508;
1164.3000;0.6382;1.2484;
1164.6000;0.6390;1.2461;
1164.9000;0.6390;1.2484;
1165.2000;0.6398;1.2556;
1165.5000;0.6349;1.2461;
1165.8000;0.6374;1.2484;
1166.1000;0.6349;1.2341;
1166.4000;0.6374;1.2437;
1166.7000;0.6390;1.2556;
1167.0000;0.6374;1.2532;
1167.3000;0.6382;1.2604;
1167.6000;0.6390;1.2652;
1167.9000;0.6365;1.2532;
1168.2000;0.6374;1.2532;
1168.5000;0.6374;1.2508;
1168.8000;0.6382;1.2556;
1169.1000;0.6382;1.2628;
1169.4000;0.6398;1.2700;
1169.7000;0.6382;1.2700;
1170.0000;0.6398;1.2724;
1170.3000;0.6398;1.2724;
1170.6000;0.6406;1.2724;
1170.9000;0.6390;1.2796;
1171.2000;0.6365;1.2820;
1171.5000;0.6398;1.2892;
1171.8000;0.6422;1.2868;
1172.1000;0.6374;1.2796;
1172.4000;0.6382;1.2772;
1172.7000;0.6414;1.2916;
1173.0000;0.6390;1.2796;
1173.3000;0.6382;1.2748;
1173.6000;0.6365;1.2700;
1173.9000;0.6390;1.2676;
1174.2000;0.6422;1.2724;
1174.5000;0.6382;1.2676;
1174.8000;0.6455;1.2868;
1175.1000;0.6390;1.2820;
1175.4000;0.6382;1.2892;
1175.7000;0.6390;1.2940;
1176.0000;0.6398;1.2892;
1176.3000;0.6414;1.2916;
1176.6000;0.6374;1.2844;
1176.9000;0.6406;1.2940;
1177.2000;0.6447;1.3060;
1177.5000;0.6390;1.2844;
1177.8000;0.6357;1.2844;
1178.1000;0.6382;1.2796;
1178.4000;0.6382;1.2772;
1178.7000;0.6365;1.2652;
1179.0000;0.6365;1.2652;
1179.3000;0.6382;1.2700;
1179.6000;0.6398;1.2748;
1179.9000;0.6398;1.2868;
1180.2000;0.6374;1.2916;
1180.5000;0.6398;1.2964;
1180.8000;0.6382;1.2892;
1181.1000;0.6365;1.2772;
1181.4000;0.6382;1.2868;
1181.7000;0.6422;1.2940;
1182.0000;0.6374;1.2772;
1182.3000;0.6382;1.2772;
1182.6000;0.6398;1.2820;
1182.9000;0.6374;1.2772;
1183.2000;0.6382;1.2820;
1183.5000;0.6382;1.2868;
1183.8000;0.6341;1.2820;
1184.1000;0.6382;1.2892;
1184.4000;0.6439;1.3108;
1184.7000;0.6390;1.2892;
1185.0000;0.6374;1.2868;
1185.3000;0.6374;1.2820;
1185.6000;0.6341;1.2700;
1185.9000;0.6422;1.2796;
1186.2000;0.6365;1.2676;
1186.5000;0.6349;1.2676;
1186.8000;0.6365;1.2700;
1187.1000;0.6357;1.2724;
1187.4000;0.6382;1.2748;
1187.7000;0.6390;1.2820;
1188.0000;0.6365;1.2676;
1188.3000;0.6365;1.2748;
1188.6000;0.6374;1.2676;
1188.9000;0.6365;1.2652;
1189.2000;0.6406;1.2676;
1189.5000;0.6463;1.2796;
1189.8000;0.6365;1.2652;
1190.1000;0.6382;1.2724;
1190.4000;0.6374;1.2724;
1190.7000;0.6382;1.2676;
1191.0000;0.6382;1.2724;
1191.3000;0.6365;1.2700;
1191.6000;0.6382;1.2676;
1191.9000;0.6292;1.2484;
1192.2000;0.6374;1.2652;
1192.5000;0.6382;1.2700;
1192.8000;0.6341;1.2652;
1193.1000;0.6463;1.3012;
1193.4000;0.6390;1.2892;
1193.7000;0.6390;1.2940;
1194.0000;0.6431;1.2964;
1194.3000;0.6382;1.2916;
1194.6000;0.6374;1.2892;
1194.9000;0.6374;1.2844;
1195.2000;0.6341;1.2796;
1195.5000;0.6374;1.2892;
1195.8000;0.6341;1.2796;
1196.1000;0.6382;1.2916;
1196.4000;0.6390;1.2916;
1196.7000;0.6382;1.2892;
1197.0000;0.6382;1.2940;
1197.3000;0.6365;1.2844;
1197.6000;0.6357;1.2844;
1197.9000;0.6382;1.2772;
1198.2000;0.6357;1.2652;
1198.5000;0.6382;1.2700;
1198.8000;0.6365;1.2724;
1199.1000;0.6374;1.2772;
1199.4000;0.6382;1.2820;
1199.7000;0.6382;1.2820;
1200.0000;0.6390;1.2820;
1200.3000;0.6382;1.2772;
1200.6000;0.6374;1.2652;
1200.9000;0.6390;1.2748;
1201.2000;0.6349;1.2724;
1201.5000;0.6382;1.2748;
1201.8000;0.6365;1.2772;
1202.1000;0.6374;1.2796;
1202.4000;0.6382;1.2796;
1202.7000;0.6382;1.2796;
1203.0000;0.6382;1.2796;
1203.3000;0.6382;1.2796;
1203.6000;0.6349;1.2820;
1203.9000;0.6365;1.2796;
1204.2000;0.6374;1.2820;
1204.5000;0.6382;1.2868;
1204.8000;0.6374;1.2892;
1205.1000;0.6398;1.2940;
1205.4000;0.6357;1.2940;
1205.7000;0.6365;1.2916;
1206.0000;0.6374;1.2988;
1206.3000;0.6382;1.2988;
1206.6000;0.6382;1.2988;
1206.9000;0.6341;1.2940;
1207.2000;0.6382;1.2844;
1207.5000;0.6374;1.2772;
1207.8000;0.6341;1.2772;
1208.1000;0.6325;1.2724;
1208.4000;0.6357;1.2676;
1208.7000;0.6382;1.2748;
1209.0000;0.6341;1.2628;
1209.3000;0.6365;1.2580;
1209.6000;0.6382;1.2652;
1209.9000;0.6374;1.2748;
1210.2000;0.6365;1.2772;
1210.5000;0.6382;1.2772;
1210.8000;0.6382;1.2772;
1211.1000;0.6374;1.2748;
1211.4000;0.6365;1.2700;
1211.7000;0.6374;1.2772;
1212.0000;0.6365;1.2748;
1212.3000;0.6414;1.2868;
1212.6000;0.6374;1.2748;
1212.9000;0.6341;1.2748;
1213.2000;0.6374;1.2868;
1213.5000;0.6357;1.2868;
1213.8000;0.6365;1.2988;
1214.1000;0.6349;1.2940;
1214.4000;0.6447;1.3084;
1214.7000;0.6398;1.2964;
1215.0000;0.6374;1.2940;
1215.3000;0.6276;1.2652;
1215.6000;0.6365;1.2892;
1215.9000;0.6317;1.2844;
1216.2000;0.6292;1.2748;
1216.5000;0.6357;1.2868;
1216.8000;0.6349;1.2796;
1217.1000;0.6357;1.2844;
1217.4000;0.6349;1.2844;
1217.7000;0.6365;1.2748;
1218.0000;0.6349;1.2772;
1218.3000;0.6365;1.2700;
1218.6000;0.6382;1.2796;
1218.9000;0.6365;1.2820;
1219.2000;0.6422;1.2892;
1219.5000;0.6365;1.2820;
1219.8000;0.6349;1.2796;
1220.1000;0.6382;1.2868;
1220.4000;0.6365;1.2772;
1220.7000;0.6357;1.2772;
1221.0000;0.6341;1.2772;
1221.3000;0.6365;1.2820;
1221.6000;0.6357;1.2796;
1221.9000;0.6349;1.2724;
1222.2000;0.6349;1.2748;
1222.5000;0.6333;1.2748;
1222.8000;0.6349;1.2748;
1223.1000;0.6357;1.2748;
1223.4000;0.6374;1.2748;
1223.7000;0.6349;1.2868;
1224.0000;0.6365;1.2868;
1224.3000;0.6382;1.2772;
1224.6000;0.6382;1.2868;
1224.9000;0.6374;1.2820;
1225.2000;0.6390;1.2964;
1225.5000;0.6374;1.2892;
1225.8000;0.6374;1.2844;
1226.1000;0.6357;1.2916;
1226.4000;0.6357;1.2940;
1226.7000;0.6374;1.2916;
1227.0000;0.6406;1.2988;
1227.3000;0.6357;1.2820;
1227.6000;0.6341;1.2772;
1227.9000;0.6357;1.2844;
1228.2000;0.6357;1.2772;
1228.5000;0.6365;1.2820;
1228.8000;0.6349;1.2820;
1229.1000;0.6325;1.2700;
1229.4000;0.6374;1.2772;
1229.7000;0.6374;1.2796;
1230.0000;0.6357;1.2772;
1230.3000;0.6374;1.2724;
1230.6000;0.6382;1.2772;
1230.9000;0.6414;1.2724;
1231.2000;0.6357;1.2580;
1231.5000;0.6349;1.2556;
1231.8000;0.6382;1.2604;
1232.1000;0.6390;1.2628;
1232.4000;0.6382;1.2676;
1232.7000;0.6365;1.2676;
1233.0000;0.6357;1.2700;
1233.3000;0.6349;1.2676;
1233.6000;0.6357;1.2772;
1233.9000;0.6365;1.2748;
1234.2000;0.6333;1.2724;
1234.5000;0.6406;1.2868;
1234.8000;0.6374;1.2868;
1235.1000;0.6349;1.2892;
1235.4000;0.6447;1.3108;
1235.7000;0.6349;1.2868;
1236.0000;0.6382;1.2916;
1236.3000;0.6357;1.2844;
1236.6000;0.6341;1.2844;
1236.9000;0.6341;1.2892;
1237.2000;0.6349;1.2868;
1237.5000;0.6357;1.2868;
1237.8000;0.6341;1.2772;
1238.1000;0.6357;1.2796;
1238.4000;0.6349;1.2892;
1238.7000;0.6317;1.2772;
1239.0000;0.6309;1.2652;
1239.3000;0.6406;1.2964;
1239.6000;0.6357;1.2892;
1239.9000;0.6349;1.2820;
1240.2000;0.6309;1.2628;
1240.5000;0.6349;1.2772;
1240.8000;0.6349;1.2868;
1241.1000;0.6365;1.2940;
1241.4000;0.6390;1.2964;
1241.7000;0.6365;1.2892;
1242.0000;0.6333;1.2820;
1242.3000;0.6382;1.2892;
1242.6000;0.6349;1.2844;
1242.9000;0.6341;1.2820;
1243.2000;0.6341;1.2748;
1243.5000;0.6325;1.2748;
1243.8000;0.6357;1.2844;
1244.1000;0.6333;1.2844;
1244.4000;0.6422;1.3060;
1244.7000;0.6406;1.3036;
1245.0000;0.6341;1.3012;
1245.3000;0.6349;1.2916;
1245.6000;0.6365;1.2940;
1245.9000;0.6365;1.2940;
1246.2000;0.6374;1.2916;
1246.5000;0.6374;1.2916;
1246.8000;0.6349;1.2940;
1247.1000;0.6374;1.2868;
1247.4000;0.6374;1.2724;
1247.7000;0.6349;1.2652;
1248.0000;0.6390;1.2628;
1248.3000;0.6374;1.2604;
1248.6000;0.6357;1.2580;
1248.9000;0.6365;1.2580;
1249.2000;0.6349;1.2652;
1249.5000;0.6357;1.2652;
1249.8000;0.6374;1.2652;
1250.1000;0.6374;1.2604;
1250.4000;0.6382;1.2676;
1250.7000;0.6357;1.2628;
1251.0000;0.6349;1.2628;
1251.3000;0.6349;1.2700;
1251.6000;0.6349;1.2772;
1251.9000;0.6374;1.2820;
1252.2000;0.6341;1.2700;
1252.5000;0.6382;1.2820;
1252.8000;0.6325;1.2748;
1253.1000;0.6341;1.2724;
1253.4000;0.6365;1.2748;
1253.7000;0.6365;1.2796;
1254.0000;0.6357;1.2724;
1254.3000;0.6357;1.2700;
1254.6000;0.6333;1.2652;
1254.9000;0.6365;1.2772;
1255.2000;0.6341;1.2748;
1255.5000;0.6374;1.2796;
1255.8000;0.6357;1.2772;
1256.1000;0.6382;1.2892;
1256.4000;0.6365;1.2772;
1256.7000;0.6390;1.2868;
1257.0000;0.6268;1.2700;
1257.3000;0.6365;1.2892;
1257.6000;0.6325;1.2820;
1257.9000;0.6341;1.2916;
1258.2000;0.6317;1.2772;
1258.5000;0.6349;1.2868;
1258.8000;0.6349;1.2868;
1259.1000;0.6333;1.2796;
1259.4000;0.6341;1.2820;
1259.7000;0.6365;1.2916;
1260.0000;0.6333;1.2868;
1260.3000;0.6349;1.3036;
1260.6000;0.6341;1.2988;
1260.9000;0.6349;1.2916;
1261.2000;0.6382;1.3060;
1261.5000;0.6357;1.2940;
1261.8000;0.6357;1.2844;
1262.1000;0.6341;1.2796;
1262.4000;0.6374;1.2796;
1262.7000;0.6365;1.2868;
1263.0000;0.6374;1.2844;
1263.3000;0.6309;1.2652;
1263.6000;0.6333;1.2724;
1263.9000;0.6333;1.2772;
1264.2000;0.6414;1.2868;
1264.5000;0.6333;1.2796;
1264.8000;0.6341;1.2724;
1265.1000;0.6357;1.2820;
1265.4000;0.6390;1.2988;
1265.7000;0.6333;1.2916;
1266.0000;0.6357;1.2988;
1266.3000;0.6341;1.2868;
1266.6000;0.6341;1.2916;
1266.9000;0.6333;1.2940;
1267.2000;0.6357;1.2844;
1267.5000;0.6382;1.2868;
1267.8000;0.6349;1.2844;
1268.1000;0.6341;1.2868;
1268.4000;0.6341;1.2844;
1268.7000;0.6382;1.2988;
1269.0000;0.6357;1.2940;
1269.3000;0.6325;1.2940;
1269.6000;0.6325;1.2940;
1269.9000;0.6349;1.2892;
1270.2000;0.6374;1.2916;
1270.5000;0.6309;1.2772;
1270.8000;0.6341;1.2772;
1271.1000;0.6341;1.2748;
1271.4000;0.6325;1.2724;
1271.7000;0.6349;1.2868;
1272.0000;0.6357;1.2820;
1272.3000;0.6333;1.2772;
1272.6000;0.6365;1.2796;
1272.9000;0.6374;1.2796;
1273.2000;0.6365;1.2820;
1273.5000;0.6357;1.2796;
1273.8000;0.6341;1.2820;
1274.1000;0.6349;1.2916;
1274.4000;0.6333;1.2892;
1274.7000;0.6333;1.2940;
1275.0000;0.6357;1.2964;
1275.3000;0.6357;1.2916;
1275.6000;0.6349;1.2892;
1275.9000;0.6349;1.2820;
1276.2000;0.6341;1.2796;
1276.5000;0.6365;1.2820;
1276.8000;0.6349;1.2724;
1277.1000;0.6325;1.2772;
1277.4000;0.6357;1.2796;
1277.7000;0.6390;1.2796;
1278.0000;0.6325;1.2676;
1278.3000;0.6317;1.2652;
1278.6000;0.6357;1.2724;
1278.9000;0.6333;1.2604;
1279.2000;0.6341;1.2724;
1279.5000;0.6382;1.2820;
1279.8000;0.6349;1.2700;
1280.1000;0.6341;1.2676;
1280.4000;0.6341;1.2772;
1280.7000;0.6341;1.2796;
1281.0000;0.6341;1.2844;
1281.3000;0.6325;1.2724;
1281.6000;0.6349;1.2772;
1281.9000;0.6300;1.2772;
1282.2000;0.6325;1.2796;
1282.5000;0.6325;1.2796;
1282.8000;0.6276;1.2772;
1283.1000;0.6349;1.3012;
1283.4000;0.6365;1.2988;
1283.7000;0.6325;1.2892;
1284.0000;0.6357;1.2892;
1284.3000;0.6357;1.2844;
1284.6000;0.6333;1.2724;
1284.9000;0.6325;1.2724;
1285.2000;0.6333;1.2772;
1285.5000;0.6382;1.2916;
1285.8000;0.6374;1.2940;
1286.1000;0.6349;1.2892;
1286.4000;0.6398;1.2964;
1286.7000;0.6292;1.2700;
1287.0000;0.6341;1.2844;
1287.3000;0.6357;1.2772;
1287.6000;0.6341;1.2772;
1287.9000;0.6341;1.2796;
1288.2000;0.6365;1.2772;
1288.5000;0.6341;1.2748;
1288.8000;0.6357;1.2796;
1289.1000;0.6333;1.2748;
1289.4000;0.6341;1.2868;
1289.7000;0.6365;1.2940;
1290.0000;0.6211;1.2676;
1290.3000;0.6333;1.2916;
1290.6000;0.6349;1.2892;
1290.9000;0.6309;1.2820;
1291.2000;0.6341;1.2988;
1291.5000;0.6333;1.2868;
1291.8000;0.6382;1.2916;
1292.1000;0.6276;1.2724;
1292.4000;0.6325;1.2868;
1292.7000;0.6292;1.2748;
1293.0000;0.6349;1.2916;
1293.3000;0.6341;1.2868;
1293.6000;0.6341;1.2916;
1293.9000;0.6341;1.2796;
1294.2000;0.6341;1.2820;
1294.5000;0.6333;1.2820;
1294.8000;0.6333;1.2820;
1295.1000;0.6333;1.2748;
1295.4000;0.6349;1.2748;
1295.7000;0.6374;1.2892;
1296.0000;0.6341;1.2796;
1296.3000;0.6333;1.2796;
1296.6000;0.6309;1.2700;
1296.9000;0.6333;1.2676;
1297.2000;0.6341;1.2676;
1297.5000;0.6333;1.2652;
1297.8000;0.6349;1.2700;
1298.1000;0.6365;1.2772;
1298.4000;0.6341;1.2700;
1298.7000;0.6317;1.2652;
1299.0000;0.6365;1.2820;
1299.3000;0.6333;1.2820;
1299.6000;0.6333;1.2868;
1299.9000;0.6325;1.2868;
1300.2000;0.6349;1.2868;
1300.5000;0.6260;1.2676;
1300.8000;0.6333;1.2892;
1301.1000;0.6292;1.2772;
1301.4000;0.6325;1.2868;
1301.7000;0.6325;1.2868;
1302.0000;0.6357;1.2940;
1302.3000;0.6349;1.2964;
1302.6000;0.6325;1.2868;
1302.9000;0.6349;1.2940;
1303.2000;0.6333;1.2844;
1303.5000;0.6341;1.2892;
1303.8000;0.6341;1.2820;
1304.1000;0.6325;1.2748;
1304.4000;0.6325;1.2796;
1304.7000;0.6325;1.2844;
1305.0000;0.6357;1.2988;
1305.3000;0.6333;1.2820;
1305.6000;0.6333;1.2916;
1305.9000;0.6365;1.3012;
1306.2000;0.6357;1.3036;
1306.5000;0.6309;1.2868;
1306.8000;0.6252;1.2700;
1307.1000;0.6333;1.2844;
1307.4000;0.6349;1.2772;
1307.7000;0.6325;1.2748;
1308.0000;0.6365;1.2844;
1308.3000;0.6333;1.2772;
1308.6000;0.6382;1.2820;
1308.9000;0.6300;1.2628;
1309.2000;0.6341;1.2724;
1309.5000;0.6357;1.2748;
1309.8000;0.6300;1.2676;
1310.1000;0.6349;1.2820;
1310.4000;0.6365;1.2988;
1310.7000;0.6349;1.2868;
1311.0000;0.6414;1.2988;
1311.3000;0.6292;1.2724;
1311.6000;0.6317;1.2700;
1311.9000;0.6349;1.2772;
1312.2000;0.6325;1.2724;
1312.5000;0.6357;1.2820;
1312.8000;0.6349;1.2724;
1313.1000;0.6325;1.2604;
1313.4000;0.6382;1.2724;
1313.7000;0.6349;1.2676;
1314.0000;0.6341;1.2772;
1314.3000;0.6325;1.2844;
1314.6000;0.6349;1.2772;
1314.9000;0.6349;1.2700;
1315.2000;0.6333;1.2652;
1315.5000;0.6333;1.2652;
1315.8000;0.6349;1.2796;
1316.1000;0.6325;1.2772;
1316.4000;0.6349;1.2892;
1316.7000;0.6325;1.2796;
1317.0000;0.6357;1.2796;
1317.3000;0.6365;1.2748;
1317.6000;0.6260;1.2413;
1317.9000;0.6325;1.2580;
1318.2000;0.6333;1.2508;
1318.5000;0.6276;1.2317;
1318.8000;0.6357;1.2604;
1319.1000;0.6349;1.2628;
1319.4000;0.6333;1.2652;
1319.7000;0.6325;1.2676;
1320.0000;0.6365;1.2724;
1320.3000;0.6333;1.2604;
1320.6000;0.6325;1.2604;
1320.9000;0.6333;1.2556;
1321.2000;0.6349;1.2604;
1321.5000;0.6333;1.2532;
1321.8000;0.6341;1.2532;
1322.1000;0.6341;1.2628;
1322.4000;0.6357;1.2604;
1322.7000;0.6300;1.2508;
1323.0000;0.6325;1.2556;
1323.3000;0.6357;1.2628;
1323.6000;0.6349;1.2604;
1323.9000;0.6317;1.2604;
1324.2000;0.6300;1.2604;
1324.5000;0.6333;1.2676;
1324.8000;0.6317;1.2580;
1325.1000;0.6382;1.2724;
1325.4000;0.6317;1.2652;
1325.7000;0.6309;1.2676;
1326.0000;0.6341;1.2676;
1326.3000;0.6317;1.2652;
1326.6000;0.6341;1.2748;
1326.9000;0.6317;1.2796;
1327.2000;0.6292;1.2748;
1327.5000;0.6365;1.2892;
1327.8000;0.6309;1.2820;
1328.1000;0.6325;1.2844;
1328.4000;0.6325;1.2868;
1328.7000;0.6357;1.2916;
1329.0000;0.6349;1.2844;
1329.3000;0.6317;1.2724;
1329.6000;0.6325;1.2652;
1329.9000;0.6333;1.2724;
1330.2000;0.6333;1.2772;
1330.5000;0.6317;1.2748;
1330.8000;0.6333;1.2892;
1331.1000;0.6349;1.2916;
1331.4000;0.6325;1.2820;
1331.7000;0.6357;1.2892;
1332.0000;0.6382;1.3012;
1332.3000;0.6309;1.2868;
1332.6000;0.6325;1.2892;
1332.9000;0.6309;1.2892;
1333.2000;0.6325;1.2988;
1333.5000;0.6349;1.3084;
1333.8000;0.6317;1.3060;
1334.1000;0.6284;1.2844;
1334.4000;0.6357;1.3012;
1334.7000;0.6349;1.2988;
1335.0000;0.6357;1.3084;
1335.3000;0.6374;1.3012;
1335.6000;0.6333;1.2892;
1335.9000;0.6309;1.2868;
1336.2000;0.6317;1.2844;
1336.5000;0.6333;1.2868;
1336.8000;0.6333;1.2916;
1337.1000;0.6300;1.2844;
1337.4000;0.6349;1.2964;
1337.7000;0.6317;1.2940;
1338.0000;0.6341;1.3036;
1338.3000;0.6341;1.3084;
1338.6000;0.6325;1.2964;
1338.9000;0.6374;1.2964;
1339.2000;0.6333;1.2820;
1339.5000;0.6341;1.2820;
1339.8000;0.6325;1.2748;
1340.1000;0.6357;1.2724;
1340.4000;0.6357;1.2772;
1340.7000;0.6325;1.2748;
1341.0000;0.6349;1.2820;
1341.3000;0.6284;1.2652;
1341.6000;0.6325;1.2724;
1341.9000;0.6325;1.2700;
1342.2000;0.6333;1.2700;
1342.5000;0.6333;1.2676;
1342.8000;0.6341;1.2724;
1343.1000;0.6333;1.2724;
1343.4000;0.6292;1.2772;
1343.7000;0.6300;1.2772;
1344.0000;0.6374;1.2868;
1344.3000;0.6349;1.2796;
1344.6000;0.6325;1.2748;
1344.9000;0.6341;1.2844;
1345.2000;0.6309;1.2820;
1345.5000;0.6325;1.2820;
1345.8000;0.6309;1.2820;
1346.1000;0.6317;1.2868;
1346.4000;0.6325;1.2892;
1346.7000;0.6341;1.2772;
1347.0000;0.6325;1.2724;
1347.3000;0.6325;1.2748;
1347.6000;0.6341;1.2676;
1347.9000;0.6300;1.2628;
1348.2000;0.6309;1.2748;
1348.5000;0.6341;1.2820;
1348.8000;0.6300;1.2676;
1349.1000;0.6333;1.2772;
1349.4000;0.6333;1.2748;
1349.7000;0.6333;1.2820;
1350.0000;0.6325;1.2892;
1350.3000;0.6325;1.2892;
1350.6000;0.6292;1.2724;
1350.9000;0.6309;1.2700;
1351.2000;0.6317;1.2652;
1351.5000;0.6341;1.2748;
1351.8000;0.6333;1.2772;
1352.1000;0.6333;1.2868;
1352.4000;0.6325;1.2892;
1352.7000;0.6317;1.2892;
1353.0000;0.6349;1.2988;
1353.3000;0.6325;1.2916;
1353.6000;0.6292;1.2844;
1353.9000;0.6349;1.2916;
1354.2000;0.6349;1.2892;
1354.5000;0.6341;1.2844;
1354.8000;0.6325;1.2868;
1355.1000;0.6414;1.3131;
1355.4000;0.6325;1.2964;
1355.7000;0.6325;1.3036;
1356.0000;0.6317;1.3012;
1356.3000;0.6317;1.2988;
1356.6000;0.6300;1.2916;
1356.9000;0.6341;1.3084;
1357.2000;0.6284;1.2892;
1357.5000;0.6284;1.2844;
1357.8000;0.6349;1.3012;
1358.1000;0.6333;1.2988;
1358.4000;0.6235;1.2748;
1358.7000;0.6325;1.2940;
1359.0000;0.6341;1.2940;
1359.3000;0.6219;1.2580;
1359.6000;0.6341;1.2916;
1359.9000;0.6333;1.2820;
1360.2000;0.6325;1.2892;
1360.5000;0.6325;1.2940;
1360.8000;0.6325;1.2844;
1361.1000;0.6309;1.2868;
1361.4000;0.6300;1.2796;
1361.7000;0.6309;1.2868;
1362.0000;0.6333;1.2844;
1362.3000;0.6317;1.2844;
1362.6000;0.6317;1.2868;
1362.9000;0.6341;1.2916;
1363.2000;0.6325;1.2844;
1363.5000;0.6317;1.2820;
1363.8000;0.6325;1.2796;
1364.1000;0.6325;1.2748;
1364.4000;0.6317;1.2844;
1364.7000;0.6300;1.2724;
1365.0000;0.6341;1.2916;
1365.3000;0.6292;1.2796;
1365.6000;0.6325;1.2868;
1365.9000;0.6365;1.2868;
1366.2000;0.6252;1.2628;
1366.5000;0.6374;1.2892;
1366.8000;0.6309;1.2796;
1367.1000;0.6341;1.2892;
1367.4000;0.6300;1.2844;
1367.7000;0.6325;1.2844;
1368.0000;0.6317;1.2916;
1368.3000;0.6317;1.2988;
1368.6000;0.6317;1.3060;
1368.9000;0.6349;1.3131;
1369.2000;0.6325;1.3084;
1369.5000;0.6325;1.3012;
1369.8000;0.6341;1.2964;
1370.1000;0.6365;1.3060;
1370.4000;0.6349;1.3084;
1370.7000;0.6365;1.3155;
1371.0000;0.6374;1.3203;
1371.3000;0.6325;1.2988;
1371.6000;0.6317;1.2940;
1371.9000;0.6325;1.3036;
1372.2000;0.6309;1.2940;
1372.5000;0.6276;1.2820;
1372.8000;0.6300;1.2844;
1373.1000;0.6357;1.3012;
1373.4000;0.6406;1.3155;
1373.7000;0.6325;1.2988;
1374.0000;0.6284;1.2916;
1374.3000;0.6309;1.3036;
1374.6000;0.6317;1.3036;
1374.9000;0.6317;1.2964;
1375.2000;0.6309;1.2868;
1375.5000;0.6300;1.2796;
1375.8000;0.6341;1.2772;
1376.1000;0.6333;1.2772;
1376.4000;0.6317;1.2820;
1376.7000;0.6309;1.2748;
1377.0000;0.6317;1.2772;
1377.3000;0.6357;1.2820;
1377.6000;0.6341;1.2892;
1377.9000;0.6333;1.2940;
1378.2000;0.6325;1.3012;
1378.5000;0.6325;1.3060;
1378.8000;0.6333;1.2988;
1379.1000;0.6325;1.2916;
1379.4000;0.6333;1.2844;
1379.7000;0.6309;1.2868;
1380.0000;0.6317;1.2796;
1380.3000;0.6317;1.2748;
1380.6000;0.6300;1.2772;
1380.9000;0.6325;1.2676;
1381.2000;0.6309;1.2676;
1381.5000;0.6325;1.2700;
1381.8000;0.6325;1.2748;
1382.1000;0.6398;1.2868;
1382.4000;0.6341;1.2748;
1382.7000;0.6333;1.2724;
1383.0000;0.6317;1.2796;
1383.3000;0.6325;1.2772;
1383.6000;0.6333;1.2772;
1383.9000;0.6333;1.2868;
1384.2000;0.6374;1.2964;
1384.5000;0.6341;1.2892;
1384.8000;0.6317;1.2892;
1385.1000;0.6325;1.2916;
1385.4000;0.6317;1.2916;
1385.7000;0.6325;1.2868;
1386.0000;0.6349;1.3012;
1386.3000;0.6333;1.2940;
1386.6000;0.6325;1.2892;
1386.9000;0.6349;1.2868;
1387.2000;0.6317;1.2748;
1387.5000;0.6300;1.2748;
1387.8000;0.6325;1.2796;
1388.1000;0.6341;1.2940;
1388.4000;0.6284;1.2844;
1388.7000;0.6276;1.2796;
1389.0000;0.6317;1.2940;
1389.3000;0.6325;1.2940;
1389.6000;0.6284;1.2700;
1389.9000;0.6325;1.2748;
1390.2000;0.6300;1.2652;
1390.5000;0.6260;1.2461;
1390.8000;0.6317;1.2604;
1391.1000;0.6333;1.2580;
1391.4000;0.6292;1.2604;
1391.7000;0.6300;1.2724;
1392.0000;0.6260;1.2556;
1392.3000;0.6382;1.2772;
1392.6000;0.6325;1.2604;
1392.9000;0.6325;1.2580;
1393.2000;0.6325;1.2532;
1393.5000;0.6309;1.2484;
1393.8000;0.6333;1.2532;
1394.1000;0.6317;1.2508;
1394.4000;0.6309;1.2532;
1394.7000;0.6365;1.2724;
1395.0000;0.6341;1.2628;
1395.3000;0.6374;1.2772;
1395.6000;0.6252;1.2580;
1395.9000;0.6300;1.2724;
1396.2000;0.6325;1.2748;
1396.5000;0.6300;1.2676;
1396.8000;0.6309;1.2628;
1397.1000;0.6292;1.2532;
1397.4000;0.6309;1.2700;
1397.7000;0.6333;1.2772;
1398.0000;0.6325;1.2820;
1398.3000;0.6317;1.2916;
1398.6000;0.6195;1.2556;
1398.9000;0.6333;1.2868;
1399.2000;0.6325;1.2868;
1399.5000;0.6325;1.2892;
1399.8000;0.6341;1.2868;
