time/ms;Fluo/V;P700 deltaI/I x10³;
-199.8000;0.7766;1.3155;
-199.5000;0.7774;1.3251;
-199.2000;0.7798;1.3275;
-198.9000;0.7790;1.3299;
-198.6000;0.7782;1.3299;
-198.3000;0.7790;1.3203;
-198.0000;0.7782;1.3131;
-197.7000;0.7782;1.3179;
-197.4000;0.7798;1.3131;
-197.1000;0.7790;1.3108;
-196.8000;0.7790;1.3203;
-196.5000;0.7798;1.3275;
-196.2000;0.7757;1.3179;
-195.9000;0.7774;1.3299;
-195.6000;0.7782;1.3371;
-195.3000;0.7790;1.3395;
-195.0000;0.7798;1.3467;
-194.7000;0.7790;1.3491;
-194.4000;0.7782;1.3443;
-194.1000;0.7774;1.3323;
-193.8000;0.7798;1.3371;
-193.5000;0.7790;1.3299;
-193.2000;0.7766;1.3227;
-192.9000;0.7806;1.3419;
-192.6000;0.7806;1.3419;
-192.3000;0.7741;1.3251;
-192.0000;0.7790;1.3275;
-191.7000;0.7806;1.3323;
-191.4000;0.7798;1.3323;
-191.1000;0.7757;1.3275;
-190.8000;0.7774;1.3203;
-190.5000;0.7790;1.3251;
-190.2000;0.7741;1.3108;
-189.9000;0.7774;1.3227;
-189.6000;0.7774;1.3179;
-189.3000;0.7790;1.3203;
-189.0000;0.7790;1.3251;
-188.7000;0.7766;1.3155;
-188.4000;0.7790;1.3155;
-188.1000;0.7782;1.3108;
-187.8000;0.7806;1.3084;
-187.5000;0.7790;1.3060;
-187.2000;0.7782;1.3155;
-186.9000;0.7823;1.3347;
-186.6000;0.7790;1.3155;
-186.3000;0.7798;1.3155;
-186.0000;0.7782;1.3155;
-185.7000;0.7782;1.3131;
-185.4000;0.7798;1.3155;
-185.1000;0.7790;1.3084;
-184.8000;0.7790;1.3012;
-184.5000;0.7782;1.3036;
-184.2000;0.7806;1.3108;
-183.9000;0.7798;1.3179;
-183.6000;0.7774;1.3131;
-183.3000;0.7766;1.3155;
-183.0000;0.7798;1.3203;
-182.7000;0.7798;1.3108;
-182.4000;0.7790;1.3227;
-182.1000;0.7790;1.3227;
-181.8000;0.7782;1.3155;
-181.5000;0.7790;1.3275;
-181.2000;0.7790;1.3275;
-180.9000;0.7774;1.3227;
-180.6000;0.7774;1.3179;
-180.3000;0.7790;1.3227;
-180.0000;0.7766;1.3251;
-179.7000;0.7774;1.3227;
-179.4000;0.7790;1.3275;
-179.1000;0.7774;1.3227;
-178.8000;0.7798;1.3227;
-178.5000;0.7798;1.3227;
-178.2000;0.7782;1.3251;
-177.9000;0.7798;1.3299;
-177.6000;0.7766;1.3227;
-177.3000;0.7782;1.3251;
-177.0000;0.7774;1.3251;
-176.7000;0.7774;1.3251;
-176.4000;0.7790;1.3275;
-176.1000;0.7782;1.3227;
-175.8000;0.7782;1.3275;
-175.5000;0.7782;1.3275;
-175.2000;0.7798;1.3275;
-174.9000;0.7774;1.3131;
-174.6000;0.7774;1.3227;
-174.3000;0.7749;1.3251;
-174.0000;0.7774;1.3251;
-173.7000;0.7790;1.3275;
-173.4000;0.7774;1.3179;
-173.1000;0.7782;1.3179;
-172.8000;0.7782;1.3179;
-172.5000;0.7823;1.3251;
-172.2000;0.7798;1.3179;
-171.9000;0.7782;1.3155;
-171.6000;0.7774;1.3036;
-171.3000;0.7806;1.2988;
-171.0000;0.7782;1.3084;
-170.7000;0.7774;1.3084;
-170.4000;0.7790;1.3131;
-170.1000;0.7782;1.3131;
-169.8000;0.7782;1.3179;
-169.5000;0.7766;1.3179;
-169.2000;0.7749;1.3179;
-168.9000;0.7774;1.3155;
-168.6000;0.7798;1.3203;
-168.3000;0.7798;1.3108;
-168.0000;0.7774;1.2988;
-167.7000;0.7798;1.3060;
-167.4000;0.7798;1.3060;
-167.1000;0.7782;1.3060;
-166.8000;0.7839;1.3108;
-166.5000;0.7798;1.3060;
-166.2000;0.7782;1.3108;
-165.9000;0.7774;1.3108;
-165.6000;0.7806;1.3227;
-165.3000;0.7774;1.3108;
-165.0000;0.7782;1.3131;
-164.7000;0.7790;1.3203;
-164.4000;0.7814;1.3299;
-164.1000;0.7725;1.3179;
-163.8000;0.7782;1.3371;
-163.5000;0.7782;1.3371;
-163.2000;0.7774;1.3323;
-162.9000;0.7790;1.3371;
-162.6000;0.7766;1.3299;
-162.3000;0.7782;1.3299;
-162.0000;0.7782;1.3299;
-161.7000;0.7782;1.3323;
-161.4000;0.7790;1.3443;
-161.1000;0.7774;1.3419;
-160.8000;0.7782;1.3467;
-160.5000;0.7806;1.3419;
-160.2000;0.7774;1.3323;
-159.9000;0.7790;1.3371;
-159.6000;0.7823;1.3419;
-159.3000;0.7790;1.3395;
-159.0000;0.7774;1.3371;
-158.7000;0.7806;1.3323;
-158.4000;0.7798;1.3347;
-158.1000;0.7782;1.3323;
-157.8000;0.7782;1.3299;
-157.5000;0.7790;1.3251;
-157.2000;0.7798;1.3251;
-156.9000;0.7798;1.3155;
-156.6000;0.7774;1.3036;
-156.3000;0.7806;1.3179;
-156.0000;0.7782;1.3131;
-155.7000;0.7814;1.3275;
-155.4000;0.7757;1.3012;
-155.1000;0.7790;1.3060;
-154.8000;0.7798;1.3060;
-154.5000;0.7741;1.2916;
-154.2000;0.7814;1.3131;
-153.9000;0.7831;1.3155;
-153.6000;0.7823;1.3203;
-153.3000;0.7790;1.3227;
-153.0000;0.7717;1.2964;
-152.7000;0.7806;1.3179;
-152.4000;0.7806;1.3299;
-152.1000;0.7806;1.3347;
-151.8000;0.7798;1.3347;
-151.5000;0.7782;1.3323;
-151.2000;0.7782;1.3299;
-150.9000;0.7790;1.3251;
-150.6000;0.7774;1.3227;
-150.3000;0.7774;1.3155;
-150.0000;0.7676;1.2724;
-149.7000;0.7774;1.2988;
-149.4000;0.7806;1.3036;
-149.1000;0.7782;1.3036;
-148.8000;0.7790;1.3179;
-148.5000;0.7871;1.3395;
-148.2000;0.7798;1.3179;
-147.9000;0.7790;1.3203;
-147.6000;0.7823;1.3227;
-147.3000;0.7782;1.3131;
-147.0000;0.7782;1.3131;
-146.7000;0.7798;1.3179;
-146.4000;0.7806;1.3299;
-146.1000;0.7790;1.3323;
-145.8000;0.7749;1.3155;
-145.5000;0.7774;1.3179;
-145.2000;0.7774;1.3108;
-144.9000;0.7782;1.3108;
-144.6000;0.7774;1.3131;
-144.3000;0.7798;1.3227;
-144.0000;0.7774;1.3179;
-143.7000;0.7733;1.3036;
-143.4000;0.7733;1.2940;
-143.1000;0.7790;1.3060;
-142.8000;0.7798;1.3108;
-142.5000;0.7790;1.3060;
-142.2000;0.7782;1.3108;
-141.9000;0.7790;1.3108;
-141.6000;0.7790;1.3108;
-141.3000;0.7774;1.3084;
-141.0000;0.7814;1.3108;
-140.7000;0.7757;1.3084;
-140.4000;0.7782;1.3179;
-140.1000;0.7839;1.3227;
-139.8000;0.7774;1.3131;
-139.5000;0.7798;1.3131;
-139.2000;0.7782;1.2988;
-138.9000;0.7774;1.2964;
-138.6000;0.7692;1.2748;
-138.3000;0.7790;1.3036;
-138.0000;0.7790;1.3012;
-137.7000;0.7790;1.2988;
-137.4000;0.7790;1.3012;
-137.1000;0.7782;1.2988;
-136.8000;0.7798;1.3060;
-136.5000;0.7733;1.2940;
-136.2000;0.7766;1.3036;
-135.9000;0.7774;1.3060;
-135.6000;0.7790;1.3108;
-135.3000;0.7782;1.3036;
-135.0000;0.7790;1.3012;
-134.7000;0.7798;1.3036;
-134.4000;0.7757;1.2988;
-134.1000;0.7782;1.3084;
-133.8000;0.7798;1.3060;
-133.5000;0.7790;1.2988;
-133.2000;0.7782;1.2964;
-132.9000;0.7798;1.2964;
-132.6000;0.7790;1.3012;
-132.3000;0.7782;1.3108;
-132.0000;0.7774;1.3060;
-131.7000;0.7798;1.3036;
-131.4000;0.7782;1.2916;
-131.1000;0.7782;1.2988;
-130.8000;0.7774;1.2988;
-130.5000;0.7790;1.3060;
-130.2000;0.7774;1.3060;
-129.9000;0.7782;1.3060;
-129.6000;0.7782;1.3012;
-129.3000;0.7798;1.3084;
-129.0000;0.7814;1.3179;
-128.7000;0.7725;1.2988;
-128.4000;0.7798;1.3036;
-128.1000;0.7782;1.3036;
-127.8000;0.7782;1.2988;
-127.5000;0.7798;1.2988;
-127.2000;0.7757;1.2868;
-126.9000;0.7782;1.2964;
-126.6000;0.7757;1.3036;
-126.3000;0.7790;1.3036;
-126.0000;0.7806;1.3012;
-125.7000;0.7782;1.3012;
-125.4000;0.7806;1.3155;
-125.1000;0.7782;1.3108;
-124.8000;0.7806;1.3131;
-124.5000;0.7766;1.3084;
-124.2000;0.7782;1.3036;
-123.9000;0.7790;1.3012;
-123.6000;0.7782;1.3012;
-123.3000;0.7782;1.2892;
-123.0000;0.7766;1.2988;
-122.7000;0.7839;1.3227;
-122.4000;0.7798;1.3131;
-122.1000;0.7782;1.3131;
-121.8000;0.7814;1.3227;
-121.5000;0.7790;1.3203;
-121.2000;0.7766;1.3155;
-120.9000;0.7766;1.3155;
-120.6000;0.7863;1.3299;
-120.3000;0.7774;1.3036;
-120.0000;0.7790;1.2988;
-119.7000;0.7741;1.2940;
-119.4000;0.7782;1.3012;
-119.1000;0.7798;1.3060;
-118.8000;0.7717;1.2916;
-118.5000;0.7839;1.3203;
-118.2000;0.7798;1.3108;
-117.9000;0.7782;1.3108;
-117.6000;0.7774;1.3155;
-117.3000;0.7749;1.3131;
-117.0000;0.7798;1.3275;
-116.7000;0.7782;1.3323;
-116.4000;0.7782;1.3299;
-116.1000;0.7733;1.3084;
-115.8000;0.7782;1.3155;
-115.5000;0.7790;1.3084;
-115.2000;0.7692;1.2868;
-114.9000;0.7774;1.3227;
-114.6000;0.7766;1.3084;
-114.3000;0.7749;1.3036;
-114.0000;0.7782;1.3131;
-113.7000;0.7757;1.2988;
-113.4000;0.7757;1.3036;
-113.1000;0.7774;1.3060;
-112.8000;0.7757;1.3084;
-112.5000;0.7798;1.3108;
-112.2000;0.7782;1.3084;
-111.9000;0.7749;1.2964;
-111.6000;0.7782;1.2988;
-111.3000;0.7782;1.3155;
-111.0000;0.7798;1.3179;
-110.7000;0.7774;1.3155;
-110.4000;0.7782;1.3179;
-110.1000;0.7806;1.3179;
-109.8000;0.7790;1.3131;
-109.5000;0.7766;1.3108;
-109.2000;0.7782;1.3084;
-108.9000;0.7790;1.3203;
-108.6000;0.7790;1.3131;
-108.3000;0.7766;1.3108;
-108.0000;0.7766;1.3155;
-107.7000;0.7766;1.3203;
-107.4000;0.7798;1.3203;
-107.1000;0.7790;1.3155;
-106.8000;0.7790;1.3060;
-106.5000;0.7798;1.2964;
-106.2000;0.7790;1.3036;
-105.9000;0.7798;1.3060;
-105.6000;0.7774;1.3036;
-105.3000;0.7766;1.3155;
-105.0000;0.7839;1.3371;
-104.7000;0.7798;1.3275;
-104.4000;0.7782;1.3227;
-104.1000;0.7806;1.3227;
-103.8000;0.7766;1.3060;
-103.5000;0.7798;1.3084;
-103.2000;0.7741;1.3036;
-102.9000;0.7733;1.3060;
-102.6000;0.7782;1.3203;
-102.3000;0.7798;1.3179;
-102.0000;0.7798;1.3203;
-101.7000;0.7790;1.3227;
-101.4000;0.7766;1.3251;
-101.1000;0.7806;1.3371;
-100.8000;0.7798;1.3299;
-100.5000;0.7823;1.3251;
-100.2000;0.7782;1.3131;
-99.9000;0.7823;1.3227;
-99.6000;0.7741;1.3060;
-99.3000;0.7831;1.3203;
-99.0000;0.7798;1.3179;
-98.7000;0.7782;1.3131;
-98.4000;0.7757;1.3060;
-98.1000;0.7798;1.3155;
-97.8000;0.7782;1.3131;
-97.5000;0.7790;1.3108;
-97.2000;0.7814;1.3155;
-96.9000;0.7782;1.3155;
-96.6000;0.7823;1.3179;
-96.3000;0.7774;1.3155;
-96.0000;0.7814;1.3227;
-95.7000;0.7798;1.3108;
-95.4000;0.7904;1.3395;
-95.1000;0.7790;1.3131;
-94.8000;0.7733;1.2940;
-94.5000;0.7831;1.3203;
-94.2000;0.7782;1.3155;
-93.9000;0.7782;1.3131;
-93.6000;0.7782;1.3155;
-93.3000;0.7741;1.3060;
-93.0000;0.7790;1.3036;
-92.7000;0.7774;1.2940;
-92.4000;0.7774;1.2964;
-92.1000;0.7782;1.3036;
-91.8000;0.7782;1.3179;
-91.5000;0.7774;1.3251;
-91.2000;0.7855;1.3323;
-90.9000;0.7782;1.3155;
-90.6000;0.7774;1.3131;
-90.3000;0.7766;1.3131;
-90.0000;0.7774;1.3227;
-89.7000;0.7790;1.3275;
-89.4000;0.7790;1.3251;
-89.1000;0.7790;1.3251;
-88.8000;0.7766;1.3179;
-88.5000;0.7733;1.3108;
-88.2000;0.7774;1.3299;
-87.9000;0.7774;1.3323;
-87.6000;0.7757;1.3227;
-87.3000;0.7774;1.3179;
-87.0000;0.7782;1.3227;
-86.7000;0.7749;1.3251;
-86.4000;0.7782;1.3299;
-86.1000;0.7782;1.3323;
-85.8000;0.7782;1.3299;
-85.5000;0.7782;1.3251;
-85.2000;0.7774;1.3179;
-84.9000;0.7749;1.3108;
-84.6000;0.7782;1.3179;
-84.3000;0.7806;1.3371;
-84.0000;0.7774;1.3251;
-83.7000;0.7782;1.3179;
-83.4000;0.7782;1.3203;
-83.1000;0.7774;1.3203;
-82.8000;0.7774;1.3155;
-82.5000;0.7774;1.3179;
-82.2000;0.7782;1.3299;
-81.9000;0.7749;1.3108;
-81.6000;0.7831;1.3275;
-81.3000;0.7806;1.3275;
-81.0000;0.7839;1.3371;
-80.7000;0.7717;1.3012;
-80.4000;0.7782;1.3131;
-80.1000;0.7733;1.3036;
-79.8000;0.7782;1.3084;
-79.5000;0.7806;1.3155;
-79.2000;0.7790;1.3155;
-78.9000;0.7782;1.3108;
-78.6000;0.7774;1.3084;
-78.3000;0.7798;1.3179;
-78.0000;0.7814;1.3179;
-77.7000;0.7774;1.3108;
-77.4000;0.7823;1.3155;
-77.1000;0.7806;1.3203;
-76.8000;0.7774;1.3108;
-76.5000;0.7774;1.2940;
-76.2000;0.7774;1.2940;
-75.9000;0.7806;1.3084;
-75.6000;0.7806;1.3155;
-75.3000;0.7782;1.3131;
-75.0000;0.7782;1.3155;
-74.7000;0.7782;1.3155;
-74.4000;0.7798;1.3155;
-74.1000;0.7774;1.3131;
-73.8000;0.7757;1.3131;
-73.5000;0.7782;1.3179;
-73.2000;0.7774;1.3108;
-72.9000;0.7806;1.3155;
-72.6000;0.7733;1.3108;
-72.3000;0.7790;1.3203;
-72.0000;0.7790;1.3203;
-71.7000;0.7790;1.3227;
-71.4000;0.7831;1.3371;
-71.1000;0.7790;1.3275;
-70.8000;0.7782;1.3251;
-70.5000;0.7782;1.3203;
-70.2000;0.7798;1.3299;
-69.9000;0.7782;1.3347;
-69.6000;0.7782;1.3299;
-69.3000;0.7733;1.3251;
-69.0000;0.7806;1.3323;
-68.7000;0.7782;1.3203;
-68.4000;0.7774;1.3155;
-68.1000;0.7782;1.3060;
-67.8000;0.7782;1.2940;
-67.5000;0.7766;1.2964;
-67.2000;0.7749;1.2964;
-66.9000;0.7790;1.3060;
-66.6000;0.7782;1.3108;
-66.3000;0.7774;1.3036;
-66.0000;0.7774;1.3131;
-65.7000;0.7790;1.3155;
-65.4000;0.7782;1.3179;
-65.1000;0.7774;1.3108;
-64.8000;0.7766;1.3084;
-64.5000;0.7774;1.3060;
-64.2000;0.7798;1.3108;
-63.9000;0.7790;1.2940;
-63.6000;0.7774;1.2892;
-63.3000;0.7749;1.2796;
-63.0000;0.7774;1.3108;
-62.7000;0.7790;1.3155;
-62.4000;0.7700;1.2940;
-62.1000;0.7757;1.3012;
-61.8000;0.7774;1.3108;
-61.5000;0.7790;1.3251;
-61.2000;0.7798;1.3251;
-60.9000;0.7757;1.3108;
-60.6000;0.7774;1.3203;
-60.3000;0.7766;1.3179;
-60.0000;0.7790;1.3299;
-59.7000;0.7782;1.3227;
-59.4000;0.7757;1.3227;
-59.1000;0.7757;1.3227;
-58.8000;0.7766;1.3203;
-58.5000;0.7774;1.3227;
-58.2000;0.7782;1.3179;
-57.9000;0.7757;1.3179;
-57.6000;0.7790;1.3323;
-57.3000;0.7774;1.3371;
-57.0000;0.7790;1.3323;
-56.7000;0.7790;1.3179;
-56.4000;0.7814;1.3227;
-56.1000;0.7782;1.3251;
-55.8000;0.7766;1.3179;
-55.5000;0.7774;1.3179;
-55.2000;0.7855;1.3323;
-54.9000;0.7790;1.3251;
-54.6000;0.7790;1.3155;
-54.3000;0.7774;1.3131;
-54.0000;0.7790;1.3203;
-53.7000;0.7790;1.3203;
-53.4000;0.7790;1.3108;
-53.1000;0.7782;1.3155;
-52.8000;0.7782;1.3131;
-52.5000;0.7757;1.3084;
-52.2000;0.7774;1.3179;
-51.9000;0.7766;1.3179;
-51.6000;0.7814;1.3227;
-51.3000;0.7790;1.3203;
-51.0000;0.7774;1.3179;
-50.7000;0.7782;1.3108;
-50.4000;0.7790;1.3060;
-50.1000;0.7798;1.3012;
-49.8000;0.7774;1.2988;
-49.5000;0.7749;1.3012;
-49.2000;0.7757;1.3084;
-48.9000;0.7790;1.3155;
-48.6000;0.7782;1.3131;
-48.3000;0.7790;1.3108;
-48.0000;0.7847;1.3203;
-47.7000;0.7774;1.2940;
-47.4000;0.7790;1.2940;
-47.1000;0.7782;1.2916;
-46.8000;0.7782;1.2940;
-46.5000;0.7782;1.2988;
-46.2000;0.7619;1.2628;
-45.9000;0.7782;1.2988;
-45.6000;0.7782;1.3084;
-45.3000;0.7766;1.3084;
-45.0000;0.7806;1.3179;
-44.7000;0.7782;1.3060;
-44.4000;0.7814;1.2988;
-44.1000;0.7782;1.2916;
-43.8000;0.7806;1.2964;
-43.5000;0.7790;1.2868;
-43.2000;0.7790;1.2868;
-42.9000;0.7782;1.2868;
-42.6000;0.7790;1.2916;
-42.3000;0.7766;1.2820;
-42.0000;0.7782;1.2892;
-41.7000;0.7782;1.3012;
-41.4000;0.7774;1.3108;
-41.1000;0.7790;1.3203;
-40.8000;0.7774;1.3179;
-40.5000;0.7757;1.3108;
-40.2000;0.7766;1.3108;
-39.9000;0.7774;1.3084;
-39.6000;0.7790;1.3060;
-39.3000;0.7782;1.2988;
-39.0000;0.7766;1.3012;
-38.7000;0.7782;1.2988;
-38.4000;0.7766;1.2916;
-38.1000;0.7790;1.2940;
-37.8000;0.7757;1.2844;
-37.5000;0.7814;1.3012;
-37.2000;0.7798;1.3084;
-36.9000;0.7798;1.3036;
-36.6000;0.7766;1.3060;
-36.3000;0.7782;1.3108;
-36.0000;0.7806;1.3179;
-35.7000;0.7741;1.2964;
-35.4000;0.7790;1.2916;
-35.1000;0.7790;1.2916;
-34.8000;0.7790;1.2868;
-34.5000;0.7749;1.2892;
-34.2000;0.7774;1.2964;
-33.9000;0.7774;1.3012;
-33.6000;0.7790;1.3108;
-33.3000;0.7766;1.3036;
-33.0000;0.7782;1.3060;
-32.7000;0.7806;1.3012;
-32.4000;0.7798;1.2940;
-32.1000;0.7782;1.2988;
-31.8000;0.7790;1.3108;
-31.5000;0.7774;1.3131;
-31.2000;0.7790;1.3155;
-30.9000;0.7798;1.3227;
-30.6000;0.7782;1.3108;
-30.3000;0.7774;1.3036;
-30.0000;0.7790;1.2940;
-29.7000;0.7790;1.2868;
-29.4000;0.7774;1.2796;
-29.1000;0.7814;1.2964;
-28.8000;0.7790;1.2964;
-28.5000;0.7774;1.2988;
-28.2000;0.7782;1.3012;
-27.9000;0.7774;1.3036;
-27.6000;0.7839;1.3179;
-27.3000;0.7774;1.3108;
-27.0000;0.7782;1.3131;
-26.7000;0.7774;1.3203;
-26.4000;0.7757;1.3203;
-26.1000;0.7766;1.3203;
-25.8000;0.7782;1.3203;
-25.5000;0.7725;1.3012;
-25.2000;0.7806;1.3108;
-24.9000;0.7790;1.3155;
-24.6000;0.7782;1.3131;
-24.3000;0.7790;1.3155;
-24.0000;0.7782;1.3155;
-23.7000;0.7749;1.2964;
-23.4000;0.7757;1.2964;
-23.1000;0.7774;1.2916;
-22.8000;0.7749;1.2724;
-22.5000;0.7766;1.2820;
-22.2000;0.7798;1.2964;
-21.9000;0.7782;1.2940;
-21.6000;0.7774;1.2940;
-21.3000;0.7774;1.3012;
-21.0000;0.7782;1.3012;
-20.7000;0.7798;1.2964;
-20.4000;0.7798;1.3012;
-20.1000;0.7782;1.3036;
-19.8000;0.7741;1.2964;
-19.5000;0.7814;1.3131;
-19.2000;0.7790;1.3084;
-18.9000;0.7782;1.3012;
-18.6000;0.7790;1.2964;
-18.3000;0.7782;1.2868;
-18.0000;0.7782;1.2796;
-17.7000;0.7782;1.2724;
-17.4000;0.7790;1.2724;
-17.1000;0.7782;1.2748;
-16.8000;0.7774;1.2820;
-16.5000;0.7733;1.2676;
-16.2000;0.7782;1.2820;
-15.9000;0.7782;1.2796;
-15.6000;0.7782;1.2796;
-15.3000;0.7766;1.2748;
-15.0000;0.7774;1.2796;
-14.7000;0.7790;1.2820;
-14.4000;0.7790;1.2772;
-14.1000;0.7790;1.2772;
-13.8000;0.7774;1.2820;
-13.5000;0.7766;1.2868;
-13.2000;0.7790;1.2964;
-12.9000;0.7782;1.2988;
-12.6000;0.7774;1.2988;
-12.3000;0.7782;1.2988;
-12.0000;0.7766;1.2988;
-11.7000;0.7782;1.3084;
-11.4000;0.7782;1.3131;
-11.1000;0.7766;1.3036;
-10.8000;0.7725;1.2892;
-10.5000;0.7774;1.2940;
-10.2000;0.7798;1.2916;
-9.9000;0.7782;1.2892;
-9.6000;0.7798;1.2892;
-9.3000;0.7798;1.2964;
-9.0000;0.7798;1.2964;
-8.7000;0.7798;1.3084;
-8.4000;0.7782;1.3084;
-8.1000;0.7733;1.2940;
-7.8000;0.7880;1.3323;
-7.5000;0.7757;1.3012;
-7.2000;0.7700;1.2844;
-6.9000;0.7774;1.3036;
-6.6000;0.7766;1.2940;
-6.3000;0.7774;1.2964;
-6.0000;0.7733;1.2892;
-5.7000;0.7782;1.2916;
-5.4000;0.7774;1.2940;
-5.1000;0.7782;1.2868;
-4.8000;0.7782;1.2772;
-4.5000;0.7831;1.2844;
-4.2000;0.7806;1.2868;
-3.9000;0.7741;1.2796;
-3.6000;0.7790;1.2988;
-3.3000;0.7774;1.2964;
-3.0000;0.7749;1.2988;
-2.7000;0.7790;1.3131;
-2.4000;0.7700;1.2940;
-2.1000;0.7790;1.3084;
-1.8000;0.7774;1.2988;
-1.5000;0.7814;1.3179;
-1.2000;0.7814;1.3108;
-0.9000;0.7782;1.2988;
-0.6000;0.7766;1.3012;
-0.3000;0.7766;1.3012;
0.0000;0.7766;1.3012;
0.3000;0.8026;1.3108;
0.6000;0.8580;1.3539;
0.9000;0.9068;1.4162;
1.2000;0.9434;1.4569;
1.5000;0.9703;1.4905;
1.8000;0.9955;1.5240;
2.1000;1.0126;1.5432;
2.4000;1.0265;1.5624;
2.7000;1.0387;1.5839;
3.0000;1.0501;1.6151;
3.3000;1.0655;1.6510;
3.6000;1.0663;1.6510;
3.9000;1.0737;1.6534;
4.2000;1.0810;1.6558;
4.5000;1.0891;1.6678;
4.8000;1.0940;1.6678;
5.1000;1.0997;1.6678;
5.4000;1.1062;1.6774;
5.7000;1.1136;1.6870;
6.0000;1.1127;1.6702;
6.3000;1.1274;1.6965;
6.6000;1.1217;1.6798;
6.9000;1.1266;1.6822;
7.2000;1.1315;1.6726;
7.5000;1.1363;1.6678;
7.8000;1.1355;1.6558;
8.1000;1.1445;1.6726;
8.4000;1.1461;1.6678;
8.7000;1.1518;1.6726;
9.0000;1.1534;1.6654;
9.3000;1.1543;1.6558;
9.6000;1.1616;1.6606;
9.9000;1.1656;1.6702;
10.2000;1.1689;1.6726;
10.5000;1.1713;1.6582;
10.8000;1.1746;1.6654;
11.1000;1.1746;1.6534;
11.4000;1.1836;1.6654;
11.7000;1.1844;1.6606;
12.0000;1.1827;1.6654;
12.3000;1.1901;1.6774;
12.6000;1.1941;1.6870;
12.9000;1.1909;1.6726;
13.2000;1.1974;1.6726;
13.5000;1.1990;1.6630;
13.8000;1.2039;1.6678;
14.1000;1.2055;1.6582;
14.4000;1.2161;1.6750;
14.7000;1.2129;1.6606;
15.0000;1.2177;1.6678;
15.3000;1.2161;1.6654;
15.6000;1.2153;1.6558;
15.9000;1.2210;1.6654;
16.2000;1.2234;1.6702;
16.5000;1.2251;1.6678;
16.8000;1.2275;1.6678;
17.1000;1.2267;1.6702;
17.4000;1.2397;1.6965;
17.7000;1.2324;1.6774;
18.0000;1.2348;1.6774;
18.3000;1.2373;1.6798;
18.6000;1.2414;1.6822;
18.9000;1.2389;1.6678;
19.2000;1.2414;1.6702;
19.5000;1.2438;1.6726;
19.8000;1.2446;1.6678;
20.1000;1.2487;1.6726;
20.4000;1.2470;1.6726;
20.7000;1.2503;1.6726;
21.0000;1.2511;1.6702;
21.3000;1.2552;1.6702;
21.6000;1.2544;1.6702;
21.9000;1.2568;1.6630;
22.2000;1.2601;1.6702;
22.5000;1.2617;1.6726;
22.8000;1.2552;1.6606;
23.1000;1.2576;1.6606;
23.4000;1.2650;1.6822;
23.7000;1.2633;1.6750;
24.0000;1.2633;1.6702;
24.3000;1.2650;1.6630;
24.6000;1.2625;1.6606;
24.9000;1.2682;1.6702;
25.2000;1.2731;1.6750;
25.5000;1.2707;1.6678;
25.8000;1.2723;1.6558;
26.1000;1.2731;1.6534;
26.4000;1.2682;1.6534;
26.7000;1.2755;1.6654;
27.0000;1.2755;1.6606;
27.3000;1.2812;1.6774;
27.6000;1.2731;1.6606;
27.9000;1.2788;1.6726;
28.2000;1.2739;1.6582;
28.5000;1.2796;1.6630;
28.8000;1.2796;1.6606;
29.1000;1.2796;1.6510;
29.4000;1.2812;1.6558;
29.7000;1.2821;1.6678;
30.0000;1.2837;1.6750;
30.3000;1.2877;1.6822;
30.6000;1.2829;1.6726;
30.9000;1.2845;1.6774;
31.2000;1.2861;1.6846;
31.5000;1.2902;1.6846;
31.8000;1.2861;1.6750;
32.1000;1.2886;1.6750;
32.4000;1.2861;1.6630;
32.7000;1.2886;1.6606;
33.0000;1.2886;1.6654;
33.3000;1.2886;1.6678;
33.6000;1.2902;1.6678;
33.9000;1.2967;1.6750;
34.2000;1.2902;1.6606;
34.5000;1.2918;1.6534;
34.8000;1.2910;1.6534;
35.1000;1.2959;1.6582;
35.4000;1.2951;1.6678;
35.7000;1.2934;1.6582;
36.0000;1.2934;1.6534;
36.3000;1.2877;1.6366;
36.6000;1.2951;1.6582;
36.9000;1.2943;1.6702;
37.2000;1.2894;1.6606;
37.5000;1.2951;1.6798;
37.8000;1.2967;1.6774;
38.1000;1.2943;1.6702;
38.4000;1.2983;1.6798;
38.7000;1.2951;1.6750;
39.0000;1.2975;1.6798;
39.3000;1.2991;1.6798;
39.6000;1.2975;1.6726;
39.9000;1.3000;1.6678;
40.2000;1.2983;1.6582;
40.5000;1.3000;1.6630;
40.8000;1.3016;1.6582;
41.1000;1.3016;1.6582;
41.4000;1.3024;1.6558;
41.7000;1.3000;1.6582;
42.0000;1.3016;1.6582;
42.3000;1.3016;1.6606;
42.6000;1.3024;1.6582;
42.9000;1.3040;1.6654;
43.2000;1.3016;1.6606;
43.5000;1.3024;1.6702;
43.8000;1.3024;1.6702;
44.1000;1.3048;1.6702;
44.4000;1.3057;1.6606;
44.7000;1.3057;1.6630;
45.0000;1.3048;1.6558;
45.3000;1.3048;1.6678;
45.6000;1.3105;1.6822;
45.9000;1.3048;1.6630;
46.2000;1.3040;1.6630;
46.5000;1.3057;1.6630;
46.8000;1.3008;1.6510;
47.1000;1.3057;1.6606;
47.4000;1.3048;1.6462;
47.7000;1.3073;1.6558;
48.0000;1.3048;1.6462;
48.3000;1.3081;1.6462;
48.6000;1.3057;1.6414;
48.9000;1.3057;1.6486;
49.2000;1.3073;1.6534;
49.5000;1.3089;1.6510;
49.8000;1.3065;1.6462;
50.1000;1.3081;1.6366;
50.4000;1.3065;1.6342;
50.7000;1.3073;1.6366;
51.0000;1.3089;1.6366;
51.3000;1.3081;1.6318;
51.6000;1.3105;1.6342;
51.9000;1.3097;1.6366;
52.2000;1.3179;1.6486;
52.5000;1.3040;1.6199;
52.8000;1.3089;1.6223;
53.1000;1.3097;1.6247;
53.4000;1.3057;1.6175;
53.7000;1.3065;1.6223;
54.0000;1.3097;1.6366;
54.3000;1.3122;1.6438;
54.6000;1.3114;1.6462;
54.9000;1.3122;1.6510;
55.2000;1.3114;1.6510;
55.5000;1.3122;1.6558;
55.8000;1.3130;1.6582;
56.1000;1.3105;1.6558;
56.4000;1.3114;1.6582;
56.7000;1.3138;1.6726;
57.0000;1.3122;1.6702;
57.3000;1.3130;1.6774;
57.6000;1.3130;1.6630;
57.9000;1.3105;1.6534;
58.2000;1.3162;1.6678;
58.5000;1.3154;1.6630;
58.8000;1.3114;1.6486;
59.1000;1.3146;1.6510;
59.4000;1.3154;1.6438;
59.7000;1.3146;1.6486;
60.0000;1.3130;1.6462;
60.3000;1.3130;1.6486;
60.6000;1.3154;1.6582;
60.9000;1.3138;1.6534;
61.2000;1.3138;1.6510;
61.5000;1.3122;1.6366;
61.8000;1.3138;1.6414;
62.1000;1.3162;1.6534;
62.4000;1.3122;1.6462;
62.7000;1.3138;1.6510;
63.0000;1.3146;1.6534;
63.3000;1.3162;1.6630;
63.6000;1.3154;1.6582;
63.9000;1.3138;1.6534;
64.2000;1.3171;1.6582;
64.5000;1.3154;1.6510;
64.8000;1.3162;1.6534;
65.1000;1.3162;1.6486;
65.4000;1.3154;1.6438;
65.7000;1.3171;1.6510;
66.0000;1.3171;1.6606;
66.3000;1.3171;1.6678;
66.6000;1.3162;1.6582;
66.9000;1.3179;1.6534;
67.2000;1.3179;1.6486;
67.5000;1.3162;1.6438;
67.8000;1.3179;1.6462;
68.1000;1.3179;1.6414;
68.4000;1.3179;1.6462;
68.7000;1.3146;1.6462;
69.0000;1.3138;1.6438;
69.3000;1.3179;1.6606;
69.6000;1.3171;1.6654;
69.9000;1.3171;1.6606;
70.2000;1.3187;1.6678;
70.5000;1.3171;1.6678;
70.8000;1.3154;1.6558;
71.1000;1.3187;1.6582;
71.4000;1.3162;1.6510;
71.7000;1.3162;1.6534;
72.0000;1.3236;1.6822;
72.3000;1.3171;1.6702;
72.6000;1.3171;1.6654;
72.9000;1.3154;1.6582;
73.2000;1.3187;1.6582;
73.5000;1.3203;1.6654;
73.8000;1.3195;1.6582;
74.1000;1.3179;1.6462;
74.4000;1.3171;1.6390;
74.7000;1.3187;1.6366;
75.0000;1.3195;1.6295;
75.3000;1.3179;1.6223;
75.6000;1.3187;1.6223;
75.9000;1.3211;1.6342;
76.2000;1.3268;1.6390;
76.5000;1.3211;1.6342;
76.8000;1.3195;1.6366;
77.1000;1.3179;1.6295;
77.4000;1.3203;1.6318;
77.7000;1.3260;1.6486;
78.0000;1.3171;1.6223;
78.3000;1.3195;1.6223;
78.6000;1.3203;1.6295;
78.9000;1.3203;1.6390;
79.2000;1.3187;1.6318;
79.5000;1.3203;1.6390;
79.8000;1.3211;1.6462;
80.1000;1.3211;1.6510;
80.4000;1.3179;1.6390;
80.7000;1.3203;1.6486;
81.0000;1.3203;1.6582;
81.3000;1.3228;1.6702;
81.6000;1.3195;1.6606;
81.9000;1.3203;1.6606;
82.2000;1.3195;1.6558;
82.5000;1.3203;1.6582;
82.8000;1.3211;1.6510;
83.1000;1.3276;1.6726;
83.4000;1.3195;1.6486;
83.7000;1.3211;1.6486;
84.0000;1.3211;1.6438;
84.3000;1.3203;1.6486;
84.6000;1.3203;1.6438;
84.9000;1.3146;1.6223;
85.2000;1.3114;1.6223;
85.5000;1.3211;1.6534;
85.8000;1.3219;1.6558;
86.1000;1.3244;1.6654;
86.4000;1.3236;1.6606;
86.7000;1.3203;1.6486;
87.0000;1.3219;1.6558;
87.3000;1.3211;1.6486;
87.6000;1.3219;1.6438;
87.9000;1.3195;1.6390;
88.2000;1.3211;1.6534;
88.5000;1.3162;1.6414;
88.8000;1.3236;1.6534;
89.1000;1.3219;1.6510;
89.4000;1.3228;1.6510;
89.7000;1.3228;1.6486;
90.0000;1.3219;1.6366;
90.3000;1.3284;1.6510;
90.6000;1.3179;1.6295;
90.9000;1.3219;1.6438;
91.2000;1.3219;1.6366;
91.5000;1.3244;1.6390;
91.8000;1.3162;1.6175;
92.1000;1.3252;1.6342;
92.4000;1.3228;1.6247;
92.7000;1.3219;1.6342;
93.0000;1.3276;1.6462;
93.3000;1.3228;1.6342;
93.6000;1.3236;1.6438;
93.9000;1.3228;1.6486;
94.2000;1.3219;1.6462;
94.5000;1.3211;1.6438;
94.8000;1.3228;1.6462;
95.1000;1.3284;1.6558;
95.4000;1.3228;1.6414;
95.7000;1.3228;1.6438;
96.0000;1.3211;1.6414;
96.3000;1.3228;1.6462;
96.6000;1.3252;1.6486;
96.9000;1.3228;1.6510;
97.2000;1.3236;1.6558;
97.5000;1.3252;1.6582;
97.8000;1.3244;1.6558;
98.1000;1.3228;1.6462;
98.4000;1.3211;1.6438;
98.7000;1.3187;1.6366;
99.0000;1.3276;1.6558;
99.3000;1.3236;1.6486;
99.6000;1.3228;1.6438;
99.9000;1.3236;1.6462;
100.2000;1.3301;1.6654;
100.5000;1.3252;1.6534;
100.8000;1.3228;1.6462;
101.1000;1.3203;1.6295;
101.4000;1.3236;1.6414;
101.7000;1.3244;1.6414;
102.0000;1.3244;1.6318;
102.3000;1.3252;1.6342;
102.6000;1.3236;1.6271;
102.9000;1.3252;1.6295;
103.2000;1.3228;1.6271;
103.5000;1.3219;1.6271;
103.8000;1.3236;1.6295;
104.1000;1.3293;1.6462;
104.4000;1.3236;1.6318;
104.7000;1.3228;1.6295;
105.0000;1.3219;1.6271;
105.3000;1.3268;1.6366;
105.6000;1.3252;1.6342;
105.9000;1.3236;1.6366;
106.2000;1.3187;1.6295;
106.5000;1.3236;1.6510;
106.8000;1.3244;1.6534;
107.1000;1.3236;1.6534;
107.4000;1.3236;1.6462;
107.7000;1.3260;1.6486;
108.0000;1.3244;1.6390;
108.3000;1.3244;1.6366;
108.6000;1.3236;1.6318;
108.9000;1.3268;1.6318;
109.2000;1.3236;1.6366;
109.5000;1.3211;1.6366;
109.8000;1.3211;1.6390;
110.1000;1.3236;1.6414;
110.4000;1.3252;1.6414;
110.7000;1.3244;1.6414;
111.0000;1.3252;1.6342;
111.3000;1.3236;1.6462;
111.6000;1.3301;1.6486;
111.9000;1.3154;1.6199;
112.2000;1.3195;1.6223;
112.5000;1.3228;1.6271;
112.8000;1.3301;1.6438;
113.1000;1.3228;1.6342;
113.4000;1.3268;1.6414;
113.7000;1.3252;1.6366;
114.0000;1.3236;1.6342;
114.3000;1.3236;1.6366;
114.6000;1.3284;1.6510;
114.9000;1.3236;1.6342;
115.2000;1.3244;1.6390;
115.5000;1.3236;1.6366;
115.8000;1.3268;1.6366;
116.1000;1.3244;1.6342;
116.4000;1.3252;1.6271;
116.7000;1.3219;1.6151;
117.0000;1.3252;1.6271;
117.3000;1.3236;1.6199;
117.6000;1.3154;1.5887;
117.9000;1.3244;1.6127;
118.2000;1.3252;1.6127;
118.5000;1.3252;1.6175;
118.8000;1.3260;1.6247;
119.1000;1.3252;1.6199;
119.4000;1.3252;1.6271;
119.7000;1.3236;1.6295;
120.0000;1.3219;1.6175;
120.3000;1.3276;1.6295;
120.6000;1.3252;1.6271;
120.9000;1.3244;1.6199;
121.2000;1.3252;1.6247;
121.5000;1.3236;1.6295;
121.8000;1.3252;1.6414;
122.1000;1.3252;1.6438;
122.4000;1.3244;1.6318;
122.7000;1.3252;1.6366;
123.0000;1.3244;1.6390;
123.3000;1.3219;1.6295;
123.6000;1.3268;1.6414;
123.9000;1.3252;1.6295;
124.2000;1.3260;1.6366;
124.5000;1.3260;1.6390;
124.8000;1.3244;1.6366;
125.1000;1.3236;1.6342;
125.4000;1.3244;1.6366;
125.7000;1.3268;1.6342;
126.0000;1.3268;1.6318;
126.3000;1.3260;1.6199;
126.6000;1.3252;1.6103;
126.9000;1.3260;1.6223;
127.2000;1.3276;1.6247;
127.5000;1.3309;1.6318;
127.8000;1.3260;1.6318;
128.1000;1.3333;1.6582;
128.4000;1.3228;1.6199;
128.7000;1.3252;1.6295;
129.0000;1.3260;1.6271;
129.3000;1.3260;1.6295;
129.6000;1.3268;1.6295;
129.9000;1.3268;1.6318;
130.2000;1.3236;1.6366;
130.5000;1.3138;1.6223;
130.8000;1.3252;1.6486;
131.1000;1.3244;1.6534;
131.4000;1.3268;1.6558;
131.7000;1.3244;1.6510;
132.0000;1.3260;1.6558;
132.3000;1.3252;1.6534;
132.6000;1.3260;1.6414;
132.9000;1.3244;1.6366;
133.2000;1.3219;1.6295;
133.5000;1.3252;1.6462;
133.8000;1.3268;1.6558;
134.1000;1.3252;1.6534;
134.4000;1.3260;1.6558;
134.7000;1.3276;1.6534;
135.0000;1.3252;1.6630;
135.3000;1.3236;1.6582;
135.6000;1.3317;1.6678;
135.9000;1.3276;1.6414;
136.2000;1.3244;1.6318;
136.5000;1.3260;1.6366;
136.8000;1.3252;1.6271;
137.1000;1.3252;1.6390;
137.4000;1.3268;1.6390;
137.7000;1.3252;1.6366;
138.0000;1.3268;1.6342;
138.3000;1.3276;1.6414;
138.6000;1.3325;1.6582;
138.9000;1.3268;1.6510;
139.2000;1.3268;1.6558;
139.5000;1.3260;1.6510;
139.8000;1.3260;1.6486;
140.1000;1.3244;1.6390;
140.4000;1.3244;1.6295;
140.7000;1.3268;1.6318;
141.0000;1.3244;1.6199;
141.3000;1.3252;1.6223;
141.6000;1.3260;1.6199;
141.9000;1.3260;1.6223;
142.2000;1.3276;1.6295;
142.5000;1.3260;1.6175;
142.8000;1.3276;1.6199;
143.1000;1.3284;1.6199;
143.4000;1.3284;1.6366;
143.7000;1.3252;1.6199;
144.0000;1.3252;1.6271;
144.3000;1.3276;1.6366;
144.6000;1.3228;1.6318;
144.9000;1.3293;1.6486;
145.2000;1.3268;1.6366;
145.5000;1.3268;1.6271;
145.8000;1.3268;1.6175;
146.1000;1.3284;1.6318;
146.4000;1.3276;1.6366;
146.7000;1.3268;1.6438;
147.0000;1.3284;1.6558;
147.3000;1.3260;1.6534;
147.6000;1.3268;1.6486;
147.9000;1.3268;1.6438;
148.2000;1.3276;1.6438;
148.5000;1.3268;1.6318;
148.8000;1.3260;1.6414;
149.1000;1.3260;1.6390;
149.4000;1.3260;1.6438;
149.7000;1.3252;1.6342;
150.0000;1.3268;1.6390;
150.3000;1.3325;1.6534;
150.6000;1.3276;1.6342;
150.9000;1.3276;1.6342;
151.2000;1.3268;1.6342;
151.5000;1.3268;1.6366;
151.8000;1.3268;1.6414;
152.1000;1.3252;1.6414;
152.4000;1.3276;1.6414;
152.7000;1.3284;1.6366;
153.0000;1.3276;1.6318;
153.3000;1.3276;1.6390;
153.6000;1.3276;1.6390;
153.9000;1.3236;1.6247;
154.2000;1.3276;1.6366;
154.5000;1.3284;1.6318;
154.8000;1.3268;1.6295;
155.1000;1.3284;1.6318;
155.4000;1.3244;1.6199;
155.7000;1.3252;1.6199;
156.0000;1.3284;1.6271;
156.3000;1.3268;1.6295;
156.6000;1.3260;1.6223;
156.9000;1.3268;1.6271;
157.2000;1.3252;1.6295;
157.5000;1.3268;1.6318;
157.8000;1.3276;1.6342;
158.1000;1.3252;1.6295;
158.4000;1.3268;1.6390;
158.7000;1.3268;1.6390;
159.0000;1.3276;1.6318;
159.3000;1.3268;1.6342;
159.6000;1.3374;1.6678;
159.9000;1.3268;1.6486;
160.2000;1.3268;1.6438;
160.5000;1.3260;1.6366;
160.8000;1.3309;1.6510;
161.1000;1.3260;1.6486;
161.4000;1.3219;1.6438;
161.7000;1.3268;1.6462;
162.0000;1.3268;1.6438;
162.3000;1.3252;1.6486;
162.6000;1.3252;1.6534;
162.9000;1.3284;1.6534;
163.2000;1.3244;1.6462;
163.5000;1.3260;1.6438;
163.8000;1.3276;1.6534;
164.1000;1.3268;1.6438;
164.4000;1.3276;1.6534;
164.7000;1.3260;1.6582;
165.0000;1.3244;1.6582;
165.3000;1.3260;1.6630;
165.6000;1.3219;1.6438;
165.9000;1.3219;1.6390;
166.2000;1.3260;1.6510;
166.5000;1.3341;1.6726;
166.8000;1.3260;1.6558;
167.1000;1.3260;1.6462;
167.4000;1.3284;1.6462;
167.7000;1.3276;1.6462;
168.0000;1.3276;1.6462;
168.3000;1.3236;1.6295;
168.6000;1.3268;1.6390;
168.9000;1.3276;1.6390;
169.2000;1.3293;1.6486;
169.5000;1.3236;1.6342;
169.8000;1.3325;1.6510;
170.1000;1.3268;1.6390;
170.4000;1.3276;1.6390;
170.7000;1.3268;1.6318;
171.0000;1.3276;1.6271;
171.3000;1.3260;1.6271;
171.6000;1.3284;1.6295;
171.9000;1.3276;1.6414;
172.2000;1.3260;1.6366;
172.5000;1.3260;1.6390;
172.8000;1.3268;1.6390;
173.1000;1.3284;1.6318;
173.4000;1.3284;1.6342;
173.7000;1.3268;1.6271;
174.0000;1.3293;1.6318;
174.3000;1.3276;1.6342;
174.6000;1.3252;1.6390;
174.9000;1.3260;1.6510;
175.2000;1.3260;1.6486;
175.5000;1.3260;1.6414;
175.8000;1.3260;1.6414;
176.1000;1.3268;1.6414;
176.4000;1.3244;1.6366;
176.7000;1.3268;1.6414;
177.0000;1.3268;1.6366;
177.3000;1.3260;1.6295;
177.6000;1.3244;1.6223;
177.9000;1.3284;1.6318;
178.2000;1.3268;1.6247;
178.5000;1.3252;1.6342;
178.8000;1.3252;1.6462;
179.1000;1.3252;1.6438;
179.4000;1.3268;1.6390;
179.7000;1.3260;1.6390;
180.0000;1.3219;1.6247;
180.3000;1.3276;1.6414;
180.6000;1.3244;1.6318;
180.9000;1.3260;1.6295;
181.2000;1.3252;1.6199;
181.5000;1.3276;1.6366;
181.8000;1.3358;1.6582;
182.1000;1.3260;1.6390;
182.4000;1.3260;1.6366;
182.7000;1.3268;1.6414;
183.0000;1.3268;1.6414;
183.3000;1.3276;1.6462;
183.6000;1.3341;1.6534;
183.9000;1.3236;1.6366;
184.2000;1.3284;1.6486;
184.5000;1.3293;1.6390;
184.8000;1.3293;1.6390;
185.1000;1.3276;1.6366;
185.4000;1.3276;1.6342;
185.7000;1.3284;1.6318;
186.0000;1.3236;1.6079;
186.3000;1.3276;1.6175;
186.6000;1.3276;1.6127;
186.9000;1.3276;1.6103;
187.2000;1.3284;1.6031;
187.5000;1.3293;1.6079;
187.8000;1.3252;1.6103;
188.1000;1.3268;1.6247;
188.4000;1.3276;1.6175;
188.7000;1.3268;1.6151;
189.0000;1.3252;1.6079;
189.3000;1.3260;1.6103;
189.6000;1.3333;1.6271;
189.9000;1.3276;1.6223;
190.2000;1.3260;1.6295;
190.5000;1.3244;1.6342;
190.8000;1.3268;1.6390;
191.1000;1.3236;1.6295;
191.4000;1.3260;1.6318;
191.7000;1.3268;1.6390;
192.0000;1.3276;1.6414;
192.3000;1.3260;1.6366;
192.6000;1.3268;1.6414;
192.9000;1.3276;1.6438;
193.2000;1.3276;1.6510;
193.5000;1.3276;1.6438;
193.8000;1.3276;1.6390;
194.1000;1.3268;1.6342;
194.4000;1.3276;1.6342;
194.7000;1.3276;1.6462;
195.0000;1.3268;1.6438;
195.3000;1.3260;1.6390;
195.6000;1.3276;1.6390;
195.9000;1.3228;1.6151;
196.2000;1.3309;1.6271;
196.5000;1.3252;1.6247;
196.8000;1.3260;1.6366;
197.1000;1.3228;1.6247;
197.4000;1.3301;1.6438;
197.7000;1.3284;1.6342;
198.0000;1.3268;1.6342;
198.3000;1.3244;1.6390;
198.6000;1.3284;1.6534;
198.9000;1.3268;1.6438;
199.2000;1.3284;1.6438;
199.5000;1.3276;1.6414;
199.8000;1.3309;1.6462;
200.1000;1.3244;1.6342;
200.4000;1.3309;1.6534;
200.7000;1.3268;1.6366;
201.0000;1.3284;1.6414;
201.3000;1.3244;1.6295;
201.6000;1.3260;1.6342;
201.9000;1.3276;1.6486;
202.2000;1.3284;1.6534;
202.5000;1.3276;1.6534;
202.8000;1.3276;1.6534;
203.1000;1.3325;1.6582;
203.4000;1.3276;1.6462;
203.7000;1.3284;1.6534;
204.0000;1.3268;1.6486;
204.3000;1.3276;1.6414;
204.6000;1.3301;1.6390;
204.9000;1.3284;1.6247;
205.2000;1.3293;1.6271;
205.5000;1.3293;1.6199;
205.8000;1.3268;1.6103;
206.1000;1.3301;1.6175;
206.4000;1.3293;1.6247;
206.7000;1.3260;1.6223;
207.0000;1.3276;1.6342;
207.3000;1.3268;1.6295;
207.6000;1.3350;1.6486;
207.9000;1.3268;1.6271;
208.2000;1.3268;1.6271;
208.5000;1.3276;1.6366;
208.8000;1.3268;1.6366;
209.1000;1.3276;1.6414;
209.4000;1.3301;1.6486;
209.7000;1.3252;1.6438;
210.0000;1.3276;1.6510;
210.3000;1.3211;1.6414;
210.6000;1.3309;1.6510;
210.9000;1.3268;1.6366;
211.2000;1.3284;1.6390;
211.5000;1.3284;1.6342;
211.8000;1.3260;1.6271;
212.1000;1.3252;1.6295;
212.4000;1.3284;1.6295;
212.7000;1.3276;1.6247;
213.0000;1.3268;1.6318;
213.3000;1.3252;1.6271;
213.6000;1.3268;1.6366;
213.9000;1.3284;1.6462;
214.2000;1.3276;1.6390;
214.5000;1.3276;1.6342;
214.8000;1.3268;1.6295;
215.1000;1.3284;1.6295;
215.4000;1.3236;1.6247;
215.7000;1.3284;1.6366;
216.0000;1.3293;1.6438;
216.3000;1.3284;1.6438;
216.6000;1.3276;1.6414;
216.9000;1.3244;1.6295;
217.2000;1.3260;1.6342;
217.5000;1.3293;1.6390;
217.8000;1.3284;1.6414;
218.1000;1.3268;1.6414;
218.4000;1.3260;1.6271;
218.7000;1.3260;1.6342;
219.0000;1.3252;1.6247;
219.3000;1.3252;1.6318;
219.6000;1.3276;1.6342;
219.9000;1.3260;1.6271;
220.2000;1.3276;1.6390;
220.5000;1.3260;1.6390;
220.8000;1.3268;1.6342;
221.1000;1.3293;1.6390;
221.4000;1.3276;1.6342;
221.7000;1.3293;1.6295;
222.0000;1.3350;1.6342;
222.3000;1.3211;1.6079;
222.6000;1.3268;1.6247;
222.9000;1.3260;1.6295;
223.2000;1.3284;1.6366;
223.5000;1.3293;1.6342;
223.8000;1.3268;1.6318;
224.1000;1.3333;1.6366;
224.4000;1.3244;1.6127;
224.7000;1.3284;1.6127;
225.0000;1.3276;1.6199;
225.3000;1.3252;1.6151;
225.6000;1.3268;1.6175;
225.9000;1.3268;1.6199;
226.2000;1.3301;1.6271;
226.5000;1.3301;1.6247;
226.8000;1.3293;1.6175;
227.1000;1.3260;1.6103;
227.4000;1.3284;1.6199;
227.7000;1.3260;1.6199;
228.0000;1.3244;1.6223;
228.3000;1.3260;1.6199;
228.6000;1.3252;1.6175;
228.9000;1.3260;1.6223;
229.2000;1.3268;1.6223;
229.5000;1.3276;1.6295;
229.8000;1.3309;1.6486;
230.1000;1.3333;1.6606;
230.4000;1.3317;1.6510;
230.7000;1.3260;1.6414;
231.0000;1.3293;1.6486;
231.3000;1.3293;1.6414;
231.6000;1.3276;1.6438;
231.9000;1.3276;1.6318;
232.2000;1.3284;1.6318;
232.5000;1.3276;1.6438;
232.8000;1.3284;1.6223;
233.1000;1.3276;1.6199;
233.4000;1.3284;1.6127;
233.7000;1.3236;1.6127;
234.0000;1.3293;1.6342;
234.3000;1.3284;1.6318;
234.6000;1.3293;1.6295;
234.9000;1.3276;1.6295;
235.2000;1.3284;1.6342;
235.5000;1.3252;1.6151;
235.8000;1.3284;1.6199;
236.1000;1.3236;1.6199;
236.4000;1.3260;1.6318;
236.7000;1.3268;1.6342;
237.0000;1.3268;1.6295;
237.3000;1.3244;1.6223;
237.6000;1.3276;1.6414;
237.9000;1.3260;1.6438;
238.2000;1.3228;1.6318;
238.5000;1.3260;1.6462;
238.8000;1.3276;1.6510;
239.1000;1.3293;1.6534;
239.4000;1.3293;1.6486;
239.7000;1.3350;1.6654;
240.0000;1.3325;1.6630;
240.3000;1.3268;1.6534;
240.6000;1.3284;1.6438;
240.9000;1.3276;1.6390;
241.2000;1.3276;1.6390;
241.5000;1.3284;1.6438;
241.8000;1.3284;1.6414;
242.1000;1.3301;1.6438;
242.4000;1.3252;1.6390;
242.7000;1.3293;1.6462;
243.0000;1.3268;1.6414;
243.3000;1.3260;1.6486;
243.6000;1.3260;1.6510;
243.9000;1.3276;1.6558;
244.2000;1.3268;1.6510;
244.5000;1.3341;1.6582;
244.8000;1.3260;1.6318;
245.1000;1.3301;1.6390;
245.4000;1.3284;1.6366;
245.7000;1.3284;1.6342;
246.0000;1.3284;1.6438;
246.3000;1.3260;1.6318;
246.6000;1.3276;1.6295;
246.9000;1.3276;1.6318;
247.2000;1.3244;1.6223;
247.5000;1.3244;1.6127;
247.8000;1.3276;1.6175;
248.1000;1.3276;1.6151;
248.4000;1.3333;1.6223;
248.7000;1.3268;1.6175;
249.0000;1.3195;1.5935;
249.3000;1.3236;1.5959;
249.6000;1.3284;1.6151;
249.9000;1.3268;1.6127;
250.2000;1.3252;1.6175;
250.5000;1.3228;1.6223;
250.8000;1.3276;1.6342;
251.1000;1.3268;1.6295;
251.4000;1.3252;1.6295;
251.7000;1.3276;1.6366;
252.0000;1.3276;1.6318;
252.3000;1.3268;1.6318;
252.6000;1.3276;1.6318;
252.9000;1.3228;1.6127;
253.2000;1.3252;1.6247;
253.5000;1.3309;1.6342;
253.8000;1.3268;1.6342;
254.1000;1.3268;1.6366;
254.4000;1.3284;1.6318;
254.7000;1.3284;1.6247;
255.0000;1.3284;1.6223;
255.3000;1.3293;1.6271;
255.6000;1.3301;1.6342;
255.9000;1.3284;1.6271;
256.2000;1.3268;1.6247;
256.5000;1.3268;1.6295;
256.8000;1.3284;1.6318;
257.1000;1.3276;1.6223;
257.4000;1.3284;1.6295;
257.7000;1.3260;1.6271;
258.0000;1.3276;1.6342;
258.3000;1.3276;1.6414;
258.6000;1.3252;1.6366;
258.9000;1.3284;1.6271;
259.2000;1.3301;1.6223;
259.5000;1.3219;1.6079;
259.8000;1.3260;1.6247;
260.1000;1.3268;1.6318;
260.4000;1.3260;1.6295;
260.7000;1.3333;1.6486;
261.0000;1.3268;1.6342;
261.3000;1.3276;1.6342;
261.6000;1.3260;1.6247;
261.9000;1.3284;1.6175;
262.2000;1.3203;1.5887;
262.5000;1.3284;1.6031;
262.8000;1.3276;1.6055;
263.1000;1.3293;1.6127;
263.4000;1.3260;1.6223;
263.7000;1.3284;1.6318;
264.0000;1.3301;1.6342;
264.3000;1.3293;1.6390;
264.6000;1.3268;1.6366;
264.9000;1.3284;1.6438;
265.2000;1.3284;1.6390;
265.5000;1.3293;1.6390;
265.8000;1.3309;1.6342;
266.1000;1.3293;1.6390;
266.4000;1.3276;1.6390;
266.7000;1.3276;1.6318;
267.0000;1.3268;1.6175;
267.3000;1.3260;1.6103;
267.6000;1.3260;1.6199;
267.9000;1.3252;1.6247;
268.2000;1.3236;1.6199;
268.5000;1.3276;1.6247;
268.8000;1.3268;1.6199;
269.1000;1.3293;1.6247;
269.4000;1.3252;1.6079;
269.7000;1.3260;1.6223;
270.0000;1.3260;1.6175;
270.3000;1.3284;1.6175;
270.6000;1.3284;1.6151;
270.9000;1.3276;1.6223;
271.2000;1.3252;1.6175;
271.5000;1.3276;1.6271;
271.8000;1.3260;1.6223;
272.1000;1.3260;1.6223;
272.4000;1.3276;1.6127;
272.7000;1.3268;1.6199;
273.0000;1.3260;1.6271;
273.3000;1.3268;1.6247;
273.6000;1.3284;1.6271;
273.9000;1.3284;1.6366;
274.2000;1.3293;1.6342;
274.5000;1.3276;1.6295;
274.8000;1.3276;1.6295;
275.1000;1.3252;1.6247;
275.4000;1.3276;1.6295;
275.7000;1.3276;1.6295;
276.0000;1.3284;1.6318;
276.3000;1.3268;1.6223;
276.6000;1.3252;1.6295;
276.9000;1.3260;1.6342;
277.2000;1.3284;1.6390;
277.5000;1.3325;1.6366;
277.8000;1.3276;1.6223;
278.1000;1.3260;1.6247;
278.4000;1.3276;1.6247;
278.7000;1.3284;1.6271;
279.0000;1.3284;1.6247;
279.3000;1.3301;1.6295;
279.6000;1.3293;1.6247;
279.9000;1.3293;1.6247;
280.2000;1.3268;1.6271;
280.5000;1.3276;1.6414;
280.8000;1.3284;1.6342;
281.1000;1.3293;1.6366;
281.4000;1.3179;1.6079;
281.7000;1.3284;1.6223;
282.0000;1.3268;1.6271;
282.3000;1.3301;1.6271;
282.6000;1.3284;1.6318;
282.9000;1.3260;1.6366;
283.2000;1.3244;1.6271;
283.5000;1.3301;1.6366;
283.8000;1.3276;1.6342;
284.1000;1.3284;1.6318;
284.4000;1.3284;1.6342;
284.7000;1.3260;1.6366;
285.0000;1.3268;1.6462;
285.3000;1.3309;1.6510;
285.6000;1.3309;1.6534;
285.9000;1.3284;1.6414;
286.2000;1.3293;1.6486;
286.5000;1.3301;1.6558;
286.8000;1.3268;1.6534;
287.1000;1.3276;1.6486;
287.4000;1.3268;1.6414;
287.7000;1.3268;1.6462;
288.0000;1.3276;1.6510;
288.3000;1.3252;1.6414;
288.6000;1.3268;1.6318;
288.9000;1.3276;1.6271;
289.2000;1.3268;1.6127;
289.5000;1.3284;1.6223;
289.8000;1.3276;1.6366;
290.1000;1.3293;1.6318;
290.4000;1.3293;1.6318;
290.7000;1.3260;1.6318;
291.0000;1.3276;1.6295;
291.3000;1.3268;1.6318;
291.6000;1.3284;1.6318;
291.9000;1.3260;1.6223;
292.2000;1.3276;1.6223;
292.5000;1.3309;1.6318;
292.8000;1.3276;1.6342;
293.1000;1.3260;1.6438;
293.4000;1.3276;1.6486;
293.7000;1.3268;1.6414;
294.0000;1.3244;1.6271;
294.3000;1.3260;1.6318;
294.6000;1.3276;1.6295;
294.9000;1.3268;1.6342;
295.2000;1.3203;1.6103;
295.5000;1.3260;1.6271;
295.8000;1.3268;1.6318;
296.1000;1.3268;1.6366;
296.4000;1.3284;1.6510;
296.7000;1.3284;1.6414;
297.0000;1.3268;1.6414;
297.3000;1.3260;1.6390;
297.6000;1.3268;1.6534;
297.9000;1.3268;1.6534;
298.2000;1.3268;1.6486;
298.5000;1.3276;1.6462;
298.8000;1.3268;1.6414;
299.1000;1.3268;1.6366;
299.4000;1.3276;1.6462;
299.7000;1.3284;1.6414;
300.0000;1.3284;1.6390;
300.3000;1.3276;1.6366;
300.6000;1.3276;1.6342;
300.9000;1.3293;1.6414;
301.2000;1.3260;1.6366;
301.5000;1.3228;1.6271;
301.8000;1.3284;1.6366;
302.1000;1.3309;1.6438;
302.4000;1.3293;1.6438;
302.7000;1.3276;1.6366;
303.0000;1.3293;1.6342;
303.3000;1.3284;1.6342;
303.6000;1.3268;1.6247;
303.9000;1.3276;1.6199;
304.2000;1.3276;1.6271;
304.5000;1.3276;1.6223;
304.8000;1.3276;1.6199;
305.1000;1.3268;1.6295;
305.4000;1.3284;1.6295;
305.7000;1.3276;1.6223;
306.0000;1.3276;1.6295;
306.3000;1.3276;1.6271;
306.6000;1.3284;1.6414;
306.9000;1.3293;1.6438;
307.2000;1.3276;1.6438;
307.5000;1.3268;1.6438;
307.8000;1.3268;1.6438;
308.1000;1.3260;1.6414;
308.4000;1.3268;1.6438;
308.7000;1.3268;1.6414;
309.0000;1.3268;1.6342;
309.3000;1.3268;1.6366;
309.6000;1.3276;1.6390;
309.9000;1.3268;1.6390;
310.2000;1.3276;1.6366;
310.5000;1.3252;1.6414;
310.8000;1.3268;1.6486;
311.1000;1.3284;1.6558;
311.4000;1.3276;1.6558;
311.7000;1.3284;1.6558;
312.0000;1.3350;1.6702;
312.3000;1.3293;1.6558;
312.6000;1.3276;1.6414;
312.9000;1.3284;1.6366;
313.2000;1.3301;1.6462;
313.5000;1.3284;1.6438;
313.8000;1.3260;1.6366;
314.1000;1.3276;1.6366;
314.4000;1.3374;1.6582;
314.7000;1.3268;1.6438;
315.0000;1.3260;1.6438;
315.3000;1.3260;1.6390;
315.6000;1.3276;1.6414;
315.9000;1.3276;1.6390;
316.2000;1.3260;1.6342;
316.5000;1.3244;1.6271;
316.8000;1.3276;1.6342;
317.1000;1.3244;1.6295;
317.4000;1.3219;1.6199;
317.7000;1.3260;1.6271;
318.0000;1.3268;1.6247;
318.3000;1.3268;1.6199;
318.6000;1.3236;1.6127;
318.9000;1.3252;1.6271;
319.2000;1.3301;1.6366;
319.5000;1.3268;1.6271;
319.8000;1.3260;1.6366;
320.1000;1.3293;1.6366;
320.4000;1.3293;1.6295;
320.7000;1.3276;1.6271;
321.0000;1.3268;1.6199;
321.3000;1.3236;1.6103;
321.6000;1.3268;1.6055;
321.9000;1.3284;1.6127;
322.2000;1.3301;1.6127;
322.5000;1.3333;1.6199;
322.8000;1.3268;1.6103;
323.1000;1.3333;1.6295;
323.4000;1.3252;1.6199;
323.7000;1.3276;1.6223;
324.0000;1.3268;1.6103;
324.3000;1.3333;1.6271;
324.6000;1.3268;1.6079;
324.9000;1.3260;1.6007;
325.2000;1.3268;1.6127;
325.5000;1.3284;1.6151;
325.8000;1.3309;1.6295;
326.1000;1.3244;1.6055;
326.4000;1.3260;1.6175;
326.7000;1.3260;1.6223;
327.0000;1.3276;1.6271;
327.3000;1.3284;1.6342;
327.6000;1.3276;1.6295;
327.9000;1.3284;1.6366;
328.2000;1.3260;1.6295;
328.5000;1.3276;1.6342;
328.8000;1.3260;1.6271;
329.1000;1.3268;1.6175;
329.4000;1.3260;1.6127;
329.7000;1.3154;1.5935;
330.0000;1.3284;1.6271;
330.3000;1.3276;1.6247;
330.6000;1.3260;1.6103;
330.9000;1.3260;1.6031;
331.2000;1.3301;1.6079;
331.5000;1.3374;1.6342;
331.8000;1.3268;1.6151;
332.1000;1.3284;1.6271;
332.4000;1.3293;1.6199;
332.7000;1.3219;1.5935;
333.0000;1.3333;1.6199;
333.3000;1.3211;1.5959;
333.6000;1.3293;1.6223;
333.9000;1.3276;1.6199;
334.2000;1.3244;1.6031;
334.5000;1.3228;1.6079;
334.8000;1.3301;1.6318;
335.1000;1.3260;1.6223;
335.4000;1.3252;1.6247;
335.7000;1.3268;1.6247;
336.0000;1.3260;1.6247;
336.3000;1.3260;1.6295;
336.6000;1.3260;1.6366;
336.9000;1.3268;1.6486;
337.2000;1.3211;1.6318;
337.5000;1.3276;1.6366;
337.8000;1.3284;1.6366;
338.1000;1.3260;1.6295;
338.4000;1.3268;1.6318;
338.7000;1.3268;1.6199;
339.0000;1.3252;1.6151;
339.3000;1.3268;1.6199;
339.6000;1.3260;1.6223;
339.9000;1.3268;1.6247;
340.2000;1.3260;1.6295;
340.5000;1.3276;1.6390;
340.8000;1.3268;1.6414;
341.1000;1.3268;1.6366;
341.4000;1.3276;1.6318;
341.7000;1.3244;1.6223;
342.0000;1.3260;1.6271;
342.3000;1.3252;1.6223;
342.6000;1.3276;1.6295;
342.9000;1.3317;1.6390;
343.2000;1.3105;1.5887;
343.5000;1.3260;1.6223;
343.8000;1.3284;1.6342;
344.1000;1.3211;1.6103;
344.4000;1.3284;1.6366;
344.7000;1.3284;1.6390;
345.0000;1.3284;1.6318;
345.3000;1.3309;1.6342;
345.6000;1.3260;1.6175;
345.9000;1.3260;1.6199;
346.2000;1.3341;1.6366;
346.5000;1.3382;1.6462;
346.8000;1.3276;1.6223;
347.1000;1.3219;1.6079;
347.4000;1.3236;1.6151;
347.7000;1.3276;1.6223;
348.0000;1.3284;1.6223;
348.3000;1.3276;1.6175;
348.6000;1.3309;1.6271;
348.9000;1.3268;1.6175;
349.2000;1.3284;1.6007;
349.5000;1.3268;1.5983;
349.8000;1.3268;1.6007;
350.1000;1.3268;1.6055;
350.4000;1.3228;1.6055;
350.7000;1.3276;1.6223;
351.0000;1.3268;1.6199;
351.3000;1.3268;1.6223;
351.6000;1.3309;1.6318;
351.9000;1.3268;1.6295;
352.2000;1.3244;1.6199;
352.5000;1.3284;1.6318;
352.8000;1.3268;1.6342;
353.1000;1.3252;1.6199;
353.4000;1.3260;1.6247;
353.7000;1.3244;1.6223;
354.0000;1.3252;1.6127;
354.3000;1.3260;1.6199;
354.6000;1.3268;1.6127;
354.9000;1.3284;1.6151;
355.2000;1.3236;1.6079;
355.5000;1.3284;1.6079;
355.8000;1.3293;1.6031;
356.1000;1.3268;1.5959;
356.4000;1.3293;1.6151;
356.7000;1.3276;1.6175;
357.0000;1.3244;1.6079;
357.3000;1.3317;1.6318;
357.6000;1.3293;1.6223;
357.9000;1.3293;1.6271;
358.2000;1.3268;1.6318;
358.5000;1.3284;1.6295;
358.8000;1.3276;1.6295;
359.1000;1.3276;1.6175;
359.4000;1.3276;1.6295;
359.7000;1.3276;1.6342;
360.0000;1.3268;1.6318;
360.3000;1.3252;1.6175;
360.6000;1.3260;1.6247;
360.9000;1.3268;1.6223;
361.2000;1.3276;1.6223;
361.5000;1.3244;1.6175;
361.8000;1.3293;1.6318;
362.1000;1.3284;1.6271;
362.4000;1.3260;1.6271;
362.7000;1.3260;1.6271;
363.0000;1.3260;1.6318;
363.3000;1.3260;1.6366;
363.6000;1.3260;1.6438;
363.9000;1.3268;1.6510;
364.2000;1.3260;1.6438;
364.5000;1.3293;1.6462;
364.8000;1.3236;1.6366;
365.1000;1.3268;1.6366;
365.4000;1.3284;1.6342;
365.7000;1.3268;1.6295;
366.0000;1.3284;1.6318;
366.3000;1.3260;1.6199;
366.6000;1.3293;1.6151;
366.9000;1.3284;1.6127;
367.2000;1.3260;1.6103;
367.5000;1.3293;1.6223;
367.8000;1.3252;1.6271;
368.1000;1.3276;1.6390;
368.4000;1.3236;1.6366;
368.7000;1.3268;1.6438;
369.0000;1.3268;1.6414;
369.3000;1.3301;1.6486;
369.6000;1.3317;1.6462;
369.9000;1.3276;1.6414;
370.2000;1.3317;1.6558;
370.5000;1.3276;1.6510;
370.8000;1.3211;1.6271;
371.1000;1.3333;1.6534;
371.4000;1.3268;1.6390;
371.7000;1.3301;1.6486;
372.0000;1.3268;1.6462;
372.3000;1.3268;1.6510;
372.6000;1.3260;1.6414;
372.9000;1.3284;1.6534;
373.2000;1.3268;1.6462;
373.5000;1.3260;1.6462;
373.8000;1.3252;1.6342;
374.1000;1.3236;1.6271;
374.4000;1.3236;1.6271;
374.7000;1.3268;1.6366;
375.0000;1.3244;1.6366;
375.3000;1.3268;1.6414;
375.6000;1.3260;1.6342;
375.9000;1.3219;1.6223;
376.2000;1.3301;1.6438;
376.5000;1.3260;1.6366;
376.8000;1.3309;1.6414;
377.1000;1.3284;1.6366;
377.4000;1.3252;1.6271;
377.7000;1.3284;1.6247;
378.0000;1.3284;1.6295;
378.3000;1.3301;1.6390;
378.6000;1.3187;1.6103;
378.9000;1.3260;1.6199;
379.2000;1.3276;1.6223;
379.5000;1.3268;1.6223;
379.8000;1.3284;1.6199;
380.1000;1.3276;1.6175;
380.4000;1.3284;1.6223;
380.7000;1.3284;1.6223;
381.0000;1.3276;1.6199;
381.3000;1.3317;1.6366;
381.6000;1.3276;1.6223;
381.9000;1.3276;1.6247;
382.2000;1.3268;1.6223;
382.5000;1.3268;1.6199;
382.8000;1.3252;1.6223;
383.1000;1.3341;1.6438;
383.4000;1.3276;1.6295;
383.7000;1.3268;1.6199;
384.0000;1.3244;1.6199;
384.3000;1.3252;1.6247;
384.6000;1.3268;1.6318;
384.9000;1.3260;1.6295;
385.2000;1.3276;1.6414;
385.5000;1.3276;1.6438;
385.8000;1.3276;1.6438;
386.1000;1.3260;1.6414;
386.4000;1.3236;1.6414;
386.7000;1.3276;1.6438;
387.0000;1.3301;1.6438;
387.3000;1.3268;1.6318;
387.6000;1.3260;1.6151;
387.9000;1.3268;1.6127;
388.2000;1.3293;1.6295;
388.5000;1.3252;1.6175;
388.8000;1.3252;1.6199;
389.1000;1.3260;1.6151;
389.4000;1.3293;1.6175;
389.7000;1.3195;1.5935;
390.0000;1.3268;1.6079;
390.3000;1.3260;1.6127;
390.6000;1.3244;1.6127;
390.9000;1.3252;1.6151;
391.2000;1.3260;1.6079;
391.5000;1.3219;1.6007;
391.8000;1.3366;1.6366;
392.1000;1.3211;1.6127;
392.4000;1.3276;1.6342;
392.7000;1.3268;1.6390;
393.0000;1.3268;1.6342;
393.3000;1.3268;1.6390;
393.6000;1.3301;1.6414;
393.9000;1.3325;1.6414;
394.2000;1.3244;1.6223;
394.5000;1.3268;1.6199;
394.8000;1.3211;1.6103;
395.1000;1.3358;1.6342;
395.4000;1.3244;1.6055;
395.7000;1.3260;1.6031;
396.0000;1.3260;1.5911;
396.3000;1.3260;1.6007;
396.6000;1.3260;1.6175;
396.9000;1.3366;1.6486;
397.2000;1.3268;1.6318;
397.5000;1.3154;1.6103;
397.8000;1.3260;1.6318;
398.1000;1.3309;1.6342;
398.4000;1.3276;1.6151;
398.7000;1.3260;1.6127;
399.0000;1.3228;1.6031;
399.3000;1.3284;1.6079;
399.6000;1.3252;1.6055;
399.9000;1.3268;1.6103;
400.2000;1.3317;1.6295;
400.5000;1.3268;1.6103;
400.8000;1.3284;1.6175;
401.1000;1.3284;1.6271;
401.4000;1.3252;1.6223;
401.7000;1.3293;1.6366;
402.0000;1.3252;1.6175;
402.3000;1.3284;1.6247;
402.6000;1.3284;1.6318;
402.9000;1.3284;1.6342;
403.2000;1.3195;1.6295;
403.5000;1.3341;1.6654;
403.8000;1.3260;1.6414;
404.1000;1.3252;1.6366;
404.4000;1.3236;1.6342;
404.7000;1.3244;1.6414;
405.0000;1.3260;1.6414;
405.3000;1.3219;1.6223;
405.6000;1.3228;1.6127;
405.9000;1.3260;1.6103;
406.2000;1.3268;1.6199;
406.5000;1.3244;1.6223;
406.8000;1.3260;1.6366;
407.1000;1.3252;1.6366;
407.4000;1.3260;1.6295;
407.7000;1.3252;1.6271;
408.0000;1.3268;1.6390;
408.3000;1.3260;1.6390;
408.6000;1.3268;1.6438;
408.9000;1.3260;1.6438;
409.2000;1.3236;1.6318;
409.5000;1.3252;1.6438;
409.8000;1.3244;1.6414;
410.1000;1.3260;1.6342;
410.4000;1.3333;1.6414;
410.7000;1.3252;1.6247;
411.0000;1.3252;1.6271;
411.3000;1.3252;1.6223;
411.6000;1.3260;1.6271;
411.9000;1.3268;1.6223;
412.2000;1.3276;1.6271;
412.5000;1.3276;1.6247;
412.8000;1.3309;1.6247;
413.1000;1.3236;1.6079;
413.4000;1.3236;1.6079;
413.7000;1.3236;1.6079;
414.0000;1.3268;1.6223;
414.3000;1.3252;1.6271;
414.6000;1.3228;1.6223;
414.9000;1.3260;1.6223;
415.2000;1.3268;1.6271;
415.5000;1.3244;1.6127;
415.8000;1.3260;1.6151;
416.1000;1.3244;1.6079;
416.4000;1.3276;1.6127;
416.7000;1.3260;1.6151;
417.0000;1.3252;1.6175;
417.3000;1.3268;1.6223;
417.6000;1.3374;1.6486;
417.9000;1.3268;1.6247;
418.2000;1.3252;1.6127;
418.5000;1.3309;1.6271;
418.8000;1.3268;1.6271;
419.1000;1.3276;1.6295;
419.4000;1.3309;1.6295;
419.7000;1.3260;1.6175;
420.0000;1.3268;1.6175;
420.3000;1.3293;1.6366;
420.6000;1.3268;1.6247;
420.9000;1.3268;1.6366;
421.2000;1.3293;1.6390;
421.5000;1.3284;1.6366;
421.8000;1.3317;1.6438;
422.1000;1.3260;1.6223;
422.4000;1.3260;1.6223;
422.7000;1.3260;1.6271;
423.0000;1.3268;1.6342;
423.3000;1.3276;1.6414;
423.6000;1.3260;1.6366;
423.9000;1.3276;1.6342;
424.2000;1.3276;1.6390;
424.5000;1.3276;1.6318;
424.8000;1.3276;1.6318;
425.1000;1.3276;1.6390;
425.4000;1.3276;1.6414;
425.7000;1.3252;1.6271;
426.0000;1.3252;1.6175;
426.3000;1.3228;1.6127;
426.6000;1.3293;1.6199;
426.9000;1.3252;1.6175;
427.2000;1.3252;1.6199;
427.5000;1.3260;1.6318;
427.8000;1.3252;1.6318;
428.1000;1.3268;1.6271;
428.4000;1.3268;1.6199;
428.7000;1.3260;1.6199;
429.0000;1.3228;1.6007;
429.3000;1.3276;1.6055;
429.6000;1.3276;1.6127;
429.9000;1.3276;1.5959;
430.2000;1.3260;1.5911;
430.5000;1.3268;1.5887;
430.8000;1.3268;1.5959;
431.1000;1.3252;1.6007;
431.4000;1.3325;1.6271;
431.7000;1.3268;1.6079;
432.0000;1.3252;1.5983;
432.3000;1.3252;1.5959;
432.6000;1.3252;1.5959;
432.9000;1.3268;1.6031;
433.2000;1.3244;1.6055;
433.5000;1.3293;1.6151;
433.8000;1.3260;1.5959;
434.1000;1.3228;1.6007;
434.4000;1.3244;1.6079;
434.7000;1.3268;1.6031;
435.0000;1.3268;1.6031;
435.3000;1.3260;1.5959;
435.6000;1.3268;1.5959;
435.9000;1.3260;1.5983;
436.2000;1.3268;1.6031;
436.5000;1.3276;1.6151;
436.8000;1.3268;1.6127;
437.1000;1.3252;1.6079;
437.4000;1.3268;1.6007;
437.7000;1.3260;1.5959;
438.0000;1.3260;1.5959;
438.3000;1.3211;1.5887;
438.6000;1.3260;1.6103;
438.9000;1.3252;1.6151;
439.2000;1.3260;1.6151;
439.5000;1.3260;1.6175;
439.8000;1.3171;1.5935;
440.1000;1.3260;1.6127;
440.4000;1.3244;1.6031;
440.7000;1.3260;1.6055;
441.0000;1.3260;1.6055;
441.3000;1.3276;1.6079;
441.6000;1.3236;1.6007;
441.9000;1.3268;1.6007;
442.2000;1.3366;1.6247;
442.5000;1.3236;1.6079;
442.8000;1.3195;1.6007;
443.1000;1.3252;1.6175;
443.4000;1.3276;1.6127;
443.7000;1.3244;1.6007;
444.0000;1.3276;1.6031;
444.3000;1.3244;1.6007;
444.6000;1.3268;1.6055;
444.9000;1.3252;1.5911;
445.2000;1.3276;1.5911;
445.5000;1.3301;1.5959;
445.8000;1.3276;1.6103;
446.1000;1.3260;1.6055;
446.4000;1.3293;1.6199;
446.7000;1.3260;1.6223;
447.0000;1.3260;1.6223;
447.3000;1.3260;1.6199;
447.6000;1.3260;1.6271;
447.9000;1.3252;1.6295;
448.2000;1.3187;1.6151;
448.5000;1.3268;1.6271;
448.8000;1.3252;1.6175;
449.1000;1.3219;1.6127;
449.4000;1.3252;1.6175;
449.7000;1.3317;1.6295;
450.0000;1.3260;1.6223;
450.3000;1.3276;1.6271;
450.6000;1.3252;1.6223;
450.9000;1.3268;1.6247;
451.2000;1.3244;1.6271;
451.5000;1.3260;1.6318;
451.8000;1.3244;1.6271;
452.1000;1.3252;1.6247;
452.4000;1.3284;1.6247;
452.7000;1.3236;1.6151;
453.0000;1.3301;1.6271;
453.3000;1.3244;1.6103;
453.6000;1.3252;1.6055;
453.9000;1.3252;1.6103;
454.2000;1.3260;1.6103;
454.5000;1.3244;1.5959;
454.8000;1.3293;1.6079;
455.1000;1.3252;1.6151;
455.4000;1.3268;1.6151;
455.7000;1.3260;1.6199;
456.0000;1.3268;1.6151;
456.3000;1.3252;1.6175;
456.6000;1.3260;1.6223;
456.9000;1.3276;1.6271;
457.2000;1.3260;1.6366;
457.5000;1.3252;1.6366;
457.8000;1.3219;1.6271;
458.1000;1.3260;1.6318;
458.4000;1.3276;1.6318;
458.7000;1.3293;1.6390;
459.0000;1.3236;1.6175;
459.3000;1.3284;1.6223;
459.6000;1.3276;1.6199;
459.9000;1.3276;1.6223;
460.2000;1.3284;1.6199;
460.5000;1.3276;1.6247;
460.8000;1.3260;1.6223;
461.1000;1.3252;1.6151;
461.4000;1.3236;1.6103;
461.7000;1.3301;1.6318;
462.0000;1.3268;1.6247;
462.3000;1.3268;1.6223;
462.6000;1.3179;1.5935;
462.9000;1.3244;1.6151;
463.2000;1.3260;1.6103;
463.5000;1.3260;1.6103;
463.8000;1.3228;1.6055;
464.1000;1.3236;1.6031;
464.4000;1.3252;1.6079;
464.7000;1.3276;1.6079;
465.0000;1.3268;1.6079;
465.3000;1.3309;1.6199;
465.6000;1.3211;1.6079;
465.9000;1.3252;1.6151;
466.2000;1.3244;1.6031;
466.5000;1.3252;1.5959;
466.8000;1.3236;1.6007;
467.1000;1.3252;1.6031;
467.4000;1.3260;1.6055;
467.7000;1.3244;1.6079;
468.0000;1.3276;1.6199;
468.3000;1.3228;1.6007;
468.6000;1.3244;1.6079;
468.9000;1.3268;1.6151;
469.2000;1.3317;1.6342;
469.5000;1.3236;1.6127;
469.8000;1.3260;1.6199;
470.1000;1.3333;1.6366;
470.4000;1.3276;1.6247;
470.7000;1.3268;1.6199;
471.0000;1.3317;1.6318;
471.3000;1.3228;1.6223;
471.6000;1.3244;1.6223;
471.9000;1.3284;1.6318;
472.2000;1.3219;1.6175;
472.5000;1.3260;1.6295;
472.8000;1.3260;1.6247;
473.1000;1.3252;1.6247;
473.4000;1.3260;1.6199;
473.7000;1.3268;1.6175;
474.0000;1.3268;1.6295;
474.3000;1.3268;1.6390;
474.6000;1.3268;1.6366;
474.9000;1.3260;1.6342;
475.2000;1.3260;1.6462;
475.5000;1.3268;1.6438;
475.8000;1.3211;1.6342;
476.1000;1.3268;1.6414;
476.4000;1.3260;1.6438;
476.7000;1.3252;1.6342;
477.0000;1.3284;1.6414;
477.3000;1.3268;1.6342;
477.6000;1.3252;1.6295;
477.9000;1.3260;1.6247;
478.2000;1.3244;1.6127;
478.5000;1.3260;1.6199;
478.8000;1.3260;1.6295;
479.1000;1.3268;1.6271;
479.4000;1.3211;1.6079;
479.7000;1.3252;1.6175;
480.0000;1.3260;1.6151;
480.3000;1.3260;1.6151;
480.6000;1.3260;1.6103;
480.9000;1.3260;1.6127;
481.2000;1.3244;1.6103;
481.5000;1.3268;1.6223;
481.8000;1.3252;1.6175;
482.1000;1.3260;1.6223;
482.4000;1.3236;1.6247;
482.7000;1.3268;1.6318;
483.0000;1.3236;1.6223;
483.3000;1.3268;1.6271;
483.6000;1.3252;1.6342;
483.9000;1.3268;1.6342;
484.2000;1.3260;1.6318;
484.5000;1.3260;1.6318;
484.8000;1.3228;1.6103;
485.1000;1.3301;1.6271;
485.4000;1.3252;1.6175;
485.7000;1.3260;1.6127;
486.0000;1.3252;1.6295;
486.3000;1.3252;1.6199;
486.6000;1.3228;1.6151;
486.9000;1.3219;1.6271;
487.2000;1.3309;1.6486;
487.5000;1.3276;1.6414;
487.8000;1.3268;1.6390;
488.1000;1.3415;1.6750;
488.4000;1.3260;1.6390;
488.7000;1.3268;1.6318;
489.0000;1.3276;1.6366;
489.3000;1.3284;1.6366;
489.6000;1.3203;1.6127;
489.9000;1.3260;1.6247;
490.2000;1.3268;1.6199;
490.5000;1.3268;1.6175;
490.8000;1.3244;1.6151;
491.1000;1.3293;1.6247;
491.4000;1.3252;1.6127;
491.7000;1.3252;1.6199;
492.0000;1.3252;1.6151;
492.3000;1.3276;1.6103;
492.6000;1.3268;1.6175;
492.9000;1.3252;1.6151;
493.2000;1.3276;1.6199;
493.5000;1.3252;1.6079;
493.8000;1.3244;1.6199;
494.1000;1.3228;1.6079;
494.4000;1.3260;1.6079;
494.7000;1.3260;1.5959;
495.0000;1.3236;1.5935;
495.3000;1.3268;1.5911;
495.6000;1.3211;1.5791;
495.9000;1.3268;1.5983;
496.2000;1.3252;1.5935;
496.5000;1.3211;1.5743;
496.8000;1.3293;1.6031;
497.1000;1.3252;1.6103;
497.4000;1.3260;1.6175;
497.7000;1.3260;1.6247;
498.0000;1.3252;1.6247;
498.3000;1.3260;1.6127;
498.6000;1.3260;1.6103;
498.9000;1.3260;1.6127;
499.2000;1.3268;1.6103;
499.5000;1.3268;1.6055;
499.8000;1.3268;1.6055;
500.1000;1.3260;1.6151;
500.4000;1.3260;1.6175;
500.7000;1.3260;1.6151;
501.0000;1.3252;1.6079;
501.3000;1.3252;1.6079;
501.6000;1.3260;1.6199;
501.9000;1.3244;1.6151;
502.2000;1.3252;1.6199;
502.5000;1.3244;1.6271;
502.8000;1.3268;1.6318;
503.1000;1.3260;1.6271;
503.4000;1.3268;1.6342;
503.7000;1.3252;1.6223;
504.0000;1.3268;1.6271;
504.3000;1.3260;1.6295;
504.6000;1.3260;1.6318;
504.9000;1.3260;1.6247;
505.2000;1.3268;1.6127;
505.5000;1.3284;1.6151;
505.8000;1.3228;1.6127;
506.1000;1.3252;1.6271;
506.4000;1.3244;1.6175;
506.7000;1.3284;1.6271;
507.0000;1.3252;1.6223;
507.3000;1.3244;1.6223;
507.6000;1.3236;1.6199;
507.9000;1.3260;1.6199;
508.2000;1.3236;1.6151;
508.5000;1.3260;1.6175;
508.8000;1.3260;1.6199;
509.1000;1.3252;1.6175;
509.4000;1.3252;1.6223;
509.7000;1.3284;1.6247;
510.0000;1.3268;1.6223;
510.3000;1.3252;1.6199;
510.6000;1.3309;1.6271;
510.9000;1.3268;1.6127;
511.2000;1.3252;1.6127;
511.5000;1.3162;1.5935;
511.8000;1.3252;1.6199;
512.1000;1.3268;1.6271;
512.4000;1.3301;1.6223;
512.7000;1.3236;1.6007;
513.0000;1.3268;1.6127;
513.3000;1.3236;1.5959;
513.6000;1.3244;1.5983;
513.9000;1.3260;1.6055;
514.2000;1.3228;1.6055;
514.5000;1.3293;1.6175;
514.8000;1.3260;1.6103;
515.1000;1.3268;1.6055;
515.4000;1.3252;1.6079;
515.7000;1.3260;1.6127;
516.0000;1.3219;1.6007;
516.3000;1.3268;1.6079;
516.6000;1.3252;1.6079;
516.9000;1.3252;1.6127;
517.2000;1.3260;1.6127;
517.5000;1.3260;1.6175;
517.8000;1.3236;1.6175;
518.1000;1.3244;1.6271;
518.4000;1.3260;1.6295;
518.7000;1.3244;1.6318;
519.0000;1.3236;1.6247;
519.3000;1.3252;1.6199;
519.6000;1.3260;1.6151;
519.9000;1.3293;1.6199;
520.2000;1.3228;1.6079;
520.5000;1.3260;1.6127;
520.8000;1.3260;1.6175;
521.1000;1.3252;1.6175;
521.4000;1.3244;1.6366;
521.7000;1.3252;1.6342;
522.0000;1.3260;1.6390;
522.3000;1.3252;1.6342;
522.6000;1.3252;1.6366;
522.9000;1.3252;1.6390;
523.2000;1.3260;1.6462;
523.5000;1.3236;1.6462;
523.8000;1.3260;1.6390;
524.1000;1.3244;1.6366;
524.4000;1.3268;1.6342;
524.7000;1.3260;1.6414;
525.0000;1.3260;1.6295;
525.3000;1.3268;1.6366;
525.6000;1.3252;1.6318;
525.9000;1.3268;1.6271;
526.2000;1.3260;1.6223;
526.5000;1.3317;1.6414;
526.8000;1.3260;1.6271;
527.1000;1.3276;1.6414;
527.4000;1.3276;1.6438;
527.7000;1.3244;1.6366;
528.0000;1.3268;1.6318;
528.3000;1.3236;1.6223;
528.6000;1.3268;1.6414;
528.9000;1.3268;1.6438;
529.2000;1.3260;1.6438;
529.5000;1.3276;1.6366;
529.8000;1.3268;1.6486;
530.1000;1.3268;1.6414;
530.4000;1.3260;1.6342;
530.7000;1.3252;1.6318;
531.0000;1.3268;1.6295;
531.3000;1.3187;1.6103;
531.6000;1.3252;1.6342;
531.9000;1.3236;1.6414;
532.2000;1.3293;1.6462;
532.5000;1.3309;1.6462;
532.8000;1.3309;1.6366;
533.1000;1.3252;1.6295;
533.4000;1.3252;1.6366;
533.7000;1.3260;1.6462;
534.0000;1.3284;1.6606;
534.3000;1.3219;1.6510;
534.6000;1.3203;1.6438;
534.9000;1.3268;1.6558;
535.2000;1.3252;1.6486;
535.5000;1.3252;1.6462;
535.8000;1.3260;1.6510;
536.1000;1.3252;1.6486;
536.4000;1.3244;1.6366;
536.7000;1.3236;1.6318;
537.0000;1.3162;1.6079;
537.3000;1.3325;1.6486;
537.6000;1.3252;1.6271;
537.9000;1.3284;1.6342;
538.2000;1.3228;1.6103;
538.5000;1.3252;1.6223;
538.8000;1.3228;1.6103;
539.1000;1.3252;1.6103;
539.4000;1.3236;1.6127;
539.7000;1.3260;1.6175;
540.0000;1.3260;1.6175;
540.3000;1.3317;1.6318;
540.6000;1.3252;1.6175;
540.9000;1.3260;1.6318;
541.2000;1.3276;1.6342;
541.5000;1.3350;1.6438;
541.8000;1.3244;1.6271;
542.1000;1.3236;1.6175;
542.4000;1.3195;1.6103;
542.7000;1.3293;1.6366;
543.0000;1.3244;1.6295;
543.3000;1.3228;1.6151;
543.6000;1.3244;1.6175;
543.9000;1.3276;1.6247;
544.2000;1.3268;1.6271;
544.5000;1.3252;1.6247;
544.8000;1.3252;1.6271;
545.1000;1.3260;1.6414;
545.4000;1.3219;1.6318;
545.7000;1.3276;1.6390;
546.0000;1.3244;1.6342;
546.3000;1.3268;1.6390;
546.6000;1.3260;1.6318;
546.9000;1.3252;1.6318;
547.2000;1.3244;1.6366;
547.5000;1.3195;1.6175;
547.8000;1.3244;1.6342;
548.1000;1.3252;1.6342;
548.4000;1.3293;1.6438;
548.7000;1.3268;1.6271;
549.0000;1.3260;1.6223;
549.3000;1.3260;1.6127;
549.6000;1.3260;1.6103;
549.9000;1.3268;1.6199;
550.2000;1.3284;1.6247;
550.5000;1.3244;1.6103;
550.8000;1.3268;1.6079;
551.1000;1.3252;1.6031;
551.4000;1.3260;1.6127;
551.7000;1.3276;1.6055;
552.0000;1.3260;1.5959;
552.3000;1.3260;1.5935;
552.6000;1.3244;1.6055;
552.9000;1.3260;1.6079;
553.2000;1.3244;1.6007;
553.5000;1.3244;1.6151;
553.8000;1.3187;1.6103;
554.1000;1.3228;1.6247;
554.4000;1.3236;1.6199;
554.7000;1.3252;1.6247;
555.0000;1.3252;1.6295;
555.3000;1.3293;1.6295;
555.6000;1.3260;1.6103;
555.9000;1.3236;1.5935;
556.2000;1.3301;1.6007;
556.5000;1.3244;1.5791;
556.8000;1.3268;1.5887;
557.1000;1.3236;1.5887;
557.4000;1.3252;1.6007;
557.7000;1.3252;1.6007;
558.0000;1.3236;1.5959;
558.3000;1.3228;1.5935;
558.6000;1.3252;1.6079;
558.9000;1.3244;1.6151;
559.2000;1.3260;1.6175;
559.5000;1.3244;1.6199;
559.8000;1.3252;1.6223;
560.1000;1.3260;1.6199;
560.4000;1.3333;1.6318;
560.7000;1.3252;1.6151;
561.0000;1.3244;1.6103;
561.3000;1.3211;1.6103;
561.6000;1.3276;1.6295;
561.9000;1.3260;1.6175;
562.2000;1.3260;1.6199;
562.5000;1.3260;1.6223;
562.8000;1.3236;1.6151;
563.1000;1.3260;1.6271;
563.4000;1.3244;1.6247;
563.7000;1.3236;1.6175;
564.0000;1.3390;1.6606;
564.3000;1.3244;1.6223;
564.6000;1.3276;1.6318;
564.9000;1.3244;1.6342;
565.2000;1.3244;1.6271;
565.5000;1.3268;1.6247;
565.8000;1.3268;1.6318;
566.1000;1.3236;1.6342;
566.4000;1.3252;1.6414;
566.7000;1.3187;1.6271;
567.0000;1.3309;1.6558;
567.3000;1.3260;1.6414;
567.6000;1.3260;1.6342;
567.9000;1.3260;1.6390;
568.2000;1.3236;1.6390;
568.5000;1.3268;1.6438;
568.8000;1.3252;1.6342;
569.1000;1.3244;1.6247;
569.4000;1.3252;1.6318;
569.7000;1.3260;1.6342;
570.0000;1.3244;1.6318;
570.3000;1.3268;1.6414;
570.6000;1.3260;1.6390;
570.9000;1.3260;1.6366;
571.2000;1.3244;1.6271;
571.5000;1.3301;1.6366;
571.8000;1.3252;1.6223;
572.1000;1.3236;1.6175;
572.4000;1.3252;1.6295;
572.7000;1.3236;1.6271;
573.0000;1.3236;1.6223;
573.3000;1.3276;1.6318;
573.6000;1.3236;1.6223;
573.9000;1.3244;1.6247;
574.2000;1.3260;1.6318;
574.5000;1.3260;1.6318;
574.8000;1.3244;1.6247;
575.1000;1.3268;1.6318;
575.4000;1.3268;1.6342;
575.7000;1.3244;1.6247;
576.0000;1.3260;1.6295;
576.3000;1.3252;1.6247;
576.6000;1.3236;1.6247;
576.9000;1.3252;1.6271;
577.2000;1.3260;1.6295;
577.5000;1.3309;1.6366;
577.8000;1.3244;1.6199;
578.1000;1.3228;1.6175;
578.4000;1.3252;1.6247;
578.7000;1.3228;1.6079;
579.0000;1.3228;1.6103;
579.3000;1.3236;1.6175;
579.6000;1.3398;1.6558;
579.9000;1.3260;1.6199;
580.2000;1.3236;1.6055;
580.5000;1.3219;1.6079;
580.8000;1.3244;1.6175;
581.1000;1.3276;1.6199;
581.4000;1.3244;1.6103;
581.7000;1.3252;1.6175;
582.0000;1.3252;1.6175;
582.3000;1.3179;1.5911;
582.6000;1.3284;1.6103;
582.9000;1.3236;1.6055;
583.2000;1.3203;1.5935;
583.5000;1.3260;1.6103;
583.8000;1.3252;1.6127;
584.1000;1.3260;1.6151;
584.4000;1.3260;1.6151;
584.7000;1.3268;1.6127;
585.0000;1.3195;1.5839;
585.3000;1.3244;1.6055;
585.6000;1.3244;1.6055;
585.9000;1.3358;1.6271;
586.2000;1.3228;1.5935;
586.5000;1.3236;1.5983;
586.8000;1.3252;1.6031;
587.1000;1.3276;1.6175;
587.4000;1.3260;1.6007;
587.7000;1.3284;1.6079;
588.0000;1.3260;1.6079;
588.3000;1.3244;1.6079;
588.6000;1.3171;1.5887;
588.9000;1.3236;1.6103;
589.2000;1.3236;1.6103;
589.5000;1.3236;1.6079;
589.8000;1.3228;1.6175;
590.1000;1.3252;1.6271;
590.4000;1.3236;1.6271;
590.7000;1.3236;1.6247;
591.0000;1.3219;1.6175;
591.3000;1.3260;1.6199;
591.6000;1.3236;1.6127;
591.9000;1.3236;1.6127;
592.2000;1.3260;1.6199;
592.5000;1.3236;1.6103;
592.8000;1.3260;1.6151;
593.1000;1.3244;1.6151;
593.4000;1.3260;1.6151;
593.7000;1.3236;1.6175;
594.0000;1.3236;1.6223;
594.3000;1.3244;1.6271;
594.6000;1.3244;1.6271;
594.9000;1.3211;1.6079;
595.2000;1.3228;1.6151;
595.5000;1.3252;1.6151;
595.8000;1.3268;1.6247;
596.1000;1.3260;1.6342;
596.4000;1.3301;1.6366;
596.7000;1.3244;1.6175;
597.0000;1.3244;1.6175;
597.3000;1.3195;1.6151;
597.6000;1.3179;1.6079;
597.9000;1.3252;1.6199;
598.2000;1.3252;1.6199;
598.5000;1.3228;1.6127;
598.8000;1.3252;1.6079;
599.1000;1.3244;1.5983;
599.4000;1.3252;1.6103;
599.7000;1.3228;1.6055;
600.0000;1.3228;1.6007;
600.3000;1.3244;1.5839;
600.6000;1.3179;1.5624;
600.9000;1.3089;1.5408;
601.2000;1.2991;1.5264;
601.5000;1.2877;1.5096;
601.8000;1.2723;1.4929;
602.1000;1.2584;1.4785;
602.4000;1.2576;1.4953;
602.7000;1.2332;1.4449;
603.0000;1.2234;1.4354;
603.3000;1.2088;1.4138;
603.6000;1.2063;1.4066;
603.9000;1.1941;1.3946;
604.2000;1.1868;1.3946;
604.5000;1.1738;1.3659;
604.8000;1.1665;1.3563;
605.1000;1.1608;1.3659;
605.4000;1.1502;1.3563;
605.7000;1.1437;1.3467;
606.0000;1.1355;1.3395;
606.3000;1.1323;1.3419;
606.6000;1.1258;1.3395;
606.9000;1.1176;1.3323;
607.2000;1.1119;1.3347;
607.5000;1.1054;1.3227;
607.8000;1.1005;1.3251;
608.1000;1.0965;1.3060;
608.4000;1.0859;1.2940;
608.7000;1.0810;1.2820;
609.0000;1.0786;1.2844;
609.3000;1.0729;1.2724;
609.6000;1.0761;1.2844;
609.9000;1.0639;1.2652;
610.2000;1.0598;1.2700;
610.5000;1.0533;1.2604;
610.8000;1.0509;1.2556;
611.1000;1.0444;1.2461;
611.4000;1.0419;1.2437;
611.7000;1.0370;1.2532;
612.0000;1.0322;1.2532;
612.3000;1.0240;1.2221;
612.6000;1.0232;1.2293;
612.9000;1.0208;1.2245;
613.2000;1.0191;1.2269;
613.5000;1.0126;1.2197;
613.8000;1.0069;1.2077;
614.1000;1.0053;1.2077;
614.4000;1.0012;1.2221;
614.7000;0.9972;1.2221;
615.0000;0.9955;1.2197;
615.3000;0.9898;1.2173;
615.6000;0.9882;1.2173;
615.9000;0.9858;1.2269;
616.2000;0.9833;1.2293;
616.5000;0.9801;1.2197;
616.8000;0.9760;1.2245;
617.1000;0.9727;1.2149;
617.4000;0.9695;1.2197;
617.7000;0.9687;1.2125;
618.0000;0.9654;1.2125;
618.3000;0.9654;1.2221;
618.6000;0.9597;1.2293;
618.9000;0.9548;1.2197;
619.2000;0.9540;1.2221;
619.5000;0.9516;1.2173;
619.8000;0.9467;1.2125;
620.1000;0.9467;1.2221;
620.4000;0.9434;1.2149;
620.7000;0.9418;1.2125;
621.0000;0.9402;1.2125;
621.3000;0.9361;1.2101;
621.6000;0.9353;1.2149;
621.9000;0.9312;1.2125;
622.2000;0.9263;1.2029;
622.5000;0.9263;1.2005;
622.8000;0.9255;1.2101;
623.1000;0.9255;1.2173;
623.4000;0.9214;1.2101;
623.7000;0.9198;1.2173;
624.0000;0.9149;1.2101;
624.3000;0.9166;1.2173;
624.6000;0.9101;1.1981;
624.9000;0.9092;1.1909;
625.2000;0.9084;1.1909;
625.5000;0.9068;1.1837;
625.8000;0.9019;1.1861;
626.1000;0.9027;1.1909;
626.4000;0.8954;1.1742;
626.7000;0.9019;1.1957;
627.0000;0.8978;1.1909;
627.3000;0.8987;1.2077;
627.6000;0.8921;1.2005;
627.9000;0.8921;1.2053;
628.2000;0.8913;1.2101;
628.5000;0.8856;1.2005;
628.8000;0.8873;1.2053;
629.1000;0.8913;1.2197;
629.4000;0.8840;1.1957;
629.7000;0.8832;1.1957;
630.0000;0.8799;1.1909;
630.3000;0.8807;1.1957;
630.6000;0.8791;1.1981;
630.9000;0.8767;1.1957;
631.2000;0.8759;1.2029;
631.5000;0.8759;1.2077;
631.8000;0.8742;1.2101;
632.1000;0.8734;1.2101;
632.4000;0.8718;1.2053;
632.7000;0.8669;1.1981;
633.0000;0.8702;1.2005;
633.3000;0.8669;1.1837;
633.6000;0.8653;1.1885;
633.9000;0.8637;1.1790;
634.2000;0.8628;1.1885;
634.5000;0.8620;1.1933;
634.8000;0.8596;1.1933;
635.1000;0.8580;1.1909;
635.4000;0.8571;1.1933;
635.7000;0.8580;1.2101;
636.0000;0.8555;1.1981;
636.3000;0.8514;1.1837;
636.6000;0.8523;1.1933;
636.9000;0.8531;1.1981;
637.2000;0.8490;1.2029;
637.5000;0.8474;1.1957;
637.8000;0.8474;1.2053;
638.1000;0.8457;1.2053;
638.4000;0.8449;1.2053;
638.7000;0.8425;1.2005;
639.0000;0.8441;1.2077;
639.3000;0.8392;1.2029;
639.6000;0.8417;1.2149;
639.9000;0.8482;1.2389;
640.2000;0.8384;1.2149;
640.5000;0.8368;1.2077;
640.8000;0.8368;1.2101;
641.1000;0.8352;1.2125;
641.4000;0.8360;1.2101;
641.7000;0.8344;1.2077;
642.0000;0.8344;1.2101;
642.3000;0.8344;1.2149;
642.6000;0.8327;1.2149;
642.9000;0.8327;1.2197;
643.2000;0.8303;1.2125;
643.5000;0.8319;1.2245;
643.8000;0.8230;1.2029;
644.1000;0.8287;1.2053;
644.4000;0.8254;1.2029;
644.7000;0.8254;1.2029;
645.0000;0.8221;1.1957;
645.3000;0.8238;1.1957;
645.6000;0.8230;1.1933;
645.9000;0.8156;1.1718;
646.2000;0.8230;1.1861;
646.5000;0.8189;1.1790;
646.8000;0.8189;1.1742;
647.1000;0.8140;1.1718;
647.4000;0.8132;1.1670;
647.7000;0.8173;1.1670;
648.0000;0.8148;1.1766;
648.3000;0.8173;1.1837;
648.6000;0.8107;1.1718;
648.9000;0.8148;1.1837;
649.2000;0.8091;1.1670;
649.5000;0.8116;1.1670;
649.8000;0.8132;1.1766;
650.1000;0.8099;1.1766;
650.4000;0.8042;1.1670;
650.7000;0.8083;1.1837;
651.0000;0.8083;1.1790;
651.3000;0.8059;1.1766;
651.6000;0.8099;1.1861;
651.9000;0.8034;1.1718;
652.2000;0.8099;1.1933;
652.5000;0.8050;1.1790;
652.8000;0.8034;1.1742;
653.1000;0.8075;1.1766;
653.4000;0.8026;1.1670;
653.7000;0.8059;1.1790;
654.0000;0.7993;1.1742;
654.3000;0.7993;1.1742;
654.6000;0.7977;1.1742;
654.9000;0.7977;1.1790;
655.2000;0.7961;1.1814;
655.5000;0.7953;1.1790;
655.8000;0.7945;1.1790;
656.1000;0.7969;1.1909;
656.4000;0.7953;1.1814;
656.7000;0.7945;1.1861;
657.0000;0.7928;1.1837;
657.3000;0.7953;1.1933;
657.6000;0.7928;1.1909;
657.9000;0.7920;1.1957;
658.2000;0.7871;1.1742;
658.5000;0.7920;1.1790;
658.8000;0.7896;1.1598;
659.1000;0.7896;1.1670;
659.4000;0.7863;1.1478;
659.7000;0.7880;1.1550;
660.0000;0.7888;1.1598;
660.3000;0.7855;1.1646;
660.6000;0.7871;1.1718;
660.9000;0.7863;1.1622;
661.2000;0.7863;1.1646;
661.5000;0.7863;1.1670;
661.8000;0.7863;1.1646;
662.1000;0.7847;1.1694;
662.4000;0.7839;1.1718;
662.7000;0.7823;1.1742;
663.0000;0.7831;1.1885;
663.3000;0.7847;1.1885;
663.6000;0.7814;1.1933;
663.9000;0.7798;1.1957;
664.2000;0.7782;1.1933;
664.5000;0.7741;1.1861;
664.8000;0.7790;1.2053;
665.1000;0.7790;1.2029;
665.4000;0.7782;1.1957;
665.7000;0.7774;1.1909;
666.0000;0.7774;1.1909;
666.3000;0.7766;1.1837;
666.6000;0.7757;1.1837;
666.9000;0.7757;1.1790;
667.2000;0.7749;1.1790;
667.5000;0.7749;1.1885;
667.8000;0.7741;1.1933;
668.1000;0.7725;1.1909;
668.4000;0.7757;1.1885;
668.7000;0.7725;1.1742;
669.0000;0.7684;1.1670;
669.3000;0.7709;1.1718;
669.6000;0.7692;1.1790;
669.9000;0.7692;1.1909;
670.2000;0.7692;1.2005;
670.5000;0.7692;1.2005;
670.8000;0.7668;1.2005;
671.1000;0.7676;1.2029;
671.4000;0.7684;1.2029;
671.7000;0.7676;1.1981;
672.0000;0.7676;1.2077;
672.3000;0.7668;1.2005;
672.6000;0.7668;1.2077;
672.9000;0.7676;1.2101;
673.2000;0.7652;1.2053;
673.5000;0.7643;1.2029;
673.8000;0.7635;1.2005;
674.1000;0.7643;1.1981;
674.4000;0.7635;1.1909;
674.7000;0.7627;1.1837;
675.0000;0.7668;1.1909;
675.3000;0.7635;1.1814;
675.6000;0.7619;1.1718;
675.9000;0.7603;1.1766;
676.2000;0.7611;1.1981;
676.5000;0.7603;1.2005;
676.8000;0.7635;1.2005;
677.1000;0.7619;1.1981;
677.4000;0.7562;1.1814;
677.7000;0.7603;1.1885;
678.0000;0.7570;1.1742;
678.3000;0.7570;1.1766;
678.6000;0.7554;1.1718;
678.9000;0.7562;1.1790;
679.2000;0.7554;1.1694;
679.5000;0.7546;1.1574;
679.8000;0.7554;1.1574;
680.1000;0.7562;1.1574;
680.4000;0.7554;1.1526;
680.7000;0.7538;1.1550;
681.0000;0.7546;1.1766;
681.3000;0.7521;1.1790;
681.6000;0.7521;1.1814;
681.9000;0.7530;1.1861;
682.2000;0.7481;1.1790;
682.5000;0.7521;1.1861;
682.8000;0.7513;1.1837;
683.1000;0.7521;1.1814;
683.4000;0.7489;1.1694;
683.7000;0.7497;1.1790;
684.0000;0.7489;1.1837;
684.3000;0.7481;1.1861;
684.6000;0.7481;1.1861;
684.9000;0.7448;1.1790;
685.2000;0.7489;1.1909;
685.5000;0.7489;1.1837;
685.8000;0.7464;1.1742;
686.1000;0.7456;1.1742;
686.4000;0.7481;1.1861;
686.7000;0.7440;1.1742;
687.0000;0.7456;1.1790;
687.3000;0.7440;1.1814;
687.6000;0.7448;1.1766;
687.9000;0.7473;1.1909;
688.2000;0.7456;1.1933;
688.5000;0.7473;1.1885;
688.8000;0.7424;1.1790;
689.1000;0.7440;1.1885;
689.4000;0.7432;1.1957;
689.7000;0.7391;1.1861;
690.0000;0.7464;1.1981;
690.3000;0.7383;1.1790;
690.6000;0.7424;1.1790;
690.9000;0.7416;1.1742;
691.2000;0.7440;1.1814;
691.5000;0.7416;1.1837;
691.8000;0.7407;1.1766;
692.1000;0.7416;1.1837;
692.4000;0.7407;1.1981;
692.7000;0.7407;1.1885;
693.0000;0.7334;1.1694;
693.3000;0.7375;1.1718;
693.6000;0.7399;1.1742;
693.9000;0.7391;1.1718;
694.2000;0.7399;1.1766;
694.5000;0.7424;1.1718;
694.8000;0.7375;1.1646;
695.1000;0.7424;1.1885;
695.4000;0.7367;1.1742;
695.7000;0.7375;1.1766;
696.0000;0.7391;1.1861;
696.3000;0.7416;1.2029;
696.6000;0.7359;1.1861;
696.9000;0.7334;1.1790;
697.2000;0.7342;1.1742;
697.5000;0.7359;1.1814;
697.8000;0.7334;1.1885;
698.1000;0.7350;1.1933;
698.4000;0.7326;1.1814;
698.7000;0.7310;1.1814;
699.0000;0.7334;1.1837;
699.3000;0.7342;1.1837;
699.6000;0.7302;1.1742;
699.9000;0.7310;1.1790;
700.2000;0.7310;1.1909;
700.5000;0.7310;1.1933;
700.8000;0.7293;1.1909;
701.1000;0.7342;1.2053;
701.4000;0.7302;1.1933;
701.7000;0.7293;1.1885;
702.0000;0.7302;1.1861;
702.3000;0.7302;1.1909;
702.6000;0.7293;1.1981;
702.9000;0.7277;1.1909;
703.2000;0.7310;1.1981;
703.5000;0.7293;1.1909;
703.8000;0.7285;1.2005;
704.1000;0.7277;1.1957;
704.4000;0.7277;1.2029;
704.7000;0.7277;1.2005;
705.0000;0.7285;1.1981;
705.3000;0.7261;1.1957;
705.6000;0.7318;1.2173;
705.9000;0.7261;1.1981;
706.2000;0.7269;1.1981;
706.5000;0.7269;1.1933;
706.8000;0.7245;1.1885;
707.1000;0.7261;1.1957;
707.4000;0.7261;1.1861;
707.7000;0.7245;1.1861;
708.0000;0.7228;1.1861;
708.3000;0.7236;1.1861;
708.6000;0.7253;1.1837;
708.9000;0.7245;1.1957;
709.2000;0.7253;1.1957;
709.5000;0.7261;1.1933;
709.8000;0.7253;1.1885;
710.1000;0.7236;1.1957;
710.4000;0.7228;1.1957;
710.7000;0.7204;1.1885;
711.0000;0.7220;1.1957;
711.3000;0.7228;1.1981;
711.6000;0.7245;1.2005;
711.9000;0.7220;1.1885;
712.2000;0.7228;1.1814;
712.5000;0.7228;1.1861;
712.8000;0.7220;1.1814;
713.1000;0.7212;1.1766;
713.4000;0.7236;1.1861;
713.7000;0.7212;1.1909;
714.0000;0.7204;1.1981;
714.3000;0.7212;1.2101;
714.6000;0.7220;1.2077;
714.9000;0.7204;1.2029;
715.2000;0.7220;1.2125;
715.5000;0.7179;1.2125;
715.8000;0.7196;1.2101;
716.1000;0.7196;1.2029;
716.4000;0.7188;1.1981;
716.7000;0.7163;1.1981;
717.0000;0.7074;1.1766;
717.3000;0.7253;1.2245;
717.6000;0.7188;1.2005;
717.9000;0.7163;1.2005;
718.2000;0.7090;1.1742;
718.5000;0.7220;1.2029;
718.8000;0.7179;1.1981;
719.1000;0.7204;1.2077;
719.4000;0.7163;1.2029;
719.7000;0.7179;1.2029;
720.0000;0.7171;1.1981;
720.3000;0.7163;1.2005;
720.6000;0.7114;1.1837;
720.9000;0.7171;1.2005;
721.2000;0.7139;1.2005;
721.5000;0.7155;1.2077;
721.8000;0.7147;1.2053;
722.1000;0.7212;1.2293;
722.4000;0.7155;1.2269;
722.7000;0.7163;1.2173;
723.0000;0.7098;1.2029;
723.3000;0.7163;1.2149;
723.6000;0.7139;1.2077;
723.9000;0.7179;1.2173;
724.2000;0.7139;1.2173;
724.5000;0.7155;1.2197;
724.8000;0.7139;1.2221;
725.1000;0.7131;1.2077;
725.4000;0.7131;1.2101;
725.7000;0.7139;1.2077;
726.0000;0.7114;1.2077;
726.3000;0.7139;1.2077;
726.6000;0.7131;1.2005;
726.9000;0.7139;1.2005;
727.2000;0.7131;1.1909;
727.5000;0.7147;1.1909;
727.8000;0.7106;1.1885;
728.1000;0.7106;1.1790;
728.4000;0.7114;1.1766;
728.7000;0.7131;1.1790;
729.0000;0.7114;1.1742;
729.3000;0.7106;1.1790;
729.6000;0.7098;1.1766;
729.9000;0.7106;1.1861;
730.2000;0.7098;1.1814;
730.5000;0.7098;1.1790;
730.8000;0.7098;1.1742;
731.1000;0.7098;1.1718;
731.4000;0.7082;1.1766;
731.7000;0.7074;1.1766;
732.0000;0.7090;1.1909;
732.3000;0.7090;1.1933;
732.6000;0.7098;1.1933;
732.9000;0.7074;1.1885;
733.2000;0.7098;1.1861;
733.5000;0.7090;1.1837;
733.8000;0.7106;1.1957;
734.1000;0.7090;1.1885;
734.4000;0.7139;1.1981;
734.7000;0.7066;1.1718;
735.0000;0.7082;1.1718;
735.3000;0.7009;1.1478;
735.6000;0.7123;1.1837;
735.9000;0.7066;1.1670;
736.2000;0.7066;1.1718;
736.5000;0.7139;1.1837;
736.8000;0.7041;1.1670;
737.1000;0.7000;1.1622;
737.4000;0.7017;1.1646;
737.7000;0.7057;1.1837;
738.0000;0.7049;1.1766;
738.3000;0.7057;1.1766;
738.6000;0.7033;1.1670;
738.9000;0.7049;1.1718;
739.2000;0.7066;1.1718;
739.5000;0.7074;1.1766;
739.8000;0.7041;1.1718;
740.1000;0.7090;1.1766;
740.4000;0.7049;1.1766;
740.7000;0.7033;1.1766;
741.0000;0.7025;1.1718;
741.3000;0.7000;1.1598;
741.6000;0.7033;1.1670;
741.9000;0.7025;1.1574;
742.2000;0.7000;1.1550;
742.5000;0.7049;1.1598;
742.8000;0.7033;1.1598;
743.1000;0.7017;1.1550;
743.4000;0.7025;1.1550;
743.7000;0.7033;1.1646;
744.0000;0.7025;1.1622;
744.3000;0.7017;1.1598;
744.6000;0.6968;1.1526;
744.9000;0.7025;1.1646;
745.2000;0.7033;1.1670;
745.5000;0.7025;1.1526;
745.8000;0.7041;1.1550;
746.1000;0.7017;1.1646;
746.4000;0.7033;1.1718;
746.7000;0.7033;1.1790;
747.0000;0.7009;1.1742;
747.3000;0.7009;1.1790;
747.6000;0.7000;1.1766;
747.9000;0.7017;1.1766;
748.2000;0.7017;1.1814;
748.5000;0.7017;1.1861;
748.8000;0.7009;1.1933;
749.1000;0.7009;1.1933;
749.4000;0.6992;1.1957;
749.7000;0.7000;1.1933;
750.0000;0.7000;1.1837;
750.3000;0.7000;1.1837;
750.6000;0.7017;1.1861;
750.9000;0.7000;1.1909;
751.2000;0.7017;1.1933;
751.5000;0.7000;1.1885;
751.8000;0.6984;1.1790;
752.1000;0.6976;1.1742;
752.4000;0.6968;1.1742;
752.7000;0.6976;1.1790;
753.0000;0.6984;1.1766;
753.3000;0.6992;1.1742;
753.6000;0.6984;1.1790;
753.9000;0.6976;1.1790;
754.2000;0.6992;1.1933;
754.5000;0.6960;1.1861;
754.8000;0.6976;1.1861;
755.1000;0.6976;1.1909;
755.4000;0.6960;1.1814;
755.7000;0.6960;1.1742;
756.0000;0.6960;1.1694;
756.3000;0.6960;1.1718;
756.6000;0.6960;1.1742;
756.9000;0.6952;1.1742;
757.2000;0.6919;1.1718;
757.5000;0.6960;1.1837;
757.8000;0.6968;1.1790;
758.1000;0.6943;1.1718;
758.4000;0.6943;1.1742;
758.7000;0.6960;1.1861;
759.0000;0.6935;1.1885;
759.3000;0.6968;1.1957;
759.6000;0.6984;1.2029;
759.9000;0.6927;1.1957;
760.2000;0.6960;1.1981;
760.5000;0.6952;1.2005;
760.8000;0.6903;1.1909;
761.1000;0.6927;1.1933;
761.4000;0.6943;1.1957;
761.7000;0.6935;1.1933;
762.0000;0.6935;1.1957;
762.3000;0.6935;1.1981;
762.6000;0.6919;1.1909;
762.9000;0.6935;1.2029;
763.2000;0.6960;1.2101;
763.5000;0.6943;1.2077;
763.8000;0.6952;1.2125;
764.1000;0.6935;1.2029;
764.4000;0.6935;1.2005;
764.7000;0.6927;1.1981;
765.0000;0.6927;1.2005;
765.3000;0.6903;1.1957;
765.6000;0.6919;1.1957;
765.9000;0.6976;1.2173;
766.2000;0.6911;1.2101;
766.5000;0.6911;1.2053;
766.8000;0.6911;1.2005;
767.1000;0.6903;1.2077;
767.4000;0.6903;1.2029;
767.7000;0.6927;1.2005;
768.0000;0.6935;1.2053;
768.3000;0.6919;1.1981;
768.6000;0.6903;1.1909;
768.9000;0.6870;1.1814;
769.2000;0.6976;1.2077;
769.5000;0.6927;1.2029;
769.8000;0.6927;1.2053;
770.1000;0.6854;1.1885;
770.4000;0.6919;1.2053;
770.7000;0.6911;1.2077;
771.0000;0.6886;1.2197;
771.3000;0.6886;1.2221;
771.6000;0.6854;1.2197;
771.9000;0.6911;1.2413;
772.2000;0.6911;1.2508;
772.5000;0.6870;1.2293;
772.8000;0.6878;1.2221;
773.1000;0.6878;1.2149;
773.4000;0.6886;1.2173;
773.7000;0.6878;1.2053;
774.0000;0.6886;1.2029;
774.3000;0.6895;1.2173;
774.6000;0.6903;1.2125;
774.9000;0.6886;1.2149;
775.2000;0.6878;1.2029;
775.5000;0.6903;1.2005;
775.8000;0.6878;1.1957;
776.1000;0.6895;1.1957;
776.4000;0.6919;1.2125;
776.7000;0.6886;1.2053;
777.0000;0.6943;1.2125;
777.3000;0.6935;1.2125;
777.6000;0.6862;1.1909;
777.9000;0.6886;1.1981;
778.2000;0.6870;1.1981;
778.5000;0.6870;1.2005;
778.8000;0.6862;1.1981;
779.1000;0.6870;1.1957;
779.4000;0.6878;1.1981;
779.7000;0.6895;1.2029;
780.0000;0.6886;1.1981;
780.3000;0.6878;1.2005;
780.6000;0.6878;1.2005;
780.9000;0.6886;1.2053;
781.2000;0.6862;1.2101;
781.5000;0.6862;1.2101;
781.8000;0.6886;1.2149;
782.1000;0.6895;1.2173;
782.4000;0.6919;1.2197;
782.7000;0.6878;1.2077;
783.0000;0.6854;1.2053;
783.3000;0.6862;1.2101;
783.6000;0.6862;1.2125;
783.9000;0.6878;1.2221;
784.2000;0.6854;1.2173;
784.5000;0.6862;1.2029;
784.8000;0.6870;1.1981;
785.1000;0.6854;1.1933;
785.4000;0.6854;1.1885;
785.7000;0.6862;1.1909;
786.0000;0.6846;1.1885;
786.3000;0.6870;1.2053;
786.6000;0.6870;1.2053;
786.9000;0.6854;1.2077;
787.2000;0.6854;1.2029;
787.5000;0.6838;1.1981;
787.8000;0.6846;1.1909;
788.1000;0.6829;1.1909;
788.4000;0.6846;1.2029;
788.7000;0.6838;1.2077;
789.0000;0.6846;1.2077;
789.3000;0.6846;1.2149;
789.6000;0.6854;1.2101;
789.9000;0.6813;1.2053;
790.2000;0.6886;1.2365;
790.5000;0.6781;1.2005;
790.8000;0.6838;1.2101;
791.1000;0.6756;1.1861;
791.4000;0.6748;1.1837;
791.7000;0.6813;1.2077;
792.0000;0.6813;1.2101;
792.3000;0.6838;1.2245;
792.6000;0.6838;1.2221;
792.9000;0.6870;1.2269;
793.2000;0.6821;1.2173;
793.5000;0.6821;1.2101;
793.8000;0.6829;1.2125;
794.1000;0.6886;1.2389;
794.4000;0.6821;1.2221;
794.7000;0.6838;1.2149;
795.0000;0.6895;1.2293;
795.3000;0.6805;1.2173;
795.6000;0.6805;1.2125;
795.9000;0.6748;1.1933;
796.2000;0.6805;1.2101;
796.5000;0.6821;1.2029;
796.8000;0.6821;1.1933;
797.1000;0.6797;1.1909;
797.4000;0.6789;1.1933;
797.7000;0.6911;1.2269;
798.0000;0.6829;1.1933;
798.3000;0.6813;1.1909;
798.6000;0.6805;1.1909;
798.9000;0.6805;1.1837;
799.2000;0.6781;1.1790;
799.5000;0.6789;1.1766;
799.8000;0.6813;1.1885;
800.1000;0.6821;1.1957;
800.4000;0.6805;1.2005;
800.7000;0.6903;1.2101;
801.0000;0.6862;1.2029;
801.3000;0.6797;1.1861;
801.6000;0.6805;1.1861;
801.9000;0.6781;1.1933;
802.2000;0.6805;1.1957;
802.5000;0.6797;1.1861;
802.8000;0.6821;1.1909;
803.1000;0.6797;1.1909;
803.4000;0.6805;1.1933;
803.7000;0.6781;1.1909;
804.0000;0.6813;1.2029;
804.3000;0.6805;1.1957;
804.6000;0.6797;1.1981;
804.9000;0.6805;1.1981;
805.2000;0.6813;1.2173;
805.5000;0.6797;1.2077;
805.8000;0.6781;1.2077;
806.1000;0.6813;1.2101;
806.4000;0.6789;1.2077;
806.7000;0.6838;1.2077;
807.0000;0.6772;1.1885;
807.3000;0.6813;1.1981;
807.6000;0.6797;1.1909;
807.9000;0.6797;1.2029;
808.2000;0.6813;1.2005;
808.5000;0.6789;1.1909;
808.8000;0.6797;1.1909;
809.1000;0.6813;1.1981;
809.4000;0.6821;1.1981;
809.7000;0.6789;1.1909;
810.0000;0.6805;1.1981;
810.3000;0.6789;1.1909;
810.6000;0.6813;1.1909;
810.9000;0.6764;1.1837;
811.2000;0.6781;1.1909;
811.5000;0.6781;1.1933;
811.8000;0.6805;1.1861;
812.1000;0.6838;1.1933;
812.4000;0.6764;1.1837;
812.7000;0.6772;1.1837;
813.0000;0.6764;1.1766;
813.3000;0.6772;1.1766;
813.6000;0.6805;1.1885;
813.9000;0.6764;1.1814;
814.2000;0.6724;1.1646;
814.5000;0.6797;1.1837;
814.8000;0.6756;1.1766;
815.1000;0.6772;1.1814;
815.4000;0.6789;1.1909;
815.7000;0.6764;1.1933;
816.0000;0.6748;1.1957;
816.3000;0.6764;1.1909;
816.6000;0.6764;1.1837;
816.9000;0.6756;1.1814;
817.2000;0.6772;1.1861;
817.5000;0.6772;1.1861;
817.8000;0.6789;1.1909;
818.1000;0.6781;1.1933;
818.4000;0.6748;1.1885;
818.7000;0.6748;1.1933;
819.0000;0.6740;1.1981;
819.3000;0.6740;1.2029;
819.6000;0.6699;1.2005;
819.9000;0.6691;1.1933;
820.2000;0.6772;1.2101;
820.5000;0.6724;1.1885;
820.8000;0.6756;1.1933;
821.1000;0.6748;1.1957;
821.4000;0.6756;1.1861;
821.7000;0.6805;1.2005;
822.0000;0.6772;1.1981;
822.3000;0.6724;1.1909;
822.6000;0.6748;1.1957;
822.9000;0.6748;1.1981;
823.2000;0.6756;1.1933;
823.5000;0.6740;1.1957;
823.8000;0.6756;1.1981;
824.1000;0.6740;1.1933;
824.4000;0.6740;1.1885;
824.7000;0.6756;1.1790;
825.0000;0.6732;1.1742;
825.3000;0.6764;1.1742;
825.6000;0.6724;1.1718;
825.9000;0.6740;1.1766;
826.2000;0.6748;1.1861;
826.5000;0.6797;1.1957;
826.8000;0.6756;1.1933;
827.1000;0.6740;1.1957;
827.4000;0.6732;1.1909;
827.7000;0.6732;1.1909;
828.0000;0.6716;1.1885;
828.3000;0.6748;1.1957;
828.6000;0.6675;1.1861;
828.9000;0.6716;1.1981;
829.2000;0.6740;1.2005;
829.5000;0.6724;1.1814;
829.8000;0.6732;1.1814;
830.1000;0.6716;1.1837;
830.4000;0.6699;1.1790;
830.7000;0.6716;1.1885;
831.0000;0.6707;1.1837;
831.3000;0.6732;1.1718;
831.6000;0.6797;1.1742;
831.9000;0.6748;1.1574;
832.2000;0.6813;1.1670;
832.5000;0.6716;1.1502;
832.8000;0.6716;1.1526;
833.1000;0.6764;1.1694;
833.4000;0.6732;1.1550;
833.7000;0.6732;1.1430;
834.0000;0.6732;1.1358;
834.3000;0.6707;1.1382;
834.6000;0.6724;1.1382;
834.9000;0.6724;1.1430;
835.2000;0.6699;1.1334;
835.5000;0.6748;1.1574;
835.8000;0.6732;1.1622;
836.1000;0.6667;1.1598;
836.4000;0.6707;1.1766;
836.7000;0.6724;1.1814;
837.0000;0.6724;1.1742;
837.3000;0.6650;1.1670;
837.6000;0.6699;1.1766;
837.9000;0.6691;1.1766;
838.2000;0.6716;1.1861;
838.5000;0.6716;1.1837;
838.8000;0.6699;1.1814;
839.1000;0.6764;1.1933;
839.4000;0.6716;1.1885;
839.7000;0.6740;1.1981;
840.0000;0.6699;1.1933;
840.3000;0.6699;1.1885;
840.6000;0.6699;1.1837;
840.9000;0.6707;1.1885;
841.2000;0.6667;1.1790;
841.5000;0.6683;1.1837;
841.8000;0.6716;1.1933;
842.1000;0.6699;1.1885;
842.4000;0.6707;1.1933;
842.7000;0.6707;1.1981;
843.0000;0.6699;1.1981;
843.3000;0.6707;1.1981;
843.6000;0.6716;1.2053;
843.9000;0.6691;1.2029;
844.2000;0.6691;1.2029;
844.5000;0.6716;1.2029;
844.8000;0.6707;1.2053;
845.1000;0.6716;1.2125;
845.4000;0.6732;1.2221;
845.7000;0.6699;1.2125;
846.0000;0.6683;1.2053;
846.3000;0.6691;1.2029;
846.6000;0.6707;1.2029;
846.9000;0.6716;1.2005;
847.2000;0.6683;1.1957;
847.5000;0.6675;1.1981;
847.8000;0.6675;1.2173;
848.1000;0.6699;1.2245;
848.4000;0.6683;1.2245;
848.7000;0.6683;1.2197;
849.0000;0.6683;1.2173;
849.3000;0.6618;1.2005;
849.6000;0.6691;1.2101;
849.9000;0.6691;1.2053;
850.2000;0.6691;1.2077;
850.5000;0.6642;1.1957;
850.8000;0.6683;1.1981;
851.1000;0.6691;1.2005;
851.4000;0.6732;1.2101;
851.7000;0.6683;1.1981;
852.0000;0.6699;1.2101;
852.3000;0.6699;1.2101;
852.6000;0.6691;1.2101;
852.9000;0.6691;1.2125;
853.2000;0.6683;1.2029;
853.5000;0.6650;1.1885;
853.8000;0.6699;1.1957;
854.1000;0.6683;1.1933;
854.4000;0.6683;1.1837;
854.7000;0.6634;1.1646;
855.0000;0.6699;1.1766;
855.3000;0.6659;1.1718;
855.6000;0.6691;1.1790;
855.9000;0.6691;1.1814;
856.2000;0.6691;1.1861;
856.5000;0.6659;1.1766;
856.8000;0.6691;1.1790;
857.1000;0.6691;1.1909;
857.4000;0.6691;1.1909;
857.7000;0.6585;1.1646;
858.0000;0.6642;1.1837;
858.3000;0.6626;1.1933;
858.6000;0.6659;1.1981;
858.9000;0.6667;1.1933;
859.2000;0.6764;1.2221;
859.5000;0.6659;1.1885;
859.8000;0.6659;1.1909;
860.1000;0.6659;1.1861;
860.4000;0.6659;1.1885;
860.7000;0.6659;1.1957;
861.0000;0.6675;1.1981;
861.3000;0.6691;1.2005;
861.6000;0.6675;1.1909;
861.9000;0.6659;1.1814;
862.2000;0.6659;1.1837;
862.5000;0.6667;1.1885;
862.8000;0.6667;1.1933;
863.1000;0.6667;1.2005;
863.4000;0.6667;1.2029;
863.7000;0.6593;1.1814;
864.0000;0.6667;1.2053;
864.3000;0.6675;1.1981;
864.6000;0.6675;1.2053;
864.9000;0.6707;1.2125;
865.2000;0.6659;1.1909;
865.5000;0.6675;1.1957;
865.8000;0.6659;1.1909;
866.1000;0.6683;1.1933;
866.4000;0.6675;1.2005;
866.7000;0.6659;1.1933;
867.0000;0.6659;1.1933;
867.3000;0.6707;1.2101;
867.6000;0.6675;1.2029;
867.9000;0.6659;1.1981;
868.2000;0.6716;1.2125;
868.5000;0.6659;1.2077;
868.8000;0.6683;1.2125;
869.1000;0.6667;1.2173;
869.4000;0.6634;1.2125;
869.7000;0.6642;1.2101;
870.0000;0.6659;1.2221;
870.3000;0.6667;1.2245;
870.6000;0.6667;1.2389;
870.9000;0.6650;1.2365;
871.2000;0.6675;1.2341;
871.5000;0.6683;1.2293;
871.8000;0.6659;1.2149;
872.1000;0.6650;1.2173;
872.4000;0.6707;1.2149;
872.7000;0.6691;1.2173;
873.0000;0.6659;1.2125;
873.3000;0.6634;1.2005;
873.6000;0.6691;1.2101;
873.9000;0.6650;1.2029;
874.2000;0.6659;1.2029;
874.5000;0.6642;1.2053;
874.8000;0.6659;1.2149;
875.1000;0.6659;1.2197;
875.4000;0.6675;1.2197;
875.7000;0.6667;1.2173;
876.0000;0.6634;1.2077;
876.3000;0.6585;1.1981;
876.6000;0.6650;1.2053;
876.9000;0.6634;1.1933;
877.2000;0.6650;1.2077;
877.5000;0.6593;1.2005;
877.8000;0.6626;1.2149;
878.1000;0.6650;1.2173;
878.4000;0.6699;1.2365;
878.7000;0.6602;1.2125;
879.0000;0.6683;1.2365;
879.3000;0.6650;1.2245;
879.6000;0.6659;1.2221;
879.9000;0.6650;1.2221;
880.2000;0.6650;1.2245;
880.5000;0.6650;1.2221;
880.8000;0.6642;1.2269;
881.1000;0.6642;1.2341;
881.4000;0.6650;1.2365;
881.7000;0.6659;1.2413;
882.0000;0.6650;1.2365;
882.3000;0.6626;1.2293;
882.6000;0.6650;1.2293;
882.9000;0.6642;1.2365;
883.2000;0.6634;1.2293;
883.5000;0.6642;1.2365;
883.8000;0.6650;1.2413;
884.1000;0.6642;1.2389;
884.4000;0.6642;1.2365;
884.7000;0.6610;1.2245;
885.0000;0.6659;1.2293;
885.3000;0.6585;1.2053;
885.6000;0.6618;1.2197;
885.9000;0.6650;1.2269;
886.2000;0.6642;1.2293;
886.5000;0.6634;1.2197;
886.8000;0.6634;1.2173;
887.1000;0.6659;1.2173;
887.4000;0.6626;1.2053;
887.7000;0.6634;1.2077;
888.0000;0.6577;1.1981;
888.3000;0.6634;1.2173;
888.6000;0.6618;1.2173;
888.9000;0.6602;1.2029;
889.2000;0.6699;1.2269;
889.5000;0.6634;1.2149;
889.8000;0.6626;1.2101;
890.1000;0.6724;1.2413;
890.4000;0.6626;1.2029;
890.7000;0.6634;1.1981;
891.0000;0.6634;1.1933;
891.3000;0.6545;1.1790;
891.6000;0.6634;1.2149;
891.9000;0.6634;1.2149;
892.2000;0.6520;1.1814;
892.5000;0.6626;1.2053;
892.8000;0.6618;1.2077;
893.1000;0.6626;1.2029;
893.4000;0.6642;1.2125;
893.7000;0.6602;1.2125;
894.0000;0.6618;1.2221;
894.3000;0.6626;1.2293;
894.6000;0.6618;1.2197;
894.9000;0.6610;1.2125;
895.2000;0.6618;1.2173;
895.5000;0.6626;1.2221;
895.8000;0.6618;1.2173;
896.1000;0.6626;1.2173;
896.4000;0.6626;1.2197;
896.7000;0.6618;1.2221;
897.0000;0.6610;1.2173;
897.3000;0.6593;1.2149;
897.6000;0.6626;1.2221;
897.9000;0.6626;1.2173;
898.2000;0.6618;1.2077;
898.5000;0.6553;1.1933;
898.8000;0.6593;1.1957;
899.1000;0.6602;1.2053;
899.4000;0.6602;1.2077;
899.7000;0.6610;1.2125;
900.0000;0.6610;1.2125;
900.3000;0.6602;1.2149;
900.6000;0.6699;1.2413;
900.9000;0.6618;1.2269;
901.2000;0.6593;1.2269;
901.5000;0.6716;1.2532;
901.8000;0.6602;1.2317;
902.1000;0.6593;1.2365;
902.4000;0.6610;1.2341;
902.7000;0.6593;1.2317;
903.0000;0.6585;1.2365;
903.3000;0.6618;1.2365;
903.6000;0.6602;1.2197;
903.9000;0.6610;1.2053;
904.2000;0.6642;1.2125;
904.5000;0.6634;1.2221;
904.8000;0.6585;1.2149;
905.1000;0.6577;1.2101;
905.4000;0.6634;1.2293;
905.7000;0.6593;1.2269;
906.0000;0.6618;1.2269;
906.3000;0.6618;1.2293;
906.6000;0.6536;1.2101;
906.9000;0.6577;1.2245;
907.2000;0.6593;1.2221;
907.5000;0.6618;1.2197;
907.8000;0.6593;1.2053;
908.1000;0.6610;1.2197;
908.4000;0.6512;1.1981;
908.7000;0.6602;1.2221;
909.0000;0.6585;1.2221;
909.3000;0.6569;1.2221;
909.6000;0.6577;1.2341;
909.9000;0.6553;1.2269;
910.2000;0.6593;1.2341;
910.5000;0.6593;1.2293;
910.8000;0.6602;1.2341;
911.1000;0.6650;1.2413;
911.4000;0.6593;1.2341;
911.7000;0.6602;1.2556;
912.0000;0.6585;1.2532;
912.3000;0.6577;1.2437;
912.6000;0.6610;1.2365;
912.9000;0.6610;1.2341;
913.2000;0.6610;1.2317;
913.5000;0.6707;1.2556;
913.8000;0.6553;1.2197;
914.1000;0.6634;1.2437;
914.4000;0.6593;1.2389;
914.7000;0.6618;1.2461;
915.0000;0.6585;1.2341;
915.3000;0.6569;1.2197;
915.6000;0.6610;1.2293;
915.9000;0.6634;1.2341;
916.2000;0.6593;1.2173;
916.5000;0.6585;1.2221;
916.8000;0.6610;1.2269;
917.1000;0.6602;1.2173;
917.4000;0.6593;1.2173;
917.7000;0.6585;1.2269;
918.0000;0.6593;1.2317;
918.3000;0.6602;1.2317;
918.6000;0.6561;1.2245;
918.9000;0.6577;1.2293;
919.2000;0.6577;1.2341;
919.5000;0.6569;1.2293;
919.8000;0.6504;1.2125;
920.1000;0.6585;1.2317;
920.4000;0.6626;1.2317;
920.7000;0.6593;1.2173;
921.0000;0.6577;1.2125;
921.3000;0.6585;1.2173;
921.6000;0.6602;1.2221;
921.9000;0.6553;1.2101;
922.2000;0.6593;1.2149;
922.5000;0.6585;1.2149;
922.8000;0.6577;1.2101;
923.1000;0.6577;1.2173;
923.4000;0.6553;1.2149;
923.7000;0.6602;1.2149;
924.0000;0.6569;1.2125;
924.3000;0.6707;1.2556;
924.6000;0.6585;1.2317;
924.9000;0.6610;1.2317;
925.2000;0.6618;1.2365;
925.5000;0.6569;1.2269;
925.8000;0.6577;1.2317;
926.1000;0.6553;1.2413;
926.4000;0.6585;1.2580;
926.7000;0.6585;1.2628;
927.0000;0.6577;1.2461;
927.3000;0.6577;1.2437;
927.6000;0.6610;1.2556;
927.9000;0.6545;1.2413;
928.2000;0.6512;1.2317;
928.5000;0.6528;1.2317;
928.8000;0.6577;1.2413;
929.1000;0.6577;1.2437;
929.4000;0.6569;1.2389;
929.7000;0.6569;1.2389;
930.0000;0.6593;1.2437;
930.3000;0.6577;1.2365;
930.6000;0.6585;1.2461;
930.9000;0.6602;1.2437;
931.2000;0.6577;1.2341;
931.5000;0.6545;1.2221;
931.8000;0.6610;1.2317;
932.1000;0.6569;1.2269;
932.4000;0.6593;1.2293;
932.7000;0.6610;1.2317;
933.0000;0.6577;1.2149;
933.3000;0.6618;1.2317;
933.6000;0.6569;1.2197;
933.9000;0.6561;1.2245;
934.2000;0.6577;1.2317;
934.5000;0.6553;1.2317;
934.8000;0.6545;1.2317;
935.1000;0.6577;1.2341;
935.4000;0.6577;1.2413;
935.7000;0.6577;1.2413;
936.0000;0.6545;1.2317;
936.3000;0.6545;1.2269;
936.6000;0.6471;1.2173;
936.9000;0.6577;1.2413;
937.2000;0.6593;1.2389;
937.5000;0.6577;1.2389;
937.8000;0.6536;1.2317;
938.1000;0.6561;1.2484;
938.4000;0.6553;1.2413;
938.7000;0.6553;1.2461;
939.0000;0.6577;1.2437;
939.3000;0.6577;1.2413;
939.6000;0.6561;1.2437;
939.9000;0.6569;1.2437;
940.2000;0.6561;1.2437;
940.5000;0.6602;1.2293;
940.8000;0.6561;1.2293;
941.1000;0.6561;1.2269;
941.4000;0.6577;1.2317;
941.7000;0.6569;1.2269;
942.0000;0.6577;1.2173;
942.3000;0.6536;1.2077;
942.6000;0.6569;1.2077;
942.9000;0.6545;1.1885;
943.2000;0.6569;1.1957;
943.5000;0.6545;1.2053;
943.8000;0.6610;1.2245;
944.1000;0.6545;1.2149;
944.4000;0.6577;1.2197;
944.7000;0.6512;1.2101;
945.0000;0.6553;1.2245;
945.3000;0.6585;1.2317;
945.6000;0.6545;1.2221;
945.9000;0.6577;1.2437;
946.2000;0.6602;1.2532;
946.5000;0.6577;1.2389;
946.8000;0.6561;1.2317;
947.1000;0.6577;1.2413;
947.4000;0.6520;1.2389;
947.7000;0.6496;1.2245;
948.0000;0.6569;1.2317;
948.3000;0.6553;1.2365;
948.6000;0.6545;1.2341;
948.9000;0.6561;1.2317;
949.2000;0.6585;1.2508;
949.5000;0.6545;1.2365;
949.8000;0.6553;1.2293;
950.1000;0.6553;1.2293;
950.4000;0.6561;1.2365;
950.7000;0.6545;1.2341;
951.0000;0.6528;1.2269;
951.3000;0.6536;1.2293;
951.6000;0.6553;1.2365;
951.9000;0.6553;1.2317;
952.2000;0.6561;1.2293;
952.5000;0.6561;1.2269;
952.8000;0.6561;1.2413;
953.1000;0.6561;1.2461;
953.4000;0.6528;1.2437;
953.7000;0.6536;1.2437;
954.0000;0.6520;1.2413;
954.3000;0.6496;1.2293;
954.6000;0.6528;1.2317;
954.9000;0.6520;1.2293;
955.2000;0.6545;1.2413;
955.5000;0.6504;1.2317;
955.8000;0.6545;1.2437;
956.1000;0.6528;1.2341;
956.4000;0.6536;1.2413;
956.7000;0.6528;1.2365;
957.0000;0.6528;1.2413;
957.3000;0.6520;1.2341;
957.6000;0.6528;1.2317;
957.9000;0.6536;1.2413;
958.2000;0.6520;1.2293;
958.5000;0.6536;1.2293;
958.8000;0.6536;1.2317;
959.1000;0.6528;1.2293;
959.4000;0.6536;1.2221;
959.7000;0.6561;1.2173;
960.0000;0.6512;1.2149;
960.3000;0.6545;1.2173;
960.6000;0.6545;1.2245;
960.9000;0.6479;1.2125;
961.2000;0.6536;1.2317;
961.5000;0.6528;1.2245;
961.8000;0.6553;1.2221;
962.1000;0.6528;1.2197;
962.4000;0.6504;1.2173;
962.7000;0.6545;1.2269;
963.0000;0.6536;1.2365;
963.3000;0.6675;1.2652;
963.6000;0.6528;1.2317;
963.9000;0.6536;1.2317;
964.2000;0.6528;1.2221;
964.5000;0.6520;1.2197;
964.8000;0.6577;1.2245;
965.1000;0.6553;1.2221;
965.4000;0.6488;1.2053;
965.7000;0.6561;1.2317;
966.0000;0.6528;1.2269;
966.3000;0.6545;1.2365;
966.6000;0.6545;1.2269;
966.9000;0.6528;1.2245;
967.2000;0.6536;1.2269;
967.5000;0.6545;1.2269;
967.8000;0.6528;1.2293;
968.1000;0.6553;1.2317;
968.4000;0.6561;1.2269;
968.7000;0.6479;1.2053;
969.0000;0.6520;1.2173;
969.3000;0.6528;1.2245;
969.6000;0.6536;1.2269;
969.9000;0.6520;1.2245;
970.2000;0.6520;1.2077;
970.5000;0.6520;1.2173;
970.8000;0.6528;1.2269;
971.1000;0.6512;1.2269;
971.4000;0.6504;1.2245;
971.7000;0.6536;1.2437;
972.0000;0.6545;1.2461;
972.3000;0.6545;1.2365;
972.6000;0.6545;1.2197;
972.9000;0.6528;1.2125;
973.2000;0.6512;1.2173;
973.5000;0.6536;1.2149;
973.8000;0.6528;1.2149;
974.1000;0.6536;1.2125;
974.4000;0.6536;1.2197;
974.7000;0.6520;1.2269;
975.0000;0.6496;1.2245;
975.3000;0.6520;1.2317;
975.6000;0.6528;1.2437;
975.9000;0.6520;1.2341;
976.2000;0.6553;1.2437;
976.5000;0.6520;1.2389;
976.8000;0.6553;1.2484;
977.1000;0.6528;1.2389;
977.4000;0.6520;1.2413;
977.7000;0.6528;1.2484;
978.0000;0.6528;1.2437;
978.3000;0.6520;1.2365;
978.6000;0.6520;1.2389;
978.9000;0.6520;1.2365;
979.2000;0.6512;1.2413;
979.5000;0.6512;1.2365;
979.8000;0.6536;1.2461;
980.1000;0.6504;1.2341;
980.4000;0.6512;1.2293;
980.7000;0.6512;1.2317;
981.0000;0.6520;1.2389;
981.3000;0.6528;1.2413;
981.6000;0.6512;1.2461;
981.9000;0.6528;1.2413;
982.2000;0.6496;1.2245;
982.5000;0.6536;1.2341;
982.8000;0.6553;1.2365;
983.1000;0.6520;1.2365;
983.4000;0.6463;1.2197;
983.7000;0.6520;1.2341;
984.0000;0.6520;1.2365;
984.3000;0.6536;1.2413;
984.6000;0.6520;1.2389;
984.9000;0.6536;1.2341;
985.2000;0.6520;1.2269;
985.5000;0.6488;1.2125;
985.8000;0.6512;1.2173;
986.1000;0.6536;1.2173;
986.4000;0.6488;1.2101;
986.7000;0.6536;1.2269;
987.0000;0.6496;1.2173;
987.3000;0.6504;1.2173;
987.6000;0.6520;1.2197;
987.9000;0.6512;1.2125;
988.2000;0.6504;1.2053;
988.5000;0.6488;1.2077;
988.8000;0.6520;1.2173;
989.1000;0.6504;1.2101;
989.4000;0.6471;1.2053;
989.7000;0.6496;1.2149;
990.0000;0.6504;1.2317;
990.3000;0.6520;1.2293;
990.6000;0.6512;1.2245;
990.9000;0.6504;1.2221;
991.2000;0.6520;1.2269;
991.5000;0.6504;1.2293;
991.8000;0.6504;1.2341;
992.1000;0.6520;1.2221;
992.4000;0.6528;1.2221;
992.7000;0.6512;1.2317;
993.0000;0.6520;1.2365;
993.3000;0.6496;1.2317;
993.6000;0.6520;1.2365;
993.9000;0.6512;1.2341;
994.2000;0.6520;1.2341;
994.5000;0.6496;1.2269;
994.8000;0.6577;1.2508;
995.1000;0.6504;1.2437;
995.4000;0.6512;1.2413;
995.7000;0.6504;1.2461;
996.0000;0.6504;1.2508;
996.3000;0.6488;1.2508;
996.6000;0.6463;1.2461;
996.9000;0.6512;1.2484;
997.2000;0.6536;1.2484;
997.5000;0.6561;1.2652;
997.8000;0.6520;1.2484;
998.1000;0.6471;1.2317;
998.4000;0.6520;1.2461;
998.7000;0.6536;1.2484;
999.0000;0.6520;1.2437;
999.3000;0.6504;1.2365;
999.6000;0.6496;1.2413;
999.9000;0.6496;1.2508;
1000.2000;0.6553;1.2676;
1000.5000;0.6504;1.2508;
1000.8000;0.6512;1.2556;
1001.1000;0.6496;1.2484;
1001.4000;0.6512;1.2508;
1001.7000;0.6512;1.2556;
1002.0000;0.6504;1.2437;
1002.3000;0.6488;1.2437;
1002.6000;0.6504;1.2413;
1002.9000;0.6488;1.2461;
1003.2000;0.6528;1.2437;
1003.5000;0.6512;1.2389;
1003.8000;0.6512;1.2389;
1004.1000;0.6488;1.2341;
1004.4000;0.6496;1.2317;
1004.7000;0.6512;1.2317;
1005.0000;0.6520;1.2245;
1005.3000;0.6561;1.2341;
1005.6000;0.6496;1.2173;
1005.9000;0.6496;1.2197;
1006.2000;0.6512;1.2197;
1006.5000;0.6496;1.2173;
1006.8000;0.6471;1.2173;
1007.1000;0.6479;1.2197;
1007.4000;0.6504;1.2293;
1007.7000;0.6479;1.2101;
1008.0000;0.6504;1.2149;
1008.3000;0.6471;1.2053;
1008.6000;0.6488;1.2125;
1008.9000;0.6496;1.2269;
1009.2000;0.6504;1.2269;
1009.5000;0.6488;1.2341;
1009.8000;0.6536;1.2341;
1010.1000;0.6496;1.2365;
1010.4000;0.6488;1.2437;
1010.7000;0.6479;1.2461;
1011.0000;0.6471;1.2293;
1011.3000;0.6488;1.2341;
1011.6000;0.6496;1.2365;
1011.9000;0.6488;1.2341;
1012.2000;0.6488;1.2245;
1012.5000;0.6520;1.2461;
1012.8000;0.6488;1.2341;
1013.1000;0.6569;1.2604;
1013.4000;0.6512;1.2341;
1013.7000;0.6488;1.2317;
1014.0000;0.6504;1.2317;
1014.3000;0.6479;1.2197;
1014.6000;0.6496;1.2341;
1014.9000;0.6455;1.2245;
1015.2000;0.6488;1.2389;
1015.5000;0.6577;1.2700;
1015.8000;0.6471;1.2437;
1016.1000;0.6463;1.2437;
1016.4000;0.6496;1.2437;
1016.7000;0.6545;1.2532;
1017.0000;0.6471;1.2413;
1017.3000;0.6545;1.2580;
1017.6000;0.6504;1.2556;
1017.9000;0.6504;1.2628;
1018.2000;0.6447;1.2532;
1018.5000;0.6439;1.2508;
1018.8000;0.6479;1.2700;
1019.1000;0.6504;1.2724;
1019.4000;0.6504;1.2700;
1019.7000;0.6496;1.2628;
1020.0000;0.6455;1.2437;
1020.3000;0.6512;1.2604;
1020.6000;0.6414;1.2437;
1020.9000;0.6488;1.2532;
1021.2000;0.6488;1.2484;
1021.5000;0.6504;1.2532;
1021.8000;0.6488;1.2437;
1022.1000;0.6488;1.2413;
1022.4000;0.6471;1.2413;
1022.7000;0.6488;1.2508;
1023.0000;0.6496;1.2532;
1023.3000;0.6496;1.2556;
1023.6000;0.6479;1.2532;
1023.9000;0.6496;1.2628;
1024.2000;0.6496;1.2676;
1024.5000;0.6504;1.2652;
1024.8000;0.6463;1.2461;
1025.1000;0.6569;1.2724;
1025.4000;0.6488;1.2413;
1025.7000;0.6479;1.2389;
1026.0000;0.6479;1.2293;
1026.3000;0.6479;1.2341;
1026.6000;0.6488;1.2365;
1026.9000;0.6488;1.2389;
1027.2000;0.6488;1.2341;
1027.5000;0.6471;1.2221;
1027.8000;0.6479;1.2269;
1028.1000;0.6471;1.2293;
1028.4000;0.6479;1.2341;
1028.7000;0.6471;1.2341;
1029.0000;0.6488;1.2365;
1029.3000;0.6488;1.2365;
1029.6000;0.6496;1.2341;
1029.9000;0.6488;1.2293;
1030.2000;0.6496;1.2221;
1030.5000;0.6479;1.2197;
1030.8000;0.6520;1.2293;
1031.1000;0.6496;1.2173;
1031.4000;0.6528;1.2317;
1031.7000;0.6463;1.2293;
1032.0000;0.6488;1.2365;
1032.3000;0.6471;1.2197;
1032.6000;0.6398;1.2077;
1032.9000;0.6496;1.2221;
1033.2000;0.6488;1.2341;
1033.5000;0.6496;1.2365;
1033.8000;0.6463;1.2293;
1034.1000;0.6479;1.2341;
1034.4000;0.6463;1.2317;
1034.7000;0.6504;1.2413;
1035.0000;0.6561;1.2556;
1035.3000;0.6463;1.2413;
1035.6000;0.6479;1.2413;
1035.9000;0.6463;1.2389;
1036.2000;0.6488;1.2556;
1036.5000;0.6496;1.2508;
1036.8000;0.6463;1.2437;
1037.1000;0.6512;1.2461;
1037.4000;0.6463;1.2437;
1037.7000;0.6471;1.2365;
1038.0000;0.6455;1.2341;
1038.3000;0.6488;1.2413;
1038.6000;0.6520;1.2365;
1038.9000;0.6447;1.2029;
1039.2000;0.6479;1.2245;
1039.5000;0.6479;1.2293;
1039.8000;0.6528;1.2437;
1040.1000;0.6463;1.2293;
1040.4000;0.6447;1.2245;
1040.7000;0.6471;1.2269;
1041.0000;0.6488;1.2341;
1041.3000;0.6471;1.2317;
1041.6000;0.6496;1.2389;
1041.9000;0.6471;1.2389;
1042.2000;0.6479;1.2365;
1042.5000;0.6488;1.2365;
1042.8000;0.6471;1.2293;
1043.1000;0.6463;1.2293;
1043.4000;0.6488;1.2269;
1043.7000;0.6504;1.2269;
1044.0000;0.6520;1.2293;
1044.3000;0.6463;1.2317;
1044.6000;0.6479;1.2317;
1044.9000;0.6455;1.2269;
1045.2000;0.6463;1.2317;
1045.5000;0.6447;1.2221;
1045.8000;0.6496;1.2245;
1046.1000;0.6504;1.2269;
1046.4000;0.6488;1.2245;
1046.7000;0.6471;1.2173;
1047.0000;0.6471;1.2101;
1047.3000;0.6479;1.2101;
1047.6000;0.6463;1.2101;
1047.9000;0.6455;1.2029;
1048.2000;0.6488;1.2173;
1048.5000;0.6463;1.2149;
1048.8000;0.6488;1.2197;
1049.1000;0.6463;1.2197;
1049.4000;0.6479;1.2173;
1049.7000;0.6471;1.2125;
1050.0000;0.6504;1.2149;
1050.3000;0.6471;1.2173;
1050.6000;0.6471;1.2197;
1050.9000;0.6488;1.2221;
1051.2000;0.6471;1.2173;
1051.5000;0.6463;1.2077;
1051.8000;0.6463;1.2029;
1052.1000;0.6471;1.2125;
1052.4000;0.6496;1.2173;
1052.7000;0.6488;1.2077;
1053.0000;0.6496;1.2029;
1053.3000;0.6471;1.2125;
1053.6000;0.6471;1.2221;
1053.9000;0.6479;1.2269;
1054.2000;0.6455;1.2173;
1054.5000;0.6463;1.2269;
1054.8000;0.6463;1.2245;
1055.1000;0.6447;1.2245;
1055.4000;0.6463;1.2173;
1055.7000;0.6488;1.2221;
1056.0000;0.6488;1.2221;
1056.3000;0.6479;1.2149;
1056.6000;0.6455;1.2125;
1056.9000;0.6463;1.2101;
1057.2000;0.6520;1.2293;
1057.5000;0.6488;1.2317;
1057.8000;0.6471;1.2269;
1058.1000;0.6455;1.2221;
1058.4000;0.6479;1.2293;
1058.7000;0.6471;1.2365;
1059.0000;0.6512;1.2389;
1059.3000;0.6463;1.2317;
1059.6000;0.6439;1.2317;
1059.9000;0.6431;1.2365;
1060.2000;0.6488;1.2484;
1060.5000;0.6463;1.2461;
1060.8000;0.6439;1.2341;
1061.1000;0.6471;1.2365;
1061.4000;0.6471;1.2341;
1061.7000;0.6455;1.2341;
1062.0000;0.6504;1.2341;
1062.3000;0.6455;1.2173;
1062.6000;0.6406;1.1981;
1062.9000;0.6463;1.2173;
1063.2000;0.6455;1.2269;
1063.5000;0.6561;1.2532;
1063.8000;0.6504;1.2293;
1064.1000;0.6463;1.2197;
1064.4000;0.6455;1.2125;
1064.7000;0.6447;1.2173;
1065.0000;0.6455;1.2293;
1065.3000;0.6447;1.2173;
1065.6000;0.6439;1.2173;
1065.9000;0.6439;1.2149;
1066.2000;0.6471;1.2293;
1066.5000;0.6447;1.2173;
1066.8000;0.6512;1.2317;
1067.1000;0.6439;1.2173;
1067.4000;0.6479;1.2293;
1067.7000;0.6471;1.2173;
1068.0000;0.6447;1.2077;
1068.3000;0.6512;1.2173;
1068.6000;0.6463;1.2149;
1068.9000;0.6447;1.2029;
1069.2000;0.6471;1.2077;
1069.5000;0.6447;1.2101;
1069.8000;0.6414;1.2005;
1070.1000;0.6463;1.2149;
1070.4000;0.6455;1.2101;
1070.7000;0.6455;1.2149;
1071.0000;0.6439;1.2125;
1071.3000;0.6455;1.2125;
1071.6000;0.6455;1.2101;
1071.9000;0.6463;1.2101;
1072.2000;0.6447;1.2101;
1072.5000;0.6439;1.2197;
1072.8000;0.6463;1.2149;
1073.1000;0.6471;1.2101;
1073.4000;0.6431;1.2029;
1073.7000;0.6471;1.2149;
1074.0000;0.6504;1.2197;
1074.3000;0.6463;1.2101;
1074.6000;0.6471;1.2173;
1074.9000;0.6471;1.2197;
1075.2000;0.6504;1.2293;
1075.5000;0.6528;1.2317;
1075.8000;0.6488;1.2317;
1076.1000;0.6479;1.2365;
1076.4000;0.6463;1.2341;
1076.7000;0.6463;1.2269;
1077.0000;0.6471;1.2245;
1077.3000;0.6463;1.2293;
1077.6000;0.6455;1.2317;
1077.9000;0.6398;1.2149;
1078.2000;0.6471;1.2317;
1078.5000;0.6447;1.2245;
1078.8000;0.6455;1.2221;
1079.1000;0.6455;1.2269;
1079.4000;0.6317;1.1957;
1079.7000;0.6439;1.2269;
1080.0000;0.6455;1.2245;
1080.3000;0.6431;1.2173;
1080.6000;0.6463;1.2197;
1080.9000;0.6488;1.2293;
1081.2000;0.6447;1.2293;
1081.5000;0.6471;1.2317;
1081.8000;0.6471;1.2245;
1082.1000;0.6471;1.2245;
1082.4000;0.6488;1.2245;
1082.7000;0.6488;1.2269;
1083.0000;0.6439;1.2221;
1083.3000;0.6455;1.2365;
1083.6000;0.6439;1.2389;
1083.9000;0.6447;1.2293;
1084.2000;0.6463;1.2365;
1084.5000;0.6439;1.2389;
1084.8000;0.6455;1.2365;
1085.1000;0.6471;1.2365;
1085.4000;0.6463;1.2293;
1085.7000;0.6471;1.2389;
1086.0000;0.6479;1.2365;
1086.3000;0.6447;1.2293;
1086.6000;0.6447;1.2341;
1086.9000;0.6447;1.2389;
1087.2000;0.6431;1.2413;
1087.5000;0.6455;1.2508;
1087.8000;0.6447;1.2461;
1088.1000;0.6463;1.2532;
1088.4000;0.6455;1.2461;
1088.7000;0.6447;1.2461;
1089.0000;0.6431;1.2413;
1089.3000;0.6471;1.2461;
1089.6000;0.6447;1.2389;
1089.9000;0.6447;1.2269;
1090.2000;0.6406;1.2125;
1090.5000;0.6463;1.2317;
1090.8000;0.6422;1.2197;
1091.1000;0.6455;1.2245;
1091.4000;0.6439;1.2293;
1091.7000;0.6439;1.2317;
1092.0000;0.6463;1.2341;
1092.3000;0.6422;1.2149;
1092.6000;0.6447;1.2149;
1092.9000;0.6447;1.2197;
1093.2000;0.6455;1.2245;
1093.5000;0.6398;1.2197;
1093.8000;0.6447;1.2317;
1094.1000;0.6431;1.2317;
1094.4000;0.6447;1.2269;
1094.7000;0.6447;1.2197;
1095.0000;0.6447;1.2269;
1095.3000;0.6365;1.2173;
1095.6000;0.6447;1.2389;
1095.9000;0.6455;1.2317;
1096.2000;0.6455;1.2437;
1096.5000;0.6431;1.2317;
1096.8000;0.6406;1.2101;
1097.1000;0.6455;1.2221;
1097.4000;0.6463;1.2269;
1097.7000;0.6455;1.2293;
1098.0000;0.6431;1.2293;
1098.3000;0.6439;1.2245;
1098.6000;0.6414;1.2053;
1098.9000;0.6455;1.2149;
1099.2000;0.6431;1.2197;
1099.5000;0.6422;1.2149;
1099.8000;0.6463;1.2221;
1100.1000;0.6455;1.2245;
1100.4000;0.6447;1.2293;
1100.7000;0.6471;1.2365;
1101.0000;0.6447;1.2365;
1101.3000;0.6439;1.2389;
1101.6000;0.6398;1.2221;
1101.9000;0.6447;1.2341;
1102.2000;0.6471;1.2365;
1102.5000;0.6439;1.2221;
1102.8000;0.6471;1.2317;
1103.1000;0.6455;1.2245;
1103.4000;0.6439;1.2197;
1103.7000;0.6479;1.2293;
1104.0000;0.6496;1.2293;
1104.3000;0.6455;1.2317;
1104.6000;0.6455;1.2341;
1104.9000;0.6390;1.2197;
1105.2000;0.6447;1.2269;
1105.5000;0.6439;1.2221;
1105.8000;0.6398;1.2077;
1106.1000;0.6439;1.2149;
1106.4000;0.6455;1.2221;
1106.7000;0.6431;1.2197;
1107.0000;0.6439;1.2197;
1107.3000;0.6439;1.2173;
1107.6000;0.6398;1.2101;
1107.9000;0.6414;1.2053;
1108.2000;0.6447;1.2149;
1108.5000;0.6471;1.2221;
1108.8000;0.6414;1.2077;
1109.1000;0.6512;1.2269;
1109.4000;0.6439;1.2077;
1109.7000;0.6447;1.2101;
1110.0000;0.6447;1.2125;
1110.3000;0.6439;1.2101;
1110.6000;0.6357;1.1909;
1110.9000;0.6422;1.2173;
1111.2000;0.6463;1.2341;
1111.5000;0.6439;1.2389;
1111.8000;0.6455;1.2508;
1112.1000;0.6422;1.2437;
1112.4000;0.6414;1.2437;
1112.7000;0.6431;1.2461;
1113.0000;0.6422;1.2508;
1113.3000;0.6439;1.2532;
1113.6000;0.6414;1.2365;
1113.9000;0.6439;1.2293;
1114.2000;0.6447;1.2317;
1114.5000;0.6439;1.2293;
1114.8000;0.6439;1.2341;
1115.1000;0.6431;1.2269;
1115.4000;0.6455;1.2413;
1115.7000;0.6431;1.2389;
1116.0000;0.6439;1.2461;
1116.3000;0.6447;1.2508;
1116.6000;0.6431;1.2413;
1116.9000;0.6439;1.2341;
1117.2000;0.6447;1.2365;
1117.5000;0.6447;1.2437;
1117.8000;0.6455;1.2437;
1118.1000;0.6447;1.2413;
1118.4000;0.6414;1.2341;
1118.7000;0.6431;1.2508;
1119.0000;0.6439;1.2484;
1119.3000;0.6414;1.2461;
1119.6000;0.6447;1.2508;
1119.9000;0.6455;1.2437;
1120.2000;0.6439;1.2389;
1120.5000;0.6431;1.2365;
1120.8000;0.6431;1.2317;
1121.1000;0.6463;1.2484;
1121.4000;0.6431;1.2341;
1121.7000;0.6471;1.2437;
1122.0000;0.6406;1.2245;
1122.3000;0.6422;1.2365;
1122.6000;0.6431;1.2389;
1122.9000;0.6439;1.2413;
1123.2000;0.6431;1.2437;
1123.5000;0.6463;1.2461;
1123.8000;0.6463;1.2532;
1124.1000;0.6406;1.2413;
1124.4000;0.6422;1.2413;
1124.7000;0.6439;1.2413;
1125.0000;0.6431;1.2508;
1125.3000;0.6447;1.2556;
1125.6000;0.6447;1.2437;
1125.9000;0.6422;1.2413;
1126.2000;0.6422;1.2341;
1126.5000;0.6422;1.2389;
1126.8000;0.6349;1.2269;
1127.1000;0.6431;1.2437;
1127.4000;0.6390;1.2245;
1127.7000;0.6422;1.2341;
1128.0000;0.6414;1.2389;
1128.3000;0.6406;1.2389;
1128.6000;0.6414;1.2437;
1128.9000;0.6414;1.2484;
1129.2000;0.6414;1.2556;
1129.5000;0.6431;1.2628;
1129.8000;0.6431;1.2604;
1130.1000;0.6439;1.2484;
1130.4000;0.6422;1.2437;
1130.7000;0.6431;1.2413;
1131.0000;0.6414;1.2341;
1131.3000;0.6471;1.2461;
1131.6000;0.6431;1.2437;
1131.9000;0.6414;1.2389;
1132.2000;0.6422;1.2365;
1132.5000;0.6431;1.2389;
1132.8000;0.6398;1.2269;
1133.1000;0.6471;1.2461;
1133.4000;0.6414;1.2389;
1133.7000;0.6390;1.2317;
1134.0000;0.6431;1.2532;
1134.3000;0.6431;1.2652;
1134.6000;0.6431;1.2604;
1134.9000;0.6447;1.2628;
1135.2000;0.6455;1.2556;
1135.5000;0.6431;1.2508;
1135.8000;0.6439;1.2580;
1136.1000;0.6414;1.2532;
1136.4000;0.6447;1.2628;
1136.7000;0.6471;1.2700;
1137.0000;0.6431;1.2508;
1137.3000;0.6447;1.2484;
1137.6000;0.6447;1.2389;
1137.9000;0.6422;1.2365;
1138.2000;0.6431;1.2461;
1138.5000;0.6447;1.2508;
1138.8000;0.6414;1.2461;
1139.1000;0.6422;1.2461;
1139.4000;0.6431;1.2437;
1139.7000;0.6455;1.2389;
1140.0000;0.6439;1.2341;
1140.3000;0.6496;1.2532;
1140.6000;0.6439;1.2413;
1140.9000;0.6431;1.2365;
1141.2000;0.6406;1.2317;
1141.5000;0.6439;1.2389;
1141.8000;0.6431;1.2389;
1142.1000;0.6406;1.2317;
1142.4000;0.6406;1.2269;
1142.7000;0.6414;1.2149;
1143.0000;0.6422;1.2197;
1143.3000;0.6422;1.2173;
1143.6000;0.6406;1.2173;
1143.9000;0.6439;1.2293;
1144.2000;0.6414;1.2197;
1144.5000;0.6422;1.2197;
1144.8000;0.6431;1.2221;
1145.1000;0.6382;1.2149;
1145.4000;0.6439;1.2365;
1145.7000;0.6422;1.2389;
1146.0000;0.6447;1.2437;
1146.3000;0.6439;1.2341;
1146.6000;0.6422;1.2293;
1146.9000;0.6463;1.2293;
1147.2000;0.6431;1.2221;
1147.5000;0.6431;1.2125;
1147.8000;0.6439;1.2221;
1148.1000;0.6439;1.2221;
1148.4000;0.6471;1.2293;
1148.7000;0.6398;1.2173;
1149.0000;0.6414;1.2221;
1149.3000;0.6439;1.2317;
1149.6000;0.6422;1.2293;
1149.9000;0.6406;1.2221;
1150.2000;0.6422;1.2173;
1150.5000;0.6447;1.2149;
1150.8000;0.6422;1.2125;
1151.1000;0.6431;1.2365;
1151.4000;0.6414;1.2389;
1151.7000;0.6439;1.2437;
1152.0000;0.6439;1.2508;
1152.3000;0.6447;1.2484;
1152.6000;0.6422;1.2437;
1152.9000;0.6422;1.2461;
1153.2000;0.6398;1.2341;
1153.5000;0.6439;1.2341;
1153.8000;0.6398;1.2293;
1154.1000;0.6406;1.2293;
1154.4000;0.6374;1.2149;
1154.7000;0.6422;1.2341;
1155.0000;0.6325;1.2173;
1155.3000;0.6455;1.2484;
1155.6000;0.6422;1.2365;
1155.9000;0.6431;1.2317;
1156.2000;0.6406;1.2197;
1156.5000;0.6455;1.2341;
1156.8000;0.6422;1.2293;
1157.1000;0.6422;1.2317;
1157.4000;0.6390;1.2269;
1157.7000;0.6422;1.2413;
1158.0000;0.6447;1.2461;
1158.3000;0.6504;1.2580;
1158.6000;0.6431;1.2365;
1158.9000;0.6431;1.2389;
1159.2000;0.6431;1.2437;
1159.5000;0.6447;1.2461;
1159.8000;0.6422;1.2341;
1160.1000;0.6414;1.2389;
1160.4000;0.6431;1.2461;
1160.7000;0.6431;1.2437;
1161.0000;0.6422;1.2484;
1161.3000;0.6431;1.2532;
1161.6000;0.6414;1.2532;
1161.9000;0.6422;1.2461;
1162.2000;0.6447;1.2580;
1162.5000;0.6422;1.2532;
1162.8000;0.6414;1.2484;
1163.1000;0.6398;1.2461;
1163.4000;0.6414;1.2532;
1163.7000;0.6414;1.2461;
1164.0000;0.6382;1.2413;
1164.3000;0.6382;1.2341;
1164.6000;0.6439;1.2461;
1164.9000;0.6414;1.2389;
1165.2000;0.6414;1.2437;
1165.5000;0.6414;1.2484;
1165.8000;0.6406;1.2556;
1166.1000;0.6431;1.2580;
1166.4000;0.6414;1.2461;
1166.7000;0.6414;1.2413;
1167.0000;0.6406;1.2365;
1167.3000;0.6414;1.2365;
1167.6000;0.6414;1.2389;
1167.9000;0.6439;1.2461;
1168.2000;0.6398;1.2437;
1168.5000;0.6414;1.2461;
1168.8000;0.6414;1.2461;
1169.1000;0.6414;1.2341;
1169.4000;0.6406;1.2413;
1169.7000;0.6422;1.2365;
1170.0000;0.6422;1.2413;
1170.3000;0.6439;1.2461;
1170.6000;0.6414;1.2365;
1170.9000;0.6382;1.2317;
1171.2000;0.6455;1.2508;
1171.5000;0.6431;1.2437;
1171.8000;0.6406;1.2365;
1172.1000;0.6422;1.2293;
1172.4000;0.6431;1.2293;
1172.7000;0.6431;1.2269;
1173.0000;0.6422;1.2245;
1173.3000;0.6431;1.2317;
1173.6000;0.6447;1.2341;
1173.9000;0.6512;1.2508;
1174.2000;0.6422;1.2365;
1174.5000;0.6431;1.2341;
1174.8000;0.6504;1.2532;
1175.1000;0.6431;1.2341;
1175.4000;0.6414;1.2389;
1175.7000;0.6422;1.2437;
1176.0000;0.6439;1.2508;
1176.3000;0.6398;1.2532;
1176.6000;0.6414;1.2628;
1176.9000;0.6406;1.2556;
1177.2000;0.6398;1.2508;
1177.5000;0.6406;1.2508;
1177.8000;0.6390;1.2508;
1178.1000;0.6422;1.2604;
1178.4000;0.6398;1.2437;
1178.7000;0.6406;1.2461;
1179.0000;0.6463;1.2556;
1179.3000;0.6406;1.2532;
1179.6000;0.6406;1.2508;
1179.9000;0.6349;1.2365;
1180.2000;0.6398;1.2484;
1180.5000;0.6398;1.2389;
1180.8000;0.6414;1.2437;
1181.1000;0.6365;1.2245;
1181.4000;0.6431;1.2484;
1181.7000;0.6422;1.2484;
1182.0000;0.6414;1.2437;
1182.3000;0.6406;1.2413;
1182.6000;0.6382;1.2293;
1182.9000;0.6414;1.2245;
1183.2000;0.6414;1.2317;
1183.5000;0.6463;1.2508;
1183.8000;0.6414;1.2437;
1184.1000;0.6398;1.2389;
1184.4000;0.6414;1.2484;
1184.7000;0.6422;1.2461;
1185.0000;0.6414;1.2461;
1185.3000;0.6439;1.2580;
1185.6000;0.6390;1.2628;
1185.9000;0.6414;1.2700;
1186.2000;0.6309;1.2365;
1186.5000;0.6431;1.2628;
1186.8000;0.6406;1.2508;
1187.1000;0.6357;1.2245;
1187.4000;0.6414;1.2365;
1187.7000;0.6414;1.2317;
1188.0000;0.6414;1.2245;
1188.3000;0.6390;1.2125;
1188.6000;0.6398;1.2197;
1188.9000;0.6406;1.2269;
1189.2000;0.6357;1.2149;
1189.5000;0.6414;1.2293;
1189.8000;0.6398;1.2269;
1190.1000;0.6422;1.2341;
1190.4000;0.6374;1.2221;
1190.7000;0.6398;1.2293;
1191.0000;0.6390;1.2413;
1191.3000;0.6414;1.2461;
1191.6000;0.6398;1.2317;
1191.9000;0.6390;1.2269;
1192.2000;0.6414;1.2341;
1192.5000;0.6414;1.2365;
1192.8000;0.6349;1.2197;
1193.1000;0.6455;1.2413;
1193.4000;0.6390;1.2221;
1193.7000;0.6398;1.2245;
1194.0000;0.6398;1.2365;
1194.3000;0.6455;1.2508;
1194.6000;0.6406;1.2461;
1194.9000;0.6406;1.2508;
1195.2000;0.6431;1.2532;
1195.5000;0.6455;1.2628;
1195.8000;0.6406;1.2413;
1196.1000;0.6390;1.2341;
1196.4000;0.6398;1.2293;
1196.7000;0.6406;1.2293;
1197.0000;0.6406;1.2341;
1197.3000;0.6406;1.2413;
1197.6000;0.6414;1.2413;
1197.9000;0.6471;1.2580;
1198.2000;0.6431;1.2508;
1198.5000;0.6406;1.2389;
1198.8000;0.6406;1.2317;
1199.1000;0.6414;1.2341;
1199.4000;0.6390;1.2389;
1199.7000;0.6398;1.2413;
1200.0000;0.6390;1.2365;
1200.3000;0.6406;1.2365;
1200.6000;0.6406;1.2317;
1200.9000;0.6406;1.2197;
1201.2000;0.6422;1.2245;
1201.5000;0.6422;1.2269;
1201.8000;0.6422;1.2269;
1202.1000;0.6390;1.2245;
1202.4000;0.6422;1.2317;
1202.7000;0.6414;1.2413;
1203.0000;0.6439;1.2389;
1203.3000;0.6390;1.2245;
1203.6000;0.6406;1.2125;
1203.9000;0.6422;1.2077;
1204.2000;0.6422;1.2221;
1204.5000;0.6390;1.2269;
1204.8000;0.6374;1.2317;
1205.1000;0.6414;1.2317;
1205.4000;0.6390;1.2221;
1205.7000;0.6406;1.2341;
1206.0000;0.6382;1.2317;
1206.3000;0.6422;1.2389;
1206.6000;0.6406;1.2341;
1206.9000;0.6422;1.2437;
1207.2000;0.6406;1.2413;
1207.5000;0.6447;1.2484;
1207.8000;0.6504;1.2604;
1208.1000;0.6447;1.2341;
1208.4000;0.6390;1.2173;
1208.7000;0.6431;1.2125;
1209.0000;0.6422;1.2125;
1209.3000;0.6422;1.2173;
1209.6000;0.6398;1.2221;
1209.9000;0.6382;1.2197;
1210.2000;0.6414;1.2293;
1210.5000;0.6406;1.2293;
1210.8000;0.6398;1.2197;
1211.1000;0.6374;1.2149;
1211.4000;0.6398;1.2221;
1211.7000;0.6390;1.2173;
1212.0000;0.6390;1.2101;
1212.3000;0.6504;1.2365;
1212.6000;0.6398;1.2101;
1212.9000;0.6414;1.2173;
1213.2000;0.6390;1.2125;
1213.5000;0.6390;1.2269;
1213.8000;0.6382;1.2341;
1214.1000;0.6406;1.2389;
1214.4000;0.6406;1.2437;
1214.7000;0.6398;1.2389;
1215.0000;0.6406;1.2389;
1215.3000;0.6382;1.2365;
1215.6000;0.6439;1.2532;
1215.9000;0.6431;1.2532;
1216.2000;0.6398;1.2556;
1216.5000;0.6406;1.2508;
1216.8000;0.6309;1.2269;
1217.1000;0.6398;1.2461;
1217.4000;0.6390;1.2484;
1217.7000;0.6374;1.2413;
1218.0000;0.6414;1.2532;
1218.3000;0.6414;1.2413;
1218.6000;0.6414;1.2437;
1218.9000;0.6374;1.2437;
1219.2000;0.6414;1.2556;
1219.5000;0.6406;1.2532;
1219.8000;0.6431;1.2652;
1220.1000;0.6447;1.2748;
1220.4000;0.6406;1.2580;
1220.7000;0.6422;1.2508;
1221.0000;0.6390;1.2461;
1221.3000;0.6398;1.2580;
1221.6000;0.6357;1.2508;
1221.9000;0.6414;1.2652;
1222.2000;0.6390;1.2676;
1222.5000;0.6382;1.2628;
1222.8000;0.6390;1.2676;
1223.1000;0.6390;1.2676;
1223.4000;0.6390;1.2676;
1223.7000;0.6374;1.2580;
1224.0000;0.6382;1.2484;
1224.3000;0.6365;1.2461;
1224.6000;0.6406;1.2484;
1224.9000;0.6382;1.2413;
1225.2000;0.6382;1.2437;
1225.5000;0.6406;1.2461;
1225.8000;0.6382;1.2532;
1226.1000;0.6382;1.2461;
1226.4000;0.6390;1.2365;
1226.7000;0.6390;1.2269;
1227.0000;0.6390;1.2221;
1227.3000;0.6398;1.2125;
1227.6000;0.6374;1.2029;
1227.9000;0.6365;1.2005;
1228.2000;0.6374;1.2053;
1228.5000;0.6390;1.2149;
1228.8000;0.6374;1.2173;
1229.1000;0.6398;1.2245;
1229.4000;0.6357;1.2149;
1229.7000;0.6382;1.2317;
1230.0000;0.6496;1.2676;
1230.3000;0.6382;1.2532;
1230.6000;0.6390;1.2532;
1230.9000;0.6414;1.2628;
1231.2000;0.6406;1.2508;
1231.5000;0.6398;1.2437;
1231.8000;0.6398;1.2437;
1232.1000;0.6496;1.2700;
1232.4000;0.6406;1.2580;
1232.7000;0.6406;1.2556;
1233.0000;0.6390;1.2484;
1233.3000;0.6382;1.2413;
1233.6000;0.6447;1.2461;
1233.9000;0.6390;1.2317;
1234.2000;0.6398;1.2245;
1234.5000;0.6390;1.2269;
1234.8000;0.6390;1.2293;
1235.1000;0.6455;1.2556;
1235.4000;0.6398;1.2341;
1235.7000;0.6374;1.2245;
1236.0000;0.6390;1.2197;
1236.3000;0.6398;1.2149;
1236.6000;0.6374;1.2029;
1236.9000;0.6398;1.2077;
1237.2000;0.6390;1.2053;
1237.5000;0.6398;1.2053;
1237.8000;0.6398;1.2269;
1238.1000;0.6406;1.2317;
1238.4000;0.6341;1.2197;
1238.7000;0.6406;1.2317;
1239.0000;0.6406;1.2413;
1239.3000;0.6406;1.2484;
1239.6000;0.6447;1.2628;
1239.9000;0.6422;1.2437;
1240.2000;0.6414;1.2484;
1240.5000;0.6382;1.2437;
1240.8000;0.6382;1.2437;
1241.1000;0.6382;1.2389;
1241.4000;0.6382;1.2389;
1241.7000;0.6390;1.2508;
1242.0000;0.6398;1.2532;
1242.3000;0.6414;1.2461;
1242.6000;0.6382;1.2341;
1242.9000;0.6406;1.2341;
1243.2000;0.6406;1.2389;
1243.5000;0.6422;1.2437;
1243.8000;0.6357;1.2365;
1244.1000;0.6471;1.2628;
1244.4000;0.6414;1.2269;
1244.7000;0.6398;1.2317;
1245.0000;0.6390;1.2317;
1245.3000;0.6422;1.2413;
1245.6000;0.6365;1.2245;
1245.9000;0.6398;1.2389;
1246.2000;0.6382;1.2269;
1246.5000;0.6390;1.2293;
1246.8000;0.6382;1.2293;
1247.1000;0.6390;1.2269;
1247.4000;0.6414;1.2317;
1247.7000;0.6390;1.2365;
1248.0000;0.6398;1.2293;
1248.3000;0.6455;1.2580;
1248.6000;0.6390;1.2437;
1248.9000;0.6455;1.2532;
1249.2000;0.6382;1.2389;
1249.5000;0.6365;1.2365;
1249.8000;0.6439;1.2508;
1250.1000;0.6349;1.2269;
1250.4000;0.6422;1.2437;
1250.7000;0.6365;1.2173;
1251.0000;0.6406;1.2269;
1251.3000;0.6414;1.2245;
1251.6000;0.6406;1.2317;
1251.9000;0.6349;1.2245;
1252.2000;0.6382;1.2293;
1252.5000;0.6398;1.2341;
1252.8000;0.6398;1.2365;
1253.1000;0.6382;1.2365;
1253.4000;0.6365;1.2437;
1253.7000;0.6390;1.2461;
1254.0000;0.6325;1.2197;
1254.3000;0.6341;1.2221;
1254.6000;0.6382;1.2317;
1254.9000;0.6398;1.2341;
1255.2000;0.6414;1.2341;
1255.5000;0.6390;1.2269;
1255.8000;0.6414;1.2389;
1256.1000;0.6406;1.2341;
1256.4000;0.6414;1.2293;
1256.7000;0.6390;1.2221;
1257.0000;0.6406;1.2269;
1257.3000;0.6398;1.2269;
1257.6000;0.6390;1.2269;
1257.9000;0.6414;1.2341;
1258.2000;0.6471;1.2604;
1258.5000;0.6398;1.2484;
1258.8000;0.6390;1.2508;
1259.1000;0.6382;1.2484;
1259.4000;0.6390;1.2461;
1259.7000;0.6390;1.2413;
1260.0000;0.6382;1.2508;
1260.3000;0.6390;1.2389;
1260.6000;0.6374;1.2269;
1260.9000;0.6365;1.2293;
1261.2000;0.6365;1.2269;
1261.5000;0.6455;1.2461;
1261.8000;0.6374;1.2221;
1262.1000;0.6390;1.2173;
1262.4000;0.6374;1.2173;
1262.7000;0.6398;1.2245;
1263.0000;0.6390;1.2197;
1263.3000;0.6414;1.2293;
1263.6000;0.6390;1.2437;
1263.9000;0.6382;1.2437;
1264.2000;0.6382;1.2461;
1264.5000;0.6325;1.2245;
1264.8000;0.6382;1.2365;
1265.1000;0.6398;1.2413;
1265.4000;0.6365;1.2293;
1265.7000;0.6398;1.2293;
1266.0000;0.6300;1.2125;
1266.3000;0.6406;1.2365;
1266.6000;0.6382;1.2365;
1266.9000;0.6349;1.2365;
1267.2000;0.6349;1.2389;
1267.5000;0.6390;1.2437;
1267.8000;0.6398;1.2484;
1268.1000;0.6398;1.2437;
1268.4000;0.6398;1.2413;
1268.7000;0.6398;1.2508;
1269.0000;0.6406;1.2580;
1269.3000;0.6382;1.2461;
1269.6000;0.6374;1.2461;
1269.9000;0.6365;1.2437;
1270.2000;0.6414;1.2628;
1270.5000;0.6365;1.2532;
1270.8000;0.6390;1.2580;
1271.1000;0.6374;1.2556;
1271.4000;0.6406;1.2604;
1271.7000;0.6374;1.2508;
1272.0000;0.6390;1.2484;
1272.3000;0.6398;1.2532;
1272.6000;0.6390;1.2461;
1272.9000;0.6349;1.2413;
1273.2000;0.6398;1.2461;
1273.5000;0.6341;1.2317;
1273.8000;0.6382;1.2484;
1274.1000;0.6422;1.2652;
1274.4000;0.6365;1.2532;
1274.7000;0.6398;1.2556;
1275.0000;0.6374;1.2556;
1275.3000;0.6365;1.2508;
1275.6000;0.6398;1.2604;
1275.9000;0.6382;1.2532;
1276.2000;0.6382;1.2484;
1276.5000;0.6382;1.2461;
1276.8000;0.6333;1.2293;
1277.1000;0.6382;1.2461;
1277.4000;0.6382;1.2389;
1277.7000;0.6374;1.2413;
1278.0000;0.6390;1.2437;
1278.3000;0.6382;1.2437;
1278.6000;0.6365;1.2532;
1278.9000;0.6365;1.2484;
1279.2000;0.6357;1.2461;
1279.5000;0.6398;1.2580;
1279.8000;0.6365;1.2556;
1280.1000;0.6333;1.2532;
1280.4000;0.6382;1.2676;
1280.7000;0.6382;1.2700;
1281.0000;0.6398;1.2772;
1281.3000;0.6357;1.2652;
1281.6000;0.6390;1.2604;
1281.9000;0.6398;1.2556;
1282.2000;0.6382;1.2532;
1282.5000;0.6374;1.2628;
1282.8000;0.6382;1.2652;
1283.1000;0.6374;1.2604;
1283.4000;0.6382;1.2580;
1283.7000;0.6390;1.2580;
1284.0000;0.6382;1.2508;
1284.3000;0.6365;1.2508;
1284.6000;0.6382;1.2556;
1284.9000;0.6365;1.2556;
1285.2000;0.6341;1.2461;
1285.5000;0.6390;1.2628;
1285.8000;0.6398;1.2532;
1286.1000;0.6382;1.2413;
1286.4000;0.6333;1.2269;
1286.7000;0.6365;1.2341;
1287.0000;0.6357;1.2269;
1287.3000;0.6325;1.2245;
1287.6000;0.6479;1.2652;
1287.9000;0.6422;1.2484;
1288.2000;0.6390;1.2365;
1288.5000;0.6382;1.2389;
1288.8000;0.6390;1.2341;
1289.1000;0.6390;1.2365;
1289.4000;0.6349;1.2269;
1289.7000;0.6374;1.2365;
1290.0000;0.6390;1.2484;
1290.3000;0.6398;1.2556;
1290.6000;0.6349;1.2413;
1290.9000;0.6374;1.2461;
1291.2000;0.6414;1.2508;
1291.5000;0.6382;1.2580;
1291.8000;0.6382;1.2628;
1292.1000;0.6390;1.2508;
1292.4000;0.6398;1.2484;
1292.7000;0.6374;1.2461;
1293.0000;0.6406;1.2580;
1293.3000;0.6390;1.2556;
1293.6000;0.6406;1.2676;
1293.9000;0.6382;1.2532;
1294.2000;0.6382;1.2508;
1294.5000;0.6374;1.2532;
1294.8000;0.6382;1.2556;
1295.1000;0.6365;1.2484;
1295.4000;0.6374;1.2484;
1295.7000;0.6390;1.2508;
1296.0000;0.6398;1.2508;
1296.3000;0.6374;1.2461;
1296.6000;0.6374;1.2532;
1296.9000;0.6365;1.2580;
1297.2000;0.6317;1.2461;
1297.5000;0.6374;1.2532;
1297.8000;0.6374;1.2484;
1298.1000;0.6374;1.2413;
1298.4000;0.6382;1.2413;
1298.7000;0.6374;1.2317;
1299.0000;0.6422;1.2532;
1299.3000;0.6374;1.2413;
1299.6000;0.6382;1.2365;
1299.9000;0.6365;1.2413;
1300.2000;0.6382;1.2484;
1300.5000;0.6382;1.2532;
1300.8000;0.6439;1.2652;
1301.1000;0.6406;1.2508;
1301.4000;0.6382;1.2413;
1301.7000;0.6365;1.2508;
1302.0000;0.6349;1.2437;
1302.3000;0.6382;1.2484;
1302.6000;0.6374;1.2437;
1302.9000;0.6382;1.2413;
1303.2000;0.6431;1.2580;
1303.5000;0.6398;1.2508;
1303.8000;0.6431;1.2604;
1304.1000;0.6357;1.2317;
1304.4000;0.6382;1.2341;
1304.7000;0.6406;1.2269;
1305.0000;0.6398;1.2269;
1305.3000;0.6398;1.2269;
1305.6000;0.6317;1.2149;
1305.9000;0.6390;1.2365;
1306.2000;0.6365;1.2269;
1306.5000;0.6374;1.2317;
1306.8000;0.6390;1.2437;
1307.1000;0.6357;1.2461;
1307.4000;0.6325;1.2389;
1307.7000;0.6357;1.2461;
1308.0000;0.6382;1.2532;
1308.3000;0.6414;1.2724;
1308.6000;0.6374;1.2604;
1308.9000;0.6357;1.2604;
1309.2000;0.6374;1.2604;
1309.5000;0.6382;1.2628;
1309.8000;0.6365;1.2508;
1310.1000;0.6398;1.2508;
1310.4000;0.6447;1.2676;
1310.7000;0.6374;1.2508;
1311.0000;0.6431;1.2700;
1311.3000;0.6365;1.2484;
1311.6000;0.6374;1.2580;
1311.9000;0.6431;1.2724;
1312.2000;0.6300;1.2437;
1312.5000;0.6398;1.2652;
1312.8000;0.6374;1.2604;
1313.1000;0.6357;1.2580;
1313.4000;0.6374;1.2532;
1313.7000;0.6390;1.2652;
1314.0000;0.6382;1.2652;
1314.3000;0.6382;1.2676;
1314.6000;0.6398;1.2700;
1314.9000;0.6390;1.2652;
1315.2000;0.6374;1.2556;
1315.5000;0.6374;1.2508;
1315.8000;0.6374;1.2532;
1316.1000;0.6357;1.2317;
1316.4000;0.6374;1.2413;
1316.7000;0.6374;1.2437;
1317.0000;0.6382;1.2484;
1317.3000;0.6374;1.2556;
1317.6000;0.6374;1.2628;
1317.9000;0.6365;1.2604;
1318.2000;0.6365;1.2652;
1318.5000;0.6382;1.2652;
1318.8000;0.6374;1.2652;
1319.1000;0.6382;1.2652;
1319.4000;0.6357;1.2556;
1319.7000;0.6341;1.2556;
1320.0000;0.6374;1.2652;
1320.3000;0.6365;1.2676;
1320.6000;0.6357;1.2628;
1320.9000;0.6349;1.2652;
1321.2000;0.6374;1.2700;
1321.5000;0.6374;1.2604;
1321.8000;0.6349;1.2580;
1322.1000;0.6406;1.2676;
1322.4000;0.6357;1.2628;
1322.7000;0.6374;1.2604;
1323.0000;0.6414;1.2580;
1323.3000;0.6374;1.2532;
1323.6000;0.6374;1.2556;
1323.9000;0.6374;1.2580;
1324.2000;0.6349;1.2461;
1324.5000;0.6365;1.2389;
1324.8000;0.6374;1.2365;
1325.1000;0.6390;1.2293;
1325.4000;0.6374;1.2221;
1325.7000;0.6365;1.2269;
1326.0000;0.6341;1.2221;
1326.3000;0.6357;1.2245;
1326.6000;0.6374;1.2365;
1326.9000;0.6365;1.2365;
1327.2000;0.6374;1.2461;
1327.5000;0.6374;1.2341;
1327.8000;0.6365;1.2269;
1328.1000;0.6284;1.2077;
1328.4000;0.6390;1.2293;
1328.7000;0.6374;1.2293;
1329.0000;0.6357;1.2269;
1329.3000;0.6406;1.2365;
1329.6000;0.6382;1.2245;
1329.9000;0.6365;1.2293;
1330.2000;0.6374;1.2341;
1330.5000;0.6374;1.2365;
1330.8000;0.6382;1.2389;
1331.1000;0.6374;1.2365;
1331.4000;0.6374;1.2484;
1331.7000;0.6488;1.2772;
1332.0000;0.6341;1.2484;
1332.3000;0.6357;1.2556;
1332.6000;0.6357;1.2532;
1332.9000;0.6365;1.2508;
1333.2000;0.6349;1.2508;
1333.5000;0.6382;1.2580;
1333.8000;0.6398;1.2484;
1334.1000;0.6390;1.2437;
1334.4000;0.6382;1.2317;
1334.7000;0.6374;1.2245;
1335.0000;0.6374;1.2197;
1335.3000;0.6374;1.2173;
1335.6000;0.6398;1.2101;
1335.9000;0.6374;1.2101;
1336.2000;0.6414;1.2269;
1336.5000;0.6374;1.2149;
1336.8000;0.6349;1.2101;
1337.1000;0.6365;1.2197;
1337.4000;0.6365;1.2293;
1337.7000;0.6284;1.2173;
1338.0000;0.6357;1.2221;
1338.3000;0.6357;1.2149;
1338.6000;0.6504;1.2365;
1338.9000;0.6406;1.2077;
1339.2000;0.6382;1.2173;
1339.5000;0.6357;1.2245;
1339.8000;0.6382;1.2245;
1340.1000;0.6365;1.2245;
1340.4000;0.6365;1.2341;
1340.7000;0.6463;1.2604;
1341.0000;0.6365;1.2461;
1341.3000;0.6382;1.2532;
1341.6000;0.6374;1.2508;
1341.9000;0.6341;1.2461;
1342.2000;0.6357;1.2437;
1342.5000;0.6341;1.2484;
1342.8000;0.6365;1.2484;
1343.1000;0.6349;1.2389;
1343.4000;0.6333;1.2269;
1343.7000;0.6374;1.2317;
1344.0000;0.6357;1.2365;
1344.3000;0.6382;1.2484;
1344.6000;0.6382;1.2508;
1344.9000;0.6365;1.2365;
1345.2000;0.6357;1.2269;
1345.5000;0.6374;1.2317;
1345.8000;0.6349;1.2365;
1346.1000;0.6382;1.2413;
1346.4000;0.6365;1.2413;
1346.7000;0.6309;1.2269;
1347.0000;0.6374;1.2413;
1347.3000;0.6357;1.2293;
1347.6000;0.6349;1.2269;
1347.9000;0.6333;1.2269;
1348.2000;0.6374;1.2413;
1348.5000;0.6390;1.2508;
1348.8000;0.6382;1.2413;
1349.1000;0.6365;1.2365;
1349.4000;0.6382;1.2413;
1349.7000;0.6382;1.2365;
1350.0000;0.6382;1.2293;
1350.3000;0.6414;1.2389;
1350.6000;0.6365;1.2413;
1350.9000;0.6382;1.2389;
1351.2000;0.6422;1.2461;
1351.5000;0.6374;1.2341;
1351.8000;0.6341;1.2317;
1352.1000;0.6357;1.2317;
1352.4000;0.6357;1.2341;
1352.7000;0.6341;1.2293;
1353.0000;0.6365;1.2245;
1353.3000;0.6374;1.2269;
1353.6000;0.6341;1.2149;
1353.9000;0.6374;1.2197;
1354.2000;0.6374;1.2221;
1354.5000;0.6341;1.2221;
1354.8000;0.6414;1.2484;
1355.1000;0.6349;1.2461;
1355.4000;0.6365;1.2413;
1355.7000;0.6341;1.2413;
1356.0000;0.6357;1.2461;
1356.3000;0.6357;1.2413;
1356.6000;0.6317;1.2389;
1356.9000;0.6365;1.2437;
1357.2000;0.6374;1.2461;
1357.5000;0.6349;1.2508;
1357.8000;0.6365;1.2508;
1358.1000;0.6292;1.2365;
1358.4000;0.6365;1.2532;
1358.7000;0.6365;1.2484;
1359.0000;0.6365;1.2484;
1359.3000;0.6341;1.2389;
1359.6000;0.6382;1.2484;
1359.9000;0.6357;1.2461;
1360.2000;0.6349;1.2245;
1360.5000;0.6382;1.2293;
1360.8000;0.6374;1.2269;
1361.1000;0.6365;1.2317;
1361.4000;0.6439;1.2461;
1361.7000;0.6390;1.2437;
1362.0000;0.6365;1.2365;
1362.3000;0.6357;1.2365;
1362.6000;0.6374;1.2508;
1362.9000;0.6349;1.2437;
1363.2000;0.6374;1.2508;
1363.5000;0.6365;1.2652;
1363.8000;0.6349;1.2652;
1364.1000;0.6341;1.2604;
1364.4000;0.6357;1.2724;
1364.7000;0.6357;1.2724;
1365.0000;0.6341;1.2724;
1365.3000;0.6374;1.2772;
1365.6000;0.6357;1.2772;
1365.9000;0.6374;1.2772;
1366.2000;0.6398;1.2868;
1366.5000;0.6365;1.2724;
1366.8000;0.6455;1.2892;
1367.1000;0.6357;1.2580;
1367.4000;0.6374;1.2676;
1367.7000;0.6349;1.2580;
1368.0000;0.6349;1.2604;
1368.3000;0.6382;1.2724;
1368.6000;0.6357;1.2676;
1368.9000;0.6365;1.2724;
1369.2000;0.6382;1.2700;
1369.5000;0.6333;1.2556;
1369.8000;0.6333;1.2532;
1370.1000;0.6349;1.2556;
1370.4000;0.6357;1.2580;
1370.7000;0.6349;1.2556;
1371.0000;0.6349;1.2604;
1371.3000;0.6349;1.2676;
1371.6000;0.6382;1.2724;
1371.9000;0.6333;1.2604;
1372.2000;0.6349;1.2604;
1372.5000;0.6341;1.2604;
1372.8000;0.6349;1.2748;
1373.1000;0.6341;1.2652;
1373.4000;0.6365;1.2580;
1373.7000;0.6349;1.2604;
1374.0000;0.6365;1.2556;
1374.3000;0.6325;1.2532;
1374.6000;0.6365;1.2532;
1374.9000;0.6382;1.2532;
1375.2000;0.6365;1.2413;
1375.5000;0.6365;1.2484;
1375.8000;0.6349;1.2556;
1376.1000;0.6374;1.2652;
1376.4000;0.6357;1.2652;
1376.7000;0.6341;1.2580;
1377.0000;0.6357;1.2628;
1377.3000;0.6374;1.2676;
1377.6000;0.6357;1.2724;
1377.9000;0.6357;1.2820;
1378.2000;0.6341;1.2844;
1378.5000;0.6357;1.2892;
1378.8000;0.6398;1.2820;
1379.1000;0.6325;1.2532;
1379.4000;0.6382;1.2628;
1379.7000;0.6349;1.2484;
1380.0000;0.6357;1.2532;
1380.3000;0.6365;1.2580;
1380.6000;0.6365;1.2652;
1380.9000;0.6374;1.2700;
1381.2000;0.6357;1.2724;
1381.5000;0.6365;1.2676;
1381.8000;0.6365;1.2604;
1382.1000;0.6357;1.2532;
1382.4000;0.6349;1.2508;
1382.7000;0.6325;1.2532;
1383.0000;0.6365;1.2580;
1383.3000;0.6341;1.2532;
1383.6000;0.6357;1.2580;
1383.9000;0.6341;1.2461;
1384.2000;0.6333;1.2413;
1384.5000;0.6357;1.2508;
1384.8000;0.6349;1.2604;
1385.1000;0.6341;1.2700;
1385.4000;0.6374;1.2580;
1385.7000;0.6365;1.2532;
1386.0000;0.6382;1.2556;
1386.3000;0.6374;1.2604;
1386.6000;0.6374;1.2604;
1386.9000;0.6365;1.2556;
1387.2000;0.6374;1.2652;
1387.5000;0.6382;1.2676;
1387.8000;0.6390;1.2652;
1388.1000;0.6382;1.2748;
1388.4000;0.6431;1.2844;
1388.7000;0.6349;1.2748;
1389.0000;0.6374;1.2820;
1389.3000;0.6357;1.2844;
1389.6000;0.6374;1.2868;
1389.9000;0.6341;1.2844;
1390.2000;0.6365;1.2868;
1390.5000;0.6365;1.2748;
1390.8000;0.6374;1.2796;
1391.1000;0.6357;1.2724;
1391.4000;0.6333;1.2724;
1391.7000;0.6365;1.2772;
1392.0000;0.6357;1.2724;
1392.3000;0.6365;1.2676;
1392.6000;0.6341;1.2556;
1392.9000;0.6382;1.2604;
1393.2000;0.6374;1.2556;
1393.5000;0.6341;1.2484;
1393.8000;0.6349;1.2508;
1394.1000;0.6365;1.2604;
1394.4000;0.6357;1.2532;
1394.7000;0.6365;1.2580;
1395.0000;0.6349;1.2628;
1395.3000;0.6365;1.2724;
1395.6000;0.6349;1.2652;
1395.9000;0.6357;1.2604;
1396.2000;0.6374;1.2628;
1396.5000;0.6365;1.2508;
1396.8000;0.6341;1.2437;
1397.1000;0.6309;1.2221;
1397.4000;0.6349;1.2413;
1397.7000;0.6349;1.2341;
1398.0000;0.6349;1.2317;
1398.3000;0.6276;1.2269;
1398.6000;0.6357;1.2580;
1398.9000;0.6341;1.2580;
1399.2000;0.6357;1.2556;
1399.5000;0.6284;1.2508;
1399.8000;0.6365;1.2676;
