time/ms;Fluo/V;P700 deltaI/I x10³;
-199.8000;0.6097;1.3299;
-199.5000;0.6040;1.3179;
-199.2000;0.6081;1.3371;
-198.9000;0.6081;1.3323;
-198.6000;0.6195;1.3635;
-198.3000;0.6081;1.3347;
-198.0000;0.6089;1.3419;
-197.7000;0.6105;1.3467;
-197.4000;0.6072;1.3371;
-197.1000;0.6089;1.3371;
-196.8000;0.6081;1.3323;
-196.5000;0.6072;1.3347;
-196.2000;0.6040;1.3323;
-195.9000;0.6089;1.3419;
-195.6000;0.6056;1.3371;
-195.3000;0.6072;1.3491;
-195.0000;0.6089;1.3515;
-194.7000;0.6064;1.3467;
-194.4000;0.6089;1.3491;
-194.1000;0.6007;1.3275;
-193.8000;0.6081;1.3467;
-193.5000;0.6048;1.3371;
-193.2000;0.6089;1.3443;
-192.9000;0.5958;1.3203;
-192.6000;0.6064;1.3491;
-192.3000;0.6081;1.3563;
-192.0000;0.6048;1.3659;
-191.7000;0.6089;1.3659;
-191.4000;0.5991;1.3299;
-191.1000;0.6064;1.3491;
-190.8000;0.6089;1.3539;
-190.5000;0.6056;1.3539;
-190.2000;0.6081;1.3563;
-189.9000;0.6072;1.3515;
-189.6000;0.6064;1.3419;
-189.3000;0.6089;1.3443;
-189.0000;0.6081;1.3491;
-188.7000;0.6129;1.3635;
-188.4000;0.6056;1.3515;
-188.1000;0.6081;1.3683;
-187.8000;0.6081;1.3635;
-187.5000;0.6081;1.3587;
-187.2000;0.6040;1.3347;
-186.9000;0.6056;1.3443;
-186.6000;0.6081;1.3611;
-186.3000;0.6064;1.3563;
-186.0000;0.6056;1.3467;
-185.7000;0.6064;1.3635;
-185.4000;0.6072;1.3707;
-185.1000;0.6081;1.3707;
-184.8000;0.6032;1.3659;
-184.5000;0.6089;1.3659;
-184.2000;0.6097;1.3659;
-183.9000;0.6089;1.3659;
-183.6000;0.6056;1.3635;
-183.3000;0.6089;1.3683;
-183.0000;0.6081;1.3587;
-182.7000;0.6089;1.3635;
-182.4000;0.6105;1.3659;
-182.1000;0.6089;1.3515;
-181.8000;0.6081;1.3467;
-181.5000;0.6097;1.3467;
-181.2000;0.6072;1.3419;
-180.9000;0.6056;1.3443;
-180.6000;0.6113;1.3563;
-180.3000;0.6089;1.3515;
-180.0000;0.6097;1.3539;
-179.7000;0.6072;1.3491;
-179.4000;0.6089;1.3563;
-179.1000;0.6056;1.3563;
-178.8000;0.6064;1.3635;
-178.5000;0.6081;1.3707;
-178.2000;0.6089;1.3635;
-177.9000;0.6072;1.3539;
-177.6000;0.6129;1.3587;
-177.3000;0.6097;1.3539;
-177.0000;0.6064;1.3467;
-176.7000;0.6089;1.3611;
-176.4000;0.6072;1.3587;
-176.1000;0.6081;1.3707;
-175.8000;0.6081;1.3683;
-175.5000;0.6081;1.3659;
-175.2000;0.6072;1.3563;
-174.9000;0.6040;1.3443;
-174.6000;0.6121;1.3563;
-174.3000;0.6072;1.3467;
-174.0000;0.6097;1.3467;
-173.7000;0.6064;1.3419;
-173.4000;0.6056;1.3419;
-173.1000;0.6048;1.3395;
-172.8000;0.6186;1.3778;
-172.5000;0.6097;1.3659;
-172.2000;0.6072;1.3611;
-171.9000;0.6064;1.3587;
-171.6000;0.6040;1.3563;
-171.3000;0.6081;1.3611;
-171.0000;0.6056;1.3587;
-170.7000;0.6072;1.3491;
-170.4000;0.6081;1.3419;
-170.1000;0.6072;1.3347;
-169.8000;0.6056;1.3323;
-169.5000;0.6097;1.3371;
-169.2000;0.6064;1.3275;
-168.9000;0.6121;1.3347;
-168.6000;0.6040;1.3299;
-168.3000;0.6072;1.3347;
-168.0000;0.6097;1.3419;
-167.7000;0.6072;1.3419;
-167.4000;0.6072;1.3539;
-167.1000;0.6056;1.3491;
-166.8000;0.6081;1.3587;
-166.5000;0.6105;1.3635;
-166.2000;0.6105;1.3683;
-165.9000;0.6056;1.3563;
-165.6000;0.6072;1.3611;
-165.3000;0.6072;1.3515;
-165.0000;0.6064;1.3515;
-164.7000;0.6064;1.3587;
-164.4000;0.6081;1.3659;
-164.1000;0.6081;1.3659;
-163.8000;0.6064;1.3587;
-163.5000;0.6056;1.3587;
-163.2000;0.6064;1.3539;
-162.9000;0.6072;1.3515;
-162.6000;0.6089;1.3611;
-162.3000;0.6072;1.3563;
-162.0000;0.6064;1.3539;
-161.7000;0.6072;1.3587;
-161.4000;0.6081;1.3683;
-161.1000;0.6089;1.3754;
-160.8000;0.6072;1.3707;
-160.5000;0.6072;1.3611;
-160.2000;0.6089;1.3635;
-159.9000;0.6081;1.3707;
-159.6000;0.6081;1.3754;
-159.3000;0.6048;1.3635;
-159.0000;0.6081;1.3659;
-158.7000;0.6072;1.3683;
-158.4000;0.6064;1.3635;
-158.1000;0.6056;1.3563;
-157.8000;0.6056;1.3539;
-157.5000;0.6072;1.3587;
-157.2000;0.6064;1.3515;
-156.9000;0.6056;1.3443;
-156.6000;0.6064;1.3587;
-156.3000;0.6072;1.3587;
-156.0000;0.6081;1.3611;
-155.7000;0.6072;1.3635;
-155.4000;0.6064;1.3635;
-155.1000;0.6081;1.3635;
-154.8000;0.6081;1.3587;
-154.5000;0.6072;1.3635;
-154.2000;0.6056;1.3611;
-153.9000;0.6081;1.3635;
-153.6000;0.6072;1.3563;
-153.3000;0.6081;1.3563;
-153.0000;0.6072;1.3563;
-152.7000;0.6064;1.3563;
-152.4000;0.6081;1.3563;
-152.1000;0.6081;1.3587;
-151.8000;0.6081;1.3635;
-151.5000;0.6072;1.3659;
-151.2000;0.6081;1.3659;
-150.9000;0.6064;1.3659;
-150.6000;0.6072;1.3539;
-150.3000;0.6081;1.3467;
-150.0000;0.6072;1.3395;
-149.7000;0.6072;1.3347;
-149.4000;0.6089;1.3347;
-149.1000;0.6056;1.3323;
-148.8000;0.6064;1.3395;
-148.5000;0.6072;1.3491;
-148.2000;0.6056;1.3539;
-147.9000;0.6056;1.3371;
-147.6000;0.6072;1.3467;
-147.3000;0.6072;1.3539;
-147.0000;0.6064;1.3515;
-146.7000;0.6064;1.3467;
-146.4000;0.6081;1.3491;
-146.1000;0.6089;1.3419;
-145.8000;0.6081;1.3275;
-145.5000;0.6056;1.3251;
-145.2000;0.6064;1.3323;
-144.9000;0.6089;1.3395;
-144.6000;0.6081;1.3371;
-144.3000;0.6072;1.3395;
-144.0000;0.6064;1.3299;
-143.7000;0.6056;1.3323;
-143.4000;0.6089;1.3275;
-143.1000;0.6081;1.3275;
-142.8000;0.6072;1.3251;
-142.5000;0.6072;1.3155;
-142.2000;0.6072;1.3155;
-141.9000;0.6072;1.3084;
-141.6000;0.6081;1.3131;
-141.3000;0.6089;1.3227;
-141.0000;0.6097;1.3155;
-140.7000;0.6089;1.3203;
-140.4000;0.6081;1.3203;
-140.1000;0.6081;1.3251;
-139.8000;0.6032;1.3251;
-139.5000;0.6081;1.3419;
-139.2000;0.6072;1.3491;
-138.9000;0.6129;1.3683;
-138.6000;0.6081;1.3539;
-138.3000;0.6064;1.3563;
-138.0000;0.6064;1.3515;
-137.7000;0.6072;1.3467;
-137.4000;0.6056;1.3371;
-137.1000;0.6072;1.3419;
-136.8000;0.6064;1.3515;
-136.5000;0.6072;1.3539;
-136.2000;0.6081;1.3635;
-135.9000;0.6105;1.3635;
-135.6000;0.6089;1.3563;
-135.3000;0.6089;1.3515;
-135.0000;0.6081;1.3491;
-134.7000;0.6089;1.3419;
-134.4000;0.6089;1.3467;
-134.1000;0.6121;1.3611;
-133.8000;0.6072;1.3611;
-133.5000;0.6072;1.3659;
-133.2000;0.6040;1.3635;
-132.9000;0.6072;1.3707;
-132.6000;0.6048;1.3659;
-132.3000;0.5999;1.3563;
-132.0000;0.6089;1.3731;
-131.7000;0.6097;1.3635;
-131.4000;0.6072;1.3563;
-131.1000;0.6146;1.3731;
-130.8000;0.6097;1.3611;
-130.5000;0.6081;1.3539;
-130.2000;0.6081;1.3611;
-129.9000;0.6048;1.3611;
-129.6000;0.6089;1.3683;
-129.3000;0.6089;1.3707;
-129.0000;0.6064;1.3635;
-128.7000;0.6064;1.3611;
-128.4000;0.6081;1.3659;
-128.1000;0.6089;1.3635;
-127.8000;0.6064;1.3635;
-127.5000;0.6064;1.3587;
-127.2000;0.6129;1.3683;
-126.9000;0.6089;1.3563;
-126.6000;0.6081;1.3611;
-126.3000;0.6048;1.3683;
-126.0000;0.6072;1.3778;
-125.7000;0.6064;1.3778;
-125.4000;0.6097;1.3826;
-125.1000;0.6089;1.3850;
-124.8000;0.6040;1.3683;
-124.5000;0.6015;1.3539;
-124.2000;0.6089;1.3707;
-123.9000;0.6064;1.3587;
-123.6000;0.6007;1.3539;
-123.3000;0.6064;1.3587;
-123.0000;0.6072;1.3563;
-122.7000;0.6064;1.3467;
-122.4000;0.6089;1.3563;
-122.1000;0.6072;1.3491;
-121.8000;0.6064;1.3515;
-121.5000;0.6007;1.3443;
-121.2000;0.6064;1.3635;
-120.9000;0.6081;1.3707;
-120.6000;0.6056;1.3707;
-120.3000;0.6105;1.3754;
-120.0000;0.6048;1.3587;
-119.7000;0.6081;1.3707;
-119.4000;0.6081;1.3659;
-119.1000;0.6056;1.3635;
-118.8000;0.6081;1.3635;
-118.5000;0.6064;1.3611;
-118.2000;0.6072;1.3587;
-117.9000;0.6081;1.3587;
-117.6000;0.6040;1.3515;
-117.3000;0.6072;1.3491;
-117.0000;0.6056;1.3419;
-116.7000;0.6064;1.3563;
-116.4000;0.6072;1.3587;
-116.1000;0.6081;1.3587;
-115.8000;0.6072;1.3515;
-115.5000;0.6072;1.3419;
-115.2000;0.6081;1.3371;
-114.9000;0.6081;1.3443;
-114.6000;0.6089;1.3515;
-114.3000;0.6081;1.3467;
-114.0000;0.6089;1.3515;
-113.7000;0.6081;1.3491;
-113.4000;0.6081;1.3515;
-113.1000;0.6072;1.3467;
-112.8000;0.6072;1.3467;
-112.5000;0.6121;1.3611;
-112.2000;0.6056;1.3443;
-111.9000;0.6072;1.3491;
-111.6000;0.6089;1.3515;
-111.3000;0.6081;1.3443;
-111.0000;0.6105;1.3539;
-110.7000;0.6081;1.3419;
-110.4000;0.6081;1.3443;
-110.1000;0.6081;1.3395;
-109.8000;0.6081;1.3371;
-109.5000;0.6072;1.3347;
-109.2000;0.6056;1.3395;
-108.9000;0.6032;1.3443;
-108.6000;0.6007;1.3467;
-108.3000;0.6056;1.3659;
-108.0000;0.6064;1.3754;
-107.7000;0.6089;1.3802;
-107.4000;0.6064;1.3707;
-107.1000;0.6056;1.3683;
-106.8000;0.6072;1.3778;
-106.5000;0.6081;1.3826;
-106.2000;0.6072;1.3707;
-105.9000;0.6056;1.3707;
-105.6000;0.6064;1.3778;
-105.3000;0.6064;1.3802;
-105.0000;0.6072;1.3802;
-104.7000;0.6072;1.3731;
-104.4000;0.6089;1.3707;
-104.1000;0.6072;1.3635;
-103.8000;0.6081;1.3707;
-103.5000;0.6081;1.3683;
-103.2000;0.6072;1.3683;
-102.9000;0.6072;1.3754;
-102.6000;0.6064;1.3731;
-102.3000;0.6072;1.3754;
-102.0000;0.5999;1.3563;
-101.7000;0.6089;1.3802;
-101.4000;0.6072;1.3731;
-101.1000;0.6064;1.3707;
-100.8000;0.6089;1.3707;
-100.5000;0.6170;1.3970;
-100.2000;0.6072;1.3754;
-99.9000;0.6081;1.3802;
-99.6000;0.6105;1.3874;
-99.3000;0.6105;1.3826;
-99.0000;0.6072;1.3778;
-98.7000;0.6081;1.3778;
-98.4000;0.6056;1.3826;
-98.1000;0.6048;1.3850;
-97.8000;0.6064;1.3850;
-97.5000;0.6105;1.3874;
-97.2000;0.6081;1.3778;
-96.9000;0.6056;1.3683;
-96.6000;0.6089;1.3754;
-96.3000;0.6138;1.3826;
-96.0000;0.6129;1.3802;
-95.7000;0.6105;1.3754;
-95.4000;0.6072;1.3731;
-95.1000;0.6064;1.3802;
-94.8000;0.6064;1.3683;
-94.5000;0.6081;1.3659;
-94.2000;0.6064;1.3659;
-93.9000;0.6081;1.3731;
-93.6000;0.6056;1.3683;
-93.3000;0.6064;1.3874;
-93.0000;0.6064;1.3850;
-92.7000;0.6072;1.3754;
-92.4000;0.6089;1.3802;
-92.1000;0.6072;1.3683;
-91.8000;0.5942;1.3251;
-91.5000;0.6089;1.3683;
-91.2000;0.6064;1.3611;
-90.9000;0.6081;1.3659;
-90.6000;0.6081;1.3611;
-90.3000;0.6081;1.3635;
-90.0000;0.6081;1.3659;
-89.7000;0.6081;1.3778;
-89.4000;0.6081;1.3754;
-89.1000;0.6064;1.3707;
-88.8000;0.6162;1.3922;
-88.5000;0.6072;1.3754;
-88.2000;0.6072;1.3707;
-87.9000;0.6056;1.3731;
-87.6000;0.6105;1.3850;
-87.3000;0.6048;1.3731;
-87.0000;0.6081;1.3731;
-86.7000;0.6081;1.3683;
-86.4000;0.6064;1.3659;
-86.1000;0.6081;1.3683;
-85.8000;0.6024;1.3659;
-85.5000;0.6056;1.3731;
-85.2000;0.6081;1.3826;
-84.9000;0.6007;1.3683;
-84.6000;0.6170;1.4066;
-84.3000;0.6081;1.3850;
-84.0000;0.6072;1.3778;
-83.7000;0.6064;1.3778;
-83.4000;0.6072;1.3778;
-83.1000;0.6015;1.3683;
-82.8000;0.6097;1.3922;
-82.5000;0.6064;1.3850;
-82.2000;0.6072;1.3850;
-81.9000;0.6064;1.3778;
-81.6000;0.6072;1.3754;
-81.3000;0.6064;1.3731;
-81.0000;0.6105;1.3826;
-80.7000;0.6081;1.3826;
-80.4000;0.6097;1.3874;
-80.1000;0.6089;1.3826;
-79.8000;0.6146;1.3994;
-79.5000;0.6072;1.3826;
-79.2000;0.6072;1.3778;
-78.9000;0.6072;1.3802;
-78.6000;0.6113;1.3754;
-78.3000;0.6072;1.3683;
-78.0000;0.6064;1.3707;
-77.7000;0.6072;1.3731;
-77.4000;0.6040;1.3707;
-77.1000;0.6081;1.3802;
-76.8000;0.6056;1.3754;
-76.5000;0.6113;1.3874;
-76.2000;0.6081;1.3802;
-75.9000;0.6072;1.3802;
-75.6000;0.6089;1.3778;
-75.3000;0.5991;1.3659;
-75.0000;0.6056;1.3874;
-74.7000;0.6064;1.3898;
-74.4000;0.6064;1.3850;
-74.1000;0.6048;1.3802;
-73.8000;0.6072;1.3826;
-73.5000;0.6081;1.3754;
-73.2000;0.6064;1.3778;
-72.9000;0.6064;1.3922;
-72.6000;0.6048;1.3898;
-72.3000;0.6064;1.3874;
-72.0000;0.6089;1.3898;
-71.7000;0.6048;1.3802;
-71.4000;0.6072;1.3874;
-71.1000;0.6072;1.3898;
-70.8000;0.6072;1.3850;
-70.5000;0.6048;1.3707;
-70.2000;0.6072;1.3731;
-69.9000;0.6113;1.3898;
-69.6000;0.6081;1.3802;
-69.3000;0.6072;1.3850;
-69.0000;0.6081;1.3778;
-68.7000;0.6081;1.3778;
-68.4000;0.6072;1.3850;
-68.1000;0.6089;1.3826;
-67.8000;0.6056;1.3874;
-67.5000;0.5983;1.3731;
-67.2000;0.6081;1.3874;
-66.9000;0.6081;1.3826;
-66.6000;0.6056;1.3826;
-66.3000;0.6064;1.3826;
-66.0000;0.6097;1.3898;
-65.7000;0.6056;1.3826;
-65.4000;0.6072;1.3874;
-65.1000;0.6072;1.3898;
-64.8000;0.6081;1.3874;
-64.5000;0.6072;1.3898;
-64.2000;0.6089;1.3850;
-63.9000;0.6056;1.3778;
-63.6000;0.6072;1.3778;
-63.3000;0.6048;1.3754;
-63.0000;0.6064;1.3850;
-62.7000;0.6056;1.3874;
-62.4000;0.6040;1.3802;
-62.1000;0.6064;1.3754;
-61.8000;0.6097;1.3826;
-61.5000;0.6081;1.3850;
-61.2000;0.6081;1.3754;
-60.9000;0.6072;1.3898;
-60.6000;0.6146;1.4042;
-60.3000;0.6089;1.3826;
-60.0000;0.6072;1.3778;
-59.7000;0.6072;1.3778;
-59.4000;0.6081;1.3778;
-59.1000;0.6015;1.3587;
-58.8000;0.6081;1.3778;
-58.5000;0.6072;1.3754;
-58.2000;0.6089;1.3802;
-57.9000;0.6089;1.3754;
-57.6000;0.6072;1.3754;
-57.3000;0.6048;1.3611;
-57.0000;0.6072;1.3635;
-56.7000;0.6056;1.3611;
-56.4000;0.6089;1.3635;
-56.1000;0.6121;1.3635;
-55.8000;0.6064;1.3515;
-55.5000;0.6072;1.3611;
-55.2000;0.6081;1.3635;
-54.9000;0.6072;1.3659;
-54.6000;0.6138;1.3731;
-54.3000;0.6081;1.3515;
-54.0000;0.6040;1.3443;
-53.7000;0.6121;1.3683;
-53.4000;0.6064;1.3563;
-53.1000;0.6072;1.3563;
-52.8000;0.6113;1.3659;
-52.5000;0.6072;1.3467;
-52.2000;0.6081;1.3539;
-51.9000;0.6056;1.3611;
-51.6000;0.6097;1.3707;
-51.3000;0.6186;1.3922;
-51.0000;0.6089;1.3587;
-50.7000;0.6072;1.3539;
-50.4000;0.6072;1.3563;
-50.1000;0.6097;1.3659;
-49.8000;0.6056;1.3515;
-49.5000;0.6089;1.3563;
-49.2000;0.6072;1.3563;
-48.9000;0.6064;1.3515;
-48.6000;0.6081;1.3587;
-48.3000;0.6072;1.3659;
-48.0000;0.6089;1.3635;
-47.7000;0.6097;1.3563;
-47.4000;0.6089;1.3611;
-47.1000;0.6072;1.3563;
-46.8000;0.6064;1.3467;
-46.5000;0.6097;1.3659;
-46.2000;0.6178;1.3874;
-45.9000;0.6072;1.3611;
-45.6000;0.6129;1.3826;
-45.3000;0.6089;1.3683;
-45.0000;0.6072;1.3587;
-44.7000;0.6097;1.3635;
-44.4000;0.6121;1.3611;
-44.1000;0.5999;1.3299;
-43.8000;0.6040;1.3419;
-43.5000;0.6138;1.3683;
-43.2000;0.6089;1.3659;
-42.9000;0.6089;1.3563;
-42.6000;0.6064;1.3467;
-42.3000;0.6064;1.3515;
-42.0000;0.6081;1.3587;
-41.7000;0.6072;1.3563;
-41.4000;0.6072;1.3659;
-41.1000;0.6048;1.3683;
-40.8000;0.6064;1.3754;
-40.5000;0.6089;1.3731;
-40.2000;0.6097;1.3683;
-39.9000;0.6064;1.3539;
-39.6000;0.6072;1.3539;
-39.3000;0.6072;1.3587;
-39.0000;0.6081;1.3635;
-38.7000;0.6064;1.3563;
-38.4000;0.6089;1.3563;
-38.1000;0.6072;1.3587;
-37.8000;0.6081;1.3587;
-37.5000;0.6097;1.3635;
-37.2000;0.6121;1.3802;
-36.9000;0.6064;1.3683;
-36.6000;0.6064;1.3659;
-36.3000;0.6089;1.3611;
-36.0000;0.6072;1.3539;
-35.7000;0.6056;1.3515;
-35.4000;0.6081;1.3563;
-35.1000;0.6081;1.3515;
-34.8000;0.6064;1.3539;
-34.5000;0.6081;1.3539;
-34.2000;0.6072;1.3443;
-33.9000;0.6064;1.3491;
-33.6000;0.6089;1.3611;
-33.3000;0.6064;1.3563;
-33.0000;0.6081;1.3611;
-32.7000;0.6064;1.3587;
-32.4000;0.6113;1.3611;
-32.1000;0.6072;1.3587;
-31.8000;0.6064;1.3563;
-31.5000;0.6081;1.3611;
-31.2000;0.6081;1.3587;
-30.9000;0.6081;1.3587;
-30.6000;0.6072;1.3539;
-30.3000;0.6081;1.3539;
-30.0000;0.6064;1.3515;
-29.7000;0.6032;1.3419;
-29.4000;0.6064;1.3635;
-29.1000;0.6064;1.3707;
-28.8000;0.6072;1.3707;
-28.5000;0.5999;1.3467;
-28.2000;0.6072;1.3611;
-27.9000;0.6072;1.3563;
-27.6000;0.6072;1.3587;
-27.3000;0.6064;1.3611;
-27.0000;0.6121;1.3707;
-26.7000;0.6072;1.3707;
-26.4000;0.6064;1.3707;
-26.1000;0.6064;1.3635;
-25.8000;0.6032;1.3635;
-25.5000;0.6097;1.3826;
-25.2000;0.6097;1.3802;
-24.9000;0.6089;1.3731;
-24.6000;0.6040;1.3611;
-24.3000;0.6081;1.3683;
-24.0000;0.6072;1.3659;
-23.7000;0.6072;1.3659;
-23.4000;0.6064;1.3659;
-23.1000;0.6064;1.3659;
-22.8000;0.6064;1.3563;
-22.5000;0.6072;1.3659;
-22.2000;0.6081;1.3611;
-21.9000;0.6056;1.3539;
-21.6000;0.6072;1.3563;
-21.3000;0.6081;1.3611;
-21.0000;0.6081;1.3587;
-20.7000;0.6081;1.3539;
-20.4000;0.6081;1.3587;
-20.1000;0.6081;1.3515;
-19.8000;0.6072;1.3539;
-19.5000;0.6081;1.3515;
-19.2000;0.6072;1.3539;
-18.9000;0.6040;1.3419;
-18.6000;0.6097;1.3443;
-18.3000;0.6064;1.3347;
-18.0000;0.6040;1.3395;
-17.7000;0.6081;1.3443;
-17.4000;0.6081;1.3347;
-17.1000;0.6089;1.3347;
-16.8000;0.6072;1.3467;
-16.5000;0.6056;1.3395;
-16.2000;0.6056;1.3371;
-15.9000;0.6056;1.3371;
-15.6000;0.6048;1.3419;
-15.3000;0.6056;1.3491;
-15.0000;0.6056;1.3563;
-14.7000;0.6089;1.3707;
-14.4000;0.6064;1.3635;
-14.1000;0.6072;1.3659;
-13.8000;0.6064;1.3539;
-13.5000;0.6081;1.3539;
-13.2000;0.6064;1.3539;
-12.9000;0.6040;1.3419;
-12.6000;0.6072;1.3515;
-12.3000;0.6097;1.3659;
-12.0000;0.6064;1.3587;
-11.7000;0.6072;1.3515;
-11.4000;0.6097;1.3539;
-11.1000;0.6121;1.3587;
-10.8000;0.6072;1.3491;
-10.5000;0.6056;1.3563;
-10.2000;0.6056;1.3563;
-9.9000;0.6072;1.3635;
-9.6000;0.6072;1.3731;
-9.3000;0.6064;1.3707;
-9.0000;0.6072;1.3659;
-8.7000;0.6064;1.3611;
-8.4000;0.6056;1.3611;
-8.1000;0.6081;1.3754;
-7.8000;0.6072;1.3754;
-7.5000;0.6081;1.3731;
-7.2000;0.6089;1.3707;
-6.9000;0.6072;1.3707;
-6.6000;0.6081;1.3754;
-6.3000;0.6113;1.3802;
-6.0000;0.6089;1.3683;
-5.7000;0.6089;1.3635;
-5.4000;0.5999;1.3395;
-5.1000;0.6097;1.3635;
-4.8000;0.6064;1.3635;
-4.5000;0.6081;1.3754;
-4.2000;0.6064;1.3754;
-3.9000;0.6056;1.3754;
-3.6000;0.6072;1.3802;
-3.3000;0.6081;1.3731;
-3.0000;0.6064;1.3707;
-2.7000;0.6056;1.3707;
-2.4000;0.6081;1.3731;
-2.1000;0.6072;1.3707;
-1.8000;0.6081;1.3707;
-1.5000;0.6089;1.3683;
-1.2000;0.6048;1.3635;
-0.9000;0.6121;1.3778;
-0.6000;0.6081;1.3563;
-0.3000;0.6081;1.3515;
0.0000;0.6081;1.3515;
0.3000;0.6349;1.3347;
0.6000;0.6911;1.4018;
0.9000;0.7326;1.4617;
1.2000;0.7774;1.5432;
1.5000;0.8042;1.5863;
1.8000;0.8270;1.6366;
2.1000;0.8417;1.6654;
2.4000;0.8555;1.6942;
2.7000;0.8685;1.7229;
3.0000;0.8791;1.7397;
3.3000;0.8824;1.7612;
3.6000;0.8905;1.7708;
3.9000;0.8978;1.7780;
4.2000;0.9076;1.7924;
4.5000;0.9109;1.7996;
4.8000;0.9141;1.8068;
5.1000;0.9198;1.8116;
5.4000;0.9223;1.8092;
5.7000;0.9304;1.8188;
6.0000;0.9320;1.8092;
6.3000;0.9369;1.8140;
6.6000;0.9418;1.8259;
6.9000;0.9442;1.8235;
7.2000;0.9467;1.8212;
7.5000;0.9532;1.8259;
7.8000;0.9532;1.8235;
8.1000;0.9581;1.8283;
8.4000;0.9597;1.8331;
8.7000;0.9654;1.8379;
9.0000;0.9695;1.8427;
9.3000;0.9719;1.8403;
9.6000;0.9760;1.8307;
9.9000;0.9735;1.8092;
10.2000;0.9849;1.8188;
10.5000;0.9866;1.8140;
10.8000;0.9980;1.8259;
11.1000;0.9947;1.8092;
11.4000;0.9980;1.8092;
11.7000;0.9996;1.8068;
12.0000;1.0037;1.8140;
12.3000;1.0134;1.8331;
12.6000;1.0094;1.8116;
12.9000;1.0118;1.8164;
13.2000;1.0110;1.8116;
13.5000;1.0191;1.8427;
13.8000;1.0208;1.8427;
14.1000;1.0322;1.8547;
14.4000;1.0281;1.8259;
14.7000;1.0305;1.8259;
15.0000;1.0362;1.8307;
15.3000;1.0346;1.8307;
15.6000;1.0387;1.8331;
15.9000;1.0427;1.8259;
16.2000;1.0444;1.8259;
16.5000;1.0492;1.8235;
16.8000;1.0501;1.8235;
17.1000;1.0549;1.8331;
17.4000;1.0549;1.8188;
17.7000;1.0582;1.8235;
18.0000;1.0590;1.8283;
18.3000;1.0598;1.8235;
18.6000;1.0631;1.8188;
18.9000;1.0647;1.8235;
19.2000;1.0696;1.8259;
19.5000;1.0663;1.8164;
19.8000;1.0769;1.8307;
20.1000;1.0753;1.8140;
20.4000;1.0761;1.8140;
20.7000;1.0777;1.8164;
21.0000;1.0826;1.8331;
21.3000;1.0826;1.8259;
21.6000;1.0875;1.8331;
21.9000;1.0883;1.8331;
22.2000;1.0899;1.8379;
22.5000;1.0924;1.8355;
22.8000;1.0932;1.8283;
23.1000;1.0956;1.8259;
23.4000;1.0973;1.8259;
23.7000;1.0989;1.8283;
24.0000;1.1005;1.8235;
24.3000;1.1022;1.8092;
24.6000;1.1030;1.8044;
24.9000;1.1070;1.8092;
25.2000;1.1087;1.8116;
25.5000;1.1022;1.7996;
25.8000;1.1062;1.8092;
26.1000;1.1127;1.8188;
26.4000;1.1136;1.8140;
26.7000;1.1144;1.8140;
27.0000;1.1144;1.8140;
27.3000;1.1184;1.8164;
27.6000;1.1176;1.8188;
27.9000;1.1160;1.8164;
28.2000;1.1209;1.8188;
28.5000;1.1193;1.8116;
28.8000;1.1144;1.7996;
29.1000;1.1258;1.8212;
29.4000;1.1249;1.8140;
29.7000;1.1274;1.8164;
30.0000;1.1274;1.8140;
30.3000;1.1282;1.8140;
30.6000;1.1298;1.8116;
30.9000;1.1323;1.8235;
31.2000;1.1331;1.8092;
31.5000;1.1331;1.8092;
31.8000;1.1363;1.8259;
32.1000;1.1347;1.8235;
32.4000;1.1404;1.8355;
32.7000;1.1372;1.8212;
33.0000;1.1323;1.8116;
33.3000;1.1388;1.8235;
33.6000;1.1388;1.8164;
33.9000;1.1380;1.8116;
34.2000;1.1323;1.8020;
34.5000;1.1404;1.8068;
34.8000;1.1429;1.8116;
35.1000;1.1429;1.8164;
35.4000;1.1420;1.8116;
35.7000;1.1437;1.8140;
36.0000;1.1396;1.7996;
36.3000;1.1461;1.8116;
36.6000;1.1461;1.8164;
36.9000;1.1469;1.8068;
37.2000;1.1477;1.8020;
37.5000;1.1477;1.8020;
37.8000;1.1502;1.8020;
38.1000;1.1518;1.8092;
38.4000;1.1502;1.8116;
38.7000;1.1453;1.8020;
39.0000;1.1494;1.8116;
39.3000;1.1518;1.8116;
39.6000;1.1477;1.8020;
39.9000;1.1486;1.7924;
40.2000;1.1551;1.7948;
40.5000;1.1510;1.7804;
40.8000;1.1551;1.7900;
41.1000;1.1575;1.7900;
41.4000;1.1575;1.7900;
41.7000;1.1616;1.7996;
42.0000;1.1665;1.8092;
42.3000;1.1600;1.8020;
42.6000;1.1600;1.8068;
42.9000;1.1665;1.8283;
43.2000;1.1600;1.8068;
43.5000;1.1600;1.8116;
43.8000;1.1608;1.8092;
44.1000;1.1616;1.8116;
44.4000;1.1600;1.8164;
44.7000;1.1600;1.8116;
45.0000;1.1616;1.8068;
45.3000;1.1608;1.8044;
45.6000;1.1616;1.7972;
45.9000;1.1640;1.7972;
46.2000;1.1632;1.7900;
46.5000;1.1665;1.7900;
46.8000;1.1665;1.7876;
47.1000;1.1779;1.8212;
47.4000;1.1648;1.7924;
47.7000;1.1681;1.8068;
48.0000;1.1722;1.8092;
48.3000;1.1656;1.7972;
48.6000;1.1648;1.7996;
48.9000;1.1648;1.7948;
49.2000;1.1656;1.7852;
49.5000;1.1640;1.7780;
49.8000;1.1681;1.7780;
50.1000;1.1608;1.7660;
50.4000;1.1673;1.7852;
50.7000;1.1673;1.7876;
51.0000;1.1681;1.7876;
51.3000;1.1689;1.7924;
51.6000;1.1705;1.7900;
51.9000;1.1705;1.7900;
52.2000;1.1689;1.7828;
52.5000;1.1738;1.7972;
52.8000;1.1722;1.7972;
53.1000;1.1665;1.7876;
53.4000;1.1705;1.8044;
53.7000;1.1713;1.8020;
54.0000;1.1722;1.7924;
54.3000;1.1730;1.7948;
54.6000;1.1722;1.7924;
54.9000;1.1754;1.7900;
55.2000;1.1738;1.7924;
55.5000;1.1762;1.7900;
55.8000;1.1762;1.7876;
56.1000;1.1754;1.7924;
56.4000;1.1762;1.8092;
56.7000;1.1762;1.8044;
57.0000;1.1746;1.7948;
57.3000;1.1762;1.7996;
57.6000;1.1754;1.7924;
57.9000;1.1754;1.7852;
58.2000;1.1779;1.7852;
58.5000;1.1762;1.7852;
58.8000;1.1779;1.7876;
59.1000;1.1787;1.7828;
59.4000;1.1787;1.7780;
59.7000;1.1697;1.7541;
60.0000;1.1779;1.7732;
60.3000;1.1787;1.7804;
60.6000;1.1795;1.7756;
60.9000;1.1787;1.7804;
61.2000;1.1779;1.7804;
61.5000;1.1803;1.7828;
61.8000;1.1779;1.7756;
62.1000;1.1811;1.7900;
62.4000;1.1803;1.7804;
62.7000;1.1795;1.7780;
63.0000;1.1795;1.7876;
63.3000;1.1795;1.7972;
63.6000;1.1844;1.7996;
63.9000;1.1787;1.7828;
64.2000;1.1811;1.7828;
64.5000;1.1787;1.7660;
64.8000;1.1795;1.7708;
65.1000;1.1697;1.7421;
65.4000;1.1827;1.7612;
65.7000;1.1860;1.7708;
66.0000;1.1836;1.7636;
66.3000;1.1827;1.7541;
66.6000;1.1827;1.7636;
66.9000;1.1795;1.7565;
67.2000;1.1819;1.7684;
67.5000;1.1827;1.7780;
67.8000;1.1827;1.7756;
68.1000;1.1868;1.7804;
68.4000;1.1844;1.7828;
68.7000;1.1811;1.7756;
69.0000;1.1852;1.7900;
69.3000;1.1844;1.7852;
69.6000;1.1844;1.7876;
69.9000;1.1811;1.7804;
70.2000;1.1787;1.7756;
70.5000;1.1852;1.7828;
70.8000;1.1868;1.7852;
71.1000;1.1868;1.7780;
71.4000;1.1860;1.7660;
71.7000;1.1844;1.7684;
72.0000;1.1844;1.7660;
72.3000;1.1868;1.7756;
72.6000;1.1827;1.7708;
72.9000;1.1860;1.7756;
73.2000;1.1925;1.7924;
73.5000;1.1852;1.7732;
73.8000;1.1860;1.7708;
74.1000;1.1868;1.7780;
74.4000;1.1941;1.7948;
74.7000;1.1893;1.7900;
75.0000;1.1884;1.7852;
75.3000;1.1868;1.7756;
75.6000;1.1893;1.7804;
75.9000;1.1909;1.7852;
76.2000;1.1852;1.7780;
76.5000;1.1893;1.7876;
76.8000;1.1901;1.7804;
77.1000;1.1876;1.7684;
77.4000;1.1884;1.7684;
77.7000;1.1868;1.7660;
78.0000;1.1876;1.7708;
78.3000;1.1901;1.7732;
78.6000;1.1909;1.7708;
78.9000;1.1901;1.7684;
79.2000;1.1958;1.7900;
79.5000;1.1884;1.7684;
79.8000;1.1893;1.7708;
80.1000;1.1876;1.7660;
80.4000;1.1860;1.7589;
80.7000;1.1909;1.7612;
81.0000;1.1901;1.7589;
81.3000;1.1901;1.7612;
81.6000;1.1893;1.7636;
81.9000;1.1925;1.7660;
82.2000;1.1917;1.7589;
82.5000;1.1876;1.7469;
82.8000;1.1884;1.7589;
83.1000;1.1941;1.7732;
83.4000;1.1901;1.7732;
83.7000;1.1893;1.7852;
84.0000;1.1868;1.7804;
84.3000;1.1909;1.7924;
84.6000;1.1868;1.7780;
84.9000;1.1893;1.7804;
85.2000;1.1901;1.7852;
85.5000;1.1893;1.7828;
85.8000;1.1925;1.7852;
86.1000;1.1868;1.7565;
86.4000;1.1909;1.7589;
86.7000;1.1982;1.7732;
87.0000;1.1909;1.7517;
87.3000;1.1901;1.7445;
87.6000;1.1958;1.7636;
87.9000;1.1925;1.7612;
88.2000;1.1933;1.7660;
88.5000;1.1958;1.7756;
88.8000;1.1933;1.7660;
89.1000;1.1958;1.7660;
89.4000;1.1925;1.7517;
89.7000;1.1909;1.7541;
90.0000;1.1925;1.7589;
90.3000;1.1884;1.7469;
90.6000;1.1925;1.7660;
90.9000;1.1950;1.7589;
91.2000;1.1917;1.7469;
91.5000;1.1925;1.7493;
91.8000;1.1884;1.7445;
92.1000;1.1909;1.7589;
92.4000;1.1925;1.7541;
92.7000;1.1941;1.7517;
93.0000;1.1941;1.7517;
93.3000;1.2007;1.7565;
93.6000;1.1933;1.7445;
93.9000;1.1941;1.7421;
94.2000;1.1933;1.7397;
94.5000;1.1941;1.7469;
94.8000;1.1950;1.7541;
95.1000;1.1925;1.7517;
95.4000;1.1933;1.7493;
95.7000;1.1925;1.7445;
96.0000;1.1925;1.7397;
96.3000;1.1950;1.7445;
96.6000;1.1917;1.7373;
96.9000;1.1950;1.7397;
97.2000;1.1958;1.7373;
97.5000;1.1941;1.7421;
97.8000;1.1941;1.7469;
98.1000;1.1933;1.7397;
98.4000;1.1958;1.7373;
98.7000;1.1950;1.7301;
99.0000;1.1950;1.7325;
99.3000;1.1966;1.7325;
99.6000;1.1925;1.7205;
99.9000;1.1966;1.7301;
100.2000;1.1974;1.7253;
100.5000;1.1933;1.7229;
100.8000;1.1950;1.7181;
101.1000;1.1966;1.7205;
101.4000;1.1974;1.7157;
101.7000;1.1941;1.7037;
102.0000;1.1958;1.7085;
102.3000;1.1925;1.7085;
102.6000;1.1974;1.7157;
102.9000;1.1974;1.7181;
103.2000;1.1982;1.7205;
103.5000;1.1974;1.7277;
103.8000;1.1966;1.7301;
104.1000;1.1966;1.7325;
104.4000;1.1998;1.7445;
104.7000;1.1974;1.7445;
105.0000;1.2007;1.7493;
105.3000;1.1958;1.7397;
105.6000;1.1974;1.7349;
105.9000;1.1966;1.7325;
106.2000;1.1982;1.7349;
106.5000;1.1974;1.7325;
106.8000;1.1966;1.7349;
107.1000;1.1998;1.7469;
107.4000;1.1974;1.7589;
107.7000;1.1974;1.7612;
108.0000;1.1982;1.7589;
108.3000;1.1958;1.7517;
108.6000;1.1958;1.7541;
108.9000;1.1974;1.7589;
109.2000;1.2023;1.7684;
109.5000;1.1958;1.7517;
109.8000;1.1990;1.7589;
110.1000;1.1974;1.7541;
110.4000;1.2007;1.7589;
110.7000;1.1966;1.7636;
111.0000;1.1974;1.7660;
111.3000;1.1990;1.7708;
111.6000;1.1974;1.7612;
111.9000;1.1982;1.7565;
112.2000;1.1990;1.7517;
112.5000;1.2047;1.7684;
112.8000;1.2055;1.7660;
113.1000;1.1982;1.7565;
113.4000;1.1982;1.7565;
113.7000;1.2007;1.7541;
114.0000;1.1982;1.7469;
114.3000;1.1982;1.7469;
114.6000;1.1982;1.7517;
114.9000;1.1990;1.7445;
115.2000;1.1990;1.7397;
115.5000;1.1982;1.7349;
115.8000;1.1982;1.7397;
116.1000;1.1958;1.7373;
116.4000;1.1998;1.7565;
116.7000;1.1990;1.7517;
117.0000;1.1982;1.7469;
117.3000;1.1990;1.7493;
117.6000;1.1998;1.7445;
117.9000;1.2015;1.7469;
118.2000;1.2007;1.7517;
118.5000;1.1998;1.7493;
118.8000;1.1998;1.7445;
119.1000;1.1990;1.7373;
119.4000;1.1990;1.7421;
119.7000;1.2007;1.7517;
120.0000;1.2015;1.7589;
120.3000;1.2007;1.7493;
120.6000;1.2015;1.7517;
120.9000;1.1982;1.7541;
121.2000;1.1974;1.7469;
121.5000;1.2015;1.7636;
121.8000;1.1990;1.7565;
122.1000;1.2007;1.7589;
122.4000;1.2007;1.7541;
122.7000;1.2015;1.7565;
123.0000;1.1990;1.7493;
123.3000;1.2023;1.7541;
123.6000;1.1990;1.7421;
123.9000;1.1998;1.7469;
124.2000;1.1982;1.7349;
124.5000;1.2007;1.7349;
124.8000;1.1998;1.7373;
125.1000;1.2007;1.7397;
125.4000;1.1998;1.7469;
125.7000;1.2023;1.7541;
126.0000;1.1990;1.7493;
126.3000;1.1990;1.7469;
126.6000;1.2023;1.7565;
126.9000;1.2007;1.7493;
127.2000;1.1925;1.7277;
127.5000;1.2023;1.7517;
127.8000;1.1909;1.7277;
128.1000;1.2039;1.7445;
128.4000;1.2023;1.7373;
128.7000;1.2015;1.7349;
129.0000;1.2015;1.7469;
129.3000;1.2015;1.7469;
129.6000;1.1998;1.7397;
129.9000;1.2015;1.7517;
130.2000;1.2023;1.7517;
130.5000;1.2015;1.7445;
130.8000;1.2023;1.7469;
131.1000;1.2015;1.7541;
131.4000;1.2015;1.7565;
131.7000;1.2015;1.7636;
132.0000;1.1990;1.7565;
132.3000;1.2015;1.7541;
132.6000;1.2007;1.7541;
132.9000;1.2039;1.7493;
133.2000;1.1998;1.7373;
133.5000;1.2023;1.7325;
133.8000;1.2023;1.7397;
134.1000;1.2063;1.7517;
134.4000;1.2031;1.7397;
134.7000;1.1990;1.7349;
135.0000;1.2023;1.7373;
135.3000;1.2023;1.7325;
135.6000;1.2104;1.7517;
135.9000;1.2031;1.7277;
136.2000;1.2023;1.7277;
136.5000;1.2023;1.7277;
136.8000;1.2031;1.7301;
137.1000;1.2039;1.7373;
137.4000;1.2023;1.7373;
137.7000;1.2104;1.7589;
138.0000;1.2015;1.7421;
138.3000;1.2031;1.7397;
138.6000;1.2039;1.7445;
138.9000;1.2023;1.7325;
139.2000;1.2015;1.7421;
139.5000;1.2055;1.7517;
139.8000;1.2039;1.7493;
140.1000;1.2031;1.7421;
140.4000;1.2039;1.7421;
140.7000;1.2039;1.7397;
141.0000;1.2023;1.7493;
141.3000;1.2023;1.7445;
141.6000;1.2031;1.7469;
141.9000;1.2031;1.7397;
142.2000;1.2047;1.7397;
142.5000;1.2031;1.7325;
142.8000;1.2039;1.7373;
143.1000;1.2104;1.7565;
143.4000;1.2047;1.7253;
143.7000;1.2047;1.7253;
144.0000;1.2031;1.7277;
144.3000;1.2023;1.7157;
144.6000;1.2039;1.7205;
144.9000;1.2031;1.7229;
145.2000;1.2047;1.7277;
145.5000;1.2031;1.7253;
145.8000;1.2031;1.7205;
146.1000;1.2023;1.7181;
146.4000;1.2023;1.7181;
146.7000;1.2031;1.7277;
147.0000;1.2047;1.7373;
147.3000;1.2015;1.7301;
147.6000;1.2047;1.7421;
147.9000;1.2055;1.7469;
148.2000;1.2055;1.7493;
148.5000;1.2047;1.7493;
148.8000;1.2047;1.7469;
149.1000;1.2039;1.7469;
149.4000;1.2023;1.7469;
149.7000;1.2047;1.7493;
150.0000;1.2039;1.7421;
150.3000;1.1982;1.7349;
150.6000;1.2047;1.7445;
150.9000;1.2039;1.7445;
151.2000;1.2031;1.7445;
151.5000;1.2031;1.7445;
151.8000;1.2015;1.7373;
152.1000;1.2055;1.7373;
152.4000;1.2047;1.7397;
152.7000;1.2039;1.7493;
153.0000;1.2031;1.7469;
153.3000;1.2015;1.7469;
153.6000;1.2047;1.7612;
153.9000;1.2007;1.7565;
154.2000;1.2023;1.7493;
154.5000;1.2039;1.7493;
154.8000;1.2047;1.7397;
155.1000;1.2039;1.7301;
155.4000;1.2039;1.7349;
155.7000;1.2039;1.7277;
156.0000;1.2072;1.7301;
156.3000;1.1982;1.7061;
156.6000;1.2039;1.7253;
156.9000;1.2088;1.7517;
157.2000;1.2072;1.7469;
157.5000;1.2080;1.7421;
157.8000;1.2031;1.7277;
158.1000;1.2055;1.7253;
158.4000;1.2063;1.7253;
158.7000;1.2055;1.7205;
159.0000;1.1933;1.6942;
159.3000;1.2031;1.7205;
159.6000;1.2055;1.7301;
159.9000;1.2055;1.7349;
160.2000;1.2063;1.7445;
160.5000;1.2031;1.7349;
160.8000;1.2063;1.7325;
161.1000;1.2055;1.7301;
161.4000;1.2080;1.7445;
161.7000;1.2039;1.7349;
162.0000;1.2063;1.7277;
162.3000;1.2055;1.7277;
162.6000;1.2063;1.7301;
162.9000;1.2039;1.7277;
163.2000;1.2047;1.7253;
163.5000;1.2063;1.7301;
163.8000;1.2063;1.7277;
164.1000;1.2015;1.7229;
164.4000;1.2055;1.7445;
164.7000;1.2047;1.7469;
165.0000;1.2072;1.7493;
165.3000;1.2047;1.7421;
165.6000;1.2055;1.7373;
165.9000;1.2055;1.7301;
166.2000;1.2039;1.7253;
166.5000;1.2063;1.7325;
166.8000;1.2047;1.7229;
167.1000;1.2072;1.7325;
167.4000;1.2055;1.7373;
167.7000;1.2072;1.7397;
168.0000;1.2055;1.7325;
168.3000;1.2063;1.7325;
168.6000;1.2072;1.7373;
168.9000;1.2063;1.7301;
169.2000;1.2072;1.7325;
169.5000;1.2047;1.7277;
169.8000;1.2047;1.7301;
170.1000;1.2063;1.7349;
170.4000;1.2031;1.7229;
170.7000;1.2047;1.7277;
171.0000;1.2063;1.7205;
171.3000;1.2063;1.7277;
171.6000;1.2120;1.7397;
171.9000;1.2023;1.7301;
172.2000;1.2063;1.7469;
172.5000;1.2039;1.7349;
172.8000;1.2047;1.7349;
173.1000;1.2039;1.7325;
173.4000;1.2007;1.7229;
173.7000;1.2063;1.7397;
174.0000;1.2055;1.7349;
174.3000;1.2055;1.7421;
174.6000;1.2039;1.7445;
174.9000;1.2039;1.7421;
175.2000;1.2080;1.7349;
175.5000;1.2047;1.7277;
175.8000;1.2063;1.7301;
176.1000;1.2063;1.7229;
176.4000;1.2072;1.7277;
176.7000;1.2063;1.7253;
177.0000;1.2063;1.7205;
177.3000;1.2072;1.7157;
177.6000;1.1998;1.7037;
177.9000;1.2039;1.7205;
178.2000;1.2080;1.7277;
178.5000;1.2072;1.7157;
178.8000;1.2063;1.7205;
179.1000;1.2072;1.7325;
179.4000;1.2096;1.7349;
179.7000;1.2063;1.7229;
180.0000;1.2072;1.7253;
180.3000;1.2096;1.7349;
180.6000;1.2129;1.7397;
180.9000;1.2063;1.7157;
181.2000;1.2055;1.7157;
181.5000;1.2088;1.7253;
181.8000;1.2039;1.7157;
182.1000;1.2072;1.7277;
182.4000;1.2137;1.7445;
182.7000;1.2080;1.7253;
183.0000;1.2088;1.7229;
183.3000;1.2055;1.7037;
183.6000;1.2080;1.7085;
183.9000;1.2088;1.7205;
184.2000;1.2104;1.7301;
184.5000;1.2072;1.7085;
184.8000;1.2072;1.7109;
185.1000;1.2072;1.7133;
185.4000;1.2047;1.7013;
185.7000;1.2047;1.6942;
186.0000;1.2080;1.6965;
186.3000;1.2096;1.7013;
186.6000;1.2072;1.7085;
186.9000;1.2072;1.7109;
187.2000;1.2112;1.7157;
187.5000;1.2063;1.6989;
187.8000;1.2072;1.6870;
188.1000;1.2080;1.6822;
188.4000;1.2080;1.6870;
188.7000;1.2072;1.6870;
189.0000;1.2088;1.6918;
189.3000;1.2080;1.6918;
189.6000;1.2088;1.6846;
189.9000;1.2096;1.6870;
190.2000;1.2080;1.6774;
190.5000;1.2112;1.6870;
190.8000;1.2080;1.6870;
191.1000;1.2080;1.6798;
191.4000;1.2072;1.6846;
191.7000;1.2047;1.6894;
192.0000;1.2080;1.7061;
192.3000;1.2072;1.6989;
192.6000;1.2072;1.7085;
192.9000;1.2080;1.7037;
193.2000;1.2088;1.6894;
193.5000;1.2080;1.6822;
193.8000;1.2055;1.6846;
194.1000;1.2072;1.6870;
194.4000;1.2072;1.6846;
194.7000;1.2072;1.6822;
195.0000;1.2080;1.6870;
195.3000;1.2088;1.6965;
195.6000;1.2023;1.6846;
195.9000;1.2072;1.6918;
196.2000;1.2072;1.6894;
196.5000;1.2072;1.6822;
196.8000;1.2072;1.6870;
197.1000;1.2080;1.6965;
197.4000;1.2031;1.6822;
197.7000;1.2096;1.6942;
198.0000;1.2120;1.7061;
198.3000;1.2080;1.6989;
198.6000;1.2055;1.6846;
198.9000;1.2096;1.6942;
199.2000;1.2120;1.6965;
199.5000;1.2088;1.6894;
199.8000;1.2063;1.6870;
200.1000;1.2063;1.6822;
200.4000;1.2088;1.6774;
200.7000;1.2080;1.6774;
201.0000;1.2055;1.6702;
201.3000;1.2063;1.6750;
201.6000;1.2112;1.6894;
201.9000;1.2072;1.6774;
202.2000;1.2063;1.6702;
202.5000;1.2031;1.6654;
202.8000;1.2145;1.6870;
203.1000;1.2104;1.6822;
203.4000;1.2072;1.6726;
203.7000;1.2080;1.6750;
204.0000;1.2096;1.6726;
204.3000;1.2088;1.6678;
204.6000;1.2039;1.6582;
204.9000;1.2104;1.6702;
205.2000;1.2096;1.6726;
205.5000;1.2047;1.6774;
205.8000;1.2055;1.6870;
206.1000;1.2112;1.6965;
206.4000;1.2088;1.6846;
206.7000;1.2096;1.6894;
207.0000;1.2072;1.6798;
207.3000;1.2080;1.6750;
207.6000;1.2063;1.6798;
207.9000;1.2088;1.6822;
208.2000;1.2080;1.6822;
208.5000;1.2129;1.6870;
208.8000;1.2080;1.6798;
209.1000;1.2072;1.6870;
209.4000;1.2063;1.6822;
209.7000;1.2007;1.6726;
210.0000;1.2072;1.6822;
210.3000;1.2088;1.6870;
210.6000;1.2088;1.6822;
210.9000;1.2137;1.6894;
211.2000;1.2080;1.6750;
211.5000;1.2088;1.6726;
211.8000;1.2072;1.6726;
212.1000;1.2080;1.6774;
212.4000;1.2080;1.6846;
212.7000;1.2080;1.6846;
213.0000;1.2088;1.6798;
213.3000;1.2088;1.6846;
213.6000;1.2088;1.6846;
213.9000;1.2080;1.6870;
214.2000;1.2096;1.6798;
214.5000;1.2096;1.6846;
214.8000;1.2080;1.6894;
215.1000;1.2080;1.6918;
215.4000;1.2088;1.6942;
215.7000;1.2080;1.6942;
216.0000;1.2080;1.6965;
216.3000;1.2080;1.6965;
216.6000;1.2072;1.6942;
216.9000;1.2112;1.7037;
217.2000;1.2104;1.6918;
217.5000;1.2096;1.6870;
217.8000;1.2096;1.6798;
218.1000;1.2088;1.6774;
218.4000;1.2088;1.6894;
218.7000;1.2104;1.6870;
219.0000;1.2088;1.6822;
219.3000;1.2039;1.6678;
219.6000;1.2080;1.6846;
219.9000;1.2104;1.6726;
220.2000;1.2055;1.6606;
220.5000;1.2072;1.6654;
220.8000;1.2088;1.6774;
221.1000;1.2080;1.6798;
221.4000;1.2080;1.6750;
221.7000;1.2080;1.6774;
222.0000;1.2088;1.6750;
222.3000;1.2104;1.6678;
222.6000;1.2104;1.6678;
222.9000;1.2080;1.6726;
223.2000;1.2104;1.6750;
223.5000;1.2096;1.6750;
223.8000;1.2120;1.6774;
224.1000;1.2088;1.6678;
224.4000;1.2080;1.6558;
224.7000;1.2129;1.6702;
225.0000;1.2112;1.6726;
225.3000;1.2096;1.6726;
225.6000;1.2072;1.6702;
225.9000;1.2120;1.6798;
226.2000;1.2055;1.6582;
226.5000;1.2088;1.6750;
226.8000;1.2088;1.6702;
227.1000;1.2088;1.6606;
227.4000;1.2072;1.6582;
227.7000;1.1990;1.6438;
228.0000;1.2088;1.6630;
228.3000;1.2096;1.6534;
228.6000;1.2063;1.6438;
228.9000;1.2104;1.6582;
229.2000;1.2096;1.6510;
229.5000;1.2031;1.6271;
229.8000;1.2112;1.6438;
230.1000;1.2161;1.6582;
230.4000;1.2120;1.6582;
230.7000;1.2104;1.6534;
231.0000;1.2112;1.6606;
231.3000;1.2104;1.6630;
231.6000;1.2112;1.6606;
231.9000;1.2088;1.6558;
232.2000;1.2129;1.6678;
232.5000;1.2104;1.6582;
232.8000;1.2210;1.6894;
233.1000;1.2096;1.6630;
233.4000;1.2104;1.6678;
233.7000;1.2104;1.6678;
234.0000;1.2104;1.6630;
234.3000;1.2104;1.6678;
234.6000;1.2104;1.6630;
234.9000;1.2096;1.6606;
235.2000;1.2096;1.6678;
235.5000;1.2104;1.6654;
235.8000;1.2088;1.6654;
236.1000;1.2112;1.6702;
236.4000;1.2129;1.6726;
236.7000;1.2112;1.6726;
237.0000;1.2112;1.6750;
237.3000;1.2161;1.6918;
237.6000;1.2112;1.6822;
237.9000;1.2104;1.6726;
238.2000;1.2096;1.6678;
238.5000;1.2112;1.6654;
238.8000;1.2120;1.6630;
239.1000;1.2112;1.6702;
239.4000;1.2120;1.6774;
239.7000;1.2120;1.6702;
240.0000;1.2112;1.6678;
240.3000;1.2088;1.6678;
240.6000;1.2104;1.6582;
240.9000;1.2088;1.6510;
241.2000;1.2112;1.6558;
241.5000;1.2120;1.6630;
241.8000;1.2104;1.6678;
242.1000;1.2112;1.6678;
242.4000;1.2088;1.6606;
242.7000;1.2112;1.6654;
243.0000;1.2096;1.6654;
243.3000;1.2104;1.6750;
243.6000;1.2096;1.6822;
243.9000;1.2096;1.6870;
244.2000;1.2055;1.6798;
244.5000;1.2088;1.6942;
244.8000;1.2104;1.6918;
245.1000;1.2120;1.6989;
245.4000;1.2137;1.7013;
245.7000;1.2080;1.6846;
246.0000;1.2072;1.6894;
246.3000;1.2112;1.6870;
246.6000;1.2104;1.6846;
246.9000;1.2096;1.6798;
247.2000;1.2096;1.6846;
247.5000;1.2088;1.6774;
247.8000;1.2112;1.6678;
248.1000;1.2063;1.6534;
248.4000;1.2096;1.6510;
248.7000;1.2096;1.6486;
249.0000;1.2088;1.6462;
249.3000;1.2104;1.6510;
249.6000;1.2104;1.6582;
249.9000;1.2169;1.6726;
250.2000;1.2096;1.6606;
250.5000;1.2169;1.6678;
250.8000;1.2104;1.6534;
251.1000;1.2104;1.6558;
251.4000;1.2096;1.6510;
251.7000;1.2080;1.6438;
252.0000;1.2112;1.6510;
252.3000;1.2096;1.6390;
252.6000;1.2153;1.6558;
252.9000;1.2153;1.6606;
253.2000;1.2080;1.6462;
253.5000;1.2063;1.6318;
253.8000;1.2104;1.6486;
254.1000;1.2112;1.6630;
254.4000;1.2112;1.6630;
254.7000;1.2088;1.6606;
255.0000;1.2104;1.6630;
255.3000;1.2129;1.6654;
255.6000;1.2104;1.6606;
255.9000;1.2104;1.6630;
256.2000;1.2104;1.6558;
256.5000;1.2096;1.6534;
256.8000;1.2104;1.6462;
257.1000;1.2120;1.6486;
257.4000;1.2096;1.6510;
257.7000;1.2104;1.6534;
258.0000;1.2161;1.6702;
258.3000;1.2047;1.6582;
258.6000;1.2088;1.6678;
258.9000;1.2088;1.6606;
259.2000;1.2072;1.6678;
259.5000;1.2104;1.6774;
259.8000;1.2112;1.6798;
260.1000;1.2112;1.6870;
260.4000;1.2112;1.6750;
260.7000;1.2112;1.6702;
261.0000;1.2120;1.6798;
261.3000;1.2153;1.6894;
261.6000;1.2104;1.6774;
261.9000;1.2137;1.6774;
262.2000;1.2096;1.6726;
262.5000;1.2112;1.6798;
262.8000;1.2120;1.6846;
263.1000;1.2088;1.6750;
263.4000;1.2096;1.6774;
263.7000;1.2096;1.6822;
264.0000;1.2096;1.6822;
264.3000;1.2047;1.6630;
264.6000;1.2088;1.6750;
264.9000;1.2112;1.6750;
265.2000;1.2096;1.6678;
265.5000;1.2112;1.6630;
265.8000;1.2112;1.6630;
266.1000;1.2104;1.6630;
266.4000;1.2120;1.6654;
266.7000;1.2120;1.6702;
267.0000;1.2112;1.6750;
267.3000;1.2112;1.6726;
267.6000;1.2104;1.6846;
267.9000;1.2104;1.6846;
268.2000;1.2104;1.6798;
268.5000;1.2104;1.6750;
268.8000;1.2120;1.6750;
269.1000;1.2055;1.6582;
269.4000;1.2096;1.6702;
269.7000;1.2120;1.6702;
270.0000;1.2096;1.6606;
270.3000;1.2137;1.6678;
270.6000;1.2137;1.6750;
270.9000;1.2153;1.6726;
271.2000;1.2088;1.6654;
271.5000;1.2072;1.6654;
271.8000;1.2120;1.6726;
272.1000;1.2120;1.6846;
272.4000;1.2104;1.6822;
272.7000;1.2112;1.6894;
273.0000;1.2137;1.6918;
273.3000;1.2104;1.6774;
273.6000;1.2096;1.6750;
273.9000;1.2104;1.6822;
274.2000;1.2088;1.6726;
274.5000;1.2080;1.6678;
274.8000;1.2120;1.6750;
275.1000;1.2096;1.6702;
275.4000;1.2055;1.6678;
275.7000;1.2096;1.6774;
276.0000;1.2104;1.6798;
276.3000;1.2112;1.6774;
276.6000;1.2120;1.6774;
276.9000;1.2112;1.6726;
277.2000;1.2161;1.6822;
277.5000;1.2039;1.6534;
277.8000;1.2096;1.6606;
278.1000;1.2104;1.6654;
278.4000;1.2112;1.6654;
278.7000;1.2112;1.6630;
279.0000;1.2072;1.6462;
279.3000;1.2096;1.6558;
279.6000;1.2112;1.6678;
279.9000;1.2120;1.6702;
280.2000;1.2063;1.6510;
280.5000;1.2112;1.6630;
280.8000;1.2112;1.6606;
281.1000;1.2096;1.6630;
281.4000;1.2104;1.6558;
281.7000;1.2104;1.6702;
282.0000;1.2112;1.6774;
282.3000;1.2129;1.6750;
282.6000;1.2112;1.6726;
282.9000;1.2112;1.6774;
283.2000;1.2112;1.6846;
283.5000;1.2104;1.6894;
283.8000;1.2104;1.6870;
284.1000;1.2120;1.6798;
284.4000;1.2104;1.6654;
284.7000;1.2112;1.6534;
285.0000;1.2129;1.6534;
285.3000;1.2112;1.6510;
285.6000;1.2129;1.6510;
285.9000;1.2129;1.6534;
286.2000;1.2120;1.6510;
286.5000;1.2129;1.6510;
286.8000;1.2104;1.6534;
287.1000;1.2120;1.6534;
287.4000;1.2112;1.6630;
287.7000;1.2104;1.6534;
288.0000;1.2104;1.6558;
288.3000;1.2177;1.6726;
288.6000;1.2112;1.6582;
288.9000;1.2120;1.6558;
289.2000;1.2112;1.6606;
289.5000;1.2112;1.6606;
289.8000;1.2112;1.6654;
290.1000;1.2120;1.6726;
290.4000;1.2112;1.6630;
290.7000;1.2096;1.6702;
291.0000;1.2112;1.6750;
291.3000;1.2120;1.6894;
291.6000;1.2234;1.7133;
291.9000;1.2104;1.6894;
292.2000;1.2112;1.6942;
292.5000;1.2112;1.6942;
292.8000;1.2112;1.6870;
293.1000;1.2055;1.6702;
293.4000;1.2031;1.6630;
293.7000;1.2104;1.6822;
294.0000;1.2088;1.6750;
294.3000;1.2104;1.6726;
294.6000;1.2120;1.6822;
294.9000;1.2088;1.6774;
295.2000;1.2112;1.6750;
295.5000;1.2047;1.6630;
295.8000;1.2112;1.6774;
296.1000;1.2210;1.6965;
296.4000;1.2153;1.6870;
296.7000;1.2169;1.6918;
297.0000;1.2145;1.6798;
297.3000;1.2129;1.6750;
297.6000;1.2137;1.6702;
297.9000;1.2104;1.6558;
298.2000;1.2129;1.6606;
298.5000;1.2104;1.6534;
298.8000;1.2137;1.6702;
299.1000;1.2112;1.6654;
299.4000;1.2104;1.6678;
299.7000;1.2169;1.6846;
300.0000;1.2153;1.6798;
300.3000;1.2129;1.6726;
300.6000;1.2104;1.6702;
300.9000;1.2112;1.6798;
301.2000;1.2096;1.6726;
301.5000;1.2112;1.6750;
301.8000;1.2153;1.6846;
302.1000;1.2104;1.6678;
302.4000;1.2129;1.6726;
302.7000;1.2120;1.6726;
303.0000;1.2088;1.6750;
303.3000;1.2088;1.6774;
303.6000;1.2096;1.6798;
303.9000;1.2096;1.6750;
304.2000;1.2112;1.6822;
304.5000;1.2104;1.6798;
304.8000;1.2112;1.6846;
305.1000;1.2120;1.6870;
305.4000;1.2104;1.6678;
305.7000;1.2112;1.6654;
306.0000;1.2104;1.6678;
306.3000;1.2120;1.6750;
306.6000;1.2120;1.6702;
306.9000;1.2104;1.6702;
307.2000;1.2186;1.6846;
307.5000;1.2112;1.6726;
307.8000;1.2129;1.6798;
308.1000;1.2104;1.6870;
308.4000;1.2096;1.6822;
308.7000;1.2104;1.6846;
309.0000;1.2104;1.6846;
309.3000;1.2194;1.6942;
309.6000;1.2112;1.6726;
309.9000;1.2112;1.6822;
310.2000;1.2112;1.6822;
310.5000;1.2120;1.6774;
310.8000;1.2112;1.6678;
311.1000;1.2145;1.6774;
311.4000;1.2120;1.6726;
311.7000;1.2129;1.6750;
312.0000;1.2129;1.6774;
312.3000;1.2104;1.6702;
312.6000;1.2112;1.6678;
312.9000;1.2112;1.6630;
313.2000;1.2096;1.6582;
313.5000;1.2104;1.6558;
313.8000;1.2112;1.6702;
314.1000;1.2104;1.6726;
314.4000;1.2104;1.6702;
314.7000;1.2104;1.6726;
315.0000;1.2112;1.6798;
315.3000;1.2088;1.6774;
315.6000;1.2104;1.6870;
315.9000;1.2161;1.7037;
316.2000;1.2120;1.6894;
316.5000;1.2120;1.6942;
316.8000;1.2112;1.7013;
317.1000;1.2112;1.7037;
317.4000;1.2104;1.6989;
317.7000;1.2112;1.7013;
318.0000;1.2104;1.6989;
318.3000;1.2112;1.6965;
318.6000;1.2096;1.6894;
318.9000;1.2112;1.6894;
319.2000;1.2104;1.6846;
319.5000;1.2104;1.6822;
319.8000;1.2104;1.6774;
320.1000;1.2120;1.6822;
320.4000;1.2120;1.6894;
320.7000;1.2104;1.6870;
321.0000;1.2072;1.6798;
321.3000;1.2120;1.6894;
321.6000;1.2129;1.6942;
321.9000;1.2129;1.7037;
322.2000;1.2243;1.7397;
322.5000;1.2129;1.7037;
322.8000;1.2137;1.7061;
323.1000;1.2112;1.6989;
323.4000;1.2120;1.6965;
323.7000;1.2120;1.7037;
324.0000;1.2104;1.6989;
324.3000;1.2112;1.6989;
324.6000;1.2080;1.6846;
324.9000;1.2104;1.6918;
325.2000;1.2063;1.6774;
325.5000;1.2112;1.6846;
325.8000;1.2112;1.6774;
326.1000;1.2137;1.6846;
326.4000;1.2120;1.6774;
326.7000;1.2104;1.6702;
327.0000;1.2104;1.6678;
327.3000;1.2120;1.6774;
327.6000;1.2096;1.6774;
327.9000;1.2120;1.6894;
328.2000;1.2120;1.6942;
328.5000;1.2112;1.6894;
328.8000;1.2112;1.6846;
329.1000;1.2112;1.6798;
329.4000;1.2104;1.6822;
329.7000;1.2096;1.6774;
330.0000;1.2104;1.6870;
330.3000;1.2055;1.6822;
330.6000;1.2112;1.6894;
330.9000;1.2112;1.6822;
331.2000;1.2088;1.6726;
331.5000;1.2080;1.6798;
331.8000;1.2072;1.6870;
332.1000;1.2104;1.6942;
332.4000;1.2112;1.6965;
332.7000;1.2104;1.6942;
333.0000;1.2112;1.6965;
333.3000;1.2112;1.7013;
333.6000;1.2120;1.7037;
333.9000;1.2120;1.7037;
334.2000;1.2088;1.6965;
334.5000;1.2080;1.7037;
334.8000;1.2104;1.6965;
335.1000;1.2104;1.6965;
335.4000;1.2112;1.6942;
335.7000;1.2104;1.6942;
336.0000;1.2104;1.7037;
336.3000;1.2072;1.7013;
336.6000;1.2104;1.7133;
336.9000;1.2104;1.7085;
337.2000;1.2104;1.6942;
337.5000;1.2080;1.6846;
337.8000;1.2096;1.6942;
338.1000;1.2104;1.6989;
338.4000;1.2063;1.6989;
338.7000;1.2096;1.6989;
339.0000;1.2104;1.6894;
339.3000;1.2096;1.6894;
339.6000;1.2104;1.6918;
339.9000;1.2112;1.6894;
340.2000;1.2129;1.6918;
340.5000;1.2096;1.6894;
340.8000;1.2129;1.6965;
341.1000;1.2120;1.6846;
341.4000;1.2120;1.6750;
341.7000;1.2129;1.6822;
342.0000;1.2129;1.6750;
342.3000;1.2120;1.6678;
342.6000;1.2129;1.6678;
342.9000;1.2120;1.6582;
343.2000;1.2120;1.6582;
343.5000;1.2129;1.6558;
343.8000;1.2120;1.6582;
344.1000;1.2120;1.6606;
344.4000;1.2112;1.6678;
344.7000;1.2120;1.6702;
345.0000;1.2137;1.6726;
345.3000;1.2120;1.6774;
345.6000;1.2104;1.6750;
345.9000;1.2120;1.6846;
346.2000;1.2137;1.6918;
346.5000;1.2112;1.6918;
346.8000;1.2112;1.6918;
347.1000;1.2112;1.6918;
347.4000;1.2112;1.6942;
347.7000;1.2112;1.6846;
348.0000;1.2112;1.6822;
348.3000;1.2112;1.6726;
348.6000;1.2063;1.6606;
348.9000;1.2210;1.6989;
349.2000;1.2129;1.6822;
349.5000;1.2096;1.6750;
349.8000;1.2120;1.6846;
350.1000;1.2104;1.6726;
350.4000;1.2104;1.6678;
350.7000;1.2129;1.6774;
351.0000;1.2120;1.6774;
351.3000;1.2096;1.6630;
351.6000;1.2112;1.6726;
351.9000;1.2129;1.6750;
352.2000;1.2096;1.6702;
352.5000;1.2104;1.6774;
352.8000;1.2096;1.6774;
353.1000;1.2063;1.6654;
353.4000;1.2104;1.6822;
353.7000;1.2129;1.6846;
354.0000;1.2088;1.6822;
354.3000;1.2104;1.6774;
354.6000;1.2137;1.6798;
354.9000;1.2129;1.6750;
355.2000;1.2096;1.6702;
355.5000;1.2112;1.6846;
355.8000;1.2120;1.6894;
356.1000;1.2137;1.6894;
356.4000;1.2120;1.6846;
356.7000;1.2104;1.6870;
357.0000;1.2112;1.6942;
357.3000;1.2137;1.6942;
357.6000;1.2120;1.6942;
357.9000;1.2120;1.6870;
358.2000;1.2137;1.6918;
358.5000;1.2137;1.6942;
358.8000;1.2137;1.6942;
359.1000;1.2112;1.6774;
359.4000;1.2104;1.6822;
359.7000;1.2129;1.6894;
360.0000;1.2120;1.6846;
360.3000;1.2120;1.6822;
360.6000;1.2080;1.6702;
360.9000;1.2112;1.6846;
361.2000;1.2129;1.6965;
361.5000;1.2112;1.6942;
361.8000;1.2112;1.6965;
362.1000;1.2120;1.7085;
362.4000;1.2120;1.7061;
362.7000;1.2129;1.7109;
363.0000;1.2161;1.7157;
363.3000;1.2112;1.7085;
363.6000;1.2137;1.7061;
363.9000;1.2194;1.7133;
364.2000;1.2120;1.6942;
364.5000;1.2104;1.7013;
364.8000;1.2112;1.7013;
365.1000;1.2137;1.7133;
365.4000;1.2104;1.7037;
365.7000;1.2112;1.7037;
366.0000;1.2112;1.6989;
366.3000;1.2112;1.6965;
366.6000;1.2112;1.6965;
366.9000;1.2088;1.6870;
367.2000;1.2137;1.6870;
367.5000;1.2120;1.6965;
367.8000;1.2120;1.7013;
368.1000;1.2088;1.6965;
368.4000;1.2096;1.6942;
368.7000;1.2112;1.6942;
369.0000;1.2137;1.6942;
369.3000;1.2104;1.6894;
369.6000;1.2129;1.6870;
369.9000;1.2137;1.6846;
370.2000;1.2096;1.6870;
370.5000;1.2112;1.6918;
370.8000;1.2088;1.6822;
371.1000;1.2137;1.6989;
371.4000;1.2120;1.6989;
371.7000;1.2112;1.6942;
372.0000;1.2031;1.6750;
372.3000;1.2120;1.6989;
372.6000;1.2210;1.7277;
372.9000;1.2169;1.7157;
373.2000;1.2120;1.6942;
373.5000;1.2120;1.6894;
373.8000;1.2186;1.7037;
374.1000;1.2145;1.6918;
374.4000;1.2112;1.6870;
374.7000;1.2169;1.6918;
375.0000;1.2104;1.6750;
375.3000;1.2120;1.6750;
375.6000;1.2112;1.6798;
375.9000;1.2104;1.6846;
376.2000;1.2080;1.6846;
376.5000;1.2096;1.6894;
376.8000;1.2137;1.7061;
377.1000;1.2112;1.6989;
377.4000;1.2104;1.6870;
377.7000;1.2120;1.6870;
378.0000;1.2112;1.6798;
378.3000;1.2063;1.6558;
378.6000;1.2104;1.6606;
378.9000;1.2112;1.6630;
379.2000;1.2112;1.6606;
379.5000;1.2112;1.6678;
379.8000;1.2096;1.6726;
380.1000;1.2120;1.6798;
380.4000;1.2096;1.6774;
380.7000;1.2104;1.6750;
381.0000;1.2104;1.6846;
381.3000;1.2120;1.6870;
381.6000;1.2120;1.6750;
381.9000;1.2088;1.6702;
382.2000;1.2161;1.6918;
382.5000;1.2129;1.6894;
382.8000;1.2137;1.6918;
383.1000;1.2112;1.6894;
383.4000;1.2039;1.6630;
383.7000;1.2104;1.6678;
384.0000;1.2104;1.6774;
384.3000;1.2112;1.6870;
384.6000;1.2145;1.6942;
384.9000;1.2088;1.6774;
385.2000;1.2096;1.6774;
385.5000;1.2080;1.6750;
385.8000;1.2104;1.6894;
386.1000;1.2104;1.6894;
386.4000;1.2120;1.6894;
386.7000;1.2129;1.6918;
387.0000;1.2137;1.6918;
387.3000;1.2112;1.6750;
387.6000;1.2120;1.6822;
387.9000;1.2112;1.6774;
388.2000;1.2104;1.6774;
388.5000;1.2120;1.6870;
388.8000;1.2137;1.6894;
389.1000;1.2120;1.6870;
389.4000;1.2120;1.6894;
389.7000;1.2112;1.6822;
390.0000;1.2104;1.6726;
390.3000;1.2088;1.6750;
390.6000;1.2137;1.6870;
390.9000;1.2063;1.6726;
391.2000;1.2112;1.6870;
391.5000;1.2072;1.6774;
391.8000;1.2153;1.6894;
392.1000;1.2112;1.6894;
392.4000;1.2031;1.6678;
392.7000;1.2120;1.6846;
393.0000;1.2055;1.6654;
393.3000;1.2112;1.6846;
393.6000;1.2104;1.6750;
393.9000;1.2072;1.6702;
394.2000;1.2104;1.6750;
394.5000;1.2120;1.6798;
394.8000;1.2169;1.6822;
395.1000;1.2088;1.6702;
395.4000;1.2104;1.6750;
395.7000;1.2112;1.6726;
396.0000;1.2072;1.6702;
396.3000;1.2112;1.6846;
396.6000;1.2112;1.6822;
396.9000;1.2112;1.6822;
397.2000;1.2104;1.6726;
397.5000;1.2104;1.6750;
397.8000;1.2169;1.6942;
398.1000;1.2161;1.6894;
398.4000;1.2137;1.6798;
398.7000;1.2153;1.6894;
399.0000;1.2112;1.6942;
399.3000;1.2104;1.6870;
399.6000;1.2120;1.6894;
399.9000;1.2031;1.6606;
400.2000;1.2112;1.6870;
400.5000;1.2137;1.6846;
400.8000;1.2120;1.6798;
401.1000;1.2096;1.6798;
401.4000;1.2112;1.6774;
401.7000;1.2072;1.6774;
402.0000;1.2112;1.6918;
402.3000;1.2104;1.6894;
402.6000;1.2088;1.6774;
402.9000;1.2112;1.6822;
403.2000;1.2104;1.6750;
403.5000;1.2145;1.6726;
403.8000;1.2096;1.6630;
404.1000;1.2120;1.6726;
404.4000;1.2104;1.6726;
404.7000;1.2112;1.6774;
405.0000;1.2112;1.6726;
405.3000;1.2129;1.6702;
405.6000;1.2104;1.6678;
405.9000;1.2177;1.6846;
406.2000;1.2145;1.6798;
406.5000;1.2088;1.6678;
406.8000;1.2096;1.6678;
407.1000;1.2120;1.6702;
407.4000;1.2120;1.6630;
407.7000;1.2104;1.6774;
408.0000;1.2072;1.6678;
408.3000;1.2145;1.6846;
408.6000;1.2137;1.6822;
408.9000;1.2120;1.6750;
409.2000;1.2120;1.6702;
409.5000;1.2120;1.6702;
409.8000;1.2112;1.6702;
410.1000;1.2120;1.6726;
410.4000;1.2120;1.6846;
410.7000;1.2112;1.6822;
411.0000;1.2104;1.6822;
411.3000;1.2080;1.6702;
411.6000;1.2104;1.6750;
411.9000;1.2104;1.6750;
412.2000;1.2112;1.6846;
412.5000;1.2063;1.6702;
412.8000;1.2112;1.6894;
413.1000;1.2120;1.6894;
413.4000;1.2129;1.6918;
413.7000;1.2112;1.6942;
414.0000;1.2055;1.6726;
414.3000;1.2120;1.6798;
414.6000;1.2129;1.6870;
414.9000;1.2104;1.6726;
415.2000;1.2186;1.6918;
415.5000;1.2096;1.6798;
415.8000;1.2112;1.6798;
416.1000;1.2129;1.6750;
416.4000;1.2137;1.6798;
416.7000;1.2088;1.6654;
417.0000;1.2112;1.6726;
417.3000;1.2129;1.6822;
417.6000;1.2120;1.6726;
417.9000;1.2104;1.6678;
418.2000;1.2112;1.6678;
418.5000;1.2137;1.6822;
418.8000;1.2120;1.6846;
419.1000;1.2120;1.6894;
419.4000;1.2096;1.6894;
419.7000;1.2129;1.7013;
420.0000;1.2120;1.7013;
420.3000;1.2112;1.6965;
420.6000;1.2104;1.6870;
420.9000;1.2120;1.6822;
421.2000;1.2063;1.6702;
421.5000;1.2161;1.6918;
421.8000;1.2112;1.6846;
422.1000;1.2137;1.6894;
422.4000;1.2112;1.6870;
422.7000;1.2088;1.6750;
423.0000;1.2096;1.6750;
423.3000;1.2104;1.6798;
423.6000;1.2129;1.6846;
423.9000;1.2112;1.6822;
424.2000;1.2096;1.6918;
424.5000;1.2088;1.6846;
424.8000;1.2129;1.6965;
425.1000;1.2120;1.6870;
425.4000;1.2088;1.6750;
425.7000;1.2080;1.6630;
426.0000;1.2096;1.6702;
426.3000;1.2129;1.6750;
426.6000;1.2088;1.6654;
426.9000;1.2096;1.6702;
427.2000;1.2112;1.6750;
427.5000;1.2104;1.6654;
427.8000;1.2145;1.6702;
428.1000;1.2112;1.6702;
428.4000;1.2210;1.6965;
428.7000;1.2145;1.6870;
429.0000;1.2120;1.6870;
429.3000;1.2104;1.6846;
429.6000;1.2072;1.6678;
429.9000;1.2153;1.6894;
430.2000;1.2096;1.6846;
430.5000;1.2112;1.6846;
430.8000;1.2112;1.6870;
431.1000;1.2129;1.6989;
431.4000;1.2063;1.6918;
431.7000;1.2120;1.7013;
432.0000;1.2120;1.6894;
432.3000;1.2120;1.6918;
432.6000;1.2129;1.6870;
432.9000;1.2104;1.6822;
433.2000;1.2129;1.6942;
433.5000;1.2023;1.6654;
433.8000;1.2137;1.6965;
434.1000;1.2177;1.7037;
434.4000;1.2112;1.6942;
434.7000;1.2104;1.6942;
435.0000;1.2120;1.6989;
435.3000;1.2129;1.6918;
435.6000;1.2104;1.6870;
435.9000;1.2112;1.6918;
436.2000;1.2137;1.6870;
436.5000;1.2096;1.6894;
436.8000;1.2112;1.6965;
437.1000;1.2104;1.6822;
437.4000;1.2145;1.6894;
437.7000;1.2129;1.6894;
438.0000;1.2145;1.7013;
438.3000;1.2096;1.6942;
438.6000;1.2080;1.6846;
438.9000;1.2129;1.7037;
439.2000;1.2104;1.7037;
439.5000;1.2104;1.6942;
439.8000;1.2088;1.6918;
440.1000;1.2120;1.6918;
440.4000;1.2088;1.6726;
440.7000;1.2112;1.6702;
441.0000;1.2129;1.6678;
441.3000;1.2104;1.6582;
441.6000;1.2104;1.6486;
441.9000;1.2096;1.6510;
442.2000;1.2120;1.6558;
442.5000;1.2112;1.6582;
442.8000;1.2137;1.6630;
443.1000;1.2096;1.6582;
443.4000;1.2129;1.6630;
443.7000;1.2137;1.6702;
444.0000;1.2096;1.6774;
444.3000;1.2112;1.6894;
444.6000;1.2112;1.6918;
444.9000;1.2088;1.6894;
445.2000;1.2120;1.6894;
445.5000;1.2120;1.6965;
445.8000;1.2096;1.6846;
446.1000;1.2120;1.6918;
446.4000;1.2129;1.6942;
446.7000;1.2104;1.6846;
447.0000;1.2120;1.6846;
447.3000;1.2096;1.6798;
447.6000;1.2120;1.6846;
447.9000;1.2120;1.6798;
448.2000;1.2088;1.6726;
448.5000;1.2080;1.6870;
448.8000;1.2031;1.6726;
449.1000;1.2120;1.6942;
449.4000;1.2112;1.6918;
449.7000;1.2112;1.6918;
450.0000;1.2120;1.7061;
450.3000;1.2137;1.7133;
450.6000;1.2096;1.7085;
450.9000;1.2104;1.7109;
451.2000;1.2120;1.7061;
451.5000;1.2104;1.7085;
451.8000;1.2137;1.7085;
452.1000;1.2129;1.7061;
452.4000;1.2112;1.6942;
452.7000;1.2112;1.6942;
453.0000;1.2145;1.7013;
453.3000;1.2137;1.7037;
453.6000;1.2072;1.6965;
453.9000;1.2112;1.7085;
454.2000;1.2055;1.7013;
454.5000;1.2120;1.7205;
454.8000;1.2104;1.7181;
455.1000;1.2129;1.7157;
455.4000;1.2112;1.7181;
455.7000;1.2112;1.7085;
456.0000;1.2072;1.6918;
456.3000;1.2112;1.6989;
456.6000;1.2120;1.6942;
456.9000;1.2088;1.6894;
457.2000;1.2104;1.6942;
457.5000;1.2055;1.6774;
457.8000;1.2112;1.6894;
458.1000;1.2129;1.6870;
458.4000;1.2112;1.6870;
458.7000;1.2104;1.6846;
459.0000;1.2104;1.6965;
459.3000;1.2104;1.7037;
459.6000;1.2104;1.7085;
459.9000;1.2096;1.6989;
460.2000;1.2129;1.6989;
460.5000;1.2104;1.6894;
460.8000;1.2112;1.6989;
461.1000;1.2104;1.7037;
461.4000;1.2096;1.7037;
461.7000;1.2104;1.7013;
462.0000;1.2112;1.6942;
462.3000;1.2096;1.6918;
462.6000;1.2104;1.6965;
462.9000;1.2104;1.7037;
463.2000;1.2169;1.7157;
463.5000;1.2120;1.7061;
463.8000;1.2120;1.7085;
464.1000;1.2120;1.7061;
464.4000;1.2104;1.7013;
464.7000;1.2112;1.6965;
465.0000;1.2120;1.6965;
465.3000;1.2120;1.6894;
465.6000;1.2112;1.6894;
465.9000;1.2129;1.6965;
466.2000;1.2112;1.6846;
466.5000;1.2096;1.6798;
466.8000;1.2112;1.6918;
467.1000;1.2120;1.6918;
467.4000;1.2096;1.6894;
467.7000;1.2104;1.6942;
468.0000;1.2088;1.6870;
468.3000;1.2153;1.6989;
468.6000;1.2104;1.6870;
468.9000;1.2096;1.6989;
469.2000;1.2088;1.7037;
469.5000;1.2120;1.7109;
469.8000;1.2112;1.7013;
470.1000;1.2120;1.7037;
470.4000;1.2112;1.7061;
470.7000;1.2104;1.7109;
471.0000;1.2096;1.7037;
471.3000;1.2177;1.7205;
471.6000;1.2112;1.7013;
471.9000;1.2104;1.7061;
472.2000;1.2112;1.7037;
472.5000;1.2129;1.7061;
472.8000;1.2063;1.6942;
473.1000;1.2112;1.6989;
473.4000;1.2112;1.6942;
473.7000;1.2104;1.6942;
474.0000;1.2088;1.6965;
474.3000;1.2112;1.6989;
474.6000;1.2112;1.7061;
474.9000;1.2112;1.7181;
475.2000;1.2088;1.7109;
475.5000;1.2112;1.7133;
475.8000;1.2112;1.7109;
476.1000;1.2104;1.7085;
476.4000;1.2063;1.6846;
476.7000;1.2096;1.6894;
477.0000;1.2104;1.6750;
477.3000;1.2104;1.6750;
477.6000;1.2104;1.6750;
477.9000;1.2096;1.6798;
478.2000;1.2104;1.6894;
478.5000;1.2112;1.6918;
478.8000;1.2104;1.6942;
479.1000;1.2096;1.6942;
479.4000;1.2104;1.6894;
479.7000;1.2104;1.6965;
480.0000;1.2120;1.7061;
480.3000;1.2112;1.7013;
480.6000;1.2129;1.7061;
480.9000;1.2104;1.6822;
481.2000;1.2104;1.6894;
481.5000;1.2088;1.6726;
481.8000;1.2120;1.6822;
482.1000;1.2104;1.6822;
482.4000;1.2104;1.6822;
482.7000;1.2112;1.6822;
483.0000;1.2063;1.6702;
483.3000;1.2120;1.6870;
483.6000;1.2112;1.6894;
483.9000;1.2104;1.6846;
484.2000;1.2120;1.6918;
484.5000;1.2120;1.6965;
484.8000;1.2104;1.6965;
485.1000;1.2104;1.6942;
485.4000;1.2112;1.6918;
485.7000;1.2096;1.6894;
486.0000;1.2104;1.6918;
486.3000;1.2104;1.7037;
486.6000;1.2063;1.6846;
486.9000;1.2104;1.7037;
487.2000;1.2120;1.7109;
487.5000;1.2112;1.7037;
487.8000;1.2104;1.7013;
488.1000;1.2129;1.7133;
488.4000;1.2129;1.7109;
488.7000;1.2112;1.7085;
489.0000;1.2112;1.7037;
489.3000;1.2080;1.6965;
489.6000;1.2104;1.7085;
489.9000;1.2120;1.7037;
490.2000;1.2120;1.7037;
490.5000;1.2112;1.6965;
490.8000;1.2104;1.6918;
491.1000;1.2153;1.7061;
491.4000;1.2120;1.6989;
491.7000;1.2088;1.6965;
492.0000;1.2104;1.7037;
492.3000;1.2104;1.7109;
492.6000;1.2112;1.7061;
492.9000;1.2096;1.7013;
493.2000;1.2080;1.6965;
493.5000;1.2104;1.7061;
493.8000;1.2104;1.7013;
494.1000;1.2129;1.6965;
494.4000;1.2129;1.6942;
494.7000;1.2112;1.6942;
495.0000;1.2120;1.7061;
495.3000;1.2120;1.7109;
495.6000;1.2129;1.7109;
495.9000;1.2112;1.7085;
496.2000;1.2120;1.7013;
496.5000;1.2120;1.6965;
496.8000;1.2088;1.6894;
497.1000;1.2080;1.6822;
497.4000;1.2112;1.6918;
497.7000;1.2104;1.6870;
498.0000;1.2129;1.7013;
498.3000;1.2112;1.6989;
498.6000;1.2120;1.7061;
498.9000;1.2104;1.7061;
499.2000;1.2104;1.7085;
499.5000;1.2088;1.6965;
499.8000;1.2104;1.7037;
500.1000;1.2129;1.7157;
500.4000;1.2088;1.7037;
500.7000;1.2112;1.7157;
501.0000;1.2120;1.7205;
501.3000;1.2104;1.7109;
501.6000;1.2112;1.7133;
501.9000;1.2096;1.7085;
502.2000;1.2112;1.7109;
502.5000;1.2112;1.7085;
502.8000;1.2104;1.7013;
503.1000;1.2088;1.6965;
503.4000;1.2104;1.7037;
503.7000;1.2047;1.6989;
504.0000;1.2129;1.7277;
504.3000;1.2104;1.7181;
504.6000;1.2088;1.7109;
504.9000;1.2096;1.7133;
505.2000;1.2104;1.7085;
505.5000;1.2088;1.7061;
505.8000;1.2104;1.7037;
506.1000;1.2104;1.7013;
506.4000;1.2104;1.7013;
506.7000;1.2088;1.7037;
507.0000;1.2137;1.7157;
507.3000;1.2104;1.7061;
507.6000;1.2104;1.7085;
507.9000;1.2104;1.7085;
508.2000;1.2120;1.7109;
508.5000;1.2104;1.7037;
508.8000;1.2063;1.6918;
509.1000;1.2104;1.6989;
509.4000;1.2112;1.7013;
509.7000;1.2112;1.7037;
510.0000;1.2063;1.6965;
510.3000;1.2112;1.6989;
510.6000;1.2112;1.7061;
510.9000;1.2104;1.7061;
511.2000;1.2088;1.7109;
511.5000;1.2129;1.7301;
511.8000;1.2096;1.7277;
512.1000;1.2104;1.7181;
512.4000;1.2096;1.7109;
512.7000;1.2096;1.7157;
513.0000;1.2104;1.7133;
513.3000;1.2104;1.7109;
513.6000;1.2186;1.7301;
513.9000;1.2145;1.7253;
514.2000;1.2145;1.7229;
514.5000;1.2104;1.7109;
514.8000;1.2080;1.7085;
515.1000;1.2096;1.7157;
515.4000;1.2055;1.7157;
515.7000;1.2088;1.7205;
516.0000;1.2072;1.7205;
516.3000;1.2104;1.7181;
516.6000;1.2129;1.7133;
516.9000;1.2104;1.7085;
517.2000;1.2112;1.7085;
517.5000;1.2096;1.7037;
517.8000;1.2096;1.7013;
518.1000;1.2120;1.7133;
518.4000;1.2088;1.6965;
518.7000;1.2080;1.6942;
519.0000;1.2112;1.6942;
519.3000;1.2104;1.6918;
519.6000;1.2104;1.6965;
519.9000;1.2072;1.6918;
520.2000;1.2129;1.7037;
520.5000;1.2096;1.7085;
520.8000;1.2096;1.7085;
521.1000;1.2088;1.7013;
521.4000;1.2096;1.6894;
521.7000;1.2120;1.6870;
522.0000;1.2080;1.6798;
522.3000;1.2104;1.6965;
522.6000;1.2047;1.6726;
522.9000;1.2055;1.6894;
523.2000;1.2088;1.6989;
523.5000;1.2088;1.7061;
523.8000;1.2047;1.6942;
524.1000;1.2080;1.7013;
524.4000;1.2129;1.7037;
524.7000;1.2080;1.6989;
525.0000;1.2112;1.7037;
525.3000;1.2112;1.7061;
525.6000;1.2120;1.7061;
525.9000;1.2177;1.7133;
526.2000;1.2047;1.6846;
526.5000;1.2112;1.6989;
526.8000;1.2120;1.7109;
527.1000;1.2104;1.7037;
527.4000;1.2104;1.7037;
527.7000;1.2096;1.6965;
528.0000;1.2015;1.6798;
528.3000;1.2104;1.6989;
528.6000;1.2112;1.7037;
528.9000;1.2145;1.7037;
529.2000;1.2145;1.6965;
529.5000;1.2112;1.6870;
529.8000;1.2120;1.6942;
530.1000;1.2104;1.6822;
530.4000;1.2112;1.6846;
530.7000;1.2112;1.6750;
531.0000;1.2137;1.6726;
531.3000;1.2104;1.6702;
531.6000;1.2129;1.6750;
531.9000;1.2104;1.6678;
532.2000;1.2047;1.6606;
532.5000;1.2096;1.6798;
532.8000;1.2104;1.6846;
533.1000;1.2096;1.6918;
533.4000;1.2104;1.6965;
533.7000;1.2104;1.6894;
534.0000;1.2096;1.6942;
534.3000;1.2072;1.6822;
534.6000;1.2112;1.6918;
534.9000;1.2129;1.6942;
535.2000;1.2112;1.6989;
535.5000;1.2096;1.6918;
535.8000;1.2129;1.6894;
536.1000;1.2112;1.6894;
536.4000;1.2096;1.6798;
536.7000;1.2112;1.6870;
537.0000;1.2120;1.6870;
537.3000;1.2104;1.6774;
537.6000;1.2088;1.6702;
537.9000;1.2088;1.6630;
538.2000;1.2120;1.6702;
538.5000;1.2080;1.6606;
538.8000;1.2088;1.6630;
539.1000;1.2096;1.6630;
539.4000;1.2080;1.6606;
539.7000;1.2104;1.6654;
540.0000;1.2120;1.6582;
540.3000;1.2096;1.6438;
540.6000;1.2112;1.6462;
540.9000;1.2104;1.6510;
541.2000;1.2112;1.6630;
541.5000;1.2112;1.6726;
541.8000;1.2112;1.6750;
542.1000;1.2120;1.6918;
542.4000;1.2137;1.7013;
542.7000;1.2096;1.6918;
543.0000;1.2112;1.7037;
543.3000;1.2137;1.7061;
543.6000;1.2120;1.7037;
543.9000;1.2088;1.7037;
544.2000;1.2072;1.7061;
544.5000;1.2080;1.7013;
544.8000;1.2112;1.7061;
545.1000;1.2129;1.7037;
545.4000;1.2145;1.7085;
545.7000;1.2169;1.7205;
546.0000;1.2072;1.6965;
546.3000;1.2112;1.6918;
546.6000;1.2015;1.6678;
546.9000;1.2120;1.6894;
547.2000;1.2112;1.6965;
547.5000;1.2072;1.6822;
547.8000;1.2055;1.6870;
548.1000;1.2104;1.6942;
548.4000;1.2120;1.6918;
548.7000;1.2104;1.6918;
549.0000;1.2186;1.7133;
549.3000;1.2145;1.7013;
549.6000;1.2088;1.6965;
549.9000;1.2120;1.7085;
550.2000;1.2112;1.7133;
550.5000;1.2112;1.7157;
550.8000;1.2129;1.7229;
551.1000;1.2088;1.7109;
551.4000;1.2096;1.7133;
551.7000;1.2096;1.7085;
552.0000;1.2088;1.7085;
552.3000;1.2104;1.7133;
552.6000;1.2088;1.7109;
552.9000;1.2096;1.7253;
553.2000;1.2080;1.7157;
553.5000;1.2096;1.7133;
553.8000;1.2112;1.7061;
554.1000;1.2088;1.7109;
554.4000;1.2096;1.7157;
554.7000;1.2096;1.7037;
555.0000;1.2096;1.7037;
555.3000;1.2088;1.6965;
555.6000;1.2088;1.6942;
555.9000;1.2112;1.7061;
556.2000;1.2112;1.7061;
556.5000;1.2088;1.6989;
556.8000;1.2104;1.6989;
557.1000;1.2096;1.6942;
557.4000;1.2112;1.7037;
557.7000;1.2096;1.6965;
558.0000;1.2088;1.6942;
558.3000;1.2096;1.7037;
558.6000;1.2096;1.7085;
558.9000;1.2096;1.7085;
559.2000;1.2072;1.7061;
559.5000;1.2120;1.7109;
559.8000;1.2096;1.7037;
560.1000;1.2120;1.7109;
560.4000;1.2137;1.7157;
560.7000;1.2096;1.6989;
561.0000;1.2104;1.7061;
561.3000;1.2137;1.7109;
561.6000;1.2112;1.6989;
561.9000;1.2080;1.6894;
562.2000;1.2088;1.6894;
562.5000;1.2072;1.6965;
562.8000;1.2096;1.7085;
563.1000;1.2072;1.7013;
563.4000;1.2072;1.6942;
563.7000;1.2072;1.7037;
564.0000;1.2088;1.7157;
564.3000;1.2194;1.7325;
564.6000;1.2088;1.7085;
564.9000;1.2088;1.6989;
565.2000;1.2096;1.6989;
565.5000;1.2112;1.7013;
565.8000;1.2072;1.6798;
566.1000;1.2088;1.6822;
566.4000;1.2088;1.6846;
566.7000;1.2137;1.7061;
567.0000;1.2096;1.7061;
567.3000;1.2088;1.7037;
567.6000;1.2047;1.6965;
567.9000;1.2104;1.7037;
568.2000;1.2104;1.7037;
568.5000;1.2112;1.7085;
568.8000;1.2096;1.7037;
569.1000;1.2096;1.7013;
569.4000;1.2088;1.7013;
569.7000;1.2072;1.6942;
570.0000;1.2104;1.7013;
570.3000;1.2096;1.7061;
570.6000;1.2169;1.7277;
570.9000;1.2096;1.7157;
571.2000;1.2112;1.7205;
571.5000;1.2104;1.7181;
571.8000;1.2112;1.7109;
572.1000;1.2104;1.7085;
572.4000;1.2120;1.7037;
572.7000;1.2112;1.7109;
573.0000;1.2096;1.7061;
573.3000;1.2088;1.7037;
573.6000;1.2112;1.7109;
573.9000;1.2137;1.7205;
574.2000;1.2120;1.7133;
574.5000;1.2080;1.7061;
574.8000;1.2088;1.7085;
575.1000;1.2137;1.7205;
575.4000;1.2096;1.7157;
575.7000;1.2104;1.7085;
576.0000;1.2088;1.7037;
576.3000;1.2104;1.7061;
576.6000;1.2080;1.7037;
576.9000;1.2104;1.7109;
577.2000;1.2096;1.7085;
577.5000;1.2088;1.7061;
577.8000;1.2112;1.7109;
578.1000;1.2096;1.7085;
578.4000;1.2104;1.7181;
578.7000;1.2072;1.7061;
579.0000;1.2153;1.7229;
579.3000;1.2096;1.7013;
579.6000;1.2096;1.6918;
579.9000;1.2096;1.6942;
580.2000;1.2104;1.6942;
580.5000;1.2104;1.6965;
580.8000;1.2104;1.6965;
581.1000;1.2096;1.6942;
581.4000;1.2104;1.6989;
581.7000;1.2104;1.6965;
582.0000;1.2096;1.6918;
582.3000;1.2039;1.6750;
582.6000;1.2104;1.6942;
582.9000;1.2112;1.7013;
583.2000;1.2104;1.7037;
583.5000;1.2096;1.7109;
583.8000;1.2096;1.7157;
584.1000;1.2047;1.6989;
584.4000;1.2080;1.7109;
584.7000;1.2096;1.7181;
585.0000;1.2096;1.7157;
585.3000;1.2104;1.7205;
585.6000;1.2104;1.7109;
585.9000;1.2145;1.7253;
586.2000;1.2055;1.7037;
586.5000;1.2137;1.7253;
586.8000;1.2088;1.7061;
587.1000;1.2080;1.7085;
587.4000;1.2096;1.7109;
587.7000;1.2096;1.7085;
588.0000;1.2080;1.7085;
588.3000;1.2088;1.7061;
588.6000;1.2080;1.6965;
588.9000;1.2088;1.7013;
589.2000;1.2096;1.7109;
589.5000;1.2112;1.7109;
589.8000;1.2023;1.6894;
590.1000;1.2072;1.6989;
590.4000;1.2039;1.6894;
590.7000;1.2104;1.6965;
591.0000;1.2096;1.7013;
591.3000;1.2096;1.7013;
591.6000;1.2088;1.7013;
591.9000;1.2112;1.7013;
592.2000;1.2104;1.7037;
592.5000;1.2096;1.6942;
592.8000;1.2096;1.6870;
593.1000;1.2129;1.6965;
593.4000;1.2112;1.6942;
593.7000;1.2096;1.6822;
594.0000;1.2088;1.6846;
594.3000;1.2088;1.6846;
594.6000;1.2096;1.6798;
594.9000;1.2088;1.6798;
595.2000;1.2112;1.6798;
595.5000;1.2088;1.6798;
595.8000;1.2080;1.6918;
596.1000;1.2080;1.6894;
596.4000;1.2080;1.6870;
596.7000;1.2096;1.6942;
597.0000;1.2063;1.6870;
597.3000;1.2039;1.6870;
597.6000;1.2023;1.6774;
597.9000;1.2104;1.7013;
598.2000;1.2096;1.7013;
598.5000;1.2104;1.7061;
598.8000;1.2072;1.6942;
599.1000;1.2096;1.7037;
599.4000;1.2104;1.6989;
599.7000;1.2088;1.6918;
600.0000;1.2088;1.6918;
600.3000;1.2055;1.7013;
600.6000;1.2031;1.6870;
600.9000;1.1958;1.6654;
601.2000;1.1844;1.6390;
601.5000;1.1681;1.5983;
601.8000;1.1600;1.5887;
602.1000;1.1494;1.5743;
602.4000;1.1372;1.5576;
602.7000;1.1249;1.5480;
603.0000;1.1160;1.5360;
603.3000;1.1087;1.5264;
603.6000;1.0973;1.4929;
603.9000;1.0875;1.4713;
604.2000;1.0786;1.4665;
604.5000;1.0737;1.4641;
604.8000;1.0663;1.4641;
605.1000;1.0582;1.4617;
605.4000;1.0509;1.4521;
605.7000;1.0444;1.4449;
606.0000;1.0379;1.4449;
606.3000;1.0330;1.4401;
606.6000;1.0265;1.4306;
606.9000;1.0224;1.4282;
607.2000;1.0151;1.4138;
607.5000;1.0085;1.3994;
607.8000;1.0061;1.3994;
608.1000;1.0004;1.3946;
608.4000;0.9955;1.3898;
608.7000;0.9890;1.3850;
609.0000;0.9858;1.3778;
609.3000;0.9809;1.3826;
609.6000;0.9809;1.3874;
609.9000;0.9735;1.3826;
610.2000;0.9687;1.3731;
610.5000;0.9654;1.3754;
610.8000;0.9605;1.3683;
611.1000;0.9581;1.3659;
611.4000;0.9630;1.3778;
611.7000;0.9491;1.3587;
612.0000;0.9475;1.3683;
612.3000;0.9418;1.3587;
612.6000;0.9402;1.3563;
612.9000;0.9369;1.3515;
613.2000;0.9304;1.3467;
613.5000;0.9312;1.3467;
613.8000;0.9255;1.3443;
614.1000;0.9247;1.3347;
614.4000;0.9206;1.3251;
614.7000;0.9182;1.3323;
615.0000;0.9190;1.3419;
615.3000;0.9076;1.3251;
615.6000;0.9068;1.3347;
615.9000;0.9068;1.3299;
616.2000;0.8987;1.3179;
616.5000;0.9011;1.3347;
616.8000;0.8995;1.3299;
617.1000;0.8938;1.3203;
617.4000;0.8978;1.3371;
617.7000;0.8930;1.3275;
618.0000;0.8930;1.3275;
618.3000;0.8889;1.3227;
618.6000;0.8864;1.3251;
618.9000;0.8864;1.3323;
619.2000;0.8799;1.3203;
619.5000;0.8775;1.3203;
619.8000;0.8710;1.3060;
620.1000;0.8669;1.2892;
620.4000;0.8734;1.3036;
620.7000;0.8702;1.3060;
621.0000;0.8710;1.2988;
621.3000;0.8612;1.2748;
621.6000;0.8653;1.2844;
621.9000;0.8637;1.2820;
622.2000;0.8596;1.2820;
622.5000;0.8571;1.2772;
622.8000;0.8580;1.2796;
623.1000;0.8547;1.2724;
623.4000;0.8555;1.2748;
623.7000;0.8506;1.2604;
624.0000;0.8523;1.2652;
624.3000;0.8466;1.2484;
624.6000;0.8490;1.2628;
624.9000;0.8368;1.2413;
625.2000;0.8441;1.2700;
625.5000;0.8531;1.2892;
625.8000;0.8409;1.2724;
626.1000;0.8384;1.2748;
626.4000;0.8392;1.2868;
626.7000;0.8368;1.2820;
627.0000;0.8352;1.2844;
627.3000;0.8352;1.2820;
627.6000;0.8344;1.2844;
627.9000;0.8344;1.2892;
628.2000;0.8287;1.2844;
628.5000;0.8311;1.2940;
628.8000;0.8287;1.2868;
629.1000;0.8287;1.2988;
629.4000;0.8287;1.3012;
629.7000;0.8254;1.2964;
630.0000;0.8221;1.2988;
630.3000;0.8221;1.3012;
630.6000;0.8181;1.2940;
630.9000;0.8197;1.3060;
631.2000;0.8197;1.3084;
631.5000;0.8270;1.3323;
631.8000;0.8148;1.3036;
632.1000;0.8164;1.3155;
632.4000;0.8091;1.2964;
632.7000;0.8116;1.3012;
633.0000;0.8140;1.3108;
633.3000;0.8116;1.3084;
633.6000;0.8083;1.2964;
633.9000;0.8083;1.2988;
634.2000;0.8083;1.2916;
634.5000;0.8018;1.2796;
634.8000;0.8050;1.2892;
635.1000;0.8059;1.2940;
635.4000;0.8067;1.3060;
635.7000;0.8059;1.3060;
636.0000;0.8026;1.2916;
636.3000;0.8034;1.3036;
636.6000;0.8034;1.3131;
636.9000;0.7993;1.2988;
637.2000;0.8091;1.3179;
637.5000;0.8034;1.3012;
637.8000;0.7863;1.2604;
638.1000;0.7977;1.2892;
638.4000;0.7977;1.2988;
638.7000;0.7961;1.2892;
639.0000;0.7969;1.2916;
639.3000;0.7985;1.2964;
639.6000;0.7937;1.2916;
639.9000;0.8018;1.3108;
640.2000;0.7904;1.2844;
640.5000;0.7912;1.2820;
640.8000;0.7888;1.2748;
641.1000;0.7863;1.2724;
641.4000;0.7863;1.2700;
641.7000;0.7790;1.2508;
642.0000;0.7855;1.2724;
642.3000;0.7847;1.2748;
642.6000;0.7855;1.2724;
642.9000;0.7888;1.2892;
643.2000;0.7855;1.2868;
643.5000;0.7823;1.2916;
643.8000;0.7790;1.2844;
644.1000;0.7806;1.2748;
644.4000;0.7823;1.2820;
644.7000;0.7814;1.2820;
645.0000;0.7790;1.2892;
645.3000;0.7774;1.2892;
645.6000;0.7774;1.2844;
645.9000;0.7733;1.2820;
646.2000;0.7766;1.2964;
646.5000;0.7774;1.2940;
646.8000;0.7741;1.2868;
647.1000;0.7733;1.2748;
647.4000;0.7757;1.2748;
647.7000;0.7725;1.2628;
648.0000;0.7741;1.2700;
648.3000;0.7717;1.2652;
648.6000;0.7709;1.2700;
648.9000;0.7652;1.2556;
649.2000;0.7700;1.2676;
649.5000;0.7684;1.2676;
649.8000;0.7684;1.2652;
650.1000;0.7684;1.2748;
650.4000;0.7643;1.2604;
650.7000;0.7652;1.2604;
651.0000;0.7652;1.2724;
651.3000;0.7627;1.2676;
651.6000;0.7627;1.2652;
651.9000;0.7643;1.2796;
652.2000;0.7660;1.2844;
652.5000;0.7603;1.2700;
652.8000;0.7627;1.2724;
653.1000;0.7627;1.2796;
653.4000;0.7611;1.2844;
653.7000;0.7611;1.2772;
654.0000;0.7603;1.2772;
654.3000;0.7652;1.2868;
654.6000;0.7611;1.2700;
654.9000;0.7611;1.2844;
655.2000;0.7660;1.2844;
655.5000;0.7570;1.2604;
655.8000;0.7562;1.2652;
656.1000;0.7546;1.2628;
656.4000;0.7497;1.2556;
656.7000;0.7546;1.2652;
657.0000;0.7530;1.2724;
657.3000;0.7627;1.2916;
657.6000;0.7546;1.2772;
657.9000;0.7546;1.2844;
658.2000;0.7513;1.2772;
658.5000;0.7546;1.2844;
658.8000;0.7538;1.2796;
659.1000;0.7505;1.2772;
659.4000;0.7530;1.2868;
659.7000;0.7473;1.2676;
660.0000;0.7538;1.2820;
660.3000;0.7489;1.2724;
660.6000;0.7497;1.2748;
660.9000;0.7456;1.2700;
661.2000;0.7473;1.2820;
661.5000;0.7473;1.2772;
661.8000;0.7473;1.2700;
662.1000;0.7473;1.2772;
662.4000;0.7611;1.3179;
662.7000;0.7497;1.2916;
663.0000;0.7473;1.2820;
663.3000;0.7473;1.2748;
663.6000;0.7359;1.2461;
663.9000;0.7399;1.2556;
664.2000;0.7432;1.2724;
664.5000;0.7399;1.2676;
664.8000;0.7424;1.2748;
665.1000;0.7407;1.2676;
665.4000;0.7407;1.2748;
665.7000;0.7416;1.2796;
666.0000;0.7407;1.2772;
666.3000;0.7424;1.2700;
666.6000;0.7399;1.2724;
666.9000;0.7407;1.2796;
667.2000;0.7383;1.2724;
667.5000;0.7375;1.2724;
667.8000;0.7391;1.2700;
668.1000;0.7383;1.2748;
668.4000;0.7375;1.2796;
668.7000;0.7310;1.2604;
669.0000;0.7350;1.2772;
669.3000;0.7350;1.2748;
669.6000;0.7359;1.2772;
669.9000;0.7448;1.3012;
670.2000;0.7350;1.2772;
670.5000;0.7342;1.2724;
670.8000;0.7334;1.2724;
671.1000;0.7326;1.2724;
671.4000;0.7334;1.2676;
671.7000;0.7334;1.2580;
672.0000;0.7318;1.2508;
672.3000;0.7293;1.2508;
672.6000;0.7334;1.2604;
672.9000;0.7302;1.2532;
673.2000;0.7245;1.2365;
673.5000;0.7326;1.2508;
673.8000;0.7261;1.2341;
674.1000;0.7269;1.2365;
674.4000;0.7302;1.2556;
674.7000;0.7302;1.2628;
675.0000;0.7269;1.2556;
675.3000;0.7285;1.2676;
675.6000;0.7253;1.2676;
675.9000;0.7285;1.2724;
676.2000;0.7253;1.2628;
676.5000;0.7302;1.2700;
676.8000;0.7236;1.2652;
677.1000;0.7253;1.2676;
677.4000;0.7261;1.2748;
677.7000;0.7245;1.2676;
678.0000;0.7245;1.2556;
678.3000;0.7334;1.2772;
678.6000;0.7253;1.2580;
678.9000;0.7228;1.2652;
679.2000;0.7196;1.2580;
679.5000;0.7293;1.2868;
679.8000;0.7220;1.2748;
680.1000;0.7310;1.2988;
680.4000;0.7204;1.2772;
680.7000;0.7204;1.2724;
681.0000;0.7188;1.2700;
681.3000;0.7204;1.2652;
681.6000;0.7204;1.2604;
681.9000;0.7188;1.2532;
682.2000;0.7212;1.2604;
682.5000;0.7204;1.2628;
682.8000;0.7188;1.2604;
683.1000;0.7179;1.2556;
683.4000;0.7196;1.2580;
683.7000;0.7163;1.2604;
684.0000;0.7171;1.2676;
684.3000;0.7171;1.2748;
684.6000;0.7179;1.2748;
684.9000;0.7155;1.2700;
685.2000;0.7155;1.2724;
685.5000;0.7114;1.2532;
685.8000;0.7155;1.2652;
686.1000;0.7155;1.2580;
686.4000;0.7147;1.2628;
686.7000;0.7155;1.2604;
687.0000;0.7147;1.2700;
687.3000;0.7155;1.2628;
687.6000;0.7163;1.2700;
687.9000;0.7171;1.2772;
688.2000;0.7139;1.2652;
688.5000;0.7131;1.2724;
688.8000;0.7066;1.2604;
689.1000;0.7098;1.2652;
689.4000;0.7106;1.2820;
689.7000;0.7114;1.2868;
690.0000;0.7147;1.2940;
690.3000;0.7114;1.2844;
690.6000;0.7098;1.2796;
690.9000;0.7106;1.2724;
691.2000;0.7106;1.2748;
691.5000;0.7090;1.2772;
691.8000;0.7090;1.2724;
692.1000;0.7114;1.2724;
692.4000;0.7106;1.2724;
692.7000;0.7098;1.2604;
693.0000;0.7082;1.2556;
693.3000;0.7090;1.2652;
693.6000;0.7074;1.2676;
693.9000;0.7082;1.2556;
694.2000;0.7098;1.2604;
694.5000;0.7082;1.2652;
694.8000;0.7057;1.2748;
695.1000;0.7090;1.2724;
695.4000;0.7074;1.2628;
695.7000;0.7057;1.2604;
696.0000;0.7066;1.2580;
696.3000;0.7066;1.2484;
696.6000;0.7049;1.2437;
696.9000;0.7049;1.2508;
697.2000;0.7049;1.2556;
697.5000;0.7074;1.2580;
697.8000;0.7041;1.2652;
698.1000;0.7057;1.2772;
698.4000;0.7049;1.2772;
698.7000;0.7033;1.2820;
699.0000;0.7057;1.2916;
699.3000;0.7025;1.2916;
699.6000;0.7033;1.2988;
699.9000;0.7033;1.2964;
700.2000;0.6992;1.2940;
700.5000;0.7123;1.3203;
700.8000;0.7000;1.2988;
701.1000;0.7106;1.3275;
701.4000;0.7000;1.3084;
701.7000;0.7057;1.3179;
702.0000;0.7000;1.3012;
702.3000;0.6976;1.2916;
702.6000;0.6992;1.3012;
702.9000;0.7009;1.2964;
703.2000;0.6943;1.2772;
703.5000;0.6992;1.2916;
703.8000;0.7000;1.2940;
704.1000;0.7009;1.3036;
704.4000;0.6992;1.2964;
704.7000;0.6992;1.2964;
705.0000;0.7033;1.2964;
705.3000;0.7000;1.2772;
705.6000;0.6935;1.2604;
705.9000;0.6976;1.2700;
706.2000;0.6976;1.2724;
706.5000;0.6968;1.2628;
706.8000;0.6976;1.2580;
707.1000;0.6976;1.2652;
707.4000;0.6960;1.2676;
707.7000;0.6968;1.2796;
708.0000;0.6943;1.2724;
708.3000;0.6968;1.2844;
708.6000;0.7033;1.2988;
708.9000;0.6968;1.2916;
709.2000;0.6968;1.2916;
709.5000;0.6984;1.2940;
709.8000;0.6943;1.2868;
710.1000;0.6935;1.2844;
710.4000;0.6968;1.2844;
710.7000;0.6952;1.2844;
711.0000;0.6935;1.2724;
711.3000;0.6943;1.2604;
711.6000;0.6952;1.2676;
711.9000;0.6935;1.2628;
712.2000;0.6919;1.2652;
712.5000;0.6927;1.2676;
712.8000;0.6935;1.2628;
713.1000;0.6911;1.2604;
713.4000;0.6911;1.2652;
713.7000;0.6943;1.2820;
714.0000;0.6870;1.2676;
714.3000;0.6927;1.2820;
714.6000;0.6919;1.2820;
714.9000;0.6935;1.2868;
715.2000;0.6903;1.2820;
715.5000;0.6911;1.2820;
715.8000;0.6903;1.2796;
716.1000;0.6878;1.2748;
716.4000;0.6911;1.2916;
716.7000;0.6886;1.2916;
717.0000;0.6854;1.2892;
717.3000;0.6878;1.2940;
717.6000;0.6878;1.3012;
717.9000;0.6878;1.2988;
718.2000;0.6911;1.3084;
718.5000;0.6846;1.2892;
718.8000;0.6976;1.3203;
719.1000;0.6886;1.2916;
719.4000;0.6870;1.2892;
719.7000;0.6870;1.2844;
720.0000;0.6952;1.2988;
720.3000;0.6870;1.2868;
720.6000;0.6903;1.2892;
720.9000;0.6805;1.2652;
721.2000;0.6878;1.2844;
721.5000;0.6870;1.2892;
721.8000;0.6878;1.3012;
722.1000;0.6878;1.3060;
722.4000;0.6813;1.2988;
722.7000;0.6878;1.3036;
723.0000;0.6846;1.2892;
723.3000;0.6862;1.2916;
723.6000;0.6829;1.2964;
723.9000;0.6829;1.2988;
724.2000;0.6854;1.3012;
724.5000;0.6854;1.3084;
724.8000;0.6846;1.3108;
725.1000;0.6870;1.3108;
725.4000;0.6862;1.3108;
725.7000;0.6862;1.2988;
726.0000;0.6838;1.2844;
726.3000;0.6829;1.2772;
726.6000;0.6829;1.2796;
726.9000;0.6829;1.2868;
727.2000;0.6838;1.2844;
727.5000;0.6854;1.2844;
727.8000;0.6838;1.2820;
728.1000;0.6829;1.2700;
728.4000;0.6829;1.2724;
728.7000;0.6813;1.2676;
729.0000;0.6821;1.2652;
729.3000;0.6854;1.2748;
729.6000;0.6862;1.2772;
729.9000;0.6821;1.2724;
730.2000;0.6838;1.2748;
730.5000;0.6829;1.2748;
730.8000;0.6821;1.2820;
731.1000;0.6813;1.2748;
731.4000;0.6829;1.2772;
731.7000;0.6846;1.2844;
732.0000;0.6838;1.2724;
732.3000;0.6911;1.3012;
732.6000;0.6797;1.2868;
732.9000;0.6813;1.2892;
733.2000;0.6846;1.2940;
733.5000;0.6821;1.2892;
733.8000;0.6756;1.2796;
734.1000;0.6805;1.2868;
734.4000;0.6748;1.2676;
734.7000;0.6862;1.3060;
735.0000;0.6846;1.2964;
735.3000;0.6903;1.3155;
735.6000;0.6748;1.2772;
735.9000;0.6781;1.2844;
736.2000;0.6829;1.2916;
736.5000;0.6781;1.2844;
736.8000;0.6764;1.2820;
737.1000;0.6748;1.2748;
737.4000;0.6732;1.2748;
737.7000;0.6724;1.2700;
738.0000;0.6764;1.2844;
738.3000;0.6772;1.2796;
738.6000;0.6772;1.2844;
738.9000;0.6789;1.2796;
739.2000;0.6764;1.2628;
739.5000;0.6789;1.2628;
739.8000;0.6764;1.2700;
740.1000;0.6764;1.2772;
740.4000;0.6772;1.2820;
740.7000;0.6756;1.2796;
741.0000;0.6756;1.2772;
741.3000;0.6748;1.2820;
741.6000;0.6732;1.2820;
741.9000;0.6756;1.2916;
742.2000;0.6764;1.2868;
742.5000;0.6740;1.2868;
742.8000;0.6764;1.2892;
743.1000;0.6756;1.2916;
743.4000;0.6764;1.2844;
743.7000;0.6756;1.2748;
744.0000;0.6748;1.2748;
744.3000;0.6740;1.2748;
744.6000;0.6748;1.2772;
744.9000;0.6756;1.2796;
745.2000;0.6732;1.2724;
745.5000;0.6732;1.2796;
745.8000;0.6724;1.2844;
746.1000;0.6748;1.2916;
746.4000;0.6748;1.2916;
746.7000;0.6724;1.2844;
747.0000;0.6740;1.2916;
747.3000;0.6716;1.2820;
747.6000;0.6707;1.2844;
747.9000;0.6724;1.2892;
748.2000;0.6748;1.2940;
748.5000;0.6797;1.3060;
748.8000;0.6691;1.2796;
749.1000;0.6707;1.2988;
749.4000;0.6707;1.3012;
749.7000;0.6691;1.3036;
750.0000;0.6740;1.3203;
750.3000;0.6764;1.3227;
750.6000;0.6732;1.3131;
750.9000;0.6716;1.3060;
751.2000;0.6675;1.2940;
751.5000;0.6691;1.3012;
751.8000;0.6716;1.3012;
752.1000;0.6683;1.2892;
752.4000;0.6667;1.2772;
752.7000;0.6683;1.2772;
753.0000;0.6724;1.2796;
753.3000;0.6683;1.2724;
753.6000;0.6683;1.2796;
753.9000;0.6691;1.2892;
754.2000;0.6675;1.2844;
754.5000;0.6659;1.2892;
754.8000;0.6699;1.3084;
755.1000;0.6667;1.3131;
755.4000;0.6699;1.3131;
755.7000;0.6683;1.2988;
756.0000;0.6699;1.2940;
756.3000;0.6716;1.2988;
756.6000;0.6691;1.2988;
756.9000;0.6691;1.2964;
757.2000;0.6699;1.2892;
757.5000;0.6675;1.2868;
757.8000;0.6699;1.2940;
758.1000;0.6691;1.2916;
758.4000;0.6691;1.3036;
758.7000;0.6683;1.3036;
759.0000;0.6707;1.3060;
759.3000;0.6740;1.3036;
759.6000;0.6699;1.2916;
759.9000;0.6659;1.2844;
760.2000;0.6683;1.2892;
760.5000;0.6691;1.2940;
760.8000;0.6659;1.2844;
761.1000;0.6699;1.3012;
761.4000;0.6691;1.3108;
761.7000;0.6675;1.3036;
762.0000;0.6675;1.3060;
762.3000;0.6683;1.3060;
762.6000;0.6691;1.3108;
762.9000;0.6659;1.3131;
763.2000;0.6691;1.3155;
763.5000;0.6675;1.3155;
763.8000;0.6667;1.3108;
764.1000;0.6683;1.3155;
764.4000;0.6659;1.3060;
764.7000;0.6642;1.2988;
765.0000;0.6650;1.3036;
765.3000;0.6642;1.3012;
765.6000;0.6642;1.3012;
765.9000;0.6610;1.2988;
766.2000;0.6707;1.3203;
766.5000;0.6667;1.3060;
766.8000;0.6659;1.3036;
767.1000;0.6634;1.2964;
767.4000;0.6642;1.2916;
767.7000;0.6650;1.2868;
768.0000;0.6659;1.2892;
768.3000;0.6642;1.2892;
768.6000;0.6675;1.2964;
768.9000;0.6675;1.2916;
769.2000;0.6642;1.2868;
769.5000;0.6610;1.2868;
769.8000;0.6634;1.2940;
770.1000;0.6618;1.2916;
770.4000;0.6634;1.2964;
770.7000;0.6642;1.2964;
771.0000;0.6650;1.2916;
771.3000;0.6642;1.2844;
771.6000;0.6634;1.2796;
771.9000;0.6626;1.2724;
772.2000;0.6593;1.2724;
772.5000;0.6610;1.2820;
772.8000;0.6626;1.2868;
773.1000;0.6618;1.2796;
773.4000;0.6602;1.2772;
773.7000;0.6634;1.2820;
774.0000;0.6642;1.2916;
774.3000;0.6585;1.2820;
774.6000;0.6610;1.2940;
774.9000;0.6691;1.3179;
775.2000;0.6626;1.3012;
775.5000;0.6650;1.3131;
775.8000;0.6618;1.3084;
776.1000;0.6602;1.3131;
776.4000;0.6593;1.3084;
776.7000;0.6618;1.3108;
777.0000;0.6593;1.3131;
777.3000;0.6618;1.3179;
777.6000;0.6602;1.3131;
777.9000;0.6610;1.3084;
778.2000;0.6610;1.3060;
778.5000;0.6642;1.3060;
778.8000;0.6610;1.2988;
779.1000;0.6626;1.3012;
779.4000;0.6626;1.3108;
779.7000;0.6602;1.2988;
780.0000;0.6634;1.3036;
780.3000;0.6626;1.2964;
780.6000;0.6618;1.2940;
780.9000;0.6585;1.2892;
781.2000;0.6593;1.3012;
781.5000;0.6650;1.3203;
781.8000;0.6602;1.3179;
782.1000;0.6610;1.3179;
782.4000;0.6585;1.3179;
782.7000;0.6593;1.3203;
783.0000;0.6610;1.3179;
783.3000;0.6593;1.3084;
783.6000;0.6602;1.3060;
783.9000;0.6561;1.2892;
784.2000;0.6585;1.2964;
784.5000;0.6618;1.2988;
784.8000;0.6593;1.2916;
785.1000;0.6602;1.2964;
785.4000;0.6602;1.3012;
785.7000;0.6610;1.2964;
786.0000;0.6577;1.2892;
786.3000;0.6545;1.2940;
786.6000;0.6585;1.3036;
786.9000;0.6610;1.3084;
787.2000;0.6593;1.3036;
787.5000;0.6536;1.2868;
787.8000;0.6569;1.2988;
788.1000;0.6553;1.2964;
788.4000;0.6561;1.2988;
788.7000;0.6593;1.3012;
789.0000;0.6593;1.3012;
789.3000;0.6585;1.3012;
789.6000;0.6577;1.2916;
789.9000;0.6577;1.2868;
790.2000;0.6561;1.2892;
790.5000;0.6577;1.2916;
790.8000;0.6561;1.2940;
791.1000;0.6593;1.3060;
791.4000;0.6561;1.3131;
791.7000;0.6577;1.3179;
792.0000;0.6577;1.3131;
792.3000;0.6602;1.3108;
792.6000;0.6577;1.3084;
792.9000;0.6561;1.3036;
793.2000;0.6585;1.3060;
793.5000;0.6553;1.3108;
793.8000;0.6585;1.3179;
794.1000;0.6569;1.3131;
794.4000;0.6593;1.3131;
794.7000;0.6602;1.3131;
795.0000;0.6553;1.3060;
795.3000;0.6577;1.3227;
795.6000;0.6577;1.3227;
795.9000;0.6610;1.3323;
796.2000;0.6593;1.3179;
796.5000;0.6561;1.3131;
796.8000;0.6504;1.2940;
797.1000;0.6561;1.3084;
797.4000;0.6577;1.3108;
797.7000;0.6585;1.3084;
798.0000;0.6545;1.3036;
798.3000;0.6553;1.2988;
798.6000;0.6577;1.3012;
798.9000;0.6593;1.3131;
799.2000;0.6536;1.3012;
799.5000;0.6553;1.3108;
799.8000;0.6553;1.3108;
800.1000;0.6536;1.2964;
800.4000;0.6553;1.2940;
800.7000;0.6561;1.2964;
801.0000;0.6520;1.2844;
801.3000;0.6528;1.2916;
801.6000;0.6536;1.2940;
801.9000;0.6569;1.3084;
802.2000;0.6561;1.3084;
802.5000;0.6585;1.3108;
802.8000;0.6528;1.2868;
803.1000;0.6561;1.2988;
803.4000;0.6569;1.3036;
803.7000;0.6528;1.2988;
804.0000;0.6512;1.2964;
804.3000;0.6536;1.3036;
804.6000;0.6545;1.3155;
804.9000;0.6553;1.3203;
805.2000;0.6520;1.3108;
805.5000;0.6512;1.3084;
805.8000;0.6545;1.3084;
806.1000;0.6561;1.3012;
806.4000;0.6528;1.2892;
806.7000;0.6520;1.3036;
807.0000;0.6528;1.3131;
807.3000;0.6528;1.3108;
807.6000;0.6528;1.3084;
807.9000;0.6536;1.3012;
808.2000;0.6536;1.3108;
808.5000;0.6528;1.3012;
808.8000;0.6520;1.2988;
809.1000;0.6512;1.2964;
809.4000;0.6520;1.2940;
809.7000;0.6536;1.2940;
810.0000;0.6553;1.2916;
810.3000;0.6504;1.2844;
810.6000;0.6536;1.2964;
810.9000;0.6512;1.2964;
811.2000;0.6520;1.3060;
811.5000;0.6496;1.2964;
811.8000;0.6512;1.2964;
812.1000;0.6471;1.2868;
812.4000;0.6520;1.3012;
812.7000;0.6504;1.3060;
813.0000;0.6463;1.2916;
813.3000;0.6496;1.3036;
813.6000;0.6528;1.3084;
813.9000;0.6504;1.3131;
814.2000;0.6496;1.3084;
814.5000;0.6496;1.3060;
814.8000;0.6520;1.3155;
815.1000;0.6512;1.3227;
815.4000;0.6545;1.3275;
815.7000;0.6512;1.3227;
816.0000;0.6528;1.3347;
816.3000;0.6528;1.3299;
816.6000;0.6496;1.3155;
816.9000;0.6512;1.3131;
817.2000;0.6496;1.3131;
817.5000;0.6512;1.3131;
817.8000;0.6545;1.3179;
818.1000;0.6496;1.3131;
818.4000;0.6520;1.3084;
818.7000;0.6504;1.3060;
819.0000;0.6528;1.2940;
819.3000;0.6512;1.2988;
819.6000;0.6479;1.2940;
819.9000;0.6520;1.3012;
820.2000;0.6512;1.3036;
820.5000;0.6536;1.3060;
820.8000;0.6520;1.3060;
821.1000;0.6479;1.2940;
821.4000;0.6520;1.3012;
821.7000;0.6488;1.2940;
822.0000;0.6488;1.3084;
822.3000;0.6488;1.3060;
822.6000;0.6479;1.2964;
822.9000;0.6479;1.2940;
823.2000;0.6488;1.3012;
823.5000;0.6479;1.3012;
823.8000;0.6471;1.2964;
824.1000;0.6512;1.3060;
824.4000;0.6471;1.3060;
824.7000;0.6504;1.3060;
825.0000;0.6496;1.3060;
825.3000;0.6488;1.3131;
825.6000;0.6463;1.3108;
825.9000;0.6479;1.3155;
826.2000;0.6488;1.3155;
826.5000;0.6496;1.3108;
826.8000;0.6488;1.3131;
827.1000;0.6479;1.3179;
827.4000;0.6496;1.3251;
827.7000;0.6496;1.3203;
828.0000;0.6463;1.3179;
828.3000;0.6479;1.3203;
828.6000;0.6463;1.3084;
828.9000;0.6496;1.3203;
829.2000;0.6479;1.3155;
829.5000;0.6471;1.3131;
829.8000;0.6463;1.3203;
830.1000;0.6479;1.3251;
830.4000;0.6471;1.3251;
830.7000;0.6471;1.3203;
831.0000;0.6431;1.3036;
831.3000;0.6520;1.3179;
831.6000;0.6479;1.3084;
831.9000;0.6471;1.3036;
832.2000;0.6455;1.3036;
832.5000;0.6488;1.3084;
832.8000;0.6479;1.3131;
833.1000;0.6455;1.3108;
833.4000;0.6463;1.3227;
833.7000;0.6447;1.3155;
834.0000;0.6471;1.3203;
834.3000;0.6471;1.3203;
834.6000;0.6463;1.3323;
834.9000;0.6488;1.3275;
835.2000;0.6479;1.3347;
835.5000;0.6471;1.3347;
835.8000;0.6439;1.3203;
836.1000;0.6439;1.3155;
836.4000;0.6455;1.3131;
836.7000;0.6471;1.3179;
837.0000;0.6431;1.3131;
837.3000;0.6447;1.3131;
837.6000;0.6455;1.3179;
837.9000;0.6439;1.3155;
838.2000;0.6471;1.3227;
838.5000;0.6439;1.3203;
838.8000;0.6479;1.3275;
839.1000;0.6439;1.3131;
839.4000;0.6455;1.3060;
839.7000;0.6471;1.3084;
840.0000;0.6455;1.3108;
840.3000;0.6479;1.3155;
840.6000;0.6479;1.3227;
840.9000;0.6447;1.3155;
841.2000;0.6455;1.3179;
841.5000;0.6463;1.3179;
841.8000;0.6471;1.3275;
842.1000;0.6463;1.3251;
842.4000;0.6447;1.3179;
842.7000;0.6488;1.3251;
843.0000;0.6479;1.3275;
843.3000;0.6496;1.3251;
843.6000;0.6447;1.3179;
843.9000;0.6374;1.3012;
844.2000;0.6447;1.3155;
844.5000;0.6447;1.3203;
844.8000;0.6455;1.3275;
845.1000;0.6455;1.3299;
845.4000;0.6463;1.3227;
845.7000;0.6447;1.3203;
846.0000;0.6463;1.3299;
846.3000;0.6455;1.3347;
846.6000;0.6406;1.3227;
846.9000;0.6447;1.3179;
847.2000;0.6439;1.3108;
847.5000;0.6447;1.3084;
847.8000;0.6414;1.3108;
848.1000;0.6422;1.3108;
848.4000;0.6439;1.3060;
848.7000;0.6439;1.3012;
849.0000;0.6439;1.3084;
849.3000;0.6439;1.3108;
849.6000;0.6439;1.3060;
849.9000;0.6447;1.3108;
850.2000;0.6431;1.3060;
850.5000;0.6439;1.3012;
850.8000;0.6447;1.3036;
851.1000;0.6447;1.3012;
851.4000;0.6431;1.2964;
851.7000;0.6455;1.2964;
852.0000;0.6463;1.2964;
852.3000;0.6439;1.2916;
852.6000;0.6455;1.2796;
852.9000;0.6455;1.2700;
853.2000;0.6439;1.2724;
853.5000;0.6431;1.2604;
853.8000;0.6422;1.2700;
854.1000;0.6439;1.2724;
854.4000;0.6471;1.2748;
854.7000;0.6447;1.2724;
855.0000;0.6422;1.2748;
855.3000;0.6431;1.2820;
855.6000;0.6439;1.2868;
855.9000;0.6439;1.2916;
856.2000;0.6512;1.3155;
856.5000;0.6439;1.2916;
856.8000;0.6447;1.2964;
857.1000;0.6431;1.2796;
857.4000;0.6414;1.2820;
857.7000;0.6414;1.2844;
858.0000;0.6414;1.2940;
858.3000;0.6390;1.2844;
858.6000;0.6414;1.3036;
858.9000;0.6414;1.3084;
859.2000;0.6431;1.3108;
859.5000;0.6439;1.3227;
859.8000;0.6439;1.3323;
860.1000;0.6439;1.3395;
860.4000;0.6406;1.3251;
860.7000;0.6431;1.3251;
861.0000;0.6431;1.3251;
861.3000;0.6431;1.3155;
861.6000;0.6422;1.3131;
861.9000;0.6431;1.3227;
862.2000;0.6398;1.3131;
862.5000;0.6431;1.3131;
862.8000;0.6439;1.3227;
863.1000;0.6431;1.3203;
863.4000;0.6422;1.3084;
863.7000;0.6422;1.3131;
864.0000;0.6390;1.3036;
864.3000;0.6447;1.3227;
864.6000;0.6439;1.3275;
864.9000;0.6431;1.3299;
865.2000;0.6414;1.3275;
865.5000;0.6390;1.3371;
865.8000;0.6406;1.3395;
866.1000;0.6431;1.3467;
866.4000;0.6414;1.3443;
866.7000;0.6439;1.3371;
867.0000;0.6431;1.3251;
867.3000;0.6520;1.3491;
867.6000;0.6414;1.3227;
867.9000;0.6406;1.3251;
868.2000;0.6406;1.3227;
868.5000;0.6390;1.3227;
868.8000;0.6406;1.3203;
869.1000;0.6365;1.3060;
869.4000;0.6406;1.3179;
869.7000;0.6398;1.3251;
870.0000;0.6422;1.3323;
870.3000;0.6414;1.3299;
870.6000;0.6431;1.3395;
870.9000;0.6414;1.3395;
871.2000;0.6398;1.3347;
871.5000;0.6382;1.3323;
871.8000;0.6390;1.3275;
872.1000;0.6414;1.3323;
872.4000;0.6431;1.3227;
872.7000;0.6422;1.3251;
873.0000;0.6398;1.3108;
873.3000;0.6390;1.3060;
873.6000;0.6414;1.3084;
873.9000;0.6382;1.2964;
874.2000;0.6406;1.3012;
874.5000;0.6382;1.3060;
874.8000;0.6398;1.3179;
875.1000;0.6374;1.3036;
875.4000;0.6398;1.3155;
875.7000;0.6398;1.3155;
876.0000;0.6439;1.3227;
876.3000;0.6422;1.3203;
876.6000;0.6357;1.2988;
876.9000;0.6463;1.3227;
877.2000;0.6406;1.3155;
877.5000;0.6414;1.3275;
877.8000;0.6414;1.3251;
878.1000;0.6341;1.3012;
878.4000;0.6414;1.3131;
878.7000;0.6406;1.3036;
879.0000;0.6512;1.3347;
879.3000;0.6382;1.3060;
879.6000;0.6398;1.3084;
879.9000;0.6382;1.3060;
880.2000;0.6488;1.3227;
880.5000;0.6349;1.2940;
880.8000;0.6365;1.2964;
881.1000;0.6422;1.3155;
881.4000;0.6382;1.3084;
881.7000;0.6422;1.3131;
882.0000;0.6374;1.3084;
882.3000;0.6414;1.3299;
882.6000;0.6382;1.3227;
882.9000;0.6382;1.3251;
883.2000;0.6406;1.3275;
883.5000;0.6341;1.3227;
883.8000;0.6374;1.3251;
884.1000;0.6382;1.3275;
884.4000;0.6382;1.3371;
884.7000;0.6398;1.3371;
885.0000;0.6398;1.3395;
885.3000;0.6390;1.3347;
885.6000;0.6357;1.3323;
885.9000;0.6374;1.3395;
886.2000;0.6382;1.3443;
886.5000;0.6390;1.3515;
886.8000;0.6406;1.3563;
887.1000;0.6374;1.3539;
887.4000;0.6333;1.3467;
887.7000;0.6398;1.3515;
888.0000;0.6325;1.3323;
888.3000;0.6414;1.3491;
888.6000;0.6390;1.3419;
888.9000;0.6382;1.3395;
889.2000;0.6398;1.3395;
889.5000;0.6398;1.3275;
889.8000;0.6382;1.3227;
890.1000;0.6309;1.3060;
890.4000;0.6382;1.3347;
890.7000;0.6390;1.3371;
891.0000;0.6374;1.3467;
891.3000;0.6382;1.3467;
891.6000;0.6398;1.3491;
891.9000;0.6374;1.3347;
892.2000;0.6382;1.3395;
892.5000;0.6357;1.3371;
892.8000;0.6325;1.3251;
893.1000;0.6365;1.3371;
893.4000;0.6349;1.3347;
893.7000;0.6374;1.3467;
894.0000;0.6357;1.3515;
894.3000;0.6365;1.3539;
894.6000;0.6349;1.3443;
894.9000;0.6365;1.3467;
895.2000;0.6382;1.3539;
895.5000;0.6349;1.3419;
895.8000;0.6365;1.3371;
896.1000;0.6374;1.3443;
896.4000;0.6333;1.3371;
896.7000;0.6349;1.3395;
897.0000;0.6382;1.3371;
897.3000;0.6349;1.3395;
897.6000;0.6374;1.3323;
897.9000;0.6374;1.3323;
898.2000;0.6341;1.3323;
898.5000;0.6374;1.3467;
898.8000;0.6374;1.3443;
899.1000;0.6374;1.3419;
899.4000;0.6382;1.3467;
899.7000;0.6365;1.3491;
900.0000;0.6374;1.3491;
900.3000;0.6365;1.3395;
900.6000;0.6382;1.3419;
900.9000;0.6341;1.3323;
901.2000;0.6398;1.3323;
901.5000;0.6317;1.3203;
901.8000;0.6374;1.3419;
902.1000;0.6374;1.3467;
902.4000;0.6341;1.3323;
902.7000;0.6390;1.3443;
903.0000;0.6382;1.3467;
903.3000;0.6349;1.3419;
903.6000;0.6357;1.3491;
903.9000;0.6357;1.3395;
904.2000;0.6317;1.3347;
904.5000;0.6341;1.3371;
904.8000;0.6333;1.3323;
905.1000;0.6333;1.3299;
905.4000;0.6365;1.3443;
905.7000;0.6333;1.3395;
906.0000;0.6357;1.3419;
906.3000;0.6333;1.3371;
906.6000;0.6325;1.3299;
906.9000;0.6341;1.3419;
907.2000;0.6349;1.3491;
907.5000;0.6406;1.3731;
907.8000;0.6349;1.3635;
908.1000;0.6374;1.3659;
908.4000;0.6317;1.3587;
908.7000;0.6349;1.3611;
909.0000;0.6349;1.3587;
909.3000;0.6333;1.3611;
909.6000;0.6349;1.3515;
909.9000;0.6333;1.3443;
910.2000;0.6333;1.3419;
910.5000;0.6333;1.3299;
910.8000;0.6365;1.3419;
911.1000;0.6357;1.3467;
911.4000;0.6357;1.3443;
911.7000;0.6374;1.3443;
912.0000;0.6365;1.3467;
912.3000;0.6309;1.3299;
912.6000;0.6349;1.3443;
912.9000;0.6349;1.3539;
913.2000;0.6357;1.3419;
913.5000;0.6349;1.3443;
913.8000;0.6365;1.3467;
914.1000;0.6357;1.3443;
914.4000;0.6349;1.3347;
914.7000;0.6341;1.3251;
915.0000;0.6317;1.3203;
915.3000;0.6357;1.3251;
915.6000;0.6374;1.3275;
915.9000;0.6341;1.3323;
916.2000;0.6349;1.3371;
916.5000;0.6341;1.3299;
916.8000;0.6341;1.3371;
917.1000;0.6341;1.3395;
917.4000;0.6333;1.3419;
917.7000;0.6341;1.3443;
918.0000;0.6333;1.3419;
918.3000;0.6333;1.3491;
918.6000;0.6325;1.3515;
918.9000;0.6325;1.3419;
919.2000;0.6349;1.3419;
919.5000;0.6422;1.3587;
919.8000;0.6317;1.3371;
920.1000;0.6325;1.3467;
920.4000;0.6341;1.3443;
920.7000;0.6333;1.3395;
921.0000;0.6374;1.3467;
921.3000;0.6333;1.3299;
921.6000;0.6300;1.3179;
921.9000;0.6325;1.3347;
922.2000;0.6341;1.3443;
922.5000;0.6309;1.3419;
922.8000;0.6333;1.3395;
923.1000;0.6398;1.3515;
923.4000;0.6349;1.3347;
923.7000;0.6349;1.3323;
924.0000;0.6333;1.3347;
924.3000;0.6284;1.3251;
924.6000;0.6357;1.3371;
924.9000;0.6325;1.3395;
925.2000;0.6317;1.3299;
925.5000;0.6341;1.3275;
925.8000;0.6325;1.3299;
926.1000;0.6268;1.3179;
926.4000;0.6325;1.3443;
926.7000;0.6325;1.3443;
927.0000;0.6252;1.3227;
927.3000;0.6341;1.3443;
927.6000;0.6227;1.3155;
927.9000;0.6325;1.3371;
928.2000;0.6252;1.3179;
928.5000;0.6341;1.3467;
928.8000;0.6325;1.3395;
929.1000;0.6317;1.3275;
929.4000;0.6325;1.3299;
929.7000;0.6317;1.3275;
930.0000;0.6325;1.3275;
930.3000;0.6309;1.3251;
930.6000;0.6325;1.3347;
930.9000;0.6341;1.3443;
931.2000;0.6309;1.3395;
931.5000;0.6333;1.3419;
931.8000;0.6317;1.3323;
932.1000;0.6333;1.3347;
932.4000;0.6333;1.3371;
932.7000;0.6325;1.3395;
933.0000;0.6325;1.3395;
933.3000;0.6325;1.3419;
933.6000;0.6333;1.3395;
933.9000;0.6317;1.3347;
934.2000;0.6309;1.3227;
934.5000;0.6317;1.3179;
934.8000;0.6325;1.3251;
935.1000;0.6333;1.3251;
935.4000;0.6317;1.3347;
935.7000;0.6300;1.3299;
936.0000;0.6325;1.3395;
936.3000;0.6309;1.3395;
936.6000;0.6309;1.3323;
936.9000;0.6317;1.3443;
937.2000;0.6333;1.3491;
937.5000;0.6382;1.3611;
937.8000;0.6365;1.3635;
938.1000;0.6309;1.3587;
938.4000;0.6325;1.3587;
938.7000;0.6309;1.3539;
939.0000;0.6309;1.3563;
939.3000;0.6292;1.3539;
939.6000;0.6284;1.3563;
939.9000;0.6300;1.3563;
940.2000;0.6317;1.3539;
940.5000;0.6276;1.3371;
940.8000;0.6333;1.3515;
941.1000;0.6317;1.3419;
941.4000;0.6284;1.3395;
941.7000;0.6300;1.3419;
942.0000;0.6309;1.3443;
942.3000;0.6300;1.3515;
942.6000;0.6276;1.3515;
942.9000;0.6284;1.3467;
943.2000;0.6309;1.3515;
943.5000;0.6300;1.3491;
943.8000;0.6300;1.3467;
944.1000;0.6300;1.3491;
944.4000;0.6300;1.3419;
944.7000;0.6317;1.3395;
945.0000;0.6309;1.3371;
945.3000;0.6309;1.3395;
945.6000;0.6309;1.3419;
945.9000;0.6292;1.3299;
946.2000;0.6300;1.3251;
946.5000;0.6300;1.3323;
946.8000;0.6317;1.3347;
947.1000;0.6374;1.3443;
947.4000;0.6317;1.3251;
947.7000;0.6317;1.3227;
948.0000;0.6284;1.3227;
948.3000;0.6357;1.3395;
948.6000;0.6317;1.3227;
948.9000;0.6317;1.3251;
949.2000;0.6300;1.3227;
949.5000;0.6309;1.3227;
949.8000;0.6317;1.3275;
950.1000;0.6292;1.3299;
950.4000;0.6349;1.3395;
950.7000;0.6284;1.3299;
951.0000;0.6252;1.3227;
951.3000;0.6309;1.3323;
951.6000;0.6292;1.3251;
951.9000;0.6309;1.3347;
952.2000;0.6260;1.3299;
952.5000;0.6382;1.3587;
952.8000;0.6292;1.3419;
953.1000;0.6292;1.3443;
953.4000;0.6243;1.3227;
953.7000;0.6349;1.3635;
954.0000;0.6300;1.3563;
954.3000;0.6276;1.3467;
954.6000;0.6268;1.3491;
954.9000;0.6284;1.3515;
955.2000;0.6284;1.3467;
955.5000;0.6292;1.3443;
955.8000;0.6284;1.3395;
956.1000;0.6284;1.3371;
956.4000;0.6211;1.3203;
956.7000;0.6300;1.3371;
957.0000;0.6292;1.3395;
957.3000;0.6276;1.3467;
957.6000;0.6211;1.3323;
957.9000;0.6292;1.3491;
958.2000;0.6317;1.3563;
958.5000;0.6300;1.3467;
958.8000;0.6300;1.3515;
959.1000;0.6284;1.3347;
959.4000;0.6227;1.3251;
959.7000;0.6292;1.3443;
960.0000;0.6309;1.3419;
960.3000;0.6284;1.3371;
960.6000;0.6317;1.3371;
960.9000;0.6300;1.3395;
961.2000;0.6357;1.3587;
961.5000;0.6276;1.3419;
961.8000;0.6292;1.3443;
962.1000;0.6268;1.3299;
962.4000;0.6284;1.3371;
962.7000;0.6300;1.3395;
963.0000;0.6276;1.3371;
963.3000;0.6300;1.3467;
963.6000;0.6235;1.3347;
963.9000;0.6268;1.3395;
964.2000;0.6276;1.3395;
964.5000;0.6292;1.3371;
964.8000;0.6252;1.3323;
965.1000;0.6284;1.3467;
965.4000;0.6333;1.3635;
965.7000;0.6260;1.3419;
966.0000;0.6276;1.3395;
966.3000;0.6276;1.3467;
966.6000;0.6292;1.3467;
966.9000;0.6300;1.3443;
967.2000;0.6284;1.3491;
967.5000;0.6284;1.3467;
967.8000;0.6309;1.3635;
968.1000;0.6276;1.3539;
968.4000;0.6276;1.3539;
968.7000;0.6309;1.3587;
969.0000;0.6309;1.3683;
969.3000;0.6276;1.3659;
969.6000;0.6284;1.3563;
969.9000;0.6309;1.3563;
970.2000;0.6284;1.3491;
970.5000;0.6292;1.3491;
970.8000;0.6276;1.3587;
971.1000;0.6292;1.3587;
971.4000;0.6284;1.3587;
971.7000;0.6300;1.3659;
972.0000;0.6284;1.3635;
972.3000;0.6284;1.3587;
972.6000;0.6292;1.3611;
972.9000;0.6300;1.3635;
973.2000;0.6284;1.3611;
973.5000;0.6276;1.3635;
973.8000;0.6300;1.3659;
974.1000;0.6317;1.3659;
974.4000;0.6284;1.3563;
974.7000;0.6260;1.3587;
975.0000;0.6252;1.3539;
975.3000;0.6268;1.3563;
975.6000;0.6260;1.3491;
975.9000;0.6268;1.3587;
976.2000;0.6341;1.3731;
976.5000;0.6268;1.3515;
976.8000;0.6284;1.3539;
977.1000;0.6276;1.3467;
977.4000;0.6252;1.3467;
977.7000;0.6284;1.3467;
978.0000;0.6284;1.3539;
978.3000;0.6243;1.3491;
978.6000;0.6260;1.3539;
978.9000;0.6276;1.3515;
979.2000;0.6284;1.3467;
979.5000;0.6284;1.3539;
979.8000;0.6276;1.3515;
980.1000;0.6284;1.3515;
980.4000;0.6333;1.3635;
980.7000;0.6284;1.3539;
981.0000;0.6252;1.3491;
981.3000;0.6325;1.3611;
981.6000;0.6284;1.3491;
981.9000;0.6260;1.3419;
982.2000;0.6292;1.3491;
982.5000;0.6260;1.3419;
982.8000;0.6292;1.3563;
983.1000;0.6227;1.3347;
983.4000;0.6268;1.3323;
983.7000;0.6276;1.3395;
984.0000;0.6284;1.3371;
984.3000;0.6284;1.3419;
984.6000;0.6276;1.3347;
984.9000;0.6292;1.3395;
985.2000;0.6309;1.3419;
985.5000;0.6284;1.3347;
985.8000;0.6292;1.3347;
986.1000;0.6260;1.3227;
986.4000;0.6276;1.3227;
986.7000;0.6276;1.3155;
987.0000;0.6268;1.3203;
987.3000;0.6276;1.3227;
987.6000;0.6260;1.3179;
987.9000;0.6260;1.3155;
988.2000;0.6260;1.3155;
988.5000;0.6203;1.3060;
988.8000;0.6268;1.3227;
989.1000;0.6235;1.3131;
989.4000;0.6276;1.3323;
989.7000;0.6268;1.3299;
990.0000;0.6284;1.3323;
990.3000;0.6252;1.3275;
990.6000;0.6276;1.3299;
990.9000;0.6284;1.3275;
991.2000;0.6276;1.3227;
991.5000;0.6300;1.3299;
991.8000;0.6260;1.3155;
992.1000;0.6260;1.3131;
992.4000;0.6276;1.3179;
992.7000;0.6268;1.3131;
993.0000;0.6260;1.3084;
993.3000;0.6284;1.3179;
993.6000;0.6309;1.3251;
993.9000;0.6260;1.3251;
994.2000;0.6276;1.3299;
994.5000;0.6276;1.3299;
994.8000;0.6268;1.3347;
995.1000;0.6268;1.3371;
995.4000;0.6219;1.3323;
995.7000;0.6268;1.3395;
996.0000;0.6227;1.3275;
996.3000;0.6243;1.3395;
996.6000;0.6292;1.3491;
996.9000;0.6357;1.3611;
997.2000;0.6309;1.3371;
997.5000;0.6252;1.3323;
997.8000;0.6284;1.3371;
998.1000;0.6260;1.3395;
998.4000;0.6219;1.3227;
998.7000;0.6300;1.3371;
999.0000;0.6219;1.3084;
999.3000;0.6243;1.3203;
999.6000;0.6260;1.3275;
999.9000;0.6260;1.3251;
1000.2000;0.6243;1.3179;
1000.5000;0.6260;1.3179;
1000.8000;0.6260;1.3227;
1001.1000;0.6186;1.3084;
1001.4000;0.6243;1.3275;
1001.7000;0.6268;1.3371;
1002.0000;0.6260;1.3299;
1002.3000;0.6284;1.3395;
1002.6000;0.6260;1.3419;
1002.9000;0.6235;1.3395;
1003.2000;0.6211;1.3395;
1003.5000;0.6219;1.3467;
1003.8000;0.6268;1.3587;
1004.1000;0.6268;1.3563;
1004.4000;0.6243;1.3491;
1004.7000;0.6243;1.3491;
1005.0000;0.6243;1.3539;
1005.3000;0.6243;1.3491;
1005.6000;0.6252;1.3515;
1005.9000;0.6178;1.3323;
1006.2000;0.6243;1.3467;
1006.5000;0.6252;1.3443;
1006.8000;0.6235;1.3443;
1007.1000;0.6260;1.3443;
1007.4000;0.6260;1.3371;
1007.7000;0.6235;1.3323;
1008.0000;0.6252;1.3395;
1008.3000;0.6235;1.3395;
1008.6000;0.6260;1.3491;
1008.9000;0.6268;1.3539;
1009.2000;0.6260;1.3491;
1009.5000;0.6227;1.3395;
1009.8000;0.6260;1.3563;
1010.1000;0.6284;1.3707;
1010.4000;0.6252;1.3635;
1010.7000;0.6252;1.3659;
1011.0000;0.6260;1.3778;
1011.3000;0.6252;1.3731;
1011.6000;0.6284;1.3778;
1011.9000;0.6252;1.3754;
1012.2000;0.6252;1.3778;
1012.5000;0.6260;1.3802;
1012.8000;0.6268;1.3778;
1013.1000;0.6243;1.3707;
1013.4000;0.6252;1.3707;
1013.7000;0.6260;1.3659;
1014.0000;0.6227;1.3587;
1014.3000;0.6227;1.3563;
1014.6000;0.6260;1.3611;
1014.9000;0.6235;1.3491;
1015.2000;0.6243;1.3491;
1015.5000;0.6252;1.3539;
1015.8000;0.6268;1.3515;
1016.1000;0.6260;1.3467;
1016.4000;0.6260;1.3467;
1016.7000;0.6268;1.3563;
1017.0000;0.6243;1.3539;
1017.3000;0.6268;1.3539;
1017.6000;0.6268;1.3539;
1017.9000;0.6235;1.3515;
1018.2000;0.6260;1.3515;
1018.5000;0.6227;1.3467;
1018.8000;0.6276;1.3611;
1019.1000;0.6235;1.3587;
1019.4000;0.6260;1.3587;
1019.7000;0.6252;1.3611;
1020.0000;0.6243;1.3563;
1020.3000;0.6235;1.3635;
1020.6000;0.6235;1.3659;
1020.9000;0.6235;1.3611;
1021.2000;0.6227;1.3587;
1021.5000;0.6235;1.3587;
1021.8000;0.6227;1.3587;
1022.1000;0.6219;1.3611;
1022.4000;0.6170;1.3467;
1022.7000;0.6252;1.3754;
1023.0000;0.6211;1.3683;
1023.3000;0.6235;1.3659;
1023.6000;0.6243;1.3563;
1023.9000;0.6243;1.3539;
1024.2000;0.6235;1.3563;
1024.5000;0.6227;1.3611;
1024.8000;0.6243;1.3635;
1025.1000;0.6243;1.3611;
1025.4000;0.6235;1.3563;
1025.7000;0.6235;1.3539;
1026.0000;0.6243;1.3539;
1026.3000;0.6252;1.3611;
1026.6000;0.6252;1.3611;
1026.9000;0.6252;1.3635;
1027.2000;0.6227;1.3611;
1027.5000;0.6235;1.3587;
1027.8000;0.6260;1.3587;
1028.1000;0.6252;1.3659;
1028.4000;0.6243;1.3635;
1028.7000;0.6243;1.3683;
1029.0000;0.6260;1.3707;
1029.3000;0.6268;1.3731;
1029.6000;0.6243;1.3683;
1029.9000;0.6260;1.3731;
1030.2000;0.6235;1.3611;
1030.5000;0.6260;1.3659;
1030.8000;0.6243;1.3635;
1031.1000;0.6252;1.3635;
1031.4000;0.6252;1.3587;
1031.7000;0.6252;1.3659;
1032.0000;0.6252;1.3635;
1032.3000;0.6235;1.3611;
1032.6000;0.6219;1.3491;
1032.9000;0.6300;1.3659;
1033.2000;0.6227;1.3587;
1033.5000;0.6195;1.3419;
1033.8000;0.6235;1.3515;
1034.1000;0.6235;1.3587;
1034.4000;0.6227;1.3635;
1034.7000;0.6219;1.3659;
1035.0000;0.6235;1.3731;
1035.3000;0.6227;1.3683;
1035.6000;0.6227;1.3659;
1035.9000;0.6235;1.3659;
1036.2000;0.6252;1.3635;
1036.5000;0.6227;1.3611;
1036.8000;0.6284;1.3802;
1037.1000;0.6243;1.3731;
1037.4000;0.6227;1.3611;
1037.7000;0.6235;1.3611;
1038.0000;0.6227;1.3587;
1038.3000;0.6243;1.3635;
1038.6000;0.6243;1.3587;
1038.9000;0.6211;1.3491;
1039.2000;0.6276;1.3683;
1039.5000;0.6252;1.3659;
1039.8000;0.6252;1.3731;
1040.1000;0.6243;1.3635;
1040.4000;0.6252;1.3731;
1040.7000;0.6252;1.3731;
1041.0000;0.6243;1.3707;
1041.3000;0.6235;1.3707;
1041.6000;0.6252;1.3659;
1041.9000;0.6260;1.3659;
1042.2000;0.6211;1.3491;
1042.5000;0.6235;1.3539;
1042.8000;0.6227;1.3635;
1043.1000;0.6276;1.3707;
1043.4000;0.6268;1.3635;
1043.7000;0.6333;1.3874;
1044.0000;0.6219;1.3659;
1044.3000;0.6219;1.3611;
1044.6000;0.6243;1.3635;
1044.9000;0.6211;1.3515;
1045.2000;0.6268;1.3635;
1045.5000;0.6252;1.3587;
1045.8000;0.6243;1.3611;
1046.1000;0.6235;1.3539;
1046.4000;0.6154;1.3347;
1046.7000;0.6227;1.3515;
1047.0000;0.6219;1.3395;
1047.3000;0.6219;1.3395;
1047.6000;0.6219;1.3395;
1047.9000;0.6227;1.3467;
1048.2000;0.6243;1.3563;
1048.5000;0.6276;1.3539;
1048.8000;0.6235;1.3419;
1049.1000;0.6235;1.3395;
1049.4000;0.6219;1.3491;
1049.7000;0.6235;1.3467;
1050.0000;0.6235;1.3371;
1050.3000;0.6243;1.3395;
1050.6000;0.6235;1.3467;
1050.9000;0.6243;1.3539;
1051.2000;0.6227;1.3539;
1051.5000;0.6252;1.3491;
1051.8000;0.6317;1.3683;
1052.1000;0.6235;1.3443;
1052.4000;0.6268;1.3395;
1052.7000;0.6243;1.3323;
1053.0000;0.6260;1.3419;
1053.3000;0.6235;1.3443;
1053.6000;0.6235;1.3443;
1053.9000;0.6227;1.3467;
1054.2000;0.6227;1.3467;
1054.5000;0.6252;1.3707;
1054.8000;0.6235;1.3731;
1055.1000;0.6203;1.3659;
1055.4000;0.6219;1.3635;
1055.7000;0.6243;1.3659;
1056.0000;0.6235;1.3611;
1056.3000;0.6211;1.3635;
1056.6000;0.6219;1.3611;
1056.9000;0.6211;1.3587;
1057.2000;0.6243;1.3587;
1057.5000;0.6227;1.3515;
1057.8000;0.6219;1.3467;
1058.1000;0.6235;1.3515;
1058.4000;0.6235;1.3467;
1058.7000;0.6227;1.3443;
1059.0000;0.6211;1.3443;
1059.3000;0.6227;1.3467;
1059.6000;0.6235;1.3491;
1059.9000;0.6243;1.3563;
1060.2000;0.6235;1.3611;
1060.5000;0.6138;1.3419;
1060.8000;0.6235;1.3659;
1061.1000;0.6227;1.3587;
1061.4000;0.6227;1.3587;
1061.7000;0.6325;1.3898;
1062.0000;0.6203;1.3731;
1062.3000;0.6227;1.3659;
1062.6000;0.6170;1.3443;
1062.9000;0.6227;1.3587;
1063.2000;0.6260;1.3707;
1063.5000;0.6219;1.3659;
1063.8000;0.6276;1.3850;
1064.1000;0.6219;1.3731;
1064.4000;0.6235;1.3731;
1064.7000;0.6235;1.3754;
1065.0000;0.6203;1.3611;
1065.3000;0.6252;1.3611;
1065.6000;0.6235;1.3611;
1065.9000;0.6219;1.3587;
1066.2000;0.6211;1.3563;
1066.5000;0.6186;1.3515;
1066.8000;0.6195;1.3491;
1067.1000;0.6219;1.3491;
1067.4000;0.6211;1.3491;
1067.7000;0.6186;1.3443;
1068.0000;0.6195;1.3467;
1068.3000;0.6203;1.3467;
1068.6000;0.6195;1.3443;
1068.9000;0.6186;1.3515;
1069.2000;0.6170;1.3491;
1069.5000;0.6219;1.3587;
1069.8000;0.6227;1.3635;
1070.1000;0.6211;1.3515;
1070.4000;0.6219;1.3491;
1070.7000;0.6243;1.3539;
1071.0000;0.6211;1.3539;
1071.3000;0.6243;1.3635;
1071.6000;0.6243;1.3539;
1071.9000;0.6235;1.3515;
1072.2000;0.6227;1.3539;
1072.5000;0.6154;1.3395;
1072.8000;0.6219;1.3539;
1073.1000;0.6219;1.3539;
1073.4000;0.6203;1.3539;
1073.7000;0.6219;1.3515;
1074.0000;0.6219;1.3443;
1074.3000;0.6195;1.3443;
1074.6000;0.6243;1.3635;
1074.9000;0.6219;1.3587;
1075.2000;0.6170;1.3371;
1075.5000;0.6227;1.3443;
1075.8000;0.6243;1.3395;
1076.1000;0.6243;1.3323;
1076.4000;0.6170;1.3251;
1076.7000;0.6227;1.3419;
1077.0000;0.6203;1.3443;
1077.3000;0.6219;1.3443;
1077.6000;0.6227;1.3515;
1077.9000;0.6211;1.3539;
1078.2000;0.6235;1.3563;
1078.5000;0.6195;1.3491;
1078.8000;0.6211;1.3539;
1079.1000;0.6243;1.3563;
1079.4000;0.6211;1.3611;
1079.7000;0.6300;1.3922;
1080.0000;0.6219;1.3826;
1080.3000;0.6203;1.3802;
1080.6000;0.6219;1.3802;
1080.9000;0.6219;1.3707;
1081.2000;0.6195;1.3659;
1081.5000;0.6317;1.3946;
1081.8000;0.6203;1.3754;
1082.1000;0.6211;1.3802;
1082.4000;0.6211;1.3754;
1082.7000;0.6235;1.3802;
1083.0000;0.6186;1.3754;
1083.3000;0.6195;1.3850;
1083.6000;0.6162;1.3683;
1083.9000;0.6203;1.3707;
1084.2000;0.6211;1.3754;
1084.5000;0.6170;1.3707;
1084.8000;0.6211;1.3683;
1085.1000;0.6219;1.3635;
1085.4000;0.6235;1.3611;
1085.7000;0.6235;1.3515;
1086.0000;0.6203;1.3515;
1086.3000;0.6195;1.3563;
1086.6000;0.6219;1.3587;
1086.9000;0.6154;1.3443;
1087.2000;0.6195;1.3539;
1087.5000;0.6227;1.3683;
1087.8000;0.6203;1.3707;
1088.1000;0.6162;1.3587;
1088.4000;0.6203;1.3563;
1088.7000;0.6227;1.3515;
1089.0000;0.6203;1.3491;
1089.3000;0.6211;1.3539;
1089.6000;0.6195;1.3491;
1089.9000;0.6186;1.3539;
1090.2000;0.6162;1.3563;
1090.5000;0.6211;1.3707;
1090.8000;0.6203;1.3683;
1091.1000;0.6203;1.3635;
1091.4000;0.6186;1.3515;
1091.7000;0.6227;1.3539;
1092.0000;0.6219;1.3515;
1092.3000;0.6211;1.3587;
1092.6000;0.6186;1.3515;
1092.9000;0.6211;1.3539;
1093.2000;0.6203;1.3491;
1093.5000;0.6195;1.3515;
1093.8000;0.6203;1.3515;
1094.1000;0.6211;1.3539;
1094.4000;0.6227;1.3515;
1094.7000;0.6211;1.3563;
1095.0000;0.6235;1.3611;
1095.3000;0.6219;1.3635;
1095.6000;0.6203;1.3635;
1095.9000;0.6211;1.3683;
1096.2000;0.6186;1.3587;
1096.5000;0.6203;1.3539;
1096.8000;0.6195;1.3587;
1097.1000;0.6195;1.3467;
1097.4000;0.6211;1.3491;
1097.7000;0.6195;1.3395;
1098.0000;0.6203;1.3419;
1098.3000;0.6243;1.3515;
1098.6000;0.6219;1.3539;
1098.9000;0.6178;1.3491;
1099.2000;0.6195;1.3491;
1099.5000;0.6195;1.3491;
1099.8000;0.6203;1.3467;
1100.1000;0.6129;1.3347;
1100.4000;0.6186;1.3515;
1100.7000;0.6195;1.3659;
1101.0000;0.6195;1.3611;
1101.3000;0.6211;1.3611;
1101.6000;0.6203;1.3563;
1101.9000;0.6219;1.3611;
1102.2000;0.6195;1.3587;
1102.5000;0.6203;1.3611;
1102.8000;0.6235;1.3683;
1103.1000;0.6211;1.3707;
1103.4000;0.6195;1.3659;
1103.7000;0.6178;1.3707;
1104.0000;0.6195;1.3659;
1104.3000;0.6211;1.3659;
1104.6000;0.6195;1.3635;
1104.9000;0.6195;1.3707;
1105.2000;0.6203;1.3707;
1105.5000;0.6227;1.3778;
1105.8000;0.6195;1.3707;
1106.1000;0.6195;1.3659;
1106.4000;0.6195;1.3731;
1106.7000;0.6186;1.3707;
1107.0000;0.6219;1.3778;
1107.3000;0.6195;1.3659;
1107.6000;0.6203;1.3539;
1107.9000;0.6203;1.3539;
1108.2000;0.6211;1.3659;
1108.5000;0.6235;1.3659;
1108.8000;0.6211;1.3683;
1109.1000;0.6195;1.3778;
1109.4000;0.6203;1.3802;
1109.7000;0.6178;1.3683;
1110.0000;0.6186;1.3683;
1110.3000;0.6203;1.3683;
1110.6000;0.6203;1.3611;
1110.9000;0.6203;1.3611;
1111.2000;0.6195;1.3635;
1111.5000;0.6195;1.3635;
1111.8000;0.6211;1.3659;
1112.1000;0.6138;1.3563;
1112.4000;0.6154;1.3563;
1112.7000;0.6211;1.3683;
1113.0000;0.6219;1.3707;
1113.3000;0.6170;1.3587;
1113.6000;0.6203;1.3563;
1113.9000;0.6268;1.3731;
1114.2000;0.6186;1.3539;
1114.5000;0.6195;1.3587;
1114.8000;0.6195;1.3635;
1115.1000;0.6195;1.3563;
1115.4000;0.6186;1.3539;
1115.7000;0.6203;1.3587;
1116.0000;0.6178;1.3587;
1116.3000;0.6178;1.3587;
1116.6000;0.6195;1.3659;
1116.9000;0.6268;1.3850;
1117.2000;0.6276;1.3850;
1117.5000;0.6186;1.3611;
1117.8000;0.6186;1.3587;
1118.1000;0.6203;1.3587;
1118.4000;0.6203;1.3587;
1118.7000;0.6178;1.3467;
1119.0000;0.6203;1.3539;
1119.3000;0.6203;1.3539;
1119.6000;0.6203;1.3563;
1119.9000;0.6195;1.3515;
1120.2000;0.6211;1.3635;
1120.5000;0.6195;1.3563;
1120.8000;0.6211;1.3635;
1121.1000;0.6195;1.3587;
1121.4000;0.6203;1.3515;
1121.7000;0.6211;1.3443;
1122.0000;0.6268;1.3539;
1122.3000;0.6211;1.3515;
1122.6000;0.6203;1.3443;
1122.9000;0.6186;1.3443;
1123.2000;0.6203;1.3515;
1123.5000;0.6186;1.3419;
1123.8000;0.6178;1.3467;
1124.1000;0.6186;1.3539;
1124.4000;0.6178;1.3611;
1124.7000;0.6186;1.3587;
1125.0000;0.6178;1.3611;
1125.3000;0.6162;1.3611;
1125.6000;0.6178;1.3635;
1125.9000;0.6203;1.3635;
1126.2000;0.6170;1.3563;
1126.5000;0.6186;1.3563;
1126.8000;0.6178;1.3611;
1127.1000;0.6219;1.3635;
1127.4000;0.6178;1.3515;
1127.7000;0.6178;1.3611;
1128.0000;0.6170;1.3683;
1128.3000;0.6186;1.3731;
1128.6000;0.6178;1.3778;
1128.9000;0.6203;1.3731;
1129.2000;0.6170;1.3587;
1129.5000;0.6162;1.3635;
1129.8000;0.6186;1.3707;
1130.1000;0.6178;1.3659;
1130.4000;0.6178;1.3707;
1130.7000;0.6186;1.3754;
1131.0000;0.6195;1.3754;
1131.3000;0.6211;1.3754;
1131.6000;0.6178;1.3659;
1131.9000;0.6162;1.3563;
1132.2000;0.6195;1.3611;
1132.5000;0.6195;1.3635;
1132.8000;0.6186;1.3659;
1133.1000;0.6186;1.3611;
1133.4000;0.6170;1.3563;
1133.7000;0.6195;1.3611;
1134.0000;0.6186;1.3611;
1134.3000;0.6170;1.3683;
1134.6000;0.6195;1.3659;
1134.9000;0.6146;1.3611;
1135.2000;0.6178;1.3683;
1135.5000;0.6195;1.3635;
1135.8000;0.6178;1.3611;
1136.1000;0.6129;1.3539;
1136.4000;0.6252;1.3754;
1136.7000;0.6186;1.3635;
1137.0000;0.6219;1.3611;
1137.3000;0.6195;1.3611;
1137.6000;0.6186;1.3587;
1137.9000;0.6186;1.3491;
1138.2000;0.6178;1.3395;
1138.5000;0.6170;1.3371;
1138.8000;0.6186;1.3443;
1139.1000;0.6235;1.3611;
1139.4000;0.6186;1.3515;
1139.7000;0.6195;1.3539;
1140.0000;0.6195;1.3539;
1140.3000;0.6195;1.3467;
1140.6000;0.6178;1.3443;
1140.9000;0.6195;1.3347;
1141.2000;0.6211;1.3371;
1141.5000;0.6178;1.3323;
1141.8000;0.6178;1.3323;
1142.1000;0.6178;1.3323;
1142.4000;0.6195;1.3419;
1142.7000;0.6195;1.3515;
1143.0000;0.6186;1.3587;
1143.3000;0.6219;1.3587;
1143.6000;0.6203;1.3587;
1143.9000;0.6195;1.3539;
1144.2000;0.6186;1.3515;
1144.5000;0.6195;1.3515;
1144.8000;0.6219;1.3611;
1145.1000;0.6219;1.3587;
1145.4000;0.6170;1.3491;
1145.7000;0.6195;1.3443;
1146.0000;0.6186;1.3491;
1146.3000;0.6178;1.3539;
1146.6000;0.6178;1.3491;
1146.9000;0.6178;1.3467;
1147.2000;0.6195;1.3491;
1147.5000;0.6170;1.3467;
1147.8000;0.6154;1.3395;
1148.1000;0.6186;1.3515;
1148.4000;0.6178;1.3467;
1148.7000;0.6186;1.3515;
1149.0000;0.6170;1.3515;
1149.3000;0.6186;1.3515;
1149.6000;0.6178;1.3515;
1149.9000;0.6203;1.3563;
1150.2000;0.6178;1.3515;
1150.5000;0.6178;1.3539;
1150.8000;0.6178;1.3587;
1151.1000;0.6178;1.3563;
1151.4000;0.6178;1.3587;
1151.7000;0.6170;1.3635;
1152.0000;0.6162;1.3611;
1152.3000;0.6178;1.3635;
1152.6000;0.6170;1.3587;
1152.9000;0.6170;1.3515;
1153.2000;0.6162;1.3491;
1153.5000;0.6162;1.3539;
1153.8000;0.6186;1.3587;
1154.1000;0.6195;1.3563;
1154.4000;0.6162;1.3419;
1154.7000;0.6186;1.3443;
1155.0000;0.6186;1.3491;
1155.3000;0.6186;1.3539;
1155.6000;0.6203;1.3611;
1155.9000;0.6170;1.3587;
1156.2000;0.6186;1.3611;
1156.5000;0.6186;1.3683;
1156.8000;0.6170;1.3659;
1157.1000;0.6178;1.3683;
1157.4000;0.6195;1.3754;
1157.7000;0.6178;1.3731;
1158.0000;0.6138;1.3659;
1158.3000;0.6170;1.3754;
1158.6000;0.6178;1.3683;
1158.9000;0.6178;1.3611;
1159.2000;0.6195;1.3683;
1159.5000;0.6186;1.3683;
1159.8000;0.6178;1.3731;
1160.1000;0.6260;1.3850;
1160.4000;0.6195;1.3659;
1160.7000;0.6186;1.3731;
1161.0000;0.6195;1.3778;
1161.3000;0.6235;1.3731;
1161.6000;0.6195;1.3587;
1161.9000;0.6186;1.3587;
1162.2000;0.6195;1.3707;
1162.5000;0.6178;1.3659;
1162.8000;0.6186;1.3659;
1163.1000;0.6178;1.3563;
1163.4000;0.6178;1.3515;
1163.7000;0.6178;1.3467;
1164.0000;0.6170;1.3419;
1164.3000;0.6170;1.3371;
1164.6000;0.6170;1.3347;
1164.9000;0.6154;1.3395;
1165.2000;0.6178;1.3419;
1165.5000;0.6138;1.3251;
1165.8000;0.6170;1.3467;
1166.1000;0.6195;1.3515;
1166.4000;0.6162;1.3491;
1166.7000;0.6178;1.3515;
1167.0000;0.6138;1.3467;
1167.3000;0.6162;1.3587;
1167.6000;0.6178;1.3659;
1167.9000;0.6203;1.3683;
1168.2000;0.6195;1.3515;
1168.5000;0.6138;1.3443;
1168.8000;0.6211;1.3587;
1169.1000;0.6186;1.3515;
1169.4000;0.6195;1.3515;
1169.7000;0.6203;1.3587;
1170.0000;0.6203;1.3563;
1170.3000;0.6178;1.3491;
1170.6000;0.6178;1.3611;
1170.9000;0.6252;1.3850;
1171.2000;0.6178;1.3587;
1171.5000;0.6170;1.3515;
1171.8000;0.6195;1.3539;
1172.1000;0.6162;1.3467;
1172.4000;0.6089;1.3347;
1172.7000;0.6186;1.3611;
1173.0000;0.6178;1.3539;
1173.3000;0.6154;1.3539;
1173.6000;0.6170;1.3539;
1173.9000;0.6170;1.3563;
1174.2000;0.6178;1.3539;
1174.5000;0.6138;1.3467;
1174.8000;0.6178;1.3563;
1175.1000;0.6178;1.3587;
1175.4000;0.6170;1.3539;
1175.7000;0.6195;1.3419;
1176.0000;0.6178;1.3323;
1176.3000;0.6195;1.3419;
1176.6000;0.6154;1.3299;
1176.9000;0.6138;1.3347;
1177.2000;0.6113;1.3275;
1177.5000;0.6195;1.3491;
1177.8000;0.6178;1.3443;
1178.1000;0.6178;1.3539;
1178.4000;0.6203;1.3635;
1178.7000;0.6129;1.3395;
1179.0000;0.6178;1.3563;
1179.3000;0.6178;1.3539;
1179.6000;0.6170;1.3467;
1179.9000;0.6186;1.3467;
1180.2000;0.6178;1.3467;
1180.5000;0.6170;1.3491;
1180.8000;0.6186;1.3539;
1181.1000;0.6081;1.3371;
1181.4000;0.6178;1.3611;
1181.7000;0.6170;1.3563;
1182.0000;0.6097;1.3443;
1182.3000;0.6162;1.3587;
1182.6000;0.6227;1.3754;
1182.9000;0.6186;1.3611;
1183.2000;0.6162;1.3563;
1183.5000;0.6178;1.3587;
1183.8000;0.6178;1.3635;
1184.1000;0.6170;1.3611;
1184.4000;0.6146;1.3611;
1184.7000;0.6170;1.3587;
1185.0000;0.6138;1.3515;
1185.3000;0.6170;1.3563;
1185.6000;0.6178;1.3539;
1185.9000;0.6186;1.3587;
1186.2000;0.6178;1.3467;
1186.5000;0.6170;1.3539;
1186.8000;0.6186;1.3467;
1187.1000;0.6178;1.3515;
1187.4000;0.6162;1.3515;
1187.7000;0.6186;1.3659;
1188.0000;0.6154;1.3635;
1188.3000;0.6170;1.3563;
1188.6000;0.6178;1.3539;
1188.9000;0.6170;1.3587;
1189.2000;0.6154;1.3539;
1189.5000;0.6235;1.3683;
1189.8000;0.6138;1.3563;
1190.1000;0.6186;1.3731;
1190.4000;0.6178;1.3754;
1190.7000;0.6162;1.3754;
1191.0000;0.6178;1.3707;
1191.3000;0.6162;1.3611;
1191.6000;0.6170;1.3611;
1191.9000;0.6186;1.3683;
1192.2000;0.6186;1.3683;
1192.5000;0.6162;1.3563;
1192.8000;0.6178;1.3611;
1193.1000;0.6170;1.3659;
1193.4000;0.6178;1.3587;
1193.7000;0.6170;1.3491;
1194.0000;0.6138;1.3467;
1194.3000;0.6162;1.3563;
1194.6000;0.6186;1.3659;
1194.9000;0.6243;1.3778;
1195.2000;0.6170;1.3659;
1195.5000;0.6170;1.3707;
1195.8000;0.6186;1.3754;
1196.1000;0.6162;1.3683;
1196.4000;0.6162;1.3659;
1196.7000;0.6162;1.3659;
1197.0000;0.6154;1.3635;
1197.3000;0.6154;1.3635;
1197.6000;0.6162;1.3683;
1197.9000;0.6170;1.3635;
1198.2000;0.6170;1.3683;
1198.5000;0.6162;1.3563;
1198.8000;0.6146;1.3587;
1199.1000;0.6138;1.3539;
1199.4000;0.6129;1.3419;
1199.7000;0.6146;1.3419;
1200.0000;0.6154;1.3467;
1200.3000;0.6154;1.3443;
1200.6000;0.6121;1.3395;
1200.9000;0.6195;1.3539;
1201.2000;0.6170;1.3323;
1201.5000;0.6146;1.3275;
1201.8000;0.6162;1.3395;
1202.1000;0.6162;1.3443;
1202.4000;0.6162;1.3587;
1202.7000;0.6072;1.3419;
1203.0000;0.6154;1.3611;
1203.3000;0.6186;1.3754;
1203.6000;0.6154;1.3635;
1203.9000;0.6178;1.3659;
1204.2000;0.6170;1.3587;
1204.5000;0.6178;1.3491;
1204.8000;0.6186;1.3491;
1205.1000;0.6243;1.3491;
1205.4000;0.6186;1.3395;
1205.7000;0.6162;1.3347;
1206.0000;0.6162;1.3371;
1206.3000;0.6170;1.3443;
1206.6000;0.6170;1.3443;
1206.9000;0.6170;1.3539;
1207.2000;0.6178;1.3563;
1207.5000;0.6178;1.3635;
1207.8000;0.6162;1.3587;
1208.1000;0.6154;1.3611;
1208.4000;0.6178;1.3659;
1208.7000;0.6186;1.3683;
1209.0000;0.6154;1.3587;
1209.3000;0.6170;1.3683;
1209.6000;0.6154;1.3635;
1209.9000;0.6195;1.3731;
1210.2000;0.6195;1.3683;
1210.5000;0.6138;1.3563;
1210.8000;0.6154;1.3683;
1211.1000;0.6178;1.3683;
1211.4000;0.6178;1.3707;
1211.7000;0.6178;1.3683;
1212.0000;0.6162;1.3611;
1212.3000;0.6146;1.3539;
1212.6000;0.6178;1.3683;
1212.9000;0.6170;1.3731;
1213.2000;0.6170;1.3754;
1213.5000;0.6227;1.3826;
1213.8000;0.6162;1.3731;
1214.1000;0.6154;1.3683;
1214.4000;0.6170;1.3802;
1214.7000;0.6170;1.3826;
1215.0000;0.6154;1.3731;
1215.3000;0.6162;1.3754;
1215.6000;0.6227;1.3898;
1215.9000;0.6170;1.3850;
1216.2000;0.6162;1.3826;
1216.5000;0.6170;1.3778;
1216.8000;0.6154;1.3850;
1217.1000;0.6186;1.3898;
1217.4000;0.6154;1.3874;
1217.7000;0.6170;1.3970;
1218.0000;0.6138;1.3946;
1218.3000;0.6138;1.3946;
1218.6000;0.6178;1.4018;
1218.9000;0.6162;1.4018;
1219.2000;0.6178;1.4018;
1219.5000;0.6138;1.3946;
1219.8000;0.6162;1.3898;
1220.1000;0.6178;1.3970;
1220.4000;0.6178;1.3994;
1220.7000;0.6154;1.3874;
1221.0000;0.6243;1.4186;
1221.3000;0.6138;1.3826;
1221.6000;0.6186;1.3802;
1221.9000;0.6186;1.3731;
1222.2000;0.6154;1.3731;
1222.5000;0.6170;1.3778;
1222.8000;0.6178;1.3826;
1223.1000;0.6146;1.3707;
1223.4000;0.6170;1.3802;
1223.7000;0.6162;1.3707;
1224.0000;0.6154;1.3683;
1224.3000;0.6154;1.3611;
1224.6000;0.6154;1.3587;
1224.9000;0.6203;1.3778;
1225.2000;0.6211;1.3898;
1225.5000;0.6186;1.3874;
1225.8000;0.6162;1.3778;
1226.1000;0.6146;1.3731;
1226.4000;0.6138;1.3754;
1226.7000;0.6178;1.3683;
1227.0000;0.6121;1.3491;
1227.3000;0.6154;1.3611;
1227.6000;0.6170;1.3683;
1227.9000;0.6162;1.3707;
1228.2000;0.6138;1.3778;
1228.5000;0.6162;1.3850;
1228.8000;0.6170;1.3802;
1229.1000;0.6170;1.3826;
1229.4000;0.6170;1.3874;
1229.7000;0.6162;1.3826;
1230.0000;0.6162;1.3826;
1230.3000;0.6162;1.3874;
1230.6000;0.6170;1.3754;
1230.9000;0.6178;1.3778;
1231.2000;0.6121;1.3731;
1231.5000;0.6162;1.3754;
1231.8000;0.6178;1.3731;
1232.1000;0.6129;1.3659;
1232.4000;0.6154;1.3778;
1232.7000;0.6178;1.3826;
1233.0000;0.6211;1.3850;
1233.3000;0.6170;1.3659;
1233.6000;0.6170;1.3611;
1233.9000;0.6170;1.3635;
1234.2000;0.6186;1.3731;
1234.5000;0.6154;1.3587;
1234.8000;0.6154;1.3611;
1235.1000;0.6154;1.3563;
1235.4000;0.6162;1.3539;
1235.7000;0.6146;1.3587;
1236.0000;0.6178;1.3826;
1236.3000;0.6170;1.3778;
1236.6000;0.6154;1.3731;
1236.9000;0.6186;1.3922;
1237.2000;0.6162;1.3802;
1237.5000;0.6154;1.3778;
1237.8000;0.6195;1.3826;
1238.1000;0.6170;1.3731;
1238.4000;0.6154;1.3778;
1238.7000;0.6146;1.3778;
1239.0000;0.6195;1.3826;
1239.3000;0.6138;1.3754;
1239.6000;0.6154;1.3874;
1239.9000;0.6105;1.3731;
1240.2000;0.6138;1.3970;
1240.5000;0.6162;1.3994;
1240.8000;0.6146;1.3874;
1241.1000;0.6138;1.3754;
1241.4000;0.6154;1.3826;
1241.7000;0.6154;1.3802;
1242.0000;0.6154;1.3778;
1242.3000;0.6138;1.3778;
1242.6000;0.6138;1.3802;
1242.9000;0.6146;1.3802;
1243.2000;0.6146;1.3802;
1243.5000;0.6146;1.3802;
1243.8000;0.6154;1.3778;
1244.1000;0.6162;1.3826;
1244.4000;0.6154;1.3659;
1244.7000;0.6146;1.3659;
1245.0000;0.6129;1.3635;
1245.3000;0.6138;1.3683;
1245.6000;0.6178;1.3754;
1245.9000;0.6162;1.3707;
1246.2000;0.6129;1.3707;
1246.5000;0.6154;1.3707;
1246.8000;0.6178;1.3707;
1247.1000;0.6154;1.3659;
1247.4000;0.6146;1.3707;
1247.7000;0.6146;1.3659;
1248.0000;0.6154;1.3683;
1248.3000;0.6154;1.3731;
1248.6000;0.6154;1.3754;
1248.9000;0.6146;1.3826;
1249.2000;0.6146;1.3754;
1249.5000;0.6138;1.3754;
1249.8000;0.6178;1.3898;
1250.1000;0.6178;1.3898;
1250.4000;0.6170;1.3850;
1250.7000;0.6162;1.3802;
1251.0000;0.6195;1.3874;
1251.3000;0.6146;1.3707;
1251.6000;0.6154;1.3754;
1251.9000;0.6154;1.3802;
1252.2000;0.6146;1.3778;
1252.5000;0.6154;1.3874;
1252.8000;0.6129;1.3898;
1253.1000;0.6162;1.3970;
1253.4000;0.6170;1.3994;
1253.7000;0.6154;1.3946;
1254.0000;0.6146;1.3946;
1254.3000;0.6146;1.3922;
1254.6000;0.6146;1.3898;
1254.9000;0.6154;1.3850;
1255.2000;0.6146;1.3874;
1255.5000;0.6138;1.3898;
1255.8000;0.6154;1.3970;
1256.1000;0.6138;1.3994;
1256.4000;0.6129;1.3898;
1256.7000;0.6146;1.3874;
1257.0000;0.6170;1.3946;
1257.3000;0.6146;1.3922;
1257.6000;0.6146;1.3898;
1257.9000;0.6129;1.3826;
1258.2000;0.6146;1.3802;
1258.5000;0.6146;1.3754;
1258.8000;0.6154;1.3802;
1259.1000;0.6146;1.3802;
1259.4000;0.6178;1.3826;
1259.7000;0.6146;1.3707;
1260.0000;0.6146;1.3707;
1260.3000;0.6146;1.3802;
1260.6000;0.6146;1.3754;
1260.9000;0.6154;1.3754;
1261.2000;0.6146;1.3707;
1261.5000;0.6162;1.3659;
1261.8000;0.6154;1.3563;
1262.1000;0.6146;1.3515;
1262.4000;0.6154;1.3539;
1262.7000;0.6146;1.3635;
1263.0000;0.6154;1.3659;
1263.3000;0.6170;1.3707;
1263.6000;0.6170;1.3683;
1263.9000;0.6154;1.3659;
1264.2000;0.6170;1.3707;
1264.5000;0.6146;1.3635;
1264.8000;0.6154;1.3635;
1265.1000;0.6170;1.3731;
1265.4000;0.6138;1.3754;
1265.7000;0.6105;1.3587;
1266.0000;0.6170;1.3683;
1266.3000;0.6170;1.3707;
1266.6000;0.6146;1.3635;
1266.9000;0.6146;1.3683;
1267.2000;0.6146;1.3635;
1267.5000;0.6170;1.3683;
1267.8000;0.6178;1.3707;
1268.1000;0.6138;1.3683;
1268.4000;0.6138;1.3587;
1268.7000;0.6162;1.3587;
1269.0000;0.6146;1.3539;
1269.3000;0.6138;1.3563;
1269.6000;0.6154;1.3659;
1269.9000;0.6154;1.3683;
1270.2000;0.6138;1.3754;
1270.5000;0.6121;1.3850;
1270.8000;0.6138;1.3898;
1271.1000;0.6081;1.3754;
1271.4000;0.6081;1.3778;
1271.7000;0.6121;1.3802;
1272.0000;0.6146;1.3826;
1272.3000;0.6146;1.3826;
1272.6000;0.6154;1.3778;
1272.9000;0.6113;1.3683;
1273.2000;0.6129;1.3707;
1273.5000;0.6162;1.3778;
1273.8000;0.6162;1.3826;
1274.1000;0.6211;1.3946;
1274.4000;0.6129;1.3874;
1274.7000;0.6154;1.3946;
1275.0000;0.6129;1.3946;
1275.3000;0.6138;1.4066;
1275.6000;0.6154;1.4018;
1275.9000;0.6121;1.3970;
1276.2000;0.6154;1.4042;
1276.5000;0.6162;1.4114;
1276.8000;0.6146;1.4090;
1277.1000;0.6154;1.4018;
1277.4000;0.6138;1.3826;
1277.7000;0.6186;1.3898;
1278.0000;0.6162;1.3898;
1278.3000;0.6121;1.3850;
1278.6000;0.6138;1.3874;
1278.9000;0.6146;1.3922;
1279.2000;0.6154;1.3826;
1279.5000;0.6162;1.3850;
1279.8000;0.6097;1.3754;
1280.1000;0.6138;1.3874;
1280.4000;0.6138;1.3874;
1280.7000;0.6154;1.3778;
1281.0000;0.6121;1.3850;
1281.3000;0.6138;1.3754;
1281.6000;0.6129;1.3778;
1281.9000;0.6146;1.3754;
1282.2000;0.6162;1.3778;
1282.5000;0.6056;1.3611;
1282.8000;0.6138;1.3898;
1283.1000;0.6154;1.3922;
1283.4000;0.6138;1.3850;
1283.7000;0.6154;1.3898;
1284.0000;0.6170;1.3994;
1284.3000;0.6154;1.3946;
1284.6000;0.6154;1.3970;
1284.9000;0.6154;1.3994;
1285.2000;0.6154;1.3970;
1285.5000;0.6105;1.3826;
1285.8000;0.6121;1.3874;
1286.1000;0.6138;1.3874;
1286.4000;0.6048;1.3683;
1286.7000;0.6138;1.4018;
1287.0000;0.6138;1.4066;
1287.3000;0.6138;1.4114;
1287.6000;0.6081;1.3922;
1287.9000;0.6056;1.3778;
1288.2000;0.6138;1.3898;
1288.5000;0.6129;1.3946;
1288.8000;0.6146;1.4018;
1289.1000;0.6146;1.4090;
1289.4000;0.6154;1.4138;
1289.7000;0.6154;1.4162;
1290.0000;0.6146;1.4138;
1290.3000;0.6113;1.3994;
1290.6000;0.6097;1.3826;
1290.9000;0.6129;1.3802;
1291.2000;0.6138;1.3754;
1291.5000;0.6186;1.3898;
1291.8000;0.6154;1.3850;
1292.1000;0.6129;1.3874;
1292.4000;0.6203;1.4066;
1292.7000;0.6154;1.3922;
1293.0000;0.6129;1.3802;
1293.3000;0.6138;1.3850;
1293.6000;0.6138;1.3850;
1293.9000;0.6138;1.3826;
1294.2000;0.6146;1.3731;
1294.5000;0.6113;1.3659;
1294.8000;0.6129;1.3731;
1295.1000;0.6113;1.3707;
1295.4000;0.6138;1.3731;
1295.7000;0.6235;1.3850;
1296.0000;0.6162;1.3731;
1296.3000;0.6129;1.3683;
1296.6000;0.6146;1.3707;
1296.9000;0.6162;1.3683;
1297.2000;0.6113;1.3563;
1297.5000;0.6129;1.3563;
1297.8000;0.6154;1.3659;
1298.1000;0.6146;1.3731;
1298.4000;0.6154;1.3778;
1298.7000;0.6138;1.3731;
1299.0000;0.6178;1.3826;
1299.3000;0.6146;1.3778;
1299.6000;0.6195;1.3874;
1299.9000;0.6195;1.3970;
1300.2000;0.6138;1.3850;
1300.5000;0.6170;1.3922;
1300.8000;0.6146;1.3850;
1301.1000;0.6138;1.3754;
1301.4000;0.6146;1.3635;
1301.7000;0.6121;1.3587;
1302.0000;0.6186;1.3802;
1302.3000;0.6097;1.3635;
1302.6000;0.6129;1.3707;
1302.9000;0.6146;1.3802;
1303.2000;0.6154;1.3826;
1303.5000;0.6170;1.3874;
1303.8000;0.6138;1.3802;
1304.1000;0.6121;1.3754;
1304.4000;0.6162;1.3754;
1304.7000;0.6129;1.3707;
1305.0000;0.6105;1.3683;
1305.3000;0.6097;1.3587;
1305.6000;0.6089;1.3611;
1305.9000;0.6121;1.3659;
1306.2000;0.6121;1.3731;
1306.5000;0.6129;1.3778;
1306.8000;0.6129;1.3802;
1307.1000;0.6105;1.3778;
1307.4000;0.6203;1.4018;
1307.7000;0.6129;1.3731;
1308.0000;0.6227;1.3994;
1308.3000;0.6129;1.3707;
1308.6000;0.6138;1.3850;
1308.9000;0.6154;1.3850;
1309.2000;0.6146;1.3826;
1309.5000;0.6129;1.3707;
1309.8000;0.6097;1.3659;
1310.1000;0.6138;1.3754;
1310.4000;0.6162;1.3778;
1310.7000;0.6146;1.3778;
1311.0000;0.6146;1.3802;
1311.3000;0.6162;1.3731;
1311.6000;0.6129;1.3707;
1311.9000;0.6138;1.3802;
1312.2000;0.6138;1.3778;
1312.5000;0.6129;1.3754;
1312.8000;0.6162;1.3778;
1313.1000;0.6146;1.3707;
1313.4000;0.6097;1.3754;
1313.7000;0.6146;1.3970;
1314.0000;0.6154;1.3898;
1314.3000;0.6121;1.3850;
1314.6000;0.6138;1.3850;
1314.9000;0.6154;1.3850;
1315.2000;0.6138;1.3802;
1315.5000;0.6138;1.3826;
1315.8000;0.6178;1.3850;
1316.1000;0.6154;1.3874;
1316.4000;0.6129;1.3826;
1316.7000;0.6170;1.3946;
1317.0000;0.6154;1.3874;
1317.3000;0.6129;1.3707;
1317.6000;0.6121;1.3683;
1317.9000;0.6138;1.3802;
1318.2000;0.6146;1.3778;
1318.5000;0.6146;1.3778;
1318.8000;0.6146;1.3778;
1319.1000;0.6138;1.3778;
1319.4000;0.6121;1.3707;
1319.7000;0.6121;1.3683;
1320.0000;0.6170;1.3826;
1320.3000;0.6146;1.3707;
1320.6000;0.6146;1.3707;
1320.9000;0.6138;1.3754;
1321.2000;0.6121;1.3707;
1321.5000;0.6113;1.3635;
1321.8000;0.6113;1.3635;
1322.1000;0.6170;1.3802;
1322.4000;0.6113;1.3539;
1322.7000;0.6162;1.3659;
1323.0000;0.6072;1.3467;
1323.3000;0.6203;1.3946;
1323.6000;0.6203;1.3898;
1323.9000;0.6154;1.3826;
1324.2000;0.6170;1.3898;
1324.5000;0.6121;1.3802;
1324.8000;0.6162;1.3802;
1325.1000;0.6105;1.3635;
1325.4000;0.6154;1.3778;
1325.7000;0.6138;1.3707;
1326.0000;0.6081;1.3515;
1326.3000;0.6105;1.3611;
1326.6000;0.6138;1.3754;
1326.9000;0.6129;1.3778;
1327.2000;0.6113;1.3754;
1327.5000;0.6121;1.3850;
1327.8000;0.6129;1.3898;
1328.1000;0.6113;1.3922;
1328.4000;0.6121;1.3994;
1328.7000;0.6129;1.3898;
1329.0000;0.6113;1.3802;
1329.3000;0.6113;1.3707;
1329.6000;0.6121;1.3778;
1329.9000;0.6129;1.3802;
1330.2000;0.6138;1.3826;
1330.5000;0.6138;1.3683;
1330.8000;0.6146;1.3731;
1331.1000;0.6129;1.3802;
1331.4000;0.6138;1.3754;
1331.7000;0.6138;1.3659;
1332.0000;0.6178;1.3659;
1332.3000;0.6154;1.3611;
1332.6000;0.6154;1.3635;
1332.9000;0.6121;1.3563;
1333.2000;0.6138;1.3707;
1333.5000;0.6113;1.3707;
1333.8000;0.6129;1.3754;
1334.1000;0.6162;1.3826;
1334.4000;0.6146;1.3802;
1334.7000;0.6138;1.3754;
1335.0000;0.6227;1.3946;
1335.3000;0.6154;1.3707;
1335.6000;0.6146;1.3635;
1335.9000;0.6146;1.3731;
1336.2000;0.6121;1.3707;
1336.5000;0.6129;1.3778;
1336.8000;0.6129;1.3754;
1337.1000;0.6146;1.3731;
1337.4000;0.6146;1.3683;
1337.7000;0.6121;1.3707;
1338.0000;0.6129;1.3731;
1338.3000;0.6138;1.3754;
1338.6000;0.6121;1.3659;
1338.9000;0.6138;1.3731;
1339.2000;0.6195;1.3731;
1339.5000;0.6121;1.3611;
1339.8000;0.6064;1.3611;
1340.1000;0.6170;1.3850;
1340.4000;0.6105;1.3659;
1340.7000;0.6121;1.3802;
1341.0000;0.6146;1.3850;
1341.3000;0.6138;1.3874;
1341.6000;0.6138;1.3898;
1341.9000;0.6129;1.3898;
1342.2000;0.6121;1.3826;
1342.5000;0.6146;1.3874;
1342.8000;0.6138;1.3898;
1343.1000;0.6097;1.3850;
1343.4000;0.6138;1.3970;
1343.7000;0.6162;1.4018;
1344.0000;0.6170;1.3994;
1344.3000;0.6129;1.3850;
1344.6000;0.6105;1.3826;
1344.9000;0.6121;1.3850;
1345.2000;0.6129;1.3850;
1345.5000;0.6121;1.3802;
1345.8000;0.6113;1.3802;
1346.1000;0.6186;1.3946;
1346.4000;0.6170;1.3922;
1346.7000;0.6146;1.3874;
1347.0000;0.6146;1.3850;
1347.3000;0.6162;1.3731;
1347.6000;0.6186;1.3778;
1347.9000;0.6129;1.3635;
1348.2000;0.6129;1.3659;
1348.5000;0.6105;1.3587;
1348.8000;0.6138;1.3731;
1349.1000;0.6129;1.3754;
1349.4000;0.6138;1.3754;
1349.7000;0.6146;1.3826;
1350.0000;0.6195;1.3970;
1350.3000;0.6129;1.3802;
1350.6000;0.6105;1.3754;
1350.9000;0.6154;1.3898;
1351.2000;0.6146;1.3874;
1351.5000;0.6129;1.3850;
1351.8000;0.6138;1.3826;
1352.1000;0.6113;1.3826;
1352.4000;0.6138;1.3754;
1352.7000;0.6146;1.3922;
1353.0000;0.6121;1.3898;
1353.3000;0.6032;1.3659;
1353.6000;0.6121;1.3754;
1353.9000;0.6138;1.3754;
1354.2000;0.6138;1.3850;
1354.5000;0.6146;1.3802;
1354.8000;0.6089;1.3611;
1355.1000;0.6129;1.3778;
1355.4000;0.6146;1.3850;
1355.7000;0.6138;1.3802;
1356.0000;0.6146;1.3874;
1356.3000;0.6138;1.3826;
1356.6000;0.6121;1.3826;
1356.9000;0.6146;1.3802;
1357.2000;0.6121;1.3683;
1357.5000;0.6072;1.3587;
1357.8000;0.6146;1.3731;
1358.1000;0.6121;1.3683;
1358.4000;0.6146;1.3731;
1358.7000;0.6129;1.3683;
1359.0000;0.6138;1.3659;
1359.3000;0.6129;1.3563;
1359.6000;0.6146;1.3563;
1359.9000;0.6138;1.3611;
1360.2000;0.6121;1.3611;
1360.5000;0.6113;1.3635;
1360.8000;0.6138;1.3563;
1361.1000;0.6113;1.3563;
1361.4000;0.6129;1.3515;
1361.7000;0.6129;1.3539;
1362.0000;0.6146;1.3563;
1362.3000;0.6186;1.3683;
1362.6000;0.6129;1.3635;
1362.9000;0.6138;1.3587;
1363.2000;0.6129;1.3515;
1363.5000;0.6129;1.3515;
1363.8000;0.6178;1.3778;
1364.1000;0.6138;1.3707;
1364.4000;0.6129;1.3731;
1364.7000;0.6146;1.3778;
1365.0000;0.6138;1.3659;
1365.3000;0.6138;1.3731;
1365.6000;0.6138;1.3659;
1365.9000;0.6138;1.3659;
1366.2000;0.6138;1.3707;
1366.5000;0.6138;1.3778;
1366.8000;0.6138;1.3850;
1367.1000;0.6064;1.3659;
1367.4000;0.6097;1.3611;
1367.7000;0.6121;1.3754;
1368.0000;0.6129;1.3731;
1368.3000;0.6138;1.3659;
1368.6000;0.6129;1.3515;
1368.9000;0.6129;1.3491;
1369.2000;0.6113;1.3515;
1369.5000;0.6129;1.3587;
1369.8000;0.6154;1.3611;
1370.1000;0.6129;1.3683;
1370.4000;0.6138;1.3707;
1370.7000;0.6146;1.3731;
1371.0000;0.6162;1.3850;
1371.3000;0.6186;1.3922;
1371.6000;0.6146;1.3874;
1371.9000;0.6146;1.3946;
1372.2000;0.6121;1.3850;
1372.5000;0.6105;1.3826;
1372.8000;0.6113;1.3754;
1373.1000;0.6113;1.3707;
1373.4000;0.6032;1.3515;
1373.7000;0.6121;1.3731;
1374.0000;0.6154;1.3850;
1374.3000;0.6178;1.3922;
1374.6000;0.6113;1.3922;
1374.9000;0.6105;1.3874;
1375.2000;0.6129;1.3994;
1375.5000;0.6129;1.3970;
1375.8000;0.6138;1.3994;
1376.1000;0.6113;1.3970;
1376.4000;0.6129;1.3970;
1376.7000;0.6121;1.3874;
1377.0000;0.6129;1.3802;
1377.3000;0.6121;1.3802;
1377.6000;0.6113;1.3635;
1377.9000;0.6113;1.3635;
1378.2000;0.6138;1.3659;
1378.5000;0.6113;1.3635;
1378.8000;0.6178;1.3754;
1379.1000;0.6129;1.3587;
1379.4000;0.6097;1.3491;
1379.7000;0.6129;1.3491;
1380.0000;0.6162;1.3587;
1380.3000;0.6081;1.3467;
1380.6000;0.6146;1.3659;
1380.9000;0.6121;1.3635;
1381.2000;0.6129;1.3563;
1381.5000;0.6138;1.3659;
1381.8000;0.6146;1.3683;
1382.1000;0.6162;1.3659;
1382.4000;0.6121;1.3635;
1382.7000;0.6138;1.3802;
1383.0000;0.6121;1.3659;
1383.3000;0.6146;1.3731;
1383.6000;0.6129;1.3683;
1383.9000;0.6121;1.3683;
1384.2000;0.6129;1.3635;
1384.5000;0.6146;1.3707;
1384.8000;0.6105;1.3611;
1385.1000;0.6138;1.3635;
1385.4000;0.6138;1.3707;
1385.7000;0.6138;1.3659;
1386.0000;0.6138;1.3683;
1386.3000;0.6146;1.3659;
1386.6000;0.6089;1.3515;
1386.9000;0.6129;1.3659;
1387.2000;0.6203;1.3850;
1387.5000;0.6170;1.3731;
1387.8000;0.6113;1.3587;
1388.1000;0.6138;1.3659;
1388.4000;0.6162;1.3874;
1388.7000;0.6113;1.3683;
1389.0000;0.6113;1.3683;
1389.3000;0.6170;1.3802;
1389.6000;0.6146;1.3826;
1389.9000;0.6138;1.3707;
1390.2000;0.6146;1.3683;
1390.5000;0.6113;1.3659;
1390.8000;0.6097;1.3539;
1391.1000;0.6097;1.3443;
1391.4000;0.6113;1.3419;
1391.7000;0.6089;1.3371;
1392.0000;0.6121;1.3563;
1392.3000;0.6105;1.3659;
1392.6000;0.6170;1.3850;
1392.9000;0.6121;1.3778;
1393.2000;0.6121;1.3731;
1393.5000;0.6129;1.3778;
1393.8000;0.6121;1.3778;
1394.1000;0.6129;1.3802;
1394.4000;0.6138;1.3778;
1394.7000;0.6129;1.3754;
1395.0000;0.6129;1.3754;
1395.3000;0.6121;1.3707;
1395.6000;0.6154;1.3731;
1395.9000;0.6146;1.3707;
1396.2000;0.6146;1.3754;
1396.5000;0.6138;1.3611;
1396.8000;0.6146;1.3563;
1397.1000;0.6129;1.3467;
1397.4000;0.6138;1.3539;
1397.7000;0.6138;1.3491;
1398.0000;0.6121;1.3515;
1398.3000;0.6129;1.3539;
1398.6000;0.6121;1.3635;
1398.9000;0.6113;1.3587;
1399.2000;0.6097;1.3563;
1399.5000;0.6056;1.3467;
1399.8000;0.6129;1.3683;
