time/ms;Fluo/V;P700 deltaI/I x10³;
-199.8000;0.6642;1.2245;
-199.5000;0.6691;1.2317;
-199.2000;0.6716;1.2293;
-198.9000;0.6707;1.2317;
-198.6000;0.6707;1.2317;
-198.3000;0.6699;1.2437;
-198.0000;0.6716;1.2508;
-197.7000;0.6699;1.2484;
-197.4000;0.6707;1.2461;
-197.1000;0.6716;1.2437;
-196.8000;0.6691;1.2341;
-196.5000;0.6707;1.2341;
-196.2000;0.6732;1.2413;
-195.9000;0.6691;1.2269;
-195.6000;0.6650;1.2197;
-195.3000;0.6683;1.2245;
-195.0000;0.6683;1.2173;
-194.7000;0.6716;1.2245;
-194.4000;0.6707;1.2245;
-194.1000;0.6716;1.2317;
-193.8000;0.6707;1.2413;
-193.5000;0.6707;1.2341;
-193.2000;0.6732;1.2341;
-192.9000;0.6732;1.2389;
-192.6000;0.6764;1.2556;
-192.3000;0.6740;1.2341;
-192.0000;0.6724;1.2341;
-191.7000;0.6683;1.2293;
-191.4000;0.6699;1.2221;
-191.1000;0.6724;1.2149;
-190.8000;0.6724;1.2173;
-190.5000;0.6707;1.2125;
-190.2000;0.6724;1.2197;
-189.9000;0.6716;1.2221;
-189.6000;0.6691;1.2221;
-189.3000;0.6724;1.2317;
-189.0000;0.6724;1.2317;
-188.7000;0.6707;1.2365;
-188.4000;0.6699;1.2389;
-188.1000;0.6699;1.2389;
-187.8000;0.6707;1.2389;
-187.5000;0.6724;1.2437;
-187.2000;0.6699;1.2293;
-186.9000;0.6707;1.2293;
-186.6000;0.6707;1.2317;
-186.3000;0.6732;1.2341;
-186.0000;0.6716;1.2293;
-185.7000;0.6675;1.2221;
-185.4000;0.6675;1.2293;
-185.1000;0.6716;1.2341;
-184.8000;0.6716;1.2269;
-184.5000;0.6724;1.2341;
-184.2000;0.6707;1.2365;
-183.9000;0.6716;1.2484;
-183.6000;0.6707;1.2413;
-183.3000;0.6707;1.2437;
-183.0000;0.6707;1.2484;
-182.7000;0.6675;1.2413;
-182.4000;0.6732;1.2508;
-182.1000;0.6707;1.2461;
-181.8000;0.6716;1.2389;
-181.5000;0.6707;1.2365;
-181.2000;0.6724;1.2389;
-180.9000;0.6716;1.2365;
-180.6000;0.6699;1.2317;
-180.3000;0.6707;1.2173;
-180.0000;0.6707;1.2077;
-179.7000;0.6707;1.1981;
-179.4000;0.6716;1.2101;
-179.1000;0.6691;1.1981;
-178.8000;0.6699;1.1885;
-178.5000;0.6691;1.1885;
-178.2000;0.6716;1.1981;
-177.9000;0.6716;1.1981;
-177.6000;0.6724;1.2005;
-177.3000;0.6716;1.2101;
-177.0000;0.6699;1.2149;
-176.7000;0.6724;1.2221;
-176.4000;0.6716;1.2101;
-176.1000;0.6707;1.2077;
-175.8000;0.6707;1.2149;
-175.5000;0.6716;1.2197;
-175.2000;0.6626;1.2053;
-174.9000;0.6683;1.2173;
-174.6000;0.6699;1.2197;
-174.3000;0.6699;1.2197;
-174.0000;0.6707;1.2197;
-173.7000;0.6707;1.2317;
-173.4000;0.6716;1.2269;
-173.1000;0.6716;1.2245;
-172.8000;0.6716;1.2245;
-172.5000;0.6716;1.2245;
-172.2000;0.6691;1.2245;
-171.9000;0.6699;1.2269;
-171.6000;0.6691;1.2173;
-171.3000;0.6699;1.2245;
-171.0000;0.6707;1.2269;
-170.7000;0.6707;1.2293;
-170.4000;0.6699;1.2221;
-170.1000;0.6699;1.2269;
-169.8000;0.6691;1.2269;
-169.5000;0.6699;1.2317;
-169.2000;0.6716;1.2317;
-168.9000;0.6699;1.2221;
-168.6000;0.6650;1.2029;
-168.3000;0.6716;1.2125;
-168.0000;0.6699;1.2077;
-167.7000;0.6691;1.1981;
-167.4000;0.6732;1.1957;
-167.1000;0.6797;1.2197;
-166.8000;0.6724;1.2077;
-166.5000;0.6724;1.2077;
-166.2000;0.6716;1.2077;
-165.9000;0.6716;1.2173;
-165.6000;0.6716;1.2173;
-165.3000;0.6707;1.2149;
-165.0000;0.6716;1.2101;
-164.7000;0.6707;1.2125;
-164.4000;0.6699;1.2101;
-164.1000;0.6642;1.1909;
-163.8000;0.6699;1.2005;
-163.5000;0.6716;1.2005;
-163.2000;0.6716;1.1981;
-162.9000;0.6724;1.2029;
-162.6000;0.6724;1.2053;
-162.3000;0.6716;1.2101;
-162.0000;0.6707;1.2125;
-161.7000;0.6707;1.2149;
-161.4000;0.6732;1.2221;
-161.1000;0.6683;1.2029;
-160.8000;0.6707;1.2005;
-160.5000;0.6699;1.2005;
-160.2000;0.6691;1.1885;
-159.9000;0.6699;1.1837;
-159.6000;0.6772;1.2053;
-159.3000;0.6707;1.1981;
-159.0000;0.6748;1.1981;
-158.7000;0.6707;1.1933;
-158.4000;0.6699;1.1933;
-158.1000;0.6724;1.2029;
-157.8000;0.6716;1.1981;
-157.5000;0.6683;1.1957;
-157.2000;0.6707;1.2101;
-156.9000;0.6716;1.2101;
-156.6000;0.6724;1.2101;
-156.3000;0.6716;1.2173;
-156.0000;0.6716;1.2221;
-155.7000;0.6716;1.2269;
-155.4000;0.6724;1.2221;
-155.1000;0.6699;1.2125;
-154.8000;0.6707;1.2149;
-154.5000;0.6716;1.2269;
-154.2000;0.6707;1.2269;
-153.9000;0.6699;1.2341;
-153.6000;0.6699;1.2365;
-153.3000;0.6707;1.2341;
-153.0000;0.6797;1.2461;
-152.7000;0.6716;1.2125;
-152.4000;0.6707;1.2125;
-152.1000;0.6732;1.2197;
-151.8000;0.6724;1.2245;
-151.5000;0.6732;1.2317;
-151.2000;0.6724;1.2293;
-150.9000;0.6675;1.2341;
-150.6000;0.6732;1.2437;
-150.3000;0.6724;1.2389;
-150.0000;0.6716;1.2269;
-149.7000;0.6724;1.2293;
-149.4000;0.6707;1.2221;
-149.1000;0.6707;1.2269;
-148.8000;0.6716;1.2197;
-148.5000;0.6683;1.2149;
-148.2000;0.6699;1.2101;
-147.9000;0.6732;1.2221;
-147.6000;0.6707;1.2197;
-147.3000;0.6732;1.2245;
-147.0000;0.6683;1.2125;
-146.7000;0.6724;1.2125;
-146.4000;0.6716;1.2125;
-146.1000;0.6650;1.2077;
-145.8000;0.6634;1.2053;
-145.5000;0.6764;1.2365;
-145.2000;0.6716;1.2317;
-144.9000;0.6667;1.2173;
-144.6000;0.6699;1.2245;
-144.3000;0.6716;1.2245;
-144.0000;0.6781;1.2365;
-143.7000;0.6699;1.2245;
-143.4000;0.6707;1.2293;
-143.1000;0.6659;1.2221;
-142.8000;0.6707;1.2389;
-142.5000;0.6756;1.2437;
-142.2000;0.6699;1.2317;
-141.9000;0.6707;1.2317;
-141.6000;0.6716;1.2293;
-141.3000;0.6813;1.2484;
-141.0000;0.6691;1.2125;
-140.7000;0.6699;1.2125;
-140.4000;0.6707;1.2197;
-140.1000;0.6724;1.2293;
-139.8000;0.6659;1.2125;
-139.5000;0.6699;1.2245;
-139.2000;0.6756;1.2365;
-138.9000;0.6699;1.2245;
-138.6000;0.6642;1.2149;
-138.3000;0.6789;1.2532;
-138.0000;0.6683;1.2245;
-137.7000;0.6724;1.2317;
-137.4000;0.6650;1.2077;
-137.1000;0.6772;1.2365;
-136.8000;0.6716;1.2221;
-136.5000;0.6724;1.2269;
-136.2000;0.6805;1.2556;
-135.9000;0.6659;1.2269;
-135.6000;0.6707;1.2293;
-135.3000;0.6707;1.2317;
-135.0000;0.6707;1.2293;
-134.7000;0.6699;1.2173;
-134.4000;0.6716;1.2173;
-134.1000;0.6732;1.2197;
-133.8000;0.6732;1.2221;
-133.5000;0.6724;1.2149;
-133.2000;0.6610;1.1909;
-132.9000;0.6716;1.2245;
-132.6000;0.6732;1.2221;
-132.3000;0.6789;1.2341;
-132.0000;0.6667;1.2077;
-131.7000;0.6691;1.2125;
-131.4000;0.6683;1.2125;
-131.1000;0.6675;1.2125;
-130.8000;0.6732;1.2341;
-130.5000;0.6699;1.2365;
-130.2000;0.6724;1.2484;
-129.9000;0.6659;1.2341;
-129.6000;0.6707;1.2413;
-129.3000;0.6699;1.2317;
-129.0000;0.6772;1.2437;
-128.7000;0.6650;1.2125;
-128.4000;0.6699;1.2197;
-128.1000;0.6716;1.2125;
-127.8000;0.6716;1.2077;
-127.5000;0.6724;1.2125;
-127.2000;0.6691;1.2029;
-126.9000;0.6683;1.2101;
-126.6000;0.6716;1.2149;
-126.3000;0.6732;1.2197;
-126.0000;0.6716;1.2149;
-125.7000;0.6740;1.2197;
-125.4000;0.6691;1.2125;
-125.1000;0.6732;1.2173;
-124.8000;0.6716;1.2173;
-124.5000;0.6707;1.2125;
-124.2000;0.6716;1.2125;
-123.9000;0.6716;1.2005;
-123.6000;0.6659;1.1790;
-123.3000;0.6772;1.2077;
-123.0000;0.6691;1.1933;
-122.7000;0.6732;1.1933;
-122.4000;0.6740;1.1981;
-122.1000;0.6675;1.1814;
-121.8000;0.6707;1.1981;
-121.5000;0.6740;1.2149;
-121.2000;0.6724;1.2029;
-120.9000;0.6683;1.1909;
-120.6000;0.6748;1.2125;
-120.3000;0.6683;1.2005;
-120.0000;0.6756;1.2173;
-119.7000;0.6724;1.2101;
-119.4000;0.6699;1.2101;
-119.1000;0.6699;1.2053;
-118.8000;0.6691;1.2053;
-118.5000;0.6707;1.2101;
-118.2000;0.6716;1.2125;
-117.9000;0.6707;1.2077;
-117.6000;0.6707;1.2125;
-117.3000;0.6691;1.2101;
-117.0000;0.6732;1.2149;
-116.7000;0.6740;1.2197;
-116.4000;0.6634;1.2029;
-116.1000;0.6716;1.2149;
-115.8000;0.6707;1.2149;
-115.5000;0.6724;1.2173;
-115.2000;0.6699;1.2149;
-114.9000;0.6724;1.2077;
-114.6000;0.6675;1.1957;
-114.3000;0.6659;1.1981;
-114.0000;0.6667;1.2053;
-113.7000;0.6707;1.2173;
-113.4000;0.6642;1.2005;
-113.1000;0.6699;1.2101;
-112.8000;0.6683;1.2029;
-112.5000;0.6667;1.2005;
-112.2000;0.6724;1.2197;
-111.9000;0.6724;1.2293;
-111.6000;0.6683;1.2173;
-111.3000;0.6724;1.2173;
-111.0000;0.6716;1.2149;
-110.7000;0.6691;1.2029;
-110.4000;0.6707;1.2101;
-110.1000;0.6716;1.2053;
-109.8000;0.6724;1.2101;
-109.5000;0.6740;1.2149;
-109.2000;0.6732;1.2125;
-108.9000;0.6699;1.2053;
-108.6000;0.6732;1.2077;
-108.3000;0.6732;1.2125;
-108.0000;0.6699;1.2053;
-107.7000;0.6781;1.2317;
-107.4000;0.6707;1.2125;
-107.1000;0.6748;1.2245;
-106.8000;0.6699;1.2173;
-106.5000;0.6683;1.2029;
-106.2000;0.6716;1.2077;
-105.9000;0.6716;1.2053;
-105.6000;0.6724;1.1957;
-105.3000;0.6707;1.1909;
-105.0000;0.6716;1.1957;
-104.7000;0.6732;1.2005;
-104.4000;0.6732;1.2029;
-104.1000;0.6732;1.2101;
-103.8000;0.6724;1.2197;
-103.5000;0.6716;1.2245;
-103.2000;0.6707;1.2221;
-102.9000;0.6707;1.2221;
-102.6000;0.6716;1.2173;
-102.3000;0.6707;1.2221;
-102.0000;0.6732;1.2365;
-101.7000;0.6732;1.2293;
-101.4000;0.6716;1.2245;
-101.1000;0.6740;1.2245;
-100.8000;0.6724;1.2221;
-100.5000;0.6740;1.2197;
-100.2000;0.6699;1.2077;
-99.9000;0.6716;1.2077;
-99.6000;0.6764;1.2221;
-99.3000;0.6691;1.2077;
-99.0000;0.6707;1.2149;
-98.7000;0.6707;1.2173;
-98.4000;0.6716;1.2149;
-98.1000;0.6740;1.2149;
-97.8000;0.6732;1.2101;
-97.5000;0.6707;1.2005;
-97.2000;0.6683;1.1957;
-96.9000;0.6691;1.1957;
-96.6000;0.6707;1.1981;
-96.3000;0.6716;1.1981;
-96.0000;0.6699;1.1861;
-95.7000;0.6683;1.1909;
-95.4000;0.6699;1.1933;
-95.1000;0.6707;1.1957;
-94.8000;0.6699;1.1981;
-94.5000;0.6724;1.2005;
-94.2000;0.6699;1.1957;
-93.9000;0.6707;1.1981;
-93.6000;0.6691;1.2029;
-93.3000;0.6683;1.1981;
-93.0000;0.6707;1.2005;
-92.7000;0.6724;1.2077;
-92.4000;0.6699;1.2005;
-92.1000;0.6699;1.2125;
-91.8000;0.6724;1.2197;
-91.5000;0.6724;1.2221;
-91.2000;0.6716;1.2221;
-90.9000;0.6724;1.2365;
-90.6000;0.6691;1.2317;
-90.3000;0.6699;1.2245;
-90.0000;0.6699;1.2341;
-89.7000;0.6732;1.2341;
-89.4000;0.6691;1.2245;
-89.1000;0.6699;1.2293;
-88.8000;0.6691;1.2269;
-88.5000;0.6683;1.2293;
-88.2000;0.6699;1.2365;
-87.9000;0.6683;1.2365;
-87.6000;0.6683;1.2341;
-87.3000;0.6699;1.2389;
-87.0000;0.6716;1.2413;
-86.7000;0.6699;1.2437;
-86.4000;0.6699;1.2461;
-86.1000;0.6707;1.2461;
-85.8000;0.6716;1.2389;
-85.5000;0.6707;1.2293;
-85.2000;0.6724;1.2197;
-84.9000;0.6699;1.2149;
-84.6000;0.6716;1.2125;
-84.3000;0.6732;1.2149;
-84.0000;0.6691;1.2125;
-83.7000;0.6756;1.2125;
-83.4000;0.6699;1.1957;
-83.1000;0.6716;1.2053;
-82.8000;0.6707;1.2125;
-82.5000;0.6716;1.2125;
-82.2000;0.6707;1.2005;
-81.9000;0.6707;1.1981;
-81.6000;0.6716;1.1981;
-81.3000;0.6707;1.1981;
-81.0000;0.6716;1.2077;
-80.7000;0.6716;1.2053;
-80.4000;0.6724;1.2101;
-80.1000;0.6707;1.2149;
-79.8000;0.6724;1.2173;
-79.5000;0.6610;1.1885;
-79.2000;0.6716;1.2149;
-78.9000;0.6724;1.2293;
-78.6000;0.6716;1.2221;
-78.3000;0.6699;1.2173;
-78.0000;0.6716;1.2269;
-77.7000;0.6707;1.2341;
-77.4000;0.6707;1.2341;
-77.1000;0.6707;1.2389;
-76.8000;0.6716;1.2365;
-76.5000;0.6716;1.2317;
-76.2000;0.6716;1.2173;
-75.9000;0.6691;1.2101;
-75.6000;0.6683;1.2125;
-75.3000;0.6707;1.2125;
-75.0000;0.6716;1.2149;
-74.7000;0.6699;1.2101;
-74.4000;0.6707;1.2149;
-74.1000;0.6724;1.2149;
-73.8000;0.6707;1.2077;
-73.5000;0.6683;1.1981;
-73.2000;0.6691;1.2053;
-72.9000;0.6699;1.2101;
-72.6000;0.6699;1.2053;
-72.3000;0.6716;1.2029;
-72.0000;0.6707;1.2053;
-71.7000;0.6716;1.2125;
-71.4000;0.6707;1.2149;
-71.1000;0.6707;1.2125;
-70.8000;0.6707;1.2101;
-70.5000;0.6716;1.2269;
-70.2000;0.6716;1.2245;
-69.9000;0.6707;1.2269;
-69.6000;0.6724;1.2341;
-69.3000;0.6724;1.2413;
-69.0000;0.6716;1.2317;
-68.7000;0.6716;1.2293;
-68.4000;0.6691;1.2173;
-68.1000;0.6707;1.2197;
-67.8000;0.6691;1.2221;
-67.5000;0.6691;1.2221;
-67.2000;0.6699;1.2221;
-66.9000;0.6707;1.2197;
-66.6000;0.6707;1.2197;
-66.3000;0.6724;1.2221;
-66.0000;0.6707;1.2125;
-65.7000;0.6707;1.2101;
-65.4000;0.6716;1.2149;
-65.1000;0.6724;1.2149;
-64.8000;0.6732;1.2101;
-64.5000;0.6707;1.2077;
-64.2000;0.6740;1.2149;
-63.9000;0.6732;1.2101;
-63.6000;0.6716;1.2125;
-63.3000;0.6716;1.2173;
-63.0000;0.6716;1.2197;
-62.7000;0.6699;1.2125;
-62.4000;0.6707;1.2053;
-62.1000;0.6716;1.2197;
-61.8000;0.6716;1.2197;
-61.5000;0.6724;1.2221;
-61.2000;0.6707;1.2197;
-60.9000;0.6707;1.2125;
-60.6000;0.6691;1.2197;
-60.3000;0.6699;1.2221;
-60.0000;0.6716;1.2197;
-59.7000;0.6716;1.2125;
-59.4000;0.6699;1.2125;
-59.1000;0.6707;1.2269;
-58.8000;0.6716;1.2365;
-58.5000;0.6699;1.2317;
-58.2000;0.6699;1.2293;
-57.9000;0.6707;1.2197;
-57.6000;0.6724;1.2269;
-57.3000;0.6707;1.2293;
-57.0000;0.6707;1.2197;
-56.7000;0.6683;1.2173;
-56.4000;0.6707;1.2293;
-56.1000;0.6707;1.2317;
-55.8000;0.6707;1.2293;
-55.5000;0.6781;1.2508;
-55.2000;0.6732;1.2461;
-54.9000;0.6724;1.2413;
-54.6000;0.6740;1.2461;
-54.3000;0.6716;1.2413;
-54.0000;0.6716;1.2341;
-53.7000;0.6740;1.2508;
-53.4000;0.6724;1.2389;
-53.1000;0.6707;1.2413;
-52.8000;0.6699;1.2317;
-52.5000;0.6683;1.2221;
-52.2000;0.6683;1.2125;
-51.9000;0.6707;1.2149;
-51.6000;0.6772;1.2245;
-51.3000;0.6707;1.2125;
-51.0000;0.6691;1.2077;
-50.7000;0.6748;1.2269;
-50.4000;0.6716;1.2221;
-50.1000;0.6716;1.2317;
-49.8000;0.6716;1.2317;
-49.5000;0.6716;1.2221;
-49.2000;0.6699;1.2125;
-48.9000;0.6707;1.2125;
-48.6000;0.6732;1.2221;
-48.3000;0.6716;1.2173;
-48.0000;0.6699;1.2125;
-47.7000;0.6707;1.2101;
-47.4000;0.6707;1.2053;
-47.1000;0.6707;1.2125;
-46.8000;0.6716;1.2149;
-46.5000;0.6716;1.2173;
-46.2000;0.6756;1.2269;
-45.9000;0.6707;1.2197;
-45.6000;0.6707;1.2125;
-45.3000;0.6707;1.2101;
-45.0000;0.6732;1.2245;
-44.7000;0.6716;1.2197;
-44.4000;0.6707;1.2245;
-44.1000;0.6716;1.2269;
-43.8000;0.6716;1.2293;
-43.5000;0.6699;1.2293;
-43.2000;0.6707;1.2269;
-42.9000;0.6707;1.2317;
-42.6000;0.6707;1.2341;
-42.3000;0.6699;1.2245;
-42.0000;0.6691;1.2245;
-41.7000;0.6707;1.2317;
-41.4000;0.6707;1.2317;
-41.1000;0.6691;1.2245;
-40.8000;0.6707;1.2197;
-40.5000;0.6699;1.2173;
-40.2000;0.6732;1.2293;
-39.9000;0.6724;1.2365;
-39.6000;0.6716;1.2341;
-39.3000;0.6740;1.2293;
-39.0000;0.6691;1.2197;
-38.7000;0.6707;1.2197;
-38.4000;0.6716;1.2173;
-38.1000;0.6911;1.2676;
-37.8000;0.6707;1.2245;
-37.5000;0.6707;1.2245;
-37.2000;0.6667;1.2101;
-36.9000;0.6716;1.2101;
-36.6000;0.6724;1.2173;
-36.3000;0.6707;1.2221;
-36.0000;0.6675;1.2029;
-35.7000;0.6732;1.2053;
-35.4000;0.6699;1.1933;
-35.1000;0.6716;1.2005;
-34.8000;0.6724;1.2101;
-34.5000;0.6699;1.2077;
-34.2000;0.6699;1.2005;
-33.9000;0.6724;1.2005;
-33.6000;0.6732;1.2053;
-33.3000;0.6699;1.2053;
-33.0000;0.6691;1.2101;
-32.7000;0.6691;1.2077;
-32.4000;0.6675;1.2077;
-32.1000;0.6707;1.2197;
-31.8000;0.6699;1.2221;
-31.5000;0.6634;1.2053;
-31.2000;0.6667;1.2197;
-30.9000;0.6691;1.2269;
-30.6000;0.6748;1.2389;
-30.3000;0.6683;1.2245;
-30.0000;0.6748;1.2269;
-29.7000;0.6732;1.2221;
-29.4000;0.6748;1.2197;
-29.1000;0.6724;1.2125;
-28.8000;0.6691;1.2101;
-28.5000;0.6667;1.2053;
-28.2000;0.6699;1.2125;
-27.9000;0.6707;1.2245;
-27.6000;0.6716;1.2221;
-27.3000;0.6756;1.2269;
-27.0000;0.6683;1.2101;
-26.7000;0.6699;1.2173;
-26.4000;0.6659;1.2101;
-26.1000;0.6707;1.2173;
-25.8000;0.6683;1.2077;
-25.5000;0.6724;1.2221;
-25.2000;0.6691;1.2221;
-24.9000;0.6764;1.2413;
-24.6000;0.6707;1.2197;
-24.3000;0.6716;1.2197;
-24.0000;0.6675;1.2101;
-23.7000;0.6699;1.2197;
-23.4000;0.6756;1.2389;
-23.1000;0.6699;1.2317;
-22.8000;0.6716;1.2389;
-22.5000;0.6699;1.2461;
-22.2000;0.6683;1.2341;
-21.9000;0.6707;1.2389;
-21.6000;0.6707;1.2341;
-21.3000;0.6699;1.2317;
-21.0000;0.6699;1.2389;
-20.7000;0.6716;1.2389;
-20.4000;0.6707;1.2341;
-20.1000;0.6716;1.2413;
-19.8000;0.6699;1.2413;
-19.5000;0.6707;1.2413;
-19.2000;0.6716;1.2461;
-18.9000;0.6716;1.2413;
-18.6000;0.6683;1.2341;
-18.3000;0.6634;1.2293;
-18.0000;0.6716;1.2437;
-17.7000;0.6707;1.2293;
-17.4000;0.6667;1.2221;
-17.1000;0.6675;1.2197;
-16.8000;0.6683;1.2245;
-16.5000;0.6699;1.2221;
-16.2000;0.6732;1.2197;
-15.9000;0.6683;1.2053;
-15.6000;0.6707;1.2125;
-15.3000;0.6707;1.2173;
-15.0000;0.6707;1.2197;
-14.7000;0.6683;1.2149;
-14.4000;0.6691;1.2269;
-14.1000;0.6707;1.2269;
-13.8000;0.6716;1.2317;
-13.5000;0.6667;1.2125;
-13.2000;0.6667;1.2125;
-12.9000;0.6699;1.2221;
-12.6000;0.6707;1.2221;
-12.3000;0.6699;1.2029;
-12.0000;0.6716;1.2149;
-11.7000;0.6699;1.2101;
-11.4000;0.6764;1.2341;
-11.1000;0.6707;1.2269;
-10.8000;0.6691;1.2293;
-10.5000;0.6716;1.2437;
-10.2000;0.6724;1.2461;
-9.9000;0.6691;1.2389;
-9.6000;0.6716;1.2341;
-9.3000;0.6724;1.2413;
-9.0000;0.6764;1.2413;
-8.7000;0.6683;1.2317;
-8.4000;0.6691;1.2389;
-8.1000;0.6699;1.2389;
-7.8000;0.6691;1.2293;
-7.5000;0.6707;1.2245;
-7.2000;0.6683;1.2221;
-6.9000;0.6667;1.2149;
-6.6000;0.6699;1.2341;
-6.3000;0.6716;1.2365;
-6.0000;0.6756;1.2484;
-5.7000;0.6642;1.2197;
-5.4000;0.6699;1.2269;
-5.1000;0.6724;1.2317;
-4.8000;0.6675;1.2269;
-4.5000;0.6707;1.2269;
-4.2000;0.6691;1.2221;
-3.9000;0.6724;1.2197;
-3.6000;0.6707;1.2173;
-3.3000;0.6772;1.2245;
-3.0000;0.6691;1.2029;
-2.7000;0.6748;1.2245;
-2.4000;0.6724;1.2197;
-2.1000;0.6707;1.2029;
-1.8000;0.6683;1.1957;
-1.5000;0.6707;1.1981;
-1.2000;0.6699;1.2029;
-0.9000;0.6699;1.2149;
-0.6000;0.6716;1.2245;
-0.3000;0.6740;1.2221;
0.0000;0.6740;1.2221;
0.3000;0.7066;1.2269;
0.6000;0.7700;1.3012;
0.9000;0.8254;1.3731;
1.2000;0.8661;1.4258;
1.5000;0.8987;1.4665;
1.8000;0.9231;1.4977;
2.1000;0.9459;1.5264;
2.4000;0.9630;1.5480;
2.7000;0.9752;1.5719;
3.0000;0.9898;1.5959;
3.3000;0.9963;1.6079;
3.6000;1.0045;1.6151;
3.9000;1.0134;1.6271;
4.2000;1.0240;1.6390;
4.5000;1.0273;1.6390;
4.8000;1.0346;1.6462;
5.1000;1.0403;1.6510;
5.4000;1.0492;1.6630;
5.7000;1.0549;1.6630;
6.0000;1.0574;1.6606;
6.3000;1.0639;1.6654;
6.6000;1.0655;1.6630;
6.9000;1.0753;1.6750;
7.2000;1.0786;1.6726;
7.5000;1.0875;1.6918;
7.8000;1.0891;1.6750;
8.1000;1.0940;1.6750;
8.4000;1.0989;1.6678;
8.7000;1.1022;1.6582;
9.0000;1.1070;1.6462;
9.3000;1.1111;1.6486;
9.6000;1.1160;1.6582;
9.9000;1.1225;1.6702;
10.2000;1.1266;1.6702;
10.5000;1.1323;1.6654;
10.8000;1.1315;1.6510;
11.1000;1.1412;1.6702;
11.4000;1.1437;1.6702;
11.7000;1.1461;1.6630;
12.0000;1.1494;1.6582;
12.3000;1.1559;1.6630;
12.6000;1.1583;1.6702;
12.9000;1.1616;1.6726;
13.2000;1.1665;1.6798;
13.5000;1.1681;1.6702;
13.8000;1.1754;1.6750;
14.1000;1.1779;1.6870;
14.4000;1.1795;1.6846;
14.7000;1.1811;1.6822;
15.0000;1.1868;1.6942;
15.3000;1.1884;1.6918;
15.6000;1.1933;1.6894;
15.9000;1.1958;1.6918;
16.2000;1.1998;1.6965;
16.5000;1.2039;1.6942;
16.8000;1.2063;1.6894;
17.1000;1.2063;1.6750;
17.4000;1.2153;1.6870;
17.7000;1.2145;1.6774;
18.0000;1.2169;1.6822;
18.3000;1.2137;1.6654;
18.6000;1.2226;1.6846;
18.9000;1.2251;1.6822;
19.2000;1.2259;1.6822;
19.5000;1.2300;1.6750;
19.8000;1.2308;1.6654;
20.1000;1.2324;1.6534;
20.4000;1.2357;1.6558;
20.7000;1.2389;1.6486;
21.0000;1.2405;1.6414;
21.3000;1.2438;1.6462;
21.6000;1.2462;1.6510;
21.9000;1.2454;1.6486;
22.2000;1.2479;1.6462;
22.5000;1.2519;1.6558;
22.8000;1.2519;1.6606;
23.1000;1.2544;1.6510;
23.4000;1.2576;1.6510;
23.7000;1.2576;1.6558;
24.0000;1.2609;1.6558;
24.3000;1.2650;1.6654;
24.6000;1.2625;1.6534;
24.9000;1.2633;1.6534;
25.2000;1.2650;1.6606;
25.5000;1.2658;1.6606;
25.8000;1.2690;1.6510;
26.1000;1.2707;1.6582;
26.4000;1.2715;1.6606;
26.7000;1.2723;1.6582;
27.0000;1.2723;1.6510;
27.3000;1.2739;1.6486;
27.6000;1.2755;1.6510;
27.9000;1.2780;1.6510;
28.2000;1.2796;1.6510;
28.5000;1.2796;1.6438;
28.8000;1.2821;1.6438;
29.1000;1.2812;1.6390;
29.4000;1.2837;1.6390;
29.7000;1.2845;1.6342;
30.0000;1.2845;1.6318;
30.3000;1.2877;1.6414;
30.6000;1.2869;1.6390;
30.9000;1.2861;1.6390;
31.2000;1.2886;1.6486;
31.5000;1.2902;1.6558;
31.8000;1.2902;1.6534;
32.1000;1.2877;1.6366;
32.4000;1.2943;1.6438;
32.7000;1.2926;1.6342;
33.0000;1.2951;1.6414;
33.3000;1.2951;1.6414;
33.6000;1.2934;1.6510;
33.9000;1.2951;1.6558;
34.2000;1.2967;1.6606;
34.5000;1.2983;1.6558;
34.8000;1.2983;1.6486;
35.1000;1.2991;1.6390;
35.4000;1.3024;1.6390;
35.7000;1.3016;1.6342;
36.0000;1.3032;1.6342;
36.3000;1.3105;1.6510;
36.6000;1.3016;1.6295;
36.9000;1.3040;1.6342;
37.2000;1.3040;1.6318;
37.5000;1.3040;1.6223;
37.8000;1.3073;1.6151;
38.1000;1.3081;1.6175;
38.4000;1.3065;1.6151;
38.7000;1.3057;1.6031;
39.0000;1.3081;1.6103;
39.3000;1.3097;1.6247;
39.6000;1.3073;1.6127;
39.9000;1.3097;1.6127;
40.2000;1.3089;1.6055;
40.5000;1.3097;1.6151;
40.8000;1.3105;1.6175;
41.1000;1.3097;1.6151;
41.4000;1.3138;1.6199;
41.7000;1.3122;1.6079;
42.0000;1.3130;1.6151;
42.3000;1.3122;1.6103;
42.6000;1.3105;1.6127;
42.9000;1.3146;1.6247;
43.2000;1.3146;1.6247;
43.5000;1.3130;1.6175;
43.8000;1.3138;1.6127;
44.1000;1.3146;1.6247;
44.4000;1.3171;1.6295;
44.7000;1.3171;1.6318;
45.0000;1.3162;1.6318;
45.3000;1.3154;1.6342;
45.6000;1.3171;1.6438;
45.9000;1.3179;1.6510;
46.2000;1.3171;1.6438;
46.5000;1.3179;1.6390;
46.8000;1.3171;1.6318;
47.1000;1.3187;1.6366;
47.4000;1.3179;1.6295;
47.7000;1.3187;1.6390;
48.0000;1.3203;1.6438;
48.3000;1.3219;1.6438;
48.6000;1.3211;1.6438;
48.9000;1.3219;1.6390;
49.2000;1.3211;1.6342;
49.5000;1.3228;1.6271;
49.8000;1.3211;1.6342;
50.1000;1.3219;1.6438;
50.4000;1.3228;1.6414;
50.7000;1.3236;1.6414;
51.0000;1.3236;1.6366;
51.3000;1.3236;1.6342;
51.6000;1.3236;1.6510;
51.9000;1.3244;1.6462;
52.2000;1.3252;1.6366;
52.5000;1.3179;1.6127;
52.8000;1.3293;1.6390;
53.1000;1.3252;1.6318;
53.4000;1.3244;1.6318;
53.7000;1.3252;1.6342;
54.0000;1.3252;1.6318;
54.3000;1.3268;1.6366;
54.6000;1.3268;1.6318;
54.9000;1.3260;1.6366;
55.2000;1.3276;1.6390;
55.5000;1.3260;1.6342;
55.8000;1.3284;1.6462;
56.1000;1.3284;1.6414;
56.4000;1.3284;1.6414;
56.7000;1.3276;1.6366;
57.0000;1.3284;1.6295;
57.3000;1.3276;1.6295;
57.6000;1.3317;1.6366;
57.9000;1.3284;1.6271;
58.2000;1.3284;1.6295;
58.5000;1.3284;1.6247;
58.8000;1.3309;1.6247;
59.1000;1.3284;1.6151;
59.4000;1.3293;1.6223;
59.7000;1.3293;1.6295;
60.0000;1.3301;1.6318;
60.3000;1.3301;1.6247;
60.6000;1.3333;1.6295;
60.9000;1.3309;1.6199;
61.2000;1.3309;1.6223;
61.5000;1.3309;1.6247;
61.8000;1.3301;1.6247;
62.1000;1.3309;1.6271;
62.4000;1.3325;1.6342;
62.7000;1.3309;1.6223;
63.0000;1.3317;1.6175;
63.3000;1.3317;1.6055;
63.6000;1.3341;1.6175;
63.9000;1.3325;1.6127;
64.2000;1.3309;1.6103;
64.5000;1.3325;1.6103;
64.8000;1.3301;1.6079;
65.1000;1.3325;1.6079;
65.4000;1.3407;1.6247;
65.7000;1.3333;1.5959;
66.0000;1.3341;1.6031;
66.3000;1.3333;1.6079;
66.6000;1.3350;1.6079;
66.9000;1.3325;1.6103;
67.2000;1.3341;1.6223;
67.5000;1.3350;1.6247;
67.8000;1.3341;1.6175;
68.1000;1.3358;1.6223;
68.4000;1.3309;1.6079;
68.7000;1.3358;1.6175;
69.0000;1.3398;1.6295;
69.3000;1.3350;1.6103;
69.6000;1.3358;1.6055;
69.9000;1.3252;1.5695;
70.2000;1.3374;1.5839;
70.5000;1.3358;1.5911;
70.8000;1.3390;1.5911;
71.1000;1.3366;1.5863;
71.4000;1.3358;1.5887;
71.7000;1.3366;1.5935;
72.0000;1.3374;1.6007;
72.3000;1.3366;1.6079;
72.6000;1.3382;1.6151;
72.9000;1.3366;1.6151;
73.2000;1.3358;1.6247;
73.5000;1.3374;1.6199;
73.8000;1.3390;1.6247;
74.1000;1.3382;1.6199;
74.4000;1.3366;1.6031;
74.7000;1.3341;1.5911;
75.0000;1.3268;1.5743;
75.3000;1.3374;1.5959;
75.6000;1.3366;1.5983;
75.9000;1.3398;1.5983;
76.2000;1.3398;1.6055;
76.5000;1.3407;1.5959;
76.8000;1.3382;1.5935;
77.1000;1.3350;1.5719;
77.4000;1.3382;1.5815;
77.7000;1.3374;1.5815;
78.0000;1.3317;1.5624;
78.3000;1.3382;1.5791;
78.6000;1.3398;1.5743;
78.9000;1.3537;1.6127;
79.2000;1.3407;1.5911;
79.5000;1.3398;1.5911;
79.8000;1.3398;1.5863;
80.1000;1.3415;1.5911;
80.4000;1.3382;1.5839;
80.7000;1.3398;1.5815;
81.0000;1.3398;1.5839;
81.3000;1.3415;1.5839;
81.6000;1.3423;1.5911;
81.9000;1.3415;1.5935;
82.2000;1.3415;1.5863;
82.5000;1.3431;1.5767;
82.8000;1.3398;1.5695;
83.1000;1.3301;1.5480;
83.4000;1.3407;1.5791;
83.7000;1.3390;1.5815;
84.0000;1.3439;1.5887;
84.3000;1.3423;1.5767;
84.6000;1.3423;1.5767;
84.9000;1.3439;1.5815;
85.2000;1.3398;1.5719;
85.5000;1.3423;1.5767;
85.8000;1.3431;1.5863;
86.1000;1.3382;1.5791;
86.4000;1.3431;1.5935;
86.7000;1.3447;1.5887;
87.0000;1.3439;1.5815;
87.3000;1.3447;1.5815;
87.6000;1.3423;1.5815;
87.9000;1.3447;1.5815;
88.2000;1.3431;1.5863;
88.5000;1.3431;1.5839;
88.8000;1.3439;1.5863;
89.1000;1.3358;1.5719;
89.4000;1.3439;1.5935;
89.7000;1.3407;1.5863;
90.0000;1.3398;1.5791;
90.3000;1.3398;1.5791;
90.6000;1.3423;1.5959;
90.9000;1.3439;1.5935;
91.2000;1.3488;1.6007;
91.5000;1.3439;1.5887;
91.8000;1.3415;1.5815;
92.1000;1.3423;1.5863;
92.4000;1.3447;1.5959;
92.7000;1.3464;1.6031;
93.0000;1.3455;1.5983;
93.3000;1.3464;1.5935;
93.6000;1.3496;1.5983;
93.9000;1.3504;1.6007;
94.2000;1.3480;1.5935;
94.5000;1.3366;1.5648;
94.8000;1.3447;1.5839;
95.1000;1.3464;1.5887;
95.4000;1.3455;1.5887;
95.7000;1.3455;1.5863;
96.0000;1.3464;1.5887;
96.3000;1.3439;1.5839;
96.6000;1.3431;1.5839;
96.9000;1.3455;1.5863;
97.2000;1.3472;1.5839;
97.5000;1.3512;1.6031;
97.8000;1.3455;1.5911;
98.1000;1.3472;1.5935;
98.4000;1.3472;1.5839;
98.7000;1.3455;1.5719;
99.0000;1.3472;1.5671;
99.3000;1.3464;1.5695;
99.6000;1.3447;1.5671;
99.9000;1.3480;1.5695;
100.2000;1.3455;1.5648;
100.5000;1.3472;1.5648;
100.8000;1.3480;1.5600;
101.1000;1.3537;1.5743;
101.4000;1.3464;1.5624;
101.7000;1.3480;1.5552;
102.0000;1.3488;1.5504;
102.3000;1.3464;1.5528;
102.6000;1.3586;1.6007;
102.9000;1.3578;1.6007;
103.2000;1.3472;1.5695;
103.5000;1.3496;1.5743;
103.8000;1.3545;1.5839;
104.1000;1.3464;1.5719;
104.4000;1.3472;1.5767;
104.7000;1.3455;1.5624;
105.0000;1.3464;1.5648;
105.3000;1.3488;1.5648;
105.6000;1.3488;1.5695;
105.9000;1.3537;1.5815;
106.2000;1.3423;1.5528;
106.5000;1.3496;1.5671;
106.8000;1.3447;1.5504;
107.1000;1.3496;1.5504;
107.4000;1.3488;1.5480;
107.7000;1.3496;1.5528;
108.0000;1.3480;1.5504;
108.3000;1.3480;1.5408;
108.6000;1.3488;1.5360;
108.9000;1.3480;1.5384;
109.2000;1.3480;1.5384;
109.5000;1.3480;1.5384;
109.8000;1.3488;1.5384;
110.1000;1.3423;1.5144;
110.4000;1.3480;1.5288;
110.7000;1.3480;1.5384;
111.0000;1.3512;1.5480;
111.3000;1.3521;1.5480;
111.6000;1.3512;1.5480;
111.9000;1.3488;1.5360;
112.2000;1.3480;1.5384;
112.5000;1.3472;1.5360;
112.8000;1.3512;1.5504;
113.1000;1.3553;1.5624;
113.4000;1.3512;1.5384;
113.7000;1.3504;1.5336;
114.0000;1.3480;1.5288;
114.3000;1.3561;1.5408;
114.6000;1.3488;1.5336;
114.9000;1.3496;1.5384;
115.2000;1.3407;1.5144;
115.5000;1.3488;1.5336;
115.8000;1.3512;1.5432;
116.1000;1.3455;1.5360;
116.4000;1.3439;1.5360;
116.7000;1.3455;1.5264;
117.0000;1.3488;1.5360;
117.3000;1.3512;1.5408;
117.6000;1.3480;1.5456;
117.9000;1.3504;1.5456;
118.2000;1.3488;1.5528;
118.5000;1.3504;1.5576;
118.8000;1.3496;1.5528;
119.1000;1.3504;1.5552;
119.4000;1.3521;1.5600;
119.7000;1.3512;1.5624;
120.0000;1.3488;1.5504;
120.3000;1.3512;1.5576;
120.6000;1.3512;1.5552;
120.9000;1.3504;1.5528;
121.2000;1.3521;1.5552;
121.5000;1.3512;1.5504;
121.8000;1.3512;1.5576;
122.1000;1.3521;1.5624;
122.4000;1.3496;1.5528;
122.7000;1.3545;1.5624;
123.0000;1.3504;1.5528;
123.3000;1.3529;1.5552;
123.6000;1.3504;1.5408;
123.9000;1.3512;1.5384;
124.2000;1.3586;1.5552;
124.5000;1.3537;1.5480;
124.8000;1.3504;1.5480;
125.1000;1.3496;1.5504;
125.4000;1.3496;1.5456;
125.7000;1.3529;1.5528;
126.0000;1.3512;1.5456;
126.3000;1.3529;1.5528;
126.6000;1.3480;1.5384;
126.9000;1.3488;1.5408;
127.2000;1.3537;1.5456;
127.5000;1.3537;1.5408;
127.8000;1.3472;1.5192;
128.1000;1.3512;1.5312;
128.4000;1.3521;1.5336;
128.7000;1.3512;1.5336;
129.0000;1.3496;1.5384;
129.3000;1.3504;1.5408;
129.6000;1.3504;1.5480;
129.9000;1.3496;1.5432;
130.2000;1.3504;1.5456;
130.5000;1.3504;1.5432;
130.8000;1.3521;1.5480;
131.1000;1.3504;1.5360;
131.4000;1.3455;1.5216;
131.7000;1.3521;1.5360;
132.0000;1.3504;1.5360;
132.3000;1.3521;1.5384;
132.6000;1.3529;1.5312;
132.9000;1.3529;1.5384;
133.2000;1.3529;1.5432;
133.5000;1.3521;1.5432;
133.8000;1.3537;1.5504;
134.1000;1.3529;1.5408;
134.4000;1.3529;1.5408;
134.7000;1.3529;1.5408;
135.0000;1.3529;1.5456;
135.3000;1.3504;1.5408;
135.6000;1.3512;1.5432;
135.9000;1.3537;1.5480;
136.2000;1.3529;1.5528;
136.5000;1.3529;1.5576;
136.8000;1.3521;1.5528;
137.1000;1.3521;1.5456;
137.4000;1.3537;1.5432;
137.7000;1.3537;1.5456;
138.0000;1.3521;1.5480;
138.3000;1.3529;1.5528;
138.6000;1.3537;1.5552;
138.9000;1.3545;1.5576;
139.2000;1.3529;1.5600;
139.5000;1.3521;1.5600;
139.8000;1.3521;1.5648;
140.1000;1.3521;1.5528;
140.4000;1.3537;1.5552;
140.7000;1.3529;1.5480;
141.0000;1.3545;1.5408;
141.3000;1.3545;1.5408;
141.6000;1.3537;1.5528;
141.9000;1.3504;1.5504;
142.2000;1.3504;1.5528;
142.5000;1.3537;1.5552;
142.8000;1.3545;1.5600;
143.1000;1.3545;1.5648;
143.4000;1.3537;1.5624;
143.7000;1.3545;1.5624;
144.0000;1.3529;1.5600;
144.3000;1.3521;1.5624;
144.6000;1.3537;1.5695;
144.9000;1.3529;1.5671;
145.2000;1.3512;1.5671;
145.5000;1.3504;1.5695;
145.8000;1.3529;1.5648;
146.1000;1.3529;1.5648;
146.4000;1.3529;1.5695;
146.7000;1.3529;1.5695;
147.0000;1.3545;1.5576;
147.3000;1.3537;1.5648;
147.6000;1.3561;1.5624;
147.9000;1.3537;1.5552;
148.2000;1.3529;1.5528;
148.5000;1.3496;1.5480;
148.8000;1.3537;1.5552;
149.1000;1.3529;1.5552;
149.4000;1.3537;1.5552;
149.7000;1.3529;1.5528;
150.0000;1.3545;1.5552;
150.3000;1.3521;1.5432;
150.6000;1.3537;1.5432;
150.9000;1.3529;1.5432;
151.2000;1.3537;1.5456;
151.5000;1.3545;1.5480;
151.8000;1.3521;1.5360;
152.1000;1.3537;1.5456;
152.4000;1.3529;1.5456;
152.7000;1.3553;1.5528;
153.0000;1.3537;1.5552;
153.3000;1.3537;1.5504;
153.6000;1.3529;1.5408;
153.9000;1.3545;1.5408;
154.2000;1.3569;1.5504;
154.5000;1.3553;1.5504;
154.8000;1.3537;1.5408;
155.1000;1.3537;1.5456;
155.4000;1.3537;1.5456;
155.7000;1.3594;1.5480;
156.0000;1.3545;1.5408;
156.3000;1.3537;1.5312;
156.6000;1.3545;1.5288;
156.9000;1.3545;1.5264;
157.2000;1.3553;1.5240;
157.5000;1.3553;1.5264;
157.8000;1.3561;1.5336;
158.1000;1.3553;1.5456;
158.4000;1.3545;1.5432;
158.7000;1.3537;1.5384;
159.0000;1.3553;1.5384;
159.3000;1.3602;1.5504;
159.6000;1.3561;1.5408;
159.9000;1.3537;1.5384;
160.2000;1.3537;1.5432;
160.5000;1.3553;1.5504;
160.8000;1.3529;1.5480;
161.1000;1.3529;1.5576;
161.4000;1.3521;1.5504;
161.7000;1.3529;1.5432;
162.0000;1.3545;1.5408;
162.3000;1.3512;1.5360;
162.6000;1.3537;1.5456;
162.9000;1.3545;1.5432;
163.2000;1.3553;1.5432;
163.5000;1.3545;1.5432;
163.8000;1.3553;1.5480;
164.1000;1.3545;1.5504;
164.4000;1.3553;1.5528;
164.7000;1.3553;1.5624;
165.0000;1.3529;1.5576;
165.3000;1.3537;1.5600;
165.6000;1.3553;1.5600;
165.9000;1.3545;1.5576;
166.2000;1.3545;1.5743;
166.5000;1.3545;1.5648;
166.8000;1.3553;1.5671;
167.1000;1.3553;1.5695;
167.4000;1.3553;1.5743;
167.7000;1.3545;1.5767;
168.0000;1.3561;1.5719;
168.3000;1.3553;1.5648;
168.6000;1.3553;1.5624;
168.9000;1.3553;1.5576;
169.2000;1.3553;1.5624;
169.5000;1.3553;1.5648;
169.8000;1.3553;1.5600;
170.1000;1.3553;1.5552;
170.4000;1.3561;1.5504;
170.7000;1.3561;1.5480;
171.0000;1.3553;1.5504;
171.3000;1.3545;1.5480;
171.6000;1.3561;1.5480;
171.9000;1.3578;1.5576;
172.2000;1.3561;1.5528;
172.5000;1.3537;1.5528;
172.8000;1.3545;1.5552;
173.1000;1.3545;1.5600;
173.4000;1.3529;1.5552;
173.7000;1.3651;1.5839;
174.0000;1.3553;1.5576;
174.3000;1.3545;1.5552;
174.6000;1.3545;1.5528;
174.9000;1.3529;1.5432;
175.2000;1.3553;1.5432;
175.5000;1.3553;1.5432;
175.8000;1.3537;1.5408;
176.1000;1.3537;1.5432;
176.4000;1.3537;1.5480;
176.7000;1.3643;1.5767;
177.0000;1.3553;1.5552;
177.3000;1.3537;1.5528;
177.6000;1.3553;1.5528;
177.9000;1.3561;1.5624;
178.2000;1.3545;1.5576;
178.5000;1.3569;1.5648;
178.8000;1.3537;1.5648;
179.1000;1.3561;1.5624;
179.4000;1.3561;1.5600;
179.7000;1.3553;1.5648;
180.0000;1.3545;1.5719;
180.3000;1.3561;1.5767;
180.6000;1.3569;1.5767;
180.9000;1.3553;1.5743;
181.2000;1.3545;1.5600;
181.5000;1.3504;1.5432;
181.8000;1.3659;1.5815;
182.1000;1.3553;1.5528;
182.4000;1.3504;1.5384;
182.7000;1.3537;1.5408;
183.0000;1.3496;1.5240;
183.3000;1.3504;1.5336;
183.6000;1.3537;1.5360;
183.9000;1.3561;1.5456;
184.2000;1.3569;1.5456;
184.5000;1.3512;1.5360;
184.8000;1.3496;1.5336;
185.1000;1.3545;1.5408;
185.4000;1.3553;1.5408;
185.7000;1.3537;1.5456;
186.0000;1.3553;1.5456;
186.3000;1.3553;1.5456;
186.6000;1.3569;1.5456;
186.9000;1.3545;1.5456;
187.2000;1.3569;1.5576;
187.5000;1.3553;1.5504;
187.8000;1.3537;1.5480;
188.1000;1.3545;1.5480;
188.4000;1.3561;1.5456;
188.7000;1.3545;1.5432;
189.0000;1.3561;1.5432;
189.3000;1.3578;1.5528;
189.6000;1.3561;1.5600;
189.9000;1.3537;1.5552;
190.2000;1.3545;1.5456;
190.5000;1.3553;1.5432;
190.8000;1.3553;1.5480;
191.1000;1.3578;1.5528;
191.4000;1.3561;1.5528;
191.7000;1.3553;1.5528;
192.0000;1.3667;1.5791;
192.3000;1.3578;1.5600;
192.6000;1.3545;1.5552;
192.9000;1.3561;1.5624;
193.2000;1.3561;1.5552;
193.5000;1.3569;1.5600;
193.8000;1.3569;1.5528;
194.1000;1.3553;1.5504;
194.4000;1.3553;1.5504;
194.7000;1.3578;1.5504;
195.0000;1.3561;1.5384;
195.3000;1.3561;1.5384;
195.6000;1.3512;1.5264;
195.9000;1.3594;1.5288;
196.2000;1.3569;1.5264;
196.5000;1.3561;1.5168;
196.8000;1.3594;1.5336;
197.1000;1.3578;1.5312;
197.4000;1.3529;1.5216;
197.7000;1.3553;1.5264;
198.0000;1.3512;1.5144;
198.3000;1.3553;1.5336;
198.6000;1.3553;1.5312;
198.9000;1.3553;1.5240;
199.2000;1.3578;1.5336;
199.5000;1.3561;1.5336;
199.8000;1.3586;1.5408;
200.1000;1.3578;1.5336;
200.4000;1.3561;1.5288;
200.7000;1.3578;1.5336;
201.0000;1.3651;1.5456;
201.3000;1.3553;1.5360;
201.6000;1.3578;1.5432;
201.9000;1.3578;1.5384;
202.2000;1.3578;1.5312;
202.5000;1.3594;1.5360;
202.8000;1.3561;1.5360;
203.1000;1.3569;1.5384;
203.4000;1.3610;1.5504;
203.7000;1.3578;1.5432;
204.0000;1.3586;1.5504;
204.3000;1.3569;1.5480;
204.6000;1.3569;1.5504;
204.9000;1.3586;1.5504;
205.2000;1.3561;1.5456;
205.5000;1.3537;1.5480;
205.8000;1.3512;1.5384;
206.1000;1.3700;1.5839;
206.4000;1.3561;1.5456;
206.7000;1.3578;1.5408;
207.0000;1.3512;1.5288;
207.3000;1.3659;1.5648;
207.6000;1.3602;1.5408;
207.9000;1.3553;1.5168;
208.2000;1.3545;1.5216;
208.5000;1.3545;1.5264;
208.8000;1.3537;1.5312;
209.1000;1.3643;1.5504;
209.4000;1.3561;1.5264;
209.7000;1.3594;1.5312;
210.0000;1.3708;1.5552;
210.3000;1.3561;1.5168;
210.6000;1.3504;1.5072;
210.9000;1.3561;1.5216;
211.2000;1.3569;1.5264;
211.5000;1.3594;1.5264;
211.8000;1.3578;1.5288;
212.1000;1.3553;1.5312;
212.4000;1.3561;1.5360;
212.7000;1.3545;1.5432;
213.0000;1.3602;1.5600;
213.3000;1.3561;1.5456;
213.6000;1.3545;1.5432;
213.9000;1.3561;1.5408;
214.2000;1.3561;1.5384;
214.5000;1.3578;1.5360;
214.8000;1.3569;1.5336;
215.1000;1.3586;1.5336;
215.4000;1.3561;1.5264;
215.7000;1.3561;1.5288;
216.0000;1.3504;1.5168;
216.3000;1.3545;1.5240;
216.6000;1.3578;1.5432;
216.9000;1.3561;1.5456;
217.2000;1.3545;1.5408;
217.5000;1.3529;1.5312;
217.8000;1.3569;1.5360;
218.1000;1.3578;1.5312;
218.4000;1.3545;1.5216;
218.7000;1.3602;1.5336;
219.0000;1.3529;1.5120;
219.3000;1.3561;1.5264;
219.6000;1.3488;1.5096;
219.9000;1.3537;1.5192;
220.2000;1.3578;1.5432;
220.5000;1.3569;1.5432;
220.8000;1.3561;1.5384;
221.1000;1.3586;1.5360;
221.4000;1.3561;1.5312;
221.7000;1.3594;1.5408;
222.0000;1.3578;1.5336;
222.3000;1.3553;1.5264;
222.6000;1.3651;1.5432;
222.9000;1.3569;1.5288;
223.2000;1.3553;1.5312;
223.5000;1.3578;1.5336;
223.8000;1.3578;1.5360;
224.1000;1.3602;1.5336;
224.4000;1.3610;1.5360;
224.7000;1.3545;1.5216;
225.0000;1.3578;1.5288;
225.3000;1.3602;1.5408;
225.6000;1.3578;1.5360;
225.9000;1.3578;1.5336;
226.2000;1.3594;1.5288;
226.5000;1.3561;1.5192;
226.8000;1.3578;1.5264;
227.1000;1.3561;1.5216;
227.4000;1.3553;1.5240;
227.7000;1.3578;1.5336;
228.0000;1.3643;1.5504;
228.3000;1.3610;1.5384;
228.6000;1.3545;1.5216;
228.9000;1.3594;1.5288;
229.2000;1.3545;1.5240;
229.5000;1.3561;1.5336;
229.8000;1.3586;1.5336;
230.1000;1.3610;1.5432;
230.4000;1.3594;1.5384;
230.7000;1.3578;1.5456;
231.0000;1.3537;1.5312;
231.3000;1.3594;1.5480;
231.6000;1.3618;1.5528;
231.9000;1.3586;1.5384;
232.2000;1.3537;1.5240;
232.5000;1.3569;1.5312;
232.8000;1.3545;1.5312;
233.1000;1.3578;1.5360;
233.4000;1.3561;1.5360;
233.7000;1.3512;1.5240;
234.0000;1.3578;1.5360;
234.3000;1.3586;1.5456;
234.6000;1.3586;1.5504;
234.9000;1.3569;1.5456;
235.2000;1.3586;1.5456;
235.5000;1.3586;1.5480;
235.8000;1.3578;1.5456;
236.1000;1.3635;1.5552;
236.4000;1.3569;1.5240;
236.7000;1.3521;1.5168;
237.0000;1.3586;1.5384;
237.3000;1.3569;1.5384;
237.6000;1.3610;1.5360;
237.9000;1.3586;1.5360;
238.2000;1.3586;1.5360;
238.5000;1.3594;1.5312;
238.8000;1.3578;1.5288;
239.1000;1.3578;1.5408;
239.4000;1.3594;1.5408;
239.7000;1.3594;1.5360;
240.0000;1.3586;1.5288;
240.3000;1.3602;1.5288;
240.6000;1.3586;1.5240;
240.9000;1.3561;1.5216;
241.2000;1.3586;1.5168;
241.5000;1.3569;1.5192;
241.8000;1.3553;1.5216;
242.1000;1.3578;1.5288;
242.4000;1.3553;1.5216;
242.7000;1.3545;1.5240;
243.0000;1.3553;1.5288;
243.3000;1.3569;1.5312;
243.6000;1.3594;1.5360;
243.9000;1.3569;1.5360;
244.2000;1.3561;1.5312;
244.5000;1.3578;1.5312;
244.8000;1.3586;1.5312;
245.1000;1.3561;1.5264;
245.4000;1.3602;1.5336;
245.7000;1.3553;1.5288;
246.0000;1.3586;1.5336;
246.3000;1.3553;1.5312;
246.6000;1.3545;1.5264;
246.9000;1.3578;1.5264;
247.2000;1.3578;1.5144;
247.5000;1.3561;1.5168;
247.8000;1.3561;1.5144;
248.1000;1.3578;1.5168;
248.4000;1.3586;1.5192;
248.7000;1.3569;1.5096;
249.0000;1.3561;1.5001;
249.3000;1.3594;1.4953;
249.6000;1.3569;1.4953;
249.9000;1.3586;1.4953;
250.2000;1.3569;1.4977;
250.5000;1.3594;1.5025;
250.8000;1.3602;1.5072;
251.1000;1.3561;1.5025;
251.4000;1.3578;1.5096;
251.7000;1.3594;1.5096;
252.0000;1.3602;1.5096;
252.3000;1.3569;1.5025;
252.6000;1.3553;1.4857;
252.9000;1.3569;1.4833;
253.2000;1.3578;1.5001;
253.5000;1.3586;1.5048;
253.8000;1.3578;1.5096;
254.1000;1.3594;1.5216;
254.4000;1.3602;1.5312;
254.7000;1.3586;1.5192;
255.0000;1.3561;1.5264;
255.3000;1.3561;1.5192;
255.6000;1.3561;1.5216;
255.9000;1.3578;1.5336;
256.2000;1.3578;1.5384;
256.5000;1.3578;1.5384;
256.8000;1.3578;1.5288;
257.1000;1.3578;1.5312;
257.4000;1.3578;1.5336;
257.7000;1.3569;1.5360;
258.0000;1.3561;1.5264;
258.3000;1.3561;1.5288;
258.6000;1.3561;1.5288;
258.9000;1.3561;1.5312;
259.2000;1.3569;1.5288;
259.5000;1.3578;1.5312;
259.8000;1.3578;1.5216;
260.1000;1.3578;1.5168;
260.4000;1.3569;1.5168;
260.7000;1.3578;1.5216;
261.0000;1.3578;1.5240;
261.3000;1.3578;1.5240;
261.6000;1.3602;1.5216;
261.9000;1.3594;1.5168;
262.2000;1.3578;1.5192;
262.5000;1.3594;1.5168;
262.8000;1.3569;1.5192;
263.1000;1.3561;1.5192;
263.4000;1.3569;1.5168;
263.7000;1.3561;1.5096;
264.0000;1.3569;1.5120;
264.3000;1.3569;1.5240;
264.6000;1.3594;1.5288;
264.9000;1.3586;1.5240;
265.2000;1.3586;1.5216;
265.5000;1.3578;1.5240;
265.8000;1.3586;1.5288;
266.1000;1.3561;1.5264;
266.4000;1.3578;1.5240;
266.7000;1.3578;1.5264;
267.0000;1.3569;1.5312;
267.3000;1.3578;1.5360;
267.6000;1.3569;1.5312;
267.9000;1.3569;1.5312;
268.2000;1.3578;1.5336;
268.5000;1.3586;1.5336;
268.8000;1.3594;1.5360;
269.1000;1.3594;1.5384;
269.4000;1.3569;1.5384;
269.7000;1.3586;1.5384;
270.0000;1.3602;1.5480;
270.3000;1.3594;1.5360;
270.6000;1.3578;1.5264;
270.9000;1.3578;1.5312;
271.2000;1.3586;1.5264;
271.5000;1.3586;1.5288;
271.8000;1.3594;1.5288;
272.1000;1.3578;1.5288;
272.4000;1.3594;1.5288;
272.7000;1.3586;1.5336;
273.0000;1.3586;1.5312;
273.3000;1.3569;1.5192;
273.6000;1.3602;1.5192;
273.9000;1.3586;1.5168;
274.2000;1.3586;1.5168;
274.5000;1.3569;1.5192;
274.8000;1.3586;1.5216;
275.1000;1.3594;1.5192;
275.4000;1.3586;1.5216;
275.7000;1.3594;1.5264;
276.0000;1.3586;1.5288;
276.3000;1.3594;1.5264;
276.6000;1.3586;1.5312;
276.9000;1.3578;1.5312;
277.2000;1.3569;1.5288;
277.5000;1.3569;1.5336;
277.8000;1.3594;1.5480;
278.1000;1.3561;1.5408;
278.4000;1.3569;1.5408;
278.7000;1.3586;1.5456;
279.0000;1.3578;1.5456;
279.3000;1.3586;1.5408;
279.6000;1.3578;1.5336;
279.9000;1.3578;1.5312;
280.2000;1.3586;1.5336;
280.5000;1.3610;1.5360;
280.8000;1.3553;1.5216;
281.1000;1.3569;1.5240;
281.4000;1.3569;1.5192;
281.7000;1.3561;1.5120;
282.0000;1.3561;1.5168;
282.3000;1.3578;1.5216;
282.6000;1.3586;1.5240;
282.9000;1.3569;1.5216;
283.2000;1.3569;1.5264;
283.5000;1.3569;1.5240;
283.8000;1.3578;1.5216;
284.1000;1.3594;1.5192;
284.4000;1.3553;1.5096;
284.7000;1.3569;1.5192;
285.0000;1.3578;1.5192;
285.3000;1.3602;1.5192;
285.6000;1.3594;1.5144;
285.9000;1.3586;1.5144;
286.2000;1.3594;1.5144;
286.5000;1.3594;1.5192;
286.8000;1.3602;1.5168;
287.1000;1.3602;1.5192;
287.4000;1.3594;1.5168;
287.7000;1.3569;1.5192;
288.0000;1.3578;1.5264;
288.3000;1.3569;1.5336;
288.6000;1.3578;1.5408;
288.9000;1.3594;1.5432;
289.2000;1.3578;1.5384;
289.5000;1.3569;1.5360;
289.8000;1.3569;1.5264;
290.1000;1.3586;1.5264;
290.4000;1.3586;1.5216;
290.7000;1.3594;1.5312;
291.0000;1.3578;1.5288;
291.3000;1.3578;1.5288;
291.6000;1.3578;1.5264;
291.9000;1.3569;1.5288;
292.2000;1.3578;1.5360;
292.5000;1.3594;1.5360;
292.8000;1.3578;1.5264;
293.1000;1.3586;1.5240;
293.4000;1.3578;1.5216;
293.7000;1.3578;1.5336;
294.0000;1.3569;1.5384;
294.3000;1.3586;1.5432;
294.6000;1.3594;1.5480;
294.9000;1.3578;1.5384;
295.2000;1.3578;1.5312;
295.5000;1.3594;1.5360;
295.8000;1.3578;1.5312;
296.1000;1.3578;1.5264;
296.4000;1.3521;1.5264;
296.7000;1.3561;1.5456;
297.0000;1.3578;1.5408;
297.3000;1.3569;1.5336;
297.6000;1.3586;1.5408;
297.9000;1.3586;1.5432;
298.2000;1.3569;1.5456;
298.5000;1.3561;1.5408;
298.8000;1.3561;1.5408;
299.1000;1.3578;1.5408;
299.4000;1.3578;1.5432;
299.7000;1.3586;1.5336;
300.0000;1.3569;1.5288;
300.3000;1.3578;1.5264;
300.6000;1.3594;1.5408;
300.9000;1.3578;1.5456;
301.2000;1.3578;1.5480;
301.5000;1.3561;1.5384;
301.8000;1.3578;1.5408;
302.1000;1.3569;1.5480;
302.4000;1.3569;1.5576;
302.7000;1.3569;1.5600;
303.0000;1.3569;1.5480;
303.3000;1.3586;1.5384;
303.6000;1.3496;1.5168;
303.9000;1.3472;1.5072;
304.2000;1.3586;1.5384;
304.5000;1.3553;1.5360;
304.8000;1.3602;1.5432;
305.1000;1.3569;1.5384;
305.4000;1.3594;1.5432;
305.7000;1.3586;1.5432;
306.0000;1.3643;1.5528;
306.3000;1.3586;1.5456;
306.6000;1.3594;1.5552;
306.9000;1.3586;1.5432;
307.2000;1.3569;1.5456;
307.5000;1.3569;1.5456;
307.8000;1.3578;1.5456;
308.1000;1.3594;1.5360;
308.4000;1.3529;1.5168;
308.7000;1.3561;1.5240;
309.0000;1.3578;1.5264;
309.3000;1.3594;1.5216;
309.6000;1.3586;1.5336;
309.9000;1.3561;1.5216;
310.2000;1.3569;1.5144;
310.5000;1.3569;1.5240;
310.8000;1.3578;1.5336;
311.1000;1.3569;1.5384;
311.4000;1.3594;1.5456;
311.7000;1.3586;1.5432;
312.0000;1.3602;1.5384;
312.3000;1.3586;1.5360;
312.6000;1.3586;1.5384;
312.9000;1.3635;1.5528;
313.2000;1.3635;1.5600;
313.5000;1.3578;1.5504;
313.8000;1.3553;1.5384;
314.1000;1.3594;1.5480;
314.4000;1.3561;1.5360;
314.7000;1.3586;1.5384;
315.0000;1.3594;1.5384;
315.3000;1.3578;1.5312;
315.6000;1.3578;1.5360;
315.9000;1.3529;1.5264;
316.2000;1.3578;1.5360;
316.5000;1.3561;1.5336;
316.8000;1.3594;1.5384;
317.1000;1.3594;1.5456;
317.4000;1.3569;1.5384;
317.7000;1.3569;1.5432;
318.0000;1.3586;1.5552;
318.3000;1.3594;1.5624;
318.6000;1.3569;1.5576;
318.9000;1.3578;1.5671;
319.2000;1.3521;1.5504;
319.5000;1.3569;1.5552;
319.8000;1.3659;1.5695;
320.1000;1.3651;1.5576;
320.4000;1.3586;1.5360;
320.7000;1.3586;1.5432;
321.0000;1.3602;1.5480;
321.3000;1.3578;1.5432;
321.6000;1.3578;1.5480;
321.9000;1.3586;1.5432;
322.2000;1.3578;1.5528;
322.5000;1.3553;1.5552;
322.8000;1.3578;1.5576;
323.1000;1.3569;1.5504;
323.4000;1.3643;1.5695;
323.7000;1.3578;1.5528;
324.0000;1.3569;1.5576;
324.3000;1.3586;1.5528;
324.6000;1.3578;1.5456;
324.9000;1.3561;1.5408;
325.2000;1.3602;1.5528;
325.5000;1.3618;1.5600;
325.8000;1.3569;1.5432;
326.1000;1.3651;1.5528;
326.4000;1.3578;1.5360;
326.7000;1.3586;1.5336;
327.0000;1.3610;1.5432;
327.3000;1.3594;1.5384;
327.6000;1.3578;1.5336;
327.9000;1.3578;1.5408;
328.2000;1.3569;1.5456;
328.5000;1.3569;1.5408;
328.8000;1.3586;1.5456;
329.1000;1.3561;1.5504;
329.4000;1.3480;1.5240;
329.7000;1.3578;1.5432;
330.0000;1.3578;1.5480;
330.3000;1.3586;1.5528;
330.6000;1.3553;1.5408;
330.9000;1.3586;1.5456;
331.2000;1.3569;1.5408;
331.5000;1.3553;1.5360;
331.8000;1.3578;1.5408;
332.1000;1.3578;1.5408;
332.4000;1.3569;1.5360;
332.7000;1.3569;1.5384;
333.0000;1.3586;1.5456;
333.3000;1.3578;1.5432;
333.6000;1.3610;1.5528;
333.9000;1.3537;1.5312;
334.2000;1.3561;1.5456;
334.5000;1.3578;1.5480;
334.8000;1.3553;1.5432;
335.1000;1.3643;1.5600;
335.4000;1.3578;1.5408;
335.7000;1.3578;1.5504;
336.0000;1.3643;1.5648;
336.3000;1.3553;1.5432;
336.6000;1.3594;1.5504;
336.9000;1.3586;1.5552;
337.2000;1.3569;1.5456;
337.5000;1.3545;1.5360;
337.8000;1.3561;1.5408;
338.1000;1.3537;1.5360;
338.4000;1.3578;1.5480;
338.7000;1.3602;1.5552;
339.0000;1.3602;1.5456;
339.3000;1.3578;1.5384;
339.6000;1.3602;1.5360;
339.9000;1.3504;1.5096;
340.2000;1.3594;1.5288;
340.5000;1.3553;1.5192;
340.8000;1.3586;1.5288;
341.1000;1.3618;1.5336;
341.4000;1.3594;1.5312;
341.7000;1.3578;1.5312;
342.0000;1.3529;1.5264;
342.3000;1.3553;1.5240;
342.6000;1.3594;1.5336;
342.9000;1.3618;1.5432;
343.2000;1.3561;1.5240;
343.5000;1.3496;1.5096;
343.8000;1.3586;1.5408;
344.1000;1.3643;1.5528;
344.4000;1.3561;1.5360;
344.7000;1.3586;1.5336;
345.0000;1.3594;1.5456;
345.3000;1.3602;1.5408;
345.6000;1.3740;1.5767;
345.9000;1.3569;1.5336;
346.2000;1.3561;1.5336;
346.5000;1.3626;1.5480;
346.8000;1.3594;1.5408;
347.1000;1.3553;1.5384;
347.4000;1.3586;1.5360;
347.7000;1.3602;1.5456;
348.0000;1.3586;1.5408;
348.3000;1.3586;1.5408;
348.6000;1.3586;1.5384;
348.9000;1.3602;1.5408;
349.2000;1.3569;1.5408;
349.5000;1.3561;1.5408;
349.8000;1.3553;1.5432;
350.1000;1.3545;1.5408;
350.4000;1.3578;1.5480;
350.7000;1.3569;1.5456;
351.0000;1.3602;1.5408;
351.3000;1.3602;1.5432;
351.6000;1.3569;1.5480;
351.9000;1.3586;1.5480;
352.2000;1.3529;1.5312;
352.5000;1.3602;1.5480;
352.8000;1.3610;1.5576;
353.1000;1.3586;1.5456;
353.4000;1.3578;1.5408;
353.7000;1.3569;1.5384;
354.0000;1.3569;1.5408;
354.3000;1.3578;1.5480;
354.6000;1.3602;1.5504;
354.9000;1.3569;1.5504;
355.2000;1.3586;1.5528;
355.5000;1.3610;1.5552;
355.8000;1.3578;1.5504;
356.1000;1.3586;1.5576;
356.4000;1.3602;1.5671;
356.7000;1.3586;1.5624;
357.0000;1.3594;1.5671;
357.3000;1.3618;1.5695;
357.6000;1.3569;1.5552;
357.9000;1.3610;1.5624;
358.2000;1.3553;1.5504;
358.5000;1.3602;1.5576;
358.8000;1.3553;1.5504;
359.1000;1.3594;1.5624;
359.4000;1.3553;1.5576;
359.7000;1.3561;1.5600;
360.0000;1.3586;1.5671;
360.3000;1.3521;1.5552;
360.6000;1.3586;1.5671;
360.9000;1.3586;1.5600;
361.2000;1.3561;1.5528;
361.5000;1.3569;1.5456;
361.8000;1.3594;1.5504;
362.1000;1.3594;1.5432;
362.4000;1.3610;1.5480;
362.7000;1.3594;1.5504;
363.0000;1.3594;1.5528;
363.3000;1.3553;1.5432;
363.6000;1.3578;1.5528;
363.9000;1.3586;1.5456;
364.2000;1.3594;1.5528;
364.5000;1.3504;1.5312;
364.8000;1.3569;1.5480;
365.1000;1.3586;1.5456;
365.4000;1.3586;1.5480;
365.7000;1.3602;1.5480;
366.0000;1.3602;1.5480;
366.3000;1.3659;1.5695;
366.6000;1.3594;1.5624;
366.9000;1.3594;1.5671;
367.2000;1.3594;1.5648;
367.5000;1.3602;1.5624;
367.8000;1.3594;1.5648;
368.1000;1.3578;1.5456;
368.4000;1.3594;1.5504;
368.7000;1.3594;1.5624;
369.0000;1.3594;1.5600;
369.3000;1.3586;1.5600;
369.6000;1.3569;1.5528;
369.9000;1.3578;1.5552;
370.2000;1.3578;1.5552;
370.5000;1.3578;1.5552;
370.8000;1.3578;1.5504;
371.1000;1.3561;1.5552;
371.4000;1.3586;1.5504;
371.7000;1.3569;1.5384;
372.0000;1.3602;1.5360;
372.3000;1.3569;1.5360;
372.6000;1.3578;1.5312;
372.9000;1.3586;1.5408;
373.2000;1.3602;1.5480;
373.5000;1.3602;1.5432;
373.8000;1.3578;1.5360;
374.1000;1.3578;1.5384;
374.4000;1.3586;1.5432;
374.7000;1.3594;1.5456;
375.0000;1.3578;1.5480;
375.3000;1.3578;1.5456;
375.6000;1.3586;1.5504;
375.9000;1.3586;1.5504;
376.2000;1.3586;1.5504;
376.5000;1.3578;1.5432;
376.8000;1.3586;1.5408;
377.1000;1.3586;1.5336;
377.4000;1.3586;1.5384;
377.7000;1.3594;1.5384;
378.0000;1.3586;1.5480;
378.3000;1.3578;1.5528;
378.6000;1.3586;1.5480;
378.9000;1.3578;1.5432;
379.2000;1.3578;1.5480;
379.5000;1.3586;1.5528;
379.8000;1.3594;1.5600;
380.1000;1.3569;1.5528;
380.4000;1.3545;1.5384;
380.7000;1.3594;1.5432;
381.0000;1.3586;1.5432;
381.3000;1.3626;1.5504;
381.6000;1.3578;1.5432;
381.9000;1.3586;1.5504;
382.2000;1.3602;1.5576;
382.5000;1.3586;1.5552;
382.8000;1.3569;1.5576;
383.1000;1.3578;1.5624;
383.4000;1.3594;1.5719;
383.7000;1.3553;1.5600;
384.0000;1.3561;1.5576;
384.3000;1.3578;1.5600;
384.6000;1.3586;1.5576;
384.9000;1.3594;1.5648;
385.2000;1.3578;1.5528;
385.5000;1.3561;1.5480;
385.8000;1.3578;1.5576;
386.1000;1.3569;1.5648;
386.4000;1.3569;1.5600;
386.7000;1.3561;1.5600;
387.0000;1.3578;1.5695;
387.3000;1.3602;1.5648;
387.6000;1.3594;1.5624;
387.9000;1.3586;1.5552;
388.2000;1.3602;1.5480;
388.5000;1.3594;1.5504;
388.8000;1.3602;1.5408;
389.1000;1.3578;1.5384;
389.4000;1.3578;1.5408;
389.7000;1.3594;1.5480;
390.0000;1.3578;1.5432;
390.3000;1.3586;1.5408;
390.6000;1.3594;1.5456;
390.9000;1.3586;1.5504;
391.2000;1.3578;1.5432;
391.5000;1.3594;1.5432;
391.8000;1.3569;1.5432;
392.1000;1.3586;1.5480;
392.4000;1.3610;1.5504;
392.7000;1.3578;1.5456;
393.0000;1.3569;1.5504;
393.3000;1.3594;1.5576;
393.6000;1.3602;1.5504;
393.9000;1.3594;1.5432;
394.2000;1.3594;1.5432;
394.5000;1.3594;1.5360;
394.8000;1.3586;1.5360;
395.1000;1.3594;1.5456;
395.4000;1.3602;1.5456;
395.7000;1.3586;1.5456;
396.0000;1.3586;1.5456;
396.3000;1.3643;1.5504;
396.6000;1.3626;1.5408;
396.9000;1.3651;1.5432;
397.2000;1.3578;1.5240;
397.5000;1.3602;1.5240;
397.8000;1.3578;1.5192;
398.1000;1.3586;1.5144;
398.4000;1.3594;1.5096;
398.7000;1.3578;1.5144;
399.0000;1.3578;1.5192;
399.3000;1.3578;1.5240;
399.6000;1.3569;1.5240;
399.9000;1.3594;1.5336;
400.2000;1.3594;1.5360;
400.5000;1.3529;1.5264;
400.8000;1.3594;1.5408;
401.1000;1.3569;1.5432;
401.4000;1.3586;1.5336;
401.7000;1.3594;1.5408;
402.0000;1.3578;1.5360;
402.3000;1.3594;1.5336;
402.6000;1.3578;1.5288;
402.9000;1.3602;1.5408;
403.2000;1.3586;1.5528;
403.5000;1.3602;1.5624;
403.8000;1.3594;1.5552;
404.1000;1.3578;1.5552;
404.4000;1.3602;1.5576;
404.7000;1.3561;1.5408;
405.0000;1.3586;1.5480;
405.3000;1.3594;1.5480;
405.6000;1.3561;1.5408;
405.9000;1.3594;1.5456;
406.2000;1.3561;1.5456;
406.5000;1.3586;1.5528;
406.8000;1.3569;1.5504;
407.1000;1.3537;1.5360;
407.4000;1.3586;1.5432;
407.7000;1.3586;1.5552;
408.0000;1.3586;1.5552;
408.3000;1.3545;1.5504;
408.6000;1.3594;1.5648;
408.9000;1.3635;1.5791;
409.2000;1.3586;1.5719;
409.5000;1.3561;1.5671;
409.8000;1.3545;1.5648;
410.1000;1.3553;1.5624;
410.4000;1.3561;1.5600;
410.7000;1.3504;1.5456;
411.0000;1.3561;1.5576;
411.3000;1.3569;1.5671;
411.6000;1.3496;1.5432;
411.9000;1.3594;1.5695;
412.2000;1.3586;1.5648;
412.5000;1.3586;1.5671;
412.8000;1.3578;1.5576;
413.1000;1.3586;1.5576;
413.4000;1.3569;1.5528;
413.7000;1.3586;1.5552;
414.0000;1.3586;1.5480;
414.3000;1.3594;1.5456;
414.6000;1.3569;1.5480;
414.9000;1.3569;1.5384;
415.2000;1.3602;1.5504;
415.5000;1.3578;1.5456;
415.8000;1.3569;1.5408;
416.1000;1.3578;1.5432;
416.4000;1.3569;1.5360;
416.7000;1.3529;1.5288;
417.0000;1.3569;1.5384;
417.3000;1.3569;1.5432;
417.6000;1.3602;1.5504;
417.9000;1.3651;1.5671;
418.2000;1.3561;1.5552;
418.5000;1.3635;1.5600;
418.8000;1.3602;1.5528;
419.1000;1.3586;1.5504;
419.4000;1.3561;1.5408;
419.7000;1.3586;1.5528;
420.0000;1.3586;1.5528;
420.3000;1.3586;1.5504;
420.6000;1.3618;1.5504;
420.9000;1.3569;1.5336;
421.2000;1.3578;1.5432;
421.5000;1.3586;1.5504;
421.8000;1.3578;1.5456;
422.1000;1.3578;1.5528;
422.4000;1.3578;1.5600;
422.7000;1.3569;1.5695;
423.0000;1.3586;1.5576;
423.3000;1.3602;1.5719;
423.6000;1.3561;1.5719;
423.9000;1.3586;1.5767;
424.2000;1.3594;1.5743;
424.5000;1.3537;1.5552;
424.8000;1.3545;1.5552;
425.1000;1.3569;1.5456;
425.4000;1.3586;1.5528;
425.7000;1.3635;1.5600;
426.0000;1.3578;1.5528;
426.3000;1.3586;1.5552;
426.6000;1.3586;1.5576;
426.9000;1.3586;1.5719;
427.2000;1.3594;1.5743;
427.5000;1.3586;1.5695;
427.8000;1.3594;1.5695;
428.1000;1.3618;1.5767;
428.4000;1.3578;1.5719;
428.7000;1.3553;1.5671;
429.0000;1.3578;1.5695;
429.3000;1.3586;1.5648;
429.6000;1.3569;1.5504;
429.9000;1.3594;1.5456;
430.2000;1.3578;1.5336;
430.5000;1.3561;1.5216;
430.8000;1.3610;1.5360;
431.1000;1.3569;1.5264;
431.4000;1.3578;1.5336;
431.7000;1.3578;1.5360;
432.0000;1.3561;1.5384;
432.3000;1.3586;1.5408;
432.6000;1.3594;1.5456;
432.9000;1.3594;1.5504;
433.2000;1.3594;1.5480;
433.5000;1.3586;1.5408;
433.8000;1.3643;1.5600;
434.1000;1.3569;1.5408;
434.4000;1.3586;1.5432;
434.7000;1.3618;1.5480;
435.0000;1.3537;1.5288;
435.3000;1.3578;1.5456;
435.6000;1.3594;1.5408;
435.9000;1.3586;1.5480;
436.2000;1.3561;1.5504;
436.5000;1.3602;1.5600;
436.8000;1.3594;1.5456;
437.1000;1.3610;1.5408;
437.4000;1.3586;1.5288;
437.7000;1.3594;1.5240;
438.0000;1.3594;1.5288;
438.3000;1.3594;1.5288;
438.6000;1.3586;1.5312;
438.9000;1.3529;1.5216;
439.2000;1.3602;1.5408;
439.5000;1.3578;1.5336;
439.8000;1.3561;1.5312;
440.1000;1.3626;1.5432;
440.4000;1.3578;1.5312;
440.7000;1.3586;1.5360;
441.0000;1.3553;1.5192;
441.3000;1.3569;1.5264;
441.6000;1.3586;1.5288;
441.9000;1.3537;1.5192;
442.2000;1.3602;1.5288;
442.5000;1.3561;1.5192;
442.8000;1.3618;1.5456;
443.1000;1.3586;1.5384;
443.4000;1.3586;1.5504;
443.7000;1.3569;1.5552;
444.0000;1.3578;1.5552;
444.3000;1.3586;1.5624;
444.6000;1.3594;1.5719;
444.9000;1.3594;1.5695;
445.2000;1.3586;1.5576;
445.5000;1.3496;1.5336;
445.8000;1.3578;1.5576;
446.1000;1.3578;1.5576;
446.4000;1.3578;1.5600;
446.7000;1.3586;1.5600;
447.0000;1.3578;1.5528;
447.3000;1.3586;1.5600;
447.6000;1.3610;1.5624;
447.9000;1.3578;1.5576;
448.2000;1.3586;1.5624;
448.5000;1.3602;1.5695;
448.8000;1.3586;1.5648;
449.1000;1.3610;1.5719;
449.4000;1.3569;1.5624;
449.7000;1.3594;1.5600;
450.0000;1.3626;1.5648;
450.3000;1.3569;1.5432;
450.6000;1.3594;1.5456;
450.9000;1.3586;1.5504;
451.2000;1.3578;1.5480;
451.5000;1.3602;1.5408;
451.8000;1.3569;1.5336;
452.1000;1.3594;1.5432;
452.4000;1.3594;1.5432;
452.7000;1.3578;1.5384;
453.0000;1.3578;1.5384;
453.3000;1.3594;1.5432;
453.6000;1.3626;1.5528;
453.9000;1.3545;1.5336;
454.2000;1.3578;1.5384;
454.5000;1.3586;1.5456;
454.8000;1.3594;1.5432;
455.1000;1.3578;1.5384;
455.4000;1.3569;1.5360;
455.7000;1.3553;1.5456;
456.0000;1.3578;1.5504;
456.3000;1.3586;1.5480;
456.6000;1.3586;1.5528;
456.9000;1.3569;1.5528;
457.2000;1.3618;1.5719;
457.5000;1.3594;1.5671;
457.8000;1.3578;1.5648;
458.1000;1.3553;1.5671;
458.4000;1.3578;1.5743;
458.7000;1.3594;1.5743;
459.0000;1.3602;1.5719;
459.3000;1.3675;1.5887;
459.6000;1.3594;1.5624;
459.9000;1.3586;1.5504;
460.2000;1.3586;1.5504;
460.5000;1.3553;1.5504;
460.8000;1.3553;1.5552;
461.1000;1.3545;1.5600;
461.4000;1.3594;1.5648;
461.7000;1.3553;1.5576;
462.0000;1.3480;1.5360;
462.3000;1.3586;1.5576;
462.6000;1.3586;1.5552;
462.9000;1.3578;1.5600;
463.2000;1.3594;1.5552;
463.5000;1.3602;1.5624;
463.8000;1.3610;1.5528;
464.1000;1.3586;1.5480;
464.4000;1.3578;1.5456;
464.7000;1.3594;1.5480;
465.0000;1.3586;1.5480;
465.3000;1.3569;1.5528;
465.6000;1.3635;1.5648;
465.9000;1.3569;1.5456;
466.2000;1.3618;1.5600;
466.5000;1.3586;1.5552;
466.8000;1.3578;1.5528;
467.1000;1.3602;1.5624;
467.4000;1.3635;1.5648;
467.7000;1.3610;1.5480;
468.0000;1.3578;1.5432;
468.3000;1.3594;1.5384;
468.6000;1.3586;1.5384;
468.9000;1.3602;1.5480;
469.2000;1.3578;1.5504;
469.5000;1.3610;1.5576;
469.8000;1.3578;1.5552;
470.1000;1.3529;1.5408;
470.4000;1.3561;1.5528;
470.7000;1.3553;1.5480;
471.0000;1.3561;1.5408;
471.3000;1.3578;1.5408;
471.6000;1.3578;1.5504;
471.9000;1.3569;1.5504;
472.2000;1.3586;1.5480;
472.5000;1.3594;1.5360;
472.8000;1.3569;1.5288;
473.1000;1.3602;1.5264;
473.4000;1.3602;1.5360;
473.7000;1.3578;1.5384;
474.0000;1.3537;1.5336;
474.3000;1.3578;1.5456;
474.6000;1.3578;1.5432;
474.9000;1.3569;1.5336;
475.2000;1.3586;1.5432;
475.5000;1.3561;1.5288;
475.8000;1.3569;1.5240;
476.1000;1.3626;1.5312;
476.4000;1.3561;1.5120;
476.7000;1.3586;1.5192;
477.0000;1.3561;1.5168;
477.3000;1.3578;1.5240;
477.6000;1.3586;1.5384;
477.9000;1.3578;1.5504;
478.2000;1.3578;1.5576;
478.5000;1.3594;1.5552;
478.8000;1.3569;1.5480;
479.1000;1.3586;1.5552;
479.4000;1.3586;1.5432;
479.7000;1.3569;1.5384;
480.0000;1.3578;1.5456;
480.3000;1.3569;1.5384;
480.6000;1.3569;1.5408;
480.9000;1.3569;1.5408;
481.2000;1.3553;1.5432;
481.5000;1.3561;1.5456;
481.8000;1.3578;1.5408;
482.1000;1.3553;1.5312;
482.4000;1.3561;1.5384;
482.7000;1.3569;1.5312;
483.0000;1.3594;1.5336;
483.3000;1.3569;1.5408;
483.6000;1.3561;1.5432;
483.9000;1.3578;1.5384;
484.2000;1.3610;1.5456;
484.5000;1.3569;1.5384;
484.8000;1.3569;1.5360;
485.1000;1.3594;1.5552;
485.4000;1.3586;1.5576;
485.7000;1.3561;1.5456;
486.0000;1.3569;1.5432;
486.3000;1.3651;1.5408;
486.6000;1.3561;1.5240;
486.9000;1.3586;1.5192;
487.2000;1.3594;1.5264;
487.5000;1.3561;1.5216;
487.8000;1.3602;1.5264;
488.1000;1.3578;1.5264;
488.4000;1.3578;1.5240;
488.7000;1.3594;1.5192;
489.0000;1.3586;1.5216;
489.3000;1.3602;1.5240;
489.6000;1.3594;1.5240;
489.9000;1.3602;1.5240;
490.2000;1.3578;1.5288;
490.5000;1.3586;1.5288;
490.8000;1.3569;1.5240;
491.1000;1.3561;1.5216;
491.4000;1.3569;1.5120;
491.7000;1.3569;1.5025;
492.0000;1.3553;1.5001;
492.3000;1.3537;1.5001;
492.6000;1.3578;1.5120;
492.9000;1.3635;1.5432;
493.2000;1.3553;1.5384;
493.5000;1.3569;1.5408;
493.8000;1.3553;1.5432;
494.1000;1.3561;1.5456;
494.4000;1.3578;1.5552;
494.7000;1.3578;1.5552;
495.0000;1.3569;1.5504;
495.3000;1.3578;1.5384;
495.6000;1.3602;1.5408;
495.9000;1.3578;1.5336;
496.2000;1.3578;1.5360;
496.5000;1.3569;1.5360;
496.8000;1.3569;1.5456;
497.1000;1.3561;1.5528;
497.4000;1.3569;1.5456;
497.7000;1.3561;1.5432;
498.0000;1.3578;1.5384;
498.3000;1.3569;1.5312;
498.6000;1.3569;1.5384;
498.9000;1.3578;1.5480;
499.2000;1.3586;1.5552;
499.5000;1.3594;1.5576;
499.8000;1.3561;1.5528;
500.1000;1.3561;1.5480;
500.4000;1.3578;1.5528;
500.7000;1.3578;1.5528;
501.0000;1.3586;1.5576;
501.3000;1.3578;1.5624;
501.6000;1.3610;1.5767;
501.9000;1.3586;1.5695;
502.2000;1.3594;1.5719;
502.5000;1.3586;1.5695;
502.8000;1.3586;1.5671;
503.1000;1.3578;1.5624;
503.4000;1.3586;1.5624;
503.7000;1.3569;1.5576;
504.0000;1.3561;1.5552;
504.3000;1.3561;1.5552;
504.6000;1.3586;1.5504;
504.9000;1.3586;1.5456;
505.2000;1.3561;1.5360;
505.5000;1.3594;1.5360;
505.8000;1.3586;1.5360;
506.1000;1.3569;1.5432;
506.4000;1.3569;1.5384;
506.7000;1.3561;1.5432;
507.0000;1.3569;1.5480;
507.3000;1.3569;1.5576;
507.6000;1.3569;1.5552;
507.9000;1.3569;1.5480;
508.2000;1.3586;1.5552;
508.5000;1.3586;1.5552;
508.8000;1.3594;1.5528;
509.1000;1.3569;1.5528;
509.4000;1.3594;1.5576;
509.7000;1.3578;1.5671;
510.0000;1.3578;1.5576;
510.3000;1.3569;1.5528;
510.6000;1.3586;1.5504;
510.9000;1.3594;1.5456;
511.2000;1.3586;1.5552;
511.5000;1.3586;1.5552;
511.8000;1.3594;1.5456;
512.1000;1.3586;1.5408;
512.4000;1.3594;1.5432;
512.7000;1.3602;1.5504;
513.0000;1.3561;1.5456;
513.3000;1.3569;1.5480;
513.6000;1.3569;1.5456;
513.9000;1.3569;1.5432;
514.2000;1.3618;1.5552;
514.5000;1.3561;1.5336;
514.8000;1.3594;1.5384;
515.1000;1.3561;1.5336;
515.4000;1.3586;1.5336;
515.7000;1.3594;1.5456;
516.0000;1.3594;1.5552;
516.3000;1.3569;1.5528;
516.6000;1.3529;1.5480;
516.9000;1.3626;1.5695;
517.2000;1.3578;1.5576;
517.5000;1.3578;1.5528;
517.8000;1.3569;1.5432;
518.1000;1.3635;1.5480;
518.4000;1.3594;1.5360;
518.7000;1.3586;1.5360;
519.0000;1.3594;1.5384;
519.3000;1.3691;1.5624;
519.6000;1.3578;1.5360;
519.9000;1.3594;1.5432;
520.2000;1.3512;1.5240;
520.5000;1.3561;1.5336;
520.8000;1.3569;1.5408;
521.1000;1.3602;1.5528;
521.4000;1.3618;1.5480;
521.7000;1.3569;1.5408;
522.0000;1.3578;1.5432;
522.3000;1.3586;1.5432;
522.6000;1.3594;1.5504;
522.9000;1.3569;1.5528;
523.2000;1.3561;1.5504;
523.5000;1.3578;1.5408;
523.8000;1.3569;1.5288;
524.1000;1.3578;1.5384;
524.4000;1.3578;1.5312;
524.7000;1.3521;1.5288;
525.0000;1.3578;1.5384;
525.3000;1.3586;1.5360;
525.6000;1.3586;1.5336;
525.9000;1.3569;1.5312;
526.2000;1.3586;1.5504;
526.5000;1.3594;1.5528;
526.8000;1.3561;1.5480;
527.1000;1.3594;1.5408;
527.4000;1.3594;1.5408;
527.7000;1.3578;1.5408;
528.0000;1.3586;1.5384;
528.3000;1.3512;1.5168;
528.6000;1.3594;1.5384;
528.9000;1.3578;1.5432;
529.2000;1.3529;1.5240;
529.5000;1.3602;1.5432;
529.8000;1.3569;1.5384;
530.1000;1.3586;1.5456;
530.4000;1.3553;1.5384;
530.7000;1.3569;1.5456;
531.0000;1.3569;1.5528;
531.3000;1.3553;1.5504;
531.6000;1.3561;1.5552;
531.9000;1.3602;1.5695;
532.2000;1.3561;1.5552;
532.5000;1.3553;1.5480;
532.8000;1.3569;1.5528;
533.1000;1.3569;1.5504;
533.4000;1.3586;1.5576;
533.7000;1.3635;1.5695;
534.0000;1.3545;1.5504;
534.3000;1.3578;1.5600;
534.6000;1.3578;1.5648;
534.9000;1.3578;1.5576;
535.2000;1.3561;1.5504;
535.5000;1.3569;1.5528;
535.8000;1.3561;1.5480;
536.1000;1.3569;1.5432;
536.4000;1.3561;1.5408;
536.7000;1.3561;1.5504;
537.0000;1.3569;1.5456;
537.3000;1.3610;1.5528;
537.6000;1.3578;1.5528;
537.9000;1.3569;1.5600;
538.2000;1.3553;1.5600;
538.5000;1.3602;1.5839;
538.8000;1.3594;1.5671;
539.1000;1.3537;1.5456;
539.4000;1.3569;1.5504;
539.7000;1.3561;1.5360;
540.0000;1.3586;1.5384;
540.3000;1.3594;1.5432;
540.6000;1.3602;1.5528;
540.9000;1.3610;1.5504;
541.2000;1.3529;1.5336;
541.5000;1.3586;1.5480;
541.8000;1.3553;1.5456;
542.1000;1.3521;1.5432;
542.4000;1.3561;1.5576;
542.7000;1.3569;1.5552;
543.0000;1.3578;1.5528;
543.3000;1.3553;1.5456;
543.6000;1.3545;1.5456;
543.9000;1.3553;1.5552;
544.2000;1.3602;1.5648;
544.5000;1.3578;1.5576;
544.8000;1.3578;1.5600;
545.1000;1.3586;1.5648;
545.4000;1.3561;1.5480;
545.7000;1.3578;1.5504;
546.0000;1.3561;1.5504;
546.3000;1.3561;1.5600;
546.6000;1.3569;1.5576;
546.9000;1.3578;1.5576;
547.2000;1.3594;1.5576;
547.5000;1.3578;1.5504;
547.8000;1.3488;1.5216;
548.1000;1.3594;1.5576;
548.4000;1.3569;1.5528;
548.7000;1.3537;1.5432;
549.0000;1.3586;1.5528;
549.3000;1.3569;1.5504;
549.6000;1.3537;1.5480;
549.9000;1.3569;1.5600;
550.2000;1.3618;1.5695;
550.5000;1.3594;1.5648;
550.8000;1.3553;1.5528;
551.1000;1.3578;1.5552;
551.4000;1.3578;1.5528;
551.7000;1.3578;1.5552;
552.0000;1.3545;1.5480;
552.3000;1.3529;1.5408;
552.6000;1.3578;1.5528;
552.9000;1.3594;1.5528;
553.2000;1.3659;1.5695;
553.5000;1.3537;1.5384;
553.8000;1.3569;1.5480;
554.1000;1.3569;1.5384;
554.4000;1.3586;1.5360;
554.7000;1.3545;1.5384;
555.0000;1.3553;1.5384;
555.3000;1.3578;1.5384;
555.6000;1.3586;1.5384;
555.9000;1.3545;1.5336;
556.2000;1.3578;1.5312;
556.5000;1.3643;1.5456;
556.8000;1.3578;1.5336;
557.1000;1.3553;1.5336;
557.4000;1.3561;1.5408;
557.7000;1.3561;1.5432;
558.0000;1.3586;1.5600;
558.3000;1.3561;1.5600;
558.6000;1.3553;1.5576;
558.9000;1.3569;1.5528;
559.2000;1.3553;1.5528;
559.5000;1.3561;1.5432;
559.8000;1.3578;1.5504;
560.1000;1.3561;1.5504;
560.4000;1.3602;1.5552;
560.7000;1.3594;1.5504;
561.0000;1.3569;1.5432;
561.3000;1.3594;1.5456;
561.6000;1.3594;1.5480;
561.9000;1.3586;1.5456;
562.2000;1.3561;1.5432;
562.5000;1.3561;1.5552;
562.8000;1.3553;1.5552;
563.1000;1.3586;1.5695;
563.4000;1.3569;1.5600;
563.7000;1.3464;1.5288;
564.0000;1.3667;1.5719;
564.3000;1.3569;1.5480;
564.6000;1.3569;1.5432;
564.9000;1.3578;1.5504;
565.2000;1.3578;1.5504;
565.5000;1.3569;1.5528;
565.8000;1.3602;1.5576;
566.1000;1.3578;1.5624;
566.4000;1.3561;1.5648;
566.7000;1.3569;1.5695;
567.0000;1.3561;1.5528;
567.3000;1.3553;1.5576;
567.6000;1.3553;1.5624;
567.9000;1.3561;1.5695;
568.2000;1.3569;1.5767;
568.5000;1.3578;1.5791;
568.8000;1.3537;1.5671;
569.1000;1.3553;1.5767;
569.4000;1.3569;1.5743;
569.7000;1.3586;1.5648;
570.0000;1.3602;1.5671;
570.3000;1.3553;1.5456;
570.6000;1.3578;1.5528;
570.9000;1.3545;1.5504;
571.2000;1.3569;1.5528;
571.5000;1.3561;1.5528;
571.8000;1.3586;1.5648;
572.1000;1.3586;1.5600;
572.4000;1.3561;1.5504;
572.7000;1.3569;1.5504;
573.0000;1.3578;1.5624;
573.3000;1.3594;1.5648;
573.6000;1.3561;1.5480;
573.9000;1.3578;1.5480;
574.2000;1.3578;1.5528;
574.5000;1.3569;1.5408;
574.8000;1.3602;1.5480;
575.1000;1.3594;1.5456;
575.4000;1.3586;1.5456;
575.7000;1.3578;1.5504;
576.0000;1.3586;1.5552;
576.3000;1.3569;1.5504;
576.6000;1.3569;1.5504;
576.9000;1.3651;1.5671;
577.2000;1.3594;1.5456;
577.5000;1.3594;1.5456;
577.8000;1.3569;1.5384;
578.1000;1.3545;1.5360;
578.4000;1.3561;1.5480;
578.7000;1.3553;1.5528;
579.0000;1.3553;1.5504;
579.3000;1.3545;1.5432;
579.6000;1.3602;1.5528;
579.9000;1.3594;1.5576;
580.2000;1.3594;1.5528;
580.5000;1.3578;1.5456;
580.8000;1.3586;1.5456;
581.1000;1.3561;1.5288;
581.4000;1.3586;1.5360;
581.7000;1.3561;1.5384;
582.0000;1.3578;1.5432;
582.3000;1.3569;1.5288;
582.6000;1.3537;1.5312;
582.9000;1.3569;1.5360;
583.2000;1.3586;1.5384;
583.5000;1.3537;1.5312;
583.8000;1.3512;1.5240;
584.1000;1.3512;1.5168;
584.4000;1.3561;1.5288;
584.7000;1.3569;1.5360;
585.0000;1.3553;1.5360;
585.3000;1.3553;1.5360;
585.6000;1.3602;1.5432;
585.9000;1.3586;1.5408;
586.2000;1.3635;1.5552;
586.5000;1.3529;1.5312;
586.8000;1.3569;1.5432;
587.1000;1.3537;1.5408;
587.4000;1.3569;1.5456;
587.7000;1.3553;1.5408;
588.0000;1.3586;1.5576;
588.3000;1.3569;1.5576;
588.6000;1.3561;1.5528;
588.9000;1.3561;1.5480;
589.2000;1.3578;1.5528;
589.5000;1.3561;1.5528;
589.8000;1.3594;1.5600;
590.1000;1.3586;1.5528;
590.4000;1.3569;1.5432;
590.7000;1.3569;1.5552;
591.0000;1.3578;1.5576;
591.3000;1.3578;1.5600;
591.6000;1.3578;1.5624;
591.9000;1.3594;1.5552;
592.2000;1.3586;1.5528;
592.5000;1.3594;1.5552;
592.8000;1.3594;1.5648;
593.1000;1.3578;1.5671;
593.4000;1.3594;1.5600;
593.7000;1.3594;1.5528;
594.0000;1.3578;1.5456;
594.3000;1.3569;1.5480;
594.6000;1.3594;1.5600;
594.9000;1.3561;1.5576;
595.2000;1.3561;1.5624;
595.5000;1.3610;1.5767;
595.8000;1.3569;1.5671;
596.1000;1.3594;1.5695;
596.4000;1.3578;1.5576;
596.7000;1.3578;1.5504;
597.0000;1.3586;1.5600;
597.3000;1.3578;1.5648;
597.6000;1.3569;1.5600;
597.9000;1.3561;1.5600;
598.2000;1.3553;1.5624;
598.5000;1.3545;1.5624;
598.8000;1.3569;1.5624;
599.1000;1.3578;1.5648;
599.4000;1.3569;1.5600;
599.7000;1.3569;1.5600;
600.0000;1.3569;1.5648;
600.3000;1.3594;1.5528;
600.6000;1.3529;1.5336;
600.9000;1.3455;1.5120;
601.2000;1.3341;1.4977;
601.5000;1.3211;1.4737;
601.8000;1.3073;1.4569;
602.1000;1.2983;1.4401;
602.4000;1.2829;1.4162;
602.7000;1.2715;1.4090;
603.0000;1.2584;1.3826;
603.3000;1.2487;1.3635;
603.6000;1.2389;1.3539;
603.9000;1.2291;1.3467;
604.2000;1.2218;1.3323;
604.5000;1.2104;1.3227;
604.8000;1.2031;1.3227;
605.1000;1.1958;1.3179;
605.4000;1.1893;1.3036;
605.7000;1.1811;1.2940;
606.0000;1.1730;1.2892;
606.3000;1.1673;1.2772;
606.6000;1.1616;1.2748;
606.9000;1.1534;1.2580;
607.2000;1.1486;1.2580;
607.5000;1.1420;1.2652;
607.8000;1.1363;1.2676;
608.1000;1.1306;1.2556;
608.4000;1.1249;1.2508;
608.7000;1.1201;1.2437;
609.0000;1.1152;1.2413;
609.3000;1.1119;1.2389;
609.6000;1.1095;1.2317;
609.9000;1.1013;1.2245;
610.2000;1.0989;1.2269;
610.5000;1.0924;1.2173;
610.8000;1.0891;1.2221;
611.1000;1.0859;1.2293;
611.4000;1.0810;1.2293;
611.7000;1.0753;1.2245;
612.0000;1.0712;1.2221;
612.3000;1.0672;1.2221;
612.6000;1.0663;1.2317;
612.9000;1.0606;1.2341;
613.2000;1.0574;1.2437;
613.5000;1.0509;1.2341;
613.8000;1.0492;1.2413;
614.1000;1.0460;1.2317;
614.4000;1.0411;1.2197;
614.7000;1.0379;1.2149;
615.0000;1.0370;1.2245;
615.3000;1.0322;1.2125;
615.6000;1.0289;1.2125;
615.9000;1.0273;1.2101;
616.2000;1.0224;1.2101;
616.5000;1.0191;1.2197;
616.8000;1.0167;1.2149;
617.1000;1.0151;1.2149;
617.4000;1.0118;1.2077;
617.7000;1.0094;1.2101;
618.0000;1.0045;1.2101;
618.3000;1.0037;1.2125;
618.6000;0.9988;1.1981;
618.9000;0.9947;1.1909;
619.2000;0.9955;1.1933;
619.5000;0.9923;1.1909;
619.8000;0.9841;1.1694;
620.1000;0.9890;1.1861;
620.4000;0.9849;1.1885;
620.7000;0.9825;1.1909;
621.0000;0.9817;1.1909;
621.3000;0.9784;1.1861;
621.6000;0.9792;1.2005;
621.9000;0.9784;1.2101;
622.2000;0.9695;1.1933;
622.5000;0.9678;1.1885;
622.8000;0.9687;1.1814;
623.1000;0.9646;1.1837;
623.4000;0.9630;1.1909;
623.7000;0.9605;1.1861;
624.0000;0.9589;1.1861;
624.3000;0.9581;1.1837;
624.6000;0.9548;1.1837;
624.9000;0.9524;1.1909;
625.2000;0.9524;1.1957;
625.5000;0.9508;1.1957;
625.8000;0.9499;1.2029;
626.1000;0.9459;1.2005;
626.4000;0.9442;1.2077;
626.7000;0.9442;1.2077;
627.0000;0.9426;1.1957;
627.3000;0.9377;1.1837;
627.6000;0.9369;1.1790;
627.9000;0.9353;1.1766;
628.2000;0.9328;1.1742;
628.5000;0.9304;1.1742;
628.8000;0.9296;1.1670;
629.1000;0.9304;1.1718;
629.4000;0.9280;1.1766;
629.7000;0.9239;1.1742;
630.0000;0.9223;1.1718;
630.3000;0.9214;1.1718;
630.6000;0.9214;1.1861;
630.9000;0.9206;1.1790;
631.2000;0.9174;1.1742;
631.5000;0.9149;1.1670;
631.8000;0.9206;1.1790;
632.1000;0.9141;1.1598;
632.4000;0.9060;1.1358;
632.7000;0.9109;1.1550;
633.0000;0.9101;1.1622;
633.3000;0.9084;1.1574;
633.6000;0.9068;1.1622;
633.9000;0.9044;1.1622;
634.2000;0.9027;1.1646;
634.5000;0.9019;1.1742;
634.8000;0.9011;1.1718;
635.1000;0.8987;1.1718;
635.4000;0.9011;1.1742;
635.7000;0.8995;1.1766;
636.0000;0.8970;1.1670;
636.3000;0.8946;1.1646;
636.6000;0.8954;1.1694;
636.9000;0.8962;1.1742;
637.2000;0.8897;1.1694;
637.5000;0.8897;1.1718;
637.8000;0.8954;1.1742;
638.1000;0.8889;1.1502;
638.4000;0.8873;1.1526;
638.7000;0.8864;1.1598;
639.0000;0.8881;1.1718;
639.3000;0.8848;1.1718;
639.6000;0.8848;1.1742;
639.9000;0.8791;1.1598;
640.2000;0.8807;1.1622;
640.5000;0.8783;1.1550;
640.8000;0.8824;1.1790;
641.1000;0.8791;1.1790;
641.4000;0.8783;1.1718;
641.7000;0.8759;1.1646;
642.0000;0.8783;1.1742;
642.3000;0.8742;1.1766;
642.6000;0.8726;1.1694;
642.9000;0.8726;1.1646;
643.2000;0.8734;1.1814;
643.5000;0.8702;1.1790;
643.8000;0.8661;1.1742;
644.1000;0.8718;1.1933;
644.4000;0.8637;1.1694;
644.7000;0.8653;1.1646;
645.0000;0.8653;1.1646;
645.3000;0.8661;1.1646;
645.6000;0.8620;1.1454;
645.9000;0.8677;1.1550;
646.2000;0.8612;1.1574;
646.5000;0.8604;1.1670;
646.8000;0.8580;1.1502;
647.1000;0.8604;1.1526;
647.4000;0.8604;1.1550;
647.7000;0.8588;1.1526;
648.0000;0.8580;1.1502;
648.3000;0.8563;1.1454;
648.6000;0.8563;1.1454;
648.9000;0.8555;1.1526;
649.2000;0.8539;1.1406;
649.5000;0.8506;1.1286;
649.8000;0.8523;1.1334;
650.1000;0.8506;1.1358;
650.4000;0.8498;1.1358;
650.7000;0.8482;1.1454;
651.0000;0.8490;1.1502;
651.3000;0.8490;1.1670;
651.6000;0.8490;1.1742;
651.9000;0.8466;1.1694;
652.2000;0.8498;1.1766;
652.5000;0.8441;1.1598;
652.8000;0.8417;1.1646;
653.1000;0.8400;1.1502;
653.4000;0.8433;1.1646;
653.7000;0.8425;1.1646;
654.0000;0.8409;1.1694;
654.3000;0.8384;1.1646;
654.6000;0.8392;1.1837;
654.9000;0.8360;1.1790;
655.2000;0.8384;1.1790;
655.5000;0.8384;1.1790;
655.8000;0.8360;1.1766;
656.1000;0.8352;1.1814;
656.4000;0.8352;1.1861;
656.7000;0.8327;1.1790;
657.0000;0.8335;1.1861;
657.3000;0.8352;1.1909;
657.6000;0.8327;1.1885;
657.9000;0.8311;1.1957;
658.2000;0.8303;1.2029;
658.5000;0.8303;1.1933;
658.8000;0.8303;1.1909;
659.1000;0.8287;1.1957;
659.4000;0.8287;1.1933;
659.7000;0.8287;1.2029;
660.0000;0.8278;1.1933;
660.3000;0.8295;1.1933;
660.6000;0.8270;1.1933;
660.9000;0.8270;1.1909;
661.2000;0.8262;1.1861;
661.5000;0.8270;1.1885;
661.8000;0.8254;1.1790;
662.1000;0.8254;1.1742;
662.4000;0.8246;1.1742;
662.7000;0.8238;1.1742;
663.0000;0.8238;1.1670;
663.3000;0.8221;1.1574;
663.6000;0.8213;1.1598;
663.9000;0.8221;1.1646;
664.2000;0.8197;1.1718;
664.5000;0.8189;1.1766;
664.8000;0.8230;1.1790;
665.1000;0.8181;1.1718;
665.4000;0.8189;1.1694;
665.7000;0.8181;1.1766;
666.0000;0.8197;1.1837;
666.3000;0.8148;1.1718;
666.6000;0.8156;1.1742;
666.9000;0.8156;1.1670;
667.2000;0.8148;1.1718;
667.5000;0.8164;1.1742;
667.8000;0.8140;1.1742;
668.1000;0.8156;1.1694;
668.4000;0.8124;1.1646;
668.7000;0.8091;1.1526;
669.0000;0.8116;1.1526;
669.3000;0.8083;1.1478;
669.6000;0.8050;1.1358;
669.9000;0.8075;1.1526;
670.2000;0.8083;1.1526;
670.5000;0.8091;1.1574;
670.8000;0.8091;1.1598;
671.1000;0.8132;1.1670;
671.4000;0.8075;1.1598;
671.7000;0.8083;1.1622;
672.0000;0.8059;1.1574;
672.3000;0.8059;1.1574;
672.6000;0.8067;1.1574;
672.9000;0.8034;1.1574;
673.2000;0.8034;1.1598;
673.5000;0.8010;1.1574;
673.8000;0.8018;1.1646;
674.1000;0.8034;1.1646;
674.4000;0.8034;1.1718;
674.7000;0.8026;1.1766;
675.0000;0.7993;1.1694;
675.3000;0.8002;1.1718;
675.6000;0.8034;1.1790;
675.9000;0.7977;1.1694;
676.2000;0.7985;1.1766;
676.5000;0.7961;1.1670;
676.8000;0.7961;1.1646;
677.1000;0.7993;1.1718;
677.4000;0.7977;1.1694;
677.7000;0.7985;1.1861;
678.0000;0.7953;1.1790;
678.3000;0.7953;1.1670;
678.6000;0.7953;1.1622;
678.9000;0.7977;1.1694;
679.2000;0.7937;1.1646;
679.5000;0.7945;1.1694;
679.8000;0.7953;1.1694;
680.1000;0.7904;1.1670;
680.4000;0.7945;1.1766;
680.7000;0.7928;1.1790;
681.0000;0.7880;1.1622;
681.3000;0.7920;1.1742;
681.6000;0.7904;1.1742;
681.9000;0.7912;1.1790;
682.2000;0.7896;1.1718;
682.5000;0.7904;1.1742;
682.8000;0.7912;1.1718;
683.1000;0.7904;1.1646;
683.4000;0.7880;1.1694;
683.7000;0.7880;1.1742;
684.0000;0.7888;1.1790;
684.3000;0.7904;1.1790;
684.6000;0.7880;1.1814;
684.9000;0.7904;1.1837;
685.2000;0.7839;1.1742;
685.5000;0.7839;1.1646;
685.8000;0.7782;1.1550;
686.1000;0.7855;1.1766;
686.4000;0.7855;1.1742;
686.7000;0.7839;1.1742;
687.0000;0.7823;1.1622;
687.3000;0.7847;1.1718;
687.6000;0.7814;1.1718;
687.9000;0.7839;1.1742;
688.2000;0.7831;1.1718;
688.5000;0.7814;1.1670;
688.8000;0.7823;1.1550;
689.1000;0.7831;1.1622;
689.4000;0.7839;1.1670;
689.7000;0.7790;1.1694;
690.0000;0.7806;1.1646;
690.3000;0.7823;1.1718;
690.6000;0.7814;1.1670;
690.9000;0.7823;1.1694;
691.2000;0.7806;1.1622;
691.5000;0.7855;1.1718;
691.8000;0.7774;1.1478;
692.1000;0.7733;1.1358;
692.4000;0.7790;1.1502;
692.7000;0.7774;1.1502;
693.0000;0.7774;1.1502;
693.3000;0.7709;1.1358;
693.6000;0.7766;1.1502;
693.9000;0.7757;1.1526;
694.2000;0.7757;1.1502;
694.5000;0.7757;1.1430;
694.8000;0.7766;1.1382;
695.1000;0.7692;1.1214;
695.4000;0.7766;1.1334;
695.7000;0.7757;1.1334;
696.0000;0.7733;1.1286;
696.3000;0.7741;1.1334;
696.6000;0.7749;1.1406;
696.9000;0.7733;1.1454;
697.2000;0.7733;1.1526;
697.5000;0.7741;1.1550;
697.8000;0.7733;1.1574;
698.1000;0.7741;1.1622;
698.4000;0.7733;1.1478;
698.7000;0.7725;1.1502;
699.0000;0.7717;1.1550;
699.3000;0.7709;1.1550;
699.6000;0.7700;1.1430;
699.9000;0.7709;1.1574;
700.2000;0.7700;1.1430;
700.5000;0.7684;1.1382;
700.8000;0.7676;1.1358;
701.1000;0.7684;1.1430;
701.4000;0.7652;1.1430;
701.7000;0.7692;1.1502;
702.0000;0.7684;1.1550;
702.3000;0.7668;1.1430;
702.6000;0.7676;1.1358;
702.9000;0.7668;1.1382;
703.2000;0.7676;1.1478;
703.5000;0.7684;1.1478;
703.8000;0.7652;1.1406;
704.1000;0.7676;1.1430;
704.4000;0.7668;1.1454;
704.7000;0.7668;1.1502;
705.0000;0.7652;1.1478;
705.3000;0.7635;1.1526;
705.6000;0.7643;1.1694;
705.9000;0.7652;1.1742;
706.2000;0.7627;1.1766;
706.5000;0.7643;1.1766;
706.8000;0.7643;1.1790;
707.1000;0.7660;1.1837;
707.4000;0.7643;1.1837;
707.7000;0.7643;1.1766;
708.0000;0.7643;1.1742;
708.3000;0.7635;1.1742;
708.6000;0.7660;1.1718;
708.9000;0.7619;1.1550;
709.2000;0.7611;1.1550;
709.5000;0.7603;1.1502;
709.8000;0.7611;1.1526;
710.1000;0.7603;1.1478;
710.4000;0.7635;1.1502;
710.7000;0.7611;1.1478;
711.0000;0.7603;1.1502;
711.3000;0.7627;1.1574;
711.6000;0.7595;1.1550;
711.9000;0.7595;1.1478;
712.2000;0.7603;1.1502;
712.5000;0.7586;1.1502;
712.8000;0.7595;1.1550;
713.1000;0.7578;1.1550;
713.4000;0.7595;1.1598;
713.7000;0.7603;1.1694;
714.0000;0.7554;1.1694;
714.3000;0.7570;1.1814;
714.6000;0.7562;1.1837;
714.9000;0.7562;1.1766;
715.2000;0.7546;1.1742;
715.5000;0.7586;1.1814;
715.8000;0.7554;1.1622;
716.1000;0.7562;1.1694;
716.4000;0.7538;1.1646;
716.7000;0.7562;1.1646;
717.0000;0.7554;1.1622;
717.3000;0.7554;1.1646;
717.6000;0.7554;1.1670;
717.9000;0.7538;1.1670;
718.2000;0.7538;1.1694;
718.5000;0.7481;1.1454;
718.8000;0.7546;1.1574;
719.1000;0.7538;1.1478;
719.4000;0.7513;1.1454;
719.7000;0.7554;1.1550;
720.0000;0.7538;1.1502;
720.3000;0.7505;1.1454;
720.6000;0.7513;1.1526;
720.9000;0.7538;1.1598;
721.2000;0.7530;1.1574;
721.5000;0.7505;1.1550;
721.8000;0.7505;1.1502;
722.1000;0.7505;1.1550;
722.4000;0.7538;1.1598;
722.7000;0.7562;1.1670;
723.0000;0.7513;1.1550;
723.3000;0.7513;1.1502;
723.6000;0.7530;1.1502;
723.9000;0.7521;1.1502;
724.2000;0.7497;1.1502;
724.5000;0.7521;1.1526;
724.8000;0.7497;1.1502;
725.1000;0.7497;1.1526;
725.4000;0.7481;1.1646;
725.7000;0.7489;1.1718;
726.0000;0.7481;1.1646;
726.3000;0.7489;1.1646;
726.6000;0.7481;1.1694;
726.9000;0.7473;1.1646;
727.2000;0.7473;1.1574;
727.5000;0.7497;1.1694;
727.8000;0.7481;1.1718;
728.1000;0.7481;1.1718;
728.4000;0.7481;1.1790;
728.7000;0.7456;1.1670;
729.0000;0.7464;1.1742;
729.3000;0.7464;1.1790;
729.6000;0.7473;1.1766;
729.9000;0.7383;1.1526;
730.2000;0.7456;1.1646;
730.5000;0.7391;1.1454;
730.8000;0.7407;1.1502;
731.1000;0.7464;1.1646;
731.4000;0.7456;1.1574;
731.7000;0.7432;1.1550;
732.0000;0.7456;1.1502;
732.3000;0.7448;1.1550;
732.6000;0.7432;1.1502;
732.9000;0.7448;1.1574;
733.2000;0.7456;1.1502;
733.5000;0.7448;1.1454;
733.8000;0.7432;1.1382;
734.1000;0.7432;1.1454;
734.4000;0.7432;1.1430;
734.7000;0.7432;1.1598;
735.0000;0.7440;1.1646;
735.3000;0.7440;1.1718;
735.6000;0.7424;1.1766;
735.9000;0.7432;1.1742;
736.2000;0.7440;1.1694;
736.5000;0.7432;1.1646;
736.8000;0.7424;1.1598;
737.1000;0.7407;1.1574;
737.4000;0.7424;1.1670;
737.7000;0.7424;1.1646;
738.0000;0.7416;1.1598;
738.3000;0.7416;1.1574;
738.6000;0.7399;1.1478;
738.9000;0.7399;1.1550;
739.2000;0.7416;1.1502;
739.5000;0.7424;1.1574;
739.8000;0.7399;1.1574;
740.1000;0.7399;1.1574;
740.4000;0.7399;1.1598;
740.7000;0.7448;1.1670;
741.0000;0.7391;1.1502;
741.3000;0.7473;1.1670;
741.6000;0.7391;1.1526;
741.9000;0.7350;1.1478;
742.2000;0.7383;1.1526;
742.5000;0.7399;1.1478;
742.8000;0.7391;1.1502;
743.1000;0.7391;1.1478;
743.4000;0.7383;1.1502;
743.7000;0.7367;1.1478;
744.0000;0.7399;1.1550;
744.3000;0.7367;1.1454;
744.6000;0.7375;1.1382;
744.9000;0.7391;1.1430;
745.2000;0.7375;1.1406;
745.5000;0.7367;1.1358;
745.8000;0.7334;1.1310;
746.1000;0.7359;1.1430;
746.4000;0.7359;1.1430;
746.7000;0.7383;1.1550;
747.0000;0.7407;1.1526;
747.3000;0.7383;1.1550;
747.6000;0.7367;1.1550;
747.9000;0.7407;1.1670;
748.2000;0.7383;1.1646;
748.5000;0.7367;1.1622;
748.8000;0.7359;1.1694;
749.1000;0.7285;1.1574;
749.4000;0.7359;1.1694;
749.7000;0.7407;1.1742;
750.0000;0.7448;1.1837;
750.3000;0.7375;1.1742;
750.6000;0.7334;1.1574;
750.9000;0.7342;1.1550;
751.2000;0.7326;1.1526;
751.5000;0.7334;1.1574;
751.8000;0.7285;1.1478;
752.1000;0.7326;1.1598;
752.4000;0.7342;1.1694;
752.7000;0.7326;1.1694;
753.0000;0.7359;1.1694;
753.3000;0.7342;1.1670;
753.6000;0.7334;1.1694;
753.9000;0.7334;1.1670;
754.2000;0.7350;1.1718;
754.5000;0.7350;1.1742;
754.8000;0.7350;1.1718;
755.1000;0.7383;1.1718;
755.4000;0.7334;1.1598;
755.7000;0.7375;1.1670;
756.0000;0.7245;1.1334;
756.3000;0.7326;1.1550;
756.6000;0.7334;1.1526;
756.9000;0.7326;1.1502;
757.2000;0.7367;1.1646;
757.5000;0.7318;1.1550;
757.8000;0.7318;1.1550;
758.1000;0.7318;1.1598;
758.4000;0.7302;1.1574;
758.7000;0.7310;1.1526;
759.0000;0.7310;1.1502;
759.3000;0.7318;1.1526;
759.6000;0.7318;1.1574;
759.9000;0.7302;1.1550;
760.2000;0.7310;1.1670;
760.5000;0.7269;1.1526;
760.8000;0.7383;1.1790;
761.1000;0.7277;1.1598;
761.4000;0.7285;1.1646;
761.7000;0.7253;1.1622;
762.0000;0.7293;1.1814;
762.3000;0.7285;1.1742;
762.6000;0.7245;1.1622;
762.9000;0.7302;1.1694;
763.2000;0.7277;1.1598;
763.5000;0.7277;1.1502;
763.8000;0.7293;1.1550;
764.1000;0.7350;1.1742;
764.4000;0.7302;1.1622;
764.7000;0.7285;1.1646;
765.0000;0.7253;1.1622;
765.3000;0.7277;1.1790;
765.6000;0.7302;1.1766;
765.9000;0.7277;1.1574;
766.2000;0.7269;1.1574;
766.5000;0.7269;1.1646;
766.8000;0.7277;1.1598;
767.1000;0.7269;1.1574;
767.4000;0.7310;1.1670;
767.7000;0.7261;1.1694;
768.0000;0.7204;1.1550;
768.3000;0.7269;1.1742;
768.6000;0.7228;1.1670;
768.9000;0.7310;1.1885;
769.2000;0.7277;1.1766;
769.5000;0.7285;1.1742;
769.8000;0.7293;1.1814;
770.1000;0.7245;1.1718;
770.4000;0.7261;1.1790;
770.7000;0.7269;1.1790;
771.0000;0.7253;1.1742;
771.3000;0.7245;1.1766;
771.6000;0.7285;1.1742;
771.9000;0.7277;1.1742;
772.2000;0.7245;1.1694;
772.5000;0.7334;1.1981;
772.8000;0.7253;1.1837;
773.1000;0.7302;1.1837;
773.4000;0.7261;1.1718;
773.7000;0.7245;1.1790;
774.0000;0.7179;1.1646;
774.3000;0.7236;1.1790;
774.6000;0.7220;1.1885;
774.9000;0.7245;1.1981;
775.2000;0.7261;1.1957;
775.5000;0.7253;1.1909;
775.8000;0.7147;1.1622;
776.1000;0.7204;1.1742;
776.4000;0.7220;1.1790;
776.7000;0.7220;1.1766;
777.0000;0.7253;1.1790;
777.3000;0.7228;1.1790;
777.6000;0.7212;1.1814;
777.9000;0.7293;1.1981;
778.2000;0.7220;1.1694;
778.5000;0.7236;1.1837;
778.8000;0.7228;1.1790;
779.1000;0.7302;1.1837;
779.4000;0.7236;1.1670;
779.7000;0.7196;1.1526;
780.0000;0.7245;1.1598;
780.3000;0.7261;1.1622;
780.6000;0.7212;1.1598;
780.9000;0.7220;1.1598;
781.2000;0.7220;1.1574;
781.5000;0.7204;1.1598;
781.8000;0.7212;1.1622;
782.1000;0.7228;1.1694;
782.4000;0.7228;1.1694;
782.7000;0.7204;1.1670;
783.0000;0.7188;1.1622;
783.3000;0.7196;1.1646;
783.6000;0.7253;1.1837;
783.9000;0.7261;1.1957;
784.2000;0.7212;1.1861;
784.5000;0.7212;1.1861;
784.8000;0.7212;1.1790;
785.1000;0.7204;1.1646;
785.4000;0.7204;1.1646;
785.7000;0.7204;1.1646;
786.0000;0.7318;1.1933;
786.3000;0.7228;1.1670;
786.6000;0.7196;1.1550;
786.9000;0.7188;1.1526;
787.2000;0.7196;1.1550;
787.5000;0.7196;1.1550;
787.8000;0.7188;1.1478;
788.1000;0.7204;1.1502;
788.4000;0.7212;1.1502;
788.7000;0.7212;1.1526;
789.0000;0.7196;1.1574;
789.3000;0.7171;1.1550;
789.6000;0.7163;1.1574;
789.9000;0.7212;1.1694;
790.2000;0.7196;1.1670;
790.5000;0.7188;1.1742;
790.8000;0.7204;1.1718;
791.1000;0.7220;1.1837;
791.4000;0.7188;1.1670;
791.7000;0.7245;1.1694;
792.0000;0.7188;1.1550;
792.3000;0.7196;1.1478;
792.6000;0.7196;1.1478;
792.9000;0.7171;1.1502;
793.2000;0.7204;1.1574;
793.5000;0.7204;1.1574;
793.8000;0.7212;1.1646;
794.1000;0.7188;1.1574;
794.4000;0.7188;1.1598;
794.7000;0.7188;1.1598;
795.0000;0.7204;1.1622;
795.3000;0.7179;1.1478;
795.6000;0.7147;1.1406;
795.9000;0.7188;1.1406;
796.2000;0.7179;1.1358;
796.5000;0.7196;1.1478;
796.8000;0.7139;1.1358;
797.1000;0.7179;1.1454;
797.4000;0.7179;1.1574;
797.7000;0.7171;1.1550;
798.0000;0.7179;1.1550;
798.3000;0.7163;1.1574;
798.6000;0.7179;1.1574;
798.9000;0.7155;1.1526;
799.2000;0.7212;1.1670;
799.5000;0.7123;1.1454;
799.8000;0.7147;1.1502;
800.1000;0.7179;1.1526;
800.4000;0.7171;1.1550;
800.7000;0.7171;1.1502;
801.0000;0.7179;1.1574;
801.3000;0.7171;1.1526;
801.6000;0.7179;1.1478;
801.9000;0.7204;1.1622;
802.2000;0.7163;1.1550;
802.5000;0.7106;1.1430;
802.8000;0.7163;1.1598;
803.1000;0.7131;1.1502;
803.4000;0.7155;1.1622;
803.7000;0.7179;1.1622;
804.0000;0.7236;1.1790;
804.3000;0.7155;1.1598;
804.6000;0.7155;1.1646;
804.9000;0.7171;1.1790;
805.2000;0.7163;1.1766;
805.5000;0.7171;1.1933;
805.8000;0.7212;1.2029;
806.1000;0.7188;1.1957;
806.4000;0.7114;1.1742;
806.7000;0.7155;1.1766;
807.0000;0.7163;1.1766;
807.3000;0.7066;1.1430;
807.6000;0.7155;1.1574;
807.9000;0.7139;1.1598;
808.2000;0.7155;1.1670;
808.5000;0.7139;1.1718;
808.8000;0.7155;1.1718;
809.1000;0.7139;1.1718;
809.4000;0.7139;1.1598;
809.7000;0.7139;1.1526;
810.0000;0.7090;1.1430;
810.3000;0.7228;1.1766;
810.6000;0.7139;1.1598;
810.9000;0.7098;1.1622;
811.2000;0.7139;1.1742;
811.5000;0.7131;1.1790;
811.8000;0.7171;1.1814;
812.1000;0.7074;1.1670;
812.4000;0.7114;1.1766;
812.7000;0.7147;1.1742;
813.0000;0.7114;1.1646;
813.3000;0.7147;1.1694;
813.6000;0.7155;1.1694;
813.9000;0.7123;1.1670;
814.2000;0.7114;1.1694;
814.5000;0.7114;1.1694;
814.8000;0.7131;1.1766;
815.1000;0.7139;1.1766;
815.4000;0.7123;1.1790;
815.7000;0.7114;1.1766;
816.0000;0.7106;1.1766;
816.3000;0.7114;1.1861;
816.6000;0.7131;1.1909;
816.9000;0.7131;1.1861;
817.2000;0.7123;1.1861;
817.5000;0.7106;1.1814;
817.8000;0.7123;1.1933;
818.1000;0.7123;1.1933;
818.4000;0.7139;1.1957;
818.7000;0.7106;1.1766;
819.0000;0.7147;1.1957;
819.3000;0.7106;1.1933;
819.6000;0.7114;1.1885;
819.9000;0.7123;1.1837;
820.2000;0.7114;1.1742;
820.5000;0.7123;1.1670;
820.8000;0.7106;1.1718;
821.1000;0.7114;1.1574;
821.4000;0.7074;1.1478;
821.7000;0.7114;1.1574;
822.0000;0.7106;1.1622;
822.3000;0.7114;1.1622;
822.6000;0.7098;1.1694;
822.9000;0.7114;1.1742;
823.2000;0.7106;1.1742;
823.5000;0.7106;1.1718;
823.8000;0.7131;1.1670;
824.1000;0.7106;1.1670;
824.4000;0.7114;1.1718;
824.7000;0.7131;1.1766;
825.0000;0.7106;1.1718;
825.3000;0.7090;1.1670;
825.6000;0.7147;1.1861;
825.9000;0.7098;1.1694;
826.2000;0.7114;1.1670;
826.5000;0.7066;1.1598;
826.8000;0.7114;1.1718;
827.1000;0.7090;1.1790;
827.4000;0.7139;1.1837;
827.7000;0.7033;1.1670;
828.0000;0.7082;1.1766;
828.3000;0.7098;1.1718;
828.6000;0.7082;1.1718;
828.9000;0.7106;1.1837;
829.2000;0.7106;1.1837;
829.5000;0.7114;1.1861;
829.8000;0.7098;1.1861;
830.1000;0.7082;1.1814;
830.4000;0.7114;1.1861;
830.7000;0.7082;1.1790;
831.0000;0.7090;1.1790;
831.3000;0.7041;1.1766;
831.6000;0.7082;1.1885;
831.9000;0.7098;1.1909;
832.2000;0.7074;1.1837;
832.5000;0.7090;1.1837;
832.8000;0.7057;1.1598;
833.1000;0.7090;1.1670;
833.4000;0.7098;1.1742;
833.7000;0.7082;1.1718;
834.0000;0.7090;1.1718;
834.3000;0.7090;1.1670;
834.6000;0.7090;1.1742;
834.9000;0.7074;1.1766;
835.2000;0.7074;1.1766;
835.5000;0.7082;1.1766;
835.8000;0.7074;1.1718;
836.1000;0.7074;1.1670;
836.4000;0.7066;1.1598;
836.7000;0.7066;1.1598;
837.0000;0.7066;1.1670;
837.3000;0.7074;1.1694;
837.6000;0.7066;1.1646;
837.9000;0.7082;1.1598;
838.2000;0.7066;1.1502;
838.5000;0.7074;1.1526;
838.8000;0.7074;1.1598;
839.1000;0.7074;1.1622;
839.4000;0.7090;1.1646;
839.7000;0.7074;1.1694;
840.0000;0.7074;1.1742;
840.3000;0.7074;1.1646;
840.6000;0.7098;1.1742;
840.9000;0.7082;1.1718;
841.2000;0.7082;1.1694;
841.5000;0.7090;1.1742;
841.8000;0.7057;1.1598;
842.1000;0.7074;1.1598;
842.4000;0.7066;1.1574;
842.7000;0.6992;1.1478;
843.0000;0.7049;1.1670;
843.3000;0.7074;1.1790;
843.6000;0.7049;1.1646;
843.9000;0.7057;1.1598;
844.2000;0.7066;1.1670;
844.5000;0.7074;1.1718;
844.8000;0.7074;1.1718;
845.1000;0.7082;1.1718;
845.4000;0.7066;1.1766;
845.7000;0.7041;1.1718;
846.0000;0.7074;1.1837;
846.3000;0.7057;1.1718;
846.6000;0.7000;1.1670;
846.9000;0.7057;1.1861;
847.2000;0.7057;1.1814;
847.5000;0.7033;1.1742;
847.8000;0.7066;1.1814;
848.1000;0.7057;1.1790;
848.4000;0.7057;1.1885;
848.7000;0.7074;1.1933;
849.0000;0.7057;1.1742;
849.3000;0.7066;1.1718;
849.6000;0.7000;1.1622;
849.9000;0.7041;1.1790;
850.2000;0.7049;1.1694;
850.5000;0.7066;1.1766;
850.8000;0.7106;1.1837;
851.1000;0.7066;1.1742;
851.4000;0.7041;1.1742;
851.7000;0.7049;1.1718;
852.0000;0.7057;1.1646;
852.3000;0.7049;1.1598;
852.6000;0.7082;1.1646;
852.9000;0.7041;1.1454;
853.2000;0.7041;1.1574;
853.5000;0.6968;1.1550;
853.8000;0.7009;1.1670;
854.1000;0.7025;1.1670;
854.4000;0.7041;1.1718;
854.7000;0.6960;1.1454;
855.0000;0.7033;1.1574;
855.3000;0.7041;1.1694;
855.6000;0.7000;1.1670;
855.9000;0.7025;1.1837;
856.2000;0.7025;1.1861;
856.5000;0.7000;1.1814;
856.8000;0.7025;1.1933;
857.1000;0.7041;1.2005;
857.4000;0.7033;1.1933;
857.7000;0.7025;1.1742;
858.0000;0.7017;1.1718;
858.3000;0.7025;1.1670;
858.6000;0.7025;1.1718;
858.9000;0.7033;1.1766;
859.2000;0.7033;1.1718;
859.5000;0.7033;1.1742;
859.8000;0.7025;1.1694;
860.1000;0.7041;1.1766;
860.4000;0.7033;1.1837;
860.7000;0.7017;1.1742;
861.0000;0.7025;1.1766;
861.3000;0.7033;1.1837;
861.6000;0.7041;1.1790;
861.9000;0.7025;1.1837;
862.2000;0.7000;1.1766;
862.5000;0.7033;1.1766;
862.8000;0.7049;1.1742;
863.1000;0.7009;1.1598;
863.4000;0.7017;1.1670;
863.7000;0.7049;1.1766;
864.0000;0.7033;1.1742;
864.3000;0.7033;1.1766;
864.6000;0.7017;1.1766;
864.9000;0.7025;1.1766;
865.2000;0.7123;1.2029;
865.5000;0.7009;1.1837;
865.8000;0.7033;1.1837;
866.1000;0.7009;1.1766;
866.4000;0.7017;1.1766;
866.7000;0.7025;1.1766;
867.0000;0.7000;1.1694;
867.3000;0.7017;1.1861;
867.6000;0.7017;1.1790;
867.9000;0.7009;1.1814;
868.2000;0.7009;1.1766;
868.5000;0.7082;1.2005;
868.8000;0.7017;1.1885;
869.1000;0.7017;1.1861;
869.4000;0.7033;1.1885;
869.7000;0.7033;1.1909;
870.0000;0.7025;1.1861;
870.3000;0.7049;1.1885;
870.6000;0.7000;1.1694;
870.9000;0.7017;1.1622;
871.2000;0.7114;1.1790;
871.5000;0.7017;1.1550;
871.8000;0.7000;1.1478;
872.1000;0.7009;1.1478;
872.4000;0.7074;1.1646;
872.7000;0.7017;1.1598;
873.0000;0.7041;1.1598;
873.3000;0.6976;1.1526;
873.6000;0.7017;1.1694;
873.9000;0.7017;1.1694;
874.2000;0.7041;1.1670;
874.5000;0.6984;1.1454;
874.8000;0.7025;1.1550;
875.1000;0.7017;1.1670;
875.4000;0.7009;1.1574;
875.7000;0.6943;1.1526;
876.0000;0.7025;1.1622;
876.3000;0.7000;1.1766;
876.6000;0.7009;1.1766;
876.9000;0.6976;1.1694;
877.2000;0.6992;1.1766;
877.5000;0.6992;1.1790;
877.8000;0.6992;1.1814;
878.1000;0.6992;1.1742;
878.4000;0.7000;1.1742;
878.7000;0.6992;1.1742;
879.0000;0.7000;1.1718;
879.3000;0.7025;1.1790;
879.6000;0.7000;1.1742;
879.9000;0.7000;1.1790;
880.2000;0.6878;1.1550;
880.5000;0.7000;1.1814;
880.8000;0.6968;1.1766;
881.1000;0.7017;1.1861;
881.4000;0.6992;1.1837;
881.7000;0.7090;1.2053;
882.0000;0.7009;1.1766;
882.3000;0.6976;1.1766;
882.6000;0.6935;1.1694;
882.9000;0.6992;1.1837;
883.2000;0.6984;1.1861;
883.5000;0.7017;1.1885;
883.8000;0.6976;1.1790;
884.1000;0.7057;1.1957;
884.4000;0.6968;1.1837;
884.7000;0.6976;1.1814;
885.0000;0.6911;1.1718;
885.3000;0.6976;1.1837;
885.6000;0.7057;1.2029;
885.9000;0.6992;1.1933;
886.2000;0.7041;1.1957;
886.5000;0.7049;1.1981;
886.8000;0.6992;1.1742;
887.1000;0.7000;1.1694;
887.4000;0.7017;1.1790;
887.7000;0.7009;1.1885;
888.0000;0.7090;1.2101;
888.3000;0.7009;1.1909;
888.6000;0.7009;1.1909;
888.9000;0.6992;1.1814;
889.2000;0.6960;1.1694;
889.5000;0.6992;1.1790;
889.8000;0.6992;1.1742;
890.1000;0.7000;1.1766;
890.4000;0.6992;1.1766;
890.7000;0.7009;1.1718;
891.0000;0.6992;1.1694;
891.3000;0.6984;1.1574;
891.6000;0.6992;1.1574;
891.9000;0.7033;1.1622;
892.2000;0.6935;1.1406;
892.5000;0.6968;1.1430;
892.8000;0.6992;1.1478;
893.1000;0.7041;1.1622;
893.4000;0.7017;1.1550;
893.7000;0.6992;1.1454;
894.0000;0.7041;1.1550;
894.3000;0.7009;1.1550;
894.6000;0.6992;1.1478;
894.9000;0.6992;1.1430;
895.2000;0.6976;1.1382;
895.5000;0.6992;1.1526;
895.8000;0.6968;1.1502;
896.1000;0.7000;1.1670;
896.4000;0.6992;1.1718;
896.7000;0.7000;1.1766;
897.0000;0.7033;1.1909;
897.3000;0.6960;1.1598;
897.6000;0.6968;1.1670;
897.9000;0.7041;1.1814;
898.2000;0.6960;1.1646;
898.5000;0.6968;1.1670;
898.8000;0.6976;1.1790;
899.1000;0.6976;1.1814;
899.4000;0.7000;1.1909;
899.7000;0.6984;1.1861;
900.0000;0.6968;1.1814;
900.3000;0.7009;1.1933;
900.6000;0.6984;1.1885;
900.9000;0.6984;1.1885;
901.2000;0.6968;1.1814;
901.5000;0.6952;1.1837;
901.8000;0.6952;1.1861;
902.1000;0.6952;1.1909;
902.4000;0.6952;1.1790;
902.7000;0.6952;1.1861;
903.0000;0.7017;1.1885;
903.3000;0.6960;1.1646;
903.6000;0.6935;1.1526;
903.9000;0.6984;1.1670;
904.2000;0.6968;1.1622;
904.5000;0.6943;1.1574;
904.8000;0.6943;1.1670;
905.1000;0.6960;1.1790;
905.4000;0.6984;1.1837;
905.7000;0.6960;1.1861;
906.0000;0.7017;1.1981;
906.3000;0.6976;1.1861;
906.6000;0.6952;1.1742;
906.9000;0.7000;1.1861;
907.2000;0.6960;1.1766;
907.5000;0.6952;1.1766;
907.8000;0.6960;1.1718;
908.1000;0.6952;1.1670;
908.4000;0.6943;1.1574;
908.7000;0.6960;1.1574;
909.0000;0.6952;1.1526;
909.3000;0.6968;1.1598;
909.6000;0.6935;1.1574;
909.9000;0.6911;1.1622;
910.2000;0.6943;1.1766;
910.5000;0.6911;1.1646;
910.8000;0.6968;1.1909;
911.1000;0.6968;1.1957;
911.4000;0.6968;1.2005;
911.7000;0.6943;1.1909;
912.0000;0.6984;1.2005;
912.3000;0.6968;1.1957;
912.6000;0.6960;1.1909;
912.9000;0.6935;1.1933;
913.2000;0.6976;1.1861;
913.5000;0.6960;1.1861;
913.8000;0.6903;1.1694;
914.1000;0.6952;1.1861;
914.4000;0.6911;1.1790;
914.7000;0.6968;1.2029;
915.0000;0.6960;1.1981;
915.3000;0.6943;1.2005;
915.6000;0.6968;1.1957;
915.9000;0.6952;1.1837;
916.2000;0.6968;1.1814;
916.5000;0.6935;1.1837;
916.8000;0.6960;1.1885;
917.1000;0.6927;1.1909;
917.4000;0.6952;1.1933;
917.7000;0.6952;1.1981;
918.0000;0.6895;1.1885;
918.3000;0.6976;1.2125;
918.6000;0.6952;1.2029;
918.9000;0.6927;1.1957;
919.2000;0.6952;1.2029;
919.5000;0.6943;1.1981;
919.8000;0.6952;1.2101;
920.1000;0.6960;1.2101;
920.4000;0.6960;1.2077;
920.7000;0.6968;1.2125;
921.0000;0.6960;1.2029;
921.3000;0.6919;1.1933;
921.6000;0.6919;1.1861;
921.9000;0.7017;1.2149;
922.2000;0.6943;1.1981;
922.5000;0.6935;1.1957;
922.8000;0.6935;1.1981;
923.1000;0.6927;1.1981;
923.4000;0.6854;1.1861;
923.7000;0.6952;1.2029;
924.0000;0.6935;1.1981;
924.3000;0.6919;1.1957;
924.6000;0.6911;1.1885;
924.9000;0.6935;1.1909;
925.2000;0.6935;1.2005;
925.5000;0.6854;1.1861;
925.8000;0.6952;1.2101;
926.1000;0.6895;1.1957;
926.4000;0.7041;1.2365;
926.7000;0.6886;1.1981;
927.0000;0.6862;1.1981;
927.3000;0.6919;1.2029;
927.6000;0.6952;1.2125;
927.9000;0.6935;1.2101;
928.2000;0.6919;1.2101;
928.5000;0.6968;1.2149;
928.8000;0.6935;1.2029;
929.1000;0.6935;1.1981;
929.4000;0.6952;1.2029;
929.7000;0.6919;1.1957;
930.0000;0.6952;1.2053;
930.3000;0.6943;1.1981;
930.6000;0.6943;1.1933;
930.9000;0.6992;1.1909;
931.2000;0.6943;1.1837;
931.5000;0.6919;1.1814;
931.8000;0.6927;1.1837;
932.1000;0.6927;1.1742;
932.4000;0.6935;1.1742;
932.7000;0.6927;1.1837;
933.0000;0.6911;1.1766;
933.3000;0.6943;1.1885;
933.6000;0.6927;1.1861;
933.9000;0.6903;1.1814;
934.2000;0.6895;1.1861;
934.5000;0.6903;1.1957;
934.8000;0.6911;1.1981;
935.1000;0.6919;1.2053;
935.4000;0.6895;1.2005;
935.7000;0.6927;1.2101;
936.0000;0.6935;1.2029;
936.3000;0.7025;1.2173;
936.6000;0.6927;1.1981;
936.9000;0.6943;1.2029;
937.2000;0.6927;1.1957;
937.5000;0.6927;1.1885;
937.8000;0.6943;1.1957;
938.1000;0.6935;1.1885;
938.4000;0.6927;1.1837;
938.7000;0.6927;1.1814;
939.0000;0.6911;1.1814;
939.3000;0.6911;1.1766;
939.6000;0.6968;1.1742;
939.9000;0.6911;1.1646;
940.2000;0.6927;1.1718;
940.5000;0.6919;1.1742;
940.8000;0.6911;1.1790;
941.1000;0.6919;1.1790;
941.4000;0.6919;1.1933;
941.7000;0.6895;1.1837;
942.0000;0.6919;1.1861;
942.3000;0.6984;1.1885;
942.6000;0.6927;1.1814;
942.9000;0.6911;1.1861;
943.2000;0.6919;1.1861;
943.5000;0.6927;1.1814;
943.8000;0.6919;1.1814;
944.1000;0.6927;1.1790;
944.4000;0.6919;1.1742;
944.7000;0.6935;1.1814;
945.0000;0.6919;1.1837;
945.3000;0.6919;1.1790;
945.6000;0.6960;1.1885;
945.9000;0.6919;1.1837;
946.2000;0.6927;1.1957;
946.5000;0.6935;1.2029;
946.8000;0.6984;1.2101;
947.1000;0.6935;1.1933;
947.4000;0.6952;1.1957;
947.7000;0.6911;1.1885;
948.0000;0.6911;1.1837;
948.3000;0.6903;1.1861;
948.6000;0.6911;1.1861;
948.9000;0.6903;1.1909;
949.2000;0.6919;1.1885;
949.5000;0.6919;1.1885;
949.8000;0.6903;1.1837;
950.1000;0.6911;1.1766;
950.4000;0.6911;1.1814;
950.7000;0.6911;1.1837;
951.0000;0.6903;1.1837;
951.3000;0.6919;1.1837;
951.6000;0.6927;1.1790;
951.9000;0.6919;1.1790;
952.2000;0.6911;1.1814;
952.5000;0.6911;1.1861;
952.8000;0.6911;1.1837;
953.1000;0.6911;1.1837;
953.4000;0.6911;1.1790;
953.7000;0.6935;1.1885;
954.0000;0.6886;1.1814;
954.3000;0.6886;1.1909;
954.6000;0.6862;1.1861;
954.9000;0.6903;1.1861;
955.2000;0.6903;1.1885;
955.5000;0.6919;1.1885;
955.8000;0.6895;1.1766;
956.1000;0.6886;1.1790;
956.4000;0.6903;1.1861;
956.7000;0.6903;1.1837;
957.0000;0.6911;1.1957;
957.3000;0.6903;1.1909;
957.6000;0.6903;1.1837;
957.9000;0.6903;1.1909;
958.2000;0.6911;1.1933;
958.5000;0.6886;1.1837;
958.8000;0.6895;1.1861;
959.1000;0.6919;1.1861;
959.4000;0.6911;1.1814;
959.7000;0.6903;1.1861;
960.0000;0.6895;1.1933;
960.3000;0.6903;1.1957;
960.6000;0.6903;1.1957;
960.9000;0.6911;1.2101;
961.2000;0.6895;1.2125;
961.5000;0.6903;1.2125;
961.8000;0.6927;1.2149;
962.1000;0.6911;1.2149;
962.4000;0.6919;1.2197;
962.7000;0.6927;1.2149;
963.0000;0.6903;1.2149;
963.3000;0.6919;1.2149;
963.6000;0.6903;1.2077;
963.9000;0.6895;1.2173;
964.2000;0.6911;1.2197;
964.5000;0.6895;1.2221;
964.8000;0.6903;1.2197;
965.1000;0.6886;1.2221;
965.4000;0.6895;1.2197;
965.7000;0.6903;1.2269;
966.0000;0.6911;1.2221;
966.3000;0.6903;1.2101;
966.6000;0.6927;1.2125;
966.9000;0.6911;1.2053;
967.2000;0.6886;1.2053;
967.5000;0.6903;1.2029;
967.8000;0.6895;1.1957;
968.1000;0.6895;1.2005;
968.4000;0.6903;1.1981;
968.7000;0.6878;1.1885;
969.0000;0.6903;1.1957;
969.3000;0.6903;1.1933;
969.6000;0.6911;1.1909;
969.9000;0.6903;1.1837;
970.2000;0.6911;1.1814;
970.5000;0.6911;1.1837;
970.8000;0.6911;1.1861;
971.1000;0.6903;1.1766;
971.4000;0.6911;1.1814;
971.7000;0.6895;1.1909;
972.0000;0.6903;1.1933;
972.3000;0.6911;1.1909;
972.6000;0.6943;1.1981;
972.9000;0.6886;1.1790;
973.2000;0.6903;1.1790;
973.5000;0.6878;1.1670;
973.8000;0.6886;1.1790;
974.1000;0.6878;1.1837;
974.4000;0.6895;1.1909;
974.7000;0.6903;1.1933;
975.0000;0.6878;1.1814;
975.3000;0.6886;1.1814;
975.6000;0.6911;1.1885;
975.9000;0.6903;1.1837;
976.2000;0.6886;1.1861;
976.5000;0.6870;1.1766;
976.8000;0.6895;1.1790;
977.1000;0.6903;1.1861;
977.4000;0.6895;1.1933;
977.7000;0.6886;1.1837;
978.0000;0.6854;1.1790;
978.3000;0.6895;1.1909;
978.6000;0.6886;1.1909;
978.9000;0.6886;1.1861;
979.2000;0.6968;1.2101;
979.5000;0.6895;1.1885;
979.8000;0.6878;1.1837;
980.1000;0.6895;1.1909;
980.4000;0.6886;1.1861;
980.7000;0.6878;1.1861;
981.0000;0.6903;1.2029;
981.3000;0.6862;1.1981;
981.6000;0.6870;1.1933;
981.9000;0.6878;1.2053;
982.2000;0.6903;1.2125;
982.5000;0.6895;1.2149;
982.8000;0.6886;1.2077;
983.1000;0.6886;1.2005;
983.4000;0.6878;1.1981;
983.7000;0.6862;1.1933;
984.0000;0.6886;1.1885;
984.3000;0.6886;1.1861;
984.6000;0.6886;1.1861;
984.9000;0.6870;1.1814;
985.2000;0.6821;1.1742;
985.5000;0.6854;1.1814;
985.8000;0.6878;1.1766;
986.1000;0.6870;1.1766;
986.4000;0.6886;1.1742;
986.7000;0.6878;1.1694;
987.0000;0.6862;1.1790;
987.3000;0.6895;1.1885;
987.6000;0.6862;1.1885;
987.9000;0.6886;1.1885;
988.2000;0.6886;1.1933;
988.5000;0.6886;1.2029;
988.8000;0.6870;1.1957;
989.1000;0.6895;1.2005;
989.4000;0.6878;1.1885;
989.7000;0.6878;1.1837;
990.0000;0.6862;1.1766;
990.3000;0.6813;1.1670;
990.6000;0.6870;1.1837;
990.9000;0.6878;1.1861;
991.2000;0.6781;1.1694;
991.5000;0.6862;1.1957;
991.8000;0.6862;1.1981;
992.1000;0.6911;1.2005;
992.4000;0.6862;1.1837;
992.7000;0.6878;1.1981;
993.0000;0.6870;1.1933;
993.3000;0.6862;1.1933;
993.6000;0.6870;1.1981;
993.9000;0.6878;1.1933;
994.2000;0.6870;1.1861;
994.5000;0.6870;1.1837;
994.8000;0.6886;1.1837;
995.1000;0.6952;1.2077;
995.4000;0.6862;1.1885;
995.7000;0.6870;1.1957;
996.0000;0.6878;1.1981;
996.3000;0.6862;1.2101;
996.6000;0.6878;1.2125;
996.9000;0.7000;1.2413;
997.2000;0.6886;1.2197;
997.5000;0.6886;1.2173;
997.8000;0.6805;1.1957;
998.1000;0.6862;1.1981;
998.4000;0.6862;1.2077;
998.7000;0.6821;1.1957;
999.0000;0.6805;1.1957;
999.3000;0.6862;1.2077;
999.6000;0.6854;1.2077;
999.9000;0.6854;1.2053;
1000.2000;0.6878;1.2101;
1000.5000;0.6838;1.2005;
1000.8000;0.6878;1.2077;
1001.1000;0.6829;1.2101;
1001.4000;0.6878;1.2197;
1001.7000;0.6886;1.2197;
1002.0000;0.6870;1.2077;
1002.3000;0.6862;1.2005;
1002.6000;0.6870;1.2053;
1002.9000;0.6903;1.2173;
1003.2000;0.6862;1.2077;
1003.5000;0.6870;1.2053;
1003.8000;0.6862;1.2053;
1004.1000;0.6878;1.2053;
1004.4000;0.6846;1.1957;
1004.7000;0.6829;1.1861;
1005.0000;0.6797;1.1718;
1005.3000;0.6886;1.1885;
1005.6000;0.6838;1.1837;
1005.9000;0.6862;1.1957;
1006.2000;0.6870;1.2005;
1006.5000;0.6862;1.1957;
1006.8000;0.6886;1.1933;
1007.1000;0.6854;1.1885;
1007.4000;0.6854;1.1909;
1007.7000;0.6878;1.1861;
1008.0000;0.6854;1.1885;
1008.3000;0.6886;1.2005;
1008.6000;0.6838;1.1909;
1008.9000;0.6878;1.2029;
1009.2000;0.6854;1.2077;
1009.5000;0.6862;1.2077;
1009.8000;0.6862;1.2077;
1010.1000;0.6862;1.2125;
1010.4000;0.6870;1.2101;
1010.7000;0.6838;1.2053;
1011.0000;0.6838;1.2077;
1011.3000;0.6862;1.2053;
1011.6000;0.6862;1.2077;
1011.9000;0.6789;1.1861;
1012.2000;0.6854;1.2053;
1012.5000;0.6862;1.2005;
1012.8000;0.6886;1.2101;
1013.1000;0.6846;1.1981;
1013.4000;0.6854;1.2005;
1013.7000;0.6821;1.1909;
1014.0000;0.6829;1.1885;
1014.3000;0.6903;1.2029;
1014.6000;0.6895;1.2005;
1014.9000;0.6952;1.2173;
1015.2000;0.6870;1.1957;
1015.5000;0.6846;1.1981;
1015.8000;0.6854;1.2101;
1016.1000;0.6821;1.2053;
1016.4000;0.6862;1.2101;
1016.7000;0.6862;1.2125;
1017.0000;0.6854;1.2077;
1017.3000;0.6854;1.2077;
1017.6000;0.6862;1.2053;
1017.9000;0.6886;1.2077;
1018.2000;0.6886;1.2077;
1018.5000;0.6862;1.2077;
1018.8000;0.6821;1.2029;
1019.1000;0.6862;1.2101;
1019.4000;0.6870;1.2077;
1019.7000;0.6846;1.1981;
1020.0000;0.6846;1.2029;
1020.3000;0.6854;1.1933;
1020.6000;0.6846;1.2005;
1020.9000;0.6829;1.1933;
1021.2000;0.6838;1.1957;
1021.5000;0.6846;1.2029;
1021.8000;0.6878;1.2101;
1022.1000;0.6862;1.2077;
1022.4000;0.6854;1.2029;
1022.7000;0.6854;1.2005;
1023.0000;0.6862;1.1981;
1023.3000;0.6829;1.1957;
1023.6000;0.6846;1.2053;
1023.9000;0.6846;1.2053;
1024.2000;0.6854;1.2053;
1024.5000;0.6838;1.2005;
1024.8000;0.6789;1.1909;
1025.1000;0.6838;1.1933;
1025.4000;0.6829;1.1981;
1025.7000;0.6813;1.2053;
1026.0000;0.6854;1.2077;
1026.3000;0.6854;1.1957;
1026.6000;0.6838;1.1909;
1026.9000;0.6789;1.1766;
1027.2000;0.6878;1.1885;
1027.5000;0.6854;1.1933;
1027.8000;0.6805;1.1814;
1028.1000;0.6862;1.1957;
1028.4000;0.6862;1.2101;
1028.7000;0.6829;1.2053;
1029.0000;0.6821;1.2029;
1029.3000;0.6838;1.2173;
1029.6000;0.6846;1.2101;
1029.9000;0.6838;1.2077;
1030.2000;0.6838;1.2053;
1030.5000;0.6854;1.2101;
1030.8000;0.6862;1.2197;
1031.1000;0.6838;1.2101;
1031.4000;0.6829;1.2101;
1031.7000;0.6838;1.2053;
1032.0000;0.6829;1.2077;
1032.3000;0.6838;1.2101;
1032.6000;0.6854;1.2125;
1032.9000;0.6838;1.2029;
1033.2000;0.6838;1.2053;
1033.5000;0.6838;1.2005;
1033.8000;0.6838;1.1957;
1034.1000;0.6829;1.1933;
1034.4000;0.6829;1.2029;
1034.7000;0.6846;1.2005;
1035.0000;0.6862;1.1909;
1035.3000;0.6781;1.1814;
1035.6000;0.6846;1.2053;
1035.9000;0.6895;1.2173;
1036.2000;0.6838;1.2053;
1036.5000;0.6829;1.1933;
1036.8000;0.6854;1.1957;
1037.1000;0.6846;1.1909;
1037.4000;0.6854;1.1909;
1037.7000;0.6821;1.1885;
1038.0000;0.6862;1.2005;
1038.3000;0.6838;1.1957;
1038.6000;0.6862;1.2005;
1038.9000;0.6846;1.2053;
1039.2000;0.6846;1.2077;
1039.5000;0.6846;1.2149;
1039.8000;0.6878;1.2149;
1040.1000;0.6805;1.1861;
1040.4000;0.6797;1.1742;
1040.7000;0.6846;1.1909;
1041.0000;0.6854;1.1885;
1041.3000;0.6829;1.1837;
1041.6000;0.6846;1.1909;
1041.9000;0.6838;1.1814;
1042.2000;0.6838;1.1718;
1042.5000;0.6838;1.1766;
1042.8000;0.6846;1.1885;
1043.1000;0.6838;1.1885;
1043.4000;0.6821;1.1814;
1043.7000;0.6829;1.1933;
1044.0000;0.6846;1.1981;
1044.3000;0.6854;1.1933;
1044.6000;0.6838;1.1837;
1044.9000;0.6846;1.1861;
1045.2000;0.6821;1.1837;
1045.5000;0.6846;1.1814;
1045.8000;0.6862;1.1861;
1046.1000;0.6846;1.1814;
1046.4000;0.6846;1.1814;
1046.7000;0.6821;1.1814;
1047.0000;0.6821;1.1790;
1047.3000;0.6838;1.1861;
1047.6000;0.6838;1.1885;
1047.9000;0.6829;1.1909;
1048.2000;0.6821;1.1933;
1048.5000;0.6838;1.2029;
1048.8000;0.6838;1.2005;
1049.1000;0.6838;1.1957;
1049.4000;0.6846;1.2005;
1049.7000;0.6829;1.2029;
1050.0000;0.6838;1.1957;
1050.3000;0.6829;1.1933;
1050.6000;0.6821;1.1909;
1050.9000;0.6854;1.2005;
1051.2000;0.6846;1.2005;
1051.5000;0.6829;1.2029;
1051.8000;0.6821;1.1981;
1052.1000;0.6829;1.1981;
1052.4000;0.6821;1.1933;
1052.7000;0.6797;1.1861;
1053.0000;0.6829;1.1933;
1053.3000;0.6838;1.2053;
1053.6000;0.6846;1.2125;
1053.9000;0.6838;1.2149;
1054.2000;0.6846;1.2125;
1054.5000;0.6854;1.2053;
1054.8000;0.6878;1.2101;
1055.1000;0.6846;1.2005;
1055.4000;0.6821;1.1957;
1055.7000;0.6813;1.2005;
1056.0000;0.6821;1.2077;
1056.3000;0.6829;1.2077;
1056.6000;0.6813;1.2005;
1056.9000;0.6821;1.2029;
1057.2000;0.6829;1.2005;
1057.5000;0.6805;1.1909;
1057.8000;0.6813;1.1933;
1058.1000;0.6821;1.1957;
1058.4000;0.6846;1.2053;
1058.7000;0.6829;1.2077;
1059.0000;0.6854;1.2125;
1059.3000;0.6829;1.2101;
1059.6000;0.6829;1.2101;
1059.9000;0.6829;1.2149;
1060.2000;0.6838;1.2101;
1060.5000;0.6838;1.2077;
1060.8000;0.6821;1.2053;
1061.1000;0.6829;1.2077;
1061.4000;0.6838;1.2125;
1061.7000;0.6829;1.1981;
1062.0000;0.6829;1.1981;
1062.3000;0.6838;1.1933;
1062.6000;0.6838;1.1957;
1062.9000;0.6829;1.1933;
1063.2000;0.6838;1.2005;
1063.5000;0.6870;1.2053;
1063.8000;0.6846;1.2029;
1064.1000;0.6829;1.1981;
1064.4000;0.6821;1.1957;
1064.7000;0.6829;1.1981;
1065.0000;0.6846;1.2053;
1065.3000;0.6862;1.2101;
1065.6000;0.6829;1.1981;
1065.9000;0.6838;1.1981;
1066.2000;0.6813;1.1981;
1066.5000;0.6805;1.1933;
1066.8000;0.6829;1.1957;
1067.1000;0.6813;1.1909;
1067.4000;0.6895;1.2125;
1067.7000;0.6829;1.1933;
1068.0000;0.6805;1.1981;
1068.3000;0.6829;1.2149;
1068.6000;0.6927;1.2389;
1068.9000;0.6838;1.2149;
1069.2000;0.6821;1.2149;
1069.5000;0.6813;1.2125;
1069.8000;0.6846;1.2197;
1070.1000;0.6829;1.2149;
1070.4000;0.6846;1.2053;
1070.7000;0.6821;1.1957;
1071.0000;0.6797;1.1957;
1071.3000;0.6813;1.2005;
1071.6000;0.6862;1.2101;
1071.9000;0.6805;1.1909;
1072.2000;0.6805;1.1933;
1072.5000;0.6821;1.1957;
1072.8000;0.6838;1.2053;
1073.1000;0.6829;1.1981;
1073.4000;0.6829;1.2029;
1073.7000;0.6829;1.2101;
1074.0000;0.6829;1.2077;
1074.3000;0.6846;1.2149;
1074.6000;0.6846;1.2269;
1074.9000;0.6821;1.2245;
1075.2000;0.6821;1.2125;
1075.5000;0.6829;1.2125;
1075.8000;0.6821;1.2101;
1076.1000;0.6838;1.2149;
1076.4000;0.6854;1.2125;
1076.7000;0.6829;1.2077;
1077.0000;0.6911;1.2221;
1077.3000;0.6821;1.2053;
1077.6000;0.6838;1.2149;
1077.9000;0.6805;1.2125;
1078.2000;0.6813;1.2101;
1078.5000;0.6821;1.2077;
1078.8000;0.6838;1.2101;
1079.1000;0.6829;1.2053;
1079.4000;0.6935;1.2317;
1079.7000;0.6829;1.2029;
1080.0000;0.6813;1.1981;
1080.3000;0.6821;1.2005;
1080.6000;0.6813;1.2029;
1080.9000;0.6805;1.1981;
1081.2000;0.6805;1.1933;
1081.5000;0.6805;1.2029;
1081.8000;0.6838;1.2149;
1082.1000;0.6813;1.2197;
1082.4000;0.6821;1.2293;
1082.7000;0.6748;1.2029;
1083.0000;0.6821;1.2125;
1083.3000;0.6821;1.2053;
1083.6000;0.6813;1.2029;
1083.9000;0.6838;1.2125;
1084.2000;0.6821;1.2149;
1084.5000;0.6805;1.2149;
1084.8000;0.6821;1.2245;
1085.1000;0.6854;1.2269;
1085.4000;0.6829;1.2221;
1085.7000;0.6821;1.2221;
1086.0000;0.6821;1.2173;
1086.3000;0.6813;1.2125;
1086.6000;0.6821;1.2077;
1086.9000;0.6821;1.2077;
1087.2000;0.6797;1.2197;
1087.5000;0.6805;1.2197;
1087.8000;0.6805;1.2245;
1088.1000;0.6821;1.2269;
1088.4000;0.6805;1.2221;
1088.7000;0.6878;1.2389;
1089.0000;0.6829;1.2173;
1089.3000;0.6821;1.2101;
1089.6000;0.6813;1.1957;
1089.9000;0.6838;1.1957;
1090.2000;0.6797;1.1790;
1090.5000;0.6781;1.1790;
1090.8000;0.6797;1.1814;
1091.1000;0.6813;1.1814;
1091.4000;0.6805;1.1814;
1091.7000;0.6813;1.1814;
1092.0000;0.6805;1.1814;
1092.3000;0.6829;1.1909;
1092.6000;0.6740;1.1742;
1092.9000;0.6870;1.2029;
1093.2000;0.6829;1.1933;
1093.5000;0.6838;1.1981;
1093.8000;0.6821;1.1885;
1094.1000;0.6740;1.1742;
1094.4000;0.6813;1.1861;
1094.7000;0.6821;1.1933;
1095.0000;0.6805;1.1909;
1095.3000;0.6772;1.1909;
1095.6000;0.6821;1.2053;
1095.9000;0.6805;1.2053;
1096.2000;0.6813;1.2077;
1096.5000;0.6789;1.2029;
1096.8000;0.6789;1.1933;
1097.1000;0.6813;1.2029;
1097.4000;0.6756;1.1909;
1097.7000;0.6789;1.2005;
1098.0000;0.6821;1.1981;
1098.3000;0.6829;1.2077;
1098.6000;0.6829;1.2077;
1098.9000;0.6813;1.2053;
1099.2000;0.6797;1.2029;
1099.5000;0.6781;1.2029;
1099.8000;0.6797;1.2125;
1100.1000;0.6813;1.2197;
1100.4000;0.6805;1.2125;
1100.7000;0.6805;1.2053;
1101.0000;0.6813;1.2029;
1101.3000;0.6805;1.1933;
1101.6000;0.6797;1.1909;
1101.9000;0.6813;1.2005;
1102.2000;0.6781;1.1933;
1102.5000;0.6789;1.1861;
1102.8000;0.6781;1.1885;
1103.1000;0.6805;1.1909;
1103.4000;0.6797;1.1957;
1103.7000;0.6829;1.2053;
1104.0000;0.6789;1.2101;
1104.3000;0.6764;1.2005;
1104.6000;0.6821;1.2053;
1104.9000;0.6764;1.1981;
1105.2000;0.6797;1.2053;
1105.5000;0.6854;1.2101;
1105.8000;0.6813;1.1981;
1106.1000;0.6838;1.2029;
1106.4000;0.6691;1.1622;
1106.7000;0.6789;1.1790;
1107.0000;0.6707;1.1646;
1107.3000;0.6903;1.2173;
1107.6000;0.6797;1.1957;
1107.9000;0.6789;1.2005;
1108.2000;0.6789;1.1981;
1108.5000;0.6813;1.1981;
1108.8000;0.6789;1.1861;
1109.1000;0.6789;1.1885;
1109.4000;0.6764;1.1861;
1109.7000;0.6789;1.1909;
1110.0000;0.6789;1.1909;
1110.3000;0.6813;1.1981;
1110.6000;0.6813;1.2029;
1110.9000;0.6789;1.1981;
1111.2000;0.6797;1.2029;
1111.5000;0.6862;1.2125;
1111.8000;0.6789;1.1981;
1112.1000;0.6797;1.2005;
1112.4000;0.6764;1.1957;
1112.7000;0.6821;1.2101;
1113.0000;0.6789;1.1909;
1113.3000;0.6821;1.1981;
1113.6000;0.6805;1.1957;
1113.9000;0.6838;1.2101;
1114.2000;0.6854;1.2197;
1114.5000;0.6789;1.2053;
1114.8000;0.6805;1.2101;
1115.1000;0.6789;1.1981;
1115.4000;0.6821;1.1933;
1115.7000;0.6789;1.1933;
1116.0000;0.6797;1.1981;
1116.3000;0.6797;1.2077;
1116.6000;0.6797;1.2149;
1116.9000;0.6764;1.2101;
1117.2000;0.6781;1.2149;
1117.5000;0.6805;1.2149;
1117.8000;0.6764;1.2149;
1118.1000;0.6797;1.2173;
1118.4000;0.6789;1.2197;
1118.7000;0.6813;1.2245;
1119.0000;0.6813;1.2245;
1119.3000;0.6797;1.2149;
1119.6000;0.6781;1.2173;
1119.9000;0.6748;1.2125;
1120.2000;0.6781;1.2269;
1120.5000;0.6789;1.2221;
1120.8000;0.6862;1.2341;
1121.1000;0.6797;1.2125;
1121.4000;0.6707;1.1861;
1121.7000;0.6764;1.1981;
1122.0000;0.6813;1.2077;
1122.3000;0.6813;1.2077;
1122.6000;0.6821;1.2005;
1122.9000;0.6829;1.2029;
1123.2000;0.6772;1.1885;
1123.5000;0.6805;1.2005;
1123.8000;0.6789;1.1957;
1124.1000;0.6797;1.1981;
1124.4000;0.6797;1.2005;
1124.7000;0.6846;1.2197;
1125.0000;0.6813;1.2029;
1125.3000;0.6805;1.1957;
1125.6000;0.6797;1.1933;
1125.9000;0.6772;1.2005;
1126.2000;0.6821;1.2197;
1126.5000;0.6805;1.2197;
1126.8000;0.6740;1.1981;
1127.1000;0.6797;1.2005;
1127.4000;0.6781;1.2029;
1127.7000;0.6789;1.2197;
1128.0000;0.6821;1.2221;
1128.3000;0.6781;1.2149;
1128.6000;0.6789;1.2149;
1128.9000;0.6813;1.2197;
1129.2000;0.6805;1.2077;
1129.5000;0.6797;1.2029;
1129.8000;0.6813;1.2005;
1130.1000;0.6772;1.1957;
1130.4000;0.6821;1.2101;
1130.7000;0.6805;1.2197;
1131.0000;0.6675;1.1814;
1131.3000;0.6838;1.2173;
1131.6000;0.6870;1.2269;
1131.9000;0.6813;1.2125;
1132.2000;0.6789;1.2173;
1132.5000;0.6797;1.2197;
1132.8000;0.6797;1.2173;
1133.1000;0.6805;1.2173;
1133.4000;0.6789;1.2101;
1133.7000;0.6732;1.1933;
1134.0000;0.6797;1.2077;
1134.3000;0.6813;1.2149;
1134.6000;0.6764;1.2125;
1134.9000;0.6764;1.2221;
1135.2000;0.6805;1.2317;
1135.5000;0.6805;1.2317;
1135.8000;0.6805;1.2365;
1136.1000;0.6789;1.2197;
1136.4000;0.6797;1.2173;
1136.7000;0.6797;1.2269;
1137.0000;0.6781;1.2125;
1137.3000;0.6781;1.1981;
1137.6000;0.6781;1.1861;
1137.9000;0.6781;1.1909;
1138.2000;0.6756;1.1981;
1138.5000;0.6821;1.2053;
1138.8000;0.6789;1.2125;
1139.1000;0.6789;1.2149;
1139.4000;0.6781;1.2101;
1139.7000;0.6805;1.2125;
1140.0000;0.6805;1.2149;
1140.3000;0.6789;1.2029;
1140.6000;0.6789;1.2029;
1140.9000;0.6821;1.2029;
1141.2000;0.6797;1.2005;
1141.5000;0.6789;1.2053;
1141.8000;0.6781;1.2101;
1142.1000;0.6781;1.2173;
1142.4000;0.6789;1.2221;
1142.7000;0.6764;1.2077;
1143.0000;0.6813;1.2173;
1143.3000;0.6756;1.2149;
1143.6000;0.6764;1.2173;
1143.9000;0.6821;1.2341;
1144.2000;0.6781;1.2293;
1144.5000;0.6772;1.2269;
1144.8000;0.6797;1.2341;
1145.1000;0.6789;1.2269;
1145.4000;0.6797;1.2221;
1145.7000;0.6797;1.2293;
1146.0000;0.6764;1.2197;
1146.3000;0.6764;1.2173;
1146.6000;0.6797;1.2197;
1146.9000;0.6797;1.2197;
1147.2000;0.6781;1.2197;
1147.5000;0.6797;1.2245;
1147.8000;0.6756;1.2173;
1148.1000;0.6813;1.2341;
1148.4000;0.6789;1.2317;
1148.7000;0.6789;1.2221;
1149.0000;0.6781;1.2173;
1149.3000;0.6789;1.2269;
1149.6000;0.6781;1.2293;
1149.9000;0.6781;1.2269;
1150.2000;0.6813;1.2293;
1150.5000;0.6789;1.2221;
1150.8000;0.6748;1.2053;
1151.1000;0.6789;1.2101;
1151.4000;0.6797;1.2125;
1151.7000;0.6797;1.2029;
1152.0000;0.6813;1.2005;
1152.3000;0.6781;1.2029;
1152.6000;0.6797;1.2101;
1152.9000;0.6789;1.1933;
1153.2000;0.6789;1.2053;
1153.5000;0.6805;1.2101;
1153.8000;0.6781;1.2149;
1154.1000;0.6805;1.2173;
1154.4000;0.6797;1.2077;
1154.7000;0.6748;1.1933;
1155.0000;0.6813;1.2053;
1155.3000;0.6789;1.1933;
1155.6000;0.6781;1.1909;
1155.9000;0.6789;1.2029;
1156.2000;0.6772;1.2029;
1156.5000;0.6789;1.2077;
1156.8000;0.6789;1.2053;
1157.1000;0.6781;1.2149;
1157.4000;0.6781;1.2149;
1157.7000;0.6789;1.2125;
1158.0000;0.6772;1.2125;
1158.3000;0.6846;1.2365;
1158.6000;0.6772;1.2173;
1158.9000;0.6756;1.2197;
1159.2000;0.6764;1.2101;
1159.5000;0.6797;1.2125;
1159.8000;0.6797;1.2197;
1160.1000;0.6789;1.2221;
1160.4000;0.6797;1.2245;
1160.7000;0.6797;1.2221;
1161.0000;0.6781;1.2197;
1161.3000;0.6781;1.2101;
1161.6000;0.6789;1.2149;
1161.9000;0.6797;1.2125;
1162.2000;0.6781;1.1981;
1162.5000;0.6772;1.2053;
1162.8000;0.6781;1.2077;
1163.1000;0.6797;1.2173;
1163.4000;0.6797;1.2125;
1163.7000;0.6789;1.2101;
1164.0000;0.6781;1.2077;
1164.3000;0.6805;1.2101;
1164.6000;0.6772;1.2053;
1164.9000;0.6781;1.2029;
1165.2000;0.6797;1.2101;
1165.5000;0.6764;1.2125;
1165.8000;0.6781;1.2173;
1166.1000;0.6772;1.2173;
1166.4000;0.6740;1.2101;
1166.7000;0.6756;1.2005;
1167.0000;0.6772;1.1957;
1167.3000;0.6764;1.1909;
1167.6000;0.6756;1.1909;
1167.9000;0.6772;1.1957;
1168.2000;0.6764;1.1981;
1168.5000;0.6781;1.2029;
1168.8000;0.6772;1.2029;
1169.1000;0.6772;1.2053;
1169.4000;0.6772;1.2005;
1169.7000;0.6772;1.2077;
1170.0000;0.6789;1.2125;
1170.3000;0.6813;1.2125;
1170.6000;0.6789;1.2077;
1170.9000;0.6781;1.2125;
1171.2000;0.6781;1.2101;
1171.5000;0.6772;1.2077;
1171.8000;0.6756;1.2005;
1172.1000;0.6789;1.2077;
1172.4000;0.6764;1.2053;
1172.7000;0.6732;1.1957;
1173.0000;0.6781;1.2197;
1173.3000;0.6789;1.2149;
1173.6000;0.6789;1.2077;
1173.9000;0.6781;1.1981;
1174.2000;0.6789;1.1933;
1174.5000;0.6781;1.2053;
1174.8000;0.6772;1.2005;
1175.1000;0.6772;1.1933;
1175.4000;0.6789;1.1885;
1175.7000;0.6797;1.1909;
1176.0000;0.6789;1.1885;
1176.3000;0.6772;1.1885;
1176.6000;0.6764;1.1957;
1176.9000;0.6781;1.2005;
1177.2000;0.6764;1.2029;
1177.5000;0.6772;1.2149;
1177.8000;0.6772;1.2173;
1178.1000;0.6764;1.2173;
1178.4000;0.6756;1.2173;
1178.7000;0.6772;1.2149;
1179.0000;0.6772;1.2125;
1179.3000;0.6846;1.2221;
1179.6000;0.6781;1.2053;
1179.9000;0.6772;1.1981;
1180.2000;0.6772;1.1933;
1180.5000;0.6789;1.1957;
1180.8000;0.6781;1.1981;
1181.1000;0.6781;1.1933;
1181.4000;0.6862;1.2101;
1181.7000;0.6781;1.1837;
1182.0000;0.6764;1.1909;
1182.3000;0.6716;1.1861;
1182.6000;0.6781;1.1909;
1182.9000;0.6764;1.1861;
1183.2000;0.6756;1.1885;
1183.5000;0.6772;1.1957;
1183.8000;0.6764;1.1981;
1184.1000;0.6781;1.1957;
1184.4000;0.6772;1.2029;
1184.7000;0.6789;1.2101;
1185.0000;0.6772;1.2029;
1185.3000;0.6764;1.2077;
1185.6000;0.6764;1.2005;
1185.9000;0.6781;1.1981;
1186.2000;0.6756;1.1885;
1186.5000;0.6772;1.1909;
1186.8000;0.6781;1.2077;
1187.1000;0.6789;1.2149;
1187.4000;0.6854;1.2317;
1187.7000;0.6772;1.2077;
1188.0000;0.6789;1.2173;
1188.3000;0.6789;1.2053;
1188.6000;0.6805;1.2125;
1188.9000;0.6789;1.2077;
1189.2000;0.6764;1.2005;
1189.5000;0.6748;1.2005;
1189.8000;0.6781;1.2077;
1190.1000;0.6772;1.2053;
1190.4000;0.6764;1.2053;
1190.7000;0.6772;1.2005;
1191.0000;0.6797;1.1981;
1191.3000;0.6764;1.1885;
1191.6000;0.6772;1.1909;
1191.9000;0.6756;1.1909;
1192.2000;0.6756;1.1909;
1192.5000;0.6764;1.1885;
1192.8000;0.6772;1.1981;
1193.1000;0.6756;1.2053;
1193.4000;0.6764;1.2101;
1193.7000;0.6772;1.2149;
1194.0000;0.6764;1.2149;
1194.3000;0.6797;1.2197;
1194.6000;0.6772;1.2173;
1194.9000;0.6772;1.2149;
1195.2000;0.6772;1.2101;
1195.5000;0.6781;1.2101;
1195.8000;0.6781;1.2149;
1196.1000;0.6772;1.2149;
1196.4000;0.6781;1.2221;
1196.7000;0.6772;1.2149;
1197.0000;0.6772;1.2245;
1197.3000;0.6821;1.2341;
1197.6000;0.6772;1.2245;
1197.9000;0.6707;1.2077;
1198.2000;0.6764;1.2221;
1198.5000;0.6772;1.2245;
1198.8000;0.6781;1.2293;
1199.1000;0.6772;1.2269;
1199.4000;0.6756;1.2197;
1199.7000;0.6772;1.2245;
1200.0000;0.6772;1.2197;
1200.3000;0.6789;1.2221;
1200.6000;0.6789;1.2221;
1200.9000;0.6789;1.2125;
1201.2000;0.6789;1.2125;
1201.5000;0.6772;1.2029;
1201.8000;0.6781;1.2029;
1202.1000;0.6772;1.1933;
1202.4000;0.6756;1.1909;
1202.7000;0.6781;1.2029;
1203.0000;0.6756;1.1957;
1203.3000;0.6772;1.2053;
1203.6000;0.6772;1.2101;
1203.9000;0.6870;1.2389;
1204.2000;0.6772;1.2149;
1204.5000;0.6797;1.2197;
1204.8000;0.6756;1.2125;
1205.1000;0.6862;1.2317;
1205.4000;0.6789;1.2077;
1205.7000;0.6748;1.1981;
1206.0000;0.6789;1.2053;
1206.3000;0.6740;1.2029;
1206.6000;0.6772;1.2053;
1206.9000;0.6740;1.1981;
1207.2000;0.6764;1.1981;
1207.5000;0.6772;1.2125;
1207.8000;0.6764;1.2077;
1208.1000;0.6756;1.2053;
1208.4000;0.6748;1.2101;
1208.7000;0.6772;1.2221;
1209.0000;0.6740;1.2197;
1209.3000;0.6732;1.2221;
1209.6000;0.6772;1.2221;
1209.9000;0.6756;1.2101;
1210.2000;0.6756;1.2077;
1210.5000;0.6813;1.2149;
1210.8000;0.6764;1.2077;
1211.1000;0.6756;1.2101;
1211.4000;0.6691;1.1981;
1211.7000;0.6838;1.2269;
1212.0000;0.6805;1.2221;
1212.3000;0.6756;1.2077;
1212.6000;0.6781;1.2029;
1212.9000;0.6764;1.2029;
1213.2000;0.6756;1.2029;
1213.5000;0.6748;1.1981;
1213.8000;0.6764;1.2053;
1214.1000;0.6789;1.2077;
1214.4000;0.6756;1.1981;
1214.7000;0.6740;1.1861;
1215.0000;0.6821;1.2101;
1215.3000;0.6764;1.1981;
1215.6000;0.6748;1.1861;
1215.9000;0.6764;1.1885;
1216.2000;0.6764;1.1981;
1216.5000;0.6789;1.2053;
1216.8000;0.6707;1.1933;
1217.1000;0.6724;1.1981;
1217.4000;0.6748;1.2005;
1217.7000;0.6772;1.2053;
1218.0000;0.6789;1.2101;
1218.3000;0.6764;1.2101;
1218.6000;0.6764;1.2125;
1218.9000;0.6764;1.2125;
1219.2000;0.6772;1.2149;
1219.5000;0.6805;1.2317;
1219.8000;0.6764;1.2293;
1220.1000;0.6821;1.2365;
1220.4000;0.6781;1.2197;
1220.7000;0.6772;1.2173;
1221.0000;0.6805;1.2197;
1221.3000;0.6756;1.2053;
1221.6000;0.6764;1.2077;
1221.9000;0.6789;1.2173;
1222.2000;0.6691;1.1933;
1222.5000;0.6764;1.2101;
1222.8000;0.6756;1.2077;
1223.1000;0.6740;1.1981;
1223.4000;0.6740;1.1981;
1223.7000;0.6772;1.2005;
1224.0000;0.6772;1.2029;
1224.3000;0.6748;1.2053;
1224.6000;0.6724;1.2005;
1224.9000;0.6748;1.2077;
1225.2000;0.6764;1.2101;
1225.5000;0.6805;1.2149;
1225.8000;0.6772;1.2101;
1226.1000;0.6789;1.2125;
1226.4000;0.6781;1.2125;
1226.7000;0.6732;1.2029;
1227.0000;0.6756;1.2053;
1227.3000;0.6756;1.2005;
1227.6000;0.6740;1.1933;
1227.9000;0.6764;1.2053;
1228.2000;0.6699;1.1933;
1228.5000;0.6756;1.2101;
1228.8000;0.6789;1.2101;
1229.1000;0.6732;1.1933;
1229.4000;0.6756;1.1981;
1229.7000;0.6756;1.1933;
1230.0000;0.6764;1.2029;
1230.3000;0.6667;1.1790;
1230.6000;0.6764;1.1885;
1230.9000;0.6764;1.1909;
1231.2000;0.6756;1.1981;
1231.5000;0.6756;1.1957;
1231.8000;0.6789;1.2077;
1232.1000;0.6756;1.2053;
1232.4000;0.6764;1.2197;
1232.7000;0.6781;1.2245;
1233.0000;0.6854;1.2413;
1233.3000;0.6789;1.2197;
1233.6000;0.6772;1.2149;
1233.9000;0.6772;1.2101;
1234.2000;0.6756;1.1981;
1234.5000;0.6756;1.2005;
1234.8000;0.6797;1.2149;
1235.1000;0.6756;1.2173;
1235.4000;0.6764;1.2245;
1235.7000;0.6748;1.2269;
1236.0000;0.6707;1.2269;
1236.3000;0.6732;1.2293;
1236.6000;0.6732;1.2221;
1236.9000;0.6699;1.2101;
1237.2000;0.6748;1.2149;
1237.5000;0.6748;1.2125;
1237.8000;0.6764;1.2125;
1238.1000;0.6756;1.2053;
1238.4000;0.6756;1.2053;
1238.7000;0.6764;1.2077;
1239.0000;0.6740;1.2005;
1239.3000;0.6772;1.2149;
1239.6000;0.6772;1.2101;
1239.9000;0.6813;1.2269;
1240.2000;0.6756;1.2149;
1240.5000;0.6764;1.2173;
1240.8000;0.6772;1.2293;
1241.1000;0.6756;1.2221;
1241.4000;0.6748;1.2149;
1241.7000;0.6748;1.2149;
1242.0000;0.6748;1.2125;
1242.3000;0.6724;1.2101;
1242.6000;0.6748;1.2221;
1242.9000;0.6740;1.2149;
1243.2000;0.6691;1.2053;
1243.5000;0.6756;1.2125;
1243.8000;0.6740;1.2173;
1244.1000;0.6781;1.2341;
1244.4000;0.6756;1.2365;
1244.7000;0.6764;1.2365;
1245.0000;0.6772;1.2317;
1245.3000;0.6732;1.2245;
1245.6000;0.6903;1.2700;
1245.9000;0.6724;1.2341;
1246.2000;0.6756;1.2317;
1246.5000;0.6732;1.2245;
1246.8000;0.6724;1.2173;
1247.1000;0.6748;1.2245;
1247.4000;0.6683;1.2125;
1247.7000;0.6716;1.2269;
1248.0000;0.6683;1.2221;
1248.3000;0.6748;1.2389;
1248.6000;0.6756;1.2341;
1248.9000;0.6756;1.2269;
1249.2000;0.6756;1.2484;
1249.5000;0.6756;1.2508;
1249.8000;0.6797;1.2508;
1250.1000;0.6756;1.2437;
1250.4000;0.6716;1.2317;
1250.7000;0.6781;1.2508;
1251.0000;0.6748;1.2389;
1251.3000;0.6724;1.2293;
1251.6000;0.6748;1.2365;
1251.9000;0.6732;1.2317;
1252.2000;0.6764;1.2389;
1252.5000;0.6748;1.2365;
1252.8000;0.6772;1.2461;
1253.1000;0.6756;1.2484;
1253.4000;0.6781;1.2508;
1253.7000;0.6716;1.2221;
1254.0000;0.6764;1.2245;
1254.3000;0.6756;1.2173;
1254.6000;0.6748;1.2101;
1254.9000;0.6764;1.2053;
1255.2000;0.6756;1.2053;
1255.5000;0.6716;1.2005;
1255.8000;0.6756;1.2221;
1256.1000;0.6756;1.2245;
1256.4000;0.6667;1.1981;
1256.7000;0.6748;1.2269;
1257.0000;0.6748;1.2269;
1257.3000;0.6821;1.2413;
1257.6000;0.6756;1.2245;
1257.9000;0.6740;1.2245;
1258.2000;0.6764;1.2341;
1258.5000;0.6764;1.2293;
1258.8000;0.6764;1.2173;
1259.1000;0.6740;1.2053;
1259.4000;0.6740;1.2101;
1259.7000;0.6675;1.2005;
1260.0000;0.6756;1.2125;
1260.3000;0.6789;1.2197;
1260.6000;0.6740;1.2053;
1260.9000;0.6740;1.2077;
1261.2000;0.6764;1.2125;
1261.5000;0.6797;1.2221;
1261.8000;0.6756;1.2053;
1262.1000;0.6756;1.1957;
1262.4000;0.6789;1.2077;
1262.7000;0.6748;1.1981;
1263.0000;0.6732;1.1933;
1263.3000;0.6756;1.2053;
1263.6000;0.6724;1.1981;
1263.9000;0.6781;1.2149;
1264.2000;0.6740;1.2053;
1264.5000;0.6732;1.2149;
1264.8000;0.6732;1.2149;
1265.1000;0.6772;1.2221;
1265.4000;0.6764;1.2197;
1265.7000;0.6740;1.2125;
1266.0000;0.6748;1.2221;
1266.3000;0.6748;1.2269;
1266.6000;0.6748;1.2221;
1266.9000;0.6781;1.2293;
1267.2000;0.6756;1.2029;
1267.5000;0.6748;1.1957;
1267.8000;0.6740;1.1885;
1268.1000;0.6740;1.1814;
1268.4000;0.6748;1.1885;
1268.7000;0.6748;1.1981;
1269.0000;0.6748;1.2053;
1269.3000;0.6732;1.1981;
1269.6000;0.6748;1.2077;
1269.9000;0.6813;1.2341;
1270.2000;0.6764;1.2269;
1270.5000;0.6756;1.2341;
1270.8000;0.6699;1.2173;
1271.1000;0.6707;1.2245;
1271.4000;0.6756;1.2437;
1271.7000;0.6732;1.2341;
1272.0000;0.6756;1.2389;
1272.3000;0.6732;1.2221;
1272.6000;0.6756;1.2365;
1272.9000;0.6756;1.2341;
1273.2000;0.6748;1.2293;
1273.5000;0.6756;1.2341;
1273.8000;0.6724;1.2293;
1274.1000;0.6748;1.2317;
1274.4000;0.6732;1.2269;
1274.7000;0.6724;1.2245;
1275.0000;0.6748;1.2221;
1275.3000;0.6732;1.2173;
1275.6000;0.6724;1.2197;
1275.9000;0.6748;1.2197;
1276.2000;0.6756;1.2149;
1276.5000;0.6764;1.2221;
1276.8000;0.6764;1.2317;
1277.1000;0.6748;1.2293;
1277.4000;0.6740;1.2293;
1277.7000;0.6756;1.2317;
1278.0000;0.6740;1.2197;
1278.3000;0.6740;1.2173;
1278.6000;0.6740;1.2197;
1278.9000;0.6740;1.2221;
1279.2000;0.6732;1.2173;
1279.5000;0.6724;1.2221;
1279.8000;0.6724;1.2269;
1280.1000;0.6748;1.2317;
1280.4000;0.6699;1.2245;
1280.7000;0.6772;1.2365;
1281.0000;0.6740;1.2269;
1281.3000;0.6748;1.2173;
1281.6000;0.6724;1.2077;
1281.9000;0.6756;1.2125;
1282.2000;0.6748;1.2149;
1282.5000;0.6756;1.2197;
1282.8000;0.6756;1.2245;
1283.1000;0.6740;1.2173;
1283.4000;0.6740;1.2125;
1283.7000;0.6724;1.1981;
1284.0000;0.6740;1.2005;
1284.3000;0.6740;1.1981;
1284.6000;0.6716;1.2005;
1284.9000;0.6756;1.2029;
1285.2000;0.6756;1.2077;
1285.5000;0.6756;1.1909;
1285.8000;0.6756;1.1909;
1286.1000;0.6724;1.1933;
1286.4000;0.6748;1.2005;
1286.7000;0.6756;1.2101;
1287.0000;0.6740;1.2101;
1287.3000;0.6740;1.2149;
1287.6000;0.6732;1.2173;
1287.9000;0.6740;1.2197;
1288.2000;0.6724;1.2221;
1288.5000;0.6756;1.2341;
1288.8000;0.6740;1.2245;
1289.1000;0.6724;1.2197;
1289.4000;0.6732;1.2101;
1289.7000;0.6748;1.2125;
1290.0000;0.6756;1.2125;
1290.3000;0.6756;1.2149;
1290.6000;0.6748;1.2197;
1290.9000;0.6748;1.2269;
1291.2000;0.6756;1.2245;
1291.5000;0.6732;1.2125;
1291.8000;0.6764;1.2173;
1292.1000;0.6756;1.2149;
1292.4000;0.6732;1.2077;
1292.7000;0.6716;1.2077;
1293.0000;0.6748;1.2149;
1293.3000;0.6797;1.2269;
1293.6000;0.6740;1.2149;
1293.9000;0.6756;1.2149;
1294.2000;0.6748;1.2173;
1294.5000;0.6748;1.2245;
1294.8000;0.6732;1.2173;
1295.1000;0.6707;1.2053;
1295.4000;0.6732;1.2101;
1295.7000;0.6707;1.2053;
1296.0000;0.6732;1.1981;
1296.3000;0.6724;1.1933;
1296.6000;0.6732;1.1957;
1296.9000;0.6732;1.2029;
1297.2000;0.6772;1.2149;
1297.5000;0.6732;1.2149;
1297.8000;0.6740;1.2197;
1298.1000;0.6675;1.1885;
1298.4000;0.6740;1.2053;
1298.7000;0.6716;1.1933;
1299.0000;0.6732;1.1885;
1299.3000;0.6732;1.1981;
1299.6000;0.6756;1.2005;
1299.9000;0.6748;1.1981;
1300.2000;0.6724;1.1957;
1300.5000;0.6748;1.2005;
1300.8000;0.6732;1.2005;
1301.1000;0.6740;1.2125;
1301.4000;0.6748;1.2125;
1301.7000;0.6634;1.1861;
1302.0000;0.6764;1.2125;
1302.3000;0.6740;1.2245;
1302.6000;0.6732;1.2197;
1302.9000;0.6740;1.2149;
1303.2000;0.6740;1.2173;
1303.5000;0.6732;1.2149;
1303.8000;0.6732;1.2149;
1304.1000;0.6740;1.2125;
1304.4000;0.6732;1.2125;
1304.7000;0.6716;1.2077;
1305.0000;0.6772;1.2197;
1305.3000;0.6732;1.2149;
1305.6000;0.6740;1.2101;
1305.9000;0.6764;1.2197;
1306.2000;0.6748;1.2245;
1306.5000;0.6724;1.2269;
1306.8000;0.6740;1.2269;
1307.1000;0.6732;1.2365;
1307.4000;0.6724;1.2413;
1307.7000;0.6740;1.2484;
1308.0000;0.6740;1.2484;
1308.3000;0.6756;1.2461;
1308.6000;0.6724;1.2221;
1308.9000;0.6764;1.2197;
1309.2000;0.6732;1.2221;
1309.5000;0.6699;1.2293;
1309.8000;0.6732;1.2437;
1310.1000;0.6740;1.2365;
1310.4000;0.6732;1.2245;
1310.7000;0.6724;1.2269;
1311.0000;0.6748;1.2341;
1311.3000;0.6781;1.2437;
1311.6000;0.6748;1.2389;
1311.9000;0.6854;1.2628;
1312.2000;0.6748;1.2437;
1312.5000;0.6659;1.2317;
1312.8000;0.6740;1.2365;
1313.1000;0.6716;1.2221;
1313.4000;0.6764;1.2293;
1313.7000;0.6748;1.2221;
1314.0000;0.6829;1.2437;
1314.3000;0.6781;1.2341;
1314.6000;0.6748;1.2197;
1314.9000;0.6732;1.2221;
1315.2000;0.6748;1.2149;
1315.5000;0.6707;1.2053;
1315.8000;0.6740;1.2221;
1316.1000;0.6699;1.2173;
1316.4000;0.6789;1.2437;
1316.7000;0.6805;1.2484;
1317.0000;0.6732;1.2317;
1317.3000;0.6732;1.2389;
1317.6000;0.6699;1.2341;
1317.9000;0.6732;1.2365;
1318.2000;0.6748;1.2365;
1318.5000;0.6740;1.2365;
1318.8000;0.6732;1.2317;
1319.1000;0.6724;1.2437;
1319.4000;0.6716;1.2365;
1319.7000;0.6724;1.2365;
1320.0000;0.6748;1.2437;
1320.3000;0.6724;1.2413;
1320.6000;0.6732;1.2365;
1320.9000;0.6732;1.2413;
1321.2000;0.6724;1.2245;
1321.5000;0.6756;1.2389;
1321.8000;0.6732;1.2269;
1322.1000;0.6740;1.2173;
1322.4000;0.6756;1.2245;
1322.7000;0.6846;1.2556;
1323.0000;0.6740;1.2341;
1323.3000;0.6748;1.2341;
1323.6000;0.6756;1.2293;
1323.9000;0.6748;1.2197;
1324.2000;0.6740;1.2293;
1324.5000;0.6740;1.2341;
1324.8000;0.6756;1.2269;
1325.1000;0.6789;1.2389;
1325.4000;0.6716;1.2221;
1325.7000;0.6691;1.2077;
1326.0000;0.6740;1.2269;
1326.3000;0.6740;1.2389;
1326.6000;0.6756;1.2437;
1326.9000;0.6756;1.2508;
1327.2000;0.6756;1.2532;
1327.5000;0.6756;1.2532;
1327.8000;0.6781;1.2580;
1328.1000;0.6732;1.2484;
1328.4000;0.6748;1.2508;
1328.7000;0.6764;1.2413;
1329.0000;0.6707;1.2269;
1329.3000;0.6764;1.2461;
1329.6000;0.6716;1.2293;
1329.9000;0.6781;1.2413;
1330.2000;0.6805;1.2484;
1330.5000;0.6707;1.2245;
1330.8000;0.6756;1.2341;
1331.1000;0.6740;1.2293;
1331.4000;0.6756;1.2317;
1331.7000;0.6862;1.2604;
1332.0000;0.6732;1.2293;
1332.3000;0.6740;1.2341;
1332.6000;0.6732;1.2197;
1332.9000;0.6748;1.2197;
1333.2000;0.6748;1.2125;
1333.5000;0.6748;1.2077;
1333.8000;0.6748;1.2053;
1334.1000;0.6732;1.2005;
1334.4000;0.6716;1.2101;
1334.7000;0.6748;1.2149;
1335.0000;0.6716;1.2149;
1335.3000;0.6691;1.2077;
1335.6000;0.6724;1.2269;
1335.9000;0.6740;1.2341;
1336.2000;0.6838;1.2628;
1336.5000;0.6740;1.2461;
1336.8000;0.6805;1.2604;
1337.1000;0.6764;1.2413;
1337.4000;0.6740;1.2269;
1337.7000;0.6740;1.2197;
1338.0000;0.6724;1.2149;
1338.3000;0.6748;1.2173;
1338.6000;0.6740;1.2173;
1338.9000;0.6740;1.2149;
1339.2000;0.6707;1.2125;
1339.5000;0.6781;1.2341;
1339.8000;0.6732;1.2317;
1340.1000;0.6756;1.2341;
1340.4000;0.6732;1.2365;
1340.7000;0.6772;1.2365;
1341.0000;0.6732;1.2221;
1341.3000;0.6675;1.2101;
1341.6000;0.6724;1.2197;
1341.9000;0.6716;1.2197;
1342.2000;0.6748;1.2245;
1342.5000;0.6772;1.2269;
1342.8000;0.6716;1.2245;
1343.1000;0.6764;1.2365;
1343.4000;0.6748;1.2389;
1343.7000;0.6724;1.2317;
1344.0000;0.6732;1.2341;
1344.3000;0.6740;1.2317;
1344.6000;0.6732;1.2293;
1344.9000;0.6716;1.2245;
1345.2000;0.6732;1.2125;
1345.5000;0.6797;1.2221;
1345.8000;0.6716;1.2077;
1346.1000;0.6748;1.2149;
1346.4000;0.6740;1.2125;
1346.7000;0.6740;1.2101;
1347.0000;0.6764;1.2101;
1347.3000;0.6724;1.2053;
1347.6000;0.6740;1.2125;
1347.9000;0.6756;1.2077;
1348.2000;0.6756;1.2125;
1348.5000;0.6748;1.2149;
1348.8000;0.6732;1.2221;
1349.1000;0.6740;1.2341;
1349.4000;0.6732;1.2317;
1349.7000;0.6748;1.2413;
1350.0000;0.6716;1.2293;
1350.3000;0.6732;1.2341;
1350.6000;0.6716;1.2245;
1350.9000;0.6707;1.2221;
1351.2000;0.6748;1.2293;
1351.5000;0.6732;1.2197;
1351.8000;0.6724;1.2197;
1352.1000;0.6707;1.2173;
1352.4000;0.6740;1.2077;
1352.7000;0.6732;1.2053;
1353.0000;0.6748;1.2101;
1353.3000;0.6699;1.2077;
1353.6000;0.6724;1.2149;
1353.9000;0.6732;1.2053;
1354.2000;0.6724;1.2029;
1354.5000;0.6748;1.2101;
1354.8000;0.6781;1.2197;
1355.1000;0.6732;1.2029;
1355.4000;0.6716;1.1933;
1355.7000;0.6707;1.1814;
1356.0000;0.6740;1.1909;
1356.3000;0.6772;1.1981;
1356.6000;0.6772;1.2005;
1356.9000;0.6756;1.1957;
1357.2000;0.6716;1.1885;
1357.5000;0.6764;1.2077;
1357.8000;0.6740;1.2029;
1358.1000;0.6748;1.2125;
1358.4000;0.6781;1.2245;
1358.7000;0.6740;1.2053;
1359.0000;0.6740;1.2005;
1359.3000;0.6772;1.2029;
1359.6000;0.6740;1.1885;
1359.9000;0.6748;1.1861;
1360.2000;0.6724;1.1933;
1360.5000;0.6748;1.2005;
1360.8000;0.6724;1.1981;
1361.1000;0.6691;1.1909;
1361.4000;0.6724;1.1909;
1361.7000;0.6667;1.1766;
1362.0000;0.6724;1.1909;
1362.3000;0.6756;1.2101;
1362.6000;0.6756;1.2101;
1362.9000;0.6748;1.2149;
1363.2000;0.6732;1.2101;
1363.5000;0.6740;1.2173;
1363.8000;0.6732;1.2197;
1364.1000;0.6797;1.2365;
1364.4000;0.6740;1.2149;
1364.7000;0.6707;1.2053;
1365.0000;0.6716;1.2005;
1365.3000;0.6756;1.2077;
1365.6000;0.6748;1.2197;
1365.9000;0.6748;1.2173;
1366.2000;0.6732;1.2077;
1366.5000;0.6716;1.2101;
1366.8000;0.6724;1.2125;
1367.1000;0.6764;1.2245;
1367.4000;0.6781;1.2173;
1367.7000;0.6707;1.2053;
1368.0000;0.6707;1.2125;
1368.3000;0.6740;1.2197;
1368.6000;0.6740;1.2149;
1368.9000;0.6756;1.2077;
1369.2000;0.6748;1.2077;
1369.5000;0.6756;1.2197;
1369.8000;0.6707;1.2101;
1370.1000;0.6789;1.2341;
1370.4000;0.6699;1.2101;
1370.7000;0.6748;1.2149;
1371.0000;0.6748;1.2173;
1371.3000;0.6699;1.2125;
1371.6000;0.6716;1.2173;
1371.9000;0.6732;1.2245;
1372.2000;0.6691;1.2125;
1372.5000;0.6740;1.2173;
1372.8000;0.6732;1.2173;
1373.1000;0.6732;1.2293;
1373.4000;0.6707;1.2149;
1373.7000;0.6732;1.2221;
1374.0000;0.6716;1.2149;
1374.3000;0.6732;1.2269;
1374.6000;0.6699;1.2293;
1374.9000;0.6683;1.2245;
1375.2000;0.6716;1.2341;
1375.5000;0.6716;1.2269;
1375.8000;0.6707;1.2245;
1376.1000;0.6732;1.2317;
1376.4000;0.6756;1.2317;
1376.7000;0.6724;1.2197;
1377.0000;0.6724;1.2149;
1377.3000;0.6724;1.2101;
1377.6000;0.6707;1.2101;
1377.9000;0.6748;1.2173;
1378.2000;0.6740;1.2149;
1378.5000;0.6724;1.2125;
1378.8000;0.6716;1.2005;
1379.1000;0.6716;1.2029;
1379.4000;0.6732;1.2029;
1379.7000;0.6732;1.2005;
1380.0000;0.6716;1.2029;
1380.3000;0.6724;1.2173;
1380.6000;0.6724;1.2149;
1380.9000;0.6716;1.2245;
1381.2000;0.6732;1.2317;
1381.5000;0.6756;1.2245;
1381.8000;0.6732;1.2101;
1382.1000;0.6732;1.2197;
1382.4000;0.6707;1.2101;
1382.7000;0.6732;1.2077;
1383.0000;0.6716;1.2101;
1383.3000;0.6699;1.2149;
1383.6000;0.6732;1.2221;
1383.9000;0.6716;1.2221;
1384.2000;0.6732;1.2293;
1384.5000;0.6732;1.2293;
1384.8000;0.6707;1.2245;
1385.1000;0.6724;1.2173;
1385.4000;0.6740;1.2173;
1385.7000;0.6707;1.2197;
1386.0000;0.6724;1.2293;
1386.3000;0.6732;1.2173;
1386.6000;0.6716;1.2173;
1386.9000;0.6716;1.2245;
1387.2000;0.6716;1.2341;
1387.5000;0.6716;1.2365;
1387.8000;0.6732;1.2317;
1388.1000;0.6716;1.2365;
1388.4000;0.6724;1.2461;
1388.7000;0.6732;1.2484;
1389.0000;0.6732;1.2413;
1389.3000;0.6724;1.2389;
1389.6000;0.6724;1.2341;
1389.9000;0.6724;1.2293;
1390.2000;0.6716;1.2293;
1390.5000;0.6732;1.2293;
1390.8000;0.6716;1.2365;
1391.1000;0.6740;1.2389;
1391.4000;0.6724;1.2341;
1391.7000;0.6716;1.2317;
1392.0000;0.6732;1.2341;
1392.3000;0.6732;1.2317;
1392.6000;0.6740;1.2317;
1392.9000;0.6740;1.2269;
1393.2000;0.6716;1.2173;
1393.5000;0.6732;1.2173;
1393.8000;0.6756;1.2293;
1394.1000;0.6740;1.2245;
1394.4000;0.6756;1.2293;
1394.7000;0.6740;1.2221;
1395.0000;0.6805;1.2437;
1395.3000;0.6732;1.2173;
1395.6000;0.6707;1.2101;
1395.9000;0.6724;1.2173;
1396.2000;0.6699;1.2125;
1396.5000;0.6707;1.2125;
1396.8000;0.6716;1.2125;
1397.1000;0.6707;1.2173;
1397.4000;0.6732;1.2197;
1397.7000;0.6724;1.2245;
1398.0000;0.6724;1.2245;
1398.3000;0.6724;1.2293;
1398.6000;0.6732;1.2341;
1398.9000;0.6724;1.2341;
1399.2000;0.6740;1.2389;
1399.5000;0.6716;1.2293;
1399.8000;0.6716;1.2293;
