time/ms;Fluo/V;P700 deltaI/I x10³;
-199.8000;0.7440;1.2892;
-199.5000;0.7416;1.2772;
-199.2000;0.7399;1.2724;
-198.9000;0.7383;1.2700;
-198.6000;0.7432;1.2844;
-198.3000;0.7432;1.2724;
-198.0000;0.7464;1.2844;
-197.7000;0.7432;1.2700;
-197.4000;0.7432;1.2724;
-197.1000;0.7456;1.2868;
-196.8000;0.7432;1.2892;
-196.5000;0.7391;1.2796;
-196.2000;0.7464;1.3012;
-195.9000;0.7440;1.3012;
-195.6000;0.7432;1.3084;
-195.3000;0.7456;1.3060;
-195.0000;0.7440;1.3131;
-194.7000;0.7448;1.3108;
-194.4000;0.7424;1.3084;
-194.1000;0.7424;1.3036;
-193.8000;0.7424;1.2940;
-193.5000;0.7424;1.2940;
-193.2000;0.7424;1.2916;
-192.9000;0.7407;1.2940;
-192.6000;0.7424;1.2988;
-192.3000;0.7440;1.3036;
-192.0000;0.7440;1.3084;
-191.7000;0.7432;1.3084;
-191.4000;0.7432;1.3131;
-191.1000;0.7456;1.3227;
-190.8000;0.7448;1.3179;
-190.5000;0.7448;1.3131;
-190.2000;0.7424;1.3155;
-189.9000;0.7432;1.3179;
-189.6000;0.7448;1.3227;
-189.3000;0.7432;1.3251;
-189.0000;0.7424;1.3227;
-188.7000;0.7424;1.3203;
-188.4000;0.7440;1.3179;
-188.1000;0.7416;1.3084;
-187.8000;0.7416;1.3060;
-187.5000;0.7424;1.3012;
-187.2000;0.7448;1.3012;
-186.9000;0.7440;1.3012;
-186.6000;0.7440;1.3060;
-186.3000;0.7416;1.3084;
-186.0000;0.7432;1.3036;
-185.7000;0.7440;1.2988;
-185.4000;0.7416;1.2940;
-185.1000;0.7440;1.3012;
-184.8000;0.7424;1.2964;
-184.5000;0.7440;1.3012;
-184.2000;0.7424;1.3036;
-183.9000;0.7416;1.2964;
-183.6000;0.7448;1.3036;
-183.3000;0.7416;1.2988;
-183.0000;0.7407;1.2916;
-182.7000;0.7416;1.2940;
-182.4000;0.7424;1.2988;
-182.1000;0.7432;1.3012;
-181.8000;0.7432;1.3036;
-181.5000;0.7440;1.3084;
-181.2000;0.7448;1.3108;
-180.9000;0.7432;1.3108;
-180.6000;0.7432;1.3036;
-180.3000;0.7424;1.2940;
-180.0000;0.7416;1.2892;
-179.7000;0.7424;1.2868;
-179.4000;0.7440;1.2916;
-179.1000;0.7448;1.3012;
-178.8000;0.7424;1.3036;
-178.5000;0.7424;1.2940;
-178.2000;0.7416;1.3012;
-177.9000;0.7424;1.2988;
-177.6000;0.7448;1.3060;
-177.3000;0.7440;1.3012;
-177.0000;0.7448;1.3060;
-176.7000;0.7432;1.3060;
-176.4000;0.7473;1.3227;
-176.1000;0.7432;1.3155;
-175.8000;0.7432;1.3060;
-175.5000;0.7546;1.3299;
-175.2000;0.7432;1.2988;
-174.9000;0.7424;1.3108;
-174.6000;0.7448;1.3155;
-174.3000;0.7432;1.3084;
-174.0000;0.7440;1.3084;
-173.7000;0.7416;1.2916;
-173.4000;0.7432;1.2916;
-173.1000;0.7489;1.3060;
-172.8000;0.7424;1.2868;
-172.5000;0.7440;1.3012;
-172.2000;0.7432;1.2940;
-171.9000;0.7440;1.3012;
-171.6000;0.7424;1.2964;
-171.3000;0.7416;1.2868;
-171.0000;0.7416;1.2892;
-170.7000;0.7424;1.2964;
-170.4000;0.7440;1.3036;
-170.1000;0.7440;1.3084;
-169.8000;0.7448;1.3060;
-169.5000;0.7424;1.3012;
-169.2000;0.7424;1.2988;
-168.9000;0.7432;1.2988;
-168.6000;0.7432;1.2940;
-168.3000;0.7546;1.3131;
-168.0000;0.7350;1.2748;
-167.7000;0.7440;1.2892;
-167.4000;0.7440;1.2940;
-167.1000;0.7440;1.2964;
-166.8000;0.7432;1.2988;
-166.5000;0.7424;1.2916;
-166.2000;0.7416;1.2844;
-165.9000;0.7432;1.2988;
-165.6000;0.7440;1.3012;
-165.3000;0.7440;1.3036;
-165.0000;0.7432;1.2964;
-164.7000;0.7407;1.2964;
-164.4000;0.7456;1.3084;
-164.1000;0.7448;1.2988;
-163.8000;0.7424;1.2940;
-163.5000;0.7432;1.2988;
-163.2000;0.7432;1.2964;
-162.9000;0.7440;1.3012;
-162.6000;0.7424;1.2940;
-162.3000;0.7416;1.2892;
-162.0000;0.7481;1.3012;
-161.7000;0.7448;1.2916;
-161.4000;0.7440;1.2892;
-161.1000;0.7424;1.2916;
-160.8000;0.7440;1.2940;
-160.5000;0.7424;1.2916;
-160.2000;0.7407;1.2916;
-159.9000;0.7432;1.2940;
-159.6000;0.7424;1.2964;
-159.3000;0.7432;1.3012;
-159.0000;0.7432;1.2964;
-158.7000;0.7448;1.2964;
-158.4000;0.7432;1.2964;
-158.1000;0.7407;1.2916;
-157.8000;0.7432;1.3012;
-157.5000;0.7416;1.3012;
-157.2000;0.7473;1.3155;
-156.9000;0.7424;1.3108;
-156.6000;0.7432;1.3131;
-156.3000;0.7440;1.3131;
-156.0000;0.7424;1.3060;
-155.7000;0.7432;1.3084;
-155.4000;0.7432;1.3179;
-155.1000;0.7448;1.3179;
-154.8000;0.7424;1.3108;
-154.5000;0.7448;1.3155;
-154.2000;0.7432;1.3012;
-153.9000;0.7448;1.3084;
-153.6000;0.7440;1.3084;
-153.3000;0.7448;1.3155;
-153.0000;0.7432;1.3084;
-152.7000;0.7342;1.2796;
-152.4000;0.7473;1.3108;
-152.1000;0.7440;1.2988;
-151.8000;0.7432;1.3036;
-151.5000;0.7448;1.2988;
-151.2000;0.7432;1.2940;
-150.9000;0.7432;1.3036;
-150.6000;0.7448;1.3060;
-150.3000;0.7448;1.3131;
-150.0000;0.7538;1.3275;
-149.7000;0.7432;1.2988;
-149.4000;0.7440;1.2964;
-149.1000;0.7448;1.2916;
-148.8000;0.7440;1.3036;
-148.5000;0.7367;1.2820;
-148.2000;0.7456;1.3036;
-147.9000;0.7440;1.3012;
-147.6000;0.7416;1.2964;
-147.3000;0.7424;1.2988;
-147.0000;0.7416;1.3012;
-146.7000;0.7416;1.3084;
-146.4000;0.7440;1.3036;
-146.1000;0.7440;1.3036;
-145.8000;0.7432;1.3012;
-145.5000;0.7432;1.3012;
-145.2000;0.7440;1.3012;
-144.9000;0.7334;1.2748;
-144.6000;0.7424;1.3060;
-144.3000;0.7367;1.2988;
-144.0000;0.7424;1.3036;
-143.7000;0.7440;1.2988;
-143.4000;0.7432;1.2892;
-143.1000;0.7424;1.2844;
-142.8000;0.7416;1.2868;
-142.5000;0.7407;1.2796;
-142.2000;0.7407;1.2820;
-141.9000;0.7432;1.2868;
-141.6000;0.7440;1.2940;
-141.3000;0.7424;1.2892;
-141.0000;0.7416;1.2964;
-140.7000;0.7416;1.2964;
-140.4000;0.7440;1.3012;
-140.1000;0.7432;1.3036;
-139.8000;0.7432;1.3012;
-139.5000;0.7440;1.3036;
-139.2000;0.7432;1.2988;
-138.9000;0.7440;1.3060;
-138.6000;0.7456;1.3084;
-138.3000;0.7432;1.2988;
-138.0000;0.7489;1.3155;
-137.7000;0.7359;1.2772;
-137.4000;0.7424;1.2964;
-137.1000;0.7424;1.2916;
-136.8000;0.7407;1.2964;
-136.5000;0.7407;1.3012;
-136.2000;0.7440;1.3060;
-135.9000;0.7456;1.3108;
-135.6000;0.7432;1.3036;
-135.3000;0.7432;1.3084;
-135.0000;0.7416;1.3131;
-134.7000;0.7448;1.3251;
-134.4000;0.7456;1.3299;
-134.1000;0.7432;1.3108;
-133.8000;0.7440;1.3155;
-133.5000;0.7448;1.3227;
-133.2000;0.7432;1.3131;
-132.9000;0.7432;1.3131;
-132.6000;0.7448;1.3179;
-132.3000;0.7424;1.3108;
-132.0000;0.7416;1.3036;
-131.7000;0.7391;1.2940;
-131.4000;0.7432;1.2964;
-131.1000;0.7424;1.3036;
-130.8000;0.7424;1.3155;
-130.5000;0.7416;1.3131;
-130.2000;0.7432;1.3108;
-129.9000;0.7448;1.3131;
-129.6000;0.7432;1.3155;
-129.3000;0.7440;1.3179;
-129.0000;0.7432;1.3108;
-128.7000;0.7440;1.3060;
-128.4000;0.7432;1.3060;
-128.1000;0.7424;1.3012;
-127.8000;0.7456;1.3060;
-127.5000;0.7448;1.3084;
-127.2000;0.7432;1.3036;
-126.9000;0.7432;1.3036;
-126.6000;0.7440;1.3012;
-126.3000;0.7440;1.2964;
-126.0000;0.7399;1.2868;
-125.7000;0.7424;1.2964;
-125.4000;0.7407;1.2964;
-125.1000;0.7424;1.3131;
-124.8000;0.7416;1.3131;
-124.5000;0.7432;1.3203;
-124.2000;0.7432;1.3299;
-123.9000;0.7416;1.3251;
-123.6000;0.7440;1.3299;
-123.3000;0.7473;1.3347;
-123.0000;0.7407;1.3131;
-122.7000;0.7432;1.3108;
-122.4000;0.7432;1.3131;
-122.1000;0.7432;1.3131;
-121.8000;0.7440;1.3251;
-121.5000;0.7432;1.3108;
-121.2000;0.7432;1.3108;
-120.9000;0.7448;1.3036;
-120.6000;0.7416;1.2988;
-120.3000;0.7432;1.3036;
-120.0000;0.7432;1.3108;
-119.7000;0.7432;1.3060;
-119.4000;0.7440;1.3084;
-119.1000;0.7432;1.3036;
-118.8000;0.7416;1.2964;
-118.5000;0.7391;1.3036;
-118.2000;0.7432;1.3012;
-117.9000;0.7432;1.2916;
-117.6000;0.7432;1.2988;
-117.3000;0.7440;1.3084;
-117.0000;0.7424;1.3012;
-116.7000;0.7407;1.3060;
-116.4000;0.7399;1.3084;
-116.1000;0.7391;1.3084;
-115.8000;0.7473;1.3251;
-115.5000;0.7432;1.3227;
-115.2000;0.7416;1.3108;
-114.9000;0.7464;1.3155;
-114.6000;0.7432;1.3131;
-114.3000;0.7448;1.3179;
-114.0000;0.7416;1.3155;
-113.7000;0.7432;1.3131;
-113.4000;0.7432;1.3131;
-113.1000;0.7440;1.3155;
-112.8000;0.7432;1.3155;
-112.5000;0.7375;1.2988;
-112.2000;0.7432;1.3108;
-111.9000;0.7407;1.2988;
-111.6000;0.7416;1.2964;
-111.3000;0.7416;1.3012;
-111.0000;0.7424;1.3060;
-110.7000;0.7456;1.3060;
-110.4000;0.7424;1.2988;
-110.1000;0.7424;1.2964;
-109.8000;0.7448;1.3060;
-109.5000;0.7440;1.3036;
-109.2000;0.7448;1.3084;
-108.9000;0.7432;1.3060;
-108.6000;0.7440;1.3084;
-108.3000;0.7432;1.3084;
-108.0000;0.7497;1.3203;
-107.7000;0.7440;1.3155;
-107.4000;0.7432;1.3179;
-107.1000;0.7448;1.3155;
-106.8000;0.7481;1.3299;
-106.5000;0.7424;1.3108;
-106.2000;0.7367;1.2964;
-105.9000;0.7440;1.3179;
-105.6000;0.7448;1.3155;
-105.3000;0.7432;1.3012;
-105.0000;0.7416;1.3012;
-104.7000;0.7432;1.3060;
-104.4000;0.7432;1.3108;
-104.1000;0.7407;1.3131;
-103.8000;0.7448;1.3323;
-103.5000;0.7448;1.3275;
-103.2000;0.7432;1.3179;
-102.9000;0.7416;1.3131;
-102.6000;0.7367;1.3060;
-102.3000;0.7424;1.3131;
-102.0000;0.7424;1.3084;
-101.7000;0.7424;1.3179;
-101.4000;0.7416;1.3203;
-101.1000;0.7424;1.3131;
-100.8000;0.7440;1.3179;
-100.5000;0.7424;1.3179;
-100.2000;0.7375;1.3036;
-99.9000;0.7456;1.3275;
-99.6000;0.7440;1.3275;
-99.3000;0.7407;1.3251;
-99.0000;0.7456;1.3299;
-98.7000;0.7440;1.3251;
-98.4000;0.7416;1.3203;
-98.1000;0.7432;1.3227;
-97.8000;0.7407;1.3203;
-97.5000;0.7424;1.3323;
-97.2000;0.7448;1.3347;
-96.9000;0.7448;1.3227;
-96.6000;0.7456;1.3203;
-96.3000;0.7416;1.3155;
-96.0000;0.7424;1.3084;
-95.7000;0.7424;1.3012;
-95.4000;0.7391;1.2988;
-95.1000;0.7440;1.3179;
-94.8000;0.7448;1.3227;
-94.5000;0.7432;1.3227;
-94.2000;0.7416;1.3251;
-93.9000;0.7432;1.3227;
-93.6000;0.7424;1.3155;
-93.3000;0.7448;1.3251;
-93.0000;0.7432;1.3347;
-92.7000;0.7407;1.3299;
-92.4000;0.7432;1.3347;
-92.1000;0.7432;1.3323;
-91.8000;0.7416;1.3299;
-91.5000;0.7416;1.3275;
-91.2000;0.7424;1.3227;
-90.9000;0.7424;1.3275;
-90.6000;0.7350;1.3108;
-90.3000;0.7448;1.3395;
-90.0000;0.7440;1.3443;
-89.7000;0.7424;1.3323;
-89.4000;0.7424;1.3371;
-89.1000;0.7440;1.3419;
-88.8000;0.7432;1.3323;
-88.5000;0.7456;1.3395;
-88.2000;0.7407;1.3203;
-87.9000;0.7481;1.3371;
-87.6000;0.7424;1.3179;
-87.3000;0.7432;1.3179;
-87.0000;0.7416;1.3155;
-86.7000;0.7416;1.3036;
-86.4000;0.7407;1.3036;
-86.1000;0.7521;1.3371;
-85.8000;0.7399;1.3179;
-85.5000;0.7416;1.3251;
-85.2000;0.7424;1.3227;
-84.9000;0.7432;1.3227;
-84.6000;0.7456;1.3347;
-84.3000;0.7440;1.3299;
-84.0000;0.7440;1.3347;
-83.7000;0.7416;1.3323;
-83.4000;0.7432;1.3323;
-83.1000;0.7481;1.3371;
-82.8000;0.7513;1.3419;
-82.5000;0.7448;1.3179;
-82.2000;0.7456;1.3060;
-81.9000;0.7432;1.3012;
-81.6000;0.7440;1.3036;
-81.3000;0.7424;1.2964;
-81.0000;0.7416;1.2844;
-80.7000;0.7367;1.2700;
-80.4000;0.7456;1.2964;
-80.1000;0.7424;1.3012;
-79.8000;0.7464;1.3203;
-79.5000;0.7424;1.3179;
-79.2000;0.7424;1.3155;
-78.9000;0.7432;1.3131;
-78.6000;0.7456;1.3203;
-78.3000;0.7440;1.3179;
-78.0000;0.7432;1.3131;
-77.7000;0.7456;1.3108;
-77.4000;0.7448;1.3131;
-77.1000;0.7416;1.3131;
-76.8000;0.7440;1.3155;
-76.5000;0.7440;1.3203;
-76.2000;0.7456;1.3155;
-75.9000;0.7432;1.3012;
-75.6000;0.7448;1.3060;
-75.3000;0.7440;1.3012;
-75.0000;0.7432;1.2988;
-74.7000;0.7456;1.3108;
-74.4000;0.7456;1.3251;
-74.1000;0.7456;1.3179;
-73.8000;0.7432;1.3108;
-73.5000;0.7440;1.3084;
-73.2000;0.7440;1.3131;
-72.9000;0.7440;1.3251;
-72.6000;0.7448;1.3203;
-72.3000;0.7432;1.3155;
-72.0000;0.7424;1.3155;
-71.7000;0.7407;1.3060;
-71.4000;0.7424;1.2988;
-71.1000;0.7424;1.3012;
-70.8000;0.7391;1.3012;
-70.5000;0.7399;1.3036;
-70.2000;0.7416;1.3179;
-69.9000;0.7440;1.3275;
-69.6000;0.7432;1.3203;
-69.3000;0.7416;1.3155;
-69.0000;0.7432;1.3179;
-68.7000;0.7448;1.3131;
-68.4000;0.7440;1.3108;
-68.1000;0.7416;1.3012;
-67.8000;0.7416;1.3036;
-67.5000;0.7383;1.2916;
-67.2000;0.7456;1.3036;
-66.9000;0.7383;1.2820;
-66.6000;0.7473;1.2964;
-66.3000;0.7424;1.2868;
-66.0000;0.7424;1.2868;
-65.7000;0.7326;1.2724;
-65.4000;0.7432;1.2868;
-65.1000;0.7448;1.2916;
-64.8000;0.7407;1.2820;
-64.5000;0.7416;1.2916;
-64.2000;0.7407;1.2988;
-63.9000;0.7424;1.3060;
-63.6000;0.7424;1.3036;
-63.3000;0.7424;1.3012;
-63.0000;0.7407;1.3084;
-62.7000;0.7416;1.3084;
-62.4000;0.7416;1.3012;
-62.1000;0.7432;1.2988;
-61.8000;0.7424;1.2916;
-61.5000;0.7424;1.2892;
-61.2000;0.7432;1.2892;
-60.9000;0.7432;1.2868;
-60.6000;0.7440;1.2940;
-60.3000;0.7432;1.2796;
-60.0000;0.7416;1.2772;
-59.7000;0.7424;1.2748;
-59.4000;0.7432;1.2772;
-59.1000;0.7440;1.2796;
-58.8000;0.7399;1.2772;
-58.5000;0.7424;1.2868;
-58.2000;0.7448;1.2940;
-57.9000;0.7424;1.2916;
-57.6000;0.7424;1.2844;
-57.3000;0.7432;1.2748;
-57.0000;0.7416;1.2844;
-56.7000;0.7448;1.2868;
-56.4000;0.7416;1.2820;
-56.1000;0.7375;1.2700;
-55.8000;0.7432;1.2796;
-55.5000;0.7432;1.2820;
-55.2000;0.7407;1.2820;
-54.9000;0.7416;1.2820;
-54.6000;0.7432;1.2892;
-54.3000;0.7432;1.2892;
-54.0000;0.7464;1.2892;
-53.7000;0.7448;1.2916;
-53.4000;0.7448;1.2844;
-53.1000;0.7440;1.2916;
-52.8000;0.7448;1.2988;
-52.5000;0.7424;1.2940;
-52.2000;0.7448;1.3131;
-51.9000;0.7432;1.3155;
-51.6000;0.7440;1.3179;
-51.3000;0.7481;1.3179;
-51.0000;0.7473;1.3203;
-50.7000;0.7432;1.3084;
-50.4000;0.7497;1.3203;
-50.1000;0.7432;1.2940;
-49.8000;0.7416;1.2916;
-49.5000;0.7456;1.3036;
-49.2000;0.7375;1.2916;
-48.9000;0.7440;1.3131;
-48.6000;0.7448;1.3155;
-48.3000;0.7432;1.3131;
-48.0000;0.7473;1.3251;
-47.7000;0.7440;1.3155;
-47.4000;0.7464;1.3179;
-47.1000;0.7440;1.3155;
-46.8000;0.7448;1.3203;
-46.5000;0.7448;1.3131;
-46.2000;0.7432;1.3108;
-45.9000;0.7424;1.3155;
-45.6000;0.7432;1.3036;
-45.3000;0.7440;1.3060;
-45.0000;0.7432;1.3084;
-44.7000;0.7440;1.3036;
-44.4000;0.7416;1.2988;
-44.1000;0.7424;1.2916;
-43.8000;0.7407;1.2868;
-43.5000;0.7456;1.3060;
-43.2000;0.7432;1.2940;
-42.9000;0.7440;1.2940;
-42.6000;0.7440;1.2892;
-42.3000;0.7440;1.2820;
-42.0000;0.7424;1.2820;
-41.7000;0.7391;1.2748;
-41.4000;0.7407;1.2820;
-41.1000;0.7424;1.2844;
-40.8000;0.7497;1.3012;
-40.5000;0.7424;1.2820;
-40.2000;0.7440;1.2844;
-39.9000;0.7416;1.2772;
-39.6000;0.7424;1.2772;
-39.3000;0.7473;1.2916;
-39.0000;0.7432;1.2892;
-38.7000;0.7399;1.2844;
-38.4000;0.7456;1.3060;
-38.1000;0.7432;1.2988;
-37.8000;0.7440;1.2988;
-37.5000;0.7432;1.3012;
-37.2000;0.7440;1.3060;
-36.9000;0.7432;1.3060;
-36.6000;0.7424;1.3131;
-36.3000;0.7407;1.3179;
-36.0000;0.7416;1.3155;
-35.7000;0.7424;1.3251;
-35.4000;0.7424;1.3227;
-35.1000;0.7432;1.3275;
-34.8000;0.7383;1.3155;
-34.5000;0.7407;1.3155;
-34.2000;0.7456;1.3251;
-33.9000;0.7416;1.3060;
-33.6000;0.7399;1.3012;
-33.3000;0.7424;1.3060;
-33.0000;0.7342;1.2820;
-32.7000;0.7424;1.2988;
-32.4000;0.7416;1.2916;
-32.1000;0.7416;1.2964;
-31.8000;0.7432;1.3012;
-31.5000;0.7432;1.3012;
-31.2000;0.7416;1.2988;
-30.9000;0.7424;1.2988;
-30.6000;0.7440;1.3012;
-30.3000;0.7416;1.2916;
-30.0000;0.7424;1.2844;
-29.7000;0.7432;1.2868;
-29.4000;0.7424;1.2820;
-29.1000;0.7440;1.2916;
-28.8000;0.7432;1.2940;
-28.5000;0.7424;1.2916;
-28.2000;0.7432;1.2964;
-27.9000;0.7440;1.2940;
-27.6000;0.7440;1.2940;
-27.3000;0.7359;1.2844;
-27.0000;0.7424;1.3108;
-26.7000;0.7440;1.3108;
-26.4000;0.7448;1.3084;
-26.1000;0.7424;1.2964;
-25.8000;0.7448;1.3012;
-25.5000;0.7424;1.3060;
-25.2000;0.7424;1.3108;
-24.9000;0.7416;1.3060;
-24.6000;0.7440;1.3108;
-24.3000;0.7432;1.3108;
-24.0000;0.7440;1.3251;
-23.7000;0.7432;1.3131;
-23.4000;0.7440;1.3108;
-23.1000;0.7424;1.2988;
-22.8000;0.7432;1.3108;
-22.5000;0.7448;1.3131;
-22.2000;0.7440;1.3060;
-21.9000;0.7399;1.2988;
-21.6000;0.7416;1.3012;
-21.3000;0.7432;1.3012;
-21.0000;0.7416;1.3036;
-20.7000;0.7399;1.3012;
-20.4000;0.7407;1.3012;
-20.1000;0.7407;1.2940;
-19.8000;0.7407;1.2964;
-19.5000;0.7359;1.2892;
-19.2000;0.7416;1.3012;
-18.9000;0.7424;1.3060;
-18.6000;0.7399;1.3036;
-18.3000;0.7432;1.3108;
-18.0000;0.7424;1.3060;
-17.7000;0.7424;1.3060;
-17.4000;0.7416;1.3012;
-17.1000;0.7416;1.3060;
-16.8000;0.7416;1.3084;
-16.5000;0.7424;1.3155;
-16.2000;0.7424;1.3155;
-15.9000;0.7416;1.3155;
-15.6000;0.7432;1.3155;
-15.3000;0.7424;1.3155;
-15.0000;0.7432;1.3203;
-14.7000;0.7448;1.3203;
-14.4000;0.7440;1.3179;
-14.1000;0.7432;1.3251;
-13.8000;0.7440;1.3275;
-13.5000;0.7432;1.3179;
-13.2000;0.7432;1.3084;
-12.9000;0.7440;1.3155;
-12.6000;0.7440;1.3108;
-12.3000;0.7367;1.2964;
-12.0000;0.7448;1.3131;
-11.7000;0.7530;1.3299;
-11.4000;0.7448;1.3108;
-11.1000;0.7407;1.3012;
-10.8000;0.7424;1.3012;
-10.5000;0.7399;1.2964;
-10.2000;0.7424;1.3108;
-9.9000;0.7399;1.3012;
-9.6000;0.7416;1.3036;
-9.3000;0.7432;1.3108;
-9.0000;0.7424;1.3131;
-8.7000;0.7416;1.3155;
-8.4000;0.7416;1.3131;
-8.1000;0.7432;1.3227;
-7.8000;0.7416;1.3155;
-7.5000;0.7448;1.3275;
-7.2000;0.7407;1.3179;
-6.9000;0.7432;1.3155;
-6.6000;0.7416;1.3060;
-6.3000;0.7416;1.3108;
-6.0000;0.7440;1.3131;
-5.7000;0.7399;1.3036;
-5.4000;0.7399;1.3060;
-5.1000;0.7424;1.3131;
-4.8000;0.7432;1.3179;
-4.5000;0.7424;1.3179;
-4.2000;0.7424;1.3155;
-3.9000;0.7456;1.3227;
-3.6000;0.7432;1.3179;
-3.3000;0.7456;1.3251;
-3.0000;0.7432;1.3203;
-2.7000;0.7440;1.3203;
-2.4000;0.7448;1.3155;
-2.1000;0.7424;1.3155;
-1.8000;0.7440;1.3155;
-1.5000;0.7424;1.3155;
-1.2000;0.7440;1.3155;
-0.9000;0.7440;1.3155;
-0.6000;0.7424;1.3155;
-0.3000;0.7424;1.3155;
0.0000;0.7424;1.3155;
0.3000;0.7709;1.3395;
0.6000;0.8319;1.3898;
0.9000;0.8807;1.4401;
1.2000;0.9198;1.4905;
1.5000;0.9508;1.5264;
1.8000;0.9744;1.5456;
2.1000;0.9955;1.5815;
2.4000;1.0134;1.6175;
2.7000;1.0224;1.6318;
3.0000;1.0346;1.6462;
3.3000;1.0411;1.6534;
3.6000;1.0492;1.6582;
3.9000;1.0582;1.6822;
4.2000;1.0623;1.6918;
4.5000;1.0696;1.6942;
4.8000;1.0761;1.6989;
5.1000;1.0810;1.6942;
5.4000;1.0875;1.6942;
5.7000;1.0932;1.6989;
6.0000;1.0973;1.7085;
6.3000;1.1005;1.7037;
6.6000;1.1054;1.7109;
6.9000;1.1111;1.7085;
7.2000;1.1176;1.7085;
7.5000;1.1201;1.7085;
7.8000;1.1217;1.6942;
8.1000;1.1290;1.7013;
8.4000;1.1339;1.7013;
8.7000;1.1372;1.6918;
9.0000;1.1429;1.6989;
9.3000;1.1469;1.7037;
9.6000;1.1502;1.7037;
9.9000;1.1600;1.7181;
10.2000;1.1583;1.6965;
10.5000;1.1624;1.6989;
10.8000;1.1730;1.7181;
11.1000;1.1681;1.7037;
11.4000;1.1673;1.6965;
11.7000;1.1803;1.7157;
12.0000;1.1730;1.6798;
12.3000;1.1852;1.7061;
12.6000;1.1844;1.6942;
12.9000;1.1893;1.6989;
13.2000;1.1868;1.6870;
13.5000;1.1941;1.7133;
13.8000;1.1966;1.7109;
14.1000;1.2039;1.7157;
14.4000;1.2031;1.7085;
14.7000;1.2039;1.6989;
15.0000;1.2088;1.7109;
15.3000;1.2120;1.7133;
15.6000;1.2137;1.7109;
15.9000;1.2120;1.7037;
16.2000;1.2177;1.7157;
16.5000;1.2202;1.7181;
16.8000;1.2251;1.7229;
17.1000;1.2267;1.7157;
17.4000;1.2291;1.7181;
17.7000;1.2300;1.7277;
18.0000;1.2332;1.7397;
18.3000;1.2340;1.7229;
18.6000;1.2365;1.7133;
18.9000;1.2397;1.7229;
19.2000;1.2414;1.7205;
19.5000;1.2430;1.7109;
19.8000;1.2454;1.7109;
20.1000;1.2422;1.7061;
20.4000;1.2487;1.7037;
20.7000;1.2503;1.7061;
21.0000;1.2544;1.7037;
21.3000;1.2527;1.6894;
21.6000;1.2544;1.6870;
21.9000;1.2552;1.6870;
22.2000;1.2560;1.6798;
22.5000;1.2609;1.6798;
22.8000;1.2601;1.6846;
23.1000;1.2633;1.6846;
23.4000;1.2650;1.6798;
23.7000;1.2658;1.6822;
24.0000;1.2658;1.6918;
24.3000;1.2690;1.6918;
24.6000;1.2682;1.6870;
24.9000;1.2698;1.6894;
25.2000;1.2715;1.6894;
25.5000;1.2723;1.6942;
25.8000;1.2698;1.6846;
26.1000;1.2764;1.7013;
26.4000;1.2796;1.7157;
26.7000;1.2780;1.7109;
27.0000;1.2796;1.7133;
27.3000;1.2812;1.7157;
27.6000;1.2682;1.6774;
27.9000;1.2804;1.7037;
28.2000;1.2812;1.6918;
28.5000;1.2845;1.6989;
28.8000;1.2845;1.6918;
29.1000;1.2845;1.6846;
29.4000;1.2853;1.6870;
29.7000;1.2821;1.6654;
30.0000;1.2861;1.6846;
30.3000;1.2837;1.6822;
30.6000;1.2853;1.6822;
30.9000;1.2894;1.6918;
31.2000;1.2910;1.6846;
31.5000;1.2886;1.6822;
31.8000;1.2910;1.6798;
32.1000;1.2910;1.6774;
32.4000;1.2934;1.6750;
32.7000;1.2877;1.6654;
33.0000;1.2910;1.6798;
33.3000;1.2951;1.6989;
33.6000;1.2951;1.7037;
33.9000;1.2959;1.7061;
34.2000;1.2967;1.7037;
34.5000;1.2975;1.7061;
34.8000;1.2951;1.7085;
35.1000;1.2967;1.7085;
35.4000;1.2975;1.7037;
35.7000;1.3000;1.6965;
36.0000;1.2951;1.6894;
36.3000;1.2959;1.6894;
36.6000;1.2967;1.6942;
36.9000;1.2991;1.6989;
37.2000;1.3040;1.7061;
37.5000;1.3008;1.7061;
37.8000;1.3016;1.7109;
38.1000;1.3040;1.7061;
38.4000;1.3032;1.6989;
38.7000;1.3032;1.6918;
39.0000;1.3000;1.6870;
39.3000;1.3040;1.6965;
39.6000;1.3065;1.6942;
39.9000;1.3057;1.7037;
40.2000;1.3040;1.7061;
40.5000;1.3065;1.7061;
40.8000;1.3073;1.7013;
41.1000;1.3089;1.6942;
41.4000;1.3081;1.6918;
41.7000;1.3073;1.6822;
42.0000;1.3097;1.6870;
42.3000;1.3097;1.6798;
42.6000;1.3105;1.6726;
42.9000;1.3089;1.6678;
43.2000;1.3089;1.6726;
43.5000;1.3114;1.6870;
43.8000;1.3105;1.6870;
44.1000;1.3081;1.6918;
44.4000;1.3097;1.6894;
44.7000;1.3114;1.6894;
45.0000;1.3122;1.6822;
45.3000;1.3114;1.6750;
45.6000;1.3114;1.6750;
45.9000;1.3114;1.6702;
46.2000;1.3130;1.6678;
46.5000;1.3130;1.6654;
46.8000;1.3138;1.6654;
47.1000;1.3138;1.6726;
47.4000;1.3130;1.6774;
47.7000;1.3154;1.6750;
48.0000;1.3162;1.6846;
48.3000;1.3146;1.6894;
48.6000;1.3154;1.6965;
48.9000;1.3146;1.7037;
49.2000;1.3154;1.7085;
49.5000;1.3154;1.7085;
49.8000;1.3138;1.7061;
50.1000;1.3122;1.7013;
50.4000;1.3138;1.7037;
50.7000;1.3179;1.7085;
51.0000;1.3171;1.7085;
51.3000;1.3130;1.7037;
51.6000;1.3171;1.7085;
51.9000;1.3179;1.6918;
52.2000;1.3130;1.6750;
52.5000;1.3179;1.6870;
52.8000;1.3195;1.6870;
53.1000;1.3195;1.6750;
53.4000;1.3203;1.6726;
53.7000;1.3260;1.6822;
54.0000;1.3211;1.6702;
54.3000;1.3211;1.6750;
54.6000;1.3228;1.6798;
54.9000;1.3203;1.6630;
55.2000;1.3195;1.6678;
55.5000;1.3203;1.6726;
55.8000;1.3203;1.6702;
56.1000;1.3268;1.6870;
56.4000;1.3195;1.6702;
56.7000;1.3203;1.6654;
57.0000;1.3203;1.6678;
57.3000;1.3211;1.6678;
57.6000;1.3211;1.6654;
57.9000;1.3219;1.6702;
58.2000;1.3211;1.6774;
58.5000;1.3211;1.6774;
58.8000;1.3219;1.6822;
59.1000;1.3187;1.6822;
59.4000;1.3195;1.6798;
59.7000;1.3203;1.6822;
60.0000;1.3211;1.6846;
60.3000;1.3228;1.6774;
60.6000;1.3211;1.6678;
60.9000;1.3219;1.6630;
61.2000;1.3211;1.6630;
61.5000;1.3219;1.6606;
61.8000;1.3203;1.6654;
62.1000;1.3211;1.6630;
62.4000;1.3228;1.6606;
62.7000;1.3187;1.6510;
63.0000;1.3228;1.6606;
63.3000;1.3236;1.6678;
63.6000;1.3268;1.6750;
63.9000;1.3268;1.6678;
64.2000;1.3219;1.6582;
64.5000;1.3228;1.6630;
64.8000;1.3244;1.6630;
65.1000;1.3260;1.6678;
65.4000;1.3268;1.6678;
65.7000;1.3268;1.6606;
66.0000;1.3236;1.6510;
66.3000;1.3244;1.6582;
66.6000;1.3358;1.6774;
66.9000;1.3260;1.6534;
67.2000;1.3244;1.6366;
67.5000;1.3276;1.6414;
67.8000;1.3276;1.6342;
68.1000;1.3260;1.6295;
68.4000;1.3260;1.6318;
68.7000;1.3276;1.6390;
69.0000;1.3260;1.6462;
69.3000;1.3244;1.6462;
69.6000;1.3252;1.6510;
69.9000;1.3268;1.6558;
70.2000;1.3268;1.6582;
70.5000;1.3260;1.6582;
70.8000;1.3228;1.6486;
71.1000;1.3252;1.6510;
71.4000;1.3260;1.6534;
71.7000;1.3244;1.6438;
72.0000;1.3268;1.6486;
72.3000;1.3268;1.6582;
72.6000;1.3276;1.6558;
72.9000;1.3276;1.6534;
73.2000;1.3276;1.6558;
73.5000;1.3276;1.6606;
73.8000;1.3293;1.6630;
74.1000;1.3301;1.6654;
74.4000;1.3244;1.6510;
74.7000;1.3301;1.6606;
75.0000;1.3284;1.6534;
75.3000;1.3301;1.6510;
75.6000;1.3276;1.6510;
75.9000;1.3284;1.6510;
76.2000;1.3293;1.6510;
76.5000;1.3268;1.6534;
76.8000;1.3276;1.6630;
77.1000;1.3301;1.6654;
77.4000;1.3268;1.6654;
77.7000;1.3293;1.6774;
78.0000;1.3293;1.6822;
78.3000;1.3293;1.6798;
78.6000;1.3301;1.6798;
78.9000;1.3301;1.6894;
79.2000;1.3301;1.6894;
79.5000;1.3301;1.6846;
79.8000;1.3228;1.6534;
80.1000;1.3284;1.6678;
80.4000;1.3293;1.6630;
80.7000;1.3301;1.6654;
81.0000;1.3284;1.6678;
81.3000;1.3284;1.6630;
81.6000;1.3309;1.6702;
81.9000;1.3276;1.6678;
82.2000;1.3276;1.6702;
82.5000;1.3284;1.6702;
82.8000;1.3284;1.6654;
83.1000;1.3317;1.6702;
83.4000;1.3309;1.6726;
83.7000;1.3284;1.6750;
84.0000;1.3260;1.6654;
84.3000;1.3317;1.6702;
84.6000;1.3301;1.6678;
84.9000;1.3309;1.6678;
85.2000;1.3301;1.6606;
85.5000;1.3341;1.6678;
85.8000;1.3317;1.6534;
86.1000;1.3268;1.6366;
86.4000;1.3309;1.6558;
86.7000;1.3301;1.6606;
87.0000;1.3325;1.6606;
87.3000;1.3309;1.6606;
87.6000;1.3366;1.6654;
87.9000;1.3317;1.6558;
88.2000;1.3325;1.6582;
88.5000;1.3293;1.6510;
88.8000;1.3325;1.6654;
89.1000;1.3301;1.6606;
89.4000;1.3309;1.6654;
89.7000;1.3431;1.6918;
90.0000;1.3317;1.6678;
90.3000;1.3317;1.6654;
90.6000;1.3341;1.6750;
90.9000;1.3333;1.6654;
91.2000;1.3301;1.6606;
91.5000;1.3317;1.6630;
91.8000;1.3333;1.6630;
92.1000;1.3333;1.6582;
92.4000;1.3317;1.6534;
92.7000;1.3398;1.6702;
93.0000;1.3325;1.6558;
93.3000;1.3341;1.6558;
93.6000;1.3325;1.6510;
93.9000;1.3333;1.6558;
94.2000;1.3333;1.6582;
94.5000;1.3325;1.6534;
94.8000;1.3333;1.6630;
95.1000;1.3317;1.6534;
95.4000;1.3325;1.6582;
95.7000;1.3317;1.6630;
96.0000;1.3309;1.6630;
96.3000;1.3301;1.6606;
96.6000;1.3317;1.6582;
96.9000;1.3341;1.6582;
97.2000;1.3284;1.6390;
97.5000;1.3268;1.6318;
97.8000;1.3317;1.6390;
98.1000;1.3341;1.6342;
98.4000;1.3350;1.6295;
98.7000;1.3333;1.6247;
99.0000;1.3358;1.6342;
99.3000;1.3358;1.6414;
99.6000;1.3358;1.6414;
99.9000;1.3350;1.6462;
100.2000;1.3341;1.6462;
100.5000;1.3333;1.6558;
100.8000;1.3341;1.6606;
101.1000;1.3317;1.6606;
101.4000;1.3333;1.6606;
101.7000;1.3333;1.6558;
102.0000;1.3333;1.6654;
102.3000;1.3317;1.6582;
102.6000;1.3325;1.6534;
102.9000;1.3325;1.6558;
103.2000;1.3350;1.6606;
103.5000;1.3341;1.6534;
103.8000;1.3341;1.6486;
104.1000;1.3341;1.6534;
104.4000;1.3341;1.6558;
104.7000;1.3341;1.6630;
105.0000;1.3350;1.6606;
105.3000;1.3350;1.6558;
105.6000;1.3350;1.6606;
105.9000;1.3341;1.6654;
106.2000;1.3333;1.6654;
106.5000;1.3317;1.6558;
106.8000;1.3325;1.6582;
107.1000;1.3325;1.6558;
107.4000;1.3333;1.6606;
107.7000;1.3333;1.6606;
108.0000;1.3341;1.6630;
108.3000;1.3341;1.6534;
108.6000;1.3341;1.6606;
108.9000;1.3350;1.6534;
109.2000;1.3333;1.6486;
109.5000;1.3358;1.6630;
109.8000;1.3358;1.6630;
110.1000;1.3341;1.6558;
110.4000;1.3350;1.6654;
110.7000;1.3350;1.6630;
111.0000;1.3341;1.6582;
111.3000;1.3350;1.6582;
111.6000;1.3341;1.6630;
111.9000;1.3358;1.6582;
112.2000;1.3374;1.6702;
112.5000;1.3358;1.6654;
112.8000;1.3358;1.6558;
113.1000;1.3350;1.6462;
113.4000;1.3374;1.6558;
113.7000;1.3374;1.6510;
114.0000;1.3374;1.6558;
114.3000;1.3366;1.6534;
114.6000;1.3366;1.6558;
114.9000;1.3382;1.6582;
115.2000;1.3374;1.6582;
115.5000;1.3341;1.6462;
115.8000;1.3350;1.6534;
116.1000;1.3382;1.6678;
116.4000;1.3350;1.6534;
116.7000;1.3366;1.6582;
117.0000;1.3333;1.6486;
117.3000;1.3366;1.6462;
117.6000;1.3341;1.6534;
117.9000;1.3358;1.6606;
118.2000;1.3398;1.6702;
118.5000;1.3407;1.6702;
118.8000;1.3366;1.6582;
119.1000;1.3366;1.6582;
119.4000;1.3350;1.6558;
119.7000;1.3358;1.6582;
120.0000;1.3350;1.6654;
120.3000;1.3350;1.6654;
120.6000;1.3325;1.6702;
120.9000;1.3341;1.6678;
121.2000;1.3358;1.6630;
121.5000;1.3350;1.6534;
121.8000;1.3374;1.6534;
122.1000;1.3358;1.6510;
122.4000;1.3358;1.6390;
122.7000;1.3366;1.6462;
123.0000;1.3398;1.6462;
123.3000;1.3366;1.6510;
123.6000;1.3431;1.6678;
123.9000;1.3374;1.6606;
124.2000;1.3366;1.6630;
124.5000;1.3358;1.6582;
124.8000;1.3382;1.6582;
125.1000;1.3382;1.6558;
125.4000;1.3350;1.6510;
125.7000;1.3366;1.6486;
126.0000;1.3358;1.6390;
126.3000;1.3350;1.6414;
126.6000;1.3325;1.6318;
126.9000;1.3366;1.6558;
127.2000;1.3439;1.6774;
127.5000;1.3358;1.6606;
127.8000;1.3350;1.6582;
128.1000;1.3350;1.6678;
128.4000;1.3350;1.6630;
128.7000;1.3366;1.6630;
129.0000;1.3366;1.6726;
129.3000;1.3358;1.6654;
129.6000;1.3358;1.6678;
129.9000;1.3382;1.6774;
130.2000;1.3390;1.6726;
130.5000;1.3382;1.6606;
130.8000;1.3374;1.6558;
131.1000;1.3366;1.6510;
131.4000;1.3382;1.6558;
131.7000;1.3374;1.6534;
132.0000;1.3382;1.6558;
132.3000;1.3358;1.6438;
132.6000;1.3366;1.6486;
132.9000;1.3374;1.6510;
133.2000;1.3358;1.6462;
133.5000;1.3341;1.6390;
133.8000;1.3366;1.6390;
134.1000;1.3374;1.6462;
134.4000;1.3366;1.6510;
134.7000;1.3382;1.6582;
135.0000;1.3382;1.6558;
135.3000;1.3415;1.6534;
135.6000;1.3341;1.6438;
135.9000;1.3366;1.6486;
136.2000;1.3366;1.6510;
136.5000;1.3350;1.6582;
136.8000;1.3358;1.6534;
137.1000;1.3358;1.6534;
137.4000;1.3390;1.6582;
137.7000;1.3350;1.6462;
138.0000;1.3325;1.6366;
138.3000;1.3374;1.6438;
138.6000;1.3374;1.6318;
138.9000;1.3382;1.6390;
139.2000;1.3407;1.6486;
139.5000;1.3366;1.6438;
139.8000;1.3358;1.6534;
140.1000;1.3382;1.6630;
140.4000;1.3374;1.6630;
140.7000;1.3374;1.6678;
141.0000;1.3358;1.6606;
141.3000;1.3350;1.6630;
141.6000;1.3358;1.6678;
141.9000;1.3398;1.6750;
142.2000;1.3366;1.6630;
142.5000;1.3447;1.6774;
142.8000;1.3382;1.6654;
143.1000;1.3382;1.6678;
143.4000;1.3301;1.6534;
143.7000;1.3358;1.6510;
144.0000;1.3358;1.6462;
144.3000;1.3431;1.6534;
144.6000;1.3366;1.6462;
144.9000;1.3374;1.6510;
145.2000;1.3333;1.6486;
145.5000;1.3398;1.6462;
145.8000;1.3382;1.6390;
146.1000;1.3464;1.6606;
146.4000;1.3390;1.6438;
146.7000;1.3333;1.6390;
147.0000;1.3382;1.6534;
147.3000;1.3374;1.6486;
147.6000;1.3366;1.6486;
147.9000;1.3374;1.6462;
148.2000;1.3358;1.6414;
148.5000;1.3366;1.6510;
148.8000;1.3350;1.6534;
149.1000;1.3366;1.6606;
149.4000;1.3390;1.6750;
149.7000;1.3350;1.6702;
150.0000;1.3366;1.6774;
150.3000;1.3382;1.6726;
150.6000;1.3382;1.6678;
150.9000;1.3382;1.6654;
151.2000;1.3374;1.6414;
151.5000;1.3374;1.6342;
151.8000;1.3407;1.6486;
152.1000;1.3407;1.6414;
152.4000;1.3398;1.6438;
152.7000;1.3398;1.6414;
153.0000;1.3464;1.6678;
153.3000;1.3366;1.6462;
153.6000;1.3374;1.6510;
153.9000;1.3366;1.6462;
154.2000;1.3382;1.6486;
154.5000;1.3415;1.6534;
154.8000;1.3382;1.6510;
155.1000;1.3374;1.6438;
155.4000;1.3407;1.6462;
155.7000;1.3398;1.6462;
156.0000;1.3382;1.6462;
156.3000;1.3398;1.6462;
156.6000;1.3407;1.6390;
156.9000;1.3382;1.6342;
157.2000;1.3374;1.6366;
157.5000;1.3382;1.6438;
157.8000;1.3390;1.6462;
158.1000;1.3390;1.6486;
158.4000;1.3374;1.6486;
158.7000;1.3374;1.6462;
159.0000;1.3366;1.6414;
159.3000;1.3366;1.6390;
159.6000;1.3431;1.6582;
159.9000;1.3390;1.6510;
160.2000;1.3374;1.6558;
160.5000;1.3366;1.6486;
160.8000;1.3382;1.6534;
161.1000;1.3374;1.6534;
161.4000;1.3382;1.6582;
161.7000;1.3407;1.6606;
162.0000;1.3382;1.6558;
162.3000;1.3398;1.6510;
162.6000;1.3407;1.6510;
162.9000;1.3382;1.6462;
163.2000;1.3407;1.6582;
163.5000;1.3358;1.6486;
163.8000;1.3390;1.6486;
164.1000;1.3374;1.6486;
164.4000;1.3390;1.6558;
164.7000;1.3358;1.6486;
165.0000;1.3390;1.6414;
165.3000;1.3407;1.6510;
165.6000;1.3407;1.6510;
165.9000;1.3390;1.6414;
166.2000;1.3423;1.6414;
166.5000;1.3407;1.6414;
166.8000;1.3390;1.6414;
167.1000;1.3358;1.6223;
167.4000;1.3382;1.6295;
167.7000;1.3390;1.6318;
168.0000;1.3382;1.6295;
168.3000;1.3333;1.6151;
168.6000;1.3390;1.6342;
168.9000;1.3390;1.6295;
169.2000;1.3398;1.6342;
169.5000;1.3390;1.6342;
169.8000;1.3341;1.6199;
170.1000;1.3382;1.6223;
170.4000;1.3407;1.6247;
170.7000;1.3374;1.6199;
171.0000;1.3374;1.6175;
171.3000;1.3390;1.6151;
171.6000;1.3366;1.6175;
171.9000;1.3366;1.6151;
172.2000;1.3390;1.6199;
172.5000;1.3398;1.6151;
172.8000;1.3358;1.6055;
173.1000;1.3366;1.6055;
173.4000;1.3390;1.6079;
173.7000;1.3447;1.6271;
174.0000;1.3447;1.6271;
174.3000;1.3398;1.6079;
174.6000;1.3374;1.6007;
174.9000;1.3366;1.6031;
175.2000;1.3374;1.6127;
175.5000;1.3390;1.6127;
175.8000;1.3390;1.6151;
176.1000;1.3398;1.6175;
176.4000;1.3374;1.6175;
176.7000;1.3366;1.6103;
177.0000;1.3382;1.6103;
177.3000;1.3390;1.6103;
177.6000;1.3374;1.6151;
177.9000;1.3390;1.6223;
178.2000;1.3374;1.6223;
178.5000;1.3390;1.6366;
178.8000;1.3407;1.6414;
179.1000;1.3390;1.6462;
179.4000;1.3382;1.6390;
179.7000;1.3407;1.6462;
180.0000;1.3398;1.6366;
180.3000;1.3407;1.6486;
180.6000;1.3390;1.6510;
180.9000;1.3415;1.6558;
181.2000;1.3382;1.6438;
181.5000;1.3374;1.6366;
181.8000;1.3398;1.6414;
182.1000;1.3382;1.6462;
182.4000;1.3398;1.6486;
182.7000;1.3415;1.6510;
183.0000;1.3366;1.6390;
183.3000;1.3358;1.6414;
183.6000;1.3382;1.6438;
183.9000;1.3407;1.6438;
184.2000;1.3398;1.6366;
184.5000;1.3374;1.6295;
184.8000;1.3390;1.6318;
185.1000;1.3407;1.6342;
185.4000;1.3382;1.6342;
185.7000;1.3472;1.6510;
186.0000;1.3415;1.6318;
186.3000;1.3407;1.6462;
186.6000;1.3374;1.6462;
186.9000;1.3407;1.6534;
187.2000;1.3390;1.6510;
187.5000;1.3398;1.6414;
187.8000;1.3415;1.6462;
188.1000;1.3382;1.6390;
188.4000;1.3398;1.6414;
188.7000;1.3390;1.6390;
189.0000;1.3398;1.6414;
189.3000;1.3447;1.6486;
189.6000;1.3398;1.6390;
189.9000;1.3398;1.6414;
190.2000;1.3415;1.6462;
190.5000;1.3398;1.6486;
190.8000;1.3398;1.6438;
191.1000;1.3398;1.6414;
191.4000;1.3407;1.6510;
191.7000;1.3447;1.6630;
192.0000;1.3407;1.6462;
192.3000;1.3407;1.6414;
192.6000;1.3407;1.6366;
192.9000;1.3398;1.6295;
193.2000;1.3398;1.6271;
193.5000;1.3374;1.6295;
193.8000;1.3398;1.6199;
194.1000;1.3390;1.6223;
194.4000;1.3398;1.6247;
194.7000;1.3390;1.6247;
195.0000;1.3382;1.6151;
195.3000;1.3382;1.6127;
195.6000;1.3390;1.6127;
195.9000;1.3390;1.6151;
196.2000;1.3407;1.6175;
196.5000;1.3398;1.6247;
196.8000;1.3407;1.6247;
197.1000;1.3398;1.6223;
197.4000;1.3382;1.6199;
197.7000;1.3382;1.6175;
198.0000;1.3398;1.6271;
198.3000;1.3374;1.6199;
198.6000;1.3398;1.6271;
198.9000;1.3398;1.6295;
199.2000;1.3382;1.6295;
199.5000;1.3382;1.6223;
199.8000;1.3398;1.6223;
200.1000;1.3390;1.6318;
200.4000;1.3431;1.6414;
200.7000;1.3374;1.6295;
201.0000;1.3382;1.6295;
201.3000;1.3366;1.6271;
201.6000;1.3415;1.6414;
201.9000;1.3390;1.6342;
202.2000;1.3382;1.6342;
202.5000;1.3423;1.6318;
202.8000;1.3390;1.6151;
203.1000;1.3390;1.6103;
203.4000;1.3358;1.6055;
203.7000;1.3398;1.6175;
204.0000;1.3407;1.6271;
204.3000;1.3398;1.6151;
204.6000;1.3390;1.6103;
204.9000;1.3398;1.6151;
205.2000;1.3439;1.6271;
205.5000;1.3398;1.6271;
205.8000;1.3423;1.6318;
206.1000;1.3398;1.6295;
206.4000;1.3398;1.6318;
206.7000;1.3431;1.6342;
207.0000;1.3407;1.6199;
207.3000;1.3407;1.6151;
207.6000;1.3407;1.6175;
207.9000;1.3407;1.6223;
208.2000;1.3390;1.6127;
208.5000;1.3382;1.6175;
208.8000;1.3366;1.6175;
209.1000;1.3390;1.6247;
209.4000;1.3382;1.6175;
209.7000;1.3382;1.6175;
210.0000;1.3366;1.6223;
210.3000;1.3390;1.6342;
210.6000;1.3398;1.6318;
210.9000;1.3382;1.6247;
211.2000;1.3382;1.6199;
211.5000;1.3496;1.6462;
211.8000;1.3390;1.6175;
212.1000;1.3407;1.6175;
212.4000;1.3447;1.6390;
212.7000;1.3398;1.6342;
213.0000;1.3390;1.6342;
213.3000;1.3382;1.6223;
213.6000;1.3390;1.6103;
213.9000;1.3374;1.6103;
214.2000;1.3407;1.6199;
214.5000;1.3407;1.6199;
214.8000;1.3374;1.6175;
215.1000;1.3407;1.6247;
215.4000;1.3447;1.6318;
215.7000;1.3333;1.6007;
216.0000;1.3398;1.6199;
216.3000;1.3398;1.6223;
216.6000;1.3390;1.6223;
216.9000;1.3407;1.6271;
217.2000;1.3398;1.6295;
217.5000;1.3398;1.6318;
217.8000;1.3496;1.6654;
218.1000;1.3407;1.6534;
218.4000;1.3398;1.6558;
218.7000;1.3488;1.6774;
219.0000;1.3398;1.6534;
219.3000;1.3390;1.6414;
219.6000;1.3374;1.6342;
219.9000;1.3382;1.6247;
220.2000;1.3374;1.6175;
220.5000;1.3374;1.6127;
220.8000;1.3374;1.6079;
221.1000;1.3398;1.6103;
221.4000;1.3407;1.6103;
221.7000;1.3415;1.6175;
222.0000;1.3398;1.6127;
222.3000;1.3382;1.6079;
222.6000;1.3382;1.6127;
222.9000;1.3455;1.6247;
223.2000;1.3398;1.6103;
223.5000;1.3382;1.6151;
223.8000;1.3390;1.6175;
224.1000;1.3382;1.6199;
224.4000;1.3398;1.6151;
224.7000;1.3407;1.6175;
225.0000;1.3407;1.6175;
225.3000;1.3398;1.6127;
225.6000;1.3407;1.6175;
225.9000;1.3398;1.6055;
226.2000;1.3374;1.6055;
226.5000;1.3382;1.5983;
226.8000;1.3382;1.6031;
227.1000;1.3374;1.6055;
227.4000;1.3431;1.6175;
227.7000;1.3398;1.6127;
228.0000;1.3374;1.6055;
228.3000;1.3407;1.6199;
228.6000;1.3398;1.6175;
228.9000;1.3390;1.6199;
229.2000;1.3398;1.6295;
229.5000;1.3374;1.6199;
229.8000;1.3439;1.6247;
230.1000;1.3398;1.6199;
230.4000;1.3382;1.6175;
230.7000;1.3439;1.6271;
231.0000;1.3358;1.6079;
231.3000;1.3382;1.6223;
231.6000;1.3317;1.6079;
231.9000;1.3431;1.6342;
232.2000;1.3488;1.6438;
232.5000;1.3382;1.6295;
232.8000;1.3382;1.6342;
233.1000;1.3407;1.6390;
233.4000;1.3390;1.6438;
233.7000;1.3374;1.6366;
234.0000;1.3374;1.6390;
234.3000;1.3374;1.6438;
234.6000;1.3398;1.6414;
234.9000;1.3398;1.6438;
235.2000;1.3398;1.6414;
235.5000;1.3333;1.6295;
235.8000;1.3439;1.6510;
236.1000;1.3382;1.6414;
236.4000;1.3382;1.6462;
236.7000;1.3407;1.6582;
237.0000;1.3407;1.6582;
237.3000;1.3374;1.6414;
237.6000;1.3390;1.6390;
237.9000;1.3390;1.6366;
238.2000;1.3407;1.6414;
238.5000;1.3407;1.6438;
238.8000;1.3366;1.6342;
239.1000;1.3423;1.6414;
239.4000;1.3415;1.6318;
239.7000;1.3415;1.6366;
240.0000;1.3382;1.6438;
240.3000;1.3333;1.6318;
240.6000;1.3341;1.6366;
240.9000;1.3407;1.6582;
241.2000;1.3398;1.6678;
241.5000;1.3407;1.6726;
241.8000;1.3293;1.6462;
242.1000;1.3390;1.6486;
242.4000;1.3382;1.6486;
242.7000;1.3398;1.6534;
243.0000;1.3366;1.6414;
243.3000;1.3398;1.6486;
243.6000;1.3398;1.6438;
243.9000;1.3390;1.6390;
244.2000;1.3415;1.6462;
244.5000;1.3407;1.6462;
244.8000;1.3398;1.6510;
245.1000;1.3382;1.6534;
245.4000;1.3374;1.6438;
245.7000;1.3382;1.6438;
246.0000;1.3398;1.6534;
246.3000;1.3407;1.6558;
246.6000;1.3382;1.6462;
246.9000;1.3407;1.6510;
247.2000;1.3415;1.6510;
247.5000;1.3407;1.6462;
247.8000;1.3431;1.6558;
248.1000;1.3382;1.6390;
248.4000;1.3398;1.6414;
248.7000;1.3390;1.6390;
249.0000;1.3398;1.6414;
249.3000;1.3407;1.6438;
249.6000;1.3398;1.6462;
249.9000;1.3423;1.6462;
250.2000;1.3398;1.6438;
250.5000;1.3382;1.6462;
250.8000;1.3341;1.6438;
251.1000;1.3439;1.6630;
251.4000;1.3350;1.6366;
251.7000;1.3390;1.6534;
252.0000;1.3333;1.6366;
252.3000;1.3382;1.6414;
252.6000;1.3341;1.6247;
252.9000;1.3366;1.6366;
253.2000;1.3390;1.6390;
253.5000;1.3431;1.6462;
253.8000;1.3398;1.6462;
254.1000;1.3407;1.6438;
254.4000;1.3374;1.6342;
254.7000;1.3423;1.6462;
255.0000;1.3390;1.6342;
255.3000;1.3398;1.6366;
255.6000;1.3366;1.6342;
255.9000;1.3301;1.6103;
256.2000;1.3358;1.6247;
256.5000;1.3382;1.6223;
256.8000;1.3374;1.6199;
257.1000;1.3366;1.6199;
257.4000;1.3398;1.6318;
257.7000;1.3366;1.6247;
258.0000;1.3358;1.6223;
258.3000;1.3382;1.6295;
258.6000;1.3390;1.6342;
258.9000;1.3398;1.6247;
259.2000;1.3350;1.6127;
259.5000;1.3431;1.6414;
259.8000;1.3415;1.6462;
260.1000;1.3398;1.6414;
260.4000;1.3439;1.6486;
260.7000;1.3398;1.6414;
261.0000;1.3398;1.6318;
261.3000;1.3398;1.6295;
261.6000;1.3407;1.6318;
261.9000;1.3415;1.6390;
262.2000;1.3415;1.6366;
262.5000;1.3390;1.6247;
262.8000;1.3423;1.6318;
263.1000;1.3415;1.6223;
263.4000;1.3407;1.6295;
263.7000;1.3398;1.6295;
264.0000;1.3398;1.6247;
264.3000;1.3390;1.6175;
264.6000;1.3423;1.6223;
264.9000;1.3366;1.6151;
265.2000;1.3398;1.6271;
265.5000;1.3407;1.6318;
265.8000;1.3398;1.6414;
266.1000;1.3407;1.6462;
266.4000;1.3407;1.6438;
266.7000;1.3382;1.6390;
267.0000;1.3382;1.6462;
267.3000;1.3407;1.6438;
267.6000;1.3415;1.6462;
267.9000;1.3407;1.6486;
268.2000;1.3398;1.6486;
268.5000;1.3398;1.6534;
268.8000;1.3398;1.6534;
269.1000;1.3382;1.6510;
269.4000;1.3382;1.6462;
269.7000;1.3390;1.6462;
270.0000;1.3382;1.6534;
270.3000;1.3398;1.6606;
270.6000;1.3366;1.6510;
270.9000;1.3390;1.6438;
271.2000;1.3390;1.6438;
271.5000;1.3407;1.6414;
271.8000;1.3398;1.6414;
272.1000;1.3390;1.6342;
272.4000;1.3407;1.6414;
272.7000;1.3415;1.6486;
273.0000;1.3407;1.6462;
273.3000;1.3407;1.6438;
273.6000;1.3390;1.6342;
273.9000;1.3398;1.6342;
274.2000;1.3447;1.6486;
274.5000;1.3366;1.6366;
274.8000;1.3350;1.6295;
275.1000;1.3350;1.6318;
275.4000;1.3390;1.6438;
275.7000;1.3398;1.6486;
276.0000;1.3374;1.6486;
276.3000;1.3382;1.6558;
276.6000;1.3504;1.6894;
276.9000;1.3407;1.6630;
277.2000;1.3398;1.6654;
277.5000;1.3398;1.6630;
277.8000;1.3390;1.6606;
278.1000;1.3382;1.6582;
278.4000;1.3398;1.6654;
278.7000;1.3431;1.6630;
279.0000;1.3464;1.6750;
279.3000;1.3390;1.6606;
279.6000;1.3390;1.6582;
279.9000;1.3382;1.6534;
280.2000;1.3268;1.6295;
280.5000;1.3398;1.6462;
280.8000;1.3382;1.6462;
281.1000;1.3358;1.6390;
281.4000;1.3398;1.6438;
281.7000;1.3390;1.6462;
282.0000;1.3366;1.6438;
282.3000;1.3390;1.6462;
282.6000;1.3374;1.6414;
282.9000;1.3415;1.6534;
283.2000;1.3398;1.6534;
283.5000;1.3439;1.6558;
283.8000;1.3390;1.6414;
284.1000;1.3423;1.6534;
284.4000;1.3496;1.6726;
284.7000;1.3382;1.6534;
285.0000;1.3358;1.6486;
285.3000;1.3398;1.6702;
285.6000;1.3407;1.6582;
285.9000;1.3390;1.6462;
286.2000;1.3431;1.6558;
286.5000;1.3382;1.6390;
286.8000;1.3390;1.6366;
287.1000;1.3390;1.6486;
287.4000;1.3366;1.6510;
287.7000;1.3374;1.6582;
288.0000;1.3415;1.6702;
288.3000;1.3407;1.6654;
288.6000;1.3390;1.6582;
288.9000;1.3390;1.6510;
289.2000;1.3415;1.6558;
289.5000;1.3407;1.6486;
289.8000;1.3407;1.6462;
290.1000;1.3407;1.6486;
290.4000;1.3407;1.6486;
290.7000;1.3390;1.6486;
291.0000;1.3382;1.6462;
291.3000;1.3390;1.6414;
291.6000;1.3382;1.6462;
291.9000;1.3407;1.6606;
292.2000;1.3415;1.6486;
292.5000;1.3390;1.6390;
292.8000;1.3407;1.6414;
293.1000;1.3398;1.6462;
293.4000;1.3398;1.6462;
293.7000;1.3407;1.6414;
294.0000;1.3415;1.6438;
294.3000;1.3390;1.6462;
294.6000;1.3398;1.6534;
294.9000;1.3325;1.6247;
295.2000;1.3398;1.6414;
295.5000;1.3398;1.6366;
295.8000;1.3382;1.6390;
296.1000;1.3382;1.6366;
296.4000;1.3398;1.6318;
296.7000;1.3398;1.6366;
297.0000;1.3390;1.6390;
297.3000;1.3366;1.6318;
297.6000;1.3423;1.6462;
297.9000;1.3431;1.6462;
298.2000;1.3374;1.6295;
298.5000;1.3374;1.6342;
298.8000;1.3431;1.6510;
299.1000;1.3423;1.6510;
299.4000;1.3407;1.6534;
299.7000;1.3366;1.6510;
300.0000;1.3374;1.6510;
300.3000;1.3382;1.6462;
300.6000;1.3455;1.6606;
300.9000;1.3390;1.6462;
301.2000;1.3398;1.6534;
301.5000;1.3350;1.6342;
301.8000;1.3374;1.6486;
302.1000;1.3407;1.6606;
302.4000;1.3398;1.6606;
302.7000;1.3390;1.6630;
303.0000;1.3390;1.6558;
303.3000;1.3407;1.6486;
303.6000;1.3374;1.6390;
303.9000;1.3390;1.6534;
304.2000;1.3382;1.6510;
304.5000;1.3407;1.6558;
304.8000;1.3407;1.6558;
305.1000;1.3390;1.6438;
305.4000;1.3423;1.6534;
305.7000;1.3398;1.6462;
306.0000;1.3382;1.6534;
306.3000;1.3390;1.6438;
306.6000;1.3398;1.6414;
306.9000;1.3390;1.6438;
307.2000;1.3407;1.6462;
307.5000;1.3390;1.6462;
307.8000;1.3423;1.6510;
308.1000;1.3398;1.6462;
308.4000;1.3398;1.6534;
308.7000;1.3398;1.6534;
309.0000;1.3374;1.6510;
309.3000;1.3390;1.6558;
309.6000;1.3398;1.6486;
309.9000;1.3398;1.6510;
310.2000;1.3382;1.6438;
310.5000;1.3358;1.6318;
310.8000;1.3374;1.6366;
311.1000;1.3390;1.6366;
311.4000;1.3398;1.6414;
311.7000;1.3382;1.6486;
312.0000;1.3390;1.6438;
312.3000;1.3398;1.6342;
312.6000;1.3390;1.6414;
312.9000;1.3366;1.6366;
313.2000;1.3382;1.6510;
313.5000;1.3415;1.6486;
313.8000;1.3382;1.6390;
314.1000;1.3382;1.6390;
314.4000;1.3390;1.6366;
314.7000;1.3390;1.6390;
315.0000;1.3407;1.6438;
315.3000;1.3350;1.6318;
315.6000;1.3374;1.6366;
315.9000;1.3374;1.6486;
316.2000;1.3366;1.6486;
316.5000;1.3431;1.6414;
316.8000;1.3455;1.6486;
317.1000;1.3415;1.6366;
317.4000;1.3390;1.6318;
317.7000;1.3407;1.6414;
318.0000;1.3407;1.6486;
318.3000;1.3407;1.6318;
318.6000;1.3407;1.6438;
318.9000;1.3398;1.6414;
319.2000;1.3415;1.6438;
319.5000;1.3398;1.6295;
319.8000;1.3407;1.6342;
320.1000;1.3415;1.6366;
320.4000;1.3382;1.6318;
320.7000;1.3374;1.6271;
321.0000;1.3415;1.6271;
321.3000;1.3382;1.6318;
321.6000;1.3398;1.6366;
321.9000;1.3398;1.6247;
322.2000;1.3374;1.6271;
322.5000;1.3382;1.6318;
322.8000;1.3390;1.6390;
323.1000;1.3398;1.6271;
323.4000;1.3407;1.6318;
323.7000;1.3415;1.6366;
324.0000;1.3407;1.6342;
324.3000;1.3398;1.6295;
324.6000;1.3398;1.6151;
324.9000;1.3407;1.6271;
325.2000;1.3407;1.6247;
325.5000;1.3333;1.6031;
325.8000;1.3398;1.6247;
326.1000;1.3398;1.6295;
326.4000;1.3398;1.6390;
326.7000;1.3423;1.6414;
327.0000;1.3358;1.6175;
327.3000;1.3390;1.6247;
327.6000;1.3366;1.6247;
327.9000;1.3398;1.6438;
328.2000;1.3382;1.6438;
328.5000;1.3407;1.6486;
328.8000;1.3398;1.6486;
329.1000;1.3407;1.6534;
329.4000;1.3431;1.6606;
329.7000;1.3382;1.6486;
330.0000;1.3407;1.6534;
330.3000;1.3398;1.6486;
330.6000;1.3382;1.6534;
330.9000;1.3398;1.6630;
331.2000;1.3390;1.6630;
331.5000;1.3407;1.6606;
331.8000;1.3398;1.6606;
332.1000;1.3415;1.6678;
332.4000;1.3455;1.6798;
332.7000;1.3390;1.6606;
333.0000;1.3407;1.6654;
333.3000;1.3390;1.6510;
333.6000;1.3439;1.6534;
333.9000;1.3415;1.6510;
334.2000;1.3407;1.6462;
334.5000;1.3382;1.6438;
334.8000;1.3374;1.6438;
335.1000;1.3398;1.6438;
335.4000;1.3374;1.6318;
335.7000;1.3455;1.6510;
336.0000;1.3390;1.6390;
336.3000;1.3455;1.6558;
336.6000;1.3407;1.6462;
336.9000;1.3455;1.6630;
337.2000;1.3390;1.6534;
337.5000;1.3390;1.6462;
337.8000;1.3407;1.6486;
338.1000;1.3382;1.6438;
338.4000;1.3382;1.6510;
338.7000;1.3390;1.6438;
339.0000;1.3407;1.6390;
339.3000;1.3390;1.6462;
339.6000;1.3423;1.6414;
339.9000;1.3390;1.6342;
340.2000;1.3398;1.6414;
340.5000;1.3398;1.6486;
340.8000;1.3398;1.6438;
341.1000;1.3366;1.6390;
341.4000;1.3415;1.6486;
341.7000;1.3398;1.6510;
342.0000;1.3382;1.6462;
342.3000;1.3407;1.6414;
342.6000;1.3398;1.6366;
342.9000;1.3415;1.6414;
343.2000;1.3407;1.6438;
343.5000;1.3423;1.6414;
343.8000;1.3407;1.6390;
344.1000;1.3398;1.6462;
344.4000;1.3398;1.6582;
344.7000;1.3390;1.6582;
345.0000;1.3374;1.6510;
345.3000;1.3382;1.6558;
345.6000;1.3382;1.6510;
345.9000;1.3301;1.6390;
346.2000;1.3350;1.6462;
346.5000;1.3390;1.6510;
346.8000;1.3366;1.6486;
347.1000;1.3398;1.6462;
347.4000;1.3455;1.6678;
347.7000;1.3398;1.6510;
348.0000;1.3447;1.6726;
348.3000;1.3407;1.6606;
348.6000;1.3366;1.6534;
348.9000;1.3382;1.6558;
349.2000;1.3455;1.6702;
349.5000;1.3382;1.6510;
349.8000;1.3398;1.6534;
350.1000;1.3390;1.6510;
350.4000;1.3382;1.6318;
350.7000;1.3374;1.6390;
351.0000;1.3382;1.6414;
351.3000;1.3358;1.6390;
351.6000;1.3374;1.6462;
351.9000;1.3374;1.6462;
352.2000;1.3374;1.6390;
352.5000;1.3374;1.6366;
352.8000;1.3374;1.6390;
353.1000;1.3390;1.6390;
353.4000;1.3431;1.6462;
353.7000;1.3366;1.6318;
354.0000;1.3366;1.6295;
354.3000;1.3284;1.6031;
354.6000;1.3439;1.6390;
354.9000;1.3407;1.6342;
355.2000;1.3341;1.6247;
355.5000;1.3374;1.6271;
355.8000;1.3390;1.6318;
356.1000;1.3382;1.6271;
356.4000;1.3431;1.6366;
356.7000;1.3358;1.6199;
357.0000;1.3398;1.6318;
357.3000;1.3374;1.6318;
357.6000;1.3366;1.6366;
357.9000;1.3390;1.6414;
358.2000;1.3407;1.6486;
358.5000;1.3382;1.6462;
358.8000;1.3374;1.6414;
359.1000;1.3398;1.6414;
359.4000;1.3382;1.6438;
359.7000;1.3415;1.6486;
360.0000;1.3390;1.6462;
360.3000;1.3366;1.6318;
360.6000;1.3358;1.6366;
360.9000;1.3439;1.6534;
361.2000;1.3374;1.6342;
361.5000;1.3374;1.6223;
361.8000;1.3390;1.6199;
362.1000;1.3398;1.6199;
362.4000;1.3398;1.6199;
362.7000;1.3390;1.6175;
363.0000;1.3423;1.6223;
363.3000;1.3398;1.6151;
363.6000;1.3398;1.6151;
363.9000;1.3398;1.6175;
364.2000;1.3407;1.6151;
364.5000;1.3407;1.6223;
364.8000;1.3423;1.6223;
365.1000;1.3366;1.6055;
365.4000;1.3374;1.6031;
365.7000;1.3390;1.6199;
366.0000;1.3407;1.6247;
366.3000;1.3374;1.6199;
366.6000;1.3374;1.6199;
366.9000;1.3374;1.6175;
367.2000;1.3407;1.6318;
367.5000;1.3390;1.6175;
367.8000;1.3390;1.6175;
368.1000;1.3423;1.6199;
368.4000;1.3407;1.6103;
368.7000;1.3407;1.6103;
369.0000;1.3382;1.6079;
369.3000;1.3333;1.5959;
369.6000;1.3382;1.6031;
369.9000;1.3382;1.6079;
370.2000;1.3431;1.6151;
370.5000;1.3382;1.5935;
370.8000;1.3398;1.6031;
371.1000;1.3390;1.6079;
371.4000;1.3390;1.6055;
371.7000;1.3398;1.6055;
372.0000;1.3382;1.6103;
372.3000;1.3496;1.6366;
372.6000;1.3423;1.6127;
372.9000;1.3390;1.6151;
373.2000;1.3415;1.6199;
373.5000;1.3415;1.6223;
373.8000;1.3374;1.6127;
374.1000;1.3398;1.6127;
374.4000;1.3382;1.6151;
374.7000;1.3382;1.6175;
375.0000;1.3447;1.6295;
375.3000;1.3333;1.6127;
375.6000;1.3366;1.6223;
375.9000;1.3374;1.6151;
376.2000;1.3374;1.6079;
376.5000;1.3366;1.6247;
376.8000;1.3382;1.6318;
377.1000;1.3366;1.6342;
377.4000;1.3382;1.6366;
377.7000;1.3398;1.6318;
378.0000;1.3341;1.6199;
378.3000;1.3366;1.6199;
378.6000;1.3390;1.6175;
378.9000;1.3390;1.6175;
379.2000;1.3382;1.6007;
379.5000;1.3382;1.5935;
379.8000;1.3390;1.5935;
380.1000;1.3390;1.5983;
380.4000;1.3350;1.5935;
380.7000;1.3366;1.6055;
381.0000;1.3390;1.6223;
381.3000;1.3382;1.6175;
381.6000;1.3398;1.6223;
381.9000;1.3374;1.6223;
382.2000;1.3390;1.6318;
382.5000;1.3390;1.6342;
382.8000;1.3398;1.6295;
383.1000;1.3366;1.6271;
383.4000;1.3398;1.6271;
383.7000;1.3390;1.6223;
384.0000;1.3390;1.6175;
384.3000;1.3374;1.6127;
384.6000;1.3390;1.6079;
384.9000;1.3407;1.6175;
385.2000;1.3374;1.6079;
385.5000;1.3398;1.6199;
385.8000;1.3358;1.6151;
386.1000;1.3382;1.6223;
386.4000;1.3423;1.6223;
386.7000;1.3382;1.6247;
387.0000;1.3390;1.6175;
387.3000;1.3407;1.6223;
387.6000;1.3390;1.6223;
387.9000;1.3398;1.6247;
388.2000;1.3398;1.6295;
388.5000;1.3366;1.6175;
388.8000;1.3390;1.6342;
389.1000;1.3398;1.6390;
389.4000;1.3390;1.6390;
389.7000;1.3382;1.6318;
390.0000;1.3398;1.6247;
390.3000;1.3398;1.6199;
390.6000;1.3366;1.6079;
390.9000;1.3398;1.6103;
391.2000;1.3415;1.6127;
391.5000;1.3390;1.6103;
391.8000;1.3415;1.6175;
392.1000;1.3423;1.6079;
392.4000;1.3390;1.6055;
392.7000;1.3447;1.6175;
393.0000;1.3407;1.6103;
393.3000;1.3374;1.6055;
393.6000;1.3358;1.6031;
393.9000;1.3415;1.6199;
394.2000;1.3382;1.6079;
394.5000;1.3350;1.6055;
394.8000;1.3390;1.6175;
395.1000;1.3382;1.6055;
395.4000;1.3407;1.6055;
395.7000;1.3390;1.6007;
396.0000;1.3398;1.6031;
396.3000;1.3407;1.6055;
396.6000;1.3415;1.6079;
396.9000;1.3398;1.6103;
397.2000;1.3398;1.6199;
397.5000;1.3407;1.6223;
397.8000;1.3407;1.6271;
398.1000;1.3398;1.6295;
398.4000;1.3407;1.6271;
398.7000;1.3390;1.6247;
399.0000;1.3382;1.6199;
399.3000;1.3398;1.6151;
399.6000;1.3374;1.6055;
399.9000;1.3382;1.6031;
400.2000;1.3390;1.5983;
400.5000;1.3464;1.6151;
400.8000;1.3439;1.6151;
401.1000;1.3382;1.6007;
401.4000;1.3407;1.6103;
401.7000;1.3398;1.6031;
402.0000;1.3407;1.6031;
402.3000;1.3390;1.6055;
402.6000;1.3407;1.6127;
402.9000;1.3431;1.6271;
403.2000;1.3390;1.6318;
403.5000;1.3390;1.6366;
403.8000;1.3390;1.6342;
404.1000;1.3398;1.6271;
404.4000;1.3398;1.6271;
404.7000;1.3390;1.6223;
405.0000;1.3390;1.6318;
405.3000;1.3398;1.6223;
405.6000;1.3382;1.6175;
405.9000;1.3407;1.6151;
406.2000;1.3358;1.5935;
406.5000;1.3382;1.5959;
406.8000;1.3382;1.5983;
407.1000;1.3374;1.5935;
407.4000;1.3382;1.5935;
407.7000;1.3382;1.6031;
408.0000;1.3398;1.6127;
408.3000;1.3382;1.6127;
408.6000;1.3398;1.6199;
408.9000;1.3390;1.6199;
409.2000;1.3382;1.6175;
409.5000;1.3423;1.6295;
409.8000;1.3350;1.6151;
410.1000;1.3358;1.6175;
410.4000;1.3398;1.6223;
410.7000;1.3390;1.6199;
411.0000;1.3284;1.5959;
411.3000;1.3366;1.6223;
411.6000;1.3415;1.6318;
411.9000;1.3390;1.6271;
412.2000;1.3358;1.6271;
412.5000;1.3423;1.6390;
412.8000;1.3366;1.6318;
413.1000;1.3390;1.6318;
413.4000;1.3358;1.6223;
413.7000;1.3366;1.6223;
414.0000;1.3407;1.6366;
414.3000;1.3398;1.6414;
414.6000;1.3407;1.6342;
414.9000;1.3382;1.6175;
415.2000;1.3382;1.6103;
415.5000;1.3431;1.6247;
415.8000;1.3382;1.6151;
416.1000;1.3358;1.6127;
416.4000;1.3374;1.6127;
416.7000;1.3382;1.6007;
417.0000;1.3309;1.5911;
417.3000;1.3390;1.6271;
417.6000;1.3333;1.6127;
417.9000;1.3390;1.6199;
418.2000;1.3398;1.6223;
418.5000;1.3374;1.6199;
418.8000;1.3390;1.6103;
419.1000;1.3439;1.6151;
419.4000;1.3447;1.6151;
419.7000;1.3407;1.6031;
420.0000;1.3398;1.6031;
420.3000;1.3390;1.6055;
420.6000;1.3382;1.6055;
420.9000;1.3390;1.6103;
421.2000;1.3366;1.6079;
421.5000;1.3382;1.6175;
421.8000;1.3382;1.6151;
422.1000;1.3374;1.6151;
422.4000;1.3398;1.6199;
422.7000;1.3382;1.6223;
423.0000;1.3382;1.6271;
423.3000;1.3390;1.6223;
423.6000;1.3398;1.6223;
423.9000;1.3455;1.6366;
424.2000;1.3398;1.6247;
424.5000;1.3398;1.6318;
424.8000;1.3398;1.6366;
425.1000;1.3398;1.6247;
425.4000;1.3398;1.6247;
425.7000;1.3407;1.6199;
426.0000;1.3374;1.6079;
426.3000;1.3382;1.6055;
426.6000;1.3390;1.6007;
426.9000;1.3390;1.6079;
427.2000;1.3407;1.6127;
427.5000;1.3390;1.6175;
427.8000;1.3382;1.6175;
428.1000;1.3358;1.6103;
428.4000;1.3382;1.6223;
428.7000;1.3374;1.6175;
429.0000;1.3390;1.6151;
429.3000;1.3390;1.6127;
429.6000;1.3390;1.6103;
429.9000;1.3390;1.6103;
430.2000;1.3382;1.6127;
430.5000;1.3374;1.6127;
430.8000;1.3390;1.6151;
431.1000;1.3398;1.6295;
431.4000;1.3390;1.6295;
431.7000;1.3398;1.6318;
432.0000;1.3374;1.6342;
432.3000;1.3390;1.6414;
432.6000;1.3366;1.6318;
432.9000;1.3374;1.6295;
433.2000;1.3398;1.6390;
433.5000;1.3366;1.6295;
433.8000;1.3374;1.6318;
434.1000;1.3382;1.6223;
434.4000;1.3366;1.6223;
434.7000;1.3390;1.6295;
435.0000;1.3407;1.6390;
435.3000;1.3374;1.6342;
435.6000;1.3398;1.6366;
435.9000;1.3390;1.6438;
436.2000;1.3398;1.6486;
436.5000;1.3390;1.6342;
436.8000;1.3398;1.6247;
437.1000;1.3390;1.6175;
437.4000;1.3407;1.6223;
437.7000;1.3382;1.6151;
438.0000;1.3447;1.6199;
438.3000;1.3464;1.6318;
438.6000;1.3382;1.6103;
438.9000;1.3398;1.6175;
439.2000;1.3439;1.6247;
439.5000;1.3439;1.6295;
439.8000;1.3398;1.6199;
440.1000;1.3398;1.6247;
440.4000;1.3423;1.6295;
440.7000;1.3390;1.6199;
441.0000;1.3390;1.6199;
441.3000;1.3480;1.6414;
441.6000;1.3382;1.6151;
441.9000;1.3423;1.6175;
442.2000;1.3382;1.6151;
442.5000;1.3301;1.5983;
442.8000;1.3382;1.6199;
443.1000;1.3366;1.6127;
443.4000;1.3415;1.6223;
443.7000;1.3398;1.6175;
444.0000;1.3374;1.6223;
444.3000;1.3398;1.6247;
444.6000;1.3374;1.6175;
444.9000;1.3366;1.6127;
445.2000;1.3382;1.6103;
445.5000;1.3390;1.6079;
445.8000;1.3390;1.6127;
446.1000;1.3407;1.6223;
446.4000;1.3398;1.6247;
446.7000;1.3398;1.6271;
447.0000;1.3398;1.6271;
447.3000;1.3423;1.6414;
447.6000;1.3407;1.6342;
447.9000;1.3382;1.6295;
448.2000;1.3382;1.6342;
448.5000;1.3431;1.6534;
448.8000;1.3382;1.6414;
449.1000;1.3407;1.6390;
449.4000;1.3325;1.6151;
449.7000;1.3398;1.6318;
450.0000;1.3398;1.6295;
450.3000;1.3390;1.6318;
450.6000;1.3382;1.6318;
450.9000;1.3374;1.6199;
451.2000;1.3398;1.6295;
451.5000;1.3398;1.6247;
451.8000;1.3398;1.6175;
452.1000;1.3382;1.6151;
452.4000;1.3382;1.6223;
452.7000;1.3390;1.6271;
453.0000;1.3366;1.6151;
453.3000;1.3350;1.6031;
453.6000;1.3407;1.6151;
453.9000;1.3407;1.6127;
454.2000;1.3382;1.6127;
454.5000;1.3382;1.6151;
454.8000;1.3398;1.6271;
455.1000;1.3390;1.6271;
455.4000;1.3390;1.6199;
455.7000;1.3390;1.6175;
456.0000;1.3382;1.6127;
456.3000;1.3390;1.6103;
456.6000;1.3407;1.6103;
456.9000;1.3366;1.6079;
457.2000;1.3358;1.6127;
457.5000;1.3374;1.6151;
457.8000;1.3415;1.6199;
458.1000;1.3390;1.6127;
458.4000;1.3390;1.6151;
458.7000;1.3390;1.6079;
459.0000;1.3415;1.6103;
459.3000;1.3382;1.6175;
459.6000;1.3398;1.6318;
459.9000;1.3390;1.6175;
460.2000;1.3398;1.6247;
460.5000;1.3398;1.6342;
460.8000;1.3382;1.6318;
461.1000;1.3390;1.6342;
461.4000;1.3407;1.6342;
461.7000;1.3390;1.6318;
462.0000;1.3374;1.6295;
462.3000;1.3398;1.6342;
462.6000;1.3366;1.6223;
462.9000;1.3390;1.6318;
463.2000;1.3382;1.6318;
463.5000;1.3382;1.6318;
463.8000;1.3333;1.6127;
464.1000;1.3431;1.6342;
464.4000;1.3488;1.6486;
464.7000;1.3382;1.6247;
465.0000;1.3398;1.6199;
465.3000;1.3415;1.6318;
465.6000;1.3382;1.6247;
465.9000;1.3301;1.6103;
466.2000;1.3374;1.6271;
466.5000;1.3415;1.6318;
466.8000;1.3439;1.6342;
467.1000;1.3407;1.6223;
467.4000;1.3472;1.6390;
467.7000;1.3407;1.6223;
468.0000;1.3390;1.6199;
468.3000;1.3415;1.6223;
468.6000;1.3407;1.6247;
468.9000;1.3390;1.6199;
469.2000;1.3407;1.6223;
469.5000;1.3407;1.6199;
469.8000;1.3407;1.6151;
470.1000;1.3415;1.6199;
470.4000;1.3431;1.6318;
470.7000;1.3390;1.6223;
471.0000;1.3325;1.6055;
471.3000;1.3382;1.6151;
471.6000;1.3407;1.6127;
471.9000;1.3390;1.6007;
472.2000;1.3390;1.5983;
472.5000;1.3382;1.5983;
472.8000;1.3390;1.6055;
473.1000;1.3358;1.6007;
473.4000;1.3350;1.6007;
473.7000;1.3366;1.6007;
474.0000;1.3407;1.6079;
474.3000;1.3407;1.6127;
474.6000;1.3390;1.6127;
474.9000;1.3374;1.6151;
475.2000;1.3382;1.6342;
475.5000;1.3390;1.6438;
475.8000;1.3407;1.6438;
476.1000;1.3382;1.6342;
476.4000;1.3382;1.6223;
476.7000;1.3390;1.6079;
477.0000;1.3350;1.6007;
477.3000;1.3350;1.6007;
477.6000;1.3374;1.6151;
477.9000;1.3398;1.6151;
478.2000;1.3390;1.6127;
478.5000;1.3374;1.6151;
478.8000;1.3374;1.6151;
479.1000;1.3374;1.6079;
479.4000;1.3366;1.6007;
479.7000;1.3374;1.6031;
480.0000;1.3398;1.6151;
480.3000;1.3382;1.6079;
480.6000;1.3398;1.6103;
480.9000;1.3407;1.6103;
481.2000;1.3374;1.6055;
481.5000;1.3366;1.6103;
481.8000;1.3374;1.6199;
482.1000;1.3398;1.6271;
482.4000;1.3374;1.6247;
482.7000;1.3382;1.6199;
483.0000;1.3415;1.6223;
483.3000;1.3382;1.6199;
483.6000;1.3390;1.6175;
483.9000;1.3390;1.6175;
484.2000;1.3390;1.6199;
484.5000;1.3374;1.6199;
484.8000;1.3431;1.6366;
485.1000;1.3496;1.6558;
485.4000;1.3398;1.6342;
485.7000;1.3366;1.6247;
486.0000;1.3390;1.6271;
486.3000;1.3301;1.6127;
486.6000;1.3382;1.6366;
486.9000;1.3390;1.6390;
487.2000;1.3333;1.6366;
487.5000;1.3407;1.6534;
487.8000;1.3398;1.6414;
488.1000;1.3350;1.6318;
488.4000;1.3398;1.6366;
488.7000;1.3415;1.6366;
489.0000;1.3366;1.6151;
489.3000;1.3431;1.6342;
489.6000;1.3390;1.6271;
489.9000;1.3374;1.6223;
490.2000;1.3390;1.6271;
490.5000;1.3415;1.6342;
490.8000;1.3374;1.6175;
491.1000;1.3366;1.6247;
491.4000;1.3366;1.6175;
491.7000;1.3374;1.6151;
492.0000;1.3390;1.6199;
492.3000;1.3398;1.6271;
492.6000;1.3366;1.6247;
492.9000;1.3358;1.6223;
493.2000;1.3366;1.6223;
493.5000;1.3390;1.6247;
493.8000;1.3374;1.6151;
494.1000;1.3374;1.6199;
494.4000;1.3374;1.6199;
494.7000;1.3390;1.6271;
495.0000;1.3398;1.6318;
495.3000;1.3382;1.6271;
495.6000;1.3390;1.6318;
495.9000;1.3382;1.6342;
496.2000;1.3407;1.6438;
496.5000;1.3366;1.6342;
496.8000;1.3358;1.6342;
497.1000;1.3382;1.6342;
497.4000;1.3390;1.6366;
497.7000;1.3407;1.6486;
498.0000;1.3374;1.6390;
498.3000;1.3374;1.6390;
498.6000;1.3374;1.6390;
498.9000;1.3358;1.6271;
499.2000;1.3382;1.6295;
499.5000;1.3374;1.6127;
499.8000;1.3415;1.6127;
500.1000;1.3390;1.6079;
500.4000;1.3390;1.6103;
500.7000;1.3325;1.5935;
501.0000;1.3398;1.6103;
501.3000;1.3398;1.6103;
501.6000;1.3415;1.6151;
501.9000;1.3390;1.6199;
502.2000;1.3407;1.6295;
502.5000;1.3374;1.6295;
502.8000;1.3350;1.6295;
503.1000;1.3358;1.6247;
503.4000;1.3382;1.6318;
503.7000;1.3374;1.6271;
504.0000;1.3350;1.6199;
504.3000;1.3407;1.6295;
504.6000;1.3350;1.6127;
504.9000;1.3415;1.6247;
505.2000;1.3398;1.6247;
505.5000;1.3358;1.6151;
505.8000;1.3366;1.6318;
506.1000;1.3464;1.6534;
506.4000;1.3390;1.6318;
506.7000;1.3407;1.6438;
507.0000;1.3350;1.6271;
507.3000;1.3341;1.6175;
507.6000;1.3366;1.6223;
507.9000;1.3382;1.6199;
508.2000;1.3398;1.6247;
508.5000;1.3390;1.6247;
508.8000;1.3382;1.6318;
509.1000;1.3390;1.6271;
509.4000;1.3374;1.6271;
509.7000;1.3398;1.6414;
510.0000;1.3398;1.6414;
510.3000;1.3398;1.6390;
510.6000;1.3333;1.6199;
510.9000;1.3382;1.6199;
511.2000;1.3366;1.6175;
511.5000;1.3366;1.6151;
511.8000;1.3382;1.6247;
512.1000;1.3390;1.6342;
512.4000;1.3333;1.6223;
512.7000;1.3455;1.6462;
513.0000;1.3398;1.6462;
513.3000;1.3390;1.6366;
513.6000;1.3382;1.6342;
513.9000;1.3472;1.6558;
514.2000;1.3366;1.6366;
514.5000;1.3366;1.6390;
514.8000;1.3390;1.6462;
515.1000;1.3398;1.6486;
515.4000;1.3382;1.6390;
515.7000;1.3374;1.6390;
516.0000;1.3382;1.6390;
516.3000;1.3390;1.6438;
516.6000;1.3390;1.6438;
516.9000;1.3390;1.6390;
517.2000;1.3382;1.6342;
517.5000;1.3407;1.6342;
517.8000;1.3341;1.6223;
518.1000;1.3382;1.6318;
518.4000;1.3374;1.6247;
518.7000;1.3374;1.6318;
519.0000;1.3390;1.6366;
519.3000;1.3374;1.6342;
519.6000;1.3366;1.6318;
519.9000;1.3374;1.6318;
520.2000;1.3374;1.6271;
520.5000;1.3366;1.6295;
520.8000;1.3350;1.6295;
521.1000;1.3350;1.6271;
521.4000;1.3358;1.6247;
521.7000;1.3366;1.6271;
522.0000;1.3341;1.6271;
522.3000;1.3390;1.6295;
522.6000;1.3407;1.6318;
522.9000;1.3350;1.6175;
523.2000;1.3390;1.6366;
523.5000;1.3374;1.6486;
523.8000;1.3366;1.6462;
524.1000;1.3407;1.6558;
524.4000;1.3374;1.6438;
524.7000;1.3366;1.6510;
525.0000;1.3374;1.6534;
525.3000;1.3382;1.6510;
525.6000;1.3382;1.6558;
525.9000;1.3390;1.6534;
526.2000;1.3341;1.6486;
526.5000;1.3382;1.6510;
526.8000;1.3390;1.6486;
527.1000;1.3341;1.6366;
527.4000;1.3382;1.6414;
527.7000;1.3325;1.6271;
528.0000;1.3366;1.6366;
528.3000;1.3423;1.6486;
528.6000;1.3415;1.6534;
528.9000;1.3398;1.6534;
529.2000;1.3374;1.6486;
529.5000;1.3382;1.6486;
529.8000;1.3374;1.6390;
530.1000;1.3407;1.6414;
530.4000;1.3358;1.6342;
530.7000;1.3382;1.6342;
531.0000;1.3390;1.6342;
531.3000;1.3390;1.6366;
531.6000;1.3390;1.6366;
531.9000;1.3382;1.6342;
532.2000;1.3382;1.6318;
532.5000;1.3407;1.6390;
532.8000;1.3374;1.6199;
533.1000;1.3374;1.6175;
533.4000;1.3341;1.6103;
533.7000;1.3374;1.6223;
534.0000;1.3325;1.6175;
534.3000;1.3390;1.6414;
534.6000;1.3374;1.6390;
534.9000;1.3333;1.6318;
535.2000;1.3366;1.6223;
535.5000;1.3358;1.6199;
535.8000;1.3382;1.6223;
536.1000;1.3382;1.6247;
536.4000;1.3382;1.6247;
536.7000;1.3390;1.6342;
537.0000;1.3398;1.6342;
537.3000;1.3374;1.6366;
537.6000;1.3358;1.6390;
537.9000;1.3398;1.6438;
538.2000;1.3390;1.6438;
538.5000;1.3374;1.6342;
538.8000;1.3374;1.6295;
539.1000;1.3382;1.6318;
539.4000;1.3382;1.6318;
539.7000;1.3390;1.6271;
540.0000;1.3382;1.6151;
540.3000;1.3423;1.6223;
540.6000;1.3390;1.6247;
540.9000;1.3390;1.6199;
541.2000;1.3374;1.6247;
541.5000;1.3317;1.6055;
541.8000;1.3407;1.6366;
542.1000;1.3398;1.6390;
542.4000;1.3390;1.6390;
542.7000;1.3382;1.6342;
543.0000;1.3431;1.6510;
543.3000;1.3382;1.6366;
543.6000;1.3390;1.6390;
543.9000;1.3366;1.6342;
544.2000;1.3374;1.6390;
544.5000;1.3374;1.6390;
544.8000;1.3350;1.6318;
545.1000;1.3374;1.6414;
545.4000;1.3382;1.6462;
545.7000;1.3407;1.6414;
546.0000;1.3415;1.6390;
546.3000;1.3382;1.6247;
546.6000;1.3390;1.6199;
546.9000;1.3415;1.6342;
547.2000;1.3390;1.6366;
547.5000;1.3374;1.6342;
547.8000;1.3374;1.6462;
548.1000;1.3431;1.6678;
548.4000;1.3407;1.6606;
548.7000;1.3374;1.6582;
549.0000;1.3374;1.6558;
549.3000;1.3325;1.6438;
549.6000;1.3358;1.6510;
549.9000;1.3350;1.6414;
550.2000;1.3358;1.6438;
550.5000;1.3358;1.6414;
550.8000;1.3374;1.6414;
551.1000;1.3390;1.6366;
551.4000;1.3374;1.6366;
551.7000;1.3382;1.6342;
552.0000;1.3374;1.6318;
552.3000;1.3374;1.6295;
552.6000;1.3366;1.6271;
552.9000;1.3366;1.6271;
553.2000;1.3374;1.6390;
553.5000;1.3407;1.6414;
553.8000;1.3390;1.6318;
554.1000;1.3366;1.6271;
554.4000;1.3390;1.6342;
554.7000;1.3333;1.6295;
555.0000;1.3366;1.6390;
555.3000;1.3390;1.6462;
555.6000;1.3390;1.6438;
555.9000;1.3390;1.6438;
556.2000;1.3366;1.6462;
556.5000;1.3382;1.6438;
556.8000;1.3374;1.6390;
557.1000;1.3390;1.6366;
557.4000;1.3447;1.6462;
557.7000;1.3382;1.6271;
558.0000;1.3390;1.6247;
558.3000;1.3374;1.6247;
558.6000;1.3382;1.6271;
558.9000;1.3382;1.6390;
559.2000;1.3366;1.6414;
559.5000;1.3374;1.6342;
559.8000;1.3398;1.6199;
560.1000;1.3447;1.6342;
560.4000;1.3415;1.6295;
560.7000;1.3382;1.6175;
561.0000;1.3374;1.6175;
561.3000;1.3350;1.6127;
561.6000;1.3374;1.6079;
561.9000;1.3382;1.6151;
562.2000;1.3390;1.6295;
562.5000;1.3472;1.6462;
562.8000;1.3374;1.6295;
563.1000;1.3407;1.6414;
563.4000;1.3382;1.6295;
563.7000;1.3358;1.6247;
564.0000;1.3366;1.6295;
564.3000;1.3390;1.6366;
564.6000;1.3341;1.6318;
564.9000;1.3407;1.6510;
565.2000;1.3374;1.6390;
565.5000;1.3341;1.6295;
565.8000;1.3390;1.6318;
566.1000;1.3350;1.6247;
566.4000;1.3382;1.6366;
566.7000;1.3390;1.6295;
567.0000;1.3390;1.6271;
567.3000;1.3390;1.6366;
567.6000;1.3390;1.6390;
567.9000;1.3382;1.6295;
568.2000;1.3390;1.6247;
568.5000;1.3398;1.6271;
568.8000;1.3374;1.6199;
569.1000;1.3374;1.6151;
569.4000;1.3366;1.6199;
569.7000;1.3358;1.6295;
570.0000;1.3284;1.6103;
570.3000;1.3358;1.6390;
570.6000;1.3366;1.6486;
570.9000;1.3350;1.6438;
571.2000;1.3366;1.6558;
571.5000;1.3358;1.6510;
571.8000;1.3374;1.6462;
572.1000;1.3390;1.6462;
572.4000;1.3382;1.6438;
572.7000;1.3341;1.6271;
573.0000;1.3325;1.6318;
573.3000;1.3366;1.6414;
573.6000;1.3382;1.6438;
573.9000;1.3374;1.6366;
574.2000;1.3374;1.6366;
574.5000;1.3358;1.6414;
574.8000;1.3366;1.6390;
575.1000;1.3374;1.6462;
575.4000;1.3341;1.6318;
575.7000;1.3358;1.6390;
576.0000;1.3358;1.6462;
576.3000;1.3366;1.6438;
576.6000;1.3358;1.6390;
576.9000;1.3341;1.6199;
577.2000;1.3382;1.6247;
577.5000;1.3407;1.6247;
577.8000;1.3382;1.6247;
578.1000;1.3390;1.6342;
578.4000;1.3374;1.6414;
578.7000;1.3374;1.6438;
579.0000;1.3366;1.6462;
579.3000;1.3398;1.6486;
579.6000;1.3325;1.6271;
579.9000;1.3366;1.6390;
580.2000;1.3350;1.6318;
580.5000;1.3366;1.6366;
580.8000;1.3390;1.6438;
581.1000;1.3366;1.6414;
581.4000;1.3260;1.6175;
581.7000;1.3374;1.6318;
582.0000;1.3341;1.6175;
582.3000;1.3398;1.6318;
582.6000;1.3390;1.6390;
582.9000;1.3398;1.6414;
583.2000;1.3382;1.6390;
583.5000;1.3358;1.6390;
583.8000;1.3398;1.6462;
584.1000;1.3301;1.6223;
584.4000;1.3366;1.6414;
584.7000;1.3358;1.6486;
585.0000;1.3390;1.6558;
585.3000;1.3358;1.6534;
585.6000;1.3358;1.6558;
585.9000;1.3382;1.6654;
586.2000;1.3382;1.6678;
586.5000;1.3390;1.6654;
586.8000;1.3390;1.6558;
587.1000;1.3366;1.6534;
587.4000;1.3447;1.6678;
587.7000;1.3374;1.6462;
588.0000;1.3382;1.6534;
588.3000;1.3350;1.6534;
588.6000;1.3374;1.6606;
588.9000;1.3382;1.6558;
589.2000;1.3366;1.6558;
589.5000;1.3390;1.6630;
589.8000;1.3374;1.6510;
590.1000;1.3382;1.6462;
590.4000;1.3374;1.6390;
590.7000;1.3390;1.6462;
591.0000;1.3374;1.6462;
591.3000;1.3407;1.6462;
591.6000;1.3374;1.6438;
591.9000;1.3333;1.6342;
592.2000;1.3398;1.6366;
592.5000;1.3382;1.6295;
592.8000;1.3407;1.6414;
593.1000;1.3333;1.6295;
593.4000;1.3366;1.6414;
593.7000;1.3390;1.6414;
594.0000;1.3382;1.6462;
594.3000;1.3382;1.6438;
594.6000;1.3431;1.6438;
594.9000;1.3358;1.6247;
595.2000;1.3358;1.6175;
595.5000;1.3382;1.6151;
595.8000;1.3358;1.6175;
596.1000;1.3366;1.6199;
596.4000;1.3374;1.6271;
596.7000;1.3382;1.6318;
597.0000;1.3374;1.6366;
597.3000;1.3358;1.6390;
597.6000;1.3358;1.6366;
597.9000;1.3390;1.6510;
598.2000;1.3366;1.6510;
598.5000;1.3358;1.6582;
598.8000;1.3366;1.6606;
599.1000;1.3374;1.6486;
599.4000;1.3358;1.6318;
599.7000;1.3358;1.6295;
600.0000;1.3358;1.6366;
600.3000;1.3358;1.6247;
600.6000;1.3390;1.6271;
600.9000;1.3211;1.5839;
601.2000;1.3065;1.5624;
601.5000;1.2983;1.5648;
601.8000;1.2853;1.5528;
602.1000;1.2772;1.5312;
602.4000;1.2601;1.5025;
602.7000;1.2365;1.4593;
603.0000;1.2373;1.4689;
603.3000;1.2259;1.4521;
603.6000;1.2137;1.4330;
603.9000;1.2104;1.4401;
604.2000;1.1933;1.4162;
604.5000;1.1876;1.3994;
604.8000;1.1803;1.3898;
605.1000;1.1705;1.3802;
605.4000;1.1673;1.3802;
605.7000;1.1583;1.3611;
606.0000;1.1502;1.3587;
606.3000;1.1412;1.3443;
606.6000;1.1380;1.3467;
606.9000;1.1298;1.3299;
607.2000;1.1233;1.3155;
607.5000;1.1176;1.3084;
607.8000;1.1136;1.3036;
608.1000;1.1079;1.2988;
608.4000;1.0997;1.2964;
608.7000;1.0973;1.2940;
609.0000;1.0891;1.2868;
609.3000;1.0875;1.2868;
609.6000;1.0802;1.2820;
609.9000;1.0786;1.2964;
610.2000;1.0729;1.2988;
610.5000;1.0672;1.2964;
610.8000;1.0623;1.3012;
611.1000;1.0549;1.2868;
611.4000;1.0525;1.2940;
611.7000;1.0492;1.3036;
612.0000;1.0452;1.3084;
612.3000;1.0403;1.2988;
612.6000;1.0370;1.2916;
612.9000;1.0322;1.2844;
613.2000;1.0289;1.2820;
613.5000;1.0265;1.2868;
613.8000;1.0232;1.2820;
614.1000;1.0191;1.2820;
614.4000;1.0134;1.2748;
614.7000;1.0126;1.2820;
615.0000;1.0077;1.2796;
615.3000;1.0020;1.2724;
615.6000;1.0012;1.2676;
615.9000;0.9980;1.2652;
616.2000;0.9939;1.2628;
616.5000;0.9915;1.2628;
616.8000;0.9890;1.2556;
617.1000;0.9825;1.2484;
617.4000;0.9825;1.2652;
617.7000;0.9801;1.2532;
618.0000;0.9809;1.2628;
618.3000;0.9744;1.2508;
618.6000;0.9719;1.2508;
618.9000;0.9744;1.2724;
619.2000;0.9556;1.2389;
619.5000;0.9630;1.2580;
619.8000;0.9613;1.2532;
620.1000;0.9565;1.2484;
620.4000;0.9556;1.2532;
620.7000;0.9524;1.2556;
621.0000;0.9516;1.2628;
621.3000;0.9491;1.2556;
621.6000;0.9434;1.2461;
621.9000;0.9434;1.2604;
622.2000;0.9434;1.2604;
622.5000;0.9377;1.2508;
622.8000;0.9361;1.2484;
623.1000;0.9337;1.2461;
623.4000;0.9337;1.2484;
623.7000;0.9296;1.2484;
624.0000;0.9320;1.2580;
624.3000;0.9263;1.2484;
624.6000;0.9288;1.2652;
624.9000;0.9223;1.2700;
625.2000;0.9198;1.2508;
625.5000;0.9149;1.2365;
625.8000;0.9174;1.2508;
626.1000;0.9174;1.2580;
626.4000;0.9117;1.2461;
626.7000;0.9109;1.2508;
627.0000;0.9133;1.2580;
627.3000;0.9068;1.2413;
627.6000;0.9125;1.2508;
627.9000;0.9035;1.2389;
628.2000;0.9060;1.2604;
628.5000;0.9060;1.2652;
628.8000;0.9027;1.2580;
629.1000;0.8987;1.2484;
629.4000;0.8881;1.2245;
629.7000;0.8938;1.2484;
630.0000;0.8938;1.2556;
630.3000;0.8905;1.2580;
630.6000;0.8881;1.2508;
630.9000;0.8881;1.2532;
631.2000;0.8881;1.2604;
631.5000;0.8856;1.2532;
631.8000;0.8832;1.2532;
632.1000;0.8832;1.2556;
632.4000;0.8824;1.2532;
632.7000;0.8799;1.2508;
633.0000;0.8783;1.2461;
633.3000;0.8775;1.2461;
633.6000;0.8767;1.2413;
633.9000;0.8759;1.2341;
634.2000;0.8751;1.2365;
634.5000;0.8677;1.2293;
634.8000;0.8702;1.2293;
635.1000;0.8726;1.2389;
635.4000;0.8702;1.2413;
635.7000;0.8669;1.2365;
636.0000;0.8645;1.2341;
636.3000;0.8604;1.2245;
636.6000;0.8620;1.2269;
636.9000;0.8588;1.2221;
637.2000;0.8628;1.2365;
637.5000;0.8628;1.2317;
637.8000;0.8604;1.2269;
638.1000;0.8547;1.2269;
638.4000;0.8580;1.2365;
638.7000;0.8580;1.2389;
639.0000;0.8539;1.2365;
639.3000;0.8539;1.2317;
639.6000;0.8531;1.2293;
639.9000;0.8539;1.2197;
640.2000;0.8506;1.2245;
640.5000;0.8506;1.2221;
640.8000;0.8474;1.2221;
641.1000;0.8523;1.2461;
641.4000;0.8457;1.2317;
641.7000;0.8441;1.2365;
642.0000;0.8466;1.2461;
642.3000;0.8449;1.2341;
642.6000;0.8400;1.2341;
642.9000;0.8335;1.2125;
643.2000;0.8400;1.2317;
643.5000;0.8384;1.2293;
643.8000;0.8392;1.2365;
644.1000;0.8360;1.2269;
644.4000;0.8368;1.2365;
644.7000;0.8368;1.2365;
645.0000;0.8352;1.2341;
645.3000;0.8344;1.2317;
645.6000;0.8344;1.2293;
645.9000;0.8327;1.2293;
646.2000;0.8311;1.2317;
646.5000;0.8327;1.2317;
646.8000;0.8311;1.2269;
647.1000;0.8303;1.2269;
647.4000;0.8295;1.2245;
647.7000;0.8205;1.2149;
648.0000;0.8278;1.2413;
648.3000;0.8262;1.2341;
648.6000;0.8262;1.2389;
648.9000;0.8262;1.2365;
649.2000;0.8238;1.2317;
649.5000;0.8197;1.2125;
649.8000;0.8238;1.2269;
650.1000;0.8221;1.2221;
650.4000;0.8197;1.2029;
650.7000;0.8189;1.2029;
651.0000;0.8173;1.2077;
651.3000;0.8164;1.2101;
651.6000;0.8173;1.2149;
651.9000;0.8148;1.2101;
652.2000;0.8124;1.2005;
652.5000;0.8164;1.2197;
652.8000;0.8148;1.2053;
653.1000;0.8148;1.2053;
653.4000;0.8124;1.2005;
653.7000;0.8107;1.2077;
654.0000;0.8140;1.2125;
654.3000;0.8107;1.2053;
654.6000;0.8132;1.2053;
654.9000;0.8107;1.2125;
655.2000;0.8107;1.2317;
655.5000;0.8042;1.2173;
655.8000;0.8091;1.2341;
656.1000;0.8067;1.2269;
656.4000;0.8107;1.2389;
656.7000;0.8042;1.2221;
657.0000;0.8042;1.2173;
657.3000;0.8059;1.2197;
657.6000;0.8034;1.2149;
657.9000;0.8018;1.2125;
658.2000;0.8026;1.2125;
658.5000;0.7920;1.1837;
658.8000;0.8042;1.2125;
659.1000;0.8034;1.2149;
659.4000;0.8034;1.2197;
659.7000;0.8010;1.2245;
660.0000;0.8010;1.2293;
660.3000;0.8002;1.2269;
660.6000;0.7985;1.2245;
660.9000;0.8010;1.2197;
661.2000;0.7977;1.2125;
661.5000;0.7961;1.2149;
661.8000;0.8026;1.2341;
662.1000;0.7961;1.2173;
662.4000;0.7945;1.2221;
662.7000;0.7953;1.2269;
663.0000;0.7928;1.2149;
663.3000;0.7928;1.2077;
663.6000;0.7920;1.2125;
663.9000;0.7888;1.2077;
664.2000;0.7961;1.2341;
664.5000;0.7904;1.2293;
664.8000;0.7920;1.2245;
665.1000;0.7928;1.2341;
665.4000;0.7888;1.2197;
665.7000;0.7888;1.2221;
666.0000;0.7871;1.2149;
666.3000;0.7863;1.2149;
666.6000;0.7855;1.2149;
666.9000;0.7855;1.2197;
667.2000;0.7863;1.2221;
667.5000;0.7831;1.2197;
667.8000;0.7839;1.2245;
668.1000;0.7831;1.2173;
668.4000;0.7831;1.2125;
668.7000;0.7823;1.2149;
669.0000;0.7814;1.2197;
669.3000;0.7847;1.2101;
669.6000;0.7823;1.2077;
669.9000;0.7814;1.2101;
670.2000;0.7831;1.2149;
670.5000;0.7806;1.2053;
670.8000;0.7831;1.2149;
671.1000;0.7782;1.2053;
671.4000;0.7814;1.2077;
671.7000;0.7782;1.1957;
672.0000;0.7782;1.1933;
672.3000;0.7749;1.1909;
672.6000;0.7741;1.1885;
672.9000;0.7757;1.1909;
673.2000;0.7741;1.1933;
673.5000;0.7774;1.2077;
673.8000;0.7741;1.2029;
674.1000;0.7749;1.2029;
674.4000;0.7749;1.2029;
674.7000;0.7717;1.2029;
675.0000;0.7709;1.2029;
675.3000;0.7709;1.2053;
675.6000;0.7717;1.2005;
675.9000;0.7709;1.1909;
676.2000;0.7700;1.1837;
676.5000;0.7700;1.1814;
676.8000;0.7700;1.1909;
677.1000;0.7709;1.1957;
677.4000;0.7749;1.2053;
677.7000;0.7643;1.1861;
678.0000;0.7692;1.1909;
678.3000;0.7684;1.2005;
678.6000;0.7709;1.2125;
678.9000;0.7635;1.1885;
679.2000;0.7676;1.2029;
679.5000;0.7668;1.1981;
679.8000;0.7660;1.2101;
680.1000;0.7643;1.2125;
680.4000;0.7619;1.2101;
680.7000;0.7652;1.2125;
681.0000;0.7627;1.2125;
681.3000;0.7635;1.2197;
681.6000;0.7619;1.2125;
681.9000;0.7611;1.2149;
682.2000;0.7627;1.2149;
682.5000;0.7619;1.2125;
682.8000;0.7595;1.2125;
683.1000;0.7603;1.2101;
683.4000;0.7635;1.2053;
683.7000;0.7595;1.1957;
684.0000;0.7586;1.1885;
684.3000;0.7595;1.1981;
684.6000;0.7603;1.2053;
684.9000;0.7595;1.2053;
685.2000;0.7595;1.2077;
685.5000;0.7595;1.2149;
685.8000;0.7635;1.2245;
686.1000;0.7595;1.2245;
686.4000;0.7562;1.2197;
686.7000;0.7586;1.2197;
687.0000;0.7570;1.2149;
687.3000;0.7505;1.2029;
687.6000;0.7562;1.2221;
687.9000;0.7538;1.2173;
688.2000;0.7595;1.2437;
688.5000;0.7554;1.2365;
688.8000;0.7554;1.2437;
689.1000;0.7554;1.2461;
689.4000;0.7530;1.2413;
689.7000;0.7546;1.2341;
690.0000;0.7538;1.2293;
690.3000;0.7538;1.2269;
690.6000;0.7513;1.2269;
690.9000;0.7546;1.2269;
691.2000;0.7513;1.2245;
691.5000;0.7505;1.2173;
691.8000;0.7505;1.2197;
692.1000;0.7481;1.2221;
692.4000;0.7505;1.2173;
692.7000;0.7456;1.1981;
693.0000;0.7416;1.2077;
693.3000;0.7497;1.2317;
693.6000;0.7481;1.2293;
693.9000;0.7497;1.2245;
694.2000;0.7554;1.2365;
694.5000;0.7505;1.2221;
694.8000;0.7391;1.1981;
695.1000;0.7481;1.2125;
695.4000;0.7448;1.2077;
695.7000;0.7473;1.2125;
696.0000;0.7464;1.2077;
696.3000;0.7464;1.2125;
696.6000;0.7432;1.2125;
696.9000;0.7473;1.2173;
697.2000;0.7521;1.2293;
697.5000;0.7505;1.2317;
697.8000;0.7456;1.2173;
698.1000;0.7546;1.2389;
698.4000;0.7456;1.2221;
698.7000;0.7432;1.2125;
699.0000;0.7505;1.2197;
699.3000;0.7505;1.2221;
699.6000;0.7440;1.2077;
699.9000;0.7424;1.2053;
700.2000;0.7416;1.1957;
700.5000;0.7407;1.1933;
700.8000;0.7416;1.2053;
701.1000;0.7424;1.2149;
701.4000;0.7448;1.2221;
701.7000;0.7407;1.2101;
702.0000;0.7416;1.2125;
702.3000;0.7407;1.2125;
702.6000;0.7416;1.2197;
702.9000;0.7407;1.2245;
703.2000;0.7399;1.2221;
703.5000;0.7391;1.2221;
703.8000;0.7399;1.2245;
704.1000;0.7407;1.2173;
704.4000;0.7383;1.2029;
704.7000;0.7399;1.2053;
705.0000;0.7391;1.2005;
705.3000;0.7399;1.2053;
705.6000;0.7375;1.1981;
705.9000;0.7375;1.2053;
706.2000;0.7367;1.2149;
706.5000;0.7375;1.2245;
706.8000;0.7367;1.2221;
707.1000;0.7375;1.2245;
707.4000;0.7367;1.2245;
707.7000;0.7416;1.2365;
708.0000;0.7399;1.2293;
708.3000;0.7342;1.2149;
708.6000;0.7334;1.2149;
708.9000;0.7359;1.2173;
709.2000;0.7326;1.2125;
709.5000;0.7326;1.2173;
709.8000;0.7326;1.2149;
710.1000;0.7342;1.2245;
710.4000;0.7302;1.2077;
710.7000;0.7318;1.2125;
711.0000;0.7277;1.1933;
711.3000;0.7334;1.2077;
711.6000;0.7326;1.2149;
711.9000;0.7302;1.2173;
712.2000;0.7334;1.2245;
712.5000;0.7334;1.2245;
712.8000;0.7350;1.2269;
713.1000;0.7285;1.2125;
713.4000;0.7326;1.2245;
713.7000;0.7302;1.2125;
714.0000;0.7310;1.2053;
714.3000;0.7310;1.2053;
714.6000;0.7407;1.2341;
714.9000;0.7302;1.2053;
715.2000;0.7293;1.2029;
715.5000;0.7302;1.2101;
715.8000;0.7293;1.2029;
716.1000;0.7285;1.2077;
716.4000;0.7277;1.2125;
716.7000;0.7277;1.1981;
717.0000;0.7228;1.1885;
717.3000;0.7253;1.2029;
717.6000;0.7245;1.2053;
717.9000;0.7269;1.1981;
718.2000;0.7285;1.1933;
718.5000;0.7285;1.1909;
718.8000;0.7245;1.1885;
719.1000;0.7310;1.2101;
719.4000;0.7236;1.1981;
719.7000;0.7253;1.1933;
720.0000;0.7269;1.1981;
720.3000;0.7269;1.1981;
720.6000;0.7253;1.2053;
720.9000;0.7253;1.1981;
721.2000;0.7196;1.1933;
721.5000;0.7350;1.2389;
721.8000;0.7236;1.2077;
722.1000;0.7318;1.2173;
722.4000;0.7228;1.1957;
722.7000;0.7261;1.2005;
723.0000;0.7204;1.1885;
723.3000;0.7245;1.1861;
723.6000;0.7245;1.1957;
723.9000;0.7228;1.1981;
724.2000;0.7204;1.1933;
724.5000;0.7245;1.2029;
724.8000;0.7245;1.2149;
725.1000;0.7236;1.2269;
725.4000;0.7253;1.2365;
725.7000;0.7179;1.2269;
726.0000;0.7220;1.2389;
726.3000;0.7228;1.2437;
726.6000;0.7196;1.2341;
726.9000;0.7228;1.2389;
727.2000;0.7212;1.2293;
727.5000;0.7196;1.2317;
727.8000;0.7139;1.2221;
728.1000;0.7204;1.2389;
728.4000;0.7228;1.2461;
728.7000;0.7204;1.2341;
729.0000;0.7220;1.2341;
729.3000;0.7228;1.2389;
729.6000;0.7163;1.2173;
729.9000;0.7188;1.2197;
730.2000;0.7204;1.2293;
730.5000;0.7179;1.2245;
730.8000;0.7212;1.2269;
731.1000;0.7163;1.2077;
731.4000;0.7188;1.2221;
731.7000;0.7212;1.2245;
732.0000;0.7188;1.2125;
732.3000;0.7204;1.2221;
732.6000;0.7204;1.2149;
732.9000;0.7179;1.2221;
733.2000;0.7179;1.2149;
733.5000;0.7179;1.2149;
733.8000;0.7204;1.2221;
734.1000;0.7155;1.2101;
734.4000;0.7179;1.2197;
734.7000;0.7171;1.2173;
735.0000;0.7171;1.2173;
735.3000;0.7155;1.2077;
735.6000;0.7171;1.2149;
735.9000;0.7139;1.2005;
736.2000;0.7147;1.2029;
736.5000;0.7179;1.2149;
736.8000;0.7090;1.2077;
737.1000;0.7098;1.2221;
737.4000;0.7155;1.2317;
737.7000;0.7163;1.2389;
738.0000;0.7139;1.2437;
738.3000;0.7139;1.2437;
738.6000;0.7147;1.2389;
738.9000;0.7163;1.2365;
739.2000;0.7147;1.2269;
739.5000;0.7155;1.2341;
739.8000;0.7139;1.2245;
740.1000;0.7123;1.2269;
740.4000;0.7163;1.2317;
740.7000;0.7147;1.2317;
741.0000;0.7139;1.2341;
741.3000;0.7163;1.2461;
741.6000;0.7139;1.2389;
741.9000;0.7147;1.2389;
742.2000;0.7106;1.2341;
742.5000;0.7123;1.2413;
742.8000;0.7114;1.2269;
743.1000;0.7147;1.2437;
743.4000;0.7131;1.2413;
743.7000;0.7139;1.2389;
744.0000;0.7041;1.2077;
744.3000;0.7114;1.2269;
744.6000;0.7204;1.2484;
744.9000;0.7147;1.2317;
745.2000;0.7123;1.2293;
745.5000;0.7106;1.2245;
745.8000;0.7131;1.2269;
746.1000;0.7131;1.2173;
746.4000;0.7074;1.2173;
746.7000;0.7106;1.2269;
747.0000;0.7090;1.2221;
747.3000;0.7114;1.2269;
747.6000;0.7074;1.2197;
747.9000;0.7098;1.2341;
748.2000;0.7090;1.2269;
748.5000;0.7090;1.2341;
748.8000;0.7098;1.2317;
749.1000;0.7082;1.2269;
749.4000;0.7106;1.2341;
749.7000;0.7074;1.2293;
750.0000;0.7090;1.2317;
750.3000;0.7082;1.2269;
750.6000;0.7098;1.2341;
750.9000;0.7106;1.2437;
751.2000;0.7090;1.2293;
751.5000;0.7098;1.2317;
751.8000;0.7090;1.2365;
752.1000;0.7114;1.2341;
752.4000;0.7106;1.2269;
752.7000;0.7074;1.2173;
753.0000;0.7057;1.2173;
753.3000;0.7033;1.2173;
753.6000;0.7066;1.2125;
753.9000;0.7066;1.2173;
754.2000;0.7066;1.2125;
754.5000;0.7074;1.2221;
754.8000;0.7066;1.2173;
755.1000;0.7090;1.2317;
755.4000;0.7025;1.2173;
755.7000;0.7074;1.2245;
756.0000;0.7057;1.2293;
756.3000;0.7057;1.2317;
756.6000;0.7057;1.2293;
756.9000;0.7106;1.2293;
757.2000;0.7057;1.2341;
757.5000;0.7082;1.2245;
757.8000;0.7041;1.2149;
758.1000;0.7066;1.2221;
758.4000;0.7057;1.2221;
758.7000;0.7041;1.2101;
759.0000;0.7041;1.2101;
759.3000;0.6960;1.1933;
759.6000;0.6992;1.2149;
759.9000;0.7025;1.2245;
760.2000;0.7049;1.2341;
760.5000;0.7074;1.2437;
760.8000;0.7025;1.2365;
761.1000;0.7057;1.2413;
761.4000;0.7074;1.2389;
761.7000;0.7025;1.2389;
762.0000;0.7025;1.2341;
762.3000;0.7049;1.2293;
762.6000;0.7041;1.2245;
762.9000;0.7049;1.2149;
763.2000;0.7066;1.2077;
763.5000;0.7057;1.2125;
763.8000;0.7017;1.2029;
764.1000;0.7025;1.2125;
764.4000;0.7017;1.2125;
764.7000;0.7041;1.2077;
765.0000;0.7041;1.1981;
765.3000;0.7009;1.1957;
765.6000;0.7025;1.1981;
765.9000;0.7033;1.2077;
766.2000;0.7009;1.2125;
766.5000;0.7017;1.2173;
766.8000;0.7017;1.2173;
767.1000;0.7025;1.2317;
767.4000;0.7017;1.2341;
767.7000;0.7017;1.2365;
768.0000;0.7000;1.2341;
768.3000;0.7123;1.2532;
768.6000;0.7009;1.2149;
768.9000;0.7017;1.2149;
769.2000;0.7009;1.2197;
769.5000;0.7000;1.2245;
769.8000;0.7009;1.2245;
770.1000;0.7009;1.2293;
770.4000;0.7000;1.2197;
770.7000;0.6992;1.2149;
771.0000;0.7009;1.2149;
771.3000;0.7025;1.2197;
771.6000;0.7033;1.2221;
771.9000;0.6984;1.2173;
772.2000;0.7009;1.2245;
772.5000;0.6960;1.2173;
772.8000;0.6992;1.2269;
773.1000;0.6968;1.2197;
773.4000;0.6992;1.2293;
773.7000;0.6992;1.2173;
774.0000;0.6984;1.2149;
774.3000;0.6992;1.2173;
774.6000;0.6976;1.2125;
774.9000;0.6992;1.2245;
775.2000;0.6984;1.2245;
775.5000;0.6960;1.2293;
775.8000;0.6992;1.2317;
776.1000;0.6976;1.2269;
776.4000;0.6992;1.2365;
776.7000;0.6968;1.2293;
777.0000;0.6960;1.2317;
777.3000;0.6992;1.2389;
777.6000;0.6976;1.2413;
777.9000;0.6960;1.2365;
778.2000;0.6976;1.2365;
778.5000;0.6968;1.2389;
778.8000;0.6960;1.2293;
779.1000;0.6943;1.2173;
779.4000;0.6976;1.2221;
779.7000;0.6976;1.2341;
780.0000;0.6976;1.2413;
780.3000;0.6976;1.2413;
780.6000;0.6984;1.2413;
780.9000;0.6960;1.2437;
781.2000;0.6992;1.2413;
781.5000;0.6976;1.2389;
781.8000;0.7049;1.2628;
782.1000;0.6976;1.2413;
782.4000;0.6976;1.2365;
782.7000;0.6968;1.2293;
783.0000;0.6960;1.2317;
783.3000;0.6943;1.2317;
783.6000;0.6895;1.2245;
783.9000;0.6952;1.2317;
784.2000;0.6984;1.2413;
784.5000;0.6968;1.2389;
784.8000;0.6968;1.2437;
785.1000;0.6935;1.2484;
785.4000;0.6960;1.2604;
785.7000;0.6943;1.2508;
786.0000;0.6911;1.2461;
786.3000;0.6943;1.2508;
786.6000;0.6960;1.2556;
786.9000;0.6943;1.2508;
787.2000;0.6952;1.2508;
787.5000;0.6935;1.2508;
787.8000;0.6943;1.2461;
788.1000;0.6935;1.2508;
788.4000;0.6911;1.2508;
788.7000;0.6935;1.2484;
789.0000;0.6952;1.2532;
789.3000;0.6984;1.2556;
789.6000;0.6927;1.2389;
789.9000;0.6935;1.2341;
790.2000;0.6911;1.2245;
790.5000;0.6943;1.2245;
790.8000;0.6976;1.2245;
791.1000;0.6935;1.2221;
791.4000;0.6952;1.2221;
791.7000;0.6960;1.2269;
792.0000;0.6919;1.2245;
792.3000;0.6919;1.2197;
792.6000;0.6919;1.2221;
792.9000;0.6935;1.2197;
793.2000;0.6935;1.2197;
793.5000;0.6878;1.2053;
793.8000;0.6952;1.2149;
794.1000;0.6943;1.2149;
794.4000;0.6878;1.2053;
794.7000;0.6911;1.2125;
795.0000;0.6903;1.2197;
795.3000;0.6919;1.2293;
795.6000;0.6919;1.2293;
795.9000;0.6911;1.2173;
796.2000;0.6919;1.2221;
796.5000;0.6911;1.2269;
796.8000;0.6919;1.2293;
797.1000;0.6911;1.2173;
797.4000;0.6911;1.2149;
797.7000;0.6903;1.2173;
798.0000;0.6919;1.2173;
798.3000;0.6854;1.2125;
798.6000;0.6911;1.2173;
798.9000;0.6927;1.2173;
799.2000;0.6919;1.2221;
799.5000;0.6919;1.2221;
799.8000;0.6903;1.2245;
800.1000;0.6960;1.2532;
800.4000;0.6976;1.2580;
800.7000;0.6911;1.2317;
801.0000;0.6895;1.2461;
801.3000;0.6903;1.2437;
801.6000;0.6911;1.2484;
801.9000;0.6903;1.2413;
802.2000;0.6895;1.2484;
802.5000;0.6903;1.2508;
802.8000;0.6911;1.2508;
803.1000;0.6878;1.2484;
803.4000;0.6911;1.2461;
803.7000;0.6911;1.2532;
804.0000;0.6919;1.2604;
804.3000;0.6935;1.2508;
804.6000;0.6886;1.2365;
804.9000;0.6878;1.2317;
805.2000;0.6886;1.2389;
805.5000;0.6895;1.2413;
805.8000;0.6878;1.2269;
806.1000;0.6960;1.2341;
806.4000;0.6878;1.2197;
806.7000;0.6903;1.2245;
807.0000;0.6903;1.2389;
807.3000;0.6976;1.2508;
807.6000;0.6878;1.2269;
807.9000;0.6919;1.2317;
808.2000;0.6878;1.2269;
808.5000;0.6878;1.2365;
808.8000;0.6862;1.2389;
809.1000;0.6878;1.2365;
809.4000;0.6895;1.2293;
809.7000;0.6878;1.2245;
810.0000;0.6886;1.2269;
810.3000;0.6838;1.2197;
810.6000;0.6878;1.2317;
810.9000;0.6935;1.2580;
811.2000;0.6968;1.2580;
811.5000;0.6903;1.2437;
811.8000;0.6870;1.2389;
812.1000;0.6886;1.2437;
812.4000;0.6854;1.2269;
812.7000;0.6895;1.2461;
813.0000;0.6903;1.2508;
813.3000;0.6829;1.2269;
813.6000;0.6886;1.2269;
813.9000;0.6862;1.2173;
814.2000;0.6878;1.2245;
814.5000;0.6813;1.2125;
814.8000;0.6870;1.2245;
815.1000;0.6854;1.2197;
815.4000;0.6870;1.2293;
815.7000;0.6870;1.2413;
816.0000;0.6870;1.2389;
816.3000;0.6886;1.2389;
816.6000;0.6797;1.2125;
816.9000;0.6984;1.2532;
817.2000;0.6870;1.2293;
817.5000;0.6878;1.2293;
817.8000;0.6862;1.2293;
818.1000;0.6838;1.2149;
818.4000;0.6846;1.2149;
818.7000;0.6846;1.2269;
819.0000;0.6862;1.2293;
819.3000;0.6838;1.2317;
819.6000;0.6789;1.2221;
819.9000;0.6846;1.2365;
820.2000;0.6829;1.2197;
820.5000;0.6829;1.2173;
820.8000;0.6838;1.2221;
821.1000;0.6846;1.2197;
821.4000;0.6789;1.2125;
821.7000;0.6854;1.2269;
822.0000;0.6854;1.2269;
822.3000;0.6862;1.2317;
822.6000;0.6829;1.2293;
822.9000;0.6829;1.2245;
823.2000;0.6862;1.2317;
823.5000;0.6854;1.2317;
823.8000;0.6846;1.2293;
824.1000;0.6829;1.2293;
824.4000;0.6813;1.2197;
824.7000;0.6886;1.2341;
825.0000;0.6846;1.2149;
825.3000;0.6846;1.2101;
825.6000;0.6846;1.2149;
825.9000;0.6838;1.2173;
826.2000;0.6838;1.2173;
826.5000;0.6829;1.2197;
826.8000;0.6838;1.2221;
827.1000;0.6781;1.2149;
827.4000;0.6846;1.2317;
827.7000;0.6838;1.2221;
828.0000;0.6829;1.2245;
828.3000;0.6886;1.2461;
828.6000;0.6846;1.2341;
828.9000;0.6764;1.2197;
829.2000;0.6789;1.2269;
829.5000;0.6821;1.2317;
829.8000;0.6829;1.2341;
830.1000;0.6781;1.2221;
830.4000;0.6821;1.2269;
830.7000;0.6829;1.2269;
831.0000;0.6805;1.2221;
831.3000;0.6821;1.2269;
831.6000;0.6846;1.2269;
831.9000;0.6781;1.2221;
832.2000;0.6846;1.2389;
832.5000;0.6829;1.2413;
832.8000;0.6805;1.2317;
833.1000;0.6829;1.2413;
833.4000;0.6821;1.2413;
833.7000;0.6805;1.2389;
834.0000;0.6813;1.2461;
834.3000;0.6813;1.2389;
834.6000;0.6805;1.2461;
834.9000;0.6805;1.2484;
835.2000;0.6829;1.2461;
835.5000;0.6821;1.2413;
835.8000;0.6789;1.2293;
836.1000;0.6838;1.2389;
836.4000;0.6821;1.2365;
836.7000;0.6805;1.2341;
837.0000;0.6813;1.2484;
837.3000;0.6813;1.2461;
837.6000;0.6813;1.2556;
837.9000;0.6821;1.2580;
838.2000;0.6829;1.2556;
838.5000;0.6854;1.2484;
838.8000;0.6805;1.2437;
839.1000;0.6829;1.2484;
839.4000;0.6813;1.2532;
839.7000;0.6797;1.2437;
840.0000;0.6813;1.2389;
840.3000;0.6821;1.2461;
840.6000;0.6911;1.2652;
840.9000;0.6829;1.2221;
841.2000;0.6862;1.2389;
841.5000;0.6813;1.2317;
841.8000;0.6821;1.2389;
842.1000;0.6789;1.2293;
842.4000;0.6813;1.2365;
842.7000;0.6821;1.2389;
843.0000;0.6805;1.2293;
843.3000;0.6821;1.2341;
843.6000;0.6797;1.2197;
843.9000;0.6821;1.2293;
844.2000;0.6781;1.2173;
844.5000;0.6764;1.2125;
844.8000;0.6732;1.2077;
845.1000;0.6805;1.2221;
845.4000;0.6789;1.2197;
845.7000;0.6789;1.2245;
846.0000;0.6789;1.2221;
846.3000;0.6781;1.2269;
846.6000;0.6805;1.2293;
846.9000;0.6764;1.2197;
847.2000;0.6821;1.2413;
847.5000;0.6789;1.2269;
847.8000;0.6772;1.2173;
848.1000;0.6895;1.2484;
848.4000;0.6805;1.2221;
848.7000;0.6797;1.2317;
849.0000;0.6748;1.2269;
849.3000;0.6756;1.2221;
849.6000;0.6789;1.2245;
849.9000;0.6805;1.2317;
850.2000;0.6813;1.2341;
850.5000;0.6781;1.2269;
850.8000;0.6805;1.2341;
851.1000;0.6805;1.2508;
851.4000;0.6797;1.2461;
851.7000;0.6805;1.2484;
852.0000;0.6797;1.2461;
852.3000;0.6797;1.2484;
852.6000;0.6813;1.2556;
852.9000;0.6772;1.2413;
853.2000;0.6789;1.2508;
853.5000;0.6772;1.2532;
853.8000;0.6772;1.2580;
854.1000;0.6781;1.2604;
854.4000;0.6764;1.2484;
854.7000;0.6781;1.2508;
855.0000;0.6756;1.2437;
855.3000;0.6781;1.2484;
855.6000;0.6781;1.2461;
855.9000;0.6756;1.2437;
856.2000;0.6748;1.2461;
856.5000;0.6789;1.2461;
856.8000;0.6748;1.2484;
857.1000;0.6797;1.2580;
857.4000;0.6772;1.2437;
857.7000;0.6772;1.2437;
858.0000;0.6797;1.2461;
858.3000;0.6772;1.2484;
858.6000;0.6805;1.2580;
858.9000;0.6764;1.2437;
859.2000;0.6756;1.2365;
859.5000;0.6772;1.2365;
859.8000;0.6797;1.2365;
860.1000;0.6797;1.2437;
860.4000;0.6781;1.2461;
860.7000;0.6772;1.2389;
861.0000;0.6764;1.2389;
861.3000;0.6797;1.2413;
861.6000;0.6789;1.2437;
861.9000;0.6748;1.2389;
862.2000;0.6772;1.2437;
862.5000;0.6781;1.2389;
862.8000;0.6772;1.2341;
863.1000;0.6748;1.2221;
863.4000;0.6764;1.2293;
863.7000;0.6781;1.2341;
864.0000;0.6781;1.2413;
864.3000;0.6699;1.2293;
864.6000;0.6789;1.2532;
864.9000;0.6772;1.2556;
865.2000;0.6756;1.2508;
865.5000;0.6756;1.2532;
865.8000;0.6797;1.2604;
866.1000;0.6716;1.2341;
866.4000;0.6772;1.2508;
866.7000;0.6772;1.2413;
867.0000;0.6756;1.2365;
867.3000;0.6781;1.2484;
867.6000;0.6732;1.2389;
867.9000;0.6781;1.2365;
868.2000;0.6781;1.2317;
868.5000;0.6781;1.2341;
868.8000;0.6756;1.2173;
869.1000;0.6764;1.2245;
869.4000;0.6756;1.2197;
869.7000;0.6756;1.2125;
870.0000;0.6740;1.2053;
870.3000;0.6756;1.2197;
870.6000;0.6772;1.2341;
870.9000;0.6756;1.2293;
871.2000;0.6764;1.2293;
871.5000;0.6756;1.2317;
871.8000;0.6756;1.2317;
872.1000;0.6748;1.2221;
872.4000;0.6764;1.2245;
872.7000;0.6756;1.2245;
873.0000;0.6764;1.2245;
873.3000;0.6772;1.2317;
873.6000;0.6748;1.2245;
873.9000;0.6724;1.2173;
874.2000;0.6748;1.2293;
874.5000;0.6772;1.2341;
874.8000;0.6732;1.2341;
875.1000;0.6732;1.2389;
875.4000;0.6732;1.2293;
875.7000;0.6748;1.2269;
876.0000;0.6740;1.2245;
876.3000;0.6740;1.2245;
876.6000;0.6732;1.2269;
876.9000;0.6748;1.2293;
877.2000;0.6756;1.2413;
877.5000;0.6740;1.2341;
877.8000;0.6764;1.2365;
878.1000;0.6748;1.2341;
878.4000;0.6748;1.2317;
878.7000;0.6756;1.2341;
879.0000;0.6732;1.2269;
879.3000;0.6748;1.2269;
879.6000;0.6716;1.2269;
879.9000;0.6732;1.2269;
880.2000;0.6805;1.2652;
880.5000;0.6748;1.2484;
880.8000;0.6740;1.2413;
881.1000;0.6740;1.2365;
881.4000;0.6732;1.2341;
881.7000;0.6740;1.2413;
882.0000;0.6748;1.2484;
882.3000;0.6699;1.2221;
882.6000;0.6748;1.2413;
882.9000;0.6797;1.2580;
883.2000;0.6781;1.2532;
883.5000;0.6748;1.2413;
883.8000;0.6732;1.2341;
884.1000;0.6740;1.2341;
884.4000;0.6732;1.2365;
884.7000;0.6740;1.2413;
885.0000;0.6732;1.2341;
885.3000;0.6740;1.2341;
885.6000;0.6732;1.2461;
885.9000;0.6748;1.2413;
886.2000;0.6740;1.2413;
886.5000;0.6756;1.2365;
886.8000;0.6756;1.2389;
887.1000;0.6772;1.2461;
887.4000;0.6732;1.2365;
887.7000;0.6764;1.2508;
888.0000;0.6716;1.2365;
888.3000;0.6716;1.2341;
888.6000;0.6748;1.2413;
888.9000;0.6724;1.2341;
889.2000;0.6716;1.2317;
889.5000;0.6732;1.2413;
889.8000;0.6716;1.2413;
890.1000;0.6724;1.2413;
890.4000;0.6716;1.2484;
890.7000;0.6699;1.2413;
891.0000;0.6724;1.2484;
891.3000;0.6707;1.2508;
891.6000;0.6724;1.2724;
891.9000;0.6716;1.2652;
892.2000;0.6707;1.2628;
892.5000;0.6716;1.2652;
892.8000;0.6716;1.2580;
893.1000;0.6724;1.2676;
893.4000;0.6716;1.2724;
893.7000;0.6716;1.2652;
894.0000;0.6707;1.2556;
894.3000;0.6707;1.2604;
894.6000;0.6724;1.2652;
894.9000;0.6732;1.2652;
895.2000;0.6691;1.2508;
895.5000;0.6707;1.2365;
895.8000;0.6667;1.2245;
896.1000;0.6724;1.2269;
896.4000;0.6716;1.2221;
896.7000;0.6716;1.2269;
897.0000;0.6716;1.2389;
897.3000;0.6724;1.2437;
897.6000;0.6724;1.2484;
897.9000;0.6716;1.2461;
898.2000;0.6716;1.2341;
898.5000;0.6716;1.2365;
898.8000;0.6699;1.2389;
899.1000;0.6724;1.2341;
899.4000;0.6707;1.2341;
899.7000;0.6716;1.2341;
900.0000;0.6764;1.2317;
900.3000;0.6724;1.2269;
900.6000;0.6699;1.2389;
900.9000;0.6716;1.2484;
901.2000;0.6724;1.2604;
901.5000;0.6699;1.2532;
901.8000;0.6789;1.2724;
902.1000;0.6707;1.2508;
902.4000;0.6724;1.2508;
902.7000;0.6707;1.2413;
903.0000;0.6716;1.2389;
903.3000;0.6707;1.2317;
903.6000;0.6732;1.2461;
903.9000;0.6716;1.2437;
904.2000;0.6699;1.2317;
904.5000;0.6707;1.2413;
904.8000;0.6716;1.2556;
905.1000;0.6707;1.2532;
905.4000;0.6699;1.2508;
905.7000;0.6699;1.2437;
906.0000;0.6675;1.2269;
906.3000;0.6699;1.2269;
906.6000;0.6691;1.2341;
906.9000;0.6716;1.2437;
907.2000;0.6683;1.2365;
907.5000;0.6716;1.2532;
907.8000;0.6683;1.2413;
908.1000;0.6716;1.2532;
908.4000;0.6724;1.2652;
908.7000;0.6724;1.2676;
909.0000;0.6716;1.2676;
909.3000;0.6716;1.2652;
909.6000;0.6683;1.2580;
909.9000;0.6724;1.2652;
910.2000;0.6716;1.2580;
910.5000;0.6691;1.2628;
910.8000;0.6675;1.2532;
911.1000;0.6691;1.2652;
911.4000;0.6659;1.2580;
911.7000;0.6691;1.2580;
912.0000;0.6691;1.2604;
912.3000;0.6740;1.2628;
912.6000;0.6707;1.2700;
912.9000;0.6716;1.2820;
913.2000;0.6740;1.2868;
913.5000;0.6675;1.2628;
913.8000;0.6699;1.2724;
914.1000;0.6699;1.2820;
914.4000;0.6683;1.2820;
914.7000;0.6699;1.2748;
915.0000;0.6699;1.2748;
915.3000;0.6691;1.2844;
915.6000;0.6691;1.2844;
915.9000;0.6691;1.2748;
916.2000;0.6667;1.2676;
916.5000;0.6707;1.2748;
916.8000;0.6683;1.2556;
917.1000;0.6699;1.2628;
917.4000;0.6707;1.2676;
917.7000;0.6691;1.2652;
918.0000;0.6683;1.2772;
918.3000;0.6707;1.2700;
918.6000;0.6699;1.2628;
918.9000;0.6724;1.2748;
919.2000;0.6699;1.2724;
919.5000;0.6691;1.2604;
919.8000;0.6691;1.2556;
920.1000;0.6691;1.2508;
920.4000;0.6675;1.2580;
920.7000;0.6683;1.2580;
921.0000;0.6764;1.2868;
921.3000;0.6667;1.2580;
921.6000;0.6691;1.2676;
921.9000;0.6707;1.2772;
922.2000;0.6683;1.2580;
922.5000;0.6675;1.2556;
922.8000;0.6667;1.2532;
923.1000;0.6756;1.2820;
923.4000;0.6691;1.2748;
923.7000;0.6683;1.2820;
924.0000;0.6691;1.2796;
924.3000;0.6699;1.2796;
924.6000;0.6732;1.2868;
924.9000;0.6691;1.2772;
925.2000;0.6683;1.2820;
925.5000;0.6683;1.2820;
925.8000;0.6634;1.2676;
926.1000;0.6683;1.2868;
926.4000;0.6642;1.2724;
926.7000;0.6675;1.2724;
927.0000;0.6683;1.2820;
927.3000;0.6675;1.2748;
927.6000;0.6667;1.2748;
927.9000;0.6667;1.2724;
928.2000;0.6659;1.2772;
928.5000;0.6675;1.2796;
928.8000;0.6667;1.2772;
929.1000;0.6675;1.2748;
929.4000;0.6724;1.2844;
929.7000;0.6667;1.2724;
930.0000;0.6675;1.2724;
930.3000;0.6683;1.2676;
930.6000;0.6683;1.2700;
930.9000;0.6683;1.2652;
931.2000;0.6667;1.2700;
931.5000;0.6618;1.2508;
931.8000;0.6659;1.2700;
932.1000;0.6683;1.2796;
932.4000;0.6683;1.2700;
932.7000;0.6675;1.2676;
933.0000;0.6634;1.2604;
933.3000;0.6683;1.2748;
933.6000;0.6642;1.2652;
933.9000;0.6667;1.2724;
934.2000;0.6691;1.2652;
934.5000;0.6691;1.2700;
934.8000;0.6642;1.2556;
935.1000;0.6642;1.2532;
935.4000;0.6667;1.2604;
935.7000;0.6659;1.2676;
936.0000;0.6659;1.2532;
936.3000;0.6610;1.2461;
936.6000;0.6659;1.2652;
936.9000;0.6659;1.2628;
937.2000;0.6650;1.2556;
937.5000;0.6650;1.2508;
937.8000;0.6659;1.2484;
938.1000;0.6650;1.2413;
938.4000;0.6650;1.2484;
938.7000;0.6675;1.2461;
939.0000;0.6772;1.2700;
939.3000;0.6675;1.2532;
939.6000;0.6642;1.2461;
939.9000;0.6659;1.2604;
940.2000;0.6667;1.2628;
940.5000;0.6650;1.2700;
940.8000;0.6659;1.2772;
941.1000;0.6602;1.2676;
941.4000;0.6650;1.2700;
941.7000;0.6667;1.2676;
942.0000;0.6683;1.2724;
942.3000;0.6667;1.2604;
942.6000;0.6642;1.2508;
942.9000;0.6650;1.2461;
943.2000;0.6634;1.2365;
943.5000;0.6675;1.2389;
943.8000;0.6675;1.2580;
944.1000;0.6650;1.2580;
944.4000;0.6667;1.2628;
944.7000;0.6650;1.2652;
945.0000;0.6634;1.2580;
945.3000;0.6642;1.2556;
945.6000;0.6650;1.2628;
945.9000;0.6675;1.2652;
946.2000;0.6659;1.2604;
946.5000;0.6667;1.2676;
946.8000;0.6707;1.2724;
947.1000;0.6675;1.2604;
947.4000;0.6675;1.2748;
947.7000;0.6634;1.2652;
948.0000;0.6699;1.2844;
948.3000;0.6618;1.2676;
948.6000;0.6667;1.2700;
948.9000;0.6650;1.2652;
949.2000;0.6634;1.2700;
949.5000;0.6675;1.2748;
949.8000;0.6650;1.2748;
950.1000;0.6642;1.2676;
950.4000;0.6610;1.2652;
950.7000;0.6650;1.2700;
951.0000;0.6650;1.2628;
951.3000;0.6634;1.2484;
951.6000;0.6642;1.2508;
951.9000;0.6634;1.2484;
952.2000;0.6683;1.2676;
952.5000;0.6642;1.2604;
952.8000;0.6634;1.2604;
953.1000;0.6642;1.2484;
953.4000;0.6667;1.2437;
953.7000;0.6634;1.2461;
954.0000;0.6650;1.2413;
954.3000;0.6642;1.2389;
954.6000;0.6716;1.2604;
954.9000;0.6683;1.2532;
955.2000;0.6659;1.2556;
955.5000;0.6667;1.2580;
955.8000;0.6634;1.2580;
956.1000;0.6650;1.2652;
956.4000;0.6593;1.2484;
956.7000;0.6650;1.2700;
957.0000;0.6650;1.2652;
957.3000;0.6707;1.2796;
957.6000;0.6642;1.2556;
957.9000;0.6634;1.2580;
958.2000;0.6634;1.2652;
958.5000;0.6642;1.2748;
958.8000;0.6659;1.2748;
959.1000;0.6724;1.2988;
959.4000;0.6724;1.3012;
959.7000;0.6675;1.2748;
960.0000;0.6667;1.2556;
960.3000;0.6593;1.2389;
960.6000;0.6626;1.2532;
960.9000;0.6536;1.2341;
961.2000;0.6602;1.2508;
961.5000;0.6634;1.2580;
961.8000;0.6569;1.2437;
962.1000;0.6618;1.2532;
962.4000;0.6650;1.2556;
962.7000;0.6642;1.2461;
963.0000;0.6626;1.2461;
963.3000;0.6642;1.2580;
963.6000;0.6659;1.2676;
963.9000;0.6561;1.2461;
964.2000;0.6618;1.2580;
964.5000;0.6626;1.2508;
964.8000;0.6593;1.2437;
965.1000;0.6642;1.2508;
965.4000;0.6659;1.2556;
965.7000;0.6626;1.2437;
966.0000;0.6634;1.2461;
966.3000;0.6724;1.2580;
966.6000;0.6618;1.2341;
966.9000;0.6602;1.2365;
967.2000;0.6659;1.2532;
967.5000;0.6626;1.2484;
967.8000;0.6659;1.2580;
968.1000;0.6650;1.2556;
968.4000;0.6659;1.2532;
968.7000;0.6650;1.2556;
969.0000;0.6618;1.2508;
969.3000;0.6732;1.2772;
969.6000;0.6634;1.2484;
969.9000;0.6659;1.2652;
970.2000;0.6667;1.2724;
970.5000;0.6634;1.2628;
970.8000;0.6618;1.2508;
971.1000;0.6626;1.2556;
971.4000;0.6659;1.2724;
971.7000;0.6618;1.2676;
972.0000;0.6593;1.2556;
972.3000;0.6626;1.2628;
972.6000;0.6634;1.2676;
972.9000;0.6626;1.2652;
973.2000;0.6618;1.2724;
973.5000;0.6650;1.2844;
973.8000;0.6650;1.2796;
974.1000;0.6634;1.2724;
974.4000;0.6618;1.2628;
974.7000;0.6626;1.2652;
975.0000;0.6634;1.2676;
975.3000;0.6659;1.2628;
975.6000;0.6610;1.2461;
975.9000;0.6610;1.2508;
976.2000;0.6618;1.2532;
976.5000;0.6626;1.2604;
976.8000;0.6642;1.2652;
977.1000;0.6602;1.2628;
977.4000;0.6659;1.2676;
977.7000;0.6610;1.2628;
978.0000;0.6642;1.2724;
978.3000;0.6626;1.2628;
978.6000;0.6642;1.2580;
978.9000;0.6618;1.2604;
979.2000;0.6618;1.2724;
979.5000;0.6610;1.2724;
979.8000;0.6593;1.2676;
980.1000;0.6626;1.2772;
980.4000;0.6593;1.2700;
980.7000;0.6610;1.2748;
981.0000;0.6593;1.2628;
981.3000;0.6602;1.2580;
981.6000;0.6602;1.2652;
981.9000;0.6634;1.2676;
982.2000;0.6593;1.2508;
982.5000;0.6585;1.2437;
982.8000;0.6602;1.2556;
983.1000;0.6626;1.2628;
983.4000;0.6602;1.2628;
983.7000;0.6610;1.2604;
984.0000;0.6553;1.2437;
984.3000;0.6610;1.2604;
984.6000;0.6634;1.2676;
984.9000;0.6577;1.2484;
985.2000;0.6593;1.2508;
985.5000;0.6602;1.2700;
985.8000;0.6642;1.2796;
986.1000;0.6683;1.2868;
986.4000;0.6618;1.2676;
986.7000;0.6634;1.2724;
987.0000;0.6634;1.2796;
987.3000;0.6610;1.2748;
987.6000;0.6618;1.2700;
987.9000;0.6528;1.2484;
988.2000;0.6626;1.2556;
988.5000;0.6618;1.2580;
988.8000;0.6602;1.2484;
989.1000;0.6585;1.2532;
989.4000;0.6642;1.2556;
989.7000;0.6618;1.2556;
990.0000;0.6602;1.2580;
990.3000;0.6610;1.2652;
990.6000;0.6618;1.2628;
990.9000;0.6602;1.2508;
991.2000;0.6634;1.2556;
991.5000;0.6618;1.2461;
991.8000;0.6634;1.2604;
992.1000;0.6626;1.2508;
992.4000;0.6642;1.2604;
992.7000;0.6626;1.2556;
993.0000;0.6618;1.2508;
993.3000;0.6634;1.2532;
993.6000;0.6618;1.2508;
993.9000;0.6618;1.2652;
994.2000;0.6610;1.2700;
994.5000;0.6593;1.2604;
994.8000;0.6585;1.2556;
995.1000;0.6602;1.2508;
995.4000;0.6626;1.2580;
995.7000;0.6618;1.2532;
996.0000;0.6593;1.2508;
996.3000;0.6699;1.2748;
996.6000;0.6602;1.2628;
996.9000;0.6593;1.2652;
997.2000;0.6626;1.2724;
997.5000;0.6593;1.2580;
997.8000;0.6585;1.2508;
998.1000;0.6618;1.2604;
998.4000;0.6642;1.2652;
998.7000;0.6610;1.2580;
999.0000;0.6610;1.2556;
999.3000;0.6659;1.2628;
999.6000;0.6602;1.2508;
999.9000;0.6602;1.2437;
1000.2000;0.6602;1.2461;
1000.5000;0.6650;1.2556;
1000.8000;0.6618;1.2532;
1001.1000;0.6618;1.2461;
1001.4000;0.6602;1.2365;
1001.7000;0.6618;1.2413;
1002.0000;0.6602;1.2365;
1002.3000;0.6626;1.2413;
1002.6000;0.6602;1.2317;
1002.9000;0.6585;1.2317;
1003.2000;0.6602;1.2341;
1003.5000;0.6610;1.2484;
1003.8000;0.6585;1.2437;
1004.1000;0.6593;1.2461;
1004.4000;0.6512;1.2317;
1004.7000;0.6593;1.2556;
1005.0000;0.6602;1.2676;
1005.3000;0.6593;1.2676;
1005.6000;0.6602;1.2652;
1005.9000;0.6593;1.2724;
1006.2000;0.6536;1.2604;
1006.5000;0.6593;1.2724;
1006.8000;0.6577;1.2724;
1007.1000;0.6610;1.2724;
1007.4000;0.6659;1.2892;
1007.7000;0.6602;1.2796;
1008.0000;0.6602;1.2820;
1008.3000;0.6585;1.2820;
1008.6000;0.6593;1.2796;
1008.9000;0.6569;1.2796;
1009.2000;0.6602;1.2844;
1009.5000;0.6593;1.2916;
1009.8000;0.6569;1.2868;
1010.1000;0.6602;1.2940;
1010.4000;0.6610;1.2964;
1010.7000;0.6602;1.2892;
1011.0000;0.6618;1.2868;
1011.3000;0.6602;1.2796;
1011.6000;0.6610;1.2724;
1011.9000;0.6610;1.2868;
1012.2000;0.6602;1.2844;
1012.5000;0.6602;1.2700;
1012.8000;0.6593;1.2724;
1013.1000;0.6577;1.2700;
1013.4000;0.6593;1.2796;
1013.7000;0.6602;1.2724;
1014.0000;0.6593;1.2748;
1014.3000;0.6634;1.2940;
1014.6000;0.6602;1.2820;
1014.9000;0.6593;1.2820;
1015.2000;0.6593;1.2820;
1015.5000;0.6593;1.2796;
1015.8000;0.6610;1.2700;
1016.1000;0.6545;1.2484;
1016.4000;0.6593;1.2532;
1016.7000;0.6593;1.2532;
1017.0000;0.6602;1.2604;
1017.3000;0.6667;1.2796;
1017.6000;0.6602;1.2724;
1017.9000;0.6593;1.2772;
1018.2000;0.6593;1.2748;
1018.5000;0.6569;1.2700;
1018.8000;0.6569;1.2724;
1019.1000;0.6602;1.2772;
1019.4000;0.6585;1.2820;
1019.7000;0.6593;1.2868;
1020.0000;0.6626;1.2988;
1020.3000;0.6593;1.2892;
1020.6000;0.6585;1.2916;
1020.9000;0.6593;1.2988;
1021.2000;0.6659;1.3108;
1021.5000;0.6593;1.2940;
1021.8000;0.6642;1.2988;
1022.1000;0.6602;1.2988;
1022.4000;0.6569;1.2916;
1022.7000;0.6610;1.3036;
1023.0000;0.6561;1.2916;
1023.3000;0.6585;1.2940;
1023.6000;0.6585;1.2844;
1023.9000;0.6602;1.2892;
1024.2000;0.6593;1.2820;
1024.5000;0.6577;1.2748;
1024.8000;0.6520;1.2580;
1025.1000;0.6585;1.2748;
1025.4000;0.6569;1.2628;
1025.7000;0.6683;1.2988;
1026.0000;0.6593;1.2796;
1026.3000;0.6602;1.2748;
1026.6000;0.6642;1.2772;
1026.9000;0.6593;1.2652;
1027.2000;0.6569;1.2580;
1027.5000;0.6602;1.2748;
1027.8000;0.6585;1.2820;
1028.1000;0.6593;1.2844;
1028.4000;0.6593;1.2700;
1028.7000;0.6602;1.2676;
1029.0000;0.6569;1.2652;
1029.3000;0.6561;1.2652;
1029.6000;0.6585;1.2724;
1029.9000;0.6675;1.2964;
1030.2000;0.6569;1.2604;
1030.5000;0.6577;1.2580;
1030.8000;0.6553;1.2532;
1031.1000;0.6585;1.2604;
1031.4000;0.6602;1.2676;
1031.7000;0.6577;1.2652;
1032.0000;0.6561;1.2556;
1032.3000;0.6585;1.2580;
1032.6000;0.6585;1.2580;
1032.9000;0.6610;1.2628;
1033.2000;0.6577;1.2604;
1033.5000;0.6585;1.2580;
1033.8000;0.6593;1.2604;
1034.1000;0.6593;1.2676;
1034.4000;0.6585;1.2652;
1034.7000;0.6577;1.2604;
1035.0000;0.6585;1.2628;
1035.3000;0.6593;1.2700;
1035.6000;0.6577;1.2652;
1035.9000;0.6569;1.2700;
1036.2000;0.6553;1.2676;
1036.5000;0.6585;1.2724;
1036.8000;0.6602;1.2628;
1037.1000;0.6520;1.2461;
1037.4000;0.6593;1.2676;
1037.7000;0.6577;1.2700;
1038.0000;0.6585;1.2748;
1038.3000;0.6536;1.2700;
1038.6000;0.6553;1.2772;
1038.9000;0.6479;1.2652;
1039.2000;0.6577;1.2892;
1039.5000;0.6561;1.2868;
1039.8000;0.6577;1.2892;
1040.1000;0.6602;1.2892;
1040.4000;0.6577;1.2820;
1040.7000;0.6585;1.2844;
1041.0000;0.6577;1.2844;
1041.3000;0.6593;1.2796;
1041.6000;0.6577;1.2796;
1041.9000;0.6561;1.2796;
1042.2000;0.6569;1.2916;
1042.5000;0.6593;1.2940;
1042.8000;0.6593;1.2964;
1043.1000;0.6561;1.2868;
1043.4000;0.6577;1.2844;
1043.7000;0.6569;1.2844;
1044.0000;0.6650;1.3084;
1044.3000;0.6569;1.2844;
1044.6000;0.6561;1.2772;
1044.9000;0.6569;1.2748;
1045.2000;0.6634;1.2892;
1045.5000;0.6618;1.2820;
1045.8000;0.6585;1.2796;
1046.1000;0.6585;1.2676;
1046.4000;0.6561;1.2628;
1046.7000;0.6602;1.2676;
1047.0000;0.6577;1.2676;
1047.3000;0.6577;1.2652;
1047.6000;0.6569;1.2676;
1047.9000;0.6585;1.2724;
1048.2000;0.6577;1.2700;
1048.5000;0.6593;1.2772;
1048.8000;0.6545;1.2676;
1049.1000;0.6577;1.2772;
1049.4000;0.6545;1.2652;
1049.7000;0.6569;1.2772;
1050.0000;0.6561;1.2772;
1050.3000;0.6577;1.2772;
1050.6000;0.6577;1.2844;
1050.9000;0.6569;1.2772;
1051.2000;0.6577;1.2748;
1051.5000;0.6577;1.2724;
1051.8000;0.6561;1.2532;
1052.1000;0.6585;1.2580;
1052.4000;0.6577;1.2580;
1052.7000;0.6593;1.2700;
1053.0000;0.6553;1.2532;
1053.3000;0.6642;1.2748;
1053.6000;0.6553;1.2532;
1053.9000;0.6561;1.2461;
1054.2000;0.6610;1.2604;
1054.5000;0.6561;1.2389;
1054.8000;0.6545;1.2389;
1055.1000;0.6593;1.2532;
1055.4000;0.6577;1.2508;
1055.7000;0.6577;1.2532;
1056.0000;0.6618;1.2508;
1056.3000;0.6569;1.2580;
1056.6000;0.6536;1.2556;
1056.9000;0.6561;1.2676;
1057.2000;0.6577;1.2676;
1057.5000;0.6553;1.2748;
1057.8000;0.6569;1.2796;
1058.1000;0.6577;1.2724;
1058.4000;0.6561;1.2724;
1058.7000;0.6561;1.2700;
1059.0000;0.6561;1.2604;
1059.3000;0.6561;1.2628;
1059.6000;0.6553;1.2556;
1059.9000;0.6593;1.2652;
1060.2000;0.6569;1.2652;
1060.5000;0.6569;1.2724;
1060.8000;0.6553;1.2676;
1061.1000;0.6602;1.2748;
1061.4000;0.6577;1.2652;
1061.7000;0.6569;1.2604;
1062.0000;0.6536;1.2484;
1062.3000;0.6528;1.2461;
1062.6000;0.6536;1.2508;
1062.9000;0.6536;1.2532;
1063.2000;0.6553;1.2532;
1063.5000;0.6545;1.2604;
1063.8000;0.6561;1.2700;
1064.1000;0.6610;1.2844;
1064.4000;0.6553;1.2748;
1064.7000;0.6561;1.2844;
1065.0000;0.6569;1.2892;
1065.3000;0.6553;1.2748;
1065.6000;0.6545;1.2724;
1065.9000;0.6610;1.2988;
1066.2000;0.6561;1.2772;
1066.5000;0.6561;1.2748;
1066.8000;0.6561;1.2700;
1067.1000;0.6553;1.2676;
1067.4000;0.6545;1.2604;
1067.7000;0.6520;1.2580;
1068.0000;0.6561;1.2724;
1068.3000;0.6561;1.2676;
1068.6000;0.6569;1.2676;
1068.9000;0.6528;1.2628;
1069.2000;0.6618;1.2820;
1069.5000;0.6553;1.2676;
1069.8000;0.6561;1.2748;
1070.1000;0.6545;1.2700;
1070.4000;0.6561;1.2724;
1070.7000;0.6553;1.2892;
1071.0000;0.6569;1.2988;
1071.3000;0.6577;1.3012;
1071.6000;0.6553;1.2988;
1071.9000;0.6585;1.3012;
1072.2000;0.6569;1.2988;
1072.5000;0.6528;1.2964;
1072.8000;0.6561;1.2964;
1073.1000;0.6536;1.2796;
1073.4000;0.6553;1.2748;
1073.7000;0.6536;1.2676;
1074.0000;0.6528;1.2604;
1074.3000;0.6545;1.2724;
1074.6000;0.6577;1.2772;
1074.9000;0.6545;1.2724;
1075.2000;0.6569;1.2700;
1075.5000;0.6577;1.2604;
1075.8000;0.6610;1.2700;
1076.1000;0.6569;1.2532;
1076.4000;0.6553;1.2461;
1076.7000;0.6561;1.2484;
1077.0000;0.6577;1.2556;
1077.3000;0.6520;1.2389;
1077.6000;0.6561;1.2461;
1077.9000;0.6512;1.2341;
1078.2000;0.6520;1.2365;
1078.5000;0.6545;1.2341;
1078.8000;0.6520;1.2221;
1079.1000;0.6545;1.2317;
1079.4000;0.6642;1.2461;
1079.7000;0.6545;1.2245;
1080.0000;0.6512;1.2221;
1080.3000;0.6561;1.2389;
1080.6000;0.6545;1.2413;
1080.9000;0.6553;1.2532;
1081.2000;0.6553;1.2628;
1081.5000;0.6553;1.2628;
1081.8000;0.6553;1.2724;
1082.1000;0.6553;1.2604;
1082.4000;0.6569;1.2652;
1082.7000;0.6528;1.2604;
1083.0000;0.6553;1.2532;
1083.3000;0.6553;1.2628;
1083.6000;0.6528;1.2604;
1083.9000;0.6536;1.2700;
1084.2000;0.6545;1.2724;
1084.5000;0.6561;1.2748;
1084.8000;0.6561;1.2772;
1085.1000;0.6561;1.2844;
1085.4000;0.6545;1.2724;
1085.7000;0.6569;1.2868;
1086.0000;0.6561;1.2748;
1086.3000;0.6561;1.2724;
1086.6000;0.6561;1.2724;
1086.9000;0.6561;1.2796;
1087.2000;0.6561;1.2844;
1087.5000;0.6553;1.2820;
1087.8000;0.6553;1.2796;
1088.1000;0.6545;1.2844;
1088.4000;0.6553;1.2892;
1088.7000;0.6569;1.2892;
1089.0000;0.6545;1.2916;
1089.3000;0.6553;1.2940;
1089.6000;0.6553;1.2988;
1089.9000;0.6561;1.3012;
1090.2000;0.6528;1.2868;
1090.5000;0.6569;1.2868;
1090.8000;0.6577;1.2868;
1091.1000;0.6545;1.2772;
1091.4000;0.6561;1.2844;
1091.7000;0.6536;1.2772;
1092.0000;0.6545;1.2820;
1092.3000;0.6553;1.2844;
1092.6000;0.6569;1.2892;
1092.9000;0.6553;1.2916;
1093.2000;0.6561;1.2868;
1093.5000;0.6569;1.2988;
1093.8000;0.6536;1.2988;
1094.1000;0.6520;1.2940;
1094.4000;0.6528;1.2892;
1094.7000;0.6561;1.2940;
1095.0000;0.6569;1.2772;
1095.3000;0.6545;1.2604;
1095.6000;0.6545;1.2628;
1095.9000;0.6528;1.2556;
1096.2000;0.6593;1.2820;
1096.5000;0.6553;1.2892;
1096.8000;0.6488;1.2844;
1097.1000;0.6553;1.2916;
1097.4000;0.6553;1.2844;
1097.7000;0.6585;1.2916;
1098.0000;0.6512;1.2628;
1098.3000;0.6561;1.2700;
1098.6000;0.6553;1.2580;
1098.9000;0.6561;1.2580;
1099.2000;0.6593;1.2604;
1099.5000;0.6520;1.2508;
1099.8000;0.6536;1.2461;
1100.1000;0.6545;1.2437;
1100.4000;0.6504;1.2365;
1100.7000;0.6528;1.2365;
1101.0000;0.6455;1.2125;
1101.3000;0.6545;1.2365;
1101.6000;0.6561;1.2413;
1101.9000;0.6610;1.2580;
1102.2000;0.6545;1.2413;
1102.5000;0.6528;1.2461;
1102.8000;0.6536;1.2437;
1103.1000;0.6528;1.2437;
1103.4000;0.6536;1.2461;
1103.7000;0.6545;1.2484;
1104.0000;0.6536;1.2580;
1104.3000;0.6545;1.2676;
1104.6000;0.6536;1.2676;
1104.9000;0.6545;1.2772;
1105.2000;0.6553;1.2844;
1105.5000;0.6561;1.2796;
1105.8000;0.6536;1.2772;
1106.1000;0.6520;1.2796;
1106.4000;0.6536;1.2748;
1106.7000;0.6577;1.2868;
1107.0000;0.6528;1.2796;
1107.3000;0.6479;1.2652;
1107.6000;0.6561;1.2868;
1107.9000;0.6545;1.2868;
1108.2000;0.6528;1.2844;
1108.5000;0.6536;1.2844;
1108.8000;0.6536;1.2820;
1109.1000;0.6528;1.2892;
1109.4000;0.6545;1.2964;
1109.7000;0.6536;1.2892;
1110.0000;0.6545;1.2892;
1110.3000;0.6536;1.2868;
1110.6000;0.6520;1.2748;
1110.9000;0.6545;1.2724;
1111.2000;0.6536;1.2748;
1111.5000;0.6553;1.2724;
1111.8000;0.6545;1.2844;
1112.1000;0.6528;1.2868;
1112.4000;0.6528;1.2844;
1112.7000;0.6545;1.2892;
1113.0000;0.6545;1.2796;
1113.3000;0.6512;1.2628;
1113.6000;0.6528;1.2556;
1113.9000;0.6536;1.2580;
1114.2000;0.6528;1.2580;
1114.5000;0.6536;1.2580;
1114.8000;0.6561;1.2652;
1115.1000;0.6528;1.2628;
1115.4000;0.6520;1.2748;
1115.7000;0.6512;1.2748;
1116.0000;0.6520;1.2700;
1116.3000;0.6512;1.2844;
1116.6000;0.6528;1.2892;
1116.9000;0.6536;1.2964;
1117.2000;0.6536;1.2916;
1117.5000;0.6528;1.2868;
1117.8000;0.6553;1.2916;
1118.1000;0.6536;1.2892;
1118.4000;0.6528;1.2748;
1118.7000;0.6528;1.2868;
1119.0000;0.6553;1.2820;
1119.3000;0.6545;1.2772;
1119.6000;0.6545;1.2820;
1119.9000;0.6528;1.2748;
1120.2000;0.6528;1.2676;
1120.5000;0.6545;1.2676;
1120.8000;0.6520;1.2724;
1121.1000;0.6536;1.2748;
1121.4000;0.6528;1.2844;
1121.7000;0.6528;1.2796;
1122.0000;0.6528;1.2796;
1122.3000;0.6520;1.2772;
1122.6000;0.6528;1.2772;
1122.9000;0.6512;1.2820;
1123.2000;0.6528;1.2772;
1123.5000;0.6528;1.2796;
1123.8000;0.6520;1.2772;
1124.1000;0.6577;1.2940;
1124.4000;0.6536;1.2916;
1124.7000;0.6545;1.2844;
1125.0000;0.6520;1.2820;
1125.3000;0.6520;1.2892;
1125.6000;0.6520;1.2940;
1125.9000;0.6536;1.2820;
1126.2000;0.6528;1.2868;
1126.5000;0.6528;1.2892;
1126.8000;0.6528;1.2916;
1127.1000;0.6528;1.2940;
1127.4000;0.6504;1.2892;
1127.7000;0.6512;1.2892;
1128.0000;0.6504;1.2796;
1128.3000;0.6528;1.2868;
1128.6000;0.6520;1.2868;
1128.9000;0.6536;1.2892;
1129.2000;0.6512;1.2868;
1129.5000;0.6520;1.2844;
1129.8000;0.6528;1.2820;
1130.1000;0.6528;1.2772;
1130.4000;0.6536;1.2772;
1130.7000;0.6520;1.2748;
1131.0000;0.6520;1.2724;
1131.3000;0.6520;1.2676;
1131.6000;0.6545;1.2700;
1131.9000;0.6545;1.2652;
1132.2000;0.6553;1.2652;
1132.5000;0.6536;1.2628;
1132.8000;0.6536;1.2700;
1133.1000;0.6553;1.2796;
1133.4000;0.6553;1.2772;
1133.7000;0.6536;1.2724;
1134.0000;0.6536;1.2652;
1134.3000;0.6528;1.2652;
1134.6000;0.6545;1.2676;
1134.9000;0.6512;1.2652;
1135.2000;0.6520;1.2748;
1135.5000;0.6520;1.2724;
1135.8000;0.6496;1.2748;
1136.1000;0.6520;1.2772;
1136.4000;0.6512;1.2724;
1136.7000;0.6536;1.2844;
1137.0000;0.6536;1.2868;
1137.3000;0.6520;1.2796;
1137.6000;0.6553;1.2868;
1137.9000;0.6569;1.2892;
1138.2000;0.6512;1.2628;
1138.5000;0.6528;1.2700;
1138.8000;0.6545;1.2772;
1139.1000;0.6520;1.2772;
1139.4000;0.6528;1.2748;
1139.7000;0.6520;1.2628;
1140.0000;0.6520;1.2652;
1140.3000;0.6528;1.2748;
1140.6000;0.6512;1.2724;
1140.9000;0.6528;1.2772;
1141.2000;0.6504;1.2724;
1141.5000;0.6520;1.2748;
1141.8000;0.6520;1.2724;
1142.1000;0.6553;1.2748;
1142.4000;0.6520;1.2652;
1142.7000;0.6520;1.2652;
1143.0000;0.6545;1.2772;
1143.3000;0.6520;1.2748;
1143.6000;0.6528;1.2724;
1143.9000;0.6512;1.2652;
1144.2000;0.6520;1.2628;
1144.5000;0.6512;1.2652;
1144.8000;0.6528;1.2652;
1145.1000;0.6528;1.2580;
1145.4000;0.6520;1.2652;
1145.7000;0.6520;1.2604;
1146.0000;0.6536;1.2676;
1146.3000;0.6536;1.2652;
1146.6000;0.6528;1.2628;
1146.9000;0.6520;1.2676;
1147.2000;0.6634;1.2868;
1147.5000;0.6528;1.2628;
1147.8000;0.6520;1.2676;
1148.1000;0.6536;1.2844;
1148.4000;0.6536;1.2796;
1148.7000;0.6520;1.2796;
1149.0000;0.6553;1.2964;
1149.3000;0.6553;1.2916;
1149.6000;0.6512;1.2844;
1149.9000;0.6528;1.2892;
1150.2000;0.6536;1.2868;
1150.5000;0.6504;1.2820;
1150.8000;0.6504;1.2700;
1151.1000;0.6569;1.2820;
1151.4000;0.6504;1.2820;
1151.7000;0.6504;1.2844;
1152.0000;0.6610;1.3108;
1152.3000;0.6512;1.2892;
1152.6000;0.6536;1.2868;
1152.9000;0.6479;1.2748;
1153.2000;0.6496;1.2868;
1153.5000;0.6528;1.2988;
1153.8000;0.6520;1.2940;
1154.1000;0.6553;1.2868;
1154.4000;0.6512;1.2820;
1154.7000;0.6528;1.2868;
1155.0000;0.6520;1.2892;
1155.3000;0.6528;1.2796;
1155.6000;0.6504;1.2676;
1155.9000;0.6504;1.2748;
1156.2000;0.6512;1.2772;
1156.5000;0.6512;1.2724;
1156.8000;0.6504;1.2748;
1157.1000;0.6585;1.2988;
1157.4000;0.6536;1.2868;
1157.7000;0.6536;1.2868;
1158.0000;0.6528;1.2844;
1158.3000;0.6528;1.2844;
1158.6000;0.6520;1.2892;
1158.9000;0.6553;1.2964;
1159.2000;0.6536;1.2892;
1159.5000;0.6536;1.2916;
1159.8000;0.6496;1.2844;
1160.1000;0.6553;1.2988;
1160.4000;0.6528;1.2916;
1160.7000;0.6520;1.2892;
1161.0000;0.6561;1.2988;
1161.3000;0.6512;1.2868;
1161.6000;0.6512;1.2724;
1161.9000;0.6520;1.2724;
1162.2000;0.6528;1.2772;
1162.5000;0.6528;1.2892;
1162.8000;0.6569;1.2940;
1163.1000;0.6488;1.2724;
1163.4000;0.6512;1.2772;
1163.7000;0.6528;1.2892;
1164.0000;0.6504;1.2796;
1164.3000;0.6488;1.2628;
1164.6000;0.6512;1.2676;
1164.9000;0.6504;1.2676;
1165.2000;0.6504;1.2628;
1165.5000;0.6528;1.2724;
1165.8000;0.6520;1.2676;
1166.1000;0.6512;1.2676;
1166.4000;0.6512;1.2628;
1166.7000;0.6496;1.2676;
1167.0000;0.6520;1.2724;
1167.3000;0.6520;1.2724;
1167.6000;0.6528;1.2676;
1167.9000;0.6528;1.2748;
1168.2000;0.6512;1.2724;
1168.5000;0.6504;1.2676;
1168.8000;0.6512;1.2724;
1169.1000;0.6528;1.2724;
1169.4000;0.6569;1.2916;
1169.7000;0.6520;1.2748;
1170.0000;0.6512;1.2652;
1170.3000;0.6512;1.2652;
1170.6000;0.6504;1.2652;
1170.9000;0.6447;1.2580;
1171.2000;0.6512;1.2772;
1171.5000;0.6504;1.2748;
1171.8000;0.6520;1.2796;
1172.1000;0.6504;1.2724;
1172.4000;0.6414;1.2604;
1172.7000;0.6520;1.2844;
1173.0000;0.6520;1.2796;
1173.3000;0.6479;1.2820;
1173.6000;0.6536;1.2940;
1173.9000;0.6520;1.2940;
1174.2000;0.6520;1.2988;
1174.5000;0.6504;1.3036;
1174.8000;0.6496;1.2964;
1175.1000;0.6512;1.2988;
1175.4000;0.6528;1.2988;
1175.7000;0.6512;1.2988;
1176.0000;0.6496;1.2868;
1176.3000;0.6520;1.2868;
1176.6000;0.6504;1.2796;
1176.9000;0.6488;1.2724;
1177.2000;0.6512;1.2700;
1177.5000;0.6528;1.2724;
1177.8000;0.6528;1.2724;
1178.1000;0.6504;1.2724;
1178.4000;0.6545;1.2964;
1178.7000;0.6504;1.2868;
1179.0000;0.6512;1.2844;
1179.3000;0.6520;1.2916;
1179.6000;0.6520;1.2892;
1179.9000;0.6512;1.2892;
1180.2000;0.6488;1.2820;
1180.5000;0.6504;1.2988;
1180.8000;0.6504;1.2868;
1181.1000;0.6496;1.2844;
1181.4000;0.6496;1.2844;
1181.7000;0.6488;1.2988;
1182.0000;0.6479;1.2916;
1182.3000;0.6512;1.2988;
1182.6000;0.6504;1.3036;
1182.9000;0.6553;1.3036;
1183.2000;0.6496;1.2892;
1183.5000;0.6512;1.2844;
1183.8000;0.6512;1.2844;
1184.1000;0.6528;1.2748;
1184.4000;0.6536;1.2772;
1184.7000;0.6520;1.2796;
1185.0000;0.6536;1.2892;
1185.3000;0.6512;1.2940;
1185.6000;0.6512;1.2868;
1185.9000;0.6496;1.2868;
1186.2000;0.6504;1.2940;
1186.5000;0.6528;1.3012;
1186.8000;0.6545;1.3108;
1187.1000;0.6512;1.2940;
1187.4000;0.6545;1.3131;
1187.7000;0.6528;1.2988;
1188.0000;0.6520;1.3060;
1188.3000;0.6528;1.3108;
1188.6000;0.6520;1.3131;
1188.9000;0.6496;1.3036;
1189.2000;0.6512;1.3108;
1189.5000;0.6512;1.3131;
1189.8000;0.6488;1.3131;
1190.1000;0.6504;1.3108;
1190.4000;0.6496;1.3036;
1190.7000;0.6561;1.3036;
1191.0000;0.6512;1.2916;
1191.3000;0.6504;1.2844;
1191.6000;0.6504;1.2772;
1191.9000;0.6528;1.2820;
1192.2000;0.6496;1.2772;
1192.5000;0.6504;1.2772;
1192.8000;0.6512;1.2820;
1193.1000;0.6504;1.2868;
1193.4000;0.6488;1.2844;
1193.7000;0.6479;1.2796;
1194.0000;0.6545;1.2916;
1194.3000;0.6496;1.2748;
1194.6000;0.6512;1.2772;
1194.9000;0.6455;1.2580;
1195.2000;0.6479;1.2604;
1195.5000;0.6504;1.2676;
1195.8000;0.6536;1.2820;
1196.1000;0.6504;1.2724;
1196.4000;0.6504;1.2724;
1196.7000;0.6520;1.2772;
1197.0000;0.6496;1.2724;
1197.3000;0.6496;1.2868;
1197.6000;0.6488;1.2868;
1197.9000;0.6504;1.2892;
1198.2000;0.6504;1.2940;
1198.5000;0.6512;1.2964;
1198.8000;0.6553;1.2964;
1199.1000;0.6496;1.2820;
1199.4000;0.6504;1.2724;
1199.7000;0.6520;1.2676;
1200.0000;0.6520;1.2652;
1200.3000;0.6512;1.2580;
1200.6000;0.6496;1.2532;
1200.9000;0.6488;1.2413;
1201.2000;0.6479;1.2461;
1201.5000;0.6496;1.2676;
1201.8000;0.6496;1.2628;
1202.1000;0.6504;1.2772;
1202.4000;0.6488;1.2772;
1202.7000;0.6496;1.2868;
1203.0000;0.6504;1.2892;
1203.3000;0.6512;1.2940;
1203.6000;0.6512;1.2940;
1203.9000;0.6528;1.2988;
1204.2000;0.6618;1.3227;
1204.5000;0.6545;1.3060;
1204.8000;0.6496;1.2964;
1205.1000;0.6512;1.2916;
1205.4000;0.6471;1.2892;
1205.7000;0.6504;1.3036;
1206.0000;0.6504;1.3036;
1206.3000;0.6496;1.3012;
1206.6000;0.6471;1.2940;
1206.9000;0.6488;1.2964;
1207.2000;0.6479;1.2916;
1207.5000;0.6504;1.2988;
1207.8000;0.6512;1.2892;
1208.1000;0.6504;1.2844;
1208.4000;0.6520;1.2820;
1208.7000;0.6512;1.2892;
1209.0000;0.6602;1.3036;
1209.3000;0.6512;1.2820;
1209.6000;0.6488;1.2748;
1209.9000;0.6504;1.2700;
1210.2000;0.6479;1.2676;
1210.5000;0.6488;1.2772;
1210.8000;0.6504;1.2820;
1211.1000;0.6488;1.2868;
1211.4000;0.6496;1.2892;
1211.7000;0.6496;1.2892;
1212.0000;0.6479;1.2868;
1212.3000;0.6496;1.2916;
1212.6000;0.6504;1.2940;
1212.9000;0.6463;1.2844;
1213.2000;0.6463;1.2892;
1213.5000;0.6496;1.2868;
1213.8000;0.6504;1.2916;
1214.1000;0.6504;1.2940;
1214.4000;0.6512;1.2988;
1214.7000;0.6553;1.3131;
1215.0000;0.6512;1.3060;
1215.3000;0.6488;1.2988;
1215.6000;0.6504;1.2964;
1215.9000;0.6496;1.3012;
1216.2000;0.6496;1.2988;
1216.5000;0.6488;1.3012;
1216.8000;0.6382;1.2772;
1217.1000;0.6479;1.3036;
1217.4000;0.6488;1.3084;
1217.7000;0.6471;1.3108;
1218.0000;0.6374;1.2820;
1218.3000;0.6496;1.2988;
1218.6000;0.6496;1.2940;
1218.9000;0.6479;1.2940;
1219.2000;0.6488;1.2916;
1219.5000;0.6488;1.2916;
1219.8000;0.6504;1.2940;
1220.1000;0.6504;1.2868;
1220.4000;0.6488;1.2940;
1220.7000;0.6496;1.2940;
1221.0000;0.6488;1.2988;
1221.3000;0.6463;1.2820;
1221.6000;0.6488;1.2844;
1221.9000;0.6479;1.2916;
1222.2000;0.6496;1.2892;
1222.5000;0.6496;1.2892;
1222.8000;0.6504;1.2892;
1223.1000;0.6463;1.2844;
1223.4000;0.6496;1.2844;
1223.7000;0.6479;1.2820;
1224.0000;0.6479;1.2892;
1224.3000;0.6479;1.2916;
1224.6000;0.6488;1.3036;
1224.9000;0.6488;1.3131;
1225.2000;0.6439;1.3060;
1225.5000;0.6479;1.3084;
1225.8000;0.6479;1.3036;
1226.1000;0.6382;1.2892;
1226.4000;0.6488;1.3084;
1226.7000;0.6496;1.2940;
1227.0000;0.6504;1.2892;
1227.3000;0.6512;1.2796;
1227.6000;0.6536;1.2892;
1227.9000;0.6496;1.2724;
1228.2000;0.6504;1.2676;
1228.5000;0.6504;1.2676;
1228.8000;0.6512;1.2724;
1229.1000;0.6496;1.2700;
1229.4000;0.6496;1.2700;
1229.7000;0.6471;1.2772;
1230.0000;0.6504;1.2868;
1230.3000;0.6545;1.2964;
1230.6000;0.6504;1.2844;
1230.9000;0.6488;1.2844;
1231.2000;0.6488;1.2844;
1231.5000;0.6463;1.2748;
1231.8000;0.6463;1.2844;
1232.1000;0.6496;1.2988;
1232.4000;0.6488;1.2940;
1232.7000;0.6504;1.2964;
1233.0000;0.6479;1.2916;
1233.3000;0.6545;1.3131;
1233.6000;0.6545;1.3084;
1233.9000;0.6496;1.2964;
1234.2000;0.6488;1.3060;
1234.5000;0.6496;1.3108;
1234.8000;0.6488;1.3179;
1235.1000;0.6496;1.3060;
1235.4000;0.6512;1.2964;
1235.7000;0.6496;1.2868;
1236.0000;0.6479;1.2844;
1236.3000;0.6488;1.2940;
1236.6000;0.6488;1.2964;
1236.9000;0.6488;1.2964;
1237.2000;0.6488;1.2964;
1237.5000;0.6488;1.3060;
1237.8000;0.6479;1.3060;
1238.1000;0.6561;1.3203;
1238.4000;0.6488;1.2916;
1238.7000;0.6488;1.3012;
1239.0000;0.6496;1.3036;
1239.3000;0.6488;1.2988;
1239.6000;0.6504;1.3036;
1239.9000;0.6488;1.2964;
1240.2000;0.6471;1.2868;
1240.5000;0.6528;1.2892;
1240.8000;0.6471;1.2724;
1241.1000;0.6488;1.2724;
1241.4000;0.6512;1.2844;
1241.7000;0.6496;1.2820;
1242.0000;0.6390;1.2604;
1242.3000;0.6512;1.3012;
1242.6000;0.6479;1.2916;
1242.9000;0.6471;1.2940;
1243.2000;0.6463;1.2916;
1243.5000;0.6479;1.2940;
1243.8000;0.6488;1.2916;
1244.1000;0.6504;1.2796;
1244.4000;0.6471;1.2796;
1244.7000;0.6569;1.3084;
1245.0000;0.6504;1.2964;
1245.3000;0.6496;1.3036;
1245.6000;0.6496;1.3060;
1245.9000;0.6488;1.3036;
1246.2000;0.6504;1.3060;
1246.5000;0.6504;1.2964;
1246.8000;0.6496;1.2796;
1247.1000;0.6545;1.2820;
1247.4000;0.6496;1.2748;
1247.7000;0.6504;1.2796;
1248.0000;0.6512;1.2892;
1248.3000;0.6488;1.2844;
1248.6000;0.6471;1.2844;
1248.9000;0.6520;1.2916;
1249.2000;0.6520;1.2964;
1249.5000;0.6504;1.2892;
1249.8000;0.6504;1.2844;
1250.1000;0.6488;1.2796;
1250.4000;0.6536;1.2892;
1250.7000;0.6520;1.2868;
1251.0000;0.6504;1.2964;
1251.3000;0.6512;1.2964;
1251.6000;0.6496;1.2964;
1251.9000;0.6496;1.3036;
1252.2000;0.6471;1.2964;
1252.5000;0.6479;1.2964;
1252.8000;0.6553;1.3203;
1253.1000;0.6479;1.2916;
1253.4000;0.6447;1.2820;
1253.7000;0.6488;1.2940;
1254.0000;0.6520;1.3012;
1254.3000;0.6439;1.2772;
1254.6000;0.6496;1.2940;
1254.9000;0.6488;1.2916;
1255.2000;0.6512;1.2916;
1255.5000;0.6496;1.2892;
1255.8000;0.6488;1.2892;
1256.1000;0.6463;1.2868;
1256.4000;0.6479;1.2940;
1256.7000;0.6496;1.3060;
1257.0000;0.6471;1.2988;
1257.3000;0.6479;1.3084;
1257.6000;0.6479;1.3012;
1257.9000;0.6479;1.2988;
1258.2000;0.6471;1.2964;
1258.5000;0.6479;1.2916;
1258.8000;0.6479;1.2820;
1259.1000;0.6488;1.2772;
1259.4000;0.6471;1.2652;
1259.7000;0.6488;1.2724;
1260.0000;0.6528;1.2844;
1260.3000;0.6496;1.2844;
1260.6000;0.6479;1.2796;
1260.9000;0.6488;1.2868;
1261.2000;0.6488;1.2748;
1261.5000;0.6479;1.2652;
1261.8000;0.6520;1.2844;
1262.1000;0.6488;1.2748;
1262.4000;0.6488;1.2748;
1262.7000;0.6479;1.2724;
1263.0000;0.6447;1.2628;
1263.3000;0.6431;1.2532;
1263.6000;0.6431;1.2652;
1263.9000;0.6479;1.2724;
1264.2000;0.6479;1.2724;
1264.5000;0.6504;1.2868;
1264.8000;0.6488;1.2820;
1265.1000;0.6496;1.2892;
1265.4000;0.6496;1.2988;
1265.7000;0.6479;1.3012;
1266.0000;0.6471;1.2964;
1266.3000;0.6463;1.2916;
1266.6000;0.6479;1.2892;
1266.9000;0.6479;1.2844;
1267.2000;0.6479;1.2916;
1267.5000;0.6471;1.2964;
1267.8000;0.6447;1.2916;
1268.1000;0.6488;1.2964;
1268.4000;0.6471;1.2916;
1268.7000;0.6479;1.2868;
1269.0000;0.6488;1.2892;
1269.3000;0.6463;1.2892;
1269.6000;0.6479;1.2964;
1269.9000;0.6488;1.3036;
1270.2000;0.6471;1.3060;
1270.5000;0.6479;1.3036;
1270.8000;0.6512;1.2964;
1271.1000;0.6512;1.2940;
1271.4000;0.6488;1.2940;
1271.7000;0.6488;1.2892;
1272.0000;0.6479;1.2820;
1272.3000;0.6496;1.2868;
1272.6000;0.6431;1.2628;
1272.9000;0.6488;1.2724;
1273.2000;0.6406;1.2556;
1273.5000;0.6479;1.2796;
1273.8000;0.6479;1.2724;
1274.1000;0.6496;1.2652;
1274.4000;0.6488;1.2652;
1274.7000;0.6479;1.2700;
1275.0000;0.6471;1.2748;
1275.3000;0.6471;1.2844;
1275.6000;0.6455;1.2844;
1275.9000;0.6496;1.3060;
1276.2000;0.6488;1.3084;
1276.5000;0.6463;1.3036;
1276.8000;0.6479;1.3036;
1277.1000;0.6488;1.3179;
1277.4000;0.6479;1.3131;
1277.7000;0.6463;1.3131;
1278.0000;0.6471;1.3108;
1278.3000;0.6479;1.3203;
1278.6000;0.6447;1.3012;
1278.9000;0.6479;1.3084;
1279.2000;0.6471;1.3108;
1279.5000;0.6479;1.3179;
1279.8000;0.6496;1.3227;
1280.1000;0.6431;1.3084;
1280.4000;0.6463;1.3084;
1280.7000;0.6471;1.2964;
1281.0000;0.6479;1.2964;
1281.3000;0.6463;1.3060;
1281.6000;0.6463;1.3060;
1281.9000;0.6455;1.2988;
1282.2000;0.6488;1.2988;
1282.5000;0.6488;1.2988;
1282.8000;0.6528;1.3012;
1283.1000;0.6479;1.2964;
1283.4000;0.6471;1.2988;
1283.7000;0.6488;1.2964;
1284.0000;0.6447;1.2820;
1284.3000;0.6504;1.2988;
1284.6000;0.6504;1.3012;
1284.9000;0.6479;1.2964;
1285.2000;0.6504;1.3036;
1285.5000;0.6504;1.3036;
1285.8000;0.6439;1.2916;
1286.1000;0.6479;1.2916;
1286.4000;0.6488;1.2916;
1286.7000;0.6488;1.2988;
1287.0000;0.6471;1.3060;
1287.3000;0.6463;1.2964;
1287.6000;0.6455;1.2892;
1287.9000;0.6439;1.3012;
1288.2000;0.6471;1.3012;
1288.5000;0.6455;1.2940;
1288.8000;0.6488;1.3036;
1289.1000;0.6455;1.2964;
1289.4000;0.6455;1.2964;
1289.7000;0.6463;1.3036;
1290.0000;0.6618;1.3419;
1290.3000;0.6471;1.3036;
1290.6000;0.6463;1.3108;
1290.9000;0.6463;1.3108;
1291.2000;0.6488;1.3203;
1291.5000;0.6479;1.3084;
1291.8000;0.6471;1.3060;
1292.1000;0.6479;1.3060;
1292.4000;0.6479;1.2940;
1292.7000;0.6471;1.2868;
1293.0000;0.6488;1.2916;
1293.3000;0.6463;1.2916;
1293.6000;0.6471;1.2844;
1293.9000;0.6496;1.2940;
1294.2000;0.6488;1.2820;
1294.5000;0.6471;1.2724;
1294.8000;0.6496;1.2796;
1295.1000;0.6496;1.2772;
1295.4000;0.6463;1.2652;
1295.7000;0.6463;1.2628;
1296.0000;0.6488;1.2700;
1296.3000;0.6471;1.2700;
1296.6000;0.6496;1.2796;
1296.9000;0.6455;1.2748;
1297.2000;0.6479;1.2748;
1297.5000;0.6479;1.2820;
1297.8000;0.6463;1.2820;
1298.1000;0.6463;1.2772;
1298.4000;0.6455;1.2772;
1298.7000;0.6471;1.2844;
1299.0000;0.6463;1.2748;
1299.3000;0.6471;1.2844;
1299.6000;0.6463;1.2772;
1299.9000;0.6447;1.2796;
1300.2000;0.6479;1.2748;
1300.5000;0.6471;1.2796;
1300.8000;0.6463;1.2916;
1301.1000;0.6504;1.2940;
1301.4000;0.6431;1.2796;
1301.7000;0.6488;1.2892;
1302.0000;0.6439;1.2748;
1302.3000;0.6455;1.2772;
1302.6000;0.6479;1.2868;
1302.9000;0.6471;1.2724;
1303.2000;0.6471;1.2748;
1303.5000;0.6463;1.2724;
1303.8000;0.6455;1.2724;
1304.1000;0.6471;1.2700;
1304.4000;0.6504;1.2796;
1304.7000;0.6463;1.2724;
1305.0000;0.6496;1.2916;
1305.3000;0.6471;1.2892;
1305.6000;0.6471;1.2892;
1305.9000;0.6528;1.2892;
1306.2000;0.6447;1.2820;
1306.5000;0.6488;1.2916;
1306.8000;0.6463;1.2820;
1307.1000;0.6471;1.2892;
1307.4000;0.6496;1.2892;
1307.7000;0.6528;1.2988;
1308.0000;0.6463;1.2940;
1308.3000;0.6504;1.2964;
1308.6000;0.6471;1.2940;
1308.9000;0.6431;1.2796;
1309.2000;0.6504;1.2916;
1309.5000;0.6545;1.3108;
1309.8000;0.6471;1.2988;
1310.1000;0.6479;1.3060;
1310.4000;0.6471;1.3036;
1310.7000;0.6471;1.2940;
1311.0000;0.6471;1.2940;
1311.3000;0.6471;1.3060;
1311.6000;0.6471;1.3084;
1311.9000;0.6479;1.3012;
1312.2000;0.6471;1.2940;
1312.5000;0.6471;1.3012;
1312.8000;0.6479;1.3036;
1313.1000;0.6471;1.3084;
1313.4000;0.6455;1.3012;
1313.7000;0.6471;1.3036;
1314.0000;0.6455;1.3060;
1314.3000;0.6471;1.3060;
1314.6000;0.6463;1.3060;
1314.9000;0.6471;1.2964;
1315.2000;0.6488;1.3084;
1315.5000;0.6488;1.3036;
1315.8000;0.6488;1.3036;
1316.1000;0.6463;1.2844;
1316.4000;0.6504;1.2916;
1316.7000;0.6488;1.2892;
1317.0000;0.6471;1.2868;
1317.3000;0.6488;1.2844;
1317.6000;0.6471;1.2868;
1317.9000;0.6463;1.2916;
1318.2000;0.6406;1.2748;
1318.5000;0.6488;1.2916;
1318.8000;0.6463;1.2844;
1319.1000;0.6463;1.2796;
1319.4000;0.6479;1.2700;
1319.7000;0.6488;1.2724;
1320.0000;0.6463;1.2748;
1320.3000;0.6479;1.2844;
1320.6000;0.6488;1.2940;
1320.9000;0.6471;1.2868;
1321.2000;0.6496;1.2988;
1321.5000;0.6488;1.2988;
1321.8000;0.6479;1.3012;
1322.1000;0.6471;1.3084;
1322.4000;0.6471;1.3060;
1322.7000;0.6471;1.3012;
1323.0000;0.6479;1.2964;
1323.3000;0.6504;1.3012;
1323.6000;0.6479;1.2916;
1323.9000;0.6439;1.2844;
1324.2000;0.6471;1.2916;
1324.5000;0.6471;1.2868;
1324.8000;0.6463;1.2772;
1325.1000;0.6463;1.2748;
1325.4000;0.6496;1.2844;
1325.7000;0.6471;1.2772;
1326.0000;0.6463;1.2868;
1326.3000;0.6463;1.2964;
1326.6000;0.6479;1.2940;
1326.9000;0.6488;1.2916;
1327.2000;0.6471;1.2796;
1327.5000;0.6471;1.2772;
1327.8000;0.6504;1.2844;
1328.1000;0.6496;1.2892;
1328.4000;0.6463;1.2844;
1328.7000;0.6479;1.2820;
1329.0000;0.6431;1.2868;
1329.3000;0.6471;1.2988;
1329.6000;0.6471;1.2988;
1329.9000;0.6455;1.3012;
1330.2000;0.6447;1.2916;
1330.5000;0.6471;1.2964;
1330.8000;0.6471;1.2940;
1331.1000;0.6455;1.2844;
1331.4000;0.6479;1.2868;
1331.7000;0.6463;1.2868;
1332.0000;0.6488;1.2916;
1332.3000;0.6479;1.2868;
1332.6000;0.6471;1.2796;
1332.9000;0.6471;1.2796;
1333.2000;0.6471;1.2916;
1333.5000;0.6463;1.2892;
1333.8000;0.6455;1.2892;
1334.1000;0.6390;1.2772;
1334.4000;0.6455;1.2916;
1334.7000;0.6455;1.2916;
1335.0000;0.6439;1.2892;
1335.3000;0.6479;1.2988;
1335.6000;0.6479;1.2940;
1335.9000;0.6479;1.2892;
1336.2000;0.6479;1.2868;
1336.5000;0.6463;1.2892;
1336.8000;0.6463;1.2868;
1337.1000;0.6463;1.2844;
1337.4000;0.6463;1.2724;
1337.7000;0.6439;1.2676;
1338.0000;0.6463;1.2820;
1338.3000;0.6455;1.2844;
1338.6000;0.6463;1.2844;
1338.9000;0.6471;1.2868;
1339.2000;0.6447;1.2868;
1339.5000;0.6471;1.2940;
1339.8000;0.6479;1.2988;
1340.1000;0.6447;1.2892;
1340.4000;0.6463;1.2964;
1340.7000;0.6471;1.2916;
1341.0000;0.6479;1.2940;
1341.3000;0.6439;1.2916;
1341.6000;0.6577;1.3203;
1341.9000;0.6479;1.2916;
1342.2000;0.6439;1.2844;
1342.5000;0.6455;1.2868;
1342.8000;0.6471;1.2820;
1343.1000;0.6455;1.2652;
1343.4000;0.6447;1.2628;
1343.7000;0.6463;1.2724;
1344.0000;0.6463;1.2700;
1344.3000;0.6455;1.2676;
1344.6000;0.6463;1.2724;
1344.9000;0.6447;1.2748;
1345.2000;0.6455;1.2772;
1345.5000;0.6455;1.2748;
1345.8000;0.6488;1.2772;
1346.1000;0.6463;1.2748;
1346.4000;0.6471;1.2796;
1346.7000;0.6471;1.2724;
1347.0000;0.6447;1.2724;
1347.3000;0.6463;1.2652;
1347.6000;0.6471;1.2796;
1347.9000;0.6455;1.2748;
1348.2000;0.6463;1.2724;
1348.5000;0.6471;1.2772;
1348.8000;0.6471;1.2820;
1349.1000;0.6447;1.2796;
1349.4000;0.6439;1.2700;
1349.7000;0.6463;1.2772;
1350.0000;0.6471;1.2796;
1350.3000;0.6471;1.2724;
1350.6000;0.6471;1.2652;
1350.9000;0.6479;1.2604;
1351.2000;0.6471;1.2700;
1351.5000;0.6471;1.2772;
1351.8000;0.6422;1.2652;
1352.1000;0.6447;1.2844;
1352.4000;0.6471;1.2916;
1352.7000;0.6447;1.2796;
1353.0000;0.6528;1.2892;
1353.3000;0.6471;1.2652;
1353.6000;0.6447;1.2628;
1353.9000;0.6455;1.2724;
1354.2000;0.6455;1.2820;
1354.5000;0.6471;1.2748;
1354.8000;0.6455;1.2652;
1355.1000;0.6479;1.2724;
1355.4000;0.6463;1.2652;
1355.7000;0.6463;1.2652;
1356.0000;0.6488;1.2772;
1356.3000;0.6455;1.2844;
1356.6000;0.6455;1.2796;
1356.9000;0.6455;1.2820;
1357.2000;0.6455;1.2796;
1357.5000;0.6455;1.2724;
1357.8000;0.6447;1.2676;
1358.1000;0.6471;1.2652;
1358.4000;0.6439;1.2604;
1358.7000;0.6463;1.2604;
1359.0000;0.6463;1.2628;
1359.3000;0.6447;1.2700;
1359.6000;0.6455;1.2748;
1359.9000;0.6406;1.2604;
1360.2000;0.6455;1.2748;
1360.5000;0.6455;1.2724;
1360.8000;0.6463;1.2748;
1361.1000;0.6455;1.2772;
1361.4000;0.6479;1.2916;
1361.7000;0.6463;1.2892;
1362.0000;0.6455;1.2772;
1362.3000;0.6455;1.2700;
1362.6000;0.6553;1.2916;
1362.9000;0.6447;1.2724;
1363.2000;0.6471;1.2820;
1363.5000;0.6463;1.2748;
1363.8000;0.6463;1.2772;
1364.1000;0.6471;1.2892;
1364.4000;0.6471;1.2916;
1364.7000;0.6471;1.2988;
1365.0000;0.6463;1.2988;
1365.3000;0.6463;1.2988;
1365.6000;0.6447;1.2964;
1365.9000;0.6455;1.2940;
1366.2000;0.6471;1.2988;
1366.5000;0.6471;1.3012;
1366.8000;0.6479;1.3084;
1367.1000;0.6447;1.2940;
1367.4000;0.6479;1.3012;
1367.7000;0.6455;1.2988;
1368.0000;0.6471;1.3012;
1368.3000;0.6488;1.2964;
1368.6000;0.6390;1.2724;
1368.9000;0.6463;1.2964;
1369.2000;0.6463;1.2916;
1369.5000;0.6512;1.2940;
1369.8000;0.6422;1.2676;
1370.1000;0.6463;1.2700;
1370.4000;0.6479;1.2676;
1370.7000;0.6463;1.2700;
1371.0000;0.6496;1.2772;
1371.3000;0.6512;1.2892;
1371.6000;0.6455;1.2796;
1371.9000;0.6447;1.2748;
1372.2000;0.6463;1.2844;
1372.5000;0.6455;1.2916;
1372.8000;0.6439;1.2868;
1373.1000;0.6479;1.2964;
1373.4000;0.6447;1.2916;
1373.7000;0.6455;1.2892;
1374.0000;0.6455;1.2844;
1374.3000;0.6447;1.2868;
1374.6000;0.6463;1.2844;
1374.9000;0.6471;1.2844;
1375.2000;0.6471;1.2916;
1375.5000;0.6463;1.2940;
1375.8000;0.6471;1.2940;
1376.1000;0.6447;1.2772;
1376.4000;0.6431;1.2748;
1376.7000;0.6439;1.2724;
1377.0000;0.6471;1.2796;
1377.3000;0.6463;1.2820;
1377.6000;0.6455;1.2796;
1377.9000;0.6471;1.2988;
1378.2000;0.6439;1.2892;
1378.5000;0.6471;1.2988;
1378.8000;0.6390;1.2868;
1379.1000;0.6447;1.2964;
1379.4000;0.6545;1.3227;
1379.7000;0.6455;1.3012;
1380.0000;0.6455;1.2940;
1380.3000;0.6520;1.3084;
1380.6000;0.6471;1.2868;
1380.9000;0.6365;1.2604;
1381.2000;0.6455;1.2796;
1381.5000;0.6422;1.2772;
1381.8000;0.6520;1.3084;
1382.1000;0.6455;1.2820;
1382.4000;0.6463;1.2868;
1382.7000;0.6463;1.2988;
1383.0000;0.6471;1.3012;
1383.3000;0.6439;1.2940;
1383.6000;0.6455;1.3060;
1383.9000;0.6439;1.3036;
1384.2000;0.6455;1.3012;
1384.5000;0.6504;1.3012;
1384.8000;0.6431;1.2820;
1385.1000;0.6439;1.2844;
1385.4000;0.6431;1.2868;
1385.7000;0.6536;1.3036;
1386.0000;0.6439;1.2700;
1386.3000;0.6398;1.2604;
1386.6000;0.6463;1.2724;
1386.9000;0.6471;1.2748;
1387.2000;0.6463;1.2700;
1387.5000;0.6447;1.2676;
1387.8000;0.6504;1.2892;
1388.1000;0.6463;1.2868;
1388.4000;0.6479;1.2844;
1388.7000;0.6471;1.2892;
1389.0000;0.6463;1.2796;
1389.3000;0.6455;1.2748;
1389.6000;0.6455;1.2604;
1389.9000;0.6471;1.2652;
1390.2000;0.6439;1.2652;
1390.5000;0.6528;1.2916;
1390.8000;0.6479;1.2724;
1391.1000;0.6455;1.2628;
1391.4000;0.6447;1.2700;
1391.7000;0.6471;1.2700;
1392.0000;0.6471;1.2628;
1392.3000;0.6463;1.2628;
1392.6000;0.6455;1.2700;
1392.9000;0.6439;1.2724;
1393.2000;0.6471;1.2868;
1393.5000;0.6414;1.2772;
1393.8000;0.6528;1.3036;
1394.1000;0.6496;1.3084;
1394.4000;0.6447;1.2892;
1394.7000;0.6455;1.2916;
1395.0000;0.6447;1.2892;
1395.3000;0.6406;1.2748;
1395.6000;0.6455;1.2892;
1395.9000;0.6471;1.2868;
1396.2000;0.6463;1.2844;
1396.5000;0.6455;1.2772;
1396.8000;0.6463;1.2796;
1397.1000;0.6471;1.2796;
1397.4000;0.6496;1.2772;
1397.7000;0.6512;1.2820;
1398.0000;0.6479;1.2700;
1398.3000;0.6431;1.2628;
1398.6000;0.6439;1.2532;
1398.9000;0.6422;1.2556;
1399.2000;0.6439;1.2652;
1399.5000;0.6431;1.2628;
1399.8000;0.6455;1.2628;
