time/ms;Fluo/V;P700 deltaI/I x10³;
-199.8000;0.9011;1.5103;
-199.5000;0.9060;1.5295;
-199.2000;0.9011;1.5199;
-198.9000;0.9084;1.5295;
-198.6000;0.9027;1.5103;
-198.3000;0.9011;1.5055;
-198.0000;0.9044;1.5175;
-197.7000;0.9052;1.5127;
-197.4000;0.9052;1.5175;
-197.1000;0.9035;1.5199;
-196.8000;0.9044;1.5127;
-196.5000;0.9027;1.5055;
-196.2000;0.9011;1.4886;
-195.9000;0.9027;1.4934;
-195.6000;0.9044;1.5103;
-195.3000;0.8995;1.4958;
-195.0000;0.9052;1.5007;
-194.7000;0.9027;1.4934;
-194.4000;0.8995;1.4814;
-194.1000;0.9060;1.4934;
-193.8000;0.8987;1.4742;
-193.5000;0.9044;1.4838;
-193.2000;0.9060;1.4910;
-192.9000;0.9052;1.5031;
-192.6000;0.9035;1.5031;
-192.3000;0.9068;1.5127;
-192.0000;0.9044;1.5079;
-191.7000;0.9044;1.5079;
-191.4000;0.9011;1.5031;
-191.1000;0.9052;1.5103;
-190.8000;0.9044;1.5031;
-190.5000;0.9044;1.5055;
-190.2000;0.9027;1.5103;
-189.9000;0.9027;1.5079;
-189.6000;0.9044;1.5055;
-189.3000;0.9044;1.4982;
-189.0000;0.9052;1.4934;
-188.7000;0.9035;1.4982;
-188.4000;0.9035;1.5007;
-188.1000;0.9035;1.5055;
-187.8000;0.9084;1.5127;
-187.5000;0.9027;1.5055;
-187.2000;0.9044;1.5103;
-186.9000;0.9027;1.5079;
-186.6000;0.9035;1.5151;
-186.3000;0.9068;1.5223;
-186.0000;0.9027;1.5151;
-185.7000;0.9044;1.5151;
-185.4000;0.9044;1.5055;
-185.1000;0.8995;1.4934;
-184.8000;0.9044;1.5031;
-184.5000;0.9027;1.5031;
-184.2000;0.9035;1.5007;
-183.9000;0.9027;1.4958;
-183.6000;0.9035;1.5055;
-183.3000;0.9052;1.5127;
-183.0000;0.9052;1.5223;
-182.7000;0.9027;1.5199;
-182.4000;0.9052;1.5223;
-182.1000;0.9019;1.5223;
-181.8000;0.9052;1.5295;
-181.5000;0.9060;1.5319;
-181.2000;0.9019;1.5223;
-180.9000;0.9035;1.5271;
-180.6000;0.9035;1.5271;
-180.3000;0.9052;1.5319;
-180.0000;0.9035;1.5295;
-179.7000;0.9035;1.5199;
-179.4000;0.9060;1.5247;
-179.1000;0.9052;1.5319;
-178.8000;0.9060;1.5295;
-178.5000;0.9019;1.5151;
-178.2000;0.9060;1.5271;
-177.9000;0.9092;1.5343;
-177.6000;0.9027;1.5127;
-177.3000;0.9044;1.5127;
-177.0000;0.9019;1.5175;
-176.7000;0.9125;1.5415;
-176.4000;0.9035;1.5295;
-176.1000;0.9027;1.5295;
-175.8000;0.9060;1.5391;
-175.5000;0.9052;1.5391;
-175.2000;0.9052;1.5415;
-174.9000;0.9027;1.5271;
-174.6000;0.9019;1.5295;
-174.3000;0.9060;1.5367;
-174.0000;0.9052;1.5223;
-173.7000;0.9060;1.5223;
-173.4000;0.9052;1.5175;
-173.1000;0.9052;1.5175;
-172.8000;0.9052;1.5127;
-172.5000;0.9052;1.5151;
-172.2000;0.9035;1.5151;
-171.9000;0.9068;1.5247;
-171.6000;0.9044;1.5151;
-171.3000;0.9044;1.5175;
-171.0000;0.9027;1.5151;
-170.7000;0.9044;1.5271;
-170.4000;0.9035;1.5271;
-170.1000;0.9052;1.5319;
-169.8000;0.9052;1.5271;
-169.5000;0.9027;1.5199;
-169.2000;0.9019;1.5223;
-168.9000;0.9044;1.5247;
-168.6000;0.9060;1.5367;
-168.3000;0.9027;1.5343;
-168.0000;0.9027;1.5343;
-167.7000;0.9019;1.5439;
-167.4000;0.9035;1.5560;
-167.1000;0.9044;1.5536;
-166.8000;0.9027;1.5512;
-166.5000;0.9019;1.5512;
-166.2000;0.9019;1.5415;
-165.9000;0.8978;1.5319;
-165.6000;0.9035;1.5391;
-165.3000;0.9035;1.5463;
-165.0000;0.8987;1.5343;
-164.7000;0.9035;1.5439;
-164.4000;0.9019;1.5391;
-164.1000;0.9035;1.5367;
-163.8000;0.9052;1.5343;
-163.5000;0.9035;1.5463;
-163.2000;0.9068;1.5463;
-162.9000;0.8938;1.5175;
-162.6000;0.9092;1.5536;
-162.3000;0.9019;1.5391;
-162.0000;0.9044;1.5439;
-161.7000;0.9044;1.5439;
-161.4000;0.9044;1.5367;
-161.1000;0.9019;1.5319;
-160.8000;0.9035;1.5367;
-160.5000;0.9019;1.5367;
-160.2000;0.9149;1.5704;
-159.9000;0.9052;1.5463;
-159.6000;0.9068;1.5584;
-159.3000;0.9044;1.5463;
-159.0000;0.9011;1.5415;
-158.7000;0.9035;1.5487;
-158.4000;0.9052;1.5536;
-158.1000;0.9052;1.5463;
-157.8000;0.8987;1.5343;
-157.5000;0.9068;1.5487;
-157.2000;0.9052;1.5415;
-156.9000;0.9035;1.5391;
-156.6000;0.9011;1.5319;
-156.3000;0.9019;1.5247;
-156.0000;0.9101;1.5367;
-155.7000;0.8987;1.5175;
-155.4000;0.9035;1.5295;
-155.1000;0.9003;1.5295;
-154.8000;0.9011;1.5343;
-154.5000;0.9052;1.5439;
-154.2000;0.9035;1.5391;
-153.9000;0.9044;1.5487;
-153.6000;0.9044;1.5415;
-153.3000;0.9019;1.5271;
-153.0000;0.9044;1.5223;
-152.7000;0.9035;1.5247;
-152.4000;0.9027;1.5295;
-152.1000;0.9003;1.5271;
-151.8000;0.9044;1.5295;
-151.5000;0.9044;1.5175;
-151.2000;0.9052;1.5199;
-150.9000;0.9011;1.5127;
-150.6000;0.9003;1.5079;
-150.3000;0.8995;1.5103;
-150.0000;0.9027;1.5127;
-149.7000;0.9003;1.5007;
-149.4000;0.9035;1.5055;
-149.1000;0.9035;1.5151;
-148.8000;0.9035;1.5151;
-148.5000;0.9052;1.5199;
-148.2000;0.9035;1.5151;
-147.9000;0.9011;1.5079;
-147.6000;0.9044;1.5103;
-147.3000;0.9052;1.5103;
-147.0000;0.9019;1.5055;
-146.7000;0.9019;1.5175;
-146.4000;0.9019;1.5199;
-146.1000;0.9052;1.5295;
-145.8000;0.9044;1.5271;
-145.5000;0.9019;1.5151;
-145.2000;0.9011;1.5175;
-144.9000;0.9003;1.5079;
-144.6000;0.9035;1.5271;
-144.3000;0.8978;1.5151;
-144.0000;0.9044;1.5319;
-143.7000;0.9044;1.5367;
-143.4000;0.9027;1.5367;
-143.1000;0.9044;1.5391;
-142.8000;0.9044;1.5391;
-142.5000;0.9044;1.5391;
-142.2000;0.9052;1.5439;
-141.9000;0.9035;1.5512;
-141.6000;0.9011;1.5536;
-141.3000;0.9044;1.5608;
-141.0000;0.9027;1.5560;
-140.7000;0.9019;1.5487;
-140.4000;0.9019;1.5439;
-140.1000;0.9011;1.5439;
-139.8000;0.9052;1.5415;
-139.5000;0.9035;1.5319;
-139.2000;0.9125;1.5415;
-138.9000;0.9068;1.5319;
-138.6000;0.9084;1.5463;
-138.3000;0.9035;1.5512;
-138.0000;0.9044;1.5560;
-137.7000;0.9035;1.5487;
-137.4000;0.9060;1.5487;
-137.1000;0.9052;1.5512;
-136.8000;0.9052;1.5463;
-136.5000;0.9052;1.5487;
-136.2000;0.9011;1.5367;
-135.9000;0.9044;1.5391;
-135.6000;0.9035;1.5391;
-135.3000;0.9027;1.5391;
-135.0000;0.9044;1.5415;
-134.7000;0.9052;1.5463;
-134.4000;0.9044;1.5487;
-134.1000;0.9052;1.5512;
-133.8000;0.9027;1.5439;
-133.5000;0.9052;1.5487;
-133.2000;0.9052;1.5487;
-132.9000;0.9060;1.5536;
-132.6000;0.9044;1.5439;
-132.3000;0.9044;1.5391;
-132.0000;0.9044;1.5319;
-131.7000;0.9027;1.5391;
-131.4000;0.9003;1.5367;
-131.1000;0.9035;1.5391;
-130.8000;0.9035;1.5367;
-130.5000;0.9035;1.5343;
-130.2000;0.9027;1.5271;
-129.9000;0.9019;1.5271;
-129.6000;0.9035;1.5319;
-129.3000;0.9035;1.5319;
-129.0000;0.9052;1.5247;
-128.7000;0.9044;1.5343;
-128.4000;0.8970;1.5175;
-128.1000;0.9044;1.5319;
-127.8000;0.9027;1.5295;
-127.5000;0.9117;1.5512;
-127.2000;0.9044;1.5319;
-126.9000;0.9027;1.5295;
-126.6000;0.9035;1.5319;
-126.3000;0.9052;1.5247;
-126.0000;0.9027;1.5271;
-125.7000;0.9060;1.5343;
-125.4000;0.9052;1.5223;
-125.1000;0.9027;1.5199;
-124.8000;0.9052;1.5295;
-124.5000;0.9035;1.5391;
-124.2000;0.9035;1.5343;
-123.9000;0.9060;1.5439;
-123.6000;0.9019;1.5367;
-123.3000;0.9084;1.5560;
-123.0000;0.9035;1.5512;
-122.7000;0.9044;1.5512;
-122.4000;0.9027;1.5391;
-122.1000;0.9035;1.5367;
-121.8000;0.9027;1.5415;
-121.5000;0.8995;1.5439;
-121.2000;0.9019;1.5463;
-120.9000;0.9044;1.5560;
-120.6000;0.9035;1.5536;
-120.3000;0.9019;1.5415;
-120.0000;0.9035;1.5512;
-119.7000;0.9011;1.5512;
-119.4000;0.9027;1.5512;
-119.1000;0.9044;1.5536;
-118.8000;0.9027;1.5560;
-118.5000;0.9027;1.5536;
-118.2000;0.9044;1.5536;
-117.9000;0.9035;1.5512;
-117.6000;0.9060;1.5512;
-117.3000;0.9076;1.5512;
-117.0000;0.9068;1.5512;
-116.7000;0.9027;1.5391;
-116.4000;0.9027;1.5415;
-116.1000;0.9019;1.5391;
-115.8000;0.9011;1.5367;
-115.5000;0.9060;1.5512;
-115.2000;0.9060;1.5463;
-114.9000;0.9019;1.5463;
-114.6000;0.9019;1.5487;
-114.3000;0.9044;1.5463;
-114.0000;0.9035;1.5415;
-113.7000;0.9044;1.5391;
-113.4000;0.9084;1.5463;
-113.1000;0.9044;1.5439;
-112.8000;0.9060;1.5512;
-112.5000;0.9019;1.5512;
-112.2000;0.9109;1.5608;
-111.9000;0.9019;1.5367;
-111.6000;0.9052;1.5391;
-111.3000;0.9019;1.5295;
-111.0000;0.9027;1.5295;
-110.7000;0.9019;1.5271;
-110.4000;0.9035;1.5367;
-110.1000;0.9035;1.5367;
-109.8000;0.9011;1.5319;
-109.5000;0.9035;1.5391;
-109.2000;0.9035;1.5367;
-108.9000;0.9027;1.5415;
-108.6000;0.9027;1.5463;
-108.3000;0.9011;1.5415;
-108.0000;0.9035;1.5487;
-107.7000;0.9035;1.5584;
-107.4000;0.9003;1.5584;
-107.1000;0.9027;1.5560;
-106.8000;0.9035;1.5512;
-106.5000;0.8978;1.5367;
-106.2000;0.9019;1.5391;
-105.9000;0.9052;1.5439;
-105.6000;0.9027;1.5391;
-105.3000;0.9019;1.5367;
-105.0000;0.8978;1.5319;
-104.7000;0.9117;1.5608;
-104.4000;0.9019;1.5367;
-104.1000;0.9044;1.5463;
-103.8000;0.9044;1.5512;
-103.5000;0.9027;1.5487;
-103.2000;0.9035;1.5536;
-102.9000;0.9052;1.5536;
-102.6000;0.9027;1.5536;
-102.3000;0.9101;1.5632;
-102.0000;0.9027;1.5391;
-101.7000;0.9027;1.5512;
-101.4000;0.9060;1.5512;
-101.1000;0.9052;1.5487;
-100.8000;0.9019;1.5391;
-100.5000;0.9035;1.5512;
-100.2000;0.9060;1.5584;
-99.9000;0.9011;1.5536;
-99.6000;0.9035;1.5560;
-99.3000;0.9035;1.5584;
-99.0000;0.9035;1.5656;
-98.7000;0.9044;1.5728;
-98.4000;0.9011;1.5632;
-98.1000;0.9019;1.5680;
-97.8000;0.9035;1.5800;
-97.5000;0.9044;1.5776;
-97.2000;0.9019;1.5704;
-96.9000;0.9035;1.5608;
-96.6000;0.9044;1.5608;
-96.3000;0.9011;1.5487;
-96.0000;0.9019;1.5415;
-95.7000;0.9052;1.5560;
-95.4000;0.9068;1.5680;
-95.1000;0.9044;1.5608;
-94.8000;0.9035;1.5463;
-94.5000;0.9035;1.5512;
-94.2000;0.9052;1.5560;
-93.9000;0.9044;1.5560;
-93.6000;0.9052;1.5463;
-93.3000;0.9060;1.5391;
-93.0000;0.9101;1.5512;
-92.7000;0.9052;1.5367;
-92.4000;0.9052;1.5343;
-92.1000;0.9044;1.5415;
-91.8000;0.9044;1.5439;
-91.5000;0.9052;1.5391;
-91.2000;0.9052;1.5415;
-90.9000;0.9027;1.5367;
-90.6000;0.9027;1.5295;
-90.3000;0.9003;1.5199;
-90.0000;0.9052;1.5271;
-89.7000;0.9011;1.5103;
-89.4000;0.9027;1.5151;
-89.1000;0.9052;1.5271;
-88.8000;0.9044;1.5367;
-88.5000;0.9076;1.5439;
-88.2000;0.9035;1.5367;
-87.9000;0.9019;1.5271;
-87.6000;0.9084;1.5487;
-87.3000;0.9035;1.5415;
-87.0000;0.8995;1.5343;
-86.7000;0.9044;1.5415;
-86.4000;0.9019;1.5343;
-86.1000;0.9019;1.5487;
-85.8000;0.9019;1.5487;
-85.5000;0.9027;1.5463;
-85.2000;0.9035;1.5415;
-84.9000;0.9035;1.5391;
-84.6000;0.9035;1.5463;
-84.3000;0.9027;1.5415;
-84.0000;0.9027;1.5415;
-83.7000;0.9003;1.5319;
-83.4000;0.9060;1.5463;
-83.1000;0.8995;1.5319;
-82.8000;0.9068;1.5487;
-82.5000;0.9027;1.5343;
-82.2000;0.9027;1.5295;
-81.9000;0.9027;1.5247;
-81.6000;0.9052;1.5247;
-81.3000;0.9052;1.5295;
-81.0000;0.9027;1.5271;
-80.7000;0.9027;1.5247;
-80.4000;0.8995;1.5175;
-80.1000;0.9044;1.5367;
-79.8000;0.9011;1.5367;
-79.5000;0.9027;1.5343;
-79.2000;0.9019;1.5295;
-78.9000;0.9044;1.5295;
-78.6000;0.9035;1.5247;
-78.3000;0.9068;1.5271;
-78.0000;0.9044;1.5127;
-77.7000;0.9027;1.5151;
-77.4000;0.9052;1.5127;
-77.1000;0.9027;1.5007;
-76.8000;0.9076;1.5175;
-76.5000;0.9027;1.5079;
-76.2000;0.9035;1.5055;
-75.9000;0.9044;1.5055;
-75.6000;0.9019;1.4910;
-75.3000;0.9019;1.4910;
-75.0000;0.9044;1.4982;
-74.7000;0.9060;1.5055;
-74.4000;0.9060;1.5127;
-74.1000;0.9019;1.5127;
-73.8000;0.9052;1.5247;
-73.5000;0.9035;1.5199;
-73.2000;0.9011;1.5175;
-72.9000;0.9035;1.5271;
-72.6000;0.9027;1.5247;
-72.3000;0.9019;1.5271;
-72.0000;0.9117;1.5487;
-71.7000;0.9027;1.5295;
-71.4000;0.9084;1.5415;
-71.1000;0.9052;1.5415;
-70.8000;0.9035;1.5487;
-70.5000;0.9027;1.5536;
-70.2000;0.8978;1.5536;
-69.9000;0.9011;1.5584;
-69.6000;0.9027;1.5608;
-69.3000;0.9003;1.5463;
-69.0000;0.9027;1.5560;
-68.7000;0.9011;1.5487;
-68.4000;0.9060;1.5463;
-68.1000;0.9019;1.5391;
-67.8000;0.9092;1.5487;
-67.5000;0.9035;1.5463;
-67.2000;0.9035;1.5463;
-66.9000;0.9084;1.5487;
-66.6000;0.9011;1.5223;
-66.3000;0.9011;1.5175;
-66.0000;0.9027;1.5175;
-65.7000;0.9141;1.5512;
-65.4000;0.9019;1.5199;
-65.1000;0.9027;1.5151;
-64.8000;0.9035;1.5151;
-64.5000;0.9035;1.5151;
-64.2000;0.8946;1.4910;
-63.9000;0.9003;1.5127;
-63.6000;0.9052;1.5199;
-63.3000;0.9019;1.5103;
-63.0000;0.9027;1.5127;
-62.7000;0.9003;1.5079;
-62.4000;0.9019;1.5247;
-62.1000;0.9060;1.5367;
-61.8000;0.9060;1.5391;
-61.5000;0.9076;1.5367;
-61.2000;0.9044;1.5295;
-60.9000;0.9044;1.5271;
-60.6000;0.9027;1.5295;
-60.3000;0.9027;1.5367;
-60.0000;0.9035;1.5319;
-59.7000;0.9027;1.5295;
-59.4000;0.9044;1.5295;
-59.1000;0.9019;1.5343;
-58.8000;0.9019;1.5343;
-58.5000;0.9092;1.5439;
-58.2000;0.9044;1.5127;
-57.9000;0.9044;1.5151;
-57.6000;0.9035;1.5223;
-57.3000;0.9044;1.5199;
-57.0000;0.9027;1.5175;
-56.7000;0.9035;1.5295;
-56.4000;0.9019;1.5247;
-56.1000;0.9035;1.5247;
-55.8000;0.9060;1.5271;
-55.5000;0.9027;1.5175;
-55.2000;0.9060;1.5223;
-54.9000;0.9035;1.5175;
-54.6000;0.9027;1.5175;
-54.3000;0.9027;1.5151;
-54.0000;0.9019;1.5175;
-53.7000;0.9060;1.5271;
-53.4000;0.9060;1.5319;
-53.1000;0.9003;1.5199;
-52.8000;0.9027;1.5295;
-52.5000;0.9027;1.5295;
-52.2000;0.9019;1.5295;
-51.9000;0.9044;1.5415;
-51.6000;0.9068;1.5439;
-51.3000;0.9027;1.5343;
-51.0000;0.9035;1.5439;
-50.7000;0.9044;1.5415;
-50.4000;0.9035;1.5319;
-50.1000;0.9068;1.5343;
-49.8000;0.9084;1.5391;
-49.5000;0.9068;1.5319;
-49.2000;0.9035;1.5319;
-48.9000;0.9027;1.5271;
-48.6000;0.9027;1.5295;
-48.3000;0.9027;1.5319;
-48.0000;0.9052;1.5319;
-47.7000;0.9060;1.5367;
-47.4000;0.9092;1.5439;
-47.1000;0.9068;1.5295;
-46.8000;0.9068;1.5295;
-46.5000;0.9027;1.5223;
-46.2000;0.9076;1.5199;
-45.9000;0.9060;1.5151;
-45.6000;0.9027;1.5175;
-45.3000;0.9092;1.5271;
-45.0000;0.9027;1.5127;
-44.7000;0.9068;1.5319;
-44.4000;0.9027;1.5319;
-44.1000;0.9035;1.5391;
-43.8000;0.8987;1.5439;
-43.5000;0.9035;1.5560;
-43.2000;0.9068;1.5584;
-42.9000;0.9060;1.5463;
-42.6000;0.9068;1.5463;
-42.3000;0.9044;1.5391;
-42.0000;0.9060;1.5415;
-41.7000;0.9060;1.5439;
-41.4000;0.9019;1.5367;
-41.1000;0.9052;1.5487;
-40.8000;0.9044;1.5463;
-40.5000;0.9035;1.5487;
-40.2000;0.9044;1.5463;
-39.9000;0.9052;1.5512;
-39.6000;0.9035;1.5439;
-39.3000;0.9027;1.5391;
-39.0000;0.9019;1.5415;
-38.7000;0.9035;1.5463;
-38.4000;0.9027;1.5415;
-38.1000;0.9019;1.5367;
-37.8000;0.9109;1.5536;
-37.5000;0.9003;1.5295;
-37.2000;0.9011;1.5199;
-36.9000;0.9011;1.5223;
-36.6000;0.9027;1.5247;
-36.3000;0.9027;1.5247;
-36.0000;0.9035;1.5247;
-35.7000;0.9027;1.5295;
-35.4000;0.9044;1.5199;
-35.1000;0.9060;1.5199;
-34.8000;0.9019;1.5079;
-34.5000;0.9044;1.5079;
-34.2000;0.9035;1.5199;
-33.9000;0.9035;1.5295;
-33.6000;0.9019;1.5295;
-33.3000;0.9035;1.5295;
-33.0000;0.9052;1.5319;
-32.7000;0.9027;1.5223;
-32.4000;0.8938;1.5031;
-32.1000;0.9035;1.5199;
-31.8000;0.9035;1.5247;
-31.5000;0.9044;1.5271;
-31.2000;0.8978;1.4934;
-30.9000;0.9035;1.4982;
-30.6000;0.9044;1.5079;
-30.3000;0.9068;1.5175;
-30.0000;0.9101;1.5199;
-29.7000;0.9044;1.4982;
-29.4000;0.9060;1.5031;
-29.1000;0.9052;1.5031;
-28.8000;0.9044;1.5031;
-28.5000;0.9027;1.4958;
-28.2000;0.9060;1.5031;
-27.9000;0.9052;1.5055;
-27.6000;0.9044;1.5103;
-27.3000;0.9044;1.4982;
-27.0000;0.9044;1.5055;
-26.7000;0.9052;1.5127;
-26.4000;0.9035;1.5175;
-26.1000;0.9027;1.5199;
-25.8000;0.9019;1.5175;
-25.5000;0.9027;1.5199;
-25.2000;0.9035;1.5127;
-24.9000;0.9019;1.5127;
-24.6000;0.9011;1.5079;
-24.3000;0.9052;1.5223;
-24.0000;0.8970;1.5079;
-23.7000;0.9035;1.5295;
-23.4000;0.9027;1.5271;
-23.1000;0.9076;1.5439;
-22.8000;0.9044;1.5343;
-22.5000;0.9052;1.5271;
-22.2000;0.9084;1.5319;
-21.9000;0.9035;1.5271;
-21.6000;0.9035;1.5175;
-21.3000;0.9003;1.5079;
-21.0000;0.9044;1.5103;
-20.7000;0.8970;1.4958;
-20.4000;0.9027;1.5103;
-20.1000;0.9060;1.5055;
-19.8000;0.9019;1.4982;
-19.5000;0.9011;1.4982;
-19.2000;0.9101;1.5247;
-18.9000;0.9027;1.5127;
-18.6000;0.9044;1.5295;
-18.3000;0.9035;1.5271;
-18.0000;0.9076;1.5343;
-17.7000;0.8987;1.5127;
-17.4000;0.9068;1.5223;
-17.1000;0.9027;1.4982;
-16.8000;0.9027;1.5007;
-16.5000;0.9035;1.5127;
-16.2000;0.9052;1.5223;
-15.9000;0.9035;1.5247;
-15.6000;0.9027;1.5319;
-15.3000;0.9027;1.5343;
-15.0000;0.9035;1.5343;
-14.7000;0.9027;1.5247;
-14.4000;0.9019;1.5247;
-14.1000;0.9019;1.5223;
-13.8000;0.9027;1.5175;
-13.5000;0.8946;1.4958;
-13.2000;0.9035;1.5079;
-12.9000;0.9019;1.5079;
-12.6000;0.9027;1.5079;
-12.3000;0.9027;1.5151;
-12.0000;0.9003;1.5223;
-11.7000;0.9035;1.5295;
-11.4000;0.9019;1.5319;
-11.1000;0.9035;1.5415;
-10.8000;0.9027;1.5319;
-10.5000;0.9019;1.5271;
-10.2000;0.9035;1.5295;
-9.9000;0.9019;1.5343;
-9.6000;0.9019;1.5295;
-9.3000;0.8978;1.5103;
-9.0000;0.9019;1.5247;
-8.7000;0.9027;1.5151;
-8.4000;0.9035;1.5151;
-8.1000;0.8995;1.5175;
-7.8000;0.9019;1.5199;
-7.5000;0.9027;1.5199;
-7.2000;0.9068;1.5199;
-6.9000;0.9044;1.5247;
-6.6000;0.9035;1.5319;
-6.3000;0.9035;1.5343;
-6.0000;0.9052;1.5367;
-5.7000;0.8987;1.5151;
-5.4000;0.8946;1.5151;
-5.1000;0.9052;1.5391;
-4.8000;0.9092;1.5560;
-4.5000;0.8987;1.5343;
-4.2000;0.9044;1.5367;
-3.9000;0.9027;1.5319;
-3.6000;0.9052;1.5367;
-3.3000;0.9035;1.5223;
-3.0000;0.9044;1.5319;
-2.7000;0.9035;1.5391;
-2.4000;0.9035;1.5343;
-2.1000;0.9052;1.5415;
-1.8000;0.9044;1.5512;
-1.5000;0.9052;1.5536;
-1.2000;0.9027;1.5512;
-0.9000;0.9044;1.5584;
-0.6000;0.9052;1.5560;
-0.3000;0.9060;1.5584;
0.0000;0.9060;1.5584;
0.3000;0.9076;1.5560;
0.6000;0.9117;1.5632;
0.9000;0.9158;1.5800;
1.2000;0.9174;1.6041;
1.5000;0.9182;1.6185;
1.8000;0.9239;1.6329;
2.1000;0.9182;1.6305;
2.4000;0.9255;1.6522;
2.7000;0.9280;1.6594;
3.0000;0.9296;1.6690;
3.3000;0.9288;1.6738;
3.6000;0.9280;1.6834;
3.9000;0.9312;1.6930;
4.2000;0.9328;1.6930;
4.5000;0.9304;1.6834;
4.8000;0.9328;1.6858;
5.1000;0.9304;1.6762;
5.4000;0.9312;1.6930;
5.7000;0.9337;1.6930;
6.0000;0.9328;1.6858;
6.3000;0.9263;1.6690;
6.6000;0.9369;1.7051;
6.9000;0.9361;1.6979;
7.2000;0.9426;1.7123;
7.5000;0.9369;1.7003;
7.8000;0.9377;1.7051;
8.1000;0.9394;1.7123;
8.4000;0.9353;1.6979;
8.7000;0.9385;1.6979;
9.0000;0.9345;1.6906;
9.3000;0.9418;1.7123;
9.6000;0.9385;1.7075;
9.9000;0.9402;1.7123;
10.2000;0.9418;1.7123;
10.5000;0.9402;1.7099;
10.8000;0.9418;1.7195;
11.1000;0.9426;1.7171;
11.4000;0.9426;1.7099;
11.7000;0.9434;1.7123;
12.0000;0.9418;1.6979;
12.3000;0.9467;1.7147;
12.6000;0.9410;1.7003;
12.9000;0.9426;1.7099;
13.2000;0.9442;1.7123;
13.5000;0.9442;1.7099;
13.8000;0.9451;1.7171;
14.1000;0.9442;1.7219;
14.4000;0.9434;1.7171;
14.7000;0.9467;1.7123;
15.0000;0.9442;1.7027;
15.3000;0.9418;1.7003;
15.6000;0.9451;1.7075;
15.9000;0.9459;1.7027;
16.2000;0.9394;1.6930;
16.5000;0.9475;1.7027;
16.8000;0.9499;1.7027;
17.1000;0.9451;1.6882;
17.4000;0.9475;1.7051;
17.7000;0.9451;1.7051;
18.0000;0.9483;1.7219;
18.3000;0.9483;1.7099;
18.6000;0.9483;1.7147;
18.9000;0.9491;1.7195;
19.2000;0.9483;1.7219;
19.5000;0.9565;1.7411;
19.8000;0.9491;1.7267;
20.1000;0.9491;1.7219;
20.4000;0.9483;1.7219;
20.7000;0.9491;1.7243;
21.0000;0.9475;1.7267;
21.3000;0.9491;1.7219;
21.6000;0.9467;1.7195;
21.9000;0.9499;1.7195;
22.2000;0.9483;1.7195;
22.5000;0.9467;1.7099;
22.8000;0.9524;1.7291;
23.1000;0.9491;1.7267;
23.4000;0.9508;1.7243;
23.7000;0.9475;1.7123;
24.0000;0.9491;1.7099;
24.3000;0.9475;1.7027;
24.6000;0.9434;1.6834;
24.9000;0.9491;1.7027;
25.2000;0.9491;1.7075;
25.5000;0.9508;1.7195;
25.8000;0.9499;1.7195;
26.1000;0.9491;1.7267;
26.4000;0.9442;1.7099;
26.7000;0.9556;1.7171;
27.0000;0.9467;1.7003;
27.3000;0.9483;1.7027;
27.6000;0.9540;1.7219;
27.9000;0.9491;1.7123;
28.2000;0.9475;1.7027;
28.5000;0.9434;1.6979;
28.8000;0.9499;1.7171;
29.1000;0.9483;1.7075;
29.4000;0.9483;1.7027;
29.7000;0.9499;1.7075;
30.0000;0.9491;1.7003;
30.3000;0.9508;1.7027;
30.6000;0.9467;1.6882;
30.9000;0.9475;1.6810;
31.2000;0.9508;1.6882;
31.5000;0.9499;1.6858;
31.8000;0.9499;1.6882;
32.1000;0.9524;1.7003;
32.4000;0.9516;1.7099;
32.7000;0.9483;1.7027;
33.0000;0.9491;1.7027;
33.3000;0.9499;1.7099;
33.6000;0.9516;1.7147;
33.9000;0.9451;1.7003;
34.2000;0.9499;1.7075;
34.5000;0.9499;1.7123;
34.8000;0.9491;1.7099;
35.1000;0.9499;1.7027;
35.4000;0.9532;1.7099;
35.7000;0.9499;1.6979;
36.0000;0.9573;1.7171;
36.3000;0.9499;1.7027;
36.6000;0.9483;1.6858;
36.9000;0.9524;1.6930;
37.2000;0.9491;1.6858;
37.5000;0.9499;1.6930;
37.8000;0.9483;1.6906;
38.1000;0.9499;1.6979;
38.4000;0.9508;1.7075;
38.7000;0.9516;1.7099;
39.0000;0.9499;1.6979;
39.3000;0.9499;1.6954;
39.6000;0.9483;1.6979;
39.9000;0.9508;1.6954;
40.2000;0.9491;1.7027;
40.5000;0.9516;1.7051;
40.8000;0.9491;1.7027;
41.1000;0.9491;1.7051;
41.4000;0.9508;1.7027;
41.7000;0.9516;1.7099;
42.0000;0.9508;1.7123;
42.3000;0.9540;1.7171;
42.6000;0.9508;1.7075;
42.9000;0.9516;1.7147;
43.2000;0.9491;1.7075;
43.5000;0.9508;1.7099;
43.8000;0.9499;1.7051;
44.1000;0.9532;1.7075;
44.4000;0.9508;1.7051;
44.7000;0.9508;1.7051;
45.0000;0.9508;1.7099;
45.3000;0.9532;1.7195;
45.6000;0.9475;1.6979;
45.9000;0.9499;1.7003;
46.2000;0.9483;1.7003;
46.5000;0.9516;1.7075;
46.8000;0.9508;1.6979;
47.1000;0.9491;1.6979;
47.4000;0.9516;1.7003;
47.7000;0.9508;1.6979;
48.0000;0.9540;1.7099;
48.3000;0.9426;1.6810;
48.6000;0.9459;1.6786;
48.9000;0.9499;1.6810;
49.2000;0.9451;1.6738;
49.5000;0.9475;1.6834;
49.8000;0.9442;1.6930;
50.1000;0.9467;1.6906;
50.4000;0.9540;1.7147;
50.7000;0.9491;1.7051;
51.0000;0.9491;1.7027;
51.3000;0.9508;1.7027;
51.6000;0.9532;1.7171;
51.9000;0.9508;1.7171;
52.2000;0.9426;1.7027;
52.5000;0.9516;1.7291;
52.8000;0.9508;1.7243;
53.1000;0.9508;1.7243;
53.4000;0.9459;1.7219;
53.7000;0.9508;1.7315;
54.0000;0.9516;1.7315;
54.3000;0.9516;1.7219;
54.6000;0.9516;1.7291;
54.9000;0.9532;1.7291;
55.2000;0.9508;1.7123;
55.5000;0.9491;1.7195;
55.8000;0.9508;1.7147;
56.1000;0.9483;1.7147;
56.4000;0.9499;1.7123;
56.7000;0.9491;1.7123;
57.0000;0.9499;1.7171;
57.3000;0.9467;1.7147;
57.6000;0.9508;1.7243;
57.9000;0.9491;1.7099;
58.2000;0.9508;1.7099;
58.5000;0.9508;1.7075;
58.8000;0.9483;1.7075;
59.1000;0.9516;1.7171;
59.4000;0.9442;1.6979;
59.7000;0.9491;1.7147;
60.0000;0.9516;1.7243;
60.3000;0.9491;1.7195;
60.6000;0.9483;1.7195;
60.9000;0.9499;1.7291;
61.2000;0.9516;1.7219;
61.5000;0.9516;1.7243;
61.8000;0.9524;1.7291;
62.1000;0.9491;1.7195;
62.4000;0.9499;1.7195;
62.7000;0.9508;1.7219;
63.0000;0.9499;1.7315;
63.3000;0.9508;1.7291;
63.6000;0.9499;1.7219;
63.9000;0.9508;1.7195;
64.2000;0.9499;1.7219;
64.5000;0.9556;1.7363;
64.8000;0.9483;1.7195;
65.1000;0.9516;1.7219;
65.4000;0.9516;1.7195;
65.7000;0.9508;1.7195;
66.0000;0.9508;1.7243;
66.3000;0.9524;1.7411;
66.6000;0.9516;1.7363;
66.9000;0.9508;1.7339;
67.2000;0.9499;1.7339;
67.5000;0.9475;1.7219;
67.8000;0.9499;1.7387;
68.1000;0.9459;1.7243;
68.4000;0.9483;1.7219;
68.7000;0.9491;1.7219;
69.0000;0.9491;1.7315;
69.3000;0.9459;1.7171;
69.6000;0.9508;1.7219;
69.9000;0.9491;1.7219;
70.2000;0.9540;1.7315;
70.5000;0.9508;1.7243;
70.8000;0.9556;1.7291;
71.1000;0.9499;1.7123;
71.4000;0.9467;1.7051;
71.7000;0.9499;1.7147;
72.0000;0.9532;1.7147;
72.3000;0.9548;1.7123;
72.6000;0.9508;1.7099;
72.9000;0.9524;1.7243;
73.2000;0.9508;1.7171;
73.5000;0.9508;1.7123;
73.8000;0.9565;1.7315;
74.1000;0.9508;1.7171;
74.4000;0.9581;1.7339;
74.7000;0.9499;1.7147;
75.0000;0.9475;1.7027;
75.3000;0.9499;1.7051;
75.6000;0.9508;1.6954;
75.9000;0.9499;1.6930;
76.2000;0.9475;1.6930;
76.5000;0.9508;1.7027;
76.8000;0.9491;1.7003;
77.1000;0.9508;1.7171;
77.4000;0.9467;1.7075;
77.7000;0.9491;1.7147;
78.0000;0.9516;1.7195;
78.3000;0.9605;1.7484;
78.6000;0.9597;1.7435;
78.9000;0.9556;1.7291;
79.2000;0.9499;1.7243;
79.5000;0.9483;1.7171;
79.8000;0.9499;1.7171;
80.1000;0.9491;1.7171;
80.4000;0.9508;1.7243;
80.7000;0.9516;1.7195;
81.0000;0.9499;1.7123;
81.3000;0.9483;1.7171;
81.6000;0.9459;1.7195;
81.9000;0.9508;1.7339;
82.2000;0.9491;1.7219;
82.5000;0.9499;1.7123;
82.8000;0.9499;1.7075;
83.1000;0.9491;1.7051;
83.4000;0.9491;1.7027;
83.7000;0.9491;1.6979;
84.0000;0.9475;1.7027;
84.3000;0.9508;1.7099;
84.6000;0.9483;1.7051;
84.9000;0.9442;1.7003;
85.2000;0.9491;1.7195;
85.5000;0.9508;1.7267;
85.8000;0.9499;1.7171;
86.1000;0.9475;1.7147;
86.4000;0.9483;1.7171;
86.7000;0.9524;1.7315;
87.0000;0.9499;1.7219;
87.3000;0.9491;1.7147;
87.6000;0.9475;1.7219;
87.9000;0.9475;1.7195;
88.2000;0.9434;1.7099;
88.5000;0.9426;1.7123;
88.8000;0.9467;1.7147;
89.1000;0.9475;1.7195;
89.4000;0.9491;1.7243;
89.7000;0.9491;1.7195;
90.0000;0.9459;1.7195;
90.3000;0.9475;1.7195;
90.6000;0.9483;1.7219;
90.9000;0.9491;1.7243;
91.2000;0.9475;1.7123;
91.5000;0.9442;1.7027;
91.8000;0.9475;1.7147;
92.1000;0.9499;1.7147;
92.4000;0.9499;1.7195;
92.7000;0.9491;1.7123;
93.0000;0.9467;1.7003;
93.3000;0.9491;1.7171;
93.6000;0.9491;1.7147;
93.9000;0.9508;1.7219;
94.2000;0.9499;1.7123;
94.5000;0.9459;1.6979;
94.8000;0.9475;1.6979;
95.1000;0.9491;1.6954;
95.4000;0.9459;1.6882;
95.7000;0.9483;1.6954;
96.0000;0.9475;1.7027;
96.3000;0.9459;1.7027;
96.6000;0.9467;1.7027;
96.9000;0.9483;1.7075;
97.2000;0.9491;1.7123;
97.5000;0.9467;1.7099;
97.8000;0.9483;1.7027;
98.1000;0.9483;1.7027;
98.4000;0.9532;1.7123;
98.7000;0.9491;1.7051;
99.0000;0.9475;1.7027;
99.3000;0.9483;1.7027;
99.6000;0.9491;1.7051;
99.9000;0.9499;1.6930;
100.2000;0.9508;1.7003;
100.5000;0.9524;1.7051;
100.8000;0.9508;1.7099;
101.1000;0.9508;1.7147;
101.4000;0.9385;1.6906;
101.7000;0.9475;1.7051;
102.0000;0.9516;1.7075;
102.3000;0.9475;1.7003;
102.6000;0.9475;1.7003;
102.9000;0.9499;1.7027;
103.2000;0.9475;1.7027;
103.5000;0.9516;1.7099;
103.8000;0.9483;1.7027;
104.1000;0.9491;1.7099;
104.4000;0.9499;1.7219;
104.7000;0.9483;1.7171;
105.0000;0.9483;1.7147;
105.3000;0.9499;1.7195;
105.6000;0.9467;1.7075;
105.9000;0.9491;1.7075;
106.2000;0.9499;1.7075;
106.5000;0.9475;1.7003;
106.8000;0.9475;1.7099;
107.1000;0.9475;1.7051;
107.4000;0.9565;1.7291;
107.7000;0.9483;1.7123;
108.0000;0.9483;1.7123;
108.3000;0.9491;1.7147;
108.6000;0.9491;1.7171;
108.9000;0.9483;1.7123;
109.2000;0.9499;1.7027;
109.5000;0.9508;1.7003;
109.8000;0.9532;1.7123;
110.1000;0.9508;1.7051;
110.4000;0.9491;1.6954;
110.7000;0.9459;1.6810;
111.0000;0.9491;1.6882;
111.3000;0.9499;1.6858;
111.6000;0.9483;1.6738;
111.9000;0.9459;1.6738;
112.2000;0.9475;1.6858;
112.5000;0.9475;1.6858;
112.8000;0.9475;1.6858;
113.1000;0.9442;1.6786;
113.4000;0.9467;1.6882;
113.7000;0.9467;1.7027;
114.0000;0.9467;1.6930;
114.3000;0.9467;1.6882;
114.6000;0.9475;1.6858;
114.9000;0.9483;1.6882;
115.2000;0.9483;1.6762;
115.5000;0.9491;1.6834;
115.8000;0.9540;1.7003;
116.1000;0.9483;1.6882;
116.4000;0.9467;1.6882;
116.7000;0.9483;1.6906;
117.0000;0.9475;1.7003;
117.3000;0.9475;1.7051;
117.6000;0.9483;1.7123;
117.9000;0.9467;1.7099;
118.2000;0.9467;1.7147;
118.5000;0.9459;1.7171;
118.8000;0.9483;1.7219;
119.1000;0.9483;1.7147;
119.4000;0.9475;1.7075;
119.7000;0.9499;1.7099;
120.0000;0.9491;1.6979;
120.3000;0.9459;1.6834;
120.6000;0.9467;1.6882;
120.9000;0.9467;1.6810;
121.2000;0.9483;1.6762;
121.5000;0.9475;1.6762;
121.8000;0.9475;1.6882;
122.1000;0.9426;1.6834;
122.4000;0.9475;1.6882;
122.7000;0.9475;1.6882;
123.0000;0.9467;1.6882;
123.3000;0.9475;1.6882;
123.6000;0.9475;1.6762;
123.9000;0.9499;1.6834;
124.2000;0.9483;1.6858;
124.5000;0.9475;1.6786;
124.8000;0.9491;1.6858;
125.1000;0.9499;1.6834;
125.4000;0.9402;1.6618;
125.7000;0.9483;1.6906;
126.0000;0.9483;1.7027;
126.3000;0.9483;1.7051;
126.6000;0.9459;1.7003;
126.9000;0.9491;1.7171;
127.2000;0.9467;1.7171;
127.5000;0.9442;1.7003;
127.8000;0.9499;1.7099;
128.1000;0.9467;1.7075;
128.4000;0.9459;1.7195;
128.7000;0.9475;1.7267;
129.0000;0.9499;1.7267;
129.3000;0.9483;1.7243;
129.6000;0.9483;1.7195;
129.9000;0.9459;1.7123;
130.2000;0.9491;1.7195;
130.5000;0.9491;1.7195;
130.8000;0.9475;1.7171;
131.1000;0.9442;1.7075;
131.4000;0.9499;1.7195;
131.7000;0.9451;1.7075;
132.0000;0.9475;1.7051;
132.3000;0.9459;1.7003;
132.6000;0.9483;1.7171;
132.9000;0.9459;1.7267;
133.2000;0.9442;1.7267;
133.5000;0.9475;1.7267;
133.8000;0.9459;1.7267;
134.1000;0.9483;1.7243;
134.4000;0.9459;1.7195;
134.7000;0.9475;1.7243;
135.0000;0.9491;1.7339;
135.3000;0.9475;1.7243;
135.6000;0.9483;1.7267;
135.9000;0.9540;1.7363;
136.2000;0.9467;1.7243;
136.5000;0.9459;1.7243;
136.8000;0.9483;1.7291;
137.1000;0.9467;1.7219;
137.4000;0.9467;1.7315;
137.7000;0.9483;1.7339;
138.0000;0.9475;1.7291;
138.3000;0.9467;1.7243;
138.6000;0.9426;1.7075;
138.9000;0.9475;1.7171;
139.2000;0.9483;1.7099;
139.5000;0.9451;1.7123;
139.8000;0.9434;1.7195;
140.1000;0.9451;1.7195;
140.4000;0.9483;1.7315;
140.7000;0.9467;1.7339;
141.0000;0.9451;1.7267;
141.3000;0.9475;1.7267;
141.6000;0.9467;1.7339;
141.9000;0.9508;1.7460;
142.2000;0.9418;1.7243;
142.5000;0.9491;1.7339;
142.8000;0.9532;1.7411;
143.1000;0.9516;1.7315;
143.4000;0.9459;1.7147;
143.7000;0.9475;1.7195;
144.0000;0.9459;1.7147;
144.3000;0.9475;1.7147;
144.6000;0.9483;1.7219;
144.9000;0.9467;1.7123;
145.2000;0.9475;1.7123;
145.5000;0.9499;1.7123;
145.8000;0.9475;1.7123;
146.1000;0.9467;1.7099;
146.4000;0.9540;1.7267;
146.7000;0.9483;1.7147;
147.0000;0.9508;1.7195;
147.3000;0.9451;1.6954;
147.6000;0.9508;1.7099;
147.9000;0.9467;1.7123;
148.2000;0.9467;1.7123;
148.5000;0.9475;1.7051;
148.8000;0.9467;1.7027;
149.1000;0.9467;1.7051;
149.4000;0.9467;1.7123;
149.7000;0.9475;1.7219;
150.0000;0.9475;1.7219;
150.3000;0.9491;1.7195;
150.6000;0.9459;1.7123;
150.9000;0.9491;1.7267;
151.2000;0.9475;1.7195;
151.5000;0.9467;1.7171;
151.8000;0.9475;1.7219;
152.1000;0.9475;1.7219;
152.4000;0.9442;1.7099;
152.7000;0.9491;1.7243;
153.0000;0.9499;1.7243;
153.3000;0.9467;1.7147;
153.6000;0.9467;1.7147;
153.9000;0.9475;1.7123;
154.2000;0.9451;1.7171;
154.5000;0.9442;1.7123;
154.8000;0.9483;1.7291;
155.1000;0.9467;1.7267;
155.4000;0.9491;1.7339;
155.7000;0.9442;1.7219;
156.0000;0.9467;1.7291;
156.3000;0.9459;1.7315;
156.6000;0.9459;1.7339;
156.9000;0.9451;1.7339;
157.2000;0.9451;1.7339;
157.5000;0.9451;1.7243;
157.8000;0.9451;1.7195;
158.1000;0.9467;1.7291;
158.4000;0.9459;1.7195;
158.7000;0.9483;1.7267;
159.0000;0.9459;1.7291;
159.3000;0.9475;1.7291;
159.6000;0.9508;1.7411;
159.9000;0.9459;1.7315;
160.2000;0.9475;1.7291;
160.5000;0.9475;1.7315;
160.8000;0.9451;1.7171;
161.1000;0.9459;1.7171;
161.4000;0.9483;1.7195;
161.7000;0.9467;1.7147;
162.0000;0.9434;1.7099;
162.3000;0.9459;1.7243;
162.6000;0.9442;1.7195;
162.9000;0.9459;1.7195;
163.2000;0.9418;1.7075;
163.5000;0.9442;1.7123;
163.8000;0.9442;1.7051;
164.1000;0.9459;1.7075;
164.4000;0.9451;1.7123;
164.7000;0.9475;1.7171;
165.0000;0.9442;1.7003;
165.3000;0.9467;1.7099;
165.6000;0.9426;1.6906;
165.9000;0.9451;1.7027;
166.2000;0.9475;1.7123;
166.5000;0.9467;1.7099;
166.8000;0.9361;1.6786;
167.1000;0.9483;1.7099;
167.4000;0.9451;1.6954;
167.7000;0.9451;1.6930;
168.0000;0.9483;1.6930;
168.3000;0.9467;1.6882;
168.6000;0.9451;1.6834;
168.9000;0.9467;1.6834;
169.2000;0.9434;1.6882;
169.5000;0.9475;1.7003;
169.8000;0.9459;1.6979;
170.1000;0.9442;1.6906;
170.4000;0.9451;1.6882;
170.7000;0.9475;1.7027;
171.0000;0.9499;1.7171;
171.3000;0.9459;1.7195;
171.6000;0.9459;1.7051;
171.9000;0.9402;1.6979;
172.2000;0.9451;1.7147;
172.5000;0.9459;1.7099;
172.8000;0.9434;1.7027;
173.1000;0.9459;1.7147;
173.4000;0.9459;1.7147;
173.7000;0.9467;1.7171;
174.0000;0.9459;1.7147;
174.3000;0.9451;1.7099;
174.6000;0.9491;1.7171;
174.9000;0.9483;1.7171;
175.2000;0.9426;1.7027;
175.5000;0.9475;1.7195;
175.8000;0.9483;1.7315;
176.1000;0.9451;1.7315;
176.4000;0.9467;1.7339;
176.7000;0.9451;1.7267;
177.0000;0.9467;1.7243;
177.3000;0.9459;1.7195;
177.6000;0.9442;1.7099;
177.9000;0.9418;1.7003;
178.2000;0.9467;1.7027;
178.5000;0.9483;1.7075;
178.8000;0.9467;1.7099;
179.1000;0.9467;1.7027;
179.4000;0.9467;1.7027;
179.7000;0.9467;1.7123;
180.0000;0.9475;1.7051;
180.3000;0.9459;1.6954;
180.6000;0.9467;1.7099;
180.9000;0.9540;1.7387;
181.2000;0.9459;1.7147;
181.5000;0.9467;1.7171;
181.8000;0.9451;1.7171;
182.1000;0.9451;1.7147;
182.4000;0.9483;1.7195;
182.7000;0.9434;1.7075;
183.0000;0.9442;1.7123;
183.3000;0.9459;1.7195;
183.6000;0.9483;1.7171;
183.9000;0.9483;1.7171;
184.2000;0.9459;1.7051;
184.5000;0.9459;1.7123;
184.8000;0.9434;1.7003;
185.1000;0.9475;1.7099;
185.4000;0.9451;1.7003;
185.7000;0.9451;1.6930;
186.0000;0.9475;1.7027;
186.3000;0.9451;1.7051;
186.6000;0.9475;1.7099;
186.9000;0.9426;1.7051;
187.2000;0.9459;1.7051;
187.5000;0.9475;1.7171;
187.8000;0.9451;1.7171;
188.1000;0.9459;1.7099;
188.4000;0.9451;1.7195;
188.7000;0.9451;1.7219;
189.0000;0.9475;1.7291;
189.3000;0.9426;1.7219;
189.6000;0.9451;1.7243;
189.9000;0.9467;1.7243;
190.2000;0.9451;1.7195;
190.5000;0.9426;1.7243;
190.8000;0.9442;1.7339;
191.1000;0.9451;1.7363;
191.4000;0.9451;1.7339;
191.7000;0.9418;1.7195;
192.0000;0.9385;1.7123;
192.3000;0.9451;1.7219;
192.6000;0.9451;1.7171;
192.9000;0.9459;1.7123;
193.2000;0.9451;1.7147;
193.5000;0.9451;1.7099;
193.8000;0.9451;1.7075;
194.1000;0.9426;1.7027;
194.4000;0.9467;1.7171;
194.7000;0.9426;1.7123;
195.0000;0.9451;1.7195;
195.3000;0.9467;1.7267;
195.6000;0.9459;1.7147;
195.9000;0.9475;1.7195;
196.2000;0.9483;1.7291;
196.5000;0.9483;1.7291;
196.8000;0.9451;1.7219;
197.1000;0.9467;1.7267;
197.4000;0.9491;1.7411;
197.7000;0.9459;1.7243;
198.0000;0.9467;1.7219;
198.3000;0.9434;1.7291;
198.6000;0.9459;1.7267;
198.9000;0.9451;1.7219;
199.2000;0.9451;1.7195;
199.5000;0.9451;1.7315;
199.8000;0.9434;1.7387;
200.1000;0.9459;1.7580;
200.4000;0.9499;1.7532;
200.7000;0.9491;1.7532;
201.0000;0.9385;1.7243;
201.3000;0.9426;1.7339;
201.6000;0.9434;1.7435;
201.9000;0.9475;1.7411;
202.2000;0.9410;1.7219;
202.5000;0.9491;1.7339;
202.8000;0.9491;1.7363;
203.1000;0.9499;1.7315;
203.4000;0.9459;1.7243;
203.7000;0.9491;1.7195;
204.0000;0.9459;1.7075;
204.3000;0.9426;1.7003;
204.6000;0.9451;1.7099;
204.9000;0.9459;1.7171;
205.2000;0.9426;1.7051;
205.5000;0.9451;1.7051;
205.8000;0.9475;1.7195;
206.1000;0.9442;1.7171;
206.4000;0.9467;1.7243;
206.7000;0.9451;1.7195;
207.0000;0.9442;1.7075;
207.3000;0.9467;1.7123;
207.6000;0.9451;1.7075;
207.9000;0.9459;1.7051;
208.2000;0.9459;1.7003;
208.5000;0.9451;1.7003;
208.8000;0.9442;1.7027;
209.1000;0.9459;1.7051;
209.4000;0.9451;1.7003;
209.7000;0.9442;1.6979;
210.0000;0.9418;1.6930;
210.3000;0.9467;1.7075;
210.6000;0.9467;1.7027;
210.9000;0.9459;1.7027;
211.2000;0.9434;1.7003;
211.5000;0.9442;1.7003;
211.8000;0.9451;1.7123;
212.1000;0.9451;1.7171;
212.4000;0.9434;1.7147;
212.7000;0.9442;1.7147;
213.0000;0.9418;1.7075;
213.3000;0.9442;1.7075;
213.6000;0.9434;1.7075;
213.9000;0.9434;1.7123;
214.2000;0.9442;1.7147;
214.5000;0.9475;1.7243;
214.8000;0.9426;1.7147;
215.1000;0.9451;1.7339;
215.4000;0.9394;1.7171;
215.7000;0.9451;1.7219;
216.0000;0.9434;1.7219;
216.3000;0.9491;1.7339;
216.6000;0.9442;1.7243;
216.9000;0.9451;1.7171;
217.2000;0.9451;1.7075;
217.5000;0.9402;1.6882;
217.8000;0.9467;1.7003;
218.1000;0.9475;1.7075;
218.4000;0.9426;1.7003;
218.7000;0.9426;1.7099;
219.0000;0.9442;1.7147;
219.3000;0.9467;1.7171;
219.6000;0.9442;1.7195;
219.9000;0.9426;1.7195;
220.2000;0.9434;1.7291;
220.5000;0.9394;1.7123;
220.8000;0.9434;1.7123;
221.1000;0.9459;1.7147;
221.4000;0.9459;1.7075;
221.7000;0.9467;1.7147;
222.0000;0.9459;1.7099;
222.3000;0.9483;1.7123;
222.6000;0.9451;1.7027;
222.9000;0.9459;1.7171;
223.2000;0.9426;1.7123;
223.5000;0.9434;1.7195;
223.8000;0.9418;1.7171;
224.1000;0.9459;1.7219;
224.4000;0.9402;1.7027;
224.7000;0.9442;1.7147;
225.0000;0.9442;1.7195;
225.3000;0.9442;1.7219;
225.6000;0.9442;1.7195;
225.9000;0.9451;1.7099;
226.2000;0.9385;1.7027;
226.5000;0.9434;1.7075;
226.8000;0.9402;1.7027;
227.1000;0.9442;1.7171;
227.4000;0.9434;1.7195;
227.7000;0.9434;1.7243;
228.0000;0.9434;1.7267;
228.3000;0.9434;1.7291;
228.6000;0.9426;1.7267;
228.9000;0.9402;1.7147;
229.2000;0.9426;1.7171;
229.5000;0.9426;1.7147;
229.8000;0.9434;1.7171;
230.1000;0.9442;1.7219;
230.4000;0.9434;1.7243;
230.7000;0.9442;1.7219;
231.0000;0.9434;1.7195;
231.3000;0.9434;1.7195;
231.6000;0.9459;1.7171;
231.9000;0.9410;1.7051;
232.2000;0.9434;1.7123;
232.5000;0.9434;1.7147;
232.8000;0.9434;1.7123;
233.1000;0.9442;1.7099;
233.4000;0.9434;1.7099;
233.7000;0.9434;1.7027;
234.0000;0.9434;1.7027;
234.3000;0.9418;1.7027;
234.6000;0.9410;1.7075;
234.9000;0.9410;1.7051;
235.2000;0.9385;1.7051;
235.5000;0.9451;1.7171;
235.8000;0.9418;1.7147;
236.1000;0.9377;1.7027;
236.4000;0.9451;1.7171;
236.7000;0.9459;1.7219;
237.0000;0.9467;1.7219;
237.3000;0.9442;1.7219;
237.6000;0.9426;1.7315;
237.9000;0.9426;1.7243;
238.2000;0.9434;1.7243;
238.5000;0.9459;1.7315;
238.8000;0.9426;1.7291;
239.1000;0.9434;1.7339;
239.4000;0.9442;1.7387;
239.7000;0.9434;1.7291;
240.0000;0.9426;1.7363;
240.3000;0.9426;1.7363;
240.6000;0.9475;1.7460;
240.9000;0.9434;1.7339;
241.2000;0.9442;1.7291;
241.5000;0.9442;1.7243;
241.8000;0.9459;1.7291;
242.1000;0.9442;1.7195;
242.4000;0.9410;1.7051;
242.7000;0.9434;1.7075;
243.0000;0.9475;1.7099;
243.3000;0.9426;1.7003;
243.6000;0.9442;1.7099;
243.9000;0.9418;1.7027;
244.2000;0.9434;1.7123;
244.5000;0.9499;1.7243;
244.8000;0.9442;1.7075;
245.1000;0.9434;1.7027;
245.4000;0.9442;1.7075;
245.7000;0.9434;1.7075;
246.0000;0.9418;1.7027;
246.3000;0.9442;1.7099;
246.6000;0.9426;1.7171;
246.9000;0.9434;1.7195;
247.2000;0.9508;1.7387;
247.5000;0.9442;1.7219;
247.8000;0.9434;1.7291;
248.1000;0.9434;1.7195;
248.4000;0.9426;1.7123;
248.7000;0.9434;1.7075;
249.0000;0.9418;1.7051;
249.3000;0.9426;1.7027;
249.6000;0.9442;1.7075;
249.9000;0.9434;1.7099;
250.2000;0.9434;1.7099;
250.5000;0.9426;1.7003;
250.8000;0.9418;1.7003;
251.1000;0.9434;1.7051;
251.4000;0.9442;1.7027;
251.7000;0.9442;1.6979;
252.0000;0.9442;1.7003;
252.3000;0.9442;1.7075;
252.6000;0.9434;1.7075;
252.9000;0.9410;1.7027;
253.2000;0.9442;1.7123;
253.5000;0.9434;1.7171;
253.8000;0.9434;1.7099;
254.1000;0.9426;1.7123;
254.4000;0.9467;1.7291;
254.7000;0.9442;1.7219;
255.0000;0.9434;1.7219;
255.3000;0.9451;1.7315;
255.6000;0.9426;1.7363;
255.9000;0.9434;1.7339;
256.2000;0.9451;1.7387;
256.5000;0.9442;1.7339;
256.8000;0.9483;1.7387;
257.1000;0.9451;1.7243;
257.4000;0.9418;1.7219;
257.7000;0.9426;1.7243;
258.0000;0.9377;1.7123;
258.3000;0.9434;1.7243;
258.6000;0.9426;1.7267;
258.9000;0.9410;1.7315;
259.2000;0.9394;1.7219;
259.5000;0.9418;1.7219;
259.8000;0.9451;1.7243;
260.1000;0.9434;1.7195;
260.4000;0.9426;1.7171;
260.7000;0.9451;1.7219;
261.0000;0.9467;1.7291;
261.3000;0.9418;1.7171;
261.6000;0.9434;1.7243;
261.9000;0.9426;1.7243;
262.2000;0.9410;1.7195;
262.5000;0.9434;1.7243;
262.8000;0.9394;1.7171;
263.1000;0.9410;1.7267;
263.4000;0.9508;1.7532;
263.7000;0.9434;1.7291;
264.0000;0.9426;1.7315;
264.3000;0.9459;1.7387;
264.6000;0.9410;1.7267;
264.9000;0.9418;1.7195;
265.2000;0.9426;1.7219;
265.5000;0.9410;1.7171;
265.8000;0.9418;1.7147;
266.1000;0.9434;1.7195;
266.4000;0.9426;1.7171;
266.7000;0.9442;1.7243;
267.0000;0.9434;1.7171;
267.3000;0.9442;1.7267;
267.6000;0.9467;1.7363;
267.9000;0.9459;1.7363;
268.2000;0.9451;1.7291;
268.5000;0.9434;1.7243;
268.8000;0.9434;1.7171;
269.1000;0.9442;1.7099;
269.4000;0.9426;1.7075;
269.7000;0.9434;1.7123;
270.0000;0.9426;1.7099;
270.3000;0.9426;1.7147;
270.6000;0.9434;1.7147;
270.9000;0.9418;1.7123;
271.2000;0.9434;1.7147;
271.5000;0.9426;1.7147;
271.8000;0.9426;1.7003;
272.1000;0.9426;1.7003;
272.4000;0.9442;1.7027;
272.7000;0.9483;1.7171;
273.0000;0.9483;1.7195;
273.3000;0.9410;1.7147;
273.6000;0.9345;1.7003;
273.9000;0.9418;1.7315;
274.2000;0.9451;1.7339;
274.5000;0.9459;1.7460;
274.8000;0.9410;1.7315;
275.1000;0.9410;1.7291;
275.4000;0.9442;1.7339;
275.7000;0.9434;1.7363;
276.0000;0.9426;1.7339;
276.3000;0.9434;1.7315;
276.6000;0.9426;1.7435;
276.9000;0.9434;1.7435;
277.2000;0.9434;1.7339;
277.5000;0.9426;1.7315;
277.8000;0.9434;1.7387;
278.1000;0.9434;1.7411;
278.4000;0.9434;1.7363;
278.7000;0.9426;1.7339;
279.0000;0.9418;1.7363;
279.3000;0.9426;1.7315;
279.6000;0.9402;1.7243;
279.9000;0.9459;1.7291;
280.2000;0.9442;1.7219;
280.5000;0.9442;1.7195;
280.8000;0.9442;1.7123;
281.1000;0.9426;1.7075;
281.4000;0.9426;1.7075;
281.7000;0.9434;1.7075;
282.0000;0.9434;1.7123;
282.3000;0.9442;1.7171;
282.6000;0.9426;1.7219;
282.9000;0.9426;1.7267;
283.2000;0.9434;1.7243;
283.5000;0.9442;1.7291;
283.8000;0.9418;1.7243;
284.1000;0.9410;1.7171;
284.4000;0.9426;1.7123;
284.7000;0.9410;1.7051;
285.0000;0.9434;1.7099;
285.3000;0.9459;1.7243;
285.6000;0.9434;1.7219;
285.9000;0.9426;1.7291;
286.2000;0.9426;1.7387;
286.5000;0.9459;1.7460;
286.8000;0.9434;1.7315;
287.1000;0.9426;1.7291;
287.4000;0.9410;1.7243;
287.7000;0.9459;1.7387;
288.0000;0.9442;1.7387;
288.3000;0.9434;1.7387;
288.6000;0.9459;1.7460;
288.9000;0.9426;1.7460;
289.2000;0.9377;1.7387;
289.5000;0.9377;1.7315;
289.8000;0.9426;1.7484;
290.1000;0.9434;1.7435;
290.4000;0.9426;1.7315;
290.7000;0.9442;1.7291;
291.0000;0.9434;1.7219;
291.3000;0.9418;1.7195;
291.6000;0.9434;1.7171;
291.9000;0.9426;1.7243;
292.2000;0.9442;1.7339;
292.5000;0.9434;1.7243;
292.8000;0.9418;1.7219;
293.1000;0.9434;1.7219;
293.4000;0.9418;1.7123;
293.7000;0.9426;1.7099;
294.0000;0.9402;1.7099;
294.3000;0.9418;1.7147;
294.6000;0.9418;1.7147;
294.9000;0.9467;1.7291;
295.2000;0.9402;1.7195;
295.5000;0.9426;1.7291;
295.8000;0.9418;1.7339;
296.1000;0.9434;1.7315;
296.4000;0.9426;1.7363;
296.7000;0.9508;1.7604;
297.0000;0.9442;1.7387;
297.3000;0.9426;1.7315;
297.6000;0.9385;1.7243;
297.9000;0.9434;1.7363;
298.2000;0.9442;1.7387;
298.5000;0.9361;1.7195;
298.8000;0.9394;1.7315;
299.1000;0.9410;1.7315;
299.4000;0.9418;1.7315;
299.7000;0.9499;1.7532;
300.0000;0.9320;1.7147;
300.3000;0.9426;1.7339;
300.6000;0.9426;1.7411;
300.9000;0.9426;1.7484;
301.2000;0.9426;1.7411;
301.5000;0.9426;1.7435;
301.8000;0.9451;1.7484;
302.1000;0.9442;1.7484;
302.4000;0.9434;1.7460;
302.7000;0.9426;1.7532;
303.0000;0.9426;1.7435;
303.3000;0.9410;1.7460;
303.6000;0.9434;1.7460;
303.9000;0.9483;1.7580;
304.2000;0.9410;1.7435;
304.5000;0.9410;1.7411;
304.8000;0.9418;1.7460;
305.1000;0.9402;1.7435;
305.4000;0.9418;1.7508;
305.7000;0.9402;1.7435;
306.0000;0.9418;1.7387;
306.3000;0.9426;1.7508;
306.6000;0.9402;1.7363;
306.9000;0.9410;1.7387;
307.2000;0.9345;1.7195;
307.5000;0.9394;1.7363;
307.8000;0.9410;1.7363;
308.1000;0.9402;1.7339;
308.4000;0.9418;1.7411;
308.7000;0.9418;1.7387;
309.0000;0.9426;1.7363;
309.3000;0.9410;1.7363;
309.6000;0.9410;1.7387;
309.9000;0.9410;1.7363;
310.2000;0.9402;1.7267;
310.5000;0.9402;1.7315;
310.8000;0.9467;1.7532;
311.1000;0.9434;1.7435;
311.4000;0.9418;1.7363;
311.7000;0.9426;1.7267;
312.0000;0.9426;1.7219;
312.3000;0.9451;1.7315;
312.6000;0.9442;1.7315;
312.9000;0.9426;1.7219;
313.2000;0.9426;1.7363;
313.5000;0.9418;1.7363;
313.8000;0.9434;1.7435;
314.1000;0.9418;1.7435;
314.4000;0.9377;1.7339;
314.7000;0.9426;1.7435;
315.0000;0.9426;1.7339;
315.3000;0.9467;1.7411;
315.6000;0.9418;1.7219;
315.9000;0.9410;1.7171;
316.2000;0.9410;1.7267;
316.5000;0.9418;1.7219;
316.8000;0.9418;1.7267;
317.1000;0.9394;1.7267;
317.4000;0.9426;1.7291;
317.7000;0.9410;1.7339;
318.0000;0.9394;1.7243;
318.3000;0.9426;1.7291;
318.6000;0.9434;1.7315;
318.9000;0.9442;1.7267;
319.2000;0.9418;1.7219;
319.5000;0.9402;1.7195;
319.8000;0.9402;1.7123;
320.1000;0.9402;1.7147;
320.4000;0.9410;1.7147;
320.7000;0.9345;1.7075;
321.0000;0.9410;1.7195;
321.3000;0.9434;1.7219;
321.6000;0.9410;1.7219;
321.9000;0.9410;1.7219;
322.2000;0.9418;1.7267;
322.5000;0.9442;1.7387;
322.8000;0.9426;1.7363;
323.1000;0.9426;1.7387;
323.4000;0.9434;1.7435;
323.7000;0.9369;1.7363;
324.0000;0.9426;1.7508;
324.3000;0.9426;1.7460;
324.6000;0.9410;1.7411;
324.9000;0.9418;1.7387;
325.2000;0.9410;1.7363;
325.5000;0.9394;1.7339;
325.8000;0.9402;1.7243;
326.1000;0.9418;1.7195;
326.4000;0.9426;1.7219;
326.7000;0.9410;1.7315;
327.0000;0.9410;1.7387;
327.3000;0.9410;1.7387;
327.6000;0.9434;1.7435;
327.9000;0.9410;1.7460;
328.2000;0.9410;1.7435;
328.5000;0.9394;1.7339;
328.8000;0.9410;1.7339;
329.1000;0.9394;1.7363;
329.4000;0.9418;1.7387;
329.7000;0.9402;1.7291;
330.0000;0.9418;1.7267;
330.3000;0.9442;1.7291;
330.6000;0.9402;1.7195;
330.9000;0.9410;1.7147;
331.2000;0.9402;1.7195;
331.5000;0.9410;1.7315;
331.8000;0.9345;1.7195;
332.1000;0.9402;1.7339;
332.4000;0.9459;1.7484;
332.7000;0.9394;1.7363;
333.0000;0.9402;1.7460;
333.3000;0.9418;1.7484;
333.6000;0.9385;1.7387;
333.9000;0.9418;1.7435;
334.2000;0.9410;1.7411;
334.5000;0.9410;1.7411;
334.8000;0.9369;1.7219;
335.1000;0.9418;1.7195;
335.4000;0.9402;1.7123;
335.7000;0.9394;1.7171;
336.0000;0.9410;1.7291;
336.3000;0.9394;1.7267;
336.6000;0.9377;1.7243;
336.9000;0.9410;1.7291;
337.2000;0.9410;1.7363;
337.5000;0.9394;1.7267;
337.8000;0.9434;1.7363;
338.1000;0.9402;1.7339;
338.4000;0.9410;1.7387;
338.7000;0.9410;1.7484;
339.0000;0.9418;1.7508;
339.3000;0.9410;1.7532;
339.6000;0.9369;1.7363;
339.9000;0.9426;1.7484;
340.2000;0.9418;1.7387;
340.5000;0.9402;1.7387;
340.8000;0.9426;1.7532;
341.1000;0.9418;1.7508;
341.4000;0.9442;1.7411;
341.7000;0.9426;1.7315;
342.0000;0.9516;1.7484;
342.3000;0.9418;1.7243;
342.6000;0.9418;1.7243;
342.9000;0.9426;1.7195;
343.2000;0.9402;1.7195;
343.5000;0.9434;1.7243;
343.8000;0.9426;1.7291;
344.1000;0.9418;1.7315;
344.4000;0.9418;1.7243;
344.7000;0.9410;1.7243;
345.0000;0.9402;1.7195;
345.3000;0.9402;1.7219;
345.6000;0.9394;1.7291;
345.9000;0.9434;1.7460;
346.2000;0.9402;1.7267;
346.5000;0.9426;1.7315;
346.8000;0.9394;1.7291;
347.1000;0.9385;1.7315;
347.4000;0.9426;1.7411;
347.7000;0.9394;1.7315;
348.0000;0.9418;1.7411;
348.3000;0.9418;1.7435;
348.6000;0.9426;1.7484;
348.9000;0.9426;1.7435;
349.2000;0.9426;1.7460;
349.5000;0.9402;1.7484;
349.8000;0.9434;1.7532;
350.1000;0.9426;1.7484;
350.4000;0.9418;1.7604;
350.7000;0.9418;1.7580;
351.0000;0.9353;1.7411;
351.3000;0.9394;1.7532;
351.6000;0.9410;1.7508;
351.9000;0.9402;1.7460;
352.2000;0.9410;1.7484;
352.5000;0.9410;1.7387;
352.8000;0.9402;1.7267;
353.1000;0.9483;1.7484;
353.4000;0.9418;1.7315;
353.7000;0.9410;1.7339;
354.0000;0.9418;1.7267;
354.3000;0.9377;1.7195;
354.6000;0.9402;1.7195;
354.9000;0.9402;1.7195;
355.2000;0.9418;1.7171;
355.5000;0.9418;1.7243;
355.8000;0.9280;1.6979;
356.1000;0.9410;1.7315;
356.4000;0.9394;1.7411;
356.7000;0.9402;1.7363;
357.0000;0.9410;1.7411;
357.3000;0.9483;1.7556;
357.6000;0.9442;1.7508;
357.9000;0.9385;1.7363;
358.2000;0.9410;1.7532;
358.5000;0.9467;1.7652;
358.8000;0.9402;1.7508;
359.1000;0.9377;1.7411;
359.4000;0.9402;1.7484;
359.7000;0.9385;1.7411;
360.0000;0.9394;1.7411;
360.3000;0.9394;1.7435;
360.6000;0.9434;1.7604;
360.9000;0.9361;1.7556;
361.2000;0.9394;1.7484;
361.5000;0.9402;1.7556;
361.8000;0.9394;1.7604;
362.1000;0.9361;1.7508;
362.4000;0.9410;1.7580;
362.7000;0.9394;1.7484;
363.0000;0.9394;1.7580;
363.3000;0.9402;1.7508;
363.6000;0.9410;1.7460;
363.9000;0.9418;1.7460;
364.2000;0.9418;1.7508;
364.5000;0.9402;1.7435;
364.8000;0.9434;1.7556;
365.1000;0.9418;1.7532;
365.4000;0.9353;1.7363;
365.7000;0.9410;1.7460;
366.0000;0.9394;1.7460;
366.3000;0.9394;1.7387;
366.6000;0.9402;1.7435;
366.9000;0.9410;1.7508;
367.2000;0.9410;1.7484;
367.5000;0.9394;1.7508;
367.8000;0.9410;1.7556;
368.1000;0.9369;1.7411;
368.4000;0.9410;1.7435;
368.7000;0.9402;1.7484;
369.0000;0.9394;1.7508;
369.3000;0.9337;1.7315;
369.6000;0.9394;1.7484;
369.9000;0.9369;1.7411;
370.2000;0.9451;1.7387;
370.5000;0.9377;1.7267;
370.8000;0.9402;1.7291;
371.1000;0.9402;1.7243;
371.4000;0.9385;1.7267;
371.7000;0.9353;1.7243;
372.0000;0.9345;1.7171;
372.3000;0.9418;1.7291;
372.6000;0.9410;1.7267;
372.9000;0.9394;1.7267;
373.2000;0.9418;1.7315;
373.5000;0.9394;1.7315;
373.8000;0.9475;1.7532;
374.1000;0.9418;1.7291;
374.4000;0.9402;1.7387;
374.7000;0.9402;1.7411;
375.0000;0.9418;1.7411;
375.3000;0.9410;1.7339;
375.6000;0.9410;1.7435;
375.9000;0.9410;1.7435;
376.2000;0.9402;1.7460;
376.5000;0.9394;1.7508;
376.8000;0.9394;1.7484;
377.1000;0.9394;1.7435;
377.4000;0.9402;1.7484;
377.7000;0.9402;1.7484;
378.0000;0.9385;1.7339;
378.3000;0.9402;1.7339;
378.6000;0.9410;1.7411;
378.9000;0.9385;1.7267;
379.2000;0.9394;1.7243;
379.5000;0.9394;1.7315;
379.8000;0.9385;1.7387;
380.1000;0.9385;1.7460;
380.4000;0.9402;1.7411;
380.7000;0.9377;1.7315;
381.0000;0.9394;1.7243;
381.3000;0.9394;1.7339;
381.6000;0.9385;1.7363;
381.9000;0.9459;1.7532;
382.2000;0.9402;1.7339;
382.5000;0.9402;1.7411;
382.8000;0.9410;1.7435;
383.1000;0.9442;1.7460;
383.4000;0.9394;1.7387;
383.7000;0.9418;1.7387;
384.0000;0.9394;1.7339;
384.3000;0.9402;1.7363;
384.6000;0.9402;1.7315;
384.9000;0.9410;1.7363;
385.2000;0.9402;1.7435;
385.5000;0.9394;1.7460;
385.8000;0.9385;1.7484;
386.1000;0.9385;1.7460;
386.4000;0.9394;1.7460;
386.7000;0.9353;1.7339;
387.0000;0.9434;1.7532;
387.3000;0.9385;1.7387;
387.6000;0.9385;1.7387;
387.9000;0.9410;1.7508;
388.2000;0.9385;1.7484;
388.5000;0.9385;1.7435;
388.8000;0.9410;1.7435;
389.1000;0.9385;1.7315;
389.4000;0.9394;1.7291;
389.7000;0.9434;1.7315;
390.0000;0.9385;1.7219;
390.3000;0.9402;1.7243;
390.6000;0.9353;1.7147;
390.9000;0.9304;1.7051;
391.2000;0.9394;1.7243;
391.5000;0.9418;1.7267;
391.8000;0.9377;1.7099;
392.1000;0.9402;1.7195;
392.4000;0.9345;1.7171;
392.7000;0.9385;1.7339;
393.0000;0.9377;1.7219;
393.3000;0.9385;1.7243;
393.6000;0.9418;1.7387;
393.9000;0.9394;1.7387;
394.2000;0.9385;1.7387;
394.5000;0.9369;1.7363;
394.8000;0.9377;1.7363;
395.1000;0.9369;1.7267;
395.4000;0.9377;1.7291;
395.7000;0.9280;1.7123;
396.0000;0.9312;1.7219;
396.3000;0.9385;1.7411;
396.6000;0.9402;1.7435;
396.9000;0.9361;1.7363;
397.2000;0.9394;1.7315;
397.5000;0.9426;1.7339;
397.8000;0.9410;1.7363;
398.1000;0.9402;1.7411;
398.4000;0.9402;1.7435;
398.7000;0.9402;1.7484;
399.0000;0.9369;1.7339;
399.3000;0.9402;1.7363;
399.6000;0.9402;1.7339;
399.9000;0.9394;1.7411;
400.2000;0.9402;1.7339;
400.5000;0.9377;1.7291;
400.8000;0.9385;1.7267;
401.1000;0.9361;1.7171;
401.4000;0.9377;1.7195;
401.7000;0.9377;1.7171;
402.0000;0.9361;1.7099;
402.3000;0.9369;1.7171;
402.6000;0.9394;1.7195;
402.9000;0.9369;1.7075;
403.2000;0.9369;1.7123;
403.5000;0.9377;1.7099;
403.8000;0.9418;1.7171;
404.1000;0.9394;1.7123;
404.4000;0.9328;1.7003;
404.7000;0.9394;1.7051;
405.0000;0.9385;1.7027;
405.3000;0.9394;1.7099;
405.6000;0.9467;1.7291;
405.9000;0.9377;1.7027;
406.2000;0.9369;1.6979;
406.5000;0.9385;1.6979;
406.8000;0.9418;1.7003;
407.1000;0.9377;1.6979;
407.4000;0.9385;1.7027;
407.7000;0.9434;1.7267;
408.0000;0.9394;1.7147;
408.3000;0.9402;1.7171;
408.6000;0.9394;1.7147;
408.9000;0.9410;1.7195;
409.2000;0.9410;1.7195;
409.5000;0.9394;1.7219;
409.8000;0.9385;1.7243;
410.1000;0.9402;1.7267;
410.4000;0.9377;1.7267;
410.7000;0.9369;1.7243;
411.0000;0.9369;1.7195;
411.3000;0.9385;1.7267;
411.6000;0.9402;1.7267;
411.9000;0.9402;1.7243;
412.2000;0.9377;1.7219;
412.5000;0.9394;1.7291;
412.8000;0.9402;1.7339;
413.1000;0.9402;1.7339;
413.4000;0.9394;1.7291;
413.7000;0.9410;1.7243;
414.0000;0.9385;1.7267;
414.3000;0.9402;1.7267;
414.6000;0.9394;1.7219;
414.9000;0.9353;1.7171;
415.2000;0.9418;1.7339;
415.5000;0.9361;1.7291;
415.8000;0.9394;1.7363;
416.1000;0.9385;1.7291;
416.4000;0.9377;1.7267;
416.7000;0.9361;1.7291;
417.0000;0.9377;1.7339;
417.3000;0.9402;1.7339;
417.6000;0.9394;1.7315;
417.9000;0.9385;1.7291;
418.2000;0.9377;1.7243;
418.5000;0.9402;1.7219;
418.8000;0.9402;1.7315;
419.1000;0.9394;1.7363;
419.4000;0.9434;1.7411;
419.7000;0.9451;1.7532;
420.0000;0.9385;1.7339;
420.3000;0.9394;1.7339;
420.6000;0.9369;1.7243;
420.9000;0.9426;1.7363;
421.2000;0.9385;1.7243;
421.5000;0.9377;1.7243;
421.8000;0.9385;1.7195;
422.1000;0.9385;1.7243;
422.4000;0.9377;1.7195;
422.7000;0.9377;1.7147;
423.0000;0.9385;1.7195;
423.3000;0.9385;1.7171;
423.6000;0.9361;1.7195;
423.9000;0.9353;1.7195;
424.2000;0.9385;1.7219;
424.5000;0.9385;1.7243;
424.8000;0.9328;1.7195;
425.1000;0.9369;1.7219;
425.4000;0.9385;1.7267;
425.7000;0.9394;1.7315;
426.0000;0.9385;1.7411;
426.3000;0.9353;1.7339;
426.6000;0.9361;1.7291;
426.9000;0.9377;1.7435;
427.2000;0.9377;1.7387;
427.5000;0.9418;1.7484;
427.8000;0.9442;1.7460;
428.1000;0.9345;1.7219;
428.4000;0.9394;1.7291;
428.7000;0.9483;1.7508;
429.0000;0.9385;1.7243;
429.3000;0.9377;1.7243;
429.6000;0.9320;1.7099;
429.9000;0.9353;1.7171;
430.2000;0.9377;1.7243;
430.5000;0.9369;1.7147;
430.8000;0.9337;1.7147;
431.1000;0.9385;1.7315;
431.4000;0.9434;1.7363;
431.7000;0.9320;1.7099;
432.0000;0.9377;1.7171;
432.3000;0.9394;1.7123;
432.6000;0.9385;1.7051;
432.9000;0.9426;1.7123;
433.2000;0.9410;1.7099;
433.5000;0.9369;1.7075;
433.8000;0.9369;1.7219;
434.1000;0.9377;1.7195;
434.4000;0.9402;1.7267;
434.7000;0.9394;1.7339;
435.0000;0.9426;1.7435;
435.3000;0.9361;1.7339;
435.6000;0.9451;1.7556;
435.9000;0.9377;1.7387;
436.2000;0.9361;1.7291;
436.5000;0.9394;1.7411;
436.8000;0.9377;1.7339;
437.1000;0.9385;1.7363;
437.4000;0.9385;1.7387;
437.7000;0.9312;1.7267;
438.0000;0.9377;1.7460;
438.3000;0.9377;1.7460;
438.6000;0.9377;1.7508;
438.9000;0.9377;1.7556;
439.2000;0.9345;1.7580;
439.5000;0.9369;1.7676;
439.8000;0.9377;1.7652;
440.1000;0.9369;1.7676;
440.4000;0.9369;1.7580;
440.7000;0.9385;1.7652;
441.0000;0.9377;1.7604;
441.3000;0.9377;1.7532;
441.6000;0.9361;1.7508;
441.9000;0.9369;1.7484;
442.2000;0.9369;1.7411;
442.5000;0.9369;1.7339;
442.8000;0.9377;1.7363;
443.1000;0.9385;1.7387;
443.4000;0.9394;1.7315;
443.7000;0.9385;1.7363;
444.0000;0.9377;1.7315;
444.3000;0.9369;1.7363;
444.6000;0.9385;1.7435;
444.9000;0.9410;1.7484;
445.2000;0.9377;1.7411;
445.5000;0.9377;1.7460;
445.8000;0.9385;1.7484;
446.1000;0.9369;1.7339;
446.4000;0.9418;1.7387;
446.7000;0.9394;1.7387;
447.0000;0.9263;1.7051;
447.3000;0.9394;1.7339;
447.6000;0.9385;1.7243;
447.9000;0.9377;1.7171;
448.2000;0.9394;1.7099;
448.5000;0.9434;1.7195;
448.8000;0.9369;1.7195;
449.1000;0.9377;1.7291;
449.4000;0.9385;1.7387;
449.7000;0.9377;1.7484;
450.0000;0.9377;1.7460;
450.3000;0.9434;1.7484;
450.6000;0.9337;1.7219;
450.9000;0.9369;1.7267;
451.2000;0.9377;1.7339;
451.5000;0.9361;1.7195;
451.8000;0.9361;1.7147;
452.1000;0.9377;1.7075;
452.4000;0.9361;1.7123;
452.7000;0.9353;1.7099;
453.0000;0.9361;1.7027;
453.3000;0.9377;1.7147;
453.6000;0.9353;1.7027;
453.9000;0.9377;1.7027;
454.2000;0.9377;1.7027;
454.5000;0.9361;1.7027;
454.8000;0.9369;1.7123;
455.1000;0.9394;1.7123;
455.4000;0.9385;1.7051;
455.7000;0.9296;1.6858;
456.0000;0.9377;1.6979;
456.3000;0.9385;1.7003;
456.6000;0.9369;1.6930;
456.9000;0.9369;1.6906;
457.2000;0.9377;1.6930;
457.5000;0.9377;1.7003;
457.8000;0.9345;1.6906;
458.1000;0.9353;1.7027;
458.4000;0.9377;1.7147;
458.7000;0.9394;1.7267;
459.0000;0.9385;1.7267;
459.3000;0.9377;1.7243;
459.6000;0.9369;1.7219;
459.9000;0.9377;1.7267;
460.2000;0.9377;1.7267;
460.5000;0.9345;1.7243;
460.8000;0.9312;1.7123;
461.1000;0.9369;1.7315;
461.4000;0.9353;1.7363;
461.7000;0.9369;1.7435;
462.0000;0.9345;1.7339;
462.3000;0.9353;1.7411;
462.6000;0.9385;1.7411;
462.9000;0.9328;1.7267;
463.2000;0.9377;1.7387;
463.5000;0.9385;1.7484;
463.8000;0.9385;1.7460;
464.1000;0.9328;1.7339;
464.4000;0.9377;1.7435;
464.7000;0.9377;1.7363;
465.0000;0.9369;1.7363;
465.3000;0.9369;1.7291;
465.6000;0.9353;1.7315;
465.9000;0.9361;1.7387;
466.2000;0.9280;1.7147;
466.5000;0.9353;1.7315;
466.8000;0.9418;1.7435;
467.1000;0.9361;1.7267;
467.4000;0.9369;1.7291;
467.7000;0.9385;1.7339;
468.0000;0.9410;1.7435;
468.3000;0.9385;1.7315;
468.6000;0.9394;1.7243;
468.9000;0.9394;1.7243;
469.2000;0.9394;1.7243;
469.5000;0.9410;1.7291;
469.8000;0.9377;1.7195;
470.1000;0.9385;1.7243;
470.4000;0.9377;1.7315;
470.7000;0.9377;1.7267;
471.0000;0.9369;1.7267;
471.3000;0.9377;1.7219;
471.6000;0.9394;1.7195;
471.9000;0.9337;1.7051;
472.2000;0.9345;1.7123;
472.5000;0.9369;1.7243;
472.8000;0.9369;1.7267;
473.1000;0.9377;1.7291;
473.4000;0.9320;1.7219;
473.7000;0.9369;1.7315;
474.0000;0.9377;1.7387;
474.3000;0.9377;1.7363;
474.6000;0.9353;1.7387;
474.9000;0.9361;1.7435;
475.2000;0.9377;1.7435;
475.5000;0.9361;1.7411;
475.8000;0.9345;1.7363;
476.1000;0.9353;1.7363;
476.4000;0.9337;1.7291;
476.7000;0.9394;1.7387;
477.0000;0.9353;1.7243;
477.3000;0.9345;1.7267;
477.6000;0.9394;1.7387;
477.9000;0.9377;1.7387;
478.2000;0.9377;1.7435;
478.5000;0.9353;1.7387;
478.8000;0.9394;1.7532;
479.1000;0.9369;1.7484;
479.4000;0.9377;1.7363;
479.7000;0.9369;1.7387;
480.0000;0.9361;1.7363;
480.3000;0.9369;1.7387;
480.6000;0.9361;1.7435;
480.9000;0.9353;1.7411;
481.2000;0.9353;1.7411;
481.5000;0.9345;1.7339;
481.8000;0.9369;1.7339;
482.1000;0.9385;1.7339;
482.4000;0.9369;1.7219;
482.7000;0.9385;1.7291;
483.0000;0.9369;1.7243;
483.3000;0.9377;1.7243;
483.6000;0.9369;1.7291;
483.9000;0.9385;1.7411;
484.2000;0.9345;1.7243;
484.5000;0.9353;1.7219;
484.8000;0.9369;1.7291;
485.1000;0.9337;1.7219;
485.4000;0.9369;1.7291;
485.7000;0.9353;1.7315;
486.0000;0.9320;1.7291;
486.3000;0.9271;1.7147;
486.6000;0.9361;1.7291;
486.9000;0.9361;1.7387;
487.2000;0.9345;1.7315;
487.5000;0.9312;1.7195;
487.8000;0.9369;1.7363;
488.1000;0.9394;1.7339;
488.4000;0.9320;1.7099;
488.7000;0.9353;1.7267;
489.0000;0.9361;1.7243;
489.3000;0.9353;1.7267;
489.6000;0.9337;1.7315;
489.9000;0.9337;1.7315;
490.2000;0.9369;1.7363;
490.5000;0.9369;1.7291;
490.8000;0.9377;1.7219;
491.1000;0.9353;1.7171;
491.4000;0.9377;1.7219;
491.7000;0.9369;1.7195;
492.0000;0.9402;1.7363;
492.3000;0.9353;1.7219;
492.6000;0.9353;1.7219;
492.9000;0.9312;1.7171;
493.2000;0.9377;1.7339;
493.5000;0.9345;1.7267;
493.8000;0.9353;1.7267;
494.1000;0.9369;1.7339;
494.4000;0.9320;1.7243;
494.7000;0.9337;1.7339;
495.0000;0.9345;1.7339;
495.3000;0.9345;1.7315;
495.6000;0.9369;1.7387;
495.9000;0.9377;1.7243;
496.2000;0.9361;1.7195;
496.5000;0.9288;1.7051;
496.8000;0.9361;1.7315;
497.1000;0.9328;1.7243;
497.4000;0.9361;1.7315;
497.7000;0.9328;1.7315;
498.0000;0.9345;1.7363;
498.3000;0.9353;1.7411;
498.6000;0.9369;1.7339;
498.9000;0.9337;1.7219;
499.2000;0.9345;1.7219;
499.5000;0.9345;1.7099;
499.8000;0.9361;1.7147;
500.1000;0.9337;1.7195;
500.4000;0.9361;1.7315;
500.7000;0.9328;1.7267;
501.0000;0.9361;1.7315;
501.3000;0.9345;1.7243;
501.6000;0.9320;1.7243;
501.9000;0.9337;1.7315;
502.2000;0.9361;1.7363;
502.5000;0.9337;1.7243;
502.8000;0.9320;1.7123;
503.1000;0.9361;1.7219;
503.4000;0.9312;1.7123;
503.7000;0.9394;1.7267;
504.0000;0.9353;1.7195;
504.3000;0.9345;1.7171;
504.6000;0.9402;1.7363;
504.9000;0.9394;1.7387;
505.2000;0.9369;1.7363;
505.5000;0.9337;1.7315;
505.8000;0.9369;1.7363;
506.1000;0.9353;1.7387;
506.4000;0.9361;1.7460;
506.7000;0.9353;1.7387;
507.0000;0.9377;1.7508;
507.3000;0.9353;1.7460;
507.6000;0.9353;1.7508;
507.9000;0.9328;1.7363;
508.2000;0.9304;1.7243;
508.5000;0.9345;1.7339;
508.8000;0.9328;1.7315;
509.1000;0.9337;1.7291;
509.4000;0.9320;1.7219;
509.7000;0.9320;1.7171;
510.0000;0.9353;1.7219;
510.3000;0.9418;1.7460;
510.6000;0.9353;1.7243;
510.9000;0.9369;1.7267;
511.2000;0.9385;1.7243;
511.5000;0.9328;1.7123;
511.8000;0.9361;1.7171;
512.1000;0.9361;1.7243;
512.4000;0.9337;1.7171;
512.7000;0.9353;1.7195;
513.0000;0.9337;1.7123;
513.3000;0.9345;1.7123;
513.6000;0.9361;1.7219;
513.9000;0.9361;1.7195;
514.2000;0.9345;1.7219;
514.5000;0.9369;1.7315;
514.8000;0.9369;1.7339;
515.1000;0.9345;1.7291;
515.4000;0.9280;1.7147;
515.7000;0.9345;1.7291;
516.0000;0.9369;1.7315;
516.3000;0.9361;1.7339;
516.6000;0.9369;1.7291;
516.9000;0.9361;1.7243;
517.2000;0.9353;1.7267;
517.5000;0.9385;1.7267;
517.8000;0.9353;1.7291;
518.1000;0.9361;1.7315;
518.4000;0.9328;1.7243;
518.7000;0.9320;1.7219;
519.0000;0.9345;1.7291;
519.3000;0.9337;1.7315;
519.6000;0.9337;1.7219;
519.9000;0.9231;1.7027;
520.2000;0.9337;1.7267;
520.5000;0.9353;1.7219;
520.8000;0.9337;1.7075;
521.1000;0.9369;1.7147;
521.4000;0.9312;1.7051;
521.7000;0.9385;1.7219;
522.0000;0.9345;1.7147;
522.3000;0.9328;1.7195;
522.6000;0.9377;1.7411;
522.9000;0.9328;1.7315;
523.2000;0.9337;1.7267;
523.5000;0.9361;1.7291;
523.8000;0.9353;1.7267;
524.1000;0.9345;1.7267;
524.4000;0.9239;1.7051;
524.7000;0.9312;1.7243;
525.0000;0.9288;1.7123;
525.3000;0.9345;1.7291;
525.6000;0.9369;1.7363;
525.9000;0.9377;1.7315;
526.2000;0.9377;1.7363;
526.5000;0.9337;1.7291;
526.8000;0.9377;1.7363;
527.1000;0.9369;1.7243;
527.4000;0.9394;1.7315;
527.7000;0.9353;1.7267;
528.0000;0.9337;1.7171;
528.3000;0.9345;1.7171;
528.6000;0.9361;1.7171;
528.9000;0.9369;1.7171;
529.2000;0.9337;1.7051;
529.5000;0.9345;1.7123;
529.8000;0.9426;1.7243;
530.1000;0.9369;1.7123;
530.4000;0.9328;1.7075;
530.7000;0.9337;1.7099;
531.0000;0.9345;1.7051;
531.3000;0.9353;1.7075;
531.6000;0.9345;1.7099;
531.9000;0.9328;1.7051;
532.2000;0.9377;1.7267;
532.5000;0.9345;1.7147;
532.8000;0.9328;1.7171;
533.1000;0.9328;1.7195;
533.4000;0.9320;1.7243;
533.7000;0.9361;1.7339;
534.0000;0.9345;1.7291;
534.3000;0.9320;1.7291;
534.6000;0.9345;1.7291;
534.9000;0.9337;1.7267;
535.2000;0.9345;1.7267;
535.5000;0.9328;1.7267;
535.8000;0.9328;1.7243;
536.1000;0.9337;1.7339;
536.4000;0.9361;1.7387;
536.7000;0.9345;1.7411;
537.0000;0.9369;1.7484;
537.3000;0.9328;1.7435;
537.6000;0.9337;1.7460;
537.9000;0.9345;1.7460;
538.2000;0.9337;1.7435;
538.5000;0.9328;1.7435;
538.8000;0.9328;1.7339;
539.1000;0.9361;1.7363;
539.4000;0.9410;1.7435;
539.7000;0.9345;1.7219;
540.0000;0.9337;1.7171;
540.3000;0.9353;1.7099;
540.6000;0.9345;1.7051;
540.9000;0.9345;1.7075;
541.2000;0.9353;1.7051;
541.5000;0.9328;1.7147;
541.8000;0.9312;1.7099;
542.1000;0.9337;1.7195;
542.4000;0.9394;1.7315;
542.7000;0.9369;1.7123;
543.0000;0.9337;1.7171;
543.3000;0.9312;1.7243;
543.6000;0.9312;1.7171;
543.9000;0.9328;1.7243;
544.2000;0.9345;1.7291;
544.5000;0.9337;1.7339;
544.8000;0.9288;1.7219;
545.1000;0.9328;1.7339;
545.4000;0.9377;1.7435;
545.7000;0.9394;1.7580;
546.0000;0.9337;1.7387;
546.3000;0.9353;1.7363;
546.6000;0.9369;1.7363;
546.9000;0.9377;1.7267;
547.2000;0.9345;1.7267;
547.5000;0.9353;1.7339;
547.8000;0.9361;1.7363;
548.1000;0.9337;1.7387;
548.4000;0.9353;1.7315;
548.7000;0.9361;1.7339;
549.0000;0.9345;1.7243;
549.3000;0.9320;1.7099;
549.6000;0.9361;1.7195;
549.9000;0.9345;1.7243;
550.2000;0.9353;1.7267;
550.5000;0.9345;1.7291;
550.8000;0.9328;1.7195;
551.1000;0.9353;1.7195;
551.4000;0.9369;1.7243;
551.7000;0.9361;1.7243;
552.0000;0.9337;1.7219;
552.3000;0.9328;1.7267;
552.6000;0.9328;1.7363;
552.9000;0.9337;1.7363;
553.2000;0.9320;1.7339;
553.5000;0.9320;1.7363;
553.8000;0.9304;1.7243;
554.1000;0.9320;1.7243;
554.4000;0.9328;1.7243;
554.7000;0.9271;1.7171;
555.0000;0.9320;1.7315;
555.3000;0.9337;1.7339;
555.6000;0.9345;1.7339;
555.9000;0.9320;1.7315;
556.2000;0.9345;1.7411;
556.5000;0.9328;1.7315;
556.8000;0.9345;1.7363;
557.1000;0.9337;1.7267;
557.4000;0.9304;1.7147;
557.7000;0.9345;1.7243;
558.0000;0.9345;1.7267;
558.3000;0.9320;1.7243;
558.6000;0.9337;1.7267;
558.9000;0.9328;1.7243;
559.2000;0.9328;1.7267;
559.5000;0.9320;1.7243;
559.8000;0.9337;1.7339;
560.1000;0.9337;1.7339;
560.4000;0.9337;1.7411;
560.7000;0.9337;1.7435;
561.0000;0.9337;1.7363;
561.3000;0.9320;1.7339;
561.6000;0.9337;1.7387;
561.9000;0.9345;1.7411;
562.2000;0.9337;1.7267;
562.5000;0.9361;1.7291;
562.8000;0.9361;1.7315;
563.1000;0.9353;1.7219;
563.4000;0.9353;1.7267;
563.7000;0.9337;1.7267;
564.0000;0.9337;1.7339;
564.3000;0.9312;1.7315;
564.6000;0.9337;1.7339;
564.9000;0.9328;1.7291;
565.2000;0.9328;1.7219;
565.5000;0.9369;1.7267;
565.8000;0.9337;1.7243;
566.1000;0.9320;1.7243;
566.4000;0.9328;1.7363;
566.7000;0.9296;1.7291;
567.0000;0.9280;1.7315;
567.3000;0.9337;1.7387;
567.6000;0.9328;1.7339;
567.9000;0.9320;1.7267;
568.2000;0.9328;1.7339;
568.5000;0.9345;1.7363;
568.8000;0.9353;1.7339;
569.1000;0.9328;1.7243;
569.4000;0.9361;1.7339;
569.7000;0.9320;1.7243;
570.0000;0.9328;1.7243;
570.3000;0.9337;1.7291;
570.6000;0.9337;1.7243;
570.9000;0.9337;1.7267;
571.2000;0.9361;1.7243;
571.5000;0.9320;1.7243;
571.8000;0.9320;1.7171;
572.1000;0.9345;1.7243;
572.4000;0.9345;1.7219;
572.7000;0.9337;1.7315;
573.0000;0.9288;1.7291;
573.3000;0.9296;1.7315;
573.6000;0.9328;1.7435;
573.9000;0.9312;1.7435;
574.2000;0.9328;1.7411;
574.5000;0.9337;1.7411;
574.8000;0.9337;1.7339;
575.1000;0.9328;1.7339;
575.4000;0.9328;1.7387;
575.7000;0.9353;1.7508;
576.0000;0.9345;1.7508;
576.3000;0.9345;1.7484;
576.6000;0.9328;1.7411;
576.9000;0.9328;1.7411;
577.2000;0.9402;1.7580;
577.5000;0.9320;1.7435;
577.8000;0.9296;1.7484;
578.1000;0.9320;1.7460;
578.4000;0.9337;1.7484;
578.7000;0.9296;1.7339;
579.0000;0.9304;1.7315;
579.3000;0.9345;1.7315;
579.6000;0.9328;1.7243;
579.9000;0.9312;1.7219;
580.2000;0.9320;1.7219;
580.5000;0.9312;1.7219;
580.8000;0.9320;1.7195;
581.1000;0.9328;1.7267;
581.4000;0.9328;1.7315;
581.7000;0.9312;1.7291;
582.0000;0.9337;1.7267;
582.3000;0.9361;1.7315;
582.6000;0.9337;1.7219;
582.9000;0.9328;1.7219;
583.2000;0.9345;1.7243;
583.5000;0.9312;1.7243;
583.8000;0.9337;1.7243;
584.1000;0.9337;1.7147;
584.4000;0.9320;1.7147;
584.7000;0.9328;1.7291;
585.0000;0.9337;1.7219;
585.3000;0.9345;1.7195;
585.6000;0.9320;1.7219;
585.9000;0.9320;1.7147;
586.2000;0.9353;1.7147;
586.5000;0.9337;1.7147;
586.8000;0.9337;1.7195;
587.1000;0.9361;1.7243;
587.4000;0.9345;1.7267;
587.7000;0.9353;1.7267;
588.0000;0.9320;1.7243;
588.3000;0.9312;1.7291;
588.6000;0.9328;1.7339;
588.9000;0.9353;1.7435;
589.2000;0.9328;1.7363;
589.5000;0.9320;1.7315;
589.8000;0.9337;1.7267;
590.1000;0.9337;1.7363;
590.4000;0.9328;1.7267;
590.7000;0.9320;1.7291;
591.0000;0.9337;1.7315;
591.3000;0.9320;1.7267;
591.6000;0.9328;1.7195;
591.9000;0.9304;1.7075;
592.2000;0.9328;1.7171;
592.5000;0.9369;1.7315;
592.8000;0.9345;1.7291;
593.1000;0.9304;1.7291;
593.4000;0.9312;1.7267;
593.7000;0.9337;1.7484;
594.0000;0.9312;1.7460;
594.3000;0.9328;1.7484;
594.6000;0.9288;1.7267;
594.9000;0.9328;1.7315;
595.2000;0.9337;1.7315;
595.5000;0.9320;1.7291;
595.8000;0.9337;1.7363;
596.1000;0.9345;1.7387;
596.4000;0.9345;1.7315;
596.7000;0.9337;1.7219;
597.0000;0.9304;1.7075;
597.3000;0.9353;1.7099;
597.6000;0.9328;1.7075;
597.9000;0.9345;1.7123;
598.2000;0.9304;1.7051;
598.5000;0.9345;1.7219;
598.8000;0.9328;1.7171;
599.1000;0.9320;1.7147;
599.4000;0.9337;1.7147;
599.7000;0.9369;1.7243;
600.0000;0.9345;1.7171;
600.3000;0.9320;1.6954;
600.6000;0.9337;1.6954;
600.9000;0.9328;1.6882;
601.2000;0.9288;1.6786;
601.5000;0.9190;1.6594;
601.8000;0.9125;1.6498;
602.1000;0.9060;1.6281;
602.4000;0.9076;1.6377;
602.7000;0.9044;1.6281;
603.0000;0.8897;1.5944;
603.3000;0.8824;1.5800;
603.6000;0.8759;1.5584;
603.9000;0.8702;1.5487;
604.2000;0.8645;1.5415;
604.5000;0.8580;1.5367;
604.8000;0.8539;1.5223;
605.1000;0.8506;1.5151;
605.4000;0.8466;1.5103;
605.7000;0.8417;1.5007;
606.0000;0.8360;1.4814;
606.3000;0.8327;1.4742;
606.6000;0.8278;1.4718;
606.9000;0.8189;1.4598;
607.2000;0.8197;1.4694;
607.5000;0.8164;1.4742;
607.8000;0.8116;1.4718;
608.1000;0.8091;1.4718;
608.4000;0.8067;1.4694;
608.7000;0.8042;1.4526;
609.0000;0.8059;1.4598;
609.3000;0.7945;1.4405;
609.6000;0.7920;1.4381;
609.9000;0.7871;1.4261;
610.2000;0.7896;1.4309;
610.5000;0.7790;1.4093;
610.8000;0.7806;1.4237;
611.1000;0.7823;1.4333;
611.4000;0.7725;1.4165;
611.7000;0.7774;1.4261;
612.0000;0.7709;1.4189;
612.3000;0.7692;1.4213;
612.6000;0.7652;1.4165;
612.9000;0.7627;1.4093;
613.2000;0.7603;1.4117;
613.5000;0.7538;1.4069;
613.8000;0.7562;1.4237;
614.1000;0.7530;1.4213;
614.4000;0.7562;1.4357;
614.7000;0.7505;1.4261;
615.0000;0.7497;1.4213;
615.3000;0.7440;1.4093;
615.6000;0.7424;1.4165;
615.9000;0.7375;1.4069;
616.2000;0.7367;1.4069;
616.5000;0.7350;1.3996;
616.8000;0.7383;1.4093;
617.1000;0.7318;1.3996;
617.4000;0.7302;1.3996;
617.7000;0.7253;1.4021;
618.0000;0.7261;1.4069;
618.3000;0.7253;1.3996;
618.6000;0.7220;1.3924;
618.9000;0.7212;1.3924;
619.2000;0.7204;1.3876;
619.5000;0.7196;1.3924;
619.8000;0.7179;1.3924;
620.1000;0.7139;1.3828;
620.4000;0.7123;1.3732;
620.7000;0.7114;1.3780;
621.0000;0.7098;1.3876;
621.3000;0.7074;1.3876;
621.6000;0.7090;1.3900;
621.9000;0.7066;1.3828;
622.2000;0.7082;1.3972;
622.5000;0.7000;1.3780;
622.8000;0.6992;1.3828;
623.1000;0.6984;1.3852;
623.4000;0.6984;1.3852;
623.7000;0.6960;1.3828;
624.0000;0.6960;1.3924;
624.3000;0.6976;1.3972;
624.6000;0.6919;1.3924;
624.9000;0.6903;1.3852;
625.2000;0.6821;1.3660;
625.5000;0.6878;1.3732;
625.8000;0.6927;1.3900;
626.1000;0.6854;1.3708;
626.4000;0.6846;1.3732;
626.7000;0.6829;1.3756;
627.0000;0.6854;1.3900;
627.3000;0.6781;1.3756;
627.6000;0.6789;1.3708;
627.9000;0.6781;1.3708;
628.2000;0.6772;1.3732;
628.5000;0.6781;1.3684;
628.8000;0.6764;1.3708;
629.1000;0.6748;1.3660;
629.4000;0.6732;1.3588;
629.7000;0.6699;1.3491;
630.0000;0.6707;1.3491;
630.3000;0.6691;1.3588;
630.6000;0.6675;1.3612;
630.9000;0.6683;1.3660;
631.2000;0.6683;1.3564;
631.5000;0.6659;1.3467;
631.8000;0.6683;1.3540;
632.1000;0.6667;1.3564;
632.4000;0.6610;1.3540;
632.7000;0.6642;1.3708;
633.0000;0.6618;1.3636;
633.3000;0.6634;1.3756;
633.6000;0.6577;1.3684;
633.9000;0.6585;1.3708;
634.2000;0.6585;1.3708;
634.5000;0.6561;1.3708;
634.8000;0.6553;1.3660;
635.1000;0.6561;1.3612;
635.4000;0.6536;1.3588;
635.7000;0.6520;1.3588;
636.0000;0.6553;1.3660;
636.3000;0.6569;1.3804;
636.6000;0.6504;1.3636;
636.9000;0.6512;1.3660;
637.2000;0.6496;1.3708;
637.5000;0.6447;1.3636;
637.8000;0.6471;1.3660;
638.1000;0.6455;1.3684;
638.4000;0.6553;1.3876;
638.7000;0.6488;1.3756;
639.0000;0.6431;1.3684;
639.3000;0.6431;1.3708;
639.6000;0.6439;1.3708;
639.9000;0.6414;1.3612;
640.2000;0.6382;1.3564;
640.5000;0.6390;1.3660;
640.8000;0.6398;1.3876;
641.1000;0.6390;1.3852;
641.4000;0.6374;1.3804;
641.7000;0.6374;1.3780;
642.0000;0.6398;1.3828;
642.3000;0.6382;1.3828;
642.6000;0.6382;1.3732;
642.9000;0.6365;1.3804;
643.2000;0.6365;1.3828;
643.5000;0.6309;1.3660;
643.8000;0.6317;1.3684;
644.1000;0.6341;1.3636;
644.4000;0.6349;1.3636;
644.7000;0.6349;1.3708;
645.0000;0.6333;1.3732;
645.3000;0.6276;1.3684;
645.6000;0.6300;1.3780;
645.9000;0.6292;1.3804;
646.2000;0.6309;1.3804;
646.5000;0.6292;1.3780;
646.8000;0.6292;1.3780;
647.1000;0.6292;1.3828;
647.4000;0.6260;1.3756;
647.7000;0.6252;1.3708;
648.0000;0.6243;1.3612;
648.3000;0.6260;1.3636;
648.6000;0.6235;1.3660;
648.9000;0.6219;1.3708;
649.2000;0.6186;1.3732;
649.5000;0.6211;1.3804;
649.8000;0.6195;1.3732;
650.1000;0.6219;1.3756;
650.4000;0.6235;1.3828;
650.7000;0.6203;1.3732;
651.0000;0.6211;1.3708;
651.3000;0.6195;1.3515;
651.6000;0.6195;1.3588;
651.9000;0.6186;1.3612;
652.2000;0.6195;1.3660;
652.5000;0.6195;1.3540;
652.8000;0.6195;1.3564;
653.1000;0.6154;1.3540;
653.4000;0.6170;1.3540;
653.7000;0.6170;1.3515;
654.0000;0.6154;1.3443;
654.3000;0.6146;1.3515;
654.6000;0.6195;1.3708;
654.9000;0.6138;1.3588;
655.2000;0.6129;1.3612;
655.5000;0.6138;1.3588;
655.8000;0.6138;1.3660;
656.1000;0.6146;1.3708;
656.4000;0.6129;1.3684;
656.7000;0.6195;1.3876;
657.0000;0.6121;1.3732;
657.3000;0.6138;1.3828;
657.6000;0.6154;1.3876;
657.9000;0.6097;1.3636;
658.2000;0.6105;1.3636;
658.5000;0.6081;1.3588;
658.8000;0.6089;1.3612;
659.1000;0.6072;1.3515;
659.4000;0.6064;1.3540;
659.7000;0.6064;1.3588;
660.0000;0.6072;1.3612;
660.3000;0.6105;1.3708;
660.6000;0.6040;1.3564;
660.9000;0.6056;1.3612;
661.2000;0.6048;1.3780;
661.5000;0.5991;1.3660;
661.8000;0.6024;1.3732;
662.1000;0.6072;1.3876;
662.4000;0.6032;1.3684;
662.7000;0.6048;1.3660;
663.0000;0.6048;1.3660;
663.3000;0.6024;1.3612;
663.6000;0.6040;1.3756;
663.9000;0.6024;1.3780;
664.2000;0.6007;1.3756;
664.5000;0.6024;1.3804;
664.8000;0.6040;1.3852;
665.1000;0.6024;1.3780;
665.4000;0.6007;1.3804;
665.7000;0.6015;1.3876;
666.0000;0.6024;1.3828;
666.3000;0.6007;1.3804;
666.6000;0.6015;1.3732;
666.9000;0.5983;1.3636;
667.2000;0.6056;1.3828;
667.5000;0.5999;1.3756;
667.8000;0.5999;1.3804;
668.1000;0.5983;1.3732;
668.4000;0.5967;1.3780;
668.7000;0.5991;1.3780;
669.0000;0.5975;1.3732;
669.3000;0.5991;1.3804;
669.6000;0.5950;1.3780;
669.9000;0.5958;1.3852;
670.2000;0.6007;1.3996;
670.5000;0.5942;1.3828;
670.8000;0.5885;1.3660;
671.1000;0.5934;1.3732;
671.4000;0.5950;1.3828;
671.7000;0.5942;1.3780;
672.0000;0.5942;1.3732;
672.3000;0.5942;1.3780;
672.6000;0.5942;1.3804;
672.9000;0.6032;1.4093;
673.2000;0.5926;1.3804;
673.5000;0.5934;1.3708;
673.8000;0.5991;1.3924;
674.1000;0.5926;1.3780;
674.4000;0.5910;1.3852;
674.7000;0.5910;1.3780;
675.0000;0.5885;1.3756;
675.3000;0.5910;1.3708;
675.6000;0.5910;1.3708;
675.9000;0.5910;1.3660;
676.2000;0.5885;1.3684;
676.5000;0.5877;1.3540;
676.8000;0.5926;1.3636;
677.1000;0.5910;1.3515;
677.4000;0.5902;1.3612;
677.7000;0.5958;1.3828;
678.0000;0.5926;1.3804;
678.3000;0.5885;1.3660;
678.6000;0.5877;1.3588;
678.9000;0.5885;1.3564;
679.2000;0.5869;1.3515;
679.5000;0.5869;1.3467;
679.8000;0.5877;1.3540;
680.1000;0.5885;1.3636;
680.4000;0.5869;1.3588;
680.7000;0.5845;1.3515;
681.0000;0.5861;1.3491;
681.3000;0.5861;1.3540;
681.6000;0.5861;1.3540;
681.9000;0.5845;1.3515;
682.2000;0.5853;1.3588;
682.5000;0.5877;1.3636;
682.8000;0.5845;1.3588;
683.1000;0.5869;1.3708;
683.4000;0.5828;1.3612;
683.7000;0.5845;1.3660;
684.0000;0.5877;1.3756;
684.3000;0.5796;1.3491;
684.6000;0.5836;1.3564;
684.9000;0.5820;1.3540;
685.2000;0.5853;1.3612;
685.5000;0.5788;1.3540;
685.8000;0.5763;1.3467;
686.1000;0.5812;1.3636;
686.4000;0.5820;1.3660;
686.7000;0.5845;1.3660;
687.0000;0.5853;1.3636;
687.3000;0.5820;1.3491;
687.6000;0.5845;1.3588;
687.9000;0.5828;1.3540;
688.2000;0.5804;1.3443;
688.5000;0.5820;1.3515;
688.8000;0.5812;1.3564;
689.1000;0.5820;1.3708;
689.4000;0.5788;1.3612;
689.7000;0.5763;1.3564;
690.0000;0.5755;1.3515;
690.3000;0.5796;1.3636;
690.6000;0.5804;1.3660;
690.9000;0.5771;1.3660;
691.2000;0.5714;1.3515;
691.5000;0.5812;1.3684;
691.8000;0.5779;1.3636;
692.1000;0.5779;1.3636;
692.4000;0.5779;1.3564;
692.7000;0.5828;1.3636;
693.0000;0.5763;1.3467;
693.3000;0.5722;1.3419;
693.6000;0.5771;1.3564;
693.9000;0.5779;1.3612;
694.2000;0.5771;1.3515;
694.5000;0.5771;1.3491;
694.8000;0.5828;1.3684;
695.1000;0.5739;1.3419;
695.4000;0.5763;1.3419;
695.7000;0.5771;1.3443;
696.0000;0.5812;1.3588;
696.3000;0.5779;1.3564;
696.6000;0.5779;1.3467;
696.9000;0.5771;1.3564;
697.2000;0.5755;1.3564;
697.5000;0.5763;1.3588;
697.8000;0.5763;1.3564;
698.1000;0.5755;1.3491;
698.4000;0.5747;1.3443;
698.7000;0.5698;1.3443;
699.0000;0.5755;1.3564;
699.3000;0.5755;1.3588;
699.6000;0.5763;1.3660;
699.9000;0.5714;1.3612;
700.2000;0.5722;1.3684;
700.5000;0.5755;1.3780;
700.8000;0.5739;1.3708;
701.1000;0.5747;1.3732;
701.4000;0.5739;1.3732;
701.7000;0.5731;1.3804;
702.0000;0.5779;1.3948;
702.3000;0.5747;1.3828;
702.6000;0.5739;1.3804;
702.9000;0.5649;1.3612;
703.2000;0.5731;1.3852;
703.5000;0.5682;1.3804;
703.8000;0.5722;1.3948;
704.1000;0.5698;1.3852;
704.4000;0.5731;1.3924;
704.7000;0.5722;1.3876;
705.0000;0.5722;1.3828;
705.3000;0.5706;1.3828;
705.6000;0.5714;1.3828;
705.9000;0.5755;1.3924;
706.2000;0.5682;1.3684;
706.5000;0.5706;1.3732;
706.8000;0.5682;1.3660;
707.1000;0.5698;1.3708;
707.4000;0.5706;1.3828;
707.7000;0.5714;1.3828;
708.0000;0.5698;1.3804;
708.3000;0.5682;1.3852;
708.6000;0.5690;1.3804;
708.9000;0.5698;1.3756;
709.2000;0.5698;1.3780;
709.5000;0.5698;1.3756;
709.8000;0.5698;1.3684;
710.1000;0.5690;1.3612;
710.4000;0.5682;1.3564;
710.7000;0.5608;1.3395;
711.0000;0.5698;1.3684;
711.3000;0.5674;1.3708;
711.6000;0.5674;1.3756;
711.9000;0.5706;1.3924;
712.2000;0.5690;1.3852;
712.5000;0.5690;1.3780;
712.8000;0.5698;1.3780;
713.1000;0.5649;1.3756;
713.4000;0.5706;1.3804;
713.7000;0.5682;1.3828;
714.0000;0.5682;1.3900;
714.3000;0.5674;1.3780;
714.6000;0.5690;1.3852;
714.9000;0.5698;1.3876;
715.2000;0.5657;1.3780;
715.5000;0.5674;1.3852;
715.8000;0.5674;1.3900;
716.1000;0.5633;1.3876;
716.4000;0.5657;1.3948;
716.7000;0.5665;1.3972;
717.0000;0.5674;1.3972;
717.3000;0.5682;1.3948;
717.6000;0.5682;1.3876;
717.9000;0.5682;1.3900;
718.2000;0.5625;1.3780;
718.5000;0.5649;1.3804;
718.8000;0.5657;1.3804;
719.1000;0.5657;1.3804;
719.4000;0.5625;1.3636;
719.7000;0.5641;1.3660;
720.0000;0.5641;1.3660;
720.3000;0.5625;1.3612;
720.6000;0.5625;1.3708;
720.9000;0.5665;1.3828;
721.2000;0.5649;1.3732;
721.5000;0.5617;1.3732;
721.8000;0.5633;1.3804;
722.1000;0.5633;1.3828;
722.4000;0.5657;1.3828;
722.7000;0.5649;1.3732;
723.0000;0.5674;1.3828;
723.3000;0.5633;1.3828;
723.6000;0.5625;1.3828;
723.9000;0.5633;1.3852;
724.2000;0.5641;1.3876;
724.5000;0.5633;1.3804;
724.8000;0.5657;1.3828;
725.1000;0.5649;1.3780;
725.4000;0.5633;1.3732;
725.7000;0.5633;1.3684;
726.0000;0.5608;1.3612;
726.3000;0.5633;1.3732;
726.6000;0.5698;1.3948;
726.9000;0.5608;1.3780;
727.2000;0.5633;1.3852;
727.5000;0.5641;1.3756;
727.8000;0.5633;1.3732;
728.1000;0.5625;1.3732;
728.4000;0.5633;1.3756;
728.7000;0.5625;1.3756;
729.0000;0.5617;1.3732;
729.3000;0.5617;1.3780;
729.6000;0.5584;1.3708;
729.9000;0.5682;1.3900;
730.2000;0.5608;1.3852;
730.5000;0.5584;1.3852;
730.8000;0.5600;1.3804;
731.1000;0.5617;1.3780;
731.4000;0.5592;1.3828;
731.7000;0.5617;1.3924;
732.0000;0.5625;1.3900;
732.3000;0.5600;1.3780;
732.6000;0.5584;1.3708;
732.9000;0.5617;1.3780;
733.2000;0.5625;1.3804;
733.5000;0.5641;1.3876;
733.8000;0.5608;1.3804;
734.1000;0.5608;1.3756;
734.4000;0.5592;1.3732;
734.7000;0.5600;1.3756;
735.0000;0.5576;1.3636;
735.3000;0.5576;1.3636;
735.6000;0.5625;1.3780;
735.9000;0.5608;1.3684;
736.2000;0.5608;1.3804;
736.5000;0.5600;1.3732;
736.8000;0.5592;1.3708;
737.1000;0.5608;1.3684;
737.4000;0.5608;1.3708;
737.7000;0.5617;1.3684;
738.0000;0.5600;1.3732;
738.3000;0.5584;1.3708;
738.6000;0.5600;1.3660;
738.9000;0.5576;1.3612;
739.2000;0.5592;1.3684;
739.5000;0.5592;1.3708;
739.8000;0.5584;1.3756;
740.1000;0.5608;1.3876;
740.4000;0.5608;1.4045;
740.7000;0.5568;1.3900;
741.0000;0.5592;1.3924;
741.3000;0.5584;1.3972;
741.6000;0.5592;1.4021;
741.9000;0.5600;1.4069;
742.2000;0.5584;1.3996;
742.5000;0.5592;1.3996;
742.8000;0.5584;1.3924;
743.1000;0.5592;1.3948;
743.4000;0.5519;1.3756;
743.7000;0.5617;1.4021;
744.0000;0.5560;1.3876;
744.3000;0.5600;1.3996;
744.6000;0.5576;1.3852;
744.9000;0.5576;1.3852;
745.2000;0.5576;1.3900;
745.5000;0.5584;1.3924;
745.8000;0.5584;1.3948;
746.1000;0.5584;1.3876;
746.4000;0.5576;1.3804;
746.7000;0.5568;1.3924;
747.0000;0.5584;1.4045;
747.3000;0.5543;1.3876;
747.6000;0.5568;1.3828;
747.9000;0.5576;1.3900;
748.2000;0.5568;1.3900;
748.5000;0.5568;1.3900;
748.8000;0.5576;1.3924;
749.1000;0.5576;1.3900;
749.4000;0.5568;1.3876;
749.7000;0.5535;1.3852;
750.0000;0.5551;1.3900;
750.3000;0.5608;1.3924;
750.6000;0.5657;1.4117;
750.9000;0.5560;1.3876;
751.2000;0.5560;1.3876;
751.5000;0.5592;1.3852;
751.8000;0.5560;1.3708;
752.1000;0.5576;1.3780;
752.4000;0.5600;1.3828;
752.7000;0.5568;1.3756;
753.0000;0.5625;1.3972;
753.3000;0.5503;1.3708;
753.6000;0.5584;1.3900;
753.9000;0.5568;1.3876;
754.2000;0.5576;1.3828;
754.5000;0.5519;1.3684;
754.8000;0.5527;1.3708;
755.1000;0.5584;1.3828;
755.4000;0.5592;1.3900;
755.7000;0.5519;1.3804;
756.0000;0.5568;1.3996;
756.3000;0.5633;1.4189;
756.6000;0.5576;1.4069;
756.9000;0.5560;1.3924;
757.2000;0.5568;1.3972;
757.5000;0.5511;1.3828;
757.8000;0.5592;1.3972;
758.1000;0.5551;1.3780;
758.4000;0.5592;1.3948;
758.7000;0.5576;1.3972;
759.0000;0.5584;1.4021;
759.3000;0.5568;1.3876;
759.6000;0.5535;1.3756;
759.9000;0.5551;1.3708;
760.2000;0.5551;1.3684;
760.5000;0.5551;1.3660;
760.8000;0.5543;1.3684;
761.1000;0.5535;1.3684;
761.4000;0.5560;1.3804;
761.7000;0.5560;1.3828;
762.0000;0.5568;1.3804;
762.3000;0.5568;1.3756;
762.6000;0.5543;1.3708;
762.9000;0.5584;1.3804;
763.2000;0.5560;1.3732;
763.5000;0.5551;1.3684;
763.8000;0.5543;1.3708;
764.1000;0.5551;1.3708;
764.4000;0.5478;1.3491;
764.7000;0.5527;1.3660;
765.0000;0.5551;1.3708;
765.3000;0.5527;1.3636;
765.6000;0.5551;1.3780;
765.9000;0.5527;1.3732;
766.2000;0.5535;1.3684;
766.5000;0.5527;1.3612;
766.8000;0.5527;1.3540;
767.1000;0.5543;1.3540;
767.4000;0.5519;1.3636;
767.7000;0.5527;1.3732;
768.0000;0.5551;1.3732;
768.3000;0.5551;1.3636;
768.6000;0.5519;1.3612;
768.9000;0.5519;1.3540;
769.2000;0.5535;1.3588;
769.5000;0.5560;1.3636;
769.8000;0.5535;1.3636;
770.1000;0.5551;1.3732;
770.4000;0.5519;1.3612;
770.7000;0.5551;1.3708;
771.0000;0.5519;1.3612;
771.3000;0.5535;1.3636;
771.6000;0.5519;1.3564;
771.9000;0.5535;1.3588;
772.2000;0.5527;1.3612;
772.5000;0.5503;1.3660;
772.8000;0.5527;1.3756;
773.1000;0.5535;1.3708;
773.4000;0.5535;1.3684;
773.7000;0.5519;1.3660;
774.0000;0.5511;1.3708;
774.3000;0.5519;1.3660;
774.6000;0.5495;1.3636;
774.9000;0.5535;1.3684;
775.2000;0.5527;1.3636;
775.5000;0.5551;1.3636;
775.8000;0.5495;1.3491;
776.1000;0.5519;1.3636;
776.4000;0.5495;1.3684;
776.7000;0.5519;1.3612;
777.0000;0.5543;1.3636;
777.3000;0.5535;1.3636;
777.6000;0.5535;1.3684;
777.9000;0.5519;1.3660;
778.2000;0.5527;1.3756;
778.5000;0.5519;1.3780;
778.8000;0.5511;1.3780;
779.1000;0.5503;1.3780;
779.4000;0.5503;1.3804;
779.7000;0.5535;1.3900;
780.0000;0.5478;1.3804;
780.3000;0.5495;1.3756;
780.6000;0.5519;1.3804;
780.9000;0.5511;1.3732;
781.2000;0.5486;1.3708;
781.5000;0.5503;1.3780;
781.8000;0.5511;1.3804;
782.1000;0.5511;1.3732;
782.4000;0.5503;1.3684;
782.7000;0.5503;1.3732;
783.0000;0.5503;1.3756;
783.3000;0.5519;1.3804;
783.6000;0.5511;1.3732;
783.9000;0.5478;1.3660;
784.2000;0.5511;1.3684;
784.5000;0.5535;1.3756;
784.8000;0.5511;1.3660;
785.1000;0.5495;1.3684;
785.4000;0.5503;1.3684;
785.7000;0.5495;1.3660;
786.0000;0.5495;1.3684;
786.3000;0.5503;1.3756;
786.6000;0.5503;1.3852;
786.9000;0.5495;1.3924;
787.2000;0.5495;1.3804;
787.5000;0.5503;1.3804;
787.8000;0.5495;1.3804;
788.1000;0.5503;1.3780;
788.4000;0.5462;1.3660;
788.7000;0.5511;1.3876;
789.0000;0.5503;1.3876;
789.3000;0.5495;1.3876;
789.6000;0.5486;1.3876;
789.9000;0.5478;1.3828;
790.2000;0.5511;1.3876;
790.5000;0.5495;1.3732;
790.8000;0.5495;1.3780;
791.1000;0.5421;1.3540;
791.4000;0.5495;1.3636;
791.7000;0.5519;1.3756;
792.0000;0.5503;1.3732;
792.3000;0.5503;1.3780;
792.6000;0.5511;1.3780;
792.9000;0.5478;1.3708;
793.2000;0.5503;1.3756;
793.5000;0.5527;1.3852;
793.8000;0.5511;1.3900;
794.1000;0.5495;1.3924;
794.4000;0.5503;1.3972;
794.7000;0.5503;1.3996;
795.0000;0.5486;1.3924;
795.3000;0.5503;1.3828;
795.6000;0.5495;1.3804;
795.9000;0.5503;1.3828;
796.2000;0.5503;1.3852;
796.5000;0.5486;1.3876;
796.8000;0.5462;1.3876;
797.1000;0.5486;1.3828;
797.4000;0.5486;1.3828;
797.7000;0.5543;1.3924;
798.0000;0.5495;1.3828;
798.3000;0.5503;1.3804;
798.6000;0.5486;1.3756;
798.9000;0.5486;1.3732;
799.2000;0.5478;1.3756;
799.5000;0.5495;1.3828;
799.8000;0.5519;1.3948;
800.1000;0.5486;1.3804;
800.4000;0.5478;1.3828;
800.7000;0.5486;1.3828;
801.0000;0.5495;1.3852;
801.3000;0.5446;1.3804;
801.6000;0.5470;1.3876;
801.9000;0.5478;1.3900;
802.2000;0.5462;1.3876;
802.5000;0.5486;1.3852;
802.8000;0.5462;1.3732;
803.1000;0.5478;1.3828;
803.4000;0.5470;1.3804;
803.7000;0.5495;1.3780;
804.0000;0.5486;1.3852;
804.3000;0.5495;1.3972;
804.6000;0.5478;1.4021;
804.9000;0.5486;1.4045;
805.2000;0.5495;1.3972;
805.5000;0.5486;1.3924;
805.8000;0.5446;1.3852;
806.1000;0.5470;1.3972;
806.4000;0.5462;1.3972;
806.7000;0.5478;1.3972;
807.0000;0.5478;1.3900;
807.3000;0.5495;1.3900;
807.6000;0.5543;1.4045;
807.9000;0.5478;1.3876;
808.2000;0.5486;1.3876;
808.5000;0.5486;1.3780;
808.8000;0.5519;1.3828;
809.1000;0.5478;1.3660;
809.4000;0.5462;1.3684;
809.7000;0.5503;1.3780;
810.0000;0.5503;1.3876;
810.3000;0.5462;1.3804;
810.6000;0.5470;1.3852;
810.9000;0.5503;1.3876;
811.2000;0.5470;1.3900;
811.5000;0.5454;1.3828;
811.8000;0.5389;1.3636;
812.1000;0.5462;1.3756;
812.4000;0.5486;1.3828;
812.7000;0.5470;1.3804;
813.0000;0.5486;1.3852;
813.3000;0.5478;1.3804;
813.6000;0.5486;1.3876;
813.9000;0.5462;1.3852;
814.2000;0.5462;1.3828;
814.5000;0.5470;1.3828;
814.8000;0.5535;1.3996;
815.1000;0.5478;1.3876;
815.4000;0.5503;1.3972;
815.7000;0.5470;1.3948;
816.0000;0.5462;1.3900;
816.3000;0.5454;1.3828;
816.6000;0.5462;1.3924;
816.9000;0.5446;1.3900;
817.2000;0.5478;1.3924;
817.5000;0.5462;1.3804;
817.8000;0.5511;1.3924;
818.1000;0.5462;1.3732;
818.4000;0.5478;1.3756;
818.7000;0.5478;1.3828;
819.0000;0.5486;1.3924;
819.3000;0.5495;1.3948;
819.6000;0.5454;1.3948;
819.9000;0.5478;1.3996;
820.2000;0.5470;1.3996;
820.5000;0.5470;1.3948;
820.8000;0.5511;1.4021;
821.1000;0.5486;1.3972;
821.4000;0.5470;1.3996;
821.7000;0.5478;1.3996;
822.0000;0.5486;1.4045;
822.3000;0.5470;1.3996;
822.6000;0.5478;1.3924;
822.9000;0.5446;1.3828;
823.2000;0.5446;1.3828;
823.5000;0.5478;1.3900;
823.8000;0.5462;1.3948;
824.1000;0.5454;1.3972;
824.4000;0.5478;1.3996;
824.7000;0.5519;1.4117;
825.0000;0.5462;1.4069;
825.3000;0.5478;1.4141;
825.6000;0.5470;1.4069;
825.9000;0.5446;1.3972;
826.2000;0.5454;1.3972;
826.5000;0.5421;1.3876;
826.8000;0.5462;1.3996;
827.1000;0.5421;1.3900;
827.4000;0.5454;1.4021;
827.7000;0.5462;1.4021;
828.0000;0.5495;1.4045;
828.3000;0.5454;1.3996;
828.6000;0.5535;1.4165;
828.9000;0.5478;1.3996;
829.2000;0.5470;1.3924;
829.5000;0.5470;1.3948;
829.8000;0.5421;1.3732;
830.1000;0.5462;1.3780;
830.4000;0.5454;1.3828;
830.7000;0.5405;1.3732;
831.0000;0.5462;1.3804;
831.3000;0.5446;1.3804;
831.6000;0.5381;1.3684;
831.9000;0.5478;1.3900;
832.2000;0.5438;1.3828;
832.5000;0.5446;1.3756;
832.8000;0.5446;1.3804;
833.1000;0.5454;1.3852;
833.4000;0.5438;1.3852;
833.7000;0.5446;1.3780;
834.0000;0.5454;1.3780;
834.3000;0.5503;1.3852;
834.6000;0.5462;1.3708;
834.9000;0.5462;1.3684;
835.2000;0.5462;1.3564;
835.5000;0.5454;1.3540;
835.8000;0.5446;1.3612;
836.1000;0.5421;1.3612;
836.4000;0.5438;1.3612;
836.7000;0.5470;1.3540;
837.0000;0.5438;1.3467;
837.3000;0.5438;1.3419;
837.6000;0.5454;1.3564;
837.9000;0.5462;1.3564;
838.2000;0.5438;1.3540;
838.5000;0.5470;1.3564;
838.8000;0.5421;1.3515;
839.1000;0.5421;1.3515;
839.4000;0.5535;1.3804;
839.7000;0.5438;1.3612;
840.0000;0.5454;1.3756;
840.3000;0.5446;1.3804;
840.6000;0.5405;1.3732;
840.9000;0.5470;1.3828;
841.2000;0.5429;1.3780;
841.5000;0.5486;1.3900;
841.8000;0.5462;1.3876;
842.1000;0.5446;1.3732;
842.4000;0.5454;1.3756;
842.7000;0.5429;1.3684;
843.0000;0.5429;1.3732;
843.3000;0.5438;1.3780;
843.6000;0.5462;1.3828;
843.9000;0.5421;1.3732;
844.2000;0.5446;1.3756;
844.5000;0.5438;1.3732;
844.8000;0.5462;1.3732;
845.1000;0.5421;1.3684;
845.4000;0.5446;1.3804;
845.7000;0.5454;1.3804;
846.0000;0.5438;1.3828;
846.3000;0.5454;1.3876;
846.6000;0.5470;1.3876;
846.9000;0.5462;1.3804;
847.2000;0.5446;1.3804;
847.5000;0.5438;1.3876;
847.8000;0.5413;1.3756;
848.1000;0.5454;1.3852;
848.4000;0.5421;1.3780;
848.7000;0.5389;1.3708;
849.0000;0.5438;1.3828;
849.3000;0.5438;1.3804;
849.6000;0.5454;1.3876;
849.9000;0.5429;1.3804;
850.2000;0.5438;1.3756;
850.5000;0.5446;1.3780;
850.8000;0.5446;1.3780;
851.1000;0.5438;1.3756;
851.4000;0.5446;1.3780;
851.7000;0.5438;1.3732;
852.0000;0.5446;1.3780;
852.3000;0.5438;1.3804;
852.6000;0.5454;1.3852;
852.9000;0.5429;1.3780;
853.2000;0.5438;1.3804;
853.5000;0.5413;1.3756;
853.8000;0.5438;1.3828;
854.1000;0.5446;1.3756;
854.4000;0.5438;1.3732;
854.7000;0.5446;1.3780;
855.0000;0.5438;1.3852;
855.3000;0.5446;1.3924;
855.6000;0.5438;1.3852;
855.9000;0.5454;1.3972;
856.2000;0.5413;1.3900;
856.5000;0.5413;1.3828;
856.8000;0.5446;1.3852;
857.1000;0.5462;1.3804;
857.4000;0.5438;1.3756;
857.7000;0.5421;1.3804;
858.0000;0.5397;1.3780;
858.3000;0.5446;1.3852;
858.6000;0.5429;1.3780;
858.9000;0.5413;1.3756;
859.2000;0.5429;1.3756;
859.5000;0.5429;1.3876;
859.8000;0.5438;1.3876;
860.1000;0.5421;1.3828;
860.4000;0.5421;1.3804;
860.7000;0.5421;1.3804;
861.0000;0.5438;1.3828;
861.3000;0.5421;1.3924;
861.6000;0.5413;1.3924;
861.9000;0.5429;1.3924;
862.2000;0.5413;1.3828;
862.5000;0.5429;1.3828;
862.8000;0.5421;1.3756;
863.1000;0.5486;1.3828;
863.4000;0.5397;1.3684;
863.7000;0.5446;1.3732;
864.0000;0.5429;1.3732;
864.3000;0.5446;1.3828;
864.6000;0.5438;1.3876;
864.9000;0.5446;1.4045;
865.2000;0.5454;1.4069;
865.5000;0.5454;1.4069;
865.8000;0.5446;1.4021;
866.1000;0.5429;1.4093;
866.4000;0.5438;1.4045;
866.7000;0.5429;1.3972;
867.0000;0.5535;1.4165;
867.3000;0.5454;1.3948;
867.6000;0.5421;1.3852;
867.9000;0.5438;1.3852;
868.2000;0.5454;1.4069;
868.5000;0.5413;1.3924;
868.8000;0.5421;1.3924;
869.1000;0.5421;1.3972;
869.4000;0.5462;1.3900;
869.7000;0.5438;1.3924;
870.0000;0.5446;1.3996;
870.3000;0.5429;1.4021;
870.6000;0.5389;1.3924;
870.9000;0.5438;1.3948;
871.2000;0.5438;1.4021;
871.5000;0.5413;1.4045;
871.8000;0.5397;1.4045;
872.1000;0.5421;1.4021;
872.4000;0.5421;1.4093;
872.7000;0.5429;1.4069;
873.0000;0.5446;1.4141;
873.3000;0.5413;1.4021;
873.6000;0.5421;1.4117;
873.9000;0.5438;1.4069;
874.2000;0.5421;1.3972;
874.5000;0.5397;1.3996;
874.8000;0.5405;1.3948;
875.1000;0.5421;1.3996;
875.4000;0.5413;1.4021;
875.7000;0.5356;1.3876;
876.0000;0.5438;1.3948;
876.3000;0.5438;1.3996;
876.6000;0.5421;1.4021;
876.9000;0.5413;1.4021;
877.2000;0.5405;1.3972;
877.5000;0.5438;1.4117;
877.8000;0.5438;1.4093;
878.1000;0.5429;1.3996;
878.4000;0.5446;1.4045;
878.7000;0.5446;1.3972;
879.0000;0.5421;1.3924;
879.3000;0.5438;1.3948;
879.6000;0.5421;1.3948;
879.9000;0.5438;1.3972;
880.2000;0.5413;1.3996;
880.5000;0.5462;1.4045;
880.8000;0.5413;1.3972;
881.1000;0.5438;1.4117;
881.4000;0.5470;1.4141;
881.7000;0.5446;1.4069;
882.0000;0.5413;1.3972;
882.3000;0.5405;1.4021;
882.6000;0.5405;1.4093;
882.9000;0.5413;1.4093;
883.2000;0.5421;1.4069;
883.5000;0.5429;1.4093;
883.8000;0.5438;1.4141;
884.1000;0.5421;1.4069;
884.4000;0.5421;1.4069;
884.7000;0.5405;1.3996;
885.0000;0.5413;1.4021;
885.3000;0.5429;1.3972;
885.6000;0.5421;1.3924;
885.9000;0.5413;1.4045;
886.2000;0.5413;1.4141;
886.5000;0.5421;1.4069;
886.8000;0.5397;1.4021;
887.1000;0.5413;1.4117;
887.4000;0.5413;1.4093;
887.7000;0.5429;1.4093;
888.0000;0.5413;1.3972;
888.3000;0.5421;1.3852;
888.6000;0.5478;1.3996;
888.9000;0.5429;1.3948;
889.2000;0.5454;1.4045;
889.5000;0.5421;1.3972;
889.8000;0.5429;1.3948;
890.1000;0.5429;1.3924;
890.4000;0.5429;1.3852;
890.7000;0.5421;1.3924;
891.0000;0.5462;1.3924;
891.3000;0.5413;1.3780;
891.6000;0.5429;1.3876;
891.9000;0.5421;1.3900;
892.2000;0.5421;1.3996;
892.5000;0.5421;1.3948;
892.8000;0.5429;1.3924;
893.1000;0.5446;1.4045;
893.4000;0.5421;1.3996;
893.7000;0.5413;1.3876;
894.0000;0.5429;1.3924;
894.3000;0.5421;1.3948;
894.6000;0.5429;1.3924;
894.9000;0.5421;1.3828;
895.2000;0.5413;1.3900;
895.5000;0.5413;1.3948;
895.8000;0.5364;1.3852;
896.1000;0.5413;1.3924;
896.4000;0.5405;1.3852;
896.7000;0.5421;1.3900;
897.0000;0.5413;1.3876;
897.3000;0.5429;1.3876;
897.6000;0.5405;1.3972;
897.9000;0.5421;1.4117;
898.2000;0.5413;1.4069;
898.5000;0.5413;1.4045;
898.8000;0.5429;1.4045;
899.1000;0.5421;1.4117;
899.4000;0.5413;1.4189;
899.7000;0.5421;1.4117;
900.0000;0.5429;1.4165;
900.3000;0.5429;1.4117;
900.6000;0.5413;1.3996;
900.9000;0.5454;1.4093;
901.2000;0.5389;1.3924;
901.5000;0.5421;1.4021;
901.8000;0.5429;1.4045;
902.1000;0.5429;1.4021;
902.4000;0.5421;1.4069;
902.7000;0.5413;1.4093;
903.0000;0.5421;1.4165;
903.3000;0.5413;1.4117;
903.6000;0.5413;1.4069;
903.9000;0.5429;1.4021;
904.2000;0.5364;1.3804;
904.5000;0.5438;1.3972;
904.8000;0.5413;1.3876;
905.1000;0.5405;1.3948;
905.4000;0.5429;1.4069;
905.7000;0.5413;1.4045;
906.0000;0.5413;1.4069;
906.3000;0.5381;1.4069;
906.6000;0.5413;1.4165;
906.9000;0.5405;1.4045;
907.2000;0.5397;1.4069;
907.5000;0.5413;1.4069;
907.8000;0.5405;1.4069;
908.1000;0.5405;1.4117;
908.4000;0.5405;1.4165;
908.7000;0.5397;1.4189;
909.0000;0.5421;1.4189;
909.3000;0.5413;1.4237;
909.6000;0.5389;1.4189;
909.9000;0.5405;1.4189;
910.2000;0.5421;1.4213;
910.5000;0.5389;1.4093;
910.8000;0.5429;1.4093;
911.1000;0.5421;1.4141;
911.4000;0.5421;1.4189;
911.7000;0.5421;1.4189;
912.0000;0.5413;1.4165;
912.3000;0.5405;1.4021;
912.6000;0.5446;1.4189;
912.9000;0.5348;1.4021;
913.2000;0.5413;1.4141;
913.5000;0.5413;1.4045;
913.8000;0.5381;1.3924;
914.1000;0.5364;1.3852;
914.4000;0.5405;1.3924;
914.7000;0.5413;1.3924;
915.0000;0.5413;1.3900;
915.3000;0.5405;1.3996;
915.6000;0.5413;1.4045;
915.9000;0.5405;1.3996;
916.2000;0.5421;1.3996;
916.5000;0.5405;1.4021;
916.8000;0.5413;1.4117;
917.1000;0.5413;1.4141;
917.4000;0.5429;1.4189;
917.7000;0.5389;1.4093;
918.0000;0.5413;1.4093;
918.3000;0.5421;1.4165;
918.6000;0.5405;1.4021;
918.9000;0.5405;1.4093;
919.2000;0.5405;1.4117;
919.5000;0.5413;1.4165;
919.8000;0.5405;1.4093;
920.1000;0.5405;1.4141;
920.4000;0.5405;1.4117;
920.7000;0.5381;1.4165;
921.0000;0.5413;1.4261;
921.3000;0.5405;1.4189;
921.6000;0.5421;1.4285;
921.9000;0.5421;1.4165;
922.2000;0.5405;1.4213;
922.5000;0.5405;1.4285;
922.8000;0.5413;1.4357;
923.1000;0.5413;1.4405;
923.4000;0.5413;1.4357;
923.7000;0.5462;1.4453;
924.0000;0.5405;1.4285;
924.3000;0.5413;1.4285;
924.6000;0.5421;1.4309;
924.9000;0.5470;1.4429;
925.2000;0.5405;1.4165;
925.5000;0.5429;1.4141;
925.8000;0.5429;1.4069;
926.1000;0.5413;1.4045;
926.4000;0.5389;1.3972;
926.7000;0.5397;1.4021;
927.0000;0.5446;1.4093;
927.3000;0.5405;1.4069;
927.6000;0.5413;1.4117;
927.9000;0.5397;1.4165;
928.2000;0.5454;1.4261;
928.5000;0.5405;1.4189;
928.8000;0.5405;1.4213;
929.1000;0.5405;1.4213;
929.4000;0.5397;1.4213;
929.7000;0.5421;1.4261;
930.0000;0.5340;1.4093;
930.3000;0.5364;1.4141;
930.6000;0.5389;1.4117;
930.9000;0.5421;1.4117;
931.2000;0.5405;1.4093;
931.5000;0.5405;1.4117;
931.8000;0.5381;1.4021;
932.1000;0.5405;1.4117;
932.4000;0.5389;1.3972;
932.7000;0.5405;1.4021;
933.0000;0.5397;1.3996;
933.3000;0.5413;1.4021;
933.6000;0.5397;1.4045;
933.9000;0.5413;1.4093;
934.2000;0.5405;1.4093;
934.5000;0.5413;1.4165;
934.8000;0.5372;1.3996;
935.1000;0.5389;1.4069;
935.4000;0.5381;1.4093;
935.7000;0.5389;1.4069;
936.0000;0.5429;1.4165;
936.3000;0.5397;1.4117;
936.6000;0.5397;1.4045;
936.9000;0.5381;1.3972;
937.2000;0.5389;1.3996;
937.5000;0.5381;1.3924;
937.8000;0.5397;1.4021;
938.1000;0.5381;1.3972;
938.4000;0.5405;1.4021;
938.7000;0.5405;1.3900;
939.0000;0.5332;1.3684;
939.3000;0.5413;1.3900;
939.6000;0.5421;1.3948;
939.9000;0.5413;1.3924;
940.2000;0.5421;1.3900;
940.5000;0.5397;1.3828;
940.8000;0.5372;1.3804;
941.1000;0.5413;1.3948;
941.4000;0.5389;1.3948;
941.7000;0.5381;1.3948;
942.0000;0.5389;1.4021;
942.3000;0.5478;1.4213;
942.6000;0.5389;1.3948;
942.9000;0.5397;1.3876;
943.2000;0.5413;1.3852;
943.5000;0.5413;1.3828;
943.8000;0.5389;1.3756;
944.1000;0.5397;1.3780;
944.4000;0.5405;1.3780;
944.7000;0.5397;1.3756;
945.0000;0.5413;1.3804;
945.3000;0.5413;1.3900;
945.6000;0.5397;1.3780;
945.9000;0.5446;1.4045;
946.2000;0.5389;1.3852;
946.5000;0.5389;1.3828;
946.8000;0.5389;1.3876;
947.1000;0.5397;1.3972;
947.4000;0.5405;1.4093;
947.7000;0.5397;1.4117;
948.0000;0.5397;1.3948;
948.3000;0.5397;1.3900;
948.6000;0.5405;1.3948;
948.9000;0.5438;1.4021;
949.2000;0.5413;1.4021;
949.5000;0.5397;1.3948;
949.8000;0.5364;1.3900;
950.1000;0.5397;1.3972;
950.4000;0.5429;1.4069;
950.7000;0.5381;1.3972;
951.0000;0.5446;1.3972;
951.3000;0.5413;1.3852;
951.6000;0.5413;1.3852;
951.9000;0.5429;1.3876;
952.2000;0.5389;1.3900;
952.5000;0.5413;1.3876;
952.8000;0.5438;1.3924;
953.1000;0.5389;1.3876;
953.4000;0.5405;1.3852;
953.7000;0.5397;1.3804;
954.0000;0.5495;1.4045;
954.3000;0.5405;1.3804;
954.6000;0.5478;1.3948;
954.9000;0.5405;1.3804;
955.2000;0.5405;1.3828;
955.5000;0.5389;1.3756;
955.8000;0.5405;1.3804;
956.1000;0.5397;1.3828;
956.4000;0.5421;1.3900;
956.7000;0.5413;1.3876;
957.0000;0.5405;1.3972;
957.3000;0.5413;1.3996;
957.6000;0.5405;1.3900;
957.9000;0.5389;1.3828;
958.2000;0.5397;1.3756;
958.5000;0.5405;1.3756;
958.8000;0.5405;1.3804;
959.1000;0.5413;1.3876;
959.4000;0.5405;1.3828;
959.7000;0.5405;1.3852;
960.0000;0.5332;1.3684;
960.3000;0.5381;1.3852;
960.6000;0.5372;1.3852;
960.9000;0.5364;1.3780;
961.2000;0.5372;1.3756;
961.5000;0.5356;1.3804;
961.8000;0.5364;1.3876;
962.1000;0.5397;1.3924;
962.4000;0.5389;1.3804;
962.7000;0.5381;1.3780;
963.0000;0.5389;1.3684;
963.3000;0.5381;1.3588;
963.6000;0.5405;1.3612;
963.9000;0.5315;1.3419;
964.2000;0.5397;1.3684;
964.5000;0.5462;1.3780;
964.8000;0.5364;1.3732;
965.1000;0.5405;1.3828;
965.4000;0.5364;1.3660;
965.7000;0.5397;1.3756;
966.0000;0.5381;1.3708;
966.3000;0.5397;1.3780;
966.6000;0.5405;1.3756;
966.9000;0.5389;1.3708;
967.2000;0.5405;1.3684;
967.5000;0.5397;1.3684;
967.8000;0.5413;1.3660;
968.1000;0.5381;1.3732;
968.4000;0.5389;1.3732;
968.7000;0.5429;1.3852;
969.0000;0.5413;1.3852;
969.3000;0.5381;1.3900;
969.6000;0.5389;1.3876;
969.9000;0.5389;1.3852;
970.2000;0.5389;1.3852;
970.5000;0.5405;1.3780;
970.8000;0.5389;1.3780;
971.1000;0.5405;1.3780;
971.4000;0.5397;1.3708;
971.7000;0.5397;1.3636;
972.0000;0.5389;1.3612;
972.3000;0.5381;1.3588;
972.6000;0.5397;1.3636;
972.9000;0.5397;1.3612;
973.2000;0.5397;1.3612;
973.5000;0.5397;1.3564;
973.8000;0.5421;1.3636;
974.1000;0.5421;1.3588;
974.4000;0.5381;1.3540;
974.7000;0.5381;1.3564;
975.0000;0.5397;1.3660;
975.3000;0.5405;1.3636;
975.6000;0.5405;1.3612;
975.9000;0.5405;1.3588;
976.2000;0.5324;1.3419;
976.5000;0.5348;1.3443;
976.8000;0.5413;1.3588;
977.1000;0.5397;1.3443;
977.4000;0.5389;1.3443;
977.7000;0.5381;1.3564;
978.0000;0.5495;1.3924;
978.3000;0.5372;1.3660;
978.6000;0.5438;1.3756;
978.9000;0.5389;1.3732;
979.2000;0.5364;1.3756;
979.5000;0.5421;1.3948;
979.8000;0.5389;1.3876;
980.1000;0.5389;1.3852;
980.4000;0.5307;1.3684;
980.7000;0.5389;1.3756;
981.0000;0.5340;1.3588;
981.3000;0.5389;1.3732;
981.6000;0.5462;1.3852;
981.9000;0.5405;1.3732;
982.2000;0.5389;1.3636;
982.5000;0.5397;1.3588;
982.8000;0.5397;1.3612;
983.1000;0.5381;1.3636;
983.4000;0.5389;1.3660;
983.7000;0.5421;1.3684;
984.0000;0.5381;1.3515;
984.3000;0.5372;1.3395;
984.6000;0.5397;1.3515;
984.9000;0.5381;1.3564;
985.2000;0.5381;1.3491;
985.5000;0.5381;1.3540;
985.8000;0.5389;1.3515;
986.1000;0.5389;1.3588;
986.4000;0.5405;1.3612;
986.7000;0.5381;1.3660;
987.0000;0.5397;1.3780;
987.3000;0.5381;1.3756;
987.6000;0.5389;1.3780;
987.9000;0.5405;1.3756;
988.2000;0.5389;1.3684;
988.5000;0.5389;1.3684;
988.8000;0.5389;1.3708;
989.1000;0.5389;1.3588;
989.4000;0.5413;1.3588;
989.7000;0.5405;1.3588;
990.0000;0.5389;1.3515;
990.3000;0.5397;1.3540;
990.6000;0.5421;1.3636;
990.9000;0.5438;1.3708;
991.2000;0.5389;1.3660;
991.5000;0.5397;1.3660;
991.8000;0.5397;1.3780;
992.1000;0.5405;1.3852;
992.4000;0.5389;1.3732;
992.7000;0.5389;1.3660;
993.0000;0.5397;1.3756;
993.3000;0.5397;1.3732;
993.6000;0.5389;1.3612;
993.9000;0.5405;1.3660;
994.2000;0.5381;1.3684;
994.5000;0.5405;1.3684;
994.8000;0.5381;1.3732;
995.1000;0.5381;1.3708;
995.4000;0.5413;1.3756;
995.7000;0.5397;1.3684;
996.0000;0.5389;1.3684;
996.3000;0.5381;1.3660;
996.6000;0.5372;1.3588;
996.9000;0.5405;1.3660;
997.2000;0.5340;1.3515;
997.5000;0.5381;1.3540;
997.8000;0.5389;1.3636;
998.1000;0.5397;1.3684;
998.4000;0.5397;1.3660;
998.7000;0.5397;1.3660;
999.0000;0.5397;1.3684;
999.3000;0.5381;1.3612;
999.6000;0.5389;1.3612;
999.9000;0.5389;1.3660;
1000.2000;0.5438;1.3780;
1000.5000;0.5372;1.3540;
1000.8000;0.5389;1.3467;
1001.1000;0.5389;1.3540;
1001.4000;0.5364;1.3467;
1001.7000;0.5381;1.3588;
1002.0000;0.5389;1.3612;
1002.3000;0.5389;1.3564;
1002.6000;0.5332;1.3395;
1002.9000;0.5381;1.3491;
1003.2000;0.5389;1.3612;
1003.5000;0.5397;1.3660;
1003.8000;0.5389;1.3588;
1004.1000;0.5372;1.3612;
1004.4000;0.5397;1.3756;
1004.7000;0.5438;1.3972;
1005.0000;0.5389;1.3804;
1005.3000;0.5389;1.3780;
1005.6000;0.5389;1.3756;
1005.9000;0.5421;1.3780;
1006.2000;0.5397;1.3684;
1006.5000;0.5405;1.3684;
1006.8000;0.5397;1.3684;
1007.1000;0.5405;1.3708;
1007.4000;0.5389;1.3660;
1007.7000;0.5413;1.3636;
1008.0000;0.5389;1.3588;
1008.3000;0.5397;1.3612;
1008.6000;0.5397;1.3564;
1008.9000;0.5381;1.3612;
1009.2000;0.5389;1.3660;
1009.5000;0.5381;1.3660;
1009.8000;0.5381;1.3636;
1010.1000;0.5389;1.3588;
1010.4000;0.5397;1.3612;
1010.7000;0.5397;1.3660;
1011.0000;0.5397;1.3660;
1011.3000;0.5389;1.3588;
1011.6000;0.5372;1.3564;
1011.9000;0.5381;1.3515;
1012.2000;0.5372;1.3540;
1012.5000;0.5397;1.3540;
1012.8000;0.5372;1.3467;
1013.1000;0.5381;1.3491;
1013.4000;0.5389;1.3564;
1013.7000;0.5381;1.3636;
1014.0000;0.5372;1.3636;
1014.3000;0.5389;1.3708;
1014.6000;0.5438;1.3924;
1014.9000;0.5397;1.3804;
1015.2000;0.5405;1.3732;
1015.5000;0.5381;1.3708;
1015.8000;0.5381;1.3780;
1016.1000;0.5486;1.4021;
1016.4000;0.5372;1.3660;
1016.7000;0.5389;1.3684;
1017.0000;0.5405;1.3732;
1017.3000;0.5381;1.3660;
1017.6000;0.5381;1.3660;
1017.9000;0.5364;1.3588;
1018.2000;0.5389;1.3636;
1018.5000;0.5372;1.3636;
1018.8000;0.5381;1.3612;
1019.1000;0.5381;1.3636;
1019.4000;0.5372;1.3564;
1019.7000;0.5389;1.3588;
1020.0000;0.5372;1.3515;
1020.3000;0.5397;1.3564;
1020.6000;0.5389;1.3419;
1020.9000;0.5372;1.3371;
1021.2000;0.5372;1.3467;
1021.5000;0.5397;1.3515;
1021.8000;0.5389;1.3564;
1022.1000;0.5381;1.3491;
1022.4000;0.5389;1.3564;
1022.7000;0.5397;1.3564;
1023.0000;0.5429;1.3732;
1023.3000;0.5348;1.3612;
1023.6000;0.5397;1.3684;
1023.9000;0.5413;1.3732;
1024.2000;0.5372;1.3684;
1024.5000;0.5421;1.3804;
1024.8000;0.5389;1.3684;
1025.1000;0.5405;1.3684;
1025.4000;0.5478;1.3684;
1025.7000;0.5389;1.3395;
1026.0000;0.5381;1.3347;
1026.3000;0.5397;1.3371;
1026.6000;0.5397;1.3419;
1026.9000;0.5389;1.3564;
1027.2000;0.5397;1.3660;
1027.5000;0.5389;1.3684;
1027.8000;0.5381;1.3636;
1028.1000;0.5364;1.3660;
1028.4000;0.5364;1.3660;
1028.7000;0.5397;1.3804;
1029.0000;0.5421;1.3924;
1029.3000;0.5381;1.3900;
1029.6000;0.5397;1.3900;
1029.9000;0.5389;1.3852;
1030.2000;0.5421;1.3996;
1030.5000;0.5421;1.3972;
1030.8000;0.5364;1.3756;
1031.1000;0.5372;1.3732;
1031.4000;0.5389;1.3708;
1031.7000;0.5381;1.3732;
1032.0000;0.5454;1.3804;
1032.3000;0.5405;1.3684;
1032.6000;0.5397;1.3708;
1032.9000;0.5478;1.3948;
1033.2000;0.5397;1.3708;
1033.5000;0.5348;1.3732;
1033.8000;0.5356;1.3756;
1034.1000;0.5421;1.3828;
1034.4000;0.5364;1.3732;
1034.7000;0.5364;1.3708;
1035.0000;0.5364;1.3756;
1035.3000;0.5413;1.3900;
1035.6000;0.5397;1.3852;
1035.9000;0.5486;1.4069;
1036.2000;0.5389;1.3852;
1036.5000;0.5397;1.3924;
1036.8000;0.5389;1.3948;
1037.1000;0.5446;1.3996;
1037.4000;0.5364;1.3780;
1037.7000;0.5389;1.3852;
1038.0000;0.5389;1.3948;
1038.3000;0.5364;1.3852;
1038.6000;0.5397;1.3900;
1038.9000;0.5389;1.3804;
1039.2000;0.5372;1.3780;
1039.5000;0.5364;1.3780;
1039.8000;0.5389;1.3876;
1040.1000;0.5381;1.3948;
1040.4000;0.5381;1.3948;
1040.7000;0.5348;1.3780;
1041.0000;0.5381;1.3804;
1041.3000;0.5381;1.3924;
1041.6000;0.5413;1.3972;
1041.9000;0.5397;1.3996;
1042.2000;0.5381;1.3924;
1042.5000;0.5381;1.3996;
1042.8000;0.5438;1.4021;
1043.1000;0.5397;1.3924;
1043.4000;0.5389;1.3900;
1043.7000;0.5389;1.3876;
1044.0000;0.5389;1.3828;
1044.3000;0.5381;1.3780;
1044.6000;0.5381;1.3804;
1044.9000;0.5405;1.3852;
1045.2000;0.5397;1.3780;
1045.5000;0.5381;1.3756;
1045.8000;0.5397;1.3828;
1046.1000;0.5381;1.3852;
1046.4000;0.5446;1.3972;
1046.7000;0.5405;1.3852;
1047.0000;0.5486;1.4045;
1047.3000;0.5389;1.3756;
1047.6000;0.5397;1.3852;
1047.9000;0.5397;1.3804;
1048.2000;0.5364;1.3780;
1048.5000;0.5381;1.3804;
1048.8000;0.5348;1.3660;
1049.1000;0.5397;1.3852;
1049.4000;0.5372;1.3804;
1049.7000;0.5389;1.3708;
1050.0000;0.5389;1.3756;
1050.3000;0.5389;1.3756;
1050.6000;0.5381;1.3732;
1050.9000;0.5372;1.3732;
1051.2000;0.5405;1.3876;
1051.5000;0.5405;1.3924;
1051.8000;0.5405;1.3996;
1052.1000;0.5389;1.3948;
1052.4000;0.5332;1.3804;
1052.7000;0.5364;1.3780;
1053.0000;0.5389;1.3852;
1053.3000;0.5389;1.3852;
1053.6000;0.5381;1.3804;
1053.9000;0.5372;1.3780;
1054.2000;0.5381;1.3876;
1054.5000;0.5364;1.3780;
1054.8000;0.5299;1.3612;
1055.1000;0.5372;1.3828;
1055.4000;0.5381;1.3900;
1055.7000;0.5389;1.3924;
1056.0000;0.5364;1.3804;
1056.3000;0.5372;1.3780;
1056.6000;0.5372;1.3732;
1056.9000;0.5389;1.3756;
1057.2000;0.5389;1.3780;
1057.5000;0.5372;1.3780;
1057.8000;0.5356;1.3732;
1058.1000;0.5381;1.3828;
1058.4000;0.5389;1.3876;
1058.7000;0.5397;1.3876;
1059.0000;0.5389;1.3900;
1059.3000;0.5372;1.3948;
1059.6000;0.5389;1.3972;
1059.9000;0.5446;1.3996;
1060.2000;0.5397;1.4021;
1060.5000;0.5389;1.3972;
1060.8000;0.5389;1.3924;
1061.1000;0.5381;1.3924;
1061.4000;0.5372;1.3948;
1061.7000;0.5324;1.3804;
1062.0000;0.5405;1.3948;
1062.3000;0.5405;1.3924;
1062.6000;0.5389;1.3876;
1062.9000;0.5397;1.3972;
1063.2000;0.5405;1.3996;
1063.5000;0.5389;1.3948;
1063.8000;0.5372;1.3900;
1064.1000;0.5372;1.3972;
1064.4000;0.5381;1.4045;
1064.7000;0.5381;1.3996;
1065.0000;0.5397;1.3996;
1065.3000;0.5372;1.3876;
1065.6000;0.5381;1.3876;
1065.9000;0.5381;1.3924;
1066.2000;0.5389;1.3900;
1066.5000;0.5372;1.3828;
1066.8000;0.5372;1.3756;
1067.1000;0.5381;1.3900;
1067.4000;0.5389;1.3948;
1067.7000;0.5372;1.3948;
1068.0000;0.5364;1.3828;
1068.3000;0.5470;1.4117;
1068.6000;0.5372;1.3900;
1068.9000;0.5462;1.4189;
1069.2000;0.5364;1.3924;
1069.5000;0.5381;1.3948;
1069.8000;0.5381;1.3996;
1070.1000;0.5397;1.4117;
1070.4000;0.5364;1.3972;
1070.7000;0.5372;1.3900;
1071.0000;0.5381;1.4045;
1071.3000;0.5397;1.3996;
1071.6000;0.5381;1.3996;
1071.9000;0.5389;1.4021;
1072.2000;0.5397;1.3972;
1072.5000;0.5397;1.4069;
1072.8000;0.5389;1.3972;
1073.1000;0.5381;1.3972;
1073.4000;0.5389;1.3996;
1073.7000;0.5364;1.4069;
1074.0000;0.5372;1.4045;
1074.3000;0.5348;1.3924;
1074.6000;0.5381;1.3948;
1074.9000;0.5389;1.3972;
1075.2000;0.5381;1.3924;
1075.5000;0.5381;1.3900;
1075.8000;0.5397;1.3972;
1076.1000;0.5381;1.4045;
1076.4000;0.5372;1.4069;
1076.7000;0.5389;1.4141;
1077.0000;0.5389;1.4237;
1077.3000;0.5389;1.4213;
1077.6000;0.5389;1.4117;
1077.9000;0.5405;1.4141;
1078.2000;0.5397;1.4093;
1078.5000;0.5381;1.4021;
1078.8000;0.5389;1.4141;
1079.1000;0.5372;1.4021;
1079.4000;0.5470;1.4237;
1079.7000;0.5438;1.4165;
1080.0000;0.5381;1.3900;
1080.3000;0.5372;1.3900;
1080.6000;0.5421;1.4021;
1080.9000;0.5389;1.3996;
1081.2000;0.5429;1.4021;
1081.5000;0.5413;1.3996;
1081.8000;0.5405;1.3996;
1082.1000;0.5389;1.3828;
1082.4000;0.5405;1.3828;
1082.7000;0.5397;1.3780;
1083.0000;0.5381;1.3708;
1083.3000;0.5381;1.3708;
1083.6000;0.5381;1.3708;
1083.9000;0.5389;1.3708;
1084.2000;0.5381;1.3660;
1084.5000;0.5405;1.3756;
1084.8000;0.5381;1.3780;
1085.1000;0.5389;1.3780;
1085.4000;0.5364;1.3708;
1085.7000;0.5381;1.3684;
1086.0000;0.5381;1.3732;
1086.3000;0.5454;1.3900;
1086.6000;0.5381;1.3756;
1086.9000;0.5381;1.3756;
1087.2000;0.5389;1.3828;
1087.5000;0.5291;1.3588;
1087.8000;0.5372;1.3828;
1088.1000;0.5389;1.3852;
1088.4000;0.5413;1.3780;
1088.7000;0.5381;1.3732;
1089.0000;0.5381;1.3756;
1089.3000;0.5299;1.3588;
1089.6000;0.5405;1.3852;
1089.9000;0.5372;1.3804;
1090.2000;0.5389;1.3948;
1090.5000;0.5332;1.3804;
1090.8000;0.5364;1.3972;
1091.1000;0.5381;1.3996;
1091.4000;0.5389;1.3996;
1091.7000;0.5372;1.3972;
1092.0000;0.5381;1.3948;
1092.3000;0.5381;1.4045;
1092.6000;0.5381;1.4045;
1092.9000;0.5372;1.3996;
1093.2000;0.5397;1.4021;
1093.5000;0.5381;1.3996;
1093.8000;0.5372;1.3876;
1094.1000;0.5372;1.3900;
1094.4000;0.5364;1.3804;
1094.7000;0.5381;1.3780;
1095.0000;0.5381;1.3804;
1095.3000;0.5389;1.3732;
1095.6000;0.5348;1.3588;
1095.9000;0.5381;1.3684;
1096.2000;0.5389;1.3708;
1096.5000;0.5438;1.3900;
1096.8000;0.5397;1.3828;
1097.1000;0.5381;1.3756;
1097.4000;0.5405;1.3828;
1097.7000;0.5389;1.3780;
1098.0000;0.5381;1.3780;
1098.3000;0.5389;1.3684;
1098.6000;0.5381;1.3708;
1098.9000;0.5372;1.3732;
1099.2000;0.5372;1.3852;
1099.5000;0.5381;1.3876;
1099.8000;0.5372;1.3732;
1100.1000;0.5381;1.3708;
1100.4000;0.5381;1.3804;
1100.7000;0.5381;1.3732;
1101.0000;0.5389;1.3732;
1101.3000;0.5372;1.3636;
1101.6000;0.5364;1.3588;
1101.9000;0.5381;1.3636;
1102.2000;0.5381;1.3756;
1102.5000;0.5389;1.3756;
1102.8000;0.5364;1.3732;
1103.1000;0.5389;1.3780;
1103.4000;0.5381;1.3732;
1103.7000;0.5348;1.3804;
1104.0000;0.5381;1.3876;
1104.3000;0.5389;1.3828;
1104.6000;0.5364;1.3780;
1104.9000;0.5381;1.3756;
1105.2000;0.5389;1.3804;
1105.5000;0.5389;1.3828;
1105.8000;0.5381;1.3732;
1106.1000;0.5372;1.3684;
1106.4000;0.5381;1.3708;
1106.7000;0.5364;1.3564;
1107.0000;0.5364;1.3515;
1107.3000;0.5372;1.3515;
1107.6000;0.5413;1.3612;
1107.9000;0.5381;1.3467;
1108.2000;0.5389;1.3395;
1108.5000;0.5397;1.3467;
1108.8000;0.5381;1.3419;
1109.1000;0.5364;1.3491;
1109.4000;0.5381;1.3515;
1109.7000;0.5381;1.3564;
1110.0000;0.5372;1.3540;
1110.3000;0.5372;1.3588;
1110.6000;0.5389;1.3732;
1110.9000;0.5372;1.3780;
1111.2000;0.5372;1.3756;
1111.5000;0.5381;1.3756;
1111.8000;0.5389;1.3756;
1112.1000;0.5372;1.3708;
1112.4000;0.5389;1.3756;
1112.7000;0.5405;1.3852;
1113.0000;0.5381;1.3828;
1113.3000;0.5381;1.3804;
1113.6000;0.5356;1.3660;
1113.9000;0.5389;1.3684;
1114.2000;0.5364;1.3612;
1114.5000;0.5324;1.3564;
1114.8000;0.5372;1.3708;
1115.1000;0.5372;1.3732;
1115.4000;0.5397;1.3756;
1115.7000;0.5389;1.3780;
1116.0000;0.5397;1.3804;
1116.3000;0.5381;1.3852;
1116.6000;0.5348;1.3780;
1116.9000;0.5389;1.3924;
1117.2000;0.5381;1.3948;
1117.5000;0.5381;1.3900;
1117.8000;0.5397;1.3804;
1118.1000;0.5389;1.3804;
1118.4000;0.5405;1.3852;
1118.7000;0.5381;1.3780;
1119.0000;0.5372;1.3756;
1119.3000;0.5389;1.3660;
1119.6000;0.5364;1.3636;
1119.9000;0.5438;1.3828;
1120.2000;0.5283;1.3540;
1120.5000;0.5381;1.3756;
1120.8000;0.5364;1.3780;
1121.1000;0.5364;1.3828;
1121.4000;0.5356;1.3852;
1121.7000;0.5372;1.3804;
1122.0000;0.5397;1.3780;
1122.3000;0.5372;1.3708;
1122.6000;0.5389;1.3756;
1122.9000;0.5389;1.3732;
1123.2000;0.5381;1.3804;
1123.5000;0.5340;1.3756;
1123.8000;0.5381;1.3852;
1124.1000;0.5372;1.3804;
1124.4000;0.5340;1.3780;
1124.7000;0.5372;1.3828;
1125.0000;0.5364;1.3852;
1125.3000;0.5372;1.3900;
1125.6000;0.5381;1.3828;
1125.9000;0.5389;1.3780;
1126.2000;0.5389;1.3780;
1126.5000;0.5381;1.3804;
1126.8000;0.5372;1.3804;
1127.1000;0.5283;1.3419;
1127.4000;0.5364;1.3636;
1127.7000;0.5372;1.3732;
1128.0000;0.5372;1.3780;
1128.3000;0.5381;1.3852;
1128.6000;0.5356;1.3756;
1128.9000;0.5356;1.3852;
1129.2000;0.5372;1.3900;
1129.5000;0.5381;1.3900;
1129.8000;0.5372;1.3948;
1130.1000;0.5372;1.3876;
1130.4000;0.5356;1.3732;
1130.7000;0.5389;1.3780;
1131.0000;0.5381;1.3660;
1131.3000;0.5372;1.3636;
1131.6000;0.5389;1.3612;
1131.9000;0.5389;1.3612;
1132.2000;0.5348;1.3564;
1132.5000;0.5389;1.3708;
1132.8000;0.5307;1.3515;
1133.1000;0.5389;1.3708;
1133.4000;0.5381;1.3732;
1133.7000;0.5372;1.3756;
1134.0000;0.5372;1.3756;
1134.3000;0.5364;1.3708;
1134.6000;0.5381;1.3732;
1134.9000;0.5372;1.3660;
1135.2000;0.5340;1.3564;
1135.5000;0.5348;1.3636;
1135.8000;0.5372;1.3660;
1136.1000;0.5364;1.3708;
1136.4000;0.5356;1.3732;
1136.7000;0.5389;1.3828;
1137.0000;0.5356;1.3732;
1137.3000;0.5381;1.3756;
1137.6000;0.5356;1.3708;
1137.9000;0.5372;1.3660;
1138.2000;0.5389;1.3636;
1138.5000;0.5372;1.3660;
1138.8000;0.5340;1.3660;
1139.1000;0.5381;1.3780;
1139.4000;0.5397;1.3852;
1139.7000;0.5372;1.3828;
1140.0000;0.5364;1.3732;
1140.3000;0.5364;1.3708;
1140.6000;0.5397;1.3852;
1140.9000;0.5372;1.3876;
1141.2000;0.5389;1.3876;
1141.5000;0.5397;1.3948;
1141.8000;0.5389;1.3900;
1142.1000;0.5389;1.3948;
1142.4000;0.5389;1.3900;
1142.7000;0.5405;1.3852;
1143.0000;0.5332;1.3756;
1143.3000;0.5307;1.3732;
1143.6000;0.5381;1.3804;
1143.9000;0.5348;1.3684;
1144.2000;0.5315;1.3660;
1144.5000;0.5324;1.3684;
1144.8000;0.5389;1.3876;
1145.1000;0.5389;1.3852;
1145.4000;0.5372;1.3804;
1145.7000;0.5381;1.3900;
1146.0000;0.5364;1.3828;
1146.3000;0.5397;1.3828;
1146.6000;0.5356;1.3708;
1146.9000;0.5381;1.3756;
1147.2000;0.5389;1.3780;
1147.5000;0.5372;1.3684;
1147.8000;0.5405;1.3780;
1148.1000;0.5364;1.3684;
1148.4000;0.5372;1.3708;
1148.7000;0.5381;1.3780;
1149.0000;0.5381;1.3852;
1149.3000;0.5364;1.3780;
1149.6000;0.5381;1.3828;
1149.9000;0.5397;1.3780;
1150.2000;0.5372;1.3780;
1150.5000;0.5372;1.3852;
1150.8000;0.5381;1.3924;
1151.1000;0.5381;1.3924;
1151.4000;0.5372;1.3876;
1151.7000;0.5372;1.3828;
1152.0000;0.5372;1.3852;
1152.3000;0.5405;1.3852;
1152.6000;0.5389;1.3924;
1152.9000;0.5381;1.3876;
1153.2000;0.5372;1.3852;
1153.5000;0.5372;1.3828;
1153.8000;0.5381;1.3924;
1154.1000;0.5348;1.3756;
1154.4000;0.5364;1.3780;
1154.7000;0.5381;1.3804;
1155.0000;0.5381;1.3780;
1155.3000;0.5372;1.3756;
1155.6000;0.5372;1.3756;
1155.9000;0.5372;1.3804;
1156.2000;0.5372;1.3732;
1156.5000;0.5381;1.3804;
1156.8000;0.5372;1.3900;
1157.1000;0.5364;1.3876;
1157.4000;0.5364;1.3900;
1157.7000;0.5372;1.3900;
1158.0000;0.5364;1.3852;
1158.3000;0.5356;1.3852;
1158.6000;0.5381;1.3900;
1158.9000;0.5356;1.3828;
1159.2000;0.5397;1.3972;
1159.5000;0.5364;1.3948;
1159.8000;0.5307;1.3852;
1160.1000;0.5372;1.3972;
1160.4000;0.5340;1.3828;
1160.7000;0.5413;1.4021;
1161.0000;0.5348;1.3780;
1161.3000;0.5372;1.3804;
1161.6000;0.5348;1.3732;
1161.9000;0.5389;1.3756;
1162.2000;0.5389;1.3732;
1162.5000;0.5397;1.3684;
1162.8000;0.5348;1.3588;
1163.1000;0.5389;1.3756;
1163.4000;0.5381;1.3828;
1163.7000;0.5381;1.3780;
1164.0000;0.5372;1.3756;
1164.3000;0.5389;1.3804;
1164.6000;0.5413;1.3756;
1164.9000;0.5503;1.3996;
1165.2000;0.5381;1.3684;
1165.5000;0.5364;1.3732;
1165.8000;0.5389;1.3780;
1166.1000;0.5381;1.3756;
1166.4000;0.5405;1.3876;
1166.7000;0.5397;1.3852;
1167.0000;0.5364;1.3876;
1167.3000;0.5356;1.3852;
1167.6000;0.5364;1.3948;
1167.9000;0.5332;1.3756;
1168.2000;0.5364;1.3684;
1168.5000;0.5389;1.3708;
1168.8000;0.5372;1.3732;
1169.1000;0.5381;1.3708;
1169.4000;0.5429;1.3828;
1169.7000;0.5364;1.3636;
1170.0000;0.5381;1.3708;
1170.3000;0.5397;1.3708;
1170.6000;0.5389;1.3708;
1170.9000;0.5340;1.3660;
1171.2000;0.5389;1.3708;
1171.5000;0.5405;1.3780;
1171.8000;0.5381;1.3732;
1172.1000;0.5389;1.3756;
1172.4000;0.5356;1.3684;
1172.7000;0.5389;1.3732;
1173.0000;0.5397;1.3756;
1173.3000;0.5381;1.3732;
1173.6000;0.5364;1.3732;
1173.9000;0.5381;1.3732;
1174.2000;0.5397;1.3852;
1174.5000;0.5364;1.3852;
1174.8000;0.5372;1.3852;
1175.1000;0.5372;1.3900;
1175.4000;0.5372;1.3900;
1175.7000;0.5364;1.3924;
1176.0000;0.5389;1.3900;
1176.3000;0.5397;1.3948;
1176.6000;0.5381;1.3852;
1176.9000;0.5340;1.3708;
1177.2000;0.5315;1.3756;
1177.5000;0.5364;1.3828;
1177.8000;0.5356;1.3732;
1178.1000;0.5372;1.3780;
1178.4000;0.5438;1.4021;
1178.7000;0.5348;1.3780;
1179.0000;0.5372;1.3876;
1179.3000;0.5405;1.3924;
1179.6000;0.5364;1.3828;
1179.9000;0.5397;1.3756;
1180.2000;0.5356;1.3732;
1180.5000;0.5372;1.3780;
1180.8000;0.5372;1.3708;
1181.1000;0.5372;1.3708;
1181.4000;0.5348;1.3684;
1181.7000;0.5356;1.3708;
1182.0000;0.5372;1.3708;
1182.3000;0.5397;1.3660;
1182.6000;0.5372;1.3564;
1182.9000;0.5413;1.3660;
1183.2000;0.5389;1.3660;
1183.5000;0.5381;1.3684;
1183.8000;0.5348;1.3612;
1184.1000;0.5381;1.3756;
1184.4000;0.5372;1.3828;
1184.7000;0.5364;1.3732;
1185.0000;0.5372;1.3780;
1185.3000;0.5324;1.3636;
1185.6000;0.5372;1.3756;
1185.9000;0.5364;1.3684;
1186.2000;0.5283;1.3491;
1186.5000;0.5389;1.3708;
1186.8000;0.5364;1.3732;
1187.1000;0.5389;1.3804;
1187.4000;0.5381;1.3804;
1187.7000;0.5372;1.3852;
1188.0000;0.5381;1.3876;
1188.3000;0.5364;1.3828;
1188.6000;0.5372;1.3876;
1188.9000;0.5413;1.3828;
1189.2000;0.5381;1.3756;
1189.5000;0.5389;1.3804;
1189.8000;0.5356;1.3756;
1190.1000;0.5372;1.3780;
1190.4000;0.5397;1.3828;
1190.7000;0.5397;1.3732;
1191.0000;0.5356;1.3612;
1191.3000;0.5364;1.3684;
1191.6000;0.5389;1.3828;
1191.9000;0.5372;1.3828;
1192.2000;0.5372;1.3780;
1192.5000;0.5364;1.3804;
1192.8000;0.5389;1.3900;
1193.1000;0.5364;1.3876;
1193.4000;0.5364;1.3924;
1193.7000;0.5364;1.3852;
1194.0000;0.5372;1.3852;
1194.3000;0.5372;1.3876;
1194.6000;0.5389;1.3804;
1194.9000;0.5372;1.3876;
1195.2000;0.5364;1.3828;
1195.5000;0.5364;1.3852;
1195.8000;0.5389;1.3852;
1196.1000;0.5364;1.3780;
1196.4000;0.5364;1.3852;
1196.7000;0.5397;1.4069;
1197.0000;0.5389;1.4021;
1197.3000;0.5381;1.3924;
1197.6000;0.5372;1.3828;
1197.9000;0.5356;1.3804;
1198.2000;0.5381;1.3780;
1198.5000;0.5364;1.3708;
1198.8000;0.5356;1.3636;
1199.1000;0.5389;1.3708;
1199.4000;0.5372;1.3684;
1199.7000;0.5372;1.3612;
1200.0000;0.5381;1.3564;
1200.3000;0.5364;1.3491;
1200.6000;0.5364;1.3564;
1200.9000;0.5372;1.3684;
1201.2000;0.5397;1.3660;
1201.5000;0.5381;1.3564;
1201.8000;0.5397;1.3660;
1202.1000;0.5389;1.3732;
1202.4000;0.5397;1.3780;
1202.7000;0.5389;1.3732;
1203.0000;0.5397;1.3708;
1203.3000;0.5397;1.3708;
1203.6000;0.5372;1.3660;
1203.9000;0.5372;1.3732;
1204.2000;0.5340;1.3756;
1204.5000;0.5364;1.3756;
1204.8000;0.5381;1.3852;
1205.1000;0.5364;1.3876;
1205.4000;0.5348;1.3804;
1205.7000;0.5381;1.3996;
1206.0000;0.5364;1.3924;
1206.3000;0.5429;1.4069;
1206.6000;0.5364;1.3924;
1206.9000;0.5381;1.3972;
1207.2000;0.5389;1.4021;
1207.5000;0.5372;1.4021;
1207.8000;0.5364;1.3900;
1208.1000;0.5372;1.3804;
1208.4000;0.5340;1.3804;
1208.7000;0.5364;1.3804;
1209.0000;0.5364;1.3828;
1209.3000;0.5356;1.3756;
1209.6000;0.5381;1.3708;
1209.9000;0.5389;1.3756;
1210.2000;0.5372;1.3756;
1210.5000;0.5372;1.3684;
1210.8000;0.5397;1.3780;
1211.1000;0.5364;1.3780;
1211.4000;0.5283;1.3684;
1211.7000;0.5364;1.3828;
1212.0000;0.5381;1.3804;
1212.3000;0.5389;1.3780;
1212.6000;0.5389;1.3780;
1212.9000;0.5364;1.3660;
1213.2000;0.5389;1.3684;
1213.5000;0.5389;1.3780;
1213.8000;0.5372;1.3756;
1214.1000;0.5372;1.3732;
1214.4000;0.5381;1.3732;
1214.7000;0.5389;1.3732;
1215.0000;0.5389;1.3612;
1215.3000;0.5356;1.3636;
1215.6000;0.5381;1.3708;
1215.9000;0.5372;1.3780;
1216.2000;0.5364;1.3780;
1216.5000;0.5372;1.3948;
1216.8000;0.5372;1.4021;
1217.1000;0.5364;1.4045;
1217.4000;0.5381;1.4045;
1217.7000;0.5356;1.3948;
1218.0000;0.5364;1.3876;
1218.3000;0.5389;1.3876;
1218.6000;0.5364;1.3852;
1218.9000;0.5381;1.3756;
1219.2000;0.5332;1.3732;
1219.5000;0.5381;1.3804;
1219.8000;0.5381;1.3828;
1220.1000;0.5381;1.3708;
1220.4000;0.5356;1.3612;
1220.7000;0.5356;1.3684;
1221.0000;0.5364;1.3708;
1221.3000;0.5372;1.3804;
1221.6000;0.5381;1.3756;
1221.9000;0.5381;1.3684;
1222.2000;0.5381;1.3636;
1222.5000;0.5397;1.3612;
1222.8000;0.5389;1.3660;
1223.1000;0.5364;1.3612;
1223.4000;0.5372;1.3660;
1223.7000;0.5389;1.3756;
1224.0000;0.5364;1.3780;
1224.3000;0.5364;1.3756;
1224.6000;0.5364;1.3804;
1224.9000;0.5389;1.3852;
1225.2000;0.5372;1.3780;
1225.5000;0.5356;1.3708;
1225.8000;0.5356;1.3780;
1226.1000;0.5372;1.3804;
1226.4000;0.5372;1.3828;
1226.7000;0.5364;1.3828;
1227.0000;0.5364;1.3876;
1227.3000;0.5397;1.3900;
1227.6000;0.5356;1.3756;
1227.9000;0.5372;1.3828;
1228.2000;0.5372;1.3804;
1228.5000;0.5381;1.3804;
1228.8000;0.5381;1.3708;
1229.1000;0.5372;1.3588;
1229.4000;0.5356;1.3660;
1229.7000;0.5364;1.3660;
1230.0000;0.5381;1.3780;
1230.3000;0.5381;1.3756;
1230.6000;0.5356;1.3756;
1230.9000;0.5372;1.3804;
1231.2000;0.5356;1.3684;
1231.5000;0.5372;1.3732;
1231.8000;0.5372;1.3732;
1232.1000;0.5381;1.3708;
1232.4000;0.5372;1.3732;
1232.7000;0.5364;1.3756;
1233.0000;0.5372;1.3684;
1233.3000;0.5372;1.3732;
1233.6000;0.5389;1.3828;
1233.9000;0.5381;1.3852;
1234.2000;0.5389;1.3804;
1234.5000;0.5381;1.3732;
1234.8000;0.5364;1.3756;
1235.1000;0.5372;1.3708;
1235.4000;0.5364;1.3684;
1235.7000;0.5381;1.3636;
1236.0000;0.5364;1.3564;
1236.3000;0.5372;1.3588;
1236.6000;0.5364;1.3564;
1236.9000;0.5356;1.3564;
1237.2000;0.5364;1.3564;
1237.5000;0.5364;1.3612;
1237.8000;0.5381;1.3684;
1238.1000;0.5372;1.3564;
1238.4000;0.5372;1.3612;
1238.7000;0.5372;1.3660;
1239.0000;0.5381;1.3732;
1239.3000;0.5372;1.3684;
1239.6000;0.5372;1.3684;
1239.9000;0.5389;1.3636;
1240.2000;0.5356;1.3564;
1240.5000;0.5429;1.3756;
1240.8000;0.5372;1.3660;
1241.1000;0.5381;1.3804;
1241.4000;0.5372;1.3828;
1241.7000;0.5381;1.3852;
1242.0000;0.5389;1.3876;
1242.3000;0.5324;1.3780;
1242.6000;0.5389;1.3900;
1242.9000;0.5397;1.3828;
1243.2000;0.5364;1.3780;
1243.5000;0.5372;1.3852;
1243.8000;0.5372;1.3828;
1244.1000;0.5324;1.3732;
1244.4000;0.5364;1.3852;
1244.7000;0.5389;1.3852;
1245.0000;0.5381;1.3780;
1245.3000;0.5372;1.3756;
1245.6000;0.5364;1.3780;
1245.9000;0.5372;1.3828;
1246.2000;0.5372;1.3900;
1246.5000;0.5389;1.4093;
1246.8000;0.5372;1.4069;
1247.1000;0.5421;1.4093;
1247.4000;0.5372;1.3996;
1247.7000;0.5364;1.3996;
1248.0000;0.5381;1.3948;
1248.3000;0.5372;1.3876;
1248.6000;0.5364;1.3924;
1248.9000;0.5275;1.3684;
1249.2000;0.5356;1.3900;
1249.5000;0.5356;1.3900;
1249.8000;0.5348;1.3900;
1250.1000;0.5340;1.3876;
1250.4000;0.5348;1.3804;
1250.7000;0.5324;1.3684;
1251.0000;0.5275;1.3564;
1251.3000;0.5348;1.3708;
1251.6000;0.5356;1.3732;
1251.9000;0.5364;1.3756;
1252.2000;0.5356;1.3756;
1252.5000;0.5438;1.4021;
1252.8000;0.5397;1.3804;
1253.1000;0.5372;1.3804;
1253.4000;0.5372;1.3828;
1253.7000;0.5356;1.3852;
1254.0000;0.5356;1.3924;
1254.3000;0.5381;1.3948;
1254.6000;0.5364;1.3876;
1254.9000;0.5372;1.3924;
1255.2000;0.5356;1.3852;
1255.5000;0.5381;1.3900;
1255.8000;0.5364;1.3852;
1256.1000;0.5324;1.3804;
1256.4000;0.5364;1.3852;
1256.7000;0.5372;1.3828;
1257.0000;0.5405;1.3948;
1257.3000;0.5364;1.3852;
1257.6000;0.5372;1.3900;
1257.9000;0.5389;1.3804;
1258.2000;0.5421;1.3900;
1258.5000;0.5364;1.3732;
1258.8000;0.5364;1.3708;
1259.1000;0.5381;1.3732;
1259.4000;0.5389;1.3660;
1259.7000;0.5438;1.3780;
1260.0000;0.5356;1.3660;
1260.3000;0.5372;1.3732;
1260.6000;0.5389;1.3756;
1260.9000;0.5356;1.3732;
1261.2000;0.5364;1.3756;
1261.5000;0.5348;1.3684;
1261.8000;0.5283;1.3491;
1262.1000;0.5364;1.3684;
1262.4000;0.5372;1.3636;
1262.7000;0.5356;1.3564;
1263.0000;0.5356;1.3564;
1263.3000;0.5372;1.3660;
1263.6000;0.5348;1.3612;
1263.9000;0.5340;1.3491;
1264.2000;0.5381;1.3588;
1264.5000;0.5364;1.3515;
1264.8000;0.5446;1.3684;
1265.1000;0.5454;1.3636;
1265.4000;0.5389;1.3540;
1265.7000;0.5372;1.3588;
1266.0000;0.5405;1.3636;
1266.3000;0.5291;1.3443;
1266.6000;0.5356;1.3515;
1266.9000;0.5397;1.3612;
1267.2000;0.5372;1.3564;
1267.5000;0.5364;1.3588;
1267.8000;0.5364;1.3564;
1268.1000;0.5356;1.3515;
1268.4000;0.5372;1.3588;
1268.7000;0.5454;1.3828;
1269.0000;0.5397;1.3588;
1269.3000;0.5372;1.3564;
1269.6000;0.5372;1.3612;
1269.9000;0.5421;1.3828;
1270.2000;0.5364;1.3756;
1270.5000;0.5372;1.3780;
1270.8000;0.5389;1.3756;
1271.1000;0.5307;1.3588;
1271.4000;0.5381;1.3852;
1271.7000;0.5364;1.3828;
1272.0000;0.5364;1.3900;
1272.3000;0.5381;1.3924;
1272.6000;0.5389;1.4021;
1272.9000;0.5364;1.3924;
1273.2000;0.5389;1.3972;
1273.5000;0.5372;1.3876;
1273.8000;0.5381;1.3876;
1274.1000;0.5389;1.3780;
1274.4000;0.5397;1.3780;
1274.7000;0.5348;1.3756;
1275.0000;0.5364;1.3780;
1275.3000;0.5356;1.3756;
1275.6000;0.5332;1.3780;
1275.9000;0.5372;1.3900;
1276.2000;0.5364;1.3828;
1276.5000;0.5381;1.3852;
1276.8000;0.5397;1.3828;
1277.1000;0.5381;1.3780;
1277.4000;0.5389;1.3804;
1277.7000;0.5372;1.3804;
1278.0000;0.5446;1.3996;
1278.3000;0.5381;1.3828;
1278.6000;0.5389;1.3828;
1278.9000;0.5381;1.3852;
1279.2000;0.5356;1.3708;
1279.5000;0.5364;1.3708;
1279.8000;0.5381;1.3708;
1280.1000;0.5348;1.3684;
1280.4000;0.5389;1.3804;
1280.7000;0.5356;1.3780;
1281.0000;0.5332;1.3780;
1281.3000;0.5315;1.3804;
1281.6000;0.5381;1.3996;
1281.9000;0.5381;1.3972;
1282.2000;0.5381;1.3900;
1282.5000;0.5372;1.3876;
1282.8000;0.5348;1.3756;
1283.1000;0.5389;1.3852;
1283.4000;0.5438;1.3948;
1283.7000;0.5356;1.3732;
1284.0000;0.5364;1.3756;
1284.3000;0.5372;1.3804;
1284.6000;0.5389;1.3804;
1284.9000;0.5389;1.3852;
1285.2000;0.5413;1.3876;
1285.5000;0.5356;1.3804;
1285.8000;0.5372;1.3876;
1286.1000;0.5381;1.3876;
1286.4000;0.5364;1.3852;
1286.7000;0.5413;1.3876;
1287.0000;0.5389;1.3876;
1287.3000;0.5364;1.3780;
1287.6000;0.5364;1.3852;
1287.9000;0.5364;1.3804;
1288.2000;0.5381;1.3876;
1288.5000;0.5372;1.3828;
1288.8000;0.5381;1.3924;
1289.1000;0.5372;1.3996;
1289.4000;0.5356;1.3948;
1289.7000;0.5356;1.3948;
1290.0000;0.5389;1.3996;
1290.3000;0.5397;1.4045;
1290.6000;0.5429;1.4189;
1290.9000;0.5381;1.4045;
1291.2000;0.5364;1.4045;
1291.5000;0.5381;1.4069;
1291.8000;0.5356;1.3948;
1292.1000;0.5348;1.3900;
1292.4000;0.5364;1.3876;
1292.7000;0.5348;1.3900;
1293.0000;0.5372;1.3972;
1293.3000;0.5372;1.3972;
1293.6000;0.5389;1.4093;
1293.9000;0.5405;1.4021;
1294.2000;0.5389;1.3924;
1294.5000;0.5421;1.4069;
1294.8000;0.5389;1.3924;
1295.1000;0.5389;1.3756;
1295.4000;0.5332;1.3612;
1295.7000;0.5372;1.3708;
1296.0000;0.5364;1.3732;
1296.3000;0.5389;1.3804;
1296.6000;0.5413;1.3828;
1296.9000;0.5340;1.3684;
1297.2000;0.5356;1.3636;
1297.5000;0.5429;1.3780;
1297.8000;0.5364;1.3612;
1298.1000;0.5364;1.3588;
1298.4000;0.5389;1.3732;
1298.7000;0.5381;1.3708;
1299.0000;0.5364;1.3660;
1299.3000;0.5381;1.3684;
1299.6000;0.5397;1.3732;
1299.9000;0.5372;1.3684;
1300.2000;0.5372;1.3612;
1300.5000;0.5381;1.3636;
1300.8000;0.5364;1.3684;
1301.1000;0.5372;1.3780;
1301.4000;0.5413;1.3852;
1301.7000;0.5372;1.3732;
1302.0000;0.5356;1.3684;
1302.3000;0.5446;1.3900;
1302.6000;0.5397;1.3660;
1302.9000;0.5364;1.3588;
1303.2000;0.5405;1.3684;
1303.5000;0.5356;1.3636;
1303.8000;0.5356;1.3708;
1304.1000;0.5381;1.3732;
1304.4000;0.5307;1.3612;
1304.7000;0.5348;1.3804;
1305.0000;0.5381;1.3852;
1305.3000;0.5381;1.3756;
1305.6000;0.5381;1.3852;
1305.9000;0.5356;1.3804;
1306.2000;0.5381;1.3876;
1306.5000;0.5381;1.3972;
1306.8000;0.5364;1.3900;
1307.1000;0.5454;1.4069;
1307.4000;0.5364;1.3804;
1307.7000;0.5381;1.3828;
1308.0000;0.5340;1.3804;
1308.3000;0.5364;1.3780;
1308.6000;0.5348;1.3756;
1308.9000;0.5381;1.3948;
1309.2000;0.5356;1.3876;
1309.5000;0.5372;1.3924;
1309.8000;0.5372;1.3876;
1310.1000;0.5372;1.3828;
1310.4000;0.5340;1.3660;
1310.7000;0.5364;1.3660;
1311.0000;0.5372;1.3684;
1311.3000;0.5372;1.3732;
1311.6000;0.5364;1.3708;
1311.9000;0.5364;1.3756;
1312.2000;0.5356;1.3756;
1312.5000;0.5405;1.3876;
1312.8000;0.5381;1.3780;
1313.1000;0.5389;1.3780;
1313.4000;0.5389;1.3732;
1313.7000;0.5372;1.3684;
1314.0000;0.5372;1.3660;
1314.3000;0.5389;1.3684;
1314.6000;0.5381;1.3756;
1314.9000;0.5356;1.3732;
1315.2000;0.5372;1.3780;
1315.5000;0.5372;1.3708;
1315.8000;0.5348;1.3588;
1316.1000;0.5348;1.3564;
1316.4000;0.5405;1.3612;
1316.7000;0.5364;1.3564;
1317.0000;0.5372;1.3588;
1317.3000;0.5340;1.3540;
1317.6000;0.5356;1.3564;
1317.9000;0.5372;1.3684;
1318.2000;0.5389;1.3732;
1318.5000;0.5381;1.3732;
1318.8000;0.5348;1.3660;
1319.1000;0.5381;1.3732;
1319.4000;0.5364;1.3780;
1319.7000;0.5348;1.3732;
1320.0000;0.5364;1.3828;
1320.3000;0.5364;1.3756;
1320.6000;0.5389;1.3804;
1320.9000;0.5364;1.3636;
1321.2000;0.5364;1.3660;
1321.5000;0.5397;1.3684;
1321.8000;0.5364;1.3564;
1322.1000;0.5372;1.3564;
1322.4000;0.5381;1.3636;
1322.7000;0.5381;1.3612;
1323.0000;0.5397;1.3540;
1323.3000;0.5364;1.3515;
1323.6000;0.5381;1.3708;
1323.9000;0.5381;1.3732;
1324.2000;0.5356;1.3732;
1324.5000;0.5332;1.3660;
1324.8000;0.5364;1.3756;
1325.1000;0.5364;1.3756;
1325.4000;0.5340;1.3708;
1325.7000;0.5381;1.3708;
1326.0000;0.5364;1.3636;
1326.3000;0.5397;1.3780;
1326.6000;0.5356;1.3684;
1326.9000;0.5372;1.3732;
1327.2000;0.5389;1.3780;
1327.5000;0.5372;1.3732;
1327.8000;0.5364;1.3660;
1328.1000;0.5389;1.3780;
1328.4000;0.5389;1.3780;
1328.7000;0.5364;1.3684;
1329.0000;0.5389;1.3732;
1329.3000;0.5381;1.3780;
1329.6000;0.5381;1.3732;
1329.9000;0.5381;1.3732;
1330.2000;0.5381;1.3684;
1330.5000;0.5381;1.3708;
1330.8000;0.5389;1.3828;
1331.1000;0.5372;1.3852;
1331.4000;0.5389;1.3876;
1331.7000;0.5381;1.3876;
1332.0000;0.5381;1.3804;
1332.3000;0.5381;1.3828;
1332.6000;0.5381;1.3804;
1332.9000;0.5389;1.3804;
1333.2000;0.5381;1.3852;
1333.5000;0.5372;1.3852;
1333.8000;0.5389;1.3852;
1334.1000;0.5389;1.3828;
1334.4000;0.5381;1.3876;
1334.7000;0.5372;1.3924;
1335.0000;0.5372;1.3900;
1335.3000;0.5372;1.3804;
1335.6000;0.5397;1.3924;
1335.9000;0.5397;1.4021;
1336.2000;0.5364;1.3948;
1336.5000;0.5364;1.3900;
1336.8000;0.5364;1.3828;
1337.1000;0.5372;1.3780;
1337.4000;0.5364;1.3756;
1337.7000;0.5381;1.3756;
1338.0000;0.5372;1.3756;
1338.3000;0.5389;1.3804;
1338.6000;0.5356;1.3804;
1338.9000;0.5372;1.3852;
1339.2000;0.5372;1.3828;
1339.5000;0.5389;1.3876;
1339.8000;0.5307;1.3636;
1340.1000;0.5364;1.3756;
1340.4000;0.5364;1.3756;
1340.7000;0.5372;1.3732;
1341.0000;0.5381;1.3756;
1341.3000;0.5364;1.3660;
1341.6000;0.5364;1.3684;
1341.9000;0.5372;1.3804;
1342.2000;0.5381;1.3804;
1342.5000;0.5372;1.3852;
1342.8000;0.5364;1.3732;
1343.1000;0.5389;1.3636;
1343.4000;0.5389;1.3588;
1343.7000;0.5381;1.3636;
1344.0000;0.5356;1.3588;
1344.3000;0.5381;1.3708;
1344.6000;0.5389;1.3708;
1344.9000;0.5389;1.3708;
1345.2000;0.5364;1.3708;
1345.5000;0.5372;1.3612;
1345.8000;0.5381;1.3636;
1346.1000;0.5364;1.3660;
1346.4000;0.5381;1.3708;
1346.7000;0.5372;1.3684;
1347.0000;0.5413;1.3732;
1347.3000;0.5356;1.3660;
1347.6000;0.5372;1.3588;
1347.9000;0.5356;1.3612;
1348.2000;0.5381;1.3708;
1348.5000;0.5381;1.3660;
1348.8000;0.5291;1.3515;
1349.1000;0.5364;1.3684;
1349.4000;0.5372;1.3708;
1349.7000;0.5372;1.3684;
1350.0000;0.5356;1.3660;
1350.3000;0.5364;1.3564;
1350.6000;0.5356;1.3540;
1350.9000;0.5389;1.3660;
1351.2000;0.5381;1.3588;
1351.5000;0.5372;1.3564;
1351.8000;0.5364;1.3588;
1352.1000;0.5332;1.3564;
1352.4000;0.5364;1.3564;
1352.7000;0.5372;1.3684;
1353.0000;0.5364;1.3660;
1353.3000;0.5381;1.3588;
1353.6000;0.5381;1.3612;
1353.9000;0.5389;1.3588;
1354.2000;0.5356;1.3491;
1354.5000;0.5372;1.3564;
1354.8000;0.5397;1.3564;
1355.1000;0.5332;1.3371;
1355.4000;0.5356;1.3443;
1355.7000;0.5372;1.3491;
1356.0000;0.5332;1.3395;
1356.3000;0.5454;1.3756;
1356.6000;0.5372;1.3612;
1356.9000;0.5324;1.3491;
1357.2000;0.5372;1.3515;
1357.5000;0.5364;1.3515;
1357.8000;0.5364;1.3540;
1358.1000;0.5381;1.3636;
1358.4000;0.5364;1.3612;
1358.7000;0.5381;1.3660;
1359.0000;0.5429;1.3804;
1359.3000;0.5356;1.3612;
1359.6000;0.5332;1.3588;
1359.9000;0.5372;1.3660;
1360.2000;0.5364;1.3660;
1360.5000;0.5372;1.3684;
1360.8000;0.5372;1.3684;
1361.1000;0.5438;1.3924;
1361.4000;0.5356;1.3732;
1361.7000;0.5348;1.3660;
1362.0000;0.5364;1.3732;
1362.3000;0.5356;1.3636;
1362.6000;0.5348;1.3636;
1362.9000;0.5307;1.3419;
1363.2000;0.5372;1.3564;
1363.5000;0.5364;1.3636;
1363.8000;0.5381;1.3660;
1364.1000;0.5462;1.3852;
1364.4000;0.5356;1.3732;
1364.7000;0.5389;1.3780;
1365.0000;0.5324;1.3540;
1365.3000;0.5364;1.3660;
1365.6000;0.5372;1.3588;
1365.9000;0.5348;1.3491;
1366.2000;0.5364;1.3588;
1366.5000;0.5381;1.3612;
1366.8000;0.5389;1.3708;
1367.1000;0.5340;1.3684;
1367.4000;0.5381;1.3876;
1367.7000;0.5291;1.3612;
1368.0000;0.5348;1.3732;
1368.3000;0.5364;1.3780;
1368.6000;0.5356;1.3684;
1368.9000;0.5364;1.3612;
1369.2000;0.5372;1.3540;
1369.5000;0.5348;1.3515;
1369.8000;0.5405;1.3612;
1370.1000;0.5324;1.3347;
1370.4000;0.5364;1.3515;
1370.7000;0.5364;1.3491;
1371.0000;0.5381;1.3515;
1371.3000;0.5372;1.3564;
1371.6000;0.5340;1.3515;
1371.9000;0.5381;1.3588;
1372.2000;0.5356;1.3540;
1372.5000;0.5389;1.3612;
1372.8000;0.5381;1.3588;
1373.1000;0.5372;1.3540;
1373.4000;0.5275;1.3299;
1373.7000;0.5413;1.3636;
1374.0000;0.5340;1.3491;
1374.3000;0.5340;1.3515;
1374.6000;0.5364;1.3540;
1374.9000;0.5372;1.3564;
1375.2000;0.5372;1.3612;
1375.5000;0.5364;1.3612;
1375.8000;0.5429;1.3708;
1376.1000;0.5364;1.3684;
1376.4000;0.5389;1.3732;
1376.7000;0.5356;1.3636;
1377.0000;0.5372;1.3660;
1377.3000;0.5389;1.3660;
1377.6000;0.5381;1.3732;
1377.9000;0.5405;1.3780;
1378.2000;0.5397;1.3804;
1378.5000;0.5372;1.3780;
1378.8000;0.5364;1.3780;
1379.1000;0.5389;1.3900;
1379.4000;0.5372;1.3828;
1379.7000;0.5372;1.3828;
1380.0000;0.5454;1.3972;
1380.3000;0.5381;1.3732;
1380.6000;0.5413;1.3804;
1380.9000;0.5332;1.3612;
1381.2000;0.5356;1.3684;
1381.5000;0.5413;1.3732;
1381.8000;0.5364;1.3564;
1382.1000;0.5348;1.3588;
1382.4000;0.5462;1.3804;
1382.7000;0.5389;1.3612;
1383.0000;0.5446;1.3732;
1383.3000;0.5397;1.3612;
1383.6000;0.5381;1.3660;
1383.9000;0.5364;1.3684;
1384.2000;0.5364;1.3684;
1384.5000;0.5364;1.3660;
1384.8000;0.5429;1.3804;
1385.1000;0.5397;1.3684;
1385.4000;0.5372;1.3708;
1385.7000;0.5413;1.3780;
1386.0000;0.5291;1.3443;
1386.3000;0.5381;1.3636;
1386.6000;0.5372;1.3708;
1386.9000;0.5462;1.3972;
1387.2000;0.5421;1.3828;
1387.5000;0.5454;1.3948;
1387.8000;0.5381;1.3756;
1388.1000;0.5372;1.3660;
1388.4000;0.5348;1.3564;
1388.7000;0.5324;1.3347;
1389.0000;0.5364;1.3395;
1389.3000;0.5397;1.3564;
1389.6000;0.5315;1.3419;
1389.9000;0.5356;1.3491;
1390.2000;0.5348;1.3443;
1390.5000;0.5372;1.3467;
1390.8000;0.5413;1.3564;
1391.1000;0.5372;1.3515;
1391.4000;0.5372;1.3443;
1391.7000;0.5372;1.3371;
1392.0000;0.5381;1.3323;
1392.3000;0.5364;1.3323;
1392.6000;0.5364;1.3323;
1392.9000;0.5381;1.3515;
1393.2000;0.5340;1.3467;
1393.5000;0.5372;1.3540;
1393.8000;0.5372;1.3588;
1394.1000;0.5381;1.3588;
1394.4000;0.5356;1.3443;
1394.7000;0.5372;1.3443;
1395.0000;0.5340;1.3323;
1395.3000;0.5381;1.3467;
1395.6000;0.5397;1.3515;
1395.9000;0.5381;1.3443;
1396.2000;0.5372;1.3443;
1396.5000;0.5340;1.3347;
1396.8000;0.5364;1.3419;
1397.1000;0.5364;1.3467;
1397.4000;0.5389;1.3588;
1397.7000;0.5364;1.3588;
1398.0000;0.5364;1.3612;
1398.3000;0.5372;1.3636;
1398.6000;0.5397;1.3708;
1398.9000;0.5356;1.3588;
1399.2000;0.5381;1.3636;
1399.5000;0.5315;1.3443;
1399.8000;0.5340;1.3588;
