time/ms;Fluo/V;P700 deltaI/I x10³;
-199.8000;0.6431;1.3900;
-199.5000;0.6463;1.3924;
-199.2000;0.6455;1.3900;
-198.9000;0.6463;1.3876;
-198.6000;0.6455;1.3852;
-198.3000;0.6471;1.3876;
-198.0000;0.6431;1.3780;
-197.7000;0.6447;1.3876;
-197.4000;0.6447;1.3876;
-197.1000;0.6471;1.3876;
-196.8000;0.6455;1.3828;
-196.5000;0.6455;1.3756;
-196.2000;0.6463;1.3804;
-195.9000;0.6463;1.3804;
-195.6000;0.6471;1.3804;
-195.3000;0.6463;1.3852;
-195.0000;0.6471;1.3780;
-194.7000;0.6463;1.3756;
-194.4000;0.6463;1.3828;
-194.1000;0.6455;1.3804;
-193.8000;0.6471;1.3804;
-193.5000;0.6447;1.3756;
-193.2000;0.6463;1.3804;
-192.9000;0.6406;1.3612;
-192.6000;0.6447;1.3708;
-192.3000;0.6471;1.3804;
-192.0000;0.6463;1.3924;
-191.7000;0.6455;1.3900;
-191.4000;0.6479;1.3924;
-191.1000;0.6463;1.4021;
-190.8000;0.6496;1.4117;
-190.5000;0.6447;1.3948;
-190.2000;0.6455;1.3972;
-189.9000;0.6471;1.4021;
-189.6000;0.6455;1.3924;
-189.3000;0.6471;1.3876;
-189.0000;0.6447;1.3900;
-188.7000;0.6439;1.3876;
-188.4000;0.6455;1.3924;
-188.1000;0.6479;1.3948;
-187.8000;0.6463;1.4045;
-187.5000;0.6463;1.4069;
-187.2000;0.6471;1.4045;
-186.9000;0.6463;1.3900;
-186.6000;0.6463;1.3900;
-186.3000;0.6463;1.3852;
-186.0000;0.6463;1.3852;
-185.7000;0.6471;1.3756;
-185.4000;0.6463;1.3804;
-185.1000;0.6463;1.3804;
-184.8000;0.6455;1.3804;
-184.5000;0.6488;1.3924;
-184.2000;0.6471;1.3852;
-183.9000;0.6463;1.3876;
-183.6000;0.6463;1.3972;
-183.3000;0.6471;1.3924;
-183.0000;0.6463;1.3972;
-182.7000;0.6496;1.4069;
-182.4000;0.6447;1.4045;
-182.1000;0.6447;1.3996;
-181.8000;0.6455;1.3972;
-181.5000;0.6471;1.3924;
-181.2000;0.6455;1.3924;
-180.9000;0.6463;1.4021;
-180.6000;0.6471;1.4117;
-180.3000;0.6463;1.3996;
-180.0000;0.6471;1.3948;
-179.7000;0.6471;1.3972;
-179.4000;0.6455;1.3924;
-179.1000;0.6447;1.3924;
-178.8000;0.6455;1.3852;
-178.5000;0.6431;1.3804;
-178.2000;0.6471;1.3900;
-177.9000;0.6463;1.3900;
-177.6000;0.6357;1.3636;
-177.3000;0.6471;1.3852;
-177.0000;0.6471;1.3780;
-176.7000;0.6455;1.3708;
-176.4000;0.6447;1.3708;
-176.1000;0.6471;1.3804;
-175.8000;0.6496;1.3876;
-175.5000;0.6463;1.3852;
-175.2000;0.6520;1.3972;
-174.9000;0.6447;1.3804;
-174.6000;0.6471;1.3852;
-174.3000;0.6479;1.3876;
-174.0000;0.6406;1.3708;
-173.7000;0.6479;1.3972;
-173.4000;0.6455;1.3948;
-173.1000;0.6463;1.3972;
-172.8000;0.6463;1.3972;
-172.5000;0.6463;1.3996;
-172.2000;0.6471;1.3948;
-171.9000;0.6463;1.3924;
-171.6000;0.6479;1.3972;
-171.3000;0.6471;1.3948;
-171.0000;0.6488;1.4021;
-170.7000;0.6455;1.3948;
-170.4000;0.6479;1.4045;
-170.1000;0.6463;1.4021;
-169.8000;0.6471;1.3996;
-169.5000;0.6447;1.3924;
-169.2000;0.6471;1.3876;
-168.9000;0.6439;1.3804;
-168.6000;0.6463;1.3972;
-168.3000;0.6455;1.3972;
-168.0000;0.6455;1.3948;
-167.7000;0.6463;1.3852;
-167.4000;0.6463;1.3828;
-167.1000;0.6455;1.3852;
-166.8000;0.6488;1.3900;
-166.5000;0.6447;1.3828;
-166.2000;0.6431;1.3756;
-165.9000;0.6455;1.3828;
-165.6000;0.6455;1.3924;
-165.3000;0.6447;1.3972;
-165.0000;0.6455;1.3972;
-164.7000;0.6496;1.3972;
-164.4000;0.6431;1.3804;
-164.1000;0.6463;1.3852;
-163.8000;0.6463;1.3924;
-163.5000;0.6463;1.3900;
-163.2000;0.6455;1.3924;
-162.9000;0.6455;1.3972;
-162.6000;0.6471;1.3876;
-162.3000;0.6439;1.3780;
-162.0000;0.6431;1.3780;
-161.7000;0.6455;1.3924;
-161.4000;0.6455;1.3900;
-161.1000;0.6455;1.3780;
-160.8000;0.6455;1.3732;
-160.5000;0.6463;1.3564;
-160.2000;0.6512;1.3684;
-159.9000;0.6455;1.3660;
-159.6000;0.6439;1.3684;
-159.3000;0.6414;1.3756;
-159.0000;0.6357;1.3660;
-158.7000;0.6439;1.3852;
-158.4000;0.6439;1.3828;
-158.1000;0.6455;1.3828;
-157.8000;0.6455;1.3780;
-157.5000;0.6447;1.3804;
-157.2000;0.6439;1.3756;
-156.9000;0.6496;1.3900;
-156.6000;0.6463;1.3876;
-156.3000;0.6463;1.3852;
-156.0000;0.6463;1.3900;
-155.7000;0.6447;1.3876;
-155.4000;0.6439;1.3828;
-155.1000;0.6471;1.3828;
-154.8000;0.6463;1.3708;
-154.5000;0.6479;1.3756;
-154.2000;0.6512;1.3924;
-153.9000;0.6488;1.3900;
-153.6000;0.6471;1.3900;
-153.3000;0.6455;1.3900;
-153.0000;0.6553;1.4165;
-152.7000;0.6455;1.3828;
-152.4000;0.6471;1.3924;
-152.1000;0.6414;1.3756;
-151.8000;0.6447;1.3852;
-151.5000;0.6455;1.3804;
-151.2000;0.6447;1.3684;
-150.9000;0.6504;1.3828;
-150.6000;0.6479;1.3804;
-150.3000;0.6455;1.3708;
-150.0000;0.6496;1.3828;
-149.7000;0.6471;1.3708;
-149.4000;0.6479;1.3732;
-149.1000;0.6463;1.3708;
-148.8000;0.6447;1.3612;
-148.5000;0.6455;1.3708;
-148.2000;0.6439;1.3780;
-147.9000;0.6422;1.3732;
-147.6000;0.6406;1.3684;
-147.3000;0.6455;1.3684;
-147.0000;0.6455;1.3636;
-146.7000;0.6455;1.3708;
-146.4000;0.6439;1.3708;
-146.1000;0.6447;1.3756;
-145.8000;0.6479;1.3876;
-145.5000;0.6414;1.3708;
-145.2000;0.6447;1.3876;
-144.9000;0.6463;1.3900;
-144.6000;0.6447;1.3852;
-144.3000;0.6471;1.3924;
-144.0000;0.6561;1.4165;
-143.7000;0.6455;1.3924;
-143.4000;0.6455;1.3876;
-143.1000;0.6463;1.3828;
-142.8000;0.6455;1.3852;
-142.5000;0.6496;1.3948;
-142.2000;0.6471;1.3876;
-141.9000;0.6455;1.3756;
-141.6000;0.6471;1.3708;
-141.3000;0.6455;1.3660;
-141.0000;0.6455;1.3636;
-140.7000;0.6463;1.3684;
-140.4000;0.6463;1.3732;
-140.1000;0.6479;1.3756;
-139.8000;0.6463;1.3804;
-139.5000;0.6463;1.3804;
-139.2000;0.6471;1.3852;
-138.9000;0.6455;1.3756;
-138.6000;0.6471;1.3756;
-138.3000;0.6447;1.3684;
-138.0000;0.6447;1.3660;
-137.7000;0.6447;1.3756;
-137.4000;0.6463;1.3708;
-137.1000;0.6471;1.3684;
-136.8000;0.6447;1.3636;
-136.5000;0.6447;1.3564;
-136.2000;0.6447;1.3660;
-135.9000;0.6447;1.3756;
-135.6000;0.6455;1.3756;
-135.3000;0.6496;1.3924;
-135.0000;0.6455;1.3852;
-134.7000;0.6463;1.3852;
-134.4000;0.6455;1.3804;
-134.1000;0.6463;1.3660;
-133.8000;0.6414;1.3467;
-133.5000;0.6455;1.3564;
-133.2000;0.6463;1.3588;
-132.9000;0.6455;1.3588;
-132.6000;0.6447;1.3515;
-132.3000;0.6455;1.3491;
-132.0000;0.6439;1.3419;
-131.7000;0.6447;1.3419;
-131.4000;0.6455;1.3419;
-131.1000;0.6447;1.3491;
-130.8000;0.6463;1.3467;
-130.5000;0.6439;1.3419;
-130.2000;0.6455;1.3540;
-129.9000;0.6455;1.3515;
-129.6000;0.6447;1.3467;
-129.3000;0.6545;1.3756;
-129.0000;0.6455;1.3491;
-128.7000;0.6455;1.3588;
-128.4000;0.6463;1.3612;
-128.1000;0.6447;1.3588;
-127.8000;0.6431;1.3467;
-127.5000;0.6463;1.3491;
-127.2000;0.6463;1.3443;
-126.9000;0.6365;1.3251;
-126.6000;0.6447;1.3395;
-126.3000;0.6398;1.3371;
-126.0000;0.6431;1.3299;
-125.7000;0.6455;1.3443;
-125.4000;0.6431;1.3443;
-125.1000;0.6447;1.3540;
-124.8000;0.6439;1.3564;
-124.5000;0.6414;1.3491;
-124.2000;0.6439;1.3612;
-123.9000;0.6455;1.3564;
-123.6000;0.6455;1.3491;
-123.3000;0.6447;1.3540;
-123.0000;0.6431;1.3515;
-122.7000;0.6431;1.3515;
-122.4000;0.6447;1.3564;
-122.1000;0.6398;1.3443;
-121.8000;0.6447;1.3612;
-121.5000;0.6447;1.3564;
-121.2000;0.6447;1.3564;
-120.9000;0.6455;1.3708;
-120.6000;0.6447;1.3732;
-120.3000;0.6414;1.3636;
-120.0000;0.6447;1.3588;
-119.7000;0.6463;1.3636;
-119.4000;0.6455;1.3660;
-119.1000;0.6439;1.3636;
-118.8000;0.6455;1.3732;
-118.5000;0.6455;1.3708;
-118.2000;0.6455;1.3732;
-117.9000;0.6463;1.3828;
-117.6000;0.6447;1.3804;
-117.3000;0.6455;1.3852;
-117.0000;0.6479;1.3948;
-116.7000;0.6455;1.3804;
-116.4000;0.6447;1.3780;
-116.1000;0.6414;1.3684;
-115.8000;0.6471;1.3852;
-115.5000;0.6471;1.3804;
-115.2000;0.6439;1.3756;
-114.9000;0.6479;1.3900;
-114.6000;0.6479;1.3852;
-114.3000;0.6512;1.3924;
-114.0000;0.6463;1.3852;
-113.7000;0.6471;1.3780;
-113.4000;0.6479;1.3852;
-113.1000;0.6463;1.3804;
-112.8000;0.6455;1.3756;
-112.5000;0.6455;1.3780;
-112.2000;0.6422;1.3660;
-111.9000;0.6471;1.3756;
-111.6000;0.6422;1.3612;
-111.3000;0.6471;1.3708;
-111.0000;0.6504;1.3756;
-110.7000;0.6455;1.3660;
-110.4000;0.6463;1.3756;
-110.1000;0.6471;1.3852;
-109.8000;0.6471;1.3828;
-109.5000;0.6471;1.3684;
-109.2000;0.6471;1.3684;
-108.9000;0.6463;1.3684;
-108.6000;0.6471;1.3660;
-108.3000;0.6463;1.3708;
-108.0000;0.6471;1.3756;
-107.7000;0.6512;1.3804;
-107.4000;0.6447;1.3660;
-107.1000;0.6504;1.3852;
-106.8000;0.6488;1.3876;
-106.5000;0.6463;1.3828;
-106.2000;0.6471;1.3924;
-105.9000;0.6455;1.3900;
-105.6000;0.6479;1.3900;
-105.3000;0.6447;1.3876;
-105.0000;0.6414;1.3708;
-104.7000;0.6365;1.3588;
-104.4000;0.6471;1.3876;
-104.1000;0.6447;1.3900;
-103.8000;0.6463;1.4021;
-103.5000;0.6455;1.3972;
-103.2000;0.6447;1.3924;
-102.9000;0.6463;1.3972;
-102.6000;0.6455;1.3900;
-102.3000;0.6439;1.3876;
-102.0000;0.6447;1.3924;
-101.7000;0.6455;1.3900;
-101.4000;0.6406;1.3828;
-101.1000;0.6439;1.3876;
-100.8000;0.6439;1.3852;
-100.5000;0.6431;1.3852;
-100.2000;0.6463;1.3924;
-99.9000;0.6439;1.3900;
-99.6000;0.6447;1.3876;
-99.3000;0.6447;1.3804;
-99.0000;0.6447;1.3756;
-98.7000;0.6439;1.3756;
-98.4000;0.6455;1.3852;
-98.1000;0.6447;1.3876;
-97.8000;0.6455;1.3972;
-97.5000;0.6431;1.3924;
-97.2000;0.6455;1.3924;
-96.9000;0.6545;1.4093;
-96.6000;0.6471;1.3900;
-96.3000;0.6455;1.3948;
-96.0000;0.6447;1.3948;
-95.7000;0.6431;1.3996;
-95.4000;0.6471;1.3972;
-95.1000;0.6471;1.4069;
-94.8000;0.6439;1.3948;
-94.5000;0.6431;1.3924;
-94.2000;0.6471;1.3924;
-93.9000;0.6431;1.3756;
-93.6000;0.6439;1.3756;
-93.3000;0.6471;1.3828;
-93.0000;0.6463;1.3780;
-92.7000;0.6463;1.3828;
-92.4000;0.6479;1.3924;
-92.1000;0.6447;1.3924;
-91.8000;0.6455;1.3972;
-91.5000;0.6471;1.4021;
-91.2000;0.6471;1.3948;
-90.9000;0.6455;1.3828;
-90.6000;0.6471;1.3948;
-90.3000;0.6479;1.4045;
-90.0000;0.6471;1.4045;
-89.7000;0.6471;1.4021;
-89.4000;0.6447;1.3948;
-89.1000;0.6463;1.3948;
-88.8000;0.6463;1.3876;
-88.5000;0.6455;1.3828;
-88.2000;0.6414;1.3684;
-87.9000;0.6382;1.3491;
-87.6000;0.6398;1.3540;
-87.3000;0.6447;1.3636;
-87.0000;0.6455;1.3684;
-86.7000;0.6414;1.3636;
-86.4000;0.6365;1.3540;
-86.1000;0.6439;1.3708;
-85.8000;0.6471;1.3828;
-85.5000;0.6479;1.3804;
-85.2000;0.6471;1.3900;
-84.9000;0.6455;1.3852;
-84.6000;0.6512;1.3972;
-84.3000;0.6447;1.3876;
-84.0000;0.6471;1.3948;
-83.7000;0.6488;1.4021;
-83.4000;0.6463;1.3996;
-83.1000;0.6398;1.3780;
-82.8000;0.6463;1.3876;
-82.5000;0.6463;1.3828;
-82.2000;0.6479;1.3852;
-81.9000;0.6488;1.3876;
-81.6000;0.6479;1.3924;
-81.3000;0.6471;1.3996;
-81.0000;0.6439;1.3996;
-80.7000;0.6471;1.4165;
-80.4000;0.6479;1.4213;
-80.1000;0.6496;1.4285;
-79.8000;0.6463;1.4237;
-79.5000;0.6447;1.4117;
-79.2000;0.6463;1.4141;
-78.9000;0.6463;1.4069;
-78.6000;0.6463;1.4045;
-78.3000;0.6471;1.4093;
-78.0000;0.6536;1.4237;
-77.7000;0.6463;1.4069;
-77.4000;0.6455;1.4093;
-77.1000;0.6455;1.4021;
-76.8000;0.6463;1.3924;
-76.5000;0.6455;1.3900;
-76.2000;0.6439;1.3900;
-75.9000;0.6439;1.3948;
-75.6000;0.6488;1.4165;
-75.3000;0.6471;1.4213;
-75.0000;0.6471;1.4141;
-74.7000;0.6463;1.4069;
-74.4000;0.6447;1.3972;
-74.1000;0.6463;1.3972;
-73.8000;0.6471;1.3852;
-73.5000;0.6496;1.3828;
-73.2000;0.6431;1.3636;
-72.9000;0.6447;1.3636;
-72.6000;0.6471;1.3660;
-72.3000;0.6479;1.3852;
-72.0000;0.6463;1.3924;
-71.7000;0.6414;1.3804;
-71.4000;0.6463;1.3876;
-71.1000;0.6471;1.3876;
-70.8000;0.6455;1.3852;
-70.5000;0.6447;1.3876;
-70.2000;0.6455;1.3828;
-69.9000;0.6471;1.3852;
-69.6000;0.6447;1.3804;
-69.3000;0.6463;1.3900;
-69.0000;0.6439;1.3828;
-68.7000;0.6479;1.3876;
-68.4000;0.6439;1.3756;
-68.1000;0.6455;1.3828;
-67.8000;0.6496;1.3852;
-67.5000;0.6479;1.3756;
-67.2000;0.6479;1.3732;
-66.9000;0.6471;1.3756;
-66.6000;0.6463;1.3756;
-66.3000;0.6463;1.3780;
-66.0000;0.6463;1.3804;
-65.7000;0.6463;1.3876;
-65.4000;0.6553;1.4261;
-65.1000;0.6447;1.3876;
-64.8000;0.6463;1.3924;
-64.5000;0.6479;1.4045;
-64.2000;0.6455;1.3996;
-63.9000;0.6479;1.4093;
-63.6000;0.6471;1.4069;
-63.3000;0.6455;1.4069;
-63.0000;0.6471;1.4141;
-62.7000;0.6471;1.4093;
-62.4000;0.6455;1.4141;
-62.1000;0.6471;1.4141;
-61.8000;0.6463;1.4093;
-61.5000;0.6455;1.4045;
-61.2000;0.6447;1.3948;
-60.9000;0.6479;1.3996;
-60.6000;0.6455;1.3972;
-60.3000;0.6447;1.3972;
-60.0000;0.6455;1.3972;
-59.7000;0.6447;1.3948;
-59.4000;0.6455;1.3852;
-59.1000;0.6439;1.3828;
-58.8000;0.6439;1.3924;
-58.5000;0.6455;1.3948;
-58.2000;0.6447;1.3924;
-57.9000;0.6455;1.3900;
-57.6000;0.6447;1.3876;
-57.3000;0.6479;1.3900;
-57.0000;0.6471;1.3876;
-56.7000;0.6447;1.3756;
-56.4000;0.6471;1.3852;
-56.1000;0.6488;1.3900;
-55.8000;0.6471;1.4069;
-55.5000;0.6488;1.4045;
-55.2000;0.6447;1.3876;
-54.9000;0.6455;1.3972;
-54.6000;0.6561;1.4237;
-54.3000;0.6471;1.4093;
-54.0000;0.6447;1.4045;
-53.7000;0.6447;1.4093;
-53.4000;0.6447;1.4093;
-53.1000;0.6463;1.4045;
-52.8000;0.6463;1.3996;
-52.5000;0.6463;1.4069;
-52.2000;0.6439;1.4069;
-51.9000;0.6455;1.4165;
-51.6000;0.6447;1.4141;
-51.3000;0.6504;1.4333;
-51.0000;0.6496;1.4261;
-50.7000;0.6463;1.4117;
-50.4000;0.6463;1.4141;
-50.1000;0.6439;1.4069;
-49.8000;0.6439;1.4141;
-49.5000;0.6447;1.4141;
-49.2000;0.6447;1.4093;
-48.9000;0.6455;1.4117;
-48.6000;0.6447;1.4069;
-48.3000;0.6455;1.3948;
-48.0000;0.6463;1.3996;
-47.7000;0.6439;1.3948;
-47.4000;0.6447;1.3924;
-47.1000;0.6431;1.3948;
-46.8000;0.6471;1.3948;
-46.5000;0.6520;1.4093;
-46.2000;0.6447;1.3876;
-45.9000;0.6520;1.4021;
-45.6000;0.6471;1.3852;
-45.3000;0.6431;1.3756;
-45.0000;0.6463;1.3852;
-44.7000;0.6504;1.4021;
-44.4000;0.6471;1.3996;
-44.1000;0.6471;1.3996;
-43.8000;0.6471;1.3924;
-43.5000;0.6463;1.3828;
-43.2000;0.6479;1.3900;
-42.9000;0.6463;1.3876;
-42.6000;0.6455;1.3876;
-42.3000;0.6447;1.3876;
-42.0000;0.6447;1.3876;
-41.7000;0.6455;1.3900;
-41.4000;0.6471;1.4045;
-41.1000;0.6455;1.3972;
-40.8000;0.6439;1.3924;
-40.5000;0.6463;1.3948;
-40.2000;0.6447;1.4021;
-39.9000;0.6422;1.3948;
-39.6000;0.6471;1.3996;
-39.3000;0.6455;1.3948;
-39.0000;0.6463;1.3876;
-38.7000;0.6463;1.3804;
-38.4000;0.6488;1.3876;
-38.1000;0.6528;1.3948;
-37.8000;0.6463;1.3828;
-37.5000;0.6463;1.3780;
-37.2000;0.6431;1.3756;
-36.9000;0.6463;1.3924;
-36.6000;0.6455;1.3924;
-36.3000;0.6455;1.3996;
-36.0000;0.6455;1.3828;
-35.7000;0.6455;1.3900;
-35.4000;0.6447;1.3924;
-35.1000;0.6463;1.3948;
-34.8000;0.6447;1.3924;
-34.5000;0.6471;1.3948;
-34.2000;0.6463;1.3876;
-33.9000;0.6471;1.3948;
-33.6000;0.6479;1.4021;
-33.3000;0.6463;1.4021;
-33.0000;0.6447;1.3972;
-32.7000;0.6463;1.3948;
-32.4000;0.6463;1.3924;
-32.1000;0.6455;1.3852;
-31.8000;0.6479;1.3948;
-31.5000;0.6431;1.3876;
-31.2000;0.6463;1.3876;
-30.9000;0.6463;1.3876;
-30.6000;0.6463;1.3900;
-30.3000;0.6528;1.4093;
-30.0000;0.6488;1.3996;
-29.7000;0.6463;1.3924;
-29.4000;0.6536;1.4021;
-29.1000;0.6471;1.3900;
-28.8000;0.6463;1.3924;
-28.5000;0.6463;1.3900;
-28.2000;0.6463;1.3852;
-27.9000;0.6471;1.3852;
-27.6000;0.6455;1.3876;
-27.3000;0.6422;1.3876;
-27.0000;0.6455;1.3948;
-26.7000;0.6447;1.3996;
-26.4000;0.6439;1.3972;
-26.1000;0.6447;1.3972;
-25.8000;0.6431;1.3996;
-25.5000;0.6471;1.4069;
-25.2000;0.6455;1.4117;
-24.9000;0.6479;1.4117;
-24.6000;0.6479;1.4045;
-24.3000;0.6471;1.3948;
-24.0000;0.6504;1.3996;
-23.7000;0.6463;1.3876;
-23.4000;0.6463;1.3852;
-23.1000;0.6471;1.3780;
-22.8000;0.6471;1.3804;
-22.5000;0.6447;1.3780;
-22.2000;0.6455;1.3804;
-21.9000;0.6479;1.3852;
-21.6000;0.6553;1.4117;
-21.3000;0.6447;1.3852;
-21.0000;0.6504;1.3924;
-20.7000;0.6398;1.3636;
-20.4000;0.6463;1.3804;
-20.1000;0.6455;1.3828;
-19.8000;0.6455;1.3876;
-19.5000;0.6463;1.3996;
-19.2000;0.6422;1.4045;
-18.9000;0.6463;1.4117;
-18.6000;0.6455;1.4141;
-18.3000;0.6439;1.4093;
-18.0000;0.6455;1.4021;
-17.7000;0.6431;1.3876;
-17.4000;0.6455;1.4045;
-17.1000;0.6431;1.3972;
-16.8000;0.6496;1.4093;
-16.5000;0.6431;1.3948;
-16.2000;0.6439;1.3924;
-15.9000;0.6439;1.3876;
-15.6000;0.6431;1.3852;
-15.3000;0.6439;1.3780;
-15.0000;0.6463;1.3828;
-14.7000;0.6447;1.3780;
-14.4000;0.6471;1.3828;
-14.1000;0.6463;1.3780;
-13.8000;0.6479;1.3828;
-13.5000;0.6471;1.3852;
-13.2000;0.6414;1.3756;
-12.9000;0.6455;1.3900;
-12.6000;0.6488;1.4069;
-12.3000;0.6471;1.4045;
-12.0000;0.6431;1.3948;
-11.7000;0.6414;1.3876;
-11.4000;0.6479;1.3948;
-11.1000;0.6382;1.3708;
-10.8000;0.6528;1.3972;
-10.5000;0.6479;1.3924;
-10.2000;0.6455;1.3948;
-9.9000;0.6447;1.3972;
-9.6000;0.6479;1.4045;
-9.3000;0.6455;1.3996;
-9.0000;0.6528;1.4117;
-8.7000;0.6422;1.3876;
-8.4000;0.6422;1.3852;
-8.1000;0.6439;1.3876;
-7.8000;0.6512;1.4069;
-7.5000;0.6471;1.4021;
-7.2000;0.6439;1.3948;
-6.9000;0.6512;1.4141;
-6.6000;0.6390;1.3780;
-6.3000;0.6479;1.3948;
-6.0000;0.6431;1.3804;
-5.7000;0.6455;1.3828;
-5.4000;0.6447;1.3708;
-5.1000;0.6463;1.3780;
-4.8000;0.6431;1.3684;
-4.5000;0.6431;1.3660;
-4.2000;0.6463;1.3636;
-3.9000;0.6471;1.3708;
-3.6000;0.6398;1.3515;
-3.3000;0.6414;1.3588;
-3.0000;0.6463;1.3588;
-2.7000;0.6471;1.3564;
-2.4000;0.6471;1.3684;
-2.1000;0.6455;1.3612;
-1.8000;0.6463;1.3588;
-1.5000;0.6463;1.3564;
-1.2000;0.6471;1.3564;
-0.9000;0.6463;1.3588;
-0.6000;0.6447;1.3612;
-0.3000;0.6471;1.3636;
0.0000;0.6471;1.3636;
0.3000;0.6772;1.3684;
0.6000;0.7359;1.4093;
0.9000;0.7774;1.4574;
1.2000;0.8116;1.4910;
1.5000;0.8360;1.5103;
1.8000;0.8596;1.5463;
2.1000;0.8742;1.5656;
2.4000;0.8930;1.5848;
2.7000;0.9068;1.6065;
3.0000;0.9206;1.6329;
3.3000;0.9280;1.6353;
3.6000;0.9353;1.6425;
3.9000;0.9434;1.6401;
4.2000;0.9556;1.6594;
4.5000;0.9621;1.6594;
4.8000;0.9768;1.6882;
5.1000;0.9735;1.6690;
5.4000;0.9817;1.6738;
5.7000;0.9874;1.6738;
6.0000;0.9947;1.6810;
6.3000;1.0020;1.6930;
6.6000;1.0028;1.6834;
6.9000;1.0085;1.6906;
7.2000;1.0134;1.6930;
7.5000;1.0183;1.6882;
7.8000;1.0248;1.6882;
8.1000;1.0289;1.6834;
8.4000;1.0305;1.6834;
8.7000;1.0322;1.6810;
9.0000;1.0370;1.6738;
9.3000;1.0468;1.6834;
9.6000;1.0444;1.6690;
9.9000;1.0509;1.6666;
10.2000;1.0549;1.6786;
10.5000;1.0606;1.6810;
10.8000;1.0623;1.6834;
11.1000;1.0680;1.6906;
11.4000;1.0680;1.6930;
11.7000;1.0680;1.6906;
12.0000;1.0737;1.7027;
12.3000;1.0729;1.6979;
12.6000;1.0753;1.7003;
12.9000;1.0745;1.6954;
13.2000;1.0818;1.7003;
13.5000;1.0834;1.6930;
13.8000;1.0867;1.6979;
14.1000;1.0810;1.6786;
14.4000;1.0891;1.6834;
14.7000;1.0916;1.6834;
15.0000;1.0940;1.6762;
15.3000;1.0956;1.6762;
15.6000;1.0989;1.6858;
15.9000;1.0989;1.6738;
16.2000;1.1005;1.6714;
16.5000;1.1030;1.6738;
16.8000;1.1046;1.6714;
17.1000;1.1030;1.6690;
17.4000;1.1070;1.6810;
17.7000;1.1087;1.6858;
18.0000;1.1103;1.6858;
18.3000;1.1103;1.6762;
18.6000;1.1087;1.6594;
18.9000;1.1144;1.6642;
19.2000;1.1152;1.6666;
19.5000;1.1152;1.6690;
19.8000;1.1160;1.6690;
20.1000;1.1168;1.6762;
20.4000;1.1193;1.6834;
20.7000;1.1209;1.6810;
21.0000;1.1209;1.6858;
21.3000;1.1241;1.6954;
21.6000;1.1160;1.6762;
21.9000;1.1241;1.6810;
22.2000;1.1241;1.6762;
22.5000;1.1241;1.6834;
22.8000;1.1258;1.6810;
23.1000;1.1298;1.6858;
23.4000;1.1290;1.6786;
23.7000;1.1298;1.6810;
24.0000;1.1290;1.6762;
24.3000;1.1298;1.6738;
24.6000;1.1323;1.6690;
24.9000;1.1323;1.6594;
25.2000;1.1331;1.6570;
25.5000;1.1347;1.6642;
25.8000;1.1347;1.6714;
26.1000;1.1339;1.6738;
26.4000;1.1331;1.6786;
26.7000;1.1306;1.6642;
27.0000;1.1363;1.6834;
27.3000;1.1347;1.6834;
27.6000;1.1339;1.6762;
27.9000;1.1347;1.6690;
28.2000;1.1380;1.6762;
28.5000;1.1380;1.6738;
28.8000;1.1388;1.6690;
29.1000;1.1396;1.6738;
29.4000;1.1412;1.6738;
29.7000;1.1388;1.6762;
30.0000;1.1404;1.6738;
30.3000;1.1486;1.6786;
30.6000;1.1412;1.6570;
30.9000;1.1412;1.6666;
31.2000;1.1396;1.6714;
31.5000;1.1412;1.6666;
31.8000;1.1412;1.6714;
32.1000;1.1396;1.6690;
32.4000;1.1420;1.6810;
32.7000;1.1412;1.6738;
33.0000;1.1453;1.6834;
33.3000;1.1453;1.6762;
33.6000;1.1420;1.6690;
33.9000;1.1445;1.6642;
34.2000;1.1453;1.6690;
34.5000;1.1477;1.6762;
34.8000;1.1477;1.6690;
35.1000;1.1453;1.6714;
35.4000;1.1461;1.6762;
35.7000;1.1477;1.6786;
36.0000;1.1461;1.6786;
36.3000;1.1445;1.6810;
36.6000;1.1469;1.6738;
36.9000;1.1469;1.6738;
37.2000;1.1477;1.6762;
37.5000;1.1477;1.6714;
37.8000;1.1469;1.6786;
38.1000;1.1494;1.6786;
38.4000;1.1453;1.6714;
38.7000;1.1486;1.6690;
39.0000;1.1494;1.6714;
39.3000;1.1486;1.6618;
39.6000;1.1510;1.6498;
39.9000;1.1502;1.6449;
40.2000;1.1486;1.6522;
40.5000;1.1453;1.6473;
40.8000;1.1502;1.6522;
41.1000;1.1502;1.6570;
41.4000;1.1502;1.6642;
41.7000;1.1502;1.6690;
42.0000;1.1526;1.6762;
42.3000;1.1518;1.6762;
42.6000;1.1534;1.6906;
42.9000;1.1502;1.6858;
43.2000;1.1510;1.6858;
43.5000;1.1486;1.6762;
43.8000;1.1510;1.6786;
44.1000;1.1502;1.6666;
44.4000;1.1510;1.6570;
44.7000;1.1494;1.6546;
45.0000;1.1518;1.6570;
45.3000;1.1502;1.6522;
45.6000;1.1543;1.6690;
45.9000;1.1534;1.6738;
46.2000;1.1551;1.6834;
46.5000;1.1518;1.6786;
46.8000;1.1551;1.6954;
47.1000;1.1518;1.6906;
47.4000;1.1526;1.6882;
47.7000;1.1526;1.6810;
48.0000;1.1575;1.6906;
48.3000;1.1575;1.6810;
48.6000;1.1551;1.6690;
48.9000;1.1534;1.6618;
49.2000;1.1477;1.6522;
49.5000;1.1534;1.6714;
49.8000;1.1534;1.6786;
50.1000;1.1534;1.6786;
50.4000;1.1583;1.6954;
50.7000;1.1518;1.6690;
51.0000;1.1551;1.6786;
51.3000;1.1486;1.6666;
51.6000;1.1534;1.6786;
51.9000;1.1551;1.6810;
52.2000;1.1543;1.6786;
52.5000;1.1551;1.6786;
52.8000;1.1567;1.6738;
53.1000;1.1543;1.6690;
53.4000;1.1551;1.6762;
53.7000;1.1510;1.6642;
54.0000;1.1543;1.6714;
54.3000;1.1551;1.6786;
54.6000;1.1575;1.6834;
54.9000;1.1534;1.6762;
55.2000;1.1551;1.6714;
55.5000;1.1551;1.6714;
55.8000;1.1567;1.6690;
56.1000;1.1567;1.6714;
56.4000;1.1559;1.6738;
56.7000;1.1559;1.6738;
57.0000;1.1559;1.6714;
57.3000;1.1575;1.6762;
57.6000;1.1575;1.6810;
57.9000;1.1551;1.6738;
58.2000;1.1567;1.6666;
58.5000;1.1591;1.6714;
58.8000;1.1567;1.6666;
59.1000;1.1551;1.6546;
59.4000;1.1534;1.6498;
59.7000;1.1583;1.6714;
60.0000;1.1575;1.6690;
60.3000;1.1543;1.6666;
60.6000;1.1583;1.6666;
60.9000;1.1559;1.6666;
61.2000;1.1583;1.6666;
61.5000;1.1624;1.6786;
61.8000;1.1583;1.6738;
62.1000;1.1591;1.6858;
62.4000;1.1583;1.6810;
62.7000;1.1551;1.6762;
63.0000;1.1575;1.6762;
63.3000;1.1575;1.6642;
63.6000;1.1567;1.6570;
63.9000;1.1575;1.6666;
64.2000;1.1640;1.6810;
64.5000;1.1583;1.6618;
64.8000;1.1600;1.6714;
65.1000;1.1583;1.6666;
65.4000;1.1559;1.6690;
65.7000;1.1567;1.6762;
66.0000;1.1575;1.6810;
66.3000;1.1567;1.6786;
66.6000;1.1567;1.6786;
66.9000;1.1632;1.6882;
67.2000;1.1600;1.6786;
67.5000;1.1567;1.6762;
67.8000;1.1583;1.6762;
68.1000;1.1575;1.6690;
68.4000;1.1575;1.6594;
68.7000;1.1624;1.6786;
69.0000;1.1583;1.6690;
69.3000;1.1567;1.6666;
69.6000;1.1559;1.6642;
69.9000;1.1583;1.6570;
70.2000;1.1559;1.6522;
70.5000;1.1616;1.6690;
70.8000;1.1591;1.6594;
71.1000;1.1583;1.6594;
71.4000;1.1591;1.6642;
71.7000;1.1583;1.6642;
72.0000;1.1591;1.6690;
72.3000;1.1608;1.6738;
72.6000;1.1600;1.6762;
72.9000;1.1600;1.6618;
73.2000;1.1575;1.6594;
73.5000;1.1575;1.6642;
73.8000;1.1608;1.6762;
74.1000;1.1600;1.6738;
74.4000;1.1591;1.6690;
74.7000;1.1567;1.6642;
75.0000;1.1583;1.6714;
75.3000;1.1600;1.6810;
75.6000;1.1591;1.6738;
75.9000;1.1575;1.6714;
76.2000;1.1559;1.6618;
76.5000;1.1591;1.6738;
76.8000;1.1567;1.6762;
77.1000;1.1583;1.6738;
77.4000;1.1575;1.6906;
77.7000;1.1616;1.6954;
78.0000;1.1591;1.6906;
78.3000;1.1697;1.7075;
78.6000;1.1600;1.6858;
78.9000;1.1583;1.6714;
79.2000;1.1616;1.6858;
79.5000;1.1591;1.6834;
79.8000;1.1600;1.6786;
80.1000;1.1591;1.6786;
80.4000;1.1600;1.6786;
80.7000;1.1591;1.6762;
81.0000;1.1591;1.6810;
81.3000;1.1600;1.6858;
81.6000;1.1583;1.6834;
81.9000;1.1600;1.6858;
82.2000;1.1591;1.6834;
82.5000;1.1608;1.6882;
82.8000;1.1600;1.6882;
83.1000;1.1608;1.6930;
83.4000;1.1624;1.6858;
83.7000;1.1591;1.6834;
84.0000;1.1608;1.6930;
84.3000;1.1624;1.7075;
84.6000;1.1583;1.6979;
84.9000;1.1600;1.6954;
85.2000;1.1624;1.7003;
85.5000;1.1583;1.6882;
85.8000;1.1616;1.6906;
86.1000;1.1608;1.6882;
86.4000;1.1640;1.6930;
86.7000;1.1600;1.6810;
87.0000;1.1608;1.6810;
87.3000;1.1608;1.6810;
87.6000;1.1600;1.6834;
87.9000;1.1632;1.6786;
88.2000;1.1616;1.6786;
88.5000;1.1600;1.6762;
88.8000;1.1608;1.6810;
89.1000;1.1575;1.6738;
89.4000;1.1600;1.6666;
89.7000;1.1551;1.6546;
90.0000;1.1616;1.6642;
90.3000;1.1591;1.6642;
90.6000;1.1608;1.6762;
90.9000;1.1591;1.6810;
91.2000;1.1640;1.6930;
91.5000;1.1591;1.6834;
91.8000;1.1616;1.6834;
92.1000;1.1608;1.6834;
92.4000;1.1640;1.6906;
92.7000;1.1608;1.6882;
93.0000;1.1624;1.6810;
93.3000;1.1616;1.6786;
93.6000;1.1608;1.6738;
93.9000;1.1591;1.6714;
94.2000;1.1608;1.6762;
94.5000;1.1600;1.6738;
94.8000;1.1583;1.6666;
95.1000;1.1583;1.6666;
95.4000;1.1600;1.6786;
95.7000;1.1534;1.6618;
96.0000;1.1583;1.6738;
96.3000;1.1591;1.6858;
96.6000;1.1608;1.6834;
96.9000;1.1624;1.6834;
97.2000;1.1616;1.6762;
97.5000;1.1583;1.6666;
97.8000;1.1600;1.6762;
98.1000;1.1600;1.6666;
98.4000;1.1575;1.6618;
98.7000;1.1608;1.6690;
99.0000;1.1591;1.6690;
99.3000;1.1632;1.6810;
99.6000;1.1591;1.6786;
99.9000;1.1608;1.6786;
100.2000;1.1665;1.6906;
100.5000;1.1600;1.6690;
100.8000;1.1600;1.6714;
101.1000;1.1608;1.6738;
101.4000;1.1600;1.6738;
101.7000;1.1591;1.6834;
102.0000;1.1600;1.6834;
102.3000;1.1600;1.6834;
102.6000;1.1608;1.6786;
102.9000;1.1583;1.6738;
103.2000;1.1608;1.6762;
103.5000;1.1600;1.6786;
103.8000;1.1608;1.6786;
104.1000;1.1632;1.6738;
104.4000;1.1616;1.6714;
104.7000;1.1608;1.6786;
105.0000;1.1616;1.6690;
105.3000;1.1600;1.6642;
105.6000;1.1624;1.6762;
105.9000;1.1600;1.6810;
106.2000;1.1616;1.6858;
106.5000;1.1600;1.6810;
106.8000;1.1616;1.6882;
107.1000;1.1518;1.6642;
107.4000;1.1600;1.6786;
107.7000;1.1600;1.6762;
108.0000;1.1510;1.6594;
108.3000;1.1608;1.6810;
108.6000;1.1559;1.6690;
108.9000;1.1575;1.6738;
109.2000;1.1608;1.6858;
109.5000;1.1616;1.6834;
109.8000;1.1567;1.6738;
110.1000;1.1632;1.6882;
110.4000;1.1600;1.6738;
110.7000;1.1656;1.6882;
111.0000;1.1608;1.6738;
111.3000;1.1616;1.6786;
111.6000;1.1567;1.6666;
111.9000;1.1583;1.6762;
112.2000;1.1600;1.6762;
112.5000;1.1624;1.6738;
112.8000;1.1608;1.6666;
113.1000;1.1591;1.6642;
113.4000;1.1608;1.6642;
113.7000;1.1640;1.6762;
114.0000;1.1608;1.6738;
114.3000;1.1591;1.6834;
114.6000;1.1600;1.6858;
114.9000;1.1616;1.6858;
115.2000;1.1624;1.6858;
115.5000;1.1600;1.6906;
115.8000;1.1591;1.7027;
116.1000;1.1608;1.6954;
116.4000;1.1608;1.6979;
116.7000;1.1616;1.6954;
117.0000;1.1616;1.6930;
117.3000;1.1632;1.6786;
117.6000;1.1624;1.6762;
117.9000;1.1600;1.6666;
118.2000;1.1616;1.6666;
118.5000;1.1632;1.6738;
118.8000;1.1608;1.6618;
119.1000;1.1632;1.6642;
119.4000;1.1600;1.6570;
119.7000;1.1608;1.6570;
120.0000;1.1583;1.6618;
120.3000;1.1608;1.6738;
120.6000;1.1591;1.6762;
120.9000;1.1600;1.6810;
121.2000;1.1608;1.6858;
121.5000;1.1608;1.6930;
121.8000;1.1534;1.6714;
122.1000;1.1616;1.6858;
122.4000;1.1616;1.6858;
122.7000;1.1608;1.6858;
123.0000;1.1608;1.6738;
123.3000;1.1705;1.7099;
123.6000;1.1591;1.6762;
123.9000;1.1591;1.6738;
124.2000;1.1591;1.6738;
124.5000;1.1591;1.6714;
124.8000;1.1600;1.6714;
125.1000;1.1600;1.6690;
125.4000;1.1600;1.6810;
125.7000;1.1600;1.6810;
126.0000;1.1616;1.6786;
126.3000;1.1624;1.6858;
126.6000;1.1616;1.6786;
126.9000;1.1608;1.6690;
127.2000;1.1608;1.6594;
127.5000;1.1608;1.6594;
127.8000;1.1600;1.6570;
128.1000;1.1624;1.6642;
128.4000;1.1608;1.6642;
128.7000;1.1608;1.6570;
129.0000;1.1608;1.6546;
129.3000;1.1632;1.6618;
129.6000;1.1608;1.6642;
129.9000;1.1600;1.6666;
130.2000;1.1583;1.6666;
130.5000;1.1591;1.6666;
130.8000;1.1591;1.6762;
131.1000;1.1608;1.6810;
131.4000;1.1600;1.6690;
131.7000;1.1600;1.6666;
132.0000;1.1648;1.6714;
132.3000;1.1624;1.6618;
132.6000;1.1583;1.6522;
132.9000;1.1624;1.6594;
133.2000;1.1624;1.6714;
133.5000;1.1608;1.6690;
133.8000;1.1640;1.6834;
134.1000;1.1632;1.6786;
134.4000;1.1616;1.6834;
134.7000;1.1665;1.6954;
135.0000;1.1616;1.6786;
135.3000;1.1608;1.6738;
135.6000;1.1551;1.6594;
135.9000;1.1616;1.6690;
136.2000;1.1600;1.6594;
136.5000;1.1608;1.6618;
136.8000;1.1616;1.6690;
137.1000;1.1600;1.6546;
137.4000;1.1600;1.6642;
137.7000;1.1616;1.6642;
138.0000;1.1591;1.6618;
138.3000;1.1591;1.6690;
138.6000;1.1600;1.6738;
138.9000;1.1608;1.6786;
139.2000;1.1600;1.6762;
139.5000;1.1608;1.6762;
139.8000;1.1616;1.6834;
140.1000;1.1600;1.6834;
140.4000;1.1600;1.6834;
140.7000;1.1608;1.6858;
141.0000;1.1583;1.6738;
141.3000;1.1600;1.6690;
141.6000;1.1600;1.6642;
141.9000;1.1591;1.6642;
142.2000;1.1600;1.6594;
142.5000;1.1624;1.6642;
142.8000;1.1656;1.6714;
143.1000;1.1608;1.6618;
143.4000;1.1559;1.6498;
143.7000;1.1608;1.6690;
144.0000;1.1616;1.6690;
144.3000;1.1591;1.6666;
144.6000;1.1543;1.6546;
144.9000;1.1665;1.6810;
145.2000;1.1608;1.6642;
145.5000;1.1600;1.6618;
145.8000;1.1600;1.6522;
146.1000;1.1616;1.6522;
146.4000;1.1567;1.6473;
146.7000;1.1608;1.6690;
147.0000;1.1608;1.6714;
147.3000;1.1608;1.6810;
147.6000;1.1616;1.6786;
147.9000;1.1608;1.6786;
148.2000;1.1608;1.6738;
148.5000;1.1600;1.6690;
148.8000;1.1608;1.6714;
149.1000;1.1624;1.6690;
149.4000;1.1600;1.6666;
149.7000;1.1575;1.6642;
150.0000;1.1600;1.6714;
150.3000;1.1624;1.6810;
150.6000;1.1616;1.6786;
150.9000;1.1600;1.6762;
151.2000;1.1600;1.6810;
151.5000;1.1591;1.6714;
151.8000;1.1591;1.6810;
152.1000;1.1616;1.6810;
152.4000;1.1608;1.6762;
152.7000;1.1608;1.6834;
153.0000;1.1600;1.6930;
153.3000;1.1608;1.6930;
153.6000;1.1624;1.6882;
153.9000;1.1591;1.6810;
154.2000;1.1632;1.6954;
154.5000;1.1600;1.6930;
154.8000;1.1616;1.6882;
155.1000;1.1608;1.6954;
155.4000;1.1543;1.6810;
155.7000;1.1608;1.6834;
156.0000;1.1616;1.6810;
156.3000;1.1632;1.6786;
156.6000;1.1616;1.6618;
156.9000;1.1616;1.6546;
157.2000;1.1624;1.6498;
157.5000;1.1600;1.6329;
157.8000;1.1632;1.6449;
158.1000;1.1624;1.6425;
158.4000;1.1600;1.6473;
158.7000;1.1632;1.6618;
159.0000;1.1608;1.6546;
159.3000;1.1600;1.6449;
159.6000;1.1583;1.6425;
159.9000;1.1600;1.6473;
160.2000;1.1591;1.6498;
160.5000;1.1551;1.6498;
160.8000;1.1591;1.6546;
161.1000;1.1559;1.6401;
161.4000;1.1600;1.6425;
161.7000;1.1600;1.6498;
162.0000;1.1600;1.6473;
162.3000;1.1600;1.6449;
162.6000;1.1648;1.6594;
162.9000;1.1600;1.6473;
163.2000;1.1624;1.6642;
163.5000;1.1608;1.6618;
163.8000;1.1624;1.6642;
164.1000;1.1608;1.6690;
164.4000;1.1616;1.6738;
164.7000;1.1608;1.6714;
165.0000;1.1600;1.6666;
165.3000;1.1567;1.6570;
165.6000;1.1616;1.6714;
165.9000;1.1616;1.6618;
166.2000;1.1608;1.6714;
166.5000;1.1632;1.6810;
166.8000;1.1616;1.6834;
167.1000;1.1616;1.6858;
167.4000;1.1608;1.6858;
167.7000;1.1608;1.6738;
168.0000;1.1616;1.6666;
168.3000;1.1616;1.6690;
168.6000;1.1591;1.6666;
168.9000;1.1583;1.6738;
169.2000;1.1608;1.6810;
169.5000;1.1600;1.6834;
169.8000;1.1608;1.6810;
170.1000;1.1616;1.6810;
170.4000;1.1616;1.6882;
170.7000;1.1591;1.6858;
171.0000;1.1600;1.6786;
171.3000;1.1600;1.6810;
171.6000;1.1624;1.6954;
171.9000;1.1600;1.6882;
172.2000;1.1608;1.6954;
172.5000;1.1600;1.6906;
172.8000;1.1591;1.6882;
173.1000;1.1616;1.6882;
173.4000;1.1648;1.6979;
173.7000;1.1600;1.6882;
174.0000;1.1616;1.6930;
174.3000;1.1608;1.6906;
174.6000;1.1624;1.7027;
174.9000;1.1591;1.6858;
175.2000;1.1608;1.6810;
175.5000;1.1600;1.6810;
175.8000;1.1608;1.6834;
176.1000;1.1616;1.6762;
176.4000;1.1600;1.6786;
176.7000;1.1616;1.6834;
177.0000;1.1624;1.6810;
177.3000;1.1616;1.6858;
177.6000;1.1608;1.6858;
177.9000;1.1608;1.6810;
178.2000;1.1616;1.6834;
178.5000;1.1665;1.6810;
178.8000;1.1640;1.6738;
179.1000;1.1665;1.6906;
179.4000;1.1567;1.6690;
179.7000;1.1583;1.6762;
180.0000;1.1616;1.6762;
180.3000;1.1608;1.6810;
180.6000;1.1583;1.6786;
180.9000;1.1608;1.6810;
181.2000;1.1616;1.6786;
181.5000;1.1616;1.6858;
181.8000;1.1575;1.6714;
182.1000;1.1591;1.6810;
182.4000;1.1600;1.6810;
182.7000;1.1616;1.6834;
183.0000;1.1681;1.7003;
183.3000;1.1616;1.6930;
183.6000;1.1518;1.6666;
183.9000;1.1591;1.6810;
184.2000;1.1583;1.6810;
184.5000;1.1591;1.6810;
184.8000;1.1600;1.6858;
185.1000;1.1600;1.6858;
185.4000;1.1583;1.6834;
185.7000;1.1600;1.6882;
186.0000;1.1600;1.6979;
186.3000;1.1591;1.7027;
186.6000;1.1583;1.7003;
186.9000;1.1608;1.7003;
187.2000;1.1600;1.6954;
187.5000;1.1616;1.6954;
187.8000;1.1616;1.6882;
188.1000;1.1616;1.6858;
188.4000;1.1616;1.6882;
188.7000;1.1616;1.6906;
189.0000;1.1616;1.6858;
189.3000;1.1600;1.6810;
189.6000;1.1608;1.6810;
189.9000;1.1616;1.6834;
190.2000;1.1608;1.6834;
190.5000;1.1632;1.6930;
190.8000;1.1648;1.6979;
191.1000;1.1591;1.6882;
191.4000;1.1591;1.6906;
191.7000;1.1591;1.6786;
192.0000;1.1600;1.6786;
192.3000;1.1526;1.6690;
192.6000;1.1608;1.6762;
192.9000;1.1600;1.6738;
193.2000;1.1600;1.6714;
193.5000;1.1648;1.6762;
193.8000;1.1600;1.6642;
194.1000;1.1567;1.6522;
194.4000;1.1600;1.6642;
194.7000;1.1600;1.6786;
195.0000;1.1608;1.6882;
195.3000;1.1559;1.6762;
195.6000;1.1600;1.6834;
195.9000;1.1591;1.6810;
196.2000;1.1730;1.7027;
196.5000;1.1600;1.6738;
196.8000;1.1600;1.6594;
197.1000;1.1616;1.6570;
197.4000;1.1575;1.6425;
197.7000;1.1616;1.6498;
198.0000;1.1600;1.6546;
198.3000;1.1591;1.6570;
198.6000;1.1616;1.6714;
198.9000;1.1600;1.6642;
199.2000;1.1600;1.6714;
199.5000;1.1600;1.6690;
199.8000;1.1616;1.6690;
200.1000;1.1616;1.6738;
200.4000;1.1600;1.6666;
200.7000;1.1608;1.6642;
201.0000;1.1608;1.6618;
201.3000;1.1608;1.6570;
201.6000;1.1567;1.6546;
201.9000;1.1583;1.6618;
202.2000;1.1600;1.6666;
202.5000;1.1616;1.6738;
202.8000;1.1583;1.6618;
203.1000;1.1608;1.6618;
203.4000;1.1559;1.6522;
203.7000;1.1600;1.6666;
204.0000;1.1648;1.6810;
204.3000;1.1567;1.6570;
204.6000;1.1591;1.6594;
204.9000;1.1600;1.6618;
205.2000;1.1575;1.6618;
205.5000;1.1583;1.6666;
205.8000;1.1591;1.6618;
206.1000;1.1608;1.6546;
206.4000;1.1591;1.6642;
206.7000;1.1608;1.6714;
207.0000;1.1591;1.6738;
207.3000;1.1591;1.6762;
207.6000;1.1591;1.6906;
207.9000;1.1591;1.6930;
208.2000;1.1534;1.6690;
208.5000;1.1583;1.6834;
208.8000;1.1600;1.6906;
209.1000;1.1600;1.6906;
209.4000;1.1600;1.6906;
209.7000;1.1575;1.6882;
210.0000;1.1591;1.6882;
210.3000;1.1583;1.6882;
210.6000;1.1600;1.6858;
210.9000;1.1583;1.6738;
211.2000;1.1640;1.6834;
211.5000;1.1600;1.6738;
211.8000;1.1600;1.6714;
212.1000;1.1591;1.6714;
212.4000;1.1543;1.6762;
212.7000;1.1608;1.7027;
213.0000;1.1575;1.6906;
213.3000;1.1624;1.6906;
213.6000;1.1616;1.6882;
213.9000;1.1624;1.6882;
214.2000;1.1632;1.6834;
214.5000;1.1600;1.6738;
214.8000;1.1624;1.6762;
215.1000;1.1583;1.6738;
215.4000;1.1624;1.6738;
215.7000;1.1600;1.6738;
216.0000;1.1591;1.6738;
216.3000;1.1608;1.6762;
216.6000;1.1600;1.6762;
216.9000;1.1600;1.6714;
217.2000;1.1583;1.6642;
217.5000;1.1616;1.6690;
217.8000;1.1600;1.6666;
218.1000;1.1600;1.6690;
218.4000;1.1591;1.6666;
218.7000;1.1608;1.6738;
219.0000;1.1591;1.6642;
219.3000;1.1583;1.6618;
219.6000;1.1608;1.6642;
219.9000;1.1600;1.6642;
220.2000;1.1665;1.6738;
220.5000;1.1600;1.6594;
220.8000;1.1591;1.6642;
221.1000;1.1600;1.6594;
221.4000;1.1591;1.6546;
221.7000;1.1600;1.6594;
222.0000;1.1559;1.6449;
222.3000;1.1583;1.6570;
222.6000;1.1575;1.6522;
222.9000;1.1608;1.6642;
223.2000;1.1600;1.6618;
223.5000;1.1608;1.6618;
223.8000;1.1591;1.6666;
224.1000;1.1583;1.6738;
224.4000;1.1567;1.6714;
224.7000;1.1608;1.6834;
225.0000;1.1591;1.6762;
225.3000;1.1600;1.6738;
225.6000;1.1600;1.6666;
225.9000;1.1583;1.6594;
226.2000;1.1591;1.6594;
226.5000;1.1551;1.6570;
226.8000;1.1600;1.6714;
227.1000;1.1583;1.6618;
227.4000;1.1583;1.6642;
227.7000;1.1624;1.6738;
228.0000;1.1600;1.6666;
228.3000;1.1591;1.6714;
228.6000;1.1616;1.6810;
228.9000;1.1551;1.6738;
229.2000;1.1575;1.6738;
229.5000;1.1575;1.6738;
229.8000;1.1600;1.6762;
230.1000;1.1600;1.6714;
230.4000;1.1591;1.6642;
230.7000;1.1600;1.6666;
231.0000;1.1543;1.6473;
231.3000;1.1567;1.6546;
231.6000;1.1575;1.6594;
231.9000;1.1567;1.6570;
232.2000;1.1583;1.6642;
232.5000;1.1591;1.6618;
232.8000;1.1583;1.6618;
233.1000;1.1608;1.6714;
233.4000;1.1583;1.6666;
233.7000;1.1551;1.6618;
234.0000;1.1567;1.6690;
234.3000;1.1583;1.6690;
234.6000;1.1591;1.6714;
234.9000;1.1591;1.6666;
235.2000;1.1583;1.6618;
235.5000;1.1600;1.6546;
235.8000;1.1591;1.6473;
236.1000;1.1608;1.6473;
236.4000;1.1632;1.6570;
236.7000;1.1624;1.6594;
237.0000;1.1591;1.6498;
237.3000;1.1600;1.6377;
237.6000;1.1583;1.6449;
237.9000;1.1583;1.6425;
238.2000;1.1591;1.6498;
238.5000;1.1575;1.6473;
238.8000;1.1640;1.6714;
239.1000;1.1575;1.6618;
239.4000;1.1591;1.6690;
239.7000;1.1591;1.6738;
240.0000;1.1583;1.6738;
240.3000;1.1591;1.6786;
240.6000;1.1591;1.6834;
240.9000;1.1575;1.6858;
241.2000;1.1591;1.6834;
241.5000;1.1543;1.6666;
241.8000;1.1543;1.6618;
242.1000;1.1591;1.6666;
242.4000;1.1591;1.6690;
242.7000;1.1575;1.6690;
243.0000;1.1518;1.6522;
243.3000;1.1616;1.6858;
243.6000;1.1591;1.6858;
243.9000;1.1583;1.6738;
244.2000;1.1591;1.6618;
244.5000;1.1600;1.6690;
244.8000;1.1600;1.6738;
245.1000;1.1600;1.6714;
245.4000;1.1697;1.6906;
245.7000;1.1591;1.6594;
246.0000;1.1616;1.6642;
246.3000;1.1583;1.6570;
246.6000;1.1583;1.6594;
246.9000;1.1591;1.6594;
247.2000;1.1600;1.6666;
247.5000;1.1600;1.6642;
247.8000;1.1591;1.6666;
248.1000;1.1600;1.6666;
248.4000;1.1591;1.6666;
248.7000;1.1583;1.6546;
249.0000;1.1583;1.6522;
249.3000;1.1583;1.6546;
249.6000;1.1575;1.6522;
249.9000;1.1608;1.6618;
250.2000;1.1600;1.6546;
250.5000;1.1608;1.6594;
250.8000;1.1567;1.6546;
251.1000;1.1591;1.6570;
251.4000;1.1591;1.6570;
251.7000;1.1575;1.6546;
252.0000;1.1600;1.6690;
252.3000;1.1583;1.6618;
252.6000;1.1575;1.6618;
252.9000;1.1616;1.6762;
253.2000;1.1591;1.6858;
253.5000;1.1551;1.6738;
253.8000;1.1575;1.6738;
254.1000;1.1591;1.6714;
254.4000;1.1567;1.6690;
254.7000;1.1559;1.6786;
255.0000;1.1591;1.6882;
255.3000;1.1567;1.6642;
255.6000;1.1583;1.6666;
255.9000;1.1600;1.6642;
256.2000;1.1591;1.6594;
256.5000;1.1583;1.6570;
256.8000;1.1591;1.6642;
257.1000;1.1624;1.6714;
257.4000;1.1583;1.6498;
257.7000;1.1624;1.6522;
258.0000;1.1575;1.6425;
258.3000;1.1583;1.6377;
258.6000;1.1591;1.6401;
258.9000;1.1624;1.6425;
259.2000;1.1591;1.6329;
259.5000;1.1591;1.6401;
259.8000;1.1608;1.6377;
260.1000;1.1600;1.6449;
260.4000;1.1583;1.6449;
260.7000;1.1543;1.6329;
261.0000;1.1591;1.6401;
261.3000;1.1575;1.6353;
261.6000;1.1583;1.6401;
261.9000;1.1567;1.6449;
262.2000;1.1575;1.6522;
262.5000;1.1608;1.6642;
262.8000;1.1632;1.6666;
263.1000;1.1575;1.6594;
263.4000;1.1567;1.6618;
263.7000;1.1583;1.6594;
264.0000;1.1583;1.6666;
264.3000;1.1583;1.6642;
264.6000;1.1575;1.6666;
264.9000;1.1591;1.6690;
265.2000;1.1575;1.6666;
265.5000;1.1600;1.6714;
265.8000;1.1665;1.6858;
266.1000;1.1591;1.6666;
266.4000;1.1600;1.6714;
266.7000;1.1600;1.6786;
267.0000;1.1575;1.6738;
267.3000;1.1583;1.6738;
267.6000;1.1600;1.6786;
267.9000;1.1575;1.6714;
268.2000;1.1575;1.6786;
268.5000;1.1591;1.6834;
268.8000;1.1575;1.6738;
269.1000;1.1591;1.6810;
269.4000;1.1624;1.6979;
269.7000;1.1567;1.6930;
270.0000;1.1591;1.6906;
270.3000;1.1591;1.6906;
270.6000;1.1567;1.6786;
270.9000;1.1583;1.6738;
271.2000;1.1600;1.6810;
271.5000;1.1575;1.6714;
271.8000;1.1575;1.6762;
272.1000;1.1526;1.6714;
272.4000;1.1575;1.6786;
272.7000;1.1616;1.6882;
273.0000;1.1600;1.6834;
273.3000;1.1567;1.6786;
273.6000;1.1583;1.6714;
273.9000;1.1608;1.6714;
274.2000;1.1591;1.6714;
274.5000;1.1665;1.6882;
274.8000;1.1616;1.6882;
275.1000;1.1600;1.6858;
275.4000;1.1665;1.6906;
275.7000;1.1591;1.6762;
276.0000;1.1583;1.6666;
276.3000;1.1591;1.6690;
276.6000;1.1543;1.6522;
276.9000;1.1551;1.6594;
277.2000;1.1559;1.6618;
277.5000;1.1583;1.6618;
277.8000;1.1591;1.6642;
278.1000;1.1575;1.6618;
278.4000;1.1575;1.6618;
278.7000;1.1591;1.6570;
279.0000;1.1591;1.6570;
279.3000;1.1591;1.6594;
279.6000;1.1608;1.6642;
279.9000;1.1591;1.6570;
280.2000;1.1600;1.6618;
280.5000;1.1600;1.6642;
280.8000;1.1616;1.6714;
281.1000;1.1591;1.6666;
281.4000;1.1600;1.6714;
281.7000;1.1567;1.6594;
282.0000;1.1583;1.6642;
282.3000;1.1583;1.6642;
282.6000;1.1591;1.6618;
282.9000;1.1551;1.6522;
283.2000;1.1583;1.6690;
283.5000;1.1575;1.6522;
283.8000;1.1583;1.6449;
284.1000;1.1600;1.6546;
284.4000;1.1583;1.6570;
284.7000;1.1591;1.6522;
285.0000;1.1591;1.6546;
285.3000;1.1608;1.6522;
285.6000;1.1591;1.6522;
285.9000;1.1591;1.6570;
286.2000;1.1583;1.6498;
286.5000;1.1575;1.6473;
286.8000;1.1600;1.6570;
287.1000;1.1575;1.6522;
287.4000;1.1575;1.6594;
287.7000;1.1575;1.6570;
288.0000;1.1591;1.6642;
288.3000;1.1559;1.6546;
288.6000;1.1575;1.6594;
288.9000;1.1575;1.6546;
289.2000;1.1583;1.6618;
289.5000;1.1567;1.6666;
289.8000;1.1567;1.6714;
290.1000;1.1559;1.6690;
290.4000;1.1559;1.6738;
290.7000;1.1591;1.6786;
291.0000;1.1567;1.6714;
291.3000;1.1591;1.6738;
291.6000;1.1559;1.6642;
291.9000;1.1591;1.6786;
292.2000;1.1591;1.6810;
292.5000;1.1616;1.6834;
292.8000;1.1583;1.6714;
293.1000;1.1608;1.6762;
293.4000;1.1583;1.6738;
293.7000;1.1575;1.6738;
294.0000;1.1591;1.6738;
294.3000;1.1583;1.6690;
294.6000;1.1543;1.6594;
294.9000;1.1697;1.6930;
295.2000;1.1591;1.6666;
295.5000;1.1559;1.6570;
295.8000;1.1600;1.6642;
296.1000;1.1567;1.6642;
296.4000;1.1567;1.6546;
296.7000;1.1559;1.6522;
297.0000;1.1575;1.6546;
297.3000;1.1575;1.6618;
297.6000;1.1575;1.6690;
297.9000;1.1583;1.6690;
298.2000;1.1575;1.6738;
298.5000;1.1583;1.6714;
298.8000;1.1600;1.6690;
299.1000;1.1583;1.6642;
299.4000;1.1591;1.6594;
299.7000;1.1583;1.6570;
300.0000;1.1591;1.6594;
300.3000;1.1583;1.6618;
300.6000;1.1575;1.6618;
300.9000;1.1600;1.6642;
301.2000;1.1567;1.6570;
301.5000;1.1600;1.6594;
301.8000;1.1591;1.6594;
302.1000;1.1591;1.6642;
302.4000;1.1575;1.6570;
302.7000;1.1575;1.6642;
303.0000;1.1591;1.6618;
303.3000;1.1575;1.6666;
303.6000;1.1575;1.6570;
303.9000;1.1575;1.6642;
304.2000;1.1583;1.6762;
304.5000;1.1583;1.6786;
304.8000;1.1591;1.6786;
305.1000;1.1600;1.6810;
305.4000;1.1583;1.6690;
305.7000;1.1616;1.6738;
306.0000;1.1591;1.6714;
306.3000;1.1591;1.6762;
306.6000;1.1591;1.6834;
306.9000;1.1551;1.6666;
307.2000;1.1575;1.6738;
307.5000;1.1567;1.6690;
307.8000;1.1567;1.6714;
308.1000;1.1567;1.6642;
308.4000;1.1583;1.6666;
308.7000;1.1567;1.6714;
309.0000;1.1575;1.6834;
309.3000;1.1591;1.6858;
309.6000;1.1624;1.6906;
309.9000;1.1591;1.6810;
310.2000;1.1600;1.6810;
310.5000;1.1575;1.6738;
310.8000;1.1583;1.6786;
311.1000;1.1591;1.6834;
311.4000;1.1575;1.6690;
311.7000;1.1583;1.6738;
312.0000;1.1591;1.6762;
312.3000;1.1567;1.6690;
312.6000;1.1559;1.6690;
312.9000;1.1559;1.6714;
313.2000;1.1502;1.6570;
313.5000;1.1640;1.6786;
313.8000;1.1486;1.6329;
314.1000;1.1567;1.6570;
314.4000;1.1575;1.6498;
314.7000;1.1591;1.6522;
315.0000;1.1559;1.6522;
315.3000;1.1591;1.6618;
315.6000;1.1591;1.6594;
315.9000;1.1559;1.6594;
316.2000;1.1608;1.6762;
316.5000;1.1600;1.6786;
316.8000;1.1559;1.6618;
317.1000;1.1575;1.6738;
317.4000;1.1575;1.6666;
317.7000;1.1583;1.6690;
318.0000;1.1583;1.6690;
318.3000;1.1575;1.6642;
318.6000;1.1608;1.6738;
318.9000;1.1575;1.6714;
319.2000;1.1656;1.6979;
319.5000;1.1583;1.6714;
319.8000;1.1583;1.6714;
320.1000;1.1583;1.6714;
320.4000;1.1591;1.6594;
320.7000;1.1608;1.6618;
321.0000;1.1656;1.6786;
321.3000;1.1567;1.6666;
321.6000;1.1543;1.6570;
321.9000;1.1583;1.6642;
322.2000;1.1583;1.6618;
322.5000;1.1583;1.6570;
322.8000;1.1681;1.6762;
323.1000;1.1583;1.6546;
323.4000;1.1583;1.6618;
323.7000;1.1510;1.6425;
324.0000;1.1575;1.6570;
324.3000;1.1583;1.6473;
324.6000;1.1567;1.6522;
324.9000;1.1543;1.6473;
325.2000;1.1583;1.6594;
325.5000;1.1583;1.6642;
325.8000;1.1543;1.6546;
326.1000;1.1608;1.6642;
326.4000;1.1567;1.6473;
326.7000;1.1583;1.6522;
327.0000;1.1591;1.6522;
327.3000;1.1575;1.6473;
327.6000;1.1559;1.6498;
327.9000;1.1567;1.6498;
328.2000;1.1543;1.6498;
328.5000;1.1551;1.6546;
328.8000;1.1624;1.6690;
329.1000;1.1575;1.6522;
329.4000;1.1567;1.6546;
329.7000;1.1559;1.6522;
330.0000;1.1616;1.6642;
330.3000;1.1526;1.6473;
330.6000;1.1543;1.6546;
330.9000;1.1583;1.6570;
331.2000;1.1608;1.6546;
331.5000;1.1567;1.6522;
331.8000;1.1616;1.6690;
332.1000;1.1567;1.6594;
332.4000;1.1559;1.6570;
332.7000;1.1575;1.6570;
333.0000;1.1567;1.6522;
333.3000;1.1559;1.6473;
333.6000;1.1559;1.6425;
333.9000;1.1494;1.6329;
334.2000;1.1567;1.6498;
334.5000;1.1551;1.6473;
334.8000;1.1567;1.6498;
335.1000;1.1526;1.6498;
335.4000;1.1575;1.6594;
335.7000;1.1559;1.6498;
336.0000;1.1600;1.6522;
336.3000;1.1567;1.6449;
336.6000;1.1575;1.6449;
336.9000;1.1575;1.6449;
337.2000;1.1632;1.6618;
337.5000;1.1583;1.6425;
337.8000;1.1559;1.6401;
338.1000;1.1543;1.6329;
338.4000;1.1567;1.6305;
338.7000;1.1567;1.6233;
339.0000;1.1624;1.6425;
339.3000;1.1583;1.6473;
339.6000;1.1583;1.6377;
339.9000;1.1567;1.6305;
340.2000;1.1624;1.6473;
340.5000;1.1575;1.6377;
340.8000;1.1575;1.6449;
341.1000;1.1567;1.6425;
341.4000;1.1583;1.6473;
341.7000;1.1575;1.6401;
342.0000;1.1518;1.6257;
342.3000;1.1510;1.6329;
342.6000;1.1559;1.6449;
342.9000;1.1567;1.6449;
343.2000;1.1616;1.6642;
343.5000;1.1559;1.6473;
343.8000;1.1559;1.6546;
344.1000;1.1681;1.6786;
344.4000;1.1559;1.6425;
344.7000;1.1543;1.6473;
345.0000;1.1567;1.6473;
345.3000;1.1575;1.6353;
345.6000;1.1559;1.6329;
345.9000;1.1591;1.6401;
346.2000;1.1575;1.6401;
346.5000;1.1567;1.6498;
346.8000;1.1567;1.6546;
347.1000;1.1567;1.6522;
347.4000;1.1583;1.6570;
347.7000;1.1575;1.6473;
348.0000;1.1575;1.6570;
348.3000;1.1551;1.6473;
348.6000;1.1559;1.6425;
348.9000;1.1559;1.6449;
349.2000;1.1575;1.6377;
349.5000;1.1526;1.6281;
349.8000;1.1559;1.6329;
350.1000;1.1600;1.6329;
350.4000;1.1575;1.6305;
350.7000;1.1534;1.6305;
351.0000;1.1559;1.6377;
351.3000;1.1567;1.6449;
351.6000;1.1583;1.6594;
351.9000;1.1559;1.6594;
352.2000;1.1543;1.6498;
352.5000;1.1510;1.6401;
352.8000;1.1632;1.6642;
353.1000;1.1575;1.6498;
353.4000;1.1559;1.6522;
353.7000;1.1567;1.6546;
354.0000;1.1575;1.6522;
354.3000;1.1624;1.6594;
354.6000;1.1543;1.6473;
354.9000;1.1559;1.6449;
355.2000;1.1583;1.6473;
355.5000;1.1551;1.6401;
355.8000;1.1551;1.6353;
356.1000;1.1583;1.6377;
356.4000;1.1583;1.6281;
356.7000;1.1567;1.6281;
357.0000;1.1575;1.6353;
357.3000;1.1575;1.6377;
357.6000;1.1526;1.6329;
357.9000;1.1624;1.6546;
358.2000;1.1575;1.6425;
358.5000;1.1559;1.6425;
358.8000;1.1583;1.6498;
359.1000;1.1559;1.6401;
359.4000;1.1575;1.6498;
359.7000;1.1559;1.6570;
360.0000;1.1559;1.6594;
360.3000;1.1575;1.6570;
360.6000;1.1567;1.6594;
360.9000;1.1567;1.6522;
361.2000;1.1559;1.6425;
361.5000;1.1543;1.6377;
361.8000;1.1559;1.6473;
362.1000;1.1551;1.6425;
362.4000;1.1575;1.6449;
362.7000;1.1559;1.6353;
363.0000;1.1551;1.6425;
363.3000;1.1559;1.6449;
363.6000;1.1559;1.6425;
363.9000;1.1575;1.6546;
364.2000;1.1567;1.6570;
364.5000;1.1559;1.6546;
364.8000;1.1559;1.6498;
365.1000;1.1518;1.6329;
365.4000;1.1575;1.6522;
365.7000;1.1583;1.6570;
366.0000;1.1567;1.6498;
366.3000;1.1567;1.6570;
366.6000;1.1543;1.6546;
366.9000;1.1591;1.6618;
367.2000;1.1575;1.6570;
367.5000;1.1518;1.6522;
367.8000;1.1543;1.6594;
368.1000;1.1559;1.6618;
368.4000;1.1559;1.6570;
368.7000;1.1510;1.6425;
369.0000;1.1551;1.6522;
369.3000;1.1567;1.6522;
369.6000;1.1534;1.6377;
369.9000;1.1534;1.6353;
370.2000;1.1559;1.6425;
370.5000;1.1591;1.6498;
370.8000;1.1559;1.6425;
371.1000;1.1567;1.6377;
371.4000;1.1543;1.6329;
371.7000;1.1567;1.6329;
372.0000;1.1575;1.6329;
372.3000;1.1567;1.6401;
372.6000;1.1567;1.6377;
372.9000;1.1567;1.6425;
373.2000;1.1551;1.6401;
373.5000;1.1559;1.6522;
373.8000;1.1559;1.6594;
374.1000;1.1567;1.6666;
374.4000;1.1567;1.6714;
374.7000;1.1575;1.6738;
375.0000;1.1575;1.6714;
375.3000;1.1559;1.6594;
375.6000;1.1551;1.6642;
375.9000;1.1567;1.6714;
376.2000;1.1559;1.6738;
376.5000;1.1551;1.6690;
376.8000;1.1567;1.6618;
377.1000;1.1551;1.6498;
377.4000;1.1575;1.6522;
377.7000;1.1543;1.6449;
378.0000;1.1526;1.6401;
378.3000;1.1551;1.6473;
378.6000;1.1534;1.6473;
378.9000;1.1543;1.6425;
379.2000;1.1551;1.6353;
379.5000;1.1559;1.6353;
379.8000;1.1559;1.6377;
380.1000;1.1551;1.6377;
380.4000;1.1575;1.6425;
380.7000;1.1559;1.6401;
381.0000;1.1559;1.6425;
381.3000;1.1510;1.6329;
381.6000;1.1559;1.6498;
381.9000;1.1559;1.6473;
382.2000;1.1567;1.6401;
382.5000;1.1567;1.6401;
382.8000;1.1575;1.6401;
383.1000;1.1559;1.6425;
383.4000;1.1567;1.6522;
383.7000;1.1567;1.6473;
384.0000;1.1583;1.6473;
384.3000;1.1575;1.6401;
384.6000;1.1575;1.6353;
384.9000;1.1567;1.6449;
385.2000;1.1543;1.6522;
385.5000;1.1600;1.6642;
385.8000;1.1534;1.6498;
386.1000;1.1567;1.6570;
386.4000;1.1559;1.6522;
386.7000;1.1551;1.6522;
387.0000;1.1567;1.6546;
387.3000;1.1575;1.6449;
387.6000;1.1559;1.6449;
387.9000;1.1567;1.6498;
388.2000;1.1559;1.6522;
388.5000;1.1640;1.6714;
388.8000;1.1543;1.6546;
389.1000;1.1543;1.6546;
389.4000;1.1510;1.6473;
389.7000;1.1559;1.6666;
390.0000;1.1559;1.6642;
390.3000;1.1543;1.6618;
390.6000;1.1510;1.6473;
390.9000;1.1559;1.6522;
391.2000;1.1567;1.6570;
391.5000;1.1575;1.6642;
391.8000;1.1583;1.6618;
392.1000;1.1559;1.6473;
392.4000;1.1559;1.6522;
392.7000;1.1559;1.6498;
393.0000;1.1486;1.6305;
393.3000;1.1559;1.6401;
393.6000;1.1559;1.6425;
393.9000;1.1559;1.6498;
394.2000;1.1551;1.6401;
394.5000;1.1518;1.6449;
394.8000;1.1551;1.6570;
395.1000;1.1534;1.6546;
395.4000;1.1551;1.6522;
395.7000;1.1551;1.6546;
396.0000;1.1567;1.6594;
396.3000;1.1567;1.6618;
396.6000;1.1551;1.6570;
396.9000;1.1608;1.6690;
397.2000;1.1567;1.6690;
397.5000;1.1567;1.6690;
397.8000;1.1543;1.6618;
398.1000;1.1551;1.6594;
398.4000;1.1543;1.6618;
398.7000;1.1567;1.6666;
399.0000;1.1567;1.6594;
399.3000;1.1559;1.6522;
399.6000;1.1543;1.6546;
399.9000;1.1518;1.6449;
400.2000;1.1559;1.6618;
400.5000;1.1543;1.6642;
400.8000;1.1559;1.6618;
401.1000;1.1551;1.6618;
401.4000;1.1543;1.6666;
401.7000;1.1543;1.6666;
402.0000;1.1543;1.6594;
402.3000;1.1543;1.6546;
402.6000;1.1551;1.6618;
402.9000;1.1551;1.6594;
403.2000;1.1551;1.6594;
403.5000;1.1567;1.6666;
403.8000;1.1543;1.6570;
404.1000;1.1543;1.6522;
404.4000;1.1526;1.6473;
404.7000;1.1534;1.6449;
405.0000;1.1534;1.6473;
405.3000;1.1559;1.6498;
405.6000;1.1551;1.6425;
405.9000;1.1567;1.6522;
406.2000;1.1575;1.6473;
406.5000;1.1559;1.6498;
406.8000;1.1567;1.6546;
407.1000;1.1551;1.6473;
407.4000;1.1575;1.6546;
407.7000;1.1567;1.6570;
408.0000;1.1543;1.6570;
408.3000;1.1551;1.6546;
408.6000;1.1551;1.6594;
408.9000;1.1567;1.6522;
409.2000;1.1543;1.6498;
409.5000;1.1551;1.6449;
409.8000;1.1559;1.6425;
410.1000;1.1559;1.6377;
410.4000;1.1583;1.6473;
410.7000;1.1551;1.6498;
411.0000;1.1567;1.6498;
411.3000;1.1567;1.6473;
411.6000;1.1559;1.6498;
411.9000;1.1559;1.6498;
412.2000;1.1551;1.6401;
412.5000;1.1510;1.6281;
412.8000;1.1559;1.6281;
413.1000;1.1543;1.6353;
413.4000;1.1551;1.6401;
413.7000;1.1534;1.6401;
414.0000;1.1575;1.6377;
414.3000;1.1559;1.6305;
414.6000;1.1551;1.6257;
414.9000;1.1665;1.6522;
415.2000;1.1559;1.6257;
415.5000;1.1559;1.6353;
415.8000;1.1648;1.6618;
416.1000;1.1551;1.6425;
416.4000;1.1559;1.6425;
416.7000;1.1551;1.6377;
417.0000;1.1477;1.6281;
417.3000;1.1559;1.6498;
417.6000;1.1551;1.6546;
417.9000;1.1534;1.6618;
418.2000;1.1567;1.6642;
418.5000;1.1551;1.6642;
418.8000;1.1551;1.6618;
419.1000;1.1543;1.6546;
419.4000;1.1551;1.6594;
419.7000;1.1543;1.6522;
420.0000;1.1551;1.6618;
420.3000;1.1543;1.6546;
420.6000;1.1543;1.6498;
420.9000;1.1567;1.6522;
421.2000;1.1559;1.6473;
421.5000;1.1534;1.6353;
421.8000;1.1567;1.6353;
422.1000;1.1559;1.6401;
422.4000;1.1543;1.6353;
422.7000;1.1567;1.6449;
423.0000;1.1567;1.6425;
423.3000;1.1518;1.6257;
423.6000;1.1559;1.6353;
423.9000;1.1559;1.6401;
424.2000;1.1551;1.6449;
424.5000;1.1583;1.6449;
424.8000;1.1534;1.6353;
425.1000;1.1559;1.6329;
425.4000;1.1551;1.6305;
425.7000;1.1543;1.6329;
426.0000;1.1534;1.6353;
426.3000;1.1567;1.6449;
426.6000;1.1543;1.6473;
426.9000;1.1534;1.6425;
427.2000;1.1543;1.6401;
427.5000;1.1534;1.6401;
427.8000;1.1559;1.6353;
428.1000;1.1575;1.6329;
428.4000;1.1543;1.6353;
428.7000;1.1543;1.6305;
429.0000;1.1543;1.6353;
429.3000;1.1567;1.6353;
429.6000;1.1559;1.6425;
429.9000;1.1543;1.6449;
430.2000;1.1543;1.6353;
430.5000;1.1526;1.6305;
430.8000;1.1477;1.6185;
431.1000;1.1510;1.6233;
431.4000;1.1551;1.6305;
431.7000;1.1559;1.6281;
432.0000;1.1551;1.6281;
432.3000;1.1551;1.6305;
432.6000;1.1551;1.6305;
432.9000;1.1624;1.6449;
433.2000;1.1575;1.6281;
433.5000;1.1583;1.6257;
433.8000;1.1551;1.6113;
434.1000;1.1559;1.6065;
434.4000;1.1567;1.6185;
434.7000;1.1534;1.6209;
435.0000;1.1543;1.6209;
435.3000;1.1543;1.6209;
435.6000;1.1551;1.6065;
435.9000;1.1567;1.6113;
436.2000;1.1559;1.6185;
436.5000;1.1567;1.6233;
436.8000;1.1567;1.6377;
437.1000;1.1534;1.6473;
437.4000;1.1551;1.6498;
437.7000;1.1551;1.6522;
438.0000;1.1559;1.6522;
438.3000;1.1559;1.6522;
438.6000;1.1559;1.6570;
438.9000;1.1551;1.6473;
439.2000;1.1534;1.6425;
439.5000;1.1534;1.6449;
439.8000;1.1543;1.6425;
440.1000;1.1486;1.6185;
440.4000;1.1543;1.6473;
440.7000;1.1591;1.6642;
441.0000;1.1518;1.6546;
441.3000;1.1551;1.6594;
441.6000;1.1534;1.6594;
441.9000;1.1551;1.6570;
442.2000;1.1559;1.6642;
442.5000;1.1551;1.6690;
442.8000;1.1534;1.6666;
443.1000;1.1551;1.6594;
443.4000;1.1575;1.6714;
443.7000;1.1526;1.6618;
444.0000;1.1543;1.6618;
444.3000;1.1632;1.6762;
444.6000;1.1534;1.6498;
444.9000;1.1526;1.6473;
445.2000;1.1551;1.6449;
445.5000;1.1567;1.6570;
445.8000;1.1559;1.6522;
446.1000;1.1534;1.6377;
446.4000;1.1534;1.6377;
446.7000;1.1559;1.6498;
447.0000;1.1543;1.6425;
447.3000;1.1543;1.6546;
447.6000;1.1551;1.6546;
447.9000;1.1543;1.6546;
448.2000;1.1559;1.6642;
448.5000;1.1559;1.6690;
448.8000;1.1534;1.6594;
449.1000;1.1551;1.6570;
449.4000;1.1543;1.6522;
449.7000;1.1445;1.6305;
450.0000;1.1591;1.6642;
450.3000;1.1543;1.6570;
450.6000;1.1559;1.6594;
450.9000;1.1551;1.6570;
451.2000;1.1575;1.6594;
451.5000;1.1559;1.6618;
451.8000;1.1567;1.6642;
452.1000;1.1559;1.6594;
452.4000;1.1551;1.6594;
452.7000;1.1543;1.6594;
453.0000;1.1518;1.6570;
453.3000;1.1575;1.6690;
453.6000;1.1543;1.6594;
453.9000;1.1534;1.6498;
454.2000;1.1526;1.6522;
454.5000;1.1543;1.6498;
454.8000;1.1534;1.6498;
455.1000;1.1534;1.6473;
455.4000;1.1534;1.6377;
455.7000;1.1551;1.6425;
456.0000;1.1534;1.6473;
456.3000;1.1543;1.6473;
456.6000;1.1543;1.6498;
456.9000;1.1534;1.6401;
457.2000;1.1551;1.6522;
457.5000;1.1543;1.6570;
457.8000;1.1543;1.6618;
458.1000;1.1534;1.6498;
458.4000;1.1551;1.6570;
458.7000;1.1551;1.6642;
459.0000;1.1575;1.6738;
459.3000;1.1543;1.6714;
459.6000;1.1543;1.6714;
459.9000;1.1543;1.6714;
460.2000;1.1551;1.6690;
460.5000;1.1534;1.6690;
460.8000;1.1543;1.6642;
461.1000;1.1551;1.6618;
461.4000;1.1534;1.6594;
461.7000;1.1567;1.6714;
462.0000;1.1551;1.6618;
462.3000;1.1551;1.6690;
462.6000;1.1534;1.6594;
462.9000;1.1534;1.6618;
463.2000;1.1534;1.6594;
463.5000;1.1600;1.6762;
463.8000;1.1437;1.6401;
464.1000;1.1510;1.6618;
464.4000;1.1518;1.6570;
464.7000;1.1551;1.6642;
465.0000;1.1518;1.6618;
465.3000;1.1518;1.6642;
465.6000;1.1551;1.6690;
465.9000;1.1534;1.6618;
466.2000;1.1534;1.6642;
466.5000;1.1543;1.6570;
466.8000;1.1543;1.6594;
467.1000;1.1551;1.6594;
467.4000;1.1543;1.6618;
467.7000;1.1534;1.6570;
468.0000;1.1518;1.6570;
468.3000;1.1526;1.6498;
468.6000;1.1526;1.6498;
468.9000;1.1526;1.6449;
469.2000;1.1526;1.6449;
469.5000;1.1543;1.6449;
469.8000;1.1534;1.6425;
470.1000;1.1526;1.6449;
470.4000;1.1551;1.6498;
470.7000;1.1518;1.6425;
471.0000;1.1534;1.6594;
471.3000;1.1510;1.6618;
471.6000;1.1551;1.6618;
471.9000;1.1551;1.6570;
472.2000;1.1543;1.6618;
472.5000;1.1510;1.6594;
472.8000;1.1543;1.6690;
473.1000;1.1534;1.6738;
473.4000;1.1575;1.6906;
473.7000;1.1543;1.6858;
474.0000;1.1559;1.6858;
474.3000;1.1526;1.6762;
474.6000;1.1518;1.6738;
474.9000;1.1551;1.6858;
475.2000;1.1534;1.6738;
475.5000;1.1526;1.6714;
475.8000;1.1526;1.6786;
476.1000;1.1551;1.6858;
476.4000;1.1526;1.6930;
476.7000;1.1551;1.6906;
477.0000;1.1502;1.6786;
477.3000;1.1567;1.6882;
477.6000;1.1559;1.6810;
477.9000;1.1543;1.6810;
478.2000;1.1543;1.6810;
478.5000;1.1534;1.6762;
478.8000;1.1486;1.6642;
479.1000;1.1616;1.6930;
479.4000;1.1534;1.6762;
479.7000;1.1559;1.6810;
480.0000;1.1543;1.6666;
480.3000;1.1559;1.6690;
480.6000;1.1543;1.6642;
480.9000;1.1526;1.6594;
481.2000;1.1551;1.6666;
481.5000;1.1486;1.6546;
481.8000;1.1559;1.6690;
482.1000;1.1543;1.6642;
482.4000;1.1583;1.6858;
482.7000;1.1551;1.6642;
483.0000;1.1543;1.6666;
483.3000;1.1551;1.6714;
483.6000;1.1437;1.6401;
483.9000;1.1526;1.6738;
484.2000;1.1518;1.6786;
484.5000;1.1543;1.6810;
484.8000;1.1526;1.6666;
485.1000;1.1551;1.6858;
485.4000;1.1534;1.6906;
485.7000;1.1469;1.6834;
486.0000;1.1543;1.6954;
486.3000;1.1534;1.6954;
486.6000;1.1543;1.6882;
486.9000;1.1543;1.6810;
487.2000;1.1543;1.6690;
487.5000;1.1567;1.6810;
487.8000;1.1559;1.6786;
488.1000;1.1616;1.6930;
488.4000;1.1526;1.6690;
488.7000;1.1575;1.6762;
489.0000;1.1510;1.6618;
489.3000;1.1543;1.6714;
489.6000;1.1510;1.6666;
489.9000;1.1526;1.6690;
490.2000;1.1551;1.6762;
490.5000;1.1518;1.6714;
490.8000;1.1534;1.6786;
491.1000;1.1518;1.6810;
491.4000;1.1518;1.6714;
491.7000;1.1534;1.6762;
492.0000;1.1543;1.6810;
492.3000;1.1518;1.6666;
492.6000;1.1526;1.6714;
492.9000;1.1543;1.6762;
493.2000;1.1534;1.6786;
493.5000;1.1543;1.6786;
493.8000;1.1534;1.6786;
494.1000;1.1551;1.6738;
494.4000;1.1543;1.6714;
494.7000;1.1518;1.6594;
495.0000;1.1526;1.6690;
495.3000;1.1526;1.6762;
495.6000;1.1551;1.6834;
495.9000;1.1526;1.6786;
496.2000;1.1526;1.6858;
496.5000;1.1559;1.6906;
496.8000;1.1543;1.6906;
497.1000;1.1551;1.6882;
497.4000;1.1510;1.6666;
497.7000;1.1591;1.6834;
498.0000;1.1551;1.6738;
498.3000;1.1551;1.6786;
498.6000;1.1534;1.6762;
498.9000;1.1510;1.6618;
499.2000;1.1534;1.6594;
499.5000;1.1518;1.6546;
499.8000;1.1494;1.6377;
500.1000;1.1510;1.6329;
500.4000;1.1526;1.6425;
500.7000;1.1526;1.6449;
501.0000;1.1526;1.6473;
501.3000;1.1510;1.6522;
501.6000;1.1543;1.6618;
501.9000;1.1526;1.6642;
502.2000;1.1477;1.6570;
502.5000;1.1518;1.6642;
502.8000;1.1543;1.6810;
503.1000;1.1502;1.6738;
503.4000;1.1543;1.6858;
503.7000;1.1526;1.6762;
504.0000;1.1477;1.6570;
504.3000;1.1518;1.6618;
504.6000;1.1486;1.6522;
504.9000;1.1534;1.6618;
505.2000;1.1510;1.6618;
505.5000;1.1518;1.6594;
505.8000;1.1559;1.6666;
506.1000;1.1526;1.6594;
506.4000;1.1518;1.6666;
506.7000;1.1559;1.6786;
507.0000;1.1534;1.6666;
507.3000;1.1534;1.6594;
507.6000;1.1526;1.6570;
507.9000;1.1526;1.6570;
508.2000;1.1543;1.6594;
508.5000;1.1502;1.6546;
508.8000;1.1583;1.6882;
509.1000;1.1518;1.6738;
509.4000;1.1534;1.6858;
509.7000;1.1526;1.6786;
510.0000;1.1551;1.6762;
510.3000;1.1543;1.6714;
510.6000;1.1534;1.6690;
510.9000;1.1502;1.6570;
511.2000;1.1518;1.6666;
511.5000;1.1526;1.6594;
511.8000;1.1534;1.6618;
512.1000;1.1510;1.6473;
512.4000;1.1534;1.6425;
512.7000;1.1526;1.6449;
513.0000;1.1518;1.6401;
513.3000;1.1518;1.6401;
513.6000;1.1518;1.6546;
513.9000;1.1543;1.6594;
514.2000;1.1518;1.6546;
514.5000;1.1526;1.6449;
514.8000;1.1502;1.6449;
515.1000;1.1526;1.6473;
515.4000;1.1494;1.6425;
515.7000;1.1526;1.6546;
516.0000;1.1526;1.6522;
516.3000;1.1518;1.6473;
516.6000;1.1518;1.6449;
516.9000;1.1510;1.6449;
517.2000;1.1543;1.6473;
517.5000;1.1502;1.6353;
517.8000;1.1551;1.6522;
518.1000;1.1518;1.6377;
518.4000;1.1518;1.6353;
518.7000;1.1510;1.6305;
519.0000;1.1526;1.6353;
519.3000;1.1632;1.6546;
519.6000;1.1543;1.6425;
519.9000;1.1502;1.6329;
520.2000;1.1551;1.6498;
520.5000;1.1486;1.6329;
520.8000;1.1616;1.6594;
521.1000;1.1534;1.6401;
521.4000;1.1518;1.6401;
521.7000;1.1510;1.6353;
522.0000;1.1534;1.6305;
522.3000;1.1518;1.6305;
522.6000;1.1534;1.6329;
522.9000;1.1518;1.6401;
523.2000;1.1567;1.6522;
523.5000;1.1534;1.6449;
523.8000;1.1600;1.6642;
524.1000;1.1461;1.6305;
524.4000;1.1526;1.6449;
524.7000;1.1518;1.6353;
525.0000;1.1510;1.6305;
525.3000;1.1494;1.6329;
525.6000;1.1526;1.6425;
525.9000;1.1494;1.6281;
526.2000;1.1518;1.6425;
526.5000;1.1461;1.6377;
526.8000;1.1510;1.6570;
527.1000;1.1469;1.6522;
527.4000;1.1526;1.6762;
527.7000;1.1526;1.6714;
528.0000;1.1494;1.6714;
528.3000;1.1518;1.6762;
528.6000;1.1518;1.6714;
528.9000;1.1559;1.6858;
529.2000;1.1518;1.6714;
529.5000;1.1518;1.6666;
529.8000;1.1502;1.6594;
530.1000;1.1526;1.6594;
530.4000;1.1494;1.6546;
530.7000;1.1518;1.6546;
531.0000;1.1518;1.6570;
531.3000;1.1526;1.6570;
531.6000;1.1591;1.6690;
531.9000;1.1502;1.6425;
532.2000;1.1526;1.6522;
532.5000;1.1534;1.6570;
532.8000;1.1486;1.6570;
533.1000;1.1510;1.6690;
533.4000;1.1526;1.6738;
533.7000;1.1502;1.6690;
534.0000;1.1477;1.6666;
534.3000;1.1526;1.6738;
534.6000;1.1526;1.6810;
534.9000;1.1494;1.6738;
535.2000;1.1510;1.6882;
535.5000;1.1518;1.6882;
535.8000;1.1494;1.6786;
536.1000;1.1518;1.6882;
536.4000;1.1526;1.6762;
536.7000;1.1502;1.6690;
537.0000;1.1518;1.6690;
537.3000;1.1518;1.6666;
537.6000;1.1518;1.6666;
537.9000;1.1510;1.6714;
538.2000;1.1518;1.6714;
538.5000;1.1510;1.6714;
538.8000;1.1518;1.6786;
539.1000;1.1518;1.6762;
539.4000;1.1526;1.6834;
539.7000;1.1543;1.6906;
540.0000;1.1543;1.6786;
540.3000;1.1518;1.6738;
540.6000;1.1494;1.6714;
540.9000;1.1396;1.6425;
541.2000;1.1526;1.6762;
541.5000;1.1518;1.6714;
541.8000;1.1518;1.6714;
542.1000;1.1534;1.6762;
542.4000;1.1494;1.6666;
542.7000;1.1526;1.6834;
543.0000;1.1510;1.6738;
543.3000;1.1600;1.6930;
543.6000;1.1526;1.6714;
543.9000;1.1526;1.6786;
544.2000;1.1518;1.6882;
544.5000;1.1518;1.6858;
544.8000;1.1510;1.6858;
545.1000;1.1510;1.6930;
545.4000;1.1502;1.6858;
545.7000;1.1494;1.6882;
546.0000;1.1461;1.6690;
546.3000;1.1526;1.6738;
546.6000;1.1534;1.6690;
546.9000;1.1510;1.6666;
547.2000;1.1518;1.6666;
547.5000;1.1510;1.6642;
547.8000;1.1518;1.6618;
548.1000;1.1526;1.6666;
548.4000;1.1526;1.6618;
548.7000;1.1543;1.6666;
549.0000;1.1494;1.6642;
549.3000;1.1518;1.6738;
549.6000;1.1518;1.6810;
549.9000;1.1494;1.6810;
550.2000;1.1494;1.6762;
550.5000;1.1510;1.6834;
550.8000;1.1526;1.6858;
551.1000;1.1518;1.6906;
551.4000;1.1510;1.6930;
551.7000;1.1502;1.6762;
552.0000;1.1510;1.6738;
552.3000;1.1510;1.6762;
552.6000;1.1510;1.6810;
552.9000;1.1526;1.6810;
553.2000;1.1518;1.6858;
553.5000;1.1510;1.6858;
553.8000;1.1510;1.6834;
554.1000;1.1526;1.6930;
554.4000;1.1502;1.6930;
554.7000;1.1518;1.6906;
555.0000;1.1543;1.6930;
555.3000;1.1502;1.6834;
555.6000;1.1502;1.6810;
555.9000;1.1518;1.6858;
556.2000;1.1469;1.6690;
556.5000;1.1534;1.6906;
556.8000;1.1510;1.6906;
557.1000;1.1494;1.6882;
557.4000;1.1494;1.6786;
557.7000;1.1510;1.6906;
558.0000;1.1429;1.6570;
558.3000;1.1534;1.6786;
558.6000;1.1526;1.6834;
558.9000;1.1486;1.6738;
559.2000;1.1526;1.6690;
559.5000;1.1526;1.6618;
559.8000;1.1461;1.6498;
560.1000;1.1502;1.6666;
560.4000;1.1494;1.6666;
560.7000;1.1502;1.6762;
561.0000;1.1502;1.6762;
561.3000;1.1534;1.6834;
561.6000;1.1518;1.6834;
561.9000;1.1502;1.6858;
562.2000;1.1502;1.6858;
562.5000;1.1543;1.6954;
562.8000;1.1510;1.6834;
563.1000;1.1575;1.6882;
563.4000;1.1445;1.6498;
563.7000;1.1518;1.6810;
564.0000;1.1510;1.6786;
564.3000;1.1518;1.6786;
564.6000;1.1526;1.6810;
564.9000;1.1510;1.6666;
565.2000;1.1494;1.6522;
565.5000;1.1510;1.6522;
565.8000;1.1494;1.6546;
566.1000;1.1502;1.6570;
566.4000;1.1502;1.6618;
566.7000;1.1502;1.6642;
567.0000;1.1494;1.6618;
567.3000;1.1502;1.6594;
567.6000;1.1510;1.6618;
567.9000;1.1510;1.6714;
568.2000;1.1543;1.6834;
568.5000;1.1510;1.6714;
568.8000;1.1518;1.6810;
569.1000;1.1494;1.6642;
569.4000;1.1526;1.6666;
569.7000;1.1510;1.6666;
570.0000;1.1518;1.6666;
570.3000;1.1543;1.6762;
570.6000;1.1526;1.6714;
570.9000;1.1502;1.6714;
571.2000;1.1486;1.6738;
571.5000;1.1510;1.6738;
571.8000;1.1502;1.6738;
572.1000;1.1461;1.6738;
572.4000;1.1494;1.6858;
572.7000;1.1591;1.7099;
573.0000;1.1510;1.6834;
573.3000;1.1526;1.6834;
573.6000;1.1502;1.6834;
573.9000;1.1502;1.6786;
574.2000;1.1518;1.6762;
574.5000;1.1591;1.6930;
574.8000;1.1518;1.6858;
575.1000;1.1502;1.6786;
575.4000;1.1445;1.6522;
575.7000;1.1534;1.6690;
576.0000;1.1526;1.6714;
576.3000;1.1502;1.6642;
576.6000;1.1518;1.6690;
576.9000;1.1526;1.6714;
577.2000;1.1486;1.6690;
577.5000;1.1494;1.6690;
577.8000;1.1510;1.6738;
578.1000;1.1502;1.6738;
578.4000;1.1494;1.6618;
578.7000;1.1526;1.6762;
579.0000;1.1559;1.6858;
579.3000;1.1526;1.6762;
579.6000;1.1518;1.6762;
579.9000;1.1486;1.6786;
580.2000;1.1486;1.6666;
580.5000;1.1412;1.6498;
580.8000;1.1534;1.6786;
581.1000;1.1518;1.6690;
581.4000;1.1494;1.6642;
581.7000;1.1502;1.6690;
582.0000;1.1494;1.6666;
582.3000;1.1518;1.6642;
582.6000;1.1510;1.6666;
582.9000;1.1502;1.6762;
583.2000;1.1510;1.6738;
583.5000;1.1502;1.6762;
583.8000;1.1510;1.6714;
584.1000;1.1510;1.6642;
584.4000;1.1486;1.6570;
584.7000;1.1502;1.6666;
585.0000;1.1494;1.6666;
585.3000;1.1502;1.6738;
585.6000;1.1502;1.6738;
585.9000;1.1494;1.6618;
586.2000;1.1494;1.6642;
586.5000;1.1494;1.6594;
586.8000;1.1486;1.6570;
587.1000;1.1510;1.6690;
587.4000;1.1469;1.6594;
587.7000;1.1494;1.6690;
588.0000;1.1559;1.6834;
588.3000;1.1510;1.6642;
588.6000;1.1518;1.6642;
588.9000;1.1510;1.6714;
589.2000;1.1510;1.6690;
589.5000;1.1518;1.6714;
589.8000;1.1518;1.6666;
590.1000;1.1510;1.6642;
590.4000;1.1494;1.6618;
590.7000;1.1469;1.6570;
591.0000;1.1502;1.6666;
591.3000;1.1494;1.6666;
591.6000;1.1494;1.6714;
591.9000;1.1486;1.6666;
592.2000;1.1494;1.6642;
592.5000;1.1502;1.6642;
592.8000;1.1502;1.6642;
593.1000;1.1534;1.6714;
593.4000;1.1510;1.6786;
593.7000;1.1526;1.6810;
594.0000;1.1502;1.6810;
594.3000;1.1502;1.6714;
594.6000;1.1510;1.6642;
594.9000;1.1502;1.6594;
595.2000;1.1494;1.6618;
595.5000;1.1486;1.6594;
595.8000;1.1486;1.6594;
596.1000;1.1420;1.6546;
596.4000;1.1510;1.6810;
596.7000;1.1445;1.6690;
597.0000;1.1494;1.6786;
597.3000;1.1526;1.6738;
597.6000;1.1469;1.6642;
597.9000;1.1494;1.6810;
598.2000;1.1486;1.6882;
598.5000;1.1502;1.6906;
598.8000;1.1510;1.6930;
599.1000;1.1486;1.6882;
599.4000;1.1494;1.6834;
599.7000;1.1461;1.6738;
600.0000;1.1486;1.6786;
600.3000;1.1486;1.6642;
600.6000;1.1526;1.6618;
600.9000;1.1469;1.6449;
601.2000;1.1420;1.6281;
601.5000;1.1347;1.6233;
601.8000;1.1266;1.6233;
602.1000;1.1193;1.5968;
602.4000;1.1136;1.5896;
602.7000;1.1022;1.5608;
603.0000;1.0956;1.5560;
603.3000;1.0891;1.5439;
603.6000;1.0786;1.5223;
603.9000;1.0729;1.5199;
604.2000;1.0606;1.5007;
604.5000;1.0598;1.4982;
604.8000;1.0549;1.4934;
605.1000;1.0468;1.4862;
605.4000;1.0395;1.4766;
605.7000;1.0330;1.4670;
606.0000;1.0305;1.4622;
606.3000;1.0256;1.4598;
606.6000;1.0175;1.4550;
606.9000;1.0151;1.4598;
607.2000;1.0094;1.4574;
607.5000;1.0077;1.4501;
607.8000;1.0037;1.4477;
608.1000;0.9988;1.4381;
608.4000;0.9963;1.4381;
608.7000;0.9915;1.4477;
609.0000;0.9866;1.4477;
609.3000;0.9784;1.4357;
609.6000;0.9776;1.4405;
609.9000;0.9735;1.4357;
610.2000;0.9687;1.4237;
610.5000;0.9678;1.4213;
610.8000;0.9613;1.4141;
611.1000;0.9597;1.4165;
611.4000;0.9589;1.4237;
611.7000;0.9508;1.4117;
612.0000;0.9483;1.4093;
612.3000;0.9459;1.4093;
612.6000;0.9434;1.4069;
612.9000;0.9361;1.3996;
613.2000;0.9337;1.3948;
613.5000;0.9280;1.3900;
613.8000;0.9304;1.3948;
614.1000;0.9231;1.3948;
614.4000;0.9206;1.3972;
614.7000;0.9158;1.3900;
615.0000;0.9149;1.3948;
615.3000;0.9133;1.4021;
615.6000;0.9092;1.4021;
615.9000;0.9068;1.3996;
616.2000;0.9052;1.3972;
616.5000;0.8978;1.3972;
616.8000;0.8970;1.3972;
617.1000;0.8995;1.4045;
617.4000;0.8897;1.3924;
617.7000;0.8921;1.4045;
618.0000;0.8881;1.3900;
618.3000;0.8856;1.3900;
618.6000;0.8751;1.3684;
618.9000;0.8824;1.3924;
619.2000;0.8783;1.3924;
619.5000;0.8759;1.3900;
619.8000;0.8742;1.3876;
620.1000;0.8702;1.3804;
620.4000;0.8669;1.3804;
620.7000;0.8677;1.3828;
621.0000;0.8653;1.3900;
621.3000;0.8604;1.3804;
621.6000;0.8612;1.3804;
621.9000;0.8588;1.3756;
622.2000;0.8539;1.3708;
622.5000;0.8571;1.3876;
622.8000;0.8531;1.3924;
623.1000;0.8490;1.3876;
623.4000;0.8482;1.3852;
623.7000;0.8482;1.3828;
624.0000;0.8457;1.3780;
624.3000;0.8433;1.3732;
624.6000;0.8384;1.3708;
624.9000;0.8441;1.3852;
625.2000;0.8384;1.3684;
625.5000;0.8352;1.3708;
625.8000;0.8278;1.3684;
626.1000;0.8319;1.3900;
626.4000;0.8254;1.3804;
626.7000;0.8295;1.3828;
627.0000;0.8230;1.3708;
627.3000;0.8246;1.3780;
627.6000;0.8230;1.3780;
627.9000;0.8213;1.3828;
628.2000;0.8189;1.3852;
628.5000;0.8189;1.3756;
628.8000;0.8197;1.3828;
629.1000;0.8156;1.3828;
629.4000;0.8140;1.3756;
629.7000;0.8124;1.3756;
630.0000;0.8099;1.3804;
630.3000;0.8067;1.3828;
630.6000;0.8075;1.3804;
630.9000;0.8059;1.3804;
631.2000;0.8059;1.3828;
631.5000;0.8042;1.3732;
631.8000;0.8026;1.3684;
632.1000;0.8010;1.3588;
632.4000;0.8002;1.3612;
632.7000;0.7977;1.3564;
633.0000;0.7993;1.3708;
633.3000;0.7977;1.3660;
633.6000;0.7945;1.3515;
633.9000;0.7969;1.3515;
634.2000;0.7953;1.3467;
634.5000;0.7912;1.3443;
634.8000;0.7904;1.3443;
635.1000;0.7888;1.3443;
635.4000;0.7888;1.3395;
635.7000;0.7863;1.3443;
636.0000;0.7871;1.3540;
636.3000;0.7839;1.3395;
636.6000;0.7871;1.3540;
636.9000;0.7896;1.3636;
637.2000;0.7806;1.3515;
637.5000;0.7798;1.3564;
637.8000;0.7814;1.3660;
638.1000;0.7798;1.3684;
638.4000;0.7782;1.3612;
638.7000;0.7749;1.3564;
639.0000;0.7741;1.3564;
639.3000;0.7733;1.3588;
639.6000;0.7676;1.3515;
639.9000;0.7725;1.3684;
640.2000;0.7709;1.3708;
640.5000;0.7709;1.3780;
640.8000;0.7749;1.3900;
641.1000;0.7660;1.3756;
641.4000;0.7652;1.3732;
641.7000;0.7652;1.3732;
642.0000;0.7643;1.3732;
642.3000;0.7619;1.3636;
642.6000;0.7611;1.3636;
642.9000;0.7603;1.3660;
643.2000;0.7611;1.3684;
643.5000;0.7570;1.3684;
643.8000;0.7635;1.3900;
644.1000;0.7586;1.3612;
644.4000;0.7586;1.3660;
644.7000;0.7562;1.3684;
645.0000;0.7538;1.3708;
645.3000;0.7521;1.3684;
645.6000;0.7570;1.3852;
645.9000;0.7489;1.3684;
646.2000;0.7513;1.3660;
646.5000;0.7538;1.3636;
646.8000;0.7530;1.3612;
647.1000;0.7505;1.3540;
647.4000;0.7489;1.3588;
647.7000;0.7473;1.3612;
648.0000;0.7497;1.3684;
648.3000;0.7473;1.3660;
648.6000;0.7456;1.3612;
648.9000;0.7456;1.3612;
649.2000;0.7448;1.3612;
649.5000;0.7448;1.3732;
649.8000;0.7432;1.3756;
650.1000;0.7359;1.3612;
650.4000;0.7407;1.3660;
650.7000;0.7416;1.3636;
651.0000;0.7399;1.3564;
651.3000;0.7375;1.3515;
651.6000;0.7383;1.3588;
651.9000;0.7383;1.3636;
652.2000;0.7367;1.3588;
652.5000;0.7342;1.3564;
652.8000;0.7359;1.3588;
653.1000;0.7350;1.3564;
653.4000;0.7350;1.3540;
653.7000;0.7334;1.3540;
654.0000;0.7391;1.3636;
654.3000;0.7318;1.3491;
654.6000;0.7342;1.3660;
654.9000;0.7269;1.3515;
655.2000;0.7293;1.3612;
655.5000;0.7293;1.3612;
655.8000;0.7310;1.3732;
656.1000;0.7293;1.3756;
656.4000;0.7302;1.3756;
656.7000;0.7253;1.3660;
657.0000;0.7179;1.3371;
657.3000;0.7245;1.3564;
657.6000;0.7253;1.3612;
657.9000;0.7253;1.3588;
658.2000;0.7245;1.3588;
658.5000;0.7310;1.3684;
658.8000;0.7261;1.3491;
659.1000;0.7253;1.3443;
659.4000;0.7245;1.3395;
659.7000;0.7220;1.3419;
660.0000;0.7220;1.3395;
660.3000;0.7196;1.3395;
660.6000;0.7212;1.3467;
660.9000;0.7196;1.3540;
661.2000;0.7204;1.3564;
661.5000;0.7196;1.3564;
661.8000;0.7163;1.3515;
662.1000;0.7188;1.3564;
662.4000;0.7171;1.3371;
662.7000;0.7139;1.3347;
663.0000;0.7139;1.3395;
663.3000;0.7139;1.3419;
663.6000;0.7131;1.3371;
663.9000;0.7155;1.3347;
664.2000;0.7139;1.3275;
664.5000;0.7139;1.3275;
664.8000;0.7171;1.3395;
665.1000;0.7155;1.3443;
665.4000;0.7123;1.3419;
665.7000;0.7106;1.3395;
666.0000;0.7139;1.3515;
666.3000;0.7114;1.3347;
666.6000;0.7114;1.3347;
666.9000;0.7090;1.3371;
667.2000;0.7090;1.3371;
667.5000;0.7098;1.3443;
667.8000;0.7082;1.3491;
668.1000;0.7090;1.3564;
668.4000;0.7131;1.3660;
668.7000;0.7090;1.3540;
669.0000;0.7082;1.3588;
669.3000;0.7049;1.3515;
669.6000;0.7049;1.3515;
669.9000;0.7066;1.3491;
670.2000;0.7057;1.3588;
670.5000;0.7049;1.3588;
670.8000;0.7057;1.3515;
671.1000;0.7082;1.3588;
671.4000;0.7000;1.3347;
671.7000;0.7009;1.3395;
672.0000;0.7033;1.3491;
672.3000;0.7033;1.3419;
672.6000;0.7000;1.3371;
672.9000;0.7017;1.3299;
673.2000;0.7025;1.3275;
673.5000;0.7041;1.3323;
673.8000;0.6984;1.3275;
674.1000;0.6968;1.3251;
674.4000;0.6992;1.3419;
674.7000;0.7009;1.3467;
675.0000;0.7009;1.3419;
675.3000;0.6992;1.3419;
675.6000;0.6992;1.3323;
675.9000;0.7000;1.3347;
676.2000;0.6992;1.3299;
676.5000;0.7025;1.3467;
676.8000;0.6968;1.3395;
677.1000;0.6952;1.3443;
677.4000;0.6976;1.3491;
677.7000;0.7000;1.3564;
678.0000;0.6919;1.3491;
678.3000;0.6943;1.3515;
678.6000;0.6968;1.3540;
678.9000;0.6943;1.3419;
679.2000;0.6943;1.3419;
679.5000;0.6927;1.3371;
679.8000;0.6952;1.3419;
680.1000;0.6952;1.3467;
680.4000;0.6984;1.3540;
680.7000;0.6927;1.3419;
681.0000;0.6927;1.3491;
681.3000;0.6927;1.3588;
681.6000;0.6895;1.3491;
681.9000;0.6870;1.3491;
682.2000;0.6895;1.3467;
682.5000;0.6911;1.3515;
682.8000;0.6911;1.3491;
683.1000;0.6911;1.3419;
683.4000;0.6878;1.3371;
683.7000;0.6886;1.3395;
684.0000;0.6895;1.3347;
684.3000;0.6886;1.3299;
684.6000;0.6886;1.3371;
684.9000;0.6870;1.3323;
685.2000;0.6911;1.3395;
685.5000;0.6895;1.3347;
685.8000;0.6903;1.3395;
686.1000;0.6895;1.3467;
686.4000;0.6895;1.3515;
686.7000;0.6903;1.3612;
687.0000;0.6903;1.3564;
687.3000;0.6886;1.3491;
687.6000;0.6846;1.3443;
687.9000;0.6870;1.3491;
688.2000;0.6862;1.3395;
688.5000;0.6805;1.3227;
688.8000;0.6846;1.3251;
689.1000;0.6772;1.3059;
689.4000;0.6838;1.3227;
689.7000;0.6846;1.3323;
690.0000;0.6870;1.3323;
690.3000;0.6862;1.3299;
690.6000;0.6821;1.3227;
690.9000;0.6838;1.3299;
691.2000;0.6813;1.3227;
691.5000;0.6781;1.3203;
691.8000;0.6821;1.3275;
692.1000;0.6846;1.3371;
692.4000;0.6854;1.3395;
692.7000;0.6838;1.3419;
693.0000;0.6846;1.3515;
693.3000;0.6805;1.3347;
693.6000;0.6813;1.3419;
693.9000;0.6813;1.3419;
694.2000;0.6813;1.3395;
694.5000;0.6813;1.3467;
694.8000;0.6797;1.3443;
695.1000;0.6829;1.3564;
695.4000;0.6797;1.3564;
695.7000;0.6789;1.3419;
696.0000;0.6829;1.3540;
696.3000;0.6805;1.3540;
696.6000;0.6797;1.3515;
696.9000;0.6781;1.3419;
697.2000;0.6756;1.3371;
697.5000;0.6781;1.3467;
697.8000;0.6772;1.3491;
698.1000;0.6789;1.3515;
698.4000;0.6764;1.3443;
698.7000;0.6740;1.3419;
699.0000;0.6756;1.3515;
699.3000;0.6781;1.3540;
699.6000;0.6772;1.3515;
699.9000;0.6781;1.3588;
700.2000;0.6772;1.3540;
700.5000;0.6764;1.3540;
700.8000;0.6764;1.3540;
701.1000;0.6772;1.3491;
701.4000;0.6764;1.3467;
701.7000;0.6756;1.3395;
702.0000;0.6764;1.3395;
702.3000;0.6748;1.3299;
702.6000;0.6740;1.3251;
702.9000;0.6748;1.3347;
703.2000;0.6748;1.3299;
703.5000;0.6740;1.3275;
703.8000;0.6740;1.3251;
704.1000;0.6756;1.3251;
704.4000;0.6748;1.3203;
704.7000;0.6748;1.3251;
705.0000;0.6732;1.3227;
705.3000;0.6748;1.3251;
705.6000;0.6740;1.3275;
705.9000;0.6732;1.3275;
706.2000;0.6716;1.3155;
706.5000;0.6748;1.3155;
706.8000;0.6716;1.3059;
707.1000;0.6716;1.3083;
707.4000;0.6724;1.3155;
707.7000;0.6707;1.3179;
708.0000;0.6732;1.3155;
708.3000;0.6716;1.3203;
708.6000;0.6699;1.3227;
708.9000;0.6675;1.3251;
709.2000;0.6707;1.3347;
709.5000;0.6667;1.3179;
709.8000;0.6716;1.3299;
710.1000;0.6691;1.3299;
710.4000;0.6683;1.3275;
710.7000;0.6740;1.3371;
711.0000;0.6691;1.3251;
711.3000;0.6683;1.3251;
711.6000;0.6716;1.3227;
711.9000;0.6699;1.3227;
712.2000;0.6699;1.3251;
712.5000;0.6691;1.3227;
712.8000;0.6691;1.3179;
713.1000;0.6667;1.3155;
713.4000;0.6675;1.3299;
713.7000;0.6699;1.3419;
714.0000;0.6659;1.3347;
714.3000;0.6683;1.3443;
714.6000;0.6748;1.3467;
714.9000;0.6691;1.3275;
715.2000;0.6683;1.3347;
715.5000;0.6675;1.3251;
715.8000;0.6675;1.3251;
716.1000;0.6691;1.3155;
716.4000;0.6691;1.3155;
716.7000;0.6667;1.3131;
717.0000;0.6683;1.3107;
717.3000;0.6683;1.3155;
717.6000;0.6675;1.3107;
717.9000;0.6634;1.2938;
718.2000;0.6675;1.3010;
718.5000;0.6650;1.2938;
718.8000;0.6667;1.3083;
719.1000;0.6675;1.3035;
719.4000;0.6675;1.3010;
719.7000;0.6659;1.2962;
720.0000;0.6659;1.3010;
720.3000;0.6659;1.3035;
720.6000;0.6659;1.3059;
720.9000;0.6642;1.3010;
721.2000;0.6659;1.3010;
721.5000;0.6659;1.3035;
721.8000;0.6659;1.3059;
722.1000;0.6650;1.2938;
722.4000;0.6618;1.2866;
722.7000;0.6642;1.2890;
723.0000;0.6634;1.2842;
723.3000;0.6634;1.2866;
723.6000;0.6642;1.2890;
723.9000;0.6634;1.2962;
724.2000;0.6634;1.3010;
724.5000;0.6650;1.2986;
724.8000;0.6642;1.2842;
725.1000;0.6642;1.2722;
725.4000;0.6626;1.2626;
725.7000;0.6642;1.2626;
726.0000;0.6642;1.2650;
726.3000;0.6626;1.2722;
726.6000;0.6626;1.2674;
726.9000;0.6634;1.2842;
727.2000;0.6659;1.2938;
727.5000;0.6585;1.2866;
727.8000;0.6610;1.2914;
728.1000;0.6602;1.2938;
728.4000;0.6626;1.3010;
728.7000;0.6634;1.2938;
729.0000;0.6602;1.2914;
729.3000;0.6610;1.2866;
729.6000;0.6610;1.2866;
729.9000;0.6585;1.2818;
730.2000;0.6610;1.2866;
730.5000;0.6593;1.2842;
730.8000;0.6626;1.3010;
731.1000;0.6667;1.3010;
731.4000;0.6610;1.2938;
731.7000;0.6585;1.2914;
732.0000;0.6593;1.2962;
732.3000;0.6602;1.2938;
732.6000;0.6618;1.3083;
732.9000;0.6610;1.3179;
733.2000;0.6593;1.3179;
733.5000;0.6585;1.3131;
733.8000;0.6593;1.3203;
734.1000;0.6585;1.3179;
734.4000;0.6602;1.3299;
734.7000;0.6642;1.3395;
735.0000;0.6602;1.3155;
735.3000;0.6642;1.3275;
735.6000;0.6593;1.3179;
735.9000;0.6553;1.3059;
736.2000;0.6593;1.3227;
736.5000;0.6577;1.3179;
736.8000;0.6642;1.3323;
737.1000;0.6659;1.3347;
737.4000;0.6585;1.3203;
737.7000;0.6577;1.3179;
738.0000;0.6585;1.3179;
738.3000;0.6593;1.3227;
738.6000;0.6642;1.3347;
738.9000;0.6593;1.3299;
739.2000;0.6585;1.3347;
739.5000;0.6585;1.3395;
739.8000;0.6593;1.3491;
740.1000;0.6585;1.3515;
740.4000;0.6593;1.3491;
740.7000;0.6553;1.3371;
741.0000;0.6585;1.3371;
741.3000;0.6577;1.3323;
741.6000;0.6593;1.3371;
741.9000;0.6585;1.3371;
742.2000;0.6585;1.3419;
742.5000;0.6585;1.3564;
742.8000;0.6561;1.3540;
743.1000;0.6545;1.3540;
743.4000;0.6569;1.3540;
743.7000;0.6577;1.3515;
744.0000;0.6577;1.3467;
744.3000;0.6569;1.3467;
744.6000;0.6577;1.3419;
744.9000;0.6577;1.3443;
745.2000;0.6593;1.3395;
745.5000;0.6569;1.3395;
745.8000;0.6561;1.3347;
746.1000;0.6545;1.3323;
746.4000;0.6553;1.3443;
746.7000;0.6561;1.3491;
747.0000;0.6553;1.3467;
747.3000;0.6602;1.3684;
747.6000;0.6569;1.3636;
747.9000;0.6585;1.3756;
748.2000;0.6561;1.3684;
748.5000;0.6545;1.3684;
748.8000;0.6569;1.3660;
749.1000;0.6545;1.3588;
749.4000;0.6545;1.3515;
749.7000;0.6553;1.3588;
750.0000;0.6561;1.3540;
750.3000;0.6561;1.3491;
750.6000;0.6561;1.3443;
750.9000;0.6553;1.3371;
751.2000;0.6569;1.3347;
751.5000;0.6471;1.3203;
751.8000;0.6545;1.3540;
752.1000;0.6561;1.3588;
752.4000;0.6545;1.3564;
752.7000;0.6536;1.3515;
753.0000;0.6561;1.3515;
753.3000;0.6479;1.3347;
753.6000;0.6569;1.3636;
753.9000;0.6561;1.3564;
754.2000;0.6545;1.3564;
754.5000;0.6545;1.3515;
754.8000;0.6561;1.3540;
755.1000;0.6553;1.3540;
755.4000;0.6545;1.3515;
755.7000;0.6536;1.3515;
756.0000;0.6545;1.3443;
756.3000;0.6553;1.3347;
756.6000;0.6553;1.3347;
756.9000;0.6536;1.3443;
757.2000;0.6569;1.3443;
757.5000;0.6545;1.3540;
757.8000;0.6536;1.3540;
758.1000;0.6528;1.3491;
758.4000;0.6553;1.3467;
758.7000;0.6520;1.3419;
759.0000;0.6545;1.3443;
759.3000;0.6520;1.3443;
759.6000;0.6520;1.3467;
759.9000;0.6512;1.3395;
760.2000;0.6536;1.3395;
760.5000;0.6528;1.3467;
760.8000;0.6536;1.3540;
761.1000;0.6528;1.3491;
761.4000;0.6496;1.3395;
761.7000;0.6520;1.3395;
762.0000;0.6520;1.3395;
762.3000;0.6528;1.3419;
762.6000;0.6528;1.3467;
762.9000;0.6536;1.3491;
763.2000;0.6512;1.3347;
763.5000;0.6520;1.3395;
763.8000;0.6536;1.3371;
764.1000;0.6536;1.3371;
764.4000;0.6520;1.3299;
764.7000;0.6504;1.3203;
765.0000;0.6520;1.3179;
765.3000;0.6536;1.3203;
765.6000;0.6536;1.3227;
765.9000;0.6512;1.3203;
766.2000;0.6528;1.3323;
766.5000;0.6528;1.3395;
766.8000;0.6479;1.3323;
767.1000;0.6520;1.3491;
767.4000;0.6504;1.3395;
767.7000;0.6471;1.3203;
768.0000;0.6528;1.3371;
768.3000;0.6520;1.3371;
768.6000;0.6512;1.3323;
768.9000;0.6512;1.3227;
769.2000;0.6512;1.3203;
769.5000;0.6520;1.3155;
769.8000;0.6520;1.3179;
770.1000;0.6512;1.3179;
770.4000;0.6536;1.3347;
770.7000;0.6504;1.3371;
771.0000;0.6569;1.3491;
771.3000;0.6545;1.3443;
771.6000;0.6520;1.3419;
771.9000;0.6536;1.3371;
772.2000;0.6520;1.3347;
772.5000;0.6496;1.3227;
772.8000;0.6504;1.3251;
773.1000;0.6512;1.3179;
773.4000;0.6496;1.3179;
773.7000;0.6504;1.3179;
774.0000;0.6520;1.3227;
774.3000;0.6520;1.3155;
774.6000;0.6512;1.3155;
774.9000;0.6463;1.3131;
775.2000;0.6520;1.3179;
775.5000;0.6504;1.3155;
775.8000;0.6504;1.3155;
776.1000;0.6504;1.3179;
776.4000;0.6496;1.3179;
776.7000;0.6512;1.3155;
777.0000;0.6504;1.3131;
777.3000;0.6569;1.3203;
777.6000;0.6512;1.3010;
777.9000;0.6504;1.2962;
778.2000;0.6496;1.3010;
778.5000;0.6520;1.3059;
778.8000;0.6496;1.3059;
779.1000;0.6496;1.3179;
779.4000;0.6512;1.3203;
779.7000;0.6455;1.3083;
780.0000;0.6479;1.3083;
780.3000;0.6479;1.3131;
780.6000;0.6496;1.3203;
780.9000;0.6528;1.3251;
781.2000;0.6536;1.3299;
781.5000;0.6471;1.3155;
781.8000;0.6496;1.3227;
782.1000;0.6512;1.3227;
782.4000;0.6471;1.3203;
782.7000;0.6512;1.3299;
783.0000;0.6414;1.2986;
783.3000;0.6488;1.3179;
783.6000;0.6496;1.3299;
783.9000;0.6512;1.3371;
784.2000;0.6471;1.3275;
784.5000;0.6553;1.3395;
784.8000;0.6536;1.3299;
785.1000;0.6488;1.3203;
785.4000;0.6593;1.3588;
785.7000;0.6479;1.3347;
786.0000;0.6479;1.3395;
786.3000;0.6488;1.3347;
786.6000;0.6496;1.3323;
786.9000;0.6504;1.3299;
787.2000;0.6504;1.3179;
787.5000;0.6479;1.3155;
787.8000;0.6496;1.3179;
788.1000;0.6504;1.3203;
788.4000;0.6520;1.3227;
788.7000;0.6463;1.3203;
789.0000;0.6471;1.3227;
789.3000;0.6488;1.3227;
789.6000;0.6479;1.3227;
789.9000;0.6479;1.3155;
790.2000;0.6471;1.3251;
790.5000;0.6496;1.3251;
790.8000;0.6496;1.3179;
791.1000;0.6479;1.3155;
791.4000;0.6496;1.3179;
791.7000;0.6512;1.3155;
792.0000;0.6512;1.3155;
792.3000;0.6512;1.3275;
792.6000;0.6496;1.3299;
792.9000;0.6504;1.3275;
793.2000;0.6496;1.3179;
793.5000;0.6471;1.3107;
793.8000;0.6463;1.3179;
794.1000;0.6488;1.3227;
794.4000;0.6488;1.3251;
794.7000;0.6488;1.3323;
795.0000;0.6488;1.3251;
795.3000;0.6479;1.3227;
795.6000;0.6479;1.3275;
795.9000;0.6488;1.3419;
796.2000;0.6488;1.3491;
796.5000;0.6471;1.3395;
796.8000;0.6455;1.3395;
797.1000;0.6431;1.3371;
797.4000;0.6455;1.3443;
797.7000;0.6439;1.3371;
798.0000;0.6479;1.3467;
798.3000;0.6439;1.3323;
798.6000;0.6455;1.3323;
798.9000;0.6471;1.3323;
799.2000;0.6471;1.3299;
799.5000;0.6479;1.3227;
799.8000;0.6488;1.3251;
800.1000;0.6471;1.3203;
800.4000;0.6463;1.3203;
800.7000;0.6496;1.3227;
801.0000;0.6496;1.3227;
801.3000;0.6504;1.3251;
801.6000;0.6455;1.3203;
801.9000;0.6479;1.3299;
802.2000;0.6390;1.2962;
802.5000;0.6463;1.3179;
802.8000;0.6463;1.3179;
803.1000;0.6463;1.3203;
803.4000;0.6471;1.3155;
803.7000;0.6471;1.3131;
804.0000;0.6520;1.3299;
804.3000;0.6504;1.3323;
804.6000;0.6488;1.3227;
804.9000;0.6431;1.3131;
805.2000;0.6471;1.3203;
805.5000;0.6463;1.3203;
805.8000;0.6455;1.3179;
806.1000;0.6365;1.2914;
806.4000;0.6455;1.3083;
806.7000;0.6471;1.3083;
807.0000;0.6431;1.3059;
807.3000;0.6496;1.3155;
807.6000;0.6422;1.2962;
807.9000;0.6463;1.3059;
808.2000;0.6455;1.3035;
808.5000;0.6545;1.3323;
808.8000;0.6471;1.3155;
809.1000;0.6455;1.3155;
809.4000;0.6455;1.3203;
809.7000;0.6447;1.3131;
810.0000;0.6553;1.3443;
810.3000;0.6463;1.3155;
810.6000;0.6455;1.3059;
810.9000;0.6455;1.3083;
811.2000;0.6455;1.3059;
811.5000;0.6545;1.3275;
811.8000;0.6447;1.3059;
812.1000;0.6447;1.3010;
812.4000;0.6455;1.3010;
812.7000;0.6455;1.3010;
813.0000;0.6471;1.2962;
813.3000;0.6447;1.2986;
813.6000;0.6471;1.3035;
813.9000;0.6439;1.2914;
814.2000;0.6439;1.2962;
814.5000;0.6463;1.2986;
814.8000;0.6463;1.3059;
815.1000;0.6439;1.2986;
815.4000;0.6447;1.3035;
815.7000;0.6463;1.3131;
816.0000;0.6471;1.3107;
816.3000;0.6455;1.3131;
816.6000;0.6471;1.3083;
816.9000;0.6455;1.3155;
817.2000;0.6471;1.3227;
817.5000;0.6447;1.3179;
817.8000;0.6439;1.3251;
818.1000;0.6479;1.3395;
818.4000;0.6463;1.3347;
818.7000;0.6455;1.3299;
819.0000;0.6479;1.3275;
819.3000;0.6439;1.3203;
819.6000;0.6455;1.3227;
819.9000;0.6447;1.3323;
820.2000;0.6455;1.3299;
820.5000;0.6431;1.3203;
820.8000;0.6439;1.3107;
821.1000;0.6471;1.3203;
821.4000;0.6463;1.3131;
821.7000;0.6455;1.3131;
822.0000;0.6439;1.3083;
822.3000;0.6439;1.3107;
822.6000;0.6447;1.3107;
822.9000;0.6439;1.3107;
823.2000;0.6431;1.3010;
823.5000;0.6422;1.3010;
823.8000;0.6447;1.3083;
824.1000;0.6455;1.3131;
824.4000;0.6439;1.3107;
824.7000;0.6455;1.3131;
825.0000;0.6463;1.3083;
825.3000;0.6471;1.3059;
825.6000;0.6422;1.2962;
825.9000;0.6414;1.2962;
826.2000;0.6439;1.3035;
826.5000;0.6447;1.3010;
826.8000;0.6455;1.2986;
827.1000;0.6463;1.2962;
827.4000;0.6455;1.2938;
827.7000;0.6463;1.3010;
828.0000;0.6471;1.3107;
828.3000;0.6439;1.3107;
828.6000;0.6447;1.3155;
828.9000;0.6504;1.3227;
829.2000;0.6455;1.3155;
829.5000;0.6447;1.3227;
829.8000;0.6439;1.3203;
830.1000;0.6455;1.3251;
830.4000;0.6463;1.3251;
830.7000;0.6439;1.3251;
831.0000;0.6496;1.3419;
831.3000;0.6463;1.3371;
831.6000;0.6471;1.3419;
831.9000;0.6455;1.3419;
832.2000;0.6431;1.3443;
832.5000;0.6447;1.3419;
832.8000;0.6455;1.3395;
833.1000;0.6455;1.3323;
833.4000;0.6439;1.3227;
833.7000;0.6447;1.3275;
834.0000;0.6488;1.3371;
834.3000;0.6439;1.3275;
834.6000;0.6431;1.3275;
834.9000;0.6422;1.3347;
835.2000;0.6431;1.3371;
835.5000;0.6463;1.3299;
835.8000;0.6471;1.3299;
836.1000;0.6439;1.3203;
836.4000;0.6439;1.3179;
836.7000;0.6520;1.3323;
837.0000;0.6455;1.3083;
837.3000;0.6447;1.3107;
837.6000;0.6447;1.3203;
837.9000;0.6447;1.3251;
838.2000;0.6439;1.3179;
838.5000;0.6439;1.3227;
838.8000;0.6439;1.3227;
839.1000;0.6414;1.3083;
839.4000;0.6439;1.3010;
839.7000;0.6439;1.3059;
840.0000;0.6406;1.2986;
840.3000;0.6447;1.3179;
840.6000;0.6431;1.3155;
840.9000;0.6439;1.3179;
841.2000;0.6447;1.3131;
841.5000;0.6455;1.3179;
841.8000;0.6471;1.3275;
842.1000;0.6439;1.3227;
842.4000;0.6455;1.3299;
842.7000;0.6439;1.3323;
843.0000;0.6471;1.3515;
843.3000;0.6463;1.3588;
843.6000;0.6447;1.3467;
843.9000;0.6455;1.3467;
844.2000;0.6463;1.3540;
844.5000;0.6390;1.3371;
844.8000;0.6447;1.3491;
845.1000;0.6536;1.3684;
845.4000;0.6431;1.3515;
845.7000;0.6422;1.3515;
846.0000;0.6439;1.3612;
846.3000;0.6439;1.3612;
846.6000;0.6382;1.3443;
846.9000;0.6455;1.3491;
847.2000;0.6439;1.3467;
847.5000;0.6422;1.3419;
847.8000;0.6439;1.3588;
848.1000;0.6455;1.3660;
848.4000;0.6447;1.3660;
848.7000;0.6422;1.3588;
849.0000;0.6439;1.3612;
849.3000;0.6447;1.3564;
849.6000;0.6431;1.3588;
849.9000;0.6447;1.3612;
850.2000;0.6414;1.3612;
850.5000;0.6447;1.3684;
850.8000;0.6439;1.3708;
851.1000;0.6431;1.3708;
851.4000;0.6439;1.3636;
851.7000;0.6431;1.3636;
852.0000;0.6439;1.3684;
852.3000;0.6398;1.3612;
852.6000;0.6455;1.3684;
852.9000;0.6439;1.3588;
853.2000;0.6439;1.3588;
853.5000;0.6439;1.3467;
853.8000;0.6455;1.3515;
854.1000;0.6431;1.3540;
854.4000;0.6431;1.3491;
854.7000;0.6422;1.3371;
855.0000;0.6414;1.3275;
855.3000;0.6406;1.3227;
855.6000;0.6431;1.3323;
855.9000;0.6439;1.3323;
856.2000;0.6422;1.3395;
856.5000;0.6439;1.3467;
856.8000;0.6422;1.3419;
857.1000;0.6447;1.3467;
857.4000;0.6431;1.3347;
857.7000;0.6431;1.3251;
858.0000;0.6447;1.3227;
858.3000;0.6439;1.3227;
858.6000;0.6471;1.3299;
858.9000;0.6422;1.3155;
859.2000;0.6447;1.3371;
859.5000;0.6431;1.3299;
859.8000;0.6333;1.3083;
860.1000;0.6414;1.3275;
860.4000;0.6414;1.3275;
860.7000;0.6422;1.3323;
861.0000;0.6422;1.3419;
861.3000;0.6422;1.3443;
861.6000;0.6471;1.3540;
861.9000;0.6431;1.3491;
862.2000;0.6422;1.3419;
862.5000;0.6447;1.3491;
862.8000;0.6414;1.3491;
863.1000;0.6431;1.3515;
863.4000;0.6422;1.3564;
863.7000;0.6431;1.3564;
864.0000;0.6439;1.3540;
864.3000;0.6431;1.3540;
864.6000;0.6431;1.3564;
864.9000;0.6422;1.3588;
865.2000;0.6431;1.3540;
865.5000;0.6414;1.3491;
865.8000;0.6431;1.3564;
866.1000;0.6398;1.3443;
866.4000;0.6422;1.3443;
866.7000;0.6431;1.3395;
867.0000;0.6406;1.3347;
867.3000;0.6447;1.3395;
867.6000;0.6422;1.3251;
867.9000;0.6431;1.3323;
868.2000;0.6439;1.3323;
868.5000;0.6455;1.3323;
868.8000;0.6414;1.3275;
869.1000;0.6455;1.3371;
869.4000;0.6406;1.3251;
869.7000;0.6406;1.3347;
870.0000;0.6414;1.3323;
870.3000;0.6414;1.3299;
870.6000;0.6431;1.3251;
870.9000;0.6431;1.3323;
871.2000;0.6406;1.3299;
871.5000;0.6431;1.3371;
871.8000;0.6414;1.3371;
872.1000;0.6439;1.3491;
872.4000;0.6422;1.3371;
872.7000;0.6406;1.3395;
873.0000;0.6422;1.3371;
873.3000;0.6422;1.3491;
873.6000;0.6431;1.3443;
873.9000;0.6414;1.3419;
874.2000;0.6406;1.3443;
874.5000;0.6414;1.3443;
874.8000;0.6414;1.3515;
875.1000;0.6406;1.3588;
875.4000;0.6414;1.3588;
875.7000;0.6512;1.3804;
876.0000;0.6414;1.3612;
876.3000;0.6422;1.3540;
876.6000;0.6414;1.3540;
876.9000;0.6431;1.3491;
877.2000;0.6422;1.3540;
877.5000;0.6414;1.3515;
877.8000;0.6406;1.3540;
878.1000;0.6414;1.3564;
878.4000;0.6390;1.3443;
878.7000;0.6447;1.3443;
879.0000;0.6414;1.3323;
879.3000;0.6406;1.3275;
879.6000;0.6398;1.3323;
879.9000;0.6422;1.3347;
880.2000;0.6406;1.3323;
880.5000;0.6398;1.3347;
880.8000;0.6414;1.3347;
881.1000;0.6439;1.3299;
881.4000;0.6422;1.3275;
881.7000;0.6422;1.3299;
882.0000;0.6398;1.3347;
882.3000;0.6431;1.3540;
882.6000;0.6431;1.3467;
882.9000;0.6463;1.3443;
883.2000;0.6431;1.3371;
883.5000;0.6422;1.3371;
883.8000;0.6447;1.3371;
884.1000;0.6414;1.3299;
884.4000;0.6406;1.3203;
884.7000;0.6398;1.3251;
885.0000;0.6422;1.3347;
885.3000;0.6406;1.3275;
885.6000;0.6431;1.3347;
885.9000;0.6374;1.3179;
886.2000;0.6439;1.3275;
886.5000;0.6439;1.3299;
886.8000;0.6431;1.3347;
887.1000;0.6431;1.3227;
887.4000;0.6447;1.3251;
887.7000;0.6439;1.3299;
888.0000;0.6512;1.3540;
888.3000;0.6439;1.3395;
888.6000;0.6447;1.3347;
888.9000;0.6406;1.3227;
889.2000;0.6414;1.3251;
889.5000;0.6406;1.3155;
889.8000;0.6414;1.3179;
890.1000;0.6406;1.3107;
890.4000;0.6414;1.3107;
890.7000;0.6406;1.3131;
891.0000;0.6431;1.3203;
891.3000;0.6447;1.3275;
891.6000;0.6447;1.3299;
891.9000;0.6406;1.3275;
892.2000;0.6439;1.3251;
892.5000;0.6341;1.3035;
892.8000;0.6431;1.3251;
893.1000;0.6422;1.3203;
893.4000;0.6414;1.3227;
893.7000;0.6422;1.3251;
894.0000;0.6439;1.3347;
894.3000;0.6398;1.3251;
894.6000;0.6431;1.3251;
894.9000;0.6382;1.3179;
895.2000;0.6422;1.3251;
895.5000;0.6357;1.3083;
895.8000;0.6414;1.3155;
896.1000;0.6390;1.3035;
896.4000;0.6455;1.3203;
896.7000;0.6422;1.3155;
897.0000;0.6422;1.3083;
897.3000;0.6382;1.2962;
897.6000;0.6398;1.3155;
897.9000;0.6431;1.3299;
898.2000;0.6349;1.3131;
898.5000;0.6422;1.3323;
898.8000;0.6414;1.3419;
899.1000;0.6382;1.3371;
899.4000;0.6406;1.3371;
899.7000;0.6431;1.3467;
900.0000;0.6431;1.3540;
900.3000;0.6414;1.3564;
900.6000;0.6390;1.3467;
900.9000;0.6365;1.3419;
901.2000;0.6414;1.3588;
901.5000;0.6422;1.3612;
901.8000;0.6422;1.3564;
902.1000;0.6431;1.3636;
902.4000;0.6357;1.3419;
902.7000;0.6414;1.3491;
903.0000;0.6422;1.3395;
903.3000;0.6422;1.3419;
903.6000;0.6374;1.3275;
903.9000;0.6398;1.3395;
904.2000;0.6414;1.3443;
904.5000;0.6365;1.3347;
904.8000;0.6447;1.3564;
905.1000;0.6422;1.3564;
905.4000;0.6406;1.3540;
905.7000;0.6431;1.3467;
906.0000;0.6422;1.3419;
906.3000;0.6414;1.3323;
906.6000;0.6398;1.3323;
906.9000;0.6414;1.3347;
907.2000;0.6406;1.3395;
907.5000;0.6431;1.3491;
907.8000;0.6414;1.3540;
908.1000;0.6431;1.3491;
908.4000;0.6406;1.3395;
908.7000;0.6406;1.3371;
909.0000;0.6463;1.3564;
909.3000;0.6406;1.3443;
909.6000;0.6406;1.3395;
909.9000;0.6390;1.3371;
910.2000;0.6414;1.3515;
910.5000;0.6422;1.3540;
910.8000;0.6431;1.3564;
911.1000;0.6431;1.3612;
911.4000;0.6414;1.3636;
911.7000;0.6431;1.3660;
912.0000;0.6406;1.3612;
912.3000;0.6422;1.3636;
912.6000;0.6422;1.3564;
912.9000;0.6431;1.3660;
913.2000;0.6414;1.3684;
913.5000;0.6365;1.3515;
913.8000;0.6406;1.3564;
914.1000;0.6439;1.3564;
914.4000;0.6390;1.3395;
914.7000;0.6422;1.3491;
915.0000;0.6496;1.3732;
915.3000;0.6398;1.3419;
915.6000;0.6390;1.3347;
915.9000;0.6406;1.3419;
916.2000;0.6398;1.3443;
916.5000;0.6406;1.3491;
916.8000;0.6406;1.3564;
917.1000;0.6390;1.3443;
917.4000;0.6422;1.3443;
917.7000;0.6414;1.3443;
918.0000;0.6414;1.3443;
918.3000;0.6414;1.3467;
918.6000;0.6349;1.3299;
918.9000;0.6406;1.3467;
919.2000;0.6431;1.3467;
919.5000;0.6398;1.3395;
919.8000;0.6406;1.3467;
920.1000;0.6439;1.3491;
920.4000;0.6406;1.3540;
920.7000;0.6512;1.3828;
921.0000;0.6365;1.3515;
921.3000;0.6333;1.3395;
921.6000;0.6414;1.3540;
921.9000;0.6406;1.3515;
922.2000;0.6422;1.3540;
922.5000;0.6398;1.3491;
922.8000;0.6422;1.3540;
923.1000;0.6479;1.3684;
923.4000;0.6398;1.3588;
923.7000;0.6414;1.3612;
924.0000;0.6422;1.3612;
924.3000;0.6390;1.3443;
924.6000;0.6414;1.3443;
924.9000;0.6414;1.3419;
925.2000;0.6398;1.3395;
925.5000;0.6406;1.3347;
925.8000;0.6406;1.3323;
926.1000;0.6398;1.3251;
926.4000;0.6390;1.3227;
926.7000;0.6406;1.3203;
927.0000;0.6414;1.3227;
927.3000;0.6422;1.3155;
927.6000;0.6406;1.3203;
927.9000;0.6398;1.3131;
928.2000;0.6414;1.3203;
928.5000;0.6414;1.3299;
928.8000;0.6406;1.3323;
929.1000;0.6414;1.3275;
929.4000;0.6414;1.3251;
929.7000;0.6439;1.3251;
930.0000;0.6414;1.3203;
930.3000;0.6414;1.3275;
930.6000;0.6422;1.3347;
930.9000;0.6422;1.3419;
931.2000;0.6422;1.3419;
931.5000;0.6398;1.3347;
931.8000;0.6414;1.3323;
932.1000;0.6382;1.3155;
932.4000;0.6439;1.3395;
932.7000;0.6414;1.3419;
933.0000;0.6422;1.3419;
933.3000;0.6414;1.3419;
933.6000;0.6471;1.3684;
933.9000;0.6455;1.3540;
934.2000;0.6422;1.3395;
934.5000;0.6398;1.3347;
934.8000;0.6422;1.3323;
935.1000;0.6382;1.3275;
935.4000;0.6398;1.3419;
935.7000;0.6422;1.3467;
936.0000;0.6406;1.3443;
936.3000;0.6455;1.3515;
936.6000;0.6414;1.3371;
936.9000;0.6398;1.3395;
937.2000;0.6406;1.3371;
937.5000;0.6406;1.3419;
937.8000;0.6398;1.3371;
938.1000;0.6431;1.3467;
938.4000;0.6422;1.3467;
938.7000;0.6439;1.3491;
939.0000;0.6479;1.3491;
939.3000;0.6374;1.3227;
939.6000;0.6422;1.3419;
939.9000;0.6422;1.3443;
940.2000;0.6414;1.3443;
940.5000;0.6414;1.3467;
940.8000;0.6422;1.3419;
941.1000;0.6406;1.3347;
941.4000;0.6406;1.3251;
941.7000;0.6398;1.3371;
942.0000;0.6365;1.3299;
942.3000;0.6431;1.3443;
942.6000;0.6349;1.3251;
942.9000;0.6382;1.3299;
943.2000;0.6414;1.3323;
943.5000;0.6439;1.3443;
943.8000;0.6382;1.3275;
944.1000;0.6414;1.3371;
944.4000;0.6414;1.3395;
944.7000;0.6398;1.3395;
945.0000;0.6398;1.3347;
945.3000;0.6414;1.3395;
945.6000;0.6398;1.3443;
945.9000;0.6390;1.3588;
946.2000;0.6406;1.3636;
946.5000;0.6406;1.3660;
946.8000;0.6398;1.3684;
947.1000;0.6422;1.3780;
947.4000;0.6406;1.3828;
947.7000;0.6406;1.3780;
948.0000;0.6414;1.3732;
948.3000;0.6398;1.3732;
948.6000;0.6374;1.3684;
948.9000;0.6406;1.3708;
949.2000;0.6374;1.3491;
949.5000;0.6382;1.3540;
949.8000;0.6406;1.3588;
950.1000;0.6398;1.3564;
950.4000;0.6382;1.3540;
950.7000;0.6390;1.3588;
951.0000;0.6398;1.3612;
951.3000;0.6414;1.3588;
951.6000;0.6406;1.3540;
951.9000;0.6406;1.3491;
952.2000;0.6422;1.3515;
952.5000;0.6382;1.3395;
952.8000;0.6431;1.3588;
953.1000;0.6398;1.3612;
953.4000;0.6422;1.3684;
953.7000;0.6431;1.3660;
954.0000;0.6406;1.3612;
954.3000;0.6414;1.3588;
954.6000;0.6398;1.3540;
954.9000;0.6398;1.3588;
955.2000;0.6414;1.3588;
955.5000;0.6406;1.3588;
955.8000;0.6390;1.3540;
956.1000;0.6374;1.3636;
956.4000;0.6422;1.3708;
956.7000;0.6414;1.3636;
957.0000;0.6398;1.3491;
957.3000;0.6422;1.3515;
957.6000;0.6439;1.3515;
957.9000;0.6414;1.3491;
958.2000;0.6390;1.3395;
958.5000;0.6414;1.3467;
958.8000;0.6431;1.3467;
959.1000;0.6414;1.3491;
959.4000;0.6406;1.3564;
959.7000;0.6406;1.3564;
960.0000;0.6398;1.3636;
960.3000;0.6365;1.3467;
960.6000;0.6374;1.3443;
960.9000;0.6390;1.3443;
961.2000;0.6414;1.3540;
961.5000;0.6390;1.3540;
961.8000;0.6398;1.3467;
962.1000;0.6439;1.3443;
962.4000;0.6398;1.3371;
962.7000;0.6414;1.3467;
963.0000;0.6398;1.3540;
963.3000;0.6325;1.3443;
963.6000;0.6398;1.3684;
963.9000;0.6414;1.3780;
964.2000;0.6333;1.3588;
964.5000;0.6406;1.3780;
964.8000;0.6390;1.3780;
965.1000;0.6382;1.3756;
965.4000;0.6349;1.3588;
965.7000;0.6406;1.3708;
966.0000;0.6341;1.3588;
966.3000;0.6390;1.3708;
966.6000;0.6390;1.3612;
966.9000;0.6390;1.3564;
967.2000;0.6406;1.3564;
967.5000;0.6398;1.3467;
967.8000;0.6390;1.3443;
968.1000;0.6390;1.3443;
968.4000;0.6390;1.3443;
968.7000;0.6398;1.3515;
969.0000;0.6390;1.3612;
969.3000;0.6406;1.3636;
969.6000;0.6398;1.3491;
969.9000;0.6406;1.3540;
970.2000;0.6447;1.3636;
970.5000;0.6398;1.3540;
970.8000;0.6406;1.3515;
971.1000;0.6390;1.3540;
971.4000;0.6406;1.3564;
971.7000;0.6390;1.3491;
972.0000;0.6390;1.3564;
972.3000;0.6398;1.3660;
972.6000;0.6398;1.3612;
972.9000;0.6398;1.3612;
973.2000;0.6390;1.3564;
973.5000;0.6390;1.3540;
973.8000;0.6357;1.3395;
974.1000;0.6406;1.3419;
974.4000;0.6406;1.3371;
974.7000;0.6374;1.3251;
975.0000;0.6406;1.3299;
975.3000;0.6390;1.3371;
975.6000;0.6398;1.3491;
975.9000;0.6406;1.3467;
976.2000;0.6365;1.3443;
976.5000;0.6390;1.3491;
976.8000;0.6406;1.3443;
977.1000;0.6398;1.3491;
977.4000;0.6382;1.3443;
977.7000;0.6406;1.3419;
978.0000;0.6406;1.3419;
978.3000;0.6406;1.3564;
978.6000;0.6390;1.3612;
978.9000;0.6398;1.3684;
979.2000;0.6422;1.3660;
979.5000;0.6398;1.3588;
979.8000;0.6439;1.3612;
980.1000;0.6414;1.3636;
980.4000;0.6414;1.3612;
980.7000;0.6382;1.3515;
981.0000;0.6390;1.3515;
981.3000;0.6390;1.3588;
981.6000;0.6374;1.3467;
981.9000;0.6398;1.3419;
982.2000;0.6365;1.3299;
982.5000;0.6341;1.3347;
982.8000;0.6406;1.3491;
983.1000;0.6406;1.3612;
983.4000;0.6365;1.3588;
983.7000;0.6398;1.3684;
984.0000;0.6382;1.3660;
984.3000;0.6398;1.3684;
984.6000;0.6398;1.3660;
984.9000;0.6382;1.3636;
985.2000;0.6390;1.3636;
985.5000;0.6422;1.3708;
985.8000;0.6382;1.3612;
986.1000;0.6398;1.3660;
986.4000;0.6390;1.3564;
986.7000;0.6382;1.3612;
987.0000;0.6398;1.3684;
987.3000;0.6349;1.3612;
987.6000;0.6382;1.3636;
987.9000;0.6390;1.3636;
988.2000;0.6406;1.3612;
988.5000;0.6390;1.3660;
988.8000;0.6357;1.3588;
989.1000;0.6390;1.3612;
989.4000;0.6341;1.3564;
989.7000;0.6406;1.3684;
990.0000;0.6382;1.3636;
990.3000;0.6422;1.3660;
990.6000;0.6398;1.3588;
990.9000;0.6406;1.3540;
991.2000;0.6292;1.3203;
991.5000;0.6390;1.3515;
991.8000;0.6398;1.3467;
992.1000;0.6463;1.3636;
992.4000;0.6398;1.3443;
992.7000;0.6390;1.3419;
993.0000;0.6414;1.3515;
993.3000;0.6398;1.3419;
993.6000;0.6439;1.3540;
993.9000;0.6406;1.3491;
994.2000;0.6398;1.3395;
994.5000;0.6422;1.3443;
994.8000;0.6414;1.3419;
995.1000;0.6390;1.3395;
995.4000;0.6439;1.3515;
995.7000;0.6414;1.3491;
996.0000;0.6414;1.3371;
996.3000;0.6390;1.3395;
996.6000;0.6414;1.3467;
996.9000;0.6447;1.3588;
997.2000;0.6398;1.3395;
997.5000;0.6398;1.3371;
997.8000;0.6390;1.3347;
998.1000;0.6414;1.3323;
998.4000;0.6414;1.3275;
998.7000;0.6406;1.3299;
999.0000;0.6406;1.3299;
999.3000;0.6414;1.3443;
999.6000;0.6406;1.3443;
999.9000;0.6398;1.3491;
1000.2000;0.6390;1.3515;
1000.5000;0.6390;1.3491;
1000.8000;0.6374;1.3491;
1001.1000;0.6398;1.3467;
1001.4000;0.6374;1.3251;
1001.7000;0.6398;1.3299;
1002.0000;0.6390;1.3371;
1002.3000;0.6390;1.3395;
1002.6000;0.6382;1.3395;
1002.9000;0.6382;1.3371;
1003.2000;0.6390;1.3395;
1003.5000;0.6406;1.3419;
1003.8000;0.6365;1.3467;
1004.1000;0.6382;1.3395;
1004.4000;0.6398;1.3491;
1004.7000;0.6406;1.3588;
1005.0000;0.6390;1.3564;
1005.3000;0.6406;1.3540;
1005.6000;0.6390;1.3564;
1005.9000;0.6406;1.3636;
1006.2000;0.6398;1.3684;
1006.5000;0.6398;1.3612;
1006.8000;0.6390;1.3612;
1007.1000;0.6374;1.3515;
1007.4000;0.6382;1.3515;
1007.7000;0.6390;1.3515;
1008.0000;0.6390;1.3467;
1008.3000;0.6365;1.3467;
1008.6000;0.6406;1.3515;
1008.9000;0.6398;1.3491;
1009.2000;0.6390;1.3515;
1009.5000;0.6398;1.3564;
1009.8000;0.6414;1.3636;
1010.1000;0.6406;1.3708;
1010.4000;0.6374;1.3660;
1010.7000;0.6382;1.3612;
1011.0000;0.6390;1.3612;
1011.3000;0.6398;1.3612;
1011.6000;0.6390;1.3660;
1011.9000;0.6382;1.3660;
1012.2000;0.6390;1.3732;
1012.5000;0.6390;1.3708;
1012.8000;0.6398;1.3732;
1013.1000;0.6406;1.3756;
1013.4000;0.6406;1.3804;
1013.7000;0.6406;1.3828;
1014.0000;0.6374;1.3684;
1014.3000;0.6439;1.3780;
1014.6000;0.6382;1.3660;
1014.9000;0.6447;1.3732;
1015.2000;0.6406;1.3612;
1015.5000;0.6390;1.3636;
1015.8000;0.6390;1.3564;
1016.1000;0.6431;1.3612;
1016.4000;0.6398;1.3540;
1016.7000;0.6382;1.3540;
1017.0000;0.6382;1.3564;
1017.3000;0.6398;1.3612;
1017.6000;0.6390;1.3588;
1017.9000;0.6382;1.3515;
1018.2000;0.6374;1.3467;
1018.5000;0.6406;1.3564;
1018.8000;0.6398;1.3467;
1019.1000;0.6374;1.3419;
1019.4000;0.6414;1.3612;
1019.7000;0.6406;1.3612;
1020.0000;0.6390;1.3612;
1020.3000;0.6390;1.3684;
1020.6000;0.6357;1.3660;
1020.9000;0.6390;1.3756;
1021.2000;0.6406;1.3732;
1021.5000;0.6390;1.3636;
1021.8000;0.6398;1.3684;
1022.1000;0.6382;1.3612;
1022.4000;0.6414;1.3660;
1022.7000;0.6406;1.3660;
1023.0000;0.6406;1.3684;
1023.3000;0.6390;1.3660;
1023.6000;0.6398;1.3732;
1023.9000;0.6374;1.3684;
1024.2000;0.6390;1.3756;
1024.5000;0.6414;1.3780;
1024.8000;0.6398;1.3804;
1025.1000;0.6390;1.3804;
1025.4000;0.6406;1.3804;
1025.7000;0.6374;1.3660;
1026.0000;0.6382;1.3612;
1026.3000;0.6390;1.3564;
1026.6000;0.6398;1.3612;
1026.9000;0.6398;1.3708;
1027.2000;0.6406;1.3684;
1027.5000;0.6406;1.3612;
1027.8000;0.6398;1.3612;
1028.1000;0.6406;1.3588;
1028.4000;0.6382;1.3540;
1028.7000;0.6398;1.3612;
1029.0000;0.6390;1.3660;
1029.3000;0.6390;1.3684;
1029.6000;0.6390;1.3588;
1029.9000;0.6406;1.3660;
1030.2000;0.6382;1.3660;
1030.5000;0.6374;1.3636;
1030.8000;0.6382;1.3636;
1031.1000;0.6341;1.3540;
1031.4000;0.6382;1.3564;
1031.7000;0.6357;1.3491;
1032.0000;0.6390;1.3491;
1032.3000;0.6309;1.3395;
1032.6000;0.6398;1.3564;
1032.9000;0.6374;1.3491;
1033.2000;0.6382;1.3467;
1033.5000;0.6398;1.3515;
1033.8000;0.6365;1.3467;
1034.1000;0.6414;1.3660;
1034.4000;0.6414;1.3612;
1034.7000;0.6406;1.3491;
1035.0000;0.6431;1.3540;
1035.3000;0.6382;1.3419;
1035.6000;0.6300;1.3299;
1035.9000;0.6365;1.3467;
1036.2000;0.6365;1.3564;
1036.5000;0.6390;1.3660;
1036.8000;0.6374;1.3588;
1037.1000;0.6431;1.3636;
1037.4000;0.6374;1.3515;
1037.7000;0.6406;1.3732;
1038.0000;0.6414;1.3708;
1038.3000;0.6382;1.3636;
1038.6000;0.6365;1.3636;
1038.9000;0.6341;1.3636;
1039.2000;0.6374;1.3780;
1039.5000;0.6382;1.3780;
1039.8000;0.6382;1.3780;
1040.1000;0.6406;1.3708;
1040.4000;0.6398;1.3612;
1040.7000;0.6341;1.3443;
1041.0000;0.6365;1.3491;
1041.3000;0.6382;1.3540;
1041.6000;0.6398;1.3540;
1041.9000;0.6365;1.3491;
1042.2000;0.6390;1.3540;
1042.5000;0.6382;1.3588;
1042.8000;0.6382;1.3612;
1043.1000;0.6390;1.3636;
1043.4000;0.6382;1.3588;
1043.7000;0.6390;1.3588;
1044.0000;0.6382;1.3612;
1044.3000;0.6398;1.3636;
1044.6000;0.6374;1.3515;
1044.9000;0.6398;1.3540;
1045.2000;0.6390;1.3515;
1045.5000;0.6390;1.3515;
1045.8000;0.6357;1.3467;
1046.1000;0.6374;1.3395;
1046.4000;0.6382;1.3395;
1046.7000;0.6382;1.3347;
1047.0000;0.6382;1.3299;
1047.3000;0.6398;1.3323;
1047.6000;0.6382;1.3371;
1047.9000;0.6382;1.3371;
1048.2000;0.6398;1.3419;
1048.5000;0.6390;1.3371;
1048.8000;0.6374;1.3395;
1049.1000;0.6398;1.3467;
1049.4000;0.6390;1.3515;
1049.7000;0.6431;1.3564;
1050.0000;0.6390;1.3467;
1050.3000;0.6390;1.3467;
1050.6000;0.6390;1.3612;
1050.9000;0.6422;1.3660;
1051.2000;0.6406;1.3612;
1051.5000;0.6382;1.3564;
1051.8000;0.6398;1.3612;
1052.1000;0.6447;1.3732;
1052.4000;0.6382;1.3515;
1052.7000;0.6374;1.3564;
1053.0000;0.6325;1.3564;
1053.3000;0.6414;1.3708;
1053.6000;0.6365;1.3660;
1053.9000;0.6398;1.3756;
1054.2000;0.6365;1.3684;
1054.5000;0.6398;1.3732;
1054.8000;0.6439;1.3780;
1055.1000;0.6357;1.3564;
1055.4000;0.6414;1.3660;
1055.7000;0.6382;1.3540;
1056.0000;0.6439;1.3636;
1056.3000;0.6349;1.3491;
1056.6000;0.6382;1.3467;
1056.9000;0.6398;1.3443;
1057.2000;0.6447;1.3588;
1057.5000;0.6382;1.3491;
1057.8000;0.6382;1.3515;
1058.1000;0.6382;1.3419;
1058.4000;0.6398;1.3515;
1058.7000;0.6398;1.3588;
1059.0000;0.6390;1.3612;
1059.3000;0.6390;1.3588;
1059.6000;0.6382;1.3636;
1059.9000;0.6382;1.3588;
1060.2000;0.6382;1.3660;
1060.5000;0.6382;1.3612;
1060.8000;0.6398;1.3588;
1061.1000;0.6333;1.3419;
1061.4000;0.6382;1.3443;
1061.7000;0.6398;1.3419;
1062.0000;0.6398;1.3419;
1062.3000;0.6382;1.3347;
1062.6000;0.6382;1.3347;
1062.9000;0.6374;1.3419;
1063.2000;0.6398;1.3443;
1063.5000;0.6382;1.3323;
1063.8000;0.6382;1.3299;
1064.1000;0.6390;1.3347;
1064.4000;0.6382;1.3419;
1064.7000;0.6390;1.3419;
1065.0000;0.6374;1.3395;
1065.3000;0.6382;1.3395;
1065.6000;0.6374;1.3419;
1065.9000;0.6382;1.3371;
1066.2000;0.6382;1.3371;
1066.5000;0.6374;1.3419;
1066.8000;0.6390;1.3419;
1067.1000;0.6398;1.3491;
1067.4000;0.6390;1.3515;
1067.7000;0.6382;1.3515;
1068.0000;0.6365;1.3540;
1068.3000;0.6382;1.3564;
1068.6000;0.6398;1.3636;
1068.9000;0.6374;1.3612;
1069.2000;0.6365;1.3636;
1069.5000;0.6390;1.3636;
1069.8000;0.6390;1.3660;
1070.1000;0.6406;1.3732;
1070.4000;0.6390;1.3732;
1070.7000;0.6382;1.3684;
1071.0000;0.6390;1.3684;
1071.3000;0.6365;1.3660;
1071.6000;0.6390;1.3780;
1071.9000;0.6390;1.3780;
1072.2000;0.6390;1.3708;
1072.5000;0.6398;1.3612;
1072.8000;0.6398;1.3491;
1073.1000;0.6414;1.3564;
1073.4000;0.6406;1.3588;
1073.7000;0.6398;1.3491;
1074.0000;0.6398;1.3540;
1074.3000;0.6365;1.3419;
1074.6000;0.6398;1.3515;
1074.9000;0.6357;1.3371;
1075.2000;0.6390;1.3564;
1075.5000;0.6382;1.3540;
1075.8000;0.6398;1.3467;
1076.1000;0.6414;1.3540;
1076.4000;0.6382;1.3419;
1076.7000;0.6390;1.3371;
1077.0000;0.6341;1.3323;
1077.3000;0.6357;1.3515;
1077.6000;0.6374;1.3564;
1077.9000;0.6374;1.3588;
1078.2000;0.6382;1.3588;
1078.5000;0.6414;1.3732;
1078.8000;0.6390;1.3636;
1079.1000;0.6390;1.3636;
1079.4000;0.6374;1.3588;
1079.7000;0.6390;1.3564;
1080.0000;0.6390;1.3564;
1080.3000;0.6390;1.3540;
1080.6000;0.6374;1.3467;
1080.9000;0.6390;1.3491;
1081.2000;0.6349;1.3419;
1081.5000;0.6365;1.3515;
1081.8000;0.6374;1.3491;
1082.1000;0.6374;1.3467;
1082.4000;0.6382;1.3540;
1082.7000;0.6374;1.3515;
1083.0000;0.6365;1.3540;
1083.3000;0.6374;1.3612;
1083.6000;0.6365;1.3660;
1083.9000;0.6374;1.3732;
1084.2000;0.6365;1.3660;
1084.5000;0.6382;1.3612;
1084.8000;0.6382;1.3612;
1085.1000;0.6382;1.3491;
1085.4000;0.6382;1.3443;
1085.7000;0.6390;1.3419;
1086.0000;0.6390;1.3347;
1086.3000;0.6455;1.3467;
1086.6000;0.6382;1.3227;
1086.9000;0.6374;1.3275;
1087.2000;0.6390;1.3299;
1087.5000;0.6390;1.3371;
1087.8000;0.6398;1.3419;
1088.1000;0.6390;1.3323;
1088.4000;0.6374;1.3323;
1088.7000;0.6406;1.3395;
1089.0000;0.6406;1.3371;
1089.3000;0.6382;1.3419;
1089.6000;0.6374;1.3443;
1089.9000;0.6431;1.3588;
1090.2000;0.6382;1.3588;
1090.5000;0.6406;1.3732;
1090.8000;0.6382;1.3756;
1091.1000;0.6398;1.3780;
1091.4000;0.6398;1.3756;
1091.7000;0.6390;1.3708;
1092.0000;0.6398;1.3636;
1092.3000;0.6365;1.3540;
1092.6000;0.6390;1.3612;
1092.9000;0.6365;1.3467;
1093.2000;0.6357;1.3419;
1093.5000;0.6365;1.3491;
1093.8000;0.6357;1.3564;
1094.1000;0.6374;1.3660;
1094.4000;0.6365;1.3564;
1094.7000;0.6357;1.3515;
1095.0000;0.6382;1.3491;
1095.3000;0.6406;1.3515;
1095.6000;0.6414;1.3612;
1095.9000;0.6382;1.3491;
1096.2000;0.6390;1.3540;
1096.5000;0.6398;1.3491;
1096.8000;0.6398;1.3467;
1097.1000;0.6382;1.3540;
1097.4000;0.6398;1.3588;
1097.7000;0.6382;1.3564;
1098.0000;0.6374;1.3515;
1098.3000;0.6382;1.3612;
1098.6000;0.6374;1.3588;
1098.9000;0.6382;1.3491;
1099.2000;0.6357;1.3275;
1099.5000;0.6365;1.3275;
1099.8000;0.6382;1.3275;
1100.1000;0.6398;1.3347;
1100.4000;0.6357;1.3251;
1100.7000;0.6365;1.3203;
1101.0000;0.6439;1.3491;
1101.3000;0.6374;1.3395;
1101.6000;0.6382;1.3371;
1101.9000;0.6374;1.3347;
1102.2000;0.6374;1.3443;
1102.5000;0.6374;1.3395;
1102.8000;0.6374;1.3419;
1103.1000;0.6382;1.3564;
1103.4000;0.6382;1.3660;
1103.7000;0.6398;1.3732;
1104.0000;0.6365;1.3588;
1104.3000;0.6357;1.3515;
1104.6000;0.6382;1.3588;
1104.9000;0.6390;1.3612;
1105.2000;0.6398;1.3564;
1105.5000;0.6390;1.3515;
1105.8000;0.6374;1.3443;
1106.1000;0.6365;1.3491;
1106.4000;0.6382;1.3612;
1106.7000;0.6374;1.3612;
1107.0000;0.6390;1.3684;
1107.3000;0.6398;1.3732;
1107.6000;0.6390;1.3756;
1107.9000;0.6382;1.3756;
1108.2000;0.6382;1.3756;
1108.5000;0.6341;1.3636;
1108.8000;0.6382;1.3708;
1109.1000;0.6357;1.3636;
1109.4000;0.6374;1.3684;
1109.7000;0.6382;1.3780;
1110.0000;0.6390;1.3852;
1110.3000;0.6422;1.4069;
1110.6000;0.6374;1.3948;
1110.9000;0.6357;1.3876;
1111.2000;0.6406;1.3852;
1111.5000;0.6382;1.3780;
1111.8000;0.6357;1.3612;
1112.1000;0.6374;1.3660;
1112.4000;0.6365;1.3540;
1112.7000;0.6390;1.3612;
1113.0000;0.6382;1.3588;
1113.3000;0.6390;1.3660;
1113.6000;0.6365;1.3540;
1113.9000;0.6365;1.3540;
1114.2000;0.6390;1.3612;
1114.5000;0.6365;1.3564;
1114.8000;0.6398;1.3612;
1115.1000;0.6382;1.3540;
1115.4000;0.6390;1.3588;
1115.7000;0.6382;1.3588;
1116.0000;0.6365;1.3588;
1116.3000;0.6390;1.3564;
1116.6000;0.6447;1.3732;
1116.9000;0.6463;1.3756;
1117.2000;0.6382;1.3467;
1117.5000;0.6365;1.3419;
1117.8000;0.6382;1.3515;
1118.1000;0.6382;1.3515;
1118.4000;0.6365;1.3419;
1118.7000;0.6365;1.3467;
1119.0000;0.6382;1.3491;
1119.3000;0.6390;1.3515;
1119.6000;0.6390;1.3564;
1119.9000;0.6414;1.3588;
1120.2000;0.6357;1.3467;
1120.5000;0.6398;1.3564;
1120.8000;0.6382;1.3491;
1121.1000;0.6382;1.3491;
1121.4000;0.6382;1.3515;
1121.7000;0.6414;1.3588;
1122.0000;0.6398;1.3564;
1122.3000;0.6406;1.3660;
1122.6000;0.6382;1.3588;
1122.9000;0.6325;1.3515;
1123.2000;0.6382;1.3588;
1123.5000;0.6365;1.3564;
1123.8000;0.6390;1.3684;
1124.1000;0.6374;1.3515;
1124.4000;0.6365;1.3515;
1124.7000;0.6357;1.3467;
1125.0000;0.6431;1.3732;
1125.3000;0.6382;1.3660;
1125.6000;0.6382;1.3636;
1125.9000;0.6382;1.3612;
1126.2000;0.6382;1.3612;
1126.5000;0.6374;1.3612;
1126.8000;0.6390;1.3708;
1127.1000;0.6382;1.3660;
1127.4000;0.6365;1.3612;
1127.7000;0.6357;1.3540;
1128.0000;0.6365;1.3491;
1128.3000;0.6357;1.3540;
1128.6000;0.6382;1.3780;
1128.9000;0.6349;1.3732;
1129.2000;0.6365;1.3756;
1129.5000;0.6382;1.3780;
1129.8000;0.6398;1.3756;
1130.1000;0.6390;1.3756;
1130.4000;0.6382;1.3708;
1130.7000;0.6382;1.3732;
1131.0000;0.6390;1.3708;
1131.3000;0.6422;1.3780;
1131.6000;0.6382;1.3732;
1131.9000;0.6390;1.3780;
1132.2000;0.6398;1.3852;
1132.5000;0.6357;1.3732;
1132.8000;0.6349;1.3636;
1133.1000;0.6365;1.3636;
1133.4000;0.6374;1.3636;
1133.7000;0.6374;1.3660;
1134.0000;0.6374;1.3660;
1134.3000;0.6382;1.3588;
1134.6000;0.6398;1.3636;
1134.9000;0.6317;1.3491;
1135.2000;0.6382;1.3612;
1135.5000;0.6382;1.3660;
1135.8000;0.6398;1.3708;
1136.1000;0.6374;1.3804;
1136.4000;0.6374;1.3756;
1136.7000;0.6390;1.3684;
1137.0000;0.6357;1.3660;
1137.3000;0.6365;1.3708;
1137.6000;0.6357;1.3684;
1137.9000;0.6374;1.3732;
1138.2000;0.6382;1.3804;
1138.5000;0.6382;1.3780;
1138.8000;0.6398;1.3780;
1139.1000;0.6390;1.3804;
1139.4000;0.6365;1.3828;
1139.7000;0.6374;1.3876;
1140.0000;0.6365;1.3924;
1140.3000;0.6365;1.3972;
1140.6000;0.6300;1.3684;
1140.9000;0.6398;1.3828;
1141.2000;0.6390;1.3756;
1141.5000;0.6422;1.3804;
1141.8000;0.6414;1.3852;
1142.1000;0.6374;1.3804;
1142.4000;0.6431;1.3900;
1142.7000;0.6390;1.3780;
1143.0000;0.6374;1.3852;
1143.3000;0.6365;1.3876;
1143.6000;0.6374;1.3852;
1143.9000;0.6365;1.3804;
1144.2000;0.6390;1.3780;
1144.5000;0.6390;1.3732;
1144.8000;0.6398;1.3756;
1145.1000;0.6333;1.3588;
1145.4000;0.6398;1.3660;
1145.7000;0.6390;1.3660;
1146.0000;0.6382;1.3684;
1146.3000;0.6439;1.3876;
1146.6000;0.6398;1.3780;
1146.9000;0.6431;1.3876;
1147.2000;0.6292;1.3564;
1147.5000;0.6455;1.3996;
1147.8000;0.6309;1.3708;
1148.1000;0.6390;1.3852;
1148.4000;0.6414;1.3852;
1148.7000;0.6365;1.3612;
1149.0000;0.6365;1.3612;
1149.3000;0.6382;1.3588;
1149.6000;0.6422;1.3684;
1149.9000;0.6422;1.3708;
1150.2000;0.6439;1.3780;
1150.5000;0.6390;1.3588;
1150.8000;0.6398;1.3636;
1151.1000;0.6390;1.3612;
1151.4000;0.6431;1.3732;
1151.7000;0.6374;1.3564;
1152.0000;0.6382;1.3588;
1152.3000;0.6374;1.3612;
1152.6000;0.6382;1.3636;
1152.9000;0.6382;1.3756;
1153.2000;0.6382;1.3684;
1153.5000;0.6398;1.3612;
1153.8000;0.6398;1.3588;
1154.1000;0.6365;1.3515;
1154.4000;0.6365;1.3588;
1154.7000;0.6382;1.3636;
1155.0000;0.6357;1.3612;
1155.3000;0.6292;1.3491;
1155.6000;0.6365;1.3660;
1155.9000;0.6382;1.3660;
1156.2000;0.6390;1.3636;
1156.5000;0.6406;1.3660;
1156.8000;0.6374;1.3636;
1157.1000;0.6349;1.3540;
1157.4000;0.6390;1.3612;
1157.7000;0.6390;1.3564;
1158.0000;0.6365;1.3564;
1158.3000;0.6365;1.3515;
1158.6000;0.6382;1.3540;
1158.9000;0.6406;1.3612;
1159.2000;0.6365;1.3564;
1159.5000;0.6390;1.3515;
1159.8000;0.6398;1.3612;
1160.1000;0.6406;1.3612;
1160.4000;0.6390;1.3564;
1160.7000;0.6390;1.3540;
1161.0000;0.6374;1.3515;
1161.3000;0.6390;1.3636;
1161.6000;0.6431;1.3732;
1161.9000;0.6398;1.3636;
1162.2000;0.6357;1.3660;
1162.5000;0.6406;1.3804;
1162.8000;0.6349;1.3732;
1163.1000;0.6365;1.3828;
1163.4000;0.6349;1.3732;
1163.7000;0.6374;1.3780;
1164.0000;0.6390;1.3780;
1164.3000;0.6382;1.3804;
1164.6000;0.6414;1.3804;
1164.9000;0.6406;1.3756;
1165.2000;0.6349;1.3588;
1165.5000;0.6374;1.3732;
1165.8000;0.6374;1.3780;
1166.1000;0.6390;1.3852;
1166.4000;0.6374;1.3828;
1166.7000;0.6374;1.3780;
1167.0000;0.6382;1.3780;
1167.3000;0.6390;1.3732;
1167.6000;0.6398;1.3708;
1167.9000;0.6390;1.3684;
1168.2000;0.6374;1.3660;
1168.5000;0.6374;1.3636;
1168.8000;0.6382;1.3732;
1169.1000;0.6374;1.3852;
1169.4000;0.6382;1.3876;
1169.7000;0.6382;1.3900;
1170.0000;0.6398;1.3804;
1170.3000;0.6382;1.3756;
1170.6000;0.6382;1.3804;
1170.9000;0.6431;1.3924;
1171.2000;0.6325;1.3612;
1171.5000;0.6349;1.3588;
1171.8000;0.6325;1.3491;
1172.1000;0.6357;1.3564;
1172.4000;0.6260;1.3323;
1172.7000;0.6365;1.3636;
1173.0000;0.6365;1.3588;
1173.3000;0.6414;1.3684;
1173.6000;0.6357;1.3491;
1173.9000;0.6374;1.3467;
1174.2000;0.6390;1.3540;
1174.5000;0.6365;1.3564;
1174.8000;0.6357;1.3588;
1175.1000;0.6374;1.3708;
1175.4000;0.6365;1.3588;
1175.7000;0.6341;1.3588;
1176.0000;0.6357;1.3636;
1176.3000;0.6365;1.3660;
1176.6000;0.6374;1.3636;
1176.9000;0.6374;1.3612;
1177.2000;0.6365;1.3564;
1177.5000;0.6374;1.3540;
1177.8000;0.6349;1.3467;
1178.1000;0.6325;1.3395;
1178.4000;0.6390;1.3515;
1178.7000;0.6357;1.3371;
1179.0000;0.6349;1.3419;
1179.3000;0.6365;1.3395;
1179.6000;0.6349;1.3371;
1179.9000;0.6374;1.3467;
1180.2000;0.6406;1.3491;
1180.5000;0.6382;1.3491;
1180.8000;0.6365;1.3588;
1181.1000;0.6365;1.3564;
1181.4000;0.6382;1.3564;
1181.7000;0.6382;1.3612;
1182.0000;0.6382;1.3588;
1182.3000;0.6374;1.3588;
1182.6000;0.6357;1.3636;
1182.9000;0.6365;1.3564;
1183.2000;0.6398;1.3588;
1183.5000;0.6357;1.3467;
1183.8000;0.6374;1.3540;
1184.1000;0.6365;1.3515;
1184.4000;0.6398;1.3612;
1184.7000;0.6398;1.3612;
1185.0000;0.6365;1.3515;
1185.3000;0.6341;1.3419;
1185.6000;0.6333;1.3419;
1185.9000;0.6382;1.3564;
1186.2000;0.6374;1.3491;
1186.5000;0.6374;1.3612;
1186.8000;0.6390;1.3684;
1187.1000;0.6382;1.3636;
1187.4000;0.6374;1.3684;
1187.7000;0.6382;1.3732;
1188.0000;0.6341;1.3708;
1188.3000;0.6374;1.3732;
1188.6000;0.6447;1.3900;
1188.9000;0.6357;1.3660;
1189.2000;0.6374;1.3588;
1189.5000;0.6325;1.3515;
1189.8000;0.6374;1.3684;
1190.1000;0.6374;1.3732;
1190.4000;0.6365;1.3636;
1190.7000;0.6374;1.3684;
1191.0000;0.6382;1.3732;
1191.3000;0.6374;1.3708;
1191.6000;0.6390;1.3708;
1191.9000;0.6398;1.3828;
1192.2000;0.6398;1.3828;
1192.5000;0.6382;1.3780;
1192.8000;0.6390;1.3852;
1193.1000;0.6398;1.3900;
1193.4000;0.6382;1.3900;
1193.7000;0.6365;1.3828;
1194.0000;0.6374;1.3780;
1194.3000;0.6382;1.3780;
1194.6000;0.6365;1.3684;
1194.9000;0.6365;1.3684;
1195.2000;0.6398;1.3660;
1195.5000;0.6374;1.3684;
1195.8000;0.6390;1.3732;
1196.1000;0.6365;1.3756;
1196.4000;0.6390;1.3852;
1196.7000;0.6431;1.3924;
1197.0000;0.6382;1.3780;
1197.3000;0.6382;1.3828;
1197.6000;0.6349;1.3756;
1197.9000;0.6382;1.3804;
1198.2000;0.6365;1.3636;
1198.5000;0.6365;1.3612;
1198.8000;0.6300;1.3491;
1199.1000;0.6374;1.3708;
1199.4000;0.6374;1.3756;
1199.7000;0.6341;1.3756;
1200.0000;0.6357;1.3828;
1200.3000;0.6374;1.3900;
1200.6000;0.6382;1.3828;
1200.9000;0.6390;1.3756;
1201.2000;0.6406;1.3828;
1201.5000;0.6382;1.3780;
1201.8000;0.6349;1.3708;
1202.1000;0.6349;1.3708;
1202.4000;0.6349;1.3684;
1202.7000;0.6365;1.3684;
1203.0000;0.6374;1.3708;
1203.3000;0.6365;1.3660;
1203.6000;0.6382;1.3756;
1203.9000;0.6365;1.3708;
1204.2000;0.6365;1.3732;
1204.5000;0.6390;1.3756;
1204.8000;0.6382;1.3660;
1205.1000;0.6374;1.3708;
1205.4000;0.6365;1.3708;
1205.7000;0.6382;1.3732;
1206.0000;0.6382;1.3804;
1206.3000;0.6390;1.3804;
1206.6000;0.6374;1.3684;
1206.9000;0.6374;1.3708;
1207.2000;0.6341;1.3612;
1207.5000;0.6374;1.3660;
1207.8000;0.6374;1.3732;
1208.1000;0.6463;1.3948;
1208.4000;0.6390;1.3732;
1208.7000;0.6422;1.3828;
1209.0000;0.6431;1.3900;
1209.3000;0.6414;1.3732;
1209.6000;0.6406;1.3804;
1209.9000;0.6382;1.3828;
1210.2000;0.6365;1.3780;
1210.5000;0.6374;1.3756;
1210.8000;0.6357;1.3684;
1211.1000;0.6382;1.3732;
1211.4000;0.6382;1.3660;
1211.7000;0.6365;1.3588;
1212.0000;0.6390;1.3684;
1212.3000;0.6382;1.3684;
1212.6000;0.6382;1.3636;
1212.9000;0.6390;1.3612;
1213.2000;0.6406;1.3684;
1213.5000;0.6398;1.3612;
1213.8000;0.6374;1.3564;
1214.1000;0.6365;1.3588;
1214.4000;0.6365;1.3515;
1214.7000;0.6390;1.3588;
1215.0000;0.6390;1.3588;
1215.3000;0.6382;1.3612;
1215.6000;0.6398;1.3708;
1215.9000;0.6357;1.3684;
1216.2000;0.6374;1.3684;
1216.5000;0.6390;1.3684;
1216.8000;0.6398;1.3612;
1217.1000;0.6365;1.3540;
1217.4000;0.6406;1.3612;
1217.7000;0.6382;1.3491;
1218.0000;0.6341;1.3395;
1218.3000;0.6398;1.3443;
1218.6000;0.6382;1.3419;
1218.9000;0.6374;1.3443;
1219.2000;0.6317;1.3347;
1219.5000;0.6382;1.3467;
1219.8000;0.6374;1.3371;
1220.1000;0.6365;1.3371;
1220.4000;0.6357;1.3395;
1220.7000;0.6365;1.3419;
1221.0000;0.6382;1.3395;
1221.3000;0.6382;1.3515;
1221.6000;0.6374;1.3443;
1221.9000;0.6276;1.3107;
1222.2000;0.6341;1.3251;
1222.5000;0.6382;1.3275;
1222.8000;0.6374;1.3299;
1223.1000;0.6382;1.3299;
1223.4000;0.6374;1.3347;
1223.7000;0.6349;1.3299;
1224.0000;0.6374;1.3419;
1224.3000;0.6414;1.3419;
1224.6000;0.6365;1.3371;
1224.9000;0.6382;1.3395;
1225.2000;0.6455;1.3491;
1225.5000;0.6284;1.3010;
1225.8000;0.6390;1.3323;
1226.1000;0.6390;1.3251;
1226.4000;0.6382;1.3299;
1226.7000;0.6365;1.3227;
1227.0000;0.6382;1.3371;
1227.3000;0.6382;1.3347;
1227.6000;0.6398;1.3419;
1227.9000;0.6382;1.3419;
1228.2000;0.6365;1.3371;
1228.5000;0.6406;1.3443;
1228.8000;0.6398;1.3491;
1229.1000;0.6398;1.3467;
1229.4000;0.6382;1.3467;
1229.7000;0.6382;1.3467;
1230.0000;0.6374;1.3347;
1230.3000;0.6365;1.3371;
1230.6000;0.6365;1.3323;
1230.9000;0.6365;1.3275;
1231.2000;0.6374;1.3251;
1231.5000;0.6365;1.3203;
1231.8000;0.6365;1.3203;
1232.1000;0.6374;1.3203;
1232.4000;0.6382;1.3179;
1232.7000;0.6398;1.3131;
1233.0000;0.6365;1.3107;
1233.3000;0.6349;1.3155;
1233.6000;0.6333;1.3251;
1233.9000;0.6357;1.3299;
1234.2000;0.6365;1.3371;
1234.5000;0.6333;1.3275;
1234.8000;0.6463;1.3588;
1235.1000;0.6406;1.3419;
1235.4000;0.6374;1.3371;
1235.7000;0.6357;1.3419;
1236.0000;0.6382;1.3515;
1236.3000;0.6374;1.3419;
1236.6000;0.6398;1.3419;
1236.9000;0.6365;1.3347;
1237.2000;0.6390;1.3323;
1237.5000;0.6382;1.3371;
1237.8000;0.6382;1.3323;
1238.1000;0.6390;1.3323;
1238.4000;0.6374;1.3299;
1238.7000;0.6357;1.3251;
1239.0000;0.6374;1.3203;
1239.3000;0.6382;1.3275;
1239.6000;0.6382;1.3179;
1239.9000;0.6374;1.3155;
1240.2000;0.6349;1.3155;
1240.5000;0.6382;1.3251;
1240.8000;0.6382;1.3227;
1241.1000;0.6390;1.3251;
1241.4000;0.6390;1.3275;
1241.7000;0.6398;1.3347;
1242.0000;0.6357;1.3275;
1242.3000;0.6349;1.3299;
1242.6000;0.6398;1.3395;
1242.9000;0.6398;1.3299;
1243.2000;0.6414;1.3467;
1243.5000;0.6374;1.3323;
1243.8000;0.6374;1.3251;
1244.1000;0.6357;1.3227;
1244.4000;0.6365;1.3251;
1244.7000;0.6349;1.3275;
1245.0000;0.6357;1.3275;
1245.3000;0.6365;1.3203;
1245.6000;0.6374;1.3275;
1245.9000;0.6365;1.3203;
1246.2000;0.6414;1.3299;
1246.5000;0.6406;1.3275;
1246.8000;0.6398;1.3227;
1247.1000;0.6422;1.3299;
1247.4000;0.6374;1.3203;
1247.7000;0.6382;1.3275;
1248.0000;0.6390;1.3323;
1248.3000;0.6341;1.3275;
1248.6000;0.6382;1.3299;
1248.9000;0.6341;1.3227;
1249.2000;0.6341;1.3179;
1249.5000;0.6349;1.3107;
1249.8000;0.6455;1.3299;
1250.1000;0.6374;1.3131;
1250.4000;0.6374;1.3203;
1250.7000;0.6382;1.3179;
1251.0000;0.6357;1.3083;
1251.3000;0.6382;1.3155;
1251.6000;0.6382;1.3203;
1251.9000;0.6374;1.3131;
1252.2000;0.6382;1.3251;
1252.5000;0.6390;1.3275;
1252.8000;0.6398;1.3323;
1253.1000;0.6390;1.3275;
1253.4000;0.6317;1.3155;
1253.7000;0.6374;1.3347;
1254.0000;0.6374;1.3275;
1254.3000;0.6365;1.3155;
1254.6000;0.6349;1.3107;
1254.9000;0.6374;1.3203;
1255.2000;0.6374;1.3227;
1255.5000;0.6374;1.3395;
1255.8000;0.6390;1.3395;
1256.1000;0.6406;1.3395;
1256.4000;0.6365;1.3323;
1256.7000;0.6439;1.3467;
1257.0000;0.6390;1.3371;
1257.3000;0.6398;1.3395;
1257.6000;0.6398;1.3347;
1257.9000;0.6341;1.3107;
1258.2000;0.6406;1.3203;
1258.5000;0.6390;1.3131;
1258.8000;0.6349;1.3059;
1259.1000;0.6390;1.3155;
1259.4000;0.6406;1.3275;
1259.7000;0.6333;1.3083;
1260.0000;0.6382;1.3179;
1260.3000;0.6422;1.3299;
1260.6000;0.6374;1.3107;
1260.9000;0.6357;1.3131;
1261.2000;0.6382;1.3131;
1261.5000;0.6382;1.3227;
1261.8000;0.6357;1.3155;
1262.1000;0.6390;1.3203;
1262.4000;0.6333;1.3010;
1262.7000;0.6382;1.3131;
1263.0000;0.6455;1.3251;
1263.3000;0.6349;1.3059;
1263.6000;0.6276;1.2842;
1263.9000;0.6333;1.2986;
1264.2000;0.6374;1.3131;
1264.5000;0.6349;1.3107;
1264.8000;0.6300;1.2938;
1265.1000;0.6365;1.3035;
1265.4000;0.6374;1.2986;
1265.7000;0.6374;1.2938;
1266.0000;0.6374;1.2890;
1266.3000;0.6431;1.3083;
1266.6000;0.6341;1.2842;
1266.9000;0.6382;1.2890;
1267.2000;0.6374;1.2962;
1267.5000;0.6365;1.2986;
1267.8000;0.6374;1.3010;
1268.1000;0.6357;1.3083;
1268.4000;0.6365;1.3107;
1268.7000;0.6357;1.3059;
1269.0000;0.6349;1.3059;
1269.3000;0.6374;1.2986;
1269.6000;0.6374;1.2986;
1269.9000;0.6317;1.2890;
1270.2000;0.6365;1.3035;
1270.5000;0.6357;1.3059;
1270.8000;0.6382;1.3107;
1271.1000;0.6382;1.3083;
1271.4000;0.6357;1.3059;
1271.7000;0.6374;1.3155;
1272.0000;0.6374;1.3107;
1272.3000;0.6374;1.3035;
1272.6000;0.6390;1.3107;
1272.9000;0.6398;1.3131;
1273.2000;0.6382;1.3227;
1273.5000;0.6374;1.3131;
1273.8000;0.6333;1.3035;
1274.1000;0.6374;1.3059;
1274.4000;0.6357;1.3035;
1274.7000;0.6333;1.3059;
1275.0000;0.6365;1.3155;
1275.3000;0.6357;1.3083;
1275.6000;0.6374;1.3179;
1275.9000;0.6398;1.3179;
1276.2000;0.6365;1.3083;
1276.5000;0.6341;1.3059;
1276.8000;0.6365;1.3131;
1277.1000;0.6365;1.3107;
1277.4000;0.6317;1.3035;
1277.7000;0.6349;1.3203;
1278.0000;0.6374;1.3203;
1278.3000;0.6382;1.3227;
1278.6000;0.6365;1.3203;
1278.9000;0.6333;1.3203;
1279.2000;0.6374;1.3227;
1279.5000;0.6349;1.3083;
1279.8000;0.6317;1.2914;
1280.1000;0.6357;1.2914;
1280.4000;0.6357;1.2938;
1280.7000;0.6349;1.2890;
1281.0000;0.6341;1.2842;
1281.3000;0.6357;1.2914;
1281.6000;0.6309;1.2866;
1281.9000;0.6414;1.3107;
1282.2000;0.6382;1.3107;
1282.5000;0.6382;1.3107;
1282.8000;0.6365;1.3107;
1283.1000;0.6398;1.3203;
1283.4000;0.6374;1.3131;
1283.7000;0.6382;1.3107;
1284.0000;0.6374;1.3059;
1284.3000;0.6374;1.3107;
1284.6000;0.6333;1.3083;
1284.9000;0.6365;1.3059;
1285.2000;0.6333;1.3010;
1285.5000;0.6365;1.3131;
1285.8000;0.6374;1.3203;
1286.1000;0.6365;1.3155;
1286.4000;0.6414;1.3299;
1286.7000;0.6365;1.3155;
1287.0000;0.6365;1.3227;
1287.3000;0.6309;1.3131;
1287.6000;0.6374;1.3251;
1287.9000;0.6357;1.3155;
1288.2000;0.6406;1.3323;
1288.5000;0.6382;1.3203;
1288.8000;0.6357;1.3227;
1289.1000;0.6365;1.3251;
1289.4000;0.6374;1.3203;
1289.7000;0.6374;1.3251;
1290.0000;0.6382;1.3275;
1290.3000;0.6382;1.3299;
1290.6000;0.6382;1.3275;
1290.9000;0.6374;1.3275;
1291.2000;0.6382;1.3227;
1291.5000;0.6357;1.3179;
1291.8000;0.6390;1.3323;
1292.1000;0.6374;1.3371;
1292.4000;0.6382;1.3443;
1292.7000;0.6382;1.3467;
1293.0000;0.6365;1.3515;
1293.3000;0.6365;1.3540;
1293.6000;0.6325;1.3419;
1293.9000;0.6382;1.3515;
1294.2000;0.6471;1.3828;
1294.5000;0.6374;1.3540;
1294.8000;0.6382;1.3540;
1295.1000;0.6390;1.3540;
1295.4000;0.6382;1.3491;
1295.7000;0.6398;1.3347;
1296.0000;0.6357;1.3395;
1296.3000;0.6374;1.3443;
1296.6000;0.6365;1.3419;
1296.9000;0.6382;1.3564;
1297.2000;0.6374;1.3515;
1297.5000;0.6382;1.3564;
1297.8000;0.6309;1.3419;
1298.1000;0.6365;1.3564;
1298.4000;0.6365;1.3636;
1298.7000;0.6390;1.3564;
1299.0000;0.6357;1.3443;
1299.3000;0.6374;1.3467;
1299.6000;0.6365;1.3443;
1299.9000;0.6333;1.3395;
1300.2000;0.6374;1.3443;
1300.5000;0.6365;1.3371;
1300.8000;0.6390;1.3395;
1301.1000;0.6374;1.3371;
1301.4000;0.6374;1.3347;
1301.7000;0.6374;1.3299;
1302.0000;0.6382;1.3299;
1302.3000;0.6390;1.3323;
1302.6000;0.6365;1.3251;
1302.9000;0.6414;1.3323;
1303.2000;0.6365;1.3275;
1303.5000;0.6374;1.3275;
1303.8000;0.6309;1.3155;
1304.1000;0.6374;1.3203;
1304.4000;0.6382;1.3131;
1304.7000;0.6374;1.3107;
1305.0000;0.6365;1.3131;
1305.3000;0.6365;1.3227;
1305.6000;0.6349;1.3251;
1305.9000;0.6268;1.3035;
1306.2000;0.6349;1.3395;
1306.5000;0.6374;1.3419;
1306.8000;0.6357;1.3371;
1307.1000;0.6390;1.3467;
1307.4000;0.6365;1.3491;
1307.7000;0.6382;1.3467;
1308.0000;0.6382;1.3564;
1308.3000;0.6365;1.3540;
1308.6000;0.6349;1.3419;
1308.9000;0.6382;1.3347;
1309.2000;0.6357;1.3347;
1309.5000;0.6349;1.3371;
1309.8000;0.6365;1.3491;
1310.1000;0.6382;1.3540;
1310.4000;0.6357;1.3467;
1310.7000;0.6349;1.3467;
1311.0000;0.6357;1.3491;
1311.3000;0.6357;1.3491;
1311.6000;0.6374;1.3564;
1311.9000;0.6374;1.3443;
1312.2000;0.6382;1.3491;
1312.5000;0.6349;1.3395;
1312.8000;0.6382;1.3491;
1313.1000;0.6333;1.3443;
1313.4000;0.6357;1.3515;
1313.7000;0.6349;1.3540;
1314.0000;0.6374;1.3564;
1314.3000;0.6398;1.3540;
1314.6000;0.6382;1.3419;
1314.9000;0.6374;1.3395;
1315.2000;0.6365;1.3347;
1315.5000;0.6374;1.3347;
1315.8000;0.6341;1.3371;
1316.1000;0.6317;1.3227;
1316.4000;0.6365;1.3371;
1316.7000;0.6406;1.3540;
1317.0000;0.6365;1.3419;
1317.3000;0.6390;1.3419;
1317.6000;0.6374;1.3395;
1317.9000;0.6382;1.3371;
1318.2000;0.6382;1.3395;
1318.5000;0.6357;1.3371;
1318.8000;0.6365;1.3395;
1319.1000;0.6357;1.3443;
1319.4000;0.6382;1.3491;
1319.7000;0.6374;1.3540;
1320.0000;0.6374;1.3515;
1320.3000;0.6349;1.3419;
1320.6000;0.6390;1.3515;
1320.9000;0.6357;1.3395;
1321.2000;0.6365;1.3491;
1321.5000;0.6349;1.3467;
1321.8000;0.6390;1.3564;
1322.1000;0.6447;1.3660;
1322.4000;0.6382;1.3395;
1322.7000;0.6365;1.3371;
1323.0000;0.6390;1.3419;
1323.3000;0.6382;1.3443;
1323.6000;0.6374;1.3347;
1323.9000;0.6309;1.3203;
1324.2000;0.6357;1.3395;
1324.5000;0.6365;1.3395;
1324.8000;0.6398;1.3588;
1325.1000;0.6406;1.3636;
1325.4000;0.6390;1.3588;
1325.7000;0.6374;1.3515;
1326.0000;0.6390;1.3540;
1326.3000;0.6357;1.3515;
1326.6000;0.6439;1.3612;
1326.9000;0.6390;1.3419;
1327.2000;0.6382;1.3395;
1327.5000;0.6365;1.3323;
1327.8000;0.6374;1.3347;
1328.1000;0.6390;1.3347;
1328.4000;0.6390;1.3323;
1328.7000;0.6325;1.3251;
1329.0000;0.6374;1.3419;
1329.3000;0.6365;1.3419;
1329.6000;0.6365;1.3491;
1329.9000;0.6374;1.3443;
1330.2000;0.6357;1.3347;
1330.5000;0.6390;1.3419;
1330.8000;0.6317;1.3323;
1331.1000;0.6349;1.3395;
1331.4000;0.6365;1.3419;
1331.7000;0.6374;1.3395;
1332.0000;0.6382;1.3371;
1332.3000;0.6365;1.3419;
1332.6000;0.6374;1.3443;
1332.9000;0.6382;1.3371;
1333.2000;0.6382;1.3347;
1333.5000;0.6382;1.3419;
1333.8000;0.6365;1.3275;
1334.1000;0.6349;1.3227;
1334.4000;0.6374;1.3203;
1334.7000;0.6374;1.3227;
1335.0000;0.6374;1.3227;
1335.3000;0.6422;1.3395;
1335.6000;0.6382;1.3275;
1335.9000;0.6357;1.3275;
1336.2000;0.6422;1.3443;
1336.5000;0.6349;1.3299;
1336.8000;0.6309;1.3251;
1337.1000;0.6357;1.3395;
1337.4000;0.6365;1.3371;
1337.7000;0.6357;1.3443;
1338.0000;0.6390;1.3515;
1338.3000;0.6357;1.3395;
1338.6000;0.6357;1.3467;
1338.9000;0.6382;1.3443;
1339.2000;0.6374;1.3491;
1339.5000;0.6365;1.3540;
1339.8000;0.6374;1.3540;
1340.1000;0.6349;1.3491;
1340.4000;0.6382;1.3564;
1340.7000;0.6349;1.3515;
1341.0000;0.6349;1.3564;
1341.3000;0.6374;1.3467;
1341.6000;0.6374;1.3419;
1341.9000;0.6357;1.3275;
1342.2000;0.6357;1.3299;
1342.5000;0.6357;1.3299;
1342.8000;0.6357;1.3275;
1343.1000;0.6292;1.3131;
1343.4000;0.6365;1.3323;
1343.7000;0.6357;1.3227;
1344.0000;0.6365;1.3299;
1344.3000;0.6374;1.3275;
1344.6000;0.6374;1.3131;
1344.9000;0.6382;1.3179;
1345.2000;0.6382;1.3251;
1345.5000;0.6365;1.3275;
1345.8000;0.6390;1.3395;
1346.1000;0.6365;1.3371;
1346.4000;0.6374;1.3299;
1346.7000;0.6357;1.3275;
1347.0000;0.6365;1.3275;
1347.3000;0.6382;1.3371;
1347.6000;0.6390;1.3443;
1347.9000;0.6422;1.3612;
1348.2000;0.6382;1.3564;
1348.5000;0.6398;1.3540;
1348.8000;0.6374;1.3540;
1349.1000;0.6365;1.3491;
1349.4000;0.6357;1.3540;
1349.7000;0.6357;1.3540;
1350.0000;0.6374;1.3540;
1350.3000;0.6374;1.3515;
1350.6000;0.6382;1.3515;
1350.9000;0.6382;1.3515;
1351.2000;0.6390;1.3443;
1351.5000;0.6390;1.3395;
1351.8000;0.6374;1.3395;
1352.1000;0.6365;1.3395;
1352.4000;0.6390;1.3515;
1352.7000;0.6341;1.3395;
1353.0000;0.6349;1.3371;
1353.3000;0.6398;1.3443;
1353.6000;0.6365;1.3323;
1353.9000;0.6382;1.3395;
1354.2000;0.6365;1.3419;
1354.5000;0.6349;1.3371;
1354.8000;0.6382;1.3515;
1355.1000;0.6300;1.3395;
1355.4000;0.6390;1.3564;
1355.7000;0.6382;1.3515;
1356.0000;0.6414;1.3515;
1356.3000;0.6365;1.3419;
1356.6000;0.6357;1.3371;
1356.9000;0.6317;1.3251;
1357.2000;0.6268;1.3059;
1357.5000;0.6382;1.3467;
1357.8000;0.6341;1.3299;
1358.1000;0.6357;1.3275;
1358.4000;0.6365;1.3227;
1358.7000;0.6488;1.3708;
1359.0000;0.6382;1.3467;
1359.3000;0.6365;1.3395;
1359.6000;0.6317;1.3131;
1359.9000;0.6382;1.3227;
1360.2000;0.6398;1.3323;
1360.5000;0.6357;1.3299;
1360.8000;0.6374;1.3323;
1361.1000;0.6382;1.3395;
1361.4000;0.6349;1.3395;
1361.7000;0.6357;1.3419;
1362.0000;0.6398;1.3564;
1362.3000;0.6357;1.3491;
1362.6000;0.6382;1.3588;
1362.9000;0.6365;1.3636;
1363.2000;0.6382;1.3636;
1363.5000;0.6382;1.3612;
1363.8000;0.6390;1.3564;
1364.1000;0.6390;1.3540;
1364.4000;0.6382;1.3491;
1364.7000;0.6333;1.3467;
1365.0000;0.6390;1.3515;
1365.3000;0.6365;1.3515;
1365.6000;0.6357;1.3443;
1365.9000;0.6382;1.3515;
1366.2000;0.6390;1.3564;
1366.5000;0.6382;1.3564;
1366.8000;0.6357;1.3564;
1367.1000;0.6422;1.3660;
1367.4000;0.6365;1.3491;
1367.7000;0.6374;1.3588;
1368.0000;0.6374;1.3612;
1368.3000;0.6374;1.3612;
1368.6000;0.6374;1.3564;
1368.9000;0.6374;1.3684;
1369.2000;0.6390;1.3732;
1369.5000;0.6276;1.3443;
1369.8000;0.6365;1.3660;
1370.1000;0.6390;1.3732;
1370.4000;0.6374;1.3660;
1370.7000;0.6317;1.3515;
1371.0000;0.6309;1.3515;
1371.3000;0.6374;1.3660;
1371.6000;0.6349;1.3588;
1371.9000;0.6374;1.3612;
1372.2000;0.6357;1.3588;
1372.5000;0.6333;1.3515;
1372.8000;0.6365;1.3708;
1373.1000;0.6325;1.3660;
1373.4000;0.6374;1.3708;
1373.7000;0.6390;1.3732;
1374.0000;0.6300;1.3467;
1374.3000;0.6349;1.3636;
1374.6000;0.6357;1.3636;
1374.9000;0.6365;1.3636;
1375.2000;0.6374;1.3684;
1375.5000;0.6357;1.3684;
1375.8000;0.6333;1.3636;
1376.1000;0.6349;1.3660;
1376.4000;0.6390;1.3804;
1376.7000;0.6382;1.3732;
1377.0000;0.6365;1.3660;
1377.3000;0.6349;1.3564;
1377.6000;0.6374;1.3540;
1377.9000;0.6382;1.3588;
1378.2000;0.6349;1.3564;
1378.5000;0.6390;1.3588;
1378.8000;0.6374;1.3564;
1379.1000;0.6382;1.3636;
1379.4000;0.6365;1.3588;
1379.7000;0.6349;1.3540;
1380.0000;0.6398;1.3684;
1380.3000;0.6406;1.3636;
1380.6000;0.6406;1.3636;
1380.9000;0.6374;1.3419;
1381.2000;0.6341;1.3419;
1381.5000;0.6349;1.3419;
1381.8000;0.6374;1.3540;
1382.1000;0.6333;1.3443;
1382.4000;0.6365;1.3588;
1382.7000;0.6374;1.3515;
1383.0000;0.6439;1.3660;
1383.3000;0.6357;1.3419;
1383.6000;0.6357;1.3515;
1383.9000;0.6357;1.3588;
1384.2000;0.6365;1.3612;
1384.5000;0.6341;1.3636;
1384.8000;0.6365;1.3660;
1385.1000;0.6341;1.3564;
1385.4000;0.6390;1.3588;
1385.7000;0.6374;1.3515;
1386.0000;0.6341;1.3395;
1386.3000;0.6357;1.3419;
1386.6000;0.6365;1.3515;
1386.9000;0.6365;1.3467;
1387.2000;0.6317;1.3251;
1387.5000;0.6390;1.3347;
1387.8000;0.6365;1.3371;
1388.1000;0.6357;1.3275;
1388.4000;0.6374;1.3347;
1388.7000;0.6374;1.3419;
1389.0000;0.6390;1.3467;
1389.3000;0.6398;1.3419;
1389.6000;0.6390;1.3395;
1389.9000;0.6374;1.3347;
1390.2000;0.6365;1.3251;
1390.5000;0.6398;1.3371;
1390.8000;0.6357;1.3275;
1391.1000;0.6365;1.3323;
1391.4000;0.6357;1.3347;
1391.7000;0.6374;1.3323;
1392.0000;0.6365;1.3347;
1392.3000;0.6374;1.3323;
1392.6000;0.6374;1.3323;
1392.9000;0.6398;1.3371;
1393.2000;0.6390;1.3299;
1393.5000;0.6357;1.3347;
1393.8000;0.6374;1.3419;
1394.1000;0.6390;1.3540;
1394.4000;0.6382;1.3540;
1394.7000;0.6406;1.3612;
1395.0000;0.6349;1.3419;
1395.3000;0.6374;1.3395;
1395.6000;0.6398;1.3467;
1395.9000;0.6325;1.3227;
1396.2000;0.6398;1.3395;
1396.5000;0.6374;1.3347;
1396.8000;0.6382;1.3419;
1397.1000;0.6382;1.3395;
1397.4000;0.6382;1.3347;
1397.7000;0.6374;1.3395;
1398.0000;0.6382;1.3467;
1398.3000;0.6374;1.3467;
1398.6000;0.6374;1.3515;
1398.9000;0.6365;1.3491;
1399.2000;0.6382;1.3564;
1399.5000;0.6382;1.3612;
1399.8000;0.6382;1.3612;
