time/ms;Fluo/V;P700 deltaI/I x10³;
-199.8000;0.7204;1.4141;
-199.5000;0.7188;1.4117;
-199.2000;0.7188;1.4165;
-198.9000;0.7171;1.4141;
-198.6000;0.7188;1.4189;
-198.3000;0.7171;1.4141;
-198.0000;0.7188;1.4117;
-197.7000;0.7163;1.4045;
-197.4000;0.7179;1.4069;
-197.1000;0.7179;1.4117;
-196.8000;0.7179;1.4093;
-196.5000;0.7171;1.4117;
-196.2000;0.7171;1.4117;
-195.9000;0.7179;1.4141;
-195.6000;0.7179;1.4117;
-195.3000;0.7163;1.4141;
-195.0000;0.7155;1.4213;
-194.7000;0.7261;1.4453;
-194.4000;0.7163;1.4237;
-194.1000;0.7188;1.4261;
-193.8000;0.7196;1.4213;
-193.5000;0.7179;1.4213;
-193.2000;0.7179;1.4165;
-192.9000;0.7163;1.4069;
-192.6000;0.7179;1.4045;
-192.3000;0.7179;1.4117;
-192.0000;0.7188;1.4117;
-191.7000;0.7179;1.4045;
-191.4000;0.7188;1.3900;
-191.1000;0.7179;1.3972;
-190.8000;0.7179;1.3972;
-190.5000;0.7196;1.3996;
-190.2000;0.7188;1.3996;
-189.9000;0.7188;1.4069;
-189.6000;0.7196;1.4117;
-189.3000;0.7196;1.4141;
-189.0000;0.7188;1.4141;
-188.7000;0.7179;1.4165;
-188.4000;0.7179;1.4309;
-188.1000;0.7188;1.4309;
-187.8000;0.7179;1.4285;
-187.5000;0.7171;1.4213;
-187.2000;0.7188;1.4213;
-186.9000;0.7179;1.4165;
-186.6000;0.7196;1.4141;
-186.3000;0.7179;1.4093;
-186.0000;0.7179;1.4069;
-185.7000;0.7188;1.4117;
-185.4000;0.7188;1.4141;
-185.1000;0.7179;1.4093;
-184.8000;0.7171;1.4021;
-184.5000;0.7179;1.4045;
-184.2000;0.7179;1.3972;
-183.9000;0.7179;1.4021;
-183.6000;0.7171;1.4045;
-183.3000;0.7179;1.4069;
-183.0000;0.7188;1.4141;
-182.7000;0.7179;1.4093;
-182.4000;0.7163;1.3996;
-182.1000;0.7179;1.4021;
-181.8000;0.7179;1.4141;
-181.5000;0.7179;1.4141;
-181.2000;0.7131;1.4045;
-180.9000;0.7171;1.4045;
-180.6000;0.7188;1.4069;
-180.3000;0.7179;1.4069;
-180.0000;0.7179;1.4045;
-179.7000;0.7188;1.4069;
-179.4000;0.7188;1.4141;
-179.1000;0.7188;1.4213;
-178.8000;0.7171;1.4213;
-178.5000;0.7163;1.4213;
-178.2000;0.7163;1.4213;
-177.9000;0.7171;1.4213;
-177.6000;0.7163;1.4237;
-177.3000;0.7179;1.4237;
-177.0000;0.7171;1.4141;
-176.7000;0.7188;1.4021;
-176.4000;0.7188;1.4093;
-176.1000;0.7188;1.4045;
-175.8000;0.7171;1.4045;
-175.5000;0.7163;1.3948;
-175.2000;0.7277;1.4213;
-174.9000;0.7179;1.3924;
-174.6000;0.7147;1.3828;
-174.3000;0.7179;1.4045;
-174.0000;0.7188;1.4069;
-173.7000;0.7179;1.3996;
-173.4000;0.7171;1.3972;
-173.1000;0.7171;1.3948;
-172.8000;0.7147;1.3948;
-172.5000;0.7204;1.4117;
-172.2000;0.7179;1.4141;
-171.9000;0.7179;1.4141;
-171.6000;0.7171;1.4093;
-171.3000;0.7188;1.3996;
-171.0000;0.7188;1.3972;
-170.7000;0.7179;1.3948;
-170.4000;0.7196;1.4069;
-170.1000;0.7188;1.4069;
-169.8000;0.7179;1.4045;
-169.5000;0.7179;1.4117;
-169.2000;0.7163;1.4165;
-168.9000;0.7212;1.4213;
-168.6000;0.7163;1.4117;
-168.3000;0.7155;1.4069;
-168.0000;0.7147;1.4021;
-167.7000;0.7147;1.3996;
-167.4000;0.7196;1.4141;
-167.1000;0.7196;1.4117;
-166.8000;0.7171;1.3996;
-166.5000;0.7204;1.3924;
-166.2000;0.7179;1.3948;
-165.9000;0.7171;1.3900;
-165.6000;0.7179;1.4021;
-165.3000;0.7188;1.4069;
-165.0000;0.7228;1.4213;
-164.7000;0.7179;1.4117;
-164.4000;0.7163;1.4045;
-164.1000;0.7171;1.4093;
-163.8000;0.7179;1.4069;
-163.5000;0.7179;1.4141;
-163.2000;0.7147;1.4117;
-162.9000;0.7179;1.4117;
-162.6000;0.7171;1.4141;
-162.3000;0.7066;1.3948;
-162.0000;0.7171;1.4237;
-161.7000;0.7188;1.4261;
-161.4000;0.7204;1.4237;
-161.1000;0.7188;1.4165;
-160.8000;0.7188;1.4141;
-160.5000;0.7196;1.4165;
-160.2000;0.7179;1.4141;
-159.9000;0.7171;1.4141;
-159.6000;0.7163;1.4093;
-159.3000;0.7188;1.4093;
-159.0000;0.7212;1.4093;
-158.7000;0.7196;1.4021;
-158.4000;0.7188;1.4093;
-158.1000;0.7163;1.4165;
-157.8000;0.7171;1.4261;
-157.5000;0.7163;1.4213;
-157.2000;0.7155;1.4237;
-156.9000;0.7171;1.4237;
-156.6000;0.7155;1.4165;
-156.3000;0.7179;1.4261;
-156.0000;0.7171;1.4237;
-155.7000;0.7179;1.4333;
-155.4000;0.7155;1.4309;
-155.1000;0.7179;1.4237;
-154.8000;0.7179;1.4261;
-154.5000;0.7179;1.4237;
-154.2000;0.7163;1.4165;
-153.9000;0.7171;1.4141;
-153.6000;0.7188;1.4141;
-153.3000;0.7188;1.4093;
-153.0000;0.7171;1.4141;
-152.7000;0.7179;1.4213;
-152.4000;0.7261;1.4405;
-152.1000;0.7171;1.4165;
-151.8000;0.7155;1.4069;
-151.5000;0.7171;1.4045;
-151.2000;0.7171;1.4093;
-150.9000;0.7171;1.4093;
-150.6000;0.7179;1.4021;
-150.3000;0.7188;1.3996;
-150.0000;0.7188;1.3948;
-149.7000;0.7204;1.4045;
-149.4000;0.7277;1.4309;
-149.1000;0.7171;1.4045;
-148.8000;0.7155;1.3948;
-148.5000;0.7196;1.3996;
-148.2000;0.7179;1.3924;
-147.9000;0.7204;1.3948;
-147.6000;0.7179;1.3948;
-147.3000;0.7155;1.3852;
-147.0000;0.7196;1.3900;
-146.7000;0.7171;1.3876;
-146.4000;0.7188;1.3852;
-146.1000;0.7196;1.3972;
-145.8000;0.7236;1.4069;
-145.5000;0.7179;1.3948;
-145.2000;0.7171;1.3900;
-144.9000;0.7204;1.3948;
-144.6000;0.7196;1.3948;
-144.3000;0.7179;1.3924;
-144.0000;0.7171;1.3900;
-143.7000;0.7188;1.3996;
-143.4000;0.7188;1.4045;
-143.1000;0.7204;1.4021;
-142.8000;0.7163;1.3996;
-142.5000;0.7188;1.4117;
-142.2000;0.7179;1.4165;
-141.9000;0.7179;1.4141;
-141.6000;0.7179;1.4141;
-141.3000;0.7188;1.4093;
-141.0000;0.7188;1.4117;
-140.7000;0.7188;1.4141;
-140.4000;0.7179;1.4189;
-140.1000;0.7188;1.4141;
-139.8000;0.7196;1.4189;
-139.5000;0.7188;1.4117;
-139.2000;0.7098;1.3852;
-138.9000;0.7171;1.4069;
-138.6000;0.7179;1.4141;
-138.3000;0.7171;1.4045;
-138.0000;0.7171;1.4069;
-137.7000;0.7090;1.3948;
-137.4000;0.7196;1.4261;
-137.1000;0.7171;1.4237;
-136.8000;0.7171;1.4237;
-136.5000;0.7179;1.4189;
-136.2000;0.7171;1.4069;
-135.9000;0.7196;1.4069;
-135.6000;0.7196;1.4141;
-135.3000;0.7179;1.4069;
-135.0000;0.7171;1.3996;
-134.7000;0.7147;1.3948;
-134.4000;0.7204;1.4045;
-134.1000;0.7179;1.3948;
-133.8000;0.7188;1.4069;
-133.5000;0.7179;1.4093;
-133.2000;0.7171;1.4117;
-132.9000;0.7171;1.4141;
-132.6000;0.7179;1.4093;
-132.3000;0.7179;1.4117;
-132.0000;0.7196;1.4189;
-131.7000;0.7171;1.4093;
-131.4000;0.7204;1.4165;
-131.1000;0.7139;1.3972;
-130.8000;0.7196;1.4165;
-130.5000;0.7204;1.4189;
-130.2000;0.7163;1.3996;
-129.9000;0.7155;1.3996;
-129.6000;0.7179;1.4093;
-129.3000;0.7171;1.4117;
-129.0000;0.7196;1.4165;
-128.7000;0.7179;1.4069;
-128.4000;0.7188;1.4117;
-128.1000;0.7220;1.4141;
-127.8000;0.7179;1.4069;
-127.5000;0.7155;1.3996;
-127.2000;0.7196;1.4069;
-126.9000;0.7131;1.3972;
-126.6000;0.7204;1.4213;
-126.3000;0.7163;1.4165;
-126.0000;0.7188;1.4261;
-125.7000;0.7163;1.4213;
-125.4000;0.7212;1.4189;
-125.1000;0.7179;1.4045;
-124.8000;0.7196;1.4045;
-124.5000;0.7179;1.4117;
-124.2000;0.7179;1.4141;
-123.9000;0.7179;1.4117;
-123.6000;0.7155;1.4093;
-123.3000;0.7179;1.4117;
-123.0000;0.7188;1.4045;
-122.7000;0.7204;1.4021;
-122.4000;0.7179;1.3996;
-122.1000;0.7188;1.3972;
-121.8000;0.7196;1.3948;
-121.5000;0.7179;1.3876;
-121.2000;0.7171;1.4021;
-120.9000;0.7171;1.4069;
-120.6000;0.7171;1.4045;
-120.3000;0.7171;1.4093;
-120.0000;0.7188;1.4141;
-119.7000;0.7188;1.4165;
-119.4000;0.7171;1.4117;
-119.1000;0.7179;1.4213;
-118.8000;0.7114;1.4069;
-118.5000;0.7163;1.4261;
-118.2000;0.7163;1.4237;
-117.9000;0.7179;1.4213;
-117.6000;0.7196;1.4261;
-117.3000;0.7179;1.4213;
-117.0000;0.7171;1.4141;
-116.7000;0.7196;1.4165;
-116.4000;0.7204;1.4069;
-116.1000;0.7188;1.4021;
-115.8000;0.7139;1.3852;
-115.5000;0.7171;1.3780;
-115.2000;0.7220;1.3828;
-114.9000;0.7179;1.3852;
-114.6000;0.7123;1.3684;
-114.3000;0.7179;1.3876;
-114.0000;0.7179;1.3780;
-113.7000;0.7163;1.3756;
-113.4000;0.7147;1.3684;
-113.1000;0.7196;1.3828;
-112.8000;0.7171;1.3804;
-112.5000;0.7163;1.3852;
-112.2000;0.7212;1.3972;
-111.9000;0.7188;1.3948;
-111.6000;0.7188;1.3948;
-111.3000;0.7155;1.3900;
-111.0000;0.7171;1.3996;
-110.7000;0.7171;1.3996;
-110.4000;0.7285;1.4333;
-110.1000;0.7204;1.4069;
-109.8000;0.7188;1.3996;
-109.5000;0.7204;1.4093;
-109.2000;0.7171;1.4021;
-108.9000;0.7171;1.4021;
-108.6000;0.7171;1.3996;
-108.3000;0.7171;1.4045;
-108.0000;0.7179;1.3924;
-107.7000;0.7171;1.3996;
-107.4000;0.7212;1.4165;
-107.1000;0.7269;1.4261;
-106.8000;0.7179;1.4141;
-106.5000;0.7163;1.4141;
-106.2000;0.7171;1.4141;
-105.9000;0.7179;1.4285;
-105.6000;0.7147;1.4165;
-105.3000;0.7155;1.4093;
-105.0000;0.7171;1.4069;
-104.7000;0.7155;1.4021;
-104.4000;0.7228;1.4213;
-104.1000;0.7171;1.4141;
-103.8000;0.7171;1.4093;
-103.5000;0.7171;1.4093;
-103.2000;0.7179;1.4117;
-102.9000;0.7179;1.4189;
-102.6000;0.7179;1.4189;
-102.3000;0.7163;1.4141;
-102.0000;0.7196;1.4165;
-101.7000;0.7179;1.4117;
-101.4000;0.7179;1.4165;
-101.1000;0.7179;1.4237;
-100.8000;0.7220;1.4285;
-100.5000;0.7196;1.4237;
-100.2000;0.7188;1.4189;
-99.9000;0.7196;1.4237;
-99.6000;0.7179;1.4189;
-99.3000;0.7188;1.4045;
-99.0000;0.7196;1.4093;
-98.7000;0.7188;1.3948;
-98.4000;0.7188;1.3924;
-98.1000;0.7179;1.3972;
-97.8000;0.7179;1.3996;
-97.5000;0.7147;1.3924;
-97.2000;0.7204;1.4045;
-96.9000;0.7171;1.3948;
-96.6000;0.7196;1.3996;
-96.3000;0.7114;1.3876;
-96.0000;0.7171;1.4045;
-95.7000;0.7114;1.3924;
-95.4000;0.7179;1.4141;
-95.1000;0.7179;1.4021;
-94.8000;0.7261;1.4213;
-94.5000;0.7155;1.3972;
-94.2000;0.7179;1.3924;
-93.9000;0.7196;1.3924;
-93.6000;0.7171;1.3876;
-93.3000;0.7163;1.3924;
-93.0000;0.7171;1.3924;
-92.7000;0.7147;1.3924;
-92.4000;0.7188;1.4093;
-92.1000;0.7179;1.4117;
-91.8000;0.7171;1.4213;
-91.5000;0.7188;1.4189;
-91.2000;0.7179;1.4117;
-90.9000;0.7171;1.4093;
-90.6000;0.7188;1.4141;
-90.3000;0.7179;1.4141;
-90.0000;0.7171;1.4189;
-89.7000;0.7204;1.4213;
-89.4000;0.7171;1.4165;
-89.1000;0.7163;1.4165;
-88.8000;0.7179;1.4237;
-88.5000;0.7188;1.4261;
-88.2000;0.7236;1.4357;
-87.9000;0.7171;1.4261;
-87.6000;0.7179;1.4285;
-87.3000;0.7155;1.4261;
-87.0000;0.7179;1.4285;
-86.7000;0.7163;1.4141;
-86.4000;0.7212;1.4213;
-86.1000;0.7188;1.4117;
-85.8000;0.7179;1.4117;
-85.5000;0.7147;1.4069;
-85.2000;0.7188;1.4141;
-84.9000;0.7171;1.4165;
-84.6000;0.7171;1.4165;
-84.3000;0.7171;1.4141;
-84.0000;0.7155;1.4117;
-83.7000;0.7171;1.4141;
-83.4000;0.7228;1.4213;
-83.1000;0.7147;1.3972;
-82.8000;0.7171;1.3948;
-82.5000;0.7179;1.3972;
-82.2000;0.7163;1.3996;
-81.9000;0.7171;1.4093;
-81.6000;0.7147;1.4093;
-81.3000;0.7179;1.4117;
-81.0000;0.7196;1.4165;
-80.7000;0.7179;1.4141;
-80.4000;0.7171;1.4117;
-80.1000;0.7179;1.4117;
-79.8000;0.7188;1.4093;
-79.5000;0.7179;1.3996;
-79.2000;0.7163;1.4021;
-78.9000;0.7179;1.4021;
-78.6000;0.7179;1.3996;
-78.3000;0.7179;1.3948;
-78.0000;0.7147;1.3948;
-77.7000;0.7179;1.3996;
-77.4000;0.7179;1.4021;
-77.1000;0.7179;1.4069;
-76.8000;0.7171;1.4069;
-76.5000;0.7171;1.3972;
-76.2000;0.7188;1.3972;
-75.9000;0.7188;1.3948;
-75.6000;0.7171;1.3852;
-75.3000;0.7139;1.3852;
-75.0000;0.7188;1.3996;
-74.7000;0.7228;1.4141;
-74.4000;0.7179;1.4021;
-74.1000;0.7147;1.3924;
-73.8000;0.7179;1.3924;
-73.5000;0.7196;1.3948;
-73.2000;0.7188;1.3996;
-72.9000;0.7212;1.3996;
-72.6000;0.7171;1.3972;
-72.3000;0.7171;1.3948;
-72.0000;0.7106;1.3852;
-71.7000;0.7188;1.4141;
-71.4000;0.7196;1.4141;
-71.1000;0.7179;1.4117;
-70.8000;0.7188;1.4069;
-70.5000;0.7179;1.4021;
-70.2000;0.7196;1.4093;
-69.9000;0.7188;1.4069;
-69.6000;0.7179;1.4117;
-69.3000;0.7204;1.4189;
-69.0000;0.7179;1.4093;
-68.7000;0.7204;1.4093;
-68.4000;0.7179;1.4093;
-68.1000;0.7171;1.3972;
-67.8000;0.7171;1.3948;
-67.5000;0.7188;1.3924;
-67.2000;0.7171;1.3996;
-66.9000;0.7179;1.4021;
-66.6000;0.7155;1.3972;
-66.3000;0.7179;1.3972;
-66.0000;0.7179;1.3972;
-65.7000;0.7179;1.4021;
-65.4000;0.7204;1.3948;
-65.1000;0.7188;1.3996;
-64.8000;0.7163;1.4045;
-64.5000;0.7171;1.4045;
-64.2000;0.7163;1.4045;
-63.9000;0.7163;1.4069;
-63.6000;0.7188;1.4213;
-63.3000;0.7204;1.4237;
-63.0000;0.7163;1.4165;
-62.7000;0.7171;1.4213;
-62.4000;0.7163;1.4141;
-62.1000;0.7188;1.4165;
-61.8000;0.7188;1.4141;
-61.5000;0.7179;1.4141;
-61.2000;0.7179;1.4117;
-60.9000;0.7179;1.4069;
-60.6000;0.7179;1.4141;
-60.3000;0.7196;1.4165;
-60.0000;0.7171;1.4141;
-59.7000;0.7179;1.4213;
-59.4000;0.7188;1.4165;
-59.1000;0.7188;1.4261;
-58.8000;0.7179;1.4117;
-58.5000;0.7179;1.4045;
-58.2000;0.7188;1.4045;
-57.9000;0.7179;1.3972;
-57.6000;0.7163;1.3996;
-57.3000;0.7163;1.4021;
-57.0000;0.7171;1.4021;
-56.7000;0.7179;1.3996;
-56.4000;0.7163;1.3924;
-56.1000;0.7171;1.4021;
-55.8000;0.7179;1.4093;
-55.5000;0.7171;1.4117;
-55.2000;0.7179;1.4021;
-54.9000;0.7171;1.3996;
-54.6000;0.7179;1.3948;
-54.3000;0.7204;1.3948;
-54.0000;0.7188;1.3876;
-53.7000;0.7171;1.3780;
-53.4000;0.7188;1.3948;
-53.1000;0.7163;1.3972;
-52.8000;0.7155;1.3876;
-52.5000;0.7114;1.3708;
-52.2000;0.7179;1.3924;
-51.9000;0.7179;1.3972;
-51.6000;0.7155;1.3900;
-51.3000;0.7188;1.3924;
-51.0000;0.7171;1.3828;
-50.7000;0.7171;1.3876;
-50.4000;0.7171;1.3972;
-50.1000;0.7179;1.4069;
-49.8000;0.7188;1.4093;
-49.5000;0.7188;1.4093;
-49.2000;0.7171;1.4021;
-48.9000;0.7179;1.3948;
-48.6000;0.7155;1.3924;
-48.3000;0.7179;1.3996;
-48.0000;0.7171;1.4021;
-47.7000;0.7163;1.3972;
-47.4000;0.7179;1.3972;
-47.1000;0.7196;1.4021;
-46.8000;0.7188;1.3972;
-46.5000;0.7204;1.3948;
-46.2000;0.7179;1.3996;
-45.9000;0.7212;1.4117;
-45.6000;0.7179;1.4045;
-45.3000;0.7188;1.4021;
-45.0000;0.7179;1.3972;
-44.7000;0.7196;1.4069;
-44.4000;0.7245;1.4189;
-44.1000;0.7188;1.4069;
-43.8000;0.7179;1.4093;
-43.5000;0.7163;1.4093;
-43.2000;0.7196;1.4093;
-42.9000;0.7196;1.4117;
-42.6000;0.7179;1.4117;
-42.3000;0.7188;1.4021;
-42.0000;0.7179;1.4021;
-41.7000;0.7147;1.3900;
-41.4000;0.7171;1.3972;
-41.1000;0.7171;1.3876;
-40.8000;0.7188;1.3924;
-40.5000;0.7196;1.3924;
-40.2000;0.7204;1.3924;
-39.9000;0.7179;1.3948;
-39.6000;0.7188;1.3996;
-39.3000;0.7204;1.4021;
-39.0000;0.7196;1.3924;
-38.7000;0.7179;1.3876;
-38.4000;0.7155;1.3924;
-38.1000;0.7188;1.4093;
-37.8000;0.7188;1.4117;
-37.5000;0.7155;1.4045;
-37.2000;0.7171;1.4045;
-36.9000;0.7171;1.4045;
-36.6000;0.7171;1.4117;
-36.3000;0.7261;1.4237;
-36.0000;0.7171;1.3996;
-35.7000;0.7204;1.4045;
-35.4000;0.7163;1.3972;
-35.1000;0.7171;1.3924;
-34.8000;0.7163;1.3900;
-34.5000;0.7171;1.3852;
-34.2000;0.7179;1.3828;
-33.9000;0.7196;1.3924;
-33.6000;0.7171;1.3876;
-33.3000;0.7163;1.3924;
-33.0000;0.7147;1.3804;
-32.7000;0.7131;1.3780;
-32.4000;0.7155;1.3876;
-32.1000;0.7171;1.3948;
-31.8000;0.7188;1.3948;
-31.5000;0.7155;1.3876;
-31.2000;0.7179;1.3948;
-30.9000;0.7163;1.3924;
-30.6000;0.7131;1.3804;
-30.3000;0.7236;1.3996;
-30.0000;0.7171;1.3804;
-29.7000;0.7204;1.3852;
-29.4000;0.7179;1.3804;
-29.1000;0.7196;1.3756;
-28.8000;0.7293;1.3972;
-28.5000;0.7188;1.3780;
-28.2000;0.7163;1.3732;
-27.9000;0.7179;1.3732;
-27.6000;0.7171;1.3660;
-27.3000;0.7171;1.3684;
-27.0000;0.7163;1.3732;
-26.7000;0.7179;1.3732;
-26.4000;0.7179;1.3780;
-26.1000;0.7131;1.3708;
-25.8000;0.7179;1.3852;
-25.5000;0.7171;1.3924;
-25.2000;0.7179;1.3972;
-24.9000;0.7163;1.4021;
-24.6000;0.7179;1.3996;
-24.3000;0.7171;1.3972;
-24.0000;0.7188;1.4117;
-23.7000;0.7123;1.3948;
-23.4000;0.7171;1.4045;
-23.1000;0.7155;1.4141;
-22.8000;0.7171;1.4189;
-22.5000;0.7163;1.4093;
-22.2000;0.7228;1.4309;
-21.9000;0.7171;1.4213;
-21.6000;0.7171;1.4213;
-21.3000;0.7171;1.4213;
-21.0000;0.7179;1.4141;
-20.7000;0.7179;1.4165;
-20.4000;0.7171;1.4117;
-20.1000;0.7188;1.4189;
-19.8000;0.7261;1.4381;
-19.5000;0.7196;1.4213;
-19.2000;0.7188;1.4213;
-18.9000;0.7188;1.4141;
-18.6000;0.7212;1.4189;
-18.3000;0.7196;1.4213;
-18.0000;0.7179;1.4237;
-17.7000;0.7171;1.4213;
-17.4000;0.7179;1.4213;
-17.1000;0.7179;1.4189;
-16.8000;0.7179;1.4117;
-16.5000;0.7179;1.4141;
-16.2000;0.7179;1.4237;
-15.9000;0.7204;1.4237;
-15.6000;0.7131;1.4141;
-15.3000;0.7090;1.4021;
-15.0000;0.7188;1.4261;
-14.7000;0.7188;1.4189;
-14.4000;0.7188;1.4117;
-14.1000;0.7098;1.3924;
-13.8000;0.7196;1.4213;
-13.5000;0.7179;1.4165;
-13.2000;0.7179;1.4165;
-12.9000;0.7179;1.4189;
-12.6000;0.7196;1.4261;
-12.3000;0.7204;1.4213;
-12.0000;0.7147;1.4117;
-11.7000;0.7212;1.4357;
-11.4000;0.7163;1.4213;
-11.1000;0.7188;1.4189;
-10.8000;0.7171;1.4141;
-10.5000;0.7188;1.4093;
-10.2000;0.7163;1.4093;
-9.9000;0.7171;1.4189;
-9.6000;0.7179;1.4189;
-9.3000;0.7147;1.4117;
-9.0000;0.7188;1.4141;
-8.7000;0.7196;1.4093;
-8.4000;0.7163;1.3948;
-8.1000;0.7171;1.3924;
-7.8000;0.7163;1.3900;
-7.5000;0.7188;1.3900;
-7.2000;0.7188;1.3924;
-6.9000;0.7171;1.3996;
-6.6000;0.7188;1.4045;
-6.3000;0.7212;1.4021;
-6.0000;0.7163;1.3996;
-5.7000;0.7163;1.4045;
-5.4000;0.7163;1.4141;
-5.1000;0.7171;1.4189;
-4.8000;0.7179;1.4237;
-4.5000;0.7188;1.4141;
-4.2000;0.7188;1.4093;
-3.9000;0.7188;1.4069;
-3.6000;0.7171;1.4045;
-3.3000;0.7179;1.4069;
-3.0000;0.7171;1.4045;
-2.7000;0.7179;1.4093;
-2.4000;0.7212;1.4093;
-2.1000;0.7220;1.4093;
-1.8000;0.7179;1.3972;
-1.5000;0.7163;1.3972;
-1.2000;0.7171;1.3972;
-0.9000;0.7236;1.4261;
-0.6000;0.7163;1.4045;
-0.3000;0.7179;1.4069;
0.0000;0.7179;1.4069;
0.3000;0.7481;1.3828;
0.6000;0.7855;1.4045;
0.9000;0.8221;1.4550;
1.2000;0.8457;1.4886;
1.5000;0.8628;1.5151;
1.8000;0.8864;1.5632;
2.1000;0.8970;1.5776;
2.4000;0.9092;1.5993;
2.7000;0.9174;1.6113;
3.0000;0.9288;1.6353;
3.3000;0.9345;1.6425;
3.6000;0.9451;1.6618;
3.9000;0.9491;1.6666;
4.2000;0.9630;1.6954;
4.5000;0.9630;1.6858;
4.8000;0.9678;1.6930;
5.1000;0.9735;1.6882;
5.4000;0.9784;1.6979;
5.7000;0.9760;1.6834;
6.0000;0.9849;1.6906;
6.3000;0.9874;1.6954;
6.6000;0.9939;1.6979;
6.9000;1.0020;1.7075;
7.2000;1.0004;1.7003;
7.5000;1.0004;1.7003;
7.8000;1.0061;1.7123;
8.1000;1.0102;1.7027;
8.4000;1.0118;1.7003;
8.7000;1.0118;1.6930;
9.0000;1.0183;1.6906;
9.3000;1.0216;1.6906;
9.6000;1.0232;1.6786;
9.9000;1.0273;1.6834;
10.2000;1.0281;1.6762;
10.5000;1.0338;1.6834;
10.8000;1.0338;1.6762;
11.1000;1.0354;1.6762;
11.4000;1.0387;1.6858;
11.7000;1.0419;1.6930;
12.0000;1.0419;1.6979;
12.3000;1.0435;1.6930;
12.6000;1.0444;1.6979;
12.9000;1.0476;1.7003;
13.2000;1.0492;1.6906;
13.5000;1.0492;1.6786;
13.8000;1.0517;1.6858;
14.1000;1.0541;1.6834;
14.4000;1.0566;1.6858;
14.7000;1.0647;1.7003;
15.0000;1.0590;1.6810;
15.3000;1.0606;1.6834;
15.6000;1.0623;1.6834;
15.9000;1.0639;1.6858;
16.2000;1.0631;1.6906;
16.5000;1.0663;1.6979;
16.8000;1.0663;1.6906;
17.1000;1.0688;1.6810;
17.4000;1.0688;1.6738;
17.7000;1.0696;1.6810;
18.0000;1.0688;1.6834;
18.3000;1.0729;1.6882;
18.6000;1.0729;1.6834;
18.9000;1.0712;1.6810;
19.2000;1.0737;1.6762;
19.5000;1.0704;1.6594;
19.8000;1.0769;1.6666;
20.1000;1.0761;1.6642;
20.4000;1.0777;1.6666;
20.7000;1.0777;1.6570;
21.0000;1.0761;1.6473;
21.3000;1.0777;1.6449;
21.6000;1.0818;1.6522;
21.9000;1.0851;1.6666;
22.2000;1.0802;1.6546;
22.5000;1.0818;1.6618;
22.8000;1.0777;1.6522;
23.1000;1.0867;1.6690;
23.4000;1.0842;1.6666;
23.7000;1.0818;1.6618;
24.0000;1.0851;1.6738;
24.3000;1.0842;1.6690;
24.6000;1.0867;1.6762;
24.9000;1.0842;1.6714;
25.2000;1.0859;1.6810;
25.5000;1.0859;1.6834;
25.8000;1.0940;1.7003;
26.1000;1.0867;1.6762;
26.4000;1.0948;1.6906;
26.7000;1.0891;1.6714;
27.0000;1.0883;1.6690;
27.3000;1.0883;1.6738;
27.6000;1.0859;1.6786;
27.9000;1.0891;1.6858;
28.2000;1.0908;1.6858;
28.5000;1.0908;1.6834;
28.8000;1.0916;1.6786;
29.1000;1.0956;1.6882;
29.4000;1.0883;1.6714;
29.7000;1.0891;1.6642;
30.0000;1.0899;1.6762;
30.3000;1.0932;1.6882;
30.6000;1.0924;1.6834;
30.9000;1.0924;1.6858;
31.2000;1.0940;1.6834;
31.5000;1.0924;1.6786;
31.8000;1.0965;1.6810;
32.1000;1.0965;1.6786;
32.4000;1.0956;1.6810;
32.7000;1.0940;1.6786;
33.0000;1.0956;1.6810;
33.3000;1.0948;1.6786;
33.6000;1.0948;1.6690;
33.9000;1.0956;1.6690;
34.2000;1.0932;1.6594;
34.5000;1.0956;1.6690;
34.8000;1.0940;1.6714;
35.1000;1.0973;1.6666;
35.4000;1.0875;1.6401;
35.7000;1.1005;1.6690;
36.0000;1.0965;1.6666;
36.3000;1.0973;1.6786;
36.6000;1.0956;1.6714;
36.9000;1.0997;1.6762;
37.2000;1.0981;1.6786;
37.5000;1.0973;1.6738;
37.8000;1.0989;1.6714;
38.1000;1.0981;1.6666;
38.4000;1.0973;1.6714;
38.7000;1.0989;1.6834;
39.0000;1.0981;1.6786;
39.3000;1.0997;1.6738;
39.6000;1.0973;1.6666;
39.9000;1.0997;1.6738;
40.2000;1.1038;1.6786;
40.5000;1.0981;1.6690;
40.8000;1.1005;1.6714;
41.1000;1.1054;1.6714;
41.4000;1.0997;1.6570;
41.7000;1.0997;1.6594;
42.0000;1.0965;1.6473;
42.3000;1.1005;1.6618;
42.6000;1.0997;1.6642;
42.9000;1.0989;1.6642;
43.2000;1.0989;1.6690;
43.5000;1.1070;1.6858;
43.8000;1.1005;1.6666;
44.1000;1.0989;1.6546;
44.4000;1.1005;1.6570;
44.7000;1.1022;1.6594;
45.0000;1.0940;1.6449;
45.3000;1.1013;1.6594;
45.6000;1.1054;1.6714;
45.9000;1.0997;1.6642;
46.2000;1.1030;1.6690;
46.5000;1.1022;1.6666;
46.8000;1.1005;1.6570;
47.1000;1.0981;1.6498;
47.4000;1.1013;1.6546;
47.7000;1.1030;1.6546;
48.0000;1.1013;1.6473;
48.3000;1.0997;1.6257;
48.6000;1.1030;1.6353;
48.9000;1.1070;1.6522;
49.2000;1.1022;1.6425;
49.5000;1.1046;1.6498;
49.8000;1.1038;1.6522;
50.1000;1.1030;1.6522;
50.4000;1.1030;1.6522;
50.7000;1.1054;1.6570;
51.0000;1.1054;1.6666;
51.3000;1.1054;1.6714;
51.6000;1.1022;1.6594;
51.9000;1.1038;1.6666;
52.2000;1.1038;1.6642;
52.5000;1.1054;1.6666;
52.8000;1.1038;1.6666;
53.1000;1.1030;1.6570;
53.4000;1.1038;1.6618;
53.7000;1.1046;1.6594;
54.0000;1.1030;1.6570;
54.3000;1.1030;1.6473;
54.6000;1.1030;1.6498;
54.9000;1.1038;1.6570;
55.2000;1.1046;1.6618;
55.5000;1.1038;1.6642;
55.8000;1.1022;1.6642;
56.1000;1.1038;1.6690;
56.4000;1.1038;1.6690;
56.7000;1.1046;1.6690;
57.0000;1.1038;1.6666;
57.3000;1.1054;1.6714;
57.6000;1.1030;1.6762;
57.9000;1.1046;1.6762;
58.2000;1.1030;1.6738;
58.5000;1.1062;1.6786;
58.8000;1.1054;1.6786;
59.1000;1.1030;1.6786;
59.4000;1.1054;1.6738;
59.7000;1.1046;1.6690;
60.0000;1.1054;1.6690;
60.3000;1.1046;1.6714;
60.6000;1.1079;1.6786;
60.9000;1.1038;1.6738;
61.2000;1.1070;1.6762;
61.5000;1.1095;1.6906;
61.8000;1.1062;1.6690;
62.1000;1.1046;1.6762;
62.4000;1.1054;1.6834;
62.7000;1.1046;1.6762;
63.0000;1.1038;1.6714;
63.3000;1.1046;1.6714;
63.6000;1.1038;1.6690;
63.9000;1.1038;1.6666;
64.2000;1.1046;1.6666;
64.5000;1.1013;1.6522;
64.8000;1.1070;1.6690;
65.1000;1.1070;1.6714;
65.4000;1.1070;1.6570;
65.7000;1.1054;1.6449;
66.0000;1.1079;1.6546;
66.3000;1.1046;1.6425;
66.6000;1.1038;1.6401;
66.9000;1.1038;1.6498;
67.2000;1.1062;1.6642;
67.5000;1.1054;1.6666;
67.8000;1.1054;1.6642;
68.1000;1.1079;1.6714;
68.4000;1.1046;1.6738;
68.7000;1.1062;1.6786;
69.0000;1.1087;1.6882;
69.3000;1.1046;1.6810;
69.6000;1.1054;1.6786;
69.9000;1.1054;1.6834;
70.2000;1.1046;1.6858;
70.5000;1.1062;1.6834;
70.8000;1.1046;1.6738;
71.1000;1.1054;1.6666;
71.4000;1.1054;1.6714;
71.7000;1.1079;1.6762;
72.0000;1.1054;1.6810;
72.3000;1.1038;1.6738;
72.6000;1.1079;1.6786;
72.9000;1.1046;1.6618;
73.2000;1.1046;1.6546;
73.5000;1.1054;1.6498;
73.8000;1.1062;1.6498;
74.1000;1.1070;1.6546;
74.4000;1.1046;1.6449;
74.7000;1.1079;1.6522;
75.0000;1.1062;1.6498;
75.3000;1.1070;1.6473;
75.6000;1.1087;1.6570;
75.9000;1.1062;1.6570;
76.2000;1.1054;1.6594;
76.5000;1.1062;1.6618;
76.8000;1.1062;1.6618;
77.1000;1.1054;1.6594;
77.4000;1.1119;1.6714;
77.7000;1.1070;1.6594;
78.0000;1.1070;1.6642;
78.3000;1.1054;1.6618;
78.6000;1.1070;1.6666;
78.9000;1.1054;1.6618;
79.2000;1.1062;1.6570;
79.5000;1.1046;1.6473;
79.8000;1.1046;1.6449;
80.1000;1.0981;1.6257;
80.4000;1.1062;1.6498;
80.7000;1.1062;1.6425;
81.0000;1.1079;1.6449;
81.3000;1.1054;1.6498;
81.6000;1.1070;1.6570;
81.9000;1.1054;1.6546;
82.2000;1.1070;1.6498;
82.5000;1.1038;1.6473;
82.8000;1.1062;1.6594;
83.1000;1.1062;1.6594;
83.4000;1.1054;1.6498;
83.7000;1.1046;1.6473;
84.0000;1.1054;1.6498;
84.3000;1.1070;1.6546;
84.6000;1.1046;1.6498;
84.9000;1.1062;1.6498;
85.2000;1.1046;1.6449;
85.5000;1.1070;1.6498;
85.8000;1.1062;1.6473;
86.1000;1.1070;1.6570;
86.4000;1.1046;1.6522;
86.7000;1.1022;1.6498;
87.0000;1.1054;1.6618;
87.3000;1.0965;1.6377;
87.6000;1.1046;1.6666;
87.9000;1.1062;1.6642;
88.2000;1.1070;1.6642;
88.5000;1.1062;1.6642;
88.8000;1.1070;1.6690;
89.1000;1.1070;1.6786;
89.4000;1.1046;1.6666;
89.7000;1.1062;1.6570;
90.0000;1.1062;1.6546;
90.3000;1.1070;1.6690;
90.6000;1.1062;1.6714;
90.9000;1.1079;1.6762;
91.2000;1.1079;1.6810;
91.5000;1.1046;1.6810;
91.8000;1.1038;1.6762;
92.1000;1.1062;1.6786;
92.4000;1.1070;1.6810;
92.7000;1.1062;1.6834;
93.0000;1.1062;1.6834;
93.3000;1.1046;1.6858;
93.6000;1.1046;1.6762;
93.9000;1.1087;1.6714;
94.2000;1.1022;1.6570;
94.5000;1.1046;1.6690;
94.8000;1.1062;1.6738;
95.1000;1.1054;1.6642;
95.4000;1.1054;1.6666;
95.7000;1.0997;1.6594;
96.0000;1.1079;1.6786;
96.3000;1.1087;1.6714;
96.6000;1.1095;1.6738;
96.9000;1.1079;1.6642;
97.2000;1.1030;1.6449;
97.5000;1.1070;1.6546;
97.8000;1.1087;1.6618;
98.1000;1.1087;1.6642;
98.4000;1.1111;1.6762;
98.7000;1.1079;1.6714;
99.0000;1.1079;1.6690;
99.3000;1.1079;1.6666;
99.6000;1.1079;1.6714;
99.9000;1.1062;1.6618;
100.2000;1.1062;1.6498;
100.5000;1.1111;1.6714;
100.8000;1.1087;1.6786;
101.1000;1.1087;1.6786;
101.4000;1.1160;1.7099;
101.7000;1.1062;1.6882;
102.0000;1.1046;1.6834;
102.3000;1.1062;1.6906;
102.6000;1.1062;1.6834;
102.9000;1.1079;1.6882;
103.2000;1.1087;1.6810;
103.5000;1.1087;1.6762;
103.8000;1.1095;1.6666;
104.1000;1.1087;1.6666;
104.4000;1.1079;1.6618;
104.7000;1.1087;1.6618;
105.0000;1.1079;1.6546;
105.3000;1.1079;1.6570;
105.6000;1.1054;1.6570;
105.9000;1.1054;1.6522;
106.2000;1.1079;1.6570;
106.5000;1.1168;1.6906;
106.8000;1.1070;1.6642;
107.1000;1.1070;1.6642;
107.4000;1.1079;1.6666;
107.7000;1.1054;1.6570;
108.0000;1.1054;1.6642;
108.3000;1.1095;1.6738;
108.6000;1.1038;1.6570;
108.9000;1.1054;1.6546;
109.2000;1.1062;1.6570;
109.5000;1.1079;1.6666;
109.8000;1.1079;1.6690;
110.1000;1.1079;1.6570;
110.4000;1.1046;1.6546;
110.7000;1.1095;1.6570;
111.0000;1.1062;1.6522;
111.3000;1.0973;1.6305;
111.6000;1.1070;1.6473;
111.9000;1.1046;1.6377;
112.2000;1.1111;1.6449;
112.5000;1.1038;1.6209;
112.8000;1.1070;1.6401;
113.1000;1.1070;1.6522;
113.4000;1.1062;1.6618;
113.7000;1.1038;1.6618;
114.0000;1.1054;1.6642;
114.3000;1.1046;1.6642;
114.6000;1.1062;1.6570;
114.9000;1.1136;1.6738;
115.2000;1.1070;1.6498;
115.5000;1.1079;1.6594;
115.8000;1.1005;1.6425;
116.1000;1.1087;1.6666;
116.4000;1.1022;1.6522;
116.7000;1.1054;1.6642;
117.0000;1.1103;1.6810;
117.3000;1.1087;1.6786;
117.6000;1.1087;1.6762;
117.9000;1.1079;1.6738;
118.2000;1.1079;1.6738;
118.5000;1.1070;1.6738;
118.8000;1.1176;1.6930;
119.1000;1.1062;1.6666;
119.4000;1.1079;1.6666;
119.7000;1.1095;1.6618;
120.0000;1.1079;1.6570;
120.3000;1.1054;1.6522;
120.6000;1.1070;1.6522;
120.9000;1.1070;1.6546;
121.2000;1.1087;1.6522;
121.5000;1.1070;1.6522;
121.8000;1.1070;1.6618;
122.1000;1.1054;1.6618;
122.4000;1.1087;1.6618;
122.7000;1.1070;1.6594;
123.0000;1.1062;1.6642;
123.3000;1.1054;1.6642;
123.6000;1.1062;1.6690;
123.9000;1.1062;1.6690;
124.2000;1.1054;1.6642;
124.5000;1.1062;1.6594;
124.8000;1.1070;1.6618;
125.1000;1.1079;1.6690;
125.4000;1.1013;1.6594;
125.7000;1.1046;1.6762;
126.0000;1.1062;1.6738;
126.3000;1.1054;1.6666;
126.6000;1.1136;1.6762;
126.9000;1.1070;1.6738;
127.2000;1.1070;1.6810;
127.5000;1.1070;1.6810;
127.8000;1.1079;1.6858;
128.1000;1.1070;1.6762;
128.4000;1.1070;1.6690;
128.7000;1.1070;1.6690;
129.0000;1.1070;1.6714;
129.3000;1.1054;1.6690;
129.6000;1.1079;1.6690;
129.9000;1.1062;1.6594;
130.2000;1.1070;1.6570;
130.5000;1.1062;1.6594;
130.8000;1.1062;1.6594;
131.1000;1.1079;1.6738;
131.4000;1.1079;1.6786;
131.7000;1.1038;1.6666;
132.0000;1.1070;1.6738;
132.3000;1.1087;1.6762;
132.6000;1.1111;1.6834;
132.9000;1.1079;1.6714;
133.2000;1.1070;1.6666;
133.5000;1.1062;1.6522;
133.8000;1.1079;1.6618;
134.1000;1.1079;1.6666;
134.4000;1.1070;1.6666;
134.7000;1.1022;1.6594;
135.0000;1.1070;1.6762;
135.3000;1.1070;1.6738;
135.6000;1.1062;1.6690;
135.9000;1.1054;1.6666;
136.2000;1.1070;1.6738;
136.5000;1.1070;1.6690;
136.8000;1.1030;1.6618;
137.1000;1.1054;1.6594;
137.4000;1.1079;1.6618;
137.7000;1.1079;1.6690;
138.0000;1.1079;1.6666;
138.3000;1.1062;1.6714;
138.6000;1.1087;1.6786;
138.9000;1.1070;1.6762;
139.2000;1.1038;1.6714;
139.5000;1.1046;1.6690;
139.8000;1.1062;1.6738;
140.1000;1.1054;1.6666;
140.4000;1.1079;1.6810;
140.7000;1.1054;1.6762;
141.0000;1.1054;1.6762;
141.3000;1.1054;1.6762;
141.6000;1.1152;1.7051;
141.9000;1.1070;1.6738;
142.2000;1.1062;1.6762;
142.5000;1.1087;1.6762;
142.8000;1.1070;1.6738;
143.1000;1.1070;1.6762;
143.4000;1.1070;1.6642;
143.7000;1.1054;1.6570;
144.0000;1.1070;1.6594;
144.3000;1.1079;1.6642;
144.6000;1.1062;1.6618;
144.9000;1.1070;1.6618;
145.2000;1.1070;1.6690;
145.5000;1.1054;1.6714;
145.8000;1.1046;1.6786;
146.1000;1.1070;1.6858;
146.4000;1.1046;1.6858;
146.7000;1.1054;1.6882;
147.0000;1.1062;1.6882;
147.3000;1.1054;1.6810;
147.6000;1.1062;1.6762;
147.9000;1.1054;1.6738;
148.2000;1.1054;1.6714;
148.5000;1.1046;1.6618;
148.8000;1.1054;1.6714;
149.1000;1.1054;1.6714;
149.4000;1.1054;1.6786;
149.7000;1.1070;1.6858;
150.0000;1.1070;1.6882;
150.3000;1.1070;1.6882;
150.6000;1.1079;1.6810;
150.9000;1.1062;1.6762;
151.2000;1.1030;1.6690;
151.5000;1.1070;1.6690;
151.8000;1.1079;1.6690;
152.1000;1.1079;1.6666;
152.4000;1.1087;1.6738;
152.7000;1.1046;1.6714;
153.0000;1.1087;1.6834;
153.3000;1.1070;1.6762;
153.6000;1.1070;1.6810;
153.9000;1.1070;1.6834;
154.2000;1.1046;1.6906;
154.5000;1.1070;1.6858;
154.8000;1.1054;1.6882;
155.1000;1.1062;1.6810;
155.4000;1.1070;1.6858;
155.7000;1.1062;1.6786;
156.0000;1.1030;1.6738;
156.3000;1.1046;1.6690;
156.6000;1.1127;1.6810;
156.9000;1.1030;1.6594;
157.2000;1.1062;1.6714;
157.5000;1.1070;1.6666;
157.8000;1.1046;1.6642;
158.1000;1.1079;1.6834;
158.4000;1.1030;1.6738;
158.7000;1.1054;1.6786;
159.0000;1.1046;1.6786;
159.3000;1.1046;1.6786;
159.6000;1.1022;1.6762;
159.9000;1.1046;1.6810;
160.2000;1.1062;1.6834;
160.5000;1.1062;1.6738;
160.8000;1.1062;1.6738;
161.1000;1.1046;1.6642;
161.4000;1.1054;1.6666;
161.7000;1.1062;1.6666;
162.0000;1.1062;1.6714;
162.3000;1.1062;1.6618;
162.6000;1.1119;1.6690;
162.9000;1.1079;1.6642;
163.2000;1.1005;1.6425;
163.5000;1.1038;1.6618;
163.8000;1.1054;1.6618;
164.1000;1.1062;1.6642;
164.4000;1.1062;1.6666;
164.7000;1.1062;1.6714;
165.0000;1.1062;1.6714;
165.3000;1.1054;1.6594;
165.6000;1.1070;1.6642;
165.9000;1.1160;1.6906;
166.2000;1.1070;1.6714;
166.5000;1.1046;1.6642;
166.8000;1.1046;1.6714;
167.1000;1.0956;1.6473;
167.4000;1.1054;1.6594;
167.7000;1.1062;1.6498;
168.0000;1.1062;1.6522;
168.3000;1.1095;1.6690;
168.6000;1.1062;1.6618;
168.9000;1.1062;1.6690;
169.2000;1.1062;1.6738;
169.5000;1.1087;1.6834;
169.8000;1.1062;1.6834;
170.1000;1.1062;1.6762;
170.4000;1.1062;1.6786;
170.7000;1.1070;1.6810;
171.0000;1.1095;1.6858;
171.3000;1.1079;1.6762;
171.6000;1.1095;1.6738;
171.9000;1.1070;1.6690;
172.2000;1.1079;1.6690;
172.5000;1.1079;1.6666;
172.8000;1.1054;1.6594;
173.1000;1.1087;1.6666;
173.4000;1.1079;1.6714;
173.7000;1.1038;1.6618;
174.0000;1.1062;1.6618;
174.3000;1.1079;1.6690;
174.6000;1.1095;1.6738;
174.9000;1.1062;1.6690;
175.2000;1.1038;1.6618;
175.5000;1.1062;1.6618;
175.8000;1.1046;1.6618;
176.1000;1.1062;1.6786;
176.4000;1.1046;1.6738;
176.7000;1.1062;1.6786;
177.0000;1.1046;1.6738;
177.3000;1.1087;1.6810;
177.6000;1.1062;1.6762;
177.9000;1.1062;1.6810;
178.2000;1.1070;1.6882;
178.5000;1.1038;1.6738;
178.8000;1.0997;1.6666;
179.1000;1.1095;1.6930;
179.4000;1.1046;1.6834;
179.7000;1.1062;1.6834;
180.0000;1.1038;1.6834;
180.3000;1.1054;1.6810;
180.6000;1.1046;1.6762;
180.9000;1.1103;1.7027;
181.2000;1.1062;1.6882;
181.5000;1.1038;1.6786;
181.8000;1.1030;1.6762;
182.1000;1.1046;1.6786;
182.4000;1.1038;1.6834;
182.7000;1.1054;1.6858;
183.0000;1.1046;1.6762;
183.3000;1.1062;1.6786;
183.6000;1.1046;1.6738;
183.9000;1.1054;1.6738;
184.2000;1.1079;1.6810;
184.5000;1.1054;1.6738;
184.8000;1.1046;1.6714;
185.1000;1.1030;1.6714;
185.4000;1.1062;1.6738;
185.7000;1.1046;1.6738;
186.0000;1.1070;1.6786;
186.3000;1.1062;1.6786;
186.6000;1.1046;1.6642;
186.9000;1.1046;1.6618;
187.2000;1.1111;1.6762;
187.5000;1.1046;1.6618;
187.8000;1.1119;1.6834;
188.1000;1.1062;1.6762;
188.4000;1.1046;1.6906;
188.7000;1.1054;1.7003;
189.0000;1.1046;1.6979;
189.3000;1.1054;1.6882;
189.6000;1.1054;1.6810;
189.9000;1.1022;1.6810;
190.2000;1.1054;1.6858;
190.5000;1.1062;1.6786;
190.8000;1.1038;1.6714;
191.1000;1.1070;1.6762;
191.4000;1.1046;1.6714;
191.7000;1.1079;1.6762;
192.0000;1.1054;1.6666;
192.3000;1.1054;1.6642;
192.6000;1.1095;1.6762;
192.9000;1.1054;1.6762;
193.2000;1.1062;1.6714;
193.5000;1.1054;1.6666;
193.8000;1.1054;1.6738;
194.1000;1.1062;1.6762;
194.4000;1.1062;1.6762;
194.7000;1.1070;1.6738;
195.0000;1.1054;1.6666;
195.3000;1.1062;1.6666;
195.6000;1.1054;1.6642;
195.9000;1.1038;1.6714;
196.2000;1.1054;1.6786;
196.5000;1.1030;1.6642;
196.8000;1.1054;1.6618;
197.1000;1.1046;1.6594;
197.4000;1.1062;1.6690;
197.7000;1.1054;1.6810;
198.0000;1.1070;1.6882;
198.3000;1.1054;1.6762;
198.6000;1.1054;1.6738;
198.9000;1.1054;1.6762;
199.2000;1.1046;1.6762;
199.5000;1.1030;1.6714;
199.8000;1.1046;1.6786;
200.1000;1.1062;1.6810;
200.4000;1.1046;1.6810;
200.7000;1.1095;1.6930;
201.0000;1.1046;1.6786;
201.3000;1.1046;1.6786;
201.6000;1.1087;1.6786;
201.9000;1.1030;1.6618;
202.2000;1.1030;1.6738;
202.5000;1.1046;1.6834;
202.8000;1.1038;1.6810;
203.1000;1.1038;1.6834;
203.4000;1.1046;1.6834;
203.7000;1.1038;1.6882;
204.0000;1.1111;1.7003;
204.3000;1.1062;1.6954;
204.6000;1.1038;1.6810;
204.9000;1.1038;1.6666;
205.2000;1.1046;1.6642;
205.5000;1.1054;1.6594;
205.8000;1.1046;1.6618;
206.1000;1.1087;1.6738;
206.4000;1.1054;1.6690;
206.7000;1.1046;1.6618;
207.0000;1.0981;1.6425;
207.3000;1.1054;1.6546;
207.6000;1.1062;1.6594;
207.9000;1.1062;1.6618;
208.2000;1.1079;1.6618;
208.5000;1.1062;1.6666;
208.8000;1.1079;1.6810;
209.1000;1.1046;1.6810;
209.4000;1.1046;1.6786;
209.7000;1.1054;1.6882;
210.0000;1.1111;1.7027;
210.3000;1.1079;1.6858;
210.6000;1.1046;1.6738;
210.9000;1.0948;1.6473;
211.2000;1.1038;1.6762;
211.5000;1.0997;1.6714;
211.8000;1.1062;1.6810;
212.1000;1.1046;1.6762;
212.4000;1.1046;1.6810;
212.7000;1.1054;1.6810;
213.0000;1.1038;1.6762;
213.3000;1.0997;1.6714;
213.6000;1.1054;1.6810;
213.9000;1.1046;1.6858;
214.2000;1.1046;1.6858;
214.5000;1.1046;1.6882;
214.8000;1.1038;1.6906;
215.1000;1.1046;1.6906;
215.4000;1.1046;1.6810;
215.7000;1.1054;1.6738;
216.0000;1.0997;1.6546;
216.3000;1.1103;1.6882;
216.6000;1.1062;1.6666;
216.9000;1.1030;1.6618;
217.2000;1.1038;1.6642;
217.5000;1.1046;1.6594;
217.8000;1.1054;1.6618;
218.1000;1.1062;1.6690;
218.4000;1.0948;1.6425;
218.7000;1.1038;1.6738;
219.0000;1.1054;1.6834;
219.3000;1.1062;1.6810;
219.6000;1.1054;1.6714;
219.9000;1.1030;1.6786;
220.2000;1.1062;1.6762;
220.5000;1.1054;1.6762;
220.8000;1.1054;1.6834;
221.1000;1.1054;1.6834;
221.4000;1.1054;1.6786;
221.7000;1.1062;1.6834;
222.0000;1.1038;1.6762;
222.3000;1.1054;1.6810;
222.6000;1.1062;1.7003;
222.9000;1.1054;1.6930;
223.2000;1.1030;1.6858;
223.5000;1.1054;1.6882;
223.8000;1.1038;1.6882;
224.1000;1.1054;1.6858;
224.4000;1.1054;1.6810;
224.7000;1.1038;1.6762;
225.0000;1.1030;1.6738;
225.3000;1.1046;1.6834;
225.6000;1.1013;1.6690;
225.9000;1.1046;1.6786;
226.2000;1.1046;1.6786;
226.5000;1.1038;1.6738;
226.8000;1.1046;1.6690;
227.1000;1.1062;1.6762;
227.4000;1.1062;1.6666;
227.7000;1.1046;1.6594;
228.0000;1.1030;1.6594;
228.3000;1.1062;1.6714;
228.6000;1.1062;1.6642;
228.9000;1.1046;1.6618;
229.2000;1.1046;1.6666;
229.5000;1.1030;1.6666;
229.8000;1.1054;1.6786;
230.1000;1.1038;1.6690;
230.4000;1.1054;1.6690;
230.7000;1.1022;1.6642;
231.0000;1.1070;1.6642;
231.3000;1.1030;1.6666;
231.6000;1.1046;1.6762;
231.9000;1.1054;1.6786;
232.2000;1.1046;1.6858;
232.5000;1.1038;1.6738;
232.8000;1.0940;1.6522;
233.1000;1.1038;1.6738;
233.4000;1.1038;1.6690;
233.7000;1.0997;1.6642;
234.0000;1.0997;1.6594;
234.3000;1.1038;1.6738;
234.6000;1.1070;1.6858;
234.9000;1.1038;1.6810;
235.2000;1.1038;1.6738;
235.5000;1.1054;1.6762;
235.8000;1.1054;1.6786;
236.1000;1.1119;1.6882;
236.4000;1.1030;1.6642;
236.7000;1.1022;1.6666;
237.0000;1.1054;1.6714;
237.3000;1.1038;1.6690;
237.6000;1.1038;1.6714;
237.9000;1.1022;1.6714;
238.2000;1.1054;1.6786;
238.5000;1.1038;1.6762;
238.8000;1.1046;1.6858;
239.1000;1.1046;1.6810;
239.4000;1.1062;1.6834;
239.7000;1.1119;1.6979;
240.0000;1.1038;1.6858;
240.3000;1.1095;1.7051;
240.6000;1.1038;1.6834;
240.9000;1.1054;1.6810;
241.2000;1.1013;1.6714;
241.5000;1.1046;1.6810;
241.8000;1.1038;1.6738;
242.1000;1.1005;1.6690;
242.4000;1.1038;1.6834;
242.7000;1.1046;1.6762;
243.0000;1.1030;1.6762;
243.3000;1.1046;1.6786;
243.6000;1.1111;1.6882;
243.9000;1.1062;1.6738;
244.2000;1.1038;1.6618;
244.5000;1.1046;1.6690;
244.8000;1.1054;1.6714;
245.1000;1.1030;1.6522;
245.4000;1.1005;1.6498;
245.7000;1.1038;1.6546;
246.0000;1.1054;1.6618;
246.3000;1.1054;1.6690;
246.6000;1.1054;1.6666;
246.9000;1.1038;1.6570;
247.2000;1.1062;1.6714;
247.5000;1.1030;1.6642;
247.8000;1.1030;1.6690;
248.1000;1.1022;1.6714;
248.4000;1.1054;1.6786;
248.7000;1.1062;1.6762;
249.0000;1.1046;1.6642;
249.3000;1.1046;1.6666;
249.6000;1.1013;1.6618;
249.9000;1.1054;1.6714;
250.2000;1.0997;1.6642;
250.5000;1.1046;1.6738;
250.8000;1.1046;1.6642;
251.1000;1.1030;1.6594;
251.4000;1.1054;1.6594;
251.7000;1.1119;1.6690;
252.0000;1.1046;1.6546;
252.3000;1.1038;1.6618;
252.6000;1.1046;1.6618;
252.9000;1.1054;1.6594;
253.2000;1.1054;1.6642;
253.5000;1.1038;1.6570;
253.8000;1.1054;1.6546;
254.1000;1.1103;1.6690;
254.4000;1.1046;1.6642;
254.7000;1.1013;1.6594;
255.0000;1.1054;1.6642;
255.3000;1.1038;1.6642;
255.6000;1.1030;1.6570;
255.9000;1.1038;1.6714;
256.2000;1.1046;1.6882;
256.5000;1.1005;1.6906;
256.8000;1.1013;1.6954;
257.1000;1.1046;1.6930;
257.4000;1.1046;1.6834;
257.7000;1.1030;1.6786;
258.0000;1.1062;1.6786;
258.3000;1.1030;1.6810;
258.6000;1.1038;1.6834;
258.9000;1.1038;1.6810;
259.2000;1.1046;1.6810;
259.5000;1.1030;1.6810;
259.8000;1.1046;1.6882;
260.1000;1.1046;1.6858;
260.4000;1.1030;1.6786;
260.7000;1.1062;1.6834;
261.0000;1.1030;1.6810;
261.3000;1.1054;1.6906;
261.6000;1.1070;1.6979;
261.9000;1.1046;1.7003;
262.2000;1.1079;1.7027;
262.5000;1.1046;1.7027;
262.8000;1.1054;1.7003;
263.1000;1.1038;1.6930;
263.4000;1.1054;1.6906;
263.7000;1.1038;1.6858;
264.0000;1.1046;1.6810;
264.3000;1.1046;1.6810;
264.6000;1.1062;1.6834;
264.9000;1.1054;1.6810;
265.2000;1.1062;1.6834;
265.5000;1.0965;1.6522;
265.8000;1.1038;1.6690;
266.1000;1.1054;1.6762;
266.4000;1.1038;1.6810;
266.7000;1.1054;1.6954;
267.0000;1.0973;1.6738;
267.3000;1.1038;1.6858;
267.6000;1.0973;1.6666;
267.9000;1.1038;1.6834;
268.2000;1.1022;1.6786;
268.5000;1.1054;1.6906;
268.8000;1.1062;1.6906;
269.1000;1.1030;1.6954;
269.4000;1.1022;1.6882;
269.7000;1.1022;1.6979;
270.0000;1.1030;1.7123;
270.3000;1.1046;1.7171;
270.6000;1.1013;1.7075;
270.9000;1.1095;1.7195;
271.2000;1.1046;1.7027;
271.5000;1.1038;1.7027;
271.8000;1.1030;1.7027;
272.1000;1.1038;1.7027;
272.4000;1.1038;1.7075;
272.7000;1.1087;1.7075;
273.0000;1.1046;1.6930;
273.3000;1.1046;1.6882;
273.6000;1.1095;1.6930;
273.9000;1.1070;1.6834;
274.2000;1.1046;1.6786;
274.5000;1.1038;1.6786;
274.8000;1.1030;1.6738;
275.1000;1.1046;1.6834;
275.4000;1.1038;1.6906;
275.7000;1.0973;1.6762;
276.0000;1.1013;1.6834;
276.3000;1.1038;1.6858;
276.6000;1.1030;1.6834;
276.9000;1.1070;1.6906;
277.2000;1.1030;1.6882;
277.5000;1.1062;1.7099;
277.8000;1.1054;1.7123;
278.1000;1.1038;1.6979;
278.4000;1.1022;1.7003;
278.7000;1.1038;1.7027;
279.0000;1.1030;1.7051;
279.3000;1.1046;1.7051;
279.6000;1.1038;1.7027;
279.9000;1.1013;1.7003;
280.2000;1.1062;1.7075;
280.5000;1.1054;1.7171;
280.8000;1.1046;1.7243;
281.1000;1.1022;1.7195;
281.4000;1.1013;1.7219;
281.7000;1.1046;1.7291;
282.0000;1.1022;1.7171;
282.3000;1.1022;1.7219;
282.6000;1.1046;1.7219;
282.9000;1.1038;1.7243;
283.2000;1.0989;1.7051;
283.5000;1.1005;1.7195;
283.8000;1.1046;1.7195;
284.1000;1.1030;1.7123;
284.4000;1.1038;1.7003;
284.7000;1.1046;1.7051;
285.0000;1.1030;1.6979;
285.3000;1.1046;1.6954;
285.6000;1.1046;1.6882;
285.9000;1.1046;1.6930;
286.2000;1.1038;1.6906;
286.5000;1.1095;1.7075;
286.8000;1.1046;1.6979;
287.1000;1.1038;1.6954;
287.4000;1.1054;1.6930;
287.7000;1.1046;1.6954;
288.0000;1.1062;1.7003;
288.3000;1.1013;1.6930;
288.6000;1.1030;1.6954;
288.9000;1.1070;1.6954;
289.2000;1.1054;1.6930;
289.5000;1.1046;1.6882;
289.8000;1.1038;1.6834;
290.1000;1.1038;1.6810;
290.4000;1.1062;1.6858;
290.7000;1.1070;1.6762;
291.0000;1.1046;1.6666;
291.3000;1.1054;1.6618;
291.6000;1.1046;1.6714;
291.9000;1.1054;1.6786;
292.2000;1.1046;1.6690;
292.5000;1.1038;1.6738;
292.8000;1.1038;1.6834;
293.1000;1.1030;1.6714;
293.4000;1.1046;1.6738;
293.7000;1.1022;1.6666;
294.0000;1.1046;1.6738;
294.3000;1.1038;1.6834;
294.6000;1.1038;1.6858;
294.9000;1.1046;1.6834;
295.2000;1.1013;1.6810;
295.5000;1.1038;1.6858;
295.8000;1.1046;1.6906;
296.1000;1.1030;1.6882;
296.4000;1.1038;1.6786;
296.7000;1.1038;1.6786;
297.0000;1.1030;1.6762;
297.3000;1.0989;1.6738;
297.6000;1.1013;1.6738;
297.9000;1.1030;1.6666;
298.2000;1.1013;1.6642;
298.5000;1.1005;1.6522;
298.8000;1.1022;1.6618;
299.1000;1.1038;1.6618;
299.4000;1.1070;1.6714;
299.7000;1.0997;1.6498;
300.0000;1.1038;1.6690;
300.3000;1.0940;1.6473;
300.6000;1.1046;1.6762;
300.9000;1.1038;1.6690;
301.2000;1.0997;1.6714;
301.5000;1.1030;1.6738;
301.8000;1.1030;1.6786;
302.1000;1.1046;1.6810;
302.4000;1.1079;1.6858;
302.7000;1.1022;1.6762;
303.0000;1.1030;1.6762;
303.3000;1.0997;1.6642;
303.6000;1.1038;1.6762;
303.9000;1.1038;1.6762;
304.2000;1.1038;1.6762;
304.5000;1.1038;1.6762;
304.8000;1.1038;1.6738;
305.1000;1.1030;1.6786;
305.4000;1.1046;1.6834;
305.7000;1.1030;1.6906;
306.0000;1.1030;1.6786;
306.3000;1.1038;1.6690;
306.6000;1.1038;1.6618;
306.9000;1.1046;1.6594;
307.2000;1.0997;1.6449;
307.5000;1.1030;1.6473;
307.8000;1.1030;1.6522;
308.1000;1.1054;1.6714;
308.4000;1.1013;1.6642;
308.7000;1.1046;1.6690;
309.0000;1.1013;1.6642;
309.3000;1.1054;1.6714;
309.6000;1.1038;1.6666;
309.9000;1.1046;1.6618;
310.2000;1.1079;1.6618;
310.5000;1.1030;1.6498;
310.8000;1.1054;1.6498;
311.1000;1.1046;1.6473;
311.4000;1.1030;1.6473;
311.7000;1.1070;1.6594;
312.0000;1.1022;1.6546;
312.3000;1.1013;1.6522;
312.6000;1.1013;1.6498;
312.9000;1.1022;1.6570;
313.2000;1.1030;1.6666;
313.5000;1.1030;1.6642;
313.8000;1.1030;1.6546;
314.1000;1.1005;1.6498;
314.4000;1.1030;1.6642;
314.7000;1.1046;1.6786;
315.0000;1.1030;1.6738;
315.3000;1.1054;1.6786;
315.6000;1.1022;1.6738;
315.9000;1.1054;1.6834;
316.2000;1.1030;1.6834;
316.5000;1.1030;1.6834;
316.8000;1.1030;1.6786;
317.1000;1.1013;1.6762;
317.4000;1.1038;1.6834;
317.7000;1.1013;1.6738;
318.0000;1.1022;1.6786;
318.3000;1.1038;1.6762;
318.6000;1.1046;1.6786;
318.9000;1.1013;1.6762;
319.2000;1.1022;1.6834;
319.5000;1.0997;1.6786;
319.8000;1.1046;1.6834;
320.1000;1.1030;1.6786;
320.4000;1.1022;1.6810;
320.7000;1.0989;1.6666;
321.0000;1.1030;1.6834;
321.3000;1.1022;1.6834;
321.6000;1.1005;1.6810;
321.9000;1.1022;1.6834;
322.2000;1.1022;1.6810;
322.5000;1.1022;1.6810;
322.8000;1.1030;1.6762;
323.1000;1.1022;1.6810;
323.4000;1.1022;1.6810;
323.7000;1.1046;1.6834;
324.0000;1.1022;1.6786;
324.3000;1.1005;1.6714;
324.6000;1.1038;1.6762;
324.9000;1.1152;1.6882;
325.2000;1.1038;1.6690;
325.5000;1.1054;1.6666;
325.8000;1.1046;1.6762;
326.1000;1.1030;1.6714;
326.4000;1.1022;1.6642;
326.7000;1.1013;1.6642;
327.0000;1.1022;1.6642;
327.3000;1.0997;1.6546;
327.6000;1.1013;1.6522;
327.9000;1.1022;1.6546;
328.2000;1.1005;1.6425;
328.5000;1.1087;1.6570;
328.8000;1.1087;1.6570;
329.1000;1.0989;1.6305;
329.4000;1.1079;1.6642;
329.7000;1.1022;1.6522;
330.0000;1.1022;1.6546;
330.3000;1.1054;1.6666;
330.6000;1.1030;1.6690;
330.9000;1.1022;1.6618;
331.2000;1.1030;1.6618;
331.5000;1.1013;1.6570;
331.8000;1.1022;1.6594;
332.1000;1.0981;1.6546;
332.4000;1.0997;1.6618;
332.7000;1.1013;1.6666;
333.0000;1.0956;1.6498;
333.3000;1.0948;1.6546;
333.6000;1.1030;1.6762;
333.9000;1.1022;1.6738;
334.2000;1.1079;1.6786;
334.5000;1.1005;1.6546;
334.8000;1.1013;1.6618;
335.1000;1.1022;1.6618;
335.4000;1.1022;1.6642;
335.7000;1.1038;1.6618;
336.0000;1.1005;1.6498;
336.3000;1.1038;1.6570;
336.6000;1.1005;1.6570;
336.9000;1.1013;1.6594;
337.2000;1.1005;1.6642;
337.5000;1.1030;1.6642;
337.8000;1.1038;1.6594;
338.1000;1.1013;1.6522;
338.4000;1.1013;1.6473;
338.7000;1.1022;1.6570;
339.0000;1.1038;1.6570;
339.3000;1.1030;1.6546;
339.6000;1.1013;1.6473;
339.9000;1.1062;1.6714;
340.2000;1.1022;1.6594;
340.5000;1.1030;1.6594;
340.8000;1.1030;1.6690;
341.1000;1.1030;1.6642;
341.4000;1.1005;1.6618;
341.7000;1.1013;1.6690;
342.0000;1.0981;1.6498;
342.3000;1.1013;1.6618;
342.6000;1.1022;1.6666;
342.9000;1.1022;1.6666;
343.2000;1.1013;1.6666;
343.5000;1.1054;1.6738;
343.8000;1.1046;1.6690;
344.1000;1.1038;1.6714;
344.4000;1.1062;1.6690;
344.7000;1.1030;1.6666;
345.0000;1.1030;1.6666;
345.3000;1.1046;1.6666;
345.6000;1.1022;1.6690;
345.9000;1.1030;1.6762;
346.2000;1.1022;1.6738;
346.5000;1.1030;1.6762;
346.8000;1.1046;1.6714;
347.1000;1.1013;1.6570;
347.4000;1.1087;1.6834;
347.7000;1.1046;1.6786;
348.0000;1.1030;1.6786;
348.3000;1.0989;1.6666;
348.6000;1.1013;1.6666;
348.9000;1.0989;1.6666;
349.2000;1.1038;1.6810;
349.5000;1.1079;1.6786;
349.8000;1.1070;1.6666;
350.1000;1.1030;1.6546;
350.4000;1.1005;1.6522;
350.7000;1.1022;1.6618;
351.0000;1.1022;1.6642;
351.3000;1.1013;1.6666;
351.6000;1.1013;1.6642;
351.9000;1.1013;1.6690;
352.2000;1.1022;1.6714;
352.5000;1.1022;1.6810;
352.8000;1.1079;1.6906;
353.1000;1.0916;1.6449;
353.4000;1.1013;1.6666;
353.7000;1.0997;1.6618;
354.0000;1.0965;1.6594;
354.3000;1.1022;1.6738;
354.6000;1.1013;1.6666;
354.9000;1.1030;1.6666;
355.2000;1.1013;1.6786;
355.5000;1.1095;1.7099;
355.8000;1.1013;1.6906;
356.1000;1.1022;1.6882;
356.4000;1.1013;1.6786;
356.7000;1.1030;1.6738;
357.0000;1.1022;1.6714;
357.3000;1.1005;1.6714;
357.6000;1.1005;1.6714;
357.9000;1.1030;1.6690;
358.2000;1.1022;1.6594;
358.5000;1.1005;1.6570;
358.8000;1.1022;1.6642;
359.1000;1.1022;1.6666;
359.4000;1.0989;1.6570;
359.7000;1.1022;1.6666;
360.0000;1.0981;1.6546;
360.3000;1.1030;1.6786;
360.6000;1.1022;1.6786;
360.9000;1.1013;1.6858;
361.2000;1.1005;1.6858;
361.5000;1.1054;1.7051;
361.8000;1.1013;1.7027;
362.1000;1.1005;1.7123;
362.4000;1.1022;1.7051;
362.7000;1.1070;1.7147;
363.0000;1.1013;1.7027;
363.3000;1.1013;1.7027;
363.6000;1.1013;1.7027;
363.9000;1.0997;1.6954;
364.2000;1.1030;1.6954;
364.5000;1.1103;1.7171;
364.8000;1.1030;1.7003;
365.1000;1.0989;1.6906;
365.4000;1.1022;1.6954;
365.7000;1.1062;1.7027;
366.0000;1.1013;1.6882;
366.3000;1.1013;1.6786;
366.6000;1.1022;1.6810;
366.9000;1.1013;1.6858;
367.2000;1.0973;1.6786;
367.5000;1.0989;1.6786;
367.8000;1.0989;1.6762;
368.1000;1.0997;1.6786;
368.4000;1.1054;1.6954;
368.7000;1.1030;1.6906;
369.0000;1.1030;1.6882;
369.3000;1.0932;1.6666;
369.6000;1.1022;1.6834;
369.9000;1.0956;1.6786;
370.2000;1.0973;1.6858;
370.5000;1.1022;1.7003;
370.8000;1.1005;1.6882;
371.1000;1.1013;1.6930;
371.4000;1.1046;1.7051;
371.7000;1.1079;1.7075;
372.0000;1.1030;1.6954;
372.3000;1.1013;1.6930;
372.6000;1.1013;1.7003;
372.9000;1.1046;1.7075;
373.2000;1.0997;1.7003;
373.5000;1.1013;1.7075;
373.8000;1.1005;1.7099;
374.1000;1.1038;1.7171;
374.4000;1.1144;1.7411;
374.7000;1.1022;1.7051;
375.0000;1.1013;1.6979;
375.3000;1.1022;1.6979;
375.6000;1.1022;1.7003;
375.9000;1.1087;1.7147;
376.2000;1.1022;1.6979;
376.5000;1.0997;1.6882;
376.8000;1.1005;1.6906;
377.1000;1.1038;1.7027;
377.4000;1.1013;1.6954;
377.7000;1.1022;1.6954;
378.0000;1.0997;1.6930;
378.3000;1.1022;1.7003;
378.6000;1.1013;1.6834;
378.9000;1.1030;1.6786;
379.2000;1.1022;1.6810;
379.5000;1.1030;1.6930;
379.8000;1.1046;1.6979;
380.1000;1.1030;1.6954;
380.4000;1.1013;1.6930;
380.7000;1.1022;1.6906;
381.0000;1.1038;1.7099;
381.3000;1.1013;1.7099;
381.6000;1.1070;1.7171;
381.9000;1.1013;1.6979;
382.2000;1.1022;1.6954;
382.5000;1.1022;1.6906;
382.8000;1.1022;1.6882;
383.1000;1.1005;1.6834;
383.4000;1.1030;1.6858;
383.7000;1.1022;1.6858;
384.0000;1.1022;1.6810;
384.3000;1.1013;1.6786;
384.6000;1.1005;1.6714;
384.9000;1.1022;1.6810;
385.2000;1.0997;1.6810;
385.5000;1.0997;1.6906;
385.8000;1.1013;1.6954;
386.1000;1.1013;1.7003;
386.4000;1.1013;1.6954;
386.7000;1.0965;1.6906;
387.0000;1.1005;1.6954;
387.3000;1.1013;1.6882;
387.6000;1.1038;1.6882;
387.9000;1.1005;1.6786;
388.2000;1.1030;1.6834;
388.5000;1.1005;1.6786;
388.8000;1.1030;1.6930;
389.1000;1.0997;1.6882;
389.4000;1.1030;1.6882;
389.7000;1.0948;1.6762;
390.0000;1.1022;1.6882;
390.3000;1.0997;1.6810;
390.6000;1.0997;1.6882;
390.9000;1.1013;1.7027;
391.2000;1.0956;1.6954;
391.5000;1.1005;1.7123;
391.8000;1.1022;1.7123;
392.1000;1.1005;1.7147;
392.4000;1.0973;1.7075;
392.7000;1.1005;1.7027;
393.0000;1.1013;1.7027;
393.3000;1.1005;1.6979;
393.6000;1.0997;1.6858;
393.9000;1.0997;1.6882;
394.2000;1.0965;1.6834;
394.5000;1.0965;1.6810;
394.8000;1.1013;1.6906;
395.1000;1.1022;1.6858;
395.4000;1.1030;1.6906;
395.7000;1.1013;1.6858;
396.0000;1.1022;1.6834;
396.3000;1.1013;1.6858;
396.6000;1.1005;1.6882;
396.9000;1.1013;1.6979;
397.2000;1.1013;1.7003;
397.5000;1.1005;1.7003;
397.8000;1.0948;1.6786;
398.1000;1.1022;1.6906;
398.4000;1.1013;1.6858;
398.7000;1.1013;1.6930;
399.0000;1.1013;1.6834;
399.3000;1.1022;1.6834;
399.6000;1.1005;1.6738;
399.9000;1.1013;1.6666;
400.2000;1.1013;1.6690;
400.5000;1.1005;1.6714;
400.8000;1.1022;1.6786;
401.1000;1.1022;1.6858;
401.4000;1.0997;1.6834;
401.7000;1.1022;1.6930;
402.0000;1.0997;1.6906;
402.3000;1.0997;1.6954;
402.6000;1.1013;1.6882;
402.9000;1.1022;1.6810;
403.2000;1.1005;1.6690;
403.5000;1.1022;1.6666;
403.8000;1.0989;1.6570;
404.1000;1.1038;1.6714;
404.4000;1.0997;1.6642;
404.7000;1.0989;1.6642;
405.0000;1.1013;1.6690;
405.3000;1.1030;1.6786;
405.6000;1.1013;1.6762;
405.9000;1.0997;1.6618;
406.2000;1.1022;1.6690;
406.5000;1.1030;1.6738;
406.8000;1.1005;1.6642;
407.1000;1.1005;1.6594;
407.4000;1.1005;1.6498;
407.7000;1.1038;1.6546;
408.0000;1.0989;1.6498;
408.3000;1.0997;1.6546;
408.6000;1.1013;1.6690;
408.9000;1.0965;1.6642;
409.2000;1.1013;1.6810;
409.5000;1.1022;1.6834;
409.8000;1.0997;1.6810;
410.1000;1.1022;1.6810;
410.4000;1.1005;1.6738;
410.7000;1.0997;1.6714;
411.0000;1.0981;1.6714;
411.3000;1.1005;1.6858;
411.6000;1.1005;1.6810;
411.9000;1.0997;1.6786;
412.2000;1.1005;1.6834;
412.5000;1.1022;1.6882;
412.8000;1.1022;1.6810;
413.1000;1.1022;1.6810;
413.4000;1.0989;1.6834;
413.7000;1.0997;1.6906;
414.0000;1.0965;1.6762;
414.3000;1.0973;1.6786;
414.6000;1.1013;1.6834;
414.9000;1.0981;1.6858;
415.2000;1.1022;1.6954;
415.5000;1.1005;1.7051;
415.8000;1.1013;1.7003;
416.1000;1.1005;1.6954;
416.4000;1.1013;1.6906;
416.7000;1.0997;1.6858;
417.0000;1.1013;1.6954;
417.3000;1.1005;1.7027;
417.6000;1.1013;1.7027;
417.9000;1.1013;1.6979;
418.2000;1.1022;1.7003;
418.5000;1.0997;1.6906;
418.8000;1.1030;1.7003;
419.1000;1.1022;1.6954;
419.4000;1.1022;1.6930;
419.7000;1.0997;1.6858;
420.0000;1.0997;1.6810;
420.3000;1.1005;1.6738;
420.6000;1.1013;1.6714;
420.9000;1.0997;1.6642;
421.2000;1.0997;1.6570;
421.5000;1.0989;1.6570;
421.8000;1.1030;1.6762;
422.1000;1.1005;1.6762;
422.4000;1.1005;1.6786;
422.7000;1.1013;1.6882;
423.0000;1.1013;1.6882;
423.3000;1.1013;1.6834;
423.6000;1.1013;1.6762;
423.9000;1.1062;1.6690;
424.2000;1.1005;1.6546;
424.5000;1.1005;1.6594;
424.8000;1.1022;1.6594;
425.1000;1.1013;1.6570;
425.4000;1.0997;1.6666;
425.7000;1.1013;1.6810;
426.0000;1.0997;1.6786;
426.3000;1.1022;1.6906;
426.6000;1.1005;1.6786;
426.9000;1.1013;1.6738;
427.2000;1.1005;1.6714;
427.5000;1.0997;1.6666;
427.8000;1.0997;1.6594;
428.1000;1.1119;1.6906;
428.4000;1.0997;1.6666;
428.7000;1.0989;1.6666;
429.0000;1.0997;1.6738;
429.3000;1.1005;1.6714;
429.6000;1.0997;1.6666;
429.9000;1.0981;1.6762;
430.2000;1.0973;1.6714;
430.5000;1.0981;1.6690;
430.8000;1.1005;1.6762;
431.1000;1.0965;1.6618;
431.4000;1.1005;1.6738;
431.7000;1.0989;1.6690;
432.0000;1.1005;1.6738;
432.3000;1.0997;1.6762;
432.6000;1.1013;1.6738;
432.9000;1.1005;1.6786;
433.2000;1.1022;1.6834;
433.5000;1.1005;1.6834;
433.8000;1.0981;1.6786;
434.1000;1.0997;1.6762;
434.4000;1.1013;1.6930;
434.7000;1.0997;1.6930;
435.0000;1.1013;1.6954;
435.3000;1.1005;1.6954;
435.6000;1.1030;1.7003;
435.9000;1.0989;1.6979;
436.2000;1.0997;1.6979;
436.5000;1.0932;1.6786;
436.8000;1.1054;1.7123;
437.1000;1.1013;1.6882;
437.4000;1.1022;1.6858;
437.7000;1.0989;1.6834;
438.0000;1.1013;1.6858;
438.3000;1.1022;1.6882;
438.6000;1.1005;1.6930;
438.9000;1.0997;1.6882;
439.2000;1.0956;1.6738;
439.5000;1.0981;1.6834;
439.8000;1.1005;1.6834;
440.1000;1.0997;1.6762;
440.4000;1.1022;1.6810;
440.7000;1.0997;1.6810;
441.0000;1.0989;1.6738;
441.3000;1.0989;1.6690;
441.6000;1.0997;1.6690;
441.9000;1.0989;1.6738;
442.2000;1.0997;1.6786;
442.5000;1.0989;1.6858;
442.8000;1.0997;1.6858;
443.1000;1.1005;1.6834;
443.4000;1.1038;1.6906;
443.7000;1.1005;1.6858;
444.0000;1.0948;1.6690;
444.3000;1.0997;1.6834;
444.6000;1.0997;1.6834;
444.9000;1.0965;1.6762;
445.2000;1.0981;1.6834;
445.5000;1.0965;1.6810;
445.8000;1.1087;1.7027;
446.1000;1.1005;1.6834;
446.4000;1.0981;1.6786;
446.7000;1.0989;1.6786;
447.0000;1.1005;1.6762;
447.3000;1.0965;1.6666;
447.6000;1.0989;1.6786;
447.9000;1.0989;1.6834;
448.2000;1.1005;1.6858;
448.5000;1.0989;1.6834;
448.8000;1.0997;1.6858;
449.1000;1.0997;1.6906;
449.4000;1.0997;1.6906;
449.7000;1.1013;1.6979;
450.0000;1.0981;1.6930;
450.3000;1.0981;1.6882;
450.6000;1.1013;1.6930;
450.9000;1.0997;1.6882;
451.2000;1.0997;1.6930;
451.5000;1.0997;1.6858;
451.8000;1.0989;1.6834;
452.1000;1.1005;1.6786;
452.4000;1.1005;1.6786;
452.7000;1.1079;1.7027;
453.0000;1.0997;1.6810;
453.3000;1.1022;1.6810;
453.6000;1.1005;1.6786;
453.9000;1.0997;1.6810;
454.2000;1.0989;1.6786;
454.5000;1.0989;1.6810;
454.8000;1.1013;1.6906;
455.1000;1.1013;1.6834;
455.4000;1.0997;1.6762;
455.7000;1.0948;1.6690;
456.0000;1.1062;1.6954;
456.3000;1.1005;1.6834;
456.6000;1.0973;1.6714;
456.9000;1.1030;1.6834;
457.2000;1.1022;1.6906;
457.5000;1.0989;1.6738;
457.8000;1.0981;1.6762;
458.1000;1.0965;1.6690;
458.4000;1.0989;1.6738;
458.7000;1.1054;1.6979;
459.0000;1.0997;1.6834;
459.3000;1.0965;1.6738;
459.6000;1.0973;1.6834;
459.9000;1.0981;1.6810;
460.2000;1.1070;1.7075;
460.5000;1.0973;1.6858;
460.8000;1.0981;1.6906;
461.1000;1.0981;1.6834;
461.4000;1.0981;1.6810;
461.7000;1.0989;1.6762;
462.0000;1.0989;1.6834;
462.3000;1.1005;1.6810;
462.6000;1.1005;1.6810;
462.9000;1.0997;1.6762;
463.2000;1.0948;1.6666;
463.5000;1.0981;1.6690;
463.8000;1.0989;1.6594;
464.1000;1.0997;1.6546;
464.4000;1.0981;1.6570;
464.7000;1.1005;1.6666;
465.0000;1.1005;1.6714;
465.3000;1.1005;1.6738;
465.6000;1.0973;1.6714;
465.9000;1.1022;1.6738;
466.2000;1.0997;1.6690;
466.5000;1.1013;1.6714;
466.8000;1.0981;1.6666;
467.1000;1.0997;1.6666;
467.4000;1.1005;1.6666;
467.7000;1.0973;1.6618;
468.0000;1.0997;1.6594;
468.3000;1.1046;1.6666;
468.6000;1.1005;1.6666;
468.9000;1.1005;1.6738;
469.2000;1.0989;1.6690;
469.5000;1.1030;1.6810;
469.8000;1.0989;1.6786;
470.1000;1.0997;1.6858;
470.4000;1.0981;1.6882;
470.7000;1.0973;1.6882;
471.0000;1.0989;1.6858;
471.3000;1.0981;1.6906;
471.6000;1.0997;1.6858;
471.9000;1.0973;1.6786;
472.2000;1.0997;1.6858;
472.5000;1.0989;1.6882;
472.8000;1.0997;1.6954;
473.1000;1.0989;1.6979;
473.4000;1.0965;1.6979;
473.7000;1.0989;1.7051;
474.0000;1.0981;1.6930;
474.3000;1.0981;1.6906;
474.6000;1.0932;1.6762;
474.9000;1.0989;1.6954;
475.2000;1.0989;1.6979;
475.5000;1.0989;1.7003;
475.8000;1.0989;1.7027;
476.1000;1.1013;1.7099;
476.4000;1.0981;1.7003;
476.7000;1.1013;1.6979;
477.0000;1.0997;1.6906;
477.3000;1.0989;1.6882;
477.6000;1.0997;1.6858;
477.9000;1.0997;1.6810;
478.2000;1.1013;1.6834;
478.5000;1.0981;1.6882;
478.8000;1.0973;1.6810;
479.1000;1.1005;1.6882;
479.4000;1.0924;1.6786;
479.7000;1.0989;1.6882;
480.0000;1.1022;1.6954;
480.3000;1.0997;1.6906;
480.6000;1.0981;1.6858;
480.9000;1.0973;1.6834;
481.2000;1.1030;1.6979;
481.5000;1.0981;1.6882;
481.8000;1.0989;1.6786;
482.1000;1.0997;1.6834;
482.4000;1.0965;1.6834;
482.7000;1.0997;1.6906;
483.0000;1.0981;1.6858;
483.3000;1.1005;1.6954;
483.6000;1.0981;1.6954;
483.9000;1.0997;1.6979;
484.2000;1.0997;1.7051;
484.5000;1.0989;1.6979;
484.8000;1.0989;1.6882;
485.1000;1.0997;1.6906;
485.4000;1.0997;1.6810;
485.7000;1.0965;1.6738;
486.0000;1.1022;1.6930;
486.3000;1.0965;1.6834;
486.6000;1.0989;1.6858;
486.9000;1.1005;1.6906;
487.2000;1.0981;1.6810;
487.5000;1.1013;1.6858;
487.8000;1.0997;1.6882;
488.1000;1.0997;1.6882;
488.4000;1.0965;1.6954;
488.7000;1.0989;1.6979;
489.0000;1.0965;1.6930;
489.3000;1.0940;1.6906;
489.6000;1.0989;1.6882;
489.9000;1.0973;1.6834;
490.2000;1.0989;1.6858;
490.5000;1.0997;1.6834;
490.8000;1.1005;1.6834;
491.1000;1.0981;1.6810;
491.4000;1.1030;1.6882;
491.7000;1.0997;1.6906;
492.0000;1.0989;1.6810;
492.3000;1.0965;1.6714;
492.6000;1.0981;1.6834;
492.9000;1.0997;1.6858;
493.2000;1.1005;1.6882;
493.5000;1.0965;1.6738;
493.8000;1.0981;1.6690;
494.1000;1.1046;1.6930;
494.4000;1.0997;1.6810;
494.7000;1.0981;1.6714;
495.0000;1.0989;1.6714;
495.3000;1.0973;1.6834;
495.6000;1.0948;1.6762;
495.9000;1.0989;1.6858;
496.2000;1.0965;1.6762;
496.5000;1.0956;1.6762;
496.8000;1.1013;1.6930;
497.1000;1.1013;1.6882;
497.4000;1.1013;1.6858;
497.7000;1.0973;1.6810;
498.0000;1.0989;1.6810;
498.3000;1.0981;1.6810;
498.6000;1.1103;1.7123;
498.9000;1.0973;1.6954;
499.2000;1.1022;1.6954;
499.5000;1.0989;1.6906;
499.8000;1.0973;1.6810;
500.1000;1.0981;1.6810;
500.4000;1.0997;1.6786;
500.7000;1.0965;1.6714;
501.0000;1.0981;1.6714;
501.3000;1.0981;1.6618;
501.6000;1.0981;1.6666;
501.9000;1.0989;1.6666;
502.2000;1.0956;1.6642;
502.5000;1.1005;1.6714;
502.8000;1.0989;1.6738;
503.1000;1.0981;1.6714;
503.4000;1.0997;1.6690;
503.7000;1.0997;1.6786;
504.0000;1.0989;1.6858;
504.3000;1.0997;1.6954;
504.6000;1.0956;1.6834;
504.9000;1.1038;1.7075;
505.2000;1.0997;1.6979;
505.5000;1.0948;1.6882;
505.8000;1.0973;1.6930;
506.1000;1.0932;1.6714;
506.4000;1.0973;1.6762;
506.7000;1.0973;1.6786;
507.0000;1.0989;1.6834;
507.3000;1.0997;1.6762;
507.6000;1.0973;1.6786;
507.9000;1.0965;1.6762;
508.2000;1.0973;1.6786;
508.5000;1.0981;1.6810;
508.8000;1.0956;1.6714;
509.1000;1.0981;1.6738;
509.4000;1.0989;1.6666;
509.7000;1.0973;1.6618;
510.0000;1.0965;1.6546;
510.3000;1.0981;1.6546;
510.6000;1.0989;1.6546;
510.9000;1.0989;1.6618;
511.2000;1.0965;1.6570;
511.5000;1.0981;1.6690;
511.8000;1.0997;1.6738;
512.1000;1.0973;1.6738;
512.4000;1.0965;1.6690;
512.7000;1.0956;1.6714;
513.0000;1.0965;1.6666;
513.3000;1.0948;1.6666;
513.6000;1.0981;1.6690;
513.9000;1.0956;1.6594;
514.2000;1.0965;1.6570;
514.5000;1.0908;1.6425;
514.8000;1.1005;1.6618;
515.1000;1.0948;1.6618;
515.4000;1.0916;1.6546;
515.7000;1.0981;1.6618;
516.0000;1.0956;1.6546;
516.3000;1.0965;1.6594;
516.6000;1.0956;1.6546;
516.9000;1.1005;1.6594;
517.2000;1.1005;1.6618;
517.5000;1.0981;1.6666;
517.8000;1.0973;1.6690;
518.1000;1.0973;1.6690;
518.4000;1.0965;1.6690;
518.7000;1.0965;1.6666;
519.0000;1.0973;1.6666;
519.3000;1.0956;1.6594;
519.6000;1.0965;1.6618;
519.9000;1.0965;1.6738;
520.2000;1.0956;1.6714;
520.5000;1.0908;1.6690;
520.8000;1.0973;1.6882;
521.1000;1.0997;1.6954;
521.4000;1.0891;1.6642;
521.7000;1.0948;1.6738;
522.0000;1.0973;1.6810;
522.3000;1.0948;1.6810;
522.6000;1.0997;1.6858;
522.9000;1.0965;1.6810;
523.2000;1.1022;1.6979;
523.5000;1.1013;1.7075;
523.8000;1.0924;1.6858;
524.1000;1.0981;1.6906;
524.4000;1.0956;1.6786;
524.7000;1.0981;1.6834;
525.0000;1.0973;1.6858;
525.3000;1.0997;1.6762;
525.6000;1.0956;1.6522;
525.9000;1.0965;1.6618;
526.2000;1.0981;1.6642;
526.5000;1.1022;1.6714;
526.8000;1.0981;1.6618;
527.1000;1.0940;1.6498;
527.4000;1.0981;1.6690;
527.7000;1.0981;1.6714;
528.0000;1.0956;1.6690;
528.3000;1.0948;1.6714;
528.6000;1.0965;1.6786;
528.9000;1.0989;1.6858;
529.2000;1.0948;1.6690;
529.5000;1.0956;1.6786;
529.8000;1.0965;1.6834;
530.1000;1.0981;1.6834;
530.4000;1.0973;1.6786;
530.7000;1.0965;1.6738;
531.0000;1.0948;1.6738;
531.3000;1.0997;1.6786;
531.6000;1.0973;1.6666;
531.9000;1.0973;1.6594;
532.2000;1.0965;1.6666;
532.5000;1.0981;1.6690;
532.8000;1.0965;1.6666;
533.1000;1.0956;1.6714;
533.4000;1.0883;1.6522;
533.7000;1.0973;1.6810;
534.0000;1.0965;1.6882;
534.3000;1.0883;1.6714;
534.6000;1.0981;1.6834;
534.9000;1.0989;1.6810;
535.2000;1.0989;1.6762;
535.5000;1.0965;1.6642;
535.8000;1.0956;1.6642;
536.1000;1.0965;1.6618;
536.4000;1.0956;1.6522;
536.7000;1.0965;1.6594;
537.0000;1.0956;1.6618;
537.3000;1.0989;1.6738;
537.6000;1.0956;1.6762;
537.9000;1.0981;1.6738;
538.2000;1.0973;1.6666;
538.5000;1.0973;1.6714;
538.8000;1.0973;1.6690;
539.1000;1.0981;1.6690;
539.4000;1.1022;1.6786;
539.7000;1.0973;1.6666;
540.0000;1.0981;1.6666;
540.3000;1.0989;1.6762;
540.6000;1.0965;1.6786;
540.9000;1.0989;1.6810;
541.2000;1.0989;1.6834;
541.5000;1.0989;1.6930;
541.8000;1.0965;1.6858;
542.1000;1.0965;1.6858;
542.4000;1.0932;1.6810;
542.7000;1.0981;1.6810;
543.0000;1.1013;1.6858;
543.3000;1.0965;1.6810;
543.6000;1.0956;1.6858;
543.9000;1.1013;1.6979;
544.2000;1.0981;1.6882;
544.5000;1.0973;1.6762;
544.8000;1.0956;1.6666;
545.1000;1.0973;1.6618;
545.4000;1.0965;1.6666;
545.7000;1.0973;1.6714;
546.0000;1.1022;1.6714;
546.3000;1.0981;1.6594;
546.6000;1.0973;1.6594;
546.9000;1.0948;1.6666;
547.2000;1.0973;1.6714;
547.5000;1.0956;1.6738;
547.8000;1.0948;1.6738;
548.1000;1.0956;1.6618;
548.4000;1.0956;1.6618;
548.7000;1.0973;1.6666;
549.0000;1.0981;1.6714;
549.3000;1.0981;1.6738;
549.6000;1.0940;1.6618;
549.9000;1.0916;1.6570;
550.2000;1.0981;1.6714;
550.5000;1.0989;1.6786;
550.8000;1.0981;1.6690;
551.1000;1.0948;1.6666;
551.4000;1.0965;1.6810;
551.7000;1.0989;1.6786;
552.0000;1.0948;1.6786;
552.3000;1.0965;1.6834;
552.6000;1.0965;1.6762;
552.9000;1.0981;1.6810;
553.2000;1.0965;1.6738;
553.5000;1.0973;1.6762;
553.8000;1.0989;1.6834;
554.1000;1.0997;1.6930;
554.4000;1.0973;1.6930;
554.7000;1.0899;1.6666;
555.0000;1.0973;1.6858;
555.3000;1.0956;1.6810;
555.6000;1.0981;1.6834;
555.9000;1.0956;1.6738;
556.2000;1.0908;1.6594;
556.5000;1.0956;1.6690;
556.8000;1.0981;1.6738;
557.1000;1.0948;1.6738;
557.4000;1.0948;1.6738;
557.7000;1.0973;1.6738;
558.0000;1.0956;1.6690;
558.3000;1.0948;1.6690;
558.6000;1.0965;1.6762;
558.9000;1.0989;1.6882;
559.2000;1.0965;1.6858;
559.5000;1.0973;1.6834;
559.8000;1.0965;1.6714;
560.1000;1.0948;1.6714;
560.4000;1.1013;1.6810;
560.7000;1.0948;1.6690;
561.0000;1.0965;1.6810;
561.3000;1.0924;1.6666;
561.6000;1.0973;1.6762;
561.9000;1.0981;1.6810;
562.2000;1.0948;1.6738;
562.5000;1.0956;1.6714;
562.8000;1.0973;1.6642;
563.1000;1.0965;1.6690;
563.4000;1.0973;1.6714;
563.7000;1.0965;1.6714;
564.0000;1.0973;1.6834;
564.3000;1.0973;1.6834;
564.6000;1.0956;1.6834;
564.9000;1.0965;1.6834;
565.2000;1.0956;1.6834;
565.5000;1.0956;1.6762;
565.8000;1.0965;1.6762;
566.1000;1.0981;1.6930;
566.4000;1.0948;1.6786;
566.7000;1.0948;1.6786;
567.0000;1.0956;1.6762;
567.3000;1.0973;1.6690;
567.6000;1.0948;1.6642;
567.9000;1.0956;1.6666;
568.2000;1.0965;1.6690;
568.5000;1.0899;1.6498;
568.8000;1.0981;1.6738;
569.1000;1.0965;1.6690;
569.4000;1.0965;1.6642;
569.7000;1.0948;1.6690;
570.0000;1.0956;1.6786;
570.3000;1.0875;1.6594;
570.6000;1.0948;1.6714;
570.9000;1.0973;1.6810;
571.2000;1.0948;1.6786;
571.5000;1.0940;1.6642;
571.8000;1.0956;1.6618;
572.1000;1.0956;1.6594;
572.4000;1.0924;1.6642;
572.7000;1.0932;1.6834;
573.0000;1.0916;1.6834;
573.3000;1.0973;1.6906;
573.6000;1.0965;1.6786;
573.9000;1.0973;1.6714;
574.2000;1.1070;1.7003;
574.5000;1.0973;1.6786;
574.8000;1.0875;1.6522;
575.1000;1.0973;1.6690;
575.4000;1.0965;1.6738;
575.7000;1.0989;1.6786;
576.0000;1.0940;1.6666;
576.3000;1.0965;1.6762;
576.6000;1.0867;1.6570;
576.9000;1.0948;1.6810;
577.2000;1.0940;1.6834;
577.5000;1.0973;1.6930;
577.8000;1.0981;1.6786;
578.1000;1.0932;1.6738;
578.4000;1.0965;1.6882;
578.7000;1.0973;1.6930;
579.0000;1.0940;1.6858;
579.3000;1.0956;1.6882;
579.6000;1.0948;1.6810;
579.9000;1.0883;1.6594;
580.2000;1.0981;1.6882;
580.5000;1.0932;1.6858;
580.8000;1.0956;1.6858;
581.1000;1.0932;1.6858;
581.4000;1.0932;1.6810;
581.7000;1.0948;1.6834;
582.0000;1.0965;1.6714;
582.3000;1.0956;1.6762;
582.6000;1.0948;1.6810;
582.9000;1.0948;1.6858;
583.2000;1.0956;1.6906;
583.5000;1.0965;1.6954;
583.8000;1.0932;1.6810;
584.1000;1.0948;1.6906;
584.4000;1.0924;1.6954;
584.7000;1.0948;1.6979;
585.0000;1.0997;1.7099;
585.3000;1.1022;1.7147;
585.6000;1.0940;1.6930;
585.9000;1.0956;1.6979;
586.2000;1.0940;1.6906;
586.5000;1.0940;1.6906;
586.8000;1.0956;1.6786;
587.1000;1.0973;1.6786;
587.4000;1.0956;1.6786;
587.7000;1.0940;1.6762;
588.0000;1.0940;1.6786;
588.3000;1.0916;1.6690;
588.6000;1.0981;1.6810;
588.9000;1.0965;1.6714;
589.2000;1.0956;1.6666;
589.5000;1.0981;1.6738;
589.8000;1.0956;1.6690;
590.1000;1.0948;1.6738;
590.4000;1.0956;1.6810;
590.7000;1.0956;1.6858;
591.0000;1.0924;1.6906;
591.3000;1.0940;1.6906;
591.6000;1.0948;1.7003;
591.9000;1.0956;1.7027;
592.2000;1.0948;1.7003;
592.5000;1.0981;1.7051;
592.8000;1.1054;1.7243;
593.1000;1.0981;1.7075;
593.4000;1.0908;1.6834;
593.7000;1.0965;1.6906;
594.0000;1.0956;1.6954;
594.3000;1.0948;1.6858;
594.6000;1.0965;1.6882;
594.9000;1.0965;1.6882;
595.2000;1.0924;1.6906;
595.5000;1.0965;1.7051;
595.8000;1.0948;1.7003;
596.1000;1.0883;1.6906;
596.4000;1.0932;1.7027;
596.7000;1.0948;1.7051;
597.0000;1.0997;1.7195;
597.3000;1.0948;1.7003;
597.6000;1.0940;1.6954;
597.9000;1.0940;1.6979;
598.2000;1.0948;1.7027;
598.5000;1.0932;1.6979;
598.8000;1.0973;1.7003;
599.1000;1.0940;1.6930;
599.4000;1.0956;1.6930;
599.7000;1.0916;1.6954;
600.0000;1.0940;1.7027;
600.3000;1.0924;1.6930;
600.6000;1.0924;1.6834;
600.9000;1.0916;1.6762;
601.2000;1.0851;1.6522;
601.5000;1.0875;1.6570;
601.8000;1.0794;1.6425;
602.1000;1.0663;1.6113;
602.4000;1.0582;1.5968;
602.7000;1.0509;1.5752;
603.0000;1.0435;1.5704;
603.3000;1.0338;1.5560;
603.6000;1.0305;1.5463;
603.9000;1.0240;1.5319;
604.2000;1.0175;1.5151;
604.5000;1.0118;1.5103;
604.8000;1.0053;1.5007;
605.1000;0.9996;1.4958;
605.4000;0.9931;1.4886;
605.7000;0.9874;1.4766;
606.0000;0.9849;1.4670;
606.3000;0.9752;1.4453;
606.6000;0.9768;1.4477;
606.9000;0.9670;1.4357;
607.2000;0.9638;1.4333;
607.5000;0.9613;1.4333;
607.8000;0.9548;1.4333;
608.1000;0.9508;1.4309;
608.4000;0.9491;1.4405;
608.7000;0.9451;1.4453;
609.0000;0.9426;1.4405;
609.3000;0.9369;1.4309;
609.6000;0.9288;1.4237;
609.9000;0.9296;1.4357;
610.2000;0.9239;1.4333;
610.5000;0.9182;1.4453;
610.8000;0.9166;1.4477;
611.1000;0.9117;1.4405;
611.4000;0.9182;1.4574;
611.7000;0.9052;1.4285;
612.0000;0.9019;1.4237;
612.3000;0.9003;1.4213;
612.6000;0.8930;1.4117;
612.9000;0.8930;1.4213;
613.2000;0.8889;1.4213;
613.5000;0.8889;1.4141;
613.8000;0.8856;1.4189;
614.1000;0.8807;1.4117;
614.4000;0.8791;1.4141;
614.7000;0.8742;1.4045;
615.0000;0.8726;1.4093;
615.3000;0.8726;1.4141;
615.6000;0.8677;1.4045;
615.9000;0.8637;1.4093;
616.2000;0.8604;1.4069;
616.5000;0.8596;1.4213;
616.8000;0.8563;1.4165;
617.1000;0.8539;1.4117;
617.4000;0.8498;1.4117;
617.7000;0.8523;1.4141;
618.0000;0.8474;1.3972;
618.3000;0.8457;1.3948;
618.6000;0.8425;1.3876;
618.9000;0.8409;1.3876;
619.2000;0.8368;1.3804;
619.5000;0.8352;1.3780;
619.8000;0.8311;1.3684;
620.1000;0.8311;1.3684;
620.4000;0.8262;1.3564;
620.7000;0.8270;1.3636;
621.0000;0.8238;1.3612;
621.3000;0.8205;1.3612;
621.6000;0.8189;1.3636;
621.9000;0.8254;1.3852;
622.2000;0.8156;1.3684;
622.5000;0.8148;1.3588;
622.8000;0.8140;1.3540;
623.1000;0.8107;1.3540;
623.4000;0.8091;1.3540;
623.7000;0.8067;1.3515;
624.0000;0.8026;1.3443;
624.3000;0.8034;1.3540;
624.6000;0.8018;1.3515;
624.9000;0.8010;1.3588;
625.2000;0.7969;1.3491;
625.5000;0.7969;1.3564;
625.8000;0.7953;1.3588;
626.1000;0.7904;1.3467;
626.4000;0.8002;1.3780;
626.7000;0.7912;1.3588;
627.0000;0.7871;1.3540;
627.3000;0.7855;1.3515;
627.6000;0.7847;1.3467;
627.9000;0.7855;1.3371;
628.2000;0.7806;1.3347;
628.5000;0.7806;1.3515;
628.8000;0.7798;1.3491;
629.1000;0.7790;1.3515;
629.4000;0.7774;1.3419;
629.7000;0.7733;1.3491;
630.0000;0.7757;1.3564;
630.3000;0.7757;1.3564;
630.6000;0.7684;1.3491;
630.9000;0.7700;1.3467;
631.2000;0.7676;1.3491;
631.5000;0.7619;1.3467;
631.8000;0.7660;1.3588;
632.1000;0.7643;1.3564;
632.4000;0.7530;1.3299;
632.7000;0.7603;1.3491;
633.0000;0.7619;1.3540;
633.3000;0.7570;1.3515;
633.6000;0.7586;1.3708;
633.9000;0.7562;1.3684;
634.2000;0.7546;1.3684;
634.5000;0.7562;1.3708;
634.8000;0.7546;1.3636;
635.1000;0.7497;1.3588;
635.4000;0.7513;1.3732;
635.7000;0.7497;1.3780;
636.0000;0.7505;1.3828;
636.3000;0.7464;1.3780;
636.6000;0.7456;1.3732;
636.9000;0.7424;1.3660;
637.2000;0.7448;1.3756;
637.5000;0.7464;1.3732;
637.8000;0.7424;1.3684;
638.1000;0.7448;1.3756;
638.4000;0.7383;1.3540;
638.7000;0.7399;1.3564;
639.0000;0.7391;1.3612;
639.3000;0.7383;1.3684;
639.6000;0.7334;1.3540;
639.9000;0.7285;1.3443;
640.2000;0.7334;1.3588;
640.5000;0.7326;1.3588;
640.8000;0.7318;1.3564;
641.1000;0.7293;1.3564;
641.4000;0.7293;1.3564;
641.7000;0.7318;1.3588;
642.0000;0.7293;1.3588;
642.3000;0.7236;1.3491;
642.6000;0.7269;1.3540;
642.9000;0.7261;1.3612;
643.2000;0.7245;1.3540;
643.5000;0.7236;1.3540;
643.8000;0.7277;1.3636;
644.1000;0.7220;1.3467;
644.4000;0.7220;1.3515;
644.7000;0.7228;1.3540;
645.0000;0.7212;1.3443;
645.3000;0.7188;1.3443;
645.6000;0.7204;1.3564;
645.9000;0.7277;1.3756;
646.2000;0.7171;1.3540;
646.5000;0.7179;1.3588;
646.8000;0.7188;1.3491;
647.1000;0.7171;1.3395;
647.4000;0.7253;1.3660;
647.7000;0.7139;1.3419;
648.0000;0.7147;1.3443;
648.3000;0.7131;1.3371;
648.6000;0.7131;1.3419;
648.9000;0.7106;1.3419;
649.2000;0.7114;1.3443;
649.5000;0.7098;1.3467;
649.8000;0.7106;1.3564;
650.1000;0.7082;1.3540;
650.4000;0.7009;1.3515;
650.7000;0.7074;1.3804;
651.0000;0.7057;1.3804;
651.3000;0.7033;1.3732;
651.6000;0.7033;1.3732;
651.9000;0.7057;1.3804;
652.2000;0.7049;1.3780;
652.5000;0.7017;1.3636;
652.8000;0.7017;1.3660;
653.1000;0.7017;1.3804;
653.4000;0.7074;1.3972;
653.7000;0.7000;1.3924;
654.0000;0.7000;1.3948;
654.3000;0.6968;1.3876;
654.6000;0.6992;1.3900;
654.9000;0.6992;1.3804;
655.2000;0.6968;1.3804;
655.5000;0.6968;1.3804;
655.8000;0.6960;1.3732;
656.1000;0.6976;1.3732;
656.4000;0.6919;1.3636;
656.7000;0.6927;1.3684;
657.0000;0.6919;1.3636;
657.3000;0.6919;1.3684;
657.6000;0.6919;1.3612;
657.9000;0.6911;1.3660;
658.2000;0.6903;1.3660;
658.5000;0.6911;1.3732;
658.8000;0.6919;1.3708;
659.1000;0.6903;1.3684;
659.4000;0.6886;1.3708;
659.7000;0.6870;1.3660;
660.0000;0.6886;1.3756;
660.3000;0.6878;1.3708;
660.6000;0.6870;1.3660;
660.9000;0.6870;1.3660;
661.2000;0.6854;1.3612;
661.5000;0.6862;1.3684;
661.8000;0.6854;1.3660;
662.1000;0.6862;1.3684;
662.4000;0.6846;1.3684;
662.7000;0.6862;1.3684;
663.0000;0.6821;1.3588;
663.3000;0.6870;1.3732;
663.6000;0.6862;1.3708;
663.9000;0.6805;1.3491;
664.2000;0.6829;1.3588;
664.5000;0.6813;1.3491;
664.8000;0.6805;1.3467;
665.1000;0.6821;1.3491;
665.4000;0.6781;1.3419;
665.7000;0.6797;1.3491;
666.0000;0.6886;1.3660;
666.3000;0.6813;1.3515;
666.6000;0.6797;1.3395;
666.9000;0.6764;1.3395;
667.2000;0.6781;1.3395;
667.5000;0.6846;1.3515;
667.8000;0.6764;1.3323;
668.1000;0.6707;1.3227;
668.4000;0.6772;1.3419;
668.7000;0.6707;1.3395;
669.0000;0.6740;1.3612;
669.3000;0.6764;1.3636;
669.6000;0.6707;1.3491;
669.9000;0.6781;1.3564;
670.2000;0.6724;1.3467;
670.5000;0.6797;1.3660;
670.8000;0.6740;1.3588;
671.1000;0.6740;1.3540;
671.4000;0.6707;1.3491;
671.7000;0.6789;1.3684;
672.0000;0.6659;1.3395;
672.3000;0.6732;1.3491;
672.6000;0.6707;1.3443;
672.9000;0.6724;1.3588;
673.2000;0.6585;1.3275;
673.5000;0.6691;1.3515;
673.8000;0.6691;1.3564;
674.1000;0.6716;1.3612;
674.4000;0.6675;1.3540;
674.7000;0.6675;1.3540;
675.0000;0.6618;1.3419;
675.3000;0.6675;1.3564;
675.6000;0.6675;1.3540;
675.9000;0.6675;1.3515;
676.2000;0.6675;1.3612;
676.5000;0.6667;1.3588;
676.8000;0.6659;1.3612;
677.1000;0.6650;1.3660;
677.4000;0.6650;1.3588;
677.7000;0.6650;1.3540;
678.0000;0.6675;1.3540;
678.3000;0.6610;1.3419;
678.6000;0.6634;1.3491;
678.9000;0.6634;1.3564;
679.2000;0.6642;1.3540;
679.5000;0.6618;1.3419;
679.8000;0.6634;1.3564;
680.1000;0.6593;1.3515;
680.4000;0.6642;1.3636;
680.7000;0.6610;1.3636;
681.0000;0.6610;1.3612;
681.3000;0.6602;1.3660;
681.6000;0.6626;1.3756;
681.9000;0.6593;1.3612;
682.2000;0.6569;1.3588;
682.5000;0.6602;1.3660;
682.8000;0.6610;1.3708;
683.1000;0.6618;1.3684;
683.4000;0.6585;1.3708;
683.7000;0.6593;1.3708;
684.0000;0.6602;1.3780;
684.3000;0.6585;1.3780;
684.6000;0.6667;1.4021;
684.9000;0.6585;1.3756;
685.2000;0.6577;1.3732;
685.5000;0.6602;1.3780;
685.8000;0.6585;1.3804;
686.1000;0.6569;1.3756;
686.4000;0.6610;1.3948;
686.7000;0.6520;1.3684;
687.0000;0.6569;1.3708;
687.3000;0.6528;1.3636;
687.6000;0.6561;1.3732;
687.9000;0.6569;1.3756;
688.2000;0.6585;1.3924;
688.5000;0.6553;1.3852;
688.8000;0.6528;1.3684;
689.1000;0.6602;1.3828;
689.4000;0.6545;1.3732;
689.7000;0.6561;1.3852;
690.0000;0.6528;1.3780;
690.3000;0.6520;1.3708;
690.6000;0.6496;1.3636;
690.9000;0.6585;1.3804;
691.2000;0.6520;1.3660;
691.5000;0.6545;1.3636;
691.8000;0.6536;1.3564;
692.1000;0.6512;1.3564;
692.4000;0.6496;1.3564;
692.7000;0.6520;1.3588;
693.0000;0.6512;1.3564;
693.3000;0.6488;1.3540;
693.6000;0.6496;1.3588;
693.9000;0.6504;1.3684;
694.2000;0.6496;1.3684;
694.5000;0.6512;1.3756;
694.8000;0.6463;1.3564;
695.1000;0.6479;1.3612;
695.4000;0.6504;1.3660;
695.7000;0.6488;1.3660;
696.0000;0.6479;1.3588;
696.3000;0.6463;1.3564;
696.6000;0.6488;1.3564;
696.9000;0.6488;1.3467;
697.2000;0.6488;1.3419;
697.5000;0.6496;1.3371;
697.8000;0.6471;1.3371;
698.1000;0.6479;1.3467;
698.4000;0.6479;1.3467;
698.7000;0.6471;1.3467;
699.0000;0.6455;1.3564;
699.3000;0.6447;1.3588;
699.6000;0.6455;1.3588;
699.9000;0.6447;1.3612;
700.2000;0.6471;1.3564;
700.5000;0.6455;1.3588;
700.8000;0.6463;1.3588;
701.1000;0.6455;1.3564;
701.4000;0.6422;1.3467;
701.7000;0.6455;1.3564;
702.0000;0.6455;1.3515;
702.3000;0.6374;1.3419;
702.6000;0.6439;1.3588;
702.9000;0.6439;1.3636;
703.2000;0.6422;1.3636;
703.5000;0.6455;1.3636;
703.8000;0.6422;1.3540;
704.1000;0.6422;1.3491;
704.4000;0.6447;1.3491;
704.7000;0.6431;1.3467;
705.0000;0.6439;1.3540;
705.3000;0.6431;1.3540;
705.6000;0.6471;1.3660;
705.9000;0.6422;1.3564;
706.2000;0.6447;1.3660;
706.5000;0.6414;1.3612;
706.8000;0.6431;1.3636;
707.1000;0.6422;1.3588;
707.4000;0.6398;1.3491;
707.7000;0.6414;1.3564;
708.0000;0.6398;1.3467;
708.3000;0.6398;1.3491;
708.6000;0.6422;1.3443;
708.9000;0.6422;1.3540;
709.2000;0.6422;1.3564;
709.5000;0.6349;1.3419;
709.8000;0.6447;1.3684;
710.1000;0.6382;1.3564;
710.4000;0.6398;1.3588;
710.7000;0.6414;1.3564;
711.0000;0.6398;1.3540;
711.3000;0.6406;1.3564;
711.6000;0.6374;1.3564;
711.9000;0.6406;1.3756;
712.2000;0.6365;1.3708;
712.5000;0.6382;1.3684;
712.8000;0.6382;1.3660;
713.1000;0.6382;1.3636;
713.4000;0.6390;1.3636;
713.7000;0.6357;1.3636;
714.0000;0.6357;1.3708;
714.3000;0.6365;1.3708;
714.6000;0.6382;1.3780;
714.9000;0.6374;1.3708;
715.2000;0.6357;1.3756;
715.5000;0.6382;1.3756;
715.8000;0.6357;1.3708;
716.1000;0.6398;1.3804;
716.4000;0.6365;1.3684;
716.7000;0.6300;1.3347;
717.0000;0.6365;1.3564;
717.3000;0.6357;1.3491;
717.6000;0.6374;1.3564;
717.9000;0.6325;1.3491;
718.2000;0.6357;1.3636;
718.5000;0.6365;1.3708;
718.8000;0.6398;1.3756;
719.1000;0.6333;1.3732;
719.4000;0.6341;1.3732;
719.7000;0.6357;1.3756;
720.0000;0.6349;1.3708;
720.3000;0.6357;1.3756;
720.6000;0.6365;1.3756;
720.9000;0.6349;1.3756;
721.2000;0.6349;1.3804;
721.5000;0.6341;1.3804;
721.8000;0.6333;1.3756;
722.1000;0.6349;1.3684;
722.4000;0.6325;1.3684;
722.7000;0.6325;1.3684;
723.0000;0.6333;1.3684;
723.3000;0.6292;1.3564;
723.6000;0.6333;1.3612;
723.9000;0.6325;1.3660;
724.2000;0.6300;1.3684;
724.5000;0.6325;1.3876;
724.8000;0.6349;1.3804;
725.1000;0.6398;1.3948;
725.4000;0.6292;1.3612;
725.7000;0.6349;1.3780;
726.0000;0.6333;1.3708;
726.3000;0.6325;1.3636;
726.6000;0.6309;1.3612;
726.9000;0.6382;1.3708;
727.2000;0.6357;1.3684;
727.5000;0.6333;1.3588;
727.8000;0.6333;1.3564;
728.1000;0.6325;1.3612;
728.4000;0.6309;1.3588;
728.7000;0.6317;1.3756;
729.0000;0.6317;1.3708;
729.3000;0.6333;1.3732;
729.6000;0.6309;1.3660;
729.9000;0.6333;1.3684;
730.2000;0.6341;1.3684;
730.5000;0.6309;1.3588;
730.8000;0.6317;1.3540;
731.1000;0.6325;1.3612;
731.4000;0.6276;1.3564;
731.7000;0.6284;1.3660;
732.0000;0.6292;1.3780;
732.3000;0.6268;1.3756;
732.6000;0.6219;1.3564;
732.9000;0.6276;1.3732;
733.2000;0.6235;1.3588;
733.5000;0.6276;1.3732;
733.8000;0.6325;1.3780;
734.1000;0.6357;1.3852;
734.4000;0.6276;1.3708;
734.7000;0.6284;1.3708;
735.0000;0.6300;1.3828;
735.3000;0.6276;1.3852;
735.6000;0.6260;1.3852;
735.9000;0.6382;1.4141;
736.2000;0.6309;1.3900;
736.5000;0.6284;1.3804;
736.8000;0.6325;1.3852;
737.1000;0.6300;1.3780;
737.4000;0.6276;1.3780;
737.7000;0.6268;1.3756;
738.0000;0.6276;1.3780;
738.3000;0.6276;1.3828;
738.6000;0.6276;1.3876;
738.9000;0.6260;1.3828;
739.2000;0.6276;1.3876;
739.5000;0.6276;1.3828;
739.8000;0.6284;1.3924;
740.1000;0.6260;1.3828;
740.4000;0.6260;1.3780;
740.7000;0.6268;1.3804;
741.0000;0.6276;1.3780;
741.3000;0.6300;1.3828;
741.6000;0.6284;1.3804;
741.9000;0.6276;1.3804;
742.2000;0.6276;1.3708;
742.5000;0.6284;1.3660;
742.8000;0.6260;1.3564;
743.1000;0.6243;1.3540;
743.4000;0.6186;1.3419;
743.7000;0.6260;1.3612;
744.0000;0.6260;1.3588;
744.3000;0.6300;1.3756;
744.6000;0.6243;1.3684;
744.9000;0.6252;1.3660;
745.2000;0.6260;1.3732;
745.5000;0.6276;1.3876;
745.8000;0.6252;1.3828;
746.1000;0.6268;1.3876;
746.4000;0.6268;1.3900;
746.7000;0.6260;1.3828;
747.0000;0.6243;1.3828;
747.3000;0.6276;1.3900;
747.6000;0.6260;1.3876;
747.9000;0.6235;1.3876;
748.2000;0.6252;1.3804;
748.5000;0.6260;1.3780;
748.8000;0.6243;1.3708;
749.1000;0.6268;1.3684;
749.4000;0.6333;1.3948;
749.7000;0.6243;1.3732;
750.0000;0.6268;1.3780;
750.3000;0.6260;1.3708;
750.6000;0.6268;1.3732;
750.9000;0.6243;1.3636;
751.2000;0.6235;1.3660;
751.5000;0.6243;1.3732;
751.8000;0.6227;1.3708;
752.1000;0.6235;1.3732;
752.4000;0.6227;1.3684;
752.7000;0.6268;1.3756;
753.0000;0.6227;1.3636;
753.3000;0.6219;1.3612;
753.6000;0.6211;1.3564;
753.9000;0.6227;1.3612;
754.2000;0.6227;1.3564;
754.5000;0.6211;1.3564;
754.8000;0.6219;1.3564;
755.1000;0.6227;1.3540;
755.4000;0.6219;1.3612;
755.7000;0.6227;1.3612;
756.0000;0.6235;1.3660;
756.3000;0.6252;1.3636;
756.6000;0.6227;1.3636;
756.9000;0.6227;1.3684;
757.2000;0.6268;1.3756;
757.5000;0.6227;1.3612;
757.8000;0.6219;1.3660;
758.1000;0.6227;1.3612;
758.4000;0.6219;1.3660;
758.7000;0.6203;1.3612;
759.0000;0.6219;1.3636;
759.3000;0.6219;1.3684;
759.6000;0.6211;1.3708;
759.9000;0.6227;1.3756;
760.2000;0.6235;1.3708;
760.5000;0.6227;1.3636;
760.8000;0.6211;1.3636;
761.1000;0.6203;1.3515;
761.4000;0.6195;1.3515;
761.7000;0.6235;1.3660;
762.0000;0.6219;1.3636;
762.3000;0.6211;1.3636;
762.6000;0.6211;1.3732;
762.9000;0.6252;1.3900;
763.2000;0.6219;1.3852;
763.5000;0.6219;1.3756;
763.8000;0.6203;1.3756;
764.1000;0.6219;1.3756;
764.4000;0.6203;1.3732;
764.7000;0.6211;1.3756;
765.0000;0.6211;1.3804;
765.3000;0.6227;1.3780;
765.6000;0.6203;1.3684;
765.9000;0.6211;1.3588;
766.2000;0.6186;1.3540;
766.5000;0.6211;1.3612;
766.8000;0.6219;1.3684;
767.1000;0.6227;1.3660;
767.4000;0.6243;1.3756;
767.7000;0.6178;1.3636;
768.0000;0.6203;1.3708;
768.3000;0.6178;1.3636;
768.6000;0.6186;1.3636;
768.9000;0.6186;1.3636;
769.2000;0.6162;1.3564;
769.5000;0.6203;1.3612;
769.8000;0.6186;1.3612;
770.1000;0.6211;1.3660;
770.4000;0.6243;1.3684;
770.7000;0.6195;1.3612;
771.0000;0.6211;1.3732;
771.3000;0.6219;1.3756;
771.6000;0.6211;1.3804;
771.9000;0.6227;1.3876;
772.2000;0.6195;1.3804;
772.5000;0.6276;1.3972;
772.8000;0.6211;1.3756;
773.1000;0.6178;1.3660;
773.4000;0.6195;1.3588;
773.7000;0.6203;1.3684;
774.0000;0.6170;1.3732;
774.3000;0.6186;1.3660;
774.6000;0.6203;1.3660;
774.9000;0.6203;1.3708;
775.2000;0.6219;1.3732;
775.5000;0.6276;1.3852;
775.8000;0.6162;1.3660;
776.1000;0.6211;1.3732;
776.4000;0.6195;1.3684;
776.7000;0.6195;1.3780;
777.0000;0.6178;1.3756;
777.3000;0.6178;1.3780;
777.6000;0.6203;1.3996;
777.9000;0.6186;1.3924;
778.2000;0.6178;1.3876;
778.5000;0.6186;1.3924;
778.8000;0.6186;1.3948;
779.1000;0.6170;1.3804;
779.4000;0.6154;1.3804;
779.7000;0.6203;1.3828;
780.0000;0.6178;1.3804;
780.3000;0.6170;1.3852;
780.6000;0.6178;1.3972;
780.9000;0.6227;1.4093;
781.2000;0.6178;1.3900;
781.5000;0.6195;1.3852;
781.8000;0.6186;1.3804;
782.1000;0.6162;1.3756;
782.4000;0.6154;1.3780;
782.7000;0.6121;1.3708;
783.0000;0.6146;1.3684;
783.3000;0.6178;1.3708;
783.6000;0.6260;1.3876;
783.9000;0.6170;1.3636;
784.2000;0.6162;1.3564;
784.5000;0.6178;1.3515;
784.8000;0.6195;1.3540;
785.1000;0.6170;1.3491;
785.4000;0.6178;1.3540;
785.7000;0.6146;1.3515;
786.0000;0.6186;1.3588;
786.3000;0.6235;1.3684;
786.6000;0.6162;1.3588;
786.9000;0.6162;1.3564;
787.2000;0.6186;1.3636;
787.5000;0.6162;1.3588;
787.8000;0.6162;1.3636;
788.1000;0.6170;1.3684;
788.4000;0.6195;1.3804;
788.7000;0.6195;1.3804;
789.0000;0.6170;1.3612;
789.3000;0.6211;1.3660;
789.6000;0.6170;1.3564;
789.9000;0.6138;1.3588;
790.2000;0.6170;1.3708;
790.5000;0.6121;1.3660;
790.8000;0.6162;1.3732;
791.1000;0.6219;1.3924;
791.4000;0.6170;1.3828;
791.7000;0.6154;1.3732;
792.0000;0.6162;1.3780;
792.3000;0.6219;1.3900;
792.6000;0.6146;1.3684;
792.9000;0.6162;1.3684;
793.2000;0.6146;1.3660;
793.5000;0.6138;1.3612;
793.8000;0.6162;1.3732;
794.1000;0.6146;1.3708;
794.4000;0.6138;1.3684;
794.7000;0.6211;1.3828;
795.0000;0.6154;1.3732;
795.3000;0.6146;1.3780;
795.6000;0.6146;1.3732;
795.9000;0.6162;1.3852;
796.2000;0.6162;1.3852;
796.5000;0.6162;1.3900;
796.8000;0.6146;1.3828;
797.1000;0.6178;1.3876;
797.4000;0.6162;1.3732;
797.7000;0.6146;1.3564;
798.0000;0.6146;1.3564;
798.3000;0.6162;1.3588;
798.6000;0.6203;1.3708;
798.9000;0.6162;1.3612;
799.2000;0.6170;1.3588;
799.5000;0.6154;1.3612;
799.8000;0.6154;1.3636;
800.1000;0.6154;1.3636;
800.4000;0.6227;1.3708;
800.7000;0.6138;1.3588;
801.0000;0.6154;1.3660;
801.3000;0.6162;1.3660;
801.6000;0.6186;1.3660;
801.9000;0.6121;1.3540;
802.2000;0.6089;1.3515;
802.5000;0.6138;1.3564;
802.8000;0.6170;1.3612;
803.1000;0.6170;1.3564;
803.4000;0.6219;1.3756;
803.7000;0.6138;1.3564;
804.0000;0.6129;1.3491;
804.3000;0.6146;1.3515;
804.6000;0.6121;1.3419;
804.9000;0.6162;1.3443;
805.2000;0.6105;1.3323;
805.5000;0.6146;1.3419;
805.8000;0.6138;1.3395;
806.1000;0.6138;1.3443;
806.4000;0.6138;1.3540;
806.7000;0.6154;1.3564;
807.0000;0.6129;1.3491;
807.3000;0.6138;1.3515;
807.6000;0.6146;1.3515;
807.9000;0.6138;1.3467;
808.2000;0.6154;1.3467;
808.5000;0.6146;1.3564;
808.8000;0.6170;1.3660;
809.1000;0.6146;1.3588;
809.4000;0.6154;1.3612;
809.7000;0.6113;1.3588;
810.0000;0.6154;1.3732;
810.3000;0.6138;1.3708;
810.6000;0.6138;1.3660;
810.9000;0.6129;1.3636;
811.2000;0.6154;1.3732;
811.5000;0.6138;1.3756;
811.8000;0.6089;1.3756;
812.1000;0.6154;1.3804;
812.4000;0.6146;1.3804;
812.7000;0.6138;1.3780;
813.0000;0.6146;1.3828;
813.3000;0.6154;1.3828;
813.6000;0.6162;1.3804;
813.9000;0.6146;1.3804;
814.2000;0.6154;1.3804;
814.5000;0.6129;1.3732;
814.8000;0.6129;1.3756;
815.1000;0.6178;1.3828;
815.4000;0.6138;1.3780;
815.7000;0.6154;1.3804;
816.0000;0.6129;1.3804;
816.3000;0.6129;1.3876;
816.6000;0.6138;1.3876;
816.9000;0.6129;1.3900;
817.2000;0.6129;1.3924;
817.5000;0.6113;1.3852;
817.8000;0.6138;1.3804;
818.1000;0.6129;1.3804;
818.4000;0.6138;1.3804;
818.7000;0.6129;1.3828;
819.0000;0.6129;1.3900;
819.3000;0.6121;1.3876;
819.6000;0.6154;1.3996;
819.9000;0.6138;1.3900;
820.2000;0.6138;1.3900;
820.5000;0.6146;1.3780;
820.8000;0.6178;1.3852;
821.1000;0.6146;1.3852;
821.4000;0.6162;1.3876;
821.7000;0.6146;1.3924;
822.0000;0.6146;1.3804;
822.3000;0.6138;1.3732;
822.6000;0.6121;1.3804;
822.9000;0.6146;1.3828;
823.2000;0.6129;1.3708;
823.5000;0.6129;1.3684;
823.8000;0.6113;1.3564;
824.1000;0.6154;1.3564;
824.4000;0.6170;1.3515;
824.7000;0.6129;1.3419;
825.0000;0.6129;1.3540;
825.3000;0.6121;1.3564;
825.6000;0.6081;1.3395;
825.9000;0.6121;1.3467;
826.2000;0.6129;1.3491;
826.5000;0.6129;1.3540;
826.8000;0.6121;1.3588;
827.1000;0.6138;1.3660;
827.4000;0.6113;1.3660;
827.7000;0.6138;1.3756;
828.0000;0.6146;1.3780;
828.3000;0.6105;1.3660;
828.6000;0.6113;1.3708;
828.9000;0.6138;1.3732;
829.2000;0.6138;1.3660;
829.5000;0.6138;1.3684;
829.8000;0.6121;1.3684;
830.1000;0.6121;1.3732;
830.4000;0.6121;1.3708;
830.7000;0.6138;1.3708;
831.0000;0.6138;1.3732;
831.3000;0.6064;1.3564;
831.6000;0.6138;1.3756;
831.9000;0.6138;1.3732;
832.2000;0.6121;1.3756;
832.5000;0.6113;1.3780;
832.8000;0.6113;1.3756;
833.1000;0.6129;1.3756;
833.4000;0.6113;1.3756;
833.7000;0.6129;1.3852;
834.0000;0.6129;1.3756;
834.3000;0.6162;1.3852;
834.6000;0.6129;1.3732;
834.9000;0.6121;1.3780;
835.2000;0.6129;1.3756;
835.5000;0.6146;1.3732;
835.8000;0.6081;1.3515;
836.1000;0.6121;1.3540;
836.4000;0.6105;1.3491;
836.7000;0.6121;1.3612;
837.0000;0.6113;1.3684;
837.3000;0.6081;1.3660;
837.6000;0.6105;1.3780;
837.9000;0.6138;1.3780;
838.2000;0.6146;1.3756;
838.5000;0.6195;1.3756;
838.8000;0.6097;1.3491;
839.1000;0.6138;1.3515;
839.4000;0.6146;1.3540;
839.7000;0.6138;1.3515;
840.0000;0.6113;1.3467;
840.3000;0.6089;1.3443;
840.6000;0.6097;1.3515;
840.9000;0.6097;1.3588;
841.2000;0.6097;1.3588;
841.5000;0.6032;1.3443;
841.8000;0.6129;1.3708;
842.1000;0.6121;1.3660;
842.4000;0.6129;1.3684;
842.7000;0.6113;1.3660;
843.0000;0.6129;1.3708;
843.3000;0.6154;1.3708;
843.6000;0.6024;1.3419;
843.9000;0.6089;1.3540;
844.2000;0.6089;1.3540;
844.5000;0.6162;1.3732;
844.8000;0.6138;1.3684;
845.1000;0.6113;1.3636;
845.4000;0.6129;1.3636;
845.7000;0.6129;1.3636;
846.0000;0.6113;1.3588;
846.3000;0.6113;1.3612;
846.6000;0.6113;1.3684;
846.9000;0.6129;1.3828;
847.2000;0.6138;1.3828;
847.5000;0.6138;1.3828;
847.8000;0.6162;1.3804;
848.1000;0.6097;1.3612;
848.4000;0.6113;1.3684;
848.7000;0.6105;1.3660;
849.0000;0.6121;1.3612;
849.3000;0.6129;1.3660;
849.6000;0.6113;1.3636;
849.9000;0.6121;1.3732;
850.2000;0.6089;1.3684;
850.5000;0.6195;1.3948;
850.8000;0.6097;1.3732;
851.1000;0.6105;1.3732;
851.4000;0.6097;1.3684;
851.7000;0.6056;1.3540;
852.0000;0.6113;1.3708;
852.3000;0.6105;1.3564;
852.6000;0.6089;1.3588;
852.9000;0.6105;1.3684;
853.2000;0.6113;1.3780;
853.5000;0.6097;1.3780;
853.8000;0.6113;1.3684;
854.1000;0.6089;1.3612;
854.4000;0.6097;1.3636;
854.7000;0.6129;1.3756;
855.0000;0.6105;1.3756;
855.3000;0.6105;1.3804;
855.6000;0.6105;1.3876;
855.9000;0.6146;1.4045;
856.2000;0.6105;1.3972;
856.5000;0.6105;1.3876;
856.8000;0.6154;1.3852;
857.1000;0.6129;1.3780;
857.4000;0.6146;1.3804;
857.7000;0.6105;1.3804;
858.0000;0.6178;1.4045;
858.3000;0.6097;1.3900;
858.6000;0.6121;1.4021;
858.9000;0.6129;1.3972;
859.2000;0.6113;1.3900;
859.5000;0.6121;1.3948;
859.8000;0.6097;1.3804;
860.1000;0.6097;1.3756;
860.4000;0.6162;1.3924;
860.7000;0.6129;1.3780;
861.0000;0.6129;1.3732;
861.3000;0.6097;1.3660;
861.6000;0.6032;1.3491;
861.9000;0.6105;1.3732;
862.2000;0.6097;1.3708;
862.5000;0.6154;1.3828;
862.8000;0.6089;1.3660;
863.1000;0.6105;1.3636;
863.4000;0.6121;1.3708;
863.7000;0.6089;1.3660;
864.0000;0.6081;1.3684;
864.3000;0.6121;1.3684;
864.6000;0.6211;1.3972;
864.9000;0.6113;1.3660;
865.2000;0.6113;1.3684;
865.5000;0.6072;1.3660;
865.8000;0.6113;1.3780;
866.1000;0.6121;1.3804;
866.4000;0.6121;1.3876;
866.7000;0.6138;1.3948;
867.0000;0.6121;1.3852;
867.3000;0.6048;1.3612;
867.6000;0.6097;1.3660;
867.9000;0.6113;1.3660;
868.2000;0.6113;1.3636;
868.5000;0.6121;1.3612;
868.8000;0.6121;1.3588;
869.1000;0.6129;1.3660;
869.4000;0.6113;1.3660;
869.7000;0.6146;1.3732;
870.0000;0.6097;1.3588;
870.3000;0.6105;1.3636;
870.6000;0.6121;1.3756;
870.9000;0.6089;1.3684;
871.2000;0.6121;1.3780;
871.5000;0.6105;1.3684;
871.8000;0.6129;1.3732;
872.1000;0.6129;1.3732;
872.4000;0.6121;1.3636;
872.7000;0.6121;1.3660;
873.0000;0.6105;1.3588;
873.3000;0.6146;1.3684;
873.6000;0.6121;1.3660;
873.9000;0.6113;1.3684;
874.2000;0.6089;1.3636;
874.5000;0.6089;1.3660;
874.8000;0.6105;1.3828;
875.1000;0.6072;1.3804;
875.4000;0.6064;1.3804;
875.7000;0.6064;1.3828;
876.0000;0.6113;1.3948;
876.3000;0.6097;1.3876;
876.6000;0.6129;1.3900;
876.9000;0.6064;1.3780;
877.2000;0.6097;1.3876;
877.5000;0.6097;1.3780;
877.8000;0.6105;1.3828;
878.1000;0.6121;1.3780;
878.4000;0.6113;1.3828;
878.7000;0.6121;1.3804;
879.0000;0.6105;1.3804;
879.3000;0.6097;1.3804;
879.6000;0.6081;1.3780;
879.9000;0.6081;1.3780;
880.2000;0.6089;1.3828;
880.5000;0.6089;1.3780;
880.8000;0.6081;1.3804;
881.1000;0.6105;1.3828;
881.4000;0.6121;1.3732;
881.7000;0.6113;1.3804;
882.0000;0.6113;1.3756;
882.3000;0.6089;1.3780;
882.6000;0.6081;1.3708;
882.9000;0.6097;1.3780;
883.2000;0.6097;1.3924;
883.5000;0.6105;1.3948;
883.8000;0.6089;1.3828;
884.1000;0.6081;1.3780;
884.4000;0.6089;1.3804;
884.7000;0.6081;1.3804;
885.0000;0.6064;1.3756;
885.3000;0.6040;1.3708;
885.6000;0.6081;1.3780;
885.9000;0.6105;1.3756;
886.2000;0.6081;1.3780;
886.5000;0.6089;1.3828;
886.8000;0.6105;1.3876;
887.1000;0.6072;1.3804;
887.4000;0.6089;1.3924;
887.7000;0.6129;1.3972;
888.0000;0.6089;1.3876;
888.3000;0.6056;1.3804;
888.6000;0.6072;1.3756;
888.9000;0.6064;1.3732;
889.2000;0.6105;1.3828;
889.5000;0.6072;1.3828;
889.8000;0.6089;1.3780;
890.1000;0.6081;1.3732;
890.4000;0.6072;1.3612;
890.7000;0.6081;1.3612;
891.0000;0.6097;1.3684;
891.3000;0.6081;1.3636;
891.6000;0.6105;1.3708;
891.9000;0.6072;1.3660;
892.2000;0.6097;1.3732;
892.5000;0.6113;1.3828;
892.8000;0.6121;1.3828;
893.1000;0.6121;1.3780;
893.4000;0.6097;1.3660;
893.7000;0.6089;1.3660;
894.0000;0.6081;1.3660;
894.3000;0.6154;1.3756;
894.6000;0.6105;1.3612;
894.9000;0.6097;1.3612;
895.2000;0.6097;1.3684;
895.5000;0.6113;1.3756;
895.8000;0.6105;1.3660;
896.1000;0.6064;1.3540;
896.4000;0.6015;1.3540;
896.7000;0.6121;1.3876;
897.0000;0.6089;1.3732;
897.3000;0.6064;1.3684;
897.6000;0.6105;1.3732;
897.9000;0.6121;1.3876;
898.2000;0.6146;1.3924;
898.5000;0.6081;1.3780;
898.8000;0.6072;1.3780;
899.1000;0.6097;1.3828;
899.4000;0.6072;1.3756;
899.7000;0.6105;1.3804;
900.0000;0.6064;1.3708;
900.3000;0.6089;1.3804;
900.6000;0.6072;1.3732;
900.9000;0.6105;1.3828;
901.2000;0.6081;1.3804;
901.5000;0.6089;1.3828;
901.8000;0.6081;1.3804;
902.1000;0.6097;1.3756;
902.4000;0.6105;1.3756;
902.7000;0.6081;1.3732;
903.0000;0.6097;1.3732;
903.3000;0.6121;1.3780;
903.6000;0.6089;1.3684;
903.9000;0.6072;1.3660;
904.2000;0.6048;1.3636;
904.5000;0.6105;1.3708;
904.8000;0.6064;1.3515;
905.1000;0.6081;1.3515;
905.4000;0.6089;1.3564;
905.7000;0.6097;1.3612;
906.0000;0.6081;1.3540;
906.3000;0.6089;1.3588;
906.6000;0.6097;1.3612;
906.9000;0.6170;1.3756;
907.2000;0.6089;1.3515;
907.5000;0.6089;1.3636;
907.8000;0.6097;1.3612;
908.1000;0.6097;1.3612;
908.4000;0.6121;1.3636;
908.7000;0.6072;1.3684;
909.0000;0.6089;1.3708;
909.3000;0.6129;1.3804;
909.6000;0.6089;1.3708;
909.9000;0.6081;1.3588;
910.2000;0.6089;1.3540;
910.5000;0.6081;1.3540;
910.8000;0.6081;1.3564;
911.1000;0.6048;1.3491;
911.4000;0.6056;1.3588;
911.7000;0.6072;1.3684;
912.0000;0.6081;1.3708;
912.3000;0.6072;1.3804;
912.6000;0.6097;1.3732;
912.9000;0.6081;1.3732;
913.2000;0.6105;1.3780;
913.5000;0.6064;1.3732;
913.8000;0.6081;1.3804;
914.1000;0.6072;1.3732;
914.4000;0.6097;1.3684;
914.7000;0.6089;1.3612;
915.0000;0.6081;1.3636;
915.3000;0.6089;1.3684;
915.6000;0.6089;1.3708;
915.9000;0.6089;1.3732;
916.2000;0.6105;1.3732;
916.5000;0.6129;1.3852;
916.8000;0.6032;1.3684;
917.1000;0.6097;1.3900;
917.4000;0.6064;1.3828;
917.7000;0.6105;1.3828;
918.0000;0.6105;1.3804;
918.3000;0.6097;1.3900;
918.6000;0.6040;1.3732;
918.9000;0.6089;1.3828;
919.2000;0.6081;1.3876;
919.5000;0.6089;1.3876;
919.8000;0.6081;1.3804;
920.1000;0.6048;1.3660;
920.4000;0.6129;1.3780;
920.7000;0.6089;1.3660;
921.0000;0.6081;1.3588;
921.3000;0.6072;1.3588;
921.6000;0.6056;1.3612;
921.9000;0.6081;1.3636;
922.2000;0.6081;1.3636;
922.5000;0.6081;1.3756;
922.8000;0.6072;1.3708;
923.1000;0.6064;1.3636;
923.4000;0.6072;1.3708;
923.7000;0.6081;1.3804;
924.0000;0.6064;1.3828;
924.3000;0.6048;1.3780;
924.6000;0.6097;1.3948;
924.9000;0.6064;1.3828;
925.2000;0.6081;1.3708;
925.5000;0.6072;1.3684;
925.8000;0.6081;1.3708;
926.1000;0.6089;1.3660;
926.4000;0.6056;1.3515;
926.7000;0.6097;1.3636;
927.0000;0.6097;1.3636;
927.3000;0.6097;1.3636;
927.6000;0.6081;1.3612;
927.9000;0.6089;1.3636;
928.2000;0.6081;1.3684;
928.5000;0.6081;1.3684;
928.8000;0.6081;1.3612;
929.1000;0.6072;1.3564;
929.4000;0.6064;1.3588;
929.7000;0.6072;1.3684;
930.0000;0.6024;1.3612;
930.3000;0.6048;1.3756;
930.6000;0.6113;1.3924;
930.9000;0.6032;1.3756;
931.2000;0.6072;1.3828;
931.5000;0.6081;1.3852;
931.8000;0.6097;1.3804;
932.1000;0.6097;1.3780;
932.4000;0.6089;1.3852;
932.7000;0.6024;1.3660;
933.0000;0.6081;1.3804;
933.3000;0.6040;1.3708;
933.6000;0.6089;1.3876;
933.9000;0.6081;1.3924;
934.2000;0.6081;1.3876;
934.5000;0.6072;1.3828;
934.8000;0.6097;1.3900;
935.1000;0.6138;1.3924;
935.4000;0.6024;1.3660;
935.7000;0.6081;1.3852;
936.0000;0.6081;1.3804;
936.3000;0.6081;1.3828;
936.6000;0.6048;1.3804;
936.9000;0.6072;1.3852;
937.2000;0.6081;1.3780;
937.5000;0.6040;1.3660;
937.8000;0.6089;1.3756;
938.1000;0.6064;1.3732;
938.4000;0.6056;1.3684;
938.7000;0.6072;1.3804;
939.0000;0.6081;1.3780;
939.3000;0.6105;1.3780;
939.6000;0.6097;1.3780;
939.9000;0.6105;1.3756;
940.2000;0.6081;1.3660;
940.5000;0.6072;1.3660;
940.8000;0.6056;1.3467;
941.1000;0.6089;1.3588;
941.4000;0.6138;1.3708;
941.7000;0.6032;1.3515;
942.0000;0.6089;1.3732;
942.3000;0.6081;1.3684;
942.6000;0.6081;1.3756;
942.9000;0.6072;1.3708;
943.2000;0.6072;1.3684;
943.5000;0.6089;1.3756;
943.8000;0.6081;1.3660;
944.1000;0.6072;1.3612;
944.4000;0.6097;1.3612;
944.7000;0.6089;1.3564;
945.0000;0.6089;1.3491;
945.3000;0.6064;1.3467;
945.6000;0.6081;1.3540;
945.9000;0.6072;1.3564;
946.2000;0.6048;1.3467;
946.5000;0.6072;1.3467;
946.8000;0.6064;1.3564;
947.1000;0.6048;1.3491;
947.4000;0.6072;1.3443;
947.7000;0.6064;1.3540;
948.0000;0.6048;1.3467;
948.3000;0.6064;1.3467;
948.6000;0.6089;1.3564;
948.9000;0.6064;1.3467;
949.2000;0.6072;1.3540;
949.5000;0.6056;1.3491;
949.8000;0.6048;1.3515;
950.1000;0.6064;1.3540;
950.4000;0.6081;1.3588;
950.7000;0.6081;1.3564;
951.0000;0.6072;1.3540;
951.3000;0.6081;1.3515;
951.6000;0.6056;1.3491;
951.9000;0.6097;1.3515;
952.2000;0.6138;1.3660;
952.5000;0.6089;1.3564;
952.8000;0.6064;1.3491;
953.1000;0.6064;1.3395;
953.4000;0.6081;1.3443;
953.7000;0.6081;1.3564;
954.0000;0.6072;1.3540;
954.3000;0.6064;1.3395;
954.6000;0.6064;1.3395;
954.9000;0.6097;1.3588;
955.2000;0.6089;1.3515;
955.5000;0.6072;1.3515;
955.8000;0.6048;1.3515;
956.1000;0.6064;1.3588;
956.4000;0.6154;1.3852;
956.7000;0.6064;1.3612;
957.0000;0.6072;1.3564;
957.3000;0.6072;1.3708;
957.6000;0.6081;1.3804;
957.9000;0.6072;1.3780;
958.2000;0.6064;1.3756;
958.5000;0.6024;1.3612;
958.8000;0.6081;1.3780;
959.1000;0.6056;1.3756;
959.4000;0.6081;1.3708;
959.7000;0.6007;1.3588;
960.0000;0.6056;1.3708;
960.3000;0.6072;1.3684;
960.6000;0.6064;1.3636;
960.9000;0.6056;1.3612;
961.2000;0.6064;1.3660;
961.5000;0.6081;1.3588;
961.8000;0.6072;1.3612;
962.1000;0.6072;1.3660;
962.4000;0.6072;1.3708;
962.7000;0.6072;1.3732;
963.0000;0.6089;1.3756;
963.3000;0.6072;1.3708;
963.6000;0.6081;1.3732;
963.9000;0.6072;1.3756;
964.2000;0.6089;1.3732;
964.5000;0.6089;1.3684;
964.8000;0.6064;1.3756;
965.1000;0.6113;1.3780;
965.4000;0.6089;1.3756;
965.7000;0.6072;1.3684;
966.0000;0.6072;1.3732;
966.3000;0.6048;1.3732;
966.6000;0.6072;1.3804;
966.9000;0.6064;1.3780;
967.2000;0.6064;1.3756;
967.5000;0.6081;1.3756;
967.8000;0.6072;1.3756;
968.1000;0.6056;1.3828;
968.4000;0.6064;1.3804;
968.7000;0.6056;1.3756;
969.0000;0.6081;1.3780;
969.3000;0.6056;1.3708;
969.6000;0.6064;1.3684;
969.9000;0.6064;1.3660;
970.2000;0.6072;1.3732;
970.5000;0.6064;1.3804;
970.8000;0.6064;1.3780;
971.1000;0.6072;1.3780;
971.4000;0.6064;1.3708;
971.7000;0.6081;1.3708;
972.0000;0.6064;1.3684;
972.3000;0.6040;1.3660;
972.6000;0.6048;1.3612;
972.9000;0.6072;1.3564;
973.2000;0.6056;1.3564;
973.5000;0.6072;1.3612;
973.8000;0.6056;1.3612;
974.1000;0.6081;1.3708;
974.4000;0.6056;1.3756;
974.7000;0.6064;1.3780;
975.0000;0.6064;1.3732;
975.3000;0.6072;1.3828;
975.6000;0.6081;1.3756;
975.9000;0.6072;1.3708;
976.2000;0.6089;1.3756;
976.5000;0.6081;1.3780;
976.8000;0.6056;1.3708;
977.1000;0.6072;1.3708;
977.4000;0.6064;1.3684;
977.7000;0.6081;1.3756;
978.0000;0.6072;1.3732;
978.3000;0.6015;1.3636;
978.6000;0.6056;1.3780;
978.9000;0.6072;1.3852;
979.2000;0.6056;1.3804;
979.5000;0.6064;1.3756;
979.8000;0.6048;1.3684;
980.1000;0.6056;1.3708;
980.4000;0.6032;1.3636;
980.7000;0.6048;1.3684;
981.0000;0.5999;1.3636;
981.3000;0.6048;1.3756;
981.6000;0.6048;1.3732;
981.9000;0.6089;1.3804;
982.2000;0.6040;1.3684;
982.5000;0.6121;1.3900;
982.8000;0.6048;1.3660;
983.1000;0.6072;1.3612;
983.4000;0.6040;1.3515;
983.7000;0.6048;1.3419;
984.0000;0.6056;1.3395;
984.3000;0.6081;1.3467;
984.6000;0.6072;1.3491;
984.9000;0.6072;1.3540;
985.2000;0.6064;1.3564;
985.5000;0.6089;1.3612;
985.8000;0.6072;1.3564;
986.1000;0.6064;1.3588;
986.4000;0.6048;1.3612;
986.7000;0.6064;1.3660;
987.0000;0.6056;1.3708;
987.3000;0.6064;1.3708;
987.6000;0.6072;1.3780;
987.9000;0.6081;1.3828;
988.2000;0.6072;1.3804;
988.5000;0.6081;1.3828;
988.8000;0.6064;1.3852;
989.1000;0.6048;1.3900;
989.4000;0.6064;1.3924;
989.7000;0.6081;1.3948;
990.0000;0.6056;1.3852;
990.3000;0.6081;1.3972;
990.6000;0.6064;1.3828;
990.9000;0.6081;1.3876;
991.2000;0.6064;1.3804;
991.5000;0.6048;1.3756;
991.8000;0.6064;1.3876;
992.1000;0.6056;1.3876;
992.4000;0.6064;1.3876;
992.7000;0.6024;1.3804;
993.0000;0.5999;1.3732;
993.3000;0.6089;1.3876;
993.6000;0.6056;1.3756;
993.9000;0.5991;1.3612;
994.2000;0.6064;1.3732;
994.5000;0.6064;1.3708;
994.8000;0.6072;1.3780;
995.1000;0.6064;1.3756;
995.4000;0.6048;1.3780;
995.7000;0.6048;1.3732;
996.0000;0.6105;1.3804;
996.3000;0.5983;1.3515;
996.6000;0.6064;1.3780;
996.9000;0.6072;1.3756;
997.2000;0.6024;1.3660;
997.5000;0.6064;1.3756;
997.8000;0.6048;1.3708;
998.1000;0.6064;1.3684;
998.4000;0.6040;1.3660;
998.7000;0.6072;1.3684;
999.0000;0.6056;1.3708;
999.3000;0.6081;1.3804;
999.6000;0.6048;1.3732;
999.9000;0.6072;1.3756;
1000.2000;0.6081;1.3804;
1000.5000;0.6048;1.3756;
1000.8000;0.6064;1.3804;
1001.1000;0.6072;1.3828;
1001.4000;0.6015;1.3780;
1001.7000;0.6048;1.3780;
1002.0000;0.6081;1.3876;
1002.3000;0.6064;1.3876;
1002.6000;0.6072;1.3876;
1002.9000;0.6056;1.3708;
1003.2000;0.6064;1.3708;
1003.5000;0.6072;1.3732;
1003.8000;0.6064;1.3684;
1004.1000;0.6056;1.3636;
1004.4000;0.6064;1.3708;
1004.7000;0.6113;1.3756;
1005.0000;0.6056;1.3708;
1005.3000;0.6048;1.3684;
1005.6000;0.6064;1.3708;
1005.9000;0.6040;1.3612;
1006.2000;0.6056;1.3660;
1006.5000;0.6032;1.3636;
1006.8000;0.6024;1.3612;
1007.1000;0.6064;1.3684;
1007.4000;0.6032;1.3612;
1007.7000;0.6105;1.3804;
1008.0000;0.6064;1.3660;
1008.3000;0.6064;1.3636;
1008.6000;0.6064;1.3660;
1008.9000;0.6032;1.3612;
1009.2000;0.6072;1.3636;
1009.5000;0.6056;1.3684;
1009.8000;0.6081;1.3708;
1010.1000;0.6032;1.3636;
1010.4000;0.6097;1.3804;
1010.7000;0.6056;1.3708;
1011.0000;0.6081;1.3732;
1011.3000;0.6081;1.3636;
1011.6000;0.6081;1.3756;
1011.9000;0.6081;1.3780;
1012.2000;0.6064;1.3756;
1012.5000;0.6129;1.3972;
1012.8000;0.6056;1.3756;
1013.1000;0.6015;1.3636;
1013.4000;0.6040;1.3732;
1013.7000;0.6072;1.3804;
1014.0000;0.6048;1.3852;
1014.3000;0.6081;1.3924;
1014.6000;0.6056;1.3780;
1014.9000;0.6097;1.3852;
1015.2000;0.6072;1.3828;
1015.5000;0.6015;1.3756;
1015.8000;0.5999;1.3636;
1016.1000;0.6024;1.3660;
1016.4000;0.6024;1.3660;
1016.7000;0.6064;1.3756;
1017.0000;0.6040;1.3684;
1017.3000;0.6048;1.3780;
1017.6000;0.6064;1.3852;
1017.9000;0.6072;1.3852;
1018.2000;0.6064;1.3780;
1018.5000;0.6064;1.3684;
1018.8000;0.6081;1.3756;
1019.1000;0.6072;1.3684;
1019.4000;0.6072;1.3732;
1019.7000;0.6072;1.3660;
1020.0000;0.6072;1.3684;
1020.3000;0.6048;1.3708;
1020.6000;0.6056;1.3852;
1020.9000;0.6024;1.3780;
1021.2000;0.6072;1.3876;
1021.5000;0.6081;1.3948;
1021.8000;0.6032;1.3900;
1022.1000;0.6056;1.3996;
1022.4000;0.6056;1.4045;
1022.7000;0.6048;1.4021;
1023.0000;0.6056;1.3972;
1023.3000;0.6064;1.3900;
1023.6000;0.6064;1.3876;
1023.9000;0.6056;1.3780;
1024.2000;0.6072;1.3828;
1024.5000;0.6064;1.3900;
1024.8000;0.6048;1.3924;
1025.1000;0.6056;1.3924;
1025.4000;0.6040;1.3804;
1025.7000;0.6081;1.3924;
1026.0000;0.6032;1.3804;
1026.3000;0.6040;1.3924;
1026.6000;0.6105;1.4021;
1026.9000;0.6040;1.3828;
1027.2000;0.6040;1.3804;
1027.5000;0.6024;1.3756;
1027.8000;0.6081;1.3828;
1028.1000;0.6040;1.3660;
1028.4000;0.6129;1.3876;
1028.7000;0.6064;1.3780;
1029.0000;0.6064;1.3732;
1029.3000;0.6056;1.3732;
1029.6000;0.6040;1.3588;
1029.9000;0.6064;1.3660;
1030.2000;0.6040;1.3660;
1030.5000;0.6048;1.3684;
1030.8000;0.6040;1.3708;
1031.1000;0.6048;1.3684;
1031.4000;0.6064;1.3756;
1031.7000;0.6064;1.3804;
1032.0000;0.6056;1.3804;
1032.3000;0.6064;1.3780;
1032.6000;0.6040;1.3756;
1032.9000;0.6048;1.3708;
1033.2000;0.6064;1.3684;
1033.5000;0.6056;1.3636;
1033.8000;0.6064;1.3756;
1034.1000;0.6072;1.3804;
1034.4000;0.6072;1.3780;
1034.7000;0.6056;1.3804;
1035.0000;0.6064;1.3780;
1035.3000;0.6064;1.3780;
1035.6000;0.6056;1.3804;
1035.9000;0.6064;1.3756;
1036.2000;0.6015;1.3540;
1036.5000;0.6072;1.3660;
1036.8000;0.6129;1.3804;
1037.1000;0.6064;1.3780;
1037.4000;0.6056;1.3804;
1037.7000;0.6056;1.3804;
1038.0000;0.6064;1.3900;
1038.3000;0.6089;1.4045;
1038.6000;0.6040;1.3876;
1038.9000;0.6097;1.3972;
1039.2000;0.6113;1.4045;
1039.5000;0.6064;1.3804;
1039.8000;0.6040;1.3732;
1040.1000;0.6056;1.3804;
1040.4000;0.6048;1.3852;
1040.7000;0.5999;1.3780;
1041.0000;0.6056;1.3804;
1041.3000;0.6040;1.3612;
1041.6000;0.6064;1.3564;
1041.9000;0.6048;1.3540;
1042.2000;0.6064;1.3515;
1042.5000;0.6064;1.3443;
1042.8000;0.6072;1.3564;
1043.1000;0.6048;1.3564;
1043.4000;0.6024;1.3515;
1043.7000;0.6064;1.3588;
1044.0000;0.6024;1.3588;
1044.3000;0.6056;1.3588;
1044.6000;0.6048;1.3540;
1044.9000;0.6072;1.3564;
1045.2000;0.6007;1.3395;
1045.5000;0.6072;1.3612;
1045.8000;0.6064;1.3564;
1046.1000;0.6064;1.3467;
1046.4000;0.5999;1.3299;
1046.7000;0.6064;1.3443;
1047.0000;0.6056;1.3443;
1047.3000;0.6064;1.3419;
1047.6000;0.6064;1.3443;
1047.9000;0.6015;1.3467;
1048.2000;0.6072;1.3564;
1048.5000;0.6015;1.3419;
1048.8000;0.6040;1.3467;
1049.1000;0.6064;1.3515;
1049.4000;0.6089;1.3636;
1049.7000;0.6072;1.3612;
1050.0000;0.6048;1.3540;
1050.3000;0.6064;1.3564;
1050.6000;0.6072;1.3612;
1050.9000;0.6048;1.3564;
1051.2000;0.6056;1.3636;
1051.5000;0.6040;1.3564;
1051.8000;0.6048;1.3564;
1052.1000;0.6040;1.3540;
1052.4000;0.6032;1.3540;
1052.7000;0.6064;1.3660;
1053.0000;0.6048;1.3588;
1053.3000;0.6024;1.3515;
1053.6000;0.6040;1.3564;
1053.9000;0.6048;1.3636;
1054.2000;0.6056;1.3684;
1054.5000;0.6048;1.3660;
1054.8000;0.6064;1.3708;
1055.1000;0.6064;1.3708;
1055.4000;0.6064;1.3684;
1055.7000;0.6048;1.3756;
1056.0000;0.6048;1.3660;
1056.3000;0.6064;1.3684;
1056.6000;0.6097;1.3780;
1056.9000;0.6056;1.3588;
1057.2000;0.6056;1.3515;
1057.5000;0.6072;1.3540;
1057.8000;0.6072;1.3540;
1058.1000;0.6032;1.3443;
1058.4000;0.6064;1.3443;
1058.7000;0.6015;1.3371;
1059.0000;0.6048;1.3564;
1059.3000;0.6056;1.3588;
1059.6000;0.6064;1.3588;
1059.9000;0.6040;1.3443;
1060.2000;0.6040;1.3419;
1060.5000;0.6032;1.3419;
1060.8000;0.6048;1.3491;
1061.1000;0.6040;1.3395;
1061.4000;0.6048;1.3371;
1061.7000;0.6015;1.3275;
1062.0000;0.6032;1.3323;
1062.3000;0.6040;1.3323;
1062.6000;0.6056;1.3371;
1062.9000;0.6048;1.3323;
1063.2000;0.6056;1.3347;
1063.5000;0.6064;1.3371;
1063.8000;0.6064;1.3347;
1064.1000;0.6048;1.3395;
1064.4000;0.6064;1.3491;
1064.7000;0.6064;1.3588;
1065.0000;0.6056;1.3491;
1065.3000;0.6040;1.3443;
1065.6000;0.6072;1.3564;
1065.9000;0.6064;1.3588;
1066.2000;0.6064;1.3564;
1066.5000;0.6064;1.3564;
1066.8000;0.6072;1.3491;
1067.1000;0.6072;1.3588;
1067.4000;0.6056;1.3660;
1067.7000;0.6056;1.3660;
1068.0000;0.6056;1.3684;
1068.3000;0.6072;1.3660;
1068.6000;0.6048;1.3612;
1068.9000;0.6056;1.3612;
1069.2000;0.6081;1.3684;
1069.5000;0.6072;1.3612;
1069.8000;0.6072;1.3636;
1070.1000;0.6056;1.3660;
1070.4000;0.6007;1.3612;
1070.7000;0.6048;1.3636;
1071.0000;0.6056;1.3540;
1071.3000;0.6056;1.3540;
1071.6000;0.6032;1.3564;
1071.9000;0.6056;1.3660;
1072.2000;0.6048;1.3684;
1072.5000;0.6105;1.3828;
1072.8000;0.6048;1.3756;
1073.1000;0.6064;1.3804;
1073.4000;0.6032;1.3660;
1073.7000;0.6056;1.3708;
1074.0000;0.6064;1.3636;
1074.3000;0.6072;1.3564;
1074.6000;0.6056;1.3564;
1074.9000;0.6056;1.3564;
1075.2000;0.6040;1.3564;
1075.5000;0.6032;1.3564;
1075.8000;0.6056;1.3612;
1076.1000;0.6064;1.3636;
1076.4000;0.6040;1.3660;
1076.7000;0.6048;1.3756;
1077.0000;0.6040;1.3756;
1077.3000;0.6048;1.3708;
1077.6000;0.6056;1.3756;
1077.9000;0.6048;1.3684;
1078.2000;0.6032;1.3636;
1078.5000;0.6040;1.3684;
1078.8000;0.6048;1.3732;
1079.1000;0.6056;1.3732;
1079.4000;0.6032;1.3780;
1079.7000;0.6048;1.3780;
1080.0000;0.6048;1.3804;
1080.3000;0.6064;1.3732;
1080.6000;0.6064;1.3780;
1080.9000;0.6064;1.3828;
1081.2000;0.6048;1.3732;
1081.5000;0.6048;1.3684;
1081.8000;0.6032;1.3732;
1082.1000;0.6040;1.3780;
1082.4000;0.6056;1.3780;
1082.7000;0.6040;1.3804;
1083.0000;0.6040;1.3756;
1083.3000;0.6007;1.3684;
1083.6000;0.6056;1.3804;
1083.9000;0.6064;1.3828;
1084.2000;0.6032;1.3780;
1084.5000;0.6024;1.3780;
1084.8000;0.6056;1.3852;
1085.1000;0.6064;1.3804;
1085.4000;0.6064;1.3780;
1085.7000;0.6105;1.3972;
1086.0000;0.6056;1.3828;
1086.3000;0.6056;1.3852;
1086.6000;0.6064;1.3852;
1086.9000;0.6007;1.3780;
1087.2000;0.6081;1.3900;
1087.5000;0.6064;1.3876;
1087.8000;0.6097;1.3900;
1088.1000;0.6048;1.3780;
1088.4000;0.6081;1.3876;
1088.7000;0.6056;1.3924;
1089.0000;0.6064;1.3972;
1089.3000;0.6081;1.3924;
1089.6000;0.6056;1.3828;
1089.9000;0.6072;1.3924;
1090.2000;0.6089;1.3876;
1090.5000;0.6032;1.3732;
1090.8000;0.6056;1.3804;
1091.1000;0.6056;1.3852;
1091.4000;0.6048;1.3804;
1091.7000;0.6064;1.3852;
1092.0000;0.6040;1.3828;
1092.3000;0.6064;1.3852;
1092.6000;0.6040;1.3804;
1092.9000;0.6056;1.3852;
1093.2000;0.6040;1.3780;
1093.5000;0.6056;1.3756;
1093.8000;0.6048;1.3732;
1094.1000;0.6056;1.3708;
1094.4000;0.6056;1.3756;
1094.7000;0.6032;1.3684;
1095.0000;0.6048;1.3684;
1095.3000;0.6048;1.3804;
1095.6000;0.6040;1.3756;
1095.9000;0.6040;1.3732;
1096.2000;0.6048;1.3804;
1096.5000;0.6064;1.3924;
1096.8000;0.6056;1.3900;
1097.1000;0.6048;1.3876;
1097.4000;0.6032;1.3924;
1097.7000;0.6048;1.3996;
1098.0000;0.6040;1.3900;
1098.3000;0.6048;1.3924;
1098.6000;0.6048;1.3996;
1098.9000;0.6056;1.4069;
1099.2000;0.6032;1.3948;
1099.5000;0.6048;1.3900;
1099.8000;0.6056;1.3828;
1100.1000;0.6072;1.3828;
1100.4000;0.6064;1.3732;
1100.7000;0.6056;1.3612;
1101.0000;0.6040;1.3660;
1101.3000;0.6048;1.3756;
1101.6000;0.6056;1.3780;
1101.9000;0.6040;1.3708;
1102.2000;0.6056;1.3684;
1102.5000;0.6056;1.3756;
1102.8000;0.6056;1.3732;
1103.1000;0.6048;1.3804;
1103.4000;0.6032;1.3852;
1103.7000;0.6064;1.3924;
1104.0000;0.5991;1.3756;
1104.3000;0.6064;1.4021;
1104.6000;0.6024;1.3924;
1104.9000;0.6032;1.3924;
1105.2000;0.6015;1.3780;
1105.5000;0.6056;1.3780;
1105.8000;0.6032;1.3804;
1106.1000;0.6081;1.3900;
1106.4000;0.6097;1.3972;
1106.7000;0.6064;1.3828;
1107.0000;0.6056;1.3780;
1107.3000;0.6048;1.3876;
1107.6000;0.6032;1.3876;
1107.9000;0.6040;1.3972;
1108.2000;0.6064;1.3972;
1108.5000;0.6040;1.3924;
1108.8000;0.6089;1.3972;
1109.1000;0.6048;1.3924;
1109.4000;0.6064;1.3900;
1109.7000;0.6040;1.3876;
1110.0000;0.6089;1.3948;
1110.3000;0.6056;1.3876;
1110.6000;0.6072;1.3900;
1110.9000;0.6024;1.3732;
1111.2000;0.6048;1.3828;
1111.5000;0.6048;1.3804;
1111.8000;0.6048;1.3780;
1112.1000;0.6072;1.3804;
1112.4000;0.6048;1.3804;
1112.7000;0.6056;1.3804;
1113.0000;0.6064;1.3852;
1113.3000;0.6048;1.3732;
1113.6000;0.6048;1.3780;
1113.9000;0.6064;1.3804;
1114.2000;0.6064;1.3708;
1114.5000;0.6040;1.3636;
1114.8000;0.6032;1.3612;
1115.1000;0.6040;1.3660;
1115.4000;0.6056;1.3732;
1115.7000;0.6056;1.3684;
1116.0000;0.6056;1.3708;
1116.3000;0.6040;1.3732;
1116.6000;0.6097;1.3852;
1116.9000;0.6048;1.3684;
1117.2000;0.6015;1.3612;
1117.5000;0.6032;1.3660;
1117.8000;0.6081;1.3780;
1118.1000;0.6056;1.3780;
1118.4000;0.6048;1.3756;
1118.7000;0.6040;1.3684;
1119.0000;0.6032;1.3660;
1119.3000;0.6048;1.3660;
1119.6000;0.6064;1.3756;
1119.9000;0.6097;1.3852;
1120.2000;0.6048;1.3732;
1120.5000;0.6064;1.3780;
1120.8000;0.6064;1.3852;
1121.1000;0.6032;1.3852;
1121.4000;0.6056;1.3900;
1121.7000;0.6064;1.3900;
1122.0000;0.6048;1.3804;
1122.3000;0.6056;1.3804;
1122.6000;0.6121;1.4045;
1122.9000;0.6056;1.3924;
1123.2000;0.6064;1.3996;
1123.5000;0.6015;1.3756;
1123.8000;0.6064;1.3948;
1124.1000;0.5991;1.3828;
1124.4000;0.6056;1.3924;
1124.7000;0.6081;1.3948;
1125.0000;0.6040;1.3804;
1125.3000;0.6040;1.3828;
1125.6000;0.6040;1.3876;
1125.9000;0.6072;1.3972;
1126.2000;0.6064;1.3972;
1126.5000;0.6040;1.3900;
1126.8000;0.6056;1.3900;
1127.1000;0.6064;1.3804;
1127.4000;0.6032;1.3732;
1127.7000;0.6032;1.3756;
1128.0000;0.6024;1.3828;
1128.3000;0.6040;1.3924;
1128.6000;0.6032;1.3804;
1128.9000;0.6024;1.3756;
1129.2000;0.5991;1.3564;
1129.5000;0.6048;1.3684;
1129.8000;0.6081;1.3828;
1130.1000;0.6040;1.3732;
1130.4000;0.6040;1.3708;
1130.7000;0.6048;1.3732;
1131.0000;0.6056;1.3708;
1131.3000;0.6056;1.3636;
1131.6000;0.6056;1.3612;
1131.9000;0.6040;1.3564;
1132.2000;0.6048;1.3612;
1132.5000;0.6056;1.3636;
1132.8000;0.6056;1.3708;
1133.1000;0.6048;1.3684;
1133.4000;0.6040;1.3636;
1133.7000;0.6040;1.3612;
1134.0000;0.6064;1.3684;
1134.3000;0.6048;1.3732;
1134.6000;0.6048;1.3636;
1134.9000;0.6064;1.3636;
1135.2000;0.6048;1.3612;
1135.5000;0.6040;1.3540;
1135.8000;0.6056;1.3588;
1136.1000;0.6048;1.3515;
1136.4000;0.6048;1.3467;
1136.7000;0.6064;1.3419;
1137.0000;0.6072;1.3491;
1137.3000;0.6048;1.3395;
1137.6000;0.6032;1.3515;
1137.9000;0.6081;1.3708;
1138.2000;0.6040;1.3660;
1138.5000;0.6064;1.3756;
1138.8000;0.6048;1.3636;
1139.1000;0.6048;1.3708;
1139.4000;0.6056;1.3660;
1139.7000;0.6015;1.3612;
1140.0000;0.6048;1.3732;
1140.3000;0.6024;1.3684;
1140.6000;0.6056;1.3828;
1140.9000;0.6048;1.3828;
1141.2000;0.6048;1.3828;
1141.5000;0.6056;1.3756;
1141.8000;0.6024;1.3588;
1142.1000;0.6048;1.3660;
1142.4000;0.6097;1.3756;
1142.7000;0.6040;1.3684;
1143.0000;0.6040;1.3780;
1143.3000;0.6048;1.3732;
1143.6000;0.6015;1.3756;
1143.9000;0.6032;1.3780;
1144.2000;0.6024;1.3804;
1144.5000;0.6015;1.3828;
1144.8000;0.6040;1.3924;
1145.1000;0.6040;1.3828;
1145.4000;0.5967;1.3467;
1145.7000;0.6056;1.3828;
1146.0000;0.6064;1.3924;
1146.3000;0.6056;1.3852;
1146.6000;0.6032;1.3732;
1146.9000;0.6056;1.3804;
1147.2000;0.6048;1.3660;
1147.5000;0.6056;1.3684;
1147.8000;0.6015;1.3684;
1148.1000;0.6064;1.3708;
1148.4000;0.6056;1.3564;
1148.7000;0.6024;1.3540;
1149.0000;0.6040;1.3636;
1149.3000;0.6040;1.3564;
1149.6000;0.6056;1.3588;
1149.9000;0.6048;1.3636;
1150.2000;0.6056;1.3660;
1150.5000;0.6048;1.3588;
1150.8000;0.6056;1.3636;
1151.1000;0.6064;1.3684;
1151.4000;0.6048;1.3660;
1151.7000;0.6072;1.3732;
1152.0000;0.6056;1.3732;
1152.3000;0.6032;1.3708;
1152.6000;0.6048;1.3708;
1152.9000;0.6072;1.3804;
1153.2000;0.6032;1.3684;
1153.5000;0.6048;1.3612;
1153.8000;0.6056;1.3588;
1154.1000;0.6097;1.3732;
1154.4000;0.6056;1.3708;
1154.7000;0.6056;1.3612;
1155.0000;0.6056;1.3708;
1155.3000;0.6056;1.3756;
1155.6000;0.6040;1.3756;
1155.9000;0.6081;1.3828;
1156.2000;0.6056;1.3804;
1156.5000;0.6032;1.3780;
1156.8000;0.6032;1.3780;
1157.1000;0.6040;1.3828;
1157.4000;0.6040;1.3780;
1157.7000;0.6048;1.3756;
1158.0000;0.6040;1.3804;
1158.3000;0.6056;1.3780;
1158.6000;0.6040;1.3708;
1158.9000;0.6056;1.3708;
1159.2000;0.6048;1.3732;
1159.5000;0.6064;1.3660;
1159.8000;0.6032;1.3636;
1160.1000;0.6040;1.3660;
1160.4000;0.6024;1.3588;
1160.7000;0.6056;1.3684;
1161.0000;0.6064;1.3708;
1161.3000;0.6048;1.3708;
1161.6000;0.6056;1.3732;
1161.9000;0.6040;1.3756;
1162.2000;0.5999;1.3684;
1162.5000;0.6056;1.3780;
1162.8000;0.6040;1.3708;
1163.1000;0.6032;1.3756;
1163.4000;0.6048;1.3708;
1163.7000;0.6040;1.3684;
1164.0000;0.6048;1.3660;
1164.3000;0.6040;1.3660;
1164.6000;0.6032;1.3708;
1164.9000;0.6048;1.3708;
1165.2000;0.6056;1.3708;
1165.5000;0.6064;1.3756;
1165.8000;0.6064;1.3708;
1166.1000;0.6040;1.3612;
1166.4000;0.6081;1.3780;
1166.7000;0.6024;1.3636;
1167.0000;0.6024;1.3612;
1167.3000;0.6032;1.3636;
1167.6000;0.6056;1.3732;
1167.9000;0.6032;1.3732;
1168.2000;0.6040;1.3732;
1168.5000;0.6040;1.3780;
1168.8000;0.6072;1.3972;
1169.1000;0.6048;1.3900;
1169.4000;0.6081;1.3876;
1169.7000;0.6040;1.3756;
1170.0000;0.6032;1.3780;
1170.3000;0.6048;1.3684;
1170.6000;0.6064;1.3684;
1170.9000;0.6007;1.3588;
1171.2000;0.6032;1.3660;
1171.5000;0.6048;1.3708;
1171.8000;0.6081;1.3804;
1172.1000;0.6032;1.3732;
1172.4000;0.6032;1.3612;
1172.7000;0.6040;1.3612;
1173.0000;0.6024;1.3684;
1173.3000;0.6040;1.3660;
1173.6000;0.6048;1.3708;
1173.9000;0.6056;1.3756;
1174.2000;0.6040;1.3708;
1174.5000;0.6032;1.3684;
1174.8000;0.6048;1.3804;
1175.1000;0.6040;1.3876;
1175.4000;0.6024;1.3852;
1175.7000;0.6040;1.3828;
1176.0000;0.6048;1.3708;
1176.3000;0.6048;1.3636;
1176.6000;0.6154;1.3972;
1176.9000;0.6056;1.3732;
1177.2000;0.6048;1.3636;
1177.5000;0.6015;1.3588;
1177.8000;0.6048;1.3636;
1178.1000;0.6032;1.3636;
1178.4000;0.6064;1.3612;
1178.7000;0.6024;1.3588;
1179.0000;0.6024;1.3588;
1179.3000;0.6048;1.3660;
1179.6000;0.6015;1.3515;
1179.9000;0.6015;1.3491;
1180.2000;0.6064;1.3660;
1180.5000;0.6032;1.3540;
1180.8000;0.6048;1.3540;
1181.1000;0.6048;1.3540;
1181.4000;0.6032;1.3515;
1181.7000;0.6064;1.3636;
1182.0000;0.6072;1.3780;
1182.3000;0.6040;1.3708;
1182.6000;0.6048;1.3708;
1182.9000;0.6056;1.3756;
1183.2000;0.5991;1.3660;
1183.5000;0.6064;1.3900;
1183.8000;0.6048;1.3900;
1184.1000;0.6040;1.3972;
1184.4000;0.6089;1.3972;
1184.7000;0.6040;1.3708;
1185.0000;0.6040;1.3684;
1185.3000;0.6056;1.3756;
1185.6000;0.6056;1.3708;
1185.9000;0.6048;1.3780;
1186.2000;0.6040;1.3804;
1186.5000;0.6056;1.3852;
1186.8000;0.6048;1.3900;
1187.1000;0.6056;1.3852;
1187.4000;0.6040;1.3732;
1187.7000;0.6040;1.3732;
1188.0000;0.6056;1.3708;
1188.3000;0.6089;1.3780;
1188.6000;0.6032;1.3660;
1188.9000;0.6040;1.3588;
1189.2000;0.6056;1.3612;
1189.5000;0.6048;1.3540;
1189.8000;0.6072;1.3540;
1190.1000;0.6072;1.3540;
1190.4000;0.6040;1.3443;
1190.7000;0.6064;1.3540;
1191.0000;0.6048;1.3540;
1191.3000;0.6040;1.3419;
1191.6000;0.6072;1.3467;
1191.9000;0.6072;1.3540;
1192.2000;0.6064;1.3515;
1192.5000;0.6072;1.3491;
1192.8000;0.6048;1.3395;
1193.1000;0.6040;1.3443;
1193.4000;0.6105;1.3636;
1193.7000;0.6040;1.3564;
1194.0000;0.6024;1.3540;
1194.3000;0.6040;1.3564;
1194.6000;0.6048;1.3419;
1194.9000;0.6032;1.3347;
1195.2000;0.6040;1.3491;
1195.5000;0.6048;1.3660;
1195.8000;0.6056;1.3708;
1196.1000;0.6040;1.3588;
1196.4000;0.6056;1.3684;
1196.7000;0.6056;1.3660;
1197.0000;0.6064;1.3660;
1197.3000;0.6056;1.3660;
1197.6000;0.6064;1.3660;
1197.9000;0.6032;1.3612;
1198.2000;0.6032;1.3708;
1198.5000;0.6048;1.3684;
1198.8000;0.6048;1.3660;
1199.1000;0.6048;1.3660;
1199.4000;0.6048;1.3636;
1199.7000;0.6056;1.3756;
1200.0000;0.6048;1.3732;
1200.3000;0.6064;1.3804;
1200.6000;0.6056;1.3804;
1200.9000;0.5983;1.3660;
1201.2000;0.6048;1.3708;
1201.5000;0.6056;1.3756;
1201.8000;0.6040;1.3780;
1202.1000;0.6064;1.3876;
1202.4000;0.6089;1.3852;
1202.7000;0.6121;1.3924;
1203.0000;0.6064;1.3780;
1203.3000;0.6056;1.3780;
1203.6000;0.6048;1.3756;
1203.9000;0.6015;1.3588;
1204.2000;0.6048;1.3708;
1204.5000;0.6056;1.3732;
1204.8000;0.6048;1.3636;
1205.1000;0.6040;1.3684;
1205.4000;0.6007;1.3564;
1205.7000;0.6072;1.3636;
1206.0000;0.6056;1.3708;
1206.3000;0.6056;1.3708;
1206.6000;0.6048;1.3732;
1206.9000;0.6064;1.3732;
1207.2000;0.6072;1.3684;
1207.5000;0.6056;1.3636;
1207.8000;0.6040;1.3612;
1208.1000;0.6048;1.3588;
1208.4000;0.6056;1.3660;
1208.7000;0.6072;1.3708;
1209.0000;0.6048;1.3660;
1209.3000;0.6040;1.3684;
1209.6000;0.6064;1.3636;
1209.9000;0.6040;1.3636;
1210.2000;0.6048;1.3588;
1210.5000;0.6048;1.3612;
1210.8000;0.6072;1.3684;
1211.1000;0.6064;1.3684;
1211.4000;0.6056;1.3588;
1211.7000;0.6032;1.3443;
1212.0000;0.6048;1.3371;
1212.3000;0.6056;1.3443;
1212.6000;0.6040;1.3467;
1212.9000;0.6048;1.3443;
1213.2000;0.6048;1.3467;
1213.5000;0.5999;1.3395;
1213.8000;0.6015;1.3467;
1214.1000;0.6032;1.3612;
1214.4000;0.6007;1.3515;
1214.7000;0.5958;1.3395;
1215.0000;0.6007;1.3491;
1215.3000;0.6024;1.3588;
1215.6000;0.6048;1.3636;
1215.9000;0.6048;1.3612;
1216.2000;0.6072;1.3660;
1216.5000;0.6089;1.3708;
1216.8000;0.6032;1.3660;
1217.1000;0.6064;1.3756;
1217.4000;0.6056;1.3756;
1217.7000;0.6048;1.3756;
1218.0000;0.6048;1.3732;
1218.3000;0.6056;1.3708;
1218.6000;0.6056;1.3636;
1218.9000;0.6040;1.3612;
1219.2000;0.6024;1.3636;
1219.5000;0.6056;1.3660;
1219.8000;0.6105;1.3780;
1220.1000;0.6040;1.3540;
1220.4000;0.6072;1.3588;
1220.7000;0.6056;1.3612;
1221.0000;0.6040;1.3564;
1221.3000;0.6064;1.3612;
1221.6000;0.6056;1.3684;
1221.9000;0.5950;1.3515;
1222.2000;0.6048;1.3684;
1222.5000;0.6064;1.3708;
1222.8000;0.6040;1.3588;
1223.1000;0.6040;1.3588;
1223.4000;0.6056;1.3588;
1223.7000;0.6032;1.3660;
1224.0000;0.6048;1.3708;
1224.3000;0.6105;1.3828;
1224.6000;0.6032;1.3708;
1224.9000;0.6040;1.3732;
1225.2000;0.6056;1.3708;
1225.5000;0.6048;1.3612;
1225.8000;0.5999;1.3491;
1226.1000;0.6056;1.3732;
1226.4000;0.6138;1.3948;
1226.7000;0.6056;1.3708;
1227.0000;0.6048;1.3588;
1227.3000;0.6040;1.3491;
1227.6000;0.6064;1.3515;
1227.9000;0.6048;1.3491;
1228.2000;0.6032;1.3540;
1228.5000;0.6040;1.3515;
1228.8000;0.6056;1.3588;
1229.1000;0.6048;1.3636;
1229.4000;0.6040;1.3612;
1229.7000;0.5991;1.3467;
1230.0000;0.6081;1.3708;
1230.3000;0.6032;1.3636;
1230.6000;0.6048;1.3636;
1230.9000;0.6072;1.3732;
1231.2000;0.6129;1.3852;
1231.5000;0.6129;1.3828;
1231.8000;0.6040;1.3660;
1232.1000;0.6024;1.3588;
1232.4000;0.6048;1.3732;
1232.7000;0.6064;1.3780;
1233.0000;0.6040;1.3708;
1233.3000;0.6015;1.3708;
1233.6000;0.6040;1.3780;
1233.9000;0.6048;1.3756;
1234.2000;0.6056;1.3780;
1234.5000;0.6032;1.3612;
1234.8000;0.6064;1.3684;
1235.1000;0.6048;1.3588;
1235.4000;0.6048;1.3588;
1235.7000;0.6064;1.3636;
1236.0000;0.6064;1.3684;
1236.3000;0.6032;1.3684;
1236.6000;0.6056;1.3756;
1236.9000;0.6064;1.3756;
1237.2000;0.6032;1.3708;
1237.5000;0.6072;1.3732;
1237.8000;0.6056;1.3660;
1238.1000;0.6048;1.3732;
1238.4000;0.6015;1.3660;
1238.7000;0.6024;1.3708;
1239.0000;0.6048;1.3756;
1239.3000;0.6089;1.3900;
1239.6000;0.6032;1.3804;
1239.9000;0.6015;1.3756;
1240.2000;0.6024;1.3780;
1240.5000;0.6056;1.3780;
1240.8000;0.6024;1.3660;
1241.1000;0.6040;1.3636;
1241.4000;0.6072;1.3636;
1241.7000;0.6048;1.3660;
1242.0000;0.6056;1.3636;
1242.3000;0.6056;1.3636;
1242.6000;0.6064;1.3660;
1242.9000;0.6015;1.3564;
1243.2000;0.6040;1.3612;
1243.5000;0.6007;1.3467;
1243.8000;0.6072;1.3708;
1244.1000;0.6048;1.3636;
1244.4000;0.6048;1.3660;
1244.7000;0.6048;1.3636;
1245.0000;0.6048;1.3564;
1245.3000;0.6032;1.3419;
1245.6000;0.6048;1.3588;
1245.9000;0.5975;1.3395;
1246.2000;0.6056;1.3564;
1246.5000;0.6024;1.3491;
1246.8000;0.6064;1.3636;
1247.1000;0.6048;1.3564;
1247.4000;0.6040;1.3684;
1247.7000;0.6056;1.3708;
1248.0000;0.6056;1.3804;
1248.3000;0.6040;1.3756;
1248.6000;0.6040;1.3828;
1248.9000;0.6056;1.3780;
1249.2000;0.6040;1.3804;
1249.5000;0.6048;1.3828;
1249.8000;0.6072;1.3780;
1250.1000;0.6048;1.3708;
1250.4000;0.6032;1.3636;
1250.7000;0.6072;1.3684;
1251.0000;0.6064;1.3588;
1251.3000;0.6056;1.3588;
1251.6000;0.6056;1.3660;
1251.9000;0.6056;1.3660;
1252.2000;0.6048;1.3684;
1252.5000;0.6032;1.3708;
1252.8000;0.6097;1.3804;
1253.1000;0.6048;1.3708;
1253.4000;0.5934;1.3467;
1253.7000;0.6056;1.3780;
1254.0000;0.6113;1.3828;
1254.3000;0.6081;1.3732;
1254.6000;0.6040;1.3660;
1254.9000;0.6015;1.3588;
1255.2000;0.6056;1.3684;
1255.5000;0.6072;1.3708;
1255.8000;0.6040;1.3732;
1256.1000;0.6056;1.3804;
1256.4000;0.6048;1.3732;
1256.7000;0.6056;1.3756;
1257.0000;0.6064;1.3732;
1257.3000;0.6089;1.3732;
1257.6000;0.6040;1.3636;
1257.9000;0.6056;1.3756;
1258.2000;0.6089;1.3900;
1258.5000;0.5975;1.3612;
1258.8000;0.6024;1.3852;
1259.1000;0.6015;1.3876;
1259.4000;0.6040;1.3804;
1259.7000;0.6064;1.3876;
1260.0000;0.6032;1.3804;
1260.3000;0.6064;1.3828;
1260.6000;0.6032;1.3732;
1260.9000;0.6040;1.3804;
1261.2000;0.6048;1.3804;
1261.5000;0.5967;1.3636;
1261.8000;0.6056;1.3804;
1262.1000;0.6032;1.3804;
1262.4000;0.6015;1.3756;
1262.7000;0.6040;1.3780;
1263.0000;0.6056;1.3828;
1263.3000;0.6072;1.3900;
1263.6000;0.6064;1.3900;
1263.9000;0.6064;1.3828;
1264.2000;0.6032;1.3756;
1264.5000;0.6056;1.3804;
1264.8000;0.6048;1.3804;
1265.1000;0.6056;1.3924;
1265.4000;0.6048;1.3924;
1265.7000;0.6056;1.3828;
1266.0000;0.6064;1.3828;
1266.3000;0.6048;1.3804;
1266.6000;0.6015;1.3636;
1266.9000;0.6056;1.3780;
1267.2000;0.6032;1.3780;
1267.5000;0.6048;1.3756;
1267.8000;0.6048;1.3804;
1268.1000;0.6056;1.3900;
1268.4000;0.6056;1.3876;
1268.7000;0.6056;1.3900;
1269.0000;0.6040;1.3972;
1269.3000;0.6007;1.3804;
1269.6000;0.6048;1.3804;
1269.9000;0.5991;1.3684;
1270.2000;0.6040;1.3756;
1270.5000;0.6064;1.3732;
1270.8000;0.6048;1.3684;
1271.1000;0.5991;1.3491;
1271.4000;0.6056;1.3684;
1271.7000;0.6064;1.3828;
1272.0000;0.6040;1.3804;
1272.3000;0.6032;1.3780;
1272.6000;0.6048;1.3804;
1272.9000;0.6040;1.3852;
1273.2000;0.6040;1.3804;
1273.5000;0.6081;1.3924;
1273.8000;0.6024;1.3828;
1274.1000;0.6032;1.3876;
1274.4000;0.6024;1.3876;
1274.7000;0.6032;1.3876;
1275.0000;0.6040;1.3948;
1275.3000;0.6040;1.3948;
1275.6000;0.6048;1.3948;
1275.9000;0.6146;1.4237;
1276.2000;0.6056;1.3900;
1276.5000;0.6056;1.3876;
1276.8000;0.6040;1.3852;
1277.1000;0.5967;1.3588;
1277.4000;0.6072;1.3828;
1277.7000;0.6048;1.3828;
1278.0000;0.6024;1.3828;
1278.3000;0.6024;1.3732;
1278.6000;0.6048;1.3828;
1278.9000;0.6015;1.3780;
1279.2000;0.5983;1.3588;
1279.5000;0.6024;1.3564;
1279.8000;0.6032;1.3636;
1280.1000;0.6048;1.3588;
1280.4000;0.6097;1.3732;
1280.7000;0.6048;1.3684;
1281.0000;0.6048;1.3684;
1281.3000;0.6007;1.3588;
1281.6000;0.6056;1.3660;
1281.9000;0.6040;1.3660;
1282.2000;0.6048;1.3660;
1282.5000;0.6032;1.3780;
1282.8000;0.6040;1.3852;
1283.1000;0.6040;1.3780;
1283.4000;0.6056;1.3756;
1283.7000;0.6032;1.3684;
1284.0000;0.6040;1.3660;
1284.3000;0.6015;1.3564;
1284.6000;0.6024;1.3636;
1284.9000;0.5975;1.3564;
1285.2000;0.6024;1.3732;
1285.5000;0.6040;1.3756;
1285.8000;0.6032;1.3660;
1286.1000;0.6032;1.3660;
1286.4000;0.6007;1.3612;
1286.7000;0.6040;1.3660;
1287.0000;0.6032;1.3636;
1287.3000;0.6032;1.3588;
1287.6000;0.6048;1.3636;
1287.9000;0.6032;1.3612;
1288.2000;0.6040;1.3636;
1288.5000;0.6048;1.3660;
1288.8000;0.6040;1.3564;
1289.1000;0.6040;1.3540;
1289.4000;0.6024;1.3491;
1289.7000;0.6048;1.3467;
1290.0000;0.6040;1.3491;
1290.3000;0.6056;1.3491;
1290.6000;0.6072;1.3660;
1290.9000;0.6024;1.3636;
1291.2000;0.6105;1.3852;
1291.5000;0.6032;1.3684;
1291.8000;0.6048;1.3708;
1292.1000;0.6048;1.3708;
1292.4000;0.6064;1.3708;
1292.7000;0.6064;1.3588;
1293.0000;0.6040;1.3491;
1293.3000;0.6064;1.3515;
1293.6000;0.6056;1.3491;
1293.9000;0.6072;1.3588;
1294.2000;0.5967;1.3347;
1294.5000;0.6064;1.3612;
1294.8000;0.6040;1.3491;
1295.1000;0.6032;1.3515;
1295.4000;0.6032;1.3515;
1295.7000;0.6032;1.3443;
1296.0000;0.6056;1.3515;
1296.3000;0.6048;1.3515;
1296.6000;0.6056;1.3515;
1296.9000;0.6048;1.3540;
1297.2000;0.6056;1.3515;
1297.5000;0.6056;1.3491;
1297.8000;0.6032;1.3395;
1298.1000;0.6105;1.3612;
1298.4000;0.5991;1.3323;
1298.7000;0.6056;1.3467;
1299.0000;0.6048;1.3515;
1299.3000;0.6056;1.3684;
1299.6000;0.6048;1.3684;
1299.9000;0.5999;1.3636;
1300.2000;0.6032;1.3708;
1300.5000;0.6024;1.3756;
1300.8000;0.6040;1.3708;
1301.1000;0.6040;1.3780;
1301.4000;0.6040;1.3804;
1301.7000;0.6056;1.3852;
1302.0000;0.6040;1.3852;
1302.3000;0.6048;1.3852;
1302.6000;0.6072;1.3852;
1302.9000;0.6040;1.3804;
1303.2000;0.6113;1.3948;
1303.5000;0.6056;1.3804;
1303.8000;0.6056;1.3900;
1304.1000;0.6056;1.3924;
1304.4000;0.6040;1.3852;
1304.7000;0.6056;1.3780;
1305.0000;0.6056;1.3756;
1305.3000;0.6048;1.3756;
1305.6000;0.6081;1.3852;
1305.9000;0.6040;1.3756;
1306.2000;0.6040;1.3756;
1306.5000;0.6048;1.3756;
1306.8000;0.6056;1.3708;
1307.1000;0.6024;1.3732;
1307.4000;0.6056;1.3732;
1307.7000;0.6007;1.3708;
1308.0000;0.6040;1.3876;
1308.3000;0.6040;1.3876;
1308.6000;0.6072;1.4021;
1308.9000;0.6040;1.3948;
1309.2000;0.6024;1.3948;
1309.5000;0.6040;1.3996;
1309.8000;0.6048;1.3948;
1310.1000;0.6024;1.3852;
1310.4000;0.6032;1.3924;
1310.7000;0.6024;1.3900;
1311.0000;0.6007;1.3732;
1311.3000;0.6032;1.3780;
1311.6000;0.6097;1.3948;
1311.9000;0.6040;1.3804;
1312.2000;0.6024;1.3732;
1312.5000;0.6032;1.3780;
1312.8000;0.6040;1.3828;
1313.1000;0.6056;1.3804;
1313.4000;0.6072;1.3804;
1313.7000;0.6024;1.3780;
1314.0000;0.6048;1.3852;
1314.3000;0.6064;1.3828;
1314.6000;0.6056;1.3780;
1314.9000;0.6048;1.3804;
1315.2000;0.6064;1.3828;
1315.5000;0.6064;1.3828;
1315.8000;0.6040;1.3636;
1316.1000;0.6056;1.3732;
1316.4000;0.6040;1.3708;
1316.7000;0.6064;1.3876;
1317.0000;0.6024;1.3828;
1317.3000;0.6007;1.3732;
1317.6000;0.6072;1.3948;
1317.9000;0.6048;1.3948;
1318.2000;0.6072;1.3948;
1318.5000;0.6056;1.3852;
1318.8000;0.6015;1.3732;
1319.1000;0.6064;1.3804;
1319.4000;0.6040;1.3828;
1319.7000;0.6048;1.3780;
1320.0000;0.6040;1.3852;
1320.3000;0.6040;1.3732;
1320.6000;0.6048;1.3684;
1320.9000;0.6024;1.3684;
1321.2000;0.6032;1.3684;
1321.5000;0.6056;1.3756;
1321.8000;0.6129;1.3948;
1322.1000;0.6048;1.3708;
1322.4000;0.6048;1.3732;
1322.7000;0.6040;1.3732;
1323.0000;0.6048;1.3780;
1323.3000;0.6040;1.3780;
1323.6000;0.6056;1.3900;
1323.9000;0.6024;1.3828;
1324.2000;0.6040;1.3828;
1324.5000;0.6024;1.3756;
1324.8000;0.6024;1.3756;
1325.1000;0.6040;1.3780;
1325.4000;0.6007;1.3660;
1325.7000;0.6015;1.3708;
1326.0000;0.6048;1.3708;
1326.3000;0.6048;1.3684;
1326.6000;0.6056;1.3660;
1326.9000;0.6064;1.3588;
1327.2000;0.5950;1.3275;
1327.5000;0.6048;1.3588;
1327.8000;0.6032;1.3540;
1328.1000;0.6056;1.3612;
1328.4000;0.6032;1.3612;
1328.7000;0.6105;1.3732;
1329.0000;0.6097;1.3612;
1329.3000;0.6097;1.3708;
1329.6000;0.6032;1.3588;
1329.9000;0.6024;1.3564;
1330.2000;0.6056;1.3588;
1330.5000;0.6064;1.3708;
1330.8000;0.6024;1.3708;
1331.1000;0.6032;1.3876;
1331.4000;0.6064;1.3876;
1331.7000;0.6040;1.3876;
1332.0000;0.6032;1.3756;
1332.3000;0.6032;1.3684;
1332.6000;0.6015;1.3612;
1332.9000;0.6024;1.3612;
1333.2000;0.6056;1.3684;
1333.5000;0.6056;1.3732;
1333.8000;0.6048;1.3828;
1334.1000;0.6048;1.3780;
1334.4000;0.6048;1.3780;
1334.7000;0.6048;1.3756;
1335.0000;0.6032;1.3780;
1335.3000;0.6040;1.3780;
1335.6000;0.6040;1.3756;
1335.9000;0.6024;1.3708;
1336.2000;0.6056;1.3852;
1336.5000;0.6048;1.3804;
1336.8000;0.6015;1.3732;
1337.1000;0.6056;1.3804;
1337.4000;0.6056;1.3804;
1337.7000;0.6105;1.3996;
1338.0000;0.6056;1.3780;
1338.3000;0.6015;1.3780;
1338.6000;0.6040;1.3852;
1338.9000;0.5983;1.3732;
1339.2000;0.6064;1.3876;
1339.5000;0.6048;1.3828;
1339.8000;0.6024;1.3828;
1340.1000;0.6007;1.3756;
1340.4000;0.6040;1.3780;
1340.7000;0.6024;1.3804;
1341.0000;0.6048;1.3900;
1341.3000;0.6056;1.3900;
1341.6000;0.6056;1.3852;
1341.9000;0.6048;1.3924;
1342.2000;0.6048;1.3852;
1342.5000;0.6048;1.3804;
1342.8000;0.6040;1.3756;
1343.1000;0.6048;1.3732;
1343.4000;0.6064;1.3804;
1343.7000;0.6056;1.3924;
1344.0000;0.6048;1.3900;
1344.3000;0.6040;1.3828;
1344.6000;0.6072;1.3852;
1344.9000;0.6048;1.3780;
1345.2000;0.6040;1.3732;
1345.5000;0.6015;1.3636;
1345.8000;0.6040;1.3708;
1346.1000;0.6040;1.3708;
1346.4000;0.6048;1.3804;
1346.7000;0.6048;1.3852;
1347.0000;0.6048;1.3828;
1347.3000;0.6064;1.3900;
1347.6000;0.6064;1.3804;
1347.9000;0.6048;1.3756;
1348.2000;0.6056;1.3732;
1348.5000;0.6015;1.3588;
1348.8000;0.6032;1.3708;
1349.1000;0.6048;1.3660;
1349.4000;0.6032;1.3756;
1349.7000;0.6048;1.3852;
1350.0000;0.6032;1.3804;
1350.3000;0.6032;1.3732;
1350.6000;0.6056;1.3732;
1350.9000;0.6032;1.3732;
1351.2000;0.6032;1.3708;
1351.5000;0.6081;1.3804;
1351.8000;0.6015;1.3660;
1352.1000;0.6056;1.3708;
1352.4000;0.6097;1.3852;
1352.7000;0.6048;1.3780;
1353.0000;0.6040;1.3828;
1353.3000;0.6024;1.3828;
1353.6000;0.6089;1.3948;
1353.9000;0.6064;1.3924;
1354.2000;0.6040;1.3900;
1354.5000;0.6024;1.3876;
1354.8000;0.6015;1.3876;
1355.1000;0.6032;1.3876;
1355.4000;0.5999;1.3852;
1355.7000;0.6032;1.3924;
1356.0000;0.5991;1.3804;
1356.3000;0.6040;1.3876;
1356.6000;0.6032;1.3804;
1356.9000;0.6048;1.3828;
1357.2000;0.6048;1.3876;
1357.5000;0.6056;1.3924;
1357.8000;0.6048;1.3924;
1358.1000;0.6048;1.3948;
1358.4000;0.6040;1.3948;
1358.7000;0.6040;1.4069;
1359.0000;0.6024;1.4021;
1359.3000;0.6032;1.3924;
1359.6000;0.6040;1.3972;
1359.9000;0.6040;1.3996;
1360.2000;0.6048;1.3996;
1360.5000;0.6024;1.3900;
1360.8000;0.6015;1.3804;
1361.1000;0.6015;1.3756;
1361.4000;0.6048;1.3780;
1361.7000;0.6032;1.3732;
1362.0000;0.6048;1.3708;
1362.3000;0.6056;1.3780;
1362.6000;0.6040;1.3756;
1362.9000;0.6040;1.3780;
1363.2000;0.6056;1.3828;
1363.5000;0.6024;1.3756;
1363.8000;0.6040;1.3900;
1364.1000;0.6048;1.3852;
1364.4000;0.6056;1.3828;
1364.7000;0.6040;1.3684;
1365.0000;0.6015;1.3684;
1365.3000;0.6040;1.3780;
1365.6000;0.6048;1.3804;
1365.9000;0.6048;1.3804;
1366.2000;0.6064;1.3852;
1366.5000;0.6048;1.3804;
1366.8000;0.6024;1.3708;
1367.1000;0.6072;1.3780;
1367.4000;0.6146;1.3996;
1367.7000;0.6048;1.3804;
1368.0000;0.6048;1.3780;
1368.3000;0.6056;1.3804;
1368.6000;0.6056;1.3804;
1368.9000;0.6072;1.3876;
1369.2000;0.6056;1.3780;
1369.5000;0.6007;1.3708;
1369.8000;0.6040;1.3684;
1370.1000;0.6032;1.3564;
1370.4000;0.6064;1.3684;
1370.7000;0.6040;1.3588;
1371.0000;0.6032;1.3588;
1371.3000;0.6015;1.3491;
1371.6000;0.6048;1.3564;
1371.9000;0.6048;1.3612;
1372.2000;0.6007;1.3612;
1372.5000;0.6032;1.3636;
1372.8000;0.6040;1.3708;
1373.1000;0.6056;1.3780;
1373.4000;0.5983;1.3660;
1373.7000;0.6032;1.3828;
1374.0000;0.6056;1.3804;
1374.3000;0.6048;1.3708;
1374.6000;0.6024;1.3732;
1374.9000;0.6015;1.3756;
1375.2000;0.6064;1.3804;
1375.5000;0.6040;1.3708;
1375.8000;0.6048;1.3708;
1376.1000;0.6040;1.3732;
1376.4000;0.6064;1.3780;
1376.7000;0.5991;1.3612;
1377.0000;0.6089;1.3876;
1377.3000;0.6015;1.3684;
1377.6000;0.6024;1.3756;
1377.9000;0.6032;1.3804;
1378.2000;0.6048;1.3852;
1378.5000;0.5975;1.3612;
1378.8000;0.6024;1.3756;
1379.1000;0.6040;1.3780;
1379.4000;0.6048;1.3852;
1379.7000;0.6024;1.3852;
1380.0000;0.6040;1.3804;
1380.3000;0.6032;1.3804;
1380.6000;0.6056;1.3828;
1380.9000;0.6015;1.3684;
1381.2000;0.6040;1.3708;
1381.5000;0.6146;1.3900;
1381.8000;0.6048;1.3684;
1382.1000;0.6056;1.3732;
1382.4000;0.6024;1.3660;
1382.7000;0.6072;1.3804;
1383.0000;0.6048;1.3804;
1383.3000;0.6064;1.3804;
1383.6000;0.6040;1.3876;
1383.9000;0.6040;1.3828;
1384.2000;0.6032;1.3756;
1384.5000;0.6024;1.3612;
1384.8000;0.6032;1.3612;
1385.1000;0.5975;1.3419;
1385.4000;0.6040;1.3636;
1385.7000;0.6040;1.3636;
1386.0000;0.6032;1.3588;
1386.3000;0.6048;1.3588;
1386.6000;0.6040;1.3636;
1386.9000;0.6048;1.3732;
1387.2000;0.6040;1.3756;
1387.5000;0.6024;1.3708;
1387.8000;0.6048;1.3780;
1388.1000;0.6040;1.3756;
1388.4000;0.6040;1.3756;
1388.7000;0.6081;1.3948;
1389.0000;0.6048;1.3780;
1389.3000;0.6032;1.3780;
1389.6000;0.6048;1.3804;
1389.9000;0.6056;1.3804;
1390.2000;0.6048;1.3756;
1390.5000;0.6040;1.3804;
1390.8000;0.6040;1.3852;
1391.1000;0.6040;1.3852;
1391.4000;0.6048;1.3948;
1391.7000;0.6032;1.3876;
1392.0000;0.6032;1.3924;
1392.3000;0.6040;1.3972;
1392.6000;0.6024;1.3948;
1392.9000;0.6032;1.3948;
1393.2000;0.6048;1.3948;
1393.5000;0.6048;1.3996;
1393.8000;0.6056;1.3996;
1394.1000;0.6056;1.3972;
1394.4000;0.6040;1.3876;
1394.7000;0.6032;1.3756;
1395.0000;0.6024;1.3636;
1395.3000;0.6064;1.3660;
1395.6000;0.6048;1.3612;
1395.9000;0.6024;1.3612;
1396.2000;0.6048;1.3780;
1396.5000;0.6032;1.3756;
1396.8000;0.6032;1.3780;
1397.1000;0.6040;1.3924;
1397.4000;0.6048;1.3972;
1397.7000;0.6048;1.3876;
1398.0000;0.6040;1.3924;
1398.3000;0.6056;1.3948;
1398.6000;0.6040;1.3876;
1398.9000;0.6040;1.3804;
1399.2000;0.6064;1.3876;
1399.5000;0.6048;1.3780;
1399.8000;0.6064;1.3732;
