time/ms;Fluo/V;P700 deltaI/I x10³;
-199.8000;0.9003;1.4718;
-199.5000;0.9068;1.4934;
-199.2000;0.9003;1.4694;
-198.9000;0.9011;1.4718;
-198.6000;0.9052;1.4814;
-198.3000;0.9011;1.4622;
-198.0000;0.8987;1.4574;
-197.7000;0.9011;1.4694;
-197.4000;0.9060;1.4814;
-197.1000;0.8970;1.4598;
-196.8000;0.8978;1.4574;
-196.5000;0.8987;1.4574;
-196.2000;0.9019;1.4598;
-195.9000;0.9019;1.4598;
-195.6000;0.8995;1.4477;
-195.3000;0.9011;1.4574;
-195.0000;0.9019;1.4694;
-194.7000;0.9003;1.4718;
-194.4000;0.8987;1.4790;
-194.1000;0.8987;1.4838;
-193.8000;0.8987;1.4886;
-193.5000;0.8921;1.4646;
-193.2000;0.8970;1.4742;
-192.9000;0.8995;1.4742;
-192.6000;0.9003;1.4718;
-192.3000;0.9003;1.4766;
-192.0000;0.9003;1.4694;
-191.7000;0.8995;1.4694;
-191.4000;0.8978;1.4694;
-191.1000;0.8970;1.4814;
-190.8000;0.8954;1.4718;
-190.5000;0.8987;1.4814;
-190.2000;0.9003;1.4862;
-189.9000;0.8946;1.4670;
-189.6000;0.9003;1.4742;
-189.3000;0.8987;1.4646;
-189.0000;0.8995;1.4622;
-188.7000;0.8995;1.4622;
-188.4000;0.9003;1.4622;
-188.1000;0.8995;1.4646;
-187.8000;0.9011;1.4598;
-187.5000;0.8995;1.4670;
-187.2000;0.9003;1.4670;
-186.9000;0.8995;1.4670;
-186.6000;0.8987;1.4718;
-186.3000;0.9003;1.4790;
-186.0000;0.8987;1.4814;
-185.7000;0.8978;1.4742;
-185.4000;0.8995;1.4838;
-185.1000;0.9003;1.4766;
-184.8000;0.9068;1.4910;
-184.5000;0.9027;1.4814;
-184.2000;0.8946;1.4718;
-183.9000;0.8970;1.4790;
-183.6000;0.8978;1.4718;
-183.3000;0.8970;1.4694;
-183.0000;0.8987;1.4814;
-182.7000;0.9003;1.4766;
-182.4000;0.9003;1.4814;
-182.1000;0.8987;1.4790;
-181.8000;0.8987;1.4742;
-181.5000;0.8995;1.4814;
-181.2000;0.9003;1.4934;
-180.9000;0.9060;1.5055;
-180.6000;0.8995;1.4838;
-180.3000;0.9003;1.4934;
-180.0000;0.9044;1.5055;
-179.7000;0.9027;1.5031;
-179.4000;0.8995;1.4886;
-179.1000;0.8995;1.4910;
-178.8000;0.9011;1.4910;
-178.5000;0.9003;1.4766;
-178.2000;0.8987;1.4742;
-177.9000;0.9011;1.4790;
-177.6000;0.8987;1.4742;
-177.3000;0.9060;1.4934;
-177.0000;0.9003;1.4790;
-176.7000;0.9003;1.4742;
-176.4000;0.8995;1.4790;
-176.1000;0.8970;1.4742;
-175.8000;0.8987;1.4790;
-175.5000;0.9044;1.4958;
-175.2000;0.8970;1.4766;
-174.9000;0.8987;1.4790;
-174.6000;0.9011;1.4838;
-174.3000;0.9011;1.4814;
-174.0000;0.8954;1.4742;
-173.7000;0.9019;1.5031;
-173.4000;0.9011;1.5055;
-173.1000;0.9003;1.5007;
-172.8000;0.8995;1.4958;
-172.5000;0.8995;1.4886;
-172.2000;0.8921;1.4694;
-171.9000;0.8978;1.4838;
-171.6000;0.9019;1.4886;
-171.3000;0.8987;1.4862;
-171.0000;0.9019;1.5055;
-170.7000;0.8954;1.5007;
-170.4000;0.9109;1.5271;
-170.1000;0.8995;1.4982;
-169.8000;0.8995;1.5031;
-169.5000;0.9035;1.5079;
-169.2000;0.9011;1.5031;
-168.9000;0.8970;1.4934;
-168.6000;0.9011;1.4982;
-168.3000;0.9011;1.5079;
-168.0000;0.8995;1.5031;
-167.7000;0.9003;1.4982;
-167.4000;0.8995;1.4934;
-167.1000;0.8970;1.4862;
-166.8000;0.8987;1.4910;
-166.5000;0.8987;1.4838;
-166.2000;0.9003;1.4910;
-165.9000;0.8995;1.4934;
-165.6000;0.8995;1.5007;
-165.3000;0.9019;1.5055;
-165.0000;0.8954;1.4934;
-164.7000;0.9003;1.5007;
-164.4000;0.8995;1.4814;
-164.1000;0.8978;1.4742;
-163.8000;0.8995;1.4790;
-163.5000;0.8987;1.4790;
-163.2000;0.8987;1.4790;
-162.9000;0.9019;1.4790;
-162.6000;0.9019;1.4742;
-162.3000;0.8995;1.4742;
-162.0000;0.8987;1.4838;
-161.7000;0.9003;1.4862;
-161.4000;0.9003;1.4886;
-161.1000;0.9003;1.4886;
-160.8000;0.9003;1.4814;
-160.5000;0.9060;1.5031;
-160.2000;0.8962;1.4814;
-159.9000;0.9035;1.4958;
-159.6000;0.9019;1.4766;
-159.3000;0.9011;1.4742;
-159.0000;0.9027;1.4694;
-158.7000;0.9011;1.4646;
-158.4000;0.9003;1.4694;
-158.1000;0.8978;1.4574;
-157.8000;0.9003;1.4646;
-157.5000;0.9003;1.4718;
-157.2000;0.8987;1.4670;
-156.9000;0.9003;1.4742;
-156.6000;0.9003;1.4742;
-156.3000;0.8995;1.4766;
-156.0000;0.8995;1.4694;
-155.7000;0.9027;1.4766;
-155.4000;0.9003;1.4646;
-155.1000;0.9011;1.4550;
-154.8000;0.8970;1.4574;
-154.5000;0.8962;1.4598;
-154.2000;0.9003;1.4766;
-153.9000;0.8987;1.4814;
-153.6000;0.8987;1.4766;
-153.3000;0.8995;1.4862;
-153.0000;0.9068;1.5151;
-152.7000;0.8954;1.4886;
-152.4000;0.8995;1.4934;
-152.1000;0.8987;1.4814;
-151.8000;0.9011;1.4838;
-151.5000;0.9027;1.4934;
-151.2000;0.8987;1.4862;
-150.9000;0.8970;1.4814;
-150.6000;0.8987;1.4886;
-150.3000;0.8978;1.4766;
-150.0000;0.8995;1.4718;
-149.7000;0.8954;1.4598;
-149.4000;0.9003;1.4766;
-149.1000;0.8995;1.4694;
-148.8000;0.8978;1.4622;
-148.5000;0.8995;1.4742;
-148.2000;0.9011;1.4814;
-147.9000;0.8978;1.4838;
-147.6000;0.9019;1.4958;
-147.3000;0.8954;1.4862;
-147.0000;0.8987;1.4982;
-146.7000;0.8970;1.4910;
-146.4000;0.9027;1.4982;
-146.1000;0.8987;1.4862;
-145.8000;0.8970;1.4862;
-145.5000;0.8970;1.4862;
-145.2000;0.9060;1.5031;
-144.9000;0.9027;1.5055;
-144.6000;0.8987;1.4910;
-144.3000;0.9044;1.4982;
-144.0000;0.9003;1.4910;
-143.7000;0.8978;1.4862;
-143.4000;0.9019;1.5079;
-143.1000;0.9019;1.5103;
-142.8000;0.8978;1.4958;
-142.5000;0.8987;1.4886;
-142.2000;0.8978;1.4862;
-141.9000;0.8987;1.4838;
-141.6000;0.8987;1.4862;
-141.3000;0.8946;1.4766;
-141.0000;0.8978;1.4814;
-140.7000;0.8978;1.4718;
-140.4000;0.9003;1.4766;
-140.1000;0.9003;1.4838;
-139.8000;0.8987;1.4790;
-139.5000;0.8995;1.4766;
-139.2000;0.9003;1.4742;
-138.9000;0.8987;1.4646;
-138.6000;0.9003;1.4742;
-138.3000;0.8987;1.4694;
-138.0000;0.8995;1.4790;
-137.7000;0.9003;1.4790;
-137.4000;0.9003;1.4766;
-137.1000;0.8995;1.4694;
-136.8000;0.9003;1.4766;
-136.5000;0.9011;1.4886;
-136.2000;0.8970;1.4790;
-135.9000;0.8995;1.4814;
-135.6000;0.9003;1.4958;
-135.3000;0.8995;1.4934;
-135.0000;0.8995;1.4934;
-134.7000;0.8995;1.4862;
-134.4000;0.9003;1.4862;
-134.1000;0.8962;1.4814;
-133.8000;0.9019;1.4862;
-133.5000;0.9003;1.4886;
-133.2000;0.9027;1.4886;
-132.9000;0.9003;1.4910;
-132.6000;0.9019;1.5079;
-132.3000;0.9003;1.5079;
-132.0000;0.8978;1.5079;
-131.7000;0.8987;1.5127;
-131.4000;0.9044;1.5175;
-131.1000;0.8913;1.4910;
-130.8000;0.9003;1.5151;
-130.5000;0.8913;1.4958;
-130.2000;0.8995;1.5127;
-129.9000;0.8978;1.5031;
-129.6000;0.8995;1.5007;
-129.3000;0.8995;1.5007;
-129.0000;0.8987;1.5007;
-128.7000;0.8978;1.4958;
-128.4000;0.9044;1.5031;
-128.1000;0.8987;1.4910;
-127.8000;0.9011;1.4910;
-127.5000;0.9052;1.4982;
-127.2000;0.8995;1.4910;
-126.9000;0.8962;1.4886;
-126.6000;0.8987;1.4958;
-126.3000;0.8978;1.4934;
-126.0000;0.8987;1.4958;
-125.7000;0.9003;1.4982;
-125.4000;0.8995;1.4958;
-125.1000;0.9003;1.5031;
-124.8000;0.8970;1.4958;
-124.5000;0.8970;1.4886;
-124.2000;0.9003;1.4934;
-123.9000;0.9003;1.4982;
-123.6000;0.9003;1.5031;
-123.3000;0.8995;1.5031;
-123.0000;0.8987;1.5103;
-122.7000;0.8995;1.5079;
-122.4000;0.9003;1.5127;
-122.1000;0.8954;1.4910;
-121.8000;0.9011;1.5031;
-121.5000;0.8987;1.4958;
-121.2000;0.9011;1.4934;
-120.9000;0.8970;1.4838;
-120.6000;0.8995;1.4862;
-120.3000;0.9003;1.4886;
-120.0000;0.8995;1.4862;
-119.7000;0.8995;1.4862;
-119.4000;0.8995;1.4814;
-119.1000;0.9035;1.4862;
-118.8000;0.9011;1.4814;
-118.5000;0.9003;1.4790;
-118.2000;0.8987;1.4814;
-117.9000;0.8970;1.4790;
-117.6000;0.9068;1.5007;
-117.3000;0.8921;1.4742;
-117.0000;0.8995;1.4838;
-116.7000;0.8978;1.4742;
-116.4000;0.8962;1.4694;
-116.1000;0.8978;1.4838;
-115.8000;0.8987;1.4862;
-115.5000;0.8970;1.4766;
-115.2000;0.8970;1.4766;
-114.9000;0.9003;1.4814;
-114.6000;0.8987;1.4766;
-114.3000;0.9003;1.4862;
-114.0000;0.9003;1.4910;
-113.7000;0.9003;1.4862;
-113.4000;0.8995;1.4934;
-113.1000;0.8995;1.4886;
-112.8000;0.8995;1.4814;
-112.5000;0.9003;1.4838;
-112.2000;0.8987;1.4694;
-111.9000;0.9003;1.4622;
-111.6000;0.8987;1.4670;
-111.3000;0.9035;1.4910;
-111.0000;0.8978;1.4814;
-110.7000;0.8978;1.4790;
-110.4000;0.8995;1.4886;
-110.1000;0.9052;1.4982;
-109.8000;0.9011;1.4910;
-109.5000;0.9011;1.4910;
-109.2000;0.8995;1.4838;
-108.9000;0.9003;1.4958;
-108.6000;0.9003;1.4958;
-108.3000;0.8995;1.4958;
-108.0000;0.9019;1.4958;
-107.7000;0.8962;1.4862;
-107.4000;0.8987;1.4910;
-107.1000;0.8897;1.4718;
-106.8000;0.8987;1.4910;
-106.5000;0.8962;1.4814;
-106.2000;0.9027;1.4958;
-105.9000;0.8995;1.4886;
-105.6000;0.8987;1.4838;
-105.3000;0.8970;1.4790;
-105.0000;0.8987;1.4886;
-104.7000;0.9003;1.4886;
-104.4000;0.8921;1.4622;
-104.1000;0.8987;1.4766;
-103.8000;0.8995;1.4814;
-103.5000;0.8995;1.4862;
-103.2000;0.9011;1.4982;
-102.9000;0.8995;1.4934;
-102.6000;0.8987;1.4814;
-102.3000;0.8995;1.4742;
-102.0000;0.9003;1.4790;
-101.7000;0.8995;1.4814;
-101.4000;0.8995;1.4814;
-101.1000;0.9019;1.4814;
-100.8000;0.9003;1.4838;
-100.5000;0.9003;1.4862;
-100.2000;0.9003;1.4790;
-99.9000;0.8978;1.4766;
-99.6000;0.8995;1.4814;
-99.3000;0.9003;1.4766;
-99.0000;0.9035;1.4766;
-98.7000;0.9011;1.4718;
-98.4000;0.9019;1.4838;
-98.1000;0.9003;1.4694;
-97.8000;0.9003;1.4694;
-97.5000;0.9027;1.4814;
-97.2000;0.9011;1.4742;
-96.9000;0.8995;1.4862;
-96.6000;0.8978;1.4934;
-96.3000;0.8987;1.4982;
-96.0000;0.8995;1.4982;
-95.7000;0.9011;1.5079;
-95.4000;0.8978;1.4934;
-95.1000;0.8978;1.4934;
-94.8000;0.8987;1.4958;
-94.5000;0.8995;1.4982;
-94.2000;0.8978;1.4934;
-93.9000;0.8987;1.4958;
-93.6000;0.9003;1.5031;
-93.3000;0.9044;1.5127;
-93.0000;0.9003;1.4982;
-92.7000;0.8995;1.5007;
-92.4000;0.8978;1.5079;
-92.1000;0.9003;1.5127;
-91.8000;0.8987;1.5007;
-91.5000;0.8978;1.5055;
-91.2000;0.8995;1.5127;
-90.9000;0.8978;1.5103;
-90.6000;0.9003;1.5031;
-90.3000;0.8995;1.5031;
-90.0000;0.9011;1.5103;
-89.7000;0.9011;1.5079;
-89.4000;0.9027;1.5007;
-89.1000;0.9035;1.5031;
-88.8000;0.9019;1.5007;
-88.5000;0.9027;1.4934;
-88.2000;0.9019;1.4934;
-87.9000;0.9019;1.4934;
-87.6000;0.8970;1.4814;
-87.3000;0.8970;1.4838;
-87.0000;0.9003;1.4958;
-86.7000;0.8978;1.4862;
-86.4000;0.9092;1.5127;
-86.1000;0.8987;1.4838;
-85.8000;0.9068;1.5007;
-85.5000;0.9011;1.4934;
-85.2000;0.9003;1.5031;
-84.9000;0.8987;1.4958;
-84.6000;0.8978;1.4838;
-84.3000;0.8995;1.4886;
-84.0000;0.9003;1.4886;
-83.7000;0.8970;1.4790;
-83.4000;0.9003;1.4886;
-83.1000;0.9003;1.4934;
-82.8000;0.8987;1.4958;
-82.5000;0.8987;1.5007;
-82.2000;0.9027;1.5031;
-81.9000;0.8995;1.4910;
-81.6000;0.8987;1.4886;
-81.3000;0.8970;1.4886;
-81.0000;0.8995;1.4982;
-80.7000;0.8978;1.5007;
-80.4000;0.8987;1.5031;
-80.1000;0.8978;1.4982;
-79.8000;0.8987;1.4910;
-79.5000;0.9011;1.4958;
-79.2000;0.8987;1.4910;
-78.9000;0.8946;1.4766;
-78.6000;0.8995;1.4886;
-78.3000;0.9003;1.4934;
-78.0000;0.9003;1.4934;
-77.7000;0.8995;1.4886;
-77.4000;0.9003;1.4934;
-77.1000;0.9003;1.4934;
-76.8000;0.9003;1.4958;
-76.5000;0.8978;1.4934;
-76.2000;0.8987;1.4862;
-75.9000;0.8978;1.4886;
-75.6000;0.9003;1.4886;
-75.3000;0.8987;1.4814;
-75.0000;0.8987;1.4838;
-74.7000;0.8995;1.4910;
-74.4000;0.8978;1.4958;
-74.1000;0.9019;1.4982;
-73.8000;0.8954;1.4790;
-73.5000;0.8987;1.4862;
-73.2000;0.8987;1.4958;
-72.9000;0.9011;1.4982;
-72.6000;0.8995;1.5007;
-72.3000;0.8978;1.4934;
-72.0000;0.8987;1.5055;
-71.7000;0.8995;1.5055;
-71.4000;0.9003;1.5007;
-71.1000;0.8987;1.4862;
-70.8000;0.8987;1.4910;
-70.5000;0.9003;1.4934;
-70.2000;0.8995;1.4814;
-69.9000;0.9011;1.4862;
-69.6000;0.9003;1.4862;
-69.3000;0.8987;1.4862;
-69.0000;0.8995;1.4838;
-68.7000;0.9003;1.4886;
-68.4000;0.8987;1.4814;
-68.1000;0.8913;1.4670;
-67.8000;0.9011;1.4862;
-67.5000;0.8921;1.4718;
-67.2000;0.9011;1.4958;
-66.9000;0.8995;1.4958;
-66.6000;0.9011;1.5031;
-66.3000;0.9019;1.5031;
-66.0000;0.8930;1.4862;
-65.7000;0.9003;1.5007;
-65.4000;0.8978;1.5007;
-65.1000;0.8995;1.5007;
-64.8000;0.9011;1.5079;
-64.5000;0.9027;1.5151;
-64.2000;0.9003;1.5079;
-63.9000;0.8962;1.4886;
-63.6000;0.8995;1.4910;
-63.3000;0.9027;1.4934;
-63.0000;0.9011;1.4862;
-62.7000;0.9019;1.4862;
-62.4000;0.9003;1.4862;
-62.1000;0.8938;1.4550;
-61.8000;0.9011;1.4670;
-61.5000;0.8987;1.4646;
-61.2000;0.8995;1.4694;
-60.9000;0.8970;1.4718;
-60.6000;0.8987;1.4814;
-60.3000;0.8970;1.4838;
-60.0000;0.8978;1.4862;
-59.7000;0.8987;1.4886;
-59.4000;0.8978;1.4814;
-59.1000;0.8978;1.4838;
-58.8000;0.8995;1.4934;
-58.5000;0.8987;1.4982;
-58.2000;0.8978;1.5007;
-57.9000;0.8921;1.4838;
-57.6000;0.8987;1.4982;
-57.3000;0.8970;1.4958;
-57.0000;0.8962;1.4934;
-56.7000;0.8978;1.5007;
-56.4000;0.9092;1.5151;
-56.1000;0.9027;1.4934;
-55.8000;0.8987;1.4862;
-55.5000;0.9003;1.4910;
-55.2000;0.9003;1.4958;
-54.9000;0.8995;1.4982;
-54.6000;0.9011;1.4958;
-54.3000;0.9003;1.4982;
-54.0000;0.8970;1.4934;
-53.7000;0.9019;1.5031;
-53.4000;0.8995;1.4958;
-53.1000;0.9003;1.4934;
-52.8000;0.8978;1.4886;
-52.5000;0.8995;1.4838;
-52.2000;0.8995;1.4814;
-51.9000;0.9003;1.4742;
-51.6000;0.8995;1.4790;
-51.3000;0.9003;1.4766;
-51.0000;0.8995;1.4718;
-50.7000;0.8987;1.4718;
-50.4000;0.9011;1.4838;
-50.1000;0.9003;1.4790;
-49.8000;0.8913;1.4598;
-49.5000;0.9003;1.4694;
-49.2000;0.9003;1.4598;
-48.9000;0.8978;1.4598;
-48.6000;0.8978;1.4646;
-48.3000;0.8987;1.4694;
-48.0000;0.8978;1.4622;
-47.7000;0.8995;1.4646;
-47.4000;0.8987;1.4694;
-47.1000;0.8946;1.4694;
-46.8000;0.8970;1.4718;
-46.5000;0.8978;1.4742;
-46.2000;0.8938;1.4598;
-45.9000;0.8921;1.4526;
-45.6000;0.8970;1.4622;
-45.3000;0.9019;1.4742;
-45.0000;0.8987;1.4622;
-44.7000;0.8987;1.4622;
-44.4000;0.8995;1.4598;
-44.1000;0.9011;1.4622;
-43.8000;0.9019;1.4742;
-43.5000;0.9068;1.4910;
-43.2000;0.8987;1.4694;
-42.9000;0.8905;1.4501;
-42.6000;0.9011;1.4742;
-42.3000;0.9003;1.4766;
-42.0000;0.8995;1.4646;
-41.7000;0.8978;1.4598;
-41.4000;0.8987;1.4694;
-41.1000;0.8987;1.4646;
-40.8000;0.9035;1.4742;
-40.5000;0.8995;1.4718;
-40.2000;0.8995;1.4670;
-39.9000;0.8995;1.4670;
-39.6000;0.8995;1.4694;
-39.3000;0.9003;1.4718;
-39.0000;0.9003;1.4766;
-38.7000;0.9011;1.4766;
-38.4000;0.8987;1.4718;
-38.1000;0.9019;1.4838;
-37.8000;0.8978;1.4862;
-37.5000;0.8995;1.4934;
-37.2000;0.9011;1.5007;
-36.9000;0.8987;1.4814;
-36.6000;0.8995;1.4838;
-36.3000;0.9011;1.4910;
-36.0000;0.9003;1.4862;
-35.7000;0.8995;1.4814;
-35.4000;0.8962;1.4742;
-35.1000;0.8995;1.4958;
-34.8000;0.9019;1.5055;
-34.5000;0.9011;1.4958;
-34.2000;0.8995;1.4958;
-33.9000;0.8970;1.4862;
-33.6000;0.9019;1.4910;
-33.3000;0.8978;1.4742;
-33.0000;0.9035;1.4814;
-32.7000;0.8995;1.4694;
-32.4000;0.9011;1.4814;
-32.1000;0.8995;1.4790;
-31.8000;0.8970;1.4718;
-31.5000;0.8995;1.4790;
-31.2000;0.9003;1.4814;
-30.9000;0.8995;1.4886;
-30.6000;0.8995;1.4814;
-30.3000;0.9027;1.4838;
-30.0000;0.8970;1.4598;
-29.7000;0.9011;1.4742;
-29.4000;0.9019;1.4646;
-29.1000;0.9044;1.4694;
-28.8000;0.8995;1.4646;
-28.5000;0.8995;1.4742;
-28.2000;0.9011;1.4790;
-27.9000;0.8995;1.4742;
-27.6000;0.8995;1.4790;
-27.3000;0.8995;1.4886;
-27.0000;0.8995;1.4838;
-26.7000;0.9003;1.4886;
-26.4000;0.9035;1.4910;
-26.1000;0.8978;1.4766;
-25.8000;0.8987;1.4790;
-25.5000;0.9011;1.4814;
-25.2000;0.9003;1.4814;
-24.9000;0.8987;1.4838;
-24.6000;0.8978;1.4910;
-24.3000;0.8995;1.5007;
-24.0000;0.8987;1.4934;
-23.7000;0.8995;1.4982;
-23.4000;0.9011;1.5055;
-23.1000;0.8995;1.4958;
-22.8000;0.8970;1.4958;
-22.5000;0.9011;1.4958;
-22.2000;0.9003;1.4958;
-21.9000;0.8995;1.4958;
-21.6000;0.8995;1.4886;
-21.3000;0.8987;1.4742;
-21.0000;0.9019;1.4814;
-20.7000;0.8995;1.4742;
-20.4000;0.9003;1.4718;
-20.1000;0.8987;1.4694;
-19.8000;0.9003;1.4814;
-19.5000;0.8995;1.4814;
-19.2000;0.8995;1.4790;
-18.9000;0.9011;1.4814;
-18.6000;0.8978;1.4838;
-18.3000;0.9003;1.4934;
-18.0000;0.9011;1.4910;
-17.7000;0.8995;1.4862;
-17.4000;0.8978;1.4886;
-17.1000;0.9011;1.4982;
-16.8000;0.9060;1.5055;
-16.5000;0.9003;1.4958;
-16.2000;0.8987;1.5007;
-15.9000;0.8995;1.4982;
-15.6000;0.9003;1.5079;
-15.3000;0.8978;1.4886;
-15.0000;0.8987;1.4934;
-14.7000;0.8987;1.4910;
-14.4000;0.8905;1.4742;
-14.1000;0.8987;1.4862;
-13.8000;0.8995;1.4862;
-13.5000;0.8995;1.4910;
-13.2000;0.8946;1.4886;
-12.9000;0.9019;1.5007;
-12.6000;0.9011;1.5007;
-12.3000;0.8970;1.4958;
-12.0000;0.9011;1.4982;
-11.7000;0.8987;1.4982;
-11.4000;0.8987;1.5031;
-11.1000;0.8970;1.5055;
-10.8000;0.8987;1.4958;
-10.5000;0.8995;1.4886;
-10.2000;0.8995;1.4814;
-9.9000;0.8978;1.4862;
-9.6000;0.8978;1.4886;
-9.3000;0.8987;1.4910;
-9.0000;0.8987;1.4862;
-8.7000;0.8995;1.4910;
-8.4000;0.8995;1.4982;
-8.1000;0.9003;1.4910;
-7.8000;0.8970;1.4910;
-7.5000;0.9003;1.4982;
-7.2000;0.9003;1.4982;
-6.9000;0.8995;1.4910;
-6.6000;0.9003;1.4934;
-6.3000;0.8995;1.4886;
-6.0000;0.9092;1.5103;
-5.7000;0.8995;1.4790;
-5.4000;0.9011;1.4814;
-5.1000;0.9011;1.4862;
-4.8000;0.8946;1.4790;
-4.5000;0.8987;1.4814;
-4.2000;0.8995;1.4886;
-3.9000;0.9011;1.4910;
-3.6000;0.9003;1.4814;
-3.3000;0.8987;1.4814;
-3.0000;0.9003;1.4838;
-2.7000;0.9011;1.4862;
-2.4000;0.8987;1.4838;
-2.1000;0.8962;1.4694;
-1.8000;0.8987;1.4742;
-1.5000;0.9052;1.4910;
-1.2000;0.9035;1.4934;
-0.9000;0.8978;1.4766;
-0.6000;0.8978;1.4838;
-0.3000;0.8938;1.4790;
0.0000;0.8938;1.4790;
0.3000;0.9076;1.4886;
0.6000;0.9141;1.5151;
0.9000;0.9231;1.5439;
1.2000;0.9263;1.5656;
1.5000;0.9296;1.5848;
1.8000;0.9337;1.6017;
2.1000;0.9394;1.6305;
2.4000;0.9402;1.6353;
2.7000;0.9442;1.6377;
3.0000;0.9394;1.6281;
3.3000;0.9459;1.6425;
3.6000;0.9540;1.6618;
3.9000;0.9483;1.6449;
4.2000;0.9491;1.6473;
4.5000;0.9532;1.6522;
4.8000;0.9508;1.6522;
5.1000;0.9532;1.6594;
5.4000;0.9548;1.6570;
5.7000;0.9540;1.6570;
6.0000;0.9621;1.6810;
6.3000;0.9589;1.6738;
6.6000;0.9532;1.6594;
6.9000;0.9687;1.7003;
7.2000;0.9491;1.6473;
7.5000;0.9589;1.6738;
7.8000;0.9605;1.6834;
8.1000;0.9630;1.6882;
8.4000;0.9613;1.6858;
8.7000;0.9621;1.6714;
9.0000;0.9597;1.6570;
9.3000;0.9638;1.6546;
9.6000;0.9597;1.6473;
9.9000;0.9646;1.6642;
10.2000;0.9646;1.6738;
10.5000;0.9589;1.6738;
10.8000;0.9621;1.6738;
11.1000;0.9654;1.6810;
11.4000;0.9646;1.6738;
11.7000;0.9662;1.6714;
12.0000;0.9678;1.6810;
12.3000;0.9695;1.6786;
12.6000;0.9670;1.6714;
12.9000;0.9678;1.6714;
13.2000;0.9687;1.6810;
13.5000;0.9711;1.6834;
13.8000;0.9703;1.6834;
14.1000;0.9695;1.6810;
14.4000;0.9687;1.6714;
14.7000;0.9703;1.6810;
15.0000;0.9776;1.7051;
15.3000;0.9711;1.6834;
15.6000;0.9703;1.6858;
15.9000;0.9727;1.6834;
16.2000;0.9711;1.6810;
16.5000;0.9727;1.6882;
16.8000;0.9727;1.6906;
17.1000;0.9752;1.7027;
17.4000;0.9735;1.6882;
17.7000;0.9760;1.6858;
18.0000;0.9735;1.6858;
18.3000;0.9719;1.6762;
18.6000;0.9752;1.6762;
18.9000;0.9719;1.6714;
19.2000;0.9735;1.6762;
19.5000;0.9711;1.6786;
19.8000;0.9744;1.6858;
20.1000;0.9735;1.6810;
20.4000;0.9768;1.6906;
20.7000;0.9752;1.6810;
21.0000;0.9735;1.6786;
21.3000;0.9744;1.6858;
21.6000;0.9752;1.6979;
21.9000;0.9735;1.6979;
22.2000;0.9752;1.7003;
22.5000;0.9809;1.7051;
22.8000;0.9760;1.6834;
23.1000;0.9760;1.6906;
23.4000;0.9752;1.6906;
23.7000;0.9776;1.7051;
24.0000;0.9768;1.6906;
24.3000;0.9776;1.6954;
24.6000;0.9735;1.6954;
24.9000;0.9752;1.6979;
25.2000;0.9760;1.6954;
25.5000;0.9768;1.6930;
25.8000;0.9760;1.6906;
26.1000;0.9760;1.6906;
26.4000;0.9768;1.6930;
26.7000;0.9727;1.6762;
27.0000;0.9776;1.6882;
27.3000;0.9776;1.6906;
27.6000;0.9817;1.7099;
27.9000;0.9776;1.6930;
28.2000;0.9760;1.6834;
28.5000;0.9760;1.6882;
28.8000;0.9792;1.6954;
29.1000;0.9760;1.6882;
29.4000;0.9760;1.6786;
29.7000;0.9760;1.6834;
30.0000;0.9801;1.7027;
30.3000;0.9768;1.7027;
30.6000;0.9792;1.7003;
30.9000;0.9744;1.6906;
31.2000;0.9784;1.6979;
31.5000;0.9744;1.6882;
31.8000;0.9801;1.6930;
32.1000;0.9768;1.6882;
32.4000;0.9727;1.6786;
32.7000;0.9760;1.6906;
33.0000;0.9776;1.7003;
33.3000;0.9768;1.7003;
33.6000;0.9784;1.7027;
33.9000;0.9776;1.7003;
34.2000;0.9768;1.7003;
34.5000;0.9776;1.6954;
34.8000;0.9760;1.6930;
35.1000;0.9817;1.7003;
35.4000;0.9792;1.6810;
35.7000;0.9792;1.6834;
36.0000;0.9776;1.6834;
36.3000;0.9801;1.6882;
36.6000;0.9792;1.6858;
36.9000;0.9719;1.6762;
37.2000;0.9792;1.6954;
37.5000;0.9776;1.7003;
37.8000;0.9801;1.7123;
38.1000;0.9784;1.7099;
38.4000;0.9792;1.7099;
38.7000;0.9801;1.7195;
39.0000;0.9809;1.7243;
39.3000;0.9801;1.7267;
39.6000;0.9801;1.7171;
39.9000;0.9817;1.7123;
40.2000;0.9792;1.7147;
40.5000;0.9768;1.7099;
40.8000;0.9792;1.7123;
41.1000;0.9776;1.7075;
41.4000;0.9776;1.7123;
41.7000;0.9776;1.7099;
42.0000;0.9801;1.7075;
42.3000;0.9784;1.7051;
42.6000;0.9784;1.6954;
42.9000;0.9784;1.6979;
43.2000;0.9784;1.6954;
43.5000;0.9833;1.7003;
43.8000;0.9792;1.6954;
44.1000;0.9768;1.7051;
44.4000;0.9768;1.7075;
44.7000;0.9784;1.7051;
45.0000;0.9776;1.7027;
45.3000;0.9801;1.7051;
45.6000;0.9849;1.7243;
45.9000;0.9792;1.7123;
46.2000;0.9776;1.7123;
46.5000;0.9760;1.7147;
46.8000;0.9776;1.7147;
47.1000;0.9784;1.7099;
47.4000;0.9792;1.7051;
47.7000;0.9792;1.7123;
48.0000;0.9784;1.7195;
48.3000;0.9792;1.7075;
48.6000;0.9858;1.7147;
48.9000;0.9898;1.7243;
49.2000;0.9809;1.6906;
49.5000;0.9809;1.7003;
49.8000;0.9792;1.6979;
50.1000;0.9792;1.6979;
50.4000;0.9784;1.7051;
50.7000;0.9792;1.7099;
51.0000;0.9801;1.7123;
51.3000;0.9792;1.7219;
51.6000;0.9784;1.7219;
51.9000;0.9801;1.7291;
52.2000;0.9801;1.7219;
52.5000;0.9817;1.7267;
52.8000;0.9784;1.7339;
53.1000;0.9801;1.7315;
53.4000;0.9809;1.7147;
53.7000;0.9784;1.7123;
54.0000;0.9776;1.7051;
54.3000;0.9792;1.7123;
54.6000;0.9801;1.7243;
54.9000;0.9735;1.7027;
55.2000;0.9809;1.7123;
55.5000;0.9792;1.7123;
55.8000;0.9792;1.7171;
56.1000;0.9768;1.7051;
56.4000;0.9792;1.7075;
56.7000;0.9776;1.7123;
57.0000;0.9768;1.7147;
57.3000;0.9768;1.7099;
57.6000;0.9792;1.7123;
57.9000;0.9768;1.7147;
58.2000;0.9760;1.7147;
58.5000;0.9792;1.7171;
58.8000;0.9792;1.7075;
59.1000;0.9776;1.6930;
59.4000;0.9801;1.7051;
59.7000;0.9719;1.6642;
60.0000;0.9784;1.6906;
60.3000;0.9784;1.6930;
60.6000;0.9792;1.7075;
60.9000;0.9801;1.7099;
61.2000;0.9760;1.6979;
61.5000;0.9784;1.7003;
61.8000;0.9801;1.6930;
62.1000;0.9801;1.7003;
62.4000;0.9801;1.6979;
62.7000;0.9792;1.7003;
63.0000;0.9809;1.7027;
63.3000;0.9801;1.6979;
63.6000;0.9792;1.6979;
63.9000;0.9801;1.7003;
64.2000;0.9784;1.7027;
64.5000;0.9792;1.7051;
64.8000;0.9792;1.7027;
65.1000;0.9744;1.6882;
65.4000;0.9752;1.6882;
65.7000;0.9801;1.6979;
66.0000;0.9768;1.6834;
66.3000;0.9792;1.7003;
66.6000;0.9760;1.6979;
66.9000;0.9784;1.7003;
67.2000;0.9760;1.7027;
67.5000;0.9792;1.7099;
67.8000;0.9849;1.7243;
68.1000;0.9776;1.7051;
68.4000;0.9890;1.7339;
68.7000;0.9776;1.7075;
69.0000;0.9784;1.7099;
69.3000;0.9768;1.7003;
69.6000;0.9784;1.7099;
69.9000;0.9776;1.7075;
70.2000;0.9752;1.7051;
70.5000;0.9768;1.6954;
70.8000;0.9784;1.6979;
71.1000;0.9792;1.6979;
71.4000;0.9776;1.6979;
71.7000;0.9776;1.6979;
72.0000;0.9776;1.7075;
72.3000;0.9784;1.7027;
72.6000;0.9792;1.7027;
72.9000;0.9776;1.7075;
73.2000;0.9801;1.7075;
73.5000;0.9784;1.7003;
73.8000;0.9776;1.6954;
74.1000;0.9768;1.6954;
74.4000;0.9784;1.6954;
74.7000;0.9784;1.7003;
75.0000;0.9768;1.6979;
75.3000;0.9752;1.7003;
75.6000;0.9801;1.7027;
75.9000;0.9776;1.7003;
76.2000;0.9768;1.6930;
76.5000;0.9776;1.6930;
76.8000;0.9768;1.6810;
77.1000;0.9776;1.6834;
77.4000;0.9792;1.6906;
77.7000;0.9817;1.6979;
78.0000;0.9768;1.6882;
78.3000;0.9792;1.6906;
78.6000;0.9784;1.6906;
78.9000;0.9792;1.6906;
79.2000;0.9760;1.6930;
79.5000;0.9784;1.6954;
79.8000;0.9833;1.7147;
80.1000;0.9792;1.7003;
80.4000;0.9768;1.6979;
80.7000;0.9752;1.7003;
81.0000;0.9776;1.7123;
81.3000;0.9784;1.7195;
81.6000;0.9768;1.7123;
81.9000;0.9784;1.7147;
82.2000;0.9801;1.7099;
82.5000;0.9768;1.6954;
82.8000;0.9760;1.7027;
83.1000;0.9784;1.7027;
83.4000;0.9784;1.7099;
83.7000;0.9727;1.6882;
84.0000;0.9784;1.6906;
84.3000;0.9744;1.6762;
84.6000;0.9784;1.6858;
84.9000;0.9719;1.6690;
85.2000;0.9792;1.6906;
85.5000;0.9784;1.6762;
85.8000;0.9776;1.6810;
86.1000;0.9727;1.6762;
86.4000;0.9792;1.6954;
86.7000;0.9768;1.6834;
87.0000;0.9776;1.6882;
87.3000;0.9776;1.6882;
87.6000;0.9784;1.6906;
87.9000;0.9776;1.6882;
88.2000;0.9817;1.6906;
88.5000;0.9735;1.6666;
88.8000;0.9784;1.6762;
89.1000;0.9784;1.6762;
89.4000;0.9768;1.6786;
89.7000;0.9784;1.6834;
90.0000;0.9776;1.6786;
90.3000;0.9735;1.6714;
90.6000;0.9776;1.6834;
90.9000;0.9760;1.6786;
91.2000;0.9776;1.6810;
91.5000;0.9784;1.6882;
91.8000;0.9711;1.6666;
92.1000;0.9768;1.6834;
92.4000;0.9768;1.6906;
92.7000;0.9735;1.6810;
93.0000;0.9776;1.6979;
93.3000;0.9776;1.6954;
93.6000;0.9792;1.7075;
93.9000;0.9735;1.6882;
94.2000;0.9784;1.6979;
94.5000;0.9768;1.6810;
94.8000;0.9809;1.6882;
95.1000;0.9768;1.6834;
95.4000;0.9784;1.6882;
95.7000;0.9768;1.6834;
96.0000;0.9776;1.6858;
96.3000;0.9776;1.6834;
96.6000;0.9776;1.6882;
96.9000;0.9776;1.6930;
97.2000;0.9784;1.6954;
97.5000;0.9776;1.6930;
97.8000;0.9792;1.7003;
98.1000;0.9792;1.6930;
98.4000;0.9776;1.6930;
98.7000;0.9744;1.6906;
99.0000;0.9776;1.7027;
99.3000;0.9809;1.7123;
99.6000;0.9768;1.7075;
99.9000;0.9784;1.7123;
100.2000;0.9792;1.7075;
100.5000;0.9760;1.6906;
100.8000;0.9801;1.6930;
101.1000;0.9792;1.6882;
101.4000;0.9784;1.6906;
101.7000;0.9817;1.6979;
102.0000;0.9752;1.6786;
102.3000;0.9768;1.6858;
102.6000;0.9825;1.7003;
102.9000;0.9760;1.6834;
103.2000;0.9768;1.6834;
103.5000;0.9784;1.6834;
103.8000;0.9768;1.6786;
104.1000;0.9760;1.6786;
104.4000;0.9752;1.6762;
104.7000;0.9744;1.6810;
105.0000;0.9760;1.6882;
105.3000;0.9792;1.6954;
105.6000;0.9784;1.6954;
105.9000;0.9768;1.6930;
106.2000;0.9776;1.6906;
106.5000;0.9776;1.6930;
106.8000;0.9784;1.6834;
107.1000;0.9760;1.6810;
107.4000;0.9768;1.6786;
107.7000;0.9768;1.6834;
108.0000;0.9809;1.6858;
108.3000;0.9784;1.6786;
108.6000;0.9752;1.6714;
108.9000;0.9776;1.6834;
109.2000;0.9768;1.6882;
109.5000;0.9776;1.6906;
109.8000;0.9768;1.6810;
110.1000;0.9776;1.6810;
110.4000;0.9776;1.6882;
110.7000;0.9760;1.6834;
111.0000;0.9768;1.6834;
111.3000;0.9744;1.6906;
111.6000;0.9735;1.6786;
111.9000;0.9760;1.6882;
112.2000;0.9792;1.6979;
112.5000;0.9760;1.6954;
112.8000;0.9784;1.6979;
113.1000;0.9768;1.7075;
113.4000;0.9776;1.7147;
113.7000;0.9768;1.7051;
114.0000;0.9768;1.6979;
114.3000;0.9768;1.7003;
114.6000;0.9768;1.7003;
114.9000;0.9760;1.6930;
115.2000;0.9752;1.6979;
115.5000;0.9768;1.6979;
115.8000;0.9752;1.6930;
116.1000;0.9752;1.6858;
116.4000;0.9768;1.6930;
116.7000;0.9760;1.6930;
117.0000;0.9776;1.6906;
117.3000;0.9752;1.6906;
117.6000;0.9768;1.6954;
117.9000;0.9825;1.7195;
118.2000;0.9760;1.7003;
118.5000;0.9654;1.6642;
118.8000;0.9776;1.6882;
119.1000;0.9768;1.6882;
119.4000;0.9784;1.6954;
119.7000;0.9817;1.7003;
120.0000;0.9776;1.6954;
120.3000;0.9752;1.6979;
120.6000;0.9760;1.6954;
120.9000;0.9776;1.6979;
121.2000;0.9760;1.6858;
121.5000;0.9784;1.6906;
121.8000;0.9760;1.6954;
122.1000;0.9752;1.6979;
122.4000;0.9752;1.6906;
122.7000;0.9776;1.6954;
123.0000;0.9760;1.6930;
123.3000;0.9760;1.6858;
123.6000;0.9768;1.6810;
123.9000;0.9735;1.6642;
124.2000;0.9768;1.6714;
124.5000;0.9768;1.6834;
124.8000;0.9801;1.6979;
125.1000;0.9760;1.6834;
125.4000;0.9760;1.6858;
125.7000;0.9744;1.6762;
126.0000;0.9784;1.6834;
126.3000;0.9719;1.6690;
126.6000;0.9776;1.6858;
126.9000;0.9784;1.6882;
127.2000;0.9760;1.6834;
127.5000;0.9719;1.6594;
127.8000;0.9760;1.6810;
128.1000;0.9760;1.6882;
128.4000;0.9768;1.6882;
128.7000;0.9752;1.6786;
129.0000;0.9768;1.6858;
129.3000;0.9760;1.6882;
129.6000;0.9784;1.7003;
129.9000;0.9768;1.7003;
130.2000;0.9752;1.6979;
130.5000;0.9760;1.6979;
130.8000;0.9776;1.7003;
131.1000;0.9760;1.6954;
131.4000;0.9727;1.6906;
131.7000;0.9768;1.6930;
132.0000;0.9768;1.6906;
132.3000;0.9768;1.6882;
132.6000;0.9752;1.6834;
132.9000;0.9744;1.6834;
133.2000;0.9760;1.6810;
133.5000;0.9760;1.6858;
133.8000;0.9760;1.6882;
134.1000;0.9752;1.6930;
134.4000;0.9760;1.7027;
134.7000;0.9784;1.7003;
135.0000;0.9776;1.7051;
135.3000;0.9776;1.7075;
135.6000;0.9792;1.7123;
135.9000;0.9768;1.7027;
136.2000;0.9752;1.7003;
136.5000;0.9776;1.7027;
136.8000;0.9744;1.7027;
137.1000;0.9735;1.7027;
137.4000;0.9752;1.7051;
137.7000;0.9768;1.7123;
138.0000;0.9744;1.7075;
138.3000;0.9752;1.7171;
138.6000;0.9760;1.7219;
138.9000;0.9695;1.7123;
139.2000;0.9760;1.7315;
139.5000;0.9776;1.7291;
139.8000;0.9760;1.7219;
140.1000;0.9760;1.7195;
140.4000;0.9752;1.7051;
140.7000;0.9670;1.6858;
141.0000;0.9760;1.7027;
141.3000;0.9752;1.6954;
141.6000;0.9687;1.6786;
141.9000;0.9760;1.6954;
142.2000;0.9752;1.6882;
142.5000;0.9849;1.7147;
142.8000;0.9744;1.6882;
143.1000;0.9768;1.6858;
143.4000;0.9752;1.6810;
143.7000;0.9744;1.6762;
144.0000;0.9768;1.6834;
144.3000;0.9752;1.6810;
144.6000;0.9768;1.6786;
144.9000;0.9768;1.6810;
145.2000;0.9760;1.6786;
145.5000;0.9760;1.6738;
145.8000;0.9760;1.6834;
146.1000;0.9760;1.6762;
146.4000;0.9735;1.6666;
146.7000;0.9768;1.6786;
147.0000;0.9711;1.6738;
147.3000;0.9768;1.6810;
147.6000;0.9768;1.6786;
147.9000;0.9768;1.6786;
148.2000;0.9760;1.6906;
148.5000;0.9760;1.7051;
148.8000;0.9768;1.6979;
149.1000;0.9760;1.6906;
149.4000;0.9744;1.6834;
149.7000;0.9752;1.6882;
150.0000;0.9744;1.6786;
150.3000;0.9752;1.6858;
150.6000;0.9735;1.6714;
150.9000;0.9735;1.6690;
151.2000;0.9752;1.6786;
151.5000;0.9784;1.6858;
151.8000;0.9744;1.6834;
152.1000;0.9735;1.6786;
152.4000;0.9809;1.6906;
152.7000;0.9735;1.6714;
153.0000;0.9744;1.6666;
153.3000;0.9752;1.6666;
153.6000;0.9752;1.6714;
153.9000;0.9752;1.6690;
154.2000;0.9752;1.6738;
154.5000;0.9752;1.6618;
154.8000;0.9760;1.6594;
155.1000;0.9776;1.6642;
155.4000;0.9768;1.6690;
155.7000;0.9744;1.6690;
156.0000;0.9744;1.6594;
156.3000;0.9752;1.6522;
156.6000;0.9752;1.6473;
156.9000;0.9744;1.6473;
157.2000;0.9744;1.6377;
157.5000;0.9776;1.6498;
157.8000;0.9760;1.6498;
158.1000;0.9768;1.6546;
158.4000;0.9752;1.6546;
158.7000;0.9752;1.6594;
159.0000;0.9776;1.6666;
159.3000;0.9752;1.6642;
159.6000;0.9760;1.6546;
159.9000;0.9752;1.6546;
160.2000;0.9760;1.6546;
160.5000;0.9711;1.6449;
160.8000;0.9744;1.6594;
161.1000;0.9727;1.6522;
161.4000;0.9792;1.6618;
161.7000;0.9768;1.6522;
162.0000;0.9744;1.6618;
162.3000;0.9752;1.6642;
162.6000;0.9744;1.6666;
162.9000;0.9752;1.6690;
163.2000;0.9744;1.6594;
163.5000;0.9752;1.6570;
163.8000;0.9752;1.6522;
164.1000;0.9760;1.6522;
164.4000;0.9735;1.6522;
164.7000;0.9744;1.6546;
165.0000;0.9735;1.6666;
165.3000;0.9744;1.6666;
165.6000;0.9744;1.6570;
165.9000;0.9711;1.6498;
166.2000;0.9744;1.6570;
166.5000;0.9735;1.6449;
166.8000;0.9752;1.6401;
167.1000;0.9735;1.6353;
167.4000;0.9719;1.6449;
167.7000;0.9735;1.6570;
168.0000;0.9752;1.6522;
168.3000;0.9744;1.6522;
168.6000;0.9744;1.6570;
168.9000;0.9809;1.6666;
169.2000;0.9752;1.6618;
169.5000;0.9735;1.6570;
169.8000;0.9744;1.6642;
170.1000;0.9817;1.6858;
170.4000;0.9744;1.6618;
170.7000;0.9744;1.6618;
171.0000;0.9735;1.6618;
171.3000;0.9752;1.6666;
171.6000;0.9744;1.6714;
171.9000;0.9646;1.6498;
172.2000;0.9760;1.6858;
172.5000;0.9719;1.6858;
172.8000;0.9744;1.6930;
173.1000;0.9735;1.6979;
173.4000;0.9776;1.7075;
173.7000;0.9744;1.7027;
174.0000;0.9727;1.7027;
174.3000;0.9695;1.7003;
174.6000;0.9752;1.7099;
174.9000;0.9719;1.7027;
175.2000;0.9744;1.7099;
175.5000;0.9752;1.7123;
175.8000;0.9744;1.7123;
176.1000;0.9744;1.7099;
176.4000;0.9744;1.7123;
176.7000;0.9752;1.7147;
177.0000;0.9735;1.7027;
177.3000;0.9735;1.7027;
177.6000;0.9744;1.6979;
177.9000;0.9760;1.7027;
178.2000;0.9801;1.7171;
178.5000;0.9744;1.7003;
178.8000;0.9744;1.7027;
179.1000;0.9744;1.7027;
179.4000;0.9744;1.6979;
179.7000;0.9744;1.6930;
180.0000;0.9727;1.6930;
180.3000;0.9752;1.6906;
180.6000;0.9719;1.6834;
180.9000;0.9735;1.6930;
181.2000;0.9678;1.6738;
181.5000;0.9744;1.6834;
181.8000;0.9833;1.6979;
182.1000;0.9752;1.6810;
182.4000;0.9744;1.6738;
182.7000;0.9735;1.6810;
183.0000;0.9752;1.6762;
183.3000;0.9735;1.6810;
183.6000;0.9735;1.6762;
183.9000;0.9752;1.6810;
184.2000;0.9809;1.7075;
184.5000;0.9711;1.6834;
184.8000;0.9768;1.7027;
185.1000;0.9744;1.6882;
185.4000;0.9760;1.6882;
185.7000;0.9744;1.6906;
186.0000;0.9744;1.6930;
186.3000;0.9719;1.6930;
186.6000;0.9776;1.6979;
186.9000;0.9735;1.6882;
187.2000;0.9727;1.6834;
187.5000;0.9719;1.6762;
187.8000;0.9776;1.6834;
188.1000;0.9760;1.6834;
188.4000;0.9768;1.6858;
188.7000;0.9744;1.6810;
189.0000;0.9735;1.6810;
189.3000;0.9752;1.6954;
189.6000;0.9752;1.7051;
189.9000;0.9744;1.6930;
190.2000;0.9727;1.6930;
190.5000;0.9752;1.7051;
190.8000;0.9784;1.7075;
191.1000;0.9727;1.7003;
191.4000;0.9735;1.6882;
191.7000;0.9719;1.6906;
192.0000;0.9744;1.6882;
192.3000;0.9735;1.6858;
192.6000;0.9752;1.6882;
192.9000;0.9744;1.6930;
193.2000;0.9735;1.6954;
193.5000;0.9735;1.6834;
193.8000;0.9735;1.6810;
194.1000;0.9760;1.6858;
194.4000;0.9744;1.6786;
194.7000;0.9719;1.6714;
195.0000;0.9735;1.6714;
195.3000;0.9752;1.6786;
195.6000;0.9760;1.6834;
195.9000;0.9752;1.6882;
196.2000;0.9727;1.6810;
196.5000;0.9727;1.6882;
196.8000;0.9719;1.6834;
197.1000;0.9760;1.6834;
197.4000;0.9719;1.6810;
197.7000;0.9735;1.6786;
198.0000;0.9727;1.6786;
198.3000;0.9744;1.6786;
198.6000;0.9744;1.6786;
198.9000;0.9727;1.6834;
199.2000;0.9744;1.6858;
199.5000;0.9744;1.6762;
199.8000;0.9744;1.6882;
200.1000;0.9727;1.6738;
200.4000;0.9744;1.6858;
200.7000;0.9719;1.6762;
201.0000;0.9752;1.6786;
201.3000;0.9735;1.6810;
201.6000;0.9719;1.6834;
201.9000;0.9735;1.6906;
202.2000;0.9744;1.6979;
202.5000;0.9744;1.7003;
202.8000;0.9719;1.6954;
203.1000;0.9687;1.6930;
203.4000;0.9825;1.7171;
203.7000;0.9727;1.6954;
204.0000;0.9735;1.6979;
204.3000;0.9744;1.7003;
204.6000;0.9760;1.7051;
204.9000;0.9768;1.7051;
205.2000;0.9768;1.7123;
205.5000;0.9744;1.7075;
205.8000;0.9711;1.7027;
206.1000;0.9752;1.7075;
206.4000;0.9760;1.7195;
206.7000;0.9744;1.7219;
207.0000;0.9760;1.7243;
207.3000;0.9744;1.7243;
207.6000;0.9744;1.7147;
207.9000;0.9719;1.7051;
208.2000;0.9711;1.6979;
208.5000;0.9744;1.7099;
208.8000;0.9727;1.7027;
209.1000;0.9719;1.6930;
209.4000;0.9744;1.7003;
209.7000;0.9784;1.7123;
210.0000;0.9727;1.6930;
210.3000;0.9727;1.6906;
210.6000;0.9727;1.6930;
210.9000;0.9695;1.6930;
211.2000;0.9744;1.6954;
211.5000;0.9744;1.6882;
211.8000;0.9695;1.6834;
212.1000;0.9727;1.6858;
212.4000;0.9735;1.6930;
212.7000;0.9662;1.6762;
213.0000;0.9735;1.6858;
213.3000;0.9727;1.6882;
213.6000;0.9719;1.6810;
213.9000;0.9752;1.6882;
214.2000;0.9719;1.6786;
214.5000;0.9752;1.6810;
214.8000;0.9792;1.6979;
215.1000;0.9735;1.6882;
215.4000;0.9752;1.6882;
215.7000;0.9662;1.6618;
216.0000;0.9727;1.6762;
216.3000;0.9719;1.6690;
216.6000;0.9695;1.6666;
216.9000;0.9719;1.6762;
217.2000;0.9735;1.6882;
217.5000;0.9752;1.6882;
217.8000;0.9752;1.6834;
218.1000;0.9744;1.6738;
218.4000;0.9727;1.6786;
218.7000;0.9727;1.6738;
219.0000;0.9735;1.6810;
219.3000;0.9735;1.6714;
219.6000;0.9727;1.6738;
219.9000;0.9752;1.6738;
220.2000;0.9727;1.6786;
220.5000;0.9662;1.6642;
220.8000;0.9735;1.6834;
221.1000;0.9760;1.6979;
221.4000;0.9752;1.7075;
221.7000;0.9744;1.7027;
222.0000;0.9735;1.6979;
222.3000;0.9703;1.6906;
222.6000;0.9727;1.7003;
222.9000;0.9735;1.6979;
223.2000;0.9719;1.6954;
223.5000;0.9735;1.6930;
223.8000;0.9727;1.7003;
224.1000;0.9735;1.6930;
224.4000;0.9727;1.6858;
224.7000;0.9727;1.6979;
225.0000;0.9727;1.6954;
225.3000;0.9727;1.6930;
225.6000;0.9719;1.6858;
225.9000;0.9727;1.6858;
226.2000;0.9744;1.6930;
226.5000;0.9735;1.6882;
226.8000;0.9711;1.6762;
227.1000;0.9744;1.6810;
227.4000;0.9695;1.6762;
227.7000;0.9727;1.6882;
228.0000;0.9711;1.6834;
228.3000;0.9735;1.6762;
228.6000;0.9744;1.6762;
228.9000;0.9744;1.6762;
229.2000;0.9744;1.6762;
229.5000;0.9735;1.6810;
229.8000;0.9727;1.6714;
230.1000;0.9727;1.6666;
230.4000;0.9735;1.6714;
230.7000;0.9719;1.6810;
231.0000;0.9735;1.6858;
231.3000;0.9727;1.6834;
231.6000;0.9744;1.6762;
231.9000;0.9711;1.6690;
232.2000;0.9735;1.6666;
232.5000;0.9825;1.6979;
232.8000;0.9687;1.6714;
233.1000;0.9711;1.6834;
233.4000;0.9703;1.6882;
233.7000;0.9646;1.6762;
234.0000;0.9711;1.6930;
234.3000;0.9719;1.6954;
234.6000;0.9711;1.6954;
234.9000;0.9735;1.7075;
235.2000;0.9727;1.7003;
235.5000;0.9727;1.7003;
235.8000;0.9727;1.6834;
236.1000;0.9711;1.6834;
236.4000;0.9735;1.6882;
236.7000;0.9719;1.6930;
237.0000;0.9735;1.7003;
237.3000;0.9735;1.6979;
237.6000;0.9735;1.6954;
237.9000;0.9735;1.6906;
238.2000;0.9719;1.6834;
238.5000;0.9735;1.6858;
238.8000;0.9719;1.6786;
239.1000;0.9727;1.6762;
239.4000;0.9719;1.6738;
239.7000;0.9760;1.6786;
240.0000;0.9719;1.6690;
240.3000;0.9727;1.6666;
240.6000;0.9711;1.6738;
240.9000;0.9711;1.6762;
241.2000;0.9711;1.6906;
241.5000;0.9719;1.6979;
241.8000;0.9719;1.6930;
242.1000;0.9719;1.6882;
242.4000;0.9711;1.6858;
242.7000;0.9711;1.6858;
243.0000;0.9719;1.6882;
243.3000;0.9711;1.6882;
243.6000;0.9719;1.6882;
243.9000;0.9727;1.6810;
244.2000;0.9727;1.6810;
244.5000;0.9695;1.6690;
244.8000;0.9711;1.6762;
245.1000;0.9735;1.6834;
245.4000;0.9727;1.6834;
245.7000;0.9711;1.6690;
246.0000;0.9768;1.6810;
246.3000;0.9735;1.6690;
246.6000;0.9735;1.6714;
246.9000;0.9719;1.6666;
247.2000;0.9711;1.6690;
247.5000;0.9678;1.6594;
247.8000;0.9727;1.6666;
248.1000;0.9727;1.6762;
248.4000;0.9727;1.6786;
248.7000;0.9719;1.6834;
249.0000;0.9727;1.6954;
249.3000;0.9735;1.7027;
249.6000;0.9727;1.7027;
249.9000;0.9719;1.6979;
250.2000;0.9735;1.6979;
250.5000;0.9678;1.6858;
250.8000;0.9760;1.7075;
251.1000;0.9727;1.7027;
251.4000;0.9744;1.7051;
251.7000;0.9735;1.7027;
252.0000;0.9727;1.6930;
252.3000;0.9727;1.6954;
252.6000;0.9727;1.6954;
252.9000;0.9719;1.6906;
253.2000;0.9727;1.6954;
253.5000;0.9744;1.7027;
253.8000;0.9727;1.7027;
254.1000;0.9727;1.7099;
254.4000;0.9727;1.7195;
254.7000;0.9695;1.7003;
255.0000;0.9711;1.6979;
255.3000;0.9719;1.7003;
255.6000;0.9703;1.6882;
255.9000;0.9735;1.6858;
256.2000;0.9735;1.6906;
256.5000;0.9744;1.6882;
256.8000;0.9752;1.6834;
257.1000;0.9752;1.6762;
257.4000;0.9719;1.6690;
257.7000;0.9719;1.6738;
258.0000;0.9727;1.6810;
258.3000;0.9727;1.6762;
258.6000;0.9727;1.6762;
258.9000;0.9719;1.6786;
259.2000;0.9719;1.6810;
259.5000;0.9719;1.6810;
259.8000;0.9703;1.6714;
260.1000;0.9711;1.6762;
260.4000;0.9719;1.6738;
260.7000;0.9711;1.6666;
261.0000;0.9744;1.6834;
261.3000;0.9719;1.6834;
261.6000;0.9711;1.6858;
261.9000;0.9719;1.6786;
262.2000;0.9703;1.6762;
262.5000;0.9719;1.6786;
262.8000;0.9719;1.6786;
263.1000;0.9727;1.6786;
263.4000;0.9711;1.6714;
263.7000;0.9719;1.6786;
264.0000;0.9703;1.6714;
264.3000;0.9719;1.6642;
264.6000;0.9703;1.6570;
264.9000;0.9719;1.6498;
265.2000;0.9719;1.6570;
265.5000;0.9703;1.6618;
265.8000;0.9719;1.6762;
266.1000;0.9727;1.6786;
266.4000;0.9727;1.6738;
266.7000;0.9727;1.6762;
267.0000;0.9752;1.6810;
267.3000;0.9727;1.6786;
267.6000;0.9719;1.6666;
267.9000;0.9727;1.6714;
268.2000;0.9727;1.6738;
268.5000;0.9735;1.6714;
268.8000;0.9703;1.6666;
269.1000;0.9719;1.6666;
269.4000;0.9719;1.6666;
269.7000;0.9727;1.6762;
270.0000;0.9825;1.7099;
270.3000;0.9727;1.6906;
270.6000;0.9744;1.6954;
270.9000;0.9735;1.6906;
271.2000;0.9719;1.6979;
271.5000;0.9776;1.7075;
271.8000;0.9719;1.6930;
272.1000;0.9727;1.6906;
272.4000;0.9711;1.6906;
272.7000;0.9719;1.6906;
273.0000;0.9735;1.7003;
273.3000;0.9719;1.6930;
273.6000;0.9711;1.6906;
273.9000;0.9719;1.6930;
274.2000;0.9727;1.6954;
274.5000;0.9752;1.6930;
274.8000;0.9752;1.6906;
275.1000;0.9744;1.6762;
275.4000;0.9719;1.6714;
275.7000;0.9727;1.6738;
276.0000;0.9744;1.6714;
276.3000;0.9744;1.6714;
276.6000;0.9768;1.6762;
276.9000;0.9727;1.6738;
277.2000;0.9727;1.6786;
277.5000;0.9752;1.6834;
277.8000;0.9711;1.6714;
278.1000;0.9727;1.6666;
278.4000;0.9654;1.6546;
278.7000;0.9719;1.6786;
279.0000;0.9703;1.6810;
279.3000;0.9711;1.6810;
279.6000;0.9735;1.6810;
279.9000;0.9735;1.6834;
280.2000;0.9719;1.6834;
280.5000;0.9752;1.6954;
280.8000;0.9719;1.6930;
281.1000;0.9735;1.6906;
281.4000;0.9744;1.6979;
281.7000;0.9711;1.6930;
282.0000;0.9727;1.7051;
282.3000;0.9727;1.6979;
282.6000;0.9695;1.6858;
282.9000;0.9621;1.6642;
283.2000;0.9703;1.6858;
283.5000;0.9727;1.6834;
283.8000;0.9768;1.6954;
284.1000;0.9719;1.6786;
284.4000;0.9711;1.6810;
284.7000;0.9719;1.6858;
285.0000;0.9719;1.6954;
285.3000;0.9703;1.6858;
285.6000;0.9711;1.6882;
285.9000;0.9703;1.6979;
286.2000;0.9727;1.7003;
286.5000;0.9711;1.6930;
286.8000;0.9703;1.6882;
287.1000;0.9727;1.6930;
287.4000;0.9727;1.6906;
287.7000;0.9711;1.6882;
288.0000;0.9719;1.6738;
288.3000;0.9703;1.6762;
288.6000;0.9719;1.6834;
288.9000;0.9727;1.6786;
289.2000;0.9719;1.6762;
289.5000;0.9638;1.6618;
289.8000;0.9719;1.6930;
290.1000;0.9744;1.7003;
290.4000;0.9719;1.6979;
290.7000;0.9703;1.6954;
291.0000;0.9719;1.7075;
291.3000;0.9687;1.7003;
291.6000;0.9735;1.7075;
291.9000;0.9727;1.7027;
292.2000;0.9719;1.7027;
292.5000;0.9719;1.7099;
292.8000;0.9719;1.7027;
293.1000;0.9695;1.7003;
293.4000;0.9703;1.6930;
293.7000;0.9703;1.6906;
294.0000;0.9703;1.6906;
294.3000;0.9703;1.6930;
294.6000;0.9711;1.6882;
294.9000;0.9695;1.6906;
295.2000;0.9703;1.6882;
295.5000;0.9711;1.6930;
295.8000;0.9703;1.6930;
296.1000;0.9727;1.6906;
296.4000;0.9711;1.6786;
296.7000;0.9719;1.6834;
297.0000;0.9719;1.6834;
297.3000;0.9711;1.6858;
297.6000;0.9638;1.6762;
297.9000;0.9744;1.7003;
298.2000;0.9711;1.6906;
298.5000;0.9703;1.6979;
298.8000;0.9703;1.7003;
299.1000;0.9719;1.6906;
299.4000;0.9711;1.6954;
299.7000;0.9711;1.7003;
300.0000;0.9719;1.7003;
300.3000;0.9727;1.7075;
300.6000;0.9768;1.7195;
300.9000;0.9711;1.7099;
301.2000;0.9735;1.7123;
301.5000;0.9727;1.7051;
301.8000;0.9727;1.7075;
302.1000;0.9719;1.7099;
302.4000;0.9719;1.7123;
302.7000;0.9719;1.7099;
303.0000;0.9670;1.7027;
303.3000;0.9711;1.7075;
303.6000;0.9695;1.7027;
303.9000;0.9703;1.7051;
304.2000;0.9670;1.6930;
304.5000;0.9687;1.7123;
304.8000;0.9687;1.7195;
305.1000;0.9670;1.7219;
305.4000;0.9711;1.7291;
305.7000;0.9695;1.7123;
306.0000;0.9776;1.7339;
306.3000;0.9719;1.7123;
306.6000;0.9711;1.7051;
306.9000;0.9727;1.7123;
307.2000;0.9711;1.7147;
307.5000;0.9703;1.7147;
307.8000;0.9687;1.7099;
308.1000;0.9711;1.7171;
308.4000;0.9695;1.7123;
308.7000;0.9695;1.7099;
309.0000;0.9670;1.7027;
309.3000;0.9687;1.7027;
309.6000;0.9703;1.7075;
309.9000;0.9670;1.7003;
310.2000;0.9711;1.7075;
310.5000;0.9711;1.7051;
310.8000;0.9695;1.7051;
311.1000;0.9719;1.7075;
311.4000;0.9727;1.7171;
311.7000;0.9719;1.7123;
312.0000;0.9719;1.7099;
312.3000;0.9752;1.7099;
312.6000;0.9687;1.7027;
312.9000;0.9695;1.6979;
313.2000;0.9703;1.7003;
313.5000;0.9695;1.6954;
313.8000;0.9695;1.7027;
314.1000;0.9646;1.7003;
314.4000;0.9695;1.7003;
314.7000;0.9678;1.6954;
315.0000;0.9678;1.7027;
315.3000;0.9703;1.7219;
315.6000;0.9687;1.7219;
315.9000;0.9687;1.7243;
316.2000;0.9687;1.7291;
316.5000;0.9711;1.7267;
316.8000;0.9695;1.7243;
317.1000;0.9711;1.7243;
317.4000;0.9687;1.7123;
317.7000;0.9768;1.7291;
318.0000;0.9719;1.7171;
318.3000;0.9695;1.7051;
318.6000;0.9703;1.7099;
318.9000;0.9687;1.7099;
319.2000;0.9752;1.7243;
319.5000;0.9735;1.7267;
319.8000;0.9719;1.7243;
320.1000;0.9719;1.7219;
320.4000;0.9711;1.7267;
320.7000;0.9695;1.7291;
321.0000;0.9703;1.7363;
321.3000;0.9801;1.7628;
321.6000;0.9703;1.7315;
321.9000;0.9719;1.7195;
322.2000;0.9727;1.7195;
322.5000;0.9703;1.7075;
322.8000;0.9703;1.7003;
323.1000;0.9735;1.7123;
323.4000;0.9695;1.7027;
323.7000;0.9695;1.7027;
324.0000;0.9703;1.7027;
324.3000;0.9711;1.7123;
324.6000;0.9695;1.7123;
324.9000;0.9687;1.7195;
325.2000;0.9662;1.7147;
325.5000;0.9703;1.7195;
325.8000;0.9711;1.7195;
326.1000;0.9695;1.7219;
326.4000;0.9695;1.7219;
326.7000;0.9744;1.7315;
327.0000;0.9703;1.7219;
327.3000;0.9695;1.7195;
327.6000;0.9711;1.7099;
327.9000;0.9687;1.7123;
328.2000;0.9654;1.7027;
328.5000;0.9605;1.6858;
328.8000;0.9662;1.7027;
329.1000;0.9662;1.6979;
329.4000;0.9695;1.7075;
329.7000;0.9711;1.7123;
330.0000;0.9703;1.7099;
330.3000;0.9687;1.6954;
330.6000;0.9711;1.6954;
330.9000;0.9711;1.6906;
331.2000;0.9711;1.6930;
331.5000;0.9687;1.6858;
331.8000;0.9711;1.6906;
332.1000;0.9695;1.6858;
332.4000;0.9703;1.6834;
332.7000;0.9703;1.6834;
333.0000;0.9687;1.6786;
333.3000;0.9703;1.6810;
333.6000;0.9695;1.6810;
333.9000;0.9695;1.6786;
334.2000;0.9703;1.6858;
334.5000;0.9687;1.6882;
334.8000;0.9589;1.6642;
335.1000;0.9695;1.6954;
335.4000;0.9687;1.6906;
335.7000;0.9719;1.7075;
336.0000;0.9719;1.7123;
336.3000;0.9670;1.7147;
336.6000;0.9703;1.7243;
336.9000;0.9687;1.7363;
337.2000;0.9703;1.7315;
337.5000;0.9711;1.7219;
337.8000;0.9695;1.7171;
338.1000;0.9703;1.7171;
338.4000;0.9695;1.7123;
338.7000;0.9695;1.7051;
339.0000;0.9687;1.7051;
339.3000;0.9687;1.7123;
339.6000;0.9703;1.7219;
339.9000;0.9711;1.7267;
340.2000;0.9711;1.7075;
340.5000;0.9695;1.7051;
340.8000;0.9719;1.7123;
341.1000;0.9711;1.7099;
341.4000;0.9695;1.6954;
341.7000;0.9662;1.6930;
342.0000;0.9711;1.7051;
342.3000;0.9711;1.7147;
342.6000;0.9687;1.7003;
342.9000;0.9719;1.7027;
343.2000;0.9703;1.7075;
343.5000;0.9687;1.7099;
343.8000;0.9678;1.7027;
344.1000;0.9630;1.6882;
344.4000;0.9703;1.7051;
344.7000;0.9695;1.7051;
345.0000;0.9678;1.7027;
345.3000;0.9687;1.7147;
345.6000;0.9744;1.7267;
345.9000;0.9711;1.7123;
346.2000;0.9719;1.7099;
346.5000;0.9727;1.7123;
346.8000;0.9703;1.6954;
347.1000;0.9711;1.7075;
347.4000;0.9768;1.7243;
347.7000;0.9703;1.7075;
348.0000;0.9695;1.7123;
348.3000;0.9695;1.7195;
348.6000;0.9703;1.7123;
348.9000;0.9678;1.7123;
349.2000;0.9695;1.7195;
349.5000;0.9662;1.7075;
349.8000;0.9711;1.7123;
350.1000;0.9678;1.7099;
350.4000;0.9703;1.7123;
350.7000;0.9735;1.7171;
351.0000;0.9703;1.7075;
351.3000;0.9695;1.7027;
351.6000;0.9687;1.7051;
351.9000;0.9695;1.7075;
352.2000;0.9711;1.7171;
352.5000;0.9711;1.7195;
352.8000;0.9678;1.7123;
353.1000;0.9695;1.7147;
353.4000;0.9695;1.7219;
353.7000;0.9752;1.7315;
354.0000;0.9670;1.7195;
354.3000;0.9654;1.7123;
354.6000;0.9703;1.7219;
354.9000;0.9646;1.7171;
355.2000;0.9678;1.7315;
355.5000;0.9687;1.7243;
355.8000;0.9695;1.7171;
356.1000;0.9703;1.7267;
356.4000;0.9662;1.7171;
356.7000;0.9703;1.7315;
357.0000;0.9703;1.7435;
357.3000;0.9703;1.7387;
357.6000;0.9703;1.7339;
357.9000;0.9687;1.7267;
358.2000;0.9695;1.7291;
358.5000;0.9711;1.7291;
358.8000;0.9687;1.7291;
359.1000;0.9703;1.7267;
359.4000;0.9695;1.7171;
359.7000;0.9711;1.7363;
360.0000;0.9703;1.7387;
360.3000;0.9687;1.7315;
360.6000;0.9695;1.7267;
360.9000;0.9687;1.7147;
361.2000;0.9703;1.7147;
361.5000;0.9695;1.7027;
361.8000;0.9687;1.7147;
362.1000;0.9695;1.7099;
362.4000;0.9695;1.7147;
362.7000;0.9687;1.7147;
363.0000;0.9695;1.7171;
363.3000;0.9654;1.7075;
363.6000;0.9687;1.7051;
363.9000;0.9678;1.7051;
364.2000;0.9687;1.7051;
364.5000;0.9687;1.7051;
364.8000;0.9678;1.6930;
365.1000;0.9695;1.7027;
365.4000;0.9695;1.6979;
365.7000;0.9719;1.6979;
366.0000;0.9695;1.7027;
366.3000;0.9703;1.7003;
366.6000;0.9654;1.6810;
366.9000;0.9695;1.7051;
367.2000;0.9711;1.7027;
367.5000;0.9695;1.7027;
367.8000;0.9703;1.7075;
368.1000;0.9687;1.7051;
368.4000;0.9678;1.6979;
368.7000;0.9703;1.7003;
369.0000;0.9695;1.6979;
369.3000;0.9695;1.7075;
369.6000;0.9703;1.7147;
369.9000;0.9695;1.7147;
370.2000;0.9687;1.7099;
370.5000;0.9687;1.7075;
370.8000;0.9687;1.7171;
371.1000;0.9711;1.7243;
371.4000;0.9695;1.7315;
371.7000;0.9703;1.7243;
372.0000;0.9678;1.7075;
372.3000;0.9678;1.7123;
372.6000;0.9662;1.7171;
372.9000;0.9703;1.7147;
373.2000;0.9678;1.7051;
373.5000;0.9703;1.7219;
373.8000;0.9678;1.7123;
374.1000;0.9687;1.7171;
374.4000;0.9678;1.7123;
374.7000;0.9630;1.7051;
375.0000;0.9719;1.7315;
375.3000;0.9678;1.7243;
375.6000;0.9678;1.7195;
375.9000;0.9621;1.7075;
376.2000;0.9703;1.7171;
376.5000;0.9678;1.7099;
376.8000;0.9703;1.7123;
377.1000;0.9711;1.7051;
377.4000;0.9687;1.7051;
377.7000;0.9695;1.7195;
378.0000;0.9687;1.7123;
378.3000;0.9695;1.7219;
378.6000;0.9662;1.7219;
378.9000;0.9711;1.7243;
379.2000;0.9703;1.7195;
379.5000;0.9678;1.7003;
379.8000;0.9678;1.7003;
380.1000;0.9687;1.7051;
380.4000;0.9719;1.7099;
380.7000;0.9687;1.7051;
381.0000;0.9670;1.6954;
381.3000;0.9687;1.6979;
381.6000;0.9687;1.6979;
381.9000;0.9630;1.6930;
382.2000;0.9678;1.6979;
382.5000;0.9678;1.7027;
382.8000;0.9687;1.6906;
383.1000;0.9695;1.6930;
383.4000;0.9695;1.6930;
383.7000;0.9662;1.6858;
384.0000;0.9687;1.6906;
384.3000;0.9703;1.6954;
384.6000;0.9687;1.7003;
384.9000;0.9589;1.6810;
385.2000;0.9670;1.7003;
385.5000;0.9670;1.7075;
385.8000;0.9719;1.7195;
386.1000;0.9687;1.7003;
386.4000;0.9670;1.7003;
386.7000;0.9695;1.7075;
387.0000;0.9695;1.7099;
387.3000;0.9662;1.6858;
387.6000;0.9670;1.6834;
387.9000;0.9711;1.6930;
388.2000;0.9744;1.7123;
388.5000;0.9711;1.6979;
388.8000;0.9695;1.6954;
389.1000;0.9695;1.6954;
389.4000;0.9711;1.6906;
389.7000;0.9695;1.6906;
390.0000;0.9670;1.6882;
390.3000;0.9670;1.6810;
390.6000;0.9687;1.6858;
390.9000;0.9687;1.6858;
391.2000;0.9687;1.6834;
391.5000;0.9687;1.6906;
391.8000;0.9735;1.7099;
392.1000;0.9678;1.7003;
392.4000;0.9695;1.7027;
392.7000;0.9695;1.7099;
393.0000;0.9703;1.7099;
393.3000;0.9687;1.7123;
393.6000;0.9711;1.7195;
393.9000;0.9670;1.7099;
394.2000;0.9687;1.7051;
394.5000;0.9695;1.7075;
394.8000;0.9687;1.7027;
395.1000;0.9678;1.6979;
395.4000;0.9670;1.6954;
395.7000;0.9670;1.6882;
396.0000;0.9687;1.6930;
396.3000;0.9678;1.6882;
396.6000;0.9662;1.6810;
396.9000;0.9687;1.6858;
397.2000;0.9670;1.6979;
397.5000;0.9695;1.6979;
397.8000;0.9695;1.7027;
398.1000;0.9695;1.7027;
398.4000;0.9695;1.7027;
398.7000;0.9662;1.7003;
399.0000;0.9662;1.6979;
399.3000;0.9687;1.7027;
399.6000;0.9678;1.6954;
399.9000;0.9662;1.6930;
400.2000;0.9678;1.6930;
400.5000;0.9670;1.6930;
400.8000;0.9654;1.6834;
401.1000;0.9695;1.6930;
401.4000;0.9670;1.6979;
401.7000;0.9678;1.7003;
402.0000;0.9678;1.7003;
402.3000;0.9687;1.7003;
402.6000;0.9678;1.6882;
402.9000;0.9792;1.7123;
403.2000;0.9695;1.6906;
403.5000;0.9695;1.7003;
403.8000;0.9662;1.6930;
404.1000;0.9678;1.7003;
404.4000;0.9744;1.7195;
404.7000;0.9687;1.7003;
405.0000;0.9670;1.7123;
405.3000;0.9703;1.7267;
405.6000;0.9670;1.7243;
405.9000;0.9621;1.7099;
406.2000;0.9687;1.7267;
406.5000;0.9654;1.7195;
406.8000;0.9662;1.7195;
407.1000;0.9662;1.7195;
407.4000;0.9695;1.7171;
407.7000;0.9670;1.7171;
408.0000;0.9703;1.7099;
408.3000;0.9711;1.7219;
408.6000;0.9719;1.7243;
408.9000;0.9695;1.7099;
409.2000;0.9678;1.7075;
409.5000;0.9678;1.7123;
409.8000;0.9695;1.7099;
410.1000;0.9687;1.7123;
410.4000;0.9687;1.7147;
410.7000;0.9670;1.7243;
411.0000;0.9687;1.7243;
411.3000;0.9687;1.7219;
411.6000;0.9678;1.7219;
411.9000;0.9670;1.7171;
412.2000;0.9703;1.7171;
412.5000;0.9687;1.7195;
412.8000;0.9670;1.7123;
413.1000;0.9662;1.7075;
413.4000;0.9695;1.7243;
413.7000;0.9711;1.7339;
414.0000;0.9687;1.7219;
414.3000;0.9670;1.7171;
414.6000;0.9678;1.7219;
414.9000;0.9678;1.7195;
415.2000;0.9727;1.7387;
415.5000;0.9597;1.7123;
415.8000;0.9670;1.7267;
416.1000;0.9687;1.7267;
416.4000;0.9703;1.7219;
416.7000;0.9678;1.7123;
417.0000;0.9662;1.7051;
417.3000;0.9695;1.7147;
417.6000;0.9678;1.7171;
417.9000;0.9703;1.7243;
418.2000;0.9678;1.7147;
418.5000;0.9662;1.7147;
418.8000;0.9654;1.7195;
419.1000;0.9687;1.7267;
419.4000;0.9678;1.7171;
419.7000;0.9654;1.7147;
420.0000;0.9662;1.7171;
420.3000;0.9687;1.7219;
420.6000;0.9678;1.7195;
420.9000;0.9687;1.7123;
421.2000;0.9678;1.7099;
421.5000;0.9687;1.7099;
421.8000;0.9670;1.7027;
422.1000;0.9678;1.7027;
422.4000;0.9678;1.7123;
422.7000;0.9687;1.7123;
423.0000;0.9670;1.7123;
423.3000;0.9687;1.7171;
423.6000;0.9678;1.7147;
423.9000;0.9703;1.7171;
424.2000;0.9638;1.7051;
424.5000;0.9670;1.7147;
424.8000;0.9678;1.7195;
425.1000;0.9670;1.7171;
425.4000;0.9678;1.7219;
425.7000;0.9678;1.7291;
426.0000;0.9670;1.7291;
426.3000;0.9678;1.7315;
426.6000;0.9670;1.7315;
426.9000;0.9670;1.7387;
427.2000;0.9670;1.7339;
427.5000;0.9695;1.7315;
427.8000;0.9687;1.7315;
428.1000;0.9670;1.7315;
428.4000;0.9670;1.7243;
428.7000;0.9670;1.7195;
429.0000;0.9670;1.7291;
429.3000;0.9670;1.7339;
429.6000;0.9662;1.7363;
429.9000;0.9703;1.7339;
430.2000;0.9678;1.7267;
430.5000;0.9727;1.7363;
430.8000;0.9678;1.7339;
431.1000;0.9630;1.7195;
431.4000;0.9597;1.7027;
431.7000;0.9711;1.7315;
432.0000;0.9687;1.7219;
432.3000;0.9678;1.7171;
432.6000;0.9687;1.7195;
432.9000;0.9727;1.7363;
433.2000;0.9678;1.7315;
433.5000;0.9670;1.7267;
433.8000;0.9678;1.7243;
434.1000;0.9687;1.7195;
434.4000;0.9687;1.7219;
434.7000;0.9687;1.7219;
435.0000;0.9678;1.7219;
435.3000;0.9695;1.7315;
435.6000;0.9670;1.7147;
435.9000;0.9662;1.7171;
436.2000;0.9646;1.7171;
436.5000;0.9678;1.7195;
436.8000;0.9678;1.7123;
437.1000;0.9654;1.7147;
437.4000;0.9678;1.7267;
437.7000;0.9695;1.7267;
438.0000;0.9662;1.7123;
438.3000;0.9678;1.7195;
438.6000;0.9678;1.7267;
438.9000;0.9670;1.7267;
439.2000;0.9687;1.7315;
439.5000;0.9687;1.7339;
439.8000;0.9654;1.7315;
440.1000;0.9662;1.7339;
440.4000;0.9662;1.7387;
440.7000;0.9638;1.7219;
441.0000;0.9670;1.7219;
441.3000;0.9662;1.7219;
441.6000;0.9670;1.7243;
441.9000;0.9662;1.7195;
442.2000;0.9670;1.7219;
442.5000;0.9678;1.7219;
442.8000;0.9687;1.7195;
443.1000;0.9711;1.7243;
443.4000;0.9678;1.7195;
443.7000;0.9711;1.7267;
444.0000;0.9662;1.7219;
444.3000;0.9678;1.7195;
444.6000;0.9695;1.7291;
444.9000;0.9662;1.7171;
445.2000;0.9719;1.7291;
445.5000;0.9589;1.7003;
445.8000;0.9646;1.7147;
446.1000;0.9662;1.7123;
446.4000;0.9678;1.7147;
446.7000;0.9638;1.7075;
447.0000;0.9744;1.7267;
447.3000;0.9662;1.7147;
447.6000;0.9695;1.7267;
447.9000;0.9695;1.7339;
448.2000;0.9646;1.7291;
448.5000;0.9687;1.7291;
448.8000;0.9687;1.7315;
449.1000;0.9687;1.7243;
449.4000;0.9678;1.7219;
449.7000;0.9678;1.7291;
450.0000;0.9670;1.7315;
450.3000;0.9678;1.7339;
450.6000;0.9662;1.7291;
450.9000;0.9670;1.7315;
451.2000;0.9662;1.7291;
451.5000;0.9654;1.7243;
451.8000;0.9719;1.7315;
452.1000;0.9678;1.7195;
452.4000;0.9703;1.7291;
452.7000;0.9687;1.7339;
453.0000;0.9662;1.7387;
453.3000;0.9670;1.7315;
453.6000;0.9662;1.7411;
453.9000;0.9662;1.7411;
454.2000;0.9678;1.7435;
454.5000;0.9678;1.7460;
454.8000;0.9654;1.7387;
455.1000;0.9670;1.7435;
455.4000;0.9678;1.7484;
455.7000;0.9670;1.7484;
456.0000;0.9646;1.7484;
456.3000;0.9646;1.7532;
456.6000;0.9670;1.7508;
456.9000;0.9678;1.7435;
457.2000;0.9687;1.7411;
457.5000;0.9678;1.7315;
457.8000;0.9695;1.7363;
458.1000;0.9654;1.7243;
458.4000;0.9678;1.7315;
458.7000;0.9613;1.7171;
459.0000;0.9678;1.7219;
459.3000;0.9678;1.7195;
459.6000;0.9597;1.7051;
459.9000;0.9662;1.7291;
460.2000;0.9670;1.7315;
460.5000;0.9654;1.7339;
460.8000;0.9662;1.7387;
461.1000;0.9695;1.7460;
461.4000;0.9630;1.7339;
461.7000;0.9678;1.7339;
462.0000;0.9678;1.7267;
462.3000;0.9678;1.7243;
462.6000;0.9768;1.7387;
462.9000;0.9678;1.7195;
463.2000;0.9678;1.7219;
463.5000;0.9581;1.7003;
463.8000;0.9646;1.7171;
464.1000;0.9662;1.7243;
464.4000;0.9687;1.7171;
464.7000;0.9654;1.7123;
465.0000;0.9630;1.7027;
465.3000;0.9646;1.7027;
465.6000;0.9613;1.6930;
465.9000;0.9654;1.7003;
466.2000;0.9654;1.7003;
466.5000;0.9646;1.7051;
466.8000;0.9646;1.7051;
467.1000;0.9654;1.7123;
467.4000;0.9670;1.7171;
467.7000;0.9703;1.7243;
468.0000;0.9662;1.7099;
468.3000;0.9662;1.7171;
468.6000;0.9638;1.7099;
468.9000;0.9646;1.7123;
469.2000;0.9678;1.7171;
469.5000;0.9630;1.7099;
469.8000;0.9670;1.7171;
470.1000;0.9703;1.7315;
470.4000;0.9670;1.7243;
470.7000;0.9678;1.7243;
471.0000;0.9670;1.7219;
471.3000;0.9662;1.7267;
471.6000;0.9670;1.7363;
471.9000;0.9662;1.7363;
472.2000;0.9670;1.7315;
472.5000;0.9654;1.7315;
472.8000;0.9654;1.7243;
473.1000;0.9654;1.7267;
473.4000;0.9670;1.7339;
473.7000;0.9654;1.7315;
474.0000;0.9670;1.7291;
474.3000;0.9654;1.7315;
474.6000;0.9662;1.7315;
474.9000;0.9646;1.7219;
475.2000;0.9654;1.7171;
475.5000;0.9670;1.7243;
475.8000;0.9654;1.7099;
476.1000;0.9662;1.7195;
476.4000;0.9646;1.7171;
476.7000;0.9646;1.7123;
477.0000;0.9662;1.7195;
477.3000;0.9662;1.7243;
477.6000;0.9662;1.7291;
477.9000;0.9654;1.7147;
478.2000;0.9662;1.7171;
478.5000;0.9662;1.7171;
478.8000;0.9703;1.7195;
479.1000;0.9646;1.7075;
479.4000;0.9670;1.7195;
479.7000;0.9678;1.7195;
480.0000;0.9687;1.7267;
480.3000;0.9662;1.7219;
480.6000;0.9670;1.7243;
480.9000;0.9670;1.7243;
481.2000;0.9662;1.7147;
481.5000;0.9646;1.7147;
481.8000;0.9646;1.7171;
482.1000;0.9687;1.7243;
482.4000;0.9662;1.7051;
482.7000;0.9687;1.7147;
483.0000;0.9654;1.7051;
483.3000;0.9670;1.7075;
483.6000;0.9703;1.7147;
483.9000;0.9662;1.7003;
484.2000;0.9662;1.7075;
484.5000;0.9687;1.7171;
484.8000;0.9662;1.7171;
485.1000;0.9654;1.7171;
485.4000;0.9654;1.7291;
485.7000;0.9630;1.7195;
486.0000;0.9654;1.7171;
486.3000;0.9662;1.7219;
486.6000;0.9621;1.7123;
486.9000;0.9630;1.7051;
487.2000;0.9646;1.7051;
487.5000;0.9654;1.7027;
487.8000;0.9687;1.7123;
488.1000;0.9670;1.7075;
488.4000;0.9654;1.7075;
488.7000;0.9670;1.7123;
489.0000;0.9654;1.7171;
489.3000;0.9630;1.7195;
489.6000;0.9654;1.7243;
489.9000;0.9621;1.7267;
490.2000;0.9654;1.7387;
490.5000;0.9638;1.7315;
490.8000;0.9613;1.7147;
491.1000;0.9662;1.7243;
491.4000;0.9670;1.7171;
491.7000;0.9621;1.7027;
492.0000;0.9662;1.7171;
492.3000;0.9678;1.7195;
492.6000;0.9670;1.7123;
492.9000;0.9646;1.7003;
493.2000;0.9654;1.7027;
493.5000;0.9703;1.7099;
493.8000;0.9670;1.6954;
494.1000;0.9654;1.6906;
494.4000;0.9662;1.6930;
494.7000;0.9654;1.6954;
495.0000;0.9662;1.6979;
495.3000;0.9670;1.6954;
495.6000;0.9662;1.6954;
495.9000;0.9654;1.6906;
496.2000;0.9646;1.6930;
496.5000;0.9654;1.7003;
496.8000;0.9638;1.7027;
497.1000;0.9646;1.7075;
497.4000;0.9670;1.7147;
497.7000;0.9662;1.7075;
498.0000;0.9654;1.7075;
498.3000;0.9744;1.7291;
498.6000;0.9670;1.7147;
498.9000;0.9662;1.7147;
499.2000;0.9638;1.7027;
499.5000;0.9646;1.6906;
499.8000;0.9654;1.6954;
500.1000;0.9646;1.6930;
500.4000;0.9581;1.6834;
500.7000;0.9630;1.6954;
501.0000;0.9638;1.6979;
501.3000;0.9630;1.6882;
501.6000;0.9638;1.6954;
501.9000;0.9646;1.7027;
502.2000;0.9654;1.6954;
502.5000;0.9646;1.7027;
502.8000;0.9638;1.6930;
503.1000;0.9654;1.6979;
503.4000;0.9646;1.6954;
503.7000;0.9646;1.7003;
504.0000;0.9703;1.7123;
504.3000;0.9670;1.7051;
504.6000;0.9678;1.7051;
504.9000;0.9662;1.6954;
505.2000;0.9670;1.6954;
505.5000;0.9662;1.7027;
505.8000;0.9678;1.7123;
506.1000;0.9646;1.7027;
506.4000;0.9662;1.7147;
506.7000;0.9678;1.7171;
507.0000;0.9646;1.7099;
507.3000;0.9662;1.7147;
507.6000;0.9670;1.7243;
507.9000;0.9711;1.7339;
508.2000;0.9646;1.7171;
508.5000;0.9630;1.7243;
508.8000;0.9670;1.7387;
509.1000;0.9654;1.7363;
509.4000;0.9654;1.7315;
509.7000;0.9638;1.7243;
510.0000;0.9605;1.7123;
510.3000;0.9662;1.7195;
510.6000;0.9654;1.7243;
510.9000;0.9654;1.7219;
511.2000;0.9646;1.7267;
511.5000;0.9670;1.7243;
511.8000;0.9654;1.7315;
512.1000;0.9662;1.7267;
512.4000;0.9654;1.7219;
512.7000;0.9662;1.7147;
513.0000;0.9662;1.7123;
513.3000;0.9662;1.7099;
513.6000;0.9654;1.7099;
513.9000;0.9646;1.7171;
514.2000;0.9662;1.7147;
514.5000;0.9662;1.7123;
514.8000;0.9646;1.7075;
515.1000;0.9662;1.7147;
515.4000;0.9670;1.7171;
515.7000;0.9654;1.7075;
516.0000;0.9581;1.6954;
516.3000;0.9654;1.7147;
516.6000;0.9654;1.7171;
516.9000;0.9654;1.7219;
517.2000;0.9646;1.7219;
517.5000;0.9654;1.7219;
517.8000;0.9662;1.7267;
518.1000;0.9605;1.7027;
518.4000;0.9646;1.7123;
518.7000;0.9670;1.7123;
519.0000;0.9613;1.6954;
519.3000;0.9654;1.7051;
519.6000;0.9638;1.6906;
519.9000;0.9662;1.6906;
520.2000;0.9638;1.6738;
520.5000;0.9597;1.6618;
520.8000;0.9638;1.6690;
521.1000;0.9695;1.6906;
521.4000;0.9630;1.6810;
521.7000;0.9638;1.6834;
522.0000;0.9654;1.6954;
522.3000;0.9670;1.6930;
522.6000;0.9646;1.6954;
522.9000;0.9646;1.6882;
523.2000;0.9654;1.6858;
523.5000;0.9646;1.6834;
523.8000;0.9638;1.6906;
524.1000;0.9646;1.6906;
524.4000;0.9646;1.6954;
524.7000;0.9654;1.6906;
525.0000;0.9654;1.6882;
525.3000;0.9711;1.7075;
525.6000;0.9638;1.6954;
525.9000;0.9646;1.6858;
526.2000;0.9621;1.6906;
526.5000;0.9646;1.6954;
526.8000;0.9662;1.7051;
527.1000;0.9646;1.7075;
527.4000;0.9646;1.7075;
527.7000;0.9662;1.7099;
528.0000;0.9646;1.7099;
528.3000;0.9654;1.7051;
528.6000;0.9646;1.7099;
528.9000;0.9630;1.6930;
529.2000;0.9687;1.6979;
529.5000;0.9654;1.6954;
529.8000;0.9687;1.7051;
530.1000;0.9654;1.6954;
530.4000;0.9638;1.7027;
530.7000;0.9646;1.7003;
531.0000;0.9654;1.6930;
531.3000;0.9630;1.6762;
531.6000;0.9638;1.6738;
531.9000;0.9646;1.6762;
532.2000;0.9630;1.6738;
532.5000;0.9638;1.6690;
532.8000;0.9646;1.6786;
533.1000;0.9654;1.6762;
533.4000;0.9646;1.6714;
533.7000;0.9662;1.6666;
534.0000;0.9654;1.6594;
534.3000;0.9654;1.6594;
534.6000;0.9646;1.6570;
534.9000;0.9646;1.6642;
535.2000;0.9630;1.6618;
535.5000;0.9638;1.6666;
535.8000;0.9646;1.6666;
536.1000;0.9613;1.6618;
536.4000;0.9678;1.6858;
536.7000;0.9581;1.6666;
537.0000;0.9727;1.7075;
537.3000;0.9638;1.6786;
537.6000;0.9597;1.6690;
537.9000;0.9646;1.6858;
538.2000;0.9638;1.6906;
538.5000;0.9670;1.6979;
538.8000;0.9662;1.6979;
539.1000;0.9621;1.6810;
539.4000;0.9654;1.6906;
539.7000;0.9613;1.6786;
540.0000;0.9727;1.7027;
540.3000;0.9630;1.6834;
540.6000;0.9646;1.6882;
540.9000;0.9662;1.6882;
541.2000;0.9646;1.6882;
541.5000;0.9638;1.6858;
541.8000;0.9638;1.6834;
542.1000;0.9654;1.6834;
542.4000;0.9630;1.6690;
542.7000;0.9638;1.6666;
543.0000;0.9630;1.6714;
543.3000;0.9646;1.6738;
543.6000;0.9630;1.6642;
543.9000;0.9613;1.6738;
544.2000;0.9621;1.6738;
544.5000;0.9630;1.6714;
544.8000;0.9654;1.6738;
545.1000;0.9630;1.6642;
545.4000;0.9638;1.6618;
545.7000;0.9646;1.6642;
546.0000;0.9638;1.6666;
546.3000;0.9630;1.6666;
546.6000;0.9613;1.6642;
546.9000;0.9646;1.6738;
547.2000;0.9646;1.6714;
547.5000;0.9638;1.6690;
547.8000;0.9573;1.6666;
548.1000;0.9630;1.6810;
548.4000;0.9638;1.6834;
548.7000;0.9646;1.6858;
549.0000;0.9654;1.6858;
549.3000;0.9646;1.6882;
549.6000;0.9638;1.6930;
549.9000;0.9638;1.6930;
550.2000;0.9630;1.6882;
550.5000;0.9630;1.6930;
550.8000;0.9654;1.6930;
551.1000;0.9605;1.6834;
551.4000;0.9646;1.6810;
551.7000;0.9662;1.6858;
552.0000;0.9646;1.6762;
552.3000;0.9678;1.6810;
552.6000;0.9638;1.6690;
552.9000;0.9646;1.6714;
553.2000;0.9581;1.6546;
553.5000;0.9654;1.6834;
553.8000;0.9638;1.6786;
554.1000;0.9556;1.6642;
554.4000;0.9646;1.6810;
554.7000;0.9703;1.6979;
555.0000;0.9711;1.7051;
555.3000;0.9613;1.6786;
555.6000;0.9646;1.6762;
555.9000;0.9695;1.6930;
556.2000;0.9646;1.6762;
556.5000;0.9638;1.6690;
556.8000;0.9613;1.6642;
557.1000;0.9654;1.6714;
557.4000;0.9621;1.6570;
557.7000;0.9638;1.6738;
558.0000;0.9646;1.6858;
558.3000;0.9662;1.6810;
558.6000;0.9589;1.6738;
558.9000;0.9638;1.6858;
559.2000;0.9597;1.6738;
559.5000;0.9638;1.6810;
559.8000;0.9638;1.6834;
560.1000;0.9613;1.6786;
560.4000;0.9687;1.7003;
560.7000;0.9638;1.6979;
561.0000;0.9654;1.7003;
561.3000;0.9621;1.6906;
561.6000;0.9565;1.6786;
561.9000;0.9638;1.6858;
562.2000;0.9613;1.6810;
562.5000;0.9573;1.6690;
562.8000;0.9630;1.6786;
563.1000;0.9646;1.6906;
563.4000;0.9646;1.6906;
563.7000;0.9573;1.6858;
564.0000;0.9646;1.6979;
564.3000;0.9613;1.6954;
564.6000;0.9646;1.6979;
564.9000;0.9638;1.7027;
565.2000;0.9638;1.6979;
565.5000;0.9638;1.6906;
565.8000;0.9638;1.6882;
566.1000;0.9646;1.6906;
566.4000;0.9621;1.6786;
566.7000;0.9638;1.6738;
567.0000;0.9621;1.6714;
567.3000;0.9621;1.6786;
567.6000;0.9654;1.6882;
567.9000;0.9630;1.6882;
568.2000;0.9630;1.6882;
568.5000;0.9630;1.6930;
568.8000;0.9646;1.6882;
569.1000;0.9654;1.6834;
569.4000;0.9638;1.6738;
569.7000;0.9638;1.6762;
570.0000;0.9654;1.6786;
570.3000;0.9646;1.6690;
570.6000;0.9654;1.6786;
570.9000;0.9646;1.6786;
571.2000;0.9646;1.6810;
571.5000;0.9703;1.6882;
571.8000;0.9638;1.6810;
572.1000;0.9646;1.6906;
572.4000;0.9662;1.6906;
572.7000;0.9630;1.6858;
573.0000;0.9662;1.6906;
573.3000;0.9621;1.6882;
573.6000;0.9630;1.6954;
573.9000;0.9605;1.6979;
574.2000;0.9646;1.7003;
574.5000;0.9646;1.6954;
574.8000;0.9630;1.7003;
575.1000;0.9678;1.7051;
575.4000;0.9638;1.6979;
575.7000;0.9630;1.6882;
576.0000;0.9638;1.6858;
576.3000;0.9630;1.6738;
576.6000;0.9670;1.6858;
576.9000;0.9670;1.6834;
577.2000;0.9621;1.6714;
577.5000;0.9613;1.6738;
577.8000;0.9630;1.6810;
578.1000;0.9581;1.6642;
578.4000;0.9621;1.6786;
578.7000;0.9678;1.6979;
579.0000;0.9630;1.6810;
579.3000;0.9630;1.6810;
579.6000;0.9638;1.6882;
579.9000;0.9638;1.6954;
580.2000;0.9646;1.6930;
580.5000;0.9638;1.6906;
580.8000;0.9581;1.6690;
581.1000;0.9638;1.6810;
581.4000;0.9589;1.6738;
581.7000;0.9654;1.6882;
582.0000;0.9678;1.7003;
582.3000;0.9605;1.6834;
582.6000;0.9621;1.6858;
582.9000;0.9605;1.6858;
583.2000;0.9613;1.6930;
583.5000;0.9646;1.6954;
583.8000;0.9630;1.6954;
584.1000;0.9638;1.6979;
584.4000;0.9646;1.7027;
584.7000;0.9646;1.7027;
585.0000;0.9638;1.7027;
585.3000;0.9646;1.7051;
585.6000;0.9630;1.7099;
585.9000;0.9621;1.7075;
586.2000;0.9613;1.7075;
586.5000;0.9630;1.7171;
586.8000;0.9621;1.7099;
587.1000;0.9613;1.6979;
587.4000;0.9621;1.6954;
587.7000;0.9621;1.6810;
588.0000;0.9630;1.6834;
588.3000;0.9621;1.6714;
588.6000;0.9621;1.6690;
588.9000;0.9630;1.6666;
589.2000;0.9630;1.6738;
589.5000;0.9638;1.6690;
589.8000;0.9630;1.6642;
590.1000;0.9621;1.6594;
590.4000;0.9638;1.6642;
590.7000;0.9638;1.6738;
591.0000;0.9630;1.6786;
591.3000;0.9630;1.6834;
591.6000;0.9540;1.6546;
591.9000;0.9630;1.6714;
592.2000;0.9605;1.6666;
592.5000;0.9548;1.6594;
592.8000;0.9646;1.6906;
593.1000;0.9605;1.6834;
593.4000;0.9581;1.6834;
593.7000;0.9597;1.6858;
594.0000;0.9597;1.6762;
594.3000;0.9646;1.6858;
594.6000;0.9630;1.6882;
594.9000;0.9630;1.6954;
595.2000;0.9638;1.6979;
595.5000;0.9621;1.6930;
595.8000;0.9621;1.6858;
596.1000;0.9646;1.6979;
596.4000;0.9613;1.6979;
596.7000;0.9605;1.6906;
597.0000;0.9654;1.7003;
597.3000;0.9630;1.6882;
597.6000;0.9589;1.6738;
597.9000;0.9581;1.6666;
598.2000;0.9621;1.6738;
598.5000;0.9621;1.6786;
598.8000;0.9630;1.6762;
599.1000;0.9646;1.6810;
599.4000;0.9621;1.6810;
599.7000;0.9646;1.6858;
600.0000;0.9605;1.6882;
600.3000;0.9630;1.6834;
600.6000;0.9662;1.6762;
600.9000;0.9556;1.6449;
601.2000;0.9524;1.6498;
601.5000;0.9459;1.6353;
601.8000;0.9361;1.6185;
602.1000;0.9345;1.6137;
602.4000;0.9255;1.5824;
602.7000;0.9182;1.5680;
603.0000;0.9133;1.5584;
603.3000;0.9141;1.5560;
603.6000;0.9003;1.5343;
603.9000;0.8938;1.5271;
604.2000;0.8905;1.5247;
604.5000;0.8848;1.5151;
604.8000;0.8799;1.5055;
605.1000;0.8742;1.4886;
605.4000;0.8694;1.4838;
605.7000;0.8645;1.4694;
606.0000;0.8612;1.4718;
606.3000;0.8547;1.4622;
606.6000;0.8523;1.4694;
606.9000;0.8490;1.4742;
607.2000;0.8449;1.4598;
607.5000;0.8400;1.4429;
607.8000;0.8352;1.4357;
608.1000;0.8319;1.4357;
608.4000;0.8311;1.4333;
608.7000;0.8262;1.4213;
609.0000;0.8213;1.4189;
609.3000;0.8197;1.4141;
609.6000;0.8148;1.4021;
609.9000;0.8099;1.3996;
610.2000;0.8099;1.4093;
610.5000;0.8075;1.4213;
610.8000;0.8059;1.4357;
611.1000;0.8002;1.4333;
611.4000;0.7953;1.4261;
611.7000;0.7953;1.4309;
612.0000;0.7928;1.4333;
612.3000;0.7904;1.4309;
612.6000;0.7871;1.4261;
612.9000;0.7831;1.4189;
613.2000;0.7806;1.4261;
613.5000;0.7790;1.4237;
613.8000;0.7831;1.4309;
614.1000;0.7717;1.4117;
614.4000;0.7717;1.4045;
614.7000;0.7717;1.3948;
615.0000;0.7692;1.3948;
615.3000;0.7652;1.4021;
615.6000;0.7603;1.4069;
615.9000;0.7603;1.4045;
616.2000;0.7578;1.4021;
616.5000;0.7521;1.3924;
616.8000;0.7505;1.3876;
617.1000;0.7546;1.3996;
617.4000;0.7407;1.3636;
617.7000;0.7473;1.3924;
618.0000;0.7448;1.3924;
618.3000;0.7407;1.3804;
618.6000;0.7440;1.3924;
618.9000;0.7407;1.3852;
619.2000;0.7391;1.3900;
619.5000;0.7367;1.3924;
619.8000;0.7367;1.3996;
620.1000;0.7318;1.3852;
620.4000;0.7310;1.3876;
620.7000;0.7310;1.3948;
621.0000;0.7293;1.3924;
621.3000;0.7245;1.3852;
621.6000;0.7245;1.3852;
621.9000;0.7220;1.3852;
622.2000;0.7171;1.3780;
622.5000;0.7196;1.3756;
622.8000;0.7179;1.3684;
623.1000;0.7139;1.3636;
623.4000;0.7163;1.3756;
623.7000;0.7139;1.3732;
624.0000;0.7106;1.3756;
624.3000;0.7106;1.3780;
624.6000;0.7106;1.3756;
624.9000;0.7147;1.3996;
625.2000;0.7066;1.3948;
625.5000;0.7049;1.3852;
625.8000;0.7049;1.3804;
626.1000;0.7041;1.3828;
626.4000;0.7033;1.3876;
626.7000;0.7000;1.3876;
627.0000;0.6984;1.3924;
627.3000;0.6976;1.3948;
627.6000;0.6960;1.3924;
627.9000;0.6976;1.3876;
628.2000;0.6943;1.3804;
628.5000;0.6927;1.3780;
628.8000;0.6935;1.3876;
629.1000;0.6895;1.3756;
629.4000;0.6895;1.3780;
629.7000;0.6927;1.3876;
630.0000;0.6878;1.3684;
630.3000;0.6862;1.3756;
630.6000;0.6854;1.3684;
630.9000;0.6829;1.3684;
631.2000;0.6838;1.3708;
631.5000;0.6813;1.3732;
631.8000;0.6781;1.3756;
632.1000;0.6772;1.3804;
632.4000;0.6797;1.3756;
632.7000;0.6781;1.3660;
633.0000;0.6772;1.3636;
633.3000;0.6756;1.3708;
633.6000;0.6732;1.3612;
633.9000;0.6716;1.3540;
634.2000;0.6724;1.3564;
634.5000;0.6724;1.3612;
634.8000;0.6716;1.3636;
635.1000;0.6707;1.3684;
635.4000;0.6707;1.3684;
635.7000;0.6691;1.3708;
636.0000;0.6675;1.3636;
636.3000;0.6683;1.3612;
636.6000;0.6675;1.3708;
636.9000;0.6642;1.3756;
637.2000;0.6650;1.3780;
637.5000;0.6634;1.3732;
637.8000;0.6618;1.3636;
638.1000;0.6634;1.3612;
638.4000;0.6707;1.3828;
638.7000;0.6626;1.3660;
639.0000;0.6610;1.3732;
639.3000;0.6610;1.3708;
639.6000;0.6585;1.3708;
639.9000;0.6585;1.3852;
640.2000;0.6569;1.3828;
640.5000;0.6577;1.3780;
640.8000;0.6553;1.3828;
641.1000;0.6545;1.3780;
641.4000;0.6536;1.3708;
641.7000;0.6553;1.3636;
642.0000;0.6520;1.3612;
642.3000;0.6536;1.3708;
642.6000;0.6504;1.3684;
642.9000;0.6504;1.3732;
643.2000;0.6463;1.3660;
643.5000;0.6512;1.3756;
643.8000;0.6488;1.3756;
644.1000;0.6479;1.3636;
644.4000;0.6463;1.3612;
644.7000;0.6447;1.3660;
645.0000;0.6447;1.3684;
645.3000;0.6447;1.3756;
645.6000;0.6447;1.3660;
645.9000;0.6439;1.3540;
646.2000;0.6431;1.3491;
646.5000;0.6439;1.3564;
646.8000;0.6406;1.3540;
647.1000;0.6496;1.3732;
647.4000;0.6398;1.3636;
647.7000;0.6406;1.3660;
648.0000;0.6390;1.3636;
648.3000;0.6398;1.3660;
648.6000;0.6406;1.3708;
648.9000;0.6374;1.3660;
649.2000;0.6284;1.3443;
649.5000;0.6357;1.3564;
649.8000;0.6357;1.3612;
650.1000;0.6357;1.3852;
650.4000;0.6365;1.3852;
650.7000;0.6333;1.3876;
651.0000;0.6390;1.4045;
651.3000;0.6349;1.3852;
651.6000;0.6333;1.3756;
651.9000;0.6398;1.3876;
652.2000;0.6309;1.3636;
652.5000;0.6309;1.3660;
652.8000;0.6374;1.3756;
653.1000;0.6300;1.3540;
653.4000;0.6268;1.3564;
653.7000;0.6292;1.3708;
654.0000;0.6284;1.3636;
654.3000;0.6276;1.3708;
654.6000;0.6276;1.3684;
654.9000;0.6284;1.3612;
655.2000;0.6276;1.3491;
655.5000;0.6276;1.3515;
655.8000;0.6252;1.3467;
656.1000;0.6260;1.3564;
656.4000;0.6260;1.3588;
656.7000;0.6243;1.3612;
657.0000;0.6227;1.3636;
657.3000;0.6211;1.3564;
657.6000;0.6235;1.3684;
657.9000;0.6292;1.3852;
658.2000;0.6227;1.3708;
658.5000;0.6219;1.3660;
658.8000;0.6195;1.3612;
659.1000;0.6203;1.3660;
659.4000;0.6219;1.3660;
659.7000;0.6203;1.3756;
660.0000;0.6195;1.3732;
660.3000;0.6203;1.3684;
660.6000;0.6195;1.3732;
660.9000;0.6203;1.3732;
661.2000;0.6219;1.3804;
661.5000;0.6170;1.3780;
661.8000;0.6154;1.3684;
662.1000;0.6138;1.3636;
662.4000;0.6146;1.3732;
662.7000;0.6170;1.3756;
663.0000;0.6154;1.3708;
663.3000;0.6146;1.3684;
663.6000;0.6081;1.3636;
663.9000;0.6121;1.3708;
664.2000;0.6178;1.3972;
664.5000;0.6121;1.3828;
664.8000;0.6121;1.3780;
665.1000;0.6138;1.3804;
665.4000;0.6121;1.3756;
665.7000;0.6064;1.3588;
666.0000;0.6129;1.3684;
666.3000;0.6097;1.3540;
666.6000;0.6113;1.3564;
666.9000;0.6138;1.3588;
667.2000;0.6089;1.3443;
667.5000;0.6113;1.3540;
667.8000;0.6113;1.3540;
668.1000;0.6081;1.3636;
668.4000;0.6113;1.3756;
668.7000;0.6138;1.3828;
669.0000;0.6089;1.3708;
669.3000;0.6089;1.3732;
669.6000;0.6072;1.3684;
669.9000;0.6113;1.3684;
670.2000;0.6081;1.3564;
670.5000;0.6081;1.3636;
670.8000;0.6072;1.3612;
671.1000;0.6105;1.3732;
671.4000;0.6064;1.3612;
671.7000;0.6048;1.3684;
672.0000;0.6048;1.3780;
672.3000;0.6040;1.3684;
672.6000;0.6032;1.3804;
672.9000;0.6056;1.3900;
673.2000;0.6040;1.3852;
673.5000;0.6032;1.3828;
673.8000;0.6040;1.3828;
674.1000;0.6024;1.3780;
674.4000;0.6081;1.3900;
674.7000;0.6064;1.3852;
675.0000;0.6032;1.3780;
675.3000;0.6056;1.3828;
675.6000;0.6024;1.3828;
675.9000;0.6056;1.3924;
676.2000;0.6032;1.3828;
676.5000;0.5999;1.3780;
676.8000;0.6015;1.3900;
677.1000;0.6024;1.3900;
677.4000;0.6007;1.3852;
677.7000;0.5991;1.3804;
678.0000;0.5991;1.3804;
678.3000;0.5999;1.3804;
678.6000;0.5999;1.3708;
678.9000;0.6007;1.3732;
679.2000;0.5934;1.3540;
679.5000;0.5975;1.3660;
679.8000;0.5991;1.3660;
680.1000;0.5991;1.3684;
680.4000;0.5967;1.3660;
680.7000;0.5975;1.3708;
681.0000;0.5958;1.3660;
681.3000;0.5967;1.3684;
681.6000;0.5975;1.3612;
681.9000;0.5893;1.3299;
682.2000;0.5958;1.3564;
682.5000;0.5958;1.3515;
682.8000;0.5958;1.3515;
683.1000;0.5934;1.3636;
683.4000;0.5942;1.3636;
683.7000;0.5934;1.3612;
684.0000;0.5958;1.3684;
684.3000;0.5942;1.3684;
684.6000;0.5967;1.3708;
684.9000;0.5967;1.3612;
685.2000;0.5934;1.3564;
685.5000;0.5950;1.3636;
685.8000;0.5958;1.3636;
686.1000;0.5950;1.3564;
686.4000;0.5934;1.3419;
686.7000;0.5934;1.3467;
687.0000;0.5885;1.3419;
687.3000;0.5934;1.3564;
687.6000;0.5910;1.3564;
687.9000;0.5893;1.3564;
688.2000;0.5893;1.3564;
688.5000;0.5910;1.3540;
688.8000;0.5902;1.3491;
689.1000;0.5853;1.3395;
689.4000;0.5918;1.3636;
689.7000;0.5942;1.3732;
690.0000;0.5918;1.3732;
690.3000;0.5902;1.3780;
690.6000;0.5918;1.3804;
690.9000;0.5902;1.3828;
691.2000;0.5918;1.3828;
691.5000;0.5869;1.3732;
691.8000;0.5877;1.3804;
692.1000;0.5910;1.3804;
692.4000;0.5893;1.3804;
692.7000;0.5877;1.3732;
693.0000;0.5926;1.3804;
693.3000;0.5853;1.3564;
693.6000;0.5869;1.3564;
693.9000;0.5869;1.3612;
694.2000;0.5869;1.3636;
694.5000;0.5902;1.3708;
694.8000;0.5893;1.3708;
695.1000;0.5836;1.3660;
695.4000;0.5861;1.3684;
695.7000;0.5877;1.3828;
696.0000;0.5877;1.3852;
696.3000;0.5877;1.3756;
696.6000;0.5853;1.3780;
696.9000;0.5845;1.3756;
697.2000;0.5861;1.3828;
697.5000;0.5893;1.3804;
697.8000;0.5853;1.3756;
698.1000;0.5845;1.3660;
698.4000;0.5861;1.3732;
698.7000;0.5853;1.3828;
699.0000;0.5853;1.3852;
699.3000;0.5845;1.3828;
699.6000;0.5845;1.3900;
699.9000;0.5853;1.3900;
700.2000;0.5853;1.3828;
700.5000;0.5893;1.3876;
700.8000;0.5836;1.3732;
701.1000;0.5845;1.3756;
701.4000;0.5869;1.3852;
701.7000;0.5869;1.3900;
702.0000;0.5836;1.3924;
702.3000;0.5820;1.3900;
702.6000;0.5828;1.3876;
702.9000;0.5836;1.3852;
703.2000;0.5836;1.3852;
703.5000;0.5820;1.3876;
703.8000;0.5836;1.3924;
704.1000;0.5820;1.3900;
704.4000;0.5820;1.3876;
704.7000;0.5845;1.3948;
705.0000;0.5845;1.3924;
705.3000;0.5812;1.3804;
705.6000;0.5828;1.3756;
705.9000;0.5828;1.3804;
706.2000;0.5820;1.3708;
706.5000;0.5820;1.3708;
706.8000;0.5804;1.3684;
707.1000;0.5804;1.3684;
707.4000;0.5812;1.3612;
707.7000;0.5804;1.3684;
708.0000;0.5788;1.3588;
708.3000;0.5804;1.3636;
708.6000;0.5804;1.3612;
708.9000;0.5796;1.3636;
709.2000;0.5788;1.3612;
709.5000;0.5788;1.3684;
709.8000;0.5812;1.3732;
710.1000;0.5755;1.3636;
710.4000;0.5771;1.3756;
710.7000;0.5763;1.3708;
711.0000;0.5771;1.3924;
711.3000;0.5788;1.3876;
711.6000;0.5788;1.3900;
711.9000;0.5779;1.3924;
712.2000;0.5788;1.3852;
712.5000;0.5788;1.3900;
712.8000;0.5779;1.3876;
713.1000;0.5755;1.3804;
713.4000;0.5771;1.3828;
713.7000;0.5755;1.3780;
714.0000;0.5779;1.3732;
714.3000;0.5763;1.3708;
714.6000;0.5877;1.4021;
714.9000;0.5779;1.3756;
715.2000;0.5771;1.3660;
715.5000;0.5771;1.3684;
715.8000;0.5755;1.3612;
716.1000;0.5796;1.3828;
716.4000;0.5755;1.3756;
716.7000;0.5763;1.3804;
717.0000;0.5747;1.3684;
717.3000;0.5771;1.3756;
717.6000;0.5771;1.3684;
717.9000;0.5755;1.3588;
718.2000;0.5763;1.3636;
718.5000;0.5755;1.3732;
718.8000;0.5755;1.3732;
719.1000;0.5763;1.3732;
719.4000;0.5747;1.3684;
719.7000;0.5739;1.3636;
720.0000;0.5739;1.3660;
720.3000;0.5747;1.3732;
720.6000;0.5731;1.3636;
720.9000;0.5739;1.3636;
721.2000;0.5739;1.3660;
721.5000;0.5755;1.3684;
721.8000;0.5747;1.3732;
722.1000;0.5739;1.3732;
722.4000;0.5747;1.3756;
722.7000;0.5739;1.3828;
723.0000;0.5722;1.3804;
723.3000;0.5722;1.3756;
723.6000;0.5747;1.3780;
723.9000;0.5747;1.3804;
724.2000;0.5739;1.3684;
724.5000;0.5731;1.3732;
724.8000;0.5731;1.3756;
725.1000;0.5731;1.3780;
725.4000;0.5755;1.3804;
725.7000;0.5739;1.3756;
726.0000;0.5739;1.3804;
726.3000;0.5731;1.3756;
726.6000;0.5755;1.3852;
726.9000;0.5739;1.3684;
727.2000;0.5739;1.3708;
727.5000;0.5722;1.3636;
727.8000;0.5747;1.3708;
728.1000;0.5739;1.3732;
728.4000;0.5698;1.3636;
728.7000;0.5649;1.3515;
729.0000;0.5722;1.3708;
729.3000;0.5722;1.3636;
729.6000;0.5706;1.3684;
729.9000;0.5714;1.3732;
730.2000;0.5722;1.3732;
730.5000;0.5698;1.3636;
730.8000;0.5722;1.3684;
731.1000;0.5714;1.3636;
731.4000;0.5722;1.3684;
731.7000;0.5706;1.3708;
732.0000;0.5722;1.3756;
732.3000;0.5690;1.3684;
732.6000;0.5706;1.3684;
732.9000;0.5706;1.3612;
733.2000;0.5722;1.3708;
733.5000;0.5706;1.3684;
733.8000;0.5690;1.3660;
734.1000;0.5682;1.3756;
734.4000;0.5633;1.3708;
734.7000;0.5706;1.3852;
735.0000;0.5698;1.3804;
735.3000;0.5641;1.3636;
735.6000;0.5763;1.3972;
735.9000;0.5690;1.3804;
736.2000;0.5698;1.3756;
736.5000;0.5755;1.3852;
736.8000;0.5714;1.3756;
737.1000;0.5698;1.3756;
737.4000;0.5706;1.3756;
737.7000;0.5641;1.3708;
738.0000;0.5706;1.3900;
738.3000;0.5706;1.3924;
738.6000;0.5690;1.3780;
738.9000;0.5690;1.3852;
739.2000;0.5722;1.3972;
739.5000;0.5698;1.3900;
739.8000;0.5690;1.3852;
740.1000;0.5706;1.3804;
740.4000;0.5706;1.3780;
740.7000;0.5682;1.3684;
741.0000;0.5698;1.3756;
741.3000;0.5690;1.3756;
741.6000;0.5698;1.3828;
741.9000;0.5690;1.3876;
742.2000;0.5682;1.3804;
742.5000;0.5674;1.3708;
742.8000;0.5665;1.3660;
743.1000;0.5682;1.3612;
743.4000;0.5608;1.3491;
743.7000;0.5682;1.3756;
744.0000;0.5649;1.3756;
744.3000;0.5682;1.3900;
744.6000;0.5617;1.3684;
744.9000;0.5665;1.3900;
745.2000;0.5682;1.3876;
745.5000;0.5674;1.3876;
745.8000;0.5690;1.3876;
746.1000;0.5682;1.3828;
746.4000;0.5690;1.3804;
746.7000;0.5682;1.3780;
747.0000;0.5690;1.3804;
747.3000;0.5682;1.3900;
747.6000;0.5690;1.3804;
747.9000;0.5649;1.3684;
748.2000;0.5690;1.3756;
748.5000;0.5674;1.3876;
748.8000;0.5674;1.3900;
749.1000;0.5657;1.3876;
749.4000;0.5682;1.3924;
749.7000;0.5674;1.3900;
750.0000;0.5682;1.3972;
750.3000;0.5698;1.4021;
750.6000;0.5674;1.4021;
750.9000;0.5682;1.3948;
751.2000;0.5674;1.3972;
751.5000;0.5665;1.4045;
751.8000;0.5665;1.3972;
752.1000;0.5649;1.3852;
752.4000;0.5674;1.3876;
752.7000;0.5657;1.3756;
753.0000;0.5674;1.3804;
753.3000;0.5674;1.3924;
753.6000;0.5665;1.3924;
753.9000;0.5657;1.3900;
754.2000;0.5641;1.3852;
754.5000;0.5665;1.3900;
754.8000;0.5665;1.3852;
755.1000;0.5690;1.3852;
755.4000;0.5657;1.3780;
755.7000;0.5649;1.3804;
756.0000;0.5674;1.3852;
756.3000;0.5657;1.3900;
756.6000;0.5641;1.3876;
756.9000;0.5649;1.3804;
757.2000;0.5657;1.3852;
757.5000;0.5657;1.3852;
757.8000;0.5657;1.3852;
758.1000;0.5641;1.3804;
758.4000;0.5657;1.3804;
758.7000;0.5633;1.3684;
759.0000;0.5665;1.3732;
759.3000;0.5649;1.3708;
759.6000;0.5649;1.3780;
759.9000;0.5625;1.3732;
760.2000;0.5633;1.3684;
760.5000;0.5600;1.3636;
760.8000;0.5649;1.3756;
761.1000;0.5641;1.3732;
761.4000;0.5641;1.3660;
761.7000;0.5641;1.3636;
762.0000;0.5657;1.3708;
762.3000;0.5649;1.3732;
762.6000;0.5665;1.3804;
762.9000;0.5674;1.3828;
763.2000;0.5592;1.3636;
763.5000;0.5617;1.3660;
763.8000;0.5674;1.3828;
764.1000;0.5641;1.3708;
764.4000;0.5649;1.3732;
764.7000;0.5617;1.3732;
765.0000;0.5649;1.3756;
765.3000;0.5625;1.3780;
765.6000;0.5584;1.3756;
765.9000;0.5576;1.3708;
766.2000;0.5641;1.3948;
766.5000;0.5600;1.3780;
766.8000;0.5625;1.3780;
767.1000;0.5641;1.3804;
767.4000;0.5649;1.3852;
767.7000;0.5657;1.3948;
768.0000;0.5706;1.4093;
768.3000;0.5633;1.3972;
768.6000;0.5576;1.3876;
768.9000;0.5641;1.3996;
769.2000;0.5633;1.3948;
769.5000;0.5535;1.3660;
769.8000;0.5625;1.3972;
770.1000;0.5633;1.3924;
770.4000;0.5641;1.3948;
770.7000;0.5617;1.3852;
771.0000;0.5600;1.3828;
771.3000;0.5617;1.3876;
771.6000;0.5617;1.3756;
771.9000;0.5608;1.3780;
772.2000;0.5633;1.3780;
772.5000;0.5617;1.3732;
772.8000;0.5617;1.3660;
773.1000;0.5617;1.3684;
773.4000;0.5617;1.3756;
773.7000;0.5641;1.3780;
774.0000;0.5608;1.3732;
774.3000;0.5617;1.3756;
774.6000;0.5584;1.3660;
774.9000;0.5608;1.3684;
775.2000;0.5592;1.3612;
775.5000;0.5617;1.3660;
775.8000;0.5608;1.3780;
776.1000;0.5633;1.3900;
776.4000;0.5625;1.3948;
776.7000;0.5625;1.3972;
777.0000;0.5617;1.3972;
777.3000;0.5600;1.3924;
777.6000;0.5641;1.3972;
777.9000;0.5608;1.3780;
778.2000;0.5649;1.3876;
778.5000;0.5584;1.3732;
778.8000;0.5600;1.3756;
779.1000;0.5608;1.3708;
779.4000;0.5600;1.3684;
779.7000;0.5600;1.3756;
780.0000;0.5608;1.3780;
780.3000;0.5641;1.3924;
780.6000;0.5633;1.3924;
780.9000;0.5617;1.3828;
781.2000;0.5625;1.3828;
781.5000;0.5608;1.3756;
781.8000;0.5592;1.3732;
782.1000;0.5600;1.3756;
782.4000;0.5617;1.3708;
782.7000;0.5592;1.3732;
783.0000;0.5592;1.3684;
783.3000;0.5600;1.3660;
783.6000;0.5584;1.3732;
783.9000;0.5608;1.3804;
784.2000;0.5657;1.3972;
784.5000;0.5592;1.3780;
784.8000;0.5617;1.3780;
785.1000;0.5665;1.3900;
785.4000;0.5617;1.3732;
785.7000;0.5608;1.3756;
786.0000;0.5706;1.3996;
786.3000;0.5592;1.3804;
786.6000;0.5592;1.3804;
786.9000;0.5674;1.3948;
787.2000;0.5633;1.3780;
787.5000;0.5608;1.3756;
787.8000;0.5592;1.3708;
788.1000;0.5608;1.3708;
788.4000;0.5584;1.3660;
788.7000;0.5617;1.3708;
789.0000;0.5568;1.3564;
789.3000;0.5625;1.3732;
789.6000;0.5527;1.3564;
789.9000;0.5608;1.3780;
790.2000;0.5592;1.3612;
790.5000;0.5568;1.3515;
790.8000;0.5617;1.3732;
791.1000;0.5576;1.3612;
791.4000;0.5600;1.3612;
791.7000;0.5592;1.3564;
792.0000;0.5608;1.3515;
792.3000;0.5584;1.3564;
792.6000;0.5592;1.3684;
792.9000;0.5576;1.3708;
793.2000;0.5600;1.3660;
793.5000;0.5592;1.3708;
793.8000;0.5584;1.3684;
794.1000;0.5584;1.3708;
794.4000;0.5584;1.3684;
794.7000;0.5584;1.3756;
795.0000;0.5560;1.3852;
795.3000;0.5576;1.3924;
795.6000;0.5560;1.3900;
795.9000;0.5568;1.3900;
796.2000;0.5576;1.3804;
796.5000;0.5584;1.3804;
796.8000;0.5568;1.3756;
797.1000;0.5560;1.3756;
797.4000;0.5576;1.3756;
797.7000;0.5576;1.3756;
798.0000;0.5584;1.3756;
798.3000;0.5576;1.3732;
798.6000;0.5576;1.3708;
798.9000;0.5576;1.3732;
799.2000;0.5576;1.3780;
799.5000;0.5568;1.3780;
799.8000;0.5649;1.3972;
800.1000;0.5568;1.3660;
800.4000;0.5560;1.3684;
800.7000;0.5560;1.3732;
801.0000;0.5568;1.3708;
801.3000;0.5543;1.3732;
801.6000;0.5584;1.3828;
801.9000;0.5682;1.4093;
802.2000;0.5584;1.3780;
802.5000;0.5633;1.3876;
802.8000;0.5576;1.3708;
803.1000;0.5576;1.3756;
803.4000;0.5584;1.3756;
803.7000;0.5576;1.3708;
804.0000;0.5568;1.3708;
804.3000;0.5576;1.3708;
804.6000;0.5551;1.3564;
804.9000;0.5560;1.3612;
805.2000;0.5568;1.3684;
805.5000;0.5568;1.3708;
805.8000;0.5560;1.3732;
806.1000;0.5560;1.3732;
806.4000;0.5584;1.3900;
806.7000;0.5560;1.3852;
807.0000;0.5576;1.3900;
807.3000;0.5568;1.3900;
807.6000;0.5600;1.3972;
807.9000;0.5568;1.3852;
808.2000;0.5560;1.3780;
808.5000;0.5560;1.3828;
808.8000;0.5560;1.3972;
809.1000;0.5568;1.3996;
809.4000;0.5576;1.3900;
809.7000;0.5527;1.3756;
810.0000;0.5560;1.3828;
810.3000;0.5576;1.3948;
810.6000;0.5584;1.3876;
810.9000;0.5535;1.3828;
811.2000;0.5633;1.4117;
811.5000;0.5568;1.4117;
811.8000;0.5584;1.4069;
812.1000;0.5665;1.4261;
812.4000;0.5584;1.3900;
812.7000;0.5568;1.3900;
813.0000;0.5584;1.3972;
813.3000;0.5551;1.3804;
813.6000;0.5568;1.3900;
813.9000;0.5568;1.3852;
814.2000;0.5568;1.3924;
814.5000;0.5576;1.3948;
814.8000;0.5592;1.4021;
815.1000;0.5560;1.3900;
815.4000;0.5568;1.3948;
815.7000;0.5568;1.3972;
816.0000;0.5568;1.3924;
816.3000;0.5560;1.3900;
816.6000;0.5576;1.3852;
816.9000;0.5584;1.3900;
817.2000;0.5584;1.3852;
817.5000;0.5576;1.3804;
817.8000;0.5633;1.3924;
818.1000;0.5576;1.3804;
818.4000;0.5584;1.3924;
818.7000;0.5560;1.3900;
819.0000;0.5560;1.3852;
819.3000;0.5576;1.3732;
819.6000;0.5568;1.3708;
819.9000;0.5560;1.3684;
820.2000;0.5551;1.3732;
820.5000;0.5576;1.3828;
820.8000;0.5560;1.3804;
821.1000;0.5560;1.3780;
821.4000;0.5576;1.3780;
821.7000;0.5568;1.3780;
822.0000;0.5560;1.3756;
822.3000;0.5576;1.3684;
822.6000;0.5551;1.3660;
822.9000;0.5568;1.3636;
823.2000;0.5527;1.3636;
823.5000;0.5560;1.3732;
823.8000;0.5535;1.3804;
824.1000;0.5551;1.3804;
824.4000;0.5568;1.3876;
824.7000;0.5551;1.3852;
825.0000;0.5584;1.3852;
825.3000;0.5535;1.3708;
825.6000;0.5560;1.3756;
825.9000;0.5584;1.3780;
826.2000;0.5551;1.3756;
826.5000;0.5495;1.3636;
826.8000;0.5527;1.3756;
827.1000;0.5560;1.3852;
827.4000;0.5551;1.3876;
827.7000;0.5576;1.3900;
828.0000;0.5527;1.3804;
828.3000;0.5551;1.3804;
828.6000;0.5519;1.3780;
828.9000;0.5551;1.3852;
829.2000;0.5551;1.3828;
829.5000;0.5543;1.3876;
829.8000;0.5527;1.3828;
830.1000;0.5535;1.3876;
830.4000;0.5543;1.3828;
830.7000;0.5584;1.3924;
831.0000;0.5560;1.3828;
831.3000;0.5568;1.3732;
831.6000;0.5584;1.3708;
831.9000;0.5560;1.3684;
832.2000;0.5543;1.3612;
832.5000;0.5503;1.3540;
832.8000;0.5551;1.3708;
833.1000;0.5543;1.3636;
833.4000;0.5543;1.3660;
833.7000;0.5551;1.3708;
834.0000;0.5535;1.3515;
834.3000;0.5641;1.3828;
834.6000;0.5535;1.3684;
834.9000;0.5543;1.3684;
835.2000;0.5617;1.3900;
835.5000;0.5600;1.3780;
835.8000;0.5568;1.3684;
836.1000;0.5551;1.3732;
836.4000;0.5551;1.3684;
836.7000;0.5560;1.3684;
837.0000;0.5535;1.3612;
837.3000;0.5535;1.3588;
837.6000;0.5551;1.3540;
837.9000;0.5543;1.3540;
838.2000;0.5551;1.3564;
838.5000;0.5560;1.3540;
838.8000;0.5543;1.3564;
839.1000;0.5535;1.3443;
839.4000;0.5584;1.3684;
839.7000;0.5560;1.3540;
840.0000;0.5535;1.3395;
840.3000;0.5527;1.3395;
840.6000;0.5551;1.3491;
840.9000;0.5551;1.3467;
841.2000;0.5527;1.3419;
841.5000;0.5535;1.3443;
841.8000;0.5608;1.3780;
842.1000;0.5535;1.3756;
842.4000;0.5551;1.3708;
842.7000;0.5560;1.3828;
843.0000;0.5535;1.3708;
843.3000;0.5543;1.3732;
843.6000;0.5551;1.3756;
843.9000;0.5527;1.3780;
844.2000;0.5543;1.3732;
844.5000;0.5560;1.3804;
844.8000;0.5535;1.3732;
845.1000;0.5543;1.3732;
845.4000;0.5543;1.3684;
845.7000;0.5551;1.3684;
846.0000;0.5535;1.3756;
846.3000;0.5576;1.3852;
846.6000;0.5543;1.3756;
846.9000;0.5568;1.3732;
847.2000;0.5527;1.3636;
847.5000;0.5527;1.3612;
847.8000;0.5519;1.3660;
848.1000;0.5527;1.3660;
848.4000;0.5568;1.3756;
848.7000;0.5543;1.3636;
849.0000;0.5592;1.3852;
849.3000;0.5495;1.3636;
849.6000;0.5543;1.3756;
849.9000;0.5503;1.3540;
850.2000;0.5486;1.3491;
850.5000;0.5535;1.3588;
850.8000;0.5535;1.3564;
851.1000;0.5543;1.3636;
851.4000;0.5568;1.3684;
851.7000;0.5527;1.3564;
852.0000;0.5495;1.3612;
852.3000;0.5503;1.3684;
852.6000;0.5527;1.3732;
852.9000;0.5551;1.3756;
853.2000;0.5503;1.3684;
853.5000;0.5535;1.3780;
853.8000;0.5511;1.3780;
854.1000;0.5551;1.3780;
854.4000;0.5543;1.3756;
854.7000;0.5535;1.3804;
855.0000;0.5551;1.3804;
855.3000;0.5584;1.3900;
855.6000;0.5535;1.3852;
855.9000;0.5527;1.3852;
856.2000;0.5527;1.3876;
856.5000;0.5535;1.3876;
856.8000;0.5543;1.3852;
857.1000;0.5527;1.3924;
857.4000;0.5543;1.3900;
857.7000;0.5535;1.3924;
858.0000;0.5543;1.3948;
858.3000;0.5535;1.3900;
858.6000;0.5560;1.3780;
858.9000;0.5568;1.3876;
859.2000;0.5551;1.3924;
859.5000;0.5543;1.3852;
859.8000;0.5543;1.3756;
860.1000;0.5584;1.3924;
860.4000;0.5641;1.4165;
860.7000;0.5535;1.3804;
861.0000;0.5535;1.3804;
861.3000;0.5543;1.3852;
861.6000;0.5551;1.3852;
861.9000;0.5511;1.3732;
862.2000;0.5535;1.3780;
862.5000;0.5462;1.3612;
862.8000;0.5511;1.3636;
863.1000;0.5527;1.3756;
863.4000;0.5511;1.3780;
863.7000;0.5625;1.3948;
864.0000;0.5535;1.3732;
864.3000;0.5519;1.3708;
864.6000;0.5551;1.3756;
864.9000;0.5503;1.3732;
865.2000;0.5543;1.3804;
865.5000;0.5543;1.3852;
865.8000;0.5527;1.3780;
866.1000;0.5535;1.3780;
866.4000;0.5519;1.3708;
866.7000;0.5527;1.3708;
867.0000;0.5527;1.3612;
867.3000;0.5527;1.3636;
867.6000;0.5519;1.3636;
867.9000;0.5535;1.3756;
868.2000;0.5535;1.3780;
868.5000;0.5527;1.3780;
868.8000;0.5543;1.3876;
869.1000;0.5543;1.4021;
869.4000;0.5519;1.3924;
869.7000;0.5543;1.3972;
870.0000;0.5511;1.3900;
870.3000;0.5527;1.3996;
870.6000;0.5527;1.3972;
870.9000;0.5519;1.3924;
871.2000;0.5535;1.3876;
871.5000;0.5527;1.3852;
871.8000;0.5511;1.3852;
872.1000;0.5551;1.3876;
872.4000;0.5511;1.3876;
872.7000;0.5535;1.3996;
873.0000;0.5617;1.4213;
873.3000;0.5519;1.3972;
873.6000;0.5543;1.4021;
873.9000;0.5495;1.3948;
874.2000;0.5527;1.3972;
874.5000;0.5519;1.3924;
874.8000;0.5495;1.3828;
875.1000;0.5527;1.3972;
875.4000;0.5519;1.3948;
875.7000;0.5446;1.3756;
876.0000;0.5551;1.4021;
876.3000;0.5511;1.4021;
876.6000;0.5527;1.4021;
876.9000;0.5495;1.3948;
877.2000;0.5503;1.3876;
877.5000;0.5503;1.3900;
877.8000;0.5495;1.3948;
878.1000;0.5543;1.3948;
878.4000;0.5535;1.3924;
878.7000;0.5495;1.3852;
879.0000;0.5600;1.4069;
879.3000;0.5535;1.3948;
879.6000;0.5503;1.3924;
879.9000;0.5527;1.3972;
880.2000;0.5495;1.3924;
880.5000;0.5527;1.3852;
880.8000;0.5519;1.3900;
881.1000;0.5584;1.4021;
881.4000;0.5519;1.3948;
881.7000;0.5543;1.4021;
882.0000;0.5625;1.4189;
882.3000;0.5519;1.3876;
882.6000;0.5495;1.3924;
882.9000;0.5519;1.3924;
883.2000;0.5592;1.4093;
883.5000;0.5527;1.3876;
883.8000;0.5511;1.3924;
884.1000;0.5495;1.3828;
884.4000;0.5568;1.4021;
884.7000;0.5519;1.3924;
885.0000;0.5519;1.3924;
885.3000;0.5527;1.3900;
885.6000;0.5551;1.3972;
885.9000;0.5519;1.3852;
886.2000;0.5503;1.3732;
886.5000;0.5519;1.3876;
886.8000;0.5527;1.3972;
887.1000;0.5503;1.3948;
887.4000;0.5535;1.3876;
887.7000;0.5511;1.3828;
888.0000;0.5535;1.3876;
888.3000;0.5511;1.3828;
888.6000;0.5478;1.3756;
888.9000;0.5535;1.3876;
889.2000;0.5511;1.3780;
889.5000;0.5511;1.3804;
889.8000;0.5519;1.3804;
890.1000;0.5519;1.3876;
890.4000;0.5503;1.3900;
890.7000;0.5519;1.3924;
891.0000;0.5527;1.3924;
891.3000;0.5511;1.3876;
891.6000;0.5511;1.3804;
891.9000;0.5486;1.3732;
892.2000;0.5511;1.3828;
892.5000;0.5511;1.3900;
892.8000;0.5503;1.3900;
893.1000;0.5511;1.3852;
893.4000;0.5519;1.3876;
893.7000;0.5535;1.3924;
894.0000;0.5478;1.3876;
894.3000;0.5511;1.3948;
894.6000;0.5519;1.3948;
894.9000;0.5527;1.3876;
895.2000;0.5495;1.3852;
895.5000;0.5495;1.3756;
895.8000;0.5413;1.3564;
896.1000;0.5535;1.3852;
896.4000;0.5470;1.3804;
896.7000;0.5421;1.3684;
897.0000;0.5446;1.3588;
897.3000;0.5470;1.3660;
897.6000;0.5511;1.3780;
897.9000;0.5617;1.4093;
898.2000;0.5568;1.3948;
898.5000;0.5527;1.3876;
898.8000;0.5511;1.3828;
899.1000;0.5511;1.3852;
899.4000;0.5519;1.3996;
899.7000;0.5543;1.4021;
900.0000;0.5405;1.3756;
900.3000;0.5535;1.4189;
900.6000;0.5519;1.4117;
900.9000;0.5543;1.4117;
901.2000;0.5519;1.4117;
901.5000;0.5486;1.4045;
901.8000;0.5511;1.4117;
902.1000;0.5478;1.4069;
902.4000;0.5535;1.4141;
902.7000;0.5486;1.4093;
903.0000;0.5535;1.4309;
903.3000;0.5511;1.4237;
903.6000;0.5527;1.4237;
903.9000;0.5519;1.4165;
904.2000;0.5543;1.4141;
904.5000;0.5519;1.4117;
904.8000;0.5519;1.4189;
905.1000;0.5470;1.4093;
905.4000;0.5511;1.4165;
905.7000;0.5551;1.4237;
906.0000;0.5608;1.4405;
906.3000;0.5511;1.4189;
906.6000;0.5503;1.4117;
906.9000;0.5503;1.4021;
907.2000;0.5503;1.3996;
907.5000;0.5519;1.3876;
907.8000;0.5503;1.3780;
908.1000;0.5511;1.3756;
908.4000;0.5527;1.3900;
908.7000;0.5495;1.3828;
909.0000;0.5495;1.3804;
909.3000;0.5503;1.3852;
909.6000;0.5495;1.3900;
909.9000;0.5511;1.3900;
910.2000;0.5511;1.4045;
910.5000;0.5503;1.4093;
910.8000;0.5478;1.3948;
911.1000;0.5495;1.3924;
911.4000;0.5495;1.3924;
911.7000;0.5495;1.3828;
912.0000;0.5503;1.3804;
912.3000;0.5519;1.3804;
912.6000;0.5543;1.3900;
912.9000;0.5519;1.3852;
913.2000;0.5503;1.3828;
913.5000;0.5535;1.3900;
913.8000;0.5519;1.3924;
914.1000;0.5503;1.3780;
914.4000;0.5519;1.3852;
914.7000;0.5503;1.3924;
915.0000;0.5486;1.3828;
915.3000;0.5511;1.3756;
915.6000;0.5511;1.3756;
915.9000;0.5511;1.3828;
916.2000;0.5527;1.3876;
916.5000;0.5511;1.3828;
916.8000;0.5438;1.3708;
917.1000;0.5503;1.3732;
917.4000;0.5478;1.3636;
917.7000;0.5495;1.3684;
918.0000;0.5478;1.3684;
918.3000;0.5511;1.3780;
918.6000;0.5511;1.3828;
918.9000;0.5511;1.3900;
919.2000;0.5511;1.3900;
919.5000;0.5511;1.3876;
919.8000;0.5486;1.3780;
920.1000;0.5535;1.3780;
920.4000;0.5454;1.3636;
920.7000;0.5486;1.3708;
921.0000;0.5503;1.3852;
921.3000;0.5495;1.3804;
921.6000;0.5486;1.3708;
921.9000;0.5519;1.3708;
922.2000;0.5495;1.3612;
922.5000;0.5560;1.3756;
922.8000;0.5495;1.3612;
923.1000;0.5511;1.3636;
923.4000;0.5535;1.3828;
923.7000;0.5495;1.3780;
924.0000;0.5608;1.4069;
924.3000;0.5495;1.3828;
924.6000;0.5503;1.3804;
924.9000;0.5503;1.3924;
925.2000;0.5462;1.3852;
925.5000;0.5511;1.3948;
925.8000;0.5503;1.3900;
926.1000;0.5511;1.3828;
926.4000;0.5511;1.3804;
926.7000;0.5503;1.3588;
927.0000;0.5503;1.3660;
927.3000;0.5519;1.3708;
927.6000;0.5511;1.3708;
927.9000;0.5535;1.3852;
928.2000;0.5495;1.3732;
928.5000;0.5495;1.3708;
928.8000;0.5535;1.3804;
929.1000;0.5511;1.3804;
929.4000;0.5511;1.3804;
929.7000;0.5503;1.3732;
930.0000;0.5519;1.3780;
930.3000;0.5495;1.3612;
930.6000;0.5503;1.3660;
930.9000;0.5495;1.3708;
931.2000;0.5519;1.3732;
931.5000;0.5511;1.3756;
931.8000;0.5503;1.3684;
932.1000;0.5503;1.3708;
932.4000;0.5511;1.3756;
932.7000;0.5495;1.3684;
933.0000;0.5486;1.3636;
933.3000;0.5495;1.3612;
933.6000;0.5495;1.3612;
933.9000;0.5511;1.3756;
934.2000;0.5511;1.3780;
934.5000;0.5519;1.3828;
934.8000;0.5486;1.3708;
935.1000;0.5495;1.3780;
935.4000;0.5478;1.3756;
935.7000;0.5551;1.3972;
936.0000;0.5503;1.3876;
936.3000;0.5511;1.3948;
936.6000;0.5478;1.3852;
936.9000;0.5503;1.3852;
937.2000;0.5470;1.3708;
937.5000;0.5519;1.3756;
937.8000;0.5486;1.3708;
938.1000;0.5495;1.3756;
938.4000;0.5495;1.3684;
938.7000;0.5519;1.3852;
939.0000;0.5543;1.3876;
939.3000;0.5495;1.3684;
939.6000;0.5503;1.3636;
939.9000;0.5495;1.3588;
940.2000;0.5519;1.3612;
940.5000;0.5511;1.3612;
940.8000;0.5503;1.3588;
941.1000;0.5503;1.3564;
941.4000;0.5470;1.3540;
941.7000;0.5511;1.3732;
942.0000;0.5568;1.3924;
942.3000;0.5519;1.3828;
942.6000;0.5495;1.3780;
942.9000;0.5405;1.3612;
943.2000;0.5413;1.3636;
943.5000;0.5551;1.3972;
943.8000;0.5478;1.3708;
944.1000;0.5503;1.3708;
944.4000;0.5478;1.3636;
944.7000;0.5511;1.3708;
945.0000;0.5495;1.3636;
945.3000;0.5486;1.3660;
945.6000;0.5470;1.3588;
945.9000;0.5486;1.3660;
946.2000;0.5429;1.3612;
946.5000;0.5486;1.3612;
946.8000;0.5495;1.3708;
947.1000;0.5478;1.3756;
947.4000;0.5478;1.3732;
947.7000;0.5486;1.3756;
948.0000;0.5503;1.3948;
948.3000;0.5535;1.4045;
948.6000;0.5495;1.3972;
948.9000;0.5470;1.3972;
949.2000;0.5503;1.4021;
949.5000;0.5486;1.4021;
949.8000;0.5495;1.3900;
950.1000;0.5470;1.3780;
950.4000;0.5495;1.3852;
950.7000;0.5454;1.3756;
951.0000;0.5478;1.3852;
951.3000;0.5495;1.3852;
951.6000;0.5503;1.3924;
951.9000;0.5495;1.3972;
952.2000;0.5503;1.4045;
952.5000;0.5495;1.3948;
952.8000;0.5495;1.3924;
953.1000;0.5503;1.3948;
953.4000;0.5503;1.4045;
953.7000;0.5511;1.4045;
954.0000;0.5495;1.3876;
954.3000;0.5495;1.3852;
954.6000;0.5486;1.3780;
954.9000;0.5495;1.3708;
955.2000;0.5462;1.3684;
955.5000;0.5486;1.3828;
955.8000;0.5486;1.3780;
956.1000;0.5486;1.3756;
956.4000;0.5486;1.3804;
956.7000;0.5495;1.3804;
957.0000;0.5495;1.3780;
957.3000;0.5495;1.3804;
957.6000;0.5470;1.3828;
957.9000;0.5503;1.3948;
958.2000;0.5486;1.3876;
958.5000;0.5486;1.3876;
958.8000;0.5495;1.3804;
959.1000;0.5576;1.3972;
959.4000;0.5478;1.3780;
959.7000;0.5527;1.3924;
960.0000;0.5462;1.3732;
960.3000;0.5470;1.3804;
960.6000;0.5478;1.3804;
960.9000;0.5478;1.3804;
961.2000;0.5486;1.3804;
961.5000;0.5486;1.3756;
961.8000;0.5470;1.3780;
962.1000;0.5462;1.3756;
962.4000;0.5478;1.3756;
962.7000;0.5486;1.3660;
963.0000;0.5543;1.3756;
963.3000;0.5495;1.3660;
963.6000;0.5551;1.3876;
963.9000;0.5503;1.3732;
964.2000;0.5511;1.3708;
964.5000;0.5495;1.3684;
964.8000;0.5486;1.3660;
965.1000;0.5535;1.3780;
965.4000;0.5519;1.3828;
965.7000;0.5543;1.3852;
966.0000;0.5462;1.3636;
966.3000;0.5462;1.3612;
966.6000;0.5486;1.3660;
966.9000;0.5511;1.3564;
967.2000;0.5486;1.3564;
967.5000;0.5470;1.3491;
967.8000;0.5429;1.3467;
968.1000;0.5495;1.3636;
968.4000;0.5495;1.3732;
968.7000;0.5470;1.3660;
969.0000;0.5519;1.3804;
969.3000;0.5446;1.3636;
969.6000;0.5495;1.3780;
969.9000;0.5486;1.3780;
970.2000;0.5470;1.3708;
970.5000;0.5478;1.3684;
970.8000;0.5486;1.3780;
971.1000;0.5486;1.3804;
971.4000;0.5519;1.3876;
971.7000;0.5454;1.3660;
972.0000;0.5503;1.3756;
972.3000;0.5527;1.3852;
972.6000;0.5495;1.3780;
972.9000;0.5486;1.3732;
973.2000;0.5511;1.3876;
973.5000;0.5503;1.3876;
973.8000;0.5495;1.3852;
974.1000;0.5454;1.3708;
974.4000;0.5486;1.3780;
974.7000;0.5519;1.3876;
975.0000;0.5486;1.3780;
975.3000;0.5421;1.3684;
975.6000;0.5478;1.3828;
975.9000;0.5478;1.3804;
976.2000;0.5413;1.3708;
976.5000;0.5478;1.3828;
976.8000;0.5478;1.3780;
977.1000;0.5478;1.3876;
977.4000;0.5495;1.3900;
977.7000;0.5478;1.3876;
978.0000;0.5462;1.3852;
978.3000;0.5470;1.3924;
978.6000;0.5486;1.4021;
978.9000;0.5511;1.4117;
979.2000;0.5478;1.4093;
979.5000;0.5478;1.4069;
979.8000;0.5495;1.4021;
980.1000;0.5478;1.3924;
980.4000;0.5478;1.3756;
980.7000;0.5486;1.3732;
981.0000;0.5495;1.3708;
981.3000;0.5486;1.3708;
981.6000;0.5486;1.3708;
981.9000;0.5478;1.3660;
982.2000;0.5486;1.3756;
982.5000;0.5495;1.3732;
982.8000;0.5478;1.3660;
983.1000;0.5470;1.3684;
983.4000;0.5470;1.3708;
983.7000;0.5486;1.3780;
984.0000;0.5486;1.3804;
984.3000;0.5486;1.3804;
984.6000;0.5511;1.3924;
984.9000;0.5495;1.3852;
985.2000;0.5486;1.3876;
985.5000;0.5486;1.3876;
985.8000;0.5486;1.3876;
986.1000;0.5511;1.3900;
986.4000;0.5495;1.3876;
986.7000;0.5478;1.3828;
987.0000;0.5527;1.3996;
987.3000;0.5495;1.4021;
987.6000;0.5495;1.3972;
987.9000;0.5486;1.3900;
988.2000;0.5486;1.3852;
988.5000;0.5486;1.4021;
988.8000;0.5462;1.3972;
989.1000;0.5495;1.3948;
989.4000;0.5486;1.3828;
989.7000;0.5486;1.3780;
990.0000;0.5519;1.3852;
990.3000;0.5495;1.3828;
990.6000;0.5470;1.3828;
990.9000;0.5495;1.3876;
991.2000;0.5486;1.3876;
991.5000;0.5478;1.3876;
991.8000;0.5356;1.3636;
992.1000;0.5470;1.3972;
992.4000;0.5470;1.3996;
992.7000;0.5454;1.3924;
993.0000;0.5478;1.4021;
993.3000;0.5462;1.3948;
993.6000;0.5495;1.4069;
993.9000;0.5478;1.4045;
994.2000;0.5486;1.3948;
994.5000;0.5535;1.4117;
994.8000;0.5470;1.4069;
995.1000;0.5486;1.3948;
995.4000;0.5495;1.3924;
995.7000;0.5478;1.3900;
996.0000;0.5495;1.3924;
996.3000;0.5478;1.3948;
996.6000;0.5495;1.3972;
996.9000;0.5478;1.3876;
997.2000;0.5462;1.3852;
997.5000;0.5503;1.3900;
997.8000;0.5454;1.3780;
998.1000;0.5503;1.3876;
998.4000;0.5478;1.3756;
998.7000;0.5495;1.3708;
999.0000;0.5470;1.3684;
999.3000;0.5495;1.3804;
999.6000;0.5486;1.3852;
999.9000;0.5470;1.3780;
1000.2000;0.5495;1.3852;
1000.5000;0.5486;1.3828;
1000.8000;0.5495;1.3732;
1001.1000;0.5495;1.3780;
1001.4000;0.5486;1.3804;
1001.7000;0.5478;1.3756;
1002.0000;0.5462;1.3660;
1002.3000;0.5462;1.3708;
1002.6000;0.5478;1.3756;
1002.9000;0.5478;1.3708;
1003.2000;0.5470;1.3612;
1003.5000;0.5462;1.3588;
1003.8000;0.5462;1.3588;
1004.1000;0.5486;1.3660;
1004.4000;0.5470;1.3684;
1004.7000;0.5470;1.3780;
1005.0000;0.5486;1.3852;
1005.3000;0.5478;1.3900;
1005.6000;0.5462;1.3852;
1005.9000;0.5478;1.3756;
1006.2000;0.5486;1.3804;
1006.5000;0.5535;1.3900;
1006.8000;0.5503;1.3924;
1007.1000;0.5486;1.3900;
1007.4000;0.5470;1.3852;
1007.7000;0.5478;1.3852;
1008.0000;0.5486;1.3828;
1008.3000;0.5478;1.3708;
1008.6000;0.5511;1.3708;
1008.9000;0.5503;1.3636;
1009.2000;0.5486;1.3708;
1009.5000;0.5495;1.3828;
1009.8000;0.5462;1.3732;
1010.1000;0.5470;1.3732;
1010.4000;0.5478;1.3804;
1010.7000;0.5486;1.3804;
1011.0000;0.5454;1.3780;
1011.3000;0.5454;1.3876;
1011.6000;0.5462;1.3900;
1011.9000;0.5486;1.3948;
1012.2000;0.5462;1.3948;
1012.5000;0.5511;1.3996;
1012.8000;0.5421;1.3780;
1013.1000;0.5470;1.3828;
1013.4000;0.5495;1.3852;
1013.7000;0.5454;1.3756;
1014.0000;0.5478;1.3804;
1014.3000;0.5389;1.3636;
1014.6000;0.5478;1.3900;
1014.9000;0.5486;1.3924;
1015.2000;0.5454;1.3804;
1015.5000;0.5495;1.3924;
1015.8000;0.5462;1.3852;
1016.1000;0.5495;1.3852;
1016.4000;0.5503;1.3972;
1016.7000;0.5462;1.3972;
1017.0000;0.5470;1.3996;
1017.3000;0.5446;1.3900;
1017.6000;0.5454;1.3948;
1017.9000;0.5486;1.4021;
1018.2000;0.5478;1.3900;
1018.5000;0.5486;1.3828;
1018.8000;0.5470;1.3900;
1019.1000;0.5495;1.4021;
1019.4000;0.5454;1.3900;
1019.7000;0.5478;1.3948;
1020.0000;0.5462;1.3996;
1020.3000;0.5438;1.3900;
1020.6000;0.5495;1.4045;
1020.9000;0.5454;1.3972;
1021.2000;0.5446;1.3972;
1021.5000;0.5478;1.4165;
1021.8000;0.5495;1.4213;
1022.1000;0.5478;1.4165;
1022.4000;0.5470;1.4165;
1022.7000;0.5470;1.4189;
1023.0000;0.5486;1.4165;
1023.3000;0.5462;1.3996;
1023.6000;0.5446;1.3972;
1023.9000;0.5495;1.4045;
1024.2000;0.5486;1.4021;
1024.5000;0.5462;1.3948;
1024.8000;0.5478;1.4093;
1025.1000;0.5478;1.4045;
1025.4000;0.5454;1.4093;
1025.7000;0.5486;1.4069;
1026.0000;0.5478;1.3996;
1026.3000;0.5470;1.3924;
1026.6000;0.5470;1.3996;
1026.9000;0.5446;1.3876;
1027.2000;0.5478;1.3972;
1027.5000;0.5478;1.3972;
1027.8000;0.5478;1.3948;
1028.1000;0.5413;1.3828;
1028.4000;0.5478;1.4021;
1028.7000;0.5478;1.3996;
1029.0000;0.5486;1.3900;
1029.3000;0.5478;1.3876;
1029.6000;0.5503;1.3948;
1029.9000;0.5495;1.3948;
1030.2000;0.5495;1.3948;
1030.5000;0.5495;1.3972;
1030.8000;0.5519;1.3972;
1031.1000;0.5470;1.3828;
1031.4000;0.5478;1.3852;
1031.7000;0.5495;1.3876;
1032.0000;0.5486;1.3852;
1032.3000;0.5486;1.3804;
1032.6000;0.5495;1.3828;
1032.9000;0.5486;1.3900;
1033.2000;0.5503;1.3996;
1033.5000;0.5511;1.4045;
1033.8000;0.5527;1.4045;
1034.1000;0.5486;1.3828;
1034.4000;0.5446;1.3852;
1034.7000;0.5478;1.3948;
1035.0000;0.5438;1.3828;
1035.3000;0.5478;1.3948;
1035.6000;0.5470;1.3948;
1035.9000;0.5511;1.4093;
1036.2000;0.5470;1.3996;
1036.5000;0.5535;1.4021;
1036.8000;0.5438;1.3852;
1037.1000;0.5446;1.3804;
1037.4000;0.5462;1.3804;
1037.7000;0.5470;1.3828;
1038.0000;0.5470;1.3804;
1038.3000;0.5438;1.3636;
1038.6000;0.5478;1.3732;
1038.9000;0.5478;1.3804;
1039.2000;0.5438;1.3732;
1039.5000;0.5462;1.3852;
1039.8000;0.5527;1.3948;
1040.1000;0.5486;1.3804;
1040.4000;0.5519;1.3876;
1040.7000;0.5478;1.3756;
1041.0000;0.5478;1.3828;
1041.3000;0.5495;1.3876;
1041.6000;0.5462;1.3828;
1041.9000;0.5462;1.3900;
1042.2000;0.5478;1.3996;
1042.5000;0.5462;1.4045;
1042.8000;0.5495;1.3996;
1043.1000;0.5495;1.3924;
1043.4000;0.5486;1.4045;
1043.7000;0.5495;1.4069;
1044.0000;0.5470;1.3948;
1044.3000;0.5486;1.3924;
1044.6000;0.5486;1.3900;
1044.9000;0.5495;1.3852;
1045.2000;0.5470;1.3852;
1045.5000;0.5470;1.3684;
1045.8000;0.5486;1.3612;
1046.1000;0.5478;1.3636;
1046.4000;0.5470;1.3636;
1046.7000;0.5470;1.3684;
1047.0000;0.5438;1.3515;
1047.3000;0.5470;1.3636;
1047.6000;0.5470;1.3708;
1047.9000;0.5470;1.3732;
1048.2000;0.5486;1.3852;
1048.5000;0.5470;1.3828;
1048.8000;0.5478;1.3828;
1049.1000;0.5470;1.3804;
1049.4000;0.5478;1.3756;
1049.7000;0.5576;1.3900;
1050.0000;0.5470;1.3612;
1050.3000;0.5478;1.3684;
1050.6000;0.5470;1.3684;
1050.9000;0.5438;1.3612;
1051.2000;0.5470;1.3636;
1051.5000;0.5462;1.3708;
1051.8000;0.5446;1.3732;
1052.1000;0.5454;1.3756;
1052.4000;0.5478;1.3828;
1052.7000;0.5446;1.3780;
1053.0000;0.5446;1.3804;
1053.3000;0.5454;1.3804;
1053.6000;0.5486;1.3900;
1053.9000;0.5486;1.3948;
1054.2000;0.5495;1.3996;
1054.5000;0.5478;1.3924;
1054.8000;0.5495;1.3996;
1055.1000;0.5495;1.4093;
1055.4000;0.5470;1.3972;
1055.7000;0.5535;1.4093;
1056.0000;0.5470;1.3804;
1056.3000;0.5470;1.3780;
1056.6000;0.5495;1.3900;
1056.9000;0.5429;1.3780;
1057.2000;0.5454;1.3804;
1057.5000;0.5462;1.3780;
1057.8000;0.5470;1.3804;
1058.1000;0.5478;1.3852;
1058.4000;0.5462;1.3852;
1058.7000;0.5511;1.3972;
1059.0000;0.5478;1.3948;
1059.3000;0.5462;1.3996;
1059.6000;0.5470;1.3972;
1059.9000;0.5495;1.4021;
1060.2000;0.5454;1.3948;
1060.5000;0.5495;1.3972;
1060.8000;0.5470;1.3948;
1061.1000;0.5462;1.4045;
1061.4000;0.5429;1.3828;
1061.7000;0.5486;1.3876;
1062.0000;0.5486;1.3876;
1062.3000;0.5462;1.3804;
1062.6000;0.5478;1.3852;
1062.9000;0.5478;1.3732;
1063.2000;0.5478;1.3684;
1063.5000;0.5454;1.3684;
1063.8000;0.5527;1.3828;
1064.1000;0.5495;1.3828;
1064.4000;0.5478;1.3804;
1064.7000;0.5470;1.3828;
1065.0000;0.5503;1.3924;
1065.3000;0.5486;1.3828;
1065.6000;0.5486;1.3852;
1065.9000;0.5503;1.3780;
1066.2000;0.5551;1.3924;
1066.5000;0.5486;1.3804;
1066.8000;0.5470;1.3828;
1067.1000;0.5462;1.3708;
1067.4000;0.5470;1.3660;
1067.7000;0.5470;1.3660;
1068.0000;0.5470;1.3732;
1068.3000;0.5462;1.3708;
1068.6000;0.5470;1.3828;
1068.9000;0.5470;1.3852;
1069.2000;0.5446;1.3756;
1069.5000;0.5462;1.3828;
1069.8000;0.5495;1.3852;
1070.1000;0.5438;1.3780;
1070.4000;0.5478;1.3780;
1070.7000;0.5503;1.3828;
1071.0000;0.5478;1.3852;
1071.3000;0.5470;1.3828;
1071.6000;0.5470;1.3756;
1071.9000;0.5462;1.3732;
1072.2000;0.5462;1.3756;
1072.5000;0.5462;1.3756;
1072.8000;0.5462;1.3756;
1073.1000;0.5478;1.3828;
1073.4000;0.5462;1.3804;
1073.7000;0.5503;1.3876;
1074.0000;0.5470;1.3756;
1074.3000;0.5503;1.3780;
1074.6000;0.5454;1.3756;
1074.9000;0.5486;1.3756;
1075.2000;0.5470;1.3732;
1075.5000;0.5454;1.3756;
1075.8000;0.5470;1.3780;
1076.1000;0.5462;1.3708;
1076.4000;0.5454;1.3780;
1076.7000;0.5454;1.3804;
1077.0000;0.5438;1.3804;
1077.3000;0.5470;1.3972;
1077.6000;0.5551;1.4117;
1077.9000;0.5462;1.3924;
1078.2000;0.5478;1.4021;
1078.5000;0.5462;1.3972;
1078.8000;0.5446;1.3924;
1079.1000;0.5478;1.3948;
1079.4000;0.5470;1.3900;
1079.7000;0.5486;1.3780;
1080.0000;0.5478;1.3708;
1080.3000;0.5486;1.3708;
1080.6000;0.5478;1.3684;
1080.9000;0.5486;1.3636;
1081.2000;0.5462;1.3684;
1081.5000;0.5486;1.3732;
1081.8000;0.5470;1.3612;
1082.1000;0.5462;1.3636;
1082.4000;0.5470;1.3540;
1082.7000;0.5462;1.3515;
1083.0000;0.5486;1.3636;
1083.3000;0.5486;1.3684;
1083.6000;0.5478;1.3612;
1083.9000;0.5486;1.3660;
1084.2000;0.5486;1.3660;
1084.5000;0.5486;1.3708;
1084.8000;0.5478;1.3636;
1085.1000;0.5470;1.3612;
1085.4000;0.5486;1.3660;
1085.7000;0.5478;1.3708;
1086.0000;0.5543;1.3828;
1086.3000;0.5438;1.3636;
1086.6000;0.5462;1.3804;
1086.9000;0.5495;1.3756;
1087.2000;0.5478;1.3684;
1087.5000;0.5478;1.3708;
1087.8000;0.5470;1.3660;
1088.1000;0.5470;1.3732;
1088.4000;0.5462;1.3636;
1088.7000;0.5503;1.3684;
1089.0000;0.5454;1.3660;
1089.3000;0.5527;1.3828;
1089.6000;0.5421;1.3491;
1089.9000;0.5462;1.3636;
1090.2000;0.5527;1.3804;
1090.5000;0.5470;1.3804;
1090.8000;0.5478;1.3804;
1091.1000;0.5470;1.3756;
1091.4000;0.5470;1.3780;
1091.7000;0.5470;1.3804;
1092.0000;0.5470;1.3876;
1092.3000;0.5405;1.3636;
1092.6000;0.5470;1.3756;
1092.9000;0.5486;1.3900;
1093.2000;0.5535;1.3924;
1093.5000;0.5478;1.3756;
1093.8000;0.5503;1.3804;
1094.1000;0.5486;1.3780;
1094.4000;0.5478;1.3756;
1094.7000;0.5446;1.3612;
1095.0000;0.5421;1.3612;
1095.3000;0.5478;1.3756;
1095.6000;0.5478;1.3732;
1095.9000;0.5486;1.3780;
1096.2000;0.5470;1.3780;
1096.5000;0.5462;1.3780;
1096.8000;0.5478;1.3924;
1097.1000;0.5543;1.4021;
1097.4000;0.5413;1.3732;
1097.7000;0.5397;1.3756;
1098.0000;0.5470;1.3828;
1098.3000;0.5462;1.3804;
1098.6000;0.5511;1.3828;
1098.9000;0.5462;1.3780;
1099.2000;0.5495;1.3948;
1099.5000;0.5470;1.3876;
1099.8000;0.5478;1.3780;
1100.1000;0.5470;1.3804;
1100.4000;0.5478;1.3852;
1100.7000;0.5470;1.3852;
1101.0000;0.5446;1.3852;
1101.3000;0.5462;1.3996;
1101.6000;0.5511;1.4141;
1101.9000;0.5462;1.4045;
1102.2000;0.5486;1.4141;
1102.5000;0.5470;1.3996;
1102.8000;0.5462;1.3972;
1103.1000;0.5478;1.3852;
1103.4000;0.5462;1.3780;
1103.7000;0.5470;1.3852;
1104.0000;0.5462;1.3852;
1104.3000;0.5470;1.3852;
1104.6000;0.5478;1.3804;
1104.9000;0.5470;1.3780;
1105.2000;0.5470;1.3828;
1105.5000;0.5478;1.3828;
1105.8000;0.5470;1.3876;
1106.1000;0.5470;1.3852;
1106.4000;0.5462;1.3924;
1106.7000;0.5454;1.3900;
1107.0000;0.5405;1.3780;
1107.3000;0.5486;1.3972;
1107.6000;0.5495;1.4045;
1107.9000;0.5470;1.3996;
1108.2000;0.5454;1.3924;
1108.5000;0.5486;1.3924;
1108.8000;0.5429;1.3780;
1109.1000;0.5446;1.3924;
1109.4000;0.5454;1.3948;
1109.7000;0.5486;1.4045;
1110.0000;0.5478;1.3996;
1110.3000;0.5486;1.4021;
1110.6000;0.5470;1.4069;
1110.9000;0.5478;1.4117;
1111.2000;0.5470;1.4165;
1111.5000;0.5470;1.4069;
1111.8000;0.5462;1.3900;
1112.1000;0.5486;1.4045;
1112.4000;0.5470;1.4045;
1112.7000;0.5486;1.3996;
1113.0000;0.5462;1.3924;
1113.3000;0.5511;1.4069;
1113.6000;0.5470;1.3948;
1113.9000;0.5470;1.3852;
1114.2000;0.5478;1.3924;
1114.5000;0.5478;1.3948;
1114.8000;0.5511;1.4021;
1115.1000;0.5454;1.3852;
1115.4000;0.5478;1.3924;
1115.7000;0.5503;1.3972;
1116.0000;0.5495;1.3972;
1116.3000;0.5495;1.3924;
1116.6000;0.5478;1.3900;
1116.9000;0.5462;1.3948;
1117.2000;0.5462;1.3852;
1117.5000;0.5486;1.3900;
1117.8000;0.5470;1.3708;
1118.1000;0.5478;1.3708;
1118.4000;0.5470;1.3732;
1118.7000;0.5429;1.3636;
1119.0000;0.5495;1.3780;
1119.3000;0.5470;1.3660;
1119.6000;0.5462;1.3684;
1119.9000;0.5470;1.3756;
1120.2000;0.5462;1.3708;
1120.5000;0.5438;1.3660;
1120.8000;0.5478;1.3636;
1121.1000;0.5438;1.3564;
1121.4000;0.5470;1.3636;
1121.7000;0.5470;1.3660;
1122.0000;0.5438;1.3588;
1122.3000;0.5478;1.3780;
1122.6000;0.5454;1.3684;
1122.9000;0.5462;1.3684;
1123.2000;0.5454;1.3684;
1123.5000;0.5470;1.3780;
1123.8000;0.5478;1.3804;
1124.1000;0.5486;1.3852;
1124.4000;0.5446;1.3804;
1124.7000;0.5454;1.3828;
1125.0000;0.5478;1.3732;
1125.3000;0.5470;1.3636;
1125.6000;0.5478;1.3684;
1125.9000;0.5446;1.3636;
1126.2000;0.5470;1.3708;
1126.5000;0.5486;1.3756;
1126.8000;0.5429;1.3732;
1127.1000;0.5454;1.3756;
1127.4000;0.5495;1.3852;
1127.7000;0.5462;1.3804;
1128.0000;0.5462;1.3828;
1128.3000;0.5405;1.3732;
1128.6000;0.5478;1.3900;
1128.9000;0.5470;1.3900;
1129.2000;0.5478;1.3972;
1129.5000;0.5519;1.4093;
1129.8000;0.5470;1.3924;
1130.1000;0.5438;1.3876;
1130.4000;0.5551;1.4093;
1130.7000;0.5470;1.3948;
1131.0000;0.5535;1.4117;
1131.3000;0.5470;1.3972;
1131.6000;0.5470;1.4021;
1131.9000;0.5511;1.3996;
1132.2000;0.5389;1.3660;
1132.5000;0.5454;1.3804;
1132.8000;0.5446;1.3732;
1133.1000;0.5486;1.3828;
1133.4000;0.5381;1.3612;
1133.7000;0.5470;1.3876;
1134.0000;0.5470;1.3996;
1134.3000;0.5446;1.3900;
1134.6000;0.5470;1.3924;
1134.9000;0.5462;1.3924;
1135.2000;0.5478;1.3996;
1135.5000;0.5462;1.3996;
1135.8000;0.5478;1.4021;
1136.1000;0.5503;1.4069;
1136.4000;0.5462;1.3876;
1136.7000;0.5495;1.3948;
1137.0000;0.5470;1.3948;
1137.3000;0.5478;1.3852;
1137.6000;0.5503;1.3996;
1137.9000;0.5454;1.3804;
1138.2000;0.5454;1.3732;
1138.5000;0.5478;1.3708;
1138.8000;0.5470;1.3756;
1139.1000;0.5462;1.3756;
1139.4000;0.5470;1.3780;
1139.7000;0.5486;1.3804;
1140.0000;0.5478;1.3780;
1140.3000;0.5486;1.3876;
1140.6000;0.5462;1.3804;
1140.9000;0.5462;1.3804;
1141.2000;0.5454;1.3828;
1141.5000;0.5454;1.3732;
1141.8000;0.5454;1.3660;
1142.1000;0.5478;1.3684;
1142.4000;0.5454;1.3732;
1142.7000;0.5486;1.3756;
1143.0000;0.5462;1.3756;
1143.3000;0.5446;1.3708;
1143.6000;0.5462;1.3684;
1143.9000;0.5446;1.3660;
1144.2000;0.5495;1.3804;
1144.5000;0.5470;1.3732;
1144.8000;0.5446;1.3732;
1145.1000;0.5446;1.3828;
1145.4000;0.5486;1.3900;
1145.7000;0.5486;1.4021;
1146.0000;0.5462;1.3900;
1146.3000;0.5446;1.3948;
1146.6000;0.5454;1.3972;
1146.9000;0.5454;1.3852;
1147.2000;0.5470;1.3996;
1147.5000;0.5462;1.4021;
1147.8000;0.5462;1.4165;
1148.1000;0.5429;1.4141;
1148.4000;0.5446;1.4165;
1148.7000;0.5478;1.4141;
1149.0000;0.5470;1.4165;
1149.3000;0.5429;1.3972;
1149.6000;0.5470;1.4021;
1149.9000;0.5470;1.3996;
1150.2000;0.5454;1.3996;
1150.5000;0.5503;1.4069;
1150.8000;0.5462;1.3948;
1151.1000;0.5478;1.3924;
1151.4000;0.5446;1.3804;
1151.7000;0.5470;1.3948;
1152.0000;0.5478;1.4021;
1152.3000;0.5429;1.3876;
1152.6000;0.5462;1.3972;
1152.9000;0.5446;1.4021;
1153.2000;0.5478;1.4045;
1153.5000;0.5470;1.4021;
1153.8000;0.5421;1.3900;
1154.1000;0.5462;1.3924;
1154.4000;0.5495;1.3948;
1154.7000;0.5470;1.3924;
1155.0000;0.5503;1.3996;
1155.3000;0.5454;1.3900;
1155.6000;0.5454;1.3876;
1155.9000;0.5470;1.3900;
1156.2000;0.5397;1.3612;
1156.5000;0.5470;1.3756;
1156.8000;0.5478;1.3900;
1157.1000;0.5470;1.3876;
1157.4000;0.5462;1.3900;
1157.7000;0.5511;1.4069;
1158.0000;0.5470;1.3996;
1158.3000;0.5486;1.4069;
1158.6000;0.5470;1.4021;
1158.9000;0.5462;1.4069;
1159.2000;0.5470;1.4117;
1159.5000;0.5478;1.4045;
1159.8000;0.5470;1.3948;
1160.1000;0.5470;1.4021;
1160.4000;0.5486;1.3924;
1160.7000;0.5454;1.3852;
1161.0000;0.5454;1.3852;
1161.3000;0.5470;1.3876;
1161.6000;0.5486;1.3948;
1161.9000;0.5470;1.3900;
1162.2000;0.5413;1.3756;
1162.5000;0.5470;1.3876;
1162.8000;0.5454;1.3876;
1163.1000;0.5478;1.3924;
1163.4000;0.5470;1.3900;
1163.7000;0.5462;1.3780;
1164.0000;0.5470;1.3708;
1164.3000;0.5486;1.3756;
1164.6000;0.5495;1.3732;
1164.9000;0.5478;1.3588;
1165.2000;0.5470;1.3491;
1165.5000;0.5470;1.3515;
1165.8000;0.5470;1.3491;
1166.1000;0.5486;1.3467;
1166.4000;0.5462;1.3467;
1166.7000;0.5478;1.3515;
1167.0000;0.5454;1.3467;
1167.3000;0.5478;1.3467;
1167.6000;0.5438;1.3371;
1167.9000;0.5462;1.3467;
1168.2000;0.5462;1.3491;
1168.5000;0.5438;1.3419;
1168.8000;0.5438;1.3491;
1169.1000;0.5397;1.3371;
1169.4000;0.5454;1.3515;
1169.7000;0.5446;1.3395;
1170.0000;0.5462;1.3419;
1170.3000;0.5470;1.3467;
1170.6000;0.5478;1.3467;
1170.9000;0.5486;1.3419;
1171.2000;0.5446;1.3347;
1171.5000;0.5446;1.3323;
1171.8000;0.5478;1.3419;
1172.1000;0.5462;1.3419;
1172.4000;0.5454;1.3443;
1172.7000;0.5454;1.3515;
1173.0000;0.5462;1.3540;
1173.3000;0.5454;1.3564;
1173.6000;0.5438;1.3491;
1173.9000;0.5446;1.3564;
1174.2000;0.5462;1.3612;
1174.5000;0.5438;1.3660;
1174.8000;0.5470;1.3684;
1175.1000;0.5470;1.3588;
1175.4000;0.5462;1.3515;
1175.7000;0.5454;1.3564;
1176.0000;0.5486;1.3684;
1176.3000;0.5503;1.3684;
1176.6000;0.5495;1.3660;
1176.9000;0.5486;1.3684;
1177.2000;0.5429;1.3491;
1177.5000;0.5470;1.3588;
1177.8000;0.5462;1.3588;
1178.1000;0.5470;1.3636;
1178.4000;0.5454;1.3612;
1178.7000;0.5470;1.3636;
1179.0000;0.5478;1.3612;
1179.3000;0.5478;1.3660;
1179.6000;0.5470;1.3612;
1179.9000;0.5454;1.3540;
1180.2000;0.5527;1.3612;
1180.5000;0.5478;1.3540;
1180.8000;0.5454;1.3660;
1181.1000;0.5503;1.3828;
1181.4000;0.5478;1.3732;
1181.7000;0.5462;1.3684;
1182.0000;0.5478;1.3708;
1182.3000;0.5495;1.3732;
1182.6000;0.5486;1.3612;
1182.9000;0.5446;1.3612;
1183.2000;0.5470;1.3684;
1183.5000;0.5478;1.3684;
1183.8000;0.5470;1.3636;
1184.1000;0.5495;1.3684;
1184.4000;0.5503;1.3732;
1184.7000;0.5446;1.3588;
1185.0000;0.5470;1.3612;
1185.3000;0.5413;1.3491;
1185.6000;0.5462;1.3660;
1185.9000;0.5478;1.3636;
1186.2000;0.5478;1.3636;
1186.5000;0.5503;1.3684;
1186.8000;0.5486;1.3612;
1187.1000;0.5486;1.3636;
1187.4000;0.5478;1.3564;
1187.7000;0.5470;1.3588;
1188.0000;0.5470;1.3540;
1188.3000;0.5486;1.3588;
1188.6000;0.5478;1.3612;
1188.9000;0.5454;1.3443;
1189.2000;0.5486;1.3636;
1189.5000;0.5478;1.3612;
1189.8000;0.5495;1.3684;
1190.1000;0.5462;1.3708;
1190.4000;0.5478;1.3756;
1190.7000;0.5495;1.3780;
1191.0000;0.5389;1.3540;
1191.3000;0.5486;1.3828;
1191.6000;0.5462;1.3780;
1191.9000;0.5470;1.3780;
1192.2000;0.5470;1.3804;
1192.5000;0.5478;1.3756;
1192.8000;0.5633;1.4117;
1193.1000;0.5470;1.3756;
1193.4000;0.5470;1.3804;
1193.7000;0.5511;1.3972;
1194.0000;0.5454;1.3900;
1194.3000;0.5446;1.3948;
1194.6000;0.5560;1.4237;
1194.9000;0.5462;1.3996;
1195.2000;0.5446;1.4045;
1195.5000;0.5462;1.4093;
1195.8000;0.5446;1.4021;
1196.1000;0.5405;1.3972;
1196.4000;0.5462;1.4165;
1196.7000;0.5470;1.4117;
1197.0000;0.5462;1.4093;
1197.3000;0.5470;1.4117;
1197.6000;0.5462;1.4021;
1197.9000;0.5462;1.3924;
1198.2000;0.5462;1.3876;
1198.5000;0.5478;1.3852;
1198.8000;0.5470;1.3732;
1199.1000;0.5454;1.3660;
1199.4000;0.5446;1.3684;
1199.7000;0.5462;1.3756;
1200.0000;0.5462;1.3756;
1200.3000;0.5470;1.3780;
1200.6000;0.5454;1.3756;
1200.9000;0.5462;1.3804;
1201.2000;0.5413;1.3636;
1201.5000;0.5454;1.3708;
1201.8000;0.5462;1.3756;
1202.1000;0.5462;1.3780;
1202.4000;0.5438;1.3732;
1202.7000;0.5470;1.3852;
1203.0000;0.5446;1.3804;
1203.3000;0.5462;1.3828;
1203.6000;0.5462;1.3876;
1203.9000;0.5446;1.3924;
1204.2000;0.5503;1.3996;
1204.5000;0.5446;1.3804;
1204.8000;0.5454;1.3780;
1205.1000;0.5462;1.3708;
1205.4000;0.5454;1.3636;
1205.7000;0.5454;1.3684;
1206.0000;0.5470;1.3828;
1206.3000;0.5511;1.3972;
1206.6000;0.5478;1.3924;
1206.9000;0.5470;1.3948;
1207.2000;0.5519;1.3996;
1207.5000;0.5511;1.3996;
1207.8000;0.5462;1.3876;
1208.1000;0.5462;1.3780;
1208.4000;0.5454;1.3828;
1208.7000;0.5462;1.3804;
1209.0000;0.5462;1.3708;
1209.3000;0.5438;1.3588;
1209.6000;0.5462;1.3636;
1209.9000;0.5478;1.3660;
1210.2000;0.5511;1.3756;
1210.5000;0.5478;1.3708;
1210.8000;0.5478;1.3684;
1211.1000;0.5470;1.3660;
1211.4000;0.5478;1.3708;
1211.7000;0.5503;1.3780;
1212.0000;0.5478;1.3828;
1212.3000;0.5462;1.3732;
1212.6000;0.5527;1.3900;
1212.9000;0.5462;1.3732;
1213.2000;0.5486;1.3732;
1213.5000;0.5486;1.3804;
1213.8000;0.5470;1.3804;
1214.1000;0.5462;1.3924;
1214.4000;0.5470;1.3924;
1214.7000;0.5348;1.3684;
1215.0000;0.5454;1.3924;
1215.3000;0.5454;1.3948;
1215.6000;0.5381;1.3732;
1215.9000;0.5389;1.3828;
1216.2000;0.5446;1.3948;
1216.5000;0.5454;1.3996;
1216.8000;0.5519;1.4165;
1217.1000;0.5462;1.3996;
1217.4000;0.5462;1.3972;
1217.7000;0.5470;1.3996;
1218.0000;0.5478;1.4069;
1218.3000;0.5446;1.3996;
1218.6000;0.5438;1.3996;
1218.9000;0.5470;1.4021;
1219.2000;0.5478;1.3996;
1219.5000;0.5454;1.3828;
1219.8000;0.5462;1.3828;
1220.1000;0.5462;1.3804;
1220.4000;0.5486;1.3828;
1220.7000;0.5462;1.3780;
1221.0000;0.5446;1.3684;
1221.3000;0.5454;1.3828;
1221.6000;0.5454;1.3828;
1221.9000;0.5470;1.3828;
1222.2000;0.5454;1.3780;
1222.5000;0.5470;1.3804;
1222.8000;0.5421;1.3684;
1223.1000;0.5462;1.3756;
1223.4000;0.5462;1.3684;
1223.7000;0.5438;1.3804;
1224.0000;0.5462;1.3780;
1224.3000;0.5511;1.3804;
1224.6000;0.5454;1.3660;
1224.9000;0.5462;1.3588;
1225.2000;0.5470;1.3612;
1225.5000;0.5438;1.3564;
1225.8000;0.5470;1.3660;
1226.1000;0.5446;1.3588;
1226.4000;0.5511;1.3780;
1226.7000;0.5454;1.3588;
1227.0000;0.5478;1.3684;
1227.3000;0.5470;1.3660;
1227.6000;0.5470;1.3660;
1227.9000;0.5462;1.3564;
1228.2000;0.5478;1.3684;
1228.5000;0.5462;1.3588;
1228.8000;0.5462;1.3636;
1229.1000;0.5478;1.3660;
1229.4000;0.5454;1.3588;
1229.7000;0.5486;1.3732;
1230.0000;0.5470;1.3780;
1230.3000;0.5454;1.3756;
1230.6000;0.5470;1.3780;
1230.9000;0.5454;1.3828;
1231.2000;0.5462;1.3804;
1231.5000;0.5454;1.3708;
1231.8000;0.5446;1.3660;
1232.1000;0.5470;1.3684;
1232.4000;0.5462;1.3684;
1232.7000;0.5462;1.3660;
1233.0000;0.5470;1.3636;
1233.3000;0.5462;1.3684;
1233.6000;0.5454;1.3660;
1233.9000;0.5454;1.3636;
1234.2000;0.5454;1.3684;
1234.5000;0.5454;1.3636;
1234.8000;0.5470;1.3636;
1235.1000;0.5470;1.3660;
1235.4000;0.5478;1.3660;
1235.7000;0.5470;1.3684;
1236.0000;0.5470;1.3780;
1236.3000;0.5470;1.3852;
1236.6000;0.5462;1.3852;
1236.9000;0.5519;1.3996;
1237.2000;0.5462;1.3804;
1237.5000;0.5421;1.3660;
1237.8000;0.5543;1.4021;
1238.1000;0.5519;1.3876;
1238.4000;0.5462;1.3756;
1238.7000;0.5438;1.3732;
1239.0000;0.5560;1.3948;
1239.3000;0.5454;1.3708;
1239.6000;0.5462;1.3636;
1239.9000;0.5421;1.3612;
1240.2000;0.5454;1.3684;
1240.5000;0.5470;1.3780;
1240.8000;0.5413;1.3708;
1241.1000;0.5446;1.3876;
1241.4000;0.5462;1.3900;
1241.7000;0.5462;1.3924;
1242.0000;0.5478;1.3900;
1242.3000;0.5470;1.3900;
1242.6000;0.5519;1.3972;
1242.9000;0.5470;1.3852;
1243.2000;0.5478;1.3900;
1243.5000;0.5454;1.3852;
1243.8000;0.5503;1.3876;
1244.1000;0.5462;1.3756;
1244.4000;0.5478;1.3780;
1244.7000;0.5470;1.3732;
1245.0000;0.5495;1.3684;
1245.3000;0.5446;1.3636;
1245.6000;0.5470;1.3804;
1245.9000;0.5454;1.3684;
1246.2000;0.5413;1.3612;
1246.5000;0.5478;1.3780;
1246.8000;0.5454;1.3804;
1247.1000;0.5478;1.3828;
1247.4000;0.5462;1.3756;
1247.7000;0.5454;1.3660;
1248.0000;0.5462;1.3708;
1248.3000;0.5429;1.3636;
1248.6000;0.5454;1.3732;
1248.9000;0.5454;1.3708;
1249.2000;0.5438;1.3660;
1249.5000;0.5454;1.3756;
1249.8000;0.5454;1.3756;
1250.1000;0.5462;1.3780;
1250.4000;0.5405;1.3660;
1250.7000;0.5478;1.3780;
1251.0000;0.5454;1.3660;
1251.3000;0.5454;1.3756;
1251.6000;0.5454;1.3780;
1251.9000;0.5454;1.3828;
1252.2000;0.5478;1.3828;
1252.5000;0.5462;1.3900;
1252.8000;0.5486;1.3972;
1253.1000;0.5527;1.4189;
1253.4000;0.5454;1.4045;
1253.7000;0.5446;1.3876;
1254.0000;0.5446;1.3900;
1254.3000;0.5462;1.3900;
1254.6000;0.5462;1.3900;
1254.9000;0.5446;1.3804;
1255.2000;0.5438;1.3780;
1255.5000;0.5438;1.3756;
1255.8000;0.5462;1.3924;
1256.1000;0.5454;1.3780;
1256.4000;0.5454;1.3684;
1256.7000;0.5438;1.3564;
1257.0000;0.5462;1.3612;
1257.3000;0.5454;1.3467;
1257.6000;0.5462;1.3467;
1257.9000;0.5470;1.3419;
1258.2000;0.5478;1.3443;
1258.5000;0.5470;1.3491;
1258.8000;0.5454;1.3419;
1259.1000;0.5486;1.3515;
1259.4000;0.5454;1.3491;
1259.7000;0.5462;1.3612;
1260.0000;0.5470;1.3660;
1260.3000;0.5446;1.3660;
1260.6000;0.5462;1.3708;
1260.9000;0.5470;1.3924;
1261.2000;0.5486;1.3996;
1261.5000;0.5470;1.3948;
1261.8000;0.5421;1.3852;
1262.1000;0.5462;1.3828;
1262.4000;0.5478;1.3876;
1262.7000;0.5560;1.4021;
1263.0000;0.5511;1.3876;
1263.3000;0.5478;1.3780;
1263.6000;0.5462;1.3732;
1263.9000;0.5405;1.3564;
1264.2000;0.5462;1.3852;
1264.5000;0.5478;1.3828;
1264.8000;0.5470;1.3828;
1265.1000;0.5478;1.3780;
1265.4000;0.5470;1.3756;
1265.7000;0.5462;1.3828;
1266.0000;0.5478;1.3780;
1266.3000;0.5486;1.3852;
1266.6000;0.5405;1.3684;
1266.9000;0.5470;1.3780;
1267.2000;0.5405;1.3588;
1267.5000;0.5462;1.3732;
1267.8000;0.5454;1.3684;
1268.1000;0.5470;1.3780;
1268.4000;0.5486;1.3876;
1268.7000;0.5478;1.3876;
1269.0000;0.5478;1.3924;
1269.3000;0.5438;1.3804;
1269.6000;0.5470;1.3876;
1269.9000;0.5478;1.3924;
1270.2000;0.5478;1.3900;
1270.5000;0.5438;1.3852;
1270.8000;0.5446;1.3924;
1271.1000;0.5486;1.3996;
1271.4000;0.5462;1.4093;
1271.7000;0.5478;1.4165;
1272.0000;0.5478;1.4093;
1272.3000;0.5438;1.4045;
1272.6000;0.5470;1.4117;
1272.9000;0.5454;1.4117;
1273.2000;0.5446;1.3996;
1273.5000;0.5462;1.3972;
1273.8000;0.5470;1.4069;
1274.1000;0.5446;1.3996;
1274.4000;0.5438;1.3900;
1274.7000;0.5438;1.3828;
1275.0000;0.5438;1.3804;
1275.3000;0.5429;1.3756;
1275.6000;0.5454;1.3708;
1275.9000;0.5421;1.3708;
1276.2000;0.5446;1.3828;
1276.5000;0.5454;1.3876;
1276.8000;0.5446;1.3828;
1277.1000;0.5364;1.3708;
1277.4000;0.5454;1.3924;
1277.7000;0.5438;1.3948;
1278.0000;0.5446;1.3900;
1278.3000;0.5478;1.3852;
1278.6000;0.5478;1.3924;
1278.9000;0.5462;1.3804;
1279.2000;0.5470;1.3756;
1279.5000;0.5454;1.3852;
1279.8000;0.5470;1.3876;
1280.1000;0.5364;1.3684;
1280.4000;0.5454;1.3924;
1280.7000;0.5470;1.3948;
1281.0000;0.5495;1.3972;
1281.3000;0.5478;1.3924;
1281.6000;0.5486;1.4069;
1281.9000;0.5438;1.3948;
1282.2000;0.5462;1.4021;
1282.5000;0.5438;1.3948;
1282.8000;0.5446;1.3924;
1283.1000;0.5446;1.3972;
1283.4000;0.5470;1.3900;
1283.7000;0.5454;1.3876;
1284.0000;0.5462;1.3876;
1284.3000;0.5478;1.3804;
1284.6000;0.5454;1.3756;
1284.9000;0.5429;1.3732;
1285.2000;0.5438;1.3804;
1285.5000;0.5438;1.3852;
1285.8000;0.5543;1.4141;
1286.1000;0.5413;1.3852;
1286.4000;0.5446;1.3972;
1286.7000;0.5405;1.3780;
1287.0000;0.5438;1.3876;
1287.3000;0.5478;1.3924;
1287.6000;0.5446;1.3924;
1287.9000;0.5462;1.3900;
1288.2000;0.5446;1.3828;
1288.5000;0.5454;1.3780;
1288.8000;0.5364;1.3588;
1289.1000;0.5462;1.3876;
1289.4000;0.5470;1.3876;
1289.7000;0.5454;1.3828;
1290.0000;0.5462;1.3732;
1290.3000;0.5462;1.3828;
1290.6000;0.5462;1.3900;
1290.9000;0.5446;1.3876;
1291.2000;0.5454;1.3876;
1291.5000;0.5462;1.4021;
1291.8000;0.5470;1.4021;
1292.1000;0.5486;1.4021;
1292.4000;0.5470;1.4069;
1292.7000;0.5438;1.3924;
1293.0000;0.5462;1.3876;
1293.3000;0.5478;1.3876;
1293.6000;0.5470;1.3876;
1293.9000;0.5454;1.3828;
1294.2000;0.5527;1.4021;
1294.5000;0.5470;1.3900;
1294.8000;0.5462;1.3804;
1295.1000;0.5462;1.3828;
1295.4000;0.5462;1.3900;
1295.7000;0.5470;1.3924;
1296.0000;0.5413;1.3828;
1296.3000;0.5454;1.3804;
1296.6000;0.5511;1.3804;
1296.9000;0.5462;1.3708;
1297.2000;0.5421;1.3780;
1297.5000;0.5454;1.3924;
1297.8000;0.5478;1.3900;
1298.1000;0.5446;1.3780;
1298.4000;0.5462;1.3852;
1298.7000;0.5454;1.3900;
1299.0000;0.5470;1.3948;
1299.3000;0.5454;1.3948;
1299.6000;0.5478;1.3948;
1299.9000;0.5454;1.3828;
1300.2000;0.5405;1.3660;
1300.5000;0.5478;1.3876;
1300.8000;0.5478;1.3900;
1301.1000;0.5495;1.3900;
1301.4000;0.5454;1.3804;
1301.7000;0.5462;1.3852;
1302.0000;0.5454;1.3852;
1302.3000;0.5478;1.3900;
1302.6000;0.5429;1.3780;
1302.9000;0.5478;1.3924;
1303.2000;0.5486;1.3972;
1303.5000;0.5478;1.3972;
1303.8000;0.5462;1.3900;
1304.1000;0.5454;1.3852;
1304.4000;0.5454;1.3852;
1304.7000;0.5462;1.3876;
1305.0000;0.5462;1.3900;
1305.3000;0.5454;1.3780;
1305.6000;0.5462;1.3828;
1305.9000;0.5462;1.3804;
1306.2000;0.5438;1.3780;
1306.5000;0.5438;1.3804;
1306.8000;0.5454;1.3828;
1307.1000;0.5454;1.3876;
1307.4000;0.5454;1.3852;
1307.7000;0.5446;1.3804;
1308.0000;0.5454;1.3948;
1308.3000;0.5462;1.4045;
1308.6000;0.5340;1.3732;
1308.9000;0.5454;1.3972;
1309.2000;0.5462;1.3948;
1309.5000;0.5454;1.3828;
1309.8000;0.5454;1.3852;
1310.1000;0.5462;1.3804;
1310.4000;0.5454;1.3828;
1310.7000;0.5462;1.3852;
1311.0000;0.5486;1.3924;
1311.3000;0.5462;1.3996;
1311.6000;0.5511;1.4237;
1311.9000;0.5470;1.4117;
1312.2000;0.5454;1.4069;
1312.5000;0.5462;1.4117;
1312.8000;0.5405;1.3924;
1313.1000;0.5486;1.4093;
1313.4000;0.5478;1.4069;
1313.7000;0.5454;1.3972;
1314.0000;0.5470;1.3924;
1314.3000;0.5462;1.3876;
1314.6000;0.5462;1.3900;
1314.9000;0.5462;1.3948;
1315.2000;0.5429;1.3876;
1315.5000;0.5446;1.3972;
1315.8000;0.5462;1.3972;
1316.1000;0.5462;1.3924;
1316.4000;0.5454;1.3900;
1316.7000;0.5454;1.3828;
1317.0000;0.5478;1.3924;
1317.3000;0.5454;1.3972;
1317.6000;0.5446;1.3876;
1317.9000;0.5462;1.3924;
1318.2000;0.5446;1.3900;
1318.5000;0.5462;1.3852;
1318.8000;0.5495;1.3996;
1319.1000;0.5446;1.3780;
1319.4000;0.5429;1.3780;
1319.7000;0.5454;1.3948;
1320.0000;0.5413;1.3948;
1320.3000;0.5478;1.4117;
1320.6000;0.5462;1.3996;
1320.9000;0.5462;1.4021;
1321.2000;0.5503;1.4189;
1321.5000;0.5454;1.3924;
1321.8000;0.5454;1.3924;
1322.1000;0.5462;1.3924;
1322.4000;0.5454;1.3972;
1322.7000;0.5446;1.3948;
1323.0000;0.5478;1.3996;
1323.3000;0.5519;1.4069;
1323.6000;0.5462;1.3852;
1323.9000;0.5462;1.3828;
1324.2000;0.5495;1.3972;
1324.5000;0.5470;1.3876;
1324.8000;0.5462;1.3876;
1325.1000;0.5413;1.3732;
1325.4000;0.5446;1.3828;
1325.7000;0.5470;1.3876;
1326.0000;0.5462;1.3828;
1326.3000;0.5470;1.3852;
1326.6000;0.5462;1.3804;
1326.9000;0.5462;1.3852;
1327.2000;0.5454;1.3924;
1327.5000;0.5462;1.4021;
1327.8000;0.5381;1.3852;
1328.1000;0.5470;1.4093;
1328.4000;0.5462;1.4117;
1328.7000;0.5470;1.4117;
1329.0000;0.5454;1.3972;
1329.3000;0.5454;1.3996;
1329.6000;0.5405;1.3804;
1329.9000;0.5421;1.3828;
1330.2000;0.5462;1.3900;
1330.5000;0.5486;1.3972;
1330.8000;0.5446;1.3876;
1331.1000;0.5454;1.3900;
1331.4000;0.5462;1.3924;
1331.7000;0.5438;1.3924;
1332.0000;0.5421;1.3996;
1332.3000;0.5462;1.4021;
1332.6000;0.5446;1.3948;
1332.9000;0.5429;1.3948;
1333.2000;0.5462;1.4045;
1333.5000;0.5462;1.4093;
1333.8000;0.5454;1.4117;
1334.1000;0.5470;1.4117;
1334.4000;0.5470;1.4069;
1334.7000;0.5527;1.4237;
1335.0000;0.5470;1.4093;
1335.3000;0.5429;1.4069;
1335.6000;0.5462;1.4021;
1335.9000;0.5381;1.3780;
1336.2000;0.5470;1.3948;
1336.5000;0.5462;1.3900;
1336.8000;0.5478;1.3924;
1337.1000;0.5454;1.3756;
1337.4000;0.5470;1.3732;
1337.7000;0.5429;1.3804;
1338.0000;0.5446;1.3996;
1338.3000;0.5470;1.4045;
1338.6000;0.5470;1.3924;
1338.9000;0.5470;1.3828;
1339.2000;0.5470;1.3828;
1339.5000;0.5470;1.3828;
1339.8000;0.5478;1.3924;
1340.1000;0.5470;1.3924;
1340.4000;0.5470;1.3972;
1340.7000;0.5478;1.3972;
1341.0000;0.5478;1.3924;
1341.3000;0.5454;1.3948;
1341.6000;0.5462;1.3924;
1341.9000;0.5470;1.3948;
1342.2000;0.5413;1.3852;
1342.5000;0.5478;1.4069;
1342.8000;0.5470;1.4069;
1343.1000;0.5454;1.4069;
1343.4000;0.5462;1.4069;
1343.7000;0.5462;1.4045;
1344.0000;0.5446;1.4021;
1344.3000;0.5462;1.4045;
1344.6000;0.5470;1.4093;
1344.9000;0.5454;1.3996;
1345.2000;0.5462;1.3996;
1345.5000;0.5446;1.3948;
1345.8000;0.5454;1.3876;
1346.1000;0.5462;1.3852;
1346.4000;0.5470;1.3780;
1346.7000;0.5462;1.3780;
1347.0000;0.5454;1.3780;
1347.3000;0.5446;1.3828;
1347.6000;0.5454;1.3852;
1347.9000;0.5462;1.3876;
1348.2000;0.5462;1.3948;
1348.5000;0.5462;1.3948;
1348.8000;0.5470;1.3972;
1349.1000;0.5438;1.3900;
1349.4000;0.5462;1.3948;
1349.7000;0.5495;1.3948;
1350.0000;0.5446;1.3900;
1350.3000;0.5454;1.3972;
1350.6000;0.5470;1.3924;
1350.9000;0.5470;1.3948;
1351.2000;0.5470;1.3972;
1351.5000;0.5462;1.3948;
1351.8000;0.5470;1.3948;
1352.1000;0.5454;1.3972;
1352.4000;0.5446;1.3876;
1352.7000;0.5454;1.3924;
1353.0000;0.5454;1.3876;
1353.3000;0.5470;1.3924;
1353.6000;0.5511;1.4069;
1353.9000;0.5495;1.3996;
1354.2000;0.5454;1.3876;
1354.5000;0.5405;1.3732;
1354.8000;0.5446;1.3900;
1355.1000;0.5478;1.4045;
1355.4000;0.5446;1.3852;
1355.7000;0.5397;1.3732;
1356.0000;0.5446;1.3828;
1356.3000;0.5438;1.3780;
1356.6000;0.5438;1.3756;
1356.9000;0.5478;1.3780;
1357.2000;0.5446;1.3708;
1357.5000;0.5470;1.3732;
1357.8000;0.5478;1.3660;
1358.1000;0.5486;1.3756;
1358.4000;0.5478;1.3828;
1358.7000;0.5470;1.3756;
1359.0000;0.5438;1.3684;
1359.3000;0.5462;1.3780;
1359.6000;0.5438;1.3660;
1359.9000;0.5486;1.3708;
1360.2000;0.5478;1.3732;
1360.5000;0.5478;1.3732;
1360.8000;0.5462;1.3756;
1361.1000;0.5503;1.3876;
1361.4000;0.5446;1.3732;
1361.7000;0.5478;1.3876;
1362.0000;0.5446;1.3804;
1362.3000;0.5438;1.3732;
1362.6000;0.5470;1.3756;
1362.9000;0.5470;1.3756;
1363.2000;0.5478;1.3900;
1363.5000;0.5470;1.3948;
1363.8000;0.5446;1.3972;
1364.1000;0.5429;1.3996;
1364.4000;0.5503;1.4021;
1364.7000;0.5438;1.3876;
1365.0000;0.5454;1.3780;
1365.3000;0.5438;1.3660;
1365.6000;0.5486;1.3852;
1365.9000;0.5462;1.3900;
1366.2000;0.5405;1.3828;
1366.5000;0.5454;1.3972;
1366.8000;0.5454;1.3996;
1367.1000;0.5470;1.3996;
1367.4000;0.5478;1.3876;
1367.7000;0.5446;1.3876;
1368.0000;0.5470;1.3924;
1368.3000;0.5462;1.3900;
1368.6000;0.5470;1.3876;
1368.9000;0.5462;1.3852;
1369.2000;0.5470;1.3876;
1369.5000;0.5470;1.3852;
1369.8000;0.5462;1.3756;
1370.1000;0.5462;1.3756;
1370.4000;0.5470;1.3780;
1370.7000;0.5454;1.3804;
1371.0000;0.5462;1.3804;
1371.3000;0.5462;1.3828;
1371.6000;0.5486;1.3972;
1371.9000;0.5462;1.4021;
1372.2000;0.5421;1.3876;
1372.5000;0.5535;1.4045;
1372.8000;0.5438;1.3756;
1373.1000;0.5470;1.3780;
1373.4000;0.5462;1.3876;
1373.7000;0.5462;1.3900;
1374.0000;0.5462;1.3948;
1374.3000;0.5462;1.3900;
1374.6000;0.5478;1.3924;
1374.9000;0.5454;1.3852;
1375.2000;0.5462;1.3852;
1375.5000;0.5438;1.3756;
1375.8000;0.5446;1.3828;
1376.1000;0.5486;1.3852;
1376.4000;0.5446;1.3780;
1376.7000;0.5446;1.3828;
1377.0000;0.5527;1.4069;
1377.3000;0.5446;1.3828;
1377.6000;0.5454;1.3828;
1377.9000;0.5519;1.3900;
1378.2000;0.5470;1.3876;
1378.5000;0.5462;1.3948;
1378.8000;0.5478;1.3948;
1379.1000;0.5462;1.3924;
1379.4000;0.5462;1.3924;
1379.7000;0.5527;1.4117;
1380.0000;0.5462;1.4021;
1380.3000;0.5462;1.4045;
1380.6000;0.5454;1.4117;
1380.9000;0.5470;1.4117;
1381.2000;0.5470;1.4069;
1381.5000;0.5486;1.4045;
1381.8000;0.5429;1.3996;
1382.1000;0.5470;1.4045;
1382.4000;0.5446;1.3972;
1382.7000;0.5462;1.3972;
1383.0000;0.5462;1.4069;
1383.3000;0.5454;1.4093;
1383.6000;0.5503;1.4093;
1383.9000;0.5364;1.3732;
1384.2000;0.5446;1.3852;
1384.5000;0.5470;1.3876;
1384.8000;0.5470;1.3900;
1385.1000;0.5454;1.3948;
1385.4000;0.5462;1.3924;
1385.7000;0.5462;1.3900;
1386.0000;0.5470;1.3948;
1386.3000;0.5446;1.3900;
1386.6000;0.5462;1.3948;
1386.9000;0.5478;1.3924;
1387.2000;0.5470;1.3948;
1387.5000;0.5454;1.3900;
1387.8000;0.5519;1.3972;
1388.1000;0.5470;1.3972;
1388.4000;0.5462;1.3948;
1388.7000;0.5470;1.3948;
1389.0000;0.5470;1.3972;
1389.3000;0.5462;1.3924;
1389.6000;0.5462;1.3948;
1389.9000;0.5470;1.3996;
1390.2000;0.5462;1.3900;
1390.5000;0.5462;1.3972;
1390.8000;0.5462;1.3996;
1391.1000;0.5462;1.3996;
1391.4000;0.5470;1.3972;
1391.7000;0.5454;1.3972;
1392.0000;0.5454;1.3828;
1392.3000;0.5462;1.3948;
1392.6000;0.5503;1.4093;
1392.9000;0.5462;1.4045;
1393.2000;0.5470;1.4021;
1393.5000;0.5454;1.4021;
1393.8000;0.5462;1.4021;
1394.1000;0.5454;1.4093;
1394.4000;0.5470;1.4069;
1394.7000;0.5454;1.3996;
1395.0000;0.5470;1.3876;
1395.3000;0.5470;1.3948;
1395.6000;0.5421;1.3804;
1395.9000;0.5413;1.3804;
1396.2000;0.5438;1.3852;
1396.5000;0.5446;1.3852;
1396.8000;0.5454;1.3804;
1397.1000;0.5454;1.3876;
1397.4000;0.5470;1.3996;
1397.7000;0.5462;1.4093;
1398.0000;0.5486;1.4213;
1398.3000;0.5462;1.4045;
1398.6000;0.5454;1.3996;
1398.9000;0.5438;1.3900;
1399.2000;0.5462;1.3876;
1399.5000;0.5486;1.4069;
1399.8000;0.5446;1.3972;
