time/ms;Fluo/V;P700 deltaI/I x10³;
-199.8000;0.6854;1.3876;
-199.5000;0.6862;1.3876;
-199.2000;0.6854;1.3852;
-198.9000;0.6829;1.3804;
-198.6000;0.6862;1.3900;
-198.3000;0.6862;1.3852;
-198.0000;0.6854;1.3828;
-197.7000;0.6813;1.3756;
-197.4000;0.6846;1.3828;
-197.1000;0.6846;1.3828;
-196.8000;0.6943;1.4045;
-196.5000;0.6846;1.3852;
-196.2000;0.6854;1.3924;
-195.9000;0.6878;1.3972;
-195.6000;0.6854;1.3996;
-195.3000;0.6846;1.3924;
-195.0000;0.6854;1.3876;
-194.7000;0.6870;1.3924;
-194.4000;0.6854;1.3972;
-194.1000;0.6838;1.3900;
-193.8000;0.6838;1.3852;
-193.5000;0.6854;1.3876;
-193.2000;0.6821;1.3852;
-192.9000;0.6862;1.3996;
-192.6000;0.6854;1.4069;
-192.3000;0.6838;1.3996;
-192.0000;0.6846;1.3996;
-191.7000;0.6756;1.3756;
-191.4000;0.6846;1.4021;
-191.1000;0.6862;1.3996;
-190.8000;0.6919;1.4141;
-190.5000;0.6862;1.4021;
-190.2000;0.6854;1.3948;
-189.9000;0.6878;1.3972;
-189.6000;0.6854;1.3924;
-189.3000;0.6854;1.3900;
-189.0000;0.6829;1.3948;
-188.7000;0.6870;1.3924;
-188.4000;0.6854;1.3852;
-188.1000;0.6846;1.3828;
-187.8000;0.6886;1.3900;
-187.5000;0.6862;1.3732;
-187.2000;0.6878;1.3828;
-186.9000;0.6870;1.3828;
-186.6000;0.6854;1.3708;
-186.3000;0.6838;1.3708;
-186.0000;0.6846;1.3780;
-185.7000;0.6854;1.3780;
-185.4000;0.6854;1.3780;
-185.1000;0.6805;1.3636;
-184.8000;0.6862;1.3708;
-184.5000;0.6854;1.3684;
-184.2000;0.6895;1.3804;
-183.9000;0.6862;1.3660;
-183.6000;0.6838;1.3564;
-183.3000;0.6829;1.3636;
-183.0000;0.6846;1.3684;
-182.7000;0.6838;1.3708;
-182.4000;0.6838;1.3732;
-182.1000;0.6838;1.3684;
-181.8000;0.6854;1.3660;
-181.5000;0.6870;1.3636;
-181.2000;0.6854;1.3612;
-180.9000;0.6862;1.3636;
-180.6000;0.6903;1.3756;
-180.3000;0.6854;1.3708;
-180.0000;0.6862;1.3636;
-179.7000;0.6838;1.3660;
-179.4000;0.6903;1.3804;
-179.1000;0.6862;1.3684;
-178.8000;0.6870;1.3636;
-178.5000;0.6870;1.3564;
-178.2000;0.6821;1.3443;
-177.9000;0.6838;1.3419;
-177.6000;0.6862;1.3564;
-177.3000;0.6829;1.3515;
-177.0000;0.6789;1.3395;
-176.7000;0.6870;1.3612;
-176.4000;0.6740;1.3443;
-176.1000;0.6878;1.3828;
-175.8000;0.6846;1.3708;
-175.5000;0.6870;1.3780;
-175.2000;0.6870;1.3804;
-174.9000;0.6878;1.3900;
-174.6000;0.6838;1.3900;
-174.3000;0.6870;1.3924;
-174.0000;0.6854;1.3900;
-173.7000;0.6838;1.3852;
-173.4000;0.6846;1.3948;
-173.1000;0.6862;1.3948;
-172.8000;0.6862;1.3900;
-172.5000;0.6846;1.3876;
-172.2000;0.6846;1.3900;
-171.9000;0.6846;1.3876;
-171.6000;0.6870;1.3876;
-171.3000;0.6838;1.3804;
-171.0000;0.6846;1.3732;
-170.7000;0.6846;1.3804;
-170.4000;0.6838;1.3780;
-170.1000;0.6862;1.3828;
-169.8000;0.6919;1.3972;
-169.5000;0.6838;1.3780;
-169.2000;0.6854;1.3828;
-168.9000;0.6854;1.3780;
-168.6000;0.6862;1.3876;
-168.3000;0.6846;1.3828;
-168.0000;0.6838;1.3780;
-167.7000;0.6854;1.3876;
-167.4000;0.6838;1.3804;
-167.1000;0.6838;1.3780;
-166.8000;0.6764;1.3636;
-166.5000;0.6854;1.3828;
-166.2000;0.6862;1.3828;
-165.9000;0.6789;1.3564;
-165.6000;0.6854;1.3900;
-165.3000;0.6846;1.3804;
-165.0000;0.6862;1.3804;
-164.7000;0.6805;1.3636;
-164.4000;0.6829;1.3660;
-164.1000;0.6911;1.3924;
-163.8000;0.6846;1.3708;
-163.5000;0.6829;1.3660;
-163.2000;0.6838;1.3684;
-162.9000;0.6838;1.3732;
-162.6000;0.6862;1.3732;
-162.3000;0.6846;1.3732;
-162.0000;0.6821;1.3612;
-161.7000;0.6846;1.3684;
-161.4000;0.6862;1.3780;
-161.1000;0.6870;1.3828;
-160.8000;0.6846;1.3804;
-160.5000;0.6854;1.3852;
-160.2000;0.6854;1.3828;
-159.9000;0.6854;1.3804;
-159.6000;0.6862;1.3900;
-159.3000;0.6838;1.3828;
-159.0000;0.6805;1.3684;
-158.7000;0.6846;1.3756;
-158.4000;0.6821;1.3756;
-158.1000;0.6756;1.3612;
-157.8000;0.6862;1.3780;
-157.5000;0.6846;1.3732;
-157.2000;0.6821;1.3660;
-156.9000;0.6789;1.3636;
-156.6000;0.6846;1.3732;
-156.3000;0.6886;1.3828;
-156.0000;0.6854;1.3588;
-155.7000;0.6854;1.3612;
-155.4000;0.6838;1.3708;
-155.1000;0.6878;1.3852;
-154.8000;0.6870;1.3852;
-154.5000;0.6870;1.3876;
-154.2000;0.6862;1.3900;
-153.9000;0.6870;1.3924;
-153.6000;0.6854;1.3828;
-153.3000;0.6862;1.3852;
-153.0000;0.6846;1.3852;
-152.7000;0.6903;1.3972;
-152.4000;0.6854;1.3828;
-152.1000;0.6862;1.3852;
-151.8000;0.6829;1.3780;
-151.5000;0.6821;1.3732;
-151.2000;0.6862;1.3804;
-150.9000;0.6838;1.3876;
-150.6000;0.6862;1.3948;
-150.3000;0.6854;1.3900;
-150.0000;0.6870;1.3924;
-149.7000;0.6846;1.3852;
-149.4000;0.6854;1.3900;
-149.1000;0.6838;1.3900;
-148.8000;0.6846;1.3972;
-148.5000;0.6805;1.3828;
-148.2000;0.6862;1.4045;
-147.9000;0.6829;1.3972;
-147.6000;0.6805;1.3900;
-147.3000;0.6838;1.3924;
-147.0000;0.6854;1.3972;
-146.7000;0.6870;1.4093;
-146.4000;0.6838;1.4045;
-146.1000;0.6846;1.3996;
-145.8000;0.6862;1.4069;
-145.5000;0.6838;1.3948;
-145.2000;0.6878;1.4045;
-144.9000;0.6862;1.4021;
-144.6000;0.6838;1.3996;
-144.3000;0.6829;1.3852;
-144.0000;0.6846;1.3852;
-143.7000;0.6846;1.3804;
-143.4000;0.6854;1.3708;
-143.1000;0.6805;1.3612;
-142.8000;0.6813;1.3684;
-142.5000;0.6821;1.3708;
-142.2000;0.6805;1.3756;
-141.9000;0.6862;1.3924;
-141.6000;0.6846;1.3756;
-141.3000;0.6846;1.3756;
-141.0000;0.6781;1.3660;
-140.7000;0.6935;1.4117;
-140.4000;0.6829;1.3804;
-140.1000;0.6862;1.3972;
-139.8000;0.6854;1.3948;
-139.5000;0.6854;1.3948;
-139.2000;0.6829;1.3900;
-138.9000;0.6838;1.3900;
-138.6000;0.6838;1.3924;
-138.3000;0.6846;1.3828;
-138.0000;0.6813;1.3708;
-137.7000;0.6862;1.3804;
-137.4000;0.6838;1.3780;
-137.1000;0.6829;1.3756;
-136.8000;0.6854;1.3804;
-136.5000;0.6838;1.3780;
-136.2000;0.6846;1.3804;
-135.9000;0.6886;1.3852;
-135.6000;0.6829;1.3780;
-135.3000;0.6797;1.3684;
-135.0000;0.6846;1.3876;
-134.7000;0.6854;1.3924;
-134.4000;0.6821;1.3900;
-134.1000;0.6813;1.3924;
-133.8000;0.6862;1.4045;
-133.5000;0.6846;1.4069;
-133.2000;0.6805;1.3924;
-132.9000;0.6838;1.3948;
-132.6000;0.6846;1.3924;
-132.3000;0.6797;1.3780;
-132.0000;0.6838;1.3876;
-131.7000;0.6838;1.3876;
-131.4000;0.6821;1.3756;
-131.1000;0.6854;1.3852;
-130.8000;0.6854;1.3900;
-130.5000;0.6846;1.3804;
-130.2000;0.6862;1.3756;
-129.9000;0.6862;1.3780;
-129.6000;0.6870;1.3804;
-129.3000;0.6838;1.3780;
-129.0000;0.6846;1.3756;
-128.7000;0.6854;1.3780;
-128.4000;0.6854;1.3756;
-128.1000;0.6838;1.3804;
-127.8000;0.6862;1.3852;
-127.5000;0.6854;1.3804;
-127.2000;0.6854;1.3756;
-126.9000;0.6838;1.3708;
-126.6000;0.6846;1.3732;
-126.3000;0.6854;1.3780;
-126.0000;0.6854;1.3708;
-125.7000;0.6878;1.3756;
-125.4000;0.6846;1.3780;
-125.1000;0.6813;1.3732;
-124.8000;0.6862;1.3804;
-124.5000;0.6846;1.3852;
-124.2000;0.6846;1.3804;
-123.9000;0.6846;1.3828;
-123.6000;0.6838;1.3828;
-123.3000;0.6862;1.3780;
-123.0000;0.6838;1.3780;
-122.7000;0.6846;1.3780;
-122.4000;0.6854;1.3756;
-122.1000;0.6886;1.3852;
-121.8000;0.6854;1.3756;
-121.5000;0.6886;1.3924;
-121.2000;0.6862;1.3852;
-120.9000;0.6854;1.3780;
-120.6000;0.6821;1.3780;
-120.3000;0.6846;1.3804;
-120.0000;0.6886;1.3852;
-119.7000;0.6772;1.3636;
-119.4000;0.6870;1.3780;
-119.1000;0.6813;1.3612;
-118.8000;0.6854;1.3708;
-118.5000;0.6878;1.3732;
-118.2000;0.6870;1.3708;
-117.9000;0.6854;1.3660;
-117.6000;0.6854;1.3708;
-117.3000;0.6846;1.3684;
-117.0000;0.6805;1.3660;
-116.7000;0.6919;1.3900;
-116.4000;0.6829;1.3660;
-116.1000;0.6846;1.3708;
-115.8000;0.6846;1.3684;
-115.5000;0.6854;1.3684;
-115.2000;0.6862;1.3732;
-114.9000;0.6854;1.3708;
-114.6000;0.6846;1.3708;
-114.3000;0.6846;1.3588;
-114.0000;0.6813;1.3564;
-113.7000;0.6829;1.3612;
-113.4000;0.6870;1.3732;
-113.1000;0.6829;1.3636;
-112.8000;0.6854;1.3756;
-112.5000;0.6838;1.3732;
-112.2000;0.6838;1.3708;
-111.9000;0.6862;1.3804;
-111.6000;0.6829;1.3732;
-111.3000;0.6838;1.3756;
-111.0000;0.6772;1.3612;
-110.7000;0.6854;1.3780;
-110.4000;0.6862;1.3732;
-110.1000;0.6878;1.3780;
-109.8000;0.6854;1.3732;
-109.5000;0.6854;1.3804;
-109.2000;0.6821;1.3804;
-108.9000;0.6862;1.3852;
-108.6000;0.6846;1.3756;
-108.3000;0.6862;1.3780;
-108.0000;0.6862;1.3708;
-107.7000;0.6854;1.3756;
-107.4000;0.6846;1.3756;
-107.1000;0.6854;1.3828;
-106.8000;0.6846;1.3876;
-106.5000;0.6846;1.3876;
-106.2000;0.6838;1.3828;
-105.9000;0.6846;1.3852;
-105.6000;0.6862;1.3828;
-105.3000;0.6862;1.3900;
-105.0000;0.6878;1.3972;
-104.7000;0.6870;1.3948;
-104.4000;0.6870;1.3828;
-104.1000;0.6854;1.3804;
-103.8000;0.6854;1.3756;
-103.5000;0.6854;1.3804;
-103.2000;0.6854;1.3780;
-102.9000;0.6870;1.3780;
-102.6000;0.6862;1.3732;
-102.3000;0.6862;1.3732;
-102.0000;0.6846;1.3612;
-101.7000;0.6829;1.3588;
-101.4000;0.6838;1.3636;
-101.1000;0.6748;1.3540;
-100.8000;0.6821;1.3708;
-100.5000;0.6846;1.3852;
-100.2000;0.6838;1.3876;
-99.9000;0.6854;1.3876;
-99.6000;0.6821;1.3852;
-99.3000;0.6903;1.3972;
-99.0000;0.6789;1.3732;
-98.7000;0.6846;1.3732;
-98.4000;0.6846;1.3660;
-98.1000;0.6886;1.3852;
-97.8000;0.6829;1.3732;
-97.5000;0.6895;1.3852;
-97.2000;0.6846;1.3684;
-96.9000;0.6854;1.3684;
-96.6000;0.6870;1.3684;
-96.3000;0.6862;1.3660;
-96.0000;0.6789;1.3443;
-95.7000;0.6813;1.3540;
-95.4000;0.6854;1.3588;
-95.1000;0.6895;1.3660;
-94.8000;0.6821;1.3564;
-94.5000;0.6895;1.3708;
-94.2000;0.6813;1.3515;
-93.9000;0.6838;1.3491;
-93.6000;0.6854;1.3540;
-93.3000;0.6829;1.3443;
-93.0000;0.6838;1.3467;
-92.7000;0.6846;1.3491;
-92.4000;0.6854;1.3564;
-92.1000;0.6805;1.3515;
-91.8000;0.6829;1.3684;
-91.5000;0.6846;1.3804;
-91.2000;0.6846;1.3852;
-90.9000;0.6789;1.3756;
-90.6000;0.6846;1.3852;
-90.3000;0.6854;1.3828;
-90.0000;0.6838;1.3780;
-89.7000;0.6846;1.3828;
-89.4000;0.6838;1.3780;
-89.1000;0.6854;1.3828;
-88.8000;0.6862;1.3828;
-88.5000;0.6829;1.3660;
-88.2000;0.6821;1.3732;
-87.9000;0.6895;1.3900;
-87.6000;0.6854;1.3804;
-87.3000;0.6846;1.3756;
-87.0000;0.6935;1.4021;
-86.7000;0.6829;1.3684;
-86.4000;0.6838;1.3756;
-86.1000;0.6838;1.3684;
-85.8000;0.6854;1.3708;
-85.5000;0.6854;1.3684;
-85.2000;0.6829;1.3684;
-84.9000;0.6846;1.3780;
-84.6000;0.6838;1.3708;
-84.3000;0.6829;1.3732;
-84.0000;0.6846;1.3804;
-83.7000;0.6854;1.3828;
-83.4000;0.6854;1.3804;
-83.1000;0.6838;1.3780;
-82.8000;0.6854;1.3828;
-82.5000;0.6846;1.3852;
-82.2000;0.6870;1.3852;
-81.9000;0.6838;1.3756;
-81.6000;0.6797;1.3612;
-81.3000;0.6846;1.3756;
-81.0000;0.6838;1.3708;
-80.7000;0.6846;1.3732;
-80.4000;0.6862;1.3684;
-80.1000;0.6829;1.3708;
-79.8000;0.6903;1.3900;
-79.5000;0.6838;1.3804;
-79.2000;0.6846;1.3828;
-78.9000;0.6813;1.3708;
-78.6000;0.6911;1.3972;
-78.3000;0.6846;1.3756;
-78.0000;0.6829;1.3732;
-77.7000;0.6886;1.3828;
-77.4000;0.6854;1.3780;
-77.1000;0.6846;1.3780;
-76.8000;0.6846;1.3828;
-76.5000;0.6838;1.3852;
-76.2000;0.6862;1.3828;
-75.9000;0.6854;1.3852;
-75.6000;0.6838;1.3756;
-75.3000;0.6838;1.3756;
-75.0000;0.6886;1.3924;
-74.7000;0.6838;1.3804;
-74.4000;0.6838;1.3732;
-74.1000;0.6886;1.3756;
-73.8000;0.6870;1.3756;
-73.5000;0.6838;1.3708;
-73.2000;0.6854;1.3708;
-72.9000;0.6854;1.3732;
-72.6000;0.6903;1.3876;
-72.3000;0.6862;1.3732;
-72.0000;0.6846;1.3636;
-71.7000;0.6821;1.3660;
-71.4000;0.6846;1.3708;
-71.1000;0.6846;1.3708;
-70.8000;0.6846;1.3756;
-70.5000;0.6854;1.3828;
-70.2000;0.6854;1.3756;
-69.9000;0.6862;1.3804;
-69.6000;0.6854;1.3804;
-69.3000;0.6846;1.3780;
-69.0000;0.6838;1.3732;
-68.7000;0.6854;1.3708;
-68.4000;0.6862;1.3756;
-68.1000;0.6838;1.3732;
-67.8000;0.6854;1.3828;
-67.5000;0.6838;1.3756;
-67.2000;0.6846;1.3756;
-66.9000;0.6838;1.3636;
-66.6000;0.6854;1.3684;
-66.3000;0.6886;1.3780;
-66.0000;0.6846;1.3660;
-65.7000;0.6838;1.3684;
-65.4000;0.6838;1.3660;
-65.1000;0.6870;1.3756;
-64.8000;0.6846;1.3780;
-64.5000;0.6854;1.3804;
-64.2000;0.6878;1.3804;
-63.9000;0.6862;1.3804;
-63.6000;0.6854;1.3804;
-63.3000;0.6854;1.3756;
-63.0000;0.6854;1.3732;
-62.7000;0.6846;1.3684;
-62.4000;0.6846;1.3684;
-62.1000;0.6854;1.3684;
-61.8000;0.6846;1.3708;
-61.5000;0.6854;1.3804;
-61.2000;0.6846;1.3828;
-60.9000;0.6846;1.3852;
-60.6000;0.6870;1.3876;
-60.3000;0.6838;1.3804;
-60.0000;0.6854;1.3780;
-59.7000;0.6878;1.3828;
-59.4000;0.6838;1.3780;
-59.1000;0.6838;1.3684;
-58.8000;0.6895;1.3756;
-58.5000;0.6854;1.3588;
-58.2000;0.6870;1.3660;
-57.9000;0.6838;1.3588;
-57.6000;0.6829;1.3564;
-57.3000;0.6862;1.3636;
-57.0000;0.6854;1.3636;
-56.7000;0.6846;1.3612;
-56.4000;0.6870;1.3708;
-56.1000;0.6854;1.3660;
-55.8000;0.6895;1.3660;
-55.5000;0.6838;1.3540;
-55.2000;0.6846;1.3588;
-54.9000;0.6846;1.3660;
-54.6000;0.6878;1.3708;
-54.3000;0.6846;1.3708;
-54.0000;0.6838;1.3804;
-53.7000;0.6838;1.3780;
-53.4000;0.6854;1.3828;
-53.1000;0.6846;1.3828;
-52.8000;0.6838;1.3780;
-52.5000;0.6854;1.3828;
-52.2000;0.6862;1.3804;
-51.9000;0.6854;1.3756;
-51.6000;0.6838;1.3732;
-51.3000;0.6740;1.3467;
-51.0000;0.6846;1.3780;
-50.7000;0.6862;1.3756;
-50.4000;0.6838;1.3636;
-50.1000;0.6829;1.3732;
-49.8000;0.6838;1.3804;
-49.5000;0.6854;1.3780;
-49.2000;0.6895;1.3876;
-48.9000;0.6870;1.3900;
-48.6000;0.6903;1.3948;
-48.3000;0.6846;1.3804;
-48.0000;0.6943;1.3996;
-47.7000;0.6862;1.3828;
-47.4000;0.6821;1.3732;
-47.1000;0.6854;1.3780;
-46.8000;0.6846;1.3876;
-46.5000;0.6821;1.3876;
-46.2000;0.6821;1.3780;
-45.9000;0.6838;1.3708;
-45.6000;0.6854;1.3756;
-45.3000;0.6838;1.3708;
-45.0000;0.6829;1.3684;
-44.7000;0.6829;1.3684;
-44.4000;0.6854;1.3684;
-44.1000;0.6854;1.3756;
-43.8000;0.6846;1.3828;
-43.5000;0.6854;1.3852;
-43.2000;0.6862;1.3828;
-42.9000;0.6854;1.3828;
-42.6000;0.6862;1.3780;
-42.3000;0.6846;1.3732;
-42.0000;0.6862;1.3780;
-41.7000;0.6846;1.3708;
-41.4000;0.6838;1.3660;
-41.1000;0.6838;1.3732;
-40.8000;0.6838;1.3756;
-40.5000;0.6854;1.3852;
-40.2000;0.6854;1.3828;
-39.9000;0.6829;1.3780;
-39.6000;0.6813;1.3780;
-39.3000;0.6846;1.3876;
-39.0000;0.6838;1.3756;
-38.7000;0.6854;1.3732;
-38.4000;0.6854;1.3804;
-38.1000;0.6862;1.3852;
-37.8000;0.6854;1.3780;
-37.5000;0.6854;1.3732;
-37.2000;0.6846;1.3804;
-36.9000;0.6878;1.3828;
-36.6000;0.6854;1.3924;
-36.3000;0.6838;1.3948;
-36.0000;0.6846;1.3972;
-35.7000;0.6870;1.3948;
-35.4000;0.6854;1.3924;
-35.1000;0.6838;1.3876;
-34.8000;0.6854;1.3948;
-34.5000;0.6846;1.3876;
-34.2000;0.6846;1.3924;
-33.9000;0.6911;1.4093;
-33.6000;0.6838;1.3876;
-33.3000;0.6911;1.3996;
-33.0000;0.6870;1.3876;
-32.7000;0.6854;1.3852;
-32.4000;0.6829;1.3804;
-32.1000;0.6870;1.3924;
-31.8000;0.6854;1.3900;
-31.5000;0.6854;1.3948;
-31.2000;0.6846;1.3924;
-30.9000;0.6870;1.4045;
-30.6000;0.6838;1.3924;
-30.3000;0.6813;1.3828;
-30.0000;0.6829;1.3900;
-29.7000;0.6813;1.3924;
-29.4000;0.6838;1.3996;
-29.1000;0.6854;1.3996;
-28.8000;0.6927;1.4213;
-28.5000;0.6838;1.3924;
-28.2000;0.6886;1.4045;
-27.9000;0.6862;1.3948;
-27.6000;0.6846;1.3924;
-27.3000;0.6821;1.3924;
-27.0000;0.6895;1.4069;
-26.7000;0.6829;1.3972;
-26.4000;0.6838;1.3948;
-26.1000;0.6878;1.3948;
-25.8000;0.6829;1.3828;
-25.5000;0.6846;1.3852;
-25.2000;0.6878;1.3900;
-24.9000;0.6838;1.3804;
-24.6000;0.6846;1.3828;
-24.3000;0.6862;1.3780;
-24.0000;0.6854;1.3852;
-23.7000;0.6854;1.3876;
-23.4000;0.6862;1.3852;
-23.1000;0.6878;1.3804;
-22.8000;0.6927;1.3900;
-22.5000;0.6854;1.3756;
-22.2000;0.6870;1.3852;
-21.9000;0.6756;1.3684;
-21.6000;0.6870;1.3972;
-21.3000;0.6829;1.3900;
-21.0000;0.6829;1.3924;
-20.7000;0.6846;1.3876;
-20.4000;0.6789;1.3756;
-20.1000;0.6838;1.3828;
-19.8000;0.6838;1.3876;
-19.5000;0.6846;1.3828;
-19.2000;0.6862;1.3780;
-18.9000;0.6846;1.3780;
-18.6000;0.6862;1.3876;
-18.3000;0.6829;1.3828;
-18.0000;0.6846;1.3828;
-17.7000;0.6854;1.3948;
-17.4000;0.6813;1.3924;
-17.1000;0.6846;1.3972;
-16.8000;0.6821;1.3924;
-16.5000;0.6846;1.3876;
-16.2000;0.6838;1.3876;
-15.9000;0.6838;1.3876;
-15.6000;0.6829;1.3852;
-15.3000;0.6854;1.3924;
-15.0000;0.6821;1.3828;
-14.7000;0.6838;1.3828;
-14.4000;0.6821;1.3828;
-14.1000;0.6862;1.3972;
-13.8000;0.6870;1.3900;
-13.5000;0.6854;1.3852;
-13.2000;0.6854;1.3852;
-12.9000;0.6846;1.3828;
-12.6000;0.6846;1.3804;
-12.3000;0.6854;1.3780;
-12.0000;0.6854;1.3780;
-11.7000;0.6927;1.4093;
-11.4000;0.6862;1.3900;
-11.1000;0.6846;1.3900;
-10.8000;0.6829;1.3876;
-10.5000;0.6862;1.3900;
-10.2000;0.6854;1.3828;
-9.9000;0.6854;1.3804;
-9.6000;0.6903;1.3972;
-9.3000;0.6846;1.3828;
-9.0000;0.6854;1.3852;
-8.7000;0.6854;1.3852;
-8.4000;0.6829;1.3876;
-8.1000;0.6854;1.3924;
-7.8000;0.6846;1.3900;
-7.5000;0.6854;1.3900;
-7.2000;0.6789;1.3756;
-6.9000;0.6854;1.3828;
-6.6000;0.6821;1.3780;
-6.3000;0.6821;1.3708;
-6.0000;0.6846;1.3708;
-5.7000;0.6886;1.3708;
-5.4000;0.6862;1.3684;
-5.1000;0.6862;1.3828;
-4.8000;0.6854;1.3732;
-4.5000;0.6838;1.3756;
-4.2000;0.6846;1.3756;
-3.9000;0.6895;1.3900;
-3.6000;0.6878;1.3924;
-3.3000;0.6927;1.3924;
-3.0000;0.6789;1.3660;
-2.7000;0.6797;1.3660;
-2.4000;0.6854;1.3828;
-2.1000;0.6748;1.3636;
-1.8000;0.6846;1.3828;
-1.5000;0.6829;1.3756;
-1.2000;0.6846;1.3804;
-0.9000;0.6862;1.3804;
-0.6000;0.6846;1.3780;
-0.3000;0.6886;1.3852;
0.0000;0.6886;1.3852;
0.3000;0.7147;1.3515;
0.6000;0.7635;1.3948;
0.9000;0.8050;1.4429;
1.2000;0.8344;1.4886;
1.5000;0.8580;1.5247;
1.8000;0.8726;1.5487;
2.1000;0.8930;1.5776;
2.4000;0.9052;1.5872;
2.7000;0.9141;1.5968;
3.0000;0.9263;1.6185;
3.3000;0.9361;1.6281;
3.6000;0.9426;1.6233;
3.9000;0.9491;1.6401;
4.2000;0.9556;1.6449;
4.5000;0.9621;1.6377;
4.8000;0.9678;1.6425;
5.1000;0.9744;1.6546;
5.4000;0.9809;1.6498;
5.7000;0.9849;1.6498;
6.0000;0.9898;1.6449;
6.3000;0.9947;1.6425;
6.6000;0.9939;1.6257;
6.9000;1.0037;1.6473;
7.2000;1.0085;1.6498;
7.5000;1.0126;1.6546;
7.8000;1.0159;1.6473;
8.1000;1.0191;1.6425;
8.4000;1.0224;1.6498;
8.7000;1.0256;1.6570;
9.0000;1.0297;1.6618;
9.3000;1.0362;1.6594;
9.6000;1.0354;1.6498;
9.9000;1.0444;1.6690;
10.2000;1.0419;1.6594;
10.5000;1.0444;1.6570;
10.8000;1.0468;1.6473;
11.1000;1.0517;1.6570;
11.4000;1.0549;1.6618;
11.7000;1.0558;1.6642;
12.0000;1.0582;1.6666;
12.3000;1.0606;1.6738;
12.6000;1.0631;1.6834;
12.9000;1.0647;1.6858;
13.2000;1.0672;1.6810;
13.5000;1.0680;1.6762;
13.8000;1.0704;1.6738;
14.1000;1.0729;1.6786;
14.4000;1.0826;1.6954;
14.7000;1.0761;1.6642;
15.0000;1.0786;1.6714;
15.3000;1.0777;1.6714;
15.6000;1.0794;1.6762;
15.9000;1.0834;1.6762;
16.2000;1.0818;1.6690;
16.5000;1.0859;1.6690;
16.8000;1.0883;1.6714;
17.1000;1.0842;1.6546;
17.4000;1.0899;1.6618;
17.7000;1.0883;1.6618;
18.0000;1.0842;1.6594;
18.3000;1.0908;1.6690;
18.6000;1.0924;1.6714;
18.9000;1.0940;1.6738;
19.2000;1.0940;1.6738;
19.5000;1.0956;1.6714;
19.8000;1.0973;1.6690;
20.1000;1.0965;1.6738;
20.4000;1.0973;1.6762;
20.7000;1.0981;1.6714;
21.0000;1.0948;1.6618;
21.3000;1.0989;1.6666;
21.6000;1.1013;1.6618;
21.9000;1.1062;1.6690;
22.2000;1.1030;1.6498;
22.5000;1.1030;1.6473;
22.8000;1.1054;1.6546;
23.1000;1.1054;1.6594;
23.4000;1.1054;1.6498;
23.7000;1.1030;1.6473;
24.0000;1.1070;1.6498;
24.3000;1.1070;1.6546;
24.6000;1.1079;1.6594;
24.9000;1.1054;1.6498;
25.2000;1.1087;1.6594;
25.5000;1.1087;1.6618;
25.8000;1.1103;1.6594;
26.1000;1.1103;1.6642;
26.4000;1.1103;1.6690;
26.7000;1.1144;1.6786;
27.0000;1.1111;1.6666;
27.3000;1.1111;1.6570;
27.6000;1.1119;1.6666;
27.9000;1.1119;1.6714;
28.2000;1.1119;1.6690;
28.5000;1.1127;1.6690;
28.8000;1.1062;1.6546;
29.1000;1.1144;1.6738;
29.4000;1.1152;1.6618;
29.7000;1.1136;1.6570;
30.0000;1.1144;1.6618;
30.3000;1.1152;1.6594;
30.6000;1.1168;1.6522;
30.9000;1.1176;1.6594;
31.2000;1.1193;1.6594;
31.5000;1.1184;1.6546;
31.8000;1.1176;1.6618;
32.1000;1.1168;1.6546;
32.4000;1.1160;1.6449;
32.7000;1.1201;1.6546;
33.0000;1.1209;1.6498;
33.3000;1.1217;1.6473;
33.6000;1.1233;1.6449;
33.9000;1.1136;1.6209;
34.2000;1.1144;1.6377;
34.5000;1.1225;1.6642;
34.8000;1.1201;1.6546;
35.1000;1.1201;1.6642;
35.4000;1.1258;1.6762;
35.7000;1.1225;1.6714;
36.0000;1.1193;1.6666;
36.3000;1.1209;1.6666;
36.6000;1.1184;1.6594;
36.9000;1.1225;1.6666;
37.2000;1.1225;1.6690;
37.5000;1.1225;1.6666;
37.8000;1.1136;1.6401;
38.1000;1.1225;1.6714;
38.4000;1.1201;1.6618;
38.7000;1.1225;1.6618;
39.0000;1.1225;1.6618;
39.3000;1.1225;1.6594;
39.6000;1.1225;1.6594;
39.9000;1.1225;1.6594;
40.2000;1.1241;1.6546;
40.5000;1.1233;1.6498;
40.8000;1.1201;1.6522;
41.1000;1.1241;1.6594;
41.4000;1.1241;1.6546;
41.7000;1.1249;1.6546;
42.0000;1.1266;1.6522;
42.3000;1.1258;1.6546;
42.6000;1.1258;1.6618;
42.9000;1.1274;1.6618;
43.2000;1.1209;1.6594;
43.5000;1.1339;1.6858;
43.8000;1.1249;1.6570;
44.1000;1.1258;1.6642;
44.4000;1.1241;1.6618;
44.7000;1.1258;1.6618;
45.0000;1.1266;1.6738;
45.3000;1.1266;1.6714;
45.6000;1.1258;1.6738;
45.9000;1.1274;1.6786;
46.2000;1.1306;1.6834;
46.5000;1.1274;1.6858;
46.8000;1.1274;1.6858;
47.1000;1.1249;1.6786;
47.4000;1.1274;1.6882;
47.7000;1.1249;1.6810;
48.0000;1.1282;1.6810;
48.3000;1.1282;1.6786;
48.6000;1.1290;1.6738;
48.9000;1.1282;1.6738;
49.2000;1.1258;1.6738;
49.5000;1.1249;1.6714;
49.8000;1.1233;1.6666;
50.1000;1.1306;1.6858;
50.4000;1.1249;1.6786;
50.7000;1.1290;1.6834;
51.0000;1.1274;1.6810;
51.3000;1.1266;1.6858;
51.6000;1.1233;1.6738;
51.9000;1.1274;1.6786;
52.2000;1.1290;1.6834;
52.5000;1.1282;1.6882;
52.8000;1.1274;1.6786;
53.1000;1.1298;1.6834;
53.4000;1.1266;1.6714;
53.7000;1.1290;1.6858;
54.0000;1.1298;1.6810;
54.3000;1.1282;1.6834;
54.6000;1.1282;1.6810;
54.9000;1.1298;1.6834;
55.2000;1.1306;1.6786;
55.5000;1.1282;1.6690;
55.8000;1.1290;1.6666;
56.1000;1.1298;1.6642;
56.4000;1.1274;1.6594;
56.7000;1.1290;1.6690;
57.0000;1.1315;1.6690;
57.3000;1.1306;1.6762;
57.6000;1.1306;1.6786;
57.9000;1.1306;1.6786;
58.2000;1.1282;1.6594;
58.5000;1.1217;1.6570;
58.8000;1.1306;1.6786;
59.1000;1.1315;1.6858;
59.4000;1.1298;1.6738;
59.7000;1.1298;1.6666;
60.0000;1.1315;1.6642;
60.3000;1.1290;1.6570;
60.6000;1.1363;1.6714;
60.9000;1.1298;1.6618;
61.2000;1.1306;1.6714;
61.5000;1.1306;1.6618;
61.8000;1.1298;1.6666;
62.1000;1.1193;1.6473;
62.4000;1.1298;1.6714;
62.7000;1.1290;1.6690;
63.0000;1.1323;1.6810;
63.3000;1.1282;1.6714;
63.6000;1.1323;1.6882;
63.9000;1.1347;1.6906;
64.2000;1.1298;1.6762;
64.5000;1.1323;1.6786;
64.8000;1.1323;1.6786;
65.1000;1.1315;1.6810;
65.4000;1.1306;1.6762;
65.7000;1.1290;1.6714;
66.0000;1.1380;1.6954;
66.3000;1.1241;1.6570;
66.6000;1.1298;1.6762;
66.9000;1.1298;1.6714;
67.2000;1.1298;1.6738;
67.5000;1.1258;1.6666;
67.8000;1.1298;1.6786;
68.1000;1.1331;1.6834;
68.4000;1.1306;1.6762;
68.7000;1.1306;1.6714;
69.0000;1.1323;1.6762;
69.3000;1.1323;1.6762;
69.6000;1.1298;1.6786;
69.9000;1.1306;1.6738;
70.2000;1.1388;1.6954;
70.5000;1.1306;1.6834;
70.8000;1.1290;1.6786;
71.1000;1.1282;1.6834;
71.4000;1.1306;1.6906;
71.7000;1.1315;1.6834;
72.0000;1.1306;1.6882;
72.3000;1.1290;1.6906;
72.6000;1.1339;1.6906;
72.9000;1.1331;1.6834;
73.2000;1.1315;1.6810;
73.5000;1.1306;1.6714;
73.8000;1.1331;1.6834;
74.1000;1.1323;1.6834;
74.4000;1.1306;1.6762;
74.7000;1.1339;1.6738;
75.0000;1.1331;1.6618;
75.3000;1.1323;1.6642;
75.6000;1.1315;1.6642;
75.9000;1.1315;1.6666;
76.2000;1.1306;1.6642;
76.5000;1.1323;1.6642;
76.8000;1.1331;1.6714;
77.1000;1.1282;1.6666;
77.4000;1.1306;1.6642;
77.7000;1.1339;1.6738;
78.0000;1.1323;1.6690;
78.3000;1.1331;1.6738;
78.6000;1.1331;1.6714;
78.9000;1.1315;1.6594;
79.2000;1.1315;1.6714;
79.5000;1.1315;1.6738;
79.8000;1.1315;1.6690;
80.1000;1.1323;1.6714;
80.4000;1.1363;1.6738;
80.7000;1.1298;1.6570;
81.0000;1.1298;1.6546;
81.3000;1.1412;1.6786;
81.6000;1.1306;1.6570;
81.9000;1.1347;1.6594;
82.2000;1.1323;1.6522;
82.5000;1.1241;1.6329;
82.8000;1.1315;1.6473;
83.1000;1.1315;1.6546;
83.4000;1.1347;1.6666;
83.7000;1.1306;1.6570;
84.0000;1.1339;1.6594;
84.3000;1.1315;1.6546;
84.6000;1.1323;1.6594;
84.9000;1.1282;1.6594;
85.2000;1.1347;1.6858;
85.5000;1.1339;1.6810;
85.8000;1.1331;1.6690;
86.1000;1.1331;1.6762;
86.4000;1.1315;1.6834;
86.7000;1.1315;1.6882;
87.0000;1.1363;1.6979;
87.3000;1.1331;1.6810;
87.6000;1.1306;1.6738;
87.9000;1.1331;1.6738;
88.2000;1.1331;1.6714;
88.5000;1.1315;1.6858;
88.8000;1.1315;1.6882;
89.1000;1.1306;1.6810;
89.4000;1.1372;1.6858;
89.7000;1.1323;1.6762;
90.0000;1.1323;1.6762;
90.3000;1.1347;1.6786;
90.6000;1.1331;1.6810;
90.9000;1.1315;1.6786;
91.2000;1.1298;1.6690;
91.5000;1.1306;1.6714;
91.8000;1.1339;1.6690;
92.1000;1.1347;1.6786;
92.4000;1.1323;1.6714;
92.7000;1.1323;1.6738;
93.0000;1.1315;1.6690;
93.3000;1.1323;1.6594;
93.6000;1.1306;1.6425;
93.9000;1.1331;1.6498;
94.2000;1.1323;1.6570;
94.5000;1.1323;1.6570;
94.8000;1.1331;1.6642;
95.1000;1.1323;1.6618;
95.4000;1.1323;1.6666;
95.7000;1.1323;1.6690;
96.0000;1.1315;1.6642;
96.3000;1.1323;1.6618;
96.6000;1.1331;1.6618;
96.9000;1.1331;1.6666;
97.2000;1.1331;1.6690;
97.5000;1.1306;1.6642;
97.8000;1.1363;1.6834;
98.1000;1.1315;1.6642;
98.4000;1.1298;1.6690;
98.7000;1.1315;1.6690;
99.0000;1.1323;1.6714;
99.3000;1.1323;1.6714;
99.6000;1.1315;1.6666;
99.9000;1.1306;1.6690;
100.2000;1.1315;1.6762;
100.5000;1.1323;1.6762;
100.8000;1.1306;1.6810;
101.1000;1.1306;1.6786;
101.4000;1.1306;1.6738;
101.7000;1.1315;1.6786;
102.0000;1.1323;1.6810;
102.3000;1.1331;1.6786;
102.6000;1.1315;1.6690;
102.9000;1.1323;1.6666;
103.2000;1.1339;1.6690;
103.5000;1.1323;1.6618;
103.8000;1.1331;1.6594;
104.1000;1.1290;1.6522;
104.4000;1.1290;1.6618;
104.7000;1.1315;1.6642;
105.0000;1.1298;1.6594;
105.3000;1.1306;1.6618;
105.6000;1.1323;1.6666;
105.9000;1.1323;1.6594;
106.2000;1.1355;1.6618;
106.5000;1.1266;1.6473;
106.8000;1.1315;1.6546;
107.1000;1.1306;1.6594;
107.4000;1.1315;1.6690;
107.7000;1.1315;1.6642;
108.0000;1.1315;1.6714;
108.3000;1.1323;1.6738;
108.6000;1.1315;1.6666;
108.9000;1.1339;1.6762;
109.2000;1.1380;1.6906;
109.5000;1.1331;1.6738;
109.8000;1.1363;1.6834;
110.1000;1.1315;1.6714;
110.4000;1.1306;1.6786;
110.7000;1.1339;1.6834;
111.0000;1.1306;1.6762;
111.3000;1.1306;1.6690;
111.6000;1.1323;1.6642;
111.9000;1.1363;1.6690;
112.2000;1.1331;1.6666;
112.5000;1.1331;1.6546;
112.8000;1.1331;1.6498;
113.1000;1.1331;1.6522;
113.4000;1.1290;1.6425;
113.7000;1.1315;1.6473;
114.0000;1.1347;1.6498;
114.3000;1.1184;1.6089;
114.6000;1.1331;1.6377;
114.9000;1.1339;1.6377;
115.2000;1.1323;1.6449;
115.5000;1.1315;1.6498;
115.8000;1.1347;1.6570;
116.1000;1.1331;1.6473;
116.4000;1.1347;1.6498;
116.7000;1.1331;1.6449;
117.0000;1.1339;1.6498;
117.3000;1.1323;1.6498;
117.6000;1.1339;1.6498;
117.9000;1.1339;1.6473;
118.2000;1.1347;1.6546;
118.5000;1.1323;1.6594;
118.8000;1.1306;1.6594;
119.1000;1.1323;1.6642;
119.4000;1.1347;1.6642;
119.7000;1.1339;1.6618;
120.0000;1.1331;1.6594;
120.3000;1.1339;1.6618;
120.6000;1.1315;1.6522;
120.9000;1.1315;1.6522;
121.2000;1.1306;1.6522;
121.5000;1.1331;1.6690;
121.8000;1.1323;1.6690;
122.1000;1.1331;1.6714;
122.4000;1.1323;1.6666;
122.7000;1.1323;1.6594;
123.0000;1.1315;1.6546;
123.3000;1.1323;1.6498;
123.6000;1.1331;1.6498;
123.9000;1.1306;1.6449;
124.2000;1.1347;1.6546;
124.5000;1.1315;1.6522;
124.8000;1.1339;1.6666;
125.1000;1.1331;1.6618;
125.4000;1.1339;1.6570;
125.7000;1.1298;1.6473;
126.0000;1.1315;1.6473;
126.3000;1.1372;1.6546;
126.6000;1.1396;1.6714;
126.9000;1.1323;1.6546;
127.2000;1.1306;1.6546;
127.5000;1.1363;1.6642;
127.8000;1.1331;1.6522;
128.1000;1.1315;1.6473;
128.4000;1.1372;1.6618;
128.7000;1.1323;1.6666;
129.0000;1.1282;1.6570;
129.3000;1.1274;1.6570;
129.6000;1.1249;1.6498;
129.9000;1.1331;1.6738;
130.2000;1.1331;1.6810;
130.5000;1.1331;1.6690;
130.8000;1.1323;1.6714;
131.1000;1.1306;1.6618;
131.4000;1.1420;1.6930;
131.7000;1.1306;1.6570;
132.0000;1.1298;1.6570;
132.3000;1.1315;1.6666;
132.6000;1.1339;1.6714;
132.9000;1.1323;1.6642;
133.2000;1.1323;1.6738;
133.5000;1.1323;1.6714;
133.8000;1.1282;1.6690;
134.1000;1.1323;1.6762;
134.4000;1.1323;1.6738;
134.7000;1.1315;1.6738;
135.0000;1.1347;1.6738;
135.3000;1.1323;1.6690;
135.6000;1.1306;1.6690;
135.9000;1.1306;1.6714;
136.2000;1.1323;1.6714;
136.5000;1.1315;1.6594;
136.8000;1.1290;1.6498;
137.1000;1.1315;1.6546;
137.4000;1.1306;1.6642;
137.7000;1.1315;1.6786;
138.0000;1.1323;1.6762;
138.3000;1.1323;1.6738;
138.6000;1.1323;1.6738;
138.9000;1.1372;1.6882;
139.2000;1.1274;1.6690;
139.5000;1.1315;1.6690;
139.8000;1.1331;1.6666;
140.1000;1.1331;1.6594;
140.4000;1.1306;1.6473;
140.7000;1.1306;1.6618;
141.0000;1.1306;1.6546;
141.3000;1.1315;1.6594;
141.6000;1.1323;1.6546;
141.9000;1.1331;1.6570;
142.2000;1.1298;1.6522;
142.5000;1.1315;1.6570;
142.8000;1.1323;1.6570;
143.1000;1.1331;1.6594;
143.4000;1.1331;1.6642;
143.7000;1.1323;1.6738;
144.0000;1.1363;1.6834;
144.3000;1.1339;1.6762;
144.6000;1.1339;1.6786;
144.9000;1.1306;1.6690;
145.2000;1.1339;1.6762;
145.5000;1.1306;1.6786;
145.8000;1.1306;1.6762;
146.1000;1.1290;1.6690;
146.4000;1.1323;1.6714;
146.7000;1.1331;1.6714;
147.0000;1.1290;1.6618;
147.3000;1.1363;1.6810;
147.6000;1.1282;1.6570;
147.9000;1.1315;1.6570;
148.2000;1.1331;1.6570;
148.5000;1.1290;1.6594;
148.8000;1.1323;1.6618;
149.1000;1.1347;1.6642;
149.4000;1.1315;1.6642;
149.7000;1.1323;1.6666;
150.0000;1.1315;1.6690;
150.3000;1.1331;1.6810;
150.6000;1.1339;1.6882;
150.9000;1.1339;1.6738;
151.2000;1.1323;1.6690;
151.5000;1.1323;1.6690;
151.8000;1.1331;1.6594;
152.1000;1.1331;1.6666;
152.4000;1.1315;1.6666;
152.7000;1.1323;1.6714;
153.0000;1.1331;1.6714;
153.3000;1.1331;1.6690;
153.6000;1.1339;1.6762;
153.9000;1.1323;1.6714;
154.2000;1.1396;1.6834;
154.5000;1.1339;1.6714;
154.8000;1.1323;1.6642;
155.1000;1.1323;1.6570;
155.4000;1.1347;1.6570;
155.7000;1.1323;1.6498;
156.0000;1.1323;1.6570;
156.3000;1.1331;1.6546;
156.6000;1.1315;1.6570;
156.9000;1.1331;1.6642;
157.2000;1.1323;1.6642;
157.5000;1.1323;1.6618;
157.8000;1.1315;1.6546;
158.1000;1.1331;1.6570;
158.4000;1.1331;1.6690;
158.7000;1.1323;1.6738;
159.0000;1.1274;1.6642;
159.3000;1.1347;1.6786;
159.6000;1.1331;1.6738;
159.9000;1.1315;1.6786;
160.2000;1.1331;1.6786;
160.5000;1.1339;1.6762;
160.8000;1.1420;1.6954;
161.1000;1.1306;1.6690;
161.4000;1.1306;1.6714;
161.7000;1.1323;1.6690;
162.0000;1.1282;1.6642;
162.3000;1.1306;1.6666;
162.6000;1.1290;1.6690;
162.9000;1.1315;1.6690;
163.2000;1.1323;1.6690;
163.5000;1.1323;1.6642;
163.8000;1.1412;1.6930;
164.1000;1.1331;1.6690;
164.4000;1.1323;1.6666;
164.7000;1.1323;1.6738;
165.0000;1.1323;1.6738;
165.3000;1.1298;1.6594;
165.6000;1.1323;1.6666;
165.9000;1.1258;1.6570;
166.2000;1.1306;1.6762;
166.5000;1.1323;1.6762;
166.8000;1.1331;1.6714;
167.1000;1.1323;1.6690;
167.4000;1.1323;1.6666;
167.7000;1.1306;1.6714;
168.0000;1.1315;1.6666;
168.3000;1.1323;1.6762;
168.6000;1.1282;1.6642;
168.9000;1.1315;1.6666;
169.2000;1.1315;1.6642;
169.5000;1.1323;1.6690;
169.8000;1.1331;1.6738;
170.1000;1.1298;1.6618;
170.4000;1.1315;1.6738;
170.7000;1.1315;1.6714;
171.0000;1.1315;1.6762;
171.3000;1.1315;1.6738;
171.6000;1.1306;1.6618;
171.9000;1.1315;1.6522;
172.2000;1.1331;1.6570;
172.5000;1.1331;1.6522;
172.8000;1.1315;1.6449;
173.1000;1.1331;1.6449;
173.4000;1.1331;1.6498;
173.7000;1.1339;1.6498;
174.0000;1.1315;1.6498;
174.3000;1.1306;1.6449;
174.6000;1.1331;1.6618;
174.9000;1.1290;1.6522;
175.2000;1.1315;1.6594;
175.5000;1.1331;1.6570;
175.8000;1.1323;1.6570;
176.1000;1.1290;1.6425;
176.4000;1.1323;1.6546;
176.7000;1.1306;1.6425;
177.0000;1.1306;1.6449;
177.3000;1.1323;1.6546;
177.6000;1.1306;1.6498;
177.9000;1.1290;1.6473;
178.2000;1.1306;1.6522;
178.5000;1.1331;1.6498;
178.8000;1.1323;1.6449;
179.1000;1.1315;1.6473;
179.4000;1.1298;1.6425;
179.7000;1.1315;1.6353;
180.0000;1.1306;1.6425;
180.3000;1.1290;1.6377;
180.6000;1.1306;1.6449;
180.9000;1.1290;1.6401;
181.2000;1.1290;1.6401;
181.5000;1.1315;1.6425;
181.8000;1.1217;1.6209;
182.1000;1.1306;1.6473;
182.4000;1.1306;1.6570;
182.7000;1.1298;1.6642;
183.0000;1.1306;1.6618;
183.3000;1.1339;1.6714;
183.6000;1.1315;1.6714;
183.9000;1.1339;1.6762;
184.2000;1.1315;1.6666;
184.5000;1.1298;1.6594;
184.8000;1.1323;1.6618;
185.1000;1.1282;1.6642;
185.4000;1.1363;1.6882;
185.7000;1.1290;1.6786;
186.0000;1.1347;1.6930;
186.3000;1.1306;1.6834;
186.6000;1.1315;1.6810;
186.9000;1.1266;1.6594;
187.2000;1.1323;1.6762;
187.5000;1.1306;1.6738;
187.8000;1.1315;1.6762;
188.1000;1.1298;1.6690;
188.4000;1.1298;1.6666;
188.7000;1.1315;1.6642;
189.0000;1.1331;1.6738;
189.3000;1.1339;1.6786;
189.6000;1.1323;1.6690;
189.9000;1.1331;1.6690;
190.2000;1.1363;1.6762;
190.5000;1.1315;1.6546;
190.8000;1.1323;1.6522;
191.1000;1.1290;1.6377;
191.4000;1.1323;1.6449;
191.7000;1.1290;1.6401;
192.0000;1.1306;1.6425;
192.3000;1.1298;1.6377;
192.6000;1.1339;1.6449;
192.9000;1.1306;1.6449;
193.2000;1.1306;1.6498;
193.5000;1.1298;1.6546;
193.8000;1.1355;1.6786;
194.1000;1.1306;1.6642;
194.4000;1.1331;1.6666;
194.7000;1.1331;1.6666;
195.0000;1.1339;1.6690;
195.3000;1.1298;1.6714;
195.6000;1.1298;1.6690;
195.9000;1.1298;1.6666;
196.2000;1.1323;1.6642;
196.5000;1.1315;1.6594;
196.8000;1.1298;1.6594;
197.1000;1.1396;1.6762;
197.4000;1.1298;1.6594;
197.7000;1.1298;1.6642;
198.0000;1.1290;1.6594;
198.3000;1.1363;1.6786;
198.6000;1.1306;1.6642;
198.9000;1.1323;1.6666;
199.2000;1.1347;1.6714;
199.5000;1.1306;1.6666;
199.8000;1.1298;1.6690;
200.1000;1.1306;1.6690;
200.4000;1.1347;1.6882;
200.7000;1.1298;1.6690;
201.0000;1.1306;1.6762;
201.3000;1.1306;1.6786;
201.6000;1.1298;1.6786;
201.9000;1.1298;1.6666;
202.2000;1.1274;1.6546;
202.5000;1.1306;1.6690;
202.8000;1.1315;1.6762;
203.1000;1.1339;1.6858;
203.4000;1.1241;1.6666;
203.7000;1.1282;1.6810;
204.0000;1.1315;1.6954;
204.3000;1.1290;1.6858;
204.6000;1.1306;1.6834;
204.9000;1.1217;1.6618;
205.2000;1.1315;1.6762;
205.5000;1.1306;1.6714;
205.8000;1.1298;1.6714;
206.1000;1.1290;1.6762;
206.4000;1.1323;1.6762;
206.7000;1.1306;1.6738;
207.0000;1.1323;1.6810;
207.3000;1.1306;1.6810;
207.6000;1.1274;1.6738;
207.9000;1.1290;1.6642;
208.2000;1.1306;1.6738;
208.5000;1.1306;1.6714;
208.8000;1.1298;1.6690;
209.1000;1.1298;1.6762;
209.4000;1.1298;1.6786;
209.7000;1.1306;1.6786;
210.0000;1.1290;1.6882;
210.3000;1.1323;1.6954;
210.6000;1.1315;1.6882;
210.9000;1.1306;1.6810;
211.2000;1.1315;1.6738;
211.5000;1.1306;1.6666;
211.8000;1.1306;1.6666;
212.1000;1.1298;1.6666;
212.4000;1.1282;1.6666;
212.7000;1.1298;1.6642;
213.0000;1.1306;1.6618;
213.3000;1.1298;1.6618;
213.6000;1.1298;1.6522;
213.9000;1.1306;1.6618;
214.2000;1.1282;1.6642;
214.5000;1.1290;1.6618;
214.8000;1.1298;1.6546;
215.1000;1.1282;1.6449;
215.4000;1.1331;1.6618;
215.7000;1.1306;1.6570;
216.0000;1.1298;1.6570;
216.3000;1.1298;1.6642;
216.6000;1.1355;1.6738;
216.9000;1.1306;1.6570;
217.2000;1.1339;1.6618;
217.5000;1.1298;1.6570;
217.8000;1.1290;1.6570;
218.1000;1.1306;1.6690;
218.4000;1.1290;1.6642;
218.7000;1.1298;1.6642;
219.0000;1.1315;1.6666;
219.3000;1.1306;1.6690;
219.6000;1.1306;1.6666;
219.9000;1.1290;1.6594;
220.2000;1.1298;1.6666;
220.5000;1.1347;1.6690;
220.8000;1.1290;1.6546;
221.1000;1.1290;1.6498;
221.4000;1.1282;1.6522;
221.7000;1.1298;1.6738;
222.0000;1.1282;1.6786;
222.3000;1.1298;1.6810;
222.6000;1.1266;1.6690;
222.9000;1.1298;1.6738;
223.2000;1.1282;1.6642;
223.5000;1.1331;1.6690;
223.8000;1.1306;1.6666;
224.1000;1.1306;1.6618;
224.4000;1.1282;1.6594;
224.7000;1.1282;1.6642;
225.0000;1.1274;1.6666;
225.3000;1.1298;1.6738;
225.6000;1.1290;1.6762;
225.9000;1.1315;1.6762;
226.2000;1.1298;1.6738;
226.5000;1.1290;1.6714;
226.8000;1.1323;1.6714;
227.1000;1.1306;1.6594;
227.4000;1.1290;1.6546;
227.7000;1.1298;1.6522;
228.0000;1.1290;1.6546;
228.3000;1.1323;1.6594;
228.6000;1.1306;1.6618;
228.9000;1.1315;1.6714;
229.2000;1.1306;1.6642;
229.5000;1.1315;1.6642;
229.8000;1.1315;1.6618;
230.1000;1.1306;1.6666;
230.4000;1.1306;1.6690;
230.7000;1.1331;1.6666;
231.0000;1.1298;1.6666;
231.3000;1.1306;1.6618;
231.6000;1.1298;1.6666;
231.9000;1.1249;1.6570;
232.2000;1.1306;1.6810;
232.5000;1.1323;1.6810;
232.8000;1.1355;1.6858;
233.1000;1.1298;1.6690;
233.4000;1.1315;1.6714;
233.7000;1.1298;1.6786;
234.0000;1.1323;1.6858;
234.3000;1.1298;1.6810;
234.6000;1.1306;1.6738;
234.9000;1.1315;1.6786;
235.2000;1.1380;1.6906;
235.5000;1.1315;1.6666;
235.8000;1.1306;1.6666;
236.1000;1.1306;1.6642;
236.4000;1.1306;1.6594;
236.7000;1.1298;1.6498;
237.0000;1.1298;1.6522;
237.3000;1.1331;1.6618;
237.6000;1.1282;1.6546;
237.9000;1.1306;1.6546;
238.2000;1.1298;1.6522;
238.5000;1.1306;1.6522;
238.8000;1.1282;1.6473;
239.1000;1.1233;1.6281;
239.4000;1.1290;1.6425;
239.7000;1.1323;1.6522;
240.0000;1.1323;1.6594;
240.3000;1.1274;1.6449;
240.6000;1.1315;1.6522;
240.9000;1.1298;1.6570;
241.2000;1.1323;1.6690;
241.5000;1.1315;1.6762;
241.8000;1.1315;1.6714;
242.1000;1.1347;1.6738;
242.4000;1.1274;1.6666;
242.7000;1.1290;1.6738;
243.0000;1.1290;1.6786;
243.3000;1.1298;1.6666;
243.6000;1.1290;1.6714;
243.9000;1.1290;1.6690;
244.2000;1.1274;1.6618;
244.5000;1.1298;1.6666;
244.8000;1.1315;1.6690;
245.1000;1.1315;1.6738;
245.4000;1.1258;1.6570;
245.7000;1.1298;1.6690;
246.0000;1.1315;1.6690;
246.3000;1.1282;1.6618;
246.6000;1.1315;1.6666;
246.9000;1.1306;1.6618;
247.2000;1.1323;1.6618;
247.5000;1.1323;1.6690;
247.8000;1.1315;1.6618;
248.1000;1.1282;1.6594;
248.4000;1.1380;1.6738;
248.7000;1.1298;1.6666;
249.0000;1.1306;1.6714;
249.3000;1.1274;1.6714;
249.6000;1.1282;1.6810;
249.9000;1.1323;1.6930;
250.2000;1.1290;1.6738;
250.5000;1.1298;1.6786;
250.8000;1.1290;1.6786;
251.1000;1.1315;1.6858;
251.4000;1.1290;1.6810;
251.7000;1.1290;1.6738;
252.0000;1.1282;1.6738;
252.3000;1.1290;1.6786;
252.6000;1.1282;1.6858;
252.9000;1.1266;1.6930;
253.2000;1.1282;1.6906;
253.5000;1.1290;1.6906;
253.8000;1.1290;1.6882;
254.1000;1.1290;1.6858;
254.4000;1.1306;1.6882;
254.7000;1.1282;1.6882;
255.0000;1.1298;1.6930;
255.3000;1.1290;1.6979;
255.6000;1.1274;1.6906;
255.9000;1.1298;1.6882;
256.2000;1.1290;1.6979;
256.5000;1.1306;1.6882;
256.8000;1.1282;1.6810;
257.1000;1.1306;1.6882;
257.4000;1.1290;1.6810;
257.7000;1.1290;1.6858;
258.0000;1.1282;1.6834;
258.3000;1.1290;1.6834;
258.6000;1.1298;1.6810;
258.9000;1.1298;1.6858;
259.2000;1.1274;1.6810;
259.5000;1.1282;1.6810;
259.8000;1.1306;1.6858;
260.1000;1.1347;1.6979;
260.4000;1.1290;1.6858;
260.7000;1.1298;1.6906;
261.0000;1.1323;1.7003;
261.3000;1.1339;1.7075;
261.6000;1.1274;1.6906;
261.9000;1.1298;1.6930;
262.2000;1.1241;1.6786;
262.5000;1.1298;1.6979;
262.8000;1.1282;1.6930;
263.1000;1.1282;1.6954;
263.4000;1.1274;1.6930;
263.7000;1.1266;1.6858;
264.0000;1.1339;1.6979;
264.3000;1.1290;1.6834;
264.6000;1.1298;1.6714;
264.9000;1.1306;1.6738;
265.2000;1.1290;1.6810;
265.5000;1.1315;1.6786;
265.8000;1.1290;1.6762;
266.1000;1.1315;1.6762;
266.4000;1.1274;1.6786;
266.7000;1.1282;1.6690;
267.0000;1.1282;1.6714;
267.3000;1.1282;1.6690;
267.6000;1.1323;1.6714;
267.9000;1.1290;1.6714;
268.2000;1.1290;1.6666;
268.5000;1.1396;1.6930;
268.8000;1.1298;1.6714;
269.1000;1.1290;1.6714;
269.4000;1.1306;1.6738;
269.7000;1.1290;1.6690;
270.0000;1.1298;1.6786;
270.3000;1.1298;1.6858;
270.6000;1.1298;1.6810;
270.9000;1.1298;1.6834;
271.2000;1.1290;1.6762;
271.5000;1.1306;1.6786;
271.8000;1.1298;1.6810;
272.1000;1.1298;1.6810;
272.4000;1.1290;1.6858;
272.7000;1.1298;1.6882;
273.0000;1.1290;1.6834;
273.3000;1.1315;1.6858;
273.6000;1.1298;1.6834;
273.9000;1.1306;1.6858;
274.2000;1.1306;1.6858;
274.5000;1.1298;1.6930;
274.8000;1.1306;1.6858;
275.1000;1.1298;1.6810;
275.4000;1.1404;1.7075;
275.7000;1.1306;1.6762;
276.0000;1.1315;1.6738;
276.3000;1.1306;1.6738;
276.6000;1.1323;1.6714;
276.9000;1.1306;1.6714;
277.2000;1.1290;1.6834;
277.5000;1.1282;1.6810;
277.8000;1.1290;1.6738;
278.1000;1.1274;1.6762;
278.4000;1.1282;1.6714;
278.7000;1.1290;1.6786;
279.0000;1.1315;1.6834;
279.3000;1.1306;1.6738;
279.6000;1.1290;1.6762;
279.9000;1.1282;1.6666;
280.2000;1.1298;1.6666;
280.5000;1.1306;1.6666;
280.8000;1.1306;1.6714;
281.1000;1.1298;1.6714;
281.4000;1.1306;1.6786;
281.7000;1.1298;1.6810;
282.0000;1.1306;1.6738;
282.3000;1.1241;1.6690;
282.6000;1.1258;1.6666;
282.9000;1.1306;1.6762;
283.2000;1.1306;1.6714;
283.5000;1.1290;1.6738;
283.8000;1.1290;1.6714;
284.1000;1.1306;1.6810;
284.4000;1.1290;1.6738;
284.7000;1.1298;1.6762;
285.0000;1.1331;1.6786;
285.3000;1.1274;1.6714;
285.6000;1.1258;1.6714;
285.9000;1.1298;1.6786;
286.2000;1.1290;1.6714;
286.5000;1.1306;1.6810;
286.8000;1.1315;1.6834;
287.1000;1.1282;1.6810;
287.4000;1.1274;1.6738;
287.7000;1.1298;1.6834;
288.0000;1.1290;1.6834;
288.3000;1.1282;1.6810;
288.6000;1.1282;1.6858;
288.9000;1.1282;1.6810;
289.2000;1.1290;1.6786;
289.5000;1.1290;1.6834;
289.8000;1.1290;1.6786;
290.1000;1.1298;1.6666;
290.4000;1.1323;1.6810;
290.7000;1.1298;1.6858;
291.0000;1.1290;1.6858;
291.3000;1.1282;1.6882;
291.6000;1.1290;1.6834;
291.9000;1.1290;1.6954;
292.2000;1.1355;1.7147;
292.5000;1.1266;1.6882;
292.8000;1.1290;1.6858;
293.1000;1.1266;1.6834;
293.4000;1.1266;1.6738;
293.7000;1.1282;1.6714;
294.0000;1.1258;1.6690;
294.3000;1.1315;1.6834;
294.6000;1.1331;1.6810;
294.9000;1.1323;1.6882;
295.2000;1.1331;1.6858;
295.5000;1.1306;1.6858;
295.8000;1.1298;1.6810;
296.1000;1.1306;1.6762;
296.4000;1.1298;1.6786;
296.7000;1.1266;1.6786;
297.0000;1.1290;1.6906;
297.3000;1.1282;1.6906;
297.6000;1.1282;1.6834;
297.9000;1.1290;1.6858;
298.2000;1.1298;1.6930;
298.5000;1.1266;1.6882;
298.8000;1.1290;1.6906;
299.1000;1.1282;1.6906;
299.4000;1.1282;1.6858;
299.7000;1.1266;1.6906;
300.0000;1.1290;1.6834;
300.3000;1.1290;1.6834;
300.6000;1.1298;1.6810;
300.9000;1.1290;1.6690;
301.2000;1.1290;1.6666;
301.5000;1.1290;1.6714;
301.8000;1.1290;1.6786;
302.1000;1.1298;1.6786;
302.4000;1.1298;1.6738;
302.7000;1.1290;1.6714;
303.0000;1.1184;1.6473;
303.3000;1.1290;1.6666;
303.6000;1.1306;1.6738;
303.9000;1.1290;1.6810;
304.2000;1.1290;1.6762;
304.5000;1.1290;1.6810;
304.8000;1.1274;1.6714;
305.1000;1.1274;1.6786;
305.4000;1.1274;1.6834;
305.7000;1.1258;1.6762;
306.0000;1.1282;1.6690;
306.3000;1.1282;1.6666;
306.6000;1.1258;1.6666;
306.9000;1.1282;1.6690;
307.2000;1.1315;1.6642;
307.5000;1.1274;1.6473;
307.8000;1.1258;1.6546;
308.1000;1.1282;1.6570;
308.4000;1.1372;1.6882;
308.7000;1.1282;1.6690;
309.0000;1.1372;1.7003;
309.3000;1.1282;1.6714;
309.6000;1.1290;1.6738;
309.9000;1.1282;1.6642;
310.2000;1.1347;1.6786;
310.5000;1.1282;1.6666;
310.8000;1.1298;1.6666;
311.1000;1.1266;1.6690;
311.4000;1.1258;1.6714;
311.7000;1.1249;1.6642;
312.0000;1.1282;1.6714;
312.3000;1.1266;1.6690;
312.6000;1.1274;1.6666;
312.9000;1.1274;1.6714;
313.2000;1.1298;1.6738;
313.5000;1.1290;1.6642;
313.8000;1.1298;1.6594;
314.1000;1.1282;1.6618;
314.4000;1.1233;1.6546;
314.7000;1.1274;1.6642;
315.0000;1.1258;1.6594;
315.3000;1.1290;1.6642;
315.6000;1.1306;1.6690;
315.9000;1.1298;1.6666;
316.2000;1.1233;1.6522;
316.5000;1.1298;1.6666;
316.8000;1.1306;1.6594;
317.1000;1.1298;1.6570;
317.4000;1.1282;1.6522;
317.7000;1.1290;1.6498;
318.0000;1.1282;1.6377;
318.3000;1.1274;1.6377;
318.6000;1.1306;1.6425;
318.9000;1.1274;1.6353;
319.2000;1.1323;1.6498;
319.5000;1.1282;1.6425;
319.8000;1.1347;1.6618;
320.1000;1.1306;1.6449;
320.4000;1.1298;1.6425;
320.7000;1.1290;1.6401;
321.0000;1.1290;1.6425;
321.3000;1.1274;1.6401;
321.6000;1.1282;1.6401;
321.9000;1.1266;1.6305;
322.2000;1.1290;1.6305;
322.5000;1.1290;1.6329;
322.8000;1.1290;1.6425;
323.1000;1.1258;1.6329;
323.4000;1.1266;1.6329;
323.7000;1.1266;1.6377;
324.0000;1.1266;1.6377;
324.3000;1.1290;1.6449;
324.6000;1.1282;1.6401;
324.9000;1.1274;1.6305;
325.2000;1.1233;1.6257;
325.5000;1.1274;1.6377;
325.8000;1.1258;1.6329;
326.1000;1.1290;1.6401;
326.4000;1.1315;1.6473;
326.7000;1.1298;1.6473;
327.0000;1.1339;1.6594;
327.3000;1.1298;1.6498;
327.6000;1.1290;1.6498;
327.9000;1.1282;1.6522;
328.2000;1.1282;1.6522;
328.5000;1.1282;1.6498;
328.8000;1.1290;1.6498;
329.1000;1.1290;1.6498;
329.4000;1.1306;1.6642;
329.7000;1.1274;1.6473;
330.0000;1.1282;1.6522;
330.3000;1.1209;1.6401;
330.6000;1.1274;1.6570;
330.9000;1.1249;1.6522;
331.2000;1.1282;1.6618;
331.5000;1.1282;1.6522;
331.8000;1.1217;1.6353;
332.1000;1.1347;1.6738;
332.4000;1.1266;1.6570;
332.7000;1.1233;1.6594;
333.0000;1.1258;1.6738;
333.3000;1.1266;1.6834;
333.6000;1.1306;1.6882;
333.9000;1.1266;1.6738;
334.2000;1.1266;1.6762;
334.5000;1.1266;1.6762;
334.8000;1.1258;1.6618;
335.1000;1.1266;1.6594;
335.4000;1.1258;1.6642;
335.7000;1.1266;1.6642;
336.0000;1.1282;1.6618;
336.3000;1.1249;1.6522;
336.6000;1.1274;1.6570;
336.9000;1.1274;1.6522;
337.2000;1.1323;1.6522;
337.5000;1.1282;1.6546;
337.8000;1.1266;1.6498;
338.1000;1.1266;1.6425;
338.4000;1.1298;1.6570;
338.7000;1.1282;1.6546;
339.0000;1.1282;1.6498;
339.3000;1.1266;1.6449;
339.6000;1.1274;1.6377;
339.9000;1.1266;1.6425;
340.2000;1.1282;1.6473;
340.5000;1.1290;1.6425;
340.8000;1.1266;1.6329;
341.1000;1.1282;1.6305;
341.4000;1.1355;1.6498;
341.7000;1.1290;1.6377;
342.0000;1.1274;1.6353;
342.3000;1.1290;1.6473;
342.6000;1.1274;1.6449;
342.9000;1.1290;1.6498;
343.2000;1.1266;1.6353;
343.5000;1.1274;1.6281;
343.8000;1.1282;1.6209;
344.1000;1.1355;1.6353;
344.4000;1.1282;1.6281;
344.7000;1.1282;1.6353;
345.0000;1.1266;1.6305;
345.3000;1.1282;1.6425;
345.6000;1.1282;1.6449;
345.9000;1.1274;1.6546;
346.2000;1.1266;1.6498;
346.5000;1.1249;1.6473;
346.8000;1.1298;1.6570;
347.1000;1.1266;1.6522;
347.4000;1.1266;1.6618;
347.7000;1.1258;1.6594;
348.0000;1.1266;1.6546;
348.3000;1.1266;1.6473;
348.6000;1.1274;1.6449;
348.9000;1.1241;1.6233;
349.2000;1.1274;1.6329;
349.5000;1.1266;1.6281;
349.8000;1.1266;1.6353;
350.1000;1.1258;1.6353;
350.4000;1.1249;1.6449;
350.7000;1.1274;1.6594;
351.0000;1.1266;1.6546;
351.3000;1.1282;1.6522;
351.6000;1.1282;1.6498;
351.9000;1.1290;1.6449;
352.2000;1.1274;1.6425;
352.5000;1.1282;1.6353;
352.8000;1.1249;1.6257;
353.1000;1.1315;1.6449;
353.4000;1.1266;1.6305;
353.7000;1.1249;1.6305;
354.0000;1.1282;1.6353;
354.3000;1.1274;1.6305;
354.6000;1.1266;1.6257;
354.9000;1.1274;1.6257;
355.2000;1.1282;1.6257;
355.5000;1.1290;1.6209;
355.8000;1.1306;1.6329;
356.1000;1.1282;1.6233;
356.4000;1.1266;1.6281;
356.7000;1.1274;1.6329;
357.0000;1.1298;1.6377;
357.3000;1.1266;1.6257;
357.6000;1.1266;1.6257;
357.9000;1.1290;1.6425;
358.2000;1.1282;1.6329;
358.5000;1.1274;1.6305;
358.8000;1.1225;1.6185;
359.1000;1.1298;1.6353;
359.4000;1.1290;1.6305;
359.7000;1.1282;1.6329;
360.0000;1.1282;1.6329;
360.3000;1.1225;1.6257;
360.6000;1.1298;1.6425;
360.9000;1.1290;1.6401;
361.2000;1.1282;1.6377;
361.5000;1.1290;1.6522;
361.8000;1.1290;1.6570;
362.1000;1.1290;1.6546;
362.4000;1.1282;1.6522;
362.7000;1.1306;1.6473;
363.0000;1.1306;1.6449;
363.3000;1.1282;1.6353;
363.6000;1.1266;1.6305;
363.9000;1.1274;1.6353;
364.2000;1.1290;1.6473;
364.5000;1.1282;1.6353;
364.8000;1.1274;1.6257;
365.1000;1.1274;1.6233;
365.4000;1.1258;1.6257;
365.7000;1.1274;1.6257;
366.0000;1.1258;1.6209;
366.3000;1.1274;1.6209;
366.6000;1.1274;1.6353;
366.9000;1.1290;1.6353;
367.2000;1.1274;1.6377;
367.5000;1.1274;1.6401;
367.8000;1.1274;1.6498;
368.1000;1.1298;1.6594;
368.4000;1.1266;1.6498;
368.7000;1.1258;1.6449;
369.0000;1.1282;1.6498;
369.3000;1.1266;1.6473;
369.6000;1.1266;1.6498;
369.9000;1.1266;1.6522;
370.2000;1.1290;1.6570;
370.5000;1.1249;1.6522;
370.8000;1.1258;1.6570;
371.1000;1.1266;1.6546;
371.4000;1.1258;1.6570;
371.7000;1.1266;1.6666;
372.0000;1.1258;1.6714;
372.3000;1.1274;1.6642;
372.6000;1.1282;1.6594;
372.9000;1.1290;1.6618;
373.2000;1.1282;1.6618;
373.5000;1.1315;1.6690;
373.8000;1.1282;1.6594;
374.1000;1.1249;1.6570;
374.4000;1.1258;1.6498;
374.7000;1.1266;1.6498;
375.0000;1.1241;1.6498;
375.3000;1.1266;1.6522;
375.6000;1.1290;1.6666;
375.9000;1.1282;1.6666;
376.2000;1.1274;1.6618;
376.5000;1.1217;1.6498;
376.8000;1.1298;1.6618;
377.1000;1.1282;1.6570;
377.4000;1.1290;1.6473;
377.7000;1.1331;1.6618;
378.0000;1.1266;1.6498;
378.3000;1.1282;1.6522;
378.6000;1.1258;1.6449;
378.9000;1.1258;1.6425;
379.2000;1.1266;1.6498;
379.5000;1.1274;1.6570;
379.8000;1.1282;1.6594;
380.1000;1.1266;1.6546;
380.4000;1.1258;1.6522;
380.7000;1.1266;1.6570;
381.0000;1.1274;1.6618;
381.3000;1.1290;1.6666;
381.6000;1.1298;1.6666;
381.9000;1.1266;1.6522;
382.2000;1.1290;1.6570;
382.5000;1.1266;1.6546;
382.8000;1.1258;1.6522;
383.1000;1.1282;1.6570;
383.4000;1.1266;1.6594;
383.7000;1.1274;1.6666;
384.0000;1.1266;1.6714;
384.3000;1.1249;1.6666;
384.6000;1.1258;1.6666;
384.9000;1.1266;1.6642;
385.2000;1.1258;1.6594;
385.5000;1.1209;1.6522;
385.8000;1.1258;1.6642;
386.1000;1.1258;1.6546;
386.4000;1.1266;1.6570;
386.7000;1.1266;1.6642;
387.0000;1.1258;1.6642;
387.3000;1.1266;1.6666;
387.6000;1.1168;1.6353;
387.9000;1.1274;1.6618;
388.2000;1.1274;1.6546;
388.5000;1.1266;1.6473;
388.8000;1.1274;1.6522;
389.1000;1.1266;1.6473;
389.4000;1.1266;1.6546;
389.7000;1.1258;1.6666;
390.0000;1.1233;1.6642;
390.3000;1.1249;1.6642;
390.6000;1.1258;1.6642;
390.9000;1.1274;1.6570;
391.2000;1.1274;1.6594;
391.5000;1.1258;1.6618;
391.8000;1.1266;1.6666;
392.1000;1.1249;1.6642;
392.4000;1.1258;1.6690;
392.7000;1.1249;1.6738;
393.0000;1.1233;1.6666;
393.3000;1.1274;1.6714;
393.6000;1.1274;1.6714;
393.9000;1.1274;1.6642;
394.2000;1.1193;1.6449;
394.5000;1.1258;1.6570;
394.8000;1.1266;1.6666;
395.1000;1.1323;1.6858;
395.4000;1.1266;1.6714;
395.7000;1.1249;1.6690;
396.0000;1.1258;1.6642;
396.3000;1.1274;1.6642;
396.6000;1.1266;1.6618;
396.9000;1.1266;1.6546;
397.2000;1.1266;1.6594;
397.5000;1.1282;1.6618;
397.8000;1.1266;1.6594;
398.1000;1.1241;1.6570;
398.4000;1.1249;1.6618;
398.7000;1.1258;1.6642;
399.0000;1.1241;1.6666;
399.3000;1.1266;1.6714;
399.6000;1.1217;1.6618;
399.9000;1.1258;1.6642;
400.2000;1.1298;1.6738;
400.5000;1.1266;1.6666;
400.8000;1.1241;1.6690;
401.1000;1.1266;1.6666;
401.4000;1.1209;1.6449;
401.7000;1.1249;1.6570;
402.0000;1.1258;1.6546;
402.3000;1.1258;1.6594;
402.6000;1.1306;1.6714;
402.9000;1.1274;1.6690;
403.2000;1.1258;1.6594;
403.5000;1.1274;1.6714;
403.8000;1.1249;1.6690;
404.1000;1.1282;1.6714;
404.4000;1.1258;1.6594;
404.7000;1.1258;1.6473;
405.0000;1.1274;1.6546;
405.3000;1.1258;1.6522;
405.6000;1.1266;1.6449;
405.9000;1.1282;1.6449;
406.2000;1.1266;1.6449;
406.5000;1.1274;1.6377;
406.8000;1.1274;1.6329;
407.1000;1.1258;1.6377;
407.4000;1.1274;1.6498;
407.7000;1.1282;1.6594;
408.0000;1.1266;1.6570;
408.3000;1.1266;1.6546;
408.6000;1.1225;1.6401;
408.9000;1.1258;1.6449;
409.2000;1.1241;1.6401;
409.5000;1.1249;1.6353;
409.8000;1.1266;1.6425;
410.1000;1.1258;1.6449;
410.4000;1.1266;1.6498;
410.7000;1.1249;1.6498;
411.0000;1.1266;1.6473;
411.3000;1.1282;1.6449;
411.6000;1.1282;1.6522;
411.9000;1.1258;1.6498;
412.2000;1.1249;1.6498;
412.5000;1.1282;1.6570;
412.8000;1.1274;1.6618;
413.1000;1.1233;1.6570;
413.4000;1.1266;1.6594;
413.7000;1.1258;1.6594;
414.0000;1.1266;1.6642;
414.3000;1.1266;1.6642;
414.6000;1.1258;1.6594;
414.9000;1.1233;1.6425;
415.2000;1.1266;1.6449;
415.5000;1.1274;1.6425;
415.8000;1.1258;1.6329;
416.1000;1.1217;1.6233;
416.4000;1.1258;1.6401;
416.7000;1.1274;1.6546;
417.0000;1.1274;1.6570;
417.3000;1.1258;1.6570;
417.6000;1.1282;1.6498;
417.9000;1.1274;1.6522;
418.2000;1.1274;1.6570;
418.5000;1.1258;1.6522;
418.8000;1.1249;1.6498;
419.1000;1.1274;1.6473;
419.4000;1.1266;1.6473;
419.7000;1.1241;1.6425;
420.0000;1.1225;1.6353;
420.3000;1.1274;1.6498;
420.6000;1.1258;1.6449;
420.9000;1.1274;1.6498;
421.2000;1.1241;1.6401;
421.5000;1.1249;1.6401;
421.8000;1.1249;1.6353;
422.1000;1.1241;1.6233;
422.4000;1.1184;1.6041;
422.7000;1.1249;1.6209;
423.0000;1.1258;1.6209;
423.3000;1.1249;1.6161;
423.6000;1.1306;1.6305;
423.9000;1.1258;1.6257;
424.2000;1.1347;1.6377;
424.5000;1.1249;1.6161;
424.8000;1.1241;1.6113;
425.1000;1.1258;1.6257;
425.4000;1.1266;1.6329;
425.7000;1.1258;1.6329;
426.0000;1.1209;1.6185;
426.3000;1.1249;1.6257;
426.6000;1.1266;1.6305;
426.9000;1.1225;1.6233;
427.2000;1.1266;1.6257;
427.5000;1.1323;1.6353;
427.8000;1.1184;1.6017;
428.1000;1.1233;1.6281;
428.4000;1.1241;1.6257;
428.7000;1.1249;1.6305;
429.0000;1.1233;1.6185;
429.3000;1.1274;1.6305;
429.6000;1.1249;1.6113;
429.9000;1.1249;1.6041;
430.2000;1.1209;1.5993;
430.5000;1.1209;1.6113;
430.8000;1.1249;1.6257;
431.1000;1.1249;1.6305;
431.4000;1.1184;1.6065;
431.7000;1.1266;1.6329;
432.0000;1.1315;1.6498;
432.3000;1.1217;1.6185;
432.6000;1.1266;1.6281;
432.9000;1.1282;1.6257;
433.2000;1.1290;1.6257;
433.5000;1.1266;1.6329;
433.8000;1.1266;1.6329;
434.1000;1.1282;1.6329;
434.4000;1.1298;1.6377;
434.7000;1.1266;1.6353;
435.0000;1.1274;1.6449;
435.3000;1.1323;1.6594;
435.6000;1.1274;1.6546;
435.9000;1.1249;1.6522;
436.2000;1.1258;1.6498;
436.5000;1.1249;1.6401;
436.8000;1.1282;1.6546;
437.1000;1.1282;1.6642;
437.4000;1.1249;1.6570;
437.7000;1.1282;1.6498;
438.0000;1.1266;1.6594;
438.3000;1.1258;1.6498;
438.6000;1.1249;1.6425;
438.9000;1.1225;1.6449;
439.2000;1.1241;1.6522;
439.5000;1.1266;1.6522;
439.8000;1.1258;1.6401;
440.1000;1.1201;1.6185;
440.4000;1.1266;1.6377;
440.7000;1.1258;1.6329;
441.0000;1.1282;1.6377;
441.3000;1.1258;1.6281;
441.6000;1.1241;1.6209;
441.9000;1.1266;1.6281;
442.2000;1.1274;1.6281;
442.5000;1.1258;1.6353;
442.8000;1.1249;1.6329;
443.1000;1.1258;1.6353;
443.4000;1.1258;1.6353;
443.7000;1.1258;1.6281;
444.0000;1.1249;1.6233;
444.3000;1.1258;1.6257;
444.6000;1.1258;1.6329;
444.9000;1.1241;1.6353;
445.2000;1.1266;1.6377;
445.5000;1.1274;1.6425;
445.8000;1.1290;1.6522;
446.1000;1.1258;1.6498;
446.4000;1.1225;1.6353;
446.7000;1.1258;1.6377;
447.0000;1.1258;1.6473;
447.3000;1.1274;1.6594;
447.6000;1.1274;1.6618;
447.9000;1.1258;1.6594;
448.2000;1.1217;1.6498;
448.5000;1.1274;1.6546;
448.8000;1.1241;1.6449;
449.1000;1.1152;1.6065;
449.4000;1.1274;1.6353;
449.7000;1.1241;1.6281;
450.0000;1.1249;1.6449;
450.3000;1.1298;1.6594;
450.6000;1.1258;1.6425;
450.9000;1.1225;1.6185;
451.2000;1.1274;1.6257;
451.5000;1.1209;1.6017;
451.8000;1.1266;1.6137;
452.1000;1.1258;1.6233;
452.4000;1.1241;1.6233;
452.7000;1.1241;1.6281;
453.0000;1.1258;1.6353;
453.3000;1.1217;1.6233;
453.6000;1.1249;1.6281;
453.9000;1.1306;1.6353;
454.2000;1.1249;1.6257;
454.5000;1.1241;1.6233;
454.8000;1.1258;1.6305;
455.1000;1.1266;1.6425;
455.4000;1.1209;1.6257;
455.7000;1.1241;1.6329;
456.0000;1.1266;1.6473;
456.3000;1.1249;1.6546;
456.6000;1.1241;1.6594;
456.9000;1.1233;1.6546;
457.2000;1.1266;1.6666;
457.5000;1.1241;1.6570;
457.8000;1.1266;1.6546;
458.1000;1.1274;1.6522;
458.4000;1.1274;1.6618;
458.7000;1.1274;1.6642;
459.0000;1.1282;1.6594;
459.3000;1.1266;1.6498;
459.6000;1.1233;1.6353;
459.9000;1.1274;1.6401;
460.2000;1.1306;1.6473;
460.5000;1.1282;1.6498;
460.8000;1.1249;1.6522;
461.1000;1.1266;1.6522;
461.4000;1.1266;1.6546;
461.7000;1.1241;1.6546;
462.0000;1.1233;1.6594;
462.3000;1.1233;1.6570;
462.6000;1.1266;1.6618;
462.9000;1.1249;1.6473;
463.2000;1.1282;1.6570;
463.5000;1.1258;1.6570;
463.8000;1.1241;1.6425;
464.1000;1.1249;1.6449;
464.4000;1.1241;1.6449;
464.7000;1.1249;1.6401;
465.0000;1.1266;1.6473;
465.3000;1.1266;1.6498;
465.6000;1.1233;1.6377;
465.9000;1.1249;1.6449;
466.2000;1.1258;1.6522;
466.5000;1.1258;1.6498;
466.8000;1.1193;1.6305;
467.1000;1.1233;1.6449;
467.4000;1.1266;1.6473;
467.7000;1.1266;1.6473;
468.0000;1.1258;1.6449;
468.3000;1.1233;1.6401;
468.6000;1.1274;1.6425;
468.9000;1.1249;1.6353;
469.2000;1.1241;1.6377;
469.5000;1.1233;1.6329;
469.8000;1.1249;1.6329;
470.1000;1.1315;1.6498;
470.4000;1.1315;1.6449;
470.7000;1.1241;1.6161;
471.0000;1.1258;1.6185;
471.3000;1.1241;1.6185;
471.6000;1.1282;1.6305;
471.9000;1.1249;1.6209;
472.2000;1.1241;1.6209;
472.5000;1.1201;1.6137;
472.8000;1.1323;1.6449;
473.1000;1.1258;1.6233;
473.4000;1.1258;1.6185;
473.7000;1.1298;1.6305;
474.0000;1.1233;1.6137;
474.3000;1.1225;1.6065;
474.6000;1.1241;1.6185;
474.9000;1.1274;1.6185;
475.2000;1.1258;1.6209;
475.5000;1.1201;1.6065;
475.8000;1.1249;1.6233;
476.1000;1.1249;1.6305;
476.4000;1.1233;1.6377;
476.7000;1.1258;1.6498;
477.0000;1.1233;1.6522;
477.3000;1.1241;1.6570;
477.6000;1.1233;1.6570;
477.9000;1.1258;1.6642;
478.2000;1.1233;1.6690;
478.5000;1.1258;1.6642;
478.8000;1.1258;1.6594;
479.1000;1.1241;1.6594;
479.4000;1.1266;1.6594;
479.7000;1.1225;1.6449;
480.0000;1.1298;1.6570;
480.3000;1.1266;1.6498;
480.6000;1.1249;1.6522;
480.9000;1.1258;1.6546;
481.2000;1.1249;1.6642;
481.5000;1.1241;1.6738;
481.8000;1.1233;1.6642;
482.1000;1.1258;1.6690;
482.4000;1.1233;1.6666;
482.7000;1.1249;1.6642;
483.0000;1.1233;1.6546;
483.3000;1.1233;1.6666;
483.6000;1.1258;1.6738;
483.9000;1.1258;1.6738;
484.2000;1.1258;1.6738;
484.5000;1.1249;1.6738;
484.8000;1.1233;1.6714;
485.1000;1.1249;1.6762;
485.4000;1.1249;1.6642;
485.7000;1.1217;1.6473;
486.0000;1.1241;1.6522;
486.3000;1.1249;1.6522;
486.6000;1.1249;1.6449;
486.9000;1.1241;1.6353;
487.2000;1.1225;1.6329;
487.5000;1.1225;1.6401;
487.8000;1.1249;1.6425;
488.1000;1.1241;1.6425;
488.4000;1.1233;1.6449;
488.7000;1.1249;1.6473;
489.0000;1.1233;1.6425;
489.3000;1.1274;1.6498;
489.6000;1.1225;1.6401;
489.9000;1.1249;1.6522;
490.2000;1.1306;1.6642;
490.5000;1.1258;1.6473;
490.8000;1.1241;1.6377;
491.1000;1.1184;1.6281;
491.4000;1.1241;1.6449;
491.7000;1.1258;1.6449;
492.0000;1.1290;1.6546;
492.3000;1.1144;1.6137;
492.6000;1.1241;1.6401;
492.9000;1.1258;1.6498;
493.2000;1.1241;1.6449;
493.5000;1.1233;1.6522;
493.8000;1.1241;1.6594;
494.1000;1.1241;1.6570;
494.4000;1.1241;1.6618;
494.7000;1.1241;1.6546;
495.0000;1.1233;1.6473;
495.3000;1.1249;1.6498;
495.6000;1.1290;1.6546;
495.9000;1.1233;1.6449;
496.2000;1.1233;1.6522;
496.5000;1.1241;1.6449;
496.8000;1.1241;1.6449;
497.1000;1.1241;1.6498;
497.4000;1.1233;1.6449;
497.7000;1.1258;1.6449;
498.0000;1.1249;1.6546;
498.3000;1.1241;1.6522;
498.6000;1.1241;1.6498;
498.9000;1.1258;1.6449;
499.2000;1.1249;1.6473;
499.5000;1.1241;1.6425;
499.8000;1.1249;1.6449;
500.1000;1.1233;1.6473;
500.4000;1.1241;1.6570;
500.7000;1.1241;1.6642;
501.0000;1.1249;1.6546;
501.3000;1.1241;1.6449;
501.6000;1.1347;1.6786;
501.9000;1.1241;1.6546;
502.2000;1.1258;1.6546;
502.5000;1.1274;1.6618;
502.8000;1.1233;1.6546;
503.1000;1.1241;1.6546;
503.4000;1.1217;1.6498;
503.7000;1.1233;1.6522;
504.0000;1.1241;1.6522;
504.3000;1.1249;1.6618;
504.6000;1.1233;1.6666;
504.9000;1.1233;1.6666;
505.2000;1.1233;1.6714;
505.5000;1.1233;1.6762;
505.8000;1.1258;1.6786;
506.1000;1.1233;1.6738;
506.4000;1.1201;1.6690;
506.7000;1.1241;1.6834;
507.0000;1.1241;1.6786;
507.3000;1.1315;1.6882;
507.6000;1.1225;1.6618;
507.9000;1.1233;1.6618;
508.2000;1.1274;1.6546;
508.5000;1.1249;1.6498;
508.8000;1.1258;1.6594;
509.1000;1.1323;1.6810;
509.4000;1.1258;1.6738;
509.7000;1.1266;1.6762;
510.0000;1.1249;1.6642;
510.3000;1.1249;1.6546;
510.6000;1.1249;1.6498;
510.9000;1.1258;1.6473;
511.2000;1.1249;1.6522;
511.5000;1.1241;1.6522;
511.8000;1.1258;1.6618;
512.1000;1.1241;1.6618;
512.4000;1.1249;1.6714;
512.7000;1.1233;1.6690;
513.0000;1.1241;1.6690;
513.3000;1.1241;1.6618;
513.6000;1.1209;1.6522;
513.9000;1.1241;1.6522;
514.2000;1.1241;1.6594;
514.5000;1.1201;1.6618;
514.8000;1.1249;1.6666;
515.1000;1.1298;1.6690;
515.4000;1.1233;1.6570;
515.7000;1.1241;1.6618;
516.0000;1.1241;1.6714;
516.3000;1.1184;1.6546;
516.6000;1.1225;1.6498;
516.9000;1.1290;1.6594;
517.2000;1.1241;1.6473;
517.5000;1.1233;1.6498;
517.8000;1.1241;1.6522;
518.1000;1.1184;1.6377;
518.4000;1.1233;1.6546;
518.7000;1.1249;1.6594;
519.0000;1.1168;1.6449;
519.3000;1.1233;1.6618;
519.6000;1.1249;1.6666;
519.9000;1.1217;1.6594;
520.2000;1.1233;1.6666;
520.5000;1.1241;1.6642;
520.8000;1.1225;1.6570;
521.1000;1.1249;1.6570;
521.4000;1.1241;1.6522;
521.7000;1.1241;1.6546;
522.0000;1.1217;1.6618;
522.3000;1.1233;1.6666;
522.6000;1.1225;1.6570;
522.9000;1.1249;1.6642;
523.2000;1.1331;1.6762;
523.5000;1.1184;1.6377;
523.8000;1.1258;1.6425;
524.1000;1.1225;1.6473;
524.4000;1.1315;1.6738;
524.7000;1.1241;1.6498;
525.0000;1.1225;1.6522;
525.3000;1.1323;1.6714;
525.6000;1.1225;1.6425;
525.9000;1.1225;1.6353;
526.2000;1.1184;1.6257;
526.5000;1.1201;1.6329;
526.8000;1.1217;1.6329;
527.1000;1.1217;1.6329;
527.4000;1.1258;1.6425;
527.7000;1.1225;1.6257;
528.0000;1.1225;1.6257;
528.3000;1.1217;1.6209;
528.6000;1.1127;1.5993;
528.9000;1.1217;1.6233;
529.2000;1.1225;1.6329;
529.5000;1.1225;1.6329;
529.8000;1.1241;1.6401;
530.1000;1.1233;1.6257;
530.4000;1.1217;1.6185;
530.7000;1.1233;1.6089;
531.0000;1.1249;1.6137;
531.3000;1.1193;1.6017;
531.6000;1.1225;1.6041;
531.9000;1.1225;1.6017;
532.2000;1.1274;1.6257;
532.5000;1.1225;1.6185;
532.8000;1.1225;1.6185;
533.1000;1.1225;1.6305;
533.4000;1.1241;1.6305;
533.7000;1.1241;1.6257;
534.0000;1.1217;1.6161;
534.3000;1.1209;1.6185;
534.6000;1.1233;1.6257;
534.9000;1.1225;1.6209;
535.2000;1.1241;1.6305;
535.5000;1.1233;1.6257;
535.8000;1.1209;1.6305;
536.1000;1.1249;1.6377;
536.4000;1.1233;1.6329;
536.7000;1.1209;1.6281;
537.0000;1.1201;1.6281;
537.3000;1.1217;1.6209;
537.6000;1.1233;1.6233;
537.9000;1.1209;1.6209;
538.2000;1.1241;1.6257;
538.5000;1.1233;1.6281;
538.8000;1.1233;1.6257;
539.1000;1.1306;1.6570;
539.4000;1.1233;1.6449;
539.7000;1.1233;1.6473;
540.0000;1.1233;1.6425;
540.3000;1.1233;1.6498;
540.6000;1.1217;1.6377;
540.9000;1.1233;1.6329;
541.2000;1.1217;1.6377;
541.5000;1.1233;1.6353;
541.8000;1.1168;1.6185;
542.1000;1.1233;1.6281;
542.4000;1.1323;1.6522;
542.7000;1.1233;1.6281;
543.0000;1.1249;1.6329;
543.3000;1.1217;1.6185;
543.6000;1.1282;1.6401;
543.9000;1.1225;1.6257;
544.2000;1.1201;1.6185;
544.5000;1.1225;1.6161;
544.8000;1.1233;1.6137;
545.1000;1.1217;1.6209;
545.4000;1.1249;1.6281;
545.7000;1.1201;1.6257;
546.0000;1.1217;1.6257;
546.3000;1.1201;1.6281;
546.6000;1.1233;1.6233;
546.9000;1.1217;1.6161;
547.2000;1.1209;1.6137;
547.5000;1.1258;1.6281;
547.8000;1.1225;1.6233;
548.1000;1.1217;1.6257;
548.4000;1.1282;1.6473;
548.7000;1.1225;1.6305;
549.0000;1.1233;1.6305;
549.3000;1.1241;1.6377;
549.6000;1.1209;1.6353;
549.9000;1.1241;1.6401;
550.2000;1.1201;1.6329;
550.5000;1.1258;1.6401;
550.8000;1.1225;1.6305;
551.1000;1.1217;1.6353;
551.4000;1.1217;1.6281;
551.7000;1.1201;1.6233;
552.0000;1.1217;1.6233;
552.3000;1.1201;1.6233;
552.6000;1.1217;1.6281;
552.9000;1.1225;1.6377;
553.2000;1.1217;1.6329;
553.5000;1.1233;1.6377;
553.8000;1.1258;1.6449;
554.1000;1.1233;1.6449;
554.4000;1.1201;1.6377;
554.7000;1.1225;1.6377;
555.0000;1.1225;1.6401;
555.3000;1.1233;1.6473;
555.6000;1.1225;1.6377;
555.9000;1.1193;1.6329;
556.2000;1.1266;1.6473;
556.5000;1.1217;1.6353;
556.8000;1.1233;1.6401;
557.1000;1.1193;1.6209;
557.4000;1.1201;1.6233;
557.7000;1.1209;1.6329;
558.0000;1.1233;1.6449;
558.3000;1.1209;1.6353;
558.6000;1.1233;1.6377;
558.9000;1.1209;1.6329;
559.2000;1.1217;1.6329;
559.5000;1.1225;1.6305;
559.8000;1.1193;1.6185;
560.1000;1.1217;1.6257;
560.4000;1.1225;1.6329;
560.7000;1.1225;1.6305;
561.0000;1.1193;1.6353;
561.3000;1.1241;1.6473;
561.6000;1.1217;1.6353;
561.9000;1.1217;1.6353;
562.2000;1.1209;1.6329;
562.5000;1.1201;1.6425;
562.8000;1.1233;1.6498;
563.1000;1.1233;1.6546;
563.4000;1.1209;1.6449;
563.7000;1.1176;1.6305;
564.0000;1.1209;1.6377;
564.3000;1.1266;1.6449;
564.6000;1.1282;1.6473;
564.9000;1.1233;1.6281;
565.2000;1.1184;1.6233;
565.5000;1.1225;1.6353;
565.8000;1.1233;1.6329;
566.1000;1.1201;1.6185;
566.4000;1.1217;1.6209;
566.7000;1.1249;1.6329;
567.0000;1.1225;1.6281;
567.3000;1.1315;1.6473;
567.6000;1.1209;1.6185;
567.9000;1.1217;1.6161;
568.2000;1.1209;1.6161;
568.5000;1.1209;1.6161;
568.8000;1.1168;1.6113;
569.1000;1.1193;1.6113;
569.4000;1.1225;1.6257;
569.7000;1.1217;1.6353;
570.0000;1.1201;1.6329;
570.3000;1.1233;1.6498;
570.6000;1.1217;1.6522;
570.9000;1.1217;1.6473;
571.2000;1.1217;1.6498;
571.5000;1.1201;1.6449;
571.8000;1.1209;1.6498;
572.1000;1.1217;1.6449;
572.4000;1.1217;1.6425;
572.7000;1.1201;1.6401;
573.0000;1.1217;1.6377;
573.3000;1.1209;1.6305;
573.6000;1.1209;1.6113;
573.9000;1.1233;1.6233;
574.2000;1.1217;1.6377;
574.5000;1.1184;1.6353;
574.8000;1.1209;1.6473;
575.1000;1.1201;1.6449;
575.4000;1.1193;1.6425;
575.7000;1.1217;1.6449;
576.0000;1.1209;1.6449;
576.3000;1.1217;1.6498;
576.6000;1.1193;1.6473;
576.9000;1.1217;1.6522;
577.2000;1.1225;1.6449;
577.5000;1.1209;1.6329;
577.8000;1.1209;1.6377;
578.1000;1.1209;1.6377;
578.4000;1.1217;1.6401;
578.7000;1.1209;1.6377;
579.0000;1.1209;1.6473;
579.3000;1.1225;1.6498;
579.6000;1.1209;1.6522;
579.9000;1.1209;1.6522;
580.2000;1.1201;1.6546;
580.5000;1.1209;1.6522;
580.8000;1.1225;1.6498;
581.1000;1.1209;1.6449;
581.4000;1.1225;1.6473;
581.7000;1.1209;1.6401;
582.0000;1.1193;1.6401;
582.3000;1.1217;1.6522;
582.6000;1.1184;1.6473;
582.9000;1.1217;1.6594;
583.2000;1.1160;1.6498;
583.5000;1.1217;1.6546;
583.8000;1.1209;1.6522;
584.1000;1.1217;1.6473;
584.4000;1.1209;1.6498;
584.7000;1.1217;1.6546;
585.0000;1.1249;1.6618;
585.3000;1.1184;1.6353;
585.6000;1.1217;1.6401;
585.9000;1.1249;1.6449;
586.2000;1.1217;1.6401;
586.5000;1.1160;1.6281;
586.8000;1.1201;1.6425;
587.1000;1.1201;1.6425;
587.4000;1.1233;1.6473;
587.7000;1.1217;1.6449;
588.0000;1.1209;1.6473;
588.3000;1.1176;1.6305;
588.6000;1.1225;1.6329;
588.9000;1.1160;1.6209;
589.2000;1.1176;1.6209;
589.5000;1.1127;1.6065;
589.8000;1.1233;1.6329;
590.1000;1.1225;1.6305;
590.4000;1.1217;1.6281;
590.7000;1.1225;1.6281;
591.0000;1.1225;1.6377;
591.3000;1.1249;1.6449;
591.6000;1.1225;1.6425;
591.9000;1.1201;1.6449;
592.2000;1.1209;1.6473;
592.5000;1.1258;1.6546;
592.8000;1.1249;1.6546;
593.1000;1.1209;1.6449;
593.4000;1.1209;1.6498;
593.7000;1.1217;1.6425;
594.0000;1.1209;1.6449;
594.3000;1.1209;1.6377;
594.6000;1.1241;1.6425;
594.9000;1.1225;1.6377;
595.2000;1.1225;1.6401;
595.5000;1.1193;1.6353;
595.8000;1.1209;1.6401;
596.1000;1.1217;1.6522;
596.4000;1.1217;1.6473;
596.7000;1.1209;1.6425;
597.0000;1.1193;1.6377;
597.3000;1.1217;1.6449;
597.6000;1.1152;1.6377;
597.9000;1.1201;1.6401;
598.2000;1.1217;1.6401;
598.5000;1.1217;1.6401;
598.8000;1.1217;1.6425;
599.1000;1.1225;1.6401;
599.4000;1.1225;1.6329;
599.7000;1.1225;1.6377;
600.0000;1.1233;1.6329;
600.3000;1.1233;1.6209;
600.6000;1.1249;1.6113;
600.9000;1.1217;1.6041;
601.2000;1.1136;1.5896;
601.5000;1.1070;1.5704;
601.8000;1.0997;1.5536;
602.1000;1.0932;1.5439;
602.4000;1.0834;1.5343;
602.7000;1.0786;1.5319;
603.0000;1.0672;1.5127;
603.3000;1.0615;1.5127;
603.6000;1.0549;1.5127;
603.9000;1.0492;1.5103;
604.2000;1.0427;1.4982;
604.5000;1.0354;1.4814;
604.8000;1.0289;1.4766;
605.1000;1.0256;1.4694;
605.4000;1.0175;1.4550;
605.7000;1.0134;1.4477;
606.0000;1.0069;1.4477;
606.3000;1.0037;1.4453;
606.6000;0.9963;1.4453;
606.9000;0.9906;1.4453;
607.2000;0.9898;1.4526;
607.5000;0.9825;1.4381;
607.8000;0.9776;1.4357;
608.1000;0.9744;1.4309;
608.4000;0.9695;1.4261;
608.7000;0.9654;1.4213;
609.0000;0.9605;1.4141;
609.3000;0.9581;1.4069;
609.6000;0.9540;1.4069;
609.9000;0.9442;1.3924;
610.2000;0.9467;1.4045;
610.5000;0.9418;1.3996;
610.8000;0.9369;1.3900;
611.1000;0.9345;1.3876;
611.4000;0.9288;1.3876;
611.7000;0.9223;1.3852;
612.0000;0.9231;1.3852;
612.3000;0.9198;1.3756;
612.6000;0.9198;1.3828;
612.9000;0.9133;1.3756;
613.2000;0.9084;1.3636;
613.5000;0.9109;1.3756;
613.8000;0.9035;1.3660;
614.1000;0.9011;1.3708;
614.4000;0.8962;1.3708;
614.7000;0.8946;1.3804;
615.0000;0.8913;1.3756;
615.3000;0.8864;1.3612;
615.6000;0.8873;1.3708;
615.9000;0.8767;1.3491;
616.2000;0.8816;1.3684;
616.5000;0.8767;1.3636;
616.8000;0.8742;1.3708;
617.1000;0.8734;1.3636;
617.4000;0.8694;1.3612;
617.7000;0.8685;1.3684;
618.0000;0.8645;1.3684;
618.3000;0.8628;1.3732;
618.6000;0.8604;1.3708;
618.9000;0.8588;1.3684;
619.2000;0.8555;1.3636;
619.5000;0.8531;1.3612;
619.8000;0.8506;1.3564;
620.1000;0.8490;1.3443;
620.4000;0.8498;1.3540;
620.7000;0.8441;1.3419;
621.0000;0.8417;1.3419;
621.3000;0.8433;1.3491;
621.6000;0.8376;1.3419;
621.9000;0.8360;1.3395;
622.2000;0.8327;1.3323;
622.5000;0.8319;1.3323;
622.8000;0.8319;1.3299;
623.1000;0.8335;1.3323;
623.4000;0.8262;1.3203;
623.7000;0.8246;1.3155;
624.0000;0.8221;1.3179;
624.3000;0.8197;1.3251;
624.6000;0.8205;1.3299;
624.9000;0.8164;1.3347;
625.2000;0.8107;1.3251;
625.5000;0.8164;1.3419;
625.8000;0.8107;1.3395;
626.1000;0.8140;1.3515;
626.4000;0.8091;1.3443;
626.7000;0.8075;1.3371;
627.0000;0.8059;1.3299;
627.3000;0.8034;1.3251;
627.6000;0.8018;1.3251;
627.9000;0.8018;1.3299;
628.2000;0.7961;1.3131;
628.5000;0.7977;1.3275;
628.8000;0.7953;1.3347;
629.1000;0.7961;1.3347;
629.4000;0.7945;1.3347;
629.7000;0.7880;1.3227;
630.0000;0.7937;1.3347;
630.3000;0.7912;1.3347;
630.6000;0.7880;1.3299;
630.9000;0.7823;1.3203;
631.2000;0.7806;1.3251;
631.5000;0.7831;1.3347;
631.8000;0.7839;1.3467;
632.1000;0.7806;1.3515;
632.4000;0.7790;1.3443;
632.7000;0.7782;1.3443;
633.0000;0.7790;1.3491;
633.3000;0.7774;1.3491;
633.6000;0.7749;1.3443;
633.9000;0.7725;1.3395;
634.2000;0.7741;1.3371;
634.5000;0.7717;1.3371;
634.8000;0.7709;1.3347;
635.1000;0.7684;1.3347;
635.4000;0.7700;1.3443;
635.7000;0.7684;1.3395;
636.0000;0.7635;1.3347;
636.3000;0.7652;1.3467;
636.6000;0.7635;1.3395;
636.9000;0.7603;1.3275;
637.2000;0.7586;1.3275;
637.5000;0.7562;1.3203;
637.8000;0.7586;1.3275;
638.1000;0.7570;1.3251;
638.4000;0.7562;1.3203;
638.7000;0.7554;1.3203;
639.0000;0.7546;1.3275;
639.3000;0.7554;1.3395;
639.6000;0.7530;1.3419;
639.9000;0.7489;1.3467;
640.2000;0.7505;1.3491;
640.5000;0.7497;1.3491;
640.8000;0.7481;1.3540;
641.1000;0.7440;1.3467;
641.4000;0.7554;1.3660;
641.7000;0.7456;1.3371;
642.0000;0.7456;1.3323;
642.3000;0.7456;1.3323;
642.6000;0.7473;1.3371;
642.9000;0.7359;1.3083;
643.2000;0.7416;1.3251;
643.5000;0.7407;1.3323;
643.8000;0.7399;1.3371;
644.1000;0.7391;1.3395;
644.4000;0.7383;1.3395;
644.7000;0.7391;1.3491;
645.0000;0.7375;1.3491;
645.3000;0.7375;1.3491;
645.6000;0.7359;1.3491;
645.9000;0.7416;1.3636;
646.2000;0.7326;1.3395;
646.5000;0.7318;1.3419;
646.8000;0.7310;1.3443;
647.1000;0.7310;1.3347;
647.4000;0.7293;1.3251;
647.7000;0.7342;1.3491;
648.0000;0.7285;1.3419;
648.3000;0.7269;1.3419;
648.6000;0.7245;1.3323;
648.9000;0.7236;1.3299;
649.2000;0.7253;1.3323;
649.5000;0.7261;1.3491;
649.8000;0.7236;1.3491;
650.1000;0.7245;1.3515;
650.4000;0.7236;1.3443;
650.7000;0.7228;1.3419;
651.0000;0.7212;1.3419;
651.3000;0.7196;1.3395;
651.6000;0.7212;1.3443;
651.9000;0.7179;1.3371;
652.2000;0.7179;1.3395;
652.5000;0.7204;1.3467;
652.8000;0.7171;1.3347;
653.1000;0.7212;1.3515;
653.4000;0.7179;1.3491;
653.7000;0.7155;1.3347;
654.0000;0.7082;1.3107;
654.3000;0.7131;1.3323;
654.6000;0.7147;1.3323;
654.9000;0.7114;1.3203;
655.2000;0.7179;1.3419;
655.5000;0.7114;1.3395;
655.8000;0.7114;1.3323;
656.1000;0.7090;1.3347;
656.4000;0.7106;1.3419;
656.7000;0.7098;1.3371;
657.0000;0.7114;1.3419;
657.3000;0.7139;1.3515;
657.6000;0.7041;1.3323;
657.9000;0.7057;1.3299;
658.2000;0.7025;1.3251;
658.5000;0.7057;1.3323;
658.8000;0.7017;1.3299;
659.1000;0.7033;1.3395;
659.4000;0.7025;1.3467;
659.7000;0.7049;1.3588;
660.0000;0.7033;1.3612;
660.3000;0.7025;1.3540;
660.6000;0.7082;1.3588;
660.9000;0.7033;1.3491;
661.2000;0.7049;1.3564;
661.5000;0.7000;1.3491;
661.8000;0.7000;1.3564;
662.1000;0.6992;1.3612;
662.4000;0.7017;1.3636;
662.7000;0.6992;1.3636;
663.0000;0.6976;1.3612;
663.3000;0.6968;1.3564;
663.6000;0.6952;1.3491;
663.9000;0.6976;1.3612;
664.2000;0.6960;1.3515;
664.5000;0.7000;1.3588;
664.8000;0.6968;1.3443;
665.1000;0.6968;1.3515;
665.4000;0.6943;1.3443;
665.7000;0.6943;1.3467;
666.0000;0.6943;1.3540;
666.3000;0.6943;1.3515;
666.6000;0.6935;1.3515;
666.9000;0.7041;1.3756;
667.2000;0.6919;1.3540;
667.5000;0.6927;1.3564;
667.8000;0.6919;1.3564;
668.1000;0.6911;1.3515;
668.4000;0.6919;1.3491;
668.7000;0.6903;1.3564;
669.0000;0.6911;1.3540;
669.3000;0.6903;1.3491;
669.6000;0.6895;1.3419;
669.9000;0.6895;1.3467;
670.2000;0.6886;1.3564;
670.5000;0.6895;1.3467;
670.8000;0.6878;1.3467;
671.1000;0.6878;1.3491;
671.4000;0.6862;1.3419;
671.7000;0.6862;1.3371;
672.0000;0.6862;1.3395;
672.3000;0.6813;1.3371;
672.6000;0.6829;1.3467;
672.9000;0.6797;1.3371;
673.2000;0.6838;1.3540;
673.5000;0.6821;1.3515;
673.8000;0.6838;1.3419;
674.1000;0.6781;1.3323;
674.4000;0.6813;1.3419;
674.7000;0.6838;1.3395;
675.0000;0.6789;1.3395;
675.3000;0.6813;1.3371;
675.6000;0.6797;1.3323;
675.9000;0.6805;1.3371;
676.2000;0.6813;1.3371;
676.5000;0.6797;1.3371;
676.8000;0.6789;1.3371;
677.1000;0.6789;1.3443;
677.4000;0.6772;1.3443;
677.7000;0.6772;1.3347;
678.0000;0.6789;1.3323;
678.3000;0.6781;1.3371;
678.6000;0.6781;1.3443;
678.9000;0.6821;1.3588;
679.2000;0.6772;1.3419;
679.5000;0.6748;1.3395;
679.8000;0.6748;1.3467;
680.1000;0.6707;1.3347;
680.4000;0.6764;1.3491;
680.7000;0.6748;1.3443;
681.0000;0.6740;1.3419;
681.3000;0.6707;1.3299;
681.6000;0.6756;1.3419;
681.9000;0.6724;1.3323;
682.2000;0.6642;1.3131;
682.5000;0.6732;1.3371;
682.8000;0.6724;1.3371;
683.1000;0.6740;1.3395;
683.4000;0.6724;1.3323;
683.7000;0.6716;1.3395;
684.0000;0.6724;1.3323;
684.3000;0.6756;1.3347;
684.6000;0.6659;1.3179;
684.9000;0.6716;1.3275;
685.2000;0.6707;1.3275;
685.5000;0.6707;1.3371;
685.8000;0.6716;1.3443;
686.1000;0.6699;1.3491;
686.4000;0.6707;1.3564;
686.7000;0.6699;1.3564;
687.0000;0.6675;1.3540;
687.3000;0.6683;1.3612;
687.6000;0.6675;1.3564;
687.9000;0.6691;1.3491;
688.2000;0.6675;1.3347;
688.5000;0.6659;1.3371;
688.8000;0.6683;1.3467;
689.1000;0.6683;1.3467;
689.4000;0.6650;1.3347;
689.7000;0.6667;1.3347;
690.0000;0.6667;1.3347;
690.3000;0.6650;1.3395;
690.6000;0.6659;1.3371;
690.9000;0.6650;1.3419;
691.2000;0.6650;1.3467;
691.5000;0.6585;1.3251;
691.8000;0.6650;1.3395;
692.1000;0.6659;1.3347;
692.4000;0.6626;1.3227;
692.7000;0.6634;1.3179;
693.0000;0.6626;1.3251;
693.3000;0.6626;1.3299;
693.6000;0.6634;1.3371;
693.9000;0.6626;1.3371;
694.2000;0.6618;1.3371;
694.5000;0.6618;1.3347;
694.8000;0.6618;1.3419;
695.1000;0.6610;1.3491;
695.4000;0.6618;1.3371;
695.7000;0.6602;1.3323;
696.0000;0.6602;1.3395;
696.3000;0.6650;1.3564;
696.6000;0.6626;1.3491;
696.9000;0.6610;1.3371;
697.2000;0.6496;1.3059;
697.5000;0.6577;1.3203;
697.8000;0.6602;1.3227;
698.1000;0.6528;1.3010;
698.4000;0.6593;1.3227;
698.7000;0.6593;1.3203;
699.0000;0.6593;1.3155;
699.3000;0.6626;1.3251;
699.6000;0.6577;1.3083;
699.9000;0.6569;1.3107;
700.2000;0.6610;1.3227;
700.5000;0.6593;1.3227;
700.8000;0.6593;1.3155;
701.1000;0.6585;1.3155;
701.4000;0.6593;1.3131;
701.7000;0.6569;1.3107;
702.0000;0.6577;1.3179;
702.3000;0.6577;1.3227;
702.6000;0.6569;1.3251;
702.9000;0.6577;1.3275;
703.2000;0.6585;1.3251;
703.5000;0.6569;1.3155;
703.8000;0.6561;1.3131;
704.1000;0.6610;1.3227;
704.4000;0.6561;1.3155;
704.7000;0.6561;1.3107;
705.0000;0.6536;1.3107;
705.3000;0.6561;1.3203;
705.6000;0.6634;1.3371;
705.9000;0.6569;1.3131;
706.2000;0.6528;1.3010;
706.5000;0.6626;1.3203;
706.8000;0.6488;1.2914;
707.1000;0.6553;1.3035;
707.4000;0.6585;1.3155;
707.7000;0.6561;1.3107;
708.0000;0.6512;1.3010;
708.3000;0.6536;1.3035;
708.6000;0.6512;1.3083;
708.9000;0.6520;1.3203;
709.2000;0.6528;1.3299;
709.5000;0.6553;1.3443;
709.8000;0.6528;1.3443;
710.1000;0.6528;1.3467;
710.4000;0.6488;1.3395;
710.7000;0.6488;1.3347;
711.0000;0.6520;1.3443;
711.3000;0.6528;1.3491;
711.6000;0.6602;1.3540;
711.9000;0.6528;1.3323;
712.2000;0.6520;1.3275;
712.5000;0.6504;1.3203;
712.8000;0.6496;1.3035;
713.1000;0.6496;1.3059;
713.4000;0.6431;1.2890;
713.7000;0.6504;1.3179;
714.0000;0.6528;1.3347;
714.3000;0.6512;1.3275;
714.6000;0.6504;1.3323;
714.9000;0.6488;1.3347;
715.2000;0.6496;1.3443;
715.5000;0.6471;1.3395;
715.8000;0.6488;1.3443;
716.1000;0.6479;1.3395;
716.4000;0.6471;1.3419;
716.7000;0.6488;1.3443;
717.0000;0.6488;1.3491;
717.3000;0.6496;1.3540;
717.6000;0.6479;1.3443;
717.9000;0.6471;1.3443;
718.2000;0.6455;1.3467;
718.5000;0.6439;1.3467;
718.8000;0.6479;1.3491;
719.1000;0.6496;1.3540;
719.4000;0.6479;1.3515;
719.7000;0.6512;1.3515;
720.0000;0.6479;1.3347;
720.3000;0.6496;1.3371;
720.6000;0.6496;1.3347;
720.9000;0.6512;1.3275;
721.2000;0.6463;1.3203;
721.5000;0.6463;1.3251;
721.8000;0.6471;1.3299;
722.1000;0.6488;1.3371;
722.4000;0.6471;1.3419;
722.7000;0.6447;1.3395;
723.0000;0.6455;1.3323;
723.3000;0.6439;1.3299;
723.6000;0.6471;1.3347;
723.9000;0.6455;1.3203;
724.2000;0.6455;1.3203;
724.5000;0.6463;1.3275;
724.8000;0.6479;1.3347;
725.1000;0.6455;1.3347;
725.4000;0.6463;1.3443;
725.7000;0.6455;1.3347;
726.0000;0.6455;1.3275;
726.3000;0.6455;1.3275;
726.6000;0.6431;1.3395;
726.9000;0.6447;1.3467;
727.2000;0.6463;1.3467;
727.5000;0.6447;1.3419;
727.8000;0.6439;1.3395;
728.1000;0.6447;1.3395;
728.4000;0.6439;1.3275;
728.7000;0.6447;1.3227;
729.0000;0.6439;1.3227;
729.3000;0.6422;1.3131;
729.6000;0.6447;1.3275;
729.9000;0.6431;1.3347;
730.2000;0.6439;1.3419;
730.5000;0.6463;1.3467;
730.8000;0.6439;1.3419;
731.1000;0.6447;1.3395;
731.4000;0.6455;1.3467;
731.7000;0.6422;1.3467;
732.0000;0.6431;1.3491;
732.3000;0.6431;1.3443;
732.6000;0.6422;1.3491;
732.9000;0.6439;1.3419;
733.2000;0.6439;1.3491;
733.5000;0.6439;1.3467;
733.8000;0.6455;1.3467;
734.1000;0.6422;1.3395;
734.4000;0.6455;1.3491;
734.7000;0.6431;1.3419;
735.0000;0.6422;1.3395;
735.3000;0.6414;1.3443;
735.6000;0.6398;1.3540;
735.9000;0.6439;1.3564;
736.2000;0.6439;1.3515;
736.5000;0.6422;1.3419;
736.8000;0.6300;1.3131;
737.1000;0.6398;1.3371;
737.4000;0.6414;1.3419;
737.7000;0.6455;1.3540;
738.0000;0.6406;1.3323;
738.3000;0.6422;1.3275;
738.6000;0.6422;1.3299;
738.9000;0.6414;1.3347;
739.2000;0.6398;1.3251;
739.5000;0.6431;1.3299;
739.8000;0.6406;1.3251;
740.1000;0.6447;1.3443;
740.4000;0.6422;1.3371;
740.7000;0.6374;1.3299;
741.0000;0.6341;1.3251;
741.3000;0.6406;1.3347;
741.6000;0.6390;1.3275;
741.9000;0.6479;1.3467;
742.2000;0.6431;1.3323;
742.5000;0.6414;1.3323;
742.8000;0.6406;1.3275;
743.1000;0.6406;1.3227;
743.4000;0.6398;1.3179;
743.7000;0.6414;1.3251;
744.0000;0.6382;1.3347;
744.3000;0.6357;1.3251;
744.6000;0.6406;1.3371;
744.9000;0.6398;1.3299;
745.2000;0.6341;1.3083;
745.5000;0.6406;1.3203;
745.8000;0.6390;1.3083;
746.1000;0.6414;1.3251;
746.4000;0.6398;1.3251;
746.7000;0.6374;1.3299;
747.0000;0.6374;1.3323;
747.3000;0.6357;1.3179;
747.6000;0.6382;1.3179;
747.9000;0.6374;1.3155;
748.2000;0.6341;1.3179;
748.5000;0.6374;1.3275;
748.8000;0.6382;1.3275;
749.1000;0.6365;1.3251;
749.4000;0.6382;1.3371;
749.7000;0.6382;1.3347;
750.0000;0.6341;1.3275;
750.3000;0.6496;1.3684;
750.6000;0.6374;1.3443;
750.9000;0.6398;1.3564;
751.2000;0.6365;1.3515;
751.5000;0.6390;1.3323;
751.8000;0.6398;1.3251;
752.1000;0.6292;1.3010;
752.4000;0.6390;1.3299;
752.7000;0.6382;1.3299;
753.0000;0.6317;1.3131;
753.3000;0.6357;1.3275;
753.6000;0.6374;1.3299;
753.9000;0.6365;1.3347;
754.2000;0.6365;1.3275;
754.5000;0.6365;1.3227;
754.8000;0.6349;1.3131;
755.1000;0.6333;1.3059;
755.4000;0.6382;1.3155;
755.7000;0.6357;1.3155;
756.0000;0.6374;1.3203;
756.3000;0.6357;1.3179;
756.6000;0.6357;1.3203;
756.9000;0.6357;1.3275;
757.2000;0.6357;1.3251;
757.5000;0.6357;1.3275;
757.8000;0.6357;1.3227;
758.1000;0.6357;1.3179;
758.4000;0.6382;1.3299;
758.7000;0.6341;1.3227;
759.0000;0.6357;1.3203;
759.3000;0.6349;1.3299;
759.6000;0.6365;1.3275;
759.9000;0.6333;1.3179;
760.2000;0.6365;1.3059;
760.5000;0.6300;1.2938;
760.8000;0.6349;1.3107;
761.1000;0.6357;1.3131;
761.4000;0.6341;1.3179;
761.7000;0.6365;1.3299;
762.0000;0.6374;1.3371;
762.3000;0.6365;1.3299;
762.6000;0.6382;1.3299;
762.9000;0.6374;1.3323;
763.2000;0.6374;1.3323;
763.5000;0.6365;1.3275;
763.8000;0.6349;1.3347;
764.1000;0.6357;1.3419;
764.4000;0.6374;1.3443;
764.7000;0.6325;1.3395;
765.0000;0.6357;1.3347;
765.3000;0.6365;1.3395;
765.6000;0.6365;1.3419;
765.9000;0.6357;1.3347;
766.2000;0.6349;1.3323;
766.5000;0.6341;1.3395;
766.8000;0.6357;1.3419;
767.1000;0.6349;1.3395;
767.4000;0.6357;1.3347;
767.7000;0.6365;1.3323;
768.0000;0.6406;1.3443;
768.3000;0.6365;1.3371;
768.6000;0.6341;1.3323;
768.9000;0.6365;1.3395;
769.2000;0.6374;1.3467;
769.5000;0.6349;1.3491;
769.8000;0.6292;1.3371;
770.1000;0.6309;1.3371;
770.4000;0.6317;1.3419;
770.7000;0.6317;1.3323;
771.0000;0.6276;1.3299;
771.3000;0.6333;1.3540;
771.6000;0.6309;1.3443;
771.9000;0.6333;1.3443;
772.2000;0.6341;1.3491;
772.5000;0.6333;1.3564;
772.8000;0.6309;1.3515;
773.1000;0.6357;1.3684;
773.4000;0.6325;1.3732;
773.7000;0.6333;1.3588;
774.0000;0.6309;1.3636;
774.3000;0.6276;1.3612;
774.6000;0.6333;1.3780;
774.9000;0.6341;1.3756;
775.2000;0.6333;1.3732;
775.5000;0.6333;1.3756;
775.8000;0.6235;1.3588;
776.1000;0.6292;1.3612;
776.4000;0.6292;1.3540;
776.7000;0.6382;1.3612;
777.0000;0.6300;1.3347;
777.3000;0.6349;1.3467;
777.6000;0.6333;1.3395;
777.9000;0.6317;1.3395;
778.2000;0.6333;1.3443;
778.5000;0.6341;1.3515;
778.8000;0.6333;1.3588;
779.1000;0.6317;1.3491;
779.4000;0.6317;1.3612;
779.7000;0.6317;1.3588;
780.0000;0.6325;1.3540;
780.3000;0.6300;1.3395;
780.6000;0.6300;1.3395;
780.9000;0.6317;1.3467;
781.2000;0.6309;1.3467;
781.5000;0.6300;1.3443;
781.8000;0.6317;1.3443;
782.1000;0.6325;1.3371;
782.4000;0.6325;1.3347;
782.7000;0.6317;1.3443;
783.0000;0.6341;1.3540;
783.3000;0.6325;1.3467;
783.6000;0.6300;1.3467;
783.9000;0.6284;1.3467;
784.2000;0.6317;1.3467;
784.5000;0.6382;1.3612;
784.8000;0.6300;1.3371;
785.1000;0.6317;1.3419;
785.4000;0.6300;1.3395;
785.7000;0.6333;1.3371;
786.0000;0.6325;1.3323;
786.3000;0.6341;1.3419;
786.6000;0.6317;1.3443;
786.9000;0.6325;1.3443;
787.2000;0.6300;1.3395;
787.5000;0.6325;1.3443;
787.8000;0.6292;1.3395;
788.1000;0.6309;1.3491;
788.4000;0.6300;1.3467;
788.7000;0.6300;1.3395;
789.0000;0.6374;1.3612;
789.3000;0.6260;1.3347;
789.6000;0.6325;1.3491;
789.9000;0.6309;1.3491;
790.2000;0.6252;1.3347;
790.5000;0.6284;1.3443;
790.8000;0.6341;1.3491;
791.1000;0.6309;1.3443;
791.4000;0.6357;1.3564;
791.7000;0.6317;1.3515;
792.0000;0.6309;1.3419;
792.3000;0.6235;1.3179;
792.6000;0.6325;1.3371;
792.9000;0.6276;1.3347;
793.2000;0.6300;1.3419;
793.5000;0.6300;1.3491;
793.8000;0.6243;1.3467;
794.1000;0.6284;1.3515;
794.4000;0.6276;1.3515;
794.7000;0.6268;1.3515;
795.0000;0.6284;1.3540;
795.3000;0.6292;1.3636;
795.6000;0.6325;1.3708;
795.9000;0.6300;1.3540;
796.2000;0.6309;1.3443;
796.5000;0.6325;1.3299;
796.8000;0.6276;1.3131;
797.1000;0.6309;1.3275;
797.4000;0.6325;1.3371;
797.7000;0.6317;1.3347;
798.0000;0.6300;1.3347;
798.3000;0.6317;1.3347;
798.6000;0.6300;1.3275;
798.9000;0.6284;1.3299;
799.2000;0.6300;1.3227;
799.5000;0.6292;1.3203;
799.8000;0.6309;1.3299;
800.1000;0.6292;1.3299;
800.4000;0.6292;1.3395;
800.7000;0.6292;1.3395;
801.0000;0.6317;1.3443;
801.3000;0.6309;1.3419;
801.6000;0.6292;1.3299;
801.9000;0.6365;1.3540;
802.2000;0.6300;1.3419;
802.5000;0.6292;1.3347;
802.8000;0.6300;1.3323;
803.1000;0.6284;1.3395;
803.4000;0.6292;1.3419;
803.7000;0.6292;1.3395;
804.0000;0.6292;1.3395;
804.3000;0.6292;1.3371;
804.6000;0.6300;1.3419;
804.9000;0.6284;1.3443;
805.2000;0.6317;1.3443;
805.5000;0.6292;1.3419;
805.8000;0.6284;1.3371;
806.1000;0.6300;1.3419;
806.4000;0.6235;1.3179;
806.7000;0.6276;1.3347;
807.0000;0.6300;1.3347;
807.3000;0.6284;1.3299;
807.6000;0.6284;1.3299;
807.9000;0.6284;1.3443;
808.2000;0.6292;1.3540;
808.5000;0.6300;1.3467;
808.8000;0.6292;1.3443;
809.1000;0.6276;1.3564;
809.4000;0.6268;1.3419;
809.7000;0.6284;1.3395;
810.0000;0.6284;1.3443;
810.3000;0.6268;1.3395;
810.6000;0.6284;1.3419;
810.9000;0.6268;1.3419;
811.2000;0.6325;1.3564;
811.5000;0.6292;1.3540;
811.8000;0.6284;1.3564;
812.1000;0.6374;1.3828;
812.4000;0.6284;1.3588;
812.7000;0.6300;1.3636;
813.0000;0.6309;1.3684;
813.3000;0.6268;1.3564;
813.6000;0.6292;1.3660;
813.9000;0.6268;1.3540;
814.2000;0.6186;1.3371;
814.5000;0.6268;1.3564;
814.8000;0.6276;1.3564;
815.1000;0.6284;1.3612;
815.4000;0.6309;1.3684;
815.7000;0.6235;1.3588;
816.0000;0.6276;1.3684;
816.3000;0.6292;1.3756;
816.6000;0.6276;1.3756;
816.9000;0.6268;1.3708;
817.2000;0.6276;1.3636;
817.5000;0.6276;1.3612;
817.8000;0.6276;1.3588;
818.1000;0.6276;1.3467;
818.4000;0.6276;1.3323;
818.7000;0.6268;1.3299;
819.0000;0.6268;1.3323;
819.3000;0.6260;1.3467;
819.6000;0.6268;1.3515;
819.9000;0.6341;1.3708;
820.2000;0.6276;1.3540;
820.5000;0.6292;1.3540;
820.8000;0.6268;1.3467;
821.1000;0.6260;1.3491;
821.4000;0.6243;1.3467;
821.7000;0.6268;1.3491;
822.0000;0.6252;1.3564;
822.3000;0.6276;1.3660;
822.6000;0.6260;1.3612;
822.9000;0.6260;1.3540;
823.2000;0.6260;1.3515;
823.5000;0.6252;1.3515;
823.8000;0.6243;1.3491;
824.1000;0.6268;1.3588;
824.4000;0.6252;1.3467;
824.7000;0.6276;1.3491;
825.0000;0.6260;1.3491;
825.3000;0.6260;1.3491;
825.6000;0.6276;1.3564;
825.9000;0.6252;1.3491;
826.2000;0.6276;1.3540;
826.5000;0.6309;1.3564;
826.8000;0.6243;1.3443;
827.1000;0.6252;1.3443;
827.4000;0.6268;1.3443;
827.7000;0.6276;1.3467;
828.0000;0.6382;1.3708;
828.3000;0.6276;1.3419;
828.6000;0.6284;1.3467;
828.9000;0.6268;1.3419;
829.2000;0.6260;1.3540;
829.5000;0.6260;1.3491;
829.8000;0.6260;1.3491;
830.1000;0.6341;1.3540;
830.4000;0.6268;1.3371;
830.7000;0.6252;1.3299;
831.0000;0.6195;1.3227;
831.3000;0.6276;1.3540;
831.6000;0.6276;1.3443;
831.9000;0.6268;1.3395;
832.2000;0.6252;1.3371;
832.5000;0.6260;1.3179;
832.8000;0.6276;1.3227;
833.1000;0.6292;1.3347;
833.4000;0.6268;1.3371;
833.7000;0.6268;1.3371;
834.0000;0.6235;1.3227;
834.3000;0.6260;1.3371;
834.6000;0.6284;1.3323;
834.9000;0.6260;1.3251;
835.2000;0.6243;1.3251;
835.5000;0.6243;1.3275;
835.8000;0.6309;1.3564;
836.1000;0.6252;1.3467;
836.4000;0.6252;1.3443;
836.7000;0.6268;1.3491;
837.0000;0.6260;1.3419;
837.3000;0.6252;1.3443;
837.6000;0.6252;1.3467;
837.9000;0.6325;1.3515;
838.2000;0.6260;1.3467;
838.5000;0.6252;1.3515;
838.8000;0.6268;1.3564;
839.1000;0.6317;1.3636;
839.4000;0.6284;1.3515;
839.7000;0.6260;1.3395;
840.0000;0.6235;1.3419;
840.3000;0.6268;1.3347;
840.6000;0.6260;1.3347;
840.9000;0.6292;1.3395;
841.2000;0.6260;1.3323;
841.5000;0.6260;1.3395;
841.8000;0.6276;1.3491;
842.1000;0.6268;1.3540;
842.4000;0.6276;1.3564;
842.7000;0.6276;1.3588;
843.0000;0.6243;1.3491;
843.3000;0.6243;1.3395;
843.6000;0.6252;1.3443;
843.9000;0.6186;1.3227;
844.2000;0.6276;1.3371;
844.5000;0.6227;1.3371;
844.8000;0.6292;1.3540;
845.1000;0.6235;1.3419;
845.4000;0.6260;1.3371;
845.7000;0.6243;1.3395;
846.0000;0.6276;1.3491;
846.3000;0.6227;1.3275;
846.6000;0.6260;1.3371;
846.9000;0.6268;1.3419;
847.2000;0.6349;1.3612;
847.5000;0.6276;1.3491;
847.8000;0.6235;1.3371;
848.1000;0.6276;1.3443;
848.4000;0.6260;1.3419;
848.7000;0.6276;1.3467;
849.0000;0.6227;1.3323;
849.3000;0.6243;1.3323;
849.6000;0.6268;1.3347;
849.9000;0.6243;1.3251;
850.2000;0.6252;1.3299;
850.5000;0.6276;1.3395;
850.8000;0.6235;1.3371;
851.1000;0.6260;1.3467;
851.4000;0.6260;1.3371;
851.7000;0.6243;1.3395;
852.0000;0.6292;1.3588;
852.3000;0.6260;1.3515;
852.6000;0.6235;1.3515;
852.9000;0.6268;1.3588;
853.2000;0.6243;1.3588;
853.5000;0.6260;1.3612;
853.8000;0.6252;1.3732;
854.1000;0.6243;1.3756;
854.4000;0.6325;1.3852;
854.7000;0.6260;1.3660;
855.0000;0.6211;1.3491;
855.3000;0.6243;1.3467;
855.6000;0.6227;1.3395;
855.9000;0.6243;1.3371;
856.2000;0.6276;1.3540;
856.5000;0.6252;1.3515;
856.8000;0.6227;1.3540;
857.1000;0.6227;1.3540;
857.4000;0.6260;1.3564;
857.7000;0.6252;1.3564;
858.0000;0.6260;1.3515;
858.3000;0.6260;1.3467;
858.6000;0.6252;1.3443;
858.9000;0.6243;1.3443;
859.2000;0.6203;1.3371;
859.5000;0.6243;1.3395;
859.8000;0.6235;1.3395;
860.1000;0.6235;1.3419;
860.4000;0.6235;1.3395;
860.7000;0.6243;1.3395;
861.0000;0.6252;1.3419;
861.3000;0.6162;1.3275;
861.6000;0.6252;1.3540;
861.9000;0.6284;1.3660;
862.2000;0.6300;1.3684;
862.5000;0.6260;1.3612;
862.8000;0.6227;1.3443;
863.1000;0.6243;1.3540;
863.4000;0.6260;1.3588;
863.7000;0.6260;1.3540;
864.0000;0.6243;1.3515;
864.3000;0.6243;1.3443;
864.6000;0.6260;1.3443;
864.9000;0.6203;1.3371;
865.2000;0.6195;1.3395;
865.5000;0.6227;1.3467;
865.8000;0.6276;1.3660;
866.1000;0.6211;1.3564;
866.4000;0.6252;1.3636;
866.7000;0.6243;1.3708;
867.0000;0.6243;1.3636;
867.3000;0.6260;1.3684;
867.6000;0.6235;1.3515;
867.9000;0.6235;1.3515;
868.2000;0.6195;1.3467;
868.5000;0.6260;1.3612;
868.8000;0.6195;1.3515;
869.1000;0.6309;1.3780;
869.4000;0.6252;1.3636;
869.7000;0.6300;1.3732;
870.0000;0.6211;1.3588;
870.3000;0.6260;1.3708;
870.6000;0.6227;1.3540;
870.9000;0.6243;1.3612;
871.2000;0.6276;1.3732;
871.5000;0.6284;1.3708;
871.8000;0.6219;1.3491;
872.1000;0.6243;1.3467;
872.4000;0.6235;1.3467;
872.7000;0.6227;1.3371;
873.0000;0.6243;1.3564;
873.3000;0.6260;1.3612;
873.6000;0.6300;1.3708;
873.9000;0.6243;1.3515;
874.2000;0.6227;1.3515;
874.5000;0.6235;1.3540;
874.8000;0.6252;1.3636;
875.1000;0.6235;1.3612;
875.4000;0.6203;1.3564;
875.7000;0.6243;1.3612;
876.0000;0.6243;1.3684;
876.3000;0.6203;1.3588;
876.6000;0.6243;1.3636;
876.9000;0.6211;1.3612;
877.2000;0.6227;1.3660;
877.5000;0.6243;1.3612;
877.8000;0.6227;1.3660;
878.1000;0.6235;1.3684;
878.4000;0.6243;1.3756;
878.7000;0.6219;1.3732;
879.0000;0.6227;1.3636;
879.3000;0.6211;1.3612;
879.6000;0.6243;1.3636;
879.9000;0.6260;1.3588;
880.2000;0.6260;1.3564;
880.5000;0.6219;1.3540;
880.8000;0.6243;1.3564;
881.1000;0.6260;1.3564;
881.4000;0.6243;1.3588;
881.7000;0.6211;1.3660;
882.0000;0.6235;1.3756;
882.3000;0.6162;1.3588;
882.6000;0.6243;1.3756;
882.9000;0.6235;1.3804;
883.2000;0.6243;1.3828;
883.5000;0.6252;1.3732;
883.8000;0.6260;1.3804;
884.1000;0.6219;1.3732;
884.4000;0.6219;1.3708;
884.7000;0.6243;1.3804;
885.0000;0.6252;1.3876;
885.3000;0.6260;1.3780;
885.6000;0.6227;1.3708;
885.9000;0.6260;1.3756;
886.2000;0.6227;1.3732;
886.5000;0.6235;1.3684;
886.8000;0.6211;1.3684;
887.1000;0.6178;1.3540;
887.4000;0.6276;1.3780;
887.7000;0.6219;1.3636;
888.0000;0.6227;1.3612;
888.3000;0.6227;1.3588;
888.6000;0.6227;1.3636;
888.9000;0.6219;1.3588;
889.2000;0.6219;1.3588;
889.5000;0.6235;1.3588;
889.8000;0.6243;1.3612;
890.1000;0.6227;1.3588;
890.4000;0.6235;1.3636;
890.7000;0.6219;1.3612;
891.0000;0.6235;1.3612;
891.3000;0.6227;1.3660;
891.6000;0.6243;1.3684;
891.9000;0.6235;1.3612;
892.2000;0.6195;1.3540;
892.5000;0.6227;1.3636;
892.8000;0.6227;1.3612;
893.1000;0.6195;1.3515;
893.4000;0.6203;1.3515;
893.7000;0.6252;1.3660;
894.0000;0.6252;1.3708;
894.3000;0.6219;1.3684;
894.6000;0.6276;1.3708;
894.9000;0.6235;1.3588;
895.2000;0.6235;1.3588;
895.5000;0.6243;1.3660;
895.8000;0.6219;1.3540;
896.1000;0.6243;1.3588;
896.4000;0.6243;1.3588;
896.7000;0.6252;1.3564;
897.0000;0.6227;1.3588;
897.3000;0.6219;1.3588;
897.6000;0.6243;1.3612;
897.9000;0.6243;1.3660;
898.2000;0.6252;1.3684;
898.5000;0.6178;1.3540;
898.8000;0.6243;1.3708;
899.1000;0.6227;1.3708;
899.4000;0.6243;1.3756;
899.7000;0.6235;1.3804;
900.0000;0.6235;1.3852;
900.3000;0.6252;1.3780;
900.6000;0.6227;1.3828;
900.9000;0.6211;1.3708;
901.2000;0.6227;1.3732;
901.5000;0.6243;1.3852;
901.8000;0.6235;1.3732;
902.1000;0.6227;1.3732;
902.4000;0.6219;1.3660;
902.7000;0.6211;1.3588;
903.0000;0.6170;1.3540;
903.3000;0.6211;1.3636;
903.6000;0.6243;1.3780;
903.9000;0.6227;1.3780;
904.2000;0.6252;1.3876;
904.5000;0.6235;1.3780;
904.8000;0.6227;1.3684;
905.1000;0.6195;1.3588;
905.4000;0.6227;1.3660;
905.7000;0.6235;1.3732;
906.0000;0.6178;1.3660;
906.3000;0.6211;1.3732;
906.6000;0.6227;1.3684;
906.9000;0.6219;1.3732;
907.2000;0.6235;1.3684;
907.5000;0.6227;1.3660;
907.8000;0.6235;1.3612;
908.1000;0.6203;1.3540;
908.4000;0.6138;1.3515;
908.7000;0.6243;1.3852;
909.0000;0.6300;1.3948;
909.3000;0.6219;1.3804;
909.6000;0.6219;1.3780;
909.9000;0.6219;1.3828;
910.2000;0.6227;1.3780;
910.5000;0.6219;1.3780;
910.8000;0.6211;1.3780;
911.1000;0.6146;1.3612;
911.4000;0.6243;1.3852;
911.7000;0.6227;1.3780;
912.0000;0.6268;1.3924;
912.3000;0.6243;1.3900;
912.6000;0.6235;1.3972;
912.9000;0.6252;1.4069;
913.2000;0.6235;1.4021;
913.5000;0.6227;1.3924;
913.8000;0.6219;1.3924;
914.1000;0.6219;1.3924;
914.4000;0.6227;1.3876;
914.7000;0.6227;1.3828;
915.0000;0.6235;1.3828;
915.3000;0.6235;1.3756;
915.6000;0.6243;1.3756;
915.9000;0.6219;1.3636;
916.2000;0.6203;1.3515;
916.5000;0.6203;1.3564;
916.8000;0.6211;1.3588;
917.1000;0.6227;1.3636;
917.4000;0.6211;1.3660;
917.7000;0.6211;1.3660;
918.0000;0.6211;1.3732;
918.3000;0.6227;1.3636;
918.6000;0.6219;1.3612;
918.9000;0.6219;1.3660;
919.2000;0.6227;1.3636;
919.5000;0.6243;1.3708;
919.8000;0.6235;1.3732;
920.1000;0.6227;1.3732;
920.4000;0.6235;1.3756;
920.7000;0.6219;1.3804;
921.0000;0.6235;1.3756;
921.3000;0.6203;1.3660;
921.6000;0.6276;1.3708;
921.9000;0.6219;1.3684;
922.2000;0.6235;1.3660;
922.5000;0.6211;1.3540;
922.8000;0.6203;1.3588;
923.1000;0.6227;1.3684;
923.4000;0.6227;1.3684;
923.7000;0.6235;1.3660;
924.0000;0.6227;1.3636;
924.3000;0.6227;1.3612;
924.6000;0.6138;1.3419;
924.9000;0.6219;1.3612;
925.2000;0.6195;1.3467;
925.5000;0.6211;1.3612;
925.8000;0.6211;1.3708;
926.1000;0.6186;1.3636;
926.4000;0.6211;1.3684;
926.7000;0.6227;1.3756;
927.0000;0.6235;1.3828;
927.3000;0.6227;1.3756;
927.6000;0.6186;1.3660;
927.9000;0.6235;1.3660;
928.2000;0.6178;1.3515;
928.5000;0.6235;1.3540;
928.8000;0.6146;1.3347;
929.1000;0.6227;1.3515;
929.4000;0.6219;1.3515;
929.7000;0.6227;1.3588;
930.0000;0.6203;1.3515;
930.3000;0.6276;1.3732;
930.6000;0.6195;1.3443;
930.9000;0.6211;1.3540;
931.2000;0.6235;1.3540;
931.5000;0.6195;1.3467;
931.8000;0.6146;1.3371;
932.1000;0.6211;1.3564;
932.4000;0.6203;1.3636;
932.7000;0.6227;1.3660;
933.0000;0.6260;1.3636;
933.3000;0.6227;1.3515;
933.6000;0.6203;1.3467;
933.9000;0.6195;1.3491;
934.2000;0.6203;1.3467;
934.5000;0.6227;1.3612;
934.8000;0.6227;1.3564;
935.1000;0.6235;1.3540;
935.4000;0.6121;1.3227;
935.7000;0.6219;1.3515;
936.0000;0.6186;1.3395;
936.3000;0.6170;1.3371;
936.6000;0.6211;1.3323;
936.9000;0.6211;1.3299;
937.2000;0.6211;1.3251;
937.5000;0.6203;1.3275;
937.8000;0.6219;1.3275;
938.1000;0.6211;1.3275;
938.4000;0.6138;1.3059;
938.7000;0.6227;1.3251;
939.0000;0.6243;1.3347;
939.3000;0.6260;1.3419;
939.6000;0.6227;1.3419;
939.9000;0.6211;1.3395;
940.2000;0.6219;1.3347;
940.5000;0.6219;1.3299;
940.8000;0.6186;1.3299;
941.1000;0.6211;1.3419;
941.4000;0.6227;1.3443;
941.7000;0.6211;1.3299;
942.0000;0.6235;1.3323;
942.3000;0.6243;1.3227;
942.6000;0.6227;1.3275;
942.9000;0.6219;1.3323;
943.2000;0.6227;1.3371;
943.5000;0.6211;1.3323;
943.8000;0.6219;1.3347;
944.1000;0.6243;1.3371;
944.4000;0.6211;1.3371;
944.7000;0.6235;1.3371;
945.0000;0.6227;1.3371;
945.3000;0.6219;1.3371;
945.6000;0.6154;1.3299;
945.9000;0.6243;1.3491;
946.2000;0.6227;1.3515;
946.5000;0.6203;1.3467;
946.8000;0.6203;1.3515;
947.1000;0.6154;1.3395;
947.4000;0.6129;1.3275;
947.7000;0.6227;1.3395;
948.0000;0.6211;1.3323;
948.3000;0.6211;1.3347;
948.6000;0.6203;1.3251;
948.9000;0.6235;1.3299;
949.2000;0.6219;1.3251;
949.5000;0.6211;1.3227;
949.8000;0.6235;1.3251;
950.1000;0.6211;1.3251;
950.4000;0.6195;1.3251;
950.7000;0.6203;1.3275;
951.0000;0.6211;1.3203;
951.3000;0.6203;1.3347;
951.6000;0.6219;1.3323;
951.9000;0.6219;1.3275;
952.2000;0.6203;1.3251;
952.5000;0.6195;1.3299;
952.8000;0.6227;1.3371;
953.1000;0.6243;1.3323;
953.4000;0.6186;1.3251;
953.7000;0.6235;1.3540;
954.0000;0.6211;1.3540;
954.3000;0.6211;1.3540;
954.6000;0.6203;1.3419;
954.9000;0.6227;1.3564;
955.2000;0.6211;1.3467;
955.5000;0.6211;1.3515;
955.8000;0.6211;1.3443;
956.1000;0.6219;1.3443;
956.4000;0.6186;1.3515;
956.7000;0.6219;1.3660;
957.0000;0.6219;1.3660;
957.3000;0.6211;1.3636;
957.6000;0.6219;1.3636;
957.9000;0.6203;1.3564;
958.2000;0.6203;1.3564;
958.5000;0.6211;1.3588;
958.8000;0.6235;1.3636;
959.1000;0.6227;1.3515;
959.4000;0.6227;1.3443;
959.7000;0.6252;1.3540;
960.0000;0.6227;1.3443;
960.3000;0.6284;1.3612;
960.6000;0.6178;1.3347;
960.9000;0.6211;1.3419;
961.2000;0.6227;1.3515;
961.5000;0.6219;1.3491;
961.8000;0.6219;1.3491;
962.1000;0.6203;1.3515;
962.4000;0.6186;1.3395;
962.7000;0.6211;1.3419;
963.0000;0.6227;1.3515;
963.3000;0.6203;1.3467;
963.6000;0.6252;1.3660;
963.9000;0.6162;1.3443;
964.2000;0.6203;1.3515;
964.5000;0.6195;1.3515;
964.8000;0.6195;1.3395;
965.1000;0.6211;1.3395;
965.4000;0.6219;1.3467;
965.7000;0.6211;1.3443;
966.0000;0.6170;1.3275;
966.3000;0.6268;1.3515;
966.6000;0.6219;1.3419;
966.9000;0.6203;1.3395;
967.2000;0.6211;1.3395;
967.5000;0.6227;1.3443;
967.8000;0.6243;1.3515;
968.1000;0.6203;1.3347;
968.4000;0.6203;1.3443;
968.7000;0.6219;1.3371;
969.0000;0.6235;1.3395;
969.3000;0.6235;1.3323;
969.6000;0.6227;1.3371;
969.9000;0.6170;1.3227;
970.2000;0.6195;1.3323;
970.5000;0.6203;1.3395;
970.8000;0.6211;1.3395;
971.1000;0.6186;1.3347;
971.4000;0.6195;1.3347;
971.7000;0.6219;1.3467;
972.0000;0.6243;1.3540;
972.3000;0.6195;1.3491;
972.6000;0.6203;1.3419;
972.9000;0.6211;1.3395;
973.2000;0.6203;1.3323;
973.5000;0.6211;1.3299;
973.8000;0.6195;1.3347;
974.1000;0.6211;1.3371;
974.4000;0.6235;1.3371;
974.7000;0.6219;1.3323;
975.0000;0.6211;1.3323;
975.3000;0.6186;1.3299;
975.6000;0.6186;1.3299;
975.9000;0.6219;1.3419;
976.2000;0.6186;1.3323;
976.5000;0.6170;1.3347;
976.8000;0.6211;1.3443;
977.1000;0.6227;1.3443;
977.4000;0.6162;1.3299;
977.7000;0.6219;1.3491;
978.0000;0.6211;1.3491;
978.3000;0.6219;1.3515;
978.6000;0.6211;1.3588;
978.9000;0.6219;1.3540;
979.2000;0.6186;1.3515;
979.5000;0.6227;1.3660;
979.8000;0.6178;1.3636;
980.1000;0.6203;1.3540;
980.4000;0.6211;1.3564;
980.7000;0.6211;1.3612;
981.0000;0.6211;1.3684;
981.3000;0.6154;1.3564;
981.6000;0.6219;1.3660;
981.9000;0.6211;1.3564;
982.2000;0.6203;1.3636;
982.5000;0.6203;1.3636;
982.8000;0.6195;1.3660;
983.1000;0.6211;1.3708;
983.4000;0.6203;1.3732;
983.7000;0.6211;1.3732;
984.0000;0.6211;1.3732;
984.3000;0.6219;1.3732;
984.6000;0.6219;1.3660;
984.9000;0.6219;1.3612;
985.2000;0.6195;1.3588;
985.5000;0.6186;1.3612;
985.8000;0.6195;1.3491;
986.1000;0.6219;1.3588;
986.4000;0.6211;1.3515;
986.7000;0.6203;1.3467;
987.0000;0.6170;1.3347;
987.3000;0.6219;1.3515;
987.6000;0.6186;1.3419;
987.9000;0.6219;1.3419;
988.2000;0.6211;1.3443;
988.5000;0.6211;1.3395;
988.8000;0.6219;1.3347;
989.1000;0.6195;1.3371;
989.4000;0.6186;1.3395;
989.7000;0.6211;1.3467;
990.0000;0.6195;1.3491;
990.3000;0.6195;1.3491;
990.6000;0.6211;1.3467;
990.9000;0.6186;1.3347;
991.2000;0.6178;1.3347;
991.5000;0.6284;1.3660;
991.8000;0.6195;1.3443;
992.1000;0.6219;1.3467;
992.4000;0.6203;1.3467;
992.7000;0.6186;1.3395;
993.0000;0.6203;1.3467;
993.3000;0.6219;1.3540;
993.6000;0.6203;1.3612;
993.9000;0.6178;1.3491;
994.2000;0.6146;1.3419;
994.5000;0.6211;1.3491;
994.8000;0.6211;1.3540;
995.1000;0.6211;1.3540;
995.4000;0.6195;1.3443;
995.7000;0.6203;1.3467;
996.0000;0.6211;1.3371;
996.3000;0.6186;1.3347;
996.6000;0.6178;1.3371;
996.9000;0.6186;1.3395;
997.2000;0.6219;1.3443;
997.5000;0.6211;1.3323;
997.8000;0.6203;1.3323;
998.1000;0.6227;1.3371;
998.4000;0.6203;1.3251;
998.7000;0.6146;1.3179;
999.0000;0.6195;1.3395;
999.3000;0.6195;1.3491;
999.6000;0.6203;1.3515;
999.9000;0.6235;1.3564;
1000.2000;0.6227;1.3491;
1000.5000;0.6211;1.3419;
1000.8000;0.6203;1.3419;
1001.1000;0.6186;1.3395;
1001.4000;0.6260;1.3588;
1001.7000;0.6186;1.3347;
1002.0000;0.6211;1.3491;
1002.3000;0.6186;1.3443;
1002.6000;0.6219;1.3515;
1002.9000;0.6195;1.3443;
1003.2000;0.6178;1.3419;
1003.5000;0.6203;1.3588;
1003.8000;0.6186;1.3540;
1004.1000;0.6195;1.3491;
1004.4000;0.6195;1.3491;
1004.7000;0.6203;1.3540;
1005.0000;0.6219;1.3540;
1005.3000;0.6211;1.3540;
1005.6000;0.6186;1.3540;
1005.9000;0.6203;1.3443;
1006.2000;0.6203;1.3515;
1006.5000;0.6154;1.3467;
1006.8000;0.6186;1.3612;
1007.1000;0.6186;1.3588;
1007.4000;0.6219;1.3588;
1007.7000;0.6203;1.3540;
1008.0000;0.6211;1.3612;
1008.3000;0.6195;1.3515;
1008.6000;0.6195;1.3564;
1008.9000;0.6219;1.3564;
1009.2000;0.6203;1.3612;
1009.5000;0.6195;1.3636;
1009.8000;0.6211;1.3612;
1010.1000;0.6203;1.3491;
1010.4000;0.6284;1.3756;
1010.7000;0.6178;1.3564;
1011.0000;0.6170;1.3540;
1011.3000;0.6186;1.3612;
1011.6000;0.6195;1.3588;
1011.9000;0.6211;1.3588;
1012.2000;0.6178;1.3540;
1012.5000;0.6203;1.3636;
1012.8000;0.6186;1.3636;
1013.1000;0.6186;1.3636;
1013.4000;0.6219;1.3612;
1013.7000;0.6186;1.3564;
1014.0000;0.6162;1.3564;
1014.3000;0.6203;1.3564;
1014.6000;0.6219;1.3564;
1014.9000;0.6227;1.3588;
1015.2000;0.6195;1.3467;
1015.5000;0.6195;1.3395;
1015.8000;0.6105;1.3275;
1016.1000;0.6178;1.3612;
1016.4000;0.6170;1.3515;
1016.7000;0.6186;1.3660;
1017.0000;0.6219;1.3756;
1017.3000;0.6097;1.3443;
1017.6000;0.6195;1.3636;
1017.9000;0.6146;1.3588;
1018.2000;0.6211;1.3756;
1018.5000;0.6203;1.3684;
1018.8000;0.6186;1.3636;
1019.1000;0.6211;1.3708;
1019.4000;0.6195;1.3612;
1019.7000;0.6284;1.3852;
1020.0000;0.6219;1.3660;
1020.3000;0.6203;1.3612;
1020.6000;0.6195;1.3491;
1020.9000;0.6186;1.3515;
1021.2000;0.6154;1.3443;
1021.5000;0.6195;1.3540;
1021.8000;0.6195;1.3540;
1022.1000;0.6203;1.3588;
1022.4000;0.6195;1.3564;
1022.7000;0.6195;1.3564;
1023.0000;0.6235;1.3732;
1023.3000;0.6195;1.3756;
1023.6000;0.6195;1.3780;
1023.9000;0.6178;1.3780;
1024.2000;0.6113;1.3636;
1024.5000;0.6203;1.3780;
1024.8000;0.6203;1.3780;
1025.1000;0.6154;1.3636;
1025.4000;0.6195;1.3612;
1025.7000;0.6203;1.3588;
1026.0000;0.6211;1.3540;
1026.3000;0.6235;1.3612;
1026.6000;0.6203;1.3636;
1026.9000;0.6178;1.3588;
1027.2000;0.6178;1.3491;
1027.5000;0.6195;1.3443;
1027.8000;0.6186;1.3564;
1028.1000;0.6178;1.3588;
1028.4000;0.6170;1.3612;
1028.7000;0.6203;1.3684;
1029.0000;0.6211;1.3684;
1029.3000;0.6203;1.3612;
1029.6000;0.6186;1.3540;
1029.9000;0.6195;1.3467;
1030.2000;0.6203;1.3540;
1030.5000;0.6211;1.3443;
1030.8000;0.6186;1.3443;
1031.1000;0.6195;1.3491;
1031.4000;0.6243;1.3540;
1031.7000;0.6203;1.3515;
1032.0000;0.6203;1.3515;
1032.3000;0.6178;1.3515;
1032.6000;0.6203;1.3491;
1032.9000;0.6186;1.3491;
1033.2000;0.6203;1.3588;
1033.5000;0.6186;1.3588;
1033.8000;0.6195;1.3612;
1034.1000;0.6203;1.3684;
1034.4000;0.6203;1.3636;
1034.7000;0.6195;1.3708;
1035.0000;0.6227;1.3804;
1035.3000;0.6186;1.3756;
1035.6000;0.6203;1.3684;
1035.9000;0.6186;1.3612;
1036.2000;0.6203;1.3540;
1036.5000;0.6203;1.3515;
1036.8000;0.6203;1.3515;
1037.1000;0.6227;1.3515;
1037.4000;0.6203;1.3419;
1037.7000;0.6186;1.3419;
1038.0000;0.6186;1.3371;
1038.3000;0.6195;1.3491;
1038.6000;0.6186;1.3419;
1038.9000;0.6186;1.3491;
1039.2000;0.6186;1.3467;
1039.5000;0.6211;1.3491;
1039.8000;0.6211;1.3419;
1040.1000;0.6129;1.3251;
1040.4000;0.6219;1.3443;
1040.7000;0.6203;1.3395;
1041.0000;0.6178;1.3371;
1041.3000;0.6211;1.3419;
1041.6000;0.6162;1.3275;
1041.9000;0.6203;1.3371;
1042.2000;0.6195;1.3443;
1042.5000;0.6186;1.3323;
1042.8000;0.6170;1.3275;
1043.1000;0.6178;1.3275;
1043.4000;0.6186;1.3395;
1043.7000;0.6203;1.3299;
1044.0000;0.6178;1.3299;
1044.3000;0.6195;1.3419;
1044.6000;0.6186;1.3395;
1044.9000;0.6203;1.3540;
1045.2000;0.6203;1.3612;
1045.5000;0.6195;1.3636;
1045.8000;0.6211;1.3660;
1046.1000;0.6195;1.3684;
1046.4000;0.6186;1.3684;
1046.7000;0.6186;1.3684;
1047.0000;0.6195;1.3684;
1047.3000;0.6235;1.3660;
1047.6000;0.6195;1.3636;
1047.9000;0.6186;1.3708;
1048.2000;0.6162;1.3684;
1048.5000;0.6170;1.3828;
1048.8000;0.6195;1.3948;
1049.1000;0.6211;1.3828;
1049.4000;0.6211;1.3900;
1049.7000;0.6178;1.3804;
1050.0000;0.6186;1.3780;
1050.3000;0.6195;1.3708;
1050.6000;0.6195;1.3684;
1050.9000;0.6170;1.3588;
1051.2000;0.6211;1.3612;
1051.5000;0.6186;1.3588;
1051.8000;0.6195;1.3588;
1052.1000;0.6203;1.3636;
1052.4000;0.6211;1.3684;
1052.7000;0.6203;1.3660;
1053.0000;0.6211;1.3684;
1053.3000;0.6195;1.3612;
1053.6000;0.6203;1.3732;
1053.9000;0.6195;1.3732;
1054.2000;0.6203;1.3780;
1054.5000;0.6195;1.3684;
1054.8000;0.6227;1.3756;
1055.1000;0.6195;1.3684;
1055.4000;0.6195;1.3732;
1055.7000;0.6121;1.3564;
1056.0000;0.6195;1.3780;
1056.3000;0.6129;1.3540;
1056.6000;0.6203;1.3708;
1056.9000;0.6186;1.3756;
1057.2000;0.6186;1.3660;
1057.5000;0.6178;1.3612;
1057.8000;0.6186;1.3660;
1058.1000;0.6195;1.3732;
1058.4000;0.6211;1.3828;
1058.7000;0.6186;1.3732;
1059.0000;0.6146;1.3612;
1059.3000;0.6203;1.3732;
1059.6000;0.6203;1.3684;
1059.9000;0.6243;1.3756;
1060.2000;0.6252;1.3732;
1060.5000;0.6227;1.3612;
1060.8000;0.6252;1.3732;
1061.1000;0.6292;1.3852;
1061.4000;0.6203;1.3588;
1061.7000;0.6186;1.3588;
1062.0000;0.6154;1.3419;
1062.3000;0.6178;1.3564;
1062.6000;0.6203;1.3540;
1062.9000;0.6178;1.3467;
1063.2000;0.6211;1.3515;
1063.5000;0.6195;1.3467;
1063.8000;0.6178;1.3467;
1064.1000;0.6227;1.3660;
1064.4000;0.6292;1.3780;
1064.7000;0.6195;1.3588;
1065.0000;0.6195;1.3612;
1065.3000;0.6195;1.3588;
1065.6000;0.6203;1.3515;
1065.9000;0.6186;1.3515;
1066.2000;0.6211;1.3564;
1066.5000;0.6186;1.3443;
1066.8000;0.6195;1.3395;
1067.1000;0.6195;1.3467;
1067.4000;0.6178;1.3467;
1067.7000;0.6211;1.3540;
1068.0000;0.6186;1.3491;
1068.3000;0.6243;1.3564;
1068.6000;0.6186;1.3419;
1068.9000;0.6186;1.3491;
1069.2000;0.6276;1.3780;
1069.5000;0.6178;1.3564;
1069.8000;0.6186;1.3540;
1070.1000;0.6186;1.3588;
1070.4000;0.6162;1.3491;
1070.7000;0.6170;1.3467;
1071.0000;0.6195;1.3443;
1071.3000;0.6162;1.3395;
1071.6000;0.6178;1.3443;
1071.9000;0.6162;1.3443;
1072.2000;0.6195;1.3419;
1072.5000;0.6203;1.3395;
1072.8000;0.6195;1.3299;
1073.1000;0.6178;1.3347;
1073.4000;0.6186;1.3419;
1073.7000;0.6186;1.3419;
1074.0000;0.6170;1.3395;
1074.3000;0.6170;1.3251;
1074.6000;0.6146;1.3251;
1074.9000;0.6203;1.3419;
1075.2000;0.6243;1.3515;
1075.5000;0.6170;1.3371;
1075.8000;0.6227;1.3467;
1076.1000;0.6211;1.3347;
1076.4000;0.6243;1.3515;
1076.7000;0.6195;1.3395;
1077.0000;0.6235;1.3588;
1077.3000;0.6186;1.3515;
1077.6000;0.6203;1.3612;
1077.9000;0.6186;1.3540;
1078.2000;0.6186;1.3540;
1078.5000;0.6252;1.3660;
1078.8000;0.6154;1.3395;
1079.1000;0.6203;1.3515;
1079.4000;0.6146;1.3443;
1079.7000;0.6154;1.3395;
1080.0000;0.6170;1.3419;
1080.3000;0.6203;1.3564;
1080.6000;0.6195;1.3491;
1080.9000;0.6121;1.3347;
1081.2000;0.6170;1.3443;
1081.5000;0.6203;1.3467;
1081.8000;0.6211;1.3588;
1082.1000;0.6203;1.3684;
1082.4000;0.6186;1.3708;
1082.7000;0.6186;1.3828;
1083.0000;0.6186;1.3828;
1083.3000;0.6178;1.3876;
1083.6000;0.6203;1.3948;
1083.9000;0.6178;1.3852;
1084.2000;0.6186;1.3900;
1084.5000;0.6186;1.3972;
1084.8000;0.6227;1.4045;
1085.1000;0.6195;1.3876;
1085.4000;0.6195;1.3900;
1085.7000;0.6211;1.3972;
1086.0000;0.6203;1.3924;
1086.3000;0.6227;1.3996;
1086.6000;0.6203;1.3900;
1086.9000;0.6186;1.3876;
1087.2000;0.6235;1.3948;
1087.5000;0.6227;1.3804;
1087.8000;0.6195;1.3756;
1088.1000;0.6186;1.3732;
1088.4000;0.6186;1.3804;
1088.7000;0.6195;1.3780;
1089.0000;0.6195;1.3852;
1089.3000;0.6162;1.3756;
1089.6000;0.6170;1.3732;
1089.9000;0.6195;1.3780;
1090.2000;0.6186;1.3756;
1090.5000;0.6170;1.3708;
1090.8000;0.6178;1.3684;
1091.1000;0.6211;1.3804;
1091.4000;0.6211;1.3780;
1091.7000;0.6186;1.3756;
1092.0000;0.6186;1.3732;
1092.3000;0.6195;1.3708;
1092.6000;0.6195;1.3708;
1092.9000;0.6203;1.3684;
1093.2000;0.6203;1.3708;
1093.5000;0.6186;1.3708;
1093.8000;0.6186;1.3612;
1094.1000;0.6178;1.3564;
1094.4000;0.6162;1.3540;
1094.7000;0.6186;1.3636;
1095.0000;0.6186;1.3660;
1095.3000;0.6178;1.3636;
1095.6000;0.6186;1.3684;
1095.9000;0.6211;1.3708;
1096.2000;0.6170;1.3491;
1096.5000;0.6186;1.3515;
1096.8000;0.6203;1.3515;
1097.1000;0.6178;1.3419;
1097.4000;0.6186;1.3491;
1097.7000;0.6203;1.3588;
1098.0000;0.6178;1.3443;
1098.3000;0.6219;1.3540;
1098.6000;0.6195;1.3491;
1098.9000;0.6195;1.3467;
1099.2000;0.6129;1.3371;
1099.5000;0.6186;1.3515;
1099.8000;0.6178;1.3443;
1100.1000;0.6195;1.3540;
1100.4000;0.6203;1.3540;
1100.7000;0.6154;1.3419;
1101.0000;0.6203;1.3564;
1101.3000;0.6121;1.3323;
1101.6000;0.6203;1.3467;
1101.9000;0.6178;1.3371;
1102.2000;0.6186;1.3419;
1102.5000;0.6162;1.3371;
1102.8000;0.6243;1.3467;
1103.1000;0.6195;1.3419;
1103.4000;0.6195;1.3419;
1103.7000;0.6170;1.3323;
1104.0000;0.6186;1.3371;
1104.3000;0.6154;1.3347;
1104.6000;0.6203;1.3467;
1104.9000;0.6227;1.3515;
1105.2000;0.6178;1.3395;
1105.5000;0.6170;1.3371;
1105.8000;0.6186;1.3443;
1106.1000;0.6186;1.3515;
1106.4000;0.6195;1.3588;
1106.7000;0.6203;1.3684;
1107.0000;0.6195;1.3636;
1107.3000;0.6178;1.3636;
1107.6000;0.6186;1.3708;
1107.9000;0.6195;1.3780;
1108.2000;0.6154;1.3467;
1108.5000;0.6195;1.3540;
1108.8000;0.6203;1.3443;
1109.1000;0.6243;1.3443;
1109.4000;0.6195;1.3443;
1109.7000;0.6146;1.3299;
1110.0000;0.6195;1.3371;
1110.3000;0.6211;1.3443;
1110.6000;0.6260;1.3540;
1110.9000;0.6178;1.3299;
1111.2000;0.6178;1.3371;
1111.5000;0.6178;1.3323;
1111.8000;0.6186;1.3275;
1112.1000;0.6170;1.3155;
1112.4000;0.6170;1.3059;
1112.7000;0.6186;1.3107;
1113.0000;0.6186;1.3083;
1113.3000;0.6186;1.3035;
1113.6000;0.6186;1.3035;
1113.9000;0.6195;1.2986;
1114.2000;0.6170;1.2986;
1114.5000;0.6186;1.3059;
1114.8000;0.6195;1.3059;
1115.1000;0.6195;1.3035;
1115.4000;0.6203;1.3083;
1115.7000;0.6203;1.3083;
1116.0000;0.6300;1.3347;
1116.3000;0.6195;1.3107;
1116.6000;0.6195;1.3155;
1116.9000;0.6195;1.3323;
1117.2000;0.6211;1.3371;
1117.5000;0.6195;1.3395;
1117.8000;0.6195;1.3491;
1118.1000;0.6105;1.3251;
1118.4000;0.6105;1.3203;
1118.7000;0.6219;1.3515;
1119.0000;0.6227;1.3443;
1119.3000;0.6195;1.3395;
1119.6000;0.6195;1.3419;
1119.9000;0.6203;1.3443;
1120.2000;0.6195;1.3443;
1120.5000;0.6203;1.3588;
1120.8000;0.6203;1.3636;
1121.1000;0.6195;1.3636;
1121.4000;0.6162;1.3612;
1121.7000;0.6170;1.3612;
1122.0000;0.6186;1.3588;
1122.3000;0.6186;1.3515;
1122.6000;0.6195;1.3515;
1122.9000;0.6195;1.3491;
1123.2000;0.6195;1.3515;
1123.5000;0.6186;1.3540;
1123.8000;0.6203;1.3636;
1124.1000;0.6211;1.3588;
1124.4000;0.6195;1.3540;
1124.7000;0.6195;1.3467;
1125.0000;0.6178;1.3395;
1125.3000;0.6186;1.3395;
1125.6000;0.6186;1.3419;
1125.9000;0.6154;1.3371;
1126.2000;0.6195;1.3419;
1126.5000;0.6162;1.3371;
1126.8000;0.6195;1.3443;
1127.1000;0.6186;1.3419;
1127.4000;0.6178;1.3491;
1127.7000;0.6089;1.3275;
1128.0000;0.6178;1.3443;
1128.3000;0.6154;1.3395;
1128.6000;0.6195;1.3443;
1128.9000;0.6170;1.3347;
1129.2000;0.6154;1.3395;
1129.5000;0.6186;1.3419;
1129.8000;0.6162;1.3371;
1130.1000;0.6154;1.3299;
1130.4000;0.6162;1.3419;
1130.7000;0.6195;1.3540;
1131.0000;0.6178;1.3540;
1131.3000;0.6195;1.3588;
1131.6000;0.6186;1.3540;
1131.9000;0.6195;1.3467;
1132.2000;0.6211;1.3540;
1132.5000;0.6170;1.3419;
1132.8000;0.6195;1.3491;
1133.1000;0.6235;1.3780;
1133.4000;0.6146;1.3491;
1133.7000;0.6170;1.3515;
1134.0000;0.6162;1.3467;
1134.3000;0.6186;1.3467;
1134.6000;0.6284;1.3684;
1134.9000;0.6186;1.3371;
1135.2000;0.6186;1.3419;
1135.5000;0.6219;1.3467;
1135.8000;0.6195;1.3443;
1136.1000;0.6219;1.3515;
1136.4000;0.6186;1.3540;
1136.7000;0.6129;1.3515;
1137.0000;0.6219;1.3804;
1137.3000;0.6203;1.3732;
1137.6000;0.6186;1.3660;
1137.9000;0.6211;1.3708;
1138.2000;0.6203;1.3708;
1138.5000;0.6186;1.3540;
1138.8000;0.6195;1.3564;
1139.1000;0.6178;1.3612;
1139.4000;0.6195;1.3732;
1139.7000;0.6211;1.3732;
1140.0000;0.6203;1.3708;
1140.3000;0.6211;1.3660;
1140.6000;0.6195;1.3540;
1140.9000;0.6186;1.3491;
1141.2000;0.6162;1.3564;
1141.5000;0.6186;1.3588;
1141.8000;0.6186;1.3636;
1142.1000;0.6170;1.3540;
1142.4000;0.6195;1.3588;
1142.7000;0.6203;1.3564;
1143.0000;0.6195;1.3540;
1143.3000;0.6170;1.3515;
1143.6000;0.6195;1.3660;
1143.9000;0.6178;1.3515;
1144.2000;0.6186;1.3491;
1144.5000;0.6186;1.3564;
1144.8000;0.6203;1.3564;
1145.1000;0.6203;1.3540;
1145.4000;0.6211;1.3443;
1145.7000;0.6203;1.3419;
1146.0000;0.6203;1.3323;
1146.3000;0.6203;1.3299;
1146.6000;0.6203;1.3347;
1146.9000;0.6195;1.3419;
1147.2000;0.6195;1.3467;
1147.5000;0.6203;1.3443;
1147.8000;0.6195;1.3443;
1148.1000;0.6186;1.3419;
1148.4000;0.6203;1.3443;
1148.7000;0.6195;1.3491;
1149.0000;0.6178;1.3491;
1149.3000;0.6178;1.3540;
1149.6000;0.6195;1.3588;
1149.9000;0.6186;1.3660;
1150.2000;0.6195;1.3660;
1150.5000;0.6186;1.3660;
1150.8000;0.6146;1.3515;
1151.1000;0.6211;1.3588;
1151.4000;0.6203;1.3612;
1151.7000;0.6203;1.3660;
1152.0000;0.6252;1.3660;
1152.3000;0.6186;1.3515;
1152.6000;0.6186;1.3419;
1152.9000;0.6186;1.3467;
1153.2000;0.6203;1.3540;
1153.5000;0.6170;1.3491;
1153.8000;0.6113;1.3443;
1154.1000;0.6138;1.3515;
1154.4000;0.6186;1.3636;
1154.7000;0.6170;1.3564;
1155.0000;0.6211;1.3660;
1155.3000;0.6195;1.3564;
1155.6000;0.6138;1.3419;
1155.9000;0.6162;1.3419;
1156.2000;0.6162;1.3371;
1156.5000;0.6178;1.3467;
1156.8000;0.6186;1.3467;
1157.1000;0.6121;1.3347;
1157.4000;0.6219;1.3588;
1157.7000;0.6162;1.3347;
1158.0000;0.6243;1.3540;
1158.3000;0.6186;1.3395;
1158.6000;0.6211;1.3467;
1158.9000;0.6195;1.3419;
1159.2000;0.6186;1.3395;
1159.5000;0.6219;1.3467;
1159.8000;0.6186;1.3515;
1160.1000;0.6170;1.3540;
1160.4000;0.6178;1.3564;
1160.7000;0.6195;1.3540;
1161.0000;0.6186;1.3540;
1161.3000;0.6178;1.3491;
1161.6000;0.6146;1.3443;
1161.9000;0.6186;1.3564;
1162.2000;0.6170;1.3443;
1162.5000;0.6211;1.3491;
1162.8000;0.6186;1.3419;
1163.1000;0.6170;1.3275;
1163.4000;0.6170;1.3299;
1163.7000;0.6105;1.3227;
1164.0000;0.6186;1.3515;
1164.3000;0.6170;1.3540;
1164.6000;0.6219;1.3756;
1164.9000;0.6178;1.3660;
1165.2000;0.6170;1.3564;
1165.5000;0.6195;1.3588;
1165.8000;0.6186;1.3467;
1166.1000;0.6186;1.3443;
1166.4000;0.6178;1.3419;
1166.7000;0.6170;1.3371;
1167.0000;0.6178;1.3419;
1167.3000;0.6195;1.3443;
1167.6000;0.6186;1.3395;
1167.9000;0.6195;1.3419;
1168.2000;0.6170;1.3323;
1168.5000;0.6162;1.3347;
1168.8000;0.6203;1.3395;
1169.1000;0.6203;1.3347;
1169.4000;0.6195;1.3347;
1169.7000;0.6235;1.3443;
1170.0000;0.6211;1.3443;
1170.3000;0.6178;1.3419;
1170.6000;0.6186;1.3395;
1170.9000;0.6154;1.3275;
1171.2000;0.6186;1.3227;
1171.5000;0.6195;1.3299;
1171.8000;0.6178;1.3323;
1172.1000;0.6178;1.3395;
1172.4000;0.6186;1.3515;
1172.7000;0.6195;1.3515;
1173.0000;0.6186;1.3540;
1173.3000;0.6243;1.3684;
1173.6000;0.6178;1.3491;
1173.9000;0.6178;1.3419;
1174.2000;0.6186;1.3371;
1174.5000;0.6268;1.3564;
1174.8000;0.6170;1.3323;
1175.1000;0.6186;1.3395;
1175.4000;0.6211;1.3443;
1175.7000;0.6178;1.3419;
1176.0000;0.6227;1.3540;
1176.3000;0.6162;1.3323;
1176.6000;0.6203;1.3419;
1176.9000;0.6121;1.3107;
1177.2000;0.6186;1.3251;
1177.5000;0.6186;1.3371;
1177.8000;0.6203;1.3371;
1178.1000;0.6203;1.3323;
1178.4000;0.6227;1.3419;
1178.7000;0.6178;1.3371;
1179.0000;0.6186;1.3299;
1179.3000;0.6195;1.3299;
1179.6000;0.6195;1.3275;
1179.9000;0.6105;1.3035;
1180.2000;0.6284;1.3443;
1180.5000;0.6276;1.3371;
1180.8000;0.6178;1.3179;
1181.1000;0.6178;1.3299;
1181.4000;0.6203;1.3347;
1181.7000;0.6195;1.3251;
1182.0000;0.6195;1.3275;
1182.3000;0.6178;1.3251;
1182.6000;0.6186;1.3323;
1182.9000;0.6178;1.3299;
1183.2000;0.6178;1.3275;
1183.5000;0.6195;1.3371;
1183.8000;0.6186;1.3443;
1184.1000;0.6195;1.3443;
1184.4000;0.6178;1.3467;
1184.7000;0.6178;1.3564;
1185.0000;0.6186;1.3540;
1185.3000;0.6186;1.3515;
1185.6000;0.6178;1.3588;
1185.9000;0.6203;1.3756;
1186.2000;0.6178;1.3732;
1186.5000;0.6170;1.3828;
1186.8000;0.6203;1.3708;
1187.1000;0.6170;1.3515;
1187.4000;0.6211;1.3491;
1187.7000;0.6203;1.3395;
1188.0000;0.6178;1.3323;
1188.3000;0.6195;1.3299;
1188.6000;0.6203;1.3371;
1188.9000;0.6203;1.3467;
1189.2000;0.6162;1.3347;
1189.5000;0.6154;1.3347;
1189.8000;0.6186;1.3371;
1190.1000;0.6178;1.3371;
1190.4000;0.6178;1.3443;
1190.7000;0.6162;1.3347;
1191.0000;0.6211;1.3467;
1191.3000;0.6252;1.3564;
1191.6000;0.6170;1.3419;
1191.9000;0.6195;1.3515;
1192.2000;0.6170;1.3515;
1192.5000;0.6121;1.3395;
1192.8000;0.6170;1.3491;
1193.1000;0.6170;1.3419;
1193.4000;0.6203;1.3491;
1193.7000;0.6186;1.3371;
1194.0000;0.6178;1.3275;
1194.3000;0.6203;1.3275;
1194.6000;0.6195;1.3299;
1194.9000;0.6170;1.3299;
1195.2000;0.6170;1.3419;
1195.5000;0.6170;1.3395;
1195.8000;0.6186;1.3540;
1196.1000;0.6186;1.3612;
1196.4000;0.6186;1.3588;
1196.7000;0.6186;1.3612;
1197.0000;0.6219;1.3636;
1197.3000;0.6195;1.3540;
1197.6000;0.6195;1.3612;
1197.9000;0.6203;1.3588;
1198.2000;0.6178;1.3491;
1198.5000;0.6203;1.3515;
1198.8000;0.6186;1.3540;
1199.1000;0.6178;1.3515;
1199.4000;0.6170;1.3612;
1199.7000;0.6178;1.3491;
1200.0000;0.6178;1.3467;
1200.3000;0.6186;1.3467;
1200.6000;0.6186;1.3419;
1200.9000;0.6211;1.3515;
1201.2000;0.6170;1.3347;
1201.5000;0.6170;1.3419;
1201.8000;0.6195;1.3515;
1202.1000;0.6170;1.3467;
1202.4000;0.6186;1.3540;
1202.7000;0.6186;1.3443;
1203.0000;0.6195;1.3443;
1203.3000;0.6186;1.3491;
1203.6000;0.6211;1.3660;
1203.9000;0.6178;1.3612;
1204.2000;0.6186;1.3636;
1204.5000;0.6178;1.3612;
1204.8000;0.6178;1.3515;
1205.1000;0.6178;1.3564;
1205.4000;0.6162;1.3588;
1205.7000;0.6178;1.3636;
1206.0000;0.6195;1.3684;
1206.3000;0.6178;1.3684;
1206.6000;0.6186;1.3660;
1206.9000;0.6195;1.3684;
1207.2000;0.6227;1.3804;
1207.5000;0.6203;1.3828;
1207.8000;0.6195;1.3852;
1208.1000;0.6219;1.3972;
1208.4000;0.6227;1.4021;
1208.7000;0.6195;1.3828;
1209.0000;0.6121;1.3564;
1209.3000;0.6121;1.3419;
1209.6000;0.6186;1.3612;
1209.9000;0.6178;1.3588;
1210.2000;0.6170;1.3515;
1210.5000;0.6170;1.3467;
1210.8000;0.6170;1.3467;
1211.1000;0.6219;1.3540;
1211.4000;0.6154;1.3371;
1211.7000;0.6186;1.3443;
1212.0000;0.6292;1.3708;
1212.3000;0.6178;1.3515;
1212.6000;0.6186;1.3564;
1212.9000;0.6170;1.3588;
1213.2000;0.6186;1.3660;
1213.5000;0.6203;1.3660;
1213.8000;0.6170;1.3564;
1214.1000;0.6186;1.3515;
1214.4000;0.6178;1.3443;
1214.7000;0.6178;1.3491;
1215.0000;0.6178;1.3564;
1215.3000;0.6195;1.3660;
1215.6000;0.6138;1.3588;
1215.9000;0.6170;1.3636;
1216.2000;0.6203;1.3612;
1216.5000;0.6195;1.3612;
1216.8000;0.6195;1.3660;
1217.1000;0.6186;1.3708;
1217.4000;0.6195;1.3660;
1217.7000;0.6186;1.3612;
1218.0000;0.6195;1.3660;
1218.3000;0.6129;1.3419;
1218.6000;0.6170;1.3515;
1218.9000;0.6178;1.3467;
1219.2000;0.6154;1.3419;
1219.5000;0.6186;1.3540;
1219.8000;0.6195;1.3684;
1220.1000;0.6170;1.3684;
1220.4000;0.6178;1.3708;
1220.7000;0.6162;1.3708;
1221.0000;0.6162;1.3756;
1221.3000;0.6170;1.3780;
1221.6000;0.6064;1.3588;
1221.9000;0.6146;1.3756;
1222.2000;0.6203;1.3804;
1222.5000;0.6178;1.3636;
1222.8000;0.6186;1.3636;
1223.1000;0.6170;1.3467;
1223.4000;0.6178;1.3443;
1223.7000;0.6186;1.3540;
1224.0000;0.6186;1.3564;
1224.3000;0.6203;1.3612;
1224.6000;0.6178;1.3564;
1224.9000;0.6178;1.3491;
1225.2000;0.6186;1.3540;
1225.5000;0.6186;1.3491;
1225.8000;0.6170;1.3419;
1226.1000;0.6178;1.3540;
1226.4000;0.6178;1.3564;
1226.7000;0.6178;1.3515;
1227.0000;0.6178;1.3515;
1227.3000;0.6162;1.3491;
1227.6000;0.6178;1.3491;
1227.9000;0.6211;1.3564;
1228.2000;0.6195;1.3564;
1228.5000;0.6186;1.3612;
1228.8000;0.6203;1.3588;
1229.1000;0.6186;1.3612;
1229.4000;0.6195;1.3564;
1229.7000;0.6186;1.3564;
1230.0000;0.6211;1.3636;
1230.3000;0.6178;1.3540;
1230.6000;0.6186;1.3564;
1230.9000;0.6170;1.3443;
1231.2000;0.6203;1.3515;
1231.5000;0.6203;1.3564;
1231.8000;0.6105;1.3323;
1232.1000;0.6195;1.3491;
1232.4000;0.6186;1.3467;
1232.7000;0.6186;1.3540;
1233.0000;0.6227;1.3684;
1233.3000;0.6186;1.3660;
1233.6000;0.6195;1.3660;
1233.9000;0.6195;1.3660;
1234.2000;0.6162;1.3564;
1234.5000;0.6162;1.3588;
1234.8000;0.6178;1.3515;
1235.1000;0.6195;1.3588;
1235.4000;0.6178;1.3515;
1235.7000;0.6146;1.3491;
1236.0000;0.6227;1.3660;
1236.3000;0.6178;1.3612;
1236.6000;0.6178;1.3612;
1236.9000;0.6186;1.3732;
1237.2000;0.6178;1.3708;
1237.5000;0.6178;1.3732;
1237.8000;0.6195;1.3780;
1238.1000;0.6178;1.3756;
1238.4000;0.6186;1.3756;
1238.7000;0.6170;1.3708;
1239.0000;0.6203;1.3756;
1239.3000;0.6195;1.3708;
1239.6000;0.6195;1.3660;
1239.9000;0.6170;1.3612;
1240.2000;0.6170;1.3612;
1240.5000;0.6178;1.3588;
1240.8000;0.6186;1.3540;
1241.1000;0.6186;1.3467;
1241.4000;0.6170;1.3371;
1241.7000;0.6195;1.3347;
1242.0000;0.6170;1.3347;
1242.3000;0.6170;1.3323;
1242.6000;0.6195;1.3395;
1242.9000;0.6203;1.3443;
1243.2000;0.6186;1.3467;
1243.5000;0.6186;1.3540;
1243.8000;0.6195;1.3491;
1244.1000;0.6186;1.3443;
1244.4000;0.6162;1.3443;
1244.7000;0.6129;1.3275;
1245.0000;0.6154;1.3347;
1245.3000;0.6186;1.3467;
1245.6000;0.6178;1.3467;
1245.9000;0.6219;1.3564;
1246.2000;0.6178;1.3491;
1246.5000;0.6178;1.3443;
1246.8000;0.6170;1.3491;
1247.1000;0.6170;1.3491;
1247.4000;0.6162;1.3540;
1247.7000;0.6195;1.3588;
1248.0000;0.6178;1.3636;
1248.3000;0.6260;1.3900;
1248.6000;0.6146;1.3540;
1248.9000;0.6146;1.3540;
1249.2000;0.6170;1.3612;
1249.5000;0.6170;1.3540;
1249.8000;0.6178;1.3588;
1250.1000;0.6170;1.3636;
1250.4000;0.6129;1.3540;
1250.7000;0.6170;1.3636;
1251.0000;0.6252;1.3828;
1251.3000;0.6162;1.3588;
1251.6000;0.6170;1.3564;
1251.9000;0.6170;1.3540;
1252.2000;0.6186;1.3612;
1252.5000;0.6170;1.3564;
1252.8000;0.6178;1.3636;
1253.1000;0.6178;1.3708;
1253.4000;0.6178;1.3708;
1253.7000;0.6195;1.3804;
1254.0000;0.6186;1.3828;
1254.3000;0.6211;1.3828;
1254.6000;0.6203;1.3852;
1254.9000;0.6186;1.3828;
1255.2000;0.6186;1.3708;
1255.5000;0.6178;1.3660;
1255.8000;0.6178;1.3660;
1256.1000;0.6186;1.3732;
1256.4000;0.6227;1.3804;
1256.7000;0.6195;1.3756;
1257.0000;0.6178;1.3684;
1257.3000;0.6154;1.3564;
1257.6000;0.6186;1.3732;
1257.9000;0.6203;1.3828;
1258.2000;0.6170;1.3756;
1258.5000;0.6195;1.3804;
1258.8000;0.6186;1.3756;
1259.1000;0.6178;1.3732;
1259.4000;0.6186;1.3804;
1259.7000;0.6178;1.3732;
1260.0000;0.6170;1.3636;
1260.3000;0.6162;1.3540;
1260.6000;0.6170;1.3564;
1260.9000;0.6178;1.3515;
1261.2000;0.6186;1.3588;
1261.5000;0.6195;1.3588;
1261.8000;0.6195;1.3515;
1262.1000;0.6203;1.3612;
1262.4000;0.6154;1.3588;
1262.7000;0.6146;1.3588;
1263.0000;0.6186;1.3756;
1263.3000;0.6195;1.3852;
1263.6000;0.6203;1.3780;
1263.9000;0.6170;1.3708;
1264.2000;0.6178;1.3612;
1264.5000;0.6219;1.3660;
1264.8000;0.6170;1.3443;
1265.1000;0.6170;1.3395;
1265.4000;0.6195;1.3395;
1265.7000;0.6186;1.3323;
1266.0000;0.6178;1.3347;
1266.3000;0.6203;1.3323;
1266.6000;0.6203;1.3347;
1266.9000;0.6186;1.3275;
1267.2000;0.6186;1.3347;
1267.5000;0.6195;1.3395;
1267.8000;0.6178;1.3371;
1268.1000;0.6170;1.3515;
1268.4000;0.6203;1.3636;
1268.7000;0.6186;1.3612;
1269.0000;0.6186;1.3588;
1269.3000;0.6195;1.3588;
1269.6000;0.6203;1.3588;
1269.9000;0.6162;1.3540;
1270.2000;0.6162;1.3588;
1270.5000;0.6154;1.3588;
1270.8000;0.6170;1.3660;
1271.1000;0.6170;1.3588;
1271.4000;0.6178;1.3660;
1271.7000;0.6178;1.3660;
1272.0000;0.6203;1.3636;
1272.3000;0.6219;1.3636;
1272.6000;0.6219;1.3636;
1272.9000;0.6146;1.3515;
1273.2000;0.6170;1.3564;
1273.5000;0.6129;1.3515;
1273.8000;0.6195;1.3684;
1274.1000;0.6154;1.3515;
1274.4000;0.6186;1.3636;
1274.7000;0.6203;1.3636;
1275.0000;0.6195;1.3636;
1275.3000;0.6186;1.3636;
1275.6000;0.6178;1.3636;
1275.9000;0.6178;1.3588;
1276.2000;0.6178;1.3636;
1276.5000;0.6170;1.3660;
1276.8000;0.6186;1.3708;
1277.1000;0.6211;1.3756;
1277.4000;0.6178;1.3780;
1277.7000;0.6178;1.3756;
1278.0000;0.6178;1.3756;
1278.3000;0.6195;1.3804;
1278.6000;0.6186;1.3756;
1278.9000;0.6178;1.3732;
1279.2000;0.6186;1.3780;
1279.5000;0.6195;1.3756;
1279.8000;0.6203;1.3756;
1280.1000;0.6195;1.3804;
1280.4000;0.6170;1.3852;
1280.7000;0.6186;1.3876;
1281.0000;0.6178;1.3828;
1281.3000;0.6186;1.3780;
1281.6000;0.6186;1.3732;
1281.9000;0.6186;1.3708;
1282.2000;0.6186;1.3780;
1282.5000;0.6203;1.3732;
1282.8000;0.6186;1.3660;
1283.1000;0.6186;1.3564;
1283.4000;0.6154;1.3588;
1283.7000;0.6195;1.3612;
1284.0000;0.6178;1.3564;
1284.3000;0.6186;1.3540;
1284.6000;0.6203;1.3515;
1284.9000;0.6186;1.3443;
1285.2000;0.6195;1.3467;
1285.5000;0.6219;1.3467;
1285.8000;0.6195;1.3443;
1286.1000;0.6195;1.3491;
1286.4000;0.6195;1.3515;
1286.7000;0.6178;1.3491;
1287.0000;0.6186;1.3515;
1287.3000;0.6186;1.3540;
1287.6000;0.6203;1.3660;
1287.9000;0.6195;1.3780;
1288.2000;0.6186;1.3732;
1288.5000;0.6243;1.3852;
1288.8000;0.6195;1.3660;
1289.1000;0.6178;1.3708;
1289.4000;0.6276;1.3948;
1289.7000;0.6178;1.3708;
1290.0000;0.6219;1.3732;
1290.3000;0.6162;1.3636;
1290.6000;0.6195;1.3732;
1290.9000;0.6186;1.3804;
1291.2000;0.6195;1.3756;
1291.5000;0.6186;1.3756;
1291.8000;0.6178;1.3756;
1292.1000;0.6203;1.3828;
1292.4000;0.6170;1.3732;
1292.7000;0.6195;1.3876;
1293.0000;0.6178;1.3756;
1293.3000;0.6178;1.3732;
1293.6000;0.6195;1.3780;
1293.9000;0.6146;1.3660;
1294.2000;0.6178;1.3708;
1294.5000;0.6170;1.3636;
1294.8000;0.6186;1.3780;
1295.1000;0.6211;1.3780;
1295.4000;0.6195;1.3708;
1295.7000;0.6170;1.3636;
1296.0000;0.6186;1.3588;
1296.3000;0.6195;1.3564;
1296.6000;0.6195;1.3491;
1296.9000;0.6178;1.3515;
1297.2000;0.6186;1.3540;
1297.5000;0.6170;1.3491;
1297.8000;0.6203;1.3660;
1298.1000;0.6186;1.3540;
1298.4000;0.6162;1.3564;
1298.7000;0.6186;1.3612;
1299.0000;0.6186;1.3612;
1299.3000;0.6203;1.3515;
1299.6000;0.6170;1.3515;
1299.9000;0.6195;1.3564;
1300.2000;0.6178;1.3612;
1300.5000;0.6195;1.3540;
1300.8000;0.6170;1.3564;
1301.1000;0.6186;1.3612;
1301.4000;0.6186;1.3660;
1301.7000;0.6186;1.3612;
1302.0000;0.6178;1.3540;
1302.3000;0.6195;1.3612;
1302.6000;0.6203;1.3636;
1302.9000;0.6195;1.3684;
1303.2000;0.6219;1.3684;
1303.5000;0.6195;1.3612;
1303.8000;0.6203;1.3636;
1304.1000;0.6186;1.3732;
1304.4000;0.6227;1.3852;
1304.7000;0.6195;1.3684;
1305.0000;0.6195;1.3780;
1305.3000;0.6195;1.3804;
1305.6000;0.6186;1.3732;
1305.9000;0.6178;1.3612;
1306.2000;0.6178;1.3588;
1306.5000;0.6178;1.3515;
1306.8000;0.6178;1.3564;
1307.1000;0.6186;1.3612;
1307.4000;0.6178;1.3588;
1307.7000;0.6178;1.3564;
1308.0000;0.6235;1.3732;
1308.3000;0.6186;1.3636;
1308.6000;0.6178;1.3708;
1308.9000;0.6227;1.3732;
1309.2000;0.6186;1.3684;
1309.5000;0.6178;1.3612;
1309.8000;0.6195;1.3588;
1310.1000;0.6195;1.3515;
1310.4000;0.6211;1.3515;
1310.7000;0.6186;1.3564;
1311.0000;0.6195;1.3612;
1311.3000;0.6203;1.3660;
1311.6000;0.6211;1.3612;
1311.9000;0.6203;1.3756;
1312.2000;0.6178;1.3732;
1312.5000;0.6195;1.3780;
1312.8000;0.6219;1.3756;
1313.1000;0.6203;1.3756;
1313.4000;0.6170;1.3660;
1313.7000;0.6195;1.3708;
1314.0000;0.6186;1.3708;
1314.3000;0.6195;1.3756;
1314.6000;0.6195;1.3780;
1314.9000;0.6170;1.3684;
1315.2000;0.6203;1.3756;
1315.5000;0.6195;1.3732;
1315.8000;0.6146;1.3636;
1316.1000;0.6178;1.3660;
1316.4000;0.6170;1.3612;
1316.7000;0.6178;1.3684;
1317.0000;0.6129;1.3564;
1317.3000;0.6170;1.3564;
1317.6000;0.6186;1.3588;
1317.9000;0.6162;1.3491;
1318.2000;0.6186;1.3515;
1318.5000;0.6186;1.3636;
1318.8000;0.6195;1.3708;
1319.1000;0.6186;1.3732;
1319.4000;0.6186;1.3684;
1319.7000;0.6195;1.3660;
1320.0000;0.6203;1.3588;
1320.3000;0.6227;1.3588;
1320.6000;0.6195;1.3395;
1320.9000;0.6178;1.3299;
1321.2000;0.6260;1.3515;
1321.5000;0.6227;1.3371;
1321.8000;0.6186;1.3251;
1322.1000;0.6186;1.3227;
1322.4000;0.6195;1.3275;
1322.7000;0.6186;1.3323;
1323.0000;0.6162;1.3299;
1323.3000;0.6195;1.3491;
1323.6000;0.6178;1.3443;
1323.9000;0.6186;1.3540;
1324.2000;0.6195;1.3612;
1324.5000;0.6195;1.3684;
1324.8000;0.6146;1.3491;
1325.1000;0.6170;1.3491;
1325.4000;0.6219;1.3660;
1325.7000;0.6154;1.3588;
1326.0000;0.6162;1.3588;
1326.3000;0.6195;1.3660;
1326.6000;0.6219;1.3684;
1326.9000;0.6195;1.3612;
1327.2000;0.6154;1.3540;
1327.5000;0.6162;1.3564;
1327.8000;0.6162;1.3588;
1328.1000;0.6195;1.3636;
1328.4000;0.6243;1.3756;
1328.7000;0.6178;1.3660;
1329.0000;0.6170;1.3636;
1329.3000;0.6146;1.3612;
1329.6000;0.6146;1.3588;
1329.9000;0.6170;1.3660;
1330.2000;0.6178;1.3660;
1330.5000;0.6178;1.3564;
1330.8000;0.6186;1.3588;
1331.1000;0.6170;1.3660;
1331.4000;0.6138;1.3588;
1331.7000;0.6178;1.3636;
1332.0000;0.6154;1.3612;
1332.3000;0.6195;1.3660;
1332.6000;0.6178;1.3612;
1332.9000;0.6178;1.3732;
1333.2000;0.6186;1.3684;
1333.5000;0.6178;1.3588;
1333.8000;0.6170;1.3684;
1334.1000;0.6203;1.3708;
1334.4000;0.6186;1.3732;
1334.7000;0.6195;1.3756;
1335.0000;0.6195;1.3732;
1335.3000;0.6162;1.3708;
1335.6000;0.6186;1.3732;
1335.9000;0.6195;1.3828;
1336.2000;0.6121;1.3660;
1336.5000;0.6211;1.3900;
1336.8000;0.6186;1.3732;
1337.1000;0.6178;1.3708;
1337.4000;0.6178;1.3756;
1337.7000;0.6162;1.3732;
1338.0000;0.6170;1.3732;
1338.3000;0.6178;1.3732;
1338.6000;0.6178;1.3756;
1338.9000;0.6252;1.3876;
1339.2000;0.6203;1.3780;
1339.5000;0.6186;1.3708;
1339.8000;0.6195;1.3708;
1340.1000;0.6154;1.3588;
1340.4000;0.6195;1.3612;
1340.7000;0.6186;1.3564;
1341.0000;0.6203;1.3636;
1341.3000;0.6178;1.3564;
1341.6000;0.6195;1.3636;
1341.9000;0.6186;1.3684;
1342.2000;0.6219;1.3780;
1342.5000;0.6195;1.3684;
1342.8000;0.6178;1.3732;
1343.1000;0.6146;1.3636;
1343.4000;0.6195;1.3684;
1343.7000;0.6186;1.3828;
1344.0000;0.6170;1.3780;
1344.3000;0.6178;1.3756;
1344.6000;0.6178;1.3876;
1344.9000;0.6178;1.3876;
1345.2000;0.6203;1.3900;
1345.5000;0.6178;1.3804;
1345.8000;0.6121;1.3612;
1346.1000;0.6178;1.3804;
1346.4000;0.6211;1.3852;
1346.7000;0.6195;1.3780;
1347.0000;0.6138;1.3684;
1347.3000;0.6178;1.3852;
1347.6000;0.6186;1.3756;
1347.9000;0.6170;1.3756;
1348.2000;0.6178;1.3780;
1348.5000;0.6170;1.3708;
1348.8000;0.6186;1.3732;
1349.1000;0.6186;1.3780;
1349.4000;0.6211;1.3828;
1349.7000;0.6186;1.3828;
1350.0000;0.6178;1.3828;
1350.3000;0.6162;1.3732;
1350.6000;0.6162;1.3708;
1350.9000;0.6178;1.3708;
1351.2000;0.6186;1.3852;
1351.5000;0.6154;1.3780;
1351.8000;0.6186;1.3780;
1352.1000;0.6195;1.3876;
1352.4000;0.6162;1.3852;
1352.7000;0.6186;1.3804;
1353.0000;0.6154;1.3756;
1353.3000;0.6146;1.3804;
1353.6000;0.6186;1.3828;
1353.9000;0.6211;1.3852;
1354.2000;0.6186;1.3708;
1354.5000;0.6178;1.3732;
1354.8000;0.6203;1.3780;
1355.1000;0.6186;1.3732;
1355.4000;0.6162;1.3660;
1355.7000;0.6178;1.3732;
1356.0000;0.6170;1.3732;
1356.3000;0.6195;1.3708;
1356.6000;0.6170;1.3660;
1356.9000;0.6162;1.3660;
1357.2000;0.6252;1.3876;
1357.5000;0.6178;1.3660;
1357.8000;0.6178;1.3684;
1358.1000;0.6162;1.3660;
1358.4000;0.6186;1.3588;
1358.7000;0.6138;1.3395;
1359.0000;0.6186;1.3564;
1359.3000;0.6178;1.3540;
1359.6000;0.6203;1.3660;
1359.9000;0.6186;1.3660;
1360.2000;0.6186;1.3660;
1360.5000;0.6186;1.3636;
1360.8000;0.6170;1.3588;
1361.1000;0.6203;1.3684;
1361.4000;0.6203;1.3732;
1361.7000;0.6170;1.3612;
1362.0000;0.6211;1.3660;
1362.3000;0.6219;1.3732;
1362.6000;0.6178;1.3660;
1362.9000;0.6195;1.3708;
1363.2000;0.6170;1.3564;
1363.5000;0.6186;1.3564;
1363.8000;0.6195;1.3564;
1364.1000;0.6211;1.3684;
1364.4000;0.6178;1.3564;
1364.7000;0.6203;1.3588;
1365.0000;0.6162;1.3515;
1365.3000;0.6219;1.3732;
1365.6000;0.6178;1.3564;
1365.9000;0.6203;1.3684;
1366.2000;0.6113;1.3491;
1366.5000;0.6195;1.3660;
1366.8000;0.6178;1.3636;
1367.1000;0.6129;1.3515;
1367.4000;0.6186;1.3756;
1367.7000;0.6178;1.3756;
1368.0000;0.6276;1.3900;
1368.3000;0.6227;1.3756;
1368.6000;0.6154;1.3564;
1368.9000;0.6178;1.3660;
1369.2000;0.6178;1.3588;
1369.5000;0.6162;1.3515;
1369.8000;0.6170;1.3515;
1370.1000;0.6186;1.3588;
1370.4000;0.6178;1.3540;
1370.7000;0.6186;1.3564;
1371.0000;0.6170;1.3540;
1371.3000;0.6154;1.3515;
1371.6000;0.6170;1.3540;
1371.9000;0.6154;1.3540;
1372.2000;0.6170;1.3612;
1372.5000;0.6162;1.3612;
1372.8000;0.6162;1.3612;
1373.1000;0.6170;1.3612;
1373.4000;0.6138;1.3419;
1373.7000;0.6203;1.3443;
1374.0000;0.6178;1.3419;
1374.3000;0.6195;1.3491;
1374.6000;0.6178;1.3491;
1374.9000;0.6178;1.3467;
1375.2000;0.6203;1.3515;
1375.5000;0.6203;1.3467;
1375.8000;0.6170;1.3491;
1376.1000;0.6170;1.3515;
1376.4000;0.6203;1.3588;
1376.7000;0.6227;1.3636;
1377.0000;0.6211;1.3708;
1377.3000;0.6186;1.3756;
1377.6000;0.6186;1.3780;
1377.9000;0.6203;1.3708;
1378.2000;0.6203;1.3708;
1378.5000;0.6178;1.3684;
1378.8000;0.6178;1.3684;
1379.1000;0.6219;1.3708;
1379.4000;0.6186;1.3756;
1379.7000;0.6186;1.3732;
1380.0000;0.6195;1.3756;
1380.3000;0.6203;1.3780;
1380.6000;0.6154;1.3732;
1380.9000;0.6154;1.3732;
1381.2000;0.6276;1.4045;
1381.5000;0.6170;1.3780;
1381.8000;0.6195;1.3756;
1382.1000;0.6178;1.3708;
1382.4000;0.6146;1.3636;
1382.7000;0.6154;1.3732;
1383.0000;0.6178;1.3780;
1383.3000;0.6154;1.3732;
1383.6000;0.6186;1.3756;
1383.9000;0.6211;1.3804;
1384.2000;0.6178;1.3708;
1384.5000;0.6195;1.3660;
1384.8000;0.6235;1.3732;
1385.1000;0.6203;1.3612;
1385.4000;0.6195;1.3756;
1385.7000;0.6195;1.3732;
1386.0000;0.6170;1.3708;
1386.3000;0.6195;1.3804;
1386.6000;0.6203;1.3876;
1386.9000;0.6178;1.3804;
1387.2000;0.6170;1.3828;
1387.5000;0.6186;1.3900;
1387.8000;0.6195;1.3900;
1388.1000;0.6186;1.3876;
1388.4000;0.6195;1.3852;
1388.7000;0.6203;1.3804;
1389.0000;0.6195;1.3756;
1389.3000;0.6178;1.3684;
1389.6000;0.6211;1.3732;
1389.9000;0.6186;1.3684;
1390.2000;0.6186;1.3708;
1390.5000;0.6178;1.3756;
1390.8000;0.6186;1.3828;
1391.1000;0.6195;1.3804;
1391.4000;0.6178;1.3804;
1391.7000;0.6211;1.3828;
1392.0000;0.6170;1.3732;
1392.3000;0.6170;1.3756;
1392.6000;0.6170;1.3684;
1392.9000;0.6162;1.3660;
1393.2000;0.6186;1.3732;
1393.5000;0.6170;1.3684;
1393.8000;0.6203;1.3732;
1394.1000;0.6195;1.3660;
1394.4000;0.6219;1.3636;
1394.7000;0.6276;1.3756;
1395.0000;0.6170;1.3588;
1395.3000;0.6178;1.3636;
1395.6000;0.6186;1.3708;
1395.9000;0.6186;1.3684;
1396.2000;0.6129;1.3588;
1396.5000;0.6178;1.3588;
1396.8000;0.6186;1.3564;
1397.1000;0.6178;1.3467;
1397.4000;0.6170;1.3443;
1397.7000;0.6195;1.3467;
1398.0000;0.6211;1.3540;
1398.3000;0.6162;1.3491;
1398.6000;0.6195;1.3540;
1398.9000;0.6178;1.3564;
1399.2000;0.6105;1.3395;
1399.5000;0.6178;1.3636;
1399.8000;0.6203;1.3732;
