time/ms;Fluo/V;P700 deltaI/I x10³;
-199.8000;0.6007;2.1170;
-199.5000;0.5967;2.1077;
-199.2000;0.6015;2.1147;
-198.9000;0.6015;2.1193;
-198.6000;0.6097;2.1447;
-198.3000;0.6015;2.1285;
-198.0000;0.6015;2.1332;
-197.7000;0.6048;2.1355;
-197.4000;0.6032;2.1285;
-197.1000;0.6032;2.1285;
-196.8000;0.6024;2.1239;
-196.5000;0.6040;2.1147;
-196.2000;0.6015;2.1170;
-195.9000;0.5991;2.1124;
-195.6000;0.6072;2.1332;
-195.3000;0.6040;2.1309;
-195.0000;0.6015;2.1378;
-194.7000;0.6015;2.1355;
-194.4000;0.6015;2.1285;
-194.1000;0.6032;2.1262;
-193.8000;0.6024;2.1193;
-193.5000;0.6024;2.1239;
-193.2000;0.5991;2.1309;
-192.9000;0.6015;2.1332;
-192.6000;0.6015;2.1332;
-192.3000;0.6024;2.1378;
-192.0000;0.6007;2.1285;
-191.7000;0.6032;2.1332;
-191.4000;0.6007;2.1262;
-191.1000;0.6024;2.1355;
-190.8000;0.5999;2.1262;
-190.5000;0.6007;2.1332;
-190.2000;0.6024;2.1401;
-189.9000;0.6048;2.1447;
-189.6000;0.5991;2.1309;
-189.3000;0.6007;2.1332;
-189.0000;0.5999;2.1309;
-188.7000;0.6015;2.1332;
-188.4000;0.6015;2.1355;
-188.1000;0.5975;2.1309;
-187.8000;0.6015;2.1447;
-187.5000;0.5999;2.1424;
-187.2000;0.6007;2.1332;
-186.9000;0.6007;2.1239;
-186.6000;0.6007;2.1239;
-186.3000;0.6015;2.1239;
-186.0000;0.5967;2.1124;
-185.7000;0.5999;2.1216;
-185.4000;0.6007;2.1170;
-185.1000;0.6040;2.1170;
-184.8000;0.6056;2.1262;
-184.5000;0.6032;2.1239;
-184.2000;0.6032;2.1262;
-183.9000;0.6064;2.1355;
-183.6000;0.6056;2.1401;
-183.3000;0.6024;2.1378;
-183.0000;0.6007;2.1239;
-182.7000;0.6024;2.1309;
-182.4000;0.6040;2.1401;
-182.1000;0.6064;2.1355;
-181.8000;0.6040;2.1309;
-181.5000;0.6032;2.1309;
-181.2000;0.5983;2.1124;
-180.9000;0.6024;2.1262;
-180.6000;0.6024;2.1309;
-180.3000;0.6032;2.1424;
-180.0000;0.6040;2.1494;
-179.7000;0.6024;2.1471;
-179.4000;0.6015;2.1494;
-179.1000;0.6056;2.1633;
-178.8000;0.6024;2.1540;
-178.5000;0.6015;2.1540;
-178.2000;0.6032;2.1586;
-177.9000;0.6015;2.1540;
-177.6000;0.6024;2.1540;
-177.3000;0.6024;2.1540;
-177.0000;0.6007;2.1494;
-176.7000;0.6015;2.1494;
-176.4000;0.6032;2.1494;
-176.1000;0.6032;2.1332;
-175.8000;0.6097;2.1494;
-175.5000;0.5999;2.1193;
-175.2000;0.6015;2.1193;
-174.9000;0.6032;2.1262;
-174.6000;0.6040;2.1332;
-174.3000;0.6007;2.1285;
-174.0000;0.6032;2.1401;
-173.7000;0.6040;2.1355;
-173.4000;0.6024;2.1309;
-173.1000;0.6032;2.1378;
-172.8000;0.6081;2.1540;
-172.5000;0.6024;2.1424;
-172.2000;0.6024;2.1332;
-171.9000;0.6015;2.1309;
-171.6000;0.6024;2.1355;
-171.3000;0.6048;2.1378;
-171.0000;0.6040;2.1424;
-170.7000;0.6040;2.1378;
-170.4000;0.6015;2.1378;
-170.1000;0.6007;2.1309;
-169.8000;0.5999;2.1262;
-169.5000;0.6024;2.1285;
-169.2000;0.6032;2.1401;
-168.9000;0.6015;2.1424;
-168.6000;0.6032;2.1471;
-168.3000;0.5991;2.1378;
-168.0000;0.6007;2.1378;
-167.7000;0.6015;2.1332;
-167.4000;0.6032;2.1447;
-167.1000;0.6015;2.1494;
-166.8000;0.6032;2.1540;
-166.5000;0.6007;2.1471;
-166.2000;0.6032;2.1517;
-165.9000;0.5967;2.1332;
-165.6000;0.6015;2.1447;
-165.3000;0.5999;2.1401;
-165.0000;0.6040;2.1447;
-164.7000;0.5991;2.1471;
-164.4000;0.6015;2.1517;
-164.1000;0.6064;2.1586;
-163.8000;0.6040;2.1633;
-163.5000;0.6024;2.1586;
-163.2000;0.6081;2.1679;
-162.9000;0.6015;2.1494;
-162.6000;0.6015;2.1447;
-162.3000;0.6064;2.1656;
-162.0000;0.5910;2.1239;
-161.7000;0.6015;2.1540;
-161.4000;0.5991;2.1424;
-161.1000;0.5999;2.1378;
-160.8000;0.6015;2.1424;
-160.5000;0.6015;2.1424;
-160.2000;0.6015;2.1517;
-159.9000;0.6040;2.1494;
-159.6000;0.6032;2.1471;
-159.3000;0.6032;2.1401;
-159.0000;0.6040;2.1424;
-158.7000;0.6007;2.1262;
-158.4000;0.6032;2.1239;
-158.1000;0.6032;2.1262;
-157.8000;0.6007;2.1309;
-157.5000;0.6024;2.1285;
-157.2000;0.6032;2.1239;
-156.9000;0.6032;2.1216;
-156.6000;0.6007;2.1147;
-156.3000;0.6024;2.1193;
-156.0000;0.6129;2.1447;
-155.7000;0.6007;2.1170;
-155.4000;0.5983;2.1147;
-155.1000;0.5999;2.1193;
-154.8000;0.5975;2.1124;
-154.5000;0.6015;2.1285;
-154.2000;0.6024;2.1355;
-153.9000;0.6024;2.1285;
-153.6000;0.6032;2.1378;
-153.3000;0.6024;2.1378;
-153.0000;0.6007;2.1262;
-152.7000;0.6015;2.1285;
-152.4000;0.5958;2.1124;
-152.1000;0.6015;2.1193;
-151.8000;0.6015;2.1216;
-151.5000;0.6015;2.1193;
-151.2000;0.5999;2.1216;
-150.9000;0.6024;2.1332;
-150.6000;0.6015;2.1332;
-150.3000;0.6024;2.1332;
-150.0000;0.6015;2.1216;
-149.7000;0.5999;2.1124;
-149.4000;0.6024;2.1239;
-149.1000;0.6032;2.1332;
-148.8000;0.6015;2.1216;
-148.5000;0.6072;2.1309;
-148.2000;0.6024;2.1239;
-147.9000;0.6015;2.1262;
-147.6000;0.6024;2.1309;
-147.3000;0.5999;2.1309;
-147.0000;0.6032;2.1378;
-146.7000;0.5991;2.1309;
-146.4000;0.6024;2.1309;
-146.1000;0.6024;2.1424;
-145.8000;0.6024;2.1447;
-145.5000;0.6015;2.1424;
-145.2000;0.6032;2.1447;
-144.9000;0.6024;2.1424;
-144.6000;0.5991;2.1239;
-144.3000;0.6032;2.1285;
-144.0000;0.5999;2.1147;
-143.7000;0.6048;2.1100;
-143.4000;0.6048;2.1100;
-143.1000;0.6015;2.1100;
-142.8000;0.6015;2.1124;
-142.5000;0.5999;2.1054;
-142.2000;0.6048;2.1100;
-141.9000;0.6032;2.1193;
-141.6000;0.6024;2.1193;
-141.3000;0.6015;2.1170;
-141.0000;0.5999;2.1170;
-140.7000;0.6121;2.1517;
-140.4000;0.6007;2.1355;
-140.1000;0.6048;2.1378;
-139.8000;0.6056;2.1447;
-139.5000;0.5991;2.1355;
-139.2000;0.6072;2.1563;
-138.9000;0.6032;2.1494;
-138.6000;0.5991;2.1285;
-138.3000;0.6015;2.1332;
-138.0000;0.6015;2.1216;
-137.7000;0.6056;2.1285;
-137.4000;0.6048;2.1332;
-137.1000;0.6024;2.1309;
-136.8000;0.6040;2.1424;
-136.5000;0.5983;2.1378;
-136.2000;0.6007;2.1378;
-135.9000;0.6048;2.1471;
-135.6000;0.6024;2.1424;
-135.3000;0.6015;2.1517;
-135.0000;0.5991;2.1494;
-134.7000;0.6024;2.1517;
-134.4000;0.6007;2.1471;
-134.1000;0.6024;2.1586;
-133.8000;0.6040;2.1633;
-133.5000;0.6007;2.1517;
-133.2000;0.6007;2.1517;
-132.9000;0.6040;2.1563;
-132.6000;0.6032;2.1540;
-132.3000;0.6007;2.1471;
-132.0000;0.6007;2.1517;
-131.7000;0.6015;2.1563;
-131.4000;0.6024;2.1563;
-131.1000;0.6007;2.1517;
-130.8000;0.6024;2.1447;
-130.5000;0.6032;2.1401;
-130.2000;0.6032;2.1355;
-129.9000;0.6105;2.1401;
-129.6000;0.6015;2.1216;
-129.3000;0.6097;2.1424;
-129.0000;0.5999;2.1285;
-128.7000;0.6007;2.1355;
-128.4000;0.6015;2.1401;
-128.1000;0.6007;2.1424;
-127.8000;0.6007;2.1447;
-127.5000;0.6015;2.1401;
-127.2000;0.5983;2.1378;
-126.9000;0.5991;2.1401;
-126.6000;0.6015;2.1447;
-126.3000;0.6064;2.1563;
-126.0000;0.6015;2.1424;
-125.7000;0.5999;2.1424;
-125.4000;0.6024;2.1378;
-125.1000;0.5958;2.1124;
-124.8000;0.6032;2.1378;
-124.5000;0.6024;2.1332;
-124.2000;0.5999;2.1309;
-123.9000;0.5991;2.1332;
-123.6000;0.6040;2.1447;
-123.3000;0.5999;2.1355;
-123.0000;0.6007;2.1332;
-122.7000;0.5975;2.1262;
-122.4000;0.5950;2.1147;
-122.1000;0.5999;2.1355;
-121.8000;0.6015;2.1285;
-121.5000;0.6032;2.1401;
-121.2000;0.6081;2.1494;
-120.9000;0.6015;2.1378;
-120.6000;0.6024;2.1401;
-120.3000;0.6032;2.1494;
-120.0000;0.6032;2.1563;
-119.7000;0.6007;2.1424;
-119.4000;0.6015;2.1424;
-119.1000;0.6007;2.1447;
-118.8000;0.6007;2.1447;
-118.5000;0.6015;2.1355;
-118.2000;0.6015;2.1355;
-117.9000;0.6048;2.1471;
-117.6000;0.6007;2.1471;
-117.3000;0.6032;2.1471;
-117.0000;0.6048;2.1517;
-116.7000;0.6024;2.1494;
-116.4000;0.6015;2.1332;
-116.1000;0.6032;2.1216;
-115.8000;0.5999;2.1031;
-115.5000;0.5967;2.1077;
-115.2000;0.5999;2.1239;
-114.9000;0.6015;2.1355;
-114.6000;0.5991;2.1424;
-114.3000;0.6089;2.1563;
-114.0000;0.6015;2.1401;
-113.7000;0.6024;2.1378;
-113.4000;0.6024;2.1401;
-113.1000;0.6024;2.1424;
-112.8000;0.5967;2.1193;
-112.5000;0.6040;2.1401;
-112.2000;0.6024;2.1424;
-111.9000;0.5999;2.1309;
-111.6000;0.5910;2.1216;
-111.3000;0.6015;2.1517;
-111.0000;0.6015;2.1424;
-110.7000;0.6007;2.1401;
-110.4000;0.5991;2.1378;
-110.1000;0.6007;2.1378;
-109.8000;0.6024;2.1355;
-109.5000;0.6015;2.1378;
-109.2000;0.5999;2.1332;
-108.9000;0.6048;2.1424;
-108.6000;0.6040;2.1494;
-108.3000;0.6024;2.1447;
-108.0000;0.5926;2.1285;
-107.7000;0.6007;2.1517;
-107.4000;0.6024;2.1563;
-107.1000;0.6015;2.1447;
-106.8000;0.6032;2.1471;
-106.5000;0.6015;2.1424;
-106.2000;0.6007;2.1378;
-105.9000;0.6024;2.1355;
-105.6000;0.6015;2.1193;
-105.3000;0.5999;2.1100;
-105.0000;0.6032;2.1193;
-104.7000;0.6040;2.1193;
-104.4000;0.6007;2.1147;
-104.1000;0.6007;2.1100;
-103.8000;0.5958;2.0962;
-103.5000;0.6015;2.1054;
-103.2000;0.5967;2.0962;
-102.9000;0.5983;2.1031;
-102.6000;0.5999;2.1124;
-102.3000;0.6007;2.1077;
-102.0000;0.6015;2.1077;
-101.7000;0.6024;2.1124;
-101.4000;0.6024;2.1054;
-101.1000;0.6024;2.1124;
-100.8000;0.6015;2.1170;
-100.5000;0.6024;2.1216;
-100.2000;0.5983;2.1147;
-99.9000;0.5918;2.1008;
-99.6000;0.6048;2.1378;
-99.3000;0.5999;2.1355;
-99.0000;0.6032;2.1378;
-98.7000;0.6048;2.1285;
-98.4000;0.6032;2.1216;
-98.1000;0.5975;2.1170;
-97.8000;0.5983;2.1193;
-97.5000;0.6040;2.1309;
-97.2000;0.5942;2.1031;
-96.9000;0.5999;2.1124;
-96.6000;0.5991;2.1147;
-96.3000;0.6024;2.1170;
-96.0000;0.6040;2.1147;
-95.7000;0.6056;2.1124;
-95.4000;0.6040;2.1124;
-95.1000;0.5942;2.0938;
-94.8000;0.6072;2.1262;
-94.5000;0.5999;2.1170;
-94.2000;0.6015;2.1239;
-93.9000;0.6040;2.1332;
-93.6000;0.5999;2.1193;
-93.3000;0.5991;2.1124;
-93.0000;0.6032;2.1147;
-92.7000;0.6007;2.1147;
-92.4000;0.6007;2.1124;
-92.1000;0.6056;2.1262;
-91.8000;0.6032;2.1216;
-91.5000;0.6048;2.1239;
-91.2000;0.6015;2.1124;
-90.9000;0.6032;2.1147;
-90.6000;0.5999;2.1077;
-90.3000;0.6024;2.1216;
-90.0000;0.6024;2.1285;
-89.7000;0.6007;2.1216;
-89.4000;0.6007;2.1239;
-89.1000;0.5999;2.1147;
-88.8000;0.6015;2.1193;
-88.5000;0.6024;2.1216;
-88.2000;0.6024;2.1147;
-87.9000;0.5991;2.0985;
-87.6000;0.6032;2.1031;
-87.3000;0.6015;2.1031;
-87.0000;0.6015;2.0962;
-86.7000;0.6015;2.0962;
-86.4000;0.5999;2.0846;
-86.1000;0.6024;2.0869;
-85.8000;0.6015;2.0962;
-85.5000;0.6032;2.1077;
-85.2000;0.5983;2.0962;
-84.9000;0.6032;2.1124;
-84.6000;0.5999;2.1031;
-84.3000;0.6056;2.1147;
-84.0000;0.5902;2.0800;
-83.7000;0.6007;2.1077;
-83.4000;0.6032;2.1193;
-83.1000;0.6032;2.1262;
-82.8000;0.6032;2.1239;
-82.5000;0.5967;2.1031;
-82.2000;0.5975;2.1054;
-81.9000;0.6024;2.1147;
-81.6000;0.6007;2.1077;
-81.3000;0.5983;2.1077;
-81.0000;0.6032;2.1193;
-80.7000;0.6032;2.1124;
-80.4000;0.6024;2.1100;
-80.1000;0.5983;2.0985;
-79.8000;0.6015;2.0985;
-79.5000;0.5967;2.0800;
-79.2000;0.6040;2.0985;
-78.9000;0.6015;2.0962;
-78.6000;0.6015;2.1031;
-78.3000;0.6015;2.1054;
-78.0000;0.5983;2.1077;
-77.7000;0.6032;2.1285;
-77.4000;0.6007;2.1262;
-77.1000;0.6056;2.1355;
-76.8000;0.5991;2.1262;
-76.5000;0.6015;2.1332;
-76.2000;0.5967;2.1239;
-75.9000;0.6015;2.1285;
-75.6000;0.6024;2.1285;
-75.3000;0.6040;2.1378;
-75.0000;0.6040;2.1332;
-74.7000;0.6032;2.1332;
-74.4000;0.6015;2.1193;
-74.1000;0.6048;2.1216;
-73.8000;0.6024;2.1193;
-73.5000;0.6015;2.1239;
-73.2000;0.6007;2.1239;
-72.9000;0.6015;2.1309;
-72.6000;0.6024;2.1285;
-72.3000;0.6007;2.1262;
-72.0000;0.6007;2.1262;
-71.7000;0.6015;2.1239;
-71.4000;0.6015;2.1193;
-71.1000;0.6024;2.1147;
-70.8000;0.6015;2.1239;
-70.5000;0.6072;2.1401;
-70.2000;0.5999;2.1193;
-69.9000;0.5999;2.1216;
-69.6000;0.6015;2.1355;
-69.3000;0.5991;2.1309;
-69.0000;0.6007;2.1309;
-68.7000;0.6024;2.1355;
-68.4000;0.6007;2.1285;
-68.1000;0.5991;2.1378;
-67.8000;0.6007;2.1424;
-67.5000;0.6015;2.1332;
-67.2000;0.6032;2.1378;
-66.9000;0.6007;2.1239;
-66.6000;0.6129;2.1471;
-66.3000;0.6015;2.1332;
-66.0000;0.6040;2.1424;
-65.7000;0.6024;2.1471;
-65.4000;0.6015;2.1401;
-65.1000;0.5934;2.1216;
-64.8000;0.6040;2.1424;
-64.5000;0.6032;2.1424;
-64.2000;0.6007;2.1424;
-63.9000;0.6032;2.1471;
-63.6000;0.6032;2.1447;
-63.3000;0.6040;2.1517;
-63.0000;0.5975;2.1355;
-62.7000;0.5975;2.1401;
-62.4000;0.6015;2.1401;
-62.1000;0.6024;2.1378;
-61.8000;0.6064;2.1494;
-61.5000;0.6032;2.1517;
-61.2000;0.6024;2.1517;
-60.9000;0.6015;2.1424;
-60.6000;0.5999;2.1494;
-60.3000;0.6007;2.1471;
-60.0000;0.6024;2.1563;
-59.7000;0.6015;2.1563;
-59.4000;0.6007;2.1563;
-59.1000;0.6032;2.1517;
-58.8000;0.6048;2.1563;
-58.5000;0.5958;2.1378;
-58.2000;0.6040;2.1563;
-57.9000;0.6024;2.1563;
-57.6000;0.5999;2.1424;
-57.3000;0.5918;2.1193;
-57.0000;0.6024;2.1471;
-56.7000;0.6007;2.1378;
-56.4000;0.5999;2.1309;
-56.1000;0.6032;2.1262;
-55.8000;0.6007;2.1216;
-55.5000;0.6015;2.1239;
-55.2000;0.6015;2.1239;
-54.9000;0.5991;2.1239;
-54.6000;0.6015;2.1193;
-54.3000;0.6024;2.1193;
-54.0000;0.5958;2.1100;
-53.7000;0.6024;2.1309;
-53.4000;0.6040;2.1309;
-53.1000;0.6064;2.1401;
-52.8000;0.6048;2.1401;
-52.5000;0.6032;2.1447;
-52.2000;0.6024;2.1401;
-51.9000;0.6024;2.1332;
-51.6000;0.6032;2.1285;
-51.3000;0.6024;2.1285;
-51.0000;0.6032;2.1309;
-50.7000;0.6040;2.1239;
-50.4000;0.6032;2.1216;
-50.1000;0.6040;2.1285;
-49.8000;0.6007;2.1124;
-49.5000;0.6024;2.1170;
-49.2000;0.6015;2.1262;
-48.9000;0.6081;2.1401;
-48.6000;0.6024;2.1378;
-48.3000;0.5999;2.1285;
-48.0000;0.6064;2.1401;
-47.7000;0.6024;2.1332;
-47.4000;0.5991;2.1170;
-47.1000;0.6024;2.1262;
-46.8000;0.6024;2.1216;
-46.5000;0.6113;2.1447;
-46.2000;0.6040;2.1285;
-45.9000;0.6015;2.1193;
-45.6000;0.6040;2.1239;
-45.3000;0.6024;2.1216;
-45.0000;0.6015;2.1262;
-44.7000;0.6015;2.1239;
-44.4000;0.5991;2.1147;
-44.1000;0.6048;2.1193;
-43.8000;0.6007;2.1124;
-43.5000;0.5950;2.0962;
-43.2000;0.6007;2.1008;
-42.9000;0.6048;2.1031;
-42.6000;0.6024;2.0985;
-42.3000;0.5983;2.0938;
-42.0000;0.6024;2.1008;
-41.7000;0.6015;2.1008;
-41.4000;0.6040;2.1147;
-41.1000;0.6007;2.1193;
-40.8000;0.6007;2.1147;
-40.5000;0.6032;2.1285;
-40.2000;0.6024;2.1332;
-39.9000;0.6024;2.1401;
-39.6000;0.6024;2.1401;
-39.3000;0.6015;2.1239;
-39.0000;0.6015;2.1285;
-38.7000;0.6032;2.1355;
-38.4000;0.6032;2.1378;
-38.1000;0.6007;2.1332;
-37.8000;0.5991;2.1285;
-37.5000;0.6007;2.1262;
-37.2000;0.6015;2.1309;
-36.9000;0.6015;2.1355;
-36.6000;0.6015;2.1401;
-36.3000;0.6007;2.1378;
-36.0000;0.6040;2.1471;
-35.7000;0.6040;2.1424;
-35.4000;0.6032;2.1401;
-35.1000;0.6015;2.1193;
-34.8000;0.6048;2.1332;
-34.5000;0.6015;2.1239;
-34.2000;0.6032;2.1285;
-33.9000;0.6007;2.1147;
-33.6000;0.6015;2.1054;
-33.3000;0.5926;2.0823;
-33.0000;0.6015;2.1008;
-32.7000;0.6007;2.1054;
-32.4000;0.6007;2.1100;
-32.1000;0.6024;2.1031;
-31.8000;0.5991;2.0892;
-31.5000;0.5999;2.1100;
-31.2000;0.6064;2.1355;
-30.9000;0.6024;2.1239;
-30.6000;0.6015;2.1239;
-30.3000;0.6015;2.1239;
-30.0000;0.6048;2.1285;
-29.7000;0.6032;2.1285;
-29.4000;0.6015;2.1309;
-29.1000;0.6032;2.1309;
-28.8000;0.6024;2.1309;
-28.5000;0.6007;2.1216;
-28.2000;0.6024;2.1332;
-27.9000;0.6024;2.1378;
-27.6000;0.6024;2.1424;
-27.3000;0.6024;2.1424;
-27.0000;0.6007;2.1332;
-26.7000;0.6024;2.1309;
-26.4000;0.6040;2.1285;
-26.1000;0.6015;2.1262;
-25.8000;0.6015;2.1216;
-25.5000;0.6024;2.1239;
-25.2000;0.6072;2.1471;
-24.9000;0.6015;2.1355;
-24.6000;0.6007;2.1355;
-24.3000;0.6007;2.1285;
-24.0000;0.6064;2.1447;
-23.7000;0.6032;2.1378;
-23.4000;0.6007;2.1332;
-23.1000;0.6007;2.1378;
-22.8000;0.6015;2.1378;
-22.5000;0.6015;2.1378;
-22.2000;0.6024;2.1378;
-21.9000;0.6015;2.1262;
-21.6000;0.6056;2.1378;
-21.3000;0.5999;2.1170;
-21.0000;0.6024;2.1147;
-20.7000;0.6024;2.1216;
-20.4000;0.6032;2.1285;
-20.1000;0.6007;2.1285;
-19.8000;0.6032;2.1309;
-19.5000;0.6024;2.1332;
-19.2000;0.5999;2.1332;
-18.9000;0.6015;2.1401;
-18.6000;0.6015;2.1401;
-18.3000;0.6015;2.1378;
-18.0000;0.6007;2.1424;
-17.7000;0.5999;2.1471;
-17.4000;0.6015;2.1447;
-17.1000;0.6024;2.1378;
-16.8000;0.6007;2.1401;
-16.5000;0.6024;2.1332;
-16.2000;0.5999;2.1262;
-15.9000;0.5999;2.1262;
-15.6000;0.5999;2.1355;
-15.3000;0.6015;2.1401;
-15.0000;0.6007;2.1309;
-14.7000;0.6015;2.1378;
-14.4000;0.6007;2.1355;
-14.1000;0.6015;2.1378;
-13.8000;0.6015;2.1401;
-13.5000;0.6024;2.1424;
-13.2000;0.5999;2.1401;
-12.9000;0.6032;2.1494;
-12.6000;0.6040;2.1494;
-12.3000;0.5991;2.1355;
-12.0000;0.6024;2.1494;
-11.7000;0.6007;2.1401;
-11.4000;0.6015;2.1471;
-11.1000;0.6024;2.1424;
-10.8000;0.6024;2.1378;
-10.5000;0.5999;2.1309;
-10.2000;0.6015;2.1355;
-9.9000;0.5999;2.1355;
-9.6000;0.6024;2.1378;
-9.3000;0.6015;2.1355;
-9.0000;0.6007;2.1378;
-8.7000;0.6024;2.1378;
-8.4000;0.6129;2.1563;
-8.1000;0.6015;2.1170;
-7.8000;0.6024;2.1193;
-7.5000;0.6007;2.1285;
-7.2000;0.5967;2.1147;
-6.9000;0.6007;2.1309;
-6.6000;0.6015;2.1285;
-6.3000;0.6072;2.1517;
-6.0000;0.5991;2.1285;
-5.7000;0.6007;2.1401;
-5.4000;0.6015;2.1401;
-5.1000;0.6024;2.1494;
-4.8000;0.6064;2.1563;
-4.5000;0.6007;2.1447;
-4.2000;0.6089;2.1609;
-3.9000;0.6007;2.1401;
-3.6000;0.6032;2.1447;
-3.3000;0.6007;2.1471;
-3.0000;0.6024;2.1517;
-2.7000;0.6015;2.1494;
-2.4000;0.6024;2.1471;
-2.1000;0.6015;2.1586;
-1.8000;0.6015;2.1679;
-1.5000;0.6007;2.1679;
-1.2000;0.6040;2.1679;
-0.9000;0.6024;2.1586;
-0.6000;0.6007;2.1540;
-0.3000;0.6007;2.1517;
0.0000;0.6007;2.1517;
0.3000;0.6203;2.1424;
0.6000;0.6463;2.1771;
0.9000;0.6561;2.1887;
1.2000;0.6781;2.2142;
1.5000;0.6895;2.2327;
1.8000;0.6976;2.2489;
2.1000;0.7041;2.2581;
2.4000;0.7090;2.2789;
2.7000;0.7123;2.2766;
3.0000;0.7123;2.2697;
3.3000;0.7285;2.3067;
3.6000;0.7269;2.3067;
3.9000;0.7293;2.3021;
4.2000;0.7326;2.3136;
4.5000;0.7342;2.3160;
4.8000;0.7375;2.3252;
5.1000;0.7391;2.3321;
5.4000;0.7473;2.3391;
5.7000;0.7448;2.3183;
6.0000;0.7456;2.3136;
6.3000;0.7473;2.3160;
6.6000;0.7513;2.3275;
6.9000;0.7538;2.3298;
7.2000;0.7538;2.3252;
7.5000;0.7554;2.3252;
7.8000;0.7603;2.3298;
8.1000;0.7595;2.3275;
8.4000;0.7611;2.3229;
8.7000;0.7627;2.3275;
9.0000;0.7643;2.3321;
9.3000;0.7660;2.3298;
9.6000;0.7635;2.3160;
9.9000;0.7700;2.3345;
10.2000;0.7684;2.3298;
10.5000;0.7717;2.3345;
10.8000;0.7733;2.3414;
11.1000;0.7749;2.3437;
11.4000;0.7766;2.3391;
11.7000;0.7774;2.3345;
12.0000;0.7774;2.3321;
12.3000;0.7749;2.3183;
12.6000;0.7863;2.3414;
12.9000;0.7839;2.3391;
13.2000;0.7806;2.3345;
13.5000;0.7798;2.3275;
13.8000;0.7839;2.3368;
14.1000;0.7855;2.3437;
14.4000;0.7863;2.3530;
14.7000;0.7855;2.3483;
15.0000;0.7904;2.3507;
15.3000;0.7896;2.3553;
15.6000;0.7937;2.3599;
15.9000;0.7912;2.3530;
16.2000;0.7928;2.3437;
16.5000;0.7928;2.3437;
16.8000;0.7937;2.3437;
17.1000;0.7953;2.3414;
17.4000;0.7953;2.3345;
17.7000;0.7961;2.3391;
18.0000;0.7985;2.3414;
18.3000;0.7993;2.3460;
18.6000;0.8010;2.3483;
18.9000;0.8018;2.3530;
19.2000;0.8018;2.3437;
19.5000;0.8026;2.3414;
19.8000;0.8026;2.3437;
20.1000;0.8010;2.3345;
20.4000;0.8026;2.3321;
20.7000;0.8034;2.3345;
21.0000;0.8075;2.3507;
21.3000;0.8083;2.3576;
21.6000;0.8034;2.3483;
21.9000;0.8042;2.3483;
22.2000;0.8075;2.3460;
22.5000;0.8083;2.3483;
22.8000;0.8034;2.3275;
23.1000;0.8140;2.3553;
23.4000;0.8059;2.3321;
23.7000;0.8099;2.3414;
24.0000;0.8140;2.3553;
24.3000;0.8132;2.3599;
24.6000;0.8034;2.3391;
24.9000;0.8107;2.3553;
25.2000;0.8099;2.3483;
25.5000;0.8132;2.3460;
25.8000;0.8026;2.3298;
26.1000;0.8091;2.3391;
26.4000;0.8124;2.3391;
26.7000;0.8173;2.3368;
27.0000;0.8132;2.3183;
27.3000;0.8173;2.3368;
27.6000;0.8132;2.3391;
27.9000;0.8148;2.3530;
28.2000;0.8164;2.3645;
28.5000;0.8156;2.3622;
28.8000;0.8140;2.3599;
29.1000;0.8164;2.3599;
29.4000;0.8164;2.3530;
29.7000;0.8164;2.3530;
30.0000;0.8197;2.3507;
30.3000;0.8181;2.3507;
30.6000;0.8197;2.3553;
30.9000;0.8189;2.3553;
31.2000;0.8124;2.3460;
31.5000;0.8189;2.3599;
31.8000;0.8189;2.3576;
32.1000;0.8189;2.3622;
32.4000;0.8213;2.3645;
32.7000;0.8230;2.3599;
33.0000;0.8213;2.3553;
33.3000;0.8213;2.3530;
33.6000;0.8246;2.3622;
33.9000;0.8221;2.3692;
34.2000;0.8213;2.3738;
34.5000;0.8205;2.3784;
34.8000;0.8213;2.3807;
35.1000;0.8213;2.3784;
35.4000;0.8221;2.3738;
35.7000;0.8213;2.3622;
36.0000;0.8230;2.3669;
36.3000;0.8205;2.3622;
36.6000;0.8238;2.3715;
36.9000;0.8230;2.3738;
37.2000;0.8238;2.3830;
37.5000;0.8189;2.3669;
37.8000;0.8213;2.3715;
38.1000;0.8262;2.3738;
38.4000;0.8197;2.3645;
38.7000;0.8238;2.3854;
39.0000;0.8254;2.3830;
39.3000;0.8238;2.3761;
39.6000;0.8230;2.3784;
39.9000;0.8278;2.3900;
40.2000;0.8270;2.3738;
40.5000;0.8246;2.3715;
40.8000;0.8254;2.3692;
41.1000;0.8246;2.3622;
41.4000;0.8262;2.3622;
41.7000;0.8262;2.3622;
42.0000;0.8270;2.3669;
42.3000;0.8270;2.3645;
42.6000;0.8189;2.3507;
42.9000;0.8311;2.3715;
43.2000;0.8246;2.3483;
43.5000;0.8254;2.3645;
43.8000;0.8278;2.3645;
44.1000;0.8254;2.3599;
44.4000;0.8278;2.3692;
44.7000;0.8262;2.3622;
45.0000;0.8287;2.3622;
45.3000;0.8303;2.3530;
45.6000;0.8270;2.3437;
45.9000;0.8278;2.3414;
46.2000;0.8344;2.3622;
46.5000;0.8295;2.3507;
46.8000;0.8311;2.3553;
47.1000;0.8278;2.3507;
47.4000;0.8262;2.3483;
47.7000;0.8295;2.3507;
48.0000;0.8238;2.3321;
48.3000;0.8287;2.3437;
48.6000;0.8303;2.3507;
48.9000;0.8262;2.3391;
49.2000;0.8319;2.3599;
49.5000;0.8295;2.3599;
49.8000;0.8287;2.3553;
50.1000;0.8270;2.3507;
50.4000;0.8311;2.3622;
50.7000;0.8295;2.3576;
51.0000;0.8295;2.3599;
51.3000;0.8319;2.3692;
51.6000;0.8311;2.3622;
51.9000;0.8295;2.3576;
52.2000;0.8295;2.3483;
52.5000;0.8295;2.3437;
52.8000;0.8327;2.3553;
53.1000;0.8287;2.3460;
53.4000;0.8295;2.3483;
53.7000;0.8311;2.3507;
54.0000;0.8335;2.3553;
54.3000;0.8335;2.3437;
54.6000;0.8400;2.3553;
54.9000;0.8303;2.3414;
55.2000;0.8311;2.3507;
55.5000;0.8311;2.3530;
55.8000;0.8327;2.3622;
56.1000;0.8311;2.3622;
56.4000;0.8311;2.3645;
56.7000;0.8319;2.3715;
57.0000;0.8311;2.3669;
57.3000;0.8303;2.3645;
57.6000;0.8295;2.3553;
57.9000;0.8344;2.3622;
58.2000;0.8335;2.3483;
58.5000;0.8311;2.3483;
58.8000;0.8327;2.3530;
59.1000;0.8327;2.3692;
59.4000;0.8327;2.3669;
59.7000;0.8327;2.3692;
60.0000;0.8230;2.3414;
60.3000;0.8311;2.3738;
60.6000;0.8295;2.3761;
60.9000;0.8311;2.3784;
61.2000;0.8295;2.3807;
61.5000;0.8254;2.3692;
61.8000;0.8287;2.3738;
62.1000;0.8303;2.3645;
62.4000;0.8335;2.3622;
62.7000;0.8311;2.3530;
63.0000;0.8409;2.3854;
63.3000;0.8303;2.3599;
63.6000;0.8311;2.3460;
63.9000;0.8189;2.3206;
64.2000;0.8262;2.3298;
64.5000;0.8303;2.3437;
64.8000;0.8311;2.3507;
65.1000;0.8327;2.3483;
65.4000;0.8327;2.3507;
65.7000;0.8319;2.3483;
66.0000;0.8384;2.3553;
66.3000;0.8344;2.3622;
66.6000;0.8335;2.3576;
66.9000;0.8319;2.3553;
67.2000;0.8344;2.3576;
67.5000;0.8319;2.3507;
67.8000;0.8344;2.3576;
68.1000;0.8327;2.3530;
68.4000;0.8352;2.3553;
68.7000;0.8311;2.3460;
69.0000;0.8506;2.3830;
69.3000;0.8327;2.3460;
69.6000;0.8327;2.3530;
69.9000;0.8352;2.3553;
70.2000;0.8270;2.3437;
70.5000;0.8352;2.3599;
70.8000;0.8376;2.3669;
71.1000;0.8319;2.3437;
71.4000;0.8344;2.3530;
71.7000;0.8311;2.3507;
72.0000;0.8287;2.3414;
72.3000;0.8344;2.3530;
72.6000;0.8392;2.3669;
72.9000;0.8344;2.3576;
73.2000;0.8344;2.3530;
73.5000;0.8344;2.3483;
73.8000;0.8360;2.3576;
74.1000;0.8327;2.3530;
74.4000;0.8319;2.3437;
74.7000;0.8335;2.3507;
75.0000;0.8327;2.3530;
75.3000;0.8311;2.3483;
75.6000;0.8327;2.3483;
75.9000;0.8335;2.3460;
76.2000;0.8335;2.3507;
76.5000;0.8352;2.3530;
76.8000;0.8344;2.3460;
77.1000;0.8352;2.3553;
77.4000;0.8352;2.3530;
77.7000;0.8335;2.3553;
78.0000;0.8335;2.3599;
78.3000;0.8352;2.3530;
78.6000;0.8360;2.3576;
78.9000;0.8352;2.3622;
79.2000;0.8335;2.3692;
79.5000;0.8344;2.3738;
79.8000;0.8368;2.3738;
80.1000;0.8360;2.3784;
80.4000;0.8352;2.3761;
80.7000;0.8376;2.3715;
81.0000;0.8368;2.3576;
81.3000;0.8360;2.3414;
81.6000;0.8335;2.3252;
81.9000;0.8376;2.3321;
82.2000;0.8352;2.3391;
82.5000;0.8319;2.3321;
82.8000;0.8319;2.3321;
83.1000;0.8319;2.3345;
83.4000;0.8344;2.3391;
83.7000;0.8319;2.3437;
84.0000;0.8327;2.3483;
84.3000;0.8319;2.3507;
84.6000;0.8360;2.3576;
84.9000;0.8344;2.3530;
85.2000;0.8376;2.3576;
85.5000;0.8352;2.3530;
85.8000;0.8344;2.3622;
86.1000;0.8352;2.3553;
86.4000;0.8360;2.3460;
86.7000;0.8360;2.3530;
87.0000;0.8327;2.3553;
87.3000;0.8335;2.3622;
87.6000;0.8327;2.3599;
87.9000;0.8319;2.3553;
88.2000;0.8335;2.3599;
88.5000;0.8360;2.3645;
88.8000;0.8327;2.3460;
89.1000;0.8319;2.3391;
89.4000;0.8352;2.3460;
89.7000;0.8335;2.3391;
90.0000;0.8360;2.3437;
90.3000;0.8352;2.3460;
90.6000;0.8425;2.3530;
90.9000;0.8335;2.3321;
91.2000;0.8360;2.3321;
91.5000;0.8360;2.3345;
91.8000;0.8376;2.3298;
92.1000;0.8303;2.3160;
92.4000;0.8368;2.3298;
92.7000;0.8352;2.3321;
93.0000;0.8344;2.3252;
93.3000;0.8352;2.3160;
93.6000;0.8360;2.3136;
93.9000;0.8311;2.3021;
94.2000;0.8376;2.3183;
94.5000;0.8352;2.3183;
94.8000;0.8368;2.3252;
95.1000;0.8384;2.3321;
95.4000;0.8360;2.3298;
95.7000;0.8368;2.3368;
96.0000;0.8368;2.3345;
96.3000;0.8360;2.3368;
96.6000;0.8360;2.3437;
96.9000;0.8352;2.3437;
97.2000;0.8360;2.3483;
97.5000;0.8352;2.3437;
97.8000;0.8352;2.3345;
98.1000;0.8327;2.3229;
98.4000;0.8352;2.3345;
98.7000;0.8368;2.3275;
99.0000;0.8360;2.3252;
99.3000;0.8352;2.3229;
99.6000;0.8360;2.3136;
99.9000;0.8352;2.3136;
100.2000;0.8376;2.3113;
100.5000;0.8376;2.3136;
100.8000;0.8368;2.3113;
101.1000;0.8360;2.3136;
101.4000;0.8368;2.3160;
101.7000;0.8360;2.3090;
102.0000;0.8352;2.3113;
102.3000;0.8352;2.3067;
102.6000;0.8368;2.3183;
102.9000;0.8344;2.3229;
103.2000;0.8360;2.3252;
103.5000;0.8335;2.3206;
103.8000;0.8360;2.3298;
104.1000;0.8368;2.3298;
104.4000;0.8360;2.3252;
104.7000;0.8368;2.3252;
105.0000;0.8392;2.3437;
105.3000;0.8360;2.3391;
105.6000;0.8368;2.3345;
105.9000;0.8327;2.3229;
106.2000;0.8327;2.3206;
106.5000;0.8360;2.3321;
106.8000;0.8368;2.3437;
107.1000;0.8360;2.3414;
107.4000;0.8368;2.3414;
107.7000;0.8392;2.3460;
108.0000;0.8384;2.3460;
108.3000;0.8360;2.3321;
108.6000;0.8360;2.3345;
108.9000;0.8360;2.3368;
109.2000;0.8392;2.3483;
109.5000;0.8352;2.3391;
109.8000;0.8344;2.3321;
110.1000;0.8344;2.3368;
110.4000;0.8360;2.3414;
110.7000;0.8368;2.3437;
111.0000;0.8311;2.3298;
111.3000;0.8360;2.3391;
111.6000;0.8384;2.3391;
111.9000;0.8449;2.3530;
112.2000;0.8384;2.3275;
112.5000;0.8352;2.3252;
112.8000;0.8425;2.3414;
113.1000;0.8360;2.3252;
113.4000;0.8360;2.3206;
113.7000;0.8368;2.3206;
114.0000;0.8376;2.3298;
114.3000;0.8360;2.3345;
114.6000;0.8360;2.3414;
114.9000;0.8335;2.3414;
115.2000;0.8376;2.3553;
115.5000;0.8360;2.3530;
115.8000;0.8384;2.3530;
116.1000;0.8368;2.3622;
116.4000;0.8344;2.3576;
116.7000;0.8376;2.3622;
117.0000;0.8360;2.3622;
117.3000;0.8352;2.3669;
117.6000;0.8368;2.3761;
117.9000;0.8352;2.3715;
118.2000;0.8360;2.3715;
118.5000;0.8344;2.3669;
118.8000;0.8327;2.3553;
119.1000;0.8287;2.3414;
119.4000;0.8344;2.3576;
119.7000;0.8352;2.3692;
120.0000;0.8319;2.3669;
120.3000;0.8327;2.3738;
120.6000;0.8417;2.3784;
120.9000;0.8425;2.3715;
121.2000;0.8360;2.3576;
121.5000;0.8360;2.3576;
121.8000;0.8344;2.3599;
122.1000;0.8376;2.3576;
122.4000;0.8360;2.3507;
122.7000;0.8327;2.3507;
123.0000;0.8352;2.3460;
123.3000;0.8368;2.3483;
123.6000;0.8376;2.3553;
123.9000;0.8376;2.3530;
124.2000;0.8344;2.3460;
124.5000;0.8368;2.3437;
124.8000;0.8384;2.3483;
125.1000;0.8360;2.3345;
125.4000;0.8376;2.3345;
125.7000;0.8376;2.3368;
126.0000;0.8384;2.3321;
126.3000;0.8376;2.3368;
126.6000;0.8335;2.3345;
126.9000;0.8368;2.3391;
127.2000;0.8376;2.3437;
127.5000;0.8384;2.3414;
127.8000;0.8352;2.3275;
128.1000;0.8376;2.3229;
128.4000;0.8368;2.3252;
128.7000;0.8368;2.3206;
129.0000;0.8368;2.3298;
129.3000;0.8344;2.3252;
129.6000;0.8360;2.3321;
129.9000;0.8360;2.3229;
130.2000;0.8409;2.3345;
130.5000;0.8368;2.3136;
130.8000;0.8335;2.3044;
131.1000;0.8360;2.3090;
131.4000;0.8368;2.3136;
131.7000;0.8327;2.3160;
132.0000;0.8344;2.3113;
132.3000;0.8344;2.3113;
132.6000;0.8368;2.3206;
132.9000;0.8352;2.3183;
133.2000;0.8376;2.3136;
133.5000;0.8360;2.3136;
133.8000;0.8368;2.3183;
134.1000;0.8352;2.3183;
134.4000;0.8360;2.3183;
134.7000;0.8360;2.3252;
135.0000;0.8360;2.3252;
135.3000;0.8360;2.3229;
135.6000;0.8344;2.3229;
135.9000;0.8368;2.3321;
136.2000;0.8368;2.3368;
136.5000;0.8384;2.3321;
136.8000;0.8360;2.3345;
137.1000;0.8409;2.3530;
137.4000;0.8368;2.3460;
137.7000;0.8368;2.3391;
138.0000;0.8376;2.3321;
138.3000;0.8335;2.3368;
138.6000;0.8376;2.3368;
138.9000;0.8384;2.3345;
139.2000;0.8278;2.3067;
139.5000;0.8344;2.3275;
139.8000;0.8376;2.3275;
140.1000;0.8311;2.3136;
140.4000;0.8344;2.3183;
140.7000;0.8335;2.3183;
141.0000;0.8360;2.3252;
141.3000;0.8360;2.3275;
141.6000;0.8360;2.3298;
141.9000;0.8303;2.3136;
142.2000;0.8392;2.3321;
142.5000;0.8360;2.3321;
142.8000;0.8344;2.3183;
143.1000;0.8360;2.3206;
143.4000;0.8303;2.3090;
143.7000;0.8368;2.3229;
144.0000;0.8433;2.3391;
144.3000;0.8368;2.3206;
144.6000;0.8376;2.3136;
144.9000;0.8368;2.3160;
145.2000;0.8352;2.3183;
145.5000;0.8352;2.3136;
145.8000;0.8319;2.3090;
146.1000;0.8352;2.3206;
146.4000;0.8360;2.3183;
146.7000;0.8449;2.3391;
147.0000;0.8352;2.3183;
147.3000;0.8311;2.3067;
147.6000;0.8360;2.3183;
147.9000;0.8352;2.3090;
148.2000;0.8344;2.3113;
148.5000;0.8368;2.3136;
148.8000;0.8368;2.3206;
149.1000;0.8392;2.3229;
149.4000;0.8400;2.3229;
149.7000;0.8368;2.3136;
150.0000;0.8368;2.3229;
150.3000;0.8344;2.3206;
150.6000;0.8352;2.3206;
150.9000;0.8368;2.3298;
151.2000;0.8311;2.3183;
151.5000;0.8368;2.3206;
151.8000;0.8352;2.3252;
152.1000;0.8335;2.3136;
152.4000;0.8425;2.3275;
152.7000;0.8368;2.3206;
153.0000;0.8376;2.3275;
153.3000;0.8311;2.3229;
153.6000;0.8368;2.3321;
153.9000;0.8352;2.3321;
154.2000;0.8376;2.3321;
154.5000;0.8344;2.3298;
154.8000;0.8368;2.3368;
155.1000;0.8368;2.3368;
155.4000;0.8376;2.3437;
155.7000;0.8352;2.3391;
156.0000;0.8352;2.3437;
156.3000;0.8352;2.3345;
156.6000;0.8360;2.3368;
156.9000;0.8368;2.3507;
157.2000;0.8360;2.3460;
157.5000;0.8352;2.3437;
157.8000;0.8368;2.3460;
158.1000;0.8376;2.3483;
158.4000;0.8368;2.3576;
158.7000;0.8344;2.3553;
159.0000;0.8376;2.3715;
159.3000;0.8384;2.3738;
159.6000;0.8344;2.3622;
159.9000;0.8360;2.3692;
160.2000;0.8376;2.3622;
160.5000;0.8384;2.3576;
160.8000;0.8384;2.3553;
161.1000;0.8376;2.3530;
161.4000;0.8360;2.3576;
161.7000;0.8409;2.3669;
162.0000;0.8376;2.3599;
162.3000;0.8368;2.3576;
162.6000;0.8417;2.3599;
162.9000;0.8344;2.3391;
163.2000;0.8376;2.3460;
163.5000;0.8319;2.3321;
163.8000;0.8376;2.3507;
164.1000;0.8368;2.3507;
164.4000;0.8327;2.3414;
164.7000;0.8400;2.3599;
165.0000;0.8360;2.3414;
165.3000;0.8360;2.3530;
165.6000;0.8368;2.3507;
165.9000;0.8311;2.3553;
166.2000;0.8376;2.3715;
166.5000;0.8368;2.3622;
166.8000;0.8344;2.3622;
167.1000;0.8400;2.3692;
167.4000;0.8368;2.3599;
167.7000;0.8409;2.3669;
168.0000;0.8319;2.3437;
168.3000;0.8368;2.3576;
168.6000;0.8368;2.3576;
168.9000;0.8360;2.3437;
169.2000;0.8368;2.3483;
169.5000;0.8384;2.3507;
169.8000;0.8376;2.3507;
170.1000;0.8360;2.3576;
170.4000;0.8376;2.3622;
170.7000;0.8392;2.3645;
171.0000;0.8425;2.3784;
171.3000;0.8368;2.3645;
171.6000;0.8368;2.3761;
171.9000;0.8384;2.3807;
172.2000;0.8376;2.3715;
172.5000;0.8368;2.3692;
172.8000;0.8360;2.3669;
173.1000;0.8368;2.3692;
173.4000;0.8368;2.3645;
173.7000;0.8360;2.3645;
174.0000;0.8360;2.3530;
174.3000;0.8376;2.3669;
174.6000;0.8376;2.3738;
174.9000;0.8344;2.3622;
175.2000;0.8368;2.3645;
175.5000;0.8360;2.3622;
175.8000;0.8335;2.3576;
176.1000;0.8344;2.3645;
176.4000;0.8368;2.3738;
176.7000;0.8295;2.3530;
177.0000;0.8368;2.3784;
177.3000;0.8360;2.3784;
177.6000;0.8384;2.3877;
177.9000;0.8352;2.3738;
178.2000;0.8360;2.3807;
178.5000;0.8368;2.3761;
178.8000;0.8352;2.3761;
179.1000;0.8376;2.3854;
179.4000;0.8409;2.3900;
179.7000;0.8376;2.3761;
180.0000;0.8376;2.3692;
180.3000;0.8376;2.3669;
180.6000;0.8400;2.3715;
180.9000;0.8384;2.3669;
181.2000;0.8368;2.3599;
181.5000;0.8360;2.3692;
181.8000;0.8384;2.3738;
182.1000;0.8392;2.3738;
182.4000;0.8360;2.3599;
182.7000;0.8344;2.3645;
183.0000;0.8368;2.3622;
183.3000;0.8384;2.3669;
183.6000;0.8376;2.3507;
183.9000;0.8384;2.3507;
184.2000;0.8376;2.3460;
184.5000;0.8376;2.3483;
184.8000;0.8392;2.3507;
185.1000;0.8384;2.3483;
185.4000;0.8376;2.3460;
185.7000;0.8384;2.3483;
186.0000;0.8376;2.3460;
186.3000;0.8368;2.3483;
186.6000;0.8352;2.3414;
186.9000;0.8360;2.3414;
187.2000;0.8360;2.3391;
187.5000;0.8376;2.3460;
187.8000;0.8360;2.3368;
188.1000;0.8417;2.3483;
188.4000;0.8376;2.3391;
188.7000;0.8384;2.3414;
189.0000;0.8360;2.3391;
189.3000;0.8344;2.3345;
189.6000;0.8344;2.3275;
189.9000;0.8368;2.3391;
190.2000;0.8376;2.3530;
190.5000;0.8352;2.3576;
190.8000;0.8384;2.3599;
191.1000;0.8368;2.3576;
191.4000;0.8376;2.3599;
191.7000;0.8376;2.3576;
192.0000;0.8368;2.3437;
192.3000;0.8368;2.3507;
192.6000;0.8368;2.3576;
192.9000;0.8360;2.3599;
193.2000;0.8360;2.3530;
193.5000;0.8376;2.3530;
193.8000;0.8392;2.3483;
194.1000;0.8392;2.3507;
194.4000;0.8311;2.3460;
194.7000;0.8384;2.3599;
195.0000;0.8368;2.3645;
195.3000;0.8376;2.3692;
195.6000;0.8376;2.3738;
195.9000;0.8376;2.3807;
196.2000;0.8376;2.3761;
196.5000;0.8376;2.3784;
196.8000;0.8392;2.3738;
197.1000;0.8376;2.3784;
197.4000;0.8352;2.3692;
197.7000;0.8400;2.3761;
198.0000;0.8376;2.3692;
198.3000;0.8352;2.3507;
198.6000;0.8344;2.3483;
198.9000;0.8376;2.3437;
199.2000;0.8360;2.3437;
199.5000;0.8360;2.3483;
199.8000;0.8368;2.3530;
200.1000;0.8376;2.3507;
200.4000;0.8368;2.3483;
200.7000;0.8409;2.3576;
201.0000;0.8368;2.3507;
201.3000;0.8376;2.3437;
201.6000;0.8384;2.3530;
201.9000;0.8319;2.3368;
202.2000;0.8368;2.3599;
202.5000;0.8360;2.3599;
202.8000;0.8368;2.3599;
203.1000;0.8368;2.3622;
203.4000;0.8368;2.3645;
203.7000;0.8417;2.3669;
204.0000;0.8319;2.3460;
204.3000;0.8368;2.3507;
204.6000;0.8368;2.3414;
204.9000;0.8360;2.3414;
205.2000;0.8368;2.3460;
205.5000;0.8376;2.3483;
205.8000;0.8344;2.3460;
206.1000;0.8352;2.3414;
206.4000;0.8384;2.3483;
206.7000;0.8376;2.3460;
207.0000;0.8368;2.3483;
207.3000;0.8360;2.3460;
207.6000;0.8376;2.3437;
207.9000;0.8376;2.3368;
208.2000;0.8376;2.3368;
208.5000;0.8360;2.3391;
208.8000;0.8368;2.3437;
209.1000;0.8384;2.3345;
209.4000;0.8376;2.3345;
209.7000;0.8368;2.3368;
210.0000;0.8384;2.3321;
210.3000;0.8384;2.3298;
210.6000;0.8368;2.3229;
210.9000;0.8360;2.3252;
211.2000;0.8368;2.3275;
211.5000;0.8433;2.3507;
211.8000;0.8376;2.3437;
212.1000;0.8384;2.3460;
212.4000;0.8360;2.3460;
212.7000;0.8368;2.3460;
213.0000;0.8360;2.3437;
213.3000;0.8352;2.3437;
213.6000;0.8368;2.3460;
213.9000;0.8303;2.3252;
214.2000;0.8360;2.3391;
214.5000;0.8400;2.3483;
214.8000;0.8352;2.3483;
215.1000;0.8384;2.3553;
215.4000;0.8368;2.3530;
215.7000;0.8360;2.3460;
216.0000;0.8368;2.3437;
216.3000;0.8360;2.3345;
216.6000;0.8376;2.3460;
216.9000;0.8360;2.3483;
217.2000;0.8360;2.3530;
217.5000;0.8384;2.3530;
217.8000;0.8384;2.3507;
218.1000;0.8384;2.3669;
218.4000;0.8376;2.3738;
218.7000;0.8360;2.3645;
219.0000;0.8352;2.3599;
219.3000;0.8384;2.3599;
219.6000;0.8360;2.3414;
219.9000;0.8384;2.3530;
220.2000;0.8384;2.3576;
220.5000;0.8376;2.3530;
220.8000;0.8376;2.3460;
221.1000;0.8392;2.3576;
221.4000;0.8368;2.3483;
221.7000;0.8376;2.3437;
222.0000;0.8376;2.3507;
222.3000;0.8360;2.3391;
222.6000;0.8368;2.3391;
222.9000;0.8368;2.3483;
223.2000;0.8368;2.3437;
223.5000;0.8360;2.3368;
223.8000;0.8360;2.3391;
224.1000;0.8376;2.3414;
224.4000;0.8384;2.3437;
224.7000;0.8425;2.3553;
225.0000;0.8360;2.3483;
225.3000;0.8376;2.3414;
225.6000;0.8368;2.3321;
225.9000;0.8400;2.3391;
226.2000;0.8400;2.3345;
226.5000;0.8360;2.3345;
226.8000;0.8368;2.3391;
227.1000;0.8384;2.3414;
227.4000;0.8384;2.3414;
227.7000;0.8360;2.3414;
228.0000;0.8360;2.3414;
228.3000;0.8368;2.3460;
228.6000;0.8360;2.3507;
228.9000;0.8368;2.3507;
229.2000;0.8360;2.3460;
229.5000;0.8376;2.3437;
229.8000;0.8392;2.3460;
230.1000;0.8368;2.3414;
230.4000;0.8384;2.3553;
230.7000;0.8376;2.3553;
231.0000;0.8392;2.3553;
231.3000;0.8376;2.3507;
231.6000;0.8319;2.3345;
231.9000;0.8409;2.3553;
232.2000;0.8384;2.3530;
232.5000;0.8368;2.3483;
232.8000;0.8384;2.3460;
233.1000;0.8376;2.3437;
233.4000;0.8384;2.3391;
233.7000;0.8376;2.3321;
234.0000;0.8327;2.3252;
234.3000;0.8327;2.3321;
234.6000;0.8392;2.3414;
234.9000;0.8400;2.3483;
235.2000;0.8352;2.3437;
235.5000;0.8466;2.3738;
235.8000;0.8368;2.3622;
236.1000;0.8400;2.3645;
236.4000;0.8368;2.3669;
236.7000;0.8360;2.3669;
237.0000;0.8368;2.3715;
237.3000;0.8376;2.3669;
237.6000;0.8360;2.3507;
237.9000;0.8344;2.3460;
238.2000;0.8344;2.3391;
238.5000;0.8368;2.3437;
238.8000;0.8474;2.3715;
239.1000;0.8344;2.3483;
239.4000;0.8376;2.3576;
239.7000;0.8360;2.3645;
240.0000;0.8376;2.3645;
240.3000;0.8384;2.3645;
240.6000;0.8368;2.3622;
240.9000;0.8352;2.3622;
241.2000;0.8344;2.3599;
241.5000;0.8376;2.3669;
241.8000;0.8392;2.3784;
242.1000;0.8400;2.3784;
242.4000;0.8360;2.3669;
242.7000;0.8376;2.3530;
243.0000;0.8376;2.3507;
243.3000;0.8376;2.3530;
243.6000;0.8352;2.3576;
243.9000;0.8344;2.3599;
244.2000;0.8368;2.3553;
244.5000;0.8360;2.3507;
244.8000;0.8400;2.3599;
245.1000;0.8392;2.3622;
245.4000;0.8352;2.3530;
245.7000;0.8360;2.3553;
246.0000;0.8303;2.3414;
246.3000;0.8360;2.3483;
246.6000;0.8368;2.3576;
246.9000;0.8441;2.3830;
247.2000;0.8384;2.3738;
247.5000;0.8368;2.3669;
247.8000;0.8384;2.3669;
248.1000;0.8344;2.3507;
248.4000;0.8360;2.3553;
248.7000;0.8376;2.3530;
249.0000;0.8352;2.3460;
249.3000;0.8352;2.3368;
249.6000;0.8392;2.3414;
249.9000;0.8360;2.3391;
250.2000;0.8376;2.3391;
250.5000;0.8360;2.3298;
250.8000;0.8368;2.3321;
251.1000;0.8352;2.3275;
251.4000;0.8360;2.3321;
251.7000;0.8376;2.3298;
252.0000;0.8400;2.3368;
252.3000;0.8368;2.3275;
252.6000;0.8376;2.3183;
252.9000;0.8376;2.3136;
253.2000;0.8360;2.3160;
253.5000;0.8392;2.3252;
253.8000;0.8368;2.3229;
254.1000;0.8352;2.3206;
254.4000;0.8368;2.3229;
254.7000;0.8368;2.3206;
255.0000;0.8376;2.3160;
255.3000;0.8392;2.3113;
255.6000;0.8368;2.3113;
255.9000;0.8376;2.3275;
256.2000;0.8482;2.3530;
256.5000;0.8368;2.3321;
256.8000;0.8384;2.3391;
257.1000;0.8400;2.3437;
257.4000;0.8376;2.3391;
257.7000;0.8384;2.3414;
258.0000;0.8384;2.3437;
258.3000;0.8344;2.3414;
258.6000;0.8360;2.3553;
258.9000;0.8344;2.3576;
259.2000;0.8360;2.3599;
259.5000;0.8287;2.3437;
259.8000;0.8360;2.3599;
260.1000;0.8368;2.3576;
260.4000;0.8368;2.3622;
260.7000;0.8344;2.3692;
261.0000;0.8344;2.3715;
261.3000;0.8352;2.3645;
261.6000;0.8433;2.3877;
261.9000;0.8352;2.3622;
262.2000;0.8368;2.3692;
262.5000;0.8360;2.3669;
262.8000;0.8376;2.3599;
263.1000;0.8384;2.3669;
263.4000;0.8376;2.3645;
263.7000;0.8360;2.3599;
264.0000;0.8376;2.3553;
264.3000;0.8352;2.3507;
264.6000;0.8368;2.3553;
264.9000;0.8368;2.3530;
265.2000;0.8344;2.3437;
265.5000;0.8368;2.3530;
265.8000;0.8295;2.3345;
266.1000;0.8425;2.3622;
266.4000;0.8384;2.3530;
266.7000;0.8368;2.3460;
267.0000;0.8368;2.3391;
267.3000;0.8376;2.3460;
267.6000;0.8368;2.3437;
267.9000;0.8319;2.3321;
268.2000;0.8352;2.3437;
268.5000;0.8368;2.3460;
268.8000;0.8360;2.3530;
269.1000;0.8295;2.3321;
269.4000;0.8376;2.3414;
269.7000;0.8352;2.3414;
270.0000;0.8360;2.3437;
270.3000;0.8360;2.3391;
270.6000;0.8376;2.3460;
270.9000;0.8311;2.3229;
271.2000;0.8344;2.3275;
271.5000;0.8360;2.3252;
271.8000;0.8384;2.3298;
272.1000;0.8384;2.3252;
272.4000;0.8376;2.3229;
272.7000;0.8319;2.3090;
273.0000;0.8368;2.3252;
273.3000;0.8368;2.3252;
273.6000;0.8262;2.3021;
273.9000;0.8441;2.3414;
274.2000;0.8335;2.3206;
274.5000;0.8368;2.3275;
274.8000;0.8376;2.3321;
275.1000;0.8384;2.3298;
275.4000;0.8368;2.3321;
275.7000;0.8319;2.3183;
276.0000;0.8246;2.2928;
276.3000;0.8368;2.3206;
276.6000;0.8376;2.3321;
276.9000;0.8433;2.3391;
277.2000;0.8360;2.3298;
277.5000;0.8376;2.3391;
277.8000;0.8482;2.3553;
278.1000;0.8409;2.3437;
278.4000;0.8384;2.3368;
278.7000;0.8376;2.3368;
279.0000;0.8303;2.3183;
279.3000;0.8376;2.3298;
279.6000;0.8376;2.3275;
279.9000;0.8376;2.3298;
280.2000;0.8425;2.3414;
280.5000;0.8384;2.3321;
280.8000;0.8368;2.3252;
281.1000;0.8376;2.3321;
281.4000;0.8433;2.3414;
281.7000;0.8344;2.3275;
282.0000;0.8360;2.3229;
282.3000;0.8376;2.3206;
282.6000;0.8368;2.3252;
282.9000;0.8368;2.3321;
283.2000;0.8352;2.3345;
283.5000;0.8368;2.3368;
283.8000;0.8376;2.3368;
284.1000;0.8376;2.3530;
284.4000;0.8441;2.3576;
284.7000;0.8368;2.3414;
285.0000;0.8368;2.3391;
285.3000;0.8376;2.3391;
285.6000;0.8360;2.3483;
285.9000;0.8360;2.3483;
286.2000;0.8360;2.3437;
286.5000;0.8368;2.3414;
286.8000;0.8376;2.3391;
287.1000;0.8392;2.3507;
287.4000;0.8376;2.3507;
287.7000;0.8384;2.3460;
288.0000;0.8384;2.3507;
288.3000;0.8368;2.3460;
288.6000;0.8392;2.3437;
288.9000;0.8384;2.3391;
289.2000;0.8327;2.3252;
289.5000;0.8368;2.3298;
289.8000;0.8344;2.3229;
290.1000;0.8376;2.3391;
290.4000;0.8368;2.3460;
290.7000;0.8376;2.3599;
291.0000;0.8360;2.3530;
291.3000;0.8376;2.3599;
291.6000;0.8392;2.3622;
291.9000;0.8376;2.3437;
292.2000;0.8368;2.3414;
292.5000;0.8360;2.3414;
292.8000;0.8368;2.3507;
293.1000;0.8376;2.3483;
293.4000;0.8368;2.3437;
293.7000;0.8409;2.3530;
294.0000;0.8417;2.3507;
294.3000;0.8384;2.3368;
294.6000;0.8352;2.3345;
294.9000;0.8384;2.3414;
295.2000;0.8384;2.3345;
295.5000;0.8344;2.3275;
295.8000;0.8368;2.3391;
296.1000;0.8384;2.3460;
296.4000;0.8360;2.3414;
296.7000;0.8319;2.3437;
297.0000;0.8392;2.3460;
297.3000;0.8360;2.3391;
297.6000;0.8303;2.3321;
297.9000;0.8376;2.3437;
298.2000;0.8368;2.3391;
298.5000;0.8360;2.3391;
298.8000;0.8352;2.3345;
299.1000;0.8376;2.3460;
299.4000;0.8360;2.3414;
299.7000;0.8376;2.3460;
300.0000;0.8368;2.3553;
300.3000;0.8376;2.3599;
300.6000;0.8466;2.3761;
300.9000;0.8344;2.3368;
301.2000;0.8360;2.3437;
301.5000;0.8384;2.3507;
301.8000;0.8368;2.3507;
302.1000;0.8384;2.3599;
302.4000;0.8352;2.3414;
302.7000;0.8384;2.3414;
303.0000;0.8376;2.3391;
303.3000;0.8368;2.3298;
303.6000;0.8400;2.3507;
303.9000;0.8368;2.3553;
304.2000;0.8376;2.3576;
304.5000;0.8384;2.3530;
304.8000;0.8368;2.3437;
305.1000;0.8376;2.3368;
305.4000;0.8400;2.3414;
305.7000;0.8376;2.3414;
306.0000;0.8368;2.3368;
306.3000;0.8392;2.3391;
306.6000;0.8392;2.3414;
306.9000;0.8368;2.3391;
307.2000;0.8344;2.3368;
307.5000;0.8368;2.3345;
307.8000;0.8368;2.3298;
308.1000;0.8368;2.3345;
308.4000;0.8335;2.3298;
308.7000;0.8335;2.3391;
309.0000;0.8384;2.3599;
309.3000;0.8376;2.3483;
309.6000;0.8376;2.3414;
309.9000;0.8400;2.3437;
310.2000;0.8392;2.3483;
310.5000;0.8344;2.3391;
310.8000;0.8368;2.3275;
311.1000;0.8368;2.3252;
311.4000;0.8368;2.3252;
311.7000;0.8311;2.3113;
312.0000;0.8368;2.3229;
312.3000;0.8392;2.3321;
312.6000;0.8384;2.3252;
312.9000;0.8457;2.3460;
313.2000;0.8376;2.3298;
313.5000;0.8368;2.3252;
313.8000;0.8384;2.3298;
314.1000;0.8384;2.3391;
314.4000;0.8376;2.3345;
314.7000;0.8368;2.3252;
315.0000;0.8392;2.3252;
315.3000;0.8384;2.3136;
315.6000;0.8409;2.3136;
315.9000;0.8384;2.3160;
316.2000;0.8384;2.3067;
316.5000;0.8384;2.3067;
316.8000;0.8409;2.3183;
317.1000;0.8352;2.3206;
317.4000;0.8360;2.3252;
317.7000;0.8352;2.3252;
318.0000;0.8376;2.3368;
318.3000;0.8360;2.3252;
318.6000;0.8368;2.3345;
318.9000;0.8344;2.3298;
319.2000;0.8360;2.3321;
319.5000;0.8368;2.3391;
319.8000;0.8425;2.3553;
320.1000;0.8376;2.3437;
320.4000;0.8360;2.3414;
320.7000;0.8368;2.3368;
321.0000;0.8400;2.3414;
321.3000;0.8360;2.3368;
321.6000;0.8368;2.3460;
321.9000;0.8311;2.3321;
322.2000;0.8352;2.3414;
322.5000;0.8360;2.3414;
322.8000;0.8360;2.3437;
323.1000;0.8384;2.3553;
323.4000;0.8376;2.3553;
323.7000;0.8368;2.3483;
324.0000;0.8376;2.3460;
324.3000;0.8376;2.3483;
324.6000;0.8376;2.3576;
324.9000;0.8368;2.3553;
325.2000;0.8392;2.3483;
325.5000;0.8400;2.3530;
325.8000;0.8409;2.3507;
326.1000;0.8368;2.3368;
326.4000;0.8392;2.3298;
326.7000;0.8376;2.3321;
327.0000;0.8368;2.3275;
327.3000;0.8376;2.3252;
327.6000;0.8376;2.3321;
327.9000;0.8360;2.3252;
328.2000;0.8417;2.3414;
328.5000;0.8360;2.3229;
328.8000;0.8376;2.3252;
329.1000;0.8417;2.3345;
329.4000;0.8400;2.3391;
329.7000;0.8360;2.3437;
330.0000;0.8360;2.3437;
330.3000;0.8417;2.3622;
330.6000;0.8327;2.3391;
330.9000;0.8384;2.3460;
331.2000;0.8384;2.3275;
331.5000;0.8384;2.3391;
331.8000;0.8384;2.3345;
332.1000;0.8376;2.3298;
332.4000;0.8360;2.3275;
332.7000;0.8368;2.3345;
333.0000;0.8368;2.3391;
333.3000;0.8360;2.3414;
333.6000;0.8344;2.3345;
333.9000;0.8384;2.3460;
334.2000;0.8368;2.3368;
334.5000;0.8400;2.3414;
334.8000;0.8376;2.3368;
335.1000;0.8376;2.3275;
335.4000;0.8384;2.3252;
335.7000;0.8392;2.3252;
336.0000;0.8344;2.3160;
336.3000;0.8384;2.3298;
336.6000;0.8368;2.3252;
336.9000;0.8360;2.3345;
337.2000;0.8384;2.3368;
337.5000;0.8360;2.3507;
337.8000;0.8319;2.3460;
338.1000;0.8368;2.3460;
338.4000;0.8368;2.3368;
338.7000;0.8409;2.3483;
339.0000;0.8352;2.3345;
339.3000;0.8360;2.3345;
339.6000;0.8376;2.3368;
339.9000;0.8376;2.3414;
340.2000;0.8376;2.3391;
340.5000;0.8360;2.3414;
340.8000;0.8400;2.3414;
341.1000;0.8376;2.3368;
341.4000;0.8360;2.3368;
341.7000;0.8360;2.3391;
342.0000;0.8384;2.3391;
342.3000;0.8392;2.3414;
342.6000;0.8368;2.3298;
342.9000;0.8384;2.3275;
343.2000;0.8360;2.3252;
343.5000;0.8433;2.3553;
343.8000;0.8368;2.3391;
344.1000;0.8368;2.3530;
344.4000;0.8368;2.3507;
344.7000;0.8376;2.3437;
345.0000;0.8376;2.3321;
345.3000;0.8368;2.3345;
345.6000;0.8376;2.3321;
345.9000;0.8392;2.3275;
346.2000;0.8376;2.3229;
346.5000;0.8384;2.3183;
346.8000;0.8368;2.3136;
347.1000;0.8376;2.3206;
347.4000;0.8384;2.3275;
347.7000;0.8376;2.3252;
348.0000;0.8368;2.3252;
348.3000;0.8384;2.3229;
348.6000;0.8376;2.3136;
348.9000;0.8368;2.3136;
349.2000;0.8344;2.3090;
349.5000;0.8360;2.3113;
349.8000;0.8376;2.3113;
350.1000;0.8368;2.3090;
350.4000;0.8376;2.3113;
350.7000;0.8384;2.3229;
351.0000;0.8368;2.3229;
351.3000;0.8392;2.3229;
351.6000;0.8360;2.3136;
351.9000;0.8376;2.3136;
352.2000;0.8368;2.3090;
352.5000;0.8441;2.3298;
352.8000;0.8376;2.3206;
353.1000;0.8368;2.3113;
353.4000;0.8417;2.3183;
353.7000;0.8384;2.3160;
354.0000;0.8368;2.3183;
354.3000;0.8376;2.3229;
354.6000;0.8376;2.3275;
354.9000;0.8384;2.3368;
355.2000;0.8376;2.3368;
355.5000;0.8303;2.3160;
355.8000;0.8360;2.3321;
356.1000;0.8368;2.3368;
356.4000;0.8417;2.3460;
356.7000;0.8344;2.3229;
357.0000;0.8425;2.3368;
357.3000;0.8360;2.3206;
357.6000;0.8376;2.3345;
357.9000;0.8368;2.3275;
358.2000;0.8368;2.3298;
358.5000;0.8360;2.3298;
358.8000;0.8376;2.3229;
359.1000;0.8368;2.3252;
359.4000;0.8327;2.3206;
359.7000;0.8376;2.3345;
360.0000;0.8482;2.3669;
360.3000;0.8327;2.3345;
360.6000;0.8368;2.3391;
360.9000;0.8319;2.3368;
361.2000;0.8368;2.3483;
361.5000;0.8360;2.3345;
361.8000;0.8344;2.3368;
362.1000;0.8335;2.3391;
362.4000;0.8417;2.3460;
362.7000;0.8384;2.3345;
363.0000;0.8417;2.3483;
363.3000;0.8360;2.3368;
363.6000;0.8392;2.3414;
363.9000;0.8384;2.3414;
364.2000;0.8466;2.3507;
364.5000;0.8368;2.3414;
364.8000;0.8360;2.3345;
365.1000;0.8360;2.3275;
365.4000;0.8384;2.3321;
365.7000;0.8327;2.3206;
366.0000;0.8376;2.3345;
366.3000;0.8392;2.3414;
366.6000;0.8441;2.3483;
366.9000;0.8400;2.3321;
367.2000;0.8425;2.3414;
367.5000;0.8384;2.3345;
367.8000;0.8409;2.3460;
368.1000;0.8384;2.3437;
368.4000;0.8319;2.3391;
368.7000;0.8327;2.3368;
369.0000;0.8335;2.3368;
369.3000;0.8368;2.3437;
369.6000;0.8384;2.3460;
369.9000;0.8474;2.3576;
370.2000;0.8360;2.3298;
370.5000;0.8368;2.3368;
370.8000;0.8392;2.3321;
371.1000;0.8368;2.3252;
371.4000;0.8360;2.3206;
371.7000;0.8384;2.3160;
372.0000;0.8376;2.3160;
372.3000;0.8384;2.3229;
372.6000;0.8384;2.3252;
372.9000;0.8368;2.3183;
373.2000;0.8441;2.3229;
373.5000;0.8376;2.3067;
373.8000;0.8376;2.3021;
374.1000;0.8392;2.3113;
374.4000;0.8384;2.3113;
374.7000;0.8368;2.3183;
375.0000;0.8384;2.3298;
375.3000;0.8392;2.3414;
375.6000;0.8392;2.3368;
375.9000;0.8360;2.3229;
376.2000;0.8368;2.3183;
376.5000;0.8376;2.3160;
376.8000;0.8368;2.3067;
377.1000;0.8327;2.3067;
377.4000;0.8368;2.3160;
377.7000;0.8368;2.3229;
378.0000;0.8368;2.3252;
378.3000;0.8376;2.3321;
378.6000;0.8335;2.3229;
378.9000;0.8376;2.3391;
379.2000;0.8433;2.3576;
379.5000;0.8368;2.3391;
379.8000;0.8392;2.3483;
380.1000;0.8360;2.3391;
380.4000;0.8376;2.3460;
380.7000;0.8409;2.3414;
381.0000;0.8368;2.3252;
381.3000;0.8392;2.3345;
381.6000;0.8352;2.3391;
381.9000;0.8368;2.3345;
382.2000;0.8352;2.3298;
382.5000;0.8327;2.3321;
382.8000;0.8352;2.3345;
383.1000;0.8368;2.3414;
383.4000;0.8368;2.3437;
383.7000;0.8368;2.3483;
384.0000;0.8360;2.3530;
384.3000;0.8409;2.3483;
384.6000;0.8360;2.3368;
384.9000;0.8409;2.3507;
385.2000;0.8327;2.3345;
385.5000;0.8368;2.3391;
385.8000;0.8384;2.3530;
386.1000;0.8352;2.3414;
386.4000;0.8360;2.3368;
386.7000;0.8425;2.3530;
387.0000;0.8384;2.3414;
387.3000;0.8335;2.3275;
387.6000;0.8352;2.3414;
387.9000;0.8360;2.3298;
388.2000;0.8376;2.3321;
388.5000;0.8392;2.3437;
388.8000;0.8368;2.3391;
389.1000;0.8360;2.3368;
389.4000;0.8376;2.3391;
389.7000;0.8376;2.3483;
390.0000;0.8368;2.3345;
390.3000;0.8376;2.3321;
390.6000;0.8352;2.3368;
390.9000;0.8384;2.3368;
391.2000;0.8409;2.3391;
391.5000;0.8327;2.3345;
391.8000;0.8360;2.3483;
392.1000;0.8384;2.3460;
392.4000;0.8376;2.3483;
392.7000;0.8376;2.3530;
393.0000;0.8360;2.3553;
393.3000;0.8368;2.3553;
393.6000;0.8335;2.3460;
393.9000;0.8352;2.3460;
394.2000;0.8368;2.3460;
394.5000;0.8376;2.3414;
394.8000;0.8392;2.3391;
395.1000;0.8360;2.3206;
395.4000;0.8384;2.3321;
395.7000;0.8376;2.3391;
396.0000;0.8384;2.3460;
396.3000;0.8368;2.3507;
396.6000;0.8352;2.3483;
396.9000;0.8368;2.3530;
397.2000;0.8376;2.3460;
397.5000;0.8368;2.3460;
397.8000;0.8360;2.3483;
398.1000;0.8368;2.3460;
398.4000;0.8376;2.3483;
398.7000;0.8360;2.3437;
399.0000;0.8400;2.3553;
399.3000;0.8376;2.3414;
399.6000;0.8368;2.3391;
399.9000;0.8384;2.3391;
400.2000;0.8360;2.3414;
400.5000;0.8368;2.3437;
400.8000;0.8368;2.3483;
401.1000;0.8384;2.3345;
401.4000;0.8360;2.3298;
401.7000;0.8360;2.3345;
402.0000;0.8409;2.3437;
402.3000;0.8352;2.3437;
402.6000;0.8335;2.3321;
402.9000;0.8376;2.3391;
403.2000;0.8368;2.3414;
403.5000;0.8368;2.3391;
403.8000;0.8384;2.3345;
404.1000;0.8384;2.3414;
404.4000;0.8392;2.3391;
404.7000;0.8376;2.3345;
405.0000;0.8376;2.3206;
405.3000;0.8376;2.3183;
405.6000;0.8376;2.3183;
405.9000;0.8368;2.3183;
406.2000;0.8368;2.3298;
406.5000;0.8360;2.3275;
406.8000;0.8376;2.3345;
407.1000;0.8352;2.3252;
407.4000;0.8360;2.3345;
407.7000;0.8376;2.3321;
408.0000;0.8360;2.3275;
408.3000;0.8376;2.3298;
408.6000;0.8400;2.3345;
408.9000;0.8360;2.3252;
409.2000;0.8376;2.3229;
409.5000;0.8368;2.3252;
409.8000;0.8376;2.3298;
410.1000;0.8384;2.3345;
410.4000;0.8384;2.3437;
410.7000;0.8327;2.3368;
411.0000;0.8376;2.3437;
411.3000;0.8376;2.3437;
411.6000;0.8400;2.3507;
411.9000;0.8400;2.3437;
412.2000;0.8368;2.3298;
412.5000;0.8335;2.3229;
412.8000;0.8417;2.3414;
413.1000;0.8384;2.3414;
413.4000;0.8376;2.3321;
413.7000;0.8311;2.3183;
414.0000;0.8376;2.3345;
414.3000;0.8368;2.3391;
414.6000;0.8376;2.3530;
414.9000;0.8376;2.3576;
415.2000;0.8368;2.3507;
415.5000;0.8376;2.3483;
415.8000;0.8376;2.3553;
416.1000;0.8360;2.3530;
416.4000;0.8360;2.3599;
416.7000;0.8360;2.3553;
417.0000;0.8498;2.3946;
417.3000;0.8360;2.3645;
417.6000;0.8360;2.3669;
417.9000;0.8384;2.3761;
418.2000;0.8409;2.3761;
418.5000;0.8360;2.3530;
418.8000;0.8335;2.3437;
419.1000;0.8368;2.3530;
419.4000;0.8368;2.3460;
419.7000;0.8376;2.3483;
420.0000;0.8384;2.3599;
420.3000;0.8376;2.3669;
420.6000;0.8409;2.3645;
420.9000;0.8360;2.3437;
421.2000;0.8400;2.3507;
421.5000;0.8368;2.3460;
421.8000;0.8360;2.3391;
422.1000;0.8344;2.3368;
422.4000;0.8368;2.3437;
422.7000;0.8360;2.3391;
423.0000;0.8352;2.3321;
423.3000;0.8376;2.3368;
423.6000;0.8360;2.3414;
423.9000;0.8352;2.3414;
424.2000;0.8376;2.3460;
424.5000;0.8311;2.3345;
424.8000;0.8360;2.3460;
425.1000;0.8368;2.3483;
425.4000;0.8376;2.3576;
425.7000;0.8384;2.3576;
426.0000;0.8352;2.3622;
426.3000;0.8360;2.3576;
426.6000;0.8352;2.3530;
426.9000;0.8368;2.3460;
427.2000;0.8360;2.3391;
427.5000;0.8441;2.3507;
427.8000;0.8368;2.3275;
428.1000;0.8368;2.3298;
428.4000;0.8368;2.3345;
428.7000;0.8352;2.3298;
429.0000;0.8352;2.3275;
429.3000;0.8360;2.3414;
429.6000;0.8360;2.3507;
429.9000;0.8368;2.3460;
430.2000;0.8392;2.3599;
430.5000;0.8368;2.3507;
430.8000;0.8368;2.3645;
431.1000;0.8344;2.3530;
431.4000;0.8417;2.3645;
431.7000;0.8409;2.3599;
432.0000;0.8376;2.3460;
432.3000;0.8474;2.3715;
432.6000;0.8335;2.3368;
432.9000;0.8376;2.3460;
433.2000;0.8368;2.3414;
433.5000;0.8392;2.3414;
433.8000;0.8482;2.3599;
434.1000;0.8392;2.3345;
434.4000;0.8392;2.3298;
434.7000;0.8392;2.3206;
435.0000;0.8376;2.3160;
435.3000;0.8392;2.3090;
435.6000;0.8392;2.3136;
435.9000;0.8360;2.3113;
436.2000;0.8384;2.3160;
436.5000;0.8417;2.3321;
436.8000;0.8376;2.3229;
437.1000;0.8368;2.3160;
437.4000;0.8368;2.3136;
437.7000;0.8352;2.3229;
438.0000;0.8368;2.3183;
438.3000;0.8368;2.3252;
438.6000;0.8392;2.3275;
438.9000;0.8360;2.3183;
439.2000;0.8360;2.3275;
439.5000;0.8360;2.3275;
439.8000;0.8376;2.3345;
440.1000;0.8360;2.3345;
440.4000;0.8360;2.3321;
440.7000;0.8311;2.3183;
441.0000;0.8327;2.3252;
441.3000;0.8344;2.3391;
441.6000;0.8368;2.3530;
441.9000;0.8352;2.3553;
442.2000;0.8376;2.3599;
442.5000;0.8352;2.3507;
442.8000;0.8368;2.3460;
443.1000;0.8360;2.3553;
443.4000;0.8360;2.3599;
443.7000;0.8368;2.3622;
444.0000;0.8368;2.3645;
444.3000;0.8384;2.3692;
444.6000;0.8409;2.3599;
444.9000;0.8384;2.3460;
445.2000;0.8392;2.3483;
445.5000;0.8384;2.3483;
445.8000;0.8384;2.3391;
446.1000;0.8376;2.3391;
446.4000;0.8360;2.3345;
446.7000;0.8376;2.3345;
447.0000;0.8400;2.3460;
447.3000;0.8384;2.3345;
447.6000;0.8327;2.3206;
447.9000;0.8360;2.3229;
448.2000;0.8352;2.3183;
448.5000;0.8384;2.3206;
448.8000;0.8368;2.3229;
449.1000;0.8344;2.3183;
449.4000;0.8352;2.3298;
449.7000;0.8376;2.3391;
450.0000;0.8368;2.3414;
450.3000;0.8360;2.3321;
450.6000;0.8376;2.3298;
450.9000;0.8319;2.3206;
451.2000;0.8368;2.3460;
451.5000;0.8352;2.3321;
451.8000;0.8360;2.3345;
452.1000;0.8344;2.3345;
452.4000;0.8368;2.3414;
452.7000;0.8376;2.3368;
453.0000;0.8344;2.3252;
453.3000;0.8392;2.3437;
453.6000;0.8376;2.3483;
453.9000;0.8400;2.3530;
454.2000;0.8376;2.3483;
454.5000;0.8384;2.3507;
454.8000;0.8498;2.3738;
455.1000;0.8400;2.3507;
455.4000;0.8376;2.3553;
455.7000;0.8392;2.3576;
456.0000;0.8384;2.3460;
456.3000;0.8384;2.3553;
456.6000;0.8368;2.3530;
456.9000;0.8368;2.3622;
457.2000;0.8392;2.3669;
457.5000;0.8376;2.3645;
457.8000;0.8360;2.3669;
458.1000;0.8392;2.3692;
458.4000;0.8376;2.3692;
458.7000;0.8376;2.3784;
459.0000;0.8392;2.3830;
459.3000;0.8368;2.3669;
459.6000;0.8376;2.3692;
459.9000;0.8344;2.3530;
460.2000;0.8368;2.3669;
460.5000;0.8376;2.3645;
460.8000;0.8368;2.3553;
461.1000;0.8384;2.3692;
461.4000;0.8376;2.3645;
461.7000;0.8376;2.3715;
462.0000;0.8352;2.3553;
462.3000;0.8360;2.3599;
462.6000;0.8360;2.3553;
462.9000;0.8425;2.3692;
463.2000;0.8319;2.3507;
463.5000;0.8376;2.3669;
463.8000;0.8278;2.3483;
464.1000;0.8474;2.3969;
464.4000;0.8352;2.3622;
464.7000;0.8360;2.3622;
465.0000;0.8368;2.3669;
465.3000;0.8368;2.3692;
465.6000;0.8360;2.3669;
465.9000;0.8360;2.3761;
466.2000;0.8278;2.3576;
466.5000;0.8376;2.3784;
466.8000;0.8368;2.3761;
467.1000;0.8384;2.3830;
467.4000;0.8376;2.3761;
467.7000;0.8368;2.3645;
468.0000;0.8368;2.3530;
468.3000;0.8368;2.3507;
468.6000;0.8368;2.3460;
468.9000;0.8368;2.3460;
469.2000;0.8368;2.3576;
469.5000;0.8352;2.3622;
469.8000;0.8360;2.3599;
470.1000;0.8335;2.3460;
470.4000;0.8392;2.3599;
470.7000;0.8376;2.3530;
471.0000;0.8376;2.3530;
471.3000;0.8384;2.3460;
471.6000;0.8441;2.3576;
471.9000;0.8376;2.3530;
472.2000;0.8368;2.3460;
472.5000;0.8344;2.3321;
472.8000;0.8368;2.3275;
473.1000;0.8360;2.3252;
473.4000;0.8376;2.3275;
473.7000;0.8384;2.3345;
474.0000;0.8384;2.3298;
474.3000;0.8319;2.3229;
474.6000;0.8360;2.3414;
474.9000;0.8344;2.3368;
475.2000;0.8360;2.3483;
475.5000;0.8376;2.3645;
475.8000;0.8352;2.3530;
476.1000;0.8352;2.3599;
476.4000;0.8376;2.3622;
476.7000;0.8376;2.3645;
477.0000;0.8368;2.3553;
477.3000;0.8457;2.3738;
477.6000;0.8368;2.3483;
477.9000;0.8368;2.3414;
478.2000;0.8311;2.3229;
478.5000;0.8376;2.3391;
478.8000;0.8384;2.3460;
479.1000;0.8376;2.3460;
479.4000;0.8376;2.3530;
479.7000;0.8376;2.3530;
480.0000;0.8376;2.3576;
480.3000;0.8384;2.3622;
480.6000;0.8376;2.3599;
480.9000;0.8368;2.3622;
481.2000;0.8344;2.3553;
481.5000;0.8392;2.3622;
481.8000;0.8392;2.3622;
482.1000;0.8392;2.3622;
482.4000;0.8376;2.3576;
482.7000;0.8384;2.3599;
483.0000;0.8368;2.3599;
483.3000;0.8384;2.3669;
483.6000;0.8319;2.3437;
483.9000;0.8303;2.3414;
484.2000;0.8352;2.3599;
484.5000;0.8360;2.3576;
484.8000;0.8278;2.3275;
485.1000;0.8392;2.3530;
485.4000;0.8352;2.3507;
485.7000;0.8409;2.3599;
486.0000;0.8303;2.3321;
486.3000;0.8409;2.3599;
486.6000;0.8368;2.3576;
486.9000;0.8523;2.3900;
487.2000;0.8352;2.3530;
487.5000;0.8376;2.3437;
487.8000;0.8457;2.3645;
488.1000;0.8482;2.3715;
488.4000;0.8376;2.3368;
488.7000;0.8352;2.3391;
489.0000;0.8352;2.3460;
489.3000;0.8344;2.3437;
489.6000;0.8376;2.3391;
489.9000;0.8384;2.3368;
490.2000;0.8327;2.3252;
490.5000;0.8368;2.3321;
490.8000;0.8352;2.3345;
491.1000;0.8376;2.3368;
491.4000;0.8360;2.3298;
491.7000;0.8384;2.3321;
492.0000;0.8384;2.3368;
492.3000;0.8368;2.3321;
492.6000;0.8400;2.3321;
492.9000;0.8360;2.3298;
493.2000;0.8417;2.3460;
493.5000;0.8376;2.3275;
493.8000;0.8352;2.3183;
494.1000;0.8327;2.3090;
494.4000;0.8360;2.3229;
494.7000;0.8368;2.3206;
495.0000;0.8368;2.3183;
495.3000;0.8368;2.3275;
495.6000;0.8384;2.3345;
495.9000;0.8400;2.3414;
496.2000;0.8376;2.3345;
496.5000;0.8376;2.3252;
496.8000;0.8344;2.3160;
497.1000;0.8319;2.3044;
497.4000;0.8384;2.3229;
497.7000;0.8368;2.3345;
498.0000;0.8368;2.3368;
498.3000;0.8368;2.3460;
498.6000;0.8352;2.3530;
498.9000;0.8376;2.3622;
499.2000;0.8368;2.3622;
499.5000;0.8368;2.3576;
499.8000;0.8368;2.3645;
500.1000;0.8376;2.3738;
500.4000;0.8360;2.3692;
500.7000;0.8360;2.3692;
501.0000;0.8376;2.3761;
501.3000;0.8368;2.3622;
501.6000;0.8384;2.3669;
501.9000;0.8368;2.3669;
502.2000;0.8278;2.3391;
502.5000;0.8490;2.3830;
502.8000;0.8360;2.3414;
503.1000;0.8376;2.3345;
503.4000;0.8360;2.3414;
503.7000;0.8409;2.3483;
504.0000;0.8360;2.3391;
504.3000;0.8384;2.3391;
504.6000;0.8384;2.3483;
504.9000;0.8384;2.3507;
505.2000;0.8376;2.3460;
505.5000;0.8360;2.3460;
505.8000;0.8352;2.3483;
506.1000;0.8392;2.3599;
506.4000;0.8360;2.3576;
506.7000;0.8384;2.3599;
507.0000;0.8360;2.3530;
507.3000;0.8392;2.3599;
507.6000;0.8368;2.3553;
507.9000;0.8368;2.3460;
508.2000;0.8360;2.3507;
508.5000;0.8368;2.3530;
508.8000;0.8425;2.3576;
509.1000;0.8376;2.3414;
509.4000;0.8376;2.3437;
509.7000;0.8368;2.3553;
510.0000;0.8368;2.3507;
510.3000;0.8376;2.3507;
510.6000;0.8376;2.3483;
510.9000;0.8433;2.3553;
511.2000;0.8360;2.3368;
511.5000;0.8360;2.3414;
511.8000;0.8376;2.3414;
512.1000;0.8441;2.3599;
512.4000;0.8368;2.3507;
512.7000;0.8360;2.3507;
513.0000;0.8384;2.3645;
513.3000;0.8368;2.3576;
513.6000;0.8368;2.3507;
513.9000;0.8384;2.3507;
514.2000;0.8360;2.3414;
514.5000;0.8344;2.3321;
514.8000;0.8368;2.3391;
515.1000;0.8368;2.3414;
515.4000;0.8352;2.3298;
515.7000;0.8368;2.3298;
516.0000;0.8352;2.3321;
516.3000;0.8360;2.3391;
516.6000;0.8376;2.3321;
516.9000;0.8352;2.3368;
517.2000;0.8376;2.3437;
517.5000;0.8376;2.3414;
517.8000;0.8384;2.3460;
518.1000;0.8360;2.3437;
518.4000;0.8376;2.3553;
518.7000;0.8368;2.3530;
519.0000;0.8384;2.3530;
519.3000;0.8368;2.3414;
519.6000;0.8425;2.3414;
519.9000;0.8376;2.3206;
520.2000;0.8352;2.3275;
520.5000;0.8360;2.3252;
520.8000;0.8352;2.3275;
521.1000;0.8360;2.3321;
521.4000;0.8368;2.3275;
521.7000;0.8360;2.3206;
522.0000;0.8368;2.3206;
522.3000;0.8376;2.3252;
522.6000;0.8376;2.3229;
522.9000;0.8360;2.3229;
523.2000;0.8360;2.3206;
523.5000;0.8360;2.3229;
523.8000;0.8319;2.3113;
524.1000;0.8376;2.3229;
524.4000;0.8368;2.3206;
524.7000;0.8368;2.3113;
525.0000;0.8360;2.3067;
525.3000;0.8360;2.3136;
525.6000;0.8384;2.3229;
525.9000;0.8360;2.3229;
526.2000;0.8344;2.3229;
526.5000;0.8417;2.3321;
526.8000;0.8384;2.3368;
527.1000;0.8368;2.3206;
527.4000;0.8360;2.3160;
527.7000;0.8335;2.3113;
528.0000;0.8368;2.3229;
528.3000;0.8376;2.3206;
528.6000;0.8417;2.3298;
528.9000;0.8376;2.3252;
529.2000;0.8384;2.3160;
529.5000;0.8392;2.3229;
529.8000;0.8368;2.3136;
530.1000;0.8368;2.3136;
530.4000;0.8376;2.3160;
530.7000;0.8360;2.3183;
531.0000;0.8368;2.3252;
531.3000;0.8368;2.3275;
531.6000;0.8360;2.3229;
531.9000;0.8376;2.3321;
532.2000;0.8360;2.3252;
532.5000;0.8368;2.3183;
532.8000;0.8400;2.3321;
533.1000;0.8352;2.3275;
533.4000;0.8376;2.3345;
533.7000;0.8376;2.3345;
534.0000;0.8368;2.3321;
534.3000;0.8368;2.3345;
534.6000;0.8352;2.3252;
534.9000;0.8352;2.3252;
535.2000;0.8376;2.3252;
535.5000;0.8368;2.3206;
535.8000;0.8441;2.3345;
536.1000;0.8368;2.3136;
536.4000;0.8360;2.3113;
536.7000;0.8352;2.3090;
537.0000;0.8368;2.3136;
537.3000;0.8360;2.3113;
537.6000;0.8352;2.3113;
537.9000;0.8360;2.3021;
538.2000;0.8376;2.3044;
538.5000;0.8335;2.3067;
538.8000;0.8368;2.3067;
539.1000;0.8376;2.3090;
539.4000;0.8368;2.3044;
539.7000;0.8360;2.3067;
540.0000;0.8417;2.3183;
540.3000;0.8352;2.3113;
540.6000;0.8327;2.3044;
540.9000;0.8360;2.3136;
541.2000;0.8352;2.3160;
541.5000;0.8352;2.3183;
541.8000;0.8352;2.3229;
542.1000;0.8352;2.3183;
542.4000;0.8360;2.3206;
542.7000;0.8360;2.3183;
543.0000;0.8433;2.3391;
543.3000;0.8368;2.3229;
543.6000;0.8433;2.3507;
543.9000;0.8360;2.3414;
544.2000;0.8352;2.3437;
544.5000;0.8376;2.3553;
544.8000;0.8360;2.3530;
545.1000;0.8352;2.3553;
545.4000;0.8352;2.3599;
545.7000;0.8368;2.3576;
546.0000;0.8344;2.3622;
546.3000;0.8352;2.3622;
546.6000;0.8327;2.3599;
546.9000;0.8344;2.3622;
547.2000;0.8360;2.3692;
547.5000;0.8352;2.3599;
547.8000;0.8400;2.3761;
548.1000;0.8368;2.3692;
548.4000;0.8376;2.3622;
548.7000;0.8344;2.3576;
549.0000;0.8360;2.3483;
549.3000;0.8441;2.3645;
549.6000;0.8392;2.3507;
549.9000;0.8368;2.3414;
550.2000;0.8360;2.3391;
550.5000;0.8376;2.3483;
550.8000;0.8368;2.3460;
551.1000;0.8384;2.3530;
551.4000;0.8392;2.3391;
551.7000;0.8368;2.3275;
552.0000;0.8360;2.3321;
552.3000;0.8368;2.3298;
552.6000;0.8360;2.3183;
552.9000;0.8368;2.3206;
553.2000;0.8384;2.3345;
553.5000;0.8376;2.3368;
553.8000;0.8368;2.3391;
554.1000;0.8384;2.3483;
554.4000;0.8360;2.3576;
554.7000;0.8360;2.3530;
555.0000;0.8360;2.3437;
555.3000;0.8360;2.3483;
555.6000;0.8360;2.3460;
555.9000;0.8376;2.3599;
556.2000;0.8368;2.3599;
556.5000;0.8360;2.3553;
556.8000;0.8344;2.3576;
557.1000;0.8360;2.3622;
557.4000;0.8360;2.3622;
557.7000;0.8360;2.3599;
558.0000;0.8490;2.3877;
558.3000;0.8352;2.3553;
558.6000;0.8360;2.3576;
558.9000;0.8327;2.3553;
559.2000;0.8392;2.3622;
559.5000;0.8360;2.3622;
559.8000;0.8352;2.3553;
560.1000;0.8482;2.3738;
560.4000;0.8368;2.3391;
560.7000;0.8360;2.3345;
561.0000;0.8368;2.3345;
561.3000;0.8376;2.3391;
561.6000;0.8384;2.3414;
561.9000;0.8409;2.3414;
562.2000;0.8384;2.3321;
562.5000;0.8409;2.3460;
562.8000;0.8368;2.3483;
563.1000;0.8360;2.3483;
563.4000;0.8295;2.3275;
563.7000;0.8376;2.3414;
564.0000;0.8352;2.3368;
564.3000;0.8344;2.3391;
564.6000;0.8327;2.3368;
564.9000;0.8360;2.3530;
565.2000;0.8352;2.3507;
565.5000;0.8368;2.3553;
565.8000;0.8360;2.3553;
566.1000;0.8368;2.3507;
566.4000;0.8368;2.3414;
566.7000;0.8352;2.3460;
567.0000;0.8368;2.3507;
567.3000;0.8368;2.3460;
567.6000;0.8335;2.3391;
567.9000;0.8287;2.3229;
568.2000;0.8344;2.3437;
568.5000;0.8368;2.3460;
568.8000;0.8417;2.3483;
569.1000;0.8360;2.3229;
569.4000;0.8352;2.3229;
569.7000;0.8360;2.3345;
570.0000;0.8360;2.3460;
570.3000;0.8368;2.3530;
570.6000;0.8360;2.3530;
570.9000;0.8368;2.3507;
571.2000;0.8384;2.3483;
571.5000;0.8360;2.3483;
571.8000;0.8368;2.3530;
572.1000;0.8352;2.3460;
572.4000;0.8360;2.3530;
572.7000;0.8352;2.3507;
573.0000;0.8352;2.3553;
573.3000;0.8335;2.3530;
573.6000;0.8360;2.3645;
573.9000;0.8400;2.3784;
574.2000;0.8368;2.3692;
574.5000;0.8319;2.3576;
574.8000;0.8368;2.3738;
575.1000;0.8376;2.3715;
575.4000;0.8474;2.3877;
575.7000;0.8360;2.3576;
576.0000;0.8344;2.3530;
576.3000;0.8344;2.3599;
576.6000;0.8368;2.3669;
576.9000;0.8384;2.3715;
577.2000;0.8352;2.3645;
577.5000;0.8360;2.3645;
577.8000;0.8368;2.3645;
578.1000;0.8360;2.3599;
578.4000;0.8360;2.3599;
578.7000;0.8384;2.3738;
579.0000;0.8352;2.3669;
579.3000;0.8360;2.3761;
579.6000;0.8376;2.3761;
579.9000;0.8368;2.3761;
580.2000;0.8352;2.3715;
580.5000;0.8360;2.3669;
580.8000;0.8368;2.3669;
581.1000;0.8360;2.3576;
581.4000;0.8360;2.3507;
581.7000;0.8360;2.3576;
582.0000;0.8360;2.3553;
582.3000;0.8368;2.3530;
582.6000;0.8376;2.3460;
582.9000;0.8376;2.3483;
583.2000;0.8368;2.3414;
583.5000;0.8360;2.3368;
583.8000;0.8360;2.3414;
584.1000;0.8376;2.3368;
584.4000;0.8368;2.3345;
584.7000;0.8360;2.3345;
585.0000;0.8417;2.3483;
585.3000;0.8384;2.3414;
585.6000;0.8360;2.3368;
585.9000;0.8400;2.3483;
586.2000;0.8344;2.3345;
586.5000;0.8376;2.3391;
586.8000;0.8360;2.3460;
587.1000;0.8376;2.3507;
587.4000;0.8368;2.3414;
587.7000;0.8384;2.3483;
588.0000;0.8409;2.3599;
588.3000;0.8368;2.3437;
588.6000;0.8352;2.3391;
588.9000;0.8376;2.3414;
589.2000;0.8392;2.3368;
589.5000;0.8319;2.3298;
589.8000;0.8335;2.3368;
590.1000;0.8376;2.3368;
590.4000;0.8360;2.3345;
590.7000;0.8352;2.3321;
591.0000;0.8311;2.3275;
591.3000;0.8335;2.3206;
591.6000;0.8433;2.3483;
591.9000;0.8400;2.3368;
592.2000;0.8352;2.3298;
592.5000;0.8368;2.3414;
592.8000;0.8352;2.3414;
593.1000;0.8376;2.3460;
593.4000;0.8384;2.3553;
593.7000;0.8392;2.3622;
594.0000;0.8368;2.3645;
594.3000;0.8368;2.3645;
594.6000;0.8417;2.3622;
594.9000;0.8352;2.3507;
595.2000;0.8392;2.3530;
595.5000;0.8376;2.3507;
595.8000;0.8441;2.3692;
596.1000;0.8376;2.3645;
596.4000;0.8368;2.3645;
596.7000;0.8368;2.3599;
597.0000;0.8287;2.3368;
597.3000;0.8441;2.3715;
597.6000;0.8352;2.3507;
597.9000;0.8474;2.3877;
598.2000;0.8360;2.3576;
598.5000;0.8311;2.3391;
598.8000;0.8368;2.3483;
599.1000;0.8441;2.3622;
599.4000;0.8360;2.3414;
599.7000;0.8376;2.3391;
600.0000;0.8466;2.3507;
600.3000;0.8384;2.3136;
600.6000;0.8433;2.3183;
600.9000;0.8433;2.3113;
601.2000;0.8400;2.2951;
601.5000;0.8344;2.2743;
601.8000;0.8295;2.2627;
602.1000;0.8246;2.2535;
602.4000;0.8221;2.2442;
602.7000;0.8156;2.2257;
603.0000;0.8140;2.2280;
603.3000;0.8099;2.2280;
603.6000;0.8026;2.2188;
603.9000;0.7993;2.2188;
604.2000;0.7969;2.2165;
604.5000;0.7904;2.2095;
604.8000;0.7880;2.2026;
605.1000;0.7823;2.1841;
605.4000;0.7798;2.1771;
605.7000;0.7766;2.1771;
606.0000;0.7741;2.1702;
606.3000;0.7684;2.1633;
606.6000;0.7652;2.1656;
606.9000;0.7652;2.1794;
607.2000;0.7603;2.1725;
607.5000;0.7578;2.1679;
607.8000;0.7578;2.1656;
608.1000;0.7643;2.1864;
608.4000;0.7505;2.1633;
608.7000;0.7505;2.1586;
609.0000;0.7473;2.1563;
609.3000;0.7407;2.1401;
609.6000;0.7416;2.1494;
609.9000;0.7399;2.1563;
610.2000;0.7383;2.1540;
610.5000;0.7334;2.1424;
610.8000;0.7359;2.1494;
611.1000;0.7399;2.1609;
611.4000;0.7245;2.1285;
611.7000;0.7253;2.1332;
612.0000;0.7228;2.1332;
612.3000;0.7212;2.1239;
612.6000;0.7147;2.1124;
612.9000;0.7228;2.1239;
613.2000;0.7155;2.1124;
613.5000;0.7147;2.1193;
613.8000;0.7123;2.1124;
614.1000;0.7114;2.1147;
614.4000;0.7066;2.1124;
614.7000;0.7090;2.1170;
615.0000;0.7066;2.1077;
615.3000;0.7049;2.1031;
615.6000;0.6992;2.1031;
615.9000;0.7009;2.1124;
616.2000;0.7000;2.1077;
616.5000;0.6992;2.1077;
616.8000;0.6878;2.0823;
617.1000;0.6960;2.0962;
617.4000;0.6935;2.0892;
617.7000;0.6895;2.0846;
618.0000;0.6919;2.0985;
618.3000;0.6886;2.1031;
618.6000;0.6903;2.1008;
618.9000;0.6903;2.1147;
619.2000;0.6854;2.1193;
619.5000;0.6854;2.1147;
619.8000;0.6829;2.1147;
620.1000;0.6805;2.1054;
620.4000;0.6821;2.1077;
620.7000;0.6797;2.1124;
621.0000;0.6789;2.1239;
621.3000;0.6854;2.1447;
621.6000;0.6756;2.1332;
621.9000;0.6756;2.1355;
622.2000;0.6724;2.1216;
622.5000;0.6716;2.1193;
622.8000;0.6724;2.1239;
623.1000;0.6707;2.1309;
623.4000;0.6707;2.1262;
623.7000;0.6707;2.1262;
624.0000;0.6675;2.1124;
624.3000;0.6650;2.0985;
624.6000;0.6618;2.0938;
624.9000;0.6683;2.1008;
625.2000;0.6650;2.0985;
625.5000;0.6618;2.0938;
625.8000;0.6602;2.0846;
626.1000;0.6593;2.0938;
626.4000;0.6593;2.1054;
626.7000;0.6577;2.0985;
627.0000;0.6561;2.1077;
627.3000;0.6569;2.1124;
627.6000;0.6577;2.1124;
627.9000;0.6569;2.1100;
628.2000;0.6545;2.1008;
628.5000;0.6520;2.0985;
628.8000;0.6512;2.0938;
629.1000;0.6528;2.0985;
629.4000;0.6504;2.0892;
629.7000;0.6512;2.1008;
630.0000;0.6512;2.1054;
630.3000;0.6471;2.1054;
630.6000;0.6488;2.1100;
630.9000;0.6463;2.1077;
631.2000;0.6439;2.1031;
631.5000;0.6455;2.1008;
631.8000;0.6488;2.1054;
632.1000;0.6504;2.1193;
632.4000;0.6431;2.0962;
632.7000;0.6431;2.0892;
633.0000;0.6431;2.0869;
633.3000;0.6414;2.0823;
633.6000;0.6406;2.0846;
633.9000;0.6422;2.0869;
634.2000;0.6374;2.0823;
634.5000;0.6374;2.0800;
634.8000;0.6382;2.0823;
635.1000;0.6357;2.0684;
635.4000;0.6365;2.0869;
635.7000;0.6341;2.0985;
636.0000;0.6341;2.0962;
636.3000;0.6341;2.0985;
636.6000;0.6325;2.1008;
636.9000;0.6325;2.0985;
637.2000;0.6341;2.1008;
637.5000;0.6317;2.0985;
637.8000;0.6398;2.1239;
638.1000;0.6317;2.1008;
638.4000;0.6292;2.1054;
638.7000;0.6260;2.1077;
639.0000;0.6284;2.1100;
639.3000;0.6260;2.1077;
639.6000;0.6268;2.1216;
639.9000;0.6268;2.1170;
640.2000;0.6276;2.1193;
640.5000;0.6260;2.1100;
640.8000;0.6211;2.0985;
641.1000;0.6211;2.1077;
641.4000;0.6260;2.1216;
641.7000;0.6203;2.1031;
642.0000;0.6162;2.0823;
642.3000;0.6121;2.0776;
642.6000;0.6211;2.1008;
642.9000;0.6195;2.0938;
643.2000;0.6219;2.1054;
643.5000;0.6227;2.1054;
643.8000;0.6195;2.0938;
644.1000;0.6195;2.0869;
644.4000;0.6178;2.0823;
644.7000;0.6178;2.0776;
645.0000;0.6162;2.0753;
645.3000;0.6154;2.0823;
645.6000;0.6154;2.0846;
645.9000;0.6154;2.0800;
646.2000;0.6162;2.0823;
646.5000;0.6129;2.0776;
646.8000;0.6170;2.0892;
647.1000;0.6146;2.0892;
647.4000;0.6138;2.0800;
647.7000;0.6146;2.0892;
648.0000;0.6138;2.0962;
648.3000;0.6129;2.0985;
648.6000;0.6113;2.0962;
648.9000;0.6105;2.0823;
649.2000;0.6113;2.0800;
649.5000;0.6138;2.0730;
649.8000;0.6105;2.0800;
650.1000;0.6081;2.0800;
650.4000;0.6105;2.0846;
650.7000;0.6081;2.0869;
651.0000;0.6081;2.0776;
651.3000;0.6072;2.0800;
651.6000;0.6072;2.0800;
651.9000;0.6089;2.0915;
652.2000;0.6097;2.0892;
652.5000;0.6081;2.0962;
652.8000;0.6072;2.1008;
653.1000;0.6056;2.1054;
653.4000;0.6072;2.0985;
653.7000;0.6048;2.0985;
654.0000;0.6040;2.0962;
654.3000;0.6040;2.0962;
654.6000;0.6048;2.0985;
654.9000;0.6024;2.0938;
655.2000;0.6024;2.0938;
655.5000;0.6024;2.1031;
655.8000;0.5991;2.0962;
656.1000;0.6015;2.1054;
656.4000;0.5999;2.1077;
656.7000;0.5991;2.1008;
657.0000;0.6007;2.0915;
657.3000;0.6007;2.0938;
657.6000;0.6097;2.1147;
657.9000;0.5991;2.0892;
658.2000;0.6007;2.0985;
658.5000;0.5991;2.0962;
658.8000;0.5991;2.0985;
659.1000;0.5999;2.1008;
659.4000;0.5999;2.0985;
659.7000;0.5975;2.0985;
660.0000;0.5983;2.1031;
660.3000;0.5975;2.1077;
660.6000;0.5942;2.0985;
660.9000;0.5975;2.1054;
661.2000;0.5983;2.1054;
661.5000;0.5975;2.0938;
661.8000;0.5877;2.0823;
662.1000;0.5967;2.1077;
662.4000;0.5950;2.0985;
662.7000;0.5853;2.0776;
663.0000;0.5934;2.0915;
663.3000;0.5942;2.0938;
663.6000;0.5958;2.1054;
663.9000;0.5934;2.0985;
664.2000;0.5983;2.1124;
664.5000;0.5926;2.1008;
664.8000;0.5918;2.1008;
665.1000;0.5950;2.1054;
665.4000;0.5934;2.0962;
665.7000;0.5934;2.0985;
666.0000;0.5918;2.1008;
666.3000;0.5910;2.0938;
666.6000;0.5902;2.0938;
666.9000;0.5820;2.0776;
667.2000;0.5885;2.0915;
667.5000;0.5885;2.0938;
667.8000;0.5893;2.0985;
668.1000;0.5893;2.1008;
668.4000;0.5958;2.1193;
668.7000;0.5902;2.0985;
669.0000;0.5885;2.0985;
669.3000;0.5869;2.0962;
669.6000;0.5853;2.0915;
669.9000;0.5885;2.1100;
670.2000;0.5918;2.1124;
670.5000;0.5967;2.1239;
670.8000;0.5861;2.0985;
671.1000;0.5893;2.1008;
671.4000;0.5885;2.0985;
671.7000;0.5853;2.1031;
672.0000;0.5877;2.1054;
672.3000;0.5869;2.1054;
672.6000;0.5845;2.0962;
672.9000;0.5853;2.0915;
673.2000;0.5853;2.0869;
673.5000;0.5853;2.0823;
673.8000;0.5861;2.0800;
674.1000;0.5861;2.0776;
674.4000;0.5869;2.0846;
674.7000;0.5845;2.0823;
675.0000;0.5861;2.0915;
675.3000;0.5836;2.0962;
675.6000;0.5853;2.1008;
675.9000;0.5836;2.0985;
676.2000;0.5828;2.0962;
676.5000;0.5853;2.0915;
676.8000;0.5828;2.0869;
677.1000;0.5812;2.0823;
677.4000;0.5820;2.0800;
677.7000;0.5845;2.0800;
678.0000;0.5836;2.0707;
678.3000;0.5836;2.0615;
678.6000;0.5820;2.0661;
678.9000;0.5885;2.0823;
679.2000;0.5812;2.0776;
679.5000;0.5804;2.0846;
679.8000;0.5804;2.0800;
680.1000;0.5739;2.0638;
680.4000;0.5804;2.0753;
680.7000;0.5804;2.0753;
681.0000;0.5812;2.0823;
681.3000;0.5796;2.0753;
681.6000;0.5869;2.0915;
681.9000;0.5771;2.0800;
682.2000;0.5788;2.0846;
682.5000;0.5836;2.0846;
682.8000;0.5779;2.0661;
683.1000;0.5836;2.0800;
683.4000;0.5714;2.0499;
683.7000;0.5779;2.0615;
684.0000;0.5763;2.0499;
684.3000;0.5804;2.0591;
684.6000;0.5747;2.0545;
684.9000;0.5755;2.0615;
685.2000;0.5779;2.0707;
685.5000;0.5771;2.0730;
685.8000;0.5828;2.1008;
686.1000;0.5771;2.0962;
686.4000;0.5771;2.0985;
686.7000;0.5755;2.1031;
687.0000;0.5763;2.1077;
687.3000;0.5747;2.0985;
687.6000;0.5747;2.0962;
687.9000;0.5755;2.0915;
688.2000;0.5747;2.0892;
688.5000;0.5739;2.0892;
688.8000;0.5739;2.0869;
689.1000;0.5763;2.0892;
689.4000;0.5739;2.0892;
689.7000;0.5747;2.0892;
690.0000;0.5739;2.0823;
690.3000;0.5747;2.0869;
690.6000;0.5779;2.0869;
690.9000;0.5771;2.0869;
691.2000;0.5763;2.0915;
691.5000;0.5739;2.0823;
691.8000;0.5722;2.0730;
692.1000;0.5714;2.0615;
692.4000;0.5714;2.0661;
692.7000;0.5739;2.0730;
693.0000;0.5731;2.0776;
693.3000;0.5698;2.0776;
693.6000;0.5722;2.0892;
693.9000;0.5722;2.0846;
694.2000;0.5722;2.0869;
694.5000;0.5739;2.0892;
694.8000;0.5731;2.0776;
695.1000;0.5788;2.0938;
695.4000;0.5714;2.0753;
695.7000;0.5731;2.0684;
696.0000;0.5722;2.0776;
696.3000;0.5731;2.0800;
696.6000;0.5706;2.0753;
696.9000;0.5698;2.0800;
697.2000;0.5698;2.0869;
697.5000;0.5698;2.0892;
697.8000;0.5690;2.0846;
698.1000;0.5682;2.0846;
698.4000;0.5690;2.0938;
698.7000;0.5706;2.0869;
699.0000;0.5706;2.0776;
699.3000;0.5722;2.0823;
699.6000;0.5698;2.0892;
699.9000;0.5690;2.0915;
700.2000;0.5682;2.0915;
700.5000;0.5690;2.0869;
700.8000;0.5690;2.0846;
701.1000;0.5690;2.0776;
701.4000;0.5665;2.0684;
701.7000;0.5690;2.0776;
702.0000;0.5706;2.0846;
702.3000;0.5665;2.0800;
702.6000;0.5682;2.0869;
702.9000;0.5674;2.0823;
703.2000;0.5682;2.0776;
703.5000;0.5657;2.0776;
703.8000;0.5657;2.0823;
704.1000;0.5568;2.0707;
704.4000;0.5714;2.1031;
704.7000;0.5674;2.0915;
705.0000;0.5657;2.0915;
705.3000;0.5665;2.0938;
705.6000;0.5665;2.0938;
705.9000;0.5641;2.0915;
706.2000;0.5641;2.0915;
706.5000;0.5576;2.0753;
706.8000;0.5779;2.1285;
707.1000;0.5641;2.1054;
707.4000;0.5649;2.1100;
707.7000;0.5641;2.1100;
708.0000;0.5641;2.0985;
708.3000;0.5674;2.0962;
708.6000;0.5690;2.0962;
708.9000;0.5633;2.0915;
709.2000;0.5649;2.0962;
709.5000;0.5665;2.0869;
709.8000;0.5722;2.1100;
710.1000;0.5641;2.0938;
710.4000;0.5665;2.0962;
710.7000;0.5657;2.0938;
711.0000;0.5641;2.0892;
711.3000;0.5657;2.0892;
711.6000;0.5633;2.0776;
711.9000;0.5625;2.0638;
712.2000;0.5665;2.0846;
712.5000;0.5657;2.0846;
712.8000;0.5633;2.0730;
713.1000;0.5625;2.0707;
713.4000;0.5682;2.0915;
713.7000;0.5617;2.0823;
714.0000;0.5600;2.0869;
714.3000;0.5649;2.1031;
714.6000;0.5633;2.1077;
714.9000;0.5641;2.1031;
715.2000;0.5682;2.1170;
715.5000;0.5600;2.0962;
715.8000;0.5600;2.0938;
716.1000;0.5633;2.1054;
716.4000;0.5625;2.1031;
716.7000;0.5600;2.0962;
717.0000;0.5633;2.1054;
717.3000;0.5625;2.1054;
717.6000;0.5600;2.1031;
717.9000;0.5625;2.1147;
718.2000;0.5608;2.1031;
718.5000;0.5617;2.1031;
718.8000;0.5608;2.1031;
719.1000;0.5608;2.1170;
719.4000;0.5617;2.1054;
719.7000;0.5551;2.0915;
720.0000;0.5592;2.1031;
720.3000;0.5641;2.1100;
720.6000;0.5633;2.1077;
720.9000;0.5600;2.0985;
721.2000;0.5584;2.0938;
721.5000;0.5617;2.0938;
721.8000;0.5600;2.0938;
722.1000;0.5608;2.1008;
722.4000;0.5617;2.1008;
722.7000;0.5608;2.0985;
723.0000;0.5617;2.0938;
723.3000;0.5608;2.0892;
723.6000;0.5625;2.0962;
723.9000;0.5625;2.1008;
724.2000;0.5649;2.1124;
724.5000;0.5600;2.1008;
724.8000;0.5633;2.1100;
725.1000;0.5584;2.1031;
725.4000;0.5625;2.1124;
725.7000;0.5600;2.0985;
726.0000;0.5682;2.1170;
726.3000;0.5560;2.0915;
726.6000;0.5576;2.0985;
726.9000;0.5617;2.1077;
727.2000;0.5617;2.1077;
727.5000;0.5600;2.1054;
727.8000;0.5592;2.1031;
728.1000;0.5617;2.1100;
728.4000;0.5674;2.1262;
728.7000;0.5592;2.0985;
729.0000;0.5560;2.0938;
729.3000;0.5478;2.0753;
729.6000;0.5584;2.1008;
729.9000;0.5600;2.1077;
730.2000;0.5592;2.1008;
730.5000;0.5576;2.0938;
730.8000;0.5568;2.0915;
731.1000;0.5592;2.1031;
731.4000;0.5584;2.0846;
731.7000;0.5568;2.0730;
732.0000;0.5592;2.0753;
732.3000;0.5568;2.0638;
732.6000;0.5568;2.0707;
732.9000;0.5584;2.0823;
733.2000;0.5568;2.0846;
733.5000;0.5535;2.0823;
733.8000;0.5592;2.0962;
734.1000;0.5535;2.0869;
734.4000;0.5568;2.0915;
734.7000;0.5592;2.0846;
735.0000;0.5576;2.0869;
735.3000;0.5551;2.0892;
735.6000;0.5576;2.0915;
735.9000;0.5527;2.0915;
736.2000;0.5584;2.0962;
736.5000;0.5560;2.1031;
736.8000;0.5584;2.1077;
737.1000;0.5576;2.1008;
737.4000;0.5576;2.1054;
737.7000;0.5600;2.1147;
738.0000;0.5543;2.0985;
738.3000;0.5649;2.1239;
738.6000;0.5560;2.0962;
738.9000;0.5576;2.0938;
739.2000;0.5633;2.1077;
739.5000;0.5543;2.0846;
739.8000;0.5560;2.0915;
740.1000;0.5560;2.0962;
740.4000;0.5568;2.0985;
740.7000;0.5543;2.0869;
741.0000;0.5551;2.0823;
741.3000;0.5543;2.0823;
741.6000;0.5568;2.0915;
741.9000;0.5560;2.0915;
742.2000;0.5551;2.0915;
742.5000;0.5576;2.1031;
742.8000;0.5568;2.0985;
743.1000;0.5551;2.1008;
743.4000;0.5576;2.1054;
743.7000;0.5551;2.1054;
744.0000;0.5568;2.1100;
744.3000;0.5568;2.1100;
744.6000;0.5568;2.1054;
744.9000;0.5608;2.1124;
745.2000;0.5543;2.0985;
745.5000;0.5551;2.1054;
745.8000;0.5543;2.1031;
746.1000;0.5543;2.1008;
746.4000;0.5551;2.0985;
746.7000;0.5543;2.0985;
747.0000;0.5568;2.1031;
747.3000;0.5551;2.1077;
747.6000;0.5568;2.1147;
747.9000;0.5560;2.1100;
748.2000;0.5543;2.1077;
748.5000;0.5551;2.1100;
748.8000;0.5543;2.1124;
749.1000;0.5576;2.1170;
749.4000;0.5551;2.1077;
749.7000;0.5503;2.1008;
750.0000;0.5503;2.1054;
750.3000;0.5543;2.1124;
750.6000;0.5527;2.1054;
750.9000;0.5495;2.0962;
751.2000;0.5511;2.0915;
751.5000;0.5657;2.1170;
751.8000;0.5551;2.0938;
752.1000;0.5454;2.0776;
752.4000;0.5527;2.0892;
752.7000;0.5535;2.0823;
753.0000;0.5543;2.0846;
753.3000;0.5551;2.0869;
753.6000;0.5519;2.0892;
753.9000;0.5535;2.0892;
754.2000;0.5560;2.0869;
754.5000;0.5551;2.0846;
754.8000;0.5527;2.0869;
755.1000;0.5438;2.0730;
755.4000;0.5535;2.0938;
755.7000;0.5535;2.0800;
756.0000;0.5543;2.0800;
756.3000;0.5535;2.0776;
756.6000;0.5535;2.0823;
756.9000;0.5535;2.0869;
757.2000;0.5486;2.0730;
757.5000;0.5519;2.0892;
757.8000;0.5527;2.0985;
758.1000;0.5543;2.1054;
758.4000;0.5527;2.0962;
758.7000;0.5543;2.0892;
759.0000;0.5527;2.0915;
759.3000;0.5527;2.0892;
759.6000;0.5535;2.0938;
759.9000;0.5511;2.0823;
760.2000;0.5454;2.0776;
760.5000;0.5527;2.0892;
760.8000;0.5462;2.0684;
761.1000;0.5527;2.0869;
761.4000;0.5519;2.0846;
761.7000;0.5584;2.1031;
762.0000;0.5503;2.0800;
762.3000;0.5535;2.0846;
762.6000;0.5495;2.0776;
762.9000;0.5535;2.0938;
763.2000;0.5535;2.0962;
763.5000;0.5503;2.0985;
763.8000;0.5519;2.0962;
764.1000;0.5503;2.0938;
764.4000;0.5503;2.1008;
764.7000;0.5527;2.1054;
765.0000;0.5519;2.0985;
765.3000;0.5495;2.0892;
765.6000;0.5486;2.0753;
765.9000;0.5519;2.0823;
766.2000;0.5527;2.0892;
766.5000;0.5503;2.0846;
766.8000;0.5535;2.1008;
767.1000;0.5519;2.1077;
767.4000;0.5527;2.1100;
767.7000;0.5519;2.1170;
768.0000;0.5511;2.1147;
768.3000;0.5503;2.1124;
768.6000;0.5527;2.1193;
768.9000;0.5511;2.1170;
769.2000;0.5495;2.1077;
769.5000;0.5519;2.1100;
769.8000;0.5519;2.1239;
770.1000;0.5535;2.1285;
770.4000;0.5511;2.1170;
770.7000;0.5527;2.1147;
771.0000;0.5503;2.1008;
771.3000;0.5503;2.0985;
771.6000;0.5486;2.1008;
771.9000;0.5495;2.1100;
772.2000;0.5551;2.1193;
772.5000;0.5486;2.1077;
772.8000;0.5503;2.1077;
773.1000;0.5478;2.1077;
773.4000;0.5503;2.1216;
773.7000;0.5511;2.1239;
774.0000;0.5519;2.1239;
774.3000;0.5503;2.1262;
774.6000;0.5478;2.1170;
774.9000;0.5511;2.1170;
775.2000;0.5503;2.1239;
775.5000;0.5438;2.1147;
775.8000;0.5495;2.1239;
776.1000;0.5519;2.1216;
776.4000;0.5421;2.1124;
776.7000;0.5511;2.1193;
777.0000;0.5503;2.1100;
777.3000;0.5519;2.1054;
777.6000;0.5519;2.0962;
777.9000;0.5470;2.0846;
778.2000;0.5486;2.0869;
778.5000;0.5429;2.0707;
778.8000;0.5519;2.0962;
779.1000;0.5511;2.1100;
779.4000;0.5519;2.1193;
779.7000;0.5511;2.1216;
780.0000;0.5511;2.1147;
780.3000;0.5495;2.1100;
780.6000;0.5478;2.1054;
780.9000;0.5495;2.1054;
781.2000;0.5503;2.1147;
781.5000;0.5495;2.1285;
781.8000;0.5535;2.1285;
782.1000;0.5478;2.1193;
782.4000;0.5503;2.1193;
782.7000;0.5495;2.1147;
783.0000;0.5495;2.1147;
783.3000;0.5470;2.1031;
783.6000;0.5486;2.1100;
783.9000;0.5495;2.1100;
784.2000;0.5503;2.1100;
784.5000;0.5495;2.1031;
784.8000;0.5486;2.1008;
785.1000;0.5511;2.0985;
785.4000;0.5478;2.0846;
785.7000;0.5478;2.0800;
786.0000;0.5486;2.0823;
786.3000;0.5470;2.0846;
786.6000;0.5470;2.0915;
786.9000;0.5486;2.0962;
787.2000;0.5478;2.0869;
787.5000;0.5486;2.0962;
787.8000;0.5478;2.1031;
788.1000;0.5470;2.1054;
788.4000;0.5495;2.1054;
788.7000;0.5511;2.0985;
789.0000;0.5478;2.0892;
789.3000;0.5470;2.0869;
789.6000;0.5470;2.0938;
789.9000;0.5478;2.1054;
790.2000;0.5486;2.1170;
790.5000;0.5495;2.1216;
790.8000;0.5438;2.0985;
791.1000;0.5503;2.1147;
791.4000;0.5503;2.1193;
791.7000;0.5503;2.1239;
792.0000;0.5486;2.1193;
792.3000;0.5486;2.1239;
792.6000;0.5470;2.1262;
792.9000;0.5478;2.1309;
793.2000;0.5486;2.1309;
793.5000;0.5478;2.1332;
793.8000;0.5600;2.1586;
794.1000;0.5503;2.1239;
794.4000;0.5486;2.1216;
794.7000;0.5511;2.1262;
795.0000;0.5495;2.1193;
795.3000;0.5503;2.1378;
795.6000;0.5511;2.1309;
795.9000;0.5470;2.1100;
796.2000;0.5454;2.1147;
796.5000;0.5470;2.1193;
796.8000;0.5470;2.1147;
797.1000;0.5462;2.1100;
797.4000;0.5446;2.1147;
797.7000;0.5462;2.1147;
798.0000;0.5470;2.1100;
798.3000;0.5478;2.1124;
798.6000;0.5495;2.1216;
798.9000;0.5486;2.1193;
799.2000;0.5438;2.1100;
799.5000;0.5462;2.1054;
799.8000;0.5446;2.1031;
800.1000;0.5560;2.1332;
800.4000;0.5438;2.1054;
800.7000;0.5478;2.1216;
801.0000;0.5462;2.1239;
801.3000;0.5454;2.1147;
801.6000;0.5405;2.0985;
801.9000;0.5470;2.1193;
802.2000;0.5462;2.1262;
802.5000;0.5462;2.1239;
802.8000;0.5470;2.1309;
803.1000;0.5486;2.1401;
803.4000;0.5543;2.1471;
803.7000;0.5470;2.1193;
804.0000;0.5478;2.1285;
804.3000;0.5470;2.1262;
804.6000;0.5478;2.1193;
804.9000;0.5478;2.1100;
805.2000;0.5421;2.0892;
805.5000;0.5470;2.1077;
805.8000;0.5470;2.1216;
806.1000;0.5470;2.1332;
806.4000;0.5462;2.1309;
806.7000;0.5405;2.1170;
807.0000;0.5462;2.1262;
807.3000;0.5454;2.1193;
807.6000;0.5486;2.1285;
807.9000;0.5462;2.1309;
808.2000;0.5438;2.1332;
808.5000;0.5429;2.1262;
808.8000;0.5478;2.1262;
809.1000;0.5446;2.1332;
809.4000;0.5470;2.1401;
809.7000;0.5462;2.1355;
810.0000;0.5462;2.1309;
810.3000;0.5429;2.1170;
810.6000;0.5478;2.1285;
810.9000;0.5454;2.1239;
811.2000;0.5372;2.1077;
811.5000;0.5503;2.1494;
811.8000;0.5446;2.1262;
812.1000;0.5389;2.1077;
812.4000;0.5446;2.1193;
812.7000;0.5486;2.1216;
813.0000;0.5511;2.1216;
813.3000;0.5462;2.1054;
813.6000;0.5462;2.1124;
813.9000;0.5429;2.1054;
814.2000;0.5462;2.1239;
814.5000;0.5478;2.1355;
814.8000;0.5478;2.1285;
815.1000;0.5511;2.1332;
815.4000;0.5462;2.1147;
815.7000;0.5454;2.1077;
816.0000;0.5381;2.0846;
816.3000;0.5462;2.1054;
816.6000;0.5462;2.1054;
816.9000;0.5462;2.1031;
817.2000;0.5438;2.1054;
817.5000;0.5429;2.1054;
817.8000;0.5446;2.1193;
818.1000;0.5462;2.1170;
818.4000;0.5429;2.1193;
818.7000;0.5470;2.1285;
819.0000;0.5454;2.1147;
819.3000;0.5446;2.1054;
819.6000;0.5470;2.1124;
819.9000;0.5470;2.1216;
820.2000;0.5446;2.1193;
820.5000;0.5454;2.1193;
820.8000;0.5470;2.1193;
821.1000;0.5462;2.1147;
821.4000;0.5438;2.1054;
821.7000;0.5470;2.1124;
822.0000;0.5446;2.0962;
822.3000;0.5454;2.0985;
822.6000;0.5454;2.1031;
822.9000;0.5454;2.1077;
823.2000;0.5470;2.1193;
823.5000;0.5397;2.0985;
823.8000;0.5454;2.1170;
824.1000;0.5462;2.1100;
824.4000;0.5462;2.1031;
824.7000;0.5470;2.1077;
825.0000;0.5446;2.1100;
825.3000;0.5446;2.1170;
825.6000;0.5454;2.1124;
825.9000;0.5462;2.1100;
826.2000;0.5478;2.1100;
826.5000;0.5421;2.0938;
826.8000;0.5446;2.1008;
827.1000;0.5446;2.1100;
827.4000;0.5478;2.1216;
827.7000;0.5364;2.0985;
828.0000;0.5454;2.1285;
828.3000;0.5446;2.1355;
828.6000;0.5470;2.1517;
828.9000;0.5446;2.1563;
829.2000;0.5446;2.1494;
829.5000;0.5454;2.1378;
829.8000;0.5478;2.1332;
830.1000;0.5397;2.1147;
830.4000;0.5446;2.1309;
830.7000;0.5438;2.1285;
831.0000;0.5421;2.1124;
831.3000;0.5405;2.1170;
831.6000;0.5470;2.1309;
831.9000;0.5495;2.1401;
832.2000;0.5446;2.1378;
832.5000;0.5429;2.1193;
832.8000;0.5429;2.1170;
833.1000;0.5421;2.1170;
833.4000;0.5438;2.1100;
833.7000;0.5413;2.0938;
834.0000;0.5446;2.1008;
834.3000;0.5446;2.1077;
834.6000;0.5462;2.1147;
834.9000;0.5413;2.1100;
835.2000;0.5519;2.1285;
835.5000;0.5429;2.1077;
835.8000;0.5438;2.1054;
836.1000;0.5429;2.0962;
836.4000;0.5446;2.1100;
836.7000;0.5429;2.1124;
837.0000;0.5438;2.1355;
837.3000;0.5454;2.1332;
837.6000;0.5421;2.1216;
837.9000;0.5495;2.1309;
838.2000;0.5446;2.1147;
838.5000;0.5446;2.1008;
838.8000;0.5397;2.0892;
839.1000;0.5405;2.0985;
839.4000;0.5438;2.1077;
839.7000;0.5454;2.1077;
840.0000;0.5438;2.1100;
840.3000;0.5446;2.1031;
840.6000;0.5446;2.1008;
840.9000;0.5438;2.1008;
841.2000;0.5454;2.1054;
841.5000;0.5446;2.1077;
841.8000;0.5421;2.0985;
842.1000;0.5462;2.1100;
842.4000;0.5454;2.1239;
842.7000;0.5438;2.1216;
843.0000;0.5438;2.1262;
843.3000;0.5446;2.1285;
843.6000;0.5438;2.1216;
843.9000;0.5462;2.1262;
844.2000;0.5429;2.1170;
844.5000;0.5446;2.1170;
844.8000;0.5446;2.1124;
845.1000;0.5511;2.1193;
845.4000;0.5446;2.1054;
845.7000;0.5438;2.1054;
846.0000;0.5429;2.1100;
846.3000;0.5397;2.1054;
846.6000;0.5462;2.1124;
846.9000;0.5454;2.1147;
847.2000;0.5446;2.1100;
847.5000;0.5495;2.1239;
847.8000;0.5429;2.1170;
848.1000;0.5429;2.1193;
848.4000;0.5405;2.1147;
848.7000;0.5389;2.1008;
849.0000;0.5438;2.1124;
849.3000;0.5462;2.1077;
849.6000;0.5405;2.1008;
849.9000;0.5429;2.1147;
850.2000;0.5462;2.1193;
850.5000;0.5438;2.1170;
850.8000;0.5340;2.0938;
851.1000;0.5429;2.1077;
851.4000;0.5405;2.1124;
851.7000;0.5503;2.1378;
852.0000;0.5446;2.1239;
852.3000;0.5405;2.1054;
852.6000;0.5438;2.1031;
852.9000;0.5421;2.0962;
853.2000;0.5389;2.0938;
853.5000;0.5438;2.1008;
853.8000;0.5429;2.0962;
854.1000;0.5429;2.0985;
854.4000;0.5495;2.1170;
854.7000;0.5421;2.1077;
855.0000;0.5405;2.0985;
855.3000;0.5446;2.1054;
855.6000;0.5438;2.1031;
855.9000;0.5438;2.1031;
856.2000;0.5495;2.1216;
856.5000;0.5372;2.1008;
856.8000;0.5413;2.1193;
857.1000;0.5429;2.1147;
857.4000;0.5454;2.1239;
857.7000;0.5429;2.1262;
858.0000;0.5454;2.1309;
858.3000;0.5421;2.1100;
858.6000;0.5413;2.1008;
858.9000;0.5438;2.1054;
859.2000;0.5438;2.1100;
859.5000;0.5421;2.1124;
859.8000;0.5421;2.1124;
860.1000;0.5413;2.1170;
860.4000;0.5438;2.1193;
860.7000;0.5421;2.1147;
861.0000;0.5429;2.1216;
861.3000;0.5446;2.1378;
861.6000;0.5446;2.1447;
861.9000;0.5446;2.1494;
862.2000;0.5389;2.1309;
862.5000;0.5413;2.1401;
862.8000;0.5421;2.1309;
863.1000;0.5421;2.1193;
863.4000;0.5429;2.1285;
863.7000;0.5438;2.1239;
864.0000;0.5397;2.1170;
864.3000;0.5413;2.1170;
864.6000;0.5421;2.1239;
864.9000;0.5429;2.1355;
865.2000;0.5421;2.1424;
865.5000;0.5413;2.1309;
865.8000;0.5438;2.1216;
866.1000;0.5438;2.1262;
866.4000;0.5421;2.1262;
866.7000;0.5421;2.1239;
867.0000;0.5413;2.1170;
867.3000;0.5438;2.1216;
867.6000;0.5470;2.1193;
867.9000;0.5307;2.0800;
868.2000;0.5446;2.1216;
868.5000;0.5405;2.1054;
868.8000;0.5421;2.1124;
869.1000;0.5421;2.1216;
869.4000;0.5486;2.1401;
869.7000;0.5438;2.1193;
870.0000;0.5421;2.1124;
870.3000;0.5429;2.1124;
870.6000;0.5413;2.1077;
870.9000;0.5429;2.1147;
871.2000;0.5438;2.1216;
871.5000;0.5446;2.1285;
871.8000;0.5478;2.1285;
872.1000;0.5438;2.1170;
872.4000;0.5454;2.1147;
872.7000;0.5438;2.1170;
873.0000;0.5405;2.1124;
873.3000;0.5470;2.1285;
873.6000;0.5454;2.1193;
873.9000;0.5446;2.1170;
874.2000;0.5454;2.1170;
874.5000;0.5429;2.1124;
874.8000;0.5413;2.1100;
875.1000;0.5429;2.1100;
875.4000;0.5405;2.1031;
875.7000;0.5503;2.1239;
876.0000;0.5421;2.1124;
876.3000;0.5413;2.1077;
876.6000;0.5438;2.1239;
876.9000;0.5438;2.1239;
877.2000;0.5438;2.1332;
877.5000;0.5429;2.1332;
877.8000;0.5429;2.1262;
878.1000;0.5429;2.1332;
878.4000;0.5446;2.1378;
878.7000;0.5429;2.1332;
879.0000;0.5381;2.1193;
879.3000;0.5421;2.1309;
879.6000;0.5438;2.1309;
879.9000;0.5438;2.1262;
880.2000;0.5413;2.1124;
880.5000;0.5405;2.1031;
880.8000;0.5413;2.1077;
881.1000;0.5413;2.1100;
881.4000;0.5446;2.1147;
881.7000;0.5413;2.1147;
882.0000;0.5413;2.1193;
882.3000;0.5438;2.1193;
882.6000;0.5429;2.1216;
882.9000;0.5462;2.1262;
883.2000;0.5405;2.1193;
883.5000;0.5397;2.1170;
883.8000;0.5405;2.1147;
884.1000;0.5421;2.1239;
884.4000;0.5405;2.1100;
884.7000;0.5413;2.1054;
885.0000;0.5421;2.1124;
885.3000;0.5381;2.0985;
885.6000;0.5405;2.1031;
885.9000;0.5413;2.1077;
886.2000;0.5405;2.1031;
886.5000;0.5405;2.0985;
886.8000;0.5421;2.0915;
887.1000;0.5405;2.0892;
887.4000;0.5462;2.1008;
887.7000;0.5421;2.1008;
888.0000;0.5413;2.1008;
888.3000;0.5421;2.1077;
888.6000;0.5389;2.1054;
888.9000;0.5381;2.1170;
889.2000;0.5405;2.1193;
889.5000;0.5413;2.1285;
889.8000;0.5405;2.1239;
890.1000;0.5413;2.1262;
890.4000;0.5372;2.1124;
890.7000;0.5413;2.1170;
891.0000;0.5413;2.1239;
891.3000;0.5372;2.1147;
891.6000;0.5372;2.1262;
891.9000;0.5438;2.1424;
892.2000;0.5421;2.1332;
892.5000;0.5438;2.1355;
892.8000;0.5421;2.1262;
893.1000;0.5421;2.1170;
893.4000;0.5372;2.1100;
893.7000;0.5429;2.1285;
894.0000;0.5421;2.1239;
894.3000;0.5397;2.1239;
894.6000;0.5429;2.1193;
894.9000;0.5413;2.1170;
895.2000;0.5405;2.1124;
895.5000;0.5372;2.1054;
895.8000;0.5429;2.1147;
896.1000;0.5413;2.1054;
896.4000;0.5315;2.0823;
896.7000;0.5421;2.1216;
897.0000;0.5413;2.1170;
897.3000;0.5454;2.1216;
897.6000;0.5429;2.1147;
897.9000;0.5438;2.1285;
898.2000;0.5438;2.1424;
898.5000;0.5413;2.1285;
898.8000;0.5478;2.1447;
899.1000;0.5421;2.1378;
899.4000;0.5405;2.1378;
899.7000;0.5429;2.1332;
900.0000;0.5405;2.1147;
900.3000;0.5421;2.1309;
900.6000;0.5381;2.1216;
900.9000;0.5413;2.1193;
901.2000;0.5389;2.1077;
901.5000;0.5397;2.1124;
901.8000;0.5429;2.1193;
902.1000;0.5413;2.1285;
902.4000;0.5413;2.1193;
902.7000;0.5397;2.1216;
903.0000;0.5413;2.1309;
903.3000;0.5389;2.1309;
903.6000;0.5397;2.1309;
903.9000;0.5429;2.1447;
904.2000;0.5421;2.1494;
904.5000;0.5421;2.1401;
904.8000;0.5413;2.1355;
905.1000;0.5421;2.1355;
905.4000;0.5413;2.1332;
905.7000;0.5421;2.1239;
906.0000;0.5413;2.1309;
906.3000;0.5421;2.1332;
906.6000;0.5429;2.1193;
906.9000;0.5421;2.1054;
907.2000;0.5421;2.1031;
907.5000;0.5405;2.0869;
907.8000;0.5429;2.0823;
908.1000;0.5421;2.0823;
908.4000;0.5429;2.0823;
908.7000;0.5421;2.0938;
909.0000;0.5421;2.1031;
909.3000;0.5405;2.1008;
909.6000;0.5413;2.1147;
909.9000;0.5405;2.1170;
910.2000;0.5397;2.1100;
910.5000;0.5413;2.1216;
910.8000;0.5405;2.1124;
911.1000;0.5397;2.1031;
911.4000;0.5413;2.1054;
911.7000;0.5429;2.1031;
912.0000;0.5356;2.0915;
912.3000;0.5381;2.0962;
912.6000;0.5413;2.0938;
912.9000;0.5405;2.0892;
913.2000;0.5413;2.0938;
913.5000;0.5389;2.0985;
913.8000;0.5446;2.1077;
914.1000;0.5364;2.0915;
914.4000;0.5381;2.1031;
914.7000;0.5218;2.0615;
915.0000;0.5381;2.1054;
915.3000;0.5389;2.1193;
915.6000;0.5397;2.1193;
915.9000;0.5421;2.1285;
916.2000;0.5389;2.1216;
916.5000;0.5405;2.1031;
916.8000;0.5421;2.1124;
917.1000;0.5381;2.1054;
917.4000;0.5413;2.1077;
917.7000;0.5503;2.1239;
918.0000;0.5462;2.1124;
918.3000;0.5405;2.1008;
918.6000;0.5413;2.1008;
918.9000;0.5389;2.1031;
919.2000;0.5405;2.1170;
919.5000;0.5413;2.1239;
919.8000;0.5364;2.1054;
920.1000;0.5405;2.1147;
920.4000;0.5356;2.0985;
920.7000;0.5413;2.1216;
921.0000;0.5421;2.1216;
921.3000;0.5372;2.1100;
921.6000;0.5413;2.1216;
921.9000;0.5413;2.1285;
922.2000;0.5397;2.1193;
922.5000;0.5429;2.1285;
922.8000;0.5413;2.1285;
923.1000;0.5413;2.1239;
923.4000;0.5413;2.1216;
923.7000;0.5413;2.1239;
924.0000;0.5372;2.1124;
924.3000;0.5462;2.1355;
924.6000;0.5421;2.1309;
924.9000;0.5372;2.1193;
925.2000;0.5389;2.1285;
925.5000;0.5381;2.1309;
925.8000;0.5389;2.1378;
926.1000;0.5454;2.1494;
926.4000;0.5389;2.1309;
926.7000;0.5413;2.1309;
927.0000;0.5405;2.1262;
927.3000;0.5405;2.1262;
927.6000;0.5397;2.1262;
927.9000;0.5381;2.1193;
928.2000;0.5397;2.1193;
928.5000;0.5389;2.1147;
928.8000;0.5446;2.1309;
929.1000;0.5397;2.1262;
929.4000;0.5389;2.1285;
929.7000;0.5397;2.1332;
930.0000;0.5372;2.1285;
930.3000;0.5381;2.1309;
930.6000;0.5389;2.1193;
930.9000;0.5283;2.0823;
931.2000;0.5397;2.1124;
931.5000;0.5389;2.1100;
931.8000;0.5405;2.1031;
932.1000;0.5503;2.1193;
932.4000;0.5381;2.0938;
932.7000;0.5389;2.0869;
933.0000;0.5299;2.0661;
933.3000;0.5397;2.0938;
933.6000;0.5413;2.1031;
933.9000;0.5405;2.1077;
934.2000;0.5413;2.1193;
934.5000;0.5405;2.1262;
934.8000;0.5413;2.1355;
935.1000;0.5421;2.1378;
935.4000;0.5381;2.1216;
935.7000;0.5405;2.1216;
936.0000;0.5413;2.1147;
936.3000;0.5381;2.1054;
936.6000;0.5381;2.1031;
936.9000;0.5405;2.1008;
937.2000;0.5381;2.0985;
937.5000;0.5405;2.1100;
937.8000;0.5397;2.1147;
938.1000;0.5429;2.1309;
938.4000;0.5364;2.1170;
938.7000;0.5405;2.1170;
939.0000;0.5397;2.1031;
939.3000;0.5413;2.1054;
939.6000;0.5389;2.1008;
939.9000;0.5405;2.0985;
940.2000;0.5381;2.0869;
940.5000;0.5397;2.0892;
940.8000;0.5397;2.0869;
941.1000;0.5389;2.0892;
941.4000;0.5413;2.1031;
941.7000;0.5372;2.0938;
942.0000;0.5372;2.1031;
942.3000;0.5405;2.1100;
942.6000;0.5413;2.1008;
942.9000;0.5397;2.0869;
943.2000;0.5397;2.0938;
943.5000;0.5405;2.1008;
943.8000;0.5446;2.1077;
944.1000;0.5397;2.0962;
944.4000;0.5438;2.1077;
944.7000;0.5397;2.1008;
945.0000;0.5438;2.1008;
945.3000;0.5421;2.0869;
945.6000;0.5405;2.0800;
945.9000;0.5389;2.0869;
946.2000;0.5413;2.0915;
946.5000;0.5405;2.0869;
946.8000;0.5405;2.0869;
947.1000;0.5470;2.1054;
947.4000;0.5438;2.1124;
947.7000;0.5405;2.1124;
948.0000;0.5397;2.1147;
948.3000;0.5381;2.1124;
948.6000;0.5389;2.1124;
948.9000;0.5413;2.1147;
949.2000;0.5397;2.1147;
949.5000;0.5381;2.1124;
949.8000;0.5413;2.1216;
950.1000;0.5413;2.1077;
950.4000;0.5397;2.1008;
950.7000;0.5397;2.0938;
951.0000;0.5389;2.0915;
951.3000;0.5381;2.0915;
951.6000;0.5405;2.0962;
951.9000;0.5413;2.1008;
952.2000;0.5446;2.1147;
952.5000;0.5372;2.0915;
952.8000;0.5389;2.0938;
953.1000;0.5340;2.0776;
953.4000;0.5372;2.0846;
953.7000;0.5429;2.0985;
954.0000;0.5364;2.0869;
954.3000;0.5381;2.0938;
954.6000;0.5307;2.0800;
954.9000;0.5397;2.1054;
955.2000;0.5389;2.1100;
955.5000;0.5381;2.1100;
955.8000;0.5381;2.1170;
956.1000;0.5364;2.1124;
956.4000;0.5413;2.1193;
956.7000;0.5405;2.1124;
957.0000;0.5405;2.1100;
957.3000;0.5405;2.1100;
957.6000;0.5429;2.1216;
957.9000;0.5405;2.1193;
958.2000;0.5397;2.1170;
958.5000;0.5470;2.1332;
958.8000;0.5397;2.1124;
959.1000;0.5397;2.1054;
959.4000;0.5405;2.1008;
959.7000;0.5389;2.0985;
960.0000;0.5381;2.1008;
960.3000;0.5381;2.0869;
960.6000;0.5397;2.0869;
960.9000;0.5397;2.0915;
961.2000;0.5397;2.0938;
961.5000;0.5381;2.0892;
961.8000;0.5397;2.0892;
962.1000;0.5389;2.0915;
962.4000;0.5389;2.0869;
962.7000;0.5389;2.0800;
963.0000;0.5389;2.0869;
963.3000;0.5381;2.0800;
963.6000;0.5332;2.0707;
963.9000;0.5381;2.0846;
964.2000;0.5397;2.0985;
964.5000;0.5348;2.0915;
964.8000;0.5372;2.0938;
965.1000;0.5381;2.0915;
965.4000;0.5478;2.1170;
965.7000;0.5397;2.1054;
966.0000;0.5478;2.1332;
966.3000;0.5397;2.1170;
966.6000;0.5397;2.1239;
966.9000;0.5405;2.1309;
967.2000;0.5389;2.1239;
967.5000;0.5405;2.1193;
967.8000;0.5421;2.1216;
968.1000;0.5389;2.1193;
968.4000;0.5397;2.1170;
968.7000;0.5405;2.1170;
969.0000;0.5356;2.1077;
969.3000;0.5397;2.1147;
969.6000;0.5405;2.1170;
969.9000;0.5372;2.1193;
970.2000;0.5381;2.1216;
970.5000;0.5389;2.1239;
970.8000;0.5405;2.1285;
971.1000;0.5413;2.1216;
971.4000;0.5397;2.1170;
971.7000;0.5389;2.1124;
972.0000;0.5381;2.1100;
972.3000;0.5389;2.1077;
972.6000;0.5372;2.1054;
972.9000;0.5397;2.1170;
973.2000;0.5405;2.1170;
973.5000;0.5397;2.1216;
973.8000;0.5372;2.1216;
974.1000;0.5397;2.1239;
974.4000;0.5405;2.1309;
974.7000;0.5421;2.1378;
975.0000;0.5405;2.1285;
975.3000;0.5405;2.1170;
975.6000;0.5381;2.1193;
975.9000;0.5421;2.1309;
976.2000;0.5389;2.1239;
976.5000;0.5397;2.1332;
976.8000;0.5372;2.1262;
977.1000;0.5405;2.1401;
977.4000;0.5397;2.1424;
977.7000;0.5381;2.1401;
978.0000;0.5397;2.1378;
978.3000;0.5372;2.1309;
978.6000;0.5364;2.1355;
978.9000;0.5421;2.1378;
979.2000;0.5389;2.1285;
979.5000;0.5389;2.1355;
979.8000;0.5405;2.1378;
980.1000;0.5381;2.1401;
980.4000;0.5413;2.1471;
980.7000;0.5389;2.1378;
981.0000;0.5381;2.1424;
981.3000;0.5405;2.1517;
981.6000;0.5389;2.1447;
981.9000;0.5397;2.1378;
982.2000;0.5397;2.1401;
982.5000;0.5381;2.1355;
982.8000;0.5389;2.1378;
983.1000;0.5372;2.1309;
983.4000;0.5397;2.1309;
983.7000;0.5372;2.1239;
984.0000;0.5397;2.1216;
984.3000;0.5356;2.1100;
984.6000;0.5389;2.1077;
984.9000;0.5389;2.1124;
985.2000;0.5405;2.1239;
985.5000;0.5389;2.1262;
985.8000;0.5405;2.1309;
986.1000;0.5307;2.0938;
986.4000;0.5389;2.1170;
986.7000;0.5381;2.1170;
987.0000;0.5324;2.1147;
987.3000;0.5413;2.1378;
987.6000;0.5340;2.1262;
987.9000;0.5364;2.1332;
988.2000;0.5381;2.1309;
988.5000;0.5413;2.1285;
988.8000;0.5364;2.1170;
989.1000;0.5389;2.1285;
989.4000;0.5324;2.1170;
989.7000;0.5372;2.1355;
990.0000;0.5372;2.1355;
990.3000;0.5381;2.1401;
990.6000;0.5299;2.1100;
990.9000;0.5389;2.1216;
991.2000;0.5389;2.1216;
991.5000;0.5381;2.1193;
991.8000;0.5372;2.1124;
992.1000;0.5381;2.1124;
992.4000;0.5397;2.1100;
992.7000;0.5372;2.1170;
993.0000;0.5429;2.1332;
993.3000;0.5372;2.1147;
993.6000;0.5364;2.1100;
993.9000;0.5405;2.1239;
994.2000;0.5299;2.1100;
994.5000;0.5340;2.1193;
994.8000;0.5299;2.1100;
995.1000;0.5389;2.1355;
995.4000;0.5372;2.1309;
995.7000;0.5405;2.1355;
996.0000;0.5389;2.1216;
996.3000;0.5389;2.1239;
996.6000;0.5397;2.1077;
996.9000;0.5381;2.1031;
997.2000;0.5397;2.1147;
997.5000;0.5397;2.1193;
997.8000;0.5381;2.1054;
998.1000;0.5381;2.1054;
998.4000;0.5397;2.1031;
998.7000;0.5389;2.0985;
999.0000;0.5397;2.1031;
999.3000;0.5413;2.1054;
999.6000;0.5397;2.1008;
999.9000;0.5413;2.1100;
1000.2000;0.5446;2.1216;
1000.5000;0.5348;2.0962;
1000.8000;0.5381;2.1008;
1001.1000;0.5405;2.1054;
1001.4000;0.5397;2.1100;
1001.7000;0.5421;2.1216;
1002.0000;0.5340;2.1077;
1002.3000;0.5405;2.1285;
1002.6000;0.5389;2.1332;
1002.9000;0.5381;2.1332;
1003.2000;0.5389;2.1239;
1003.5000;0.5389;2.1239;
1003.8000;0.5389;2.1170;
1004.1000;0.5307;2.0985;
1004.4000;0.5389;2.1170;
1004.7000;0.5299;2.0938;
1005.0000;0.5381;2.1170;
1005.3000;0.5372;2.1216;
1005.6000;0.5381;2.1309;
1005.9000;0.5381;2.1285;
1006.2000;0.5389;2.1355;
1006.5000;0.5372;2.1355;
1006.8000;0.5397;2.1355;
1007.1000;0.5372;2.1309;
1007.4000;0.5364;2.1216;
1007.7000;0.5397;2.1193;
1008.0000;0.5397;2.1170;
1008.3000;0.5356;2.1124;
1008.6000;0.5381;2.1054;
1008.9000;0.5389;2.1147;
1009.2000;0.5397;2.1124;
1009.5000;0.5389;2.1124;
1009.8000;0.5381;2.1124;
1010.1000;0.5356;2.1077;
1010.4000;0.5381;2.1147;
1010.7000;0.5372;2.1147;
1011.0000;0.5397;2.1193;
1011.3000;0.5381;2.1193;
1011.6000;0.5364;2.1193;
1011.9000;0.5389;2.1193;
1012.2000;0.5381;2.1285;
1012.5000;0.5372;2.1262;
1012.8000;0.5405;2.1262;
1013.1000;0.5381;2.1124;
1013.4000;0.5372;2.1216;
1013.7000;0.5364;2.1077;
1014.0000;0.5381;2.1031;
1014.3000;0.5356;2.1031;
1014.6000;0.5389;2.1170;
1014.9000;0.5348;2.1077;
1015.2000;0.5381;2.1054;
1015.5000;0.5381;2.1193;
1015.8000;0.5275;2.0985;
1016.1000;0.5364;2.1193;
1016.4000;0.5315;2.1008;
1016.7000;0.5381;2.1170;
1017.0000;0.5381;2.1170;
1017.3000;0.5364;2.1054;
1017.6000;0.5356;2.1124;
1017.9000;0.5364;2.1100;
1018.2000;0.5446;2.1332;
1018.5000;0.5389;2.1239;
1018.8000;0.5364;2.1239;
1019.1000;0.5389;2.1239;
1019.4000;0.5267;2.1077;
1019.7000;0.5340;2.1332;
1020.0000;0.5381;2.1355;
1020.3000;0.5364;2.1355;
1020.6000;0.5372;2.1378;
1020.9000;0.5381;2.1355;
1021.2000;0.5381;2.1285;
1021.5000;0.5356;2.1309;
1021.8000;0.5381;2.1309;
1022.1000;0.5405;2.1239;
1022.4000;0.5372;2.1124;
1022.7000;0.5397;2.1216;
1023.0000;0.5405;2.1285;
1023.3000;0.5389;2.1309;
1023.6000;0.5356;2.1124;
1023.9000;0.5364;2.1124;
1024.2000;0.5364;2.1054;
1024.5000;0.5364;2.1170;
1024.8000;0.5340;2.1216;
1025.1000;0.5348;2.1216;
1025.4000;0.5381;2.1216;
1025.7000;0.5389;2.1193;
1026.0000;0.5381;2.1193;
1026.3000;0.5381;2.1100;
1026.6000;0.5372;2.1124;
1026.9000;0.5364;2.1147;
1027.2000;0.5381;2.1216;
1027.5000;0.5478;2.1355;
1027.8000;0.5356;2.1147;
1028.1000;0.5381;2.1285;
1028.4000;0.5381;2.1401;
1028.7000;0.5389;2.1355;
1029.0000;0.5364;2.1355;
1029.3000;0.5405;2.1355;
1029.6000;0.5364;2.1262;
1029.9000;0.5389;2.1239;
1030.2000;0.5381;2.1170;
1030.5000;0.5372;2.1147;
1030.8000;0.5389;2.1262;
1031.1000;0.5315;2.1031;
1031.4000;0.5381;2.1216;
1031.7000;0.5364;2.1193;
1032.0000;0.5389;2.1216;
1032.3000;0.5364;2.1077;
1032.6000;0.5381;2.1100;
1032.9000;0.5389;2.1124;
1033.2000;0.5429;2.1193;
1033.5000;0.5397;2.1054;
1033.8000;0.5372;2.0985;
1034.1000;0.5389;2.1054;
1034.4000;0.5332;2.0938;
1034.7000;0.5413;2.1239;
1035.0000;0.5275;2.0985;
1035.3000;0.5364;2.1262;
1035.6000;0.5348;2.1285;
1035.9000;0.5372;2.1309;
1036.2000;0.5348;2.1216;
1036.5000;0.5291;2.1077;
1036.8000;0.5405;2.1332;
1037.1000;0.5389;2.1309;
1037.4000;0.5372;2.1262;
1037.7000;0.5429;2.1471;
1038.0000;0.5372;2.1355;
1038.3000;0.5381;2.1332;
1038.6000;0.5364;2.1239;
1038.9000;0.5381;2.1285;
1039.2000;0.5372;2.1216;
1039.5000;0.5397;2.1239;
1039.8000;0.5397;2.1262;
1040.1000;0.5381;2.1285;
1040.4000;0.5348;2.1262;
1040.7000;0.5389;2.1355;
1041.0000;0.5381;2.1424;
1041.3000;0.5364;2.1447;
1041.6000;0.5364;2.1471;
1041.9000;0.5356;2.1540;
1042.2000;0.5397;2.1563;
1042.5000;0.5397;2.1447;
1042.8000;0.5381;2.1378;
1043.1000;0.5381;2.1309;
1043.4000;0.5397;2.1378;
1043.7000;0.5372;2.1309;
1044.0000;0.5364;2.1216;
1044.3000;0.5356;2.1262;
1044.6000;0.5364;2.1378;
1044.9000;0.5356;2.1378;
1045.2000;0.5389;2.1378;
1045.5000;0.5364;2.1332;
1045.8000;0.5356;2.1332;
1046.1000;0.5372;2.1262;
1046.4000;0.5372;2.1332;
1046.7000;0.5348;2.1216;
1047.0000;0.5364;2.1262;
1047.3000;0.5364;2.1309;
1047.6000;0.5372;2.1355;
1047.9000;0.5389;2.1401;
1048.2000;0.5381;2.1355;
1048.5000;0.5364;2.1309;
1048.8000;0.5397;2.1332;
1049.1000;0.5299;2.1054;
1049.4000;0.5372;2.1193;
1049.7000;0.5340;2.1124;
1050.0000;0.5381;2.1309;
1050.3000;0.5364;2.1239;
1050.6000;0.5389;2.1355;
1050.9000;0.5372;2.1239;
1051.2000;0.5372;2.1193;
1051.5000;0.5364;2.1170;
1051.8000;0.5348;2.1216;
1052.1000;0.5356;2.1193;
1052.4000;0.5405;2.1262;
1052.7000;0.5397;2.1216;
1053.0000;0.5397;2.1100;
1053.3000;0.5364;2.1124;
1053.6000;0.5356;2.1170;
1053.9000;0.5356;2.1193;
1054.2000;0.5372;2.1216;
1054.5000;0.5372;2.1193;
1054.8000;0.5299;2.0962;
1055.1000;0.5356;2.1031;
1055.4000;0.5356;2.1077;
1055.7000;0.5397;2.1170;
1056.0000;0.5372;2.1124;
1056.3000;0.5324;2.1077;
1056.6000;0.5356;2.1124;
1056.9000;0.5356;2.1124;
1057.2000;0.5315;2.1077;
1057.5000;0.5356;2.1239;
1057.8000;0.5372;2.1309;
1058.1000;0.5381;2.1378;
1058.4000;0.5348;2.1309;
1058.7000;0.5340;2.1193;
1059.0000;0.5389;2.1239;
1059.3000;0.5372;2.1170;
1059.6000;0.5348;2.1124;
1059.9000;0.5315;2.1031;
1060.2000;0.5356;2.1124;
1060.5000;0.5356;2.1170;
1060.8000;0.5421;2.1332;
1061.1000;0.5364;2.1216;
1061.4000;0.5348;2.1147;
1061.7000;0.5372;2.1239;
1062.0000;0.5340;2.1124;
1062.3000;0.5315;2.1147;
1062.6000;0.5356;2.1239;
1062.9000;0.5348;2.1216;
1063.2000;0.5364;2.1239;
1063.5000;0.5364;2.1262;
1063.8000;0.5364;2.1193;
1064.1000;0.5397;2.1170;
1064.4000;0.5372;2.1054;
1064.7000;0.5389;2.1031;
1065.0000;0.5389;2.1100;
1065.3000;0.5372;2.1054;
1065.6000;0.5372;2.0962;
1065.9000;0.5381;2.1054;
1066.2000;0.5315;2.0869;
1066.5000;0.5348;2.0962;
1066.8000;0.5356;2.1031;
1067.1000;0.5364;2.1077;
1067.4000;0.5356;2.1077;
1067.7000;0.5356;2.1124;
1068.0000;0.5372;2.1239;
1068.3000;0.5348;2.1193;
1068.6000;0.5405;2.1285;
1068.9000;0.5381;2.1193;
1069.2000;0.5389;2.1262;
1069.5000;0.5340;2.1216;
1069.8000;0.5340;2.1147;
1070.1000;0.5421;2.1262;
1070.4000;0.5372;2.1262;
1070.7000;0.5397;2.1378;
1071.0000;0.5356;2.1355;
1071.3000;0.5389;2.1378;
1071.6000;0.5348;2.1378;
1071.9000;0.5381;2.1355;
1072.2000;0.5340;2.1170;
1072.5000;0.5381;2.1262;
1072.8000;0.5372;2.1170;
1073.1000;0.5372;2.1193;
1073.4000;0.5372;2.1054;
1073.7000;0.5381;2.1008;
1074.0000;0.5372;2.1031;
1074.3000;0.5364;2.0985;
1074.6000;0.5364;2.0962;
1074.9000;0.5356;2.0892;
1075.2000;0.5389;2.1077;
1075.5000;0.5397;2.1100;
1075.8000;0.5397;2.1193;
1076.1000;0.5372;2.1170;
1076.4000;0.5356;2.1100;
1076.7000;0.5356;2.1054;
1077.0000;0.5356;2.0962;
1077.3000;0.5372;2.0938;
1077.6000;0.5372;2.1008;
1077.9000;0.5364;2.0985;
1078.2000;0.5356;2.0892;
1078.5000;0.5372;2.0962;
1078.8000;0.5364;2.0892;
1079.1000;0.5372;2.0846;
1079.4000;0.5372;2.0730;
1079.7000;0.5364;2.0776;
1080.0000;0.5340;2.0753;
1080.3000;0.5389;2.0869;
1080.6000;0.5372;2.0846;
1080.9000;0.5291;2.0545;
1081.2000;0.5315;2.0684;
1081.5000;0.5356;2.0800;
1081.8000;0.5307;2.0661;
1082.1000;0.5372;2.0823;
1082.4000;0.5307;2.0615;
1082.7000;0.5283;2.0684;
1083.0000;0.5348;2.0938;
1083.3000;0.5413;2.1077;
1083.6000;0.5364;2.1077;
1083.9000;0.5356;2.1100;
1084.2000;0.5364;2.1147;
1084.5000;0.5364;2.1147;
1084.8000;0.5372;2.1124;
1085.1000;0.5364;2.1031;
1085.4000;0.5332;2.1054;
1085.7000;0.5397;2.1239;
1086.0000;0.5372;2.1193;
1086.3000;0.5348;2.1285;
1086.6000;0.5356;2.1355;
1086.9000;0.5356;2.1378;
1087.2000;0.5299;2.1239;
1087.5000;0.5348;2.1309;
1087.8000;0.5364;2.1262;
1088.1000;0.5340;2.1193;
1088.4000;0.5364;2.1193;
1088.7000;0.5348;2.1147;
1089.0000;0.5356;2.1077;
1089.3000;0.5381;2.0985;
1089.6000;0.5340;2.1008;
1089.9000;0.5389;2.1100;
1090.2000;0.5356;2.1031;
1090.5000;0.5381;2.1077;
1090.8000;0.5307;2.0962;
1091.1000;0.5381;2.1124;
1091.4000;0.5389;2.1193;
1091.7000;0.5356;2.1170;
1092.0000;0.5397;2.1401;
1092.3000;0.5372;2.1193;
1092.6000;0.5299;2.1008;
1092.9000;0.5364;2.1262;
1093.2000;0.5364;2.1309;
1093.5000;0.5348;2.1355;
1093.8000;0.5364;2.1401;
1094.1000;0.5372;2.1424;
1094.4000;0.5364;2.1401;
1094.7000;0.5356;2.1378;
1095.0000;0.5364;2.1447;
1095.3000;0.5348;2.1332;
1095.6000;0.5389;2.1401;
1095.9000;0.5364;2.1355;
1096.2000;0.5405;2.1378;
1096.5000;0.5364;2.1239;
1096.8000;0.5356;2.1262;
1097.1000;0.5356;2.1239;
1097.4000;0.5381;2.1262;
1097.7000;0.5267;2.1008;
1098.0000;0.5340;2.1216;
1098.3000;0.5356;2.1309;
1098.6000;0.5421;2.1540;
1098.9000;0.5372;2.1401;
1099.2000;0.5364;2.1401;
1099.5000;0.5356;2.1332;
1099.8000;0.5397;2.1401;
1100.1000;0.5356;2.1355;
1100.4000;0.5356;2.1378;
1100.7000;0.5389;2.1424;
1101.0000;0.5372;2.1355;
1101.3000;0.5315;2.1193;
1101.6000;0.5405;2.1424;
1101.9000;0.5389;2.1424;
1102.2000;0.5356;2.1309;
1102.5000;0.5364;2.1471;
1102.8000;0.5372;2.1447;
1103.1000;0.5364;2.1447;
1103.4000;0.5372;2.1447;
1103.7000;0.5372;2.1447;
1104.0000;0.5364;2.1517;
1104.3000;0.5364;2.1586;
1104.6000;0.5356;2.1494;
1104.9000;0.5389;2.1447;
1105.2000;0.5381;2.1447;
1105.5000;0.5421;2.1494;
1105.8000;0.5372;2.1355;
1106.1000;0.5438;2.1540;
1106.4000;0.5381;2.1378;
1106.7000;0.5381;2.1332;
1107.0000;0.5389;2.1285;
1107.3000;0.5299;2.1054;
1107.6000;0.5389;2.1239;
1107.9000;0.5381;2.1124;
1108.2000;0.5348;2.1100;
1108.5000;0.5405;2.1239;
1108.8000;0.5372;2.1216;
1109.1000;0.5348;2.1147;
1109.4000;0.5372;2.1124;
1109.7000;0.5372;2.1124;
1110.0000;0.5364;2.1170;
1110.3000;0.5381;2.1285;
1110.6000;0.5364;2.1355;
1110.9000;0.5364;2.1401;
1111.2000;0.5372;2.1471;
1111.5000;0.5372;2.1586;
1111.8000;0.5356;2.1517;
1112.1000;0.5372;2.1586;
1112.4000;0.5364;2.1517;
1112.7000;0.5397;2.1563;
1113.0000;0.5372;2.1563;
1113.3000;0.5389;2.1586;
1113.6000;0.5340;2.1540;
1113.9000;0.5381;2.1656;
1114.2000;0.5372;2.1633;
1114.5000;0.5372;2.1540;
1114.8000;0.5364;2.1447;
1115.1000;0.5364;2.1540;
1115.4000;0.5389;2.1609;
1115.7000;0.5307;2.1471;
1116.0000;0.5332;2.1378;
1116.3000;0.5364;2.1494;
1116.6000;0.5348;2.1378;
1116.9000;0.5364;2.1332;
1117.2000;0.5348;2.1355;
1117.5000;0.5340;2.1262;
1117.8000;0.5364;2.1332;
1118.1000;0.5405;2.1517;
1118.4000;0.5291;2.1285;
1118.7000;0.5364;2.1494;
1119.0000;0.5356;2.1447;
1119.3000;0.5364;2.1494;
1119.6000;0.5364;2.1517;
1119.9000;0.5364;2.1563;
1120.2000;0.5364;2.1540;
1120.5000;0.5364;2.1424;
1120.8000;0.5372;2.1471;
1121.1000;0.5421;2.1586;
1121.4000;0.5348;2.1471;
1121.7000;0.5397;2.1586;
1122.0000;0.5381;2.1609;
1122.3000;0.5381;2.1563;
1122.6000;0.5348;2.1424;
1122.9000;0.5381;2.1494;
1123.2000;0.5324;2.1447;
1123.5000;0.5324;2.1447;
1123.8000;0.5364;2.1517;
1124.1000;0.5356;2.1517;
1124.4000;0.5372;2.1563;
1124.7000;0.5372;2.1471;
1125.0000;0.5364;2.1424;
1125.3000;0.5429;2.1563;
1125.6000;0.5389;2.1494;
1125.9000;0.5372;2.1424;
1126.2000;0.5307;2.1262;
1126.5000;0.5397;2.1540;
1126.8000;0.5372;2.1540;
1127.1000;0.5381;2.1447;
1127.4000;0.5356;2.1378;
1127.7000;0.5356;2.1378;
1128.0000;0.5364;2.1401;
1128.3000;0.5438;2.1633;
1128.6000;0.5364;2.1494;
1128.9000;0.5356;2.1401;
1129.2000;0.5381;2.1447;
1129.5000;0.5332;2.1424;
1129.8000;0.5340;2.1447;
1130.1000;0.5332;2.1424;
1130.4000;0.5364;2.1517;
1130.7000;0.5348;2.1517;
1131.0000;0.5372;2.1563;
1131.3000;0.5340;2.1401;
1131.6000;0.5364;2.1332;
1131.9000;0.5381;2.1378;
1132.2000;0.5372;2.1378;
1132.5000;0.5381;2.1355;
1132.8000;0.5356;2.1262;
1133.1000;0.5348;2.1216;
1133.4000;0.5348;2.1193;
1133.7000;0.5372;2.1262;
1134.0000;0.5364;2.1239;
1134.3000;0.5397;2.1285;
1134.6000;0.5356;2.1216;
1134.9000;0.5332;2.1147;
1135.2000;0.5364;2.1285;
1135.5000;0.5364;2.1309;
1135.8000;0.5381;2.1309;
1136.1000;0.5381;2.1332;
1136.4000;0.5250;2.0985;
1136.7000;0.5356;2.1239;
1137.0000;0.5372;2.1309;
1137.3000;0.5364;2.1355;
1137.6000;0.5364;2.1309;
1137.9000;0.5348;2.1285;
1138.2000;0.5364;2.1332;
1138.5000;0.5389;2.1447;
1138.8000;0.5364;2.1471;
1139.1000;0.5348;2.1424;
1139.4000;0.5381;2.1424;
1139.7000;0.5372;2.1447;
1140.0000;0.5356;2.1355;
1140.3000;0.5340;2.1378;
1140.6000;0.5307;2.1309;
1140.9000;0.5381;2.1447;
1141.2000;0.5356;2.1309;
1141.5000;0.5372;2.1309;
1141.8000;0.5372;2.1332;
1142.1000;0.5372;2.1378;
1142.4000;0.5381;2.1332;
1142.7000;0.5372;2.1355;
1143.0000;0.5389;2.1309;
1143.3000;0.5364;2.1216;
1143.6000;0.5348;2.1147;
1143.9000;0.5332;2.1147;
1144.2000;0.5372;2.1170;
1144.5000;0.5372;2.1216;
1144.8000;0.5364;2.1216;
1145.1000;0.5389;2.1332;
1145.4000;0.5348;2.1193;
1145.7000;0.5397;2.1285;
1146.0000;0.5381;2.1216;
1146.3000;0.5381;2.1100;
1146.6000;0.5372;2.1170;
1146.9000;0.5356;2.1170;
1147.2000;0.5372;2.1216;
1147.5000;0.5356;2.1170;
1147.8000;0.5372;2.1147;
1148.1000;0.5397;2.1216;
1148.4000;0.5389;2.1239;
1148.7000;0.5364;2.1170;
1149.0000;0.5340;2.1170;
1149.3000;0.5478;2.1517;
1149.6000;0.5356;2.1285;
1149.9000;0.5324;2.1124;
1150.2000;0.5356;2.1100;
1150.5000;0.5381;2.1077;
1150.8000;0.5299;2.0892;
1151.1000;0.5372;2.1170;
1151.4000;0.5405;2.1378;
1151.7000;0.5348;2.1262;
1152.0000;0.5446;2.1540;
1152.3000;0.5332;2.1262;
1152.6000;0.5364;2.1378;
1152.9000;0.5364;2.1262;
1153.2000;0.5348;2.1309;
1153.5000;0.5364;2.1378;
1153.8000;0.5372;2.1447;
1154.1000;0.5348;2.1378;
1154.4000;0.5356;2.1378;
1154.7000;0.5372;2.1471;
1155.0000;0.5356;2.1471;
1155.3000;0.5372;2.1471;
1155.6000;0.5364;2.1447;
1155.9000;0.5356;2.1378;
1156.2000;0.5372;2.1262;
1156.5000;0.5356;2.1147;
1156.8000;0.5348;2.1193;
1157.1000;0.5364;2.1239;
1157.4000;0.5372;2.1124;
1157.7000;0.5340;2.1124;
1158.0000;0.5356;2.1147;
1158.3000;0.5372;2.1170;
1158.6000;0.5372;2.1262;
1158.9000;0.5381;2.1239;
1159.2000;0.5413;2.1285;
1159.5000;0.5340;2.1124;
1159.8000;0.5356;2.1147;
1160.1000;0.5372;2.1216;
1160.4000;0.5421;2.1355;
1160.7000;0.5356;2.1193;
1161.0000;0.5348;2.1239;
1161.3000;0.5364;2.1193;
1161.6000;0.5364;2.1193;
1161.9000;0.5364;2.1147;
1162.2000;0.5372;2.1147;
1162.5000;0.5364;2.1216;
1162.8000;0.5356;2.1193;
1163.1000;0.5381;2.1309;
1163.4000;0.5364;2.1239;
1163.7000;0.5446;2.1471;
1164.0000;0.5372;2.1332;
1164.3000;0.5332;2.1309;
1164.6000;0.5332;2.1401;
1164.9000;0.5283;2.1355;
1165.2000;0.5364;2.1447;
1165.5000;0.5364;2.1471;
1165.8000;0.5348;2.1401;
1166.1000;0.5315;2.1285;
1166.4000;0.5372;2.1494;
1166.7000;0.5364;2.1540;
1167.0000;0.5405;2.1609;
1167.3000;0.5332;2.1494;
1167.6000;0.5372;2.1586;
1167.9000;0.5372;2.1633;
1168.2000;0.5397;2.1702;
1168.5000;0.5356;2.1494;
1168.8000;0.5348;2.1494;
1169.1000;0.5348;2.1540;
1169.4000;0.5348;2.1563;
1169.7000;0.5389;2.1725;
1170.0000;0.5356;2.1586;
1170.3000;0.5381;2.1540;
1170.6000;0.5348;2.1447;
1170.9000;0.5372;2.1517;
1171.2000;0.5348;2.1401;
1171.5000;0.5381;2.1494;
1171.8000;0.5389;2.1494;
1172.1000;0.5364;2.1355;
1172.4000;0.5364;2.1355;
1172.7000;0.5348;2.1285;
1173.0000;0.5413;2.1378;
1173.3000;0.5340;2.1193;
1173.6000;0.5348;2.1147;
1173.9000;0.5356;2.1147;
1174.2000;0.5332;2.1124;
1174.5000;0.5356;2.1239;
1174.8000;0.5226;2.1031;
1175.1000;0.5364;2.1424;
1175.4000;0.5364;2.1424;
1175.7000;0.5348;2.1424;
1176.0000;0.5454;2.1586;
1176.3000;0.5299;2.1193;
1176.6000;0.5348;2.1355;
1176.9000;0.5356;2.1424;
1177.2000;0.5372;2.1447;
1177.5000;0.5364;2.1378;
1177.8000;0.5381;2.1332;
1178.1000;0.5340;2.1262;
1178.4000;0.5364;2.1309;
1178.7000;0.5348;2.1332;
1179.0000;0.5307;2.1239;
1179.3000;0.5381;2.1378;
1179.6000;0.5348;2.1239;
1179.9000;0.5429;2.1424;
1180.2000;0.5348;2.1239;
1180.5000;0.5364;2.1262;
1180.8000;0.5348;2.1193;
1181.1000;0.5364;2.1216;
1181.4000;0.5348;2.1216;
1181.7000;0.5381;2.1447;
1182.0000;0.5364;2.1540;
1182.3000;0.5348;2.1447;
1182.6000;0.5364;2.1401;
1182.9000;0.5381;2.1401;
1183.2000;0.5372;2.1424;
1183.5000;0.5397;2.1378;
1183.8000;0.5372;2.1424;
1184.1000;0.5381;2.1332;
1184.4000;0.5381;2.1309;
1184.7000;0.5356;2.1401;
1185.0000;0.5381;2.1494;
1185.3000;0.5372;2.1494;
1185.6000;0.5356;2.1517;
1185.9000;0.5356;2.1586;
1186.2000;0.5364;2.1679;
1186.5000;0.5348;2.1656;
1186.8000;0.5356;2.1633;
1187.1000;0.5381;2.1586;
1187.4000;0.5348;2.1563;
1187.7000;0.5356;2.1609;
1188.0000;0.5364;2.1540;
1188.3000;0.5397;2.1586;
1188.6000;0.5356;2.1447;
1188.9000;0.5389;2.1517;
1189.2000;0.5348;2.1424;
1189.5000;0.5372;2.1378;
1189.8000;0.5372;2.1309;
1190.1000;0.5356;2.1285;
1190.4000;0.5364;2.1285;
1190.7000;0.5356;2.1285;
1191.0000;0.5348;2.1239;
1191.3000;0.5356;2.1239;
1191.6000;0.5364;2.1216;
1191.9000;0.5324;2.1100;
1192.2000;0.5356;2.1147;
1192.5000;0.5348;2.1124;
1192.8000;0.5372;2.1147;
1193.1000;0.5356;2.1216;
1193.4000;0.5372;2.1239;
1193.7000;0.5348;2.1216;
1194.0000;0.5381;2.1309;
1194.3000;0.5356;2.1401;
1194.6000;0.5364;2.1401;
1194.9000;0.5381;2.1401;
1195.2000;0.5364;2.1378;
1195.5000;0.5348;2.1332;
1195.8000;0.5364;2.1401;
1196.1000;0.5364;2.1471;
1196.4000;0.5389;2.1471;
1196.7000;0.5340;2.1378;
1197.0000;0.5381;2.1447;
1197.3000;0.5356;2.1285;
1197.6000;0.5348;2.1332;
1197.9000;0.5283;2.1216;
1198.2000;0.5348;2.1424;
1198.5000;0.5421;2.1609;
1198.8000;0.5364;2.1401;
1199.1000;0.5372;2.1401;
1199.4000;0.5340;2.1309;
1199.7000;0.5324;2.1332;
1200.0000;0.5421;2.1540;
1200.3000;0.5340;2.1471;
1200.6000;0.5364;2.1471;
1200.9000;0.5332;2.1355;
1201.2000;0.5348;2.1378;
1201.5000;0.5283;2.1077;
1201.8000;0.5364;2.1216;
1202.1000;0.5381;2.1378;
1202.4000;0.5372;2.1378;
1202.7000;0.5381;2.1401;
1203.0000;0.5348;2.1401;
1203.3000;0.5429;2.1609;
1203.6000;0.5372;2.1540;
1203.9000;0.5348;2.1471;
1204.2000;0.5381;2.1471;
1204.5000;0.5348;2.1378;
1204.8000;0.5372;2.1401;
1205.1000;0.5356;2.1355;
1205.4000;0.5364;2.1262;
1205.7000;0.5364;2.1147;
1206.0000;0.5364;2.1054;
1206.3000;0.5364;2.1147;
1206.6000;0.5348;2.1077;
1206.9000;0.5372;2.1147;
1207.2000;0.5348;2.1147;
1207.5000;0.5389;2.1193;
1207.8000;0.5348;2.1193;
1208.1000;0.5348;2.1077;
1208.4000;0.5356;2.1170;
1208.7000;0.5348;2.1216;
1209.0000;0.5372;2.1216;
1209.3000;0.5356;2.1239;
1209.6000;0.5364;2.1285;
1209.9000;0.5372;2.1332;
1210.2000;0.5332;2.1170;
1210.5000;0.5364;2.1239;
1210.8000;0.5364;2.1262;
1211.1000;0.5372;2.1309;
1211.4000;0.5372;2.1378;
1211.7000;0.5356;2.1378;
1212.0000;0.5364;2.1424;
1212.3000;0.5389;2.1563;
1212.6000;0.5340;2.1540;
1212.9000;0.5315;2.1540;
1213.2000;0.5356;2.1563;
1213.5000;0.5389;2.1563;
1213.8000;0.5381;2.1447;
1214.1000;0.5348;2.1355;
1214.4000;0.5356;2.1262;
1214.7000;0.5348;2.1239;
1215.0000;0.5348;2.1239;
1215.3000;0.5381;2.1285;
1215.6000;0.5348;2.1193;
1215.9000;0.5364;2.1239;
1216.2000;0.5372;2.1216;
1216.5000;0.5381;2.1285;
1216.8000;0.5364;2.1309;
1217.1000;0.5356;2.1355;
1217.4000;0.5389;2.1401;
1217.7000;0.5364;2.1401;
1218.0000;0.5364;2.1355;
1218.3000;0.5364;2.1355;
1218.6000;0.5405;2.1517;
1218.9000;0.5364;2.1332;
1219.2000;0.5389;2.1471;
1219.5000;0.5340;2.1447;
1219.8000;0.5332;2.1332;
1220.1000;0.5340;2.1378;
1220.4000;0.5389;2.1471;
1220.7000;0.5381;2.1494;
1221.0000;0.5356;2.1517;
1221.3000;0.5315;2.1355;
1221.6000;0.5348;2.1401;
1221.9000;0.5348;2.1355;
1222.2000;0.5340;2.1262;
1222.5000;0.5340;2.1147;
1222.8000;0.5324;2.1031;
1223.1000;0.5356;2.1170;
1223.4000;0.5372;2.1332;
1223.7000;0.5364;2.1332;
1224.0000;0.5356;2.1309;
1224.3000;0.5332;2.1170;
1224.6000;0.5381;2.1309;
1224.9000;0.5356;2.1262;
1225.2000;0.5356;2.1355;
1225.5000;0.5372;2.1355;
1225.8000;0.5381;2.1332;
1226.1000;0.5348;2.1309;
1226.4000;0.5356;2.1262;
1226.7000;0.5372;2.1309;
1227.0000;0.5356;2.1216;
1227.3000;0.5340;2.1031;
1227.6000;0.5356;2.1100;
1227.9000;0.5356;2.1170;
1228.2000;0.5364;2.1239;
1228.5000;0.5340;2.1193;
1228.8000;0.5364;2.1147;
1229.1000;0.5364;2.1077;
1229.4000;0.5340;2.1008;
1229.7000;0.5356;2.1216;
1230.0000;0.5348;2.1309;
1230.3000;0.5324;2.1309;
1230.6000;0.5364;2.1332;
1230.9000;0.5356;2.1216;
1231.2000;0.5258;2.0915;
1231.5000;0.5356;2.1216;
1231.8000;0.5356;2.1193;
1232.1000;0.5340;2.1077;
1232.4000;0.5397;2.1124;
1232.7000;0.5340;2.1100;
1233.0000;0.5340;2.1054;
1233.3000;0.5356;2.1100;
1233.6000;0.5340;2.1008;
1233.9000;0.5356;2.1077;
1234.2000;0.5348;2.1124;
1234.5000;0.5332;2.1170;
1234.8000;0.5340;2.1216;
1235.1000;0.5348;2.1216;
1235.4000;0.5397;2.1239;
1235.7000;0.5372;2.1100;
1236.0000;0.5381;2.1170;
1236.3000;0.5356;2.1100;
1236.6000;0.5315;2.1008;
1236.9000;0.5356;2.1216;
1237.2000;0.5356;2.1401;
1237.5000;0.5307;2.1332;
1237.8000;0.5348;2.1378;
1238.1000;0.5283;2.1216;
1238.4000;0.5364;2.1332;
1238.7000;0.5332;2.1332;
1239.0000;0.5356;2.1332;
1239.3000;0.5389;2.1332;
1239.6000;0.5356;2.1193;
1239.9000;0.5348;2.1147;
1240.2000;0.5332;2.1077;
1240.5000;0.5372;2.1147;
1240.8000;0.5372;2.1216;
1241.1000;0.5356;2.1262;
1241.4000;0.5364;2.1401;
1241.7000;0.5372;2.1378;
1242.0000;0.5364;2.1309;
1242.3000;0.5348;2.1239;
1242.6000;0.5340;2.1332;
1242.9000;0.5340;2.1239;
1243.2000;0.5389;2.1355;
1243.5000;0.5413;2.1424;
1243.8000;0.5364;2.1378;
1244.1000;0.5356;2.1332;
1244.4000;0.5340;2.1262;
1244.7000;0.5332;2.1193;
1245.0000;0.5348;2.1100;
1245.3000;0.5372;2.1124;
1245.6000;0.5356;2.1124;
1245.9000;0.5405;2.1309;
1246.2000;0.5340;2.1216;
1246.5000;0.5348;2.1332;
1246.8000;0.5356;2.1378;
1247.1000;0.5348;2.1332;
1247.4000;0.5348;2.1332;
1247.7000;0.5340;2.1170;
1248.0000;0.5348;2.1124;
1248.3000;0.5364;2.1193;
1248.6000;0.5332;2.1147;
1248.9000;0.5340;2.1147;
1249.2000;0.5348;2.1193;
1249.5000;0.5364;2.1285;
1249.8000;0.5340;2.1216;
1250.1000;0.5348;2.1285;
1250.4000;0.5315;2.1170;
1250.7000;0.5348;2.1239;
1251.0000;0.5348;2.1309;
1251.3000;0.5315;2.1193;
1251.6000;0.5324;2.1124;
1251.9000;0.5299;2.0938;
1252.2000;0.5364;2.1147;
1252.5000;0.5381;2.1100;
1252.8000;0.5364;2.1193;
1253.1000;0.5348;2.1147;
1253.4000;0.5332;2.1216;
1253.7000;0.5348;2.1216;
1254.0000;0.5364;2.1262;
1254.3000;0.5340;2.1332;
1254.6000;0.5356;2.1401;
1254.9000;0.5364;2.1494;
1255.2000;0.5405;2.1517;
1255.5000;0.5364;2.1424;
1255.8000;0.5340;2.1285;
1256.1000;0.5356;2.1355;
1256.4000;0.5372;2.1424;
1256.7000;0.5340;2.1332;
1257.0000;0.5372;2.1401;
1257.3000;0.5364;2.1447;
1257.6000;0.5356;2.1424;
1257.9000;0.5372;2.1447;
1258.2000;0.5381;2.1424;
1258.5000;0.5372;2.1401;
1258.8000;0.5340;2.1239;
1259.1000;0.5348;2.1262;
1259.4000;0.5364;2.1378;
1259.7000;0.5324;2.1262;
1260.0000;0.5356;2.1378;
1260.3000;0.5356;2.1401;
1260.6000;0.5356;2.1447;
1260.9000;0.5332;2.1424;
1261.2000;0.5364;2.1540;
1261.5000;0.5340;2.1494;
1261.8000;0.5364;2.1447;
1262.1000;0.5364;2.1494;
1262.4000;0.5405;2.1563;
1262.7000;0.5356;2.1540;
1263.0000;0.5364;2.1494;
1263.3000;0.5332;2.1471;
1263.6000;0.5372;2.1540;
1263.9000;0.5372;2.1586;
1264.2000;0.5356;2.1471;
1264.5000;0.5348;2.1447;
1264.8000;0.5340;2.1378;
1265.1000;0.5356;2.1355;
1265.4000;0.5356;2.1378;
1265.7000;0.5348;2.1309;
1266.0000;0.5364;2.1401;
1266.3000;0.5348;2.1424;
1266.6000;0.5381;2.1447;
1266.9000;0.5340;2.1424;
1267.2000;0.5372;2.1447;
1267.5000;0.5397;2.1517;
1267.8000;0.5356;2.1447;
1268.1000;0.5397;2.1540;
1268.4000;0.5348;2.1378;
1268.7000;0.5348;2.1309;
1269.0000;0.5348;2.1355;
1269.3000;0.5348;2.1355;
1269.6000;0.5364;2.1285;
1269.9000;0.5462;2.1609;
1270.2000;0.5356;2.1262;
1270.5000;0.5364;2.1216;
1270.8000;0.5389;2.1216;
1271.1000;0.5389;2.1262;
1271.4000;0.5364;2.1239;
1271.7000;0.5332;2.1239;
1272.0000;0.5356;2.1355;
1272.3000;0.5356;2.1332;
1272.6000;0.5356;2.1309;
1272.9000;0.5340;2.1262;
1273.2000;0.5348;2.1262;
1273.5000;0.5332;2.1193;
1273.8000;0.5438;2.1401;
1274.1000;0.5364;2.1216;
1274.4000;0.5364;2.1170;
1274.7000;0.5364;2.1239;
1275.0000;0.5446;2.1471;
1275.3000;0.5429;2.1401;
1275.6000;0.5356;2.1239;
1275.9000;0.5356;2.1285;
1276.2000;0.5364;2.1378;
1276.5000;0.5356;2.1355;
1276.8000;0.5356;2.1309;
1277.1000;0.5356;2.1262;
1277.4000;0.5348;2.1193;
1277.7000;0.5348;2.1193;
1278.0000;0.5348;2.1147;
1278.3000;0.5372;2.1193;
1278.6000;0.5348;2.1147;
1278.9000;0.5389;2.1309;
1279.2000;0.5364;2.1332;
1279.5000;0.5356;2.1285;
1279.8000;0.5372;2.1355;
1280.1000;0.5356;2.1355;
1280.4000;0.5356;2.1378;
1280.7000;0.5364;2.1378;
1281.0000;0.5315;2.1285;
1281.3000;0.5340;2.1332;
1281.6000;0.5356;2.1285;
1281.9000;0.5356;2.1193;
1282.2000;0.5405;2.1309;
1282.5000;0.5332;2.1193;
1282.8000;0.5348;2.1239;
1283.1000;0.5348;2.1239;
1283.4000;0.5356;2.1262;
1283.7000;0.5340;2.1193;
1284.0000;0.5315;2.1147;
1284.3000;0.5340;2.1147;
1284.6000;0.5405;2.1262;
1284.9000;0.5381;2.1239;
1285.2000;0.5372;2.1285;
1285.5000;0.5356;2.1309;
1285.8000;0.5356;2.1239;
1286.1000;0.5356;2.1216;
1286.4000;0.5340;2.1239;
1286.7000;0.5267;2.1054;
1287.0000;0.5315;2.1170;
1287.3000;0.5381;2.1355;
1287.6000;0.5372;2.1309;
1287.9000;0.5372;2.1378;
1288.2000;0.5340;2.1309;
1288.5000;0.5364;2.1355;
1288.8000;0.5340;2.1309;
1289.1000;0.5356;2.1309;
1289.4000;0.5324;2.1355;
1289.7000;0.5372;2.1424;
1290.0000;0.5372;2.1285;
1290.3000;0.5372;2.1309;
1290.6000;0.5356;2.1170;
1290.9000;0.5340;2.1100;
1291.2000;0.5381;2.1124;
1291.5000;0.5364;2.1124;
1291.8000;0.5364;2.1147;
1292.1000;0.5356;2.1170;
1292.4000;0.5356;2.1239;
1292.7000;0.5356;2.1262;
1293.0000;0.5364;2.1285;
1293.3000;0.5348;2.1216;
1293.6000;0.5405;2.1355;
1293.9000;0.5324;2.1239;
1294.2000;0.5324;2.1239;
1294.5000;0.5348;2.1262;
1294.8000;0.5356;2.1285;
1295.1000;0.5315;2.1216;
1295.4000;0.5250;2.0985;
1295.7000;0.5315;2.1124;
1296.0000;0.5315;2.1077;
1296.3000;0.5291;2.1147;
1296.6000;0.5348;2.1170;
1296.9000;0.5356;2.1216;
1297.2000;0.5364;2.1147;
1297.5000;0.5356;2.1100;
1297.8000;0.5348;2.1077;
1298.1000;0.5356;2.1054;
1298.4000;0.5381;2.0962;
1298.7000;0.5356;2.0892;
1299.0000;0.5340;2.0938;
1299.3000;0.5340;2.0938;
1299.6000;0.5389;2.1100;
1299.9000;0.5356;2.1054;
1300.2000;0.5364;2.1100;
1300.5000;0.5356;2.1147;
1300.8000;0.5348;2.1077;
1301.1000;0.5348;2.1077;
1301.4000;0.5356;2.1100;
1301.7000;0.5372;2.1239;
1302.0000;0.5340;2.1193;
1302.3000;0.5356;2.1262;
1302.6000;0.5356;2.1285;
1302.9000;0.5234;2.1077;
1303.2000;0.5340;2.1239;
1303.5000;0.5381;2.1378;
1303.8000;0.5356;2.1424;
1304.1000;0.5364;2.1378;
1304.4000;0.5348;2.1216;
1304.7000;0.5356;2.1309;
1305.0000;0.5348;2.1216;
1305.3000;0.5356;2.1193;
1305.6000;0.5348;2.1216;
1305.9000;0.5405;2.1378;
1306.2000;0.5348;2.1355;
1306.5000;0.5356;2.1309;
1306.8000;0.5340;2.1216;
1307.1000;0.5356;2.1285;
1307.4000;0.5356;2.1239;
1307.7000;0.5340;2.1285;
1308.0000;0.5218;2.1124;
1308.3000;0.5356;2.1424;
1308.6000;0.5275;2.1170;
1308.9000;0.5340;2.1239;
1309.2000;0.5364;2.1193;
1309.5000;0.5356;2.1239;
1309.8000;0.5356;2.1216;
1310.1000;0.5364;2.1216;
1310.4000;0.5364;2.1332;
1310.7000;0.5381;2.1401;
1311.0000;0.5340;2.1332;
1311.3000;0.5348;2.1355;
1311.6000;0.5356;2.1447;
1311.9000;0.5364;2.1447;
1312.2000;0.5315;2.1355;
1312.5000;0.5332;2.1378;
1312.8000;0.5364;2.1401;
1313.1000;0.5372;2.1378;
1313.4000;0.5372;2.1355;
1313.7000;0.5356;2.1424;
1314.0000;0.5332;2.1285;
1314.3000;0.5372;2.1332;
1314.6000;0.5356;2.1378;
1314.9000;0.5364;2.1447;
1315.2000;0.5348;2.1424;
1315.5000;0.5299;2.1216;
1315.8000;0.5332;2.1170;
1316.1000;0.5332;2.1100;
1316.4000;0.5356;2.1262;
1316.7000;0.5340;2.1239;
1317.0000;0.5348;2.1216;
1317.3000;0.5340;2.1239;
1317.6000;0.5356;2.1355;
1317.9000;0.5348;2.1332;
1318.2000;0.5348;2.1262;
1318.5000;0.5299;2.1216;
1318.8000;0.5372;2.1401;
1319.1000;0.5364;2.1378;
1319.4000;0.5356;2.1378;
1319.7000;0.5348;2.1378;
1320.0000;0.5332;2.1401;
1320.3000;0.5389;2.1401;
1320.6000;0.5372;2.1262;
1320.9000;0.5372;2.1216;
1321.2000;0.5364;2.1378;
1321.5000;0.5340;2.1262;
1321.8000;0.5421;2.1332;
1322.1000;0.5372;2.1262;
1322.4000;0.5381;2.1355;
1322.7000;0.5364;2.1216;
1323.0000;0.5348;2.1193;
1323.3000;0.5348;2.1239;
1323.6000;0.5356;2.1309;
1323.9000;0.5372;2.1285;
1324.2000;0.5372;2.1285;
1324.5000;0.5364;2.1262;
1324.8000;0.5356;2.1239;
1325.1000;0.5348;2.1239;
1325.4000;0.5372;2.1285;
1325.7000;0.5348;2.1124;
1326.0000;0.5364;2.1100;
1326.3000;0.5348;2.1077;
1326.6000;0.5364;2.1077;
1326.9000;0.5348;2.1008;
1327.2000;0.5348;2.1008;
1327.5000;0.5389;2.1193;
1327.8000;0.5381;2.1193;
1328.1000;0.5283;2.1054;
1328.4000;0.5348;2.1285;
1328.7000;0.5340;2.1216;
1329.0000;0.5405;2.1309;
1329.3000;0.5356;2.1285;
1329.6000;0.5332;2.1216;
1329.9000;0.5315;2.1147;
1330.2000;0.5372;2.1355;
1330.5000;0.5299;2.1170;
1330.8000;0.5307;2.1100;
1331.1000;0.5275;2.1054;
1331.4000;0.5364;2.1332;
1331.7000;0.5389;2.1517;
1332.0000;0.5348;2.1378;
1332.3000;0.5356;2.1332;
1332.6000;0.5389;2.1471;
1332.9000;0.5389;2.1447;
1333.2000;0.5356;2.1309;
1333.5000;0.5356;2.1309;
1333.8000;0.5348;2.1332;
1334.1000;0.5364;2.1355;
1334.4000;0.5340;2.1285;
1334.7000;0.5356;2.1355;
1335.0000;0.5315;2.1262;
1335.3000;0.5332;2.1401;
1335.6000;0.5348;2.1494;
1335.9000;0.5364;2.1563;
1336.2000;0.5340;2.1471;
1336.5000;0.5356;2.1494;
1336.8000;0.5364;2.1563;
1337.1000;0.5372;2.1517;
1337.4000;0.5348;2.1424;
1337.7000;0.5356;2.1401;
1338.0000;0.5348;2.1401;
1338.3000;0.5332;2.1378;
1338.6000;0.5332;2.1332;
1338.9000;0.5372;2.1447;
1339.2000;0.5372;2.1540;
1339.5000;0.5356;2.1517;
1339.8000;0.5356;2.1471;
1340.1000;0.5324;2.1447;
1340.4000;0.5364;2.1586;
1340.7000;0.5372;2.1609;
1341.0000;0.5348;2.1471;
1341.3000;0.5389;2.1540;
1341.6000;0.5348;2.1378;
1341.9000;0.5356;2.1332;
1342.2000;0.5348;2.1239;
1342.5000;0.5372;2.1262;
1342.8000;0.5389;2.1285;
1343.1000;0.5291;2.1100;
1343.4000;0.5372;2.1401;
1343.7000;0.5348;2.1401;
1344.0000;0.5324;2.1309;
1344.3000;0.5364;2.1355;
1344.6000;0.5332;2.1285;
1344.9000;0.5356;2.1355;
1345.2000;0.5364;2.1285;
1345.5000;0.5348;2.1309;
1345.8000;0.5324;2.1285;
1346.1000;0.5372;2.1447;
1346.4000;0.5356;2.1424;
1346.7000;0.5364;2.1447;
1347.0000;0.5348;2.1378;
1347.3000;0.5364;2.1378;
1347.6000;0.5348;2.1262;
1347.9000;0.5397;2.1355;
1348.2000;0.5372;2.1285;
1348.5000;0.5340;2.1309;
1348.8000;0.5364;2.1332;
1349.1000;0.5356;2.1262;
1349.4000;0.5356;2.1262;
1349.7000;0.5348;2.1239;
1350.0000;0.5364;2.1216;
1350.3000;0.5372;2.1239;
1350.6000;0.5389;2.1262;
1350.9000;0.5372;2.1193;
1351.2000;0.5381;2.1262;
1351.5000;0.5356;2.1170;
1351.8000;0.5413;2.1309;
1352.1000;0.5356;2.1285;
1352.4000;0.5356;2.1239;
1352.7000;0.5397;2.1309;
1353.0000;0.5340;2.1147;
1353.3000;0.5356;2.1147;
1353.6000;0.5356;2.1193;
1353.9000;0.5340;2.1170;
1354.2000;0.5364;2.1239;
1354.5000;0.5364;2.1262;
1354.8000;0.5364;2.1332;
1355.1000;0.5372;2.1332;
1355.4000;0.5340;2.1239;
1355.7000;0.5364;2.1309;
1356.0000;0.5348;2.1262;
1356.3000;0.5356;2.1147;
1356.6000;0.5324;2.1100;
1356.9000;0.5332;2.1100;
1357.2000;0.5340;2.1124;
1357.5000;0.5348;2.1170;
1357.8000;0.5340;2.1193;
1358.1000;0.5340;2.1193;
1358.4000;0.5470;2.1471;
1358.7000;0.5315;2.1124;
1359.0000;0.5348;2.1216;
1359.3000;0.5381;2.1262;
1359.6000;0.5364;2.1077;
1359.9000;0.5332;2.1031;
1360.2000;0.5372;2.1193;
1360.5000;0.5356;2.1193;
1360.8000;0.5372;2.1216;
1361.1000;0.5421;2.1332;
1361.4000;0.5356;2.1147;
1361.7000;0.5356;2.1054;
1362.0000;0.5364;2.1100;
1362.3000;0.5364;2.1170;
1362.6000;0.5356;2.1077;
1362.9000;0.5348;2.1077;
1363.2000;0.5348;2.1193;
1363.5000;0.5340;2.1239;
1363.8000;0.5372;2.1239;
1364.1000;0.5356;2.1147;
1364.4000;0.5315;2.1077;
1364.7000;0.5348;2.1193;
1365.0000;0.5348;2.1216;
1365.3000;0.5348;2.1378;
1365.6000;0.5348;2.1424;
1365.9000;0.5340;2.1424;
1366.2000;0.5364;2.1517;
1366.5000;0.5356;2.1424;
1366.8000;0.5324;2.1424;
1367.1000;0.5356;2.1447;
1367.4000;0.5348;2.1401;
1367.7000;0.5348;2.1309;
1368.0000;0.5397;2.1540;
1368.3000;0.5324;2.1239;
1368.6000;0.5364;2.1262;
1368.9000;0.5356;2.1147;
1369.2000;0.5340;2.1147;
1369.5000;0.5348;2.1239;
1369.8000;0.5364;2.1216;
1370.1000;0.5258;2.0962;
1370.4000;0.5315;2.1077;
1370.7000;0.5356;2.1100;
1371.0000;0.5332;2.1031;
1371.3000;0.5258;2.0846;
1371.6000;0.5291;2.0915;
1371.9000;0.5348;2.1124;
1372.2000;0.5356;2.1193;
1372.5000;0.5348;2.1216;
1372.8000;0.5267;2.1077;
1373.1000;0.5364;2.1239;
1373.4000;0.5356;2.1147;
1373.7000;0.5381;2.1170;
1374.0000;0.5356;2.1147;
1374.3000;0.5332;2.1077;
1374.6000;0.5348;2.1054;
1374.9000;0.5348;2.1147;
1375.2000;0.5372;2.1147;
1375.5000;0.5348;2.1193;
1375.8000;0.5372;2.1216;
1376.1000;0.5348;2.1147;
1376.4000;0.5364;2.1193;
1376.7000;0.5340;2.1077;
1377.0000;0.5389;2.1193;
1377.3000;0.5348;2.1170;
1377.6000;0.5364;2.1124;
1377.9000;0.5348;2.1170;
1378.2000;0.5429;2.1309;
1378.5000;0.5364;2.1216;
1378.8000;0.5389;2.1401;
1379.1000;0.5364;2.1285;
1379.4000;0.5340;2.1239;
1379.7000;0.5356;2.1147;
1380.0000;0.5356;2.1193;
1380.3000;0.5356;2.1147;
1380.6000;0.5356;2.1239;
1380.9000;0.5340;2.1216;
1381.2000;0.5348;2.1285;
1381.5000;0.5446;2.1447;
1381.8000;0.5372;2.1239;
1382.1000;0.5348;2.1239;
1382.4000;0.5356;2.1285;
1382.7000;0.5364;2.1309;
1383.0000;0.5372;2.1332;
1383.3000;0.5381;2.1401;
1383.6000;0.5348;2.1355;
1383.9000;0.5364;2.1355;
1384.2000;0.5356;2.1355;
1384.5000;0.5332;2.1309;
1384.8000;0.5364;2.1285;
1385.1000;0.5389;2.1332;
1385.4000;0.5389;2.1355;
1385.7000;0.5364;2.1378;
1386.0000;0.5356;2.1378;
1386.3000;0.5454;2.1679;
1386.6000;0.5356;2.1401;
1386.9000;0.5356;2.1401;
1387.2000;0.5372;2.1447;
1387.5000;0.5299;2.1216;
1387.8000;0.5429;2.1586;
1388.1000;0.5372;2.1355;
1388.4000;0.5348;2.1332;
1388.7000;0.5315;2.1262;
1389.0000;0.5340;2.1309;
1389.3000;0.5356;2.1401;
1389.6000;0.5340;2.1332;
1389.9000;0.5397;2.1447;
1390.2000;0.5348;2.1378;
1390.5000;0.5364;2.1401;
1390.8000;0.5340;2.1401;
1391.1000;0.5348;2.1447;
1391.4000;0.5348;2.1447;
1391.7000;0.5364;2.1471;
1392.0000;0.5348;2.1309;
1392.3000;0.5364;2.1262;
1392.6000;0.5348;2.1262;
1392.9000;0.5315;2.1124;
1393.2000;0.5348;2.1216;
1393.5000;0.5348;2.1170;
1393.8000;0.5372;2.1170;
1394.1000;0.5372;2.1285;
1394.4000;0.5356;2.1170;
1394.7000;0.5364;2.1239;
1395.0000;0.5332;2.1170;
1395.3000;0.5340;2.1262;
1395.6000;0.5356;2.1309;
1395.9000;0.5372;2.1378;
1396.2000;0.5381;2.1424;
1396.5000;0.5348;2.1332;
1396.8000;0.5364;2.1332;
1397.1000;0.5324;2.1216;
1397.4000;0.5324;2.1124;
1397.7000;0.5332;2.1077;
1398.0000;0.5348;2.1124;
1398.3000;0.5348;2.1170;
1398.6000;0.5356;2.1124;
1398.9000;0.5364;2.1124;
1399.2000;0.5364;2.1170;
1399.5000;0.5324;2.1031;
1399.8000;0.5364;2.1100;
