time/ms;Fluo/V;P700 deltaI/I x10³;
-199.8000;0.3565;0.6380;
-199.5000;0.3582;0.6404;
-199.2000;0.3541;0.6307;
-198.9000;0.3614;0.6428;
-198.6000;0.3590;0.6453;
-198.3000;0.3590;0.6453;
-198.0000;0.3590;0.6477;
-197.7000;0.3582;0.6428;
-197.4000;0.3598;0.6453;
-197.1000;0.3639;0.6575;
-196.8000;0.3573;0.6477;
-196.5000;0.3606;0.6575;
-196.2000;0.3630;0.6745;
-195.9000;0.3598;0.6623;
-195.6000;0.3622;0.6648;
-195.3000;0.3606;0.6526;
-195.0000;0.3622;0.6599;
-194.7000;0.3590;0.6648;
-194.4000;0.3582;0.6575;
-194.1000;0.3582;0.6575;
-193.8000;0.3582;0.6526;
-193.5000;0.3606;0.6599;
-193.2000;0.3582;0.6550;
-192.9000;0.3582;0.6526;
-192.6000;0.3606;0.6648;
-192.3000;0.3590;0.6648;
-192.0000;0.3606;0.6696;
-191.7000;0.3606;0.6696;
-191.4000;0.3606;0.6745;
-191.1000;0.3606;0.6721;
-190.8000;0.3614;0.6696;
-190.5000;0.3573;0.6501;
-190.2000;0.3590;0.6380;
-189.9000;0.3622;0.6331;
-189.6000;0.3622;0.6307;
-189.3000;0.3590;0.6234;
-189.0000;0.3590;0.6161;
-188.7000;0.3582;0.6136;
-188.4000;0.3484;0.5917;
-188.1000;0.3598;0.6112;
-187.8000;0.3598;0.6161;
-187.5000;0.3582;0.6185;
-187.2000;0.3590;0.6209;
-186.9000;0.3679;0.6477;
-186.6000;0.3590;0.6380;
-186.3000;0.3598;0.6380;
-186.0000;0.3598;0.6380;
-185.7000;0.3606;0.6331;
-185.4000;0.3598;0.6234;
-185.1000;0.3590;0.6185;
-184.8000;0.3614;0.6258;
-184.5000;0.3598;0.6258;
-184.2000;0.3598;0.6234;
-183.9000;0.3598;0.6307;
-183.6000;0.3606;0.6380;
-183.3000;0.3647;0.6501;
-183.0000;0.3614;0.6501;
-182.7000;0.3606;0.6453;
-182.4000;0.3598;0.6428;
-182.1000;0.3598;0.6355;
-181.8000;0.3606;0.6355;
-181.5000;0.3582;0.6380;
-181.2000;0.3639;0.6526;
-180.9000;0.3639;0.6526;
-180.6000;0.3622;0.6355;
-180.3000;0.3622;0.6380;
-180.0000;0.3606;0.6331;
-179.7000;0.3614;0.6331;
-179.4000;0.3647;0.6404;
-179.1000;0.3598;0.6234;
-178.8000;0.3614;0.6088;
-178.5000;0.3606;0.6039;
-178.2000;0.3630;0.6161;
-177.9000;0.3598;0.6112;
-177.6000;0.3598;0.6258;
-177.3000;0.3671;0.6501;
-177.0000;0.3598;0.6331;
-176.7000;0.3598;0.6355;
-176.4000;0.3606;0.6380;
-176.1000;0.3614;0.6331;
-175.8000;0.3647;0.6355;
-175.5000;0.3622;0.6307;
-175.2000;0.3630;0.6307;
-174.9000;0.3606;0.6307;
-174.6000;0.3622;0.6404;
-174.3000;0.3606;0.6380;
-174.0000;0.3582;0.6185;
-173.7000;0.3614;0.6209;
-173.4000;0.3622;0.6282;
-173.1000;0.3614;0.6234;
-172.8000;0.3614;0.6161;
-172.5000;0.3606;0.6234;
-172.2000;0.3614;0.6234;
-171.9000;0.3525;0.5990;
-171.6000;0.3573;0.6185;
-171.3000;0.3614;0.6282;
-171.0000;0.3598;0.6331;
-170.7000;0.3606;0.6380;
-170.4000;0.3606;0.6404;
-170.1000;0.3598;0.6428;
-169.8000;0.3598;0.6428;
-169.5000;0.3606;0.6501;
-169.2000;0.3598;0.6550;
-168.9000;0.3687;0.6648;
-168.6000;0.3655;0.6623;
-168.3000;0.3614;0.6501;
-168.0000;0.3614;0.6501;
-167.7000;0.3598;0.6453;
-167.4000;0.3598;0.6453;
-167.1000;0.3614;0.6453;
-166.8000;0.3606;0.6477;
-166.5000;0.3614;0.6428;
-166.2000;0.3614;0.6453;
-165.9000;0.3614;0.6453;
-165.6000;0.3614;0.6428;
-165.3000;0.3606;0.6355;
-165.0000;0.3606;0.6258;
-164.7000;0.3614;0.6307;
-164.4000;0.3622;0.6404;
-164.1000;0.3679;0.6623;
-163.8000;0.3606;0.6380;
-163.5000;0.3557;0.6258;
-163.2000;0.3663;0.6477;
-162.9000;0.3606;0.6209;
-162.6000;0.3614;0.6234;
-162.3000;0.3614;0.6331;
-162.0000;0.3606;0.6282;
-161.7000;0.3622;0.6234;
-161.4000;0.3704;0.6355;
-161.1000;0.3622;0.6088;
-160.8000;0.3614;0.6185;
-160.5000;0.3630;0.6209;
-160.2000;0.3630;0.6234;
-159.9000;0.3606;0.6234;
-159.6000;0.3622;0.6355;
-159.3000;0.3663;0.6453;
-159.0000;0.3630;0.6380;
-158.7000;0.3582;0.6209;
-158.4000;0.3622;0.6282;
-158.1000;0.3614;0.6282;
-157.8000;0.3639;0.6209;
-157.5000;0.3622;0.6136;
-157.2000;0.3671;0.6282;
-156.9000;0.3639;0.6136;
-156.6000;0.3639;0.6161;
-156.3000;0.3639;0.6185;
-156.0000;0.3622;0.6185;
-155.7000;0.3590;0.6136;
-155.4000;0.3614;0.6209;
-155.1000;0.3647;0.6307;
-154.8000;0.3622;0.6355;
-154.5000;0.3606;0.6404;
-154.2000;0.3606;0.6428;
-153.9000;0.3639;0.6550;
-153.6000;0.3614;0.6404;
-153.3000;0.3630;0.6380;
-153.0000;0.3630;0.6380;
-152.7000;0.3630;0.6428;
-152.4000;0.3614;0.6282;
-152.1000;0.3630;0.6209;
-151.8000;0.3614;0.6136;
-151.5000;0.3639;0.6185;
-151.2000;0.3622;0.6185;
-150.9000;0.3655;0.6380;
-150.6000;0.3647;0.6331;
-150.3000;0.3647;0.6380;
-150.0000;0.3622;0.6307;
-149.7000;0.3687;0.6428;
-149.4000;0.3679;0.6331;
-149.1000;0.3630;0.6209;
-148.8000;0.3630;0.6331;
-148.5000;0.3622;0.6331;
-148.2000;0.3671;0.6477;
-147.9000;0.3630;0.6380;
-147.6000;0.3614;0.6307;
-147.3000;0.3663;0.6355;
-147.0000;0.3614;0.6234;
-146.7000;0.3639;0.6234;
-146.4000;0.3639;0.6258;
-146.1000;0.3622;0.6185;
-145.8000;0.3622;0.6185;
-145.5000;0.3639;0.6209;
-145.2000;0.3630;0.6209;
-144.9000;0.3671;0.6307;
-144.6000;0.3614;0.6258;
-144.3000;0.3622;0.6258;
-144.0000;0.3639;0.6258;
-143.7000;0.3639;0.6258;
-143.4000;0.3696;0.6477;
-143.1000;0.3647;0.6282;
-142.8000;0.3630;0.6185;
-142.5000;0.3614;0.6282;
-142.2000;0.3630;0.6234;
-141.9000;0.3622;0.6185;
-141.6000;0.3639;0.6209;
-141.3000;0.3663;0.6258;
-141.0000;0.3647;0.6282;
-140.7000;0.3639;0.6209;
-140.4000;0.3590;0.6088;
-140.1000;0.3647;0.6355;
-139.8000;0.3647;0.6355;
-139.5000;0.3647;0.6282;
-139.2000;0.3639;0.6282;
-138.9000;0.3647;0.6355;
-138.6000;0.3647;0.6307;
-138.3000;0.3639;0.6282;
-138.0000;0.3639;0.6282;
-137.7000;0.3647;0.6331;
-137.4000;0.3630;0.6428;
-137.1000;0.3630;0.6428;
-136.8000;0.3630;0.6477;
-136.5000;0.3622;0.6355;
-136.2000;0.3712;0.6501;
-135.9000;0.3622;0.6307;
-135.6000;0.3671;0.6404;
-135.3000;0.3630;0.6331;
-135.0000;0.3630;0.6404;
-134.7000;0.3639;0.6355;
-134.4000;0.3630;0.6331;
-134.1000;0.3679;0.6355;
-133.8000;0.3655;0.6307;
-133.5000;0.3647;0.6307;
-133.2000;0.3614;0.6234;
-132.9000;0.3639;0.6209;
-132.6000;0.3622;0.6161;
-132.3000;0.3622;0.6185;
-132.0000;0.3630;0.6234;
-131.7000;0.3622;0.6136;
-131.4000;0.3663;0.6307;
-131.1000;0.3622;0.6209;
-130.8000;0.3639;0.6282;
-130.5000;0.3630;0.6258;
-130.2000;0.3614;0.6209;
-129.9000;0.3647;0.6258;
-129.6000;0.3630;0.6185;
-129.3000;0.3720;0.6355;
-129.0000;0.3655;0.6088;
-128.7000;0.3671;0.6112;
-128.4000;0.3614;0.5990;
-128.1000;0.3647;0.6161;
-127.8000;0.3630;0.6185;
-127.5000;0.3639;0.6209;
-127.2000;0.3655;0.6209;
-126.9000;0.3639;0.6185;
-126.6000;0.3663;0.6185;
-126.3000;0.3671;0.6185;
-126.0000;0.3655;0.6136;
-125.7000;0.3647;0.6258;
-125.4000;0.3639;0.6185;
-125.1000;0.3679;0.6307;
-124.8000;0.3655;0.6258;
-124.5000;0.3639;0.6161;
-124.2000;0.3639;0.6136;
-123.9000;0.3655;0.6136;
-123.6000;0.3712;0.6380;
-123.3000;0.3671;0.6161;
-123.0000;0.3647;0.6063;
-122.7000;0.3655;0.6136;
-122.4000;0.3647;0.6185;
-122.1000;0.3655;0.6209;
-121.8000;0.3655;0.6209;
-121.5000;0.3647;0.6185;
-121.2000;0.3655;0.6136;
-120.9000;0.3606;0.6039;
-120.6000;0.3639;0.6088;
-120.3000;0.3671;0.6112;
-120.0000;0.3655;0.6185;
-119.7000;0.3655;0.6258;
-119.4000;0.3590;0.6161;
-119.1000;0.3647;0.6234;
-118.8000;0.3663;0.6307;
-118.5000;0.3655;0.6380;
-118.2000;0.3663;0.6428;
-117.9000;0.3704;0.6526;
-117.6000;0.3679;0.6404;
-117.3000;0.3630;0.6258;
-117.0000;0.3671;0.6307;
-116.7000;0.3671;0.6209;
-116.4000;0.3639;0.6063;
-116.1000;0.3663;0.6136;
-115.8000;0.3663;0.6185;
-115.5000;0.3655;0.6136;
-115.2000;0.3671;0.6063;
-114.9000;0.3663;0.6088;
-114.6000;0.3679;0.6112;
-114.3000;0.3663;0.6063;
-114.0000;0.3639;0.5966;
-113.7000;0.3663;0.6185;
-113.4000;0.3671;0.6136;
-113.1000;0.3655;0.6088;
-112.8000;0.3655;0.6185;
-112.5000;0.3663;0.6234;
-112.2000;0.3671;0.6307;
-111.9000;0.3679;0.6234;
-111.6000;0.3712;0.6307;
-111.3000;0.3663;0.6185;
-111.0000;0.3679;0.6258;
-110.7000;0.3671;0.6185;
-110.4000;0.3671;0.6234;
-110.1000;0.3671;0.6161;
-109.8000;0.3679;0.6209;
-109.5000;0.3622;0.6063;
-109.2000;0.3696;0.6185;
-108.9000;0.3671;0.6088;
-108.6000;0.3614;0.5893;
-108.3000;0.3687;0.6014;
-108.0000;0.3679;0.6063;
-107.7000;0.3687;0.6063;
-107.4000;0.3679;0.6185;
-107.1000;0.3647;0.6185;
-106.8000;0.3696;0.6331;
-106.5000;0.3671;0.6282;
-106.2000;0.3663;0.6307;
-105.9000;0.3663;0.6404;
-105.6000;0.3687;0.6380;
-105.3000;0.3696;0.6477;
-105.0000;0.3663;0.6355;
-104.7000;0.3663;0.6307;
-104.4000;0.3679;0.6355;
-104.1000;0.3663;0.6355;
-103.8000;0.3687;0.6355;
-103.5000;0.3671;0.6234;
-103.2000;0.3687;0.6258;
-102.9000;0.3671;0.6136;
-102.6000;0.3679;0.6136;
-102.3000;0.3687;0.6112;
-102.0000;0.3687;0.6185;
-101.7000;0.3696;0.6161;
-101.4000;0.3679;0.6088;
-101.1000;0.3696;0.6161;
-100.8000;0.3679;0.6161;
-100.5000;0.3679;0.6161;
-100.2000;0.3696;0.6209;
-99.9000;0.3679;0.6331;
-99.6000;0.3679;0.6331;
-99.3000;0.3696;0.6355;
-99.0000;0.3671;0.6258;
-98.7000;0.3679;0.6282;
-98.4000;0.3736;0.6380;
-98.1000;0.3671;0.6307;
-97.8000;0.3704;0.6355;
-97.5000;0.3696;0.6428;
-97.2000;0.3679;0.6282;
-96.9000;0.3687;0.6258;
-96.6000;0.3679;0.6258;
-96.3000;0.3687;0.6307;
-96.0000;0.3736;0.6477;
-95.7000;0.3712;0.6331;
-95.4000;0.3696;0.6282;
-95.1000;0.3655;0.6258;
-94.8000;0.3679;0.6307;
-94.5000;0.3696;0.6355;
-94.2000;0.3720;0.6428;
-93.9000;0.3712;0.6355;
-93.6000;0.3712;0.6282;
-93.3000;0.3687;0.6161;
-93.0000;0.3663;0.5941;
-92.7000;0.3720;0.6136;
-92.4000;0.3704;0.6136;
-92.1000;0.3736;0.6185;
-91.8000;0.3720;0.6136;
-91.5000;0.3720;0.6136;
-91.2000;0.3704;0.6088;
-90.9000;0.3687;0.6014;
-90.6000;0.3744;0.6088;
-90.3000;0.3696;0.6039;
-90.0000;0.3704;0.6014;
-89.7000;0.3687;0.6014;
-89.4000;0.3712;0.6088;
-89.1000;0.3696;0.6088;
-88.8000;0.3720;0.6136;
-88.5000;0.3712;0.6088;
-88.2000;0.3720;0.6063;
-87.9000;0.3728;0.6161;
-87.6000;0.3728;0.6185;
-87.3000;0.3679;0.6063;
-87.0000;0.3704;0.6039;
-86.7000;0.3728;0.5990;
-86.4000;0.3704;0.5990;
-86.1000;0.3696;0.5966;
-85.8000;0.3696;0.5966;
-85.5000;0.3647;0.5795;
-85.2000;0.3728;0.5990;
-84.9000;0.3696;0.5868;
-84.6000;0.3687;0.5771;
-84.3000;0.3704;0.5820;
-84.0000;0.3728;0.5893;
-83.7000;0.3728;0.5990;
-83.4000;0.3679;0.5990;
-83.1000;0.3687;0.5990;
-82.8000;0.3712;0.6063;
-82.5000;0.3696;0.6063;
-82.2000;0.3728;0.6063;
-81.9000;0.3712;0.6039;
-81.6000;0.3712;0.6112;
-81.3000;0.3720;0.6161;
-81.0000;0.3663;0.6088;
-80.7000;0.3720;0.6209;
-80.4000;0.3720;0.6088;
-80.1000;0.3736;0.6088;
-79.8000;0.3679;0.5966;
-79.5000;0.3728;0.6136;
-79.2000;0.3655;0.5990;
-78.9000;0.3785;0.6209;
-78.6000;0.3744;0.6014;
-78.3000;0.3728;0.6014;
-78.0000;0.3826;0.6282;
-77.7000;0.3736;0.5990;
-77.4000;0.3704;0.5868;
-77.1000;0.3761;0.6014;
-76.8000;0.3793;0.6088;
-76.5000;0.3671;0.5625;
-76.2000;0.3744;0.5795;
-75.9000;0.3753;0.5771;
-75.6000;0.3728;0.5771;
-75.3000;0.3720;0.5795;
-75.0000;0.3744;0.5893;
-74.7000;0.3704;0.5893;
-74.4000;0.3728;0.6014;
-74.1000;0.3736;0.6039;
-73.8000;0.3753;0.6063;
-73.5000;0.3671;0.5966;
-73.2000;0.3736;0.6088;
-72.9000;0.3720;0.6088;
-72.6000;0.3728;0.6209;
-72.3000;0.3761;0.6234;
-72.0000;0.3793;0.6331;
-71.7000;0.3728;0.6136;
-71.4000;0.3736;0.6063;
-71.1000;0.3744;0.6063;
-70.8000;0.3753;0.6014;
-70.5000;0.3728;0.5941;
-70.2000;0.3761;0.6039;
-69.9000;0.3736;0.5917;
-69.6000;0.3736;0.5795;
-69.3000;0.3728;0.5747;
-69.0000;0.3736;0.5698;
-68.7000;0.3761;0.5625;
-68.4000;0.3761;0.5771;
-68.1000;0.3753;0.5820;
-67.8000;0.3761;0.5820;
-67.5000;0.3769;0.5941;
-67.2000;0.3753;0.5941;
-66.9000;0.3761;0.5893;
-66.6000;0.3744;0.5868;
-66.3000;0.3744;0.5941;
-66.0000;0.3761;0.5966;
-65.7000;0.3736;0.5966;
-65.4000;0.3753;0.6088;
-65.1000;0.3761;0.6088;
-64.8000;0.3777;0.6088;
-64.5000;0.3761;0.6063;
-64.2000;0.3712;0.5844;
-63.9000;0.3777;0.5966;
-63.6000;0.3769;0.5917;
-63.3000;0.3785;0.6112;
-63.0000;0.3753;0.6039;
-62.7000;0.3834;0.6209;
-62.4000;0.3753;0.6039;
-62.1000;0.3761;0.6088;
-61.8000;0.3761;0.6161;
-61.5000;0.3777;0.6209;
-61.2000;0.3769;0.6234;
-60.9000;0.3785;0.6234;
-60.6000;0.3761;0.6234;
-60.3000;0.3769;0.6234;
-60.0000;0.3769;0.6185;
-59.7000;0.3785;0.6234;
-59.4000;0.3769;0.6209;
-59.1000;0.3753;0.6185;
-58.8000;0.3785;0.6282;
-58.5000;0.3777;0.6307;
-58.2000;0.3785;0.6209;
-57.9000;0.3777;0.6161;
-57.6000;0.3761;0.6063;
-57.3000;0.3785;0.6185;
-57.0000;0.3810;0.6258;
-56.7000;0.3785;0.6161;
-56.4000;0.3761;0.6161;
-56.1000;0.3801;0.6307;
-55.8000;0.3704;0.6112;
-55.5000;0.3769;0.6307;
-55.2000;0.3769;0.6234;
-54.9000;0.3858;0.6477;
-54.6000;0.3777;0.6282;
-54.3000;0.3834;0.6453;
-54.0000;0.3850;0.6428;
-53.7000;0.3785;0.6307;
-53.4000;0.3818;0.6355;
-53.1000;0.3793;0.6282;
-52.8000;0.3785;0.6307;
-52.5000;0.3826;0.6380;
-52.2000;0.3810;0.6331;
-51.9000;0.3793;0.6307;
-51.6000;0.3801;0.6258;
-51.3000;0.3777;0.6161;
-51.0000;0.3785;0.6282;
-50.7000;0.3777;0.6234;
-50.4000;0.3777;0.6161;
-50.1000;0.3793;0.6161;
-49.8000;0.3793;0.6234;
-49.5000;0.3810;0.6307;
-49.2000;0.3785;0.6209;
-48.9000;0.3785;0.6088;
-48.6000;0.3793;0.6039;
-48.3000;0.3777;0.6014;
-48.0000;0.3810;0.6161;
-47.7000;0.3785;0.6088;
-47.4000;0.3810;0.6136;
-47.1000;0.3810;0.6088;
-46.8000;0.3834;0.6039;
-46.5000;0.3793;0.6063;
-46.2000;0.3826;0.6136;
-45.9000;0.3818;0.6161;
-45.6000;0.3793;0.6112;
-45.3000;0.3801;0.6136;
-45.0000;0.3801;0.6161;
-44.7000;0.3810;0.6185;
-44.4000;0.3826;0.6209;
-44.1000;0.3801;0.6258;
-43.8000;0.3810;0.6234;
-43.5000;0.3818;0.6209;
-43.2000;0.3842;0.6209;
-42.9000;0.3826;0.6136;
-42.6000;0.3826;0.6185;
-42.3000;0.3785;0.6088;
-42.0000;0.3834;0.6136;
-41.7000;0.3818;0.6136;
-41.4000;0.3826;0.6185;
-41.1000;0.3818;0.6014;
-40.8000;0.3777;0.5844;
-40.5000;0.3834;0.5917;
-40.2000;0.3801;0.5795;
-39.9000;0.3818;0.5771;
-39.6000;0.3826;0.5795;
-39.3000;0.3834;0.5893;
-39.0000;0.3826;0.5966;
-38.7000;0.3793;0.5844;
-38.4000;0.3834;0.5966;
-38.1000;0.3842;0.5941;
-37.8000;0.3834;0.5966;
-37.5000;0.3834;0.5941;
-37.2000;0.3810;0.5722;
-36.9000;0.3842;0.5747;
-36.6000;0.3850;0.5771;
-36.3000;0.3842;0.5771;
-36.0000;0.3842;0.5893;
-35.7000;0.3850;0.5820;
-35.4000;0.3891;0.5820;
-35.1000;0.3810;0.5625;
-34.8000;0.3858;0.5795;
-34.5000;0.3858;0.5844;
-34.2000;0.3850;0.5917;
-33.9000;0.3858;0.5917;
-33.6000;0.3842;0.5868;
-33.3000;0.3850;0.5844;
-33.0000;0.3858;0.5844;
-32.7000;0.3850;0.5844;
-32.4000;0.3850;0.5868;
-32.1000;0.3842;0.5868;
-31.8000;0.3850;0.5844;
-31.5000;0.3850;0.5795;
-31.2000;0.3850;0.5795;
-30.9000;0.3858;0.5868;
-30.6000;0.3850;0.5893;
-30.3000;0.3867;0.5990;
-30.0000;0.3858;0.6014;
-29.7000;0.3842;0.5990;
-29.4000;0.3858;0.6014;
-29.1000;0.3842;0.5990;
-28.8000;0.3777;0.5868;
-28.5000;0.3842;0.5941;
-28.2000;0.3867;0.5966;
-27.9000;0.3875;0.6014;
-27.6000;0.3875;0.5990;
-27.3000;0.3785;0.5844;
-27.0000;0.3867;0.5966;
-26.7000;0.3883;0.6014;
-26.4000;0.3850;0.5990;
-26.1000;0.3883;0.6161;
-25.8000;0.3883;0.6258;
-25.5000;0.3867;0.6136;
-25.2000;0.3883;0.6161;
-24.9000;0.3867;0.6088;
-24.6000;0.3834;0.5990;
-24.3000;0.3883;0.6088;
-24.0000;0.3883;0.6112;
-23.7000;0.3891;0.6234;
-23.4000;0.3842;0.6039;
-23.1000;0.3875;0.6039;
-22.8000;0.3875;0.6088;
-22.5000;0.3875;0.6136;
-22.2000;0.3883;0.6185;
-21.9000;0.3867;0.6063;
-21.6000;0.3891;0.6063;
-21.3000;0.3875;0.6136;
-21.0000;0.3891;0.6282;
-20.7000;0.3883;0.6282;
-20.4000;0.3899;0.6258;
-20.1000;0.3883;0.6112;
-19.8000;0.3875;0.6063;
-19.5000;0.3891;0.6112;
-19.2000;0.3891;0.6039;
-18.9000;0.3907;0.6088;
-18.6000;0.3883;0.6112;
-18.3000;0.3899;0.6136;
-18.0000;0.3907;0.6136;
-17.7000;0.3899;0.6039;
-17.4000;0.3923;0.6112;
-17.1000;0.3907;0.6063;
-16.8000;0.3891;0.6014;
-16.5000;0.3883;0.6014;
-16.2000;0.3907;0.5917;
-15.9000;0.3899;0.5844;
-15.6000;0.3899;0.5868;
-15.3000;0.3948;0.6039;
-15.0000;0.3899;0.5990;
-14.7000;0.3899;0.6063;
-14.4000;0.3883;0.6088;
-14.1000;0.3907;0.6209;
-13.8000;0.3915;0.6185;
-13.5000;0.3867;0.5917;
-13.2000;0.3899;0.5941;
-12.9000;0.3875;0.5990;
-12.6000;0.3899;0.6112;
-12.3000;0.3915;0.6161;
-12.0000;0.3932;0.6161;
-11.7000;0.3932;0.6063;
-11.4000;0.3907;0.6112;
-11.1000;0.3915;0.6161;
-10.8000;0.3915;0.6088;
-10.5000;0.3923;0.5990;
-10.2000;0.3923;0.6014;
-9.9000;0.3923;0.5990;
-9.6000;0.3932;0.5966;
-9.3000;0.3907;0.5990;
-9.0000;0.3964;0.6088;
-8.7000;0.3932;0.5990;
-8.4000;0.3932;0.5990;
-8.1000;0.3907;0.5893;
-7.8000;0.3932;0.5820;
-7.5000;0.3915;0.5844;
-7.2000;0.3923;0.5917;
-6.9000;0.3932;0.5990;
-6.6000;0.3948;0.5941;
-6.3000;0.3932;0.5941;
-6.0000;0.3948;0.5941;
-5.7000;0.3932;0.5941;
-5.4000;0.3883;0.5820;
-5.1000;0.3923;0.5893;
-4.8000;0.3989;0.6063;
-4.5000;0.3940;0.5917;
-4.2000;0.3948;0.5893;
-3.9000;0.3923;0.5917;
-3.6000;0.3940;0.6063;
-3.3000;0.3980;0.6161;
-3.0000;0.3883;0.5941;
-2.7000;0.3972;0.6088;
-2.4000;0.3956;0.6088;
-2.1000;0.3956;0.6088;
-1.8000;0.3956;0.6063;
-1.5000;0.3875;0.5868;
-1.2000;0.3948;0.6209;
-0.9000;0.3915;0.6112;
-0.6000;0.3980;0.6234;
-0.3000;0.4054;0.6355;
0.0000;0.4054;0.6355;
0.3000;0.4037;0.6161;
0.6000;0.4143;0.6282;
0.9000;0.4306;0.6672;
1.2000;0.4412;0.6915;
1.5000;0.4518;0.7256;
1.8000;0.4567;0.7475;
2.1000;0.4591;0.7597;
2.4000;0.4656;0.7743;
2.7000;0.4705;0.7865;
3.0000;0.4721;0.7962;
3.3000;0.4737;0.7938;
3.6000;0.4754;0.7914;
3.9000;0.4786;0.8084;
4.2000;0.4819;0.8084;
4.5000;0.4811;0.8109;
4.8000;0.4827;0.8109;
5.1000;0.4819;0.8182;
5.4000;0.4843;0.8303;
5.7000;0.4827;0.8255;
6.0000;0.4860;0.8279;
6.3000;0.4941;0.8596;
6.6000;0.4819;0.8279;
6.9000;0.4900;0.8425;
7.2000;0.4900;0.8449;
7.5000;0.4900;0.8547;
7.8000;0.4917;0.8523;
8.1000;0.4917;0.8523;
8.4000;0.4933;0.8523;
8.7000;0.4900;0.8328;
9.0000;0.4917;0.8425;
9.3000;0.4949;0.8571;
9.6000;0.4974;0.8547;
9.9000;0.4957;0.8571;
10.2000;0.4900;0.8401;
10.5000;0.4974;0.8620;
10.8000;0.4982;0.8620;
11.1000;0.4957;0.8547;
11.4000;0.4974;0.8571;
11.7000;0.4982;0.8596;
12.0000;0.4892;0.8303;
12.3000;0.4998;0.8547;
12.6000;0.4982;0.8547;
12.9000;0.4957;0.8449;
13.2000;0.5014;0.8523;
13.5000;0.5014;0.8523;
13.8000;0.4965;0.8449;
14.1000;0.4990;0.8449;
14.4000;0.5031;0.8523;
14.7000;0.4990;0.8376;
15.0000;0.5055;0.8474;
15.3000;0.5031;0.8523;
15.6000;0.5055;0.8449;
15.9000;0.5039;0.8376;
16.2000;0.5047;0.8498;
16.5000;0.5055;0.8523;
16.8000;0.5031;0.8498;
17.1000;0.5047;0.8547;
17.4000;0.5071;0.8571;
17.7000;0.5031;0.8425;
18.0000;0.5112;0.8523;
18.3000;0.5063;0.8303;
18.6000;0.5071;0.8303;
18.9000;0.4982;0.8133;
19.2000;0.5088;0.8376;
19.5000;0.5128;0.8547;
19.8000;0.5071;0.8449;
20.1000;0.5071;0.8425;
20.4000;0.5096;0.8498;
20.7000;0.5088;0.8498;
21.0000;0.5120;0.8547;
21.3000;0.5088;0.8376;
21.6000;0.5096;0.8401;
21.9000;0.5071;0.8401;
22.2000;0.5088;0.8523;
22.5000;0.5128;0.8620;
22.8000;0.5104;0.8547;
23.1000;0.5096;0.8547;
23.4000;0.5088;0.8547;
23.7000;0.5120;0.8596;
24.0000;0.5169;0.8669;
24.3000;0.5128;0.8571;
24.6000;0.5128;0.8644;
24.9000;0.5120;0.8596;
25.2000;0.5128;0.8571;
25.5000;0.5128;0.8571;
25.8000;0.5136;0.8523;
26.1000;0.5128;0.8449;
26.4000;0.5128;0.8401;
26.7000;0.5128;0.8425;
27.0000;0.5144;0.8498;
27.3000;0.5128;0.8401;
27.6000;0.5120;0.8376;
27.9000;0.5193;0.8596;
28.2000;0.5153;0.8474;
28.5000;0.5144;0.8449;
28.8000;0.5153;0.8523;
29.1000;0.5144;0.8523;
29.4000;0.5185;0.8523;
29.7000;0.5161;0.8547;
30.0000;0.5153;0.8547;
30.3000;0.5201;0.8596;
30.6000;0.5153;0.8547;
30.9000;0.5201;0.8596;
31.2000;0.5161;0.8498;
31.5000;0.5169;0.8401;
31.8000;0.5161;0.8328;
32.1000;0.5169;0.8425;
32.4000;0.5153;0.8449;
32.7000;0.5161;0.8498;
33.0000;0.5177;0.8498;
33.3000;0.5177;0.8425;
33.6000;0.5153;0.8498;
33.9000;0.5193;0.8596;
34.2000;0.5144;0.8523;
34.5000;0.5177;0.8523;
34.8000;0.5193;0.8498;
35.1000;0.5169;0.8523;
35.4000;0.5169;0.8498;
35.7000;0.5201;0.8596;
36.0000;0.5193;0.8596;
36.3000;0.5185;0.8571;
36.6000;0.5201;0.8571;
36.9000;0.5153;0.8523;
37.2000;0.5234;0.8742;
37.5000;0.5193;0.8596;
37.8000;0.5177;0.8596;
38.1000;0.5177;0.8596;
38.4000;0.5210;0.8669;
38.7000;0.5226;0.8620;
39.0000;0.5258;0.8717;
39.3000;0.5210;0.8693;
39.6000;0.5210;0.8669;
39.9000;0.5210;0.8644;
40.2000;0.5201;0.8498;
40.5000;0.5185;0.8425;
40.8000;0.5153;0.8303;
41.1000;0.5193;0.8425;
41.4000;0.5210;0.8425;
41.7000;0.5185;0.8401;
42.0000;0.5193;0.8523;
42.3000;0.5193;0.8644;
42.6000;0.5185;0.8620;
42.9000;0.5258;0.8742;
43.2000;0.5201;0.8596;
43.5000;0.5210;0.8571;
43.8000;0.5210;0.8523;
44.1000;0.5218;0.8547;
44.4000;0.5218;0.8620;
44.7000;0.5242;0.8571;
45.0000;0.5234;0.8523;
45.3000;0.5226;0.8474;
45.6000;0.5267;0.8571;
45.9000;0.5234;0.8547;
46.2000;0.5226;0.8620;
46.5000;0.5226;0.8596;
46.8000;0.5291;0.8717;
47.1000;0.5218;0.8547;
47.4000;0.5242;0.8644;
47.7000;0.5210;0.8620;
48.0000;0.5226;0.8644;
48.3000;0.5201;0.8693;
48.6000;0.5226;0.8571;
48.9000;0.5242;0.8571;
49.2000;0.5226;0.8547;
49.5000;0.5226;0.8523;
49.8000;0.5242;0.8620;
50.1000;0.5242;0.8596;
50.4000;0.5234;0.8620;
50.7000;0.5250;0.8620;
51.0000;0.5234;0.8571;
51.3000;0.5250;0.8547;
51.6000;0.5226;0.8571;
51.9000;0.5185;0.8449;
52.2000;0.5218;0.8547;
52.5000;0.5234;0.8644;
52.8000;0.5234;0.8693;
53.1000;0.5234;0.8742;
53.4000;0.5250;0.8669;
53.7000;0.5218;0.8620;
54.0000;0.5226;0.8620;
54.3000;0.5250;0.8669;
54.6000;0.5185;0.8474;
54.9000;0.5218;0.8498;
55.2000;0.5250;0.8620;
55.5000;0.5242;0.8474;
55.8000;0.5242;0.8449;
56.1000;0.5250;0.8547;
56.4000;0.5299;0.8596;
56.7000;0.5258;0.8498;
57.0000;0.5250;0.8474;
57.3000;0.5242;0.8352;
57.6000;0.5234;0.8401;
57.9000;0.5250;0.8425;
58.2000;0.5234;0.8303;
58.5000;0.5234;0.8279;
58.8000;0.5234;0.8255;
59.1000;0.5234;0.8328;
59.4000;0.5250;0.8352;
59.7000;0.5250;0.8352;
60.0000;0.5283;0.8498;
60.3000;0.5242;0.8474;
60.6000;0.5258;0.8547;
60.9000;0.5250;0.8498;
61.2000;0.5258;0.8425;
61.5000;0.5242;0.8328;
61.8000;0.5258;0.8449;
62.1000;0.5307;0.8571;
62.4000;0.5242;0.8425;
62.7000;0.5258;0.8425;
63.0000;0.5307;0.8523;
63.3000;0.5258;0.8376;
63.6000;0.5258;0.8449;
63.9000;0.5250;0.8449;
64.2000;0.5258;0.8376;
64.5000;0.5267;0.8401;
64.8000;0.5250;0.8425;
65.1000;0.5267;0.8449;
65.4000;0.5258;0.8376;
65.7000;0.5226;0.8328;
66.0000;0.5267;0.8474;
66.3000;0.5258;0.8498;
66.6000;0.5258;0.8474;
66.9000;0.5258;0.8352;
67.2000;0.5250;0.8401;
67.5000;0.5226;0.8449;
67.8000;0.5218;0.8523;
68.1000;0.5250;0.8523;
68.4000;0.5242;0.8425;
68.7000;0.5234;0.8401;
69.0000;0.5258;0.8401;
69.3000;0.5234;0.8376;
69.6000;0.5234;0.8352;
69.9000;0.5242;0.8328;
70.2000;0.5258;0.8328;
70.5000;0.5275;0.8303;
70.8000;0.5332;0.8449;
71.1000;0.5258;0.8255;
71.4000;0.5267;0.8230;
71.7000;0.5258;0.8352;
72.0000;0.5275;0.8376;
72.3000;0.5258;0.8328;
72.6000;0.5267;0.8328;
72.9000;0.5267;0.8352;
73.2000;0.5267;0.8303;
73.5000;0.5267;0.8303;
73.8000;0.5267;0.8303;
74.1000;0.5275;0.8376;
74.4000;0.5258;0.8401;
74.7000;0.5275;0.8425;
75.0000;0.5258;0.8401;
75.3000;0.5242;0.8376;
75.6000;0.5210;0.8279;
75.9000;0.5299;0.8474;
76.2000;0.5283;0.8547;
76.5000;0.5258;0.8449;
76.8000;0.5267;0.8449;
77.1000;0.5291;0.8498;
77.4000;0.5258;0.8523;
77.7000;0.5291;0.8571;
78.0000;0.5250;0.8523;
78.3000;0.5226;0.8401;
78.6000;0.5258;0.8474;
78.9000;0.5258;0.8376;
79.2000;0.5275;0.8498;
79.5000;0.5267;0.8449;
79.8000;0.5291;0.8498;
80.1000;0.5258;0.8547;
80.4000;0.5234;0.8498;
80.7000;0.5267;0.8523;
81.0000;0.5258;0.8523;
81.3000;0.5258;0.8498;
81.6000;0.5275;0.8474;
81.9000;0.5258;0.8498;
82.2000;0.5364;0.8888;
82.5000;0.5267;0.8547;
82.8000;0.5250;0.8498;
83.1000;0.5267;0.8547;
83.4000;0.5267;0.8620;
83.7000;0.5267;0.8620;
84.0000;0.5210;0.8474;
84.3000;0.5275;0.8571;
84.6000;0.5291;0.8620;
84.9000;0.5267;0.8571;
85.2000;0.5356;0.8717;
85.5000;0.5250;0.8523;
85.8000;0.5307;0.8669;
86.1000;0.5267;0.8571;
86.4000;0.5258;0.8498;
86.7000;0.5283;0.8523;
87.0000;0.5275;0.8596;
87.3000;0.5275;0.8596;
87.6000;0.5267;0.8498;
87.9000;0.5258;0.8449;
88.2000;0.5275;0.8498;
88.5000;0.5275;0.8498;
88.8000;0.5283;0.8523;
89.1000;0.5283;0.8498;
89.4000;0.5275;0.8449;
89.7000;0.5315;0.8498;
90.0000;0.5275;0.8328;
90.3000;0.5258;0.8303;
90.6000;0.5283;0.8303;
90.9000;0.5275;0.8376;
91.2000;0.5258;0.8449;
91.5000;0.5258;0.8376;
91.8000;0.5258;0.8376;
92.1000;0.5267;0.8352;
92.4000;0.5267;0.8376;
92.7000;0.5291;0.8449;
93.0000;0.5267;0.8376;
93.3000;0.5218;0.8230;
93.6000;0.5267;0.8449;
93.9000;0.5267;0.8425;
94.2000;0.5267;0.8255;
94.5000;0.5291;0.8303;
94.8000;0.5283;0.8376;
95.1000;0.5283;0.8352;
95.4000;0.5267;0.8328;
95.7000;0.5275;0.8352;
96.0000;0.5283;0.8401;
96.3000;0.5275;0.8523;
96.6000;0.5275;0.8596;
96.9000;0.5315;0.8790;
97.2000;0.5291;0.8742;
97.5000;0.5299;0.8693;
97.8000;0.5291;0.8596;
98.1000;0.5283;0.8571;
98.4000;0.5283;0.8498;
98.7000;0.5307;0.8523;
99.0000;0.5267;0.8328;
99.3000;0.5258;0.8352;
99.6000;0.5283;0.8352;
99.9000;0.5275;0.8449;
100.2000;0.5267;0.8401;
100.5000;0.5267;0.8352;
100.8000;0.5226;0.8230;
101.1000;0.5299;0.8401;
101.4000;0.5340;0.8498;
101.7000;0.5267;0.8328;
102.0000;0.5267;0.8328;
102.3000;0.5234;0.8206;
102.6000;0.5283;0.8303;
102.9000;0.5234;0.8230;
103.2000;0.5283;0.8449;
103.5000;0.5258;0.8303;
103.8000;0.5275;0.8449;
104.1000;0.5291;0.8401;
104.4000;0.5267;0.8328;
104.7000;0.5291;0.8352;
105.0000;0.5258;0.8328;
105.3000;0.5275;0.8376;
105.6000;0.5291;0.8376;
105.9000;0.5283;0.8376;
106.2000;0.5267;0.8328;
106.5000;0.5291;0.8376;
106.8000;0.5283;0.8352;
107.1000;0.5283;0.8425;
107.4000;0.5291;0.8449;
107.7000;0.5283;0.8474;
108.0000;0.5267;0.8376;
108.3000;0.5291;0.8449;
108.6000;0.5299;0.8498;
108.9000;0.5267;0.8376;
109.2000;0.5283;0.8303;
109.5000;0.5299;0.8376;
109.8000;0.5307;0.8376;
110.1000;0.5299;0.8352;
110.4000;0.5299;0.8425;
110.7000;0.5283;0.8401;
111.0000;0.5291;0.8376;
111.3000;0.5283;0.8352;
111.6000;0.5291;0.8376;
111.9000;0.5275;0.8376;
112.2000;0.5283;0.8401;
112.5000;0.5283;0.8401;
112.8000;0.5283;0.8352;
113.1000;0.5283;0.8352;
113.4000;0.5283;0.8279;
113.7000;0.5283;0.8206;
114.0000;0.5258;0.8182;
114.3000;0.5275;0.8230;
114.6000;0.5275;0.8303;
114.9000;0.5299;0.8352;
115.2000;0.5299;0.8376;
115.5000;0.5250;0.8303;
115.8000;0.5332;0.8352;
116.1000;0.5291;0.8255;
116.4000;0.5299;0.8352;
116.7000;0.5299;0.8328;
117.0000;0.5275;0.8279;
117.3000;0.5307;0.8449;
117.6000;0.5299;0.8401;
117.9000;0.5307;0.8449;
118.2000;0.5299;0.8449;
118.5000;0.5397;0.8742;
118.8000;0.5307;0.8523;
119.1000;0.5299;0.8474;
119.4000;0.5299;0.8376;
119.7000;0.5283;0.8303;
120.0000;0.5299;0.8303;
120.3000;0.5291;0.8328;
120.6000;0.5307;0.8328;
120.9000;0.5291;0.8352;
121.2000;0.5291;0.8352;
121.5000;0.5307;0.8352;
121.8000;0.5283;0.8255;
122.1000;0.5299;0.8303;
122.4000;0.5299;0.8352;
122.7000;0.5307;0.8255;
123.0000;0.5315;0.8206;
123.3000;0.5299;0.8084;
123.6000;0.5258;0.8036;
123.9000;0.5356;0.8328;
124.2000;0.5299;0.8133;
124.5000;0.5283;0.8084;
124.8000;0.5291;0.8084;
125.1000;0.5299;0.8109;
125.4000;0.5299;0.8084;
125.7000;0.5299;0.8157;
126.0000;0.5275;0.8206;
126.3000;0.5299;0.8303;
126.6000;0.5299;0.8303;
126.9000;0.5299;0.8352;
127.2000;0.5299;0.8401;
127.5000;0.5210;0.8206;
127.8000;0.5283;0.8401;
128.1000;0.5356;0.8571;
128.4000;0.5299;0.8425;
128.7000;0.5275;0.8352;
129.0000;0.5332;0.8474;
129.3000;0.5315;0.8401;
129.6000;0.5291;0.8449;
129.9000;0.5299;0.8498;
130.2000;0.5299;0.8547;
130.5000;0.5299;0.8474;
130.8000;0.5291;0.8498;
131.1000;0.5283;0.8498;
131.4000;0.5291;0.8523;
131.7000;0.5299;0.8474;
132.0000;0.5299;0.8474;
132.3000;0.5291;0.8474;
132.6000;0.5299;0.8596;
132.9000;0.5299;0.8620;
133.2000;0.5283;0.8547;
133.5000;0.5275;0.8571;
133.8000;0.5283;0.8620;
134.1000;0.5283;0.8571;
134.4000;0.5275;0.8425;
134.7000;0.5283;0.8303;
135.0000;0.5283;0.8206;
135.3000;0.5299;0.8230;
135.6000;0.5267;0.8157;
135.9000;0.5267;0.8157;
136.2000;0.5291;0.8255;
136.5000;0.5291;0.8401;
136.8000;0.5291;0.8401;
137.1000;0.5267;0.8401;
137.4000;0.5291;0.8425;
137.7000;0.5291;0.8401;
138.0000;0.5275;0.8303;
138.3000;0.5283;0.8352;
138.6000;0.5340;0.8449;
138.9000;0.5283;0.8401;
139.2000;0.5275;0.8425;
139.5000;0.5267;0.8328;
139.8000;0.5283;0.8303;
140.1000;0.5307;0.8376;
140.4000;0.5299;0.8376;
140.7000;0.5291;0.8328;
141.0000;0.5299;0.8303;
141.3000;0.5299;0.8303;
141.6000;0.5291;0.8303;
141.9000;0.5291;0.8303;
142.2000;0.5307;0.8279;
142.5000;0.5340;0.8352;
142.8000;0.5258;0.8133;
143.1000;0.5291;0.8303;
143.4000;0.5324;0.8255;
143.7000;0.5299;0.8255;
144.0000;0.5291;0.8328;
144.3000;0.5291;0.8376;
144.6000;0.5275;0.8303;
144.9000;0.5283;0.8376;
145.2000;0.5267;0.8425;
145.5000;0.5299;0.8425;
145.8000;0.5291;0.8352;
146.1000;0.5275;0.8401;
146.4000;0.5275;0.8425;
146.7000;0.5315;0.8425;
147.0000;0.5267;0.8255;
147.3000;0.5299;0.8376;
147.6000;0.5299;0.8376;
147.9000;0.5299;0.8474;
148.2000;0.5307;0.8523;
148.5000;0.5299;0.8498;
148.8000;0.5307;0.8474;
149.1000;0.5258;0.8352;
149.4000;0.5291;0.8425;
149.7000;0.5299;0.8401;
150.0000;0.5299;0.8449;
150.3000;0.5291;0.8474;
150.6000;0.5299;0.8474;
150.9000;0.5218;0.8376;
151.2000;0.5283;0.8523;
151.5000;0.5283;0.8523;
151.8000;0.5307;0.8547;
152.1000;0.5307;0.8449;
152.4000;0.5299;0.8425;
152.7000;0.5283;0.8303;
153.0000;0.5250;0.8157;
153.3000;0.5307;0.8401;
153.6000;0.5307;0.8401;
153.9000;0.5340;0.8498;
154.2000;0.5283;0.8328;
154.5000;0.5315;0.8376;
154.8000;0.5258;0.8328;
155.1000;0.5299;0.8376;
155.4000;0.5307;0.8352;
155.7000;0.5275;0.8303;
156.0000;0.5291;0.8328;
156.3000;0.5283;0.8279;
156.6000;0.5291;0.8230;
156.9000;0.5356;0.8401;
157.2000;0.5299;0.8255;
157.5000;0.5299;0.8255;
157.8000;0.5291;0.8230;
158.1000;0.5299;0.8230;
158.4000;0.5299;0.8303;
158.7000;0.5283;0.8303;
159.0000;0.5332;0.8328;
159.3000;0.5299;0.8157;
159.6000;0.5299;0.8206;
159.9000;0.5291;0.8133;
160.2000;0.5291;0.8157;
160.5000;0.5307;0.8182;
160.8000;0.5299;0.8182;
161.1000;0.5299;0.8157;
161.4000;0.5283;0.8157;
161.7000;0.5356;0.8279;
162.0000;0.5299;0.8157;
162.3000;0.5315;0.8182;
162.6000;0.5291;0.8084;
162.9000;0.5307;0.8060;
163.2000;0.5291;0.8060;
163.5000;0.5291;0.8109;
163.8000;0.5315;0.8157;
164.1000;0.5291;0.8157;
164.4000;0.5283;0.8109;
164.7000;0.5307;0.8133;
165.0000;0.5258;0.8109;
165.3000;0.5275;0.8157;
165.6000;0.5291;0.8230;
165.9000;0.5299;0.8279;
166.2000;0.5299;0.8255;
166.5000;0.5299;0.8157;
166.8000;0.5307;0.8255;
167.1000;0.5299;0.8133;
167.4000;0.5332;0.8206;
167.7000;0.5307;0.8109;
168.0000;0.5315;0.8206;
168.3000;0.5283;0.8133;
168.6000;0.5307;0.8133;
168.9000;0.5291;0.8206;
169.2000;0.5315;0.8182;
169.5000;0.5291;0.8206;
169.8000;0.5307;0.8206;
170.1000;0.5307;0.8157;
170.4000;0.5307;0.8109;
170.7000;0.5299;0.8060;
171.0000;0.5315;0.8133;
171.3000;0.5291;0.8133;
171.6000;0.5275;0.8084;
171.9000;0.5397;0.8352;
172.2000;0.5234;0.8011;
172.5000;0.5307;0.8182;
172.8000;0.5275;0.8157;
173.1000;0.5299;0.8206;
173.4000;0.5283;0.8084;
173.7000;0.5283;0.8084;
174.0000;0.5299;0.8133;
174.3000;0.5283;0.8109;
174.6000;0.5315;0.8206;
174.9000;0.5267;0.8084;
175.2000;0.5291;0.8084;
175.5000;0.5299;0.8133;
175.8000;0.5291;0.8133;
176.1000;0.5307;0.8230;
176.4000;0.5299;0.8279;
176.7000;0.5299;0.8230;
177.0000;0.5372;0.8352;
177.3000;0.5299;0.8182;
177.6000;0.5299;0.8255;
177.9000;0.5307;0.8303;
178.2000;0.5299;0.8230;
178.5000;0.5299;0.8182;
178.8000;0.5299;0.8182;
179.1000;0.5340;0.8255;
179.4000;0.5283;0.8084;
179.7000;0.5299;0.8182;
180.0000;0.5332;0.8230;
180.3000;0.5315;0.8182;
180.6000;0.5299;0.8182;
180.9000;0.5275;0.8157;
181.2000;0.5299;0.8255;
181.5000;0.5275;0.8133;
181.8000;0.5299;0.8157;
182.1000;0.5299;0.8084;
182.4000;0.5283;0.8084;
182.7000;0.5299;0.8109;
183.0000;0.5307;0.8133;
183.3000;0.5283;0.8133;
183.6000;0.5299;0.8133;
183.9000;0.5283;0.8084;
184.2000;0.5299;0.8157;
184.5000;0.5299;0.8182;
184.8000;0.5291;0.8328;
185.1000;0.5299;0.8303;
185.4000;0.5291;0.8303;
185.7000;0.5275;0.8328;
186.0000;0.5291;0.8376;
186.3000;0.5291;0.8328;
186.6000;0.5299;0.8328;
186.9000;0.5267;0.8133;
187.2000;0.5267;0.8133;
187.5000;0.5307;0.8279;
187.8000;0.5307;0.8206;
188.1000;0.5283;0.8157;
188.4000;0.5291;0.8109;
188.7000;0.5283;0.8157;
189.0000;0.5307;0.8182;
189.3000;0.5299;0.8182;
189.6000;0.5291;0.8084;
189.9000;0.5250;0.8133;
190.2000;0.5299;0.8279;
190.5000;0.5299;0.8279;
190.8000;0.5250;0.8182;
191.1000;0.5291;0.8206;
191.4000;0.5250;0.8133;
191.7000;0.5291;0.8182;
192.0000;0.5267;0.8109;
192.3000;0.5291;0.8182;
192.6000;0.5283;0.8133;
192.9000;0.5299;0.8206;
193.2000;0.5275;0.8157;
193.5000;0.5291;0.8157;
193.8000;0.5267;0.8060;
194.1000;0.5291;0.8133;
194.4000;0.5283;0.8084;
194.7000;0.5299;0.8182;
195.0000;0.5307;0.8279;
195.3000;0.5299;0.8279;
195.6000;0.5307;0.8157;
195.9000;0.5291;0.8036;
196.2000;0.5299;0.7987;
196.5000;0.5299;0.7987;
196.8000;0.5275;0.8084;
197.1000;0.5275;0.8182;
197.4000;0.5324;0.8303;
197.7000;0.5299;0.8279;
198.0000;0.5258;0.8084;
198.3000;0.5250;0.8084;
198.6000;0.5283;0.8157;
198.9000;0.5283;0.8157;
199.2000;0.5283;0.8133;
199.5000;0.5275;0.8133;
199.8000;0.5299;0.8182;
200.1000;0.5340;0.8328;
200.4000;0.5307;0.8133;
200.7000;0.5299;0.8011;
201.0000;0.5332;0.8060;
201.3000;0.5291;0.8133;
201.6000;0.5283;0.8084;
201.9000;0.5291;0.8084;
202.2000;0.5299;0.7987;
202.5000;0.5291;0.8011;
202.8000;0.5299;0.8084;
203.1000;0.5299;0.8109;
203.4000;0.5307;0.8133;
203.7000;0.5299;0.8060;
204.0000;0.5315;0.8182;
204.3000;0.5299;0.8206;
204.6000;0.5267;0.8157;
204.9000;0.5283;0.8157;
205.2000;0.5283;0.8255;
205.5000;0.5291;0.8255;
205.8000;0.5291;0.8279;
206.1000;0.5283;0.8230;
206.4000;0.5324;0.8328;
206.7000;0.5307;0.8206;
207.0000;0.5348;0.8352;
207.3000;0.5307;0.8206;
207.6000;0.5356;0.8376;
207.9000;0.5291;0.8133;
208.2000;0.5299;0.8230;
208.5000;0.5307;0.8279;
208.8000;0.5324;0.8206;
209.1000;0.5283;0.8157;
209.4000;0.5283;0.8084;
209.7000;0.5307;0.8182;
210.0000;0.5283;0.8084;
210.3000;0.5283;0.8182;
210.6000;0.5348;0.8328;
210.9000;0.5291;0.8206;
211.2000;0.5258;0.8133;
211.5000;0.5291;0.8084;
211.8000;0.5299;0.8230;
212.1000;0.5267;0.8230;
212.4000;0.5299;0.8328;
212.7000;0.5250;0.8182;
213.0000;0.5291;0.8328;
213.3000;0.5299;0.8230;
213.6000;0.5291;0.8133;
213.9000;0.5283;0.8109;
214.2000;0.5291;0.8109;
214.5000;0.5299;0.8133;
214.8000;0.5299;0.8133;
215.1000;0.5291;0.8084;
215.4000;0.5291;0.8084;
215.7000;0.5291;0.8157;
216.0000;0.5332;0.8255;
216.3000;0.5283;0.8157;
216.6000;0.5267;0.8109;
216.9000;0.5234;0.7987;
217.2000;0.5299;0.8133;
217.5000;0.5291;0.8206;
217.8000;0.5267;0.8133;
218.1000;0.5307;0.8230;
218.4000;0.5315;0.8230;
218.7000;0.5340;0.8279;
219.0000;0.5291;0.8157;
219.3000;0.5283;0.8182;
219.6000;0.5315;0.8230;
219.9000;0.5307;0.8206;
220.2000;0.5291;0.8206;
220.5000;0.5201;0.8036;
220.8000;0.5267;0.8011;
221.1000;0.5291;0.8084;
221.4000;0.5275;0.8036;
221.7000;0.5307;0.8109;
222.0000;0.5299;0.8206;
222.3000;0.5283;0.8255;
222.6000;0.5275;0.8157;
222.9000;0.5242;0.8133;
223.2000;0.5291;0.8230;
223.5000;0.5315;0.8352;
223.8000;0.5348;0.8498;
224.1000;0.5258;0.8206;
224.4000;0.5291;0.8279;
224.7000;0.5283;0.8206;
225.0000;0.5291;0.8328;
225.3000;0.5307;0.8328;
225.6000;0.5283;0.8279;
225.9000;0.5299;0.8303;
226.2000;0.5389;0.8449;
226.5000;0.5283;0.8352;
226.8000;0.5267;0.8401;
227.1000;0.5299;0.8449;
227.4000;0.5291;0.8498;
227.7000;0.5275;0.8449;
228.0000;0.5283;0.8425;
228.3000;0.5299;0.8303;
228.6000;0.5291;0.8303;
228.9000;0.5307;0.8328;
229.2000;0.5275;0.8206;
229.5000;0.5267;0.8328;
229.8000;0.5275;0.8328;
230.1000;0.5283;0.8206;
230.4000;0.5299;0.8157;
230.7000;0.5283;0.8133;
231.0000;0.5299;0.8133;
231.3000;0.5291;0.8133;
231.6000;0.5242;0.8036;
231.9000;0.5291;0.8084;
232.2000;0.5291;0.8060;
232.5000;0.5332;0.8279;
232.8000;0.5299;0.8182;
233.1000;0.5299;0.8133;
233.4000;0.5299;0.8109;
233.7000;0.5210;0.7914;
234.0000;0.5299;0.8133;
234.3000;0.5291;0.8109;
234.6000;0.5307;0.8084;
234.9000;0.5291;0.8109;
235.2000;0.5291;0.8133;
235.5000;0.5299;0.8206;
235.8000;0.5283;0.8182;
236.1000;0.5291;0.8157;
236.4000;0.5299;0.8157;
236.7000;0.5307;0.8157;
237.0000;0.5283;0.8157;
237.3000;0.5307;0.8206;
237.6000;0.5275;0.8084;
237.9000;0.5275;0.8206;
238.2000;0.5267;0.8255;
238.5000;0.5283;0.8230;
238.8000;0.5291;0.8230;
239.1000;0.5291;0.8255;
239.4000;0.5267;0.8230;
239.7000;0.5283;0.8328;
240.0000;0.5218;0.8011;
240.3000;0.5299;0.8133;
240.6000;0.5275;0.8060;
240.9000;0.5291;0.8084;
241.2000;0.5242;0.7962;
241.5000;0.5307;0.8133;
241.8000;0.5299;0.8206;
242.1000;0.5234;0.8036;
242.4000;0.5291;0.8157;
242.7000;0.5324;0.8303;
243.0000;0.5291;0.8230;
243.3000;0.5299;0.8352;
243.6000;0.5258;0.8303;
243.9000;0.5250;0.8352;
244.2000;0.5291;0.8401;
244.5000;0.5291;0.8401;
244.8000;0.5299;0.8376;
245.1000;0.5299;0.8352;
245.4000;0.5291;0.8182;
245.7000;0.5299;0.8230;
246.0000;0.5291;0.8157;
246.3000;0.5291;0.8133;
246.6000;0.5250;0.8011;
246.9000;0.5283;0.8157;
247.2000;0.5291;0.8206;
247.5000;0.5201;0.7938;
247.8000;0.5299;0.8157;
248.1000;0.5226;0.7962;
248.4000;0.5283;0.8157;
248.7000;0.5283;0.8182;
249.0000;0.5299;0.8182;
249.3000;0.5299;0.8182;
249.6000;0.5291;0.8157;
249.9000;0.5275;0.8084;
250.2000;0.5283;0.8109;
250.5000;0.5275;0.8036;
250.8000;0.5405;0.8401;
251.1000;0.5299;0.8133;
251.4000;0.5340;0.8303;
251.7000;0.5324;0.8303;
252.0000;0.5283;0.8133;
252.3000;0.5275;0.8109;
252.6000;0.5291;0.8182;
252.9000;0.5283;0.8157;
253.2000;0.5283;0.8157;
253.5000;0.5283;0.8182;
253.8000;0.5291;0.8157;
254.1000;0.5291;0.8157;
254.4000;0.5291;0.8084;
254.7000;0.5283;0.8109;
255.0000;0.5267;0.8084;
255.3000;0.5283;0.8133;
255.6000;0.5258;0.8084;
255.9000;0.5299;0.8060;
256.2000;0.5283;0.8036;
256.5000;0.5267;0.7987;
256.8000;0.5250;0.7938;
257.1000;0.5275;0.7987;
257.4000;0.5283;0.8036;
257.7000;0.5291;0.8084;
258.0000;0.5291;0.8133;
258.3000;0.5283;0.8182;
258.6000;0.5307;0.8255;
258.9000;0.5283;0.8206;
259.2000;0.5291;0.8182;
259.5000;0.5283;0.8060;
259.8000;0.5275;0.8036;
260.1000;0.5283;0.8133;
260.4000;0.5307;0.8255;
260.7000;0.5275;0.8157;
261.0000;0.5283;0.8133;
261.3000;0.5283;0.8157;
261.6000;0.5283;0.8230;
261.9000;0.5291;0.8206;
262.2000;0.5283;0.8133;
262.5000;0.5275;0.8060;
262.8000;0.5275;0.8133;
263.1000;0.5291;0.8157;
263.4000;0.5267;0.8060;
263.7000;0.5267;0.8157;
264.0000;0.5242;0.8109;
264.3000;0.5324;0.8230;
264.6000;0.5291;0.8109;
264.9000;0.5169;0.7743;
265.2000;0.5283;0.8011;
265.5000;0.5291;0.7962;
265.8000;0.5275;0.7987;
266.1000;0.5348;0.8279;
266.4000;0.5283;0.8133;
266.7000;0.5275;0.8303;
267.0000;0.5356;0.8425;
267.3000;0.5267;0.8182;
267.6000;0.5275;0.8279;
267.9000;0.5283;0.8230;
268.2000;0.5242;0.8109;
268.5000;0.5218;0.8011;
268.8000;0.5226;0.8133;
269.1000;0.5258;0.8133;
269.4000;0.5161;0.7938;
269.7000;0.5258;0.8182;
270.0000;0.5201;0.7987;
270.3000;0.5267;0.8109;
270.6000;0.5291;0.8182;
270.9000;0.5291;0.8255;
271.2000;0.5267;0.8157;
271.5000;0.5242;0.8182;
271.8000;0.5283;0.8328;
272.1000;0.5218;0.8109;
272.4000;0.5283;0.8206;
272.7000;0.5267;0.8084;
273.0000;0.5283;0.8060;
273.3000;0.5283;0.8084;
273.6000;0.5307;0.8206;
273.9000;0.5340;0.8303;
274.2000;0.5275;0.8182;
274.5000;0.5275;0.8133;
274.8000;0.5275;0.8182;
275.1000;0.5275;0.8182;
275.4000;0.5291;0.8206;
275.7000;0.5315;0.8279;
276.0000;0.5291;0.8206;
276.3000;0.5283;0.8109;
276.6000;0.5291;0.8133;
276.9000;0.5291;0.8182;
277.2000;0.5283;0.8133;
277.5000;0.5356;0.8279;
277.8000;0.5283;0.8133;
278.1000;0.5242;0.8109;
278.4000;0.5283;0.8084;
278.7000;0.5283;0.8109;
279.0000;0.5283;0.8109;
279.3000;0.5315;0.8157;
279.6000;0.5315;0.8182;
279.9000;0.5291;0.8133;
280.2000;0.5275;0.8109;
280.5000;0.5283;0.8133;
280.8000;0.5283;0.8084;
281.1000;0.5283;0.8109;
281.4000;0.5283;0.8109;
281.7000;0.5283;0.8109;
282.0000;0.5258;0.8084;
282.3000;0.5299;0.8230;
282.6000;0.5250;0.8182;
282.9000;0.5283;0.8303;
283.2000;0.5291;0.8303;
283.5000;0.5283;0.8303;
283.8000;0.5283;0.8255;
284.1000;0.5267;0.8279;
284.4000;0.5275;0.8328;
284.7000;0.5267;0.8376;
285.0000;0.5291;0.8376;
285.3000;0.5267;0.8279;
285.6000;0.5348;0.8425;
285.9000;0.5381;0.8596;
286.2000;0.5267;0.8206;
286.5000;0.5291;0.8206;
286.8000;0.5275;0.8206;
287.1000;0.5267;0.8157;
287.4000;0.5299;0.8182;
287.7000;0.5267;0.8060;
288.0000;0.5307;0.8255;
288.3000;0.5250;0.8084;
288.6000;0.5258;0.7987;
288.9000;0.5364;0.8182;
289.2000;0.5275;0.7987;
289.5000;0.5283;0.8011;
289.8000;0.5372;0.8279;
290.1000;0.5315;0.8133;
290.4000;0.5275;0.8060;
290.7000;0.5291;0.8036;
291.0000;0.5210;0.7841;
291.3000;0.5275;0.8084;
291.6000;0.5283;0.8182;
291.9000;0.5283;0.8206;
292.2000;0.5283;0.8182;
292.5000;0.5291;0.8182;
292.8000;0.5267;0.8206;
293.1000;0.5291;0.8352;
293.4000;0.5283;0.8279;
293.7000;0.5267;0.8206;
294.0000;0.5267;0.8206;
294.3000;0.5258;0.8157;
294.6000;0.5258;0.8133;
294.9000;0.5275;0.8182;
295.2000;0.5275;0.8133;
295.5000;0.5267;0.8036;
295.8000;0.5267;0.7914;
296.1000;0.5267;0.7914;
296.4000;0.5267;0.7914;
296.7000;0.5258;0.7987;
297.0000;0.5258;0.7938;
297.3000;0.5275;0.7938;
297.6000;0.5275;0.7865;
297.9000;0.5267;0.7816;
298.2000;0.5267;0.7816;
298.5000;0.5267;0.7889;
298.8000;0.5275;0.7962;
299.1000;0.5242;0.7938;
299.4000;0.5258;0.7987;
299.7000;0.5299;0.8109;
300.0000;0.5267;0.8060;
300.3000;0.5275;0.8133;
300.6000;0.5267;0.8109;
300.9000;0.5275;0.8011;
301.2000;0.5283;0.8060;
301.5000;0.5283;0.8011;
301.8000;0.5267;0.8011;
302.1000;0.5275;0.8157;
302.4000;0.5275;0.8157;
302.7000;0.5267;0.8230;
303.0000;0.5258;0.8328;
303.3000;0.5250;0.8206;
303.6000;0.5405;0.8620;
303.9000;0.5258;0.8279;
304.2000;0.5250;0.8230;
304.5000;0.5250;0.8206;
304.8000;0.5193;0.8060;
305.1000;0.5283;0.8303;
305.4000;0.5291;0.8279;
305.7000;0.5258;0.8206;
306.0000;0.5275;0.8109;
306.3000;0.5267;0.8182;
306.6000;0.5267;0.8206;
306.9000;0.5275;0.8182;
307.2000;0.5267;0.8182;
307.5000;0.5291;0.8157;
307.8000;0.5283;0.8133;
308.1000;0.5283;0.8157;
308.4000;0.5258;0.8060;
308.7000;0.5258;0.8011;
309.0000;0.5291;0.8036;
309.3000;0.5258;0.8011;
309.6000;0.5258;0.8036;
309.9000;0.5283;0.8084;
310.2000;0.5291;0.8255;
310.5000;0.5210;0.8036;
310.8000;0.5267;0.8230;
311.1000;0.5291;0.8230;
311.4000;0.5275;0.8157;
311.7000;0.5258;0.8084;
312.0000;0.5242;0.7987;
312.3000;0.5291;0.8084;
312.6000;0.5283;0.8157;
312.9000;0.5267;0.8182;
313.2000;0.5283;0.8230;
313.5000;0.5324;0.8376;
313.8000;0.5267;0.8230;
314.1000;0.5242;0.8230;
314.4000;0.5275;0.8328;
314.7000;0.5275;0.8279;
315.0000;0.5201;0.7987;
315.3000;0.5275;0.8182;
315.6000;0.5267;0.8133;
315.9000;0.5258;0.8084;
316.2000;0.5267;0.8060;
316.5000;0.5283;0.8109;
316.8000;0.5283;0.8157;
317.1000;0.5315;0.8352;
317.4000;0.5283;0.8352;
317.7000;0.5275;0.8279;
318.0000;0.5275;0.8206;
318.3000;0.5258;0.8157;
318.6000;0.5250;0.8109;
318.9000;0.5275;0.8133;
319.2000;0.5258;0.8182;
319.5000;0.5275;0.8303;
319.8000;0.5267;0.8182;
320.1000;0.5267;0.8133;
320.4000;0.5332;0.8157;
320.7000;0.5275;0.7987;
321.0000;0.5324;0.8036;
321.3000;0.5267;0.7889;
321.6000;0.5283;0.8036;
321.9000;0.5275;0.8060;
322.2000;0.5283;0.8206;
322.5000;0.5267;0.8182;
322.8000;0.5185;0.7987;
323.1000;0.5275;0.8279;
323.4000;0.5250;0.8133;
323.7000;0.5275;0.8109;
324.0000;0.5275;0.8036;
324.3000;0.5258;0.8036;
324.6000;0.5250;0.8011;
324.9000;0.5234;0.8011;
325.2000;0.5258;0.8109;
325.5000;0.5275;0.8157;
325.8000;0.5267;0.8133;
326.1000;0.5291;0.8133;
326.4000;0.5258;0.8084;
326.7000;0.5275;0.8206;
327.0000;0.5283;0.8328;
327.3000;0.5267;0.8303;
327.6000;0.5250;0.8279;
327.9000;0.5267;0.8303;
328.2000;0.5275;0.8230;
328.5000;0.5267;0.8206;
328.8000;0.5234;0.8084;
329.1000;0.5250;0.8182;
329.4000;0.5275;0.8279;
329.7000;0.5250;0.8230;
330.0000;0.5275;0.8328;
330.3000;0.5242;0.8279;
330.6000;0.5275;0.8376;
330.9000;0.5267;0.8328;
331.2000;0.5275;0.8206;
331.5000;0.5258;0.8182;
331.8000;0.5275;0.8182;
332.1000;0.5291;0.8279;
332.4000;0.5267;0.8255;
332.7000;0.5291;0.8303;
333.0000;0.5267;0.8255;
333.3000;0.5283;0.8255;
333.6000;0.5267;0.8206;
333.9000;0.5258;0.8157;
334.2000;0.5275;0.8133;
334.5000;0.5275;0.8133;
334.8000;0.5275;0.8255;
335.1000;0.5226;0.8206;
335.4000;0.5258;0.8255;
335.7000;0.5267;0.8255;
336.0000;0.5250;0.8157;
336.3000;0.5258;0.8182;
336.6000;0.5258;0.8157;
336.9000;0.5258;0.8133;
337.2000;0.5242;0.8230;
337.5000;0.5267;0.8376;
337.8000;0.5356;0.8571;
338.1000;0.5267;0.8328;
338.4000;0.5275;0.8376;
338.7000;0.5267;0.8303;
339.0000;0.5201;0.8084;
339.3000;0.5250;0.8255;
339.6000;0.5267;0.8328;
339.9000;0.5299;0.8474;
340.2000;0.5218;0.8328;
340.5000;0.5275;0.8352;
340.8000;0.5210;0.8182;
341.1000;0.5299;0.8449;
341.4000;0.5267;0.8376;
341.7000;0.5275;0.8376;
342.0000;0.5153;0.8060;
342.3000;0.5291;0.8425;
342.6000;0.5275;0.8328;
342.9000;0.5283;0.8401;
343.2000;0.5275;0.8449;
343.5000;0.5283;0.8474;
343.8000;0.5381;0.8766;
344.1000;0.5348;0.8571;
344.4000;0.5299;0.8401;
344.7000;0.5307;0.8425;
345.0000;0.5275;0.8279;
345.3000;0.5283;0.8255;
345.6000;0.5267;0.8182;
345.9000;0.5267;0.8230;
346.2000;0.5275;0.8255;
346.5000;0.5275;0.8401;
346.8000;0.5267;0.8498;
347.1000;0.5267;0.8474;
347.4000;0.5267;0.8401;
347.7000;0.5275;0.8352;
348.0000;0.5250;0.8328;
348.3000;0.5242;0.8352;
348.6000;0.5267;0.8401;
348.9000;0.5275;0.8352;
349.2000;0.5258;0.8376;
349.5000;0.5267;0.8474;
349.8000;0.5307;0.8644;
350.1000;0.5267;0.8498;
350.4000;0.5275;0.8474;
350.7000;0.5250;0.8376;
351.0000;0.5250;0.8303;
351.3000;0.5258;0.8425;
351.6000;0.5226;0.8328;
351.9000;0.5242;0.8425;
352.2000;0.5258;0.8425;
352.5000;0.5267;0.8474;
352.8000;0.5267;0.8449;
353.1000;0.5250;0.8352;
353.4000;0.5275;0.8498;
353.7000;0.5299;0.8571;
354.0000;0.5267;0.8425;
354.3000;0.5267;0.8376;
354.6000;0.5267;0.8352;
354.9000;0.5250;0.8303;
355.2000;0.5275;0.8352;
355.5000;0.5283;0.8352;
355.8000;0.5258;0.8206;
356.1000;0.5299;0.8328;
356.4000;0.5291;0.8230;
356.7000;0.5267;0.8303;
357.0000;0.5283;0.8352;
357.3000;0.5267;0.8303;
357.6000;0.5315;0.8352;
357.9000;0.5242;0.8182;
358.2000;0.5242;0.8206;
358.5000;0.5258;0.8230;
358.8000;0.5250;0.8182;
359.1000;0.5267;0.8206;
359.4000;0.5258;0.8133;
359.7000;0.5291;0.8279;
360.0000;0.5307;0.8376;
360.3000;0.5258;0.8255;
360.6000;0.5267;0.8328;
360.9000;0.5250;0.8328;
361.2000;0.5283;0.8376;
361.5000;0.5267;0.8328;
361.8000;0.5267;0.8230;
362.1000;0.5250;0.8182;
362.4000;0.5250;0.8230;
362.7000;0.5258;0.8328;
363.0000;0.5258;0.8352;
363.3000;0.5242;0.8352;
363.6000;0.5250;0.8352;
363.9000;0.5275;0.8352;
364.2000;0.5258;0.8255;
364.5000;0.5250;0.8157;
364.8000;0.5283;0.8279;
365.1000;0.5258;0.8157;
365.4000;0.5250;0.8084;
365.7000;0.5258;0.8157;
366.0000;0.5210;0.8060;
366.3000;0.5258;0.8157;
366.6000;0.5258;0.8206;
366.9000;0.5242;0.8109;
367.2000;0.5250;0.8157;
367.5000;0.5250;0.8279;
367.8000;0.5267;0.8401;
368.1000;0.5267;0.8498;
368.4000;0.5267;0.8401;
368.7000;0.5258;0.8328;
369.0000;0.5267;0.8401;
369.3000;0.5258;0.8401;
369.6000;0.5258;0.8376;
369.9000;0.5250;0.8425;
370.2000;0.5267;0.8352;
370.5000;0.5267;0.8352;
370.8000;0.5267;0.8401;
371.1000;0.5258;0.8303;
371.4000;0.5242;0.8206;
371.7000;0.5307;0.8328;
372.0000;0.5250;0.8255;
372.3000;0.5250;0.8255;
372.6000;0.5348;0.8547;
372.9000;0.5275;0.8303;
373.2000;0.5275;0.8376;
373.5000;0.5258;0.8303;
373.8000;0.5258;0.8328;
374.1000;0.5275;0.8328;
374.4000;0.5250;0.8230;
374.7000;0.5234;0.8133;
375.0000;0.5242;0.8133;
375.3000;0.5258;0.8133;
375.6000;0.5242;0.8133;
375.9000;0.5250;0.8255;
376.2000;0.5234;0.8255;
376.5000;0.5234;0.8303;
376.8000;0.5242;0.8279;
377.1000;0.5242;0.8328;
377.4000;0.5242;0.8376;
377.7000;0.5275;0.8401;
378.0000;0.5275;0.8474;
378.3000;0.5283;0.8449;
378.6000;0.5250;0.8352;
378.9000;0.5258;0.8328;
379.2000;0.5258;0.8352;
379.5000;0.5267;0.8449;
379.8000;0.5201;0.8328;
380.1000;0.5315;0.8620;
380.4000;0.5258;0.8474;
380.7000;0.5218;0.8279;
381.0000;0.5242;0.8401;
381.3000;0.5258;0.8474;
381.6000;0.5258;0.8401;
381.9000;0.5258;0.8401;
382.2000;0.5258;0.8255;
382.5000;0.5267;0.8352;
382.8000;0.5242;0.8352;
383.1000;0.5201;0.8255;
383.4000;0.5324;0.8498;
383.7000;0.5210;0.8109;
384.0000;0.5250;0.8109;
384.3000;0.5234;0.8060;
384.6000;0.5283;0.8328;
384.9000;0.5242;0.8255;
385.2000;0.5315;0.8474;
385.5000;0.5250;0.8279;
385.8000;0.5242;0.8328;
386.1000;0.5242;0.8255;
386.4000;0.5234;0.8182;
386.7000;0.5258;0.8206;
387.0000;0.5234;0.8206;
387.3000;0.5258;0.8206;
387.6000;0.5250;0.8206;
387.9000;0.5267;0.8303;
388.2000;0.5258;0.8230;
388.5000;0.5177;0.8084;
388.8000;0.5258;0.8328;
389.1000;0.5242;0.8376;
389.4000;0.5267;0.8401;
389.7000;0.5275;0.8474;
390.0000;0.5226;0.8401;
390.3000;0.5242;0.8425;
390.6000;0.5242;0.8401;
390.9000;0.5258;0.8449;
391.2000;0.5250;0.8523;
391.5000;0.5258;0.8523;
391.8000;0.5258;0.8571;
392.1000;0.5242;0.8523;
392.4000;0.5242;0.8425;
392.7000;0.5258;0.8449;
393.0000;0.5250;0.8352;
393.3000;0.5275;0.8328;
393.6000;0.5267;0.8328;
393.9000;0.5258;0.8279;
394.2000;0.5242;0.8279;
394.5000;0.5250;0.8352;
394.8000;0.5258;0.8279;
395.1000;0.5226;0.8182;
395.4000;0.5250;0.8279;
395.7000;0.5242;0.8328;
396.0000;0.5267;0.8401;
396.3000;0.5267;0.8401;
396.6000;0.5258;0.8401;
396.9000;0.5234;0.8230;
397.2000;0.5258;0.8206;
397.5000;0.5258;0.8084;
397.8000;0.5242;0.8036;
398.1000;0.5250;0.8133;
398.4000;0.5267;0.8255;
398.7000;0.5185;0.8036;
399.0000;0.5234;0.8303;
399.3000;0.5258;0.8425;
399.6000;0.5250;0.8401;
399.9000;0.5242;0.8376;
400.2000;0.5218;0.8303;
400.5000;0.5242;0.8425;
400.8000;0.5250;0.8425;
401.1000;0.5258;0.8449;
401.4000;0.5267;0.8571;
401.7000;0.5234;0.8449;
402.0000;0.5242;0.8401;
402.3000;0.5258;0.8474;
402.6000;0.5283;0.8547;
402.9000;0.5234;0.8376;
403.2000;0.5250;0.8303;
403.5000;0.5242;0.8352;
403.8000;0.5283;0.8523;
404.1000;0.5348;0.8669;
404.4000;0.5242;0.8474;
404.7000;0.5258;0.8498;
405.0000;0.5242;0.8425;
405.3000;0.5185;0.8255;
405.6000;0.5250;0.8376;
405.9000;0.5193;0.8206;
406.2000;0.5242;0.8303;
406.5000;0.5226;0.8303;
406.8000;0.5242;0.8401;
407.1000;0.5234;0.8449;
407.4000;0.5275;0.8523;
407.7000;0.5250;0.8425;
408.0000;0.5234;0.8425;
408.3000;0.5258;0.8401;
408.6000;0.5250;0.8303;
408.9000;0.5234;0.8303;
409.2000;0.5226;0.8206;
409.5000;0.5283;0.8328;
409.8000;0.5250;0.8328;
410.1000;0.5258;0.8352;
410.4000;0.5250;0.8279;
410.7000;0.5258;0.8206;
411.0000;0.5242;0.8182;
411.3000;0.5242;0.8279;
411.6000;0.5283;0.8449;
411.9000;0.5226;0.8303;
412.2000;0.5258;0.8401;
412.5000;0.5267;0.8474;
412.8000;0.5258;0.8523;
413.1000;0.5169;0.8352;
413.4000;0.5250;0.8571;
413.7000;0.5267;0.8498;
414.0000;0.5242;0.8425;
414.3000;0.5267;0.8376;
414.6000;0.5250;0.8352;
414.9000;0.5250;0.8401;
415.2000;0.5340;0.8547;
415.5000;0.5242;0.8303;
415.8000;0.5258;0.8255;
416.1000;0.5250;0.8255;
416.4000;0.5250;0.8303;
416.7000;0.5242;0.8303;
417.0000;0.5250;0.8303;
417.3000;0.5258;0.8352;
417.6000;0.5267;0.8425;
417.9000;0.5226;0.8328;
418.2000;0.5242;0.8352;
418.5000;0.5258;0.8328;
418.8000;0.5242;0.8328;
419.1000;0.5234;0.8255;
419.4000;0.5242;0.8352;
419.7000;0.5283;0.8498;
420.0000;0.5250;0.8474;
420.3000;0.5242;0.8425;
420.6000;0.5242;0.8596;
420.9000;0.5226;0.8669;
421.2000;0.5234;0.8693;
421.5000;0.5234;0.8596;
421.8000;0.5234;0.8596;
422.1000;0.5210;0.8498;
422.4000;0.5226;0.8547;
422.7000;0.5275;0.8596;
423.0000;0.5242;0.8644;
423.3000;0.5234;0.8620;
423.6000;0.5250;0.8571;
423.9000;0.5242;0.8498;
424.2000;0.5250;0.8425;
424.5000;0.5242;0.8328;
424.8000;0.5242;0.8376;
425.1000;0.5210;0.8376;
425.4000;0.5250;0.8425;
425.7000;0.5234;0.8425;
426.0000;0.5210;0.8303;
426.3000;0.5242;0.8376;
426.6000;0.5234;0.8352;
426.9000;0.5242;0.8401;
427.2000;0.5234;0.8303;
427.5000;0.5234;0.8303;
427.8000;0.5267;0.8401;
428.1000;0.5242;0.8425;
428.4000;0.5258;0.8401;
428.7000;0.5226;0.8328;
429.0000;0.5299;0.8474;
429.3000;0.5242;0.8352;
429.6000;0.5242;0.8401;
429.9000;0.5315;0.8596;
430.2000;0.5250;0.8449;
430.5000;0.5250;0.8376;
430.8000;0.5234;0.8303;
431.1000;0.5226;0.8328;
431.4000;0.5234;0.8425;
431.7000;0.5250;0.8425;
432.0000;0.5250;0.8425;
432.3000;0.5234;0.8328;
432.6000;0.5250;0.8401;
432.9000;0.5250;0.8523;
433.2000;0.5242;0.8401;
433.5000;0.5258;0.8352;
433.8000;0.5250;0.8352;
434.1000;0.5267;0.8401;
434.4000;0.5258;0.8352;
434.7000;0.5267;0.8376;
435.0000;0.5267;0.8474;
435.3000;0.5250;0.8352;
435.6000;0.5226;0.8352;
435.9000;0.5242;0.8425;
436.2000;0.5250;0.8425;
436.5000;0.5258;0.8401;
436.8000;0.5226;0.8279;
437.1000;0.5250;0.8279;
437.4000;0.5226;0.8352;
437.7000;0.5242;0.8425;
438.0000;0.5250;0.8425;
438.3000;0.5234;0.8279;
438.6000;0.5234;0.8303;
438.9000;0.5258;0.8352;
439.2000;0.5267;0.8425;
439.5000;0.5258;0.8449;
439.8000;0.5250;0.8401;
440.1000;0.5226;0.8279;
440.4000;0.5250;0.8255;
440.7000;0.5234;0.8328;
441.0000;0.5226;0.8401;
441.3000;0.5242;0.8425;
441.6000;0.5201;0.8206;
441.9000;0.5226;0.8206;
442.2000;0.5226;0.8133;
442.5000;0.5250;0.8182;
442.8000;0.5242;0.8060;
443.1000;0.5250;0.7987;
443.4000;0.5242;0.7987;
443.7000;0.5234;0.8011;
444.0000;0.5250;0.7938;
444.3000;0.5267;0.7987;
444.6000;0.5250;0.7987;
444.9000;0.5250;0.7987;
445.2000;0.5250;0.7962;
445.5000;0.5291;0.8133;
445.8000;0.5242;0.7987;
446.1000;0.5242;0.8036;
446.4000;0.5234;0.8084;
446.7000;0.5226;0.8157;
447.0000;0.5242;0.8182;
447.3000;0.5250;0.8157;
447.6000;0.5226;0.8084;
447.9000;0.5291;0.8255;
448.2000;0.5258;0.8133;
448.5000;0.5307;0.8255;
448.8000;0.5242;0.8182;
449.1000;0.5193;0.8182;
449.4000;0.5242;0.8230;
449.7000;0.5226;0.8230;
450.0000;0.5234;0.8157;
450.3000;0.5242;0.8133;
450.6000;0.5218;0.8084;
450.9000;0.5258;0.8109;
451.2000;0.5226;0.8060;
451.5000;0.5275;0.8133;
451.8000;0.5267;0.8084;
452.1000;0.5226;0.7987;
452.4000;0.5234;0.8036;
452.7000;0.5291;0.8133;
453.0000;0.5218;0.7865;
453.3000;0.5258;0.7962;
453.6000;0.5242;0.8011;
453.9000;0.5242;0.8084;
454.2000;0.5258;0.8255;
454.5000;0.5242;0.8303;
454.8000;0.5210;0.8255;
455.1000;0.5218;0.8279;
455.4000;0.5291;0.8401;
455.7000;0.5242;0.8449;
456.0000;0.5226;0.8376;
456.3000;0.5193;0.8206;
456.6000;0.5250;0.8328;
456.9000;0.5226;0.8206;
457.2000;0.5242;0.8230;
457.5000;0.5242;0.8230;
457.8000;0.5226;0.8084;
458.1000;0.5169;0.7962;
458.4000;0.5242;0.8182;
458.7000;0.5201;0.8133;
459.0000;0.5234;0.8157;
459.3000;0.5234;0.8157;
459.6000;0.5242;0.8206;
459.9000;0.5258;0.8206;
460.2000;0.5250;0.8206;
460.5000;0.5185;0.8060;
460.8000;0.5234;0.8133;
461.1000;0.5144;0.7938;
461.4000;0.5242;0.8182;
461.7000;0.5234;0.8230;
462.0000;0.5234;0.8133;
462.3000;0.5250;0.8109;
462.6000;0.5267;0.8279;
462.9000;0.5234;0.8230;
463.2000;0.5201;0.8206;
463.5000;0.5258;0.8279;
463.8000;0.5226;0.8255;
464.1000;0.5226;0.8230;
464.4000;0.5218;0.8279;
464.7000;0.5291;0.8523;
465.0000;0.5218;0.8352;
465.3000;0.5218;0.8303;
465.6000;0.5226;0.8303;
465.9000;0.5226;0.8182;
466.2000;0.5218;0.8157;
466.5000;0.5226;0.8182;
466.8000;0.5258;0.8255;
467.1000;0.5242;0.8206;
467.4000;0.5234;0.8255;
467.7000;0.5210;0.8157;
468.0000;0.5234;0.8206;
468.3000;0.5226;0.8230;
468.6000;0.5299;0.8376;
468.9000;0.5177;0.8109;
469.2000;0.5226;0.8303;
469.5000;0.5226;0.8255;
469.8000;0.5250;0.8401;
470.1000;0.5234;0.8352;
470.4000;0.5242;0.8376;
470.7000;0.5218;0.8279;
471.0000;0.5315;0.8474;
471.3000;0.5226;0.8279;
471.6000;0.5218;0.8255;
471.9000;0.5267;0.8303;
472.2000;0.5234;0.8182;
472.5000;0.5226;0.8230;
472.8000;0.5234;0.8303;
473.1000;0.5267;0.8352;
473.4000;0.5234;0.8279;
473.7000;0.5250;0.8303;
474.0000;0.5291;0.8376;
474.3000;0.5234;0.8230;
474.6000;0.5234;0.8303;
474.9000;0.5242;0.8328;
475.2000;0.5250;0.8303;
475.5000;0.5234;0.8279;
475.8000;0.5177;0.8157;
476.1000;0.5291;0.8474;
476.4000;0.5250;0.8401;
476.7000;0.5128;0.8084;
477.0000;0.5250;0.8401;
477.3000;0.5201;0.8303;
477.6000;0.5234;0.8449;
477.9000;0.5234;0.8523;
478.2000;0.5250;0.8498;
478.5000;0.5234;0.8449;
478.8000;0.5267;0.8596;
479.1000;0.5185;0.8425;
479.4000;0.5234;0.8571;
479.7000;0.5242;0.8571;
480.0000;0.5226;0.8644;
480.3000;0.5234;0.8596;
480.6000;0.5242;0.8571;
480.9000;0.5242;0.8523;
481.2000;0.5291;0.8596;
481.5000;0.5210;0.8376;
481.8000;0.5250;0.8474;
482.1000;0.5283;0.8523;
482.4000;0.5218;0.8376;
482.7000;0.5234;0.8376;
483.0000;0.5226;0.8449;
483.3000;0.5210;0.8449;
483.6000;0.5250;0.8449;
483.9000;0.5234;0.8449;
484.2000;0.5218;0.8401;
484.5000;0.5275;0.8425;
484.8000;0.5242;0.8352;
485.1000;0.5242;0.8328;
485.4000;0.5226;0.8255;
485.7000;0.5226;0.8279;
486.0000;0.5234;0.8303;
486.3000;0.5299;0.8376;
486.6000;0.5275;0.8376;
486.9000;0.5250;0.8328;
487.2000;0.5234;0.8303;
487.5000;0.5234;0.8255;
487.8000;0.5242;0.8352;
488.1000;0.5234;0.8474;
488.4000;0.5218;0.8401;
488.7000;0.5226;0.8401;
489.0000;0.5226;0.8425;
489.3000;0.5169;0.8352;
489.6000;0.5185;0.8328;
489.9000;0.5267;0.8498;
490.2000;0.5234;0.8449;
490.5000;0.5242;0.8449;
490.8000;0.5234;0.8498;
491.1000;0.5210;0.8401;
491.4000;0.5234;0.8523;
491.7000;0.5242;0.8596;
492.0000;0.5234;0.8523;
492.3000;0.5234;0.8449;
492.6000;0.5258;0.8523;
492.9000;0.5242;0.8425;
493.2000;0.5226;0.8449;
493.5000;0.5193;0.8474;
493.8000;0.5234;0.8644;
494.1000;0.5226;0.8571;
494.4000;0.5234;0.8498;
494.7000;0.5218;0.8498;
495.0000;0.5242;0.8498;
495.3000;0.5242;0.8474;
495.6000;0.5242;0.8425;
495.9000;0.5201;0.8449;
496.2000;0.5242;0.8498;
496.5000;0.5242;0.8498;
496.8000;0.5210;0.8449;
497.1000;0.5275;0.8474;
497.4000;0.5250;0.8449;
497.7000;0.5299;0.8449;
498.0000;0.5242;0.8303;
498.3000;0.5234;0.8303;
498.6000;0.5299;0.8498;
498.9000;0.5226;0.8401;
499.2000;0.5210;0.8449;
499.5000;0.5177;0.8352;
499.8000;0.5177;0.8376;
500.1000;0.5177;0.8425;
500.4000;0.5210;0.8571;
500.7000;0.5234;0.8571;
501.0000;0.5234;0.8547;
501.3000;0.5250;0.8644;
501.6000;0.5201;0.8498;
501.9000;0.5201;0.8425;
502.2000;0.5226;0.8449;
502.5000;0.5210;0.8425;
502.8000;0.5218;0.8376;
503.1000;0.5218;0.8279;
503.4000;0.5242;0.8401;
503.7000;0.5218;0.8449;
504.0000;0.5201;0.8523;
504.3000;0.5226;0.8644;
504.6000;0.5218;0.8669;
504.9000;0.5210;0.8498;
505.2000;0.5250;0.8547;
505.5000;0.5234;0.8401;
505.8000;0.5242;0.8523;
506.1000;0.5234;0.8401;
506.4000;0.5234;0.8328;
506.7000;0.5258;0.8352;
507.0000;0.5275;0.8425;
507.3000;0.5234;0.8449;
507.6000;0.5226;0.8523;
507.9000;0.5242;0.8596;
508.2000;0.5210;0.8547;
508.5000;0.5242;0.8547;
508.8000;0.5226;0.8498;
509.1000;0.5218;0.8498;
509.4000;0.5242;0.8449;
509.7000;0.5226;0.8474;
510.0000;0.5210;0.8401;
510.3000;0.5250;0.8449;
510.6000;0.5242;0.8425;
510.9000;0.5226;0.8352;
511.2000;0.5226;0.8303;
511.5000;0.5234;0.8279;
511.8000;0.5210;0.8182;
512.1000;0.5226;0.8230;
512.4000;0.5210;0.8255;
512.7000;0.5250;0.8303;
513.0000;0.5218;0.8328;
513.3000;0.5218;0.8328;
513.6000;0.5161;0.8182;
513.9000;0.5234;0.8352;
514.2000;0.5234;0.8328;
514.5000;0.5226;0.8255;
514.8000;0.5218;0.8255;
515.1000;0.5210;0.8230;
515.4000;0.5242;0.8206;
515.7000;0.5242;0.8182;
516.0000;0.5242;0.8206;
516.3000;0.5226;0.8133;
516.6000;0.5226;0.8157;
516.9000;0.5250;0.8157;
517.2000;0.5234;0.8303;
517.5000;0.5226;0.8255;
517.8000;0.5242;0.8352;
518.1000;0.5218;0.8401;
518.4000;0.5218;0.8425;
518.7000;0.5218;0.8498;
519.0000;0.5234;0.8474;
519.3000;0.5234;0.8449;
519.6000;0.5234;0.8401;
519.9000;0.5250;0.8425;
520.2000;0.5242;0.8474;
520.5000;0.5226;0.8523;
520.8000;0.5234;0.8547;
521.1000;0.5242;0.8571;
521.4000;0.5185;0.8449;
521.7000;0.5218;0.8571;
522.0000;0.5226;0.8596;
522.3000;0.5242;0.8571;
522.6000;0.5250;0.8644;
522.9000;0.5218;0.8571;
523.2000;0.5250;0.8644;
523.5000;0.5218;0.8620;
523.8000;0.5226;0.8523;
524.1000;0.5201;0.8449;
524.4000;0.5234;0.8523;
524.7000;0.5226;0.8498;
525.0000;0.5218;0.8376;
525.3000;0.5193;0.8425;
525.6000;0.5283;0.8717;
525.9000;0.5226;0.8547;
526.2000;0.5226;0.8498;
526.5000;0.5210;0.8352;
526.8000;0.5218;0.8328;
527.1000;0.5226;0.8401;
527.4000;0.5267;0.8523;
527.7000;0.5226;0.8474;
528.0000;0.5185;0.8352;
528.3000;0.5218;0.8376;
528.6000;0.5218;0.8376;
528.9000;0.5210;0.8425;
529.2000;0.5226;0.8425;
529.5000;0.5226;0.8449;
529.8000;0.5210;0.8449;
530.1000;0.5201;0.8376;
530.4000;0.5226;0.8547;
530.7000;0.5234;0.8547;
531.0000;0.5177;0.8425;
531.3000;0.5242;0.8669;
531.6000;0.5169;0.8547;
531.9000;0.5234;0.8717;
532.2000;0.5242;0.8717;
532.5000;0.5250;0.8766;
532.8000;0.5226;0.8620;
533.1000;0.5201;0.8620;
533.4000;0.5226;0.8620;
533.7000;0.5242;0.8620;
534.0000;0.5218;0.8693;
534.3000;0.5250;0.8766;
534.6000;0.5210;0.8644;
534.9000;0.5218;0.8644;
535.2000;0.5250;0.8571;
535.5000;0.5234;0.8474;
535.8000;0.5226;0.8401;
536.1000;0.5226;0.8474;
536.4000;0.5210;0.8401;
536.7000;0.5234;0.8547;
537.0000;0.5169;0.8401;
537.3000;0.5234;0.8523;
537.6000;0.5234;0.8620;
537.9000;0.5234;0.8571;
538.2000;0.5218;0.8547;
538.5000;0.5283;0.8790;
538.8000;0.5242;0.8717;
539.1000;0.5201;0.8523;
539.4000;0.5210;0.8474;
539.7000;0.5250;0.8571;
540.0000;0.5226;0.8401;
540.3000;0.5218;0.8401;
540.6000;0.5193;0.8352;
540.9000;0.5242;0.8425;
541.2000;0.5242;0.8547;
541.5000;0.5210;0.8596;
541.8000;0.5226;0.8620;
542.1000;0.5218;0.8620;
542.4000;0.5234;0.8717;
542.7000;0.5218;0.8693;
543.0000;0.5218;0.8644;
543.3000;0.5193;0.8571;
543.6000;0.5234;0.8717;
543.9000;0.5267;0.8717;
544.2000;0.5226;0.8644;
544.5000;0.5218;0.8644;
544.8000;0.5218;0.8596;
545.1000;0.5218;0.8523;
545.4000;0.5226;0.8523;
545.7000;0.5218;0.8523;
546.0000;0.5218;0.8523;
546.3000;0.5226;0.8596;
546.6000;0.5193;0.8474;
546.9000;0.5210;0.8523;
547.2000;0.5210;0.8523;
547.5000;0.5193;0.8474;
547.8000;0.5218;0.8547;
548.1000;0.5218;0.8547;
548.4000;0.5218;0.8449;
548.7000;0.5169;0.8376;
549.0000;0.5210;0.8401;
549.3000;0.5218;0.8474;
549.6000;0.5201;0.8571;
549.9000;0.5218;0.8523;
550.2000;0.5226;0.8523;
550.5000;0.5210;0.8474;
550.8000;0.5242;0.8547;
551.1000;0.5226;0.8523;
551.4000;0.5226;0.8547;
551.7000;0.5226;0.8523;
552.0000;0.5234;0.8596;
552.3000;0.5226;0.8498;
552.6000;0.5234;0.8523;
552.9000;0.5234;0.8425;
553.2000;0.5234;0.8376;
553.5000;0.5226;0.8352;
553.8000;0.5210;0.8303;
554.1000;0.5193;0.8401;
554.4000;0.5226;0.8449;
554.7000;0.5210;0.8376;
555.0000;0.5218;0.8571;
555.3000;0.5218;0.8620;
555.6000;0.5226;0.8571;
555.9000;0.5226;0.8596;
556.2000;0.5201;0.8596;
556.5000;0.5226;0.8766;
556.8000;0.5226;0.8790;
557.1000;0.5201;0.8644;
557.4000;0.5218;0.8717;
557.7000;0.5234;0.8839;
558.0000;0.5234;0.8912;
558.3000;0.5210;0.8815;
558.6000;0.5193;0.8693;
558.9000;0.5234;0.8790;
559.2000;0.5210;0.8693;
559.5000;0.5210;0.8693;
559.8000;0.5258;0.8790;
560.1000;0.5218;0.8717;
560.4000;0.5226;0.8839;
560.7000;0.5210;0.8766;
561.0000;0.5193;0.8669;
561.3000;0.5218;0.8693;
561.6000;0.5201;0.8644;
561.9000;0.5112;0.8449;
562.2000;0.5226;0.8693;
562.5000;0.5218;0.8644;
562.8000;0.5250;0.8669;
563.1000;0.5226;0.8596;
563.4000;0.5226;0.8669;
563.7000;0.5201;0.8620;
564.0000;0.5210;0.8644;
564.3000;0.5234;0.8620;
564.6000;0.5210;0.8547;
564.9000;0.5234;0.8620;
565.2000;0.5210;0.8644;
565.5000;0.5218;0.8669;
565.8000;0.5218;0.8742;
566.1000;0.5185;0.8620;
566.4000;0.5234;0.8547;
566.7000;0.5234;0.8498;
567.0000;0.5234;0.8523;
567.3000;0.5283;0.8547;
567.6000;0.5234;0.8474;
567.9000;0.5161;0.8303;
568.2000;0.5226;0.8425;
568.5000;0.5234;0.8425;
568.8000;0.5218;0.8352;
569.1000;0.5201;0.8352;
569.4000;0.5193;0.8279;
569.7000;0.5267;0.8449;
570.0000;0.5185;0.8230;
570.3000;0.5210;0.8328;
570.6000;0.5226;0.8474;
570.9000;0.5210;0.8425;
571.2000;0.5210;0.8449;
571.5000;0.5267;0.8644;
571.8000;0.5218;0.8571;
572.1000;0.5218;0.8547;
572.4000;0.5144;0.8279;
572.7000;0.5210;0.8474;
573.0000;0.5234;0.8620;
573.3000;0.5218;0.8644;
573.6000;0.5201;0.8547;
573.9000;0.5218;0.8596;
574.2000;0.5201;0.8669;
574.5000;0.5226;0.8742;
574.8000;0.5185;0.8620;
575.1000;0.5201;0.8547;
575.4000;0.5185;0.8449;
575.7000;0.5201;0.8474;
576.0000;0.5193;0.8474;
576.3000;0.5210;0.8498;
576.6000;0.5234;0.8596;
576.9000;0.5234;0.8596;
577.2000;0.5210;0.8523;
577.5000;0.5226;0.8523;
577.8000;0.5218;0.8523;
578.1000;0.5234;0.8523;
578.4000;0.5169;0.8401;
578.7000;0.5242;0.8571;
579.0000;0.5234;0.8449;
579.3000;0.5242;0.8449;
579.6000;0.5234;0.8449;
579.9000;0.5193;0.8376;
580.2000;0.5210;0.8401;
580.5000;0.5226;0.8547;
580.8000;0.5226;0.8498;
581.1000;0.5234;0.8547;
581.4000;0.5218;0.8449;
581.7000;0.5218;0.8449;
582.0000;0.5185;0.8352;
582.3000;0.5210;0.8425;
582.6000;0.5226;0.8401;
582.9000;0.5226;0.8303;
583.2000;0.5234;0.8328;
583.5000;0.5258;0.8449;
583.8000;0.5218;0.8352;
584.1000;0.5201;0.8303;
584.4000;0.5226;0.8352;
584.7000;0.5218;0.8376;
585.0000;0.5226;0.8352;
585.3000;0.5226;0.8425;
585.6000;0.5193;0.8498;
585.9000;0.5267;0.8620;
586.2000;0.5177;0.8376;
586.5000;0.5218;0.8474;
586.8000;0.5218;0.8474;
587.1000;0.5234;0.8571;
587.4000;0.5258;0.8693;
587.7000;0.5226;0.8620;
588.0000;0.5226;0.8571;
588.3000;0.5218;0.8498;
588.6000;0.5234;0.8523;
588.9000;0.5226;0.8620;
589.2000;0.5153;0.8425;
589.5000;0.5226;0.8693;
589.8000;0.5177;0.8523;
590.1000;0.5210;0.8547;
590.4000;0.5210;0.8474;
590.7000;0.5226;0.8449;
591.0000;0.5177;0.8157;
591.3000;0.5258;0.8352;
591.6000;0.5201;0.8230;
591.9000;0.5218;0.8255;
592.2000;0.5161;0.8279;
592.5000;0.5226;0.8474;
592.8000;0.5258;0.8571;
593.1000;0.5210;0.8498;
593.4000;0.5210;0.8523;
593.7000;0.5201;0.8498;
594.0000;0.5234;0.8596;
594.3000;0.5226;0.8620;
594.6000;0.5234;0.8790;
594.9000;0.5218;0.8790;
595.2000;0.5250;0.8912;
595.5000;0.5267;0.8888;
595.8000;0.5185;0.8693;
596.1000;0.5210;0.8790;
596.4000;0.5201;0.8742;
596.7000;0.5210;0.8693;
597.0000;0.5218;0.8717;
597.3000;0.5226;0.8766;
597.6000;0.5226;0.8644;
597.9000;0.5218;0.8596;
598.2000;0.5201;0.8596;
598.5000;0.5242;0.8717;
598.8000;0.5234;0.8669;
599.1000;0.5193;0.8620;
599.4000;0.5112;0.8401;
599.7000;0.5226;0.8644;
600.0000;0.5193;0.8547;
600.3000;0.5201;0.8401;
600.6000;0.5210;0.8303;
600.9000;0.5177;0.8182;
601.2000;0.5144;0.7962;
601.5000;0.5177;0.7987;
601.8000;0.5079;0.7792;
602.1000;0.5071;0.7622;
602.4000;0.5055;0.7451;
602.7000;0.5071;0.7500;
603.0000;0.5079;0.7549;
603.3000;0.4974;0.7232;
603.6000;0.4990;0.7232;
603.9000;0.4908;0.7086;
604.2000;0.4892;0.7086;
604.5000;0.4868;0.7013;
604.8000;0.4835;0.6915;
605.1000;0.4843;0.6891;
605.4000;0.4811;0.6745;
605.7000;0.4786;0.6745;
606.0000;0.4778;0.6672;
606.3000;0.4778;0.6648;
606.6000;0.4770;0.6648;
606.9000;0.4746;0.6575;
607.2000;0.4713;0.6599;
607.5000;0.4737;0.6696;
607.8000;0.4705;0.6672;
608.1000;0.4705;0.6721;
608.4000;0.4697;0.6721;
608.7000;0.4689;0.6672;
609.0000;0.4681;0.6648;
609.3000;0.4672;0.6526;
609.6000;0.4648;0.6526;
609.9000;0.4664;0.6648;
610.2000;0.4640;0.6575;
610.5000;0.4640;0.6550;
610.8000;0.4615;0.6550;
611.1000;0.4583;0.6477;
611.4000;0.4599;0.6623;
611.7000;0.4599;0.6575;
612.0000;0.4567;0.6453;
612.3000;0.4567;0.6453;
612.6000;0.4567;0.6428;
612.9000;0.4550;0.6282;
613.2000;0.4542;0.6161;
613.5000;0.4542;0.6185;
613.8000;0.4542;0.6234;
614.1000;0.4624;0.6428;
614.4000;0.4469;0.6112;
614.7000;0.4534;0.6185;
615.0000;0.4501;0.6112;
615.3000;0.4501;0.6185;
615.6000;0.4510;0.6185;
615.9000;0.4534;0.6380;
616.2000;0.4526;0.6355;
616.5000;0.4477;0.6234;
616.8000;0.4469;0.6209;
617.1000;0.4558;0.6526;
617.4000;0.4436;0.6209;
617.7000;0.4444;0.6258;
618.0000;0.4461;0.6380;
618.3000;0.4444;0.6355;
618.6000;0.4453;0.6331;
618.9000;0.4453;0.6307;
619.2000;0.4461;0.6331;
619.5000;0.4453;0.6404;
619.8000;0.4428;0.6307;
620.1000;0.4444;0.6282;
620.4000;0.4444;0.6185;
620.7000;0.4461;0.6209;
621.0000;0.4428;0.6063;
621.3000;0.4396;0.6039;
621.6000;0.4404;0.6014;
621.9000;0.4396;0.6014;
622.2000;0.4412;0.6088;
622.5000;0.4428;0.6136;
622.8000;0.4387;0.6112;
623.1000;0.4396;0.6136;
623.4000;0.4379;0.6088;
623.7000;0.4379;0.6112;
624.0000;0.4371;0.6112;
624.3000;0.4379;0.6136;
624.6000;0.4347;0.6063;
624.9000;0.4355;0.6136;
625.2000;0.4330;0.6112;
625.5000;0.4339;0.6209;
625.8000;0.4347;0.6161;
626.1000;0.4322;0.6209;
626.4000;0.4330;0.6234;
626.7000;0.4314;0.6209;
627.0000;0.4306;0.6258;
627.3000;0.4298;0.6185;
627.6000;0.4322;0.6185;
627.9000;0.4306;0.6185;
628.2000;0.4306;0.6234;
628.5000;0.4306;0.6136;
628.8000;0.4298;0.6209;
629.1000;0.4241;0.6161;
629.4000;0.4314;0.6380;
629.7000;0.4298;0.6331;
630.0000;0.4290;0.6258;
630.3000;0.4298;0.6209;
630.6000;0.4306;0.6209;
630.9000;0.4290;0.6282;
631.2000;0.4265;0.6185;
631.5000;0.4265;0.6331;
631.8000;0.4168;0.6088;
632.1000;0.4282;0.6355;
632.4000;0.4257;0.6209;
632.7000;0.4200;0.6112;
633.0000;0.4200;0.6063;
633.3000;0.4265;0.6234;
633.6000;0.4241;0.6185;
633.9000;0.4241;0.6185;
634.2000;0.4282;0.6234;
634.5000;0.4249;0.6161;
634.8000;0.4192;0.5966;
635.1000;0.4265;0.6258;
635.4000;0.4233;0.6258;
635.7000;0.4249;0.6258;
636.0000;0.4249;0.6234;
636.3000;0.4225;0.6258;
636.6000;0.4208;0.6161;
636.9000;0.4225;0.6209;
637.2000;0.4200;0.6209;
637.5000;0.4200;0.6258;
637.8000;0.4200;0.6331;
638.1000;0.4208;0.6380;
638.4000;0.4192;0.6404;
638.7000;0.4208;0.6307;
639.0000;0.4208;0.6258;
639.3000;0.4200;0.6209;
639.6000;0.4217;0.6331;
639.9000;0.4176;0.6331;
640.2000;0.4192;0.6331;
640.5000;0.4176;0.6307;
640.8000;0.4176;0.6355;
641.1000;0.4176;0.6331;
641.4000;0.4160;0.6331;
641.7000;0.4176;0.6331;
642.0000;0.4176;0.6404;
642.3000;0.4168;0.6282;
642.6000;0.4151;0.6209;
642.9000;0.4160;0.6307;
643.2000;0.4184;0.6355;
643.5000;0.4241;0.6526;
643.8000;0.4168;0.6282;
644.1000;0.4151;0.6136;
644.4000;0.4160;0.6185;
644.7000;0.4143;0.6209;
645.0000;0.4151;0.6209;
645.3000;0.4168;0.6209;
645.6000;0.4168;0.6258;
645.9000;0.4168;0.6355;
646.2000;0.4160;0.6331;
646.5000;0.4160;0.6404;
646.8000;0.4151;0.6307;
647.1000;0.4127;0.6258;
647.4000;0.4127;0.6355;
647.7000;0.4127;0.6331;
648.0000;0.4143;0.6380;
648.3000;0.4127;0.6404;
648.6000;0.4046;0.6136;
648.9000;0.4151;0.6404;
649.2000;0.4111;0.6355;
649.5000;0.4078;0.6307;
649.8000;0.4111;0.6453;
650.1000;0.4135;0.6404;
650.4000;0.4119;0.6355;
650.7000;0.4135;0.6355;
651.0000;0.4094;0.6234;
651.3000;0.4111;0.6331;
651.6000;0.4070;0.6258;
651.9000;0.4111;0.6404;
652.2000;0.4070;0.6185;
652.5000;0.4103;0.6282;
652.8000;0.4111;0.6331;
653.1000;0.4111;0.6234;
653.4000;0.4119;0.6282;
653.7000;0.4160;0.6404;
654.0000;0.4184;0.6428;
654.3000;0.4127;0.6404;
654.6000;0.4143;0.6453;
654.9000;0.4111;0.6404;
655.2000;0.4086;0.6355;
655.5000;0.4111;0.6307;
655.8000;0.4054;0.6209;
656.1000;0.4094;0.6258;
656.4000;0.4103;0.6185;
656.7000;0.4078;0.6039;
657.0000;0.4078;0.6014;
657.3000;0.4103;0.6039;
657.6000;0.4078;0.6063;
657.9000;0.4184;0.6404;
658.2000;0.4086;0.6039;
658.5000;0.4086;0.5990;
658.8000;0.4062;0.6014;
659.1000;0.4078;0.6112;
659.4000;0.4070;0.6136;
659.7000;0.4070;0.6185;
660.0000;0.4111;0.6258;
660.3000;0.4070;0.6088;
660.6000;0.4070;0.6161;
660.9000;0.4054;0.6185;
661.2000;0.4062;0.6234;
661.5000;0.4070;0.6209;
661.8000;0.4078;0.6404;
662.1000;0.4070;0.6282;
662.4000;0.4160;0.6477;
662.7000;0.4054;0.6136;
663.0000;0.4103;0.6234;
663.3000;0.4062;0.6161;
663.6000;0.4070;0.6161;
663.9000;0.4062;0.6161;
664.2000;0.4046;0.6161;
664.5000;0.4054;0.6185;
664.8000;0.4078;0.6282;
665.1000;0.4054;0.6258;
665.4000;0.4062;0.6234;
665.7000;0.4029;0.6234;
666.0000;0.4062;0.6209;
666.3000;0.4037;0.6185;
666.6000;0.4037;0.6161;
666.9000;0.4070;0.6136;
667.2000;0.4021;0.6039;
667.5000;0.4062;0.6209;
667.8000;0.4046;0.6234;
668.1000;0.4037;0.6331;
668.4000;0.4037;0.6331;
668.7000;0.4029;0.6307;
669.0000;0.4135;0.6550;
669.3000;0.4021;0.6307;
669.6000;0.4029;0.6282;
669.9000;0.4021;0.6380;
670.2000;0.4127;0.6696;
670.5000;0.4037;0.6477;
670.8000;0.4029;0.6477;
671.1000;0.4013;0.6380;
671.4000;0.4021;0.6355;
671.7000;0.4029;0.6355;
672.0000;0.4013;0.6331;
672.3000;0.4021;0.6331;
672.6000;0.3956;0.6258;
672.9000;0.4029;0.6453;
673.2000;0.4021;0.6501;
673.5000;0.4078;0.6575;
673.8000;0.4013;0.6428;
674.1000;0.4005;0.6404;
674.4000;0.4021;0.6501;
674.7000;0.4021;0.6477;
675.0000;0.4013;0.6477;
675.3000;0.4021;0.6428;
675.6000;0.3980;0.6185;
675.9000;0.4005;0.6258;
676.2000;0.4013;0.6282;
676.5000;0.3989;0.6209;
676.8000;0.4005;0.6258;
677.1000;0.3997;0.6185;
677.4000;0.3980;0.6234;
677.7000;0.4005;0.6258;
678.0000;0.3989;0.6136;
678.3000;0.3989;0.6088;
678.6000;0.3997;0.6185;
678.9000;0.4037;0.6258;
679.2000;0.4005;0.6185;
679.5000;0.4013;0.6234;
679.8000;0.3989;0.6136;
680.1000;0.3997;0.6136;
680.4000;0.4021;0.6209;
680.7000;0.3989;0.6112;
681.0000;0.3989;0.6161;
681.3000;0.3989;0.6234;
681.6000;0.3997;0.6307;
681.9000;0.4029;0.6404;
682.2000;0.3997;0.6380;
682.5000;0.3972;0.6355;
682.8000;0.4013;0.6550;
683.1000;0.3997;0.6453;
683.4000;0.3948;0.6380;
683.7000;0.3989;0.6501;
684.0000;0.3948;0.6307;
684.3000;0.3891;0.6112;
684.6000;0.3972;0.6355;
684.9000;0.4005;0.6428;
685.2000;0.3956;0.6404;
685.5000;0.3972;0.6477;
685.8000;0.3956;0.6453;
686.1000;0.3980;0.6404;
686.4000;0.3948;0.6355;
686.7000;0.3964;0.6428;
687.0000;0.3948;0.6355;
687.3000;0.3948;0.6331;
687.6000;0.3964;0.6404;
687.9000;0.3956;0.6355;
688.2000;0.4005;0.6501;
688.5000;0.3956;0.6331;
688.8000;0.3956;0.6234;
689.1000;0.4021;0.6282;
689.4000;0.3932;0.6234;
689.7000;0.3956;0.6380;
690.0000;0.3980;0.6331;
690.3000;0.3997;0.6355;
690.6000;0.3980;0.6380;
690.9000;0.3915;0.6161;
691.2000;0.3948;0.6258;
691.5000;0.3948;0.6282;
691.8000;0.3980;0.6355;
692.1000;0.3980;0.6355;
692.4000;0.3972;0.6355;
692.7000;0.3891;0.6136;
693.0000;0.3997;0.6380;
693.3000;0.3972;0.6307;
693.6000;0.3948;0.6307;
693.9000;0.3956;0.6355;
694.2000;0.3964;0.6307;
694.5000;0.3956;0.6258;
694.8000;0.3964;0.6282;
695.1000;0.3964;0.6355;
695.4000;0.3940;0.6331;
695.7000;0.3964;0.6404;
696.0000;0.3972;0.6477;
696.3000;0.3956;0.6453;
696.6000;0.3964;0.6501;
696.9000;0.3940;0.6501;
697.2000;0.3956;0.6648;
697.5000;0.3948;0.6599;
697.8000;0.3932;0.6526;
698.1000;0.3932;0.6550;
698.4000;0.3980;0.6648;
698.7000;0.3972;0.6575;
699.0000;0.3940;0.6575;
699.3000;0.3923;0.6575;
699.6000;0.3940;0.6623;
699.9000;0.3923;0.6623;
700.2000;0.3948;0.6575;
700.5000;0.3940;0.6526;
700.8000;0.3972;0.6526;
701.1000;0.3923;0.6501;
701.4000;0.3932;0.6477;
701.7000;0.3891;0.6282;
702.0000;0.3932;0.6428;
702.3000;0.3972;0.6380;
702.6000;0.3964;0.6282;
702.9000;0.3940;0.6185;
703.2000;0.3948;0.6282;
703.5000;0.3932;0.6307;
703.8000;0.3834;0.6014;
704.1000;0.3948;0.6234;
704.4000;0.3923;0.6161;
704.7000;0.3907;0.6161;
705.0000;0.3923;0.6234;
705.3000;0.3940;0.6234;
705.6000;0.3932;0.6209;
705.9000;0.3964;0.6258;
706.2000;0.3923;0.6209;
706.5000;0.3899;0.6161;
706.8000;0.3834;0.5966;
707.1000;0.3915;0.6185;
707.4000;0.3923;0.6209;
707.7000;0.3899;0.6136;
708.0000;0.3915;0.6185;
708.3000;0.3940;0.6209;
708.6000;0.3932;0.6258;
708.9000;0.4070;0.6599;
709.2000;0.3932;0.6185;
709.5000;0.3923;0.6282;
709.8000;0.3932;0.6258;
710.1000;0.3932;0.6307;
710.4000;0.3932;0.6307;
710.7000;0.3907;0.6282;
711.0000;0.3915;0.6331;
711.3000;0.3932;0.6307;
711.6000;0.3907;0.6234;
711.9000;0.3980;0.6453;
712.2000;0.3907;0.6258;
712.5000;0.3932;0.6355;
712.8000;0.3907;0.6307;
713.1000;0.3850;0.6161;
713.4000;0.3932;0.6355;
713.7000;0.3932;0.6404;
714.0000;0.3948;0.6477;
714.3000;0.3907;0.6404;
714.6000;0.3932;0.6477;
714.9000;0.3997;0.6696;
715.2000;0.3923;0.6501;
715.5000;0.3915;0.6501;
715.8000;0.3883;0.6477;
716.1000;0.3907;0.6526;
716.4000;0.3858;0.6355;
716.7000;0.3891;0.6428;
717.0000;0.3915;0.6526;
717.3000;0.3842;0.6282;
717.6000;0.3891;0.6355;
717.9000;0.3883;0.6404;
718.2000;0.3899;0.6380;
718.5000;0.3948;0.6428;
718.8000;0.3899;0.6331;
719.1000;0.3899;0.6331;
719.4000;0.3907;0.6209;
719.7000;0.3907;0.6209;
720.0000;0.3899;0.6234;
720.3000;0.3915;0.6307;
720.6000;0.3891;0.6209;
720.9000;0.3907;0.6355;
721.2000;0.3915;0.6404;
721.5000;0.3923;0.6404;
721.8000;0.3891;0.6282;
722.1000;0.3907;0.6258;
722.4000;0.3932;0.6307;
722.7000;0.4021;0.6599;
723.0000;0.3923;0.6380;
723.3000;0.3891;0.6307;
723.6000;0.3948;0.6380;
723.9000;0.3915;0.6404;
724.2000;0.3915;0.6477;
724.5000;0.3891;0.6477;
724.8000;0.3997;0.6745;
725.1000;0.3907;0.6477;
725.4000;0.3891;0.6501;
725.7000;0.3923;0.6575;
726.0000;0.3899;0.6550;
726.3000;0.3940;0.6550;
726.6000;0.3932;0.6526;
726.9000;0.3883;0.6404;
727.2000;0.3907;0.6428;
727.5000;0.3915;0.6380;
727.8000;0.3899;0.6380;
728.1000;0.3891;0.6234;
728.4000;0.3891;0.6209;
728.7000;0.3891;0.6331;
729.0000;0.3891;0.6355;
729.3000;0.3875;0.6355;
729.6000;0.3883;0.6355;
729.9000;0.3875;0.6331;
730.2000;0.3899;0.6404;
730.5000;0.3899;0.6453;
730.8000;0.3875;0.6380;
731.1000;0.3883;0.6282;
731.4000;0.3875;0.6185;
731.7000;0.3899;0.6209;
732.0000;0.3883;0.6088;
732.3000;0.3907;0.6209;
732.6000;0.3899;0.6331;
732.9000;0.3891;0.6307;
733.2000;0.3899;0.6331;
733.5000;0.3867;0.6355;
733.8000;0.3883;0.6428;
734.1000;0.3883;0.6428;
734.4000;0.3867;0.6428;
734.7000;0.3883;0.6380;
735.0000;0.3867;0.6307;
735.3000;0.3883;0.6380;
735.6000;0.3883;0.6355;
735.9000;0.3875;0.6355;
736.2000;0.3875;0.6331;
736.5000;0.3923;0.6428;
736.8000;0.3867;0.6282;
737.1000;0.3891;0.6380;
737.4000;0.3883;0.6404;
737.7000;0.3891;0.6501;
738.0000;0.3875;0.6428;
738.3000;0.3891;0.6428;
738.6000;0.3899;0.6477;
738.9000;0.3891;0.6453;
739.2000;0.3883;0.6331;
739.5000;0.3867;0.6355;
739.8000;0.3875;0.6355;
740.1000;0.3875;0.6404;
740.4000;0.3867;0.6453;
740.7000;0.3891;0.6453;
741.0000;0.3907;0.6501;
741.3000;0.3858;0.6209;
741.6000;0.3834;0.6088;
741.9000;0.3883;0.6234;
742.2000;0.3964;0.6428;
742.5000;0.3858;0.6161;
742.8000;0.3867;0.6185;
743.1000;0.3858;0.6161;
743.4000;0.3842;0.6161;
743.7000;0.3850;0.6185;
744.0000;0.3850;0.6307;
744.3000;0.3867;0.6355;
744.6000;0.3867;0.6355;
744.9000;0.3858;0.6404;
745.2000;0.3907;0.6501;
745.5000;0.3858;0.6453;
745.8000;0.3842;0.6477;
746.1000;0.3867;0.6623;
746.4000;0.3842;0.6428;
746.7000;0.3875;0.6477;
747.0000;0.3891;0.6477;
747.3000;0.3850;0.6428;
747.6000;0.3867;0.6404;
747.9000;0.3875;0.6307;
748.2000;0.3867;0.6404;
748.5000;0.3883;0.6380;
748.8000;0.3875;0.6404;
749.1000;0.3891;0.6453;
749.4000;0.3899;0.6501;
749.7000;0.3777;0.6234;
750.0000;0.3850;0.6355;
750.3000;0.3842;0.6282;
750.6000;0.3834;0.6282;
750.9000;0.3858;0.6355;
751.2000;0.3875;0.6428;
751.5000;0.3858;0.6453;
751.8000;0.3899;0.6575;
752.1000;0.3883;0.6550;
752.4000;0.3875;0.6501;
752.7000;0.3883;0.6501;
753.0000;0.3875;0.6380;
753.3000;0.3883;0.6380;
753.6000;0.3867;0.6355;
753.9000;0.3858;0.6355;
754.2000;0.3867;0.6355;
754.5000;0.3858;0.6404;
754.8000;0.3867;0.6404;
755.1000;0.3883;0.6404;
755.4000;0.3858;0.6307;
755.7000;0.3850;0.6307;
756.0000;0.3875;0.6307;
756.3000;0.3858;0.6258;
756.6000;0.3867;0.6380;
756.9000;0.3850;0.6258;
757.2000;0.3875;0.6331;
757.5000;0.3875;0.6258;
757.8000;0.3858;0.6307;
758.1000;0.3891;0.6331;
758.4000;0.3883;0.6307;
758.7000;0.3867;0.6282;
759.0000;0.3842;0.6258;
759.3000;0.3867;0.6307;
759.6000;0.3883;0.6307;
759.9000;0.3858;0.6258;
760.2000;0.3867;0.6282;
760.5000;0.3850;0.6234;
760.8000;0.3867;0.6282;
761.1000;0.3875;0.6209;
761.4000;0.3867;0.6209;
761.7000;0.3858;0.6282;
762.0000;0.3883;0.6380;
762.3000;0.3867;0.6258;
762.6000;0.3842;0.6258;
762.9000;0.3850;0.6234;
763.2000;0.3842;0.6185;
763.5000;0.3818;0.6063;
763.8000;0.3850;0.6185;
764.1000;0.3850;0.6209;
764.4000;0.3858;0.6234;
764.7000;0.3875;0.6282;
765.0000;0.3875;0.6404;
765.3000;0.3850;0.6282;
765.6000;0.3867;0.6209;
765.9000;0.3875;0.6331;
766.2000;0.3850;0.6307;
766.5000;0.3867;0.6355;
766.8000;0.3842;0.6282;
767.1000;0.3858;0.6307;
767.4000;0.3850;0.6209;
767.7000;0.3875;0.6282;
768.0000;0.3858;0.6404;
768.3000;0.3858;0.6404;
768.6000;0.3818;0.6282;
768.9000;0.3842;0.6282;
769.2000;0.3850;0.6209;
769.5000;0.3842;0.6185;
769.8000;0.3850;0.6161;
770.1000;0.3850;0.6088;
770.4000;0.3842;0.6161;
770.7000;0.3850;0.6234;
771.0000;0.3842;0.6136;
771.3000;0.3834;0.6088;
771.6000;0.3842;0.6161;
771.9000;0.3801;0.5990;
772.2000;0.3875;0.6209;
772.5000;0.3858;0.6258;
772.8000;0.3883;0.6282;
773.1000;0.3834;0.6209;
773.4000;0.3850;0.6355;
773.7000;0.3850;0.6307;
774.0000;0.3842;0.6331;
774.3000;0.3842;0.6307;
774.6000;0.3850;0.6380;
774.9000;0.3818;0.6404;
775.2000;0.3826;0.6380;
775.5000;0.3850;0.6355;
775.8000;0.3842;0.6307;
776.1000;0.3858;0.6282;
776.4000;0.3834;0.6234;
776.7000;0.3850;0.6331;
777.0000;0.3850;0.6428;
777.3000;0.3867;0.6501;
777.6000;0.3867;0.6453;
777.9000;0.3858;0.6380;
778.2000;0.3834;0.6380;
778.5000;0.3858;0.6404;
778.8000;0.3850;0.6404;
779.1000;0.3858;0.6453;
779.4000;0.3834;0.6331;
779.7000;0.3826;0.6307;
780.0000;0.3867;0.6355;
780.3000;0.3842;0.6355;
780.6000;0.3826;0.6307;
780.9000;0.3777;0.6063;
781.2000;0.3842;0.6209;
781.5000;0.3826;0.6185;
781.8000;0.3875;0.6307;
782.1000;0.3899;0.6404;
782.4000;0.3826;0.6258;
782.7000;0.3858;0.6307;
783.0000;0.3810;0.6088;
783.3000;0.3842;0.6185;
783.6000;0.3850;0.6209;
783.9000;0.3867;0.6282;
784.2000;0.3842;0.6209;
784.5000;0.3834;0.6136;
784.8000;0.3842;0.6161;
785.1000;0.3826;0.6209;
785.4000;0.3834;0.6185;
785.7000;0.3875;0.6209;
786.0000;0.3850;0.6136;
786.3000;0.3818;0.6112;
786.6000;0.3850;0.6161;
786.9000;0.3810;0.6136;
787.2000;0.3842;0.6185;
787.5000;0.3810;0.6136;
787.8000;0.3834;0.6307;
788.1000;0.3842;0.6307;
788.4000;0.3850;0.6282;
788.7000;0.3899;0.6526;
789.0000;0.3834;0.6404;
789.3000;0.3834;0.6331;
789.6000;0.3907;0.6599;
789.9000;0.3834;0.6355;
790.2000;0.3867;0.6331;
790.5000;0.3850;0.6404;
790.8000;0.3826;0.6355;
791.1000;0.3793;0.6282;
791.4000;0.3858;0.6428;
791.7000;0.3850;0.6404;
792.0000;0.3875;0.6453;
792.3000;0.3842;0.6355;
792.6000;0.3850;0.6380;
792.9000;0.3850;0.6404;
793.2000;0.3826;0.6404;
793.5000;0.3801;0.6355;
793.8000;0.3858;0.6477;
794.1000;0.3810;0.6234;
794.4000;0.3834;0.6331;
794.7000;0.3826;0.6282;
795.0000;0.3834;0.6258;
795.3000;0.3834;0.6258;
795.6000;0.3834;0.6307;
795.9000;0.3850;0.6331;
796.2000;0.3850;0.6355;
796.5000;0.3850;0.6453;
796.8000;0.3753;0.6209;
797.1000;0.3842;0.6477;
797.4000;0.3777;0.6282;
797.7000;0.3858;0.6550;
798.0000;0.3883;0.6599;
798.3000;0.3867;0.6623;
798.6000;0.3818;0.6550;
798.9000;0.3850;0.6623;
799.2000;0.3842;0.6501;
799.5000;0.3850;0.6575;
799.8000;0.3834;0.6453;
800.1000;0.3834;0.6575;
800.4000;0.3923;0.6696;
800.7000;0.3834;0.6428;
801.0000;0.3801;0.6331;
801.3000;0.3818;0.6355;
801.6000;0.3842;0.6380;
801.9000;0.3834;0.6331;
802.2000;0.3818;0.6234;
802.5000;0.3842;0.6331;
802.8000;0.3826;0.6307;
803.1000;0.3867;0.6477;
803.4000;0.3810;0.6185;
803.7000;0.3834;0.6307;
804.0000;0.3875;0.6331;
804.3000;0.3826;0.6234;
804.6000;0.3850;0.6258;
804.9000;0.3753;0.6088;
805.2000;0.3826;0.6307;
805.5000;0.3810;0.6331;
805.8000;0.3818;0.6307;
806.1000;0.3826;0.6355;
806.4000;0.3826;0.6404;
806.7000;0.3818;0.6428;
807.0000;0.3834;0.6477;
807.3000;0.3834;0.6501;
807.6000;0.3753;0.6282;
807.9000;0.3842;0.6526;
808.2000;0.3842;0.6526;
808.5000;0.3818;0.6477;
808.8000;0.3834;0.6477;
809.1000;0.3826;0.6453;
809.4000;0.3826;0.6404;
809.7000;0.3842;0.6428;
810.0000;0.3858;0.6453;
810.3000;0.3818;0.6282;
810.6000;0.3810;0.6307;
810.9000;0.3785;0.6258;
811.2000;0.3834;0.6404;
811.5000;0.3801;0.6404;
811.8000;0.3826;0.6404;
812.1000;0.3810;0.6380;
812.4000;0.3818;0.6550;
812.7000;0.3818;0.6599;
813.0000;0.3842;0.6648;
813.3000;0.3818;0.6599;
813.6000;0.3818;0.6501;
813.9000;0.3810;0.6501;
814.2000;0.3826;0.6550;
814.5000;0.3826;0.6526;
814.8000;0.3810;0.6428;
815.1000;0.3810;0.6428;
815.4000;0.3818;0.6501;
815.7000;0.3810;0.6477;
816.0000;0.3785;0.6428;
816.3000;0.3834;0.6501;
816.6000;0.3818;0.6501;
816.9000;0.3842;0.6550;
817.2000;0.3826;0.6453;
817.5000;0.3810;0.6355;
817.8000;0.3826;0.6380;
818.1000;0.3826;0.6380;
818.4000;0.3826;0.6428;
818.7000;0.3818;0.6355;
819.0000;0.3842;0.6355;
819.3000;0.3834;0.6428;
819.6000;0.3810;0.6453;
819.9000;0.3834;0.6453;
820.2000;0.3875;0.6428;
820.5000;0.3826;0.6282;
820.8000;0.3867;0.6331;
821.1000;0.3801;0.6161;
821.4000;0.3826;0.6234;
821.7000;0.3801;0.6282;
822.0000;0.3818;0.6331;
822.3000;0.3826;0.6331;
822.6000;0.3736;0.6063;
822.9000;0.3818;0.6282;
823.2000;0.3810;0.6258;
823.5000;0.3810;0.6331;
823.8000;0.3785;0.6234;
824.1000;0.3761;0.6185;
824.4000;0.3801;0.6282;
824.7000;0.3818;0.6307;
825.0000;0.3785;0.6258;
825.3000;0.3793;0.6355;
825.6000;0.3826;0.6428;
825.9000;0.3842;0.6501;
826.2000;0.3818;0.6453;
826.5000;0.3785;0.6380;
826.8000;0.3818;0.6404;
827.1000;0.3858;0.6501;
827.4000;0.3826;0.6453;
827.7000;0.3834;0.6526;
828.0000;0.3826;0.6453;
828.3000;0.3826;0.6453;
828.6000;0.3834;0.6526;
828.9000;0.3818;0.6599;
829.2000;0.3826;0.6623;
829.5000;0.3826;0.6550;
829.8000;0.3810;0.6501;
830.1000;0.3826;0.6623;
830.4000;0.3818;0.6648;
830.7000;0.3810;0.6526;
831.0000;0.3826;0.6453;
831.3000;0.3826;0.6355;
831.6000;0.3834;0.6307;
831.9000;0.3834;0.6258;
832.2000;0.3834;0.6307;
832.5000;0.3810;0.6307;
832.8000;0.3826;0.6355;
833.1000;0.3810;0.6282;
833.4000;0.3818;0.6307;
833.7000;0.3818;0.6331;
834.0000;0.3826;0.6234;
834.3000;0.3810;0.6234;
834.6000;0.3826;0.6331;
834.9000;0.3810;0.6307;
835.2000;0.3810;0.6331;
835.5000;0.3818;0.6380;
835.8000;0.3801;0.6331;
836.1000;0.3801;0.6355;
836.4000;0.3793;0.6307;
836.7000;0.3801;0.6355;
837.0000;0.3810;0.6380;
837.3000;0.3810;0.6380;
837.6000;0.3826;0.6526;
837.9000;0.3793;0.6428;
838.2000;0.3801;0.6526;
838.5000;0.3810;0.6526;
838.8000;0.3818;0.6550;
839.1000;0.3818;0.6526;
839.4000;0.3810;0.6550;
839.7000;0.3818;0.6477;
840.0000;0.3810;0.6404;
840.3000;0.3777;0.6331;
840.6000;0.3810;0.6428;
840.9000;0.3834;0.6526;
841.2000;0.3810;0.6477;
841.5000;0.3793;0.6380;
841.8000;0.3801;0.6331;
842.1000;0.3818;0.6380;
842.4000;0.3810;0.6331;
842.7000;0.3785;0.6282;
843.0000;0.3826;0.6331;
843.3000;0.3818;0.6209;
843.6000;0.3744;0.5990;
843.9000;0.3810;0.6258;
844.2000;0.3810;0.6355;
844.5000;0.3810;0.6355;
844.8000;0.3818;0.6355;
845.1000;0.3810;0.6477;
845.4000;0.3810;0.6453;
845.7000;0.3785;0.6404;
846.0000;0.3793;0.6404;
846.3000;0.3818;0.6404;
846.6000;0.3867;0.6477;
846.9000;0.3801;0.6307;
847.2000;0.3810;0.6355;
847.5000;0.3801;0.6331;
847.8000;0.3810;0.6282;
848.1000;0.3818;0.6282;
848.4000;0.3793;0.6258;
848.7000;0.3777;0.6234;
849.0000;0.3818;0.6355;
849.3000;0.3785;0.6258;
849.6000;0.3818;0.6307;
849.9000;0.3810;0.6380;
850.2000;0.3818;0.6477;
850.5000;0.3810;0.6550;
850.8000;0.3818;0.6501;
851.1000;0.3818;0.6477;
851.4000;0.3818;0.6526;
851.7000;0.3801;0.6380;
852.0000;0.3769;0.6282;
852.3000;0.3850;0.6575;
852.6000;0.3785;0.6453;
852.9000;0.3793;0.6380;
853.2000;0.3818;0.6404;
853.5000;0.3793;0.6331;
853.8000;0.3818;0.6501;
854.1000;0.3834;0.6599;
854.4000;0.3858;0.6818;
854.7000;0.3810;0.6672;
855.0000;0.3810;0.6623;
855.3000;0.3810;0.6550;
855.6000;0.3818;0.6477;
855.9000;0.3810;0.6355;
856.2000;0.3801;0.6428;
856.5000;0.3826;0.6477;
856.8000;0.3793;0.6428;
857.1000;0.3793;0.6380;
857.4000;0.3810;0.6477;
857.7000;0.3810;0.6526;
858.0000;0.3818;0.6477;
858.3000;0.3801;0.6380;
858.6000;0.3793;0.6380;
858.9000;0.3801;0.6453;
859.2000;0.3867;0.6501;
859.5000;0.3736;0.6258;
859.8000;0.3810;0.6526;
860.1000;0.3810;0.6501;
860.4000;0.3826;0.6526;
860.7000;0.3810;0.6575;
861.0000;0.3826;0.6599;
861.3000;0.3785;0.6501;
861.6000;0.3818;0.6526;
861.9000;0.3793;0.6453;
862.2000;0.3793;0.6404;
862.5000;0.3875;0.6672;
862.8000;0.3785;0.6453;
863.1000;0.3858;0.6575;
863.4000;0.3793;0.6380;
863.7000;0.3818;0.6453;
864.0000;0.3858;0.6428;
864.3000;0.3810;0.6428;
864.6000;0.3834;0.6477;
864.9000;0.3801;0.6380;
865.2000;0.3826;0.6404;
865.5000;0.3810;0.6380;
865.8000;0.3801;0.6428;
866.1000;0.3818;0.6526;
866.4000;0.3810;0.6623;
866.7000;0.3818;0.6550;
867.0000;0.3810;0.6428;
867.3000;0.3793;0.6453;
867.6000;0.3801;0.6477;
867.9000;0.3810;0.6428;
868.2000;0.3818;0.6428;
868.5000;0.3842;0.6526;
868.8000;0.3793;0.6355;
869.1000;0.3810;0.6428;
869.4000;0.3810;0.6331;
869.7000;0.3826;0.6404;
870.0000;0.3834;0.6404;
870.3000;0.3818;0.6380;
870.6000;0.3810;0.6404;
870.9000;0.3777;0.6428;
871.2000;0.3793;0.6428;
871.5000;0.3801;0.6575;
871.8000;0.3793;0.6648;
872.1000;0.3801;0.6696;
872.4000;0.3801;0.6623;
872.7000;0.3810;0.6721;
873.0000;0.3793;0.6794;
873.3000;0.3810;0.6745;
873.6000;0.3801;0.6818;
873.9000;0.3826;0.6915;
874.2000;0.3801;0.6867;
874.5000;0.3801;0.6867;
874.8000;0.3785;0.6721;
875.1000;0.3810;0.6648;
875.4000;0.3810;0.6575;
875.7000;0.3801;0.6526;
876.0000;0.3826;0.6477;
876.3000;0.3801;0.6355;
876.6000;0.3801;0.6428;
876.9000;0.3801;0.6453;
877.2000;0.3810;0.6477;
877.5000;0.3777;0.6282;
877.8000;0.3858;0.6501;
878.1000;0.3810;0.6428;
878.4000;0.3810;0.6380;
878.7000;0.3810;0.6404;
879.0000;0.3867;0.6501;
879.3000;0.3826;0.6331;
879.6000;0.3907;0.6599;
879.9000;0.3818;0.6355;
880.2000;0.3883;0.6526;
880.5000;0.3834;0.6428;
880.8000;0.3850;0.6404;
881.1000;0.3834;0.6380;
881.4000;0.3777;0.6209;
881.7000;0.3826;0.6258;
882.0000;0.3777;0.6234;
882.3000;0.3744;0.6234;
882.6000;0.3793;0.6477;
882.9000;0.3834;0.6575;
883.2000;0.3785;0.6404;
883.5000;0.3769;0.6453;
883.8000;0.3785;0.6575;
884.1000;0.3793;0.6599;
884.4000;0.3793;0.6550;
884.7000;0.3810;0.6623;
885.0000;0.3777;0.6526;
885.3000;0.3801;0.6550;
885.6000;0.3793;0.6477;
885.9000;0.3801;0.6428;
886.2000;0.3810;0.6477;
886.5000;0.3793;0.6501;
886.8000;0.3818;0.6575;
887.1000;0.3801;0.6575;
887.4000;0.3720;0.6428;
887.7000;0.3793;0.6575;
888.0000;0.3818;0.6672;
888.3000;0.3720;0.6453;
888.6000;0.3810;0.6696;
888.9000;0.3785;0.6599;
889.2000;0.3810;0.6599;
889.5000;0.3793;0.6526;
889.8000;0.3793;0.6453;
890.1000;0.3818;0.6331;
890.4000;0.3801;0.6282;
890.7000;0.3801;0.6331;
891.0000;0.3818;0.6331;
891.3000;0.3769;0.6307;
891.6000;0.3785;0.6404;
891.9000;0.3793;0.6501;
892.2000;0.3793;0.6477;
892.5000;0.3785;0.6355;
892.8000;0.3777;0.6355;
893.1000;0.3785;0.6380;
893.4000;0.3785;0.6331;
893.7000;0.3801;0.6282;
894.0000;0.3801;0.6282;
894.3000;0.3793;0.6258;
894.6000;0.3793;0.6258;
894.9000;0.3810;0.6307;
895.2000;0.3793;0.6307;
895.5000;0.3801;0.6307;
895.8000;0.3777;0.6258;
896.1000;0.3875;0.6599;
896.4000;0.3793;0.6380;
896.7000;0.3801;0.6355;
897.0000;0.3744;0.6209;
897.3000;0.3785;0.6331;
897.6000;0.3769;0.6307;
897.9000;0.3801;0.6428;
898.2000;0.3793;0.6526;
898.5000;0.3793;0.6623;
898.8000;0.3785;0.6672;
899.1000;0.3777;0.6623;
899.4000;0.3818;0.6672;
899.7000;0.3818;0.6550;
900.0000;0.3777;0.6501;
900.3000;0.3818;0.6550;
900.6000;0.3801;0.6428;
900.9000;0.3810;0.6453;
901.2000;0.3793;0.6428;
901.5000;0.3793;0.6477;
901.8000;0.3810;0.6623;
902.1000;0.3785;0.6575;
902.4000;0.3810;0.6599;
902.7000;0.3761;0.6526;
903.0000;0.3785;0.6501;
903.3000;0.3899;0.6696;
903.6000;0.3834;0.6501;
903.9000;0.3793;0.6477;
904.2000;0.3793;0.6404;
904.5000;0.3777;0.6404;
904.8000;0.3801;0.6599;
905.1000;0.3801;0.6550;
905.4000;0.3785;0.6477;
905.7000;0.3785;0.6501;
906.0000;0.3793;0.6428;
906.3000;0.3761;0.6355;
906.6000;0.3777;0.6380;
906.9000;0.3777;0.6307;
907.2000;0.3801;0.6428;
907.5000;0.3793;0.6453;
907.8000;0.3842;0.6477;
908.1000;0.3785;0.6331;
908.4000;0.3777;0.6404;
908.7000;0.3785;0.6501;
909.0000;0.3793;0.6501;
909.3000;0.3777;0.6501;
909.6000;0.3793;0.6453;
909.9000;0.3818;0.6501;
910.2000;0.3793;0.6477;
910.5000;0.3793;0.6428;
910.8000;0.3777;0.6428;
911.1000;0.3793;0.6550;
911.4000;0.3883;0.6818;
911.7000;0.3736;0.6477;
912.0000;0.3826;0.6721;
912.3000;0.3785;0.6575;
912.6000;0.3769;0.6477;
912.9000;0.3785;0.6477;
913.2000;0.3761;0.6331;
913.5000;0.3793;0.6501;
913.8000;0.3769;0.6428;
914.1000;0.3777;0.6380;
914.4000;0.3785;0.6380;
914.7000;0.3850;0.6648;
915.0000;0.3875;0.6721;
915.3000;0.3777;0.6526;
915.6000;0.3801;0.6526;
915.9000;0.3793;0.6526;
916.2000;0.3810;0.6575;
916.5000;0.3818;0.6599;
916.8000;0.3801;0.6623;
917.1000;0.3810;0.6550;
917.4000;0.3842;0.6696;
917.7000;0.3801;0.6696;
918.0000;0.3793;0.6550;
918.3000;0.3834;0.6575;
918.6000;0.3777;0.6501;
918.9000;0.3777;0.6404;
919.2000;0.3793;0.6380;
919.5000;0.3793;0.6282;
919.8000;0.3801;0.6282;
920.1000;0.3793;0.6258;
920.4000;0.3793;0.6380;
920.7000;0.3793;0.6355;
921.0000;0.3696;0.6185;
921.3000;0.3818;0.6550;
921.6000;0.3777;0.6501;
921.9000;0.3712;0.6258;
922.2000;0.3793;0.6477;
922.5000;0.3875;0.6696;
922.8000;0.3793;0.6526;
923.1000;0.3777;0.6428;
923.4000;0.3785;0.6477;
923.7000;0.3793;0.6526;
924.0000;0.3801;0.6477;
924.3000;0.3801;0.6477;
924.6000;0.3785;0.6453;
924.9000;0.3810;0.6526;
925.2000;0.3801;0.6453;
925.5000;0.3850;0.6575;
925.8000;0.3777;0.6258;
926.1000;0.3801;0.6380;
926.4000;0.3761;0.6404;
926.7000;0.3785;0.6428;
927.0000;0.3801;0.6526;
927.3000;0.3769;0.6501;
927.6000;0.3867;0.6672;
927.9000;0.3777;0.6477;
928.2000;0.3769;0.6501;
928.5000;0.3785;0.6550;
928.8000;0.3818;0.6721;
929.1000;0.3769;0.6599;
929.4000;0.3777;0.6575;
929.7000;0.3785;0.6575;
930.0000;0.3810;0.6623;
930.3000;0.3785;0.6428;
930.6000;0.3826;0.6501;
930.9000;0.3769;0.6380;
931.2000;0.3785;0.6501;
931.5000;0.3801;0.6501;
931.8000;0.3769;0.6453;
932.1000;0.3761;0.6380;
932.4000;0.3810;0.6501;
932.7000;0.3793;0.6526;
933.0000;0.3801;0.6453;
933.3000;0.3793;0.6453;
933.6000;0.3753;0.6404;
933.9000;0.3793;0.6380;
934.2000;0.3801;0.6282;
934.5000;0.3785;0.6355;
934.8000;0.3785;0.6404;
935.1000;0.3793;0.6453;
935.4000;0.3793;0.6404;
935.7000;0.3842;0.6404;
936.0000;0.3810;0.6282;
936.3000;0.3818;0.6331;
936.6000;0.3777;0.6282;
936.9000;0.3761;0.6355;
937.2000;0.3793;0.6428;
937.5000;0.3769;0.6331;
937.8000;0.3753;0.6136;
938.1000;0.3793;0.6234;
938.4000;0.3777;0.6234;
938.7000;0.3899;0.6599;
939.0000;0.3801;0.6331;
939.3000;0.3850;0.6501;
939.6000;0.3810;0.6453;
939.9000;0.3810;0.6428;
940.2000;0.3793;0.6307;
940.5000;0.3793;0.6307;
940.8000;0.3801;0.6404;
941.1000;0.3801;0.6428;
941.4000;0.3793;0.6331;
941.7000;0.3810;0.6355;
942.0000;0.3793;0.6380;
942.3000;0.3801;0.6428;
942.6000;0.3818;0.6501;
942.9000;0.3785;0.6477;
943.2000;0.3777;0.6477;
943.5000;0.3785;0.6404;
943.8000;0.3785;0.6380;
944.1000;0.3793;0.6380;
944.4000;0.3818;0.6526;
944.7000;0.3793;0.6428;
945.0000;0.3793;0.6355;
945.3000;0.3736;0.6136;
945.6000;0.3793;0.6234;
945.9000;0.3687;0.6039;
946.2000;0.3801;0.6209;
946.5000;0.3842;0.6282;
946.8000;0.3801;0.6282;
947.1000;0.3793;0.6161;
947.4000;0.3867;0.6355;
947.7000;0.3769;0.6234;
948.0000;0.3761;0.6258;
948.3000;0.3777;0.6307;
948.6000;0.3777;0.6307;
948.9000;0.3793;0.6380;
949.2000;0.3753;0.6331;
949.5000;0.3793;0.6331;
949.8000;0.3753;0.6258;
950.1000;0.3785;0.6404;
950.4000;0.3785;0.6404;
950.7000;0.3777;0.6404;
951.0000;0.3785;0.6355;
951.3000;0.3777;0.6331;
951.6000;0.3777;0.6258;
951.9000;0.3793;0.6282;
952.2000;0.3793;0.6380;
952.5000;0.3744;0.6307;
952.8000;0.3712;0.6209;
953.1000;0.3867;0.6575;
953.4000;0.3801;0.6380;
953.7000;0.3826;0.6453;
954.0000;0.3720;0.6234;
954.3000;0.3793;0.6428;
954.6000;0.3753;0.6161;
954.9000;0.3785;0.6307;
955.2000;0.3801;0.6307;
955.5000;0.3761;0.6112;
955.8000;0.3834;0.6307;
956.1000;0.3793;0.6258;
956.4000;0.3801;0.6209;
956.7000;0.3769;0.6161;
957.0000;0.3818;0.6331;
957.3000;0.3810;0.6380;
957.6000;0.3785;0.6258;
957.9000;0.3793;0.6258;
958.2000;0.3785;0.6136;
958.5000;0.3785;0.6088;
958.8000;0.3842;0.6209;
959.1000;0.3777;0.6112;
959.4000;0.3769;0.6185;
959.7000;0.3785;0.6112;
960.0000;0.3785;0.6185;
960.3000;0.3769;0.6185;
960.6000;0.3753;0.6185;
960.9000;0.3728;0.6185;
961.2000;0.3769;0.6331;
961.5000;0.3793;0.6258;
961.8000;0.3810;0.6234;
962.1000;0.3801;0.6161;
962.4000;0.3793;0.6112;
962.7000;0.3777;0.6136;
963.0000;0.3777;0.6258;
963.3000;0.3793;0.6355;
963.6000;0.3785;0.6282;
963.9000;0.3785;0.6380;
964.2000;0.3801;0.6380;
964.5000;0.3785;0.6404;
964.8000;0.3785;0.6404;
965.1000;0.3785;0.6331;
965.4000;0.3793;0.6258;
965.7000;0.3801;0.6428;
966.0000;0.3842;0.6477;
966.3000;0.3793;0.6453;
966.6000;0.3801;0.6477;
966.9000;0.3785;0.6404;
967.2000;0.3777;0.6331;
967.5000;0.3785;0.6209;
967.8000;0.3785;0.6234;
968.1000;0.3785;0.6258;
968.4000;0.3785;0.6234;
968.7000;0.3793;0.6331;
969.0000;0.3850;0.6501;
969.3000;0.3777;0.6282;
969.6000;0.3769;0.6282;
969.9000;0.3785;0.6404;
970.2000;0.3793;0.6404;
970.5000;0.3842;0.6501;
970.8000;0.3801;0.6355;
971.1000;0.3793;0.6307;
971.4000;0.3810;0.6380;
971.7000;0.3834;0.6526;
972.0000;0.3793;0.6550;
972.3000;0.3761;0.6501;
972.6000;0.3785;0.6453;
972.9000;0.3793;0.6453;
973.2000;0.3761;0.6428;
973.5000;0.3761;0.6380;
973.8000;0.3793;0.6404;
974.1000;0.3777;0.6404;
974.4000;0.3801;0.6453;
974.7000;0.3769;0.6477;
975.0000;0.3793;0.6599;
975.3000;0.3769;0.6599;
975.6000;0.3801;0.6648;
975.9000;0.3769;0.6477;
976.2000;0.3777;0.6404;
976.5000;0.3793;0.6428;
976.8000;0.3785;0.6453;
977.1000;0.3777;0.6355;
977.4000;0.3785;0.6501;
977.7000;0.3785;0.6453;
978.0000;0.3818;0.6501;
978.3000;0.3769;0.6477;
978.6000;0.3753;0.6355;
978.9000;0.3793;0.6428;
979.2000;0.3777;0.6307;
979.5000;0.3769;0.6209;
979.8000;0.3785;0.6234;
980.1000;0.3785;0.6282;
980.4000;0.3777;0.6307;
980.7000;0.3785;0.6282;
981.0000;0.3777;0.6185;
981.3000;0.3785;0.6282;
981.6000;0.3785;0.6331;
981.9000;0.3777;0.6331;
982.2000;0.3785;0.6307;
982.5000;0.3801;0.6355;
982.8000;0.3810;0.6282;
983.1000;0.3810;0.6307;
983.4000;0.3826;0.6331;
983.7000;0.3793;0.6355;
984.0000;0.3801;0.6404;
984.3000;0.3793;0.6331;
984.6000;0.3769;0.6234;
984.9000;0.3801;0.6307;
985.2000;0.3777;0.6380;
985.5000;0.3785;0.6453;
985.8000;0.3777;0.6526;
986.1000;0.3769;0.6550;
986.4000;0.3777;0.6575;
986.7000;0.3785;0.6648;
987.0000;0.3679;0.6331;
987.3000;0.3753;0.6623;
987.6000;0.3785;0.6745;
987.9000;0.3785;0.6721;
988.2000;0.3785;0.6721;
988.5000;0.3728;0.6501;
988.8000;0.3777;0.6623;
989.1000;0.3842;0.6769;
989.4000;0.3826;0.6672;
989.7000;0.3785;0.6477;
990.0000;0.3793;0.6501;
990.3000;0.3793;0.6550;
990.6000;0.3785;0.6477;
990.9000;0.3810;0.6501;
991.2000;0.3793;0.6477;
991.5000;0.3769;0.6428;
991.8000;0.3793;0.6477;
992.1000;0.3826;0.6550;
992.4000;0.3777;0.6526;
992.7000;0.3801;0.6501;
993.0000;0.3793;0.6355;
993.3000;0.3777;0.6258;
993.6000;0.3736;0.6234;
993.9000;0.3850;0.6453;
994.2000;0.3801;0.6258;
994.5000;0.3793;0.6234;
994.8000;0.3777;0.6234;
995.1000;0.3801;0.6404;
995.4000;0.3761;0.6258;
995.7000;0.3801;0.6234;
996.0000;0.3777;0.6209;
996.3000;0.3777;0.6209;
996.6000;0.3736;0.6112;
996.9000;0.3875;0.6526;
997.2000;0.3793;0.6307;
997.5000;0.3769;0.6185;
997.8000;0.3785;0.6307;
998.1000;0.3769;0.6355;
998.4000;0.3769;0.6428;
998.7000;0.3769;0.6428;
999.0000;0.3761;0.6477;
999.3000;0.3769;0.6453;
999.6000;0.3785;0.6526;
999.9000;0.3679;0.6258;
1000.2000;0.3704;0.6258;
1000.5000;0.3777;0.6428;
1000.8000;0.3785;0.6404;
1001.1000;0.3777;0.6428;
1001.4000;0.3769;0.6380;
1001.7000;0.3769;0.6428;
1002.0000;0.3793;0.6404;
1002.3000;0.3785;0.6380;
1002.6000;0.3777;0.6331;
1002.9000;0.3793;0.6355;
1003.2000;0.3777;0.6355;
1003.5000;0.3793;0.6380;
1003.8000;0.3785;0.6355;
1004.1000;0.3785;0.6331;
1004.4000;0.3810;0.6404;
1004.7000;0.3769;0.6307;
1005.0000;0.3785;0.6404;
1005.3000;0.3777;0.6355;
1005.6000;0.3801;0.6355;
1005.9000;0.3777;0.6331;
1006.2000;0.3785;0.6404;
1006.5000;0.3777;0.6550;
1006.8000;0.3777;0.6575;
1007.1000;0.3818;0.6550;
1007.4000;0.3785;0.6428;
1007.7000;0.3785;0.6380;
1008.0000;0.3785;0.6428;
1008.3000;0.3785;0.6501;
1008.6000;0.3793;0.6550;
1008.9000;0.3818;0.6599;
1009.2000;0.3793;0.6501;
1009.5000;0.3753;0.6380;
1009.8000;0.3769;0.6355;
1010.1000;0.3769;0.6331;
1010.4000;0.3753;0.6209;
1010.7000;0.3785;0.6282;
1011.0000;0.3777;0.6355;
1011.3000;0.3793;0.6331;
1011.6000;0.3793;0.6331;
1011.9000;0.3769;0.6331;
1012.2000;0.3793;0.6355;
1012.5000;0.3801;0.6380;
1012.8000;0.3777;0.6258;
1013.1000;0.3769;0.6234;
1013.4000;0.3785;0.6234;
1013.7000;0.3801;0.6209;
1014.0000;0.3818;0.6234;
1014.3000;0.3777;0.6136;
1014.6000;0.3785;0.6161;
1014.9000;0.3785;0.6258;
1015.2000;0.3777;0.6234;
1015.5000;0.3769;0.6331;
1015.8000;0.3777;0.6355;
1016.1000;0.3785;0.6355;
1016.4000;0.3801;0.6355;
1016.7000;0.3785;0.6331;
1017.0000;0.3769;0.6209;
1017.3000;0.3753;0.6161;
1017.6000;0.3793;0.6185;
1017.9000;0.3801;0.6209;
1018.2000;0.3801;0.6282;
1018.5000;0.3793;0.6282;
1018.8000;0.3769;0.6161;
1019.1000;0.3753;0.6112;
1019.4000;0.3793;0.6209;
1019.7000;0.3793;0.6209;
1020.0000;0.3769;0.6136;
1020.3000;0.3761;0.6161;
1020.6000;0.3769;0.6209;
1020.9000;0.3777;0.6331;
1021.2000;0.3777;0.6355;
1021.5000;0.3761;0.6258;
1021.8000;0.3777;0.6234;
1022.1000;0.3793;0.6331;
1022.4000;0.3761;0.6331;
1022.7000;0.3769;0.6380;
1023.0000;0.3785;0.6380;
1023.3000;0.3793;0.6380;
1023.6000;0.3761;0.6331;
1023.9000;0.3777;0.6282;
1024.2000;0.3777;0.6307;
1024.5000;0.3777;0.6355;
1024.8000;0.3777;0.6380;
1025.1000;0.3785;0.6331;
1025.4000;0.3761;0.6282;
1025.7000;0.3785;0.6307;
1026.0000;0.3793;0.6331;
1026.3000;0.3777;0.6380;
1026.6000;0.3769;0.6453;
1026.9000;0.3679;0.6161;
1027.2000;0.3761;0.6404;
1027.5000;0.3785;0.6428;
1027.8000;0.3777;0.6234;
1028.1000;0.3785;0.6209;
1028.4000;0.3769;0.6209;
1028.7000;0.3826;0.6404;
1029.0000;0.3801;0.6404;
1029.3000;0.3785;0.6428;
1029.6000;0.3728;0.6258;
1029.9000;0.3793;0.6501;
1030.2000;0.3769;0.6501;
1030.5000;0.3834;0.6575;
1030.8000;0.3777;0.6428;
1031.1000;0.3777;0.6355;
1031.4000;0.3793;0.6380;
1031.7000;0.3883;0.6501;
1032.0000;0.3753;0.6161;
1032.3000;0.3744;0.6136;
1032.6000;0.3785;0.6185;
1032.9000;0.3769;0.6112;
1033.2000;0.3753;0.6112;
1033.5000;0.3769;0.6282;
1033.8000;0.3753;0.6258;
1034.1000;0.3769;0.6282;
1034.4000;0.3769;0.6307;
1034.7000;0.3704;0.6209;
1035.0000;0.3777;0.6380;
1035.3000;0.3761;0.6331;
1035.6000;0.3769;0.6355;
1035.9000;0.3753;0.6307;
1036.2000;0.3761;0.6355;
1036.5000;0.3744;0.6307;
1036.8000;0.3769;0.6355;
1037.1000;0.3850;0.6477;
1037.4000;0.3777;0.6234;
1037.7000;0.3785;0.6234;
1038.0000;0.3785;0.6258;
1038.3000;0.3777;0.6209;
1038.6000;0.3777;0.6209;
1038.9000;0.3785;0.6380;
1039.2000;0.3810;0.6355;
1039.5000;0.3769;0.6209;
1039.8000;0.3793;0.6234;
1040.1000;0.3769;0.6185;
1040.4000;0.3736;0.6088;
1040.7000;0.3761;0.6161;
1041.0000;0.3761;0.6185;
1041.3000;0.3761;0.6282;
1041.6000;0.3769;0.6258;
1041.9000;0.3736;0.6234;
1042.2000;0.3769;0.6282;
1042.5000;0.3744;0.6282;
1042.8000;0.3793;0.6428;
1043.1000;0.3785;0.6404;
1043.4000;0.3769;0.6355;
1043.7000;0.3785;0.6282;
1044.0000;0.3818;0.6501;
1044.3000;0.3769;0.6428;
1044.6000;0.3810;0.6404;
1044.9000;0.3834;0.6599;
1045.2000;0.3777;0.6355;
1045.5000;0.3769;0.6355;
1045.8000;0.3761;0.6282;
1046.1000;0.3777;0.6380;
1046.4000;0.3785;0.6404;
1046.7000;0.3736;0.6331;
1047.0000;0.3761;0.6355;
1047.3000;0.3744;0.6307;
1047.6000;0.3761;0.6404;
1047.9000;0.3777;0.6428;
1048.2000;0.3769;0.6355;
1048.5000;0.3761;0.6331;
1048.8000;0.3777;0.6307;
1049.1000;0.3777;0.6428;
1049.4000;0.3777;0.6501;
1049.7000;0.3801;0.6599;
1050.0000;0.3761;0.6477;
1050.3000;0.3761;0.6453;
1050.6000;0.3704;0.6380;
1050.9000;0.3761;0.6428;
1051.2000;0.3761;0.6428;
1051.5000;0.3761;0.6428;
1051.8000;0.3736;0.6258;
1052.1000;0.3753;0.6307;
1052.4000;0.3761;0.6404;
1052.7000;0.3826;0.6501;
1053.0000;0.3785;0.6355;
1053.3000;0.3769;0.6355;
1053.6000;0.3753;0.6355;
1053.9000;0.3777;0.6355;
1054.2000;0.3785;0.6355;
1054.5000;0.3744;0.6209;
1054.8000;0.3769;0.6234;
1055.1000;0.3761;0.6209;
1055.4000;0.3761;0.6161;
1055.7000;0.3744;0.6185;
1056.0000;0.3785;0.6209;
1056.3000;0.3761;0.6161;
1056.6000;0.3777;0.6209;
1056.9000;0.3769;0.6185;
1057.2000;0.3744;0.6112;
1057.5000;0.3769;0.6136;
1057.8000;0.3769;0.6063;
1058.1000;0.3793;0.6039;
1058.4000;0.3777;0.6014;
1058.7000;0.3761;0.6063;
1059.0000;0.3761;0.6088;
1059.3000;0.3761;0.6136;
1059.6000;0.3753;0.6136;
1059.9000;0.3736;0.6161;
1060.2000;0.3761;0.6234;
1060.5000;0.3761;0.6380;
1060.8000;0.3785;0.6501;
1061.1000;0.3785;0.6526;
1061.4000;0.3777;0.6550;
1061.7000;0.3769;0.6575;
1062.0000;0.3777;0.6501;
1062.3000;0.3777;0.6380;
1062.6000;0.3720;0.6307;
1062.9000;0.3777;0.6575;
1063.2000;0.3801;0.6599;
1063.5000;0.3785;0.6501;
1063.8000;0.3785;0.6477;
1064.1000;0.3785;0.6501;
1064.4000;0.3834;0.6696;
1064.7000;0.3761;0.6380;
1065.0000;0.3777;0.6404;
1065.3000;0.3769;0.6428;
1065.6000;0.3704;0.6258;
1065.9000;0.3785;0.6453;
1066.2000;0.3753;0.6355;
1066.5000;0.3761;0.6404;
1066.8000;0.3785;0.6501;
1067.1000;0.3769;0.6428;
1067.4000;0.3753;0.6428;
1067.7000;0.3753;0.6428;
1068.0000;0.3818;0.6575;
1068.3000;0.3793;0.6501;
1068.6000;0.3842;0.6550;
1068.9000;0.3777;0.6282;
1069.2000;0.3842;0.6453;
1069.5000;0.3801;0.6355;
1069.8000;0.3777;0.6355;
1070.1000;0.3736;0.6282;
1070.4000;0.3769;0.6355;
1070.7000;0.3777;0.6380;
1071.0000;0.3883;0.6599;
1071.3000;0.3753;0.6234;
1071.6000;0.3761;0.6258;
1071.9000;0.3761;0.6331;
1072.2000;0.3785;0.6355;
1072.5000;0.3769;0.6282;
1072.8000;0.3785;0.6282;
1073.1000;0.3769;0.6209;
1073.4000;0.3810;0.6258;
1073.7000;0.3793;0.6258;
1074.0000;0.3785;0.6404;
1074.3000;0.3777;0.6380;
1074.6000;0.3842;0.6575;
1074.9000;0.3769;0.6380;
1075.2000;0.3777;0.6307;
1075.5000;0.3875;0.6526;
1075.8000;0.3769;0.6307;
1076.1000;0.3753;0.6331;
1076.4000;0.3761;0.6380;
1076.7000;0.3753;0.6380;
1077.0000;0.3761;0.6477;
1077.3000;0.3761;0.6331;
1077.6000;0.3753;0.6355;
1077.9000;0.3761;0.6307;
1078.2000;0.3769;0.6209;
1078.5000;0.3761;0.6209;
1078.8000;0.3769;0.6307;
1079.1000;0.3777;0.6331;
1079.4000;0.3785;0.6404;
1079.7000;0.3777;0.6380;
1080.0000;0.3785;0.6501;
1080.3000;0.3777;0.6550;
1080.6000;0.3777;0.6575;
1080.9000;0.3777;0.6599;
1081.2000;0.3769;0.6648;
1081.5000;0.3744;0.6526;
1081.8000;0.3761;0.6672;
1082.1000;0.3777;0.6696;
1082.4000;0.3777;0.6721;
1082.7000;0.3769;0.6599;
1083.0000;0.3785;0.6648;
1083.3000;0.3777;0.6696;
1083.6000;0.3801;0.6818;
1083.9000;0.3720;0.6672;
1084.2000;0.3777;0.6745;
1084.5000;0.3736;0.6672;
1084.8000;0.3785;0.6745;
1085.1000;0.3793;0.6696;
1085.4000;0.3777;0.6672;
1085.7000;0.3753;0.6501;
1086.0000;0.3785;0.6428;
1086.3000;0.3753;0.6453;
1086.6000;0.3753;0.6501;
1086.9000;0.3744;0.6526;
1087.2000;0.3777;0.6575;
1087.5000;0.3818;0.6623;
1087.8000;0.3761;0.6501;
1088.1000;0.3769;0.6526;
1088.4000;0.3858;0.6842;
1088.7000;0.3801;0.6745;
1089.0000;0.3777;0.6745;
1089.3000;0.3761;0.6745;
1089.6000;0.3769;0.6696;
1089.9000;0.3753;0.6696;
1090.2000;0.3777;0.6696;
1090.5000;0.3777;0.6623;
1090.8000;0.3769;0.6599;
1091.1000;0.3777;0.6696;
1091.4000;0.3761;0.6623;
1091.7000;0.3769;0.6599;
1092.0000;0.3744;0.6501;
1092.3000;0.3769;0.6599;
1092.6000;0.3663;0.6380;
1092.9000;0.3777;0.6696;
1093.2000;0.3761;0.6672;
1093.5000;0.3761;0.6648;
1093.8000;0.3769;0.6769;
1094.1000;0.3696;0.6526;
1094.4000;0.3777;0.6623;
1094.7000;0.3769;0.6575;
1095.0000;0.3777;0.6575;
1095.3000;0.3761;0.6550;
1095.6000;0.3785;0.6599;
1095.9000;0.3769;0.6623;
1096.2000;0.3785;0.6623;
1096.5000;0.3769;0.6599;
1096.8000;0.3785;0.6648;
1097.1000;0.3769;0.6575;
1097.4000;0.3777;0.6648;
1097.7000;0.3801;0.6769;
1098.0000;0.3793;0.6842;
1098.3000;0.3769;0.6867;
1098.6000;0.3777;0.6964;
1098.9000;0.3777;0.6940;
1099.2000;0.3753;0.6818;
1099.5000;0.3769;0.6769;
1099.8000;0.3818;0.6867;
1100.1000;0.3793;0.6745;
1100.4000;0.3753;0.6648;
1100.7000;0.3769;0.6648;
1101.0000;0.3785;0.6648;
1101.3000;0.3769;0.6623;
1101.6000;0.3761;0.6672;
1101.9000;0.3687;0.6404;
1102.2000;0.3785;0.6623;
1102.5000;0.3785;0.6769;
1102.8000;0.3720;0.6550;
1103.1000;0.3826;0.6842;
1103.4000;0.3753;0.6769;
1103.7000;0.3753;0.6745;
1104.0000;0.3777;0.6818;
1104.3000;0.3753;0.6696;
1104.6000;0.3769;0.6623;
1104.9000;0.3769;0.6672;
1105.2000;0.3777;0.6696;
1105.5000;0.3777;0.6696;
1105.8000;0.3777;0.6623;
1106.1000;0.3818;0.6623;
1106.4000;0.3761;0.6477;
1106.7000;0.3793;0.6526;
1107.0000;0.3785;0.6575;
1107.3000;0.3761;0.6526;
1107.6000;0.3761;0.6623;
1107.9000;0.3777;0.6575;
1108.2000;0.3777;0.6575;
1108.5000;0.3769;0.6575;
1108.8000;0.3793;0.6599;
1109.1000;0.3728;0.6404;
1109.4000;0.3785;0.6428;
1109.7000;0.3785;0.6477;
1110.0000;0.3777;0.6575;
1110.3000;0.3769;0.6623;
1110.6000;0.3777;0.6648;
1110.9000;0.3736;0.6599;
1111.2000;0.3777;0.6696;
1111.5000;0.3761;0.6648;
1111.8000;0.3777;0.6721;
1112.1000;0.3744;0.6599;
1112.4000;0.3777;0.6575;
1112.7000;0.3785;0.6501;
1113.0000;0.3785;0.6575;
1113.3000;0.3777;0.6672;
1113.6000;0.3761;0.6769;
1113.9000;0.3769;0.6769;
1114.2000;0.3777;0.6648;
1114.5000;0.3777;0.6623;
1114.8000;0.3769;0.6648;
1115.1000;0.3785;0.6599;
1115.4000;0.3777;0.6550;
1115.7000;0.3793;0.6501;
1116.0000;0.3777;0.6477;
1116.3000;0.3761;0.6550;
1116.6000;0.3769;0.6575;
1116.9000;0.3777;0.6575;
1117.2000;0.3777;0.6526;
1117.5000;0.3785;0.6575;
1117.8000;0.3867;0.6818;
1118.1000;0.3744;0.6453;
1118.4000;0.3777;0.6550;
1118.7000;0.3842;0.6769;
1119.0000;0.3777;0.6599;
1119.3000;0.3785;0.6672;
1119.6000;0.3777;0.6623;
1119.9000;0.3769;0.6526;
1120.2000;0.3761;0.6501;
1120.5000;0.3801;0.6526;
1120.8000;0.3801;0.6575;
1121.1000;0.3777;0.6428;
1121.4000;0.3769;0.6453;
1121.7000;0.3769;0.6404;
1122.0000;0.3769;0.6501;
1122.3000;0.3769;0.6428;
1122.6000;0.3753;0.6453;
1122.9000;0.3744;0.6453;
1123.2000;0.3769;0.6526;
1123.5000;0.3761;0.6477;
1123.8000;0.3810;0.6648;
1124.1000;0.3777;0.6575;
1124.4000;0.3769;0.6550;
1124.7000;0.3777;0.6550;
1125.0000;0.3810;0.6648;
1125.3000;0.3785;0.6550;
1125.6000;0.3777;0.6550;
1125.9000;0.3744;0.6501;
1126.2000;0.3777;0.6599;
1126.5000;0.3769;0.6599;
1126.8000;0.3777;0.6648;
1127.1000;0.3777;0.6696;
1127.4000;0.3801;0.6745;
1127.7000;0.3777;0.6745;
1128.0000;0.3777;0.6745;
1128.3000;0.3769;0.6721;
1128.6000;0.3785;0.6818;
1128.9000;0.3753;0.6599;
1129.2000;0.3769;0.6672;
1129.5000;0.3769;0.6599;
1129.8000;0.3761;0.6550;
1130.1000;0.3761;0.6477;
1130.4000;0.3777;0.6501;
1130.7000;0.3769;0.6477;
1131.0000;0.3769;0.6501;
1131.3000;0.3769;0.6526;
1131.6000;0.3761;0.6526;
1131.9000;0.3785;0.6575;
1132.2000;0.3785;0.6599;
1132.5000;0.3769;0.6550;
1132.8000;0.3744;0.6501;
1133.1000;0.3769;0.6575;
1133.4000;0.3785;0.6599;
1133.7000;0.3785;0.6599;
1134.0000;0.3777;0.6599;
1134.3000;0.3777;0.6501;
1134.6000;0.3769;0.6501;
1134.9000;0.3826;0.6648;
1135.2000;0.3769;0.6501;
1135.5000;0.3785;0.6477;
1135.8000;0.3785;0.6477;
1136.1000;0.3777;0.6477;
1136.4000;0.3777;0.6428;
1136.7000;0.3777;0.6428;
1137.0000;0.3769;0.6477;
1137.3000;0.3769;0.6550;
1137.6000;0.3753;0.6501;
1137.9000;0.3818;0.6696;
1138.2000;0.3810;0.6721;
1138.5000;0.3744;0.6648;
1138.8000;0.3769;0.6599;
1139.1000;0.3769;0.6575;
1139.4000;0.3785;0.6599;
1139.7000;0.3769;0.6745;
1140.0000;0.3761;0.6599;
1140.3000;0.3777;0.6648;
1140.6000;0.3728;0.6526;
1140.9000;0.3777;0.6599;
1141.2000;0.3777;0.6648;
1141.5000;0.3801;0.6599;
1141.8000;0.3769;0.6453;
1142.1000;0.3777;0.6428;
1142.4000;0.3753;0.6380;
1142.7000;0.3810;0.6550;
1143.0000;0.3777;0.6453;
1143.3000;0.3736;0.6282;
1143.6000;0.3761;0.6428;
1143.9000;0.3761;0.6477;
1144.2000;0.3753;0.6428;
1144.5000;0.3761;0.6501;
1144.8000;0.3769;0.6526;
1145.1000;0.3761;0.6477;
1145.4000;0.3761;0.6453;
1145.7000;0.3753;0.6501;
1146.0000;0.3777;0.6623;
1146.3000;0.3777;0.6501;
1146.6000;0.3761;0.6453;
1146.9000;0.3769;0.6599;
1147.2000;0.3777;0.6623;
1147.5000;0.3769;0.6696;
1147.8000;0.3769;0.6599;
1148.1000;0.3753;0.6550;
1148.4000;0.3777;0.6550;
1148.7000;0.3777;0.6477;
1149.0000;0.3761;0.6477;
1149.3000;0.3761;0.6428;
1149.6000;0.3769;0.6453;
1149.9000;0.3769;0.6453;
1150.2000;0.3777;0.6501;
1150.5000;0.3777;0.6575;
1150.8000;0.3769;0.6599;
1151.1000;0.3785;0.6696;
1151.4000;0.3777;0.6672;
1151.7000;0.3761;0.6648;
1152.0000;0.3769;0.6648;
1152.3000;0.3761;0.6672;
1152.6000;0.3753;0.6623;
1152.9000;0.3769;0.6648;
1153.2000;0.3753;0.6648;
1153.5000;0.3753;0.6599;
1153.8000;0.3761;0.6575;
1154.1000;0.3810;0.6623;
1154.4000;0.3801;0.6623;
1154.7000;0.3753;0.6526;
1155.0000;0.3769;0.6623;
1155.3000;0.3769;0.6672;
1155.6000;0.3744;0.6696;
1155.9000;0.3785;0.6818;
1156.2000;0.3826;0.6988;
1156.5000;0.3769;0.6867;
1156.8000;0.3769;0.6915;
1157.1000;0.3858;0.7013;
1157.4000;0.3777;0.6794;
1157.7000;0.3801;0.6818;
1158.0000;0.3769;0.6769;
1158.3000;0.3769;0.6696;
1158.6000;0.3720;0.6477;
1158.9000;0.3744;0.6428;
1159.2000;0.3753;0.6380;
1159.5000;0.3769;0.6477;
1159.8000;0.3769;0.6575;
1160.1000;0.3793;0.6648;
1160.4000;0.3777;0.6696;
1160.7000;0.3769;0.6550;
1161.0000;0.3769;0.6599;
1161.3000;0.3777;0.6696;
1161.6000;0.3753;0.6672;
1161.9000;0.3785;0.6745;
1162.2000;0.3793;0.6696;
1162.5000;0.3875;0.6988;
1162.8000;0.3769;0.6672;
1163.1000;0.3801;0.6599;
1163.4000;0.3785;0.6550;
1163.7000;0.3777;0.6575;
1164.0000;0.3818;0.6696;
1164.3000;0.3777;0.6648;
1164.6000;0.3696;0.6428;
1164.9000;0.3810;0.6696;
1165.2000;0.3801;0.6696;
1165.5000;0.3785;0.6623;
1165.8000;0.3785;0.6696;
1166.1000;0.3753;0.6648;
1166.4000;0.3785;0.6696;
1166.7000;0.3785;0.6721;
1167.0000;0.3744;0.6623;
1167.3000;0.3777;0.6794;
1167.6000;0.3777;0.6745;
1167.9000;0.3769;0.6696;
1168.2000;0.3785;0.6721;
1168.5000;0.3769;0.6696;
1168.8000;0.3777;0.6745;
1169.1000;0.3777;0.6769;
1169.4000;0.3753;0.6623;
1169.7000;0.3777;0.6648;
1170.0000;0.3777;0.6672;
1170.3000;0.3785;0.6818;
1170.6000;0.3785;0.6867;
1170.9000;0.3777;0.6842;
1171.2000;0.3761;0.6794;
1171.5000;0.3769;0.6794;
1171.8000;0.3777;0.6818;
1172.1000;0.3777;0.6818;
1172.4000;0.3785;0.6769;
1172.7000;0.3777;0.6794;
1173.0000;0.3785;0.6745;
1173.3000;0.3777;0.6648;
1173.6000;0.3761;0.6550;
1173.9000;0.3769;0.6648;
1174.2000;0.3777;0.6696;
1174.5000;0.3810;0.6696;
1174.8000;0.3777;0.6575;
1175.1000;0.3761;0.6526;
1175.4000;0.3785;0.6501;
1175.7000;0.3761;0.6526;
1176.0000;0.3801;0.6721;
1176.3000;0.3777;0.6672;
1176.6000;0.3753;0.6648;
1176.9000;0.3769;0.6648;
1177.2000;0.3769;0.6575;
1177.5000;0.3761;0.6501;
1177.8000;0.3744;0.6453;
1178.1000;0.3769;0.6550;
1178.4000;0.3769;0.6526;
1178.7000;0.3777;0.6599;
1179.0000;0.3769;0.6575;
1179.3000;0.3769;0.6526;
1179.6000;0.3769;0.6623;
1179.9000;0.3777;0.6575;
1180.2000;0.3793;0.6599;
1180.5000;0.3753;0.6526;
1180.8000;0.3793;0.6696;
1181.1000;0.3785;0.6672;
1181.4000;0.3785;0.6696;
1181.7000;0.3761;0.6648;
1182.0000;0.3761;0.6696;
1182.3000;0.3777;0.6648;
1182.6000;0.3671;0.6331;
1182.9000;0.3826;0.6696;
1183.2000;0.3769;0.6550;
1183.5000;0.3801;0.6648;
1183.8000;0.3777;0.6550;
1184.1000;0.3785;0.6477;
1184.4000;0.3875;0.6721;
1184.7000;0.3769;0.6526;
1185.0000;0.3753;0.6501;
1185.3000;0.3753;0.6428;
1185.6000;0.3818;0.6501;
1185.9000;0.3785;0.6355;
1186.2000;0.3842;0.6428;
1186.5000;0.3777;0.6234;
1186.8000;0.3744;0.6161;
1187.1000;0.3761;0.6234;
1187.4000;0.3785;0.6282;
1187.7000;0.3785;0.6209;
1188.0000;0.3777;0.6185;
1188.3000;0.3761;0.6185;
1188.6000;0.3761;0.6112;
1188.9000;0.3753;0.6209;
1189.2000;0.3793;0.6282;
1189.5000;0.3818;0.6380;
1189.8000;0.3761;0.6282;
1190.1000;0.3769;0.6331;
1190.4000;0.3826;0.6526;
1190.7000;0.3769;0.6453;
1191.0000;0.3777;0.6453;
1191.3000;0.3785;0.6501;
1191.6000;0.3785;0.6501;
1191.9000;0.3761;0.6526;
1192.2000;0.3777;0.6453;
1192.5000;0.3850;0.6648;
1192.8000;0.3801;0.6501;
1193.1000;0.3769;0.6428;
1193.4000;0.3777;0.6428;
1193.7000;0.3753;0.6380;
1194.0000;0.3777;0.6428;
1194.3000;0.3769;0.6477;
1194.6000;0.3777;0.6477;
1194.9000;0.3769;0.6453;
1195.2000;0.3777;0.6453;
1195.5000;0.3769;0.6428;
1195.8000;0.3793;0.6526;
1196.1000;0.3793;0.6550;
1196.4000;0.3769;0.6575;
1196.7000;0.3753;0.6550;
1197.0000;0.3793;0.6721;
1197.3000;0.3785;0.6745;
1197.6000;0.3777;0.6672;
1197.9000;0.3793;0.6696;
1198.2000;0.3761;0.6550;
1198.5000;0.3761;0.6550;
1198.8000;0.3704;0.6307;
1199.1000;0.3793;0.6550;
1199.4000;0.3777;0.6648;
1199.7000;0.3761;0.6575;
1200.0000;0.3793;0.6672;
1200.3000;0.3769;0.6526;
1200.6000;0.3777;0.6550;
1200.9000;0.3850;0.6769;
1201.2000;0.3785;0.6623;
1201.5000;0.3793;0.6599;
1201.8000;0.3810;0.6721;
1202.1000;0.3687;0.6355;
1202.4000;0.3777;0.6599;
1202.7000;0.3753;0.6599;
1203.0000;0.3761;0.6575;
1203.3000;0.3777;0.6526;
1203.6000;0.3744;0.6453;
1203.9000;0.3679;0.6307;
1204.2000;0.3777;0.6575;
1204.5000;0.3818;0.6745;
1204.8000;0.3785;0.6648;
1205.1000;0.3769;0.6648;
1205.4000;0.3769;0.6696;
1205.7000;0.3777;0.6745;
1206.0000;0.3793;0.6794;
1206.3000;0.3777;0.6818;
1206.6000;0.3728;0.6769;
1206.9000;0.3785;0.6818;
1207.2000;0.3744;0.6696;
1207.5000;0.3753;0.6623;
1207.8000;0.3769;0.6599;
1208.1000;0.3712;0.6404;
1208.4000;0.3777;0.6526;
1208.7000;0.3777;0.6550;
1209.0000;0.3761;0.6477;
1209.3000;0.3761;0.6526;
1209.6000;0.3826;0.6599;
1209.9000;0.3785;0.6575;
1210.2000;0.3777;0.6623;
1210.5000;0.3769;0.6672;
1210.8000;0.3753;0.6623;
1211.1000;0.3785;0.6672;
1211.4000;0.3769;0.6599;
1211.7000;0.3777;0.6623;
1212.0000;0.3850;0.6794;
1212.3000;0.3769;0.6575;
1212.6000;0.3785;0.6575;
1212.9000;0.3777;0.6550;
1213.2000;0.3761;0.6599;
1213.5000;0.3769;0.6648;
1213.8000;0.3777;0.6648;
1214.1000;0.3761;0.6550;
1214.4000;0.3761;0.6453;
1214.7000;0.3777;0.6501;
1215.0000;0.3777;0.6453;
1215.3000;0.3761;0.6404;
1215.6000;0.3777;0.6453;
1215.9000;0.3753;0.6453;
1216.2000;0.3785;0.6575;
1216.5000;0.3704;0.6380;
1216.8000;0.3858;0.6745;
1217.1000;0.3777;0.6501;
1217.4000;0.3793;0.6550;
1217.7000;0.3785;0.6453;
1218.0000;0.3777;0.6428;
1218.3000;0.3761;0.6453;
1218.6000;0.3777;0.6453;
1218.9000;0.3785;0.6550;
1219.2000;0.3769;0.6526;
1219.5000;0.3753;0.6501;
1219.8000;0.3761;0.6453;
1220.1000;0.3761;0.6477;
1220.4000;0.3753;0.6550;
1220.7000;0.3744;0.6526;
1221.0000;0.3753;0.6477;
1221.3000;0.3785;0.6501;
1221.6000;0.3753;0.6477;
1221.9000;0.3744;0.6477;
1222.2000;0.3858;0.6867;
1222.5000;0.3810;0.6794;
1222.8000;0.3777;0.6696;
1223.1000;0.3687;0.6477;
1223.4000;0.3785;0.6721;
1223.7000;0.3834;0.6940;
1224.0000;0.3785;0.6721;
1224.3000;0.3761;0.6501;
1224.6000;0.3753;0.6526;
1224.9000;0.3753;0.6477;
1225.2000;0.3761;0.6428;
1225.5000;0.3777;0.6550;
1225.8000;0.3769;0.6526;
1226.1000;0.3728;0.6404;
1226.4000;0.3793;0.6477;
1226.7000;0.3785;0.6453;
1227.0000;0.3777;0.6453;
1227.3000;0.3785;0.6477;
1227.6000;0.3793;0.6477;
1227.9000;0.3753;0.6404;
1228.2000;0.3769;0.6331;
1228.5000;0.3785;0.6380;
1228.8000;0.3793;0.6404;
1229.1000;0.3769;0.6355;
1229.4000;0.3785;0.6501;
1229.7000;0.3753;0.6428;
1230.0000;0.3769;0.6575;
1230.3000;0.3858;0.6818;
1230.6000;0.3785;0.6648;
1230.9000;0.3777;0.6599;
1231.2000;0.3761;0.6623;
1231.5000;0.3769;0.6575;
1231.8000;0.3801;0.6648;
1232.1000;0.3769;0.6648;
1232.4000;0.3777;0.6599;
1232.7000;0.3777;0.6599;
1233.0000;0.3793;0.6575;
1233.3000;0.3777;0.6453;
1233.6000;0.3777;0.6477;
1233.9000;0.3769;0.6477;
1234.2000;0.3777;0.6550;
1234.5000;0.3785;0.6599;
1234.8000;0.3777;0.6501;
1235.1000;0.3777;0.6526;
1235.4000;0.3777;0.6501;
1235.7000;0.3777;0.6526;
1236.0000;0.3769;0.6575;
1236.3000;0.3761;0.6526;
1236.6000;0.3777;0.6599;
1236.9000;0.3744;0.6623;
1237.2000;0.3761;0.6623;
1237.5000;0.3769;0.6599;
1237.8000;0.3793;0.6696;
1238.1000;0.3810;0.6648;
1238.4000;0.3777;0.6599;
1238.7000;0.3785;0.6575;
1239.0000;0.3769;0.6575;
1239.3000;0.3769;0.6501;
1239.6000;0.3777;0.6526;
1239.9000;0.3769;0.6501;
1240.2000;0.3769;0.6453;
1240.5000;0.3785;0.6453;
1240.8000;0.3785;0.6477;
1241.1000;0.3785;0.6428;
1241.4000;0.3769;0.6258;
1241.7000;0.3785;0.6331;
1242.0000;0.3810;0.6428;
1242.3000;0.3777;0.6331;
1242.6000;0.3777;0.6331;
1242.9000;0.3728;0.6185;
1243.2000;0.3761;0.6282;
1243.5000;0.3769;0.6282;
1243.8000;0.3753;0.6185;
1244.1000;0.3753;0.6161;
1244.4000;0.3769;0.6282;
1244.7000;0.3777;0.6282;
1245.0000;0.3769;0.6331;
1245.3000;0.3696;0.6258;
1245.6000;0.3777;0.6501;
1245.9000;0.3777;0.6501;
1246.2000;0.3761;0.6501;
1246.5000;0.3769;0.6648;
1246.8000;0.3777;0.6623;
1247.1000;0.3761;0.6623;
1247.4000;0.3777;0.6526;
1247.7000;0.3785;0.6453;
1248.0000;0.3777;0.6501;
1248.3000;0.3785;0.6501;
1248.6000;0.3769;0.6501;
1248.9000;0.3761;0.6453;
1249.2000;0.3793;0.6501;
1249.5000;0.3793;0.6453;
1249.8000;0.3777;0.6355;
1250.1000;0.3769;0.6355;
1250.4000;0.3834;0.6501;
1250.7000;0.3753;0.6307;
1251.0000;0.3769;0.6428;
1251.3000;0.3777;0.6428;
1251.6000;0.3753;0.6380;
1251.9000;0.3793;0.6477;
1252.2000;0.3769;0.6404;
1252.5000;0.3769;0.6428;
1252.8000;0.3785;0.6477;
1253.1000;0.3785;0.6501;
1253.4000;0.3753;0.6404;
1253.7000;0.3810;0.6526;
1254.0000;0.3785;0.6380;
1254.3000;0.3777;0.6331;
1254.6000;0.3793;0.6331;
1254.9000;0.3761;0.6282;
1255.2000;0.3769;0.6258;
1255.5000;0.3720;0.6161;
1255.8000;0.3777;0.6331;
1256.1000;0.3867;0.6550;
1256.4000;0.3761;0.6234;
1256.7000;0.3761;0.6209;
1257.0000;0.3696;0.6088;
1257.3000;0.3769;0.6209;
1257.6000;0.3720;0.6112;
1257.9000;0.3744;0.6136;
1258.2000;0.3834;0.6355;
1258.5000;0.3769;0.6185;
1258.8000;0.3785;0.6258;
1259.1000;0.3801;0.6258;
1259.4000;0.3785;0.6161;
1259.7000;0.3777;0.6112;
1260.0000;0.3761;0.6136;
1260.3000;0.3744;0.6209;
1260.6000;0.3785;0.6282;
1260.9000;0.3744;0.6307;
1261.2000;0.3785;0.6404;
1261.5000;0.3761;0.6331;
1261.8000;0.3753;0.6258;
1262.1000;0.3785;0.6355;
1262.4000;0.3777;0.6282;
1262.7000;0.3826;0.6428;
1263.0000;0.3769;0.6404;
1263.3000;0.3793;0.6428;
1263.6000;0.3744;0.6331;
1263.9000;0.3753;0.6355;
1264.2000;0.3769;0.6428;
1264.5000;0.3777;0.6428;
1264.8000;0.3753;0.6355;
1265.1000;0.3785;0.6453;
1265.4000;0.3801;0.6501;
1265.7000;0.3777;0.6404;
1266.0000;0.3777;0.6501;
1266.3000;0.3761;0.6453;
1266.6000;0.3769;0.6453;
1266.9000;0.3769;0.6428;
1267.2000;0.3777;0.6453;
1267.5000;0.3753;0.6453;
1267.8000;0.3753;0.6428;
1268.1000;0.3818;0.6599;
1268.4000;0.3769;0.6428;
1268.7000;0.3753;0.6380;
1269.0000;0.3777;0.6404;
1269.3000;0.3753;0.6282;
1269.6000;0.3785;0.6331;
1269.9000;0.3769;0.6380;
1270.2000;0.3769;0.6428;
1270.5000;0.3761;0.6477;
1270.8000;0.3785;0.6526;
1271.1000;0.3761;0.6404;
1271.4000;0.3777;0.6380;
1271.7000;0.3753;0.6404;
1272.0000;0.3777;0.6477;
1272.3000;0.3769;0.6477;
1272.6000;0.3769;0.6307;
1272.9000;0.3761;0.6234;
1273.2000;0.3777;0.6185;
1273.5000;0.3769;0.6185;
1273.8000;0.3785;0.6282;
1274.1000;0.3761;0.6258;
1274.4000;0.3761;0.6355;
1274.7000;0.3761;0.6404;
1275.0000;0.3785;0.6501;
1275.3000;0.3769;0.6477;
1275.6000;0.3793;0.6453;
1275.9000;0.3761;0.6428;
1276.2000;0.3777;0.6428;
1276.5000;0.3728;0.6307;
1276.8000;0.3769;0.6453;
1277.1000;0.3793;0.6477;
1277.4000;0.3769;0.6355;
1277.7000;0.3744;0.6258;
1278.0000;0.3761;0.6355;
1278.3000;0.3834;0.6599;
1278.6000;0.3769;0.6477;
1278.9000;0.3761;0.6404;
1279.2000;0.3801;0.6453;
1279.5000;0.3858;0.6672;
1279.8000;0.3793;0.6526;
1280.1000;0.3777;0.6550;
1280.4000;0.3793;0.6648;
1280.7000;0.3704;0.6501;
1281.0000;0.3777;0.6672;
1281.3000;0.3753;0.6721;
1281.6000;0.3810;0.6794;
1281.9000;0.3793;0.6648;
1282.2000;0.3793;0.6575;
1282.5000;0.3777;0.6526;
1282.8000;0.3801;0.6453;
1283.1000;0.3801;0.6453;
1283.4000;0.3785;0.6428;
1283.7000;0.3761;0.6428;
1284.0000;0.3753;0.6501;
1284.3000;0.3744;0.6453;
1284.6000;0.3777;0.6453;
1284.9000;0.3777;0.6477;
1285.2000;0.3753;0.6428;
1285.5000;0.3761;0.6282;
1285.8000;0.3753;0.6282;
1286.1000;0.3769;0.6380;
1286.4000;0.3761;0.6404;
1286.7000;0.3801;0.6526;
1287.0000;0.3769;0.6477;
1287.3000;0.3769;0.6428;
1287.6000;0.3769;0.6380;
1287.9000;0.3777;0.6453;
1288.2000;0.3777;0.6477;
1288.5000;0.3761;0.6428;
1288.8000;0.3777;0.6453;
1289.1000;0.3793;0.6501;
1289.4000;0.3785;0.6550;
1289.7000;0.3777;0.6599;
1290.0000;0.3777;0.6599;
1290.3000;0.3777;0.6672;
1290.6000;0.3785;0.6672;
1290.9000;0.3842;0.6867;
1291.2000;0.3769;0.6672;
1291.5000;0.3785;0.6623;
1291.8000;0.3801;0.6599;
1292.1000;0.3761;0.6623;
1292.4000;0.3769;0.6648;
1292.7000;0.3769;0.6696;
1293.0000;0.3753;0.6672;
1293.3000;0.3777;0.6745;
1293.6000;0.3785;0.6721;
1293.9000;0.3744;0.6599;
1294.2000;0.3777;0.6721;
1294.5000;0.3761;0.6648;
1294.8000;0.3785;0.6648;
1295.1000;0.3777;0.6623;
1295.4000;0.3769;0.6599;
1295.7000;0.3736;0.6453;
1296.0000;0.3761;0.6453;
1296.3000;0.3753;0.6526;
1296.6000;0.3720;0.6404;
1296.9000;0.3753;0.6355;
1297.2000;0.3753;0.6428;
1297.5000;0.3744;0.6453;
1297.8000;0.3785;0.6599;
1298.1000;0.3777;0.6696;
1298.4000;0.3769;0.6599;
1298.7000;0.3810;0.6623;
1299.0000;0.3769;0.6550;
1299.3000;0.3712;0.6380;
1299.6000;0.3793;0.6623;
1299.9000;0.3769;0.6477;
1300.2000;0.3769;0.6575;
1300.5000;0.3777;0.6721;
1300.8000;0.3785;0.6745;
1301.1000;0.3753;0.6696;
1301.4000;0.3769;0.6672;
1301.7000;0.3728;0.6526;
1302.0000;0.3761;0.6599;
1302.3000;0.3769;0.6648;
1302.6000;0.3769;0.6550;
1302.9000;0.3785;0.6575;
1303.2000;0.3785;0.6526;
1303.5000;0.3761;0.6599;
1303.8000;0.3777;0.6696;
1304.1000;0.3793;0.6818;
1304.4000;0.3777;0.6769;
1304.7000;0.3858;0.7013;
1305.0000;0.3785;0.6769;
1305.3000;0.3777;0.6672;
1305.6000;0.3785;0.6745;
1305.9000;0.3777;0.6745;
1306.2000;0.3753;0.6672;
1306.5000;0.3761;0.6648;
1306.8000;0.3777;0.6648;
1307.1000;0.3777;0.6721;
1307.4000;0.3769;0.6648;
1307.7000;0.3728;0.6550;
1308.0000;0.3777;0.6526;
1308.3000;0.3793;0.6599;
1308.6000;0.3761;0.6501;
1308.9000;0.3777;0.6623;
1309.2000;0.3793;0.6623;
1309.5000;0.3761;0.6575;
1309.8000;0.3761;0.6599;
1310.1000;0.3785;0.6696;
1310.4000;0.3777;0.6721;
1310.7000;0.3793;0.6818;
1311.0000;0.3785;0.6745;
1311.3000;0.3761;0.6526;
1311.6000;0.3777;0.6526;
1311.9000;0.3736;0.6453;
1312.2000;0.3785;0.6623;
1312.5000;0.3769;0.6623;
1312.8000;0.3761;0.6648;
1313.1000;0.3801;0.6721;
1313.4000;0.3753;0.6721;
1313.7000;0.3761;0.6745;
1314.0000;0.3777;0.6867;
1314.3000;0.3777;0.6818;
1314.6000;0.3785;0.6696;
1314.9000;0.3753;0.6599;
1315.2000;0.3753;0.6550;
1315.5000;0.3777;0.6623;
1315.8000;0.3793;0.6672;
1316.1000;0.3793;0.6623;
1316.4000;0.3753;0.6526;
1316.7000;0.3761;0.6599;
1317.0000;0.3761;0.6672;
1317.3000;0.3753;0.6599;
1317.6000;0.3769;0.6623;
1317.9000;0.3736;0.6599;
1318.2000;0.3753;0.6599;
1318.5000;0.3769;0.6648;
1318.8000;0.3728;0.6599;
1319.1000;0.3769;0.6745;
1319.4000;0.3777;0.6842;
1319.7000;0.3769;0.6721;
1320.0000;0.3736;0.6599;
1320.3000;0.3769;0.6648;
1320.6000;0.3850;0.6940;
1320.9000;0.3785;0.6672;
1321.2000;0.3769;0.6575;
1321.5000;0.3736;0.6575;
1321.8000;0.3785;0.6721;
1322.1000;0.3810;0.6648;
1322.4000;0.3761;0.6526;
1322.7000;0.3679;0.6355;
1323.0000;0.3736;0.6526;
1323.3000;0.3793;0.6672;
1323.6000;0.3761;0.6745;
1323.9000;0.3777;0.6769;
1324.2000;0.3744;0.6745;
1324.5000;0.3769;0.6842;
1324.8000;0.3753;0.6818;
1325.1000;0.3761;0.6842;
1325.4000;0.3769;0.6891;
1325.7000;0.3769;0.6842;
1326.0000;0.3785;0.6818;
1326.3000;0.3753;0.6769;
1326.6000;0.3769;0.6745;
1326.9000;0.3785;0.6769;
1327.2000;0.3777;0.6769;
1327.5000;0.3769;0.6769;
1327.8000;0.3793;0.6745;
1328.1000;0.3753;0.6599;
1328.4000;0.3761;0.6599;
1328.7000;0.3769;0.6575;
1329.0000;0.3761;0.6599;
1329.3000;0.3834;0.6818;
1329.6000;0.3801;0.6794;
1329.9000;0.3777;0.6745;
1330.2000;0.3777;0.6745;
1330.5000;0.3769;0.6696;
1330.8000;0.3769;0.6721;
1331.1000;0.3753;0.6672;
1331.4000;0.3769;0.6721;
1331.7000;0.3769;0.6745;
1332.0000;0.3744;0.6672;
1332.3000;0.3753;0.6648;
1332.6000;0.3801;0.6696;
1332.9000;0.3777;0.6599;
1333.2000;0.3777;0.6623;
1333.5000;0.3785;0.6599;
1333.8000;0.3818;0.6696;
1334.1000;0.3818;0.6623;
1334.4000;0.3769;0.6526;
1334.7000;0.3777;0.6550;
1335.0000;0.3744;0.6477;
1335.3000;0.3753;0.6550;
1335.6000;0.3761;0.6575;
1335.9000;0.3834;0.6721;
1336.2000;0.3777;0.6575;
1336.5000;0.3801;0.6575;
1336.8000;0.3785;0.6428;
1337.1000;0.3793;0.6355;
1337.4000;0.3793;0.6282;
1337.7000;0.3769;0.6234;
1338.0000;0.3769;0.6258;
1338.3000;0.3769;0.6355;
1338.6000;0.3769;0.6501;
1338.9000;0.3810;0.6745;
1339.2000;0.3785;0.6672;
1339.5000;0.3785;0.6648;
1339.8000;0.3777;0.6648;
1340.1000;0.3785;0.6599;
1340.4000;0.3785;0.6477;
1340.7000;0.3793;0.6453;
1341.0000;0.3818;0.6428;
1341.3000;0.3736;0.6282;
1341.6000;0.3769;0.6380;
1341.9000;0.3785;0.6428;
1342.2000;0.3720;0.6258;
1342.5000;0.3785;0.6477;
1342.8000;0.3761;0.6501;
1343.1000;0.3801;0.6648;
1343.4000;0.3801;0.6623;
1343.7000;0.3696;0.6380;
1344.0000;0.3793;0.6696;
1344.3000;0.3777;0.6672;
1344.6000;0.3769;0.6599;
1344.9000;0.3769;0.6623;
1345.2000;0.3842;0.6818;
1345.5000;0.3785;0.6648;
1345.8000;0.3858;0.6867;
1346.1000;0.3728;0.6550;
1346.4000;0.3785;0.6794;
1346.7000;0.3720;0.6623;
1347.0000;0.3761;0.6769;
1347.3000;0.3761;0.6696;
1347.6000;0.3777;0.6672;
1347.9000;0.3777;0.6575;
1348.2000;0.3744;0.6526;
1348.5000;0.3753;0.6623;
1348.8000;0.3761;0.6575;
1349.1000;0.3753;0.6599;
1349.4000;0.3728;0.6526;
1349.7000;0.3761;0.6526;
1350.0000;0.3777;0.6550;
1350.3000;0.3793;0.6550;
1350.6000;0.3769;0.6501;
1350.9000;0.3785;0.6599;
1351.2000;0.3793;0.6599;
1351.5000;0.3769;0.6575;
1351.8000;0.3777;0.6672;
1352.1000;0.3761;0.6648;
1352.4000;0.3785;0.6599;
1352.7000;0.3777;0.6575;
1353.0000;0.3769;0.6599;
1353.3000;0.3834;0.6745;
1353.6000;0.3769;0.6526;
1353.9000;0.3810;0.6696;
1354.2000;0.3793;0.6623;
1354.5000;0.3753;0.6453;
1354.8000;0.3712;0.6380;
1355.1000;0.3769;0.6599;
1355.4000;0.3785;0.6550;
1355.7000;0.3785;0.6599;
1356.0000;0.3818;0.6696;
1356.3000;0.3777;0.6550;
1356.6000;0.3793;0.6526;
1356.9000;0.3777;0.6404;
1357.2000;0.3769;0.6428;
1357.5000;0.3785;0.6575;
1357.8000;0.3769;0.6648;
1358.1000;0.3753;0.6501;
1358.4000;0.3761;0.6428;
1358.7000;0.3769;0.6428;
1359.0000;0.3785;0.6526;
1359.3000;0.3785;0.6526;
1359.6000;0.3818;0.6672;
1359.9000;0.3761;0.6477;
1360.2000;0.3785;0.6453;
1360.5000;0.3769;0.6501;
1360.8000;0.3769;0.6501;
1361.1000;0.3761;0.6550;
1361.4000;0.3777;0.6477;
1361.7000;0.3761;0.6501;
1362.0000;0.3761;0.6526;
1362.3000;0.3753;0.6501;
1362.6000;0.3753;0.6404;
1362.9000;0.3785;0.6453;
1363.2000;0.3761;0.6404;
1363.5000;0.3761;0.6355;
1363.8000;0.3801;0.6501;
1364.1000;0.3769;0.6477;
1364.4000;0.3761;0.6550;
1364.7000;0.3720;0.6428;
1365.0000;0.3769;0.6526;
1365.3000;0.3785;0.6623;
1365.6000;0.3777;0.6648;
1365.9000;0.3785;0.6672;
1366.2000;0.3777;0.6672;
1366.5000;0.3810;0.6721;
1366.8000;0.3769;0.6623;
1367.1000;0.3744;0.6623;
1367.4000;0.3769;0.6623;
1367.7000;0.3761;0.6501;
1368.0000;0.3728;0.6428;
1368.3000;0.3761;0.6599;
1368.6000;0.3753;0.6501;
1368.9000;0.3777;0.6599;
1369.2000;0.3769;0.6526;
1369.5000;0.3777;0.6648;
1369.8000;0.3793;0.6769;
1370.1000;0.3777;0.6696;
1370.4000;0.3777;0.6672;
1370.7000;0.3785;0.6672;
1371.0000;0.3899;0.6964;
1371.3000;0.3761;0.6599;
1371.6000;0.3818;0.6599;
1371.9000;0.3761;0.6575;
1372.2000;0.3744;0.6501;
1372.5000;0.3720;0.6404;
1372.8000;0.3744;0.6355;
1373.1000;0.3753;0.6404;
1373.4000;0.3769;0.6550;
1373.7000;0.3769;0.6648;
1374.0000;0.3736;0.6477;
1374.3000;0.3720;0.6453;
1374.6000;0.3769;0.6599;
1374.9000;0.3793;0.6501;
1375.2000;0.3761;0.6477;
1375.5000;0.3679;0.6331;
1375.8000;0.3777;0.6575;
1376.1000;0.3769;0.6428;
1376.4000;0.3785;0.6428;
1376.7000;0.3769;0.6428;
1377.0000;0.3712;0.6355;
1377.3000;0.3777;0.6575;
1377.6000;0.3769;0.6526;
1377.9000;0.3801;0.6672;
1378.2000;0.3777;0.6599;
1378.5000;0.3793;0.6623;
1378.8000;0.3769;0.6599;
1379.1000;0.3777;0.6599;
1379.4000;0.3761;0.6477;
1379.7000;0.3793;0.6550;
1380.0000;0.3761;0.6526;
1380.3000;0.3777;0.6550;
1380.6000;0.3761;0.6501;
1380.9000;0.3793;0.6575;
1381.2000;0.3785;0.6575;
1381.5000;0.3761;0.6623;
1381.8000;0.3793;0.6623;
1382.1000;0.3810;0.6623;
1382.4000;0.3769;0.6550;
1382.7000;0.3785;0.6672;
1383.0000;0.3744;0.6526;
1383.3000;0.3842;0.6769;
1383.6000;0.3728;0.6477;
1383.9000;0.3761;0.6550;
1384.2000;0.3728;0.6453;
1384.5000;0.3777;0.6526;
1384.8000;0.3777;0.6526;
1385.1000;0.3785;0.6550;
1385.4000;0.3753;0.6453;
1385.7000;0.3777;0.6599;
1386.0000;0.3777;0.6648;
1386.3000;0.3769;0.6599;
1386.6000;0.3769;0.6623;
1386.9000;0.3785;0.6648;
1387.2000;0.3761;0.6623;
1387.5000;0.3785;0.6648;
1387.8000;0.3769;0.6526;
1388.1000;0.3818;0.6575;
1388.4000;0.3834;0.6672;
1388.7000;0.3777;0.6526;
1389.0000;0.3720;0.6404;
1389.3000;0.3777;0.6501;
1389.6000;0.3810;0.6648;
1389.9000;0.3785;0.6575;
1390.2000;0.3818;0.6648;
1390.5000;0.3777;0.6501;
1390.8000;0.3793;0.6599;
1391.1000;0.3793;0.6550;
1391.4000;0.3793;0.6599;
1391.7000;0.3777;0.6575;
1392.0000;0.3801;0.6648;
1392.3000;0.3777;0.6648;
1392.6000;0.3744;0.6575;
1392.9000;0.3761;0.6575;
1393.2000;0.3793;0.6648;
1393.5000;0.3834;0.6672;
1393.8000;0.3769;0.6648;
1394.1000;0.3834;0.6769;
1394.4000;0.3769;0.6575;
1394.7000;0.3769;0.6477;
1395.0000;0.3761;0.6453;
1395.3000;0.3761;0.6453;
1395.6000;0.3793;0.6550;
1395.9000;0.3744;0.6477;
1396.2000;0.3785;0.6599;
1396.5000;0.3810;0.6721;
1396.8000;0.3785;0.6623;
1397.1000;0.3753;0.6526;
1397.4000;0.3777;0.6501;
1397.7000;0.3769;0.6428;
1398.0000;0.3777;0.6404;
1398.3000;0.3769;0.6453;
1398.6000;0.3761;0.6453;
1398.9000;0.3769;0.6526;
1399.2000;0.3753;0.6453;
1399.5000;0.3801;0.6477;
1399.8000;0.3753;0.6380;
