time/ms;Fluo/V;P700 deltaI/I x10³;
-199.8000;0.3810;0.6501;
-199.5000;0.3818;0.6428;
-199.2000;0.3801;0.6404;
-198.9000;0.3793;0.6428;
-198.6000;0.3793;0.6428;
-198.3000;0.3777;0.6501;
-198.0000;0.3810;0.6575;
-197.7000;0.3826;0.6672;
-197.4000;0.3777;0.6623;
-197.1000;0.3801;0.6672;
-196.8000;0.3801;0.6623;
-196.5000;0.3744;0.6477;
-196.2000;0.3801;0.6623;
-195.9000;0.3801;0.6648;
-195.6000;0.3753;0.6599;
-195.3000;0.3801;0.6648;
-195.0000;0.3785;0.6550;
-194.7000;0.3785;0.6526;
-194.4000;0.3785;0.6526;
-194.1000;0.3785;0.6550;
-193.8000;0.3785;0.6526;
-193.5000;0.3785;0.6501;
-193.2000;0.3785;0.6453;
-192.9000;0.3793;0.6526;
-192.6000;0.3801;0.6477;
-192.3000;0.3761;0.6380;
-192.0000;0.3777;0.6404;
-191.7000;0.3810;0.6550;
-191.4000;0.3785;0.6550;
-191.1000;0.3777;0.6453;
-190.8000;0.3785;0.6550;
-190.5000;0.3785;0.6501;
-190.2000;0.3801;0.6599;
-189.9000;0.3785;0.6501;
-189.6000;0.3761;0.6526;
-189.3000;0.3801;0.6599;
-189.0000;0.3793;0.6672;
-188.7000;0.3785;0.6696;
-188.4000;0.3785;0.6672;
-188.1000;0.3801;0.6696;
-187.8000;0.3810;0.6745;
-187.5000;0.3777;0.6623;
-187.2000;0.3801;0.6575;
-186.9000;0.3793;0.6526;
-186.6000;0.3785;0.6501;
-186.3000;0.3785;0.6428;
-186.0000;0.3777;0.6501;
-185.7000;0.3810;0.6501;
-185.4000;0.3785;0.6404;
-185.1000;0.3801;0.6477;
-184.8000;0.3842;0.6575;
-184.5000;0.3785;0.6575;
-184.2000;0.3801;0.6623;
-183.9000;0.3810;0.6648;
-183.6000;0.3777;0.6623;
-183.3000;0.3777;0.6599;
-183.0000;0.3785;0.6526;
-182.7000;0.3834;0.6501;
-182.4000;0.3793;0.6477;
-182.1000;0.3785;0.6477;
-181.8000;0.3793;0.6477;
-181.5000;0.3801;0.6526;
-181.2000;0.3810;0.6428;
-180.9000;0.3793;0.6380;
-180.6000;0.3834;0.6477;
-180.3000;0.3818;0.6526;
-180.0000;0.3801;0.6575;
-179.7000;0.3810;0.6623;
-179.4000;0.3850;0.6696;
-179.1000;0.3793;0.6599;
-178.8000;0.3793;0.6599;
-178.5000;0.3785;0.6526;
-178.2000;0.3793;0.6623;
-177.9000;0.3785;0.6648;
-177.6000;0.3793;0.6599;
-177.3000;0.3826;0.6672;
-177.0000;0.3785;0.6501;
-176.7000;0.3785;0.6575;
-176.4000;0.3810;0.6648;
-176.1000;0.3801;0.6648;
-175.8000;0.3801;0.6623;
-175.5000;0.3785;0.6550;
-175.2000;0.3793;0.6477;
-174.9000;0.3785;0.6550;
-174.6000;0.3810;0.6550;
-174.3000;0.3801;0.6550;
-174.0000;0.3801;0.6575;
-173.7000;0.3818;0.6672;
-173.4000;0.3801;0.6672;
-173.1000;0.3801;0.6672;
-172.8000;0.3793;0.6575;
-172.5000;0.3801;0.6623;
-172.2000;0.3801;0.6648;
-171.9000;0.3777;0.6550;
-171.6000;0.3801;0.6599;
-171.3000;0.3793;0.6599;
-171.0000;0.3777;0.6501;
-170.7000;0.3793;0.6550;
-170.4000;0.3777;0.6453;
-170.1000;0.3785;0.6404;
-169.8000;0.3777;0.6453;
-169.5000;0.3793;0.6599;
-169.2000;0.3793;0.6648;
-168.9000;0.3801;0.6745;
-168.6000;0.3793;0.6721;
-168.3000;0.3801;0.6769;
-168.0000;0.3793;0.6794;
-167.7000;0.3777;0.6891;
-167.4000;0.3793;0.6915;
-167.1000;0.3826;0.6988;
-166.8000;0.3777;0.6867;
-166.5000;0.3785;0.6867;
-166.2000;0.3793;0.6818;
-165.9000;0.3785;0.6818;
-165.6000;0.3834;0.6842;
-165.3000;0.3793;0.6769;
-165.0000;0.3777;0.6696;
-164.7000;0.3801;0.6745;
-164.4000;0.3785;0.6745;
-164.1000;0.3793;0.6769;
-163.8000;0.3793;0.6696;
-163.5000;0.3801;0.6769;
-163.2000;0.3761;0.6648;
-162.9000;0.3785;0.6648;
-162.6000;0.3785;0.6721;
-162.3000;0.3801;0.6769;
-162.0000;0.3810;0.6842;
-161.7000;0.3785;0.6794;
-161.4000;0.3785;0.6794;
-161.1000;0.3801;0.6769;
-160.8000;0.3801;0.6794;
-160.5000;0.3818;0.6769;
-160.2000;0.3793;0.6769;
-159.9000;0.3793;0.6696;
-159.6000;0.3801;0.6672;
-159.3000;0.3793;0.6599;
-159.0000;0.3785;0.6623;
-158.7000;0.3801;0.6623;
-158.4000;0.3785;0.6648;
-158.1000;0.3785;0.6623;
-157.8000;0.3801;0.6672;
-157.5000;0.3777;0.6648;
-157.2000;0.3769;0.6575;
-156.9000;0.3801;0.6794;
-156.6000;0.3761;0.6672;
-156.3000;0.3777;0.6745;
-156.0000;0.3834;0.6891;
-155.7000;0.3801;0.6696;
-155.4000;0.3793;0.6623;
-155.1000;0.3891;0.6867;
-154.8000;0.3785;0.6501;
-154.5000;0.3793;0.6623;
-154.2000;0.3801;0.6721;
-153.9000;0.3785;0.6648;
-153.6000;0.3793;0.6696;
-153.3000;0.3793;0.6721;
-153.0000;0.3785;0.6575;
-152.7000;0.3793;0.6575;
-152.4000;0.3785;0.6623;
-152.1000;0.3793;0.6550;
-151.8000;0.3793;0.6550;
-151.5000;0.3785;0.6599;
-151.2000;0.3801;0.6550;
-150.9000;0.3801;0.6477;
-150.6000;0.3801;0.6550;
-150.3000;0.3801;0.6550;
-150.0000;0.3744;0.6428;
-149.7000;0.3744;0.6428;
-149.4000;0.3785;0.6599;
-149.1000;0.3834;0.6745;
-148.8000;0.3777;0.6623;
-148.5000;0.3810;0.6672;
-148.2000;0.3810;0.6648;
-147.9000;0.3907;0.6794;
-147.6000;0.3785;0.6526;
-147.3000;0.3793;0.6575;
-147.0000;0.3793;0.6623;
-146.7000;0.3777;0.6672;
-146.4000;0.3801;0.6696;
-146.1000;0.3801;0.6721;
-145.8000;0.3793;0.6721;
-145.5000;0.3810;0.6818;
-145.2000;0.3785;0.6818;
-144.9000;0.3793;0.6721;
-144.6000;0.3842;0.6794;
-144.3000;0.3801;0.6696;
-144.0000;0.3769;0.6599;
-143.7000;0.3810;0.6599;
-143.4000;0.3818;0.6599;
-143.1000;0.3801;0.6599;
-142.8000;0.3785;0.6623;
-142.5000;0.3769;0.6599;
-142.2000;0.3785;0.6672;
-141.9000;0.3793;0.6648;
-141.6000;0.3801;0.6672;
-141.3000;0.3793;0.6672;
-141.0000;0.3785;0.6721;
-140.7000;0.3793;0.6745;
-140.4000;0.3810;0.6696;
-140.1000;0.3818;0.6696;
-139.8000;0.3801;0.6623;
-139.5000;0.3818;0.6696;
-139.2000;0.3810;0.6696;
-138.9000;0.3769;0.6623;
-138.6000;0.3801;0.6672;
-138.3000;0.3810;0.6648;
-138.0000;0.3810;0.6623;
-137.7000;0.3777;0.6672;
-137.4000;0.3785;0.6745;
-137.1000;0.3810;0.6842;
-136.8000;0.3801;0.6769;
-136.5000;0.3769;0.6696;
-136.2000;0.3793;0.6721;
-135.9000;0.3777;0.6672;
-135.6000;0.3810;0.6769;
-135.3000;0.3810;0.6745;
-135.0000;0.3818;0.6672;
-134.7000;0.3728;0.6380;
-134.4000;0.3793;0.6599;
-134.1000;0.3810;0.6599;
-133.8000;0.3785;0.6599;
-133.5000;0.3785;0.6428;
-133.2000;0.3785;0.6355;
-132.9000;0.3761;0.6258;
-132.6000;0.3793;0.6307;
-132.3000;0.3769;0.6307;
-132.0000;0.3761;0.6282;
-131.7000;0.3793;0.6453;
-131.4000;0.3899;0.6672;
-131.1000;0.3907;0.6769;
-130.8000;0.3777;0.6453;
-130.5000;0.3728;0.6331;
-130.2000;0.3793;0.6501;
-129.9000;0.3793;0.6648;
-129.6000;0.3777;0.6599;
-129.3000;0.3801;0.6672;
-129.0000;0.3793;0.6526;
-128.7000;0.3785;0.6453;
-128.4000;0.3785;0.6550;
-128.1000;0.3777;0.6501;
-127.8000;0.3793;0.6696;
-127.5000;0.3818;0.6769;
-127.2000;0.3785;0.6648;
-126.9000;0.3744;0.6575;
-126.6000;0.3810;0.6696;
-126.3000;0.3785;0.6672;
-126.0000;0.3801;0.6623;
-125.7000;0.3769;0.6550;
-125.4000;0.3785;0.6575;
-125.1000;0.3801;0.6526;
-124.8000;0.3793;0.6453;
-124.5000;0.3793;0.6477;
-124.2000;0.3785;0.6526;
-123.9000;0.3785;0.6477;
-123.6000;0.3785;0.6501;
-123.3000;0.3785;0.6623;
-123.0000;0.3818;0.6696;
-122.7000;0.3769;0.6599;
-122.4000;0.3793;0.6745;
-122.1000;0.3810;0.6867;
-121.8000;0.3777;0.6818;
-121.5000;0.3810;0.6818;
-121.2000;0.3810;0.6842;
-120.9000;0.3785;0.6842;
-120.6000;0.3793;0.6745;
-120.3000;0.3793;0.6794;
-120.0000;0.3810;0.6891;
-119.7000;0.3801;0.6794;
-119.4000;0.3801;0.6769;
-119.1000;0.3777;0.6721;
-118.8000;0.3834;0.6842;
-118.5000;0.3793;0.6745;
-118.2000;0.3801;0.6745;
-117.9000;0.3785;0.6745;
-117.6000;0.3777;0.6721;
-117.3000;0.3793;0.6745;
-117.0000;0.3793;0.6599;
-116.7000;0.3818;0.6623;
-116.4000;0.3810;0.6575;
-116.1000;0.3785;0.6550;
-115.8000;0.3793;0.6648;
-115.5000;0.3793;0.6696;
-115.2000;0.3818;0.6745;
-114.9000;0.3793;0.6721;
-114.6000;0.3818;0.6794;
-114.3000;0.3744;0.6477;
-114.0000;0.3810;0.6745;
-113.7000;0.3850;0.6842;
-113.4000;0.3818;0.6721;
-113.1000;0.3793;0.6696;
-112.8000;0.3753;0.6623;
-112.5000;0.3777;0.6696;
-112.2000;0.3850;0.6940;
-111.9000;0.3801;0.6915;
-111.6000;0.3818;0.6842;
-111.3000;0.3801;0.6891;
-111.0000;0.3744;0.6721;
-110.7000;0.3834;0.6842;
-110.4000;0.3785;0.6721;
-110.1000;0.3801;0.6745;
-109.8000;0.3777;0.6672;
-109.5000;0.3818;0.6769;
-109.2000;0.3785;0.6745;
-108.9000;0.3793;0.6794;
-108.6000;0.3810;0.6745;
-108.3000;0.3801;0.6769;
-108.0000;0.3785;0.6672;
-107.7000;0.3777;0.6623;
-107.4000;0.3744;0.6501;
-107.1000;0.3858;0.6915;
-106.8000;0.3785;0.6721;
-106.5000;0.3891;0.7037;
-106.2000;0.3793;0.6672;
-105.9000;0.3801;0.6623;
-105.6000;0.3793;0.6599;
-105.3000;0.3761;0.6526;
-105.0000;0.3801;0.6599;
-104.7000;0.3818;0.6648;
-104.4000;0.3785;0.6599;
-104.1000;0.3826;0.6745;
-103.8000;0.3842;0.6842;
-103.5000;0.3761;0.6672;
-103.2000;0.3793;0.6769;
-102.9000;0.3777;0.6818;
-102.6000;0.3801;0.6769;
-102.3000;0.3810;0.6745;
-102.0000;0.3777;0.6745;
-101.7000;0.3769;0.6745;
-101.4000;0.3801;0.6940;
-101.1000;0.3777;0.6915;
-100.8000;0.3810;0.7062;
-100.5000;0.3826;0.7086;
-100.2000;0.3801;0.7062;
-99.9000;0.3793;0.7037;
-99.6000;0.3801;0.7013;
-99.3000;0.3793;0.6915;
-99.0000;0.3793;0.6915;
-98.7000;0.3801;0.6842;
-98.4000;0.3793;0.6818;
-98.1000;0.3810;0.6867;
-97.8000;0.3793;0.6818;
-97.5000;0.3810;0.6769;
-97.2000;0.3842;0.6842;
-96.9000;0.3785;0.6867;
-96.6000;0.3793;0.6842;
-96.3000;0.3679;0.6501;
-96.0000;0.3753;0.6623;
-95.7000;0.3793;0.6696;
-95.4000;0.3761;0.6672;
-95.1000;0.3793;0.6745;
-94.8000;0.3801;0.6842;
-94.5000;0.3801;0.6842;
-94.2000;0.3744;0.6721;
-93.9000;0.3793;0.6842;
-93.6000;0.3810;0.6818;
-93.3000;0.3834;0.6891;
-93.0000;0.3810;0.6867;
-92.7000;0.3777;0.6794;
-92.4000;0.3810;0.6818;
-92.1000;0.3761;0.6623;
-91.8000;0.3801;0.6623;
-91.5000;0.3818;0.6599;
-91.2000;0.3875;0.6672;
-90.9000;0.3785;0.6477;
-90.6000;0.3785;0.6550;
-90.3000;0.3834;0.6696;
-90.0000;0.3826;0.6696;
-89.7000;0.3818;0.6623;
-89.4000;0.3834;0.6599;
-89.1000;0.3785;0.6550;
-88.8000;0.3793;0.6672;
-88.5000;0.3793;0.6672;
-88.2000;0.3761;0.6648;
-87.9000;0.3785;0.6696;
-87.6000;0.3777;0.6745;
-87.3000;0.3810;0.6867;
-87.0000;0.3842;0.6940;
-86.7000;0.3810;0.6818;
-86.4000;0.3801;0.6769;
-86.1000;0.3785;0.6672;
-85.8000;0.3810;0.6696;
-85.5000;0.3826;0.6745;
-85.2000;0.3785;0.6599;
-84.9000;0.3785;0.6526;
-84.6000;0.3785;0.6550;
-84.3000;0.3785;0.6599;
-84.0000;0.3818;0.6696;
-83.7000;0.3777;0.6599;
-83.4000;0.3793;0.6721;
-83.1000;0.3793;0.6696;
-82.8000;0.3801;0.6672;
-82.5000;0.3793;0.6672;
-82.2000;0.3818;0.6794;
-81.9000;0.3761;0.6696;
-81.6000;0.3793;0.6818;
-81.3000;0.3785;0.6696;
-81.0000;0.3801;0.6794;
-80.7000;0.3777;0.6745;
-80.4000;0.3793;0.6867;
-80.1000;0.3818;0.6842;
-79.8000;0.3793;0.6745;
-79.5000;0.3810;0.6842;
-79.2000;0.3810;0.6915;
-78.9000;0.3810;0.6940;
-78.6000;0.3801;0.6794;
-78.3000;0.3810;0.6818;
-78.0000;0.3810;0.6818;
-77.7000;0.3818;0.6915;
-77.4000;0.3810;0.6794;
-77.1000;0.3777;0.6672;
-76.8000;0.3801;0.6769;
-76.5000;0.3810;0.6818;
-76.2000;0.3834;0.6842;
-75.9000;0.3785;0.6769;
-75.6000;0.3785;0.6648;
-75.3000;0.3769;0.6575;
-75.0000;0.3761;0.6550;
-74.7000;0.3810;0.6623;
-74.4000;0.3720;0.6428;
-74.1000;0.3801;0.6696;
-73.8000;0.3801;0.6696;
-73.5000;0.3785;0.6672;
-73.2000;0.3826;0.6672;
-72.9000;0.3801;0.6599;
-72.6000;0.3785;0.6550;
-72.3000;0.3810;0.6623;
-72.0000;0.3704;0.6453;
-71.7000;0.3793;0.6696;
-71.4000;0.3793;0.6696;
-71.1000;0.3801;0.6745;
-70.8000;0.3777;0.6794;
-70.5000;0.3801;0.6842;
-70.2000;0.3801;0.6794;
-69.9000;0.3801;0.6721;
-69.6000;0.3793;0.6623;
-69.3000;0.3801;0.6794;
-69.0000;0.3826;0.6842;
-68.7000;0.3810;0.6769;
-68.4000;0.3818;0.6721;
-68.1000;0.3810;0.6672;
-67.8000;0.3801;0.6648;
-67.5000;0.3801;0.6623;
-67.2000;0.3907;0.6818;
-66.9000;0.3826;0.6501;
-66.6000;0.3801;0.6404;
-66.3000;0.3785;0.6453;
-66.0000;0.3793;0.6550;
-65.7000;0.3777;0.6526;
-65.4000;0.3801;0.6623;
-65.1000;0.3810;0.6721;
-64.8000;0.3785;0.6672;
-64.5000;0.3753;0.6623;
-64.2000;0.3785;0.6648;
-63.9000;0.3793;0.6648;
-63.6000;0.3867;0.6842;
-63.3000;0.3777;0.6696;
-63.0000;0.3753;0.6696;
-62.7000;0.3801;0.6794;
-62.4000;0.3810;0.6794;
-62.1000;0.3793;0.6599;
-61.8000;0.3785;0.6648;
-61.5000;0.3793;0.6648;
-61.2000;0.3801;0.6648;
-60.9000;0.3793;0.6623;
-60.6000;0.3793;0.6672;
-60.3000;0.3810;0.6672;
-60.0000;0.3801;0.6648;
-59.7000;0.3777;0.6648;
-59.4000;0.3777;0.6623;
-59.1000;0.3785;0.6696;
-58.8000;0.3801;0.6769;
-58.5000;0.3818;0.6867;
-58.2000;0.3785;0.6745;
-57.9000;0.3736;0.6696;
-57.6000;0.3801;0.6891;
-57.3000;0.3793;0.6891;
-57.0000;0.3785;0.6867;
-56.7000;0.3818;0.6940;
-56.4000;0.3785;0.6940;
-56.1000;0.3769;0.6915;
-55.8000;0.3793;0.6891;
-55.5000;0.3801;0.6940;
-55.2000;0.3793;0.6940;
-54.9000;0.3801;0.6867;
-54.6000;0.3793;0.6867;
-54.3000;0.3801;0.6842;
-54.0000;0.3818;0.6867;
-53.7000;0.3842;0.6867;
-53.4000;0.3785;0.6623;
-53.1000;0.3810;0.6721;
-52.8000;0.3761;0.6623;
-52.5000;0.3842;0.6842;
-52.2000;0.3744;0.6526;
-51.9000;0.3801;0.6550;
-51.6000;0.3761;0.6477;
-51.3000;0.3810;0.6575;
-51.0000;0.3801;0.6550;
-50.7000;0.3883;0.6623;
-50.4000;0.3777;0.6331;
-50.1000;0.3801;0.6404;
-49.8000;0.3744;0.6282;
-49.5000;0.3793;0.6380;
-49.2000;0.3785;0.6355;
-48.9000;0.3785;0.6331;
-48.6000;0.3810;0.6404;
-48.3000;0.3785;0.6477;
-48.0000;0.3785;0.6550;
-47.7000;0.3785;0.6526;
-47.4000;0.3834;0.6867;
-47.1000;0.3785;0.6745;
-46.8000;0.3785;0.6672;
-46.5000;0.3867;0.6818;
-46.2000;0.3801;0.6599;
-45.9000;0.3793;0.6550;
-45.6000;0.3793;0.6477;
-45.3000;0.3793;0.6501;
-45.0000;0.3801;0.6477;
-44.7000;0.3818;0.6599;
-44.4000;0.3785;0.6526;
-44.1000;0.3793;0.6526;
-43.8000;0.3801;0.6477;
-43.5000;0.3810;0.6477;
-43.2000;0.3793;0.6501;
-42.9000;0.3793;0.6404;
-42.6000;0.3818;0.6404;
-42.3000;0.3818;0.6404;
-42.0000;0.3785;0.6355;
-41.7000;0.3850;0.6453;
-41.4000;0.3793;0.6355;
-41.1000;0.3818;0.6477;
-40.8000;0.3793;0.6453;
-40.5000;0.3793;0.6501;
-40.2000;0.3793;0.6501;
-39.9000;0.3777;0.6550;
-39.6000;0.3810;0.6623;
-39.3000;0.3777;0.6672;
-39.0000;0.3785;0.6721;
-38.7000;0.3801;0.6818;
-38.4000;0.3793;0.6769;
-38.1000;0.3810;0.6867;
-37.8000;0.3793;0.6964;
-37.5000;0.3785;0.6940;
-37.2000;0.3810;0.6891;
-36.9000;0.3793;0.6794;
-36.6000;0.3785;0.6672;
-36.3000;0.3818;0.6818;
-36.0000;0.3785;0.6721;
-35.7000;0.3801;0.6696;
-35.4000;0.3785;0.6648;
-35.1000;0.3793;0.6623;
-34.8000;0.3801;0.6623;
-34.5000;0.3834;0.6818;
-34.2000;0.3777;0.6672;
-33.9000;0.3793;0.6672;
-33.6000;0.3801;0.6696;
-33.3000;0.3801;0.6648;
-33.0000;0.3785;0.6672;
-32.7000;0.3761;0.6672;
-32.4000;0.3818;0.6769;
-32.1000;0.3785;0.6721;
-31.8000;0.3801;0.6648;
-31.5000;0.3785;0.6672;
-31.2000;0.3793;0.6696;
-30.9000;0.3810;0.6818;
-30.6000;0.3785;0.6940;
-30.3000;0.3785;0.6940;
-30.0000;0.3769;0.6818;
-29.7000;0.3777;0.6818;
-29.4000;0.3810;0.6745;
-29.1000;0.3777;0.6696;
-28.8000;0.3761;0.6648;
-28.5000;0.3793;0.6745;
-28.2000;0.3777;0.6672;
-27.9000;0.3769;0.6575;
-27.6000;0.3810;0.6672;
-27.3000;0.3769;0.6575;
-27.0000;0.3818;0.6648;
-26.7000;0.3818;0.6599;
-26.4000;0.3769;0.6526;
-26.1000;0.3785;0.6550;
-25.8000;0.3777;0.6526;
-25.5000;0.3801;0.6575;
-25.2000;0.3777;0.6477;
-24.9000;0.3785;0.6526;
-24.6000;0.3785;0.6477;
-24.3000;0.3793;0.6526;
-24.0000;0.3785;0.6526;
-23.7000;0.3785;0.6477;
-23.4000;0.3834;0.6745;
-23.1000;0.3818;0.6745;
-22.8000;0.3736;0.6477;
-22.5000;0.3826;0.6672;
-22.2000;0.3785;0.6575;
-21.9000;0.3834;0.6648;
-21.6000;0.3801;0.6623;
-21.3000;0.3801;0.6623;
-21.0000;0.3753;0.6526;
-20.7000;0.3753;0.6526;
-20.4000;0.3785;0.6648;
-20.1000;0.3785;0.6623;
-19.8000;0.3769;0.6623;
-19.5000;0.3793;0.6745;
-19.2000;0.3793;0.6721;
-18.9000;0.3769;0.6550;
-18.6000;0.3785;0.6453;
-18.3000;0.3801;0.6477;
-18.0000;0.3858;0.6623;
-17.7000;0.3810;0.6428;
-17.4000;0.3801;0.6477;
-17.1000;0.3793;0.6453;
-16.8000;0.3801;0.6380;
-16.5000;0.3777;0.6428;
-16.2000;0.3785;0.6477;
-15.9000;0.3793;0.6453;
-15.6000;0.3728;0.6331;
-15.3000;0.3793;0.6526;
-15.0000;0.3842;0.6672;
-14.7000;0.3834;0.6575;
-14.4000;0.3777;0.6550;
-14.1000;0.3736;0.6453;
-13.8000;0.3801;0.6721;
-13.5000;0.3753;0.6648;
-13.2000;0.3801;0.6842;
-12.9000;0.3810;0.6818;
-12.6000;0.3769;0.6721;
-12.3000;0.3720;0.6550;
-12.0000;0.3801;0.6721;
-11.7000;0.3801;0.6721;
-11.4000;0.3793;0.6721;
-11.1000;0.3769;0.6599;
-10.8000;0.3801;0.6623;
-10.5000;0.3793;0.6599;
-10.2000;0.3793;0.6575;
-9.9000;0.3818;0.6575;
-9.6000;0.3785;0.6575;
-9.3000;0.3777;0.6575;
-9.0000;0.3793;0.6599;
-8.7000;0.3801;0.6575;
-8.4000;0.3761;0.6501;
-8.1000;0.3818;0.6599;
-7.8000;0.3867;0.6794;
-7.5000;0.3785;0.6526;
-7.2000;0.3801;0.6745;
-6.9000;0.3801;0.6696;
-6.6000;0.3801;0.6721;
-6.3000;0.3785;0.6672;
-6.0000;0.3793;0.6599;
-5.7000;0.3777;0.6623;
-5.4000;0.3810;0.6721;
-5.1000;0.3761;0.6672;
-4.8000;0.3696;0.6501;
-4.5000;0.3777;0.6672;
-4.2000;0.3801;0.6696;
-3.9000;0.3785;0.6648;
-3.6000;0.3810;0.6575;
-3.3000;0.3801;0.6623;
-3.0000;0.3793;0.6575;
-2.7000;0.3826;0.6575;
-2.4000;0.3801;0.6501;
-2.1000;0.3801;0.6380;
-1.8000;0.3801;0.6380;
-1.5000;0.3761;0.6331;
-1.2000;0.3712;0.6258;
-0.9000;0.3777;0.6355;
-0.6000;0.3785;0.6380;
-0.3000;0.3761;0.6355;
0.0000;0.3761;0.6355;
0.3000;0.3883;0.6355;
0.6000;0.4046;0.6769;
0.9000;0.4160;0.7062;
1.2000;0.4257;0.7451;
1.5000;0.4330;0.7670;
1.8000;0.4396;0.7962;
2.1000;0.4396;0.8084;
2.4000;0.4469;0.8474;
2.7000;0.4493;0.8620;
3.0000;0.4534;0.8839;
3.3000;0.4550;0.8912;
3.6000;0.4591;0.9034;
3.9000;0.4615;0.9107;
4.2000;0.4607;0.8985;
4.5000;0.4624;0.9010;
4.8000;0.4624;0.9083;
5.1000;0.4599;0.9010;
5.4000;0.4615;0.8961;
5.7000;0.4656;0.9058;
6.0000;0.4656;0.9131;
6.3000;0.4681;0.9156;
6.6000;0.4656;0.9107;
6.9000;0.4713;0.9253;
7.2000;0.4705;0.9229;
7.5000;0.4656;0.9107;
7.8000;0.4729;0.9253;
8.1000;0.4754;0.9253;
8.4000;0.4672;0.8985;
8.7000;0.4754;0.9277;
9.0000;0.4656;0.9058;
9.3000;0.4746;0.9277;
9.6000;0.4827;0.9545;
9.9000;0.4778;0.9472;
10.2000;0.4778;0.9448;
10.5000;0.4786;0.9423;
10.8000;0.4746;0.9277;
11.1000;0.4794;0.9350;
11.4000;0.4811;0.9448;
11.7000;0.4786;0.9350;
12.0000;0.4827;0.9375;
12.3000;0.4835;0.9448;
12.6000;0.4851;0.9545;
12.9000;0.4843;0.9497;
13.2000;0.4843;0.9423;
13.5000;0.4851;0.9277;
13.8000;0.4843;0.9204;
14.1000;0.4868;0.9277;
14.4000;0.4860;0.9253;
14.7000;0.4860;0.9180;
15.0000;0.4868;0.9156;
15.3000;0.4860;0.9253;
15.6000;0.4892;0.9399;
15.9000;0.4860;0.9399;
16.2000;0.4811;0.9204;
16.5000;0.4892;0.9350;
16.8000;0.4892;0.9229;
17.1000;0.4900;0.9253;
17.4000;0.4908;0.9253;
17.7000;0.4957;0.9350;
18.0000;0.4917;0.9229;
18.3000;0.4933;0.9277;
18.6000;0.4868;0.9107;
18.9000;0.4949;0.9326;
19.2000;0.4933;0.9326;
19.5000;0.4949;0.9253;
19.8000;0.4941;0.9277;
20.1000;0.4957;0.9448;
20.4000;0.4941;0.9350;
20.7000;0.4941;0.9253;
21.0000;0.4933;0.9180;
21.3000;0.4965;0.9204;
21.6000;0.4876;0.8961;
21.9000;0.4957;0.9180;
22.2000;0.4949;0.9131;
22.5000;0.4974;0.9204;
22.8000;0.4974;0.9180;
23.1000;0.4998;0.9229;
23.4000;0.4974;0.9180;
23.7000;0.4965;0.9107;
24.0000;0.4974;0.9131;
24.3000;0.4982;0.9253;
24.6000;0.5006;0.9350;
24.9000;0.4974;0.9326;
25.2000;0.4998;0.9375;
25.5000;0.4990;0.9375;
25.8000;0.4998;0.9423;
26.1000;0.4974;0.9350;
26.4000;0.4990;0.9375;
26.7000;0.5006;0.9448;
27.0000;0.4917;0.9277;
27.3000;0.5071;0.9521;
27.6000;0.4982;0.9277;
27.9000;0.5014;0.9350;
28.2000;0.5014;0.9375;
28.5000;0.5031;0.9326;
28.8000;0.5014;0.9326;
29.1000;0.5031;0.9423;
29.4000;0.5039;0.9448;
29.7000;0.5031;0.9375;
30.0000;0.5006;0.9229;
30.3000;0.5014;0.9423;
30.6000;0.5006;0.9423;
30.9000;0.5022;0.9423;
31.2000;0.5022;0.9399;
31.5000;0.5022;0.9399;
31.8000;0.5031;0.9423;
32.1000;0.5031;0.9399;
32.4000;0.5136;0.9716;
32.7000;0.5031;0.9399;
33.0000;0.5096;0.9521;
33.3000;0.5047;0.9423;
33.6000;0.5055;0.9521;
33.9000;0.5031;0.9497;
34.2000;0.5039;0.9423;
34.5000;0.5047;0.9423;
34.8000;0.5039;0.9399;
35.1000;0.5014;0.9375;
35.4000;0.5047;0.9399;
35.7000;0.5088;0.9472;
36.0000;0.5047;0.9350;
36.3000;0.5104;0.9545;
36.6000;0.5055;0.9497;
36.9000;0.5096;0.9716;
37.2000;0.5047;0.9497;
37.5000;0.5063;0.9472;
37.8000;0.5022;0.9350;
38.1000;0.5063;0.9326;
38.4000;0.5063;0.9375;
38.7000;0.5079;0.9423;
39.0000;0.4990;0.9277;
39.3000;0.5063;0.9448;
39.6000;0.5071;0.9594;
39.9000;0.5055;0.9497;
40.2000;0.5063;0.9399;
40.5000;0.5055;0.9350;
40.8000;0.5128;0.9594;
41.1000;0.5063;0.9375;
41.4000;0.5071;0.9423;
41.7000;0.5022;0.9350;
42.0000;0.5096;0.9472;
42.3000;0.5096;0.9350;
42.6000;0.5071;0.9326;
42.9000;0.5047;0.9399;
43.2000;0.5079;0.9497;
43.5000;0.5079;0.9545;
43.8000;0.5177;0.9764;
44.1000;0.5079;0.9423;
44.4000;0.5079;0.9448;
44.7000;0.5063;0.9448;
45.0000;0.5088;0.9570;
45.3000;0.5088;0.9472;
45.6000;0.5120;0.9643;
45.9000;0.5112;0.9545;
46.2000;0.5088;0.9472;
46.5000;0.5063;0.9423;
46.8000;0.5063;0.9399;
47.1000;0.5047;0.9448;
47.4000;0.5088;0.9545;
47.7000;0.5063;0.9448;
48.0000;0.5079;0.9521;
48.3000;0.5096;0.9521;
48.6000;0.5104;0.9521;
48.9000;0.5112;0.9594;
49.2000;0.5071;0.9497;
49.5000;0.5079;0.9472;
49.8000;0.5079;0.9472;
50.1000;0.5071;0.9448;
50.4000;0.5096;0.9570;
50.7000;0.5088;0.9570;
51.0000;0.5071;0.9472;
51.3000;0.5079;0.9545;
51.6000;0.5079;0.9618;
51.9000;0.5096;0.9764;
52.2000;0.5104;0.9667;
52.5000;0.5088;0.9594;
52.8000;0.5096;0.9570;
53.1000;0.5104;0.9570;
53.4000;0.5071;0.9472;
53.7000;0.5079;0.9472;
54.0000;0.5096;0.9472;
54.3000;0.5096;0.9570;
54.6000;0.5120;0.9618;
54.9000;0.5112;0.9594;
55.2000;0.5104;0.9570;
55.5000;0.5096;0.9497;
55.8000;0.5120;0.9594;
56.1000;0.5079;0.9570;
56.4000;0.5096;0.9643;
56.7000;0.5071;0.9545;
57.0000;0.5104;0.9643;
57.3000;0.5120;0.9667;
57.6000;0.5088;0.9497;
57.9000;0.5120;0.9545;
58.2000;0.5104;0.9448;
58.5000;0.5161;0.9497;
58.8000;0.5136;0.9497;
59.1000;0.5112;0.9399;
59.4000;0.5104;0.9375;
59.7000;0.5153;0.9545;
60.0000;0.5144;0.9521;
60.3000;0.5120;0.9399;
60.6000;0.5104;0.9423;
60.9000;0.5120;0.9472;
61.2000;0.5120;0.9423;
61.5000;0.5128;0.9497;
61.8000;0.5088;0.9326;
62.1000;0.5128;0.9423;
62.4000;0.5136;0.9399;
62.7000;0.5112;0.9326;
63.0000;0.5112;0.9326;
63.3000;0.5120;0.9326;
63.6000;0.5128;0.9350;
63.9000;0.5096;0.9350;
64.2000;0.5120;0.9472;
64.5000;0.5120;0.9399;
64.8000;0.5128;0.9399;
65.1000;0.5112;0.9399;
65.4000;0.5104;0.9326;
65.7000;0.5112;0.9350;
66.0000;0.5079;0.9302;
66.3000;0.5112;0.9350;
66.6000;0.5079;0.9180;
66.9000;0.5177;0.9423;
67.2000;0.5063;0.9302;
67.5000;0.5120;0.9448;
67.8000;0.5071;0.9326;
68.1000;0.5096;0.9375;
68.4000;0.5112;0.9375;
68.7000;0.5104;0.9399;
69.0000;0.5096;0.9375;
69.3000;0.5104;0.9472;
69.6000;0.5112;0.9423;
69.9000;0.5079;0.9229;
70.2000;0.5120;0.9277;
70.5000;0.5104;0.9277;
70.8000;0.5096;0.9180;
71.1000;0.5104;0.9204;
71.4000;0.5128;0.9253;
71.7000;0.5104;0.9253;
72.0000;0.5112;0.9302;
72.3000;0.5104;0.9277;
72.6000;0.5136;0.9253;
72.9000;0.5079;0.9156;
73.2000;0.5104;0.9131;
73.5000;0.5104;0.9156;
73.8000;0.5128;0.9302;
74.1000;0.5193;0.9497;
74.4000;0.5128;0.9326;
74.7000;0.5136;0.9423;
75.0000;0.5128;0.9399;
75.3000;0.5112;0.9375;
75.6000;0.5112;0.9302;
75.9000;0.5136;0.9326;
76.2000;0.5112;0.9350;
76.5000;0.5128;0.9399;
76.8000;0.5104;0.9277;
77.1000;0.5063;0.9083;
77.4000;0.5112;0.9156;
77.7000;0.5136;0.9229;
78.0000;0.5128;0.9277;
78.3000;0.5104;0.9229;
78.6000;0.5120;0.9277;
78.9000;0.5112;0.9253;
79.2000;0.5104;0.9180;
79.5000;0.5079;0.9156;
79.8000;0.5088;0.9156;
80.1000;0.5112;0.9204;
80.4000;0.5104;0.9229;
80.7000;0.5112;0.9204;
81.0000;0.5226;0.9448;
81.3000;0.5128;0.9253;
81.6000;0.5250;0.9594;
81.9000;0.5112;0.9229;
82.2000;0.5120;0.9302;
82.5000;0.5120;0.9375;
82.8000;0.5112;0.9472;
83.1000;0.5112;0.9497;
83.4000;0.5104;0.9423;
83.7000;0.5022;0.9204;
84.0000;0.5120;0.9497;
84.3000;0.5096;0.9423;
84.6000;0.5120;0.9497;
84.9000;0.5120;0.9472;
85.2000;0.5128;0.9521;
85.5000;0.5136;0.9594;
85.8000;0.5112;0.9448;
86.1000;0.5136;0.9472;
86.4000;0.5128;0.9497;
86.7000;0.5128;0.9399;
87.0000;0.5193;0.9594;
87.3000;0.5120;0.9497;
87.6000;0.5112;0.9399;
87.9000;0.5144;0.9545;
88.2000;0.5136;0.9521;
88.5000;0.5128;0.9497;
88.8000;0.5136;0.9521;
89.1000;0.5120;0.9399;
89.4000;0.5144;0.9399;
89.7000;0.5128;0.9375;
90.0000;0.5120;0.9326;
90.3000;0.5120;0.9399;
90.6000;0.5136;0.9570;
90.9000;0.5128;0.9448;
91.2000;0.5120;0.9472;
91.5000;0.5136;0.9497;
91.8000;0.5047;0.9326;
92.1000;0.5128;0.9667;
92.4000;0.5112;0.9570;
92.7000;0.5128;0.9618;
93.0000;0.5104;0.9594;
93.3000;0.5128;0.9789;
93.6000;0.5104;0.9716;
93.9000;0.5096;0.9764;
94.2000;0.5112;0.9789;
94.5000;0.5120;0.9789;
94.8000;0.5120;0.9740;
95.1000;0.5104;0.9691;
95.4000;0.5153;0.9740;
95.7000;0.5120;0.9594;
96.0000;0.5104;0.9545;
96.3000;0.5104;0.9423;
96.6000;0.5128;0.9497;
96.9000;0.5088;0.9423;
97.2000;0.5120;0.9497;
97.5000;0.5128;0.9545;
97.8000;0.5128;0.9643;
98.1000;0.5128;0.9618;
98.4000;0.5128;0.9570;
98.7000;0.5120;0.9497;
99.0000;0.5144;0.9521;
99.3000;0.5136;0.9594;
99.6000;0.5144;0.9618;
99.9000;0.5144;0.9545;
100.2000;0.5128;0.9545;
100.5000;0.5136;0.9497;
100.8000;0.5112;0.9472;
101.1000;0.5193;0.9594;
101.4000;0.5177;0.9521;
101.7000;0.5112;0.9375;
102.0000;0.5136;0.9497;
102.3000;0.5128;0.9497;
102.6000;0.5104;0.9399;
102.9000;0.5136;0.9472;
103.2000;0.5153;0.9570;
103.5000;0.5112;0.9472;
103.8000;0.5096;0.9350;
104.1000;0.5136;0.9521;
104.4000;0.5079;0.9302;
104.7000;0.5112;0.9350;
105.0000;0.5161;0.9399;
105.3000;0.5120;0.9253;
105.6000;0.5242;0.9545;
105.9000;0.5128;0.9326;
106.2000;0.5128;0.9253;
106.5000;0.5104;0.9180;
106.8000;0.5136;0.9204;
107.1000;0.5088;0.9107;
107.4000;0.5144;0.9229;
107.7000;0.5177;0.9326;
108.0000;0.5112;0.9204;
108.3000;0.5136;0.9277;
108.6000;0.5128;0.9302;
108.9000;0.5104;0.9204;
109.2000;0.5120;0.9302;
109.5000;0.5128;0.9326;
109.8000;0.5128;0.9326;
110.1000;0.5169;0.9375;
110.4000;0.5120;0.9326;
110.7000;0.5128;0.9399;
111.0000;0.5161;0.9399;
111.3000;0.5144;0.9350;
111.6000;0.5161;0.9375;
111.9000;0.5136;0.9375;
112.2000;0.5144;0.9302;
112.5000;0.5144;0.9326;
112.8000;0.5144;0.9399;
113.1000;0.5136;0.9326;
113.4000;0.5153;0.9350;
113.7000;0.5144;0.9277;
114.0000;0.5104;0.9229;
114.3000;0.5201;0.9472;
114.6000;0.5096;0.9204;
114.9000;0.5136;0.9326;
115.2000;0.5169;0.9350;
115.5000;0.5153;0.9423;
115.8000;0.5218;0.9667;
116.1000;0.5112;0.9448;
116.4000;0.5120;0.9545;
116.7000;0.5153;0.9667;
117.0000;0.5112;0.9594;
117.3000;0.5031;0.9375;
117.6000;0.5128;0.9594;
117.9000;0.5136;0.9667;
118.2000;0.5112;0.9545;
118.5000;0.5144;0.9521;
118.8000;0.5128;0.9521;
119.1000;0.5088;0.9375;
119.4000;0.5120;0.9472;
119.7000;0.5104;0.9448;
120.0000;0.5218;0.9667;
120.3000;0.5128;0.9350;
120.6000;0.5144;0.9375;
120.9000;0.5136;0.9375;
121.2000;0.5144;0.9448;
121.5000;0.5112;0.9399;
121.8000;0.5136;0.9472;
122.1000;0.5153;0.9521;
122.4000;0.5169;0.9497;
122.7000;0.5120;0.9375;
123.0000;0.5136;0.9375;
123.3000;0.5144;0.9423;
123.6000;0.5144;0.9423;
123.9000;0.5128;0.9375;
124.2000;0.5120;0.9326;
124.5000;0.5161;0.9497;
124.8000;0.5120;0.9399;
125.1000;0.5063;0.9253;
125.4000;0.5144;0.9521;
125.7000;0.5128;0.9399;
126.0000;0.5120;0.9375;
126.3000;0.5144;0.9472;
126.6000;0.5112;0.9399;
126.9000;0.5144;0.9521;
127.2000;0.5096;0.9448;
127.5000;0.5071;0.9350;
127.8000;0.5128;0.9423;
128.1000;0.5128;0.9448;
128.4000;0.5104;0.9448;
128.7000;0.5136;0.9545;
129.0000;0.5128;0.9448;
129.3000;0.5112;0.9521;
129.6000;0.5120;0.9448;
129.9000;0.5096;0.9423;
130.2000;0.5120;0.9497;
130.5000;0.5120;0.9448;
130.8000;0.5112;0.9302;
131.1000;0.5136;0.9375;
131.4000;0.5112;0.9423;
131.7000;0.5112;0.9375;
132.0000;0.5079;0.9350;
132.3000;0.5128;0.9423;
132.6000;0.5104;0.9399;
132.9000;0.5128;0.9375;
133.2000;0.5128;0.9399;
133.5000;0.5112;0.9326;
133.8000;0.5177;0.9472;
134.1000;0.5120;0.9350;
134.4000;0.5112;0.9350;
134.7000;0.5088;0.9204;
135.0000;0.5144;0.9326;
135.3000;0.5128;0.9277;
135.6000;0.5169;0.9302;
135.9000;0.5144;0.9302;
136.2000;0.5136;0.9350;
136.5000;0.5144;0.9423;
136.8000;0.5136;0.9350;
137.1000;0.5136;0.9302;
137.4000;0.5144;0.9253;
137.7000;0.5112;0.9180;
138.0000;0.5153;0.9229;
138.3000;0.5128;0.9131;
138.6000;0.5055;0.8961;
138.9000;0.5120;0.9107;
139.2000;0.5096;0.9034;
139.5000;0.5185;0.9253;
139.8000;0.5136;0.9229;
140.1000;0.5112;0.9180;
140.4000;0.5136;0.9180;
140.7000;0.5104;0.9156;
141.0000;0.5120;0.9204;
141.3000;0.5136;0.9253;
141.6000;0.5136;0.9229;
141.9000;0.5120;0.9156;
142.2000;0.5120;0.9107;
142.5000;0.5120;0.9131;
142.8000;0.5112;0.9156;
143.1000;0.5039;0.8888;
143.4000;0.5112;0.9107;
143.7000;0.5112;0.9156;
144.0000;0.5112;0.9180;
144.3000;0.5128;0.9180;
144.6000;0.5104;0.9083;
144.9000;0.5136;0.9204;
145.2000;0.5136;0.9180;
145.5000;0.5104;0.9131;
145.8000;0.5120;0.9156;
146.1000;0.5031;0.8985;
146.4000;0.5144;0.9350;
146.7000;0.5136;0.9229;
147.0000;0.5136;0.9083;
147.3000;0.5120;0.9034;
147.6000;0.5136;0.9107;
147.9000;0.5112;0.9107;
148.2000;0.5120;0.9204;
148.5000;0.5128;0.9326;
148.8000;0.5144;0.9277;
149.1000;0.5128;0.9204;
149.4000;0.5128;0.9131;
149.7000;0.5128;0.9034;
150.0000;0.5153;0.9058;
150.3000;0.5128;0.9107;
150.6000;0.5153;0.9180;
150.9000;0.5136;0.9131;
151.2000;0.5128;0.9131;
151.5000;0.5136;0.9156;
151.8000;0.5144;0.9253;
152.1000;0.5153;0.9277;
152.4000;0.5144;0.9229;
152.7000;0.5144;0.9204;
153.0000;0.5153;0.9156;
153.3000;0.5128;0.9107;
153.6000;0.5136;0.9180;
153.9000;0.5144;0.9253;
154.2000;0.5128;0.9180;
154.5000;0.5153;0.9229;
154.8000;0.5144;0.9253;
155.1000;0.5104;0.9229;
155.4000;0.5104;0.9253;
155.7000;0.5120;0.9277;
156.0000;0.5128;0.9229;
156.3000;0.5128;0.9277;
156.6000;0.5039;0.9131;
156.9000;0.5144;0.9423;
157.2000;0.5120;0.9302;
157.5000;0.5120;0.9180;
157.8000;0.5104;0.9180;
158.1000;0.5112;0.9229;
158.4000;0.5120;0.9204;
158.7000;0.5096;0.9204;
159.0000;0.5120;0.9156;
159.3000;0.5120;0.9131;
159.6000;0.5120;0.9107;
159.9000;0.5120;0.9058;
160.2000;0.5144;0.9058;
160.5000;0.5120;0.9058;
160.8000;0.5128;0.9083;
161.1000;0.5120;0.9083;
161.4000;0.5128;0.9107;
161.7000;0.5112;0.9034;
162.0000;0.5096;0.9034;
162.3000;0.5088;0.8961;
162.6000;0.5144;0.9107;
162.9000;0.5193;0.9375;
163.2000;0.5128;0.9253;
163.5000;0.5128;0.9229;
163.8000;0.5153;0.9204;
164.1000;0.5104;0.9229;
164.4000;0.5112;0.9229;
164.7000;0.5096;0.9180;
165.0000;0.5104;0.9180;
165.3000;0.5144;0.9302;
165.6000;0.5120;0.9277;
165.9000;0.5128;0.9277;
166.2000;0.5193;0.9448;
166.5000;0.5128;0.9253;
166.8000;0.5112;0.9156;
167.1000;0.5120;0.9180;
167.4000;0.5128;0.9277;
167.7000;0.5128;0.9375;
168.0000;0.5144;0.9399;
168.3000;0.5128;0.9399;
168.6000;0.5120;0.9302;
168.9000;0.5079;0.9302;
169.2000;0.5112;0.9326;
169.5000;0.5128;0.9375;
169.8000;0.5144;0.9350;
170.1000;0.5120;0.9375;
170.4000;0.5112;0.9302;
170.7000;0.5128;0.9277;
171.0000;0.5120;0.9204;
171.3000;0.5128;0.9180;
171.6000;0.5128;0.9204;
171.9000;0.5112;0.9204;
172.2000;0.5128;0.9326;
172.5000;0.5128;0.9302;
172.8000;0.5120;0.9204;
173.1000;0.5088;0.9180;
173.4000;0.5071;0.9180;
173.7000;0.5120;0.9302;
174.0000;0.5128;0.9350;
174.3000;0.5120;0.9350;
174.6000;0.5128;0.9253;
174.9000;0.5193;0.9277;
175.2000;0.5128;0.9107;
175.5000;0.5136;0.9107;
175.8000;0.5144;0.9204;
176.1000;0.5096;0.9180;
176.4000;0.5128;0.9229;
176.7000;0.5079;0.8985;
177.0000;0.5112;0.9058;
177.3000;0.5136;0.9010;
177.6000;0.5104;0.8888;
177.9000;0.5120;0.8888;
178.2000;0.5144;0.8961;
178.5000;0.5136;0.8912;
178.8000;0.5144;0.8912;
179.1000;0.5144;0.8766;
179.4000;0.5120;0.8644;
179.7000;0.5128;0.8693;
180.0000;0.5161;0.8815;
180.3000;0.5112;0.8693;
180.6000;0.5120;0.8669;
180.9000;0.5136;0.8717;
181.2000;0.5112;0.8742;
181.5000;0.5136;0.8693;
181.8000;0.5096;0.8669;
182.1000;0.5120;0.8717;
182.4000;0.5144;0.8815;
182.7000;0.5120;0.8766;
183.0000;0.5128;0.8742;
183.3000;0.5144;0.8693;
183.6000;0.5153;0.8644;
183.9000;0.5128;0.8669;
184.2000;0.5120;0.8742;
184.5000;0.5104;0.8742;
184.8000;0.5128;0.8766;
185.1000;0.5120;0.8766;
185.4000;0.5128;0.8863;
185.7000;0.5128;0.8936;
186.0000;0.5177;0.9083;
186.3000;0.5144;0.8912;
186.6000;0.5120;0.8888;
186.9000;0.5144;0.8936;
187.2000;0.5144;0.8961;
187.5000;0.5120;0.9058;
187.8000;0.5104;0.9034;
188.1000;0.5120;0.9058;
188.4000;0.5096;0.9010;
188.7000;0.5120;0.9107;
189.0000;0.5120;0.9156;
189.3000;0.5136;0.9107;
189.6000;0.5128;0.9107;
189.9000;0.5169;0.9204;
190.2000;0.5136;0.9204;
190.5000;0.5136;0.9131;
190.8000;0.5136;0.9083;
191.1000;0.5161;0.9156;
191.4000;0.5136;0.9180;
191.7000;0.5144;0.9204;
192.0000;0.5120;0.9107;
192.3000;0.5128;0.9107;
192.6000;0.5144;0.9010;
192.9000;0.5136;0.8961;
193.2000;0.5128;0.9034;
193.5000;0.5136;0.9107;
193.8000;0.5136;0.9034;
194.1000;0.5128;0.9010;
194.4000;0.5128;0.9034;
194.7000;0.5120;0.9058;
195.0000;0.5153;0.9131;
195.3000;0.5120;0.9131;
195.6000;0.5144;0.9204;
195.9000;0.5120;0.9083;
196.2000;0.5112;0.9034;
196.5000;0.5120;0.9058;
196.8000;0.5120;0.9107;
197.1000;0.5120;0.9058;
197.4000;0.5136;0.9156;
197.7000;0.5112;0.9180;
198.0000;0.5128;0.9229;
198.3000;0.5128;0.9204;
198.6000;0.5079;0.9034;
198.9000;0.5128;0.9277;
199.2000;0.5128;0.9277;
199.5000;0.5120;0.9229;
199.8000;0.5120;0.9204;
200.1000;0.5128;0.9156;
200.4000;0.5136;0.9156;
200.7000;0.5128;0.9131;
201.0000;0.5128;0.9131;
201.3000;0.5112;0.9083;
201.6000;0.5088;0.9083;
201.9000;0.5128;0.9180;
202.2000;0.5112;0.9180;
202.5000;0.5120;0.9229;
202.8000;0.5104;0.9229;
203.1000;0.5210;0.9497;
203.4000;0.5128;0.9253;
203.7000;0.5120;0.9229;
204.0000;0.5120;0.9107;
204.3000;0.5144;0.9204;
204.6000;0.5120;0.9156;
204.9000;0.5112;0.9204;
205.2000;0.5120;0.9204;
205.5000;0.5128;0.9180;
205.8000;0.5104;0.9131;
206.1000;0.5071;0.8961;
206.4000;0.5128;0.9107;
206.7000;0.5128;0.9107;
207.0000;0.5128;0.9058;
207.3000;0.5112;0.8936;
207.6000;0.5144;0.9010;
207.9000;0.5136;0.9058;
208.2000;0.5120;0.9083;
208.5000;0.5112;0.9010;
208.8000;0.5144;0.9229;
209.1000;0.5120;0.9156;
209.4000;0.5136;0.9180;
209.7000;0.5112;0.9180;
210.0000;0.5234;0.9423;
210.3000;0.5128;0.9229;
210.6000;0.5136;0.9326;
210.9000;0.5112;0.9277;
211.2000;0.5079;0.9107;
211.5000;0.5120;0.9180;
211.8000;0.5120;0.9204;
212.1000;0.5144;0.9375;
212.4000;0.5128;0.9350;
212.7000;0.5096;0.9253;
213.0000;0.5144;0.9253;
213.3000;0.5120;0.9156;
213.6000;0.5120;0.9107;
213.9000;0.5177;0.9253;
214.2000;0.5136;0.9229;
214.5000;0.5128;0.9156;
214.8000;0.5128;0.9180;
215.1000;0.5136;0.9204;
215.4000;0.5136;0.9204;
215.7000;0.5128;0.9156;
216.0000;0.5104;0.9180;
216.3000;0.5128;0.9253;
216.6000;0.5128;0.9229;
216.9000;0.5136;0.9204;
217.2000;0.5120;0.9277;
217.5000;0.5136;0.9326;
217.8000;0.5161;0.9375;
218.1000;0.5136;0.9277;
218.4000;0.5120;0.9253;
218.7000;0.5120;0.9277;
219.0000;0.5071;0.9229;
219.3000;0.5136;0.9326;
219.6000;0.5153;0.9375;
219.9000;0.5136;0.9302;
220.2000;0.5112;0.9375;
220.5000;0.5128;0.9375;
220.8000;0.5136;0.9399;
221.1000;0.5177;0.9497;
221.4000;0.5104;0.9326;
221.7000;0.5112;0.9423;
222.0000;0.5104;0.9302;
222.3000;0.5112;0.9399;
222.6000;0.5104;0.9399;
222.9000;0.5063;0.9326;
223.2000;0.5128;0.9399;
223.5000;0.5104;0.9375;
223.8000;0.5104;0.9423;
224.1000;0.5120;0.9423;
224.4000;0.5120;0.9448;
224.7000;0.5153;0.9472;
225.0000;0.5136;0.9399;
225.3000;0.5112;0.9423;
225.6000;0.5136;0.9399;
225.9000;0.5120;0.9350;
226.2000;0.5128;0.9277;
226.5000;0.5112;0.9277;
226.8000;0.5169;0.9423;
227.1000;0.5128;0.9302;
227.4000;0.5128;0.9302;
227.7000;0.5128;0.9326;
228.0000;0.5153;0.9350;
228.3000;0.5153;0.9375;
228.6000;0.5136;0.9326;
228.9000;0.5120;0.9423;
229.2000;0.5144;0.9472;
229.5000;0.5144;0.9448;
229.8000;0.5120;0.9399;
230.1000;0.5153;0.9497;
230.4000;0.5128;0.9448;
230.7000;0.5226;0.9691;
231.0000;0.5153;0.9618;
231.3000;0.5120;0.9594;
231.6000;0.5161;0.9667;
231.9000;0.5136;0.9570;
232.2000;0.5136;0.9545;
232.5000;0.5104;0.9545;
232.8000;0.5112;0.9643;
233.1000;0.5104;0.9570;
233.4000;0.5120;0.9545;
233.7000;0.5096;0.9423;
234.0000;0.5169;0.9545;
234.3000;0.5112;0.9350;
234.6000;0.5112;0.9253;
234.9000;0.5120;0.9253;
235.2000;0.5161;0.9375;
235.5000;0.5104;0.9350;
235.8000;0.5088;0.9448;
236.1000;0.5088;0.9375;
236.4000;0.5104;0.9253;
236.7000;0.5104;0.9204;
237.0000;0.5120;0.9180;
237.3000;0.5096;0.9156;
237.6000;0.5112;0.9302;
237.9000;0.5112;0.9350;
238.2000;0.5088;0.9326;
238.5000;0.5128;0.9423;
238.8000;0.5120;0.9350;
239.1000;0.5079;0.9350;
239.4000;0.5128;0.9448;
239.7000;0.5136;0.9448;
240.0000;0.5120;0.9448;
240.3000;0.5120;0.9423;
240.6000;0.5120;0.9448;
240.9000;0.5153;0.9521;
241.2000;0.5120;0.9423;
241.5000;0.5128;0.9448;
241.8000;0.5088;0.9375;
242.1000;0.5128;0.9497;
242.4000;0.5128;0.9472;
242.7000;0.5120;0.9399;
243.0000;0.5136;0.9399;
243.3000;0.5112;0.9399;
243.6000;0.5112;0.9448;
243.9000;0.5136;0.9497;
244.2000;0.5112;0.9423;
244.5000;0.5112;0.9350;
244.8000;0.5136;0.9472;
245.1000;0.5136;0.9423;
245.4000;0.5120;0.9399;
245.7000;0.5104;0.9302;
246.0000;0.5120;0.9326;
246.3000;0.5120;0.9423;
246.6000;0.5104;0.9277;
246.9000;0.5096;0.9326;
247.2000;0.5112;0.9326;
247.5000;0.5112;0.9350;
247.8000;0.5128;0.9399;
248.1000;0.5120;0.9399;
248.4000;0.5120;0.9326;
248.7000;0.5169;0.9326;
249.0000;0.5169;0.9448;
249.3000;0.5104;0.9350;
249.6000;0.5096;0.9375;
249.9000;0.5128;0.9545;
250.2000;0.5104;0.9521;
250.5000;0.5128;0.9594;
250.8000;0.5136;0.9618;
251.1000;0.5120;0.9570;
251.4000;0.5128;0.9570;
251.7000;0.5104;0.9497;
252.0000;0.5104;0.9521;
252.3000;0.5112;0.9497;
252.6000;0.5161;0.9594;
252.9000;0.5136;0.9448;
253.2000;0.5120;0.9350;
253.5000;0.5104;0.9399;
253.8000;0.5169;0.9618;
254.1000;0.5120;0.9570;
254.4000;0.5071;0.9423;
254.7000;0.5096;0.9472;
255.0000;0.5177;0.9643;
255.3000;0.5120;0.9618;
255.6000;0.5096;0.9545;
255.9000;0.5112;0.9521;
256.2000;0.5112;0.9594;
256.5000;0.5144;0.9691;
256.8000;0.5153;0.9667;
257.1000;0.5120;0.9594;
257.4000;0.5136;0.9643;
257.7000;0.5096;0.9448;
258.0000;0.5112;0.9521;
258.3000;0.5112;0.9448;
258.6000;0.5104;0.9399;
258.9000;0.5120;0.9399;
259.2000;0.5128;0.9423;
259.5000;0.5120;0.9375;
259.8000;0.5112;0.9472;
260.1000;0.5120;0.9497;
260.4000;0.5022;0.9180;
260.7000;0.5120;0.9375;
261.0000;0.5096;0.9350;
261.3000;0.5120;0.9375;
261.6000;0.5120;0.9423;
261.9000;0.5120;0.9423;
262.2000;0.5104;0.9399;
262.5000;0.5120;0.9448;
262.8000;0.5120;0.9570;
263.1000;0.5128;0.9545;
263.4000;0.5112;0.9521;
263.7000;0.5120;0.9570;
264.0000;0.5185;0.9740;
264.3000;0.5128;0.9643;
264.6000;0.5071;0.9521;
264.9000;0.5201;0.9910;
265.2000;0.5128;0.9716;
265.5000;0.5120;0.9643;
265.8000;0.5120;0.9618;
266.1000;0.5112;0.9618;
266.4000;0.5153;0.9764;
266.7000;0.5128;0.9643;
267.0000;0.5120;0.9545;
267.3000;0.5144;0.9448;
267.6000;0.5112;0.9423;
267.9000;0.5120;0.9448;
268.2000;0.5120;0.9423;
268.5000;0.5128;0.9423;
268.8000;0.5128;0.9472;
269.1000;0.5120;0.9423;
269.4000;0.5120;0.9204;
269.7000;0.5218;0.9448;
270.0000;0.5112;0.9229;
270.3000;0.5112;0.9399;
270.6000;0.5128;0.9472;
270.9000;0.5136;0.9472;
271.2000;0.5112;0.9399;
271.5000;0.5120;0.9326;
271.8000;0.5071;0.9326;
272.1000;0.5104;0.9399;
272.4000;0.5112;0.9399;
272.7000;0.5226;0.9740;
273.0000;0.5120;0.9472;
273.3000;0.5120;0.9497;
273.6000;0.5128;0.9497;
273.9000;0.5120;0.9545;
274.2000;0.5144;0.9594;
274.5000;0.5153;0.9545;
274.8000;0.5128;0.9423;
275.1000;0.5104;0.9399;
275.4000;0.5128;0.9399;
275.7000;0.5144;0.9375;
276.0000;0.5112;0.9350;
276.3000;0.5144;0.9399;
276.6000;0.5120;0.9326;
276.9000;0.5144;0.9350;
277.2000;0.5144;0.9326;
277.5000;0.5136;0.9423;
277.8000;0.5153;0.9497;
278.1000;0.5136;0.9399;
278.4000;0.5144;0.9448;
278.7000;0.5112;0.9448;
279.0000;0.5153;0.9497;
279.3000;0.5136;0.9472;
279.6000;0.5120;0.9472;
279.9000;0.5112;0.9448;
280.2000;0.5120;0.9545;
280.5000;0.5128;0.9594;
280.8000;0.5128;0.9594;
281.1000;0.5112;0.9545;
281.4000;0.5112;0.9570;
281.7000;0.5112;0.9594;
282.0000;0.5120;0.9521;
282.3000;0.5104;0.9497;
282.6000;0.5120;0.9497;
282.9000;0.5096;0.9497;
283.2000;0.5128;0.9545;
283.5000;0.5128;0.9497;
283.8000;0.5128;0.9448;
284.1000;0.5088;0.9326;
284.4000;0.5201;0.9472;
284.7000;0.5128;0.9326;
285.0000;0.5120;0.9350;
285.3000;0.5128;0.9326;
285.6000;0.5136;0.9375;
285.9000;0.5128;0.9302;
286.2000;0.5128;0.9277;
286.5000;0.5112;0.9229;
286.8000;0.5120;0.9302;
287.1000;0.5136;0.9277;
287.4000;0.5088;0.9204;
287.7000;0.5120;0.9350;
288.0000;0.5128;0.9326;
288.3000;0.5128;0.9326;
288.6000;0.5120;0.9229;
288.9000;0.5104;0.9277;
289.2000;0.5128;0.9350;
289.5000;0.5153;0.9570;
289.8000;0.5128;0.9497;
290.1000;0.5112;0.9423;
290.4000;0.5096;0.9326;
290.7000;0.5120;0.9448;
291.0000;0.5112;0.9350;
291.3000;0.5120;0.9253;
291.6000;0.5144;0.9375;
291.9000;0.5112;0.9229;
292.2000;0.5112;0.9253;
292.5000;0.5120;0.9302;
292.8000;0.5096;0.9277;
293.1000;0.5193;0.9570;
293.4000;0.5104;0.9302;
293.7000;0.5112;0.9253;
294.0000;0.5136;0.9302;
294.3000;0.5104;0.9277;
294.6000;0.5088;0.9253;
294.9000;0.5128;0.9204;
295.2000;0.5120;0.9156;
295.5000;0.5128;0.9229;
295.8000;0.5128;0.9302;
296.1000;0.5112;0.9229;
296.4000;0.5120;0.9350;
296.7000;0.5079;0.9229;
297.0000;0.5120;0.9253;
297.3000;0.5104;0.9204;
297.6000;0.5120;0.9204;
297.9000;0.5112;0.9156;
298.2000;0.5104;0.9131;
298.5000;0.5128;0.9180;
298.8000;0.5128;0.9180;
299.1000;0.5112;0.9180;
299.4000;0.5144;0.9302;
299.7000;0.5128;0.9375;
300.0000;0.5096;0.9277;
300.3000;0.5120;0.9375;
300.6000;0.5112;0.9350;
300.9000;0.5112;0.9375;
301.2000;0.5112;0.9375;
301.5000;0.5136;0.9448;
301.8000;0.5112;0.9448;
302.1000;0.5112;0.9350;
302.4000;0.5128;0.9399;
302.7000;0.5096;0.9375;
303.0000;0.5112;0.9350;
303.3000;0.5128;0.9302;
303.6000;0.5128;0.9277;
303.9000;0.5136;0.9204;
304.2000;0.5112;0.9229;
304.5000;0.5161;0.9375;
304.8000;0.5120;0.9277;
305.1000;0.5128;0.9375;
305.4000;0.5136;0.9375;
305.7000;0.5112;0.9375;
306.0000;0.5112;0.9375;
306.3000;0.5120;0.9399;
306.6000;0.5104;0.9277;
306.9000;0.5144;0.9302;
307.2000;0.5120;0.9180;
307.5000;0.5136;0.9229;
307.8000;0.5120;0.9204;
308.1000;0.5120;0.9156;
308.4000;0.5120;0.9131;
308.7000;0.5128;0.9131;
309.0000;0.5120;0.9107;
309.3000;0.5128;0.9083;
309.6000;0.5088;0.9107;
309.9000;0.5136;0.9180;
310.2000;0.5120;0.9204;
310.5000;0.5128;0.9180;
310.8000;0.5128;0.9277;
311.1000;0.5226;0.9618;
311.4000;0.5120;0.9423;
311.7000;0.5136;0.9448;
312.0000;0.5234;0.9594;
312.3000;0.5128;0.9277;
312.6000;0.5136;0.9302;
312.9000;0.5128;0.9253;
313.2000;0.5112;0.9180;
313.5000;0.5144;0.9204;
313.8000;0.5120;0.9277;
314.1000;0.5128;0.9326;
314.4000;0.5136;0.9375;
314.7000;0.5177;0.9497;
315.0000;0.5144;0.9448;
315.3000;0.5128;0.9350;
315.6000;0.5177;0.9399;
315.9000;0.5120;0.9302;
316.2000;0.5136;0.9302;
316.5000;0.5112;0.9229;
316.8000;0.5136;0.9229;
317.1000;0.5104;0.9229;
317.4000;0.5128;0.9229;
317.7000;0.5112;0.9302;
318.0000;0.5112;0.9277;
318.3000;0.5136;0.9277;
318.6000;0.5128;0.9277;
318.9000;0.5128;0.9277;
319.2000;0.5120;0.9253;
319.5000;0.5128;0.9229;
319.8000;0.5120;0.9253;
320.1000;0.5136;0.9277;
320.4000;0.5120;0.9277;
320.7000;0.5112;0.9253;
321.0000;0.5128;0.9253;
321.3000;0.5144;0.9277;
321.6000;0.5144;0.9204;
321.9000;0.5136;0.9180;
322.2000;0.5120;0.9156;
322.5000;0.5120;0.9302;
322.8000;0.5136;0.9302;
323.1000;0.5104;0.9156;
323.4000;0.5136;0.9204;
323.7000;0.5128;0.9180;
324.0000;0.5258;0.9570;
324.3000;0.5120;0.9277;
324.6000;0.5120;0.9229;
324.9000;0.5120;0.9229;
325.2000;0.5128;0.9277;
325.5000;0.5153;0.9326;
325.8000;0.5128;0.9350;
326.1000;0.5112;0.9350;
326.4000;0.5128;0.9375;
326.7000;0.5136;0.9399;
327.0000;0.5112;0.9277;
327.3000;0.5112;0.9253;
327.6000;0.5112;0.9326;
327.9000;0.5136;0.9375;
328.2000;0.5120;0.9350;
328.5000;0.5128;0.9326;
328.8000;0.5169;0.9472;
329.1000;0.5079;0.9253;
329.4000;0.5169;0.9594;
329.7000;0.5136;0.9545;
330.0000;0.5088;0.9570;
330.3000;0.5136;0.9618;
330.6000;0.5128;0.9594;
330.9000;0.5104;0.9545;
331.2000;0.5128;0.9497;
331.5000;0.5144;0.9570;
331.8000;0.5128;0.9497;
332.1000;0.5136;0.9472;
332.4000;0.5128;0.9472;
332.7000;0.5104;0.9448;
333.0000;0.5096;0.9448;
333.3000;0.5128;0.9399;
333.6000;0.5120;0.9350;
333.9000;0.5120;0.9399;
334.2000;0.5104;0.9472;
334.5000;0.5088;0.9448;
334.8000;0.5112;0.9448;
335.1000;0.5096;0.9326;
335.4000;0.5128;0.9423;
335.7000;0.5128;0.9497;
336.0000;0.5144;0.9497;
336.3000;0.5112;0.9497;
336.6000;0.5079;0.9497;
336.9000;0.5128;0.9618;
337.2000;0.5112;0.9618;
337.5000;0.5120;0.9594;
337.8000;0.5104;0.9594;
338.1000;0.5136;0.9618;
338.4000;0.5104;0.9521;
338.7000;0.5096;0.9399;
339.0000;0.5112;0.9521;
339.3000;0.5104;0.9570;
339.6000;0.5104;0.9594;
339.9000;0.5063;0.9521;
340.2000;0.5112;0.9594;
340.5000;0.5120;0.9618;
340.8000;0.5104;0.9497;
341.1000;0.5161;0.9618;
341.4000;0.5112;0.9423;
341.7000;0.5120;0.9326;
342.0000;0.5096;0.9253;
342.3000;0.5112;0.9302;
342.6000;0.5120;0.9253;
342.9000;0.5112;0.9204;
343.2000;0.5128;0.9229;
343.5000;0.5128;0.9326;
343.8000;0.5128;0.9302;
344.1000;0.5112;0.9375;
344.4000;0.5128;0.9448;
344.7000;0.5128;0.9448;
345.0000;0.5112;0.9326;
345.3000;0.5128;0.9326;
345.6000;0.5144;0.9375;
345.9000;0.5112;0.9497;
346.2000;0.5128;0.9618;
346.5000;0.5136;0.9618;
346.8000;0.5088;0.9521;
347.1000;0.5120;0.9618;
347.4000;0.5079;0.9472;
347.7000;0.5096;0.9497;
348.0000;0.5088;0.9521;
348.3000;0.5136;0.9643;
348.6000;0.5120;0.9497;
348.9000;0.5112;0.9497;
349.2000;0.5120;0.9472;
349.5000;0.5144;0.9521;
349.8000;0.5104;0.9423;
350.1000;0.5096;0.9497;
350.4000;0.5112;0.9618;
350.7000;0.5128;0.9618;
351.0000;0.5185;0.9764;
351.3000;0.5161;0.9618;
351.6000;0.5120;0.9521;
351.9000;0.5120;0.9472;
352.2000;0.5120;0.9375;
352.5000;0.5112;0.9423;
352.8000;0.5088;0.9423;
353.1000;0.5136;0.9497;
353.4000;0.5136;0.9472;
353.7000;0.5088;0.9375;
354.0000;0.5120;0.9423;
354.3000;0.5104;0.9375;
354.6000;0.5128;0.9497;
354.9000;0.5104;0.9448;
355.2000;0.5104;0.9448;
355.5000;0.5120;0.9497;
355.8000;0.5120;0.9472;
356.1000;0.5128;0.9497;
356.4000;0.5136;0.9497;
356.7000;0.5112;0.9350;
357.0000;0.5120;0.9326;
357.3000;0.5112;0.9326;
357.6000;0.5120;0.9326;
357.9000;0.5104;0.9423;
358.2000;0.5079;0.9375;
358.5000;0.5128;0.9497;
358.8000;0.5096;0.9375;
359.1000;0.5088;0.9375;
359.4000;0.5104;0.9326;
359.7000;0.5120;0.9326;
360.0000;0.5120;0.9229;
360.3000;0.5128;0.9326;
360.6000;0.5136;0.9277;
360.9000;0.5120;0.9229;
361.2000;0.5136;0.9326;
361.5000;0.5096;0.9277;
361.8000;0.5128;0.9448;
362.1000;0.5128;0.9448;
362.4000;0.5153;0.9375;
362.7000;0.5144;0.9350;
363.0000;0.5153;0.9277;
363.3000;0.5120;0.9229;
363.6000;0.5104;0.9326;
363.9000;0.5071;0.9253;
364.2000;0.5112;0.9375;
364.5000;0.5104;0.9399;
364.8000;0.5112;0.9399;
365.1000;0.5128;0.9399;
365.4000;0.5128;0.9375;
365.7000;0.5112;0.9302;
366.0000;0.5136;0.9326;
366.3000;0.5128;0.9253;
366.6000;0.5128;0.9253;
366.9000;0.5104;0.9156;
367.2000;0.5136;0.9350;
367.5000;0.5120;0.9375;
367.8000;0.5112;0.9302;
368.1000;0.5128;0.9350;
368.4000;0.5128;0.9375;
368.7000;0.5185;0.9472;
369.0000;0.5079;0.9131;
369.3000;0.5112;0.9277;
369.6000;0.5112;0.9302;
369.9000;0.5120;0.9326;
370.2000;0.5128;0.9229;
370.5000;0.5112;0.9253;
370.8000;0.5177;0.9375;
371.1000;0.5128;0.9326;
371.4000;0.5128;0.9350;
371.7000;0.5120;0.9350;
372.0000;0.5136;0.9350;
372.3000;0.5104;0.9229;
372.6000;0.5136;0.9277;
372.9000;0.5112;0.9302;
373.2000;0.5112;0.9326;
373.5000;0.5120;0.9302;
373.8000;0.5120;0.9326;
374.1000;0.5128;0.9375;
374.4000;0.5120;0.9448;
374.7000;0.5128;0.9545;
375.0000;0.5136;0.9472;
375.3000;0.5112;0.9399;
375.6000;0.5104;0.9399;
375.9000;0.5104;0.9423;
376.2000;0.5088;0.9448;
376.5000;0.5169;0.9667;
376.8000;0.5112;0.9497;
377.1000;0.5120;0.9594;
377.4000;0.5104;0.9545;
377.7000;0.5128;0.9423;
378.0000;0.5136;0.9399;
378.3000;0.5112;0.9399;
378.6000;0.5161;0.9472;
378.9000;0.5136;0.9423;
379.2000;0.5193;0.9545;
379.5000;0.5104;0.9326;
379.8000;0.5128;0.9423;
380.1000;0.5136;0.9448;
380.4000;0.5112;0.9277;
380.7000;0.5144;0.9448;
381.0000;0.5104;0.9375;
381.3000;0.5120;0.9472;
381.6000;0.5112;0.9497;
381.9000;0.5201;0.9740;
382.2000;0.5120;0.9497;
382.5000;0.5104;0.9472;
382.8000;0.5120;0.9448;
383.1000;0.5055;0.9204;
383.4000;0.5144;0.9448;
383.7000;0.5153;0.9448;
384.0000;0.5120;0.9302;
384.3000;0.5104;0.9204;
384.6000;0.5104;0.9204;
384.9000;0.5088;0.9229;
385.2000;0.5153;0.9448;
385.5000;0.5088;0.9350;
385.8000;0.5112;0.9399;
386.1000;0.5104;0.9326;
386.4000;0.5120;0.9399;
386.7000;0.5177;0.9521;
387.0000;0.5112;0.9326;
387.3000;0.5112;0.9302;
387.6000;0.5112;0.9350;
387.9000;0.5120;0.9350;
388.2000;0.5128;0.9350;
388.5000;0.5112;0.9399;
388.8000;0.5112;0.9302;
389.1000;0.5112;0.9302;
389.4000;0.5112;0.9350;
389.7000;0.5071;0.9326;
390.0000;0.5096;0.9375;
390.3000;0.5120;0.9521;
390.6000;0.5104;0.9521;
390.9000;0.5088;0.9472;
391.2000;0.5128;0.9399;
391.5000;0.5120;0.9423;
391.8000;0.5120;0.9545;
392.1000;0.5112;0.9570;
392.4000;0.5120;0.9594;
392.7000;0.5177;0.9691;
393.0000;0.5144;0.9545;
393.3000;0.5136;0.9497;
393.6000;0.5128;0.9497;
393.9000;0.5120;0.9423;
394.2000;0.5120;0.9399;
394.5000;0.5136;0.9399;
394.8000;0.5128;0.9350;
395.1000;0.5071;0.9204;
395.4000;0.5112;0.9229;
395.7000;0.5136;0.9229;
396.0000;0.5128;0.9180;
396.3000;0.5088;0.9180;
396.6000;0.5096;0.9180;
396.9000;0.5177;0.9448;
397.2000;0.5104;0.9326;
397.5000;0.5047;0.9156;
397.8000;0.5120;0.9375;
398.1000;0.5112;0.9326;
398.4000;0.5112;0.9277;
398.7000;0.5096;0.9277;
399.0000;0.5088;0.9350;
399.3000;0.5104;0.9350;
399.6000;0.5112;0.9375;
399.9000;0.5096;0.9302;
400.2000;0.5104;0.9350;
400.5000;0.5112;0.9277;
400.8000;0.5177;0.9375;
401.1000;0.5120;0.9180;
401.4000;0.5112;0.9180;
401.7000;0.5112;0.9229;
402.0000;0.5104;0.9326;
402.3000;0.5071;0.9326;
402.6000;0.5120;0.9448;
402.9000;0.5063;0.9326;
403.2000;0.5104;0.9448;
403.5000;0.5136;0.9545;
403.8000;0.5096;0.9375;
404.1000;0.5104;0.9302;
404.4000;0.5120;0.9399;
404.7000;0.5096;0.9375;
405.0000;0.5120;0.9448;
405.3000;0.5112;0.9448;
405.6000;0.5112;0.9472;
405.9000;0.5104;0.9375;
406.2000;0.5104;0.9326;
406.5000;0.5079;0.9229;
406.8000;0.5104;0.9277;
407.1000;0.5120;0.9350;
407.4000;0.5104;0.9302;
407.7000;0.5096;0.9229;
408.0000;0.5096;0.9204;
408.3000;0.5136;0.9302;
408.6000;0.5136;0.9277;
408.9000;0.5112;0.9229;
409.2000;0.5120;0.9131;
409.5000;0.5120;0.9253;
409.8000;0.5112;0.9326;
410.1000;0.5104;0.9375;
410.4000;0.5096;0.9326;
410.7000;0.5104;0.9423;
411.0000;0.5120;0.9521;
411.3000;0.5120;0.9375;
411.6000;0.5112;0.9326;
411.9000;0.5047;0.9107;
412.2000;0.5112;0.9350;
412.5000;0.5120;0.9399;
412.8000;0.5071;0.9326;
413.1000;0.5112;0.9423;
413.4000;0.5128;0.9375;
413.7000;0.5120;0.9326;
414.0000;0.5112;0.9253;
414.3000;0.5096;0.9277;
414.6000;0.5112;0.9375;
414.9000;0.5120;0.9350;
415.2000;0.5071;0.9229;
415.5000;0.5120;0.9375;
415.8000;0.5112;0.9302;
416.1000;0.5128;0.9253;
416.4000;0.5120;0.9277;
416.7000;0.5120;0.9277;
417.0000;0.5120;0.9423;
417.3000;0.5112;0.9350;
417.6000;0.5112;0.9375;
417.9000;0.5177;0.9545;
418.2000;0.5112;0.9448;
418.5000;0.5112;0.9448;
418.8000;0.5120;0.9423;
419.1000;0.5096;0.9375;
419.4000;0.5112;0.9423;
419.7000;0.5096;0.9399;
420.0000;0.5136;0.9448;
420.3000;0.5112;0.9350;
420.6000;0.5096;0.9302;
420.9000;0.5096;0.9302;
421.2000;0.5120;0.9350;
421.5000;0.5104;0.9350;
421.8000;0.5112;0.9253;
422.1000;0.5112;0.9326;
422.4000;0.5112;0.9423;
422.7000;0.5104;0.9350;
423.0000;0.5128;0.9350;
423.3000;0.5153;0.9497;
423.6000;0.5169;0.9545;
423.9000;0.5128;0.9423;
424.2000;0.5112;0.9302;
424.5000;0.5112;0.9204;
424.8000;0.5128;0.9277;
425.1000;0.5096;0.9180;
425.4000;0.5063;0.9107;
425.7000;0.5112;0.9204;
426.0000;0.5112;0.9253;
426.3000;0.5104;0.9253;
426.6000;0.5128;0.9277;
426.9000;0.5112;0.9302;
427.2000;0.5104;0.9302;
427.5000;0.5120;0.9326;
427.8000;0.5153;0.9399;
428.1000;0.5128;0.9350;
428.4000;0.5128;0.9448;
428.7000;0.5169;0.9570;
429.0000;0.5128;0.9497;
429.3000;0.5112;0.9472;
429.6000;0.5096;0.9399;
429.9000;0.5128;0.9399;
430.2000;0.5120;0.9399;
430.5000;0.5104;0.9326;
430.8000;0.5112;0.9399;
431.1000;0.5120;0.9472;
431.4000;0.5104;0.9472;
431.7000;0.5104;0.9497;
432.0000;0.5079;0.9497;
432.3000;0.5120;0.9643;
432.6000;0.5104;0.9691;
432.9000;0.5104;0.9667;
433.2000;0.5120;0.9667;
433.5000;0.5088;0.9618;
433.8000;0.5104;0.9618;
434.1000;0.5104;0.9618;
434.4000;0.5112;0.9691;
434.7000;0.5088;0.9472;
435.0000;0.5120;0.9545;
435.3000;0.5104;0.9423;
435.6000;0.5096;0.9253;
435.9000;0.5096;0.9204;
436.2000;0.5112;0.9253;
436.5000;0.5055;0.9083;
436.8000;0.5047;0.9058;
437.1000;0.5144;0.9375;
437.4000;0.5104;0.9253;
437.7000;0.5112;0.9302;
438.0000;0.5120;0.9375;
438.3000;0.5128;0.9375;
438.6000;0.5112;0.9302;
438.9000;0.5128;0.9423;
439.2000;0.5112;0.9375;
439.5000;0.5104;0.9302;
439.8000;0.5112;0.9350;
440.1000;0.5128;0.9545;
440.4000;0.5104;0.9497;
440.7000;0.5088;0.9472;
441.0000;0.5104;0.9545;
441.3000;0.5031;0.9350;
441.6000;0.5104;0.9472;
441.9000;0.5112;0.9521;
442.2000;0.5096;0.9497;
442.5000;0.5079;0.9594;
442.8000;0.5128;0.9764;
443.1000;0.5104;0.9691;
443.4000;0.5128;0.9667;
443.7000;0.5128;0.9594;
444.0000;0.5128;0.9472;
444.3000;0.5120;0.9545;
444.6000;0.5128;0.9423;
444.9000;0.5153;0.9448;
445.2000;0.5136;0.9423;
445.5000;0.5063;0.9277;
445.8000;0.5112;0.9497;
446.1000;0.5136;0.9594;
446.4000;0.5169;0.9643;
446.7000;0.5112;0.9448;
447.0000;0.5112;0.9448;
447.3000;0.5120;0.9472;
447.6000;0.5104;0.9448;
447.9000;0.5096;0.9448;
448.2000;0.5112;0.9472;
448.5000;0.5071;0.9423;
448.8000;0.5120;0.9643;
449.1000;0.5136;0.9667;
449.4000;0.5112;0.9570;
449.7000;0.5112;0.9594;
450.0000;0.5047;0.9350;
450.3000;0.5112;0.9497;
450.6000;0.5071;0.9375;
450.9000;0.5096;0.9545;
451.2000;0.5088;0.9521;
451.5000;0.5112;0.9497;
451.8000;0.5136;0.9545;
452.1000;0.5120;0.9472;
452.4000;0.5088;0.9423;
452.7000;0.5169;0.9570;
453.0000;0.5112;0.9375;
453.3000;0.5104;0.9326;
453.6000;0.5120;0.9302;
453.9000;0.5120;0.9326;
454.2000;0.5120;0.9375;
454.5000;0.5104;0.9423;
454.8000;0.5120;0.9497;
455.1000;0.5104;0.9545;
455.4000;0.5047;0.9448;
455.7000;0.5112;0.9570;
456.0000;0.5088;0.9423;
456.3000;0.5104;0.9472;
456.6000;0.5153;0.9618;
456.9000;0.5128;0.9521;
457.2000;0.5120;0.9497;
457.5000;0.5177;0.9594;
457.8000;0.5112;0.9423;
458.1000;0.5120;0.9350;
458.4000;0.5128;0.9326;
458.7000;0.5153;0.9350;
459.0000;0.5112;0.9302;
459.3000;0.5112;0.9326;
459.6000;0.5120;0.9350;
459.9000;0.5128;0.9375;
460.2000;0.5104;0.9326;
460.5000;0.5136;0.9423;
460.8000;0.5120;0.9326;
461.1000;0.5104;0.9399;
461.4000;0.5112;0.9472;
461.7000;0.5128;0.9399;
462.0000;0.5161;0.9448;
462.3000;0.5112;0.9375;
462.6000;0.5104;0.9399;
462.9000;0.5120;0.9545;
463.2000;0.5120;0.9497;
463.5000;0.5120;0.9448;
463.8000;0.5120;0.9423;
464.1000;0.5128;0.9350;
464.4000;0.5120;0.9326;
464.7000;0.5144;0.9302;
465.0000;0.5112;0.9277;
465.3000;0.5104;0.9156;
465.6000;0.5096;0.9083;
465.9000;0.5088;0.9058;
466.2000;0.5096;0.9156;
466.5000;0.5096;0.9180;
466.8000;0.5136;0.9253;
467.1000;0.5096;0.9131;
467.4000;0.5153;0.9277;
467.7000;0.5104;0.9131;
468.0000;0.5112;0.9180;
468.3000;0.5104;0.9229;
468.6000;0.5112;0.9350;
468.9000;0.5120;0.9423;
469.2000;0.5112;0.9326;
469.5000;0.5112;0.9350;
469.8000;0.5120;0.9326;
470.1000;0.5088;0.9204;
470.4000;0.5104;0.9229;
470.7000;0.5112;0.9253;
471.0000;0.5088;0.9180;
471.3000;0.5096;0.9253;
471.6000;0.5120;0.9326;
471.9000;0.5055;0.9253;
472.2000;0.5112;0.9472;
472.5000;0.5079;0.9350;
472.8000;0.5096;0.9472;
473.1000;0.5088;0.9423;
473.4000;0.5104;0.9448;
473.7000;0.5104;0.9472;
474.0000;0.5088;0.9399;
474.3000;0.5088;0.9472;
474.6000;0.5112;0.9497;
474.9000;0.5161;0.9570;
475.2000;0.5088;0.9399;
475.5000;0.5104;0.9399;
475.8000;0.5096;0.9350;
476.1000;0.5120;0.9448;
476.4000;0.5047;0.9253;
476.7000;0.5096;0.9326;
477.0000;0.5088;0.9277;
477.3000;0.5079;0.9229;
477.6000;0.5096;0.9302;
477.9000;0.5088;0.9350;
478.2000;0.5112;0.9326;
478.5000;0.5112;0.9326;
478.8000;0.5096;0.9277;
479.1000;0.5112;0.9229;
479.4000;0.5112;0.9253;
479.7000;0.5136;0.9326;
480.0000;0.5120;0.9253;
480.3000;0.5112;0.9277;
480.6000;0.5128;0.9326;
480.9000;0.5128;0.9253;
481.2000;0.5120;0.9253;
481.5000;0.5136;0.9326;
481.8000;0.5039;0.9107;
482.1000;0.5104;0.9375;
482.4000;0.5096;0.9277;
482.7000;0.5039;0.9034;
483.0000;0.5088;0.9034;
483.3000;0.5104;0.9083;
483.6000;0.5079;0.9083;
483.9000;0.5128;0.9180;
484.2000;0.5128;0.9229;
484.5000;0.5079;0.9277;
484.8000;0.5128;0.9521;
485.1000;0.5079;0.9497;
485.4000;0.5112;0.9521;
485.7000;0.5120;0.9497;
486.0000;0.5120;0.9423;
486.3000;0.5128;0.9399;
486.6000;0.5120;0.9277;
486.9000;0.5104;0.9229;
487.2000;0.5120;0.9253;
487.5000;0.5128;0.9229;
487.8000;0.5112;0.9107;
488.1000;0.5088;0.9010;
488.4000;0.5120;0.9058;
488.7000;0.5128;0.9131;
489.0000;0.5112;0.9010;
489.3000;0.5112;0.8961;
489.6000;0.5120;0.8985;
489.9000;0.5136;0.9058;
490.2000;0.5120;0.9058;
490.5000;0.5112;0.9107;
490.8000;0.5088;0.9131;
491.1000;0.5104;0.9229;
491.4000;0.5104;0.9277;
491.7000;0.5104;0.9277;
492.0000;0.5096;0.9229;
492.3000;0.5104;0.9326;
492.6000;0.5096;0.9350;
492.9000;0.5104;0.9229;
493.2000;0.5088;0.9131;
493.5000;0.5112;0.9302;
493.8000;0.5120;0.9448;
494.1000;0.5112;0.9448;
494.4000;0.5112;0.9497;
494.7000;0.5120;0.9618;
495.0000;0.5120;0.9594;
495.3000;0.5112;0.9521;
495.6000;0.5128;0.9472;
495.9000;0.5120;0.9399;
496.2000;0.5153;0.9423;
496.5000;0.5079;0.9253;
496.8000;0.5104;0.9350;
497.1000;0.5088;0.9180;
497.4000;0.5112;0.9204;
497.7000;0.5088;0.9131;
498.0000;0.5120;0.9107;
498.3000;0.5096;0.9131;
498.6000;0.5112;0.9229;
498.9000;0.5120;0.9326;
499.2000;0.5112;0.9350;
499.5000;0.5128;0.9423;
499.8000;0.5104;0.9350;
500.1000;0.5071;0.9375;
500.4000;0.5079;0.9399;
500.7000;0.4998;0.9156;
501.0000;0.5104;0.9399;
501.3000;0.5104;0.9399;
501.6000;0.5120;0.9350;
501.9000;0.5128;0.9472;
502.2000;0.5104;0.9399;
502.5000;0.5120;0.9448;
502.8000;0.5088;0.9375;
503.1000;0.5088;0.9326;
503.4000;0.5088;0.9326;
503.7000;0.5096;0.9350;
504.0000;0.5104;0.9423;
504.3000;0.5112;0.9521;
504.6000;0.5088;0.9350;
504.9000;0.5096;0.9277;
505.2000;0.5112;0.9302;
505.5000;0.5128;0.9399;
505.8000;0.5104;0.9326;
506.1000;0.5120;0.9350;
506.4000;0.5104;0.9326;
506.7000;0.5104;0.9326;
507.0000;0.5104;0.9350;
507.3000;0.5128;0.9277;
507.6000;0.5128;0.9156;
507.9000;0.5096;0.9131;
508.2000;0.5104;0.9107;
508.5000;0.5096;0.9010;
508.8000;0.5104;0.9083;
509.1000;0.5144;0.9204;
509.4000;0.5079;0.9058;
509.7000;0.5120;0.9180;
510.0000;0.5128;0.9131;
510.3000;0.5104;0.9107;
510.6000;0.5104;0.9107;
510.9000;0.5096;0.9180;
511.2000;0.5112;0.9277;
511.5000;0.5104;0.9204;
511.8000;0.5120;0.9302;
512.1000;0.5071;0.9229;
512.4000;0.5136;0.9375;
512.7000;0.5104;0.9375;
513.0000;0.5104;0.9375;
513.3000;0.5104;0.9326;
513.6000;0.5104;0.9302;
513.9000;0.5169;0.9423;
514.2000;0.5112;0.9253;
514.5000;0.5104;0.9204;
514.8000;0.5104;0.9180;
515.1000;0.5144;0.9204;
515.4000;0.5022;0.8888;
515.7000;0.5128;0.9156;
516.0000;0.5112;0.9131;
516.3000;0.5104;0.9131;
516.6000;0.5104;0.9277;
516.9000;0.5104;0.9229;
517.2000;0.5096;0.9253;
517.5000;0.5104;0.9204;
517.8000;0.5104;0.9302;
518.1000;0.5104;0.9326;
518.4000;0.5128;0.9399;
518.7000;0.5112;0.9326;
519.0000;0.5104;0.9326;
519.3000;0.5128;0.9399;
519.6000;0.5096;0.9375;
519.9000;0.5104;0.9326;
520.2000;0.5120;0.9423;
520.5000;0.5112;0.9472;
520.8000;0.5104;0.9497;
521.1000;0.5096;0.9497;
521.4000;0.5120;0.9545;
521.7000;0.5104;0.9497;
522.0000;0.5104;0.9472;
522.3000;0.5104;0.9448;
522.6000;0.5120;0.9448;
522.9000;0.5112;0.9375;
523.2000;0.5161;0.9375;
523.5000;0.5112;0.9326;
523.8000;0.5088;0.9375;
524.1000;0.5153;0.9448;
524.4000;0.5112;0.9350;
524.7000;0.5096;0.9229;
525.0000;0.5096;0.9180;
525.3000;0.5104;0.9253;
525.6000;0.5071;0.9326;
525.9000;0.5112;0.9350;
526.2000;0.5096;0.9302;
526.5000;0.5177;0.9545;
526.8000;0.5144;0.9497;
527.1000;0.5120;0.9350;
527.4000;0.5104;0.9375;
527.7000;0.5201;0.9643;
528.0000;0.5096;0.9350;
528.3000;0.5104;0.9350;
528.6000;0.5104;0.9277;
528.9000;0.5079;0.9156;
529.2000;0.5104;0.9229;
529.5000;0.5112;0.9302;
529.8000;0.5120;0.9277;
530.1000;0.5104;0.9375;
530.4000;0.5136;0.9448;
530.7000;0.5120;0.9399;
531.0000;0.5112;0.9375;
531.3000;0.5104;0.9326;
531.6000;0.5112;0.9204;
531.9000;0.5112;0.9083;
532.2000;0.5128;0.9180;
532.5000;0.5104;0.9131;
532.8000;0.5112;0.9180;
533.1000;0.5096;0.9180;
533.4000;0.5120;0.9277;
533.7000;0.5104;0.9253;
534.0000;0.5096;0.9277;
534.3000;0.5071;0.9156;
534.6000;0.5120;0.9253;
534.9000;0.5112;0.9156;
535.2000;0.5112;0.9156;
535.5000;0.5144;0.9302;
535.8000;0.5161;0.9350;
536.1000;0.5112;0.9204;
536.4000;0.5104;0.9229;
536.7000;0.5096;0.9253;
537.0000;0.5096;0.9277;
537.3000;0.5136;0.9375;
537.6000;0.5120;0.9326;
537.9000;0.5120;0.9277;
538.2000;0.5144;0.9472;
538.5000;0.5055;0.9156;
538.8000;0.5120;0.9277;
539.1000;0.5096;0.9253;
539.4000;0.5071;0.9350;
539.7000;0.5096;0.9375;
540.0000;0.5104;0.9326;
540.3000;0.5104;0.9399;
540.6000;0.5096;0.9204;
540.9000;0.5096;0.9253;
541.2000;0.5096;0.9229;
541.5000;0.5096;0.9180;
541.8000;0.5096;0.9058;
542.1000;0.5104;0.9180;
542.4000;0.5104;0.9107;
542.7000;0.5088;0.8985;
543.0000;0.5161;0.9253;
543.3000;0.5104;0.9253;
543.6000;0.5096;0.9277;
543.9000;0.5104;0.9302;
544.2000;0.5096;0.9277;
544.5000;0.5104;0.9326;
544.8000;0.5088;0.9399;
545.1000;0.5096;0.9472;
545.4000;0.5096;0.9375;
545.7000;0.5055;0.9302;
546.0000;0.5153;0.9570;
546.3000;0.5112;0.9545;
546.6000;0.5104;0.9545;
546.9000;0.5104;0.9497;
547.2000;0.5120;0.9472;
547.5000;0.5112;0.9448;
547.8000;0.5120;0.9326;
548.1000;0.5047;0.9131;
548.4000;0.5096;0.9302;
548.7000;0.5104;0.9302;
549.0000;0.5120;0.9302;
549.3000;0.5120;0.9375;
549.6000;0.5088;0.9326;
549.9000;0.5112;0.9375;
550.2000;0.5120;0.9277;
550.5000;0.5112;0.9375;
550.8000;0.5104;0.9448;
551.1000;0.5112;0.9497;
551.4000;0.5096;0.9399;
551.7000;0.5079;0.9423;
552.0000;0.5112;0.9618;
552.3000;0.5128;0.9570;
552.6000;0.5104;0.9497;
552.9000;0.5112;0.9497;
553.2000;0.5120;0.9423;
553.5000;0.5112;0.9423;
553.8000;0.5201;0.9618;
554.1000;0.5104;0.9448;
554.4000;0.5104;0.9472;
554.7000;0.5104;0.9448;
555.0000;0.5104;0.9423;
555.3000;0.5112;0.9448;
555.6000;0.5120;0.9375;
555.9000;0.5128;0.9423;
556.2000;0.5096;0.9472;
556.5000;0.5014;0.9326;
556.8000;0.5128;0.9570;
557.1000;0.5096;0.9497;
557.4000;0.5104;0.9545;
557.7000;0.5112;0.9497;
558.0000;0.5104;0.9399;
558.3000;0.5096;0.9302;
558.6000;0.5112;0.9448;
558.9000;0.5088;0.9472;
559.2000;0.5136;0.9618;
559.5000;0.5112;0.9545;
559.8000;0.5104;0.9570;
560.1000;0.5088;0.9448;
560.4000;0.5112;0.9521;
560.7000;0.5112;0.9497;
561.0000;0.5153;0.9545;
561.3000;0.5096;0.9399;
561.6000;0.5096;0.9399;
561.9000;0.5112;0.9448;
562.2000;0.5096;0.9326;
562.5000;0.5210;0.9643;
562.8000;0.5112;0.9375;
563.1000;0.5096;0.9277;
563.4000;0.5104;0.9326;
563.7000;0.5079;0.9229;
564.0000;0.5079;0.9204;
564.3000;0.5006;0.8985;
564.6000;0.5096;0.9083;
564.9000;0.5161;0.9253;
565.2000;0.5096;0.9180;
565.5000;0.5079;0.9156;
565.8000;0.5096;0.9229;
566.1000;0.5096;0.9180;
566.4000;0.5112;0.9180;
566.7000;0.5112;0.9204;
567.0000;0.5128;0.9277;
567.3000;0.5120;0.9326;
567.6000;0.5112;0.9448;
567.9000;0.5104;0.9423;
568.2000;0.5096;0.9277;
568.5000;0.5079;0.9277;
568.8000;0.5136;0.9302;
569.1000;0.5120;0.9253;
569.4000;0.5112;0.9204;
569.7000;0.5112;0.9253;
570.0000;0.5153;0.9375;
570.3000;0.5128;0.9399;
570.6000;0.5112;0.9375;
570.9000;0.5112;0.9399;
571.2000;0.5096;0.9350;
571.5000;0.5120;0.9350;
571.8000;0.5112;0.9302;
572.1000;0.5104;0.9180;
572.4000;0.5014;0.8936;
572.7000;0.5136;0.9229;
573.0000;0.5112;0.9229;
573.3000;0.5096;0.9180;
573.6000;0.5096;0.9156;
573.9000;0.5104;0.9253;
574.2000;0.5104;0.9399;
574.5000;0.5185;0.9691;
574.8000;0.5169;0.9618;
575.1000;0.5112;0.9594;
575.4000;0.5128;0.9570;
575.7000;0.5104;0.9521;
576.0000;0.5104;0.9497;
576.3000;0.5096;0.9423;
576.6000;0.5055;0.9277;
576.9000;0.5079;0.9302;
577.2000;0.5096;0.9375;
577.5000;0.5096;0.9277;
577.8000;0.5120;0.9277;
578.1000;0.5104;0.9204;
578.4000;0.5104;0.9204;
578.7000;0.5128;0.9180;
579.0000;0.5096;0.9229;
579.3000;0.5136;0.9302;
579.6000;0.5096;0.9253;
579.9000;0.5096;0.9350;
580.2000;0.5112;0.9423;
580.5000;0.5144;0.9545;
580.8000;0.5136;0.9570;
581.1000;0.5079;0.9497;
581.4000;0.5104;0.9472;
581.7000;0.5104;0.9399;
582.0000;0.5185;0.9570;
582.3000;0.5104;0.9448;
582.6000;0.5112;0.9423;
582.9000;0.5104;0.9448;
583.2000;0.5112;0.9497;
583.5000;0.5104;0.9423;
583.8000;0.5096;0.9448;
584.1000;0.5096;0.9448;
584.4000;0.5112;0.9497;
584.7000;0.5096;0.9448;
585.0000;0.5169;0.9643;
585.3000;0.5079;0.9521;
585.6000;0.5104;0.9497;
585.9000;0.5104;0.9423;
586.2000;0.5096;0.9423;
586.5000;0.5112;0.9545;
586.8000;0.5104;0.9521;
587.1000;0.5112;0.9570;
587.4000;0.5104;0.9497;
587.7000;0.5104;0.9423;
588.0000;0.5079;0.9399;
588.3000;0.5006;0.9156;
588.6000;0.5112;0.9399;
588.9000;0.5096;0.9399;
589.2000;0.5128;0.9594;
589.5000;0.5096;0.9521;
589.8000;0.5144;0.9570;
590.1000;0.5104;0.9618;
590.4000;0.5112;0.9570;
590.7000;0.5063;0.9448;
591.0000;0.5161;0.9740;
591.3000;0.5096;0.9594;
591.6000;0.5071;0.9472;
591.9000;0.5104;0.9618;
592.2000;0.5079;0.9497;
592.5000;0.5144;0.9691;
592.8000;0.5088;0.9570;
593.1000;0.5104;0.9691;
593.4000;0.5136;0.9789;
593.7000;0.5104;0.9643;
594.0000;0.5104;0.9521;
594.3000;0.5112;0.9472;
594.6000;0.5096;0.9545;
594.9000;0.5112;0.9594;
595.2000;0.5096;0.9618;
595.5000;0.5063;0.9472;
595.8000;0.5136;0.9570;
596.1000;0.5120;0.9521;
596.4000;0.5112;0.9472;
596.7000;0.5112;0.9497;
597.0000;0.5128;0.9423;
597.3000;0.5104;0.9375;
597.6000;0.5120;0.9570;
597.9000;0.5104;0.9545;
598.2000;0.5022;0.9302;
598.5000;0.5128;0.9497;
598.8000;0.5144;0.9545;
599.1000;0.5104;0.9472;
599.4000;0.5104;0.9497;
599.7000;0.5063;0.9302;
600.0000;0.5104;0.9302;
600.3000;0.5120;0.9253;
600.6000;0.5144;0.9326;
600.9000;0.5096;0.9107;
601.2000;0.5063;0.8863;
601.5000;0.5055;0.8742;
601.8000;0.5022;0.8620;
602.1000;0.5006;0.8571;
602.4000;0.4974;0.8376;
602.7000;0.4957;0.8206;
603.0000;0.4941;0.8182;
603.3000;0.4892;0.7938;
603.6000;0.4925;0.7962;
603.9000;0.4884;0.7743;
604.2000;0.4851;0.7695;
604.5000;0.4860;0.7695;
604.8000;0.4819;0.7646;
605.1000;0.4794;0.7573;
605.4000;0.4794;0.7524;
605.7000;0.4778;0.7549;
606.0000;0.4762;0.7549;
606.3000;0.4778;0.7622;
606.6000;0.4729;0.7500;
606.9000;0.4721;0.7500;
607.2000;0.4713;0.7427;
607.5000;0.4632;0.7305;
607.8000;0.4689;0.7402;
608.1000;0.4713;0.7378;
608.4000;0.4681;0.7305;
608.7000;0.4672;0.7354;
609.0000;0.4770;0.7573;
609.3000;0.4656;0.7208;
609.6000;0.4632;0.7159;
609.9000;0.4624;0.7086;
610.2000;0.4615;0.6988;
610.5000;0.4615;0.7037;
610.8000;0.4615;0.7086;
611.1000;0.4624;0.7183;
611.4000;0.4599;0.7183;
611.7000;0.4583;0.7183;
612.0000;0.4591;0.7159;
612.3000;0.4648;0.7281;
612.6000;0.4567;0.7062;
612.9000;0.4550;0.7086;
613.2000;0.4550;0.7110;
613.5000;0.4534;0.7135;
613.8000;0.4526;0.7062;
614.1000;0.4518;0.6891;
614.4000;0.4526;0.6940;
614.7000;0.4526;0.7037;
615.0000;0.4501;0.7037;
615.3000;0.4526;0.7062;
615.6000;0.4493;0.6940;
615.9000;0.4469;0.6818;
616.2000;0.4477;0.6818;
616.5000;0.4485;0.6867;
616.8000;0.4518;0.6988;
617.1000;0.4428;0.6842;
617.4000;0.4404;0.6794;
617.7000;0.4428;0.6794;
618.0000;0.4436;0.6842;
618.3000;0.4428;0.6842;
618.6000;0.4461;0.6915;
618.9000;0.4461;0.6794;
619.2000;0.4404;0.6745;
619.5000;0.4404;0.6818;
619.8000;0.4404;0.6818;
620.1000;0.4412;0.6842;
620.4000;0.4387;0.6891;
620.7000;0.4379;0.6818;
621.0000;0.4371;0.6769;
621.3000;0.4387;0.6769;
621.6000;0.4396;0.6769;
621.9000;0.4396;0.6818;
622.2000;0.4355;0.6794;
622.5000;0.4387;0.6940;
622.8000;0.4347;0.6818;
623.1000;0.4355;0.6867;
623.4000;0.4347;0.6842;
623.7000;0.4330;0.6842;
624.0000;0.4347;0.6891;
624.3000;0.4322;0.6867;
624.6000;0.4322;0.6891;
624.9000;0.4339;0.6891;
625.2000;0.4322;0.6915;
625.5000;0.4306;0.6964;
625.8000;0.4282;0.6988;
626.1000;0.4298;0.7110;
626.4000;0.4306;0.7183;
626.7000;0.4306;0.7135;
627.0000;0.4306;0.7110;
627.3000;0.4274;0.6964;
627.6000;0.4298;0.7013;
627.9000;0.4290;0.6940;
628.2000;0.4290;0.6891;
628.5000;0.4282;0.6940;
628.8000;0.4282;0.6891;
629.1000;0.4306;0.6988;
629.4000;0.4249;0.6940;
629.7000;0.4265;0.6988;
630.0000;0.4249;0.7037;
630.3000;0.4249;0.7086;
630.6000;0.4249;0.7013;
630.9000;0.4208;0.6915;
631.2000;0.4225;0.6915;
631.5000;0.4233;0.6891;
631.8000;0.4339;0.7135;
632.1000;0.4151;0.6672;
632.4000;0.4241;0.6794;
632.7000;0.4225;0.6745;
633.0000;0.4241;0.6794;
633.3000;0.4241;0.6842;
633.6000;0.4217;0.6891;
633.9000;0.4208;0.6940;
634.2000;0.4217;0.6964;
634.5000;0.4208;0.6891;
634.8000;0.4184;0.6794;
635.1000;0.4200;0.6891;
635.4000;0.4233;0.6915;
635.7000;0.4192;0.6818;
636.0000;0.4192;0.6696;
636.3000;0.4200;0.6672;
636.6000;0.4208;0.6696;
636.9000;0.4176;0.6672;
637.2000;0.4192;0.6672;
637.5000;0.4192;0.6721;
637.8000;0.4176;0.6696;
638.1000;0.4200;0.6696;
638.4000;0.4176;0.6696;
638.7000;0.4086;0.6428;
639.0000;0.4176;0.6769;
639.3000;0.4184;0.6867;
639.6000;0.4143;0.6769;
639.9000;0.4160;0.6794;
640.2000;0.4160;0.6745;
640.5000;0.4086;0.6599;
640.8000;0.4143;0.6745;
641.1000;0.4119;0.6696;
641.4000;0.4119;0.6672;
641.7000;0.4135;0.6745;
642.0000;0.4127;0.6648;
642.3000;0.4119;0.6672;
642.6000;0.4143;0.6745;
642.9000;0.4143;0.6745;
643.2000;0.4054;0.6526;
643.5000;0.4127;0.6648;
643.8000;0.4119;0.6623;
644.1000;0.4111;0.6696;
644.4000;0.4119;0.6696;
644.7000;0.4111;0.6769;
645.0000;0.4111;0.6818;
645.3000;0.4094;0.6891;
645.6000;0.4111;0.6915;
645.9000;0.4111;0.6891;
646.2000;0.4111;0.6891;
646.5000;0.4094;0.6940;
646.8000;0.4111;0.6891;
647.1000;0.4086;0.6794;
647.4000;0.4094;0.6794;
647.7000;0.4111;0.6769;
648.0000;0.4103;0.6769;
648.3000;0.4094;0.6745;
648.6000;0.4094;0.6745;
648.9000;0.4078;0.6745;
649.2000;0.4078;0.6794;
649.5000;0.4094;0.6842;
649.8000;0.4078;0.6745;
650.1000;0.4078;0.6745;
650.4000;0.4094;0.6769;
650.7000;0.4078;0.6818;
651.0000;0.4054;0.6842;
651.3000;0.4054;0.6891;
651.6000;0.4062;0.6915;
651.9000;0.4078;0.6940;
652.2000;0.4070;0.6964;
652.5000;0.4086;0.6867;
652.8000;0.4086;0.6745;
653.1000;0.4078;0.6672;
653.4000;0.4062;0.6648;
653.7000;0.4062;0.6599;
654.0000;0.4062;0.6672;
654.3000;0.4111;0.6818;
654.6000;0.4054;0.6672;
654.9000;0.4127;0.6915;
655.2000;0.4037;0.6599;
655.5000;0.4046;0.6575;
655.8000;0.4127;0.6769;
656.1000;0.4062;0.6575;
656.4000;0.4046;0.6648;
656.7000;0.4029;0.6696;
657.0000;0.4021;0.6721;
657.3000;0.4103;0.6940;
657.6000;0.4029;0.6696;
657.9000;0.4046;0.6721;
658.2000;0.4046;0.6769;
658.5000;0.4046;0.6721;
658.8000;0.4037;0.6721;
659.1000;0.4054;0.6696;
659.4000;0.4029;0.6696;
659.7000;0.4029;0.6721;
660.0000;0.4005;0.6721;
660.3000;0.4005;0.6672;
660.6000;0.4029;0.6769;
660.9000;0.4013;0.6769;
661.2000;0.4005;0.6672;
661.5000;0.4013;0.6672;
661.8000;0.3972;0.6575;
662.1000;0.4013;0.6672;
662.4000;0.4029;0.6696;
662.7000;0.4005;0.6623;
663.0000;0.3997;0.6696;
663.3000;0.3956;0.6672;
663.6000;0.3997;0.6818;
663.9000;0.3997;0.6842;
664.2000;0.3997;0.6818;
664.5000;0.4005;0.6818;
664.8000;0.4054;0.7037;
665.1000;0.3997;0.6818;
665.4000;0.3989;0.6769;
665.7000;0.3972;0.6745;
666.0000;0.3989;0.6769;
666.3000;0.4005;0.6769;
666.6000;0.3980;0.6721;
666.9000;0.3972;0.6648;
667.2000;0.4005;0.6696;
667.5000;0.3964;0.6696;
667.8000;0.3972;0.6575;
668.1000;0.3972;0.6575;
668.4000;0.3997;0.6599;
668.7000;0.3989;0.6648;
669.0000;0.3989;0.6623;
669.3000;0.3997;0.6672;
669.6000;0.3980;0.6696;
669.9000;0.3956;0.6721;
670.2000;0.3997;0.6794;
670.5000;0.3956;0.6672;
670.8000;0.3972;0.6696;
671.1000;0.3964;0.6648;
671.4000;0.3964;0.6721;
671.7000;0.3956;0.6648;
672.0000;0.3964;0.6696;
672.3000;0.3980;0.6721;
672.6000;0.3948;0.6696;
672.9000;0.3948;0.6575;
673.2000;0.3972;0.6648;
673.5000;0.3972;0.6696;
673.8000;0.3972;0.6721;
674.1000;0.3948;0.6501;
674.4000;0.3940;0.6526;
674.7000;0.3956;0.6501;
675.0000;0.3932;0.6477;
675.3000;0.3956;0.6550;
675.6000;0.3956;0.6575;
675.9000;0.3964;0.6501;
676.2000;0.3964;0.6477;
676.5000;0.3956;0.6501;
676.8000;0.3964;0.6501;
677.1000;0.3964;0.6550;
677.4000;0.3964;0.6526;
677.7000;0.3972;0.6696;
678.0000;0.3858;0.6428;
678.3000;0.3980;0.6696;
678.6000;0.3948;0.6550;
678.9000;0.3948;0.6599;
679.2000;0.3956;0.6623;
679.5000;0.3948;0.6623;
679.8000;0.3932;0.6599;
680.1000;0.3948;0.6721;
680.4000;0.3940;0.6769;
680.7000;0.3932;0.6818;
681.0000;0.3940;0.6818;
681.3000;0.3932;0.6696;
681.6000;0.3932;0.6745;
681.9000;0.3932;0.6794;
682.2000;0.3932;0.6818;
682.5000;0.3940;0.6818;
682.8000;0.3923;0.6818;
683.1000;0.3915;0.6794;
683.4000;0.3923;0.6867;
683.7000;0.3907;0.6794;
684.0000;0.3923;0.6794;
684.3000;0.3883;0.6721;
684.6000;0.3907;0.6769;
684.9000;0.3940;0.6745;
685.2000;0.3932;0.6818;
685.5000;0.3932;0.6891;
685.8000;0.3907;0.6818;
686.1000;0.3940;0.6842;
686.4000;0.3940;0.6818;
686.7000;0.3932;0.6842;
687.0000;0.3923;0.6818;
687.3000;0.3932;0.6818;
687.6000;0.3932;0.6794;
687.9000;0.3915;0.6794;
688.2000;0.3915;0.6769;
688.5000;0.3883;0.6794;
688.8000;0.3940;0.6940;
689.1000;0.3915;0.6842;
689.4000;0.3923;0.6915;
689.7000;0.3923;0.6867;
690.0000;0.3923;0.6842;
690.3000;0.3915;0.6745;
690.6000;0.3948;0.6891;
690.9000;0.3989;0.7062;
691.2000;0.3907;0.6842;
691.5000;0.3875;0.6769;
691.8000;0.3956;0.6891;
692.1000;0.3899;0.6769;
692.4000;0.3907;0.6891;
692.7000;0.3891;0.6769;
693.0000;0.3899;0.6745;
693.3000;0.3907;0.6745;
693.6000;0.3907;0.6696;
693.9000;0.3891;0.6623;
694.2000;0.3899;0.6575;
694.5000;0.3891;0.6648;
694.8000;0.3899;0.6648;
695.1000;0.3891;0.6550;
695.4000;0.3915;0.6623;
695.7000;0.3891;0.6550;
696.0000;0.3915;0.6648;
696.3000;0.3899;0.6721;
696.6000;0.3891;0.6599;
696.9000;0.3891;0.6623;
697.2000;0.3891;0.6696;
697.5000;0.3883;0.6648;
697.8000;0.3907;0.6696;
698.1000;0.3948;0.6794;
698.4000;0.3899;0.6648;
698.7000;0.3899;0.6648;
699.0000;0.3907;0.6721;
699.3000;0.3932;0.6769;
699.6000;0.3899;0.6623;
699.9000;0.3899;0.6599;
700.2000;0.3915;0.6623;
700.5000;0.3932;0.6672;
700.8000;0.3899;0.6648;
701.1000;0.3883;0.6599;
701.4000;0.3883;0.6526;
701.7000;0.3891;0.6501;
702.0000;0.3883;0.6575;
702.3000;0.3891;0.6575;
702.6000;0.3915;0.6550;
702.9000;0.3899;0.6526;
703.2000;0.3883;0.6575;
703.5000;0.3964;0.6794;
703.8000;0.3875;0.6550;
704.1000;0.3891;0.6672;
704.4000;0.3899;0.6648;
704.7000;0.3891;0.6599;
705.0000;0.3899;0.6599;
705.3000;0.3907;0.6721;
705.6000;0.3867;0.6550;
705.9000;0.3891;0.6672;
706.2000;0.3932;0.6842;
706.5000;0.3850;0.6818;
706.8000;0.3883;0.6794;
707.1000;0.3867;0.6842;
707.4000;0.3875;0.6721;
707.7000;0.3883;0.6623;
708.0000;0.3883;0.6599;
708.3000;0.3932;0.6745;
708.6000;0.3858;0.6575;
708.9000;0.3867;0.6648;
709.2000;0.3867;0.6794;
709.5000;0.3858;0.6745;
709.8000;0.3948;0.6915;
710.1000;0.3891;0.6818;
710.4000;0.3915;0.6940;
710.7000;0.3899;0.6794;
711.0000;0.3891;0.6769;
711.3000;0.3875;0.6721;
711.6000;0.3858;0.6794;
711.9000;0.3883;0.6867;
712.2000;0.3875;0.6842;
712.5000;0.3801;0.6575;
712.8000;0.3850;0.6818;
713.1000;0.3867;0.6842;
713.4000;0.3883;0.6842;
713.7000;0.3834;0.6696;
714.0000;0.3875;0.6745;
714.3000;0.3850;0.6672;
714.6000;0.3810;0.6477;
714.9000;0.3867;0.6599;
715.2000;0.3875;0.6550;
715.5000;0.3867;0.6501;
715.8000;0.3875;0.6526;
716.1000;0.3867;0.6526;
716.4000;0.3858;0.6575;
716.7000;0.3875;0.6721;
717.0000;0.3858;0.6623;
717.3000;0.3867;0.6696;
717.6000;0.3858;0.6672;
717.9000;0.3826;0.6672;
718.2000;0.3858;0.6745;
718.5000;0.3850;0.6769;
718.8000;0.3875;0.6745;
719.1000;0.3850;0.6623;
719.4000;0.3867;0.6721;
719.7000;0.3875;0.6794;
720.0000;0.3875;0.6769;
720.3000;0.3850;0.6745;
720.6000;0.3875;0.6769;
720.9000;0.3858;0.6818;
721.2000;0.3867;0.6818;
721.5000;0.3858;0.6745;
721.8000;0.3850;0.6648;
722.1000;0.3867;0.6575;
722.4000;0.3858;0.6526;
722.7000;0.3891;0.6526;
723.0000;0.3858;0.6477;
723.3000;0.3867;0.6526;
723.6000;0.3867;0.6550;
723.9000;0.3875;0.6599;
724.2000;0.3858;0.6599;
724.5000;0.3867;0.6623;
724.8000;0.3842;0.6550;
725.1000;0.3858;0.6599;
725.4000;0.3850;0.6648;
725.7000;0.3858;0.6672;
726.0000;0.3899;0.6745;
726.3000;0.3964;0.6891;
726.6000;0.3810;0.6526;
726.9000;0.3850;0.6623;
727.2000;0.3883;0.6623;
727.5000;0.3858;0.6599;
727.8000;0.3818;0.6477;
728.1000;0.3834;0.6501;
728.4000;0.3842;0.6428;
728.7000;0.3850;0.6453;
729.0000;0.3940;0.6721;
729.3000;0.3842;0.6623;
729.6000;0.3883;0.6818;
729.9000;0.3850;0.6672;
730.2000;0.3850;0.6623;
730.5000;0.3956;0.6842;
730.8000;0.3850;0.6428;
731.1000;0.3793;0.6380;
731.4000;0.3850;0.6526;
731.7000;0.3858;0.6526;
732.0000;0.3826;0.6550;
732.3000;0.3875;0.6721;
732.6000;0.3858;0.6599;
732.9000;0.3883;0.6526;
733.2000;0.3834;0.6404;
733.5000;0.3818;0.6428;
733.8000;0.3858;0.6453;
734.1000;0.3842;0.6380;
734.4000;0.3826;0.6453;
734.7000;0.3818;0.6380;
735.0000;0.3842;0.6331;
735.3000;0.3850;0.6282;
735.6000;0.3826;0.6234;
735.9000;0.3850;0.6234;
736.2000;0.3834;0.6209;
736.5000;0.3842;0.6234;
736.8000;0.3834;0.6307;
737.1000;0.3850;0.6282;
737.4000;0.3793;0.6161;
737.7000;0.3842;0.6258;
738.0000;0.3826;0.6234;
738.3000;0.3834;0.6088;
738.6000;0.3834;0.6136;
738.9000;0.3834;0.6063;
739.2000;0.3818;0.6063;
739.5000;0.3810;0.6209;
739.8000;0.3818;0.6307;
740.1000;0.3858;0.6258;
740.4000;0.3826;0.6234;
740.7000;0.3842;0.6258;
741.0000;0.3834;0.6307;
741.3000;0.3834;0.6355;
741.6000;0.3850;0.6428;
741.9000;0.3826;0.6282;
742.2000;0.3826;0.6282;
742.5000;0.3826;0.6282;
742.8000;0.3818;0.6282;
743.1000;0.3834;0.6380;
743.4000;0.3834;0.6501;
743.7000;0.3834;0.6501;
744.0000;0.3826;0.6599;
744.3000;0.3834;0.6575;
744.6000;0.3858;0.6575;
744.9000;0.3777;0.6380;
745.2000;0.3834;0.6599;
745.5000;0.3842;0.6648;
745.8000;0.3834;0.6575;
746.1000;0.3801;0.6428;
746.4000;0.3883;0.6550;
746.7000;0.3834;0.6428;
747.0000;0.3818;0.6355;
747.3000;0.3761;0.6282;
747.6000;0.3842;0.6526;
747.9000;0.3850;0.6550;
748.2000;0.3761;0.6355;
748.5000;0.3810;0.6477;
748.8000;0.3842;0.6550;
749.1000;0.3777;0.6428;
749.4000;0.3801;0.6331;
749.7000;0.3850;0.6453;
750.0000;0.3899;0.6623;
750.3000;0.3842;0.6501;
750.6000;0.3834;0.6477;
750.9000;0.3842;0.6453;
751.2000;0.3785;0.6307;
751.5000;0.3850;0.6428;
751.8000;0.3834;0.6331;
752.1000;0.3899;0.6404;
752.4000;0.3867;0.6282;
752.7000;0.3826;0.6307;
753.0000;0.3826;0.6404;
753.3000;0.3826;0.6355;
753.6000;0.3801;0.6404;
753.9000;0.3826;0.6428;
754.2000;0.3834;0.6355;
754.5000;0.3826;0.6307;
754.8000;0.3834;0.6307;
755.1000;0.3834;0.6355;
755.4000;0.3826;0.6380;
755.7000;0.3867;0.6526;
756.0000;0.3834;0.6380;
756.3000;0.3826;0.6380;
756.6000;0.3956;0.6672;
756.9000;0.3842;0.6380;
757.2000;0.3834;0.6428;
757.5000;0.3842;0.6550;
757.8000;0.3842;0.6501;
758.1000;0.3818;0.6453;
758.4000;0.3818;0.6428;
758.7000;0.3810;0.6380;
759.0000;0.3858;0.6477;
759.3000;0.3834;0.6355;
759.6000;0.3834;0.6331;
759.9000;0.3818;0.6355;
760.2000;0.3753;0.6282;
760.5000;0.3842;0.6477;
760.8000;0.3826;0.6453;
761.1000;0.3785;0.6428;
761.4000;0.3842;0.6404;
761.7000;0.3810;0.6355;
762.0000;0.3810;0.6331;
762.3000;0.3801;0.6331;
762.6000;0.3818;0.6404;
762.9000;0.3777;0.6428;
763.2000;0.3818;0.6623;
763.5000;0.3834;0.6745;
763.8000;0.3899;0.6940;
764.1000;0.3826;0.6818;
764.4000;0.3801;0.6867;
764.7000;0.3826;0.6842;
765.0000;0.3826;0.6794;
765.3000;0.3810;0.6672;
765.6000;0.3818;0.6575;
765.9000;0.3793;0.6526;
766.2000;0.3834;0.6648;
766.5000;0.3810;0.6672;
766.8000;0.3826;0.6623;
767.1000;0.3826;0.6623;
767.4000;0.3818;0.6599;
767.7000;0.3818;0.6648;
768.0000;0.3834;0.6648;
768.3000;0.3810;0.6648;
768.6000;0.3818;0.6672;
768.9000;0.3850;0.6648;
769.2000;0.3842;0.6599;
769.5000;0.3818;0.6575;
769.8000;0.3842;0.6745;
770.1000;0.3810;0.6696;
770.4000;0.3793;0.6648;
770.7000;0.3834;0.6672;
771.0000;0.3785;0.6526;
771.3000;0.3810;0.6623;
771.6000;0.3818;0.6623;
771.9000;0.3810;0.6623;
772.2000;0.3818;0.6599;
772.5000;0.3834;0.6575;
772.8000;0.3818;0.6575;
773.1000;0.3793;0.6575;
773.4000;0.3810;0.6623;
773.7000;0.3818;0.6721;
774.0000;0.3769;0.6623;
774.3000;0.3818;0.6721;
774.6000;0.3858;0.6721;
774.9000;0.3777;0.6477;
775.2000;0.3744;0.6428;
775.5000;0.3826;0.6599;
775.8000;0.3785;0.6550;
776.1000;0.3753;0.6453;
776.4000;0.3818;0.6721;
776.7000;0.3818;0.6745;
777.0000;0.3818;0.6648;
777.3000;0.3785;0.6550;
777.6000;0.3801;0.6526;
777.9000;0.3801;0.6501;
778.2000;0.3818;0.6501;
778.5000;0.3801;0.6526;
778.8000;0.3810;0.6575;
779.1000;0.3777;0.6501;
779.4000;0.3818;0.6623;
779.7000;0.3801;0.6696;
780.0000;0.3826;0.6672;
780.3000;0.3818;0.6575;
780.6000;0.3907;0.6818;
780.9000;0.3842;0.6672;
781.2000;0.3801;0.6623;
781.5000;0.3818;0.6648;
781.8000;0.3826;0.6599;
782.1000;0.3826;0.6575;
782.4000;0.3850;0.6648;
782.7000;0.3801;0.6648;
783.0000;0.3867;0.6842;
783.3000;0.3810;0.6769;
783.6000;0.3818;0.6867;
783.9000;0.3875;0.6842;
784.2000;0.3801;0.6623;
784.5000;0.3818;0.6672;
784.8000;0.3793;0.6599;
785.1000;0.3810;0.6575;
785.4000;0.3801;0.6453;
785.7000;0.3793;0.6453;
786.0000;0.3810;0.6575;
786.3000;0.3818;0.6550;
786.6000;0.3826;0.6745;
786.9000;0.3818;0.6672;
787.2000;0.3834;0.6648;
787.5000;0.3810;0.6599;
787.8000;0.3818;0.6526;
788.1000;0.3932;0.6721;
788.4000;0.3810;0.6453;
788.7000;0.3801;0.6380;
789.0000;0.3867;0.6550;
789.3000;0.3810;0.6501;
789.6000;0.3801;0.6501;
789.9000;0.3704;0.6258;
790.2000;0.3793;0.6550;
790.5000;0.3801;0.6575;
790.8000;0.3834;0.6696;
791.1000;0.3834;0.6818;
791.4000;0.3810;0.6599;
791.7000;0.3818;0.6599;
792.0000;0.3826;0.6477;
792.3000;0.3818;0.6550;
792.6000;0.3818;0.6550;
792.9000;0.3793;0.6599;
793.2000;0.3818;0.6623;
793.5000;0.3810;0.6623;
793.8000;0.3810;0.6648;
794.1000;0.3834;0.6672;
794.4000;0.3842;0.6745;
794.7000;0.3801;0.6721;
795.0000;0.3834;0.6867;
795.3000;0.3818;0.6745;
795.6000;0.3834;0.6818;
795.9000;0.3826;0.6842;
796.2000;0.3826;0.6842;
796.5000;0.3818;0.6891;
796.8000;0.3818;0.6842;
797.1000;0.3801;0.6769;
797.4000;0.3793;0.6696;
797.7000;0.3793;0.6769;
798.0000;0.3826;0.6794;
798.3000;0.3744;0.6648;
798.6000;0.3818;0.6818;
798.9000;0.3810;0.6769;
799.2000;0.3801;0.6672;
799.5000;0.3810;0.6672;
799.8000;0.3801;0.6696;
800.1000;0.3801;0.6818;
800.4000;0.3793;0.6818;
800.7000;0.3801;0.6818;
801.0000;0.3761;0.6672;
801.3000;0.3801;0.6745;
801.6000;0.3801;0.6623;
801.9000;0.3826;0.6599;
802.2000;0.3801;0.6526;
802.5000;0.3810;0.6526;
802.8000;0.3810;0.6599;
803.1000;0.3793;0.6526;
803.4000;0.3818;0.6550;
803.7000;0.3842;0.6623;
804.0000;0.3810;0.6477;
804.3000;0.3801;0.6428;
804.6000;0.3875;0.6575;
804.9000;0.3810;0.6477;
805.2000;0.3810;0.6477;
805.5000;0.3777;0.6453;
805.8000;0.3818;0.6599;
806.1000;0.3720;0.6380;
806.4000;0.3744;0.6501;
806.7000;0.3818;0.6696;
807.0000;0.3826;0.6696;
807.3000;0.3818;0.6696;
807.6000;0.3761;0.6721;
807.9000;0.3801;0.6818;
808.2000;0.3793;0.6818;
808.5000;0.3810;0.6794;
808.8000;0.3826;0.6721;
809.1000;0.3834;0.6648;
809.4000;0.3801;0.6648;
809.7000;0.3810;0.6721;
810.0000;0.3826;0.6769;
810.3000;0.3810;0.6745;
810.6000;0.3761;0.6721;
810.9000;0.3793;0.6745;
811.2000;0.3826;0.6794;
811.5000;0.3818;0.6769;
811.8000;0.3810;0.6696;
812.1000;0.3826;0.6672;
812.4000;0.3810;0.6599;
812.7000;0.3728;0.6331;
813.0000;0.3826;0.6550;
813.3000;0.3793;0.6526;
813.6000;0.3801;0.6623;
813.9000;0.3826;0.6672;
814.2000;0.3810;0.6672;
814.5000;0.3801;0.6648;
814.8000;0.3785;0.6550;
815.1000;0.3826;0.6672;
815.4000;0.3793;0.6623;
815.7000;0.3818;0.6672;
816.0000;0.3801;0.6672;
816.3000;0.3793;0.6696;
816.6000;0.3801;0.6696;
816.9000;0.3801;0.6818;
817.2000;0.3801;0.6842;
817.5000;0.3801;0.6818;
817.8000;0.3810;0.6818;
818.1000;0.3810;0.6794;
818.4000;0.3761;0.6648;
818.7000;0.3793;0.6672;
819.0000;0.3810;0.6696;
819.3000;0.3785;0.6648;
819.6000;0.3810;0.6696;
819.9000;0.3801;0.6599;
820.2000;0.3801;0.6623;
820.5000;0.3801;0.6672;
820.8000;0.3793;0.6623;
821.1000;0.3834;0.6794;
821.4000;0.3810;0.6794;
821.7000;0.3842;0.6867;
822.0000;0.3801;0.6867;
822.3000;0.3785;0.6769;
822.6000;0.3818;0.6818;
822.9000;0.3858;0.6988;
823.2000;0.3793;0.6891;
823.5000;0.3801;0.6988;
823.8000;0.3761;0.6915;
824.1000;0.3801;0.6988;
824.4000;0.3793;0.6842;
824.7000;0.3777;0.6794;
825.0000;0.3712;0.6623;
825.3000;0.3785;0.6891;
825.6000;0.3777;0.6891;
825.9000;0.3801;0.6891;
826.2000;0.3793;0.6867;
826.5000;0.3801;0.6867;
826.8000;0.3793;0.6818;
827.1000;0.3810;0.6745;
827.4000;0.3785;0.6648;
827.7000;0.3777;0.6599;
828.0000;0.3810;0.6696;
828.3000;0.3826;0.6721;
828.6000;0.3801;0.6672;
828.9000;0.3810;0.6696;
829.2000;0.3793;0.6623;
829.5000;0.3810;0.6648;
829.8000;0.3777;0.6575;
830.1000;0.3785;0.6575;
830.4000;0.3801;0.6623;
830.7000;0.3801;0.6672;
831.0000;0.3793;0.6648;
831.3000;0.3785;0.6696;
831.6000;0.3777;0.6623;
831.9000;0.3777;0.6672;
832.2000;0.3793;0.6769;
832.5000;0.3801;0.6794;
832.8000;0.3793;0.6721;
833.1000;0.3720;0.6477;
833.4000;0.3801;0.6648;
833.7000;0.3761;0.6672;
834.0000;0.3793;0.6745;
834.3000;0.3785;0.6672;
834.6000;0.3793;0.6575;
834.9000;0.3769;0.6575;
835.2000;0.3777;0.6648;
835.5000;0.3793;0.6696;
835.8000;0.3818;0.6745;
836.1000;0.3769;0.6599;
836.4000;0.3810;0.6623;
836.7000;0.3793;0.6526;
837.0000;0.3785;0.6526;
837.3000;0.3801;0.6575;
837.6000;0.3818;0.6672;
837.9000;0.3793;0.6721;
838.2000;0.3818;0.6696;
838.5000;0.3810;0.6721;
838.8000;0.3810;0.6623;
839.1000;0.3801;0.6623;
839.4000;0.3785;0.6526;
839.7000;0.3801;0.6575;
840.0000;0.3769;0.6648;
840.3000;0.3785;0.6672;
840.6000;0.3777;0.6623;
840.9000;0.3801;0.6696;
841.2000;0.3810;0.6769;
841.5000;0.3793;0.6696;
841.8000;0.3801;0.6721;
842.1000;0.3793;0.6696;
842.4000;0.3810;0.6648;
842.7000;0.3793;0.6623;
843.0000;0.3785;0.6623;
843.3000;0.3785;0.6623;
843.6000;0.3826;0.6721;
843.9000;0.3793;0.6648;
844.2000;0.3785;0.6769;
844.5000;0.3696;0.6428;
844.8000;0.3785;0.6623;
845.1000;0.3777;0.6623;
845.4000;0.3769;0.6599;
845.7000;0.3777;0.6696;
846.0000;0.3793;0.6623;
846.3000;0.3785;0.6623;
846.6000;0.3907;0.6891;
846.9000;0.3899;0.6842;
847.2000;0.3793;0.6599;
847.5000;0.3793;0.6672;
847.8000;0.3793;0.6623;
848.1000;0.3736;0.6501;
848.4000;0.3793;0.6648;
848.7000;0.3777;0.6599;
849.0000;0.3761;0.6477;
849.3000;0.3801;0.6599;
849.6000;0.3793;0.6501;
849.9000;0.3777;0.6575;
850.2000;0.3793;0.6599;
850.5000;0.3777;0.6575;
850.8000;0.3850;0.6842;
851.1000;0.3801;0.6745;
851.4000;0.3761;0.6696;
851.7000;0.3785;0.6648;
852.0000;0.3875;0.6842;
852.3000;0.3753;0.6453;
852.6000;0.3785;0.6550;
852.9000;0.3801;0.6696;
853.2000;0.3793;0.6696;
853.5000;0.3801;0.6721;
853.8000;0.3785;0.6696;
854.1000;0.3842;0.6915;
854.4000;0.3810;0.6794;
854.7000;0.3810;0.6721;
855.0000;0.3785;0.6721;
855.3000;0.3793;0.6721;
855.6000;0.3777;0.6696;
855.9000;0.3785;0.6721;
856.2000;0.3785;0.6623;
856.5000;0.3801;0.6672;
856.8000;0.3793;0.6721;
857.1000;0.3810;0.6794;
857.4000;0.3810;0.6794;
857.7000;0.3785;0.6672;
858.0000;0.3801;0.6721;
858.3000;0.3728;0.6623;
858.6000;0.3801;0.6818;
858.9000;0.3785;0.6696;
859.2000;0.3801;0.6818;
859.5000;0.3785;0.6842;
859.8000;0.3801;0.6891;
860.1000;0.3785;0.6891;
860.4000;0.3785;0.6891;
860.7000;0.3777;0.6769;
861.0000;0.3793;0.6794;
861.3000;0.3761;0.6818;
861.6000;0.3793;0.6794;
861.9000;0.3761;0.6745;
862.2000;0.3777;0.6721;
862.5000;0.3777;0.6696;
862.8000;0.3777;0.6696;
863.1000;0.3785;0.6648;
863.4000;0.3801;0.6672;
863.7000;0.3785;0.6599;
864.0000;0.3793;0.6575;
864.3000;0.3801;0.6623;
864.6000;0.3801;0.6769;
864.9000;0.3793;0.6696;
865.2000;0.3777;0.6721;
865.5000;0.3801;0.6769;
865.8000;0.3785;0.6794;
866.1000;0.3793;0.6842;
866.4000;0.3801;0.6818;
866.7000;0.3769;0.6769;
867.0000;0.3744;0.6696;
867.3000;0.3785;0.6721;
867.6000;0.3818;0.6721;
867.9000;0.3793;0.6769;
868.2000;0.3801;0.6842;
868.5000;0.3777;0.6672;
868.8000;0.3801;0.6599;
869.1000;0.3785;0.6550;
869.4000;0.3777;0.6623;
869.7000;0.3834;0.6794;
870.0000;0.3793;0.6769;
870.3000;0.3785;0.6818;
870.6000;0.3785;0.6818;
870.9000;0.3777;0.6940;
871.2000;0.3793;0.6915;
871.5000;0.3785;0.6915;
871.8000;0.3777;0.6915;
872.1000;0.3777;0.6891;
872.4000;0.3777;0.6842;
872.7000;0.3801;0.6891;
873.0000;0.3801;0.6915;
873.3000;0.3793;0.6818;
873.6000;0.3793;0.6769;
873.9000;0.3801;0.6867;
874.2000;0.3793;0.6891;
874.5000;0.3801;0.6842;
874.8000;0.3801;0.6721;
875.1000;0.3753;0.6599;
875.4000;0.3793;0.6721;
875.7000;0.3793;0.6672;
876.0000;0.3769;0.6672;
876.3000;0.3785;0.6696;
876.6000;0.3785;0.6696;
876.9000;0.3785;0.6745;
877.2000;0.3818;0.6988;
877.5000;0.3785;0.6891;
877.8000;0.3785;0.6867;
878.1000;0.3777;0.6842;
878.4000;0.3826;0.6915;
878.7000;0.3810;0.6867;
879.0000;0.3801;0.6842;
879.3000;0.3810;0.6867;
879.6000;0.3810;0.6769;
879.9000;0.3785;0.6648;
880.2000;0.3801;0.6648;
880.5000;0.3793;0.6599;
880.8000;0.3793;0.6623;
881.1000;0.3785;0.6550;
881.4000;0.3801;0.6550;
881.7000;0.3875;0.6867;
882.0000;0.3875;0.6940;
882.3000;0.3793;0.6818;
882.6000;0.3777;0.6867;
882.9000;0.3801;0.6940;
883.2000;0.3801;0.6891;
883.5000;0.3793;0.6891;
883.8000;0.3785;0.6940;
884.1000;0.3810;0.6940;
884.4000;0.3793;0.6818;
884.7000;0.3777;0.6769;
885.0000;0.3785;0.6842;
885.3000;0.3801;0.6818;
885.6000;0.3793;0.6769;
885.9000;0.3793;0.6794;
886.2000;0.3801;0.6867;
886.5000;0.3810;0.6867;
886.8000;0.3777;0.6696;
887.1000;0.3785;0.6672;
887.4000;0.3785;0.6745;
887.7000;0.3801;0.6818;
888.0000;0.3793;0.6745;
888.3000;0.3793;0.6794;
888.6000;0.3785;0.6818;
888.9000;0.3777;0.6794;
889.2000;0.3785;0.6794;
889.5000;0.3777;0.6818;
889.8000;0.3777;0.6891;
890.1000;0.3810;0.6964;
890.4000;0.3810;0.6964;
890.7000;0.3810;0.6915;
891.0000;0.3777;0.6842;
891.3000;0.3753;0.6769;
891.6000;0.3712;0.6623;
891.9000;0.3777;0.6842;
892.2000;0.3793;0.6842;
892.5000;0.3826;0.6842;
892.8000;0.3793;0.6721;
893.1000;0.3785;0.6672;
893.4000;0.3793;0.6696;
893.7000;0.3785;0.6672;
894.0000;0.3777;0.6672;
894.3000;0.3793;0.6696;
894.6000;0.3785;0.6794;
894.9000;0.3769;0.6721;
895.2000;0.3785;0.6769;
895.5000;0.3785;0.6769;
895.8000;0.3744;0.6599;
896.1000;0.3769;0.6721;
896.4000;0.3753;0.6599;
896.7000;0.3793;0.6648;
897.0000;0.3777;0.6599;
897.3000;0.3834;0.6721;
897.6000;0.3785;0.6721;
897.9000;0.3801;0.6721;
898.2000;0.3801;0.6696;
898.5000;0.3793;0.6599;
898.8000;0.3793;0.6575;
899.1000;0.3801;0.6648;
899.4000;0.3736;0.6453;
899.7000;0.3810;0.6672;
900.0000;0.3834;0.6842;
900.3000;0.3777;0.6721;
900.6000;0.3785;0.6672;
900.9000;0.3826;0.6721;
901.2000;0.3761;0.6599;
901.5000;0.3818;0.6769;
901.8000;0.3753;0.6648;
902.1000;0.3785;0.6696;
902.4000;0.3769;0.6648;
902.7000;0.3826;0.6794;
903.0000;0.3761;0.6623;
903.3000;0.3785;0.6648;
903.6000;0.3793;0.6769;
903.9000;0.3801;0.6794;
904.2000;0.3801;0.6769;
904.5000;0.3793;0.6721;
904.8000;0.3761;0.6623;
905.1000;0.3785;0.6696;
905.4000;0.3761;0.6623;
905.7000;0.3793;0.6623;
906.0000;0.3810;0.6769;
906.3000;0.3785;0.6745;
906.6000;0.3777;0.6721;
906.9000;0.3793;0.6696;
907.2000;0.3785;0.6769;
907.5000;0.3785;0.6745;
907.8000;0.3793;0.6769;
908.1000;0.3777;0.6769;
908.4000;0.3761;0.6745;
908.7000;0.3801;0.6818;
909.0000;0.3720;0.6696;
909.3000;0.3769;0.6891;
909.6000;0.3777;0.6867;
909.9000;0.3761;0.6794;
910.2000;0.3761;0.6769;
910.5000;0.3801;0.6818;
910.8000;0.3769;0.6721;
911.1000;0.3793;0.6623;
911.4000;0.3785;0.6648;
911.7000;0.3777;0.6672;
912.0000;0.3834;0.6696;
912.3000;0.3777;0.6526;
912.6000;0.3761;0.6477;
912.9000;0.3712;0.6355;
913.2000;0.3801;0.6526;
913.5000;0.3793;0.6501;
913.8000;0.3793;0.6599;
914.1000;0.3696;0.6380;
914.4000;0.3801;0.6575;
914.7000;0.3801;0.6648;
915.0000;0.3867;0.6794;
915.3000;0.3785;0.6696;
915.6000;0.3728;0.6501;
915.9000;0.3842;0.6769;
916.2000;0.3777;0.6648;
916.5000;0.3777;0.6575;
916.8000;0.3761;0.6575;
917.1000;0.3777;0.6648;
917.4000;0.3785;0.6769;
917.7000;0.3915;0.7013;
918.0000;0.3785;0.6721;
918.3000;0.3761;0.6599;
918.6000;0.3736;0.6575;
918.9000;0.3793;0.6648;
919.2000;0.3858;0.6745;
919.5000;0.3769;0.6648;
919.8000;0.3826;0.6818;
920.1000;0.3785;0.6721;
920.4000;0.3793;0.6672;
920.7000;0.3793;0.6672;
921.0000;0.3867;0.6867;
921.3000;0.3834;0.6696;
921.6000;0.3769;0.6550;
921.9000;0.3744;0.6526;
922.2000;0.3777;0.6550;
922.5000;0.3769;0.6575;
922.8000;0.3785;0.6599;
923.1000;0.3777;0.6501;
923.4000;0.3810;0.6623;
923.7000;0.3793;0.6501;
924.0000;0.3801;0.6599;
924.3000;0.3801;0.6672;
924.6000;0.3810;0.6769;
924.9000;0.3793;0.6745;
925.2000;0.3793;0.6721;
925.5000;0.3696;0.6428;
925.8000;0.3785;0.6599;
926.1000;0.3810;0.6648;
926.4000;0.3769;0.6575;
926.7000;0.3753;0.6453;
927.0000;0.3753;0.6404;
927.3000;0.3785;0.6477;
927.6000;0.3777;0.6623;
927.9000;0.3761;0.6745;
928.2000;0.3769;0.6818;
928.5000;0.3777;0.6769;
928.8000;0.3785;0.6769;
929.1000;0.3769;0.6745;
929.4000;0.3785;0.6696;
929.7000;0.3801;0.6648;
930.0000;0.3801;0.6623;
930.3000;0.3793;0.6599;
930.6000;0.3761;0.6550;
930.9000;0.3793;0.6648;
931.2000;0.3801;0.6648;
931.5000;0.3793;0.6575;
931.8000;0.3785;0.6428;
932.1000;0.3801;0.6550;
932.4000;0.3769;0.6453;
932.7000;0.3769;0.6428;
933.0000;0.3801;0.6526;
933.3000;0.3785;0.6501;
933.6000;0.3785;0.6648;
933.9000;0.3753;0.6672;
934.2000;0.3744;0.6696;
934.5000;0.3777;0.6769;
934.8000;0.3785;0.6672;
935.1000;0.3744;0.6623;
935.4000;0.3785;0.6721;
935.7000;0.3761;0.6648;
936.0000;0.3801;0.6696;
936.3000;0.3785;0.6794;
936.6000;0.3769;0.6867;
936.9000;0.3761;0.6940;
937.2000;0.3793;0.6915;
937.5000;0.3761;0.6769;
937.8000;0.3769;0.6842;
938.1000;0.3761;0.6745;
938.4000;0.3801;0.6794;
938.7000;0.3777;0.6745;
939.0000;0.3777;0.6721;
939.3000;0.3850;0.6964;
939.6000;0.3736;0.6648;
939.9000;0.3801;0.6745;
940.2000;0.3761;0.6501;
940.5000;0.3777;0.6648;
940.8000;0.3777;0.6599;
941.1000;0.3793;0.6648;
941.4000;0.3785;0.6745;
941.7000;0.3769;0.6696;
942.0000;0.3801;0.6672;
942.3000;0.3801;0.6599;
942.6000;0.3761;0.6501;
942.9000;0.3777;0.6672;
943.2000;0.3777;0.6599;
943.5000;0.3777;0.6477;
943.8000;0.3712;0.6404;
944.1000;0.3769;0.6501;
944.4000;0.3777;0.6501;
944.7000;0.3785;0.6672;
945.0000;0.3769;0.6599;
945.3000;0.3834;0.6769;
945.6000;0.3793;0.6696;
945.9000;0.3785;0.6623;
946.2000;0.3777;0.6672;
946.5000;0.3785;0.6721;
946.8000;0.3801;0.6794;
947.1000;0.3785;0.6818;
947.4000;0.3777;0.6721;
947.7000;0.3761;0.6648;
948.0000;0.3777;0.6648;
948.3000;0.3777;0.6623;
948.6000;0.3769;0.6672;
948.9000;0.3785;0.6648;
949.2000;0.3777;0.6672;
949.5000;0.3769;0.6769;
949.8000;0.3875;0.6940;
950.1000;0.3761;0.6648;
950.4000;0.3793;0.6769;
950.7000;0.3761;0.6721;
951.0000;0.3753;0.6672;
951.3000;0.3761;0.6672;
951.6000;0.3769;0.6648;
951.9000;0.3785;0.6672;
952.2000;0.3777;0.6672;
952.5000;0.3769;0.6769;
952.8000;0.3818;0.6818;
953.1000;0.3785;0.6745;
953.4000;0.3761;0.6696;
953.7000;0.3769;0.6745;
954.0000;0.3777;0.6696;
954.3000;0.3777;0.6648;
954.6000;0.3801;0.6769;
954.9000;0.3785;0.6818;
955.2000;0.3777;0.6721;
955.5000;0.3769;0.6818;
955.8000;0.3793;0.6818;
956.1000;0.3777;0.6818;
956.4000;0.3793;0.6794;
956.7000;0.3801;0.6721;
957.0000;0.3793;0.6623;
957.3000;0.3761;0.6477;
957.6000;0.3810;0.6648;
957.9000;0.3785;0.6599;
958.2000;0.3769;0.6623;
958.5000;0.3728;0.6453;
958.8000;0.3769;0.6599;
959.1000;0.3785;0.6648;
959.4000;0.3826;0.6696;
959.7000;0.3826;0.6721;
960.0000;0.3785;0.6623;
960.3000;0.3801;0.6721;
960.6000;0.3777;0.6696;
960.9000;0.3826;0.6891;
961.2000;0.3769;0.6672;
961.5000;0.3777;0.6648;
961.8000;0.3769;0.6599;
962.1000;0.3793;0.6721;
962.4000;0.3704;0.6526;
962.7000;0.3810;0.6818;
963.0000;0.3777;0.6745;
963.3000;0.3810;0.6818;
963.6000;0.3687;0.6526;
963.9000;0.3785;0.6721;
964.2000;0.3785;0.6745;
964.5000;0.3777;0.6721;
964.8000;0.3785;0.6745;
965.1000;0.3801;0.6745;
965.4000;0.3777;0.6648;
965.7000;0.3753;0.6575;
966.0000;0.3834;0.6818;
966.3000;0.3777;0.6648;
966.6000;0.3769;0.6672;
966.9000;0.3810;0.6818;
967.2000;0.3777;0.6721;
967.5000;0.3769;0.6696;
967.8000;0.3769;0.6648;
968.1000;0.3785;0.6696;
968.4000;0.3801;0.6648;
968.7000;0.3785;0.6501;
969.0000;0.3769;0.6428;
969.3000;0.3777;0.6477;
969.6000;0.3777;0.6526;
969.9000;0.3785;0.6599;
970.2000;0.3777;0.6526;
970.5000;0.3785;0.6501;
970.8000;0.3785;0.6623;
971.1000;0.3801;0.6721;
971.4000;0.3785;0.6648;
971.7000;0.3753;0.6648;
972.0000;0.3769;0.6721;
972.3000;0.3777;0.6696;
972.6000;0.3777;0.6672;
972.9000;0.3753;0.6599;
973.2000;0.3753;0.6477;
973.5000;0.3785;0.6453;
973.8000;0.3777;0.6526;
974.1000;0.3753;0.6404;
974.4000;0.3785;0.6526;
974.7000;0.3769;0.6501;
975.0000;0.3793;0.6501;
975.3000;0.3777;0.6477;
975.6000;0.3801;0.6599;
975.9000;0.3785;0.6648;
976.2000;0.3769;0.6526;
976.5000;0.3769;0.6550;
976.8000;0.3793;0.6599;
977.1000;0.3761;0.6453;
977.4000;0.3761;0.6453;
977.7000;0.3810;0.6550;
978.0000;0.3777;0.6404;
978.3000;0.3785;0.6453;
978.6000;0.3801;0.6550;
978.9000;0.3777;0.6501;
979.2000;0.3785;0.6526;
979.5000;0.3785;0.6575;
979.8000;0.3793;0.6477;
980.1000;0.3777;0.6477;
980.4000;0.3793;0.6526;
980.7000;0.3793;0.6721;
981.0000;0.3761;0.6721;
981.3000;0.3801;0.6769;
981.6000;0.3761;0.6769;
981.9000;0.3777;0.6818;
982.2000;0.3785;0.6818;
982.5000;0.3769;0.6794;
982.8000;0.3761;0.6818;
983.1000;0.3777;0.6769;
983.4000;0.3801;0.6794;
983.7000;0.3777;0.6794;
984.0000;0.3769;0.6745;
984.3000;0.3753;0.6648;
984.6000;0.3769;0.6599;
984.9000;0.3793;0.6648;
985.2000;0.3785;0.6575;
985.5000;0.3818;0.6721;
985.8000;0.3769;0.6648;
986.1000;0.3785;0.6721;
986.4000;0.3720;0.6623;
986.7000;0.3769;0.6623;
987.0000;0.3777;0.6575;
987.3000;0.3777;0.6550;
987.6000;0.3777;0.6501;
987.9000;0.3769;0.6526;
988.2000;0.3761;0.6428;
988.5000;0.3769;0.6501;
988.8000;0.3761;0.6477;
989.1000;0.3777;0.6550;
989.4000;0.3777;0.6550;
989.7000;0.3744;0.6380;
990.0000;0.3834;0.6550;
990.3000;0.3793;0.6526;
990.6000;0.3761;0.6501;
990.9000;0.3785;0.6453;
991.2000;0.3777;0.6428;
991.5000;0.3793;0.6404;
991.8000;0.3753;0.6428;
992.1000;0.3769;0.6453;
992.4000;0.3769;0.6477;
992.7000;0.3867;0.6867;
993.0000;0.3761;0.6721;
993.3000;0.3728;0.6672;
993.6000;0.3761;0.6721;
993.9000;0.3769;0.6696;
994.2000;0.3785;0.6794;
994.5000;0.3785;0.6721;
994.8000;0.3801;0.6672;
995.1000;0.3785;0.6623;
995.4000;0.3785;0.6672;
995.7000;0.3720;0.6526;
996.0000;0.3801;0.6794;
996.3000;0.3793;0.6842;
996.6000;0.3785;0.6794;
996.9000;0.3777;0.6769;
997.2000;0.3785;0.6794;
997.5000;0.3777;0.6721;
997.8000;0.3761;0.6794;
998.1000;0.3777;0.6867;
998.4000;0.3793;0.6915;
998.7000;0.3753;0.6915;
999.0000;0.3785;0.6915;
999.3000;0.3753;0.6818;
999.6000;0.3769;0.6891;
999.9000;0.3826;0.7062;
1000.2000;0.3785;0.6964;
1000.5000;0.3785;0.6867;
1000.8000;0.3769;0.6842;
1001.1000;0.3777;0.6964;
1001.4000;0.3793;0.6842;
1001.7000;0.3801;0.6964;
1002.0000;0.3785;0.6818;
1002.3000;0.3801;0.6794;
1002.6000;0.3810;0.6818;
1002.9000;0.3826;0.6988;
1003.2000;0.3867;0.7135;
1003.5000;0.3785;0.7013;
1003.8000;0.3696;0.6794;
1004.1000;0.3793;0.7086;
1004.4000;0.3736;0.6867;
1004.7000;0.3834;0.7013;
1005.0000;0.3769;0.6818;
1005.3000;0.3785;0.6842;
1005.6000;0.3761;0.6721;
1005.9000;0.3769;0.6794;
1006.2000;0.3753;0.6745;
1006.5000;0.3785;0.6794;
1006.8000;0.3842;0.6891;
1007.1000;0.3769;0.6696;
1007.4000;0.3785;0.6672;
1007.7000;0.3777;0.6672;
1008.0000;0.3777;0.6721;
1008.3000;0.3834;0.6769;
1008.6000;0.3793;0.6721;
1008.9000;0.3777;0.6696;
1009.2000;0.3753;0.6696;
1009.5000;0.3769;0.6696;
1009.8000;0.3761;0.6745;
1010.1000;0.3793;0.6769;
1010.4000;0.3777;0.6721;
1010.7000;0.3753;0.6672;
1011.0000;0.3769;0.6672;
1011.3000;0.3777;0.6745;
1011.6000;0.3777;0.6818;
1011.9000;0.3793;0.6794;
1012.2000;0.3834;0.6867;
1012.5000;0.3793;0.6769;
1012.8000;0.3777;0.6769;
1013.1000;0.3769;0.6721;
1013.4000;0.3801;0.6721;
1013.7000;0.3761;0.6623;
1014.0000;0.3777;0.6599;
1014.3000;0.3785;0.6648;
1014.6000;0.3712;0.6501;
1014.9000;0.3753;0.6599;
1015.2000;0.3761;0.6623;
1015.5000;0.3777;0.6648;
1015.8000;0.3785;0.6721;
1016.1000;0.3777;0.6696;
1016.4000;0.3777;0.6721;
1016.7000;0.3793;0.6818;
1017.0000;0.3785;0.6818;
1017.3000;0.3769;0.6769;
1017.6000;0.3777;0.6721;
1017.9000;0.3810;0.6745;
1018.2000;0.3785;0.6721;
1018.5000;0.3785;0.6721;
1018.8000;0.3777;0.6575;
1019.1000;0.3777;0.6550;
1019.4000;0.3777;0.6501;
1019.7000;0.3777;0.6575;
1020.0000;0.3785;0.6575;
1020.3000;0.3761;0.6501;
1020.6000;0.3761;0.6550;
1020.9000;0.3769;0.6550;
1021.2000;0.3785;0.6477;
1021.5000;0.3777;0.6428;
1021.8000;0.3810;0.6477;
1022.1000;0.3801;0.6428;
1022.4000;0.3777;0.6428;
1022.7000;0.3753;0.6282;
1023.0000;0.3858;0.6575;
1023.3000;0.3777;0.6355;
1023.6000;0.3785;0.6404;
1023.9000;0.3769;0.6477;
1024.2000;0.3785;0.6501;
1024.5000;0.3744;0.6501;
1024.8000;0.3753;0.6599;
1025.1000;0.3744;0.6599;
1025.4000;0.3777;0.6623;
1025.7000;0.3777;0.6575;
1026.0000;0.3761;0.6526;
1026.3000;0.3777;0.6672;
1026.6000;0.3761;0.6623;
1026.9000;0.3769;0.6648;
1027.2000;0.3777;0.6696;
1027.5000;0.3769;0.6648;
1027.8000;0.3785;0.6721;
1028.1000;0.3777;0.6648;
1028.4000;0.3793;0.6575;
1028.7000;0.3793;0.6623;
1029.0000;0.3785;0.6769;
1029.3000;0.3753;0.6672;
1029.6000;0.3785;0.6648;
1029.9000;0.3777;0.6623;
1030.2000;0.3777;0.6623;
1030.5000;0.3785;0.6599;
1030.8000;0.3801;0.6672;
1031.1000;0.3761;0.6575;
1031.4000;0.3785;0.6648;
1031.7000;0.3777;0.6623;
1032.0000;0.3777;0.6599;
1032.3000;0.3834;0.6769;
1032.6000;0.3801;0.6648;
1032.9000;0.3753;0.6575;
1033.2000;0.3777;0.6623;
1033.5000;0.3728;0.6453;
1033.8000;0.3777;0.6672;
1034.1000;0.3761;0.6648;
1034.4000;0.3777;0.6745;
1034.7000;0.3761;0.6696;
1035.0000;0.3777;0.6794;
1035.3000;0.3769;0.6721;
1035.6000;0.3785;0.6721;
1035.9000;0.3793;0.6794;
1036.2000;0.3777;0.6672;
1036.5000;0.3777;0.6769;
1036.8000;0.3761;0.6623;
1037.1000;0.3744;0.6575;
1037.4000;0.3785;0.6648;
1037.7000;0.3761;0.6599;
1038.0000;0.3777;0.6599;
1038.3000;0.3761;0.6501;
1038.6000;0.3785;0.6477;
1038.9000;0.3785;0.6526;
1039.2000;0.3777;0.6599;
1039.5000;0.3785;0.6696;
1039.8000;0.3793;0.6721;
1040.1000;0.3785;0.6599;
1040.4000;0.3801;0.6696;
1040.7000;0.3850;0.6794;
1041.0000;0.3801;0.6672;
1041.3000;0.3777;0.6623;
1041.6000;0.3793;0.6550;
1041.9000;0.3769;0.6526;
1042.2000;0.3785;0.6526;
1042.5000;0.3785;0.6575;
1042.8000;0.3793;0.6599;
1043.1000;0.3769;0.6696;
1043.4000;0.3761;0.6599;
1043.7000;0.3777;0.6623;
1044.0000;0.3720;0.6501;
1044.3000;0.3777;0.6550;
1044.6000;0.3761;0.6575;
1044.9000;0.3761;0.6721;
1045.2000;0.3777;0.6769;
1045.5000;0.3761;0.6769;
1045.8000;0.3777;0.6721;
1046.1000;0.3777;0.6769;
1046.4000;0.3793;0.6794;
1046.7000;0.3801;0.6769;
1047.0000;0.3761;0.6672;
1047.3000;0.3777;0.6672;
1047.6000;0.3777;0.6721;
1047.9000;0.3744;0.6672;
1048.2000;0.3769;0.6721;
1048.5000;0.3761;0.6648;
1048.8000;0.3761;0.6648;
1049.1000;0.3769;0.6696;
1049.4000;0.3777;0.6648;
1049.7000;0.3761;0.6623;
1050.0000;0.3777;0.6696;
1050.3000;0.3769;0.6794;
1050.6000;0.3744;0.6745;
1050.9000;0.3769;0.6721;
1051.2000;0.3777;0.6696;
1051.5000;0.3728;0.6599;
1051.8000;0.3769;0.6818;
1052.1000;0.3769;0.6818;
1052.4000;0.3777;0.6842;
1052.7000;0.3785;0.6794;
1053.0000;0.3810;0.6794;
1053.3000;0.3679;0.6550;
1053.6000;0.3744;0.6696;
1053.9000;0.3769;0.6623;
1054.2000;0.3858;0.6842;
1054.5000;0.3671;0.6355;
1054.8000;0.3801;0.6599;
1055.1000;0.3777;0.6575;
1055.4000;0.3793;0.6623;
1055.7000;0.3720;0.6404;
1056.0000;0.3777;0.6623;
1056.3000;0.3793;0.6721;
1056.6000;0.3785;0.6648;
1056.9000;0.3785;0.6648;
1057.2000;0.3785;0.6623;
1057.5000;0.3777;0.6623;
1057.8000;0.3793;0.6672;
1058.1000;0.3736;0.6477;
1058.4000;0.3769;0.6672;
1058.7000;0.3834;0.6794;
1059.0000;0.3785;0.6721;
1059.3000;0.3777;0.6721;
1059.6000;0.3785;0.6769;
1059.9000;0.3777;0.6769;
1060.2000;0.3785;0.6842;
1060.5000;0.3785;0.6842;
1060.8000;0.3769;0.6794;
1061.1000;0.3777;0.6891;
1061.4000;0.3785;0.6964;
1061.7000;0.3785;0.6940;
1062.0000;0.3761;0.6915;
1062.3000;0.3793;0.7013;
1062.6000;0.3777;0.6940;
1062.9000;0.3785;0.6988;
1063.2000;0.3777;0.6964;
1063.5000;0.3785;0.6842;
1063.8000;0.3793;0.6769;
1064.1000;0.3769;0.6745;
1064.4000;0.3769;0.6696;
1064.7000;0.3761;0.6623;
1065.0000;0.3753;0.6599;
1065.3000;0.3777;0.6623;
1065.6000;0.3769;0.6648;
1065.9000;0.3777;0.6672;
1066.2000;0.3785;0.6721;
1066.5000;0.3761;0.6599;
1066.8000;0.3883;0.6769;
1067.1000;0.3769;0.6550;
1067.4000;0.3826;0.6672;
1067.7000;0.3769;0.6526;
1068.0000;0.3793;0.6550;
1068.3000;0.3785;0.6526;
1068.6000;0.3761;0.6526;
1068.9000;0.3647;0.6331;
1069.2000;0.3793;0.6672;
1069.5000;0.3785;0.6672;
1069.8000;0.3793;0.6745;
1070.1000;0.3777;0.6721;
1070.4000;0.3785;0.6696;
1070.7000;0.3753;0.6672;
1071.0000;0.3777;0.6745;
1071.3000;0.3761;0.6769;
1071.6000;0.3785;0.6842;
1071.9000;0.3777;0.6721;
1072.2000;0.3761;0.6648;
1072.5000;0.3712;0.6453;
1072.8000;0.3769;0.6623;
1073.1000;0.3761;0.6648;
1073.4000;0.3777;0.6696;
1073.7000;0.3769;0.6696;
1074.0000;0.3777;0.6672;
1074.3000;0.3744;0.6672;
1074.6000;0.3793;0.6769;
1074.9000;0.3826;0.6794;
1075.2000;0.3777;0.6721;
1075.5000;0.3801;0.6794;
1075.8000;0.3793;0.6818;
1076.1000;0.3810;0.6915;
1076.4000;0.3793;0.6818;
1076.7000;0.3785;0.6818;
1077.0000;0.3777;0.6794;
1077.3000;0.3785;0.6842;
1077.6000;0.3761;0.6794;
1077.9000;0.3785;0.6842;
1078.2000;0.3793;0.6818;
1078.5000;0.3761;0.6648;
1078.8000;0.3744;0.6599;
1079.1000;0.3761;0.6648;
1079.4000;0.3671;0.6355;
1079.7000;0.3818;0.6745;
1080.0000;0.3785;0.6672;
1080.3000;0.3777;0.6623;
1080.6000;0.3785;0.6672;
1080.9000;0.3753;0.6672;
1081.2000;0.3777;0.6696;
1081.5000;0.3777;0.6648;
1081.8000;0.3720;0.6550;
1082.1000;0.3720;0.6526;
1082.4000;0.3777;0.6696;
1082.7000;0.3744;0.6599;
1083.0000;0.3777;0.6696;
1083.3000;0.3761;0.6672;
1083.6000;0.3785;0.6721;
1083.9000;0.3761;0.6672;
1084.2000;0.3777;0.6648;
1084.5000;0.3761;0.6745;
1084.8000;0.3761;0.6721;
1085.1000;0.3777;0.6721;
1085.4000;0.3761;0.6721;
1085.7000;0.3801;0.6867;
1086.0000;0.3769;0.6769;
1086.3000;0.3769;0.6745;
1086.6000;0.3793;0.6721;
1086.9000;0.3777;0.6599;
1087.2000;0.3769;0.6672;
1087.5000;0.3761;0.6623;
1087.8000;0.3769;0.6623;
1088.1000;0.3769;0.6745;
1088.4000;0.3785;0.6842;
1088.7000;0.3810;0.6915;
1089.0000;0.3753;0.6842;
1089.3000;0.3761;0.6842;
1089.6000;0.3769;0.6794;
1089.9000;0.3769;0.6769;
1090.2000;0.3777;0.6769;
1090.5000;0.3858;0.6940;
1090.8000;0.3793;0.6696;
1091.1000;0.3785;0.6672;
1091.4000;0.3720;0.6477;
1091.7000;0.3761;0.6550;
1092.0000;0.3785;0.6550;
1092.3000;0.3818;0.6648;
1092.6000;0.3818;0.6745;
1092.9000;0.3785;0.6721;
1093.2000;0.3793;0.6745;
1093.5000;0.3793;0.6818;
1093.8000;0.3761;0.6672;
1094.1000;0.3761;0.6696;
1094.4000;0.3793;0.6915;
1094.7000;0.3793;0.6988;
1095.0000;0.3867;0.7086;
1095.3000;0.3810;0.6915;
1095.6000;0.3777;0.6818;
1095.9000;0.3793;0.6867;
1096.2000;0.3793;0.6964;
1096.5000;0.3761;0.6915;
1096.8000;0.3769;0.6842;
1097.1000;0.3761;0.6891;
1097.4000;0.3785;0.6915;
1097.7000;0.3769;0.6867;
1098.0000;0.3769;0.6867;
1098.3000;0.3793;0.6891;
1098.6000;0.3785;0.6818;
1098.9000;0.3785;0.6867;
1099.2000;0.3793;0.6891;
1099.5000;0.3777;0.6891;
1099.8000;0.3785;0.6915;
1100.1000;0.3744;0.6769;
1100.4000;0.3769;0.6818;
1100.7000;0.3826;0.6988;
1101.0000;0.3785;0.6915;
1101.3000;0.3810;0.6891;
1101.6000;0.3793;0.6867;
1101.9000;0.3785;0.6818;
1102.2000;0.3769;0.6794;
1102.5000;0.3753;0.6721;
1102.8000;0.3777;0.6696;
1103.1000;0.3753;0.6672;
1103.4000;0.3761;0.6696;
1103.7000;0.3777;0.6623;
1104.0000;0.3744;0.6599;
1104.3000;0.3858;0.6940;
1104.6000;0.3834;0.6818;
1104.9000;0.3744;0.6526;
1105.2000;0.3777;0.6575;
1105.5000;0.3761;0.6550;
1105.8000;0.3761;0.6623;
1106.1000;0.3720;0.6526;
1106.4000;0.3769;0.6672;
1106.7000;0.3761;0.6769;
1107.0000;0.3753;0.6696;
1107.3000;0.3687;0.6501;
1107.6000;0.3777;0.6745;
1107.9000;0.3777;0.6721;
1108.2000;0.3761;0.6721;
1108.5000;0.3769;0.6745;
1108.8000;0.3769;0.6696;
1109.1000;0.3769;0.6696;
1109.4000;0.3777;0.6721;
1109.7000;0.3785;0.6794;
1110.0000;0.3810;0.6818;
1110.3000;0.3769;0.6745;
1110.6000;0.3777;0.6769;
1110.9000;0.3761;0.6648;
1111.2000;0.3744;0.6550;
1111.5000;0.3777;0.6623;
1111.8000;0.3761;0.6623;
1112.1000;0.3793;0.6696;
1112.4000;0.3785;0.6696;
1112.7000;0.3777;0.6648;
1113.0000;0.3785;0.6599;
1113.3000;0.3785;0.6623;
1113.6000;0.3769;0.6696;
1113.9000;0.3785;0.6818;
1114.2000;0.3769;0.6818;
1114.5000;0.3826;0.6891;
1114.8000;0.3793;0.6891;
1115.1000;0.3769;0.6891;
1115.4000;0.3687;0.6721;
1115.7000;0.3769;0.6794;
1116.0000;0.3777;0.6794;
1116.3000;0.3736;0.6599;
1116.6000;0.3761;0.6672;
1116.9000;0.3769;0.6672;
1117.2000;0.3785;0.6745;
1117.5000;0.3761;0.6721;
1117.8000;0.3826;0.6940;
1118.1000;0.3753;0.6769;
1118.4000;0.3777;0.6794;
1118.7000;0.3777;0.6794;
1119.0000;0.3785;0.6721;
1119.3000;0.3777;0.6648;
1119.6000;0.3777;0.6526;
1119.9000;0.3769;0.6477;
1120.2000;0.3712;0.6307;
1120.5000;0.3769;0.6428;
1120.8000;0.3761;0.6501;
1121.1000;0.3753;0.6477;
1121.4000;0.3777;0.6501;
1121.7000;0.3785;0.6453;
1122.0000;0.3753;0.6428;
1122.3000;0.3736;0.6355;
1122.6000;0.3744;0.6355;
1122.9000;0.3761;0.6380;
1123.2000;0.3785;0.6477;
1123.5000;0.3785;0.6575;
1123.8000;0.3785;0.6550;
1124.1000;0.3793;0.6696;
1124.4000;0.3777;0.6769;
1124.7000;0.3753;0.6696;
1125.0000;0.3769;0.6648;
1125.3000;0.3785;0.6623;
1125.6000;0.3810;0.6721;
1125.9000;0.3769;0.6623;
1126.2000;0.3777;0.6672;
1126.5000;0.3712;0.6526;
1126.8000;0.3753;0.6648;
1127.1000;0.3769;0.6745;
1127.4000;0.3769;0.6745;
1127.7000;0.3793;0.6818;
1128.0000;0.3753;0.6721;
1128.3000;0.3777;0.6867;
1128.6000;0.3818;0.6915;
1128.9000;0.3728;0.6769;
1129.2000;0.3793;0.7037;
1129.5000;0.3769;0.6964;
1129.8000;0.3810;0.6988;
1130.1000;0.3785;0.6915;
1130.4000;0.3793;0.6940;
1130.7000;0.3777;0.6842;
1131.0000;0.3777;0.6867;
1131.3000;0.3867;0.7062;
1131.6000;0.3777;0.6721;
1131.9000;0.3777;0.6818;
1132.2000;0.3761;0.6794;
1132.5000;0.3769;0.6721;
1132.8000;0.3777;0.6696;
1133.1000;0.3810;0.6842;
1133.4000;0.3785;0.6721;
1133.7000;0.3785;0.6745;
1134.0000;0.3810;0.6818;
1134.3000;0.3818;0.6769;
1134.6000;0.3801;0.6818;
1134.9000;0.3769;0.6696;
1135.2000;0.3793;0.6696;
1135.5000;0.3777;0.6672;
1135.8000;0.3777;0.6721;
1136.1000;0.3785;0.6648;
1136.4000;0.3818;0.6696;
1136.7000;0.3777;0.6672;
1137.0000;0.3785;0.6672;
1137.3000;0.3777;0.6696;
1137.6000;0.3769;0.6696;
1137.9000;0.3810;0.6769;
1138.2000;0.3769;0.6696;
1138.5000;0.3785;0.6648;
1138.8000;0.3785;0.6526;
1139.1000;0.3777;0.6526;
1139.4000;0.3777;0.6623;
1139.7000;0.3793;0.6672;
1140.0000;0.3793;0.6769;
1140.3000;0.3801;0.6842;
1140.6000;0.3801;0.6769;
1140.9000;0.3785;0.6672;
1141.2000;0.3728;0.6501;
1141.5000;0.3761;0.6599;
1141.8000;0.3810;0.6721;
1142.1000;0.3777;0.6526;
1142.4000;0.3761;0.6501;
1142.7000;0.3777;0.6623;
1143.0000;0.3769;0.6745;
1143.3000;0.3769;0.6721;
1143.6000;0.3753;0.6648;
1143.9000;0.3761;0.6696;
1144.2000;0.3761;0.6721;
1144.5000;0.3793;0.6818;
1144.8000;0.3826;0.6842;
1145.1000;0.3777;0.6648;
1145.4000;0.3761;0.6599;
1145.7000;0.3769;0.6623;
1146.0000;0.3769;0.6623;
1146.3000;0.3753;0.6526;
1146.6000;0.3777;0.6648;
1146.9000;0.3793;0.6745;
1147.2000;0.3687;0.6599;
1147.5000;0.3753;0.6672;
1147.8000;0.3777;0.6721;
1148.1000;0.3753;0.6745;
1148.4000;0.3834;0.6891;
1148.7000;0.3761;0.6915;
1149.0000;0.3793;0.7037;
1149.3000;0.3785;0.6988;
1149.6000;0.3785;0.6940;
1149.9000;0.3753;0.6745;
1150.2000;0.3777;0.6818;
1150.5000;0.3785;0.6842;
1150.8000;0.3769;0.6794;
1151.1000;0.3785;0.6891;
1151.4000;0.3769;0.6940;
1151.7000;0.3696;0.6672;
1152.0000;0.3777;0.6867;
1152.3000;0.3785;0.6842;
1152.6000;0.3736;0.6696;
1152.9000;0.3785;0.6794;
1153.2000;0.3785;0.6794;
1153.5000;0.3687;0.6477;
1153.8000;0.3777;0.6745;
1154.1000;0.3818;0.6867;
1154.4000;0.3761;0.6745;
1154.7000;0.3785;0.6769;
1155.0000;0.3785;0.6769;
1155.3000;0.3761;0.6696;
1155.6000;0.3777;0.6745;
1155.9000;0.3753;0.6672;
1156.2000;0.3785;0.6769;
1156.5000;0.3777;0.6721;
1156.8000;0.3777;0.6575;
1157.1000;0.3753;0.6599;
1157.4000;0.3777;0.6672;
1157.7000;0.3761;0.6818;
1158.0000;0.3655;0.6550;
1158.3000;0.3761;0.6940;
1158.6000;0.3769;0.6964;
1158.9000;0.3744;0.6818;
1159.2000;0.3777;0.6891;
1159.5000;0.3785;0.6964;
1159.8000;0.3793;0.6867;
1160.1000;0.3777;0.6818;
1160.4000;0.3777;0.6891;
1160.7000;0.3810;0.7037;
1161.0000;0.3793;0.6964;
1161.3000;0.3777;0.6940;
1161.6000;0.3720;0.6842;
1161.9000;0.3785;0.6988;
1162.2000;0.3753;0.6867;
1162.5000;0.3769;0.6915;
1162.8000;0.3769;0.6891;
1163.1000;0.3785;0.6867;
1163.4000;0.3769;0.6915;
1163.7000;0.3793;0.7013;
1164.0000;0.3785;0.6988;
1164.3000;0.3769;0.7013;
1164.6000;0.3785;0.7037;
1164.9000;0.3777;0.6964;
1165.2000;0.3744;0.6867;
1165.5000;0.3761;0.6867;
1165.8000;0.3777;0.6891;
1166.1000;0.3777;0.6867;
1166.4000;0.3801;0.6940;
1166.7000;0.3736;0.6794;
1167.0000;0.3818;0.6842;
1167.3000;0.3867;0.6964;
1167.6000;0.3777;0.6721;
1167.9000;0.3777;0.6794;
1168.2000;0.3777;0.6842;
1168.5000;0.3769;0.6794;
1168.8000;0.3769;0.6745;
1169.1000;0.3785;0.6794;
1169.4000;0.3785;0.6769;
1169.7000;0.3810;0.6964;
1170.0000;0.3801;0.6867;
1170.3000;0.3728;0.6696;
1170.6000;0.3777;0.6794;
1170.9000;0.3793;0.6818;
1171.2000;0.3761;0.6818;
1171.5000;0.3801;0.6940;
1171.8000;0.3777;0.6891;
1172.1000;0.3769;0.6915;
1172.4000;0.3785;0.6964;
1172.7000;0.3769;0.6988;
1173.0000;0.3777;0.7062;
1173.3000;0.3785;0.6988;
1173.6000;0.3785;0.6964;
1173.9000;0.3801;0.6988;
1174.2000;0.3761;0.6940;
1174.5000;0.3777;0.6940;
1174.8000;0.3793;0.6915;
1175.1000;0.3769;0.6769;
1175.4000;0.3777;0.6794;
1175.7000;0.3769;0.6794;
1176.0000;0.3793;0.6940;
1176.3000;0.3777;0.6867;
1176.6000;0.3810;0.7013;
1176.9000;0.3777;0.6964;
1177.2000;0.3761;0.6891;
1177.5000;0.3769;0.6915;
1177.8000;0.3720;0.6769;
1178.1000;0.3777;0.6964;
1178.4000;0.3753;0.6964;
1178.7000;0.3777;0.7062;
1179.0000;0.3777;0.7037;
1179.3000;0.3769;0.7110;
1179.6000;0.3769;0.6988;
1179.9000;0.3785;0.6940;
1180.2000;0.3785;0.7037;
1180.5000;0.3777;0.7062;
1180.8000;0.3769;0.7037;
1181.1000;0.3777;0.6964;
1181.4000;0.3777;0.6915;
1181.7000;0.3769;0.6867;
1182.0000;0.3769;0.6891;
1182.3000;0.3785;0.6867;
1182.6000;0.3753;0.6769;
1182.9000;0.3777;0.6745;
1183.2000;0.3785;0.6769;
1183.5000;0.3777;0.6891;
1183.8000;0.3769;0.6964;
1184.1000;0.3793;0.6940;
1184.4000;0.3777;0.6867;
1184.7000;0.3769;0.6769;
1185.0000;0.3736;0.6721;
1185.3000;0.3753;0.6696;
1185.6000;0.3785;0.6794;
1185.9000;0.3777;0.6842;
1186.2000;0.3769;0.7013;
1186.5000;0.3834;0.7256;
1186.8000;0.3777;0.7183;
1187.1000;0.3761;0.7183;
1187.4000;0.3753;0.7159;
1187.7000;0.3769;0.7159;
1188.0000;0.3753;0.7013;
1188.3000;0.3736;0.6842;
1188.6000;0.3769;0.6867;
1188.9000;0.3777;0.6842;
1189.2000;0.3769;0.6842;
1189.5000;0.3777;0.6891;
1189.8000;0.3785;0.6915;
1190.1000;0.3777;0.6794;
1190.4000;0.3761;0.6769;
1190.7000;0.3777;0.6842;
1191.0000;0.3785;0.6867;
1191.3000;0.3793;0.6867;
1191.6000;0.3761;0.6794;
1191.9000;0.3753;0.6769;
1192.2000;0.3753;0.6721;
1192.5000;0.3777;0.6769;
1192.8000;0.3785;0.6769;
1193.1000;0.3769;0.6769;
1193.4000;0.3810;0.6818;
1193.7000;0.3769;0.6672;
1194.0000;0.3777;0.6794;
1194.3000;0.3793;0.6915;
1194.6000;0.3736;0.6818;
1194.9000;0.3850;0.7013;
1195.2000;0.3834;0.6988;
1195.5000;0.3793;0.6988;
1195.8000;0.3720;0.6745;
1196.1000;0.3842;0.6915;
1196.4000;0.3753;0.6623;
1196.7000;0.3736;0.6526;
1197.0000;0.3785;0.6745;
1197.3000;0.3753;0.6672;
1197.6000;0.3842;0.6891;
1197.9000;0.3728;0.6599;
1198.2000;0.3777;0.6745;
1198.5000;0.3769;0.6672;
1198.8000;0.3769;0.6623;
1199.1000;0.3785;0.6623;
1199.4000;0.3785;0.6575;
1199.7000;0.3785;0.6501;
1200.0000;0.3777;0.6575;
1200.3000;0.3785;0.6599;
1200.6000;0.3777;0.6599;
1200.9000;0.3769;0.6501;
1201.2000;0.3744;0.6477;
1201.5000;0.3761;0.6648;
1201.8000;0.3801;0.6891;
1202.1000;0.3883;0.7086;
1202.4000;0.3744;0.6794;
1202.7000;0.3785;0.6940;
1203.0000;0.3777;0.6891;
1203.3000;0.3769;0.6891;
1203.6000;0.3769;0.6940;
1203.9000;0.3769;0.6964;
1204.2000;0.3769;0.7013;
1204.5000;0.3736;0.6842;
1204.8000;0.3769;0.6891;
1205.1000;0.3785;0.6915;
1205.4000;0.3785;0.6842;
1205.7000;0.3801;0.6842;
1206.0000;0.3777;0.6891;
1206.3000;0.3793;0.6940;
1206.6000;0.3777;0.6818;
1206.9000;0.3777;0.6818;
1207.2000;0.3785;0.6769;
1207.5000;0.3761;0.6721;
1207.8000;0.3761;0.6672;
1208.1000;0.3793;0.6599;
1208.4000;0.3818;0.6550;
1208.7000;0.3761;0.6380;
1209.0000;0.3761;0.6428;
1209.3000;0.3769;0.6501;
1209.6000;0.3785;0.6501;
1209.9000;0.3842;0.6745;
1210.2000;0.3793;0.6745;
1210.5000;0.3785;0.6818;
1210.8000;0.3769;0.6818;
1211.1000;0.3777;0.6745;
1211.4000;0.3777;0.6696;
1211.7000;0.3753;0.6794;
1212.0000;0.3761;0.6867;
1212.3000;0.3761;0.6940;
1212.6000;0.3761;0.6964;
1212.9000;0.3793;0.6891;
1213.2000;0.3769;0.6867;
1213.5000;0.3753;0.6769;
1213.8000;0.3761;0.6769;
1214.1000;0.3777;0.6818;
1214.4000;0.3777;0.6818;
1214.7000;0.3761;0.6769;
1215.0000;0.3777;0.6818;
1215.3000;0.3777;0.6769;
1215.6000;0.3769;0.6769;
1215.9000;0.3793;0.6818;
1216.2000;0.3785;0.6818;
1216.5000;0.3761;0.6721;
1216.8000;0.3793;0.6745;
1217.1000;0.3793;0.6745;
1217.4000;0.3785;0.6842;
1217.7000;0.3777;0.6818;
1218.0000;0.3867;0.7135;
1218.3000;0.3777;0.6915;
1218.6000;0.3793;0.6915;
1218.9000;0.3777;0.6794;
1219.2000;0.3793;0.6842;
1219.5000;0.3753;0.6672;
1219.8000;0.3769;0.6648;
1220.1000;0.3761;0.6526;
1220.4000;0.3777;0.6623;
1220.7000;0.3785;0.6648;
1221.0000;0.3842;0.6769;
1221.3000;0.3736;0.6453;
1221.6000;0.3761;0.6550;
1221.9000;0.3785;0.6501;
1222.2000;0.3744;0.6428;
1222.5000;0.3679;0.6380;
1222.8000;0.3858;0.6988;
1223.1000;0.3720;0.6648;
1223.4000;0.3769;0.6672;
1223.7000;0.3769;0.6648;
1224.0000;0.3769;0.6575;
1224.3000;0.3777;0.6672;
1224.6000;0.3777;0.6648;
1224.9000;0.3777;0.6648;
1225.2000;0.3777;0.6696;
1225.5000;0.3753;0.6696;
1225.8000;0.3769;0.6769;
1226.1000;0.3891;0.6988;
1226.4000;0.3777;0.6623;
1226.7000;0.3769;0.6477;
1227.0000;0.3769;0.6599;
1227.3000;0.3777;0.6575;
1227.6000;0.3785;0.6648;
1227.9000;0.3777;0.6575;
1228.2000;0.3761;0.6575;
1228.5000;0.3810;0.6672;
1228.8000;0.3777;0.6599;
1229.1000;0.3842;0.6623;
1229.4000;0.3785;0.6575;
1229.7000;0.3777;0.6599;
1230.0000;0.3793;0.6648;
1230.3000;0.3753;0.6599;
1230.6000;0.3769;0.6550;
1230.9000;0.3785;0.6575;
1231.2000;0.3801;0.6599;
1231.5000;0.3728;0.6428;
1231.8000;0.3793;0.6550;
1232.1000;0.3687;0.6282;
1232.4000;0.3818;0.6623;
1232.7000;0.3769;0.6501;
1233.0000;0.3777;0.6453;
1233.3000;0.3777;0.6575;
1233.6000;0.3785;0.6648;
1233.9000;0.3761;0.6794;
1234.2000;0.3769;0.6842;
1234.5000;0.3785;0.6818;
1234.8000;0.3769;0.6745;
1235.1000;0.3777;0.6769;
1235.4000;0.3761;0.6745;
1235.7000;0.3744;0.6794;
1236.0000;0.3785;0.6867;
1236.3000;0.3785;0.6867;
1236.6000;0.3785;0.6818;
1236.9000;0.3769;0.6794;
1237.2000;0.3777;0.6867;
1237.5000;0.3793;0.6940;
1237.8000;0.3753;0.6867;
1238.1000;0.3753;0.6842;
1238.4000;0.3777;0.6891;
1238.7000;0.3744;0.6891;
1239.0000;0.3769;0.6842;
1239.3000;0.3785;0.6769;
1239.6000;0.3753;0.6721;
1239.9000;0.3785;0.6867;
1240.2000;0.3753;0.6794;
1240.5000;0.3736;0.6696;
1240.8000;0.3769;0.6891;
1241.1000;0.3793;0.6867;
1241.4000;0.3793;0.6769;
1241.7000;0.3793;0.6745;
1242.0000;0.3785;0.6721;
1242.3000;0.3761;0.6721;
1242.6000;0.3728;0.6550;
1242.9000;0.3810;0.6745;
1243.2000;0.3793;0.6769;
1243.5000;0.3753;0.6599;
1243.8000;0.3793;0.6721;
1244.1000;0.3785;0.6672;
1244.4000;0.3761;0.6648;
1244.7000;0.3793;0.6891;
1245.0000;0.3769;0.6769;
1245.3000;0.3761;0.6794;
1245.6000;0.3761;0.6867;
1245.9000;0.3769;0.6794;
1246.2000;0.3753;0.6818;
1246.5000;0.3769;0.6794;
1246.8000;0.3728;0.6672;
1247.1000;0.3769;0.6769;
1247.4000;0.3777;0.6769;
1247.7000;0.3785;0.6818;
1248.0000;0.3761;0.6842;
1248.3000;0.3736;0.6769;
1248.6000;0.3777;0.6915;
1248.9000;0.3777;0.6940;
1249.2000;0.3753;0.6745;
1249.5000;0.3793;0.6818;
1249.8000;0.3785;0.6842;
1250.1000;0.3769;0.6794;
1250.4000;0.3777;0.6745;
1250.7000;0.3785;0.6721;
1251.0000;0.3785;0.6745;
1251.3000;0.3793;0.6721;
1251.6000;0.3777;0.6696;
1251.9000;0.3744;0.6696;
1252.2000;0.3769;0.6818;
1252.5000;0.3801;0.6964;
1252.8000;0.3810;0.7013;
1253.1000;0.3793;0.6818;
1253.4000;0.3785;0.6794;
1253.7000;0.3761;0.6794;
1254.0000;0.3777;0.6867;
1254.3000;0.3785;0.6867;
1254.6000;0.3777;0.6915;
1254.9000;0.3761;0.6915;
1255.2000;0.3801;0.6964;
1255.5000;0.3753;0.6794;
1255.8000;0.3826;0.7013;
1256.1000;0.3793;0.7013;
1256.4000;0.3777;0.7013;
1256.7000;0.3769;0.7086;
1257.0000;0.3736;0.6988;
1257.3000;0.3769;0.7062;
1257.6000;0.3736;0.6891;
1257.9000;0.3736;0.6891;
1258.2000;0.3785;0.6988;
1258.5000;0.3785;0.6988;
1258.8000;0.3834;0.7135;
1259.1000;0.3761;0.6988;
1259.4000;0.3744;0.6891;
1259.7000;0.3753;0.6867;
1260.0000;0.3769;0.6794;
1260.3000;0.3753;0.6623;
1260.6000;0.3769;0.6745;
1260.9000;0.3753;0.6696;
1261.2000;0.3785;0.6842;
1261.5000;0.3769;0.6745;
1261.8000;0.3769;0.6769;
1262.1000;0.3785;0.6769;
1262.4000;0.3761;0.6721;
1262.7000;0.3801;0.6842;
1263.0000;0.3793;0.6915;
1263.3000;0.3744;0.6769;
1263.6000;0.3777;0.6842;
1263.9000;0.3801;0.6891;
1264.2000;0.3761;0.6769;
1264.5000;0.3785;0.6745;
1264.8000;0.3793;0.6867;
1265.1000;0.3753;0.6842;
1265.4000;0.3777;0.6915;
1265.7000;0.3801;0.6915;
1266.0000;0.3769;0.6940;
1266.3000;0.3793;0.6964;
1266.6000;0.3777;0.6940;
1266.9000;0.3785;0.6964;
1267.2000;0.3793;0.7037;
1267.5000;0.3785;0.6964;
1267.8000;0.3785;0.6988;
1268.1000;0.3801;0.6964;
1268.4000;0.3785;0.6940;
1268.7000;0.3769;0.6891;
1269.0000;0.3785;0.6915;
1269.3000;0.3785;0.6867;
1269.6000;0.3744;0.6696;
1269.9000;0.3769;0.6842;
1270.2000;0.3736;0.6818;
1270.5000;0.3761;0.6794;
1270.8000;0.3736;0.6769;
1271.1000;0.3769;0.6964;
1271.4000;0.3785;0.6940;
1271.7000;0.3850;0.7110;
1272.0000;0.3801;0.7013;
1272.3000;0.3720;0.6867;
1272.6000;0.3785;0.6940;
1272.9000;0.3777;0.6915;
1273.2000;0.3785;0.6964;
1273.5000;0.3777;0.6915;
1273.8000;0.3785;0.6915;
1274.1000;0.3777;0.6964;
1274.4000;0.3777;0.6915;
1274.7000;0.3769;0.6867;
1275.0000;0.3777;0.6842;
1275.3000;0.3785;0.6794;
1275.6000;0.3801;0.6891;
1275.9000;0.3785;0.6915;
1276.2000;0.3769;0.6915;
1276.5000;0.3769;0.6915;
1276.8000;0.3801;0.7037;
1277.1000;0.3810;0.6964;
1277.4000;0.3761;0.6915;
1277.7000;0.3793;0.6988;
1278.0000;0.3761;0.6940;
1278.3000;0.3777;0.7062;
1278.6000;0.3753;0.7159;
1278.9000;0.3777;0.7159;
1279.2000;0.3744;0.6988;
1279.5000;0.3826;0.7062;
1279.8000;0.3818;0.6988;
1280.1000;0.3769;0.6769;
1280.4000;0.3777;0.6794;
1280.7000;0.3769;0.6769;
1281.0000;0.3810;0.6940;
1281.3000;0.3777;0.6891;
1281.6000;0.3785;0.6867;
1281.9000;0.3753;0.6867;
1282.2000;0.3761;0.6818;
1282.5000;0.3761;0.6794;
1282.8000;0.3769;0.6818;
1283.1000;0.3777;0.6818;
1283.4000;0.3785;0.6867;
1283.7000;0.3769;0.6794;
1284.0000;0.3769;0.6721;
1284.3000;0.3761;0.6794;
1284.6000;0.3793;0.6842;
1284.9000;0.3761;0.6769;
1285.2000;0.3761;0.6794;
1285.5000;0.3744;0.6818;
1285.8000;0.3769;0.6940;
1286.1000;0.3753;0.6842;
1286.4000;0.3793;0.6867;
1286.7000;0.3769;0.6867;
1287.0000;0.3793;0.6915;
1287.3000;0.3785;0.6915;
1287.6000;0.3761;0.6891;
1287.9000;0.3785;0.6794;
1288.2000;0.3777;0.6818;
1288.5000;0.3777;0.6818;
1288.8000;0.3769;0.6769;
1289.1000;0.3818;0.6867;
1289.4000;0.3761;0.6745;
1289.7000;0.3777;0.6672;
1290.0000;0.3793;0.6769;
1290.3000;0.3761;0.6672;
1290.6000;0.3785;0.6769;
1290.9000;0.3777;0.6794;
1291.2000;0.3769;0.6818;
1291.5000;0.3769;0.6867;
1291.8000;0.3753;0.6818;
1292.1000;0.3769;0.6891;
1292.4000;0.3777;0.6842;
1292.7000;0.3785;0.6867;
1293.0000;0.3761;0.6891;
1293.3000;0.3793;0.6891;
1293.6000;0.3704;0.6648;
1293.9000;0.3777;0.6818;
1294.2000;0.3777;0.6891;
1294.5000;0.3769;0.6842;
1294.8000;0.3785;0.6915;
1295.1000;0.3761;0.6842;
1295.4000;0.3810;0.6867;
1295.7000;0.3687;0.6623;
1296.0000;0.3793;0.6818;
1296.3000;0.3777;0.6842;
1296.6000;0.3793;0.6891;
1296.9000;0.3761;0.6818;
1297.2000;0.3777;0.6842;
1297.5000;0.3777;0.6915;
1297.8000;0.3761;0.6891;
1298.1000;0.3785;0.6940;
1298.4000;0.3777;0.6915;
1298.7000;0.3761;0.6867;
1299.0000;0.3810;0.7037;
1299.3000;0.3793;0.7013;
1299.6000;0.3761;0.7013;
1299.9000;0.3801;0.6988;
1300.2000;0.3687;0.6696;
1300.5000;0.3761;0.6915;
1300.8000;0.3777;0.6915;
1301.1000;0.3777;0.6867;
1301.4000;0.3769;0.6818;
1301.7000;0.3769;0.6842;
1302.0000;0.3793;0.6940;
1302.3000;0.3785;0.6940;
1302.6000;0.3736;0.6915;
1302.9000;0.3785;0.7062;
1303.2000;0.3785;0.7037;
1303.5000;0.3769;0.6964;
1303.8000;0.3769;0.7062;
1304.1000;0.3761;0.7037;
1304.4000;0.3761;0.6988;
1304.7000;0.3744;0.6867;
1305.0000;0.3761;0.6794;
1305.3000;0.3769;0.6794;
1305.6000;0.3769;0.6696;
1305.9000;0.3785;0.6745;
1306.2000;0.3761;0.6648;
1306.5000;0.3753;0.6672;
1306.8000;0.3785;0.6745;
1307.1000;0.3777;0.6769;
1307.4000;0.3744;0.6769;
1307.7000;0.3769;0.6794;
1308.0000;0.3785;0.6842;
1308.3000;0.3744;0.6818;
1308.6000;0.3761;0.6794;
1308.9000;0.3761;0.6794;
1309.2000;0.3753;0.6818;
1309.5000;0.3769;0.6794;
1309.8000;0.3769;0.6721;
1310.1000;0.3793;0.6745;
1310.4000;0.3785;0.6721;
1310.7000;0.3761;0.6696;
1311.0000;0.3744;0.6648;
1311.3000;0.3720;0.6599;
1311.6000;0.3761;0.6696;
1311.9000;0.3769;0.6745;
1312.2000;0.3777;0.6891;
1312.5000;0.3777;0.6842;
1312.8000;0.3785;0.6794;
1313.1000;0.3793;0.6721;
1313.4000;0.3801;0.6794;
1313.7000;0.3801;0.6794;
1314.0000;0.3793;0.6794;
1314.3000;0.3785;0.6769;
1314.6000;0.3777;0.6769;
1314.9000;0.3769;0.6769;
1315.2000;0.3785;0.6794;
1315.5000;0.3801;0.6891;
1315.8000;0.3753;0.6794;
1316.1000;0.3761;0.6721;
1316.4000;0.3761;0.6623;
1316.7000;0.3761;0.6550;
1317.0000;0.3769;0.6623;
1317.3000;0.3761;0.6623;
1317.6000;0.3753;0.6623;
1317.9000;0.3777;0.6721;
1318.2000;0.3728;0.6672;
1318.5000;0.3761;0.6818;
1318.8000;0.3793;0.6867;
1319.1000;0.3842;0.6867;
1319.4000;0.3793;0.6818;
1319.7000;0.3777;0.6769;
1320.0000;0.3785;0.6842;
1320.3000;0.3777;0.6769;
1320.6000;0.3769;0.6721;
1320.9000;0.3753;0.6769;
1321.2000;0.3761;0.6818;
1321.5000;0.3810;0.6964;
1321.8000;0.3777;0.6891;
1322.1000;0.3761;0.6769;
1322.4000;0.3793;0.6867;
1322.7000;0.3761;0.6891;
1323.0000;0.3777;0.6842;
1323.3000;0.3753;0.6769;
1323.6000;0.3777;0.6867;
1323.9000;0.3769;0.6842;
1324.2000;0.3777;0.6842;
1324.5000;0.3801;0.6891;
1324.8000;0.3793;0.6818;
1325.1000;0.3769;0.6842;
1325.4000;0.3818;0.6915;
1325.7000;0.3761;0.6842;
1326.0000;0.3761;0.6818;
1326.3000;0.3769;0.6745;
1326.6000;0.3704;0.6648;
1326.9000;0.3761;0.6769;
1327.2000;0.3744;0.6696;
1327.5000;0.3769;0.6721;
1327.8000;0.3761;0.6696;
1328.1000;0.3761;0.6672;
1328.4000;0.3761;0.6721;
1328.7000;0.3785;0.6794;
1329.0000;0.3785;0.6915;
1329.3000;0.3777;0.6940;
1329.6000;0.3777;0.6867;
1329.9000;0.3777;0.6915;
1330.2000;0.3777;0.6891;
1330.5000;0.3769;0.6915;
1330.8000;0.3769;0.6964;
1331.1000;0.3753;0.6915;
1331.4000;0.3769;0.6842;
1331.7000;0.3777;0.6842;
1332.0000;0.3777;0.6818;
1332.3000;0.3777;0.6867;
1332.6000;0.3761;0.6769;
1332.9000;0.3777;0.6818;
1333.2000;0.3801;0.6842;
1333.5000;0.3801;0.6794;
1333.8000;0.3793;0.6696;
1334.1000;0.3793;0.6696;
1334.4000;0.3769;0.6672;
1334.7000;0.3793;0.6842;
1335.0000;0.3785;0.6818;
1335.3000;0.3761;0.6867;
1335.6000;0.3777;0.6940;
1335.9000;0.3801;0.6915;
1336.2000;0.3777;0.6842;
1336.5000;0.3842;0.6940;
1336.8000;0.3793;0.6769;
1337.1000;0.3777;0.6891;
1337.4000;0.3785;0.6891;
1337.7000;0.3704;0.6623;
1338.0000;0.3785;0.6818;
1338.3000;0.3777;0.6891;
1338.6000;0.3753;0.6915;
1338.9000;0.3761;0.6915;
1339.2000;0.3793;0.6891;
1339.5000;0.3810;0.6867;
1339.8000;0.3728;0.6721;
1340.1000;0.3761;0.6818;
1340.4000;0.3777;0.6794;
1340.7000;0.3801;0.6867;
1341.0000;0.3769;0.6794;
1341.3000;0.3785;0.6672;
1341.6000;0.3744;0.6550;
1341.9000;0.3875;0.6964;
1342.2000;0.3736;0.6672;
1342.5000;0.3777;0.6794;
1342.8000;0.3801;0.6940;
1343.1000;0.3769;0.6867;
1343.4000;0.3785;0.6915;
1343.7000;0.3744;0.6794;
1344.0000;0.3826;0.6915;
1344.3000;0.3777;0.6769;
1344.6000;0.3801;0.6867;
1344.9000;0.3769;0.6915;
1345.2000;0.3777;0.6964;
1345.5000;0.3777;0.6940;
1345.8000;0.3793;0.6915;
1346.1000;0.3810;0.6964;
1346.4000;0.3777;0.6915;
1346.7000;0.3793;0.6842;
1347.0000;0.3842;0.6891;
1347.3000;0.3785;0.6891;
1347.6000;0.3736;0.6794;
1347.9000;0.3769;0.6867;
1348.2000;0.3793;0.6915;
1348.5000;0.3785;0.6842;
1348.8000;0.3777;0.6842;
1349.1000;0.3761;0.6891;
1349.4000;0.3793;0.7037;
1349.7000;0.3761;0.6940;
1350.0000;0.3785;0.6940;
1350.3000;0.3777;0.6842;
1350.6000;0.3785;0.6794;
1350.9000;0.3793;0.6745;
1351.2000;0.3801;0.6794;
1351.5000;0.3769;0.6794;
1351.8000;0.3785;0.6867;
1352.1000;0.3785;0.6867;
1352.4000;0.3687;0.6672;
1352.7000;0.3744;0.6794;
1353.0000;0.3744;0.6818;
1353.3000;0.3761;0.6891;
1353.6000;0.3769;0.6891;
1353.9000;0.3744;0.6769;
1354.2000;0.3769;0.6794;
1354.5000;0.3793;0.6842;
1354.8000;0.3769;0.6769;
1355.1000;0.3810;0.6842;
1355.4000;0.3769;0.6672;
1355.7000;0.3777;0.6818;
1356.0000;0.3850;0.6964;
1356.3000;0.3785;0.6794;
1356.6000;0.3769;0.6794;
1356.9000;0.3777;0.6818;
1357.2000;0.3769;0.6867;
1357.5000;0.3793;0.6891;
1357.8000;0.3785;0.6867;
1358.1000;0.3728;0.6769;
1358.4000;0.3769;0.6794;
1358.7000;0.3744;0.6769;
1359.0000;0.3793;0.6940;
1359.3000;0.3736;0.6721;
1359.6000;0.3769;0.6648;
1359.9000;0.3777;0.6696;
1360.2000;0.3761;0.6623;
1360.5000;0.3769;0.6721;
1360.8000;0.3753;0.6721;
1361.1000;0.3744;0.6745;
1361.4000;0.3753;0.6745;
1361.7000;0.3777;0.6769;
1362.0000;0.3761;0.6672;
1362.3000;0.3728;0.6575;
1362.6000;0.3769;0.6721;
1362.9000;0.3720;0.6575;
1363.2000;0.3810;0.6696;
1363.5000;0.3777;0.6721;
1363.8000;0.3712;0.6526;
1364.1000;0.3769;0.6672;
1364.4000;0.3785;0.6696;
1364.7000;0.3769;0.6696;
1365.0000;0.3777;0.6696;
1365.3000;0.3777;0.6648;
1365.6000;0.3753;0.6599;
1365.9000;0.3720;0.6550;
1366.2000;0.3826;0.6769;
1366.5000;0.3793;0.6672;
1366.8000;0.3793;0.6672;
1367.1000;0.3769;0.6623;
1367.4000;0.3793;0.6599;
1367.7000;0.3810;0.6599;
1368.0000;0.3761;0.6501;
1368.3000;0.3777;0.6672;
1368.6000;0.3769;0.6599;
1368.9000;0.3777;0.6599;
1369.2000;0.3769;0.6648;
1369.5000;0.3777;0.6672;
1369.8000;0.3777;0.6672;
1370.1000;0.3769;0.6648;
1370.4000;0.3753;0.6623;
1370.7000;0.3777;0.6599;
1371.0000;0.3769;0.6599;
1371.3000;0.3777;0.6672;
1371.6000;0.3720;0.6477;
1371.9000;0.3769;0.6575;
1372.2000;0.3785;0.6648;
1372.5000;0.3793;0.6672;
1372.8000;0.3777;0.6623;
1373.1000;0.3785;0.6599;
1373.4000;0.3785;0.6648;
1373.7000;0.3753;0.6575;
1374.0000;0.3769;0.6721;
1374.3000;0.3777;0.6721;
1374.6000;0.3777;0.6599;
1374.9000;0.3769;0.6623;
1375.2000;0.3785;0.6648;
1375.5000;0.3769;0.6575;
1375.8000;0.3761;0.6550;
1376.1000;0.3769;0.6623;
1376.4000;0.3777;0.6672;
1376.7000;0.3793;0.6696;
1377.0000;0.3753;0.6575;
1377.3000;0.3744;0.6477;
1377.6000;0.3744;0.6355;
1377.9000;0.3785;0.6453;
1378.2000;0.3769;0.6380;
1378.5000;0.3785;0.6477;
1378.8000;0.3769;0.6501;
1379.1000;0.3801;0.6599;
1379.4000;0.3769;0.6526;
1379.7000;0.3769;0.6526;
1380.0000;0.3704;0.6404;
1380.3000;0.3736;0.6501;
1380.6000;0.3753;0.6550;
1380.9000;0.3761;0.6575;
1381.2000;0.3801;0.6648;
1381.5000;0.3769;0.6599;
1381.8000;0.3850;0.6818;
1382.1000;0.3769;0.6575;
1382.4000;0.3761;0.6599;
1382.7000;0.3769;0.6599;
1383.0000;0.3753;0.6672;
1383.3000;0.3769;0.6794;
1383.6000;0.3744;0.6721;
1383.9000;0.3777;0.6818;
1384.2000;0.3769;0.6769;
1384.5000;0.3753;0.6745;
1384.8000;0.3834;0.6964;
1385.1000;0.3785;0.6842;
1385.4000;0.3777;0.6794;
1385.7000;0.3777;0.6769;
1386.0000;0.3801;0.6818;
1386.3000;0.3761;0.6696;
1386.6000;0.3777;0.6769;
1386.9000;0.3777;0.6696;
1387.2000;0.3818;0.6721;
1387.5000;0.3753;0.6575;
1387.8000;0.3777;0.6599;
1388.1000;0.3785;0.6599;
1388.4000;0.3761;0.6428;
1388.7000;0.3769;0.6477;
1389.0000;0.3769;0.6526;
1389.3000;0.3761;0.6550;
1389.6000;0.3785;0.6721;
1389.9000;0.3769;0.6696;
1390.2000;0.3801;0.6672;
1390.5000;0.3777;0.6623;
1390.8000;0.3793;0.6696;
1391.1000;0.3753;0.6526;
1391.4000;0.3728;0.6453;
1391.7000;0.3777;0.6721;
1392.0000;0.3793;0.6818;
1392.3000;0.3777;0.6769;
1392.6000;0.3777;0.6794;
1392.9000;0.3777;0.6915;
1393.2000;0.3785;0.7013;
1393.5000;0.3785;0.6915;
1393.8000;0.3777;0.6794;
1394.1000;0.3777;0.6769;
1394.4000;0.3785;0.6745;
1394.7000;0.3769;0.6721;
1395.0000;0.3769;0.6769;
1395.3000;0.3785;0.6672;
1395.6000;0.3785;0.6721;
1395.9000;0.3777;0.6721;
1396.2000;0.3793;0.6721;
1396.5000;0.3777;0.6745;
1396.8000;0.3761;0.6745;
1397.1000;0.3769;0.6842;
1397.4000;0.3712;0.6696;
1397.7000;0.3761;0.6769;
1398.0000;0.3761;0.6794;
1398.3000;0.3785;0.6940;
1398.6000;0.3793;0.6964;
1398.9000;0.3777;0.7013;
1399.2000;0.3793;0.6988;
1399.5000;0.3785;0.6988;
1399.8000;0.3777;0.7013;
