time/ms;Fluo/V;P700 deltaI/I x10³;
-199.8000;0.4485;0.7622;
-199.5000;0.4485;0.7573;
-199.2000;0.4477;0.7549;
-198.9000;0.4469;0.7524;
-198.6000;0.4518;0.7622;
-198.3000;0.4501;0.7670;
-198.0000;0.4526;0.7719;
-197.7000;0.4510;0.7719;
-197.4000;0.4501;0.7743;
-197.1000;0.4493;0.7816;
-196.8000;0.4526;0.8084;
-196.5000;0.4485;0.8060;
-196.2000;0.4501;0.8157;
-195.9000;0.4501;0.8206;
-195.6000;0.4526;0.8255;
-195.3000;0.4510;0.8157;
-195.0000;0.4501;0.8206;
-194.7000;0.4501;0.8109;
-194.4000;0.4510;0.8157;
-194.1000;0.4485;0.8036;
-193.8000;0.4501;0.8157;
-193.5000;0.4518;0.8230;
-193.2000;0.4493;0.8036;
-192.9000;0.4518;0.8060;
-192.6000;0.4469;0.7962;
-192.3000;0.4493;0.7987;
-192.0000;0.4493;0.8011;
-191.7000;0.4510;0.8060;
-191.4000;0.4510;0.8157;
-191.1000;0.4534;0.8157;
-190.8000;0.4518;0.8133;
-190.5000;0.4485;0.8084;
-190.2000;0.4493;0.8060;
-189.9000;0.4510;0.8060;
-189.6000;0.4493;0.8133;
-189.3000;0.4501;0.8133;
-189.0000;0.4485;0.8109;
-188.7000;0.4485;0.8157;
-188.4000;0.4493;0.8084;
-188.1000;0.4501;0.8133;
-187.8000;0.4510;0.8060;
-187.5000;0.4510;0.7987;
-187.2000;0.4518;0.8133;
-186.9000;0.4493;0.8036;
-186.6000;0.4428;0.7889;
-186.3000;0.4501;0.7962;
-186.0000;0.4501;0.7987;
-185.7000;0.4518;0.8011;
-185.4000;0.4501;0.7962;
-185.1000;0.4558;0.8109;
-184.8000;0.4510;0.8036;
-184.5000;0.4510;0.8060;
-184.2000;0.4510;0.8109;
-183.9000;0.4501;0.8036;
-183.6000;0.4591;0.8328;
-183.3000;0.4518;0.8036;
-183.0000;0.4501;0.7962;
-182.7000;0.4485;0.7987;
-182.4000;0.4493;0.7987;
-182.1000;0.4485;0.7889;
-181.8000;0.4485;0.7962;
-181.5000;0.4444;0.7792;
-181.2000;0.4477;0.7889;
-180.9000;0.4493;0.7889;
-180.6000;0.4510;0.7938;
-180.3000;0.4493;0.7914;
-180.0000;0.4493;0.7914;
-179.7000;0.4493;0.7962;
-179.4000;0.4485;0.7962;
-179.1000;0.4501;0.8011;
-178.8000;0.4501;0.8036;
-178.5000;0.4518;0.8011;
-178.2000;0.4501;0.7962;
-177.9000;0.4518;0.8060;
-177.6000;0.4501;0.8109;
-177.3000;0.4477;0.8060;
-177.0000;0.4428;0.7865;
-176.7000;0.4518;0.8084;
-176.4000;0.4510;0.7987;
-176.1000;0.4485;0.7938;
-175.8000;0.4461;0.7889;
-175.5000;0.4493;0.7987;
-175.2000;0.4510;0.8084;
-174.9000;0.4501;0.8060;
-174.6000;0.4501;0.8084;
-174.3000;0.4493;0.8084;
-174.0000;0.4510;0.8084;
-173.7000;0.4510;0.7987;
-173.4000;0.4510;0.8011;
-173.1000;0.4518;0.7987;
-172.8000;0.4526;0.7962;
-172.5000;0.4510;0.7962;
-172.2000;0.4501;0.7962;
-171.9000;0.4510;0.7962;
-171.6000;0.4526;0.8011;
-171.3000;0.4510;0.7987;
-171.0000;0.4501;0.8011;
-170.7000;0.4518;0.8109;
-170.4000;0.4518;0.8060;
-170.1000;0.4501;0.8084;
-169.8000;0.4534;0.8182;
-169.5000;0.4510;0.8084;
-169.2000;0.4501;0.8133;
-168.9000;0.4534;0.8255;
-168.6000;0.4510;0.8182;
-168.3000;0.4510;0.8230;
-168.0000;0.4501;0.8109;
-167.7000;0.4542;0.8230;
-167.4000;0.4518;0.8157;
-167.1000;0.4501;0.8011;
-166.8000;0.4477;0.7938;
-166.5000;0.4493;0.7962;
-166.2000;0.4485;0.7841;
-165.9000;0.4501;0.7889;
-165.6000;0.4518;0.7962;
-165.3000;0.4510;0.7938;
-165.0000;0.4493;0.8011;
-164.7000;0.4518;0.8060;
-164.4000;0.4591;0.8352;
-164.1000;0.4510;0.8133;
-163.8000;0.4510;0.8109;
-163.5000;0.4501;0.8084;
-163.2000;0.4493;0.8109;
-162.9000;0.4493;0.8133;
-162.6000;0.4510;0.8182;
-162.3000;0.4501;0.8182;
-162.0000;0.4510;0.8206;
-161.7000;0.4469;0.8182;
-161.4000;0.4477;0.8109;
-161.1000;0.4510;0.8157;
-160.8000;0.4510;0.8157;
-160.5000;0.4501;0.8060;
-160.2000;0.4493;0.7987;
-159.9000;0.4477;0.7914;
-159.6000;0.4501;0.7914;
-159.3000;0.4485;0.7865;
-159.0000;0.4501;0.7914;
-158.7000;0.4526;0.8109;
-158.4000;0.4518;0.8011;
-158.1000;0.4510;0.8011;
-157.8000;0.4501;0.8011;
-157.5000;0.4493;0.8060;
-157.2000;0.4501;0.8133;
-156.9000;0.4518;0.8206;
-156.6000;0.4493;0.8133;
-156.3000;0.4510;0.8182;
-156.0000;0.4501;0.8109;
-155.7000;0.4485;0.7962;
-155.4000;0.4501;0.8036;
-155.1000;0.4501;0.7962;
-154.8000;0.4493;0.8036;
-154.5000;0.4501;0.8036;
-154.2000;0.4526;0.8157;
-153.9000;0.4501;0.8060;
-153.6000;0.4501;0.8036;
-153.3000;0.4501;0.8036;
-153.0000;0.4510;0.8109;
-152.7000;0.4493;0.8084;
-152.4000;0.4477;0.8060;
-152.1000;0.4526;0.8133;
-151.8000;0.4510;0.8133;
-151.5000;0.4501;0.8036;
-151.2000;0.4501;0.7987;
-150.9000;0.4526;0.8182;
-150.6000;0.4510;0.8109;
-150.3000;0.4493;0.8011;
-150.0000;0.4510;0.8036;
-149.7000;0.4518;0.8084;
-149.4000;0.4493;0.8011;
-149.1000;0.4518;0.8084;
-148.8000;0.4501;0.8011;
-148.5000;0.4518;0.8109;
-148.2000;0.4510;0.8011;
-147.9000;0.4485;0.7962;
-147.6000;0.4501;0.7962;
-147.3000;0.4501;0.7962;
-147.0000;0.4510;0.7914;
-146.7000;0.4575;0.8109;
-146.4000;0.4493;0.7914;
-146.1000;0.4501;0.7914;
-145.8000;0.4518;0.7962;
-145.5000;0.4501;0.7987;
-145.2000;0.4493;0.7938;
-144.9000;0.4501;0.7987;
-144.6000;0.4469;0.7962;
-144.3000;0.4493;0.8060;
-144.0000;0.4501;0.8133;
-143.7000;0.4493;0.8109;
-143.4000;0.4510;0.8182;
-143.1000;0.4510;0.8109;
-142.8000;0.4526;0.8084;
-142.5000;0.4453;0.7865;
-142.2000;0.4518;0.8036;
-141.9000;0.4510;0.8060;
-141.6000;0.4501;0.8084;
-141.3000;0.4396;0.7743;
-141.0000;0.4485;0.7816;
-140.7000;0.4485;0.7865;
-140.4000;0.4493;0.7889;
-140.1000;0.4485;0.7938;
-139.8000;0.4477;0.7768;
-139.5000;0.4493;0.7865;
-139.2000;0.4518;0.8060;
-138.9000;0.4510;0.8060;
-138.6000;0.4526;0.8109;
-138.3000;0.4493;0.7987;
-138.0000;0.4518;0.8011;
-137.7000;0.4518;0.8011;
-137.4000;0.4510;0.8011;
-137.1000;0.4518;0.8084;
-136.8000;0.4518;0.8157;
-136.5000;0.4607;0.8401;
-136.2000;0.4510;0.7987;
-135.9000;0.4501;0.7938;
-135.6000;0.4510;0.7914;
-135.3000;0.4501;0.7816;
-135.0000;0.4558;0.7987;
-134.7000;0.4501;0.7938;
-134.4000;0.4550;0.8060;
-134.1000;0.4510;0.7987;
-133.8000;0.4493;0.8036;
-133.5000;0.4510;0.8011;
-133.2000;0.4493;0.7938;
-132.9000;0.4501;0.7914;
-132.6000;0.4501;0.7962;
-132.3000;0.4550;0.8182;
-132.0000;0.4493;0.8060;
-131.7000;0.4501;0.8084;
-131.4000;0.4485;0.8011;
-131.1000;0.4493;0.8060;
-130.8000;0.4477;0.8036;
-130.5000;0.4485;0.8060;
-130.2000;0.4485;0.8084;
-129.9000;0.4493;0.8036;
-129.6000;0.4534;0.8060;
-129.3000;0.4461;0.7938;
-129.0000;0.4518;0.8157;
-128.7000;0.4461;0.8109;
-128.4000;0.4485;0.8206;
-128.1000;0.4493;0.8230;
-127.8000;0.4477;0.8206;
-127.5000;0.4477;0.8279;
-127.2000;0.4485;0.8328;
-126.9000;0.4567;0.8669;
-126.6000;0.4526;0.8498;
-126.3000;0.4493;0.8352;
-126.0000;0.4485;0.8376;
-125.7000;0.4436;0.8182;
-125.4000;0.4493;0.8206;
-125.1000;0.4501;0.8206;
-124.8000;0.4542;0.8328;
-124.5000;0.4510;0.8255;
-124.2000;0.4493;0.8182;
-123.9000;0.4501;0.8157;
-123.6000;0.4510;0.8133;
-123.3000;0.4477;0.8011;
-123.0000;0.4542;0.8109;
-122.7000;0.4510;0.8011;
-122.4000;0.4550;0.8157;
-122.1000;0.4510;0.8060;
-121.8000;0.4510;0.8109;
-121.5000;0.4510;0.8109;
-121.2000;0.4493;0.8060;
-120.9000;0.4526;0.8084;
-120.6000;0.4444;0.7962;
-120.3000;0.4501;0.8182;
-120.0000;0.4444;0.8011;
-119.7000;0.4501;0.8133;
-119.4000;0.4510;0.8157;
-119.1000;0.4493;0.8157;
-118.8000;0.4493;0.8206;
-118.5000;0.4493;0.8230;
-118.2000;0.4461;0.8157;
-117.9000;0.4436;0.8157;
-117.6000;0.4469;0.8255;
-117.3000;0.4510;0.8425;
-117.0000;0.4493;0.8425;
-116.7000;0.4501;0.8498;
-116.4000;0.4518;0.8498;
-116.1000;0.4493;0.8449;
-115.8000;0.4501;0.8401;
-115.5000;0.4501;0.8474;
-115.2000;0.4493;0.8474;
-114.9000;0.4510;0.8498;
-114.6000;0.4501;0.8401;
-114.3000;0.4510;0.8449;
-114.0000;0.4510;0.8425;
-113.7000;0.4501;0.8352;
-113.4000;0.4518;0.8401;
-113.1000;0.4493;0.8328;
-112.8000;0.4518;0.8328;
-112.5000;0.4518;0.8328;
-112.2000;0.4510;0.8303;
-111.9000;0.4510;0.8303;
-111.6000;0.4501;0.8206;
-111.3000;0.4518;0.8255;
-111.0000;0.4436;0.7962;
-110.7000;0.4501;0.8060;
-110.4000;0.4485;0.8109;
-110.1000;0.4518;0.8352;
-109.8000;0.4477;0.8279;
-109.5000;0.4485;0.8303;
-109.2000;0.4510;0.8255;
-108.9000;0.4493;0.8182;
-108.6000;0.4501;0.8182;
-108.3000;0.4534;0.8303;
-108.0000;0.4534;0.8255;
-107.7000;0.4510;0.8084;
-107.4000;0.4485;0.8109;
-107.1000;0.4501;0.8157;
-106.8000;0.4501;0.8060;
-106.5000;0.4469;0.8036;
-106.2000;0.4510;0.8182;
-105.9000;0.4493;0.8109;
-105.6000;0.4485;0.8157;
-105.3000;0.4534;0.8279;
-105.0000;0.4493;0.8182;
-104.7000;0.4501;0.8182;
-104.4000;0.4485;0.8206;
-104.1000;0.4518;0.8255;
-103.8000;0.4469;0.8084;
-103.5000;0.4501;0.8182;
-103.2000;0.4420;0.7938;
-102.9000;0.4501;0.8182;
-102.6000;0.4510;0.8206;
-102.3000;0.4542;0.8425;
-102.0000;0.4510;0.8303;
-101.7000;0.4534;0.8425;
-101.4000;0.4510;0.8401;
-101.1000;0.4526;0.8449;
-100.8000;0.4510;0.8425;
-100.5000;0.4493;0.8425;
-100.2000;0.4526;0.8401;
-99.9000;0.4493;0.8303;
-99.6000;0.4469;0.8109;
-99.3000;0.4501;0.8133;
-99.0000;0.4518;0.8011;
-98.7000;0.4534;0.8060;
-98.4000;0.4518;0.8230;
-98.1000;0.4461;0.8133;
-97.8000;0.4461;0.8133;
-97.5000;0.4510;0.8255;
-97.2000;0.4518;0.8255;
-96.9000;0.4510;0.8182;
-96.6000;0.4493;0.8133;
-96.3000;0.4501;0.8157;
-96.0000;0.4493;0.8109;
-95.7000;0.4493;0.8109;
-95.4000;0.4493;0.8157;
-95.1000;0.4412;0.7889;
-94.8000;0.4501;0.8084;
-94.5000;0.4493;0.8109;
-94.2000;0.4477;0.8036;
-93.9000;0.4501;0.8133;
-93.6000;0.4501;0.8206;
-93.3000;0.4510;0.8255;
-93.0000;0.4493;0.8279;
-92.7000;0.4469;0.8279;
-92.4000;0.4485;0.8279;
-92.1000;0.4493;0.8230;
-91.8000;0.4485;0.8182;
-91.5000;0.4501;0.8182;
-91.2000;0.4477;0.8133;
-90.9000;0.4518;0.8230;
-90.6000;0.4493;0.8182;
-90.3000;0.4436;0.8036;
-90.0000;0.4501;0.8182;
-89.7000;0.4493;0.8182;
-89.4000;0.4477;0.8182;
-89.1000;0.4567;0.8401;
-88.8000;0.4501;0.8230;
-88.5000;0.4493;0.8157;
-88.2000;0.4510;0.8303;
-87.9000;0.4485;0.8230;
-87.6000;0.4477;0.8133;
-87.3000;0.4534;0.8255;
-87.0000;0.4501;0.8206;
-86.7000;0.4493;0.8157;
-86.4000;0.4485;0.8133;
-86.1000;0.4583;0.8376;
-85.8000;0.4518;0.8133;
-85.5000;0.4510;0.8060;
-85.2000;0.4469;0.7987;
-84.9000;0.4493;0.8036;
-84.6000;0.4493;0.8060;
-84.3000;0.4501;0.8060;
-84.0000;0.4477;0.8060;
-83.7000;0.4493;0.8182;
-83.4000;0.4485;0.8157;
-83.1000;0.4510;0.8303;
-82.8000;0.4510;0.8279;
-82.5000;0.4493;0.8255;
-82.2000;0.4510;0.8206;
-81.9000;0.4501;0.8157;
-81.6000;0.4485;0.8133;
-81.3000;0.4550;0.8230;
-81.0000;0.4493;0.8133;
-80.7000;0.4485;0.8182;
-80.4000;0.4477;0.8157;
-80.1000;0.4477;0.8036;
-79.8000;0.4477;0.8036;
-79.5000;0.4526;0.8206;
-79.2000;0.4420;0.7987;
-78.9000;0.4493;0.8133;
-78.6000;0.4501;0.8084;
-78.3000;0.4493;0.7962;
-78.0000;0.4510;0.8036;
-77.7000;0.4510;0.8084;
-77.4000;0.4526;0.8206;
-77.1000;0.4501;0.8084;
-76.8000;0.4510;0.8109;
-76.5000;0.4493;0.8084;
-76.2000;0.4493;0.8084;
-75.9000;0.4485;0.8036;
-75.6000;0.4493;0.8133;
-75.3000;0.4485;0.8206;
-75.0000;0.4510;0.8279;
-74.7000;0.4485;0.8182;
-74.4000;0.4510;0.8182;
-74.1000;0.4485;0.8157;
-73.8000;0.4510;0.8206;
-73.5000;0.4493;0.8279;
-73.2000;0.4510;0.8255;
-72.9000;0.4518;0.8182;
-72.6000;0.4493;0.8157;
-72.3000;0.4493;0.8230;
-72.0000;0.4542;0.8376;
-71.7000;0.4493;0.8230;
-71.4000;0.4477;0.8182;
-71.1000;0.4510;0.8230;
-70.8000;0.4526;0.8328;
-70.5000;0.4485;0.8230;
-70.2000;0.4510;0.8328;
-69.9000;0.4485;0.8230;
-69.6000;0.4485;0.8157;
-69.3000;0.4501;0.8230;
-69.0000;0.4510;0.8206;
-68.7000;0.4501;0.8182;
-68.4000;0.4501;0.8157;
-68.1000;0.4428;0.8011;
-67.8000;0.4583;0.8328;
-67.5000;0.4493;0.8182;
-67.2000;0.4534;0.8230;
-66.9000;0.4510;0.8157;
-66.6000;0.4453;0.7962;
-66.3000;0.4510;0.8109;
-66.0000;0.4444;0.8011;
-65.7000;0.4485;0.8109;
-65.4000;0.4510;0.8230;
-65.1000;0.4428;0.8011;
-64.8000;0.4501;0.8157;
-64.5000;0.4493;0.8133;
-64.2000;0.4477;0.8011;
-63.9000;0.4453;0.7962;
-63.6000;0.4477;0.7914;
-63.3000;0.4518;0.7987;
-63.0000;0.4404;0.7719;
-62.7000;0.4583;0.8182;
-62.4000;0.4526;0.8084;
-62.1000;0.4501;0.8060;
-61.8000;0.4444;0.7987;
-61.5000;0.4510;0.8157;
-61.2000;0.4493;0.8157;
-60.9000;0.4501;0.8060;
-60.6000;0.4510;0.8036;
-60.3000;0.4493;0.7987;
-60.0000;0.4453;0.7841;
-59.7000;0.4526;0.8011;
-59.4000;0.4501;0.7962;
-59.1000;0.4501;0.7987;
-58.8000;0.4501;0.7987;
-58.5000;0.4493;0.8036;
-58.2000;0.4493;0.8036;
-57.9000;0.4501;0.8133;
-57.6000;0.4501;0.8109;
-57.3000;0.4501;0.8036;
-57.0000;0.4518;0.8011;
-56.7000;0.4550;0.8133;
-56.4000;0.4501;0.7962;
-56.1000;0.4493;0.7938;
-55.8000;0.4485;0.7938;
-55.5000;0.4493;0.7889;
-55.2000;0.4518;0.7962;
-54.9000;0.4510;0.7962;
-54.6000;0.4477;0.7841;
-54.3000;0.4477;0.7889;
-54.0000;0.4501;0.7841;
-53.7000;0.4501;0.7938;
-53.4000;0.4485;0.7889;
-53.1000;0.4493;0.7865;
-52.8000;0.4567;0.8084;
-52.5000;0.4526;0.8011;
-52.2000;0.4510;0.7987;
-51.9000;0.4501;0.8036;
-51.6000;0.4518;0.8036;
-51.3000;0.4526;0.8036;
-51.0000;0.4501;0.7938;
-50.7000;0.4501;0.7865;
-50.4000;0.4510;0.7962;
-50.1000;0.4518;0.8011;
-49.8000;0.4493;0.7962;
-49.5000;0.4485;0.8011;
-49.2000;0.4493;0.8060;
-48.9000;0.4493;0.8011;
-48.6000;0.4461;0.7914;
-48.3000;0.4485;0.7987;
-48.0000;0.4461;0.7987;
-47.7000;0.4493;0.7987;
-47.4000;0.4485;0.8060;
-47.1000;0.4501;0.8036;
-46.8000;0.4485;0.7962;
-46.5000;0.4534;0.8133;
-46.2000;0.4534;0.8084;
-45.9000;0.4477;0.7938;
-45.6000;0.4510;0.8036;
-45.3000;0.4485;0.7987;
-45.0000;0.4510;0.8036;
-44.7000;0.4526;0.8036;
-44.4000;0.4501;0.8084;
-44.1000;0.4493;0.8133;
-43.8000;0.4518;0.8279;
-43.5000;0.4542;0.8303;
-43.2000;0.4436;0.7987;
-42.9000;0.4510;0.8157;
-42.6000;0.4493;0.8133;
-42.3000;0.4526;0.8182;
-42.0000;0.4567;0.8255;
-41.7000;0.4510;0.8060;
-41.4000;0.4510;0.7962;
-41.1000;0.4485;0.7865;
-40.8000;0.4485;0.7914;
-40.5000;0.4501;0.7938;
-40.2000;0.4453;0.7841;
-39.9000;0.4558;0.8133;
-39.6000;0.4558;0.8255;
-39.3000;0.4485;0.8060;
-39.0000;0.4493;0.8133;
-38.7000;0.4534;0.8279;
-38.4000;0.4542;0.8328;
-38.1000;0.4518;0.8206;
-37.8000;0.4542;0.8279;
-37.5000;0.4526;0.8182;
-37.2000;0.4501;0.7987;
-36.9000;0.4518;0.7962;
-36.6000;0.4501;0.7914;
-36.3000;0.4542;0.8036;
-36.0000;0.4510;0.8133;
-35.7000;0.4575;0.8328;
-35.4000;0.4477;0.8084;
-35.1000;0.4501;0.8230;
-34.8000;0.4493;0.8230;
-34.5000;0.4526;0.8206;
-34.2000;0.4493;0.8157;
-33.9000;0.4501;0.8206;
-33.6000;0.4518;0.8182;
-33.3000;0.4493;0.8084;
-33.0000;0.4493;0.8109;
-32.7000;0.4493;0.8109;
-32.4000;0.4493;0.8011;
-32.1000;0.4510;0.7962;
-31.8000;0.4550;0.8109;
-31.5000;0.4501;0.7938;
-31.2000;0.4477;0.7914;
-30.9000;0.4493;0.8060;
-30.6000;0.4501;0.8060;
-30.3000;0.4510;0.8109;
-30.0000;0.4501;0.8084;
-29.7000;0.4510;0.8109;
-29.4000;0.4510;0.8060;
-29.1000;0.4501;0.8060;
-28.8000;0.4461;0.8060;
-28.5000;0.4493;0.8206;
-28.2000;0.4558;0.8328;
-27.9000;0.4501;0.8206;
-27.6000;0.4493;0.8255;
-27.3000;0.4510;0.8206;
-27.0000;0.4501;0.8206;
-26.7000;0.4493;0.8255;
-26.4000;0.4558;0.8279;
-26.1000;0.4501;0.8157;
-25.8000;0.4510;0.8182;
-25.5000;0.4550;0.8303;
-25.2000;0.4477;0.8157;
-24.9000;0.4485;0.8133;
-24.6000;0.4510;0.8133;
-24.3000;0.4469;0.8255;
-24.0000;0.4477;0.8303;
-23.7000;0.4501;0.8376;
-23.4000;0.4534;0.8401;
-23.1000;0.4501;0.8303;
-22.8000;0.4461;0.8182;
-22.5000;0.4534;0.8303;
-22.2000;0.4493;0.8206;
-21.9000;0.4485;0.8133;
-21.6000;0.4501;0.8230;
-21.3000;0.4526;0.8279;
-21.0000;0.4510;0.8279;
-20.7000;0.4510;0.8230;
-20.4000;0.4493;0.8182;
-20.1000;0.4510;0.8182;
-19.8000;0.4493;0.8206;
-19.5000;0.4501;0.8157;
-19.2000;0.4501;0.8157;
-18.9000;0.4469;0.8084;
-18.6000;0.4518;0.8084;
-18.3000;0.4510;0.8109;
-18.0000;0.4477;0.8036;
-17.7000;0.4501;0.7987;
-17.4000;0.4510;0.8060;
-17.1000;0.4510;0.8109;
-16.8000;0.4469;0.8036;
-16.5000;0.4493;0.8182;
-16.2000;0.4501;0.8303;
-15.9000;0.4558;0.8352;
-15.6000;0.4501;0.8157;
-15.3000;0.4485;0.8109;
-15.0000;0.4518;0.8255;
-14.7000;0.4534;0.8255;
-14.4000;0.4510;0.8157;
-14.1000;0.4518;0.8255;
-13.8000;0.4510;0.8230;
-13.5000;0.4493;0.8157;
-13.2000;0.4526;0.8109;
-12.9000;0.4534;0.8157;
-12.6000;0.4493;0.7938;
-12.3000;0.4428;0.7841;
-12.0000;0.4510;0.8036;
-11.7000;0.4501;0.7987;
-11.4000;0.4493;0.7889;
-11.1000;0.4510;0.7987;
-10.8000;0.4518;0.7987;
-10.5000;0.4493;0.7962;
-10.2000;0.4526;0.8133;
-9.9000;0.4510;0.8182;
-9.6000;0.4501;0.8157;
-9.3000;0.4493;0.8109;
-9.0000;0.4461;0.8011;
-8.7000;0.4469;0.8011;
-8.4000;0.4493;0.8036;
-8.1000;0.4485;0.8011;
-7.8000;0.4501;0.8109;
-7.5000;0.4510;0.8109;
-7.2000;0.4501;0.8036;
-6.9000;0.4444;0.7914;
-6.6000;0.4510;0.8011;
-6.3000;0.4526;0.8060;
-6.0000;0.4510;0.8109;
-5.7000;0.4501;0.7962;
-5.4000;0.4485;0.7914;
-5.1000;0.4501;0.7889;
-4.8000;0.4526;0.7865;
-4.5000;0.4510;0.7938;
-4.2000;0.4485;0.7914;
-3.9000;0.4510;0.7962;
-3.6000;0.4493;0.7914;
-3.3000;0.4510;0.7889;
-3.0000;0.4518;0.7914;
-2.7000;0.4510;0.7889;
-2.4000;0.4477;0.7768;
-2.1000;0.4493;0.7792;
-1.8000;0.4518;0.7938;
-1.5000;0.4510;0.7889;
-1.2000;0.4510;0.7914;
-0.9000;0.4485;0.7889;
-0.6000;0.4550;0.8109;
-0.3000;0.4640;0.8328;
0.0000;0.4640;0.8328;
0.3000;0.4583;0.8182;
0.6000;0.4518;0.8182;
0.9000;0.4558;0.8401;
1.2000;0.4567;0.8571;
1.5000;0.4575;0.8790;
1.8000;0.4575;0.8863;
2.1000;0.4591;0.8912;
2.4000;0.4575;0.9204;
2.7000;0.4583;0.9277;
3.0000;0.4591;0.9399;
3.3000;0.4591;0.9521;
3.6000;0.4526;0.9399;
3.9000;0.4599;0.9667;
4.2000;0.4599;0.9667;
4.5000;0.4599;0.9789;
4.8000;0.4624;0.9935;
5.1000;0.4583;0.9789;
5.4000;0.4599;0.9837;
5.7000;0.4575;0.9789;
6.0000;0.4583;0.9837;
6.3000;0.4607;0.9935;
6.6000;0.4575;0.9837;
6.9000;0.4607;0.9716;
7.2000;0.4599;0.9691;
7.5000;0.4607;0.9813;
7.8000;0.4599;0.9862;
8.1000;0.4526;0.9691;
8.4000;0.4599;0.9935;
8.7000;0.4615;0.9886;
9.0000;0.4615;0.9837;
9.3000;0.4615;0.9935;
9.6000;0.4615;0.9862;
9.9000;0.4615;0.9813;
10.2000;0.4607;0.9740;
10.5000;0.4632;0.9764;
10.8000;0.4567;0.9667;
11.1000;0.4624;0.9789;
11.4000;0.4624;0.9691;
11.7000;0.4615;0.9691;
12.0000;0.4624;0.9740;
12.3000;0.4632;0.9837;
12.6000;0.4632;0.9837;
12.9000;0.4607;0.9813;
13.2000;0.4607;0.9740;
13.5000;0.4632;0.9813;
13.8000;0.4648;0.9910;
14.1000;0.4550;0.9643;
14.4000;0.4615;0.9764;
14.7000;0.4567;0.9618;
15.0000;0.4615;0.9789;
15.3000;0.4632;0.9862;
15.6000;0.4632;0.9862;
15.9000;0.4624;0.9862;
16.2000;0.4624;0.9886;
16.5000;0.4615;0.9764;
16.8000;0.4615;0.9740;
17.1000;0.4607;0.9813;
17.4000;0.4632;0.9910;
17.7000;0.4632;0.9886;
18.0000;0.4632;0.9935;
18.3000;0.4558;0.9862;
18.6000;0.4607;0.9935;
18.9000;0.4624;1.0008;
19.2000;0.4632;0.9984;
19.5000;0.4632;1.0032;
19.8000;0.4640;1.0081;
20.1000;0.4607;0.9959;
20.4000;0.4624;0.9910;
20.7000;0.4624;0.9935;
21.0000;0.4624;0.9959;
21.3000;0.4624;0.9886;
21.6000;0.4615;0.9837;
21.9000;0.4632;0.9837;
22.2000;0.4640;0.9862;
22.5000;0.4624;0.9813;
22.8000;0.4615;0.9764;
23.1000;0.4624;0.9789;
23.4000;0.4615;0.9813;
23.7000;0.4632;0.9886;
24.0000;0.4624;0.9886;
24.3000;0.4632;0.9789;
24.6000;0.4599;0.9813;
24.9000;0.4640;0.9862;
25.2000;0.4632;0.9837;
25.5000;0.4632;0.9837;
25.8000;0.4648;0.9935;
26.1000;0.4640;0.9935;
26.4000;0.4615;0.9862;
26.7000;0.4624;0.9910;
27.0000;0.4624;0.9910;
27.3000;0.4615;0.9886;
27.6000;0.4632;0.9984;
27.9000;0.4624;1.0008;
28.2000;0.4624;1.0057;
28.5000;0.4656;1.0105;
28.8000;0.4648;1.0130;
29.1000;0.4632;1.0105;
29.4000;0.4591;0.9984;
29.7000;0.4648;1.0081;
30.0000;0.4656;1.0081;
30.3000;0.4664;1.0154;
30.6000;0.4664;1.0032;
30.9000;0.4664;1.0081;
31.2000;0.4632;1.0081;
31.5000;0.4640;0.9984;
31.8000;0.4664;0.9984;
32.1000;0.4632;0.9984;
32.4000;0.4632;1.0032;
32.7000;0.4640;1.0008;
33.0000;0.4632;0.9984;
33.3000;0.4558;0.9862;
33.6000;0.4681;1.0154;
33.9000;0.4640;1.0057;
34.2000;0.4648;1.0081;
34.5000;0.4583;0.9886;
34.8000;0.4656;1.0032;
35.1000;0.4648;0.9984;
35.4000;0.4624;0.9959;
35.7000;0.4648;1.0008;
36.0000;0.4558;0.9789;
36.3000;0.4640;1.0032;
36.6000;0.4681;1.0105;
36.9000;0.4640;0.9862;
37.2000;0.4624;0.9862;
37.5000;0.4640;0.9886;
37.8000;0.4664;1.0032;
38.1000;0.4624;0.9959;
38.4000;0.4632;1.0008;
38.7000;0.4689;1.0203;
39.0000;0.4583;0.9862;
39.3000;0.4640;1.0008;
39.6000;0.4615;0.9910;
39.9000;0.4583;0.9789;
40.2000;0.4648;0.9886;
40.5000;0.4656;0.9910;
40.8000;0.4648;0.9886;
41.1000;0.4656;0.9984;
41.4000;0.4664;1.0008;
41.7000;0.4656;0.9984;
42.0000;0.4656;0.9886;
42.3000;0.4648;0.9959;
42.6000;0.4640;0.9935;
42.9000;0.4681;1.0057;
43.2000;0.4697;1.0178;
43.5000;0.4648;1.0008;
43.8000;0.4640;1.0057;
44.1000;0.4640;1.0081;
44.4000;0.4583;0.9984;
44.7000;0.4640;1.0154;
45.0000;0.4632;1.0227;
45.3000;0.4656;1.0154;
45.6000;0.4640;1.0105;
45.9000;0.4640;1.0032;
46.2000;0.4689;1.0203;
46.5000;0.4632;1.0154;
46.8000;0.4656;1.0203;
47.1000;0.4640;1.0154;
47.4000;0.4632;1.0154;
47.7000;0.4607;0.9984;
48.0000;0.4648;0.9984;
48.3000;0.4632;0.9959;
48.6000;0.4624;0.9886;
48.9000;0.4640;0.9959;
49.2000;0.4648;0.9910;
49.5000;0.4656;0.9886;
49.8000;0.4640;0.9862;
50.1000;0.4664;0.9886;
50.4000;0.4648;0.9935;
50.7000;0.4640;0.9886;
51.0000;0.4640;0.9862;
51.3000;0.4640;0.9837;
51.6000;0.4640;0.9837;
51.9000;0.4656;0.9886;
52.2000;0.4672;1.0032;
52.5000;0.4648;0.9959;
52.8000;0.4648;0.9959;
53.1000;0.4632;1.0008;
53.4000;0.4599;0.9959;
53.7000;0.4640;1.0081;
54.0000;0.4648;1.0130;
54.3000;0.4737;1.0324;
54.6000;0.4656;1.0057;
54.9000;0.4640;0.9935;
55.2000;0.4640;0.9984;
55.5000;0.4640;0.9959;
55.8000;0.4648;1.0008;
56.1000;0.4648;1.0057;
56.4000;0.4648;1.0105;
56.7000;0.4640;1.0130;
57.0000;0.4640;1.0130;
57.3000;0.4697;1.0276;
57.6000;0.4640;1.0057;
57.9000;0.4640;0.9984;
58.2000;0.4697;1.0130;
58.5000;0.4632;0.9910;
58.8000;0.4632;0.9959;
59.1000;0.4624;0.9886;
59.4000;0.4656;1.0008;
59.7000;0.4656;0.9984;
60.0000;0.4648;0.9935;
60.3000;0.4640;0.9959;
60.6000;0.4640;1.0032;
60.9000;0.4656;1.0057;
61.2000;0.4640;0.9984;
61.5000;0.4632;0.9959;
61.8000;0.4640;0.9862;
62.1000;0.4640;0.9935;
62.4000;0.4640;0.9959;
62.7000;0.4648;1.0081;
63.0000;0.4648;1.0130;
63.3000;0.4656;1.0032;
63.6000;0.4656;1.0032;
63.9000;0.4624;0.9862;
64.2000;0.4632;0.9959;
64.5000;0.4640;0.9959;
64.8000;0.4648;0.9959;
65.1000;0.4640;0.9862;
65.4000;0.4632;0.9862;
65.7000;0.4648;0.9886;
66.0000;0.4656;0.9862;
66.3000;0.4648;0.9862;
66.6000;0.4599;0.9886;
66.9000;0.4672;1.0008;
67.2000;0.4640;0.9935;
67.5000;0.4648;0.9959;
67.8000;0.4640;1.0081;
68.1000;0.4640;1.0154;
68.4000;0.4558;0.9984;
68.7000;0.4632;1.0130;
69.0000;0.4607;1.0032;
69.3000;0.4599;1.0105;
69.6000;0.4672;1.0324;
69.9000;0.4615;1.0105;
70.2000;0.4624;1.0154;
70.5000;0.4599;1.0130;
70.8000;0.4607;1.0203;
71.1000;0.4632;1.0154;
71.4000;0.4534;0.9837;
71.7000;0.4640;1.0057;
72.0000;0.4632;0.9959;
72.3000;0.4640;0.9959;
72.6000;0.4624;0.9984;
72.9000;0.4656;1.0081;
73.2000;0.4632;1.0057;
73.5000;0.4656;1.0105;
73.8000;0.4640;1.0081;
74.1000;0.4607;0.9984;
74.4000;0.4648;0.9984;
74.7000;0.4640;0.9984;
75.0000;0.4664;1.0057;
75.3000;0.4615;1.0008;
75.6000;0.4632;0.9984;
75.9000;0.4664;1.0032;
76.2000;0.4632;0.9862;
76.5000;0.4672;0.9886;
76.8000;0.4648;0.9837;
77.1000;0.4583;0.9643;
77.4000;0.4737;1.0105;
77.7000;0.4648;0.9862;
78.0000;0.4648;0.9910;
78.3000;0.4697;1.0008;
78.6000;0.4664;0.9959;
78.9000;0.4689;1.0057;
79.2000;0.4697;1.0081;
79.5000;0.4640;0.9886;
79.8000;0.4640;0.9984;
80.1000;0.4648;1.0081;
80.4000;0.4640;1.0032;
80.7000;0.4656;1.0130;
81.0000;0.4640;1.0057;
81.3000;0.4640;1.0105;
81.6000;0.4664;1.0154;
81.9000;0.4640;0.9984;
82.2000;0.4640;0.9935;
82.5000;0.4632;0.9984;
82.8000;0.4624;0.9910;
83.1000;0.4632;0.9910;
83.4000;0.4632;0.9959;
83.7000;0.4591;0.9886;
84.0000;0.4624;1.0008;
84.3000;0.4624;0.9984;
84.6000;0.4689;1.0130;
84.9000;0.4624;0.9910;
85.2000;0.4624;0.9886;
85.5000;0.4672;0.9959;
85.8000;0.4624;0.9910;
86.1000;0.4664;0.9910;
86.4000;0.4599;0.9813;
86.7000;0.4624;0.9886;
87.0000;0.4632;0.9862;
87.3000;0.4648;0.9910;
87.6000;0.4624;0.9813;
87.9000;0.4640;0.9764;
88.2000;0.4640;0.9716;
88.5000;0.4681;0.9789;
88.8000;0.4624;0.9667;
89.1000;0.4640;0.9740;
89.4000;0.4599;0.9570;
89.7000;0.4591;0.9545;
90.0000;0.4607;0.9691;
90.3000;0.4632;0.9764;
90.6000;0.4705;0.9837;
90.9000;0.4648;0.9716;
91.2000;0.4632;0.9716;
91.5000;0.4689;0.9886;
91.8000;0.4648;0.9764;
92.1000;0.4648;0.9789;
92.4000;0.4615;0.9764;
92.7000;0.4632;0.9813;
93.0000;0.4648;0.9813;
93.3000;0.4648;0.9813;
93.6000;0.4640;0.9789;
93.9000;0.4656;0.9837;
94.2000;0.4575;0.9716;
94.5000;0.4664;0.9910;
94.8000;0.4632;0.9910;
95.1000;0.4656;1.0032;
95.4000;0.4640;0.9959;
95.7000;0.4632;0.9910;
96.0000;0.4624;0.9789;
96.3000;0.4640;0.9813;
96.6000;0.4656;0.9837;
96.9000;0.4624;0.9740;
97.2000;0.4648;0.9740;
97.5000;0.4656;0.9789;
97.8000;0.4648;0.9813;
98.1000;0.4672;1.0008;
98.4000;0.4632;0.9959;
98.7000;0.4632;1.0057;
99.0000;0.4648;1.0081;
99.3000;0.4648;1.0008;
99.6000;0.4632;0.9910;
99.9000;0.4632;0.9813;
100.2000;0.4705;1.0032;
100.5000;0.4640;0.9886;
100.8000;0.4632;0.9910;
101.1000;0.4607;0.9910;
101.4000;0.4640;0.9984;
101.7000;0.4648;1.0008;
102.0000;0.4632;0.9935;
102.3000;0.4640;1.0057;
102.6000;0.4672;1.0251;
102.9000;0.4648;1.0154;
103.2000;0.4640;1.0178;
103.5000;0.4648;1.0178;
103.8000;0.4656;1.0081;
104.1000;0.4640;1.0032;
104.4000;0.4632;0.9886;
104.7000;0.4672;1.0008;
105.0000;0.4607;0.9862;
105.3000;0.4583;0.9886;
105.6000;0.4648;1.0081;
105.9000;0.4672;1.0130;
106.2000;0.4648;1.0008;
106.5000;0.4648;1.0081;
106.8000;0.4697;1.0276;
107.1000;0.4640;1.0130;
107.4000;0.4640;1.0105;
107.7000;0.4681;1.0203;
108.0000;0.4550;0.9886;
108.3000;0.4632;0.9935;
108.6000;0.4591;0.9764;
108.9000;0.4624;0.9862;
109.2000;0.4672;1.0057;
109.5000;0.4624;0.9886;
109.8000;0.4697;1.0057;
110.1000;0.4640;0.9886;
110.4000;0.4648;0.9910;
110.7000;0.4640;0.9716;
111.0000;0.4656;0.9716;
111.3000;0.4632;0.9716;
111.6000;0.4632;0.9764;
111.9000;0.4656;0.9862;
112.2000;0.4624;0.9886;
112.5000;0.4632;0.9984;
112.8000;0.4648;1.0081;
113.1000;0.4664;0.9984;
113.4000;0.4648;0.9837;
113.7000;0.4640;0.9813;
114.0000;0.4615;0.9813;
114.3000;0.4632;0.9862;
114.6000;0.4640;0.9862;
114.9000;0.4624;0.9789;
115.2000;0.4632;0.9862;
115.5000;0.4640;0.9813;
115.8000;0.4648;0.9813;
116.1000;0.4624;0.9764;
116.4000;0.4640;0.9862;
116.7000;0.4615;0.9764;
117.0000;0.4615;0.9837;
117.3000;0.4615;0.9935;
117.6000;0.4624;0.9910;
117.9000;0.4640;0.9984;
118.2000;0.4632;1.0032;
118.5000;0.4624;1.0081;
118.8000;0.4615;1.0081;
119.1000;0.4607;1.0057;
119.4000;0.4632;1.0057;
119.7000;0.4624;1.0081;
120.0000;0.4664;1.0081;
120.3000;0.4648;1.0008;
120.6000;0.4648;0.9910;
120.9000;0.4640;0.9910;
121.2000;0.4640;0.9935;
121.5000;0.4648;0.9910;
121.8000;0.4648;0.9959;
122.1000;0.4632;0.9862;
122.4000;0.4648;0.9935;
122.7000;0.4648;0.9959;
123.0000;0.4640;0.9959;
123.3000;0.4656;1.0105;
123.6000;0.4664;1.0154;
123.9000;0.4664;1.0203;
124.2000;0.4599;0.9984;
124.5000;0.4664;1.0227;
124.8000;0.4648;1.0227;
125.1000;0.4681;1.0349;
125.4000;0.4640;1.0251;
125.7000;0.4697;1.0398;
126.0000;0.4656;1.0300;
126.3000;0.4624;1.0227;
126.6000;0.4713;1.0446;
126.9000;0.4681;1.0471;
127.2000;0.4640;1.0276;
127.5000;0.4656;1.0276;
127.8000;0.4640;1.0276;
128.1000;0.4640;1.0300;
128.4000;0.4648;1.0276;
128.7000;0.4648;1.0300;
129.0000;0.4624;1.0178;
129.3000;0.4615;1.0203;
129.6000;0.4681;1.0398;
129.9000;0.4624;1.0178;
130.2000;0.4681;1.0300;
130.5000;0.4648;1.0105;
130.8000;0.4640;1.0130;
131.1000;0.4648;1.0130;
131.4000;0.4632;1.0105;
131.7000;0.4624;1.0105;
132.0000;0.4632;1.0105;
132.3000;0.4640;1.0178;
132.6000;0.4632;1.0203;
132.9000;0.4632;1.0154;
133.2000;0.4640;1.0178;
133.5000;0.4632;1.0081;
133.8000;0.4640;1.0105;
134.1000;0.4632;1.0130;
134.4000;0.4640;1.0105;
134.7000;0.4648;1.0130;
135.0000;0.4632;1.0105;
135.3000;0.4632;1.0081;
135.6000;0.4640;1.0154;
135.9000;0.4640;1.0227;
136.2000;0.4632;1.0227;
136.5000;0.4648;1.0300;
136.8000;0.4632;1.0130;
137.1000;0.4656;1.0154;
137.4000;0.4632;1.0154;
137.7000;0.4632;1.0057;
138.0000;0.4632;1.0032;
138.3000;0.4640;1.0057;
138.6000;0.4624;1.0008;
138.9000;0.4672;1.0203;
139.2000;0.4632;0.9984;
139.5000;0.4615;1.0057;
139.8000;0.4648;1.0203;
140.1000;0.4615;1.0130;
140.4000;0.4624;1.0154;
140.7000;0.4713;1.0446;
141.0000;0.4640;1.0178;
141.3000;0.4648;1.0276;
141.6000;0.4591;1.0130;
141.9000;0.4632;1.0349;
142.2000;0.4624;1.0324;
142.5000;0.4632;1.0300;
142.8000;0.4640;1.0276;
143.1000;0.4632;1.0227;
143.4000;0.4640;1.0227;
143.7000;0.4648;1.0227;
144.0000;0.4656;1.0324;
144.3000;0.4640;1.0251;
144.6000;0.4624;1.0130;
144.9000;0.4640;1.0154;
145.2000;0.4640;1.0105;
145.5000;0.4624;1.0105;
145.8000;0.4632;1.0203;
146.1000;0.4632;1.0130;
146.4000;0.4607;1.0057;
146.7000;0.4632;1.0105;
147.0000;0.4640;1.0130;
147.3000;0.4632;1.0154;
147.6000;0.4583;0.9984;
147.9000;0.4640;1.0154;
148.2000;0.4640;1.0154;
148.5000;0.4648;1.0154;
148.8000;0.4640;1.0057;
149.1000;0.4664;1.0105;
149.4000;0.4615;0.9984;
149.7000;0.4624;0.9959;
150.0000;0.4640;1.0081;
150.3000;0.4624;1.0032;
150.6000;0.4624;1.0057;
150.9000;0.4615;0.9886;
151.2000;0.4656;1.0008;
151.5000;0.4632;1.0032;
151.8000;0.4599;1.0008;
152.1000;0.4607;1.0057;
152.4000;0.4632;1.0081;
152.7000;0.4672;1.0203;
153.0000;0.4640;1.0032;
153.3000;0.4607;0.9910;
153.6000;0.4672;1.0154;
153.9000;0.4656;1.0081;
154.2000;0.4640;0.9984;
154.5000;0.4640;0.9910;
154.8000;0.4632;0.9886;
155.1000;0.4640;1.0008;
155.4000;0.4632;1.0057;
155.7000;0.4632;1.0008;
156.0000;0.4632;1.0032;
156.3000;0.4632;1.0008;
156.6000;0.4640;1.0032;
156.9000;0.4632;1.0008;
157.2000;0.4624;1.0032;
157.5000;0.4640;1.0203;
157.8000;0.4664;1.0398;
158.1000;0.4648;1.0300;
158.4000;0.4648;1.0251;
158.7000;0.4656;1.0154;
159.0000;0.4632;1.0105;
159.3000;0.4648;1.0105;
159.6000;0.4624;1.0008;
159.9000;0.4632;1.0032;
160.2000;0.4648;1.0057;
160.5000;0.4624;1.0081;
160.8000;0.4624;1.0081;
161.1000;0.4640;1.0105;
161.4000;0.4632;1.0130;
161.7000;0.4615;1.0081;
162.0000;0.4656;1.0203;
162.3000;0.4615;1.0130;
162.6000;0.4640;1.0178;
162.9000;0.4583;1.0081;
163.2000;0.4632;1.0178;
163.5000;0.4648;1.0227;
163.8000;0.4607;1.0130;
164.1000;0.4656;1.0251;
164.4000;0.4640;1.0300;
164.7000;0.4599;1.0178;
165.0000;0.4648;1.0276;
165.3000;0.4632;1.0178;
165.6000;0.4632;1.0105;
165.9000;0.4640;1.0105;
166.2000;0.4648;1.0203;
166.5000;0.4656;1.0178;
166.8000;0.4664;1.0154;
167.1000;0.4558;0.9935;
167.4000;0.4632;1.0203;
167.7000;0.4640;1.0105;
168.0000;0.4648;1.0130;
168.3000;0.4640;1.0105;
168.6000;0.4656;1.0178;
168.9000;0.4648;1.0130;
169.2000;0.4640;1.0105;
169.5000;0.4632;0.9984;
169.8000;0.4632;1.0057;
170.1000;0.4615;1.0057;
170.4000;0.4640;1.0130;
170.7000;0.4640;1.0130;
171.0000;0.4615;0.9959;
171.3000;0.4615;1.0032;
171.6000;0.4721;1.0398;
171.9000;0.4640;1.0178;
172.2000;0.4640;1.0081;
172.5000;0.4615;1.0032;
172.8000;0.4567;0.9910;
173.1000;0.4632;1.0081;
173.4000;0.4648;1.0057;
173.7000;0.4656;1.0227;
174.0000;0.4648;1.0203;
174.3000;0.4721;1.0349;
174.6000;0.4656;1.0130;
174.9000;0.4640;1.0154;
175.2000;0.4599;1.0057;
175.5000;0.4729;1.0422;
175.8000;0.4672;1.0227;
176.1000;0.4624;1.0105;
176.4000;0.4640;1.0154;
176.7000;0.4607;1.0154;
177.0000;0.4656;1.0300;
177.3000;0.4648;1.0300;
177.6000;0.4632;1.0324;
177.9000;0.4632;1.0276;
178.2000;0.4632;1.0227;
178.5000;0.4615;1.0227;
178.8000;0.4567;1.0008;
179.1000;0.4583;0.9984;
179.4000;0.4648;1.0154;
179.7000;0.4632;1.0130;
180.0000;0.4575;0.9959;
180.3000;0.4615;0.9984;
180.6000;0.4632;1.0081;
180.9000;0.4640;1.0081;
181.2000;0.4648;1.0081;
181.5000;0.4632;1.0057;
181.8000;0.4648;1.0057;
182.1000;0.4640;1.0154;
182.4000;0.4664;1.0227;
182.7000;0.4624;1.0105;
183.0000;0.4607;1.0081;
183.3000;0.4656;1.0178;
183.6000;0.4640;1.0105;
183.9000;0.4640;1.0081;
184.2000;0.4632;1.0154;
184.5000;0.4640;1.0251;
184.8000;0.4729;1.0446;
185.1000;0.4583;1.0081;
185.4000;0.4640;1.0227;
185.7000;0.4599;1.0081;
186.0000;0.4624;1.0081;
186.3000;0.4624;1.0057;
186.6000;0.4624;1.0081;
186.9000;0.4615;1.0032;
187.2000;0.4640;1.0105;
187.5000;0.4632;1.0081;
187.8000;0.4615;1.0008;
188.1000;0.4632;1.0057;
188.4000;0.4632;1.0057;
188.7000;0.4607;1.0081;
189.0000;0.4624;1.0154;
189.3000;0.4632;1.0203;
189.6000;0.4624;1.0130;
189.9000;0.4632;1.0178;
190.2000;0.4632;1.0105;
190.5000;0.4624;1.0130;
190.8000;0.4648;1.0105;
191.1000;0.4632;1.0008;
191.4000;0.4632;0.9984;
191.7000;0.4632;1.0032;
192.0000;0.4615;0.9984;
192.3000;0.4624;0.9984;
192.6000;0.4640;1.0008;
192.9000;0.4648;1.0105;
193.2000;0.4599;1.0081;
193.5000;0.4632;1.0203;
193.8000;0.4632;1.0154;
194.1000;0.4640;1.0105;
194.4000;0.4656;1.0057;
194.7000;0.4656;1.0105;
195.0000;0.4575;0.9910;
195.3000;0.4615;0.9984;
195.6000;0.4567;0.9910;
195.9000;0.4632;1.0105;
196.2000;0.4607;1.0057;
196.5000;0.4648;1.0203;
196.8000;0.4607;1.0105;
197.1000;0.4567;0.9886;
197.4000;0.4632;1.0032;
197.7000;0.4672;1.0008;
198.0000;0.4624;0.9910;
198.3000;0.4624;0.9862;
198.6000;0.4648;0.9837;
198.9000;0.4640;0.9935;
199.2000;0.4640;0.9935;
199.5000;0.4640;0.9935;
199.8000;0.4624;0.9935;
200.1000;0.4632;0.9959;
200.4000;0.4624;0.9910;
200.7000;0.4615;0.9984;
201.0000;0.4624;1.0105;
201.3000;0.4615;1.0105;
201.6000;0.4607;1.0130;
201.9000;0.4632;1.0178;
202.2000;0.4632;1.0203;
202.5000;0.4615;1.0154;
202.8000;0.4558;0.9910;
203.1000;0.4664;1.0300;
203.4000;0.4640;1.0105;
203.7000;0.4632;1.0057;
204.0000;0.4615;1.0057;
204.3000;0.4599;1.0057;
204.6000;0.4607;1.0081;
204.9000;0.4640;1.0203;
205.2000;0.4632;1.0276;
205.5000;0.4632;1.0276;
205.8000;0.4648;1.0324;
206.1000;0.4632;1.0300;
206.4000;0.4632;1.0349;
206.7000;0.4567;1.0130;
207.0000;0.4632;1.0300;
207.3000;0.4640;1.0373;
207.6000;0.4640;1.0373;
207.9000;0.4615;1.0203;
208.2000;0.4607;1.0251;
208.5000;0.4632;1.0324;
208.8000;0.4681;1.0446;
209.1000;0.4640;1.0300;
209.4000;0.4632;1.0276;
209.7000;0.4624;1.0251;
210.0000;0.4615;1.0178;
210.3000;0.4648;1.0130;
210.6000;0.4624;1.0105;
210.9000;0.4615;1.0057;
211.2000;0.4632;1.0178;
211.5000;0.4640;1.0178;
211.8000;0.4648;1.0178;
212.1000;0.4632;1.0178;
212.4000;0.4632;1.0203;
212.7000;0.4640;1.0276;
213.0000;0.4689;1.0422;
213.3000;0.4615;1.0178;
213.6000;0.4640;1.0178;
213.9000;0.4640;1.0227;
214.2000;0.4640;1.0178;
214.5000;0.4615;1.0154;
214.8000;0.4632;1.0130;
215.1000;0.4624;1.0105;
215.4000;0.4632;1.0154;
215.7000;0.4615;1.0130;
216.0000;0.4624;1.0081;
216.3000;0.4640;1.0081;
216.6000;0.4640;0.9984;
216.9000;0.4640;1.0008;
217.2000;0.4624;0.9910;
217.5000;0.4640;1.0008;
217.8000;0.4640;1.0081;
218.1000;0.4648;1.0032;
218.4000;0.4632;1.0105;
218.7000;0.4632;1.0105;
219.0000;0.4681;1.0227;
219.3000;0.4607;0.9984;
219.6000;0.4640;1.0081;
219.9000;0.4648;1.0081;
220.2000;0.4648;1.0105;
220.5000;0.4632;1.0057;
220.8000;0.4640;1.0057;
221.1000;0.4607;1.0130;
221.4000;0.4632;1.0227;
221.7000;0.4640;1.0203;
222.0000;0.4607;1.0081;
222.3000;0.4615;1.0105;
222.6000;0.4607;1.0081;
222.9000;0.4542;0.9813;
223.2000;0.4632;1.0081;
223.5000;0.4615;1.0081;
223.8000;0.4567;0.9984;
224.1000;0.4624;1.0130;
224.4000;0.4615;1.0178;
224.7000;0.4583;1.0008;
225.0000;0.4599;0.9959;
225.3000;0.4632;0.9862;
225.6000;0.4681;1.0032;
225.9000;0.4615;0.9837;
226.2000;0.4567;0.9716;
226.5000;0.4607;0.9862;
226.8000;0.4607;0.9935;
227.1000;0.4615;0.9935;
227.4000;0.4599;0.9935;
227.7000;0.4607;0.9984;
228.0000;0.4599;0.9984;
228.3000;0.4607;1.0032;
228.6000;0.4599;1.0057;
228.9000;0.4615;1.0105;
229.2000;0.4656;1.0130;
229.5000;0.4624;1.0057;
229.8000;0.4640;1.0081;
230.1000;0.4648;1.0130;
230.4000;0.4640;1.0057;
230.7000;0.4624;1.0032;
231.0000;0.4640;1.0032;
231.3000;0.4632;1.0032;
231.6000;0.4640;0.9935;
231.9000;0.4640;0.9959;
232.2000;0.4632;0.9959;
232.5000;0.4624;0.9935;
232.8000;0.4624;0.9910;
233.1000;0.4624;0.9935;
233.4000;0.4615;0.9935;
233.7000;0.4632;0.9910;
234.0000;0.4640;0.9984;
234.3000;0.4632;0.9959;
234.6000;0.4624;0.9984;
234.9000;0.4624;1.0008;
235.2000;0.4640;1.0057;
235.5000;0.4632;0.9984;
235.8000;0.4624;1.0057;
236.1000;0.4607;1.0032;
236.4000;0.4615;1.0081;
236.7000;0.4624;1.0227;
237.0000;0.4607;1.0203;
237.3000;0.4591;1.0008;
237.6000;0.4615;1.0057;
237.9000;0.4615;0.9984;
238.2000;0.4632;0.9984;
238.5000;0.4624;0.9959;
238.8000;0.4632;0.9959;
239.1000;0.4632;0.9935;
239.4000;0.4632;1.0008;
239.7000;0.4632;1.0008;
240.0000;0.4632;0.9886;
240.3000;0.4648;0.9935;
240.6000;0.4624;0.9886;
240.9000;0.4640;0.9813;
241.2000;0.4615;0.9813;
241.5000;0.4632;0.9935;
241.8000;0.4632;0.9959;
242.1000;0.4672;1.0057;
242.4000;0.4640;1.0008;
242.7000;0.4632;1.0008;
243.0000;0.4632;0.9935;
243.3000;0.4664;0.9935;
243.6000;0.4640;0.9837;
243.9000;0.4640;0.9789;
244.2000;0.4632;0.9813;
244.5000;0.4632;0.9789;
244.8000;0.4591;0.9691;
245.1000;0.4632;0.9740;
245.4000;0.4615;0.9764;
245.7000;0.4583;0.9716;
246.0000;0.4624;0.9862;
246.3000;0.4615;0.9862;
246.6000;0.4632;0.9935;
246.9000;0.4607;0.9959;
247.2000;0.4607;1.0008;
247.5000;0.4591;0.9910;
247.8000;0.4615;0.9935;
248.1000;0.4607;1.0008;
248.4000;0.4624;1.0008;
248.7000;0.4607;1.0032;
249.0000;0.4607;1.0057;
249.3000;0.4615;1.0130;
249.6000;0.4632;1.0154;
249.9000;0.4607;1.0130;
250.2000;0.4681;1.0324;
250.5000;0.4615;1.0178;
250.8000;0.4632;1.0227;
251.1000;0.4664;1.0276;
251.4000;0.4624;1.0154;
251.7000;0.4607;1.0057;
252.0000;0.4632;1.0081;
252.3000;0.4656;1.0154;
252.6000;0.4615;1.0105;
252.9000;0.4624;1.0178;
253.2000;0.4632;1.0227;
253.5000;0.4640;1.0178;
253.8000;0.4648;1.0130;
254.1000;0.4640;1.0105;
254.4000;0.4599;1.0130;
254.7000;0.4640;1.0130;
255.0000;0.4624;1.0105;
255.3000;0.4632;1.0081;
255.6000;0.4640;1.0081;
255.9000;0.4664;1.0178;
256.2000;0.4591;1.0032;
256.5000;0.4591;1.0105;
256.8000;0.4591;1.0130;
257.1000;0.4656;1.0324;
257.4000;0.4607;1.0251;
257.7000;0.4526;1.0081;
258.0000;0.4624;1.0324;
258.3000;0.4632;1.0324;
258.6000;0.4624;1.0203;
258.9000;0.4624;1.0130;
259.2000;0.4607;1.0081;
259.5000;0.4624;1.0130;
259.8000;0.4632;1.0105;
260.1000;0.4615;1.0105;
260.4000;0.4624;1.0130;
260.7000;0.4640;1.0227;
261.0000;0.4672;1.0373;
261.3000;0.4615;1.0178;
261.6000;0.4615;1.0276;
261.9000;0.4624;1.0276;
262.2000;0.4640;1.0178;
262.5000;0.4640;1.0154;
262.8000;0.4640;1.0154;
263.1000;0.4615;1.0032;
263.4000;0.4624;0.9984;
263.7000;0.4615;1.0081;
264.0000;0.4607;0.9984;
264.3000;0.4615;1.0032;
264.6000;0.4632;1.0105;
264.9000;0.4624;1.0105;
265.2000;0.4656;1.0178;
265.5000;0.4632;1.0105;
265.8000;0.4632;0.9935;
266.1000;0.4624;0.9959;
266.4000;0.4656;1.0032;
266.7000;0.4632;1.0105;
267.0000;0.4624;1.0057;
267.3000;0.4591;0.9910;
267.6000;0.4624;1.0032;
267.9000;0.4615;1.0081;
268.2000;0.4664;1.0203;
268.5000;0.4615;1.0105;
268.8000;0.4607;1.0130;
269.1000;0.4615;1.0203;
269.4000;0.4615;1.0154;
269.7000;0.4583;1.0105;
270.0000;0.4632;1.0203;
270.3000;0.4624;1.0178;
270.6000;0.4624;1.0203;
270.9000;0.4624;1.0251;
271.2000;0.4607;1.0227;
271.5000;0.4624;1.0227;
271.8000;0.4624;1.0300;
272.1000;0.4607;1.0227;
272.4000;0.4624;1.0178;
272.7000;0.4624;1.0105;
273.0000;0.4615;1.0057;
273.3000;0.4624;1.0130;
273.6000;0.4632;1.0178;
273.9000;0.4664;1.0227;
274.2000;0.4607;1.0032;
274.5000;0.4624;1.0057;
274.8000;0.4591;1.0057;
275.1000;0.4640;1.0130;
275.4000;0.4672;1.0130;
275.7000;0.4713;1.0300;
276.0000;0.4632;1.0130;
276.3000;0.4591;1.0032;
276.6000;0.4591;1.0032;
276.9000;0.4607;1.0057;
277.2000;0.4607;1.0008;
277.5000;0.4575;0.9959;
277.8000;0.4632;0.9984;
278.1000;0.4599;1.0008;
278.4000;0.4607;1.0081;
278.7000;0.4607;1.0032;
279.0000;0.4591;1.0130;
279.3000;0.4583;1.0105;
279.6000;0.4624;1.0154;
279.9000;0.4599;1.0032;
280.2000;0.4599;1.0105;
280.5000;0.4542;1.0032;
280.8000;0.4615;1.0227;
281.1000;0.4624;1.0203;
281.4000;0.4624;1.0178;
281.7000;0.4624;1.0276;
282.0000;0.4599;1.0203;
282.3000;0.4599;1.0178;
282.6000;0.4615;1.0154;
282.9000;0.4599;1.0130;
283.2000;0.4599;1.0130;
283.5000;0.4591;1.0032;
283.8000;0.4607;1.0081;
284.1000;0.4624;1.0178;
284.4000;0.4624;1.0178;
284.7000;0.4607;1.0130;
285.0000;0.4607;1.0057;
285.3000;0.4624;1.0081;
285.6000;0.4624;1.0032;
285.9000;0.4640;1.0105;
286.2000;0.4624;1.0057;
286.5000;0.4632;1.0032;
286.8000;0.4640;1.0008;
287.1000;0.4640;1.0081;
287.4000;0.4640;1.0130;
287.7000;0.4648;1.0105;
288.0000;0.4624;1.0032;
288.3000;0.4664;1.0178;
288.6000;0.4615;1.0105;
288.9000;0.4656;1.0203;
289.2000;0.4648;1.0276;
289.5000;0.4615;1.0276;
289.8000;0.4648;1.0349;
290.1000;0.4689;1.0446;
290.4000;0.4632;1.0203;
290.7000;0.4624;1.0227;
291.0000;0.4607;1.0178;
291.3000;0.4607;1.0178;
291.6000;0.4583;1.0154;
291.9000;0.4615;1.0251;
292.2000;0.4632;1.0227;
292.5000;0.4648;1.0203;
292.8000;0.4558;1.0032;
293.1000;0.4648;1.0203;
293.4000;0.4599;1.0057;
293.7000;0.4632;1.0178;
294.0000;0.4624;1.0178;
294.3000;0.4632;1.0227;
294.6000;0.4624;1.0251;
294.9000;0.4599;1.0203;
295.2000;0.4607;1.0178;
295.5000;0.4615;1.0178;
295.8000;0.4607;1.0105;
296.1000;0.4656;1.0130;
296.4000;0.4615;0.9959;
296.7000;0.4615;0.9935;
297.0000;0.4615;0.9935;
297.3000;0.4615;0.9984;
297.6000;0.4624;0.9959;
297.9000;0.4632;0.9984;
298.2000;0.4607;0.9984;
298.5000;0.4607;0.9959;
298.8000;0.4615;0.9959;
299.1000;0.4583;0.9886;
299.4000;0.4624;0.9935;
299.7000;0.4615;0.9862;
300.0000;0.4624;0.9837;
300.3000;0.4607;0.9886;
300.6000;0.4632;0.9984;
300.9000;0.4640;1.0057;
301.2000;0.4607;1.0057;
301.5000;0.4640;1.0203;
301.8000;0.4632;1.0154;
302.1000;0.4624;1.0203;
302.4000;0.4624;1.0203;
302.7000;0.4607;1.0178;
303.0000;0.4615;1.0081;
303.3000;0.4624;1.0057;
303.6000;0.4656;1.0203;
303.9000;0.4599;1.0105;
304.2000;0.4615;1.0105;
304.5000;0.4607;1.0081;
304.8000;0.4615;1.0057;
305.1000;0.4599;1.0032;
305.4000;0.4615;1.0130;
305.7000;0.4648;1.0276;
306.0000;0.4624;1.0203;
306.3000;0.4599;1.0105;
306.6000;0.4632;1.0154;
306.9000;0.4624;1.0178;
307.2000;0.4656;1.0227;
307.5000;0.4632;1.0154;
307.8000;0.4599;1.0130;
308.1000;0.4624;1.0251;
308.4000;0.4624;1.0276;
308.7000;0.4607;1.0178;
309.0000;0.4624;1.0251;
309.3000;0.4615;1.0251;
309.6000;0.4640;1.0422;
309.9000;0.4615;1.0324;
310.2000;0.4607;1.0398;
310.5000;0.4599;1.0349;
310.8000;0.4632;1.0300;
311.1000;0.4607;1.0227;
311.4000;0.4591;1.0178;
311.7000;0.4615;1.0227;
312.0000;0.4607;1.0251;
312.3000;0.4632;1.0276;
312.6000;0.4599;1.0105;
312.9000;0.4615;1.0154;
313.2000;0.4640;1.0227;
313.5000;0.4632;1.0130;
313.8000;0.4615;1.0081;
314.1000;0.4615;1.0178;
314.4000;0.4607;1.0203;
314.7000;0.4681;1.0300;
315.0000;0.4599;1.0105;
315.3000;0.4640;1.0227;
315.6000;0.4648;1.0373;
315.9000;0.4567;1.0178;
316.2000;0.4607;1.0276;
316.5000;0.4607;1.0227;
316.8000;0.4607;1.0154;
317.1000;0.4615;1.0178;
317.4000;0.4607;1.0178;
317.7000;0.4697;1.0422;
318.0000;0.4599;1.0130;
318.3000;0.4656;1.0251;
318.6000;0.4607;1.0130;
318.9000;0.4607;1.0130;
319.2000;0.4534;0.9984;
319.5000;0.4615;1.0227;
319.8000;0.4624;1.0324;
320.1000;0.4575;1.0227;
320.4000;0.4599;1.0251;
320.7000;0.4599;1.0154;
321.0000;0.4624;1.0154;
321.3000;0.4624;1.0276;
321.6000;0.4607;1.0300;
321.9000;0.4689;1.0641;
322.2000;0.4607;1.0446;
322.5000;0.4599;1.0446;
322.8000;0.4624;1.0422;
323.1000;0.4615;1.0300;
323.4000;0.4599;1.0154;
323.7000;0.4615;1.0227;
324.0000;0.4599;1.0154;
324.3000;0.4599;1.0178;
324.6000;0.4624;1.0251;
324.9000;0.4599;1.0300;
325.2000;0.4624;1.0324;
325.5000;0.4615;1.0349;
325.8000;0.4615;1.0251;
326.1000;0.4640;1.0300;
326.4000;0.4615;1.0251;
326.7000;0.4607;1.0251;
327.0000;0.4640;1.0324;
327.3000;0.4624;1.0227;
327.6000;0.4624;1.0178;
327.9000;0.4615;1.0105;
328.2000;0.4591;1.0130;
328.5000;0.4615;1.0227;
328.8000;0.4607;1.0203;
329.1000;0.4607;1.0203;
329.4000;0.4607;1.0227;
329.7000;0.4599;1.0178;
330.0000;0.4607;1.0203;
330.3000;0.4624;1.0300;
330.6000;0.4615;1.0398;
330.9000;0.4624;1.0398;
331.2000;0.4640;1.0349;
331.5000;0.4681;1.0398;
331.8000;0.4624;1.0178;
332.1000;0.4648;1.0300;
332.4000;0.4624;1.0276;
332.7000;0.4640;1.0349;
333.0000;0.4656;1.0446;
333.3000;0.4615;1.0227;
333.6000;0.4615;1.0178;
333.9000;0.4656;1.0276;
334.2000;0.4624;1.0178;
334.5000;0.4615;1.0130;
334.8000;0.4624;1.0081;
335.1000;0.4681;1.0251;
335.4000;0.4632;1.0081;
335.7000;0.4640;1.0130;
336.0000;0.4624;1.0081;
336.3000;0.4632;1.0057;
336.6000;0.4558;0.9813;
336.9000;0.4591;0.9862;
337.2000;0.4615;1.0057;
337.5000;0.4615;1.0154;
337.8000;0.4624;1.0203;
338.1000;0.4624;1.0154;
338.4000;0.4591;1.0154;
338.7000;0.4624;1.0251;
339.0000;0.4615;1.0276;
339.3000;0.4607;1.0178;
339.6000;0.4632;1.0105;
339.9000;0.4615;1.0081;
340.2000;0.4689;1.0276;
340.5000;0.4632;1.0105;
340.8000;0.4591;1.0081;
341.1000;0.4615;1.0203;
341.4000;0.4632;1.0130;
341.7000;0.4599;1.0227;
342.0000;0.4599;1.0251;
342.3000;0.4624;1.0324;
342.6000;0.4607;1.0276;
342.9000;0.4615;1.0300;
343.2000;0.4624;1.0300;
343.5000;0.4599;1.0324;
343.8000;0.4607;1.0324;
344.1000;0.4607;1.0276;
344.4000;0.4607;1.0324;
344.7000;0.4632;1.0398;
345.0000;0.4624;1.0373;
345.3000;0.4607;1.0373;
345.6000;0.4624;1.0373;
345.9000;0.4607;1.0349;
346.2000;0.4607;1.0422;
346.5000;0.4632;1.0446;
346.8000;0.4656;1.0519;
347.1000;0.4632;1.0446;
347.4000;0.4624;1.0446;
347.7000;0.4624;1.0373;
348.0000;0.4607;1.0276;
348.3000;0.4615;1.0276;
348.6000;0.4615;1.0300;
348.9000;0.4624;1.0300;
349.2000;0.4648;1.0446;
349.5000;0.4624;1.0495;
349.8000;0.4599;1.0471;
350.1000;0.4607;1.0495;
350.4000;0.4599;1.0471;
350.7000;0.4607;1.0398;
351.0000;0.4705;1.0544;
351.3000;0.4615;1.0398;
351.6000;0.4607;1.0349;
351.9000;0.4591;1.0349;
352.2000;0.4624;1.0300;
352.5000;0.4510;1.0032;
352.8000;0.4550;1.0178;
353.1000;0.4607;1.0349;
353.4000;0.4672;1.0544;
353.7000;0.4615;1.0349;
354.0000;0.4640;1.0349;
354.3000;0.4599;1.0227;
354.6000;0.4615;1.0227;
354.9000;0.4599;1.0105;
355.2000;0.4591;1.0130;
355.5000;0.4599;1.0081;
355.8000;0.4615;1.0105;
356.1000;0.4575;0.9959;
356.4000;0.4615;1.0130;
356.7000;0.4607;1.0081;
357.0000;0.4518;0.9910;
357.3000;0.4599;1.0203;
357.6000;0.4624;1.0251;
357.9000;0.4591;1.0203;
358.2000;0.4607;1.0276;
358.5000;0.4583;1.0203;
358.8000;0.4624;1.0154;
359.1000;0.4640;1.0276;
359.4000;0.4632;1.0276;
359.7000;0.4599;1.0276;
360.0000;0.4534;1.0081;
360.3000;0.4534;1.0081;
360.6000;0.4599;1.0227;
360.9000;0.4583;1.0251;
361.2000;0.4624;1.0349;
361.5000;0.4656;1.0276;
361.8000;0.4615;1.0203;
362.1000;0.4615;1.0276;
362.4000;0.4648;1.0276;
362.7000;0.4640;1.0276;
363.0000;0.4624;1.0251;
363.3000;0.4607;1.0130;
363.6000;0.4607;1.0081;
363.9000;0.4615;0.9959;
364.2000;0.4615;0.9984;
364.5000;0.4624;1.0057;
364.8000;0.4599;1.0081;
365.1000;0.4624;1.0032;
365.4000;0.4624;1.0032;
365.7000;0.4615;1.0081;
366.0000;0.4615;1.0057;
366.3000;0.4599;1.0081;
366.6000;0.4550;0.9984;
366.9000;0.4615;1.0081;
367.2000;0.4615;1.0130;
367.5000;0.4599;1.0203;
367.8000;0.4624;1.0300;
368.1000;0.4615;1.0276;
368.4000;0.4615;1.0300;
368.7000;0.4615;1.0349;
369.0000;0.4624;1.0324;
369.3000;0.4615;1.0324;
369.6000;0.4624;1.0300;
369.9000;0.4632;1.0300;
370.2000;0.4607;1.0227;
370.5000;0.4607;1.0105;
370.8000;0.4607;1.0032;
371.1000;0.4624;1.0154;
371.4000;0.4624;1.0130;
371.7000;0.4624;1.0130;
372.0000;0.4615;1.0203;
372.3000;0.4607;1.0203;
372.6000;0.4632;1.0227;
372.9000;0.4689;1.0324;
373.2000;0.4615;1.0203;
373.5000;0.4624;1.0324;
373.8000;0.4583;1.0203;
374.1000;0.4615;1.0276;
374.4000;0.4607;1.0251;
374.7000;0.4591;1.0251;
375.0000;0.4599;1.0154;
375.3000;0.4607;1.0178;
375.6000;0.4632;1.0203;
375.9000;0.4681;1.0373;
376.2000;0.4615;1.0227;
376.5000;0.4697;1.0398;
376.8000;0.4599;1.0154;
377.1000;0.4599;1.0178;
377.4000;0.4615;1.0251;
377.7000;0.4567;1.0154;
378.0000;0.4583;1.0251;
378.3000;0.4599;1.0276;
378.6000;0.4624;1.0471;
378.9000;0.4607;1.0373;
379.2000;0.4599;1.0422;
379.5000;0.4607;1.0398;
379.8000;0.4591;1.0276;
380.1000;0.4624;1.0324;
380.4000;0.4632;1.0324;
380.7000;0.4607;1.0300;
381.0000;0.4607;1.0324;
381.3000;0.4591;1.0276;
381.6000;0.4632;1.0300;
381.9000;0.4591;1.0154;
382.2000;0.4599;1.0130;
382.5000;0.4624;1.0057;
382.8000;0.4607;0.9959;
383.1000;0.4615;1.0008;
383.4000;0.4615;1.0057;
383.7000;0.4632;1.0130;
384.0000;0.4697;1.0300;
384.3000;0.4550;0.9935;
384.6000;0.4664;1.0300;
384.9000;0.4607;1.0105;
385.2000;0.4542;0.9984;
385.5000;0.4583;1.0032;
385.8000;0.4624;0.9984;
386.1000;0.4591;0.9984;
386.4000;0.4664;1.0105;
386.7000;0.4599;0.9910;
387.0000;0.4607;1.0032;
387.3000;0.4607;1.0081;
387.6000;0.4591;1.0130;
387.9000;0.4624;1.0178;
388.2000;0.4615;1.0227;
388.5000;0.4632;1.0251;
388.8000;0.4599;1.0178;
389.1000;0.4632;1.0203;
389.4000;0.4591;1.0130;
389.7000;0.4640;1.0178;
390.0000;0.4599;1.0057;
390.3000;0.4607;1.0008;
390.6000;0.4501;0.9740;
390.9000;0.4607;0.9935;
391.2000;0.4607;0.9910;
391.5000;0.4599;0.9984;
391.8000;0.4526;0.9886;
392.1000;0.4599;1.0130;
392.4000;0.4615;1.0178;
392.7000;0.4615;1.0276;
393.0000;0.4599;1.0203;
393.3000;0.4648;1.0203;
393.6000;0.4624;1.0081;
393.9000;0.4615;1.0105;
394.2000;0.4624;1.0154;
394.5000;0.4615;1.0154;
394.8000;0.4615;1.0227;
395.1000;0.4607;1.0276;
395.4000;0.4583;1.0227;
395.7000;0.4607;1.0203;
396.0000;0.4575;1.0130;
396.3000;0.4615;1.0300;
396.6000;0.4615;1.0227;
396.9000;0.4615;1.0130;
397.2000;0.4607;1.0154;
397.5000;0.4591;0.9959;
397.8000;0.4599;0.9886;
398.1000;0.4607;0.9984;
398.4000;0.4599;0.9984;
398.7000;0.4607;0.9959;
399.0000;0.4599;1.0032;
399.3000;0.4591;1.0130;
399.6000;0.4583;1.0081;
399.9000;0.4615;1.0057;
400.2000;0.4599;1.0032;
400.5000;0.4599;1.0032;
400.8000;0.4607;1.0032;
401.1000;0.4575;1.0032;
401.4000;0.4607;1.0130;
401.7000;0.4599;1.0081;
402.0000;0.4599;1.0008;
402.3000;0.4632;1.0081;
402.6000;0.4575;1.0008;
402.9000;0.4615;1.0032;
403.2000;0.4607;0.9984;
403.5000;0.4624;1.0008;
403.8000;0.4615;0.9935;
404.1000;0.4607;0.9984;
404.4000;0.4591;1.0081;
404.7000;0.4591;1.0154;
405.0000;0.4607;1.0178;
405.3000;0.4607;1.0154;
405.6000;0.4599;1.0130;
405.9000;0.4607;1.0130;
406.2000;0.4583;1.0154;
406.5000;0.4615;1.0251;
406.8000;0.4615;1.0300;
407.1000;0.4607;1.0398;
407.4000;0.4599;1.0398;
407.7000;0.4624;1.0446;
408.0000;0.4550;1.0178;
408.3000;0.4599;1.0178;
408.6000;0.4615;1.0154;
408.9000;0.4615;1.0227;
409.2000;0.4640;1.0154;
409.5000;0.4615;1.0154;
409.8000;0.4583;1.0081;
410.1000;0.4607;1.0057;
410.4000;0.4607;1.0057;
410.7000;0.4656;1.0081;
411.0000;0.4615;1.0057;
411.3000;0.4607;1.0008;
411.6000;0.4615;1.0105;
411.9000;0.4599;1.0130;
412.2000;0.4624;1.0349;
412.5000;0.4599;1.0324;
412.8000;0.4599;1.0349;
413.1000;0.4575;1.0178;
413.4000;0.4607;1.0227;
413.7000;0.4510;0.9959;
414.0000;0.4615;1.0178;
414.3000;0.4542;0.9935;
414.6000;0.4599;1.0105;
414.9000;0.4591;1.0081;
415.2000;0.4615;1.0032;
415.5000;0.4615;1.0105;
415.8000;0.4599;1.0008;
416.1000;0.4591;0.9959;
416.4000;0.4607;0.9959;
416.7000;0.4640;0.9910;
417.0000;0.4624;0.9959;
417.3000;0.4615;0.9959;
417.6000;0.4624;0.9935;
417.9000;0.4583;0.9984;
418.2000;0.4607;1.0008;
418.5000;0.4599;0.9984;
418.8000;0.4615;0.9910;
419.1000;0.4607;0.9910;
419.4000;0.4632;1.0032;
419.7000;0.4607;1.0008;
420.0000;0.4599;0.9886;
420.3000;0.4632;0.9935;
420.6000;0.4615;0.9910;
420.9000;0.4615;0.9910;
421.2000;0.4591;0.9910;
421.5000;0.4599;0.9910;
421.8000;0.4542;0.9740;
422.1000;0.4599;0.9959;
422.4000;0.4599;1.0057;
422.7000;0.4591;1.0105;
423.0000;0.4575;1.0057;
423.3000;0.4607;1.0105;
423.6000;0.4599;1.0032;
423.9000;0.4591;0.9984;
424.2000;0.4615;1.0105;
424.5000;0.4599;1.0081;
424.8000;0.4591;1.0057;
425.1000;0.4558;0.9959;
425.4000;0.4615;1.0130;
425.7000;0.4583;1.0081;
426.0000;0.4624;1.0130;
426.3000;0.4599;1.0130;
426.6000;0.4591;1.0081;
426.9000;0.4599;1.0105;
427.2000;0.4607;1.0154;
427.5000;0.4501;0.9862;
427.8000;0.4599;1.0154;
428.1000;0.4599;1.0154;
428.4000;0.4607;1.0081;
428.7000;0.4607;1.0032;
429.0000;0.4656;1.0154;
429.3000;0.4615;1.0081;
429.6000;0.4624;1.0130;
429.9000;0.4607;1.0081;
430.2000;0.4534;0.9959;
430.5000;0.4632;1.0154;
430.8000;0.4624;1.0081;
431.1000;0.4567;0.9910;
431.4000;0.4624;0.9984;
431.7000;0.4599;0.9959;
432.0000;0.4640;1.0008;
432.3000;0.4615;0.9984;
432.6000;0.4575;0.9935;
432.9000;0.4599;0.9910;
433.2000;0.4591;0.9910;
433.5000;0.4607;0.9910;
433.8000;0.4591;0.9910;
434.1000;0.4599;0.9910;
434.4000;0.4607;0.9910;
434.7000;0.4632;0.9984;
435.0000;0.4599;0.9935;
435.3000;0.4640;1.0105;
435.6000;0.4615;1.0105;
435.9000;0.4599;1.0032;
436.2000;0.4583;0.9886;
436.5000;0.4599;0.9910;
436.8000;0.4567;0.9789;
437.1000;0.4624;0.9837;
437.4000;0.4599;0.9716;
437.7000;0.4583;0.9764;
438.0000;0.4583;0.9813;
438.3000;0.4607;0.9764;
438.6000;0.4583;0.9789;
438.9000;0.4591;0.9886;
439.2000;0.4624;0.9910;
439.5000;0.4615;0.9935;
439.8000;0.4607;0.9935;
440.1000;0.4599;0.9886;
440.4000;0.4615;0.9910;
440.7000;0.4607;0.9910;
441.0000;0.4599;0.9959;
441.3000;0.4591;0.9935;
441.6000;0.4599;0.9910;
441.9000;0.4615;1.0008;
442.2000;0.4599;0.9886;
442.5000;0.4591;0.9813;
442.8000;0.4591;0.9862;
443.1000;0.4599;0.9862;
443.4000;0.4607;0.9910;
443.7000;0.4607;0.9959;
444.0000;0.4599;0.9935;
444.3000;0.4624;1.0008;
444.6000;0.4632;1.0105;
444.9000;0.4615;1.0130;
445.2000;0.4607;1.0178;
445.5000;0.4640;1.0227;
445.8000;0.4607;1.0178;
446.1000;0.4615;1.0130;
446.4000;0.4615;1.0081;
446.7000;0.4591;1.0057;
447.0000;0.4558;0.9959;
447.3000;0.4591;1.0008;
447.6000;0.4591;1.0057;
447.9000;0.4591;1.0105;
448.2000;0.4599;1.0008;
448.5000;0.4607;0.9984;
448.8000;0.4624;1.0008;
449.1000;0.4575;0.9886;
449.4000;0.4599;0.9959;
449.7000;0.4607;0.9984;
450.0000;0.4599;0.9959;
450.3000;0.4607;0.9959;
450.6000;0.4583;0.9935;
450.9000;0.4599;0.9910;
451.2000;0.4607;0.9910;
451.5000;0.4591;0.9935;
451.8000;0.4624;0.9984;
452.1000;0.4583;0.9789;
452.4000;0.4599;0.9935;
452.7000;0.4607;1.0008;
453.0000;0.4599;0.9984;
453.3000;0.4599;0.9935;
453.6000;0.4615;1.0032;
453.9000;0.4656;1.0130;
454.2000;0.4615;1.0032;
454.5000;0.4599;1.0057;
454.8000;0.4607;1.0008;
455.1000;0.4599;1.0057;
455.4000;0.4591;1.0081;
455.7000;0.4607;1.0203;
456.0000;0.4567;1.0105;
456.3000;0.4599;1.0178;
456.6000;0.4558;1.0008;
456.9000;0.4591;0.9984;
457.2000;0.4607;0.9984;
457.5000;0.4615;1.0032;
457.8000;0.4591;1.0081;
458.1000;0.4591;0.9959;
458.4000;0.4591;0.9910;
458.7000;0.4599;0.9910;
459.0000;0.4575;0.9935;
459.3000;0.4599;0.9984;
459.6000;0.4591;1.0032;
459.9000;0.4615;0.9984;
460.2000;0.4591;0.9910;
460.5000;0.4607;0.9935;
460.8000;0.4599;0.9910;
461.1000;0.4624;0.9935;
461.4000;0.4599;1.0032;
461.7000;0.4591;1.0032;
462.0000;0.4599;1.0081;
462.3000;0.4599;1.0081;
462.6000;0.4615;1.0081;
462.9000;0.4599;1.0057;
463.2000;0.4591;0.9935;
463.5000;0.4599;0.9813;
463.8000;0.4624;0.9886;
464.1000;0.4615;0.9862;
464.4000;0.4599;0.9886;
464.7000;0.4599;0.9910;
465.0000;0.4607;0.9886;
465.3000;0.4607;0.9910;
465.6000;0.4591;0.9886;
465.9000;0.4607;0.9886;
466.2000;0.4607;0.9935;
466.5000;0.4664;1.0105;
466.8000;0.4591;1.0008;
467.1000;0.4575;0.9959;
467.4000;0.4607;1.0008;
467.7000;0.4615;0.9935;
468.0000;0.4615;0.9935;
468.3000;0.4591;0.9813;
468.6000;0.4583;0.9764;
468.9000;0.4615;0.9789;
469.2000;0.4615;0.9716;
469.5000;0.4583;0.9691;
469.8000;0.4599;0.9837;
470.1000;0.4664;1.0105;
470.4000;0.4599;0.9959;
470.7000;0.4615;1.0081;
471.0000;0.4591;1.0008;
471.3000;0.4591;0.9984;
471.6000;0.4615;0.9984;
471.9000;0.4567;0.9886;
472.2000;0.4583;0.9886;
472.5000;0.4599;0.9862;
472.8000;0.4599;0.9959;
473.1000;0.4591;1.0008;
473.4000;0.4599;1.0057;
473.7000;0.4591;0.9935;
474.0000;0.4656;1.0130;
474.3000;0.4550;0.9935;
474.6000;0.4615;0.9959;
474.9000;0.4607;1.0032;
475.2000;0.4640;1.0105;
475.5000;0.4615;1.0032;
475.8000;0.4615;1.0081;
476.1000;0.4526;0.9910;
476.4000;0.4591;1.0032;
476.7000;0.4607;1.0154;
477.0000;0.4583;1.0178;
477.3000;0.4591;1.0081;
477.6000;0.4591;0.9984;
477.9000;0.4591;0.9886;
478.2000;0.4591;0.9813;
478.5000;0.4632;0.9910;
478.8000;0.4607;0.9837;
479.1000;0.4615;0.9862;
479.4000;0.4591;0.9862;
479.7000;0.4697;1.0203;
480.0000;0.4624;1.0032;
480.3000;0.4615;0.9959;
480.6000;0.4591;0.9886;
480.9000;0.4599;0.9862;
481.2000;0.4599;0.9935;
481.5000;0.4599;0.9910;
481.8000;0.4599;0.9910;
482.1000;0.4599;0.9910;
482.4000;0.4591;0.9935;
482.7000;0.4599;0.9984;
483.0000;0.4599;1.0032;
483.3000;0.4599;1.0081;
483.6000;0.4591;1.0032;
483.9000;0.4615;1.0008;
484.2000;0.4599;1.0057;
484.5000;0.4599;1.0032;
484.8000;0.4599;1.0081;
485.1000;0.4632;1.0178;
485.4000;0.4624;1.0203;
485.7000;0.4615;1.0203;
486.0000;0.4624;1.0203;
486.3000;0.4583;1.0081;
486.6000;0.4591;1.0081;
486.9000;0.4615;1.0081;
487.2000;0.4583;1.0008;
487.5000;0.4583;1.0008;
487.8000;0.4591;1.0057;
488.1000;0.4607;1.0130;
488.4000;0.4607;1.0105;
488.7000;0.4599;1.0008;
489.0000;0.4591;0.9910;
489.3000;0.4624;0.9984;
489.6000;0.4607;0.9984;
489.9000;0.4607;0.9984;
490.2000;0.4607;0.9935;
490.5000;0.4632;0.9984;
490.8000;0.4599;0.9886;
491.1000;0.4599;0.9910;
491.4000;0.4591;0.9935;
491.7000;0.4599;0.9935;
492.0000;0.4599;1.0008;
492.3000;0.4583;0.9984;
492.6000;0.4477;0.9570;
492.9000;0.4558;0.9764;
493.2000;0.4583;0.9886;
493.5000;0.4583;0.9935;
493.8000;0.4632;1.0081;
494.1000;0.4583;0.9886;
494.4000;0.4624;1.0105;
494.7000;0.4591;1.0032;
495.0000;0.4607;1.0081;
495.3000;0.4599;1.0105;
495.6000;0.4591;1.0105;
495.9000;0.4640;1.0178;
496.2000;0.4591;1.0057;
496.5000;0.4591;1.0057;
496.8000;0.4583;1.0057;
497.1000;0.4607;1.0081;
497.4000;0.4599;0.9910;
497.7000;0.4599;0.9886;
498.0000;0.4607;0.9935;
498.3000;0.4542;0.9910;
498.6000;0.4599;0.9959;
498.9000;0.4591;0.9886;
499.2000;0.4567;0.9935;
499.5000;0.4640;1.0057;
499.8000;0.4607;0.9959;
500.1000;0.4607;0.9959;
500.4000;0.4591;0.9984;
500.7000;0.4599;0.9959;
501.0000;0.4615;0.9959;
501.3000;0.4607;0.9959;
501.6000;0.4567;0.9886;
501.9000;0.4583;1.0008;
502.2000;0.4599;1.0032;
502.5000;0.4575;0.9984;
502.8000;0.4583;1.0057;
503.1000;0.4599;1.0081;
503.4000;0.4591;1.0032;
503.7000;0.4567;0.9959;
504.0000;0.4607;1.0081;
504.3000;0.4567;0.9984;
504.6000;0.4632;1.0130;
504.9000;0.4607;1.0057;
505.2000;0.4558;0.9959;
505.5000;0.4648;1.0178;
505.8000;0.4624;1.0057;
506.1000;0.4664;1.0203;
506.4000;0.4599;1.0008;
506.7000;0.4615;1.0057;
507.0000;0.4583;1.0008;
507.3000;0.4656;1.0227;
507.6000;0.4567;0.9862;
507.9000;0.4607;1.0008;
508.2000;0.4583;0.9984;
508.5000;0.4591;0.9959;
508.8000;0.4591;0.9959;
509.1000;0.4591;0.9984;
509.4000;0.4607;1.0008;
509.7000;0.4607;0.9984;
510.0000;0.4599;0.9984;
510.3000;0.4607;1.0057;
510.6000;0.4599;1.0032;
510.9000;0.4599;1.0032;
511.2000;0.4591;1.0105;
511.5000;0.4599;1.0057;
511.8000;0.4591;1.0081;
512.1000;0.4624;1.0105;
512.4000;0.4599;1.0008;
512.7000;0.4591;0.9910;
513.0000;0.4599;0.9886;
513.3000;0.4607;0.9959;
513.6000;0.4648;0.9984;
513.9000;0.4615;0.9935;
514.2000;0.4591;0.9935;
514.5000;0.4599;1.0008;
514.8000;0.4599;1.0008;
515.1000;0.4550;0.9910;
515.4000;0.4583;1.0105;
515.7000;0.4591;1.0154;
516.0000;0.4583;1.0057;
516.3000;0.4599;1.0105;
516.6000;0.4591;1.0154;
516.9000;0.4591;1.0203;
517.2000;0.4567;1.0081;
517.5000;0.4615;1.0081;
517.8000;0.4599;1.0008;
518.1000;0.4550;0.9959;
518.4000;0.4583;1.0057;
518.7000;0.4607;1.0057;
519.0000;0.4615;1.0008;
519.3000;0.4599;0.9984;
519.6000;0.4575;0.9959;
519.9000;0.4615;1.0008;
520.2000;0.4599;1.0057;
520.5000;0.4599;1.0130;
520.8000;0.4615;1.0227;
521.1000;0.4615;1.0300;
521.4000;0.4615;1.0276;
521.7000;0.4599;1.0203;
522.0000;0.4640;1.0276;
522.3000;0.4526;1.0008;
522.6000;0.4624;1.0324;
522.9000;0.4607;1.0251;
523.2000;0.4583;1.0203;
523.5000;0.4591;1.0227;
523.8000;0.4583;1.0130;
524.1000;0.4599;1.0178;
524.4000;0.4518;0.9910;
524.7000;0.4567;1.0154;
525.0000;0.4591;1.0227;
525.3000;0.4607;1.0300;
525.6000;0.4697;1.0446;
525.9000;0.4607;1.0178;
526.2000;0.4591;1.0178;
526.5000;0.4542;1.0081;
526.8000;0.4599;1.0203;
527.1000;0.4624;1.0203;
527.4000;0.4591;1.0130;
527.7000;0.4624;1.0203;
528.0000;0.4607;1.0130;
528.3000;0.4591;1.0105;
528.6000;0.4550;0.9984;
528.9000;0.4599;1.0154;
529.2000;0.4591;1.0203;
529.5000;0.4591;1.0130;
529.8000;0.4583;1.0081;
530.1000;0.4542;0.9984;
530.4000;0.4615;1.0154;
530.7000;0.4607;1.0130;
531.0000;0.4591;1.0105;
531.3000;0.4583;0.9984;
531.6000;0.4607;0.9959;
531.9000;0.4607;0.9935;
532.2000;0.4591;0.9862;
532.5000;0.4599;0.9886;
532.8000;0.4607;0.9862;
533.1000;0.4591;0.9935;
533.4000;0.4591;0.9910;
533.7000;0.4607;1.0008;
534.0000;0.4599;1.0008;
534.3000;0.4599;1.0057;
534.6000;0.4591;1.0057;
534.9000;0.4656;1.0300;
535.2000;0.4599;1.0105;
535.5000;0.4599;1.0105;
535.8000;0.4591;1.0057;
536.1000;0.4583;1.0105;
536.4000;0.4591;1.0105;
536.7000;0.4583;1.0057;
537.0000;0.4591;1.0081;
537.3000;0.4591;1.0008;
537.6000;0.4632;1.0154;
537.9000;0.4615;1.0130;
538.2000;0.4607;1.0154;
538.5000;0.4583;1.0057;
538.8000;0.4558;1.0057;
539.1000;0.4599;1.0178;
539.4000;0.4615;1.0276;
539.7000;0.4640;1.0324;
540.0000;0.4591;1.0227;
540.3000;0.4591;1.0300;
540.6000;0.4599;1.0300;
540.9000;0.4599;1.0276;
541.2000;0.4599;1.0276;
541.5000;0.4615;1.0251;
541.8000;0.4607;1.0276;
542.1000;0.4599;1.0276;
542.4000;0.4591;1.0276;
542.7000;0.4591;1.0324;
543.0000;0.4607;1.0276;
543.3000;0.4599;1.0276;
543.6000;0.4575;1.0251;
543.9000;0.4599;1.0300;
544.2000;0.4599;1.0373;
544.5000;0.4624;1.0398;
544.8000;0.4607;1.0398;
545.1000;0.4648;1.0495;
545.4000;0.4599;1.0324;
545.7000;0.4599;1.0300;
546.0000;0.4599;1.0300;
546.3000;0.4591;1.0251;
546.6000;0.4656;1.0398;
546.9000;0.4640;1.0349;
547.2000;0.4591;1.0154;
547.5000;0.4534;1.0008;
547.8000;0.4607;1.0178;
548.1000;0.4664;1.0276;
548.4000;0.4640;1.0300;
548.7000;0.4607;1.0081;
549.0000;0.4591;1.0008;
549.3000;0.4599;0.9910;
549.6000;0.4591;0.9862;
549.9000;0.4615;0.9886;
550.2000;0.4591;0.9716;
550.5000;0.4575;0.9618;
550.8000;0.4591;0.9740;
551.1000;0.4640;0.9910;
551.4000;0.4599;0.9862;
551.7000;0.4591;0.9862;
552.0000;0.4615;0.9886;
552.3000;0.4615;0.9886;
552.6000;0.4624;0.9984;
552.9000;0.4599;0.9862;
553.2000;0.4558;0.9740;
553.5000;0.4591;0.9813;
553.8000;0.4591;0.9716;
554.1000;0.4591;0.9716;
554.4000;0.4607;0.9764;
554.7000;0.4591;0.9740;
555.0000;0.4591;0.9716;
555.3000;0.4575;0.9667;
555.6000;0.4591;0.9764;
555.9000;0.4624;0.9837;
556.2000;0.4583;0.9813;
556.5000;0.4607;0.9886;
556.8000;0.4583;0.9935;
557.1000;0.4583;0.9935;
557.4000;0.4583;0.9837;
557.7000;0.4583;0.9716;
558.0000;0.4624;0.9813;
558.3000;0.4591;0.9789;
558.6000;0.4583;0.9813;
558.9000;0.4607;0.9862;
559.2000;0.4583;0.9813;
559.5000;0.4583;0.9813;
559.8000;0.4591;0.9837;
560.1000;0.4583;0.9740;
560.4000;0.4575;0.9813;
560.7000;0.4607;0.9862;
561.0000;0.4550;0.9643;
561.3000;0.4575;0.9716;
561.6000;0.4583;0.9837;
561.9000;0.4558;0.9862;
562.2000;0.4607;1.0008;
562.5000;0.4615;1.0032;
562.8000;0.4599;1.0057;
563.1000;0.4591;1.0008;
563.4000;0.4656;1.0227;
563.7000;0.4607;1.0057;
564.0000;0.4599;0.9984;
564.3000;0.4615;1.0008;
564.6000;0.4607;0.9984;
564.9000;0.4615;0.9959;
565.2000;0.4599;1.0008;
565.5000;0.4583;1.0032;
565.8000;0.4599;1.0178;
566.1000;0.4615;1.0130;
566.4000;0.4599;1.0032;
566.7000;0.4607;1.0081;
567.0000;0.4599;1.0154;
567.3000;0.4591;1.0154;
567.6000;0.4591;1.0154;
567.9000;0.4632;1.0251;
568.2000;0.4607;1.0227;
568.5000;0.4607;1.0203;
568.8000;0.4583;1.0081;
569.1000;0.4558;0.9959;
569.4000;0.4583;1.0130;
569.7000;0.4664;1.0349;
570.0000;0.4664;1.0446;
570.3000;0.4583;1.0154;
570.6000;0.4583;1.0130;
570.9000;0.4624;1.0203;
571.2000;0.4640;1.0130;
571.5000;0.4583;1.0008;
571.8000;0.4591;0.9935;
572.1000;0.4599;1.0008;
572.4000;0.4599;1.0057;
572.7000;0.4599;1.0032;
573.0000;0.4591;1.0057;
573.3000;0.4607;1.0130;
573.6000;0.4607;1.0057;
573.9000;0.4558;0.9935;
574.2000;0.4591;1.0032;
574.5000;0.4599;1.0154;
574.8000;0.4591;1.0154;
575.1000;0.4583;1.0227;
575.4000;0.4583;1.0324;
575.7000;0.4591;1.0324;
576.0000;0.4591;1.0349;
576.3000;0.4575;1.0373;
576.6000;0.4607;1.0373;
576.9000;0.4599;1.0251;
577.2000;0.4591;1.0105;
577.5000;0.4599;1.0130;
577.8000;0.4558;0.9959;
578.1000;0.4583;0.9959;
578.4000;0.4583;1.0032;
578.7000;0.4558;0.9886;
579.0000;0.4567;0.9910;
579.3000;0.4591;0.9959;
579.6000;0.4583;0.9959;
579.9000;0.4575;0.9886;
580.2000;0.4583;0.9910;
580.5000;0.4599;1.0008;
580.8000;0.4591;0.9935;
581.1000;0.4575;0.9837;
581.4000;0.4575;0.9910;
581.7000;0.4599;0.9984;
582.0000;0.4583;0.9959;
582.3000;0.4607;0.9959;
582.6000;0.4591;0.9959;
582.9000;0.4599;1.0081;
583.2000;0.4615;1.0105;
583.5000;0.4591;1.0081;
583.8000;0.4624;1.0227;
584.1000;0.4575;1.0154;
584.4000;0.4534;1.0081;
584.7000;0.4607;1.0251;
585.0000;0.4583;1.0154;
585.3000;0.4575;1.0178;
585.6000;0.4607;1.0276;
585.9000;0.4615;1.0227;
586.2000;0.4591;1.0178;
586.5000;0.4599;1.0203;
586.8000;0.4550;1.0105;
587.1000;0.4558;1.0057;
587.4000;0.4591;1.0154;
587.7000;0.4591;1.0154;
588.0000;0.4591;1.0081;
588.3000;0.4599;0.9984;
588.6000;0.4599;1.0032;
588.9000;0.4583;1.0081;
589.2000;0.4575;1.0130;
589.5000;0.4575;1.0057;
589.8000;0.4583;1.0057;
590.1000;0.4591;1.0178;
590.4000;0.4550;1.0130;
590.7000;0.4599;1.0178;
591.0000;0.4518;0.9984;
591.3000;0.4526;1.0032;
591.6000;0.4591;1.0130;
591.9000;0.4615;1.0178;
592.2000;0.4583;1.0032;
592.5000;0.4591;1.0081;
592.8000;0.4591;1.0032;
593.1000;0.4583;1.0057;
593.4000;0.4632;1.0154;
593.7000;0.4591;1.0008;
594.0000;0.4607;1.0032;
594.3000;0.4591;0.9984;
594.6000;0.4599;1.0032;
594.9000;0.4575;1.0057;
595.2000;0.4575;1.0008;
595.5000;0.4558;0.9910;
595.8000;0.4599;1.0008;
596.1000;0.4501;0.9764;
596.4000;0.4575;1.0008;
596.7000;0.4624;1.0105;
597.0000;0.4591;0.9984;
597.3000;0.4599;0.9959;
597.6000;0.4632;1.0008;
597.9000;0.4607;0.9862;
598.2000;0.4583;0.9764;
598.5000;0.4583;0.9691;
598.8000;0.4591;0.9789;
599.1000;0.4542;0.9716;
599.4000;0.4591;0.9837;
599.7000;0.4583;0.9862;
600.0000;0.4624;0.9935;
600.3000;0.4591;0.9935;
600.6000;0.4591;0.9935;
600.9000;0.4567;0.9618;
601.2000;0.4591;0.9570;
601.5000;0.4534;0.9375;
601.8000;0.4501;0.9180;
602.1000;0.4485;0.9010;
602.4000;0.4453;0.8790;
602.7000;0.4420;0.8620;
603.0000;0.4436;0.8523;
603.3000;0.4396;0.8328;
603.6000;0.4379;0.8157;
603.9000;0.4363;0.8011;
604.2000;0.4371;0.8036;
604.5000;0.4330;0.8011;
604.8000;0.4314;0.8011;
605.1000;0.4330;0.7962;
605.4000;0.4282;0.7792;
605.7000;0.4274;0.7670;
606.0000;0.4233;0.7597;
606.3000;0.4241;0.7597;
606.6000;0.4111;0.7305;
606.9000;0.4233;0.7549;
607.2000;0.4208;0.7500;
607.5000;0.4208;0.7622;
607.8000;0.4192;0.7743;
608.1000;0.4192;0.7670;
608.4000;0.4192;0.7646;
608.7000;0.4184;0.7719;
609.0000;0.4094;0.7500;
609.3000;0.4168;0.7695;
609.6000;0.4192;0.7792;
609.9000;0.4127;0.7597;
610.2000;0.4160;0.7695;
610.5000;0.4192;0.7841;
610.8000;0.4103;0.7646;
611.1000;0.4103;0.7695;
611.4000;0.4103;0.7695;
611.7000;0.4111;0.7622;
612.0000;0.4086;0.7622;
612.3000;0.4062;0.7451;
612.6000;0.4062;0.7427;
612.9000;0.4070;0.7475;
613.2000;0.4078;0.7549;
613.5000;0.4078;0.7549;
613.8000;0.4070;0.7451;
614.1000;0.4046;0.7451;
614.4000;0.4078;0.7475;
614.7000;0.4070;0.7524;
615.0000;0.4054;0.7451;
615.3000;0.4062;0.7500;
615.6000;0.4054;0.7500;
615.9000;0.4054;0.7549;
616.2000;0.4021;0.7573;
616.5000;0.4021;0.7573;
616.8000;0.4005;0.7402;
617.1000;0.4029;0.7475;
617.4000;0.4086;0.7622;
617.7000;0.4029;0.7500;
618.0000;0.4013;0.7524;
618.3000;0.3989;0.7500;
618.6000;0.4005;0.7524;
618.9000;0.4062;0.7670;
619.2000;0.3972;0.7451;
619.5000;0.3980;0.7451;
619.8000;0.3972;0.7524;
620.1000;0.3923;0.7378;
620.4000;0.3972;0.7622;
620.7000;0.3964;0.7646;
621.0000;0.3948;0.7597;
621.3000;0.3964;0.7646;
621.6000;0.3956;0.7670;
621.9000;0.3972;0.7670;
622.2000;0.3923;0.7475;
622.5000;0.3923;0.7427;
622.8000;0.3972;0.7549;
623.1000;0.3923;0.7427;
623.4000;0.3948;0.7475;
623.7000;0.3964;0.7549;
624.0000;0.3907;0.7427;
624.3000;0.3915;0.7378;
624.6000;0.3932;0.7500;
624.9000;0.3915;0.7500;
625.2000;0.3834;0.7232;
625.5000;0.3915;0.7329;
625.8000;0.3907;0.7378;
626.1000;0.3948;0.7524;
626.4000;0.3899;0.7500;
626.7000;0.3891;0.7475;
627.0000;0.3989;0.7792;
627.3000;0.3899;0.7524;
627.6000;0.3899;0.7427;
627.9000;0.3891;0.7475;
628.2000;0.3850;0.7549;
628.5000;0.3907;0.7670;
628.8000;0.3883;0.7670;
629.1000;0.3891;0.7719;
629.4000;0.3867;0.7597;
629.7000;0.3883;0.7549;
630.0000;0.3907;0.7597;
630.3000;0.3867;0.7427;
630.6000;0.3850;0.7427;
630.9000;0.3891;0.7573;
631.2000;0.3858;0.7402;
631.5000;0.3940;0.7695;
631.8000;0.3826;0.7475;
632.1000;0.3850;0.7451;
632.4000;0.3850;0.7451;
632.7000;0.3842;0.7329;
633.0000;0.3810;0.7256;
633.3000;0.3858;0.7305;
633.6000;0.3842;0.7378;
633.9000;0.3842;0.7378;
634.2000;0.3826;0.7354;
634.5000;0.3834;0.7475;
634.8000;0.3818;0.7549;
635.1000;0.3834;0.7475;
635.4000;0.3826;0.7402;
635.7000;0.3810;0.7281;
636.0000;0.3810;0.7329;
636.3000;0.3818;0.7354;
636.6000;0.3818;0.7378;
636.9000;0.3801;0.7354;
637.2000;0.3826;0.7378;
637.5000;0.3826;0.7281;
637.8000;0.3818;0.7232;
638.1000;0.3801;0.7354;
638.4000;0.3834;0.7378;
638.7000;0.3891;0.7549;
639.0000;0.3818;0.7451;
639.3000;0.3801;0.7402;
639.6000;0.3777;0.7305;
639.9000;0.3810;0.7402;
640.2000;0.3842;0.7475;
640.5000;0.3818;0.7232;
640.8000;0.3785;0.7159;
641.1000;0.3793;0.7183;
641.4000;0.3818;0.7183;
641.7000;0.3793;0.7110;
642.0000;0.3793;0.7208;
642.3000;0.3801;0.7256;
642.6000;0.3818;0.7378;
642.9000;0.3777;0.7305;
643.2000;0.3785;0.7305;
643.5000;0.3785;0.7305;
643.8000;0.3777;0.7305;
644.1000;0.3736;0.7208;
644.4000;0.3777;0.7329;
644.7000;0.3728;0.7305;
645.0000;0.3769;0.7402;
645.3000;0.3753;0.7329;
645.6000;0.3744;0.7329;
645.9000;0.3761;0.7281;
646.2000;0.3769;0.7305;
646.5000;0.3761;0.7256;
646.8000;0.3744;0.7208;
647.1000;0.3736;0.7183;
647.4000;0.3769;0.7329;
647.7000;0.3736;0.7256;
648.0000;0.3744;0.7354;
648.3000;0.3753;0.7378;
648.6000;0.3753;0.7378;
648.9000;0.3753;0.7427;
649.2000;0.3736;0.7378;
649.5000;0.3736;0.7329;
649.8000;0.3736;0.7305;
650.1000;0.3736;0.7305;
650.4000;0.3736;0.7305;
650.7000;0.3736;0.7281;
651.0000;0.3720;0.7159;
651.3000;0.3736;0.7159;
651.6000;0.3744;0.7256;
651.9000;0.3728;0.7135;
652.2000;0.3753;0.7183;
652.5000;0.3744;0.7208;
652.8000;0.3753;0.7208;
653.1000;0.3720;0.6988;
653.4000;0.3736;0.7037;
653.7000;0.3728;0.7135;
654.0000;0.3704;0.7037;
654.3000;0.3736;0.7110;
654.6000;0.3769;0.7232;
654.9000;0.3728;0.7135;
655.2000;0.3712;0.7037;
655.5000;0.3728;0.7013;
655.8000;0.3720;0.6940;
656.1000;0.3696;0.6940;
656.4000;0.3736;0.7013;
656.7000;0.3736;0.6891;
657.0000;0.3736;0.6915;
657.3000;0.3728;0.6842;
657.6000;0.3728;0.6842;
657.9000;0.3712;0.6794;
658.2000;0.3712;0.6818;
658.5000;0.3696;0.6818;
658.8000;0.3761;0.6940;
659.1000;0.3720;0.6964;
659.4000;0.3671;0.6769;
659.7000;0.3736;0.6964;
660.0000;0.3663;0.6794;
660.3000;0.3736;0.6867;
660.6000;0.3720;0.6867;
660.9000;0.3687;0.6842;
661.2000;0.3655;0.6794;
661.5000;0.3712;0.6891;
661.8000;0.3728;0.6940;
662.1000;0.3720;0.6964;
662.4000;0.3679;0.6769;
662.7000;0.3704;0.6794;
663.0000;0.3704;0.6867;
663.3000;0.3622;0.6745;
663.6000;0.3687;0.6915;
663.9000;0.3704;0.7110;
664.2000;0.3663;0.6915;
664.5000;0.3696;0.7013;
664.8000;0.3712;0.6940;
665.1000;0.3679;0.6867;
665.4000;0.3696;0.6940;
665.7000;0.3622;0.6794;
666.0000;0.3687;0.7110;
666.3000;0.3687;0.7159;
666.6000;0.3687;0.7232;
666.9000;0.3663;0.7208;
667.2000;0.3704;0.7378;
667.5000;0.3663;0.7281;
667.8000;0.3679;0.7354;
668.1000;0.3679;0.7256;
668.4000;0.3687;0.7232;
668.7000;0.3679;0.7232;
669.0000;0.3720;0.7281;
669.3000;0.3671;0.7232;
669.6000;0.3671;0.7183;
669.9000;0.3679;0.7183;
670.2000;0.3679;0.7159;
670.5000;0.3679;0.7305;
670.8000;0.3777;0.7646;
671.1000;0.3679;0.7305;
671.4000;0.3679;0.7208;
671.7000;0.3671;0.7135;
672.0000;0.3647;0.7037;
672.3000;0.3671;0.7110;
672.6000;0.3663;0.7135;
672.9000;0.3590;0.7037;
673.2000;0.3655;0.7183;
673.5000;0.3663;0.7135;
673.8000;0.3728;0.7305;
674.1000;0.3696;0.7159;
674.4000;0.3671;0.7086;
674.7000;0.3671;0.7110;
675.0000;0.3671;0.7135;
675.3000;0.3679;0.7110;
675.6000;0.3679;0.7135;
675.9000;0.3679;0.7135;
676.2000;0.3655;0.7135;
676.5000;0.3655;0.7135;
676.8000;0.3679;0.7305;
677.1000;0.3655;0.7232;
677.4000;0.3679;0.7281;
677.7000;0.3663;0.7305;
678.0000;0.3671;0.7305;
678.3000;0.3663;0.7281;
678.6000;0.3622;0.7062;
678.9000;0.3614;0.6964;
679.2000;0.3663;0.7135;
679.5000;0.3663;0.7135;
679.8000;0.3663;0.7110;
680.1000;0.3679;0.7208;
680.4000;0.3639;0.7062;
680.7000;0.3663;0.7159;
681.0000;0.3663;0.7159;
681.3000;0.3671;0.7159;
681.6000;0.3671;0.7159;
681.9000;0.3671;0.7183;
682.2000;0.3630;0.7037;
682.5000;0.3663;0.7135;
682.8000;0.3639;0.7110;
683.1000;0.3630;0.7110;
683.4000;0.3655;0.7159;
683.7000;0.3663;0.7159;
684.0000;0.3647;0.7159;
684.3000;0.3655;0.7256;
684.6000;0.3671;0.7281;
684.9000;0.3655;0.7281;
685.2000;0.3655;0.7232;
685.5000;0.3655;0.7135;
685.8000;0.3655;0.7159;
686.1000;0.3630;0.7183;
686.4000;0.3647;0.7281;
686.7000;0.3696;0.7305;
687.0000;0.3647;0.7159;
687.3000;0.3671;0.7305;
687.6000;0.3647;0.7256;
687.9000;0.3655;0.7232;
688.2000;0.3655;0.7329;
688.5000;0.3647;0.7378;
688.8000;0.3630;0.7354;
689.1000;0.3647;0.7354;
689.4000;0.3639;0.7329;
689.7000;0.3655;0.7427;
690.0000;0.3647;0.7329;
690.3000;0.3663;0.7329;
690.6000;0.3655;0.7232;
690.9000;0.3647;0.7208;
691.2000;0.3647;0.7256;
691.5000;0.3639;0.7232;
691.8000;0.3606;0.7159;
692.1000;0.3647;0.7329;
692.4000;0.3639;0.7329;
692.7000;0.3630;0.7402;
693.0000;0.3606;0.7305;
693.3000;0.3647;0.7354;
693.6000;0.3614;0.7378;
693.9000;0.3639;0.7354;
694.2000;0.3639;0.7354;
694.5000;0.3639;0.7329;
694.8000;0.3639;0.7378;
695.1000;0.3663;0.7549;
695.4000;0.3663;0.7524;
695.7000;0.3639;0.7500;
696.0000;0.3663;0.7524;
696.3000;0.3736;0.7719;
696.6000;0.3622;0.7427;
696.9000;0.3622;0.7427;
697.2000;0.3622;0.7378;
697.5000;0.3614;0.7305;
697.8000;0.3720;0.7597;
698.1000;0.3614;0.7305;
698.4000;0.3630;0.7256;
698.7000;0.3614;0.7256;
699.0000;0.3630;0.7256;
699.3000;0.3622;0.7183;
699.6000;0.3655;0.7329;
699.9000;0.3655;0.7427;
700.2000;0.3630;0.7451;
700.5000;0.3590;0.7354;
700.8000;0.3630;0.7475;
701.1000;0.3582;0.7378;
701.4000;0.3639;0.7597;
701.7000;0.3630;0.7549;
702.0000;0.3647;0.7524;
702.3000;0.3614;0.7378;
702.6000;0.3630;0.7329;
702.9000;0.3573;0.7183;
703.2000;0.3622;0.7305;
703.5000;0.3671;0.7451;
703.8000;0.3630;0.7256;
704.1000;0.3622;0.7256;
704.4000;0.3622;0.7427;
704.7000;0.3606;0.7402;
705.0000;0.3630;0.7427;
705.3000;0.3630;0.7427;
705.6000;0.3630;0.7475;
705.9000;0.3614;0.7451;
706.2000;0.3663;0.7524;
706.5000;0.3622;0.7402;
706.8000;0.3639;0.7451;
707.1000;0.3614;0.7427;
707.4000;0.3606;0.7402;
707.7000;0.3598;0.7329;
708.0000;0.3704;0.7500;
708.3000;0.3582;0.7329;
708.6000;0.3630;0.7402;
708.9000;0.3614;0.7329;
709.2000;0.3622;0.7232;
709.5000;0.3614;0.7329;
709.8000;0.3622;0.7329;
710.1000;0.3614;0.7354;
710.4000;0.3679;0.7524;
710.7000;0.3622;0.7378;
711.0000;0.3639;0.7354;
711.3000;0.3639;0.7281;
711.6000;0.3647;0.7305;
711.9000;0.3590;0.7183;
712.2000;0.3622;0.7256;
712.5000;0.3606;0.7305;
712.8000;0.3630;0.7305;
713.1000;0.3614;0.7281;
713.4000;0.3606;0.7183;
713.7000;0.3639;0.7159;
714.0000;0.3614;0.7159;
714.3000;0.3598;0.7135;
714.6000;0.3630;0.7232;
714.9000;0.3614;0.7135;
715.2000;0.3622;0.7110;
715.5000;0.3614;0.7086;
715.8000;0.3598;0.7110;
716.1000;0.3606;0.7183;
716.4000;0.3614;0.7329;
716.7000;0.3606;0.7354;
717.0000;0.3598;0.7427;
717.3000;0.3565;0.7354;
717.6000;0.3541;0.7232;
717.9000;0.3598;0.7427;
718.2000;0.3500;0.7256;
718.5000;0.3598;0.7402;
718.8000;0.3614;0.7427;
719.1000;0.3655;0.7524;
719.4000;0.3590;0.7378;
719.7000;0.3647;0.7573;
720.0000;0.3622;0.7475;
720.3000;0.3639;0.7524;
720.6000;0.3557;0.7305;
720.9000;0.3590;0.7354;
721.2000;0.3606;0.7354;
721.5000;0.3590;0.7305;
721.8000;0.3614;0.7305;
722.1000;0.3606;0.7208;
722.4000;0.3598;0.7256;
722.7000;0.3590;0.7208;
723.0000;0.3573;0.7208;
723.3000;0.3598;0.7305;
723.6000;0.3606;0.7427;
723.9000;0.3622;0.7402;
724.2000;0.3582;0.7232;
724.5000;0.3614;0.7256;
724.8000;0.3606;0.7183;
725.1000;0.3565;0.7086;
725.4000;0.3573;0.7159;
725.7000;0.3598;0.7281;
726.0000;0.3590;0.7256;
726.3000;0.3606;0.7232;
726.6000;0.3598;0.7427;
726.9000;0.3622;0.7500;
727.2000;0.3590;0.7402;
727.5000;0.3590;0.7354;
727.8000;0.3598;0.7281;
728.1000;0.3606;0.7232;
728.4000;0.3622;0.7281;
728.7000;0.3590;0.7329;
729.0000;0.3622;0.7378;
729.3000;0.3598;0.7305;
729.6000;0.3582;0.7354;
729.9000;0.3590;0.7305;
730.2000;0.3590;0.7232;
730.5000;0.3590;0.7305;
730.8000;0.3639;0.7427;
731.1000;0.3590;0.7402;
731.4000;0.3590;0.7451;
731.7000;0.3606;0.7549;
732.0000;0.3590;0.7451;
732.3000;0.3573;0.7402;
732.6000;0.3598;0.7475;
732.9000;0.3590;0.7500;
733.2000;0.3582;0.7475;
733.5000;0.3606;0.7597;
733.8000;0.3573;0.7549;
734.1000;0.3630;0.7719;
734.4000;0.3565;0.7549;
734.7000;0.3606;0.7549;
735.0000;0.3590;0.7402;
735.3000;0.3728;0.7695;
735.6000;0.3622;0.7475;
735.9000;0.3533;0.7281;
736.2000;0.3614;0.7500;
736.5000;0.3525;0.7232;
736.8000;0.3590;0.7427;
737.1000;0.3598;0.7402;
737.4000;0.3582;0.7305;
737.7000;0.3614;0.7378;
738.0000;0.3573;0.7329;
738.3000;0.3565;0.7354;
738.6000;0.3500;0.7305;
738.9000;0.3582;0.7500;
739.2000;0.3582;0.7427;
739.5000;0.3590;0.7427;
739.8000;0.3590;0.7402;
740.1000;0.3606;0.7427;
740.4000;0.3590;0.7354;
740.7000;0.3541;0.7281;
741.0000;0.3606;0.7378;
741.3000;0.3606;0.7354;
741.6000;0.3614;0.7329;
741.9000;0.3606;0.7281;
742.2000;0.3525;0.7062;
742.5000;0.3582;0.7281;
742.8000;0.3598;0.7208;
743.1000;0.3630;0.7208;
743.4000;0.3590;0.7208;
743.7000;0.3590;0.7183;
744.0000;0.3598;0.7256;
744.3000;0.3582;0.7305;
744.6000;0.3598;0.7354;
744.9000;0.3590;0.7305;
745.2000;0.3598;0.7305;
745.5000;0.3598;0.7329;
745.8000;0.3573;0.7281;
746.1000;0.3606;0.7329;
746.4000;0.3614;0.7305;
746.7000;0.3598;0.7354;
747.0000;0.3630;0.7549;
747.3000;0.3590;0.7475;
747.6000;0.3622;0.7500;
747.9000;0.3606;0.7402;
748.2000;0.3598;0.7402;
748.5000;0.3573;0.7427;
748.8000;0.3590;0.7427;
749.1000;0.3565;0.7329;
749.4000;0.3582;0.7256;
749.7000;0.3590;0.7183;
750.0000;0.3590;0.7159;
750.3000;0.3582;0.7135;
750.6000;0.3606;0.7305;
750.9000;0.3590;0.7305;
751.2000;0.3598;0.7329;
751.5000;0.3582;0.7378;
751.8000;0.3582;0.7402;
752.1000;0.3606;0.7475;
752.4000;0.3582;0.7378;
752.7000;0.3565;0.7281;
753.0000;0.3565;0.7256;
753.3000;0.3606;0.7281;
753.6000;0.3582;0.7159;
753.9000;0.3573;0.7183;
754.2000;0.3598;0.7183;
754.5000;0.3590;0.7135;
754.8000;0.3590;0.7135;
755.1000;0.3565;0.7135;
755.4000;0.3565;0.7208;
755.7000;0.3573;0.7256;
756.0000;0.3630;0.7329;
756.3000;0.3573;0.7305;
756.6000;0.3557;0.7329;
756.9000;0.3565;0.7232;
757.2000;0.3557;0.7159;
757.5000;0.3557;0.7159;
757.8000;0.3590;0.7183;
758.1000;0.3630;0.7427;
758.4000;0.3582;0.7329;
758.7000;0.3573;0.7305;
759.0000;0.3582;0.7402;
759.3000;0.3573;0.7402;
759.6000;0.3582;0.7451;
759.9000;0.3582;0.7451;
760.2000;0.3573;0.7402;
760.5000;0.3582;0.7427;
760.8000;0.3590;0.7451;
761.1000;0.3582;0.7427;
761.4000;0.3590;0.7475;
761.7000;0.3590;0.7378;
762.0000;0.3582;0.7378;
762.3000;0.3582;0.7451;
762.6000;0.3557;0.7451;
762.9000;0.3565;0.7475;
763.2000;0.3582;0.7475;
763.5000;0.3582;0.7500;
763.8000;0.3598;0.7475;
764.1000;0.3598;0.7402;
764.4000;0.3582;0.7378;
764.7000;0.3573;0.7427;
765.0000;0.3582;0.7500;
765.3000;0.3582;0.7524;
765.6000;0.3565;0.7500;
765.9000;0.3549;0.7524;
766.2000;0.3582;0.7695;
766.5000;0.3582;0.7597;
766.8000;0.3590;0.7597;
767.1000;0.3582;0.7622;
767.4000;0.3590;0.7622;
767.7000;0.3590;0.7573;
768.0000;0.3565;0.7524;
768.3000;0.3582;0.7451;
768.6000;0.3582;0.7475;
768.9000;0.3573;0.7402;
769.2000;0.3573;0.7402;
769.5000;0.3565;0.7378;
769.8000;0.3565;0.7402;
770.1000;0.3598;0.7427;
770.4000;0.3549;0.7256;
770.7000;0.3565;0.7305;
771.0000;0.3573;0.7281;
771.3000;0.3565;0.7232;
771.6000;0.3573;0.7281;
771.9000;0.3614;0.7524;
772.2000;0.3565;0.7427;
772.5000;0.3500;0.7329;
772.8000;0.3549;0.7500;
773.1000;0.3598;0.7622;
773.4000;0.3622;0.7646;
773.7000;0.3573;0.7475;
774.0000;0.3582;0.7427;
774.3000;0.3598;0.7524;
774.6000;0.3573;0.7451;
774.9000;0.3598;0.7500;
775.2000;0.3549;0.7451;
775.5000;0.3573;0.7549;
775.8000;0.3573;0.7549;
776.1000;0.3476;0.7305;
776.4000;0.3590;0.7524;
776.7000;0.3590;0.7475;
777.0000;0.3557;0.7402;
777.3000;0.3582;0.7451;
777.6000;0.3573;0.7402;
777.9000;0.3565;0.7378;
778.2000;0.3533;0.7159;
778.5000;0.3565;0.7378;
778.8000;0.3573;0.7402;
779.1000;0.3582;0.7354;
779.4000;0.3582;0.7281;
779.7000;0.3598;0.7329;
780.0000;0.3533;0.7208;
780.3000;0.3573;0.7354;
780.6000;0.3573;0.7305;
780.9000;0.3573;0.7378;
781.2000;0.3622;0.7622;
781.5000;0.3590;0.7475;
781.8000;0.3549;0.7500;
782.1000;0.3557;0.7549;
782.4000;0.3565;0.7549;
782.7000;0.3565;0.7646;
783.0000;0.3565;0.7597;
783.3000;0.3557;0.7475;
783.6000;0.3582;0.7524;
783.9000;0.3565;0.7451;
784.2000;0.3565;0.7354;
784.5000;0.3557;0.7378;
784.8000;0.3565;0.7451;
785.1000;0.3598;0.7597;
785.4000;0.3565;0.7622;
785.7000;0.3565;0.7622;
786.0000;0.3541;0.7524;
786.3000;0.3573;0.7549;
786.6000;0.3573;0.7427;
786.9000;0.3565;0.7354;
787.2000;0.3565;0.7354;
787.5000;0.3557;0.7402;
787.8000;0.3582;0.7427;
788.1000;0.3598;0.7402;
788.4000;0.3565;0.7378;
788.7000;0.3565;0.7451;
789.0000;0.3557;0.7451;
789.3000;0.3549;0.7524;
789.6000;0.3565;0.7500;
789.9000;0.3565;0.7500;
790.2000;0.3565;0.7549;
790.5000;0.3565;0.7573;
790.8000;0.3557;0.7500;
791.1000;0.3549;0.7451;
791.4000;0.3573;0.7451;
791.7000;0.3606;0.7427;
792.0000;0.3557;0.7305;
792.3000;0.3573;0.7451;
792.6000;0.3590;0.7597;
792.9000;0.3541;0.7524;
793.2000;0.3582;0.7597;
793.5000;0.3541;0.7475;
793.8000;0.3565;0.7597;
794.1000;0.3508;0.7500;
794.4000;0.3606;0.7719;
794.7000;0.3541;0.7500;
795.0000;0.3598;0.7597;
795.3000;0.3565;0.7451;
795.6000;0.3565;0.7427;
795.9000;0.3565;0.7402;
796.2000;0.3549;0.7281;
796.5000;0.3565;0.7305;
796.8000;0.3598;0.7451;
797.1000;0.3606;0.7549;
797.4000;0.3549;0.7500;
797.7000;0.3565;0.7475;
798.0000;0.3565;0.7524;
798.3000;0.3573;0.7549;
798.6000;0.3516;0.7378;
798.9000;0.3557;0.7402;
799.2000;0.3565;0.7451;
799.5000;0.3557;0.7524;
799.8000;0.3549;0.7524;
800.1000;0.3557;0.7524;
800.4000;0.3565;0.7573;
800.7000;0.3573;0.7573;
801.0000;0.3525;0.7500;
801.3000;0.3557;0.7549;
801.6000;0.3557;0.7573;
801.9000;0.3557;0.7549;
802.2000;0.3541;0.7524;
802.5000;0.3541;0.7646;
802.8000;0.3573;0.7670;
803.1000;0.3573;0.7573;
803.4000;0.3565;0.7646;
803.7000;0.3573;0.7646;
804.0000;0.3557;0.7597;
804.3000;0.3557;0.7646;
804.6000;0.3573;0.7646;
804.9000;0.3533;0.7500;
805.2000;0.3549;0.7549;
805.5000;0.3565;0.7475;
805.8000;0.3573;0.7402;
806.1000;0.3573;0.7427;
806.4000;0.3565;0.7402;
806.7000;0.3565;0.7451;
807.0000;0.3565;0.7524;
807.3000;0.3582;0.7500;
807.6000;0.3565;0.7500;
807.9000;0.3582;0.7597;
808.2000;0.3533;0.7475;
808.5000;0.3573;0.7524;
808.8000;0.3549;0.7500;
809.1000;0.3565;0.7475;
809.4000;0.3541;0.7475;
809.7000;0.3557;0.7500;
810.0000;0.3565;0.7549;
810.3000;0.3557;0.7500;
810.6000;0.3549;0.7451;
810.9000;0.3565;0.7500;
811.2000;0.3557;0.7524;
811.5000;0.3541;0.7451;
811.8000;0.3565;0.7549;
812.1000;0.3565;0.7597;
812.4000;0.3590;0.7695;
812.7000;0.3565;0.7670;
813.0000;0.3573;0.7597;
813.3000;0.3590;0.7597;
813.6000;0.3573;0.7573;
813.9000;0.3557;0.7475;
814.2000;0.3557;0.7427;
814.5000;0.3557;0.7451;
814.8000;0.3508;0.7354;
815.1000;0.3557;0.7451;
815.4000;0.3573;0.7549;
815.7000;0.3549;0.7573;
816.0000;0.3541;0.7500;
816.3000;0.3557;0.7622;
816.6000;0.3557;0.7500;
816.9000;0.3582;0.7524;
817.2000;0.3573;0.7500;
817.5000;0.3557;0.7524;
817.8000;0.3549;0.7500;
818.1000;0.3590;0.7573;
818.4000;0.3598;0.7427;
818.7000;0.3557;0.7451;
819.0000;0.3549;0.7427;
819.3000;0.3557;0.7378;
819.6000;0.3468;0.7086;
819.9000;0.3549;0.7329;
820.2000;0.3541;0.7305;
820.5000;0.3549;0.7378;
820.8000;0.3565;0.7378;
821.1000;0.3557;0.7305;
821.4000;0.3557;0.7305;
821.7000;0.3541;0.7232;
822.0000;0.3622;0.7451;
822.3000;0.3582;0.7354;
822.6000;0.3557;0.7256;
822.9000;0.3557;0.7208;
823.2000;0.3557;0.7208;
823.5000;0.3573;0.7329;
823.8000;0.3590;0.7427;
824.1000;0.3565;0.7378;
824.4000;0.3557;0.7524;
824.7000;0.3557;0.7549;
825.0000;0.3573;0.7597;
825.3000;0.3557;0.7597;
825.6000;0.3557;0.7597;
825.9000;0.3549;0.7524;
826.2000;0.3573;0.7524;
826.5000;0.3549;0.7500;
826.8000;0.3557;0.7573;
827.1000;0.3565;0.7597;
827.4000;0.3565;0.7622;
827.7000;0.3565;0.7670;
828.0000;0.3549;0.7695;
828.3000;0.3557;0.7719;
828.6000;0.3582;0.7792;
828.9000;0.3565;0.7743;
829.2000;0.3565;0.7719;
829.5000;0.3565;0.7695;
829.8000;0.3590;0.7719;
830.1000;0.3582;0.7719;
830.4000;0.3549;0.7646;
830.7000;0.3557;0.7646;
831.0000;0.3557;0.7549;
831.3000;0.3565;0.7695;
831.6000;0.3557;0.7719;
831.9000;0.3565;0.7695;
832.2000;0.3606;0.7889;
832.5000;0.3573;0.7743;
832.8000;0.3565;0.7768;
833.1000;0.3565;0.7695;
833.4000;0.3557;0.7670;
833.7000;0.3549;0.7597;
834.0000;0.3549;0.7549;
834.3000;0.3541;0.7500;
834.6000;0.3622;0.7695;
834.9000;0.3549;0.7549;
835.2000;0.3565;0.7573;
835.5000;0.3598;0.7695;
835.8000;0.3557;0.7524;
836.1000;0.3565;0.7402;
836.4000;0.3557;0.7329;
836.7000;0.3541;0.7256;
837.0000;0.3557;0.7329;
837.3000;0.3573;0.7329;
837.6000;0.3565;0.7329;
837.9000;0.3565;0.7475;
838.2000;0.3541;0.7524;
838.5000;0.3557;0.7549;
838.8000;0.3565;0.7597;
839.1000;0.3606;0.7695;
839.4000;0.3549;0.7475;
839.7000;0.3565;0.7427;
840.0000;0.3557;0.7427;
840.3000;0.3549;0.7378;
840.6000;0.3549;0.7329;
840.9000;0.3557;0.7329;
841.2000;0.3541;0.7402;
841.5000;0.3557;0.7402;
841.8000;0.3565;0.7378;
842.1000;0.3533;0.7329;
842.4000;0.3565;0.7402;
842.7000;0.3557;0.7378;
843.0000;0.3541;0.7305;
843.3000;0.3565;0.7402;
843.6000;0.3549;0.7354;
843.9000;0.3622;0.7622;
844.2000;0.3598;0.7500;
844.5000;0.3557;0.7354;
844.8000;0.3557;0.7378;
845.1000;0.3565;0.7475;
845.4000;0.3573;0.7573;
845.7000;0.3549;0.7475;
846.0000;0.3541;0.7329;
846.3000;0.3573;0.7329;
846.6000;0.3565;0.7354;
846.9000;0.3557;0.7281;
847.2000;0.3606;0.7378;
847.5000;0.3565;0.7305;
847.8000;0.3565;0.7305;
848.1000;0.3573;0.7208;
848.4000;0.3557;0.7159;
848.7000;0.3541;0.7183;
849.0000;0.3647;0.7451;
849.3000;0.3516;0.7110;
849.6000;0.3573;0.7256;
849.9000;0.3573;0.7208;
850.2000;0.3557;0.7232;
850.5000;0.3549;0.7086;
850.8000;0.3565;0.7159;
851.1000;0.3565;0.7159;
851.4000;0.3655;0.7475;
851.7000;0.3573;0.7378;
852.0000;0.3533;0.7208;
852.3000;0.3557;0.7281;
852.6000;0.3582;0.7281;
852.9000;0.3573;0.7427;
853.2000;0.3590;0.7524;
853.5000;0.3573;0.7500;
853.8000;0.3549;0.7402;
854.1000;0.3565;0.7378;
854.4000;0.3557;0.7402;
854.7000;0.3573;0.7402;
855.0000;0.3582;0.7451;
855.3000;0.3549;0.7451;
855.6000;0.3533;0.7451;
855.9000;0.3541;0.7500;
856.2000;0.3590;0.7549;
856.5000;0.3541;0.7402;
856.8000;0.3573;0.7451;
857.1000;0.3557;0.7451;
857.4000;0.3541;0.7402;
857.7000;0.3557;0.7378;
858.0000;0.3557;0.7475;
858.3000;0.3549;0.7475;
858.6000;0.3573;0.7549;
858.9000;0.3516;0.7500;
859.2000;0.3549;0.7646;
859.5000;0.3549;0.7622;
859.8000;0.3541;0.7475;
860.1000;0.3549;0.7524;
860.4000;0.3549;0.7549;
860.7000;0.3557;0.7451;
861.0000;0.3557;0.7475;
861.3000;0.3549;0.7573;
861.6000;0.3484;0.7378;
861.9000;0.3565;0.7597;
862.2000;0.3565;0.7597;
862.5000;0.3541;0.7549;
862.8000;0.3565;0.7597;
863.1000;0.3590;0.7573;
863.4000;0.3557;0.7402;
863.7000;0.3655;0.7695;
864.0000;0.3573;0.7500;
864.3000;0.3565;0.7475;
864.6000;0.3622;0.7524;
864.9000;0.3647;0.7597;
865.2000;0.3557;0.7378;
865.5000;0.3541;0.7402;
865.8000;0.3549;0.7378;
866.1000;0.3549;0.7402;
866.4000;0.3516;0.7305;
866.7000;0.3565;0.7549;
867.0000;0.3525;0.7451;
867.3000;0.3549;0.7524;
867.6000;0.3557;0.7524;
867.9000;0.3630;0.7743;
868.2000;0.3549;0.7549;
868.5000;0.3549;0.7622;
868.8000;0.3557;0.7622;
869.1000;0.3573;0.7719;
869.4000;0.3557;0.7597;
869.7000;0.3557;0.7549;
870.0000;0.3557;0.7549;
870.3000;0.3557;0.7597;
870.6000;0.3565;0.7549;
870.9000;0.3533;0.7451;
871.2000;0.3508;0.7427;
871.5000;0.3565;0.7475;
871.8000;0.3541;0.7378;
872.1000;0.3639;0.7475;
872.4000;0.3565;0.7183;
872.7000;0.3541;0.7183;
873.0000;0.3565;0.7256;
873.3000;0.3549;0.7110;
873.6000;0.3533;0.7037;
873.9000;0.3549;0.7110;
874.2000;0.3541;0.7110;
874.5000;0.3557;0.7159;
874.8000;0.3541;0.7256;
875.1000;0.3541;0.7329;
875.4000;0.3541;0.7402;
875.7000;0.3557;0.7451;
876.0000;0.3541;0.7451;
876.3000;0.3549;0.7427;
876.6000;0.3541;0.7329;
876.9000;0.3541;0.7329;
877.2000;0.3549;0.7378;
877.5000;0.3533;0.7281;
877.8000;0.3573;0.7451;
878.1000;0.3549;0.7402;
878.4000;0.3565;0.7402;
878.7000;0.3557;0.7427;
879.0000;0.3549;0.7378;
879.3000;0.3565;0.7378;
879.6000;0.3549;0.7378;
879.9000;0.3557;0.7329;
880.2000;0.3541;0.7232;
880.5000;0.3541;0.7208;
880.8000;0.3565;0.7256;
881.1000;0.3557;0.7183;
881.4000;0.3541;0.7110;
881.7000;0.3525;0.7037;
882.0000;0.3541;0.7013;
882.3000;0.3549;0.7062;
882.6000;0.3573;0.7183;
882.9000;0.3557;0.7135;
883.2000;0.3549;0.7159;
883.5000;0.3573;0.7256;
883.8000;0.3590;0.7378;
884.1000;0.3541;0.7378;
884.4000;0.3549;0.7500;
884.7000;0.3565;0.7524;
885.0000;0.3516;0.7402;
885.3000;0.3549;0.7378;
885.6000;0.3525;0.7305;
885.9000;0.3565;0.7329;
886.2000;0.3525;0.7208;
886.5000;0.3533;0.7281;
886.8000;0.3549;0.7354;
887.1000;0.3541;0.7354;
887.4000;0.3557;0.7354;
887.7000;0.3541;0.7256;
888.0000;0.3557;0.7329;
888.3000;0.3541;0.7305;
888.6000;0.3565;0.7281;
888.9000;0.3557;0.7329;
889.2000;0.3525;0.7305;
889.5000;0.3598;0.7500;
889.8000;0.3533;0.7427;
890.1000;0.3549;0.7500;
890.4000;0.3516;0.7354;
890.7000;0.3525;0.7354;
891.0000;0.3565;0.7378;
891.3000;0.3565;0.7354;
891.6000;0.3541;0.7281;
891.9000;0.3647;0.7549;
892.2000;0.3533;0.7256;
892.5000;0.3484;0.7110;
892.8000;0.3549;0.7329;
893.1000;0.3549;0.7305;
893.4000;0.3549;0.7378;
893.7000;0.3557;0.7427;
894.0000;0.3525;0.7378;
894.3000;0.3508;0.7256;
894.6000;0.3533;0.7427;
894.9000;0.3541;0.7549;
895.2000;0.3533;0.7500;
895.5000;0.3557;0.7524;
895.8000;0.3557;0.7597;
896.1000;0.3573;0.7597;
896.4000;0.3557;0.7500;
896.7000;0.3549;0.7524;
897.0000;0.3541;0.7475;
897.3000;0.3557;0.7451;
897.6000;0.3557;0.7475;
897.9000;0.3549;0.7378;
898.2000;0.3533;0.7281;
898.5000;0.3557;0.7329;
898.8000;0.3541;0.7305;
899.1000;0.3549;0.7378;
899.4000;0.3549;0.7354;
899.7000;0.3533;0.7378;
900.0000;0.3508;0.7329;
900.3000;0.3549;0.7427;
900.6000;0.3557;0.7427;
900.9000;0.3549;0.7378;
901.2000;0.3541;0.7329;
901.5000;0.3557;0.7378;
901.8000;0.3541;0.7305;
902.1000;0.3549;0.7354;
902.4000;0.3541;0.7354;
902.7000;0.3557;0.7354;
903.0000;0.3541;0.7281;
903.3000;0.3565;0.7329;
903.6000;0.3557;0.7354;
903.9000;0.3573;0.7451;
904.2000;0.3557;0.7427;
904.5000;0.3549;0.7475;
904.8000;0.3541;0.7549;
905.1000;0.3541;0.7475;
905.4000;0.3565;0.7500;
905.7000;0.3533;0.7427;
906.0000;0.3508;0.7305;
906.3000;0.3557;0.7378;
906.6000;0.3549;0.7451;
906.9000;0.3549;0.7427;
907.2000;0.3516;0.7378;
907.5000;0.3533;0.7549;
907.8000;0.3500;0.7378;
908.1000;0.3549;0.7427;
908.4000;0.3565;0.7475;
908.7000;0.3500;0.7281;
909.0000;0.3565;0.7500;
909.3000;0.3557;0.7524;
909.6000;0.3541;0.7451;
909.9000;0.3565;0.7451;
910.2000;0.3557;0.7451;
910.5000;0.3533;0.7378;
910.8000;0.3557;0.7451;
911.1000;0.3508;0.7256;
911.4000;0.3573;0.7354;
911.7000;0.3557;0.7402;
912.0000;0.3549;0.7402;
912.3000;0.3525;0.7232;
912.6000;0.3614;0.7427;
912.9000;0.3549;0.7256;
913.2000;0.3565;0.7281;
913.5000;0.3590;0.7378;
913.8000;0.3557;0.7402;
914.1000;0.3614;0.7597;
914.4000;0.3557;0.7427;
914.7000;0.3549;0.7524;
915.0000;0.3573;0.7622;
915.3000;0.3590;0.7646;
915.6000;0.3557;0.7549;
915.9000;0.3541;0.7524;
916.2000;0.3525;0.7402;
916.5000;0.3549;0.7329;
916.8000;0.3549;0.7329;
917.1000;0.3557;0.7427;
917.4000;0.3508;0.7305;
917.7000;0.3565;0.7402;
918.0000;0.3549;0.7378;
918.3000;0.3541;0.7427;
918.6000;0.3557;0.7500;
918.9000;0.3525;0.7402;
919.2000;0.3614;0.7670;
919.5000;0.3549;0.7475;
919.8000;0.3460;0.7305;
920.1000;0.3533;0.7427;
920.4000;0.3549;0.7475;
920.7000;0.3549;0.7427;
921.0000;0.3525;0.7402;
921.3000;0.3541;0.7524;
921.6000;0.3549;0.7451;
921.9000;0.3525;0.7427;
922.2000;0.3525;0.7427;
922.5000;0.3549;0.7500;
922.8000;0.3533;0.7451;
923.1000;0.3565;0.7500;
923.4000;0.3549;0.7524;
923.7000;0.3549;0.7500;
924.0000;0.3533;0.7500;
924.3000;0.3525;0.7451;
924.6000;0.3516;0.7427;
924.9000;0.3557;0.7622;
925.2000;0.3557;0.7573;
925.5000;0.3557;0.7597;
925.8000;0.3525;0.7475;
926.1000;0.3541;0.7378;
926.4000;0.3541;0.7378;
926.7000;0.3557;0.7402;
927.0000;0.3533;0.7281;
927.3000;0.3541;0.7281;
927.6000;0.3557;0.7329;
927.9000;0.3541;0.7281;
928.2000;0.3533;0.7354;
928.5000;0.3541;0.7451;
928.8000;0.3549;0.7597;
929.1000;0.3565;0.7768;
929.4000;0.3549;0.7695;
929.7000;0.3565;0.7670;
930.0000;0.3557;0.7549;
930.3000;0.3549;0.7597;
930.6000;0.3549;0.7622;
930.9000;0.3590;0.7646;
931.2000;0.3549;0.7549;
931.5000;0.3541;0.7524;
931.8000;0.3549;0.7597;
932.1000;0.3541;0.7573;
932.4000;0.3549;0.7695;
932.7000;0.3541;0.7695;
933.0000;0.3533;0.7646;
933.3000;0.3573;0.7743;
933.6000;0.3541;0.7597;
933.9000;0.3541;0.7622;
934.2000;0.3557;0.7646;
934.5000;0.3549;0.7622;
934.8000;0.3516;0.7622;
935.1000;0.3573;0.7695;
935.4000;0.3533;0.7573;
935.7000;0.3647;0.7865;
936.0000;0.3541;0.7549;
936.3000;0.3533;0.7500;
936.6000;0.3541;0.7524;
936.9000;0.3549;0.7475;
937.2000;0.3549;0.7524;
937.5000;0.3533;0.7475;
937.8000;0.3541;0.7451;
938.1000;0.3606;0.7524;
938.4000;0.3549;0.7329;
938.7000;0.3549;0.7208;
939.0000;0.3541;0.7183;
939.3000;0.3541;0.7305;
939.6000;0.3549;0.7329;
939.9000;0.3549;0.7281;
940.2000;0.3533;0.7159;
940.5000;0.3541;0.7062;
940.8000;0.3598;0.7256;
941.1000;0.3533;0.7159;
941.4000;0.3590;0.7305;
941.7000;0.3533;0.7281;
942.0000;0.3549;0.7378;
942.3000;0.3549;0.7427;
942.6000;0.3565;0.7549;
942.9000;0.3525;0.7475;
943.2000;0.3549;0.7451;
943.5000;0.3549;0.7402;
943.8000;0.3549;0.7500;
944.1000;0.3549;0.7573;
944.4000;0.3549;0.7573;
944.7000;0.3622;0.7646;
945.0000;0.3500;0.7232;
945.3000;0.3492;0.7159;
945.6000;0.3533;0.7208;
945.9000;0.3573;0.7305;
946.2000;0.3671;0.7622;
946.5000;0.3549;0.7354;
946.8000;0.3525;0.7232;
947.1000;0.3533;0.7305;
947.4000;0.3541;0.7329;
947.7000;0.3541;0.7354;
948.0000;0.3476;0.7183;
948.3000;0.3476;0.7232;
948.6000;0.3533;0.7354;
948.9000;0.3557;0.7354;
949.2000;0.3525;0.7378;
949.5000;0.3549;0.7427;
949.8000;0.3549;0.7475;
950.1000;0.3549;0.7402;
950.4000;0.3525;0.7329;
950.7000;0.3541;0.7402;
951.0000;0.3541;0.7451;
951.3000;0.3565;0.7451;
951.6000;0.3573;0.7451;
951.9000;0.3541;0.7378;
952.2000;0.3541;0.7500;
952.5000;0.3541;0.7500;
952.8000;0.3533;0.7402;
953.1000;0.3525;0.7451;
953.4000;0.3541;0.7475;
953.7000;0.3549;0.7573;
954.0000;0.3533;0.7451;
954.3000;0.3549;0.7524;
954.6000;0.3549;0.7500;
954.9000;0.3549;0.7549;
955.2000;0.3573;0.7646;
955.5000;0.3541;0.7646;
955.8000;0.3557;0.7670;
956.1000;0.3557;0.7622;
956.4000;0.3557;0.7670;
956.7000;0.3541;0.7622;
957.0000;0.3549;0.7646;
957.3000;0.3557;0.7670;
957.6000;0.3565;0.7743;
957.9000;0.3549;0.7719;
958.2000;0.3541;0.7719;
958.5000;0.3549;0.7695;
958.8000;0.3533;0.7695;
959.1000;0.3590;0.7792;
959.4000;0.3525;0.7670;
959.7000;0.3533;0.7622;
960.0000;0.3582;0.7768;
960.3000;0.3533;0.7622;
960.6000;0.3533;0.7597;
960.9000;0.3541;0.7597;
961.2000;0.3573;0.7670;
961.5000;0.3557;0.7524;
961.8000;0.3573;0.7524;
962.1000;0.3541;0.7549;
962.4000;0.3549;0.7622;
962.7000;0.3533;0.7549;
963.0000;0.3533;0.7524;
963.3000;0.3549;0.7524;
963.6000;0.3516;0.7451;
963.9000;0.3557;0.7549;
964.2000;0.3500;0.7475;
964.5000;0.3533;0.7524;
964.8000;0.3508;0.7427;
965.1000;0.3565;0.7500;
965.4000;0.3541;0.7402;
965.7000;0.3541;0.7427;
966.0000;0.3525;0.7451;
966.3000;0.3573;0.7573;
966.6000;0.3549;0.7427;
966.9000;0.3549;0.7402;
967.2000;0.3541;0.7427;
967.5000;0.3549;0.7378;
967.8000;0.3557;0.7451;
968.1000;0.3557;0.7500;
968.4000;0.3525;0.7475;
968.7000;0.3565;0.7597;
969.0000;0.3655;0.7889;
969.3000;0.3565;0.7622;
969.6000;0.3549;0.7597;
969.9000;0.3533;0.7524;
970.2000;0.3557;0.7549;
970.5000;0.3549;0.7500;
970.8000;0.3508;0.7402;
971.1000;0.3533;0.7524;
971.4000;0.3549;0.7597;
971.7000;0.3533;0.7573;
972.0000;0.3541;0.7549;
972.3000;0.3533;0.7524;
972.6000;0.3541;0.7670;
972.9000;0.3476;0.7475;
973.2000;0.3516;0.7524;
973.5000;0.3492;0.7475;
973.8000;0.3541;0.7549;
974.1000;0.3557;0.7670;
974.4000;0.3541;0.7549;
974.7000;0.3533;0.7549;
975.0000;0.3541;0.7597;
975.3000;0.3557;0.7622;
975.6000;0.3557;0.7549;
975.9000;0.3557;0.7597;
976.2000;0.3533;0.7573;
976.5000;0.3541;0.7597;
976.8000;0.3549;0.7670;
977.1000;0.3549;0.7695;
977.4000;0.3525;0.7597;
977.7000;0.3525;0.7549;
978.0000;0.3541;0.7524;
978.3000;0.3516;0.7475;
978.6000;0.3525;0.7402;
978.9000;0.3541;0.7402;
979.2000;0.3525;0.7475;
979.5000;0.3533;0.7500;
979.8000;0.3541;0.7549;
980.1000;0.3557;0.7573;
980.4000;0.3565;0.7597;
980.7000;0.3557;0.7500;
981.0000;0.3533;0.7402;
981.3000;0.3533;0.7500;
981.6000;0.3525;0.7549;
981.9000;0.3647;0.7792;
982.2000;0.3549;0.7524;
982.5000;0.3606;0.7646;
982.8000;0.3565;0.7573;
983.1000;0.3557;0.7597;
983.4000;0.3541;0.7524;
983.7000;0.3508;0.7451;
984.0000;0.3484;0.7378;
984.3000;0.3549;0.7524;
984.6000;0.3557;0.7549;
984.9000;0.3541;0.7622;
985.2000;0.3533;0.7524;
985.5000;0.3370;0.7110;
985.8000;0.3533;0.7622;
986.1000;0.3525;0.7573;
986.4000;0.3639;0.7816;
986.7000;0.3557;0.7549;
987.0000;0.3573;0.7646;
987.3000;0.3533;0.7451;
987.6000;0.3541;0.7451;
987.9000;0.3549;0.7427;
988.2000;0.3549;0.7402;
988.5000;0.3533;0.7354;
988.8000;0.3525;0.7354;
989.1000;0.3533;0.7427;
989.4000;0.3525;0.7378;
989.7000;0.3557;0.7475;
990.0000;0.3573;0.7427;
990.3000;0.3541;0.7402;
990.6000;0.3557;0.7427;
990.9000;0.3565;0.7475;
991.2000;0.3655;0.7792;
991.5000;0.3525;0.7500;
991.8000;0.3573;0.7597;
992.1000;0.3549;0.7622;
992.4000;0.3541;0.7670;
992.7000;0.3541;0.7646;
993.0000;0.3549;0.7622;
993.3000;0.3533;0.7549;
993.6000;0.3541;0.7475;
993.9000;0.3533;0.7451;
994.2000;0.3525;0.7500;
994.5000;0.3541;0.7573;
994.8000;0.3541;0.7573;
995.1000;0.3541;0.7549;
995.4000;0.3533;0.7549;
995.7000;0.3541;0.7549;
996.0000;0.3549;0.7573;
996.3000;0.3573;0.7573;
996.6000;0.3541;0.7597;
996.9000;0.3549;0.7524;
997.2000;0.3549;0.7622;
997.5000;0.3541;0.7597;
997.8000;0.3549;0.7597;
998.1000;0.3565;0.7549;
998.4000;0.3565;0.7524;
998.7000;0.3541;0.7427;
999.0000;0.3541;0.7500;
999.3000;0.3557;0.7427;
999.6000;0.3557;0.7500;
999.9000;0.3557;0.7500;
1000.2000;0.3541;0.7402;
1000.5000;0.3549;0.7329;
1000.8000;0.3704;0.7719;
1001.1000;0.3541;0.7354;
1001.4000;0.3525;0.7354;
1001.7000;0.3541;0.7402;
1002.0000;0.3541;0.7402;
1002.3000;0.3573;0.7475;
1002.6000;0.3549;0.7354;
1002.9000;0.3533;0.7281;
1003.2000;0.3549;0.7305;
1003.5000;0.3582;0.7402;
1003.8000;0.3541;0.7427;
1004.1000;0.3516;0.7378;
1004.4000;0.3508;0.7402;
1004.7000;0.3573;0.7549;
1005.0000;0.3541;0.7378;
1005.3000;0.3549;0.7329;
1005.6000;0.3565;0.7378;
1005.9000;0.3541;0.7305;
1006.2000;0.3590;0.7378;
1006.5000;0.3565;0.7281;
1006.8000;0.3541;0.7305;
1007.1000;0.3525;0.7256;
1007.4000;0.3476;0.7135;
1007.7000;0.3549;0.7427;
1008.0000;0.3606;0.7597;
1008.3000;0.3557;0.7451;
1008.6000;0.3549;0.7378;
1008.9000;0.3598;0.7500;
1009.2000;0.3533;0.7354;
1009.5000;0.3565;0.7378;
1009.8000;0.3533;0.7329;
1010.1000;0.3541;0.7329;
1010.4000;0.3508;0.7208;
1010.7000;0.3533;0.7305;
1011.0000;0.3541;0.7232;
1011.3000;0.3582;0.7305;
1011.6000;0.3541;0.7256;
1011.9000;0.3549;0.7305;
1012.2000;0.3541;0.7378;
1012.5000;0.3533;0.7378;
1012.8000;0.3525;0.7378;
1013.1000;0.3533;0.7256;
1013.4000;0.3541;0.7256;
1013.7000;0.3516;0.7232;
1014.0000;0.3533;0.7305;
1014.3000;0.3549;0.7378;
1014.6000;0.3541;0.7329;
1014.9000;0.3549;0.7378;
1015.2000;0.3500;0.7305;
1015.5000;0.3508;0.7378;
1015.8000;0.3516;0.7402;
1016.1000;0.3557;0.7427;
1016.4000;0.3557;0.7500;
1016.7000;0.3541;0.7378;
1017.0000;0.3557;0.7427;
1017.3000;0.3549;0.7402;
1017.6000;0.3541;0.7281;
1017.9000;0.3541;0.7256;
1018.2000;0.3541;0.7354;
1018.5000;0.3533;0.7354;
1018.8000;0.3508;0.7305;
1019.1000;0.3533;0.7402;
1019.4000;0.3598;0.7573;
1019.7000;0.3541;0.7475;
1020.0000;0.3533;0.7451;
1020.3000;0.3533;0.7524;
1020.6000;0.3541;0.7597;
1020.9000;0.3565;0.7622;
1021.2000;0.3541;0.7500;
1021.5000;0.3549;0.7622;
1021.8000;0.3565;0.7670;
1022.1000;0.3541;0.7622;
1022.4000;0.3541;0.7524;
1022.7000;0.3549;0.7500;
1023.0000;0.3533;0.7427;
1023.3000;0.3541;0.7475;
1023.6000;0.3525;0.7500;
1023.9000;0.3630;0.7743;
1024.2000;0.3533;0.7475;
1024.5000;0.3525;0.7451;
1024.8000;0.3525;0.7500;
1025.1000;0.3557;0.7597;
1025.4000;0.3492;0.7475;
1025.7000;0.3549;0.7500;
1026.0000;0.3525;0.7500;
1026.3000;0.3549;0.7549;
1026.6000;0.3557;0.7573;
1026.9000;0.3533;0.7451;
1027.2000;0.3541;0.7475;
1027.5000;0.3533;0.7524;
1027.8000;0.3541;0.7524;
1028.1000;0.3516;0.7451;
1028.4000;0.3541;0.7549;
1028.7000;0.3541;0.7573;
1029.0000;0.3533;0.7500;
1029.3000;0.3541;0.7451;
1029.6000;0.3525;0.7329;
1029.9000;0.3541;0.7500;
1030.2000;0.3549;0.7573;
1030.5000;0.3557;0.7524;
1030.8000;0.3541;0.7402;
1031.1000;0.3622;0.7646;
1031.4000;0.3573;0.7500;
1031.7000;0.3549;0.7524;
1032.0000;0.3549;0.7524;
1032.3000;0.3541;0.7597;
1032.6000;0.3557;0.7622;
1032.9000;0.3565;0.7646;
1033.2000;0.3541;0.7573;
1033.5000;0.3484;0.7402;
1033.8000;0.3525;0.7549;
1034.1000;0.3525;0.7573;
1034.4000;0.3541;0.7549;
1034.7000;0.3541;0.7524;
1035.0000;0.3549;0.7524;
1035.3000;0.3565;0.7500;
1035.6000;0.3557;0.7524;
1035.9000;0.3525;0.7719;
1036.2000;0.3557;0.7816;
1036.5000;0.3573;0.7768;
1036.8000;0.3557;0.7670;
1037.1000;0.3549;0.7670;
1037.4000;0.3606;0.7768;
1037.7000;0.3541;0.7622;
1038.0000;0.3533;0.7524;
1038.3000;0.3443;0.7281;
1038.6000;0.3492;0.7500;
1038.9000;0.3549;0.7597;
1039.2000;0.3590;0.7743;
1039.5000;0.3622;0.7841;
1039.8000;0.3500;0.7597;
1040.1000;0.3460;0.7354;
1040.4000;0.3541;0.7549;
1040.7000;0.3541;0.7475;
1041.0000;0.3525;0.7475;
1041.3000;0.3549;0.7549;
1041.6000;0.3573;0.7597;
1041.9000;0.3549;0.7524;
1042.2000;0.3557;0.7573;
1042.5000;0.3565;0.7573;
1042.8000;0.3549;0.7475;
1043.1000;0.3541;0.7427;
1043.4000;0.3549;0.7378;
1043.7000;0.3582;0.7622;
1044.0000;0.3549;0.7622;
1044.3000;0.3549;0.7646;
1044.6000;0.3516;0.7622;
1044.9000;0.3573;0.7695;
1045.2000;0.3541;0.7549;
1045.5000;0.3565;0.7524;
1045.8000;0.3525;0.7500;
1046.1000;0.3541;0.7451;
1046.4000;0.3541;0.7402;
1046.7000;0.3549;0.7475;
1047.0000;0.3557;0.7524;
1047.3000;0.3557;0.7500;
1047.6000;0.3557;0.7524;
1047.9000;0.3582;0.7475;
1048.2000;0.3549;0.7451;
1048.5000;0.3557;0.7475;
1048.8000;0.3525;0.7402;
1049.1000;0.3549;0.7500;
1049.4000;0.3549;0.7402;
1049.7000;0.3549;0.7451;
1050.0000;0.3533;0.7378;
1050.3000;0.3500;0.7305;
1050.6000;0.3549;0.7451;
1050.9000;0.3516;0.7305;
1051.2000;0.3533;0.7354;
1051.5000;0.3549;0.7475;
1051.8000;0.3541;0.7549;
1052.1000;0.3549;0.7475;
1052.4000;0.3549;0.7524;
1052.7000;0.3525;0.7549;
1053.0000;0.3549;0.7597;
1053.3000;0.3500;0.7475;
1053.6000;0.3549;0.7451;
1053.9000;0.3549;0.7475;
1054.2000;0.3557;0.7573;
1054.5000;0.3525;0.7549;
1054.8000;0.3541;0.7622;
1055.1000;0.3541;0.7524;
1055.4000;0.3525;0.7500;
1055.7000;0.3639;0.7816;
1056.0000;0.3533;0.7622;
1056.3000;0.3590;0.7792;
1056.6000;0.3533;0.7622;
1056.9000;0.3541;0.7597;
1057.2000;0.3565;0.7622;
1057.5000;0.3549;0.7743;
1057.8000;0.3541;0.7695;
1058.1000;0.3516;0.7695;
1058.4000;0.3541;0.7622;
1058.7000;0.3484;0.7500;
1059.0000;0.3557;0.7670;
1059.3000;0.3557;0.7768;
1059.6000;0.3533;0.7719;
1059.9000;0.3541;0.7573;
1060.2000;0.3533;0.7549;
1060.5000;0.3533;0.7597;
1060.8000;0.3541;0.7549;
1061.1000;0.3508;0.7524;
1061.4000;0.3476;0.7427;
1061.7000;0.3549;0.7524;
1062.0000;0.3614;0.7670;
1062.3000;0.3549;0.7475;
1062.6000;0.3533;0.7500;
1062.9000;0.3557;0.7475;
1063.2000;0.3435;0.7208;
1063.5000;0.3533;0.7500;
1063.8000;0.3549;0.7500;
1064.1000;0.3565;0.7524;
1064.4000;0.3573;0.7573;
1064.7000;0.3573;0.7622;
1065.0000;0.3516;0.7524;
1065.3000;0.3549;0.7597;
1065.6000;0.3541;0.7695;
1065.9000;0.3565;0.7695;
1066.2000;0.3541;0.7597;
1066.5000;0.3533;0.7597;
1066.8000;0.3541;0.7597;
1067.1000;0.3516;0.7670;
1067.4000;0.3541;0.7816;
1067.7000;0.3508;0.7768;
1068.0000;0.3549;0.7816;
1068.3000;0.3525;0.7719;
1068.6000;0.3557;0.7743;
1068.9000;0.3508;0.7646;
1069.2000;0.3533;0.7670;
1069.5000;0.3533;0.7743;
1069.8000;0.3533;0.7743;
1070.1000;0.3541;0.7792;
1070.4000;0.3533;0.7768;
1070.7000;0.3541;0.7743;
1071.0000;0.3541;0.7670;
1071.3000;0.3549;0.7597;
1071.6000;0.3549;0.7549;
1071.9000;0.3549;0.7524;
1072.2000;0.3541;0.7622;
1072.5000;0.3549;0.7646;
1072.8000;0.3541;0.7622;
1073.1000;0.3549;0.7573;
1073.4000;0.3525;0.7597;
1073.7000;0.3533;0.7695;
1074.0000;0.3541;0.7622;
1074.3000;0.3541;0.7597;
1074.6000;0.3573;0.7646;
1074.9000;0.3525;0.7475;
1075.2000;0.3541;0.7524;
1075.5000;0.3533;0.7451;
1075.8000;0.3508;0.7475;
1076.1000;0.3549;0.7524;
1076.4000;0.3549;0.7427;
1076.7000;0.3525;0.7402;
1077.0000;0.3533;0.7524;
1077.3000;0.3533;0.7524;
1077.6000;0.3541;0.7549;
1077.9000;0.3598;0.7768;
1078.2000;0.3598;0.7792;
1078.5000;0.3492;0.7597;
1078.8000;0.3525;0.7670;
1079.1000;0.3557;0.7719;
1079.4000;0.3549;0.7695;
1079.7000;0.3606;0.7792;
1080.0000;0.3557;0.7719;
1080.3000;0.3484;0.7573;
1080.6000;0.3533;0.7597;
1080.9000;0.3525;0.7524;
1081.2000;0.3541;0.7597;
1081.5000;0.3525;0.7622;
1081.8000;0.3541;0.7646;
1082.1000;0.3533;0.7597;
1082.4000;0.3533;0.7597;
1082.7000;0.3525;0.7597;
1083.0000;0.3525;0.7549;
1083.3000;0.3492;0.7451;
1083.6000;0.3541;0.7622;
1083.9000;0.3516;0.7597;
1084.2000;0.3508;0.7524;
1084.5000;0.3541;0.7597;
1084.8000;0.3484;0.7500;
1085.1000;0.3533;0.7597;
1085.4000;0.3476;0.7402;
1085.7000;0.3630;0.7719;
1086.0000;0.3516;0.7378;
1086.3000;0.3508;0.7329;
1086.6000;0.3516;0.7451;
1086.9000;0.3508;0.7354;
1087.2000;0.3590;0.7524;
1087.5000;0.3549;0.7402;
1087.8000;0.3541;0.7378;
1088.1000;0.3549;0.7451;
1088.4000;0.3541;0.7451;
1088.7000;0.3533;0.7427;
1089.0000;0.3557;0.7500;
1089.3000;0.3549;0.7475;
1089.6000;0.3533;0.7378;
1089.9000;0.3549;0.7427;
1090.2000;0.3525;0.7354;
1090.5000;0.3476;0.7232;
1090.8000;0.3549;0.7524;
1091.1000;0.3557;0.7670;
1091.4000;0.3549;0.7622;
1091.7000;0.3541;0.7549;
1092.0000;0.3525;0.7549;
1092.3000;0.3541;0.7646;
1092.6000;0.3549;0.7646;
1092.9000;0.3500;0.7597;
1093.2000;0.3525;0.7670;
1093.5000;0.3533;0.7597;
1093.8000;0.3549;0.7573;
1094.1000;0.3573;0.7597;
1094.4000;0.3533;0.7597;
1094.7000;0.3549;0.7695;
1095.0000;0.3516;0.7597;
1095.3000;0.3500;0.7597;
1095.6000;0.3516;0.7597;
1095.9000;0.3500;0.7549;
1096.2000;0.3549;0.7597;
1096.5000;0.3533;0.7622;
1096.8000;0.3557;0.7622;
1097.1000;0.3549;0.7573;
1097.4000;0.3525;0.7573;
1097.7000;0.3582;0.7743;
1098.0000;0.3500;0.7500;
1098.3000;0.3549;0.7646;
1098.6000;0.3525;0.7573;
1098.9000;0.3557;0.7719;
1099.2000;0.3541;0.7670;
1099.5000;0.3492;0.7622;
1099.8000;0.3557;0.7792;
1100.1000;0.3565;0.7816;
1100.4000;0.3508;0.7719;
1100.7000;0.3541;0.7792;
1101.0000;0.3541;0.7743;
1101.3000;0.3557;0.7865;
1101.6000;0.3541;0.7743;
1101.9000;0.3533;0.7816;
1102.2000;0.3598;0.7962;
1102.5000;0.3541;0.7792;
1102.8000;0.3549;0.7743;
1103.1000;0.3573;0.7768;
1103.4000;0.3639;0.7938;
1103.7000;0.3541;0.7695;
1104.0000;0.3468;0.7475;
1104.3000;0.3549;0.7646;
1104.6000;0.3508;0.7500;
1104.9000;0.3525;0.7646;
1105.2000;0.3557;0.7743;
1105.5000;0.3533;0.7743;
1105.8000;0.3541;0.7670;
1106.1000;0.3516;0.7646;
1106.4000;0.3533;0.7695;
1106.7000;0.3541;0.7695;
1107.0000;0.3541;0.7695;
1107.3000;0.3500;0.7500;
1107.6000;0.3533;0.7597;
1107.9000;0.3541;0.7622;
1108.2000;0.3533;0.7573;
1108.5000;0.3541;0.7622;
1108.8000;0.3533;0.7573;
1109.1000;0.3541;0.7573;
1109.4000;0.3508;0.7500;
1109.7000;0.3525;0.7524;
1110.0000;0.3533;0.7573;
1110.3000;0.3533;0.7646;
1110.6000;0.3533;0.7597;
1110.9000;0.3492;0.7451;
1111.2000;0.3516;0.7524;
1111.5000;0.3533;0.7573;
1111.8000;0.3549;0.7597;
1112.1000;0.3541;0.7573;
1112.4000;0.3533;0.7573;
1112.7000;0.3516;0.7597;
1113.0000;0.3549;0.7622;
1113.3000;0.3541;0.7622;
1113.6000;0.3541;0.7646;
1113.9000;0.3492;0.7524;
1114.2000;0.3541;0.7622;
1114.5000;0.3541;0.7500;
1114.8000;0.3565;0.7573;
1115.1000;0.3533;0.7573;
1115.4000;0.3557;0.7646;
1115.7000;0.3557;0.7670;
1116.0000;0.3533;0.7573;
1116.3000;0.3525;0.7597;
1116.6000;0.3549;0.7646;
1116.9000;0.3549;0.7743;
1117.2000;0.3541;0.7695;
1117.5000;0.3573;0.7768;
1117.8000;0.3492;0.7500;
1118.1000;0.3549;0.7646;
1118.4000;0.3541;0.7597;
1118.7000;0.3541;0.7646;
1119.0000;0.3549;0.7743;
1119.3000;0.3541;0.7768;
1119.6000;0.3541;0.7816;
1119.9000;0.3533;0.7792;
1120.2000;0.3541;0.7816;
1120.5000;0.3541;0.7792;
1120.8000;0.3549;0.7792;
1121.1000;0.3508;0.7573;
1121.4000;0.3500;0.7549;
1121.7000;0.3533;0.7719;
1122.0000;0.3606;0.7914;
1122.3000;0.3525;0.7670;
1122.6000;0.3533;0.7670;
1122.9000;0.3598;0.7841;
1123.2000;0.3557;0.7670;
1123.5000;0.3549;0.7622;
1123.8000;0.3549;0.7646;
1124.1000;0.3541;0.7622;
1124.4000;0.3549;0.7695;
1124.7000;0.3549;0.7646;
1125.0000;0.3492;0.7549;
1125.3000;0.3533;0.7670;
1125.6000;0.3541;0.7646;
1125.9000;0.3549;0.7646;
1126.2000;0.3614;0.7914;
1126.5000;0.3549;0.7792;
1126.8000;0.3557;0.7816;
1127.1000;0.3549;0.7816;
1127.4000;0.3557;0.7841;
1127.7000;0.3533;0.7719;
1128.0000;0.3516;0.7622;
1128.3000;0.3541;0.7622;
1128.6000;0.3557;0.7597;
1128.9000;0.3484;0.7500;
1129.2000;0.3533;0.7597;
1129.5000;0.3565;0.7695;
1129.8000;0.3541;0.7695;
1130.1000;0.3533;0.7695;
1130.4000;0.3549;0.7719;
1130.7000;0.3468;0.7524;
1131.0000;0.3533;0.7573;
1131.3000;0.3541;0.7524;
1131.6000;0.3541;0.7573;
1131.9000;0.3541;0.7549;
1132.2000;0.3565;0.7670;
1132.5000;0.3541;0.7573;
1132.8000;0.3549;0.7524;
1133.1000;0.3549;0.7573;
1133.4000;0.3573;0.7695;
1133.7000;0.3565;0.7695;
1134.0000;0.3549;0.7597;
1134.3000;0.3549;0.7549;
1134.6000;0.3533;0.7646;
1134.9000;0.3549;0.7670;
1135.2000;0.3541;0.7597;
1135.5000;0.3541;0.7524;
1135.8000;0.3541;0.7524;
1136.1000;0.3541;0.7573;
1136.4000;0.3541;0.7646;
1136.7000;0.3516;0.7597;
1137.0000;0.3500;0.7573;
1137.3000;0.3533;0.7549;
1137.6000;0.3533;0.7524;
1137.9000;0.3541;0.7475;
1138.2000;0.3533;0.7451;
1138.5000;0.3533;0.7524;
1138.8000;0.3525;0.7549;
1139.1000;0.3525;0.7597;
1139.4000;0.3516;0.7524;
1139.7000;0.3533;0.7524;
1140.0000;0.3541;0.7549;
1140.3000;0.3541;0.7597;
1140.6000;0.3533;0.7597;
1140.9000;0.3508;0.7500;
1141.2000;0.3525;0.7500;
1141.5000;0.3549;0.7402;
1141.8000;0.3541;0.7378;
1142.1000;0.3533;0.7549;
1142.4000;0.3533;0.7597;
1142.7000;0.3533;0.7573;
1143.0000;0.3533;0.7573;
1143.3000;0.3508;0.7524;
1143.6000;0.3541;0.7597;
1143.9000;0.3525;0.7597;
1144.2000;0.3541;0.7622;
1144.5000;0.3533;0.7597;
1144.8000;0.3541;0.7719;
1145.1000;0.3549;0.7695;
1145.4000;0.3533;0.7695;
1145.7000;0.3565;0.7743;
1146.0000;0.3557;0.7719;
1146.3000;0.3541;0.7719;
1146.6000;0.3525;0.7670;
1146.9000;0.3549;0.7768;
1147.2000;0.3541;0.7816;
1147.5000;0.3533;0.7792;
1147.8000;0.3500;0.7597;
1148.1000;0.3533;0.7646;
1148.4000;0.3451;0.7549;
1148.7000;0.3541;0.7792;
1149.0000;0.3606;0.7938;
1149.3000;0.3541;0.7865;
1149.6000;0.3533;0.7816;
1149.9000;0.3533;0.7743;
1150.2000;0.3557;0.7743;
1150.5000;0.3525;0.7670;
1150.8000;0.3541;0.7670;
1151.1000;0.3533;0.7573;
1151.4000;0.3541;0.7597;
1151.7000;0.3533;0.7573;
1152.0000;0.3484;0.7451;
1152.3000;0.3582;0.7670;
1152.6000;0.3549;0.7597;
1152.9000;0.3525;0.7524;
1153.2000;0.3533;0.7475;
1153.5000;0.3533;0.7475;
1153.8000;0.3533;0.7451;
1154.1000;0.3541;0.7524;
1154.4000;0.3541;0.7524;
1154.7000;0.3533;0.7451;
1155.0000;0.3500;0.7402;
1155.3000;0.3541;0.7500;
1155.6000;0.3541;0.7500;
1155.9000;0.3549;0.7573;
1156.2000;0.3598;0.7646;
1156.5000;0.3541;0.7622;
1156.8000;0.3533;0.7646;
1157.1000;0.3541;0.7573;
1157.4000;0.3541;0.7646;
1157.7000;0.3541;0.7695;
1158.0000;0.3549;0.7743;
1158.3000;0.3516;0.7719;
1158.6000;0.3541;0.7768;
1158.9000;0.3541;0.7792;
1159.2000;0.3549;0.7816;
1159.5000;0.3533;0.7768;
1159.8000;0.3541;0.7743;
1160.1000;0.3525;0.7743;
1160.4000;0.3533;0.7768;
1160.7000;0.3549;0.7695;
1161.0000;0.3533;0.7646;
1161.3000;0.3533;0.7573;
1161.6000;0.3549;0.7549;
1161.9000;0.3549;0.7475;
1162.2000;0.3549;0.7475;
1162.5000;0.3533;0.7451;
1162.8000;0.3557;0.7549;
1163.1000;0.3573;0.7597;
1163.4000;0.3525;0.7500;
1163.7000;0.3541;0.7524;
1164.0000;0.3541;0.7549;
1164.3000;0.3533;0.7549;
1164.6000;0.3533;0.7549;
1164.9000;0.3533;0.7524;
1165.2000;0.3533;0.7646;
1165.5000;0.3533;0.7695;
1165.8000;0.3533;0.7646;
1166.1000;0.3533;0.7743;
1166.4000;0.3541;0.7695;
1166.7000;0.3541;0.7622;
1167.0000;0.3525;0.7451;
1167.3000;0.3541;0.7402;
1167.6000;0.3525;0.7500;
1167.9000;0.3630;0.7841;
1168.2000;0.3541;0.7646;
1168.5000;0.3525;0.7622;
1168.8000;0.3541;0.7719;
1169.1000;0.3549;0.7743;
1169.4000;0.3541;0.7743;
1169.7000;0.3533;0.7719;
1170.0000;0.3549;0.7695;
1170.3000;0.3541;0.7719;
1170.6000;0.3492;0.7549;
1170.9000;0.3557;0.7768;
1171.2000;0.3549;0.7768;
1171.5000;0.3549;0.7695;
1171.8000;0.3541;0.7597;
1172.1000;0.3606;0.7695;
1172.4000;0.3606;0.7695;
1172.7000;0.3541;0.7549;
1173.0000;0.3549;0.7646;
1173.3000;0.3549;0.7719;
1173.6000;0.3573;0.7768;
1173.9000;0.3525;0.7768;
1174.2000;0.3541;0.7695;
1174.5000;0.3549;0.7646;
1174.8000;0.3557;0.7524;
1175.1000;0.3541;0.7549;
1175.4000;0.3516;0.7500;
1175.7000;0.3557;0.7622;
1176.0000;0.3525;0.7573;
1176.3000;0.3541;0.7622;
1176.6000;0.3525;0.7597;
1176.9000;0.3525;0.7695;
1177.2000;0.3541;0.7695;
1177.5000;0.3525;0.7597;
1177.8000;0.3541;0.7670;
1178.1000;0.3557;0.7622;
1178.4000;0.3516;0.7573;
1178.7000;0.3525;0.7597;
1179.0000;0.3541;0.7768;
1179.3000;0.3606;0.7987;
1179.6000;0.3516;0.7695;
1179.9000;0.3533;0.7719;
1180.2000;0.3565;0.7719;
1180.5000;0.3541;0.7743;
1180.8000;0.3525;0.7597;
1181.1000;0.3541;0.7597;
1181.4000;0.3541;0.7573;
1181.7000;0.3500;0.7500;
1182.0000;0.3565;0.7670;
1182.3000;0.3549;0.7670;
1182.6000;0.3549;0.7670;
1182.9000;0.3541;0.7695;
1183.2000;0.3525;0.7646;
1183.5000;0.3525;0.7646;
1183.8000;0.3516;0.7597;
1184.1000;0.3533;0.7670;
1184.4000;0.3549;0.7768;
1184.7000;0.3525;0.7622;
1185.0000;0.3541;0.7549;
1185.3000;0.3541;0.7549;
1185.6000;0.3533;0.7524;
1185.9000;0.3590;0.7597;
1186.2000;0.3541;0.7597;
1186.5000;0.3516;0.7670;
1186.8000;0.3492;0.7719;
1187.1000;0.3549;0.7816;
1187.4000;0.3533;0.7743;
1187.7000;0.3549;0.7768;
1188.0000;0.3565;0.7816;
1188.3000;0.3541;0.7670;
1188.6000;0.3541;0.7549;
1188.9000;0.3508;0.7427;
1189.2000;0.3549;0.7427;
1189.5000;0.3541;0.7427;
1189.8000;0.3533;0.7402;
1190.1000;0.3500;0.7402;
1190.4000;0.3533;0.7451;
1190.7000;0.3541;0.7451;
1191.0000;0.3541;0.7451;
1191.3000;0.3533;0.7475;
1191.6000;0.3533;0.7500;
1191.9000;0.3492;0.7427;
1192.2000;0.3533;0.7549;
1192.5000;0.3533;0.7573;
1192.8000;0.3525;0.7622;
1193.1000;0.3573;0.7719;
1193.4000;0.3541;0.7573;
1193.7000;0.3525;0.7549;
1194.0000;0.3500;0.7402;
1194.3000;0.3541;0.7524;
1194.6000;0.3549;0.7500;
1194.9000;0.3508;0.7427;
1195.2000;0.3541;0.7475;
1195.5000;0.3557;0.7549;
1195.8000;0.3549;0.7549;
1196.1000;0.3525;0.7451;
1196.4000;0.3533;0.7427;
1196.7000;0.3533;0.7475;
1197.0000;0.3549;0.7549;
1197.3000;0.3468;0.7451;
1197.6000;0.3525;0.7695;
1197.9000;0.3541;0.7670;
1198.2000;0.3533;0.7695;
1198.5000;0.3533;0.7670;
1198.8000;0.3549;0.7768;
1199.1000;0.3541;0.7670;
1199.4000;0.3525;0.7573;
1199.7000;0.3541;0.7573;
1200.0000;0.3541;0.7549;
1200.3000;0.3557;0.7670;
1200.6000;0.3557;0.7670;
1200.9000;0.3590;0.7768;
1201.2000;0.3557;0.7622;
1201.5000;0.3630;0.7865;
1201.8000;0.3541;0.7646;
1202.1000;0.3533;0.7695;
1202.4000;0.3541;0.7597;
1202.7000;0.3541;0.7573;
1203.0000;0.3541;0.7622;
1203.3000;0.3533;0.7597;
1203.6000;0.3533;0.7597;
1203.9000;0.3573;0.7670;
1204.2000;0.3582;0.7622;
1204.5000;0.3541;0.7549;
1204.8000;0.3598;0.7695;
1205.1000;0.3549;0.7549;
1205.4000;0.3557;0.7402;
1205.7000;0.3549;0.7427;
1206.0000;0.3557;0.7427;
1206.3000;0.3549;0.7427;
1206.6000;0.3549;0.7451;
1206.9000;0.3533;0.7427;
1207.2000;0.3516;0.7451;
1207.5000;0.3525;0.7500;
1207.8000;0.3516;0.7524;
1208.1000;0.3541;0.7524;
1208.4000;0.3541;0.7451;
1208.7000;0.3549;0.7500;
1209.0000;0.3549;0.7451;
1209.3000;0.3533;0.7378;
1209.6000;0.3525;0.7402;
1209.9000;0.3549;0.7573;
1210.2000;0.3565;0.7646;
1210.5000;0.3533;0.7573;
1210.8000;0.3598;0.7695;
1211.1000;0.3565;0.7622;
1211.4000;0.3565;0.7573;
1211.7000;0.3533;0.7427;
1212.0000;0.3492;0.7183;
1212.3000;0.3549;0.7402;
1212.6000;0.3557;0.7378;
1212.9000;0.3525;0.7378;
1213.2000;0.3533;0.7305;
1213.5000;0.3557;0.7354;
1213.8000;0.3573;0.7475;
1214.1000;0.3541;0.7427;
1214.4000;0.3533;0.7329;
1214.7000;0.3549;0.7329;
1215.0000;0.3549;0.7281;
1215.3000;0.3525;0.7232;
1215.6000;0.3549;0.7354;
1215.9000;0.3516;0.7354;
1216.2000;0.3541;0.7354;
1216.5000;0.3549;0.7305;
1216.8000;0.3525;0.7329;
1217.1000;0.3565;0.7354;
1217.4000;0.3500;0.7256;
1217.7000;0.3622;0.7573;
1218.0000;0.3508;0.7305;
1218.3000;0.3525;0.7354;
1218.6000;0.3451;0.7208;
1218.9000;0.3639;0.7597;
1219.2000;0.3541;0.7329;
1219.5000;0.3525;0.7281;
1219.8000;0.3541;0.7305;
1220.1000;0.3565;0.7354;
1220.4000;0.3508;0.7183;
1220.7000;0.3533;0.7281;
1221.0000;0.3533;0.7281;
1221.3000;0.3484;0.7183;
1221.6000;0.3549;0.7354;
1221.9000;0.3541;0.7281;
1222.2000;0.3549;0.7281;
1222.5000;0.3533;0.7281;
1222.8000;0.3541;0.7329;
1223.1000;0.3541;0.7475;
1223.4000;0.3565;0.7524;
1223.7000;0.3533;0.7427;
1224.0000;0.3533;0.7427;
1224.3000;0.3557;0.7451;
1224.6000;0.3549;0.7475;
1224.9000;0.3565;0.7549;
1225.2000;0.3541;0.7427;
1225.5000;0.3565;0.7475;
1225.8000;0.3541;0.7524;
1226.1000;0.3525;0.7475;
1226.4000;0.3573;0.7402;
1226.7000;0.3516;0.7329;
1227.0000;0.3525;0.7329;
1227.3000;0.3549;0.7402;
1227.6000;0.3508;0.7354;
1227.9000;0.3549;0.7524;
1228.2000;0.3500;0.7402;
1228.5000;0.3525;0.7475;
1228.8000;0.3541;0.7549;
1229.1000;0.3549;0.7597;
1229.4000;0.3533;0.7475;
1229.7000;0.3533;0.7451;
1230.0000;0.3565;0.7524;
1230.3000;0.3565;0.7622;
1230.6000;0.3541;0.7597;
1230.9000;0.3508;0.7451;
1231.2000;0.3590;0.7646;
1231.5000;0.3549;0.7524;
1231.8000;0.3549;0.7475;
1232.1000;0.3533;0.7378;
1232.4000;0.3533;0.7402;
1232.7000;0.3549;0.7427;
1233.0000;0.3565;0.7451;
1233.3000;0.3541;0.7354;
1233.6000;0.3525;0.7427;
1233.9000;0.3484;0.7402;
1234.2000;0.3557;0.7573;
1234.5000;0.3525;0.7573;
1234.8000;0.3533;0.7427;
1235.1000;0.3549;0.7402;
1235.4000;0.3541;0.7378;
1235.7000;0.3541;0.7354;
1236.0000;0.3500;0.7281;
1236.3000;0.3549;0.7378;
1236.6000;0.3525;0.7329;
1236.9000;0.3533;0.7281;
1237.2000;0.3533;0.7354;
1237.5000;0.3525;0.7354;
1237.8000;0.3533;0.7281;
1238.1000;0.3590;0.7329;
1238.4000;0.3525;0.7183;
1238.7000;0.3525;0.7208;
1239.0000;0.3525;0.7305;
1239.3000;0.3533;0.7232;
1239.6000;0.3508;0.7135;
1239.9000;0.3541;0.7183;
1240.2000;0.3533;0.7232;
1240.5000;0.3557;0.7305;
1240.8000;0.3533;0.7305;
1241.1000;0.3541;0.7427;
1241.4000;0.3557;0.7427;
1241.7000;0.3549;0.7402;
1242.0000;0.3549;0.7451;
1242.3000;0.3565;0.7549;
1242.6000;0.3541;0.7451;
1242.9000;0.3549;0.7402;
1243.2000;0.3549;0.7451;
1243.5000;0.3541;0.7451;
1243.8000;0.3541;0.7549;
1244.1000;0.3525;0.7451;
1244.4000;0.3525;0.7451;
1244.7000;0.3549;0.7500;
1245.0000;0.3541;0.7451;
1245.3000;0.3525;0.7451;
1245.6000;0.3533;0.7524;
1245.9000;0.3525;0.7500;
1246.2000;0.3525;0.7500;
1246.5000;0.3549;0.7500;
1246.8000;0.3541;0.7354;
1247.1000;0.3541;0.7305;
1247.4000;0.3492;0.7232;
1247.7000;0.3508;0.7354;
1248.0000;0.3533;0.7500;
1248.3000;0.3516;0.7402;
1248.6000;0.3516;0.7402;
1248.9000;0.3533;0.7378;
1249.2000;0.3549;0.7378;
1249.5000;0.3533;0.7305;
1249.8000;0.3533;0.7329;
1250.1000;0.3541;0.7378;
1250.4000;0.3451;0.7135;
1250.7000;0.3533;0.7329;
1251.0000;0.3525;0.7378;
1251.3000;0.3549;0.7427;
1251.6000;0.3533;0.7451;
1251.9000;0.3541;0.7475;
1252.2000;0.3500;0.7281;
1252.5000;0.3516;0.7256;
1252.8000;0.3557;0.7402;
1253.1000;0.3541;0.7305;
1253.4000;0.3541;0.7329;
1253.7000;0.3533;0.7378;
1254.0000;0.3500;0.7378;
1254.3000;0.3533;0.7451;
1254.6000;0.3533;0.7475;
1254.9000;0.3565;0.7524;
1255.2000;0.3573;0.7549;
1255.5000;0.3525;0.7475;
1255.8000;0.3541;0.7451;
1256.1000;0.3549;0.7475;
1256.4000;0.3525;0.7427;
1256.7000;0.3533;0.7378;
1257.0000;0.3598;0.7549;
1257.3000;0.3557;0.7329;
1257.6000;0.3541;0.7329;
1257.9000;0.3541;0.7378;
1258.2000;0.3533;0.7427;
1258.5000;0.3541;0.7524;
1258.8000;0.3533;0.7500;
1259.1000;0.3533;0.7524;
1259.4000;0.3549;0.7549;
1259.7000;0.3533;0.7573;
1260.0000;0.3582;0.7670;
1260.3000;0.3533;0.7573;
1260.6000;0.3508;0.7549;
1260.9000;0.3541;0.7622;
1261.2000;0.3541;0.7622;
1261.5000;0.3533;0.7524;
1261.8000;0.3508;0.7427;
1262.1000;0.3565;0.7573;
1262.4000;0.3541;0.7500;
1262.7000;0.3516;0.7354;
1263.0000;0.3541;0.7451;
1263.3000;0.3541;0.7378;
1263.6000;0.3549;0.7451;
1263.9000;0.3573;0.7524;
1264.2000;0.3557;0.7451;
1264.5000;0.3541;0.7451;
1264.8000;0.3541;0.7475;
1265.1000;0.3541;0.7475;
1265.4000;0.3525;0.7427;
1265.7000;0.3525;0.7475;
1266.0000;0.3541;0.7549;
1266.3000;0.3549;0.7549;
1266.6000;0.3557;0.7597;
1266.9000;0.3541;0.7573;
1267.2000;0.3533;0.7475;
1267.5000;0.3549;0.7500;
1267.8000;0.3541;0.7451;
1268.1000;0.3622;0.7670;
1268.4000;0.3533;0.7427;
1268.7000;0.3557;0.7451;
1269.0000;0.3541;0.7427;
1269.3000;0.3484;0.7281;
1269.6000;0.3508;0.7329;
1269.9000;0.3533;0.7524;
1270.2000;0.3549;0.7573;
1270.5000;0.3533;0.7573;
1270.8000;0.3533;0.7524;
1271.1000;0.3549;0.7427;
1271.4000;0.3557;0.7402;
1271.7000;0.3533;0.7378;
1272.0000;0.3541;0.7354;
1272.3000;0.3549;0.7402;
1272.6000;0.3647;0.7622;
1272.9000;0.3541;0.7329;
1273.2000;0.3622;0.7597;
1273.5000;0.3525;0.7256;
1273.8000;0.3541;0.7305;
1274.1000;0.3533;0.7329;
1274.4000;0.3590;0.7329;
1274.7000;0.3516;0.7135;
1275.0000;0.3533;0.7110;
1275.3000;0.3525;0.6988;
1275.6000;0.3476;0.6842;
1275.9000;0.3516;0.7037;
1276.2000;0.3508;0.7110;
1276.5000;0.3541;0.7183;
1276.8000;0.3525;0.7135;
1277.1000;0.3541;0.7208;
1277.4000;0.3549;0.7354;
1277.7000;0.3525;0.7232;
1278.0000;0.3541;0.7281;
1278.3000;0.3533;0.7354;
1278.6000;0.3516;0.7329;
1278.9000;0.3565;0.7451;
1279.2000;0.3533;0.7329;
1279.5000;0.3541;0.7305;
1279.8000;0.3516;0.7281;
1280.1000;0.3549;0.7281;
1280.4000;0.3533;0.7256;
1280.7000;0.3557;0.7354;
1281.0000;0.3663;0.7646;
1281.3000;0.3533;0.7281;
1281.6000;0.3525;0.7159;
1281.9000;0.3549;0.7208;
1282.2000;0.3533;0.7208;
1282.5000;0.3590;0.7354;
1282.8000;0.3516;0.7281;
1283.1000;0.3525;0.7256;
1283.4000;0.3525;0.7305;
1283.7000;0.3525;0.7402;
1284.0000;0.3525;0.7427;
1284.3000;0.3533;0.7475;
1284.6000;0.3516;0.7305;
1284.9000;0.3516;0.7329;
1285.2000;0.3525;0.7305;
1285.5000;0.3549;0.7281;
1285.8000;0.3533;0.7159;
1286.1000;0.3533;0.7086;
1286.4000;0.3525;0.7037;
1286.7000;0.3516;0.6964;
1287.0000;0.3476;0.6988;
1287.3000;0.3525;0.7110;
1287.6000;0.3533;0.7135;
1287.9000;0.3549;0.7135;
1288.2000;0.3533;0.7037;
1288.5000;0.3557;0.7086;
1288.8000;0.3557;0.7062;
1289.1000;0.3533;0.7037;
1289.4000;0.3533;0.6988;
1289.7000;0.3541;0.7159;
1290.0000;0.3500;0.7183;
1290.3000;0.3614;0.7402;
1290.6000;0.3533;0.7208;
1290.9000;0.3525;0.7208;
1291.2000;0.3541;0.7232;
1291.5000;0.3541;0.7232;
1291.8000;0.3549;0.7329;
1292.1000;0.3435;0.7256;
1292.4000;0.3606;0.7768;
1292.7000;0.3525;0.7597;
1293.0000;0.3516;0.7475;
1293.3000;0.3525;0.7402;
1293.6000;0.3541;0.7378;
1293.9000;0.3533;0.7329;
1294.2000;0.3533;0.7329;
1294.5000;0.3549;0.7329;
1294.8000;0.3557;0.7329;
1295.1000;0.3557;0.7329;
1295.4000;0.3565;0.7451;
1295.7000;0.3549;0.7354;
1296.0000;0.3525;0.7256;
1296.3000;0.3533;0.7305;
1296.6000;0.3533;0.7329;
1296.9000;0.3533;0.7281;
1297.2000;0.3557;0.7256;
1297.5000;0.3541;0.7232;
1297.8000;0.3533;0.7281;
1298.1000;0.3557;0.7305;
1298.4000;0.3533;0.7208;
1298.7000;0.3525;0.7135;
1299.0000;0.3541;0.7208;
1299.3000;0.3541;0.7256;
1299.6000;0.3541;0.7281;
1299.9000;0.3533;0.7354;
1300.2000;0.3516;0.7305;
1300.5000;0.3533;0.7378;
1300.8000;0.3516;0.7354;
1301.1000;0.3533;0.7475;
1301.4000;0.3533;0.7402;
1301.7000;0.3541;0.7500;
1302.0000;0.3533;0.7451;
1302.3000;0.3525;0.7402;
1302.6000;0.3533;0.7378;
1302.9000;0.3557;0.7451;
1303.2000;0.3549;0.7378;
1303.5000;0.3541;0.7354;
1303.8000;0.3484;0.7232;
1304.1000;0.3549;0.7475;
1304.4000;0.3525;0.7475;
1304.7000;0.3533;0.7500;
1305.0000;0.3541;0.7573;
1305.3000;0.3533;0.7451;
1305.6000;0.3516;0.7354;
1305.9000;0.3541;0.7427;
1306.2000;0.3516;0.7378;
1306.5000;0.3557;0.7500;
1306.8000;0.3549;0.7402;
1307.1000;0.3541;0.7378;
1307.4000;0.3533;0.7329;
1307.7000;0.3549;0.7354;
1308.0000;0.3516;0.7232;
1308.3000;0.3533;0.7402;
1308.6000;0.3565;0.7573;
1308.9000;0.3525;0.7475;
1309.2000;0.3541;0.7500;
1309.5000;0.3639;0.7792;
1309.8000;0.3525;0.7500;
1310.1000;0.3582;0.7573;
1310.4000;0.3468;0.7305;
1310.7000;0.3516;0.7402;
1311.0000;0.3525;0.7427;
1311.3000;0.3525;0.7524;
1311.6000;0.3451;0.7427;
1311.9000;0.3508;0.7597;
1312.2000;0.3541;0.7622;
1312.5000;0.3525;0.7573;
1312.8000;0.3541;0.7573;
1313.1000;0.3468;0.7475;
1313.4000;0.3541;0.7622;
1313.7000;0.3549;0.7549;
1314.0000;0.3484;0.7402;
1314.3000;0.3541;0.7475;
1314.6000;0.3525;0.7329;
1314.9000;0.3516;0.7402;
1315.2000;0.3508;0.7402;
1315.5000;0.3525;0.7475;
1315.8000;0.3533;0.7475;
1316.1000;0.3549;0.7597;
1316.4000;0.3541;0.7549;
1316.7000;0.3516;0.7451;
1317.0000;0.3525;0.7475;
1317.3000;0.3582;0.7549;
1317.6000;0.3598;0.7573;
1317.9000;0.3541;0.7427;
1318.2000;0.3525;0.7281;
1318.5000;0.3557;0.7378;
1318.8000;0.3533;0.7329;
1319.1000;0.3508;0.7305;
1319.4000;0.3549;0.7451;
1319.7000;0.3516;0.7354;
1320.0000;0.3525;0.7378;
1320.3000;0.3525;0.7305;
1320.6000;0.3549;0.7378;
1320.9000;0.3460;0.7159;
1321.2000;0.3525;0.7354;
1321.5000;0.3500;0.7329;
1321.8000;0.3525;0.7354;
1322.1000;0.3533;0.7402;
1322.4000;0.3516;0.7451;
1322.7000;0.3525;0.7451;
1323.0000;0.3525;0.7427;
1323.3000;0.3541;0.7500;
1323.6000;0.3533;0.7427;
1323.9000;0.3541;0.7378;
1324.2000;0.3549;0.7451;
1324.5000;0.3541;0.7427;
1324.8000;0.3565;0.7573;
1325.1000;0.3476;0.7402;
1325.4000;0.3516;0.7475;
1325.7000;0.3460;0.7378;
1326.0000;0.3582;0.7670;
1326.3000;0.3525;0.7500;
1326.6000;0.3549;0.7500;
1326.9000;0.3525;0.7427;
1327.2000;0.3533;0.7402;
1327.5000;0.3525;0.7354;
1327.8000;0.3533;0.7402;
1328.1000;0.3590;0.7500;
1328.4000;0.3525;0.7256;
1328.7000;0.3557;0.7427;
1329.0000;0.3541;0.7524;
1329.3000;0.3573;0.7670;
1329.6000;0.3525;0.7524;
1329.9000;0.3541;0.7549;
1330.2000;0.3549;0.7573;
1330.5000;0.3516;0.7597;
1330.8000;0.3525;0.7670;
1331.1000;0.3549;0.7719;
1331.4000;0.3533;0.7670;
1331.7000;0.3541;0.7646;
1332.0000;0.3590;0.7719;
1332.3000;0.3525;0.7549;
1332.6000;0.3533;0.7549;
1332.9000;0.3533;0.7524;
1333.2000;0.3541;0.7573;
1333.5000;0.3541;0.7549;
1333.8000;0.3541;0.7597;
1334.1000;0.3549;0.7597;
1334.4000;0.3508;0.7500;
1334.7000;0.3557;0.7573;
1335.0000;0.3541;0.7549;
1335.3000;0.3525;0.7597;
1335.6000;0.3533;0.7622;
1335.9000;0.3533;0.7768;
1336.2000;0.3573;0.7792;
1336.5000;0.3557;0.7719;
1336.8000;0.3549;0.7646;
1337.1000;0.3533;0.7695;
1337.4000;0.3549;0.7597;
1337.7000;0.3533;0.7573;
1338.0000;0.3541;0.7549;
1338.3000;0.3541;0.7402;
1338.6000;0.3508;0.7402;
1338.9000;0.3549;0.7427;
1339.2000;0.3541;0.7427;
1339.5000;0.3541;0.7500;
1339.8000;0.3525;0.7524;
1340.1000;0.3541;0.7427;
1340.4000;0.3541;0.7427;
1340.7000;0.3541;0.7427;
1341.0000;0.3525;0.7354;
1341.3000;0.3525;0.7402;
1341.6000;0.3533;0.7427;
1341.9000;0.3573;0.7549;
1342.2000;0.3549;0.7451;
1342.5000;0.3606;0.7597;
1342.8000;0.3541;0.7451;
1343.1000;0.3541;0.7500;
1343.4000;0.3549;0.7451;
1343.7000;0.3549;0.7500;
1344.0000;0.3549;0.7549;
1344.3000;0.3598;0.7646;
1344.6000;0.3533;0.7475;
1344.9000;0.3533;0.7475;
1345.2000;0.3525;0.7475;
1345.5000;0.3533;0.7549;
1345.8000;0.3508;0.7475;
1346.1000;0.3541;0.7646;
1346.4000;0.3549;0.7549;
1346.7000;0.3533;0.7524;
1347.0000;0.3533;0.7549;
1347.3000;0.3525;0.7500;
1347.6000;0.3541;0.7475;
1347.9000;0.3476;0.7451;
1348.2000;0.3549;0.7573;
1348.5000;0.3541;0.7573;
1348.8000;0.3525;0.7524;
1349.1000;0.3541;0.7524;
1349.4000;0.3549;0.7524;
1349.7000;0.3533;0.7500;
1350.0000;0.3590;0.7670;
1350.3000;0.3541;0.7670;
1350.6000;0.3549;0.7646;
1350.9000;0.3590;0.7816;
1351.2000;0.3533;0.7622;
1351.5000;0.3533;0.7524;
1351.8000;0.3557;0.7549;
1352.1000;0.3525;0.7451;
1352.4000;0.3516;0.7475;
1352.7000;0.3533;0.7475;
1353.0000;0.3500;0.7427;
1353.3000;0.3541;0.7549;
1353.6000;0.3525;0.7573;
1353.9000;0.3525;0.7573;
1354.2000;0.3573;0.7695;
1354.5000;0.3525;0.7597;
1354.8000;0.3533;0.7549;
1355.1000;0.3541;0.7549;
1355.4000;0.3557;0.7646;
1355.7000;0.3508;0.7524;
1356.0000;0.3525;0.7500;
1356.3000;0.3533;0.7500;
1356.6000;0.3533;0.7549;
1356.9000;0.3541;0.7500;
1357.2000;0.3541;0.7402;
1357.5000;0.3525;0.7354;
1357.8000;0.3525;0.7427;
1358.1000;0.3460;0.7256;
1358.4000;0.3533;0.7549;
1358.7000;0.3541;0.7524;
1359.0000;0.3516;0.7475;
1359.3000;0.3541;0.7475;
1359.6000;0.3541;0.7500;
1359.9000;0.3549;0.7329;
1360.2000;0.3541;0.7281;
1360.5000;0.3525;0.7281;
1360.8000;0.3533;0.7378;
1361.1000;0.3533;0.7329;
1361.4000;0.3541;0.7354;
1361.7000;0.3525;0.7329;
1362.0000;0.3541;0.7378;
1362.3000;0.3549;0.7354;
1362.6000;0.3533;0.7354;
1362.9000;0.3549;0.7427;
1363.2000;0.3565;0.7524;
1363.5000;0.3541;0.7524;
1363.8000;0.3525;0.7573;
1364.1000;0.3541;0.7719;
1364.4000;0.3525;0.7719;
1364.7000;0.3533;0.7719;
1365.0000;0.3541;0.7743;
1365.3000;0.3492;0.7670;
1365.6000;0.3533;0.7792;
1365.9000;0.3549;0.7816;
1366.2000;0.3557;0.7743;
1366.5000;0.3541;0.7646;
1366.8000;0.3525;0.7695;
1367.1000;0.3541;0.7719;
1367.4000;0.3647;0.8011;
1367.7000;0.3525;0.7719;
1368.0000;0.3533;0.7719;
1368.3000;0.3573;0.7792;
1368.6000;0.3549;0.7743;
1368.9000;0.3516;0.7670;
1369.2000;0.3541;0.7719;
1369.5000;0.3533;0.7719;
1369.8000;0.3541;0.7719;
1370.1000;0.3525;0.7792;
1370.4000;0.3541;0.7743;
1370.7000;0.3549;0.7743;
1371.0000;0.3541;0.7646;
1371.3000;0.3541;0.7622;
1371.6000;0.3533;0.7500;
1371.9000;0.3614;0.7695;
1372.2000;0.3541;0.7500;
1372.5000;0.3533;0.7500;
1372.8000;0.3541;0.7500;
1373.1000;0.3541;0.7670;
1373.4000;0.3573;0.7816;
1373.7000;0.3541;0.7743;
1374.0000;0.3549;0.7792;
1374.3000;0.3541;0.7743;
1374.6000;0.3541;0.7743;
1374.9000;0.3557;0.7719;
1375.2000;0.3582;0.7792;
1375.5000;0.3541;0.7670;
1375.8000;0.3565;0.7695;
1376.1000;0.3549;0.7524;
1376.4000;0.3541;0.7524;
1376.7000;0.3533;0.7500;
1377.0000;0.3533;0.7475;
1377.3000;0.3557;0.7378;
1377.6000;0.3516;0.7305;
1377.9000;0.3557;0.7402;
1378.2000;0.3565;0.7475;
1378.5000;0.3557;0.7427;
1378.8000;0.3557;0.7451;
1379.1000;0.3516;0.7427;
1379.4000;0.3525;0.7475;
1379.7000;0.3541;0.7524;
1380.0000;0.3541;0.7500;
1380.3000;0.3541;0.7524;
1380.6000;0.3557;0.7500;
1380.9000;0.3533;0.7427;
1381.2000;0.3525;0.7451;
1381.5000;0.3516;0.7427;
1381.8000;0.3598;0.7597;
1382.1000;0.3549;0.7500;
1382.4000;0.3492;0.7427;
1382.7000;0.3557;0.7646;
1383.0000;0.3590;0.7695;
1383.3000;0.3533;0.7549;
1383.6000;0.3549;0.7597;
1383.9000;0.3525;0.7500;
1384.2000;0.3533;0.7475;
1384.5000;0.3508;0.7427;
1384.8000;0.3541;0.7524;
1385.1000;0.3533;0.7475;
1385.4000;0.3549;0.7427;
1385.7000;0.3516;0.7402;
1386.0000;0.3541;0.7402;
1386.3000;0.3565;0.7549;
1386.6000;0.3516;0.7451;
1386.9000;0.3533;0.7524;
1387.2000;0.3500;0.7524;
1387.5000;0.3541;0.7597;
1387.8000;0.3557;0.7549;
1388.1000;0.3549;0.7500;
1388.4000;0.3541;0.7573;
1388.7000;0.3533;0.7646;
1389.0000;0.3500;0.7500;
1389.3000;0.3508;0.7524;
1389.6000;0.3573;0.7646;
1389.9000;0.3557;0.7622;
1390.2000;0.3525;0.7573;
1390.5000;0.3492;0.7451;
1390.8000;0.3533;0.7500;
1391.1000;0.3516;0.7402;
1391.4000;0.3549;0.7402;
1391.7000;0.3533;0.7402;
1392.0000;0.3500;0.7281;
1392.3000;0.3533;0.7451;
1392.6000;0.3516;0.7402;
1392.9000;0.3516;0.7305;
1393.2000;0.3492;0.7232;
1393.5000;0.3508;0.7305;
1393.8000;0.3516;0.7305;
1394.1000;0.3516;0.7329;
1394.4000;0.3549;0.7451;
1394.7000;0.3500;0.7378;
1395.0000;0.3541;0.7475;
1395.3000;0.3516;0.7524;
1395.6000;0.3500;0.7427;
1395.9000;0.3516;0.7451;
1396.2000;0.3549;0.7597;
1396.5000;0.3525;0.7354;
1396.8000;0.3525;0.7329;
1397.1000;0.3516;0.7402;
1397.4000;0.3565;0.7597;
1397.7000;0.3525;0.7500;
1398.0000;0.3533;0.7475;
1398.3000;0.3549;0.7427;
1398.6000;0.3516;0.7305;
1398.9000;0.3492;0.7256;
1399.2000;0.3541;0.7378;
1399.5000;0.3525;0.7305;
1399.8000;0.3508;0.7305;
