time/ms;Fluo/V;P700 deltaI/I x10³;
-199.8000;0.4249;0.7110;
-199.5000;0.4257;0.7086;
-199.2000;0.4241;0.7062;
-198.9000;0.4257;0.7013;
-198.6000;0.4249;0.7037;
-198.3000;0.4249;0.7037;
-198.0000;0.4249;0.7013;
-197.7000;0.4257;0.7062;
-197.4000;0.4217;0.6915;
-197.1000;0.4233;0.6988;
-196.8000;0.4249;0.7013;
-196.5000;0.4249;0.7013;
-196.2000;0.4225;0.7062;
-195.9000;0.4274;0.7232;
-195.6000;0.4257;0.7208;
-195.3000;0.4274;0.7159;
-195.0000;0.4225;0.6915;
-194.7000;0.4200;0.6867;
-194.4000;0.4249;0.6940;
-194.1000;0.4257;0.7013;
-193.8000;0.4241;0.6988;
-193.5000;0.4257;0.7110;
-193.2000;0.4274;0.7183;
-192.9000;0.4249;0.7183;
-192.6000;0.4257;0.7159;
-192.3000;0.4265;0.7159;
-192.0000;0.4257;0.7208;
-191.7000;0.4265;0.7159;
-191.4000;0.4249;0.7159;
-191.1000;0.4265;0.7183;
-190.8000;0.4257;0.7256;
-190.5000;0.4298;0.7232;
-190.2000;0.4257;0.7183;
-189.9000;0.4363;0.7451;
-189.6000;0.4249;0.7256;
-189.3000;0.4298;0.7305;
-189.0000;0.4257;0.7232;
-188.7000;0.4314;0.7354;
-188.4000;0.4274;0.7208;
-188.1000;0.4274;0.7159;
-187.8000;0.4249;0.7183;
-187.5000;0.4249;0.7183;
-187.2000;0.4257;0.7159;
-186.9000;0.4274;0.7037;
-186.6000;0.4249;0.6915;
-186.3000;0.4241;0.6842;
-186.0000;0.4249;0.6867;
-185.7000;0.4257;0.6891;
-185.4000;0.4274;0.6818;
-185.1000;0.4257;0.6940;
-184.8000;0.4257;0.6964;
-184.5000;0.4265;0.7013;
-184.2000;0.4257;0.6915;
-183.9000;0.4249;0.6964;
-183.6000;0.4265;0.6964;
-183.3000;0.4282;0.7110;
-183.0000;0.4265;0.7110;
-182.7000;0.4265;0.6964;
-182.4000;0.4241;0.6867;
-182.1000;0.4249;0.6915;
-181.8000;0.4306;0.7062;
-181.5000;0.4265;0.6891;
-181.2000;0.4249;0.6867;
-180.9000;0.4347;0.7062;
-180.6000;0.4257;0.6769;
-180.3000;0.4249;0.6769;
-180.0000;0.4274;0.6818;
-179.7000;0.4265;0.6891;
-179.4000;0.4192;0.6672;
-179.1000;0.4233;0.6769;
-178.8000;0.4249;0.6721;
-178.5000;0.4339;0.6891;
-178.2000;0.4330;0.6842;
-177.9000;0.4249;0.6623;
-177.6000;0.4200;0.6526;
-177.3000;0.4282;0.6891;
-177.0000;0.4257;0.6891;
-176.7000;0.4241;0.6915;
-176.4000;0.4257;0.6940;
-176.1000;0.4257;0.6940;
-175.8000;0.4249;0.6915;
-175.5000;0.4290;0.7013;
-175.2000;0.4257;0.6940;
-174.9000;0.4306;0.7037;
-174.6000;0.4241;0.6915;
-174.3000;0.4257;0.6964;
-174.0000;0.4225;0.6891;
-173.7000;0.4265;0.6915;
-173.4000;0.4322;0.7159;
-173.1000;0.4257;0.7013;
-172.8000;0.4298;0.7062;
-172.5000;0.4322;0.7110;
-172.2000;0.4257;0.7037;
-171.9000;0.4257;0.7037;
-171.6000;0.4249;0.6988;
-171.3000;0.4265;0.6964;
-171.0000;0.4257;0.7013;
-170.7000;0.4257;0.7013;
-170.4000;0.4265;0.7013;
-170.1000;0.4265;0.7013;
-169.8000;0.4274;0.7013;
-169.5000;0.4225;0.6964;
-169.2000;0.4241;0.6940;
-168.9000;0.4208;0.6842;
-168.6000;0.4233;0.6891;
-168.3000;0.4241;0.6988;
-168.0000;0.4233;0.6964;
-167.7000;0.4241;0.7037;
-167.4000;0.4241;0.7086;
-167.1000;0.4249;0.7208;
-166.8000;0.4257;0.7256;
-166.5000;0.4233;0.7281;
-166.2000;0.4298;0.7378;
-165.9000;0.4233;0.7256;
-165.6000;0.4249;0.7256;
-165.3000;0.4233;0.7208;
-165.0000;0.4249;0.7232;
-164.7000;0.4265;0.7159;
-164.4000;0.4241;0.6940;
-164.1000;0.4249;0.6988;
-163.8000;0.4233;0.7037;
-163.5000;0.4249;0.7013;
-163.2000;0.4257;0.6964;
-162.9000;0.4274;0.6940;
-162.6000;0.4282;0.6891;
-162.3000;0.4306;0.6964;
-162.0000;0.4249;0.6769;
-161.7000;0.4233;0.6745;
-161.4000;0.4249;0.6818;
-161.1000;0.4225;0.6721;
-160.8000;0.4249;0.6648;
-160.5000;0.4257;0.6623;
-160.2000;0.4249;0.6648;
-159.9000;0.4241;0.6672;
-159.6000;0.4249;0.6769;
-159.3000;0.4241;0.6769;
-159.0000;0.4249;0.6769;
-158.7000;0.4200;0.6696;
-158.4000;0.4420;0.7256;
-158.1000;0.4143;0.6648;
-157.8000;0.4249;0.6940;
-157.5000;0.4241;0.6964;
-157.2000;0.4192;0.6794;
-156.9000;0.4241;0.6940;
-156.6000;0.4274;0.7110;
-156.3000;0.4257;0.7110;
-156.0000;0.4265;0.7110;
-155.7000;0.4257;0.7037;
-155.4000;0.4257;0.7110;
-155.1000;0.4257;0.7159;
-154.8000;0.4265;0.7110;
-154.5000;0.4249;0.7013;
-154.2000;0.4200;0.6915;
-153.9000;0.4290;0.7037;
-153.6000;0.4282;0.6988;
-153.3000;0.4282;0.6988;
-153.0000;0.4217;0.6891;
-152.7000;0.4257;0.7037;
-152.4000;0.4257;0.6988;
-152.1000;0.4257;0.6988;
-151.8000;0.4241;0.6915;
-151.5000;0.4282;0.7037;
-151.2000;0.4274;0.6988;
-150.9000;0.4274;0.6915;
-150.6000;0.4265;0.6988;
-150.3000;0.4257;0.6940;
-150.0000;0.4217;0.6867;
-149.7000;0.4265;0.6940;
-149.4000;0.4257;0.6891;
-149.1000;0.4282;0.6891;
-148.8000;0.4217;0.6794;
-148.5000;0.4257;0.6867;
-148.2000;0.4257;0.6794;
-147.9000;0.4208;0.6623;
-147.6000;0.4249;0.6745;
-147.3000;0.4282;0.6794;
-147.0000;0.4265;0.6745;
-146.7000;0.4265;0.6842;
-146.4000;0.4257;0.6842;
-146.1000;0.4265;0.6940;
-145.8000;0.4274;0.6964;
-145.5000;0.4322;0.7062;
-145.2000;0.4274;0.6867;
-144.9000;0.4274;0.6842;
-144.6000;0.4249;0.6891;
-144.3000;0.4257;0.6940;
-144.0000;0.4257;0.6891;
-143.7000;0.4257;0.6940;
-143.4000;0.4249;0.6891;
-143.1000;0.4249;0.6842;
-142.8000;0.4168;0.6745;
-142.5000;0.4347;0.7208;
-142.2000;0.4257;0.6988;
-141.9000;0.4249;0.6915;
-141.6000;0.4257;0.6842;
-141.3000;0.4265;0.6915;
-141.0000;0.4274;0.6940;
-140.7000;0.4274;0.6940;
-140.4000;0.4290;0.6964;
-140.1000;0.4265;0.6915;
-139.8000;0.4274;0.6940;
-139.5000;0.4314;0.7135;
-139.2000;0.4314;0.7062;
-138.9000;0.4265;0.6891;
-138.6000;0.4257;0.6867;
-138.3000;0.4265;0.6891;
-138.0000;0.4217;0.6794;
-137.7000;0.4363;0.7281;
-137.4000;0.4265;0.7062;
-137.1000;0.4282;0.7013;
-136.8000;0.4274;0.7086;
-136.5000;0.4298;0.7183;
-136.2000;0.4257;0.7183;
-135.9000;0.4241;0.7232;
-135.6000;0.4249;0.7159;
-135.3000;0.4208;0.7110;
-135.0000;0.4233;0.7086;
-134.7000;0.4241;0.7135;
-134.4000;0.4274;0.7159;
-134.1000;0.4241;0.7037;
-133.8000;0.4241;0.7062;
-133.5000;0.4257;0.7086;
-133.2000;0.4257;0.7159;
-132.9000;0.4265;0.7208;
-132.6000;0.4241;0.7159;
-132.3000;0.4257;0.7159;
-132.0000;0.4249;0.7110;
-131.7000;0.4241;0.7037;
-131.4000;0.4249;0.7086;
-131.1000;0.4127;0.6769;
-130.8000;0.4233;0.7062;
-130.5000;0.4249;0.7110;
-130.2000;0.4241;0.7159;
-129.9000;0.4257;0.7183;
-129.6000;0.4265;0.7062;
-129.3000;0.4298;0.7135;
-129.0000;0.4249;0.6915;
-128.7000;0.4241;0.7013;
-128.4000;0.4200;0.6867;
-128.1000;0.4249;0.7013;
-127.8000;0.4282;0.7135;
-127.5000;0.4265;0.7062;
-127.2000;0.4249;0.6964;
-126.9000;0.4265;0.7086;
-126.6000;0.4257;0.7110;
-126.3000;0.4249;0.7062;
-126.0000;0.4257;0.7037;
-125.7000;0.4241;0.6988;
-125.4000;0.4249;0.6988;
-125.1000;0.4241;0.6988;
-124.8000;0.4249;0.6964;
-124.5000;0.4265;0.7013;
-124.2000;0.4249;0.6964;
-123.9000;0.4249;0.6915;
-123.6000;0.4274;0.6964;
-123.3000;0.4330;0.7110;
-123.0000;0.4274;0.7013;
-122.7000;0.4265;0.7013;
-122.4000;0.4274;0.6915;
-122.1000;0.4274;0.6940;
-121.8000;0.4265;0.6988;
-121.5000;0.4233;0.6842;
-121.2000;0.4257;0.6891;
-120.9000;0.4314;0.7062;
-120.6000;0.4274;0.6964;
-120.3000;0.4257;0.6940;
-120.0000;0.4249;0.6891;
-119.7000;0.4241;0.6842;
-119.4000;0.4233;0.6867;
-119.1000;0.4241;0.6891;
-118.8000;0.4233;0.6818;
-118.5000;0.4257;0.6842;
-118.2000;0.4257;0.6867;
-117.9000;0.4249;0.6940;
-117.6000;0.4306;0.7086;
-117.3000;0.4249;0.6915;
-117.0000;0.4274;0.6891;
-116.7000;0.4290;0.6867;
-116.4000;0.4233;0.6842;
-116.1000;0.4225;0.6818;
-115.8000;0.4274;0.6940;
-115.5000;0.4265;0.6867;
-115.2000;0.4274;0.6988;
-114.9000;0.4257;0.7037;
-114.6000;0.4249;0.6915;
-114.3000;0.4208;0.6794;
-114.0000;0.4249;0.6940;
-113.7000;0.4274;0.6988;
-113.4000;0.4249;0.6867;
-113.1000;0.4249;0.6794;
-112.8000;0.4265;0.6769;
-112.5000;0.4282;0.6842;
-112.2000;0.4282;0.6842;
-111.9000;0.4265;0.6769;
-111.6000;0.4290;0.6818;
-111.3000;0.4168;0.6623;
-111.0000;0.4241;0.6842;
-110.7000;0.4249;0.6915;
-110.4000;0.4249;0.6842;
-110.1000;0.4274;0.6842;
-109.8000;0.4241;0.6867;
-109.5000;0.4241;0.6940;
-109.2000;0.4257;0.6988;
-108.9000;0.4257;0.6964;
-108.6000;0.4241;0.6818;
-108.3000;0.4257;0.6867;
-108.0000;0.4265;0.6842;
-107.7000;0.4249;0.6818;
-107.4000;0.4257;0.6891;
-107.1000;0.4233;0.6915;
-106.8000;0.4265;0.6988;
-106.5000;0.4265;0.7062;
-106.2000;0.4249;0.6988;
-105.9000;0.4249;0.6964;
-105.6000;0.4257;0.6915;
-105.3000;0.4265;0.7013;
-105.0000;0.4241;0.6988;
-104.7000;0.4257;0.6915;
-104.4000;0.4257;0.6915;
-104.1000;0.4257;0.6842;
-103.8000;0.4249;0.6891;
-103.5000;0.4257;0.6940;
-103.2000;0.4257;0.6915;
-102.9000;0.4233;0.6842;
-102.6000;0.4282;0.6940;
-102.3000;0.4282;0.6940;
-102.0000;0.4249;0.6915;
-101.7000;0.4282;0.7037;
-101.4000;0.4265;0.7037;
-101.1000;0.4257;0.7013;
-100.8000;0.4314;0.7159;
-100.5000;0.4274;0.6964;
-100.2000;0.4257;0.6940;
-99.9000;0.4241;0.6915;
-99.6000;0.4241;0.6891;
-99.3000;0.4225;0.6915;
-99.0000;0.4249;0.6964;
-98.7000;0.4265;0.7037;
-98.4000;0.4339;0.7402;
-98.1000;0.4233;0.7110;
-97.8000;0.4249;0.7110;
-97.5000;0.4265;0.7183;
-97.2000;0.4257;0.7037;
-96.9000;0.4257;0.7037;
-96.6000;0.4257;0.7037;
-96.3000;0.4241;0.7037;
-96.0000;0.4241;0.7062;
-95.7000;0.4274;0.7135;
-95.4000;0.4241;0.7013;
-95.1000;0.4249;0.7062;
-94.8000;0.4249;0.6988;
-94.5000;0.4241;0.7013;
-94.2000;0.4241;0.7013;
-93.9000;0.4249;0.6940;
-93.6000;0.4241;0.6964;
-93.3000;0.4249;0.6988;
-93.0000;0.4274;0.7037;
-92.7000;0.4282;0.7062;
-92.4000;0.4249;0.6915;
-92.1000;0.4282;0.6964;
-91.8000;0.4265;0.6940;
-91.5000;0.4274;0.7037;
-91.2000;0.4265;0.7037;
-90.9000;0.4282;0.7086;
-90.6000;0.4192;0.6769;
-90.3000;0.4265;0.6940;
-90.0000;0.4265;0.6915;
-89.7000;0.4257;0.6940;
-89.4000;0.4257;0.6794;
-89.1000;0.4257;0.6818;
-88.8000;0.4257;0.6842;
-88.5000;0.4249;0.6818;
-88.2000;0.4249;0.6842;
-87.9000;0.4249;0.6964;
-87.6000;0.4241;0.6891;
-87.3000;0.4241;0.6915;
-87.0000;0.4249;0.7013;
-86.7000;0.4249;0.6964;
-86.4000;0.4257;0.6988;
-86.1000;0.4257;0.6964;
-85.8000;0.4257;0.6988;
-85.5000;0.4249;0.6988;
-85.2000;0.4265;0.7037;
-84.9000;0.4265;0.7110;
-84.6000;0.4257;0.6988;
-84.3000;0.4249;0.6915;
-84.0000;0.4257;0.6964;
-83.7000;0.4282;0.7013;
-83.4000;0.4265;0.7037;
-83.1000;0.4249;0.7086;
-82.8000;0.4274;0.7086;
-82.5000;0.4265;0.6988;
-82.2000;0.4257;0.7086;
-81.9000;0.4257;0.7062;
-81.6000;0.4274;0.7135;
-81.3000;0.4265;0.7135;
-81.0000;0.4371;0.7427;
-80.7000;0.4249;0.7135;
-80.4000;0.4249;0.7110;
-80.1000;0.4265;0.7086;
-79.8000;0.4274;0.7086;
-79.5000;0.4257;0.7037;
-79.2000;0.4249;0.6988;
-78.9000;0.4249;0.7013;
-78.6000;0.4257;0.7110;
-78.3000;0.4249;0.7135;
-78.0000;0.4265;0.7208;
-77.7000;0.4257;0.7183;
-77.4000;0.4249;0.7232;
-77.1000;0.4257;0.7305;
-76.8000;0.4290;0.7329;
-76.5000;0.4249;0.7232;
-76.2000;0.4249;0.7183;
-75.9000;0.4265;0.7135;
-75.6000;0.4249;0.7159;
-75.3000;0.4265;0.7110;
-75.0000;0.4249;0.7135;
-74.7000;0.4249;0.7110;
-74.4000;0.4241;0.7135;
-74.1000;0.4249;0.7062;
-73.8000;0.4257;0.7037;
-73.5000;0.4265;0.7013;
-73.2000;0.4249;0.6915;
-72.9000;0.4282;0.7037;
-72.6000;0.4208;0.6915;
-72.3000;0.4265;0.7110;
-72.0000;0.4249;0.7135;
-71.7000;0.4257;0.7135;
-71.4000;0.4265;0.7110;
-71.1000;0.4217;0.7013;
-70.8000;0.4265;0.7183;
-70.5000;0.4274;0.7110;
-70.2000;0.4257;0.7037;
-69.9000;0.4274;0.7062;
-69.6000;0.4265;0.7062;
-69.3000;0.4257;0.7037;
-69.0000;0.4249;0.7062;
-68.7000;0.4257;0.7062;
-68.4000;0.4330;0.7256;
-68.1000;0.4257;0.7013;
-67.8000;0.4282;0.7013;
-67.5000;0.4257;0.6915;
-67.2000;0.4274;0.6988;
-66.9000;0.4249;0.7013;
-66.6000;0.4265;0.7037;
-66.3000;0.4257;0.7013;
-66.0000;0.4265;0.7110;
-65.7000;0.4257;0.7135;
-65.4000;0.4257;0.7062;
-65.1000;0.4249;0.6940;
-64.8000;0.4249;0.7013;
-64.5000;0.4241;0.6964;
-64.2000;0.4249;0.6915;
-63.9000;0.4241;0.6891;
-63.6000;0.4265;0.6915;
-63.3000;0.4257;0.6940;
-63.0000;0.4265;0.6915;
-62.7000;0.4241;0.6842;
-62.4000;0.4233;0.6915;
-62.1000;0.4257;0.7062;
-61.8000;0.4233;0.7013;
-61.5000;0.4265;0.6988;
-61.2000;0.4249;0.6988;
-60.9000;0.4274;0.6964;
-60.6000;0.4249;0.6842;
-60.3000;0.4257;0.6891;
-60.0000;0.4249;0.6988;
-59.7000;0.4282;0.7062;
-59.4000;0.4241;0.6940;
-59.1000;0.4257;0.6940;
-58.8000;0.4290;0.7062;
-58.5000;0.4274;0.7110;
-58.2000;0.4249;0.7208;
-57.9000;0.4257;0.7208;
-57.6000;0.4265;0.7183;
-57.3000;0.4298;0.7256;
-57.0000;0.4282;0.7183;
-56.7000;0.4298;0.7232;
-56.4000;0.4265;0.7135;
-56.1000;0.4249;0.7110;
-55.8000;0.4249;0.7062;
-55.5000;0.4290;0.7183;
-55.2000;0.4257;0.7086;
-54.9000;0.4241;0.7037;
-54.6000;0.4265;0.7037;
-54.3000;0.4265;0.7086;
-54.0000;0.4249;0.7037;
-53.7000;0.4217;0.7062;
-53.4000;0.4233;0.7037;
-53.1000;0.4265;0.7135;
-52.8000;0.4257;0.7110;
-52.5000;0.4330;0.7305;
-52.2000;0.4249;0.7037;
-51.9000;0.4274;0.6964;
-51.6000;0.4274;0.6867;
-51.3000;0.4282;0.6915;
-51.0000;0.4274;0.6915;
-50.7000;0.4314;0.7086;
-50.4000;0.4257;0.6940;
-50.1000;0.4265;0.6940;
-49.8000;0.4322;0.7086;
-49.5000;0.4241;0.6940;
-49.2000;0.4257;0.7037;
-48.9000;0.4282;0.7086;
-48.6000;0.4257;0.7013;
-48.3000;0.4265;0.7037;
-48.0000;0.4265;0.7086;
-47.7000;0.4274;0.6964;
-47.4000;0.4241;0.6915;
-47.1000;0.4249;0.6940;
-46.8000;0.4265;0.7037;
-46.5000;0.4274;0.7086;
-46.2000;0.4265;0.7062;
-45.9000;0.4200;0.6891;
-45.6000;0.4249;0.6964;
-45.3000;0.4265;0.6988;
-45.0000;0.4249;0.6988;
-44.7000;0.4265;0.7037;
-44.4000;0.4192;0.6842;
-44.1000;0.4257;0.6940;
-43.8000;0.4233;0.6769;
-43.5000;0.4265;0.6867;
-43.2000;0.4265;0.6915;
-42.9000;0.4257;0.7013;
-42.6000;0.4282;0.7086;
-42.3000;0.4249;0.6891;
-42.0000;0.4249;0.6842;
-41.7000;0.4257;0.6915;
-41.4000;0.4241;0.6964;
-41.1000;0.4257;0.6964;
-40.8000;0.4241;0.7062;
-40.5000;0.4257;0.7110;
-40.2000;0.4282;0.7110;
-39.9000;0.4249;0.7110;
-39.6000;0.4249;0.7232;
-39.3000;0.4257;0.7378;
-39.0000;0.4257;0.7402;
-38.7000;0.4282;0.7402;
-38.4000;0.4265;0.7208;
-38.1000;0.4249;0.7183;
-37.8000;0.4257;0.7256;
-37.5000;0.4249;0.7183;
-37.2000;0.4225;0.7159;
-36.9000;0.4233;0.7062;
-36.6000;0.4225;0.7062;
-36.3000;0.4200;0.7037;
-36.0000;0.4241;0.7062;
-35.7000;0.4257;0.7159;
-35.4000;0.4282;0.7232;
-35.1000;0.4274;0.7305;
-34.8000;0.4290;0.7329;
-34.5000;0.4265;0.7159;
-34.2000;0.4282;0.7183;
-33.9000;0.4265;0.7183;
-33.6000;0.4257;0.7183;
-33.3000;0.4274;0.7159;
-33.0000;0.4257;0.7110;
-32.7000;0.4257;0.7086;
-32.4000;0.4241;0.7086;
-32.1000;0.4257;0.7110;
-31.8000;0.4225;0.7062;
-31.5000;0.4265;0.7037;
-31.2000;0.4257;0.6964;
-30.9000;0.4265;0.6940;
-30.6000;0.4265;0.6964;
-30.3000;0.4257;0.7013;
-30.0000;0.4257;0.7013;
-29.7000;0.4192;0.6769;
-29.4000;0.4257;0.6988;
-29.1000;0.4265;0.6988;
-28.8000;0.4265;0.7013;
-28.5000;0.4257;0.6964;
-28.2000;0.4257;0.6867;
-27.9000;0.4249;0.6842;
-27.6000;0.4265;0.6964;
-27.3000;0.4257;0.6891;
-27.0000;0.4241;0.6867;
-26.7000;0.4184;0.6794;
-26.4000;0.4257;0.7037;
-26.1000;0.4265;0.7062;
-25.8000;0.4249;0.7062;
-25.5000;0.4257;0.6988;
-25.2000;0.4257;0.6915;
-24.9000;0.4241;0.6891;
-24.6000;0.4241;0.6794;
-24.3000;0.4282;0.6940;
-24.0000;0.4274;0.6988;
-23.7000;0.4282;0.6988;
-23.4000;0.4274;0.6964;
-23.1000;0.4257;0.7037;
-22.8000;0.4257;0.6988;
-22.5000;0.4249;0.6964;
-22.2000;0.4241;0.6915;
-21.9000;0.4298;0.7013;
-21.6000;0.4306;0.7110;
-21.3000;0.4249;0.6915;
-21.0000;0.4257;0.6964;
-20.7000;0.4241;0.6818;
-20.4000;0.4249;0.6794;
-20.1000;0.4257;0.6769;
-19.8000;0.4265;0.6818;
-19.5000;0.4249;0.6745;
-19.2000;0.4274;0.6769;
-18.9000;0.4217;0.6745;
-18.6000;0.4265;0.6818;
-18.3000;0.4265;0.6891;
-18.0000;0.4257;0.6988;
-17.7000;0.4274;0.7086;
-17.4000;0.4257;0.7110;
-17.1000;0.4265;0.7110;
-16.8000;0.4241;0.7013;
-16.5000;0.4265;0.7110;
-16.2000;0.4290;0.7159;
-15.9000;0.4265;0.7135;
-15.6000;0.4274;0.7183;
-15.3000;0.4298;0.7135;
-15.0000;0.4176;0.6794;
-14.7000;0.4290;0.7086;
-14.4000;0.4265;0.6940;
-14.1000;0.4274;0.6940;
-13.8000;0.4249;0.6891;
-13.5000;0.4249;0.6794;
-13.2000;0.4339;0.6964;
-12.9000;0.4241;0.6769;
-12.6000;0.4265;0.6721;
-12.3000;0.4249;0.6696;
-12.0000;0.4274;0.6794;
-11.7000;0.4249;0.6915;
-11.4000;0.4306;0.6964;
-11.1000;0.4249;0.6818;
-10.8000;0.4233;0.6842;
-10.5000;0.4257;0.6940;
-10.2000;0.4257;0.6915;
-9.9000;0.4274;0.7037;
-9.6000;0.4265;0.7013;
-9.3000;0.4241;0.6964;
-9.0000;0.4265;0.6988;
-8.7000;0.4208;0.6842;
-8.4000;0.4257;0.7086;
-8.1000;0.4249;0.7110;
-7.8000;0.4274;0.7086;
-7.5000;0.4265;0.7110;
-7.2000;0.4257;0.7086;
-6.9000;0.4249;0.7013;
-6.6000;0.4241;0.6988;
-6.3000;0.4225;0.6867;
-6.0000;0.4241;0.6940;
-5.7000;0.4265;0.7037;
-5.4000;0.4241;0.6988;
-5.1000;0.4265;0.7062;
-4.8000;0.4265;0.7037;
-4.5000;0.4265;0.7062;
-4.2000;0.4265;0.6940;
-3.9000;0.4274;0.6964;
-3.6000;0.4265;0.6915;
-3.3000;0.4257;0.6818;
-3.0000;0.4241;0.6794;
-2.7000;0.4290;0.6842;
-2.4000;0.4274;0.6794;
-2.1000;0.4265;0.6721;
-1.8000;0.4249;0.6745;
-1.5000;0.4257;0.6745;
-1.2000;0.4257;0.6818;
-0.9000;0.4257;0.6988;
-0.6000;0.4265;0.6964;
-0.3000;0.4298;0.6940;
0.0000;0.4298;0.6940;
0.3000;0.4347;0.6818;
0.6000;0.4379;0.7013;
0.9000;0.4428;0.7232;
1.2000;0.4501;0.7500;
1.5000;0.4534;0.7792;
1.8000;0.4550;0.7987;
2.1000;0.4591;0.8255;
2.4000;0.4558;0.8303;
2.7000;0.4615;0.8523;
3.0000;0.4640;0.8693;
3.3000;0.4705;0.8985;
3.6000;0.4632;0.8888;
3.9000;0.4664;0.8961;
4.2000;0.4689;0.9010;
4.5000;0.4697;0.9083;
4.8000;0.4681;0.9034;
5.1000;0.4705;0.9131;
5.4000;0.4705;0.9156;
5.7000;0.4689;0.9229;
6.0000;0.4681;0.9253;
6.3000;0.4697;0.9399;
6.6000;0.4705;0.9423;
6.9000;0.4729;0.9472;
7.2000;0.4713;0.9399;
7.5000;0.4713;0.9277;
7.8000;0.4713;0.9229;
8.1000;0.4729;0.9302;
8.4000;0.4713;0.9204;
8.7000;0.4721;0.9204;
9.0000;0.4746;0.9302;
9.3000;0.4737;0.9253;
9.6000;0.4737;0.9326;
9.9000;0.4721;0.9375;
10.2000;0.4729;0.9375;
10.5000;0.4754;0.9350;
10.8000;0.4786;0.9423;
11.1000;0.4762;0.9375;
11.4000;0.4729;0.9350;
11.7000;0.4778;0.9521;
12.0000;0.4819;0.9667;
12.3000;0.4762;0.9472;
12.6000;0.4778;0.9497;
12.9000;0.4754;0.9399;
13.2000;0.4778;0.9497;
13.5000;0.4786;0.9497;
13.8000;0.4827;0.9545;
14.1000;0.4827;0.9472;
14.4000;0.4770;0.9423;
14.7000;0.4786;0.9472;
15.0000;0.4762;0.9497;
15.3000;0.4778;0.9594;
15.6000;0.4803;0.9667;
15.9000;0.4786;0.9667;
16.2000;0.4770;0.9643;
16.5000;0.4803;0.9691;
16.8000;0.4762;0.9472;
17.1000;0.4786;0.9472;
17.4000;0.4778;0.9423;
17.7000;0.4803;0.9521;
18.0000;0.4794;0.9472;
18.3000;0.4794;0.9423;
18.6000;0.4794;0.9375;
18.9000;0.4803;0.9350;
19.2000;0.4819;0.9375;
19.5000;0.4819;0.9448;
19.8000;0.4811;0.9497;
20.1000;0.4835;0.9521;
20.4000;0.4803;0.9472;
20.7000;0.4827;0.9521;
21.0000;0.4827;0.9448;
21.3000;0.4786;0.9277;
21.6000;0.4786;0.9326;
21.9000;0.4827;0.9399;
22.2000;0.4827;0.9375;
22.5000;0.4827;0.9423;
22.8000;0.4827;0.9399;
23.1000;0.4843;0.9375;
23.4000;0.4843;0.9302;
23.7000;0.4819;0.9277;
24.0000;0.4803;0.9229;
24.3000;0.4819;0.9277;
24.6000;0.4835;0.9326;
24.9000;0.4835;0.9350;
25.2000;0.4835;0.9399;
25.5000;0.4835;0.9472;
25.8000;0.4933;0.9740;
26.1000;0.4843;0.9521;
26.4000;0.4835;0.9521;
26.7000;0.4843;0.9594;
27.0000;0.4819;0.9521;
27.3000;0.4827;0.9497;
27.6000;0.4843;0.9497;
27.9000;0.4835;0.9399;
28.2000;0.4843;0.9326;
28.5000;0.4843;0.9326;
28.8000;0.4843;0.9302;
29.1000;0.4778;0.9229;
29.4000;0.4843;0.9399;
29.7000;0.4851;0.9497;
30.0000;0.4835;0.9472;
30.3000;0.4843;0.9472;
30.6000;0.4819;0.9472;
30.9000;0.4827;0.9497;
31.2000;0.4860;0.9521;
31.5000;0.4835;0.9472;
31.8000;0.4835;0.9399;
32.1000;0.4851;0.9448;
32.4000;0.4860;0.9448;
32.7000;0.4786;0.9326;
33.0000;0.4925;0.9594;
33.3000;0.4851;0.9448;
33.6000;0.4892;0.9643;
33.9000;0.4843;0.9618;
34.2000;0.4876;0.9691;
34.5000;0.4851;0.9691;
34.8000;0.4860;0.9643;
35.1000;0.4827;0.9521;
35.4000;0.4900;0.9618;
35.7000;0.4868;0.9643;
36.0000;0.4860;0.9594;
36.3000;0.4892;0.9667;
36.6000;0.4860;0.9545;
36.9000;0.4860;0.9472;
37.2000;0.4843;0.9350;
37.5000;0.4876;0.9521;
37.8000;0.4860;0.9521;
38.1000;0.4925;0.9740;
38.4000;0.4908;0.9667;
38.7000;0.4868;0.9497;
39.0000;0.4868;0.9472;
39.3000;0.4908;0.9570;
39.6000;0.4843;0.9521;
39.9000;0.4868;0.9667;
40.2000;0.4900;0.9716;
40.5000;0.4860;0.9497;
40.8000;0.4843;0.9472;
41.1000;0.4876;0.9521;
41.4000;0.4884;0.9375;
41.7000;0.4900;0.9423;
42.0000;0.4876;0.9399;
42.3000;0.4884;0.9326;
42.6000;0.4851;0.9277;
42.9000;0.4868;0.9302;
43.2000;0.4860;0.9229;
43.5000;0.4860;0.9277;
43.8000;0.4851;0.9399;
44.1000;0.4851;0.9350;
44.4000;0.4884;0.9350;
44.7000;0.4860;0.9229;
45.0000;0.4876;0.9277;
45.3000;0.4876;0.9302;
45.6000;0.4892;0.9326;
45.9000;0.4876;0.9326;
46.2000;0.4884;0.9350;
46.5000;0.4884;0.9277;
46.8000;0.4851;0.9277;
47.1000;0.4876;0.9302;
47.4000;0.4876;0.9302;
47.7000;0.4876;0.9350;
48.0000;0.4884;0.9326;
48.3000;0.4851;0.9350;
48.6000;0.4860;0.9229;
48.9000;0.4876;0.9326;
49.2000;0.4892;0.9326;
49.5000;0.4860;0.9326;
49.8000;0.4811;0.9204;
50.1000;0.4803;0.9107;
50.4000;0.4868;0.9326;
50.7000;0.4884;0.9326;
51.0000;0.4876;0.9423;
51.3000;0.4884;0.9423;
51.6000;0.4884;0.9399;
51.9000;0.4884;0.9423;
52.2000;0.4892;0.9570;
52.5000;0.4884;0.9472;
52.8000;0.4892;0.9350;
53.1000;0.4892;0.9399;
53.4000;0.4884;0.9350;
53.7000;0.4876;0.9253;
54.0000;0.4868;0.9229;
54.3000;0.4876;0.9229;
54.6000;0.4965;0.9448;
54.9000;0.4876;0.9204;
55.2000;0.4892;0.9180;
55.5000;0.4843;0.9107;
55.8000;0.4868;0.9180;
56.1000;0.4868;0.9302;
56.4000;0.4884;0.9375;
56.7000;0.4884;0.9302;
57.0000;0.4876;0.9253;
57.3000;0.4860;0.9277;
57.6000;0.4900;0.9399;
57.9000;0.4884;0.9375;
58.2000;0.4900;0.9448;
58.5000;0.4892;0.9399;
58.8000;0.4876;0.9277;
59.1000;0.4876;0.9277;
59.4000;0.4884;0.9302;
59.7000;0.4876;0.9277;
60.0000;0.4884;0.9277;
60.3000;0.4860;0.9204;
60.6000;0.4892;0.9253;
60.9000;0.4884;0.9375;
61.2000;0.4900;0.9497;
61.5000;0.4892;0.9521;
61.8000;0.4892;0.9423;
62.1000;0.4892;0.9448;
62.4000;0.4884;0.9375;
62.7000;0.4860;0.9326;
63.0000;0.4868;0.9326;
63.3000;0.4884;0.9277;
63.6000;0.4933;0.9448;
63.9000;0.4876;0.9253;
64.2000;0.4892;0.9326;
64.5000;0.4925;0.9375;
64.8000;0.4884;0.9302;
65.1000;0.4900;0.9277;
65.4000;0.4884;0.9253;
65.7000;0.4884;0.9277;
66.0000;0.4884;0.9375;
66.3000;0.4868;0.9326;
66.6000;0.4884;0.9326;
66.9000;0.4892;0.9326;
67.2000;0.4884;0.9302;
67.5000;0.4860;0.9253;
67.8000;0.4900;0.9375;
68.1000;0.4908;0.9423;
68.4000;0.4860;0.9350;
68.7000;0.4900;0.9350;
69.0000;0.4884;0.9326;
69.3000;0.4892;0.9277;
69.6000;0.4892;0.9326;
69.9000;0.4876;0.9277;
70.2000;0.4876;0.9229;
70.5000;0.4941;0.9229;
70.8000;0.4933;0.9253;
71.1000;0.4876;0.9156;
71.4000;0.4835;0.8961;
71.7000;0.4884;0.9010;
72.0000;0.4917;0.9083;
72.3000;0.4892;0.9034;
72.6000;0.4900;0.9058;
72.9000;0.4876;0.9107;
73.2000;0.4876;0.9034;
73.5000;0.4884;0.9058;
73.8000;0.4876;0.9034;
74.1000;0.4884;0.9058;
74.4000;0.4892;0.9107;
74.7000;0.4868;0.9107;
75.0000;0.4892;0.9204;
75.3000;0.4884;0.9204;
75.6000;0.4892;0.9204;
75.9000;0.4892;0.9229;
76.2000;0.4884;0.9423;
76.5000;0.4892;0.9423;
76.8000;0.4884;0.9326;
77.1000;0.4900;0.9521;
77.4000;0.4884;0.9423;
77.7000;0.4884;0.9375;
78.0000;0.4884;0.9375;
78.3000;0.4868;0.9229;
78.6000;0.4892;0.9326;
78.9000;0.4876;0.9375;
79.2000;0.4860;0.9448;
79.5000;0.4892;0.9497;
79.8000;0.4892;0.9472;
80.1000;0.4884;0.9472;
80.4000;0.4925;0.9521;
80.7000;0.4827;0.9253;
81.0000;0.4884;0.9302;
81.3000;0.4819;0.9180;
81.6000;0.4868;0.9277;
81.9000;0.4892;0.9326;
82.2000;0.4892;0.9399;
82.5000;0.4876;0.9423;
82.8000;0.4884;0.9448;
83.1000;0.4884;0.9448;
83.4000;0.4900;0.9375;
83.7000;0.4786;0.9131;
84.0000;0.4819;0.9180;
84.3000;0.4884;0.9326;
84.6000;0.4892;0.9399;
84.9000;0.4892;0.9448;
85.2000;0.4843;0.9277;
85.5000;0.4876;0.9302;
85.8000;0.4876;0.9253;
86.1000;0.4884;0.9253;
86.4000;0.4851;0.9229;
86.7000;0.4860;0.9350;
87.0000;0.4884;0.9399;
87.3000;0.4900;0.9497;
87.6000;0.4884;0.9375;
87.9000;0.4884;0.9375;
88.2000;0.4892;0.9350;
88.5000;0.4892;0.9229;
88.8000;0.4884;0.9204;
89.1000;0.4843;0.9131;
89.4000;0.4900;0.9350;
89.7000;0.4851;0.9253;
90.0000;0.4892;0.9399;
90.3000;0.4892;0.9326;
90.6000;0.4900;0.9302;
90.9000;0.4876;0.9253;
91.2000;0.4900;0.9277;
91.5000;0.4876;0.9277;
91.8000;0.4884;0.9375;
92.1000;0.4892;0.9448;
92.4000;0.4892;0.9350;
92.7000;0.4835;0.9156;
93.0000;0.4892;0.9375;
93.3000;0.4892;0.9423;
93.6000;0.4884;0.9423;
93.9000;0.4900;0.9399;
94.2000;0.4876;0.9350;
94.5000;0.4876;0.9375;
94.8000;0.4933;0.9521;
95.1000;0.4933;0.9497;
95.4000;0.4868;0.9326;
95.7000;0.4884;0.9497;
96.0000;0.4892;0.9472;
96.3000;0.4892;0.9448;
96.6000;0.4892;0.9350;
96.9000;0.4892;0.9399;
97.2000;0.4900;0.9521;
97.5000;0.4892;0.9594;
97.8000;0.4884;0.9545;
98.1000;0.4908;0.9545;
98.4000;0.4900;0.9472;
98.7000;0.4908;0.9423;
99.0000;0.4900;0.9497;
99.3000;0.4884;0.9521;
99.6000;0.4843;0.9472;
99.9000;0.4884;0.9521;
100.2000;0.4900;0.9472;
100.5000;0.4900;0.9423;
100.8000;0.4884;0.9497;
101.1000;0.4876;0.9570;
101.4000;0.4917;0.9667;
101.7000;0.4892;0.9521;
102.0000;0.4884;0.9497;
102.3000;0.4900;0.9423;
102.6000;0.4892;0.9497;
102.9000;0.4884;0.9472;
103.2000;0.4892;0.9399;
103.5000;0.4892;0.9350;
103.8000;0.4892;0.9302;
104.1000;0.4876;0.9253;
104.4000;0.4884;0.9350;
104.7000;0.4835;0.9204;
105.0000;0.4949;0.9423;
105.3000;0.4860;0.9277;
105.6000;0.4860;0.9350;
105.9000;0.4860;0.9399;
106.2000;0.4917;0.9618;
106.5000;0.4868;0.9448;
106.8000;0.4868;0.9448;
107.1000;0.4876;0.9448;
107.4000;0.4868;0.9423;
107.7000;0.4917;0.9472;
108.0000;0.4900;0.9423;
108.3000;0.4900;0.9423;
108.6000;0.4892;0.9399;
108.9000;0.4892;0.9472;
109.2000;0.4900;0.9472;
109.5000;0.4941;0.9570;
109.8000;0.4884;0.9521;
110.1000;0.4908;0.9618;
110.4000;0.4803;0.9350;
110.7000;0.4868;0.9472;
111.0000;0.4868;0.9423;
111.3000;0.4884;0.9350;
111.6000;0.4884;0.9497;
111.9000;0.4884;0.9497;
112.2000;0.4860;0.9423;
112.5000;0.4876;0.9472;
112.8000;0.4884;0.9521;
113.1000;0.4884;0.9448;
113.4000;0.4868;0.9448;
113.7000;0.4900;0.9521;
114.0000;0.4900;0.9618;
114.3000;0.4892;0.9521;
114.6000;0.4892;0.9521;
114.9000;0.4876;0.9375;
115.2000;0.4884;0.9350;
115.5000;0.4892;0.9472;
115.8000;0.4876;0.9448;
116.1000;0.4884;0.9497;
116.4000;0.4900;0.9399;
116.7000;0.4892;0.9277;
117.0000;0.4884;0.9350;
117.3000;0.4884;0.9277;
117.6000;0.4917;0.9350;
117.9000;0.4892;0.9302;
118.2000;0.4892;0.9350;
118.5000;0.4811;0.9131;
118.8000;0.4892;0.9399;
119.1000;0.4900;0.9399;
119.4000;0.4884;0.9423;
119.7000;0.4868;0.9375;
120.0000;0.4884;0.9350;
120.3000;0.4892;0.9472;
120.6000;0.4908;0.9423;
120.9000;0.4876;0.9326;
121.2000;0.4884;0.9399;
121.5000;0.4917;0.9497;
121.8000;0.4900;0.9545;
122.1000;0.4900;0.9618;
122.4000;0.4949;0.9716;
122.7000;0.4892;0.9618;
123.0000;0.4892;0.9594;
123.3000;0.4876;0.9545;
123.6000;0.4900;0.9594;
123.9000;0.4917;0.9643;
124.2000;0.4851;0.9521;
124.5000;0.4884;0.9691;
124.8000;0.4876;0.9667;
125.1000;0.4908;0.9716;
125.4000;0.4868;0.9497;
125.7000;0.4876;0.9497;
126.0000;0.4868;0.9448;
126.3000;0.4868;0.9472;
126.6000;0.4876;0.9521;
126.9000;0.4851;0.9448;
127.2000;0.4892;0.9423;
127.5000;0.4892;0.9448;
127.8000;0.4884;0.9448;
128.1000;0.4884;0.9375;
128.4000;0.4876;0.9399;
128.7000;0.4908;0.9497;
129.0000;0.4884;0.9423;
129.3000;0.4868;0.9472;
129.6000;0.4868;0.9594;
129.9000;0.4884;0.9618;
130.2000;0.4892;0.9594;
130.5000;0.4908;0.9618;
130.8000;0.4884;0.9570;
131.1000;0.4860;0.9521;
131.4000;0.4884;0.9570;
131.7000;0.4884;0.9472;
132.0000;0.4884;0.9399;
132.3000;0.4998;0.9570;
132.6000;0.4884;0.9204;
132.9000;0.4884;0.9131;
133.2000;0.4900;0.9156;
133.5000;0.4884;0.9107;
133.8000;0.4892;0.9180;
134.1000;0.4884;0.9229;
134.4000;0.4884;0.9180;
134.7000;0.4868;0.9156;
135.0000;0.4900;0.9204;
135.3000;0.4884;0.9180;
135.6000;0.4884;0.9131;
135.9000;0.4884;0.9156;
136.2000;0.4843;0.9058;
136.5000;0.4868;0.9107;
136.8000;0.4892;0.9131;
137.1000;0.4884;0.9107;
137.4000;0.4876;0.9010;
137.7000;0.4884;0.9010;
138.0000;0.4900;0.9058;
138.3000;0.4892;0.9131;
138.6000;0.4892;0.9131;
138.9000;0.4892;0.9180;
139.2000;0.4900;0.9204;
139.5000;0.4908;0.9375;
139.8000;0.4900;0.9350;
140.1000;0.4876;0.9302;
140.4000;0.4892;0.9204;
140.7000;0.4884;0.9204;
141.0000;0.4917;0.9253;
141.3000;0.4876;0.9204;
141.6000;0.4892;0.9229;
141.9000;0.4965;0.9399;
142.2000;0.4876;0.9107;
142.5000;0.4884;0.9083;
142.8000;0.4884;0.9083;
143.1000;0.4900;0.9156;
143.4000;0.4908;0.9180;
143.7000;0.4884;0.9229;
144.0000;0.4868;0.9204;
144.3000;0.4892;0.9302;
144.6000;0.4908;0.9277;
144.9000;0.4876;0.9229;
145.2000;0.4884;0.9204;
145.5000;0.4900;0.9229;
145.8000;0.4917;0.9253;
146.1000;0.4892;0.9302;
146.4000;0.4884;0.9302;
146.7000;0.4876;0.9326;
147.0000;0.4884;0.9350;
147.3000;0.4892;0.9399;
147.6000;0.4876;0.9277;
147.9000;0.4868;0.9277;
148.2000;0.4900;0.9302;
148.5000;0.4900;0.9350;
148.8000;0.4884;0.9350;
149.1000;0.4851;0.9277;
149.4000;0.4851;0.9277;
149.7000;0.4876;0.9350;
150.0000;0.4884;0.9448;
150.3000;0.4965;0.9667;
150.6000;0.4884;0.9448;
150.9000;0.4892;0.9497;
151.2000;0.4917;0.9497;
151.5000;0.4876;0.9399;
151.8000;0.4925;0.9448;
152.1000;0.4884;0.9277;
152.4000;0.4900;0.9180;
152.7000;0.4892;0.9107;
153.0000;0.4860;0.9058;
153.3000;0.4811;0.8888;
153.6000;0.4884;0.9083;
153.9000;0.4876;0.9156;
154.2000;0.4884;0.9180;
154.5000;0.4876;0.9204;
154.8000;0.4892;0.9277;
155.1000;0.4860;0.9253;
155.4000;0.4876;0.9229;
155.7000;0.4900;0.9326;
156.0000;0.4884;0.9302;
156.3000;0.4900;0.9399;
156.6000;0.4843;0.9302;
156.9000;0.4876;0.9497;
157.2000;0.4900;0.9521;
157.5000;0.4900;0.9545;
157.8000;0.4900;0.9399;
158.1000;0.4860;0.9180;
158.4000;0.4884;0.9326;
158.7000;0.4876;0.9375;
159.0000;0.4876;0.9497;
159.3000;0.4868;0.9472;
159.6000;0.4884;0.9545;
159.9000;0.4892;0.9497;
160.2000;0.4876;0.9448;
160.5000;0.4908;0.9570;
160.8000;0.4860;0.9448;
161.1000;0.4868;0.9423;
161.4000;0.4941;0.9570;
161.7000;0.4876;0.9545;
162.0000;0.4892;0.9594;
162.3000;0.4884;0.9545;
162.6000;0.4892;0.9448;
162.9000;0.4860;0.9423;
163.2000;0.4876;0.9570;
163.5000;0.4868;0.9691;
163.8000;0.4884;0.9789;
164.1000;0.4884;0.9691;
164.4000;0.4876;0.9545;
164.7000;0.4884;0.9570;
165.0000;0.4900;0.9643;
165.3000;0.4876;0.9618;
165.6000;0.4892;0.9594;
165.9000;0.4892;0.9545;
166.2000;0.4876;0.9521;
166.5000;0.4868;0.9448;
166.8000;0.4876;0.9472;
167.1000;0.4876;0.9521;
167.4000;0.4868;0.9570;
167.7000;0.4843;0.9521;
168.0000;0.4868;0.9423;
168.3000;0.4876;0.9375;
168.6000;0.4900;0.9448;
168.9000;0.4892;0.9472;
169.2000;0.4933;0.9497;
169.5000;0.4892;0.9472;
169.8000;0.4868;0.9375;
170.1000;0.4892;0.9497;
170.4000;0.4876;0.9497;
170.7000;0.4876;0.9448;
171.0000;0.4868;0.9423;
171.3000;0.4884;0.9521;
171.6000;0.4900;0.9594;
171.9000;0.4851;0.9643;
172.2000;0.4925;0.9740;
172.5000;0.4892;0.9764;
172.8000;0.4876;0.9740;
173.1000;0.4851;0.9691;
173.4000;0.4835;0.9570;
173.7000;0.4860;0.9618;
174.0000;0.4900;0.9716;
174.3000;0.4900;0.9716;
174.6000;0.4876;0.9618;
174.9000;0.4884;0.9667;
175.2000;0.4860;0.9618;
175.5000;0.4900;0.9667;
175.8000;0.4876;0.9618;
176.1000;0.4900;0.9740;
176.4000;0.4892;0.9594;
176.7000;0.4900;0.9570;
177.0000;0.4892;0.9594;
177.3000;0.4949;0.9837;
177.6000;0.4884;0.9691;
177.9000;0.4892;0.9667;
178.2000;0.4884;0.9618;
178.5000;0.4908;0.9667;
178.8000;0.4884;0.9594;
179.1000;0.4900;0.9691;
179.4000;0.4884;0.9521;
179.7000;0.4892;0.9521;
180.0000;0.4892;0.9545;
180.3000;0.4884;0.9594;
180.6000;0.4827;0.9448;
180.9000;0.4900;0.9618;
181.2000;0.4860;0.9594;
181.5000;0.4892;0.9618;
181.8000;0.4900;0.9594;
182.1000;0.4884;0.9472;
182.4000;0.4884;0.9594;
182.7000;0.4876;0.9594;
183.0000;0.4900;0.9667;
183.3000;0.4900;0.9740;
183.6000;0.4900;0.9691;
183.9000;0.4908;0.9667;
184.2000;0.4900;0.9594;
184.5000;0.4892;0.9521;
184.8000;0.4892;0.9545;
185.1000;0.4884;0.9570;
185.4000;0.4884;0.9545;
185.7000;0.4908;0.9594;
186.0000;0.4917;0.9594;
186.3000;0.4884;0.9497;
186.6000;0.4892;0.9570;
186.9000;0.4851;0.9472;
187.2000;0.4908;0.9594;
187.5000;0.4957;0.9764;
187.8000;0.4900;0.9691;
188.1000;0.4917;0.9643;
188.4000;0.4908;0.9618;
188.7000;0.4876;0.9643;
189.0000;0.4917;0.9716;
189.3000;0.4884;0.9643;
189.6000;0.4892;0.9740;
189.9000;0.4876;0.9740;
190.2000;0.4892;0.9764;
190.5000;0.4860;0.9618;
190.8000;0.4884;0.9667;
191.1000;0.4819;0.9521;
191.4000;0.4884;0.9643;
191.7000;0.4843;0.9472;
192.0000;0.4876;0.9594;
192.3000;0.4900;0.9740;
192.6000;0.4892;0.9618;
192.9000;0.4933;0.9740;
193.2000;0.4908;0.9594;
193.5000;0.4892;0.9545;
193.8000;0.4892;0.9570;
194.1000;0.4892;0.9521;
194.4000;0.4917;0.9521;
194.7000;0.4876;0.9521;
195.0000;0.4884;0.9570;
195.3000;0.4900;0.9691;
195.6000;0.4876;0.9691;
195.9000;0.4884;0.9618;
196.2000;0.4794;0.9375;
196.5000;0.4925;0.9691;
196.8000;0.4860;0.9545;
197.1000;0.4868;0.9570;
197.4000;0.4835;0.9570;
197.7000;0.4884;0.9618;
198.0000;0.4884;0.9691;
198.3000;0.4860;0.9618;
198.6000;0.4917;0.9789;
198.9000;0.4884;0.9716;
199.2000;0.4892;0.9691;
199.5000;0.4868;0.9594;
199.8000;0.4868;0.9497;
200.1000;0.4884;0.9545;
200.4000;0.4884;0.9667;
200.7000;0.4892;0.9594;
201.0000;0.4941;0.9740;
201.3000;0.4884;0.9570;
201.6000;0.4884;0.9618;
201.9000;0.4892;0.9667;
202.2000;0.4892;0.9570;
202.5000;0.4868;0.9521;
202.8000;0.4860;0.9448;
203.1000;0.4835;0.9350;
203.4000;0.4884;0.9448;
203.7000;0.4884;0.9521;
204.0000;0.4900;0.9643;
204.3000;0.4884;0.9570;
204.6000;0.4884;0.9594;
204.9000;0.4884;0.9570;
205.2000;0.4884;0.9594;
205.5000;0.4892;0.9691;
205.8000;0.4884;0.9667;
206.1000;0.4900;0.9643;
206.4000;0.4892;0.9594;
206.7000;0.4884;0.9570;
207.0000;0.4884;0.9570;
207.3000;0.4884;0.9570;
207.6000;0.4868;0.9691;
207.9000;0.4884;0.9667;
208.2000;0.4900;0.9594;
208.5000;0.4900;0.9643;
208.8000;0.4884;0.9716;
209.1000;0.4860;0.9570;
209.4000;0.4957;0.9789;
209.7000;0.4900;0.9691;
210.0000;0.4892;0.9594;
210.3000;0.4884;0.9594;
210.6000;0.4876;0.9618;
210.9000;0.4876;0.9716;
211.2000;0.4892;0.9667;
211.5000;0.4868;0.9643;
211.8000;0.4884;0.9570;
212.1000;0.4876;0.9545;
212.4000;0.4884;0.9594;
212.7000;0.4884;0.9667;
213.0000;0.4868;0.9618;
213.3000;0.4900;0.9667;
213.6000;0.4868;0.9691;
213.9000;0.4851;0.9643;
214.2000;0.4892;0.9691;
214.5000;0.4884;0.9764;
214.8000;0.4851;0.9716;
215.1000;0.4884;0.9764;
215.4000;0.4860;0.9716;
215.7000;0.4876;0.9789;
216.0000;0.4876;0.9764;
216.3000;0.4892;0.9813;
216.6000;0.4884;0.9716;
216.9000;0.4843;0.9570;
217.2000;0.4884;0.9691;
217.5000;0.4900;0.9764;
217.8000;0.4868;0.9667;
218.1000;0.4868;0.9594;
218.4000;0.4868;0.9545;
218.7000;0.4884;0.9521;
219.0000;0.4884;0.9521;
219.3000;0.4827;0.9375;
219.6000;0.4900;0.9521;
219.9000;0.4884;0.9497;
220.2000;0.4941;0.9691;
220.5000;0.4860;0.9545;
220.8000;0.4860;0.9618;
221.1000;0.4851;0.9594;
221.4000;0.4900;0.9764;
221.7000;0.4860;0.9545;
222.0000;0.4851;0.9448;
222.3000;0.4843;0.9375;
222.6000;0.4884;0.9399;
222.9000;0.4876;0.9399;
223.2000;0.4900;0.9448;
223.5000;0.4860;0.9326;
223.8000;0.4876;0.9350;
224.1000;0.4884;0.9399;
224.4000;0.4843;0.9302;
224.7000;0.4884;0.9350;
225.0000;0.4884;0.9350;
225.3000;0.4876;0.9326;
225.6000;0.4884;0.9350;
225.9000;0.4876;0.9399;
226.2000;0.4908;0.9521;
226.5000;0.4794;0.9156;
226.8000;0.4892;0.9521;
227.1000;0.4843;0.9399;
227.4000;0.4860;0.9448;
227.7000;0.4884;0.9497;
228.0000;0.4860;0.9497;
228.3000;0.4843;0.9375;
228.6000;0.4868;0.9472;
228.9000;0.4876;0.9448;
229.2000;0.4811;0.9399;
229.5000;0.4908;0.9667;
229.8000;0.4843;0.9399;
230.1000;0.4876;0.9350;
230.4000;0.4860;0.9375;
230.7000;0.4851;0.9302;
231.0000;0.4876;0.9350;
231.3000;0.4876;0.9448;
231.6000;0.4876;0.9448;
231.9000;0.4876;0.9497;
232.2000;0.4860;0.9545;
232.5000;0.4884;0.9570;
232.8000;0.4908;0.9643;
233.1000;0.4900;0.9521;
233.4000;0.4876;0.9277;
233.7000;0.4908;0.9302;
234.0000;0.4884;0.9302;
234.3000;0.4892;0.9375;
234.6000;0.4868;0.9423;
234.9000;0.4860;0.9570;
235.2000;0.4900;0.9667;
235.5000;0.4884;0.9643;
235.8000;0.4868;0.9521;
236.1000;0.4876;0.9570;
236.4000;0.4876;0.9545;
236.7000;0.4876;0.9423;
237.0000;0.4876;0.9521;
237.3000;0.4851;0.9497;
237.6000;0.4868;0.9521;
237.9000;0.4892;0.9545;
238.2000;0.4868;0.9497;
238.5000;0.4884;0.9472;
238.8000;0.4884;0.9423;
239.1000;0.4884;0.9375;
239.4000;0.4868;0.9399;
239.7000;0.4868;0.9350;
240.0000;0.4868;0.9302;
240.3000;0.4892;0.9399;
240.6000;0.4876;0.9375;
240.9000;0.4868;0.9229;
241.2000;0.4876;0.9302;
241.5000;0.4925;0.9472;
241.8000;0.4884;0.9399;
242.1000;0.4876;0.9375;
242.4000;0.4868;0.9375;
242.7000;0.4876;0.9350;
243.0000;0.4900;0.9472;
243.3000;0.4884;0.9350;
243.6000;0.4892;0.9423;
243.9000;0.4876;0.9399;
244.2000;0.4908;0.9399;
244.5000;0.4860;0.9229;
244.8000;0.4868;0.9375;
245.1000;0.4876;0.9448;
245.4000;0.4803;0.9302;
245.7000;0.4827;0.9350;
246.0000;0.4900;0.9594;
246.3000;0.4900;0.9545;
246.6000;0.4892;0.9497;
246.9000;0.4884;0.9521;
247.2000;0.4892;0.9472;
247.5000;0.4884;0.9375;
247.8000;0.4884;0.9472;
248.1000;0.4900;0.9594;
248.4000;0.4884;0.9594;
248.7000;0.4876;0.9618;
249.0000;0.4884;0.9594;
249.3000;0.4884;0.9618;
249.6000;0.4876;0.9618;
249.9000;0.4892;0.9618;
250.2000;0.4892;0.9594;
250.5000;0.4851;0.9497;
250.8000;0.4884;0.9618;
251.1000;0.4860;0.9545;
251.4000;0.4957;0.9837;
251.7000;0.4892;0.9716;
252.0000;0.4876;0.9667;
252.3000;0.4925;0.9764;
252.6000;0.4876;0.9691;
252.9000;0.4876;0.9716;
253.2000;0.4892;0.9740;
253.5000;0.4843;0.9497;
253.8000;0.4876;0.9521;
254.1000;0.4868;0.9472;
254.4000;0.4884;0.9521;
254.7000;0.4860;0.9448;
255.0000;0.4892;0.9545;
255.3000;0.4851;0.9399;
255.6000;0.4876;0.9472;
255.9000;0.4884;0.9545;
256.2000;0.4868;0.9497;
256.5000;0.4876;0.9448;
256.8000;0.4876;0.9472;
257.1000;0.4868;0.9375;
257.4000;0.4868;0.9472;
257.7000;0.4868;0.9448;
258.0000;0.4819;0.9277;
258.3000;0.4868;0.9423;
258.6000;0.4876;0.9570;
258.9000;0.4860;0.9643;
259.2000;0.4884;0.9643;
259.5000;0.4884;0.9594;
259.8000;0.4868;0.9643;
260.1000;0.4868;0.9643;
260.4000;0.4892;0.9667;
260.7000;0.4884;0.9570;
261.0000;0.4892;0.9618;
261.3000;0.4868;0.9643;
261.6000;0.4884;0.9691;
261.9000;0.4884;0.9667;
262.2000;0.4876;0.9643;
262.5000;0.4876;0.9570;
262.8000;0.4884;0.9691;
263.1000;0.4884;0.9764;
263.4000;0.4851;0.9643;
263.7000;0.4876;0.9643;
264.0000;0.4868;0.9667;
264.3000;0.4884;0.9667;
264.6000;0.4876;0.9570;
264.9000;0.4860;0.9497;
265.2000;0.4876;0.9545;
265.5000;0.4892;0.9521;
265.8000;0.4876;0.9521;
266.1000;0.4860;0.9521;
266.4000;0.4884;0.9545;
266.7000;0.4868;0.9521;
267.0000;0.4917;0.9716;
267.3000;0.4876;0.9667;
267.6000;0.4868;0.9667;
267.9000;0.4843;0.9643;
268.2000;0.4876;0.9740;
268.5000;0.4884;0.9764;
268.8000;0.4868;0.9667;
269.1000;0.4868;0.9643;
269.4000;0.4982;0.9959;
269.7000;0.4868;0.9716;
270.0000;0.4860;0.9740;
270.3000;0.4876;0.9643;
270.6000;0.4876;0.9618;
270.9000;0.4884;0.9691;
271.2000;0.4917;0.9740;
271.5000;0.4876;0.9594;
271.8000;0.4876;0.9497;
272.1000;0.4843;0.9399;
272.4000;0.4933;0.9570;
272.7000;0.4884;0.9375;
273.0000;0.4876;0.9229;
273.3000;0.4876;0.9253;
273.6000;0.4860;0.9302;
273.9000;0.4892;0.9423;
274.2000;0.4860;0.9350;
274.5000;0.4876;0.9375;
274.8000;0.4876;0.9472;
275.1000;0.4860;0.9399;
275.4000;0.4884;0.9350;
275.7000;0.4876;0.9277;
276.0000;0.4868;0.9253;
276.3000;0.4892;0.9229;
276.6000;0.4811;0.9058;
276.9000;0.4868;0.9180;
277.2000;0.4884;0.9204;
277.5000;0.4876;0.9277;
277.8000;0.4884;0.9399;
278.1000;0.4884;0.9472;
278.4000;0.4876;0.9448;
278.7000;0.4876;0.9497;
279.0000;0.4884;0.9497;
279.3000;0.4876;0.9448;
279.6000;0.4884;0.9326;
279.9000;0.4892;0.9350;
280.2000;0.4884;0.9375;
280.5000;0.4860;0.9229;
280.8000;0.4876;0.9253;
281.1000;0.4868;0.9326;
281.4000;0.4860;0.9399;
281.7000;0.4827;0.9277;
282.0000;0.4957;0.9570;
282.3000;0.4884;0.9423;
282.6000;0.4949;0.9545;
282.9000;0.4868;0.9350;
283.2000;0.4860;0.9229;
283.5000;0.4884;0.9131;
283.8000;0.4884;0.9131;
284.1000;0.4925;0.9277;
284.4000;0.4884;0.9253;
284.7000;0.4884;0.9229;
285.0000;0.4827;0.8985;
285.3000;0.4892;0.9107;
285.6000;0.4851;0.9058;
285.9000;0.4868;0.9180;
286.2000;0.4884;0.9180;
286.5000;0.4884;0.9180;
286.8000;0.4876;0.9204;
287.1000;0.4892;0.9204;
287.4000;0.4925;0.9375;
287.7000;0.4884;0.9302;
288.0000;0.4884;0.9204;
288.3000;0.4868;0.9180;
288.6000;0.4884;0.9277;
288.9000;0.4868;0.9204;
289.2000;0.4884;0.9326;
289.5000;0.4884;0.9326;
289.8000;0.4892;0.9375;
290.1000;0.4925;0.9497;
290.4000;0.4860;0.9375;
290.7000;0.4884;0.9497;
291.0000;0.4868;0.9399;
291.3000;0.4876;0.9472;
291.6000;0.4876;0.9448;
291.9000;0.4876;0.9448;
292.2000;0.4884;0.9521;
292.5000;0.4925;0.9545;
292.8000;0.4868;0.9326;
293.1000;0.4884;0.9423;
293.4000;0.4868;0.9448;
293.7000;0.4843;0.9521;
294.0000;0.4876;0.9570;
294.3000;0.4868;0.9521;
294.6000;0.4860;0.9497;
294.9000;0.4851;0.9375;
295.2000;0.4876;0.9399;
295.5000;0.4908;0.9570;
295.8000;0.4876;0.9570;
296.1000;0.4876;0.9497;
296.4000;0.4860;0.9521;
296.7000;0.4868;0.9570;
297.0000;0.4868;0.9472;
297.3000;0.4884;0.9497;
297.6000;0.4884;0.9375;
297.9000;0.4884;0.9350;
298.2000;0.4851;0.9253;
298.5000;0.4851;0.9229;
298.8000;0.4876;0.9229;
299.1000;0.4876;0.9448;
299.4000;0.4949;0.9643;
299.7000;0.4868;0.9472;
300.0000;0.4876;0.9448;
300.3000;0.4860;0.9497;
300.6000;0.4892;0.9521;
300.9000;0.4876;0.9497;
301.2000;0.4819;0.9302;
301.5000;0.4868;0.9302;
301.8000;0.4900;0.9472;
302.1000;0.4851;0.9302;
302.4000;0.4868;0.9350;
302.7000;0.4884;0.9423;
303.0000;0.4860;0.9302;
303.3000;0.4876;0.9423;
303.6000;0.4868;0.9448;
303.9000;0.4876;0.9399;
304.2000;0.4868;0.9448;
304.5000;0.4868;0.9423;
304.8000;0.4860;0.9399;
305.1000;0.4868;0.9375;
305.4000;0.4876;0.9375;
305.7000;0.4884;0.9399;
306.0000;0.4868;0.9375;
306.3000;0.4884;0.9423;
306.6000;0.4827;0.9350;
306.9000;0.4778;0.9156;
307.2000;0.4860;0.9326;
307.5000;0.4786;0.9107;
307.8000;0.4884;0.9326;
308.1000;0.4851;0.9302;
308.4000;0.4827;0.9229;
308.7000;0.4860;0.9253;
309.0000;0.4860;0.9302;
309.3000;0.4876;0.9399;
309.6000;0.4884;0.9497;
309.9000;0.4860;0.9399;
310.2000;0.4876;0.9399;
310.5000;0.4860;0.9423;
310.8000;0.4876;0.9497;
311.1000;0.4876;0.9448;
311.4000;0.4957;0.9570;
311.7000;0.4827;0.9302;
312.0000;0.4860;0.9375;
312.3000;0.4851;0.9423;
312.6000;0.4860;0.9423;
312.9000;0.4860;0.9375;
313.2000;0.4868;0.9448;
313.5000;0.4843;0.9448;
313.8000;0.4843;0.9448;
314.1000;0.4892;0.9448;
314.4000;0.4884;0.9570;
314.7000;0.4884;0.9570;
315.0000;0.4851;0.9448;
315.3000;0.4884;0.9594;
315.6000;0.4876;0.9643;
315.9000;0.4868;0.9643;
316.2000;0.4884;0.9618;
316.5000;0.4835;0.9448;
316.8000;0.4892;0.9594;
317.1000;0.4868;0.9497;
317.4000;0.4843;0.9375;
317.7000;0.4900;0.9521;
318.0000;0.4892;0.9497;
318.3000;0.4868;0.9545;
318.6000;0.4876;0.9497;
318.9000;0.4876;0.9545;
319.2000;0.4884;0.9521;
319.5000;0.4884;0.9521;
319.8000;0.4868;0.9497;
320.1000;0.4908;0.9497;
320.4000;0.4876;0.9375;
320.7000;0.4974;0.9691;
321.0000;0.4884;0.9497;
321.3000;0.4892;0.9497;
321.6000;0.4892;0.9545;
321.9000;0.4884;0.9570;
322.2000;0.4884;0.9594;
322.5000;0.4860;0.9545;
322.8000;0.4803;0.9350;
323.1000;0.4908;0.9594;
323.4000;0.4876;0.9472;
323.7000;0.4900;0.9545;
324.0000;0.4868;0.9472;
324.3000;0.4860;0.9472;
324.6000;0.4876;0.9448;
324.9000;0.4884;0.9448;
325.2000;0.4868;0.9375;
325.5000;0.4876;0.9399;
325.8000;0.4843;0.9326;
326.1000;0.4876;0.9350;
326.4000;0.4843;0.9375;
326.7000;0.4876;0.9423;
327.0000;0.4876;0.9399;
327.3000;0.4892;0.9472;
327.6000;0.4860;0.9253;
327.9000;0.4900;0.9375;
328.2000;0.4884;0.9375;
328.5000;0.4876;0.9253;
328.8000;0.4900;0.9277;
329.1000;0.4876;0.9302;
329.4000;0.4884;0.9399;
329.7000;0.4876;0.9472;
330.0000;0.4860;0.9521;
330.3000;0.4868;0.9472;
330.6000;0.4868;0.9497;
330.9000;0.4851;0.9521;
331.2000;0.4876;0.9570;
331.5000;0.4860;0.9545;
331.8000;0.4860;0.9472;
332.1000;0.4868;0.9497;
332.4000;0.4876;0.9545;
332.7000;0.4892;0.9570;
333.0000;0.4868;0.9570;
333.3000;0.4868;0.9521;
333.6000;0.4868;0.9570;
333.9000;0.4884;0.9570;
334.2000;0.4868;0.9545;
334.5000;0.4892;0.9570;
334.8000;0.4876;0.9545;
335.1000;0.4851;0.9497;
335.4000;0.4868;0.9545;
335.7000;0.4803;0.9350;
336.0000;0.4884;0.9570;
336.3000;0.4884;0.9618;
336.6000;0.4868;0.9521;
336.9000;0.4949;0.9789;
337.2000;0.4827;0.9423;
337.5000;0.4868;0.9472;
337.8000;0.4892;0.9618;
338.1000;0.4868;0.9545;
338.4000;0.4868;0.9521;
338.7000;0.4860;0.9594;
339.0000;0.4892;0.9716;
339.3000;0.4868;0.9667;
339.6000;0.4827;0.9472;
339.9000;0.4925;0.9667;
340.2000;0.4835;0.9423;
340.5000;0.4835;0.9448;
340.8000;0.4876;0.9570;
341.1000;0.4876;0.9594;
341.4000;0.4843;0.9521;
341.7000;0.4843;0.9497;
342.0000;0.4843;0.9448;
342.3000;0.4835;0.9497;
342.6000;0.4860;0.9448;
342.9000;0.4860;0.9448;
343.2000;0.4892;0.9570;
343.5000;0.4884;0.9570;
343.8000;0.4868;0.9521;
344.1000;0.4917;0.9448;
344.4000;0.4868;0.9326;
344.7000;0.4884;0.9375;
345.0000;0.4876;0.9350;
345.3000;0.4900;0.9375;
345.6000;0.4860;0.9229;
345.9000;0.4860;0.9204;
346.2000;0.4917;0.9375;
346.5000;0.4868;0.9375;
346.8000;0.4868;0.9277;
347.1000;0.4876;0.9350;
347.4000;0.4868;0.9399;
347.7000;0.4884;0.9448;
348.0000;0.4876;0.9448;
348.3000;0.4884;0.9497;
348.6000;0.4892;0.9570;
348.9000;0.4876;0.9521;
349.2000;0.4892;0.9618;
349.5000;0.4941;0.9691;
349.8000;0.4868;0.9472;
350.1000;0.4860;0.9497;
350.4000;0.4868;0.9521;
350.7000;0.4851;0.9375;
351.0000;0.4868;0.9375;
351.3000;0.4868;0.9423;
351.6000;0.4860;0.9497;
351.9000;0.4860;0.9545;
352.2000;0.4868;0.9545;
352.5000;0.4876;0.9570;
352.8000;0.4868;0.9643;
353.1000;0.4851;0.9521;
353.4000;0.4851;0.9521;
353.7000;0.4868;0.9521;
354.0000;0.4876;0.9618;
354.3000;0.4884;0.9618;
354.6000;0.4884;0.9594;
354.9000;0.4876;0.9497;
355.2000;0.4876;0.9448;
355.5000;0.4851;0.9350;
355.8000;0.4868;0.9375;
356.1000;0.4860;0.9350;
356.4000;0.4851;0.9350;
356.7000;0.4803;0.9253;
357.0000;0.4843;0.9375;
357.3000;0.4860;0.9326;
357.6000;0.4860;0.9350;
357.9000;0.4835;0.9326;
358.2000;0.4827;0.9375;
358.5000;0.4868;0.9472;
358.8000;0.4868;0.9521;
359.1000;0.4868;0.9497;
359.4000;0.4892;0.9545;
359.7000;0.4868;0.9570;
360.0000;0.4868;0.9545;
360.3000;0.4876;0.9545;
360.6000;0.4868;0.9570;
360.9000;0.4835;0.9497;
361.2000;0.4876;0.9618;
361.5000;0.4811;0.9497;
361.8000;0.4876;0.9716;
362.1000;0.4884;0.9716;
362.4000;0.4868;0.9643;
362.7000;0.4876;0.9667;
363.0000;0.4868;0.9618;
363.3000;0.4884;0.9643;
363.6000;0.4868;0.9521;
363.9000;0.4868;0.9497;
364.2000;0.4941;0.9618;
364.5000;0.4876;0.9545;
364.8000;0.4860;0.9521;
365.1000;0.4860;0.9497;
365.4000;0.4868;0.9545;
365.7000;0.4860;0.9497;
366.0000;0.4860;0.9497;
366.3000;0.4868;0.9521;
366.6000;0.4868;0.9545;
366.9000;0.4876;0.9570;
367.2000;0.4868;0.9472;
367.5000;0.4835;0.9448;
367.8000;0.4868;0.9497;
368.1000;0.4990;0.9667;
368.4000;0.4868;0.9350;
368.7000;0.4860;0.9399;
369.0000;0.4860;0.9472;
369.3000;0.4876;0.9570;
369.6000;0.4884;0.9497;
369.9000;0.4876;0.9472;
370.2000;0.4884;0.9423;
370.5000;0.4884;0.9497;
370.8000;0.4868;0.9423;
371.1000;0.4860;0.9399;
371.4000;0.4868;0.9472;
371.7000;0.4876;0.9497;
372.0000;0.4860;0.9472;
372.3000;0.4860;0.9472;
372.6000;0.4868;0.9350;
372.9000;0.4868;0.9253;
373.2000;0.4892;0.9302;
373.5000;0.4868;0.9326;
373.8000;0.4876;0.9350;
374.1000;0.4876;0.9399;
374.4000;0.4876;0.9399;
374.7000;0.4884;0.9448;
375.0000;0.4876;0.9497;
375.3000;0.4860;0.9497;
375.6000;0.4860;0.9594;
375.9000;0.4892;0.9740;
376.2000;0.4884;0.9667;
376.5000;0.4860;0.9643;
376.8000;0.4860;0.9643;
377.1000;0.4868;0.9691;
377.4000;0.4851;0.9740;
377.7000;0.4835;0.9667;
378.0000;0.4778;0.9448;
378.3000;0.4892;0.9716;
378.6000;0.4884;0.9667;
378.9000;0.4868;0.9643;
379.2000;0.4860;0.9643;
379.5000;0.4876;0.9667;
379.8000;0.4860;0.9691;
380.1000;0.4876;0.9716;
380.4000;0.4876;0.9618;
380.7000;0.4925;0.9643;
381.0000;0.4794;0.9277;
381.3000;0.4860;0.9399;
381.6000;0.4876;0.9521;
381.9000;0.4876;0.9570;
382.2000;0.4892;0.9618;
382.5000;0.4860;0.9545;
382.8000;0.4900;0.9643;
383.1000;0.4876;0.9691;
383.4000;0.4892;0.9643;
383.7000;0.4811;0.9423;
384.0000;0.4876;0.9497;
384.3000;0.4917;0.9667;
384.6000;0.4876;0.9545;
384.9000;0.4933;0.9667;
385.2000;0.4860;0.9545;
385.5000;0.4900;0.9618;
385.8000;0.4925;0.9716;
386.1000;0.4876;0.9594;
386.4000;0.4876;0.9570;
386.7000;0.4949;0.9764;
387.0000;0.4868;0.9594;
387.3000;0.4868;0.9570;
387.6000;0.4868;0.9497;
387.9000;0.4860;0.9423;
388.2000;0.4876;0.9375;
388.5000;0.4868;0.9302;
388.8000;0.4860;0.9277;
389.1000;0.4876;0.9326;
389.4000;0.4851;0.9302;
389.7000;0.4868;0.9375;
390.0000;0.4860;0.9375;
390.3000;0.4851;0.9326;
390.6000;0.4860;0.9399;
390.9000;0.4868;0.9399;
391.2000;0.4868;0.9326;
391.5000;0.4892;0.9521;
391.8000;0.4860;0.9570;
392.1000;0.4868;0.9545;
392.4000;0.4876;0.9594;
392.7000;0.4876;0.9521;
393.0000;0.4860;0.9399;
393.3000;0.4851;0.9399;
393.6000;0.4884;0.9423;
393.9000;0.4868;0.9448;
394.2000;0.4851;0.9448;
394.5000;0.4868;0.9448;
394.8000;0.4884;0.9472;
395.1000;0.4860;0.9350;
395.4000;0.4868;0.9448;
395.7000;0.4860;0.9472;
396.0000;0.4884;0.9423;
396.3000;0.4876;0.9399;
396.6000;0.4868;0.9423;
396.9000;0.4851;0.9594;
397.2000;0.4860;0.9545;
397.5000;0.4982;0.9837;
397.8000;0.4876;0.9521;
398.1000;0.4860;0.9545;
398.4000;0.4819;0.9472;
398.7000;0.4876;0.9667;
399.0000;0.4819;0.9448;
399.3000;0.4884;0.9570;
399.6000;0.4892;0.9570;
399.9000;0.4917;0.9667;
400.2000;0.4884;0.9594;
400.5000;0.4851;0.9521;
400.8000;0.4876;0.9570;
401.1000;0.4860;0.9545;
401.4000;0.4933;0.9716;
401.7000;0.4851;0.9448;
402.0000;0.4933;0.9618;
402.3000;0.4876;0.9448;
402.6000;0.4876;0.9472;
402.9000;0.4843;0.9448;
403.2000;0.4884;0.9521;
403.5000;0.4884;0.9570;
403.8000;0.4876;0.9521;
404.1000;0.4884;0.9545;
404.4000;0.4876;0.9521;
404.7000;0.4819;0.9497;
405.0000;0.4868;0.9594;
405.3000;0.4851;0.9594;
405.6000;0.4949;0.9740;
405.9000;0.4860;0.9545;
406.2000;0.4892;0.9643;
406.5000;0.4892;0.9545;
406.8000;0.4900;0.9423;
407.1000;0.4868;0.9302;
407.4000;0.4860;0.9375;
407.7000;0.4860;0.9472;
408.0000;0.4843;0.9350;
408.3000;0.4803;0.9253;
408.6000;0.4843;0.9350;
408.9000;0.4860;0.9375;
409.2000;0.4884;0.9472;
409.5000;0.4860;0.9423;
409.8000;0.4868;0.9472;
410.1000;0.4908;0.9497;
410.4000;0.4868;0.9399;
410.7000;0.4876;0.9350;
411.0000;0.4851;0.9302;
411.3000;0.4868;0.9497;
411.6000;0.4884;0.9497;
411.9000;0.4868;0.9521;
412.2000;0.4860;0.9521;
412.5000;0.4851;0.9497;
412.8000;0.4868;0.9497;
413.1000;0.4868;0.9497;
413.4000;0.4851;0.9521;
413.7000;0.4860;0.9521;
414.0000;0.4868;0.9521;
414.3000;0.4949;0.9667;
414.6000;0.4794;0.9326;
414.9000;0.4876;0.9545;
415.2000;0.4868;0.9570;
415.5000;0.4884;0.9594;
415.8000;0.4876;0.9570;
416.1000;0.4860;0.9545;
416.4000;0.4876;0.9570;
416.7000;0.4876;0.9545;
417.0000;0.4851;0.9472;
417.3000;0.4884;0.9521;
417.6000;0.4860;0.9594;
417.9000;0.4868;0.9594;
418.2000;0.4868;0.9594;
418.5000;0.4851;0.9594;
418.8000;0.4868;0.9521;
419.1000;0.4876;0.9497;
419.4000;0.4876;0.9472;
419.7000;0.4868;0.9399;
420.0000;0.4868;0.9497;
420.3000;0.4876;0.9594;
420.6000;0.4868;0.9667;
420.9000;0.4851;0.9691;
421.2000;0.4868;0.9740;
421.5000;0.4884;0.9789;
421.8000;0.4860;0.9716;
422.1000;0.4843;0.9667;
422.4000;0.4860;0.9618;
422.7000;0.4868;0.9643;
423.0000;0.4900;0.9716;
423.3000;0.4876;0.9667;
423.6000;0.4860;0.9594;
423.9000;0.4900;0.9667;
424.2000;0.4868;0.9521;
424.5000;0.4860;0.9497;
424.8000;0.4843;0.9521;
425.1000;0.4851;0.9521;
425.4000;0.4851;0.9423;
425.7000;0.4900;0.9399;
426.0000;0.4835;0.9302;
426.3000;0.4835;0.9350;
426.6000;0.4868;0.9497;
426.9000;0.4868;0.9497;
427.2000;0.4827;0.9375;
427.5000;0.4908;0.9618;
427.8000;0.4860;0.9545;
428.1000;0.4876;0.9570;
428.4000;0.4860;0.9545;
428.7000;0.4851;0.9545;
429.0000;0.4851;0.9521;
429.3000;0.4860;0.9594;
429.6000;0.4876;0.9570;
429.9000;0.4860;0.9423;
430.2000;0.4860;0.9472;
430.5000;0.4868;0.9570;
430.8000;0.4819;0.9302;
431.1000;0.4860;0.9448;
431.4000;0.4876;0.9472;
431.7000;0.4876;0.9497;
432.0000;0.4811;0.9448;
432.3000;0.4860;0.9594;
432.6000;0.4843;0.9448;
432.9000;0.4868;0.9375;
433.2000;0.4860;0.9375;
433.5000;0.4827;0.9399;
433.8000;0.4851;0.9497;
434.1000;0.4843;0.9448;
434.4000;0.4876;0.9497;
434.7000;0.4876;0.9521;
435.0000;0.4876;0.9497;
435.3000;0.4876;0.9472;
435.6000;0.4827;0.9399;
435.9000;0.4843;0.9399;
436.2000;0.4803;0.9180;
436.5000;0.4868;0.9326;
436.8000;0.4876;0.9350;
437.1000;0.4876;0.9399;
437.4000;0.4860;0.9350;
437.7000;0.4851;0.9423;
438.0000;0.4868;0.9448;
438.3000;0.4868;0.9423;
438.6000;0.4860;0.9423;
438.9000;0.4876;0.9423;
439.2000;0.4860;0.9399;
439.5000;0.4851;0.9350;
439.8000;0.4860;0.9277;
440.1000;0.4884;0.9375;
440.4000;0.4868;0.9375;
440.7000;0.4957;0.9643;
441.0000;0.4868;0.9472;
441.3000;0.4892;0.9521;
441.6000;0.4843;0.9448;
441.9000;0.4876;0.9472;
442.2000;0.4876;0.9448;
442.5000;0.4868;0.9375;
442.8000;0.4876;0.9375;
443.1000;0.4868;0.9350;
443.4000;0.4868;0.9448;
443.7000;0.4868;0.9497;
444.0000;0.4851;0.9423;
444.3000;0.4843;0.9375;
444.6000;0.4876;0.9399;
444.9000;0.4803;0.9229;
445.2000;0.4860;0.9399;
445.5000;0.4860;0.9521;
445.8000;0.4868;0.9643;
446.1000;0.4860;0.9691;
446.4000;0.4868;0.9618;
446.7000;0.4843;0.9472;
447.0000;0.4868;0.9448;
447.3000;0.4876;0.9472;
447.6000;0.4868;0.9497;
447.9000;0.4876;0.9497;
448.2000;0.4843;0.9448;
448.5000;0.4884;0.9448;
448.8000;0.4860;0.9423;
449.1000;0.4811;0.9375;
449.4000;0.4860;0.9594;
449.7000;0.4860;0.9521;
450.0000;0.4860;0.9399;
450.3000;0.4900;0.9423;
450.6000;0.4851;0.9229;
450.9000;0.4851;0.9253;
451.2000;0.4835;0.9277;
451.5000;0.4868;0.9277;
451.8000;0.4860;0.9277;
452.1000;0.4876;0.9229;
452.4000;0.4876;0.9229;
452.7000;0.4851;0.9180;
453.0000;0.4851;0.9204;
453.3000;0.4860;0.9229;
453.6000;0.4860;0.9204;
453.9000;0.4860;0.9423;
454.2000;0.4908;0.9667;
454.5000;0.4860;0.9570;
454.8000;0.4827;0.9423;
455.1000;0.4884;0.9521;
455.4000;0.4851;0.9521;
455.7000;0.4851;0.9570;
456.0000;0.4835;0.9594;
456.3000;0.4860;0.9667;
456.6000;0.4868;0.9643;
456.9000;0.4851;0.9472;
457.2000;0.4949;0.9740;
457.5000;0.4884;0.9570;
457.8000;0.4851;0.9545;
458.1000;0.4892;0.9740;
458.4000;0.4876;0.9570;
458.7000;0.4917;0.9618;
459.0000;0.4876;0.9399;
459.3000;0.4851;0.9326;
459.6000;0.4860;0.9302;
459.9000;0.4868;0.9350;
460.2000;0.4868;0.9423;
460.5000;0.4819;0.9326;
460.8000;0.4868;0.9570;
461.1000;0.4827;0.9472;
461.4000;0.4876;0.9545;
461.7000;0.4860;0.9497;
462.0000;0.4860;0.9497;
462.3000;0.4868;0.9594;
462.6000;0.4876;0.9570;
462.9000;0.4860;0.9448;
463.2000;0.4868;0.9448;
463.5000;0.4876;0.9375;
463.8000;0.4843;0.9302;
464.1000;0.4868;0.9204;
464.4000;0.4860;0.9180;
464.7000;0.4860;0.9204;
465.0000;0.4868;0.9180;
465.3000;0.4876;0.9107;
465.6000;0.4860;0.9058;
465.9000;0.4851;0.9058;
466.2000;0.4892;0.9107;
466.5000;0.4868;0.9180;
466.8000;0.4860;0.9180;
467.1000;0.4876;0.9229;
467.4000;0.4843;0.9204;
467.7000;0.4868;0.9180;
468.0000;0.4868;0.9204;
468.3000;0.4843;0.9156;
468.6000;0.4860;0.9180;
468.9000;0.4860;0.9180;
469.2000;0.4860;0.9277;
469.5000;0.4851;0.9302;
469.8000;0.4843;0.9350;
470.1000;0.4868;0.9375;
470.4000;0.4843;0.9302;
470.7000;0.4860;0.9302;
471.0000;0.4860;0.9375;
471.3000;0.4860;0.9302;
471.6000;0.4868;0.9253;
471.9000;0.4925;0.9399;
472.2000;0.4851;0.9204;
472.5000;0.4851;0.9180;
472.8000;0.4876;0.9302;
473.1000;0.4851;0.9277;
473.4000;0.4876;0.9277;
473.7000;0.4868;0.9180;
474.0000;0.4860;0.9277;
474.3000;0.4876;0.9277;
474.6000;0.4876;0.9204;
474.9000;0.4843;0.9180;
475.2000;0.4827;0.9229;
475.5000;0.4868;0.9229;
475.8000;0.4868;0.9302;
476.1000;0.4860;0.9326;
476.4000;0.4860;0.9253;
476.7000;0.4860;0.9350;
477.0000;0.4860;0.9350;
477.3000;0.4860;0.9375;
477.6000;0.4876;0.9472;
477.9000;0.4860;0.9399;
478.2000;0.4851;0.9302;
478.5000;0.4835;0.9253;
478.8000;0.4851;0.9277;
479.1000;0.4851;0.9350;
479.4000;0.4868;0.9521;
479.7000;0.4917;0.9618;
480.0000;0.4851;0.9423;
480.3000;0.4843;0.9399;
480.6000;0.4843;0.9399;
480.9000;0.4860;0.9375;
481.2000;0.4868;0.9448;
481.5000;0.4827;0.9423;
481.8000;0.4851;0.9472;
482.1000;0.4876;0.9521;
482.4000;0.4860;0.9423;
482.7000;0.4851;0.9423;
483.0000;0.4835;0.9277;
483.3000;0.4851;0.9326;
483.6000;0.4843;0.9277;
483.9000;0.4843;0.9204;
484.2000;0.4868;0.9229;
484.5000;0.4851;0.9180;
484.8000;0.4827;0.9131;
485.1000;0.4851;0.9131;
485.4000;0.4860;0.9253;
485.7000;0.4860;0.9156;
486.0000;0.4860;0.9277;
486.3000;0.4835;0.9277;
486.6000;0.4868;0.9423;
486.9000;0.4876;0.9472;
487.2000;0.4851;0.9326;
487.5000;0.4860;0.9423;
487.8000;0.4884;0.9497;
488.1000;0.4868;0.9497;
488.4000;0.4851;0.9399;
488.7000;0.4868;0.9472;
489.0000;0.4851;0.9472;
489.3000;0.4876;0.9594;
489.6000;0.4851;0.9521;
489.9000;0.4860;0.9521;
490.2000;0.4851;0.9594;
490.5000;0.4803;0.9472;
490.8000;0.4843;0.9521;
491.1000;0.4876;0.9570;
491.4000;0.4851;0.9448;
491.7000;0.4876;0.9350;
492.0000;0.4860;0.9253;
492.3000;0.4860;0.9277;
492.6000;0.4851;0.9350;
492.9000;0.4884;0.9423;
493.2000;0.4860;0.9350;
493.5000;0.4851;0.9302;
493.8000;0.4860;0.9229;
494.1000;0.4925;0.9399;
494.4000;0.4851;0.9253;
494.7000;0.4843;0.9302;
495.0000;0.4851;0.9302;
495.3000;0.4843;0.9204;
495.6000;0.4876;0.9302;
495.9000;0.4778;0.8985;
496.2000;0.4908;0.9375;
496.5000;0.4843;0.9229;
496.8000;0.4876;0.9253;
497.1000;0.4868;0.9277;
497.4000;0.4843;0.9204;
497.7000;0.4843;0.9302;
498.0000;0.4868;0.9423;
498.3000;0.4835;0.9423;
498.6000;0.4868;0.9570;
498.9000;0.4860;0.9618;
499.2000;0.4851;0.9618;
499.5000;0.4868;0.9643;
499.8000;0.4843;0.9570;
500.1000;0.4860;0.9618;
500.4000;0.4827;0.9399;
500.7000;0.4827;0.9277;
501.0000;0.4860;0.9399;
501.3000;0.4843;0.9350;
501.6000;0.4868;0.9497;
501.9000;0.4876;0.9545;
502.2000;0.4925;0.9594;
502.5000;0.4860;0.9423;
502.8000;0.4868;0.9472;
503.1000;0.4868;0.9472;
503.4000;0.4851;0.9521;
503.7000;0.4884;0.9643;
504.0000;0.4868;0.9594;
504.3000;0.4843;0.9545;
504.6000;0.4860;0.9570;
504.9000;0.4851;0.9545;
505.2000;0.4925;0.9667;
505.5000;0.4843;0.9521;
505.8000;0.4860;0.9472;
506.1000;0.4843;0.9423;
506.4000;0.4851;0.9448;
506.7000;0.4868;0.9399;
507.0000;0.4868;0.9375;
507.3000;0.4868;0.9423;
507.6000;0.4868;0.9545;
507.9000;0.4860;0.9545;
508.2000;0.4876;0.9570;
508.5000;0.4876;0.9594;
508.8000;0.4860;0.9594;
509.1000;0.4851;0.9545;
509.4000;0.4917;0.9691;
509.7000;0.4851;0.9521;
510.0000;0.4835;0.9472;
510.3000;0.4851;0.9423;
510.6000;0.4851;0.9497;
510.9000;0.4860;0.9497;
511.2000;0.4860;0.9448;
511.5000;0.4827;0.9326;
511.8000;0.4851;0.9399;
512.1000;0.4860;0.9423;
512.4000;0.4884;0.9521;
512.7000;0.4892;0.9594;
513.0000;0.4851;0.9472;
513.3000;0.4860;0.9594;
513.6000;0.4884;0.9545;
513.9000;0.4900;0.9570;
514.2000;0.4851;0.9448;
514.5000;0.4851;0.9399;
514.8000;0.4860;0.9423;
515.1000;0.4835;0.9350;
515.4000;0.4860;0.9521;
515.7000;0.4835;0.9448;
516.0000;0.4860;0.9545;
516.3000;0.4860;0.9643;
516.6000;0.4827;0.9497;
516.9000;0.4925;0.9813;
517.2000;0.4860;0.9691;
517.5000;0.4965;0.9959;
517.8000;0.4860;0.9667;
518.1000;0.4851;0.9667;
518.4000;0.4827;0.9497;
518.7000;0.4851;0.9570;
519.0000;0.4786;0.9326;
519.3000;0.4892;0.9545;
519.6000;0.4868;0.9497;
519.9000;0.4868;0.9521;
520.2000;0.4884;0.9545;
520.5000;0.4835;0.9399;
520.8000;0.4851;0.9545;
521.1000;0.4860;0.9545;
521.4000;0.4843;0.9521;
521.7000;0.4860;0.9594;
522.0000;0.4860;0.9545;
522.3000;0.4843;0.9521;
522.6000;0.4860;0.9570;
522.9000;0.4843;0.9497;
523.2000;0.4860;0.9594;
523.5000;0.4917;0.9764;
523.8000;0.4860;0.9618;
524.1000;0.4860;0.9570;
524.4000;0.4860;0.9497;
524.7000;0.4851;0.9423;
525.0000;0.4892;0.9618;
525.3000;0.4884;0.9570;
525.6000;0.4884;0.9570;
525.9000;0.4876;0.9545;
526.2000;0.4843;0.9423;
526.5000;0.4876;0.9472;
526.8000;0.4860;0.9399;
527.1000;0.4868;0.9521;
527.4000;0.4900;0.9618;
527.7000;0.4851;0.9472;
528.0000;0.4876;0.9570;
528.3000;0.4851;0.9570;
528.6000;0.4868;0.9521;
528.9000;0.4884;0.9521;
529.2000;0.4843;0.9497;
529.5000;0.4851;0.9497;
529.8000;0.4860;0.9448;
530.1000;0.4884;0.9497;
530.4000;0.4868;0.9521;
530.7000;0.4851;0.9497;
531.0000;0.4843;0.9472;
531.3000;0.4843;0.9497;
531.6000;0.4851;0.9521;
531.9000;0.4851;0.9545;
532.2000;0.4868;0.9594;
532.5000;0.4860;0.9472;
532.8000;0.4835;0.9399;
533.1000;0.4803;0.9350;
533.4000;0.4851;0.9326;
533.7000;0.4851;0.9326;
534.0000;0.4843;0.9350;
534.3000;0.4843;0.9253;
534.6000;0.4860;0.9156;
534.9000;0.4868;0.9156;
535.2000;0.4851;0.9156;
535.5000;0.4851;0.9107;
535.8000;0.4843;0.9180;
536.1000;0.4868;0.9302;
536.4000;0.4851;0.9375;
536.7000;0.4843;0.9375;
537.0000;0.4851;0.9472;
537.3000;0.4851;0.9521;
537.6000;0.4835;0.9448;
537.9000;0.4860;0.9448;
538.2000;0.4860;0.9497;
538.5000;0.4843;0.9497;
538.8000;0.4843;0.9448;
539.1000;0.4860;0.9423;
539.4000;0.4827;0.9326;
539.7000;0.4843;0.9302;
540.0000;0.4851;0.9399;
540.3000;0.4819;0.9302;
540.6000;0.4811;0.9253;
540.9000;0.4917;0.9521;
541.2000;0.4843;0.9277;
541.5000;0.4851;0.9204;
541.8000;0.4860;0.9277;
542.1000;0.4868;0.9277;
542.4000;0.4860;0.9253;
542.7000;0.4868;0.9350;
543.0000;0.4860;0.9399;
543.3000;0.4941;0.9594;
543.6000;0.4827;0.9399;
543.9000;0.4892;0.9521;
544.2000;0.4851;0.9448;
544.5000;0.4851;0.9423;
544.8000;0.4860;0.9375;
545.1000;0.4835;0.9326;
545.4000;0.4843;0.9277;
545.7000;0.4851;0.9326;
546.0000;0.4851;0.9350;
546.3000;0.4884;0.9399;
546.6000;0.4851;0.9326;
546.9000;0.4843;0.9326;
547.2000;0.4860;0.9302;
547.5000;0.4860;0.9277;
547.8000;0.4868;0.9375;
548.1000;0.4835;0.9399;
548.4000;0.4851;0.9448;
548.7000;0.4876;0.9350;
549.0000;0.4851;0.9302;
549.3000;0.4876;0.9375;
549.6000;0.4860;0.9277;
549.9000;0.4843;0.9204;
550.2000;0.4851;0.9180;
550.5000;0.4876;0.9302;
550.8000;0.4843;0.9277;
551.1000;0.4835;0.9253;
551.4000;0.4860;0.9302;
551.7000;0.4827;0.9204;
552.0000;0.4900;0.9375;
552.3000;0.4868;0.9277;
552.6000;0.4851;0.9277;
552.9000;0.4868;0.9277;
553.2000;0.4933;0.9472;
553.5000;0.4851;0.9350;
553.8000;0.4843;0.9423;
554.1000;0.4860;0.9497;
554.4000;0.4868;0.9423;
554.7000;0.4843;0.9350;
555.0000;0.4868;0.9399;
555.3000;0.4860;0.9302;
555.6000;0.4851;0.9253;
555.9000;0.4868;0.9277;
556.2000;0.4827;0.9253;
556.5000;0.4786;0.9229;
556.8000;0.4860;0.9350;
557.1000;0.4860;0.9423;
557.4000;0.4843;0.9375;
557.7000;0.4868;0.9448;
558.0000;0.4868;0.9545;
558.3000;0.4860;0.9497;
558.6000;0.4843;0.9448;
558.9000;0.4860;0.9472;
559.2000;0.4843;0.9521;
559.5000;0.4868;0.9545;
559.8000;0.4851;0.9497;
560.1000;0.4843;0.9521;
560.4000;0.4868;0.9448;
560.7000;0.4851;0.9497;
561.0000;0.4851;0.9423;
561.3000;0.4843;0.9399;
561.6000;0.4835;0.9448;
561.9000;0.4851;0.9545;
562.2000;0.4843;0.9521;
562.5000;0.4843;0.9472;
562.8000;0.4778;0.9277;
563.1000;0.4843;0.9497;
563.4000;0.4860;0.9497;
563.7000;0.4892;0.9545;
564.0000;0.4827;0.9423;
564.3000;0.4868;0.9545;
564.6000;0.4876;0.9472;
564.9000;0.4860;0.9326;
565.2000;0.4860;0.9350;
565.5000;0.4868;0.9326;
565.8000;0.4851;0.9277;
566.1000;0.4803;0.9156;
566.4000;0.4851;0.9204;
566.7000;0.4819;0.9107;
567.0000;0.4860;0.9253;
567.3000;0.4843;0.9131;
567.6000;0.4917;0.9326;
567.9000;0.4868;0.9180;
568.2000;0.4868;0.9204;
568.5000;0.4851;0.9229;
568.8000;0.4876;0.9277;
569.1000;0.4892;0.9326;
569.4000;0.4827;0.9180;
569.7000;0.4868;0.9204;
570.0000;0.4860;0.9204;
570.3000;0.4908;0.9423;
570.6000;0.4851;0.9350;
570.9000;0.4860;0.9326;
571.2000;0.4843;0.9399;
571.5000;0.4933;0.9618;
571.8000;0.4835;0.9375;
572.1000;0.4860;0.9350;
572.4000;0.4860;0.9350;
572.7000;0.4843;0.9326;
573.0000;0.4843;0.9253;
573.3000;0.4892;0.9229;
573.6000;0.4868;0.9131;
573.9000;0.4843;0.9131;
574.2000;0.4892;0.9399;
574.5000;0.4851;0.9350;
574.8000;0.4851;0.9375;
575.1000;0.4835;0.9350;
575.4000;0.4851;0.9399;
575.7000;0.4835;0.9399;
576.0000;0.4884;0.9448;
576.3000;0.4851;0.9375;
576.6000;0.4851;0.9277;
576.9000;0.4851;0.9229;
577.2000;0.4843;0.9350;
577.5000;0.4851;0.9399;
577.8000;0.4843;0.9423;
578.1000;0.4876;0.9472;
578.4000;0.4843;0.9497;
578.7000;0.4827;0.9570;
579.0000;0.4851;0.9570;
579.3000;0.4860;0.9521;
579.6000;0.4851;0.9521;
579.9000;0.4843;0.9521;
580.2000;0.4851;0.9472;
580.5000;0.4843;0.9423;
580.8000;0.4851;0.9448;
581.1000;0.4843;0.9472;
581.4000;0.4819;0.9399;
581.7000;0.4835;0.9521;
582.0000;0.4851;0.9545;
582.3000;0.4876;0.9570;
582.6000;0.4843;0.9448;
582.9000;0.4851;0.9472;
583.2000;0.4851;0.9472;
583.5000;0.4843;0.9448;
583.8000;0.4851;0.9448;
584.1000;0.4860;0.9399;
584.4000;0.4860;0.9448;
584.7000;0.4851;0.9375;
585.0000;0.4860;0.9375;
585.3000;0.4860;0.9423;
585.6000;0.4868;0.9399;
585.9000;0.4819;0.9277;
586.2000;0.4876;0.9350;
586.5000;0.4884;0.9350;
586.8000;0.4851;0.9204;
587.1000;0.4860;0.9277;
587.4000;0.4860;0.9326;
587.7000;0.4843;0.9253;
588.0000;0.4794;0.9156;
588.3000;0.4843;0.9302;
588.6000;0.4851;0.9326;
588.9000;0.4860;0.9350;
589.2000;0.4851;0.9302;
589.5000;0.4843;0.9229;
589.8000;0.4884;0.9204;
590.1000;0.4900;0.9302;
590.4000;0.4860;0.9131;
590.7000;0.4851;0.9083;
591.0000;0.4876;0.9107;
591.3000;0.4925;0.9326;
591.6000;0.4868;0.9204;
591.9000;0.4860;0.9204;
592.2000;0.4860;0.9180;
592.5000;0.4908;0.9399;
592.8000;0.4868;0.9326;
593.1000;0.4876;0.9350;
593.4000;0.4884;0.9350;
593.7000;0.4851;0.9326;
594.0000;0.4868;0.9350;
594.3000;0.4925;0.9521;
594.6000;0.4860;0.9326;
594.9000;0.4860;0.9277;
595.2000;0.4917;0.9448;
595.5000;0.4851;0.9302;
595.8000;0.4843;0.9375;
596.1000;0.4868;0.9448;
596.4000;0.4851;0.9423;
596.7000;0.4851;0.9497;
597.0000;0.4835;0.9448;
597.3000;0.4917;0.9594;
597.6000;0.4843;0.9472;
597.9000;0.4868;0.9497;
598.2000;0.4851;0.9375;
598.5000;0.4835;0.9399;
598.8000;0.4851;0.9521;
599.1000;0.4746;0.9229;
599.4000;0.4860;0.9497;
599.7000;0.4860;0.9472;
600.0000;0.4835;0.9423;
600.3000;0.4835;0.9229;
600.6000;0.4835;0.9083;
600.9000;0.4835;0.9058;
601.2000;0.4819;0.9010;
601.5000;0.4794;0.8912;
601.8000;0.4762;0.8815;
602.1000;0.4713;0.8571;
602.4000;0.4721;0.8474;
602.7000;0.4705;0.8279;
603.0000;0.4689;0.8182;
603.3000;0.4648;0.7914;
603.6000;0.4648;0.7865;
603.9000;0.4648;0.7816;
604.2000;0.4599;0.7719;
604.5000;0.4599;0.7622;
604.8000;0.4583;0.7597;
605.1000;0.4542;0.7524;
605.4000;0.4550;0.7549;
605.7000;0.4534;0.7524;
606.0000;0.4510;0.7427;
606.3000;0.4501;0.7402;
606.6000;0.4526;0.7402;
606.9000;0.4453;0.7208;
607.2000;0.4461;0.7208;
607.5000;0.4444;0.7159;
607.8000;0.4444;0.7135;
608.1000;0.4428;0.7183;
608.4000;0.4420;0.7159;
608.7000;0.4412;0.7037;
609.0000;0.4412;0.7037;
609.3000;0.4396;0.7062;
609.6000;0.4387;0.6988;
609.9000;0.4387;0.7013;
610.2000;0.4387;0.7037;
610.5000;0.4387;0.7013;
610.8000;0.4347;0.6915;
611.1000;0.4371;0.6915;
611.4000;0.4355;0.6842;
611.7000;0.4355;0.6915;
612.0000;0.4330;0.6867;
612.3000;0.4330;0.6818;
612.6000;0.4322;0.6867;
612.9000;0.4347;0.6891;
613.2000;0.4306;0.6867;
613.5000;0.4192;0.6575;
613.8000;0.4290;0.6915;
614.1000;0.4387;0.7086;
614.4000;0.4282;0.6794;
614.7000;0.4265;0.6745;
615.0000;0.4265;0.6721;
615.3000;0.4274;0.6794;
615.6000;0.4282;0.6915;
615.9000;0.4249;0.6794;
616.2000;0.4249;0.6696;
616.5000;0.4241;0.6672;
616.8000;0.4217;0.6672;
617.1000;0.4241;0.6794;
617.4000;0.4233;0.6769;
617.7000;0.4200;0.6623;
618.0000;0.4217;0.6696;
618.3000;0.4200;0.6599;
618.6000;0.4200;0.6599;
618.9000;0.4241;0.6721;
619.2000;0.4143;0.6501;
619.5000;0.4200;0.6599;
619.8000;0.4265;0.6915;
620.1000;0.4168;0.6623;
620.4000;0.4160;0.6599;
620.7000;0.4200;0.6769;
621.0000;0.4127;0.6648;
621.3000;0.4151;0.6891;
621.6000;0.4119;0.6940;
621.9000;0.4160;0.7086;
622.2000;0.4143;0.6988;
622.5000;0.4135;0.6988;
622.8000;0.4135;0.6867;
623.1000;0.4119;0.6745;
623.4000;0.4192;0.6867;
623.7000;0.4111;0.6623;
624.0000;0.4119;0.6550;
624.3000;0.4103;0.6623;
624.6000;0.4094;0.6745;
624.9000;0.4086;0.6769;
625.2000;0.4119;0.6818;
625.5000;0.4086;0.6721;
625.8000;0.4094;0.6769;
626.1000;0.4078;0.6672;
626.4000;0.4046;0.6550;
626.7000;0.4062;0.6526;
627.0000;0.4078;0.6526;
627.3000;0.4054;0.6501;
627.6000;0.3989;0.6307;
627.9000;0.4078;0.6575;
628.2000;0.4070;0.6623;
628.5000;0.4078;0.6672;
628.8000;0.4046;0.6599;
629.1000;0.4078;0.6769;
629.4000;0.4070;0.6818;
629.7000;0.4070;0.6818;
630.0000;0.4070;0.6988;
630.3000;0.4029;0.6842;
630.6000;0.4037;0.6915;
630.9000;0.4029;0.6940;
631.2000;0.4054;0.6964;
631.5000;0.4021;0.6818;
631.8000;0.4021;0.6891;
632.1000;0.4013;0.6769;
632.4000;0.4005;0.6672;
632.7000;0.3989;0.6501;
633.0000;0.3980;0.6550;
633.3000;0.3997;0.6623;
633.6000;0.3989;0.6648;
633.9000;0.4005;0.6648;
634.2000;0.3997;0.6599;
634.5000;0.4005;0.6721;
634.8000;0.3964;0.6648;
635.1000;0.3997;0.6769;
635.4000;0.3940;0.6623;
635.7000;0.3997;0.6769;
636.0000;0.3997;0.6794;
636.3000;0.3964;0.6769;
636.6000;0.3989;0.6794;
636.9000;0.4078;0.7062;
637.2000;0.4013;0.6940;
637.5000;0.3956;0.6721;
637.8000;0.3875;0.6428;
638.1000;0.4005;0.6696;
638.4000;0.3972;0.6599;
638.7000;0.3956;0.6575;
639.0000;0.3980;0.6599;
639.3000;0.4005;0.6648;
639.6000;0.3964;0.6575;
639.9000;0.3956;0.6526;
640.2000;0.3989;0.6526;
640.5000;0.3964;0.6453;
640.8000;0.3980;0.6453;
641.1000;0.3964;0.6477;
641.4000;0.3956;0.6575;
641.7000;0.3932;0.6526;
642.0000;0.3964;0.6575;
642.3000;0.3956;0.6575;
642.6000;0.3948;0.6550;
642.9000;0.3923;0.6550;
643.2000;0.3932;0.6623;
643.5000;0.3923;0.6575;
643.8000;0.3989;0.6769;
644.1000;0.3932;0.6672;
644.4000;0.3940;0.6769;
644.7000;0.3907;0.6696;
645.0000;0.3810;0.6404;
645.3000;0.4005;0.6842;
645.6000;0.3932;0.6696;
645.9000;0.3932;0.6623;
646.2000;0.3923;0.6599;
646.5000;0.3915;0.6623;
646.8000;0.3907;0.6648;
647.1000;0.3907;0.6623;
647.4000;0.3899;0.6623;
647.7000;0.3932;0.6696;
648.0000;0.3850;0.6526;
648.3000;0.3891;0.6599;
648.6000;0.3891;0.6648;
648.9000;0.3891;0.6672;
649.2000;0.3899;0.6648;
649.5000;0.3907;0.6599;
649.8000;0.3891;0.6623;
650.1000;0.3891;0.6623;
650.4000;0.3907;0.6648;
650.7000;0.3915;0.6648;
651.0000;0.3891;0.6672;
651.3000;0.3875;0.6599;
651.6000;0.3899;0.6672;
651.9000;0.3875;0.6599;
652.2000;0.3883;0.6575;
652.5000;0.3875;0.6477;
652.8000;0.3891;0.6453;
653.1000;0.3875;0.6428;
653.4000;0.3883;0.6550;
653.7000;0.3883;0.6550;
654.0000;0.3899;0.6575;
654.3000;0.3883;0.6575;
654.6000;0.3867;0.6526;
654.9000;0.3867;0.6477;
655.2000;0.3875;0.6477;
655.5000;0.3867;0.6501;
655.8000;0.3883;0.6477;
656.1000;0.3883;0.6477;
656.4000;0.3915;0.6599;
656.7000;0.3867;0.6550;
657.0000;0.3875;0.6648;
657.3000;0.3867;0.6623;
657.6000;0.3867;0.6623;
657.9000;0.3858;0.6623;
658.2000;0.3850;0.6575;
658.5000;0.3858;0.6648;
658.8000;0.3867;0.6696;
659.1000;0.3850;0.6769;
659.4000;0.3842;0.6648;
659.7000;0.3850;0.6550;
660.0000;0.3850;0.6599;
660.3000;0.3858;0.6599;
660.6000;0.3850;0.6623;
660.9000;0.3850;0.6599;
661.2000;0.3818;0.6575;
661.5000;0.3826;0.6672;
661.8000;0.3834;0.6696;
662.1000;0.3818;0.6648;
662.4000;0.3818;0.6721;
662.7000;0.3810;0.6648;
663.0000;0.3826;0.6672;
663.3000;0.3818;0.6648;
663.6000;0.3810;0.6599;
663.9000;0.3810;0.6599;
664.2000;0.3956;0.6988;
664.5000;0.3842;0.6648;
664.8000;0.3842;0.6721;
665.1000;0.3858;0.6769;
665.4000;0.3842;0.6769;
665.7000;0.3810;0.6745;
666.0000;0.3834;0.6818;
666.3000;0.3834;0.6867;
666.6000;0.3875;0.7013;
666.9000;0.3826;0.6964;
667.2000;0.3793;0.6818;
667.5000;0.3818;0.6842;
667.8000;0.3801;0.6818;
668.1000;0.3793;0.6794;
668.4000;0.3793;0.6794;
668.7000;0.3834;0.6818;
669.0000;0.3785;0.6696;
669.3000;0.3818;0.6769;
669.6000;0.3801;0.6599;
669.9000;0.3826;0.6648;
670.2000;0.3850;0.6721;
670.5000;0.3810;0.6575;
670.8000;0.3810;0.6599;
671.1000;0.3769;0.6477;
671.4000;0.3818;0.6672;
671.7000;0.3834;0.6745;
672.0000;0.3826;0.6623;
672.3000;0.3810;0.6575;
672.6000;0.3826;0.6575;
672.9000;0.3818;0.6575;
673.2000;0.3834;0.6575;
673.5000;0.3793;0.6477;
673.8000;0.3801;0.6477;
674.1000;0.3818;0.6501;
674.4000;0.3810;0.6550;
674.7000;0.3785;0.6453;
675.0000;0.3818;0.6623;
675.3000;0.3810;0.6550;
675.6000;0.3826;0.6623;
675.9000;0.3810;0.6721;
676.2000;0.3801;0.6696;
676.5000;0.3777;0.6648;
676.8000;0.3801;0.6769;
677.1000;0.3769;0.6575;
677.4000;0.3777;0.6623;
677.7000;0.3801;0.6623;
678.0000;0.3793;0.6648;
678.3000;0.3793;0.6550;
678.6000;0.3793;0.6672;
678.9000;0.3769;0.6599;
679.2000;0.3777;0.6648;
679.5000;0.3736;0.6648;
679.8000;0.3785;0.6745;
680.1000;0.3793;0.6769;
680.4000;0.3801;0.6769;
680.7000;0.3769;0.6648;
681.0000;0.3785;0.6745;
681.3000;0.3753;0.6648;
681.6000;0.3785;0.6623;
681.9000;0.3744;0.6526;
682.2000;0.3801;0.6672;
682.5000;0.3785;0.6696;
682.8000;0.3777;0.6745;
683.1000;0.3769;0.6794;
683.4000;0.3777;0.6842;
683.7000;0.3793;0.6818;
684.0000;0.3842;0.6842;
684.3000;0.3810;0.6769;
684.6000;0.3777;0.6745;
684.9000;0.3753;0.6745;
685.2000;0.3777;0.6842;
685.5000;0.3696;0.6599;
685.8000;0.3704;0.6648;
686.1000;0.3777;0.6794;
686.4000;0.3761;0.6769;
686.7000;0.3736;0.6696;
687.0000;0.3769;0.6867;
687.3000;0.3826;0.7013;
687.6000;0.3704;0.6648;
687.9000;0.3883;0.7135;
688.2000;0.3810;0.6842;
688.5000;0.3793;0.6867;
688.8000;0.3818;0.7086;
689.1000;0.3761;0.6940;
689.4000;0.3736;0.6818;
689.7000;0.3777;0.6940;
690.0000;0.3753;0.6818;
690.3000;0.3769;0.6867;
690.6000;0.3696;0.6794;
690.9000;0.3753;0.6818;
691.2000;0.3753;0.6818;
691.5000;0.3736;0.6745;
691.8000;0.3769;0.6818;
692.1000;0.3753;0.6794;
692.4000;0.3761;0.6867;
692.7000;0.3753;0.6745;
693.0000;0.3753;0.6818;
693.3000;0.3744;0.6891;
693.6000;0.3744;0.6988;
693.9000;0.3761;0.7013;
694.2000;0.3704;0.6745;
694.5000;0.3753;0.6867;
694.8000;0.3720;0.6769;
695.1000;0.3728;0.6769;
695.4000;0.3744;0.6745;
695.7000;0.3736;0.6721;
696.0000;0.3744;0.6769;
696.3000;0.3761;0.6842;
696.6000;0.3744;0.6794;
696.9000;0.3753;0.6818;
697.2000;0.3728;0.6794;
697.5000;0.3736;0.6842;
697.8000;0.3736;0.6891;
698.1000;0.3736;0.6794;
698.4000;0.3753;0.6818;
698.7000;0.3712;0.6696;
699.0000;0.3744;0.6769;
699.3000;0.3785;0.6915;
699.6000;0.3736;0.6794;
699.9000;0.3744;0.6818;
700.2000;0.3744;0.6745;
700.5000;0.3728;0.6696;
700.8000;0.3736;0.6648;
701.1000;0.3736;0.6575;
701.4000;0.3744;0.6599;
701.7000;0.3696;0.6428;
702.0000;0.3753;0.6550;
702.3000;0.3744;0.6477;
702.6000;0.3785;0.6599;
702.9000;0.3712;0.6380;
703.2000;0.3761;0.6477;
703.5000;0.3736;0.6477;
703.8000;0.3736;0.6477;
704.1000;0.3687;0.6477;
704.4000;0.3793;0.6769;
704.7000;0.3736;0.6623;
705.0000;0.3687;0.6501;
705.3000;0.3744;0.6672;
705.6000;0.3761;0.6745;
705.9000;0.3696;0.6550;
706.2000;0.3753;0.6648;
706.5000;0.3744;0.6623;
706.8000;0.3720;0.6696;
707.1000;0.3810;0.6915;
707.4000;0.3744;0.6745;
707.7000;0.3744;0.6721;
708.0000;0.3704;0.6745;
708.3000;0.3728;0.6818;
708.6000;0.3720;0.6769;
708.9000;0.3720;0.6721;
709.2000;0.3736;0.6794;
709.5000;0.3720;0.6769;
709.8000;0.3704;0.6867;
710.1000;0.3712;0.6867;
710.4000;0.3728;0.6915;
710.7000;0.3720;0.6891;
711.0000;0.3712;0.6818;
711.3000;0.3704;0.6721;
711.6000;0.3704;0.6721;
711.9000;0.3696;0.6721;
712.2000;0.3728;0.6842;
712.5000;0.3736;0.6818;
712.8000;0.3728;0.6842;
713.1000;0.3728;0.6794;
713.4000;0.3720;0.6794;
713.7000;0.3769;0.6891;
714.0000;0.3736;0.6794;
714.3000;0.3712;0.6769;
714.6000;0.3720;0.6818;
714.9000;0.3728;0.6769;
715.2000;0.3728;0.6721;
715.5000;0.3728;0.6672;
715.8000;0.3696;0.6696;
716.1000;0.3720;0.6769;
716.4000;0.3696;0.6648;
716.7000;0.3728;0.6648;
717.0000;0.3704;0.6648;
717.3000;0.3704;0.6721;
717.6000;0.3736;0.6769;
717.9000;0.3647;0.6550;
718.2000;0.3720;0.6745;
718.5000;0.3712;0.6794;
718.8000;0.3728;0.6745;
719.1000;0.3728;0.6745;
719.4000;0.3704;0.6721;
719.7000;0.3712;0.6818;
720.0000;0.3712;0.6842;
720.3000;0.3696;0.6794;
720.6000;0.3720;0.6745;
720.9000;0.3728;0.6745;
721.2000;0.3761;0.6915;
721.5000;0.3728;0.6745;
721.8000;0.3736;0.6623;
722.1000;0.3728;0.6648;
722.4000;0.3736;0.6721;
722.7000;0.3720;0.6721;
723.0000;0.3712;0.6696;
723.3000;0.3704;0.6648;
723.6000;0.3744;0.6769;
723.9000;0.3696;0.6672;
724.2000;0.3720;0.6672;
724.5000;0.3720;0.6769;
724.8000;0.3720;0.6794;
725.1000;0.3720;0.6794;
725.4000;0.3728;0.6842;
725.7000;0.3712;0.6818;
726.0000;0.3720;0.6818;
726.3000;0.3753;0.6915;
726.6000;0.3728;0.6794;
726.9000;0.3712;0.6648;
727.2000;0.3704;0.6696;
727.5000;0.3704;0.6696;
727.8000;0.3687;0.6672;
728.1000;0.3720;0.6745;
728.4000;0.3720;0.6867;
728.7000;0.3753;0.6891;
729.0000;0.3712;0.6818;
729.3000;0.3712;0.6672;
729.6000;0.3704;0.6648;
729.9000;0.3663;0.6526;
730.2000;0.3712;0.6550;
730.5000;0.3712;0.6526;
730.8000;0.3696;0.6477;
731.1000;0.3712;0.6501;
731.4000;0.3704;0.6599;
731.7000;0.3696;0.6672;
732.0000;0.3704;0.6599;
732.3000;0.3687;0.6575;
732.6000;0.3704;0.6623;
732.9000;0.3801;0.6867;
733.2000;0.3704;0.6599;
733.5000;0.3696;0.6672;
733.8000;0.3704;0.6672;
734.1000;0.3696;0.6648;
734.4000;0.3736;0.6769;
734.7000;0.3687;0.6769;
735.0000;0.3696;0.6721;
735.3000;0.3679;0.6623;
735.6000;0.3704;0.6721;
735.9000;0.3696;0.6648;
736.2000;0.3712;0.6599;
736.5000;0.3704;0.6599;
736.8000;0.3777;0.6867;
737.1000;0.3696;0.6696;
737.4000;0.3647;0.6575;
737.7000;0.3655;0.6550;
738.0000;0.3704;0.6745;
738.3000;0.3728;0.6769;
738.6000;0.3704;0.6648;
738.9000;0.3712;0.6599;
739.2000;0.3712;0.6599;
739.5000;0.3712;0.6575;
739.8000;0.3704;0.6526;
740.1000;0.3679;0.6477;
740.4000;0.3687;0.6477;
740.7000;0.3671;0.6307;
741.0000;0.3687;0.6380;
741.3000;0.3696;0.6501;
741.6000;0.3704;0.6477;
741.9000;0.3696;0.6380;
742.2000;0.3696;0.6550;
742.5000;0.3704;0.6599;
742.8000;0.3679;0.6672;
743.1000;0.3704;0.6648;
743.4000;0.3777;0.6745;
743.7000;0.3704;0.6526;
744.0000;0.3687;0.6599;
744.3000;0.3582;0.6355;
744.6000;0.3704;0.6623;
744.9000;0.3687;0.6599;
745.2000;0.3704;0.6599;
745.5000;0.3687;0.6648;
745.8000;0.3696;0.6648;
746.1000;0.3671;0.6550;
746.4000;0.3687;0.6550;
746.7000;0.3720;0.6648;
747.0000;0.3679;0.6550;
747.3000;0.3744;0.6769;
747.6000;0.3687;0.6648;
747.9000;0.3712;0.6599;
748.2000;0.3704;0.6599;
748.5000;0.3687;0.6575;
748.8000;0.3687;0.6599;
749.1000;0.3704;0.6696;
749.4000;0.3582;0.6428;
749.7000;0.3712;0.6696;
750.0000;0.3687;0.6648;
750.3000;0.3671;0.6575;
750.6000;0.3704;0.6672;
750.9000;0.3687;0.6745;
751.2000;0.3687;0.6696;
751.5000;0.3712;0.6672;
751.8000;0.3712;0.6648;
752.1000;0.3687;0.6550;
752.4000;0.3696;0.6575;
752.7000;0.3679;0.6526;
753.0000;0.3671;0.6477;
753.3000;0.3736;0.6599;
753.6000;0.3696;0.6575;
753.9000;0.3704;0.6623;
754.2000;0.3704;0.6672;
754.5000;0.3687;0.6623;
754.8000;0.3614;0.6477;
755.1000;0.3696;0.6672;
755.4000;0.3679;0.6623;
755.7000;0.3671;0.6672;
756.0000;0.3679;0.6623;
756.3000;0.3679;0.6623;
756.6000;0.3671;0.6623;
756.9000;0.3704;0.6672;
757.2000;0.3687;0.6648;
757.5000;0.3679;0.6599;
757.8000;0.3671;0.6550;
758.1000;0.3687;0.6672;
758.4000;0.3696;0.6648;
758.7000;0.3679;0.6623;
759.0000;0.3687;0.6672;
759.3000;0.3712;0.6721;
759.6000;0.3679;0.6696;
759.9000;0.3696;0.6672;
760.2000;0.3687;0.6769;
760.5000;0.3671;0.6769;
760.8000;0.3679;0.6623;
761.1000;0.3687;0.6648;
761.4000;0.3679;0.6696;
761.7000;0.3679;0.6599;
762.0000;0.3687;0.6672;
762.3000;0.3687;0.6721;
762.6000;0.3687;0.6721;
762.9000;0.3679;0.6648;
763.2000;0.3696;0.6721;
763.5000;0.3712;0.6672;
763.8000;0.3687;0.6575;
764.1000;0.3671;0.6575;
764.4000;0.3679;0.6623;
764.7000;0.3687;0.6550;
765.0000;0.3687;0.6526;
765.3000;0.3687;0.6575;
765.6000;0.3679;0.6599;
765.9000;0.3671;0.6526;
766.2000;0.3647;0.6477;
766.5000;0.3639;0.6526;
766.8000;0.3671;0.6599;
767.1000;0.3696;0.6623;
767.4000;0.3712;0.6696;
767.7000;0.3687;0.6648;
768.0000;0.3687;0.6599;
768.3000;0.3679;0.6599;
768.6000;0.3687;0.6575;
768.9000;0.3687;0.6623;
769.2000;0.3679;0.6623;
769.5000;0.3728;0.6769;
769.8000;0.3687;0.6623;
770.1000;0.3687;0.6623;
770.4000;0.3687;0.6721;
770.7000;0.3679;0.6794;
771.0000;0.3679;0.6769;
771.3000;0.3671;0.6745;
771.6000;0.3663;0.6745;
771.9000;0.3671;0.6769;
772.2000;0.3679;0.6769;
772.5000;0.3679;0.6794;
772.8000;0.3671;0.6721;
773.1000;0.3655;0.6696;
773.4000;0.3671;0.6745;
773.7000;0.3687;0.6794;
774.0000;0.3687;0.6818;
774.3000;0.3696;0.6818;
774.6000;0.3696;0.6769;
774.9000;0.3696;0.6769;
775.2000;0.3687;0.6794;
775.5000;0.3679;0.6769;
775.8000;0.3663;0.6769;
776.1000;0.3679;0.6769;
776.4000;0.3671;0.6867;
776.7000;0.3679;0.6818;
777.0000;0.3663;0.6842;
777.3000;0.3671;0.6940;
777.6000;0.3687;0.6940;
777.9000;0.3614;0.6672;
778.2000;0.3663;0.6867;
778.5000;0.3671;0.6842;
778.8000;0.3679;0.6891;
779.1000;0.3687;0.6818;
779.4000;0.3679;0.6818;
779.7000;0.3679;0.6696;
780.0000;0.3671;0.6721;
780.3000;0.3671;0.6721;
780.6000;0.3679;0.6769;
780.9000;0.3671;0.6769;
781.2000;0.3679;0.6769;
781.5000;0.3671;0.6842;
781.8000;0.3671;0.6891;
782.1000;0.3663;0.6940;
782.4000;0.3687;0.6964;
782.7000;0.3671;0.6964;
783.0000;0.3671;0.6842;
783.3000;0.3663;0.6721;
783.6000;0.3704;0.6769;
783.9000;0.3639;0.6696;
784.2000;0.3728;0.6964;
784.5000;0.3622;0.6721;
784.8000;0.3663;0.6842;
785.1000;0.3679;0.6769;
785.4000;0.3712;0.6915;
785.7000;0.3671;0.6769;
786.0000;0.3671;0.6721;
786.3000;0.3639;0.6599;
786.6000;0.3679;0.6721;
786.9000;0.3687;0.6696;
787.2000;0.3687;0.6672;
787.5000;0.3687;0.6575;
787.8000;0.3671;0.6599;
788.1000;0.3679;0.6672;
788.4000;0.3663;0.6672;
788.7000;0.3671;0.6721;
789.0000;0.3671;0.6696;
789.3000;0.3663;0.6672;
789.6000;0.3671;0.6696;
789.9000;0.3663;0.6672;
790.2000;0.3671;0.6696;
790.5000;0.3696;0.6769;
790.8000;0.3663;0.6769;
791.1000;0.3679;0.6794;
791.4000;0.3655;0.6769;
791.7000;0.3687;0.6867;
792.0000;0.3655;0.6745;
792.3000;0.3647;0.6696;
792.6000;0.3679;0.6721;
792.9000;0.3671;0.6648;
793.2000;0.3687;0.6794;
793.5000;0.3679;0.6721;
793.8000;0.3671;0.6745;
794.1000;0.3647;0.6721;
794.4000;0.3671;0.6696;
794.7000;0.3647;0.6696;
795.0000;0.3687;0.6623;
795.3000;0.3704;0.6648;
795.6000;0.3663;0.6648;
795.9000;0.3663;0.6599;
796.2000;0.3655;0.6696;
796.5000;0.3679;0.6745;
796.8000;0.3712;0.6842;
797.1000;0.3671;0.6867;
797.4000;0.3671;0.6867;
797.7000;0.3687;0.6940;
798.0000;0.3687;0.6964;
798.3000;0.3720;0.7037;
798.6000;0.3679;0.6867;
798.9000;0.3720;0.6940;
799.2000;0.3663;0.6867;
799.5000;0.3671;0.6867;
799.8000;0.3679;0.6842;
800.1000;0.3598;0.6648;
800.4000;0.3679;0.6842;
800.7000;0.3671;0.6794;
801.0000;0.3663;0.6599;
801.3000;0.3663;0.6648;
801.6000;0.3687;0.6794;
801.9000;0.3663;0.6721;
802.2000;0.3647;0.6623;
802.5000;0.3671;0.6696;
802.8000;0.3671;0.6769;
803.1000;0.3671;0.6769;
803.4000;0.3687;0.6818;
803.7000;0.3671;0.6794;
804.0000;0.3687;0.6891;
804.3000;0.3679;0.6842;
804.6000;0.3679;0.6940;
804.9000;0.3647;0.6964;
805.2000;0.3655;0.6915;
805.5000;0.3655;0.6915;
805.8000;0.3663;0.6915;
806.1000;0.3671;0.6867;
806.4000;0.3639;0.6721;
806.7000;0.3679;0.6915;
807.0000;0.3679;0.6988;
807.3000;0.3671;0.7159;
807.6000;0.3704;0.7208;
807.9000;0.3655;0.6988;
808.2000;0.3679;0.7062;
808.5000;0.3590;0.6818;
808.8000;0.3679;0.6964;
809.1000;0.3687;0.6915;
809.4000;0.3687;0.6915;
809.7000;0.3663;0.6794;
810.0000;0.3671;0.6794;
810.3000;0.3679;0.6818;
810.6000;0.3704;0.6915;
810.9000;0.3647;0.6867;
811.2000;0.3655;0.6769;
811.5000;0.3663;0.6721;
811.8000;0.3663;0.6648;
812.1000;0.3663;0.6745;
812.4000;0.3671;0.6696;
812.7000;0.3655;0.6721;
813.0000;0.3671;0.6745;
813.3000;0.3663;0.6794;
813.6000;0.3663;0.6794;
813.9000;0.3679;0.6842;
814.2000;0.3671;0.6842;
814.5000;0.3679;0.6842;
814.8000;0.3687;0.6794;
815.1000;0.3671;0.6696;
815.4000;0.3663;0.6623;
815.7000;0.3679;0.6696;
816.0000;0.3655;0.6696;
816.3000;0.3671;0.6745;
816.6000;0.3663;0.6672;
816.9000;0.3663;0.6818;
817.2000;0.3655;0.6867;
817.5000;0.3671;0.7013;
817.8000;0.3671;0.6964;
818.1000;0.3655;0.6964;
818.4000;0.3655;0.7037;
818.7000;0.3647;0.6867;
819.0000;0.3687;0.6867;
819.3000;0.3679;0.6891;
819.6000;0.3687;0.6940;
819.9000;0.3671;0.6915;
820.2000;0.3647;0.6818;
820.5000;0.3671;0.6867;
820.8000;0.3663;0.6842;
821.1000;0.3671;0.6891;
821.4000;0.3671;0.6915;
821.7000;0.3655;0.6915;
822.0000;0.3687;0.6915;
822.3000;0.3647;0.6842;
822.6000;0.3655;0.6842;
822.9000;0.3647;0.6745;
823.2000;0.3679;0.6842;
823.5000;0.3696;0.6842;
823.8000;0.3793;0.6964;
824.1000;0.3679;0.6745;
824.4000;0.3687;0.6575;
824.7000;0.3687;0.6526;
825.0000;0.3671;0.6550;
825.3000;0.3679;0.6599;
825.6000;0.3655;0.6672;
825.9000;0.3655;0.6818;
826.2000;0.3647;0.6721;
826.5000;0.3663;0.6745;
826.8000;0.3663;0.6745;
827.1000;0.3663;0.6721;
827.4000;0.3663;0.6721;
827.7000;0.3647;0.6672;
828.0000;0.3663;0.6745;
828.3000;0.3647;0.6794;
828.6000;0.3663;0.6891;
828.9000;0.3679;0.6915;
829.2000;0.3663;0.6988;
829.5000;0.3606;0.6794;
829.8000;0.3671;0.6964;
830.1000;0.3647;0.6940;
830.4000;0.3655;0.6891;
830.7000;0.3679;0.6915;
831.0000;0.3655;0.6915;
831.3000;0.3663;0.6915;
831.6000;0.3671;0.6915;
831.9000;0.3679;0.6988;
832.2000;0.3655;0.6915;
832.5000;0.3671;0.6867;
832.8000;0.3663;0.6818;
833.1000;0.3647;0.6794;
833.4000;0.3663;0.6818;
833.7000;0.3671;0.6769;
834.0000;0.3647;0.6769;
834.3000;0.3671;0.6842;
834.6000;0.3687;0.6891;
834.9000;0.3671;0.6842;
835.2000;0.3598;0.6599;
835.5000;0.3663;0.6794;
835.8000;0.3679;0.6818;
836.1000;0.3671;0.6794;
836.4000;0.3671;0.6842;
836.7000;0.3728;0.7013;
837.0000;0.3549;0.6526;
837.3000;0.3679;0.6867;
837.6000;0.3663;0.6891;
837.9000;0.3663;0.6891;
838.2000;0.3655;0.6915;
838.5000;0.3671;0.6891;
838.8000;0.3671;0.6867;
839.1000;0.3663;0.6842;
839.4000;0.3671;0.6842;
839.7000;0.3720;0.6964;
840.0000;0.3671;0.6721;
840.3000;0.3663;0.6672;
840.6000;0.3639;0.6672;
840.9000;0.3671;0.6769;
841.2000;0.3679;0.6769;
841.5000;0.3679;0.6769;
841.8000;0.3679;0.6818;
842.1000;0.3655;0.6672;
842.4000;0.3655;0.6769;
842.7000;0.3639;0.6623;
843.0000;0.3679;0.6818;
843.3000;0.3663;0.6769;
843.6000;0.3655;0.6842;
843.9000;0.3679;0.7013;
844.2000;0.3679;0.7013;
844.5000;0.3671;0.6842;
844.8000;0.3647;0.6721;
845.1000;0.3630;0.6721;
845.4000;0.3671;0.6794;
845.7000;0.3671;0.6818;
846.0000;0.3655;0.6769;
846.3000;0.3671;0.6842;
846.6000;0.3663;0.6794;
846.9000;0.3696;0.6915;
847.2000;0.3614;0.6672;
847.5000;0.3671;0.6818;
847.8000;0.3736;0.7086;
848.1000;0.3655;0.6915;
848.4000;0.3639;0.6891;
848.7000;0.3679;0.6964;
849.0000;0.3663;0.6915;
849.3000;0.3655;0.6940;
849.6000;0.3655;0.6867;
849.9000;0.3663;0.6818;
850.2000;0.3639;0.6672;
850.5000;0.3663;0.6745;
850.8000;0.3655;0.6794;
851.1000;0.3671;0.6818;
851.4000;0.3655;0.6915;
851.7000;0.3704;0.7086;
852.0000;0.3655;0.6915;
852.3000;0.3647;0.6794;
852.6000;0.3639;0.6769;
852.9000;0.3728;0.6940;
853.2000;0.3655;0.6769;
853.5000;0.3647;0.6769;
853.8000;0.3671;0.6867;
854.1000;0.3663;0.6769;
854.4000;0.3736;0.6940;
854.7000;0.3647;0.6818;
855.0000;0.3647;0.6794;
855.3000;0.3663;0.6891;
855.6000;0.3630;0.6696;
855.9000;0.3655;0.6769;
856.2000;0.3663;0.6745;
856.5000;0.3647;0.6648;
856.8000;0.3663;0.6745;
857.1000;0.3647;0.6794;
857.4000;0.3639;0.6648;
857.7000;0.3744;0.6915;
858.0000;0.3655;0.6696;
858.3000;0.3671;0.6794;
858.6000;0.3663;0.6794;
858.9000;0.3663;0.6867;
859.2000;0.3663;0.6842;
859.5000;0.3647;0.6842;
859.8000;0.3663;0.6891;
860.1000;0.3671;0.6915;
860.4000;0.3582;0.6623;
860.7000;0.3679;0.6842;
861.0000;0.3696;0.6964;
861.3000;0.3663;0.6891;
861.6000;0.3671;0.6915;
861.9000;0.3655;0.6867;
862.2000;0.3614;0.6867;
862.5000;0.3663;0.6891;
862.8000;0.3671;0.6818;
863.1000;0.3647;0.6672;
863.4000;0.3647;0.6672;
863.7000;0.3663;0.6769;
864.0000;0.3663;0.6818;
864.3000;0.3655;0.6769;
864.6000;0.3663;0.6696;
864.9000;0.3655;0.6648;
865.2000;0.3728;0.6842;
865.5000;0.3696;0.6745;
865.8000;0.3647;0.6721;
866.1000;0.3655;0.6794;
866.4000;0.3622;0.6794;
866.7000;0.3679;0.6940;
867.0000;0.3647;0.6794;
867.3000;0.3655;0.6867;
867.6000;0.3647;0.6964;
867.9000;0.3639;0.6940;
868.2000;0.3671;0.6964;
868.5000;0.3663;0.6964;
868.8000;0.3630;0.6915;
869.1000;0.3655;0.6964;
869.4000;0.3671;0.6988;
869.7000;0.3663;0.7013;
870.0000;0.3663;0.7013;
870.3000;0.3671;0.7062;
870.6000;0.3663;0.7037;
870.9000;0.3655;0.7037;
871.2000;0.3647;0.7062;
871.5000;0.3671;0.7159;
871.8000;0.3639;0.7013;
872.1000;0.3671;0.7062;
872.4000;0.3655;0.6988;
872.7000;0.3655;0.6988;
873.0000;0.3663;0.6964;
873.3000;0.3671;0.7013;
873.6000;0.3647;0.6915;
873.9000;0.3671;0.6988;
874.2000;0.3679;0.7013;
874.5000;0.3655;0.6915;
874.8000;0.3663;0.6964;
875.1000;0.3663;0.6988;
875.4000;0.3663;0.6988;
875.7000;0.3663;0.6940;
876.0000;0.3639;0.6818;
876.3000;0.3671;0.6842;
876.6000;0.3598;0.6672;
876.9000;0.3630;0.6648;
877.2000;0.3671;0.6794;
877.5000;0.3630;0.6794;
877.8000;0.3647;0.6891;
878.1000;0.3655;0.6988;
878.4000;0.3630;0.6964;
878.7000;0.3639;0.6988;
879.0000;0.3647;0.6940;
879.3000;0.3663;0.7013;
879.6000;0.3639;0.6964;
879.9000;0.3663;0.6988;
880.2000;0.3630;0.6818;
880.5000;0.3671;0.6915;
880.8000;0.3671;0.6915;
881.1000;0.3671;0.6891;
881.4000;0.3647;0.6769;
881.7000;0.3679;0.6842;
882.0000;0.3671;0.6915;
882.3000;0.3687;0.6964;
882.6000;0.3671;0.6940;
882.9000;0.3663;0.6891;
883.2000;0.3712;0.6915;
883.5000;0.3671;0.6867;
883.8000;0.3663;0.6794;
884.1000;0.3663;0.6818;
884.4000;0.3696;0.6867;
884.7000;0.3655;0.6721;
885.0000;0.3712;0.6915;
885.3000;0.3630;0.6818;
885.6000;0.3663;0.6818;
885.9000;0.3663;0.6915;
886.2000;0.3655;0.6915;
886.5000;0.3655;0.6842;
886.8000;0.3655;0.6915;
887.1000;0.3663;0.6940;
887.4000;0.3639;0.6891;
887.7000;0.3630;0.6842;
888.0000;0.3630;0.6867;
888.3000;0.3582;0.6721;
888.6000;0.3671;0.7037;
888.9000;0.3655;0.6964;
889.2000;0.3712;0.7062;
889.5000;0.3655;0.6964;
889.8000;0.3663;0.6867;
890.1000;0.3647;0.6842;
890.4000;0.3671;0.6940;
890.7000;0.3663;0.6964;
891.0000;0.3630;0.6915;
891.3000;0.3655;0.6964;
891.6000;0.3647;0.6988;
891.9000;0.3663;0.7037;
892.2000;0.3655;0.7013;
892.5000;0.3639;0.6964;
892.8000;0.3655;0.6988;
893.1000;0.3655;0.6988;
893.4000;0.3639;0.6940;
893.7000;0.3639;0.6867;
894.0000;0.3663;0.7013;
894.3000;0.3647;0.6988;
894.6000;0.3679;0.7013;
894.9000;0.3655;0.7013;
895.2000;0.3696;0.7086;
895.5000;0.3679;0.6988;
895.8000;0.3663;0.7037;
896.1000;0.3720;0.7135;
896.4000;0.3655;0.6940;
896.7000;0.3671;0.6964;
897.0000;0.3679;0.6940;
897.3000;0.3671;0.6867;
897.6000;0.3704;0.7013;
897.9000;0.3671;0.6867;
898.2000;0.3647;0.6794;
898.5000;0.3655;0.6721;
898.8000;0.3573;0.6575;
899.1000;0.3671;0.6818;
899.4000;0.3663;0.6769;
899.7000;0.3582;0.6599;
900.0000;0.3663;0.6818;
900.3000;0.3647;0.6794;
900.6000;0.3639;0.6769;
900.9000;0.3647;0.6794;
901.2000;0.3671;0.6891;
901.5000;0.3639;0.6696;
901.8000;0.3639;0.6769;
902.1000;0.3671;0.6891;
902.4000;0.3639;0.6794;
902.7000;0.3663;0.6818;
903.0000;0.3647;0.6818;
903.3000;0.3639;0.6818;
903.6000;0.3639;0.6867;
903.9000;0.3647;0.6842;
904.2000;0.3639;0.6818;
904.5000;0.3671;0.6867;
904.8000;0.3647;0.6818;
905.1000;0.3663;0.6842;
905.4000;0.3663;0.6818;
905.7000;0.3655;0.6842;
906.0000;0.3671;0.6842;
906.3000;0.3671;0.6867;
906.6000;0.3671;0.6867;
906.9000;0.3663;0.6940;
907.2000;0.3704;0.7062;
907.5000;0.3639;0.6964;
907.8000;0.3663;0.7013;
908.1000;0.3647;0.7013;
908.4000;0.3704;0.7110;
908.7000;0.3663;0.7037;
909.0000;0.3671;0.6964;
909.3000;0.3647;0.6915;
909.6000;0.3655;0.6915;
909.9000;0.3687;0.6964;
910.2000;0.3728;0.7086;
910.5000;0.3614;0.6891;
910.8000;0.3655;0.6940;
911.1000;0.3630;0.6867;
911.4000;0.3655;0.6915;
911.7000;0.3663;0.6940;
912.0000;0.3663;0.6915;
912.3000;0.3671;0.7037;
912.6000;0.3647;0.6940;
912.9000;0.3630;0.6867;
913.2000;0.3639;0.6745;
913.5000;0.3655;0.6769;
913.8000;0.3655;0.6696;
914.1000;0.3590;0.6526;
914.4000;0.3655;0.6623;
914.7000;0.3663;0.6648;
915.0000;0.3614;0.6575;
915.3000;0.3671;0.6721;
915.6000;0.3565;0.6477;
915.9000;0.3582;0.6501;
916.2000;0.3639;0.6745;
916.5000;0.3655;0.6769;
916.8000;0.3655;0.6745;
917.1000;0.3639;0.6818;
917.4000;0.3655;0.6769;
917.7000;0.3639;0.6672;
918.0000;0.3663;0.6648;
918.3000;0.3687;0.6696;
918.6000;0.3630;0.6575;
918.9000;0.3647;0.6623;
919.2000;0.3663;0.6623;
919.5000;0.3663;0.6575;
919.8000;0.3712;0.6696;
920.1000;0.3639;0.6550;
920.4000;0.3679;0.6623;
920.7000;0.3614;0.6501;
921.0000;0.3728;0.6745;
921.3000;0.3655;0.6672;
921.6000;0.3671;0.6696;
921.9000;0.3655;0.6672;
922.2000;0.3655;0.6721;
922.5000;0.3655;0.6721;
922.8000;0.3663;0.6818;
923.1000;0.3655;0.6769;
923.4000;0.3647;0.6672;
923.7000;0.3655;0.6575;
924.0000;0.3671;0.6550;
924.3000;0.3630;0.6526;
924.6000;0.3655;0.6648;
924.9000;0.3639;0.6623;
925.2000;0.3639;0.6648;
925.5000;0.3647;0.6696;
925.8000;0.3639;0.6648;
926.1000;0.3639;0.6623;
926.4000;0.3671;0.6721;
926.7000;0.3655;0.6575;
927.0000;0.3647;0.6623;
927.3000;0.3639;0.6623;
927.6000;0.3647;0.6599;
927.9000;0.3647;0.6721;
928.2000;0.3663;0.6794;
928.5000;0.3647;0.6769;
928.8000;0.3647;0.6745;
929.1000;0.3647;0.6818;
929.4000;0.3647;0.6745;
929.7000;0.3639;0.6672;
930.0000;0.3614;0.6526;
930.3000;0.3647;0.6501;
930.6000;0.3655;0.6575;
930.9000;0.3671;0.6696;
931.2000;0.3679;0.6623;
931.5000;0.3647;0.6672;
931.8000;0.3655;0.6721;
932.1000;0.3622;0.6696;
932.4000;0.3630;0.6745;
932.7000;0.3622;0.6769;
933.0000;0.3647;0.6891;
933.3000;0.3622;0.6867;
933.6000;0.3663;0.6915;
933.9000;0.3663;0.6988;
934.2000;0.3573;0.6696;
934.5000;0.3647;0.6842;
934.8000;0.3630;0.6769;
935.1000;0.3630;0.6721;
935.4000;0.3647;0.6769;
935.7000;0.3704;0.6940;
936.0000;0.3696;0.6891;
936.3000;0.3639;0.6721;
936.6000;0.3622;0.6696;
936.9000;0.3671;0.6721;
937.2000;0.3630;0.6623;
937.5000;0.3655;0.6696;
937.8000;0.3639;0.6745;
938.1000;0.3639;0.6721;
938.4000;0.3663;0.6745;
938.7000;0.3663;0.6672;
939.0000;0.3614;0.6575;
939.3000;0.3647;0.6575;
939.6000;0.3712;0.6745;
939.9000;0.3630;0.6672;
940.2000;0.3655;0.6915;
940.5000;0.3663;0.6988;
940.8000;0.3696;0.7086;
941.1000;0.3687;0.7135;
941.4000;0.3671;0.7232;
941.7000;0.3671;0.7232;
942.0000;0.3606;0.7062;
942.3000;0.3663;0.7110;
942.6000;0.3671;0.7037;
942.9000;0.3639;0.6915;
943.2000;0.3663;0.7013;
943.5000;0.3671;0.7037;
943.8000;0.3655;0.7013;
944.1000;0.3565;0.6648;
944.4000;0.3630;0.6867;
944.7000;0.3663;0.6915;
945.0000;0.3639;0.6891;
945.3000;0.3655;0.6842;
945.6000;0.3663;0.6842;
945.9000;0.3639;0.6915;
946.2000;0.3663;0.7013;
946.5000;0.3630;0.6964;
946.8000;0.3647;0.7013;
947.1000;0.3647;0.7013;
947.4000;0.3647;0.6867;
947.7000;0.3639;0.6818;
948.0000;0.3655;0.6842;
948.3000;0.3671;0.6867;
948.6000;0.3655;0.6818;
948.9000;0.3647;0.6721;
949.2000;0.3647;0.6842;
949.5000;0.3712;0.7062;
949.8000;0.3663;0.6940;
950.1000;0.3647;0.6867;
950.4000;0.3639;0.6915;
950.7000;0.3663;0.6988;
951.0000;0.3655;0.7037;
951.3000;0.3655;0.7110;
951.6000;0.3704;0.7208;
951.9000;0.3647;0.7086;
952.2000;0.3655;0.7062;
952.5000;0.3663;0.7062;
952.8000;0.3639;0.6988;
953.1000;0.3630;0.6940;
953.4000;0.3663;0.6988;
953.7000;0.3639;0.6842;
954.0000;0.3647;0.6721;
954.3000;0.3655;0.6672;
954.6000;0.3606;0.6501;
954.9000;0.3647;0.6672;
955.2000;0.3663;0.6696;
955.5000;0.3663;0.6696;
955.8000;0.3655;0.6648;
956.1000;0.3647;0.6648;
956.4000;0.3639;0.6550;
956.7000;0.3663;0.6648;
957.0000;0.3663;0.6769;
957.3000;0.3679;0.7037;
957.6000;0.3663;0.6915;
957.9000;0.3663;0.6891;
958.2000;0.3655;0.6915;
958.5000;0.3639;0.6940;
958.8000;0.3630;0.6915;
959.1000;0.3630;0.6891;
959.4000;0.3622;0.6940;
959.7000;0.3647;0.6988;
960.0000;0.3655;0.6988;
960.3000;0.3630;0.6867;
960.6000;0.3622;0.6867;
960.9000;0.3655;0.6842;
961.2000;0.3663;0.6818;
961.5000;0.3663;0.6891;
961.8000;0.3614;0.6842;
962.1000;0.3647;0.6867;
962.4000;0.3655;0.7037;
962.7000;0.3622;0.6891;
963.0000;0.3712;0.7037;
963.3000;0.3671;0.6891;
963.6000;0.3671;0.6842;
963.9000;0.3647;0.6842;
964.2000;0.3639;0.6891;
964.5000;0.3639;0.6794;
964.8000;0.3687;0.6915;
965.1000;0.3655;0.6867;
965.4000;0.3671;0.6891;
965.7000;0.3606;0.6794;
966.0000;0.3696;0.7135;
966.3000;0.3647;0.7013;
966.6000;0.3655;0.6988;
966.9000;0.3704;0.7086;
967.2000;0.3736;0.7159;
967.5000;0.3712;0.7062;
967.8000;0.3630;0.6891;
968.1000;0.3647;0.6915;
968.4000;0.3655;0.6842;
968.7000;0.3663;0.6867;
969.0000;0.3728;0.7013;
969.3000;0.3655;0.6915;
969.6000;0.3630;0.6940;
969.9000;0.3663;0.7135;
970.2000;0.3639;0.7062;
970.5000;0.3614;0.6988;
970.8000;0.3671;0.7110;
971.1000;0.3655;0.7062;
971.4000;0.3647;0.7013;
971.7000;0.3655;0.7013;
972.0000;0.3647;0.7013;
972.3000;0.3647;0.7110;
972.6000;0.3671;0.7183;
972.9000;0.3663;0.7062;
973.2000;0.3663;0.6964;
973.5000;0.3647;0.6891;
973.8000;0.3663;0.6915;
974.1000;0.3671;0.6988;
974.4000;0.3647;0.6915;
974.7000;0.3663;0.6842;
975.0000;0.3647;0.6891;
975.3000;0.3647;0.6842;
975.6000;0.3606;0.6745;
975.9000;0.3655;0.6818;
976.2000;0.3655;0.6794;
976.5000;0.3671;0.6721;
976.8000;0.3671;0.6696;
977.1000;0.3663;0.6696;
977.4000;0.3647;0.6745;
977.7000;0.3655;0.6745;
978.0000;0.3655;0.6696;
978.3000;0.3598;0.6599;
978.6000;0.3704;0.6891;
978.9000;0.3655;0.6891;
979.2000;0.3663;0.6818;
979.5000;0.3679;0.6818;
979.8000;0.3671;0.6818;
980.1000;0.3655;0.6794;
980.4000;0.3663;0.6721;
980.7000;0.3663;0.6672;
981.0000;0.3655;0.6648;
981.3000;0.3655;0.6745;
981.6000;0.3622;0.6745;
981.9000;0.3655;0.6842;
982.2000;0.3647;0.6818;
982.5000;0.3647;0.6794;
982.8000;0.3655;0.6769;
983.1000;0.3647;0.6867;
983.4000;0.3679;0.7086;
983.7000;0.3614;0.6915;
984.0000;0.3647;0.7037;
984.3000;0.3663;0.7062;
984.6000;0.3736;0.7281;
984.9000;0.3647;0.6915;
985.2000;0.3671;0.6867;
985.5000;0.3663;0.6721;
985.8000;0.3647;0.6721;
986.1000;0.3630;0.6672;
986.4000;0.3663;0.6745;
986.7000;0.3655;0.6696;
987.0000;0.3655;0.6745;
987.3000;0.3647;0.6769;
987.6000;0.3655;0.6842;
987.9000;0.3663;0.6940;
988.2000;0.3639;0.6818;
988.5000;0.3647;0.6794;
988.8000;0.3655;0.6842;
989.1000;0.3655;0.6915;
989.4000;0.3614;0.6769;
989.7000;0.3606;0.6794;
990.0000;0.3655;0.6988;
990.3000;0.3647;0.6940;
990.6000;0.3647;0.6842;
990.9000;0.3630;0.6769;
991.2000;0.3622;0.6818;
991.5000;0.3647;0.6964;
991.8000;0.3663;0.6940;
992.1000;0.3647;0.6867;
992.4000;0.3639;0.6769;
992.7000;0.3582;0.6599;
993.0000;0.3647;0.6818;
993.3000;0.3663;0.6769;
993.6000;0.3639;0.6648;
993.9000;0.3639;0.6550;
994.2000;0.3663;0.6696;
994.5000;0.3655;0.6721;
994.8000;0.3606;0.6599;
995.1000;0.3630;0.6648;
995.4000;0.3639;0.6696;
995.7000;0.3639;0.6818;
996.0000;0.3622;0.6794;
996.3000;0.3598;0.6745;
996.6000;0.3655;0.6842;
996.9000;0.3647;0.6794;
997.2000;0.3671;0.6940;
997.5000;0.3647;0.6818;
997.8000;0.3622;0.6769;
998.1000;0.3671;0.6769;
998.4000;0.3655;0.6721;
998.7000;0.3639;0.6745;
999.0000;0.3655;0.6721;
999.3000;0.3655;0.6696;
999.6000;0.3630;0.6721;
999.9000;0.3655;0.6794;
1000.2000;0.3663;0.6794;
1000.5000;0.3671;0.6891;
1000.8000;0.3630;0.6745;
1001.1000;0.3647;0.6842;
1001.4000;0.3655;0.6842;
1001.7000;0.3647;0.6891;
1002.0000;0.3655;0.6867;
1002.3000;0.3655;0.6818;
1002.6000;0.3630;0.6696;
1002.9000;0.3663;0.6721;
1003.2000;0.3687;0.6721;
1003.5000;0.3663;0.6721;
1003.8000;0.3655;0.6745;
1004.1000;0.3606;0.6648;
1004.4000;0.3565;0.6721;
1004.7000;0.3622;0.6818;
1005.0000;0.3639;0.6915;
1005.3000;0.3630;0.6891;
1005.6000;0.3565;0.6648;
1005.9000;0.3647;0.6818;
1006.2000;0.3639;0.6842;
1006.5000;0.3630;0.6769;
1006.8000;0.3647;0.6721;
1007.1000;0.3647;0.6696;
1007.4000;0.3630;0.6648;
1007.7000;0.3655;0.6648;
1008.0000;0.3647;0.6721;
1008.3000;0.3639;0.6745;
1008.6000;0.3736;0.7062;
1008.9000;0.3655;0.6794;
1009.2000;0.3655;0.6915;
1009.5000;0.3639;0.6891;
1009.8000;0.3639;0.6769;
1010.1000;0.3647;0.6696;
1010.4000;0.3614;0.6648;
1010.7000;0.3679;0.6940;
1011.0000;0.3687;0.6915;
1011.3000;0.3630;0.6794;
1011.6000;0.3647;0.6915;
1011.9000;0.3622;0.6818;
1012.2000;0.3736;0.7086;
1012.5000;0.3647;0.6891;
1012.8000;0.3639;0.6915;
1013.1000;0.3590;0.6818;
1013.4000;0.3647;0.6940;
1013.7000;0.3655;0.6988;
1014.0000;0.3712;0.7086;
1014.3000;0.3630;0.6915;
1014.6000;0.3655;0.7037;
1014.9000;0.3639;0.6891;
1015.2000;0.3744;0.7183;
1015.5000;0.3630;0.6891;
1015.8000;0.3639;0.6940;
1016.1000;0.3655;0.6964;
1016.4000;0.3639;0.6915;
1016.7000;0.3655;0.6867;
1017.0000;0.3663;0.6964;
1017.3000;0.3647;0.6964;
1017.6000;0.3630;0.6964;
1017.9000;0.3655;0.6964;
1018.2000;0.3639;0.6891;
1018.5000;0.3630;0.6964;
1018.8000;0.3655;0.6988;
1019.1000;0.3639;0.6964;
1019.4000;0.3671;0.7013;
1019.7000;0.3728;0.7159;
1020.0000;0.3639;0.6842;
1020.3000;0.3639;0.6794;
1020.6000;0.3630;0.6745;
1020.9000;0.3639;0.6769;
1021.2000;0.3663;0.6818;
1021.5000;0.3639;0.6745;
1021.8000;0.3606;0.6599;
1022.1000;0.3663;0.6696;
1022.4000;0.3663;0.6721;
1022.7000;0.3663;0.6794;
1023.0000;0.3647;0.6867;
1023.3000;0.3655;0.6915;
1023.6000;0.3639;0.6964;
1023.9000;0.3647;0.7013;
1024.2000;0.3639;0.6988;
1024.5000;0.3663;0.7037;
1024.8000;0.3655;0.7013;
1025.1000;0.3655;0.7037;
1025.4000;0.3639;0.6964;
1025.7000;0.3647;0.7013;
1026.0000;0.3622;0.6867;
1026.3000;0.3663;0.6891;
1026.6000;0.3639;0.6818;
1026.9000;0.3639;0.6794;
1027.2000;0.3630;0.6842;
1027.5000;0.3630;0.6867;
1027.8000;0.3647;0.6964;
1028.1000;0.3630;0.6940;
1028.4000;0.3647;0.6988;
1028.7000;0.3639;0.6988;
1029.0000;0.3647;0.6867;
1029.3000;0.3639;0.6867;
1029.6000;0.3639;0.6867;
1029.9000;0.3663;0.6988;
1030.2000;0.3655;0.7135;
1030.5000;0.3639;0.7159;
1030.8000;0.3622;0.7159;
1031.1000;0.3647;0.7232;
1031.4000;0.3622;0.7208;
1031.7000;0.3639;0.7159;
1032.0000;0.3630;0.7037;
1032.3000;0.3639;0.7037;
1032.6000;0.3696;0.7110;
1032.9000;0.3655;0.7013;
1033.2000;0.3647;0.6964;
1033.5000;0.3655;0.6964;
1033.8000;0.3655;0.6891;
1034.1000;0.3647;0.6964;
1034.4000;0.3639;0.6867;
1034.7000;0.3663;0.6940;
1035.0000;0.3573;0.6745;
1035.3000;0.3639;0.6769;
1035.6000;0.3720;0.6915;
1035.9000;0.3598;0.6648;
1036.2000;0.3639;0.6867;
1036.5000;0.3582;0.6745;
1036.8000;0.3639;0.6964;
1037.1000;0.3622;0.6867;
1037.4000;0.3639;0.6915;
1037.7000;0.3630;0.6988;
1038.0000;0.3679;0.7208;
1038.3000;0.3630;0.7135;
1038.6000;0.3630;0.7062;
1038.9000;0.3639;0.7062;
1039.2000;0.3655;0.7183;
1039.5000;0.3639;0.7232;
1039.8000;0.3630;0.7232;
1040.1000;0.3647;0.7281;
1040.4000;0.3630;0.7183;
1040.7000;0.3630;0.7110;
1041.0000;0.3630;0.7110;
1041.3000;0.3639;0.7062;
1041.6000;0.3663;0.7110;
1041.9000;0.3639;0.7037;
1042.2000;0.3655;0.7062;
1042.5000;0.3647;0.6940;
1042.8000;0.3663;0.6940;
1043.1000;0.3647;0.6891;
1043.4000;0.3647;0.6867;
1043.7000;0.3639;0.6940;
1044.0000;0.3663;0.6964;
1044.3000;0.3671;0.7037;
1044.6000;0.3630;0.6940;
1044.9000;0.3647;0.7013;
1045.2000;0.3590;0.6745;
1045.5000;0.3647;0.6867;
1045.8000;0.3655;0.6867;
1046.1000;0.3647;0.6891;
1046.4000;0.3639;0.6940;
1046.7000;0.3663;0.7013;
1047.0000;0.3639;0.6891;
1047.3000;0.3663;0.6891;
1047.6000;0.3663;0.6964;
1047.9000;0.3679;0.7086;
1048.2000;0.3679;0.7183;
1048.5000;0.3647;0.7183;
1048.8000;0.3647;0.7110;
1049.1000;0.3663;0.7062;
1049.4000;0.3622;0.6988;
1049.7000;0.3655;0.6964;
1050.0000;0.3639;0.6915;
1050.3000;0.3630;0.6940;
1050.6000;0.3647;0.7086;
1050.9000;0.3639;0.7062;
1051.2000;0.3614;0.6964;
1051.5000;0.3655;0.6940;
1051.8000;0.3630;0.6842;
1052.1000;0.3630;0.6867;
1052.4000;0.3565;0.6721;
1052.7000;0.3671;0.7062;
1053.0000;0.3663;0.7183;
1053.3000;0.3630;0.7135;
1053.6000;0.3647;0.7159;
1053.9000;0.3630;0.7183;
1054.2000;0.3647;0.7232;
1054.5000;0.3655;0.7305;
1054.8000;0.3630;0.7232;
1055.1000;0.3671;0.7281;
1055.4000;0.3655;0.7208;
1055.7000;0.3639;0.7110;
1056.0000;0.3630;0.7159;
1056.3000;0.3655;0.7062;
1056.6000;0.3655;0.7159;
1056.9000;0.3671;0.7159;
1057.2000;0.3663;0.7037;
1057.5000;0.3639;0.6915;
1057.8000;0.3639;0.6940;
1058.1000;0.3639;0.6891;
1058.4000;0.3655;0.6964;
1058.7000;0.3655;0.6891;
1059.0000;0.3647;0.6891;
1059.3000;0.3647;0.6842;
1059.6000;0.3647;0.6915;
1059.9000;0.3655;0.6891;
1060.2000;0.3655;0.6867;
1060.5000;0.3655;0.6940;
1060.8000;0.3655;0.6988;
1061.1000;0.3663;0.7037;
1061.4000;0.3696;0.7159;
1061.7000;0.3639;0.7062;
1062.0000;0.3614;0.7037;
1062.3000;0.3630;0.6964;
1062.6000;0.3630;0.6988;
1062.9000;0.3630;0.6964;
1063.2000;0.3655;0.7013;
1063.5000;0.3639;0.6988;
1063.8000;0.3639;0.6915;
1064.1000;0.3622;0.6891;
1064.4000;0.3639;0.6988;
1064.7000;0.3622;0.6988;
1065.0000;0.3639;0.6964;
1065.3000;0.3639;0.6988;
1065.6000;0.3630;0.6964;
1065.9000;0.3639;0.7037;
1066.2000;0.3639;0.7037;
1066.5000;0.3630;0.7086;
1066.8000;0.3647;0.7159;
1067.1000;0.3630;0.7159;
1067.4000;0.3647;0.7208;
1067.7000;0.3630;0.7183;
1068.0000;0.3671;0.7232;
1068.3000;0.3663;0.7256;
1068.6000;0.3655;0.7183;
1068.9000;0.3614;0.7110;
1069.2000;0.3639;0.7086;
1069.5000;0.3671;0.7135;
1069.8000;0.3639;0.7013;
1070.1000;0.3655;0.6988;
1070.4000;0.3671;0.6940;
1070.7000;0.3712;0.6964;
1071.0000;0.3639;0.6842;
1071.3000;0.3647;0.6818;
1071.6000;0.3696;0.6964;
1071.9000;0.3671;0.6964;
1072.2000;0.3639;0.6818;
1072.5000;0.3590;0.6745;
1072.8000;0.3655;0.6940;
1073.1000;0.3598;0.6794;
1073.4000;0.3655;0.6988;
1073.7000;0.3663;0.7013;
1074.0000;0.3720;0.7110;
1074.3000;0.3679;0.6964;
1074.6000;0.3663;0.6915;
1074.9000;0.3655;0.6915;
1075.2000;0.3647;0.7062;
1075.5000;0.3744;0.7305;
1075.8000;0.3622;0.6988;
1076.1000;0.3639;0.7086;
1076.4000;0.3647;0.7135;
1076.7000;0.3622;0.7086;
1077.0000;0.3671;0.7159;
1077.3000;0.3671;0.7208;
1077.6000;0.3630;0.7159;
1077.9000;0.3647;0.7232;
1078.2000;0.3647;0.7110;
1078.5000;0.3663;0.7159;
1078.8000;0.3655;0.7159;
1079.1000;0.3655;0.7086;
1079.4000;0.3647;0.7037;
1079.7000;0.3582;0.6867;
1080.0000;0.3647;0.7037;
1080.3000;0.3655;0.7159;
1080.6000;0.3728;0.7329;
1080.9000;0.3598;0.7062;
1081.2000;0.3671;0.7354;
1081.5000;0.3663;0.7305;
1081.8000;0.3647;0.7232;
1082.1000;0.3622;0.7183;
1082.4000;0.3663;0.7183;
1082.7000;0.3639;0.6988;
1083.0000;0.3655;0.6891;
1083.3000;0.3655;0.6940;
1083.6000;0.3687;0.7037;
1083.9000;0.3606;0.6867;
1084.2000;0.3647;0.6915;
1084.5000;0.3663;0.6915;
1084.8000;0.3679;0.6988;
1085.1000;0.3655;0.6940;
1085.4000;0.3647;0.6988;
1085.7000;0.3639;0.7062;
1086.0000;0.3647;0.7086;
1086.3000;0.3639;0.7086;
1086.6000;0.3630;0.7110;
1086.9000;0.3647;0.7256;
1087.2000;0.3655;0.7305;
1087.5000;0.3655;0.7256;
1087.8000;0.3639;0.7208;
1088.1000;0.3647;0.7208;
1088.4000;0.3647;0.7135;
1088.7000;0.3753;0.7402;
1089.0000;0.3647;0.7037;
1089.3000;0.3647;0.7037;
1089.6000;0.3647;0.7062;
1089.9000;0.3655;0.7110;
1090.2000;0.3639;0.7062;
1090.5000;0.3622;0.7062;
1090.8000;0.3630;0.7208;
1091.1000;0.3647;0.7232;
1091.4000;0.3630;0.7232;
1091.7000;0.3630;0.7159;
1092.0000;0.3630;0.7062;
1092.3000;0.3655;0.7086;
1092.6000;0.3630;0.6988;
1092.9000;0.3630;0.7013;
1093.2000;0.3606;0.6940;
1093.5000;0.3639;0.6988;
1093.8000;0.3655;0.7037;
1094.1000;0.3630;0.6964;
1094.4000;0.3622;0.6988;
1094.7000;0.3639;0.6988;
1095.0000;0.3655;0.6964;
1095.3000;0.3630;0.7013;
1095.6000;0.3622;0.6915;
1095.9000;0.3630;0.7013;
1096.2000;0.3590;0.6915;
1096.5000;0.3639;0.7062;
1096.8000;0.3622;0.7013;
1097.1000;0.3655;0.7013;
1097.4000;0.3639;0.7013;
1097.7000;0.3663;0.7013;
1098.0000;0.3647;0.6964;
1098.3000;0.3655;0.6964;
1098.6000;0.3671;0.7037;
1098.9000;0.3630;0.6988;
1099.2000;0.3582;0.6867;
1099.5000;0.3647;0.6988;
1099.8000;0.3655;0.7037;
1100.1000;0.3655;0.7086;
1100.4000;0.3639;0.7037;
1100.7000;0.3630;0.7013;
1101.0000;0.3655;0.7086;
1101.3000;0.3647;0.7062;
1101.6000;0.3630;0.7013;
1101.9000;0.3639;0.7037;
1102.2000;0.3639;0.7135;
1102.5000;0.3630;0.7110;
1102.8000;0.3679;0.7256;
1103.1000;0.3639;0.7110;
1103.4000;0.3647;0.7037;
1103.7000;0.3598;0.6891;
1104.0000;0.3614;0.6964;
1104.3000;0.3655;0.7110;
1104.6000;0.3655;0.7183;
1104.9000;0.3671;0.7232;
1105.2000;0.3647;0.7232;
1105.5000;0.3663;0.7208;
1105.8000;0.3639;0.7159;
1106.1000;0.3655;0.7135;
1106.4000;0.3663;0.7110;
1106.7000;0.3679;0.7159;
1107.0000;0.3630;0.7086;
1107.3000;0.3630;0.6988;
1107.6000;0.3606;0.6988;
1107.9000;0.3639;0.6988;
1108.2000;0.3622;0.7037;
1108.5000;0.3639;0.7183;
1108.8000;0.3655;0.7159;
1109.1000;0.3647;0.7110;
1109.4000;0.3639;0.7135;
1109.7000;0.3647;0.7086;
1110.0000;0.3647;0.7159;
1110.3000;0.3728;0.7354;
1110.6000;0.3671;0.7208;
1110.9000;0.3630;0.7086;
1111.2000;0.3622;0.7086;
1111.5000;0.3573;0.6940;
1111.8000;0.3630;0.7110;
1112.1000;0.3647;0.7183;
1112.4000;0.3622;0.7159;
1112.7000;0.3639;0.7135;
1113.0000;0.3639;0.7110;
1113.3000;0.3639;0.7062;
1113.6000;0.3630;0.7208;
1113.9000;0.3647;0.7183;
1114.2000;0.3639;0.7183;
1114.5000;0.3647;0.7256;
1114.8000;0.3655;0.7208;
1115.1000;0.3647;0.7183;
1115.4000;0.3655;0.7135;
1115.7000;0.3622;0.7037;
1116.0000;0.3639;0.7062;
1116.3000;0.3655;0.7086;
1116.6000;0.3655;0.7062;
1116.9000;0.3655;0.7159;
1117.2000;0.3671;0.7208;
1117.5000;0.3630;0.7086;
1117.8000;0.3655;0.7037;
1118.1000;0.3655;0.6988;
1118.4000;0.3655;0.6964;
1118.7000;0.3679;0.7086;
1119.0000;0.3655;0.7086;
1119.3000;0.3655;0.7062;
1119.6000;0.3630;0.6867;
1119.9000;0.3622;0.6891;
1120.2000;0.3671;0.7062;
1120.5000;0.3663;0.7013;
1120.8000;0.3655;0.7037;
1121.1000;0.3622;0.6988;
1121.4000;0.3606;0.6964;
1121.7000;0.3622;0.6988;
1122.0000;0.3639;0.6964;
1122.3000;0.3630;0.7037;
1122.6000;0.3630;0.7086;
1122.9000;0.3614;0.7159;
1123.2000;0.3639;0.7208;
1123.5000;0.3655;0.7281;
1123.8000;0.3679;0.7402;
1124.1000;0.3630;0.7305;
1124.4000;0.3647;0.7281;
1124.7000;0.3614;0.7159;
1125.0000;0.3639;0.7208;
1125.3000;0.3647;0.7159;
1125.6000;0.3720;0.7402;
1125.9000;0.3639;0.7232;
1126.2000;0.3614;0.7159;
1126.5000;0.3671;0.7354;
1126.8000;0.3696;0.7475;
1127.1000;0.3655;0.7451;
1127.4000;0.3639;0.7354;
1127.7000;0.3679;0.7402;
1128.0000;0.3630;0.7281;
1128.3000;0.3639;0.7305;
1128.6000;0.3630;0.7208;
1128.9000;0.3647;0.7110;
1129.2000;0.3647;0.7037;
1129.5000;0.3647;0.7135;
1129.8000;0.3508;0.6721;
1130.1000;0.3655;0.7208;
1130.4000;0.3639;0.7183;
1130.7000;0.3655;0.7208;
1131.0000;0.3663;0.7305;
1131.3000;0.3647;0.7208;
1131.6000;0.3647;0.7110;
1131.9000;0.3639;0.7062;
1132.2000;0.3655;0.7062;
1132.5000;0.3630;0.7086;
1132.8000;0.3647;0.7159;
1133.1000;0.3622;0.7183;
1133.4000;0.3630;0.7232;
1133.7000;0.3655;0.7281;
1134.0000;0.3622;0.7208;
1134.3000;0.3630;0.7305;
1134.6000;0.3614;0.7208;
1134.9000;0.3639;0.7183;
1135.2000;0.3622;0.7110;
1135.5000;0.3573;0.7062;
1135.8000;0.3647;0.7208;
1136.1000;0.3647;0.7208;
1136.4000;0.3630;0.7232;
1136.7000;0.3630;0.7232;
1137.0000;0.3639;0.7256;
1137.3000;0.3639;0.7208;
1137.6000;0.3622;0.7208;
1137.9000;0.3614;0.7159;
1138.2000;0.3663;0.7183;
1138.5000;0.3663;0.7159;
1138.8000;0.3647;0.7013;
1139.1000;0.3639;0.6891;
1139.4000;0.3655;0.6940;
1139.7000;0.3630;0.6867;
1140.0000;0.3639;0.6891;
1140.3000;0.3639;0.6891;
1140.6000;0.3606;0.6867;
1140.9000;0.3655;0.7110;
1141.2000;0.3679;0.7232;
1141.5000;0.3647;0.7183;
1141.8000;0.3655;0.7281;
1142.1000;0.3647;0.7281;
1142.4000;0.3647;0.7208;
1142.7000;0.3557;0.7086;
1143.0000;0.3598;0.7062;
1143.3000;0.3630;0.7110;
1143.6000;0.3639;0.7110;
1143.9000;0.3639;0.7135;
1144.2000;0.3622;0.7037;
1144.5000;0.3639;0.7086;
1144.8000;0.3630;0.7086;
1145.1000;0.3647;0.7183;
1145.4000;0.3639;0.7208;
1145.7000;0.3647;0.7232;
1146.0000;0.3655;0.7256;
1146.3000;0.3630;0.7135;
1146.6000;0.3639;0.7159;
1146.9000;0.3655;0.7135;
1147.2000;0.3647;0.7062;
1147.5000;0.3622;0.6915;
1147.8000;0.3630;0.6940;
1148.1000;0.3630;0.6940;
1148.4000;0.3630;0.6867;
1148.7000;0.3679;0.7013;
1149.0000;0.3647;0.6915;
1149.3000;0.3647;0.6964;
1149.6000;0.3663;0.6940;
1149.9000;0.3639;0.6915;
1150.2000;0.3647;0.6940;
1150.5000;0.3728;0.7281;
1150.8000;0.3696;0.7135;
1151.1000;0.3663;0.6988;
1151.4000;0.3663;0.7062;
1151.7000;0.3655;0.7183;
1152.0000;0.3630;0.7159;
1152.3000;0.3663;0.7208;
1152.6000;0.3647;0.7135;
1152.9000;0.3630;0.7062;
1153.2000;0.3622;0.7110;
1153.5000;0.3655;0.7208;
1153.8000;0.3663;0.7232;
1154.1000;0.3622;0.7159;
1154.4000;0.3647;0.7183;
1154.7000;0.3606;0.7037;
1155.0000;0.3655;0.7135;
1155.3000;0.3655;0.7086;
1155.6000;0.3647;0.7013;
1155.9000;0.3639;0.7086;
1156.2000;0.3639;0.7110;
1156.5000;0.3655;0.7086;
1156.8000;0.3573;0.6915;
1157.1000;0.3639;0.7183;
1157.4000;0.3655;0.7256;
1157.7000;0.3630;0.7232;
1158.0000;0.3630;0.7281;
1158.3000;0.3639;0.7183;
1158.6000;0.3647;0.7208;
1158.9000;0.3614;0.7159;
1159.2000;0.3630;0.7305;
1159.5000;0.3622;0.7159;
1159.8000;0.3630;0.7135;
1160.1000;0.3630;0.7110;
1160.4000;0.3655;0.7159;
1160.7000;0.3639;0.7062;
1161.0000;0.3639;0.7062;
1161.3000;0.3647;0.7037;
1161.6000;0.3647;0.6988;
1161.9000;0.3647;0.7086;
1162.2000;0.3647;0.7159;
1162.5000;0.3622;0.7110;
1162.8000;0.3630;0.6988;
1163.1000;0.3598;0.6842;
1163.4000;0.3639;0.6964;
1163.7000;0.3606;0.6964;
1164.0000;0.3630;0.7037;
1164.3000;0.3630;0.7037;
1164.6000;0.3663;0.7086;
1164.9000;0.3630;0.6915;
1165.2000;0.3639;0.6940;
1165.5000;0.3704;0.7086;
1165.8000;0.3647;0.7037;
1166.1000;0.3647;0.7110;
1166.4000;0.3630;0.7110;
1166.7000;0.3582;0.6964;
1167.0000;0.3655;0.7183;
1167.3000;0.3622;0.7232;
1167.6000;0.3663;0.7232;
1167.9000;0.3639;0.7110;
1168.2000;0.3639;0.7062;
1168.5000;0.3630;0.6940;
1168.8000;0.3663;0.7110;
1169.1000;0.3647;0.7037;
1169.4000;0.3630;0.7037;
1169.7000;0.3590;0.6940;
1170.0000;0.3630;0.7159;
1170.3000;0.3663;0.7135;
1170.6000;0.3655;0.7110;
1170.9000;0.3614;0.7037;
1171.2000;0.3647;0.7208;
1171.5000;0.3647;0.7037;
1171.8000;0.3720;0.7232;
1172.1000;0.3663;0.6988;
1172.4000;0.3647;0.7037;
1172.7000;0.3655;0.7086;
1173.0000;0.3663;0.7013;
1173.3000;0.3655;0.7062;
1173.6000;0.3655;0.7037;
1173.9000;0.3647;0.6891;
1174.2000;0.3655;0.6940;
1174.5000;0.3639;0.6891;
1174.8000;0.3671;0.6867;
1175.1000;0.3655;0.6842;
1175.4000;0.3655;0.6794;
1175.7000;0.3639;0.6842;
1176.0000;0.3696;0.6940;
1176.3000;0.3630;0.6769;
1176.6000;0.3655;0.6867;
1176.9000;0.3622;0.6842;
1177.2000;0.3655;0.6891;
1177.5000;0.3647;0.6769;
1177.8000;0.3622;0.6672;
1178.1000;0.3647;0.6696;
1178.4000;0.3663;0.6721;
1178.7000;0.3630;0.6648;
1179.0000;0.3647;0.6623;
1179.3000;0.3647;0.6794;
1179.6000;0.3630;0.6745;
1179.9000;0.3622;0.6794;
1180.2000;0.3647;0.6672;
1180.5000;0.3647;0.6745;
1180.8000;0.3590;0.6696;
1181.1000;0.3639;0.6721;
1181.4000;0.3630;0.6599;
1181.7000;0.3647;0.6623;
1182.0000;0.3630;0.6575;
1182.3000;0.3630;0.6501;
1182.6000;0.3630;0.6550;
1182.9000;0.3663;0.6599;
1183.2000;0.3655;0.6550;
1183.5000;0.3696;0.6696;
1183.8000;0.3630;0.6526;
1184.1000;0.3622;0.6526;
1184.4000;0.3663;0.6599;
1184.7000;0.3582;0.6404;
1185.0000;0.3639;0.6648;
1185.3000;0.3671;0.6721;
1185.6000;0.3655;0.6745;
1185.9000;0.3639;0.6672;
1186.2000;0.3679;0.6842;
1186.5000;0.3655;0.6745;
1186.8000;0.3671;0.6696;
1187.1000;0.3671;0.6672;
1187.4000;0.3647;0.6623;
1187.7000;0.3704;0.6721;
1188.0000;0.3655;0.6672;
1188.3000;0.3639;0.6575;
1188.6000;0.3573;0.6404;
1188.9000;0.3639;0.6550;
1189.2000;0.3639;0.6550;
1189.5000;0.3655;0.6648;
1189.8000;0.3647;0.6599;
1190.1000;0.3598;0.6550;
1190.4000;0.3622;0.6672;
1190.7000;0.3671;0.6818;
1191.0000;0.3671;0.6769;
1191.3000;0.3655;0.6745;
1191.6000;0.3647;0.6842;
1191.9000;0.3639;0.6891;
1192.2000;0.3622;0.6891;
1192.5000;0.3639;0.6818;
1192.8000;0.3671;0.6891;
1193.1000;0.3647;0.6818;
1193.4000;0.3679;0.6867;
1193.7000;0.3639;0.6769;
1194.0000;0.3639;0.6794;
1194.3000;0.3639;0.6867;
1194.6000;0.3663;0.6964;
1194.9000;0.3639;0.6964;
1195.2000;0.3630;0.6818;
1195.5000;0.3655;0.6867;
1195.8000;0.3655;0.6964;
1196.1000;0.3639;0.6988;
1196.4000;0.3647;0.7013;
1196.7000;0.3655;0.6964;
1197.0000;0.3663;0.6964;
1197.3000;0.3647;0.6988;
1197.6000;0.3647;0.6940;
1197.9000;0.3655;0.6915;
1198.2000;0.3647;0.6867;
1198.5000;0.3639;0.6964;
1198.8000;0.3655;0.6940;
1199.1000;0.3639;0.6818;
1199.4000;0.3647;0.6818;
1199.7000;0.3647;0.6891;
1200.0000;0.3630;0.6964;
1200.3000;0.3606;0.6915;
1200.6000;0.3639;0.7135;
1200.9000;0.3655;0.7232;
1201.2000;0.3663;0.7378;
1201.5000;0.3614;0.7305;
1201.8000;0.3655;0.7354;
1202.1000;0.3647;0.7305;
1202.4000;0.3647;0.7256;
1202.7000;0.3573;0.7013;
1203.0000;0.3647;0.7086;
1203.3000;0.3614;0.6891;
1203.6000;0.3639;0.6964;
1203.9000;0.3639;0.6964;
1204.2000;0.3622;0.6940;
1204.5000;0.3622;0.7037;
1204.8000;0.3549;0.6794;
1205.1000;0.3622;0.6915;
1205.4000;0.3598;0.6867;
1205.7000;0.3647;0.6964;
1206.0000;0.3655;0.6988;
1206.3000;0.3647;0.7062;
1206.6000;0.3696;0.7256;
1206.9000;0.3671;0.7159;
1207.2000;0.3614;0.7110;
1207.5000;0.3655;0.7135;
1207.8000;0.3647;0.7159;
1208.1000;0.3647;0.7208;
1208.4000;0.3647;0.7232;
1208.7000;0.3663;0.7281;
1209.0000;0.3573;0.6940;
1209.3000;0.3557;0.6867;
1209.6000;0.3639;0.7037;
1209.9000;0.3687;0.7110;
1210.2000;0.3655;0.6940;
1210.5000;0.3639;0.6964;
1210.8000;0.3622;0.6940;
1211.1000;0.3655;0.7037;
1211.4000;0.3663;0.6988;
1211.7000;0.3639;0.6988;
1212.0000;0.3630;0.6988;
1212.3000;0.3622;0.6915;
1212.6000;0.3614;0.6891;
1212.9000;0.3630;0.6891;
1213.2000;0.3647;0.6915;
1213.5000;0.3736;0.7256;
1213.8000;0.3647;0.6940;
1214.1000;0.3630;0.6842;
1214.4000;0.3622;0.6867;
1214.7000;0.3639;0.6940;
1215.0000;0.3614;0.6891;
1215.3000;0.3647;0.6964;
1215.6000;0.3622;0.6915;
1215.9000;0.3630;0.7037;
1216.2000;0.3704;0.7256;
1216.5000;0.3687;0.7232;
1216.8000;0.3647;0.7159;
1217.1000;0.3622;0.7037;
1217.4000;0.3647;0.7110;
1217.7000;0.3582;0.6940;
1218.0000;0.3639;0.6988;
1218.3000;0.3639;0.7110;
1218.6000;0.3655;0.7135;
1218.9000;0.3647;0.7110;
1219.2000;0.3622;0.7037;
1219.5000;0.3655;0.7086;
1219.8000;0.3647;0.7037;
1220.1000;0.3647;0.7135;
1220.4000;0.3614;0.7013;
1220.7000;0.3655;0.7013;
1221.0000;0.3647;0.6988;
1221.3000;0.3630;0.7086;
1221.6000;0.3647;0.7086;
1221.9000;0.3655;0.7159;
1222.2000;0.3639;0.7110;
1222.5000;0.3647;0.7135;
1222.8000;0.3679;0.7159;
1223.1000;0.3647;0.7037;
1223.4000;0.3647;0.7110;
1223.7000;0.3663;0.7110;
1224.0000;0.3565;0.6915;
1224.3000;0.3606;0.7013;
1224.6000;0.3639;0.7086;
1224.9000;0.3655;0.7110;
1225.2000;0.3655;0.7086;
1225.5000;0.3647;0.7062;
1225.8000;0.3639;0.7062;
1226.1000;0.3639;0.7086;
1226.4000;0.3647;0.7110;
1226.7000;0.3630;0.7013;
1227.0000;0.3630;0.7037;
1227.3000;0.3647;0.7135;
1227.6000;0.3639;0.7110;
1227.9000;0.3647;0.7183;
1228.2000;0.3622;0.7232;
1228.5000;0.3655;0.7256;
1228.8000;0.3573;0.7086;
1229.1000;0.3647;0.7256;
1229.4000;0.3663;0.7208;
1229.7000;0.3630;0.7208;
1230.0000;0.3647;0.7159;
1230.3000;0.3655;0.7135;
1230.6000;0.3622;0.7086;
1230.9000;0.3630;0.7037;
1231.2000;0.3655;0.7037;
1231.5000;0.3655;0.7062;
1231.8000;0.3655;0.6988;
1232.1000;0.3639;0.6915;
1232.4000;0.3647;0.6867;
1232.7000;0.3630;0.6891;
1233.0000;0.3655;0.7013;
1233.3000;0.3647;0.7110;
1233.6000;0.3639;0.7135;
1233.9000;0.3647;0.7183;
1234.2000;0.3647;0.7159;
1234.5000;0.3639;0.7013;
1234.8000;0.3663;0.6988;
1235.1000;0.3647;0.6891;
1235.4000;0.3647;0.7013;
1235.7000;0.3639;0.7013;
1236.0000;0.3630;0.7086;
1236.3000;0.3639;0.7135;
1236.6000;0.3639;0.7110;
1236.9000;0.3655;0.7013;
1237.2000;0.3639;0.6915;
1237.5000;0.3639;0.6891;
1237.8000;0.3647;0.6818;
1238.1000;0.3622;0.6794;
1238.4000;0.3582;0.6623;
1238.7000;0.3639;0.6769;
1239.0000;0.3639;0.6842;
1239.3000;0.3647;0.6988;
1239.6000;0.3630;0.7135;
1239.9000;0.3647;0.7159;
1240.2000;0.3590;0.7037;
1240.5000;0.3663;0.7183;
1240.8000;0.3630;0.7110;
1241.1000;0.3630;0.7086;
1241.4000;0.3655;0.7037;
1241.7000;0.3671;0.6964;
1242.0000;0.3663;0.6915;
1242.3000;0.3696;0.7037;
1242.6000;0.3606;0.6867;
1242.9000;0.3639;0.6988;
1243.2000;0.3663;0.7013;
1243.5000;0.3639;0.6988;
1243.8000;0.3630;0.6940;
1244.1000;0.3655;0.6988;
1244.4000;0.3639;0.6940;
1244.7000;0.3630;0.6940;
1245.0000;0.3622;0.6988;
1245.3000;0.3630;0.7062;
1245.6000;0.3630;0.7086;
1245.9000;0.3606;0.7086;
1246.2000;0.3647;0.7256;
1246.5000;0.3557;0.6915;
1246.8000;0.3598;0.7086;
1247.1000;0.3622;0.7135;
1247.4000;0.3630;0.7183;
1247.7000;0.3622;0.7183;
1248.0000;0.3736;0.7354;
1248.3000;0.3639;0.7062;
1248.6000;0.3655;0.7159;
1248.9000;0.3565;0.6867;
1249.2000;0.3630;0.7037;
1249.5000;0.3630;0.6964;
1249.8000;0.3630;0.6964;
1250.1000;0.3639;0.6842;
1250.4000;0.3622;0.6867;
1250.7000;0.3647;0.6891;
1251.0000;0.3630;0.6891;
1251.3000;0.3622;0.6915;
1251.6000;0.3630;0.6915;
1251.9000;0.3639;0.6867;
1252.2000;0.3655;0.6964;
1252.5000;0.3671;0.6940;
1252.8000;0.3639;0.6794;
1253.1000;0.3630;0.6842;
1253.4000;0.3639;0.6842;
1253.7000;0.3565;0.6721;
1254.0000;0.3639;0.6940;
1254.3000;0.3704;0.7208;
1254.6000;0.3614;0.6964;
1254.9000;0.3622;0.7013;
1255.2000;0.3639;0.7062;
1255.5000;0.3639;0.7110;
1255.8000;0.3655;0.7183;
1256.1000;0.3639;0.7159;
1256.4000;0.3663;0.7086;
1256.7000;0.3639;0.6964;
1257.0000;0.3639;0.6964;
1257.3000;0.3582;0.6867;
1257.6000;0.3639;0.7062;
1257.9000;0.3663;0.7086;
1258.2000;0.3671;0.7037;
1258.5000;0.3582;0.6794;
1258.8000;0.3663;0.7013;
1259.1000;0.3696;0.7062;
1259.4000;0.3655;0.6964;
1259.7000;0.3606;0.6891;
1260.0000;0.3655;0.7062;
1260.3000;0.3630;0.7183;
1260.6000;0.3687;0.7354;
1260.9000;0.3630;0.7183;
1261.2000;0.3639;0.7159;
1261.5000;0.3622;0.7062;
1261.8000;0.3639;0.7037;
1262.1000;0.3663;0.7037;
1262.4000;0.3639;0.6988;
1262.7000;0.3647;0.6964;
1263.0000;0.3663;0.7110;
1263.3000;0.3647;0.7062;
1263.6000;0.3655;0.7110;
1263.9000;0.3647;0.7086;
1264.2000;0.3630;0.7013;
1264.5000;0.3663;0.7159;
1264.8000;0.3655;0.7135;
1265.1000;0.3630;0.7062;
1265.4000;0.3647;0.7110;
1265.7000;0.3630;0.6964;
1266.0000;0.3647;0.6988;
1266.3000;0.3639;0.6988;
1266.6000;0.3582;0.6867;
1266.9000;0.3647;0.7037;
1267.2000;0.3655;0.7037;
1267.5000;0.3679;0.7232;
1267.8000;0.3639;0.7232;
1268.1000;0.3663;0.7256;
1268.4000;0.3639;0.7208;
1268.7000;0.3647;0.7232;
1269.0000;0.3647;0.7183;
1269.3000;0.3639;0.7135;
1269.6000;0.3622;0.7110;
1269.9000;0.3622;0.7110;
1270.2000;0.3647;0.7183;
1270.5000;0.3639;0.7159;
1270.8000;0.3630;0.7159;
1271.1000;0.3663;0.7305;
1271.4000;0.3622;0.7159;
1271.7000;0.3622;0.7159;
1272.0000;0.3630;0.7256;
1272.3000;0.3622;0.7208;
1272.6000;0.3630;0.7232;
1272.9000;0.3630;0.7159;
1273.2000;0.3614;0.7062;
1273.5000;0.3655;0.7086;
1273.8000;0.3647;0.6964;
1274.1000;0.3647;0.6964;
1274.4000;0.3639;0.6891;
1274.7000;0.3639;0.6964;
1275.0000;0.3655;0.7013;
1275.3000;0.3630;0.7013;
1275.6000;0.3590;0.6915;
1275.9000;0.3630;0.7037;
1276.2000;0.3647;0.7013;
1276.5000;0.3630;0.6964;
1276.8000;0.3622;0.6940;
1277.1000;0.3655;0.6988;
1277.4000;0.3655;0.7013;
1277.7000;0.3671;0.7062;
1278.0000;0.3655;0.7013;
1278.3000;0.3639;0.6964;
1278.6000;0.3671;0.7086;
1278.9000;0.3663;0.7183;
1279.2000;0.3647;0.7208;
1279.5000;0.3696;0.7305;
1279.8000;0.3663;0.7183;
1280.1000;0.3647;0.7135;
1280.4000;0.3663;0.7183;
1280.7000;0.3647;0.7062;
1281.0000;0.3647;0.7037;
1281.3000;0.3647;0.7062;
1281.6000;0.3647;0.7086;
1281.9000;0.3630;0.7013;
1282.2000;0.3639;0.7037;
1282.5000;0.3687;0.7135;
1282.8000;0.3639;0.7037;
1283.1000;0.3614;0.7037;
1283.4000;0.3622;0.7062;
1283.7000;0.3606;0.6964;
1284.0000;0.3614;0.6891;
1284.3000;0.3622;0.6940;
1284.6000;0.3696;0.7086;
1284.9000;0.3630;0.6964;
1285.2000;0.3655;0.7037;
1285.5000;0.3549;0.6672;
1285.8000;0.3647;0.6940;
1286.1000;0.3639;0.6867;
1286.4000;0.3622;0.6891;
1286.7000;0.3622;0.6842;
1287.0000;0.3630;0.6867;
1287.3000;0.3630;0.6818;
1287.6000;0.3639;0.6915;
1287.9000;0.3630;0.6988;
1288.2000;0.3622;0.6988;
1288.5000;0.3630;0.6915;
1288.8000;0.3655;0.7013;
1289.1000;0.3663;0.7135;
1289.4000;0.3630;0.7086;
1289.7000;0.3630;0.7183;
1290.0000;0.3647;0.7183;
1290.3000;0.3639;0.7208;
1290.6000;0.3639;0.7256;
1290.9000;0.3647;0.7183;
1291.2000;0.3639;0.7110;
1291.5000;0.3639;0.7135;
1291.8000;0.3639;0.7037;
1292.1000;0.3655;0.7037;
1292.4000;0.3639;0.7037;
1292.7000;0.3696;0.7183;
1293.0000;0.3639;0.7037;
1293.3000;0.3630;0.6964;
1293.6000;0.3639;0.6940;
1293.9000;0.3630;0.6915;
1294.2000;0.3663;0.6988;
1294.5000;0.3639;0.7037;
1294.8000;0.3614;0.7013;
1295.1000;0.3647;0.7037;
1295.4000;0.3647;0.7013;
1295.7000;0.3606;0.6891;
1296.0000;0.3639;0.6891;
1296.3000;0.3647;0.6867;
1296.6000;0.3728;0.7062;
1296.9000;0.3582;0.6648;
1297.2000;0.3630;0.6745;
1297.5000;0.3630;0.6794;
1297.8000;0.3639;0.6867;
1298.1000;0.3647;0.6818;
1298.4000;0.3557;0.6575;
1298.7000;0.3590;0.6721;
1299.0000;0.3630;0.6818;
1299.3000;0.3663;0.6818;
1299.6000;0.3630;0.6842;
1299.9000;0.3614;0.6867;
1300.2000;0.3655;0.6988;
1300.5000;0.3655;0.7037;
1300.8000;0.3630;0.6867;
1301.1000;0.3639;0.6988;
1301.4000;0.3630;0.6915;
1301.7000;0.3647;0.6964;
1302.0000;0.3647;0.6867;
1302.3000;0.3639;0.6964;
1302.6000;0.3655;0.7159;
1302.9000;0.3647;0.6915;
1303.2000;0.3655;0.6915;
1303.5000;0.3630;0.6940;
1303.8000;0.3647;0.6842;
1304.1000;0.3647;0.6842;
1304.4000;0.3655;0.6891;
1304.7000;0.3663;0.6891;
1305.0000;0.3630;0.6867;
1305.3000;0.3663;0.6915;
1305.6000;0.3647;0.6842;
1305.9000;0.3655;0.6842;
1306.2000;0.3639;0.6891;
1306.5000;0.3606;0.6842;
1306.8000;0.3663;0.6964;
1307.1000;0.3639;0.6891;
1307.4000;0.3614;0.6794;
1307.7000;0.3639;0.6867;
1308.0000;0.3639;0.6842;
1308.3000;0.3590;0.6696;
1308.6000;0.3647;0.6721;
1308.9000;0.3647;0.6721;
1309.2000;0.3655;0.6696;
1309.5000;0.3655;0.6769;
1309.8000;0.3647;0.6818;
1310.1000;0.3647;0.7013;
1310.4000;0.3630;0.7037;
1310.7000;0.3663;0.7013;
1311.0000;0.3639;0.6964;
1311.3000;0.3647;0.7062;
1311.6000;0.3647;0.7086;
1311.9000;0.3630;0.7086;
1312.2000;0.3622;0.7135;
1312.5000;0.3630;0.7159;
1312.8000;0.3647;0.7183;
1313.1000;0.3639;0.7159;
1313.4000;0.3744;0.7402;
1313.7000;0.3630;0.7037;
1314.0000;0.3639;0.7013;
1314.3000;0.3639;0.7110;
1314.6000;0.3582;0.7062;
1314.9000;0.3639;0.7062;
1315.2000;0.3663;0.7013;
1315.5000;0.3639;0.6940;
1315.8000;0.3630;0.6964;
1316.1000;0.3647;0.7086;
1316.4000;0.3639;0.6940;
1316.7000;0.3614;0.6867;
1317.0000;0.3679;0.6964;
1317.3000;0.3655;0.6964;
1317.6000;0.3557;0.6794;
1317.9000;0.3655;0.7037;
1318.2000;0.3647;0.6940;
1318.5000;0.3655;0.6940;
1318.8000;0.3647;0.6867;
1319.1000;0.3622;0.6891;
1319.4000;0.3639;0.6867;
1319.7000;0.3606;0.6745;
1320.0000;0.3622;0.6769;
1320.3000;0.3671;0.6915;
1320.6000;0.3639;0.6818;
1320.9000;0.3647;0.6818;
1321.2000;0.3655;0.6842;
1321.5000;0.3598;0.6769;
1321.8000;0.3647;0.6867;
1322.1000;0.3655;0.6988;
1322.4000;0.3647;0.6964;
1322.7000;0.3630;0.7013;
1323.0000;0.3663;0.7159;
1323.3000;0.3647;0.7013;
1323.6000;0.3663;0.6988;
1323.9000;0.3639;0.6915;
1324.2000;0.3557;0.6794;
1324.5000;0.3655;0.7037;
1324.8000;0.3663;0.7086;
1325.1000;0.3647;0.6988;
1325.4000;0.3655;0.7062;
1325.7000;0.3655;0.7013;
1326.0000;0.3663;0.7062;
1326.3000;0.3671;0.7086;
1326.6000;0.3582;0.6867;
1326.9000;0.3647;0.7086;
1327.2000;0.3647;0.7037;
1327.5000;0.3647;0.7013;
1327.8000;0.3639;0.7013;
1328.1000;0.3614;0.6988;
1328.4000;0.3639;0.7013;
1328.7000;0.3647;0.7037;
1329.0000;0.3630;0.6988;
1329.3000;0.3639;0.7013;
1329.6000;0.3671;0.7062;
1329.9000;0.3655;0.7013;
1330.2000;0.3622;0.7110;
1330.5000;0.3614;0.7062;
1330.8000;0.3622;0.7086;
1331.1000;0.3647;0.7183;
1331.4000;0.3647;0.7135;
1331.7000;0.3639;0.7135;
1332.0000;0.3630;0.7159;
1332.3000;0.3630;0.7110;
1332.6000;0.3622;0.7110;
1332.9000;0.3614;0.7110;
1333.2000;0.3744;0.7281;
1333.5000;0.3508;0.6672;
1333.8000;0.3622;0.6867;
1334.1000;0.3639;0.6818;
1334.4000;0.3630;0.6867;
1334.7000;0.3639;0.6891;
1335.0000;0.3647;0.6867;
1335.3000;0.3630;0.6745;
1335.6000;0.3614;0.6769;
1335.9000;0.3647;0.6794;
1336.2000;0.3655;0.6891;
1336.5000;0.3622;0.6867;
1336.8000;0.3679;0.7037;
1337.1000;0.3647;0.6867;
1337.4000;0.3647;0.6915;
1337.7000;0.3630;0.6842;
1338.0000;0.3655;0.6842;
1338.3000;0.3639;0.6818;
1338.6000;0.3630;0.6915;
1338.9000;0.3606;0.6891;
1339.2000;0.3639;0.7013;
1339.5000;0.3639;0.6964;
1339.8000;0.3598;0.6940;
1340.1000;0.3630;0.6988;
1340.4000;0.3590;0.6867;
1340.7000;0.3647;0.6915;
1341.0000;0.3655;0.6988;
1341.3000;0.3663;0.6891;
1341.6000;0.3647;0.6915;
1341.9000;0.3712;0.7062;
1342.2000;0.3598;0.6721;
1342.5000;0.3639;0.6818;
1342.8000;0.3639;0.6794;
1343.1000;0.3639;0.6915;
1343.4000;0.3655;0.7013;
1343.7000;0.3639;0.7062;
1344.0000;0.3639;0.7135;
1344.3000;0.3639;0.7135;
1344.6000;0.3639;0.7037;
1344.9000;0.3655;0.7013;
1345.2000;0.3647;0.6988;
1345.5000;0.3630;0.7086;
1345.8000;0.3622;0.7062;
1346.1000;0.3647;0.7110;
1346.4000;0.3679;0.7086;
1346.7000;0.3679;0.7159;
1347.0000;0.3647;0.7135;
1347.3000;0.3639;0.7037;
1347.6000;0.3647;0.7086;
1347.9000;0.3647;0.6940;
1348.2000;0.3655;0.6915;
1348.5000;0.3647;0.7013;
1348.8000;0.3639;0.7037;
1349.1000;0.3663;0.7135;
1349.4000;0.3647;0.7110;
1349.7000;0.3639;0.7062;
1350.0000;0.3639;0.7086;
1350.3000;0.3639;0.7183;
1350.6000;0.3647;0.7135;
1350.9000;0.3630;0.7037;
1351.2000;0.3671;0.7110;
1351.5000;0.3671;0.7037;
1351.8000;0.3647;0.6940;
1352.1000;0.3639;0.6867;
1352.4000;0.3647;0.6842;
1352.7000;0.3655;0.6891;
1353.0000;0.3630;0.6769;
1353.3000;0.3647;0.6818;
1353.6000;0.3679;0.6940;
1353.9000;0.3639;0.6794;
1354.2000;0.3647;0.6842;
1354.5000;0.3590;0.6672;
1354.8000;0.3630;0.6915;
1355.1000;0.3614;0.6794;
1355.4000;0.3606;0.6721;
1355.7000;0.3639;0.6891;
1356.0000;0.3639;0.6769;
1356.3000;0.3630;0.6623;
1356.6000;0.3630;0.6696;
1356.9000;0.3655;0.6745;
1357.2000;0.3573;0.6575;
1357.5000;0.3696;0.6891;
1357.8000;0.3647;0.6842;
1358.1000;0.3630;0.6818;
1358.4000;0.3630;0.6867;
1358.7000;0.3639;0.6818;
1359.0000;0.3630;0.6818;
1359.3000;0.3622;0.6842;
1359.6000;0.3639;0.7013;
1359.9000;0.3655;0.6988;
1360.2000;0.3647;0.7013;
1360.5000;0.3655;0.6891;
1360.8000;0.3614;0.6696;
1361.1000;0.3647;0.6794;
1361.4000;0.3622;0.6842;
1361.7000;0.3606;0.6794;
1362.0000;0.3606;0.6891;
1362.3000;0.3655;0.7037;
1362.6000;0.3647;0.7037;
1362.9000;0.3663;0.7110;
1363.2000;0.3704;0.7135;
1363.5000;0.3647;0.6867;
1363.8000;0.3647;0.6915;
1364.1000;0.3639;0.6915;
1364.4000;0.3622;0.6891;
1364.7000;0.3647;0.6988;
1365.0000;0.3630;0.6867;
1365.3000;0.3655;0.6891;
1365.6000;0.3663;0.6940;
1365.9000;0.3696;0.6940;
1366.2000;0.3671;0.6769;
1366.5000;0.3663;0.6818;
1366.8000;0.3639;0.6794;
1367.1000;0.3663;0.6842;
1367.4000;0.3655;0.6867;
1367.7000;0.3679;0.6964;
1368.0000;0.3639;0.6891;
1368.3000;0.3622;0.6891;
1368.6000;0.3630;0.7013;
1368.9000;0.3614;0.6891;
1369.2000;0.3614;0.6818;
1369.5000;0.3614;0.6745;
1369.8000;0.3687;0.6842;
1370.1000;0.3655;0.6769;
1370.4000;0.3663;0.6672;
1370.7000;0.3655;0.6696;
1371.0000;0.3630;0.6721;
1371.3000;0.3639;0.6842;
1371.6000;0.3630;0.6891;
1371.9000;0.3630;0.6940;
1372.2000;0.3614;0.7013;
1372.5000;0.3647;0.7037;
1372.8000;0.3622;0.7110;
1373.1000;0.3639;0.7183;
1373.4000;0.3630;0.7086;
1373.7000;0.3614;0.7062;
1374.0000;0.3639;0.7062;
1374.3000;0.3606;0.6867;
1374.6000;0.3639;0.6964;
1374.9000;0.3647;0.7037;
1375.2000;0.3696;0.7135;
1375.5000;0.3679;0.7110;
1375.8000;0.3655;0.6964;
1376.1000;0.3704;0.7086;
1376.4000;0.3647;0.6964;
1376.7000;0.3639;0.6940;
1377.0000;0.3655;0.6940;
1377.3000;0.3647;0.7013;
1377.6000;0.3622;0.7086;
1377.9000;0.3639;0.7037;
1378.2000;0.3647;0.7062;
1378.5000;0.3647;0.7086;
1378.8000;0.3655;0.7086;
1379.1000;0.3622;0.7013;
1379.4000;0.3639;0.7110;
1379.7000;0.3639;0.7208;
1380.0000;0.3647;0.7135;
1380.3000;0.3630;0.7037;
1380.6000;0.3663;0.7086;
1380.9000;0.3663;0.7086;
1381.2000;0.3639;0.7135;
1381.5000;0.3630;0.7159;
1381.8000;0.3663;0.7135;
1382.1000;0.3647;0.6964;
1382.4000;0.3630;0.6794;
1382.7000;0.3582;0.6696;
1383.0000;0.3639;0.6891;
1383.3000;0.3647;0.6842;
1383.6000;0.3647;0.6842;
1383.9000;0.3630;0.6769;
1384.2000;0.3655;0.6867;
1384.5000;0.3679;0.6867;
1384.8000;0.3639;0.6891;
1385.1000;0.3639;0.6891;
1385.4000;0.3671;0.6940;
1385.7000;0.3639;0.6891;
1386.0000;0.3655;0.6988;
1386.3000;0.3647;0.7062;
1386.6000;0.3630;0.7037;
1386.9000;0.3622;0.6988;
1387.2000;0.3655;0.6988;
1387.5000;0.3630;0.6940;
1387.8000;0.3639;0.6915;
1388.1000;0.3639;0.6867;
1388.4000;0.3639;0.6745;
1388.7000;0.3630;0.6842;
1389.0000;0.3630;0.6867;
1389.3000;0.3663;0.6940;
1389.6000;0.3557;0.6550;
1389.9000;0.3663;0.6891;
1390.2000;0.3655;0.6818;
1390.5000;0.3622;0.6769;
1390.8000;0.3647;0.6891;
1391.1000;0.3655;0.6964;
1391.4000;0.3655;0.7037;
1391.7000;0.3630;0.6915;
1392.0000;0.3647;0.7013;
1392.3000;0.3614;0.6940;
1392.6000;0.3614;0.6867;
1392.9000;0.3639;0.6891;
1393.2000;0.3728;0.7110;
1393.5000;0.3663;0.7037;
1393.8000;0.3614;0.6915;
1394.1000;0.3598;0.6940;
1394.4000;0.3639;0.7062;
1394.7000;0.3655;0.7013;
1395.0000;0.3647;0.6818;
1395.3000;0.3598;0.6769;
1395.6000;0.3622;0.6915;
1395.9000;0.3622;0.6988;
1396.2000;0.3736;0.7305;
1396.5000;0.3614;0.6964;
1396.8000;0.3630;0.7037;
1397.1000;0.3630;0.7110;
1397.4000;0.3663;0.7110;
1397.7000;0.3630;0.6867;
1398.0000;0.3630;0.6891;
1398.3000;0.3630;0.6818;
1398.6000;0.3655;0.6940;
1398.9000;0.3630;0.6891;
1399.2000;0.3630;0.6915;
1399.5000;0.3630;0.6891;
1399.8000;0.3622;0.6915;
