time/ms;Fluo/V;P700 deltaI/I x10³;
-199.8000;0.3883;0.6721;
-199.5000;0.3883;0.6745;
-199.2000;0.3875;0.6672;
-198.9000;0.3891;0.6696;
-198.6000;0.3923;0.6745;
-198.3000;0.3867;0.6696;
-198.0000;0.3875;0.6769;
-197.7000;0.3875;0.6818;
-197.4000;0.3899;0.6794;
-197.1000;0.3915;0.6794;
-196.8000;0.3875;0.6672;
-196.5000;0.3899;0.6623;
-196.2000;0.3891;0.6623;
-195.9000;0.3875;0.6599;
-195.6000;0.3891;0.6599;
-195.3000;0.3883;0.6550;
-195.0000;0.3883;0.6477;
-194.7000;0.3818;0.6404;
-194.4000;0.3899;0.6599;
-194.1000;0.3948;0.6672;
-193.8000;0.3899;0.6526;
-193.5000;0.3923;0.6526;
-193.2000;0.3899;0.6453;
-192.9000;0.3891;0.6428;
-192.6000;0.3883;0.6575;
-192.3000;0.3907;0.6599;
-192.0000;0.3891;0.6526;
-191.7000;0.3899;0.6575;
-191.4000;0.3891;0.6623;
-191.1000;0.3858;0.6599;
-190.8000;0.3891;0.6696;
-190.5000;0.3891;0.6696;
-190.2000;0.3867;0.6672;
-189.9000;0.3899;0.6648;
-189.6000;0.3899;0.6526;
-189.3000;0.3883;0.6428;
-189.0000;0.3883;0.6477;
-188.7000;0.3891;0.6550;
-188.4000;0.3883;0.6550;
-188.1000;0.3842;0.6453;
-187.8000;0.3883;0.6623;
-187.5000;0.3850;0.6599;
-187.2000;0.3964;0.6964;
-186.9000;0.3948;0.6915;
-186.6000;0.3891;0.6794;
-186.3000;0.3883;0.6648;
-186.0000;0.3883;0.6599;
-185.7000;0.3964;0.6818;
-185.4000;0.3891;0.6599;
-185.1000;0.3883;0.6477;
-184.8000;0.3891;0.6501;
-184.5000;0.3899;0.6501;
-184.2000;0.3810;0.6282;
-183.9000;0.3883;0.6526;
-183.6000;0.3875;0.6453;
-183.3000;0.3891;0.6453;
-183.0000;0.3891;0.6453;
-182.7000;0.3875;0.6477;
-182.4000;0.3858;0.6404;
-182.1000;0.3891;0.6453;
-181.8000;0.3858;0.6331;
-181.5000;0.3875;0.6355;
-181.2000;0.3891;0.6428;
-180.9000;0.3883;0.6428;
-180.6000;0.3907;0.6501;
-180.3000;0.3883;0.6428;
-180.0000;0.3875;0.6428;
-179.7000;0.3883;0.6404;
-179.4000;0.3923;0.6575;
-179.1000;0.3899;0.6477;
-178.8000;0.3875;0.6453;
-178.5000;0.3883;0.6428;
-178.2000;0.3915;0.6526;
-177.9000;0.3883;0.6404;
-177.6000;0.3891;0.6428;
-177.3000;0.3875;0.6453;
-177.0000;0.3883;0.6526;
-176.7000;0.3899;0.6526;
-176.4000;0.3899;0.6501;
-176.1000;0.3875;0.6428;
-175.8000;0.3956;0.6648;
-175.5000;0.3883;0.6501;
-175.2000;0.3907;0.6550;
-174.9000;0.3867;0.6526;
-174.6000;0.3891;0.6696;
-174.3000;0.3980;0.6915;
-174.0000;0.3899;0.6648;
-173.7000;0.3883;0.6550;
-173.4000;0.3899;0.6623;
-173.1000;0.3948;0.6818;
-172.8000;0.3875;0.6599;
-172.5000;0.3883;0.6575;
-172.2000;0.3915;0.6623;
-171.9000;0.3899;0.6550;
-171.6000;0.3875;0.6550;
-171.3000;0.3858;0.6526;
-171.0000;0.3891;0.6648;
-170.7000;0.3875;0.6672;
-170.4000;0.3891;0.6769;
-170.1000;0.3883;0.6745;
-169.8000;0.3899;0.6794;
-169.5000;0.3891;0.6745;
-169.2000;0.3923;0.6769;
-168.9000;0.3923;0.6769;
-168.6000;0.3867;0.6599;
-168.3000;0.3883;0.6696;
-168.0000;0.3883;0.6648;
-167.7000;0.3875;0.6599;
-167.4000;0.3875;0.6575;
-167.1000;0.3883;0.6501;
-166.8000;0.3875;0.6526;
-166.5000;0.3891;0.6501;
-166.2000;0.3923;0.6575;
-165.9000;0.3907;0.6453;
-165.6000;0.3907;0.6501;
-165.3000;0.3858;0.6550;
-165.0000;0.3883;0.6575;
-164.7000;0.3883;0.6623;
-164.4000;0.3883;0.6648;
-164.1000;0.3891;0.6696;
-163.8000;0.3883;0.6721;
-163.5000;0.3923;0.6721;
-163.2000;0.3891;0.6672;
-162.9000;0.3875;0.6623;
-162.6000;0.3964;0.6891;
-162.3000;0.3875;0.6672;
-162.0000;0.3883;0.6648;
-161.7000;0.3932;0.6721;
-161.4000;0.3915;0.6721;
-161.1000;0.3867;0.6623;
-160.8000;0.3875;0.6672;
-160.5000;0.3899;0.6623;
-160.2000;0.3907;0.6745;
-159.9000;0.3883;0.6769;
-159.6000;0.3899;0.6794;
-159.3000;0.3867;0.6769;
-159.0000;0.3899;0.6794;
-158.7000;0.3907;0.6696;
-158.4000;0.3875;0.6550;
-158.1000;0.3883;0.6477;
-157.8000;0.3883;0.6477;
-157.5000;0.3875;0.6477;
-157.2000;0.3883;0.6575;
-156.9000;0.3899;0.6745;
-156.6000;0.3875;0.6769;
-156.3000;0.3875;0.6721;
-156.0000;0.3883;0.6769;
-155.7000;0.3858;0.6769;
-155.4000;0.3899;0.6818;
-155.1000;0.3907;0.6794;
-154.8000;0.3899;0.6769;
-154.5000;0.3883;0.6818;
-154.2000;0.3891;0.6818;
-153.9000;0.3867;0.6794;
-153.6000;0.3891;0.6867;
-153.3000;0.3850;0.6745;
-153.0000;0.3883;0.6721;
-152.7000;0.3891;0.6672;
-152.4000;0.3899;0.6696;
-152.1000;0.3891;0.6721;
-151.8000;0.3875;0.6696;
-151.5000;0.3891;0.6745;
-151.2000;0.3899;0.6769;
-150.9000;0.3883;0.6696;
-150.6000;0.3842;0.6599;
-150.3000;0.3826;0.6575;
-150.0000;0.3907;0.6721;
-149.7000;0.3858;0.6599;
-149.4000;0.3883;0.6623;
-149.1000;0.3956;0.6721;
-148.8000;0.3883;0.6599;
-148.5000;0.3875;0.6428;
-148.2000;0.3875;0.6380;
-147.9000;0.3883;0.6477;
-147.6000;0.3875;0.6428;
-147.3000;0.3891;0.6380;
-147.0000;0.3883;0.6355;
-146.7000;0.3932;0.6575;
-146.4000;0.3891;0.6550;
-146.1000;0.3875;0.6526;
-145.8000;0.3875;0.6550;
-145.5000;0.3867;0.6477;
-145.2000;0.3883;0.6550;
-144.9000;0.3850;0.6501;
-144.6000;0.3875;0.6575;
-144.3000;0.3858;0.6501;
-144.0000;0.3883;0.6526;
-143.7000;0.3891;0.6575;
-143.4000;0.3883;0.6575;
-143.1000;0.3867;0.6526;
-142.8000;0.3867;0.6477;
-142.5000;0.3842;0.6428;
-142.2000;0.3883;0.6453;
-141.9000;0.3907;0.6575;
-141.6000;0.3858;0.6550;
-141.3000;0.3891;0.6599;
-141.0000;0.3915;0.6648;
-140.7000;0.3883;0.6623;
-140.4000;0.3891;0.6721;
-140.1000;0.3899;0.6745;
-139.8000;0.3858;0.6648;
-139.5000;0.3842;0.6648;
-139.2000;0.3891;0.6696;
-138.9000;0.3875;0.6599;
-138.6000;0.3883;0.6599;
-138.3000;0.3875;0.6623;
-138.0000;0.3875;0.6623;
-137.7000;0.3891;0.6623;
-137.4000;0.3883;0.6648;
-137.1000;0.3891;0.6696;
-136.8000;0.3875;0.6672;
-136.5000;0.3867;0.6648;
-136.2000;0.3867;0.6575;
-135.9000;0.3891;0.6623;
-135.6000;0.3858;0.6501;
-135.3000;0.3899;0.6599;
-135.0000;0.3891;0.6575;
-134.7000;0.3891;0.6648;
-134.4000;0.3907;0.6599;
-134.1000;0.3899;0.6599;
-133.8000;0.3883;0.6526;
-133.5000;0.3964;0.6745;
-133.2000;0.3875;0.6477;
-132.9000;0.3867;0.6428;
-132.6000;0.3883;0.6404;
-132.3000;0.3932;0.6623;
-132.0000;0.3883;0.6575;
-131.7000;0.3883;0.6575;
-131.4000;0.3875;0.6501;
-131.1000;0.3858;0.6380;
-130.8000;0.3899;0.6477;
-130.5000;0.3891;0.6477;
-130.2000;0.3850;0.6453;
-129.9000;0.3883;0.6477;
-129.6000;0.3899;0.6428;
-129.3000;0.3883;0.6404;
-129.0000;0.3875;0.6477;
-128.7000;0.3867;0.6526;
-128.4000;0.3883;0.6672;
-128.1000;0.3875;0.6623;
-127.8000;0.3899;0.6648;
-127.5000;0.3793;0.6331;
-127.2000;0.3891;0.6550;
-126.9000;0.3875;0.6575;
-126.6000;0.3883;0.6672;
-126.3000;0.3891;0.6721;
-126.0000;0.3891;0.6745;
-125.7000;0.3850;0.6672;
-125.4000;0.3818;0.6550;
-125.1000;0.3891;0.6672;
-124.8000;0.3883;0.6672;
-124.5000;0.3883;0.6648;
-124.2000;0.3923;0.6745;
-123.9000;0.3875;0.6599;
-123.6000;0.3875;0.6575;
-123.3000;0.3891;0.6745;
-123.0000;0.3883;0.6721;
-122.7000;0.3875;0.6696;
-122.4000;0.3891;0.6672;
-122.1000;0.3891;0.6672;
-121.8000;0.3875;0.6575;
-121.5000;0.3867;0.6623;
-121.2000;0.3883;0.6721;
-120.9000;0.3891;0.6721;
-120.6000;0.3907;0.6818;
-120.3000;0.3883;0.6745;
-120.0000;0.3891;0.6623;
-119.7000;0.3915;0.6696;
-119.4000;0.3883;0.6648;
-119.1000;0.3875;0.6648;
-118.8000;0.3883;0.6575;
-118.5000;0.3875;0.6648;
-118.2000;0.3891;0.6696;
-117.9000;0.3867;0.6745;
-117.6000;0.3858;0.6721;
-117.3000;0.3875;0.6745;
-117.0000;0.3875;0.6794;
-116.7000;0.3899;0.6818;
-116.4000;0.3875;0.6842;
-116.1000;0.3883;0.6842;
-115.8000;0.3875;0.6794;
-115.5000;0.3875;0.6818;
-115.2000;0.3883;0.6818;
-114.9000;0.3883;0.6794;
-114.6000;0.3891;0.6794;
-114.3000;0.3875;0.6745;
-114.0000;0.3891;0.6721;
-113.7000;0.3883;0.6696;
-113.4000;0.3907;0.6672;
-113.1000;0.3883;0.6575;
-112.8000;0.3899;0.6721;
-112.5000;0.3826;0.6550;
-112.2000;0.3883;0.6769;
-111.9000;0.3899;0.6769;
-111.6000;0.3875;0.6696;
-111.3000;0.3875;0.6696;
-111.0000;0.3883;0.6696;
-110.7000;0.3875;0.6745;
-110.4000;0.3883;0.6721;
-110.1000;0.3883;0.6599;
-109.8000;0.3883;0.6599;
-109.5000;0.3875;0.6575;
-109.2000;0.3907;0.6648;
-108.9000;0.3875;0.6648;
-108.6000;0.3875;0.6648;
-108.3000;0.3915;0.6721;
-108.0000;0.3883;0.6575;
-107.7000;0.3875;0.6599;
-107.4000;0.3875;0.6599;
-107.1000;0.3883;0.6599;
-106.8000;0.3899;0.6648;
-106.5000;0.3867;0.6648;
-106.2000;0.3891;0.6721;
-105.9000;0.3875;0.6599;
-105.6000;0.3867;0.6599;
-105.3000;0.3883;0.6648;
-105.0000;0.3972;0.6818;
-104.7000;0.3867;0.6501;
-104.4000;0.3883;0.6550;
-104.1000;0.3875;0.6526;
-103.8000;0.3867;0.6477;
-103.5000;0.3923;0.6575;
-103.2000;0.3858;0.6453;
-102.9000;0.3899;0.6526;
-102.6000;0.3883;0.6453;
-102.3000;0.3867;0.6404;
-102.0000;0.3785;0.6185;
-101.7000;0.3891;0.6453;
-101.4000;0.3875;0.6355;
-101.1000;0.3891;0.6404;
-100.8000;0.3891;0.6453;
-100.5000;0.3932;0.6575;
-100.2000;0.3761;0.6234;
-99.9000;0.3867;0.6550;
-99.6000;0.3899;0.6599;
-99.3000;0.3875;0.6501;
-99.0000;0.3883;0.6404;
-98.7000;0.3891;0.6404;
-98.4000;0.3899;0.6501;
-98.1000;0.3867;0.6453;
-97.8000;0.3875;0.6550;
-97.5000;0.3932;0.6623;
-97.2000;0.3867;0.6404;
-96.9000;0.3883;0.6380;
-96.6000;0.3875;0.6428;
-96.3000;0.3899;0.6477;
-96.0000;0.3891;0.6404;
-95.7000;0.3801;0.6136;
-95.4000;0.3923;0.6550;
-95.1000;0.3923;0.6623;
-94.8000;0.3932;0.6672;
-94.5000;0.3875;0.6501;
-94.2000;0.3818;0.6477;
-93.9000;0.3899;0.6575;
-93.6000;0.3761;0.6331;
-93.3000;0.3964;0.6891;
-93.0000;0.3883;0.6599;
-92.7000;0.3915;0.6794;
-92.4000;0.3915;0.6745;
-92.1000;0.3923;0.6769;
-91.8000;0.3883;0.6648;
-91.5000;0.3875;0.6745;
-91.2000;0.3867;0.6721;
-90.9000;0.3883;0.6745;
-90.6000;0.3867;0.6745;
-90.3000;0.3842;0.6891;
-90.0000;0.3867;0.6964;
-89.7000;0.3875;0.6915;
-89.4000;0.3899;0.6867;
-89.1000;0.3883;0.6672;
-88.8000;0.3875;0.6721;
-88.5000;0.3875;0.6696;
-88.2000;0.3883;0.6623;
-87.9000;0.3875;0.6648;
-87.6000;0.3899;0.6648;
-87.3000;0.3923;0.6721;
-87.0000;0.3875;0.6550;
-86.7000;0.3899;0.6623;
-86.4000;0.3875;0.6648;
-86.1000;0.3883;0.6648;
-85.8000;0.3883;0.6696;
-85.5000;0.3907;0.6721;
-85.2000;0.3899;0.6696;
-84.9000;0.3883;0.6623;
-84.6000;0.3883;0.6623;
-84.3000;0.3883;0.6526;
-84.0000;0.3875;0.6380;
-83.7000;0.3858;0.6355;
-83.4000;0.3867;0.6453;
-83.1000;0.3891;0.6575;
-82.8000;0.3801;0.6380;
-82.5000;0.3867;0.6453;
-82.2000;0.3899;0.6575;
-81.9000;0.3867;0.6501;
-81.6000;0.3883;0.6550;
-81.3000;0.3875;0.6550;
-81.0000;0.3883;0.6550;
-80.7000;0.3883;0.6404;
-80.4000;0.3858;0.6526;
-80.1000;0.3867;0.6696;
-79.8000;0.3875;0.6721;
-79.5000;0.3883;0.6721;
-79.2000;0.3883;0.6769;
-78.9000;0.3891;0.6794;
-78.6000;0.3948;0.6964;
-78.3000;0.3907;0.6842;
-78.0000;0.3834;0.6696;
-77.7000;0.3915;0.6891;
-77.4000;0.3915;0.6818;
-77.1000;0.3899;0.6721;
-76.8000;0.3842;0.6599;
-76.5000;0.3891;0.6745;
-76.2000;0.3932;0.6769;
-75.9000;0.3842;0.6526;
-75.6000;0.3923;0.6721;
-75.3000;0.3899;0.6599;
-75.0000;0.3875;0.6477;
-74.7000;0.3867;0.6428;
-74.4000;0.3883;0.6477;
-74.1000;0.3867;0.6404;
-73.8000;0.3826;0.6380;
-73.5000;0.3850;0.6453;
-73.2000;0.3875;0.6453;
-72.9000;0.3883;0.6380;
-72.6000;0.3875;0.6331;
-72.3000;0.3891;0.6331;
-72.0000;0.3899;0.6380;
-71.7000;0.3932;0.6501;
-71.4000;0.3899;0.6453;
-71.1000;0.3907;0.6550;
-70.8000;0.3850;0.6380;
-70.5000;0.3883;0.6428;
-70.2000;0.3875;0.6380;
-69.9000;0.3899;0.6404;
-69.6000;0.3899;0.6404;
-69.3000;0.3923;0.6550;
-69.0000;0.3883;0.6526;
-68.7000;0.3899;0.6648;
-68.4000;0.3867;0.6575;
-68.1000;0.3907;0.6769;
-67.8000;0.3891;0.6721;
-67.5000;0.3907;0.6721;
-67.2000;0.3899;0.6672;
-66.9000;0.3883;0.6623;
-66.6000;0.3907;0.6575;
-66.3000;0.3875;0.6428;
-66.0000;0.3875;0.6380;
-65.7000;0.3867;0.6307;
-65.4000;0.3875;0.6331;
-65.1000;0.3875;0.6380;
-64.8000;0.3858;0.6307;
-64.5000;0.3883;0.6331;
-64.2000;0.3875;0.6282;
-63.9000;0.3883;0.6258;
-63.6000;0.3891;0.6331;
-63.3000;0.3907;0.6428;
-63.0000;0.3891;0.6404;
-62.7000;0.3883;0.6355;
-62.4000;0.3891;0.6258;
-62.1000;0.3875;0.6234;
-61.8000;0.3875;0.6234;
-61.5000;0.3891;0.6209;
-61.2000;0.3858;0.6039;
-60.9000;0.3858;0.6063;
-60.6000;0.3883;0.6136;
-60.3000;0.3875;0.6136;
-60.0000;0.3826;0.6088;
-59.7000;0.3883;0.6307;
-59.4000;0.3883;0.6307;
-59.1000;0.3875;0.6331;
-58.8000;0.3842;0.6234;
-58.5000;0.3891;0.6404;
-58.2000;0.3899;0.6404;
-57.9000;0.3915;0.6307;
-57.6000;0.3891;0.6234;
-57.3000;0.3899;0.6282;
-57.0000;0.3964;0.6501;
-56.7000;0.3907;0.6282;
-56.4000;0.3891;0.6234;
-56.1000;0.3883;0.6307;
-55.8000;0.3915;0.6428;
-55.5000;0.3785;0.6161;
-55.2000;0.3891;0.6428;
-54.9000;0.3850;0.6453;
-54.6000;0.3907;0.6623;
-54.3000;0.3858;0.6599;
-54.0000;0.3915;0.6721;
-53.7000;0.3850;0.6453;
-53.4000;0.3899;0.6575;
-53.1000;0.3907;0.6623;
-52.8000;0.3891;0.6599;
-52.5000;0.3989;0.6891;
-52.2000;0.3883;0.6599;
-51.9000;0.3907;0.6672;
-51.6000;0.3907;0.6672;
-51.3000;0.3883;0.6672;
-51.0000;0.3875;0.6550;
-50.7000;0.3826;0.6355;
-50.4000;0.3915;0.6526;
-50.1000;0.3875;0.6428;
-49.8000;0.3964;0.6672;
-49.5000;0.3923;0.6526;
-49.2000;0.3923;0.6453;
-48.9000;0.3875;0.6380;
-48.6000;0.3907;0.6453;
-48.3000;0.3875;0.6404;
-48.0000;0.3899;0.6428;
-47.7000;0.3867;0.6355;
-47.4000;0.3883;0.6355;
-47.1000;0.3899;0.6380;
-46.8000;0.3858;0.6331;
-46.5000;0.3956;0.6623;
-46.2000;0.3891;0.6380;
-45.9000;0.3850;0.6404;
-45.6000;0.3875;0.6526;
-45.3000;0.3883;0.6550;
-45.0000;0.3883;0.6550;
-44.7000;0.3875;0.6477;
-44.4000;0.3883;0.6477;
-44.1000;0.3891;0.6526;
-43.8000;0.3907;0.6623;
-43.5000;0.3923;0.6696;
-43.2000;0.3891;0.6550;
-42.9000;0.3907;0.6550;
-42.6000;0.3883;0.6550;
-42.3000;0.3858;0.6453;
-42.0000;0.3891;0.6428;
-41.7000;0.3907;0.6428;
-41.4000;0.3834;0.6331;
-41.1000;0.3867;0.6477;
-40.8000;0.3883;0.6526;
-40.5000;0.3875;0.6526;
-40.2000;0.3899;0.6599;
-39.9000;0.3907;0.6672;
-39.6000;0.3875;0.6648;
-39.3000;0.3834;0.6501;
-39.0000;0.3907;0.6550;
-38.7000;0.3891;0.6550;
-38.4000;0.3915;0.6648;
-38.1000;0.3883;0.6550;
-37.8000;0.3875;0.6623;
-37.5000;0.3883;0.6672;
-37.2000;0.3867;0.6575;
-36.9000;0.3891;0.6550;
-36.6000;0.3875;0.6501;
-36.3000;0.3875;0.6526;
-36.0000;0.3875;0.6453;
-35.7000;0.3867;0.6331;
-35.4000;0.3867;0.6282;
-35.1000;0.3891;0.6331;
-34.8000;0.3867;0.6234;
-34.5000;0.3915;0.6282;
-34.2000;0.4062;0.6696;
-33.9000;0.3891;0.6307;
-33.6000;0.3891;0.6282;
-33.3000;0.3858;0.6282;
-33.0000;0.3883;0.6307;
-32.7000;0.3940;0.6550;
-32.4000;0.3883;0.6428;
-32.1000;0.3883;0.6428;
-31.8000;0.3891;0.6477;
-31.5000;0.3899;0.6526;
-31.2000;0.3867;0.6428;
-30.9000;0.3891;0.6404;
-30.6000;0.3964;0.6721;
-30.3000;0.3891;0.6575;
-30.0000;0.3883;0.6575;
-29.7000;0.3883;0.6599;
-29.4000;0.3867;0.6599;
-29.1000;0.3899;0.6648;
-28.8000;0.3891;0.6745;
-28.5000;0.3899;0.6794;
-28.2000;0.3891;0.6696;
-27.9000;0.3907;0.6672;
-27.6000;0.3891;0.6623;
-27.3000;0.3891;0.6672;
-27.0000;0.3891;0.6599;
-26.7000;0.3883;0.6501;
-26.4000;0.3875;0.6453;
-26.1000;0.3899;0.6501;
-25.8000;0.3932;0.6745;
-25.5000;0.3899;0.6648;
-25.2000;0.3875;0.6648;
-24.9000;0.3899;0.6526;
-24.6000;0.3891;0.6453;
-24.3000;0.3867;0.6380;
-24.0000;0.3891;0.6501;
-23.7000;0.3883;0.6404;
-23.4000;0.3907;0.6428;
-23.1000;0.3867;0.6331;
-22.8000;0.3883;0.6404;
-22.5000;0.3875;0.6404;
-22.2000;0.3899;0.6404;
-21.9000;0.3883;0.6404;
-21.6000;0.3875;0.6355;
-21.3000;0.3867;0.6404;
-21.0000;0.3891;0.6404;
-20.7000;0.3867;0.6404;
-20.4000;0.3875;0.6428;
-20.1000;0.3867;0.6380;
-19.8000;0.3899;0.6380;
-19.5000;0.3867;0.6258;
-19.2000;0.3915;0.6355;
-18.9000;0.3891;0.6428;
-18.6000;0.3891;0.6453;
-18.3000;0.3875;0.6380;
-18.0000;0.3899;0.6404;
-17.7000;0.3891;0.6477;
-17.4000;0.3858;0.6331;
-17.1000;0.3899;0.6453;
-16.8000;0.3891;0.6550;
-16.5000;0.3858;0.6501;
-16.2000;0.3883;0.6453;
-15.9000;0.3891;0.6477;
-15.6000;0.3899;0.6477;
-15.3000;0.3810;0.6258;
-15.0000;0.3867;0.6477;
-14.7000;0.3875;0.6575;
-14.4000;0.3891;0.6599;
-14.1000;0.3875;0.6599;
-13.8000;0.3875;0.6648;
-13.5000;0.3858;0.6623;
-13.2000;0.3867;0.6721;
-12.9000;0.3875;0.6794;
-12.6000;0.3875;0.6988;
-12.3000;0.3867;0.6818;
-12.0000;0.3891;0.6794;
-11.7000;0.3867;0.6842;
-11.4000;0.3883;0.6842;
-11.1000;0.3883;0.6794;
-10.8000;0.3891;0.6794;
-10.5000;0.3923;0.6940;
-10.2000;0.3858;0.6721;
-9.9000;0.3891;0.6867;
-9.6000;0.3891;0.6891;
-9.3000;0.3907;0.6988;
-9.0000;0.3875;0.6867;
-8.7000;0.3883;0.6915;
-8.4000;0.3858;0.6818;
-8.1000;0.3891;0.6818;
-7.8000;0.3899;0.6794;
-7.5000;0.3891;0.6745;
-7.2000;0.3948;0.6842;
-6.9000;0.3907;0.6745;
-6.6000;0.3891;0.6696;
-6.3000;0.3883;0.6696;
-6.0000;0.3858;0.6648;
-5.7000;0.3891;0.6721;
-5.4000;0.3891;0.6696;
-5.1000;0.3875;0.6696;
-4.8000;0.3883;0.6769;
-4.5000;0.3883;0.6745;
-4.2000;0.3932;0.6891;
-3.9000;0.3867;0.6696;
-3.6000;0.3875;0.6648;
-3.3000;0.3875;0.6745;
-3.0000;0.3875;0.6794;
-2.7000;0.3867;0.6769;
-2.4000;0.3964;0.7086;
-2.1000;0.3875;0.6794;
-1.8000;0.3883;0.6769;
-1.5000;0.3867;0.6794;
-1.2000;0.3875;0.6818;
-0.9000;0.3891;0.6745;
-0.6000;0.3875;0.6623;
-0.3000;0.3858;0.6575;
0.0000;0.3858;0.6575;
0.3000;0.3989;0.6380;
0.6000;0.4151;0.6648;
0.9000;0.4257;0.6988;
1.2000;0.4347;0.7256;
1.5000;0.4428;0.7597;
1.8000;0.4493;0.7914;
2.1000;0.4526;0.8109;
2.4000;0.4575;0.8279;
2.7000;0.4615;0.8474;
3.0000;0.4640;0.8644;
3.3000;0.4656;0.8790;
3.6000;0.4656;0.8912;
3.9000;0.4672;0.9010;
4.2000;0.4697;0.9058;
4.5000;0.4737;0.9131;
4.8000;0.4713;0.9107;
5.1000;0.4762;0.9204;
5.4000;0.4754;0.9229;
5.7000;0.4803;0.9302;
6.0000;0.4786;0.9253;
6.3000;0.4778;0.9277;
6.6000;0.4803;0.9326;
6.9000;0.4835;0.9350;
7.2000;0.4884;0.9423;
7.5000;0.4786;0.9180;
7.8000;0.4835;0.9302;
8.1000;0.4860;0.9253;
8.4000;0.4860;0.9107;
8.7000;0.4974;0.9302;
9.0000;0.4876;0.9131;
9.3000;0.4843;0.8936;
9.6000;0.4900;0.9058;
9.9000;0.4892;0.9083;
10.2000;0.4892;0.9107;
10.5000;0.4917;0.9083;
10.8000;0.4949;0.9229;
11.1000;0.4933;0.9131;
11.4000;0.4925;0.9180;
11.7000;0.4941;0.9326;
12.0000;0.4957;0.9350;
12.3000;0.4998;0.9326;
12.6000;0.4982;0.9277;
12.9000;0.4974;0.9302;
13.2000;0.4974;0.9302;
13.5000;0.4965;0.9180;
13.8000;0.4998;0.9131;
14.1000;0.4990;0.9107;
14.4000;0.4998;0.9229;
14.7000;0.5006;0.9253;
15.0000;0.4965;0.9131;
15.3000;0.4990;0.9180;
15.6000;0.5022;0.9131;
15.9000;0.5014;0.9131;
16.2000;0.5039;0.9350;
16.5000;0.5063;0.9423;
16.8000;0.5022;0.9326;
17.1000;0.5063;0.9399;
17.4000;0.5014;0.9229;
17.7000;0.5031;0.9326;
18.0000;0.5063;0.9472;
18.3000;0.5055;0.9350;
18.6000;0.5079;0.9399;
18.9000;0.5063;0.9423;
19.2000;0.5039;0.9423;
19.5000;0.5144;0.9643;
19.8000;0.5185;0.9691;
20.1000;0.5063;0.9277;
20.4000;0.5055;0.9277;
20.7000;0.5096;0.9326;
21.0000;0.5088;0.9253;
21.3000;0.5112;0.9253;
21.6000;0.5079;0.9156;
21.9000;0.5088;0.9229;
22.2000;0.5088;0.9229;
22.5000;0.5096;0.9253;
22.8000;0.5071;0.9204;
23.1000;0.5088;0.9229;
23.4000;0.5104;0.9253;
23.7000;0.5104;0.9229;
24.0000;0.5088;0.9229;
24.3000;0.5088;0.9302;
24.6000;0.5104;0.9350;
24.9000;0.5112;0.9448;
25.2000;0.5104;0.9448;
25.5000;0.5104;0.9423;
25.8000;0.5104;0.9399;
26.1000;0.5112;0.9423;
26.4000;0.5112;0.9302;
26.7000;0.5104;0.9253;
27.0000;0.5120;0.9375;
27.3000;0.5161;0.9423;
27.6000;0.5120;0.9326;
27.9000;0.5128;0.9277;
28.2000;0.5153;0.9302;
28.5000;0.5144;0.9350;
28.8000;0.5120;0.9277;
29.1000;0.5153;0.9277;
29.4000;0.5120;0.9204;
29.7000;0.5120;0.9204;
30.0000;0.5153;0.9277;
30.3000;0.5120;0.9253;
30.6000;0.5079;0.9204;
30.9000;0.5136;0.9326;
31.2000;0.5144;0.9302;
31.5000;0.5144;0.9326;
31.8000;0.5144;0.9302;
32.1000;0.5161;0.9277;
32.4000;0.5177;0.9277;
32.7000;0.5144;0.9326;
33.0000;0.5153;0.9350;
33.3000;0.5169;0.9521;
33.6000;0.5153;0.9472;
33.9000;0.5153;0.9497;
34.2000;0.5153;0.9448;
34.5000;0.5144;0.9350;
34.8000;0.5185;0.9350;
35.1000;0.5169;0.9350;
35.4000;0.5161;0.9302;
35.7000;0.5161;0.9229;
36.0000;0.5144;0.9156;
36.3000;0.5128;0.9131;
36.6000;0.5153;0.9204;
36.9000;0.5177;0.9229;
37.2000;0.5177;0.9204;
37.5000;0.5226;0.9326;
37.8000;0.5144;0.9131;
38.1000;0.5161;0.9204;
38.4000;0.5185;0.9180;
38.7000;0.5144;0.9107;
39.0000;0.5177;0.9180;
39.3000;0.5161;0.9156;
39.6000;0.5153;0.9253;
39.9000;0.5201;0.9350;
40.2000;0.5161;0.9180;
40.5000;0.5193;0.9204;
40.8000;0.5210;0.9253;
41.1000;0.5250;0.9326;
41.4000;0.5201;0.9204;
41.7000;0.5201;0.9204;
42.0000;0.5177;0.9204;
42.3000;0.5144;0.9156;
42.6000;0.5234;0.9375;
42.9000;0.5169;0.9229;
43.2000;0.5161;0.9204;
43.5000;0.5201;0.9277;
43.8000;0.5267;0.9448;
44.1000;0.5210;0.9302;
44.4000;0.5210;0.9277;
44.7000;0.5177;0.9277;
45.0000;0.5210;0.9399;
45.3000;0.5177;0.9326;
45.6000;0.5242;0.9521;
45.9000;0.5185;0.9302;
46.2000;0.5193;0.9253;
46.5000;0.5201;0.9277;
46.8000;0.5185;0.9204;
47.1000;0.5218;0.9326;
47.4000;0.5185;0.9253;
47.7000;0.5185;0.9204;
48.0000;0.5193;0.9156;
48.3000;0.5185;0.9058;
48.6000;0.5193;0.9204;
48.9000;0.5210;0.9253;
49.2000;0.5201;0.9229;
49.5000;0.5210;0.9277;
49.8000;0.5210;0.9302;
50.1000;0.5210;0.9253;
50.4000;0.5226;0.9229;
50.7000;0.5201;0.9302;
51.0000;0.5201;0.9350;
51.3000;0.5218;0.9423;
51.6000;0.5218;0.9375;
51.9000;0.5201;0.9253;
52.2000;0.5201;0.9253;
52.5000;0.5210;0.9204;
52.8000;0.5161;0.9107;
53.1000;0.5193;0.9131;
53.4000;0.5210;0.9156;
53.7000;0.5201;0.9131;
54.0000;0.5210;0.9180;
54.3000;0.5201;0.9253;
54.6000;0.5234;0.9326;
54.9000;0.5210;0.9277;
55.2000;0.5234;0.9350;
55.5000;0.5258;0.9350;
55.8000;0.5210;0.9277;
56.1000;0.5210;0.9229;
56.4000;0.5210;0.9326;
56.7000;0.5226;0.9350;
57.0000;0.5201;0.9277;
57.3000;0.5210;0.9375;
57.6000;0.5185;0.9277;
57.9000;0.5218;0.9350;
58.2000;0.5210;0.9350;
58.5000;0.5161;0.9204;
58.8000;0.5242;0.9350;
59.1000;0.5218;0.9277;
59.4000;0.5242;0.9302;
59.7000;0.5218;0.9156;
60.0000;0.5226;0.9229;
60.3000;0.5226;0.9277;
60.6000;0.5210;0.9277;
60.9000;0.5218;0.9326;
61.2000;0.5218;0.9326;
61.5000;0.5250;0.9302;
61.8000;0.5193;0.9083;
62.1000;0.5226;0.9180;
62.4000;0.5185;0.9180;
62.7000;0.5291;0.9350;
63.0000;0.5226;0.9253;
63.3000;0.5226;0.9253;
63.6000;0.5218;0.9229;
63.9000;0.5218;0.9180;
64.2000;0.5234;0.9253;
64.5000;0.5226;0.9204;
64.8000;0.5210;0.9180;
65.1000;0.5242;0.9277;
65.4000;0.5218;0.9277;
65.7000;0.5226;0.9277;
66.0000;0.5226;0.9277;
66.3000;0.5226;0.9277;
66.6000;0.5226;0.9229;
66.9000;0.5226;0.9156;
67.2000;0.5201;0.9204;
67.5000;0.5210;0.9277;
67.8000;0.5226;0.9302;
68.1000;0.5218;0.9253;
68.4000;0.5226;0.9302;
68.7000;0.5218;0.9253;
69.0000;0.5250;0.9350;
69.3000;0.5218;0.9326;
69.6000;0.5177;0.9204;
69.9000;0.5226;0.9253;
70.2000;0.5234;0.9277;
70.5000;0.5242;0.9253;
70.8000;0.5267;0.9326;
71.1000;0.5226;0.9131;
71.4000;0.5234;0.9107;
71.7000;0.5201;0.9058;
72.0000;0.5201;0.8961;
72.3000;0.5242;0.9083;
72.6000;0.5226;0.9083;
72.9000;0.5258;0.9229;
73.2000;0.5226;0.9253;
73.5000;0.5234;0.9326;
73.8000;0.5226;0.9277;
74.1000;0.5234;0.9326;
74.4000;0.5250;0.9302;
74.7000;0.5242;0.9156;
75.0000;0.5242;0.9156;
75.3000;0.5234;0.9180;
75.6000;0.5218;0.9277;
75.9000;0.5258;0.9472;
76.2000;0.5242;0.9448;
76.5000;0.5267;0.9423;
76.8000;0.5210;0.9277;
77.1000;0.5226;0.9277;
77.4000;0.5218;0.9326;
77.7000;0.5210;0.9204;
78.0000;0.5226;0.9302;
78.3000;0.5226;0.9277;
78.6000;0.5250;0.9350;
78.9000;0.5226;0.9326;
79.2000;0.5234;0.9277;
79.5000;0.5250;0.9180;
79.8000;0.5250;0.9058;
80.1000;0.5234;0.8936;
80.4000;0.5226;0.9010;
80.7000;0.5242;0.9058;
81.0000;0.5242;0.8985;
81.3000;0.5242;0.8961;
81.6000;0.5242;0.8961;
81.9000;0.5226;0.8936;
82.2000;0.5218;0.8912;
82.5000;0.5242;0.8936;
82.8000;0.5242;0.9010;
83.1000;0.5250;0.9107;
83.4000;0.5250;0.9229;
83.7000;0.5226;0.9204;
84.0000;0.5218;0.9253;
84.3000;0.5283;0.9350;
84.6000;0.5210;0.9180;
84.9000;0.5226;0.9204;
85.2000;0.5242;0.9204;
85.5000;0.5234;0.9131;
85.8000;0.5242;0.9107;
86.1000;0.5218;0.9010;
86.4000;0.5234;0.9010;
86.7000;0.5226;0.8985;
87.0000;0.5218;0.9083;
87.3000;0.5161;0.8985;
87.6000;0.5275;0.9277;
87.9000;0.5234;0.9229;
88.2000;0.5226;0.9302;
88.5000;0.5226;0.9350;
88.8000;0.5201;0.9277;
89.1000;0.5201;0.9253;
89.4000;0.5234;0.9302;
89.7000;0.5234;0.9253;
90.0000;0.5234;0.9107;
90.3000;0.5218;0.9010;
90.6000;0.5242;0.9058;
90.9000;0.5242;0.9034;
91.2000;0.5234;0.9034;
91.5000;0.5226;0.9107;
91.8000;0.5234;0.9107;
92.1000;0.5234;0.9107;
92.4000;0.5267;0.9156;
92.7000;0.5234;0.9058;
93.0000;0.5153;0.8936;
93.3000;0.5226;0.9083;
93.6000;0.5283;0.9131;
93.9000;0.5299;0.9083;
94.2000;0.5234;0.8839;
94.5000;0.5226;0.8863;
94.8000;0.5234;0.8912;
95.1000;0.5242;0.8961;
95.4000;0.5193;0.8888;
95.7000;0.5242;0.9058;
96.0000;0.5226;0.9156;
96.3000;0.5250;0.9229;
96.6000;0.5250;0.9302;
96.9000;0.5210;0.9180;
97.2000;0.5242;0.9083;
97.5000;0.5234;0.8961;
97.8000;0.5210;0.8912;
98.1000;0.5242;0.8985;
98.4000;0.5218;0.8936;
98.7000;0.5193;0.8936;
99.0000;0.5242;0.9058;
99.3000;0.5226;0.8961;
99.6000;0.5226;0.9010;
99.9000;0.5201;0.9058;
100.2000;0.5218;0.9131;
100.5000;0.5234;0.9131;
100.8000;0.5242;0.9034;
101.1000;0.5242;0.9083;
101.4000;0.5242;0.9156;
101.7000;0.5242;0.9156;
102.0000;0.5210;0.9156;
102.3000;0.5226;0.9107;
102.6000;0.5218;0.9107;
102.9000;0.5226;0.9107;
103.2000;0.5234;0.9180;
103.5000;0.5234;0.9131;
103.8000;0.5234;0.9083;
104.1000;0.5218;0.8985;
104.4000;0.5258;0.9058;
104.7000;0.5242;0.9058;
105.0000;0.5234;0.9058;
105.3000;0.5258;0.9083;
105.6000;0.5242;0.9058;
105.9000;0.5234;0.9131;
106.2000;0.5210;0.8985;
106.5000;0.5242;0.9083;
106.8000;0.5242;0.9058;
107.1000;0.5250;0.9131;
107.4000;0.5234;0.9156;
107.7000;0.5242;0.9156;
108.0000;0.5250;0.9107;
108.3000;0.5234;0.9034;
108.6000;0.5234;0.9058;
108.9000;0.5242;0.9034;
109.2000;0.5242;0.9058;
109.5000;0.5250;0.9107;
109.8000;0.5234;0.9180;
110.1000;0.5242;0.9156;
110.4000;0.5242;0.9131;
110.7000;0.5210;0.9010;
111.0000;0.5242;0.9058;
111.3000;0.5283;0.9083;
111.6000;0.5234;0.9107;
111.9000;0.5226;0.9131;
112.2000;0.5234;0.9156;
112.5000;0.5218;0.9107;
112.8000;0.5250;0.9131;
113.1000;0.5210;0.9083;
113.4000;0.5258;0.9083;
113.7000;0.5226;0.8936;
114.0000;0.5258;0.9010;
114.3000;0.5299;0.9156;
114.6000;0.5218;0.8985;
114.9000;0.5234;0.9083;
115.2000;0.5250;0.9156;
115.5000;0.5218;0.9131;
115.8000;0.5234;0.9204;
116.1000;0.5242;0.9180;
116.4000;0.5161;0.8912;
116.7000;0.5226;0.9156;
117.0000;0.5242;0.9156;
117.3000;0.5234;0.9180;
117.6000;0.5234;0.9180;
117.9000;0.5242;0.9277;
118.2000;0.5242;0.9326;
118.5000;0.5250;0.9326;
118.8000;0.5250;0.9229;
119.1000;0.5275;0.9204;
119.4000;0.5218;0.9131;
119.7000;0.5250;0.9229;
120.0000;0.5250;0.9229;
120.3000;0.5242;0.9302;
120.6000;0.5250;0.9350;
120.9000;0.5242;0.9277;
121.2000;0.5234;0.9229;
121.5000;0.5250;0.9229;
121.8000;0.5267;0.9350;
122.1000;0.5242;0.9253;
122.4000;0.5226;0.9253;
122.7000;0.5234;0.9350;
123.0000;0.5234;0.9326;
123.3000;0.5234;0.9229;
123.6000;0.5242;0.9083;
123.9000;0.5234;0.9083;
124.2000;0.5218;0.9083;
124.5000;0.5234;0.9180;
124.8000;0.5234;0.9204;
125.1000;0.5210;0.9131;
125.4000;0.5234;0.9229;
125.7000;0.5218;0.9204;
126.0000;0.5218;0.9131;
126.3000;0.5242;0.9107;
126.6000;0.5242;0.9107;
126.9000;0.5226;0.9156;
127.2000;0.5234;0.9229;
127.5000;0.5226;0.9107;
127.8000;0.5128;0.8815;
128.1000;0.5242;0.9156;
128.4000;0.5258;0.9131;
128.7000;0.5234;0.9010;
129.0000;0.5242;0.9010;
129.3000;0.5258;0.9058;
129.6000;0.5234;0.9010;
129.9000;0.5226;0.8936;
130.2000;0.5258;0.8912;
130.5000;0.5234;0.8912;
130.8000;0.5250;0.8961;
131.1000;0.5242;0.8985;
131.4000;0.5267;0.8985;
131.7000;0.5218;0.8936;
132.0000;0.5242;0.9034;
132.3000;0.5153;0.8839;
132.6000;0.5185;0.8912;
132.9000;0.5242;0.9010;
133.2000;0.5275;0.9107;
133.5000;0.5234;0.9083;
133.8000;0.5242;0.9131;
134.1000;0.5226;0.9034;
134.4000;0.5234;0.9058;
134.7000;0.5258;0.9010;
135.0000;0.5234;0.9010;
135.3000;0.5144;0.8839;
135.6000;0.5234;0.9107;
135.9000;0.5242;0.9180;
136.2000;0.5267;0.9156;
136.5000;0.5177;0.8961;
136.8000;0.5226;0.9058;
137.1000;0.5153;0.8936;
137.4000;0.5169;0.8912;
137.7000;0.5234;0.8985;
138.0000;0.5226;0.8985;
138.3000;0.5242;0.8936;
138.6000;0.5242;0.8936;
138.9000;0.5226;0.8766;
139.2000;0.5226;0.8790;
139.5000;0.5250;0.8839;
139.8000;0.5242;0.8888;
140.1000;0.5234;0.8815;
140.4000;0.5234;0.8912;
140.7000;0.5226;0.8912;
141.0000;0.5242;0.8961;
141.3000;0.5258;0.8985;
141.6000;0.5315;0.9204;
141.9000;0.5242;0.8985;
142.2000;0.5242;0.8961;
142.5000;0.5226;0.9058;
142.8000;0.5218;0.9131;
143.1000;0.5210;0.9058;
143.4000;0.5242;0.9156;
143.7000;0.5250;0.9131;
144.0000;0.5242;0.9107;
144.3000;0.5234;0.9058;
144.6000;0.5250;0.9180;
144.9000;0.5250;0.9253;
145.2000;0.5226;0.9156;
145.5000;0.5177;0.9107;
145.8000;0.5242;0.9204;
146.1000;0.5210;0.8961;
146.4000;0.5210;0.9034;
146.7000;0.5210;0.9034;
147.0000;0.5226;0.9058;
147.3000;0.5234;0.9034;
147.6000;0.5218;0.8961;
147.9000;0.5234;0.8961;
148.2000;0.5226;0.8985;
148.5000;0.5226;0.9083;
148.8000;0.5226;0.9107;
149.1000;0.5234;0.9058;
149.4000;0.5218;0.9034;
149.7000;0.5226;0.9107;
150.0000;0.5234;0.9034;
150.3000;0.5267;0.9083;
150.6000;0.5242;0.9058;
150.9000;0.5234;0.8985;
151.2000;0.5234;0.9010;
151.5000;0.5250;0.9058;
151.8000;0.5226;0.8985;
152.1000;0.5242;0.9058;
152.4000;0.5307;0.9302;
152.7000;0.5267;0.9131;
153.0000;0.5234;0.8985;
153.3000;0.5299;0.9180;
153.6000;0.5193;0.8790;
153.9000;0.5250;0.8912;
154.2000;0.5242;0.8815;
154.5000;0.5258;0.8863;
154.8000;0.5177;0.8693;
155.1000;0.5234;0.8888;
155.4000;0.5226;0.8888;
155.7000;0.5234;0.8912;
156.0000;0.5242;0.9058;
156.3000;0.5242;0.9156;
156.6000;0.5177;0.9058;
156.9000;0.5291;0.9253;
157.2000;0.5242;0.9034;
157.5000;0.5242;0.8985;
157.8000;0.5242;0.9034;
158.1000;0.5201;0.8961;
158.4000;0.5234;0.9010;
158.7000;0.5234;0.9107;
159.0000;0.5258;0.9180;
159.3000;0.5234;0.9204;
159.6000;0.5226;0.9156;
159.9000;0.5250;0.9156;
160.2000;0.5234;0.9156;
160.5000;0.5218;0.9107;
160.8000;0.5234;0.9107;
161.1000;0.5218;0.9034;
161.4000;0.5307;0.9204;
161.7000;0.5267;0.9131;
162.0000;0.5234;0.9034;
162.3000;0.5242;0.8936;
162.6000;0.5258;0.9010;
162.9000;0.5250;0.8936;
163.2000;0.5242;0.8912;
163.5000;0.5185;0.8863;
163.8000;0.5226;0.9058;
164.1000;0.5242;0.9083;
164.4000;0.5250;0.9058;
164.7000;0.5210;0.9010;
165.0000;0.5226;0.8936;
165.3000;0.5242;0.8936;
165.6000;0.5234;0.8961;
165.9000;0.5218;0.8985;
166.2000;0.5291;0.9083;
166.5000;0.5234;0.9058;
166.8000;0.5226;0.9010;
167.1000;0.5226;0.9083;
167.4000;0.5242;0.8985;
167.7000;0.5242;0.8985;
168.0000;0.5234;0.8961;
168.3000;0.5242;0.8936;
168.6000;0.5250;0.8961;
168.9000;0.5234;0.8888;
169.2000;0.5242;0.8912;
169.5000;0.5226;0.8888;
169.8000;0.5218;0.8863;
170.1000;0.5226;0.8936;
170.4000;0.5234;0.8961;
170.7000;0.5177;0.8912;
171.0000;0.5226;0.8985;
171.3000;0.5226;0.9010;
171.6000;0.5258;0.9034;
171.9000;0.5226;0.8936;
172.2000;0.5250;0.8985;
172.5000;0.5218;0.8839;
172.8000;0.5218;0.8815;
173.1000;0.5250;0.8863;
173.4000;0.5185;0.8839;
173.7000;0.5242;0.8985;
174.0000;0.5234;0.8985;
174.3000;0.5250;0.9058;
174.6000;0.5234;0.9010;
174.9000;0.5234;0.8985;
175.2000;0.5226;0.8863;
175.5000;0.5218;0.8815;
175.8000;0.5226;0.8815;
176.1000;0.5226;0.8863;
176.4000;0.5242;0.8863;
176.7000;0.5242;0.8888;
177.0000;0.5258;0.8936;
177.3000;0.5234;0.8912;
177.6000;0.5234;0.8863;
177.9000;0.5242;0.8863;
178.2000;0.5234;0.8766;
178.5000;0.5234;0.8888;
178.8000;0.5267;0.8961;
179.1000;0.5250;0.8936;
179.4000;0.5226;0.9010;
179.7000;0.5250;0.9010;
180.0000;0.5234;0.8936;
180.3000;0.5234;0.8888;
180.6000;0.5258;0.8888;
180.9000;0.5242;0.8815;
181.2000;0.5226;0.8693;
181.5000;0.5226;0.8717;
181.8000;0.5226;0.8742;
182.1000;0.5234;0.8790;
182.4000;0.5250;0.8839;
182.7000;0.5234;0.8863;
183.0000;0.5234;0.8839;
183.3000;0.5275;0.8961;
183.6000;0.5234;0.8912;
183.9000;0.5234;0.9034;
184.2000;0.5234;0.9107;
184.5000;0.5226;0.9107;
184.8000;0.5210;0.9034;
185.1000;0.5226;0.9083;
185.4000;0.5234;0.9083;
185.7000;0.5234;0.9010;
186.0000;0.5226;0.9010;
186.3000;0.5226;0.8985;
186.6000;0.5234;0.8961;
186.9000;0.5242;0.9010;
187.2000;0.5250;0.8961;
187.5000;0.5169;0.8790;
187.8000;0.5226;0.8936;
188.1000;0.5226;0.8912;
188.4000;0.5258;0.8985;
188.7000;0.5218;0.8888;
189.0000;0.5201;0.8790;
189.3000;0.5242;0.8863;
189.6000;0.5210;0.8790;
189.9000;0.5234;0.8888;
190.2000;0.5234;0.8961;
190.5000;0.5242;0.9034;
190.8000;0.5242;0.9156;
191.1000;0.5234;0.9156;
191.4000;0.5283;0.9302;
191.7000;0.5234;0.9131;
192.0000;0.5242;0.9131;
192.3000;0.5226;0.9034;
192.6000;0.5340;0.9229;
192.9000;0.5250;0.8961;
193.2000;0.5226;0.8936;
193.5000;0.5324;0.9229;
193.8000;0.5242;0.9083;
194.1000;0.5226;0.8985;
194.4000;0.5234;0.9083;
194.7000;0.5242;0.9131;
195.0000;0.5234;0.9010;
195.3000;0.5226;0.9083;
195.6000;0.5218;0.9034;
195.9000;0.5234;0.9034;
196.2000;0.5193;0.8985;
196.5000;0.5307;0.9229;
196.8000;0.5242;0.9034;
197.1000;0.5234;0.9010;
197.4000;0.5185;0.8888;
197.7000;0.5242;0.9058;
198.0000;0.5234;0.9010;
198.3000;0.5242;0.9034;
198.6000;0.5242;0.9058;
198.9000;0.5218;0.8936;
199.2000;0.5218;0.9034;
199.5000;0.5250;0.8985;
199.8000;0.5226;0.8839;
200.1000;0.5226;0.8815;
200.4000;0.5201;0.8717;
200.7000;0.5218;0.8839;
201.0000;0.5242;0.8936;
201.3000;0.5250;0.8961;
201.6000;0.5234;0.8912;
201.9000;0.5234;0.8888;
202.2000;0.5234;0.8863;
202.5000;0.5250;0.8863;
202.8000;0.5234;0.8790;
203.1000;0.5242;0.8815;
203.4000;0.5242;0.8839;
203.7000;0.5234;0.8863;
204.0000;0.5226;0.8863;
204.3000;0.5234;0.8839;
204.6000;0.5234;0.8766;
204.9000;0.5226;0.8815;
205.2000;0.5226;0.8863;
205.5000;0.5226;0.8936;
205.8000;0.5242;0.8961;
206.1000;0.5242;0.9010;
206.4000;0.5234;0.8936;
206.7000;0.5226;0.8815;
207.0000;0.5283;0.8961;
207.3000;0.5218;0.8766;
207.6000;0.5234;0.8863;
207.9000;0.5267;0.9034;
208.2000;0.5226;0.8985;
208.5000;0.5193;0.8985;
208.8000;0.5218;0.8961;
209.1000;0.5226;0.8863;
209.4000;0.5218;0.8790;
209.7000;0.5226;0.8815;
210.0000;0.5234;0.8766;
210.3000;0.5210;0.8742;
210.6000;0.5283;0.8936;
210.9000;0.5226;0.8766;
211.2000;0.5234;0.8863;
211.5000;0.5234;0.8888;
211.8000;0.5226;0.8790;
212.1000;0.5242;0.8815;
212.4000;0.5201;0.8693;
212.7000;0.5234;0.8742;
213.0000;0.5234;0.8815;
213.3000;0.5234;0.8790;
213.6000;0.5234;0.8839;
213.9000;0.5226;0.8936;
214.2000;0.5234;0.8961;
214.5000;0.5226;0.8912;
214.8000;0.5250;0.8912;
215.1000;0.5250;0.8839;
215.4000;0.5226;0.8742;
215.7000;0.5234;0.8742;
216.0000;0.5234;0.8693;
216.3000;0.5234;0.8766;
216.6000;0.5218;0.8766;
216.9000;0.5185;0.8596;
217.2000;0.5226;0.8742;
217.5000;0.5267;0.8839;
217.8000;0.5234;0.8790;
218.1000;0.5218;0.8766;
218.4000;0.5226;0.8815;
218.7000;0.5234;0.8839;
219.0000;0.5226;0.8839;
219.3000;0.5250;0.8888;
219.6000;0.5234;0.8936;
219.9000;0.5226;0.8961;
220.2000;0.5210;0.8888;
220.5000;0.5226;0.8717;
220.8000;0.5250;0.8839;
221.1000;0.5226;0.8888;
221.4000;0.5226;0.8863;
221.7000;0.5226;0.8863;
222.0000;0.5193;0.8815;
222.3000;0.5218;0.8888;
222.6000;0.5250;0.9034;
222.9000;0.5242;0.8961;
223.2000;0.5226;0.8936;
223.5000;0.5218;0.8961;
223.8000;0.5250;0.9010;
224.1000;0.5234;0.9010;
224.4000;0.5169;0.8839;
224.7000;0.5226;0.8985;
225.0000;0.5234;0.9083;
225.3000;0.5250;0.9107;
225.6000;0.5234;0.9058;
225.9000;0.5242;0.9107;
226.2000;0.5226;0.9156;
226.5000;0.5226;0.9083;
226.8000;0.5234;0.9034;
227.1000;0.5177;0.8912;
227.4000;0.5226;0.9083;
227.7000;0.5250;0.9131;
228.0000;0.5234;0.9034;
228.3000;0.5201;0.8961;
228.6000;0.5234;0.9058;
228.9000;0.5218;0.9034;
229.2000;0.5218;0.9083;
229.5000;0.5226;0.9131;
229.8000;0.5242;0.9083;
230.1000;0.5210;0.8985;
230.4000;0.5242;0.9107;
230.7000;0.5234;0.9156;
231.0000;0.5210;0.9107;
231.3000;0.5250;0.9253;
231.6000;0.5226;0.9204;
231.9000;0.5218;0.9229;
232.2000;0.5250;0.9229;
232.5000;0.5201;0.9058;
232.8000;0.5218;0.9083;
233.1000;0.5234;0.9180;
233.4000;0.5242;0.9253;
233.7000;0.5234;0.9180;
234.0000;0.5193;0.9034;
234.3000;0.5242;0.9253;
234.6000;0.5177;0.9058;
234.9000;0.5242;0.9131;
235.2000;0.5250;0.9180;
235.5000;0.5267;0.9180;
235.8000;0.5234;0.8936;
236.1000;0.5234;0.8888;
236.4000;0.5242;0.8961;
236.7000;0.5242;0.8790;
237.0000;0.5242;0.8766;
237.3000;0.5234;0.8766;
237.6000;0.5226;0.8766;
237.9000;0.5250;0.8790;
238.2000;0.5234;0.8766;
238.5000;0.5234;0.8766;
238.8000;0.5234;0.8790;
239.1000;0.5250;0.8815;
239.4000;0.5234;0.8863;
239.7000;0.5242;0.8936;
240.0000;0.5226;0.8961;
240.3000;0.5234;0.8961;
240.6000;0.5275;0.8985;
240.9000;0.5201;0.8766;
241.2000;0.5218;0.8742;
241.5000;0.5210;0.8693;
241.8000;0.5250;0.8815;
242.1000;0.5242;0.8888;
242.4000;0.5218;0.8863;
242.7000;0.5234;0.8839;
243.0000;0.5218;0.8863;
243.3000;0.5242;0.8863;
243.6000;0.5250;0.8888;
243.9000;0.5307;0.9058;
244.2000;0.5242;0.8815;
244.5000;0.5226;0.8766;
244.8000;0.5226;0.8790;
245.1000;0.5234;0.8912;
245.4000;0.5210;0.8839;
245.7000;0.5210;0.8888;
246.0000;0.5218;0.8863;
246.3000;0.5169;0.8742;
246.6000;0.5234;0.8863;
246.9000;0.5226;0.8961;
247.2000;0.5234;0.9010;
247.5000;0.5234;0.8985;
247.8000;0.5234;0.9010;
248.1000;0.5218;0.8912;
248.4000;0.5218;0.8961;
248.7000;0.5210;0.8961;
249.0000;0.5210;0.8912;
249.3000;0.5234;0.8912;
249.6000;0.5185;0.8815;
249.9000;0.5242;0.8961;
250.2000;0.5226;0.8936;
250.5000;0.5234;0.8936;
250.8000;0.5234;0.8936;
251.1000;0.5210;0.8961;
251.4000;0.5226;0.8888;
251.7000;0.5299;0.9107;
252.0000;0.5242;0.8961;
252.3000;0.5226;0.9034;
252.6000;0.5226;0.9034;
252.9000;0.5250;0.9156;
253.2000;0.5275;0.9302;
253.5000;0.5226;0.9180;
253.8000;0.5234;0.9204;
254.1000;0.5210;0.9156;
254.4000;0.5226;0.9204;
254.7000;0.5258;0.9229;
255.0000;0.5185;0.9034;
255.3000;0.5234;0.9156;
255.6000;0.5226;0.9131;
255.9000;0.5226;0.9010;
256.2000;0.5226;0.8985;
256.5000;0.5193;0.8912;
256.8000;0.5218;0.9010;
257.1000;0.5267;0.9131;
257.4000;0.5218;0.8961;
257.7000;0.5226;0.9131;
258.0000;0.5218;0.9229;
258.3000;0.5226;0.9204;
258.6000;0.5250;0.9156;
258.9000;0.5226;0.9107;
259.2000;0.5226;0.9034;
259.5000;0.5218;0.9058;
259.8000;0.5218;0.9180;
260.1000;0.5226;0.9229;
260.4000;0.5242;0.9229;
260.7000;0.5226;0.9131;
261.0000;0.5234;0.9083;
261.3000;0.5226;0.8985;
261.6000;0.5210;0.8961;
261.9000;0.5210;0.9010;
262.2000;0.5218;0.9156;
262.5000;0.5234;0.9083;
262.8000;0.5177;0.8912;
263.1000;0.5234;0.9058;
263.4000;0.5226;0.9034;
263.7000;0.5218;0.9083;
264.0000;0.5234;0.9229;
264.3000;0.5193;0.9156;
264.6000;0.5218;0.9326;
264.9000;0.5218;0.9302;
265.2000;0.5193;0.9131;
265.5000;0.5226;0.9131;
265.8000;0.5218;0.9107;
266.1000;0.5234;0.9253;
266.4000;0.5234;0.9229;
266.7000;0.5193;0.9083;
267.0000;0.5218;0.9083;
267.3000;0.5210;0.9107;
267.6000;0.5226;0.9131;
267.9000;0.5242;0.9131;
268.2000;0.5234;0.9131;
268.5000;0.5234;0.9058;
268.8000;0.5250;0.9204;
269.1000;0.5218;0.9107;
269.4000;0.5234;0.9204;
269.7000;0.5201;0.9107;
270.0000;0.5226;0.9131;
270.3000;0.5267;0.9253;
270.6000;0.5210;0.9034;
270.9000;0.5218;0.9034;
271.2000;0.5234;0.9034;
271.5000;0.5242;0.9010;
271.8000;0.5234;0.9010;
272.1000;0.5234;0.9010;
272.4000;0.5234;0.8961;
272.7000;0.5185;0.8839;
273.0000;0.5226;0.9034;
273.3000;0.5201;0.9010;
273.6000;0.5210;0.9010;
273.9000;0.5210;0.8985;
274.2000;0.5226;0.8961;
274.5000;0.5258;0.9010;
274.8000;0.5201;0.8936;
275.1000;0.5234;0.8888;
275.4000;0.5210;0.8863;
275.7000;0.5210;0.8912;
276.0000;0.5242;0.9058;
276.3000;0.5234;0.9083;
276.6000;0.5210;0.9058;
276.9000;0.5193;0.8936;
277.2000;0.5226;0.8985;
277.5000;0.5234;0.9058;
277.8000;0.5234;0.8961;
278.1000;0.5218;0.8888;
278.4000;0.5226;0.8888;
278.7000;0.5226;0.8839;
279.0000;0.5242;0.8912;
279.3000;0.5218;0.8912;
279.6000;0.5226;0.8936;
279.9000;0.5234;0.8936;
280.2000;0.5234;0.8888;
280.5000;0.5193;0.8839;
280.8000;0.5234;0.8936;
281.1000;0.5226;0.8985;
281.4000;0.5234;0.9034;
281.7000;0.5267;0.9058;
282.0000;0.5210;0.9010;
282.3000;0.5218;0.8985;
282.6000;0.5234;0.9131;
282.9000;0.5201;0.8961;
283.2000;0.5201;0.8936;
283.5000;0.5218;0.8936;
283.8000;0.5234;0.8961;
284.1000;0.5177;0.8863;
284.4000;0.5250;0.9034;
284.7000;0.5218;0.8985;
285.0000;0.5201;0.9034;
285.3000;0.5234;0.9131;
285.6000;0.5218;0.9131;
285.9000;0.5315;0.9448;
286.2000;0.5234;0.9229;
286.5000;0.5234;0.9229;
286.8000;0.5226;0.9107;
287.1000;0.5242;0.9107;
287.4000;0.5218;0.9083;
287.7000;0.5242;0.9180;
288.0000;0.5193;0.9058;
288.3000;0.5250;0.9180;
288.6000;0.5275;0.9277;
288.9000;0.5234;0.9180;
289.2000;0.5185;0.9107;
289.5000;0.5267;0.9302;
289.8000;0.5218;0.9107;
290.1000;0.5234;0.9131;
290.4000;0.5218;0.9010;
290.7000;0.5242;0.9058;
291.0000;0.5267;0.9180;
291.3000;0.5275;0.9180;
291.6000;0.5250;0.9229;
291.9000;0.5234;0.9253;
292.2000;0.5153;0.9131;
292.5000;0.5226;0.9302;
292.8000;0.5242;0.9302;
293.1000;0.5226;0.9229;
293.4000;0.5210;0.9180;
293.7000;0.5226;0.9253;
294.0000;0.5258;0.9326;
294.3000;0.5283;0.9375;
294.6000;0.5226;0.9180;
294.9000;0.5242;0.9131;
295.2000;0.5234;0.9204;
295.5000;0.5242;0.9229;
295.8000;0.5242;0.9277;
296.1000;0.5226;0.9253;
296.4000;0.5242;0.9204;
296.7000;0.5250;0.9229;
297.0000;0.5218;0.9180;
297.3000;0.5234;0.9204;
297.6000;0.5226;0.9107;
297.9000;0.5234;0.9083;
298.2000;0.5234;0.9107;
298.5000;0.5218;0.9156;
298.8000;0.5218;0.9204;
299.1000;0.5226;0.9229;
299.4000;0.5226;0.9253;
299.7000;0.5226;0.9229;
300.0000;0.5210;0.9229;
300.3000;0.5242;0.9156;
300.6000;0.5242;0.9107;
300.9000;0.5226;0.9034;
301.2000;0.5234;0.9131;
301.5000;0.5201;0.9107;
301.8000;0.5234;0.9156;
302.1000;0.5242;0.9131;
302.4000;0.5185;0.9058;
302.7000;0.5218;0.9131;
303.0000;0.5234;0.9156;
303.3000;0.5226;0.9204;
303.6000;0.5234;0.9277;
303.9000;0.5218;0.9277;
304.2000;0.5226;0.9277;
304.5000;0.5250;0.9253;
304.8000;0.5210;0.9083;
305.1000;0.5250;0.9107;
305.4000;0.5234;0.9229;
305.7000;0.5242;0.9253;
306.0000;0.5226;0.9204;
306.3000;0.5234;0.9253;
306.6000;0.5226;0.9253;
306.9000;0.5234;0.9083;
307.2000;0.5250;0.9107;
307.5000;0.5210;0.9034;
307.8000;0.5226;0.9107;
308.1000;0.5234;0.9180;
308.4000;0.5210;0.9180;
308.7000;0.5226;0.9131;
309.0000;0.5210;0.9083;
309.3000;0.5234;0.9131;
309.6000;0.5226;0.9156;
309.9000;0.5234;0.9180;
310.2000;0.5218;0.9131;
310.5000;0.5258;0.9204;
310.8000;0.5210;0.9156;
311.1000;0.5218;0.9180;
311.4000;0.5218;0.9180;
311.7000;0.5226;0.9107;
312.0000;0.5234;0.9083;
312.3000;0.5234;0.9058;
312.6000;0.5226;0.9034;
312.9000;0.5193;0.8985;
313.2000;0.5226;0.9131;
313.5000;0.5210;0.9083;
313.8000;0.5226;0.9156;
314.1000;0.5226;0.9131;
314.4000;0.5185;0.8985;
314.7000;0.5226;0.8985;
315.0000;0.5234;0.8912;
315.3000;0.5283;0.9058;
315.6000;0.5226;0.8985;
315.9000;0.5250;0.8936;
316.2000;0.5226;0.8912;
316.5000;0.5258;0.8888;
316.8000;0.5234;0.8863;
317.1000;0.5226;0.8766;
317.4000;0.5234;0.8742;
317.7000;0.5218;0.8717;
318.0000;0.5226;0.8766;
318.3000;0.5234;0.8815;
318.6000;0.5210;0.8790;
318.9000;0.5218;0.8790;
319.2000;0.5210;0.8790;
319.5000;0.5226;0.8839;
319.8000;0.5218;0.8936;
320.1000;0.5234;0.8888;
320.4000;0.5267;0.9058;
320.7000;0.5193;0.8888;
321.0000;0.5226;0.8936;
321.3000;0.5210;0.8839;
321.6000;0.5218;0.8888;
321.9000;0.5210;0.8790;
322.2000;0.5218;0.8815;
322.5000;0.5201;0.8839;
322.8000;0.5201;0.8888;
323.1000;0.5201;0.8912;
323.4000;0.5242;0.9010;
323.7000;0.5218;0.8936;
324.0000;0.5210;0.8961;
324.3000;0.5210;0.8985;
324.6000;0.5218;0.8985;
324.9000;0.5234;0.8985;
325.2000;0.5267;0.9010;
325.5000;0.5218;0.8912;
325.8000;0.5234;0.8961;
326.1000;0.5234;0.8985;
326.4000;0.5218;0.8961;
326.7000;0.5242;0.8961;
327.0000;0.5242;0.8961;
327.3000;0.5226;0.8961;
327.6000;0.5218;0.8863;
327.9000;0.5234;0.8815;
328.2000;0.5250;0.8863;
328.5000;0.5226;0.8839;
328.8000;0.5177;0.8669;
329.1000;0.5250;0.8790;
329.4000;0.5258;0.8839;
329.7000;0.5193;0.8717;
330.0000;0.5332;0.9083;
330.3000;0.5226;0.8863;
330.6000;0.5226;0.8888;
330.9000;0.5161;0.8742;
331.2000;0.5234;0.9010;
331.5000;0.5226;0.8961;
331.8000;0.5218;0.8985;
332.1000;0.5226;0.9156;
332.4000;0.5226;0.9107;
332.7000;0.5185;0.9010;
333.0000;0.5234;0.9058;
333.3000;0.5242;0.9058;
333.6000;0.5226;0.9107;
333.9000;0.5258;0.9253;
334.2000;0.5218;0.9058;
334.5000;0.5193;0.8912;
334.8000;0.5193;0.8912;
335.1000;0.5226;0.8985;
335.4000;0.5250;0.9083;
335.7000;0.5226;0.9034;
336.0000;0.5226;0.9034;
336.3000;0.5226;0.9107;
336.6000;0.5161;0.9034;
336.9000;0.5201;0.9058;
337.2000;0.5193;0.9156;
337.5000;0.5218;0.9204;
337.8000;0.5242;0.9277;
338.1000;0.5226;0.9253;
338.4000;0.5226;0.9277;
338.7000;0.5226;0.9326;
339.0000;0.5218;0.9180;
339.3000;0.5210;0.9058;
339.6000;0.5226;0.9131;
339.9000;0.5299;0.9277;
340.2000;0.5242;0.9083;
340.5000;0.5250;0.9010;
340.8000;0.5226;0.8863;
341.1000;0.5226;0.8790;
341.4000;0.5258;0.8961;
341.7000;0.5250;0.8961;
342.0000;0.5226;0.9010;
342.3000;0.5234;0.9107;
342.6000;0.5250;0.9131;
342.9000;0.5226;0.9034;
343.2000;0.5218;0.9034;
343.5000;0.5226;0.9058;
343.8000;0.5234;0.9156;
344.1000;0.5226;0.9156;
344.4000;0.5226;0.9229;
344.7000;0.5226;0.9204;
345.0000;0.5234;0.9253;
345.3000;0.5226;0.9156;
345.6000;0.5226;0.9156;
345.9000;0.5193;0.9034;
346.2000;0.5210;0.9131;
346.5000;0.5226;0.9156;
346.8000;0.5226;0.9180;
347.1000;0.5201;0.9083;
347.4000;0.5226;0.9107;
347.7000;0.5234;0.9083;
348.0000;0.5226;0.8985;
348.3000;0.5218;0.8985;
348.6000;0.5193;0.8936;
348.9000;0.5234;0.9010;
349.2000;0.5234;0.9058;
349.5000;0.5250;0.9131;
349.8000;0.5234;0.9034;
350.1000;0.5258;0.9058;
350.4000;0.5242;0.9107;
350.7000;0.5242;0.9083;
351.0000;0.5267;0.9180;
351.3000;0.5226;0.9083;
351.6000;0.5226;0.8936;
351.9000;0.5242;0.8912;
352.2000;0.5218;0.8888;
352.5000;0.5201;0.8888;
352.8000;0.5234;0.8936;
353.1000;0.5218;0.8985;
353.4000;0.5201;0.8863;
353.7000;0.5226;0.8985;
354.0000;0.5218;0.8936;
354.3000;0.5226;0.8936;
354.6000;0.5218;0.8863;
354.9000;0.5218;0.8961;
355.2000;0.5226;0.8961;
355.5000;0.5226;0.9058;
355.8000;0.5226;0.9034;
356.1000;0.5218;0.9010;
356.4000;0.5234;0.9107;
356.7000;0.5234;0.9058;
357.0000;0.5283;0.9156;
357.3000;0.5218;0.8985;
357.6000;0.5250;0.9156;
357.9000;0.5234;0.9107;
358.2000;0.5226;0.9034;
358.5000;0.5218;0.8888;
358.8000;0.5185;0.8766;
359.1000;0.5218;0.8863;
359.4000;0.5226;0.8815;
359.7000;0.5201;0.8766;
360.0000;0.5210;0.8693;
360.3000;0.5210;0.8693;
360.6000;0.5218;0.8766;
360.9000;0.5218;0.8863;
361.2000;0.5250;0.8985;
361.5000;0.5193;0.8936;
361.8000;0.5210;0.8985;
362.1000;0.5226;0.9058;
362.4000;0.5283;0.9131;
362.7000;0.5226;0.8912;
363.0000;0.5242;0.8863;
363.3000;0.5315;0.9083;
363.6000;0.5218;0.8912;
363.9000;0.5226;0.8839;
364.2000;0.5275;0.9034;
364.5000;0.5226;0.8839;
364.8000;0.5226;0.8790;
365.1000;0.5226;0.8790;
365.4000;0.5356;0.9107;
365.7000;0.5226;0.8815;
366.0000;0.5218;0.8839;
366.3000;0.5226;0.8839;
366.6000;0.5218;0.8888;
366.9000;0.5250;0.8912;
367.2000;0.5153;0.8669;
367.5000;0.5210;0.8815;
367.8000;0.5218;0.8863;
368.1000;0.5210;0.8839;
368.4000;0.5234;0.8912;
368.7000;0.5226;0.8936;
369.0000;0.5226;0.8936;
369.3000;0.5234;0.8912;
369.6000;0.5226;0.8888;
369.9000;0.5218;0.8912;
370.2000;0.5210;0.8961;
370.5000;0.5218;0.9034;
370.8000;0.5307;0.9204;
371.1000;0.5226;0.8961;
371.4000;0.5226;0.8985;
371.7000;0.5218;0.9058;
372.0000;0.5210;0.8961;
372.3000;0.5234;0.9010;
372.6000;0.5234;0.9131;
372.9000;0.5226;0.9107;
373.2000;0.5234;0.9083;
373.5000;0.5218;0.9010;
373.8000;0.5210;0.8936;
374.1000;0.5218;0.8936;
374.4000;0.5218;0.8961;
374.7000;0.5218;0.9034;
375.0000;0.5218;0.9010;
375.3000;0.5210;0.8985;
375.6000;0.5226;0.8985;
375.9000;0.5210;0.9010;
376.2000;0.5210;0.8912;
376.5000;0.5218;0.8936;
376.8000;0.5210;0.8863;
377.1000;0.5258;0.8912;
377.4000;0.5218;0.8815;
377.7000;0.5218;0.8863;
378.0000;0.5250;0.8888;
378.3000;0.5226;0.8717;
378.6000;0.5218;0.8742;
378.9000;0.5210;0.8790;
379.2000;0.5210;0.8790;
379.5000;0.5218;0.8936;
379.8000;0.5226;0.8985;
380.1000;0.5210;0.8961;
380.4000;0.5201;0.8961;
380.7000;0.5226;0.8912;
381.0000;0.5218;0.8888;
381.3000;0.5226;0.8888;
381.6000;0.5218;0.8815;
381.9000;0.5250;0.8936;
382.2000;0.5218;0.8912;
382.5000;0.5218;0.8912;
382.8000;0.5242;0.8985;
383.1000;0.5226;0.9034;
383.4000;0.5324;0.9375;
383.7000;0.5234;0.9131;
384.0000;0.5299;0.9253;
384.3000;0.5218;0.9058;
384.6000;0.5226;0.9107;
384.9000;0.5218;0.9083;
385.2000;0.5201;0.9083;
385.5000;0.5218;0.9131;
385.8000;0.5234;0.9083;
386.1000;0.5218;0.9034;
386.4000;0.5226;0.9107;
386.7000;0.5218;0.9107;
387.0000;0.5226;0.9034;
387.3000;0.5177;0.8912;
387.6000;0.5218;0.8936;
387.9000;0.5193;0.8839;
388.2000;0.5307;0.9131;
388.5000;0.5169;0.8742;
388.8000;0.5218;0.8766;
389.1000;0.5210;0.8888;
389.4000;0.5210;0.8815;
389.7000;0.5210;0.8888;
390.0000;0.5218;0.8717;
390.3000;0.5201;0.8644;
390.6000;0.5210;0.8693;
390.9000;0.5267;0.8839;
391.2000;0.5275;0.8863;
391.5000;0.5258;0.8839;
391.8000;0.5201;0.8742;
392.1000;0.5218;0.8790;
392.4000;0.5226;0.8742;
392.7000;0.5250;0.8790;
393.0000;0.5226;0.8766;
393.3000;0.5210;0.8815;
393.6000;0.5210;0.8863;
393.9000;0.5218;0.8766;
394.2000;0.5226;0.8815;
394.5000;0.5226;0.8936;
394.8000;0.5210;0.8961;
395.1000;0.5169;0.8912;
395.4000;0.5210;0.9034;
395.7000;0.5218;0.9010;
396.0000;0.5242;0.9010;
396.3000;0.5185;0.8912;
396.6000;0.5267;0.9010;
396.9000;0.5226;0.8961;
397.2000;0.5210;0.8961;
397.5000;0.5169;0.8863;
397.8000;0.5218;0.9010;
398.1000;0.5218;0.8936;
398.4000;0.5218;0.8863;
398.7000;0.5226;0.8766;
399.0000;0.5242;0.8717;
399.3000;0.5218;0.8669;
399.6000;0.5332;0.8936;
399.9000;0.5226;0.8644;
400.2000;0.5234;0.8644;
400.5000;0.5201;0.8596;
400.8000;0.5226;0.8596;
401.1000;0.5218;0.8669;
401.4000;0.5226;0.8644;
401.7000;0.5201;0.8717;
402.0000;0.5210;0.8815;
402.3000;0.5193;0.8815;
402.6000;0.5234;0.8888;
402.9000;0.5177;0.8669;
403.2000;0.5218;0.8742;
403.5000;0.5226;0.8766;
403.8000;0.5226;0.8839;
404.1000;0.5226;0.8717;
404.4000;0.5218;0.8839;
404.7000;0.5234;0.8961;
405.0000;0.5242;0.9010;
405.3000;0.5226;0.8863;
405.6000;0.5267;0.8936;
405.9000;0.5226;0.8839;
406.2000;0.5234;0.8839;
406.5000;0.5218;0.8863;
406.8000;0.5201;0.8790;
407.1000;0.5210;0.8815;
407.4000;0.5210;0.8863;
407.7000;0.5161;0.8790;
408.0000;0.5250;0.8936;
408.3000;0.5234;0.8936;
408.6000;0.5234;0.8888;
408.9000;0.5267;0.8888;
409.2000;0.5210;0.8863;
409.5000;0.5226;0.8961;
409.8000;0.5234;0.8912;
410.1000;0.5226;0.8888;
410.4000;0.5201;0.8912;
410.7000;0.5210;0.9010;
411.0000;0.5177;0.8863;
411.3000;0.5218;0.8863;
411.6000;0.5226;0.8912;
411.9000;0.5177;0.8815;
412.2000;0.5136;0.8790;
412.5000;0.5210;0.8936;
412.8000;0.5226;0.8936;
413.1000;0.5218;0.8815;
413.4000;0.5226;0.8766;
413.7000;0.5218;0.8790;
414.0000;0.5226;0.8766;
414.3000;0.5250;0.8888;
414.6000;0.5234;0.8790;
414.9000;0.5210;0.8766;
415.2000;0.5218;0.8815;
415.5000;0.5234;0.8863;
415.8000;0.5201;0.8790;
416.1000;0.5210;0.8693;
416.4000;0.5218;0.8742;
416.7000;0.5218;0.8863;
417.0000;0.5201;0.8863;
417.3000;0.5210;0.8863;
417.6000;0.5185;0.8742;
417.9000;0.5234;0.8863;
418.2000;0.5218;0.8717;
418.5000;0.5226;0.8669;
418.8000;0.5201;0.8620;
419.1000;0.5226;0.8766;
419.4000;0.5242;0.8863;
419.7000;0.5242;0.8839;
420.0000;0.5201;0.8888;
420.3000;0.5275;0.9010;
420.6000;0.5210;0.8863;
420.9000;0.5177;0.8717;
421.2000;0.5226;0.8766;
421.5000;0.5193;0.8669;
421.8000;0.5218;0.8717;
422.1000;0.5234;0.8766;
422.4000;0.5218;0.8644;
422.7000;0.5226;0.8693;
423.0000;0.5193;0.8742;
423.3000;0.5242;0.8766;
423.6000;0.5234;0.8644;
423.9000;0.5242;0.8620;
424.2000;0.5185;0.8498;
424.5000;0.5258;0.8693;
424.8000;0.5258;0.8717;
425.1000;0.5210;0.8644;
425.4000;0.5210;0.8669;
425.7000;0.5258;0.8839;
426.0000;0.5218;0.8742;
426.3000;0.5210;0.8766;
426.6000;0.5242;0.8936;
426.9000;0.5324;0.9156;
427.2000;0.5218;0.8888;
427.5000;0.5226;0.8888;
427.8000;0.5242;0.8863;
428.1000;0.5234;0.8912;
428.4000;0.5234;0.8961;
428.7000;0.5226;0.9010;
429.0000;0.5226;0.9083;
429.3000;0.5218;0.9058;
429.6000;0.5234;0.9058;
429.9000;0.5275;0.9204;
430.2000;0.5218;0.9083;
430.5000;0.5210;0.9083;
430.8000;0.5210;0.8985;
431.1000;0.5218;0.8985;
431.4000;0.5193;0.8888;
431.7000;0.5218;0.8985;
432.0000;0.5210;0.8985;
432.3000;0.5210;0.8888;
432.6000;0.5218;0.8815;
432.9000;0.5258;0.8985;
433.2000;0.5226;0.8912;
433.5000;0.5201;0.8815;
433.8000;0.5218;0.8912;
434.1000;0.5218;0.8961;
434.4000;0.5210;0.8985;
434.7000;0.5218;0.9058;
435.0000;0.5218;0.9058;
435.3000;0.5201;0.9058;
435.6000;0.5218;0.9180;
435.9000;0.5218;0.9229;
436.2000;0.5210;0.9131;
436.5000;0.5201;0.9229;
436.8000;0.5218;0.9180;
437.1000;0.5210;0.9131;
437.4000;0.5226;0.9058;
437.7000;0.5210;0.9058;
438.0000;0.5267;0.9302;
438.3000;0.5169;0.9083;
438.6000;0.5226;0.9229;
438.9000;0.5218;0.9253;
439.2000;0.5193;0.9253;
439.5000;0.5210;0.9156;
439.8000;0.5210;0.9204;
440.1000;0.5250;0.9180;
440.4000;0.5242;0.9229;
440.7000;0.5250;0.9302;
441.0000;0.5218;0.9253;
441.3000;0.5193;0.9107;
441.6000;0.5193;0.9107;
441.9000;0.5210;0.9180;
442.2000;0.5177;0.9131;
442.5000;0.5161;0.9034;
442.8000;0.5177;0.9058;
443.1000;0.5226;0.9229;
443.4000;0.5226;0.9253;
443.7000;0.5218;0.9156;
444.0000;0.5226;0.9277;
444.3000;0.5242;0.9326;
444.6000;0.5234;0.9302;
444.9000;0.5226;0.9302;
445.2000;0.5234;0.9350;
445.5000;0.5234;0.9326;
445.8000;0.5201;0.9229;
446.1000;0.5226;0.9326;
446.4000;0.5226;0.9423;
446.7000;0.5218;0.9277;
447.0000;0.5161;0.9204;
447.3000;0.5267;0.9399;
447.6000;0.5136;0.9034;
447.9000;0.5218;0.9204;
448.2000;0.5210;0.9253;
448.5000;0.5234;0.9277;
448.8000;0.5234;0.9326;
449.1000;0.5210;0.9131;
449.4000;0.5234;0.9204;
449.7000;0.5234;0.9180;
450.0000;0.5226;0.9204;
450.3000;0.5226;0.9253;
450.6000;0.5201;0.9131;
450.9000;0.5226;0.9083;
451.2000;0.5218;0.9107;
451.5000;0.5210;0.9107;
451.8000;0.5210;0.9058;
452.1000;0.5210;0.9083;
452.4000;0.5210;0.9058;
452.7000;0.5250;0.9180;
453.0000;0.5169;0.8936;
453.3000;0.5218;0.9107;
453.6000;0.5234;0.9156;
453.9000;0.5234;0.9180;
454.2000;0.5226;0.9156;
454.5000;0.5218;0.9180;
454.8000;0.5210;0.9180;
455.1000;0.5275;0.9350;
455.4000;0.5193;0.9180;
455.7000;0.5193;0.9204;
456.0000;0.5210;0.9253;
456.3000;0.5226;0.9302;
456.6000;0.5201;0.9180;
456.9000;0.5185;0.9156;
457.2000;0.5201;0.9229;
457.5000;0.5242;0.9277;
457.8000;0.5226;0.9180;
458.1000;0.5169;0.8985;
458.4000;0.5218;0.9131;
458.7000;0.5234;0.9107;
459.0000;0.5234;0.9058;
459.3000;0.5210;0.9107;
459.6000;0.5201;0.9083;
459.9000;0.5210;0.9131;
460.2000;0.5226;0.9204;
460.5000;0.5210;0.9156;
460.8000;0.5161;0.8936;
461.1000;0.5144;0.8863;
461.4000;0.5226;0.8985;
461.7000;0.5153;0.8912;
462.0000;0.5226;0.9058;
462.3000;0.5226;0.9107;
462.6000;0.5210;0.9083;
462.9000;0.5193;0.8985;
463.2000;0.5201;0.9083;
463.5000;0.5210;0.9156;
463.8000;0.5226;0.9107;
464.1000;0.5218;0.9083;
464.4000;0.5250;0.9156;
464.7000;0.5201;0.9083;
465.0000;0.5210;0.9058;
465.3000;0.5226;0.9083;
465.6000;0.5185;0.9010;
465.9000;0.5201;0.9058;
466.2000;0.5218;0.9083;
466.5000;0.5193;0.9083;
466.8000;0.5210;0.9156;
467.1000;0.5201;0.9156;
467.4000;0.5210;0.9083;
467.7000;0.5153;0.8888;
468.0000;0.5210;0.8961;
468.3000;0.5193;0.8936;
468.6000;0.5226;0.9058;
468.9000;0.5267;0.9204;
469.2000;0.5258;0.9180;
469.5000;0.5201;0.9083;
469.8000;0.5177;0.9156;
470.1000;0.5250;0.9375;
470.4000;0.5226;0.9277;
470.7000;0.5234;0.9302;
471.0000;0.5210;0.9131;
471.3000;0.5258;0.9229;
471.6000;0.5267;0.9229;
471.9000;0.5226;0.9034;
472.2000;0.5226;0.9058;
472.5000;0.5201;0.8985;
472.8000;0.5218;0.9034;
473.1000;0.5201;0.9058;
473.4000;0.5210;0.9034;
473.7000;0.5210;0.9010;
474.0000;0.5201;0.8985;
474.3000;0.5201;0.9010;
474.6000;0.5210;0.9058;
474.9000;0.5210;0.9107;
475.2000;0.5136;0.8936;
475.5000;0.5210;0.9131;
475.8000;0.5218;0.9253;
476.1000;0.5226;0.9277;
476.4000;0.5226;0.9253;
476.7000;0.5242;0.9302;
477.0000;0.5226;0.9326;
477.3000;0.5210;0.9204;
477.6000;0.5218;0.9277;
477.9000;0.5218;0.9180;
478.2000;0.5218;0.9107;
478.5000;0.5210;0.9083;
478.8000;0.5242;0.9107;
479.1000;0.5234;0.9156;
479.4000;0.5161;0.8985;
479.7000;0.5250;0.9229;
480.0000;0.5226;0.9156;
480.3000;0.5234;0.9204;
480.6000;0.5210;0.9107;
480.9000;0.5267;0.9156;
481.2000;0.5267;0.9204;
481.5000;0.5193;0.9034;
481.8000;0.5226;0.9156;
482.1000;0.5210;0.9107;
482.4000;0.5218;0.9229;
482.7000;0.5226;0.9156;
483.0000;0.5218;0.9180;
483.3000;0.5201;0.9083;
483.6000;0.5210;0.9083;
483.9000;0.5242;0.9302;
484.2000;0.5226;0.9229;
484.5000;0.5226;0.9156;
484.8000;0.5210;0.9083;
485.1000;0.5218;0.9083;
485.4000;0.5210;0.9156;
485.7000;0.5218;0.9253;
486.0000;0.5226;0.9180;
486.3000;0.5226;0.9180;
486.6000;0.5218;0.9083;
486.9000;0.5218;0.9107;
487.2000;0.5226;0.9083;
487.5000;0.5193;0.9010;
487.8000;0.5193;0.9034;
488.1000;0.5210;0.9010;
488.4000;0.5210;0.9107;
488.7000;0.5226;0.9131;
489.0000;0.5201;0.9107;
489.3000;0.5242;0.9180;
489.6000;0.5218;0.9131;
489.9000;0.5210;0.9229;
490.2000;0.5234;0.9156;
490.5000;0.5210;0.9083;
490.8000;0.5218;0.9131;
491.1000;0.5185;0.9083;
491.4000;0.5193;0.9058;
491.7000;0.5193;0.9107;
492.0000;0.5242;0.9180;
492.3000;0.5226;0.9034;
492.6000;0.5185;0.8936;
492.9000;0.5193;0.9058;
493.2000;0.5210;0.9058;
493.5000;0.5193;0.9083;
493.8000;0.5218;0.9107;
494.1000;0.5275;0.9229;
494.4000;0.5218;0.9107;
494.7000;0.5258;0.9034;
495.0000;0.5218;0.8936;
495.3000;0.5210;0.8961;
495.6000;0.5275;0.9156;
495.9000;0.5185;0.8936;
496.2000;0.5161;0.8936;
496.5000;0.5185;0.9058;
496.8000;0.5283;0.9229;
497.1000;0.5250;0.9180;
497.4000;0.5193;0.9010;
497.7000;0.5250;0.9107;
498.0000;0.5136;0.8839;
498.3000;0.5210;0.9083;
498.6000;0.5210;0.9131;
498.9000;0.5250;0.9253;
499.2000;0.5218;0.9131;
499.5000;0.5201;0.9083;
499.8000;0.5201;0.9107;
500.1000;0.5120;0.8936;
500.4000;0.5177;0.9058;
500.7000;0.5201;0.9010;
501.0000;0.5332;0.9326;
501.3000;0.5185;0.9034;
501.6000;0.5210;0.8985;
501.9000;0.5234;0.9010;
502.2000;0.5201;0.8961;
502.5000;0.5185;0.8888;
502.8000;0.5177;0.8790;
503.1000;0.5210;0.8863;
503.4000;0.5185;0.8815;
503.7000;0.5218;0.8790;
504.0000;0.5201;0.8815;
504.3000;0.5275;0.9058;
504.6000;0.5234;0.8985;
504.9000;0.5218;0.9034;
505.2000;0.5218;0.9034;
505.5000;0.5201;0.9083;
505.8000;0.5218;0.9131;
506.1000;0.5193;0.9131;
506.4000;0.5193;0.9083;
506.7000;0.5210;0.9034;
507.0000;0.5193;0.9034;
507.3000;0.5218;0.9010;
507.6000;0.5218;0.9058;
507.9000;0.5177;0.8936;
508.2000;0.5218;0.9083;
508.5000;0.5210;0.9204;
508.8000;0.5218;0.9253;
509.1000;0.5226;0.9180;
509.4000;0.5218;0.9204;
509.7000;0.5210;0.9204;
510.0000;0.5210;0.9204;
510.3000;0.5185;0.9156;
510.6000;0.5201;0.9107;
510.9000;0.5210;0.9083;
511.2000;0.5201;0.9010;
511.5000;0.5218;0.9034;
511.8000;0.5177;0.8888;
512.1000;0.5210;0.8936;
512.4000;0.5218;0.8961;
512.7000;0.5210;0.9010;
513.0000;0.5210;0.8985;
513.3000;0.5185;0.8936;
513.6000;0.5193;0.9010;
513.9000;0.5193;0.9058;
514.2000;0.5210;0.9083;
514.5000;0.5201;0.9131;
514.8000;0.5210;0.9180;
515.1000;0.5193;0.9156;
515.4000;0.5161;0.9204;
515.7000;0.5201;0.9229;
516.0000;0.5177;0.9180;
516.3000;0.5201;0.9229;
516.6000;0.5201;0.9253;
516.9000;0.5210;0.9204;
517.2000;0.5193;0.9156;
517.5000;0.5299;0.9448;
517.8000;0.5193;0.9277;
518.1000;0.5226;0.9375;
518.4000;0.5234;0.9423;
518.7000;0.5210;0.9326;
519.0000;0.5210;0.9180;
519.3000;0.5234;0.9180;
519.6000;0.5307;0.9448;
519.9000;0.5226;0.9277;
520.2000;0.5185;0.9180;
520.5000;0.5210;0.9277;
520.8000;0.5218;0.9277;
521.1000;0.5242;0.9302;
521.4000;0.5201;0.9180;
521.7000;0.5226;0.9229;
522.0000;0.5185;0.9156;
522.3000;0.5201;0.9253;
522.6000;0.5226;0.9375;
522.9000;0.5218;0.9302;
523.2000;0.5177;0.9277;
523.5000;0.5193;0.9229;
523.8000;0.5242;0.9326;
524.1000;0.5193;0.9204;
524.4000;0.5218;0.9204;
524.7000;0.5218;0.9058;
525.0000;0.5201;0.9058;
525.3000;0.5250;0.9180;
525.6000;0.5210;0.9034;
525.9000;0.5210;0.9058;
526.2000;0.5169;0.8936;
526.5000;0.5218;0.9058;
526.8000;0.5291;0.9229;
527.1000;0.5185;0.9034;
527.4000;0.5201;0.9107;
527.7000;0.5275;0.9375;
528.0000;0.5201;0.9277;
528.3000;0.5136;0.9083;
528.6000;0.5193;0.9253;
528.9000;0.5210;0.9277;
529.2000;0.5242;0.9375;
529.5000;0.5250;0.9399;
529.8000;0.5201;0.9156;
530.1000;0.5201;0.9107;
530.4000;0.5291;0.9302;
530.7000;0.5226;0.9180;
531.0000;0.5201;0.9204;
531.3000;0.5210;0.9277;
531.6000;0.5201;0.9253;
531.9000;0.5201;0.9399;
532.2000;0.5218;0.9472;
532.5000;0.5218;0.9497;
532.8000;0.5193;0.9497;
533.1000;0.5210;0.9399;
533.4000;0.5193;0.9350;
533.7000;0.5210;0.9375;
534.0000;0.5210;0.9350;
534.3000;0.5210;0.9350;
534.6000;0.5161;0.9253;
534.9000;0.5201;0.9448;
535.2000;0.5201;0.9399;
535.5000;0.5218;0.9399;
535.8000;0.5275;0.9448;
536.1000;0.5201;0.9350;
536.4000;0.5161;0.9302;
536.7000;0.5210;0.9326;
537.0000;0.5210;0.9302;
537.3000;0.5201;0.9302;
537.6000;0.5218;0.9326;
537.9000;0.5226;0.9326;
538.2000;0.5218;0.9229;
538.5000;0.5218;0.9253;
538.8000;0.5226;0.9277;
539.1000;0.5210;0.9204;
539.4000;0.5210;0.9253;
539.7000;0.5201;0.9253;
540.0000;0.5201;0.9350;
540.3000;0.5193;0.9399;
540.6000;0.5218;0.9399;
540.9000;0.5201;0.9302;
541.2000;0.5226;0.9399;
541.5000;0.5218;0.9375;
541.8000;0.5226;0.9350;
542.1000;0.5242;0.9399;
542.4000;0.5201;0.9302;
542.7000;0.5218;0.9302;
543.0000;0.5153;0.9180;
543.3000;0.5234;0.9375;
543.6000;0.5210;0.9277;
543.9000;0.5210;0.9229;
544.2000;0.5226;0.9131;
544.5000;0.5193;0.9107;
544.8000;0.5193;0.9034;
545.1000;0.5193;0.9131;
545.4000;0.5210;0.9204;
545.7000;0.5210;0.9180;
546.0000;0.5185;0.9107;
546.3000;0.5210;0.9180;
546.6000;0.5210;0.9180;
546.9000;0.5193;0.9156;
547.2000;0.5201;0.9131;
547.5000;0.5193;0.9204;
547.8000;0.5201;0.9302;
548.1000;0.5201;0.9326;
548.4000;0.5210;0.9277;
548.7000;0.5210;0.9253;
549.0000;0.5177;0.9229;
549.3000;0.5161;0.9131;
549.6000;0.5193;0.9131;
549.9000;0.5210;0.9180;
550.2000;0.5185;0.9083;
550.5000;0.5210;0.9156;
550.8000;0.5193;0.9083;
551.1000;0.5201;0.9131;
551.4000;0.5153;0.9010;
551.7000;0.5210;0.9107;
552.0000;0.5218;0.9156;
552.3000;0.5193;0.9034;
552.6000;0.5210;0.9107;
552.9000;0.5218;0.9229;
553.2000;0.5177;0.9131;
553.5000;0.5185;0.9204;
553.8000;0.5210;0.9180;
554.1000;0.5226;0.9107;
554.4000;0.5267;0.9229;
554.7000;0.5201;0.9058;
555.0000;0.5201;0.9131;
555.3000;0.5210;0.9156;
555.6000;0.5201;0.9156;
555.9000;0.5226;0.9204;
556.2000;0.5218;0.9131;
556.5000;0.5210;0.9107;
556.8000;0.5234;0.9131;
557.1000;0.5234;0.9156;
557.4000;0.5226;0.9229;
557.7000;0.5210;0.9107;
558.0000;0.5193;0.9010;
558.3000;0.5218;0.8936;
558.6000;0.5210;0.9010;
558.9000;0.5234;0.9131;
559.2000;0.5201;0.9107;
559.5000;0.5218;0.9253;
559.8000;0.5177;0.9180;
560.1000;0.5218;0.9326;
560.4000;0.5258;0.9399;
560.7000;0.5210;0.9277;
561.0000;0.5210;0.9326;
561.3000;0.5193;0.9350;
561.6000;0.5201;0.9204;
561.9000;0.5218;0.9204;
562.2000;0.5226;0.9131;
562.5000;0.5218;0.9204;
562.8000;0.5242;0.9326;
563.1000;0.5234;0.9253;
563.4000;0.5210;0.9180;
563.7000;0.5210;0.9156;
564.0000;0.5210;0.9131;
564.3000;0.5201;0.9156;
564.6000;0.5201;0.9180;
564.9000;0.5218;0.9180;
565.2000;0.5210;0.9131;
565.5000;0.5201;0.9107;
565.8000;0.5226;0.9156;
566.1000;0.5226;0.9277;
566.4000;0.5177;0.9156;
566.7000;0.5234;0.9229;
567.0000;0.5218;0.9229;
567.3000;0.5226;0.9156;
567.6000;0.5291;0.9326;
567.9000;0.5210;0.9034;
568.2000;0.5201;0.9034;
568.5000;0.5226;0.9131;
568.8000;0.5177;0.9058;
569.1000;0.5185;0.9034;
569.4000;0.5185;0.8961;
569.7000;0.5218;0.9010;
570.0000;0.5210;0.8961;
570.3000;0.5177;0.8985;
570.6000;0.5193;0.9034;
570.9000;0.5201;0.9107;
571.2000;0.5201;0.9131;
571.5000;0.5177;0.9083;
571.8000;0.5193;0.9107;
572.1000;0.5201;0.9156;
572.4000;0.5218;0.9180;
572.7000;0.5201;0.9107;
573.0000;0.5153;0.9034;
573.3000;0.5234;0.9277;
573.6000;0.5218;0.9180;
573.9000;0.5226;0.9277;
574.2000;0.5226;0.9253;
574.5000;0.5193;0.9204;
574.8000;0.5210;0.9156;
575.1000;0.5201;0.9083;
575.4000;0.5218;0.9131;
575.7000;0.5193;0.9010;
576.0000;0.5201;0.9107;
576.3000;0.5250;0.9277;
576.6000;0.5201;0.9107;
576.9000;0.5218;0.9058;
577.2000;0.5210;0.9058;
577.5000;0.5210;0.9131;
577.8000;0.5218;0.9131;
578.1000;0.5234;0.9107;
578.4000;0.5201;0.9058;
578.7000;0.5210;0.9058;
579.0000;0.5201;0.9034;
579.3000;0.5226;0.9083;
579.6000;0.5201;0.9034;
579.9000;0.5218;0.9083;
580.2000;0.5210;0.9010;
580.5000;0.5218;0.8985;
580.8000;0.5210;0.8888;
581.1000;0.5234;0.9083;
581.4000;0.5218;0.9083;
581.7000;0.5144;0.9034;
582.0000;0.5234;0.9204;
582.3000;0.5210;0.9083;
582.6000;0.5210;0.9010;
582.9000;0.5201;0.9083;
583.2000;0.5201;0.9107;
583.5000;0.5210;0.9058;
583.8000;0.5234;0.9107;
584.1000;0.5210;0.9034;
584.4000;0.5185;0.9083;
584.7000;0.5193;0.9156;
585.0000;0.5210;0.9180;
585.3000;0.5193;0.9131;
585.6000;0.5193;0.9107;
585.9000;0.5185;0.9180;
586.2000;0.5193;0.9156;
586.5000;0.5201;0.9156;
586.8000;0.5218;0.9034;
587.1000;0.5210;0.8961;
587.4000;0.5193;0.8815;
587.7000;0.5234;0.9010;
588.0000;0.5201;0.9083;
588.3000;0.5210;0.9058;
588.6000;0.5226;0.9156;
588.9000;0.5210;0.9156;
589.2000;0.5218;0.9156;
589.5000;0.5201;0.9107;
589.8000;0.5201;0.9131;
590.1000;0.5153;0.9131;
590.4000;0.5210;0.9229;
590.7000;0.5218;0.9253;
591.0000;0.5185;0.9107;
591.3000;0.5193;0.9131;
591.6000;0.5177;0.9107;
591.9000;0.5177;0.9131;
592.2000;0.5218;0.9253;
592.5000;0.5144;0.9131;
592.8000;0.5201;0.9302;
593.1000;0.5177;0.9253;
593.4000;0.5210;0.9253;
593.7000;0.5242;0.9253;
594.0000;0.5210;0.9277;
594.3000;0.5185;0.9083;
594.6000;0.5218;0.9180;
594.9000;0.5210;0.9131;
595.2000;0.5234;0.9229;
595.5000;0.5258;0.9277;
595.8000;0.5201;0.9131;
596.1000;0.5193;0.9107;
596.4000;0.5234;0.9277;
596.7000;0.5210;0.9253;
597.0000;0.5193;0.9204;
597.3000;0.5185;0.9204;
597.6000;0.5185;0.9180;
597.9000;0.5210;0.9229;
598.2000;0.5185;0.9131;
598.5000;0.5210;0.9229;
598.8000;0.5193;0.9180;
599.1000;0.5210;0.9204;
599.4000;0.5218;0.9204;
599.7000;0.5201;0.9229;
600.0000;0.5185;0.9156;
600.3000;0.5242;0.9131;
600.6000;0.5218;0.9010;
600.9000;0.5161;0.8717;
601.2000;0.5177;0.8669;
601.5000;0.5169;0.8547;
601.8000;0.5161;0.8449;
602.1000;0.5120;0.8303;
602.4000;0.5063;0.8060;
602.7000;0.5104;0.7962;
603.0000;0.5039;0.7719;
603.3000;0.5022;0.7573;
603.6000;0.5022;0.7475;
603.9000;0.4998;0.7451;
604.2000;0.4957;0.7329;
604.5000;0.4965;0.7329;
604.8000;0.4941;0.7256;
605.1000;0.4925;0.7232;
605.4000;0.4925;0.7135;
605.7000;0.4917;0.7062;
606.0000;0.4884;0.7037;
606.3000;0.4868;0.6988;
606.6000;0.4843;0.7062;
606.9000;0.4868;0.7110;
607.2000;0.4843;0.6988;
607.5000;0.4819;0.7013;
607.8000;0.4811;0.6915;
608.1000;0.4811;0.6842;
608.4000;0.4835;0.6964;
608.7000;0.4778;0.6891;
609.0000;0.4754;0.6818;
609.3000;0.4778;0.6940;
609.6000;0.4656;0.6599;
609.9000;0.4754;0.6842;
610.2000;0.4664;0.6648;
610.5000;0.4746;0.6964;
610.8000;0.4746;0.6891;
611.1000;0.4762;0.6891;
611.4000;0.4705;0.6721;
611.7000;0.4729;0.6721;
612.0000;0.4705;0.6648;
612.3000;0.4681;0.6575;
612.6000;0.4705;0.6648;
612.9000;0.4746;0.6769;
613.2000;0.4681;0.6672;
613.5000;0.4729;0.6867;
613.8000;0.4705;0.6842;
614.1000;0.4656;0.6648;
614.4000;0.4664;0.6672;
614.7000;0.4607;0.6453;
615.0000;0.4624;0.6428;
615.3000;0.4648;0.6599;
615.6000;0.4640;0.6599;
615.9000;0.4599;0.6599;
616.2000;0.4599;0.6672;
616.5000;0.4664;0.6818;
616.8000;0.4607;0.6550;
617.1000;0.4599;0.6550;
617.4000;0.4575;0.6428;
617.7000;0.4607;0.6477;
618.0000;0.4599;0.6550;
618.3000;0.4558;0.6575;
618.6000;0.4558;0.6453;
618.9000;0.4607;0.6672;
619.2000;0.4550;0.6501;
619.5000;0.4567;0.6550;
619.8000;0.4542;0.6428;
620.1000;0.4591;0.6623;
620.4000;0.4526;0.6380;
620.7000;0.4567;0.6453;
621.0000;0.4558;0.6404;
621.3000;0.4534;0.6428;
621.6000;0.4510;0.6355;
621.9000;0.4501;0.6380;
622.2000;0.4518;0.6575;
622.5000;0.4461;0.6428;
622.8000;0.4501;0.6575;
623.1000;0.4485;0.6550;
623.4000;0.4510;0.6623;
623.7000;0.4493;0.6623;
624.0000;0.4510;0.6721;
624.3000;0.4493;0.6623;
624.6000;0.4469;0.6550;
624.9000;0.4469;0.6575;
625.2000;0.4444;0.6501;
625.5000;0.4453;0.6623;
625.8000;0.4493;0.6769;
626.1000;0.4469;0.6794;
626.4000;0.4444;0.6721;
626.7000;0.4444;0.6696;
627.0000;0.4436;0.6623;
627.3000;0.4436;0.6575;
627.6000;0.4444;0.6526;
627.9000;0.4420;0.6526;
628.2000;0.4412;0.6550;
628.5000;0.4412;0.6501;
628.8000;0.4404;0.6501;
629.1000;0.4420;0.6550;
629.4000;0.4404;0.6477;
629.7000;0.4404;0.6428;
630.0000;0.4428;0.6404;
630.3000;0.4379;0.6428;
630.6000;0.4379;0.6575;
630.9000;0.4379;0.6599;
631.2000;0.4387;0.6648;
631.5000;0.4379;0.6648;
631.8000;0.4339;0.6526;
632.1000;0.4347;0.6575;
632.4000;0.4371;0.6550;
632.7000;0.4339;0.6380;
633.0000;0.4355;0.6404;
633.3000;0.4339;0.6404;
633.6000;0.4355;0.6550;
633.9000;0.4355;0.6599;
634.2000;0.4404;0.6769;
634.5000;0.4347;0.6575;
634.8000;0.4379;0.6648;
635.1000;0.4347;0.6623;
635.4000;0.4339;0.6599;
635.7000;0.4306;0.6501;
636.0000;0.4339;0.6526;
636.3000;0.4330;0.6428;
636.6000;0.4314;0.6477;
636.9000;0.4330;0.6550;
637.2000;0.4322;0.6526;
637.5000;0.4322;0.6599;
637.8000;0.4330;0.6575;
638.1000;0.4306;0.6477;
638.4000;0.4306;0.6477;
638.7000;0.4314;0.6501;
639.0000;0.4306;0.6550;
639.3000;0.4290;0.6575;
639.6000;0.4265;0.6501;
639.9000;0.4298;0.6526;
640.2000;0.4298;0.6477;
640.5000;0.4298;0.6331;
640.8000;0.4274;0.6282;
641.1000;0.4282;0.6282;
641.4000;0.4282;0.6282;
641.7000;0.4257;0.6282;
642.0000;0.4274;0.6282;
642.3000;0.4265;0.6282;
642.6000;0.4265;0.6331;
642.9000;0.4257;0.6307;
643.2000;0.4298;0.6380;
643.5000;0.4274;0.6380;
643.8000;0.4265;0.6355;
644.1000;0.4241;0.6380;
644.4000;0.4225;0.6355;
644.7000;0.4233;0.6355;
645.0000;0.4241;0.6331;
645.3000;0.4217;0.6258;
645.6000;0.4233;0.6209;
645.9000;0.4225;0.6258;
646.2000;0.4225;0.6185;
646.5000;0.4233;0.6136;
646.8000;0.4225;0.6112;
647.1000;0.4249;0.6209;
647.4000;0.4241;0.6234;
647.7000;0.4225;0.6161;
648.0000;0.4217;0.6185;
648.3000;0.4249;0.6209;
648.6000;0.4225;0.6161;
648.9000;0.4208;0.6112;
649.2000;0.4217;0.6112;
649.5000;0.4225;0.6161;
649.8000;0.4225;0.6209;
650.1000;0.4241;0.6331;
650.4000;0.4200;0.6234;
650.7000;0.4208;0.6355;
651.0000;0.4200;0.6404;
651.3000;0.4208;0.6428;
651.6000;0.4184;0.6355;
651.9000;0.4208;0.6477;
652.2000;0.4176;0.6282;
652.5000;0.4208;0.6307;
652.8000;0.4192;0.6307;
653.1000;0.4176;0.6258;
653.4000;0.4160;0.6258;
653.7000;0.4257;0.6599;
654.0000;0.4208;0.6477;
654.3000;0.4192;0.6428;
654.6000;0.4274;0.6672;
654.9000;0.4168;0.6453;
655.2000;0.4208;0.6501;
655.5000;0.4176;0.6404;
655.8000;0.4168;0.6404;
656.1000;0.4176;0.6453;
656.4000;0.4192;0.6428;
656.7000;0.4160;0.6331;
657.0000;0.4143;0.6428;
657.3000;0.4151;0.6428;
657.6000;0.4086;0.6185;
657.9000;0.4200;0.6477;
658.2000;0.4265;0.6623;
658.5000;0.4151;0.6453;
658.8000;0.4143;0.6453;
659.1000;0.4160;0.6526;
659.4000;0.4111;0.6428;
659.7000;0.4151;0.6404;
660.0000;0.4143;0.6331;
660.3000;0.4143;0.6258;
660.6000;0.4143;0.6355;
660.9000;0.4143;0.6380;
661.2000;0.4135;0.6307;
661.5000;0.4135;0.6355;
661.8000;0.4208;0.6672;
662.1000;0.4143;0.6599;
662.4000;0.4135;0.6623;
662.7000;0.4143;0.6696;
663.0000;0.4127;0.6672;
663.3000;0.4143;0.6599;
663.6000;0.4135;0.6501;
663.9000;0.4127;0.6428;
664.2000;0.4127;0.6428;
664.5000;0.4119;0.6453;
664.8000;0.4103;0.6380;
665.1000;0.4127;0.6453;
665.4000;0.4094;0.6307;
665.7000;0.4111;0.6355;
666.0000;0.4160;0.6477;
666.3000;0.4086;0.6258;
666.6000;0.4103;0.6380;
666.9000;0.4103;0.6428;
667.2000;0.4037;0.6307;
667.5000;0.4094;0.6453;
667.8000;0.4184;0.6696;
668.1000;0.4103;0.6501;
668.4000;0.4103;0.6477;
668.7000;0.4086;0.6380;
669.0000;0.4111;0.6380;
669.3000;0.4094;0.6282;
669.6000;0.4111;0.6307;
669.9000;0.4013;0.6136;
670.2000;0.4200;0.6575;
670.5000;0.4135;0.6404;
670.8000;0.4094;0.6428;
671.1000;0.4086;0.6453;
671.4000;0.4086;0.6477;
671.7000;0.4078;0.6477;
672.0000;0.4062;0.6428;
672.3000;0.4037;0.6282;
672.6000;0.4086;0.6453;
672.9000;0.4029;0.6380;
673.2000;0.4086;0.6501;
673.5000;0.4078;0.6477;
673.8000;0.4086;0.6428;
674.1000;0.4086;0.6501;
674.4000;0.4094;0.6599;
674.7000;0.4070;0.6477;
675.0000;0.4078;0.6404;
675.3000;0.4046;0.6355;
675.6000;0.4086;0.6380;
675.9000;0.4078;0.6331;
676.2000;0.4070;0.6282;
676.5000;0.4070;0.6282;
676.8000;0.4078;0.6307;
677.1000;0.4070;0.6234;
677.4000;0.4070;0.6380;
677.7000;0.4070;0.6428;
678.0000;0.4062;0.6404;
678.3000;0.4094;0.6526;
678.6000;0.4037;0.6404;
678.9000;0.4054;0.6355;
679.2000;0.4070;0.6380;
679.5000;0.4070;0.6282;
679.8000;0.4078;0.6307;
680.1000;0.4062;0.6307;
680.4000;0.4046;0.6307;
680.7000;0.4062;0.6380;
681.0000;0.4070;0.6428;
681.3000;0.4054;0.6380;
681.6000;0.4054;0.6355;
681.9000;0.4046;0.6404;
682.2000;0.4054;0.6428;
682.5000;0.4037;0.6428;
682.8000;0.4054;0.6477;
683.1000;0.4005;0.6428;
683.4000;0.4070;0.6477;
683.7000;0.4021;0.6355;
684.0000;0.4046;0.6380;
684.3000;0.4086;0.6428;
684.6000;0.4062;0.6404;
684.9000;0.4054;0.6501;
685.2000;0.4054;0.6477;
685.5000;0.4046;0.6404;
685.8000;0.4054;0.6477;
686.1000;0.4046;0.6453;
686.4000;0.4046;0.6477;
686.7000;0.4029;0.6380;
687.0000;0.4029;0.6404;
687.3000;0.4021;0.6380;
687.6000;0.4021;0.6282;
687.9000;0.4013;0.6331;
688.2000;0.4005;0.6428;
688.5000;0.4037;0.6477;
688.8000;0.4013;0.6404;
689.1000;0.4046;0.6501;
689.4000;0.4005;0.6355;
689.7000;0.4037;0.6428;
690.0000;0.4029;0.6477;
690.3000;0.4078;0.6526;
690.6000;0.4013;0.6477;
690.9000;0.4021;0.6453;
691.2000;0.4029;0.6477;
691.5000;0.4029;0.6428;
691.8000;0.4029;0.6355;
692.1000;0.4054;0.6355;
692.4000;0.3972;0.6136;
692.7000;0.4029;0.6355;
693.0000;0.3989;0.6209;
693.3000;0.4078;0.6550;
693.6000;0.4046;0.6428;
693.9000;0.4037;0.6428;
694.2000;0.4029;0.6380;
694.5000;0.4005;0.6355;
694.8000;0.4021;0.6331;
695.1000;0.4021;0.6428;
695.4000;0.3980;0.6307;
695.7000;0.3989;0.6331;
696.0000;0.4029;0.6428;
696.3000;0.4111;0.6599;
696.6000;0.4029;0.6404;
696.9000;0.4013;0.6404;
697.2000;0.4029;0.6404;
697.5000;0.4037;0.6380;
697.8000;0.4021;0.6380;
698.1000;0.4013;0.6404;
698.4000;0.4037;0.6404;
698.7000;0.3980;0.6234;
699.0000;0.4021;0.6355;
699.3000;0.3989;0.6282;
699.6000;0.3997;0.6307;
699.9000;0.4013;0.6307;
700.2000;0.3956;0.6088;
700.5000;0.4013;0.6136;
700.8000;0.4005;0.6185;
701.1000;0.4029;0.6234;
701.4000;0.4021;0.6234;
701.7000;0.3989;0.6185;
702.0000;0.3989;0.6136;
702.3000;0.3997;0.6161;
702.6000;0.3997;0.6185;
702.9000;0.3980;0.6161;
703.2000;0.3997;0.6209;
703.5000;0.3989;0.6185;
703.8000;0.3997;0.6234;
704.1000;0.3997;0.6355;
704.4000;0.3964;0.6380;
704.7000;0.3997;0.6550;
705.0000;0.4013;0.6550;
705.3000;0.4005;0.6526;
705.6000;0.3989;0.6575;
705.9000;0.4013;0.6526;
706.2000;0.3997;0.6477;
706.5000;0.4013;0.6453;
706.8000;0.3989;0.6404;
707.1000;0.3997;0.6453;
707.4000;0.3997;0.6428;
707.7000;0.3980;0.6404;
708.0000;0.3989;0.6355;
708.3000;0.3997;0.6380;
708.6000;0.3980;0.6282;
708.9000;0.3997;0.6258;
709.2000;0.3972;0.6258;
709.5000;0.3980;0.6331;
709.8000;0.3997;0.6331;
710.1000;0.3989;0.6428;
710.4000;0.3972;0.6307;
710.7000;0.3972;0.6331;
711.0000;0.3980;0.6380;
711.3000;0.3972;0.6331;
711.6000;0.3980;0.6428;
711.9000;0.3980;0.6477;
712.2000;0.3964;0.6380;
712.5000;0.3980;0.6331;
712.8000;0.3972;0.6258;
713.1000;0.3964;0.6331;
713.4000;0.3989;0.6404;
713.7000;0.3989;0.6380;
714.0000;0.3980;0.6404;
714.3000;0.3997;0.6501;
714.6000;0.3972;0.6477;
714.9000;0.4005;0.6648;
715.2000;0.3989;0.6623;
715.5000;0.3989;0.6575;
715.8000;0.3989;0.6428;
716.1000;0.3964;0.6355;
716.4000;0.3956;0.6380;
716.7000;0.3980;0.6453;
717.0000;0.4021;0.6428;
717.3000;0.3972;0.6453;
717.6000;0.3972;0.6526;
717.9000;0.3964;0.6428;
718.2000;0.3964;0.6501;
718.5000;0.3907;0.6355;
718.8000;0.3964;0.6501;
719.1000;0.3972;0.6526;
719.4000;0.3956;0.6453;
719.7000;0.3956;0.6428;
720.0000;0.3972;0.6453;
720.3000;0.3997;0.6526;
720.6000;0.3964;0.6404;
720.9000;0.3964;0.6404;
721.2000;0.3972;0.6331;
721.5000;0.3956;0.6258;
721.8000;0.3980;0.6380;
722.1000;0.3923;0.6234;
722.4000;0.3964;0.6428;
722.7000;0.3940;0.6355;
723.0000;0.3867;0.6161;
723.3000;0.4037;0.6526;
723.6000;0.3964;0.6355;
723.9000;0.3956;0.6307;
724.2000;0.3948;0.6209;
724.5000;0.3891;0.6039;
724.8000;0.3956;0.6234;
725.1000;0.4013;0.6404;
725.4000;0.3899;0.6014;
725.7000;0.3980;0.6209;
726.0000;0.3956;0.6161;
726.3000;0.3956;0.6209;
726.6000;0.3899;0.6161;
726.9000;0.3964;0.6355;
727.2000;0.3948;0.6307;
727.5000;0.3891;0.6209;
727.8000;0.4029;0.6550;
728.1000;0.3932;0.6380;
728.4000;0.3972;0.6404;
728.7000;0.3972;0.6477;
729.0000;0.3956;0.6404;
729.3000;0.3972;0.6428;
729.6000;0.3956;0.6453;
729.9000;0.3932;0.6428;
730.2000;0.3956;0.6501;
730.5000;0.3972;0.6477;
730.8000;0.3923;0.6282;
731.1000;0.3989;0.6477;
731.4000;0.3956;0.6380;
731.7000;0.3948;0.6380;
732.0000;0.3948;0.6355;
732.3000;0.3956;0.6355;
732.6000;0.3972;0.6331;
732.9000;0.3956;0.6282;
733.2000;0.3956;0.6355;
733.5000;0.3956;0.6258;
733.8000;0.3948;0.6331;
734.1000;0.3948;0.6282;
734.4000;0.3948;0.6282;
734.7000;0.3956;0.6355;
735.0000;0.3948;0.6380;
735.3000;0.3948;0.6355;
735.6000;0.3964;0.6477;
735.9000;0.3932;0.6428;
736.2000;0.3956;0.6501;
736.5000;0.3932;0.6428;
736.8000;0.3948;0.6404;
737.1000;0.3923;0.6307;
737.4000;0.3923;0.6331;
737.7000;0.3932;0.6428;
738.0000;0.3932;0.6380;
738.3000;0.3932;0.6355;
738.6000;0.3940;0.6380;
738.9000;0.3834;0.6161;
739.2000;0.3932;0.6355;
739.5000;0.3932;0.6258;
739.8000;0.3932;0.6234;
740.1000;0.3940;0.6161;
740.4000;0.3932;0.6185;
740.7000;0.3940;0.6136;
741.0000;0.3940;0.6258;
741.3000;0.4013;0.6501;
741.6000;0.3899;0.6161;
741.9000;0.3940;0.6282;
742.2000;0.3956;0.6331;
742.5000;0.3948;0.6282;
742.8000;0.3948;0.6258;
743.1000;0.3956;0.6258;
743.4000;0.3956;0.6307;
743.7000;0.3923;0.6209;
744.0000;0.3907;0.6063;
744.3000;0.3948;0.6307;
744.6000;0.3948;0.6307;
744.9000;0.3923;0.6185;
745.2000;0.3932;0.6161;
745.5000;0.3948;0.6282;
745.8000;0.3940;0.6307;
746.1000;0.3948;0.6355;
746.4000;0.3940;0.6282;
746.7000;0.3932;0.6282;
747.0000;0.3964;0.6331;
747.3000;0.3932;0.6282;
747.6000;0.3940;0.6258;
747.9000;0.3932;0.6307;
748.2000;0.4013;0.6477;
748.5000;0.3940;0.6282;
748.8000;0.3932;0.6380;
749.1000;0.3940;0.6453;
749.4000;0.3972;0.6575;
749.7000;0.3842;0.6258;
750.0000;0.3915;0.6428;
750.3000;0.3923;0.6477;
750.6000;0.3915;0.6453;
750.9000;0.3923;0.6404;
751.2000;0.3940;0.6404;
751.5000;0.3923;0.6428;
751.8000;0.3923;0.6501;
752.1000;0.3956;0.6550;
752.4000;0.3932;0.6526;
752.7000;0.3932;0.6599;
753.0000;0.3932;0.6526;
753.3000;0.3915;0.6404;
753.6000;0.3915;0.6477;
753.9000;0.3932;0.6404;
754.2000;0.3907;0.6331;
754.5000;0.3972;0.6453;
754.8000;0.3940;0.6331;
755.1000;0.3948;0.6404;
755.4000;0.3891;0.6355;
755.7000;0.3915;0.6477;
756.0000;0.3948;0.6575;
756.3000;0.3923;0.6501;
756.6000;0.3923;0.6575;
756.9000;0.3964;0.6696;
757.2000;0.3915;0.6599;
757.5000;0.3923;0.6501;
757.8000;0.3923;0.6550;
758.1000;0.3932;0.6501;
758.4000;0.3915;0.6404;
758.7000;0.3997;0.6550;
759.0000;0.3899;0.6355;
759.3000;0.3915;0.6331;
759.6000;0.3907;0.6355;
759.9000;0.3891;0.6282;
760.2000;0.3907;0.6258;
760.5000;0.3891;0.6258;
760.8000;0.3915;0.6258;
761.1000;0.3915;0.6307;
761.4000;0.3940;0.6331;
761.7000;0.3915;0.6307;
762.0000;0.3932;0.6258;
762.3000;0.3915;0.6209;
762.6000;0.3899;0.6185;
762.9000;0.3923;0.6282;
763.2000;0.3923;0.6307;
763.5000;0.3915;0.6282;
763.8000;0.3923;0.6258;
764.1000;0.3867;0.6161;
764.4000;0.3956;0.6453;
764.7000;0.3899;0.6331;
765.0000;0.3932;0.6380;
765.3000;0.3907;0.6404;
765.6000;0.3956;0.6550;
765.9000;0.3907;0.6404;
766.2000;0.3932;0.6404;
766.5000;0.3940;0.6453;
766.8000;0.3923;0.6404;
767.1000;0.3932;0.6428;
767.4000;0.3932;0.6477;
767.7000;0.3932;0.6550;
768.0000;0.3940;0.6477;
768.3000;0.3907;0.6453;
768.6000;0.3932;0.6453;
768.9000;0.3923;0.6428;
769.2000;0.3907;0.6428;
769.5000;0.3923;0.6428;
769.8000;0.3932;0.6355;
770.1000;0.3915;0.6282;
770.4000;0.3883;0.6307;
770.7000;0.3915;0.6307;
771.0000;0.3915;0.6331;
771.3000;0.3907;0.6282;
771.6000;0.3915;0.6234;
771.9000;0.3907;0.6136;
772.2000;0.3923;0.6258;
772.5000;0.3932;0.6282;
772.8000;0.3915;0.6234;
773.1000;0.3899;0.6161;
773.4000;0.3915;0.6209;
773.7000;0.3899;0.6282;
774.0000;0.3899;0.6404;
774.3000;0.3899;0.6404;
774.6000;0.3883;0.6404;
774.9000;0.3891;0.6453;
775.2000;0.3899;0.6428;
775.5000;0.3907;0.6501;
775.8000;0.3915;0.6501;
776.1000;0.3907;0.6428;
776.4000;0.3907;0.6453;
776.7000;0.3915;0.6550;
777.0000;0.3915;0.6477;
777.3000;0.3915;0.6477;
777.6000;0.3940;0.6501;
777.9000;0.3907;0.6355;
778.2000;0.3915;0.6307;
778.5000;0.3899;0.6282;
778.8000;0.3915;0.6355;
779.1000;0.3883;0.6185;
779.4000;0.3907;0.6307;
779.7000;0.3891;0.6282;
780.0000;0.3899;0.6209;
780.3000;0.3899;0.6234;
780.6000;0.3907;0.6258;
780.9000;0.3899;0.6307;
781.2000;0.3907;0.6307;
781.5000;0.3907;0.6428;
781.8000;0.3899;0.6599;
782.1000;0.3891;0.6599;
782.4000;0.3915;0.6623;
782.7000;0.3891;0.6672;
783.0000;0.3907;0.6672;
783.3000;0.3899;0.6575;
783.6000;0.3907;0.6526;
783.9000;0.3907;0.6477;
784.2000;0.3899;0.6428;
784.5000;0.3867;0.6355;
784.8000;0.3899;0.6404;
785.1000;0.3883;0.6404;
785.4000;0.3907;0.6477;
785.7000;0.3875;0.6380;
786.0000;0.3891;0.6428;
786.3000;0.3883;0.6355;
786.6000;0.3899;0.6331;
786.9000;0.3875;0.6282;
787.2000;0.3915;0.6453;
787.5000;0.3923;0.6453;
787.8000;0.3923;0.6404;
788.1000;0.3899;0.6428;
788.4000;0.3842;0.6234;
788.7000;0.3883;0.6404;
789.0000;0.3899;0.6453;
789.3000;0.3932;0.6526;
789.6000;0.3932;0.6428;
789.9000;0.3891;0.6380;
790.2000;0.3899;0.6526;
790.5000;0.3915;0.6648;
790.8000;0.3907;0.6550;
791.1000;0.3899;0.6428;
791.4000;0.3891;0.6282;
791.7000;0.3883;0.6258;
792.0000;0.3899;0.6331;
792.3000;0.3891;0.6380;
792.6000;0.3899;0.6355;
792.9000;0.3850;0.6209;
793.2000;0.3915;0.6453;
793.5000;0.3932;0.6428;
793.8000;0.3883;0.6282;
794.1000;0.3899;0.6355;
794.4000;0.3883;0.6355;
794.7000;0.3891;0.6380;
795.0000;0.3883;0.6380;
795.3000;0.3899;0.6453;
795.6000;0.3915;0.6453;
795.9000;0.3883;0.6404;
796.2000;0.3891;0.6453;
796.5000;0.3899;0.6477;
796.8000;0.3891;0.6404;
797.1000;0.3899;0.6258;
797.4000;0.3875;0.6136;
797.7000;0.3907;0.6234;
798.0000;0.3907;0.6307;
798.3000;0.3915;0.6258;
798.6000;0.3899;0.6282;
798.9000;0.3899;0.6331;
799.2000;0.3915;0.6428;
799.5000;0.3907;0.6380;
799.8000;0.3915;0.6355;
800.1000;0.3834;0.6258;
800.4000;0.3915;0.6453;
800.7000;0.3915;0.6526;
801.0000;0.3907;0.6477;
801.3000;0.3907;0.6404;
801.6000;0.3940;0.6380;
801.9000;0.3891;0.6331;
802.2000;0.3907;0.6331;
802.5000;0.3923;0.6404;
802.8000;0.3891;0.6404;
803.1000;0.3850;0.6307;
803.4000;0.3907;0.6428;
803.7000;0.3899;0.6428;
804.0000;0.3891;0.6380;
804.3000;0.3899;0.6331;
804.6000;0.3891;0.6307;
804.9000;0.3842;0.6136;
805.2000;0.3883;0.6307;
805.5000;0.3883;0.6331;
805.8000;0.3907;0.6331;
806.1000;0.3891;0.6307;
806.4000;0.3883;0.6185;
806.7000;0.3891;0.6161;
807.0000;0.3915;0.6185;
807.3000;0.3875;0.6234;
807.6000;0.3915;0.6331;
807.9000;0.3891;0.6258;
808.2000;0.3907;0.6258;
808.5000;0.3899;0.6234;
808.8000;0.3883;0.6161;
809.1000;0.3915;0.6209;
809.4000;0.3850;0.6112;
809.7000;0.3826;0.5966;
810.0000;0.3891;0.6161;
810.3000;0.3883;0.6112;
810.6000;0.3915;0.6258;
810.9000;0.3891;0.6282;
811.2000;0.3883;0.6404;
811.5000;0.3875;0.6282;
811.8000;0.3907;0.6282;
812.1000;0.3907;0.6282;
812.4000;0.3907;0.6209;
812.7000;0.3899;0.6209;
813.0000;0.3899;0.6136;
813.3000;0.3899;0.6136;
813.6000;0.3907;0.6234;
813.9000;0.3907;0.6209;
814.2000;0.3875;0.6161;
814.5000;0.3899;0.6234;
814.8000;0.3891;0.6258;
815.1000;0.3891;0.6161;
815.4000;0.3858;0.6088;
815.7000;0.3834;0.6136;
816.0000;0.3891;0.6331;
816.3000;0.3883;0.6282;
816.6000;0.3891;0.6331;
816.9000;0.3899;0.6307;
817.2000;0.3883;0.6331;
817.5000;0.3907;0.6404;
817.8000;0.3850;0.6209;
818.1000;0.3883;0.6331;
818.4000;0.3891;0.6355;
818.7000;0.3891;0.6428;
819.0000;0.3875;0.6526;
819.3000;0.3883;0.6477;
819.6000;0.3858;0.6477;
819.9000;0.3858;0.6428;
820.2000;0.3818;0.6234;
820.5000;0.3891;0.6428;
820.8000;0.3907;0.6477;
821.1000;0.3948;0.6550;
821.4000;0.3834;0.6331;
821.7000;0.3883;0.6477;
822.0000;0.3875;0.6599;
822.3000;0.3899;0.6648;
822.6000;0.3883;0.6575;
822.9000;0.3915;0.6550;
823.2000;0.3891;0.6428;
823.5000;0.3867;0.6355;
823.8000;0.3818;0.6258;
824.1000;0.3883;0.6404;
824.4000;0.3915;0.6428;
824.7000;0.3883;0.6380;
825.0000;0.3899;0.6428;
825.3000;0.3899;0.6453;
825.6000;0.3899;0.6428;
825.9000;0.3891;0.6453;
826.2000;0.3907;0.6526;
826.5000;0.3891;0.6477;
826.8000;0.3915;0.6453;
827.1000;0.3899;0.6428;
827.4000;0.3899;0.6453;
827.7000;0.3923;0.6453;
828.0000;0.3891;0.6428;
828.3000;0.3899;0.6355;
828.6000;0.3907;0.6453;
828.9000;0.3907;0.6331;
829.2000;0.3883;0.6258;
829.5000;0.3883;0.6331;
829.8000;0.3891;0.6404;
830.1000;0.3858;0.6258;
830.4000;0.3899;0.6355;
830.7000;0.3858;0.6307;
831.0000;0.3891;0.6355;
831.3000;0.3818;0.6209;
831.6000;0.3883;0.6355;
831.9000;0.3826;0.6185;
832.2000;0.3899;0.6355;
832.5000;0.3899;0.6404;
832.8000;0.3923;0.6428;
833.1000;0.3891;0.6331;
833.4000;0.3850;0.6209;
833.7000;0.3883;0.6331;
834.0000;0.3899;0.6307;
834.3000;0.3883;0.6307;
834.6000;0.3948;0.6501;
834.9000;0.3964;0.6477;
835.2000;0.3899;0.6307;
835.5000;0.3867;0.6185;
835.8000;0.3850;0.6063;
836.1000;0.3891;0.6282;
836.4000;0.3899;0.6355;
836.7000;0.3915;0.6477;
837.0000;0.3883;0.6453;
837.3000;0.3923;0.6526;
837.6000;0.3899;0.6453;
837.9000;0.3891;0.6428;
838.2000;0.3883;0.6453;
838.5000;0.3891;0.6453;
838.8000;0.3883;0.6477;
839.1000;0.3899;0.6526;
839.4000;0.3883;0.6453;
839.7000;0.3883;0.6477;
840.0000;0.3883;0.6550;
840.3000;0.3891;0.6550;
840.6000;0.3842;0.6477;
840.9000;0.3899;0.6599;
841.2000;0.3883;0.6501;
841.5000;0.3867;0.6380;
841.8000;0.3867;0.6428;
842.1000;0.3875;0.6404;
842.4000;0.3818;0.6234;
842.7000;0.3883;0.6404;
843.0000;0.3883;0.6428;
843.3000;0.3883;0.6428;
843.6000;0.3867;0.6428;
843.9000;0.3842;0.6404;
844.2000;0.3932;0.6526;
844.5000;0.3858;0.6331;
844.8000;0.3883;0.6428;
845.1000;0.3875;0.6380;
845.4000;0.3883;0.6404;
845.7000;0.3964;0.6501;
846.0000;0.3875;0.6331;
846.3000;0.3980;0.6550;
846.6000;0.3883;0.6331;
846.9000;0.3891;0.6404;
847.2000;0.3915;0.6477;
847.5000;0.3842;0.6355;
847.8000;0.3891;0.6477;
848.1000;0.3875;0.6526;
848.4000;0.3915;0.6526;
848.7000;0.3883;0.6477;
849.0000;0.3875;0.6428;
849.3000;0.3899;0.6380;
849.6000;0.3875;0.6258;
849.9000;0.3875;0.6209;
850.2000;0.3883;0.6234;
850.5000;0.3907;0.6282;
850.8000;0.3891;0.6209;
851.1000;0.3875;0.6161;
851.4000;0.3883;0.6258;
851.7000;0.3891;0.6331;
852.0000;0.3850;0.6234;
852.3000;0.3875;0.6209;
852.6000;0.3907;0.6307;
852.9000;0.3948;0.6380;
853.2000;0.3883;0.6209;
853.5000;0.3891;0.6185;
853.8000;0.3875;0.6209;
854.1000;0.3883;0.6307;
854.4000;0.3891;0.6428;
854.7000;0.3875;0.6477;
855.0000;0.3891;0.6575;
855.3000;0.3883;0.6550;
855.6000;0.3883;0.6477;
855.9000;0.3891;0.6501;
856.2000;0.3915;0.6526;
856.5000;0.3891;0.6453;
856.8000;0.3883;0.6428;
857.1000;0.3883;0.6331;
857.4000;0.3915;0.6453;
857.7000;0.3867;0.6307;
858.0000;0.3907;0.6453;
858.3000;0.3875;0.6355;
858.6000;0.3867;0.6355;
858.9000;0.3875;0.6453;
859.2000;0.3899;0.6453;
859.5000;0.3883;0.6404;
859.8000;0.3834;0.6331;
860.1000;0.3891;0.6477;
860.4000;0.3826;0.6331;
860.7000;0.3810;0.6258;
861.0000;0.3891;0.6404;
861.3000;0.3883;0.6404;
861.6000;0.3850;0.6282;
861.9000;0.3899;0.6404;
862.2000;0.3883;0.6477;
862.5000;0.3907;0.6550;
862.8000;0.3875;0.6526;
863.1000;0.3932;0.6623;
863.4000;0.3883;0.6453;
863.7000;0.3891;0.6453;
864.0000;0.3891;0.6575;
864.3000;0.3899;0.6648;
864.6000;0.3875;0.6575;
864.9000;0.3891;0.6648;
865.2000;0.3875;0.6526;
865.5000;0.3883;0.6526;
865.8000;0.3858;0.6428;
866.1000;0.3875;0.6477;
866.4000;0.3867;0.6575;
866.7000;0.3875;0.6575;
867.0000;0.3972;0.6818;
867.3000;0.3883;0.6648;
867.6000;0.3891;0.6599;
867.9000;0.3867;0.6599;
868.2000;0.3891;0.6550;
868.5000;0.3875;0.6404;
868.8000;0.3875;0.6453;
869.1000;0.3891;0.6550;
869.4000;0.3907;0.6575;
869.7000;0.3891;0.6477;
870.0000;0.3891;0.6501;
870.3000;0.3883;0.6453;
870.6000;0.3875;0.6501;
870.9000;0.3940;0.6672;
871.2000;0.3875;0.6526;
871.5000;0.3891;0.6550;
871.8000;0.3891;0.6575;
872.1000;0.3891;0.6526;
872.4000;0.3883;0.6477;
872.7000;0.3875;0.6453;
873.0000;0.3883;0.6526;
873.3000;0.3883;0.6501;
873.6000;0.3891;0.6453;
873.9000;0.3891;0.6428;
874.2000;0.3891;0.6501;
874.5000;0.3899;0.6501;
874.8000;0.3875;0.6526;
875.1000;0.3867;0.6526;
875.4000;0.3915;0.6501;
875.7000;0.3883;0.6550;
876.0000;0.3867;0.6428;
876.3000;0.3883;0.6453;
876.6000;0.3899;0.6453;
876.9000;0.3867;0.6331;
877.2000;0.3883;0.6428;
877.5000;0.3875;0.6380;
877.8000;0.3842;0.6209;
878.1000;0.3883;0.6307;
878.4000;0.3867;0.6331;
878.7000;0.3875;0.6428;
879.0000;0.3875;0.6501;
879.3000;0.3899;0.6550;
879.6000;0.3907;0.6526;
879.9000;0.3867;0.6477;
880.2000;0.3891;0.6526;
880.5000;0.3883;0.6355;
880.8000;0.3883;0.6331;
881.1000;0.3891;0.6380;
881.4000;0.3875;0.6404;
881.7000;0.3858;0.6282;
882.0000;0.3875;0.6282;
882.3000;0.3891;0.6307;
882.6000;0.3875;0.6355;
882.9000;0.3875;0.6355;
883.2000;0.3899;0.6331;
883.5000;0.3834;0.6234;
883.8000;0.3891;0.6380;
884.1000;0.3883;0.6428;
884.4000;0.3883;0.6575;
884.7000;0.3891;0.6599;
885.0000;0.3899;0.6599;
885.3000;0.3891;0.6623;
885.6000;0.3899;0.6745;
885.9000;0.3891;0.6745;
886.2000;0.3891;0.6794;
886.5000;0.3875;0.6721;
886.8000;0.3915;0.6818;
887.1000;0.3891;0.6745;
887.4000;0.3891;0.6769;
887.7000;0.3875;0.6794;
888.0000;0.3850;0.6672;
888.3000;0.3875;0.6721;
888.6000;0.3891;0.6769;
888.9000;0.3883;0.6794;
889.2000;0.3875;0.6672;
889.5000;0.3867;0.6672;
889.8000;0.3875;0.6648;
890.1000;0.3883;0.6599;
890.4000;0.3883;0.6575;
890.7000;0.3899;0.6623;
891.0000;0.3867;0.6672;
891.3000;0.3891;0.6623;
891.6000;0.3883;0.6696;
891.9000;0.3858;0.6672;
892.2000;0.3891;0.6696;
892.5000;0.3883;0.6818;
892.8000;0.3883;0.6794;
893.1000;0.3883;0.6842;
893.4000;0.3891;0.6891;
893.7000;0.3899;0.6818;
894.0000;0.3875;0.6696;
894.3000;0.3891;0.6721;
894.6000;0.3875;0.6672;
894.9000;0.3883;0.6696;
895.2000;0.3891;0.6696;
895.5000;0.3867;0.6721;
895.8000;0.3858;0.6623;
896.1000;0.3883;0.6672;
896.4000;0.3883;0.6672;
896.7000;0.3850;0.6599;
897.0000;0.3875;0.6721;
897.3000;0.3875;0.6672;
897.6000;0.3899;0.6648;
897.9000;0.3899;0.6599;
898.2000;0.3891;0.6526;
898.5000;0.3883;0.6599;
898.8000;0.3923;0.6721;
899.1000;0.3915;0.6648;
899.4000;0.3891;0.6672;
899.7000;0.3883;0.6575;
900.0000;0.3899;0.6599;
900.3000;0.3867;0.6623;
900.6000;0.3899;0.6696;
900.9000;0.3875;0.6599;
901.2000;0.3875;0.6599;
901.5000;0.3875;0.6599;
901.8000;0.3875;0.6550;
902.1000;0.3883;0.6623;
902.4000;0.3883;0.6623;
902.7000;0.3883;0.6501;
903.0000;0.3858;0.6380;
903.3000;0.3858;0.6331;
903.6000;0.3899;0.6477;
903.9000;0.3826;0.6161;
904.2000;0.3940;0.6599;
904.5000;0.3883;0.6453;
904.8000;0.3818;0.6282;
905.1000;0.3899;0.6404;
905.4000;0.3964;0.6672;
905.7000;0.3810;0.6234;
906.0000;0.3891;0.6404;
906.3000;0.3907;0.6477;
906.6000;0.3867;0.6404;
906.9000;0.3834;0.6331;
907.2000;0.3875;0.6428;
907.5000;0.3883;0.6501;
907.8000;0.3907;0.6623;
908.1000;0.3875;0.6526;
908.4000;0.3891;0.6575;
908.7000;0.3899;0.6696;
909.0000;0.3883;0.6648;
909.3000;0.3883;0.6575;
909.6000;0.3867;0.6575;
909.9000;0.3875;0.6648;
910.2000;0.3891;0.6623;
910.5000;0.3867;0.6501;
910.8000;0.3907;0.6501;
911.1000;0.3891;0.6477;
911.4000;0.3875;0.6404;
911.7000;0.3899;0.6428;
912.0000;0.3867;0.6501;
912.3000;0.3867;0.6599;
912.6000;0.3858;0.6477;
912.9000;0.3891;0.6477;
913.2000;0.3875;0.6526;
913.5000;0.3858;0.6526;
913.8000;0.3858;0.6575;
914.1000;0.3972;0.6842;
914.4000;0.3875;0.6575;
914.7000;0.3883;0.6575;
915.0000;0.3858;0.6477;
915.3000;0.3867;0.6526;
915.6000;0.3891;0.6599;
915.9000;0.3875;0.6428;
916.2000;0.3867;0.6477;
916.5000;0.3899;0.6501;
916.8000;0.3883;0.6550;
917.1000;0.3883;0.6550;
917.4000;0.3867;0.6550;
917.7000;0.3883;0.6599;
918.0000;0.3867;0.6575;
918.3000;0.3883;0.6526;
918.6000;0.3867;0.6404;
918.9000;0.3883;0.6453;
919.2000;0.3899;0.6550;
919.5000;0.3883;0.6453;
919.8000;0.3867;0.6428;
920.1000;0.3883;0.6575;
920.4000;0.3875;0.6501;
920.7000;0.3883;0.6501;
921.0000;0.3867;0.6501;
921.3000;0.3875;0.6526;
921.6000;0.3875;0.6575;
921.9000;0.3891;0.6550;
922.2000;0.3907;0.6599;
922.5000;0.3891;0.6575;
922.8000;0.3867;0.6526;
923.1000;0.3883;0.6575;
923.4000;0.3867;0.6575;
923.7000;0.3875;0.6575;
924.0000;0.3834;0.6380;
924.3000;0.3907;0.6550;
924.6000;0.3891;0.6550;
924.9000;0.3801;0.6355;
925.2000;0.3883;0.6477;
925.5000;0.3915;0.6599;
925.8000;0.3875;0.6575;
926.1000;0.3907;0.6696;
926.4000;0.3907;0.6745;
926.7000;0.3867;0.6453;
927.0000;0.3883;0.6550;
927.3000;0.3883;0.6477;
927.6000;0.3875;0.6453;
927.9000;0.3875;0.6380;
928.2000;0.3891;0.6501;
928.5000;0.3891;0.6501;
928.8000;0.3891;0.6550;
929.1000;0.3875;0.6550;
929.4000;0.3883;0.6526;
929.7000;0.3826;0.6404;
930.0000;0.3883;0.6453;
930.3000;0.3867;0.6428;
930.6000;0.3891;0.6477;
930.9000;0.3891;0.6575;
931.2000;0.3883;0.6477;
931.5000;0.3899;0.6550;
931.8000;0.3867;0.6453;
932.1000;0.3858;0.6331;
932.4000;0.3899;0.6404;
932.7000;0.3883;0.6355;
933.0000;0.3826;0.6331;
933.3000;0.3891;0.6526;
933.6000;0.3891;0.6526;
933.9000;0.3923;0.6575;
934.2000;0.3883;0.6428;
934.5000;0.3883;0.6380;
934.8000;0.3858;0.6307;
935.1000;0.3875;0.6331;
935.4000;0.3834;0.6282;
935.7000;0.3907;0.6477;
936.0000;0.3875;0.6428;
936.3000;0.3818;0.6355;
936.6000;0.3834;0.6355;
936.9000;0.3883;0.6477;
937.2000;0.3915;0.6477;
937.5000;0.3810;0.6234;
937.8000;0.3883;0.6501;
938.1000;0.3875;0.6575;
938.4000;0.3801;0.6355;
938.7000;0.3858;0.6550;
939.0000;0.3858;0.6526;
939.3000;0.3875;0.6599;
939.6000;0.3948;0.6721;
939.9000;0.3867;0.6575;
940.2000;0.3883;0.6648;
940.5000;0.3858;0.6623;
940.8000;0.3867;0.6672;
941.1000;0.3883;0.6721;
941.4000;0.3883;0.6623;
941.7000;0.3883;0.6672;
942.0000;0.3883;0.6599;
942.3000;0.3883;0.6672;
942.6000;0.3875;0.6648;
942.9000;0.3907;0.6696;
943.2000;0.3842;0.6575;
943.5000;0.3891;0.6672;
943.8000;0.3875;0.6648;
944.1000;0.3883;0.6648;
944.4000;0.3891;0.6648;
944.7000;0.3891;0.6672;
945.0000;0.3875;0.6672;
945.3000;0.3883;0.6623;
945.6000;0.3972;0.6842;
945.9000;0.3932;0.6672;
946.2000;0.3883;0.6550;
946.5000;0.3883;0.6599;
946.8000;0.3810;0.6453;
947.1000;0.3883;0.6672;
947.4000;0.3989;0.6988;
947.7000;0.3883;0.6672;
948.0000;0.3867;0.6648;
948.3000;0.3858;0.6648;
948.6000;0.3850;0.6648;
948.9000;0.3801;0.6477;
949.2000;0.3858;0.6501;
949.5000;0.3891;0.6550;
949.8000;0.3875;0.6599;
950.1000;0.3875;0.6623;
950.4000;0.3818;0.6526;
950.7000;0.3867;0.6696;
951.0000;0.3883;0.6818;
951.3000;0.3891;0.6891;
951.6000;0.3875;0.6891;
951.9000;0.3867;0.6842;
952.2000;0.3875;0.6867;
952.5000;0.3875;0.6818;
952.8000;0.3899;0.6721;
953.1000;0.3891;0.6745;
953.4000;0.3875;0.6672;
953.7000;0.3818;0.6477;
954.0000;0.3883;0.6623;
954.3000;0.3891;0.6623;
954.6000;0.3875;0.6599;
954.9000;0.3899;0.6575;
955.2000;0.3875;0.6501;
955.5000;0.3850;0.6526;
955.8000;0.3883;0.6599;
956.1000;0.3891;0.6672;
956.4000;0.3907;0.6672;
956.7000;0.3883;0.6623;
957.0000;0.3875;0.6575;
957.3000;0.3867;0.6648;
957.6000;0.3891;0.6745;
957.9000;0.3867;0.6623;
958.2000;0.3842;0.6501;
958.5000;0.3826;0.6453;
958.8000;0.3875;0.6599;
959.1000;0.3867;0.6672;
959.4000;0.3850;0.6575;
959.7000;0.3883;0.6550;
960.0000;0.3875;0.6477;
960.3000;0.3907;0.6599;
960.6000;0.3842;0.6477;
960.9000;0.3875;0.6526;
961.2000;0.3858;0.6477;
961.5000;0.3883;0.6575;
961.8000;0.3842;0.6453;
962.1000;0.3858;0.6550;
962.4000;0.3891;0.6623;
962.7000;0.3883;0.6477;
963.0000;0.3875;0.6428;
963.3000;0.3891;0.6501;
963.6000;0.3850;0.6380;
963.9000;0.3810;0.6404;
964.2000;0.3923;0.6623;
964.5000;0.3867;0.6428;
964.8000;0.3867;0.6477;
965.1000;0.3891;0.6501;
965.4000;0.3883;0.6526;
965.7000;0.3875;0.6599;
966.0000;0.3883;0.6623;
966.3000;0.3883;0.6575;
966.6000;0.3915;0.6575;
966.9000;0.3867;0.6453;
967.2000;0.3850;0.6526;
967.5000;0.3875;0.6526;
967.8000;0.3875;0.6501;
968.1000;0.3883;0.6550;
968.4000;0.3867;0.6501;
968.7000;0.3883;0.6575;
969.0000;0.3883;0.6575;
969.3000;0.3883;0.6453;
969.6000;0.3915;0.6477;
969.9000;0.3883;0.6428;
970.2000;0.3867;0.6355;
970.5000;0.3875;0.6282;
970.8000;0.3883;0.6331;
971.1000;0.3867;0.6404;
971.4000;0.3875;0.6453;
971.7000;0.3899;0.6428;
972.0000;0.3850;0.6453;
972.3000;0.3826;0.6501;
972.6000;0.3850;0.6575;
972.9000;0.3883;0.6648;
973.2000;0.3867;0.6672;
973.5000;0.3875;0.6672;
973.8000;0.3867;0.6672;
974.1000;0.3883;0.6745;
974.4000;0.3834;0.6550;
974.7000;0.3883;0.6672;
975.0000;0.3842;0.6575;
975.3000;0.3907;0.6769;
975.6000;0.3875;0.6818;
975.9000;0.3867;0.6721;
976.2000;0.3867;0.6672;
976.5000;0.3875;0.6867;
976.8000;0.3883;0.6818;
977.1000;0.3867;0.6672;
977.4000;0.3923;0.6794;
977.7000;0.3989;0.6940;
978.0000;0.3883;0.6623;
978.3000;0.3883;0.6623;
978.6000;0.3867;0.6623;
978.9000;0.3883;0.6575;
979.2000;0.3899;0.6672;
979.5000;0.3883;0.6672;
979.8000;0.3875;0.6721;
980.1000;0.3867;0.6769;
980.4000;0.3875;0.6769;
980.7000;0.3891;0.6842;
981.0000;0.3883;0.6721;
981.3000;0.3875;0.6721;
981.6000;0.3907;0.6818;
981.9000;0.3883;0.6745;
982.2000;0.3858;0.6721;
982.5000;0.3867;0.6769;
982.8000;0.3875;0.6696;
983.1000;0.3875;0.6696;
983.4000;0.3867;0.6769;
983.7000;0.3858;0.6721;
984.0000;0.3875;0.6721;
984.3000;0.3858;0.6599;
984.6000;0.3875;0.6672;
984.9000;0.3867;0.6648;
985.2000;0.3867;0.6745;
985.5000;0.3858;0.6745;
985.8000;0.3867;0.6721;
986.1000;0.3875;0.6745;
986.4000;0.3858;0.6794;
986.7000;0.3875;0.6818;
987.0000;0.3883;0.6842;
987.3000;0.3883;0.6867;
987.6000;0.3842;0.6623;
987.9000;0.3858;0.6672;
988.2000;0.3883;0.6745;
988.5000;0.3875;0.6745;
988.8000;0.3858;0.6794;
989.1000;0.3834;0.6842;
989.4000;0.3850;0.6842;
989.7000;0.3907;0.6891;
990.0000;0.3875;0.6842;
990.3000;0.3875;0.6867;
990.6000;0.3850;0.6745;
990.9000;0.3858;0.6672;
991.2000;0.3883;0.6623;
991.5000;0.3907;0.6891;
991.8000;0.3858;0.6696;
992.1000;0.3875;0.6623;
992.4000;0.3858;0.6599;
992.7000;0.3883;0.6599;
993.0000;0.3875;0.6526;
993.3000;0.3891;0.6721;
993.6000;0.3875;0.6745;
993.9000;0.3858;0.6745;
994.2000;0.3858;0.6745;
994.5000;0.3875;0.6721;
994.8000;0.3891;0.6769;
995.1000;0.3875;0.6721;
995.4000;0.3785;0.6526;
995.7000;0.3867;0.6696;
996.0000;0.3867;0.6672;
996.3000;0.3834;0.6526;
996.6000;0.3891;0.6745;
996.9000;0.3875;0.6696;
997.2000;0.3875;0.6818;
997.5000;0.3858;0.6696;
997.8000;0.3875;0.6721;
998.1000;0.3867;0.6623;
998.4000;0.3858;0.6623;
998.7000;0.3850;0.6550;
999.0000;0.3858;0.6526;
999.3000;0.3867;0.6599;
999.6000;0.3867;0.6599;
999.9000;0.3858;0.6648;
1000.2000;0.3867;0.6745;
1000.5000;0.3818;0.6672;
1000.8000;0.3948;0.6964;
1001.1000;0.3875;0.6794;
1001.4000;0.3875;0.6818;
1001.7000;0.3875;0.6818;
1002.0000;0.3875;0.6818;
1002.3000;0.3891;0.6696;
1002.6000;0.3891;0.6672;
1002.9000;0.3867;0.6575;
1003.2000;0.3867;0.6648;
1003.5000;0.3875;0.6599;
1003.8000;0.3883;0.6526;
1004.1000;0.3867;0.6550;
1004.4000;0.3875;0.6575;
1004.7000;0.3858;0.6575;
1005.0000;0.3867;0.6501;
1005.3000;0.3858;0.6550;
1005.6000;0.3867;0.6526;
1005.9000;0.3850;0.6501;
1006.2000;0.3867;0.6575;
1006.5000;0.3875;0.6575;
1006.8000;0.3834;0.6526;
1007.1000;0.3867;0.6575;
1007.4000;0.3883;0.6623;
1007.7000;0.3867;0.6599;
1008.0000;0.3858;0.6623;
1008.3000;0.3875;0.6696;
1008.6000;0.3875;0.6696;
1008.9000;0.3875;0.6672;
1009.2000;0.3867;0.6696;
1009.5000;0.3858;0.6745;
1009.8000;0.3858;0.6794;
1010.1000;0.3932;0.6964;
1010.4000;0.3867;0.6794;
1010.7000;0.3850;0.6672;
1011.0000;0.3875;0.6672;
1011.3000;0.3842;0.6526;
1011.6000;0.3875;0.6648;
1011.9000;0.3858;0.6696;
1012.2000;0.3883;0.6672;
1012.5000;0.3867;0.6721;
1012.8000;0.3875;0.6672;
1013.1000;0.3867;0.6672;
1013.4000;0.3875;0.6550;
1013.7000;0.3891;0.6599;
1014.0000;0.3883;0.6623;
1014.3000;0.3858;0.6575;
1014.6000;0.3858;0.6526;
1014.9000;0.3915;0.6648;
1015.2000;0.3858;0.6623;
1015.5000;0.3858;0.6696;
1015.8000;0.3915;0.6842;
1016.1000;0.3883;0.6867;
1016.4000;0.3891;0.6940;
1016.7000;0.3891;0.6867;
1017.0000;0.3883;0.6794;
1017.3000;0.3883;0.6769;
1017.6000;0.3891;0.6891;
1017.9000;0.3883;0.6769;
1018.2000;0.3867;0.6769;
1018.5000;0.3883;0.6769;
1018.8000;0.3875;0.6794;
1019.1000;0.3883;0.6842;
1019.4000;0.3858;0.6769;
1019.7000;0.3850;0.6794;
1020.0000;0.3858;0.6721;
1020.3000;0.3875;0.6842;
1020.6000;0.3867;0.6842;
1020.9000;0.3858;0.6842;
1021.2000;0.3858;0.6794;
1021.5000;0.3883;0.6867;
1021.8000;0.3875;0.6891;
1022.1000;0.3867;0.6842;
1022.4000;0.3923;0.6964;
1022.7000;0.3875;0.6891;
1023.0000;0.3858;0.6842;
1023.3000;0.3875;0.6891;
1023.6000;0.3867;0.6867;
1023.9000;0.3875;0.6891;
1024.2000;0.3867;0.6940;
1024.5000;0.3810;0.6672;
1024.8000;0.3883;0.6818;
1025.1000;0.3891;0.6818;
1025.4000;0.3891;0.6818;
1025.7000;0.3858;0.6818;
1026.0000;0.3867;0.6915;
1026.3000;0.3867;0.6891;
1026.6000;0.3883;0.6842;
1026.9000;0.3891;0.6818;
1027.2000;0.3875;0.6745;
1027.5000;0.3875;0.6648;
1027.8000;0.3875;0.6623;
1028.1000;0.3875;0.6623;
1028.4000;0.3842;0.6575;
1028.7000;0.3883;0.6721;
1029.0000;0.3883;0.6721;
1029.3000;0.3899;0.6842;
1029.6000;0.3867;0.6769;
1029.9000;0.3850;0.6745;
1030.2000;0.3883;0.6745;
1030.5000;0.3875;0.6794;
1030.8000;0.3858;0.6794;
1031.1000;0.3858;0.6696;
1031.4000;0.3858;0.6623;
1031.7000;0.3858;0.6526;
1032.0000;0.3858;0.6501;
1032.3000;0.3834;0.6428;
1032.6000;0.3867;0.6501;
1032.9000;0.3883;0.6526;
1033.2000;0.3777;0.6209;
1033.5000;0.3867;0.6404;
1033.8000;0.3850;0.6453;
1034.1000;0.3875;0.6428;
1034.4000;0.3891;0.6453;
1034.7000;0.3923;0.6599;
1035.0000;0.3875;0.6453;
1035.3000;0.3867;0.6477;
1035.6000;0.3842;0.6477;
1035.9000;0.3858;0.6575;
1036.2000;0.3867;0.6648;
1036.5000;0.3875;0.6623;
1036.8000;0.3875;0.6623;
1037.1000;0.3883;0.6648;
1037.4000;0.3842;0.6477;
1037.7000;0.3907;0.6575;
1038.0000;0.3858;0.6453;
1038.3000;0.3850;0.6428;
1038.6000;0.3875;0.6428;
1038.9000;0.3940;0.6477;
1039.2000;0.3891;0.6355;
1039.5000;0.3858;0.6355;
1039.8000;0.3867;0.6355;
1040.1000;0.3867;0.6404;
1040.4000;0.3793;0.6331;
1040.7000;0.3875;0.6648;
1041.0000;0.3875;0.6623;
1041.3000;0.3858;0.6526;
1041.6000;0.3891;0.6550;
1041.9000;0.3801;0.6501;
1042.2000;0.3883;0.6721;
1042.5000;0.3858;0.6599;
1042.8000;0.3923;0.6769;
1043.1000;0.3875;0.6745;
1043.4000;0.3932;0.6915;
1043.7000;0.3875;0.6745;
1044.0000;0.3875;0.6672;
1044.3000;0.3842;0.6501;
1044.6000;0.3875;0.6575;
1044.9000;0.3883;0.6526;
1045.2000;0.3850;0.6453;
1045.5000;0.3801;0.6380;
1045.8000;0.3867;0.6550;
1046.1000;0.3883;0.6501;
1046.4000;0.3858;0.6526;
1046.7000;0.3883;0.6575;
1047.0000;0.3858;0.6599;
1047.3000;0.3858;0.6623;
1047.6000;0.3867;0.6648;
1047.9000;0.3858;0.6745;
1048.2000;0.3875;0.6745;
1048.5000;0.3932;0.6891;
1048.8000;0.3842;0.6623;
1049.1000;0.3850;0.6696;
1049.4000;0.3875;0.6818;
1049.7000;0.3858;0.6794;
1050.0000;0.3867;0.6842;
1050.3000;0.3891;0.6915;
1050.6000;0.3850;0.6769;
1050.9000;0.3858;0.6769;
1051.2000;0.3883;0.6818;
1051.5000;0.3899;0.6769;
1051.8000;0.3875;0.6648;
1052.1000;0.3867;0.6648;
1052.4000;0.3867;0.6623;
1052.7000;0.3875;0.6672;
1053.0000;0.3883;0.6623;
1053.3000;0.3867;0.6623;
1053.6000;0.3858;0.6575;
1053.9000;0.3891;0.6696;
1054.2000;0.3867;0.6648;
1054.5000;0.3867;0.6672;
1054.8000;0.3867;0.6672;
1055.1000;0.3842;0.6599;
1055.4000;0.3858;0.6623;
1055.7000;0.3858;0.6575;
1056.0000;0.3867;0.6696;
1056.3000;0.3850;0.6696;
1056.6000;0.3899;0.6818;
1056.9000;0.3867;0.6648;
1057.2000;0.3858;0.6550;
1057.5000;0.3867;0.6575;
1057.8000;0.3875;0.6623;
1058.1000;0.3858;0.6575;
1058.4000;0.3858;0.6599;
1058.7000;0.3875;0.6623;
1059.0000;0.3883;0.6745;
1059.3000;0.3858;0.6745;
1059.6000;0.3891;0.6769;
1059.9000;0.3875;0.6721;
1060.2000;0.3883;0.6769;
1060.5000;0.3875;0.6721;
1060.8000;0.3867;0.6623;
1061.1000;0.3875;0.6623;
1061.4000;0.3826;0.6477;
1061.7000;0.3867;0.6672;
1062.0000;0.3858;0.6648;
1062.3000;0.3875;0.6696;
1062.6000;0.3850;0.6672;
1062.9000;0.3875;0.6794;
1063.2000;0.3867;0.6867;
1063.5000;0.3858;0.6891;
1063.8000;0.3907;0.6940;
1064.1000;0.3858;0.6915;
1064.4000;0.3875;0.6988;
1064.7000;0.3858;0.6891;
1065.0000;0.3907;0.6988;
1065.3000;0.3899;0.6988;
1065.6000;0.3834;0.6818;
1065.9000;0.3850;0.6818;
1066.2000;0.3850;0.6794;
1066.5000;0.3875;0.6867;
1066.8000;0.3899;0.6818;
1067.1000;0.3850;0.6696;
1067.4000;0.3875;0.6648;
1067.7000;0.3858;0.6648;
1068.0000;0.3923;0.6794;
1068.3000;0.3875;0.6721;
1068.6000;0.3883;0.6818;
1068.9000;0.3915;0.6891;
1069.2000;0.3883;0.6915;
1069.5000;0.3907;0.7013;
1069.8000;0.3883;0.6891;
1070.1000;0.3867;0.6891;
1070.4000;0.3932;0.6964;
1070.7000;0.3850;0.6672;
1071.0000;0.3850;0.6623;
1071.3000;0.3891;0.6648;
1071.6000;0.3867;0.6477;
1071.9000;0.3875;0.6575;
1072.2000;0.3867;0.6648;
1072.5000;0.3883;0.6623;
1072.8000;0.3867;0.6550;
1073.1000;0.3875;0.6623;
1073.4000;0.3875;0.6550;
1073.7000;0.3891;0.6745;
1074.0000;0.3883;0.6745;
1074.3000;0.3834;0.6648;
1074.6000;0.3875;0.6623;
1074.9000;0.3891;0.6599;
1075.2000;0.3899;0.6526;
1075.5000;0.3850;0.6404;
1075.8000;0.3858;0.6453;
1076.1000;0.3858;0.6453;
1076.4000;0.3867;0.6550;
1076.7000;0.3867;0.6575;
1077.0000;0.3850;0.6550;
1077.3000;0.3867;0.6550;
1077.6000;0.3818;0.6404;
1077.9000;0.3875;0.6526;
1078.2000;0.3875;0.6599;
1078.5000;0.3842;0.6477;
1078.8000;0.3867;0.6575;
1079.1000;0.3883;0.6575;
1079.4000;0.3875;0.6599;
1079.7000;0.3858;0.6623;
1080.0000;0.3932;0.6867;
1080.3000;0.3883;0.6769;
1080.6000;0.3883;0.6818;
1080.9000;0.3875;0.6818;
1081.2000;0.3875;0.6842;
1081.5000;0.3867;0.6794;
1081.8000;0.3883;0.6721;
1082.1000;0.3858;0.6721;
1082.4000;0.3867;0.6745;
1082.7000;0.3883;0.6745;
1083.0000;0.3891;0.6672;
1083.3000;0.3915;0.6696;
1083.6000;0.3867;0.6672;
1083.9000;0.3899;0.6648;
1084.2000;0.3883;0.6623;
1084.5000;0.3891;0.6721;
1084.8000;0.3875;0.6721;
1085.1000;0.3891;0.6745;
1085.4000;0.3883;0.6721;
1085.7000;0.3842;0.6672;
1086.0000;0.3867;0.6672;
1086.3000;0.3875;0.6648;
1086.6000;0.3891;0.6648;
1086.9000;0.3875;0.6550;
1087.2000;0.3867;0.6575;
1087.5000;0.3899;0.6721;
1087.8000;0.3883;0.6745;
1088.1000;0.3891;0.6842;
1088.4000;0.3964;0.6940;
1088.7000;0.3875;0.6721;
1089.0000;0.3875;0.6769;
1089.3000;0.3883;0.6769;
1089.6000;0.3875;0.6721;
1089.9000;0.3867;0.6648;
1090.2000;0.3801;0.6526;
1090.5000;0.3899;0.6745;
1090.8000;0.3858;0.6599;
1091.1000;0.3858;0.6599;
1091.4000;0.3850;0.6526;
1091.7000;0.3875;0.6575;
1092.0000;0.3850;0.6453;
1092.3000;0.3956;0.6721;
1092.6000;0.3867;0.6575;
1092.9000;0.3875;0.6648;
1093.2000;0.3875;0.6672;
1093.5000;0.3842;0.6575;
1093.8000;0.3867;0.6696;
1094.1000;0.3891;0.6745;
1094.4000;0.3883;0.6745;
1094.7000;0.3867;0.6696;
1095.0000;0.3891;0.6769;
1095.3000;0.3907;0.6818;
1095.6000;0.3858;0.6842;
1095.9000;0.3875;0.6842;
1096.2000;0.3867;0.6818;
1096.5000;0.3875;0.6745;
1096.8000;0.3875;0.6721;
1097.1000;0.3883;0.6769;
1097.4000;0.3858;0.6623;
1097.7000;0.3867;0.6599;
1098.0000;0.3891;0.6623;
1098.3000;0.3883;0.6648;
1098.6000;0.3858;0.6501;
1098.9000;0.3867;0.6477;
1099.2000;0.3850;0.6550;
1099.5000;0.3923;0.6745;
1099.8000;0.3867;0.6599;
1100.1000;0.3867;0.6575;
1100.4000;0.3875;0.6672;
1100.7000;0.3818;0.6526;
1101.0000;0.3867;0.6648;
1101.3000;0.3850;0.6599;
1101.6000;0.3858;0.6696;
1101.9000;0.3867;0.6672;
1102.2000;0.3858;0.6672;
1102.5000;0.3858;0.6599;
1102.8000;0.3858;0.6599;
1103.1000;0.3875;0.6623;
1103.4000;0.3867;0.6599;
1103.7000;0.3875;0.6575;
1104.0000;0.3842;0.6575;
1104.3000;0.3867;0.6672;
1104.6000;0.3850;0.6526;
1104.9000;0.3867;0.6501;
1105.2000;0.3875;0.6477;
1105.5000;0.3899;0.6550;
1105.8000;0.3867;0.6501;
1106.1000;0.3858;0.6599;
1106.4000;0.3899;0.6623;
1106.7000;0.3850;0.6477;
1107.0000;0.3875;0.6575;
1107.3000;0.3850;0.6477;
1107.6000;0.3850;0.6428;
1107.9000;0.3923;0.6623;
1108.2000;0.3875;0.6550;
1108.5000;0.3883;0.6623;
1108.8000;0.3875;0.6599;
1109.1000;0.3883;0.6501;
1109.4000;0.3899;0.6623;
1109.7000;0.3875;0.6550;
1110.0000;0.3875;0.6550;
1110.3000;0.3858;0.6550;
1110.6000;0.3867;0.6599;
1110.9000;0.3883;0.6672;
1111.2000;0.3883;0.6623;
1111.5000;0.3875;0.6599;
1111.8000;0.3867;0.6648;
1112.1000;0.3891;0.6696;
1112.4000;0.3875;0.6696;
1112.7000;0.3858;0.6575;
1113.0000;0.3875;0.6550;
1113.3000;0.3883;0.6526;
1113.6000;0.3858;0.6477;
1113.9000;0.3858;0.6575;
1114.2000;0.3867;0.6599;
1114.5000;0.3875;0.6696;
1114.8000;0.3907;0.6696;
1115.1000;0.3867;0.6623;
1115.4000;0.3867;0.6696;
1115.7000;0.3867;0.6648;
1116.0000;0.3867;0.6745;
1116.3000;0.3891;0.6794;
1116.6000;0.3875;0.6672;
1116.9000;0.3867;0.6672;
1117.2000;0.3875;0.6696;
1117.5000;0.3793;0.6307;
1117.8000;0.3801;0.6380;
1118.1000;0.3875;0.6575;
1118.4000;0.3867;0.6550;
1118.7000;0.3891;0.6501;
1119.0000;0.3883;0.6526;
1119.3000;0.3867;0.6453;
1119.6000;0.3883;0.6550;
1119.9000;0.3867;0.6550;
1120.2000;0.3875;0.6501;
1120.5000;0.3867;0.6404;
1120.8000;0.3899;0.6453;
1121.1000;0.3867;0.6404;
1121.4000;0.3867;0.6355;
1121.7000;0.3850;0.6307;
1122.0000;0.3867;0.6355;
1122.3000;0.3858;0.6404;
1122.6000;0.3850;0.6477;
1122.9000;0.3867;0.6575;
1123.2000;0.3858;0.6623;
1123.5000;0.3858;0.6575;
1123.8000;0.3867;0.6599;
1124.1000;0.3875;0.6769;
1124.4000;0.3858;0.6721;
1124.7000;0.3850;0.6721;
1125.0000;0.3875;0.6769;
1125.3000;0.3850;0.6769;
1125.6000;0.3858;0.6818;
1125.9000;0.3883;0.6818;
1126.2000;0.3793;0.6648;
1126.5000;0.3867;0.6745;
1126.8000;0.3858;0.6696;
1127.1000;0.3858;0.6648;
1127.4000;0.3858;0.6721;
1127.7000;0.3858;0.6721;
1128.0000;0.3858;0.6769;
1128.3000;0.3867;0.6794;
1128.6000;0.3875;0.6867;
1128.9000;0.3875;0.6818;
1129.2000;0.3915;0.6867;
1129.5000;0.3883;0.6721;
1129.8000;0.3891;0.6672;
1130.1000;0.3867;0.6623;
1130.4000;0.3858;0.6575;
1130.7000;0.3883;0.6648;
1131.0000;0.3883;0.6721;
1131.3000;0.3875;0.6672;
1131.6000;0.3875;0.6623;
1131.9000;0.3875;0.6599;
1132.2000;0.3875;0.6550;
1132.5000;0.3867;0.6550;
1132.8000;0.3858;0.6501;
1133.1000;0.3867;0.6599;
1133.4000;0.3801;0.6477;
1133.7000;0.3850;0.6721;
1134.0000;0.3858;0.6745;
1134.3000;0.3842;0.6696;
1134.6000;0.3858;0.6550;
1134.9000;0.3883;0.6672;
1135.2000;0.3867;0.6672;
1135.5000;0.3867;0.6623;
1135.8000;0.3875;0.6623;
1136.1000;0.3875;0.6623;
1136.4000;0.3923;0.6867;
1136.7000;0.3858;0.6672;
1137.0000;0.3842;0.6623;
1137.3000;0.3858;0.6745;
1137.6000;0.3858;0.6672;
1137.9000;0.3867;0.6794;
1138.2000;0.3785;0.6648;
1138.5000;0.3867;0.6891;
1138.8000;0.3875;0.6842;
1139.1000;0.3875;0.6891;
1139.4000;0.3858;0.6745;
1139.7000;0.3891;0.6794;
1140.0000;0.3875;0.6769;
1140.3000;0.3875;0.6794;
1140.6000;0.3850;0.6769;
1140.9000;0.3875;0.6721;
1141.2000;0.3875;0.6696;
1141.5000;0.3769;0.6404;
1141.8000;0.3867;0.6769;
1142.1000;0.3875;0.6745;
1142.4000;0.3867;0.6648;
1142.7000;0.3858;0.6696;
1143.0000;0.3867;0.6696;
1143.3000;0.3850;0.6599;
1143.6000;0.3867;0.6672;
1143.9000;0.3842;0.6648;
1144.2000;0.3891;0.6769;
1144.5000;0.3867;0.6623;
1144.8000;0.3891;0.6672;
1145.1000;0.3858;0.6575;
1145.4000;0.3867;0.6599;
1145.7000;0.3769;0.6234;
1146.0000;0.3858;0.6501;
1146.3000;0.3907;0.6672;
1146.6000;0.3867;0.6575;
1146.9000;0.3858;0.6599;
1147.2000;0.3867;0.6696;
1147.5000;0.3867;0.6794;
1147.8000;0.3883;0.6769;
1148.1000;0.3793;0.6477;
1148.4000;0.3858;0.6648;
1148.7000;0.3883;0.6648;
1149.0000;0.3867;0.6599;
1149.3000;0.3891;0.6599;
1149.6000;0.3867;0.6550;
1149.9000;0.3858;0.6453;
1150.2000;0.3875;0.6477;
1150.5000;0.3858;0.6453;
1150.8000;0.3858;0.6550;
1151.1000;0.3867;0.6575;
1151.4000;0.3875;0.6526;
1151.7000;0.3826;0.6404;
1152.0000;0.3867;0.6428;
1152.3000;0.3850;0.6453;
1152.6000;0.3858;0.6550;
1152.9000;0.3858;0.6599;
1153.2000;0.3785;0.6404;
1153.5000;0.3842;0.6599;
1153.8000;0.3858;0.6672;
1154.1000;0.3867;0.6696;
1154.4000;0.3842;0.6599;
1154.7000;0.3867;0.6721;
1155.0000;0.3867;0.6769;
1155.3000;0.3891;0.6769;
1155.6000;0.3867;0.6672;
1155.9000;0.3875;0.6672;
1156.2000;0.3875;0.6623;
1156.5000;0.3875;0.6672;
1156.8000;0.3891;0.6745;
1157.1000;0.3883;0.6794;
1157.4000;0.3842;0.6623;
1157.7000;0.3883;0.6575;
1158.0000;0.3867;0.6575;
1158.3000;0.3867;0.6550;
1158.6000;0.3850;0.6526;
1158.9000;0.3907;0.6575;
1159.2000;0.3858;0.6453;
1159.5000;0.3801;0.6355;
1159.8000;0.3875;0.6477;
1160.1000;0.3867;0.6428;
1160.4000;0.3858;0.6428;
1160.7000;0.3883;0.6355;
1161.0000;0.3842;0.6282;
1161.3000;0.3875;0.6331;
1161.6000;0.3883;0.6453;
1161.9000;0.3883;0.6453;
1162.2000;0.3875;0.6477;
1162.5000;0.3801;0.6307;
1162.8000;0.3858;0.6575;
1163.1000;0.3858;0.6648;
1163.4000;0.3867;0.6696;
1163.7000;0.3883;0.6648;
1164.0000;0.3850;0.6648;
1164.3000;0.3777;0.6404;
1164.6000;0.3883;0.6672;
1164.9000;0.3907;0.6794;
1165.2000;0.3875;0.6769;
1165.5000;0.3875;0.6818;
1165.8000;0.3883;0.6818;
1166.1000;0.3842;0.6721;
1166.4000;0.3875;0.6818;
1166.7000;0.3850;0.6745;
1167.0000;0.3867;0.6745;
1167.3000;0.3867;0.6648;
1167.6000;0.3810;0.6550;
1167.9000;0.3891;0.6769;
1168.2000;0.3875;0.6696;
1168.5000;0.3850;0.6696;
1168.8000;0.3907;0.6867;
1169.1000;0.3858;0.6696;
1169.4000;0.3875;0.6769;
1169.7000;0.3867;0.6769;
1170.0000;0.3858;0.6696;
1170.3000;0.3875;0.6648;
1170.6000;0.3858;0.6672;
1170.9000;0.3883;0.6672;
1171.2000;0.3867;0.6721;
1171.5000;0.3867;0.6745;
1171.8000;0.3891;0.6818;
1172.1000;0.3850;0.6623;
1172.4000;0.3875;0.6648;
1172.7000;0.3867;0.6623;
1173.0000;0.3867;0.6599;
1173.3000;0.3875;0.6575;
1173.6000;0.3875;0.6526;
1173.9000;0.3858;0.6428;
1174.2000;0.3858;0.6453;
1174.5000;0.3875;0.6550;
1174.8000;0.3858;0.6550;
1175.1000;0.3932;0.6721;
1175.4000;0.3867;0.6526;
1175.7000;0.3867;0.6575;
1176.0000;0.3875;0.6550;
1176.3000;0.3899;0.6550;
1176.6000;0.3932;0.6648;
1176.9000;0.3899;0.6623;
1177.2000;0.3883;0.6550;
1177.5000;0.3867;0.6623;
1177.8000;0.3875;0.6648;
1178.1000;0.3801;0.6404;
1178.4000;0.3867;0.6453;
1178.7000;0.3850;0.6404;
1179.0000;0.3850;0.6331;
1179.3000;0.3907;0.6477;
1179.6000;0.3875;0.6550;
1179.9000;0.3875;0.6575;
1180.2000;0.3867;0.6575;
1180.5000;0.3850;0.6477;
1180.8000;0.3867;0.6550;
1181.1000;0.3883;0.6696;
1181.4000;0.3867;0.6672;
1181.7000;0.3867;0.6550;
1182.0000;0.3867;0.6526;
1182.3000;0.3891;0.6672;
1182.6000;0.3875;0.6575;
1182.9000;0.3834;0.6453;
1183.2000;0.3826;0.6477;
1183.5000;0.3875;0.6672;
1183.8000;0.3867;0.6623;
1184.1000;0.3761;0.6331;
1184.4000;0.3883;0.6672;
1184.7000;0.3850;0.6599;
1185.0000;0.3883;0.6721;
1185.3000;0.3858;0.6745;
1185.6000;0.3915;0.6940;
1185.9000;0.3875;0.6794;
1186.2000;0.3858;0.6769;
1186.5000;0.3810;0.6575;
1186.8000;0.3858;0.6721;
1187.1000;0.3867;0.6721;
1187.4000;0.3834;0.6623;
1187.7000;0.3858;0.6696;
1188.0000;0.3883;0.6672;
1188.3000;0.3858;0.6550;
1188.6000;0.3867;0.6623;
1188.9000;0.3875;0.6550;
1189.2000;0.3850;0.6550;
1189.5000;0.3858;0.6575;
1189.8000;0.3875;0.6672;
1190.1000;0.3858;0.6648;
1190.4000;0.3940;0.6794;
1190.7000;0.3850;0.6575;
1191.0000;0.3875;0.6623;
1191.3000;0.3867;0.6623;
1191.6000;0.3867;0.6575;
1191.9000;0.3867;0.6599;
1192.2000;0.3883;0.6599;
1192.5000;0.3867;0.6526;
1192.8000;0.3850;0.6477;
1193.1000;0.3867;0.6453;
1193.4000;0.3867;0.6428;
1193.7000;0.3907;0.6501;
1194.0000;0.3867;0.6428;
1194.3000;0.3858;0.6501;
1194.6000;0.3867;0.6575;
1194.9000;0.3875;0.6575;
1195.2000;0.3850;0.6550;
1195.5000;0.3858;0.6477;
1195.8000;0.3858;0.6477;
1196.1000;0.3867;0.6477;
1196.4000;0.3850;0.6575;
1196.7000;0.3858;0.6648;
1197.0000;0.3858;0.6672;
1197.3000;0.3858;0.6696;
1197.6000;0.3858;0.6648;
1197.9000;0.3867;0.6721;
1198.2000;0.3875;0.6696;
1198.5000;0.3850;0.6648;
1198.8000;0.3858;0.6648;
1199.1000;0.3834;0.6477;
1199.4000;0.3858;0.6550;
1199.7000;0.3842;0.6575;
1200.0000;0.3867;0.6575;
1200.3000;0.3867;0.6623;
1200.6000;0.3842;0.6550;
1200.9000;0.3858;0.6575;
1201.2000;0.3883;0.6575;
1201.5000;0.3867;0.6526;
1201.8000;0.3891;0.6550;
1202.1000;0.3915;0.6623;
1202.4000;0.3883;0.6550;
1202.7000;0.3891;0.6599;
1203.0000;0.3899;0.6648;
1203.3000;0.3834;0.6477;
1203.6000;0.3867;0.6526;
1203.9000;0.3858;0.6526;
1204.2000;0.3858;0.6477;
1204.5000;0.3948;0.6672;
1204.8000;0.3867;0.6453;
1205.1000;0.3867;0.6453;
1205.4000;0.3801;0.6307;
1205.7000;0.3867;0.6404;
1206.0000;0.3826;0.6307;
1206.3000;0.3834;0.6404;
1206.6000;0.3899;0.6623;
1206.9000;0.3867;0.6575;
1207.2000;0.3850;0.6550;
1207.5000;0.3867;0.6599;
1207.8000;0.3867;0.6526;
1208.1000;0.3875;0.6526;
1208.4000;0.3867;0.6477;
1208.7000;0.3850;0.6477;
1209.0000;0.3875;0.6550;
1209.3000;0.3989;0.6818;
1209.6000;0.3850;0.6550;
1209.9000;0.3858;0.6550;
1210.2000;0.3858;0.6501;
1210.5000;0.3907;0.6550;
1210.8000;0.3850;0.6526;
1211.1000;0.3858;0.6599;
1211.4000;0.3875;0.6575;
1211.7000;0.3850;0.6404;
1212.0000;0.3867;0.6355;
1212.3000;0.3785;0.6112;
1212.6000;0.3875;0.6331;
1212.9000;0.3891;0.6258;
1213.2000;0.3867;0.6258;
1213.5000;0.3932;0.6404;
1213.8000;0.3875;0.6282;
1214.1000;0.3858;0.6331;
1214.4000;0.3875;0.6331;
1214.7000;0.3858;0.6331;
1215.0000;0.3858;0.6331;
1215.3000;0.3858;0.6331;
1215.6000;0.3867;0.6380;
1215.9000;0.3883;0.6477;
1216.2000;0.3842;0.6477;
1216.5000;0.3875;0.6575;
1216.8000;0.3875;0.6599;
1217.1000;0.3891;0.6648;
1217.4000;0.3867;0.6550;
1217.7000;0.3875;0.6550;
1218.0000;0.3858;0.6599;
1218.3000;0.3883;0.6672;
1218.6000;0.3875;0.6672;
1218.9000;0.3858;0.6648;
1219.2000;0.3810;0.6575;
1219.5000;0.3850;0.6721;
1219.8000;0.3858;0.6745;
1220.1000;0.3883;0.6769;
1220.4000;0.3883;0.6745;
1220.7000;0.3875;0.6745;
1221.0000;0.3858;0.6623;
1221.3000;0.3818;0.6575;
1221.6000;0.3883;0.6769;
1221.9000;0.3850;0.6623;
1222.2000;0.3761;0.6380;
1222.5000;0.3826;0.6477;
1222.8000;0.3867;0.6501;
1223.1000;0.3858;0.6526;
1223.4000;0.3842;0.6550;
1223.7000;0.3801;0.6453;
1224.0000;0.3883;0.6477;
1224.3000;0.3867;0.6453;
1224.6000;0.3858;0.6404;
1224.9000;0.3867;0.6477;
1225.2000;0.3867;0.6477;
1225.5000;0.3850;0.6477;
1225.8000;0.3867;0.6550;
1226.1000;0.3883;0.6599;
1226.4000;0.3810;0.6575;
1226.7000;0.3867;0.6672;
1227.0000;0.3842;0.6550;
1227.3000;0.3891;0.6648;
1227.6000;0.3867;0.6575;
1227.9000;0.3940;0.6721;
1228.2000;0.3875;0.6575;
1228.5000;0.3932;0.6769;
1228.8000;0.3867;0.6550;
1229.1000;0.3867;0.6599;
1229.4000;0.3915;0.6794;
1229.7000;0.3858;0.6672;
1230.0000;0.3875;0.6696;
1230.3000;0.3907;0.6745;
1230.6000;0.3867;0.6696;
1230.9000;0.3875;0.6696;
1231.2000;0.3883;0.6648;
1231.5000;0.3867;0.6599;
1231.8000;0.3883;0.6623;
1232.1000;0.3867;0.6648;
1232.4000;0.3867;0.6599;
1232.7000;0.3850;0.6501;
1233.0000;0.3850;0.6501;
1233.3000;0.3858;0.6526;
1233.6000;0.3842;0.6404;
1233.9000;0.3842;0.6501;
1234.2000;0.3858;0.6526;
1234.5000;0.3810;0.6380;
1234.8000;0.3867;0.6599;
1235.1000;0.3842;0.6599;
1235.4000;0.3875;0.6550;
1235.7000;0.3818;0.6331;
1236.0000;0.3850;0.6428;
1236.3000;0.3858;0.6404;
1236.6000;0.3867;0.6404;
1236.9000;0.3858;0.6355;
1237.2000;0.3875;0.6404;
1237.5000;0.3891;0.6380;
1237.8000;0.3875;0.6331;
1238.1000;0.3867;0.6355;
1238.4000;0.3867;0.6380;
1238.7000;0.3915;0.6477;
1239.0000;0.3867;0.6258;
1239.3000;0.3867;0.6185;
1239.6000;0.3875;0.6234;
1239.9000;0.3867;0.6234;
1240.2000;0.3810;0.6136;
1240.5000;0.3858;0.6234;
1240.8000;0.3891;0.6404;
1241.1000;0.3818;0.6282;
1241.4000;0.3875;0.6501;
1241.7000;0.3875;0.6501;
1242.0000;0.3891;0.6599;
1242.3000;0.3850;0.6501;
1242.6000;0.3867;0.6526;
1242.9000;0.3826;0.6428;
1243.2000;0.3883;0.6575;
1243.5000;0.3867;0.6501;
1243.8000;0.3850;0.6404;
1244.1000;0.3842;0.6404;
1244.4000;0.3858;0.6453;
1244.7000;0.3875;0.6477;
1245.0000;0.3875;0.6550;
1245.3000;0.3842;0.6428;
1245.6000;0.3899;0.6526;
1245.9000;0.3891;0.6526;
1246.2000;0.3867;0.6575;
1246.5000;0.3915;0.6672;
1246.8000;0.3867;0.6721;
1247.1000;0.3883;0.6745;
1247.4000;0.3867;0.6672;
1247.7000;0.3883;0.6648;
1248.0000;0.3858;0.6550;
1248.3000;0.3867;0.6599;
1248.6000;0.3842;0.6550;
1248.9000;0.3907;0.6623;
1249.2000;0.3850;0.6550;
1249.5000;0.3875;0.6623;
1249.8000;0.3883;0.6623;
1250.1000;0.3948;0.6721;
1250.4000;0.3867;0.6526;
1250.7000;0.3875;0.6526;
1251.0000;0.3875;0.6477;
1251.3000;0.3867;0.6404;
1251.6000;0.3867;0.6428;
1251.9000;0.3867;0.6380;
1252.2000;0.3867;0.6526;
1252.5000;0.3858;0.6477;
1252.8000;0.3875;0.6575;
1253.1000;0.3875;0.6672;
1253.4000;0.3867;0.6648;
1253.7000;0.3867;0.6550;
1254.0000;0.3883;0.6575;
1254.3000;0.3858;0.6599;
1254.6000;0.3858;0.6575;
1254.9000;0.3867;0.6550;
1255.2000;0.3867;0.6575;
1255.5000;0.3867;0.6599;
1255.8000;0.3883;0.6648;
1256.1000;0.3850;0.6453;
1256.4000;0.3850;0.6428;
1256.7000;0.3858;0.6428;
1257.0000;0.3850;0.6453;
1257.3000;0.3858;0.6526;
1257.6000;0.3744;0.6331;
1257.9000;0.3850;0.6599;
1258.2000;0.3850;0.6696;
1258.5000;0.3972;0.7037;
1258.8000;0.3867;0.6721;
1259.1000;0.3858;0.6648;
1259.4000;0.3810;0.6453;
1259.7000;0.3867;0.6575;
1260.0000;0.3956;0.6769;
1260.3000;0.3850;0.6477;
1260.6000;0.3850;0.6453;
1260.9000;0.3834;0.6428;
1261.2000;0.3850;0.6453;
1261.5000;0.3875;0.6477;
1261.8000;0.3932;0.6550;
1262.1000;0.3867;0.6453;
1262.4000;0.3875;0.6550;
1262.7000;0.3858;0.6453;
1263.0000;0.3858;0.6477;
1263.3000;0.3858;0.6501;
1263.6000;0.3875;0.6477;
1263.9000;0.3867;0.6550;
1264.2000;0.3875;0.6648;
1264.5000;0.3850;0.6648;
1264.8000;0.3842;0.6721;
1265.1000;0.3883;0.6745;
1265.4000;0.3867;0.6672;
1265.7000;0.3867;0.6648;
1266.0000;0.3858;0.6623;
1266.3000;0.3899;0.6696;
1266.6000;0.3867;0.6648;
1266.9000;0.3850;0.6599;
1267.2000;0.3867;0.6648;
1267.5000;0.3850;0.6648;
1267.8000;0.3826;0.6550;
1268.1000;0.3883;0.6696;
1268.4000;0.3899;0.6818;
1268.7000;0.3940;0.6867;
1269.0000;0.3867;0.6648;
1269.3000;0.3883;0.6721;
1269.6000;0.3858;0.6672;
1269.9000;0.3875;0.6672;
1270.2000;0.3858;0.6648;
1270.5000;0.3842;0.6599;
1270.8000;0.3842;0.6526;
1271.1000;0.3858;0.6648;
1271.4000;0.3850;0.6672;
1271.7000;0.3858;0.6696;
1272.0000;0.3867;0.6696;
1272.3000;0.3850;0.6623;
1272.6000;0.3907;0.6818;
1272.9000;0.3875;0.6721;
1273.2000;0.3858;0.6550;
1273.5000;0.3858;0.6526;
1273.8000;0.3867;0.6623;
1274.1000;0.3850;0.6501;
1274.4000;0.3875;0.6575;
1274.7000;0.3883;0.6501;
1275.0000;0.3858;0.6428;
1275.3000;0.3826;0.6404;
1275.6000;0.3867;0.6453;
1275.9000;0.3883;0.6550;
1276.2000;0.3858;0.6575;
1276.5000;0.3858;0.6550;
1276.8000;0.3858;0.6501;
1277.1000;0.3858;0.6550;
1277.4000;0.3867;0.6526;
1277.7000;0.3875;0.6428;
1278.0000;0.3899;0.6477;
1278.3000;0.3875;0.6526;
1278.6000;0.3818;0.6331;
1278.9000;0.3875;0.6380;
1279.2000;0.3875;0.6428;
1279.5000;0.3875;0.6428;
1279.8000;0.3842;0.6404;
1280.1000;0.3842;0.6477;
1280.4000;0.3850;0.6501;
1280.7000;0.3858;0.6477;
1281.0000;0.3858;0.6526;
1281.3000;0.3850;0.6453;
1281.6000;0.3867;0.6550;
1281.9000;0.3867;0.6575;
1282.2000;0.3842;0.6526;
1282.5000;0.3842;0.6501;
1282.8000;0.3923;0.6745;
1283.1000;0.3858;0.6477;
1283.4000;0.3785;0.6307;
1283.7000;0.3858;0.6526;
1284.0000;0.3915;0.6696;
1284.3000;0.3867;0.6526;
1284.6000;0.3875;0.6575;
1284.9000;0.3858;0.6550;
1285.2000;0.3891;0.6672;
1285.5000;0.3867;0.6672;
1285.8000;0.3858;0.6672;
1286.1000;0.3850;0.6623;
1286.4000;0.3850;0.6599;
1286.7000;0.3867;0.6672;
1287.0000;0.3883;0.6818;
1287.3000;0.3875;0.6867;
1287.6000;0.3858;0.6842;
1287.9000;0.3932;0.6891;
1288.2000;0.3867;0.6696;
1288.5000;0.3883;0.6794;
1288.8000;0.3883;0.6745;
1289.1000;0.3850;0.6550;
1289.4000;0.3875;0.6623;
1289.7000;0.3883;0.6648;
1290.0000;0.3875;0.6575;
1290.3000;0.3891;0.6696;
1290.6000;0.3883;0.6648;
1290.9000;0.3875;0.6526;
1291.2000;0.3858;0.6453;
1291.5000;0.3858;0.6453;
1291.8000;0.3858;0.6428;
1292.1000;0.3875;0.6575;
1292.4000;0.3875;0.6550;
1292.7000;0.3875;0.6526;
1293.0000;0.3875;0.6575;
1293.3000;0.3867;0.6623;
1293.6000;0.3867;0.6648;
1293.9000;0.3899;0.6623;
1294.2000;0.3883;0.6575;
1294.5000;0.3867;0.6526;
1294.8000;0.3875;0.6477;
1295.1000;0.3875;0.6526;
1295.4000;0.3858;0.6477;
1295.7000;0.3858;0.6501;
1296.0000;0.3858;0.6477;
1296.3000;0.3891;0.6526;
1296.6000;0.3842;0.6526;
1296.9000;0.3810;0.6501;
1297.2000;0.3875;0.6526;
1297.5000;0.3826;0.6428;
1297.8000;0.3883;0.6501;
1298.1000;0.3850;0.6355;
1298.4000;0.3891;0.6428;
1298.7000;0.3875;0.6404;
1299.0000;0.3850;0.6355;
1299.3000;0.3850;0.6404;
1299.6000;0.3867;0.6380;
1299.9000;0.3867;0.6380;
1300.2000;0.3834;0.6331;
1300.5000;0.3891;0.6404;
1300.8000;0.3883;0.6355;
1301.1000;0.3875;0.6380;
1301.4000;0.3858;0.6282;
1301.7000;0.3883;0.6380;
1302.0000;0.3850;0.6331;
1302.3000;0.3793;0.6185;
1302.6000;0.3867;0.6380;
1302.9000;0.3842;0.6331;
1303.2000;0.3858;0.6404;
1303.5000;0.3867;0.6404;
1303.8000;0.3867;0.6380;
1304.1000;0.3858;0.6331;
1304.4000;0.3899;0.6453;
1304.7000;0.3875;0.6428;
1305.0000;0.3834;0.6428;
1305.3000;0.3915;0.6696;
1305.6000;0.3761;0.6234;
1305.9000;0.3826;0.6404;
1306.2000;0.3867;0.6477;
1306.5000;0.3858;0.6428;
1306.8000;0.3964;0.6696;
1307.1000;0.3842;0.6428;
1307.4000;0.3858;0.6453;
1307.7000;0.3858;0.6477;
1308.0000;0.3850;0.6307;
1308.3000;0.3867;0.6380;
1308.6000;0.3867;0.6404;
1308.9000;0.3867;0.6380;
1309.2000;0.3883;0.6428;
1309.5000;0.3842;0.6380;
1309.8000;0.3867;0.6453;
1310.1000;0.3858;0.6428;
1310.4000;0.3842;0.6307;
1310.7000;0.3867;0.6331;
1311.0000;0.3875;0.6428;
1311.3000;0.3867;0.6453;
1311.6000;0.3850;0.6380;
1311.9000;0.3842;0.6404;
1312.2000;0.3875;0.6501;
1312.5000;0.3858;0.6428;
1312.8000;0.3932;0.6599;
1313.1000;0.3858;0.6404;
1313.4000;0.3867;0.6428;
1313.7000;0.3858;0.6380;
1314.0000;0.3867;0.6355;
1314.3000;0.3769;0.5990;
1314.6000;0.3858;0.6355;
1314.9000;0.3899;0.6477;
1315.2000;0.3850;0.6477;
1315.5000;0.3883;0.6526;
1315.8000;0.3858;0.6526;
1316.1000;0.3867;0.6526;
1316.4000;0.3899;0.6526;
1316.7000;0.3842;0.6355;
1317.0000;0.3867;0.6428;
1317.3000;0.3899;0.6477;
1317.6000;0.3875;0.6526;
1317.9000;0.3875;0.6550;
1318.2000;0.3875;0.6623;
1318.5000;0.3915;0.6721;
1318.8000;0.3875;0.6599;
1319.1000;0.3883;0.6672;
1319.4000;0.3883;0.6672;
1319.7000;0.3875;0.6648;
1320.0000;0.3842;0.6623;
1320.3000;0.3883;0.6599;
1320.6000;0.3850;0.6526;
1320.9000;0.3867;0.6477;
1321.2000;0.3883;0.6526;
1321.5000;0.3834;0.6404;
1321.8000;0.3858;0.6453;
1322.1000;0.3818;0.6380;
1322.4000;0.3858;0.6380;
1322.7000;0.3850;0.6428;
1323.0000;0.3883;0.6428;
1323.3000;0.3834;0.6307;
1323.6000;0.3875;0.6380;
1323.9000;0.3891;0.6428;
1324.2000;0.3899;0.6428;
1324.5000;0.3850;0.6380;
1324.8000;0.3867;0.6453;
1325.1000;0.3867;0.6428;
1325.4000;0.3785;0.6234;
1325.7000;0.3915;0.6575;
1326.0000;0.3867;0.6575;
1326.3000;0.3842;0.6575;
1326.6000;0.3850;0.6623;
1326.9000;0.3793;0.6404;
1327.2000;0.3867;0.6575;
1327.5000;0.3850;0.6575;
1327.8000;0.3858;0.6599;
1328.1000;0.3850;0.6453;
1328.4000;0.3867;0.6550;
1328.7000;0.3850;0.6526;
1329.0000;0.3858;0.6501;
1329.3000;0.3858;0.6453;
1329.6000;0.3875;0.6599;
1329.9000;0.3858;0.6526;
1330.2000;0.3858;0.6550;
1330.5000;0.3867;0.6648;
1330.8000;0.3867;0.6623;
1331.1000;0.3842;0.6623;
1331.4000;0.3842;0.6526;
1331.7000;0.3867;0.6648;
1332.0000;0.3834;0.6501;
1332.3000;0.3834;0.6501;
1332.6000;0.3850;0.6575;
1332.9000;0.3777;0.6380;
1333.2000;0.3858;0.6648;
1333.5000;0.3867;0.6648;
1333.8000;0.3867;0.6623;
1334.1000;0.3899;0.6648;
1334.4000;0.3867;0.6599;
1334.7000;0.3850;0.6501;
1335.0000;0.3883;0.6575;
1335.3000;0.3867;0.6648;
1335.6000;0.3842;0.6550;
1335.9000;0.3858;0.6501;
1336.2000;0.3818;0.6428;
1336.5000;0.3875;0.6599;
1336.8000;0.3858;0.6599;
1337.1000;0.3867;0.6623;
1337.4000;0.3867;0.6599;
1337.7000;0.3867;0.6599;
1338.0000;0.3883;0.6575;
1338.3000;0.3867;0.6404;
1338.6000;0.3858;0.6355;
1338.9000;0.3891;0.6428;
1339.2000;0.3875;0.6526;
1339.5000;0.3875;0.6575;
1339.8000;0.3867;0.6575;
1340.1000;0.3867;0.6501;
1340.4000;0.3834;0.6501;
1340.7000;0.3875;0.6550;
1341.0000;0.3858;0.6550;
1341.3000;0.3850;0.6550;
1341.6000;0.3834;0.6501;
1341.9000;0.3858;0.6501;
1342.2000;0.3875;0.6550;
1342.5000;0.3867;0.6526;
1342.8000;0.3899;0.6575;
1343.1000;0.3842;0.6380;
1343.4000;0.3858;0.6355;
1343.7000;0.3858;0.6331;
1344.0000;0.3875;0.6380;
1344.3000;0.3858;0.6380;
1344.6000;0.3858;0.6380;
1344.9000;0.3850;0.6404;
1345.2000;0.3875;0.6453;
1345.5000;0.3875;0.6526;
1345.8000;0.3899;0.6575;
1346.1000;0.3875;0.6575;
1346.4000;0.3858;0.6501;
1346.7000;0.3883;0.6404;
1347.0000;0.3867;0.6307;
1347.3000;0.3875;0.6331;
1347.6000;0.3842;0.6307;
1347.9000;0.3867;0.6404;
1348.2000;0.3899;0.6550;
1348.5000;0.3867;0.6404;
1348.8000;0.3883;0.6331;
1349.1000;0.3858;0.6209;
1349.4000;0.3867;0.6136;
1349.7000;0.3834;0.6185;
1350.0000;0.3842;0.6258;
1350.3000;0.3867;0.6355;
1350.6000;0.3883;0.6404;
1350.9000;0.3858;0.6428;
1351.2000;0.3867;0.6428;
1351.5000;0.3867;0.6307;
1351.8000;0.3834;0.6282;
1352.1000;0.3875;0.6404;
1352.4000;0.3858;0.6307;
1352.7000;0.3858;0.6331;
1353.0000;0.3875;0.6428;
1353.3000;0.3858;0.6380;
1353.6000;0.3858;0.6453;
1353.9000;0.3842;0.6501;
1354.2000;0.3842;0.6550;
1354.5000;0.3858;0.6672;
1354.8000;0.3858;0.6648;
1355.1000;0.3858;0.6599;
1355.4000;0.3867;0.6501;
1355.7000;0.3875;0.6599;
1356.0000;0.3883;0.6696;
1356.3000;0.3850;0.6696;
1356.6000;0.3956;0.6891;
1356.9000;0.3858;0.6696;
1357.2000;0.3867;0.6696;
1357.5000;0.3875;0.6648;
1357.8000;0.3899;0.6721;
1358.1000;0.3842;0.6526;
1358.4000;0.3875;0.6550;
1358.7000;0.3875;0.6550;
1359.0000;0.3850;0.6453;
1359.3000;0.3907;0.6550;
1359.6000;0.3867;0.6526;
1359.9000;0.3875;0.6599;
1360.2000;0.3875;0.6501;
1360.5000;0.3850;0.6453;
1360.8000;0.3850;0.6404;
1361.1000;0.3858;0.6404;
1361.4000;0.3875;0.6428;
1361.7000;0.3858;0.6404;
1362.0000;0.3858;0.6501;
1362.3000;0.3858;0.6526;
1362.6000;0.3850;0.6501;
1362.9000;0.3899;0.6623;
1363.2000;0.3858;0.6599;
1363.5000;0.3875;0.6672;
1363.8000;0.3834;0.6575;
1364.1000;0.3850;0.6550;
1364.4000;0.3867;0.6575;
1364.7000;0.3867;0.6721;
1365.0000;0.3858;0.6769;
1365.3000;0.3867;0.6745;
1365.6000;0.3867;0.6672;
1365.9000;0.3858;0.6672;
1366.2000;0.3875;0.6648;
1366.5000;0.3923;0.6672;
1366.8000;0.3875;0.6501;
1367.1000;0.3883;0.6623;
1367.4000;0.3867;0.6599;
1367.7000;0.3883;0.6575;
1368.0000;0.3923;0.6575;
1368.3000;0.3858;0.6453;
1368.6000;0.3875;0.6477;
1368.9000;0.3907;0.6648;
1369.2000;0.3875;0.6599;
1369.5000;0.3850;0.6575;
1369.8000;0.3875;0.6550;
1370.1000;0.3858;0.6575;
1370.4000;0.3907;0.6623;
1370.7000;0.3875;0.6428;
1371.0000;0.3875;0.6355;
1371.3000;0.3810;0.6234;
1371.6000;0.3875;0.6501;
1371.9000;0.3875;0.6428;
1372.2000;0.3875;0.6453;
1372.5000;0.3858;0.6428;
1372.8000;0.3867;0.6428;
1373.1000;0.3867;0.6501;
1373.4000;0.3850;0.6477;
1373.7000;0.3858;0.6550;
1374.0000;0.3923;0.6745;
1374.3000;0.3850;0.6623;
1374.6000;0.3867;0.6745;
1374.9000;0.3867;0.6696;
1375.2000;0.3850;0.6599;
1375.5000;0.3875;0.6672;
1375.8000;0.3899;0.6696;
1376.1000;0.3875;0.6672;
1376.4000;0.3867;0.6599;
1376.7000;0.3875;0.6575;
1377.0000;0.3850;0.6477;
1377.3000;0.3875;0.6453;
1377.6000;0.3842;0.6355;
1377.9000;0.3907;0.6526;
1378.2000;0.3858;0.6380;
1378.5000;0.3858;0.6526;
1378.8000;0.3858;0.6575;
1379.1000;0.3867;0.6599;
1379.4000;0.3867;0.6599;
1379.7000;0.3850;0.6575;
1380.0000;0.3850;0.6453;
1380.3000;0.3858;0.6477;
1380.6000;0.3842;0.6526;
1380.9000;0.3923;0.6599;
1381.2000;0.3883;0.6477;
1381.5000;0.3867;0.6477;
1381.8000;0.3867;0.6477;
1382.1000;0.3867;0.6453;
1382.4000;0.3867;0.6404;
1382.7000;0.3891;0.6453;
1383.0000;0.3867;0.6453;
1383.3000;0.3850;0.6477;
1383.6000;0.3907;0.6599;
1383.9000;0.3875;0.6477;
1384.2000;0.3875;0.6550;
1384.5000;0.3858;0.6453;
1384.8000;0.3826;0.6428;
1385.1000;0.3875;0.6501;
1385.4000;0.3858;0.6501;
1385.7000;0.3899;0.6672;
1386.0000;0.3858;0.6599;
1386.3000;0.3785;0.6501;
1386.6000;0.3834;0.6648;
1386.9000;0.3875;0.6745;
1387.2000;0.3867;0.6721;
1387.5000;0.3842;0.6648;
1387.8000;0.3883;0.6721;
1388.1000;0.3834;0.6696;
1388.4000;0.3769;0.6380;
1388.7000;0.3858;0.6599;
1389.0000;0.3858;0.6575;
1389.3000;0.3858;0.6599;
1389.6000;0.3883;0.6575;
1389.9000;0.3867;0.6501;
1390.2000;0.3867;0.6526;
1390.5000;0.3883;0.6453;
1390.8000;0.3875;0.6404;
1391.1000;0.3850;0.6477;
1391.4000;0.3875;0.6550;
1391.7000;0.3875;0.6526;
1392.0000;0.3867;0.6599;
1392.3000;0.3858;0.6501;
1392.6000;0.3875;0.6526;
1392.9000;0.3883;0.6696;
1393.2000;0.3867;0.6745;
1393.5000;0.3850;0.6745;
1393.8000;0.3850;0.6721;
1394.1000;0.3867;0.6745;
1394.4000;0.3867;0.6721;
1394.7000;0.3875;0.6623;
1395.0000;0.3850;0.6575;
1395.3000;0.3875;0.6550;
1395.6000;0.3850;0.6477;
1395.9000;0.3867;0.6477;
1396.2000;0.3875;0.6526;
1396.5000;0.3867;0.6575;
1396.8000;0.3858;0.6550;
1397.1000;0.3850;0.6648;
1397.4000;0.3858;0.6648;
1397.7000;0.3793;0.6453;
1398.0000;0.3875;0.6599;
1398.3000;0.3785;0.6307;
1398.6000;0.3858;0.6355;
1398.9000;0.3834;0.6331;
1399.2000;0.3867;0.6355;
1399.5000;0.3867;0.6380;
1399.8000;0.3858;0.6331;
