time/ms;Fluo/V;P700 deltaI/I x10³;
-199.8000;0.9328;2.0484;
-199.5000;0.9337;2.0508;
-199.2000;0.9320;2.0460;
-198.9000;0.9320;2.0508;
-198.6000;0.9320;2.0508;
-198.3000;0.9328;2.0460;
-198.0000;0.9337;2.0508;
-197.7000;0.9320;2.0508;
-197.4000;0.9312;2.0508;
-197.1000;0.9271;2.0531;
-196.8000;0.9337;2.0627;
-196.5000;0.9337;2.0603;
-196.2000;0.9320;2.0603;
-195.9000;0.9328;2.0579;
-195.6000;0.9337;2.0555;
-195.3000;0.9328;2.0460;
-195.0000;0.9320;2.0436;
-194.7000;0.9328;2.0436;
-194.4000;0.9328;2.0412;
-194.1000;0.9328;2.0436;
-193.8000;0.9345;2.0364;
-193.5000;0.9337;2.0269;
-193.2000;0.9280;2.0174;
-192.9000;0.9337;2.0317;
-192.6000;0.9345;2.0341;
-192.3000;0.9328;2.0317;
-192.0000;0.9280;2.0221;
-191.7000;0.9320;2.0484;
-191.4000;0.9328;2.0484;
-191.1000;0.9312;2.0508;
-190.8000;0.9337;2.0579;
-190.5000;0.9320;2.0579;
-190.2000;0.9337;2.0651;
-189.9000;0.9337;2.0555;
-189.6000;0.9361;2.0579;
-189.3000;0.9337;2.0460;
-189.0000;0.9328;2.0460;
-188.7000;0.9312;2.0508;
-188.4000;0.9328;2.0531;
-188.1000;0.9328;2.0508;
-187.8000;0.9312;2.0484;
-187.5000;0.9320;2.0436;
-187.2000;0.9296;2.0341;
-186.9000;0.9320;2.0412;
-186.6000;0.9288;2.0293;
-186.3000;0.9312;2.0364;
-186.0000;0.9337;2.0388;
-185.7000;0.9337;2.0341;
-185.4000;0.9312;2.0317;
-185.1000;0.9288;2.0221;
-184.8000;0.9304;2.0269;
-184.5000;0.9320;2.0317;
-184.2000;0.9328;2.0412;
-183.9000;0.9328;2.0436;
-183.6000;0.9328;2.0460;
-183.3000;0.9312;2.0364;
-183.0000;0.9320;2.0317;
-182.7000;0.9337;2.0293;
-182.4000;0.9328;2.0245;
-182.1000;0.9320;2.0269;
-181.8000;0.9328;2.0364;
-181.5000;0.9304;2.0436;
-181.2000;0.9337;2.0579;
-180.9000;0.9320;2.0531;
-180.6000;0.9345;2.0627;
-180.3000;0.9328;2.0603;
-180.0000;0.9345;2.0579;
-179.7000;0.9328;2.0603;
-179.4000;0.9263;2.0460;
-179.1000;0.9345;2.0579;
-178.8000;0.9312;2.0412;
-178.5000;0.9320;2.0460;
-178.2000;0.9345;2.0508;
-177.9000;0.9328;2.0460;
-177.6000;0.9328;2.0412;
-177.3000;0.9320;2.0388;
-177.0000;0.9328;2.0460;
-176.7000;0.9304;2.0388;
-176.4000;0.9320;2.0508;
-176.1000;0.9312;2.0364;
-175.8000;0.9312;2.0364;
-175.5000;0.9320;2.0388;
-175.2000;0.9320;2.0436;
-174.9000;0.9353;2.0484;
-174.6000;0.9328;2.0412;
-174.3000;0.9320;2.0436;
-174.0000;0.9337;2.0460;
-173.7000;0.9345;2.0460;
-173.4000;0.9328;2.0412;
-173.1000;0.9312;2.0364;
-172.8000;0.9320;2.0317;
-172.5000;0.9328;2.0412;
-172.2000;0.9312;2.0388;
-171.9000;0.9304;2.0460;
-171.6000;0.9304;2.0484;
-171.3000;0.9320;2.0531;
-171.0000;0.9320;2.0460;
-170.7000;0.9320;2.0436;
-170.4000;0.9312;2.0436;
-170.1000;0.9328;2.0484;
-169.8000;0.9337;2.0579;
-169.5000;0.9320;2.0555;
-169.2000;0.9312;2.0555;
-168.9000;0.9328;2.0555;
-168.6000;0.9353;2.0603;
-168.3000;0.9247;2.0412;
-168.0000;0.9304;2.0531;
-167.7000;0.9328;2.0603;
-167.4000;0.9320;2.0555;
-167.1000;0.9394;2.0770;
-166.8000;0.9312;2.0651;
-166.5000;0.9345;2.0770;
-166.2000;0.9353;2.0746;
-165.9000;0.9361;2.0770;
-165.6000;0.9304;2.0627;
-165.3000;0.9328;2.0674;
-165.0000;0.9320;2.0651;
-164.7000;0.9353;2.0651;
-164.4000;0.9337;2.0627;
-164.1000;0.9353;2.0674;
-163.8000;0.9328;2.0651;
-163.5000;0.9345;2.0674;
-163.2000;0.9328;2.0674;
-162.9000;0.9337;2.0674;
-162.6000;0.9337;2.0746;
-162.3000;0.9345;2.0746;
-162.0000;0.9304;2.0627;
-161.7000;0.9337;2.0555;
-161.4000;0.9328;2.0555;
-161.1000;0.9337;2.0603;
-160.8000;0.9320;2.0508;
-160.5000;0.9337;2.0508;
-160.2000;0.9328;2.0460;
-159.9000;0.9320;2.0531;
-159.6000;0.9328;2.0627;
-159.3000;0.9337;2.0651;
-159.0000;0.9328;2.0579;
-158.7000;0.9337;2.0651;
-158.4000;0.9337;2.0698;
-158.1000;0.9328;2.0674;
-157.8000;0.9328;2.0603;
-157.5000;0.9328;2.0579;
-157.2000;0.9337;2.0555;
-156.9000;0.9337;2.0627;
-156.6000;0.9328;2.0651;
-156.3000;0.9361;2.0698;
-156.0000;0.9312;2.0603;
-155.7000;0.9345;2.0603;
-155.4000;0.9328;2.0579;
-155.1000;0.9328;2.0531;
-154.8000;0.9337;2.0555;
-154.5000;0.9369;2.0651;
-154.2000;0.9328;2.0579;
-153.9000;0.9328;2.0579;
-153.6000;0.9337;2.0484;
-153.3000;0.9345;2.0436;
-153.0000;0.9328;2.0555;
-152.7000;0.9345;2.0484;
-152.4000;0.9328;2.0364;
-152.1000;0.9353;2.0460;
-151.8000;0.9361;2.0555;
-151.5000;0.9312;2.0412;
-151.2000;0.9320;2.0460;
-150.9000;0.9328;2.0484;
-150.6000;0.9361;2.0508;
-150.3000;0.9304;2.0388;
-150.0000;0.9320;2.0412;
-149.7000;0.9337;2.0484;
-149.4000;0.9345;2.0508;
-149.1000;0.9328;2.0531;
-148.8000;0.9296;2.0388;
-148.5000;0.9337;2.0436;
-148.2000;0.9328;2.0460;
-147.9000;0.9337;2.0436;
-147.6000;0.9369;2.0579;
-147.3000;0.9377;2.0603;
-147.0000;0.9337;2.0484;
-146.7000;0.9296;2.0460;
-146.4000;0.9312;2.0484;
-146.1000;0.9353;2.0627;
-145.8000;0.9328;2.0603;
-145.5000;0.9320;2.0579;
-145.2000;0.9320;2.0531;
-144.9000;0.9328;2.0555;
-144.6000;0.9312;2.0579;
-144.3000;0.9345;2.0579;
-144.0000;0.9328;2.0579;
-143.7000;0.9328;2.0531;
-143.4000;0.9328;2.0579;
-143.1000;0.9394;2.0770;
-142.8000;0.9328;2.0674;
-142.5000;0.9328;2.0674;
-142.2000;0.9296;2.0555;
-141.9000;0.9312;2.0531;
-141.6000;0.9328;2.0460;
-141.3000;0.9328;2.0508;
-141.0000;0.9320;2.0579;
-140.7000;0.9353;2.0698;
-140.4000;0.9320;2.0627;
-140.1000;0.9402;2.0865;
-139.8000;0.9328;2.0770;
-139.5000;0.9304;2.0722;
-139.2000;0.9328;2.0794;
-138.9000;0.9337;2.0698;
-138.6000;0.9320;2.0722;
-138.3000;0.9320;2.0770;
-138.0000;0.9345;2.0746;
-137.7000;0.9337;2.0555;
-137.4000;0.9328;2.0460;
-137.1000;0.9320;2.0436;
-136.8000;0.9369;2.0531;
-136.5000;0.9328;2.0579;
-136.2000;0.9312;2.0531;
-135.9000;0.9312;2.0579;
-135.6000;0.9337;2.0651;
-135.3000;0.9320;2.0603;
-135.0000;0.9312;2.0436;
-134.7000;0.9320;2.0484;
-134.4000;0.9402;2.0746;
-134.1000;0.9320;2.0603;
-133.8000;0.9328;2.0555;
-133.5000;0.9312;2.0531;
-133.2000;0.9280;2.0341;
-132.9000;0.9320;2.0388;
-132.6000;0.9345;2.0364;
-132.3000;0.9288;2.0198;
-132.0000;0.9328;2.0245;
-131.7000;0.9337;2.0293;
-131.4000;0.9304;2.0245;
-131.1000;0.9312;2.0317;
-130.8000;0.9304;2.0293;
-130.5000;0.9337;2.0293;
-130.2000;0.9328;2.0317;
-129.9000;0.9369;2.0388;
-129.6000;0.9320;2.0150;
-129.3000;0.9304;2.0198;
-129.0000;0.9418;2.0555;
-128.7000;0.9312;2.0341;
-128.4000;0.9312;2.0364;
-128.1000;0.9337;2.0508;
-127.8000;0.9337;2.0555;
-127.5000;0.9345;2.0508;
-127.2000;0.9337;2.0484;
-126.9000;0.9337;2.0555;
-126.6000;0.9320;2.0484;
-126.3000;0.9320;2.0531;
-126.0000;0.9353;2.0603;
-125.7000;0.9353;2.0603;
-125.4000;0.9312;2.0460;
-125.1000;0.9337;2.0531;
-124.8000;0.9304;2.0484;
-124.5000;0.9320;2.0531;
-124.2000;0.9312;2.0484;
-123.9000;0.9280;2.0484;
-123.6000;0.9361;2.0627;
-123.3000;0.9353;2.0555;
-123.0000;0.9320;2.0531;
-122.7000;0.9345;2.0555;
-122.4000;0.9353;2.0531;
-122.1000;0.9312;2.0388;
-121.8000;0.9320;2.0388;
-121.5000;0.9263;2.0198;
-121.2000;0.9394;2.0508;
-120.9000;0.9312;2.0412;
-120.6000;0.9320;2.0388;
-120.3000;0.9320;2.0436;
-120.0000;0.9320;2.0508;
-119.7000;0.9312;2.0484;
-119.4000;0.9328;2.0436;
-119.1000;0.9320;2.0484;
-118.8000;0.9345;2.0508;
-118.5000;0.9345;2.0508;
-118.2000;0.9337;2.0460;
-117.9000;0.9337;2.0531;
-117.6000;0.9345;2.0579;
-117.3000;0.9345;2.0603;
-117.0000;0.9320;2.0603;
-116.7000;0.9353;2.0746;
-116.4000;0.9320;2.0651;
-116.1000;0.9312;2.0651;
-115.8000;0.9361;2.0722;
-115.5000;0.9296;2.0603;
-115.2000;0.9337;2.0651;
-114.9000;0.9320;2.0627;
-114.6000;0.9320;2.0627;
-114.3000;0.9312;2.0579;
-114.0000;0.9337;2.0579;
-113.7000;0.9337;2.0651;
-113.4000;0.9320;2.0579;
-113.1000;0.9312;2.0484;
-112.8000;0.9337;2.0555;
-112.5000;0.9337;2.0579;
-112.2000;0.9320;2.0460;
-111.9000;0.9353;2.0508;
-111.6000;0.9337;2.0508;
-111.3000;0.9345;2.0412;
-111.0000;0.9328;2.0412;
-110.7000;0.9320;2.0388;
-110.4000;0.9328;2.0460;
-110.1000;0.9320;2.0460;
-109.8000;0.9337;2.0555;
-109.5000;0.9337;2.0555;
-109.2000;0.9304;2.0460;
-108.9000;0.9337;2.0436;
-108.6000;0.9328;2.0555;
-108.3000;0.9304;2.0508;
-108.0000;0.9320;2.0508;
-107.7000;0.9312;2.0508;
-107.4000;0.9304;2.0508;
-107.1000;0.9337;2.0508;
-106.8000;0.9345;2.0531;
-106.5000;0.9337;2.0555;
-106.2000;0.9337;2.0531;
-105.9000;0.9353;2.0603;
-105.6000;0.9320;2.0531;
-105.3000;0.9328;2.0603;
-105.0000;0.9328;2.0651;
-104.7000;0.9345;2.0651;
-104.4000;0.9312;2.0603;
-104.1000;0.9304;2.0555;
-103.8000;0.9312;2.0603;
-103.5000;0.9337;2.0651;
-103.2000;0.9328;2.0579;
-102.9000;0.9320;2.0484;
-102.6000;0.9288;2.0508;
-102.3000;0.9337;2.0651;
-102.0000;0.9328;2.0555;
-101.7000;0.9369;2.0603;
-101.4000;0.9312;2.0484;
-101.1000;0.9353;2.0508;
-100.8000;0.9337;2.0460;
-100.5000;0.9345;2.0508;
-100.2000;0.9312;2.0484;
-99.9000;0.9280;2.0531;
-99.6000;0.9312;2.0651;
-99.3000;0.9320;2.0627;
-99.0000;0.9328;2.0579;
-98.7000;0.9337;2.0579;
-98.4000;0.9320;2.0579;
-98.1000;0.9320;2.0651;
-97.8000;0.9312;2.0627;
-97.5000;0.9312;2.0603;
-97.2000;0.9345;2.0674;
-96.9000;0.9288;2.0579;
-96.6000;0.9320;2.0674;
-96.3000;0.9312;2.0698;
-96.0000;0.9320;2.0722;
-95.7000;0.9328;2.0674;
-95.4000;0.9328;2.0627;
-95.1000;0.9320;2.0627;
-94.8000;0.9320;2.0651;
-94.5000;0.9320;2.0746;
-94.2000;0.9328;2.0794;
-93.9000;0.9304;2.0674;
-93.6000;0.9337;2.0818;
-93.3000;0.9337;2.0770;
-93.0000;0.9304;2.0746;
-92.7000;0.9312;2.0746;
-92.4000;0.9345;2.0746;
-92.1000;0.9337;2.0698;
-91.8000;0.9345;2.0651;
-91.5000;0.9320;2.0603;
-91.2000;0.9337;2.0603;
-90.9000;0.9337;2.0603;
-90.6000;0.9328;2.0603;
-90.3000;0.9304;2.0555;
-90.0000;0.9328;2.0436;
-89.7000;0.9345;2.0460;
-89.4000;0.9304;2.0460;
-89.1000;0.9328;2.0603;
-88.8000;0.9320;2.0651;
-88.5000;0.9328;2.0674;
-88.2000;0.9337;2.0722;
-87.9000;0.9296;2.0627;
-87.6000;0.9296;2.0627;
-87.3000;0.9369;2.0722;
-87.0000;0.9337;2.0651;
-86.7000;0.9304;2.0579;
-86.4000;0.9328;2.0603;
-86.1000;0.9312;2.0651;
-85.8000;0.9337;2.0818;
-85.5000;0.9320;2.0794;
-85.2000;0.9377;2.0865;
-84.9000;0.9312;2.0627;
-84.6000;0.9345;2.0627;
-84.3000;0.9337;2.0674;
-84.0000;0.9337;2.0770;
-83.7000;0.9328;2.0818;
-83.4000;0.9337;2.0841;
-83.1000;0.9328;2.0865;
-82.8000;0.9337;2.0865;
-82.5000;0.9312;2.0794;
-82.2000;0.9328;2.0746;
-81.9000;0.9345;2.0746;
-81.6000;0.9328;2.0722;
-81.3000;0.9337;2.0818;
-81.0000;0.9337;2.0746;
-80.7000;0.9337;2.0674;
-80.4000;0.9328;2.0603;
-80.1000;0.9337;2.0555;
-79.8000;0.9410;2.0651;
-79.5000;0.9337;2.0436;
-79.2000;0.9345;2.0531;
-78.9000;0.9337;2.0555;
-78.6000;0.9312;2.0531;
-78.3000;0.9353;2.0674;
-78.0000;0.9337;2.0722;
-77.7000;0.9402;2.0889;
-77.4000;0.9345;2.0770;
-77.1000;0.9320;2.0770;
-76.8000;0.9353;2.0865;
-76.5000;0.9345;2.0770;
-76.2000;0.9328;2.0722;
-75.9000;0.9328;2.0770;
-75.6000;0.9345;2.0770;
-75.3000;0.9320;2.0746;
-75.0000;0.9312;2.0698;
-74.7000;0.9296;2.0698;
-74.4000;0.9337;2.0770;
-74.1000;0.9312;2.0698;
-73.8000;0.9312;2.0698;
-73.5000;0.9312;2.0651;
-73.2000;0.9312;2.0603;
-72.9000;0.9353;2.0722;
-72.6000;0.9320;2.0627;
-72.3000;0.9320;2.0603;
-72.0000;0.9328;2.0651;
-71.7000;0.9345;2.0674;
-71.4000;0.9337;2.0746;
-71.1000;0.9328;2.0674;
-70.8000;0.9328;2.0651;
-70.5000;0.9394;2.0794;
-70.2000;0.9385;2.0794;
-69.9000;0.9353;2.0770;
-69.6000;0.9312;2.0746;
-69.3000;0.9328;2.0722;
-69.0000;0.9328;2.0722;
-68.7000;0.9337;2.0746;
-68.4000;0.9320;2.0794;
-68.1000;0.9328;2.0818;
-67.8000;0.9328;2.0818;
-67.5000;0.9328;2.0841;
-67.2000;0.9312;2.0746;
-66.9000;0.9337;2.0889;
-66.6000;0.9337;2.0961;
-66.3000;0.9328;2.0937;
-66.0000;0.9304;2.0889;
-65.7000;0.9320;2.1008;
-65.4000;0.9304;2.0984;
-65.1000;0.9337;2.1104;
-64.8000;0.9337;2.1056;
-64.5000;0.9320;2.1056;
-64.2000;0.9337;2.0984;
-63.9000;0.9353;2.0984;
-63.6000;0.9304;2.0841;
-63.3000;0.9320;2.0865;
-63.0000;0.9288;2.0794;
-62.7000;0.9320;2.0937;
-62.4000;0.9369;2.1032;
-62.1000;0.9337;2.0937;
-61.8000;0.9320;2.0937;
-61.5000;0.9328;2.1008;
-61.2000;0.9320;2.1008;
-60.9000;0.9320;2.0937;
-60.6000;0.9320;2.0865;
-60.3000;0.9337;2.0841;
-60.0000;0.9320;2.0770;
-59.7000;0.9304;2.0722;
-59.4000;0.9320;2.0841;
-59.1000;0.9337;2.0865;
-58.8000;0.9304;2.0865;
-58.5000;0.9320;2.0984;
-58.2000;0.9337;2.0913;
-57.9000;0.9271;2.0698;
-57.6000;0.9328;2.0841;
-57.3000;0.9345;2.0794;
-57.0000;0.9328;2.0698;
-56.7000;0.9345;2.0841;
-56.4000;0.9337;2.0841;
-56.1000;0.9328;2.0889;
-55.8000;0.9361;2.1008;
-55.5000;0.9328;2.1008;
-55.2000;0.9353;2.1104;
-54.9000;0.9328;2.1056;
-54.6000;0.9345;2.1032;
-54.3000;0.9296;2.0937;
-54.0000;0.9345;2.0984;
-53.7000;0.9345;2.1080;
-53.4000;0.9320;2.0984;
-53.1000;0.9296;2.0961;
-52.8000;0.9328;2.0937;
-52.5000;0.9328;2.0913;
-52.2000;0.9312;2.0841;
-51.9000;0.9353;2.0984;
-51.6000;0.9328;2.0984;
-51.3000;0.9328;2.1032;
-51.0000;0.9320;2.1008;
-50.7000;0.9288;2.0937;
-50.4000;0.9304;2.0961;
-50.1000;0.9385;2.1128;
-49.8000;0.9320;2.0937;
-49.5000;0.9312;2.0889;
-49.2000;0.9304;2.0841;
-48.9000;0.9312;2.0770;
-48.6000;0.9312;2.0770;
-48.3000;0.9304;2.0818;
-48.0000;0.9296;2.0746;
-47.7000;0.9320;2.0818;
-47.4000;0.9312;2.0913;
-47.1000;0.9345;2.0913;
-46.8000;0.9337;2.0889;
-46.5000;0.9337;2.0865;
-46.2000;0.9345;2.0794;
-45.9000;0.9328;2.0794;
-45.6000;0.9337;2.0770;
-45.3000;0.9320;2.0818;
-45.0000;0.9312;2.0770;
-44.7000;0.9337;2.0746;
-44.4000;0.9320;2.0674;
-44.1000;0.9304;2.0603;
-43.8000;0.9304;2.0627;
-43.5000;0.9312;2.0794;
-43.2000;0.9337;2.0841;
-42.9000;0.9320;2.0794;
-42.6000;0.9328;2.0865;
-42.3000;0.9328;2.0937;
-42.0000;0.9337;2.1008;
-41.7000;0.9296;2.1032;
-41.4000;0.9328;2.1056;
-41.1000;0.9255;2.0913;
-40.8000;0.9320;2.1032;
-40.5000;0.9304;2.0937;
-40.2000;0.9312;2.0937;
-39.9000;0.9320;2.0961;
-39.6000;0.9328;2.1056;
-39.3000;0.9385;2.1128;
-39.0000;0.9288;2.0794;
-38.7000;0.9337;2.0889;
-38.4000;0.9328;2.0865;
-38.1000;0.9223;2.0555;
-37.8000;0.9328;2.0746;
-37.5000;0.9320;2.0698;
-37.2000;0.9328;2.0770;
-36.9000;0.9312;2.0746;
-36.6000;0.9337;2.0770;
-36.3000;0.9320;2.0794;
-36.0000;0.9353;2.0937;
-35.7000;0.9345;2.0913;
-35.4000;0.9312;2.0889;
-35.1000;0.9328;2.0889;
-34.8000;0.9337;2.0841;
-34.5000;0.9337;2.0865;
-34.2000;0.9328;2.0794;
-33.9000;0.9320;2.0818;
-33.6000;0.9312;2.0841;
-33.3000;0.9312;2.0889;
-33.0000;0.9328;2.1008;
-32.7000;0.9304;2.0961;
-32.4000;0.9320;2.0913;
-32.1000;0.9328;2.0937;
-31.8000;0.9312;2.0961;
-31.5000;0.9328;2.0913;
-31.2000;0.9328;2.0889;
-30.9000;0.9312;2.0865;
-30.6000;0.9328;2.0913;
-30.3000;0.9337;2.1032;
-30.0000;0.9304;2.0889;
-29.7000;0.9312;2.0818;
-29.4000;0.9320;2.0841;
-29.1000;0.9312;2.0889;
-28.8000;0.9353;2.0984;
-28.5000;0.9328;2.0889;
-28.2000;0.9345;2.0841;
-27.9000;0.9320;2.0841;
-27.6000;0.9328;2.0865;
-27.3000;0.9280;2.0746;
-27.0000;0.9337;2.0889;
-26.7000;0.9320;2.0889;
-26.4000;0.9320;2.0913;
-26.1000;0.9288;2.0841;
-25.8000;0.9328;2.0961;
-25.5000;0.9328;2.0984;
-25.2000;0.9320;2.0961;
-24.9000;0.9320;2.0961;
-24.6000;0.9328;2.0937;
-24.3000;0.9312;2.0984;
-24.0000;0.9320;2.0889;
-23.7000;0.9320;2.0889;
-23.4000;0.9328;2.0913;
-23.1000;0.9328;2.0961;
-22.8000;0.9320;2.0889;
-22.5000;0.9328;2.0889;
-22.2000;0.9328;2.0961;
-21.9000;0.9328;2.0937;
-21.6000;0.9328;2.1008;
-21.3000;0.9328;2.1056;
-21.0000;0.9345;2.1128;
-20.7000;0.9353;2.1128;
-20.4000;0.9345;2.1056;
-20.1000;0.9345;2.0961;
-19.8000;0.9328;2.0865;
-19.5000;0.9328;2.0889;
-19.2000;0.9337;2.0913;
-18.9000;0.9296;2.0841;
-18.6000;0.9304;2.0770;
-18.3000;0.9328;2.0841;
-18.0000;0.9312;2.0794;
-17.7000;0.9320;2.0770;
-17.4000;0.9304;2.0794;
-17.1000;0.9312;2.0818;
-16.8000;0.9328;2.0865;
-16.5000;0.9337;2.0818;
-16.2000;0.9353;2.0961;
-15.9000;0.9288;2.0889;
-15.6000;0.9337;2.0961;
-15.3000;0.9320;2.0889;
-15.0000;0.9320;2.0889;
-14.7000;0.9312;2.0794;
-14.4000;0.9320;2.0889;
-14.1000;0.9442;2.1271;
-13.8000;0.9328;2.0984;
-13.5000;0.9312;2.0913;
-13.2000;0.9385;2.1008;
-12.9000;0.9320;2.0865;
-12.6000;0.9320;2.0889;
-12.3000;0.9320;2.0937;
-12.0000;0.9320;2.0913;
-11.7000;0.9337;2.1008;
-11.4000;0.9320;2.0961;
-11.1000;0.9328;2.0984;
-10.8000;0.9320;2.0961;
-10.5000;0.9353;2.1032;
-10.2000;0.9353;2.0937;
-9.9000;0.9320;2.0794;
-9.6000;0.9320;2.0770;
-9.3000;0.9320;2.0746;
-9.0000;0.9328;2.0746;
-8.7000;0.9337;2.0770;
-8.4000;0.9280;2.0698;
-8.1000;0.9312;2.0841;
-7.8000;0.9337;2.0913;
-7.5000;0.9353;2.0889;
-7.2000;0.9320;2.0818;
-6.9000;0.9328;2.0865;
-6.6000;0.9353;2.1008;
-6.3000;0.9345;2.0984;
-6.0000;0.9304;2.0865;
-5.7000;0.9312;2.0889;
-5.4000;0.9328;2.0984;
-5.1000;0.9328;2.0961;
-4.8000;0.9345;2.0961;
-4.5000;0.9328;2.0913;
-4.2000;0.9312;2.0818;
-3.9000;0.9320;2.0770;
-3.6000;0.9312;2.0746;
-3.3000;0.9304;2.0746;
-3.0000;0.9328;2.0841;
-2.7000;0.9280;2.0794;
-2.4000;0.9320;2.0865;
-2.1000;0.9296;2.0770;
-1.8000;0.9312;2.0841;
-1.5000;0.9320;2.0889;
-1.2000;0.9328;2.0889;
-0.9000;0.9296;2.0794;
-0.6000;0.9345;2.0961;
-0.3000;0.9328;2.0889;
0.0000;0.9328;2.0889;
0.3000;0.9426;2.0984;
0.6000;0.9499;2.1271;
0.9000;0.9565;2.1604;
1.2000;0.9630;2.1914;
1.5000;0.9678;2.2248;
1.8000;0.9719;2.2534;
2.1000;0.9768;2.2558;
2.4000;0.9801;2.2725;
2.7000;0.9809;2.2916;
3.0000;0.9817;2.2988;
3.3000;0.9833;2.3107;
3.6000;0.9866;2.3178;
3.9000;0.9874;2.3250;
4.2000;0.9882;2.3274;
4.5000;0.9898;2.3226;
4.8000;0.9915;2.3298;
5.1000;0.9915;2.3202;
5.4000;0.9915;2.3178;
5.7000;0.9849;2.3107;
6.0000;0.9915;2.3369;
6.3000;0.9939;2.3345;
6.6000;0.9947;2.3345;
6.9000;0.9939;2.3321;
7.2000;0.9972;2.3298;
7.5000;0.9963;2.3298;
7.8000;0.9923;2.3345;
8.1000;0.9963;2.3464;
8.4000;0.9988;2.3488;
8.7000;0.9980;2.3464;
9.0000;0.9988;2.3441;
9.3000;1.0004;2.3417;
9.6000;0.9996;2.3464;
9.9000;0.9996;2.3464;
10.2000;1.0020;2.3393;
10.5000;1.0012;2.3345;
10.8000;1.0020;2.3393;
11.1000;1.0028;2.3393;
11.4000;1.0020;2.3417;
11.7000;1.0028;2.3464;
12.0000;1.0037;2.3441;
12.3000;1.0045;2.3488;
12.6000;1.0061;2.3488;
12.9000;1.0045;2.3441;
13.2000;1.0053;2.3488;
13.5000;1.0045;2.3536;
13.8000;1.0061;2.3512;
14.1000;1.0069;2.3536;
14.4000;1.0045;2.3536;
14.7000;1.0053;2.3560;
15.0000;1.0028;2.3488;
15.3000;1.0069;2.3512;
15.6000;1.0077;2.3441;
15.9000;1.0069;2.3441;
16.2000;1.0077;2.3536;
16.5000;1.0085;2.3560;
16.8000;1.0037;2.3393;
17.1000;1.0077;2.3488;
17.4000;1.0077;2.3584;
17.7000;1.0037;2.3584;
18.0000;1.0085;2.3727;
18.3000;1.0069;2.3727;
18.6000;1.0069;2.3774;
18.9000;1.0053;2.3655;
19.2000;1.0077;2.3751;
19.5000;1.0094;2.3774;
19.8000;1.0110;2.3751;
20.1000;1.0118;2.3727;
20.4000;1.0110;2.3655;
20.7000;1.0094;2.3631;
21.0000;1.0134;2.3679;
21.3000;1.0085;2.3608;
21.6000;1.0110;2.3655;
21.9000;1.0110;2.3608;
22.2000;1.0110;2.3608;
22.5000;1.0085;2.3584;
22.8000;1.0118;2.3631;
23.1000;1.0102;2.3655;
23.4000;1.0159;2.3774;
23.7000;1.0102;2.3608;
24.0000;1.0085;2.3488;
24.3000;1.0159;2.3679;
24.6000;1.0102;2.3536;
24.9000;1.0126;2.3631;
25.2000;1.0110;2.3584;
25.5000;1.0110;2.3560;
25.8000;1.0134;2.3608;
26.1000;1.0118;2.3560;
26.4000;1.0118;2.3655;
26.7000;1.0118;2.3679;
27.0000;1.0118;2.3679;
27.3000;1.0118;2.3679;
27.6000;1.0118;2.3655;
27.9000;1.0118;2.3584;
28.2000;1.0126;2.3655;
28.5000;1.0118;2.3584;
28.8000;1.0126;2.3679;
29.1000;1.0142;2.3751;
29.4000;1.0126;2.3631;
29.7000;1.0134;2.3536;
30.0000;1.0085;2.3464;
30.3000;1.0126;2.3608;
30.6000;1.0134;2.3608;
30.9000;1.0118;2.3560;
31.2000;1.0118;2.3560;
31.5000;1.0126;2.3584;
31.8000;1.0085;2.3464;
32.1000;1.0142;2.3584;
32.4000;1.0142;2.3488;
32.7000;1.0134;2.3464;
33.0000;1.0134;2.3488;
33.3000;1.0126;2.3417;
33.6000;1.0142;2.3417;
33.9000;1.0126;2.3298;
34.2000;1.0151;2.3226;
34.5000;1.0151;2.3274;
34.8000;1.0142;2.3298;
35.1000;1.0134;2.3250;
35.4000;1.0159;2.3274;
35.7000;1.0151;2.3274;
36.0000;1.0142;2.3321;
36.3000;1.0142;2.3298;
36.6000;1.0142;2.3321;
36.9000;1.0142;2.3298;
37.2000;1.0175;2.3417;
37.5000;1.0134;2.3321;
37.8000;1.0126;2.3393;
38.1000;1.0126;2.3345;
38.4000;1.0142;2.3417;
38.7000;1.0134;2.3417;
39.0000;1.0118;2.3417;
39.3000;1.0142;2.3488;
39.6000;1.0151;2.3512;
39.9000;1.0118;2.3441;
40.2000;1.0142;2.3488;
40.5000;1.0142;2.3488;
40.8000;1.0142;2.3512;
41.1000;1.0134;2.3536;
41.4000;1.0142;2.3393;
41.7000;1.0142;2.3417;
42.0000;1.0134;2.3441;
42.3000;1.0151;2.3536;
42.6000;1.0134;2.3488;
42.9000;1.0142;2.3512;
43.2000;1.0151;2.3584;
43.5000;1.0118;2.3441;
43.8000;1.0126;2.3512;
44.1000;1.0151;2.3560;
44.4000;1.0142;2.3488;
44.7000;1.0199;2.3584;
45.0000;1.0183;2.3512;
45.3000;1.0085;2.3321;
45.6000;1.0142;2.3464;
45.9000;1.0142;2.3560;
46.2000;1.0151;2.3560;
46.5000;1.0151;2.3536;
46.8000;1.0151;2.3679;
47.1000;1.0126;2.3560;
47.4000;1.0134;2.3584;
47.7000;1.0134;2.3608;
48.0000;1.0151;2.3560;
48.3000;1.0159;2.3631;
48.6000;1.0142;2.3631;
48.9000;1.0151;2.3608;
49.2000;1.0151;2.3608;
49.5000;1.0142;2.3655;
49.8000;1.0151;2.3631;
50.1000;1.0151;2.3512;
50.4000;1.0134;2.3608;
50.7000;1.0142;2.3655;
51.0000;1.0142;2.3584;
51.3000;1.0142;2.3584;
51.6000;1.0167;2.3703;
51.9000;1.0134;2.3679;
52.2000;1.0094;2.3655;
52.5000;1.0134;2.3774;
52.8000;1.0134;2.3774;
53.1000;1.0126;2.3751;
53.4000;1.0142;2.3727;
53.7000;1.0175;2.3751;
54.0000;1.0126;2.3608;
54.3000;1.0134;2.3703;
54.6000;1.0142;2.3727;
54.9000;1.0151;2.3774;
55.2000;1.0126;2.3822;
55.5000;1.0134;2.3822;
55.8000;1.0175;2.3918;
56.1000;1.0159;2.3941;
56.4000;1.0159;2.3941;
56.7000;1.0159;2.3941;
57.0000;1.0151;2.3894;
57.3000;1.0151;2.3774;
57.6000;1.0151;2.3703;
57.9000;1.0094;2.3655;
58.2000;1.0151;2.3870;
58.5000;1.0151;2.3870;
58.8000;1.0142;2.3798;
59.1000;1.0142;2.3846;
59.4000;1.0142;2.3870;
59.7000;1.0142;2.3894;
60.0000;1.0159;2.3846;
60.3000;1.0159;2.3798;
60.6000;1.0134;2.3751;
60.9000;1.0151;2.3798;
61.2000;1.0142;2.3751;
61.5000;1.0142;2.3822;
61.8000;1.0159;2.3870;
62.1000;1.0142;2.3822;
62.4000;1.0159;2.3870;
62.7000;1.0151;2.3798;
63.0000;1.0134;2.3679;
63.3000;1.0191;2.3798;
63.6000;1.0151;2.3703;
63.9000;1.0134;2.3631;
64.2000;1.0134;2.3560;
64.5000;1.0142;2.3536;
64.8000;1.0199;2.3679;
65.1000;1.0159;2.3631;
65.4000;1.0159;2.3679;
65.7000;1.0110;2.3512;
66.0000;1.0159;2.3631;
66.3000;1.0175;2.3679;
66.6000;1.0151;2.3655;
66.9000;1.0134;2.3608;
67.2000;1.0142;2.3536;
67.5000;1.0167;2.3536;
67.8000;1.0151;2.3608;
68.1000;1.0126;2.3536;
68.4000;1.0126;2.3560;
68.7000;1.0142;2.3679;
69.0000;1.0151;2.3631;
69.3000;1.0126;2.3608;
69.6000;1.0126;2.3608;
69.9000;1.0159;2.3608;
70.2000;1.0151;2.3584;
70.5000;1.0142;2.3655;
70.8000;1.0142;2.3631;
71.1000;1.0151;2.3655;
71.4000;1.0151;2.3679;
71.7000;1.0142;2.3608;
72.0000;1.0142;2.3512;
72.3000;1.0142;2.3512;
72.6000;1.0167;2.3512;
72.9000;1.0167;2.3512;
73.2000;1.0142;2.3417;
73.5000;1.0151;2.3417;
73.8000;1.0102;2.3321;
74.1000;1.0134;2.3369;
74.4000;1.0142;2.3393;
74.7000;1.0134;2.3441;
75.0000;1.0151;2.3369;
75.3000;1.0134;2.3417;
75.6000;1.0151;2.3488;
75.9000;1.0142;2.3536;
76.2000;1.0151;2.3512;
76.5000;1.0151;2.3512;
76.8000;1.0167;2.3536;
77.1000;1.0183;2.3512;
77.4000;1.0126;2.3369;
77.7000;1.0159;2.3488;
78.0000;1.0151;2.3512;
78.3000;1.0118;2.3441;
78.6000;1.0126;2.3512;
78.9000;1.0151;2.3512;
79.2000;1.0085;2.3464;
79.5000;1.0134;2.3584;
79.8000;1.0134;2.3584;
80.1000;1.0151;2.3560;
80.4000;1.0126;2.3536;
80.7000;1.0134;2.3488;
81.0000;1.0151;2.3536;
81.3000;1.0159;2.3560;
81.6000;1.0175;2.3655;
81.9000;1.0167;2.3631;
82.2000;1.0142;2.3560;
82.5000;1.0151;2.3560;
82.8000;1.0167;2.3536;
83.1000;1.0142;2.3512;
83.4000;1.0134;2.3488;
83.7000;1.0151;2.3464;
84.0000;1.0134;2.3536;
84.3000;1.0151;2.3536;
84.6000;1.0134;2.3560;
84.9000;1.0142;2.3560;
85.2000;1.0069;2.3441;
85.5000;1.0142;2.3631;
85.8000;1.0126;2.3560;
86.1000;1.0134;2.3631;
86.4000;1.0159;2.3631;
86.7000;1.0142;2.3608;
87.0000;1.0151;2.3536;
87.3000;1.0126;2.3560;
87.6000;1.0142;2.3536;
87.9000;1.0118;2.3608;
88.2000;1.0159;2.3703;
88.5000;1.0142;2.3631;
88.8000;1.0118;2.3608;
89.1000;1.0134;2.3631;
89.4000;1.0142;2.3679;
89.7000;1.0134;2.3703;
90.0000;1.0159;2.3679;
90.3000;1.0134;2.3608;
90.6000;1.0126;2.3703;
90.9000;1.0110;2.3679;
91.2000;1.0118;2.3703;
91.5000;1.0142;2.3655;
91.8000;1.0134;2.3560;
92.1000;1.0167;2.3631;
92.4000;1.0142;2.3608;
92.7000;1.0134;2.3631;
93.0000;1.0126;2.3584;
93.3000;1.0134;2.3488;
93.6000;1.0142;2.3441;
93.9000;1.0134;2.3393;
94.2000;1.0142;2.3488;
94.5000;1.0216;2.3679;
94.8000;1.0134;2.3512;
95.1000;1.0126;2.3488;
95.4000;1.0142;2.3488;
95.7000;1.0126;2.3441;
96.0000;1.0118;2.3512;
96.3000;1.0134;2.3536;
96.6000;1.0134;2.3512;
96.9000;1.0134;2.3584;
97.2000;1.0134;2.3536;
97.5000;1.0134;2.3512;
97.8000;1.0126;2.3560;
98.1000;1.0175;2.3655;
98.4000;1.0151;2.3512;
98.7000;1.0142;2.3608;
99.0000;1.0134;2.3631;
99.3000;1.0142;2.3703;
99.6000;1.0102;2.3655;
99.9000;1.0126;2.3798;
100.2000;1.0167;2.3846;
100.5000;1.0126;2.3679;
100.8000;1.0159;2.3703;
101.1000;1.0159;2.3631;
101.4000;1.0126;2.3560;
101.7000;1.0134;2.3608;
102.0000;1.0134;2.3679;
102.3000;1.0134;2.3703;
102.6000;1.0134;2.3655;
102.9000;1.0134;2.3488;
103.2000;1.0134;2.3512;
103.5000;1.0142;2.3417;
103.8000;1.0159;2.3369;
104.1000;1.0151;2.3369;
104.4000;1.0142;2.3464;
104.7000;1.0142;2.3488;
105.0000;1.0142;2.3464;
105.3000;1.0126;2.3512;
105.6000;1.0110;2.3512;
105.9000;1.0159;2.3536;
106.2000;1.0126;2.3464;
106.5000;1.0134;2.3417;
106.8000;1.0134;2.3441;
107.1000;1.0142;2.3393;
107.4000;1.0134;2.3369;
107.7000;1.0134;2.3417;
108.0000;1.0134;2.3464;
108.3000;1.0224;2.3679;
108.6000;1.0134;2.3488;
108.9000;1.0142;2.3560;
109.2000;1.0134;2.3536;
109.5000;1.0126;2.3441;
109.8000;1.0134;2.3464;
110.1000;1.0110;2.3536;
110.4000;1.0134;2.3560;
110.7000;1.0094;2.3441;
111.0000;1.0118;2.3536;
111.3000;1.0134;2.3608;
111.6000;1.0118;2.3584;
111.9000;1.0110;2.3560;
112.2000;1.0134;2.3584;
112.5000;1.0134;2.3512;
112.8000;1.0110;2.3512;
113.1000;1.0110;2.3536;
113.4000;1.0126;2.3464;
113.7000;1.0126;2.3560;
114.0000;1.0110;2.3512;
114.3000;1.0110;2.3488;
114.6000;1.0134;2.3512;
114.9000;1.0126;2.3464;
115.2000;1.0142;2.3536;
115.5000;1.0159;2.3608;
115.8000;1.0134;2.3488;
116.1000;1.0142;2.3512;
116.4000;1.0069;2.3345;
116.7000;1.0126;2.3608;
117.0000;1.0134;2.3631;
117.3000;1.0126;2.3608;
117.6000;1.0134;2.3631;
117.9000;1.0151;2.3679;
118.2000;1.0134;2.3608;
118.5000;1.0142;2.3631;
118.8000;1.0134;2.3608;
119.1000;1.0134;2.3703;
119.4000;1.0159;2.3727;
119.7000;1.0142;2.3727;
120.0000;1.0134;2.3703;
120.3000;1.0118;2.3679;
120.6000;1.0110;2.3703;
120.9000;1.0126;2.3774;
121.2000;1.0110;2.3774;
121.5000;1.0126;2.3751;
121.8000;1.0118;2.3679;
122.1000;1.0142;2.3703;
122.4000;1.0118;2.3608;
122.7000;1.0126;2.3608;
123.0000;1.0126;2.3584;
123.3000;1.0134;2.3536;
123.6000;1.0110;2.3441;
123.9000;1.0134;2.3488;
124.2000;1.0077;2.3321;
124.5000;1.0126;2.3441;
124.8000;1.0102;2.3441;
125.1000;1.0110;2.3488;
125.4000;1.0110;2.3464;
125.7000;1.0126;2.3560;
126.0000;1.0118;2.3512;
126.3000;1.0126;2.3560;
126.6000;1.0110;2.3560;
126.9000;1.0126;2.3655;
127.2000;1.0167;2.3822;
127.5000;1.0110;2.3608;
127.8000;1.0118;2.3655;
128.1000;1.0126;2.3727;
128.4000;1.0126;2.3703;
128.7000;1.0126;2.3727;
129.0000;1.0134;2.3703;
129.3000;1.0110;2.3679;
129.6000;1.0134;2.3798;
129.9000;1.0134;2.3798;
130.2000;1.0126;2.3703;
130.5000;1.0118;2.3679;
130.8000;1.0118;2.3584;
131.1000;1.0126;2.3655;
131.4000;1.0126;2.3631;
131.7000;1.0110;2.3560;
132.0000;1.0118;2.3464;
132.3000;1.0134;2.3560;
132.6000;1.0118;2.3488;
132.9000;1.0118;2.3488;
133.2000;1.0134;2.3512;
133.5000;1.0134;2.3512;
133.8000;1.0151;2.3488;
134.1000;1.0126;2.3536;
134.4000;1.0102;2.3464;
134.7000;1.0118;2.3488;
135.0000;1.0126;2.3536;
135.3000;1.0085;2.3464;
135.6000;1.0118;2.3512;
135.9000;1.0118;2.3441;
136.2000;1.0110;2.3464;
136.5000;1.0126;2.3488;
136.8000;1.0110;2.3512;
137.1000;1.0118;2.3536;
137.4000;1.0110;2.3464;
137.7000;1.0110;2.3464;
138.0000;1.0134;2.3560;
138.3000;1.0061;2.3417;
138.6000;1.0110;2.3584;
138.9000;1.0142;2.3631;
139.2000;1.0151;2.3655;
139.5000;1.0151;2.3608;
139.8000;1.0118;2.3536;
140.1000;1.0118;2.3488;
140.4000;1.0077;2.3369;
140.7000;1.0126;2.3512;
141.0000;1.0126;2.3584;
141.3000;1.0134;2.3536;
141.6000;1.0134;2.3560;
141.9000;1.0134;2.3560;
142.2000;1.0126;2.3560;
142.5000;1.0134;2.3655;
142.8000;1.0118;2.3608;
143.1000;1.0126;2.3655;
143.4000;1.0134;2.3727;
143.7000;1.0126;2.3679;
144.0000;1.0134;2.3655;
144.3000;1.0110;2.3655;
144.6000;1.0134;2.3679;
144.9000;1.0102;2.3560;
145.2000;1.0159;2.3655;
145.5000;1.0126;2.3584;
145.8000;1.0102;2.3584;
146.1000;1.0118;2.3584;
146.4000;1.0126;2.3488;
146.7000;1.0134;2.3488;
147.0000;1.0110;2.3417;
147.3000;1.0110;2.3488;
147.6000;1.0126;2.3560;
147.9000;1.0118;2.3512;
148.2000;1.0118;2.3560;
148.5000;1.0134;2.3536;
148.8000;1.0126;2.3464;
149.1000;1.0118;2.3464;
149.4000;1.0110;2.3464;
149.7000;1.0118;2.3488;
150.0000;1.0110;2.3608;
150.3000;1.0118;2.3655;
150.6000;1.0094;2.3584;
150.9000;1.0110;2.3560;
151.2000;1.0102;2.3512;
151.5000;1.0094;2.3512;
151.8000;1.0110;2.3536;
152.1000;1.0110;2.3584;
152.4000;1.0126;2.3608;
152.7000;1.0110;2.3608;
153.0000;1.0094;2.3488;
153.3000;1.0094;2.3417;
153.6000;1.0110;2.3488;
153.9000;1.0118;2.3488;
154.2000;1.0142;2.3584;
154.5000;1.0126;2.3560;
154.8000;1.0110;2.3584;
155.1000;1.0126;2.3536;
155.4000;1.0134;2.3584;
155.7000;1.0110;2.3560;
156.0000;1.0118;2.3560;
156.3000;1.0126;2.3488;
156.6000;1.0126;2.3464;
156.9000;1.0151;2.3512;
157.2000;1.0126;2.3488;
157.5000;1.0118;2.3441;
157.8000;1.0110;2.3464;
158.1000;1.0110;2.3464;
158.4000;1.0134;2.3560;
158.7000;1.0118;2.3512;
159.0000;1.0061;2.3274;
159.3000;1.0191;2.3608;
159.6000;1.0118;2.3417;
159.9000;1.0110;2.3393;
160.2000;1.0126;2.3369;
160.5000;1.0126;2.3393;
160.8000;1.0102;2.3298;
161.1000;1.0110;2.3345;
161.4000;1.0142;2.3464;
161.7000;1.0110;2.3441;
162.0000;1.0085;2.3393;
162.3000;1.0110;2.3512;
162.6000;1.0110;2.3464;
162.9000;1.0118;2.3441;
163.2000;1.0126;2.3512;
163.5000;1.0126;2.3536;
163.8000;1.0134;2.3512;
164.1000;1.0151;2.3536;
164.4000;1.0118;2.3488;
164.7000;1.0118;2.3536;
165.0000;1.0134;2.3608;
165.3000;1.0110;2.3512;
165.6000;1.0110;2.3512;
165.9000;1.0094;2.3369;
166.2000;1.0102;2.3369;
166.5000;1.0102;2.3345;
166.8000;1.0126;2.3369;
167.1000;1.0118;2.3369;
167.4000;1.0110;2.3369;
167.7000;1.0110;2.3417;
168.0000;1.0118;2.3369;
168.3000;1.0085;2.3393;
168.6000;1.0126;2.3536;
168.9000;1.0118;2.3608;
169.2000;1.0118;2.3679;
169.5000;1.0126;2.3608;
169.8000;1.0126;2.3631;
170.1000;1.0110;2.3584;
170.4000;1.0094;2.3536;
170.7000;1.0110;2.3584;
171.0000;1.0126;2.3608;
171.3000;1.0085;2.3536;
171.6000;1.0053;2.3369;
171.9000;1.0118;2.3584;
172.2000;1.0110;2.3608;
172.5000;1.0110;2.3655;
172.8000;1.0110;2.3631;
173.1000;1.0110;2.3703;
173.4000;1.0126;2.3703;
173.7000;1.0110;2.3631;
174.0000;1.0110;2.3608;
174.3000;1.0110;2.3536;
174.6000;1.0069;2.3441;
174.9000;1.0126;2.3536;
175.2000;1.0102;2.3488;
175.5000;1.0094;2.3464;
175.8000;1.0118;2.3536;
176.1000;1.0126;2.3560;
176.4000;1.0045;2.3369;
176.7000;1.0110;2.3464;
177.0000;1.0118;2.3441;
177.3000;1.0102;2.3369;
177.6000;1.0061;2.3321;
177.9000;1.0110;2.3441;
178.2000;1.0102;2.3345;
178.5000;1.0102;2.3321;
178.8000;1.0167;2.3536;
179.1000;1.0118;2.3369;
179.4000;1.0102;2.3393;
179.7000;1.0094;2.3464;
180.0000;1.0118;2.3584;
180.3000;1.0110;2.3584;
180.6000;1.0110;2.3512;
180.9000;1.0110;2.3608;
181.2000;1.0110;2.3560;
181.5000;1.0110;2.3488;
181.8000;1.0102;2.3512;
182.1000;1.0077;2.3512;
182.4000;1.0110;2.3584;
182.7000;1.0110;2.3608;
183.0000;1.0102;2.3703;
183.3000;1.0102;2.3679;
183.6000;1.0126;2.3727;
183.9000;1.0175;2.3918;
184.2000;1.0118;2.3679;
184.5000;1.0110;2.3631;
184.8000;1.0110;2.3560;
185.1000;1.0118;2.3608;
185.4000;1.0118;2.3560;
185.7000;1.0110;2.3560;
186.0000;1.0118;2.3464;
186.3000;1.0126;2.3488;
186.6000;1.0094;2.3488;
186.9000;1.0118;2.3512;
187.2000;1.0102;2.3536;
187.5000;1.0069;2.3441;
187.8000;1.0118;2.3488;
188.1000;1.0110;2.3464;
188.4000;1.0118;2.3488;
188.7000;1.0110;2.3488;
189.0000;1.0118;2.3417;
189.3000;1.0110;2.3464;
189.6000;1.0102;2.3393;
189.9000;1.0102;2.3488;
190.2000;1.0077;2.3512;
190.5000;1.0102;2.3536;
190.8000;1.0085;2.3441;
191.1000;1.0069;2.3441;
191.4000;1.0118;2.3560;
191.7000;1.0118;2.3536;
192.0000;1.0094;2.3464;
192.3000;1.0102;2.3441;
192.6000;1.0094;2.3488;
192.9000;1.0061;2.3560;
193.2000;1.0077;2.3608;
193.5000;1.0094;2.3608;
193.8000;1.0028;2.3488;
194.1000;1.0102;2.3631;
194.4000;1.0094;2.3679;
194.7000;1.0061;2.3512;
195.0000;1.0077;2.3512;
195.3000;1.0110;2.3560;
195.6000;1.0094;2.3536;
195.9000;1.0094;2.3655;
196.2000;1.0167;2.3822;
196.5000;1.0094;2.3703;
196.8000;1.0118;2.3631;
197.1000;1.0077;2.3536;
197.4000;1.0102;2.3536;
197.7000;1.0110;2.3584;
198.0000;1.0061;2.3393;
198.3000;1.0102;2.3488;
198.6000;1.0110;2.3512;
198.9000;1.0110;2.3536;
199.2000;1.0102;2.3536;
199.5000;1.0102;2.3584;
199.8000;1.0134;2.3703;
200.1000;1.0110;2.3631;
200.4000;1.0126;2.3584;
200.7000;1.0110;2.3560;
201.0000;1.0094;2.3488;
201.3000;1.0085;2.3417;
201.6000;1.0110;2.3464;
201.9000;1.0102;2.3464;
202.2000;1.0069;2.3417;
202.5000;1.0094;2.3560;
202.8000;1.0061;2.3441;
203.1000;1.0102;2.3464;
203.4000;1.0045;2.3345;
203.7000;1.0102;2.3512;
204.0000;1.0110;2.3536;
204.3000;1.0110;2.3560;
204.6000;1.0085;2.3536;
204.9000;1.0102;2.3536;
205.2000;1.0102;2.3536;
205.5000;1.0102;2.3512;
205.8000;1.0085;2.3464;
206.1000;1.0085;2.3464;
206.4000;1.0110;2.3631;
206.7000;1.0110;2.3631;
207.0000;1.0126;2.3631;
207.3000;1.0094;2.3560;
207.6000;1.0110;2.3584;
207.9000;1.0094;2.3536;
208.2000;1.0102;2.3631;
208.5000;1.0085;2.3584;
208.8000;1.0085;2.3608;
209.1000;1.0110;2.3584;
209.4000;1.0110;2.3584;
209.7000;1.0102;2.3631;
210.0000;1.0102;2.3488;
210.3000;1.0142;2.3584;
210.6000;1.0110;2.3488;
210.9000;1.0118;2.3584;
211.2000;1.0102;2.3608;
211.5000;1.0151;2.3751;
211.8000;1.0118;2.3631;
212.1000;1.0085;2.3464;
212.4000;1.0069;2.3512;
212.7000;1.0094;2.3536;
213.0000;1.0110;2.3488;
213.3000;1.0102;2.3441;
213.6000;1.0077;2.3417;
213.9000;1.0085;2.3393;
214.2000;1.0102;2.3488;
214.5000;1.0085;2.3488;
214.8000;1.0077;2.3464;
215.1000;1.0085;2.3441;
215.4000;1.0077;2.3441;
215.7000;1.0077;2.3393;
216.0000;1.0094;2.3512;
216.3000;1.0077;2.3464;
216.6000;1.0175;2.3679;
216.9000;1.0110;2.3488;
217.2000;1.0061;2.3417;
217.5000;1.0077;2.3536;
217.8000;1.0077;2.3584;
218.1000;1.0102;2.3631;
218.4000;1.0094;2.3584;
218.7000;1.0094;2.3584;
219.0000;1.0094;2.3536;
219.3000;1.0110;2.3608;
219.6000;1.0102;2.3608;
219.9000;1.0102;2.3631;
220.2000;1.0094;2.3655;
220.5000;1.0102;2.3679;
220.8000;1.0085;2.3679;
221.1000;1.0085;2.3631;
221.4000;1.0094;2.3631;
221.7000;1.0094;2.3560;
222.0000;1.0118;2.3560;
222.3000;1.0094;2.3512;
222.6000;1.0094;2.3560;
222.9000;1.0069;2.3560;
223.2000;1.0102;2.3631;
223.5000;1.0094;2.3560;
223.8000;1.0077;2.3536;
224.1000;1.0110;2.3584;
224.4000;1.0077;2.3536;
224.7000;1.0094;2.3679;
225.0000;1.0077;2.3560;
225.3000;1.0102;2.3417;
225.6000;1.0094;2.3512;
225.9000;1.0102;2.3488;
226.2000;1.0102;2.3512;
226.5000;1.0085;2.3536;
226.8000;1.0110;2.3608;
227.1000;1.0118;2.3584;
227.4000;1.0110;2.3560;
227.7000;1.0134;2.3584;
228.0000;1.0094;2.3464;
228.3000;1.0102;2.3512;
228.6000;1.0085;2.3608;
228.9000;1.0142;2.3727;
229.2000;1.0094;2.3631;
229.5000;1.0094;2.3631;
229.8000;1.0110;2.3631;
230.1000;1.0094;2.3608;
230.4000;1.0102;2.3679;
230.7000;1.0110;2.3727;
231.0000;1.0118;2.3679;
231.3000;1.0102;2.3751;
231.6000;1.0085;2.3703;
231.9000;1.0102;2.3631;
232.2000;1.0102;2.3703;
232.5000;1.0110;2.3751;
232.8000;1.0085;2.3751;
233.1000;1.0134;2.3798;
233.4000;1.0069;2.3679;
233.7000;1.0094;2.3751;
234.0000;1.0069;2.3584;
234.3000;1.0094;2.3584;
234.6000;1.0094;2.3584;
234.9000;1.0094;2.3655;
235.2000;1.0077;2.3655;
235.5000;1.0094;2.3679;
235.8000;1.0094;2.3679;
236.1000;1.0134;2.3703;
236.4000;1.0102;2.3655;
236.7000;1.0102;2.3608;
237.0000;1.0077;2.3512;
237.3000;1.0094;2.3608;
237.6000;1.0094;2.3631;
237.9000;1.0085;2.3655;
238.2000;1.0085;2.3655;
238.5000;1.0085;2.3679;
238.8000;1.0045;2.3631;
239.1000;1.0134;2.3894;
239.4000;1.0094;2.3822;
239.7000;1.0102;2.3822;
240.0000;1.0085;2.3774;
240.3000;1.0094;2.3751;
240.6000;1.0102;2.3751;
240.9000;1.0094;2.3774;
241.2000;1.0085;2.3703;
241.5000;1.0094;2.3679;
241.8000;1.0102;2.3774;
242.1000;1.0118;2.3798;
242.4000;1.0085;2.3703;
242.7000;1.0077;2.3703;
243.0000;1.0085;2.3727;
243.3000;1.0118;2.3798;
243.6000;1.0102;2.3751;
243.9000;1.0094;2.3774;
244.2000;1.0077;2.3751;
244.5000;1.0102;2.3846;
244.8000;1.0085;2.3894;
245.1000;1.0085;2.3894;
245.4000;1.0069;2.3774;
245.7000;1.0085;2.3727;
246.0000;1.0069;2.3608;
246.3000;1.0102;2.3703;
246.6000;1.0077;2.3608;
246.9000;1.0102;2.3655;
247.2000;1.0094;2.3679;
247.5000;1.0069;2.3703;
247.8000;1.0102;2.3655;
248.1000;1.0102;2.3679;
248.4000;1.0094;2.3679;
248.7000;1.0094;2.3703;
249.0000;1.0094;2.3727;
249.3000;1.0110;2.3798;
249.6000;1.0085;2.3703;
249.9000;1.0118;2.3751;
250.2000;1.0085;2.3727;
250.5000;1.0045;2.3560;
250.8000;1.0085;2.3608;
251.1000;1.0085;2.3631;
251.4000;1.0069;2.3631;
251.7000;1.0061;2.3584;
252.0000;1.0061;2.3488;
252.3000;1.0118;2.3679;
252.6000;1.0102;2.3703;
252.9000;1.0134;2.3703;
253.2000;1.0142;2.3703;
253.5000;1.0094;2.3631;
253.8000;1.0094;2.3703;
254.1000;1.0094;2.3703;
254.4000;1.0094;2.3608;
254.7000;1.0110;2.3679;
255.0000;1.0085;2.3679;
255.3000;1.0102;2.3655;
255.6000;1.0077;2.3608;
255.9000;1.0085;2.3703;
256.2000;1.0085;2.3703;
256.5000;1.0102;2.3798;
256.8000;1.0102;2.3822;
257.1000;1.0094;2.3774;
257.4000;1.0094;2.3631;
257.7000;1.0110;2.3631;
258.0000;1.0102;2.3631;
258.3000;1.0142;2.3751;
258.6000;1.0077;2.3655;
258.9000;1.0085;2.3703;
259.2000;1.0085;2.3751;
259.5000;1.0085;2.3703;
259.8000;1.0085;2.3703;
260.1000;1.0085;2.3631;
260.4000;1.0085;2.3655;
260.7000;1.0085;2.3584;
261.0000;1.0094;2.3512;
261.3000;1.0102;2.3488;
261.6000;1.0102;2.3512;
261.9000;1.0134;2.3560;
262.2000;1.0085;2.3584;
262.5000;1.0110;2.3679;
262.8000;1.0126;2.3751;
263.1000;1.0012;2.3512;
263.4000;1.0085;2.3655;
263.7000;1.0085;2.3703;
264.0000;1.0094;2.3727;
264.3000;1.0094;2.3679;
264.6000;1.0085;2.3774;
264.9000;1.0094;2.3822;
265.2000;1.0077;2.3751;
265.5000;1.0085;2.3727;
265.8000;1.0085;2.3679;
266.1000;1.0094;2.3655;
266.4000;1.0077;2.3536;
266.7000;1.0102;2.3608;
267.0000;1.0069;2.3560;
267.3000;1.0069;2.3512;
267.6000;1.0077;2.3417;
267.9000;1.0094;2.3536;
268.2000;1.0102;2.3608;
268.5000;1.0069;2.3536;
268.8000;1.0077;2.3584;
269.1000;1.0126;2.3679;
269.4000;1.0061;2.3488;
269.7000;1.0085;2.3560;
270.0000;1.0061;2.3488;
270.3000;1.0045;2.3488;
270.6000;1.0085;2.3512;
270.9000;1.0085;2.3488;
271.2000;1.0077;2.3464;
271.5000;1.0126;2.3536;
271.8000;1.0110;2.3441;
272.1000;1.0077;2.3512;
272.4000;1.0069;2.3512;
272.7000;1.0102;2.3584;
273.0000;1.0085;2.3679;
273.3000;1.0077;2.3727;
273.6000;1.0094;2.3798;
273.9000;1.0069;2.3679;
274.2000;1.0085;2.3608;
274.5000;1.0102;2.3631;
274.8000;1.0028;2.3560;
275.1000;1.0085;2.3774;
275.4000;1.0085;2.3846;
275.7000;1.0069;2.3727;
276.0000;1.0085;2.3655;
276.3000;1.0069;2.3679;
276.6000;1.0077;2.3798;
276.9000;1.0085;2.3751;
277.2000;1.0094;2.3798;
277.5000;1.0085;2.3727;
277.8000;1.0094;2.3679;
278.1000;1.0094;2.3774;
278.4000;1.0102;2.3727;
278.7000;1.0077;2.3631;
279.0000;1.0020;2.3488;
279.3000;1.0085;2.3608;
279.6000;1.0085;2.3631;
279.9000;1.0085;2.3655;
280.2000;1.0077;2.3608;
280.5000;1.0085;2.3584;
280.8000;1.0077;2.3584;
281.1000;1.0102;2.3560;
281.4000;1.0085;2.3560;
281.7000;1.0094;2.3679;
282.0000;1.0102;2.3655;
282.3000;1.0110;2.3679;
282.6000;1.0094;2.3655;
282.9000;1.0085;2.3655;
283.2000;1.0102;2.3631;
283.5000;1.0085;2.3560;
283.8000;1.0037;2.3488;
284.1000;1.0077;2.3631;
284.4000;1.0094;2.3608;
284.7000;1.0085;2.3584;
285.0000;1.0077;2.3536;
285.3000;1.0085;2.3608;
285.6000;1.0085;2.3631;
285.9000;1.0094;2.3655;
286.2000;1.0077;2.3679;
286.5000;1.0077;2.3631;
286.8000;1.0085;2.3751;
287.1000;1.0077;2.3751;
287.4000;1.0085;2.3727;
287.7000;1.0069;2.3679;
288.0000;1.0094;2.3655;
288.3000;1.0085;2.3679;
288.6000;1.0077;2.3608;
288.9000;1.0061;2.3536;
289.2000;1.0118;2.3703;
289.5000;1.0085;2.3631;
289.8000;1.0077;2.3655;
290.1000;1.0077;2.3679;
290.4000;1.0085;2.3727;
290.7000;1.0077;2.3655;
291.0000;1.0077;2.3655;
291.3000;1.0126;2.3822;
291.6000;1.0077;2.3751;
291.9000;1.0061;2.3727;
292.2000;1.0085;2.3846;
292.5000;1.0061;2.3822;
292.8000;1.0069;2.3822;
293.1000;1.0077;2.3894;
293.4000;1.0077;2.3798;
293.7000;1.0085;2.3894;
294.0000;1.0077;2.3870;
294.3000;1.0077;2.3894;
294.6000;1.0085;2.3918;
294.9000;1.0102;2.3846;
295.2000;1.0069;2.3751;
295.5000;1.0077;2.3798;
295.8000;1.0077;2.3894;
296.1000;1.0077;2.3918;
296.4000;1.0126;2.3965;
296.7000;1.0069;2.3870;
297.0000;1.0069;2.3918;
297.3000;1.0094;2.3846;
297.6000;1.0085;2.3822;
297.9000;1.0077;2.3798;
298.2000;1.0077;2.3774;
298.5000;1.0077;2.3822;
298.8000;1.0069;2.3846;
299.1000;1.0085;2.3774;
299.4000;1.0069;2.3751;
299.7000;1.0069;2.3703;
300.0000;1.0094;2.3798;
300.3000;1.0077;2.3703;
300.6000;1.0077;2.3727;
300.9000;1.0110;2.3870;
301.2000;1.0077;2.3798;
301.5000;1.0077;2.3798;
301.8000;1.0069;2.3751;
302.1000;1.0069;2.3798;
302.4000;1.0077;2.3751;
302.7000;1.0077;2.3751;
303.0000;1.0069;2.3703;
303.3000;1.0110;2.3846;
303.6000;1.0085;2.3679;
303.9000;1.0077;2.3655;
304.2000;1.0069;2.3631;
304.5000;1.0077;2.3608;
304.8000;1.0102;2.3631;
305.1000;1.0061;2.3560;
305.4000;1.0061;2.3536;
305.7000;1.0061;2.3536;
306.0000;1.0012;2.3488;
306.3000;1.0094;2.3751;
306.6000;1.0085;2.3679;
306.9000;1.0077;2.3631;
307.2000;1.0045;2.3512;
307.5000;1.0085;2.3608;
307.8000;1.0102;2.3584;
308.1000;1.0077;2.3393;
308.4000;1.0069;2.3369;
308.7000;1.0085;2.3369;
309.0000;1.0077;2.3393;
309.3000;1.0094;2.3321;
309.6000;1.0061;2.3298;
309.9000;1.0077;2.3369;
310.2000;1.0069;2.3393;
310.5000;1.0085;2.3417;
310.8000;1.0118;2.3512;
311.1000;1.0061;2.3464;
311.4000;1.0077;2.3536;
311.7000;1.0069;2.3464;
312.0000;1.0028;2.3417;
312.3000;1.0102;2.3584;
312.6000;1.0061;2.3512;
312.9000;1.0077;2.3608;
313.2000;1.0077;2.3584;
313.5000;1.0077;2.3560;
313.8000;1.0094;2.3584;
314.1000;1.0085;2.3655;
314.4000;1.0061;2.3631;
314.7000;1.0085;2.3560;
315.0000;1.0151;2.3703;
315.3000;1.0102;2.3560;
315.6000;1.0061;2.3488;
315.9000;1.0069;2.3536;
316.2000;1.0077;2.3512;
316.5000;1.0077;2.3512;
316.8000;1.0077;2.3441;
317.1000;1.0077;2.3417;
317.4000;1.0077;2.3393;
317.7000;1.0069;2.3417;
318.0000;1.0069;2.3369;
318.3000;1.0085;2.3441;
318.6000;1.0069;2.3321;
318.9000;1.0085;2.3369;
319.2000;1.0142;2.3512;
319.5000;1.0077;2.3393;
319.8000;1.0077;2.3441;
320.1000;1.0069;2.3393;
320.4000;1.0151;2.3536;
320.7000;1.0069;2.3417;
321.0000;1.0077;2.3464;
321.3000;1.0061;2.3417;
321.6000;1.0085;2.3393;
321.9000;1.0094;2.3488;
322.2000;1.0077;2.3417;
322.5000;1.0085;2.3464;
322.8000;1.0085;2.3441;
323.1000;1.0077;2.3488;
323.4000;1.0077;2.3512;
323.7000;1.0077;2.3441;
324.0000;1.0077;2.3512;
324.3000;1.0094;2.3584;
324.6000;1.0094;2.3560;
324.9000;1.0077;2.3560;
325.2000;1.0045;2.3512;
325.5000;1.0110;2.3631;
325.8000;1.0077;2.3560;
326.1000;1.0102;2.3679;
326.4000;1.0085;2.3655;
326.7000;1.0118;2.3822;
327.0000;1.0069;2.3703;
327.3000;1.0053;2.3655;
327.6000;1.0077;2.3631;
327.9000;1.0102;2.3679;
328.2000;1.0085;2.3679;
328.5000;1.0061;2.3631;
328.8000;1.0061;2.3512;
329.1000;1.0069;2.3584;
329.4000;1.0085;2.3703;
329.7000;1.0069;2.3727;
330.0000;1.0085;2.3727;
330.3000;1.0077;2.3774;
330.6000;1.0077;2.3870;
330.9000;1.0061;2.3774;
331.2000;1.0061;2.3727;
331.5000;1.0069;2.3631;
331.8000;1.0069;2.3655;
332.1000;1.0094;2.3679;
332.4000;1.0077;2.3584;
332.7000;1.0085;2.3584;
333.0000;1.0085;2.3608;
333.3000;1.0094;2.3631;
333.6000;1.0077;2.3560;
333.9000;1.0085;2.3560;
334.2000;1.0085;2.3584;
334.5000;1.0069;2.3608;
334.8000;1.0094;2.3608;
335.1000;1.0077;2.3584;
335.4000;1.0069;2.3608;
335.7000;1.0077;2.3608;
336.0000;1.0061;2.3608;
336.3000;1.0077;2.3679;
336.6000;1.0053;2.3584;
336.9000;1.0077;2.3655;
337.2000;1.0061;2.3584;
337.5000;1.0061;2.3608;
337.8000;1.0061;2.3560;
338.1000;1.0077;2.3655;
338.4000;1.0094;2.3679;
338.7000;1.0069;2.3679;
339.0000;1.0061;2.3631;
339.3000;1.0077;2.3679;
339.6000;1.0069;2.3679;
339.9000;1.0085;2.3774;
340.2000;1.0061;2.3727;
340.5000;1.0094;2.3894;
340.8000;1.0085;2.3870;
341.1000;1.0061;2.3846;
341.4000;1.0028;2.3798;
341.7000;1.0053;2.3894;
342.0000;1.0028;2.3822;
342.3000;1.0053;2.3822;
342.6000;1.0110;2.3870;
342.9000;1.0069;2.3774;
343.2000;1.0085;2.3751;
343.5000;1.0061;2.3703;
343.8000;1.0061;2.3655;
344.1000;1.0069;2.3608;
344.4000;1.0045;2.3584;
344.7000;1.0061;2.3608;
345.0000;1.0069;2.3512;
345.3000;1.0085;2.3608;
345.6000;1.0053;2.3536;
345.9000;1.0077;2.3464;
346.2000;1.0061;2.3464;
346.5000;1.0077;2.3536;
346.8000;1.0053;2.3560;
347.1000;1.0053;2.3560;
347.4000;1.0053;2.3560;
347.7000;1.0061;2.3512;
348.0000;1.0053;2.3441;
348.3000;1.0085;2.3488;
348.6000;1.0069;2.3512;
348.9000;1.0069;2.3560;
349.2000;1.0061;2.3608;
349.5000;1.0077;2.3703;
349.8000;1.0069;2.3751;
350.1000;1.0053;2.3679;
350.4000;1.0045;2.3560;
350.7000;1.0061;2.3655;
351.0000;1.0061;2.3608;
351.3000;1.0061;2.3560;
351.6000;1.0069;2.3560;
351.9000;1.0053;2.3536;
352.2000;1.0061;2.3441;
352.5000;1.0094;2.3512;
352.8000;1.0053;2.3464;
353.1000;1.0069;2.3488;
353.4000;1.0077;2.3464;
353.7000;1.0069;2.3488;
354.0000;1.0069;2.3512;
354.3000;1.0094;2.3608;
354.6000;1.0085;2.3655;
354.9000;1.0094;2.3655;
355.2000;1.0053;2.3631;
355.5000;1.0061;2.3560;
355.8000;1.0045;2.3488;
356.1000;1.0069;2.3488;
356.4000;1.0069;2.3417;
356.7000;1.0045;2.3441;
357.0000;1.0053;2.3512;
357.3000;1.0020;2.3417;
357.6000;1.0077;2.3512;
357.9000;1.0053;2.3488;
358.2000;1.0061;2.3560;
358.5000;1.0045;2.3608;
358.8000;1.0069;2.3584;
359.1000;1.0037;2.3536;
359.4000;1.0053;2.3536;
359.7000;1.0069;2.3536;
360.0000;1.0053;2.3512;
360.3000;1.0053;2.3536;
360.6000;1.0053;2.3488;
360.9000;1.0061;2.3488;
361.2000;1.0061;2.3441;
361.5000;1.0077;2.3464;
361.8000;1.0069;2.3512;
362.1000;1.0061;2.3464;
362.4000;1.0061;2.3417;
362.7000;1.0069;2.3464;
363.0000;1.0061;2.3464;
363.3000;1.0061;2.3441;
363.6000;1.0069;2.3488;
363.9000;1.0085;2.3584;
364.2000;1.0085;2.3608;
364.5000;1.0053;2.3608;
364.8000;1.0069;2.3703;
365.1000;1.0077;2.3798;
365.4000;1.0061;2.3822;
365.7000;1.0053;2.3703;
366.0000;1.0061;2.3608;
366.3000;1.0077;2.3560;
366.6000;1.0069;2.3488;
366.9000;1.0069;2.3441;
367.2000;1.0061;2.3441;
367.5000;1.0085;2.3512;
367.8000;1.0053;2.3464;
368.1000;1.0061;2.3488;
368.4000;1.0069;2.3512;
368.7000;1.0077;2.3560;
369.0000;1.0061;2.3512;
369.3000;1.0069;2.3512;
369.6000;1.0069;2.3560;
369.9000;1.0102;2.3631;
370.2000;1.0085;2.3751;
370.5000;1.0061;2.3727;
370.8000;1.0045;2.3774;
371.1000;1.0053;2.3727;
371.4000;1.0037;2.3655;
371.7000;1.0069;2.3727;
372.0000;1.0045;2.3679;
372.3000;1.0053;2.3631;
372.6000;1.0061;2.3679;
372.9000;1.0069;2.3655;
373.2000;1.0061;2.3560;
373.5000;1.0069;2.3584;
373.8000;1.0077;2.3655;
374.1000;1.0061;2.3631;
374.4000;1.0069;2.3703;
374.7000;1.0077;2.3655;
375.0000;1.0069;2.3655;
375.3000;1.0077;2.3655;
375.6000;1.0061;2.3631;
375.9000;1.0045;2.3536;
376.2000;1.0069;2.3512;
376.5000;1.0061;2.3417;
376.8000;1.0061;2.3393;
377.1000;1.0020;2.3274;
377.4000;1.0069;2.3345;
377.7000;1.0061;2.3298;
378.0000;1.0053;2.3274;
378.3000;1.0045;2.3298;
378.6000;1.0053;2.3298;
378.9000;1.0077;2.3441;
379.2000;1.0069;2.3512;
379.5000;1.0053;2.3488;
379.8000;1.0053;2.3488;
380.1000;1.0077;2.3512;
380.4000;1.0069;2.3512;
380.7000;1.0053;2.3560;
381.0000;1.0037;2.3584;
381.3000;1.0069;2.3655;
381.6000;1.0077;2.3703;
381.9000;1.0053;2.3679;
382.2000;1.0061;2.3703;
382.5000;1.0045;2.3679;
382.8000;1.0045;2.3631;
383.1000;1.0028;2.3584;
383.4000;1.0053;2.3703;
383.7000;1.0061;2.3751;
384.0000;1.0077;2.3679;
384.3000;1.0061;2.3727;
384.6000;1.0077;2.3679;
384.9000;1.0061;2.3631;
385.2000;1.0085;2.3655;
385.5000;1.0077;2.3679;
385.8000;1.0053;2.3584;
386.1000;1.0061;2.3560;
386.4000;1.0053;2.3631;
386.7000;1.0061;2.3536;
387.0000;1.0061;2.3536;
387.3000;1.0045;2.3512;
387.6000;1.0061;2.3584;
387.9000;1.0094;2.3631;
388.2000;1.0028;2.3512;
388.5000;1.0061;2.3512;
388.8000;1.0053;2.3536;
389.1000;1.0077;2.3584;
389.4000;1.0069;2.3560;
389.7000;1.0077;2.3631;
390.0000;1.0061;2.3560;
390.3000;1.0069;2.3608;
390.6000;1.0102;2.3751;
390.9000;1.0061;2.3679;
391.2000;1.0069;2.3703;
391.5000;1.0102;2.3846;
391.8000;1.0061;2.3751;
392.1000;1.0012;2.3584;
392.4000;1.0037;2.3584;
392.7000;1.0037;2.3512;
393.0000;1.0053;2.3536;
393.3000;1.0069;2.3536;
393.6000;1.0053;2.3441;
393.9000;1.0045;2.3345;
394.2000;1.0069;2.3345;
394.5000;1.0061;2.3393;
394.8000;1.0053;2.3369;
395.1000;1.0061;2.3441;
395.4000;1.0069;2.3393;
395.7000;1.0061;2.3417;
396.0000;1.0094;2.3536;
396.3000;1.0061;2.3393;
396.6000;1.0053;2.3536;
396.9000;1.0061;2.3512;
397.2000;1.0053;2.3441;
397.5000;1.0037;2.3369;
397.8000;1.0045;2.3369;
398.1000;1.0118;2.3512;
398.4000;1.0077;2.3345;
398.7000;1.0053;2.3369;
399.0000;1.0037;2.3321;
399.3000;1.0053;2.3369;
399.6000;1.0053;2.3321;
399.9000;1.0037;2.3274;
400.2000;1.0061;2.3417;
400.5000;1.0053;2.3464;
400.8000;1.0069;2.3560;
401.1000;1.0069;2.3631;
401.4000;1.0061;2.3655;
401.7000;1.0053;2.3608;
402.0000;1.0061;2.3584;
402.3000;1.0053;2.3512;
402.6000;1.0061;2.3488;
402.9000;1.0053;2.3464;
403.2000;1.0045;2.3441;
403.5000;1.0053;2.3512;
403.8000;1.0094;2.3560;
404.1000;1.0053;2.3369;
404.4000;1.0069;2.3393;
404.7000;1.0053;2.3417;
405.0000;1.0053;2.3441;
405.3000;1.0061;2.3536;
405.6000;1.0094;2.3631;
405.9000;1.0053;2.3488;
406.2000;1.0061;2.3441;
406.5000;1.0053;2.3345;
406.8000;1.0053;2.3321;
407.1000;1.0028;2.3274;
407.4000;1.0045;2.3321;
407.7000;1.0045;2.3321;
408.0000;1.0045;2.3298;
408.3000;1.0061;2.3417;
408.6000;1.0053;2.3345;
408.9000;1.0053;2.3369;
409.2000;1.0102;2.3536;
409.5000;1.0053;2.3393;
409.8000;1.0045;2.3488;
410.1000;1.0028;2.3512;
410.4000;1.0053;2.3608;
410.7000;1.0053;2.3584;
411.0000;1.0037;2.3608;
411.3000;1.0045;2.3608;
411.6000;1.0028;2.3512;
411.9000;1.0045;2.3584;
412.2000;1.0045;2.3560;
412.5000;1.0045;2.3584;
412.8000;1.0037;2.3536;
413.1000;1.0037;2.3584;
413.4000;1.0094;2.3655;
413.7000;1.0045;2.3512;
414.0000;1.0037;2.3441;
414.3000;1.0053;2.3488;
414.6000;1.0053;2.3417;
414.9000;1.0061;2.3393;
415.2000;1.0053;2.3417;
415.5000;1.0061;2.3393;
415.8000;1.0069;2.3417;
416.1000;1.0045;2.3321;
416.4000;1.0061;2.3321;
416.7000;1.0045;2.3250;
417.0000;1.0053;2.3321;
417.3000;1.0061;2.3417;
417.6000;1.0037;2.3321;
417.9000;1.0037;2.3393;
418.2000;1.0053;2.3393;
418.5000;1.0053;2.3393;
418.8000;1.0061;2.3464;
419.1000;1.0053;2.3536;
419.4000;1.0061;2.3512;
419.7000;1.0069;2.3536;
420.0000;1.0061;2.3536;
420.3000;1.0037;2.3441;
420.6000;1.0045;2.3464;
420.9000;1.0045;2.3369;
421.2000;1.0061;2.3488;
421.5000;1.0069;2.3441;
421.8000;1.0061;2.3464;
422.1000;1.0118;2.3608;
422.4000;1.0077;2.3488;
422.7000;1.0045;2.3417;
423.0000;1.0061;2.3417;
423.3000;1.0053;2.3536;
423.6000;1.0053;2.3488;
423.9000;1.0069;2.3536;
424.2000;1.0037;2.3536;
424.5000;1.0061;2.3584;
424.8000;1.0069;2.3560;
425.1000;1.0077;2.3536;
425.4000;1.0061;2.3417;
425.7000;1.0053;2.3393;
426.0000;1.0069;2.3369;
426.3000;1.0077;2.3369;
426.6000;1.0045;2.3250;
426.9000;1.0061;2.3393;
427.2000;1.0061;2.3393;
427.5000;1.0077;2.3417;
427.8000;1.0045;2.3441;
428.1000;1.0045;2.3464;
428.4000;1.0094;2.3584;
428.7000;1.0077;2.3512;
429.0000;1.0069;2.3488;
429.3000;1.0045;2.3536;
429.6000;1.0045;2.3560;
429.9000;1.0053;2.3560;
430.2000;1.0061;2.3464;
430.5000;1.0053;2.3417;
430.8000;0.9988;2.3393;
431.1000;1.0012;2.3488;
431.4000;1.0053;2.3608;
431.7000;1.0053;2.3560;
432.0000;1.0053;2.3536;
432.3000;1.0045;2.3536;
432.6000;1.0053;2.3679;
432.9000;1.0053;2.3631;
433.2000;1.0037;2.3560;
433.5000;1.0037;2.3631;
433.8000;1.0053;2.3727;
434.1000;1.0045;2.3679;
434.4000;1.0045;2.3631;
434.7000;1.0037;2.3536;
435.0000;1.0045;2.3560;
435.3000;1.0053;2.3631;
435.6000;1.0061;2.3631;
435.9000;1.0045;2.3655;
436.2000;1.0053;2.3608;
436.5000;1.0053;2.3679;
436.8000;1.0053;2.3703;
437.1000;1.0061;2.3798;
437.4000;1.0045;2.3727;
437.7000;1.0061;2.3655;
438.0000;1.0053;2.3536;
438.3000;1.0045;2.3560;
438.6000;1.0045;2.3584;
438.9000;1.0037;2.3536;
439.2000;1.0045;2.3560;
439.5000;1.0037;2.3560;
439.8000;1.0020;2.3512;
440.1000;1.0045;2.3631;
440.4000;1.0061;2.3655;
440.7000;1.0045;2.3655;
441.0000;1.0037;2.3655;
441.3000;1.0037;2.3608;
441.6000;1.0061;2.3560;
441.9000;1.0045;2.3655;
442.2000;1.0069;2.3679;
442.5000;1.0028;2.3488;
442.8000;1.0053;2.3608;
443.1000;1.0053;2.3584;
443.4000;1.0037;2.3608;
443.7000;1.0045;2.3679;
444.0000;1.0061;2.3655;
444.3000;1.0045;2.3512;
444.6000;1.0045;2.3512;
444.9000;1.0045;2.3584;
445.2000;1.0045;2.3631;
445.5000;1.0053;2.3679;
445.8000;1.0061;2.3608;
446.1000;1.0053;2.3536;
446.4000;1.0045;2.3608;
446.7000;1.0053;2.3608;
447.0000;1.0053;2.3631;
447.3000;1.0069;2.3679;
447.6000;1.0045;2.3679;
447.9000;1.0053;2.3703;
448.2000;1.0012;2.3560;
448.5000;1.0045;2.3631;
448.8000;1.0053;2.3655;
449.1000;1.0053;2.3679;
449.4000;1.0061;2.3774;
449.7000;1.0053;2.3679;
450.0000;1.0053;2.3727;
450.3000;1.0045;2.3703;
450.6000;1.0069;2.3703;
450.9000;1.0037;2.3655;
451.2000;1.0045;2.3655;
451.5000;1.0045;2.3774;
451.8000;1.0045;2.3703;
452.1000;1.0045;2.3727;
452.4000;0.9996;2.3751;
452.7000;1.0045;2.3727;
453.0000;1.0085;2.3703;
453.3000;1.0028;2.3441;
453.6000;1.0028;2.3393;
453.9000;1.0037;2.3464;
454.2000;1.0045;2.3488;
454.5000;1.0028;2.3464;
454.8000;1.0028;2.3464;
455.1000;1.0020;2.3488;
455.4000;1.0053;2.3560;
455.7000;1.0037;2.3655;
456.0000;1.0012;2.3608;
456.3000;1.0020;2.3703;
456.6000;1.0061;2.3751;
456.9000;1.0045;2.3608;
457.2000;1.0037;2.3536;
457.5000;1.0069;2.3584;
457.8000;1.0053;2.3512;
458.1000;1.0045;2.3608;
458.4000;1.0094;2.3703;
458.7000;1.0053;2.3679;
459.0000;1.0028;2.3679;
459.3000;1.0045;2.3679;
459.6000;1.0028;2.3536;
459.9000;1.0037;2.3512;
460.2000;1.0094;2.3703;
460.5000;1.0053;2.3560;
460.8000;1.0045;2.3560;
461.1000;1.0053;2.3608;
461.4000;1.0012;2.3608;
461.7000;1.0061;2.3822;
462.0000;1.0061;2.3798;
462.3000;1.0037;2.3703;
462.6000;1.0028;2.3679;
462.9000;1.0045;2.3751;
463.2000;1.0037;2.3751;
463.5000;1.0053;2.3870;
463.8000;1.0028;2.3703;
464.1000;1.0037;2.3631;
464.4000;1.0045;2.3584;
464.7000;1.0037;2.3655;
465.0000;1.0037;2.3655;
465.3000;1.0061;2.3727;
465.6000;1.0053;2.3631;
465.9000;1.0053;2.3608;
466.2000;1.0012;2.3631;
466.5000;1.0053;2.3631;
466.8000;1.0061;2.3584;
467.1000;1.0045;2.3584;
467.4000;1.0053;2.3655;
467.7000;1.0045;2.3584;
468.0000;1.0061;2.3679;
468.3000;1.0053;2.3703;
468.6000;1.0053;2.3727;
468.9000;1.0045;2.3727;
469.2000;1.0037;2.3751;
469.5000;1.0053;2.3727;
469.8000;1.0045;2.3703;
470.1000;1.0053;2.3679;
470.4000;1.0053;2.3655;
470.7000;1.0061;2.3703;
471.0000;1.0053;2.3822;
471.3000;1.0020;2.3774;
471.6000;1.0045;2.3798;
471.9000;1.0037;2.3846;
472.2000;1.0053;2.3846;
472.5000;1.0045;2.3894;
472.8000;1.0037;2.3918;
473.1000;1.0037;2.3870;
473.4000;1.0069;2.3918;
473.7000;1.0045;2.3894;
474.0000;1.0037;2.3822;
474.3000;1.0045;2.3822;
474.6000;1.0045;2.3822;
474.9000;1.0012;2.3751;
475.2000;1.0028;2.3774;
475.5000;1.0045;2.3774;
475.8000;1.0045;2.3751;
476.1000;1.0069;2.3822;
476.4000;1.0045;2.3703;
476.7000;1.0012;2.3655;
477.0000;1.0069;2.3727;
477.3000;1.0061;2.3679;
477.6000;1.0037;2.3679;
477.9000;1.0028;2.3655;
478.2000;1.0045;2.3774;
478.5000;1.0053;2.3846;
478.8000;1.0020;2.3751;
479.1000;1.0028;2.3727;
479.4000;1.0045;2.3703;
479.7000;1.0037;2.3751;
480.0000;1.0028;2.3703;
480.3000;1.0069;2.3703;
480.6000;1.0028;2.3655;
480.9000;1.0037;2.3703;
481.2000;1.0061;2.3751;
481.5000;1.0012;2.3679;
481.8000;1.0045;2.3703;
482.1000;1.0053;2.3751;
482.4000;1.0020;2.3703;
482.7000;1.0028;2.3655;
483.0000;1.0020;2.3631;
483.3000;1.0020;2.3608;
483.6000;1.0004;2.3584;
483.9000;1.0045;2.3631;
484.2000;1.0037;2.3655;
484.5000;1.0037;2.3655;
484.8000;1.0037;2.3727;
485.1000;1.0037;2.3822;
485.4000;1.0028;2.3798;
485.7000;1.0045;2.3751;
486.0000;1.0028;2.3703;
486.3000;1.0045;2.3679;
486.6000;1.0045;2.3679;
486.9000;1.0037;2.3727;
487.2000;1.0028;2.3774;
487.5000;1.0053;2.3822;
487.8000;1.0037;2.3822;
488.1000;1.0045;2.3846;
488.4000;1.0037;2.3894;
488.7000;1.0037;2.3870;
489.0000;1.0037;2.3894;
489.3000;1.0037;2.3822;
489.6000;1.0045;2.3894;
489.9000;1.0028;2.3870;
490.2000;1.0045;2.3774;
490.5000;1.0045;2.3727;
490.8000;1.0037;2.3727;
491.1000;1.0037;2.3751;
491.4000;1.0037;2.3727;
491.7000;1.0045;2.3727;
492.0000;0.9988;2.3655;
492.3000;1.0045;2.3846;
492.6000;1.0037;2.3798;
492.9000;1.0053;2.3798;
493.2000;1.0053;2.3751;
493.5000;1.0053;2.3798;
493.8000;1.0045;2.3751;
494.1000;1.0028;2.3751;
494.4000;1.0028;2.3774;
494.7000;1.0012;2.3679;
495.0000;1.0012;2.3655;
495.3000;1.0028;2.3727;
495.6000;1.0053;2.3727;
495.9000;1.0037;2.3727;
496.2000;1.0045;2.3751;
496.5000;0.9996;2.3631;
496.8000;1.0053;2.3727;
497.1000;1.0037;2.3679;
497.4000;0.9988;2.3512;
497.7000;1.0061;2.3727;
498.0000;1.0045;2.3751;
498.3000;1.0045;2.3751;
498.6000;1.0037;2.3798;
498.9000;1.0069;2.3894;
499.2000;1.0004;2.3774;
499.5000;1.0061;2.3846;
499.8000;1.0028;2.3774;
500.1000;1.0037;2.3703;
500.4000;1.0053;2.3512;
500.7000;1.0037;2.3560;
501.0000;0.9988;2.3560;
501.3000;1.0053;2.3751;
501.6000;1.0045;2.3751;
501.9000;1.0045;2.3679;
502.2000;1.0037;2.3751;
502.5000;1.0012;2.3655;
502.8000;1.0037;2.3679;
503.1000;1.0037;2.3608;
503.4000;1.0037;2.3560;
503.7000;1.0045;2.3608;
504.0000;1.0061;2.3703;
504.3000;1.0037;2.3679;
504.6000;1.0053;2.3679;
504.9000;1.0028;2.3655;
505.2000;1.0045;2.3679;
505.5000;1.0045;2.3774;
505.8000;1.0020;2.3703;
506.1000;1.0004;2.3655;
506.4000;1.0012;2.3655;
506.7000;1.0028;2.3727;
507.0000;1.0037;2.3703;
507.3000;1.0028;2.3703;
507.6000;1.0045;2.3679;
507.9000;1.0053;2.3679;
508.2000;1.0045;2.3584;
508.5000;1.0037;2.3631;
508.8000;1.0037;2.3631;
509.1000;1.0037;2.3631;
509.4000;1.0037;2.3679;
509.7000;1.0037;2.3631;
510.0000;1.0020;2.3655;
510.3000;1.0037;2.3679;
510.6000;1.0028;2.3703;
510.9000;1.0028;2.3703;
511.2000;1.0028;2.3751;
511.5000;1.0028;2.3703;
511.8000;1.0037;2.3727;
512.1000;1.0028;2.3703;
512.4000;1.0028;2.3703;
512.7000;1.0037;2.3679;
513.0000;1.0094;2.3751;
513.3000;1.0028;2.3703;
513.6000;1.0020;2.3703;
513.9000;1.0012;2.3631;
514.2000;1.0037;2.3608;
514.5000;1.0037;2.3536;
514.8000;1.0004;2.3512;
515.1000;1.0037;2.3584;
515.4000;1.0020;2.3679;
515.7000;1.0037;2.3751;
516.0000;1.0020;2.3727;
516.3000;1.0012;2.3751;
516.6000;1.0020;2.3679;
516.9000;0.9988;2.3608;
517.2000;1.0037;2.3751;
517.5000;1.0012;2.3751;
517.8000;1.0037;2.3918;
518.1000;1.0037;2.3918;
518.4000;1.0037;2.3846;
518.7000;1.0028;2.3822;
519.0000;1.0102;2.3965;
519.3000;1.0053;2.3679;
519.6000;1.0037;2.3608;
519.9000;1.0020;2.3536;
520.2000;0.9972;2.3441;
520.5000;1.0053;2.3679;
520.8000;1.0028;2.3560;
521.1000;1.0110;2.3870;
521.4000;1.0061;2.3751;
521.7000;1.0053;2.3751;
522.0000;1.0045;2.3727;
522.3000;0.9996;2.3679;
522.6000;0.9972;2.3631;
522.9000;1.0037;2.3703;
523.2000;1.0085;2.3798;
523.5000;1.0012;2.3703;
523.8000;1.0045;2.3870;
524.1000;1.0037;2.3941;
524.4000;1.0053;2.4037;
524.7000;1.0053;2.4037;
525.0000;1.0020;2.3846;
525.3000;1.0037;2.3846;
525.6000;1.0028;2.3918;
525.9000;1.0037;2.3822;
526.2000;1.0028;2.3846;
526.5000;1.0037;2.3822;
526.8000;1.0028;2.3751;
527.1000;1.0037;2.3822;
527.4000;1.0028;2.3870;
527.7000;1.0037;2.3822;
528.0000;0.9996;2.3798;
528.3000;1.0045;2.3894;
528.6000;1.0028;2.3822;
528.9000;1.0077;2.3918;
529.2000;1.0020;2.3751;
529.5000;1.0020;2.3774;
529.8000;1.0028;2.3798;
530.1000;1.0012;2.3727;
530.4000;1.0028;2.3751;
530.7000;1.0037;2.3822;
531.0000;1.0045;2.3822;
531.3000;0.9996;2.3655;
531.6000;1.0037;2.3703;
531.9000;1.0094;2.3846;
532.2000;1.0020;2.3679;
532.5000;1.0020;2.3703;
532.8000;1.0020;2.3774;
533.1000;1.0020;2.3679;
533.4000;1.0012;2.3727;
533.7000;1.0037;2.3774;
534.0000;1.0012;2.3774;
534.3000;1.0012;2.3774;
534.6000;1.0037;2.3751;
534.9000;1.0037;2.3751;
535.2000;1.0020;2.3751;
535.5000;1.0028;2.3822;
535.8000;1.0020;2.3798;
536.1000;1.0053;2.3894;
536.4000;1.0020;2.3822;
536.7000;1.0020;2.3774;
537.0000;1.0012;2.3798;
537.3000;1.0028;2.3774;
537.6000;1.0012;2.3727;
537.9000;1.0037;2.3846;
538.2000;0.9996;2.3727;
538.5000;1.0028;2.3798;
538.8000;1.0012;2.3822;
539.1000;1.0037;2.3894;
539.4000;1.0028;2.3870;
539.7000;1.0028;2.3798;
540.0000;1.0020;2.3822;
540.3000;1.0045;2.3846;
540.6000;1.0037;2.3703;
540.9000;1.0020;2.3703;
541.2000;1.0028;2.3727;
541.5000;1.0020;2.3774;
541.8000;1.0012;2.3798;
542.1000;0.9988;2.3774;
542.4000;1.0028;2.3870;
542.7000;1.0004;2.3822;
543.0000;1.0028;2.3822;
543.3000;1.0028;2.3798;
543.6000;1.0020;2.3774;
543.9000;0.9963;2.3703;
544.2000;1.0037;2.3798;
544.5000;1.0012;2.3798;
544.8000;1.0020;2.3751;
545.1000;1.0028;2.3751;
545.4000;1.0004;2.3679;
545.7000;1.0028;2.3727;
546.0000;1.0020;2.3774;
546.3000;1.0028;2.3774;
546.6000;0.9947;2.3441;
546.9000;1.0028;2.3655;
547.2000;1.0028;2.3608;
547.5000;1.0061;2.3608;
547.8000;0.9988;2.3464;
548.1000;1.0028;2.3560;
548.4000;1.0028;2.3464;
548.7000;1.0028;2.3512;
549.0000;1.0020;2.3464;
549.3000;1.0020;2.3417;
549.6000;1.0012;2.3464;
549.9000;1.0053;2.3536;
550.2000;1.0028;2.3512;
550.5000;1.0028;2.3488;
550.8000;1.0020;2.3488;
551.1000;1.0028;2.3536;
551.4000;1.0045;2.3584;
551.7000;1.0028;2.3536;
552.0000;1.0020;2.3560;
552.3000;0.9963;2.3464;
552.6000;0.9996;2.3608;
552.9000;1.0020;2.3536;
553.2000;1.0053;2.3655;
553.5000;0.9996;2.3488;
553.8000;1.0020;2.3512;
554.1000;1.0037;2.3512;
554.4000;1.0012;2.3512;
554.7000;1.0028;2.3536;
555.0000;1.0028;2.3536;
555.3000;1.0037;2.3464;
555.6000;1.0069;2.3464;
555.9000;0.9988;2.3321;
556.2000;1.0037;2.3441;
556.5000;1.0012;2.3441;
556.8000;1.0028;2.3441;
557.1000;1.0020;2.3393;
557.4000;1.0012;2.3441;
557.7000;1.0037;2.3464;
558.0000;1.0037;2.3417;
558.3000;1.0020;2.3417;
558.6000;1.0037;2.3464;
558.9000;1.0037;2.3393;
559.2000;1.0012;2.3488;
559.5000;1.0028;2.3512;
559.8000;1.0028;2.3631;
560.1000;0.9972;2.3512;
560.4000;1.0028;2.3679;
560.7000;1.0028;2.3679;
561.0000;1.0012;2.3608;
561.3000;1.0020;2.3560;
561.6000;1.0020;2.3608;
561.9000;1.0020;2.3631;
562.2000;1.0028;2.3631;
562.5000;1.0012;2.3608;
562.8000;1.0037;2.3679;
563.1000;1.0004;2.3560;
563.4000;1.0020;2.3512;
563.7000;1.0020;2.3464;
564.0000;1.0028;2.3560;
564.3000;1.0020;2.3584;
564.6000;1.0020;2.3560;
564.9000;1.0037;2.3631;
565.2000;1.0028;2.3631;
565.5000;1.0012;2.3560;
565.8000;1.0037;2.3727;
566.1000;1.0012;2.3631;
566.4000;1.0020;2.3584;
566.7000;1.0020;2.3655;
567.0000;1.0012;2.3727;
567.3000;1.0020;2.3727;
567.6000;1.0053;2.3751;
567.9000;1.0020;2.3774;
568.2000;1.0020;2.3822;
568.5000;1.0037;2.3918;
568.8000;1.0037;2.3918;
569.1000;0.9996;2.3774;
569.4000;1.0020;2.3870;
569.7000;1.0012;2.3822;
570.0000;1.0012;2.3774;
570.3000;1.0012;2.3751;
570.6000;1.0045;2.3846;
570.9000;1.0028;2.3798;
571.2000;0.9996;2.3798;
571.5000;0.9980;2.3798;
571.8000;1.0037;2.3846;
572.1000;1.0020;2.3822;
572.4000;0.9996;2.3727;
572.7000;1.0020;2.3655;
573.0000;1.0037;2.3727;
573.3000;0.9988;2.3608;
573.6000;1.0012;2.3655;
573.9000;1.0028;2.3608;
574.2000;1.0012;2.3631;
574.5000;1.0028;2.3584;
574.8000;1.0020;2.3631;
575.1000;1.0020;2.3631;
575.4000;1.0053;2.3703;
575.7000;1.0037;2.3703;
576.0000;1.0012;2.3655;
576.3000;1.0045;2.3774;
576.6000;1.0012;2.3727;
576.9000;1.0028;2.3774;
577.2000;1.0085;2.3894;
577.5000;1.0020;2.3679;
577.8000;1.0037;2.3679;
578.1000;1.0037;2.3655;
578.4000;1.0094;2.3727;
578.7000;1.0020;2.3536;
579.0000;0.9923;2.3345;
579.3000;1.0028;2.3631;
579.6000;1.0037;2.3703;
579.9000;1.0020;2.3822;
580.2000;1.0061;2.3918;
580.5000;1.0028;2.3870;
580.8000;1.0037;2.3894;
581.1000;1.0020;2.3894;
581.4000;1.0028;2.3918;
581.7000;1.0020;2.3894;
582.0000;1.0020;2.3918;
582.3000;1.0004;2.3941;
582.6000;1.0012;2.3870;
582.9000;1.0004;2.3774;
583.2000;1.0028;2.3703;
583.5000;1.0020;2.3655;
583.8000;1.0028;2.3655;
584.1000;1.0020;2.3679;
584.4000;1.0020;2.3608;
584.7000;1.0012;2.3631;
585.0000;0.9996;2.3584;
585.3000;1.0012;2.3608;
585.6000;1.0020;2.3655;
585.9000;1.0037;2.3774;
586.2000;1.0004;2.3751;
586.5000;1.0012;2.3774;
586.8000;1.0020;2.3751;
587.1000;1.0004;2.3846;
587.4000;1.0004;2.3894;
587.7000;0.9996;2.3846;
588.0000;1.0012;2.3870;
588.3000;1.0028;2.3822;
588.6000;1.0037;2.3822;
588.9000;1.0028;2.3774;
589.2000;1.0037;2.3751;
589.5000;1.0053;2.3822;
589.8000;1.0037;2.3727;
590.1000;1.0037;2.3703;
590.4000;0.9996;2.3679;
590.7000;0.9988;2.3655;
591.0000;1.0012;2.3751;
591.3000;0.9988;2.3703;
591.6000;1.0012;2.3751;
591.9000;1.0037;2.3822;
592.2000;0.9963;2.3727;
592.5000;1.0004;2.3822;
592.8000;0.9996;2.3727;
593.1000;1.0020;2.3679;
593.4000;0.9996;2.3631;
593.7000;1.0037;2.3727;
594.0000;1.0004;2.3655;
594.3000;1.0069;2.3822;
594.6000;1.0012;2.3679;
594.9000;1.0004;2.3631;
595.2000;0.9947;2.3512;
595.5000;1.0004;2.3608;
595.8000;1.0028;2.3608;
596.1000;1.0012;2.3631;
596.4000;1.0004;2.3703;
596.7000;1.0012;2.3798;
597.0000;1.0020;2.3798;
597.3000;1.0012;2.3822;
597.6000;1.0012;2.3870;
597.9000;1.0020;2.3870;
598.2000;1.0037;2.3822;
598.5000;1.0020;2.3751;
598.8000;0.9996;2.3822;
599.1000;1.0020;2.3846;
599.4000;1.0012;2.3894;
599.7000;1.0020;2.3894;
600.0000;1.0020;2.3894;
600.3000;1.0020;2.3751;
600.6000;0.9988;2.3584;
600.9000;0.9963;2.3369;
601.2000;0.9874;2.3083;
601.5000;0.9768;2.2844;
601.8000;0.9695;2.2630;
602.1000;0.9597;2.2344;
602.4000;0.9524;2.2248;
602.7000;0.9385;2.2010;
603.0000;0.9337;2.1914;
603.3000;0.9288;2.1771;
603.6000;0.9223;2.1628;
603.9000;0.9166;2.1438;
604.2000;0.9092;2.1366;
604.5000;0.9060;2.1247;
604.8000;0.8995;2.1175;
605.1000;0.8946;2.1151;
605.4000;0.8889;2.1008;
605.7000;0.8848;2.0984;
606.0000;0.8767;2.0818;
606.3000;0.8775;2.0770;
606.6000;0.8726;2.0674;
606.9000;0.8685;2.0603;
607.2000;0.8628;2.0531;
607.5000;0.8596;2.0484;
607.8000;0.8506;2.0245;
608.1000;0.8531;2.0388;
608.4000;0.8474;2.0269;
608.7000;0.8449;2.0269;
609.0000;0.8400;2.0150;
609.3000;0.8392;2.0102;
609.6000;0.8352;2.0078;
609.9000;0.8327;2.0078;
610.2000;0.8311;2.0102;
610.5000;0.8270;2.0031;
610.8000;0.8230;2.0007;
611.1000;0.8197;1.9959;
611.4000;0.8197;2.0007;
611.7000;0.8164;1.9935;
612.0000;0.8148;1.9959;
612.3000;0.8107;1.9888;
612.6000;0.8099;1.9888;
612.9000;0.8107;1.9935;
613.2000;0.8018;1.9697;
613.5000;0.7985;1.9601;
613.8000;0.7993;1.9673;
614.1000;0.7985;1.9697;
614.4000;0.7920;1.9554;
614.7000;0.7920;1.9506;
615.0000;0.7912;1.9458;
615.3000;0.7871;1.9434;
615.6000;0.7863;1.9411;
615.9000;0.7814;1.9339;
616.2000;0.7823;1.9411;
616.5000;0.7806;1.9506;
616.8000;0.7774;1.9554;
617.1000;0.7757;1.9625;
617.4000;0.7733;1.9649;
617.7000;0.7717;1.9554;
618.0000;0.7684;1.9458;
618.3000;0.7676;1.9482;
618.6000;0.7684;1.9482;
618.9000;0.7684;1.9578;
619.2000;0.7652;1.9458;
619.5000;0.7635;1.9434;
619.8000;0.7595;1.9339;
620.1000;0.7611;1.9268;
620.4000;0.7595;1.9172;
620.7000;0.7578;1.9101;
621.0000;0.7546;1.9053;
621.3000;0.7530;1.9053;
621.6000;0.7554;1.9196;
621.9000;0.7505;1.9148;
622.2000;0.7505;1.9268;
622.5000;0.7456;1.9220;
622.8000;0.7481;1.9315;
623.1000;0.7456;1.9315;
623.4000;0.7391;1.9148;
623.7000;0.7440;1.9268;
624.0000;0.7424;1.9291;
624.3000;0.7432;1.9387;
624.6000;0.7399;1.9434;
624.9000;0.7383;1.9458;
625.2000;0.7391;1.9506;
625.5000;0.7375;1.9387;
625.8000;0.7367;1.9411;
626.1000;0.7350;1.9339;
626.4000;0.7334;1.9363;
626.7000;0.7334;1.9339;
627.0000;0.7326;1.9268;
627.3000;0.7318;1.9220;
627.6000;0.7310;1.9244;
627.9000;0.7285;1.9291;
628.2000;0.7310;1.9339;
628.5000;0.7261;1.9244;
628.8000;0.7245;1.9244;
629.1000;0.7277;1.9315;
629.4000;0.7236;1.9172;
629.7000;0.7228;1.9124;
630.0000;0.7253;1.9220;
630.3000;0.7220;1.9220;
630.6000;0.7212;1.9244;
630.9000;0.7188;1.9172;
631.2000;0.7147;1.8981;
631.5000;0.7179;1.9172;
631.8000;0.7188;1.9244;
632.1000;0.7155;1.9291;
632.4000;0.7163;1.9268;
632.7000;0.7155;1.9220;
633.0000;0.7114;1.9220;
633.3000;0.7131;1.9172;
633.6000;0.7131;1.9196;
633.9000;0.7114;1.9148;
634.2000;0.7123;1.9196;
634.5000;0.7106;1.9148;
634.8000;0.7082;1.9005;
635.1000;0.7090;1.9029;
635.4000;0.7090;1.9101;
635.7000;0.7082;1.9148;
636.0000;0.7066;1.9172;
636.3000;0.7074;1.9148;
636.6000;0.7074;1.9196;
636.9000;0.7057;1.9244;
637.2000;0.7066;1.9339;
637.5000;0.7033;1.9291;
637.8000;0.7017;1.9196;
638.1000;0.7049;1.9268;
638.4000;0.7009;1.9172;
638.7000;0.6992;1.9124;
639.0000;0.7000;1.9077;
639.3000;0.7009;1.9101;
639.6000;0.7000;1.9077;
639.9000;0.6968;1.8981;
640.2000;0.6960;1.9029;
640.5000;0.7017;1.9148;
640.8000;0.6968;1.9101;
641.1000;0.6960;1.9124;
641.4000;0.6943;1.9101;
641.7000;0.6935;1.9148;
642.0000;0.6943;1.9172;
642.3000;0.6935;1.9101;
642.6000;0.6927;1.9029;
642.9000;0.6919;1.9124;
643.2000;0.6927;1.9077;
643.5000;0.6960;1.9124;
643.8000;0.6911;1.8981;
644.1000;0.6895;1.8934;
644.4000;0.6886;1.8934;
644.7000;0.6878;1.8958;
645.0000;0.6870;1.8934;
645.3000;0.6862;1.8958;
645.6000;0.6878;1.9029;
645.9000;0.6870;1.9053;
646.2000;0.6862;1.8958;
646.5000;0.6846;1.9005;
646.8000;0.6862;1.9053;
647.1000;0.6846;1.9077;
647.4000;0.6846;1.9196;
647.7000;0.6838;1.9220;
648.0000;0.6838;1.9220;
648.3000;0.6854;1.9268;
648.6000;0.6854;1.9268;
648.9000;0.6813;1.9196;
649.2000;0.6813;1.9148;
649.5000;0.6813;1.9196;
649.8000;0.6829;1.9196;
650.1000;0.6821;1.9148;
650.4000;0.6781;1.9053;
650.7000;0.6821;1.9148;
651.0000;0.6789;1.9053;
651.3000;0.6781;1.8981;
651.6000;0.6781;1.8886;
651.9000;0.6772;1.8910;
652.2000;0.6797;1.8958;
652.5000;0.6764;1.8910;
652.8000;0.6756;1.8814;
653.1000;0.6764;1.8934;
653.4000;0.6756;1.9053;
653.7000;0.6740;1.9053;
654.0000;0.6675;1.8910;
654.3000;0.6716;1.9005;
654.6000;0.6724;1.9101;
654.9000;0.6732;1.9124;
655.2000;0.6699;1.9101;
655.5000;0.6716;1.9124;
655.8000;0.6707;1.9244;
656.1000;0.6724;1.9244;
656.4000;0.6699;1.9244;
656.7000;0.6716;1.9196;
657.0000;0.6659;1.9029;
657.3000;0.6691;1.9124;
657.6000;0.6691;1.9148;
657.9000;0.6683;1.9220;
658.2000;0.6675;1.9244;
658.5000;0.6642;1.9124;
658.8000;0.6667;1.9196;
659.1000;0.6675;1.9196;
659.4000;0.6667;1.9196;
659.7000;0.6650;1.9124;
660.0000;0.6659;1.9268;
660.3000;0.6667;1.9291;
660.6000;0.6642;1.9244;
660.9000;0.6650;1.9291;
661.2000;0.6650;1.9268;
661.5000;0.6593;1.9220;
661.8000;0.6602;1.9220;
662.1000;0.6659;1.9268;
662.4000;0.6569;1.9053;
662.7000;0.6650;1.9148;
663.0000;0.6626;1.9053;
663.3000;0.6602;1.8958;
663.6000;0.6626;1.8934;
663.9000;0.6618;1.8862;
664.2000;0.6610;1.8910;
664.5000;0.6602;1.8910;
664.8000;0.6593;1.8838;
665.1000;0.6593;1.8910;
665.4000;0.6585;1.8862;
665.7000;0.6545;1.8791;
666.0000;0.6593;1.8958;
666.3000;0.6585;1.8934;
666.6000;0.6593;1.9077;
666.9000;0.6569;1.9053;
667.2000;0.6577;1.9053;
667.5000;0.6585;1.9148;
667.8000;0.6577;1.9101;
668.1000;0.6553;1.9077;
668.4000;0.6561;1.9148;
668.7000;0.6561;1.9196;
669.0000;0.6545;1.9172;
669.3000;0.6504;1.9029;
669.6000;0.6545;1.9077;
669.9000;0.6545;1.9029;
670.2000;0.6488;1.8862;
670.5000;0.6496;1.8910;
670.8000;0.6536;1.9005;
671.1000;0.6536;1.9077;
671.4000;0.6577;1.9244;
671.7000;0.6536;1.9029;
672.0000;0.6528;1.8958;
672.3000;0.6520;1.8958;
672.6000;0.6536;1.8910;
672.9000;0.6545;1.8934;
673.2000;0.6512;1.8910;
673.5000;0.6512;1.8910;
673.8000;0.6512;1.8886;
674.1000;0.6528;1.8958;
674.4000;0.6488;1.8910;
674.7000;0.6512;1.8862;
675.0000;0.6496;1.8838;
675.3000;0.6504;1.8910;
675.6000;0.6488;1.8934;
675.9000;0.6471;1.8886;
676.2000;0.6488;1.8910;
676.5000;0.6496;1.8958;
676.8000;0.6471;1.8910;
677.1000;0.6479;1.8981;
677.4000;0.6479;1.8981;
677.7000;0.6504;1.9101;
678.0000;0.6479;1.9220;
678.3000;0.6455;1.9220;
678.6000;0.6463;1.9220;
678.9000;0.6431;1.9124;
679.2000;0.6463;1.9172;
679.5000;0.6447;1.9172;
679.8000;0.6439;1.9196;
680.1000;0.6455;1.9220;
680.4000;0.6439;1.9148;
680.7000;0.6439;1.9124;
681.0000;0.6422;1.9148;
681.3000;0.6439;1.9172;
681.6000;0.6422;1.9148;
681.9000;0.6406;1.9101;
682.2000;0.6439;1.9124;
682.5000;0.6439;1.9101;
682.8000;0.6439;1.9148;
683.1000;0.6422;1.9077;
683.4000;0.6422;1.9124;
683.7000;0.6422;1.9101;
684.0000;0.6414;1.9077;
684.3000;0.6414;1.9077;
684.6000;0.6406;1.9101;
684.9000;0.6398;1.9005;
685.2000;0.6365;1.8886;
685.5000;0.6422;1.9053;
685.8000;0.6382;1.8934;
686.1000;0.6431;1.9101;
686.4000;0.6406;1.9077;
686.7000;0.6398;1.8981;
687.0000;0.6374;1.8886;
687.3000;0.6349;1.8886;
687.6000;0.6406;1.9029;
687.9000;0.6398;1.9005;
688.2000;0.6422;1.9053;
688.5000;0.6390;1.8886;
688.8000;0.6390;1.8886;
689.1000;0.6390;1.9029;
689.4000;0.6382;1.9053;
689.7000;0.6374;1.9124;
690.0000;0.6349;1.9053;
690.3000;0.6382;1.9077;
690.6000;0.6365;1.9053;
690.9000;0.6357;1.8981;
691.2000;0.6374;1.8981;
691.5000;0.6341;1.8934;
691.8000;0.6382;1.8981;
692.1000;0.6349;1.8934;
692.4000;0.6349;1.8934;
692.7000;0.6341;1.8886;
693.0000;0.6349;1.9005;
693.3000;0.6333;1.9005;
693.6000;0.6357;1.9029;
693.9000;0.6357;1.9029;
694.2000;0.6284;1.8886;
694.5000;0.6341;1.9005;
694.8000;0.6325;1.9005;
695.1000;0.6333;1.9029;
695.4000;0.6341;1.8958;
695.7000;0.6333;1.8981;
696.0000;0.6309;1.8910;
696.3000;0.6309;1.8958;
696.6000;0.6333;1.9053;
696.9000;0.6333;1.9029;
697.2000;0.6333;1.8934;
697.5000;0.6325;1.8910;
697.8000;0.6325;1.8958;
698.1000;0.6325;1.8958;
698.4000;0.6292;1.8910;
698.7000;0.6292;1.8886;
699.0000;0.6317;1.8958;
699.3000;0.6317;1.8934;
699.6000;0.6276;1.8981;
699.9000;0.6284;1.9005;
700.2000;0.6333;1.9148;
700.5000;0.6309;1.9053;
700.8000;0.6300;1.9029;
701.1000;0.6276;1.8981;
701.4000;0.6284;1.8981;
701.7000;0.6268;1.8934;
702.0000;0.6292;1.9053;
702.3000;0.6309;1.9101;
702.6000;0.6284;1.9053;
702.9000;0.6325;1.9124;
703.2000;0.6284;1.9077;
703.5000;0.6300;1.9124;
703.8000;0.6268;1.9077;
704.1000;0.6276;1.9005;
704.4000;0.6276;1.8910;
704.7000;0.6309;1.9029;
705.0000;0.6252;1.8934;
705.3000;0.6260;1.8886;
705.6000;0.6243;1.8791;
705.9000;0.6276;1.8934;
706.2000;0.6243;1.8862;
706.5000;0.6243;1.8862;
706.8000;0.6252;1.8886;
707.1000;0.6268;1.8862;
707.4000;0.6235;1.8838;
707.7000;0.6252;1.8981;
708.0000;0.6276;1.9005;
708.3000;0.6211;1.8934;
708.6000;0.6235;1.9005;
708.9000;0.6243;1.9053;
709.2000;0.6203;1.8934;
709.5000;0.6235;1.9077;
709.8000;0.6243;1.9101;
710.1000;0.6227;1.9053;
710.4000;0.6243;1.9077;
710.7000;0.6292;1.9220;
711.0000;0.6243;1.9077;
711.3000;0.6219;1.8981;
711.6000;0.6178;1.8910;
711.9000;0.6268;1.9077;
712.2000;0.6227;1.9005;
712.5000;0.6284;1.9268;
712.8000;0.6154;1.8886;
713.1000;0.6227;1.9077;
713.4000;0.6211;1.9101;
713.7000;0.6203;1.9053;
714.0000;0.6195;1.9005;
714.3000;0.6219;1.9053;
714.6000;0.6195;1.9077;
714.9000;0.6203;1.9077;
715.2000;0.6195;1.9029;
715.5000;0.6203;1.8981;
715.8000;0.6203;1.9053;
716.1000;0.6211;1.9124;
716.4000;0.6186;1.9077;
716.7000;0.6203;1.9101;
717.0000;0.6211;1.9029;
717.3000;0.6211;1.8910;
717.6000;0.6186;1.8958;
717.9000;0.6211;1.9077;
718.2000;0.6195;1.9101;
718.5000;0.6170;1.9077;
718.8000;0.6203;1.9148;
719.1000;0.6186;1.9053;
719.4000;0.6178;1.9053;
719.7000;0.6203;1.9148;
720.0000;0.6170;1.9101;
720.3000;0.6162;1.9172;
720.6000;0.6146;1.9101;
720.9000;0.6203;1.9315;
721.2000;0.6186;1.9244;
721.5000;0.6195;1.9196;
721.8000;0.6203;1.9244;
722.1000;0.6178;1.9148;
722.4000;0.6178;1.9077;
722.7000;0.6162;1.9101;
723.0000;0.6162;1.9077;
723.3000;0.6186;1.9124;
723.6000;0.6195;1.9124;
723.9000;0.6170;1.9101;
724.2000;0.6170;1.9148;
724.5000;0.6170;1.9172;
724.8000;0.6138;1.9053;
725.1000;0.6154;1.9053;
725.4000;0.6162;1.9101;
725.7000;0.6162;1.9029;
726.0000;0.6146;1.9005;
726.3000;0.6162;1.9077;
726.6000;0.6162;1.9077;
726.9000;0.6146;1.9029;
727.2000;0.6154;1.9053;
727.5000;0.6146;1.9053;
727.8000;0.6138;1.8958;
728.1000;0.6178;1.9029;
728.4000;0.6146;1.9029;
728.7000;0.6121;1.9005;
729.0000;0.6138;1.9005;
729.3000;0.6154;1.9005;
729.6000;0.6138;1.8958;
729.9000;0.6162;1.9196;
730.2000;0.6170;1.9268;
730.5000;0.6129;1.9196;
730.8000;0.6138;1.9101;
731.1000;0.6154;1.9148;
731.4000;0.6129;1.9053;
731.7000;0.6121;1.9077;
732.0000;0.6129;1.9172;
732.3000;0.6105;1.9172;
732.6000;0.6105;1.9220;
732.9000;0.6138;1.9339;
733.2000;0.6064;1.9244;
733.5000;0.6138;1.9363;
733.8000;0.6129;1.9315;
734.1000;0.6129;1.9315;
734.4000;0.6113;1.9244;
734.7000;0.6129;1.9268;
735.0000;0.6129;1.9339;
735.3000;0.6089;1.9244;
735.6000;0.6089;1.9244;
735.9000;0.6097;1.9291;
736.2000;0.6113;1.9268;
736.5000;0.6129;1.9220;
736.8000;0.6105;1.9315;
737.1000;0.6089;1.9172;
737.4000;0.6105;1.9220;
737.7000;0.6121;1.9268;
738.0000;0.6129;1.9315;
738.3000;0.6105;1.9315;
738.6000;0.6170;1.9530;
738.9000;0.6129;1.9387;
739.2000;0.6129;1.9363;
739.5000;0.6097;1.9387;
739.8000;0.6121;1.9434;
740.1000;0.6105;1.9411;
740.4000;0.6105;1.9411;
740.7000;0.6089;1.9363;
741.0000;0.6138;1.9482;
741.3000;0.6097;1.9363;
741.6000;0.6015;1.9196;
741.9000;0.6081;1.9363;
742.2000;0.6089;1.9339;
742.5000;0.6072;1.9363;
742.8000;0.6089;1.9363;
743.1000;0.6081;1.9339;
743.4000;0.6081;1.9363;
743.7000;0.6056;1.9244;
744.0000;0.6081;1.9244;
744.3000;0.6072;1.9220;
744.6000;0.6105;1.9244;
744.9000;0.6064;1.9148;
745.2000;0.6064;1.9053;
745.5000;0.6064;1.9101;
745.8000;0.6081;1.9196;
746.1000;0.6072;1.9268;
746.4000;0.6072;1.9244;
746.7000;0.6072;1.9196;
747.0000;0.6072;1.9172;
747.3000;0.6056;1.9148;
747.6000;0.6105;1.9244;
747.9000;0.6072;1.9148;
748.2000;0.6064;1.9172;
748.5000;0.6056;1.9268;
748.8000;0.6081;1.9339;
749.1000;0.6064;1.9268;
749.4000;0.6064;1.9196;
749.7000;0.6048;1.9101;
750.0000;0.6064;1.9124;
750.3000;0.6056;1.8981;
750.6000;0.6048;1.9053;
750.9000;0.6040;1.9077;
751.2000;0.5999;1.8981;
751.5000;0.6048;1.9029;
751.8000;0.6032;1.8958;
752.1000;0.6040;1.9053;
752.4000;0.6032;1.9029;
752.7000;0.6064;1.9077;
753.0000;0.6064;1.9148;
753.3000;0.6081;1.9172;
753.6000;0.6048;1.9172;
753.9000;0.6040;1.9148;
754.2000;0.6064;1.9172;
754.5000;0.6089;1.9172;
754.8000;0.6032;1.9029;
755.1000;0.6048;1.8981;
755.4000;0.6048;1.9077;
755.7000;0.6040;1.9077;
756.0000;0.6040;1.9053;
756.3000;0.6032;1.9005;
756.6000;0.6015;1.8958;
756.9000;0.6048;1.9029;
757.2000;0.6015;1.9029;
757.5000;0.5999;1.9053;
757.8000;0.6024;1.9196;
758.1000;0.6032;1.9291;
758.4000;0.6024;1.9363;
758.7000;0.6056;1.9482;
759.0000;0.6040;1.9363;
759.3000;0.6056;1.9363;
759.6000;0.6024;1.9244;
759.9000;0.6015;1.9268;
760.2000;0.6015;1.9315;
760.5000;0.6048;1.9363;
760.8000;0.6032;1.9291;
761.1000;0.6024;1.9411;
761.4000;0.6032;1.9387;
761.7000;0.6007;1.9220;
762.0000;0.6024;1.9291;
762.3000;0.6032;1.9363;
762.6000;0.6024;1.9411;
762.9000;0.6024;1.9458;
763.2000;0.6024;1.9458;
763.5000;0.6048;1.9482;
763.8000;0.6007;1.9458;
764.1000;0.6040;1.9530;
764.4000;0.6024;1.9530;
764.7000;0.6015;1.9506;
765.0000;0.6024;1.9482;
765.3000;0.6015;1.9387;
765.6000;0.6024;1.9363;
765.9000;0.6015;1.9291;
766.2000;0.5999;1.9315;
766.5000;0.5999;1.9291;
766.8000;0.6007;1.9411;
767.1000;0.6024;1.9458;
767.4000;0.5999;1.9339;
767.7000;0.5999;1.9363;
768.0000;0.6007;1.9434;
768.3000;0.6015;1.9411;
768.6000;0.5999;1.9339;
768.9000;0.5991;1.9339;
769.2000;0.5983;1.9268;
769.5000;0.5999;1.9387;
769.8000;0.5991;1.9363;
770.1000;0.5991;1.9315;
770.4000;0.5934;1.9148;
770.7000;0.5991;1.9291;
771.0000;0.5991;1.9434;
771.3000;0.5983;1.9411;
771.6000;0.5983;1.9411;
771.9000;0.5926;1.9220;
772.2000;0.5983;1.9315;
772.5000;0.5983;1.9387;
772.8000;0.5999;1.9339;
773.1000;0.5991;1.9339;
773.4000;0.5991;1.9339;
773.7000;0.5999;1.9458;
774.0000;0.5983;1.9434;
774.3000;0.5991;1.9482;
774.6000;0.5975;1.9458;
774.9000;0.5999;1.9434;
775.2000;0.5991;1.9434;
775.5000;0.5983;1.9458;
775.8000;0.5983;1.9458;
776.1000;0.5967;1.9434;
776.4000;0.5975;1.9387;
776.7000;0.5958;1.9363;
777.0000;0.5967;1.9315;
777.3000;0.5999;1.9363;
777.6000;0.5983;1.9339;
777.9000;0.5975;1.9315;
778.2000;0.5983;1.9458;
778.5000;0.5983;1.9387;
778.8000;0.5967;1.9268;
779.1000;0.6007;1.9315;
779.4000;0.5967;1.9268;
779.7000;0.5975;1.9291;
780.0000;0.5958;1.9268;
780.3000;0.5983;1.9315;
780.6000;0.5975;1.9268;
780.9000;0.5910;1.9053;
781.2000;0.5983;1.9268;
781.5000;0.5950;1.9148;
781.8000;0.5983;1.9268;
782.1000;0.5967;1.9315;
782.4000;0.5967;1.9268;
782.7000;0.5983;1.9291;
783.0000;0.5950;1.9172;
783.3000;0.5983;1.9220;
783.6000;0.5967;1.9291;
783.9000;0.5934;1.9268;
784.2000;0.5967;1.9434;
784.5000;0.6032;1.9649;
784.8000;0.5918;1.9339;
785.1000;0.5950;1.9411;
785.4000;0.5934;1.9268;
785.7000;0.5950;1.9387;
786.0000;0.5942;1.9482;
786.3000;0.5942;1.9506;
786.6000;0.5958;1.9482;
786.9000;0.5942;1.9458;
787.2000;0.5950;1.9434;
787.5000;0.5926;1.9387;
787.8000;0.5958;1.9482;
788.1000;0.5926;1.9458;
788.4000;0.5942;1.9458;
788.7000;0.5950;1.9458;
789.0000;0.5950;1.9411;
789.3000;0.5942;1.9339;
789.6000;0.5950;1.9434;
789.9000;0.5918;1.9291;
790.2000;0.5934;1.9411;
790.5000;0.5942;1.9482;
790.8000;0.5967;1.9530;
791.1000;0.5950;1.9578;
791.4000;0.5950;1.9578;
791.7000;0.5942;1.9482;
792.0000;0.5942;1.9482;
792.3000;0.5942;1.9506;
792.6000;0.5950;1.9554;
792.9000;0.5926;1.9554;
793.2000;0.5934;1.9578;
793.5000;0.5942;1.9601;
793.8000;0.5934;1.9601;
794.1000;0.5934;1.9649;
794.4000;0.5877;1.9530;
794.7000;0.5934;1.9601;
795.0000;0.5910;1.9458;
795.3000;0.5877;1.9411;
795.6000;0.5934;1.9554;
795.9000;0.5942;1.9482;
796.2000;0.5918;1.9506;
796.5000;0.5934;1.9578;
796.8000;0.5942;1.9625;
797.1000;0.5934;1.9625;
797.4000;0.5918;1.9625;
797.7000;0.5934;1.9601;
798.0000;0.5918;1.9530;
798.3000;0.5950;1.9530;
798.6000;0.5926;1.9434;
798.9000;0.5902;1.9363;
799.2000;0.5926;1.9506;
799.5000;0.5902;1.9482;
799.8000;0.5902;1.9482;
800.1000;0.5934;1.9601;
800.4000;0.5926;1.9578;
800.7000;0.5942;1.9506;
801.0000;0.5918;1.9411;
801.3000;0.5845;1.9339;
801.6000;0.5910;1.9530;
801.9000;0.5918;1.9578;
802.2000;0.5918;1.9625;
802.5000;0.5918;1.9554;
802.8000;0.5967;1.9578;
803.1000;0.5845;1.9220;
803.4000;0.5958;1.9482;
803.7000;0.5893;1.9458;
804.0000;0.5893;1.9387;
804.3000;0.5918;1.9434;
804.6000;0.5893;1.9315;
804.9000;0.5918;1.9363;
805.2000;0.5918;1.9434;
805.5000;0.5918;1.9363;
805.8000;0.5926;1.9458;
806.1000;0.5926;1.9458;
806.4000;0.5910;1.9530;
806.7000;0.5902;1.9434;
807.0000;0.5918;1.9458;
807.3000;0.5926;1.9482;
807.6000;0.5877;1.9387;
807.9000;0.5934;1.9482;
808.2000;0.5910;1.9482;
808.5000;0.5902;1.9530;
808.8000;0.5910;1.9482;
809.1000;0.5910;1.9530;
809.4000;0.5926;1.9578;
809.7000;0.5902;1.9434;
810.0000;0.5902;1.9339;
810.3000;0.5893;1.9387;
810.6000;0.5918;1.9506;
810.9000;0.5902;1.9578;
811.2000;0.5910;1.9673;
811.5000;0.5902;1.9625;
811.8000;0.5942;1.9673;
812.1000;0.5910;1.9578;
812.4000;0.5902;1.9530;
812.7000;0.5893;1.9482;
813.0000;0.5910;1.9458;
813.3000;0.5869;1.9411;
813.6000;0.5877;1.9434;
813.9000;0.5885;1.9458;
814.2000;0.5918;1.9554;
814.5000;0.5902;1.9506;
814.8000;0.5885;1.9411;
815.1000;0.5885;1.9434;
815.4000;0.5885;1.9482;
815.7000;0.5910;1.9554;
816.0000;0.5902;1.9554;
816.3000;0.5877;1.9578;
816.6000;0.5877;1.9554;
816.9000;0.5885;1.9506;
817.2000;0.5893;1.9554;
817.5000;0.5869;1.9530;
817.8000;0.5885;1.9506;
818.1000;0.5893;1.9387;
818.4000;0.5942;1.9482;
818.7000;0.5902;1.9363;
819.0000;0.5918;1.9506;
819.3000;0.5877;1.9434;
819.6000;0.5893;1.9530;
819.9000;0.5861;1.9530;
820.2000;0.5869;1.9649;
820.5000;0.5885;1.9578;
820.8000;0.5877;1.9578;
821.1000;0.5934;1.9697;
821.4000;0.5869;1.9530;
821.7000;0.5861;1.9458;
822.0000;0.5877;1.9530;
822.3000;0.5861;1.9482;
822.6000;0.5853;1.9530;
822.9000;0.5885;1.9530;
823.2000;0.5861;1.9554;
823.5000;0.5885;1.9506;
823.8000;0.5877;1.9506;
824.1000;0.5893;1.9458;
824.4000;0.5885;1.9363;
824.7000;0.5861;1.9315;
825.0000;0.5885;1.9315;
825.3000;0.5877;1.9339;
825.6000;0.5885;1.9291;
825.9000;0.5877;1.9196;
826.2000;0.5796;1.9005;
826.5000;0.5820;1.9124;
826.8000;0.5853;1.9268;
827.1000;0.5893;1.9458;
827.4000;0.5853;1.9458;
827.7000;0.5812;1.9434;
828.0000;0.5861;1.9554;
828.3000;0.5869;1.9530;
828.6000;0.5861;1.9530;
828.9000;0.5861;1.9530;
829.2000;0.5861;1.9530;
829.5000;0.5861;1.9458;
829.8000;0.5861;1.9458;
830.1000;0.5869;1.9482;
830.4000;0.5853;1.9506;
830.7000;0.5934;1.9768;
831.0000;0.5861;1.9601;
831.3000;0.5861;1.9625;
831.6000;0.5861;1.9578;
831.9000;0.5869;1.9601;
832.2000;0.5869;1.9673;
832.5000;0.5869;1.9601;
832.8000;0.5845;1.9530;
833.1000;0.5828;1.9315;
833.4000;0.5845;1.9482;
833.7000;0.5853;1.9578;
834.0000;0.5845;1.9554;
834.3000;0.5845;1.9530;
834.6000;0.5861;1.9482;
834.9000;0.5869;1.9458;
835.2000;0.5869;1.9530;
835.5000;0.5853;1.9554;
835.8000;0.5861;1.9601;
836.1000;0.5845;1.9530;
836.4000;0.5869;1.9506;
836.7000;0.5853;1.9530;
837.0000;0.5853;1.9554;
837.3000;0.5853;1.9506;
837.6000;0.5877;1.9482;
837.9000;0.5845;1.9387;
838.2000;0.5845;1.9268;
838.5000;0.5861;1.9434;
838.8000;0.5861;1.9434;
839.1000;0.5845;1.9315;
839.4000;0.5845;1.9339;
839.7000;0.5836;1.9363;
840.0000;0.5845;1.9315;
840.3000;0.5845;1.9291;
840.6000;0.5853;1.9315;
840.9000;0.5853;1.9291;
841.2000;0.5869;1.9291;
841.5000;0.5836;1.9220;
841.8000;0.5836;1.9220;
842.1000;0.5828;1.9172;
842.4000;0.5853;1.9315;
842.7000;0.5836;1.9291;
843.0000;0.5836;1.9315;
843.3000;0.5845;1.9387;
843.6000;0.5853;1.9458;
843.9000;0.5869;1.9554;
844.2000;0.5836;1.9506;
844.5000;0.5845;1.9434;
844.8000;0.5820;1.9387;
845.1000;0.5845;1.9411;
845.4000;0.5836;1.9530;
845.7000;0.5845;1.9601;
846.0000;0.5836;1.9554;
846.3000;0.5836;1.9578;
846.6000;0.5820;1.9578;
846.9000;0.5828;1.9554;
847.2000;0.5845;1.9601;
847.5000;0.5845;1.9578;
847.8000;0.5836;1.9649;
848.1000;0.5828;1.9530;
848.4000;0.5820;1.9482;
848.7000;0.5820;1.9434;
849.0000;0.5820;1.9458;
849.3000;0.5804;1.9411;
849.6000;0.5828;1.9458;
849.9000;0.5779;1.9339;
850.2000;0.5820;1.9411;
850.5000;0.5820;1.9458;
850.8000;0.5820;1.9506;
851.1000;0.5836;1.9578;
851.4000;0.5845;1.9530;
851.7000;0.5820;1.9482;
852.0000;0.5812;1.9458;
852.3000;0.5836;1.9530;
852.6000;0.5796;1.9506;
852.9000;0.5836;1.9601;
853.2000;0.5836;1.9554;
853.5000;0.5820;1.9530;
853.8000;0.5853;1.9554;
854.1000;0.5812;1.9482;
854.4000;0.5804;1.9434;
854.7000;0.5812;1.9530;
855.0000;0.5812;1.9482;
855.3000;0.5812;1.9554;
855.6000;0.5820;1.9578;
855.9000;0.5820;1.9601;
856.2000;0.5820;1.9697;
856.5000;0.5812;1.9697;
856.8000;0.5820;1.9697;
857.1000;0.5796;1.9697;
857.4000;0.5771;1.9649;
857.7000;0.5820;1.9744;
858.0000;0.5869;1.9911;
858.3000;0.5812;1.9744;
858.6000;0.5836;1.9816;
858.9000;0.5755;1.9554;
859.2000;0.5812;1.9721;
859.5000;0.5804;1.9625;
859.8000;0.5747;1.9458;
860.1000;0.5812;1.9697;
860.4000;0.5812;1.9673;
860.7000;0.5796;1.9554;
861.0000;0.5804;1.9554;
861.3000;0.5804;1.9601;
861.6000;0.5820;1.9625;
861.9000;0.5796;1.9530;
862.2000;0.5796;1.9601;
862.5000;0.5820;1.9697;
862.8000;0.5828;1.9673;
863.1000;0.5812;1.9649;
863.4000;0.5812;1.9673;
863.7000;0.5812;1.9744;
864.0000;0.5836;1.9935;
864.3000;0.5812;1.9888;
864.6000;0.5796;1.9888;
864.9000;0.5812;1.9864;
865.2000;0.5836;1.9840;
865.5000;0.5804;1.9792;
865.8000;0.5804;1.9721;
866.1000;0.5820;1.9792;
866.4000;0.5804;1.9744;
866.7000;0.5771;1.9601;
867.0000;0.5796;1.9649;
867.3000;0.5820;1.9721;
867.6000;0.5812;1.9792;
867.9000;0.5820;1.9816;
868.2000;0.5812;1.9792;
868.5000;0.5804;1.9768;
868.8000;0.5796;1.9816;
869.1000;0.5812;1.9935;
869.4000;0.5779;1.9792;
869.7000;0.5788;1.9792;
870.0000;0.5796;1.9840;
870.3000;0.5804;1.9768;
870.6000;0.5796;1.9768;
870.9000;0.5804;1.9792;
871.2000;0.5820;1.9673;
871.5000;0.5828;1.9649;
871.8000;0.5722;1.9458;
872.1000;0.5812;1.9601;
872.4000;0.5796;1.9506;
872.7000;0.5804;1.9482;
873.0000;0.5796;1.9458;
873.3000;0.5804;1.9411;
873.6000;0.5796;1.9387;
873.9000;0.5804;1.9411;
874.2000;0.5804;1.9482;
874.5000;0.5804;1.9530;
874.8000;0.5804;1.9530;
875.1000;0.5796;1.9530;
875.4000;0.5820;1.9530;
875.7000;0.5755;1.9458;
876.0000;0.5812;1.9554;
876.3000;0.5804;1.9530;
876.6000;0.5820;1.9530;
876.9000;0.5804;1.9506;
877.2000;0.5812;1.9530;
877.5000;0.5788;1.9434;
877.8000;0.5820;1.9506;
878.1000;0.5828;1.9458;
878.4000;0.5820;1.9506;
878.7000;0.5804;1.9530;
879.0000;0.5796;1.9578;
879.3000;0.5796;1.9506;
879.6000;0.5804;1.9482;
879.9000;0.5796;1.9554;
880.2000;0.5779;1.9554;
880.5000;0.5804;1.9697;
880.8000;0.5714;1.9387;
881.1000;0.5788;1.9554;
881.4000;0.5820;1.9625;
881.7000;0.5804;1.9554;
882.0000;0.5796;1.9697;
882.3000;0.5788;1.9601;
882.6000;0.5779;1.9601;
882.9000;0.5796;1.9601;
883.2000;0.5788;1.9554;
883.5000;0.5828;1.9649;
883.8000;0.5796;1.9625;
884.1000;0.5788;1.9649;
884.4000;0.5804;1.9625;
884.7000;0.5812;1.9649;
885.0000;0.5788;1.9578;
885.3000;0.5796;1.9554;
885.6000;0.5788;1.9578;
885.9000;0.5796;1.9625;
886.2000;0.5796;1.9649;
886.5000;0.5779;1.9649;
886.8000;0.5788;1.9649;
887.1000;0.5796;1.9649;
887.4000;0.5779;1.9554;
887.7000;0.5788;1.9530;
888.0000;0.5804;1.9554;
888.3000;0.5771;1.9530;
888.6000;0.5796;1.9649;
888.9000;0.5853;1.9816;
889.2000;0.5779;1.9601;
889.5000;0.5788;1.9601;
889.8000;0.5796;1.9649;
890.1000;0.5779;1.9601;
890.4000;0.5788;1.9649;
890.7000;0.5779;1.9649;
891.0000;0.5788;1.9625;
891.3000;0.5804;1.9578;
891.6000;0.5788;1.9554;
891.9000;0.5796;1.9601;
892.2000;0.5779;1.9530;
892.5000;0.5788;1.9625;
892.8000;0.5779;1.9578;
893.1000;0.5788;1.9554;
893.4000;0.5779;1.9530;
893.7000;0.5779;1.9530;
894.0000;0.5788;1.9578;
894.3000;0.5796;1.9625;
894.6000;0.5779;1.9649;
894.9000;0.5796;1.9673;
895.2000;0.5804;1.9721;
895.5000;0.5771;1.9673;
895.8000;0.5771;1.9673;
896.1000;0.5771;1.9578;
896.4000;0.5779;1.9601;
896.7000;0.5763;1.9530;
897.0000;0.5788;1.9649;
897.3000;0.5804;1.9697;
897.6000;0.5779;1.9530;
897.9000;0.5788;1.9649;
898.2000;0.5779;1.9673;
898.5000;0.5755;1.9625;
898.8000;0.5779;1.9697;
899.1000;0.5771;1.9697;
899.4000;0.5731;1.9601;
899.7000;0.5804;1.9768;
900.0000;0.5771;1.9744;
900.3000;0.5771;1.9721;
900.6000;0.5771;1.9744;
900.9000;0.5771;1.9816;
901.2000;0.5779;1.9768;
901.5000;0.5763;1.9768;
901.8000;0.5747;1.9744;
902.1000;0.5779;1.9816;
902.4000;0.5804;1.9816;
902.7000;0.5771;1.9721;
903.0000;0.5779;1.9673;
903.3000;0.5804;1.9744;
903.6000;0.5739;1.9625;
903.9000;0.5771;1.9744;
904.2000;0.5763;1.9792;
904.5000;0.5804;1.9983;
904.8000;0.5763;1.9864;
905.1000;0.5779;1.9935;
905.4000;0.5763;1.9888;
905.7000;0.5731;1.9816;
906.0000;0.5755;1.9840;
906.3000;0.5788;1.9840;
906.6000;0.5788;1.9840;
906.9000;0.5739;1.9768;
907.2000;0.5779;1.9792;
907.5000;0.5763;1.9721;
907.8000;0.5763;1.9625;
908.1000;0.5771;1.9625;
908.4000;0.5763;1.9482;
908.7000;0.5828;1.9625;
909.0000;0.5763;1.9411;
909.3000;0.5763;1.9482;
909.6000;0.5755;1.9673;
909.9000;0.5739;1.9578;
910.2000;0.5763;1.9506;
910.5000;0.5739;1.9530;
910.8000;0.5771;1.9601;
911.1000;0.5779;1.9721;
911.4000;0.5763;1.9673;
911.7000;0.5755;1.9673;
912.0000;0.5763;1.9673;
912.3000;0.5820;1.9816;
912.6000;0.5771;1.9673;
912.9000;0.5771;1.9697;
913.2000;0.5771;1.9625;
913.5000;0.5763;1.9673;
913.8000;0.5763;1.9697;
914.1000;0.5739;1.9673;
914.4000;0.5739;1.9649;
914.7000;0.5755;1.9721;
915.0000;0.5812;1.9840;
915.3000;0.5747;1.9649;
915.6000;0.5771;1.9768;
915.9000;0.5747;1.9744;
916.2000;0.5771;1.9744;
916.5000;0.5747;1.9649;
916.8000;0.5771;1.9697;
917.1000;0.5739;1.9673;
917.4000;0.5755;1.9721;
917.7000;0.5788;1.9888;
918.0000;0.5755;1.9816;
918.3000;0.5731;1.9888;
918.6000;0.5747;1.9983;
918.9000;0.5771;2.0007;
919.2000;0.5731;1.9911;
919.5000;0.5747;1.9959;
919.8000;0.5779;1.9959;
920.1000;0.5731;1.9721;
920.4000;0.5714;1.9625;
920.7000;0.5771;1.9768;
921.0000;0.5755;1.9768;
921.3000;0.5747;1.9816;
921.6000;0.5755;1.9768;
921.9000;0.5763;1.9840;
922.2000;0.5755;1.9864;
922.5000;0.5763;1.9935;
922.8000;0.5763;1.9935;
923.1000;0.5755;1.9935;
923.4000;0.5722;1.9840;
923.7000;0.5755;1.9840;
924.0000;0.5755;1.9864;
924.3000;0.5755;1.9864;
924.6000;0.5747;1.9792;
924.9000;0.5755;1.9792;
925.2000;0.5731;1.9721;
925.5000;0.5788;1.9935;
925.8000;0.5739;1.9840;
926.1000;0.5747;1.9840;
926.4000;0.5755;1.9959;
926.7000;0.5747;1.9840;
927.0000;0.5747;1.9888;
927.3000;0.5731;1.9959;
927.6000;0.5755;1.9983;
927.9000;0.5714;1.9911;
928.2000;0.5747;2.0007;
928.5000;0.5731;1.9935;
928.8000;0.5731;1.9840;
929.1000;0.5755;1.9888;
929.4000;0.5747;1.9816;
929.7000;0.5739;1.9864;
930.0000;0.5722;1.9888;
930.3000;0.5731;1.9959;
930.6000;0.5722;1.9959;
930.9000;0.5739;2.0031;
931.2000;0.5731;1.9983;
931.5000;0.5755;2.0031;
931.8000;0.5739;1.9911;
932.1000;0.5739;1.9888;
932.4000;0.5755;1.9911;
932.7000;0.5747;1.9888;
933.0000;0.5739;1.9911;
933.3000;0.5771;2.0007;
933.6000;0.5747;1.9911;
933.9000;0.5755;2.0007;
934.2000;0.5739;1.9983;
934.5000;0.5747;1.9911;
934.8000;0.5747;1.9888;
935.1000;0.5722;1.9792;
935.4000;0.5763;1.9888;
935.7000;0.5755;1.9864;
936.0000;0.5739;1.9792;
936.3000;0.5747;1.9792;
936.6000;0.5739;1.9792;
936.9000;0.5731;1.9744;
937.2000;0.5722;1.9649;
937.5000;0.5739;1.9697;
937.8000;0.5763;1.9792;
938.1000;0.5731;1.9744;
938.4000;0.5747;1.9744;
938.7000;0.5755;1.9816;
939.0000;0.5739;1.9768;
939.3000;0.5788;1.9888;
939.6000;0.5755;1.9792;
939.9000;0.5747;1.9888;
940.2000;0.5747;1.9768;
940.5000;0.5763;1.9816;
940.8000;0.5739;1.9768;
941.1000;0.5731;1.9864;
941.4000;0.5747;1.9959;
941.7000;0.5771;2.0054;
942.0000;0.5722;1.9888;
942.3000;0.5739;1.9888;
942.6000;0.5779;1.9911;
942.9000;0.5747;1.9768;
943.2000;0.5747;1.9697;
943.5000;0.5739;1.9697;
943.8000;0.5739;1.9721;
944.1000;0.5731;1.9673;
944.4000;0.5763;1.9721;
944.7000;0.5731;1.9673;
945.0000;0.5714;1.9721;
945.3000;0.5714;1.9649;
945.6000;0.5739;1.9697;
945.9000;0.5731;1.9697;
946.2000;0.5731;1.9768;
946.5000;0.5690;1.9578;
946.8000;0.5722;1.9768;
947.1000;0.5755;1.9864;
947.4000;0.5747;1.9816;
947.7000;0.5739;1.9768;
948.0000;0.5739;1.9768;
948.3000;0.5714;1.9792;
948.6000;0.5739;1.9864;
948.9000;0.5722;1.9792;
949.2000;0.5755;1.9935;
949.5000;0.5747;1.9911;
949.8000;0.5722;1.9864;
950.1000;0.5731;1.9840;
950.4000;0.5714;1.9840;
950.7000;0.5731;1.9768;
951.0000;0.5731;1.9768;
951.3000;0.5739;1.9792;
951.6000;0.5731;1.9792;
951.9000;0.5722;1.9744;
952.2000;0.5731;1.9816;
952.5000;0.5731;1.9816;
952.8000;0.5722;1.9816;
953.1000;0.5722;1.9888;
953.4000;0.5739;1.9935;
953.7000;0.5714;1.9983;
954.0000;0.5714;1.9911;
954.3000;0.5722;1.9864;
954.6000;0.5739;1.9911;
954.9000;0.5763;1.9935;
955.2000;0.5739;1.9888;
955.5000;0.5714;1.9840;
955.8000;0.5731;1.9911;
956.1000;0.5722;1.9911;
956.4000;0.5698;1.9935;
956.7000;0.5714;1.9911;
957.0000;0.5714;1.9888;
957.3000;0.5747;1.9911;
957.6000;0.5722;1.9744;
957.9000;0.5731;1.9816;
958.2000;0.5665;1.9721;
958.5000;0.5731;1.9935;
958.8000;0.5714;1.9888;
959.1000;0.5722;1.9911;
959.4000;0.5714;1.9959;
959.7000;0.5731;1.9935;
960.0000;0.5722;1.9935;
960.3000;0.5722;1.9864;
960.6000;0.5722;1.9792;
960.9000;0.5722;1.9792;
961.2000;0.5722;1.9816;
961.5000;0.5731;1.9888;
961.8000;0.5722;1.9864;
962.1000;0.5731;1.9888;
962.4000;0.5714;1.9792;
962.7000;0.5714;1.9816;
963.0000;0.5722;1.9888;
963.3000;0.5714;1.9911;
963.6000;0.5722;1.9888;
963.9000;0.5714;1.9864;
964.2000;0.5714;1.9840;
964.5000;0.5698;1.9744;
964.8000;0.5731;1.9792;
965.1000;0.5714;1.9792;
965.4000;0.5714;1.9911;
965.7000;0.5698;1.9792;
966.0000;0.5722;1.9864;
966.3000;0.5690;1.9888;
966.6000;0.5706;1.9840;
966.9000;0.5714;1.9744;
967.2000;0.5722;1.9673;
967.5000;0.5722;1.9673;
967.8000;0.5714;1.9673;
968.1000;0.5706;1.9673;
968.4000;0.5706;1.9721;
968.7000;0.5714;1.9744;
969.0000;0.5714;1.9864;
969.3000;0.5706;1.9864;
969.6000;0.5714;1.9816;
969.9000;0.5714;1.9792;
970.2000;0.5706;1.9864;
970.5000;0.5722;1.9888;
970.8000;0.5714;1.9888;
971.1000;0.5698;1.9816;
971.4000;0.5714;1.9816;
971.7000;0.5698;1.9744;
972.0000;0.5706;1.9792;
972.3000;0.5698;1.9697;
972.6000;0.5739;1.9744;
972.9000;0.5755;1.9792;
973.2000;0.5706;1.9649;
973.5000;0.5698;1.9649;
973.8000;0.5714;1.9768;
974.1000;0.5674;1.9721;
974.4000;0.5747;1.9911;
974.7000;0.5706;1.9792;
975.0000;0.5674;1.9673;
975.3000;0.5698;1.9768;
975.6000;0.5706;1.9792;
975.9000;0.5706;1.9816;
976.2000;0.5714;1.9888;
976.5000;0.5731;1.9935;
976.8000;0.5714;1.9911;
977.1000;0.5706;1.9935;
977.4000;0.5722;1.9983;
977.7000;0.5722;1.9959;
978.0000;0.5698;2.0031;
978.3000;0.5698;2.0078;
978.6000;0.5698;2.0102;
978.9000;0.5714;2.0150;
979.2000;0.5706;2.0174;
979.5000;0.5706;2.0102;
979.8000;0.5690;2.0031;
980.1000;0.5722;2.0031;
980.4000;0.5722;1.9935;
980.7000;0.5714;1.9935;
981.0000;0.5722;1.9935;
981.3000;0.5714;1.9911;
981.6000;0.5714;1.9935;
981.9000;0.5714;1.9840;
982.2000;0.5771;1.9959;
982.5000;0.5731;1.9816;
982.8000;0.5714;1.9768;
983.1000;0.5706;1.9816;
983.4000;0.5706;1.9911;
983.7000;0.5714;1.9959;
984.0000;0.5706;1.9959;
984.3000;0.5698;2.0031;
984.6000;0.5706;2.0007;
984.9000;0.5722;1.9983;
985.2000;0.5706;2.0007;
985.5000;0.5698;1.9983;
985.8000;0.5706;2.0007;
986.1000;0.5714;2.0007;
986.4000;0.5706;2.0078;
986.7000;0.5698;2.0031;
987.0000;0.5690;1.9935;
987.3000;0.5698;1.9959;
987.6000;0.5714;1.9935;
987.9000;0.5706;1.9911;
988.2000;0.5714;1.9864;
988.5000;0.5714;1.9768;
988.8000;0.5714;1.9768;
989.1000;0.5714;1.9792;
989.4000;0.5714;1.9721;
989.7000;0.5706;1.9744;
990.0000;0.5690;1.9697;
990.3000;0.5747;1.9816;
990.6000;0.5714;1.9721;
990.9000;0.5665;1.9578;
991.2000;0.5706;1.9601;
991.5000;0.5706;1.9578;
991.8000;0.5674;1.9458;
992.1000;0.5690;1.9530;
992.4000;0.5690;1.9530;
992.7000;0.5690;1.9578;
993.0000;0.5690;1.9625;
993.3000;0.5674;1.9649;
993.6000;0.5682;1.9673;
993.9000;0.5706;1.9792;
994.2000;0.5714;1.9744;
994.5000;0.5690;1.9697;
994.8000;0.5690;1.9721;
995.1000;0.5690;1.9721;
995.4000;0.5665;1.9578;
995.7000;0.5706;1.9721;
996.0000;0.5690;1.9744;
996.3000;0.5698;1.9768;
996.6000;0.5698;1.9768;
996.9000;0.5649;1.9625;
997.2000;0.5690;1.9768;
997.5000;0.5674;1.9840;
997.8000;0.5682;1.9864;
998.1000;0.5690;1.9864;
998.4000;0.5649;1.9768;
998.7000;0.5690;1.9888;
999.0000;0.5698;1.9864;
999.3000;0.5706;1.9911;
999.6000;0.5714;1.9888;
999.9000;0.5690;1.9840;
1000.2000;0.5682;1.9840;
1000.5000;0.5706;1.9816;
1000.8000;0.5690;1.9840;
1001.1000;0.5657;1.9792;
1001.4000;0.5690;1.9792;
1001.7000;0.5698;1.9840;
1002.0000;0.5682;1.9840;
1002.3000;0.5682;1.9840;
1002.6000;0.5682;1.9816;
1002.9000;0.5690;1.9744;
1003.2000;0.5698;1.9768;
1003.5000;0.5739;1.9840;
1003.8000;0.5690;1.9721;
1004.1000;0.5682;1.9721;
1004.4000;0.5698;1.9792;
1004.7000;0.5690;1.9768;
1005.0000;0.5690;1.9768;
1005.3000;0.5722;1.9888;
1005.6000;0.5706;1.9888;
1005.9000;0.5722;1.9935;
1006.2000;0.5682;1.9840;
1006.5000;0.5674;1.9816;
1006.8000;0.5698;1.9935;
1007.1000;0.5714;1.9959;
1007.4000;0.5690;1.9983;
1007.7000;0.5682;1.9983;
1008.0000;0.5682;2.0007;
1008.3000;0.5698;2.0054;
1008.6000;0.5698;2.0007;
1008.9000;0.5690;1.9911;
1009.2000;0.5698;1.9911;
1009.5000;0.5722;1.9888;
1009.8000;0.5731;1.9864;
1010.1000;0.5682;1.9911;
1010.4000;0.5698;1.9983;
1010.7000;0.5698;1.9983;
1011.0000;0.5690;1.9959;
1011.3000;0.5706;1.9959;
1011.6000;0.5706;1.9959;
1011.9000;0.5698;2.0007;
1012.2000;0.5698;2.0007;
1012.5000;0.5698;2.0007;
1012.8000;0.5657;1.9911;
1013.1000;0.5657;1.9935;
1013.4000;0.5682;1.9935;
1013.7000;0.5641;1.9792;
1014.0000;0.5690;1.9911;
1014.3000;0.5706;1.9959;
1014.6000;0.5698;2.0007;
1014.9000;0.5690;2.0031;
1015.2000;0.5674;1.9983;
1015.5000;0.5690;1.9959;
1015.8000;0.5674;1.9959;
1016.1000;0.5706;2.0007;
1016.4000;0.5682;2.0031;
1016.7000;0.5698;2.0102;
1017.0000;0.5714;2.0126;
1017.3000;0.5690;2.0102;
1017.6000;0.5690;2.0031;
1017.9000;0.5674;2.0031;
1018.2000;0.5706;2.0054;
1018.5000;0.5690;1.9983;
1018.8000;0.5690;1.9983;
1019.1000;0.5690;1.9911;
1019.4000;0.5698;1.9911;
1019.7000;0.5698;1.9888;
1020.0000;0.5698;1.9888;
1020.3000;0.5690;1.9864;
1020.6000;0.5665;1.9864;
1020.9000;0.5690;1.9983;
1021.2000;0.5690;1.9911;
1021.5000;0.5690;1.9959;
1021.8000;0.5665;1.9864;
1022.1000;0.5690;1.9911;
1022.4000;0.5690;1.9935;
1022.7000;0.5690;1.9864;
1023.0000;0.5665;1.9792;
1023.3000;0.5690;1.9911;
1023.6000;0.5731;1.9959;
1023.9000;0.5682;1.9911;
1024.2000;0.5690;1.9959;
1024.5000;0.5706;1.9959;
1024.8000;0.5657;1.9864;
1025.1000;0.5698;1.9959;
1025.4000;0.5682;1.9959;
1025.7000;0.5674;1.9935;
1026.0000;0.5633;1.9959;
1026.3000;0.5682;2.0031;
1026.6000;0.5657;1.9935;
1026.9000;0.5665;1.9911;
1027.2000;0.5674;1.9840;
1027.5000;0.5665;1.9792;
1027.8000;0.5657;1.9768;
1028.1000;0.5641;1.9744;
1028.4000;0.5706;1.9959;
1028.7000;0.5665;1.9792;
1029.0000;0.5682;1.9864;
1029.3000;0.5674;1.9816;
1029.6000;0.5657;1.9840;
1029.9000;0.5690;1.9840;
1030.2000;0.5608;1.9601;
1030.5000;0.5674;1.9697;
1030.8000;0.5714;1.9864;
1031.1000;0.5682;1.9864;
1031.4000;0.5682;1.9888;
1031.7000;0.5674;1.9864;
1032.0000;0.5665;1.9840;
1032.3000;0.5690;1.9864;
1032.6000;0.5690;1.9840;
1032.9000;0.5665;1.9816;
1033.2000;0.5665;1.9864;
1033.5000;0.5674;1.9864;
1033.8000;0.5698;1.9983;
1034.1000;0.5690;1.9911;
1034.4000;0.5665;1.9816;
1034.7000;0.5682;1.9840;
1035.0000;0.5674;1.9888;
1035.3000;0.5641;1.9888;
1035.6000;0.5665;1.9911;
1035.9000;0.5674;1.9840;
1036.2000;0.5657;1.9840;
1036.5000;0.5641;1.9816;
1036.8000;0.5665;1.9792;
1037.1000;0.5641;1.9649;
1037.4000;0.5665;1.9697;
1037.7000;0.5682;1.9673;
1038.0000;0.5682;1.9649;
1038.3000;0.5706;1.9721;
1038.6000;0.5674;1.9673;
1038.9000;0.5690;1.9649;
1039.2000;0.5657;1.9649;
1039.5000;0.5690;1.9768;
1039.8000;0.5665;1.9649;
1040.1000;0.5682;1.9697;
1040.4000;0.5674;1.9697;
1040.7000;0.5682;1.9673;
1041.0000;0.5674;1.9625;
1041.3000;0.5674;1.9673;
1041.6000;0.5690;1.9673;
1041.9000;0.5665;1.9649;
1042.2000;0.5674;1.9721;
1042.5000;0.5657;1.9649;
1042.8000;0.5698;1.9721;
1043.1000;0.5698;1.9840;
1043.4000;0.5674;1.9864;
1043.7000;0.5665;1.9816;
1044.0000;0.5682;1.9888;
1044.3000;0.5674;1.9888;
1044.6000;0.5674;1.9888;
1044.9000;0.5690;2.0031;
1045.2000;0.5665;2.0054;
1045.5000;0.5657;1.9983;
1045.8000;0.5674;2.0054;
1046.1000;0.5722;2.0126;
1046.4000;0.5682;2.0031;
1046.7000;0.5674;2.0031;
1047.0000;0.5665;2.0054;
1047.3000;0.5665;1.9983;
1047.6000;0.5665;2.0007;
1047.9000;0.5690;2.0054;
1048.2000;0.5690;2.0054;
1048.5000;0.5649;1.9983;
1048.8000;0.5665;1.9935;
1049.1000;0.5657;2.0007;
1049.4000;0.5665;2.0031;
1049.7000;0.5682;2.0007;
1050.0000;0.5690;1.9935;
1050.3000;0.5665;1.9959;
1050.6000;0.5682;2.0031;
1050.9000;0.5665;2.0007;
1051.2000;0.5682;1.9959;
1051.5000;0.5682;2.0007;
1051.8000;0.5665;1.9983;
1052.1000;0.5698;2.0054;
1052.4000;0.5682;2.0007;
1052.7000;0.5674;2.0054;
1053.0000;0.5690;2.0126;
1053.3000;0.5690;2.0102;
1053.6000;0.5649;1.9959;
1053.9000;0.5665;2.0031;
1054.2000;0.5657;2.0007;
1054.5000;0.5674;2.0126;
1054.8000;0.5682;2.0102;
1055.1000;0.5657;2.0102;
1055.4000;0.5665;2.0031;
1055.7000;0.5674;2.0174;
1056.0000;0.5665;2.0221;
1056.3000;0.5674;2.0198;
1056.6000;0.5665;2.0150;
1056.9000;0.5649;2.0102;
1057.2000;0.5665;2.0150;
1057.5000;0.5674;2.0102;
1057.8000;0.5665;2.0102;
1058.1000;0.5682;2.0078;
1058.4000;0.5674;2.0054;
1058.7000;0.5657;1.9935;
1059.0000;0.5649;2.0007;
1059.3000;0.5674;2.0054;
1059.6000;0.5657;2.0031;
1059.9000;0.5665;2.0054;
1060.2000;0.5657;1.9983;
1060.5000;0.5625;1.9888;
1060.8000;0.5657;2.0031;
1061.1000;0.5665;2.0054;
1061.4000;0.5674;2.0054;
1061.7000;0.5674;2.0102;
1062.0000;0.5682;2.0126;
1062.3000;0.5674;2.0054;
1062.6000;0.5674;2.0031;
1062.9000;0.5665;2.0031;
1063.2000;0.5682;2.0007;
1063.5000;0.5665;2.0031;
1063.8000;0.5665;2.0054;
1064.1000;0.5657;2.0007;
1064.4000;0.5649;1.9959;
1064.7000;0.5665;1.9959;
1065.0000;0.5665;1.9959;
1065.3000;0.5649;1.9959;
1065.6000;0.5657;1.9935;
1065.9000;0.5649;2.0007;
1066.2000;0.5674;2.0007;
1066.5000;0.5690;2.0102;
1066.8000;0.5657;2.0031;
1067.1000;0.5657;2.0054;
1067.4000;0.5665;2.0078;
1067.7000;0.5649;2.0054;
1068.0000;0.5657;2.0078;
1068.3000;0.5657;2.0150;
1068.6000;0.5592;1.9983;
1068.9000;0.5649;2.0150;
1069.2000;0.5674;2.0198;
1069.5000;0.5665;2.0174;
1069.8000;0.5649;2.0054;
1070.1000;0.5657;2.0054;
1070.4000;0.5665;2.0150;
1070.7000;0.5665;2.0102;
1071.0000;0.5674;2.0126;
1071.3000;0.5674;2.0054;
1071.6000;0.5657;2.0078;
1071.9000;0.5674;1.9983;
1072.2000;0.5649;1.9888;
1072.5000;0.5665;1.9864;
1072.8000;0.5625;1.9864;
1073.1000;0.5657;2.0102;
1073.4000;0.5674;2.0245;
1073.7000;0.5665;2.0198;
1074.0000;0.5665;2.0126;
1074.3000;0.5665;2.0078;
1074.6000;0.5665;2.0126;
1074.9000;0.5665;2.0102;
1075.2000;0.5657;2.0078;
1075.5000;0.5649;2.0078;
1075.8000;0.5649;2.0102;
1076.1000;0.5722;2.0341;
1076.4000;0.5649;2.0126;
1076.7000;0.5657;2.0078;
1077.0000;0.5690;2.0150;
1077.3000;0.5641;2.0054;
1077.6000;0.5649;1.9888;
1077.9000;0.5641;1.9911;
1078.2000;0.5657;2.0031;
1078.5000;0.5649;2.0031;
1078.8000;0.5682;2.0078;
1079.1000;0.5674;2.0054;
1079.4000;0.5682;2.0078;
1079.7000;0.5649;2.0078;
1080.0000;0.5649;2.0126;
1080.3000;0.5682;2.0245;
1080.6000;0.5657;2.0245;
1080.9000;0.5665;2.0221;
1081.2000;0.5657;2.0174;
1081.5000;0.5657;2.0102;
1081.8000;0.5657;2.0126;
1082.1000;0.5649;2.0221;
1082.4000;0.5657;2.0198;
1082.7000;0.5649;2.0126;
1083.0000;0.5633;2.0078;
1083.3000;0.5690;2.0126;
1083.6000;0.5657;2.0031;
1083.9000;0.5657;2.0031;
1084.2000;0.5674;2.0054;
1084.5000;0.5665;2.0102;
1084.8000;0.5682;2.0150;
1085.1000;0.5674;2.0054;
1085.4000;0.5690;2.0174;
1085.7000;0.5649;1.9983;
1086.0000;0.5682;2.0054;
1086.3000;0.5657;1.9959;
1086.6000;0.5657;1.9911;
1086.9000;0.5641;1.9792;
1087.2000;0.5682;1.9888;
1087.5000;0.5739;2.0054;
1087.8000;0.5649;1.9911;
1088.1000;0.5649;1.9911;
1088.4000;0.5649;1.9888;
1088.7000;0.5665;2.0007;
1089.0000;0.5657;2.0007;
1089.3000;0.5657;2.0031;
1089.6000;0.5739;2.0150;
1089.9000;0.5722;2.0031;
1090.2000;0.5633;1.9840;
1090.5000;0.5690;2.0007;
1090.8000;0.5649;1.9840;
1091.1000;0.5608;1.9697;
1091.4000;0.5665;1.9840;
1091.7000;0.5641;1.9792;
1092.0000;0.5657;1.9816;
1092.3000;0.5649;1.9888;
1092.6000;0.5657;1.9911;
1092.9000;0.5665;1.9840;
1093.2000;0.5641;1.9744;
1093.5000;0.5657;1.9864;
1093.8000;0.5657;1.9911;
1094.1000;0.5657;2.0031;
1094.4000;0.5641;2.0078;
1094.7000;0.5690;2.0245;
1095.0000;0.5682;2.0221;
1095.3000;0.5682;2.0126;
1095.6000;0.5657;2.0078;
1095.9000;0.5633;1.9959;
1096.2000;0.5665;1.9959;
1096.5000;0.5649;1.9911;
1096.8000;0.5657;1.9959;
1097.1000;0.5641;1.9888;
1097.4000;0.5674;1.9959;
1097.7000;0.5674;1.9935;
1098.0000;0.5633;1.9959;
1098.3000;0.5657;1.9864;
1098.6000;0.5657;1.9768;
1098.9000;0.5641;1.9792;
1099.2000;0.5649;1.9864;
1099.5000;0.5682;1.9983;
1099.8000;0.5625;1.9959;
1100.1000;0.5625;2.0007;
1100.4000;0.5641;2.0078;
1100.7000;0.5641;2.0102;
1101.0000;0.5641;2.0126;
1101.3000;0.5641;2.0174;
1101.6000;0.5641;2.0221;
1101.9000;0.5633;2.0126;
1102.2000;0.5641;2.0102;
1102.5000;0.5625;2.0078;
1102.8000;0.5665;2.0126;
1103.1000;0.5641;2.0174;
1103.4000;0.5665;2.0269;
1103.7000;0.5633;2.0293;
1104.0000;0.5649;2.0317;
1104.3000;0.5690;2.0436;
1104.6000;0.5698;2.0412;
1104.9000;0.5649;2.0293;
1105.2000;0.5649;2.0293;
1105.5000;0.5584;2.0126;
1105.8000;0.5649;2.0364;
1106.1000;0.5641;2.0317;
1106.4000;0.5608;2.0221;
1106.7000;0.5657;2.0221;
1107.0000;0.5657;2.0150;
1107.3000;0.5617;2.0174;
1107.6000;0.5657;2.0245;
1107.9000;0.5649;2.0198;
1108.2000;0.5649;2.0198;
1108.5000;0.5649;2.0269;
1108.8000;0.5657;2.0341;
1109.1000;0.5657;2.0388;
1109.4000;0.5641;2.0341;
1109.7000;0.5633;2.0317;
1110.0000;0.5633;2.0317;
1110.3000;0.5641;2.0269;
1110.6000;0.5633;2.0245;
1110.9000;0.5633;2.0293;
1111.2000;0.5633;2.0341;
1111.5000;0.5649;2.0341;
1111.8000;0.5641;2.0341;
1112.1000;0.5641;2.0269;
1112.4000;0.5649;2.0221;
1112.7000;0.5657;2.0221;
1113.0000;0.5641;2.0174;
1113.3000;0.5608;2.0007;
1113.6000;0.5649;2.0198;
1113.9000;0.5625;2.0150;
1114.2000;0.5592;2.0054;
1114.5000;0.5633;2.0221;
1114.8000;0.5592;2.0198;
1115.1000;0.5641;2.0293;
1115.4000;0.5649;2.0317;
1115.7000;0.5641;2.0221;
1116.0000;0.5625;2.0054;
1116.3000;0.5649;2.0031;
1116.6000;0.5649;2.0126;
1116.9000;0.5665;2.0150;
1117.2000;0.5641;2.0126;
1117.5000;0.5657;2.0269;
1117.8000;0.5649;2.0269;
1118.1000;0.5674;2.0341;
1118.4000;0.5649;2.0341;
1118.7000;0.5641;2.0245;
1119.0000;0.5649;2.0245;
1119.3000;0.5633;2.0174;
1119.6000;0.5641;2.0174;
1119.9000;0.5633;2.0054;
1120.2000;0.5608;2.0007;
1120.5000;0.5641;2.0174;
1120.8000;0.5657;2.0150;
1121.1000;0.5633;2.0078;
1121.4000;0.5641;2.0221;
1121.7000;0.5649;2.0150;
1122.0000;0.5641;2.0150;
1122.3000;0.5665;2.0198;
1122.6000;0.5657;2.0078;
1122.9000;0.5649;2.0031;
1123.2000;0.5682;2.0054;
1123.5000;0.5665;2.0007;
1123.8000;0.5641;2.0031;
1124.1000;0.5649;2.0126;
1124.4000;0.5625;2.0007;
1124.7000;0.5633;2.0054;
1125.0000;0.5641;2.0078;
1125.3000;0.5641;2.0126;
1125.6000;0.5649;2.0221;
1125.9000;0.5649;2.0221;
1126.2000;0.5633;2.0150;
1126.5000;0.5649;2.0198;
1126.8000;0.5641;2.0198;
1127.1000;0.5657;2.0317;
1127.4000;0.5633;2.0221;
1127.7000;0.5641;2.0245;
1128.0000;0.5649;2.0317;
1128.3000;0.5665;2.0364;
1128.6000;0.5641;2.0269;
1128.9000;0.5657;2.0341;
1129.2000;0.5625;2.0245;
1129.5000;0.5633;2.0198;
1129.8000;0.5641;2.0174;
1130.1000;0.5649;2.0221;
1130.4000;0.5682;2.0269;
1130.7000;0.5633;2.0078;
1131.0000;0.5674;2.0078;
1131.3000;0.5665;2.0054;
1131.6000;0.5665;2.0126;
1131.9000;0.5608;2.0054;
1132.2000;0.5633;2.0102;
1132.5000;0.5625;2.0054;
1132.8000;0.5625;2.0031;
1133.1000;0.5625;2.0150;
1133.4000;0.5641;2.0174;
1133.7000;0.5633;2.0198;
1134.0000;0.5641;2.0269;
1134.3000;0.5617;2.0221;
1134.6000;0.5649;2.0269;
1134.9000;0.5649;2.0221;
1135.2000;0.5633;2.0174;
1135.5000;0.5649;2.0174;
1135.8000;0.5641;2.0174;
1136.1000;0.5657;2.0221;
1136.4000;0.5649;2.0245;
1136.7000;0.5633;2.0245;
1137.0000;0.5649;2.0317;
1137.3000;0.5633;2.0245;
1137.6000;0.5625;2.0174;
1137.9000;0.5600;2.0102;
1138.2000;0.5608;2.0054;
1138.5000;0.5690;2.0245;
1138.8000;0.5641;2.0150;
1139.1000;0.5649;2.0150;
1139.4000;0.5625;2.0102;
1139.7000;0.5657;2.0174;
1140.0000;0.5649;2.0150;
1140.3000;0.5633;2.0174;
1140.6000;0.5641;2.0126;
1140.9000;0.5649;2.0126;
1141.2000;0.5633;2.0054;
1141.5000;0.5633;2.0031;
1141.8000;0.5633;1.9983;
1142.1000;0.5633;2.0031;
1142.4000;0.5641;2.0150;
1142.7000;0.5625;2.0126;
1143.0000;0.5625;2.0126;
1143.3000;0.5633;2.0102;
1143.6000;0.5641;2.0102;
1143.9000;0.5633;2.0054;
1144.2000;0.5641;2.0031;
1144.5000;0.5625;1.9959;
1144.8000;0.5625;1.9983;
1145.1000;0.5617;1.9959;
1145.4000;0.5633;1.9983;
1145.7000;0.5625;1.9959;
1146.0000;0.5625;1.9959;
1146.3000;0.5641;1.9983;
1146.6000;0.5625;1.9911;
1146.9000;0.5633;2.0007;
1147.2000;0.5698;2.0102;
1147.5000;0.5641;1.9959;
1147.8000;0.5633;2.0031;
1148.1000;0.5649;2.0150;
1148.4000;0.5649;2.0198;
1148.7000;0.5657;2.0245;
1149.0000;0.5649;2.0293;
1149.3000;0.5625;2.0150;
1149.6000;0.5657;2.0126;
1149.9000;0.5649;2.0126;
1150.2000;0.5633;2.0078;
1150.5000;0.5641;2.0078;
1150.8000;0.5625;2.0102;
1151.1000;0.5625;2.0078;
1151.4000;0.5617;2.0078;
1151.7000;0.5625;2.0174;
1152.0000;0.5633;2.0174;
1152.3000;0.5649;2.0221;
1152.6000;0.5641;2.0198;
1152.9000;0.5641;2.0150;
1153.2000;0.5617;2.0102;
1153.5000;0.5641;2.0221;
1153.8000;0.5633;2.0102;
1154.1000;0.5633;2.0054;
1154.4000;0.5665;2.0126;
1154.7000;0.5608;2.0031;
1155.0000;0.5714;2.0221;
1155.3000;0.5633;2.0078;
1155.6000;0.5633;2.0102;
1155.9000;0.5633;2.0102;
1156.2000;0.5633;2.0078;
1156.5000;0.5584;1.9840;
1156.8000;0.5625;2.0031;
1157.1000;0.5625;2.0078;
1157.4000;0.5633;2.0126;
1157.7000;0.5641;2.0198;
1158.0000;0.5617;2.0102;
1158.3000;0.5625;2.0102;
1158.6000;0.5625;2.0078;
1158.9000;0.5625;2.0078;
1159.2000;0.5641;2.0102;
1159.5000;0.5625;2.0031;
1159.8000;0.5617;2.0007;
1160.1000;0.5617;2.0007;
1160.4000;0.5625;2.0031;
1160.7000;0.5633;2.0078;
1161.0000;0.5625;2.0126;
1161.3000;0.5633;2.0126;
1161.6000;0.5641;2.0150;
1161.9000;0.5633;2.0150;
1162.2000;0.5633;2.0126;
1162.5000;0.5665;2.0245;
1162.8000;0.5649;2.0126;
1163.1000;0.5657;2.0150;
1163.4000;0.5608;2.0054;
1163.7000;0.5649;2.0031;
1164.0000;0.5617;1.9935;
1164.3000;0.5633;1.9888;
1164.6000;0.5633;1.9864;
1164.9000;0.5641;1.9864;
1165.2000;0.5625;1.9864;
1165.5000;0.5641;1.9888;
1165.8000;0.5633;1.9935;
1166.1000;0.5625;1.9816;
1166.4000;0.5649;1.9888;
1166.7000;0.5625;1.9864;
1167.0000;0.5617;1.9888;
1167.3000;0.5625;1.9888;
1167.6000;0.5608;1.9840;
1167.9000;0.5633;1.9935;
1168.2000;0.5625;1.9935;
1168.5000;0.5641;1.9840;
1168.8000;0.5649;1.9816;
1169.1000;0.5617;1.9816;
1169.4000;0.5674;1.9935;
1169.7000;0.5625;1.9744;
1170.0000;0.5608;1.9768;
1170.3000;0.5633;1.9840;
1170.6000;0.5633;1.9816;
1170.9000;0.5649;1.9816;
1171.2000;0.5600;1.9816;
1171.5000;0.5641;1.9911;
1171.8000;0.5649;1.9840;
1172.1000;0.5641;1.9816;
1172.4000;0.5625;1.9768;
1172.7000;0.5633;1.9816;
1173.0000;0.5625;1.9840;
1173.3000;0.5649;1.9911;
1173.6000;0.5617;1.9935;
1173.9000;0.5633;2.0174;
1174.2000;0.5641;2.0126;
1174.5000;0.5625;2.0174;
1174.8000;0.5633;2.0245;
1175.1000;0.5657;2.0269;
1175.4000;0.5641;2.0245;
1175.7000;0.5641;2.0317;
1176.0000;0.5633;2.0293;
1176.3000;0.5641;2.0293;
1176.6000;0.5641;2.0269;
1176.9000;0.5633;2.0269;
1177.2000;0.5625;2.0269;
1177.5000;0.5608;2.0245;
1177.8000;0.5625;2.0245;
1178.1000;0.5617;2.0269;
1178.4000;0.5617;2.0269;
1178.7000;0.5657;2.0293;
1179.0000;0.5625;2.0150;
1179.3000;0.5576;1.9911;
1179.6000;0.5617;1.9983;
1179.9000;0.5625;1.9911;
1180.2000;0.5617;1.9888;
1180.5000;0.5600;1.9840;
1180.8000;0.5625;1.9983;
1181.1000;0.5633;2.0031;
1181.4000;0.5617;2.0007;
1181.7000;0.5633;2.0054;
1182.0000;0.5625;2.0078;
1182.3000;0.5608;1.9983;
1182.6000;0.5584;1.9959;
1182.9000;0.5657;2.0102;
1183.2000;0.5633;2.0078;
1183.5000;0.5625;2.0102;
1183.8000;0.5617;2.0078;
1184.1000;0.5600;1.9983;
1184.4000;0.5633;2.0031;
1184.7000;0.5641;2.0078;
1185.0000;0.5608;2.0007;
1185.3000;0.5641;2.0031;
1185.6000;0.5714;2.0245;
1185.9000;0.5641;2.0031;
1186.2000;0.5625;1.9935;
1186.5000;0.5633;1.9911;
1186.8000;0.5633;1.9959;
1187.1000;0.5633;1.9935;
1187.4000;0.5617;1.9935;
1187.7000;0.5617;2.0007;
1188.0000;0.5657;2.0078;
1188.3000;0.5633;1.9983;
1188.6000;0.5617;1.9959;
1188.9000;0.5608;2.0031;
1189.2000;0.5625;2.0150;
1189.5000;0.5641;2.0150;
1189.8000;0.5625;2.0174;
1190.1000;0.5617;2.0150;
1190.4000;0.5617;2.0102;
1190.7000;0.5633;2.0054;
1191.0000;0.5617;2.0031;
1191.3000;0.5608;1.9983;
1191.6000;0.5625;2.0054;
1191.9000;0.5641;2.0078;
1192.2000;0.5600;2.0054;
1192.5000;0.5617;1.9959;
1192.8000;0.5633;2.0007;
1193.1000;0.5625;1.9959;
1193.4000;0.5649;1.9911;
1193.7000;0.5625;1.9864;
1194.0000;0.5633;1.9864;
1194.3000;0.5633;1.9816;
1194.6000;0.5633;1.9888;
1194.9000;0.5633;1.9911;
1195.2000;0.5641;1.9911;
1195.5000;0.5641;1.9935;
1195.8000;0.5633;1.9959;
1196.1000;0.5633;1.9911;
1196.4000;0.5633;1.9911;
1196.7000;0.5641;1.9935;
1197.0000;0.5625;1.9959;
1197.3000;0.5633;1.9959;
1197.6000;0.5608;1.9959;
1197.9000;0.5633;2.0054;
1198.2000;0.5608;2.0031;
1198.5000;0.5625;2.0150;
1198.8000;0.5617;2.0078;
1199.1000;0.5617;2.0007;
1199.4000;0.5617;2.0126;
1199.7000;0.5617;2.0150;
1200.0000;0.5608;2.0007;
1200.3000;0.5584;1.9840;
1200.6000;0.5617;1.9935;
1200.9000;0.5617;1.9983;
1201.2000;0.5633;2.0031;
1201.5000;0.5633;2.0031;
1201.8000;0.5617;1.9983;
1202.1000;0.5625;1.9983;
1202.4000;0.5608;1.9959;
1202.7000;0.5617;1.9935;
1203.0000;0.5608;1.9888;
1203.3000;0.5625;1.9935;
1203.6000;0.5625;1.9911;
1203.9000;0.5608;1.9935;
1204.2000;0.5608;1.9888;
1204.5000;0.5617;1.9840;
1204.8000;0.5617;1.9816;
1205.1000;0.5568;1.9744;
1205.4000;0.5617;1.9792;
1205.7000;0.5617;1.9816;
1206.0000;0.5543;1.9768;
1206.3000;0.5682;2.0198;
1206.6000;0.5633;2.0102;
1206.9000;0.5625;2.0102;
1207.2000;0.5600;2.0031;
1207.5000;0.5633;2.0031;
1207.8000;0.5625;1.9983;
1208.1000;0.5690;2.0126;
1208.4000;0.5600;2.0007;
1208.7000;0.5625;2.0007;
1209.0000;0.5625;2.0007;
1209.3000;0.5641;2.0102;
1209.6000;0.5665;2.0150;
1209.9000;0.5641;2.0078;
1210.2000;0.5657;2.0054;
1210.5000;0.5625;1.9935;
1210.8000;0.5625;1.9888;
1211.1000;0.5617;1.9864;
1211.4000;0.5633;1.9911;
1211.7000;0.5617;1.9935;
1212.0000;0.5617;1.9911;
1212.3000;0.5625;2.0031;
1212.6000;0.5625;2.0078;
1212.9000;0.5633;2.0150;
1213.2000;0.5641;2.0054;
1213.5000;0.5625;1.9983;
1213.8000;0.5633;1.9959;
1214.1000;0.5633;1.9888;
1214.4000;0.5608;1.9744;
1214.7000;0.5649;1.9792;
1215.0000;0.5617;1.9744;
1215.3000;0.5625;1.9792;
1215.6000;0.5608;1.9768;
1215.9000;0.5617;1.9888;
1216.2000;0.5625;1.9959;
1216.5000;0.5608;2.0078;
1216.8000;0.5625;2.0174;
1217.1000;0.5625;2.0150;
1217.4000;0.5641;2.0126;
1217.7000;0.5617;2.0102;
1218.0000;0.5608;2.0054;
1218.3000;0.5617;2.0054;
1218.6000;0.5608;2.0054;
1218.9000;0.5625;2.0054;
1219.2000;0.5665;2.0245;
1219.5000;0.5617;2.0126;
1219.8000;0.5641;2.0221;
1220.1000;0.5633;2.0102;
1220.4000;0.5641;2.0007;
1220.7000;0.5633;2.0007;
1221.0000;0.5608;1.9959;
1221.3000;0.5625;2.0054;
1221.6000;0.5617;2.0078;
1221.9000;0.5617;1.9959;
1222.2000;0.5625;2.0031;
1222.5000;0.5657;2.0221;
1222.8000;0.5625;2.0221;
1223.1000;0.5633;2.0174;
1223.4000;0.5617;2.0102;
1223.7000;0.5617;2.0054;
1224.0000;0.5625;2.0031;
1224.3000;0.5617;2.0007;
1224.6000;0.5617;1.9959;
1224.9000;0.5649;2.0007;
1225.2000;0.5617;1.9959;
1225.5000;0.5633;1.9935;
1225.8000;0.5617;2.0007;
1226.1000;0.5617;1.9959;
1226.4000;0.5625;2.0031;
1226.7000;0.5625;2.0007;
1227.0000;0.5617;2.0031;
1227.3000;0.5657;2.0102;
1227.6000;0.5625;1.9983;
1227.9000;0.5641;1.9959;
1228.2000;0.5617;2.0031;
1228.5000;0.5608;1.9983;
1228.8000;0.5617;1.9911;
1229.1000;0.5633;1.9959;
1229.4000;0.5600;1.9935;
1229.7000;0.5633;2.0007;
1230.0000;0.5641;2.0078;
1230.3000;0.5625;2.0102;
1230.6000;0.5600;2.0054;
1230.9000;0.5625;1.9959;
1231.2000;0.5608;1.9935;
1231.5000;0.5617;2.0031;
1231.8000;0.5633;2.0078;
1232.1000;0.5665;2.0102;
1232.4000;0.5633;1.9935;
1232.7000;0.5608;1.9935;
1233.0000;0.5625;2.0031;
1233.3000;0.5625;2.0150;
1233.6000;0.5633;2.0221;
1233.9000;0.5608;2.0078;
1234.2000;0.5617;2.0078;
1234.5000;0.5608;2.0007;
1234.8000;0.5608;2.0054;
1235.1000;0.5625;2.0102;
1235.4000;0.5617;2.0078;
1235.7000;0.5600;1.9983;
1236.0000;0.5600;1.9864;
1236.3000;0.5608;1.9816;
1236.6000;0.5608;1.9888;
1236.9000;0.5625;1.9935;
1237.2000;0.5600;1.9888;
1237.5000;0.5617;1.9959;
1237.8000;0.5608;1.9983;
1238.1000;0.5633;2.0007;
1238.4000;0.5633;2.0031;
1238.7000;0.5641;2.0007;
1239.0000;0.5600;1.9935;
1239.3000;0.5617;2.0007;
1239.6000;0.5617;2.0007;
1239.9000;0.5617;2.0031;
1240.2000;0.5625;2.0102;
1240.5000;0.5600;2.0102;
1240.8000;0.5625;2.0126;
1241.1000;0.5649;2.0174;
1241.4000;0.5625;2.0174;
1241.7000;0.5641;2.0221;
1242.0000;0.5617;2.0245;
1242.3000;0.5617;2.0221;
1242.6000;0.5633;2.0198;
1242.9000;0.5617;2.0245;
1243.2000;0.5568;2.0126;
1243.5000;0.5576;2.0102;
1243.8000;0.5617;2.0126;
1244.1000;0.5617;2.0126;
1244.4000;0.5625;2.0078;
1244.7000;0.5617;2.0102;
1245.0000;0.5600;2.0078;
1245.3000;0.5608;2.0221;
1245.6000;0.5608;2.0293;
1245.9000;0.5608;2.0293;
1246.2000;0.5608;2.0293;
1246.5000;0.5617;2.0341;
1246.8000;0.5617;2.0317;
1247.1000;0.5608;2.0221;
1247.4000;0.5608;2.0174;
1247.7000;0.5600;2.0198;
1248.0000;0.5617;2.0221;
1248.3000;0.5682;2.0460;
1248.6000;0.5608;2.0341;
1248.9000;0.5560;2.0150;
1249.2000;0.5617;2.0245;
1249.5000;0.5608;2.0150;
1249.8000;0.5608;2.0150;
1250.1000;0.5600;2.0102;
1250.4000;0.5625;2.0102;
1250.7000;0.5617;2.0078;
1251.0000;0.5617;2.0102;
1251.3000;0.5649;2.0126;
1251.6000;0.5617;2.0150;
1251.9000;0.5608;2.0102;
1252.2000;0.5641;2.0078;
1252.5000;0.5617;2.0102;
1252.8000;0.5576;2.0102;
1253.1000;0.5625;2.0198;
1253.4000;0.5608;2.0174;
1253.7000;0.5600;2.0078;
1254.0000;0.5584;2.0031;
1254.3000;0.5608;2.0126;
1254.6000;0.5625;2.0150;
1254.9000;0.5592;2.0054;
1255.2000;0.5617;2.0174;
1255.5000;0.5617;2.0102;
1255.8000;0.5600;2.0054;
1256.1000;0.5625;2.0078;
1256.4000;0.5617;2.0078;
1256.7000;0.5617;2.0102;
1257.0000;0.5617;2.0102;
1257.3000;0.5617;2.0054;
1257.6000;0.5617;2.0007;
1257.9000;0.5625;2.0150;
1258.2000;0.5617;2.0150;
1258.5000;0.5608;2.0102;
1258.8000;0.5608;2.0078;
1259.1000;0.5649;2.0102;
1259.4000;0.5608;2.0054;
1259.7000;0.5625;2.0102;
1260.0000;0.5657;2.0150;
1260.3000;0.5608;2.0054;
1260.6000;0.5617;2.0126;
1260.9000;0.5608;2.0102;
1261.2000;0.5560;1.9911;
1261.5000;0.5641;2.0174;
1261.8000;0.5600;2.0126;
1262.1000;0.5576;1.9983;
1262.4000;0.5568;1.9935;
1262.7000;0.5608;2.0054;
1263.0000;0.5576;1.9959;
1263.3000;0.5600;2.0078;
1263.6000;0.5608;2.0174;
1263.9000;0.5600;2.0126;
1264.2000;0.5641;2.0174;
1264.5000;0.5600;2.0031;
1264.8000;0.5608;1.9983;
1265.1000;0.5600;1.9959;
1265.4000;0.5617;2.0031;
1265.7000;0.5665;2.0198;
1266.0000;0.5608;1.9983;
1266.3000;0.5600;1.9959;
1266.6000;0.5608;1.9959;
1266.9000;0.5617;2.0007;
1267.2000;0.5600;1.9983;
1267.5000;0.5617;2.0007;
1267.8000;0.5617;2.0031;
1268.1000;0.5600;2.0102;
1268.4000;0.5608;2.0054;
1268.7000;0.5617;2.0054;
1269.0000;0.5617;2.0054;
1269.3000;0.5608;2.0031;
1269.6000;0.5608;1.9935;
1269.9000;0.5608;1.9959;
1270.2000;0.5625;1.9983;
1270.5000;0.5560;1.9816;
1270.8000;0.5617;2.0054;
1271.1000;0.5625;2.0102;
1271.4000;0.5625;2.0102;
1271.7000;0.5592;2.0054;
1272.0000;0.5600;2.0078;
1272.3000;0.5617;2.0102;
1272.6000;0.5633;2.0102;
1272.9000;0.5617;2.0054;
1273.2000;0.5608;2.0078;
1273.5000;0.5617;2.0150;
1273.8000;0.5617;2.0174;
1274.1000;0.5617;2.0221;
1274.4000;0.5600;2.0221;
1274.7000;0.5617;2.0317;
1275.0000;0.5584;2.0221;
1275.3000;0.5617;2.0245;
1275.6000;0.5617;2.0317;
1275.9000;0.5625;2.0317;
1276.2000;0.5617;2.0293;
1276.5000;0.5674;2.0484;
1276.8000;0.5617;2.0341;
1277.1000;0.5576;2.0245;
1277.4000;0.5617;2.0341;
1277.7000;0.5617;2.0341;
1278.0000;0.5633;2.0364;
1278.3000;0.5576;2.0150;
1278.6000;0.5584;2.0150;
1278.9000;0.5633;2.0269;
1279.2000;0.5608;2.0269;
1279.5000;0.5600;2.0198;
1279.8000;0.5608;2.0174;
1280.1000;0.5600;2.0102;
1280.4000;0.5608;2.0174;
1280.7000;0.5592;2.0102;
1281.0000;0.5608;2.0102;
1281.3000;0.5600;2.0054;
1281.6000;0.5617;2.0054;
1281.9000;0.5641;2.0126;
1282.2000;0.5600;2.0102;
1282.5000;0.5617;2.0126;
1282.8000;0.5608;2.0150;
1283.1000;0.5641;2.0150;
1283.4000;0.5625;2.0150;
1283.7000;0.5625;2.0245;
1284.0000;0.5625;2.0269;
1284.3000;0.5600;2.0198;
1284.6000;0.5617;2.0245;
1284.9000;0.5608;2.0221;
1285.2000;0.5600;2.0150;
1285.5000;0.5608;2.0198;
1285.8000;0.5608;2.0198;
1286.1000;0.5560;2.0054;
1286.4000;0.5584;2.0078;
1286.7000;0.5625;2.0150;
1287.0000;0.5617;2.0150;
1287.3000;0.5608;2.0198;
1287.6000;0.5592;2.0174;
1287.9000;0.5625;2.0269;
1288.2000;0.5625;2.0245;
1288.5000;0.5592;2.0245;
1288.8000;0.5600;2.0245;
1289.1000;0.5608;2.0245;
1289.4000;0.5617;2.0269;
1289.7000;0.5592;2.0198;
1290.0000;0.5625;2.0317;
1290.3000;0.5617;2.0245;
1290.6000;0.5608;2.0198;
1290.9000;0.5625;2.0317;
1291.2000;0.5617;2.0269;
1291.5000;0.5600;2.0221;
1291.8000;0.5617;2.0317;
1292.1000;0.5617;2.0293;
1292.4000;0.5625;2.0198;
1292.7000;0.5592;2.0126;
1293.0000;0.5625;2.0269;
1293.3000;0.5608;2.0293;
1293.6000;0.5608;2.0364;
1293.9000;0.5608;2.0364;
1294.2000;0.5592;2.0364;
1294.5000;0.5625;2.0436;
1294.8000;0.5641;2.0484;
1295.1000;0.5600;2.0412;
1295.4000;0.5600;2.0341;
1295.7000;0.5617;2.0341;
1296.0000;0.5592;2.0126;
1296.3000;0.5608;2.0126;
1296.6000;0.5608;2.0174;
1296.9000;0.5633;2.0293;
1297.2000;0.5600;2.0269;
1297.5000;0.5608;2.0245;
1297.8000;0.5600;2.0221;
1298.1000;0.5633;2.0293;
1298.4000;0.5592;2.0174;
1298.7000;0.5584;2.0126;
1299.0000;0.5592;2.0174;
1299.3000;0.5600;2.0150;
1299.6000;0.5600;2.0150;
1299.9000;0.5633;2.0126;
1300.2000;0.5608;2.0102;
1300.5000;0.5625;2.0007;
1300.8000;0.5584;2.0031;
1301.1000;0.5576;2.0031;
1301.4000;0.5535;1.9864;
1301.7000;0.5592;2.0054;
1302.0000;0.5592;2.0007;
1302.3000;0.5600;2.0007;
1302.6000;0.5600;1.9935;
1302.9000;0.5625;2.0078;
1303.2000;0.5633;2.0150;
1303.5000;0.5617;2.0102;
1303.8000;0.5600;2.0031;
1304.1000;0.5617;2.0007;
1304.4000;0.5617;2.0054;
1304.7000;0.5608;2.0031;
1305.0000;0.5617;2.0102;
1305.3000;0.5600;2.0078;
1305.6000;0.5608;2.0150;
1305.9000;0.5617;2.0150;
1306.2000;0.5600;2.0054;
1306.5000;0.5600;2.0078;
1306.8000;0.5625;2.0126;
1307.1000;0.5608;1.9983;
1307.4000;0.5617;1.9983;
1307.7000;0.5608;1.9959;
1308.0000;0.5608;1.9911;
1308.3000;0.5600;1.9888;
1308.6000;0.5617;1.9864;
1308.9000;0.5608;1.9840;
1309.2000;0.5568;1.9840;
1309.5000;0.5625;2.0007;
1309.8000;0.5608;2.0031;
1310.1000;0.5560;1.9911;
1310.4000;0.5633;2.0078;
1310.7000;0.5592;2.0054;
1311.0000;0.5608;2.0102;
1311.3000;0.5592;2.0102;
1311.6000;0.5617;2.0102;
1311.9000;0.5608;2.0031;
1312.2000;0.5592;1.9959;
1312.5000;0.5592;1.9983;
1312.8000;0.5592;2.0007;
1313.1000;0.5617;2.0054;
1313.4000;0.5617;1.9911;
1313.7000;0.5608;1.9888;
1314.0000;0.5600;1.9840;
1314.3000;0.5608;1.9792;
1314.6000;0.5617;1.9840;
1314.9000;0.5600;1.9792;
1315.2000;0.5600;1.9911;
1315.5000;0.5617;1.9983;
1315.8000;0.5576;1.9959;
1316.1000;0.5600;1.9935;
1316.4000;0.5584;1.9911;
1316.7000;0.5584;2.0007;
1317.0000;0.5592;1.9959;
1317.3000;0.5584;1.9911;
1317.6000;0.5592;1.9911;
1317.9000;0.5617;2.0007;
1318.2000;0.5608;1.9983;
1318.5000;0.5625;1.9935;
1318.8000;0.5600;1.9911;
1319.1000;0.5600;1.9911;
1319.4000;0.5608;1.9935;
1319.7000;0.5617;1.9983;
1320.0000;0.5600;2.0007;
1320.3000;0.5592;2.0054;
1320.6000;0.5584;2.0007;
1320.9000;0.5600;1.9959;
1321.2000;0.5592;1.9983;
1321.5000;0.5568;1.9911;
1321.8000;0.5641;2.0150;
1322.1000;0.5608;2.0054;
1322.4000;0.5592;1.9983;
1322.7000;0.5608;2.0031;
1323.0000;0.5625;2.0007;
1323.3000;0.5617;2.0031;
1323.6000;0.5617;2.0031;
1323.9000;0.5633;2.0054;
1324.2000;0.5608;2.0078;
1324.5000;0.5551;2.0007;
1324.8000;0.5600;2.0174;
1325.1000;0.5543;1.9983;
1325.4000;0.5600;2.0198;
1325.7000;0.5617;2.0198;
1326.0000;0.5617;2.0150;
1326.3000;0.5608;2.0174;
1326.6000;0.5592;2.0102;
1326.9000;0.5568;2.0054;
1327.2000;0.5608;2.0174;
1327.5000;0.5608;2.0198;
1327.8000;0.5608;2.0245;
1328.1000;0.5592;2.0269;
1328.4000;0.5617;2.0341;
1328.7000;0.5608;2.0221;
1329.0000;0.5608;2.0102;
1329.3000;0.5608;2.0174;
1329.6000;0.5608;2.0150;
1329.9000;0.5600;2.0174;
1330.2000;0.5617;2.0269;
1330.5000;0.5600;2.0245;
1330.8000;0.5592;2.0221;
1331.1000;0.5600;2.0198;
1331.4000;0.5633;2.0293;
1331.7000;0.5608;2.0221;
1332.0000;0.5608;2.0198;
1332.3000;0.5600;2.0221;
1332.6000;0.5600;2.0174;
1332.9000;0.5617;2.0174;
1333.2000;0.5608;2.0126;
1333.5000;0.5600;2.0150;
1333.8000;0.5641;2.0293;
1334.1000;0.5600;2.0221;
1334.4000;0.5592;2.0221;
1334.7000;0.5608;2.0245;
1335.0000;0.5625;2.0293;
1335.3000;0.5527;2.0054;
1335.6000;0.5600;2.0293;
1335.9000;0.5584;2.0269;
1336.2000;0.5600;2.0412;
1336.5000;0.5617;2.0436;
1336.8000;0.5600;2.0388;
1337.1000;0.5592;2.0364;
1337.4000;0.5576;2.0245;
1337.7000;0.5568;2.0150;
1338.0000;0.5592;2.0221;
1338.3000;0.5608;2.0198;
1338.6000;0.5608;2.0174;
1338.9000;0.5600;2.0126;
1339.2000;0.5576;2.0174;
1339.5000;0.5600;2.0245;
1339.8000;0.5617;2.0317;
1340.1000;0.5608;2.0293;
1340.4000;0.5584;2.0221;
1340.7000;0.5608;2.0221;
1341.0000;0.5600;2.0221;
1341.3000;0.5617;2.0221;
1341.6000;0.5625;2.0221;
1341.9000;0.5560;2.0174;
1342.2000;0.5617;2.0341;
1342.5000;0.5608;2.0317;
1342.8000;0.5617;2.0245;
1343.1000;0.5592;2.0150;
1343.4000;0.5608;2.0102;
1343.7000;0.5617;2.0150;
1344.0000;0.5608;2.0174;
1344.3000;0.5584;2.0126;
1344.6000;0.5568;2.0031;
1344.9000;0.5592;2.0126;
1345.2000;0.5600;2.0150;
1345.5000;0.5600;2.0150;
1345.8000;0.5592;2.0150;
1346.1000;0.5600;2.0150;
1346.4000;0.5608;2.0221;
1346.7000;0.5600;2.0102;
1347.0000;0.5608;2.0150;
1347.3000;0.5600;2.0102;
1347.6000;0.5584;2.0031;
1347.9000;0.5608;2.0078;
1348.2000;0.5592;2.0054;
1348.5000;0.5608;2.0054;
1348.8000;0.5608;2.0102;
1349.1000;0.5617;2.0126;
1349.4000;0.5600;2.0078;
1349.7000;0.5592;2.0102;
1350.0000;0.5617;2.0078;
1350.3000;0.5608;2.0054;
1350.6000;0.5600;2.0007;
1350.9000;0.5592;1.9983;
1351.2000;0.5617;2.0031;
1351.5000;0.5600;2.0007;
1351.8000;0.5617;2.0007;
1352.1000;0.5600;1.9983;
1352.4000;0.5592;1.9959;
1352.7000;0.5617;2.0007;
1353.0000;0.5608;2.0054;
1353.3000;0.5608;2.0078;
1353.6000;0.5617;2.0078;
1353.9000;0.5592;2.0174;
1354.2000;0.5625;2.0269;
1354.5000;0.5584;2.0126;
1354.8000;0.5576;2.0126;
1355.1000;0.5600;2.0198;
1355.4000;0.5617;2.0221;
1355.7000;0.5600;2.0174;
1356.0000;0.5551;2.0031;
1356.3000;0.5633;2.0221;
1356.6000;0.5608;2.0102;
1356.9000;0.5617;2.0102;
1357.2000;0.5674;2.0269;
1357.5000;0.5584;2.0078;
1357.8000;0.5608;2.0102;
1358.1000;0.5592;2.0078;
1358.4000;0.5608;2.0150;
1358.7000;0.5592;2.0102;
1359.0000;0.5551;1.9983;
1359.3000;0.5617;2.0078;
1359.6000;0.5584;1.9983;
1359.9000;0.5592;1.9959;
1360.2000;0.5600;1.9959;
1360.5000;0.5584;1.9911;
1360.8000;0.5608;1.9983;
1361.1000;0.5608;2.0007;
1361.4000;0.5633;2.0031;
1361.7000;0.5608;2.0031;
1362.0000;0.5584;2.0078;
1362.3000;0.5625;2.0245;
1362.6000;0.5592;2.0102;
1362.9000;0.5600;2.0054;
1363.2000;0.5617;2.0102;
1363.5000;0.5568;1.9983;
1363.8000;0.5576;1.9888;
1364.1000;0.5600;1.9959;
1364.4000;0.5625;1.9959;
1364.7000;0.5617;2.0031;
1365.0000;0.5600;2.0078;
1365.3000;0.5608;2.0198;
1365.6000;0.5568;2.0150;
1365.9000;0.5592;2.0126;
1366.2000;0.5584;2.0031;
1366.5000;0.5600;2.0007;
1366.8000;0.5641;2.0102;
1367.1000;0.5608;2.0007;
1367.4000;0.5543;1.9792;
1367.7000;0.5600;1.9911;
1368.0000;0.5608;1.9959;
1368.3000;0.5608;1.9959;
1368.6000;0.5608;1.9983;
1368.9000;0.5608;1.9959;
1369.2000;0.5600;2.0007;
1369.5000;0.5608;2.0007;
1369.8000;0.5584;1.9983;
1370.1000;0.5584;1.9959;
1370.4000;0.5600;2.0031;
1370.7000;0.5600;2.0054;
1371.0000;0.5625;2.0150;
1371.3000;0.5608;2.0126;
1371.6000;0.5600;2.0150;
1371.9000;0.5592;2.0126;
1372.2000;0.5592;2.0126;
1372.5000;0.5600;2.0078;
1372.8000;0.5600;2.0031;
1373.1000;0.5608;1.9959;
1373.4000;0.5608;1.9959;
1373.7000;0.5633;1.9935;
1374.0000;0.5584;1.9840;
1374.3000;0.5592;1.9816;
1374.6000;0.5608;1.9840;
1374.9000;0.5608;1.9864;
1375.2000;0.5600;1.9864;
1375.5000;0.5617;1.9911;
1375.8000;0.5617;1.9911;
1376.1000;0.5617;1.9888;
1376.4000;0.5600;1.9911;
1376.7000;0.5592;1.9935;
1377.0000;0.5608;2.0007;
1377.3000;0.5617;2.0031;
1377.6000;0.5592;1.9959;
1377.9000;0.5592;1.9959;
1378.2000;0.5576;1.9983;
1378.5000;0.5600;2.0031;
1378.8000;0.5608;1.9959;
1379.1000;0.5584;1.9983;
1379.4000;0.5617;2.0150;
1379.7000;0.5600;2.0054;
1380.0000;0.5576;2.0007;
1380.3000;0.5592;2.0031;
1380.6000;0.5592;2.0054;
1380.9000;0.5584;2.0102;
1381.2000;0.5633;2.0174;
1381.5000;0.5600;2.0102;
1381.8000;0.5592;2.0221;
1382.1000;0.5592;2.0221;
1382.4000;0.5576;2.0221;
1382.7000;0.5592;2.0317;
1383.0000;0.5584;2.0221;
1383.3000;0.5592;2.0293;
1383.6000;0.5600;2.0341;
1383.9000;0.5592;2.0317;
1384.2000;0.5592;2.0245;
1384.5000;0.5600;2.0198;
1384.8000;0.5617;2.0221;
1385.1000;0.5617;2.0269;
1385.4000;0.5608;2.0245;
1385.7000;0.5600;2.0269;
1386.0000;0.5617;2.0317;
1386.3000;0.5600;2.0388;
1386.6000;0.5600;2.0341;
1386.9000;0.5592;2.0293;
1387.2000;0.5592;2.0293;
1387.5000;0.5625;2.0269;
1387.8000;0.5592;2.0174;
1388.1000;0.5608;2.0269;
1388.4000;0.5608;2.0269;
1388.7000;0.5608;2.0293;
1389.0000;0.5600;2.0221;
1389.3000;0.5592;2.0150;
1389.6000;0.5576;2.0054;
1389.9000;0.5592;2.0102;
1390.2000;0.5608;2.0102;
1390.5000;0.5600;2.0007;
1390.8000;0.5592;1.9959;
1391.1000;0.5600;1.9935;
1391.4000;0.5617;2.0031;
1391.7000;0.5617;2.0031;
1392.0000;0.5584;1.9935;
1392.3000;0.5592;1.9911;
1392.6000;0.5600;1.9983;
1392.9000;0.5592;1.9983;
1393.2000;0.5584;1.9983;
1393.5000;0.5592;2.0078;
1393.8000;0.5584;2.0031;
1394.1000;0.5600;2.0102;
1394.4000;0.5592;2.0102;
1394.7000;0.5600;2.0078;
1395.0000;0.5608;2.0078;
1395.3000;0.5608;2.0150;
1395.6000;0.5617;2.0150;
1395.9000;0.5608;2.0174;
1396.2000;0.5617;2.0245;
1396.5000;0.5584;2.0198;
1396.8000;0.5600;2.0198;
1397.1000;0.5584;2.0198;
1397.4000;0.5592;2.0126;
1397.7000;0.5600;2.0054;
1398.0000;0.5600;2.0126;
1398.3000;0.5592;2.0126;
1398.6000;0.5600;2.0150;
1398.9000;0.5600;2.0126;
1399.2000;0.5576;2.0126;
1399.5000;0.5600;2.0031;
1399.8000;0.5592;1.9983;
