time/ms;Fluo/V;P700 deltaI/I x10³;
-199.8000;0.5486;2.0388;
-199.5000;0.5454;2.0341;
-199.2000;0.5486;2.0388;
-198.9000;0.5495;2.0460;
-198.6000;0.5495;2.0460;
-198.3000;0.5495;2.0388;
-198.0000;0.5495;2.0460;
-197.7000;0.5495;2.0484;
-197.4000;0.5495;2.0603;
-197.1000;0.5495;2.0555;
-196.8000;0.5478;2.0484;
-196.5000;0.5470;2.0484;
-196.2000;0.5495;2.0531;
-195.9000;0.5503;2.0579;
-195.6000;0.5486;2.0651;
-195.3000;0.5486;2.0627;
-195.0000;0.5543;2.0746;
-194.7000;0.5527;2.0794;
-194.4000;0.5495;2.0722;
-194.1000;0.5446;2.0579;
-193.8000;0.5486;2.0722;
-193.5000;0.5503;2.0770;
-193.2000;0.5486;2.0770;
-192.9000;0.5495;2.0818;
-192.6000;0.5462;2.0770;
-192.3000;0.5495;2.0770;
-192.0000;0.5495;2.0722;
-191.7000;0.5503;2.0770;
-191.4000;0.5503;2.0770;
-191.1000;0.5503;2.0674;
-190.8000;0.5495;2.0674;
-190.5000;0.5470;2.0627;
-190.2000;0.5495;2.0603;
-189.9000;0.5511;2.0627;
-189.6000;0.5503;2.0555;
-189.3000;0.5503;2.0603;
-189.0000;0.5511;2.0603;
-188.7000;0.5478;2.0579;
-188.4000;0.5478;2.0555;
-188.1000;0.5462;2.0531;
-187.8000;0.5495;2.0555;
-187.5000;0.5478;2.0579;
-187.2000;0.5470;2.0627;
-186.9000;0.5486;2.0627;
-186.6000;0.5486;2.0603;
-186.3000;0.5486;2.0603;
-186.0000;0.5438;2.0484;
-185.7000;0.5478;2.0579;
-185.4000;0.5478;2.0555;
-185.1000;0.5495;2.0531;
-184.8000;0.5495;2.0531;
-184.5000;0.5495;2.0555;
-184.2000;0.5478;2.0531;
-183.9000;0.5397;2.0341;
-183.6000;0.5486;2.0579;
-183.3000;0.5495;2.0627;
-183.0000;0.5478;2.0674;
-182.7000;0.5478;2.0627;
-182.4000;0.5503;2.0627;
-182.1000;0.5495;2.0603;
-181.8000;0.5478;2.0555;
-181.5000;0.5511;2.0746;
-181.2000;0.5478;2.0627;
-180.9000;0.5495;2.0555;
-180.6000;0.5486;2.0531;
-180.3000;0.5503;2.0603;
-180.0000;0.5511;2.0674;
-179.7000;0.5503;2.0698;
-179.4000;0.5495;2.0698;
-179.1000;0.5495;2.0627;
-178.8000;0.5495;2.0698;
-178.5000;0.5454;2.0627;
-178.2000;0.5486;2.0651;
-177.9000;0.5454;2.0531;
-177.6000;0.5470;2.0651;
-177.3000;0.5568;2.0889;
-177.0000;0.5462;2.0603;
-176.7000;0.5495;2.0674;
-176.4000;0.5454;2.0603;
-176.1000;0.5478;2.0603;
-175.8000;0.5495;2.0603;
-175.5000;0.5486;2.0603;
-175.2000;0.5478;2.0555;
-174.9000;0.5486;2.0627;
-174.6000;0.5478;2.0555;
-174.3000;0.5478;2.0555;
-174.0000;0.5470;2.0603;
-173.7000;0.5495;2.0746;
-173.4000;0.5446;2.0698;
-173.1000;0.5495;2.0818;
-172.8000;0.5486;2.0770;
-172.5000;0.5486;2.0698;
-172.2000;0.5486;2.0674;
-171.9000;0.5511;2.0698;
-171.6000;0.5470;2.0651;
-171.3000;0.5486;2.0674;
-171.0000;0.5495;2.0674;
-170.7000;0.5454;2.0555;
-170.4000;0.5486;2.0603;
-170.1000;0.5446;2.0484;
-169.8000;0.5486;2.0603;
-169.5000;0.5495;2.0603;
-169.2000;0.5470;2.0508;
-168.9000;0.5454;2.0460;
-168.6000;0.5495;2.0531;
-168.3000;0.5478;2.0555;
-168.0000;0.5495;2.0555;
-167.7000;0.5478;2.0579;
-167.4000;0.5495;2.0651;
-167.1000;0.5495;2.0651;
-166.8000;0.5568;2.0841;
-166.5000;0.5503;2.0722;
-166.2000;0.5486;2.0674;
-165.9000;0.5503;2.0746;
-165.6000;0.5511;2.0722;
-165.3000;0.5495;2.0722;
-165.0000;0.5486;2.0651;
-164.7000;0.5486;2.0722;
-164.4000;0.5503;2.0746;
-164.1000;0.5495;2.0698;
-163.8000;0.5495;2.0722;
-163.5000;0.5584;2.0865;
-163.2000;0.5486;2.0627;
-162.9000;0.5470;2.0603;
-162.6000;0.5495;2.0651;
-162.3000;0.5503;2.0651;
-162.0000;0.5503;2.0651;
-161.7000;0.5486;2.0603;
-161.4000;0.5495;2.0484;
-161.1000;0.5503;2.0531;
-160.8000;0.5511;2.0531;
-160.5000;0.5511;2.0531;
-160.2000;0.5495;2.0508;
-159.9000;0.5495;2.0531;
-159.6000;0.5495;2.0555;
-159.3000;0.5486;2.0460;
-159.0000;0.5478;2.0412;
-158.7000;0.5478;2.0436;
-158.4000;0.5495;2.0412;
-158.1000;0.5486;2.0364;
-157.8000;0.5495;2.0341;
-157.5000;0.5470;2.0341;
-157.2000;0.5470;2.0412;
-156.9000;0.5511;2.0579;
-156.6000;0.5495;2.0555;
-156.3000;0.5511;2.0603;
-156.0000;0.5486;2.0603;
-155.7000;0.5503;2.0651;
-155.4000;0.5495;2.0603;
-155.1000;0.5503;2.0579;
-154.8000;0.5486;2.0627;
-154.5000;0.5446;2.0603;
-154.2000;0.5495;2.0674;
-153.9000;0.5478;2.0627;
-153.6000;0.5495;2.0651;
-153.3000;0.5470;2.0555;
-153.0000;0.5495;2.0603;
-152.7000;0.5486;2.0555;
-152.4000;0.5478;2.0531;
-152.1000;0.5486;2.0460;
-151.8000;0.5503;2.0603;
-151.5000;0.5486;2.0555;
-151.2000;0.5470;2.0579;
-150.9000;0.5503;2.0579;
-150.6000;0.5495;2.0627;
-150.3000;0.5495;2.0627;
-150.0000;0.5495;2.0603;
-149.7000;0.5511;2.0531;
-149.4000;0.5478;2.0531;
-149.1000;0.5495;2.0555;
-148.8000;0.5486;2.0579;
-148.5000;0.5495;2.0508;
-148.2000;0.5503;2.0460;
-147.9000;0.5478;2.0460;
-147.6000;0.5495;2.0531;
-147.3000;0.5486;2.0436;
-147.0000;0.5486;2.0412;
-146.7000;0.5503;2.0579;
-146.4000;0.5503;2.0508;
-146.1000;0.5495;2.0484;
-145.8000;0.5503;2.0555;
-145.5000;0.5486;2.0651;
-145.2000;0.5495;2.0579;
-144.9000;0.5495;2.0579;
-144.6000;0.5486;2.0531;
-144.3000;0.5478;2.0555;
-144.0000;0.5486;2.0651;
-143.7000;0.5511;2.0746;
-143.4000;0.5478;2.0627;
-143.1000;0.5454;2.0484;
-142.8000;0.5495;2.0579;
-142.5000;0.5486;2.0603;
-142.2000;0.5486;2.0603;
-141.9000;0.5462;2.0531;
-141.6000;0.5470;2.0555;
-141.3000;0.5486;2.0555;
-141.0000;0.5486;2.0460;
-140.7000;0.5486;2.0388;
-140.4000;0.5495;2.0460;
-140.1000;0.5495;2.0341;
-139.8000;0.5495;2.0317;
-139.5000;0.5486;2.0245;
-139.2000;0.5503;2.0293;
-138.9000;0.5503;2.0269;
-138.6000;0.5503;2.0436;
-138.3000;0.5495;2.0412;
-138.0000;0.5511;2.0388;
-137.7000;0.5503;2.0460;
-137.4000;0.5511;2.0555;
-137.1000;0.5478;2.0436;
-136.8000;0.5495;2.0412;
-136.5000;0.5519;2.0388;
-136.2000;0.5486;2.0269;
-135.9000;0.5503;2.0412;
-135.6000;0.5495;2.0531;
-135.3000;0.5495;2.0627;
-135.0000;0.5511;2.0722;
-134.7000;0.5495;2.0674;
-134.4000;0.5503;2.0674;
-134.1000;0.5511;2.0722;
-133.8000;0.5503;2.0651;
-133.5000;0.5535;2.0674;
-133.2000;0.5568;2.0698;
-132.9000;0.5584;2.0722;
-132.6000;0.5470;2.0460;
-132.3000;0.5486;2.0508;
-132.0000;0.5486;2.0508;
-131.7000;0.5446;2.0436;
-131.4000;0.5486;2.0579;
-131.1000;0.5495;2.0484;
-130.8000;0.5495;2.0484;
-130.5000;0.5495;2.0531;
-130.2000;0.5503;2.0555;
-129.9000;0.5495;2.0579;
-129.6000;0.5486;2.0484;
-129.3000;0.5495;2.0341;
-129.0000;0.5503;2.0317;
-128.7000;0.5495;2.0269;
-128.4000;0.5486;2.0245;
-128.1000;0.5486;2.0245;
-127.8000;0.5486;2.0245;
-127.5000;0.5519;2.0317;
-127.2000;0.5503;2.0341;
-126.9000;0.5478;2.0293;
-126.6000;0.5486;2.0269;
-126.3000;0.5495;2.0293;
-126.0000;0.5503;2.0341;
-125.7000;0.5519;2.0412;
-125.4000;0.5486;2.0293;
-125.1000;0.5486;2.0269;
-124.8000;0.5503;2.0317;
-124.5000;0.5511;2.0412;
-124.2000;0.5478;2.0436;
-123.9000;0.5486;2.0484;
-123.6000;0.5503;2.0555;
-123.3000;0.5478;2.0555;
-123.0000;0.5470;2.0579;
-122.7000;0.5486;2.0627;
-122.4000;0.5486;2.0627;
-122.1000;0.5486;2.0674;
-121.8000;0.5486;2.0651;
-121.5000;0.5454;2.0579;
-121.2000;0.5478;2.0603;
-120.9000;0.5495;2.0579;
-120.6000;0.5503;2.0627;
-120.3000;0.5486;2.0555;
-120.0000;0.5478;2.0460;
-119.7000;0.5486;2.0484;
-119.4000;0.5495;2.0579;
-119.1000;0.5486;2.0508;
-118.8000;0.5503;2.0531;
-118.5000;0.5511;2.0579;
-118.2000;0.5495;2.0531;
-117.9000;0.5495;2.0460;
-117.6000;0.5470;2.0388;
-117.3000;0.5495;2.0412;
-117.0000;0.5519;2.0484;
-116.7000;0.5486;2.0412;
-116.4000;0.5486;2.0460;
-116.1000;0.5478;2.0388;
-115.8000;0.5503;2.0436;
-115.5000;0.5535;2.0579;
-115.2000;0.5495;2.0484;
-114.9000;0.5503;2.0436;
-114.6000;0.5511;2.0317;
-114.3000;0.5503;2.0269;
-114.0000;0.5503;2.0341;
-113.7000;0.5503;2.0388;
-113.4000;0.5527;2.0412;
-113.1000;0.5503;2.0436;
-112.8000;0.5486;2.0460;
-112.5000;0.5486;2.0484;
-112.2000;0.5495;2.0460;
-111.9000;0.5503;2.0484;
-111.6000;0.5495;2.0412;
-111.3000;0.5503;2.0436;
-111.0000;0.5543;2.0603;
-110.7000;0.5511;2.0484;
-110.4000;0.5519;2.0555;
-110.1000;0.5503;2.0531;
-109.8000;0.5511;2.0484;
-109.5000;0.5535;2.0531;
-109.2000;0.5486;2.0484;
-108.9000;0.5478;2.0508;
-108.6000;0.5470;2.0460;
-108.3000;0.5495;2.0460;
-108.0000;0.5470;2.0388;
-107.7000;0.5503;2.0508;
-107.4000;0.5470;2.0508;
-107.1000;0.5470;2.0484;
-106.8000;0.5495;2.0388;
-106.5000;0.5486;2.0364;
-106.2000;0.5486;2.0388;
-105.9000;0.5495;2.0412;
-105.6000;0.5486;2.0364;
-105.3000;0.5486;2.0341;
-105.0000;0.5462;2.0293;
-104.7000;0.5486;2.0341;
-104.4000;0.5478;2.0412;
-104.1000;0.5503;2.0508;
-103.8000;0.5495;2.0579;
-103.5000;0.5478;2.0508;
-103.2000;0.5486;2.0484;
-102.9000;0.5495;2.0555;
-102.6000;0.5478;2.0460;
-102.3000;0.5511;2.0531;
-102.0000;0.5527;2.0579;
-101.7000;0.5486;2.0460;
-101.4000;0.5511;2.0508;
-101.1000;0.5511;2.0579;
-100.8000;0.5495;2.0484;
-100.5000;0.5503;2.0484;
-100.2000;0.5503;2.0436;
-99.9000;0.5478;2.0293;
-99.6000;0.5519;2.0317;
-99.3000;0.5495;2.0293;
-99.0000;0.5486;2.0341;
-98.7000;0.5486;2.0269;
-98.4000;0.5551;2.0412;
-98.1000;0.5495;2.0269;
-97.8000;0.5503;2.0293;
-97.5000;0.5495;2.0293;
-97.2000;0.5470;2.0245;
-96.9000;0.5495;2.0341;
-96.6000;0.5478;2.0364;
-96.3000;0.5495;2.0412;
-96.0000;0.5486;2.0364;
-95.7000;0.5478;2.0317;
-95.4000;0.5495;2.0388;
-95.1000;0.5486;2.0436;
-94.8000;0.5495;2.0341;
-94.5000;0.5462;2.0293;
-94.2000;0.5495;2.0412;
-93.9000;0.5495;2.0436;
-93.6000;0.5495;2.0460;
-93.3000;0.5486;2.0412;
-93.0000;0.5486;2.0388;
-92.7000;0.5486;2.0317;
-92.4000;0.5478;2.0293;
-92.1000;0.5486;2.0198;
-91.8000;0.5495;2.0198;
-91.5000;0.5486;2.0150;
-91.2000;0.5486;2.0150;
-90.9000;0.5478;2.0174;
-90.6000;0.5503;2.0245;
-90.3000;0.5503;2.0245;
-90.0000;0.5446;2.0174;
-89.7000;0.5486;2.0293;
-89.4000;0.5470;2.0221;
-89.1000;0.5519;2.0293;
-88.8000;0.5503;2.0269;
-88.5000;0.5503;2.0293;
-88.2000;0.5495;2.0245;
-87.9000;0.5503;2.0317;
-87.6000;0.5503;2.0341;
-87.3000;0.5503;2.0412;
-87.0000;0.5486;2.0412;
-86.7000;0.5486;2.0364;
-86.4000;0.5495;2.0388;
-86.1000;0.5503;2.0364;
-85.8000;0.5470;2.0341;
-85.5000;0.5486;2.0364;
-85.2000;0.5495;2.0412;
-84.9000;0.5486;2.0388;
-84.6000;0.5486;2.0484;
-84.3000;0.5486;2.0531;
-84.0000;0.5486;2.0484;
-83.7000;0.5495;2.0484;
-83.4000;0.5511;2.0531;
-83.1000;0.5470;2.0388;
-82.8000;0.5495;2.0460;
-82.5000;0.5495;2.0484;
-82.2000;0.5486;2.0555;
-81.9000;0.5478;2.0508;
-81.6000;0.5470;2.0436;
-81.3000;0.5495;2.0341;
-81.0000;0.5486;2.0317;
-80.7000;0.5462;2.0245;
-80.4000;0.5486;2.0317;
-80.1000;0.5486;2.0364;
-79.8000;0.5503;2.0364;
-79.5000;0.5519;2.0364;
-79.2000;0.5503;2.0436;
-78.9000;0.5503;2.0412;
-78.6000;0.5503;2.0364;
-78.3000;0.5511;2.0364;
-78.0000;0.5527;2.0412;
-77.7000;0.5486;2.0364;
-77.4000;0.5486;2.0317;
-77.1000;0.5478;2.0221;
-76.8000;0.5486;2.0269;
-76.5000;0.5486;2.0221;
-76.2000;0.5478;2.0221;
-75.9000;0.5495;2.0150;
-75.6000;0.5495;2.0174;
-75.3000;0.5495;2.0126;
-75.0000;0.5519;2.0174;
-74.7000;0.5486;2.0126;
-74.4000;0.5486;2.0126;
-74.1000;0.5495;2.0174;
-73.8000;0.5495;2.0221;
-73.5000;0.5511;2.0245;
-73.2000;0.5478;2.0293;
-72.9000;0.5462;2.0317;
-72.6000;0.5486;2.0436;
-72.3000;0.5495;2.0484;
-72.0000;0.5486;2.0484;
-71.7000;0.5446;2.0388;
-71.4000;0.5486;2.0484;
-71.1000;0.5486;2.0460;
-70.8000;0.5486;2.0412;
-70.5000;0.5478;2.0364;
-70.2000;0.5486;2.0484;
-69.9000;0.5527;2.0508;
-69.6000;0.5486;2.0436;
-69.3000;0.5511;2.0603;
-69.0000;0.5495;2.0579;
-68.7000;0.5486;2.0484;
-68.4000;0.5503;2.0460;
-68.1000;0.5495;2.0460;
-67.8000;0.5495;2.0364;
-67.5000;0.5511;2.0460;
-67.2000;0.5511;2.0436;
-66.9000;0.5495;2.0388;
-66.6000;0.5511;2.0412;
-66.3000;0.5478;2.0269;
-66.0000;0.5503;2.0317;
-65.7000;0.5503;2.0317;
-65.4000;0.5495;2.0364;
-65.1000;0.5495;2.0388;
-64.8000;0.5470;2.0388;
-64.5000;0.5486;2.0341;
-64.2000;0.5495;2.0364;
-63.9000;0.5495;2.0341;
-63.6000;0.5511;2.0364;
-63.3000;0.5495;2.0436;
-63.0000;0.5462;2.0388;
-62.7000;0.5470;2.0460;
-62.4000;0.5576;2.0770;
-62.1000;0.5454;2.0364;
-61.8000;0.5486;2.0388;
-61.5000;0.5486;2.0341;
-61.2000;0.5478;2.0388;
-60.9000;0.5429;2.0245;
-60.6000;0.5486;2.0341;
-60.3000;0.5478;2.0364;
-60.0000;0.5495;2.0460;
-59.7000;0.5495;2.0531;
-59.4000;0.5478;2.0555;
-59.1000;0.5486;2.0579;
-58.8000;0.5495;2.0555;
-58.5000;0.5486;2.0579;
-58.2000;0.5470;2.0484;
-57.9000;0.5486;2.0460;
-57.6000;0.5478;2.0484;
-57.3000;0.5503;2.0484;
-57.0000;0.5495;2.0412;
-56.7000;0.5495;2.0436;
-56.4000;0.5486;2.0388;
-56.1000;0.5486;2.0412;
-55.8000;0.5495;2.0531;
-55.5000;0.5478;2.0436;
-55.2000;0.5478;2.0436;
-54.9000;0.5503;2.0508;
-54.6000;0.5511;2.0579;
-54.3000;0.5486;2.0603;
-54.0000;0.5486;2.0579;
-53.7000;0.5519;2.0579;
-53.4000;0.5503;2.0627;
-53.1000;0.5486;2.0531;
-52.8000;0.5495;2.0555;
-52.5000;0.5503;2.0674;
-52.2000;0.5503;2.0674;
-51.9000;0.5429;2.0388;
-51.6000;0.5486;2.0388;
-51.3000;0.5478;2.0388;
-51.0000;0.5503;2.0460;
-50.7000;0.5560;2.0698;
-50.4000;0.5478;2.0627;
-50.1000;0.5478;2.0627;
-49.8000;0.5470;2.0627;
-49.5000;0.5511;2.0627;
-49.2000;0.5503;2.0651;
-48.9000;0.5438;2.0460;
-48.6000;0.5478;2.0555;
-48.3000;0.5486;2.0603;
-48.0000;0.5478;2.0531;
-47.7000;0.5470;2.0603;
-47.4000;0.5486;2.0579;
-47.1000;0.5495;2.0674;
-46.8000;0.5495;2.0627;
-46.5000;0.5478;2.0627;
-46.2000;0.5478;2.0651;
-45.9000;0.5478;2.0603;
-45.6000;0.5495;2.0579;
-45.3000;0.5470;2.0531;
-45.0000;0.5519;2.0651;
-44.7000;0.5478;2.0531;
-44.4000;0.5503;2.0674;
-44.1000;0.5478;2.0651;
-43.8000;0.5495;2.0674;
-43.5000;0.5454;2.0531;
-43.2000;0.5495;2.0579;
-42.9000;0.5503;2.0603;
-42.6000;0.5486;2.0555;
-42.3000;0.5486;2.0484;
-42.0000;0.5503;2.0531;
-41.7000;0.5511;2.0555;
-41.4000;0.5486;2.0579;
-41.1000;0.5495;2.0484;
-40.8000;0.5503;2.0484;
-40.5000;0.5495;2.0531;
-40.2000;0.5503;2.0603;
-39.9000;0.5478;2.0508;
-39.6000;0.5478;2.0531;
-39.3000;0.5503;2.0674;
-39.0000;0.5486;2.0674;
-38.7000;0.5495;2.0651;
-38.4000;0.5495;2.0627;
-38.1000;0.5503;2.0627;
-37.8000;0.5503;2.0603;
-37.5000;0.5503;2.0579;
-37.2000;0.5495;2.0531;
-36.9000;0.5495;2.0508;
-36.6000;0.5495;2.0484;
-36.3000;0.5478;2.0388;
-36.0000;0.5470;2.0460;
-35.7000;0.5486;2.0531;
-35.4000;0.5478;2.0508;
-35.1000;0.5462;2.0460;
-34.8000;0.5478;2.0555;
-34.5000;0.5478;2.0603;
-34.2000;0.5470;2.0555;
-33.9000;0.5486;2.0603;
-33.6000;0.5486;2.0603;
-33.3000;0.5495;2.0555;
-33.0000;0.5495;2.0531;
-32.7000;0.5503;2.0531;
-32.4000;0.5495;2.0508;
-32.1000;0.5503;2.0555;
-31.8000;0.5495;2.0603;
-31.5000;0.5495;2.0651;
-31.2000;0.5503;2.0627;
-30.9000;0.5503;2.0651;
-30.6000;0.5486;2.0651;
-30.3000;0.5495;2.0627;
-30.0000;0.5503;2.0651;
-29.7000;0.5462;2.0627;
-29.4000;0.5519;2.0818;
-29.1000;0.5503;2.0746;
-28.8000;0.5503;2.0865;
-28.5000;0.5495;2.0770;
-28.2000;0.5600;2.0961;
-27.9000;0.5470;2.0651;
-27.6000;0.5478;2.0651;
-27.3000;0.5486;2.0651;
-27.0000;0.5486;2.0603;
-26.7000;0.5495;2.0579;
-26.4000;0.5495;2.0579;
-26.1000;0.5454;2.0484;
-25.8000;0.5438;2.0436;
-25.5000;0.5478;2.0508;
-25.2000;0.5495;2.0508;
-24.9000;0.5478;2.0460;
-24.6000;0.5478;2.0460;
-24.3000;0.5486;2.0436;
-24.0000;0.5478;2.0460;
-23.7000;0.5478;2.0436;
-23.4000;0.5486;2.0388;
-23.1000;0.5478;2.0317;
-22.8000;0.5470;2.0388;
-22.5000;0.5495;2.0484;
-22.2000;0.5478;2.0508;
-21.9000;0.5470;2.0508;
-21.6000;0.5511;2.0579;
-21.3000;0.5495;2.0579;
-21.0000;0.5486;2.0555;
-20.7000;0.5486;2.0508;
-20.4000;0.5503;2.0531;
-20.1000;0.5519;2.0484;
-19.8000;0.5503;2.0388;
-19.5000;0.5486;2.0341;
-19.2000;0.5495;2.0364;
-18.9000;0.5486;2.0364;
-18.6000;0.5495;2.0388;
-18.3000;0.5495;2.0341;
-18.0000;0.5495;2.0436;
-17.7000;0.5486;2.0412;
-17.4000;0.5495;2.0341;
-17.1000;0.5486;2.0341;
-16.8000;0.5503;2.0388;
-16.5000;0.5503;2.0388;
-16.2000;0.5470;2.0317;
-15.9000;0.5495;2.0364;
-15.6000;0.5486;2.0412;
-15.3000;0.5495;2.0460;
-15.0000;0.5495;2.0412;
-14.7000;0.5495;2.0341;
-14.4000;0.5470;2.0269;
-14.1000;0.5495;2.0293;
-13.8000;0.5495;2.0269;
-13.5000;0.5486;2.0293;
-13.2000;0.5486;2.0245;
-12.9000;0.5486;2.0198;
-12.6000;0.5486;2.0245;
-12.3000;0.5503;2.0412;
-12.0000;0.5486;2.0388;
-11.7000;0.5503;2.0293;
-11.4000;0.5438;2.0126;
-11.1000;0.5486;2.0221;
-10.8000;0.5486;2.0198;
-10.5000;0.5495;2.0150;
-10.2000;0.5495;2.0221;
-9.9000;0.5486;2.0269;
-9.6000;0.5478;2.0293;
-9.3000;0.5495;2.0317;
-9.0000;0.5462;2.0245;
-8.7000;0.5495;2.0317;
-8.4000;0.5503;2.0364;
-8.1000;0.5503;2.0364;
-7.8000;0.5413;2.0198;
-7.5000;0.5495;2.0484;
-7.2000;0.5446;2.0364;
-6.9000;0.5478;2.0388;
-6.6000;0.5511;2.0531;
-6.3000;0.5486;2.0508;
-6.0000;0.5478;2.0508;
-5.7000;0.5486;2.0484;
-5.4000;0.5511;2.0484;
-5.1000;0.5511;2.0531;
-4.8000;0.5486;2.0508;
-4.5000;0.5478;2.0531;
-4.2000;0.5454;2.0364;
-3.9000;0.5486;2.0460;
-3.6000;0.5495;2.0484;
-3.3000;0.5478;2.0484;
-3.0000;0.5495;2.0579;
-2.7000;0.5495;2.0555;
-2.4000;0.5503;2.0555;
-2.1000;0.5478;2.0508;
-1.8000;0.5486;2.0412;
-1.5000;0.5478;2.0412;
-1.2000;0.5486;2.0460;
-0.9000;0.5495;2.0436;
-0.6000;0.5495;2.0364;
-0.3000;0.5495;2.0388;
0.0000;0.5495;2.0388;
0.3000;0.5731;2.0651;
0.6000;0.6129;2.1223;
0.9000;0.6496;2.1819;
1.2000;0.6740;2.2368;
1.5000;0.6976;2.2725;
1.8000;0.7131;2.2988;
2.1000;0.7261;2.3393;
2.4000;0.7367;2.3608;
2.7000;0.7440;2.3751;
3.0000;0.7505;2.3989;
3.3000;0.7562;2.4108;
3.6000;0.7586;2.4228;
3.9000;0.7643;2.4394;
4.2000;0.7676;2.4442;
4.5000;0.7749;2.4585;
4.8000;0.7749;2.4514;
5.1000;0.7806;2.4704;
5.4000;0.7823;2.4704;
5.7000;0.7823;2.4609;
6.0000;0.7839;2.4585;
6.3000;0.7880;2.4657;
6.6000;0.7863;2.4585;
6.9000;0.7928;2.4657;
7.2000;0.7953;2.4681;
7.5000;0.7888;2.4561;
7.8000;0.7920;2.4633;
8.1000;0.8010;2.4848;
8.4000;0.8026;2.4895;
8.7000;0.8050;2.4871;
9.0000;0.8083;2.4919;
9.3000;0.8099;2.4919;
9.6000;0.8124;2.4871;
9.9000;0.8132;2.4776;
10.2000;0.8156;2.4800;
10.5000;0.8197;2.4800;
10.8000;0.8213;2.4848;
11.1000;0.8221;2.4800;
11.4000;0.8246;2.4752;
11.7000;0.8262;2.4776;
12.0000;0.8295;2.4824;
12.3000;0.8319;2.4871;
12.6000;0.8335;2.4824;
12.9000;0.8417;2.4991;
13.2000;0.8392;2.4824;
13.5000;0.8400;2.4824;
13.8000;0.8400;2.4776;
14.1000;0.8417;2.4871;
14.4000;0.8425;2.4800;
14.7000;0.8474;2.4848;
15.0000;0.8482;2.4800;
15.3000;0.8490;2.4752;
15.6000;0.8531;2.4800;
15.9000;0.8588;2.4848;
16.2000;0.8580;2.4848;
16.5000;0.8555;2.4824;
16.8000;0.8596;2.4895;
17.1000;0.8580;2.4895;
17.4000;0.8604;2.4919;
17.7000;0.8588;2.4848;
18.0000;0.8604;2.4752;
18.3000;0.8637;2.4752;
18.6000;0.8726;2.4919;
18.9000;0.8694;2.4800;
19.2000;0.8710;2.4800;
19.5000;0.8726;2.4728;
19.8000;0.8702;2.4633;
20.1000;0.8734;2.4728;
20.4000;0.8710;2.4633;
20.7000;0.8791;2.4824;
21.0000;0.8807;2.4824;
21.3000;0.8799;2.4752;
21.6000;0.8807;2.4704;
21.9000;0.8824;2.4681;
22.2000;0.8848;2.4728;
22.5000;0.8840;2.4752;
22.8000;0.8848;2.4800;
23.1000;0.8873;2.4943;
23.4000;0.8889;2.4991;
23.7000;0.8889;2.4991;
24.0000;0.8905;2.4943;
24.3000;0.8921;2.4895;
24.6000;0.8921;2.4800;
24.9000;0.9003;2.4919;
25.2000;0.8946;2.4752;
25.5000;0.8954;2.4681;
25.8000;0.8978;2.4704;
26.1000;0.8987;2.4657;
26.4000;0.9011;2.4609;
26.7000;0.9003;2.4681;
27.0000;0.9011;2.4800;
27.3000;0.9035;2.4752;
27.6000;0.9044;2.4728;
27.9000;0.9035;2.4800;
28.2000;0.9060;2.4848;
28.5000;0.9068;2.4848;
28.8000;0.9068;2.4728;
29.1000;0.9060;2.4657;
29.4000;0.9052;2.4633;
29.7000;0.9044;2.4585;
30.0000;0.9076;2.4609;
30.3000;0.9092;2.4681;
30.6000;0.9182;2.4824;
30.9000;0.9101;2.4704;
31.2000;0.9117;2.4848;
31.5000;0.9141;2.4871;
31.8000;0.9125;2.4895;
32.1000;0.9133;2.4848;
32.4000;0.9133;2.4800;
32.7000;0.9158;2.4800;
33.0000;0.9158;2.4728;
33.3000;0.9174;2.4776;
33.6000;0.9166;2.4800;
33.9000;0.9174;2.4848;
34.2000;0.9174;2.4848;
34.5000;0.9198;2.4848;
34.8000;0.9198;2.4871;
35.1000;0.9206;2.4824;
35.4000;0.9223;2.4848;
35.7000;0.9206;2.4800;
36.0000;0.9223;2.4752;
36.3000;0.9214;2.4657;
36.6000;0.9206;2.4657;
36.9000;0.9239;2.4728;
37.2000;0.9231;2.4681;
37.5000;0.9231;2.4704;
37.8000;0.9223;2.4752;
38.1000;0.9231;2.4728;
38.4000;0.9271;2.4752;
38.7000;0.9263;2.4728;
39.0000;0.9231;2.4609;
39.3000;0.9231;2.4609;
39.6000;0.9280;2.4776;
39.9000;0.9271;2.4752;
40.2000;0.9280;2.4704;
40.5000;0.9255;2.4633;
40.8000;0.9280;2.4633;
41.1000;0.9271;2.4609;
41.4000;0.9280;2.4585;
41.7000;0.9271;2.4561;
42.0000;0.9296;2.4633;
42.3000;0.9304;2.4561;
42.6000;0.9312;2.4538;
42.9000;0.9304;2.4514;
43.2000;0.9320;2.4561;
43.5000;0.9328;2.4609;
43.8000;0.9337;2.4609;
44.1000;0.9337;2.4609;
44.4000;0.9377;2.4704;
44.7000;0.9337;2.4561;
45.0000;0.9353;2.4657;
45.3000;0.9345;2.4657;
45.6000;0.9345;2.4609;
45.9000;0.9345;2.4609;
46.2000;0.9361;2.4585;
46.5000;0.9369;2.4561;
46.8000;0.9320;2.4418;
47.1000;0.9369;2.4561;
47.4000;0.9377;2.4657;
47.7000;0.9385;2.4633;
48.0000;0.9345;2.4561;
48.3000;0.9361;2.4609;
48.6000;0.9418;2.4657;
48.9000;0.9385;2.4585;
49.2000;0.9377;2.4466;
49.5000;0.9377;2.4490;
49.8000;0.9361;2.4371;
50.1000;0.9402;2.4490;
50.4000;0.9369;2.4371;
50.7000;0.9394;2.4371;
51.0000;0.9402;2.4394;
51.3000;0.9402;2.4466;
51.6000;0.9402;2.4418;
51.9000;0.9410;2.4418;
52.2000;0.9402;2.4490;
52.5000;0.9434;2.4561;
52.8000;0.9418;2.4538;
53.1000;0.9402;2.4538;
53.4000;0.9402;2.4514;
53.7000;0.9410;2.4609;
54.0000;0.9418;2.4609;
54.3000;0.9434;2.4585;
54.6000;0.9418;2.4633;
54.9000;0.9451;2.4561;
55.2000;0.9434;2.4561;
55.5000;0.9459;2.4633;
55.8000;0.9442;2.4561;
56.1000;0.9442;2.4657;
56.4000;0.9442;2.4609;
56.7000;0.9459;2.4657;
57.0000;0.9410;2.4538;
57.3000;0.9442;2.4514;
57.6000;0.9451;2.4538;
57.9000;0.9451;2.4538;
58.2000;0.9451;2.4585;
58.5000;0.9442;2.4585;
58.8000;0.9451;2.4585;
59.1000;0.9451;2.4585;
59.4000;0.9459;2.4514;
59.7000;0.9459;2.4490;
60.0000;0.9475;2.4561;
60.3000;0.9475;2.4561;
60.6000;0.9516;2.4609;
60.9000;0.9467;2.4466;
61.2000;0.9483;2.4538;
61.5000;0.9516;2.4514;
61.8000;0.9491;2.4514;
62.1000;0.9426;2.4394;
62.4000;0.9442;2.4490;
62.7000;0.9499;2.4585;
63.0000;0.9491;2.4514;
63.3000;0.9491;2.4442;
63.6000;0.9491;2.4394;
63.9000;0.9491;2.4347;
64.2000;0.9499;2.4442;
64.5000;0.9499;2.4418;
64.8000;0.9483;2.4371;
65.1000;0.9499;2.4466;
65.4000;0.9508;2.4418;
65.7000;0.9499;2.4347;
66.0000;0.9499;2.4418;
66.3000;0.9491;2.4371;
66.6000;0.9508;2.4394;
66.9000;0.9491;2.4418;
67.2000;0.9491;2.4394;
67.5000;0.9499;2.4466;
67.8000;0.9491;2.4490;
68.1000;0.9491;2.4466;
68.4000;0.9508;2.4442;
68.7000;0.9491;2.4394;
69.0000;0.9589;2.4538;
69.3000;0.9532;2.4347;
69.6000;0.9508;2.4347;
69.9000;0.9524;2.4371;
70.2000;0.9524;2.4490;
70.5000;0.9516;2.4418;
70.8000;0.9524;2.4418;
71.1000;0.9540;2.4371;
71.4000;0.9532;2.4347;
71.7000;0.9524;2.4323;
72.0000;0.9508;2.4323;
72.3000;0.9499;2.4418;
72.6000;0.9516;2.4418;
72.9000;0.9532;2.4394;
73.2000;0.9508;2.4371;
73.5000;0.9524;2.4466;
73.8000;0.9524;2.4514;
74.1000;0.9491;2.4371;
74.4000;0.9565;2.4394;
74.7000;0.9524;2.4347;
75.0000;0.9548;2.4394;
75.3000;0.9556;2.4466;
75.6000;0.9524;2.4442;
75.9000;0.9548;2.4442;
76.2000;0.9532;2.4418;
76.5000;0.9548;2.4394;
76.8000;0.9524;2.4371;
77.1000;0.9565;2.4394;
77.4000;0.9556;2.4418;
77.7000;0.9532;2.4442;
78.0000;0.9548;2.4561;
78.3000;0.9540;2.4538;
78.6000;0.9532;2.4538;
78.9000;0.9573;2.4657;
79.2000;0.9548;2.4633;
79.5000;0.9508;2.4538;
79.8000;0.9556;2.4609;
80.1000;0.9548;2.4657;
80.4000;0.9565;2.4752;
80.7000;0.9556;2.4752;
81.0000;0.9589;2.4681;
81.3000;0.9573;2.4657;
81.6000;0.9565;2.4657;
81.9000;0.9548;2.4585;
82.2000;0.9573;2.4538;
82.5000;0.9548;2.4394;
82.8000;0.9556;2.4323;
83.1000;0.9573;2.4251;
83.4000;0.9565;2.4228;
83.7000;0.9556;2.4251;
84.0000;0.9589;2.4251;
84.3000;0.9565;2.4251;
84.6000;0.9581;2.4323;
84.9000;0.9573;2.4323;
85.2000;0.9573;2.4347;
85.5000;0.9589;2.4394;
85.8000;0.9573;2.4275;
86.1000;0.9548;2.4204;
86.4000;0.9573;2.4204;
86.7000;0.9524;2.4108;
87.0000;0.9556;2.4204;
87.3000;0.9548;2.4180;
87.6000;0.9621;2.4418;
87.9000;0.9581;2.4251;
88.2000;0.9573;2.4251;
88.5000;0.9573;2.4275;
88.8000;0.9613;2.4347;
89.1000;0.9565;2.4275;
89.4000;0.9589;2.4228;
89.7000;0.9597;2.4180;
90.0000;0.9573;2.4180;
90.3000;0.9581;2.4132;
90.6000;0.9581;2.4108;
90.9000;0.9581;2.4061;
91.2000;0.9581;2.4037;
91.5000;0.9573;2.4037;
91.8000;0.9556;2.4084;
92.1000;0.9581;2.4228;
92.4000;0.9589;2.4228;
92.7000;0.9565;2.4132;
93.0000;0.9573;2.4228;
93.3000;0.9605;2.4323;
93.6000;0.9589;2.4371;
93.9000;0.9565;2.4442;
94.2000;0.9581;2.4514;
94.5000;0.9589;2.4442;
94.8000;0.9605;2.4490;
95.1000;0.9524;2.4347;
95.4000;0.9581;2.4418;
95.7000;0.9597;2.4466;
96.0000;0.9613;2.4466;
96.3000;0.9589;2.4466;
96.6000;0.9589;2.4371;
96.9000;0.9597;2.4299;
97.2000;0.9573;2.4371;
97.5000;0.9589;2.4442;
97.8000;0.9581;2.4347;
98.1000;0.9573;2.4204;
98.4000;0.9589;2.4228;
98.7000;0.9597;2.4204;
99.0000;0.9589;2.4132;
99.3000;0.9605;2.4156;
99.6000;0.9589;2.4084;
99.9000;0.9597;2.4180;
100.2000;0.9597;2.4132;
100.5000;0.9589;2.4108;
100.8000;0.9605;2.4061;
101.1000;0.9621;2.4108;
101.4000;0.9597;2.4061;
101.7000;0.9605;2.4084;
102.0000;0.9581;2.4061;
102.3000;0.9589;2.4061;
102.6000;0.9597;2.4108;
102.9000;0.9597;2.4108;
103.2000;0.9597;2.4061;
103.5000;0.9605;2.4108;
103.8000;0.9605;2.4061;
104.1000;0.9597;2.3989;
104.4000;0.9597;2.3965;
104.7000;0.9524;2.3846;
105.0000;0.9621;2.4037;
105.3000;0.9621;2.4061;
105.6000;0.9605;2.4013;
105.9000;0.9613;2.4084;
106.2000;0.9613;2.4037;
106.5000;0.9638;2.4228;
106.8000;0.9646;2.4156;
107.1000;0.9605;2.4180;
107.4000;0.9630;2.4275;
107.7000;0.9621;2.4204;
108.0000;0.9605;2.4108;
108.3000;0.9605;2.4108;
108.6000;0.9621;2.4108;
108.9000;0.9630;2.4132;
109.2000;0.9613;2.4108;
109.5000;0.9621;2.4180;
109.8000;0.9646;2.4251;
110.1000;0.9638;2.4132;
110.4000;0.9621;2.4228;
110.7000;0.9589;2.4180;
111.0000;0.9638;2.4251;
111.3000;0.9621;2.4204;
111.6000;0.9605;2.4084;
111.9000;0.9630;2.4132;
112.2000;0.9621;2.4061;
112.5000;0.9621;2.4037;
112.8000;0.9630;2.4108;
113.1000;0.9670;2.4180;
113.4000;0.9621;2.4013;
113.7000;0.9630;2.4061;
114.0000;0.9670;2.4156;
114.3000;0.9621;2.4084;
114.6000;0.9638;2.4108;
114.9000;0.9638;2.4084;
115.2000;0.9638;2.4156;
115.5000;0.9630;2.4156;
115.8000;0.9621;2.4108;
116.1000;0.9630;2.4180;
116.4000;0.9646;2.4180;
116.7000;0.9630;2.4108;
117.0000;0.9621;2.4013;
117.3000;0.9638;2.4037;
117.6000;0.9630;2.4061;
117.9000;0.9646;2.4061;
118.2000;0.9621;2.4037;
118.5000;0.9613;2.4132;
118.8000;0.9621;2.4204;
119.1000;0.9630;2.4275;
119.4000;0.9613;2.4156;
119.7000;0.9638;2.4084;
120.0000;0.9630;2.4132;
120.3000;0.9646;2.4132;
120.6000;0.9621;2.4132;
120.9000;0.9638;2.4132;
121.2000;0.9678;2.4228;
121.5000;0.9687;2.4204;
121.8000;0.9630;2.4061;
122.1000;0.9605;2.3965;
122.4000;0.9589;2.3894;
122.7000;0.9638;2.3989;
123.0000;0.9638;2.3989;
123.3000;0.9638;2.3965;
123.6000;0.9630;2.3965;
123.9000;0.9638;2.3918;
124.2000;0.9646;2.3894;
124.5000;0.9621;2.3918;
124.8000;0.9613;2.3894;
125.1000;0.9630;2.3846;
125.4000;0.9670;2.3941;
125.7000;0.9678;2.4013;
126.0000;0.9654;2.4013;
126.3000;0.9654;2.4013;
126.6000;0.9605;2.4013;
126.9000;0.9646;2.4084;
127.2000;0.9621;2.4013;
127.5000;0.9662;2.4156;
127.8000;0.9621;2.4013;
128.1000;0.9670;2.4061;
128.4000;0.9638;2.3989;
128.7000;0.9581;2.3727;
129.0000;0.9654;2.3918;
129.3000;0.9646;2.3894;
129.6000;0.9646;2.3846;
129.9000;0.9638;2.4013;
130.2000;0.9646;2.4037;
130.5000;0.9662;2.3965;
130.8000;0.9654;2.3941;
131.1000;0.9654;2.3941;
131.4000;0.9654;2.3870;
131.7000;0.9687;2.3918;
132.0000;0.9670;2.4013;
132.3000;0.9662;2.4037;
132.6000;0.9646;2.3965;
132.9000;0.9630;2.3941;
133.2000;0.9670;2.4037;
133.5000;0.9646;2.3989;
133.8000;0.9654;2.4013;
134.1000;0.9646;2.4061;
134.4000;0.9662;2.3989;
134.7000;0.9662;2.3989;
135.0000;0.9654;2.4013;
135.3000;0.9605;2.3846;
135.6000;0.9654;2.3918;
135.9000;0.9654;2.3965;
136.2000;0.9654;2.3941;
136.5000;0.9662;2.3941;
136.8000;0.9670;2.3989;
137.1000;0.9654;2.3989;
137.4000;0.9654;2.4013;
137.7000;0.9646;2.3965;
138.0000;0.9662;2.3870;
138.3000;0.9670;2.3941;
138.6000;0.9654;2.3941;
138.9000;0.9646;2.3918;
139.2000;0.9670;2.3989;
139.5000;0.9662;2.4013;
139.8000;0.9654;2.3941;
140.1000;0.9654;2.3870;
140.4000;0.9678;2.3894;
140.7000;0.9662;2.3894;
141.0000;0.9613;2.3751;
141.3000;0.9670;2.3894;
141.6000;0.9662;2.3870;
141.9000;0.9678;2.3894;
142.2000;0.9678;2.3846;
142.5000;0.9678;2.3870;
142.8000;0.9670;2.3798;
143.1000;0.9687;2.3846;
143.4000;0.9678;2.3846;
143.7000;0.9646;2.3822;
144.0000;0.9662;2.3894;
144.3000;0.9654;2.3798;
144.6000;0.9638;2.3798;
144.9000;0.9646;2.3822;
145.2000;0.9662;2.3941;
145.5000;0.9638;2.4013;
145.8000;0.9662;2.3941;
146.1000;0.9662;2.3894;
146.4000;0.9654;2.3870;
146.7000;0.9662;2.3870;
147.0000;0.9662;2.3894;
147.3000;0.9670;2.3894;
147.6000;0.9654;2.3774;
147.9000;0.9662;2.3822;
148.2000;0.9662;2.3798;
148.5000;0.9646;2.3751;
148.8000;0.9687;2.3846;
149.1000;0.9646;2.3822;
149.4000;0.9654;2.3846;
149.7000;0.9621;2.3846;
150.0000;0.9646;2.3822;
150.3000;0.9662;2.3894;
150.6000;0.9670;2.3941;
150.9000;0.9695;2.3941;
151.2000;0.9687;2.3870;
151.5000;0.9670;2.3751;
151.8000;0.9678;2.3751;
152.1000;0.9687;2.3774;
152.4000;0.9678;2.3727;
152.7000;0.9670;2.3703;
153.0000;0.9670;2.3774;
153.3000;0.9687;2.3846;
153.6000;0.9687;2.3894;
153.9000;0.9678;2.3870;
154.2000;0.9687;2.3941;
154.5000;0.9687;2.3894;
154.8000;0.9670;2.3798;
155.1000;0.9760;2.3941;
155.4000;0.9662;2.3894;
155.7000;0.9662;2.4037;
156.0000;0.9678;2.4013;
156.3000;0.9678;2.3965;
156.6000;0.9695;2.3941;
156.9000;0.9670;2.3894;
157.2000;0.9678;2.3989;
157.5000;0.9654;2.3870;
157.8000;0.9678;2.4037;
158.1000;0.9687;2.4013;
158.4000;0.9687;2.3989;
158.7000;0.9678;2.3989;
159.0000;0.9670;2.4037;
159.3000;0.9670;2.4013;
159.6000;0.9687;2.3989;
159.9000;0.9719;2.3989;
160.2000;0.9670;2.3846;
160.5000;0.9670;2.3798;
160.8000;0.9670;2.3751;
161.1000;0.9662;2.3727;
161.4000;0.9687;2.3727;
161.7000;0.9687;2.3679;
162.0000;0.9687;2.3703;
162.3000;0.9687;2.3774;
162.6000;0.9687;2.3822;
162.9000;0.9695;2.3822;
163.2000;0.9670;2.3751;
163.5000;0.9678;2.3774;
163.8000;0.9703;2.3798;
164.1000;0.9695;2.3774;
164.4000;0.9670;2.3774;
164.7000;0.9687;2.3751;
165.0000;0.9695;2.3774;
165.3000;0.9678;2.3774;
165.6000;0.9662;2.3751;
165.9000;0.9711;2.3798;
166.2000;0.9678;2.3679;
166.5000;0.9687;2.3679;
166.8000;0.9678;2.3703;
167.1000;0.9695;2.3751;
167.4000;0.9711;2.3798;
167.7000;0.9711;2.3703;
168.0000;0.9695;2.3584;
168.3000;0.9695;2.3608;
168.6000;0.9695;2.3703;
168.9000;0.9687;2.3751;
169.2000;0.9687;2.3679;
169.5000;0.9670;2.3608;
169.8000;0.9695;2.3560;
170.1000;0.9703;2.3560;
170.4000;0.9678;2.3512;
170.7000;0.9711;2.3608;
171.0000;0.9662;2.3464;
171.3000;0.9687;2.3488;
171.6000;0.9678;2.3536;
171.9000;0.9654;2.3441;
172.2000;0.9687;2.3441;
172.5000;0.9687;2.3441;
172.8000;0.9687;2.3512;
173.1000;0.9678;2.3631;
173.4000;0.9678;2.3631;
173.7000;0.9695;2.3655;
174.0000;0.9678;2.3608;
174.3000;0.9687;2.3655;
174.6000;0.9687;2.3727;
174.9000;0.9678;2.3679;
175.2000;0.9695;2.3774;
175.5000;0.9670;2.3751;
175.8000;0.9678;2.3727;
176.1000;0.9687;2.3655;
176.4000;0.9695;2.3727;
176.7000;0.9662;2.3679;
177.0000;0.9670;2.3703;
177.3000;0.9678;2.3631;
177.6000;0.9687;2.3608;
177.9000;0.9654;2.3512;
178.2000;0.9695;2.3560;
178.5000;0.9703;2.3631;
178.8000;0.9695;2.3608;
179.1000;0.9727;2.3774;
179.4000;0.9687;2.3727;
179.7000;0.9687;2.3703;
180.0000;0.9735;2.3774;
180.3000;0.9695;2.3679;
180.6000;0.9687;2.3655;
180.9000;0.9695;2.3631;
181.2000;0.9703;2.3679;
181.5000;0.9711;2.3727;
181.8000;0.9703;2.3679;
182.1000;0.9703;2.3703;
182.4000;0.9646;2.3512;
182.7000;0.9703;2.3679;
183.0000;0.9678;2.3584;
183.3000;0.9670;2.3560;
183.6000;0.9670;2.3512;
183.9000;0.9687;2.3560;
184.2000;0.9687;2.3751;
184.5000;0.9695;2.3703;
184.8000;0.9678;2.3536;
185.1000;0.9695;2.3512;
185.4000;0.9687;2.3464;
185.7000;0.9687;2.3488;
186.0000;0.9744;2.3631;
186.3000;0.9687;2.3417;
186.6000;0.9695;2.3393;
186.9000;0.9687;2.3321;
187.2000;0.9687;2.3274;
187.5000;0.9678;2.3321;
187.8000;0.9695;2.3369;
188.1000;0.9695;2.3560;
188.4000;0.9678;2.3536;
188.7000;0.9695;2.3488;
189.0000;0.9711;2.3488;
189.3000;0.9703;2.3584;
189.6000;0.9695;2.3584;
189.9000;0.9695;2.3560;
190.2000;0.9695;2.3464;
190.5000;0.9695;2.3441;
190.8000;0.9695;2.3464;
191.1000;0.9695;2.3464;
191.4000;0.9703;2.3512;
191.7000;0.9711;2.3608;
192.0000;0.9711;2.3584;
192.3000;0.9687;2.3560;
192.6000;0.9703;2.3536;
192.9000;0.9695;2.3631;
193.2000;0.9695;2.3679;
193.5000;0.9695;2.3679;
193.8000;0.9703;2.3608;
194.1000;0.9687;2.3560;
194.4000;0.9678;2.3441;
194.7000;0.9687;2.3441;
195.0000;0.9687;2.3512;
195.3000;0.9695;2.3584;
195.6000;0.9646;2.3584;
195.9000;0.9678;2.3655;
196.2000;0.9687;2.3703;
196.5000;0.9711;2.3703;
196.8000;0.9711;2.3584;
197.1000;0.9703;2.3679;
197.4000;0.9703;2.3703;
197.7000;0.9687;2.3631;
198.0000;0.9703;2.3703;
198.3000;0.9703;2.3774;
198.6000;0.9695;2.3798;
198.9000;0.9678;2.3679;
199.2000;0.9703;2.3774;
199.5000;0.9703;2.3798;
199.8000;0.9695;2.3727;
200.1000;0.9703;2.3703;
200.4000;0.9687;2.3631;
200.7000;0.9703;2.3608;
201.0000;0.9703;2.3631;
201.3000;0.9703;2.3584;
201.6000;0.9703;2.3536;
201.9000;0.9687;2.3488;
202.2000;0.9695;2.3464;
202.5000;0.9687;2.3369;
202.8000;0.9703;2.3441;
203.1000;0.9670;2.3417;
203.4000;0.9711;2.3488;
203.7000;0.9711;2.3536;
204.0000;0.9711;2.3608;
204.3000;0.9703;2.3584;
204.6000;0.9703;2.3608;
204.9000;0.9703;2.3608;
205.2000;0.9678;2.3584;
205.5000;0.9703;2.3655;
205.8000;0.9638;2.3441;
206.1000;0.9687;2.3584;
206.4000;0.9744;2.3751;
206.7000;0.9711;2.3655;
207.0000;0.9670;2.3608;
207.3000;0.9703;2.3679;
207.6000;0.9687;2.3679;
207.9000;0.9687;2.3631;
208.2000;0.9703;2.3703;
208.5000;0.9695;2.3703;
208.8000;0.9695;2.3631;
209.1000;0.9687;2.3655;
209.4000;0.9703;2.3679;
209.7000;0.9711;2.3703;
210.0000;0.9662;2.3584;
210.3000;0.9695;2.3655;
210.6000;0.9703;2.3655;
210.9000;0.9711;2.3608;
211.2000;0.9670;2.3536;
211.5000;0.9703;2.3679;
211.8000;0.9662;2.3727;
212.1000;0.9695;2.3751;
212.4000;0.9703;2.3751;
212.7000;0.9711;2.3727;
213.0000;0.9719;2.3679;
213.3000;0.9711;2.3703;
213.6000;0.9719;2.3703;
213.9000;0.9695;2.3584;
214.2000;0.9703;2.3655;
214.5000;0.9719;2.3655;
214.8000;0.9719;2.3679;
215.1000;0.9711;2.3679;
215.4000;0.9687;2.3751;
215.7000;0.9695;2.3727;
216.0000;0.9703;2.3751;
216.3000;0.9703;2.3798;
216.6000;0.9646;2.3608;
216.9000;0.9711;2.3727;
217.2000;0.9703;2.3703;
217.5000;0.9711;2.3679;
217.8000;0.9711;2.3536;
218.1000;0.9711;2.3536;
218.4000;0.9711;2.3464;
218.7000;0.9752;2.3560;
219.0000;0.9727;2.3464;
219.3000;0.9711;2.3464;
219.6000;0.9646;2.3298;
219.9000;0.9719;2.3441;
220.2000;0.9719;2.3417;
220.5000;0.9695;2.3417;
220.8000;0.9735;2.3488;
221.1000;0.9711;2.3488;
221.4000;0.9711;2.3488;
221.7000;0.9711;2.3536;
222.0000;0.9711;2.3584;
222.3000;0.9711;2.3655;
222.6000;0.9711;2.3655;
222.9000;0.9711;2.3584;
223.2000;0.9703;2.3655;
223.5000;0.9711;2.3584;
223.8000;0.9711;2.3679;
224.1000;0.9711;2.3608;
224.4000;0.9703;2.3441;
224.7000;0.9711;2.3393;
225.0000;0.9719;2.3345;
225.3000;0.9711;2.3298;
225.6000;0.9703;2.3226;
225.9000;0.9711;2.3154;
226.2000;0.9768;2.3298;
226.5000;0.9711;2.3298;
226.8000;0.9719;2.3321;
227.1000;0.9703;2.3345;
227.4000;0.9687;2.3321;
227.7000;0.9711;2.3417;
228.0000;0.9703;2.3464;
228.3000;0.9711;2.3417;
228.6000;0.9695;2.3488;
228.9000;0.9719;2.3488;
229.2000;0.9719;2.3464;
229.5000;0.9711;2.3464;
229.8000;0.9719;2.3464;
230.1000;0.9727;2.3536;
230.4000;0.9695;2.3488;
230.7000;0.9711;2.3488;
231.0000;0.9711;2.3536;
231.3000;0.9711;2.3488;
231.6000;0.9695;2.3441;
231.9000;0.9703;2.3512;
232.2000;0.9703;2.3536;
232.5000;0.9711;2.3560;
232.8000;0.9711;2.3584;
233.1000;0.9703;2.3536;
233.4000;0.9687;2.3560;
233.7000;0.9687;2.3560;
234.0000;0.9719;2.3655;
234.3000;0.9711;2.3655;
234.6000;0.9703;2.3679;
234.9000;0.9719;2.3751;
235.2000;0.9719;2.3727;
235.5000;0.9711;2.3655;
235.8000;0.9703;2.3584;
236.1000;0.9711;2.3608;
236.4000;0.9735;2.3703;
236.7000;0.9703;2.3631;
237.0000;0.9727;2.3584;
237.3000;0.9711;2.3488;
237.6000;0.9727;2.3608;
237.9000;0.9719;2.3512;
238.2000;0.9711;2.3464;
238.5000;0.9744;2.3584;
238.8000;0.9719;2.3560;
239.1000;0.9727;2.3560;
239.4000;0.9719;2.3560;
239.7000;0.9719;2.3560;
240.0000;0.9719;2.3512;
240.3000;0.9719;2.3560;
240.6000;0.9670;2.3417;
240.9000;0.9695;2.3536;
241.2000;0.9727;2.3560;
241.5000;0.9735;2.3536;
241.8000;0.9703;2.3464;
242.1000;0.9703;2.3464;
242.4000;0.9711;2.3464;
242.7000;0.9711;2.3536;
243.0000;0.9695;2.3560;
243.3000;0.9703;2.3512;
243.6000;0.9687;2.3441;
243.9000;0.9719;2.3441;
244.2000;0.9711;2.3441;
244.5000;0.9703;2.3417;
244.8000;0.9703;2.3441;
245.1000;0.9678;2.3298;
245.4000;0.9711;2.3321;
245.7000;0.9687;2.3369;
246.0000;0.9703;2.3393;
246.3000;0.9695;2.3393;
246.6000;0.9711;2.3464;
246.9000;0.9695;2.3536;
247.2000;0.9678;2.3488;
247.5000;0.9703;2.3584;
247.8000;0.9711;2.3631;
248.1000;0.9711;2.3608;
248.4000;0.9695;2.3512;
248.7000;0.9695;2.3488;
249.0000;0.9703;2.3488;
249.3000;0.9711;2.3512;
249.6000;0.9727;2.3512;
249.9000;0.9711;2.3441;
250.2000;0.9711;2.3369;
250.5000;0.9727;2.3417;
250.8000;0.9719;2.3441;
251.1000;0.9735;2.3417;
251.4000;0.9703;2.3441;
251.7000;0.9711;2.3488;
252.0000;0.9711;2.3441;
252.3000;0.9703;2.3369;
252.6000;0.9711;2.3393;
252.9000;0.9687;2.3393;
253.2000;0.9719;2.3369;
253.5000;0.9711;2.3345;
253.8000;0.9695;2.3321;
254.1000;0.9719;2.3321;
254.4000;0.9727;2.3345;
254.7000;0.9719;2.3274;
255.0000;0.9744;2.3321;
255.3000;0.9735;2.3250;
255.6000;0.9719;2.3274;
255.9000;0.9719;2.3345;
256.2000;0.9719;2.3393;
256.5000;0.9744;2.3512;
256.8000;0.9711;2.3441;
257.1000;0.9727;2.3488;
257.4000;0.9703;2.3369;
257.7000;0.9703;2.3345;
258.0000;0.9703;2.3345;
258.3000;0.9744;2.3512;
258.6000;0.9695;2.3512;
258.9000;0.9711;2.3703;
259.2000;0.9711;2.3655;
259.5000;0.9711;2.3655;
259.8000;0.9678;2.3655;
260.1000;0.9768;2.3774;
260.4000;0.9719;2.3631;
260.7000;0.9695;2.3584;
261.0000;0.9719;2.3679;
261.3000;0.9711;2.3512;
261.6000;0.9711;2.3512;
261.9000;0.9711;2.3631;
262.2000;0.9719;2.3727;
262.5000;0.9719;2.3751;
262.8000;0.9719;2.3751;
263.1000;0.9727;2.3774;
263.4000;0.9719;2.3774;
263.7000;0.9711;2.3727;
264.0000;0.9735;2.3703;
264.3000;0.9719;2.3584;
264.6000;0.9719;2.3584;
264.9000;0.9752;2.3703;
265.2000;0.9711;2.3655;
265.5000;0.9727;2.3703;
265.8000;0.9719;2.3679;
266.1000;0.9703;2.3655;
266.4000;0.9711;2.3655;
266.7000;0.9687;2.3560;
267.0000;0.9711;2.3584;
267.3000;0.9695;2.3608;
267.6000;0.9735;2.3608;
267.9000;0.9703;2.3488;
268.2000;0.9760;2.3584;
268.5000;0.9711;2.3512;
268.8000;0.9703;2.3417;
269.1000;0.9711;2.3369;
269.4000;0.9703;2.3393;
269.7000;0.9711;2.3464;
270.0000;0.9711;2.3488;
270.3000;0.9711;2.3512;
270.6000;0.9719;2.3488;
270.9000;0.9727;2.3441;
271.2000;0.9735;2.3512;
271.5000;0.9711;2.3560;
271.8000;0.9719;2.3608;
272.1000;0.9735;2.3679;
272.4000;0.9719;2.3631;
272.7000;0.9719;2.3608;
273.0000;0.9711;2.3512;
273.3000;0.9719;2.3560;
273.6000;0.9703;2.3345;
273.9000;0.9719;2.3417;
274.2000;0.9703;2.3369;
274.5000;0.9784;2.3512;
274.8000;0.9735;2.3393;
275.1000;0.9727;2.3417;
275.4000;0.9719;2.3369;
275.7000;0.9809;2.3584;
276.0000;0.9678;2.3393;
276.3000;0.9768;2.3584;
276.6000;0.9727;2.3464;
276.9000;0.9719;2.3464;
277.2000;0.9719;2.3488;
277.5000;0.9711;2.3536;
277.8000;0.9719;2.3584;
278.1000;0.9703;2.3464;
278.4000;0.9703;2.3512;
278.7000;0.9735;2.3679;
279.0000;0.9719;2.3536;
279.3000;0.9703;2.3464;
279.6000;0.9711;2.3560;
279.9000;0.9695;2.3560;
280.2000;0.9703;2.3560;
280.5000;0.9711;2.3512;
280.8000;0.9719;2.3560;
281.1000;0.9711;2.3608;
281.4000;0.9719;2.3655;
281.7000;0.9719;2.3584;
282.0000;0.9719;2.3536;
282.3000;0.9703;2.3536;
282.6000;0.9703;2.3512;
282.9000;0.9703;2.3560;
283.2000;0.9760;2.3584;
283.5000;0.9703;2.3536;
283.8000;0.9727;2.3536;
284.1000;0.9719;2.3488;
284.4000;0.9695;2.3393;
284.7000;0.9711;2.3488;
285.0000;0.9695;2.3560;
285.3000;0.9703;2.3608;
285.6000;0.9727;2.3679;
285.9000;0.9670;2.3536;
286.2000;0.9719;2.3655;
286.5000;0.9695;2.3631;
286.8000;0.9678;2.3655;
287.1000;0.9703;2.3631;
287.4000;0.9711;2.3584;
287.7000;0.9719;2.3608;
288.0000;0.9719;2.3631;
288.3000;0.9711;2.3536;
288.6000;0.9711;2.3584;
288.9000;0.9711;2.3584;
289.2000;0.9727;2.3679;
289.5000;0.9687;2.3560;
289.8000;0.9695;2.3631;
290.1000;0.9711;2.3631;
290.4000;0.9711;2.3751;
290.7000;0.9711;2.3822;
291.0000;0.9703;2.3870;
291.3000;0.9719;2.3894;
291.6000;0.9735;2.3894;
291.9000;0.9695;2.3798;
292.2000;0.9711;2.3774;
292.5000;0.9768;2.3918;
292.8000;0.9719;2.3679;
293.1000;0.9711;2.3631;
293.4000;0.9719;2.3679;
293.7000;0.9711;2.3822;
294.0000;0.9711;2.3822;
294.3000;0.9711;2.3822;
294.6000;0.9703;2.3751;
294.9000;0.9727;2.3918;
295.2000;0.9719;2.3870;
295.5000;0.9719;2.3798;
295.8000;0.9711;2.3846;
296.1000;0.9711;2.3918;
296.4000;0.9719;2.3894;
296.7000;0.9719;2.3822;
297.0000;0.9719;2.3822;
297.3000;0.9711;2.3751;
297.6000;0.9719;2.3774;
297.9000;0.9719;2.3774;
298.2000;0.9719;2.3703;
298.5000;0.9719;2.3727;
298.8000;0.9703;2.3727;
299.1000;0.9719;2.3679;
299.4000;0.9678;2.3560;
299.7000;0.9727;2.3727;
300.0000;0.9727;2.3679;
300.3000;0.9678;2.3560;
300.6000;0.9727;2.3679;
300.9000;0.9727;2.3560;
301.2000;0.9719;2.3464;
301.5000;0.9711;2.3393;
301.8000;0.9727;2.3345;
302.1000;0.9760;2.3441;
302.4000;0.9711;2.3345;
302.7000;0.9719;2.3464;
303.0000;0.9727;2.3441;
303.3000;0.9695;2.3393;
303.6000;0.9711;2.3441;
303.9000;0.9719;2.3512;
304.2000;0.9719;2.3488;
304.5000;0.9711;2.3512;
304.8000;0.9695;2.3441;
305.1000;0.9670;2.3393;
305.4000;0.9719;2.3464;
305.7000;0.9670;2.3298;
306.0000;0.9687;2.3298;
306.3000;0.9719;2.3369;
306.6000;0.9727;2.3417;
306.9000;0.9760;2.3536;
307.2000;0.9695;2.3441;
307.5000;0.9711;2.3441;
307.8000;0.9711;2.3417;
308.1000;0.9727;2.3464;
308.4000;0.9711;2.3464;
308.7000;0.9711;2.3464;
309.0000;0.9687;2.3393;
309.3000;0.9711;2.3464;
309.6000;0.9719;2.3393;
309.9000;0.9711;2.3393;
310.2000;0.9735;2.3298;
310.5000;0.9744;2.3345;
310.8000;0.9711;2.3298;
311.1000;0.9719;2.3345;
311.4000;0.9735;2.3441;
311.7000;0.9768;2.3560;
312.0000;0.9727;2.3464;
312.3000;0.9703;2.3369;
312.6000;0.9752;2.3488;
312.9000;0.9670;2.3345;
313.2000;0.9752;2.3488;
313.5000;0.9678;2.3298;
313.8000;0.9703;2.3417;
314.1000;0.9711;2.3464;
314.4000;0.9727;2.3536;
314.7000;0.9735;2.3584;
315.0000;0.9703;2.3488;
315.3000;0.9719;2.3512;
315.6000;0.9727;2.3536;
315.9000;0.9719;2.3512;
316.2000;0.9727;2.3584;
316.5000;0.9719;2.3608;
316.8000;0.9727;2.3655;
317.1000;0.9727;2.3584;
317.4000;0.9711;2.3464;
317.7000;0.9727;2.3441;
318.0000;0.9735;2.3417;
318.3000;0.9719;2.3441;
318.6000;0.9719;2.3441;
318.9000;0.9711;2.3393;
319.2000;0.9719;2.3417;
319.5000;0.9727;2.3488;
319.8000;0.9711;2.3464;
320.1000;0.9703;2.3441;
320.4000;0.9703;2.3512;
320.7000;0.9719;2.3536;
321.0000;0.9719;2.3536;
321.3000;0.9719;2.3488;
321.6000;0.9719;2.3512;
321.9000;0.9719;2.3560;
322.2000;0.9711;2.3536;
322.5000;0.9719;2.3512;
322.8000;0.9719;2.3488;
323.1000;0.9711;2.3488;
323.4000;0.9711;2.3488;
323.7000;0.9703;2.3536;
324.0000;0.9670;2.3488;
324.3000;0.9678;2.3417;
324.6000;0.9719;2.3441;
324.9000;0.9703;2.3321;
325.2000;0.9703;2.3250;
325.5000;0.9719;2.3369;
325.8000;0.9711;2.3464;
326.1000;0.9719;2.3536;
326.4000;0.9719;2.3584;
326.7000;0.9719;2.3703;
327.0000;0.9719;2.3727;
327.3000;0.9711;2.3703;
327.6000;0.9719;2.3655;
327.9000;0.9711;2.3560;
328.2000;0.9687;2.3441;
328.5000;0.9703;2.3441;
328.8000;0.9719;2.3464;
329.1000;0.9735;2.3488;
329.4000;0.9695;2.3345;
329.7000;0.9703;2.3369;
330.0000;0.9719;2.3417;
330.3000;0.9678;2.3298;
330.6000;0.9687;2.3298;
330.9000;0.9719;2.3393;
331.2000;0.9711;2.3464;
331.5000;0.9719;2.3464;
331.8000;0.9719;2.3393;
332.1000;0.9744;2.3441;
332.4000;0.9727;2.3441;
332.7000;0.9744;2.3488;
333.0000;0.9727;2.3512;
333.3000;0.9727;2.3560;
333.6000;0.9695;2.3417;
333.9000;0.9711;2.3393;
334.2000;0.9695;2.3393;
334.5000;0.9752;2.3536;
334.8000;0.9727;2.3488;
335.1000;0.9719;2.3512;
335.4000;0.9662;2.3393;
335.7000;0.9695;2.3417;
336.0000;0.9735;2.3560;
336.3000;0.9711;2.3488;
336.6000;0.9719;2.3536;
336.9000;0.9727;2.3417;
337.2000;0.9727;2.3441;
337.5000;0.9638;2.3274;
337.8000;0.9711;2.3512;
338.1000;0.9727;2.3488;
338.4000;0.9711;2.3441;
338.7000;0.9711;2.3441;
339.0000;0.9768;2.3560;
339.3000;0.9719;2.3393;
339.6000;0.9711;2.3441;
339.9000;0.9735;2.3464;
340.2000;0.9703;2.3417;
340.5000;0.9703;2.3441;
340.8000;0.9711;2.3393;
341.1000;0.9719;2.3345;
341.4000;0.9711;2.3369;
341.7000;0.9711;2.3345;
342.0000;0.9727;2.3369;
342.3000;0.9711;2.3417;
342.6000;0.9711;2.3464;
342.9000;0.9735;2.3464;
343.2000;0.9719;2.3464;
343.5000;0.9727;2.3536;
343.8000;0.9719;2.3417;
344.1000;0.9711;2.3441;
344.4000;0.9703;2.3464;
344.7000;0.9711;2.3536;
345.0000;0.9719;2.3560;
345.3000;0.9711;2.3536;
345.6000;0.9719;2.3536;
345.9000;0.9719;2.3512;
346.2000;0.9727;2.3488;
346.5000;0.9727;2.3464;
346.8000;0.9719;2.3488;
347.1000;0.9703;2.3560;
347.4000;0.9719;2.3655;
347.7000;0.9711;2.3584;
348.0000;0.9719;2.3655;
348.3000;0.9711;2.3655;
348.6000;0.9727;2.3655;
348.9000;0.9719;2.3608;
349.2000;0.9727;2.3655;
349.5000;0.9711;2.3655;
349.8000;0.9727;2.3774;
350.1000;0.9719;2.3751;
350.4000;0.9703;2.3774;
350.7000;0.9752;2.3798;
351.0000;0.9719;2.3631;
351.3000;0.9727;2.3631;
351.6000;0.9752;2.3727;
351.9000;0.9727;2.3560;
352.2000;0.9703;2.3512;
352.5000;0.9719;2.3560;
352.8000;0.9719;2.3560;
353.1000;0.9719;2.3631;
353.4000;0.9695;2.3560;
353.7000;0.9735;2.3679;
354.0000;0.9711;2.3631;
354.3000;0.9719;2.3679;
354.6000;0.9727;2.3703;
354.9000;0.9711;2.3679;
355.2000;0.9711;2.3631;
355.5000;0.9735;2.3608;
355.8000;0.9703;2.3512;
356.1000;0.9703;2.3488;
356.4000;0.9719;2.3584;
356.7000;0.9711;2.3441;
357.0000;0.9711;2.3441;
357.3000;0.9703;2.3464;
357.6000;0.9703;2.3512;
357.9000;0.9735;2.3584;
358.2000;0.9711;2.3560;
358.5000;0.9735;2.3703;
358.8000;0.9719;2.3679;
359.1000;0.9719;2.3631;
359.4000;0.9711;2.3560;
359.7000;0.9662;2.3441;
360.0000;0.9719;2.3536;
360.3000;0.9703;2.3584;
360.6000;0.9703;2.3584;
360.9000;0.9695;2.3608;
361.2000;0.9711;2.3631;
361.5000;0.9703;2.3584;
361.8000;0.9711;2.3584;
362.1000;0.9719;2.3679;
362.4000;0.9711;2.3679;
362.7000;0.9711;2.3631;
363.0000;0.9735;2.3679;
363.3000;0.9711;2.3679;
363.6000;0.9719;2.3751;
363.9000;0.9752;2.3798;
364.2000;0.9727;2.3751;
364.5000;0.9727;2.3703;
364.8000;0.9711;2.3703;
365.1000;0.9703;2.3703;
365.4000;0.9711;2.3727;
365.7000;0.9711;2.3774;
366.0000;0.9719;2.3798;
366.3000;0.9711;2.3727;
366.6000;0.9727;2.3679;
366.9000;0.9703;2.3608;
367.2000;0.9719;2.3703;
367.5000;0.9719;2.3774;
367.8000;0.9711;2.3751;
368.1000;0.9727;2.3798;
368.4000;0.9744;2.3846;
368.7000;0.9711;2.3774;
369.0000;0.9703;2.3703;
369.3000;0.9719;2.3679;
369.6000;0.9719;2.3655;
369.9000;0.9719;2.3679;
370.2000;0.9711;2.3584;
370.5000;0.9711;2.3560;
370.8000;0.9719;2.3584;
371.1000;0.9711;2.3560;
371.4000;0.9719;2.3608;
371.7000;0.9719;2.3584;
372.0000;0.9735;2.3464;
372.3000;0.9703;2.3441;
372.6000;0.9711;2.3488;
372.9000;0.9727;2.3488;
373.2000;0.9727;2.3488;
373.5000;0.9695;2.3488;
373.8000;0.9768;2.3679;
374.1000;0.9711;2.3488;
374.4000;0.9695;2.3417;
374.7000;0.9719;2.3536;
375.0000;0.9703;2.3512;
375.3000;0.9703;2.3536;
375.6000;0.9719;2.3512;
375.9000;0.9719;2.3536;
376.2000;0.9703;2.3536;
376.5000;0.9703;2.3512;
376.8000;0.9719;2.3560;
377.1000;0.9752;2.3560;
377.4000;0.9703;2.3464;
377.7000;0.9719;2.3512;
378.0000;0.9711;2.3488;
378.3000;0.9711;2.3464;
378.6000;0.9711;2.3488;
378.9000;0.9703;2.3441;
379.2000;0.9703;2.3393;
379.5000;0.9727;2.3417;
379.8000;0.9727;2.3464;
380.1000;0.9711;2.3393;
380.4000;0.9703;2.3369;
380.7000;0.9727;2.3441;
381.0000;0.9744;2.3488;
381.3000;0.9719;2.3417;
381.6000;0.9719;2.3464;
381.9000;0.9703;2.3441;
382.2000;0.9703;2.3536;
382.5000;0.9711;2.3631;
382.8000;0.9687;2.3536;
383.1000;0.9678;2.3560;
383.4000;0.9719;2.3608;
383.7000;0.9719;2.3536;
384.0000;0.9711;2.3488;
384.3000;0.9719;2.3488;
384.6000;0.9711;2.3512;
384.9000;0.9768;2.3679;
385.2000;0.9695;2.3631;
385.5000;0.9719;2.3655;
385.8000;0.9719;2.3679;
386.1000;0.9727;2.3679;
386.4000;0.9727;2.3679;
386.7000;0.9711;2.3631;
387.0000;0.9719;2.3655;
387.3000;0.9719;2.3608;
387.6000;0.9719;2.3655;
387.9000;0.9638;2.3488;
388.2000;0.9711;2.3655;
388.5000;0.9711;2.3655;
388.8000;0.9687;2.3703;
389.1000;0.9719;2.3679;
389.4000;0.9711;2.3679;
389.7000;0.9711;2.3679;
390.0000;0.9711;2.3727;
390.3000;0.9711;2.3655;
390.6000;0.9711;2.3655;
390.9000;0.9727;2.3655;
391.2000;0.9703;2.3679;
391.5000;0.9662;2.3536;
391.8000;0.9703;2.3560;
392.1000;0.9744;2.3608;
392.4000;0.9711;2.3464;
392.7000;0.9711;2.3488;
393.0000;0.9711;2.3417;
393.3000;0.9768;2.3608;
393.6000;0.9727;2.3488;
393.9000;0.9719;2.3560;
394.2000;0.9719;2.3584;
394.5000;0.9719;2.3584;
394.8000;0.9719;2.3655;
395.1000;0.9719;2.3560;
395.4000;0.9703;2.3512;
395.7000;0.9703;2.3488;
396.0000;0.9719;2.3536;
396.3000;0.9687;2.3488;
396.6000;0.9711;2.3584;
396.9000;0.9703;2.3488;
397.2000;0.9711;2.3560;
397.5000;0.9711;2.3560;
397.8000;0.9727;2.3608;
398.1000;0.9735;2.3679;
398.4000;0.9711;2.3631;
398.7000;0.9703;2.3584;
399.0000;0.9752;2.3679;
399.3000;0.9703;2.3536;
399.6000;0.9711;2.3536;
399.9000;0.9703;2.3584;
400.2000;0.9719;2.3584;
400.5000;0.9711;2.3584;
400.8000;0.9703;2.3560;
401.1000;0.9719;2.3488;
401.4000;0.9711;2.3417;
401.7000;0.9703;2.3369;
402.0000;0.9711;2.3417;
402.3000;0.9719;2.3464;
402.6000;0.9703;2.3464;
402.9000;0.9703;2.3488;
403.2000;0.9695;2.3512;
403.5000;0.9703;2.3584;
403.8000;0.9735;2.3560;
404.1000;0.9711;2.3488;
404.4000;0.9703;2.3536;
404.7000;0.9703;2.3488;
405.0000;0.9670;2.3584;
405.3000;0.9703;2.3655;
405.6000;0.9711;2.3560;
405.9000;0.9711;2.3512;
406.2000;0.9727;2.3512;
406.5000;0.9711;2.3512;
406.8000;0.9711;2.3536;
407.1000;0.9695;2.3536;
407.4000;0.9695;2.3560;
407.7000;0.9719;2.3560;
408.0000;0.9695;2.3488;
408.3000;0.9703;2.3488;
408.6000;0.9703;2.3417;
408.9000;0.9719;2.3488;
409.2000;0.9719;2.3536;
409.5000;0.9727;2.3560;
409.8000;0.9711;2.3560;
410.1000;0.9711;2.3560;
410.4000;0.9695;2.3512;
410.7000;0.9711;2.3488;
411.0000;0.9703;2.3464;
411.3000;0.9719;2.3631;
411.6000;0.9711;2.3536;
411.9000;0.9695;2.3512;
412.2000;0.9695;2.3464;
412.5000;0.9703;2.3441;
412.8000;0.9703;2.3536;
413.1000;0.9719;2.3560;
413.4000;0.9670;2.3512;
413.7000;0.9703;2.3608;
414.0000;0.9695;2.3584;
414.3000;0.9687;2.3560;
414.6000;0.9687;2.3608;
414.9000;0.9687;2.3679;
415.2000;0.9703;2.3703;
415.5000;0.9703;2.3679;
415.8000;0.9695;2.3584;
416.1000;0.9695;2.3512;
416.4000;0.9719;2.3655;
416.7000;0.9711;2.3631;
417.0000;0.9703;2.3631;
417.3000;0.9687;2.3512;
417.6000;0.9719;2.3560;
417.9000;0.9711;2.3608;
418.2000;0.9703;2.3560;
418.5000;0.9695;2.3488;
418.8000;0.9719;2.3608;
419.1000;0.9719;2.3584;
419.4000;0.9695;2.3512;
419.7000;0.9727;2.3608;
420.0000;0.9711;2.3512;
420.3000;0.9678;2.3417;
420.6000;0.9670;2.3417;
420.9000;0.9711;2.3488;
421.2000;0.9695;2.3441;
421.5000;0.9711;2.3441;
421.8000;0.9703;2.3417;
422.1000;0.9670;2.3345;
422.4000;0.9703;2.3417;
422.7000;0.9719;2.3512;
423.0000;0.9719;2.3560;
423.3000;0.9695;2.3536;
423.6000;0.9695;2.3536;
423.9000;0.9695;2.3512;
424.2000;0.9711;2.3441;
424.5000;0.9744;2.3536;
424.8000;0.9695;2.3441;
425.1000;0.9711;2.3393;
425.4000;0.9719;2.3536;
425.7000;0.9711;2.3488;
426.0000;0.9695;2.3512;
426.3000;0.9678;2.3417;
426.6000;0.9695;2.3464;
426.9000;0.9695;2.3512;
427.2000;0.9678;2.3512;
427.5000;0.9654;2.3441;
427.8000;0.9703;2.3560;
428.1000;0.9670;2.3488;
428.4000;0.9695;2.3488;
428.7000;0.9695;2.3536;
429.0000;0.9703;2.3536;
429.3000;0.9711;2.3608;
429.6000;0.9711;2.3560;
429.9000;0.9687;2.3536;
430.2000;0.9687;2.3488;
430.5000;0.9744;2.3679;
430.8000;0.9703;2.3536;
431.1000;0.9630;2.3369;
431.4000;0.9711;2.3584;
431.7000;0.9784;2.3703;
432.0000;0.9703;2.3464;
432.3000;0.9711;2.3488;
432.6000;0.9711;2.3488;
432.9000;0.9703;2.3560;
433.2000;0.9711;2.3679;
433.5000;0.9695;2.3631;
433.8000;0.9703;2.3727;
434.1000;0.9711;2.3774;
434.4000;0.9752;2.3846;
434.7000;0.9719;2.3703;
435.0000;0.9711;2.3608;
435.3000;0.9711;2.3584;
435.6000;0.9719;2.3655;
435.9000;0.9703;2.3584;
436.2000;0.9703;2.3679;
436.5000;0.9662;2.3608;
436.8000;0.9703;2.3703;
437.1000;0.9727;2.3774;
437.4000;0.9711;2.3727;
437.7000;0.9703;2.3703;
438.0000;0.9744;2.3798;
438.3000;0.9678;2.3608;
438.6000;0.9695;2.3631;
438.9000;0.9695;2.3560;
439.2000;0.9719;2.3584;
439.5000;0.9703;2.3584;
439.8000;0.9703;2.3608;
440.1000;0.9687;2.3512;
440.4000;0.9727;2.3584;
440.7000;0.9711;2.3560;
441.0000;0.9711;2.3584;
441.3000;0.9711;2.3560;
441.6000;0.9711;2.3584;
441.9000;0.9703;2.3584;
442.2000;0.9719;2.3560;
442.5000;0.9703;2.3560;
442.8000;0.9695;2.3584;
443.1000;0.9703;2.3584;
443.4000;0.9711;2.3631;
443.7000;0.9695;2.3679;
444.0000;0.9695;2.3727;
444.3000;0.9695;2.3679;
444.6000;0.9735;2.3774;
444.9000;0.9719;2.3846;
445.2000;0.9711;2.3870;
445.5000;0.9727;2.3822;
445.8000;0.9719;2.3703;
446.1000;0.9695;2.3655;
446.4000;0.9703;2.3679;
446.7000;0.9695;2.3584;
447.0000;0.9711;2.3608;
447.3000;0.9678;2.3512;
447.6000;0.9703;2.3584;
447.9000;0.9703;2.3584;
448.2000;0.9695;2.3584;
448.5000;0.9711;2.3584;
448.8000;0.9719;2.3584;
449.1000;0.9727;2.3679;
449.4000;0.9703;2.3655;
449.7000;0.9711;2.3655;
450.0000;0.9630;2.3417;
450.3000;0.9695;2.3560;
450.6000;0.9670;2.3488;
450.9000;0.9719;2.3608;
451.2000;0.9670;2.3488;
451.5000;0.9703;2.3584;
451.8000;0.9703;2.3655;
452.1000;0.9695;2.3751;
452.4000;0.9703;2.3822;
452.7000;0.9687;2.3751;
453.0000;0.9695;2.3727;
453.3000;0.9703;2.3727;
453.6000;0.9687;2.3751;
453.9000;0.9678;2.3703;
454.2000;0.9678;2.3727;
454.5000;0.9719;2.3727;
454.8000;0.9703;2.3679;
455.1000;0.9776;2.3894;
455.4000;0.9703;2.3703;
455.7000;0.9768;2.3774;
456.0000;0.9703;2.3584;
456.3000;0.9727;2.3512;
456.6000;0.9703;2.3488;
456.9000;0.9703;2.3584;
457.2000;0.9711;2.3655;
457.5000;0.9703;2.3608;
457.8000;0.9695;2.3512;
458.1000;0.9711;2.3464;
458.4000;0.9711;2.3512;
458.7000;0.9711;2.3560;
459.0000;0.9711;2.3560;
459.3000;0.9711;2.3536;
459.6000;0.9711;2.3560;
459.9000;0.9695;2.3536;
460.2000;0.9727;2.3512;
460.5000;0.9695;2.3512;
460.8000;0.9703;2.3512;
461.1000;0.9703;2.3512;
461.4000;0.9711;2.3441;
461.7000;0.9687;2.3321;
462.0000;0.9695;2.3345;
462.3000;0.9678;2.3274;
462.6000;0.9727;2.3345;
462.9000;0.9703;2.3345;
463.2000;0.9719;2.3345;
463.5000;0.9711;2.3441;
463.8000;0.9719;2.3417;
464.1000;0.9695;2.3464;
464.4000;0.9687;2.3464;
464.7000;0.9703;2.3441;
465.0000;0.9711;2.3464;
465.3000;0.9703;2.3536;
465.6000;0.9719;2.3512;
465.9000;0.9703;2.3488;
466.2000;0.9711;2.3512;
466.5000;0.9703;2.3560;
466.8000;0.9687;2.3560;
467.1000;0.9678;2.3560;
467.4000;0.9695;2.3441;
467.7000;0.9695;2.3464;
468.0000;0.9695;2.3441;
468.3000;0.9670;2.3464;
468.6000;0.9703;2.3488;
468.9000;0.9703;2.3584;
469.2000;0.9670;2.3560;
469.5000;0.9703;2.3608;
469.8000;0.9703;2.3608;
470.1000;0.9703;2.3536;
470.4000;0.9711;2.3584;
470.7000;0.9703;2.3536;
471.0000;0.9703;2.3441;
471.3000;0.9752;2.3584;
471.6000;0.9670;2.3464;
471.9000;0.9703;2.3512;
472.2000;0.9703;2.3512;
472.5000;0.9695;2.3536;
472.8000;0.9703;2.3536;
473.1000;0.9670;2.3512;
473.4000;0.9654;2.3488;
473.7000;0.9695;2.3560;
474.0000;0.9662;2.3488;
474.3000;0.9703;2.3560;
474.6000;0.9695;2.3512;
474.9000;0.9670;2.3464;
475.2000;0.9711;2.3536;
475.5000;0.9703;2.3560;
475.8000;0.9703;2.3536;
476.1000;0.9695;2.3584;
476.4000;0.9687;2.3631;
476.7000;0.9695;2.3631;
477.0000;0.9695;2.3512;
477.3000;0.9687;2.3369;
477.6000;0.9687;2.3417;
477.9000;0.9695;2.3488;
478.2000;0.9662;2.3464;
478.5000;0.9687;2.3464;
478.8000;0.9630;2.3298;
479.1000;0.9678;2.3393;
479.4000;0.9687;2.3417;
479.7000;0.9711;2.3488;
480.0000;0.9678;2.3512;
480.3000;0.9703;2.3584;
480.6000;0.9711;2.3655;
480.9000;0.9703;2.3679;
481.2000;0.9687;2.3608;
481.5000;0.9703;2.3655;
481.8000;0.9703;2.3584;
482.1000;0.9703;2.3536;
482.4000;0.9703;2.3608;
482.7000;0.9703;2.3560;
483.0000;0.9703;2.3536;
483.3000;0.9695;2.3512;
483.6000;0.9695;2.3512;
483.9000;0.9678;2.3536;
484.2000;0.9678;2.3584;
484.5000;0.9687;2.3536;
484.8000;0.9687;2.3608;
485.1000;0.9703;2.3655;
485.4000;0.9727;2.3751;
485.7000;0.9711;2.3655;
486.0000;0.9695;2.3536;
486.3000;0.9719;2.3560;
486.6000;0.9703;2.3584;
486.9000;0.9719;2.3679;
487.2000;0.9711;2.3631;
487.5000;0.9776;2.3774;
487.8000;0.9719;2.3608;
488.1000;0.9727;2.3703;
488.4000;0.9703;2.3655;
488.7000;0.9678;2.3512;
489.0000;0.9678;2.3560;
489.3000;0.9735;2.3703;
489.6000;0.9703;2.3631;
489.9000;0.9678;2.3536;
490.2000;0.9760;2.3774;
490.5000;0.9719;2.3727;
490.8000;0.9695;2.3679;
491.1000;0.9638;2.3608;
491.4000;0.9687;2.3774;
491.7000;0.9727;2.3822;
492.0000;0.9711;2.3727;
492.3000;0.9695;2.3751;
492.6000;0.9695;2.3751;
492.9000;0.9695;2.3774;
493.2000;0.9687;2.3727;
493.5000;0.9695;2.3679;
493.8000;0.9695;2.3655;
494.1000;0.9621;2.3417;
494.4000;0.9703;2.3584;
494.7000;0.9695;2.3560;
495.0000;0.9687;2.3536;
495.3000;0.9695;2.3584;
495.6000;0.9703;2.3655;
495.9000;0.9703;2.3751;
496.2000;0.9703;2.3727;
496.5000;0.9703;2.3703;
496.8000;0.9703;2.3679;
497.1000;0.9695;2.3703;
497.4000;0.9695;2.3584;
497.7000;0.9703;2.3584;
498.0000;0.9703;2.3608;
498.3000;0.9695;2.3584;
498.6000;0.9687;2.3655;
498.9000;0.9670;2.3584;
499.2000;0.9711;2.3679;
499.5000;0.9695;2.3703;
499.8000;0.9687;2.3703;
500.1000;0.9695;2.3751;
500.4000;0.9687;2.3655;
500.7000;0.9703;2.3560;
501.0000;0.9703;2.3584;
501.3000;0.9695;2.3608;
501.6000;0.9703;2.3631;
501.9000;0.9703;2.3560;
502.2000;0.9711;2.3512;
502.5000;0.9695;2.3441;
502.8000;0.9678;2.3369;
503.1000;0.9687;2.3417;
503.4000;0.9695;2.3512;
503.7000;0.9703;2.3536;
504.0000;0.9695;2.3631;
504.3000;0.9695;2.3560;
504.6000;0.9703;2.3608;
504.9000;0.9711;2.3560;
505.2000;0.9695;2.3512;
505.5000;0.9695;2.3464;
505.8000;0.9703;2.3536;
506.1000;0.9703;2.3512;
506.4000;0.9662;2.3441;
506.7000;0.9695;2.3441;
507.0000;0.9711;2.3464;
507.3000;0.9768;2.3703;
507.6000;0.9695;2.3560;
507.9000;0.9703;2.3631;
508.2000;0.9695;2.3631;
508.5000;0.9711;2.3727;
508.8000;0.9752;2.3822;
509.1000;0.9695;2.3679;
509.4000;0.9638;2.3584;
509.7000;0.9687;2.3727;
510.0000;0.9703;2.3774;
510.3000;0.9687;2.3774;
510.6000;0.9703;2.3703;
510.9000;0.9711;2.3727;
511.2000;0.9695;2.3727;
511.5000;0.9695;2.3727;
511.8000;0.9703;2.3727;
512.1000;0.9711;2.3751;
512.4000;0.9711;2.3822;
512.7000;0.9711;2.3822;
513.0000;0.9695;2.3798;
513.3000;0.9703;2.3798;
513.6000;0.9735;2.3822;
513.9000;0.9695;2.3679;
514.2000;0.9695;2.3631;
514.5000;0.9695;2.3584;
514.8000;0.9703;2.3703;
515.1000;0.9695;2.3727;
515.4000;0.9695;2.3679;
515.7000;0.9703;2.3560;
516.0000;0.9695;2.3584;
516.3000;0.9695;2.3584;
516.6000;0.9678;2.3560;
516.9000;0.9670;2.3488;
517.2000;0.9687;2.3536;
517.5000;0.9703;2.3536;
517.8000;0.9792;2.3751;
518.1000;0.9678;2.3584;
518.4000;0.9703;2.3536;
518.7000;0.9703;2.3584;
519.0000;0.9695;2.3655;
519.3000;0.9678;2.3488;
519.6000;0.9687;2.3464;
519.9000;0.9687;2.3488;
520.2000;0.9687;2.3488;
520.5000;0.9744;2.3703;
520.8000;0.9695;2.3655;
521.1000;0.9678;2.3679;
521.4000;0.9760;2.3774;
521.7000;0.9687;2.3631;
522.0000;0.9703;2.3631;
522.3000;0.9719;2.3751;
522.6000;0.9711;2.3727;
522.9000;0.9687;2.3703;
523.2000;0.9687;2.3727;
523.5000;0.9711;2.3774;
523.8000;0.9727;2.3774;
524.1000;0.9703;2.3703;
524.4000;0.9703;2.3608;
524.7000;0.9695;2.3584;
525.0000;0.9654;2.3536;
525.3000;0.9695;2.3512;
525.6000;0.9687;2.3608;
525.9000;0.9703;2.3679;
526.2000;0.9695;2.3655;
526.5000;0.9703;2.3608;
526.8000;0.9703;2.3584;
527.1000;0.9695;2.3655;
527.4000;0.9703;2.3727;
527.7000;0.9703;2.3751;
528.0000;0.9670;2.3679;
528.3000;0.9678;2.3751;
528.6000;0.9687;2.3751;
528.9000;0.9687;2.3727;
529.2000;0.9687;2.3727;
529.5000;0.9662;2.3608;
529.8000;0.9678;2.3631;
530.1000;0.9687;2.3751;
530.4000;0.9687;2.3774;
530.7000;0.9670;2.3631;
531.0000;0.9703;2.3727;
531.3000;0.9687;2.3703;
531.6000;0.9695;2.3751;
531.9000;0.9670;2.3798;
532.2000;0.9703;2.3679;
532.5000;0.9703;2.3679;
532.8000;0.9695;2.3655;
533.1000;0.9695;2.3655;
533.4000;0.9687;2.3655;
533.7000;0.9760;2.3846;
534.0000;0.9687;2.3679;
534.3000;0.9744;2.3798;
534.6000;0.9695;2.3727;
534.9000;0.9703;2.3655;
535.2000;0.9695;2.3703;
535.5000;0.9695;2.3679;
535.8000;0.9695;2.3655;
536.1000;0.9695;2.3608;
536.4000;0.9695;2.3631;
536.7000;0.9695;2.3631;
537.0000;0.9687;2.3584;
537.3000;0.9678;2.3631;
537.6000;0.9670;2.3584;
537.9000;0.9711;2.3679;
538.2000;0.9695;2.3560;
538.5000;0.9752;2.3655;
538.8000;0.9695;2.3655;
539.1000;0.9703;2.3751;
539.4000;0.9703;2.3727;
539.7000;0.9687;2.3774;
540.0000;0.9695;2.3822;
540.3000;0.9695;2.3846;
540.6000;0.9573;2.3488;
540.9000;0.9662;2.3774;
541.2000;0.9703;2.3918;
541.5000;0.9695;2.3870;
541.8000;0.9703;2.3918;
542.1000;0.9703;2.3941;
542.4000;0.9695;2.3965;
542.7000;0.9695;2.4013;
543.0000;0.9687;2.3918;
543.3000;0.9687;2.3870;
543.6000;0.9646;2.3846;
543.9000;0.9695;2.3989;
544.2000;0.9695;2.4061;
544.5000;0.9695;2.3965;
544.8000;0.9687;2.3822;
545.1000;0.9687;2.3846;
545.4000;0.9687;2.3679;
545.7000;0.9670;2.3655;
546.0000;0.9678;2.3584;
546.3000;0.9670;2.3655;
546.6000;0.9670;2.3608;
546.9000;0.9687;2.3727;
547.2000;0.9703;2.3727;
547.5000;0.9703;2.3727;
547.8000;0.9695;2.3703;
548.1000;0.9662;2.3631;
548.4000;0.9678;2.3751;
548.7000;0.9678;2.3751;
549.0000;0.9695;2.3822;
549.3000;0.9687;2.3846;
549.6000;0.9687;2.3846;
549.9000;0.9678;2.3918;
550.2000;0.9695;2.3918;
550.5000;0.9703;2.3774;
550.8000;0.9687;2.3774;
551.1000;0.9703;2.3870;
551.4000;0.9687;2.3798;
551.7000;0.9687;2.3822;
552.0000;0.9695;2.3918;
552.3000;0.9687;2.3918;
552.6000;0.9695;2.3918;
552.9000;0.9678;2.3774;
553.2000;0.9638;2.3631;
553.5000;0.9703;2.3798;
553.8000;0.9695;2.3751;
554.1000;0.9687;2.3727;
554.4000;0.9703;2.3727;
554.7000;0.9687;2.3727;
555.0000;0.9670;2.3751;
555.3000;0.9670;2.3918;
555.6000;0.9687;2.4013;
555.9000;0.9670;2.3965;
556.2000;0.9678;2.3965;
556.5000;0.9646;2.3774;
556.8000;0.9695;2.3846;
557.1000;0.9678;2.3751;
557.4000;0.9678;2.3703;
557.7000;0.9678;2.3703;
558.0000;0.9678;2.3727;
558.3000;0.9695;2.3798;
558.6000;0.9727;2.3846;
558.9000;0.9687;2.3631;
559.2000;0.9719;2.3679;
559.5000;0.9703;2.3655;
559.8000;0.9695;2.3655;
560.1000;0.9719;2.3751;
560.4000;0.9695;2.3584;
560.7000;0.9687;2.3631;
561.0000;0.9695;2.3679;
561.3000;0.9678;2.3584;
561.6000;0.9695;2.3584;
561.9000;0.9695;2.3679;
562.2000;0.9735;2.3822;
562.5000;0.9687;2.3774;
562.8000;0.9630;2.3608;
563.1000;0.9638;2.3608;
563.4000;0.9678;2.3751;
563.7000;0.9768;2.3965;
564.0000;0.9670;2.3679;
564.3000;0.9719;2.3846;
564.6000;0.9687;2.3798;
564.9000;0.9687;2.3751;
565.2000;0.9678;2.3751;
565.5000;0.9687;2.3798;
565.8000;0.9695;2.3822;
566.1000;0.9687;2.3822;
566.4000;0.9646;2.3727;
566.7000;0.9695;2.3703;
567.0000;0.9678;2.3727;
567.3000;0.9687;2.3774;
567.6000;0.9630;2.3560;
567.9000;0.9678;2.3703;
568.2000;0.9678;2.3774;
568.5000;0.9678;2.3727;
568.8000;0.9703;2.3679;
569.1000;0.9695;2.3679;
569.4000;0.9678;2.3727;
569.7000;0.9687;2.3751;
570.0000;0.9687;2.3798;
570.3000;0.9687;2.3798;
570.6000;0.9695;2.3870;
570.9000;0.9687;2.3870;
571.2000;0.9687;2.3894;
571.5000;0.9695;2.3894;
571.8000;0.9703;2.3918;
572.1000;0.9687;2.3941;
572.4000;0.9687;2.3894;
572.7000;0.9678;2.3846;
573.0000;0.9687;2.3727;
573.3000;0.9678;2.3727;
573.6000;0.9695;2.3727;
573.9000;0.9687;2.3774;
574.2000;0.9687;2.3703;
574.5000;0.9678;2.3655;
574.8000;0.9678;2.3751;
575.1000;0.9654;2.3655;
575.4000;0.9678;2.3679;
575.7000;0.9670;2.3679;
576.0000;0.9711;2.3751;
576.3000;0.9687;2.3655;
576.6000;0.9662;2.3536;
576.9000;0.9670;2.3441;
577.2000;0.9687;2.3512;
577.5000;0.9613;2.3464;
577.8000;0.9678;2.3631;
578.1000;0.9760;2.3846;
578.4000;0.9646;2.3584;
578.7000;0.9687;2.3679;
579.0000;0.9695;2.3655;
579.3000;0.9670;2.3703;
579.6000;0.9678;2.3751;
579.9000;0.9678;2.3703;
580.2000;0.9678;2.3774;
580.5000;0.9662;2.3870;
580.8000;0.9670;2.3846;
581.1000;0.9695;2.3941;
581.4000;0.9678;2.3918;
581.7000;0.9670;2.3894;
582.0000;0.9670;2.3918;
582.3000;0.9727;2.4037;
582.6000;0.9662;2.3918;
582.9000;0.9662;2.3727;
583.2000;0.9670;2.3679;
583.5000;0.9687;2.3655;
583.8000;0.9695;2.3751;
584.1000;0.9735;2.3846;
584.4000;0.9695;2.3774;
584.7000;0.9703;2.3751;
585.0000;0.9695;2.3727;
585.3000;0.9727;2.3751;
585.6000;0.9678;2.3631;
585.9000;0.9687;2.3727;
586.2000;0.9678;2.3774;
586.5000;0.9678;2.3727;
586.8000;0.9662;2.3751;
587.1000;0.9654;2.3727;
587.4000;0.9687;2.3798;
587.7000;0.9687;2.3822;
588.0000;0.9678;2.3822;
588.3000;0.9654;2.3798;
588.6000;0.9695;2.3918;
588.9000;0.9638;2.3751;
589.2000;0.9687;2.3941;
589.5000;0.9670;2.4013;
589.8000;0.9687;2.4037;
590.1000;0.9687;2.3989;
590.4000;0.9695;2.3989;
590.7000;0.9670;2.3941;
591.0000;0.9678;2.3870;
591.3000;0.9687;2.3894;
591.6000;0.9670;2.3870;
591.9000;0.9711;2.3918;
592.2000;0.9687;2.3822;
592.5000;0.9678;2.3774;
592.8000;0.9670;2.3703;
593.1000;0.9662;2.3727;
593.4000;0.9678;2.3751;
593.7000;0.9670;2.3774;
594.0000;0.9670;2.3822;
594.3000;0.9678;2.3774;
594.6000;0.9695;2.3798;
594.9000;0.9678;2.3774;
595.2000;0.9703;2.3774;
595.5000;0.9703;2.3774;
595.8000;0.9695;2.3774;
596.1000;0.9695;2.3798;
596.4000;0.9695;2.3751;
596.7000;0.9695;2.3727;
597.0000;0.9678;2.3703;
597.3000;0.9678;2.3727;
597.6000;0.9678;2.3751;
597.9000;0.9687;2.3846;
598.2000;0.9670;2.3894;
598.5000;0.9670;2.3798;
598.8000;0.9678;2.3870;
599.1000;0.9695;2.3918;
599.4000;0.9687;2.3846;
599.7000;0.9695;2.3798;
600.0000;0.9695;2.3822;
600.3000;0.9678;2.3631;
600.6000;0.9646;2.3441;
600.9000;0.9589;2.3274;
601.2000;0.9540;2.3035;
601.5000;0.9434;2.2797;
601.8000;0.9361;2.2582;
602.1000;0.9271;2.2368;
602.4000;0.9149;2.2105;
602.7000;0.9109;2.1962;
603.0000;0.9076;2.1914;
603.3000;0.8938;2.1604;
603.6000;0.8881;2.1509;
603.9000;0.8832;2.1461;
604.2000;0.8783;2.1390;
604.5000;0.8726;2.1390;
604.8000;0.8645;2.1175;
605.1000;0.8596;2.1032;
605.4000;0.8539;2.0865;
605.7000;0.8474;2.0746;
606.0000;0.8523;2.0913;
606.3000;0.8400;2.0674;
606.6000;0.8368;2.0746;
606.9000;0.8311;2.0603;
607.2000;0.8303;2.0579;
607.5000;0.8189;2.0293;
607.8000;0.8221;2.0460;
608.1000;0.8205;2.0436;
608.4000;0.8173;2.0436;
608.7000;0.8140;2.0460;
609.0000;0.8116;2.0460;
609.3000;0.8083;2.0341;
609.6000;0.8042;2.0221;
609.9000;0.7993;2.0126;
610.2000;0.7953;2.0078;
610.5000;0.7961;2.0174;
610.8000;0.7937;2.0150;
611.1000;0.7896;2.0126;
611.4000;0.7880;2.0102;
611.7000;0.7847;1.9983;
612.0000;0.7814;1.9935;
612.3000;0.7790;1.9911;
612.6000;0.7782;1.9840;
612.9000;0.7766;1.9816;
613.2000;0.7741;1.9768;
613.5000;0.7725;1.9697;
613.8000;0.7700;1.9649;
614.1000;0.7676;1.9673;
614.4000;0.7660;1.9673;
614.7000;0.7643;1.9625;
615.0000;0.7611;1.9625;
615.3000;0.7603;1.9649;
615.6000;0.7578;1.9625;
615.9000;0.7562;1.9697;
616.2000;0.7513;1.9697;
616.5000;0.7513;1.9744;
616.8000;0.7489;1.9673;
617.1000;0.7497;1.9768;
617.4000;0.7481;1.9697;
617.7000;0.7456;1.9625;
618.0000;0.7440;1.9530;
618.3000;0.7432;1.9482;
618.6000;0.7367;1.9291;
618.9000;0.7391;1.9434;
619.2000;0.7391;1.9434;
619.5000;0.7375;1.9458;
619.8000;0.7293;1.9315;
620.1000;0.7342;1.9578;
620.4000;0.7326;1.9673;
620.7000;0.7383;1.9983;
621.0000;0.7310;1.9840;
621.3000;0.7293;1.9816;
621.6000;0.7285;1.9744;
621.9000;0.7269;1.9721;
622.2000;0.7261;1.9649;
622.5000;0.7228;1.9625;
622.8000;0.7220;1.9601;
623.1000;0.7245;1.9697;
623.4000;0.7236;1.9601;
623.7000;0.7204;1.9482;
624.0000;0.7171;1.9387;
624.3000;0.7196;1.9506;
624.6000;0.7171;1.9506;
624.9000;0.7171;1.9434;
625.2000;0.7114;1.9268;
625.5000;0.7139;1.9339;
625.8000;0.7131;1.9387;
626.1000;0.7114;1.9339;
626.4000;0.7090;1.9387;
626.7000;0.7049;1.9291;
627.0000;0.7082;1.9363;
627.3000;0.7098;1.9315;
627.6000;0.7000;1.9029;
627.9000;0.7049;1.9172;
628.2000;0.7049;1.9268;
628.5000;0.7066;1.9387;
628.8000;0.7033;1.9339;
629.1000;0.7017;1.9291;
629.4000;0.7025;1.9363;
629.7000;0.7000;1.9315;
630.0000;0.7000;1.9363;
630.3000;0.6992;1.9387;
630.6000;0.7000;1.9434;
630.9000;0.6984;1.9434;
631.2000;0.6960;1.9387;
631.5000;0.6976;1.9339;
631.8000;0.6960;1.9244;
632.1000;0.6943;1.9196;
632.4000;0.6943;1.9291;
632.7000;0.6927;1.9196;
633.0000;0.6927;1.9291;
633.3000;0.6927;1.9291;
633.6000;0.6919;1.9315;
633.9000;0.6919;1.9291;
634.2000;0.6870;1.9172;
634.5000;0.6895;1.9268;
634.8000;0.6976;1.9506;
635.1000;0.6895;1.9339;
635.4000;0.6870;1.9315;
635.7000;0.6886;1.9339;
636.0000;0.6862;1.9315;
636.3000;0.6854;1.9315;
636.6000;0.6846;1.9339;
636.9000;0.6903;1.9458;
637.2000;0.6838;1.9339;
637.5000;0.6829;1.9363;
637.8000;0.6764;1.9244;
638.1000;0.6805;1.9268;
638.4000;0.6838;1.9411;
638.7000;0.6805;1.9339;
639.0000;0.6797;1.9458;
639.3000;0.6789;1.9482;
639.6000;0.6854;1.9554;
639.9000;0.6781;1.9387;
640.2000;0.6772;1.9363;
640.5000;0.6764;1.9268;
640.8000;0.6724;1.9172;
641.1000;0.6764;1.9268;
641.4000;0.6756;1.9220;
641.7000;0.6740;1.9220;
642.0000;0.6740;1.9220;
642.3000;0.6740;1.9220;
642.6000;0.6732;1.9220;
642.9000;0.6732;1.9172;
643.2000;0.6716;1.9220;
643.5000;0.6716;1.9268;
643.8000;0.6716;1.9363;
644.1000;0.6724;1.9411;
644.4000;0.6707;1.9363;
644.7000;0.6707;1.9363;
645.0000;0.6699;1.9339;
645.3000;0.6707;1.9291;
645.6000;0.6691;1.9268;
645.9000;0.6683;1.9291;
646.2000;0.6683;1.9196;
646.5000;0.6675;1.9101;
646.8000;0.6675;1.9101;
647.1000;0.6650;1.9005;
647.4000;0.6675;1.9172;
647.7000;0.6659;1.9196;
648.0000;0.6642;1.9148;
648.3000;0.6634;1.9196;
648.6000;0.6626;1.9268;
648.9000;0.6634;1.9315;
649.2000;0.6618;1.9339;
649.5000;0.6602;1.9387;
649.8000;0.6634;1.9482;
650.1000;0.6634;1.9506;
650.4000;0.6577;1.9387;
650.7000;0.6593;1.9482;
651.0000;0.6593;1.9434;
651.3000;0.6610;1.9434;
651.6000;0.6593;1.9411;
651.9000;0.6577;1.9411;
652.2000;0.6577;1.9339;
652.5000;0.6585;1.9339;
652.8000;0.6577;1.9339;
653.1000;0.6553;1.9268;
653.4000;0.6561;1.9339;
653.7000;0.6569;1.9291;
654.0000;0.6569;1.9172;
654.3000;0.6569;1.9220;
654.6000;0.6553;1.9220;
654.9000;0.6561;1.9291;
655.2000;0.6577;1.9363;
655.5000;0.6553;1.9363;
655.8000;0.6536;1.9339;
656.1000;0.6536;1.9291;
656.4000;0.6545;1.9315;
656.7000;0.6536;1.9411;
657.0000;0.6561;1.9530;
657.3000;0.6455;1.9291;
657.6000;0.6504;1.9411;
657.9000;0.6569;1.9554;
658.2000;0.6496;1.9411;
658.5000;0.6455;1.9387;
658.8000;0.6561;1.9721;
659.1000;0.6512;1.9530;
659.4000;0.6479;1.9506;
659.7000;0.6504;1.9434;
660.0000;0.6479;1.9458;
660.3000;0.6504;1.9458;
660.6000;0.6479;1.9339;
660.9000;0.6422;1.9148;
661.2000;0.6488;1.9315;
661.5000;0.6455;1.9220;
661.8000;0.6471;1.9172;
662.1000;0.6455;1.9196;
662.4000;0.6496;1.9268;
662.7000;0.6463;1.9268;
663.0000;0.6439;1.9315;
663.3000;0.6455;1.9363;
663.6000;0.6447;1.9339;
663.9000;0.6447;1.9387;
664.2000;0.6447;1.9434;
664.5000;0.6439;1.9458;
664.8000;0.6431;1.9387;
665.1000;0.6439;1.9387;
665.4000;0.6439;1.9411;
665.7000;0.6439;1.9411;
666.0000;0.6422;1.9411;
666.3000;0.6431;1.9458;
666.6000;0.6439;1.9434;
666.9000;0.6431;1.9387;
667.2000;0.6398;1.9387;
667.5000;0.6414;1.9411;
667.8000;0.6406;1.9387;
668.1000;0.6406;1.9339;
668.4000;0.6406;1.9315;
668.7000;0.6374;1.9268;
669.0000;0.6447;1.9434;
669.3000;0.6390;1.9339;
669.6000;0.6382;1.9315;
669.9000;0.6390;1.9291;
670.2000;0.6398;1.9363;
670.5000;0.6390;1.9387;
670.8000;0.6365;1.9315;
671.1000;0.6382;1.9387;
671.4000;0.6374;1.9387;
671.7000;0.6374;1.9387;
672.0000;0.6382;1.9411;
672.3000;0.6357;1.9363;
672.6000;0.6349;1.9363;
672.9000;0.6357;1.9434;
673.2000;0.6398;1.9578;
673.5000;0.6341;1.9411;
673.8000;0.6357;1.9506;
674.1000;0.6341;1.9458;
674.4000;0.6414;1.9673;
674.7000;0.6333;1.9530;
675.0000;0.6341;1.9601;
675.3000;0.6341;1.9530;
675.6000;0.6341;1.9601;
675.9000;0.6341;1.9625;
676.2000;0.6325;1.9530;
676.5000;0.6333;1.9482;
676.8000;0.6317;1.9458;
677.1000;0.6349;1.9530;
677.4000;0.6325;1.9387;
677.7000;0.6292;1.9268;
678.0000;0.6309;1.9387;
678.3000;0.6317;1.9387;
678.6000;0.6317;1.9339;
678.9000;0.6333;1.9387;
679.2000;0.6276;1.9315;
679.5000;0.6300;1.9363;
679.8000;0.6292;1.9315;
680.1000;0.6252;1.9268;
680.4000;0.6284;1.9411;
680.7000;0.6300;1.9482;
681.0000;0.6276;1.9411;
681.3000;0.6292;1.9411;
681.6000;0.6276;1.9291;
681.9000;0.6333;1.9434;
682.2000;0.6260;1.9363;
682.5000;0.6260;1.9339;
682.8000;0.6243;1.9387;
683.1000;0.6243;1.9458;
683.4000;0.6252;1.9482;
683.7000;0.6227;1.9291;
684.0000;0.6252;1.9363;
684.3000;0.6252;1.9363;
684.6000;0.6260;1.9339;
684.9000;0.6309;1.9434;
685.2000;0.6243;1.9268;
685.5000;0.6260;1.9339;
685.8000;0.6252;1.9387;
686.1000;0.6235;1.9387;
686.4000;0.6292;1.9578;
686.7000;0.6219;1.9434;
687.0000;0.6243;1.9458;
687.3000;0.6243;1.9411;
687.6000;0.6227;1.9363;
687.9000;0.6227;1.9387;
688.2000;0.6252;1.9458;
688.5000;0.6243;1.9411;
688.8000;0.6211;1.9315;
689.1000;0.6211;1.9339;
689.4000;0.6211;1.9339;
689.7000;0.6211;1.9387;
690.0000;0.6227;1.9530;
690.3000;0.6178;1.9506;
690.6000;0.6203;1.9578;
690.9000;0.6227;1.9649;
691.2000;0.6203;1.9625;
691.5000;0.6195;1.9554;
691.8000;0.6186;1.9482;
692.1000;0.6203;1.9434;
692.4000;0.6195;1.9387;
692.7000;0.6195;1.9411;
693.0000;0.6211;1.9482;
693.3000;0.6162;1.9387;
693.6000;0.6203;1.9411;
693.9000;0.6195;1.9363;
694.2000;0.6154;1.9220;
694.5000;0.6186;1.9339;
694.8000;0.6186;1.9315;
695.1000;0.6170;1.9172;
695.4000;0.6162;1.9172;
695.7000;0.6178;1.9315;
696.0000;0.6178;1.9315;
696.3000;0.6162;1.9291;
696.6000;0.6146;1.9244;
696.9000;0.6162;1.9315;
697.2000;0.6162;1.9363;
697.5000;0.6170;1.9387;
697.8000;0.6089;1.9268;
698.1000;0.6146;1.9387;
698.4000;0.6170;1.9458;
698.7000;0.6121;1.9458;
699.0000;0.6162;1.9506;
699.3000;0.6162;1.9482;
699.6000;0.6154;1.9506;
699.9000;0.6146;1.9387;
700.2000;0.6154;1.9315;
700.5000;0.6146;1.9387;
700.8000;0.6138;1.9411;
701.1000;0.6154;1.9482;
701.4000;0.6146;1.9387;
701.7000;0.6138;1.9387;
702.0000;0.6138;1.9387;
702.3000;0.6113;1.9220;
702.6000;0.6129;1.9268;
702.9000;0.6129;1.9315;
703.2000;0.6097;1.9339;
703.5000;0.6121;1.9339;
703.8000;0.6121;1.9268;
704.1000;0.6105;1.9363;
704.4000;0.6138;1.9411;
704.7000;0.6105;1.9339;
705.0000;0.6129;1.9458;
705.3000;0.6113;1.9411;
705.6000;0.6081;1.9268;
705.9000;0.6113;1.9434;
706.2000;0.6113;1.9411;
706.5000;0.6121;1.9411;
706.8000;0.6097;1.9315;
707.1000;0.6097;1.9291;
707.4000;0.6113;1.9363;
707.7000;0.6113;1.9434;
708.0000;0.6105;1.9387;
708.3000;0.6089;1.9411;
708.6000;0.6089;1.9434;
708.9000;0.6097;1.9482;
709.2000;0.6081;1.9458;
709.5000;0.6097;1.9411;
709.8000;0.6089;1.9387;
710.1000;0.6105;1.9339;
710.4000;0.6072;1.9315;
710.7000;0.6072;1.9315;
711.0000;0.6089;1.9339;
711.3000;0.6089;1.9387;
711.6000;0.6105;1.9458;
711.9000;0.6072;1.9482;
712.2000;0.6089;1.9578;
712.5000;0.6072;1.9601;
712.8000;0.6081;1.9578;
713.1000;0.6081;1.9482;
713.4000;0.6064;1.9482;
713.7000;0.6056;1.9506;
714.0000;0.6081;1.9554;
714.3000;0.6072;1.9530;
714.6000;0.6064;1.9601;
714.9000;0.6056;1.9673;
715.2000;0.6089;1.9792;
715.5000;0.6072;1.9721;
715.8000;0.6056;1.9721;
716.1000;0.6081;1.9768;
716.4000;0.6056;1.9768;
716.7000;0.6048;1.9673;
717.0000;0.6040;1.9625;
717.3000;0.6056;1.9673;
717.6000;0.6072;1.9744;
717.9000;0.6056;1.9721;
718.2000;0.6040;1.9697;
718.5000;0.6089;1.9768;
718.8000;0.6048;1.9697;
719.1000;0.6072;1.9721;
719.4000;0.6015;1.9649;
719.7000;0.6056;1.9792;
720.0000;0.6024;1.9792;
720.3000;0.6048;1.9768;
720.6000;0.5999;1.9673;
720.9000;0.6056;1.9744;
721.2000;0.6007;1.9625;
721.5000;0.6056;1.9792;
721.8000;0.6040;1.9768;
722.1000;0.6024;1.9721;
722.4000;0.6072;1.9888;
722.7000;0.6040;1.9721;
723.0000;0.6040;1.9649;
723.3000;0.6007;1.9554;
723.6000;0.6007;1.9554;
723.9000;0.6032;1.9649;
724.2000;0.6032;1.9625;
724.5000;0.5999;1.9601;
724.8000;0.6040;1.9697;
725.1000;0.6015;1.9673;
725.4000;0.6015;1.9578;
725.7000;0.6007;1.9482;
726.0000;0.6007;1.9482;
726.3000;0.6015;1.9482;
726.6000;0.6007;1.9434;
726.9000;0.6007;1.9458;
727.2000;0.5950;1.9315;
727.5000;0.5999;1.9458;
727.8000;0.6015;1.9482;
728.1000;0.6015;1.9601;
728.4000;0.5991;1.9530;
728.7000;0.5999;1.9530;
729.0000;0.5991;1.9530;
729.3000;0.5999;1.9601;
729.6000;0.5999;1.9578;
729.9000;0.5991;1.9601;
730.2000;0.5983;1.9625;
730.5000;0.5999;1.9697;
730.8000;0.5983;1.9673;
731.1000;0.5991;1.9625;
731.4000;0.5983;1.9649;
731.7000;0.6007;1.9697;
732.0000;0.5999;1.9649;
732.3000;0.5991;1.9554;
732.6000;0.5991;1.9601;
732.9000;0.5999;1.9625;
733.2000;0.5999;1.9578;
733.5000;0.5975;1.9482;
733.8000;0.5975;1.9530;
734.1000;0.5967;1.9530;
734.4000;0.5983;1.9578;
734.7000;0.5967;1.9530;
735.0000;0.5983;1.9458;
735.3000;0.5967;1.9411;
735.6000;0.5950;1.9387;
735.9000;0.5975;1.9482;
736.2000;0.5967;1.9411;
736.5000;0.5967;1.9387;
736.8000;0.5975;1.9315;
737.1000;0.5958;1.9315;
737.4000;0.5958;1.9339;
737.7000;0.5918;1.9315;
738.0000;0.5958;1.9434;
738.3000;0.5967;1.9506;
738.6000;0.5942;1.9458;
738.9000;0.5967;1.9387;
739.2000;0.5934;1.9339;
739.5000;0.5950;1.9387;
739.8000;0.5958;1.9482;
740.1000;0.5934;1.9411;
740.4000;0.5942;1.9363;
740.7000;0.5942;1.9363;
741.0000;0.5942;1.9268;
741.3000;0.5942;1.9268;
741.6000;0.5942;1.9363;
741.9000;0.5950;1.9339;
742.2000;0.5942;1.9291;
742.5000;0.5975;1.9363;
742.8000;0.5967;1.9339;
743.1000;0.5999;1.9506;
743.4000;0.5958;1.9411;
743.7000;0.5934;1.9315;
744.0000;0.5950;1.9315;
744.3000;0.5983;1.9291;
744.6000;0.5958;1.9291;
744.9000;0.5950;1.9244;
745.2000;0.5950;1.9363;
745.5000;0.5942;1.9482;
745.8000;0.5918;1.9458;
746.1000;0.5926;1.9434;
746.4000;0.5942;1.9482;
746.7000;0.5918;1.9482;
747.0000;0.5934;1.9578;
747.3000;0.5934;1.9530;
747.6000;0.5934;1.9482;
747.9000;0.5918;1.9530;
748.2000;0.5950;1.9625;
748.5000;0.5942;1.9601;
748.8000;0.5926;1.9554;
749.1000;0.5910;1.9554;
749.4000;0.5934;1.9625;
749.7000;0.5918;1.9578;
750.0000;0.5910;1.9530;
750.3000;0.5893;1.9578;
750.6000;0.5910;1.9697;
750.9000;0.5918;1.9721;
751.2000;0.5861;1.9578;
751.5000;0.5918;1.9673;
751.8000;0.5934;1.9744;
752.1000;0.5934;1.9673;
752.4000;0.5910;1.9697;
752.7000;0.5910;1.9673;
753.0000;0.5918;1.9649;
753.3000;0.5918;1.9649;
753.6000;0.5942;1.9721;
753.9000;0.5877;1.9482;
754.2000;0.5910;1.9625;
754.5000;0.5926;1.9673;
754.8000;0.5910;1.9578;
755.1000;0.5902;1.9578;
755.4000;0.5836;1.9387;
755.7000;0.5902;1.9506;
756.0000;0.5910;1.9554;
756.3000;0.5918;1.9530;
756.6000;0.5902;1.9506;
756.9000;0.5926;1.9673;
757.2000;0.5910;1.9530;
757.5000;0.5902;1.9554;
757.8000;0.5926;1.9625;
758.1000;0.5877;1.9530;
758.4000;0.5902;1.9601;
758.7000;0.5885;1.9697;
759.0000;0.5877;1.9721;
759.3000;0.5885;1.9673;
759.6000;0.5885;1.9673;
759.9000;0.5902;1.9673;
760.2000;0.5877;1.9578;
760.5000;0.5877;1.9554;
760.8000;0.5877;1.9554;
761.1000;0.5893;1.9649;
761.4000;0.5902;1.9649;
761.7000;0.5893;1.9649;
762.0000;0.5893;1.9673;
762.3000;0.5902;1.9697;
762.6000;0.5902;1.9625;
762.9000;0.5885;1.9625;
763.2000;0.5877;1.9578;
763.5000;0.5885;1.9578;
763.8000;0.5877;1.9506;
764.1000;0.5885;1.9578;
764.4000;0.5885;1.9625;
764.7000;0.5877;1.9578;
765.0000;0.5877;1.9578;
765.3000;0.5885;1.9601;
765.6000;0.5861;1.9506;
765.9000;0.5861;1.9506;
766.2000;0.5861;1.9601;
766.5000;0.5885;1.9649;
766.8000;0.5869;1.9649;
767.1000;0.5861;1.9625;
767.4000;0.5885;1.9649;
767.7000;0.5861;1.9625;
768.0000;0.5853;1.9554;
768.3000;0.5853;1.9554;
768.6000;0.5853;1.9578;
768.9000;0.5828;1.9554;
769.2000;0.5902;1.9744;
769.5000;0.5812;1.9434;
769.8000;0.5861;1.9554;
770.1000;0.5853;1.9458;
770.4000;0.5828;1.9411;
770.7000;0.5828;1.9434;
771.0000;0.5869;1.9458;
771.3000;0.5853;1.9554;
771.6000;0.5869;1.9673;
771.9000;0.5845;1.9625;
772.2000;0.5861;1.9673;
772.5000;0.5861;1.9649;
772.8000;0.5845;1.9601;
773.1000;0.5877;1.9697;
773.4000;0.5845;1.9673;
773.7000;0.5861;1.9697;
774.0000;0.5885;1.9744;
774.3000;0.5918;1.9792;
774.6000;0.5861;1.9673;
774.9000;0.5836;1.9673;
775.2000;0.5845;1.9649;
775.5000;0.5804;1.9601;
775.8000;0.5820;1.9721;
776.1000;0.5836;1.9697;
776.4000;0.5853;1.9649;
776.7000;0.5845;1.9649;
777.0000;0.5804;1.9506;
777.3000;0.5836;1.9554;
777.6000;0.5861;1.9625;
777.9000;0.5861;1.9697;
778.2000;0.5836;1.9649;
778.5000;0.5804;1.9554;
778.8000;0.5853;1.9768;
779.1000;0.5828;1.9601;
779.4000;0.5836;1.9601;
779.7000;0.5820;1.9578;
780.0000;0.5836;1.9649;
780.3000;0.5836;1.9673;
780.6000;0.5836;1.9697;
780.9000;0.5869;1.9911;
781.2000;0.5836;1.9816;
781.5000;0.5836;1.9768;
781.8000;0.5820;1.9721;
782.1000;0.5820;1.9792;
782.4000;0.5820;1.9864;
782.7000;0.5845;1.9816;
783.0000;0.5845;1.9864;
783.3000;0.5828;1.9792;
783.6000;0.5845;1.9816;
783.9000;0.5828;1.9768;
784.2000;0.5828;1.9721;
784.5000;0.5820;1.9697;
784.8000;0.5828;1.9721;
785.1000;0.5812;1.9697;
785.4000;0.5820;1.9649;
785.7000;0.5812;1.9601;
786.0000;0.5788;1.9530;
786.3000;0.5820;1.9625;
786.6000;0.5804;1.9506;
786.9000;0.5812;1.9601;
787.2000;0.5804;1.9601;
787.5000;0.5779;1.9506;
787.8000;0.5804;1.9578;
788.1000;0.5820;1.9673;
788.4000;0.5812;1.9673;
788.7000;0.5804;1.9721;
789.0000;0.5788;1.9816;
789.3000;0.5812;1.9864;
789.6000;0.5796;1.9697;
789.9000;0.5812;1.9721;
790.2000;0.5820;1.9744;
790.5000;0.5779;1.9649;
790.8000;0.5812;1.9721;
791.1000;0.5788;1.9673;
791.4000;0.5804;1.9768;
791.7000;0.5788;1.9721;
792.0000;0.5820;1.9768;
792.3000;0.5836;1.9768;
792.6000;0.5804;1.9649;
792.9000;0.5779;1.9625;
793.2000;0.5812;1.9697;
793.5000;0.5796;1.9792;
793.8000;0.5796;1.9697;
794.1000;0.5836;1.9721;
794.4000;0.5796;1.9649;
794.7000;0.5779;1.9554;
795.0000;0.5779;1.9578;
795.3000;0.5804;1.9601;
795.6000;0.5796;1.9625;
795.9000;0.5820;1.9721;
796.2000;0.5796;1.9673;
796.5000;0.5796;1.9768;
796.8000;0.5804;1.9816;
797.1000;0.5796;1.9816;
797.4000;0.5796;1.9792;
797.7000;0.5788;1.9744;
798.0000;0.5820;1.9744;
798.3000;0.5828;1.9888;
798.6000;0.5812;1.9768;
798.9000;0.5836;1.9816;
799.2000;0.5804;1.9721;
799.5000;0.5796;1.9697;
799.8000;0.5796;1.9721;
800.1000;0.5788;1.9744;
800.4000;0.5796;1.9697;
800.7000;0.5755;1.9554;
801.0000;0.5796;1.9697;
801.3000;0.5796;1.9649;
801.6000;0.5796;1.9697;
801.9000;0.5788;1.9649;
802.2000;0.5788;1.9697;
802.5000;0.5771;1.9673;
802.8000;0.5788;1.9697;
803.1000;0.5804;1.9744;
803.4000;0.5796;1.9721;
803.7000;0.5796;1.9792;
804.0000;0.5779;1.9721;
804.3000;0.5788;1.9744;
804.6000;0.5804;1.9768;
804.9000;0.5796;1.9625;
805.2000;0.5779;1.9554;
805.5000;0.5796;1.9578;
805.8000;0.5779;1.9601;
806.1000;0.5788;1.9649;
806.4000;0.5804;1.9697;
806.7000;0.5779;1.9625;
807.0000;0.5788;1.9673;
807.3000;0.5779;1.9649;
807.6000;0.5763;1.9530;
807.9000;0.5771;1.9625;
808.2000;0.5796;1.9601;
808.5000;0.5788;1.9601;
808.8000;0.5779;1.9530;
809.1000;0.5763;1.9601;
809.4000;0.5796;1.9768;
809.7000;0.5796;1.9649;
810.0000;0.5779;1.9601;
810.3000;0.5796;1.9673;
810.6000;0.5779;1.9625;
810.9000;0.5771;1.9625;
811.2000;0.5763;1.9649;
811.5000;0.5739;1.9506;
811.8000;0.5755;1.9578;
812.1000;0.5755;1.9578;
812.4000;0.5771;1.9530;
812.7000;0.5763;1.9506;
813.0000;0.5755;1.9601;
813.3000;0.5788;1.9601;
813.6000;0.5779;1.9697;
813.9000;0.5771;1.9744;
814.2000;0.5771;1.9792;
814.5000;0.5698;1.9721;
814.8000;0.5771;1.9816;
815.1000;0.5747;1.9792;
815.4000;0.5714;1.9697;
815.7000;0.5763;1.9840;
816.0000;0.5755;1.9792;
816.3000;0.5739;1.9721;
816.6000;0.5747;1.9768;
816.9000;0.5747;1.9768;
817.2000;0.5755;1.9721;
817.5000;0.5739;1.9649;
817.8000;0.5739;1.9673;
818.1000;0.5747;1.9768;
818.4000;0.5771;1.9840;
818.7000;0.5731;1.9768;
819.0000;0.5763;1.9864;
819.3000;0.5747;1.9864;
819.6000;0.5755;1.9864;
819.9000;0.5763;1.9816;
820.2000;0.5836;1.9911;
820.5000;0.5747;1.9673;
820.8000;0.5747;1.9721;
821.1000;0.5788;1.9888;
821.4000;0.5739;1.9744;
821.7000;0.5747;1.9744;
822.0000;0.5755;1.9840;
822.3000;0.5755;1.9840;
822.6000;0.5755;1.9840;
822.9000;0.5739;1.9816;
823.2000;0.5731;1.9768;
823.5000;0.5722;1.9744;
823.8000;0.5731;1.9792;
824.1000;0.5731;1.9816;
824.4000;0.5739;1.9864;
824.7000;0.5739;1.9864;
825.0000;0.5747;1.9840;
825.3000;0.5747;1.9864;
825.6000;0.5739;1.9911;
825.9000;0.5739;1.9935;
826.2000;0.5755;1.9864;
826.5000;0.5739;1.9888;
826.8000;0.5731;1.9816;
827.1000;0.5739;1.9840;
827.4000;0.5739;1.9911;
827.7000;0.5739;1.9888;
828.0000;0.5722;1.9864;
828.3000;0.5731;1.9864;
828.6000;0.5722;1.9864;
828.9000;0.5755;1.9864;
829.2000;0.5731;1.9816;
829.5000;0.5722;1.9721;
829.8000;0.5747;1.9792;
830.1000;0.5747;1.9888;
830.4000;0.5747;1.9864;
830.7000;0.5706;1.9721;
831.0000;0.5731;1.9816;
831.3000;0.5731;1.9864;
831.6000;0.5731;1.9864;
831.9000;0.5739;1.9911;
832.2000;0.5722;1.9840;
832.5000;0.5690;1.9721;
832.8000;0.5731;1.9864;
833.1000;0.5747;1.9816;
833.4000;0.5714;1.9721;
833.7000;0.5731;1.9744;
834.0000;0.5706;1.9530;
834.3000;0.5722;1.9506;
834.6000;0.5739;1.9554;
834.9000;0.5731;1.9578;
835.2000;0.5706;1.9649;
835.5000;0.5739;1.9721;
835.8000;0.5731;1.9697;
836.1000;0.5698;1.9697;
836.4000;0.5722;1.9792;
836.7000;0.5722;1.9864;
837.0000;0.5722;1.9864;
837.3000;0.5698;1.9792;
837.6000;0.5722;1.9840;
837.9000;0.5714;1.9816;
838.2000;0.5714;1.9816;
838.5000;0.5714;1.9840;
838.8000;0.5731;1.9816;
839.1000;0.5779;1.9840;
839.4000;0.5731;1.9768;
839.7000;0.5706;1.9697;
840.0000;0.5722;1.9768;
840.3000;0.5731;1.9816;
840.6000;0.5779;2.0007;
840.9000;0.5714;1.9792;
841.2000;0.5731;1.9840;
841.5000;0.5706;1.9888;
841.8000;0.5722;1.9911;
842.1000;0.5722;1.9911;
842.4000;0.5722;1.9935;
842.7000;0.5731;1.9935;
843.0000;0.5698;1.9911;
843.3000;0.5796;2.0054;
843.6000;0.5714;1.9840;
843.9000;0.5731;1.9864;
844.2000;0.5747;1.9911;
844.5000;0.5714;1.9888;
844.8000;0.5706;1.9888;
845.1000;0.5665;1.9768;
845.4000;0.5722;1.9840;
845.7000;0.5665;1.9721;
846.0000;0.5706;1.9744;
846.3000;0.5706;1.9816;
846.6000;0.5706;1.9744;
846.9000;0.5698;1.9673;
847.2000;0.5722;1.9673;
847.5000;0.5690;1.9601;
847.8000;0.5690;1.9601;
848.1000;0.5722;1.9649;
848.4000;0.5698;1.9601;
848.7000;0.5714;1.9792;
849.0000;0.5706;1.9840;
849.3000;0.5731;1.9864;
849.6000;0.5714;1.9768;
849.9000;0.5698;1.9721;
850.2000;0.5714;1.9744;
850.5000;0.5714;1.9768;
850.8000;0.5714;1.9768;
851.1000;0.5714;1.9697;
851.4000;0.5714;1.9744;
851.7000;0.5706;1.9649;
852.0000;0.5698;1.9697;
852.3000;0.5714;1.9744;
852.6000;0.5698;1.9744;
852.9000;0.5698;1.9744;
853.2000;0.5722;1.9721;
853.5000;0.5698;1.9697;
853.8000;0.5706;1.9673;
854.1000;0.5706;1.9673;
854.4000;0.5731;1.9744;
854.7000;0.5722;1.9673;
855.0000;0.5722;1.9673;
855.3000;0.5706;1.9721;
855.6000;0.5714;1.9768;
855.9000;0.5755;1.9911;
856.2000;0.5706;1.9768;
856.5000;0.5714;1.9792;
856.8000;0.5722;1.9792;
857.1000;0.5714;1.9768;
857.4000;0.5706;1.9840;
857.7000;0.5690;1.9864;
858.0000;0.5706;1.9935;
858.3000;0.5731;1.9911;
858.6000;0.5698;1.9888;
858.9000;0.5682;1.9888;
859.2000;0.5690;1.9935;
859.5000;0.5682;2.0007;
859.8000;0.5674;1.9959;
860.1000;0.5682;1.9959;
860.4000;0.5690;1.9935;
860.7000;0.5706;2.0031;
861.0000;0.5649;1.9816;
861.3000;0.5682;1.9935;
861.6000;0.5682;1.9911;
861.9000;0.5690;1.9816;
862.2000;0.5690;1.9816;
862.5000;0.5674;1.9744;
862.8000;0.5657;1.9673;
863.1000;0.5682;1.9697;
863.4000;0.5649;1.9554;
863.7000;0.5682;1.9673;
864.0000;0.5682;1.9697;
864.3000;0.5682;1.9721;
864.6000;0.5682;1.9744;
864.9000;0.5698;1.9697;
865.2000;0.5706;1.9744;
865.5000;0.5682;1.9721;
865.8000;0.5690;1.9792;
866.1000;0.5674;1.9744;
866.4000;0.5682;1.9792;
866.7000;0.5698;1.9744;
867.0000;0.5682;1.9721;
867.3000;0.5698;1.9673;
867.6000;0.5674;1.9649;
867.9000;0.5690;1.9649;
868.2000;0.5690;1.9697;
868.5000;0.5682;1.9744;
868.8000;0.5747;1.9935;
869.1000;0.5731;1.9864;
869.4000;0.5690;1.9697;
869.7000;0.5690;1.9673;
870.0000;0.5690;1.9721;
870.3000;0.5690;1.9697;
870.6000;0.5714;1.9721;
870.9000;0.5682;1.9768;
871.2000;0.5690;1.9840;
871.5000;0.5706;1.9864;
871.8000;0.5674;1.9840;
872.1000;0.5682;1.9888;
872.4000;0.5682;1.9911;
872.7000;0.5665;1.9983;
873.0000;0.5665;2.0054;
873.3000;0.5690;2.0007;
873.6000;0.5674;1.9888;
873.9000;0.5714;1.9935;
874.2000;0.5665;1.9840;
874.5000;0.5682;1.9911;
874.8000;0.5665;1.9935;
875.1000;0.5674;1.9983;
875.4000;0.5739;2.0126;
875.7000;0.5657;1.9888;
876.0000;0.5674;1.9840;
876.3000;0.5674;1.9935;
876.6000;0.5674;1.9888;
876.9000;0.5665;1.9864;
877.2000;0.5690;1.9959;
877.5000;0.5665;1.9935;
877.8000;0.5665;1.9983;
878.1000;0.5682;1.9983;
878.4000;0.5682;2.0054;
878.7000;0.5665;1.9935;
879.0000;0.5690;1.9888;
879.3000;0.5682;1.9888;
879.6000;0.5698;1.9959;
879.9000;0.5682;1.9840;
880.2000;0.5690;1.9744;
880.5000;0.5665;1.9744;
880.8000;0.5674;1.9673;
881.1000;0.5665;1.9673;
881.4000;0.5674;1.9721;
881.7000;0.5682;1.9721;
882.0000;0.5682;1.9697;
882.3000;0.5665;1.9601;
882.6000;0.5690;1.9649;
882.9000;0.5674;1.9673;
883.2000;0.5665;1.9744;
883.5000;0.5682;1.9721;
883.8000;0.5674;1.9625;
884.1000;0.5665;1.9625;
884.4000;0.5665;1.9721;
884.7000;0.5625;1.9649;
885.0000;0.5674;1.9816;
885.3000;0.5665;1.9816;
885.6000;0.5682;1.9840;
885.9000;0.5657;1.9816;
886.2000;0.5665;1.9935;
886.5000;0.5665;1.9864;
886.8000;0.5649;1.9864;
887.1000;0.5674;2.0007;
887.4000;0.5649;1.9935;
887.7000;0.5617;1.9816;
888.0000;0.5665;1.9935;
888.3000;0.5649;1.9935;
888.6000;0.5665;2.0007;
888.9000;0.5674;2.0054;
889.2000;0.5665;1.9983;
889.5000;0.5608;1.9744;
889.8000;0.5657;1.9840;
890.1000;0.5600;1.9721;
890.4000;0.5657;1.9959;
890.7000;0.5633;1.9983;
891.0000;0.5665;1.9983;
891.3000;0.5665;1.9935;
891.6000;0.5674;1.9888;
891.9000;0.5665;1.9888;
892.2000;0.5665;1.9911;
892.5000;0.5649;1.9911;
892.8000;0.5649;1.9935;
893.1000;0.5649;1.9888;
893.4000;0.5665;1.9816;
893.7000;0.5641;1.9768;
894.0000;0.5649;1.9744;
894.3000;0.5649;1.9744;
894.6000;0.5641;1.9649;
894.9000;0.5665;1.9673;
895.2000;0.5649;1.9744;
895.5000;0.5657;1.9792;
895.8000;0.5657;1.9744;
896.1000;0.5657;1.9768;
896.4000;0.5657;1.9864;
896.7000;0.5657;1.9864;
897.0000;0.5665;1.9888;
897.3000;0.5649;1.9816;
897.6000;0.5657;1.9911;
897.9000;0.5649;1.9888;
898.2000;0.5625;1.9816;
898.5000;0.5649;1.9768;
898.8000;0.5625;1.9697;
899.1000;0.5649;1.9816;
899.4000;0.5649;1.9840;
899.7000;0.5657;1.9935;
900.0000;0.5649;2.0007;
900.3000;0.5657;2.0007;
900.6000;0.5657;2.0007;
900.9000;0.5617;1.9935;
901.2000;0.5657;1.9888;
901.5000;0.5633;1.9816;
901.8000;0.5633;1.9840;
902.1000;0.5649;1.9792;
902.4000;0.5649;1.9768;
902.7000;0.5649;1.9768;
903.0000;0.5649;1.9792;
903.3000;0.5641;1.9721;
903.6000;0.5625;1.9625;
903.9000;0.5633;1.9649;
904.2000;0.5649;1.9768;
904.5000;0.5617;1.9721;
904.8000;0.5633;1.9792;
905.1000;0.5665;1.9816;
905.4000;0.5665;1.9840;
905.7000;0.5649;1.9768;
906.0000;0.5649;1.9840;
906.3000;0.5641;1.9744;
906.6000;0.5657;1.9792;
906.9000;0.5698;1.9792;
907.2000;0.5649;1.9744;
907.5000;0.5649;1.9697;
907.8000;0.5649;1.9792;
908.1000;0.5641;1.9840;
908.4000;0.5649;1.9888;
908.7000;0.5649;1.9983;
909.0000;0.5617;1.9911;
909.3000;0.5657;1.9935;
909.6000;0.5633;1.9864;
909.9000;0.5674;1.9864;
910.2000;0.5731;2.0054;
910.5000;0.5665;1.9959;
910.8000;0.5665;1.9935;
911.1000;0.5682;1.9959;
911.4000;0.5641;1.9911;
911.7000;0.5657;1.9888;
912.0000;0.5641;1.9911;
912.3000;0.5633;1.9983;
912.6000;0.5625;2.0007;
912.9000;0.5641;2.0007;
913.2000;0.5617;1.9983;
913.5000;0.5633;2.0102;
913.8000;0.5649;2.0031;
914.1000;0.5625;1.9888;
914.4000;0.5641;1.9864;
914.7000;0.5641;1.9816;
915.0000;0.5633;1.9744;
915.3000;0.5625;1.9840;
915.6000;0.5617;1.9840;
915.9000;0.5625;1.9864;
916.2000;0.5625;1.9911;
916.5000;0.5641;1.9911;
916.8000;0.5641;1.9983;
917.1000;0.5633;1.9911;
917.4000;0.5617;1.9888;
917.7000;0.5625;1.9911;
918.0000;0.5633;1.9911;
918.3000;0.5649;1.9959;
918.6000;0.5625;1.9935;
918.9000;0.5584;1.9840;
919.2000;0.5617;1.9935;
919.5000;0.5608;1.9911;
919.8000;0.5600;1.9935;
920.1000;0.5617;1.9959;
920.4000;0.5625;1.9888;
920.7000;0.5633;1.9911;
921.0000;0.5657;1.9959;
921.3000;0.5641;1.9911;
921.6000;0.5625;1.9935;
921.9000;0.5608;1.9983;
922.2000;0.5633;2.0054;
922.5000;0.5625;1.9959;
922.8000;0.5625;1.9983;
923.1000;0.5625;2.0054;
923.4000;0.5690;2.0150;
923.7000;0.5625;2.0007;
924.0000;0.5633;1.9959;
924.3000;0.5617;1.9959;
924.6000;0.5633;1.9959;
924.9000;0.5633;1.9911;
925.2000;0.5617;1.9911;
925.5000;0.5625;1.9959;
925.8000;0.5641;2.0031;
926.1000;0.5625;2.0007;
926.4000;0.5641;2.0031;
926.7000;0.5625;1.9983;
927.0000;0.5665;2.0031;
927.3000;0.5625;1.9935;
927.6000;0.5617;1.9935;
927.9000;0.5584;1.9816;
928.2000;0.5665;2.0078;
928.5000;0.5608;1.9983;
928.8000;0.5617;1.9935;
929.1000;0.5608;1.9816;
929.4000;0.5608;1.9768;
929.7000;0.5633;1.9768;
930.0000;0.5592;1.9673;
930.3000;0.5625;1.9768;
930.6000;0.5657;1.9935;
930.9000;0.5625;1.9935;
931.2000;0.5625;1.9888;
931.5000;0.5633;1.9935;
931.8000;0.5608;2.0007;
932.1000;0.5633;1.9983;
932.4000;0.5633;1.9959;
932.7000;0.5617;1.9911;
933.0000;0.5608;1.9935;
933.3000;0.5608;1.9983;
933.6000;0.5617;2.0031;
933.9000;0.5625;2.0150;
934.2000;0.5600;2.0031;
934.5000;0.5625;2.0031;
934.8000;0.5608;1.9959;
935.1000;0.5649;2.0054;
935.4000;0.5617;1.9888;
935.7000;0.5617;1.9959;
936.0000;0.5625;1.9935;
936.3000;0.5625;1.9911;
936.6000;0.5625;2.0031;
936.9000;0.5633;2.0198;
937.2000;0.5641;2.0245;
937.5000;0.5625;2.0245;
937.8000;0.5625;2.0245;
938.1000;0.5576;2.0102;
938.4000;0.5633;2.0198;
938.7000;0.5633;2.0245;
939.0000;0.5617;2.0269;
939.3000;0.5617;2.0317;
939.6000;0.5625;2.0293;
939.9000;0.5617;2.0221;
940.2000;0.5608;2.0102;
940.5000;0.5608;2.0126;
940.8000;0.5608;2.0078;
941.1000;0.5592;1.9959;
941.4000;0.5633;2.0102;
941.7000;0.5592;1.9959;
942.0000;0.5592;2.0078;
942.3000;0.5617;2.0007;
942.6000;0.5633;2.0102;
942.9000;0.5584;2.0078;
943.2000;0.5617;2.0078;
943.5000;0.5633;2.0102;
943.8000;0.5608;1.9983;
944.1000;0.5600;1.9935;
944.4000;0.5600;1.9983;
944.7000;0.5600;2.0054;
945.0000;0.5600;2.0102;
945.3000;0.5617;2.0126;
945.6000;0.5608;2.0054;
945.9000;0.5608;2.0102;
946.2000;0.5625;2.0102;
946.5000;0.5608;2.0007;
946.8000;0.5625;2.0078;
947.1000;0.5625;2.0031;
947.4000;0.5617;2.0031;
947.7000;0.5641;2.0102;
948.0000;0.5608;2.0054;
948.3000;0.5625;2.0054;
948.6000;0.5625;2.0078;
948.9000;0.5625;2.0078;
949.2000;0.5608;2.0102;
949.5000;0.5608;2.0126;
949.8000;0.5592;2.0054;
950.1000;0.5625;2.0054;
950.4000;0.5617;2.0007;
950.7000;0.5576;1.9840;
951.0000;0.5625;1.9983;
951.3000;0.5608;1.9935;
951.6000;0.5641;2.0078;
951.9000;0.5617;1.9959;
952.2000;0.5625;1.9935;
952.5000;0.5641;1.9983;
952.8000;0.5608;1.9983;
953.1000;0.5617;2.0031;
953.4000;0.5608;2.0031;
953.7000;0.5608;2.0054;
954.0000;0.5584;2.0031;
954.3000;0.5592;2.0031;
954.6000;0.5584;2.0054;
954.9000;0.5600;2.0054;
955.2000;0.5527;1.9888;
955.5000;0.5592;2.0078;
955.8000;0.5584;2.0102;
956.1000;0.5600;2.0078;
956.4000;0.5592;2.0126;
956.7000;0.5584;1.9983;
957.0000;0.5657;2.0102;
957.3000;0.5633;2.0102;
957.6000;0.5592;2.0054;
957.9000;0.5617;2.0102;
958.2000;0.5592;2.0078;
958.5000;0.5617;2.0078;
958.8000;0.5608;2.0054;
959.1000;0.5649;2.0102;
959.4000;0.5600;1.9935;
959.7000;0.5592;1.9983;
960.0000;0.5608;2.0078;
960.3000;0.5633;2.0126;
960.6000;0.5608;2.0198;
960.9000;0.5584;2.0174;
961.2000;0.5617;2.0341;
961.5000;0.5600;2.0293;
961.8000;0.5600;2.0245;
962.1000;0.5625;2.0317;
962.4000;0.5592;2.0269;
962.7000;0.5625;2.0317;
963.0000;0.5625;2.0245;
963.3000;0.5617;2.0126;
963.6000;0.5600;2.0102;
963.9000;0.5625;2.0126;
964.2000;0.5649;2.0245;
964.5000;0.5592;2.0102;
964.8000;0.5608;2.0102;
965.1000;0.5600;2.0150;
965.4000;0.5592;2.0198;
965.7000;0.5608;2.0198;
966.0000;0.5584;2.0198;
966.3000;0.5617;2.0317;
966.6000;0.5592;2.0150;
966.9000;0.5592;2.0126;
967.2000;0.5600;2.0150;
967.5000;0.5608;2.0126;
967.8000;0.5568;2.0126;
968.1000;0.5551;1.9983;
968.4000;0.5592;2.0031;
968.7000;0.5592;2.0054;
969.0000;0.5608;2.0221;
969.3000;0.5584;2.0126;
969.6000;0.5608;2.0198;
969.9000;0.5584;2.0102;
970.2000;0.5568;2.0150;
970.5000;0.5600;2.0221;
970.8000;0.5576;2.0198;
971.1000;0.5584;2.0174;
971.4000;0.5592;2.0245;
971.7000;0.5576;2.0126;
972.0000;0.5584;2.0150;
972.3000;0.5592;2.0198;
972.6000;0.5576;2.0054;
972.9000;0.5600;2.0126;
973.2000;0.5576;2.0054;
973.5000;0.5649;2.0198;
973.8000;0.5600;2.0102;
974.1000;0.5576;2.0031;
974.4000;0.5576;2.0126;
974.7000;0.5535;2.0078;
975.0000;0.5592;2.0174;
975.3000;0.5600;2.0150;
975.6000;0.5592;2.0221;
975.9000;0.5592;2.0150;
976.2000;0.5560;2.0007;
976.5000;0.5600;2.0126;
976.8000;0.5592;2.0150;
977.1000;0.5600;2.0126;
977.4000;0.5560;2.0102;
977.7000;0.5592;2.0198;
978.0000;0.5608;2.0126;
978.3000;0.5600;2.0174;
978.6000;0.5576;1.9983;
978.9000;0.5584;2.0007;
979.2000;0.5633;2.0054;
979.5000;0.5641;2.0078;
979.8000;0.5600;2.0126;
980.1000;0.5584;2.0126;
980.4000;0.5535;1.9983;
980.7000;0.5584;2.0150;
981.0000;0.5584;2.0174;
981.3000;0.5576;2.0174;
981.6000;0.5592;2.0102;
981.9000;0.5617;2.0102;
982.2000;0.5617;2.0078;
982.5000;0.5592;2.0054;
982.8000;0.5576;2.0054;
983.1000;0.5608;2.0150;
983.4000;0.5600;2.0102;
983.7000;0.5600;2.0102;
984.0000;0.5576;2.0078;
984.3000;0.5576;2.0054;
984.6000;0.5584;2.0078;
984.9000;0.5584;2.0102;
985.2000;0.5600;2.0198;
985.5000;0.5608;2.0293;
985.8000;0.5600;2.0269;
986.1000;0.5592;2.0245;
986.4000;0.5584;2.0269;
986.7000;0.5592;2.0269;
987.0000;0.5592;2.0198;
987.3000;0.5600;2.0174;
987.6000;0.5592;2.0126;
987.9000;0.5600;2.0221;
988.2000;0.5584;2.0174;
988.5000;0.5625;2.0174;
988.8000;0.5592;2.0054;
989.1000;0.5568;2.0054;
989.4000;0.5600;2.0126;
989.7000;0.5600;2.0221;
990.0000;0.5584;2.0198;
990.3000;0.5576;2.0198;
990.6000;0.5568;2.0150;
990.9000;0.5527;2.0007;
991.2000;0.5592;2.0174;
991.5000;0.5576;2.0078;
991.8000;0.5592;2.0102;
992.1000;0.5543;1.9935;
992.4000;0.5584;2.0102;
992.7000;0.5600;2.0221;
993.0000;0.5592;2.0221;
993.3000;0.5568;2.0102;
993.6000;0.5600;2.0245;
993.9000;0.5560;2.0150;
994.2000;0.5584;2.0174;
994.5000;0.5584;2.0221;
994.8000;0.5584;2.0174;
995.1000;0.5584;2.0221;
995.4000;0.5576;2.0198;
995.7000;0.5576;2.0221;
996.0000;0.5568;2.0150;
996.3000;0.5584;2.0174;
996.6000;0.5576;2.0126;
996.9000;0.5568;2.0102;
997.2000;0.5568;2.0078;
997.5000;0.5592;1.9983;
997.8000;0.5576;1.9983;
998.1000;0.5608;2.0078;
998.4000;0.5568;2.0054;
998.7000;0.5576;2.0031;
999.0000;0.5592;2.0031;
999.3000;0.5584;2.0031;
999.6000;0.5584;2.0150;
999.9000;0.5592;2.0150;
1000.2000;0.5568;2.0198;
1000.5000;0.5576;2.0221;
1000.8000;0.5625;2.0364;
1001.1000;0.5625;2.0364;
1001.4000;0.5568;2.0221;
1001.7000;0.5584;2.0269;
1002.0000;0.5576;2.0221;
1002.3000;0.5576;2.0221;
1002.6000;0.5568;2.0174;
1002.9000;0.5568;2.0126;
1003.2000;0.5568;2.0174;
1003.5000;0.5584;2.0245;
1003.8000;0.5584;2.0293;
1004.1000;0.5600;2.0341;
1004.4000;0.5576;2.0269;
1004.7000;0.5608;2.0317;
1005.0000;0.5600;2.0341;
1005.3000;0.5576;2.0317;
1005.6000;0.5568;2.0293;
1005.9000;0.5560;2.0245;
1006.2000;0.5584;2.0317;
1006.5000;0.5568;2.0198;
1006.8000;0.5568;2.0174;
1007.1000;0.5560;2.0221;
1007.4000;0.5592;2.0388;
1007.7000;0.5584;2.0388;
1008.0000;0.5576;2.0364;
1008.3000;0.5608;2.0436;
1008.6000;0.5592;2.0412;
1008.9000;0.5584;2.0364;
1009.2000;0.5527;2.0269;
1009.5000;0.5568;2.0317;
1009.8000;0.5576;2.0412;
1010.1000;0.5584;2.0555;
1010.4000;0.5568;2.0484;
1010.7000;0.5568;2.0436;
1011.0000;0.5568;2.0436;
1011.3000;0.5576;2.0531;
1011.6000;0.5600;2.0531;
1011.9000;0.5576;2.0412;
1012.2000;0.5584;2.0436;
1012.5000;0.5576;2.0341;
1012.8000;0.5576;2.0269;
1013.1000;0.5568;2.0317;
1013.4000;0.5551;2.0245;
1013.7000;0.5584;2.0388;
1014.0000;0.5608;2.0484;
1014.3000;0.5568;2.0412;
1014.6000;0.5560;2.0364;
1014.9000;0.5584;2.0341;
1015.2000;0.5584;2.0412;
1015.5000;0.5568;2.0388;
1015.8000;0.5576;2.0460;
1016.1000;0.5576;2.0484;
1016.4000;0.5576;2.0460;
1016.7000;0.5568;2.0388;
1017.0000;0.5560;2.0341;
1017.3000;0.5584;2.0436;
1017.6000;0.5649;2.0579;
1017.9000;0.5568;2.0341;
1018.2000;0.5568;2.0317;
1018.5000;0.5584;2.0293;
1018.8000;0.5560;2.0198;
1019.1000;0.5576;2.0245;
1019.4000;0.5560;2.0198;
1019.7000;0.5600;2.0293;
1020.0000;0.5584;2.0245;
1020.3000;0.5576;2.0174;
1020.6000;0.5584;2.0245;
1020.9000;0.5576;2.0245;
1021.2000;0.5576;2.0269;
1021.5000;0.5625;2.0317;
1021.8000;0.5584;2.0221;
1022.1000;0.5568;2.0293;
1022.4000;0.5560;2.0198;
1022.7000;0.5633;2.0436;
1023.0000;0.5535;2.0221;
1023.3000;0.5625;2.0412;
1023.6000;0.5560;2.0293;
1023.9000;0.5641;2.0508;
1024.2000;0.5584;2.0364;
1024.5000;0.5568;2.0341;
1024.8000;0.5576;2.0364;
1025.1000;0.5584;2.0341;
1025.4000;0.5560;2.0245;
1025.7000;0.5568;2.0198;
1026.0000;0.5560;2.0221;
1026.3000;0.5584;2.0293;
1026.6000;0.5560;2.0221;
1026.9000;0.5535;2.0126;
1027.2000;0.5551;2.0221;
1027.5000;0.5560;2.0269;
1027.8000;0.5568;2.0269;
1028.1000;0.5576;2.0269;
1028.4000;0.5568;2.0269;
1028.7000;0.5568;2.0174;
1029.0000;0.5576;2.0126;
1029.3000;0.5568;2.0198;
1029.6000;0.5560;2.0221;
1029.9000;0.5560;2.0317;
1030.2000;0.5560;2.0388;
1030.5000;0.5576;2.0436;
1030.8000;0.5551;2.0341;
1031.1000;0.5568;2.0293;
1031.4000;0.5560;2.0269;
1031.7000;0.5576;2.0388;
1032.0000;0.5551;2.0364;
1032.3000;0.5560;2.0317;
1032.6000;0.5560;2.0269;
1032.9000;0.5551;2.0269;
1033.2000;0.5568;2.0269;
1033.5000;0.5584;2.0245;
1033.8000;0.5560;2.0245;
1034.1000;0.5576;2.0269;
1034.4000;0.5576;2.0364;
1034.7000;0.5560;2.0341;
1035.0000;0.5576;2.0412;
1035.3000;0.5560;2.0412;
1035.6000;0.5560;2.0317;
1035.9000;0.5543;2.0317;
1036.2000;0.5560;2.0341;
1036.5000;0.5551;2.0317;
1036.8000;0.5503;2.0150;
1037.1000;0.5568;2.0317;
1037.4000;0.5568;2.0341;
1037.7000;0.5560;2.0293;
1038.0000;0.5543;2.0245;
1038.3000;0.5551;2.0126;
1038.6000;0.5543;2.0126;
1038.9000;0.5551;2.0221;
1039.2000;0.5560;2.0221;
1039.5000;0.5503;2.0078;
1039.8000;0.5568;2.0269;
1040.1000;0.5551;2.0269;
1040.4000;0.5576;2.0341;
1040.7000;0.5551;2.0269;
1041.0000;0.5560;2.0341;
1041.3000;0.5551;2.0341;
1041.6000;0.5551;2.0293;
1041.9000;0.5576;2.0341;
1042.2000;0.5551;2.0245;
1042.5000;0.5576;2.0245;
1042.8000;0.5568;2.0174;
1043.1000;0.5551;2.0054;
1043.4000;0.5568;2.0102;
1043.7000;0.5576;2.0245;
1044.0000;0.5551;2.0221;
1044.3000;0.5543;2.0221;
1044.6000;0.5568;2.0317;
1044.9000;0.5568;2.0317;
1045.2000;0.5560;2.0412;
1045.5000;0.5576;2.0484;
1045.8000;0.5543;2.0293;
1046.1000;0.5560;2.0293;
1046.4000;0.5568;2.0293;
1046.7000;0.5560;2.0317;
1047.0000;0.5527;2.0293;
1047.3000;0.5617;2.0412;
1047.6000;0.5560;2.0245;
1047.9000;0.5600;2.0388;
1048.2000;0.5543;2.0150;
1048.5000;0.5576;2.0174;
1048.8000;0.5551;2.0221;
1049.1000;0.5560;2.0317;
1049.4000;0.5543;2.0388;
1049.7000;0.5551;2.0460;
1050.0000;0.5560;2.0508;
1050.3000;0.5551;2.0508;
1050.6000;0.5551;2.0531;
1050.9000;0.5568;2.0579;
1051.2000;0.5543;2.0484;
1051.5000;0.5551;2.0388;
1051.8000;0.5551;2.0364;
1052.1000;0.5560;2.0412;
1052.4000;0.5560;2.0364;
1052.7000;0.5551;2.0317;
1053.0000;0.5560;2.0317;
1053.3000;0.5551;2.0364;
1053.6000;0.5568;2.0412;
1053.9000;0.5568;2.0436;
1054.2000;0.5543;2.0364;
1054.5000;0.5560;2.0341;
1054.8000;0.5551;2.0317;
1055.1000;0.5551;2.0341;
1055.4000;0.5568;2.0341;
1055.7000;0.5568;2.0412;
1056.0000;0.5568;2.0341;
1056.3000;0.5568;2.0364;
1056.6000;0.5568;2.0388;
1056.9000;0.5543;2.0341;
1057.2000;0.5560;2.0436;
1057.5000;0.5560;2.0388;
1057.8000;0.5551;2.0341;
1058.1000;0.5551;2.0317;
1058.4000;0.5576;2.0293;
1058.7000;0.5568;2.0245;
1059.0000;0.5576;2.0198;
1059.3000;0.5535;2.0031;
1059.6000;0.5551;2.0102;
1059.9000;0.5608;2.0317;
1060.2000;0.5551;2.0198;
1060.5000;0.5551;2.0198;
1060.8000;0.5551;2.0198;
1061.1000;0.5560;2.0221;
1061.4000;0.5576;2.0269;
1061.7000;0.5551;2.0269;
1062.0000;0.5543;2.0221;
1062.3000;0.5560;2.0221;
1062.6000;0.5551;2.0221;
1062.9000;0.5535;2.0150;
1063.2000;0.5560;2.0198;
1063.5000;0.5551;2.0150;
1063.8000;0.5551;2.0126;
1064.1000;0.5543;2.0150;
1064.4000;0.5560;2.0198;
1064.7000;0.5560;2.0245;
1065.0000;0.5560;2.0245;
1065.3000;0.5543;2.0174;
1065.6000;0.5535;2.0150;
1065.9000;0.5551;2.0221;
1066.2000;0.5551;2.0293;
1066.5000;0.5560;2.0388;
1066.8000;0.5519;2.0269;
1067.1000;0.5551;2.0341;
1067.4000;0.5560;2.0317;
1067.7000;0.5576;2.0388;
1068.0000;0.5527;2.0269;
1068.3000;0.5535;2.0221;
1068.6000;0.5543;2.0293;
1068.9000;0.5551;2.0198;
1069.2000;0.5551;2.0126;
1069.5000;0.5527;2.0150;
1069.8000;0.5543;2.0221;
1070.1000;0.5560;2.0269;
1070.4000;0.5560;2.0293;
1070.7000;0.5527;2.0269;
1071.0000;0.5560;2.0317;
1071.3000;0.5543;2.0245;
1071.6000;0.5560;2.0269;
1071.9000;0.5543;2.0102;
1072.2000;0.5519;2.0031;
1072.5000;0.5543;2.0054;
1072.8000;0.5543;2.0054;
1073.1000;0.5560;2.0102;
1073.4000;0.5527;2.0126;
1073.7000;0.5608;2.0412;
1074.0000;0.5551;2.0198;
1074.3000;0.5543;2.0198;
1074.6000;0.5535;2.0221;
1074.9000;0.5543;2.0174;
1075.2000;0.5560;2.0245;
1075.5000;0.5551;2.0245;
1075.8000;0.5551;2.0174;
1076.1000;0.5543;2.0150;
1076.4000;0.5560;2.0150;
1076.7000;0.5551;2.0078;
1077.0000;0.5543;1.9959;
1077.3000;0.5560;2.0054;
1077.6000;0.5535;1.9983;
1077.9000;0.5543;2.0078;
1078.2000;0.5584;2.0221;
1078.5000;0.5527;2.0031;
1078.8000;0.5568;2.0078;
1079.1000;0.5560;2.0031;
1079.4000;0.5560;2.0078;
1079.7000;0.5543;1.9959;
1080.0000;0.5535;1.9959;
1080.3000;0.5551;2.0007;
1080.6000;0.5560;2.0007;
1080.9000;0.5560;1.9935;
1081.2000;0.5560;1.9935;
1081.5000;0.5584;2.0102;
1081.8000;0.5551;2.0126;
1082.1000;0.5527;2.0054;
1082.4000;0.5543;2.0007;
1082.7000;0.5568;2.0007;
1083.0000;0.5551;2.0007;
1083.3000;0.5535;1.9888;
1083.6000;0.5568;1.9959;
1083.9000;0.5543;1.9959;
1084.2000;0.5543;1.9983;
1084.5000;0.5527;1.9959;
1084.8000;0.5519;1.9983;
1085.1000;0.5551;2.0007;
1085.4000;0.5592;2.0078;
1085.7000;0.5551;1.9888;
1086.0000;0.5543;1.9888;
1086.3000;0.5551;1.9959;
1086.6000;0.5543;1.9959;
1086.9000;0.5543;1.9959;
1087.2000;0.5543;2.0031;
1087.5000;0.5560;2.0031;
1087.8000;0.5535;1.9983;
1088.1000;0.5568;2.0102;
1088.4000;0.5543;2.0031;
1088.7000;0.5527;2.0054;
1089.0000;0.5478;1.9816;
1089.3000;0.5543;1.9935;
1089.6000;0.5543;1.9911;
1089.9000;0.5551;1.9911;
1090.2000;0.5560;2.0031;
1090.5000;0.5551;2.0007;
1090.8000;0.5551;1.9911;
1091.1000;0.5543;1.9888;
1091.4000;0.5551;1.9888;
1091.7000;0.5608;1.9959;
1092.0000;0.5543;1.9888;
1092.3000;0.5535;1.9864;
1092.6000;0.5535;1.9888;
1092.9000;0.5535;1.9888;
1093.2000;0.5543;1.9840;
1093.5000;0.5519;1.9840;
1093.8000;0.5519;1.9744;
1094.1000;0.5543;1.9864;
1094.4000;0.5527;1.9911;
1094.7000;0.5592;2.0150;
1095.0000;0.5527;2.0031;
1095.3000;0.5543;2.0007;
1095.6000;0.5543;1.9959;
1095.9000;0.5535;1.9935;
1096.2000;0.5527;2.0007;
1096.5000;0.5551;2.0007;
1096.8000;0.5625;2.0150;
1097.1000;0.5543;1.9840;
1097.4000;0.5551;1.9864;
1097.7000;0.5543;1.9864;
1098.0000;0.5535;1.9888;
1098.3000;0.5543;1.9888;
1098.6000;0.5527;1.9840;
1098.9000;0.5535;1.9816;
1099.2000;0.5551;1.9840;
1099.5000;0.5543;1.9840;
1099.8000;0.5551;1.9888;
1100.1000;0.5503;1.9864;
1100.4000;0.5527;1.9911;
1100.7000;0.5478;1.9816;
1101.0000;0.5543;1.9935;
1101.3000;0.5527;2.0007;
1101.6000;0.5543;2.0150;
1101.9000;0.5535;2.0126;
1102.2000;0.5584;2.0245;
1102.5000;0.5551;2.0174;
1102.8000;0.5551;2.0150;
1103.1000;0.5543;2.0126;
1103.4000;0.5535;2.0150;
1103.7000;0.5543;2.0078;
1104.0000;0.5543;2.0054;
1104.3000;0.5543;2.0126;
1104.6000;0.5543;2.0150;
1104.9000;0.5519;2.0078;
1105.2000;0.5535;2.0150;
1105.5000;0.5551;2.0126;
1105.8000;0.5543;2.0198;
1106.1000;0.5543;2.0198;
1106.4000;0.5543;2.0126;
1106.7000;0.5519;2.0102;
1107.0000;0.5527;2.0102;
1107.3000;0.5535;2.0198;
1107.6000;0.5551;2.0054;
1107.9000;0.5535;2.0031;
1108.2000;0.5527;2.0007;
1108.5000;0.5560;1.9983;
1108.8000;0.5551;1.9983;
1109.1000;0.5527;1.9935;
1109.4000;0.5535;1.9888;
1109.7000;0.5535;1.9911;
1110.0000;0.5535;1.9864;
1110.3000;0.5543;1.9864;
1110.6000;0.5535;1.9864;
1110.9000;0.5543;1.9911;
1111.2000;0.5527;1.9888;
1111.5000;0.5519;1.9911;
1111.8000;0.5535;1.9959;
1112.1000;0.5535;1.9911;
1112.4000;0.5543;1.9888;
1112.7000;0.5560;1.9888;
1113.0000;0.5535;1.9864;
1113.3000;0.5535;1.9816;
1113.6000;0.5551;1.9888;
1113.9000;0.5535;1.9864;
1114.2000;0.5551;1.9959;
1114.5000;0.5543;2.0054;
1114.8000;0.5600;2.0293;
1115.1000;0.5535;2.0150;
1115.4000;0.5535;2.0078;
1115.7000;0.5551;1.9983;
1116.0000;0.5576;2.0150;
1116.3000;0.5568;2.0150;
1116.6000;0.5543;2.0102;
1116.9000;0.5535;2.0174;
1117.2000;0.5511;2.0150;
1117.5000;0.5560;2.0198;
1117.8000;0.5527;2.0102;
1118.1000;0.5535;2.0007;
1118.4000;0.5519;1.9864;
1118.7000;0.5543;1.9911;
1119.0000;0.5543;1.9888;
1119.3000;0.5511;1.9840;
1119.6000;0.5543;1.9911;
1119.9000;0.5543;1.9983;
1120.2000;0.5527;2.0007;
1120.5000;0.5535;1.9983;
1120.8000;0.5584;2.0078;
1121.1000;0.5535;1.9840;
1121.4000;0.5535;1.9816;
1121.7000;0.5560;1.9911;
1122.0000;0.5527;1.9864;
1122.3000;0.5543;1.9911;
1122.6000;0.5543;1.9888;
1122.9000;0.5576;1.9959;
1123.2000;0.5543;1.9840;
1123.5000;0.5543;1.9816;
1123.8000;0.5535;1.9864;
1124.1000;0.5495;1.9792;
1124.4000;0.5535;1.9840;
1124.7000;0.5527;1.9911;
1125.0000;0.5535;1.9935;
1125.3000;0.5478;1.9816;
1125.6000;0.5543;2.0031;
1125.9000;0.5576;2.0126;
1126.2000;0.5535;2.0054;
1126.5000;0.5551;2.0102;
1126.8000;0.5511;2.0054;
1127.1000;0.5535;2.0102;
1127.4000;0.5527;2.0007;
1127.7000;0.5527;2.0031;
1128.0000;0.5527;2.0078;
1128.3000;0.5527;2.0007;
1128.6000;0.5519;2.0078;
1128.9000;0.5535;2.0102;
1129.2000;0.5527;2.0078;
1129.5000;0.5543;2.0102;
1129.8000;0.5543;2.0054;
1130.1000;0.5535;2.0054;
1130.4000;0.5519;2.0031;
1130.7000;0.5519;2.0031;
1131.0000;0.5568;2.0174;
1131.3000;0.5543;2.0054;
1131.6000;0.5535;1.9983;
1131.9000;0.5535;2.0031;
1132.2000;0.5543;2.0031;
1132.5000;0.5543;2.0031;
1132.8000;0.5600;2.0150;
1133.1000;0.5511;1.9983;
1133.4000;0.5527;1.9959;
1133.7000;0.5535;2.0007;
1134.0000;0.5519;2.0007;
1134.3000;0.5543;2.0031;
1134.6000;0.5519;2.0031;
1134.9000;0.5527;2.0054;
1135.2000;0.5511;2.0031;
1135.5000;0.5535;2.0007;
1135.8000;0.5519;2.0007;
1136.1000;0.5551;2.0031;
1136.4000;0.5543;2.0102;
1136.7000;0.5592;2.0198;
1137.0000;0.5560;2.0102;
1137.3000;0.5527;1.9983;
1137.6000;0.5584;2.0102;
1137.9000;0.5560;2.0031;
1138.2000;0.5543;1.9959;
1138.5000;0.5495;1.9768;
1138.8000;0.5527;1.9911;
1139.1000;0.5478;1.9792;
1139.4000;0.5519;1.9816;
1139.7000;0.5527;1.9888;
1140.0000;0.5519;1.9959;
1140.3000;0.5543;2.0031;
1140.6000;0.5519;2.0054;
1140.9000;0.5535;2.0054;
1141.2000;0.5584;2.0174;
1141.5000;0.5543;2.0102;
1141.8000;0.5600;2.0293;
1142.1000;0.5535;2.0126;
1142.4000;0.5617;2.0245;
1142.7000;0.5535;2.0126;
1143.0000;0.5535;2.0078;
1143.3000;0.5576;2.0198;
1143.6000;0.5527;2.0102;
1143.9000;0.5535;2.0054;
1144.2000;0.5584;2.0198;
1144.5000;0.5527;2.0102;
1144.8000;0.5535;2.0054;
1145.1000;0.5519;2.0078;
1145.4000;0.5527;2.0126;
1145.7000;0.5527;2.0174;
1146.0000;0.5535;2.0126;
1146.3000;0.5535;2.0221;
1146.6000;0.5535;2.0269;
1146.9000;0.5543;2.0293;
1147.2000;0.5543;2.0317;
1147.5000;0.5535;2.0317;
1147.8000;0.5535;2.0364;
1148.1000;0.5527;2.0341;
1148.4000;0.5535;2.0388;
1148.7000;0.5519;2.0293;
1149.0000;0.5519;2.0317;
1149.3000;0.5486;2.0174;
1149.6000;0.5527;2.0293;
1149.9000;0.5527;2.0388;
1150.2000;0.5527;2.0364;
1150.5000;0.5535;2.0364;
1150.8000;0.5527;2.0341;
1151.1000;0.5527;2.0341;
1151.4000;0.5535;2.0388;
1151.7000;0.5543;2.0460;
1152.0000;0.5543;2.0436;
1152.3000;0.5527;2.0436;
1152.6000;0.5511;2.0484;
1152.9000;0.5519;2.0508;
1153.2000;0.5543;2.0460;
1153.5000;0.5519;2.0436;
1153.8000;0.5495;2.0245;
1154.1000;0.5535;2.0412;
1154.4000;0.5543;2.0436;
1154.7000;0.5495;2.0412;
1155.0000;0.5511;2.0508;
1155.3000;0.5535;2.0531;
1155.6000;0.5527;2.0531;
1155.9000;0.5519;2.0555;
1156.2000;0.5543;2.0627;
1156.5000;0.5527;2.0603;
1156.8000;0.5527;2.0531;
1157.1000;0.5535;2.0484;
1157.4000;0.5527;2.0388;
1157.7000;0.5495;2.0317;
1158.0000;0.5527;2.0436;
1158.3000;0.5535;2.0460;
1158.6000;0.5535;2.0388;
1158.9000;0.5519;2.0364;
1159.2000;0.5527;2.0388;
1159.5000;0.5543;2.0460;
1159.8000;0.5535;2.0412;
1160.1000;0.5454;2.0174;
1160.4000;0.5535;2.0364;
1160.7000;0.5519;2.0317;
1161.0000;0.5519;2.0221;
1161.3000;0.5519;2.0126;
1161.6000;0.5535;2.0054;
1161.9000;0.5527;2.0054;
1162.2000;0.5551;2.0126;
1162.5000;0.5486;1.9935;
1162.8000;0.5519;2.0054;
1163.1000;0.5511;2.0007;
1163.4000;0.5486;1.9935;
1163.7000;0.5527;2.0054;
1164.0000;0.5519;2.0078;
1164.3000;0.5519;2.0102;
1164.6000;0.5543;2.0126;
1164.9000;0.5527;2.0102;
1165.2000;0.5486;2.0126;
1165.5000;0.5519;2.0269;
1165.8000;0.5519;2.0293;
1166.1000;0.5519;2.0388;
1166.4000;0.5503;2.0388;
1166.7000;0.5535;2.0388;
1167.0000;0.5535;2.0436;
1167.3000;0.5535;2.0484;
1167.6000;0.5454;2.0269;
1167.9000;0.5519;2.0412;
1168.2000;0.5535;2.0412;
1168.5000;0.5519;2.0341;
1168.8000;0.5503;2.0245;
1169.1000;0.5503;2.0245;
1169.4000;0.5527;2.0388;
1169.7000;0.5519;2.0412;
1170.0000;0.5519;2.0460;
1170.3000;0.5527;2.0388;
1170.6000;0.5503;2.0317;
1170.9000;0.5527;2.0269;
1171.2000;0.5519;2.0174;
1171.5000;0.5535;2.0221;
1171.8000;0.5527;2.0269;
1172.1000;0.5519;2.0293;
1172.4000;0.5519;2.0245;
1172.7000;0.5511;2.0221;
1173.0000;0.5527;2.0245;
1173.3000;0.5527;2.0245;
1173.6000;0.5511;2.0293;
1173.9000;0.5527;2.0341;
1174.2000;0.5495;2.0245;
1174.5000;0.5527;2.0341;
1174.8000;0.5551;2.0341;
1175.1000;0.5511;2.0245;
1175.4000;0.5511;2.0221;
1175.7000;0.5511;2.0269;
1176.0000;0.5511;2.0317;
1176.3000;0.5535;2.0269;
1176.6000;0.5543;2.0317;
1176.9000;0.5527;2.0412;
1177.2000;0.5519;2.0436;
1177.5000;0.5535;2.0508;
1177.8000;0.5535;2.0484;
1178.1000;0.5527;2.0388;
1178.4000;0.5519;2.0388;
1178.7000;0.5462;2.0221;
1179.0000;0.5511;2.0293;
1179.3000;0.5478;2.0150;
1179.6000;0.5511;2.0221;
1179.9000;0.5535;2.0174;
1180.2000;0.5527;2.0150;
1180.5000;0.5560;2.0341;
1180.8000;0.5527;2.0293;
1181.1000;0.5527;2.0245;
1181.4000;0.5535;2.0126;
1181.7000;0.5503;2.0126;
1182.0000;0.5527;2.0126;
1182.3000;0.5535;2.0198;
1182.6000;0.5535;2.0269;
1182.9000;0.5543;2.0269;
1183.2000;0.5535;2.0245;
1183.5000;0.5535;2.0317;
1183.8000;0.5535;2.0317;
1184.1000;0.5527;2.0269;
1184.4000;0.5527;2.0317;
1184.7000;0.5568;2.0412;
1185.0000;0.5519;2.0317;
1185.3000;0.5503;2.0245;
1185.6000;0.5527;2.0364;
1185.9000;0.5511;2.0388;
1186.2000;0.5527;2.0341;
1186.5000;0.5535;2.0388;
1186.8000;0.5527;2.0412;
1187.1000;0.5511;2.0388;
1187.4000;0.5543;2.0460;
1187.7000;0.5551;2.0460;
1188.0000;0.5519;2.0460;
1188.3000;0.5519;2.0531;
1188.6000;0.5511;2.0627;
1188.9000;0.5519;2.0555;
1189.2000;0.5470;2.0388;
1189.5000;0.5511;2.0412;
1189.8000;0.5543;2.0388;
1190.1000;0.5519;2.0388;
1190.4000;0.5503;2.0364;
1190.7000;0.5511;2.0364;
1191.0000;0.5519;2.0317;
1191.3000;0.5519;2.0317;
1191.6000;0.5584;2.0508;
1191.9000;0.5503;2.0293;
1192.2000;0.5470;2.0221;
1192.5000;0.5519;2.0364;
1192.8000;0.5503;2.0364;
1193.1000;0.5527;2.0388;
1193.4000;0.5511;2.0364;
1193.7000;0.5519;2.0388;
1194.0000;0.5527;2.0388;
1194.3000;0.5519;2.0364;
1194.6000;0.5527;2.0341;
1194.9000;0.5527;2.0412;
1195.2000;0.5527;2.0364;
1195.5000;0.5495;2.0293;
1195.8000;0.5503;2.0341;
1196.1000;0.5527;2.0341;
1196.4000;0.5527;2.0388;
1196.7000;0.5511;2.0388;
1197.0000;0.5503;2.0341;
1197.3000;0.5511;2.0341;
1197.6000;0.5519;2.0436;
1197.9000;0.5503;2.0484;
1198.2000;0.5503;2.0436;
1198.5000;0.5503;2.0436;
1198.8000;0.5511;2.0531;
1199.1000;0.5519;2.0460;
1199.4000;0.5503;2.0508;
1199.7000;0.5495;2.0579;
1200.0000;0.5527;2.0555;
1200.3000;0.5519;2.0508;
1200.6000;0.5495;2.0364;
1200.9000;0.5511;2.0412;
1201.2000;0.5511;2.0412;
1201.5000;0.5519;2.0460;
1201.8000;0.5503;2.0412;
1202.1000;0.5446;2.0293;
1202.4000;0.5503;2.0364;
1202.7000;0.5511;2.0293;
1203.0000;0.5519;2.0293;
1203.3000;0.5511;2.0364;
1203.6000;0.5519;2.0317;
1203.9000;0.5519;2.0341;
1204.2000;0.5519;2.0341;
1204.5000;0.5503;2.0317;
1204.8000;0.5503;2.0317;
1205.1000;0.5454;2.0221;
1205.4000;0.5511;2.0364;
1205.7000;0.5503;2.0364;
1206.0000;0.5495;2.0269;
1206.3000;0.5535;2.0341;
1206.6000;0.5535;2.0341;
1206.9000;0.5511;2.0269;
1207.2000;0.5511;2.0293;
1207.5000;0.5519;2.0245;
1207.8000;0.5527;2.0269;
1208.1000;0.5535;2.0245;
1208.4000;0.5511;2.0078;
1208.7000;0.5519;2.0054;
1209.0000;0.5543;2.0126;
1209.3000;0.5527;2.0150;
1209.6000;0.5511;2.0174;
1209.9000;0.5511;2.0102;
1210.2000;0.5486;1.9983;
1210.5000;0.5519;2.0126;
1210.8000;0.5519;2.0126;
1211.1000;0.5511;2.0174;
1211.4000;0.5519;2.0174;
1211.7000;0.5486;2.0054;
1212.0000;0.5486;2.0078;
1212.3000;0.5495;2.0174;
1212.6000;0.5511;2.0198;
1212.9000;0.5519;2.0245;
1213.2000;0.5389;1.9911;
1213.5000;0.5511;2.0245;
1213.8000;0.5519;2.0269;
1214.1000;0.5527;2.0293;
1214.4000;0.5527;2.0269;
1214.7000;0.5519;2.0341;
1215.0000;0.5519;2.0364;
1215.3000;0.5519;2.0317;
1215.6000;0.5519;2.0293;
1215.9000;0.5495;2.0269;
1216.2000;0.5503;2.0245;
1216.5000;0.5519;2.0317;
1216.8000;0.5511;2.0388;
1217.1000;0.5511;2.0293;
1217.4000;0.5519;2.0293;
1217.7000;0.5511;2.0198;
1218.0000;0.5519;2.0293;
1218.3000;0.5503;2.0269;
1218.6000;0.5535;2.0412;
1218.9000;0.5511;2.0317;
1219.2000;0.5519;2.0364;
1219.5000;0.5503;2.0317;
1219.8000;0.5527;2.0293;
1220.1000;0.5511;2.0269;
1220.4000;0.5511;2.0126;
1220.7000;0.5551;2.0198;
1221.0000;0.5503;2.0126;
1221.3000;0.5495;2.0078;
1221.6000;0.5503;2.0150;
1221.9000;0.5511;2.0174;
1222.2000;0.5511;2.0150;
1222.5000;0.5511;2.0150;
1222.8000;0.5503;2.0198;
1223.1000;0.5511;2.0293;
1223.4000;0.5495;2.0341;
1223.7000;0.5470;2.0221;
1224.0000;0.5511;2.0388;
1224.3000;0.5519;2.0388;
1224.6000;0.5511;2.0341;
1224.9000;0.5478;2.0269;
1225.2000;0.5503;2.0364;
1225.5000;0.5503;2.0341;
1225.8000;0.5511;2.0341;
1226.1000;0.5503;2.0317;
1226.4000;0.5486;2.0174;
1226.7000;0.5503;2.0245;
1227.0000;0.5486;2.0126;
1227.3000;0.5503;2.0126;
1227.6000;0.5519;2.0174;
1227.9000;0.5503;2.0174;
1228.2000;0.5503;2.0198;
1228.5000;0.5511;2.0245;
1228.8000;0.5413;2.0031;
1229.1000;0.5592;2.0460;
1229.4000;0.5519;2.0245;
1229.7000;0.5527;2.0293;
1230.0000;0.5511;2.0245;
1230.3000;0.5503;2.0269;
1230.6000;0.5462;2.0102;
1230.9000;0.5527;2.0221;
1231.2000;0.5511;2.0174;
1231.5000;0.5519;2.0221;
1231.8000;0.5511;2.0221;
1232.1000;0.5511;2.0293;
1232.4000;0.5511;2.0174;
1232.7000;0.5495;2.0150;
1233.0000;0.5503;2.0245;
1233.3000;0.5519;2.0341;
1233.6000;0.5519;2.0269;
1233.9000;0.5503;2.0269;
1234.2000;0.5535;2.0269;
1234.5000;0.5527;2.0245;
1234.8000;0.5527;2.0269;
1235.1000;0.5519;2.0102;
1235.4000;0.5535;2.0126;
1235.7000;0.5511;2.0078;
1236.0000;0.5527;2.0102;
1236.3000;0.5495;2.0174;
1236.6000;0.5503;2.0221;
1236.9000;0.5519;2.0174;
1237.2000;0.5470;2.0102;
1237.5000;0.5511;2.0198;
1237.8000;0.5511;2.0126;
1238.1000;0.5503;2.0150;
1238.4000;0.5527;2.0221;
1238.7000;0.5478;2.0126;
1239.0000;0.5511;2.0198;
1239.3000;0.5511;2.0317;
1239.6000;0.5543;2.0388;
1239.9000;0.5462;2.0221;
1240.2000;0.5503;2.0388;
1240.5000;0.5519;2.0412;
1240.8000;0.5519;2.0317;
1241.1000;0.5511;2.0293;
1241.4000;0.5511;2.0317;
1241.7000;0.5560;2.0388;
1242.0000;0.5576;2.0364;
1242.3000;0.5519;2.0269;
1242.6000;0.5438;2.0126;
1242.9000;0.5503;2.0269;
1243.2000;0.5503;2.0293;
1243.5000;0.5503;2.0293;
1243.8000;0.5511;2.0293;
1244.1000;0.5511;2.0174;
1244.4000;0.5495;2.0221;
1244.7000;0.5551;2.0341;
1245.0000;0.5511;2.0269;
1245.3000;0.5519;2.0317;
1245.6000;0.5503;2.0269;
1245.9000;0.5576;2.0484;
1246.2000;0.5519;2.0317;
1246.5000;0.5511;2.0269;
1246.8000;0.5535;2.0317;
1247.1000;0.5486;2.0150;
1247.4000;0.5511;2.0150;
1247.7000;0.5527;2.0245;
1248.0000;0.5478;2.0126;
1248.3000;0.5511;2.0221;
1248.6000;0.5454;2.0007;
1248.9000;0.5543;2.0269;
1249.2000;0.5486;2.0126;
1249.5000;0.5503;2.0126;
1249.8000;0.5511;2.0174;
1250.1000;0.5511;2.0245;
1250.4000;0.5527;2.0269;
1250.7000;0.5519;2.0221;
1251.0000;0.5543;2.0412;
1251.3000;0.5527;2.0388;
1251.6000;0.5503;2.0341;
1251.9000;0.5511;2.0317;
1252.2000;0.5519;2.0317;
1252.5000;0.5495;2.0174;
1252.8000;0.5511;2.0269;
1253.1000;0.5495;2.0269;
1253.4000;0.5503;2.0317;
1253.7000;0.5519;2.0412;
1254.0000;0.5519;2.0364;
1254.3000;0.5519;2.0341;
1254.6000;0.5511;2.0364;
1254.9000;0.5511;2.0317;
1255.2000;0.5535;2.0317;
1255.5000;0.5495;2.0269;
1255.8000;0.5527;2.0341;
1256.1000;0.5470;2.0174;
1256.4000;0.5511;2.0269;
1256.7000;0.5527;2.0269;
1257.0000;0.5503;2.0269;
1257.3000;0.5519;2.0317;
1257.6000;0.5519;2.0245;
1257.9000;0.5503;2.0221;
1258.2000;0.5511;2.0221;
1258.5000;0.5551;2.0341;
1258.8000;0.5511;2.0245;
1259.1000;0.5511;2.0198;
1259.4000;0.5511;2.0198;
1259.7000;0.5519;2.0269;
1260.0000;0.5511;2.0245;
1260.3000;0.5438;2.0054;
1260.6000;0.5495;2.0150;
1260.9000;0.5495;2.0150;
1261.2000;0.5543;2.0221;
1261.5000;0.5511;2.0126;
1261.8000;0.5511;2.0150;
1262.1000;0.5478;2.0078;
1262.4000;0.5503;2.0126;
1262.7000;0.5519;2.0198;
1263.0000;0.5478;2.0102;
1263.3000;0.5429;1.9959;
1263.6000;0.5495;2.0078;
1263.9000;0.5478;2.0078;
1264.2000;0.5535;2.0150;
1264.5000;0.5503;2.0126;
1264.8000;0.5519;2.0126;
1265.1000;0.5486;2.0126;
1265.4000;0.5519;2.0174;
1265.7000;0.5503;2.0078;
1266.0000;0.5503;2.0031;
1266.3000;0.5503;2.0007;
1266.6000;0.5503;2.0150;
1266.9000;0.5527;2.0293;
1267.2000;0.5503;2.0245;
1267.5000;0.5503;2.0317;
1267.8000;0.5511;2.0317;
1268.1000;0.5511;2.0317;
1268.4000;0.5511;2.0293;
1268.7000;0.5551;2.0388;
1269.0000;0.5527;2.0341;
1269.3000;0.5527;2.0364;
1269.6000;0.5503;2.0364;
1269.9000;0.5535;2.0388;
1270.2000;0.5527;2.0293;
1270.5000;0.5511;2.0317;
1270.8000;0.5543;2.0436;
1271.1000;0.5527;2.0341;
1271.4000;0.5519;2.0364;
1271.7000;0.5503;2.0293;
1272.0000;0.5495;2.0317;
1272.3000;0.5495;2.0364;
1272.6000;0.5527;2.0364;
1272.9000;0.5519;2.0293;
1273.2000;0.5486;2.0245;
1273.5000;0.5495;2.0388;
1273.8000;0.5503;2.0460;
1274.1000;0.5511;2.0412;
1274.4000;0.5551;2.0508;
1274.7000;0.5503;2.0341;
1275.0000;0.5503;2.0341;
1275.3000;0.5519;2.0388;
1275.6000;0.5486;2.0293;
1275.9000;0.5511;2.0388;
1276.2000;0.5495;2.0269;
1276.5000;0.5486;2.0269;
1276.8000;0.5511;2.0364;
1277.1000;0.5503;2.0412;
1277.4000;0.5486;2.0436;
1277.7000;0.5486;2.0460;
1278.0000;0.5511;2.0484;
1278.3000;0.5503;2.0484;
1278.6000;0.5503;2.0460;
1278.9000;0.5503;2.0436;
1279.2000;0.5511;2.0412;
1279.5000;0.5519;2.0412;
1279.8000;0.5511;2.0364;
1280.1000;0.5511;2.0364;
1280.4000;0.5519;2.0317;
1280.7000;0.5511;2.0245;
1281.0000;0.5527;2.0293;
1281.3000;0.5519;2.0198;
1281.6000;0.5503;2.0198;
1281.9000;0.5511;2.0245;
1282.2000;0.5478;2.0198;
1282.5000;0.5511;2.0317;
1282.8000;0.5503;2.0364;
1283.1000;0.5519;2.0388;
1283.4000;0.5511;2.0412;
1283.7000;0.5503;2.0412;
1284.0000;0.5503;2.0412;
1284.3000;0.5470;2.0341;
1284.6000;0.5511;2.0412;
1284.9000;0.5495;2.0317;
1285.2000;0.5503;2.0436;
1285.5000;0.5527;2.0388;
1285.8000;0.5511;2.0317;
1286.1000;0.5503;2.0317;
1286.4000;0.5495;2.0221;
1286.7000;0.5495;2.0269;
1287.0000;0.5503;2.0460;
1287.3000;0.5495;2.0388;
1287.6000;0.5511;2.0412;
1287.9000;0.5503;2.0388;
1288.2000;0.5478;2.0293;
1288.5000;0.5495;2.0364;
1288.8000;0.5511;2.0293;
1289.1000;0.5495;2.0221;
1289.4000;0.5503;2.0245;
1289.7000;0.5519;2.0269;
1290.0000;0.5503;2.0317;
1290.3000;0.5503;2.0341;
1290.6000;0.5503;2.0317;
1290.9000;0.5495;2.0341;
1291.2000;0.5511;2.0412;
1291.5000;0.5511;2.0293;
1291.8000;0.5519;2.0341;
1292.1000;0.5527;2.0436;
1292.4000;0.5519;2.0460;
1292.7000;0.5527;2.0531;
1293.0000;0.5511;2.0555;
1293.3000;0.5503;2.0555;
1293.6000;0.5503;2.0436;
1293.9000;0.5511;2.0436;
1294.2000;0.5511;2.0436;
1294.5000;0.5495;2.0436;
1294.8000;0.5519;2.0484;
1295.1000;0.5503;2.0412;
1295.4000;0.5495;2.0364;
1295.7000;0.5503;2.0412;
1296.0000;0.5511;2.0531;
1296.3000;0.5495;2.0460;
1296.6000;0.5462;2.0364;
1296.9000;0.5503;2.0484;
1297.2000;0.5503;2.0484;
1297.5000;0.5495;2.0460;
1297.8000;0.5478;2.0484;
1298.1000;0.5486;2.0531;
1298.4000;0.5495;2.0508;
1298.7000;0.5486;2.0555;
1299.0000;0.5495;2.0531;
1299.3000;0.5503;2.0531;
1299.6000;0.5495;2.0460;
1299.9000;0.5495;2.0508;
1300.2000;0.5495;2.0508;
1300.5000;0.5495;2.0460;
1300.8000;0.5486;2.0460;
1301.1000;0.5495;2.0603;
1301.4000;0.5486;2.0484;
1301.7000;0.5511;2.0388;
1302.0000;0.5503;2.0364;
1302.3000;0.5495;2.0436;
1302.6000;0.5495;2.0436;
1302.9000;0.5486;2.0388;
1303.2000;0.5486;2.0364;
1303.5000;0.5495;2.0317;
1303.8000;0.5486;2.0293;
1304.1000;0.5486;2.0388;
1304.4000;0.5470;2.0341;
1304.7000;0.5503;2.0412;
1305.0000;0.5568;2.0627;
1305.3000;0.5511;2.0508;
1305.6000;0.5503;2.0531;
1305.9000;0.5503;2.0627;
1306.2000;0.5486;2.0651;
1306.5000;0.5519;2.0674;
1306.8000;0.5478;2.0579;
1307.1000;0.5511;2.0555;
1307.4000;0.5503;2.0484;
1307.7000;0.5495;2.0508;
1308.0000;0.5503;2.0508;
1308.3000;0.5486;2.0412;
1308.6000;0.5495;2.0460;
1308.9000;0.5503;2.0579;
1309.2000;0.5495;2.0603;
1309.5000;0.5527;2.0698;
1309.8000;0.5560;2.0770;
1310.1000;0.5495;2.0555;
1310.4000;0.5495;2.0555;
1310.7000;0.5519;2.0555;
1311.0000;0.5503;2.0484;
1311.3000;0.5503;2.0412;
1311.6000;0.5503;2.0412;
1311.9000;0.5495;2.0436;
1312.2000;0.5495;2.0508;
1312.5000;0.5446;2.0364;
1312.8000;0.5478;2.0388;
1313.1000;0.5486;2.0388;
1313.4000;0.5486;2.0269;
1313.7000;0.5486;2.0198;
1314.0000;0.5478;2.0102;
1314.3000;0.5495;2.0126;
1314.6000;0.5486;2.0198;
1314.9000;0.5495;2.0269;
1315.2000;0.5495;2.0293;
1315.5000;0.5495;2.0317;
1315.8000;0.5503;2.0364;
1316.1000;0.5511;2.0484;
1316.4000;0.5511;2.0460;
1316.7000;0.5495;2.0508;
1317.0000;0.5511;2.0508;
1317.3000;0.5511;2.0460;
1317.6000;0.5511;2.0293;
1317.9000;0.5511;2.0269;
1318.2000;0.5486;2.0269;
1318.5000;0.5495;2.0293;
1318.8000;0.5495;2.0245;
1319.1000;0.5495;2.0150;
1319.4000;0.5495;2.0198;
1319.7000;0.5478;2.0174;
1320.0000;0.5503;2.0269;
1320.3000;0.5503;2.0293;
1320.6000;0.5495;2.0269;
1320.9000;0.5454;2.0221;
1321.2000;0.5495;2.0317;
1321.5000;0.5511;2.0364;
1321.8000;0.5495;2.0460;
1322.1000;0.5503;2.0388;
1322.4000;0.5495;2.0388;
1322.7000;0.5511;2.0436;
1323.0000;0.5503;2.0412;
1323.3000;0.5511;2.0364;
1323.6000;0.5495;2.0317;
1323.9000;0.5486;2.0341;
1324.2000;0.5495;2.0341;
1324.5000;0.5495;2.0412;
1324.8000;0.5495;2.0436;
1325.1000;0.5503;2.0436;
1325.4000;0.5511;2.0364;
1325.7000;0.5511;2.0388;
1326.0000;0.5495;2.0341;
1326.3000;0.5503;2.0364;
1326.6000;0.5511;2.0341;
1326.9000;0.5503;2.0412;
1327.2000;0.5462;2.0364;
1327.5000;0.5495;2.0460;
1327.8000;0.5495;2.0412;
1328.1000;0.5511;2.0436;
1328.4000;0.5495;2.0364;
1328.7000;0.5495;2.0364;
1329.0000;0.5495;2.0317;
1329.3000;0.5486;2.0341;
1329.6000;0.5495;2.0221;
1329.9000;0.5503;2.0269;
1330.2000;0.5543;2.0412;
1330.5000;0.5503;2.0317;
1330.8000;0.5511;2.0317;
1331.1000;0.5495;2.0269;
1331.4000;0.5495;2.0317;
1331.7000;0.5503;2.0436;
1332.0000;0.5478;2.0341;
1332.3000;0.5486;2.0317;
1332.6000;0.5495;2.0341;
1332.9000;0.5495;2.0293;
1333.2000;0.5495;2.0317;
1333.5000;0.5503;2.0341;
1333.8000;0.5495;2.0293;
1334.1000;0.5495;2.0341;
1334.4000;0.5503;2.0412;
1334.7000;0.5486;2.0388;
1335.0000;0.5462;2.0269;
1335.3000;0.5511;2.0293;
1335.6000;0.5495;2.0317;
1335.9000;0.5495;2.0317;
1336.2000;0.5495;2.0269;
1336.5000;0.5495;2.0341;
1336.8000;0.5495;2.0341;
1337.1000;0.5511;2.0341;
1337.4000;0.5495;2.0388;
1337.7000;0.5503;2.0508;
1338.0000;0.5511;2.0555;
1338.3000;0.5511;2.0460;
1338.6000;0.5503;2.0484;
1338.9000;0.5478;2.0412;
1339.2000;0.5495;2.0436;
1339.5000;0.5503;2.0436;
1339.8000;0.5503;2.0460;
1340.1000;0.5503;2.0508;
1340.4000;0.5503;2.0579;
1340.7000;0.5519;2.0579;
1341.0000;0.5511;2.0531;
1341.3000;0.5503;2.0484;
1341.6000;0.5503;2.0484;
1341.9000;0.5519;2.0484;
1342.2000;0.5495;2.0364;
1342.5000;0.5503;2.0412;
1342.8000;0.5560;2.0484;
1343.1000;0.5503;2.0317;
1343.4000;0.5503;2.0436;
1343.7000;0.5486;2.0364;
1344.0000;0.5486;2.0364;
1344.3000;0.5470;2.0460;
1344.6000;0.5503;2.0555;
1344.9000;0.5397;2.0341;
1345.2000;0.5503;2.0603;
1345.5000;0.5495;2.0555;
1345.8000;0.5486;2.0555;
1346.1000;0.5486;2.0484;
1346.4000;0.5495;2.0388;
1346.7000;0.5511;2.0317;
1347.0000;0.5478;2.0245;
1347.3000;0.5486;2.0317;
1347.6000;0.5495;2.0245;
1347.9000;0.5503;2.0317;
1348.2000;0.5486;2.0269;
1348.5000;0.5495;2.0221;
1348.8000;0.5486;2.0221;
1349.1000;0.5486;2.0269;
1349.4000;0.5486;2.0317;
1349.7000;0.5503;2.0364;
1350.0000;0.5543;2.0484;
1350.3000;0.5478;2.0293;
1350.6000;0.5535;2.0412;
1350.9000;0.5495;2.0388;
1351.2000;0.5454;2.0269;
1351.5000;0.5503;2.0412;
1351.8000;0.5495;2.0460;
1352.1000;0.5511;2.0484;
1352.4000;0.5462;2.0388;
1352.7000;0.5486;2.0436;
1353.0000;0.5511;2.0412;
1353.3000;0.5495;2.0412;
1353.6000;0.5446;2.0341;
1353.9000;0.5478;2.0341;
1354.2000;0.5495;2.0388;
1354.5000;0.5495;2.0388;
1354.8000;0.5478;2.0317;
1355.1000;0.5495;2.0245;
1355.4000;0.5503;2.0293;
1355.7000;0.5503;2.0341;
1356.0000;0.5495;2.0317;
1356.3000;0.5503;2.0269;
1356.6000;0.5470;2.0198;
1356.9000;0.5503;2.0293;
1357.2000;0.5503;2.0221;
1357.5000;0.5478;2.0198;
1357.8000;0.5511;2.0245;
1358.1000;0.5495;2.0245;
1358.4000;0.5495;2.0317;
1358.7000;0.5454;2.0150;
1359.0000;0.5486;2.0317;
1359.3000;0.5486;2.0245;
1359.6000;0.5519;2.0269;
1359.9000;0.5486;2.0198;
1360.2000;0.5478;2.0245;
1360.5000;0.5486;2.0317;
1360.8000;0.5470;2.0317;
1361.1000;0.5495;2.0364;
1361.4000;0.5478;2.0317;
1361.7000;0.5478;2.0317;
1362.0000;0.5495;2.0364;
1362.3000;0.5495;2.0341;
1362.6000;0.5495;2.0293;
1362.9000;0.5462;2.0174;
1363.2000;0.5495;2.0198;
1363.5000;0.5462;2.0102;
1363.8000;0.5568;2.0412;
1364.1000;0.5486;2.0245;
1364.4000;0.5478;2.0150;
1364.7000;0.5503;2.0174;
1365.0000;0.5503;2.0198;
1365.3000;0.5486;2.0198;
1365.6000;0.5486;2.0269;
1365.9000;0.5486;2.0293;
1366.2000;0.5495;2.0341;
1366.5000;0.5486;2.0412;
1366.8000;0.5551;2.0579;
1367.1000;0.5486;2.0412;
1367.4000;0.5486;2.0436;
1367.7000;0.5511;2.0412;
1368.0000;0.5486;2.0317;
1368.3000;0.5503;2.0317;
1368.6000;0.5495;2.0317;
1368.9000;0.5495;2.0388;
1369.2000;0.5470;2.0269;
1369.5000;0.5478;2.0269;
1369.8000;0.5503;2.0317;
1370.1000;0.5462;2.0221;
1370.4000;0.5495;2.0221;
1370.7000;0.5495;2.0269;
1371.0000;0.5495;2.0293;
1371.3000;0.5495;2.0341;
1371.6000;0.5495;2.0412;
1371.9000;0.5495;2.0293;
1372.2000;0.5486;2.0245;
1372.5000;0.5478;2.0269;
1372.8000;0.5478;2.0245;
1373.1000;0.5478;2.0150;
1373.4000;0.5478;2.0150;
1373.7000;0.5495;2.0221;
1374.0000;0.5495;2.0198;
1374.3000;0.5503;2.0102;
1374.6000;0.5495;2.0150;
1374.9000;0.5503;2.0150;
1375.2000;0.5486;2.0126;
1375.5000;0.5495;2.0126;
1375.8000;0.5478;2.0126;
1376.1000;0.5486;2.0174;
1376.4000;0.5478;2.0245;
1376.7000;0.5495;2.0317;
1377.0000;0.5478;2.0341;
1377.3000;0.5527;2.0412;
1377.6000;0.5511;2.0388;
1377.9000;0.5511;2.0364;
1378.2000;0.5503;2.0317;
1378.5000;0.5486;2.0293;
1378.8000;0.5470;2.0150;
1379.1000;0.5486;2.0174;
1379.4000;0.5486;2.0126;
1379.7000;0.5486;2.0126;
1380.0000;0.5486;2.0221;
1380.3000;0.5470;2.0174;
1380.6000;0.5478;2.0150;
1380.9000;0.5478;2.0221;
1381.2000;0.5495;2.0221;
1381.5000;0.5495;2.0198;
1381.8000;0.5495;2.0198;
1382.1000;0.5421;2.0054;
1382.4000;0.5503;2.0221;
1382.7000;0.5478;2.0126;
1383.0000;0.5495;2.0174;
1383.3000;0.5486;2.0245;
1383.6000;0.5495;2.0150;
1383.9000;0.5478;2.0102;
1384.2000;0.5503;2.0174;
1384.5000;0.5470;2.0126;
1384.8000;0.5478;2.0054;
1385.1000;0.5495;2.0102;
1385.4000;0.5495;2.0126;
1385.7000;0.5495;2.0174;
1386.0000;0.5478;2.0245;
1386.3000;0.5486;2.0174;
1386.6000;0.5503;2.0174;
1386.9000;0.5495;2.0078;
1387.2000;0.5478;2.0007;
1387.5000;0.5495;2.0102;
1387.8000;0.5503;2.0102;
1388.1000;0.5495;2.0126;
1388.4000;0.5519;2.0198;
1388.7000;0.5503;2.0245;
1389.0000;0.5495;2.0317;
1389.3000;0.5503;2.0341;
1389.6000;0.5495;2.0245;
1389.9000;0.5486;2.0198;
1390.2000;0.5495;2.0269;
1390.5000;0.5486;2.0245;
1390.8000;0.5495;2.0245;
1391.1000;0.5495;2.0221;
1391.4000;0.5503;2.0198;
1391.7000;0.5495;2.0150;
1392.0000;0.5495;2.0102;
1392.3000;0.5495;2.0221;
1392.6000;0.5511;2.0221;
1392.9000;0.5503;2.0245;
1393.2000;0.5503;2.0245;
1393.5000;0.5495;2.0245;
1393.8000;0.5511;2.0198;
1394.1000;0.5486;2.0150;
1394.4000;0.5495;2.0221;
1394.7000;0.5486;2.0198;
1395.0000;0.5495;2.0221;
1395.3000;0.5495;2.0198;
1395.6000;0.5503;2.0126;
1395.9000;0.5503;2.0174;
1396.2000;0.5495;2.0174;
1396.5000;0.5486;2.0174;
1396.8000;0.5503;2.0221;
1397.1000;0.5495;2.0221;
1397.4000;0.5486;2.0174;
1397.7000;0.5495;2.0245;
1398.0000;0.5478;2.0293;
1398.3000;0.5495;2.0341;
1398.6000;0.5486;2.0317;
1398.9000;0.5503;2.0364;
1399.2000;0.5486;2.0341;
1399.5000;0.5486;2.0317;
1399.8000;0.5446;2.0174;
