time/ms;Fluo/V;P700 deltaI/I x10³;
-199.8000;0.8555;0.9983;
-199.5000;0.8555;1.0029;
-199.2000;0.8571;1.0029;
-198.9000;0.8531;0.9913;
-198.6000;0.8523;0.9866;
-198.3000;0.8531;0.9959;
-198.0000;0.8539;1.0053;
-197.7000;0.8539;0.9959;
-197.4000;0.8547;0.9959;
-197.1000;0.8547;0.9983;
-196.8000;0.8531;0.9959;
-196.5000;0.8531;0.9936;
-196.2000;0.8531;0.9913;
-195.9000;0.8563;0.9936;
-195.6000;0.8547;0.9796;
-195.3000;0.8539;0.9843;
-195.0000;0.8563;0.9936;
-194.7000;0.8555;0.9913;
-194.4000;0.8588;0.9959;
-194.1000;0.8571;1.0006;
-193.8000;0.8563;1.0006;
-193.5000;0.8571;0.9959;
-193.2000;0.8531;0.9889;
-192.9000;0.8563;0.9959;
-192.6000;0.8555;0.9936;
-192.3000;0.8539;0.9936;
-192.0000;0.8547;0.9936;
-191.7000;0.8555;0.9889;
-191.4000;0.8523;0.9819;
-191.1000;0.8531;0.9843;
-190.8000;0.8531;0.9843;
-190.5000;0.8539;0.9796;
-190.2000;0.8547;0.9796;
-189.9000;0.8555;0.9843;
-189.6000;0.8539;0.9843;
-189.3000;0.8531;0.9889;
-189.0000;0.8547;1.0006;
-188.7000;0.8498;0.9843;
-188.4000;0.8539;0.9959;
-188.1000;0.8539;0.9983;
-187.8000;0.8555;1.0076;
-187.5000;0.8539;1.0006;
-187.2000;0.8563;1.0076;
-186.9000;0.8539;0.9983;
-186.6000;0.8580;1.0053;
-186.3000;0.8555;1.0099;
-186.0000;0.8474;0.9889;
-185.7000;0.8547;1.0076;
-185.4000;0.8531;0.9889;
-185.1000;0.8539;0.9913;
-184.8000;0.8539;0.9959;
-184.5000;0.8555;1.0099;
-184.2000;0.8596;1.0192;
-183.9000;0.8547;1.0053;
-183.6000;0.8547;0.9983;
-183.3000;0.8555;0.9913;
-183.0000;0.8547;0.9959;
-182.7000;0.8457;0.9679;
-182.4000;0.8523;0.9726;
-182.1000;0.8555;0.9843;
-181.8000;0.8523;0.9889;
-181.5000;0.8571;1.0076;
-181.2000;0.8555;1.0076;
-180.9000;0.8547;1.0099;
-180.6000;0.8531;1.0146;
-180.3000;0.8514;1.0146;
-180.0000;0.8563;1.0332;
-179.7000;0.8604;1.0402;
-179.4000;0.8539;1.0309;
-179.1000;0.8547;1.0192;
-178.8000;0.8539;1.0122;
-178.5000;0.8555;1.0239;
-178.2000;0.8539;1.0216;
-177.9000;0.8539;1.0169;
-177.6000;0.8563;1.0169;
-177.3000;0.8539;1.0239;
-177.0000;0.8555;1.0239;
-176.7000;0.8547;1.0239;
-176.4000;0.8604;1.0379;
-176.1000;0.8555;1.0309;
-175.8000;0.8547;1.0379;
-175.5000;0.8547;1.0356;
-175.2000;0.8555;1.0356;
-174.9000;0.8555;1.0262;
-174.6000;0.8547;1.0262;
-174.3000;0.8580;1.0332;
-174.0000;0.8539;1.0169;
-173.7000;0.8563;1.0239;
-173.4000;0.8539;1.0099;
-173.1000;0.8555;1.0146;
-172.8000;0.8555;1.0076;
-172.5000;0.8628;1.0216;
-172.2000;0.8571;1.0029;
-171.9000;0.8555;1.0006;
-171.6000;0.8539;0.9959;
-171.3000;0.8547;1.0029;
-171.0000;0.8474;0.9889;
-170.7000;0.8514;1.0029;
-170.4000;0.8555;1.0192;
-170.1000;0.8514;1.0099;
-169.8000;0.8506;1.0029;
-169.5000;0.8531;1.0192;
-169.2000;0.8539;1.0239;
-168.9000;0.8523;1.0076;
-168.6000;0.8547;1.0053;
-168.3000;0.8547;1.0099;
-168.0000;0.8539;1.0169;
-167.7000;0.8539;1.0146;
-167.4000;0.8555;1.0122;
-167.1000;0.8531;1.0122;
-166.8000;0.8571;1.0239;
-166.5000;0.8539;1.0169;
-166.2000;0.8531;1.0262;
-165.9000;0.8580;1.0379;
-165.6000;0.8531;1.0262;
-165.3000;0.8531;1.0216;
-165.0000;0.8547;1.0239;
-164.7000;0.8563;1.0216;
-164.4000;0.8555;1.0076;
-164.1000;0.8523;0.9959;
-163.8000;0.8547;1.0006;
-163.5000;0.8555;0.9983;
-163.2000;0.8490;0.9913;
-162.9000;0.8523;1.0029;
-162.6000;0.8563;1.0192;
-162.3000;0.8547;1.0216;
-162.0000;0.8547;1.0192;
-161.7000;0.8580;1.0192;
-161.4000;0.8506;0.9983;
-161.1000;0.8685;1.0426;
-160.8000;0.8555;1.0192;
-160.5000;0.8547;1.0146;
-160.2000;0.8539;1.0146;
-159.9000;0.8539;1.0076;
-159.6000;0.8498;0.9959;
-159.3000;0.8547;1.0029;
-159.0000;0.8563;0.9959;
-158.7000;0.8531;0.9866;
-158.4000;0.8514;0.9889;
-158.1000;0.8547;0.9913;
-157.8000;0.8506;0.9889;
-157.5000;0.8531;0.9866;
-157.2000;0.8547;0.9959;
-156.9000;0.8539;0.9983;
-156.6000;0.8539;0.9959;
-156.3000;0.8523;0.9913;
-156.0000;0.8539;0.9983;
-155.7000;0.8555;0.9936;
-155.4000;0.8563;0.9959;
-155.1000;0.8531;0.9889;
-154.8000;0.8555;0.9913;
-154.5000;0.8531;0.9796;
-154.2000;0.8523;0.9773;
-153.9000;0.8539;0.9819;
-153.6000;0.8506;0.9749;
-153.3000;0.8547;0.9703;
-153.0000;0.8539;0.9726;
-152.7000;0.8547;0.9703;
-152.4000;0.8539;0.9679;
-152.1000;0.8539;0.9633;
-151.8000;0.8531;0.9586;
-151.5000;0.8571;0.9656;
-151.2000;0.8547;0.9609;
-150.9000;0.8563;0.9726;
-150.6000;0.8563;0.9796;
-150.3000;0.8563;0.9819;
-150.0000;0.8547;0.9866;
-149.7000;0.8547;0.9866;
-149.4000;0.8523;0.9773;
-149.1000;0.8563;0.9819;
-148.8000;0.8555;0.9936;
-148.5000;0.8523;0.9889;
-148.2000;0.8506;0.9843;
-147.9000;0.8547;0.9773;
-147.6000;0.8539;0.9703;
-147.3000;0.8547;0.9749;
-147.0000;0.8531;0.9796;
-146.7000;0.8539;0.9726;
-146.4000;0.8547;0.9726;
-146.1000;0.8514;0.9656;
-145.8000;0.8563;0.9749;
-145.5000;0.8555;0.9796;
-145.2000;0.8580;0.9796;
-144.9000;0.8539;0.9679;
-144.6000;0.8555;0.9703;
-144.3000;0.8555;0.9796;
-144.0000;0.8547;0.9773;
-143.7000;0.8539;0.9726;
-143.4000;0.8523;0.9796;
-143.1000;0.8539;0.9773;
-142.8000;0.8563;0.9749;
-142.5000;0.8563;0.9843;
-142.2000;0.8547;0.9913;
-141.9000;0.8563;0.9913;
-141.6000;0.8588;1.0029;
-141.3000;0.8514;0.9819;
-141.0000;0.8547;0.9796;
-140.7000;0.8547;0.9749;
-140.4000;0.8571;0.9866;
-140.1000;0.8555;0.9773;
-139.8000;0.8547;0.9819;
-139.5000;0.8498;0.9773;
-139.2000;0.8571;0.9889;
-138.9000;0.8506;0.9726;
-138.6000;0.8563;0.9819;
-138.3000;0.8514;0.9703;
-138.0000;0.8482;0.9703;
-137.7000;0.8523;0.9819;
-137.4000;0.8531;0.9959;
-137.1000;0.8457;0.9796;
-136.8000;0.8531;0.9983;
-136.5000;0.8539;0.9936;
-136.2000;0.8563;0.9936;
-135.9000;0.8539;0.9866;
-135.6000;0.8547;0.9843;
-135.3000;0.8539;0.9819;
-135.0000;0.8531;0.9866;
-134.7000;0.8523;0.9843;
-134.4000;0.8547;0.9843;
-134.1000;0.8563;0.9866;
-133.8000;0.8547;0.9796;
-133.5000;0.8539;0.9726;
-133.2000;0.8539;0.9703;
-132.9000;0.8531;0.9679;
-132.6000;0.8547;0.9749;
-132.3000;0.8539;0.9796;
-132.0000;0.8523;0.9726;
-131.7000;0.8539;0.9819;
-131.4000;0.8563;0.9913;
-131.1000;0.8531;0.9796;
-130.8000;0.8539;0.9819;
-130.5000;0.8547;0.9773;
-130.2000;0.8539;0.9796;
-129.9000;0.8563;0.9843;
-129.6000;0.8547;0.9819;
-129.3000;0.8571;0.9796;
-129.0000;0.8555;0.9773;
-128.7000;0.8563;0.9749;
-128.4000;0.8555;0.9703;
-128.1000;0.8531;0.9679;
-127.8000;0.8531;0.9633;
-127.5000;0.8474;0.9493;
-127.2000;0.8588;0.9796;
-126.9000;0.8539;0.9796;
-126.6000;0.8547;0.9866;
-126.3000;0.8555;0.9843;
-126.0000;0.8555;0.9796;
-125.7000;0.8547;0.9819;
-125.4000;0.8539;0.9843;
-125.1000;0.8547;0.9889;
-124.8000;0.8555;0.9843;
-124.5000;0.8457;0.9563;
-124.2000;0.8563;0.9773;
-123.9000;0.8555;0.9703;
-123.6000;0.8555;0.9773;
-123.3000;0.8547;0.9773;
-123.0000;0.8531;0.9749;
-122.7000;0.8539;0.9819;
-122.4000;0.8571;0.9889;
-122.1000;0.8474;0.9633;
-121.8000;0.8523;0.9843;
-121.5000;0.8539;0.9889;
-121.2000;0.8514;0.9936;
-120.9000;0.8571;1.0006;
-120.6000;0.8523;0.9819;
-120.3000;0.8612;0.9959;
-120.0000;0.8531;0.9796;
-119.7000;0.8555;0.9843;
-119.4000;0.8555;0.9819;
-119.1000;0.8571;0.9843;
-118.8000;0.8539;0.9819;
-118.5000;0.8555;0.9796;
-118.2000;0.8531;0.9749;
-117.9000;0.8523;0.9633;
-117.6000;0.8539;0.9679;
-117.3000;0.8539;0.9749;
-117.0000;0.8596;0.9866;
-116.7000;0.8539;0.9796;
-116.4000;0.8547;0.9819;
-116.1000;0.8539;0.9819;
-115.8000;0.8531;0.9843;
-115.5000;0.8531;0.9796;
-115.2000;0.8555;0.9913;
-114.9000;0.8523;0.9959;
-114.6000;0.8563;1.0053;
-114.3000;0.8539;0.9913;
-114.0000;0.8571;0.9936;
-113.7000;0.8571;0.9913;
-113.4000;0.8531;0.9866;
-113.1000;0.8555;0.9959;
-112.8000;0.8555;0.9936;
-112.5000;0.8539;0.9889;
-112.2000;0.8539;0.9936;
-111.9000;0.8539;0.9866;
-111.6000;0.8531;0.9843;
-111.3000;0.8563;0.9936;
-111.0000;0.8547;0.9843;
-110.7000;0.8555;0.9983;
-110.4000;0.8539;1.0006;
-110.1000;0.8539;1.0053;
-109.8000;0.8547;1.0053;
-109.5000;0.8563;1.0146;
-109.2000;0.8547;1.0029;
-108.9000;0.8571;1.0076;
-108.6000;0.8555;1.0099;
-108.3000;0.8555;1.0099;
-108.0000;0.8555;1.0006;
-107.7000;0.8539;0.9983;
-107.4000;0.8539;0.9936;
-107.1000;0.8555;1.0029;
-106.8000;0.8531;1.0006;
-106.5000;0.8531;0.9983;
-106.2000;0.8563;1.0076;
-105.9000;0.8563;1.0099;
-105.6000;0.8555;1.0076;
-105.3000;0.8531;1.0076;
-105.0000;0.8563;1.0169;
-104.7000;0.8547;1.0169;
-104.4000;0.8547;1.0122;
-104.1000;0.8539;1.0216;
-103.8000;0.8539;1.0146;
-103.5000;0.8580;1.0169;
-103.2000;0.8563;1.0006;
-102.9000;0.8547;1.0006;
-102.6000;0.8539;1.0053;
-102.3000;0.8620;1.0239;
-102.0000;0.8547;1.0006;
-101.7000;0.8547;1.0076;
-101.4000;0.8457;0.9913;
-101.1000;0.8498;1.0053;
-100.8000;0.8539;1.0169;
-100.5000;0.8547;1.0029;
-100.2000;0.8539;0.9936;
-99.9000;0.8531;0.9959;
-99.6000;0.8539;1.0006;
-99.3000;0.8539;0.9889;
-99.0000;0.8547;0.9936;
-98.7000;0.8539;0.9983;
-98.4000;0.8555;1.0006;
-98.1000;0.8514;1.0029;
-97.8000;0.8555;1.0286;
-97.5000;0.8547;1.0146;
-97.2000;0.8523;1.0053;
-96.9000;0.8547;1.0076;
-96.6000;0.8555;1.0053;
-96.3000;0.8555;1.0099;
-96.0000;0.8523;1.0006;
-95.7000;0.8531;0.9959;
-95.4000;0.8539;0.9889;
-95.1000;0.8547;0.9889;
-94.8000;0.8539;0.9959;
-94.5000;0.8531;1.0006;
-94.2000;0.8547;1.0076;
-93.9000;0.8571;1.0053;
-93.6000;0.8523;0.9959;
-93.3000;0.8571;1.0192;
-93.0000;0.8466;0.9913;
-92.7000;0.8547;1.0122;
-92.4000;0.8514;1.0076;
-92.1000;0.8539;1.0029;
-91.8000;0.8539;1.0053;
-91.5000;0.8539;1.0076;
-91.2000;0.8555;1.0146;
-90.9000;0.8539;1.0122;
-90.6000;0.8531;1.0146;
-90.3000;0.8547;1.0099;
-90.0000;0.8555;1.0029;
-89.7000;0.8531;1.0076;
-89.4000;0.8555;1.0169;
-89.1000;0.8539;1.0216;
-88.8000;0.8547;1.0216;
-88.5000;0.8531;1.0146;
-88.2000;0.8547;1.0169;
-87.9000;0.8547;1.0239;
-87.6000;0.8539;1.0262;
-87.3000;0.8563;1.0356;
-87.0000;0.8531;1.0356;
-86.7000;0.8531;1.0379;
-86.4000;0.8563;1.0309;
-86.1000;0.8539;1.0099;
-85.8000;0.8547;1.0029;
-85.5000;0.8547;1.0076;
-85.2000;0.8555;1.0146;
-84.9000;0.8539;1.0053;
-84.6000;0.8547;1.0099;
-84.3000;0.8563;1.0192;
-84.0000;0.8547;1.0146;
-83.7000;0.8555;1.0146;
-83.4000;0.8547;1.0122;
-83.1000;0.8539;1.0216;
-82.8000;0.8547;1.0239;
-82.5000;0.8531;1.0239;
-82.2000;0.8539;1.0262;
-81.9000;0.8531;1.0169;
-81.6000;0.8547;1.0216;
-81.3000;0.8555;1.0216;
-81.0000;0.8514;1.0169;
-80.7000;0.8539;1.0216;
-80.4000;0.8498;1.0169;
-80.1000;0.8523;1.0262;
-79.8000;0.8539;1.0286;
-79.5000;0.8563;1.0356;
-79.2000;0.8506;1.0262;
-78.9000;0.8563;1.0332;
-78.6000;0.8547;1.0309;
-78.3000;0.8555;1.0239;
-78.0000;0.8571;1.0356;
-77.7000;0.8555;1.0356;
-77.4000;0.8547;1.0239;
-77.1000;0.8612;1.0356;
-76.8000;0.8555;1.0262;
-76.5000;0.8547;1.0169;
-76.2000;0.8571;1.0192;
-75.9000;0.8539;1.0122;
-75.6000;0.8531;1.0146;
-75.3000;0.8547;1.0169;
-75.0000;0.8547;1.0122;
-74.7000;0.8539;1.0099;
-74.4000;0.8539;1.0122;
-74.1000;0.8539;1.0122;
-73.8000;0.8531;1.0053;
-73.5000;0.8539;1.0122;
-73.2000;0.8539;1.0029;
-72.9000;0.8547;1.0029;
-72.6000;0.8466;0.9819;
-72.3000;0.8547;1.0053;
-72.0000;0.8523;1.0029;
-71.7000;0.8555;1.0053;
-71.4000;0.8563;1.0076;
-71.1000;0.8531;1.0006;
-70.8000;0.8498;0.9936;
-70.5000;0.8539;1.0099;
-70.2000;0.8539;1.0006;
-69.9000;0.8571;1.0029;
-69.6000;0.8539;0.9936;
-69.3000;0.8547;0.9983;
-69.0000;0.8588;0.9983;
-68.7000;0.8547;0.9866;
-68.4000;0.8571;0.9959;
-68.1000;0.8604;1.0006;
-67.8000;0.8563;1.0006;
-67.5000;0.8563;1.0146;
-67.2000;0.8539;1.0076;
-66.9000;0.8474;0.9866;
-66.6000;0.8539;1.0029;
-66.3000;0.8547;1.0053;
-66.0000;0.8547;1.0076;
-65.7000;0.8539;1.0053;
-65.4000;0.8514;0.9983;
-65.1000;0.8547;1.0006;
-64.8000;0.8523;0.9819;
-64.5000;0.8539;0.9936;
-64.2000;0.8531;1.0076;
-63.9000;0.8539;1.0169;
-63.6000;0.8547;1.0146;
-63.3000;0.8555;1.0122;
-63.0000;0.8539;1.0099;
-62.7000;0.8523;1.0076;
-62.4000;0.8547;1.0122;
-62.1000;0.8539;1.0099;
-61.8000;0.8514;1.0029;
-61.5000;0.8523;1.0006;
-61.2000;0.8547;1.0029;
-60.9000;0.8474;0.9796;
-60.6000;0.8539;1.0006;
-60.3000;0.8539;1.0053;
-60.0000;0.8547;1.0216;
-59.7000;0.8539;1.0192;
-59.4000;0.8547;1.0146;
-59.1000;0.8514;1.0053;
-58.8000;0.8645;1.0309;
-58.5000;0.8547;1.0006;
-58.2000;0.8555;1.0146;
-57.9000;0.8555;1.0192;
-57.6000;0.8523;1.0029;
-57.3000;0.8547;1.0076;
-57.0000;0.8547;0.9936;
-56.7000;0.8555;0.9959;
-56.4000;0.8539;0.9936;
-56.1000;0.8523;0.9959;
-55.8000;0.8547;1.0006;
-55.5000;0.8547;0.9936;
-55.2000;0.8563;1.0006;
-54.9000;0.8539;0.9959;
-54.6000;0.8547;1.0006;
-54.3000;0.8539;1.0029;
-54.0000;0.8588;1.0122;
-53.7000;0.8571;1.0006;
-53.4000;0.8555;0.9959;
-53.1000;0.8547;0.9936;
-52.8000;0.8547;0.9843;
-52.5000;0.8539;0.9749;
-52.2000;0.8563;0.9796;
-51.9000;0.8555;0.9796;
-51.6000;0.8547;0.9749;
-51.3000;0.8547;0.9773;
-51.0000;0.8653;1.0053;
-50.7000;0.8539;0.9796;
-50.4000;0.8547;0.9796;
-50.1000;0.8514;0.9843;
-49.8000;0.8523;0.9936;
-49.5000;0.8539;1.0053;
-49.2000;0.8531;1.0076;
-48.9000;0.8531;1.0076;
-48.6000;0.8514;1.0006;
-48.3000;0.8531;1.0006;
-48.0000;0.8531;0.9959;
-47.7000;0.8531;0.9913;
-47.4000;0.8531;0.9866;
-47.1000;0.8547;0.9913;
-46.8000;0.8539;0.9889;
-46.5000;0.8555;0.9913;
-46.2000;0.8563;0.9866;
-45.9000;0.8563;0.9866;
-45.6000;0.8563;0.9819;
-45.3000;0.8555;0.9796;
-45.0000;0.8563;0.9726;
-44.7000;0.8547;0.9726;
-44.4000;0.8571;0.9913;
-44.1000;0.8523;0.9866;
-43.8000;0.8514;0.9796;
-43.5000;0.8563;1.0006;
-43.2000;0.8523;0.9889;
-42.9000;0.8523;0.9866;
-42.6000;0.8466;0.9703;
-42.3000;0.8523;0.9819;
-42.0000;0.8612;0.9983;
-41.7000;0.8563;0.9913;
-41.4000;0.8563;0.9936;
-41.1000;0.8523;0.9843;
-40.8000;0.8588;0.9936;
-40.5000;0.8555;0.9889;
-40.2000;0.8539;0.9959;
-39.9000;0.8514;0.9936;
-39.6000;0.8539;1.0029;
-39.3000;0.8539;1.0076;
-39.0000;0.8539;1.0029;
-38.7000;0.8539;1.0053;
-38.4000;0.8514;0.9936;
-38.1000;0.8539;0.9959;
-37.8000;0.8580;0.9983;
-37.5000;0.8547;1.0006;
-37.2000;0.8531;1.0006;
-36.9000;0.8523;0.9936;
-36.6000;0.8539;1.0006;
-36.3000;0.8555;0.9959;
-36.0000;0.8539;0.9866;
-35.7000;0.8539;0.9796;
-35.4000;0.8547;0.9773;
-35.1000;0.8563;0.9773;
-34.8000;0.8539;0.9773;
-34.5000;0.8539;0.9819;
-34.2000;0.8514;0.9679;
-33.9000;0.8547;0.9819;
-33.6000;0.8547;0.9819;
-33.3000;0.8523;0.9726;
-33.0000;0.8514;0.9796;
-32.7000;0.8645;1.0099;
-32.4000;0.8547;0.9913;
-32.1000;0.8555;0.9983;
-31.8000;0.8588;1.0053;
-31.5000;0.8555;0.9936;
-31.2000;0.8474;0.9726;
-30.9000;0.8523;0.9913;
-30.6000;0.8449;0.9656;
-30.3000;0.8547;0.9866;
-30.0000;0.8555;0.9843;
-29.7000;0.8653;1.0076;
-29.4000;0.8555;0.9889;
-29.1000;0.8506;0.9679;
-28.8000;0.8531;0.9866;
-28.5000;0.8547;0.9936;
-28.2000;0.8539;0.9913;
-27.9000;0.8555;0.9889;
-27.6000;0.8555;0.9936;
-27.3000;0.8604;0.9959;
-27.0000;0.8466;0.9703;
-26.7000;0.8547;0.9843;
-26.4000;0.8555;0.9819;
-26.1000;0.8547;0.9843;
-25.8000;0.8547;0.9819;
-25.5000;0.8547;0.9843;
-25.2000;0.8531;0.9773;
-24.9000;0.8571;0.9773;
-24.6000;0.8539;0.9796;
-24.3000;0.8539;0.9773;
-24.0000;0.8580;0.9796;
-23.7000;0.8531;0.9679;
-23.4000;0.8547;0.9773;
-23.1000;0.8547;0.9866;
-22.8000;0.8547;0.9866;
-22.5000;0.8547;0.9913;
-22.2000;0.8547;0.9889;
-21.9000;0.8547;0.9983;
-21.6000;0.8588;1.0146;
-21.3000;0.8555;0.9959;
-21.0000;0.8547;0.9983;
-20.7000;0.8661;1.0239;
-20.4000;0.8547;1.0099;
-20.1000;0.8531;1.0053;
-19.8000;0.8547;1.0053;
-19.5000;0.8539;1.0099;
-19.2000;0.8523;1.0099;
-18.9000;0.8539;1.0122;
-18.6000;0.8523;1.0006;
-18.3000;0.8547;1.0053;
-18.0000;0.8531;1.0122;
-17.7000;0.8539;1.0006;
-17.4000;0.8571;1.0029;
-17.1000;0.8547;1.0029;
-16.8000;0.8531;0.9889;
-16.5000;0.8514;0.9889;
-16.2000;0.8580;1.0006;
-15.9000;0.8547;0.9983;
-15.6000;0.8523;0.9866;
-15.3000;0.8539;0.9983;
-15.0000;0.8523;1.0006;
-14.7000;0.8563;1.0146;
-14.4000;0.8555;1.0076;
-14.1000;0.8547;1.0029;
-13.8000;0.8523;1.0029;
-13.5000;0.8539;1.0076;
-13.2000;0.8523;0.9936;
-12.9000;0.8531;1.0029;
-12.6000;0.8547;1.0029;
-12.3000;0.8531;1.0076;
-12.0000;0.8539;1.0053;
-11.7000;0.8539;1.0029;
-11.4000;0.8588;1.0122;
-11.1000;0.8514;0.9959;
-10.8000;0.8539;1.0006;
-10.5000;0.8523;0.9913;
-10.2000;0.8539;0.9983;
-9.9000;0.8555;0.9983;
-9.6000;0.8547;1.0006;
-9.3000;0.8653;1.0239;
-9.0000;0.8547;1.0029;
-8.7000;0.8539;1.0076;
-8.4000;0.8523;1.0029;
-8.1000;0.8555;1.0099;
-7.8000;0.8637;1.0239;
-7.5000;0.8466;0.9796;
-7.2000;0.8563;0.9936;
-6.9000;0.8547;0.9819;
-6.6000;0.8547;0.9796;
-6.3000;0.8531;0.9866;
-6.0000;0.8539;0.9843;
-5.7000;0.8555;0.9983;
-5.4000;0.8523;0.9936;
-5.1000;0.8547;0.9959;
-4.8000;0.8555;1.0053;
-4.5000;0.8547;1.0146;
-4.2000;0.8571;1.0262;
-3.9000;0.8547;1.0192;
-3.6000;0.8580;1.0309;
-3.3000;0.8523;1.0122;
-3.0000;0.8539;1.0076;
-2.7000;0.8523;1.0006;
-2.4000;0.8539;1.0029;
-2.1000;0.8531;0.9983;
-1.8000;0.8555;1.0006;
-1.5000;0.8555;1.0029;
-1.2000;0.8547;1.0053;
-0.9000;0.8531;1.0076;
-0.6000;0.8547;1.0053;
-0.3000;0.8523;1.0006;
0.0000;0.8523;1.0006;
0.3000;0.8571;0.9866;
0.6000;0.8653;1.0076;
0.9000;0.8702;1.0262;
1.2000;0.8742;1.0426;
1.5000;0.8791;1.0636;
1.8000;0.8799;1.0752;
2.1000;0.8840;1.0939;
2.4000;0.8856;1.1009;
2.7000;0.8864;1.1125;
3.0000;0.8897;1.1265;
3.3000;0.8921;1.1359;
3.6000;0.8889;1.1429;
3.9000;0.8938;1.1569;
4.2000;0.8938;1.1545;
4.5000;0.8978;1.1639;
4.8000;0.8962;1.1545;
5.1000;0.8987;1.1592;
5.4000;0.8987;1.1755;
5.7000;0.9003;1.1825;
6.0000;0.9011;1.1778;
6.3000;0.9011;1.1825;
6.6000;0.9044;1.1942;
6.9000;0.9035;1.1988;
7.2000;0.9068;1.2058;
7.5000;0.9084;1.2058;
7.8000;0.9035;1.1872;
8.1000;0.9052;1.1918;
8.4000;0.9052;1.1895;
8.7000;0.9068;1.1872;
9.0000;0.9068;1.1918;
9.3000;0.9084;1.1965;
9.6000;0.9092;1.1895;
9.9000;0.9084;1.1872;
10.2000;0.9084;1.1778;
10.5000;0.9109;1.1918;
10.8000;0.9109;1.1895;
11.1000;0.9109;1.1942;
11.4000;0.9109;1.1942;
11.7000;0.9158;1.2152;
12.0000;0.9092;1.1965;
12.3000;0.9125;1.2082;
12.6000;0.9198;1.2152;
12.9000;0.9141;1.1942;
13.2000;0.9117;1.1848;
13.5000;0.9149;1.1965;
13.8000;0.9174;1.1988;
14.1000;0.9133;1.1848;
14.4000;0.9158;1.1825;
14.7000;0.9174;1.1895;
15.0000;0.9133;1.1778;
15.3000;0.9158;1.1755;
15.6000;0.9166;1.1848;
15.9000;0.9158;1.1872;
16.2000;0.9166;1.1918;
16.5000;0.9166;1.1942;
16.8000;0.9174;1.2058;
17.1000;0.9174;1.1988;
17.4000;0.9182;1.1988;
17.7000;0.9182;1.1965;
18.0000;0.9198;1.1942;
18.3000;0.9182;1.1918;
18.6000;0.9190;1.1918;
18.9000;0.9280;1.2058;
19.2000;0.9182;1.1872;
19.5000;0.9182;1.1965;
19.8000;0.9182;1.1942;
20.1000;0.9198;1.1942;
20.4000;0.9182;1.1895;
20.7000;0.9190;1.1825;
21.0000;0.9182;1.1732;
21.3000;0.9190;1.1732;
21.6000;0.9198;1.1755;
21.9000;0.9198;1.1778;
22.2000;0.9206;1.1778;
22.5000;0.9223;1.1802;
22.8000;0.9198;1.1778;
23.1000;0.9198;1.1802;
23.4000;0.9206;1.1732;
23.7000;0.9182;1.1708;
24.0000;0.9182;1.1639;
24.3000;0.9198;1.1615;
24.6000;0.9223;1.1662;
24.9000;0.9239;1.1708;
25.2000;0.9223;1.1708;
25.5000;0.9223;1.1732;
25.8000;0.9206;1.1755;
26.1000;0.9231;1.1755;
26.4000;0.9239;1.1592;
26.7000;0.9223;1.1522;
27.0000;0.9231;1.1499;
27.3000;0.9239;1.1545;
27.6000;0.9247;1.1592;
27.9000;0.9231;1.1569;
28.2000;0.9231;1.1522;
28.5000;0.9239;1.1592;
28.8000;0.9247;1.1592;
29.1000;0.9239;1.1569;
29.4000;0.9247;1.1475;
29.7000;0.9239;1.1405;
30.0000;0.9239;1.1359;
30.3000;0.9231;1.1359;
30.6000;0.9231;1.1312;
30.9000;0.9223;1.1265;
31.2000;0.9239;1.1265;
31.5000;0.9280;1.1452;
31.8000;0.9239;1.1335;
32.1000;0.9247;1.1335;
32.4000;0.9223;1.1405;
32.7000;0.9312;1.1708;
33.0000;0.9239;1.1592;
33.3000;0.9247;1.1639;
33.6000;0.9247;1.1545;
33.9000;0.9076;1.1219;
34.2000;0.9247;1.1662;
34.5000;0.9239;1.1615;
34.8000;0.9198;1.1452;
35.1000;0.9223;1.1429;
35.4000;0.9231;1.1335;
35.7000;0.9223;1.1289;
36.0000;0.9231;1.1289;
36.3000;0.9247;1.1312;
36.6000;0.9247;1.1429;
36.9000;0.9231;1.1452;
37.2000;0.9206;1.1429;
37.5000;0.9247;1.1545;
37.8000;0.9239;1.1522;
38.1000;0.9231;1.1452;
38.4000;0.9247;1.1475;
38.7000;0.9247;1.1499;
39.0000;0.9345;1.1639;
39.3000;0.9247;1.1405;
39.6000;0.9247;1.1359;
39.9000;0.9214;1.1335;
40.2000;0.9223;1.1289;
40.5000;0.9239;1.1312;
40.8000;0.9239;1.1312;
41.1000;0.9255;1.1335;
41.4000;0.9239;1.1289;
41.7000;0.9255;1.1359;
42.0000;0.9296;1.1475;
42.3000;0.9247;1.1452;
42.6000;0.9239;1.1522;
42.9000;0.9255;1.1522;
43.2000;0.9263;1.1475;
43.5000;0.9263;1.1499;
43.8000;0.9353;1.1708;
44.1000;0.9263;1.1592;
44.4000;0.9223;1.1522;
44.7000;0.9239;1.1569;
45.0000;0.9239;1.1615;
45.3000;0.9255;1.1685;
45.6000;0.9247;1.1592;
45.9000;0.9255;1.1615;
46.2000;0.9166;1.1382;
46.5000;0.9255;1.1569;
46.8000;0.9263;1.1592;
47.1000;0.9231;1.1592;
47.4000;0.9239;1.1545;
47.7000;0.9255;1.1569;
48.0000;0.9255;1.1545;
48.3000;0.9214;1.1499;
48.6000;0.9271;1.1522;
48.9000;0.9255;1.1335;
49.2000;0.9231;1.1335;
49.5000;0.9255;1.1359;
49.8000;0.9255;1.1312;
50.1000;0.9255;1.1359;
50.4000;0.9247;1.1359;
50.7000;0.9263;1.1499;
51.0000;0.9239;1.1499;
51.3000;0.9239;1.1452;
51.6000;0.9239;1.1475;
51.9000;0.9280;1.1592;
52.2000;0.9263;1.1545;
52.5000;0.9239;1.1545;
52.8000;0.9255;1.1662;
53.1000;0.9263;1.1639;
53.4000;0.9247;1.1569;
53.7000;0.9255;1.1569;
54.0000;0.9223;1.1475;
54.3000;0.9239;1.1499;
54.6000;0.9263;1.1522;
54.9000;0.9239;1.1452;
55.2000;0.9255;1.1499;
55.5000;0.9247;1.1475;
55.8000;0.9255;1.1382;
56.1000;0.9247;1.1359;
56.4000;0.9255;1.1452;
56.7000;0.9223;1.1475;
57.0000;0.9247;1.1615;
57.3000;0.9239;1.1662;
57.6000;0.9263;1.1755;
57.9000;0.9239;1.1615;
58.2000;0.9133;1.1405;
58.5000;0.9247;1.1755;
58.8000;0.9255;1.1802;
59.1000;0.9320;1.1895;
59.4000;0.9271;1.1825;
59.7000;0.9231;1.1755;
60.0000;0.9239;1.1755;
60.3000;0.9263;1.1755;
60.6000;0.9247;1.1592;
60.9000;0.9263;1.1475;
61.2000;0.9247;1.1405;
61.5000;0.9206;1.1359;
61.8000;0.9255;1.1429;
62.1000;0.9263;1.1475;
62.4000;0.9271;1.1499;
62.7000;0.9231;1.1429;
63.0000;0.9223;1.1359;
63.3000;0.9231;1.1405;
63.6000;0.9255;1.1475;
63.9000;0.9288;1.1522;
64.2000;0.9206;1.1429;
64.5000;0.9247;1.1569;
64.8000;0.9247;1.1545;
65.1000;0.9239;1.1522;
65.4000;0.9214;1.1452;
65.7000;0.9247;1.1429;
66.0000;0.9255;1.1382;
66.3000;0.9247;1.1405;
66.6000;0.9247;1.1475;
66.9000;0.9231;1.1405;
67.2000;0.9247;1.1429;
67.5000;0.9247;1.1429;
67.8000;0.9271;1.1499;
68.1000;0.9263;1.1499;
68.4000;0.9255;1.1335;
68.7000;0.9263;1.1452;
69.0000;0.9271;1.1592;
69.3000;0.9247;1.1499;
69.6000;0.9255;1.1475;
69.9000;0.9271;1.1452;
70.2000;0.9255;1.1335;
70.5000;0.9255;1.1382;
70.8000;0.9263;1.1382;
71.1000;0.9288;1.1452;
71.4000;0.9255;1.1499;
71.7000;0.9255;1.1592;
72.0000;0.9239;1.1475;
72.3000;0.9214;1.1382;
72.6000;0.9263;1.1499;
72.9000;0.9231;1.1429;
73.2000;0.9255;1.1499;
73.5000;0.9247;1.1569;
73.8000;0.9231;1.1452;
74.1000;0.9271;1.1475;
74.4000;0.9206;1.1312;
74.7000;0.9263;1.1405;
75.0000;0.9263;1.1382;
75.3000;0.9231;1.1382;
75.6000;0.9247;1.1359;
75.9000;0.9263;1.1312;
76.2000;0.9255;1.1312;
76.5000;0.9263;1.1219;
76.8000;0.9263;1.1265;
77.1000;0.9231;1.1149;
77.4000;0.9255;1.1289;
77.7000;0.9361;1.1592;
78.0000;0.9271;1.1499;
78.3000;0.9255;1.1382;
78.6000;0.9271;1.1335;
78.9000;0.9255;1.1359;
79.2000;0.9214;1.1219;
79.5000;0.9271;1.1429;
79.8000;0.9231;1.1429;
80.1000;0.9271;1.1429;
80.4000;0.9263;1.1429;
80.7000;0.9247;1.1335;
81.0000;0.9247;1.1429;
81.3000;0.9231;1.1382;
81.6000;0.9263;1.1475;
81.9000;0.9231;1.1452;
82.2000;0.9206;1.1382;
82.5000;0.9239;1.1475;
82.8000;0.9271;1.1499;
83.1000;0.9296;1.1522;
83.4000;0.9255;1.1405;
83.7000;0.9280;1.1405;
84.0000;0.9239;1.1335;
84.3000;0.9239;1.1382;
84.6000;0.9280;1.1475;
84.9000;0.9255;1.1452;
85.2000;0.9247;1.1359;
85.5000;0.9263;1.1382;
85.8000;0.9247;1.1312;
86.1000;0.9271;1.1312;
86.4000;0.9255;1.1312;
86.7000;0.9361;1.1569;
87.0000;0.9271;1.1335;
87.3000;0.9271;1.1382;
87.6000;0.9263;1.1382;
87.9000;0.9255;1.1335;
88.2000;0.9239;1.1265;
88.5000;0.9247;1.1359;
88.8000;0.9198;1.1359;
89.1000;0.9239;1.1522;
89.4000;0.9255;1.1639;
89.7000;0.9239;1.1592;
90.0000;0.9271;1.1545;
90.3000;0.9263;1.1429;
90.6000;0.9239;1.1405;
90.9000;0.9206;1.1289;
91.2000;0.9231;1.1242;
91.5000;0.9231;1.1289;
91.8000;0.9280;1.1335;
92.1000;0.9255;1.1289;
92.4000;0.9271;1.1335;
92.7000;0.9255;1.1312;
93.0000;0.9255;1.1359;
93.3000;0.9255;1.1335;
93.6000;0.9255;1.1452;
93.9000;0.9255;1.1499;
94.2000;0.9263;1.1475;
94.5000;0.9288;1.1522;
94.8000;0.9263;1.1499;
95.1000;0.9255;1.1382;
95.4000;0.9263;1.1405;
95.7000;0.9247;1.1429;
96.0000;0.9206;1.1335;
96.3000;0.9263;1.1452;
96.6000;0.9263;1.1429;
96.9000;0.9255;1.1522;
97.2000;0.9247;1.1499;
97.5000;0.9255;1.1522;
97.8000;0.9263;1.1569;
98.1000;0.9271;1.1499;
98.4000;0.9255;1.1359;
98.7000;0.9247;1.1382;
99.0000;0.9288;1.1452;
99.3000;0.9263;1.1592;
99.6000;0.9280;1.1615;
99.9000;0.9271;1.1545;
100.2000;0.9255;1.1522;
100.5000;0.9271;1.1615;
100.8000;0.9271;1.1592;
101.1000;0.9206;1.1452;
101.4000;0.9263;1.1592;
101.7000;0.9247;1.1592;
102.0000;0.9263;1.1569;
102.3000;0.9271;1.1569;
102.6000;0.9263;1.1475;
102.9000;0.9247;1.1499;
103.2000;0.9263;1.1639;
103.5000;0.9223;1.1615;
103.8000;0.9263;1.1615;
104.1000;0.9255;1.1732;
104.4000;0.9255;1.1802;
104.7000;0.9247;1.1848;
105.0000;0.9271;1.1895;
105.3000;0.9263;1.1778;
105.6000;0.9271;1.1802;
105.9000;0.9247;1.1778;
106.2000;0.9231;1.1755;
106.5000;0.9206;1.1685;
106.8000;0.9271;1.1662;
107.1000;0.9239;1.1569;
107.4000;0.9255;1.1639;
107.7000;0.9247;1.1662;
108.0000;0.9247;1.1615;
108.3000;0.9231;1.1615;
108.6000;0.9247;1.1569;
108.9000;0.9247;1.1545;
109.2000;0.9239;1.1475;
109.5000;0.9255;1.1545;
109.8000;0.9149;1.1289;
110.1000;0.9255;1.1475;
110.4000;0.9247;1.1545;
110.7000;0.9206;1.1545;
111.0000;0.9288;1.1755;
111.3000;0.9206;1.1475;
111.6000;0.9239;1.1615;
111.9000;0.9239;1.1639;
112.2000;0.9263;1.1639;
112.5000;0.9263;1.1708;
112.8000;0.9231;1.1592;
113.1000;0.9255;1.1592;
113.4000;0.9271;1.1615;
113.7000;0.9271;1.1615;
114.0000;0.9255;1.1545;
114.3000;0.9255;1.1499;
114.6000;0.9263;1.1499;
114.9000;0.9255;1.1475;
115.2000;0.9247;1.1545;
115.5000;0.9247;1.1662;
115.8000;0.9198;1.1499;
116.1000;0.9231;1.1592;
116.4000;0.9255;1.1639;
116.7000;0.9231;1.1662;
117.0000;0.9255;1.1708;
117.3000;0.9255;1.1802;
117.6000;0.9239;1.1662;
117.9000;0.9255;1.1685;
118.2000;0.9255;1.1732;
118.5000;0.9255;1.1802;
118.8000;0.9239;1.1778;
119.1000;0.9239;1.1825;
119.4000;0.9239;1.1872;
119.7000;0.9255;1.1848;
120.0000;0.9247;1.1802;
120.3000;0.9247;1.1778;
120.6000;0.9239;1.1685;
120.9000;0.9271;1.1639;
121.2000;0.9255;1.1569;
121.5000;0.9239;1.1592;
121.8000;0.9247;1.1522;
122.1000;0.9247;1.1615;
122.4000;0.9263;1.1499;
122.7000;0.9263;1.1499;
123.0000;0.9231;1.1405;
123.3000;0.9206;1.1359;
123.6000;0.9304;1.1592;
123.9000;0.9247;1.1569;
124.2000;0.9239;1.1545;
124.5000;0.9263;1.1615;
124.8000;0.9214;1.1475;
125.1000;0.9255;1.1499;
125.4000;0.9255;1.1522;
125.7000;0.9247;1.1522;
126.0000;0.9247;1.1569;
126.3000;0.9263;1.1615;
126.6000;0.9263;1.1592;
126.9000;0.9296;1.1732;
127.2000;0.9247;1.1639;
127.5000;0.9271;1.1569;
127.8000;0.9255;1.1429;
128.1000;0.9247;1.1382;
128.4000;0.9255;1.1382;
128.7000;0.9263;1.1382;
129.0000;0.9255;1.1359;
129.3000;0.9231;1.1312;
129.6000;0.9239;1.1452;
129.9000;0.9214;1.1405;
130.2000;0.9239;1.1499;
130.5000;0.9247;1.1545;
130.8000;0.9247;1.1499;
131.1000;0.9271;1.1545;
131.4000;0.9255;1.1545;
131.7000;0.9263;1.1522;
132.0000;0.9247;1.1429;
132.3000;0.9255;1.1499;
132.6000;0.9247;1.1569;
132.9000;0.9174;1.1452;
133.2000;0.9239;1.1592;
133.5000;0.9239;1.1499;
133.8000;0.9255;1.1522;
134.1000;0.9239;1.1522;
134.4000;0.9231;1.1522;
134.7000;0.9239;1.1569;
135.0000;0.9223;1.1522;
135.3000;0.9263;1.1615;
135.6000;0.9231;1.1662;
135.9000;0.9214;1.1732;
136.2000;0.9288;1.1802;
136.5000;0.9239;1.1732;
136.8000;0.9239;1.1755;
137.1000;0.9239;1.1732;
137.4000;0.9239;1.1732;
137.7000;0.9255;1.1778;
138.0000;0.9247;1.1778;
138.3000;0.9239;1.1732;
138.6000;0.9247;1.1685;
138.9000;0.9231;1.1592;
139.2000;0.9255;1.1592;
139.5000;0.9231;1.1569;
139.8000;0.9239;1.1569;
140.1000;0.9255;1.1662;
140.4000;0.9271;1.1592;
140.7000;0.9255;1.1545;
141.0000;0.9247;1.1522;
141.3000;0.9255;1.1522;
141.6000;0.9271;1.1615;
141.9000;0.9239;1.1545;
142.2000;0.9247;1.1592;
142.5000;0.9255;1.1592;
142.8000;0.9255;1.1615;
143.1000;0.9247;1.1522;
143.4000;0.9223;1.1429;
143.7000;0.9231;1.1499;
144.0000;0.9223;1.1405;
144.3000;0.9231;1.1452;
144.6000;0.9223;1.1452;
144.9000;0.9223;1.1545;
145.2000;0.9271;1.1662;
145.5000;0.9231;1.1662;
145.8000;0.9280;1.1825;
146.1000;0.9206;1.1615;
146.4000;0.9361;1.1942;
146.7000;0.9247;1.1685;
147.0000;0.9198;1.1615;
147.3000;0.9239;1.1848;
147.6000;0.9239;1.1825;
147.9000;0.9247;1.1802;
148.2000;0.9263;1.1755;
148.5000;0.9239;1.1755;
148.8000;0.9239;1.1732;
149.1000;0.9247;1.1848;
149.4000;0.9263;1.1918;
149.7000;0.9190;1.1708;
150.0000;0.9239;1.1778;
150.3000;0.9247;1.1802;
150.6000;0.9239;1.1778;
150.9000;0.9223;1.1662;
151.2000;0.9247;1.1755;
151.5000;0.9231;1.1685;
151.8000;0.9255;1.1755;
152.1000;0.9239;1.1732;
152.4000;0.9174;1.1569;
152.7000;0.9280;1.1872;
153.0000;0.9247;1.1848;
153.3000;0.9231;1.1918;
153.6000;0.9239;1.1965;
153.9000;0.9231;1.1988;
154.2000;0.9239;1.1988;
154.5000;0.9312;1.2105;
154.8000;0.9239;1.1872;
155.1000;0.9239;1.1708;
155.4000;0.9255;1.1569;
155.7000;0.9125;1.1405;
156.0000;0.9239;1.1708;
156.3000;0.9231;1.1732;
156.6000;0.9247;1.1778;
156.9000;0.9255;1.1825;
157.2000;0.9247;1.1895;
157.5000;0.9214;1.1825;
157.8000;0.9206;1.1802;
158.1000;0.9247;1.1918;
158.4000;0.9255;1.1918;
158.7000;0.9247;1.1942;
159.0000;0.9231;1.1942;
159.3000;0.9247;1.1918;
159.6000;0.9231;1.1895;
159.9000;0.9231;1.1848;
160.2000;0.9255;1.1778;
160.5000;0.9247;1.1708;
160.8000;0.9223;1.1685;
161.1000;0.9247;1.1802;
161.4000;0.9263;1.1872;
161.7000;0.9223;1.1942;
162.0000;0.9255;1.1942;
162.3000;0.9247;1.1895;
162.6000;0.9223;1.1872;
162.9000;0.9231;1.1825;
163.2000;0.9239;1.1895;
163.5000;0.9239;1.1918;
163.8000;0.9231;1.1942;
164.1000;0.9231;1.1872;
164.4000;0.9206;1.1918;
164.7000;0.9255;1.2035;
165.0000;0.9231;1.1942;
165.3000;0.9231;1.2012;
165.6000;0.9214;1.1942;
165.9000;0.9214;1.2058;
166.2000;0.9296;1.2292;
166.5000;0.9288;1.2222;
166.8000;0.9239;1.2035;
167.1000;0.9247;1.2058;
167.4000;0.9231;1.1965;
167.7000;0.9223;1.1848;
168.0000;0.9247;1.1825;
168.3000;0.9182;1.1755;
168.6000;0.9239;1.1895;
168.9000;0.9239;1.1918;
169.2000;0.9247;1.1918;
169.5000;0.9223;1.1895;
169.8000;0.9247;1.1988;
170.1000;0.9239;1.1895;
170.4000;0.9231;1.1872;
170.7000;0.9239;1.1872;
171.0000;0.9231;1.1848;
171.3000;0.9247;1.1848;
171.6000;0.9280;1.1848;
171.9000;0.9239;1.1778;
172.2000;0.9247;1.1732;
172.5000;0.9231;1.1639;
172.8000;0.9247;1.1592;
173.1000;0.9239;1.1545;
173.4000;0.9255;1.1662;
173.7000;0.9239;1.1615;
174.0000;0.9239;1.1592;
174.3000;0.9247;1.1615;
174.6000;0.9214;1.1662;
174.9000;0.9166;1.1522;
175.2000;0.9198;1.1615;
175.5000;0.9239;1.1708;
175.8000;0.9239;1.1708;
176.1000;0.9247;1.1778;
176.4000;0.9223;1.1708;
176.7000;0.9214;1.1639;
177.0000;0.9296;1.1895;
177.3000;0.9247;1.1755;
177.6000;0.9312;1.1942;
177.9000;0.9255;1.1825;
178.2000;0.9247;1.1825;
178.5000;0.9263;1.1778;
178.8000;0.9280;1.1872;
179.1000;0.9255;1.1825;
179.4000;0.9353;1.2012;
179.7000;0.9255;1.1755;
180.0000;0.9247;1.1732;
180.3000;0.9223;1.1708;
180.6000;0.9149;1.1499;
180.9000;0.9231;1.1685;
181.2000;0.9223;1.1615;
181.5000;0.9239;1.1545;
181.8000;0.9320;1.1662;
182.1000;0.9288;1.1639;
182.4000;0.9247;1.1615;
182.7000;0.9231;1.1685;
183.0000;0.9182;1.1592;
183.3000;0.9239;1.1755;
183.6000;0.9198;1.1592;
183.9000;0.9247;1.1732;
184.2000;0.9263;1.1755;
184.5000;0.9239;1.1755;
184.8000;0.9231;1.1755;
185.1000;0.9271;1.1872;
185.4000;0.9239;1.1778;
185.7000;0.9206;1.1662;
186.0000;0.9214;1.1592;
186.3000;0.9198;1.1475;
186.6000;0.9239;1.1569;
186.9000;0.9223;1.1592;
187.2000;0.9223;1.1592;
187.5000;0.9239;1.1569;
187.8000;0.9353;1.1825;
188.1000;0.9174;1.1382;
188.4000;0.9190;1.1522;
188.7000;0.9214;1.1615;
189.0000;0.9247;1.1592;
189.3000;0.9223;1.1475;
189.6000;0.9239;1.1475;
189.9000;0.9239;1.1382;
190.2000;0.9247;1.1405;
190.5000;0.9263;1.1452;
190.8000;0.9239;1.1429;
191.1000;0.9247;1.1452;
191.4000;0.9223;1.1335;
191.7000;0.9231;1.1405;
192.0000;0.9263;1.1545;
192.3000;0.9214;1.1475;
192.6000;0.9239;1.1545;
192.9000;0.9239;1.1615;
193.2000;0.9214;1.1592;
193.5000;0.9223;1.1592;
193.8000;0.9239;1.1499;
194.1000;0.9263;1.1592;
194.4000;0.9255;1.1499;
194.7000;0.9239;1.1359;
195.0000;0.9320;1.1499;
195.3000;0.9280;1.1452;
195.6000;0.9263;1.1475;
195.9000;0.9214;1.1429;
196.2000;0.9231;1.1499;
196.5000;0.9255;1.1545;
196.8000;0.9239;1.1522;
197.1000;0.9214;1.1382;
197.4000;0.9223;1.1545;
197.7000;0.9214;1.1569;
198.0000;0.9214;1.1615;
198.3000;0.9182;1.1499;
198.6000;0.9271;1.1732;
198.9000;0.9247;1.1662;
199.2000;0.9239;1.1615;
199.5000;0.9239;1.1569;
199.8000;0.9296;1.1685;
200.1000;0.9239;1.1592;
200.4000;0.9239;1.1499;
200.7000;0.9231;1.1452;
201.0000;0.9247;1.1545;
201.3000;0.9255;1.1615;
201.6000;0.9247;1.1708;
201.9000;0.9214;1.1545;
202.2000;0.9255;1.1662;
202.5000;0.9239;1.1708;
202.8000;0.9223;1.1732;
203.1000;0.9239;1.1708;
203.4000;0.9255;1.1732;
203.7000;0.9231;1.1615;
204.0000;0.9247;1.1662;
204.3000;0.9255;1.1708;
204.6000;0.9280;1.1778;
204.9000;0.9223;1.1732;
205.2000;0.9263;1.1965;
205.5000;0.9255;1.1942;
205.8000;0.9271;1.1965;
206.1000;0.9190;1.1755;
206.4000;0.9223;1.1685;
206.7000;0.9182;1.1592;
207.0000;0.9231;1.1685;
207.3000;0.9182;1.1592;
207.6000;0.9190;1.1545;
207.9000;0.9223;1.1662;
208.2000;0.9247;1.1755;
208.5000;0.9247;1.1755;
208.8000;0.9296;1.1895;
209.1000;0.9239;1.1755;
209.4000;0.9255;1.1825;
209.7000;0.9223;1.1708;
210.0000;0.9223;1.1732;
210.3000;0.9231;1.1708;
210.6000;0.9247;1.1755;
210.9000;0.9239;1.1732;
211.2000;0.9223;1.1732;
211.5000;0.9231;1.1755;
211.8000;0.9239;1.1755;
212.1000;0.9239;1.1802;
212.4000;0.9223;1.1778;
212.7000;0.9223;1.1708;
213.0000;0.9231;1.1685;
213.3000;0.9231;1.1732;
213.6000;0.9328;1.1848;
213.9000;0.9231;1.1685;
214.2000;0.9223;1.1615;
214.5000;0.9223;1.1662;
214.8000;0.9231;1.1662;
215.1000;0.9214;1.1569;
215.4000;0.9231;1.1592;
215.7000;0.9223;1.1639;
216.0000;0.9231;1.1685;
216.3000;0.9239;1.1685;
216.6000;0.9206;1.1662;
216.9000;0.9239;1.1662;
217.2000;0.9263;1.1639;
217.5000;0.9239;1.1732;
217.8000;0.9231;1.1732;
218.1000;0.9231;1.1708;
218.4000;0.9247;1.1708;
218.7000;0.9271;1.1825;
219.0000;0.9223;1.1685;
219.3000;0.9231;1.1662;
219.6000;0.9239;1.1662;
219.9000;0.9247;1.1685;
220.2000;0.9247;1.1708;
220.5000;0.9239;1.1708;
220.8000;0.9304;1.1872;
221.1000;0.9280;1.1895;
221.4000;0.9198;1.1592;
221.7000;0.9288;1.1825;
222.0000;0.9231;1.1615;
222.3000;0.9231;1.1545;
222.6000;0.9247;1.1569;
222.9000;0.9231;1.1452;
223.2000;0.9223;1.1452;
223.5000;0.9182;1.1429;
223.8000;0.9223;1.1569;
224.1000;0.9223;1.1475;
224.4000;0.9239;1.1499;
224.7000;0.9174;1.1265;
225.0000;0.9255;1.1499;
225.3000;0.9231;1.1475;
225.6000;0.9263;1.1592;
225.9000;0.9239;1.1475;
226.2000;0.9255;1.1475;
226.5000;0.9239;1.1545;
226.8000;0.9247;1.1545;
227.1000;0.9239;1.1522;
227.4000;0.9223;1.1615;
227.7000;0.9231;1.1685;
228.0000;0.9304;1.1778;
228.3000;0.9223;1.1685;
228.6000;0.9304;1.1802;
228.9000;0.9255;1.1662;
229.2000;0.9247;1.1662;
229.5000;0.9239;1.1545;
229.8000;0.9247;1.1545;
230.1000;0.9239;1.1475;
230.4000;0.9239;1.1545;
230.7000;0.9198;1.1382;
231.0000;0.9206;1.1405;
231.3000;0.9247;1.1522;
231.6000;0.9239;1.1615;
231.9000;0.9247;1.1545;
232.2000;0.9239;1.1545;
232.5000;0.9247;1.1615;
232.8000;0.9223;1.1615;
233.1000;0.9239;1.1639;
233.4000;0.9206;1.1545;
233.7000;0.9231;1.1592;
234.0000;0.9223;1.1452;
234.3000;0.9223;1.1405;
234.6000;0.9206;1.1429;
234.9000;0.9239;1.1569;
235.2000;0.9231;1.1592;
235.5000;0.9231;1.1522;
235.8000;0.9231;1.1475;
236.1000;0.9231;1.1382;
236.4000;0.9247;1.1359;
236.7000;0.9223;1.1289;
237.0000;0.9231;1.1405;
237.3000;0.9247;1.1499;
237.6000;0.9239;1.1522;
237.9000;0.9231;1.1522;
238.2000;0.9239;1.1545;
238.5000;0.9231;1.1545;
238.8000;0.9263;1.1615;
239.1000;0.9247;1.1592;
239.4000;0.9223;1.1545;
239.7000;0.9239;1.1662;
240.0000;0.9231;1.1662;
240.3000;0.9231;1.1732;
240.6000;0.9312;1.1872;
240.9000;0.9263;1.1755;
241.2000;0.9231;1.1662;
241.5000;0.9231;1.1685;
241.8000;0.9239;1.1639;
242.1000;0.9239;1.1685;
242.4000;0.9223;1.1685;
242.7000;0.9223;1.1615;
243.0000;0.9231;1.1592;
243.3000;0.9174;1.1452;
243.6000;0.9223;1.1569;
243.9000;0.9231;1.1569;
244.2000;0.9263;1.1569;
244.5000;0.9223;1.1499;
244.8000;0.9223;1.1499;
245.1000;0.9231;1.1475;
245.4000;0.9247;1.1545;
245.7000;0.9231;1.1522;
246.0000;0.9255;1.1499;
246.3000;0.9231;1.1522;
246.6000;0.9239;1.1592;
246.9000;0.9255;1.1662;
247.2000;0.9247;1.1662;
247.5000;0.9239;1.1662;
247.8000;0.9247;1.1685;
248.1000;0.9231;1.1662;
248.4000;0.9231;1.1639;
248.7000;0.9223;1.1708;
249.0000;0.9223;1.1708;
249.3000;0.9255;1.1755;
249.6000;0.9239;1.1662;
249.9000;0.9247;1.1639;
250.2000;0.9255;1.1639;
250.5000;0.9247;1.1755;
250.8000;0.9239;1.1778;
251.1000;0.9231;1.1755;
251.4000;0.9239;1.1755;
251.7000;0.9231;1.1708;
252.0000;0.9198;1.1615;
252.3000;0.9214;1.1639;
252.6000;0.9214;1.1732;
252.9000;0.9223;1.1708;
253.2000;0.9231;1.1755;
253.5000;0.9239;1.1732;
253.8000;0.9214;1.1662;
254.1000;0.9223;1.1545;
254.4000;0.9239;1.1615;
254.7000;0.9214;1.1499;
255.0000;0.9239;1.1615;
255.3000;0.9247;1.1685;
255.6000;0.9231;1.1662;
255.9000;0.9271;1.1872;
256.2000;0.9239;1.1802;
256.5000;0.9255;1.1732;
256.8000;0.9247;1.1615;
257.1000;0.9231;1.1662;
257.4000;0.9239;1.1685;
257.7000;0.9231;1.1615;
258.0000;0.9149;1.1359;
258.3000;0.9214;1.1592;
258.6000;0.9223;1.1615;
258.9000;0.9214;1.1685;
259.2000;0.9214;1.1732;
259.5000;0.9223;1.1685;
259.8000;0.9214;1.1662;
260.1000;0.9255;1.1592;
260.4000;0.9271;1.1615;
260.7000;0.9239;1.1592;
261.0000;0.9312;1.1825;
261.3000;0.9223;1.1615;
261.6000;0.9239;1.1545;
261.9000;0.9223;1.1522;
262.2000;0.9231;1.1592;
262.5000;0.9247;1.1662;
262.8000;0.9206;1.1592;
263.1000;0.9231;1.1662;
263.4000;0.9223;1.1662;
263.7000;0.9166;1.1522;
264.0000;0.9231;1.1592;
264.3000;0.9206;1.1592;
264.6000;0.9206;1.1522;
264.9000;0.9239;1.1499;
265.2000;0.9223;1.1499;
265.5000;0.9231;1.1569;
265.8000;0.9223;1.1662;
266.1000;0.9247;1.1662;
266.4000;0.9296;1.1872;
266.7000;0.9239;1.1732;
267.0000;0.9239;1.1639;
267.3000;0.9239;1.1592;
267.6000;0.9223;1.1662;
267.9000;0.9214;1.1639;
268.2000;0.9174;1.1522;
268.5000;0.9247;1.1615;
268.8000;0.9255;1.1708;
269.1000;0.9231;1.1662;
269.4000;0.9328;1.1872;
269.7000;0.9231;1.1662;
270.0000;0.9206;1.1732;
270.3000;0.9206;1.1825;
270.6000;0.9214;1.1802;
270.9000;0.9190;1.1755;
271.2000;0.9206;1.1685;
271.5000;0.9214;1.1592;
271.8000;0.9231;1.1569;
272.1000;0.9166;1.1475;
272.4000;0.9206;1.1615;
272.7000;0.9214;1.1592;
273.0000;0.9198;1.1592;
273.3000;0.9223;1.1475;
273.6000;0.9223;1.1545;
273.9000;0.9239;1.1615;
274.2000;0.9231;1.1592;
274.5000;0.9206;1.1522;
274.8000;0.9231;1.1475;
275.1000;0.9214;1.1522;
275.4000;0.9206;1.1475;
275.7000;0.9198;1.1475;
276.0000;0.9239;1.1522;
276.3000;0.9223;1.1452;
276.6000;0.9223;1.1522;
276.9000;0.9198;1.1382;
277.2000;0.9223;1.1429;
277.5000;0.9231;1.1429;
277.8000;0.9239;1.1382;
278.1000;0.9214;1.1405;
278.4000;0.9263;1.1452;
278.7000;0.9239;1.1499;
279.0000;0.9247;1.1405;
279.3000;0.9223;1.1359;
279.6000;0.9223;1.1429;
279.9000;0.9190;1.1359;
280.2000;0.9223;1.1452;
280.5000;0.9214;1.1475;
280.8000;0.9231;1.1522;
281.1000;0.9263;1.1662;
281.4000;0.9214;1.1545;
281.7000;0.9223;1.1452;
282.0000;0.9214;1.1499;
282.3000;0.9214;1.1522;
282.6000;0.9280;1.1708;
282.9000;0.9223;1.1569;
283.2000;0.9320;1.1895;
283.5000;0.9239;1.1708;
283.8000;0.9239;1.1848;
284.1000;0.9271;1.1918;
284.4000;0.9280;1.1848;
284.7000;0.9231;1.1825;
285.0000;0.9304;1.1965;
285.3000;0.9247;1.1802;
285.6000;0.9231;1.1778;
285.9000;0.9255;1.1825;
286.2000;0.9255;1.1685;
286.5000;0.9214;1.1615;
286.8000;0.9239;1.1639;
287.1000;0.9247;1.1662;
287.4000;0.9223;1.1615;
287.7000;0.9239;1.1732;
288.0000;0.9239;1.1685;
288.3000;0.9239;1.1639;
288.6000;0.9231;1.1522;
288.9000;0.9239;1.1475;
289.2000;0.9231;1.1452;
289.5000;0.9231;1.1452;
289.8000;0.9206;1.1452;
290.1000;0.9206;1.1405;
290.4000;0.9239;1.1475;
290.7000;0.9223;1.1475;
291.0000;0.9231;1.1569;
291.3000;0.9214;1.1452;
291.6000;0.9231;1.1429;
291.9000;0.9158;1.1265;
292.2000;0.9223;1.1312;
292.5000;0.9206;1.1359;
292.8000;0.9231;1.1289;
293.1000;0.9296;1.1382;
293.4000;0.9223;1.1312;
293.7000;0.9353;1.1639;
294.0000;0.9239;1.1359;
294.3000;0.9223;1.1359;
294.6000;0.9231;1.1359;
294.9000;0.9214;1.1335;
295.2000;0.9206;1.1312;
295.5000;0.9255;1.1405;
295.8000;0.9190;1.1265;
296.1000;0.9206;1.1312;
296.4000;0.9231;1.1429;
296.7000;0.9223;1.1499;
297.0000;0.9239;1.1545;
297.3000;0.9231;1.1522;
297.6000;0.9198;1.1545;
297.9000;0.9231;1.1592;
298.2000;0.9239;1.1615;
298.5000;0.9206;1.1569;
298.8000;0.9223;1.1615;
299.1000;0.9263;1.1662;
299.4000;0.9223;1.1545;
299.7000;0.9231;1.1569;
300.0000;0.9214;1.1569;
300.3000;0.9231;1.1685;
300.6000;0.9231;1.1732;
300.9000;0.9239;1.1685;
301.2000;0.9214;1.1639;
301.5000;0.9231;1.1592;
301.8000;0.9198;1.1522;
302.1000;0.9223;1.1499;
302.4000;0.9223;1.1499;
302.7000;0.9206;1.1452;
303.0000;0.9280;1.1545;
303.3000;0.9231;1.1615;
303.6000;0.9214;1.1569;
303.9000;0.9223;1.1569;
304.2000;0.9255;1.1545;
304.5000;0.9247;1.1429;
304.8000;0.9247;1.1452;
305.1000;0.9198;1.1382;
305.4000;0.9304;1.1685;
305.7000;0.9223;1.1545;
306.0000;0.9223;1.1475;
306.3000;0.9223;1.1499;
306.6000;0.9214;1.1569;
306.9000;0.9198;1.1545;
307.2000;0.9206;1.1545;
307.5000;0.9263;1.1639;
307.8000;0.9198;1.1499;
308.1000;0.9263;1.1662;
308.4000;0.9231;1.1592;
308.7000;0.9223;1.1592;
309.0000;0.9174;1.1452;
309.3000;0.9223;1.1615;
309.6000;0.9239;1.1592;
309.9000;0.9214;1.1615;
310.2000;0.9206;1.1615;
310.5000;0.9206;1.1615;
310.8000;0.9353;1.1942;
311.1000;0.9158;1.1429;
311.4000;0.9231;1.1592;
311.7000;0.9247;1.1615;
312.0000;0.9223;1.1615;
312.3000;0.9149;1.1382;
312.6000;0.9190;1.1522;
312.9000;0.9198;1.1569;
313.2000;0.9214;1.1592;
313.5000;0.9206;1.1545;
313.8000;0.9174;1.1429;
314.1000;0.9247;1.1592;
314.4000;0.9198;1.1429;
314.7000;0.9198;1.1382;
315.0000;0.9214;1.1452;
315.3000;0.9223;1.1405;
315.6000;0.9214;1.1359;
315.9000;0.9223;1.1452;
316.2000;0.9231;1.1429;
316.5000;0.9223;1.1522;
316.8000;0.9231;1.1545;
317.1000;0.9223;1.1545;
317.4000;0.9231;1.1662;
317.7000;0.9231;1.1685;
318.0000;0.9214;1.1615;
318.3000;0.9223;1.1522;
318.6000;0.9214;1.1569;
318.9000;0.9231;1.1615;
319.2000;0.9231;1.1615;
319.5000;0.9231;1.1569;
319.8000;0.9239;1.1545;
320.1000;0.9223;1.1499;
320.4000;0.9214;1.1499;
320.7000;0.9231;1.1429;
321.0000;0.9239;1.1405;
321.3000;0.9214;1.1382;
321.6000;0.9101;1.1079;
321.9000;0.9223;1.1382;
322.2000;0.9239;1.1475;
322.5000;0.9206;1.1219;
322.8000;0.9223;1.1219;
323.1000;0.9206;1.1149;
323.4000;0.9214;1.1149;
323.7000;0.9206;1.1195;
324.0000;0.9223;1.1382;
324.3000;0.9206;1.1359;
324.6000;0.9214;1.1335;
324.9000;0.9271;1.1452;
325.2000;0.9198;1.1405;
325.5000;0.9223;1.1452;
325.8000;0.9214;1.1475;
326.1000;0.9223;1.1522;
326.4000;0.9198;1.1592;
326.7000;0.9223;1.1545;
327.0000;0.9214;1.1475;
327.3000;0.9231;1.1522;
327.6000;0.9223;1.1545;
327.9000;0.9239;1.1615;
328.2000;0.9223;1.1615;
328.5000;0.9223;1.1592;
328.8000;0.9247;1.1685;
329.1000;0.9214;1.1615;
329.4000;0.9214;1.1615;
329.7000;0.9223;1.1569;
330.0000;0.9247;1.1662;
330.3000;0.9231;1.1569;
330.6000;0.9190;1.1429;
330.9000;0.9239;1.1569;
331.2000;0.9231;1.1615;
331.5000;0.9223;1.1685;
331.8000;0.9223;1.1685;
332.1000;0.9182;1.1592;
332.4000;0.9247;1.1685;
332.7000;0.9223;1.1569;
333.0000;0.9214;1.1569;
333.3000;0.9231;1.1708;
333.6000;0.9174;1.1639;
333.9000;0.9231;1.1708;
334.2000;0.9223;1.1639;
334.5000;0.9206;1.1522;
334.8000;0.9337;1.1895;
335.1000;0.9223;1.1708;
335.4000;0.9239;1.1732;
335.7000;0.9198;1.1639;
336.0000;0.9239;1.1708;
336.3000;0.9231;1.1639;
336.6000;0.9239;1.1569;
336.9000;0.9198;1.1382;
337.2000;0.9271;1.1545;
337.5000;0.9214;1.1475;
337.8000;0.9223;1.1545;
338.1000;0.9231;1.1499;
338.4000;0.9231;1.1475;
338.7000;0.9206;1.1499;
339.0000;0.9239;1.1639;
339.3000;0.9166;1.1522;
339.6000;0.9223;1.1639;
339.9000;0.9231;1.1732;
340.2000;0.9247;1.1732;
340.5000;0.9239;1.1732;
340.8000;0.9255;1.1802;
341.1000;0.9239;1.1755;
341.4000;0.9239;1.1778;
341.7000;0.9166;1.1545;
342.0000;0.9223;1.1662;
342.3000;0.9214;1.1662;
342.6000;0.9304;1.1825;
342.9000;0.9231;1.1732;
343.2000;0.9223;1.1755;
343.5000;0.9206;1.1755;
343.8000;0.9231;1.1802;
344.1000;0.9231;1.1778;
344.4000;0.9223;1.1802;
344.7000;0.9174;1.1662;
345.0000;0.9214;1.1778;
345.3000;0.9231;1.1848;
345.6000;0.9214;1.1778;
345.9000;0.9223;1.1732;
346.2000;0.9214;1.1708;
346.5000;0.9214;1.1662;
346.8000;0.9231;1.1639;
347.1000;0.9206;1.1545;
347.4000;0.9214;1.1639;
347.7000;0.9231;1.1685;
348.0000;0.9239;1.1708;
348.3000;0.9206;1.1662;
348.6000;0.9214;1.1639;
348.9000;0.9223;1.1592;
349.2000;0.9247;1.1755;
349.5000;0.9206;1.1732;
349.8000;0.9223;1.1708;
350.1000;0.9231;1.1778;
350.4000;0.9214;1.1755;
350.7000;0.9223;1.1708;
351.0000;0.9239;1.1732;
351.3000;0.9223;1.1732;
351.6000;0.9214;1.1685;
351.9000;0.9247;1.1778;
352.2000;0.9239;1.1778;
352.5000;0.9223;1.1639;
352.8000;0.9247;1.1708;
353.1000;0.9223;1.1522;
353.4000;0.9214;1.1569;
353.7000;0.9182;1.1545;
354.0000;0.9223;1.1499;
354.3000;0.9198;1.1382;
354.6000;0.9214;1.1405;
354.9000;0.9223;1.1382;
355.2000;0.9280;1.1569;
355.5000;0.9231;1.1475;
355.8000;0.9263;1.1592;
356.1000;0.9247;1.1499;
356.4000;0.9271;1.1615;
356.7000;0.9206;1.1475;
357.0000;0.9231;1.1569;
357.3000;0.9206;1.1452;
357.6000;0.9231;1.1452;
357.9000;0.9198;1.1475;
358.2000;0.9214;1.1545;
358.5000;0.9214;1.1569;
358.8000;0.9263;1.1615;
359.1000;0.9214;1.1429;
359.4000;0.9231;1.1475;
359.7000;0.9239;1.1522;
360.0000;0.9174;1.1335;
360.3000;0.9198;1.1522;
360.6000;0.9214;1.1569;
360.9000;0.9239;1.1545;
361.2000;0.9206;1.1499;
361.5000;0.9206;1.1569;
361.8000;0.9141;1.1475;
362.1000;0.9206;1.1639;
362.4000;0.9198;1.1522;
362.7000;0.9166;1.1452;
363.0000;0.9190;1.1429;
363.3000;0.9206;1.1475;
363.6000;0.9231;1.1545;
363.9000;0.9206;1.1569;
364.2000;0.9206;1.1592;
364.5000;0.9223;1.1592;
364.8000;0.9239;1.1639;
365.1000;0.9231;1.1639;
365.4000;0.9223;1.1685;
365.7000;0.9271;1.1825;
366.0000;0.9174;1.1592;
366.3000;0.9206;1.1662;
366.6000;0.9206;1.1639;
366.9000;0.9190;1.1569;
367.2000;0.9223;1.1639;
367.5000;0.9223;1.1685;
367.8000;0.9223;1.1639;
368.1000;0.9206;1.1569;
368.4000;0.9214;1.1592;
368.7000;0.9214;1.1685;
369.0000;0.9214;1.1662;
369.3000;0.9214;1.1615;
369.6000;0.9223;1.1708;
369.9000;0.9328;1.1965;
370.2000;0.9198;1.1662;
370.5000;0.9206;1.1662;
370.8000;0.9206;1.1639;
371.1000;0.9214;1.1592;
371.4000;0.9223;1.1615;
371.7000;0.9206;1.1592;
372.0000;0.9231;1.1545;
372.3000;0.9198;1.1429;
372.6000;0.9231;1.1639;
372.9000;0.9223;1.1732;
373.2000;0.9214;1.1778;
373.5000;0.9247;1.1732;
373.8000;0.9214;1.1569;
374.1000;0.9223;1.1569;
374.4000;0.9214;1.1545;
374.7000;0.9247;1.1615;
375.0000;0.9223;1.1569;
375.3000;0.9231;1.1499;
375.6000;0.9247;1.1639;
375.9000;0.9247;1.1639;
376.2000;0.9223;1.1615;
376.5000;0.9239;1.1685;
376.8000;0.9214;1.1732;
377.1000;0.9239;1.1755;
377.4000;0.9182;1.1708;
377.7000;0.9239;1.1708;
378.0000;0.9231;1.1685;
378.3000;0.9214;1.1732;
378.6000;0.9223;1.1848;
378.9000;0.9223;1.1802;
379.2000;0.9158;1.1615;
379.5000;0.9206;1.1639;
379.8000;0.9214;1.1685;
380.1000;0.9206;1.1708;
380.4000;0.9231;1.1802;
380.7000;0.9223;1.1755;
381.0000;0.9214;1.1778;
381.3000;0.9206;1.1825;
381.6000;0.9190;1.1778;
381.9000;0.9214;1.1732;
382.2000;0.9214;1.1732;
382.5000;0.9239;1.1755;
382.8000;0.9239;1.1755;
383.1000;0.9214;1.1755;
383.4000;0.9223;1.1755;
383.7000;0.9206;1.1615;
384.0000;0.9206;1.1592;
384.3000;0.9214;1.1545;
384.6000;0.9214;1.1569;
384.9000;0.9223;1.1522;
385.2000;0.9296;1.1615;
385.5000;0.9214;1.1452;
385.8000;0.9206;1.1452;
386.1000;0.9206;1.1499;
386.4000;0.9214;1.1569;
386.7000;0.9206;1.1615;
387.0000;0.9271;1.1685;
387.3000;0.9174;1.1382;
387.6000;0.9239;1.1569;
387.9000;0.9247;1.1569;
388.2000;0.9231;1.1429;
388.5000;0.9223;1.1405;
388.8000;0.9223;1.1499;
389.1000;0.9149;1.1429;
389.4000;0.9223;1.1685;
389.7000;0.9198;1.1569;
390.0000;0.9174;1.1475;
390.3000;0.9214;1.1545;
390.6000;0.9231;1.1592;
390.9000;0.9190;1.1522;
391.2000;0.9206;1.1429;
391.5000;0.9214;1.1452;
391.8000;0.9206;1.1405;
392.1000;0.9206;1.1499;
392.4000;0.9214;1.1592;
392.7000;0.9214;1.1545;
393.0000;0.9198;1.1592;
393.3000;0.9239;1.1685;
393.6000;0.9206;1.1639;
393.9000;0.9214;1.1615;
394.2000;0.9247;1.1615;
394.5000;0.9223;1.1592;
394.8000;0.9239;1.1639;
395.1000;0.9231;1.1639;
395.4000;0.9231;1.1802;
395.7000;0.9223;1.1732;
396.0000;0.9247;1.1778;
396.3000;0.9198;1.1685;
396.6000;0.9231;1.1685;
396.9000;0.9206;1.1569;
397.2000;0.9214;1.1569;
397.5000;0.9206;1.1662;
397.8000;0.9223;1.1778;
398.1000;0.9198;1.1732;
398.4000;0.9206;1.1732;
398.7000;0.9223;1.1685;
399.0000;0.9223;1.1708;
399.3000;0.9214;1.1825;
399.6000;0.9198;1.1802;
399.9000;0.9174;1.1755;
400.2000;0.9239;1.1895;
400.5000;0.9214;1.1848;
400.8000;0.9198;1.1872;
401.1000;0.9198;1.1848;
401.4000;0.9214;1.1872;
401.7000;0.9223;1.1872;
402.0000;0.9223;1.1895;
402.3000;0.9223;1.1872;
402.6000;0.9206;1.1802;
402.9000;0.9206;1.1802;
403.2000;0.9206;1.1708;
403.5000;0.9198;1.1639;
403.8000;0.9149;1.1569;
404.1000;0.9206;1.1662;
404.4000;0.9198;1.1615;
404.7000;0.9263;1.1639;
405.0000;0.9231;1.1592;
405.3000;0.9190;1.1545;
405.6000;0.9231;1.1685;
405.9000;0.9206;1.1639;
406.2000;0.9198;1.1639;
406.5000;0.9214;1.1708;
406.8000;0.9223;1.1708;
407.1000;0.9231;1.1802;
407.4000;0.9206;1.1755;
407.7000;0.9206;1.1662;
408.0000;0.9206;1.1708;
408.3000;0.9190;1.1708;
408.6000;0.9206;1.1639;
408.9000;0.9206;1.1778;
409.2000;0.9206;1.1778;
409.5000;0.9174;1.1755;
409.8000;0.9198;1.1778;
410.1000;0.9206;1.1708;
410.4000;0.9214;1.1778;
410.7000;0.9206;1.1732;
411.0000;0.9214;1.1802;
411.3000;0.9239;1.1778;
411.6000;0.9206;1.1685;
411.9000;0.9166;1.1499;
412.2000;0.9239;1.1778;
412.5000;0.9206;1.1685;
412.8000;0.9223;1.1732;
413.1000;0.9247;1.1848;
413.4000;0.9206;1.1732;
413.7000;0.9255;1.1848;
414.0000;0.9198;1.1732;
414.3000;0.9223;1.1755;
414.6000;0.9206;1.1732;
414.9000;0.9239;1.1825;
415.2000;0.9223;1.1732;
415.5000;0.9263;1.1755;
415.8000;0.9223;1.1708;
416.1000;0.9190;1.1639;
416.4000;0.9206;1.1708;
416.7000;0.9190;1.1685;
417.0000;0.9223;1.1732;
417.3000;0.9223;1.1778;
417.6000;0.9231;1.1708;
417.9000;0.9206;1.1639;
418.2000;0.9198;1.1685;
418.5000;0.9223;1.1708;
418.8000;0.9206;1.1685;
419.1000;0.9206;1.1639;
419.4000;0.9239;1.1708;
419.7000;0.9214;1.1685;
420.0000;0.9231;1.1778;
420.3000;0.9198;1.1778;
420.6000;0.9198;1.1662;
420.9000;0.9239;1.1755;
421.2000;0.9214;1.1685;
421.5000;0.9214;1.1685;
421.8000;0.9206;1.1708;
422.1000;0.9182;1.1592;
422.4000;0.9206;1.1662;
422.7000;0.9206;1.1732;
423.0000;0.9190;1.1755;
423.3000;0.9198;1.1732;
423.6000;0.9214;1.1755;
423.9000;0.9214;1.1802;
424.2000;0.9125;1.1662;
424.5000;0.9214;1.1825;
424.8000;0.9206;1.1708;
425.1000;0.9239;1.1778;
425.4000;0.9223;1.1685;
425.7000;0.9182;1.1662;
426.0000;0.9263;1.1848;
426.3000;0.9206;1.1778;
426.6000;0.9214;1.1778;
426.9000;0.9190;1.1732;
427.2000;0.9206;1.1778;
427.5000;0.9214;1.1732;
427.8000;0.9198;1.1732;
428.1000;0.9198;1.1708;
428.4000;0.9190;1.1662;
428.7000;0.9198;1.1778;
429.0000;0.9288;1.1918;
429.3000;0.9190;1.1708;
429.6000;0.9280;1.1848;
429.9000;0.9206;1.1615;
430.2000;0.9231;1.1732;
430.5000;0.9214;1.1708;
430.8000;0.9214;1.1685;
431.1000;0.9214;1.1615;
431.4000;0.9247;1.1685;
431.7000;0.9182;1.1545;
432.0000;0.9190;1.1639;
432.3000;0.9198;1.1639;
432.6000;0.9158;1.1545;
432.9000;0.9166;1.1569;
433.2000;0.9198;1.1592;
433.5000;0.9223;1.1708;
433.8000;0.9206;1.1639;
434.1000;0.9141;1.1499;
434.4000;0.9174;1.1639;
434.7000;0.9206;1.1708;
435.0000;0.9231;1.1755;
435.3000;0.9198;1.1639;
435.6000;0.9206;1.1639;
435.9000;0.9190;1.1639;
436.2000;0.9214;1.1615;
436.5000;0.9214;1.1615;
436.8000;0.9206;1.1569;
437.1000;0.9214;1.1639;
437.4000;0.9214;1.1685;
437.7000;0.9239;1.1732;
438.0000;0.9206;1.1708;
438.3000;0.9198;1.1662;
438.6000;0.9214;1.1732;
438.9000;0.9206;1.1778;
439.2000;0.9214;1.1755;
439.5000;0.9223;1.1825;
439.8000;0.9214;1.1872;
440.1000;0.9231;1.1918;
440.4000;0.9206;1.1848;
440.7000;0.9206;1.1825;
441.0000;0.9206;1.1708;
441.3000;0.9190;1.1639;
441.6000;0.9206;1.1662;
441.9000;0.9206;1.1615;
442.2000;0.9198;1.1615;
442.5000;0.9206;1.1685;
442.8000;0.9223;1.1615;
443.1000;0.9223;1.1639;
443.4000;0.9206;1.1499;
443.7000;0.9231;1.1499;
444.0000;0.9231;1.1545;
444.3000;0.9214;1.1545;
444.6000;0.9206;1.1475;
444.9000;0.9174;1.1359;
445.2000;0.9223;1.1405;
445.5000;0.9206;1.1499;
445.8000;0.9231;1.1592;
446.1000;0.9214;1.1592;
446.4000;0.9223;1.1592;
446.7000;0.9198;1.1592;
447.0000;0.9198;1.1592;
447.3000;0.9182;1.1662;
447.6000;0.9231;1.1755;
447.9000;0.9206;1.1685;
448.2000;0.9223;1.1708;
448.5000;0.9206;1.1639;
448.8000;0.9214;1.1755;
449.1000;0.9223;1.1755;
449.4000;0.9223;1.1802;
449.7000;0.9198;1.1685;
450.0000;0.9198;1.1639;
450.3000;0.9214;1.1755;
450.6000;0.9166;1.1615;
450.9000;0.9231;1.1732;
451.2000;0.9206;1.1685;
451.5000;0.9206;1.1778;
451.8000;0.9198;1.1802;
452.1000;0.9198;1.1778;
452.4000;0.9304;1.1965;
452.7000;0.9198;1.1615;
453.0000;0.9206;1.1592;
453.3000;0.9198;1.1499;
453.6000;0.9125;1.1382;
453.9000;0.9206;1.1592;
454.2000;0.9223;1.1639;
454.5000;0.9206;1.1685;
454.8000;0.9231;1.1662;
455.1000;0.9263;1.1639;
455.4000;0.9206;1.1475;
455.7000;0.9198;1.1475;
456.0000;0.9198;1.1429;
456.3000;0.9198;1.1499;
456.6000;0.9182;1.1522;
456.9000;0.9174;1.1545;
457.2000;0.9206;1.1545;
457.5000;0.9190;1.1545;
457.8000;0.9182;1.1522;
458.1000;0.9198;1.1475;
458.4000;0.9198;1.1499;
458.7000;0.9214;1.1639;
459.0000;0.9206;1.1615;
459.3000;0.9198;1.1685;
459.6000;0.9198;1.1662;
459.9000;0.9182;1.1662;
460.2000;0.9206;1.1825;
460.5000;0.9214;1.1848;
460.8000;0.9214;1.1802;
461.1000;0.9214;1.1732;
461.4000;0.9198;1.1755;
461.7000;0.9223;1.1662;
462.0000;0.9239;1.1639;
462.3000;0.9149;1.1429;
462.6000;0.9190;1.1545;
462.9000;0.9206;1.1475;
463.2000;0.9206;1.1522;
463.5000;0.9206;1.1452;
463.8000;0.9198;1.1499;
464.1000;0.9190;1.1569;
464.4000;0.9206;1.1569;
464.7000;0.9182;1.1475;
465.0000;0.9190;1.1545;
465.3000;0.9206;1.1615;
465.6000;0.9198;1.1662;
465.9000;0.9198;1.1685;
466.2000;0.9198;1.1639;
466.5000;0.9182;1.1639;
466.8000;0.9206;1.1639;
467.1000;0.9206;1.1708;
467.4000;0.9198;1.1662;
467.7000;0.9190;1.1685;
468.0000;0.9198;1.1778;
468.3000;0.9214;1.1872;
468.6000;0.9198;1.1685;
468.9000;0.9223;1.1708;
469.2000;0.9174;1.1662;
469.5000;0.9223;1.1685;
469.8000;0.9231;1.1802;
470.1000;0.9190;1.1662;
470.4000;0.9182;1.1685;
470.7000;0.9206;1.1802;
471.0000;0.9182;1.1708;
471.3000;0.9214;1.1778;
471.6000;0.9206;1.1872;
471.9000;0.9206;1.1802;
472.2000;0.9198;1.1778;
472.5000;0.9198;1.1708;
472.8000;0.9206;1.1685;
473.1000;0.9223;1.1732;
473.4000;0.9271;1.1802;
473.7000;0.9214;1.1639;
474.0000;0.9198;1.1662;
474.3000;0.9190;1.1685;
474.6000;0.9182;1.1662;
474.9000;0.9174;1.1732;
475.2000;0.9141;1.1639;
475.5000;0.9174;1.1732;
475.8000;0.9255;1.1965;
476.1000;0.9214;1.1942;
476.4000;0.9198;1.1872;
476.7000;0.9198;1.1802;
477.0000;0.9206;1.1825;
477.3000;0.9214;1.1802;
477.6000;0.9206;1.1732;
477.9000;0.9206;1.1708;
478.2000;0.9190;1.1708;
478.5000;0.9198;1.1848;
478.8000;0.9182;1.1825;
479.1000;0.9190;1.1872;
479.4000;0.9198;1.1872;
479.7000;0.9198;1.1825;
480.0000;0.9206;1.1825;
480.3000;0.9239;1.1918;
480.6000;0.9190;1.1778;
480.9000;0.9214;1.1778;
481.2000;0.9117;1.1662;
481.5000;0.9198;1.1802;
481.8000;0.9198;1.1778;
482.1000;0.9198;1.1732;
482.4000;0.9206;1.1755;
482.7000;0.9206;1.1685;
483.0000;0.9206;1.1732;
483.3000;0.9190;1.1685;
483.6000;0.9223;1.1685;
483.9000;0.9198;1.1662;
484.2000;0.9206;1.1755;
484.5000;0.9198;1.1732;
484.8000;0.9198;1.1732;
485.1000;0.9198;1.1825;
485.4000;0.9198;1.1918;
485.7000;0.9182;1.1918;
486.0000;0.9198;1.1942;
486.3000;0.9174;1.1848;
486.6000;0.9182;1.1872;
486.9000;0.9198;1.1802;
487.2000;0.9214;1.1778;
487.5000;0.9223;1.1755;
487.8000;0.9214;1.1708;
488.1000;0.9141;1.1545;
488.4000;0.9174;1.1778;
488.7000;0.9190;1.1825;
489.0000;0.9206;1.1685;
489.3000;0.9174;1.1685;
489.6000;0.9198;1.1755;
489.9000;0.9190;1.1755;
490.2000;0.9198;1.1872;
490.5000;0.9182;1.1848;
490.8000;0.9190;1.1848;
491.1000;0.9214;1.1988;
491.4000;0.9166;1.1825;
491.7000;0.9231;1.1942;
492.0000;0.9206;1.1895;
492.3000;0.9206;1.1918;
492.6000;0.9214;1.1872;
492.9000;0.9206;1.1778;
493.2000;0.9214;1.1778;
493.5000;0.9214;1.1848;
493.8000;0.9182;1.1732;
494.1000;0.9190;1.1872;
494.4000;0.9206;1.1825;
494.7000;0.9174;1.1778;
495.0000;0.9174;1.1755;
495.3000;0.9214;1.1802;
495.6000;0.9206;1.1778;
495.9000;0.9190;1.1778;
496.2000;0.9206;1.1895;
496.5000;0.9247;1.1872;
496.8000;0.9223;1.1848;
497.1000;0.9198;1.1825;
497.4000;0.9190;1.1802;
497.7000;0.9182;1.1802;
498.0000;0.9206;1.1942;
498.3000;0.9206;1.1988;
498.6000;0.9174;1.1988;
498.9000;0.9174;1.1965;
499.2000;0.9206;1.2058;
499.5000;0.9223;1.2082;
499.8000;0.9190;1.2012;
500.1000;0.9190;1.1848;
500.4000;0.9198;1.1872;
500.7000;0.9190;1.1755;
501.0000;0.9206;1.1825;
501.3000;0.9214;1.1872;
501.6000;0.9206;1.1778;
501.9000;0.9214;1.1848;
502.2000;0.9206;1.1825;
502.5000;0.9190;1.1755;
502.8000;0.9206;1.1825;
503.1000;0.9214;1.1825;
503.4000;0.9206;1.1825;
503.7000;0.9198;1.1778;
504.0000;0.9231;1.1778;
504.3000;0.9214;1.1708;
504.6000;0.9190;1.1615;
504.9000;0.9174;1.1615;
505.2000;0.9198;1.1615;
505.5000;0.9198;1.1639;
505.8000;0.9214;1.1685;
506.1000;0.9198;1.1592;
506.4000;0.9190;1.1569;
506.7000;0.9206;1.1662;
507.0000;0.9255;1.1732;
507.3000;0.9190;1.1569;
507.6000;0.9166;1.1569;
507.9000;0.9206;1.1802;
508.2000;0.9214;1.1848;
508.5000;0.9231;1.1872;
508.8000;0.9239;1.1918;
509.1000;0.9223;1.1895;
509.4000;0.9206;1.1848;
509.7000;0.9239;1.1942;
510.0000;0.9223;1.1942;
510.3000;0.9198;1.1848;
510.6000;0.9206;1.1778;
510.9000;0.9166;1.1708;
511.2000;0.9198;1.1755;
511.5000;0.9206;1.1662;
511.8000;0.9182;1.1639;
512.1000;0.9190;1.1639;
512.4000;0.9206;1.1639;
512.7000;0.9182;1.1545;
513.0000;0.9125;1.1429;
513.3000;0.9198;1.1685;
513.6000;0.9182;1.1685;
513.9000;0.9149;1.1522;
514.2000;0.9182;1.1639;
514.5000;0.9206;1.1592;
514.8000;0.9206;1.1615;
515.1000;0.9206;1.1639;
515.4000;0.9206;1.1708;
515.7000;0.9206;1.1639;
516.0000;0.9198;1.1569;
516.3000;0.9166;1.1522;
516.6000;0.9198;1.1522;
516.9000;0.9190;1.1522;
517.2000;0.9206;1.1592;
517.5000;0.9198;1.1615;
517.8000;0.9198;1.1662;
518.1000;0.9190;1.1662;
518.4000;0.9231;1.1755;
518.7000;0.9190;1.1615;
519.0000;0.9198;1.1662;
519.3000;0.9158;1.1662;
519.6000;0.9190;1.1755;
519.9000;0.9190;1.1732;
520.2000;0.9190;1.1708;
520.5000;0.9190;1.1685;
520.8000;0.9206;1.1755;
521.1000;0.9190;1.1755;
521.4000;0.9214;1.1802;
521.7000;0.9206;1.1825;
522.0000;0.9190;1.1778;
522.3000;0.9206;1.1755;
522.6000;0.9182;1.1708;
522.9000;0.9206;1.1825;
523.2000;0.9223;1.1872;
523.5000;0.9084;1.1545;
523.8000;0.9182;1.1732;
524.1000;0.9239;1.1872;
524.4000;0.9174;1.1685;
524.7000;0.9190;1.1708;
525.0000;0.9206;1.1708;
525.3000;0.9182;1.1685;
525.6000;0.9198;1.1708;
525.9000;0.9158;1.1662;
526.2000;0.9255;1.1895;
526.5000;0.9190;1.1755;
526.8000;0.9158;1.1685;
527.1000;0.9247;1.1872;
527.4000;0.9166;1.1708;
527.7000;0.9141;1.1639;
528.0000;0.9198;1.1755;
528.3000;0.9174;1.1802;
528.6000;0.9198;1.1825;
528.9000;0.9280;1.1918;
529.2000;0.9280;1.1872;
529.5000;0.9182;1.1732;
529.8000;0.9190;1.1732;
530.1000;0.9117;1.1522;
530.4000;0.9190;1.1732;
530.7000;0.9206;1.1825;
531.0000;0.9174;1.1778;
531.3000;0.9198;1.1755;
531.6000;0.9198;1.1755;
531.9000;0.9166;1.1662;
532.2000;0.9166;1.1732;
532.5000;0.9166;1.1685;
532.8000;0.9190;1.1662;
533.1000;0.9190;1.1639;
533.4000;0.9198;1.1639;
533.7000;0.9158;1.1499;
534.0000;0.9158;1.1569;
534.3000;0.9206;1.1662;
534.6000;0.9182;1.1522;
534.9000;0.9214;1.1662;
535.2000;0.9206;1.1615;
535.5000;0.9190;1.1499;
535.8000;0.9206;1.1545;
536.1000;0.9206;1.1499;
536.4000;0.9190;1.1522;
536.7000;0.9174;1.1592;
537.0000;0.9198;1.1708;
537.3000;0.9190;1.1708;
537.6000;0.9214;1.1732;
537.9000;0.9190;1.1592;
538.2000;0.9198;1.1615;
538.5000;0.9198;1.1662;
538.8000;0.9206;1.1662;
539.1000;0.9198;1.1615;
539.4000;0.9198;1.1639;
539.7000;0.9206;1.1708;
540.0000;0.9190;1.1755;
540.3000;0.9182;1.1732;
540.6000;0.9206;1.1755;
540.9000;0.9206;1.1708;
541.2000;0.9239;1.1802;
541.5000;0.9198;1.1685;
541.8000;0.9214;1.1732;
542.1000;0.9190;1.1732;
542.4000;0.9198;1.1708;
542.7000;0.9174;1.1639;
543.0000;0.9182;1.1685;
543.3000;0.9239;1.1778;
543.6000;0.9247;1.1755;
543.9000;0.9239;1.1755;
544.2000;0.9198;1.1639;
544.5000;0.9223;1.1685;
544.8000;0.9182;1.1569;
545.1000;0.9198;1.1615;
545.4000;0.9141;1.1405;
545.7000;0.9190;1.1522;
546.0000;0.9158;1.1475;
546.3000;0.9206;1.1615;
546.6000;0.9190;1.1592;
546.9000;0.9174;1.1592;
547.2000;0.9198;1.1662;
547.5000;0.9206;1.1615;
547.8000;0.9158;1.1592;
548.1000;0.9158;1.1569;
548.4000;0.9190;1.1708;
548.7000;0.9109;1.1499;
549.0000;0.9166;1.1615;
549.3000;0.9239;1.1825;
549.6000;0.9255;1.1825;
549.9000;0.9198;1.1802;
550.2000;0.9280;1.1942;
550.5000;0.9190;1.1708;
550.8000;0.9174;1.1732;
551.1000;0.9190;1.1685;
551.4000;0.9190;1.1662;
551.7000;0.9190;1.1615;
552.0000;0.9239;1.1685;
552.3000;0.9247;1.1708;
552.6000;0.9198;1.1522;
552.9000;0.9206;1.1522;
553.2000;0.9198;1.1592;
553.5000;0.9190;1.1499;
553.8000;0.9166;1.1522;
554.1000;0.9182;1.1592;
554.4000;0.9190;1.1592;
554.7000;0.9182;1.1615;
555.0000;0.9198;1.1732;
555.3000;0.9206;1.1802;
555.6000;0.9206;1.1895;
555.9000;0.9198;1.1825;
556.2000;0.9198;1.1825;
556.5000;0.9198;1.1778;
556.8000;0.9190;1.1778;
557.1000;0.9190;1.1755;
557.4000;0.9214;1.1872;
557.7000;0.9198;1.1802;
558.0000;0.9198;1.1872;
558.3000;0.9206;1.1825;
558.6000;0.9206;1.1778;
558.9000;0.9190;1.1778;
559.2000;0.9182;1.1732;
559.5000;0.9223;1.1825;
559.8000;0.9174;1.1708;
560.1000;0.9190;1.1708;
560.4000;0.9206;1.1825;
560.7000;0.9214;1.1825;
561.0000;0.9206;1.1895;
561.3000;0.9198;1.1825;
561.6000;0.9198;1.1872;
561.9000;0.9198;1.2012;
562.2000;0.9190;1.2058;
562.5000;0.9214;1.2152;
562.8000;0.9198;1.2105;
563.1000;0.9190;1.2012;
563.4000;0.9198;1.1988;
563.7000;0.9206;1.1965;
564.0000;0.9214;1.1942;
564.3000;0.9182;1.1802;
564.6000;0.9166;1.1825;
564.9000;0.9198;1.1942;
565.2000;0.9190;1.1918;
565.5000;0.9190;1.1918;
565.8000;0.9198;1.1965;
566.1000;0.9206;1.1918;
566.4000;0.9239;1.1988;
566.7000;0.9174;1.1848;
567.0000;0.9206;1.1872;
567.3000;0.9109;1.1708;
567.6000;0.9174;1.1872;
567.9000;0.9182;1.1965;
568.2000;0.9166;1.1918;
568.5000;0.9166;1.1732;
568.8000;0.9198;1.1732;
569.1000;0.9174;1.1708;
569.4000;0.9182;1.1662;
569.7000;0.9214;1.1872;
570.0000;0.9190;1.1732;
570.3000;0.9166;1.1662;
570.6000;0.9231;1.1895;
570.9000;0.9198;1.1825;
571.2000;0.9166;1.1778;
571.5000;0.9198;1.1732;
571.8000;0.9190;1.1708;
572.1000;0.9263;1.1825;
572.4000;0.9214;1.1662;
572.7000;0.9247;1.1802;
573.0000;0.9190;1.1662;
573.3000;0.9223;1.1708;
573.6000;0.9206;1.1685;
573.9000;0.9166;1.1615;
574.2000;0.9182;1.1685;
574.5000;0.9190;1.1848;
574.8000;0.9190;1.1895;
575.1000;0.9174;1.1848;
575.4000;0.9206;1.1872;
575.7000;0.9247;1.1988;
576.0000;0.9198;1.1918;
576.3000;0.9174;1.1848;
576.6000;0.9182;1.1848;
576.9000;0.9182;1.1848;
577.2000;0.9190;1.1825;
577.5000;0.9182;1.1708;
577.8000;0.9182;1.1685;
578.1000;0.9174;1.1685;
578.4000;0.9182;1.1685;
578.7000;0.9182;1.1639;
579.0000;0.9182;1.1732;
579.3000;0.9182;1.1848;
579.6000;0.9190;1.1918;
579.9000;0.9182;1.1848;
580.2000;0.9174;1.1755;
580.5000;0.9190;1.1685;
580.8000;0.9149;1.1755;
581.1000;0.9206;1.1872;
581.4000;0.9206;1.1755;
581.7000;0.9223;1.1778;
582.0000;0.9231;1.1778;
582.3000;0.9231;1.1802;
582.6000;0.9190;1.1732;
582.9000;0.9182;1.1802;
583.2000;0.9198;1.1895;
583.5000;0.9198;1.1872;
583.8000;0.9206;1.1848;
584.1000;0.9174;1.1825;
584.4000;0.9206;1.1918;
584.7000;0.9190;1.1895;
585.0000;0.9190;1.1895;
585.3000;0.9190;1.1825;
585.6000;0.9174;1.1848;
585.9000;0.9198;1.1918;
586.2000;0.9190;1.1895;
586.5000;0.9190;1.1872;
586.8000;0.9190;1.1895;
587.1000;0.9190;1.1942;
587.4000;0.9190;1.2105;
587.7000;0.9190;1.1965;
588.0000;0.9206;1.1988;
588.3000;0.9190;1.1918;
588.6000;0.9149;1.1895;
588.9000;0.9198;1.2082;
589.2000;0.9182;1.2012;
589.5000;0.9166;1.1988;
589.8000;0.9182;1.1965;
590.1000;0.9190;1.1965;
590.4000;0.9174;1.1872;
590.7000;0.9182;1.1872;
591.0000;0.9198;1.1848;
591.3000;0.9190;1.1848;
591.6000;0.9182;1.1802;
591.9000;0.9190;1.1662;
592.2000;0.9255;1.1872;
592.5000;0.9198;1.1662;
592.8000;0.9190;1.1662;
593.1000;0.9182;1.1615;
593.4000;0.9190;1.1639;
593.7000;0.9198;1.1545;
594.0000;0.9190;1.1615;
594.3000;0.9190;1.1615;
594.6000;0.9231;1.1755;
594.9000;0.9182;1.1732;
595.2000;0.9198;1.1778;
595.5000;0.9068;1.1499;
595.8000;0.9174;1.1802;
596.1000;0.9182;1.1802;
596.4000;0.9166;1.1708;
596.7000;0.9182;1.1825;
597.0000;0.9174;1.1778;
597.3000;0.9174;1.1708;
597.6000;0.9174;1.1662;
597.9000;0.9190;1.1708;
598.2000;0.9174;1.1685;
598.5000;0.9174;1.1755;
598.8000;0.9174;1.1755;
599.1000;0.9174;1.1755;
599.4000;0.9174;1.1708;
599.7000;0.9174;1.1708;
600.0000;0.9158;1.1708;
600.3000;0.9198;1.1615;
600.6000;0.9223;1.1569;
600.9000;0.9182;1.1522;
601.2000;0.9174;1.1475;
601.5000;0.9125;1.1265;
601.8000;0.9092;1.1289;
602.1000;0.9011;1.1032;
602.4000;0.8962;1.0939;
602.7000;0.8921;1.0869;
603.0000;0.8799;1.0636;
603.3000;0.8791;1.0682;
603.6000;0.8751;1.0589;
603.9000;0.8702;1.0542;
604.2000;0.8653;1.0496;
604.5000;0.8612;1.0449;
604.8000;0.8547;1.0356;
605.1000;0.8514;1.0286;
605.4000;0.8474;1.0262;
605.7000;0.8417;1.0146;
606.0000;0.8392;1.0076;
606.3000;0.8344;1.0006;
606.6000;0.8344;0.9983;
606.9000;0.8295;0.9866;
607.2000;0.8262;0.9843;
607.5000;0.8197;0.9819;
607.8000;0.8197;0.9819;
608.1000;0.8148;0.9819;
608.4000;0.8107;0.9843;
608.7000;0.8091;0.9843;
609.0000;0.8059;0.9819;
609.3000;0.8026;0.9796;
609.6000;0.8018;0.9749;
609.9000;0.7985;0.9749;
610.2000;0.7945;0.9773;
610.5000;0.7928;0.9726;
610.8000;0.7888;0.9656;
611.1000;0.7871;0.9563;
611.4000;0.7847;0.9469;
611.7000;0.7839;0.9493;
612.0000;0.7798;0.9423;
612.3000;0.7790;0.9446;
612.6000;0.7766;0.9446;
612.9000;0.7741;0.9376;
613.2000;0.7733;0.9469;
613.5000;0.7709;0.9516;
613.8000;0.7660;0.9329;
614.1000;0.7676;0.9516;
614.4000;0.7660;0.9423;
614.7000;0.7538;0.9120;
615.0000;0.7611;0.9283;
615.3000;0.7489;0.9120;
615.6000;0.7554;0.9353;
615.9000;0.7546;0.9423;
616.2000;0.7513;0.9493;
616.5000;0.7481;0.9493;
616.8000;0.7481;0.9493;
617.1000;0.7464;0.9539;
617.4000;0.7432;0.9446;
617.7000;0.7416;0.9423;
618.0000;0.7424;0.9539;
618.3000;0.7416;0.9563;
618.6000;0.7391;0.9656;
618.9000;0.7334;0.9633;
619.2000;0.7342;0.9633;
619.5000;0.7350;0.9539;
619.8000;0.7310;0.9469;
620.1000;0.7302;0.9446;
620.4000;0.7277;0.9399;
620.7000;0.7269;0.9446;
621.0000;0.7293;0.9586;
621.3000;0.7236;0.9469;
621.6000;0.7220;0.9539;
621.9000;0.7212;0.9469;
622.2000;0.7123;0.9329;
622.5000;0.7188;0.9469;
622.8000;0.7090;0.9329;
623.1000;0.7147;0.9376;
623.4000;0.7163;0.9353;
623.7000;0.7131;0.9329;
624.0000;0.7163;0.9399;
624.3000;0.7131;0.9423;
624.6000;0.7098;0.9376;
624.9000;0.7123;0.9516;
625.2000;0.7057;0.9399;
625.5000;0.7049;0.9329;
625.8000;0.7049;0.9283;
626.1000;0.7057;0.9306;
626.4000;0.7017;0.9306;
626.7000;0.7041;0.9446;
627.0000;0.6952;0.9283;
627.3000;0.6935;0.9236;
627.6000;0.7033;0.9493;
627.9000;0.6943;0.9329;
628.2000;0.6976;0.9423;
628.5000;0.6992;0.9539;
628.8000;0.6992;0.9563;
629.1000;0.6992;0.9609;
629.4000;0.6935;0.9539;
629.7000;0.6927;0.9586;
630.0000;0.6927;0.9609;
630.3000;0.6895;0.9633;
630.6000;0.6886;0.9679;
630.9000;0.6919;0.9726;
631.2000;0.6862;0.9633;
631.5000;0.6854;0.9609;
631.8000;0.6862;0.9633;
632.1000;0.6854;0.9493;
632.4000;0.6846;0.9493;
632.7000;0.6838;0.9446;
633.0000;0.6813;0.9423;
633.3000;0.6862;0.9516;
633.6000;0.6805;0.9399;
633.9000;0.6789;0.9329;
634.2000;0.6772;0.9399;
634.5000;0.6781;0.9423;
634.8000;0.6732;0.9376;
635.1000;0.6707;0.9353;
635.4000;0.6756;0.9563;
635.7000;0.6756;0.9586;
636.0000;0.6724;0.9586;
636.3000;0.6716;0.9633;
636.6000;0.6707;0.9703;
636.9000;0.6716;0.9773;
637.2000;0.6667;0.9586;
637.5000;0.6707;0.9586;
637.8000;0.6707;0.9539;
638.1000;0.6610;0.9283;
638.4000;0.6748;0.9609;
638.7000;0.6675;0.9469;
639.0000;0.6650;0.9376;
639.3000;0.6667;0.9353;
639.6000;0.6691;0.9446;
639.9000;0.6650;0.9329;
640.2000;0.6634;0.9423;
640.5000;0.6634;0.9376;
640.8000;0.6642;0.9353;
641.1000;0.6634;0.9469;
641.4000;0.6593;0.9446;
641.7000;0.6602;0.9493;
642.0000;0.6593;0.9539;
642.3000;0.6585;0.9633;
642.6000;0.6585;0.9656;
642.9000;0.6577;0.9609;
643.2000;0.6569;0.9516;
643.5000;0.6561;0.9446;
643.8000;0.6545;0.9399;
644.1000;0.6561;0.9539;
644.4000;0.6528;0.9423;
644.7000;0.6536;0.9516;
645.0000;0.6561;0.9679;
645.3000;0.6545;0.9586;
645.6000;0.6528;0.9563;
645.9000;0.6512;0.9563;
646.2000;0.6618;0.9843;
646.5000;0.6528;0.9609;
646.8000;0.6512;0.9586;
647.1000;0.6463;0.9423;
647.4000;0.6504;0.9563;
647.7000;0.6479;0.9609;
648.0000;0.6488;0.9656;
648.3000;0.6479;0.9633;
648.6000;0.6463;0.9656;
648.9000;0.6479;0.9726;
649.2000;0.6463;0.9749;
649.5000;0.6455;0.9819;
649.8000;0.6447;0.9819;
650.1000;0.6414;0.9703;
650.4000;0.6439;0.9679;
650.7000;0.6455;0.9749;
651.0000;0.6447;0.9726;
651.3000;0.6414;0.9656;
651.6000;0.6447;0.9703;
651.9000;0.6390;0.9656;
652.2000;0.6422;0.9843;
652.5000;0.6325;0.9563;
652.8000;0.6382;0.9656;
653.1000;0.6390;0.9563;
653.4000;0.6382;0.9493;
653.7000;0.6382;0.9469;
654.0000;0.6341;0.9376;
654.3000;0.6398;0.9563;
654.6000;0.6365;0.9399;
654.9000;0.6382;0.9376;
655.2000;0.6365;0.9376;
655.5000;0.6374;0.9399;
655.8000;0.6382;0.9399;
656.1000;0.6374;0.9469;
656.4000;0.6341;0.9446;
656.7000;0.6374;0.9633;
657.0000;0.6341;0.9563;
657.3000;0.6341;0.9609;
657.6000;0.6349;0.9609;
657.9000;0.6325;0.9539;
658.2000;0.6357;0.9563;
658.5000;0.6325;0.9376;
658.8000;0.6341;0.9423;
659.1000;0.6317;0.9376;
659.4000;0.6333;0.9423;
659.7000;0.6325;0.9469;
660.0000;0.6341;0.9516;
660.3000;0.6300;0.9446;
660.6000;0.6406;0.9679;
660.9000;0.6276;0.9399;
661.2000;0.6276;0.9469;
661.5000;0.6317;0.9516;
661.8000;0.6276;0.9539;
662.1000;0.6276;0.9633;
662.4000;0.6195;0.9423;
662.7000;0.6284;0.9493;
663.0000;0.6260;0.9493;
663.3000;0.6268;0.9563;
663.6000;0.6260;0.9539;
663.9000;0.6243;0.9493;
664.2000;0.6252;0.9609;
664.5000;0.6219;0.9516;
664.8000;0.6252;0.9563;
665.1000;0.6235;0.9563;
665.4000;0.6252;0.9633;
665.7000;0.6300;0.9726;
666.0000;0.6211;0.9563;
666.3000;0.6243;0.9563;
666.6000;0.6235;0.9609;
666.9000;0.6178;0.9446;
667.2000;0.6170;0.9399;
667.5000;0.6203;0.9446;
667.8000;0.6203;0.9469;
668.1000;0.6219;0.9446;
668.4000;0.6203;0.9446;
668.7000;0.6195;0.9446;
669.0000;0.6195;0.9563;
669.3000;0.6211;0.9633;
669.6000;0.6235;0.9773;
669.9000;0.6195;0.9749;
670.2000;0.6211;0.9843;
670.5000;0.6178;0.9679;
670.8000;0.6211;0.9749;
671.1000;0.6186;0.9609;
671.4000;0.6170;0.9563;
671.7000;0.6227;0.9703;
672.0000;0.6178;0.9563;
672.3000;0.6178;0.9493;
672.6000;0.6146;0.9446;
672.9000;0.6154;0.9423;
673.2000;0.6186;0.9446;
673.5000;0.6195;0.9446;
673.8000;0.6162;0.9423;
674.1000;0.6146;0.9446;
674.4000;0.6178;0.9493;
674.7000;0.6195;0.9563;
675.0000;0.6195;0.9516;
675.3000;0.6154;0.9423;
675.6000;0.6154;0.9399;
675.9000;0.6162;0.9399;
676.2000;0.6129;0.9236;
676.5000;0.6097;0.9120;
676.8000;0.6129;0.9283;
677.1000;0.6146;0.9283;
677.4000;0.6154;0.9260;
677.7000;0.6138;0.9213;
678.0000;0.6113;0.9190;
678.3000;0.6154;0.9283;
678.6000;0.6129;0.9306;
678.9000;0.6081;0.9213;
679.2000;0.6113;0.9306;
679.5000;0.6121;0.9329;
679.8000;0.6072;0.9190;
680.1000;0.6097;0.9213;
680.4000;0.6089;0.9260;
680.7000;0.6105;0.9423;
681.0000;0.6105;0.9423;
681.3000;0.6129;0.9399;
681.6000;0.6113;0.9353;
681.9000;0.6081;0.9306;
682.2000;0.6072;0.9329;
682.5000;0.6081;0.9376;
682.8000;0.6081;0.9353;
683.1000;0.6081;0.9306;
683.4000;0.6089;0.9353;
683.7000;0.6072;0.9423;
684.0000;0.6089;0.9493;
684.3000;0.6032;0.9399;
684.6000;0.6138;0.9656;
684.9000;0.6081;0.9586;
685.2000;0.5934;0.9213;
685.5000;0.6170;0.9749;
685.8000;0.6064;0.9563;
686.1000;0.6056;0.9539;
686.4000;0.6048;0.9446;
686.7000;0.6072;0.9539;
687.0000;0.6056;0.9563;
687.3000;0.6072;0.9633;
687.6000;0.6081;0.9609;
687.9000;0.6072;0.9539;
688.2000;0.6056;0.9446;
688.5000;0.6048;0.9469;
688.8000;0.6064;0.9516;
689.1000;0.6056;0.9656;
689.4000;0.6024;0.9539;
689.7000;0.6032;0.9633;
690.0000;0.6064;0.9679;
690.3000;0.5975;0.9493;
690.6000;0.6024;0.9586;
690.9000;0.6064;0.9563;
691.2000;0.6040;0.9633;
691.5000;0.6024;0.9586;
691.8000;0.6032;0.9516;
692.1000;0.6032;0.9539;
692.4000;0.5991;0.9469;
692.7000;0.6007;0.9469;
693.0000;0.6032;0.9516;
693.3000;0.5958;0.9399;
693.6000;0.6032;0.9446;
693.9000;0.6064;0.9469;
694.2000;0.6024;0.9493;
694.5000;0.6007;0.9469;
694.8000;0.5991;0.9446;
695.1000;0.6040;0.9493;
695.4000;0.6015;0.9469;
695.7000;0.6015;0.9399;
696.0000;0.6024;0.9423;
696.3000;0.5999;0.9329;
696.6000;0.6015;0.9329;
696.9000;0.6007;0.9260;
697.2000;0.5999;0.9306;
697.5000;0.6015;0.9353;
697.8000;0.5934;0.9213;
698.1000;0.5983;0.9260;
698.4000;0.5999;0.9213;
698.7000;0.5950;0.9026;
699.0000;0.5983;0.9143;
699.3000;0.5983;0.9166;
699.6000;0.5967;0.9143;
699.9000;0.5991;0.9329;
700.2000;0.6040;0.9399;
700.5000;0.6007;0.9376;
700.8000;0.5999;0.9399;
701.1000;0.5983;0.9399;
701.4000;0.6015;0.9516;
701.7000;0.5991;0.9446;
702.0000;0.5991;0.9399;
702.3000;0.5999;0.9306;
702.6000;0.6048;0.9446;
702.9000;0.5991;0.9306;
703.2000;0.5958;0.9213;
703.5000;0.5975;0.9236;
703.8000;0.5967;0.9260;
704.1000;0.5983;0.9190;
704.4000;0.5983;0.9190;
704.7000;0.5958;0.9190;
705.0000;0.5950;0.9190;
705.3000;0.5991;0.9260;
705.6000;0.5958;0.9166;
705.9000;0.6064;0.9376;
706.2000;0.5845;0.8933;
706.5000;0.5942;0.9190;
706.8000;0.5958;0.9213;
707.1000;0.5975;0.9260;
707.4000;0.5942;0.9213;
707.7000;0.5934;0.9236;
708.0000;0.5950;0.9306;
708.3000;0.5934;0.9260;
708.6000;0.5958;0.9190;
708.9000;0.5942;0.9143;
709.2000;0.5958;0.9143;
709.5000;0.5934;0.9120;
709.8000;0.5950;0.9260;
710.1000;0.5942;0.9213;
710.4000;0.5967;0.9353;
710.7000;0.5934;0.9306;
711.0000;0.5926;0.9283;
711.3000;0.5983;0.9376;
711.6000;0.5958;0.9260;
711.9000;0.5950;0.9329;
712.2000;0.5934;0.9283;
712.5000;0.5967;0.9353;
712.8000;0.5828;0.9143;
713.1000;0.5950;0.9306;
713.4000;0.6024;0.9516;
713.7000;0.5942;0.9306;
714.0000;0.5934;0.9213;
714.3000;0.5902;0.9236;
714.6000;0.5926;0.9329;
714.9000;0.5918;0.9423;
715.2000;0.5958;0.9469;
715.5000;0.5918;0.9423;
715.8000;0.5942;0.9446;
716.1000;0.5893;0.9353;
716.4000;0.5942;0.9469;
716.7000;0.5926;0.9516;
717.0000;0.5902;0.9516;
717.3000;0.5934;0.9586;
717.6000;0.5902;0.9493;
717.9000;0.5991;0.9633;
718.2000;0.5902;0.9306;
718.5000;0.5910;0.9353;
718.8000;0.5918;0.9376;
719.1000;0.5902;0.9446;
719.4000;0.5885;0.9493;
719.7000;0.5918;0.9469;
720.0000;0.5804;0.9166;
720.3000;0.5877;0.9329;
720.6000;0.5910;0.9399;
720.9000;0.5910;0.9306;
721.2000;0.5885;0.9306;
721.5000;0.5877;0.9306;
721.8000;0.5885;0.9423;
722.1000;0.5893;0.9469;
722.4000;0.5918;0.9609;
722.7000;0.5869;0.9516;
723.0000;0.5877;0.9516;
723.3000;0.5910;0.9493;
723.6000;0.5918;0.9516;
723.9000;0.5893;0.9399;
724.2000;0.5885;0.9423;
724.5000;0.5902;0.9493;
724.8000;0.5910;0.9563;
725.1000;0.5861;0.9399;
725.4000;0.5877;0.9493;
725.7000;0.5877;0.9539;
726.0000;0.5902;0.9539;
726.3000;0.5869;0.9563;
726.6000;0.5885;0.9656;
726.9000;0.5885;0.9703;
727.2000;0.5893;0.9703;
727.5000;0.5893;0.9726;
727.8000;0.5861;0.9656;
728.1000;0.5877;0.9703;
728.4000;0.5877;0.9679;
728.7000;0.5902;0.9609;
729.0000;0.5869;0.9516;
729.3000;0.5885;0.9516;
729.6000;0.5853;0.9446;
729.9000;0.5739;0.9143;
730.2000;0.5869;0.9446;
730.5000;0.5869;0.9399;
730.8000;0.5885;0.9423;
731.1000;0.5877;0.9399;
731.4000;0.5853;0.9376;
731.7000;0.5885;0.9493;
732.0000;0.5861;0.9469;
732.3000;0.5885;0.9563;
732.6000;0.5853;0.9446;
732.9000;0.5828;0.9399;
733.2000;0.5893;0.9586;
733.5000;0.5877;0.9516;
733.8000;0.5885;0.9423;
734.1000;0.5869;0.9446;
734.4000;0.5861;0.9423;
734.7000;0.5861;0.9306;
735.0000;0.5804;0.9190;
735.3000;0.5885;0.9493;
735.6000;0.5918;0.9563;
735.9000;0.5771;0.9236;
736.2000;0.5942;0.9539;
736.5000;0.5885;0.9353;
736.8000;0.5845;0.9329;
737.1000;0.5877;0.9469;
737.4000;0.5967;0.9889;
737.7000;0.5853;0.9656;
738.0000;0.5755;0.9353;
738.3000;0.5836;0.9609;
738.6000;0.5853;0.9609;
738.9000;0.5877;0.9633;
739.2000;0.5926;0.9703;
739.5000;0.5853;0.9563;
739.8000;0.5869;0.9493;
740.1000;0.5853;0.9469;
740.4000;0.5853;0.9539;
740.7000;0.5861;0.9539;
741.0000;0.5861;0.9539;
741.3000;0.5861;0.9563;
741.6000;0.5828;0.9539;
741.9000;0.5828;0.9609;
742.2000;0.5853;0.9633;
742.5000;0.5861;0.9609;
742.8000;0.5869;0.9563;
743.1000;0.5869;0.9633;
743.4000;0.5828;0.9539;
743.7000;0.5845;0.9563;
744.0000;0.5845;0.9423;
744.3000;0.5836;0.9446;
744.6000;0.5845;0.9446;
744.9000;0.5739;0.9120;
745.2000;0.5836;0.9329;
745.5000;0.5836;0.9469;
745.8000;0.5845;0.9423;
746.1000;0.5836;0.9423;
746.4000;0.5845;0.9469;
746.7000;0.5836;0.9493;
747.0000;0.5771;0.9283;
747.3000;0.5836;0.9469;
747.6000;0.5853;0.9539;
747.9000;0.5836;0.9586;
748.2000;0.5820;0.9586;
748.5000;0.5845;0.9633;
748.8000;0.5828;0.9633;
749.1000;0.5893;0.9703;
749.4000;0.5845;0.9539;
749.7000;0.5845;0.9679;
750.0000;0.5820;0.9609;
750.3000;0.5828;0.9539;
750.6000;0.5836;0.9563;
750.9000;0.5812;0.9586;
751.2000;0.5812;0.9586;
751.5000;0.5788;0.9469;
751.8000;0.5812;0.9493;
752.1000;0.5820;0.9633;
752.4000;0.5828;0.9773;
752.7000;0.5828;0.9749;
753.0000;0.5828;0.9703;
753.3000;0.5820;0.9679;
753.6000;0.5804;0.9656;
753.9000;0.5820;0.9679;
754.2000;0.5755;0.9446;
754.5000;0.5812;0.9493;
754.8000;0.5812;0.9493;
755.1000;0.5796;0.9446;
755.4000;0.5804;0.9469;
755.7000;0.5820;0.9516;
756.0000;0.5812;0.9516;
756.3000;0.5812;0.9446;
756.6000;0.5885;0.9539;
756.9000;0.5788;0.9236;
757.2000;0.5820;0.9283;
757.5000;0.5812;0.9306;
757.8000;0.5836;0.9353;
758.1000;0.5828;0.9353;
758.4000;0.5804;0.9353;
758.7000;0.5836;0.9469;
759.0000;0.5820;0.9446;
759.3000;0.5812;0.9469;
759.6000;0.5747;0.9236;
759.9000;0.5796;0.9260;
760.2000;0.5796;0.9283;
760.5000;0.5820;0.9353;
760.8000;0.5812;0.9353;
761.1000;0.5812;0.9399;
761.4000;0.5845;0.9469;
761.7000;0.5820;0.9329;
762.0000;0.5796;0.9236;
762.3000;0.5820;0.9283;
762.6000;0.5804;0.9143;
762.9000;0.5771;0.9003;
763.2000;0.5788;0.9120;
763.5000;0.5796;0.9166;
763.8000;0.5820;0.9260;
764.1000;0.5812;0.9306;
764.4000;0.5788;0.9353;
764.7000;0.5820;0.9446;
765.0000;0.5820;0.9446;
765.3000;0.5893;0.9539;
765.6000;0.5812;0.9329;
765.9000;0.5828;0.9306;
766.2000;0.5804;0.9306;
766.5000;0.5804;0.9236;
766.8000;0.5828;0.9283;
767.1000;0.5820;0.9306;
767.4000;0.5812;0.9120;
767.7000;0.5788;0.9003;
768.0000;0.5804;0.9073;
768.3000;0.5812;0.9073;
768.6000;0.5804;0.9096;
768.9000;0.5812;0.9190;
769.2000;0.5747;0.9073;
769.5000;0.5788;0.9166;
769.8000;0.5820;0.9213;
770.1000;0.5812;0.9190;
770.4000;0.5804;0.9283;
770.7000;0.5812;0.9376;
771.0000;0.5796;0.9353;
771.3000;0.5836;0.9469;
771.6000;0.5747;0.9190;
771.9000;0.5804;0.9399;
772.2000;0.5861;0.9586;
772.5000;0.5755;0.9283;
772.8000;0.5763;0.9213;
773.1000;0.5804;0.9283;
773.4000;0.5763;0.9143;
773.7000;0.5771;0.9236;
774.0000;0.5812;0.9306;
774.3000;0.5804;0.9283;
774.6000;0.5820;0.9283;
774.9000;0.5788;0.9283;
775.2000;0.5845;0.9399;
775.5000;0.5804;0.9329;
775.8000;0.5812;0.9283;
776.1000;0.5796;0.9190;
776.4000;0.5722;0.9073;
776.7000;0.5788;0.9236;
777.0000;0.5796;0.9143;
777.3000;0.5796;0.9166;
777.6000;0.5796;0.9143;
777.9000;0.5771;0.9120;
778.2000;0.5796;0.9306;
778.5000;0.5755;0.9260;
778.8000;0.5788;0.9260;
779.1000;0.5804;0.9306;
779.4000;0.5812;0.9329;
779.7000;0.5836;0.9446;
780.0000;0.5836;0.9399;
780.3000;0.5763;0.9236;
780.6000;0.5788;0.9353;
780.9000;0.5788;0.9446;
781.2000;0.5763;0.9423;
781.5000;0.5812;0.9633;
781.8000;0.5690;0.9236;
782.1000;0.5763;0.9353;
782.4000;0.5796;0.9423;
782.7000;0.5690;0.9213;
783.0000;0.5771;0.9446;
783.3000;0.5788;0.9609;
783.6000;0.5804;0.9656;
783.9000;0.5796;0.9586;
784.2000;0.5788;0.9563;
784.5000;0.5763;0.9446;
784.8000;0.5796;0.9539;
785.1000;0.5788;0.9446;
785.4000;0.5779;0.9283;
785.7000;0.5788;0.9329;
786.0000;0.5771;0.9260;
786.3000;0.5771;0.9376;
786.6000;0.5788;0.9493;
786.9000;0.5771;0.9493;
787.2000;0.5771;0.9446;
787.5000;0.5788;0.9539;
787.8000;0.5779;0.9493;
788.1000;0.5788;0.9469;
788.4000;0.5779;0.9493;
788.7000;0.5747;0.9446;
789.0000;0.5796;0.9516;
789.3000;0.5788;0.9586;
789.6000;0.5755;0.9446;
789.9000;0.5788;0.9493;
790.2000;0.5779;0.9469;
790.5000;0.5796;0.9539;
790.8000;0.5763;0.9423;
791.1000;0.5779;0.9423;
791.4000;0.5771;0.9399;
791.7000;0.5788;0.9539;
792.0000;0.5779;0.9539;
792.3000;0.5779;0.9563;
792.6000;0.5747;0.9493;
792.9000;0.5771;0.9609;
793.2000;0.5779;0.9609;
793.5000;0.5788;0.9586;
793.8000;0.5763;0.9516;
794.1000;0.5771;0.9539;
794.4000;0.5739;0.9539;
794.7000;0.5796;0.9656;
795.0000;0.5779;0.9679;
795.3000;0.5755;0.9609;
795.6000;0.5788;0.9633;
795.9000;0.5779;0.9609;
796.2000;0.5771;0.9703;
796.5000;0.5747;0.9633;
796.8000;0.5763;0.9656;
797.1000;0.5763;0.9609;
797.4000;0.5771;0.9609;
797.7000;0.5747;0.9586;
798.0000;0.5771;0.9609;
798.3000;0.5739;0.9563;
798.6000;0.5812;0.9609;
798.9000;0.5755;0.9376;
799.2000;0.5747;0.9260;
799.5000;0.5755;0.9213;
799.8000;0.5763;0.9283;
800.1000;0.5763;0.9329;
800.4000;0.5747;0.9329;
800.7000;0.5755;0.9353;
801.0000;0.5763;0.9493;
801.3000;0.5763;0.9469;
801.6000;0.5722;0.9399;
801.9000;0.5722;0.9353;
802.2000;0.5747;0.9399;
802.5000;0.5755;0.9423;
802.8000;0.5779;0.9399;
803.1000;0.5771;0.9493;
803.4000;0.5690;0.9283;
803.7000;0.5771;0.9446;
804.0000;0.5779;0.9446;
804.3000;0.5747;0.9423;
804.6000;0.5788;0.9493;
804.9000;0.5763;0.9446;
805.2000;0.5755;0.9446;
805.5000;0.5885;0.9726;
805.8000;0.5763;0.9469;
806.1000;0.5763;0.9493;
806.4000;0.5828;0.9633;
806.7000;0.5763;0.9399;
807.0000;0.5755;0.9423;
807.3000;0.5698;0.9283;
807.6000;0.5739;0.9399;
807.9000;0.5755;0.9469;
808.2000;0.5796;0.9469;
808.5000;0.5739;0.9399;
808.8000;0.5755;0.9493;
809.1000;0.5763;0.9493;
809.4000;0.5763;0.9493;
809.7000;0.5747;0.9516;
810.0000;0.5755;0.9446;
810.3000;0.5796;0.9446;
810.6000;0.5771;0.9446;
810.9000;0.5747;0.9376;
811.2000;0.5804;0.9563;
811.5000;0.5747;0.9399;
811.8000;0.5755;0.9446;
812.1000;0.5747;0.9539;
812.4000;0.5739;0.9493;
812.7000;0.5731;0.9423;
813.0000;0.5747;0.9586;
813.3000;0.5722;0.9586;
813.6000;0.5739;0.9563;
813.9000;0.5763;0.9563;
814.2000;0.5747;0.9493;
814.5000;0.5755;0.9516;
814.8000;0.5747;0.9469;
815.1000;0.5788;0.9516;
815.4000;0.5763;0.9516;
815.7000;0.5812;0.9609;
816.0000;0.5755;0.9493;
816.3000;0.5779;0.9516;
816.6000;0.5698;0.9306;
816.9000;0.5763;0.9469;
817.2000;0.5763;0.9446;
817.5000;0.5731;0.9423;
817.8000;0.5747;0.9446;
818.1000;0.5747;0.9353;
818.4000;0.5747;0.9446;
818.7000;0.5763;0.9446;
819.0000;0.5739;0.9516;
819.3000;0.5739;0.9469;
819.6000;0.5755;0.9446;
819.9000;0.5739;0.9469;
820.2000;0.5779;0.9633;
820.5000;0.5747;0.9679;
820.8000;0.5755;0.9609;
821.1000;0.5739;0.9493;
821.4000;0.5747;0.9493;
821.7000;0.5747;0.9469;
822.0000;0.5763;0.9516;
822.3000;0.5755;0.9469;
822.6000;0.5771;0.9563;
822.9000;0.5755;0.9563;
823.2000;0.5755;0.9609;
823.5000;0.5731;0.9493;
823.8000;0.5731;0.9469;
824.1000;0.5779;0.9516;
824.4000;0.5755;0.9469;
824.7000;0.5739;0.9329;
825.0000;0.5739;0.9353;
825.3000;0.5755;0.9399;
825.6000;0.5739;0.9423;
825.9000;0.5739;0.9469;
826.2000;0.5747;0.9539;
826.5000;0.5739;0.9563;
826.8000;0.5747;0.9656;
827.1000;0.5747;0.9703;
827.4000;0.5755;0.9703;
827.7000;0.5714;0.9539;
828.0000;0.5739;0.9586;
828.3000;0.5755;0.9586;
828.6000;0.5763;0.9516;
828.9000;0.5731;0.9376;
829.2000;0.5706;0.9399;
829.5000;0.5739;0.9516;
829.8000;0.5722;0.9493;
830.1000;0.5731;0.9423;
830.4000;0.5722;0.9399;
830.7000;0.5722;0.9469;
831.0000;0.5739;0.9446;
831.3000;0.5674;0.9260;
831.6000;0.5722;0.9376;
831.9000;0.5747;0.9376;
832.2000;0.5796;0.9423;
832.5000;0.5747;0.9260;
832.8000;0.5771;0.9399;
833.1000;0.5747;0.9399;
833.4000;0.5788;0.9493;
833.7000;0.5755;0.9376;
834.0000;0.5739;0.9376;
834.3000;0.5674;0.9166;
834.6000;0.5731;0.9353;
834.9000;0.5731;0.9423;
835.2000;0.5747;0.9516;
835.5000;0.5731;0.9539;
835.8000;0.5739;0.9609;
836.1000;0.5747;0.9563;
836.4000;0.5739;0.9493;
836.7000;0.5739;0.9516;
837.0000;0.5755;0.9469;
837.3000;0.5739;0.9353;
837.6000;0.5755;0.9423;
837.9000;0.5739;0.9516;
838.2000;0.5722;0.9563;
838.5000;0.5763;0.9679;
838.8000;0.5722;0.9539;
839.1000;0.5731;0.9586;
839.4000;0.5739;0.9563;
839.7000;0.5771;0.9633;
840.0000;0.5755;0.9633;
840.3000;0.5731;0.9516;
840.6000;0.5731;0.9516;
840.9000;0.5739;0.9539;
841.2000;0.5714;0.9493;
841.5000;0.5722;0.9446;
841.8000;0.5739;0.9493;
842.1000;0.5739;0.9493;
842.4000;0.5731;0.9493;
842.7000;0.5706;0.9516;
843.0000;0.5755;0.9609;
843.3000;0.5739;0.9609;
843.6000;0.5657;0.9376;
843.9000;0.5739;0.9563;
844.2000;0.5722;0.9516;
844.5000;0.5722;0.9446;
844.8000;0.5714;0.9423;
845.1000;0.5755;0.9423;
845.4000;0.5755;0.9399;
845.7000;0.5722;0.9399;
846.0000;0.5722;0.9376;
846.3000;0.5731;0.9446;
846.6000;0.5731;0.9399;
846.9000;0.5706;0.9236;
847.2000;0.5763;0.9353;
847.5000;0.5731;0.9260;
847.8000;0.5731;0.9260;
848.1000;0.5706;0.9213;
848.4000;0.5739;0.9283;
848.7000;0.5739;0.9329;
849.0000;0.5763;0.9516;
849.3000;0.5739;0.9446;
849.6000;0.5739;0.9329;
849.9000;0.5796;0.9516;
850.2000;0.5739;0.9376;
850.5000;0.5690;0.9329;
850.8000;0.5739;0.9446;
851.1000;0.5714;0.9399;
851.4000;0.5698;0.9423;
851.7000;0.5722;0.9469;
852.0000;0.5641;0.9213;
852.3000;0.5763;0.9516;
852.6000;0.5731;0.9516;
852.9000;0.5739;0.9469;
853.2000;0.5739;0.9516;
853.5000;0.5731;0.9539;
853.8000;0.5722;0.9493;
854.1000;0.5714;0.9399;
854.4000;0.5714;0.9399;
854.7000;0.5657;0.9236;
855.0000;0.5633;0.9073;
855.3000;0.5804;0.9493;
855.6000;0.5731;0.9446;
855.9000;0.5706;0.9446;
856.2000;0.5714;0.9423;
856.5000;0.5747;0.9469;
856.8000;0.5763;0.9516;
857.1000;0.5722;0.9469;
857.4000;0.5714;0.9493;
857.7000;0.5722;0.9446;
858.0000;0.5739;0.9329;
858.3000;0.5731;0.9329;
858.6000;0.5714;0.9306;
858.9000;0.5731;0.9423;
859.2000;0.5755;0.9423;
859.5000;0.5706;0.9329;
859.8000;0.5714;0.9423;
860.1000;0.5731;0.9399;
860.4000;0.5722;0.9353;
860.7000;0.5747;0.9353;
861.0000;0.5722;0.9306;
861.3000;0.5739;0.9399;
861.6000;0.5820;0.9563;
861.9000;0.5698;0.9260;
862.2000;0.5706;0.9236;
862.5000;0.5731;0.9353;
862.8000;0.5796;0.9563;
863.1000;0.5731;0.9329;
863.4000;0.5731;0.9329;
863.7000;0.5714;0.9283;
864.0000;0.5739;0.9306;
864.3000;0.5739;0.9329;
864.6000;0.5731;0.9236;
864.9000;0.5698;0.9143;
865.2000;0.5714;0.9236;
865.5000;0.5731;0.9306;
865.8000;0.5714;0.9236;
866.1000;0.5722;0.9329;
866.4000;0.5714;0.9260;
866.7000;0.5714;0.9283;
867.0000;0.5731;0.9283;
867.3000;0.5714;0.9283;
867.6000;0.5739;0.9353;
867.9000;0.5722;0.9306;
868.2000;0.5731;0.9399;
868.5000;0.5739;0.9423;
868.8000;0.5739;0.9376;
869.1000;0.5722;0.9353;
869.4000;0.5731;0.9446;
869.7000;0.5722;0.9493;
870.0000;0.5731;0.9516;
870.3000;0.5674;0.9213;
870.6000;0.5739;0.9376;
870.9000;0.5714;0.9306;
871.2000;0.5674;0.9143;
871.5000;0.5731;0.9213;
871.8000;0.5722;0.9306;
872.1000;0.5706;0.9353;
872.4000;0.5763;0.9423;
872.7000;0.5706;0.9260;
873.0000;0.5674;0.9190;
873.3000;0.5722;0.9213;
873.6000;0.5763;0.9236;
873.9000;0.5788;0.9376;
874.2000;0.5731;0.9283;
874.5000;0.5755;0.9353;
874.8000;0.5722;0.9306;
875.1000;0.5739;0.9329;
875.4000;0.5641;0.9050;
875.7000;0.5747;0.9353;
876.0000;0.5674;0.9306;
876.3000;0.5584;0.9143;
876.6000;0.5779;0.9586;
876.9000;0.5714;0.9423;
877.2000;0.5714;0.9446;
877.5000;0.5796;0.9563;
877.8000;0.5674;0.9306;
878.1000;0.5706;0.9423;
878.4000;0.5722;0.9446;
878.7000;0.5739;0.9516;
879.0000;0.5714;0.9423;
879.3000;0.5722;0.9376;
879.6000;0.5714;0.9469;
879.9000;0.5731;0.9446;
880.2000;0.5706;0.9469;
880.5000;0.5722;0.9493;
880.8000;0.5731;0.9539;
881.1000;0.5714;0.9516;
881.4000;0.5722;0.9516;
881.7000;0.5714;0.9516;
882.0000;0.5690;0.9423;
882.3000;0.5731;0.9563;
882.6000;0.5698;0.9539;
882.9000;0.5690;0.9399;
883.2000;0.5706;0.9399;
883.5000;0.5714;0.9493;
883.8000;0.5722;0.9516;
884.1000;0.5739;0.9446;
884.4000;0.5706;0.9423;
884.7000;0.5722;0.9493;
885.0000;0.5714;0.9446;
885.3000;0.5690;0.9353;
885.6000;0.5722;0.9423;
885.9000;0.5722;0.9469;
886.2000;0.5731;0.9493;
886.5000;0.5698;0.9446;
886.8000;0.5722;0.9376;
887.1000;0.5763;0.9469;
887.4000;0.5706;0.9353;
887.7000;0.5706;0.9446;
888.0000;0.5722;0.9423;
888.3000;0.5698;0.9376;
888.6000;0.5714;0.9399;
888.9000;0.5706;0.9306;
889.2000;0.5706;0.9399;
889.5000;0.5706;0.9399;
889.8000;0.5731;0.9446;
890.1000;0.5682;0.9329;
890.4000;0.5698;0.9353;
890.7000;0.5698;0.9329;
891.0000;0.5690;0.9376;
891.3000;0.5714;0.9493;
891.6000;0.5690;0.9493;
891.9000;0.5625;0.9329;
892.2000;0.5706;0.9493;
892.5000;0.5722;0.9563;
892.8000;0.5714;0.9586;
893.1000;0.5747;0.9726;
893.4000;0.5706;0.9539;
893.7000;0.5722;0.9516;
894.0000;0.5706;0.9493;
894.3000;0.5804;0.9749;
894.6000;0.5714;0.9563;
894.9000;0.5722;0.9516;
895.2000;0.5706;0.9423;
895.5000;0.5698;0.9376;
895.8000;0.5690;0.9423;
896.1000;0.5714;0.9353;
896.4000;0.5722;0.9399;
896.7000;0.5714;0.9469;
897.0000;0.5649;0.9353;
897.3000;0.5771;0.9679;
897.6000;0.5706;0.9539;
897.9000;0.5698;0.9423;
898.2000;0.5706;0.9376;
898.5000;0.5617;0.9190;
898.8000;0.5690;0.9353;
899.1000;0.5747;0.9399;
899.4000;0.5706;0.9236;
899.7000;0.5674;0.9096;
900.0000;0.5706;0.9236;
900.3000;0.5731;0.9306;
900.6000;0.5706;0.9353;
900.9000;0.5706;0.9329;
901.2000;0.5706;0.9283;
901.5000;0.5714;0.9236;
901.8000;0.5706;0.9283;
902.1000;0.5682;0.9353;
902.4000;0.5706;0.9446;
902.7000;0.5682;0.9376;
903.0000;0.5706;0.9399;
903.3000;0.5690;0.9329;
903.6000;0.5706;0.9306;
903.9000;0.5722;0.9376;
904.2000;0.5722;0.9353;
904.5000;0.5722;0.9446;
904.8000;0.5722;0.9399;
905.1000;0.5731;0.9469;
905.4000;0.5731;0.9446;
905.7000;0.5714;0.9469;
906.0000;0.5722;0.9563;
906.3000;0.5690;0.9423;
906.6000;0.5682;0.9329;
906.9000;0.5714;0.9423;
907.2000;0.5731;0.9493;
907.5000;0.5722;0.9516;
907.8000;0.5698;0.9423;
908.1000;0.5698;0.9423;
908.4000;0.5690;0.9399;
908.7000;0.5755;0.9446;
909.0000;0.5714;0.9376;
909.3000;0.5714;0.9306;
909.6000;0.5706;0.9329;
909.9000;0.5690;0.9283;
910.2000;0.5739;0.9423;
910.5000;0.5714;0.9423;
910.8000;0.5722;0.9353;
911.1000;0.5731;0.9446;
911.4000;0.5731;0.9423;
911.7000;0.5722;0.9423;
912.0000;0.5698;0.9376;
912.3000;0.5706;0.9283;
912.6000;0.5698;0.9283;
912.9000;0.5698;0.9283;
913.2000;0.5722;0.9376;
913.5000;0.5706;0.9329;
913.8000;0.5690;0.9306;
914.1000;0.5722;0.9376;
914.4000;0.5714;0.9376;
914.7000;0.5722;0.9399;
915.0000;0.5674;0.9306;
915.3000;0.5690;0.9329;
915.6000;0.5714;0.9423;
915.9000;0.5690;0.9306;
916.2000;0.5698;0.9260;
916.5000;0.5674;0.9190;
916.8000;0.5706;0.9260;
917.1000;0.5649;0.9166;
917.4000;0.5706;0.9260;
917.7000;0.5698;0.9329;
918.0000;0.5690;0.9376;
918.3000;0.5674;0.9306;
918.6000;0.5682;0.9283;
918.9000;0.5690;0.9260;
919.2000;0.5690;0.9260;
919.5000;0.5698;0.9260;
919.8000;0.5698;0.9236;
920.1000;0.5722;0.9329;
920.4000;0.5731;0.9376;
920.7000;0.5706;0.9236;
921.0000;0.5722;0.9329;
921.3000;0.5722;0.9306;
921.6000;0.5779;0.9516;
921.9000;0.5731;0.9376;
922.2000;0.5706;0.9353;
922.5000;0.5674;0.9236;
922.8000;0.5698;0.9283;
923.1000;0.5690;0.9236;
923.4000;0.5657;0.9050;
923.7000;0.5714;0.9166;
924.0000;0.5690;0.9096;
924.3000;0.5788;0.9353;
924.6000;0.5714;0.9306;
924.9000;0.5682;0.9260;
925.2000;0.5698;0.9306;
925.5000;0.5698;0.9283;
925.8000;0.5698;0.9283;
926.1000;0.5722;0.9329;
926.4000;0.5706;0.9306;
926.7000;0.5706;0.9423;
927.0000;0.5731;0.9446;
927.3000;0.5714;0.9329;
927.6000;0.5706;0.9376;
927.9000;0.5690;0.9329;
928.2000;0.5698;0.9446;
928.5000;0.5698;0.9399;
928.8000;0.5674;0.9329;
929.1000;0.5690;0.9399;
929.4000;0.5674;0.9329;
929.7000;0.5690;0.9329;
930.0000;0.5698;0.9376;
930.3000;0.5690;0.9329;
930.6000;0.5665;0.9306;
930.9000;0.5714;0.9446;
931.2000;0.5698;0.9376;
931.5000;0.5706;0.9283;
931.8000;0.5698;0.9236;
932.1000;0.5714;0.9190;
932.4000;0.5690;0.9166;
932.7000;0.5714;0.9213;
933.0000;0.5690;0.9143;
933.3000;0.5714;0.9190;
933.6000;0.5739;0.9283;
933.9000;0.5706;0.9236;
934.2000;0.5714;0.9329;
934.5000;0.5722;0.9353;
934.8000;0.5714;0.9353;
935.1000;0.5682;0.9306;
935.4000;0.5641;0.9096;
935.7000;0.5690;0.9213;
936.0000;0.5722;0.9353;
936.3000;0.5682;0.9399;
936.6000;0.5714;0.9423;
936.9000;0.5706;0.9353;
937.2000;0.5698;0.9376;
937.5000;0.5739;0.9539;
937.8000;0.5698;0.9376;
938.1000;0.5698;0.9283;
938.4000;0.5706;0.9236;
938.7000;0.5690;0.9260;
939.0000;0.5682;0.9236;
939.3000;0.5674;0.9260;
939.6000;0.5796;0.9493;
939.9000;0.5690;0.9283;
940.2000;0.5706;0.9423;
940.5000;0.5682;0.9376;
940.8000;0.5690;0.9539;
941.1000;0.5690;0.9539;
941.4000;0.5690;0.9469;
941.7000;0.5682;0.9423;
942.0000;0.5690;0.9493;
942.3000;0.5722;0.9609;
942.6000;0.5714;0.9586;
942.9000;0.5706;0.9539;
943.2000;0.5608;0.9190;
943.5000;0.5690;0.9399;
943.8000;0.5690;0.9399;
944.1000;0.5674;0.9423;
944.4000;0.5690;0.9376;
944.7000;0.5682;0.9306;
945.0000;0.5698;0.9306;
945.3000;0.5698;0.9260;
945.6000;0.5698;0.9213;
945.9000;0.5690;0.9283;
946.2000;0.5714;0.9329;
946.5000;0.5682;0.9283;
946.8000;0.5747;0.9399;
947.1000;0.5698;0.9260;
947.4000;0.5665;0.9236;
947.7000;0.5706;0.9283;
948.0000;0.5706;0.9260;
948.3000;0.5698;0.9306;
948.6000;0.5706;0.9236;
948.9000;0.5722;0.9190;
949.2000;0.5682;0.9073;
949.5000;0.5682;0.9120;
949.8000;0.5674;0.9236;
950.1000;0.5690;0.9260;
950.4000;0.5698;0.9283;
950.7000;0.5665;0.9213;
951.0000;0.5682;0.9236;
951.3000;0.5747;0.9329;
951.6000;0.5690;0.9143;
951.9000;0.5682;0.9166;
952.2000;0.5698;0.9190;
952.5000;0.5706;0.9213;
952.8000;0.5698;0.9213;
953.1000;0.5665;0.9166;
953.4000;0.5698;0.9260;
953.7000;0.5649;0.9190;
954.0000;0.5698;0.9306;
954.3000;0.5698;0.9376;
954.6000;0.5682;0.9353;
954.9000;0.5682;0.9376;
955.2000;0.5755;0.9539;
955.5000;0.5706;0.9423;
955.8000;0.5682;0.9306;
956.1000;0.5706;0.9399;
956.4000;0.5690;0.9446;
956.7000;0.5706;0.9376;
957.0000;0.5706;0.9353;
957.3000;0.5698;0.9236;
957.6000;0.5698;0.9120;
957.9000;0.5698;0.9050;
958.2000;0.5739;0.9120;
958.5000;0.5690;0.9050;
958.8000;0.5690;0.9073;
959.1000;0.5706;0.9143;
959.4000;0.5690;0.9073;
959.7000;0.5698;0.9050;
960.0000;0.5698;0.9073;
960.3000;0.5706;0.9166;
960.6000;0.5771;0.9329;
960.9000;0.5682;0.9120;
961.2000;0.5641;0.9120;
961.5000;0.5698;0.9120;
961.8000;0.5698;0.9166;
962.1000;0.5682;0.9143;
962.4000;0.5706;0.9166;
962.7000;0.5682;0.9096;
963.0000;0.5682;0.9190;
963.3000;0.5665;0.9166;
963.6000;0.5690;0.9236;
963.9000;0.5722;0.9353;
964.2000;0.5698;0.9376;
964.5000;0.5690;0.9283;
964.8000;0.5698;0.9376;
965.1000;0.5682;0.9283;
965.4000;0.5722;0.9283;
965.7000;0.5665;0.9166;
966.0000;0.5682;0.9190;
966.3000;0.5682;0.9190;
966.6000;0.5674;0.9026;
966.9000;0.5698;0.9120;
967.2000;0.5714;0.9050;
967.5000;0.5690;0.8933;
967.8000;0.5714;0.9003;
968.1000;0.5641;0.8816;
968.4000;0.5714;0.9120;
968.7000;0.5706;0.9120;
969.0000;0.5698;0.9166;
969.3000;0.5682;0.9166;
969.6000;0.5698;0.9166;
969.9000;0.5649;0.9050;
970.2000;0.5698;0.9096;
970.5000;0.5698;0.9120;
970.8000;0.5690;0.9026;
971.1000;0.5682;0.9143;
971.4000;0.5682;0.9096;
971.7000;0.5698;0.9073;
972.0000;0.5698;0.9096;
972.3000;0.5763;0.9236;
972.6000;0.5698;0.9120;
972.9000;0.5584;0.8863;
973.2000;0.5714;0.9190;
973.5000;0.5690;0.9096;
973.8000;0.5674;0.9143;
974.1000;0.5682;0.9143;
974.4000;0.5706;0.9283;
974.7000;0.5714;0.9260;
975.0000;0.5674;0.9143;
975.3000;0.5714;0.9329;
975.6000;0.5682;0.9306;
975.9000;0.5706;0.9353;
976.2000;0.5714;0.9469;
976.5000;0.5690;0.9376;
976.8000;0.5755;0.9469;
977.1000;0.5706;0.9376;
977.4000;0.5674;0.9236;
977.7000;0.5714;0.9306;
978.0000;0.5657;0.9260;
978.3000;0.5722;0.9399;
978.6000;0.5698;0.9329;
978.9000;0.5706;0.9306;
979.2000;0.5674;0.9236;
979.5000;0.5682;0.9260;
979.8000;0.5674;0.9236;
980.1000;0.5690;0.9306;
980.4000;0.5690;0.9376;
980.7000;0.5674;0.9376;
981.0000;0.5657;0.9423;
981.3000;0.5674;0.9399;
981.6000;0.5690;0.9306;
981.9000;0.5690;0.9353;
982.2000;0.5682;0.9353;
982.5000;0.5714;0.9399;
982.8000;0.5714;0.9469;
983.1000;0.5706;0.9446;
983.4000;0.5682;0.9376;
983.7000;0.5690;0.9399;
984.0000;0.5665;0.9376;
984.3000;0.5682;0.9423;
984.6000;0.5617;0.9190;
984.9000;0.5682;0.9376;
985.2000;0.5698;0.9423;
985.5000;0.5690;0.9446;
985.8000;0.5657;0.9376;
986.1000;0.5674;0.9399;
986.4000;0.5698;0.9376;
986.7000;0.5682;0.9353;
987.0000;0.5714;0.9399;
987.3000;0.5682;0.9306;
987.6000;0.5682;0.9306;
987.9000;0.5665;0.9306;
988.2000;0.5698;0.9353;
988.5000;0.5698;0.9469;
988.8000;0.5731;0.9539;
989.1000;0.5665;0.9376;
989.4000;0.5714;0.9399;
989.7000;0.5698;0.9446;
990.0000;0.5714;0.9446;
990.3000;0.5698;0.9376;
990.6000;0.5690;0.9306;
990.9000;0.5665;0.9213;
991.2000;0.5657;0.9329;
991.5000;0.5682;0.9423;
991.8000;0.5657;0.9376;
992.1000;0.5714;0.9586;
992.4000;0.5674;0.9423;
992.7000;0.5690;0.9423;
993.0000;0.5682;0.9423;
993.3000;0.5698;0.9376;
993.6000;0.5682;0.9376;
993.9000;0.5698;0.9493;
994.2000;0.5649;0.9469;
994.5000;0.5763;0.9679;
994.8000;0.5690;0.9493;
995.1000;0.5674;0.9423;
995.4000;0.5674;0.9423;
995.7000;0.5674;0.9516;
996.0000;0.5674;0.9469;
996.3000;0.5714;0.9563;
996.6000;0.5682;0.9586;
996.9000;0.5682;0.9633;
997.2000;0.5633;0.9469;
997.5000;0.5698;0.9516;
997.8000;0.5665;0.9376;
998.1000;0.5682;0.9446;
998.4000;0.5698;0.9609;
998.7000;0.5722;0.9656;
999.0000;0.5690;0.9516;
999.3000;0.5674;0.9469;
999.6000;0.5682;0.9469;
999.9000;0.5698;0.9539;
1000.2000;0.5625;0.9399;
1000.5000;0.5682;0.9656;
1000.8000;0.5690;0.9679;
1001.1000;0.5706;0.9773;
1001.4000;0.5698;0.9703;
1001.7000;0.5674;0.9539;
1002.0000;0.5722;0.9493;
1002.3000;0.5682;0.9399;
1002.6000;0.5722;0.9563;
1002.9000;0.5665;0.9563;
1003.2000;0.5665;0.9586;
1003.5000;0.5682;0.9609;
1003.8000;0.5682;0.9516;
1004.1000;0.5698;0.9516;
1004.4000;0.5706;0.9446;
1004.7000;0.5641;0.9260;
1005.0000;0.5722;0.9469;
1005.3000;0.5665;0.9353;
1005.6000;0.5682;0.9423;
1005.9000;0.5617;0.9213;
1006.2000;0.5698;0.9329;
1006.5000;0.5625;0.9096;
1006.8000;0.5682;0.9283;
1007.1000;0.5674;0.9260;
1007.4000;0.5690;0.9329;
1007.7000;0.5674;0.9306;
1008.0000;0.5682;0.9306;
1008.3000;0.5690;0.9260;
1008.6000;0.5682;0.9306;
1008.9000;0.5682;0.9283;
1009.2000;0.5690;0.9446;
1009.5000;0.5674;0.9493;
1009.8000;0.5665;0.9469;
1010.1000;0.5649;0.9399;
1010.4000;0.5682;0.9516;
1010.7000;0.5665;0.9399;
1011.0000;0.5674;0.9399;
1011.3000;0.5674;0.9423;
1011.6000;0.5682;0.9329;
1011.9000;0.5779;0.9656;
1012.2000;0.5682;0.9376;
1012.5000;0.5674;0.9493;
1012.8000;0.5690;0.9516;
1013.1000;0.5706;0.9563;
1013.4000;0.5722;0.9586;
1013.7000;0.5690;0.9539;
1014.0000;0.5690;0.9586;
1014.3000;0.5739;0.9703;
1014.6000;0.5674;0.9493;
1014.9000;0.5674;0.9493;
1015.2000;0.5690;0.9609;
1015.5000;0.5690;0.9726;
1015.8000;0.5706;0.9656;
1016.1000;0.5755;0.9796;
1016.4000;0.5657;0.9563;
1016.7000;0.5731;0.9679;
1017.0000;0.5690;0.9563;
1017.3000;0.5698;0.9469;
1017.6000;0.5690;0.9539;
1017.9000;0.5698;0.9609;
1018.2000;0.5747;0.9843;
1018.5000;0.5722;0.9749;
1018.8000;0.5722;0.9819;
1019.1000;0.5698;0.9819;
1019.4000;0.5706;0.9936;
1019.7000;0.5698;0.9866;
1020.0000;0.5706;0.9796;
1020.3000;0.5763;0.9843;
1020.6000;0.5690;0.9656;
1020.9000;0.5674;0.9586;
1021.2000;0.5739;0.9726;
1021.5000;0.5690;0.9679;
1021.8000;0.5690;0.9679;
1022.1000;0.5722;0.9749;
1022.4000;0.5690;0.9633;
1022.7000;0.5682;0.9586;
1023.0000;0.5698;0.9609;
1023.3000;0.5682;0.9609;
1023.6000;0.5714;0.9679;
1023.9000;0.5674;0.9563;
1024.2000;0.5731;0.9656;
1024.5000;0.5698;0.9563;
1024.8000;0.5674;0.9586;
1025.1000;0.5682;0.9609;
1025.4000;0.5674;0.9586;
1025.7000;0.5682;0.9633;
1026.0000;0.5739;0.9796;
1026.3000;0.5665;0.9539;
1026.6000;0.5665;0.9633;
1026.9000;0.5690;0.9679;
1027.2000;0.5665;0.9563;
1027.5000;0.5657;0.9493;
1027.8000;0.5641;0.9446;
1028.1000;0.5706;0.9656;
1028.4000;0.5698;0.9633;
1028.7000;0.5706;0.9633;
1029.0000;0.5674;0.9539;
1029.3000;0.5682;0.9563;
1029.6000;0.5674;0.9446;
1029.9000;0.5682;0.9493;
1030.2000;0.5682;0.9516;
1030.5000;0.5625;0.9376;
1030.8000;0.5674;0.9609;
1031.1000;0.5690;0.9656;
1031.4000;0.5674;0.9516;
1031.7000;0.5690;0.9493;
1032.0000;0.5690;0.9469;
1032.3000;0.5674;0.9516;
1032.6000;0.5682;0.9516;
1032.9000;0.5674;0.9493;
1033.2000;0.5682;0.9539;
1033.5000;0.5649;0.9446;
1033.8000;0.5674;0.9516;
1034.1000;0.5690;0.9539;
1034.4000;0.5698;0.9563;
1034.7000;0.5682;0.9493;
1035.0000;0.5682;0.9469;
1035.3000;0.5665;0.9353;
1035.6000;0.5674;0.9283;
1035.9000;0.5682;0.9376;
1036.2000;0.5690;0.9329;
1036.5000;0.5698;0.9423;
1036.8000;0.5682;0.9469;
1037.1000;0.5682;0.9469;
1037.4000;0.5682;0.9353;
1037.7000;0.5674;0.9306;
1038.0000;0.5657;0.9329;
1038.3000;0.5674;0.9399;
1038.6000;0.5698;0.9493;
1038.9000;0.5674;0.9516;
1039.2000;0.5665;0.9446;
1039.5000;0.5690;0.9493;
1039.8000;0.5682;0.9539;
1040.1000;0.5674;0.9563;
1040.4000;0.5649;0.9493;
1040.7000;0.5674;0.9586;
1041.0000;0.5706;0.9726;
1041.3000;0.5690;0.9773;
1041.6000;0.5682;0.9726;
1041.9000;0.5682;0.9679;
1042.2000;0.5698;0.9633;
1042.5000;0.5682;0.9446;
1042.8000;0.5682;0.9306;
1043.1000;0.5665;0.9283;
1043.4000;0.5674;0.9143;
1043.7000;0.5690;0.9166;
1044.0000;0.5674;0.9050;
1044.3000;0.5674;0.9003;
1044.6000;0.5690;0.9073;
1044.9000;0.5682;0.9073;
1045.2000;0.5779;0.9283;
1045.5000;0.5682;0.9120;
1045.8000;0.5665;0.9050;
1046.1000;0.5698;0.9120;
1046.4000;0.5690;0.9120;
1046.7000;0.5674;0.9050;
1047.0000;0.5682;0.9050;
1047.3000;0.5690;0.9236;
1047.6000;0.5682;0.9190;
1047.9000;0.5690;0.9120;
1048.2000;0.5682;0.9213;
1048.5000;0.5682;0.9283;
1048.8000;0.5690;0.9399;
1049.1000;0.5722;0.9539;
1049.4000;0.5706;0.9516;
1049.7000;0.5665;0.9376;
1050.0000;0.5674;0.9399;
1050.3000;0.5682;0.9353;
1050.6000;0.5690;0.9446;
1050.9000;0.5682;0.9399;
1051.2000;0.5690;0.9399;
1051.5000;0.5674;0.9353;
1051.8000;0.5674;0.9376;
1052.1000;0.5665;0.9376;
1052.4000;0.5674;0.9446;
1052.7000;0.5674;0.9563;
1053.0000;0.5649;0.9423;
1053.3000;0.5674;0.9469;
1053.6000;0.5690;0.9563;
1053.9000;0.5682;0.9469;
1054.2000;0.5665;0.9376;
1054.5000;0.5665;0.9283;
1054.8000;0.5698;0.9423;
1055.1000;0.5665;0.9399;
1055.4000;0.5690;0.9376;
1055.7000;0.5698;0.9399;
1056.0000;0.5584;0.9236;
1056.3000;0.5690;0.9423;
1056.6000;0.5674;0.9376;
1056.9000;0.5690;0.9376;
1057.2000;0.5674;0.9306;
1057.5000;0.5682;0.9353;
1057.8000;0.5698;0.9376;
1058.1000;0.5682;0.9423;
1058.4000;0.5690;0.9353;
1058.7000;0.5674;0.9306;
1059.0000;0.5698;0.9260;
1059.3000;0.5722;0.9353;
1059.6000;0.5682;0.9260;
1059.9000;0.5682;0.9283;
1060.2000;0.5665;0.9236;
1060.5000;0.5674;0.9236;
1060.8000;0.5682;0.9283;
1061.1000;0.5739;0.9353;
1061.4000;0.5682;0.9353;
1061.7000;0.5608;0.9166;
1062.0000;0.5665;0.9353;
1062.3000;0.5674;0.9329;
1062.6000;0.5690;0.9353;
1062.9000;0.5690;0.9376;
1063.2000;0.5682;0.9493;
1063.5000;0.5682;0.9469;
1063.8000;0.5690;0.9539;
1064.1000;0.5682;0.9493;
1064.4000;0.5674;0.9423;
1064.7000;0.5665;0.9469;
1065.0000;0.5665;0.9516;
1065.3000;0.5633;0.9399;
1065.6000;0.5682;0.9493;
1065.9000;0.5657;0.9469;
1066.2000;0.5788;0.9796;
1066.5000;0.5674;0.9539;
1066.8000;0.5674;0.9563;
1067.1000;0.5674;0.9493;
1067.4000;0.5665;0.9376;
1067.7000;0.5674;0.9423;
1068.0000;0.5665;0.9446;
1068.3000;0.5698;0.9609;
1068.6000;0.5682;0.9586;
1068.9000;0.5690;0.9609;
1069.2000;0.5690;0.9539;
1069.5000;0.5682;0.9539;
1069.8000;0.5674;0.9446;
1070.1000;0.5665;0.9329;
1070.4000;0.5698;0.9353;
1070.7000;0.5674;0.9353;
1071.0000;0.5682;0.9353;
1071.3000;0.5665;0.9283;
1071.6000;0.5674;0.9329;
1071.9000;0.5674;0.9376;
1072.2000;0.5682;0.9399;
1072.5000;0.5674;0.9399;
1072.8000;0.5682;0.9353;
1073.1000;0.5682;0.9399;
1073.4000;0.5690;0.9376;
1073.7000;0.5779;0.9586;
1074.0000;0.5674;0.9446;
1074.3000;0.5674;0.9516;
1074.6000;0.5698;0.9586;
1074.9000;0.5674;0.9469;
1075.2000;0.5722;0.9446;
1075.5000;0.5674;0.9399;
1075.8000;0.5682;0.9306;
1076.1000;0.5674;0.9376;
1076.4000;0.5674;0.9353;
1076.7000;0.5690;0.9399;
1077.0000;0.5682;0.9493;
1077.3000;0.5690;0.9469;
1077.6000;0.5682;0.9539;
1077.9000;0.5641;0.9353;
1078.2000;0.5682;0.9469;
1078.5000;0.5665;0.9446;
1078.8000;0.5804;0.9749;
1079.1000;0.5682;0.9376;
1079.4000;0.5682;0.9423;
1079.7000;0.5633;0.9376;
1080.0000;0.5641;0.9399;
1080.3000;0.5682;0.9469;
1080.6000;0.5665;0.9423;
1080.9000;0.5674;0.9493;
1081.2000;0.5649;0.9399;
1081.5000;0.5674;0.9469;
1081.8000;0.5674;0.9516;
1082.1000;0.5690;0.9633;
1082.4000;0.5665;0.9586;
1082.7000;0.5690;0.9633;
1083.0000;0.5682;0.9656;
1083.3000;0.5649;0.9539;
1083.6000;0.5690;0.9656;
1083.9000;0.5682;0.9633;
1084.2000;0.5633;0.9516;
1084.5000;0.5682;0.9703;
1084.8000;0.5698;0.9726;
1085.1000;0.5665;0.9539;
1085.4000;0.5674;0.9609;
1085.7000;0.5665;0.9749;
1086.0000;0.5706;0.9773;
1086.3000;0.5633;0.9539;
1086.6000;0.5698;0.9633;
1086.9000;0.5690;0.9609;
1087.2000;0.5690;0.9656;
1087.5000;0.5682;0.9586;
1087.8000;0.5690;0.9516;
1088.1000;0.5698;0.9539;
1088.4000;0.5706;0.9493;
1088.7000;0.5698;0.9376;
1089.0000;0.5698;0.9306;
1089.3000;0.5674;0.9283;
1089.6000;0.5665;0.9353;
1089.9000;0.5682;0.9376;
1090.2000;0.5682;0.9306;
1090.5000;0.5649;0.9306;
1090.8000;0.5657;0.9260;
1091.1000;0.5665;0.9213;
1091.4000;0.5625;0.9260;
1091.7000;0.5665;0.9376;
1092.0000;0.5674;0.9376;
1092.3000;0.5625;0.9283;
1092.6000;0.5657;0.9353;
1092.9000;0.5674;0.9376;
1093.2000;0.5674;0.9469;
1093.5000;0.5665;0.9493;
1093.8000;0.5665;0.9586;
1094.1000;0.5665;0.9539;
1094.4000;0.5682;0.9469;
1094.7000;0.5698;0.9516;
1095.0000;0.5690;0.9469;
1095.3000;0.5698;0.9516;
1095.6000;0.5657;0.9423;
1095.9000;0.5665;0.9446;
1096.2000;0.5657;0.9399;
1096.5000;0.5674;0.9376;
1096.8000;0.5665;0.9353;
1097.1000;0.5674;0.9306;
1097.4000;0.5657;0.9306;
1097.7000;0.5674;0.9423;
1098.0000;0.5722;0.9516;
1098.3000;0.5690;0.9423;
1098.6000;0.5779;0.9726;
1098.9000;0.5633;0.9469;
1099.2000;0.5641;0.9493;
1099.5000;0.5763;0.9796;
1099.8000;0.5682;0.9539;
1100.1000;0.5682;0.9586;
1100.4000;0.5649;0.9516;
1100.7000;0.5657;0.9493;
1101.0000;0.5674;0.9539;
1101.3000;0.5690;0.9586;
1101.6000;0.5657;0.9446;
1101.9000;0.5690;0.9563;
1102.2000;0.5674;0.9656;
1102.5000;0.5674;0.9586;
1102.8000;0.5698;0.9469;
1103.1000;0.5682;0.9423;
1103.4000;0.5674;0.9493;
1103.7000;0.5690;0.9516;
1104.0000;0.5641;0.9469;
1104.3000;0.5674;0.9563;
1104.6000;0.5682;0.9563;
1104.9000;0.5641;0.9563;
1105.2000;0.5665;0.9586;
1105.5000;0.5649;0.9469;
1105.8000;0.5657;0.9469;
1106.1000;0.5665;0.9399;
1106.4000;0.5706;0.9516;
1106.7000;0.5657;0.9423;
1107.0000;0.5674;0.9446;
1107.3000;0.5641;0.9353;
1107.6000;0.5690;0.9469;
1107.9000;0.5682;0.9423;
1108.2000;0.5690;0.9423;
1108.5000;0.5722;0.9469;
1108.8000;0.5674;0.9399;
1109.1000;0.5698;0.9469;
1109.4000;0.5714;0.9493;
1109.7000;0.5682;0.9353;
1110.0000;0.5690;0.9329;
1110.3000;0.5698;0.9446;
1110.6000;0.5674;0.9376;
1110.9000;0.5706;0.9516;
1111.2000;0.5698;0.9563;
1111.5000;0.5674;0.9539;
1111.8000;0.5674;0.9469;
1112.1000;0.5674;0.9446;
1112.4000;0.5690;0.9423;
1112.7000;0.5698;0.9469;
1113.0000;0.5682;0.9423;
1113.3000;0.5674;0.9399;
1113.6000;0.5674;0.9399;
1113.9000;0.5682;0.9469;
1114.2000;0.5690;0.9399;
1114.5000;0.5657;0.9306;
1114.8000;0.5682;0.9353;
1115.1000;0.5674;0.9329;
1115.4000;0.5690;0.9399;
1115.7000;0.5649;0.9306;
1116.0000;0.5608;0.9236;
1116.3000;0.5731;0.9609;
1116.6000;0.5665;0.9399;
1116.9000;0.5698;0.9469;
1117.2000;0.5706;0.9469;
1117.5000;0.5674;0.9399;
1117.8000;0.5722;0.9609;
1118.1000;0.5657;0.9493;
1118.4000;0.5665;0.9516;
1118.7000;0.5674;0.9609;
1119.0000;0.5641;0.9539;
1119.3000;0.5698;0.9656;
1119.6000;0.5649;0.9516;
1119.9000;0.5665;0.9563;
1120.2000;0.5674;0.9446;
1120.5000;0.5665;0.9469;
1120.8000;0.5674;0.9423;
1121.1000;0.5690;0.9469;
1121.4000;0.5665;0.9423;
1121.7000;0.5665;0.9423;
1122.0000;0.5657;0.9376;
1122.3000;0.5649;0.9423;
1122.6000;0.5804;0.9866;
1122.9000;0.5690;0.9609;
1123.2000;0.5625;0.9423;
1123.5000;0.5657;0.9539;
1123.8000;0.5633;0.9516;
1124.1000;0.5714;0.9703;
1124.4000;0.5657;0.9563;
1124.7000;0.5682;0.9586;
1125.0000;0.5682;0.9609;
1125.3000;0.5657;0.9609;
1125.6000;0.5665;0.9633;
1125.9000;0.5674;0.9586;
1126.2000;0.5665;0.9586;
1126.5000;0.5674;0.9586;
1126.8000;0.5657;0.9493;
1127.1000;0.5674;0.9493;
1127.4000;0.5665;0.9493;
1127.7000;0.5608;0.9353;
1128.0000;0.5706;0.9493;
1128.3000;0.5682;0.9446;
1128.6000;0.5674;0.9376;
1128.9000;0.5674;0.9376;
1129.2000;0.5665;0.9423;
1129.5000;0.5657;0.9353;
1129.8000;0.5674;0.9423;
1130.1000;0.5665;0.9563;
1130.4000;0.5649;0.9469;
1130.7000;0.5674;0.9563;
1131.0000;0.5690;0.9633;
1131.3000;0.5633;0.9493;
1131.6000;0.5674;0.9539;
1131.9000;0.5674;0.9749;
1132.2000;0.5690;0.9749;
1132.5000;0.5682;0.9656;
1132.8000;0.5682;0.9633;
1133.1000;0.5706;0.9726;
1133.4000;0.5706;0.9633;
1133.7000;0.5682;0.9493;
1134.0000;0.5682;0.9516;
1134.3000;0.5682;0.9516;
1134.6000;0.5690;0.9469;
1134.9000;0.5690;0.9469;
1135.2000;0.5657;0.9446;
1135.5000;0.5674;0.9376;
1135.8000;0.5690;0.9446;
1136.1000;0.5641;0.9329;
1136.4000;0.5674;0.9329;
1136.7000;0.5665;0.9260;
1137.0000;0.5698;0.9423;
1137.3000;0.5771;0.9633;
1137.6000;0.5682;0.9446;
1137.9000;0.5731;0.9563;
1138.2000;0.5682;0.9469;
1138.5000;0.5665;0.9469;
1138.8000;0.5682;0.9446;
1139.1000;0.5674;0.9516;
1139.4000;0.5698;0.9586;
1139.7000;0.5674;0.9563;
1140.0000;0.5690;0.9586;
1140.3000;0.5625;0.9469;
1140.6000;0.5674;0.9586;
1140.9000;0.5682;0.9609;
1141.2000;0.5665;0.9586;
1141.5000;0.5657;0.9376;
1141.8000;0.5665;0.9399;
1142.1000;0.5674;0.9353;
1142.4000;0.5682;0.9353;
1142.7000;0.5657;0.9283;
1143.0000;0.5698;0.9376;
1143.3000;0.5682;0.9306;
1143.6000;0.5665;0.9143;
1143.9000;0.5690;0.9143;
1144.2000;0.5674;0.9143;
1144.5000;0.5674;0.9306;
1144.8000;0.5714;0.9399;
1145.1000;0.5722;0.9446;
1145.4000;0.5698;0.9283;
1145.7000;0.5682;0.9283;
1146.0000;0.5706;0.9353;
1146.3000;0.5674;0.9306;
1146.6000;0.5641;0.9236;
1146.9000;0.5649;0.9190;
1147.2000;0.5649;0.9260;
1147.5000;0.5641;0.9236;
1147.8000;0.5649;0.9353;
1148.1000;0.5665;0.9446;
1148.4000;0.5690;0.9376;
1148.7000;0.5674;0.9236;
1149.0000;0.5674;0.9236;
1149.3000;0.5657;0.9260;
1149.6000;0.5657;0.9283;
1149.9000;0.5665;0.9306;
1150.2000;0.5682;0.9423;
1150.5000;0.5682;0.9423;
1150.8000;0.5617;0.9283;
1151.1000;0.5665;0.9446;
1151.4000;0.5674;0.9446;
1151.7000;0.5657;0.9376;
1152.0000;0.5682;0.9329;
1152.3000;0.5665;0.9260;
1152.6000;0.5706;0.9306;
1152.9000;0.5682;0.9260;
1153.2000;0.5674;0.9260;
1153.5000;0.5657;0.9213;
1153.8000;0.5674;0.9353;
1154.1000;0.5641;0.9283;
1154.4000;0.5657;0.9376;
1154.7000;0.5657;0.9469;
1155.0000;0.5682;0.9516;
1155.3000;0.5682;0.9609;
1155.6000;0.5682;0.9633;
1155.9000;0.5657;0.9516;
1156.2000;0.5608;0.9329;
1156.5000;0.5665;0.9539;
1156.8000;0.5682;0.9586;
1157.1000;0.5649;0.9609;
1157.4000;0.5674;0.9633;
1157.7000;0.5665;0.9539;
1158.0000;0.5674;0.9516;
1158.3000;0.5682;0.9633;
1158.6000;0.5657;0.9563;
1158.9000;0.5682;0.9516;
1159.2000;0.5674;0.9446;
1159.5000;0.5665;0.9493;
1159.8000;0.5665;0.9469;
1160.1000;0.5690;0.9586;
1160.4000;0.5674;0.9586;
1160.7000;0.5682;0.9563;
1161.0000;0.5698;0.9726;
1161.3000;0.5633;0.9563;
1161.6000;0.5674;0.9796;
1161.9000;0.5665;0.9656;
1162.2000;0.5568;0.9353;
1162.5000;0.5665;0.9609;
1162.8000;0.5665;0.9586;
1163.1000;0.5674;0.9609;
1163.4000;0.5674;0.9586;
1163.7000;0.5641;0.9539;
1164.0000;0.5674;0.9493;
1164.3000;0.5739;0.9656;
1164.6000;0.5657;0.9493;
1164.9000;0.5657;0.9469;
1165.2000;0.5682;0.9516;
1165.5000;0.5665;0.9539;
1165.8000;0.5657;0.9516;
1166.1000;0.5674;0.9563;
1166.4000;0.5657;0.9516;
1166.7000;0.5665;0.9539;
1167.0000;0.5665;0.9516;
1167.3000;0.5674;0.9586;
1167.6000;0.5665;0.9586;
1167.9000;0.5649;0.9516;
1168.2000;0.5674;0.9539;
1168.5000;0.5657;0.9469;
1168.8000;0.5649;0.9469;
1169.1000;0.5633;0.9446;
1169.4000;0.5674;0.9446;
1169.7000;0.5657;0.9399;
1170.0000;0.5641;0.9399;
1170.3000;0.5665;0.9399;
1170.6000;0.5674;0.9329;
1170.9000;0.5674;0.9306;
1171.2000;0.5714;0.9446;
1171.5000;0.5665;0.9423;
1171.8000;0.5682;0.9493;
1172.1000;0.5657;0.9399;
1172.4000;0.5665;0.9353;
1172.7000;0.5682;0.9399;
1173.0000;0.5674;0.9376;
1173.3000;0.5665;0.9423;
1173.6000;0.5722;0.9469;
1173.9000;0.5682;0.9283;
1174.2000;0.5674;0.9283;
1174.5000;0.5674;0.9236;
1174.8000;0.5674;0.9306;
1175.1000;0.5657;0.9353;
1175.4000;0.5682;0.9423;
1175.7000;0.5682;0.9423;
1176.0000;0.5682;0.9423;
1176.3000;0.5674;0.9469;
1176.6000;0.5665;0.9516;
1176.9000;0.5690;0.9516;
1177.2000;0.5649;0.9469;
1177.5000;0.5674;0.9469;
1177.8000;0.5682;0.9493;
1178.1000;0.5690;0.9563;
1178.4000;0.5682;0.9516;
1178.7000;0.5674;0.9446;
1179.0000;0.5665;0.9469;
1179.3000;0.5625;0.9399;
1179.6000;0.5690;0.9516;
1179.9000;0.5674;0.9469;
1180.2000;0.5714;0.9516;
1180.5000;0.5674;0.9539;
1180.8000;0.5674;0.9516;
1181.1000;0.5682;0.9493;
1181.4000;0.5674;0.9516;
1181.7000;0.5674;0.9469;
1182.0000;0.5657;0.9446;
1182.3000;0.5657;0.9376;
1182.6000;0.5649;0.9399;
1182.9000;0.5674;0.9446;
1183.2000;0.5665;0.9423;
1183.5000;0.5657;0.9446;
1183.8000;0.5649;0.9376;
1184.1000;0.5657;0.9423;
1184.4000;0.5657;0.9469;
1184.7000;0.5682;0.9376;
1185.0000;0.5665;0.9329;
1185.3000;0.5682;0.9376;
1185.6000;0.5657;0.9213;
1185.9000;0.5674;0.9213;
1186.2000;0.5641;0.9120;
1186.5000;0.5674;0.9143;
1186.8000;0.5739;0.9423;
1187.1000;0.5690;0.9329;
1187.4000;0.5674;0.9376;
1187.7000;0.5665;0.9399;
1188.0000;0.5649;0.9399;
1188.3000;0.5682;0.9446;
1188.6000;0.5657;0.9329;
1188.9000;0.5657;0.9376;
1189.2000;0.5649;0.9306;
1189.5000;0.5665;0.9469;
1189.8000;0.5690;0.9563;
1190.1000;0.5665;0.9423;
1190.4000;0.5665;0.9469;
1190.7000;0.5657;0.9493;
1191.0000;0.5682;0.9609;
1191.3000;0.5649;0.9493;
1191.6000;0.5674;0.9469;
1191.9000;0.5625;0.9376;
1192.2000;0.5706;0.9493;
1192.5000;0.5682;0.9493;
1192.8000;0.5682;0.9516;
1193.1000;0.5600;0.9376;
1193.4000;0.5657;0.9563;
1193.7000;0.5665;0.9516;
1194.0000;0.5682;0.9469;
1194.3000;0.5657;0.9423;
1194.6000;0.5649;0.9399;
1194.9000;0.5665;0.9493;
1195.2000;0.5674;0.9563;
1195.5000;0.5649;0.9446;
1195.8000;0.5682;0.9493;
1196.1000;0.5657;0.9469;
1196.4000;0.5674;0.9469;
1196.7000;0.5665;0.9493;
1197.0000;0.5649;0.9493;
1197.3000;0.5674;0.9423;
1197.6000;0.5657;0.9423;
1197.9000;0.5649;0.9423;
1198.2000;0.5584;0.9236;
1198.5000;0.5739;0.9679;
1198.8000;0.5690;0.9563;
1199.1000;0.5665;0.9539;
1199.4000;0.5584;0.9399;
1199.7000;0.5665;0.9586;
1200.0000;0.5665;0.9539;
1200.3000;0.5665;0.9446;
1200.6000;0.5674;0.9446;
1200.9000;0.5657;0.9469;
1201.2000;0.5722;0.9749;
1201.5000;0.5657;0.9563;
1201.8000;0.5649;0.9539;
1202.1000;0.5682;0.9539;
1202.4000;0.5779;0.9749;
1202.7000;0.5665;0.9446;
1203.0000;0.5657;0.9423;
1203.3000;0.5674;0.9423;
1203.6000;0.5682;0.9423;
1203.9000;0.5649;0.9423;
1204.2000;0.5657;0.9399;
1204.5000;0.5706;0.9493;
1204.8000;0.5682;0.9423;
1205.1000;0.5649;0.9329;
1205.4000;0.5771;0.9586;
1205.7000;0.5649;0.9423;
1206.0000;0.5674;0.9423;
1206.3000;0.5690;0.9493;
1206.6000;0.5665;0.9539;
1206.9000;0.5657;0.9609;
1207.2000;0.5657;0.9516;
1207.5000;0.5674;0.9563;
1207.8000;0.5625;0.9469;
1208.1000;0.5657;0.9656;
1208.4000;0.5731;0.9819;
1208.7000;0.5665;0.9563;
1209.0000;0.5665;0.9539;
1209.3000;0.5657;0.9586;
1209.6000;0.5657;0.9609;
1209.9000;0.5674;0.9586;
1210.2000;0.5682;0.9586;
1210.5000;0.5674;0.9586;
1210.8000;0.5665;0.9516;
1211.1000;0.5665;0.9469;
1211.4000;0.5682;0.9539;
1211.7000;0.5657;0.9539;
1212.0000;0.5633;0.9423;
1212.3000;0.5657;0.9469;
1212.6000;0.5674;0.9493;
1212.9000;0.5657;0.9446;
1213.2000;0.5698;0.9563;
1213.5000;0.5674;0.9493;
1213.8000;0.5633;0.9399;
1214.1000;0.5665;0.9423;
1214.4000;0.5665;0.9423;
1214.7000;0.5649;0.9423;
1215.0000;0.5665;0.9376;
1215.3000;0.5649;0.9376;
1215.6000;0.5665;0.9446;
1215.9000;0.5657;0.9399;
1216.2000;0.5657;0.9539;
1216.5000;0.5674;0.9539;
1216.8000;0.5608;0.9399;
1217.1000;0.5674;0.9469;
1217.4000;0.5674;0.9376;
1217.7000;0.5674;0.9376;
1218.0000;0.5714;0.9469;
1218.3000;0.5665;0.9446;
1218.6000;0.5674;0.9446;
1218.9000;0.5722;0.9539;
1219.2000;0.5665;0.9516;
1219.5000;0.5682;0.9633;
1219.8000;0.5690;0.9656;
1220.1000;0.5625;0.9423;
1220.4000;0.5674;0.9423;
1220.7000;0.5641;0.9399;
1221.0000;0.5641;0.9446;
1221.3000;0.5665;0.9469;
1221.6000;0.5682;0.9446;
1221.9000;0.5665;0.9399;
1222.2000;0.5682;0.9423;
1222.5000;0.5657;0.9423;
1222.8000;0.5608;0.9329;
1223.1000;0.5706;0.9493;
1223.4000;0.5682;0.9423;
1223.7000;0.5657;0.9399;
1224.0000;0.5665;0.9353;
1224.3000;0.5657;0.9283;
1224.6000;0.5747;0.9563;
1224.9000;0.5641;0.9376;
1225.2000;0.5657;0.9423;
1225.5000;0.5682;0.9516;
1225.8000;0.5657;0.9516;
1226.1000;0.5682;0.9656;
1226.4000;0.5698;0.9656;
1226.7000;0.5649;0.9493;
1227.0000;0.5690;0.9563;
1227.3000;0.5657;0.9446;
1227.6000;0.5649;0.9376;
1227.9000;0.5674;0.9516;
1228.2000;0.5682;0.9563;
1228.5000;0.5576;0.9236;
1228.8000;0.5682;0.9516;
1229.1000;0.5641;0.9423;
1229.4000;0.5722;0.9609;
1229.7000;0.5657;0.9586;
1230.0000;0.5657;0.9539;
1230.3000;0.5665;0.9539;
1230.6000;0.5706;0.9539;
1230.9000;0.5657;0.9376;
1231.2000;0.5674;0.9353;
1231.5000;0.5674;0.9399;
1231.8000;0.5657;0.9329;
1232.1000;0.5690;0.9376;
1232.4000;0.5665;0.9399;
1232.7000;0.5674;0.9446;
1233.0000;0.5649;0.9399;
1233.3000;0.5657;0.9399;
1233.6000;0.5674;0.9446;
1233.9000;0.5665;0.9399;
1234.2000;0.5633;0.9283;
1234.5000;0.5674;0.9376;
1234.8000;0.5674;0.9399;
1235.1000;0.5641;0.9353;
1235.4000;0.5657;0.9469;
1235.7000;0.5649;0.9493;
1236.0000;0.5649;0.9493;
1236.3000;0.5649;0.9609;
1236.6000;0.5665;0.9656;
1236.9000;0.5657;0.9633;
1237.2000;0.5641;0.9563;
1237.5000;0.5690;0.9656;
1237.8000;0.5600;0.9516;
1238.1000;0.5633;0.9656;
1238.4000;0.5657;0.9726;
1238.7000;0.5682;0.9703;
1239.0000;0.5633;0.9539;
1239.3000;0.5649;0.9586;
1239.6000;0.5682;0.9516;
1239.9000;0.5706;0.9539;
1240.2000;0.5665;0.9446;
1240.5000;0.5665;0.9446;
1240.8000;0.5731;0.9609;
1241.1000;0.5657;0.9516;
1241.4000;0.5657;0.9493;
1241.7000;0.5649;0.9353;
1242.0000;0.5690;0.9446;
1242.3000;0.5674;0.9353;
1242.6000;0.5657;0.9376;
1242.9000;0.5665;0.9376;
1243.2000;0.5665;0.9423;
1243.5000;0.5682;0.9446;
1243.8000;0.5674;0.9376;
1244.1000;0.5600;0.9190;
1244.4000;0.5690;0.9283;
1244.7000;0.5665;0.9236;
1245.0000;0.5665;0.9213;
1245.3000;0.5665;0.9190;
1245.6000;0.5633;0.9026;
1245.9000;0.5682;0.9190;
1246.2000;0.5714;0.9283;
1246.5000;0.5641;0.9096;
1246.8000;0.5674;0.9143;
1247.1000;0.5657;0.9213;
1247.4000;0.5674;0.9283;
1247.7000;0.5747;0.9446;
1248.0000;0.5665;0.9236;
1248.3000;0.5657;0.9190;
1248.6000;0.5674;0.9190;
1248.9000;0.5682;0.9236;
1249.2000;0.5657;0.9190;
1249.5000;0.5682;0.9236;
1249.8000;0.5682;0.9260;
1250.1000;0.5665;0.9236;
1250.4000;0.5674;0.9306;
1250.7000;0.5649;0.9260;
1251.0000;0.5665;0.9260;
1251.3000;0.5698;0.9329;
1251.6000;0.5665;0.9399;
1251.9000;0.5665;0.9469;
1252.2000;0.5674;0.9399;
1252.5000;0.5657;0.9353;
1252.8000;0.5682;0.9469;
1253.1000;0.5657;0.9469;
1253.4000;0.5657;0.9586;
1253.7000;0.5665;0.9679;
1254.0000;0.5657;0.9633;
1254.3000;0.5674;0.9726;
1254.6000;0.5674;0.9586;
1254.9000;0.5731;0.9749;
1255.2000;0.5731;0.9749;
1255.5000;0.5665;0.9633;
1255.8000;0.5722;0.9819;
1256.1000;0.5649;0.9563;
1256.4000;0.5665;0.9563;
1256.7000;0.5657;0.9563;
1257.0000;0.5657;0.9609;
1257.3000;0.5755;0.9936;
1257.6000;0.5665;0.9656;
1257.9000;0.5649;0.9679;
1258.2000;0.5617;0.9679;
1258.5000;0.5674;0.9913;
1258.8000;0.5682;0.9936;
1259.1000;0.5690;0.9959;
1259.4000;0.5657;0.9889;
1259.7000;0.5657;0.9866;
1260.0000;0.5641;0.9796;
1260.3000;0.5674;0.9843;
1260.6000;0.5698;0.9843;
1260.9000;0.5649;0.9749;
1261.2000;0.5682;0.9773;
1261.5000;0.5665;0.9633;
1261.8000;0.5641;0.9586;
1262.1000;0.5722;0.9726;
1262.4000;0.5657;0.9633;
1262.7000;0.5763;0.9843;
1263.0000;0.5682;0.9563;
1263.3000;0.5657;0.9493;
1263.6000;0.5674;0.9609;
1263.9000;0.5674;0.9609;
1264.2000;0.5665;0.9609;
1264.5000;0.5657;0.9656;
1264.8000;0.5665;0.9656;
1265.1000;0.5674;0.9633;
1265.4000;0.5657;0.9633;
1265.7000;0.5665;0.9563;
1266.0000;0.5665;0.9516;
1266.3000;0.5690;0.9656;
1266.6000;0.5747;0.9796;
1266.9000;0.5674;0.9633;
1267.2000;0.5657;0.9586;
1267.5000;0.5657;0.9633;
1267.8000;0.5649;0.9586;
1268.1000;0.5665;0.9563;
1268.4000;0.5665;0.9609;
1268.7000;0.5665;0.9656;
1269.0000;0.5690;0.9726;
1269.3000;0.5739;0.9866;
1269.6000;0.5592;0.9516;
1269.9000;0.5682;0.9703;
1270.2000;0.5657;0.9609;
1270.5000;0.5674;0.9633;
1270.8000;0.5674;0.9609;
1271.1000;0.5706;0.9703;
1271.4000;0.5665;0.9563;
1271.7000;0.5665;0.9586;
1272.0000;0.5665;0.9586;
1272.3000;0.5641;0.9539;
1272.6000;0.5682;0.9539;
1272.9000;0.5665;0.9516;
1273.2000;0.5690;0.9586;
1273.5000;0.5665;0.9493;
1273.8000;0.5665;0.9493;
1274.1000;0.5657;0.9516;
1274.4000;0.5649;0.9539;
1274.7000;0.5657;0.9609;
1275.0000;0.5649;0.9563;
1275.3000;0.5682;0.9679;
1275.6000;0.5674;0.9773;
1275.9000;0.5665;0.9796;
1276.2000;0.5665;0.9866;
1276.5000;0.5674;0.9936;
1276.8000;0.5682;0.9913;
1277.1000;0.5665;0.9819;
1277.4000;0.5665;0.9843;
1277.7000;0.5674;0.9819;
1278.0000;0.5682;0.9726;
1278.3000;0.5674;0.9656;
1278.6000;0.5665;0.9563;
1278.9000;0.5665;0.9563;
1279.2000;0.5674;0.9609;
1279.5000;0.5674;0.9609;
1279.8000;0.5657;0.9609;
1280.1000;0.5649;0.9586;
1280.4000;0.5674;0.9773;
1280.7000;0.5682;0.9703;
1281.0000;0.5657;0.9679;
1281.3000;0.5682;0.9796;
1281.6000;0.5657;0.9843;
1281.9000;0.5665;0.9843;
1282.2000;0.5690;0.9913;
1282.5000;0.5657;0.9773;
1282.8000;0.5665;0.9726;
1283.1000;0.5674;0.9726;
1283.4000;0.5674;0.9656;
1283.7000;0.5665;0.9516;
1284.0000;0.5657;0.9563;
1284.3000;0.5674;0.9609;
1284.6000;0.5665;0.9586;
1284.9000;0.5665;0.9609;
1285.2000;0.5665;0.9633;
1285.5000;0.5665;0.9586;
1285.8000;0.5682;0.9633;
1286.1000;0.5657;0.9609;
1286.4000;0.5674;0.9679;
1286.7000;0.5665;0.9609;
1287.0000;0.5682;0.9633;
1287.3000;0.5665;0.9633;
1287.6000;0.5649;0.9516;
1287.9000;0.5674;0.9633;
1288.2000;0.5682;0.9703;
1288.5000;0.5657;0.9609;
1288.8000;0.5674;0.9563;
1289.1000;0.5657;0.9563;
1289.4000;0.5665;0.9563;
1289.7000;0.5674;0.9703;
1290.0000;0.5665;0.9726;
1290.3000;0.5665;0.9679;
1290.6000;0.5674;0.9726;
1290.9000;0.5674;0.9656;
1291.2000;0.5698;0.9679;
1291.5000;0.5665;0.9516;
1291.8000;0.5674;0.9633;
1292.1000;0.5617;0.9446;
1292.4000;0.5682;0.9609;
1292.7000;0.5665;0.9633;
1293.0000;0.5657;0.9749;
1293.3000;0.5690;0.9866;
1293.6000;0.5657;0.9796;
1293.9000;0.5665;0.9773;
1294.2000;0.5682;0.9796;
1294.5000;0.5649;0.9726;
1294.8000;0.5665;0.9679;
1295.1000;0.5641;0.9656;
1295.4000;0.5674;0.9703;
1295.7000;0.5657;0.9726;
1296.0000;0.5665;0.9773;
1296.3000;0.5665;0.9819;
1296.6000;0.5625;0.9656;
1296.9000;0.5649;0.9656;
1297.2000;0.5665;0.9796;
1297.5000;0.5665;0.9726;
1297.8000;0.5649;0.9726;
1298.1000;0.5625;0.9703;
1298.4000;0.5657;0.9679;
1298.7000;0.5665;0.9633;
1299.0000;0.5682;0.9703;
1299.3000;0.5649;0.9703;
1299.6000;0.5657;0.9819;
1299.9000;0.5657;0.9749;
1300.2000;0.5665;0.9679;
1300.5000;0.5665;0.9563;
1300.8000;0.5649;0.9586;
1301.1000;0.5690;0.9609;
1301.4000;0.5657;0.9586;
1301.7000;0.5674;0.9609;
1302.0000;0.5682;0.9516;
1302.3000;0.5674;0.9423;
1302.6000;0.5682;0.9399;
1302.9000;0.5682;0.9423;
1303.2000;0.5657;0.9469;
1303.5000;0.5665;0.9586;
1303.8000;0.5665;0.9586;
1304.1000;0.5698;0.9679;
1304.4000;0.5665;0.9563;
1304.7000;0.5665;0.9516;
1305.0000;0.5674;0.9493;
1305.3000;0.5649;0.9516;
1305.6000;0.5657;0.9539;
1305.9000;0.5674;0.9656;
1306.2000;0.5682;0.9656;
1306.5000;0.5665;0.9656;
1306.8000;0.5682;0.9726;
1307.1000;0.5649;0.9703;
1307.4000;0.5690;0.9726;
1307.7000;0.5674;0.9703;
1308.0000;0.5657;0.9609;
1308.3000;0.5657;0.9703;
1308.6000;0.5665;0.9773;
1308.9000;0.5674;0.9703;
1309.2000;0.5755;0.9913;
1309.5000;0.5657;0.9633;
1309.8000;0.5665;0.9633;
1310.1000;0.5633;0.9633;
1310.4000;0.5665;0.9656;
1310.7000;0.5633;0.9656;
1311.0000;0.5568;0.9446;
1311.3000;0.5657;0.9516;
1311.6000;0.5682;0.9586;
1311.9000;0.5682;0.9586;
1312.2000;0.5682;0.9633;
1312.5000;0.5706;0.9749;
1312.8000;0.5674;0.9586;
1313.1000;0.5690;0.9679;
1313.4000;0.5674;0.9656;
1313.7000;0.5649;0.9633;
1314.0000;0.5657;0.9656;
1314.3000;0.5665;0.9656;
1314.6000;0.5665;0.9539;
1314.9000;0.5633;0.9399;
1315.2000;0.5714;0.9563;
1315.5000;0.5665;0.9423;
1315.8000;0.5657;0.9353;
1316.1000;0.5649;0.9376;
1316.4000;0.5665;0.9469;
1316.7000;0.5739;0.9563;
1317.0000;0.5674;0.9446;
1317.3000;0.5665;0.9376;
1317.6000;0.5682;0.9399;
1317.9000;0.5674;0.9423;
1318.2000;0.5714;0.9563;
1318.5000;0.5657;0.9493;
1318.8000;0.5682;0.9563;
1319.1000;0.5674;0.9679;
1319.4000;0.5665;0.9633;
1319.7000;0.5674;0.9656;
1320.0000;0.5657;0.9633;
1320.3000;0.5657;0.9586;
1320.6000;0.5649;0.9516;
1320.9000;0.5649;0.9609;
1321.2000;0.5674;0.9586;
1321.5000;0.5682;0.9516;
1321.8000;0.5714;0.9609;
1322.1000;0.5690;0.9516;
1322.4000;0.5674;0.9539;
1322.7000;0.5722;0.9656;
1323.0000;0.5674;0.9586;
1323.3000;0.5657;0.9586;
1323.6000;0.5665;0.9563;
1323.9000;0.5674;0.9586;
1324.2000;0.5649;0.9563;
1324.5000;0.5649;0.9539;
1324.8000;0.5649;0.9469;
1325.1000;0.5674;0.9516;
1325.4000;0.5674;0.9469;
1325.7000;0.5690;0.9516;
1326.0000;0.5722;0.9656;
1326.3000;0.5584;0.9329;
1326.6000;0.5674;0.9539;
1326.9000;0.5682;0.9539;
1327.2000;0.5665;0.9469;
1327.5000;0.5665;0.9493;
1327.8000;0.5641;0.9446;
1328.1000;0.5633;0.9493;
1328.4000;0.5551;0.9213;
1328.7000;0.5657;0.9399;
1329.0000;0.5657;0.9329;
1329.3000;0.5657;0.9306;
1329.6000;0.5674;0.9376;
1329.9000;0.5657;0.9306;
1330.2000;0.5682;0.9353;
1330.5000;0.5665;0.9353;
1330.8000;0.5771;0.9586;
1331.1000;0.5657;0.9399;
1331.4000;0.5674;0.9493;
1331.7000;0.5674;0.9679;
1332.0000;0.5657;0.9726;
1332.3000;0.5682;0.9726;
1332.6000;0.5665;0.9679;
1332.9000;0.5690;0.9773;
1333.2000;0.5682;0.9913;
1333.5000;0.5665;0.9843;
1333.8000;0.5592;0.9563;
1334.1000;0.5682;0.9726;
1334.4000;0.5665;0.9656;
1334.7000;0.5665;0.9726;
1335.0000;0.5665;0.9609;
1335.3000;0.5657;0.9609;
1335.6000;0.5690;0.9679;
1335.9000;0.5657;0.9679;
1336.2000;0.5657;0.9609;
1336.5000;0.5674;0.9609;
1336.8000;0.5649;0.9586;
1337.1000;0.5674;0.9633;
1337.4000;0.5674;0.9609;
1337.7000;0.5584;0.9353;
1338.0000;0.5665;0.9563;
1338.3000;0.5674;0.9586;
1338.6000;0.5665;0.9633;
1338.9000;0.5706;0.9679;
1339.2000;0.5665;0.9656;
1339.5000;0.5665;0.9633;
1339.8000;0.5649;0.9493;
1340.1000;0.5665;0.9469;
1340.4000;0.5665;0.9469;
1340.7000;0.5714;0.9539;
1341.0000;0.5665;0.9423;
1341.3000;0.5633;0.9353;
1341.6000;0.5698;0.9539;
1341.9000;0.5690;0.9563;
1342.2000;0.5592;0.9306;
1342.5000;0.5690;0.9539;
1342.8000;0.5657;0.9493;
1343.1000;0.5739;0.9656;
1343.4000;0.5674;0.9563;
1343.7000;0.5657;0.9516;
1344.0000;0.5649;0.9469;
1344.3000;0.5665;0.9376;
1344.6000;0.5674;0.9399;
1344.9000;0.5674;0.9469;
1345.2000;0.5657;0.9469;
1345.5000;0.5665;0.9516;
1345.8000;0.5657;0.9609;
1346.1000;0.5657;0.9609;
1346.4000;0.5665;0.9586;
1346.7000;0.5625;0.9539;
1347.0000;0.5690;0.9679;
1347.3000;0.5625;0.9586;
1347.6000;0.5665;0.9633;
1347.9000;0.5665;0.9679;
1348.2000;0.5600;0.9516;
1348.5000;0.5657;0.9633;
1348.8000;0.5674;0.9633;
1349.1000;0.5665;0.9609;
1349.4000;0.5674;0.9633;
1349.7000;0.5641;0.9539;
1350.0000;0.5576;0.9399;
1350.3000;0.5674;0.9679;
1350.6000;0.5665;0.9609;
1350.9000;0.5674;0.9656;
1351.2000;0.5714;0.9749;
1351.5000;0.5649;0.9656;
1351.8000;0.5665;0.9726;
1352.1000;0.5625;0.9493;
1352.4000;0.5682;0.9539;
1352.7000;0.5674;0.9493;
1353.0000;0.5592;0.9399;
1353.3000;0.5641;0.9516;
1353.6000;0.5682;0.9609;
1353.9000;0.5674;0.9609;
1354.2000;0.5665;0.9656;
1354.5000;0.5649;0.9703;
1354.8000;0.5731;0.9889;
1355.1000;0.5633;0.9703;
1355.4000;0.5665;0.9679;
1355.7000;0.5657;0.9609;
1356.0000;0.5665;0.9563;
1356.3000;0.5592;0.9423;
1356.6000;0.5665;0.9516;
1356.9000;0.5665;0.9539;
1357.2000;0.5674;0.9679;
1357.5000;0.5665;0.9819;
1357.8000;0.5625;0.9749;
1358.1000;0.5649;0.9866;
1358.4000;0.5665;0.9843;
1358.7000;0.5674;0.9819;
1359.0000;0.5665;0.9866;
1359.3000;0.5657;0.9796;
1359.6000;0.5657;0.9749;
1359.9000;0.5649;0.9773;
1360.2000;0.5731;0.9936;
1360.5000;0.5674;0.9773;
1360.8000;0.5682;0.9773;
1361.1000;0.5690;0.9749;
1361.4000;0.5706;0.9726;
1361.7000;0.5682;0.9609;
1362.0000;0.5665;0.9586;
1362.3000;0.5649;0.9586;
1362.6000;0.5665;0.9563;
1362.9000;0.5649;0.9493;
1363.2000;0.5674;0.9516;
1363.5000;0.5674;0.9539;
1363.8000;0.5690;0.9633;
1364.1000;0.5649;0.9539;
1364.4000;0.5665;0.9446;
1364.7000;0.5763;0.9773;
1365.0000;0.5682;0.9563;
1365.3000;0.5674;0.9586;
1365.6000;0.5665;0.9586;
1365.9000;0.5657;0.9539;
1366.2000;0.5665;0.9586;
1366.5000;0.5747;0.9773;
1366.8000;0.5665;0.9633;
1367.1000;0.5649;0.9563;
1367.4000;0.5665;0.9633;
1367.7000;0.5641;0.9586;
1368.0000;0.5665;0.9679;
1368.3000;0.5698;0.9796;
1368.6000;0.5641;0.9679;
1368.9000;0.5641;0.9703;
1369.2000;0.5682;0.9819;
1369.5000;0.5665;0.9749;
1369.8000;0.5674;0.9703;
1370.1000;0.5608;0.9586;
1370.4000;0.5641;0.9609;
1370.7000;0.5665;0.9703;
1371.0000;0.5665;0.9609;
1371.3000;0.5608;0.9446;
1371.6000;0.5657;0.9586;
1371.9000;0.5665;0.9586;
1372.2000;0.5674;0.9563;
1372.5000;0.5657;0.9539;
1372.8000;0.5682;0.9563;
1373.1000;0.5665;0.9516;
1373.4000;0.5690;0.9563;
1373.7000;0.5706;0.9609;
1374.0000;0.5682;0.9679;
1374.3000;0.5576;0.9469;
1374.6000;0.5665;0.9679;
1374.9000;0.5665;0.9563;
1375.2000;0.5665;0.9633;
1375.5000;0.5665;0.9539;
1375.8000;0.5690;0.9516;
1376.1000;0.5682;0.9586;
1376.4000;0.5657;0.9516;
1376.7000;0.5600;0.9469;
1377.0000;0.5649;0.9586;
1377.3000;0.5633;0.9586;
1377.6000;0.5657;0.9563;
1377.9000;0.5657;0.9586;
1378.2000;0.5665;0.9516;
1378.5000;0.5657;0.9516;
1378.8000;0.5665;0.9609;
1379.1000;0.5665;0.9609;
1379.4000;0.5674;0.9586;
1379.7000;0.5649;0.9563;
1380.0000;0.5674;0.9703;
1380.3000;0.5674;0.9703;
1380.6000;0.5706;0.9819;
1380.9000;0.5690;0.9773;
1381.2000;0.5665;0.9633;
1381.5000;0.5608;0.9539;
1381.8000;0.5665;0.9726;
1382.1000;0.5674;0.9703;
1382.4000;0.5657;0.9656;
1382.7000;0.5633;0.9609;
1383.0000;0.5649;0.9633;
1383.3000;0.5657;0.9563;
1383.6000;0.5657;0.9633;
1383.9000;0.5657;0.9633;
1384.2000;0.5600;0.9516;
1384.5000;0.5674;0.9773;
1384.8000;0.5608;0.9469;
1385.1000;0.5665;0.9633;
1385.4000;0.5674;0.9656;
1385.7000;0.5682;0.9609;
1386.0000;0.5665;0.9609;
1386.3000;0.5665;0.9703;
1386.6000;0.5657;0.9703;
1386.9000;0.5649;0.9609;
1387.2000;0.5665;0.9703;
1387.5000;0.5657;0.9679;
1387.8000;0.5674;0.9609;
1388.1000;0.5617;0.9376;
1388.4000;0.5665;0.9563;
1388.7000;0.5657;0.9586;
1389.0000;0.5633;0.9656;
1389.3000;0.5641;0.9563;
1389.6000;0.5665;0.9586;
1389.9000;0.5674;0.9563;
1390.2000;0.5665;0.9563;
1390.5000;0.5731;0.9749;
1390.8000;0.5657;0.9516;
1391.1000;0.5657;0.9563;
1391.4000;0.5665;0.9563;
1391.7000;0.5665;0.9609;
1392.0000;0.5649;0.9586;
1392.3000;0.5674;0.9633;
1392.6000;0.5649;0.9633;
1392.9000;0.5649;0.9516;
1393.2000;0.5657;0.9493;
1393.5000;0.5674;0.9493;
1393.8000;0.5682;0.9539;
1394.1000;0.5649;0.9469;
1394.4000;0.5674;0.9563;
1394.7000;0.5665;0.9539;
1395.0000;0.5731;0.9679;
1395.3000;0.5665;0.9516;
1395.6000;0.5665;0.9493;
1395.9000;0.5625;0.9469;
1396.2000;0.5665;0.9656;
1396.5000;0.5665;0.9703;
1396.8000;0.5682;0.9726;
1397.1000;0.5657;0.9679;
1397.4000;0.5665;0.9656;
1397.7000;0.5665;0.9563;
1398.0000;0.5641;0.9376;
1398.3000;0.5657;0.9423;
1398.6000;0.5649;0.9446;
1398.9000;0.5682;0.9539;
1399.2000;0.5657;0.9469;
1399.5000;0.5649;0.9399;
1399.8000;0.5633;0.9399;
