time/ms;Fluo/V;P700 deltaI/I x10³;
-199.8000;0.7261;1.0262;
-199.5000;0.7302;1.0216;
-199.2000;0.7293;1.0239;
-198.9000;0.7302;1.0379;
-198.6000;0.7302;1.0449;
-198.3000;0.7302;1.0402;
-198.0000;0.7228;1.0169;
-197.7000;0.7245;1.0146;
-197.4000;0.7302;1.0286;
-197.1000;0.7302;1.0262;
-196.8000;0.7269;1.0216;
-196.5000;0.7228;1.0146;
-196.2000;0.7302;1.0286;
-195.9000;0.7293;1.0192;
-195.6000;0.7350;1.0286;
-195.3000;0.7375;1.0332;
-195.0000;0.7277;1.0146;
-194.7000;0.7302;1.0053;
-194.4000;0.7228;0.9913;
-194.1000;0.7318;1.0169;
-193.8000;0.7302;1.0216;
-193.5000;0.7342;1.0309;
-193.2000;0.7302;1.0262;
-192.9000;0.7293;1.0262;
-192.6000;0.7302;1.0286;
-192.3000;0.7326;1.0426;
-192.0000;0.7302;1.0426;
-191.7000;0.7285;1.0402;
-191.4000;0.7342;1.0379;
-191.1000;0.7277;1.0192;
-190.8000;0.7293;1.0169;
-190.5000;0.7285;1.0122;
-190.2000;0.7261;1.0053;
-189.9000;0.7302;1.0146;
-189.6000;0.7277;1.0169;
-189.3000;0.7302;1.0262;
-189.0000;0.7310;1.0332;
-188.7000;0.7285;1.0426;
-188.4000;0.7293;1.0402;
-188.1000;0.7285;1.0356;
-187.8000;0.7277;1.0356;
-187.5000;0.7285;1.0309;
-187.2000;0.7277;1.0286;
-186.9000;0.7302;1.0309;
-186.6000;0.7293;1.0332;
-186.3000;0.7277;1.0332;
-186.0000;0.7253;1.0192;
-185.7000;0.7293;1.0262;
-185.4000;0.7285;1.0146;
-185.1000;0.7293;1.0146;
-184.8000;0.7261;1.0099;
-184.5000;0.7293;1.0286;
-184.2000;0.7302;1.0239;
-183.9000;0.7285;1.0262;
-183.6000;0.7302;1.0286;
-183.3000;0.7310;1.0449;
-183.0000;0.7310;1.0379;
-182.7000;0.7302;1.0286;
-182.4000;0.7310;1.0262;
-182.1000;0.7310;1.0332;
-181.8000;0.7261;1.0239;
-181.5000;0.7302;1.0262;
-181.2000;0.7253;1.0076;
-180.9000;0.7302;1.0216;
-180.6000;0.7285;1.0239;
-180.3000;0.7285;1.0262;
-180.0000;0.7285;1.0192;
-179.7000;0.7204;0.9913;
-179.4000;0.7228;0.9983;
-179.1000;0.7302;1.0239;
-178.8000;0.7293;1.0286;
-178.5000;0.7277;1.0169;
-178.2000;0.7285;1.0122;
-177.9000;0.7302;1.0122;
-177.6000;0.7326;1.0262;
-177.3000;0.7285;1.0146;
-177.0000;0.7285;1.0192;
-176.7000;0.7302;1.0286;
-176.4000;0.7302;1.0262;
-176.1000;0.7285;1.0262;
-175.8000;0.7293;1.0146;
-175.5000;0.7277;1.0146;
-175.2000;0.7310;1.0309;
-174.9000;0.7285;1.0239;
-174.6000;0.7391;1.0566;
-174.3000;0.7302;1.0309;
-174.0000;0.7302;1.0309;
-173.7000;0.7302;1.0286;
-173.4000;0.7285;1.0309;
-173.1000;0.7310;1.0379;
-172.8000;0.7285;1.0426;
-172.5000;0.7302;1.0426;
-172.2000;0.7302;1.0472;
-171.9000;0.7293;1.0332;
-171.6000;0.7326;1.0332;
-171.3000;0.7375;1.0379;
-171.0000;0.7310;1.0262;
-170.7000;0.7285;1.0309;
-170.4000;0.7293;1.0332;
-170.1000;0.7383;1.0496;
-169.8000;0.7285;1.0286;
-169.5000;0.7310;1.0239;
-169.2000;0.7310;1.0239;
-168.9000;0.7293;1.0146;
-168.6000;0.7285;1.0192;
-168.3000;0.7269;1.0146;
-168.0000;0.7277;1.0076;
-167.7000;0.7253;1.0053;
-167.4000;0.7302;1.0099;
-167.1000;0.7269;1.0006;
-166.8000;0.7302;1.0029;
-166.5000;0.7285;1.0006;
-166.2000;0.7204;0.9749;
-165.9000;0.7302;1.0029;
-165.6000;0.7342;1.0216;
-165.3000;0.7293;1.0146;
-165.0000;0.7285;1.0122;
-164.7000;0.7285;1.0146;
-164.4000;0.7416;1.0449;
-164.1000;0.7269;1.0099;
-163.8000;0.7285;1.0053;
-163.5000;0.7269;1.0076;
-163.2000;0.7293;1.0192;
-162.9000;0.7277;1.0076;
-162.6000;0.7261;1.0122;
-162.3000;0.7261;1.0099;
-162.0000;0.7302;1.0169;
-161.7000;0.7350;1.0216;
-161.4000;0.7302;1.0053;
-161.1000;0.7293;1.0099;
-160.8000;0.7302;1.0216;
-160.5000;0.7277;1.0146;
-160.2000;0.7293;1.0122;
-159.9000;0.7302;1.0053;
-159.6000;0.7302;1.0122;
-159.3000;0.7293;1.0099;
-159.0000;0.7277;1.0076;
-158.7000;0.7293;1.0076;
-158.4000;0.7269;1.0053;
-158.1000;0.7302;1.0146;
-157.8000;0.7285;1.0099;
-157.5000;0.7220;1.0006;
-157.2000;0.7310;1.0146;
-156.9000;0.7212;0.9913;
-156.6000;0.7228;0.9889;
-156.3000;0.7318;1.0076;
-156.0000;0.7302;1.0029;
-155.7000;0.7277;0.9936;
-155.4000;0.7261;0.9983;
-155.1000;0.7269;1.0006;
-154.8000;0.7285;1.0122;
-154.5000;0.7293;1.0053;
-154.2000;0.7285;0.9983;
-153.9000;0.7277;1.0006;
-153.6000;0.7269;1.0053;
-153.3000;0.7285;1.0099;
-153.0000;0.7285;1.0006;
-152.7000;0.7277;0.9913;
-152.4000;0.7269;0.9936;
-152.1000;0.7285;1.0076;
-151.8000;0.7293;1.0146;
-151.5000;0.7285;1.0053;
-151.2000;0.7293;1.0006;
-150.9000;0.7285;1.0029;
-150.6000;0.7302;1.0122;
-150.3000;0.7293;1.0029;
-150.0000;0.7285;1.0053;
-149.7000;0.7293;1.0076;
-149.4000;0.7277;1.0122;
-149.1000;0.7302;1.0146;
-148.8000;0.7285;1.0146;
-148.5000;0.7285;1.0146;
-148.2000;0.7277;1.0122;
-147.9000;0.7293;1.0192;
-147.6000;0.7293;1.0099;
-147.3000;0.7269;1.0006;
-147.0000;0.7285;1.0169;
-146.7000;0.7302;1.0169;
-146.4000;0.7261;1.0006;
-146.1000;0.7302;1.0099;
-145.8000;0.7302;1.0146;
-145.5000;0.7310;1.0029;
-145.2000;0.7318;0.9959;
-144.9000;0.7302;0.9983;
-144.6000;0.7285;0.9866;
-144.3000;0.7285;0.9773;
-144.0000;0.7245;0.9749;
-143.7000;0.7293;0.9819;
-143.4000;0.7342;0.9983;
-143.1000;0.7302;0.9983;
-142.8000;0.7285;0.9959;
-142.5000;0.7277;0.9913;
-142.2000;0.7293;0.9889;
-141.9000;0.7293;1.0006;
-141.6000;0.7253;1.0006;
-141.3000;0.7302;1.0122;
-141.0000;0.7285;1.0053;
-140.7000;0.7293;1.0053;
-140.4000;0.7293;1.0099;
-140.1000;0.7293;1.0169;
-139.8000;0.7269;1.0099;
-139.5000;0.7277;1.0076;
-139.2000;0.7302;1.0099;
-138.9000;0.7293;1.0029;
-138.6000;0.7228;0.9889;
-138.3000;0.7326;1.0076;
-138.0000;0.7302;1.0053;
-137.7000;0.7269;0.9983;
-137.4000;0.7318;1.0029;
-137.1000;0.7293;0.9913;
-136.8000;0.7318;0.9913;
-136.5000;0.7310;0.9866;
-136.2000;0.7293;0.9843;
-135.9000;0.7302;0.9866;
-135.6000;0.7302;1.0006;
-135.3000;0.7310;0.9983;
-135.0000;0.7302;0.9843;
-134.7000;0.7277;0.9726;
-134.4000;0.7383;0.9936;
-134.1000;0.7302;0.9796;
-133.8000;0.7293;0.9749;
-133.5000;0.7285;0.9726;
-133.2000;0.7269;0.9633;
-132.9000;0.7236;0.9633;
-132.6000;0.7277;0.9819;
-132.3000;0.7245;0.9679;
-132.0000;0.7285;0.9843;
-131.7000;0.7277;0.9866;
-131.4000;0.7293;0.9819;
-131.1000;0.7293;0.9773;
-130.8000;0.7285;0.9726;
-130.5000;0.7285;0.9796;
-130.2000;0.7310;0.9889;
-129.9000;0.7293;0.9913;
-129.6000;0.7277;0.9843;
-129.3000;0.7277;0.9866;
-129.0000;0.7285;0.9866;
-128.7000;0.7285;0.9819;
-128.4000;0.7277;0.9866;
-128.1000;0.7261;0.9843;
-127.8000;0.7285;0.9843;
-127.5000;0.7302;0.9866;
-127.2000;0.7310;0.9959;
-126.9000;0.7293;1.0006;
-126.6000;0.7285;0.9983;
-126.3000;0.7302;1.0146;
-126.0000;0.7302;1.0122;
-125.7000;0.7277;1.0029;
-125.4000;0.7277;1.0053;
-125.1000;0.7285;1.0076;
-124.8000;0.7293;1.0099;
-124.5000;0.7293;1.0099;
-124.2000;0.7277;1.0053;
-123.9000;0.7293;1.0099;
-123.6000;0.7285;1.0076;
-123.3000;0.7277;1.0006;
-123.0000;0.7277;1.0053;
-122.7000;0.7277;0.9983;
-122.4000;0.7359;1.0146;
-122.1000;0.7293;0.9936;
-121.8000;0.7302;0.9936;
-121.5000;0.7326;1.0029;
-121.2000;0.7277;0.9983;
-120.9000;0.7302;1.0053;
-120.6000;0.7318;1.0076;
-120.3000;0.7293;1.0053;
-120.0000;0.7318;1.0099;
-119.7000;0.7310;1.0146;
-119.4000;0.7302;1.0192;
-119.1000;0.7293;1.0169;
-118.8000;0.7318;1.0192;
-118.5000;0.7326;1.0122;
-118.2000;0.7285;0.9936;
-117.9000;0.7277;0.9983;
-117.6000;0.7293;1.0029;
-117.3000;0.7293;1.0029;
-117.0000;0.7302;1.0053;
-116.7000;0.7277;1.0053;
-116.4000;0.7302;1.0099;
-116.1000;0.7293;1.0099;
-115.8000;0.7293;1.0122;
-115.5000;0.7293;1.0122;
-115.2000;0.7383;1.0449;
-114.9000;0.7310;1.0262;
-114.6000;0.7302;1.0239;
-114.3000;0.7293;1.0169;
-114.0000;0.7293;1.0286;
-113.7000;0.7285;1.0332;
-113.4000;0.7285;1.0286;
-113.1000;0.7285;1.0169;
-112.8000;0.7302;1.0099;
-112.5000;0.7269;1.0006;
-112.2000;0.7269;0.9936;
-111.9000;0.7285;1.0006;
-111.6000;0.7293;1.0029;
-111.3000;0.7399;1.0262;
-111.0000;0.7302;1.0006;
-110.7000;0.7293;1.0006;
-110.4000;0.7269;0.9889;
-110.1000;0.7285;0.9889;
-109.8000;0.7293;1.0006;
-109.5000;0.7350;1.0122;
-109.2000;0.7293;1.0006;
-108.9000;0.7269;1.0053;
-108.6000;0.7310;1.0076;
-108.3000;0.7293;1.0053;
-108.0000;0.7293;1.0099;
-107.7000;0.7293;1.0029;
-107.4000;0.7310;1.0053;
-107.1000;0.7285;1.0029;
-106.8000;0.7293;1.0076;
-106.5000;0.7310;1.0076;
-106.2000;0.7285;1.0076;
-105.9000;0.7285;1.0006;
-105.6000;0.7277;0.9959;
-105.3000;0.7261;0.9819;
-105.0000;0.7261;0.9866;
-104.7000;0.7293;0.9889;
-104.4000;0.7293;0.9983;
-104.1000;0.7277;0.9959;
-103.8000;0.7277;0.9959;
-103.5000;0.7302;1.0053;
-103.2000;0.7285;1.0029;
-102.9000;0.7277;1.0099;
-102.6000;0.7293;1.0146;
-102.3000;0.7277;1.0099;
-102.0000;0.7269;1.0099;
-101.7000;0.7310;1.0192;
-101.4000;0.7269;1.0169;
-101.1000;0.7293;1.0192;
-100.8000;0.7302;1.0309;
-100.5000;0.7285;1.0286;
-100.2000;0.7204;1.0099;
-99.9000;0.7293;1.0286;
-99.6000;0.7277;1.0216;
-99.3000;0.7285;1.0169;
-99.0000;0.7285;1.0076;
-98.7000;0.7269;1.0076;
-98.4000;0.7302;1.0122;
-98.1000;0.7285;1.0099;
-97.8000;0.7359;1.0262;
-97.5000;0.7285;1.0029;
-97.2000;0.7285;1.0076;
-96.9000;0.7302;1.0099;
-96.6000;0.7293;1.0076;
-96.3000;0.7277;1.0122;
-96.0000;0.7277;1.0076;
-95.7000;0.7293;1.0053;
-95.4000;0.7293;1.0006;
-95.1000;0.7285;1.0006;
-94.8000;0.7293;1.0146;
-94.5000;0.7285;1.0076;
-94.2000;0.7302;1.0192;
-93.9000;0.7245;1.0053;
-93.6000;0.7285;1.0216;
-93.3000;0.7302;1.0216;
-93.0000;0.7302;1.0192;
-92.7000;0.7285;1.0122;
-92.4000;0.7285;1.0122;
-92.1000;0.7302;1.0099;
-91.8000;0.7293;1.0169;
-91.5000;0.7293;1.0239;
-91.2000;0.7285;1.0169;
-90.9000;0.7285;1.0169;
-90.6000;0.7302;1.0122;
-90.3000;0.7293;1.0029;
-90.0000;0.7293;1.0053;
-89.7000;0.7293;1.0053;
-89.4000;0.7277;1.0006;
-89.1000;0.7302;1.0029;
-88.8000;0.7277;1.0006;
-88.5000;0.7277;1.0053;
-88.2000;0.7285;1.0099;
-87.9000;0.7285;1.0076;
-87.6000;0.7277;1.0006;
-87.3000;0.7326;1.0146;
-87.0000;0.7285;1.0053;
-86.7000;0.7285;1.0146;
-86.4000;0.7293;1.0146;
-86.1000;0.7277;1.0099;
-85.8000;0.7293;1.0192;
-85.5000;0.7285;1.0239;
-85.2000;0.7253;1.0286;
-84.9000;0.7285;1.0216;
-84.6000;0.7261;1.0099;
-84.3000;0.7188;0.9913;
-84.0000;0.7293;1.0169;
-83.7000;0.7277;1.0099;
-83.4000;0.7359;1.0309;
-83.1000;0.7293;1.0239;
-82.8000;0.7310;1.0239;
-82.5000;0.7212;1.0029;
-82.2000;0.7293;1.0146;
-81.9000;0.7285;1.0099;
-81.6000;0.7285;1.0192;
-81.3000;0.7188;0.9983;
-81.0000;0.7285;1.0192;
-80.7000;0.7261;1.0169;
-80.4000;0.7285;1.0239;
-80.1000;0.7293;1.0216;
-79.8000;0.7342;1.0356;
-79.5000;0.7318;1.0239;
-79.2000;0.7285;1.0076;
-78.9000;0.7310;1.0192;
-78.6000;0.7293;1.0099;
-78.3000;0.7261;1.0029;
-78.0000;0.7285;0.9983;
-77.7000;0.7326;1.0122;
-77.4000;0.7269;0.9983;
-77.1000;0.7302;1.0053;
-76.8000;0.7302;1.0006;
-76.5000;0.7285;1.0029;
-76.2000;0.7196;0.9843;
-75.9000;0.7277;1.0006;
-75.6000;0.7302;1.0122;
-75.3000;0.7302;1.0169;
-75.0000;0.7302;1.0006;
-74.7000;0.7285;0.9936;
-74.4000;0.7310;0.9983;
-74.1000;0.7293;0.9983;
-73.8000;0.7310;1.0029;
-73.5000;0.7302;1.0122;
-73.2000;0.7277;1.0053;
-72.9000;0.7350;1.0169;
-72.6000;0.7293;1.0099;
-72.3000;0.7293;1.0053;
-72.0000;0.7245;0.9866;
-71.7000;0.7285;0.9936;
-71.4000;0.7302;0.9889;
-71.1000;0.7293;0.9959;
-70.8000;0.7293;1.0053;
-70.5000;0.7285;1.0029;
-70.2000;0.7326;1.0192;
-69.9000;0.7302;1.0169;
-69.6000;0.7285;1.0122;
-69.3000;0.7277;1.0029;
-69.0000;0.7293;0.9936;
-68.7000;0.7285;0.9959;
-68.4000;0.7310;1.0053;
-68.1000;0.7277;0.9983;
-67.8000;0.7302;1.0053;
-67.5000;0.7293;1.0029;
-67.2000;0.7285;1.0029;
-66.9000;0.7277;0.9936;
-66.6000;0.7277;0.9843;
-66.3000;0.7293;0.9936;
-66.0000;0.7277;1.0053;
-65.7000;0.7269;0.9936;
-65.4000;0.7269;0.9866;
-65.1000;0.7302;0.9959;
-64.8000;0.7293;1.0099;
-64.5000;0.7318;1.0216;
-64.2000;0.7285;1.0099;
-63.9000;0.7293;1.0006;
-63.6000;0.7310;1.0053;
-63.3000;0.7302;1.0006;
-63.0000;0.7261;1.0006;
-62.7000;0.7302;1.0029;
-62.4000;0.7277;0.9983;
-62.1000;0.7310;1.0076;
-61.8000;0.7245;0.9959;
-61.5000;0.7277;1.0029;
-61.2000;0.7285;1.0029;
-60.9000;0.7302;1.0053;
-60.6000;0.7367;1.0169;
-60.3000;0.7334;1.0192;
-60.0000;0.7318;1.0216;
-59.7000;0.7253;1.0053;
-59.4000;0.7310;1.0122;
-59.1000;0.7302;1.0122;
-58.8000;0.7310;1.0216;
-58.5000;0.7253;1.0122;
-58.2000;0.7285;1.0192;
-57.9000;0.7310;1.0216;
-57.6000;0.7334;1.0216;
-57.3000;0.7318;1.0122;
-57.0000;0.7293;1.0192;
-56.7000;0.7285;1.0076;
-56.4000;0.7293;1.0076;
-56.1000;0.7277;1.0099;
-55.8000;0.7326;1.0239;
-55.5000;0.7269;1.0239;
-55.2000;0.7285;1.0192;
-54.9000;0.7302;1.0239;
-54.6000;0.7302;1.0146;
-54.3000;0.7302;1.0076;
-54.0000;0.7310;1.0029;
-53.7000;0.7269;0.9983;
-53.4000;0.7245;0.9959;
-53.1000;0.7277;0.9959;
-52.8000;0.7285;0.9983;
-52.5000;0.7293;1.0006;
-52.2000;0.7269;0.9843;
-51.9000;0.7293;0.9866;
-51.6000;0.7228;0.9773;
-51.3000;0.7302;0.9913;
-51.0000;0.7293;0.9913;
-50.7000;0.7302;0.9913;
-50.4000;0.7269;0.9843;
-50.1000;0.7245;0.9819;
-49.8000;0.7293;0.9913;
-49.5000;0.7302;0.9913;
-49.2000;0.7302;0.9796;
-48.9000;0.7285;0.9749;
-48.6000;0.7285;0.9866;
-48.3000;0.7253;0.9796;
-48.0000;0.7293;1.0029;
-47.7000;0.7326;1.0192;
-47.4000;0.7318;1.0262;
-47.1000;0.7293;1.0379;
-46.8000;0.7261;1.0332;
-46.5000;0.7302;1.0379;
-46.2000;0.7326;1.0379;
-45.9000;0.7399;1.0589;
-45.6000;0.7285;1.0286;
-45.3000;0.7293;1.0192;
-45.0000;0.7277;1.0146;
-44.7000;0.7293;1.0099;
-44.4000;0.7277;0.9983;
-44.1000;0.7302;0.9913;
-43.8000;0.7285;0.9843;
-43.5000;0.7293;0.9866;
-43.2000;0.7293;0.9819;
-42.9000;0.7293;0.9819;
-42.6000;0.7302;0.9819;
-42.3000;0.7285;0.9819;
-42.0000;0.7318;0.9889;
-41.7000;0.7285;0.9796;
-41.4000;0.7326;1.0006;
-41.1000;0.7310;0.9913;
-40.8000;0.7236;0.9749;
-40.5000;0.7285;0.9936;
-40.2000;0.7302;0.9913;
-39.9000;0.7277;0.9913;
-39.6000;0.7261;0.9889;
-39.3000;0.7302;0.9959;
-39.0000;0.7302;0.9983;
-38.7000;0.7293;1.0029;
-38.4000;0.7285;0.9983;
-38.1000;0.7293;0.9959;
-37.8000;0.7293;0.9913;
-37.5000;0.7277;0.9983;
-37.2000;0.7277;1.0053;
-36.9000;0.7285;1.0006;
-36.6000;0.7277;1.0029;
-36.3000;0.7318;1.0053;
-36.0000;0.7367;1.0169;
-35.7000;0.7391;1.0262;
-35.4000;0.7334;1.0169;
-35.1000;0.7310;1.0076;
-34.8000;0.7277;1.0076;
-34.5000;0.7261;1.0099;
-34.2000;0.7302;1.0122;
-33.9000;0.7310;1.0122;
-33.6000;0.7277;1.0053;
-33.3000;0.7277;1.0006;
-33.0000;0.7302;1.0006;
-32.7000;0.7302;1.0053;
-32.4000;0.7293;1.0146;
-32.1000;0.7261;1.0146;
-31.8000;0.7261;1.0076;
-31.5000;0.7293;1.0169;
-31.2000;0.7293;1.0216;
-30.9000;0.7302;1.0076;
-30.6000;0.7302;1.0053;
-30.3000;0.7302;1.0122;
-30.0000;0.7302;1.0122;
-29.7000;0.7293;1.0122;
-29.4000;0.7302;1.0099;
-29.1000;0.7326;1.0122;
-28.8000;0.7293;1.0076;
-28.5000;0.7302;1.0029;
-28.2000;0.7302;1.0029;
-27.9000;0.7302;0.9959;
-27.6000;0.7293;0.9866;
-27.3000;0.7302;0.9959;
-27.0000;0.7293;0.9983;
-26.7000;0.7277;0.9936;
-26.4000;0.7204;0.9726;
-26.1000;0.7302;0.9983;
-25.8000;0.7293;0.9983;
-25.5000;0.7277;0.9983;
-25.2000;0.7261;0.9866;
-24.9000;0.7245;0.9819;
-24.6000;0.7277;0.9913;
-24.3000;0.7399;1.0192;
-24.0000;0.7285;0.9889;
-23.7000;0.7269;0.9889;
-23.4000;0.7261;0.9913;
-23.1000;0.7277;1.0006;
-22.8000;0.7285;1.0076;
-22.5000;0.7342;1.0122;
-22.2000;0.7310;0.9983;
-21.9000;0.7277;1.0006;
-21.6000;0.7261;0.9936;
-21.3000;0.7293;0.9959;
-21.0000;0.7293;0.9936;
-20.7000;0.7302;1.0006;
-20.4000;0.7245;0.9796;
-20.1000;0.7310;1.0029;
-19.8000;0.7318;1.0099;
-19.5000;0.7293;1.0053;
-19.2000;0.7277;0.9983;
-18.9000;0.7293;1.0146;
-18.6000;0.7399;1.0496;
-18.3000;0.7302;1.0169;
-18.0000;0.7310;1.0216;
-17.7000;0.7326;1.0216;
-17.4000;0.7318;1.0192;
-17.1000;0.7293;1.0169;
-16.8000;0.7310;1.0262;
-16.5000;0.7285;1.0216;
-16.2000;0.7302;1.0309;
-15.9000;0.7302;1.0332;
-15.6000;0.7285;1.0262;
-15.3000;0.7261;1.0192;
-15.0000;0.7285;1.0216;
-14.7000;0.7302;1.0239;
-14.4000;0.7277;1.0169;
-14.1000;0.7285;1.0146;
-13.8000;0.7302;1.0169;
-13.5000;0.7293;1.0169;
-13.2000;0.7302;1.0239;
-12.9000;0.7285;1.0076;
-12.6000;0.7285;1.0029;
-12.3000;0.7293;1.0076;
-12.0000;0.7285;1.0099;
-11.7000;0.7285;1.0146;
-11.4000;0.7310;1.0216;
-11.1000;0.7293;1.0192;
-10.8000;0.7310;1.0262;
-10.5000;0.7285;1.0099;
-10.2000;0.7277;1.0006;
-9.9000;0.7293;1.0076;
-9.6000;0.7277;1.0053;
-9.3000;0.7285;1.0076;
-9.0000;0.7277;1.0169;
-8.7000;0.7269;1.0239;
-8.4000;0.7310;1.0262;
-8.1000;0.7277;1.0146;
-7.8000;0.7269;1.0006;
-7.5000;0.7302;1.0053;
-7.2000;0.7293;1.0122;
-6.9000;0.7220;1.0006;
-6.6000;0.7285;1.0332;
-6.3000;0.7261;1.0309;
-6.0000;0.7285;1.0332;
-5.7000;0.7302;1.0379;
-5.4000;0.7350;1.0542;
-5.1000;0.7293;1.0286;
-4.8000;0.7285;1.0216;
-4.5000;0.7302;1.0239;
-4.2000;0.7269;1.0099;
-3.9000;0.7285;1.0239;
-3.6000;0.7293;1.0239;
-3.3000;0.7285;1.0122;
-3.0000;0.7277;1.0146;
-2.7000;0.7277;1.0099;
-2.4000;0.7293;1.0192;
-2.1000;0.7293;1.0192;
-1.8000;0.7302;1.0169;
-1.5000;0.7285;1.0169;
-1.2000;0.7302;1.0169;
-0.9000;0.7310;1.0192;
-0.6000;0.7350;1.0309;
-0.3000;0.7424;1.0566;
0.0000;0.7424;1.0566;
0.3000;0.7440;1.0099;
0.6000;0.7668;1.0239;
0.9000;0.7912;1.0566;
1.2000;0.8083;1.0846;
1.5000;0.8205;1.0939;
1.8000;0.8327;1.1219;
2.1000;0.8392;1.1335;
2.4000;0.8474;1.1429;
2.7000;0.8653;1.1732;
3.0000;0.8612;1.1615;
3.3000;0.8645;1.1685;
3.6000;0.8702;1.1825;
3.9000;0.8751;1.1895;
4.2000;0.8783;1.2012;
4.5000;0.8799;1.1988;
4.8000;0.8840;1.2058;
5.1000;0.8864;1.2058;
5.4000;0.8889;1.2058;
5.7000;0.8913;1.2058;
6.0000;0.8946;1.2012;
6.3000;0.8946;1.1988;
6.6000;0.8995;1.2082;
6.9000;0.9011;1.2082;
7.2000;0.9011;1.1965;
7.5000;0.8987;1.1778;
7.8000;0.9060;1.1965;
8.1000;0.9068;1.2082;
8.4000;0.9101;1.2245;
8.7000;0.9117;1.2222;
9.0000;0.9109;1.2082;
9.3000;0.9190;1.2175;
9.6000;0.9174;1.2082;
9.9000;0.9182;1.2105;
10.2000;0.9214;1.2082;
10.5000;0.9223;1.2152;
10.8000;0.9231;1.2082;
11.1000;0.9255;1.2035;
11.4000;0.9263;1.2058;
11.7000;0.9271;1.2058;
12.0000;0.9288;1.2128;
12.3000;0.9271;1.2128;
12.6000;0.9280;1.2152;
12.9000;0.9296;1.2198;
13.2000;0.9320;1.2338;
13.5000;0.9337;1.2385;
13.8000;0.9328;1.2292;
14.1000;0.9328;1.2222;
14.4000;0.9377;1.2315;
14.7000;0.9385;1.2408;
15.0000;0.9402;1.2408;
15.3000;0.9361;1.2245;
15.6000;0.9442;1.2385;
15.9000;0.9410;1.2268;
16.2000;0.9426;1.2315;
16.5000;0.9418;1.2292;
16.8000;0.9418;1.2245;
17.1000;0.9442;1.2315;
17.4000;0.9451;1.2292;
17.7000;0.9467;1.2292;
18.0000;0.9434;1.2175;
18.3000;0.9442;1.2245;
18.6000;0.9442;1.2198;
18.9000;0.9467;1.2198;
19.2000;0.9475;1.2245;
19.5000;0.9483;1.2385;
19.8000;0.9508;1.2408;
20.1000;0.9483;1.2338;
20.4000;0.9499;1.2408;
20.7000;0.9475;1.2338;
21.0000;0.9516;1.2362;
21.3000;0.9516;1.2315;
21.6000;0.9516;1.2222;
21.9000;0.9532;1.2245;
22.2000;0.9532;1.2268;
22.5000;0.9483;1.2222;
22.8000;0.9524;1.2292;
23.1000;0.9499;1.2292;
23.4000;0.9573;1.2455;
23.7000;0.9548;1.2362;
24.0000;0.9532;1.2385;
24.3000;0.9467;1.2268;
24.6000;0.9556;1.2432;
24.9000;0.9548;1.2408;
25.2000;0.9573;1.2432;
25.5000;0.9508;1.2222;
25.8000;0.9581;1.2362;
26.1000;0.9581;1.2338;
26.4000;0.9589;1.2245;
26.7000;0.9565;1.2245;
27.0000;0.9573;1.2338;
27.3000;0.9605;1.2408;
27.6000;0.9573;1.2362;
27.9000;0.9581;1.2408;
28.2000;0.9597;1.2455;
28.5000;0.9483;1.2152;
28.8000;0.9573;1.2292;
29.1000;0.9589;1.2152;
29.4000;0.9483;1.1872;
29.7000;0.9605;1.2152;
30.0000;0.9621;1.2105;
30.3000;0.9581;1.2105;
30.6000;0.9654;1.2315;
30.9000;0.9621;1.2268;
31.2000;0.9597;1.2245;
31.5000;0.9654;1.2268;
31.8000;0.9621;1.2175;
32.1000;0.9621;1.2198;
32.4000;0.9630;1.2245;
32.7000;0.9597;1.2222;
33.0000;0.9621;1.2222;
33.3000;0.9573;1.2012;
33.6000;0.9630;1.2152;
33.9000;0.9638;1.2222;
34.2000;0.9638;1.2268;
34.5000;0.9678;1.2315;
34.8000;0.9621;1.2198;
35.1000;0.9646;1.2245;
35.4000;0.9670;1.2198;
35.7000;0.9687;1.2222;
36.0000;0.9638;1.2058;
36.3000;0.9597;1.1942;
36.6000;0.9646;1.2198;
36.9000;0.9638;1.2128;
37.2000;0.9646;1.2128;
37.5000;0.9646;1.2058;
37.8000;0.9638;1.2105;
38.1000;0.9662;1.2105;
38.4000;0.9638;1.2035;
38.7000;0.9654;1.2105;
39.0000;0.9654;1.2175;
39.3000;0.9621;1.2152;
39.6000;0.9646;1.2268;
39.9000;0.9654;1.2315;
40.2000;0.9638;1.2315;
40.5000;0.9646;1.2385;
40.8000;0.9613;1.2315;
41.1000;0.9654;1.2338;
41.4000;0.9735;1.2548;
41.7000;0.9695;1.2478;
42.0000;0.9662;1.2338;
42.3000;0.9654;1.2268;
42.6000;0.9613;1.2152;
42.9000;0.9654;1.2222;
43.2000;0.9654;1.2198;
43.5000;0.9670;1.2128;
43.8000;0.9670;1.2198;
44.1000;0.9695;1.2292;
44.4000;0.9654;1.2198;
44.7000;0.9670;1.2198;
45.0000;0.9662;1.2198;
45.3000;0.9662;1.2152;
45.6000;0.9646;1.2152;
45.9000;0.9662;1.2292;
46.2000;0.9670;1.2222;
46.5000;0.9670;1.2152;
46.8000;0.9678;1.2198;
47.1000;0.9621;1.2058;
47.4000;0.9678;1.2245;
47.7000;0.9695;1.2338;
48.0000;0.9678;1.2315;
48.3000;0.9662;1.2222;
48.6000;0.9654;1.2175;
48.9000;0.9662;1.2175;
49.2000;0.9662;1.2175;
49.5000;0.9678;1.2268;
49.8000;0.9670;1.2292;
50.1000;0.9670;1.2175;
50.4000;0.9687;1.2245;
50.7000;0.9687;1.2245;
51.0000;0.9654;1.2175;
51.3000;0.9687;1.2198;
51.6000;0.9670;1.2198;
51.9000;0.9670;1.2175;
52.2000;0.9687;1.2128;
52.5000;0.9630;1.2105;
52.8000;0.9670;1.2175;
53.1000;0.9678;1.2128;
53.4000;0.9760;1.2292;
53.7000;0.9670;1.2058;
54.0000;0.9678;1.2105;
54.3000;0.9703;1.2082;
54.6000;0.9670;1.1918;
54.9000;0.9670;1.1895;
55.2000;0.9687;1.1965;
55.5000;0.9654;1.1942;
55.8000;0.9678;1.2082;
56.1000;0.9678;1.2198;
56.4000;0.9670;1.2152;
56.7000;0.9695;1.2175;
57.0000;0.9695;1.2198;
57.3000;0.9776;1.2338;
57.6000;0.9695;1.2175;
57.9000;0.9695;1.2128;
58.2000;0.9597;1.1965;
58.5000;0.9744;1.2268;
58.8000;0.9630;1.1918;
59.1000;0.9703;1.2058;
59.4000;0.9695;1.2152;
59.7000;0.9695;1.2128;
60.0000;0.9687;1.2082;
60.3000;0.9711;1.2152;
60.6000;0.9711;1.2152;
60.9000;0.9703;1.2198;
61.2000;0.9687;1.2198;
61.5000;0.9711;1.2362;
61.8000;0.9687;1.2315;
62.1000;0.9687;1.2362;
62.4000;0.9687;1.2222;
62.7000;0.9687;1.2245;
63.0000;0.9687;1.2198;
63.3000;0.9784;1.2455;
63.6000;0.9703;1.2175;
63.9000;0.9703;1.2315;
64.2000;0.9687;1.2268;
64.5000;0.9687;1.2245;
64.8000;0.9573;1.1988;
65.1000;0.9687;1.2152;
65.4000;0.9687;1.2082;
65.7000;0.9752;1.2268;
66.0000;0.9695;1.2198;
66.3000;0.9678;1.2198;
66.6000;0.9695;1.2222;
66.9000;0.9670;1.2058;
67.2000;0.9703;1.2175;
67.5000;0.9670;1.2128;
67.8000;0.9687;1.2105;
68.1000;0.9711;1.2198;
68.4000;0.9735;1.2338;
68.7000;0.9711;1.2315;
69.0000;0.9703;1.2292;
69.3000;0.9695;1.2198;
69.6000;0.9703;1.2245;
69.9000;0.9670;1.2198;
70.2000;0.9711;1.2315;
70.5000;0.9703;1.2268;
70.8000;0.9744;1.2338;
71.1000;0.9695;1.2128;
71.4000;0.9670;1.2012;
71.7000;0.9630;1.1918;
72.0000;0.9703;1.2058;
72.3000;0.9687;1.2105;
72.6000;0.9752;1.2245;
72.9000;0.9744;1.2245;
73.2000;0.9727;1.2128;
73.5000;0.9678;1.2082;
73.8000;0.9735;1.2338;
74.1000;0.9695;1.2198;
74.4000;0.9768;1.2338;
74.7000;0.9703;1.2222;
75.0000;0.9695;1.2152;
75.3000;0.9670;1.2082;
75.6000;0.9703;1.2128;
75.9000;0.9695;1.2082;
76.2000;0.9687;1.2012;
76.5000;0.9760;1.2128;
76.8000;0.9703;1.1988;
77.1000;0.9695;1.1942;
77.4000;0.9703;1.2012;
77.7000;0.9687;1.2012;
78.0000;0.9687;1.2035;
78.3000;0.9711;1.2105;
78.6000;0.9703;1.2012;
78.9000;0.9695;1.2012;
79.2000;0.9687;1.1965;
79.5000;0.9678;1.1942;
79.8000;0.9703;1.1918;
80.1000;0.9621;1.1848;
80.4000;0.9687;1.2105;
80.7000;0.9687;1.2128;
81.0000;0.9687;1.2128;
81.3000;0.9662;1.2012;
81.6000;0.9776;1.2198;
81.9000;0.9687;1.1918;
82.2000;0.9695;1.1895;
82.5000;0.9703;1.1988;
82.8000;0.9687;1.1965;
83.1000;0.9703;1.1942;
83.4000;0.9719;1.1942;
83.7000;0.9687;1.1918;
84.0000;0.9711;1.2035;
84.3000;0.9735;1.2082;
84.6000;0.9695;1.2012;
84.9000;0.9654;1.2035;
85.2000;0.9703;1.2198;
85.5000;0.9695;1.2152;
85.8000;0.9695;1.2175;
86.1000;0.9695;1.2198;
86.4000;0.9703;1.2105;
86.7000;0.9646;1.2035;
87.0000;0.9703;1.2152;
87.3000;0.9703;1.2152;
87.6000;0.9687;1.2292;
87.9000;0.9711;1.2408;
88.2000;0.9695;1.2362;
88.5000;0.9703;1.2338;
88.8000;0.9744;1.2432;
89.1000;0.9703;1.2385;
89.4000;0.9695;1.2385;
89.7000;0.9687;1.2338;
90.0000;0.9703;1.2362;
90.3000;0.9711;1.2292;
90.6000;0.9711;1.2315;
90.9000;0.9735;1.2315;
91.2000;0.9703;1.2245;
91.5000;0.9752;1.2268;
91.8000;0.9719;1.2222;
92.1000;0.9719;1.2152;
92.4000;0.9711;1.2152;
92.7000;0.9703;1.2315;
93.0000;0.9727;1.2315;
93.3000;0.9654;1.2082;
93.6000;0.9695;1.2175;
93.9000;0.9711;1.2222;
94.2000;0.9703;1.2175;
94.5000;0.9703;1.2222;
94.8000;0.9711;1.2175;
95.1000;0.9703;1.2175;
95.4000;0.9703;1.2082;
95.7000;0.9678;1.2035;
96.0000;0.9695;1.2198;
96.3000;0.9711;1.2245;
96.6000;0.9719;1.2198;
96.9000;0.9719;1.2175;
97.2000;0.9719;1.2268;
97.5000;0.9638;1.2105;
97.8000;0.9711;1.2315;
98.1000;0.9695;1.2362;
98.4000;0.9711;1.2432;
98.7000;0.9687;1.2385;
99.0000;0.9735;1.2525;
99.3000;0.9727;1.2478;
99.6000;0.9719;1.2432;
99.9000;0.9727;1.2362;
100.2000;0.9695;1.2455;
100.5000;0.9703;1.2595;
100.8000;0.9711;1.2711;
101.1000;0.9703;1.2665;
101.4000;0.9703;1.2525;
101.7000;0.9703;1.2338;
102.0000;0.9703;1.2315;
102.3000;0.9695;1.2245;
102.6000;0.9695;1.2268;
102.9000;0.9703;1.2292;
103.2000;0.9711;1.2268;
103.5000;0.9727;1.2292;
103.8000;0.9703;1.2245;
104.1000;0.9727;1.2292;
104.4000;0.9711;1.2245;
104.7000;0.9711;1.2245;
105.0000;0.9703;1.2175;
105.3000;0.9719;1.2268;
105.6000;0.9719;1.2222;
105.9000;0.9654;1.2175;
106.2000;0.9703;1.2268;
106.5000;0.9719;1.2362;
106.8000;0.9727;1.2292;
107.1000;0.9711;1.2175;
107.4000;0.9711;1.2175;
107.7000;0.9703;1.2175;
108.0000;0.9703;1.2152;
108.3000;0.9752;1.2198;
108.6000;0.9727;1.2222;
108.9000;0.9735;1.2338;
109.2000;0.9719;1.2385;
109.5000;0.9719;1.2362;
109.8000;0.9735;1.2292;
110.1000;0.9703;1.2175;
110.4000;0.9768;1.2408;
110.7000;0.9752;1.2455;
111.0000;0.9597;1.2058;
111.3000;0.9703;1.2315;
111.6000;0.9784;1.2501;
111.9000;0.9695;1.2245;
112.2000;0.9695;1.2268;
112.5000;0.9678;1.2198;
112.8000;0.9703;1.2292;
113.1000;0.9695;1.2175;
113.4000;0.9719;1.2268;
113.7000;0.9760;1.2385;
114.0000;0.9735;1.2315;
114.3000;0.9719;1.2245;
114.6000;0.9695;1.2198;
114.9000;0.9703;1.2175;
115.2000;0.9703;1.2222;
115.5000;0.9719;1.2292;
115.8000;0.9719;1.2362;
116.1000;0.9719;1.2385;
116.4000;0.9703;1.2362;
116.7000;0.9760;1.2501;
117.0000;0.9727;1.2268;
117.3000;0.9703;1.2245;
117.6000;0.9719;1.2268;
117.9000;0.9703;1.2245;
118.2000;0.9711;1.2292;
118.5000;0.9703;1.2268;
118.8000;0.9719;1.2245;
119.1000;0.9711;1.2268;
119.4000;0.9711;1.2268;
119.7000;0.9719;1.2408;
120.0000;0.9711;1.2455;
120.3000;0.9703;1.2315;
120.6000;0.9719;1.2315;
120.9000;0.9695;1.2245;
121.2000;0.9687;1.2268;
121.5000;0.9719;1.2385;
121.8000;0.9703;1.2292;
122.1000;0.9695;1.2292;
122.4000;0.9695;1.2315;
122.7000;0.9711;1.2315;
123.0000;0.9703;1.2222;
123.3000;0.9695;1.2198;
123.6000;0.9695;1.2198;
123.9000;0.9695;1.2175;
124.2000;0.9695;1.2128;
124.5000;0.9687;1.2128;
124.8000;0.9711;1.2222;
125.1000;0.9703;1.2292;
125.4000;0.9719;1.2338;
125.7000;0.9613;1.2128;
126.0000;0.9703;1.2315;
126.3000;0.9719;1.2315;
126.6000;0.9735;1.2315;
126.9000;0.9703;1.2198;
127.2000;0.9711;1.2198;
127.5000;0.9711;1.2152;
127.8000;0.9695;1.2128;
128.1000;0.9711;1.2058;
128.4000;0.9727;1.2082;
128.7000;0.9703;1.2082;
129.0000;0.9703;1.2035;
129.3000;0.9695;1.2035;
129.6000;0.9670;1.1942;
129.9000;0.9703;1.2035;
130.2000;0.9711;1.2175;
130.5000;0.9695;1.2128;
130.8000;0.9727;1.2198;
131.1000;0.9662;1.2128;
131.4000;0.9703;1.2222;
131.7000;0.9687;1.2245;
132.0000;0.9662;1.2175;
132.3000;0.9735;1.2292;
132.6000;0.9719;1.2268;
132.9000;0.9695;1.2175;
133.2000;0.9687;1.2105;
133.5000;0.9703;1.2105;
133.8000;0.9727;1.2175;
134.1000;0.9703;1.2152;
134.4000;0.9670;1.2128;
134.7000;0.9670;1.2105;
135.0000;0.9711;1.2268;
135.3000;0.9703;1.2292;
135.6000;0.9711;1.2338;
135.9000;0.9703;1.2292;
136.2000;0.9719;1.2245;
136.5000;0.9695;1.2245;
136.8000;0.9695;1.2198;
137.1000;0.9711;1.2198;
137.4000;0.9703;1.2175;
137.7000;0.9711;1.2222;
138.0000;0.9687;1.2175;
138.3000;0.9687;1.2198;
138.6000;0.9703;1.2152;
138.9000;0.9711;1.2245;
139.2000;0.9703;1.2315;
139.5000;0.9687;1.2222;
139.8000;0.9695;1.2175;
140.1000;0.9703;1.2198;
140.4000;0.9719;1.2268;
140.7000;0.9719;1.2338;
141.0000;0.9719;1.2315;
141.3000;0.9711;1.2268;
141.6000;0.9711;1.2198;
141.9000;0.9678;1.2035;
142.2000;0.9703;1.2105;
142.5000;0.9695;1.2105;
142.8000;0.9695;1.2105;
143.1000;0.9711;1.2198;
143.4000;0.9695;1.2175;
143.7000;0.9711;1.2268;
144.0000;0.9703;1.2338;
144.3000;0.9703;1.2268;
144.6000;0.9703;1.2222;
144.9000;0.9695;1.2198;
145.2000;0.9719;1.2198;
145.5000;0.9662;1.1965;
145.8000;0.9687;1.2058;
146.1000;0.9703;1.2175;
146.4000;0.9711;1.2128;
146.7000;0.9711;1.2175;
147.0000;0.9703;1.2152;
147.3000;0.9687;1.2128;
147.6000;0.9719;1.2175;
147.9000;0.9703;1.2128;
148.2000;0.9695;1.2198;
148.5000;0.9711;1.2222;
148.8000;0.9695;1.2222;
149.1000;0.9703;1.2292;
149.4000;0.9695;1.2222;
149.7000;0.9735;1.2478;
150.0000;0.9654;1.2338;
150.3000;0.9662;1.2385;
150.6000;0.9662;1.2292;
150.9000;0.9711;1.2385;
151.2000;0.9687;1.2292;
151.5000;0.9727;1.2338;
151.8000;0.9727;1.2198;
152.1000;0.9711;1.2035;
152.4000;0.9695;1.2035;
152.7000;0.9735;1.2128;
153.0000;0.9711;1.2082;
153.3000;0.9719;1.2082;
153.6000;0.9695;1.2152;
153.9000;0.9703;1.2175;
154.2000;0.9703;1.2152;
154.5000;0.9662;1.2058;
154.8000;0.9654;1.2082;
155.1000;0.9654;1.2035;
155.4000;0.9727;1.2245;
155.7000;0.9703;1.2128;
156.0000;0.9719;1.2152;
156.3000;0.9719;1.2105;
156.6000;0.9711;1.2058;
156.9000;0.9727;1.2152;
157.2000;0.9711;1.2058;
157.5000;0.9711;1.2058;
157.8000;0.9711;1.2175;
158.1000;0.9703;1.2292;
158.4000;0.9703;1.2292;
158.7000;0.9695;1.2198;
159.0000;0.9727;1.2198;
159.3000;0.9727;1.2222;
159.6000;0.9719;1.2152;
159.9000;0.9695;1.2012;
160.2000;0.9711;1.2082;
160.5000;0.9719;1.2082;
160.8000;0.9711;1.2082;
161.1000;0.9703;1.2035;
161.4000;0.9711;1.2058;
161.7000;0.9662;1.2035;
162.0000;0.9703;1.2175;
162.3000;0.9678;1.2082;
162.6000;0.9711;1.2128;
162.9000;0.9703;1.2152;
163.2000;0.9695;1.2082;
163.5000;0.9687;1.1918;
163.8000;0.9687;1.1802;
164.1000;0.9752;1.1988;
164.4000;0.9719;1.1895;
164.7000;0.9711;1.1918;
165.0000;0.9695;1.1918;
165.3000;0.9703;1.1895;
165.6000;0.9719;1.1895;
165.9000;0.9711;1.1942;
166.2000;0.9703;1.1872;
166.5000;0.9711;1.1918;
166.8000;0.9597;1.1592;
167.1000;0.9719;1.1895;
167.4000;0.9776;1.2035;
167.7000;0.9760;1.1988;
168.0000;0.9695;1.1895;
168.3000;0.9703;1.2035;
168.6000;0.9703;1.1988;
168.9000;0.9711;1.2035;
169.2000;0.9703;1.2058;
169.5000;0.9703;1.2058;
169.8000;0.9727;1.2105;
170.1000;0.9760;1.2082;
170.4000;0.9719;1.2035;
170.7000;0.9711;1.1988;
171.0000;0.9768;1.2222;
171.3000;0.9662;1.2012;
171.6000;0.9703;1.2035;
171.9000;0.9695;1.2058;
172.2000;0.9687;1.2082;
172.5000;0.9687;1.1988;
172.8000;0.9711;1.1918;
173.1000;0.9687;1.1965;
173.4000;0.9678;1.2012;
173.7000;0.9703;1.2058;
174.0000;0.9711;1.2082;
174.3000;0.9678;1.2082;
174.6000;0.9776;1.2292;
174.9000;0.9719;1.2035;
175.2000;0.9752;1.2105;
175.5000;0.9703;1.1965;
175.8000;0.9703;1.2012;
176.1000;0.9695;1.2105;
176.4000;0.9695;1.2152;
176.7000;0.9687;1.2058;
177.0000;0.9711;1.2105;
177.3000;0.9727;1.2128;
177.6000;0.9719;1.2175;
177.9000;0.9711;1.2175;
178.2000;0.9703;1.2152;
178.5000;0.9711;1.2105;
178.8000;0.9711;1.2152;
179.1000;0.9687;1.2082;
179.4000;0.9687;1.2058;
179.7000;0.9711;1.2058;
180.0000;0.9711;1.2058;
180.3000;0.9703;1.2082;
180.6000;0.9695;1.2058;
180.9000;0.9695;1.2035;
181.2000;0.9703;1.2058;
181.5000;0.9678;1.1965;
181.8000;0.9719;1.2058;
182.1000;0.9695;1.2012;
182.4000;0.9719;1.2035;
182.7000;0.9719;1.2035;
183.0000;0.9760;1.2128;
183.3000;0.9703;1.2082;
183.6000;0.9711;1.2058;
183.9000;0.9703;1.2105;
184.2000;0.9711;1.2105;
184.5000;0.9711;1.2175;
184.8000;0.9687;1.2222;
185.1000;0.9719;1.2245;
185.4000;0.9678;1.2082;
185.7000;0.9711;1.2268;
186.0000;0.9695;1.2245;
186.3000;0.9711;1.2268;
186.6000;0.9654;1.1988;
186.9000;0.9687;1.1942;
187.2000;0.9646;1.1918;
187.5000;0.9735;1.2082;
187.8000;0.9735;1.2058;
188.1000;0.9711;1.1988;
188.4000;0.9776;1.2152;
188.7000;0.9719;1.1988;
189.0000;0.9711;1.1942;
189.3000;0.9687;1.1918;
189.6000;0.9687;1.1895;
189.9000;0.9711;1.2012;
190.2000;0.9662;1.1872;
190.5000;0.9719;1.1988;
190.8000;0.9695;1.1895;
191.1000;0.9687;1.1825;
191.4000;0.9687;1.1872;
191.7000;0.9703;1.1942;
192.0000;0.9703;1.1965;
192.3000;0.9695;1.2012;
192.6000;0.9695;1.2082;
192.9000;0.9695;1.2035;
193.2000;0.9630;1.1802;
193.5000;0.9809;1.2292;
193.8000;0.9703;1.1988;
194.1000;0.9695;1.2035;
194.4000;0.9687;1.2012;
194.7000;0.9703;1.2058;
195.0000;0.9654;1.2012;
195.3000;0.9703;1.2082;
195.6000;0.9727;1.2152;
195.9000;0.9703;1.2058;
196.2000;0.9760;1.2245;
196.5000;0.9711;1.2175;
196.8000;0.9711;1.2082;
197.1000;0.9727;1.2222;
197.4000;0.9703;1.2175;
197.7000;0.9711;1.2082;
198.0000;0.9703;1.2035;
198.3000;0.9735;1.2152;
198.6000;0.9695;1.2175;
198.9000;0.9711;1.2105;
199.2000;0.9711;1.2082;
199.5000;0.9695;1.1965;
199.8000;0.9719;1.2035;
200.1000;0.9735;1.2105;
200.4000;0.9719;1.2105;
200.7000;0.9695;1.2012;
201.0000;0.9687;1.1872;
201.3000;0.9719;1.1895;
201.6000;0.9727;1.1988;
201.9000;0.9703;1.1965;
202.2000;0.9703;1.2012;
202.5000;0.9695;1.1988;
202.8000;0.9703;1.2012;
203.1000;0.9703;1.1965;
203.4000;0.9711;1.2082;
203.7000;0.9703;1.2128;
204.0000;0.9768;1.2268;
204.3000;0.9687;1.2082;
204.6000;0.9695;1.2105;
204.9000;0.9687;1.2175;
205.2000;0.9646;1.2105;
205.5000;0.9678;1.2105;
205.8000;0.9646;1.2058;
206.1000;0.9678;1.2152;
206.4000;0.9695;1.2222;
206.7000;0.9695;1.2198;
207.0000;0.9654;1.2058;
207.3000;0.9646;1.2105;
207.6000;0.9687;1.2082;
207.9000;0.9695;1.2058;
208.2000;0.9735;1.2152;
208.5000;0.9711;1.2082;
208.8000;0.9687;1.1988;
209.1000;0.9703;1.2058;
209.4000;0.9727;1.2082;
209.7000;0.9703;1.2152;
210.0000;0.9670;1.2105;
210.3000;0.9687;1.2105;
210.6000;0.9703;1.2035;
210.9000;0.9703;1.2035;
211.2000;0.9744;1.2152;
211.5000;0.9744;1.2152;
211.8000;0.9711;1.2105;
212.1000;0.9727;1.2198;
212.4000;0.9687;1.1942;
212.7000;0.9711;1.2012;
213.0000;0.9703;1.1895;
213.3000;0.9727;1.1872;
213.6000;0.9711;1.1778;
213.9000;0.9703;1.1802;
214.2000;0.9711;1.1802;
214.5000;0.9711;1.1825;
214.8000;0.9695;1.1778;
215.1000;0.9703;1.1755;
215.4000;0.9703;1.1778;
215.7000;0.9678;1.1732;
216.0000;0.9687;1.1802;
216.3000;0.9695;1.1942;
216.6000;0.9687;1.1942;
216.9000;0.9687;1.1848;
217.2000;0.9670;1.1872;
217.5000;0.9687;1.1942;
217.8000;0.9695;1.1918;
218.1000;0.9687;1.1872;
218.4000;0.9703;1.1942;
218.7000;0.9687;1.2035;
219.0000;0.9687;1.2105;
219.3000;0.9695;1.2058;
219.6000;0.9670;1.2035;
219.9000;0.9703;1.2058;
220.2000;0.9695;1.2012;
220.5000;0.9630;1.1918;
220.8000;0.9678;1.1965;
221.1000;0.9703;1.2012;
221.4000;0.9703;1.1942;
221.7000;0.9654;1.1732;
222.0000;0.9719;1.1825;
222.3000;0.9695;1.1755;
222.6000;0.9711;1.1755;
222.9000;0.9687;1.1685;
223.2000;0.9695;1.1708;
223.5000;0.9703;1.1755;
223.8000;0.9703;1.1778;
224.1000;0.9703;1.1732;
224.4000;0.9719;1.1848;
224.7000;0.9719;1.1895;
225.0000;0.9695;1.1895;
225.3000;0.9719;1.1895;
225.6000;0.9711;1.1895;
225.9000;0.9711;1.1942;
226.2000;0.9703;1.1918;
226.5000;0.9752;1.2175;
226.8000;0.9695;1.1918;
227.1000;0.9703;1.1918;
227.4000;0.9687;1.1895;
227.7000;0.9760;1.2012;
228.0000;0.9735;1.1942;
228.3000;0.9678;1.1848;
228.6000;0.9703;1.1965;
228.9000;0.9703;1.1965;
229.2000;0.9703;1.1942;
229.5000;0.9711;1.1895;
229.8000;0.9727;1.1848;
230.1000;0.9719;1.1872;
230.4000;0.9711;1.1895;
230.7000;0.9711;1.1802;
231.0000;0.9711;1.1732;
231.3000;0.9703;1.1755;
231.6000;0.9695;1.1825;
231.9000;0.9711;1.1895;
232.2000;0.9695;1.1895;
232.5000;0.9687;1.1918;
232.8000;0.9703;1.1895;
233.1000;0.9695;1.1918;
233.4000;0.9735;1.2105;
233.7000;0.9703;1.1918;
234.0000;0.9695;1.1918;
234.3000;0.9695;1.1872;
234.6000;0.9711;1.1848;
234.9000;0.9711;1.1848;
235.2000;0.9703;1.1825;
235.5000;0.9695;1.1778;
235.8000;0.9711;1.1732;
236.1000;0.9703;1.1732;
236.4000;0.9719;1.1802;
236.7000;0.9703;1.1685;
237.0000;0.9687;1.1545;
237.3000;0.9703;1.1569;
237.6000;0.9752;1.1872;
237.9000;0.9711;1.1825;
238.2000;0.9711;1.1778;
238.5000;0.9703;1.1755;
238.8000;0.9695;1.1732;
239.1000;0.9703;1.1662;
239.4000;0.9703;1.1732;
239.7000;0.9687;1.1639;
240.0000;0.9703;1.1685;
240.3000;0.9695;1.1755;
240.6000;0.9703;1.1732;
240.9000;0.9695;1.1732;
241.2000;0.9711;1.1802;
241.5000;0.9711;1.1825;
241.8000;0.9695;1.1778;
242.1000;0.9687;1.1848;
242.4000;0.9678;1.1895;
242.7000;0.9621;1.1732;
243.0000;0.9687;1.1848;
243.3000;0.9695;1.1825;
243.6000;0.9695;1.1825;
243.9000;0.9695;1.1778;
244.2000;0.9703;1.1778;
244.5000;0.9719;1.1872;
244.8000;0.9678;1.1732;
245.1000;0.9711;1.1895;
245.4000;0.9703;1.1872;
245.7000;0.9687;1.1918;
246.0000;0.9695;1.1942;
246.3000;0.9695;1.1965;
246.6000;0.9695;1.1895;
246.9000;0.9687;1.1778;
247.2000;0.9687;1.1755;
247.5000;0.9695;1.1778;
247.8000;0.9703;1.1802;
248.1000;0.9711;1.1872;
248.4000;0.9678;1.1918;
248.7000;0.9695;1.1895;
249.0000;0.9695;1.2012;
249.3000;0.9654;1.1942;
249.6000;0.9752;1.2058;
249.9000;0.9662;1.1755;
250.2000;0.9703;1.1778;
250.5000;0.9752;1.1918;
250.8000;0.9695;1.1778;
251.1000;0.9678;1.1732;
251.4000;0.9695;1.1825;
251.7000;0.9703;1.1895;
252.0000;0.9695;1.1895;
252.3000;0.9695;1.1895;
252.6000;0.9711;1.1895;
252.9000;0.9695;1.1895;
253.2000;0.9662;1.1755;
253.5000;0.9703;1.1872;
253.8000;0.9687;1.1895;
254.1000;0.9703;1.1942;
254.4000;0.9695;1.1965;
254.7000;0.9703;1.1965;
255.0000;0.9695;1.1988;
255.3000;0.9703;1.2012;
255.6000;0.9711;1.2058;
255.9000;0.9703;1.1988;
256.2000;0.9703;1.2012;
256.5000;0.9687;1.1988;
256.8000;0.9719;1.1988;
257.1000;0.9711;1.1918;
257.4000;0.9678;1.1872;
257.7000;0.9695;1.1965;
258.0000;0.9744;1.2128;
258.3000;0.9703;1.2035;
258.6000;0.9768;1.2175;
258.9000;0.9678;1.1942;
259.2000;0.9687;1.1872;
259.5000;0.9687;1.1965;
259.8000;0.9678;1.1965;
260.1000;0.9703;1.1918;
260.4000;0.9703;1.1988;
260.7000;0.9711;1.1895;
261.0000;0.9719;1.1942;
261.3000;0.9662;1.1778;
261.6000;0.9687;1.1918;
261.9000;0.9662;1.1848;
262.2000;0.9703;1.1988;
262.5000;0.9695;1.1942;
262.8000;0.9695;1.1988;
263.1000;0.9695;1.2082;
263.4000;0.9687;1.2035;
263.7000;0.9703;1.2105;
264.0000;0.9678;1.2082;
264.3000;0.9687;1.2058;
264.6000;0.9662;1.2012;
264.9000;0.9687;1.2035;
265.2000;0.9695;1.1988;
265.5000;0.9752;1.2128;
265.8000;0.9711;1.1965;
266.1000;0.9703;1.2012;
266.4000;0.9695;1.1872;
266.7000;0.9678;1.1825;
267.0000;0.9695;1.1942;
267.3000;0.9735;1.2012;
267.6000;0.9678;1.2012;
267.9000;0.9678;1.1965;
268.2000;0.9744;1.2175;
268.5000;0.9678;1.2012;
268.8000;0.9695;1.2128;
269.1000;0.9678;1.2012;
269.4000;0.9711;1.2035;
269.7000;0.9735;1.2152;
270.0000;0.9687;1.2058;
270.3000;0.9646;1.1988;
270.6000;0.9695;1.1965;
270.9000;0.9703;1.2035;
271.2000;0.9703;1.1988;
271.5000;0.9703;1.1988;
271.8000;0.9703;1.1988;
272.1000;0.9703;1.2058;
272.4000;0.9719;1.1988;
272.7000;0.9687;1.1872;
273.0000;0.9670;1.1942;
273.3000;0.9678;1.2082;
273.6000;0.9687;1.2082;
273.9000;0.9727;1.2175;
274.2000;0.9687;1.2012;
274.5000;0.9678;1.1942;
274.8000;0.9703;1.1988;
275.1000;0.9703;1.1895;
275.4000;0.9735;1.1965;
275.7000;0.9687;1.1872;
276.0000;0.9678;1.1965;
276.3000;0.9744;1.2082;
276.6000;0.9695;1.1895;
276.9000;0.9809;1.2152;
277.2000;0.9695;1.1895;
277.5000;0.9687;1.1872;
277.8000;0.9703;1.1965;
278.1000;0.9695;1.1965;
278.4000;0.9719;1.1965;
278.7000;0.9711;1.1895;
279.0000;0.9752;1.2035;
279.3000;0.9703;1.1848;
279.6000;0.9695;1.1872;
279.9000;0.9703;1.1848;
280.2000;0.9735;1.2035;
280.5000;0.9695;1.1872;
280.8000;0.9703;1.1942;
281.1000;0.9711;1.2012;
281.4000;0.9735;1.2105;
281.7000;0.9711;1.2175;
282.0000;0.9703;1.2245;
282.3000;0.9744;1.2268;
282.6000;0.9711;1.2035;
282.9000;0.9662;1.1848;
283.2000;0.9727;1.1965;
283.5000;0.9687;1.1825;
283.8000;0.9752;1.1965;
284.1000;0.9711;1.1872;
284.4000;0.9711;1.1872;
284.7000;0.9678;1.1755;
285.0000;0.9719;1.1825;
285.3000;0.9760;1.1942;
285.6000;0.9719;1.1872;
285.9000;0.9687;1.1802;
286.2000;0.9703;1.1872;
286.5000;0.9711;1.1965;
286.8000;0.9695;1.1965;
287.1000;0.9711;1.2035;
287.4000;0.9703;1.2082;
287.7000;0.9703;1.2058;
288.0000;0.9695;1.2012;
288.3000;0.9719;1.1988;
288.6000;0.9719;1.2058;
288.9000;0.9719;1.2082;
289.2000;0.9654;1.2035;
289.5000;0.9735;1.2245;
289.8000;0.9695;1.2035;
290.1000;0.9703;1.2058;
290.4000;0.9711;1.1988;
290.7000;0.9695;1.2082;
291.0000;0.9711;1.2058;
291.3000;0.9711;1.2035;
291.6000;0.9662;1.2012;
291.9000;0.9719;1.2012;
292.2000;0.9711;1.2012;
292.5000;0.9711;1.2012;
292.8000;0.9719;1.2082;
293.1000;0.9687;1.2058;
293.4000;0.9695;1.2082;
293.7000;0.9719;1.2035;
294.0000;0.9687;1.1988;
294.3000;0.9703;1.1918;
294.6000;0.9719;1.1918;
294.9000;0.9711;1.1895;
295.2000;0.9703;1.1848;
295.5000;0.9727;1.1848;
295.8000;0.9654;1.1755;
296.1000;0.9703;1.1895;
296.4000;0.9711;1.1872;
296.7000;0.9703;1.1942;
297.0000;0.9825;1.2315;
297.3000;0.9703;1.2012;
297.6000;0.9687;1.1872;
297.9000;0.9735;1.1895;
298.2000;0.9670;1.1755;
298.5000;0.9703;1.1942;
298.8000;0.9654;1.1942;
299.1000;0.9727;1.2152;
299.4000;0.9703;1.2105;
299.7000;0.9695;1.2082;
300.0000;0.9817;1.2408;
300.3000;0.9695;1.2152;
300.6000;0.9703;1.2292;
300.9000;0.9678;1.2245;
301.2000;0.9735;1.2362;
301.5000;0.9695;1.2222;
301.8000;0.9687;1.2128;
302.1000;0.9662;1.1872;
302.4000;0.9695;1.2035;
302.7000;0.9719;1.2082;
303.0000;0.9711;1.2152;
303.3000;0.9760;1.2315;
303.6000;0.9695;1.2152;
303.9000;0.9687;1.2035;
304.2000;0.9678;1.2012;
304.5000;0.9703;1.2035;
304.8000;0.9678;1.2012;
305.1000;0.9711;1.1988;
305.4000;0.9735;1.2105;
305.7000;0.9687;1.2012;
306.0000;0.9776;1.2338;
306.3000;0.9678;1.2128;
306.6000;0.9687;1.1942;
306.9000;0.9703;1.2035;
307.2000;0.9711;1.2082;
307.5000;0.9695;1.2058;
307.8000;0.9646;1.1942;
308.1000;0.9711;1.2082;
308.4000;0.9711;1.1988;
308.7000;0.9703;1.1965;
309.0000;0.9687;1.1848;
309.3000;0.9711;1.1872;
309.6000;0.9703;1.1848;
309.9000;0.9719;1.1965;
310.2000;0.9695;1.1942;
310.5000;0.9703;1.1895;
310.8000;0.9695;1.1895;
311.1000;0.9695;1.1942;
311.4000;0.9711;1.2012;
311.7000;0.9703;1.2035;
312.0000;0.9703;1.2058;
312.3000;0.9711;1.2012;
312.6000;0.9703;1.1965;
312.9000;0.9695;1.2012;
313.2000;0.9711;1.2058;
313.5000;0.9711;1.2175;
313.8000;0.9695;1.2105;
314.1000;0.9703;1.2152;
314.4000;0.9711;1.2152;
314.7000;0.9678;1.2082;
315.0000;0.9703;1.2175;
315.3000;0.9670;1.1988;
315.6000;0.9687;1.1988;
315.9000;0.9711;1.2082;
316.2000;0.9711;1.2058;
316.5000;0.9670;1.1895;
316.8000;0.9703;1.1918;
317.1000;0.9703;1.1965;
317.4000;0.9670;1.1848;
317.7000;0.9703;1.1895;
318.0000;0.9687;1.1802;
318.3000;0.9719;1.1825;
318.6000;0.9719;1.1802;
318.9000;0.9703;1.1778;
319.2000;0.9711;1.1778;
319.5000;0.9678;1.1755;
319.8000;0.9703;1.1802;
320.1000;0.9703;1.1895;
320.4000;0.9662;1.1872;
320.7000;0.9703;1.2012;
321.0000;0.9670;1.1918;
321.3000;0.9687;1.1918;
321.6000;0.9687;1.1848;
321.9000;0.9735;1.1988;
322.2000;0.9703;1.1942;
322.5000;0.9703;1.1918;
322.8000;0.9662;1.1872;
323.1000;0.9711;1.2012;
323.4000;0.9727;1.2058;
323.7000;0.9833;1.2198;
324.0000;0.9711;1.1895;
324.3000;0.9678;1.1825;
324.6000;0.9719;1.2012;
324.9000;0.9703;1.1988;
325.2000;0.9695;1.1988;
325.5000;0.9711;1.2012;
325.8000;0.9711;1.2058;
326.1000;0.9735;1.2128;
326.4000;0.9670;1.1942;
326.7000;0.9695;1.2082;
327.0000;0.9703;1.2105;
327.3000;0.9711;1.2012;
327.6000;0.9695;1.2012;
327.9000;0.9687;1.1988;
328.2000;0.9703;1.1988;
328.5000;0.9695;1.1942;
328.8000;0.9670;1.1848;
329.1000;0.9695;1.1895;
329.4000;0.9703;1.1872;
329.7000;0.9703;1.1848;
330.0000;0.9711;1.1918;
330.3000;0.9670;1.1825;
330.6000;0.9654;1.1825;
330.9000;0.9687;1.1895;
331.2000;0.9703;1.1942;
331.5000;0.9646;1.1802;
331.8000;0.9687;1.1918;
332.1000;0.9695;1.2035;
332.4000;0.9687;1.2198;
332.7000;0.9678;1.2152;
333.0000;0.9695;1.2035;
333.3000;0.9687;1.2082;
333.6000;0.9670;1.2012;
333.9000;0.9687;1.2058;
334.2000;0.9711;1.2012;
334.5000;0.9695;1.1895;
334.8000;0.9703;1.1942;
335.1000;0.9711;1.1918;
335.4000;0.9695;1.1872;
335.7000;0.9711;1.1918;
336.0000;0.9711;1.1872;
336.3000;0.9727;1.1825;
336.6000;0.9646;1.1708;
336.9000;0.9703;1.1895;
337.2000;0.9695;1.1895;
337.5000;0.9695;1.1895;
337.8000;0.9703;1.1942;
338.1000;0.9687;1.1918;
338.4000;0.9695;1.1848;
338.7000;0.9711;1.1918;
339.0000;0.9695;1.1848;
339.3000;0.9711;1.1965;
339.6000;0.9711;1.1965;
339.9000;0.9703;1.1802;
340.2000;0.9711;1.1872;
340.5000;0.9711;1.1872;
340.8000;0.9711;1.1942;
341.1000;0.9695;1.1942;
341.4000;0.9711;1.1942;
341.7000;0.9687;1.1895;
342.0000;0.9670;1.1825;
342.3000;0.9695;1.1918;
342.6000;0.9687;1.1942;
342.9000;0.9687;1.1895;
343.2000;0.9687;1.1895;
343.5000;0.9703;1.1918;
343.8000;0.9654;1.1825;
344.1000;0.9695;1.1848;
344.4000;0.9695;1.1942;
344.7000;0.9695;1.1988;
345.0000;0.9621;1.1802;
345.3000;0.9735;1.2035;
345.6000;0.9719;1.1965;
345.9000;0.9703;1.1872;
346.2000;0.9719;1.1872;
346.5000;0.9703;1.1895;
346.8000;0.9727;1.1918;
347.1000;0.9687;1.1988;
347.4000;0.9687;1.2012;
347.7000;0.9687;1.1988;
348.0000;0.9687;1.1988;
348.3000;0.9687;1.2035;
348.6000;0.9687;1.1988;
348.9000;0.9703;1.2012;
349.2000;0.9703;1.2105;
349.5000;0.9744;1.2292;
349.8000;0.9621;1.2035;
350.1000;0.9695;1.2152;
350.4000;0.9695;1.2105;
350.7000;0.9703;1.2035;
351.0000;0.9695;1.2012;
351.3000;0.9662;1.1918;
351.6000;0.9711;1.2035;
351.9000;0.9695;1.2035;
352.2000;0.9687;1.2035;
352.5000;0.9678;1.1918;
352.8000;0.9687;1.1942;
353.1000;0.9695;1.1942;
353.4000;0.9703;1.2082;
353.7000;0.9678;1.2012;
354.0000;0.9678;1.1965;
354.3000;0.9695;1.1895;
354.6000;0.9695;1.2058;
354.9000;0.9695;1.2082;
355.2000;0.9703;1.2245;
355.5000;0.9711;1.2338;
355.8000;0.9695;1.2222;
356.1000;0.9695;1.2245;
356.4000;0.9687;1.2222;
356.7000;0.9703;1.2198;
357.0000;0.9703;1.2105;
357.3000;0.9695;1.2128;
357.6000;0.9744;1.2198;
357.9000;0.9695;1.2082;
358.2000;0.9719;1.2058;
358.5000;0.9695;1.1942;
358.8000;0.9695;1.1942;
359.1000;0.9687;1.2105;
359.4000;0.9695;1.2152;
359.7000;0.9760;1.2315;
360.0000;0.9695;1.2058;
360.3000;0.9703;1.2035;
360.6000;0.9703;1.2058;
360.9000;0.9695;1.2058;
361.2000;0.9695;1.2012;
361.5000;0.9638;1.1848;
361.8000;0.9695;1.1918;
362.1000;0.9678;1.1872;
362.4000;0.9687;1.1872;
362.7000;0.9638;1.1802;
363.0000;0.9695;1.1872;
363.3000;0.9687;1.1825;
363.6000;0.9695;1.1872;
363.9000;0.9695;1.1895;
364.2000;0.9695;1.1872;
364.5000;0.9687;1.1802;
364.8000;0.9678;1.1802;
365.1000;0.9695;1.1802;
365.4000;0.9654;1.1802;
365.7000;0.9670;1.1918;
366.0000;0.9695;1.1988;
366.3000;0.9687;1.1965;
366.6000;0.9638;1.1872;
366.9000;0.9695;1.2012;
367.2000;0.9711;1.2012;
367.5000;0.9703;1.2012;
367.8000;0.9687;1.2012;
368.1000;0.9695;1.1965;
368.4000;0.9703;1.1942;
368.7000;0.9695;1.1942;
369.0000;0.9695;1.2082;
369.3000;0.9703;1.2152;
369.6000;0.9678;1.2128;
369.9000;0.9687;1.2222;
370.2000;0.9687;1.2198;
370.5000;0.9621;1.1988;
370.8000;0.9670;1.2058;
371.1000;0.9687;1.2082;
371.4000;0.9703;1.2152;
371.7000;0.9687;1.2058;
372.0000;0.9670;1.1918;
372.3000;0.9760;1.2128;
372.6000;0.9678;1.2058;
372.9000;0.9687;1.1988;
373.2000;0.9711;1.2035;
373.5000;0.9703;1.1918;
373.8000;0.9613;1.1848;
374.1000;0.9695;1.1988;
374.4000;0.9670;1.1942;
374.7000;0.9695;1.1942;
375.0000;0.9703;1.1918;
375.3000;0.9687;1.1895;
375.6000;0.9784;1.2058;
375.9000;0.9703;1.1942;
376.2000;0.9703;1.2035;
376.5000;0.9695;1.1988;
376.8000;0.9703;1.1988;
377.1000;0.9687;1.1965;
377.4000;0.9678;1.1965;
377.7000;0.9687;1.2035;
378.0000;0.9670;1.2082;
378.3000;0.9678;1.2152;
378.6000;0.9695;1.2082;
378.9000;0.9687;1.2012;
379.2000;0.9695;1.1942;
379.5000;0.9695;1.1988;
379.8000;0.9703;1.2082;
380.1000;0.9711;1.2035;
380.4000;0.9678;1.1918;
380.7000;0.9727;1.2012;
381.0000;0.9711;1.1942;
381.3000;0.9703;1.1988;
381.6000;0.9687;1.1988;
381.9000;0.9703;1.2058;
382.2000;0.9695;1.2058;
382.5000;0.9711;1.2058;
382.8000;0.9695;1.2082;
383.1000;0.9703;1.2035;
383.4000;0.9695;1.1872;
383.7000;0.9744;1.1942;
384.0000;0.9687;1.1755;
384.3000;0.9711;1.1778;
384.6000;0.9719;1.1848;
384.9000;0.9654;1.1708;
385.2000;0.9703;1.1825;
385.5000;0.9695;1.1825;
385.8000;0.9678;1.1872;
386.1000;0.9703;1.1848;
386.4000;0.9711;1.1848;
386.7000;0.9662;1.1662;
387.0000;0.9703;1.1685;
387.3000;0.9695;1.1662;
387.6000;0.9703;1.1685;
387.9000;0.9695;1.1778;
388.2000;0.9687;1.1778;
388.5000;0.9678;1.1825;
388.8000;0.9703;1.1872;
389.1000;0.9711;1.1825;
389.4000;0.9678;1.1732;
389.7000;0.9670;1.1755;
390.0000;0.9703;1.1778;
390.3000;0.9678;1.1755;
390.6000;0.9638;1.1615;
390.9000;0.9687;1.1662;
391.2000;0.9695;1.1592;
391.5000;0.9695;1.1545;
391.8000;0.9695;1.1615;
392.1000;0.9662;1.1545;
392.4000;0.9695;1.1778;
392.7000;0.9695;1.1825;
393.0000;0.9703;1.1755;
393.3000;0.9678;1.1802;
393.6000;0.9695;1.1848;
393.9000;0.9703;1.1825;
394.2000;0.9678;1.1778;
394.5000;0.9695;1.1895;
394.8000;0.9776;1.2012;
395.1000;0.9687;1.1802;
395.4000;0.9752;1.1942;
395.7000;0.9703;1.1755;
396.0000;0.9670;1.1708;
396.3000;0.9695;1.1755;
396.6000;0.9711;1.1942;
396.9000;0.9711;1.1965;
397.2000;0.9695;1.1872;
397.5000;0.9621;1.1708;
397.8000;0.9638;1.1825;
398.1000;0.9703;1.2035;
398.4000;0.9687;1.1895;
398.7000;0.9703;1.1942;
399.0000;0.9678;1.1918;
399.3000;0.9711;1.1872;
399.6000;0.9711;1.1872;
399.9000;0.9695;1.1895;
400.2000;0.9752;1.2058;
400.5000;0.9735;1.2058;
400.8000;0.9662;1.1965;
401.1000;0.9695;1.1988;
401.4000;0.9678;1.1988;
401.7000;0.9735;1.2082;
402.0000;0.9687;1.2035;
402.3000;0.9711;1.2105;
402.6000;0.9695;1.2058;
402.9000;0.9719;1.2128;
403.2000;0.9727;1.2105;
403.5000;0.9727;1.2058;
403.8000;0.9703;1.2012;
404.1000;0.9711;1.2058;
404.4000;0.9711;1.2012;
404.7000;0.9695;1.1965;
405.0000;0.9695;1.1918;
405.3000;0.9711;1.1895;
405.6000;0.9768;1.2035;
405.9000;0.9687;1.1872;
406.2000;0.9687;1.1825;
406.5000;0.9687;1.1895;
406.8000;0.9695;1.1895;
407.1000;0.9703;1.1918;
407.4000;0.9646;1.1848;
407.7000;0.9678;1.1848;
408.0000;0.9695;1.1918;
408.3000;0.9703;1.1965;
408.6000;0.9711;1.2035;
408.9000;0.9703;1.2058;
409.2000;0.9727;1.2012;
409.5000;0.9687;1.1988;
409.8000;0.9687;1.1942;
410.1000;0.9695;1.1918;
410.4000;0.9678;1.1895;
410.7000;0.9735;1.2012;
411.0000;0.9695;1.2058;
411.3000;0.9678;1.2082;
411.6000;0.9711;1.2152;
411.9000;0.9695;1.2035;
412.2000;0.9695;1.2058;
412.5000;0.9678;1.2058;
412.8000;0.9662;1.2082;
413.1000;0.9687;1.2058;
413.4000;0.9695;1.2105;
413.7000;0.9678;1.2082;
414.0000;0.9678;1.2105;
414.3000;0.9703;1.2082;
414.6000;0.9630;1.1988;
414.9000;0.9703;1.2175;
415.2000;0.9670;1.2105;
415.5000;0.9687;1.2058;
415.8000;0.9695;1.2058;
416.1000;0.9646;1.1988;
416.4000;0.9687;1.1965;
416.7000;0.9630;1.1778;
417.0000;0.9695;1.1918;
417.3000;0.9678;1.1942;
417.6000;0.9695;1.1872;
417.9000;0.9670;1.1872;
418.2000;0.9678;1.1848;
418.5000;0.9695;1.1965;
418.8000;0.9711;1.2082;
419.1000;0.9776;1.2105;
419.4000;0.9695;1.2035;
419.7000;0.9695;1.2035;
420.0000;0.9687;1.2058;
420.3000;0.9727;1.2152;
420.6000;0.9695;1.2082;
420.9000;0.9695;1.2152;
421.2000;0.9727;1.2245;
421.5000;0.9678;1.2128;
421.8000;0.9678;1.2058;
422.1000;0.9670;1.2058;
422.4000;0.9678;1.2082;
422.7000;0.9678;1.2082;
423.0000;0.9662;1.2105;
423.3000;0.9670;1.2105;
423.6000;0.9687;1.2175;
423.9000;0.9621;1.1942;
424.2000;0.9687;1.1965;
424.5000;0.9703;1.1965;
424.8000;0.9670;1.1872;
425.1000;0.9678;1.1965;
425.4000;0.9678;1.2012;
425.7000;0.9678;1.1965;
426.0000;0.9670;1.1942;
426.3000;0.9687;1.1895;
426.6000;0.9760;1.2082;
426.9000;0.9687;1.1942;
427.2000;0.9703;1.1942;
427.5000;0.9687;1.1895;
427.8000;0.9703;1.1872;
428.1000;0.9695;1.1872;
428.4000;0.9703;1.1848;
428.7000;0.9695;1.1895;
429.0000;0.9703;1.1872;
429.3000;0.9678;1.1778;
429.6000;0.9687;1.1778;
429.9000;0.9695;1.1778;
430.2000;0.9703;1.1802;
430.5000;0.9630;1.1708;
430.8000;0.9719;1.1965;
431.1000;0.9695;1.1942;
431.4000;0.9719;1.2012;
431.7000;0.9719;1.2035;
432.0000;0.9687;1.1918;
432.3000;0.9695;1.1918;
432.6000;0.9703;1.1988;
432.9000;0.9711;1.1965;
433.2000;0.9670;1.1872;
433.5000;0.9687;1.1988;
433.8000;0.9687;1.2058;
434.1000;0.9687;1.2058;
434.4000;0.9711;1.2128;
434.7000;0.9703;1.2175;
435.0000;0.9703;1.2128;
435.3000;0.9727;1.2105;
435.6000;0.9711;1.2175;
435.9000;0.9695;1.2175;
436.2000;0.9670;1.2198;
436.5000;0.9695;1.2222;
436.8000;0.9654;1.2105;
437.1000;0.9687;1.2082;
437.4000;0.9695;1.2175;
437.7000;0.9621;1.2012;
438.0000;0.9687;1.2105;
438.3000;0.9695;1.2152;
438.6000;0.9695;1.2222;
438.9000;0.9711;1.2338;
439.2000;0.9703;1.2292;
439.5000;0.9695;1.2198;
439.8000;0.9776;1.2222;
440.1000;0.9703;1.2152;
440.4000;0.9695;1.2175;
440.7000;0.9687;1.2152;
441.0000;0.9687;1.2175;
441.3000;0.9670;1.2082;
441.6000;0.9687;1.2175;
441.9000;0.9703;1.2175;
442.2000;0.9678;1.2128;
442.5000;0.9678;1.2152;
442.8000;0.9687;1.2152;
443.1000;0.9687;1.2128;
443.4000;0.9687;1.2175;
443.7000;0.9695;1.2058;
444.0000;0.9703;1.2035;
444.3000;0.9703;1.2082;
444.6000;0.9695;1.2128;
444.9000;0.9711;1.2105;
445.2000;0.9727;1.2198;
445.5000;0.9670;1.2035;
445.8000;0.9727;1.2245;
446.1000;0.9687;1.2152;
446.4000;0.9695;1.2175;
446.7000;0.9711;1.2175;
447.0000;0.9687;1.2105;
447.3000;0.9687;1.2058;
447.6000;0.9646;1.2035;
447.9000;0.9670;1.2175;
448.2000;0.9687;1.2222;
448.5000;0.9687;1.2222;
448.8000;0.9678;1.2222;
449.1000;0.9695;1.2245;
449.4000;0.9792;1.2455;
449.7000;0.9678;1.2292;
450.0000;0.9678;1.2222;
450.3000;0.9662;1.2128;
450.6000;0.9670;1.2082;
450.9000;0.9703;1.2222;
451.2000;0.9654;1.2058;
451.5000;0.9654;1.1942;
451.8000;0.9687;1.2012;
452.1000;0.9678;1.2012;
452.4000;0.9670;1.2058;
452.7000;0.9752;1.2175;
453.0000;0.9687;1.2058;
453.3000;0.9687;1.2082;
453.6000;0.9695;1.2128;
453.9000;0.9703;1.2128;
454.2000;0.9711;1.2152;
454.5000;0.9719;1.2268;
454.8000;0.9703;1.2152;
455.1000;0.9703;1.2128;
455.4000;0.9695;1.2198;
455.7000;0.9613;1.2012;
456.0000;0.9678;1.2152;
456.3000;0.9719;1.2198;
456.6000;0.9792;1.2478;
456.9000;0.9695;1.2105;
457.2000;0.9695;1.2058;
457.5000;0.9719;1.2012;
457.8000;0.9801;1.2268;
458.1000;0.9695;1.1988;
458.4000;0.9654;1.1965;
458.7000;0.9703;1.2105;
459.0000;0.9687;1.2175;
459.3000;0.9752;1.2338;
459.6000;0.9687;1.2175;
459.9000;0.9670;1.2105;
460.2000;0.9678;1.2105;
460.5000;0.9703;1.2128;
460.8000;0.9687;1.2175;
461.1000;0.9687;1.2175;
461.4000;0.9695;1.2222;
461.7000;0.9678;1.2152;
462.0000;0.9703;1.2152;
462.3000;0.9687;1.2082;
462.6000;0.9670;1.1988;
462.9000;0.9703;1.2012;
463.2000;0.9695;1.2058;
463.5000;0.9646;1.1918;
463.8000;0.9662;1.2012;
464.1000;0.9678;1.1965;
464.4000;0.9654;1.2012;
464.7000;0.9711;1.2198;
465.0000;0.9695;1.2105;
465.3000;0.9752;1.2245;
465.6000;0.9703;1.2222;
465.9000;0.9695;1.2105;
466.2000;0.9703;1.2152;
466.5000;0.9687;1.2082;
466.8000;0.9695;1.2082;
467.1000;0.9695;1.2105;
467.4000;0.9703;1.2128;
467.7000;0.9695;1.2105;
468.0000;0.9687;1.2105;
468.3000;0.9687;1.2035;
468.6000;0.9695;1.2035;
468.9000;0.9735;1.2152;
469.2000;0.9678;1.2035;
469.5000;0.9695;1.2035;
469.8000;0.9695;1.1988;
470.1000;0.9670;1.1988;
470.4000;0.9687;1.2035;
470.7000;0.9687;1.2035;
471.0000;0.9678;1.2058;
471.3000;0.9687;1.2035;
471.6000;0.9654;1.1942;
471.9000;0.9687;1.1988;
472.2000;0.9678;1.2058;
472.5000;0.9768;1.2338;
472.8000;0.9695;1.2082;
473.1000;0.9687;1.2012;
473.4000;0.9678;1.1965;
473.7000;0.9695;1.1965;
474.0000;0.9687;1.1918;
474.3000;0.9678;1.1942;
474.6000;0.9678;1.1965;
474.9000;0.9703;1.2035;
475.2000;0.9678;1.2035;
475.5000;0.9678;1.2058;
475.8000;0.9711;1.2082;
476.1000;0.9678;1.2012;
476.4000;0.9662;1.1942;
476.7000;0.9711;1.2035;
477.0000;0.9670;1.1895;
477.3000;0.9695;1.1918;
477.6000;0.9695;1.1872;
477.9000;0.9687;1.1848;
478.2000;0.9687;1.1895;
478.5000;0.9662;1.1988;
478.8000;0.9703;1.2105;
479.1000;0.9670;1.2058;
479.4000;0.9703;1.2082;
479.7000;0.9662;1.1942;
480.0000;0.9687;1.1942;
480.3000;0.9695;1.1965;
480.6000;0.9678;1.2035;
480.9000;0.9727;1.2245;
481.2000;0.9695;1.2105;
481.5000;0.9719;1.2105;
481.8000;0.9695;1.2035;
482.1000;0.9687;1.1988;
482.4000;0.9703;1.2012;
482.7000;0.9687;1.1988;
483.0000;0.9695;1.1942;
483.3000;0.9760;1.2175;
483.6000;0.9719;1.2128;
483.9000;0.9687;1.2175;
484.2000;0.9678;1.2198;
484.5000;0.9662;1.2175;
484.8000;0.9695;1.2245;
485.1000;0.9711;1.2175;
485.4000;0.9687;1.2128;
485.7000;0.9687;1.2058;
486.0000;0.9703;1.2128;
486.3000;0.9752;1.2338;
486.6000;0.9703;1.2198;
486.9000;0.9678;1.2105;
487.2000;0.9630;1.1965;
487.5000;0.9711;1.2152;
487.8000;0.9695;1.2082;
488.1000;0.9695;1.2058;
488.4000;0.9638;1.2035;
488.7000;0.9678;1.2245;
489.0000;0.9703;1.2245;
489.3000;0.9613;1.2128;
489.6000;0.9670;1.2338;
489.9000;0.9670;1.2315;
490.2000;0.9630;1.2222;
490.5000;0.9678;1.2501;
490.8000;0.9687;1.2408;
491.1000;0.9760;1.2571;
491.4000;0.9670;1.2362;
491.7000;0.9687;1.2362;
492.0000;0.9695;1.2385;
492.3000;0.9678;1.2315;
492.6000;0.9711;1.2338;
492.9000;0.9687;1.2362;
493.2000;0.9654;1.2268;
493.5000;0.9687;1.2385;
493.8000;0.9654;1.2292;
494.1000;0.9687;1.2338;
494.4000;0.9687;1.2362;
494.7000;0.9687;1.2362;
495.0000;0.9670;1.2408;
495.3000;0.9695;1.2408;
495.6000;0.9695;1.2408;
495.9000;0.9662;1.2175;
496.2000;0.9687;1.2198;
496.5000;0.9589;1.1965;
496.8000;0.9687;1.2152;
497.1000;0.9695;1.2082;
497.4000;0.9752;1.2175;
497.7000;0.9654;1.2058;
498.0000;0.9695;1.2222;
498.3000;0.9703;1.2268;
498.6000;0.9695;1.2198;
498.9000;0.9687;1.2128;
499.2000;0.9687;1.2198;
499.5000;0.9687;1.2222;
499.8000;0.9678;1.2152;
500.1000;0.9695;1.2222;
500.4000;0.9687;1.2245;
500.7000;0.9687;1.2198;
501.0000;0.9670;1.2245;
501.3000;0.9687;1.2245;
501.6000;0.9687;1.2268;
501.9000;0.9687;1.2268;
502.2000;0.9760;1.2478;
502.5000;0.9678;1.2362;
502.8000;0.9695;1.2385;
503.1000;0.9687;1.2268;
503.4000;0.9695;1.2198;
503.7000;0.9678;1.2245;
504.0000;0.9687;1.2245;
504.3000;0.9662;1.2245;
504.6000;0.9687;1.2268;
504.9000;0.9678;1.2198;
505.2000;0.9678;1.2105;
505.5000;0.9678;1.2082;
505.8000;0.9727;1.2222;
506.1000;0.9687;1.2198;
506.4000;0.9711;1.2175;
506.7000;0.9703;1.2128;
507.0000;0.9703;1.2128;
507.3000;0.9776;1.2315;
507.6000;0.9678;1.2035;
507.9000;0.9703;1.2058;
508.2000;0.9638;1.1872;
508.5000;0.9711;1.1965;
508.8000;0.9695;1.2012;
509.1000;0.9687;1.2012;
509.4000;0.9687;1.2058;
509.7000;0.9687;1.2082;
510.0000;0.9670;1.2058;
510.3000;0.9687;1.2082;
510.6000;0.9687;1.2105;
510.9000;0.9678;1.2105;
511.2000;0.9670;1.2082;
511.5000;0.9687;1.2128;
511.8000;0.9711;1.2152;
512.1000;0.9703;1.2152;
512.4000;0.9654;1.2082;
512.7000;0.9687;1.2222;
513.0000;0.9662;1.2292;
513.3000;0.9687;1.2385;
513.6000;0.9711;1.2362;
513.9000;0.9735;1.2315;
514.2000;0.9792;1.2478;
514.5000;0.9703;1.2245;
514.8000;0.9687;1.2152;
515.1000;0.9638;1.2035;
515.4000;0.9670;1.2105;
515.7000;0.9678;1.2105;
516.0000;0.9646;1.1965;
516.3000;0.9597;1.1802;
516.6000;0.9662;1.1942;
516.9000;0.9678;1.1965;
517.2000;0.9687;1.2058;
517.5000;0.9670;1.2105;
517.8000;0.9654;1.2105;
518.1000;0.9678;1.2198;
518.4000;0.9687;1.2175;
518.7000;0.9678;1.2105;
519.0000;0.9678;1.2152;
519.3000;0.9695;1.2175;
519.6000;0.9662;1.2105;
519.9000;0.9687;1.2175;
520.2000;0.9703;1.2268;
520.5000;0.9565;1.1988;
520.8000;0.9687;1.2338;
521.1000;0.9687;1.2292;
521.4000;0.9678;1.2245;
521.7000;0.9687;1.2245;
522.0000;0.9687;1.2268;
522.3000;0.9695;1.2315;
522.6000;0.9695;1.2175;
522.9000;0.9695;1.2245;
523.2000;0.9695;1.2245;
523.5000;0.9687;1.2128;
523.8000;0.9744;1.2175;
524.1000;0.9678;1.2128;
524.4000;0.9678;1.2082;
524.7000;0.9735;1.2198;
525.0000;0.9695;1.2152;
525.3000;0.9695;1.2175;
525.6000;0.9695;1.2058;
525.9000;0.9703;1.2012;
526.2000;0.9678;1.1942;
526.5000;0.9687;1.2058;
526.8000;0.9670;1.1988;
527.1000;0.9678;1.2105;
527.4000;0.9695;1.2245;
527.7000;0.9792;1.2571;
528.0000;0.9678;1.2315;
528.3000;0.9687;1.2432;
528.6000;0.9662;1.2385;
528.9000;0.9687;1.2455;
529.2000;0.9654;1.2385;
529.5000;0.9670;1.2385;
529.8000;0.9687;1.2292;
530.1000;0.9678;1.2245;
530.4000;0.9662;1.2292;
530.7000;0.9670;1.2385;
531.0000;0.9687;1.2315;
531.3000;0.9703;1.2338;
531.6000;0.9727;1.2152;
531.9000;0.9678;1.2082;
532.2000;0.9711;1.2245;
532.5000;0.9752;1.2292;
532.8000;0.9760;1.2315;
533.1000;0.9687;1.2128;
533.4000;0.9662;1.1965;
533.7000;0.9695;1.2082;
534.0000;0.9695;1.2105;
534.3000;0.9703;1.2175;
534.6000;0.9735;1.2292;
534.9000;0.9695;1.2292;
535.2000;0.9703;1.2315;
535.5000;0.9744;1.2408;
535.8000;0.9613;1.2105;
536.1000;0.9678;1.2152;
536.4000;0.9695;1.2128;
536.7000;0.9687;1.2105;
537.0000;0.9670;1.2105;
537.3000;0.9646;1.2035;
537.6000;0.9646;1.1965;
537.9000;0.9703;1.2058;
538.2000;0.9654;1.1965;
538.5000;0.9638;1.1965;
538.8000;0.9719;1.2198;
539.1000;0.9695;1.2152;
539.4000;0.9695;1.2268;
539.7000;0.9695;1.2315;
540.0000;0.9678;1.2245;
540.3000;0.9662;1.2315;
540.6000;0.9678;1.2315;
540.9000;0.9662;1.2175;
541.2000;0.9678;1.2128;
541.5000;0.9662;1.2128;
541.8000;0.9670;1.2105;
542.1000;0.9654;1.2082;
542.4000;0.9687;1.2198;
542.7000;0.9678;1.2222;
543.0000;0.9654;1.2128;
543.3000;0.9687;1.2198;
543.6000;0.9678;1.2245;
543.9000;0.9687;1.2245;
544.2000;0.9687;1.2268;
544.5000;0.9678;1.2198;
544.8000;0.9662;1.2128;
545.1000;0.9687;1.2128;
545.4000;0.9687;1.2105;
545.7000;0.9670;1.2012;
546.0000;0.9670;1.2128;
546.3000;0.9687;1.2152;
546.6000;0.9687;1.2175;
546.9000;0.9678;1.2152;
547.2000;0.9695;1.2152;
547.5000;0.9670;1.2105;
547.8000;0.9687;1.2012;
548.1000;0.9687;1.2082;
548.4000;0.9687;1.2082;
548.7000;0.9687;1.2105;
549.0000;0.9687;1.2082;
549.3000;0.9678;1.2082;
549.6000;0.9695;1.2105;
549.9000;0.9678;1.2128;
550.2000;0.9646;1.2035;
550.5000;0.9662;1.2012;
550.8000;0.9703;1.2058;
551.1000;0.9662;1.1965;
551.4000;0.9678;1.2058;
551.7000;0.9654;1.2012;
552.0000;0.9703;1.2105;
552.3000;0.9670;1.2012;
552.6000;0.9687;1.2058;
552.9000;0.9678;1.2198;
553.2000;0.9678;1.2268;
553.5000;0.9646;1.2198;
553.8000;0.9678;1.2222;
554.1000;0.9687;1.2128;
554.4000;0.9621;1.2035;
554.7000;0.9654;1.2198;
555.0000;0.9670;1.2152;
555.3000;0.9621;1.1895;
555.6000;0.9678;1.1942;
555.9000;0.9670;1.1918;
556.2000;0.9621;1.1825;
556.5000;0.9662;1.1872;
556.8000;0.9687;1.1825;
557.1000;0.9687;1.1918;
557.4000;0.9670;1.1965;
557.7000;0.9695;1.2082;
558.0000;0.9687;1.2082;
558.3000;0.9744;1.2268;
558.6000;0.9687;1.2128;
558.9000;0.9662;1.2012;
559.2000;0.9670;1.2105;
559.5000;0.9678;1.2105;
559.8000;0.9687;1.2035;
560.1000;0.9687;1.2058;
560.4000;0.9703;1.2105;
560.7000;0.9662;1.2082;
561.0000;0.9670;1.2082;
561.3000;0.9687;1.2082;
561.6000;0.9662;1.2152;
561.9000;0.9687;1.2175;
562.2000;0.9678;1.2152;
562.5000;0.9654;1.2105;
562.8000;0.9662;1.2152;
563.1000;0.9678;1.2175;
563.4000;0.9670;1.2175;
563.7000;0.9695;1.2222;
564.0000;0.9670;1.2175;
564.3000;0.9670;1.2222;
564.6000;0.9662;1.2128;
564.9000;0.9662;1.2105;
565.2000;0.9678;1.2105;
565.5000;0.9687;1.2222;
565.8000;0.9711;1.2222;
566.1000;0.9678;1.2175;
566.4000;0.9662;1.2268;
566.7000;0.9678;1.2292;
567.0000;0.9687;1.2128;
567.3000;0.9670;1.2082;
567.6000;0.9662;1.1988;
567.9000;0.9687;1.2175;
568.2000;0.9678;1.2222;
568.5000;0.9670;1.2175;
568.8000;0.9670;1.2152;
569.1000;0.9678;1.2245;
569.4000;0.9662;1.2198;
569.7000;0.9687;1.2245;
570.0000;0.9662;1.2128;
570.3000;0.9678;1.2082;
570.6000;0.9687;1.2082;
570.9000;0.9687;1.2082;
571.2000;0.9687;1.2128;
571.5000;0.9687;1.2222;
571.8000;0.9678;1.2152;
572.1000;0.9670;1.2105;
572.4000;0.9695;1.2175;
572.7000;0.9687;1.2128;
573.0000;0.9662;1.2035;
573.3000;0.9695;1.2082;
573.6000;0.9670;1.2058;
573.9000;0.9613;1.1988;
574.2000;0.9678;1.2082;
574.5000;0.9630;1.2012;
574.8000;0.9654;1.2152;
575.1000;0.9711;1.2268;
575.4000;0.9678;1.2128;
575.7000;0.9678;1.2105;
576.0000;0.9695;1.2175;
576.3000;0.9687;1.2152;
576.6000;0.9678;1.2222;
576.9000;0.9711;1.2292;
577.2000;0.9678;1.2292;
577.5000;0.9678;1.2292;
577.8000;0.9605;1.1942;
578.1000;0.9678;1.2082;
578.4000;0.9662;1.2035;
578.7000;0.9687;1.2012;
579.0000;0.9662;1.1965;
579.3000;0.9662;1.1918;
579.6000;0.9670;1.1988;
579.9000;0.9670;1.2058;
580.2000;0.9678;1.2082;
580.5000;0.9605;1.1825;
580.8000;0.9678;1.2012;
581.1000;0.9752;1.2175;
581.4000;0.9687;1.1988;
581.7000;0.9695;1.2012;
582.0000;0.9670;1.1872;
582.3000;0.9687;1.1918;
582.6000;0.9687;1.2058;
582.9000;0.9678;1.1965;
583.2000;0.9678;1.1918;
583.5000;0.9678;1.1872;
583.8000;0.9670;1.1918;
584.1000;0.9662;1.1942;
584.4000;0.9678;1.1825;
584.7000;0.9670;1.1872;
585.0000;0.9662;1.1965;
585.3000;0.9589;1.1848;
585.6000;0.9687;1.2082;
585.9000;0.9678;1.1965;
586.2000;0.9662;1.1965;
586.5000;0.9670;1.1988;
586.8000;0.9662;1.1918;
587.1000;0.9670;1.2035;
587.4000;0.9670;1.2058;
587.7000;0.9670;1.2035;
588.0000;0.9662;1.2058;
588.3000;0.9654;1.2058;
588.6000;0.9670;1.1988;
588.9000;0.9630;1.1872;
589.2000;0.9654;1.1942;
589.5000;0.9670;1.2082;
589.8000;0.9662;1.2058;
590.1000;0.9670;1.2105;
590.4000;0.9670;1.2082;
590.7000;0.9670;1.2012;
591.0000;0.9678;1.2058;
591.3000;0.9703;1.2128;
591.6000;0.9662;1.2035;
591.9000;0.9711;1.2175;
592.2000;0.9670;1.2128;
592.5000;0.9687;1.2198;
592.8000;0.9687;1.2175;
593.1000;0.9678;1.2105;
593.4000;0.9768;1.2315;
593.7000;0.9662;1.2082;
594.0000;0.9670;1.2128;
594.3000;0.9662;1.2105;
594.6000;0.9662;1.2058;
594.9000;0.9678;1.1965;
595.2000;0.9670;1.1965;
595.5000;0.9670;1.1872;
595.8000;0.9621;1.1778;
596.1000;0.9670;1.1825;
596.4000;0.9687;1.1895;
596.7000;0.9687;1.1942;
597.0000;0.9662;1.1848;
597.3000;0.9678;1.1848;
597.6000;0.9670;1.1942;
597.9000;0.9703;1.1942;
598.2000;0.9670;1.1802;
598.5000;0.9670;1.1895;
598.8000;0.9662;1.1965;
599.1000;0.9695;1.2035;
599.4000;0.9662;1.1942;
599.7000;0.9654;1.1918;
600.0000;0.9654;1.1918;
600.3000;0.9687;1.1872;
600.6000;0.9744;1.1755;
600.9000;0.9687;1.1662;
601.2000;0.9678;1.1662;
601.5000;0.9621;1.1452;
601.8000;0.9589;1.1242;
602.1000;0.9508;1.1102;
602.4000;0.9442;1.1009;
602.7000;0.9394;1.0939;
603.0000;0.9328;1.0939;
603.3000;0.9280;1.0892;
603.6000;0.9223;1.0869;
603.9000;0.9158;1.0729;
604.2000;0.9133;1.0776;
604.5000;0.9044;1.0519;
604.8000;0.9019;1.0472;
605.1000;0.8938;1.0309;
605.4000;0.8930;1.0356;
605.7000;0.8881;1.0379;
606.0000;0.8840;1.0216;
606.3000;0.8799;1.0146;
606.6000;0.8775;1.0169;
606.9000;0.8726;1.0053;
607.2000;0.8718;1.0076;
607.5000;0.8653;1.0029;
607.8000;0.8628;1.0029;
608.1000;0.8620;1.0099;
608.4000;0.8604;1.0169;
608.7000;0.8514;1.0053;
609.0000;0.8474;0.9983;
609.3000;0.8531;1.0192;
609.6000;0.8490;1.0146;
609.9000;0.8400;0.9913;
610.2000;0.8327;0.9889;
610.5000;0.8352;1.0076;
610.8000;0.8352;1.0122;
611.1000;0.8262;0.9983;
611.4000;0.8311;1.0122;
611.7000;0.8246;1.0053;
612.0000;0.8213;0.9959;
612.3000;0.8197;0.9913;
612.6000;0.8164;0.9819;
612.9000;0.8132;0.9843;
613.2000;0.8116;0.9819;
613.5000;0.8107;0.9819;
613.8000;0.8059;0.9819;
614.1000;0.8059;0.9889;
614.4000;0.8018;0.9866;
614.7000;0.8002;0.9819;
615.0000;0.7920;0.9609;
615.3000;0.7961;0.9796;
615.6000;0.7945;0.9843;
615.9000;0.7945;0.9913;
616.2000;0.7896;0.9913;
616.5000;0.7904;0.9959;
616.8000;0.7863;0.9889;
617.1000;0.7904;1.0029;
617.4000;0.7888;0.9983;
617.7000;0.7774;0.9773;
618.0000;0.7790;0.9983;
618.3000;0.7782;0.9936;
618.6000;0.7757;0.9959;
618.9000;0.7733;0.9889;
619.2000;0.7717;0.9866;
619.5000;0.7676;0.9866;
619.8000;0.7643;0.9726;
620.1000;0.7676;0.9726;
620.4000;0.7660;0.9749;
620.7000;0.7627;0.9656;
621.0000;0.7627;0.9726;
621.3000;0.7684;0.9913;
621.6000;0.7611;0.9866;
621.9000;0.7635;0.9936;
622.2000;0.7554;0.9773;
622.5000;0.7546;0.9819;
622.8000;0.7554;0.9866;
623.1000;0.7586;0.9913;
623.4000;0.7521;0.9749;
623.7000;0.7497;0.9703;
624.0000;0.7481;0.9703;
624.3000;0.7464;0.9796;
624.6000;0.7424;0.9796;
624.9000;0.7448;0.9843;
625.2000;0.7416;0.9889;
625.5000;0.7399;0.9843;
625.8000;0.7391;0.9773;
626.1000;0.7399;0.9866;
626.4000;0.7407;1.0029;
626.7000;0.7473;1.0169;
627.0000;0.7350;0.9866;
627.3000;0.7318;0.9773;
627.6000;0.7285;0.9703;
627.9000;0.7318;0.9796;
628.2000;0.7277;0.9749;
628.5000;0.7277;0.9773;
628.8000;0.7204;0.9586;
629.1000;0.7236;0.9679;
629.4000;0.7245;0.9679;
629.7000;0.7228;0.9726;
630.0000;0.7236;0.9913;
630.3000;0.7220;0.9889;
630.6000;0.7236;0.9843;
630.9000;0.7212;0.9773;
631.2000;0.7204;0.9843;
631.5000;0.7220;0.9866;
631.8000;0.7171;0.9749;
632.1000;0.7163;0.9749;
632.4000;0.7171;0.9703;
632.7000;0.7163;0.9703;
633.0000;0.7131;0.9679;
633.3000;0.7123;0.9609;
633.6000;0.7114;0.9563;
633.9000;0.7147;0.9656;
634.2000;0.7090;0.9609;
634.5000;0.7147;0.9819;
634.8000;0.7041;0.9633;
635.1000;0.7066;0.9726;
635.4000;0.7074;0.9749;
635.7000;0.7074;0.9749;
636.0000;0.7041;0.9866;
636.3000;0.7049;0.9773;
636.6000;0.7017;0.9749;
636.9000;0.7017;0.9796;
637.2000;0.6984;0.9703;
637.5000;0.6935;0.9633;
637.8000;0.7009;0.9843;
638.1000;0.6992;0.9773;
638.4000;0.6992;0.9679;
638.7000;0.6984;0.9656;
639.0000;0.7017;0.9679;
639.3000;0.6960;0.9726;
639.6000;0.6976;0.9866;
639.9000;0.6976;0.9843;
640.2000;0.6935;0.9773;
640.5000;0.6911;0.9819;
640.8000;0.6943;0.9843;
641.1000;0.6960;0.9866;
641.4000;0.6911;0.9796;
641.7000;0.6886;0.9749;
642.0000;0.6976;1.0006;
642.3000;0.6886;0.9819;
642.6000;0.6911;0.9889;
642.9000;0.6895;0.9843;
643.2000;0.6878;0.9656;
643.5000;0.6854;0.9609;
643.8000;0.6813;0.9563;
644.1000;0.6854;0.9726;
644.4000;0.6862;0.9819;
644.7000;0.6838;0.9796;
645.0000;0.6838;0.9866;
645.3000;0.6821;0.9843;
645.6000;0.6764;0.9703;
645.9000;0.6854;0.9936;
646.2000;0.6895;1.0053;
646.5000;0.6797;0.9843;
646.8000;0.6772;0.9726;
647.1000;0.6707;0.9609;
647.4000;0.6797;0.9773;
647.7000;0.6805;0.9703;
648.0000;0.6732;0.9516;
648.3000;0.6781;0.9726;
648.6000;0.6740;0.9679;
648.9000;0.6764;0.9796;
649.2000;0.6772;0.9819;
649.5000;0.6716;0.9703;
649.8000;0.6716;0.9656;
650.1000;0.6732;0.9679;
650.4000;0.6724;0.9633;
650.7000;0.6781;0.9703;
651.0000;0.6602;0.9306;
651.3000;0.6716;0.9609;
651.6000;0.6724;0.9749;
651.9000;0.6716;0.9749;
652.2000;0.6699;0.9679;
652.5000;0.6691;0.9703;
652.8000;0.6675;0.9749;
653.1000;0.6691;0.9749;
653.4000;0.6683;0.9679;
653.7000;0.6683;0.9726;
654.0000;0.6675;0.9679;
654.3000;0.6691;0.9679;
654.6000;0.6650;0.9656;
654.9000;0.6675;0.9749;
655.2000;0.6642;0.9679;
655.5000;0.6650;0.9679;
655.8000;0.6667;0.9726;
656.1000;0.6634;0.9656;
656.4000;0.6642;0.9703;
656.7000;0.6675;0.9656;
657.0000;0.6642;0.9679;
657.3000;0.6626;0.9796;
657.6000;0.6626;0.9749;
657.9000;0.6610;0.9726;
658.2000;0.6593;0.9656;
658.5000;0.6618;0.9679;
658.8000;0.6667;0.9749;
659.1000;0.6602;0.9633;
659.4000;0.6585;0.9633;
659.7000;0.6585;0.9563;
660.0000;0.6569;0.9493;
660.3000;0.6585;0.9563;
660.6000;0.6618;0.9609;
660.9000;0.6512;0.9423;
661.2000;0.6593;0.9609;
661.5000;0.6626;0.9633;
661.8000;0.6569;0.9493;
662.1000;0.6520;0.9423;
662.4000;0.6553;0.9493;
662.7000;0.6536;0.9446;
663.0000;0.6520;0.9446;
663.3000;0.6545;0.9539;
663.6000;0.6512;0.9423;
663.9000;0.6536;0.9469;
664.2000;0.6512;0.9446;
664.5000;0.6536;0.9376;
664.8000;0.6577;0.9563;
665.1000;0.6545;0.9563;
665.4000;0.6545;0.9609;
665.7000;0.6504;0.9563;
666.0000;0.6463;0.9423;
666.3000;0.6512;0.9563;
666.6000;0.6536;0.9609;
666.9000;0.6496;0.9493;
667.2000;0.6536;0.9586;
667.5000;0.6365;0.9236;
667.8000;0.6447;0.9516;
668.1000;0.6545;0.9913;
668.4000;0.6488;0.9843;
668.7000;0.6431;0.9773;
669.0000;0.6545;0.9866;
669.3000;0.6463;0.9633;
669.6000;0.6488;0.9749;
669.9000;0.6504;0.9866;
670.2000;0.6479;0.9819;
670.5000;0.6479;0.9773;
670.8000;0.6463;0.9796;
671.1000;0.6471;0.9703;
671.4000;0.6447;0.9633;
671.7000;0.6455;0.9586;
672.0000;0.6447;0.9609;
672.3000;0.6447;0.9703;
672.6000;0.6439;0.9679;
672.9000;0.6439;0.9749;
673.2000;0.6447;0.9796;
673.5000;0.6439;0.9773;
673.8000;0.6439;0.9773;
674.1000;0.6431;0.9796;
674.4000;0.6447;0.9796;
674.7000;0.6431;0.9889;
675.0000;0.6414;0.9866;
675.3000;0.6431;0.9889;
675.6000;0.6406;0.9819;
675.9000;0.6406;0.9913;
676.2000;0.6406;0.9866;
676.5000;0.6447;0.9819;
676.8000;0.6406;0.9586;
677.1000;0.6398;0.9586;
677.4000;0.6390;0.9609;
677.7000;0.6398;0.9703;
678.0000;0.6398;0.9703;
678.3000;0.6390;0.9703;
678.6000;0.6398;0.9679;
678.9000;0.6398;0.9633;
679.2000;0.6406;0.9773;
679.5000;0.6398;0.9843;
679.8000;0.6390;0.9866;
680.1000;0.6374;0.9843;
680.4000;0.6390;0.9866;
680.7000;0.6374;0.9819;
681.0000;0.6374;0.9889;
681.3000;0.6365;0.9796;
681.6000;0.6349;0.9773;
681.9000;0.6341;0.9726;
682.2000;0.6357;0.9843;
682.5000;0.6349;0.9796;
682.8000;0.6357;0.9773;
683.1000;0.6341;0.9726;
683.4000;0.6309;0.9656;
683.7000;0.6325;0.9866;
684.0000;0.6349;0.9866;
684.3000;0.6333;0.9819;
684.6000;0.6341;0.9866;
684.9000;0.6365;0.9866;
685.2000;0.6325;0.9773;
685.5000;0.6325;0.9796;
685.8000;0.6333;0.9819;
686.1000;0.6333;0.9866;
686.4000;0.6325;0.9866;
686.7000;0.6292;0.9703;
687.0000;0.6325;0.9843;
687.3000;0.6325;0.9889;
687.6000;0.6317;0.9866;
687.9000;0.6276;0.9796;
688.2000;0.6292;0.9773;
688.5000;0.6276;0.9703;
688.8000;0.6309;0.9703;
689.1000;0.6276;0.9609;
689.4000;0.6317;0.9656;
689.7000;0.6276;0.9586;
690.0000;0.6309;0.9586;
690.3000;0.6317;0.9656;
690.6000;0.6268;0.9539;
690.9000;0.6292;0.9679;
691.2000;0.6333;0.9866;
691.5000;0.6309;0.9819;
691.8000;0.6300;0.9819;
692.1000;0.6300;0.9913;
692.4000;0.6284;0.9866;
692.7000;0.6300;0.9889;
693.0000;0.6292;0.9843;
693.3000;0.6341;0.9913;
693.6000;0.6276;0.9889;
693.9000;0.6268;0.9936;
694.2000;0.6382;1.0169;
694.5000;0.6276;0.9796;
694.8000;0.6260;0.9773;
695.1000;0.6276;0.9726;
695.4000;0.6284;0.9749;
695.7000;0.6268;0.9726;
696.0000;0.6276;0.9656;
696.3000;0.6276;0.9749;
696.6000;0.6284;0.9773;
696.9000;0.6284;0.9726;
697.2000;0.6276;0.9656;
697.5000;0.6260;0.9633;
697.8000;0.6260;0.9609;
698.1000;0.6252;0.9609;
698.4000;0.6252;0.9633;
698.7000;0.6243;0.9726;
699.0000;0.6227;0.9656;
699.3000;0.6252;0.9633;
699.6000;0.6252;0.9609;
699.9000;0.6260;0.9749;
700.2000;0.6227;0.9749;
700.5000;0.6252;0.9656;
700.8000;0.6243;0.9539;
701.1000;0.6227;0.9609;
701.4000;0.6243;0.9773;
701.7000;0.6243;0.9703;
702.0000;0.6243;0.9749;
702.3000;0.6227;0.9726;
702.6000;0.6268;0.9866;
702.9000;0.6211;0.9749;
703.2000;0.6235;0.9819;
703.5000;0.6252;0.9819;
703.8000;0.6227;0.9819;
704.1000;0.6235;0.9819;
704.4000;0.6219;0.9819;
704.7000;0.6203;0.9726;
705.0000;0.6227;0.9773;
705.3000;0.6219;0.9773;
705.6000;0.6219;0.9796;
705.9000;0.6211;0.9679;
706.2000;0.6203;0.9703;
706.5000;0.6203;0.9749;
706.8000;0.6211;0.9726;
707.1000;0.6211;0.9773;
707.4000;0.6227;0.9796;
707.7000;0.6211;0.9679;
708.0000;0.6227;0.9656;
708.3000;0.6195;0.9586;
708.6000;0.6203;0.9539;
708.9000;0.6211;0.9609;
709.2000;0.6195;0.9656;
709.5000;0.6268;0.9866;
709.8000;0.6260;0.9819;
710.1000;0.6203;0.9703;
710.4000;0.6178;0.9633;
710.7000;0.6195;0.9773;
711.0000;0.6260;0.9936;
711.3000;0.6195;0.9796;
711.6000;0.6195;0.9889;
711.9000;0.6195;0.9913;
712.2000;0.6195;0.9889;
712.5000;0.6162;0.9819;
712.8000;0.6186;0.9819;
713.1000;0.6178;0.9703;
713.4000;0.6178;0.9726;
713.7000;0.6162;0.9749;
714.0000;0.6170;0.9796;
714.3000;0.6170;0.9703;
714.6000;0.6178;0.9656;
714.9000;0.6138;0.9586;
715.2000;0.6178;0.9609;
715.5000;0.6186;0.9609;
715.8000;0.6154;0.9516;
716.1000;0.6186;0.9679;
716.4000;0.6227;0.9773;
716.7000;0.6178;0.9703;
717.0000;0.6162;0.9679;
717.3000;0.6203;0.9726;
717.6000;0.6162;0.9679;
717.9000;0.6178;0.9633;
718.2000;0.6170;0.9586;
718.5000;0.6170;0.9633;
718.8000;0.6146;0.9516;
719.1000;0.6170;0.9539;
719.4000;0.6146;0.9609;
719.7000;0.6170;0.9609;
720.0000;0.6138;0.9656;
720.3000;0.6138;0.9656;
720.6000;0.6146;0.9749;
720.9000;0.6154;0.9843;
721.2000;0.6162;0.9889;
721.5000;0.6178;1.0006;
721.8000;0.6138;0.9936;
722.1000;0.6162;0.9959;
722.4000;0.6203;0.9983;
722.7000;0.6154;0.9936;
723.0000;0.6146;0.9889;
723.3000;0.6162;0.9936;
723.6000;0.6154;0.9889;
723.9000;0.6162;0.9889;
724.2000;0.6138;0.9843;
724.5000;0.6129;0.9819;
724.8000;0.6146;0.9843;
725.1000;0.6154;0.9819;
725.4000;0.6129;0.9726;
725.7000;0.6154;0.9703;
726.0000;0.6154;0.9679;
726.3000;0.6146;0.9656;
726.6000;0.6129;0.9679;
726.9000;0.6186;0.9773;
727.2000;0.6154;0.9726;
727.5000;0.6121;0.9773;
727.8000;0.6064;0.9609;
728.1000;0.6146;0.9773;
728.4000;0.6186;0.9819;
728.7000;0.6129;0.9703;
729.0000;0.6146;0.9679;
729.3000;0.6121;0.9749;
729.6000;0.6138;0.9749;
729.9000;0.6032;0.9563;
730.2000;0.6178;0.9843;
730.5000;0.6129;0.9773;
730.8000;0.6154;0.9819;
731.1000;0.6138;0.9796;
731.4000;0.6138;0.9749;
731.7000;0.6121;0.9773;
732.0000;0.6121;0.9796;
732.3000;0.6129;0.9749;
732.6000;0.6121;0.9749;
732.9000;0.6203;0.9959;
733.2000;0.6129;0.9773;
733.5000;0.6129;0.9796;
733.8000;0.6121;0.9679;
734.1000;0.6138;0.9609;
734.4000;0.6121;0.9516;
734.7000;0.6105;0.9446;
735.0000;0.6113;0.9493;
735.3000;0.6113;0.9563;
735.6000;0.6105;0.9586;
735.9000;0.6162;0.9773;
736.2000;0.6129;0.9843;
736.5000;0.6129;0.9843;
736.8000;0.6154;0.9913;
737.1000;0.6146;0.9889;
737.4000;0.6162;0.9889;
737.7000;0.6138;0.9679;
738.0000;0.6121;0.9609;
738.3000;0.6129;0.9633;
738.6000;0.6121;0.9516;
738.9000;0.6186;0.9703;
739.2000;0.6113;0.9609;
739.5000;0.6113;0.9679;
739.8000;0.6113;0.9633;
740.1000;0.6121;0.9609;
740.4000;0.6064;0.9469;
740.7000;0.6097;0.9609;
741.0000;0.6081;0.9633;
741.3000;0.5999;0.9399;
741.6000;0.6097;0.9703;
741.9000;0.6081;0.9726;
742.2000;0.6146;0.9843;
742.5000;0.6097;0.9726;
742.8000;0.6154;0.9889;
743.1000;0.6097;0.9796;
743.4000;0.6097;0.9773;
743.7000;0.6097;0.9796;
744.0000;0.6105;0.9796;
744.3000;0.6032;0.9539;
744.6000;0.6097;0.9633;
744.9000;0.6105;0.9656;
745.2000;0.6081;0.9633;
745.5000;0.6121;0.9703;
745.8000;0.6097;0.9773;
746.1000;0.6089;0.9703;
746.4000;0.6015;0.9609;
746.7000;0.6089;0.9773;
747.0000;0.6097;0.9749;
747.3000;0.6064;0.9749;
747.6000;0.6081;0.9773;
747.9000;0.6081;0.9749;
748.2000;0.6089;0.9679;
748.5000;0.6089;0.9726;
748.8000;0.6081;0.9679;
749.1000;0.6252;1.0029;
749.4000;0.6081;0.9633;
749.7000;0.6081;0.9563;
750.0000;0.6072;0.9423;
750.3000;0.6089;0.9469;
750.6000;0.6072;0.9539;
750.9000;0.6064;0.9563;
751.2000;0.6072;0.9563;
751.5000;0.6105;0.9633;
751.8000;0.6064;0.9539;
752.1000;0.6056;0.9446;
752.4000;0.6056;0.9399;
752.7000;0.6089;0.9586;
753.0000;0.6089;0.9516;
753.3000;0.6064;0.9469;
753.6000;0.6064;0.9423;
753.9000;0.6072;0.9493;
754.2000;0.6097;0.9609;
754.5000;0.6048;0.9609;
754.8000;0.6072;0.9586;
755.1000;0.6048;0.9493;
755.4000;0.6081;0.9563;
755.7000;0.6072;0.9539;
756.0000;0.6072;0.9469;
756.3000;0.6056;0.9446;
756.6000;0.6081;0.9539;
756.9000;0.6097;0.9563;
757.2000;0.6024;0.9399;
757.5000;0.6081;0.9493;
757.8000;0.6072;0.9539;
758.1000;0.6097;0.9633;
758.4000;0.6072;0.9539;
758.7000;0.6081;0.9633;
759.0000;0.5999;0.9469;
759.3000;0.6113;0.9726;
759.6000;0.6048;0.9633;
759.9000;0.6064;0.9679;
760.2000;0.6105;0.9866;
760.5000;0.6081;0.9703;
760.8000;0.6056;0.9656;
761.1000;0.6072;0.9656;
761.4000;0.6064;0.9563;
761.7000;0.6040;0.9399;
762.0000;0.6154;0.9773;
762.3000;0.6064;0.9516;
762.6000;0.6064;0.9539;
762.9000;0.6064;0.9586;
763.2000;0.6056;0.9563;
763.5000;0.6081;0.9586;
763.8000;0.6064;0.9586;
764.1000;0.6056;0.9656;
764.4000;0.6072;0.9749;
764.7000;0.6056;0.9703;
765.0000;0.6056;0.9749;
765.3000;0.6072;0.9749;
765.6000;0.6081;0.9843;
765.9000;0.6097;0.9866;
766.2000;0.6121;0.9796;
766.5000;0.5975;0.9469;
766.8000;0.6048;0.9633;
767.1000;0.6056;0.9679;
767.4000;0.6121;0.9913;
767.7000;0.6056;0.9819;
768.0000;0.6064;0.9913;
768.3000;0.6064;0.9889;
768.6000;0.6072;0.9866;
768.9000;0.6024;0.9773;
769.2000;0.6048;0.9726;
769.5000;0.6064;0.9609;
769.8000;0.6064;0.9656;
770.1000;0.6040;0.9609;
770.4000;0.6048;0.9656;
770.7000;0.6081;0.9749;
771.0000;0.6048;0.9679;
771.3000;0.6097;0.9796;
771.6000;0.6056;0.9586;
771.9000;0.6064;0.9633;
772.2000;0.6170;0.9959;
772.5000;0.6064;0.9703;
772.8000;0.6007;0.9563;
773.1000;0.6072;0.9703;
773.4000;0.6024;0.9633;
773.7000;0.6064;0.9703;
774.0000;0.6048;0.9633;
774.3000;0.6040;0.9656;
774.6000;0.6048;0.9679;
774.9000;0.6072;0.9726;
775.2000;0.6056;0.9726;
775.5000;0.6056;0.9726;
775.8000;0.6097;0.9796;
776.1000;0.6056;0.9726;
776.4000;0.6040;0.9679;
776.7000;0.6048;0.9703;
777.0000;0.6048;0.9703;
777.3000;0.6048;0.9679;
777.6000;0.6015;0.9516;
777.9000;0.6040;0.9633;
778.2000;0.6040;0.9773;
778.5000;0.6097;0.9913;
778.8000;0.6032;0.9703;
779.1000;0.6024;0.9726;
779.4000;0.6040;0.9749;
779.7000;0.6032;0.9609;
780.0000;0.6040;0.9609;
780.3000;0.6048;0.9609;
780.6000;0.6024;0.9633;
780.9000;0.6056;0.9726;
781.2000;0.6032;0.9633;
781.5000;0.6048;0.9656;
781.8000;0.6056;0.9656;
782.1000;0.5999;0.9539;
782.4000;0.6032;0.9539;
782.7000;0.6081;0.9679;
783.0000;0.6089;0.9773;
783.3000;0.6024;0.9586;
783.6000;0.6032;0.9539;
783.9000;0.6048;0.9493;
784.2000;0.6015;0.9539;
784.5000;0.6015;0.9539;
784.8000;0.6007;0.9586;
785.1000;0.6040;0.9633;
785.4000;0.6024;0.9586;
785.7000;0.6024;0.9586;
786.0000;0.6032;0.9563;
786.3000;0.6007;0.9493;
786.6000;0.6040;0.9563;
786.9000;0.6024;0.9656;
787.2000;0.6024;0.9633;
787.5000;0.6040;0.9749;
787.8000;0.6024;0.9609;
788.1000;0.6007;0.9633;
788.4000;0.6024;0.9679;
788.7000;0.6056;0.9726;
789.0000;0.6032;0.9703;
789.3000;0.6032;0.9609;
789.6000;0.6024;0.9633;
789.9000;0.5999;0.9516;
790.2000;0.6024;0.9516;
790.5000;0.6024;0.9469;
790.8000;0.6007;0.9399;
791.1000;0.6032;0.9469;
791.4000;0.6024;0.9493;
791.7000;0.6032;0.9563;
792.0000;0.6024;0.9586;
792.3000;0.6007;0.9469;
792.6000;0.6024;0.9516;
792.9000;0.6024;0.9516;
793.2000;0.6032;0.9493;
793.5000;0.6015;0.9423;
793.8000;0.6024;0.9376;
794.1000;0.6056;0.9446;
794.4000;0.6048;0.9446;
794.7000;0.6024;0.9376;
795.0000;0.6007;0.9283;
795.3000;0.6032;0.9423;
795.6000;0.6024;0.9423;
795.9000;0.6081;0.9563;
796.2000;0.6024;0.9469;
796.5000;0.6032;0.9423;
796.8000;0.6056;0.9469;
797.1000;0.6024;0.9516;
797.4000;0.5902;0.9166;
797.7000;0.6007;0.9446;
798.0000;0.6032;0.9493;
798.3000;0.6015;0.9516;
798.6000;0.6024;0.9633;
798.9000;0.6032;0.9633;
799.2000;0.6007;0.9539;
799.5000;0.6032;0.9516;
799.8000;0.6015;0.9493;
800.1000;0.6015;0.9539;
800.4000;0.6024;0.9539;
800.7000;0.5983;0.9376;
801.0000;0.6024;0.9563;
801.3000;0.6024;0.9539;
801.6000;0.6056;0.9469;
801.9000;0.6015;0.9446;
802.2000;0.6024;0.9516;
802.5000;0.6015;0.9516;
802.8000;0.6015;0.9539;
803.1000;0.6024;0.9609;
803.4000;0.6015;0.9656;
803.7000;0.6032;0.9656;
804.0000;0.6007;0.9726;
804.3000;0.6032;0.9749;
804.6000;0.5991;0.9726;
804.9000;0.6024;0.9796;
805.2000;0.6040;0.9726;
805.5000;0.6032;0.9726;
805.8000;0.6015;0.9749;
806.1000;0.6015;0.9609;
806.4000;0.6015;0.9656;
806.7000;0.6007;0.9633;
807.0000;0.6015;0.9679;
807.3000;0.6024;0.9749;
807.6000;0.5999;0.9633;
807.9000;0.5975;0.9516;
808.2000;0.6015;0.9586;
808.5000;0.6007;0.9539;
808.8000;0.6015;0.9586;
809.1000;0.6015;0.9633;
809.4000;0.5991;0.9586;
809.7000;0.5999;0.9586;
810.0000;0.6007;0.9633;
810.3000;0.5991;0.9609;
810.6000;0.6032;0.9609;
810.9000;0.6056;0.9703;
811.2000;0.6015;0.9679;
811.5000;0.6024;0.9679;
811.8000;0.6007;0.9656;
812.1000;0.6024;0.9656;
812.4000;0.5999;0.9516;
812.7000;0.6015;0.9539;
813.0000;0.6015;0.9539;
813.3000;0.6015;0.9539;
813.6000;0.5999;0.9586;
813.9000;0.6089;0.9749;
814.2000;0.6024;0.9609;
814.5000;0.6032;0.9609;
814.8000;0.6007;0.9633;
815.1000;0.5999;0.9586;
815.4000;0.5983;0.9609;
815.7000;0.5983;0.9493;
816.0000;0.5991;0.9493;
816.3000;0.6015;0.9539;
816.6000;0.6007;0.9446;
816.9000;0.6024;0.9446;
817.2000;0.5983;0.9376;
817.5000;0.6064;0.9539;
817.8000;0.6007;0.9446;
818.1000;0.6007;0.9516;
818.4000;0.6024;0.9656;
818.7000;0.5991;0.9633;
819.0000;0.5991;0.9609;
819.3000;0.6007;0.9703;
819.6000;0.6015;0.9679;
819.9000;0.6015;0.9609;
820.2000;0.5999;0.9586;
820.5000;0.6048;0.9726;
820.8000;0.6024;0.9773;
821.1000;0.6015;0.9703;
821.4000;0.6007;0.9539;
821.7000;0.6015;0.9539;
822.0000;0.5991;0.9493;
822.3000;0.6015;0.9609;
822.6000;0.6064;0.9679;
822.9000;0.5999;0.9516;
823.2000;0.5999;0.9446;
823.5000;0.5999;0.9516;
823.8000;0.5991;0.9516;
824.1000;0.5999;0.9539;
824.4000;0.6024;0.9633;
824.7000;0.5958;0.9516;
825.0000;0.6007;0.9609;
825.3000;0.6007;0.9679;
825.6000;0.6032;0.9726;
825.9000;0.6024;0.9633;
826.2000;0.6007;0.9563;
826.5000;0.5991;0.9563;
826.8000;0.5991;0.9539;
827.1000;0.5950;0.9446;
827.4000;0.5991;0.9563;
827.7000;0.5991;0.9493;
828.0000;0.5991;0.9539;
828.3000;0.5999;0.9586;
828.6000;0.6015;0.9633;
828.9000;0.6015;0.9586;
829.2000;0.6007;0.9563;
829.5000;0.5999;0.9469;
829.8000;0.5991;0.9516;
830.1000;0.5999;0.9516;
830.4000;0.5999;0.9539;
830.7000;0.6056;0.9679;
831.0000;0.5999;0.9633;
831.3000;0.6007;0.9656;
831.6000;0.5991;0.9586;
831.9000;0.5991;0.9609;
832.2000;0.6032;0.9679;
832.5000;0.5999;0.9539;
832.8000;0.5991;0.9586;
833.1000;0.5983;0.9469;
833.4000;0.5958;0.9329;
833.7000;0.6105;0.9656;
834.0000;0.5999;0.9376;
834.3000;0.5983;0.9376;
834.6000;0.5983;0.9446;
834.9000;0.5991;0.9446;
835.2000;0.6040;0.9633;
835.5000;0.6007;0.9539;
835.8000;0.5942;0.9399;
836.1000;0.5999;0.9586;
836.4000;0.6015;0.9609;
836.7000;0.5975;0.9563;
837.0000;0.5926;0.9376;
837.3000;0.5975;0.9539;
837.6000;0.5991;0.9633;
837.9000;0.5991;0.9679;
838.2000;0.6015;0.9773;
838.5000;0.5975;0.9679;
838.8000;0.5999;0.9656;
839.1000;0.5975;0.9586;
839.4000;0.5983;0.9633;
839.7000;0.5991;0.9656;
840.0000;0.5999;0.9633;
840.3000;0.5983;0.9563;
840.6000;0.6007;0.9609;
840.9000;0.5958;0.9539;
841.2000;0.5991;0.9633;
841.5000;0.6048;0.9609;
841.8000;0.5999;0.9516;
842.1000;0.5975;0.9469;
842.4000;0.6007;0.9633;
842.7000;0.5999;0.9656;
843.0000;0.5991;0.9633;
843.3000;0.6048;0.9679;
843.6000;0.5975;0.9446;
843.9000;0.5983;0.9469;
844.2000;0.5975;0.9446;
844.5000;0.5991;0.9539;
844.8000;0.5983;0.9539;
845.1000;0.5991;0.9609;
845.4000;0.6007;0.9656;
845.7000;0.6007;0.9703;
846.0000;0.6007;0.9749;
846.3000;0.5991;0.9749;
846.6000;0.5983;0.9703;
846.9000;0.5991;0.9633;
847.2000;0.5975;0.9609;
847.5000;0.5999;0.9679;
847.8000;0.5967;0.9633;
848.1000;0.5967;0.9563;
848.4000;0.5975;0.9493;
848.7000;0.5967;0.9469;
849.0000;0.5983;0.9516;
849.3000;0.5983;0.9586;
849.6000;0.5983;0.9446;
849.9000;0.5975;0.9399;
850.2000;0.5991;0.9493;
850.5000;0.5975;0.9539;
850.8000;0.5999;0.9586;
851.1000;0.5983;0.9563;
851.4000;0.5983;0.9469;
851.7000;0.6007;0.9423;
852.0000;0.5991;0.9446;
852.3000;0.5991;0.9446;
852.6000;0.5999;0.9446;
852.9000;0.6007;0.9399;
853.2000;0.6024;0.9469;
853.5000;0.5991;0.9446;
853.8000;0.5983;0.9493;
854.1000;0.5983;0.9539;
854.4000;0.5991;0.9656;
854.7000;0.5975;0.9516;
855.0000;0.5983;0.9493;
855.3000;0.5975;0.9469;
855.6000;0.5885;0.9213;
855.9000;0.5991;0.9329;
856.2000;0.5975;0.9329;
856.5000;0.5975;0.9399;
856.8000;0.5967;0.9260;
857.1000;0.5958;0.9283;
857.4000;0.5918;0.9190;
857.7000;0.5950;0.9306;
858.0000;0.5950;0.9283;
858.3000;0.5999;0.9446;
858.6000;0.5991;0.9469;
858.9000;0.5991;0.9446;
859.2000;0.5975;0.9516;
859.5000;0.5983;0.9493;
859.8000;0.5975;0.9446;
860.1000;0.5958;0.9516;
860.4000;0.5902;0.9539;
860.7000;0.5958;0.9726;
861.0000;0.5975;0.9726;
861.3000;0.6048;0.9959;
861.6000;0.5975;0.9866;
861.9000;0.5958;0.9796;
862.2000;0.5983;0.9819;
862.5000;0.5983;0.9726;
862.8000;0.5975;0.9749;
863.1000;0.5999;0.9749;
863.4000;0.5967;0.9749;
863.7000;0.5983;0.9819;
864.0000;0.5926;0.9679;
864.3000;0.5967;0.9796;
864.6000;0.5991;0.9843;
864.9000;0.5942;0.9773;
865.2000;0.5983;0.9726;
865.5000;0.5991;0.9609;
865.8000;0.5983;0.9656;
866.1000;0.5983;0.9773;
866.4000;0.5975;0.9703;
866.7000;0.5983;0.9773;
867.0000;0.5983;0.9703;
867.3000;0.5975;0.9819;
867.6000;0.5967;0.9889;
867.9000;0.5983;0.9959;
868.2000;0.5983;0.9889;
868.5000;0.5967;0.9773;
868.8000;0.5942;0.9703;
869.1000;0.5967;0.9703;
869.4000;0.5975;0.9656;
869.7000;0.5975;0.9749;
870.0000;0.5975;0.9773;
870.3000;0.5967;0.9843;
870.6000;0.5934;0.9703;
870.9000;0.5983;0.9843;
871.2000;0.5967;0.9749;
871.5000;0.5967;0.9726;
871.8000;0.5950;0.9726;
872.1000;0.5975;0.9819;
872.4000;0.5975;0.9749;
872.7000;0.5958;0.9703;
873.0000;0.5983;0.9796;
873.3000;0.5983;0.9773;
873.6000;0.5999;0.9866;
873.9000;0.5958;0.9796;
874.2000;0.5967;0.9843;
874.5000;0.6007;0.9936;
874.8000;0.5983;0.9866;
875.1000;0.5983;0.9819;
875.4000;0.5975;0.9796;
875.7000;0.5975;0.9796;
876.0000;0.5999;0.9866;
876.3000;0.5983;0.9866;
876.6000;0.5934;0.9726;
876.9000;0.5991;0.9889;
877.2000;0.5991;0.9889;
877.5000;0.5991;0.9866;
877.8000;0.5958;0.9866;
878.1000;0.5991;0.9913;
878.4000;0.5999;0.9889;
878.7000;0.5999;0.9843;
879.0000;0.5975;0.9773;
879.3000;0.5975;0.9843;
879.6000;0.5910;0.9703;
879.9000;0.5999;0.9843;
880.2000;0.5975;0.9749;
880.5000;0.5991;0.9726;
880.8000;0.5983;0.9679;
881.1000;0.5991;0.9679;
881.4000;0.5975;0.9633;
881.7000;0.5991;0.9656;
882.0000;0.5975;0.9609;
882.3000;0.6007;0.9679;
882.6000;0.5975;0.9703;
882.9000;0.5950;0.9703;
883.2000;0.5975;0.9819;
883.5000;0.5999;0.9866;
883.8000;0.5958;0.9773;
884.1000;0.5991;0.9819;
884.4000;0.5975;0.9936;
884.7000;0.5991;0.9889;
885.0000;0.6015;0.9983;
885.3000;0.5967;0.9843;
885.6000;0.5975;0.9819;
885.9000;0.5975;0.9773;
886.2000;0.5975;0.9819;
886.5000;0.5958;0.9819;
886.8000;0.5958;0.9633;
887.1000;0.5934;0.9493;
887.4000;0.5983;0.9586;
887.7000;0.5975;0.9493;
888.0000;0.5926;0.9493;
888.3000;0.5983;0.9703;
888.6000;0.5967;0.9679;
888.9000;0.5926;0.9679;
889.2000;0.5950;0.9773;
889.5000;0.5967;0.9726;
889.8000;0.5975;0.9773;
890.1000;0.5991;0.9796;
890.4000;0.5983;0.9819;
890.7000;0.5958;0.9726;
891.0000;0.5975;0.9819;
891.3000;0.5958;0.9796;
891.6000;0.5999;0.9819;
891.9000;0.5991;0.9749;
892.2000;0.5983;0.9749;
892.5000;0.5975;0.9866;
892.8000;0.5902;0.9656;
893.1000;0.5950;0.9796;
893.4000;0.5975;0.9819;
893.7000;0.5967;0.9843;
894.0000;0.5950;0.9819;
894.3000;0.5967;0.9843;
894.6000;0.5999;0.9936;
894.9000;0.5967;0.9819;
895.2000;0.5991;0.9796;
895.5000;0.5918;0.9633;
895.8000;0.5967;0.9703;
896.1000;0.5958;0.9703;
896.4000;0.5950;0.9679;
896.7000;0.5967;0.9773;
897.0000;0.5926;0.9773;
897.3000;0.5967;0.9796;
897.6000;0.5942;0.9819;
897.9000;0.5958;0.9889;
898.2000;0.5934;0.9866;
898.5000;0.5950;0.9843;
898.8000;0.5975;0.9889;
899.1000;0.6015;1.0076;
899.4000;0.5967;0.9913;
899.7000;0.5967;0.9773;
900.0000;0.5999;0.9819;
900.3000;0.5950;0.9726;
900.6000;0.6040;0.9889;
900.9000;0.6007;0.9703;
901.2000;0.5983;0.9703;
901.5000;0.5983;0.9703;
901.8000;0.5869;0.9423;
902.1000;0.5926;0.9516;
902.4000;0.5958;0.9586;
902.7000;0.5902;0.9516;
903.0000;0.5950;0.9679;
903.3000;0.5967;0.9773;
903.6000;0.5975;0.9819;
903.9000;0.5975;0.9843;
904.2000;0.5958;0.9796;
904.5000;0.5991;0.9889;
904.8000;0.5975;0.9913;
905.1000;0.5967;0.9983;
905.4000;0.5877;0.9819;
905.7000;0.5910;0.9983;
906.0000;0.5950;0.9959;
906.3000;0.5967;0.9913;
906.6000;0.5983;0.9866;
906.9000;0.5975;0.9889;
907.2000;0.5958;0.9796;
907.5000;0.5950;0.9703;
907.8000;0.5958;0.9796;
908.1000;0.5950;0.9726;
908.4000;0.5950;0.9679;
908.7000;0.5934;0.9609;
909.0000;0.5983;0.9726;
909.3000;0.5967;0.9656;
909.6000;0.5975;0.9633;
909.9000;0.5950;0.9539;
910.2000;0.5958;0.9679;
910.5000;0.6007;0.9819;
910.8000;0.5975;0.9703;
911.1000;0.5958;0.9703;
911.4000;0.5967;0.9773;
911.7000;0.5991;0.9843;
912.0000;0.5967;0.9796;
912.3000;0.5950;0.9773;
912.6000;0.5975;0.9843;
912.9000;0.5975;0.9773;
913.2000;0.5975;0.9796;
913.5000;0.5910;0.9703;
913.8000;0.5967;0.9819;
914.1000;0.5975;0.9819;
914.4000;0.5967;0.9889;
914.7000;0.5918;0.9726;
915.0000;0.5967;0.9819;
915.3000;0.5967;0.9819;
915.6000;0.6056;1.0029;
915.9000;0.5958;0.9773;
916.2000;0.5942;0.9679;
916.5000;0.6015;0.9819;
916.8000;0.5967;0.9609;
917.1000;0.5950;0.9563;
917.4000;0.5958;0.9633;
917.7000;0.5975;0.9679;
918.0000;0.5967;0.9656;
918.3000;0.5926;0.9586;
918.6000;0.5861;0.9446;
918.9000;0.5958;0.9726;
919.2000;0.5910;0.9516;
919.5000;0.5967;0.9633;
919.8000;0.5983;0.9679;
920.1000;0.5967;0.9656;
920.4000;0.5950;0.9679;
920.7000;0.5958;0.9773;
921.0000;0.5958;0.9679;
921.3000;0.5934;0.9609;
921.6000;0.5942;0.9633;
921.9000;0.5967;0.9679;
922.2000;0.5950;0.9679;
922.5000;0.5950;0.9586;
922.8000;0.5975;0.9609;
923.1000;0.5942;0.9539;
923.4000;0.5926;0.9469;
923.7000;0.5991;0.9539;
924.0000;0.5958;0.9376;
924.3000;0.5975;0.9493;
924.6000;0.5967;0.9516;
924.9000;0.5934;0.9399;
925.2000;0.5999;0.9609;
925.5000;0.5983;0.9446;
925.8000;0.5942;0.9399;
926.1000;0.5967;0.9493;
926.4000;0.5950;0.9539;
926.7000;0.5999;0.9726;
927.0000;0.5958;0.9609;
927.3000;0.5983;0.9493;
927.6000;0.5975;0.9539;
927.9000;0.5958;0.9563;
928.2000;0.5950;0.9586;
928.5000;0.5958;0.9726;
928.8000;0.5893;0.9423;
929.1000;0.5958;0.9586;
929.4000;0.5934;0.9563;
929.7000;0.5975;0.9679;
930.0000;0.5950;0.9633;
930.3000;0.5975;0.9726;
930.6000;0.5958;0.9679;
930.9000;0.5967;0.9703;
931.2000;0.5926;0.9539;
931.5000;0.5910;0.9516;
931.8000;0.5967;0.9749;
932.1000;0.5991;0.9866;
932.4000;0.5991;0.9796;
932.7000;0.5934;0.9726;
933.0000;0.5958;0.9726;
933.3000;0.5934;0.9633;
933.6000;0.5950;0.9703;
933.9000;0.5950;0.9679;
934.2000;0.5958;0.9679;
934.5000;0.5983;0.9866;
934.8000;0.5836;0.9586;
935.1000;0.5958;0.9796;
935.4000;0.5958;0.9796;
935.7000;0.5950;0.9843;
936.0000;0.5975;0.9959;
936.3000;0.5975;0.9983;
936.6000;0.5975;0.9959;
936.9000;0.5950;0.9913;
937.2000;0.5999;0.9936;
937.5000;0.5967;0.9819;
937.8000;0.5967;0.9843;
938.1000;0.5967;0.9773;
938.4000;0.5975;0.9796;
938.7000;0.5950;0.9773;
939.0000;0.5967;0.9866;
939.3000;0.5950;0.9726;
939.6000;0.5902;0.9679;
939.9000;0.5975;0.9913;
940.2000;0.5942;0.9819;
940.5000;0.5950;0.9749;
940.8000;0.5967;0.9843;
941.1000;0.5958;0.9749;
941.4000;0.5975;0.9843;
941.7000;0.5942;0.9749;
942.0000;0.5934;0.9726;
942.3000;0.5950;0.9749;
942.6000;0.5918;0.9586;
942.9000;0.6007;0.9796;
943.2000;0.5967;0.9633;
943.5000;0.5958;0.9586;
943.8000;0.5958;0.9586;
944.1000;0.5967;0.9586;
944.4000;0.5958;0.9656;
944.7000;0.5967;0.9749;
945.0000;0.5958;0.9656;
945.3000;0.5893;0.9493;
945.6000;0.5950;0.9633;
945.9000;0.5942;0.9703;
946.2000;0.5950;0.9796;
946.5000;0.5958;0.9773;
946.8000;0.5942;0.9656;
947.1000;0.5942;0.9773;
947.4000;0.5967;0.9913;
947.7000;0.5950;0.9796;
948.0000;0.5958;0.9796;
948.3000;0.5967;0.9773;
948.6000;0.5950;0.9843;
948.9000;0.5934;0.9726;
949.2000;0.5958;0.9749;
949.5000;0.5967;0.9726;
949.8000;0.5934;0.9726;
950.1000;0.5967;0.9913;
950.4000;0.5934;0.9796;
950.7000;0.5975;0.9866;
951.0000;0.5958;0.9913;
951.3000;0.5958;0.9866;
951.6000;0.5958;0.9773;
951.9000;0.5910;0.9703;
952.2000;0.5967;0.9866;
952.5000;0.5975;0.9936;
952.8000;0.5950;0.9936;
953.1000;0.5942;0.9889;
953.4000;0.5950;0.9959;
953.7000;0.5942;0.9913;
954.0000;0.5967;0.9959;
954.3000;0.5958;0.9913;
954.6000;0.5950;0.9889;
954.9000;0.5967;0.9796;
955.2000;0.5950;0.9656;
955.5000;0.5942;0.9703;
955.8000;0.5926;0.9726;
956.1000;0.5950;0.9819;
956.4000;0.5926;0.9819;
956.7000;0.5950;0.9866;
957.0000;0.5942;0.9773;
957.3000;0.5902;0.9586;
957.6000;0.5967;0.9819;
957.9000;0.5950;0.9796;
958.2000;0.5958;0.9749;
958.5000;0.6032;0.9936;
958.8000;0.5958;0.9749;
959.1000;0.5958;0.9703;
959.4000;0.5950;0.9726;
959.7000;0.5934;0.9703;
960.0000;0.5926;0.9796;
960.3000;0.5926;0.9749;
960.6000;0.5934;0.9703;
960.9000;0.5942;0.9633;
961.2000;0.5942;0.9703;
961.5000;0.5950;0.9773;
961.8000;0.6040;1.0099;
962.1000;0.5934;0.9819;
962.4000;0.5967;0.9843;
962.7000;0.5958;0.9843;
963.0000;0.5950;0.9749;
963.3000;0.5967;0.9819;
963.6000;0.5958;0.9773;
963.9000;0.5958;0.9703;
964.2000;0.5958;0.9703;
964.5000;0.5958;0.9656;
964.8000;0.5958;0.9516;
965.1000;0.5942;0.9516;
965.4000;0.5950;0.9539;
965.7000;0.5934;0.9633;
966.0000;0.6024;0.9819;
966.3000;0.5942;0.9633;
966.6000;0.5967;0.9703;
966.9000;0.5975;0.9843;
967.2000;0.5934;0.9773;
967.5000;0.5958;0.9726;
967.8000;0.5967;0.9749;
968.1000;0.5975;0.9843;
968.4000;0.5942;0.9726;
968.7000;0.5958;0.9773;
969.0000;0.5967;0.9656;
969.3000;0.5893;0.9539;
969.6000;0.5975;0.9679;
969.9000;0.5958;0.9633;
970.2000;0.5942;0.9656;
970.5000;0.5999;0.9796;
970.8000;0.5950;0.9866;
971.1000;0.5975;0.9913;
971.4000;0.5958;0.9866;
971.7000;0.5958;0.9913;
972.0000;0.5926;0.9866;
972.3000;0.5950;0.9889;
972.6000;0.5853;0.9609;
972.9000;0.5967;0.9819;
973.2000;0.5967;0.9796;
973.5000;0.5918;0.9633;
973.8000;0.5967;0.9726;
974.1000;0.5991;0.9796;
974.4000;0.5967;0.9773;
974.7000;0.5967;0.9773;
975.0000;0.5975;0.9749;
975.3000;0.5975;0.9773;
975.6000;0.5942;0.9773;
975.9000;0.5975;0.9843;
976.2000;0.5967;0.9819;
976.5000;0.5967;0.9773;
976.8000;0.5942;0.9703;
977.1000;0.5967;0.9679;
977.4000;0.5967;0.9749;
977.7000;0.5967;0.9773;
978.0000;0.5967;0.9796;
978.3000;0.5942;0.9726;
978.6000;0.5942;0.9656;
978.9000;0.5942;0.9656;
979.2000;0.5942;0.9749;
979.5000;0.5942;0.9796;
979.8000;0.5975;0.9843;
980.1000;0.5942;0.9749;
980.4000;0.5910;0.9679;
980.7000;0.5885;0.9609;
981.0000;0.5934;0.9609;
981.3000;0.5950;0.9703;
981.6000;0.5950;0.9679;
981.9000;0.5967;0.9726;
982.2000;0.5958;0.9656;
982.5000;0.5975;0.9633;
982.8000;0.5926;0.9609;
983.1000;0.5950;0.9679;
983.4000;0.5975;0.9773;
983.7000;0.5958;0.9726;
984.0000;0.5958;0.9773;
984.3000;0.5934;0.9796;
984.6000;0.5967;0.9843;
984.9000;0.5942;0.9773;
985.2000;0.5958;0.9796;
985.5000;0.5950;0.9773;
985.8000;0.5999;0.9983;
986.1000;0.5975;0.9866;
986.4000;0.5926;0.9749;
986.7000;0.5967;0.9913;
987.0000;0.5926;0.9936;
987.3000;0.5942;0.9936;
987.6000;0.5999;0.9959;
987.9000;0.5942;0.9866;
988.2000;0.5950;0.9936;
988.5000;0.5950;0.9889;
988.8000;0.5893;0.9773;
989.1000;0.5958;0.9913;
989.4000;0.5885;0.9703;
989.7000;0.5958;0.9936;
990.0000;0.5967;0.9959;
990.3000;0.5942;1.0029;
990.6000;0.5926;0.9936;
990.9000;0.5967;1.0006;
991.2000;0.5967;0.9959;
991.5000;0.5967;0.9959;
991.8000;0.5942;0.9796;
992.1000;0.5926;0.9749;
992.4000;0.5950;0.9843;
992.7000;0.5967;0.9936;
993.0000;0.5950;0.9959;
993.3000;0.5934;0.9889;
993.6000;0.5942;0.9796;
993.9000;0.5958;0.9796;
994.2000;0.5942;0.9819;
994.5000;0.5926;0.9866;
994.8000;0.5942;0.9889;
995.1000;0.5950;0.9843;
995.4000;0.5958;0.9796;
995.7000;0.5958;0.9819;
996.0000;0.5942;0.9749;
996.3000;0.5967;0.9703;
996.6000;0.5926;0.9609;
996.9000;0.5950;0.9749;
997.2000;0.5950;0.9773;
997.5000;0.5942;0.9796;
997.8000;0.5958;0.9866;
998.1000;0.5926;0.9866;
998.4000;0.5934;0.9913;
998.7000;0.5967;0.9936;
999.0000;0.5950;0.9866;
999.3000;0.5942;0.9819;
999.6000;0.5950;0.9843;
999.9000;0.5958;0.9889;
1000.2000;0.6007;0.9983;
1000.5000;0.5983;0.9866;
1000.8000;0.5950;0.9726;
1001.1000;0.5958;0.9796;
1001.4000;0.5910;0.9679;
1001.7000;0.5934;0.9656;
1002.0000;0.5950;0.9609;
1002.3000;0.5934;0.9656;
1002.6000;0.5958;0.9726;
1002.9000;0.5950;0.9749;
1003.2000;0.5950;0.9749;
1003.5000;0.5934;0.9749;
1003.8000;0.5950;0.9679;
1004.1000;0.5950;0.9679;
1004.4000;0.5950;0.9726;
1004.7000;0.5950;0.9726;
1005.0000;0.5926;0.9679;
1005.3000;0.5893;0.9633;
1005.6000;0.5942;0.9843;
1005.9000;0.5942;0.9913;
1006.2000;0.5934;0.9913;
1006.5000;0.5967;0.9889;
1006.8000;0.5950;0.9773;
1007.1000;0.5950;0.9843;
1007.4000;0.5942;0.9889;
1007.7000;0.5934;0.9819;
1008.0000;0.5926;0.9773;
1008.3000;0.5926;0.9679;
1008.6000;0.5926;0.9679;
1008.9000;0.5950;0.9773;
1009.2000;0.5958;0.9749;
1009.5000;0.5950;0.9679;
1009.8000;0.5950;0.9726;
1010.1000;0.5910;0.9633;
1010.4000;0.5983;0.9796;
1010.7000;0.5942;0.9679;
1011.0000;0.5934;0.9679;
1011.3000;0.5942;0.9726;
1011.6000;0.5950;0.9773;
1011.9000;0.5934;0.9749;
1012.2000;0.6015;1.0006;
1012.5000;0.5861;0.9703;
1012.8000;0.5942;0.9726;
1013.1000;0.5958;0.9843;
1013.4000;0.5934;0.9843;
1013.7000;0.5942;0.9819;
1014.0000;0.5950;0.9843;
1014.3000;0.5918;0.9843;
1014.6000;0.5926;0.9866;
1014.9000;0.5926;0.9913;
1015.2000;0.5910;0.9866;
1015.5000;0.5934;0.9959;
1015.8000;0.5926;1.0006;
1016.1000;0.5926;0.9959;
1016.4000;0.5926;0.9959;
1016.7000;0.5918;0.9936;
1017.0000;0.5942;0.9936;
1017.3000;0.5918;0.9959;
1017.6000;0.5934;0.9866;
1017.9000;0.5934;0.9773;
1018.2000;0.5934;0.9749;
1018.5000;0.5950;0.9773;
1018.8000;0.5934;0.9656;
1019.1000;0.5958;0.9726;
1019.4000;0.5934;0.9609;
1019.7000;0.5967;0.9609;
1020.0000;0.5958;0.9656;
1020.3000;0.5958;0.9656;
1020.6000;0.5934;0.9679;
1020.9000;0.5950;0.9749;
1021.2000;0.5902;0.9656;
1021.5000;0.5950;0.9749;
1021.8000;0.5958;0.9796;
1022.1000;0.5942;0.9703;
1022.4000;0.6007;0.9866;
1022.7000;0.5934;0.9679;
1023.0000;0.5934;0.9749;
1023.3000;0.5942;0.9796;
1023.6000;0.5934;0.9726;
1023.9000;0.5934;0.9749;
1024.2000;0.5902;0.9679;
1024.5000;0.5926;0.9749;
1024.8000;0.5958;0.9866;
1025.1000;0.5950;0.9819;
1025.4000;0.5958;0.9796;
1025.7000;0.5958;0.9749;
1026.0000;0.5934;0.9726;
1026.3000;0.5885;0.9656;
1026.6000;0.5967;0.9936;
1026.9000;0.5934;0.9983;
1027.2000;0.5918;1.0006;
1027.5000;0.5902;0.9936;
1027.8000;0.5942;0.9983;
1028.1000;0.5942;0.9959;
1028.4000;0.5885;0.9983;
1028.7000;0.5934;1.0076;
1029.0000;0.5926;0.9983;
1029.3000;0.6040;1.0262;
1029.6000;0.5950;1.0029;
1029.9000;0.5950;1.0029;
1030.2000;0.5942;0.9936;
1030.5000;0.5942;0.9959;
1030.8000;0.5942;1.0076;
1031.1000;0.5975;1.0122;
1031.4000;0.5967;1.0029;
1031.7000;0.5991;1.0099;
1032.0000;0.5926;0.9959;
1032.3000;0.5958;1.0099;
1032.6000;0.5918;0.9983;
1032.9000;0.5950;1.0029;
1033.2000;0.5967;1.0099;
1033.5000;0.5926;0.9983;
1033.8000;0.5950;1.0029;
1034.1000;0.6056;1.0332;
1034.4000;0.5926;1.0029;
1034.7000;0.5991;1.0146;
1035.0000;0.5950;0.9983;
1035.3000;0.5934;0.9889;
1035.6000;0.5853;0.9656;
1035.9000;0.5950;0.9843;
1036.2000;0.5910;0.9679;
1036.5000;0.5885;0.9563;
1036.8000;0.5958;0.9726;
1037.1000;0.6007;0.9843;
1037.4000;0.5958;0.9703;
1037.7000;0.5950;0.9819;
1038.0000;0.5999;0.9959;
1038.3000;0.5942;0.9889;
1038.6000;0.5934;0.9936;
1038.9000;0.5950;0.9866;
1039.2000;0.5950;0.9889;
1039.5000;0.5942;0.9889;
1039.8000;0.5942;0.9983;
1040.1000;0.5942;1.0006;
1040.4000;0.5934;1.0006;
1040.7000;0.5950;1.0053;
1041.0000;0.5942;0.9959;
1041.3000;0.5934;0.9796;
1041.6000;0.5934;0.9773;
1041.9000;0.5950;0.9843;
1042.2000;0.5958;0.9889;
1042.5000;0.5958;0.9913;
1042.8000;0.5950;0.9913;
1043.1000;0.5958;0.9936;
1043.4000;0.5942;0.9889;
1043.7000;0.5958;0.9866;
1044.0000;0.5967;0.9796;
1044.3000;0.5983;0.9843;
1044.6000;0.5942;0.9773;
1044.9000;0.5950;0.9866;
1045.2000;0.5967;0.9913;
1045.5000;0.5958;0.9913;
1045.8000;0.5942;0.9936;
1046.1000;0.5934;0.9866;
1046.4000;0.5950;0.9913;
1046.7000;0.5950;0.9843;
1047.0000;0.5942;0.9796;
1047.3000;0.5918;0.9703;
1047.6000;0.5958;0.9679;
1047.9000;0.5918;0.9656;
1048.2000;0.5991;0.9866;
1048.5000;0.5934;0.9773;
1048.8000;0.5942;0.9819;
1049.1000;0.5950;0.9796;
1049.4000;0.5926;0.9796;
1049.7000;0.5934;0.9726;
1050.0000;0.5950;0.9609;
1050.3000;0.5975;0.9773;
1050.6000;0.5918;0.9633;
1050.9000;0.5926;0.9656;
1051.2000;0.5918;0.9679;
1051.5000;0.5918;0.9726;
1051.8000;0.5918;0.9796;
1052.1000;0.5934;0.9819;
1052.4000;0.5926;0.9889;
1052.7000;0.5950;0.9936;
1053.0000;0.5950;0.9959;
1053.3000;0.5910;0.9843;
1053.6000;0.5926;0.9959;
1053.9000;0.5950;0.9983;
1054.2000;0.5934;0.9913;
1054.5000;0.5950;0.9936;
1054.8000;0.5934;0.9819;
1055.1000;0.5934;0.9749;
1055.4000;0.5934;0.9749;
1055.7000;0.5877;0.9609;
1056.0000;0.5934;0.9796;
1056.3000;0.5942;0.9749;
1056.6000;0.6007;0.9936;
1056.9000;0.5950;0.9656;
1057.2000;0.5934;0.9633;
1057.5000;0.5950;0.9656;
1057.8000;0.5958;0.9679;
1058.1000;0.5999;0.9633;
1058.4000;0.5958;0.9539;
1058.7000;0.5918;0.9516;
1059.0000;0.5942;0.9633;
1059.3000;0.5958;0.9609;
1059.6000;0.5950;0.9563;
1059.9000;0.5950;0.9633;
1060.2000;0.5950;0.9656;
1060.5000;0.5918;0.9563;
1060.8000;0.5958;0.9726;
1061.1000;0.5926;0.9586;
1061.4000;0.5958;0.9749;
1061.7000;0.5958;0.9843;
1062.0000;0.5942;0.9819;
1062.3000;0.5926;0.9773;
1062.6000;0.5918;0.9726;
1062.9000;0.5942;0.9726;
1063.2000;0.5958;0.9796;
1063.5000;0.5918;0.9749;
1063.8000;0.5926;0.9749;
1064.1000;0.5999;0.9959;
1064.4000;0.5918;0.9796;
1064.7000;0.5942;0.9913;
1065.0000;0.5926;0.9843;
1065.3000;0.5950;0.9889;
1065.6000;0.5926;0.9866;
1065.9000;0.5934;0.9959;
1066.2000;0.5902;0.9796;
1066.5000;0.5942;0.9889;
1066.8000;0.5934;0.9936;
1067.1000;0.5910;0.9889;
1067.4000;0.5934;0.9913;
1067.7000;0.5910;0.9866;
1068.0000;0.5967;0.9866;
1068.3000;0.5942;0.9819;
1068.6000;0.5942;0.9796;
1068.9000;0.5934;0.9796;
1069.2000;0.5934;0.9773;
1069.5000;0.5885;0.9609;
1069.8000;0.5893;0.9633;
1070.1000;0.5918;0.9679;
1070.4000;0.5950;0.9773;
1070.7000;0.5958;0.9843;
1071.0000;0.5910;0.9866;
1071.3000;0.5918;0.9866;
1071.6000;0.5942;0.9936;
1071.9000;0.5910;0.9866;
1072.2000;0.5942;1.0006;
1072.5000;0.5950;0.9889;
1072.8000;0.5950;0.9959;
1073.1000;0.5926;0.9936;
1073.4000;0.5958;0.9913;
1073.7000;0.5942;0.9843;
1074.0000;0.5958;0.9913;
1074.3000;0.5869;0.9656;
1074.6000;0.5958;0.9819;
1074.9000;0.5934;0.9679;
1075.2000;0.5934;0.9749;
1075.5000;0.5934;0.9773;
1075.8000;0.5967;0.9843;
1076.1000;0.5934;0.9889;
1076.4000;0.5934;0.9959;
1076.7000;0.5918;0.9796;
1077.0000;0.5910;0.9843;
1077.3000;0.5926;0.9889;
1077.6000;0.5934;0.9866;
1077.9000;0.5918;0.9796;
1078.2000;0.5934;0.9889;
1078.5000;0.5942;0.9866;
1078.8000;0.5950;0.9889;
1079.1000;0.5902;0.9679;
1079.4000;0.5910;0.9679;
1079.7000;0.5934;0.9749;
1080.0000;0.5934;0.9796;
1080.3000;0.5926;0.9796;
1080.6000;0.5967;0.9913;
1080.9000;0.5934;0.9819;
1081.2000;0.5975;0.9773;
1081.5000;0.5942;0.9749;
1081.8000;0.5934;0.9749;
1082.1000;0.5983;0.9773;
1082.4000;0.5975;0.9773;
1082.7000;0.5975;0.9749;
1083.0000;0.5958;0.9703;
1083.3000;0.5950;0.9563;
1083.6000;0.5926;0.9469;
1083.9000;0.5926;0.9493;
1084.2000;0.5999;0.9679;
1084.5000;0.5999;0.9586;
1084.8000;0.5934;0.9493;
1085.1000;0.5918;0.9586;
1085.4000;0.5918;0.9609;
1085.7000;0.5942;0.9749;
1086.0000;0.5926;0.9726;
1086.3000;0.5942;0.9656;
1086.6000;0.5926;0.9726;
1086.9000;0.5934;0.9796;
1087.2000;0.5950;0.9866;
1087.5000;0.5926;0.9866;
1087.8000;0.5942;0.9819;
1088.1000;0.5926;0.9819;
1088.4000;0.5934;0.9889;
1088.7000;0.5958;0.9889;
1089.0000;0.5926;0.9796;
1089.3000;0.5934;0.9843;
1089.6000;0.5926;0.9796;
1089.9000;0.5950;0.9866;
1090.2000;0.5950;0.9843;
1090.5000;0.5934;0.9819;
1090.8000;0.5926;0.9819;
1091.1000;0.5926;0.9819;
1091.4000;0.5942;0.9843;
1091.7000;0.5950;0.9749;
1092.0000;0.5926;0.9679;
1092.3000;0.5942;0.9796;
1092.6000;0.5967;0.9889;
1092.9000;0.5967;0.9959;
1093.2000;0.5942;0.9983;
1093.5000;0.5934;1.0006;
1093.8000;0.5893;0.9843;
1094.1000;0.5942;0.9936;
1094.4000;0.5950;0.9819;
1094.7000;0.5934;0.9796;
1095.0000;0.5926;0.9819;
1095.3000;0.5983;1.0053;
1095.6000;0.5991;1.0029;
1095.9000;0.5950;0.9936;
1096.2000;0.5958;0.9889;
1096.5000;0.5926;0.9819;
1096.8000;0.5942;0.9819;
1097.1000;0.5885;0.9656;
1097.4000;0.5934;0.9866;
1097.7000;0.5958;0.9936;
1098.0000;0.5926;0.9889;
1098.3000;0.5991;0.9983;
1098.6000;0.5885;0.9819;
1098.9000;0.5958;0.9913;
1099.2000;0.5934;0.9773;
1099.5000;0.5950;0.9656;
1099.8000;0.5934;0.9633;
1100.1000;0.5942;0.9796;
1100.4000;0.5934;0.9866;
1100.7000;0.5926;0.9726;
1101.0000;0.5934;0.9796;
1101.3000;0.5926;0.9703;
1101.6000;0.5853;0.9563;
1101.9000;0.5934;0.9796;
1102.2000;0.5918;0.9773;
1102.5000;0.5918;0.9819;
1102.8000;0.5918;0.9819;
1103.1000;0.5942;0.9913;
1103.4000;0.5991;0.9936;
1103.7000;0.5893;0.9749;
1104.0000;0.5942;0.9889;
1104.3000;0.5950;0.9913;
1104.6000;0.5983;1.0006;
1104.9000;0.5926;0.9913;
1105.2000;0.5950;0.9889;
1105.5000;0.5958;0.9913;
1105.8000;0.5934;0.9703;
1106.1000;0.5918;0.9679;
1106.4000;0.5950;0.9773;
1106.7000;0.5950;0.9796;
1107.0000;0.5910;0.9749;
1107.3000;0.5910;0.9703;
1107.6000;0.5926;0.9726;
1107.9000;0.5934;0.9796;
1108.2000;0.5926;0.9796;
1108.5000;0.5926;0.9796;
1108.8000;0.5958;0.9983;
1109.1000;0.5942;1.0006;
1109.4000;0.5910;0.9936;
1109.7000;0.5836;0.9749;
1110.0000;0.5918;0.9819;
1110.3000;0.5950;0.9913;
1110.6000;0.5942;0.9819;
1110.9000;0.5942;0.9819;
1111.2000;0.5926;0.9866;
1111.5000;0.5934;1.0006;
1111.8000;0.5934;0.9983;
1112.1000;0.5934;0.9983;
1112.4000;0.5926;0.9983;
1112.7000;0.5918;0.9959;
1113.0000;0.5950;1.0053;
1113.3000;0.5950;1.0053;
1113.6000;0.5926;0.9866;
1113.9000;0.5926;0.9889;
1114.2000;0.5934;0.9889;
1114.5000;0.5934;0.9843;
1114.8000;0.5918;0.9843;
1115.1000;0.5942;0.9889;
1115.4000;0.5934;0.9936;
1115.7000;0.5942;0.9936;
1116.0000;0.5934;0.9889;
1116.3000;0.5926;0.9866;
1116.6000;0.5950;0.9913;
1116.9000;0.5926;0.9796;
1117.2000;0.5926;0.9749;
1117.5000;0.5926;0.9796;
1117.8000;0.5942;0.9866;
1118.1000;0.5942;0.9913;
1118.4000;0.5942;0.9913;
1118.7000;0.5942;0.9913;
1119.0000;0.5967;1.0006;
1119.3000;0.5902;0.9866;
1119.6000;0.5942;0.9983;
1119.9000;0.5934;0.9913;
1120.2000;0.5942;0.9936;
1120.5000;0.6007;1.0122;
1120.8000;0.5893;0.9936;
1121.1000;0.5853;0.9819;
1121.4000;0.5926;0.9983;
1121.7000;0.5934;1.0006;
1122.0000;0.5934;0.9936;
1122.3000;0.5861;0.9796;
1122.6000;0.5934;0.9936;
1122.9000;0.5918;0.9889;
1123.2000;0.5934;0.9913;
1123.5000;0.5926;0.9889;
1123.8000;0.5926;0.9866;
1124.1000;0.5918;0.9913;
1124.4000;0.5942;1.0029;
1124.7000;0.5926;0.9983;
1125.0000;0.5910;0.9959;
1125.3000;0.5934;1.0053;
1125.6000;0.5869;0.9959;
1125.9000;0.5950;1.0099;
1126.2000;0.5934;0.9983;
1126.5000;0.5877;0.9843;
1126.8000;0.5975;0.9913;
1127.1000;0.5934;0.9773;
1127.4000;0.5942;0.9796;
1127.7000;0.5950;0.9866;
1128.0000;0.5942;0.9866;
1128.3000;0.5967;0.9819;
1128.6000;0.5910;0.9703;
1128.9000;0.5934;0.9819;
1129.2000;0.5942;0.9773;
1129.5000;0.5877;0.9586;
1129.8000;0.6032;0.9959;
1130.1000;0.5950;0.9773;
1130.4000;0.5942;0.9913;
1130.7000;0.5926;0.9959;
1131.0000;0.5950;1.0006;
1131.3000;0.5942;0.9936;
1131.6000;0.5926;0.9936;
1131.9000;0.5902;0.9819;
1132.2000;0.5967;0.9913;
1132.5000;0.5942;0.9866;
1132.8000;0.5918;0.9866;
1133.1000;0.5910;0.9796;
1133.4000;0.5942;0.9819;
1133.7000;0.5942;0.9819;
1134.0000;0.5942;0.9819;
1134.3000;0.5926;0.9749;
1134.6000;0.5934;0.9796;
1134.9000;0.5934;0.9819;
1135.2000;0.5918;0.9843;
1135.5000;0.5934;0.9889;
1135.8000;0.5918;0.9913;
1136.1000;0.5926;0.9913;
1136.4000;0.5934;0.9889;
1136.7000;0.5902;0.9796;
1137.0000;0.5934;0.9773;
1137.3000;0.5942;0.9796;
1137.6000;0.5950;0.9843;
1137.9000;0.5942;0.9866;
1138.2000;0.5926;0.9843;
1138.5000;0.5942;0.9866;
1138.8000;0.5942;0.9983;
1139.1000;0.5877;0.9866;
1139.4000;0.5918;0.9866;
1139.7000;0.5942;0.9843;
1140.0000;0.5950;0.9773;
1140.3000;0.5918;0.9703;
1140.6000;0.5942;0.9773;
1140.9000;0.5926;0.9796;
1141.2000;0.5934;0.9796;
1141.5000;0.5958;0.9819;
1141.8000;0.5950;0.9843;
1142.1000;0.5958;0.9796;
1142.4000;0.6015;0.9959;
1142.7000;0.5910;0.9679;
1143.0000;0.5918;0.9819;
1143.3000;0.5975;0.9913;
1143.6000;0.5950;0.9913;
1143.9000;0.5918;0.9936;
1144.2000;0.5918;1.0029;
1144.5000;0.5967;1.0192;
1144.8000;0.5926;1.0099;
1145.1000;0.5934;1.0099;
1145.4000;0.5926;1.0029;
1145.7000;0.5950;1.0076;
1146.0000;0.5926;1.0006;
1146.3000;0.5942;1.0076;
1146.6000;0.5934;1.0146;
1146.9000;0.5918;1.0029;
1147.2000;0.5926;1.0053;
1147.5000;0.5918;1.0029;
1147.8000;0.5934;0.9983;
1148.1000;0.5934;1.0006;
1148.4000;0.5918;0.9983;
1148.7000;0.5902;0.9959;
1149.0000;0.5934;0.9983;
1149.3000;0.5926;1.0006;
1149.6000;0.5918;0.9936;
1149.9000;0.5934;1.0006;
1150.2000;0.5918;1.0029;
1150.5000;0.5926;1.0029;
1150.8000;0.5934;1.0076;
1151.1000;0.5950;1.0006;
1151.4000;0.5975;1.0053;
1151.7000;0.5942;1.0006;
1152.0000;0.5942;1.0006;
1152.3000;0.5983;1.0169;
1152.6000;0.5999;1.0216;
1152.9000;0.5967;1.0029;
1153.2000;0.5910;0.9819;
1153.5000;0.5910;0.9843;
1153.8000;0.5942;0.9913;
1154.1000;0.5942;0.9843;
1154.4000;0.5950;0.9819;
1154.7000;0.5934;0.9819;
1155.0000;0.5934;0.9866;
1155.3000;0.5934;0.9866;
1155.6000;0.5926;0.9819;
1155.9000;0.5926;0.9773;
1156.2000;0.5934;0.9796;
1156.5000;0.5910;0.9796;
1156.8000;0.5934;0.9843;
1157.1000;0.5942;1.0006;
1157.4000;0.5934;0.9913;
1157.7000;0.5942;0.9889;
1158.0000;0.5950;1.0006;
1158.3000;0.5926;1.0029;
1158.6000;0.5910;0.9889;
1158.9000;0.5942;0.9913;
1159.2000;0.5926;0.9866;
1159.5000;0.5950;0.9889;
1159.8000;0.5950;0.9959;
1160.1000;0.5926;0.9959;
1160.4000;0.5918;0.9913;
1160.7000;0.5926;1.0006;
1161.0000;0.5934;1.0053;
1161.3000;0.6024;1.0332;
1161.6000;0.5934;1.0053;
1161.9000;0.5934;1.0053;
1162.2000;0.5926;0.9936;
1162.5000;0.5934;0.9773;
1162.8000;0.5910;0.9703;
1163.1000;0.5950;0.9749;
1163.4000;0.5893;0.9773;
1163.7000;0.5934;0.9889;
1164.0000;0.5950;0.9913;
1164.3000;0.5950;0.9936;
1164.6000;0.5942;0.9959;
1164.9000;0.5918;0.9889;
1165.2000;0.5942;0.9913;
1165.5000;0.5942;0.9959;
1165.8000;0.5918;1.0029;
1166.1000;0.5934;1.0099;
1166.4000;0.5902;1.0099;
1166.7000;0.5934;1.0053;
1167.0000;0.5926;1.0053;
1167.3000;0.5893;0.9749;
1167.6000;0.5926;0.9773;
1167.9000;0.5926;0.9796;
1168.2000;0.5926;0.9726;
1168.5000;0.5918;0.9703;
1168.8000;0.5910;0.9726;
1169.1000;0.5902;0.9703;
1169.4000;0.5926;0.9773;
1169.7000;0.5934;0.9843;
1170.0000;0.5812;0.9446;
1170.3000;0.5926;0.9749;
1170.6000;0.5910;0.9726;
1170.9000;0.5926;0.9843;
1171.2000;0.5910;0.9866;
1171.5000;0.5918;0.9796;
1171.8000;0.5910;0.9773;
1172.1000;0.5926;0.9913;
1172.4000;0.5869;0.9703;
1172.7000;0.5967;0.9843;
1173.0000;0.5918;0.9866;
1173.3000;0.5910;0.9843;
1173.6000;0.5950;0.9913;
1173.9000;0.5926;0.9843;
1174.2000;0.5910;0.9819;
1174.5000;0.5942;0.9843;
1174.8000;0.5910;0.9796;
1175.1000;0.5918;0.9866;
1175.4000;0.5934;0.9889;
1175.7000;0.5934;0.9866;
1176.0000;0.5942;0.9843;
1176.3000;0.5950;0.9819;
1176.6000;0.5926;0.9749;
1176.9000;0.5910;0.9656;
1177.2000;0.5934;0.9703;
1177.5000;0.5934;0.9633;
1177.8000;0.5861;0.9469;
1178.1000;0.5934;0.9703;
1178.4000;0.5918;0.9726;
1178.7000;0.5934;0.9843;
1179.0000;0.5910;0.9773;
1179.3000;0.5918;0.9796;
1179.6000;0.5926;0.9796;
1179.9000;0.5910;0.9819;
1180.2000;0.5926;0.9843;
1180.5000;0.5934;0.9843;
1180.8000;0.5877;0.9656;
1181.1000;0.5967;0.9749;
1181.4000;0.5942;0.9563;
1181.7000;0.5942;0.9493;
1182.0000;0.5926;0.9493;
1182.3000;0.5918;0.9563;
1182.6000;0.5934;0.9586;
1182.9000;0.5958;0.9726;
1183.2000;0.5934;0.9679;
1183.5000;0.5958;0.9703;
1183.8000;0.5918;0.9749;
1184.1000;0.5926;0.9703;
1184.4000;0.5918;0.9726;
1184.7000;0.5958;0.9889;
1185.0000;0.5934;0.9936;
1185.3000;0.6032;1.0192;
1185.6000;0.5942;0.9959;
1185.9000;0.5893;0.9913;
1186.2000;0.5942;1.0029;
1186.5000;0.5926;0.9983;
1186.8000;0.5934;1.0006;
1187.1000;0.5902;0.9866;
1187.4000;0.5991;1.0029;
1187.7000;0.5983;0.9959;
1188.0000;0.5910;0.9749;
1188.3000;0.5934;0.9796;
1188.6000;0.5885;0.9656;
1188.9000;0.5926;0.9726;
1189.2000;0.5926;0.9679;
1189.5000;0.5918;0.9749;
1189.8000;0.5926;0.9796;
1190.1000;0.5950;0.9936;
1190.4000;0.5934;0.9936;
1190.7000;0.5942;0.9913;
1191.0000;0.5942;0.9936;
1191.3000;0.5910;0.9703;
1191.6000;0.5926;0.9679;
1191.9000;0.5910;0.9726;
1192.2000;0.5926;0.9773;
1192.5000;0.5942;0.9679;
1192.8000;0.5861;0.9633;
1193.1000;0.5910;0.9679;
1193.4000;0.5926;0.9703;
1193.7000;0.5902;0.9633;
1194.0000;0.5926;0.9633;
1194.3000;0.5910;0.9609;
1194.6000;0.5926;0.9703;
1194.9000;0.5942;0.9679;
1195.2000;0.5942;0.9656;
1195.5000;0.5910;0.9633;
1195.8000;0.5967;0.9796;
1196.1000;0.5942;0.9773;
1196.4000;0.5902;0.9656;
1196.7000;0.5934;0.9679;
1197.0000;0.5934;0.9609;
1197.3000;0.5942;0.9563;
1197.6000;0.5942;0.9539;
1197.9000;0.5926;0.9563;
1198.2000;0.5934;0.9563;
1198.5000;0.5918;0.9469;
1198.8000;0.5885;0.9423;
1199.1000;0.5942;0.9586;
1199.4000;0.5918;0.9539;
1199.7000;0.5942;0.9539;
1200.0000;0.5926;0.9493;
1200.3000;0.5934;0.9493;
1200.6000;0.5942;0.9539;
1200.9000;0.5942;0.9609;
1201.2000;0.5934;0.9609;
1201.5000;0.5934;0.9633;
1201.8000;0.5975;0.9819;
1202.1000;0.5910;0.9703;
1202.4000;0.5926;0.9796;
1202.7000;0.5910;0.9819;
1203.0000;0.5926;0.9866;
1203.3000;0.5950;0.9889;
1203.6000;0.5918;0.9796;
1203.9000;0.5918;0.9773;
1204.2000;0.5910;0.9796;
1204.5000;0.5918;0.9819;
1204.8000;0.5983;0.9936;
1205.1000;0.5902;0.9773;
1205.4000;0.5942;0.9703;
1205.7000;0.5902;0.9633;
1206.0000;0.5942;0.9679;
1206.3000;0.5926;0.9703;
1206.6000;0.5942;0.9796;
1206.9000;0.5950;0.9773;
1207.2000;0.5934;0.9749;
1207.5000;0.5942;0.9679;
1207.8000;0.5942;0.9773;
1208.1000;0.5902;0.9773;
1208.4000;0.5950;0.9913;
1208.7000;0.5934;0.9749;
1209.0000;0.5958;0.9773;
1209.3000;0.5958;0.9749;
1209.6000;0.5934;0.9679;
1209.9000;0.5885;0.9633;
1210.2000;0.5934;0.9703;
1210.5000;0.5934;0.9703;
1210.8000;0.5950;0.9703;
1211.1000;0.5877;0.9563;
1211.4000;0.5934;0.9703;
1211.7000;0.5926;0.9679;
1212.0000;0.5918;0.9586;
1212.3000;0.5861;0.9516;
1212.6000;0.5926;0.9679;
1212.9000;0.5950;0.9656;
1213.2000;0.5934;0.9586;
1213.5000;0.5950;0.9563;
1213.8000;0.5934;0.9516;
1214.1000;0.5934;0.9586;
1214.4000;0.5869;0.9446;
1214.7000;0.5893;0.9469;
1215.0000;0.5918;0.9563;
1215.3000;0.5934;0.9563;
1215.6000;0.5958;0.9703;
1215.9000;0.5926;0.9656;
1216.2000;0.5926;0.9633;
1216.5000;0.5926;0.9703;
1216.8000;0.5926;0.9679;
1217.1000;0.5934;0.9633;
1217.4000;0.5934;0.9633;
1217.7000;0.5902;0.9633;
1218.0000;0.5926;0.9679;
1218.3000;0.5942;0.9726;
1218.6000;0.5918;0.9656;
1218.9000;0.5942;0.9633;
1219.2000;0.5934;0.9679;
1219.5000;0.5934;0.9633;
1219.8000;0.5910;0.9586;
1220.1000;0.5926;0.9703;
1220.4000;0.5934;0.9796;
1220.7000;0.5942;0.9749;
1221.0000;0.5950;0.9749;
1221.3000;0.5918;0.9703;
1221.6000;0.5942;0.9819;
1221.9000;0.6024;0.9959;
1222.2000;0.5975;0.9703;
1222.5000;0.5918;0.9563;
1222.8000;0.5902;0.9493;
1223.1000;0.5983;0.9726;
1223.4000;0.5950;0.9749;
1223.7000;0.5918;0.9656;
1224.0000;0.5910;0.9609;
1224.3000;0.5958;0.9633;
1224.6000;0.6015;0.9773;
1224.9000;0.5926;0.9656;
1225.2000;0.5983;0.9749;
1225.5000;0.5902;0.9586;
1225.8000;0.5934;0.9656;
1226.1000;0.6007;0.9843;
1226.4000;0.5902;0.9633;
1226.7000;0.5885;0.9679;
1227.0000;0.5910;0.9679;
1227.3000;0.5902;0.9726;
1227.6000;0.5918;0.9773;
1227.9000;0.5918;0.9819;
1228.2000;0.5926;0.9819;
1228.5000;0.5942;0.9866;
1228.8000;0.5934;0.9866;
1229.1000;0.5926;0.9843;
1229.4000;0.5926;0.9796;
1229.7000;0.5934;0.9843;
1230.0000;0.5926;0.9866;
1230.3000;0.5926;0.9866;
1230.6000;0.5934;0.9866;
1230.9000;0.5893;0.9726;
1231.2000;0.5934;0.9889;
1231.5000;0.5926;0.9773;
1231.8000;0.5950;0.9843;
1232.1000;0.5950;0.9819;
1232.4000;0.5950;0.9796;
1232.7000;0.5934;0.9796;
1233.0000;0.5942;0.9843;
1233.3000;0.5934;0.9866;
1233.6000;0.5950;0.9983;
1233.9000;0.5869;0.9796;
1234.2000;0.5910;0.9819;
1234.5000;0.5934;0.9889;
1234.8000;0.5926;0.9866;
1235.1000;0.5918;0.9866;
1235.4000;0.5918;0.9819;
1235.7000;0.5926;0.9773;
1236.0000;0.5910;0.9749;
1236.3000;0.5918;0.9773;
1236.6000;0.5910;0.9749;
1236.9000;0.5934;0.9796;
1237.2000;0.5934;0.9866;
1237.5000;0.5885;0.9726;
1237.8000;0.5934;0.9843;
1238.1000;0.5926;0.9913;
1238.4000;0.5910;0.9936;
1238.7000;0.5926;0.9889;
1239.0000;0.5926;0.9889;
1239.3000;0.5934;0.9913;
1239.6000;0.5910;0.9843;
1239.9000;0.5918;0.9913;
1240.2000;0.5910;0.9913;
1240.5000;0.5910;0.9983;
1240.8000;0.5910;1.0006;
1241.1000;0.5918;1.0076;
1241.4000;0.5926;1.0053;
1241.7000;0.5967;1.0099;
1242.0000;0.5918;0.9889;
1242.3000;0.5926;0.9913;
1242.6000;0.5926;0.9913;
1242.9000;0.5918;0.9959;
1243.2000;0.5902;0.9913;
1243.5000;0.5910;0.9889;
1243.8000;0.5910;0.9889;
1244.1000;0.5934;0.9913;
1244.4000;0.5902;0.9866;
1244.7000;0.5926;0.9983;
1245.0000;0.5910;0.9983;
1245.3000;0.5950;1.0076;
1245.6000;0.5934;1.0029;
1245.9000;0.5926;1.0029;
1246.2000;0.5934;0.9936;
1246.5000;0.5942;0.9959;
1246.8000;0.5926;0.9866;
1247.1000;0.5934;0.9889;
1247.4000;0.5893;0.9749;
1247.7000;0.5934;0.9843;
1248.0000;0.5934;0.9819;
1248.3000;0.5910;0.9773;
1248.6000;0.5926;0.9796;
1248.9000;0.5934;0.9796;
1249.2000;0.5918;0.9819;
1249.5000;0.5918;0.9773;
1249.8000;0.5934;0.9889;
1250.1000;0.5918;0.9889;
1250.4000;0.5926;0.9866;
1250.7000;0.5918;0.9773;
1251.0000;0.5918;0.9819;
1251.3000;0.5926;0.9843;
1251.6000;0.5926;0.9819;
1251.9000;0.5942;0.9749;
1252.2000;0.5926;0.9679;
1252.5000;0.5934;0.9773;
1252.8000;0.5926;0.9773;
1253.1000;0.5934;0.9796;
1253.4000;0.5893;0.9773;
1253.7000;0.5926;0.9796;
1254.0000;0.5958;0.9819;
1254.3000;0.5910;0.9726;
1254.6000;0.5869;0.9516;
1254.9000;0.5934;0.9679;
1255.2000;0.5934;0.9633;
1255.5000;0.5934;0.9633;
1255.8000;0.5845;0.9469;
1256.1000;0.5934;0.9703;
1256.4000;0.5950;0.9749;
1256.7000;0.5950;0.9703;
1257.0000;0.5934;0.9773;
1257.3000;0.5893;0.9749;
1257.6000;0.5934;0.9819;
1257.9000;0.5983;0.9983;
1258.2000;0.5926;0.9866;
1258.5000;0.5910;0.9703;
1258.8000;0.5926;0.9679;
1259.1000;0.5942;0.9656;
1259.4000;0.5926;0.9586;
1259.7000;0.5926;0.9586;
1260.0000;0.5934;0.9609;
1260.3000;0.6015;0.9913;
1260.6000;0.5958;0.9796;
1260.9000;0.5926;0.9703;
1261.2000;0.5926;0.9796;
1261.5000;0.5885;0.9726;
1261.8000;0.5950;0.9819;
1262.1000;0.5926;0.9819;
1262.4000;0.5861;0.9726;
1262.7000;0.5918;0.9936;
1263.0000;0.5918;0.9936;
1263.3000;0.5853;0.9773;
1263.6000;0.5934;0.9843;
1263.9000;0.5918;0.9843;
1264.2000;0.5934;0.9843;
1264.5000;0.5999;0.9913;
1264.8000;0.5918;0.9726;
1265.1000;0.5926;0.9796;
1265.4000;0.5926;0.9819;
1265.7000;0.5910;0.9889;
1266.0000;0.5926;0.9959;
1266.3000;0.5942;0.9983;
1266.6000;0.5934;0.9913;
1266.9000;0.5942;0.9843;
1267.2000;0.5918;0.9773;
1267.5000;0.5934;0.9866;
1267.8000;0.5942;0.9773;
1268.1000;0.5942;0.9796;
1268.4000;0.5918;0.9773;
1268.7000;0.5934;0.9773;
1269.0000;0.5934;0.9703;
1269.3000;0.5926;0.9703;
1269.6000;0.5934;0.9656;
1269.9000;0.5926;0.9749;
1270.2000;0.5926;0.9749;
1270.5000;0.5918;0.9726;
1270.8000;0.5926;0.9679;
1271.1000;0.5934;0.9703;
1271.4000;0.5926;0.9633;
1271.7000;0.5926;0.9703;
1272.0000;0.5934;0.9796;
1272.3000;0.5902;0.9796;
1272.6000;0.5918;0.9796;
1272.9000;0.5869;0.9679;
1273.2000;0.5902;0.9773;
1273.5000;0.5918;0.9773;
1273.8000;0.5942;0.9656;
1274.1000;0.5910;0.9516;
1274.4000;0.5934;0.9539;
1274.7000;0.5926;0.9376;
1275.0000;0.5918;0.9399;
1275.3000;0.5918;0.9493;
1275.6000;0.5926;0.9539;
1275.9000;0.5926;0.9516;
1276.2000;0.5926;0.9609;
1276.5000;0.5934;0.9633;
1276.8000;0.5926;0.9633;
1277.1000;0.5950;0.9563;
1277.4000;0.5942;0.9586;
1277.7000;0.5926;0.9633;
1278.0000;0.5934;0.9703;
1278.3000;0.5934;0.9703;
1278.6000;0.5893;0.9633;
1278.9000;0.5918;0.9656;
1279.2000;0.5885;0.9586;
1279.5000;0.5934;0.9633;
1279.8000;0.5934;0.9493;
1280.1000;0.5934;0.9563;
1280.4000;0.5926;0.9609;
1280.7000;0.5918;0.9493;
1281.0000;0.5942;0.9493;
1281.3000;0.5934;0.9469;
1281.6000;0.5918;0.9563;
1281.9000;0.5934;0.9633;
1282.2000;0.5950;0.9633;
1282.5000;0.5934;0.9703;
1282.8000;0.5918;0.9633;
1283.1000;0.5918;0.9656;
1283.4000;0.5926;0.9586;
1283.7000;0.5918;0.9633;
1284.0000;0.5934;0.9796;
1284.3000;0.5910;0.9633;
1284.6000;0.5967;0.9679;
1284.9000;0.5926;0.9633;
1285.2000;0.5918;0.9679;
1285.5000;0.5926;0.9656;
1285.8000;0.5910;0.9586;
1286.1000;0.5934;0.9656;
1286.4000;0.5918;0.9609;
1286.7000;0.5918;0.9516;
1287.0000;0.5926;0.9633;
1287.3000;0.6007;0.9796;
1287.6000;0.5942;0.9656;
1287.9000;0.5942;0.9726;
1288.2000;0.5926;0.9656;
1288.5000;0.5934;0.9679;
1288.8000;0.5877;0.9586;
1289.1000;0.5910;0.9609;
1289.4000;0.5910;0.9656;
1289.7000;0.5950;0.9703;
1290.0000;0.5950;0.9679;
1290.3000;0.5934;0.9726;
1290.6000;0.5934;0.9819;
1290.9000;0.5934;0.9843;
1291.2000;0.5918;0.9796;
1291.5000;0.5934;0.9796;
1291.8000;0.5942;0.9633;
1292.1000;0.5869;0.9493;
1292.4000;0.5942;0.9679;
1292.7000;0.5910;0.9586;
1293.0000;0.5934;0.9609;
1293.3000;0.5918;0.9563;
1293.6000;0.5934;0.9609;
1293.9000;0.6015;0.9796;
1294.2000;0.5893;0.9493;
1294.5000;0.5910;0.9469;
1294.8000;0.5918;0.9469;
1295.1000;0.5950;0.9563;
1295.4000;0.5934;0.9516;
1295.7000;0.6024;0.9656;
1296.0000;0.5958;0.9493;
1296.3000;0.6007;0.9703;
1296.6000;0.5942;0.9493;
1296.9000;0.5934;0.9493;
1297.2000;0.5934;0.9586;
1297.5000;0.5926;0.9679;
1297.8000;0.5958;0.9679;
1298.1000;0.5918;0.9586;
1298.4000;0.5926;0.9703;
1298.7000;0.5934;0.9796;
1299.0000;0.5910;0.9819;
1299.3000;0.5926;0.9866;
1299.6000;0.5918;0.9866;
1299.9000;0.5877;0.9889;
1300.2000;0.5934;1.0006;
1300.5000;0.5934;0.9936;
1300.8000;0.5902;0.9773;
1301.1000;0.5926;0.9819;
1301.4000;0.5910;0.9749;
1301.7000;0.5926;0.9796;
1302.0000;0.5902;0.9773;
1302.3000;0.5902;0.9843;
1302.6000;0.5910;0.9889;
1302.9000;0.5983;1.0053;
1303.2000;0.5934;0.9959;
1303.5000;0.5934;0.9983;
1303.8000;0.5918;0.9889;
1304.1000;0.5958;0.9913;
1304.4000;0.5934;0.9796;
1304.7000;0.5869;0.9656;
1305.0000;0.5910;0.9703;
1305.3000;0.5934;0.9749;
1305.6000;0.5902;0.9773;
1305.9000;0.5950;0.9866;
1306.2000;0.5918;0.9796;
1306.5000;0.5926;0.9773;
1306.8000;0.5926;0.9796;
1307.1000;0.5950;0.9866;
1307.4000;0.5934;0.9889;
1307.7000;0.5885;0.9726;
1308.0000;0.5926;0.9889;
1308.3000;0.5926;0.9866;
1308.6000;0.5918;0.9796;
1308.9000;0.5950;0.9796;
1309.2000;0.5958;0.9796;
1309.5000;0.5934;0.9749;
1309.8000;0.5942;0.9843;
1310.1000;0.5926;0.9796;
1310.4000;0.5942;0.9819;
1310.7000;0.5918;0.9726;
1311.0000;0.5942;0.9819;
1311.3000;0.5942;0.9773;
1311.6000;0.5926;0.9749;
1311.9000;0.5918;0.9749;
1312.2000;0.5934;0.9819;
1312.5000;0.5934;0.9796;
1312.8000;0.6015;0.9983;
1313.1000;0.5934;0.9889;
1313.4000;0.5934;0.9983;
1313.7000;0.5934;1.0076;
1314.0000;0.5958;1.0169;
1314.3000;0.5910;0.9983;
1314.6000;0.5950;1.0006;
1314.9000;0.5958;0.9983;
1315.2000;0.5942;0.9819;
1315.5000;0.5934;0.9796;
1315.8000;0.5950;0.9796;
1316.1000;0.5983;0.9819;
1316.4000;0.5934;0.9703;
1316.7000;0.5942;0.9703;
1317.0000;0.5942;0.9656;
1317.3000;0.5910;0.9609;
1317.6000;0.5910;0.9749;
1317.9000;0.5950;0.9889;
1318.2000;0.5918;0.9889;
1318.5000;0.5861;0.9703;
1318.8000;0.5902;0.9726;
1319.1000;0.5950;0.9773;
1319.4000;0.5942;0.9703;
1319.7000;0.5934;0.9586;
1320.0000;0.5910;0.9539;
1320.3000;0.5918;0.9539;
1320.6000;0.5950;0.9726;
1320.9000;0.5918;0.9703;
1321.2000;0.5910;0.9773;
1321.5000;0.5893;0.9843;
1321.8000;0.5918;0.9889;
1322.1000;0.5926;0.9889;
1322.4000;0.5926;0.9866;
1322.7000;0.5918;0.9819;
1323.0000;0.5902;0.9679;
1323.3000;0.5934;0.9796;
1323.6000;0.5910;0.9749;
1323.9000;0.5950;0.9889;
1324.2000;0.5934;0.9959;
1324.5000;0.5950;0.9959;
1324.8000;0.5910;0.9843;
1325.1000;0.5934;0.9913;
1325.4000;0.5918;0.9913;
1325.7000;0.5950;1.0053;
1326.0000;0.5910;1.0076;
1326.3000;0.5926;1.0006;
1326.6000;0.5918;0.9936;
1326.9000;0.5983;1.0099;
1327.2000;0.5975;0.9983;
1327.5000;0.5950;0.9843;
1327.8000;0.5967;0.9843;
1328.1000;0.5893;0.9703;
1328.4000;0.5958;0.9913;
1328.7000;0.5918;0.9703;
1329.0000;0.5926;0.9703;
1329.3000;0.5942;0.9703;
1329.6000;0.5942;0.9679;
1329.9000;0.5942;0.9633;
1330.2000;0.5942;0.9679;
1330.5000;0.5967;0.9656;
1330.8000;0.5934;0.9609;
1331.1000;0.5918;0.9516;
1331.4000;0.5950;0.9563;
1331.7000;0.5991;0.9703;
1332.0000;0.5910;0.9563;
1332.3000;0.5958;0.9656;
1332.6000;0.5918;0.9563;
1332.9000;0.5934;0.9656;
1333.2000;0.5950;0.9749;
1333.5000;0.5918;0.9656;
1333.8000;0.5910;0.9703;
1334.1000;0.5926;0.9656;
1334.4000;0.6007;0.9749;
1334.7000;0.5950;0.9679;
1335.0000;0.5926;0.9703;
1335.3000;0.5926;0.9726;
1335.6000;0.5910;0.9609;
1335.9000;0.5926;0.9656;
1336.2000;0.5926;0.9773;
1336.5000;0.5950;0.9913;
1336.8000;0.5885;0.9843;
1337.1000;0.5926;0.9983;
1337.4000;0.5885;0.9773;
1337.7000;0.5934;0.9843;
1338.0000;0.5926;0.9843;
1338.3000;0.5910;0.9773;
1338.6000;0.5885;0.9679;
1338.9000;0.5910;0.9819;
1339.2000;0.5934;0.9936;
1339.5000;0.5958;0.9866;
1339.8000;0.5942;0.9796;
1340.1000;0.5942;0.9866;
1340.4000;0.5934;0.9913;
1340.7000;0.5918;0.9959;
1341.0000;0.5926;1.0006;
1341.3000;0.5910;0.9983;
1341.6000;0.5910;0.9889;
1341.9000;0.5942;0.9936;
1342.2000;0.6024;1.0239;
1342.5000;0.5983;1.0099;
1342.8000;0.5861;0.9889;
1343.1000;0.5926;0.9983;
1343.4000;0.5934;1.0029;
1343.7000;0.5942;1.0053;
1344.0000;0.5918;0.9983;
1344.3000;0.5902;0.9889;
1344.6000;0.5926;0.9913;
1344.9000;0.5934;0.9866;
1345.2000;0.5918;0.9843;
1345.5000;0.5918;0.9936;
1345.8000;0.5926;0.9959;
1346.1000;0.5910;0.9959;
1346.4000;0.5926;0.9959;
1346.7000;0.5934;1.0076;
1347.0000;0.5918;0.9959;
1347.3000;0.5934;0.9936;
1347.6000;0.5918;0.9936;
1347.9000;0.5918;1.0029;
1348.2000;0.5942;1.0053;
1348.5000;0.5893;0.9889;
1348.8000;0.5950;1.0006;
1349.1000;0.5942;1.0006;
1349.4000;0.5975;1.0053;
1349.7000;0.5926;0.9936;
1350.0000;0.6007;1.0006;
1350.3000;0.5942;0.9796;
1350.6000;0.5934;0.9749;
1350.9000;0.5934;0.9866;
1351.2000;0.5885;0.9796;
1351.5000;0.5910;0.9796;
1351.8000;0.5918;0.9936;
1352.1000;0.5885;0.9936;
1352.4000;0.5942;0.9959;
1352.7000;0.5910;0.9889;
1353.0000;0.5967;0.9936;
1353.3000;0.5926;0.9819;
1353.6000;0.5926;0.9703;
1353.9000;0.5934;0.9866;
1354.2000;0.5942;0.9843;
1354.5000;0.5910;0.9726;
1354.8000;0.5942;0.9749;
1355.1000;0.5934;0.9773;
1355.4000;0.5999;0.9959;
1355.7000;0.5983;0.9913;
1356.0000;0.5918;0.9773;
1356.3000;0.5926;0.9819;
1356.6000;0.5893;0.9726;
1356.9000;0.5910;0.9773;
1357.2000;0.5902;0.9819;
1357.5000;0.5942;0.9773;
1357.8000;0.5950;0.9703;
1358.1000;0.5942;0.9633;
1358.4000;0.5910;0.9609;
1358.7000;0.5926;0.9726;
1359.0000;0.5934;0.9703;
1359.3000;0.5918;0.9633;
1359.6000;0.5942;0.9609;
1359.9000;0.5942;0.9586;
1360.2000;0.5942;0.9586;
1360.5000;0.5918;0.9563;
1360.8000;0.5918;0.9656;
1361.1000;0.5926;0.9679;
1361.4000;0.5918;0.9656;
1361.7000;0.5902;0.9633;
1362.0000;0.5918;0.9656;
1362.3000;0.5926;0.9749;
1362.6000;0.5918;0.9656;
1362.9000;0.5942;0.9726;
1363.2000;0.5967;0.9796;
1363.5000;0.5942;0.9773;
1363.8000;0.5926;0.9843;
1364.1000;0.5983;0.9983;
1364.4000;0.5926;0.9866;
1364.7000;0.5950;0.9983;
1365.0000;0.5934;0.9866;
1365.3000;0.5934;0.9843;
1365.6000;0.5918;0.9796;
1365.9000;0.5910;0.9843;
1366.2000;0.5926;0.9959;
1366.5000;0.5950;0.9983;
1366.8000;0.5926;0.9983;
1367.1000;0.5926;0.9866;
1367.4000;0.5893;0.9796;
1367.7000;0.5934;0.9819;
1368.0000;0.5926;0.9866;
1368.3000;0.5910;0.9936;
1368.6000;0.5918;0.9843;
1368.9000;0.5926;0.9889;
1369.2000;0.5910;0.9936;
1369.5000;0.5918;1.0006;
1369.8000;0.5910;0.9936;
1370.1000;0.5926;0.9843;
1370.4000;0.5910;0.9936;
1370.7000;0.5926;0.9936;
1371.0000;0.5918;0.9959;
1371.3000;0.5910;0.9959;
1371.6000;0.5942;0.9959;
1371.9000;0.5926;0.9936;
1372.2000;0.5926;0.9983;
1372.5000;0.5902;0.9936;
1372.8000;0.5910;0.9866;
1373.1000;0.5926;0.9819;
1373.4000;0.5918;0.9796;
1373.7000;0.5926;0.9983;
1374.0000;0.5910;1.0029;
1374.3000;0.5910;1.0053;
1374.6000;0.5926;1.0286;
1374.9000;0.5926;1.0192;
1375.2000;0.5918;1.0146;
1375.5000;0.5958;1.0169;
1375.8000;0.5934;1.0146;
1376.1000;0.5926;1.0099;
1376.4000;0.5942;1.0122;
1376.7000;0.5934;1.0076;
1377.0000;0.5942;1.0076;
1377.3000;0.5918;1.0006;
1377.6000;0.5918;0.9866;
1377.9000;0.5918;0.9796;
1378.2000;0.5926;0.9819;
1378.5000;0.5958;0.9866;
1378.8000;0.5926;0.9703;
1379.1000;0.5934;0.9749;
1379.4000;0.5910;0.9773;
1379.7000;0.5942;0.9889;
1380.0000;0.5926;0.9819;
1380.3000;0.5828;0.9563;
1380.6000;0.5934;0.9843;
1380.9000;0.5926;0.9959;
1381.2000;0.5950;0.9936;
1381.5000;0.5934;0.9889;
1381.8000;0.5918;0.9866;
1382.1000;0.5942;0.9936;
1382.4000;0.5926;0.9936;
1382.7000;0.5934;0.9936;
1383.0000;0.5934;0.9889;
1383.3000;0.5942;0.9843;
1383.6000;0.5926;0.9866;
1383.9000;0.5934;0.9889;
1384.2000;0.5910;0.9889;
1384.5000;0.5926;0.9866;
1384.8000;0.5934;0.9936;
1385.1000;0.5910;0.9889;
1385.4000;0.5934;0.9889;
1385.7000;0.5934;0.9866;
1386.0000;0.5926;0.9866;
1386.3000;0.5950;0.9936;
1386.6000;0.5918;0.9913;
1386.9000;0.5934;0.9819;
1387.2000;0.5934;0.9889;
1387.5000;0.5934;0.9819;
1387.8000;0.5918;0.9773;
1388.1000;0.5926;0.9866;
1388.4000;0.5934;0.9843;
1388.7000;0.5918;0.9796;
1389.0000;0.5918;0.9773;
1389.3000;0.5926;0.9749;
1389.6000;0.5942;0.9726;
1389.9000;0.5942;0.9796;
1390.2000;0.5918;0.9773;
1390.5000;0.5926;0.9796;
1390.8000;0.5918;0.9843;
1391.1000;0.5918;0.9819;
1391.4000;0.5934;0.9819;
1391.7000;0.5983;0.9889;
1392.0000;0.5934;0.9679;
1392.3000;0.5934;0.9679;
1392.6000;0.5934;0.9773;
1392.9000;0.5910;0.9726;
1393.2000;0.5958;0.9819;
1393.5000;0.5942;0.9773;
1393.8000;0.5918;0.9633;
1394.1000;0.5910;0.9609;
1394.4000;0.5918;0.9563;
1394.7000;0.5885;0.9516;
1395.0000;0.5934;0.9586;
1395.3000;0.5926;0.9679;
1395.6000;0.5942;0.9773;
1395.9000;0.5934;0.9819;
1396.2000;0.5934;0.9773;
1396.5000;0.5926;0.9796;
1396.8000;0.5926;0.9843;
1397.1000;0.5918;0.9819;
1397.4000;0.5926;0.9889;
1397.7000;0.5910;0.9913;
1398.0000;0.5926;0.9983;
1398.3000;0.5934;1.0029;
1398.6000;0.5893;0.9936;
1398.9000;0.5934;0.9983;
1399.2000;0.5934;1.0006;
1399.5000;0.5934;1.0006;
1399.8000;0.5918;0.9959;
