time/ms;Fluo/V;P700 deltaI/I x10³;
-199.8000;0.8059;0.9539;
-199.5000;0.8083;0.9539;
-199.2000;0.8050;0.9469;
-198.9000;0.8026;0.9353;
-198.6000;0.8034;0.9399;
-198.3000;0.8034;0.9423;
-198.0000;0.8050;0.9399;
-197.7000;0.8042;0.9376;
-197.4000;0.8050;0.9423;
-197.1000;0.8042;0.9446;
-196.8000;0.8034;0.9493;
-196.5000;0.8067;0.9539;
-196.2000;0.8067;0.9539;
-195.9000;0.8042;0.9423;
-195.6000;0.8034;0.9423;
-195.3000;0.8050;0.9469;
-195.0000;0.8083;0.9539;
-194.7000;0.8050;0.9516;
-194.4000;0.8050;0.9446;
-194.1000;0.8034;0.9353;
-193.8000;0.8034;0.9353;
-193.5000;0.8059;0.9446;
-193.2000;0.8034;0.9376;
-192.9000;0.8034;0.9306;
-192.6000;0.8042;0.9423;
-192.3000;0.8067;0.9516;
-192.0000;0.8067;0.9586;
-191.7000;0.8034;0.9516;
-191.4000;0.8050;0.9493;
-191.1000;0.8059;0.9469;
-190.8000;0.8050;0.9493;
-190.5000;0.8050;0.9469;
-190.2000;0.8042;0.9423;
-189.9000;0.8059;0.9469;
-189.6000;0.8059;0.9516;
-189.3000;0.8042;0.9609;
-189.0000;0.8050;0.9656;
-188.7000;0.8050;0.9773;
-188.4000;0.8042;0.9749;
-188.1000;0.8050;0.9749;
-187.8000;0.8083;0.9773;
-187.5000;0.8050;0.9656;
-187.2000;0.8059;0.9726;
-186.9000;0.8050;0.9656;
-186.6000;0.8075;0.9539;
-186.3000;0.8050;0.9493;
-186.0000;0.8059;0.9469;
-185.7000;0.8042;0.9493;
-185.4000;0.8083;0.9493;
-185.1000;0.8050;0.9516;
-184.8000;0.8050;0.9446;
-184.5000;0.8059;0.9376;
-184.2000;0.8050;0.9376;
-183.9000;0.8042;0.9376;
-183.6000;0.8034;0.9353;
-183.3000;0.8050;0.9446;
-183.0000;0.8018;0.9283;
-182.7000;0.8026;0.9329;
-182.4000;0.8059;0.9493;
-182.1000;0.8116;0.9656;
-181.8000;0.8067;0.9423;
-181.5000;0.8034;0.9399;
-181.2000;0.8059;0.9446;
-180.9000;0.8059;0.9516;
-180.6000;0.8083;0.9493;
-180.3000;0.8083;0.9586;
-180.0000;0.8042;0.9493;
-179.7000;0.8059;0.9516;
-179.4000;0.8067;0.9586;
-179.1000;0.8050;0.9586;
-178.8000;0.8059;0.9656;
-178.5000;0.8026;0.9633;
-178.2000;0.8026;0.9633;
-177.9000;0.8050;0.9749;
-177.6000;0.8059;0.9773;
-177.3000;0.8034;0.9633;
-177.0000;0.8059;0.9633;
-176.7000;0.8042;0.9609;
-176.4000;0.7985;0.9399;
-176.1000;0.8042;0.9586;
-175.8000;0.8018;0.9516;
-175.5000;0.8059;0.9563;
-175.2000;0.8050;0.9423;
-174.9000;0.8075;0.9446;
-174.6000;0.8042;0.9469;
-174.3000;0.8050;0.9493;
-174.0000;0.8059;0.9493;
-173.7000;0.8107;0.9539;
-173.4000;0.8042;0.9376;
-173.1000;0.8042;0.9399;
-172.8000;0.8042;0.9446;
-172.5000;0.8042;0.9493;
-172.2000;0.8050;0.9469;
-171.9000;0.7985;0.9306;
-171.6000;0.8042;0.9493;
-171.3000;0.8059;0.9609;
-171.0000;0.8059;0.9563;
-170.7000;0.8050;0.9586;
-170.4000;0.8059;0.9633;
-170.1000;0.8059;0.9679;
-169.8000;0.8059;0.9749;
-169.5000;0.8091;0.9796;
-169.2000;0.8099;0.9773;
-168.9000;0.8099;0.9679;
-168.6000;0.8050;0.9469;
-168.3000;0.8107;0.9586;
-168.0000;0.8042;0.9539;
-167.7000;0.8059;0.9563;
-167.4000;0.8059;0.9469;
-167.1000;0.8059;0.9469;
-166.8000;0.8075;0.9516;
-166.5000;0.8075;0.9539;
-166.2000;0.8018;0.9446;
-165.9000;0.8083;0.9563;
-165.6000;0.8075;0.9563;
-165.3000;0.8059;0.9609;
-165.0000;0.8042;0.9609;
-164.7000;0.8059;0.9633;
-164.4000;0.8042;0.9633;
-164.1000;0.8075;0.9656;
-163.8000;0.8067;0.9609;
-163.5000;0.8059;0.9539;
-163.2000;0.8018;0.9423;
-162.9000;0.8059;0.9493;
-162.6000;0.8059;0.9516;
-162.3000;0.7953;0.9353;
-162.0000;0.8034;0.9516;
-161.7000;0.8107;0.9609;
-161.4000;0.8050;0.9563;
-161.1000;0.8091;0.9679;
-160.8000;0.8067;0.9609;
-160.5000;0.8059;0.9586;
-160.2000;0.8067;0.9656;
-159.9000;0.8067;0.9633;
-159.6000;0.8059;0.9586;
-159.3000;0.8075;0.9586;
-159.0000;0.8050;0.9586;
-158.7000;0.8059;0.9586;
-158.4000;0.8042;0.9586;
-158.1000;0.8050;0.9609;
-157.8000;0.8067;0.9586;
-157.5000;0.8059;0.9539;
-157.2000;0.8059;0.9539;
-156.9000;0.8042;0.9516;
-156.6000;0.8059;0.9469;
-156.3000;0.8075;0.9493;
-156.0000;0.8059;0.9446;
-155.7000;0.8018;0.9329;
-155.4000;0.8067;0.9399;
-155.1000;0.8075;0.9376;
-154.8000;0.8050;0.9260;
-154.5000;0.8026;0.9353;
-154.2000;0.8042;0.9446;
-153.9000;0.8173;0.9773;
-153.6000;0.8050;0.9539;
-153.3000;0.8059;0.9703;
-153.0000;0.8067;0.9749;
-152.7000;0.8067;0.9749;
-152.4000;0.8099;0.9843;
-152.1000;0.8050;0.9679;
-151.8000;0.8050;0.9679;
-151.5000;0.8067;0.9726;
-151.2000;0.8083;0.9819;
-150.9000;0.8050;0.9679;
-150.6000;0.8067;0.9726;
-150.3000;0.8091;0.9703;
-150.0000;0.8059;0.9656;
-149.7000;0.8083;0.9656;
-149.4000;0.8059;0.9586;
-149.1000;0.8067;0.9703;
-148.8000;0.8075;0.9773;
-148.5000;0.8059;0.9796;
-148.2000;0.8018;0.9749;
-147.9000;0.8091;0.9866;
-147.6000;0.8059;0.9819;
-147.3000;0.8050;0.9726;
-147.0000;0.8042;0.9773;
-146.7000;0.8026;0.9726;
-146.4000;0.8099;0.9796;
-146.1000;0.8083;0.9773;
-145.8000;0.8050;0.9633;
-145.5000;0.8050;0.9516;
-145.2000;0.8050;0.9423;
-144.9000;0.8059;0.9423;
-144.6000;0.8002;0.9353;
-144.3000;0.8059;0.9539;
-144.0000;0.8050;0.9563;
-143.7000;0.8067;0.9633;
-143.4000;0.8132;0.9843;
-143.1000;0.8042;0.9609;
-142.8000;0.8059;0.9703;
-142.5000;0.8059;0.9726;
-142.2000;0.8083;0.9796;
-141.9000;0.8042;0.9609;
-141.6000;0.8059;0.9586;
-141.3000;0.8050;0.9516;
-141.0000;0.8083;0.9609;
-140.7000;0.8059;0.9516;
-140.4000;0.8050;0.9469;
-140.1000;0.8034;0.9493;
-139.8000;0.8042;0.9539;
-139.5000;0.8050;0.9563;
-139.2000;0.7945;0.9329;
-138.9000;0.8042;0.9539;
-138.6000;0.8059;0.9586;
-138.3000;0.8140;0.9819;
-138.0000;0.8034;0.9586;
-137.7000;0.8075;0.9656;
-137.4000;0.8059;0.9563;
-137.1000;0.8050;0.9539;
-136.8000;0.8050;0.9493;
-136.5000;0.8050;0.9469;
-136.2000;0.8083;0.9563;
-135.9000;0.8050;0.9539;
-135.6000;0.8059;0.9586;
-135.3000;0.8050;0.9563;
-135.0000;0.8059;0.9609;
-134.7000;0.8059;0.9539;
-134.4000;0.8059;0.9493;
-134.1000;0.8050;0.9656;
-133.8000;0.8018;0.9563;
-133.5000;0.8050;0.9633;
-133.2000;0.8059;0.9703;
-132.9000;0.8034;0.9656;
-132.6000;0.8050;0.9586;
-132.3000;0.8034;0.9586;
-132.0000;0.8026;0.9563;
-131.7000;0.7993;0.9399;
-131.4000;0.8034;0.9516;
-131.1000;0.8059;0.9516;
-130.8000;0.8050;0.9516;
-130.5000;0.8042;0.9586;
-130.2000;0.8018;0.9563;
-129.9000;0.8042;0.9633;
-129.6000;0.8042;0.9539;
-129.3000;0.8059;0.9539;
-129.0000;0.8042;0.9609;
-128.7000;0.8034;0.9633;
-128.4000;0.8042;0.9656;
-128.1000;0.8067;0.9749;
-127.8000;0.8050;0.9633;
-127.5000;0.8059;0.9586;
-127.2000;0.8042;0.9539;
-126.9000;0.8050;0.9539;
-126.6000;0.8059;0.9539;
-126.3000;0.8050;0.9539;
-126.0000;0.7977;0.9469;
-125.7000;0.8050;0.9609;
-125.4000;0.8050;0.9633;
-125.1000;0.8059;0.9633;
-124.8000;0.8067;0.9633;
-124.5000;0.8083;0.9563;
-124.2000;0.8075;0.9516;
-123.9000;0.8050;0.9423;
-123.6000;0.8075;0.9493;
-123.3000;0.8075;0.9469;
-123.0000;0.7961;0.9166;
-122.7000;0.8010;0.9329;
-122.4000;0.8042;0.9376;
-122.1000;0.8018;0.9399;
-121.8000;0.8050;0.9446;
-121.5000;0.8050;0.9469;
-121.2000;0.8042;0.9469;
-120.9000;0.8083;0.9539;
-120.6000;0.7977;0.9306;
-120.3000;0.8042;0.9446;
-120.0000;0.8042;0.9423;
-119.7000;0.8059;0.9539;
-119.4000;0.8067;0.9609;
-119.1000;0.8002;0.9469;
-118.8000;0.8050;0.9563;
-118.5000;0.7961;0.9399;
-118.2000;0.8124;0.9866;
-117.9000;0.8075;0.9656;
-117.6000;0.8034;0.9563;
-117.3000;0.8067;0.9633;
-117.0000;0.8050;0.9633;
-116.7000;0.8067;0.9679;
-116.4000;0.8026;0.9609;
-116.1000;0.8034;0.9633;
-115.8000;0.8034;0.9633;
-115.5000;0.8042;0.9679;
-115.2000;0.8050;0.9679;
-114.9000;0.8083;0.9726;
-114.6000;0.8050;0.9633;
-114.3000;0.8075;0.9679;
-114.0000;0.8050;0.9679;
-113.7000;0.8059;0.9679;
-113.4000;0.8067;0.9679;
-113.1000;0.8050;0.9609;
-112.8000;0.8124;0.9773;
-112.5000;0.8059;0.9633;
-112.2000;0.8091;0.9609;
-111.9000;0.8083;0.9609;
-111.6000;0.8059;0.9633;
-111.3000;0.8067;0.9726;
-111.0000;0.8059;0.9726;
-110.7000;0.8059;0.9773;
-110.4000;0.8059;0.9843;
-110.1000;0.8075;0.9889;
-109.8000;0.8042;0.9773;
-109.5000;0.8050;0.9866;
-109.2000;0.8075;0.9889;
-108.9000;0.8091;0.9983;
-108.6000;0.8107;0.9983;
-108.3000;0.8050;0.9749;
-108.0000;0.8034;0.9726;
-107.7000;0.8059;0.9773;
-107.4000;0.8059;0.9796;
-107.1000;0.8067;0.9819;
-106.8000;0.8067;0.9819;
-106.5000;0.8075;0.9819;
-106.2000;0.8083;0.9843;
-105.9000;0.8018;0.9703;
-105.6000;0.8042;0.9679;
-105.3000;0.8059;0.9703;
-105.0000;0.8042;0.9703;
-104.7000;0.8059;0.9726;
-104.4000;0.8075;0.9749;
-104.1000;0.8042;0.9819;
-103.8000;0.8042;0.9889;
-103.5000;0.8026;0.9773;
-103.2000;0.8018;0.9633;
-102.9000;0.8091;0.9819;
-102.6000;0.8075;0.9773;
-102.3000;0.8050;0.9726;
-102.0000;0.8075;0.9796;
-101.7000;0.8059;0.9773;
-101.4000;0.8067;0.9703;
-101.1000;0.8075;0.9703;
-100.8000;0.8083;0.9656;
-100.5000;0.8050;0.9609;
-100.2000;0.8075;0.9633;
-99.9000;0.8018;0.9493;
-99.6000;0.8059;0.9679;
-99.3000;0.8042;0.9656;
-99.0000;0.8042;0.9679;
-98.7000;0.8026;0.9679;
-98.4000;0.8091;0.9749;
-98.1000;0.8034;0.9586;
-97.8000;0.8042;0.9586;
-97.5000;0.8075;0.9703;
-97.2000;0.8042;0.9726;
-96.9000;0.8050;0.9773;
-96.6000;0.8075;0.9913;
-96.3000;0.8075;0.9866;
-96.0000;0.8099;0.9866;
-95.7000;0.8059;0.9796;
-95.4000;0.8059;0.9749;
-95.1000;0.8050;0.9633;
-94.8000;0.8050;0.9679;
-94.5000;0.8116;0.9866;
-94.2000;0.8050;0.9679;
-93.9000;0.8050;0.9749;
-93.6000;0.8059;0.9703;
-93.3000;0.8067;0.9703;
-93.0000;0.8067;0.9679;
-92.7000;0.8067;0.9609;
-92.4000;0.8067;0.9493;
-92.1000;0.8002;0.9446;
-91.8000;0.8042;0.9516;
-91.5000;0.8034;0.9563;
-91.2000;0.8050;0.9656;
-90.9000;0.8059;0.9679;
-90.6000;0.8050;0.9633;
-90.3000;0.8026;0.9679;
-90.0000;0.8050;0.9679;
-89.7000;0.8059;0.9679;
-89.4000;0.8034;0.9679;
-89.1000;0.8034;0.9679;
-88.8000;0.8107;0.9913;
-88.5000;0.8075;0.9843;
-88.2000;0.8042;0.9703;
-87.9000;0.8050;0.9726;
-87.6000;0.8059;0.9679;
-87.3000;0.8067;0.9726;
-87.0000;0.8018;0.9493;
-86.7000;0.8010;0.9469;
-86.4000;0.8050;0.9586;
-86.1000;0.8075;0.9633;
-85.8000;0.8034;0.9563;
-85.5000;0.8042;0.9586;
-85.2000;0.8042;0.9633;
-84.9000;0.8050;0.9633;
-84.6000;0.8042;0.9586;
-84.3000;0.8050;0.9586;
-84.0000;0.8059;0.9563;
-83.7000;0.8083;0.9609;
-83.4000;0.8034;0.9493;
-83.1000;0.8059;0.9469;
-82.8000;0.8050;0.9423;
-82.5000;0.8116;0.9516;
-82.2000;0.8067;0.9469;
-81.9000;0.8050;0.9469;
-81.6000;0.8059;0.9469;
-81.3000;0.8050;0.9423;
-81.0000;0.8010;0.9376;
-80.7000;0.7993;0.9399;
-80.4000;0.7977;0.9329;
-80.1000;0.8050;0.9609;
-79.8000;0.8042;0.9563;
-79.5000;0.8099;0.9656;
-79.2000;0.8050;0.9493;
-78.9000;0.8034;0.9493;
-78.6000;0.8059;0.9469;
-78.3000;0.8042;0.9469;
-78.0000;0.8042;0.9423;
-77.7000;0.8042;0.9493;
-77.4000;0.8050;0.9446;
-77.1000;0.8083;0.9539;
-76.8000;0.8050;0.9469;
-76.5000;0.8042;0.9516;
-76.2000;0.8018;0.9563;
-75.9000;0.8042;0.9703;
-75.6000;0.8067;0.9656;
-75.3000;0.8042;0.9656;
-75.0000;0.8034;0.9726;
-74.7000;0.8059;0.9773;
-74.4000;0.8042;0.9749;
-74.1000;0.8067;0.9773;
-73.8000;0.8042;0.9726;
-73.5000;0.8050;0.9633;
-73.2000;0.8050;0.9609;
-72.9000;0.8067;0.9656;
-72.6000;0.8050;0.9539;
-72.3000;0.8042;0.9469;
-72.0000;0.8059;0.9539;
-71.7000;0.8059;0.9586;
-71.4000;0.8067;0.9656;
-71.1000;0.8034;0.9539;
-70.8000;0.8050;0.9493;
-70.5000;0.8042;0.9563;
-70.2000;0.8059;0.9493;
-69.9000;0.8042;0.9446;
-69.6000;0.8034;0.9376;
-69.3000;0.8018;0.9329;
-69.0000;0.8034;0.9306;
-68.7000;0.8026;0.9376;
-68.4000;0.8059;0.9493;
-68.1000;0.8042;0.9469;
-67.8000;0.8034;0.9493;
-67.5000;0.8042;0.9586;
-67.2000;0.8026;0.9539;
-66.9000;0.8042;0.9656;
-66.6000;0.8034;0.9633;
-66.3000;0.8059;0.9633;
-66.0000;0.8083;0.9633;
-65.7000;0.8034;0.9539;
-65.4000;0.8067;0.9679;
-65.1000;0.8107;0.9819;
-64.8000;0.8059;0.9633;
-64.5000;0.8059;0.9633;
-64.2000;0.8010;0.9493;
-63.9000;0.8059;0.9609;
-63.6000;0.8059;0.9539;
-63.3000;0.8083;0.9586;
-63.0000;0.8116;0.9633;
-62.7000;0.8181;0.9773;
-62.4000;0.8050;0.9469;
-62.1000;0.8026;0.9446;
-61.8000;0.8067;0.9516;
-61.5000;0.8067;0.9563;
-61.2000;0.8075;0.9563;
-60.9000;0.8050;0.9586;
-60.6000;0.8116;0.9703;
-60.3000;0.8050;0.9516;
-60.0000;0.8067;0.9399;
-59.7000;0.8059;0.9399;
-59.4000;0.8002;0.9260;
-59.1000;0.8059;0.9399;
-58.8000;0.8050;0.9423;
-58.5000;0.8042;0.9423;
-58.2000;0.8050;0.9446;
-57.9000;0.8075;0.9446;
-57.6000;0.8034;0.9423;
-57.3000;0.8083;0.9493;
-57.0000;0.8034;0.9423;
-56.7000;0.8067;0.9469;
-56.4000;0.8075;0.9539;
-56.1000;0.8042;0.9539;
-55.8000;0.8042;0.9539;
-55.5000;0.8026;0.9539;
-55.2000;0.8083;0.9656;
-54.9000;0.8132;0.9679;
-54.6000;0.8059;0.9446;
-54.3000;0.8067;0.9516;
-54.0000;0.8067;0.9633;
-53.7000;0.8034;0.9539;
-53.4000;0.8042;0.9539;
-53.1000;0.8034;0.9446;
-52.8000;0.8059;0.9563;
-52.5000;0.8059;0.9586;
-52.2000;0.8075;0.9633;
-51.9000;0.8034;0.9563;
-51.6000;0.8050;0.9609;
-51.3000;0.8050;0.9609;
-51.0000;0.8050;0.9679;
-50.7000;0.8042;0.9796;
-50.4000;0.8067;0.9703;
-50.1000;0.8050;0.9539;
-49.8000;0.8042;0.9539;
-49.5000;0.8099;0.9726;
-49.2000;0.8067;0.9586;
-48.9000;0.8059;0.9563;
-48.6000;0.8091;0.9749;
-48.3000;0.7985;0.9586;
-48.0000;0.8018;0.9656;
-47.7000;0.8067;0.9679;
-47.4000;0.8075;0.9656;
-47.1000;0.8050;0.9563;
-46.8000;0.8018;0.9539;
-46.5000;0.8075;0.9633;
-46.2000;0.8002;0.9399;
-45.9000;0.8018;0.9353;
-45.6000;0.8042;0.9469;
-45.3000;0.8042;0.9493;
-45.0000;0.8042;0.9446;
-44.7000;0.8083;0.9493;
-44.4000;0.8042;0.9423;
-44.1000;0.7969;0.9283;
-43.8000;0.8034;0.9516;
-43.5000;0.8042;0.9609;
-43.2000;0.8050;0.9609;
-42.9000;0.8067;0.9656;
-42.6000;0.8050;0.9609;
-42.3000;0.8083;0.9703;
-42.0000;0.8067;0.9679;
-41.7000;0.8042;0.9516;
-41.4000;0.8042;0.9493;
-41.1000;0.8018;0.9446;
-40.8000;0.8116;0.9703;
-40.5000;0.8042;0.9516;
-40.2000;0.8075;0.9633;
-39.9000;0.8059;0.9586;
-39.6000;0.8050;0.9656;
-39.3000;0.8059;0.9609;
-39.0000;0.8050;0.9633;
-38.7000;0.8059;0.9539;
-38.4000;0.8050;0.9633;
-38.1000;0.8050;0.9633;
-37.8000;0.8059;0.9563;
-37.5000;0.8075;0.9539;
-37.2000;0.8010;0.9376;
-36.9000;0.8059;0.9399;
-36.6000;0.8067;0.9399;
-36.3000;0.8059;0.9423;
-36.0000;0.8050;0.9539;
-35.7000;0.8059;0.9563;
-35.4000;0.8059;0.9563;
-35.1000;0.8050;0.9516;
-34.8000;0.8067;0.9609;
-34.5000;0.8050;0.9633;
-34.2000;0.8034;0.9656;
-33.9000;0.8059;0.9586;
-33.6000;0.8067;0.9516;
-33.3000;0.8059;0.9563;
-33.0000;0.8050;0.9539;
-32.7000;0.8042;0.9609;
-32.4000;0.8050;0.9726;
-32.1000;0.8034;0.9656;
-31.8000;0.8042;0.9656;
-31.5000;0.8050;0.9633;
-31.2000;0.8059;0.9749;
-30.9000;0.8059;0.9749;
-30.6000;0.8067;0.9749;
-30.3000;0.8099;0.9773;
-30.0000;0.8042;0.9703;
-29.7000;0.8050;0.9633;
-29.4000;0.8075;0.9703;
-29.1000;0.7953;0.9423;
-28.8000;0.7985;0.9399;
-28.5000;0.8050;0.9656;
-28.2000;0.8059;0.9679;
-27.9000;0.8042;0.9609;
-27.6000;0.8099;0.9749;
-27.3000;0.8067;0.9609;
-27.0000;0.8042;0.9539;
-26.7000;0.8042;0.9493;
-26.4000;0.8050;0.9609;
-26.1000;0.8075;0.9703;
-25.8000;0.8034;0.9679;
-25.5000;0.8124;0.9843;
-25.2000;0.8067;0.9773;
-24.9000;0.8091;0.9889;
-24.6000;0.7953;0.9539;
-24.3000;0.8067;0.9819;
-24.0000;0.8059;0.9726;
-23.7000;0.8018;0.9656;
-23.4000;0.8034;0.9679;
-23.1000;0.8067;0.9749;
-22.8000;0.8026;0.9586;
-22.5000;0.8059;0.9633;
-22.2000;0.8050;0.9633;
-21.9000;0.8099;0.9749;
-21.6000;0.8050;0.9656;
-21.3000;0.8091;0.9703;
-21.0000;0.8042;0.9656;
-20.7000;0.8042;0.9679;
-20.4000;0.8067;0.9819;
-20.1000;0.8018;0.9749;
-19.8000;0.8026;0.9819;
-19.5000;0.8059;0.9819;
-19.2000;0.8059;0.9773;
-18.9000;0.8042;0.9586;
-18.6000;0.8050;0.9586;
-18.3000;0.8075;0.9679;
-18.0000;0.8059;0.9703;
-17.7000;0.8067;0.9656;
-17.4000;0.8050;0.9586;
-17.1000;0.8059;0.9609;
-16.8000;0.8067;0.9656;
-16.5000;0.8050;0.9703;
-16.2000;0.8050;0.9749;
-15.9000;0.8018;0.9656;
-15.6000;0.8067;0.9703;
-15.3000;0.8026;0.9586;
-15.0000;0.8042;0.9633;
-14.7000;0.7985;0.9539;
-14.4000;0.8018;0.9656;
-14.1000;0.8042;0.9679;
-13.8000;0.7985;0.9516;
-13.5000;0.8075;0.9819;
-13.2000;0.8026;0.9703;
-12.9000;0.8018;0.9633;
-12.6000;0.8042;0.9656;
-12.3000;0.8042;0.9586;
-12.0000;0.8042;0.9563;
-11.7000;0.8050;0.9539;
-11.4000;0.8010;0.9493;
-11.1000;0.8026;0.9539;
-10.8000;0.8042;0.9539;
-10.5000;0.8059;0.9656;
-10.2000;0.8083;0.9656;
-9.9000;0.8034;0.9703;
-9.6000;0.8067;0.9679;
-9.3000;0.8042;0.9563;
-9.0000;0.8067;0.9633;
-8.7000;0.8067;0.9679;
-8.4000;0.8091;0.9703;
-8.1000;0.8099;0.9633;
-7.8000;0.8050;0.9586;
-7.5000;0.8059;0.9609;
-7.2000;0.8091;0.9796;
-6.9000;0.8107;0.9959;
-6.6000;0.8067;0.9819;
-6.3000;0.8059;0.9749;
-6.0000;0.8107;0.9889;
-5.7000;0.8059;0.9796;
-5.4000;0.8042;0.9703;
-5.1000;0.8042;0.9726;
-4.8000;0.8050;0.9819;
-4.5000;0.8067;0.9773;
-4.2000;0.8026;0.9586;
-3.9000;0.8067;0.9773;
-3.6000;0.8050;0.9679;
-3.3000;0.8067;0.9679;
-3.0000;0.8059;0.9656;
-2.7000;0.8083;0.9726;
-2.4000;0.8010;0.9586;
-2.1000;0.8042;0.9656;
-1.8000;0.8050;0.9703;
-1.5000;0.8050;0.9703;
-1.2000;0.8034;0.9633;
-0.9000;0.8050;0.9679;
-0.6000;0.8010;0.9609;
-0.3000;0.7985;0.9516;
0.0000;0.7985;0.9516;
0.3000;0.8124;0.9446;
0.6000;0.8311;0.9726;
0.9000;0.8433;0.9936;
1.2000;0.8539;1.0122;
1.5000;0.8637;1.0332;
1.8000;0.8702;1.0519;
2.1000;0.8751;1.0682;
2.4000;0.8807;1.0776;
2.7000;0.8840;1.0869;
3.0000;0.8881;1.0985;
3.3000;0.8881;1.1055;
3.6000;0.8930;1.1079;
3.9000;0.8970;1.1172;
4.2000;0.8970;1.1172;
4.5000;0.9003;1.1195;
4.8000;0.9027;1.1289;
5.1000;0.9052;1.1405;
5.4000;0.9060;1.1335;
5.7000;0.9092;1.1382;
6.0000;0.9101;1.1359;
6.3000;0.9158;1.1522;
6.6000;0.9133;1.1475;
6.9000;0.9133;1.1522;
7.2000;0.9117;1.1499;
7.5000;0.9174;1.1569;
7.8000;0.9182;1.1569;
8.1000;0.9182;1.1499;
8.4000;0.9190;1.1475;
8.7000;0.9198;1.1429;
9.0000;0.9198;1.1405;
9.3000;0.9166;1.1195;
9.6000;0.9247;1.1405;
9.9000;0.9247;1.1429;
10.2000;0.9255;1.1452;
10.5000;0.9296;1.1522;
10.8000;0.9361;1.1685;
11.1000;0.9271;1.1499;
11.4000;0.9280;1.1522;
11.7000;0.9231;1.1382;
12.0000;0.9296;1.1615;
12.3000;0.9320;1.1708;
12.6000;0.9345;1.1708;
12.9000;0.9337;1.1708;
13.2000;0.9328;1.1615;
13.5000;0.9402;1.1708;
13.8000;0.9361;1.1615;
14.1000;0.9312;1.1522;
14.4000;0.9369;1.1569;
14.7000;0.9377;1.1522;
15.0000;0.9394;1.1452;
15.3000;0.9394;1.1382;
15.6000;0.9418;1.1569;
15.9000;0.9434;1.1592;
16.2000;0.9394;1.1475;
16.5000;0.9394;1.1452;
16.8000;0.9402;1.1405;
17.1000;0.9385;1.1405;
17.4000;0.9410;1.1475;
17.7000;0.9410;1.1592;
18.0000;0.9402;1.1452;
18.3000;0.9418;1.1499;
18.6000;0.9451;1.1452;
18.9000;0.9442;1.1452;
19.2000;0.9442;1.1382;
19.5000;0.9426;1.1359;
19.8000;0.9442;1.1429;
20.1000;0.9426;1.1405;
20.4000;0.9442;1.1452;
20.7000;0.9475;1.1475;
21.0000;0.9459;1.1405;
21.3000;0.9475;1.1499;
21.6000;0.9475;1.1475;
21.9000;0.9467;1.1475;
22.2000;0.9475;1.1475;
22.5000;0.9467;1.1499;
22.8000;0.9491;1.1592;
23.1000;0.9499;1.1522;
23.4000;0.9491;1.1569;
23.7000;0.9467;1.1569;
24.0000;0.9491;1.1545;
24.3000;0.9483;1.1499;
24.6000;0.9459;1.1522;
24.9000;0.9475;1.1522;
25.2000;0.9491;1.1569;
25.5000;0.9483;1.1522;
25.8000;0.9491;1.1569;
26.1000;0.9483;1.1545;
26.4000;0.9491;1.1615;
26.7000;0.9499;1.1755;
27.0000;0.9532;1.1802;
27.3000;0.9483;1.1685;
27.6000;0.9475;1.1545;
27.9000;0.9516;1.1592;
28.2000;0.9508;1.1545;
28.5000;0.9483;1.1522;
28.8000;0.9459;1.1429;
29.1000;0.9499;1.1499;
29.4000;0.9532;1.1639;
29.7000;0.9499;1.1499;
30.0000;0.9499;1.1429;
30.3000;0.9491;1.1452;
30.6000;0.9508;1.1475;
30.9000;0.9508;1.1452;
31.2000;0.9475;1.1429;
31.5000;0.9532;1.1615;
31.8000;0.9548;1.1662;
32.1000;0.9540;1.1708;
32.4000;0.9548;1.1755;
32.7000;0.9532;1.1662;
33.0000;0.9516;1.1732;
33.3000;0.9524;1.1662;
33.6000;0.9556;1.1732;
33.9000;0.9508;1.1662;
34.2000;0.9532;1.1708;
34.5000;0.9499;1.1569;
34.8000;0.9532;1.1639;
35.1000;0.9516;1.1662;
35.4000;0.9581;1.1895;
35.7000;0.9532;1.1755;
36.0000;0.9565;1.1778;
36.3000;0.9524;1.1639;
36.6000;0.9516;1.1615;
36.9000;0.9556;1.1732;
37.2000;0.9532;1.1569;
37.5000;0.9540;1.1615;
37.8000;0.9540;1.1569;
38.1000;0.9556;1.1732;
38.4000;0.9548;1.1732;
38.7000;0.9540;1.1662;
39.0000;0.9532;1.1569;
39.3000;0.9540;1.1429;
39.6000;0.9524;1.1312;
39.9000;0.9556;1.1359;
40.2000;0.9532;1.1382;
40.5000;0.9540;1.1335;
40.8000;0.9548;1.1335;
41.1000;0.9556;1.1265;
41.4000;0.9556;1.1265;
41.7000;0.9565;1.1335;
42.0000;0.9565;1.1429;
42.3000;0.9565;1.1475;
42.6000;0.9532;1.1359;
42.9000;0.9548;1.1452;
43.2000;0.9556;1.1429;
43.5000;0.9565;1.1522;
43.8000;0.9556;1.1522;
44.1000;0.9548;1.1545;
44.4000;0.9540;1.1522;
44.7000;0.9516;1.1545;
45.0000;0.9573;1.1639;
45.3000;0.9548;1.1569;
45.6000;0.9548;1.1522;
45.9000;0.9573;1.1615;
46.2000;0.9540;1.1639;
46.5000;0.9548;1.1662;
46.8000;0.9573;1.1755;
47.1000;0.9573;1.1662;
47.4000;0.9565;1.1708;
47.7000;0.9605;1.1825;
48.0000;0.9556;1.1615;
48.3000;0.9548;1.1522;
48.6000;0.9573;1.1592;
48.9000;0.9556;1.1475;
49.2000;0.9565;1.1499;
49.5000;0.9589;1.1592;
49.8000;0.9597;1.1708;
50.1000;0.9556;1.1708;
50.4000;0.9556;1.1708;
50.7000;0.9581;1.1778;
51.0000;0.9565;1.1732;
51.3000;0.9532;1.1662;
51.6000;0.9540;1.1662;
51.9000;0.9573;1.1615;
52.2000;0.9540;1.1569;
52.5000;0.9573;1.1685;
52.8000;0.9540;1.1639;
53.1000;0.9565;1.1592;
53.4000;0.9548;1.1615;
53.7000;0.9573;1.1662;
54.0000;0.9540;1.1522;
54.3000;0.9573;1.1708;
54.6000;0.9565;1.1685;
54.9000;0.9565;1.1639;
55.2000;0.9573;1.1639;
55.5000;0.9613;1.1708;
55.8000;0.9565;1.1475;
56.1000;0.9573;1.1452;
56.4000;0.9581;1.1569;
56.7000;0.9548;1.1545;
57.0000;0.9540;1.1545;
57.3000;0.9556;1.1545;
57.6000;0.9548;1.1522;
57.9000;0.9581;1.1545;
58.2000;0.9565;1.1499;
58.5000;0.9483;1.1312;
58.8000;0.9524;1.1429;
59.1000;0.9499;1.1405;
59.4000;0.9565;1.1569;
59.7000;0.9548;1.1545;
60.0000;0.9565;1.1499;
60.3000;0.9565;1.1452;
60.6000;0.9556;1.1335;
60.9000;0.9581;1.1335;
61.2000;0.9573;1.1289;
61.5000;0.9573;1.1382;
61.8000;0.9565;1.1312;
62.1000;0.9548;1.1265;
62.4000;0.9573;1.1312;
62.7000;0.9589;1.1265;
63.0000;0.9548;1.1172;
63.3000;0.9573;1.1242;
63.6000;0.9556;1.1359;
63.9000;0.9573;1.1382;
64.2000;0.9565;1.1405;
64.5000;0.9565;1.1405;
64.8000;0.9581;1.1452;
65.1000;0.9581;1.1522;
65.4000;0.9573;1.1545;
65.7000;0.9540;1.1382;
66.0000;0.9556;1.1522;
66.3000;0.9548;1.1522;
66.6000;0.9565;1.1522;
66.9000;0.9540;1.1429;
67.2000;0.9556;1.1475;
67.5000;0.9548;1.1452;
67.8000;0.9548;1.1475;
68.1000;0.9573;1.1569;
68.4000;0.9565;1.1592;
68.7000;0.9508;1.1475;
69.0000;0.9589;1.1592;
69.3000;0.9621;1.1662;
69.6000;0.9556;1.1569;
69.9000;0.9548;1.1639;
70.2000;0.9548;1.1569;
70.5000;0.9573;1.1662;
70.8000;0.9565;1.1708;
71.1000;0.9565;1.1639;
71.4000;0.9573;1.1615;
71.7000;0.9581;1.1639;
72.0000;0.9573;1.1569;
72.3000;0.9589;1.1592;
72.6000;0.9556;1.1522;
72.9000;0.9548;1.1499;
73.2000;0.9540;1.1405;
73.5000;0.9548;1.1429;
73.8000;0.9548;1.1382;
74.1000;0.9605;1.1522;
74.4000;0.9573;1.1475;
74.7000;0.9540;1.1382;
75.0000;0.9532;1.1429;
75.3000;0.9597;1.1615;
75.6000;0.9581;1.1569;
75.9000;0.9565;1.1452;
76.2000;0.9556;1.1382;
76.5000;0.9573;1.1382;
76.8000;0.9573;1.1429;
77.1000;0.9589;1.1522;
77.4000;0.9565;1.1475;
77.7000;0.9573;1.1522;
78.0000;0.9565;1.1522;
78.3000;0.9581;1.1615;
78.6000;0.9565;1.1569;
78.9000;0.9573;1.1639;
79.2000;0.9556;1.1639;
79.5000;0.9589;1.1732;
79.8000;0.9565;1.1639;
80.1000;0.9556;1.1592;
80.4000;0.9589;1.1545;
80.7000;0.9589;1.1592;
81.0000;0.9540;1.1522;
81.3000;0.9548;1.1545;
81.6000;0.9573;1.1475;
81.9000;0.9565;1.1382;
82.2000;0.9581;1.1522;
82.5000;0.9621;1.1639;
82.8000;0.9565;1.1499;
83.1000;0.9516;1.1429;
83.4000;0.9548;1.1569;
83.7000;0.9565;1.1569;
84.0000;0.9548;1.1545;
84.3000;0.9573;1.1569;
84.6000;0.9548;1.1522;
84.9000;0.9573;1.1639;
85.2000;0.9565;1.1545;
85.5000;0.9573;1.1499;
85.8000;0.9532;1.1499;
86.1000;0.9556;1.1592;
86.4000;0.9540;1.1639;
86.7000;0.9548;1.1592;
87.0000;0.9597;1.1592;
87.3000;0.9565;1.1615;
87.6000;0.9573;1.1685;
87.9000;0.9565;1.1662;
88.2000;0.9548;1.1592;
88.5000;0.9565;1.1545;
88.8000;0.9556;1.1475;
89.1000;0.9565;1.1569;
89.4000;0.9573;1.1662;
89.7000;0.9573;1.1639;
90.0000;0.9565;1.1569;
90.3000;0.9532;1.1475;
90.6000;0.9483;1.1382;
90.9000;0.9589;1.1569;
91.2000;0.9565;1.1662;
91.5000;0.9565;1.1615;
91.8000;0.9573;1.1615;
92.1000;0.9556;1.1615;
92.4000;0.9565;1.1592;
92.7000;0.9556;1.1499;
93.0000;0.9556;1.1312;
93.3000;0.9573;1.1382;
93.6000;0.9548;1.1289;
93.9000;0.9548;1.1289;
94.2000;0.9597;1.1359;
94.5000;0.9556;1.1335;
94.8000;0.9573;1.1335;
95.1000;0.9565;1.1265;
95.4000;0.9573;1.1335;
95.7000;0.9565;1.1335;
96.0000;0.9548;1.1312;
96.3000;0.9524;1.1242;
96.6000;0.9540;1.1405;
96.9000;0.9556;1.1475;
97.2000;0.9581;1.1475;
97.5000;0.9573;1.1475;
97.8000;0.9548;1.1405;
98.1000;0.9573;1.1429;
98.4000;0.9524;1.1242;
98.7000;0.9573;1.1405;
99.0000;0.9638;1.1569;
99.3000;0.9573;1.1359;
99.6000;0.9581;1.1429;
99.9000;0.9589;1.1452;
100.2000;0.9556;1.1405;
100.5000;0.9573;1.1312;
100.8000;0.9581;1.1335;
101.1000;0.9565;1.1312;
101.4000;0.9573;1.1242;
101.7000;0.9581;1.1172;
102.0000;0.9581;1.1172;
102.3000;0.9581;1.1195;
102.6000;0.9548;1.1149;
102.9000;0.9532;1.1102;
103.2000;0.9597;1.1265;
103.5000;0.9556;1.1265;
103.8000;0.9556;1.1242;
104.1000;0.9630;1.1475;
104.4000;0.9573;1.1312;
104.7000;0.9573;1.1312;
105.0000;0.9597;1.1335;
105.3000;0.9581;1.1219;
105.6000;0.9589;1.1289;
105.9000;0.9581;1.1335;
106.2000;0.9581;1.1429;
106.5000;0.9573;1.1429;
106.8000;0.9581;1.1382;
107.1000;0.9565;1.1312;
107.4000;0.9573;1.1359;
107.7000;0.9475;1.1219;
108.0000;0.9565;1.1382;
108.3000;0.9556;1.1499;
108.6000;0.9565;1.1522;
108.9000;0.9556;1.1475;
109.2000;0.9548;1.1359;
109.5000;0.9654;1.1522;
109.8000;0.9565;1.1359;
110.1000;0.9581;1.1499;
110.4000;0.9565;1.1405;
110.7000;0.9581;1.1405;
111.0000;0.9565;1.1499;
111.3000;0.9573;1.1499;
111.6000;0.9556;1.1452;
111.9000;0.9565;1.1405;
112.2000;0.9573;1.1452;
112.5000;0.9573;1.1499;
112.8000;0.9556;1.1545;
113.1000;0.9556;1.1475;
113.4000;0.9565;1.1405;
113.7000;0.9556;1.1359;
114.0000;0.9540;1.1335;
114.3000;0.9548;1.1405;
114.6000;0.9548;1.1429;
114.9000;0.9565;1.1452;
115.2000;0.9565;1.1475;
115.5000;0.9540;1.1475;
115.8000;0.9540;1.1545;
116.1000;0.9573;1.1685;
116.4000;0.9556;1.1708;
116.7000;0.9565;1.1778;
117.0000;0.9573;1.1778;
117.3000;0.9581;1.1825;
117.6000;0.9532;1.1662;
117.9000;0.9516;1.1592;
118.2000;0.9540;1.1592;
118.5000;0.9548;1.1522;
118.8000;0.9565;1.1522;
119.1000;0.9508;1.1359;
119.4000;0.9499;1.1452;
119.7000;0.9556;1.1639;
120.0000;0.9556;1.1615;
120.3000;0.9508;1.1429;
120.6000;0.9573;1.1569;
120.9000;0.9573;1.1569;
121.2000;0.9548;1.1475;
121.5000;0.9589;1.1545;
121.8000;0.9565;1.1569;
122.1000;0.9540;1.1569;
122.4000;0.9573;1.1685;
122.7000;0.9565;1.1662;
123.0000;0.9589;1.1732;
123.3000;0.9548;1.1592;
123.6000;0.9548;1.1639;
123.9000;0.9540;1.1569;
124.2000;0.9565;1.1569;
124.5000;0.9540;1.1499;
124.8000;0.9491;1.1359;
125.1000;0.9565;1.1452;
125.4000;0.9589;1.1499;
125.7000;0.9581;1.1475;
126.0000;0.9638;1.1615;
126.3000;0.9556;1.1522;
126.6000;0.9508;1.1405;
126.9000;0.9581;1.1545;
127.2000;0.9573;1.1569;
127.5000;0.9491;1.1265;
127.8000;0.9662;1.1662;
128.1000;0.9573;1.1475;
128.4000;0.9508;1.1335;
128.7000;0.9605;1.1569;
129.0000;0.9556;1.1499;
129.3000;0.9573;1.1499;
129.6000;0.9548;1.1452;
129.9000;0.9573;1.1429;
130.2000;0.9565;1.1475;
130.5000;0.9565;1.1499;
130.8000;0.9499;1.1242;
131.1000;0.9556;1.1359;
131.4000;0.9548;1.1405;
131.7000;0.9491;1.1359;
132.0000;0.9565;1.1522;
132.3000;0.9573;1.1522;
132.6000;0.9565;1.1429;
132.9000;0.9565;1.1429;
133.2000;0.9581;1.1522;
133.5000;0.9565;1.1475;
133.8000;0.9565;1.1475;
134.1000;0.9556;1.1522;
134.4000;0.9573;1.1499;
134.7000;0.9565;1.1522;
135.0000;0.9556;1.1545;
135.3000;0.9565;1.1615;
135.6000;0.9573;1.1639;
135.9000;0.9573;1.1639;
136.2000;0.9581;1.1708;
136.5000;0.9589;1.1708;
136.8000;0.9581;1.1639;
137.1000;0.9532;1.1475;
137.4000;0.9581;1.1522;
137.7000;0.9556;1.1475;
138.0000;0.9565;1.1522;
138.3000;0.9573;1.1639;
138.6000;0.9491;1.1499;
138.9000;0.9581;1.1685;
139.2000;0.9548;1.1639;
139.5000;0.9556;1.1639;
139.8000;0.9548;1.1615;
140.1000;0.9548;1.1592;
140.4000;0.9548;1.1592;
140.7000;0.9556;1.1592;
141.0000;0.9548;1.1615;
141.3000;0.9662;1.1825;
141.6000;0.9548;1.1499;
141.9000;0.9540;1.1522;
142.2000;0.9508;1.1475;
142.5000;0.9540;1.1522;
142.8000;0.9556;1.1569;
143.1000;0.9556;1.1592;
143.4000;0.9459;1.1499;
143.7000;0.9565;1.1708;
144.0000;0.9556;1.1778;
144.3000;0.9573;1.1825;
144.6000;0.9670;1.2105;
144.9000;0.9556;1.1848;
145.2000;0.9556;1.1825;
145.5000;0.9524;1.1802;
145.8000;0.9556;1.1802;
146.1000;0.9548;1.1708;
146.4000;0.9556;1.1569;
146.7000;0.9605;1.1639;
147.0000;0.9565;1.1569;
147.3000;0.9597;1.1778;
147.6000;0.9556;1.1872;
147.9000;0.9548;1.1825;
148.2000;0.9565;1.1848;
148.5000;0.9524;1.1755;
148.8000;0.9491;1.1615;
149.1000;0.9516;1.1615;
149.4000;0.9581;1.1755;
149.7000;0.9597;1.1732;
150.0000;0.9491;1.1545;
150.3000;0.9556;1.1732;
150.6000;0.9556;1.1685;
150.9000;0.9548;1.1592;
151.2000;0.9548;1.1639;
151.5000;0.9581;1.1639;
151.8000;0.9548;1.1592;
152.1000;0.9556;1.1732;
152.4000;0.9556;1.1708;
152.7000;0.9565;1.1615;
153.0000;0.9548;1.1545;
153.3000;0.9621;1.1708;
153.6000;0.9524;1.1592;
153.9000;0.9581;1.1708;
154.2000;0.9565;1.1778;
154.5000;0.9556;1.1755;
154.8000;0.9581;1.1825;
155.1000;0.9613;1.1942;
155.4000;0.9565;1.1825;
155.7000;0.9532;1.1732;
156.0000;0.9565;1.1708;
156.3000;0.9565;1.1732;
156.6000;0.9556;1.1615;
156.9000;0.9548;1.1615;
157.2000;0.9556;1.1639;
157.5000;0.9556;1.1685;
157.8000;0.9565;1.1778;
158.1000;0.9573;1.1778;
158.4000;0.9573;1.1685;
158.7000;0.9630;1.1778;
159.0000;0.9581;1.1685;
159.3000;0.9556;1.1685;
159.6000;0.9556;1.1569;
159.9000;0.9548;1.1592;
160.2000;0.9573;1.1639;
160.5000;0.9589;1.1615;
160.8000;0.9565;1.1639;
161.1000;0.9613;1.1848;
161.4000;0.9573;1.1802;
161.7000;0.9605;1.1825;
162.0000;0.9565;1.1778;
162.3000;0.9581;1.1848;
162.6000;0.9565;1.1848;
162.9000;0.9556;1.1872;
163.2000;0.9556;1.1802;
163.5000;0.9573;1.1825;
163.8000;0.9597;1.1825;
164.1000;0.9573;1.1708;
164.4000;0.9565;1.1708;
164.7000;0.9556;1.1592;
165.0000;0.9556;1.1662;
165.3000;0.9548;1.1732;
165.6000;0.9565;1.1755;
165.9000;0.9451;1.1475;
166.2000;0.9573;1.1802;
166.5000;0.9565;1.1825;
166.8000;0.9540;1.1755;
167.1000;0.9630;1.1895;
167.4000;0.9548;1.1662;
167.7000;0.9581;1.1778;
168.0000;0.9548;1.1732;
168.3000;0.9565;1.1685;
168.6000;0.9565;1.1615;
168.9000;0.9573;1.1639;
169.2000;0.9630;1.1662;
169.5000;0.9565;1.1499;
169.8000;0.9573;1.1522;
170.1000;0.9589;1.1569;
170.4000;0.9581;1.1545;
170.7000;0.9573;1.1475;
171.0000;0.9556;1.1522;
171.3000;0.9597;1.1662;
171.6000;0.9581;1.1662;
171.9000;0.9556;1.1639;
172.2000;0.9556;1.1662;
172.5000;0.9565;1.1592;
172.8000;0.9524;1.1499;
173.1000;0.9581;1.1639;
173.4000;0.9573;1.1778;
173.7000;0.9565;1.1778;
174.0000;0.9581;1.1825;
174.3000;0.9573;1.1755;
174.6000;0.9524;1.1569;
174.9000;0.9548;1.1639;
175.2000;0.9556;1.1685;
175.5000;0.9565;1.1708;
175.8000;0.9573;1.1685;
176.1000;0.9613;1.1755;
176.4000;0.9565;1.1639;
176.7000;0.9573;1.1569;
177.0000;0.9556;1.1639;
177.3000;0.9532;1.1615;
177.6000;0.9548;1.1685;
177.9000;0.9516;1.1732;
178.2000;0.9491;1.1685;
178.5000;0.9540;1.1778;
178.8000;0.9556;1.1755;
179.1000;0.9540;1.1755;
179.4000;0.9638;1.1942;
179.7000;0.9556;1.1708;
180.0000;0.9548;1.1639;
180.3000;0.9565;1.1499;
180.6000;0.9581;1.1522;
180.9000;0.9573;1.1522;
181.2000;0.9532;1.1335;
181.5000;0.9548;1.1429;
181.8000;0.9483;1.1312;
182.1000;0.9540;1.1499;
182.4000;0.9556;1.1429;
182.7000;0.9524;1.1405;
183.0000;0.9548;1.1545;
183.3000;0.9581;1.1615;
183.6000;0.9540;1.1499;
183.9000;0.9548;1.1475;
184.2000;0.9605;1.1569;
184.5000;0.9565;1.1499;
184.8000;0.9548;1.1522;
185.1000;0.9573;1.1569;
185.4000;0.9540;1.1522;
185.7000;0.9556;1.1522;
186.0000;0.9573;1.1569;
186.3000;0.9581;1.1639;
186.6000;0.9540;1.1522;
186.9000;0.9548;1.1569;
187.2000;0.9556;1.1545;
187.5000;0.9540;1.1615;
187.8000;0.9605;1.1639;
188.1000;0.9516;1.1522;
188.4000;0.9548;1.1569;
188.7000;0.9491;1.1499;
189.0000;0.9573;1.1662;
189.3000;0.9573;1.1802;
189.6000;0.9573;1.1778;
189.9000;0.9581;1.1755;
190.2000;0.9565;1.1732;
190.5000;0.9556;1.1708;
190.8000;0.9556;1.1708;
191.1000;0.9548;1.1615;
191.4000;0.9565;1.1592;
191.7000;0.9524;1.1522;
192.0000;0.9581;1.1569;
192.3000;0.9581;1.1569;
192.6000;0.9565;1.1545;
192.9000;0.9548;1.1592;
193.2000;0.9475;1.1382;
193.5000;0.9565;1.1522;
193.8000;0.9565;1.1545;
194.1000;0.9556;1.1569;
194.4000;0.9565;1.1592;
194.7000;0.9573;1.1615;
195.0000;0.9581;1.1708;
195.3000;0.9556;1.1592;
195.6000;0.9540;1.1545;
195.9000;0.9556;1.1452;
196.2000;0.9491;1.1312;
196.5000;0.9589;1.1452;
196.8000;0.9540;1.1359;
197.1000;0.9556;1.1429;
197.4000;0.9508;1.1265;
197.7000;0.9581;1.1475;
198.0000;0.9548;1.1522;
198.3000;0.9581;1.1639;
198.6000;0.9556;1.1569;
198.9000;0.9605;1.1662;
199.2000;0.9524;1.1499;
199.5000;0.9581;1.1592;
199.8000;0.9573;1.1569;
200.1000;0.9597;1.1662;
200.4000;0.9548;1.1499;
200.7000;0.9613;1.1662;
201.0000;0.9573;1.1592;
201.3000;0.9556;1.1522;
201.6000;0.9556;1.1499;
201.9000;0.9548;1.1475;
202.2000;0.9573;1.1545;
202.5000;0.9556;1.1569;
202.8000;0.9532;1.1592;
203.1000;0.9540;1.1499;
203.4000;0.9548;1.1545;
203.7000;0.9605;1.1708;
204.0000;0.9508;1.1615;
204.3000;0.9548;1.1755;
204.6000;0.9467;1.1499;
204.9000;0.9556;1.1569;
205.2000;0.9556;1.1475;
205.5000;0.9573;1.1382;
205.8000;0.9654;1.1522;
206.1000;0.9573;1.1289;
206.4000;0.9565;1.1382;
206.7000;0.9654;1.1639;
207.0000;0.9548;1.1452;
207.3000;0.9581;1.1569;
207.6000;0.9605;1.1592;
207.9000;0.9548;1.1452;
208.2000;0.9548;1.1475;
208.5000;0.9581;1.1522;
208.8000;0.9532;1.1475;
209.1000;0.9573;1.1499;
209.4000;0.9540;1.1312;
209.7000;0.9548;1.1242;
210.0000;0.9524;1.1312;
210.3000;0.9589;1.1475;
210.6000;0.9540;1.1359;
210.9000;0.9573;1.1405;
211.2000;0.9565;1.1475;
211.5000;0.9540;1.1429;
211.8000;0.9548;1.1382;
212.1000;0.9548;1.1195;
212.4000;0.9491;1.1055;
212.7000;0.9540;1.1195;
213.0000;0.9548;1.1265;
213.3000;0.9532;1.1382;
213.6000;0.9565;1.1429;
213.9000;0.9605;1.1522;
214.2000;0.9524;1.1359;
214.5000;0.9565;1.1545;
214.8000;0.9508;1.1429;
215.1000;0.9548;1.1405;
215.4000;0.9556;1.1382;
215.7000;0.9548;1.1359;
216.0000;0.9556;1.1452;
216.3000;0.9556;1.1452;
216.6000;0.9548;1.1452;
216.9000;0.9556;1.1592;
217.2000;0.9548;1.1499;
217.5000;0.9573;1.1499;
217.8000;0.9532;1.1405;
218.1000;0.9548;1.1429;
218.4000;0.9540;1.1405;
218.7000;0.9556;1.1499;
219.0000;0.9573;1.1615;
219.3000;0.9548;1.1615;
219.6000;0.9556;1.1778;
219.9000;0.9540;1.1708;
220.2000;0.9516;1.1708;
220.5000;0.9548;1.1825;
220.8000;0.9532;1.1732;
221.1000;0.9540;1.1872;
221.4000;0.9540;1.1872;
221.7000;0.9548;1.1825;
222.0000;0.9646;1.2035;
222.3000;0.9548;1.1802;
222.6000;0.9532;1.1778;
222.9000;0.9581;1.1965;
223.2000;0.9540;1.1802;
223.5000;0.9613;1.1942;
223.8000;0.9556;1.1755;
224.1000;0.9605;1.1825;
224.4000;0.9556;1.1685;
224.7000;0.9556;1.1685;
225.0000;0.9532;1.1592;
225.3000;0.9556;1.1662;
225.6000;0.9565;1.1685;
225.9000;0.9565;1.1778;
226.2000;0.9540;1.1825;
226.5000;0.9581;1.1895;
226.8000;0.9581;1.1872;
227.1000;0.9565;1.1778;
227.4000;0.9565;1.1825;
227.7000;0.9524;1.1662;
228.0000;0.9573;1.1685;
228.3000;0.9556;1.1615;
228.6000;0.9573;1.1708;
228.9000;0.9565;1.1708;
229.2000;0.9581;1.1685;
229.5000;0.9573;1.1708;
229.8000;0.9556;1.1662;
230.1000;0.9556;1.1615;
230.4000;0.9565;1.1662;
230.7000;0.9565;1.1755;
231.0000;0.9565;1.1778;
231.3000;0.9524;1.1685;
231.6000;0.9556;1.1732;
231.9000;0.9565;1.1685;
232.2000;0.9565;1.1778;
232.5000;0.9524;1.1592;
232.8000;0.9548;1.1639;
233.1000;0.9573;1.1662;
233.4000;0.9565;1.1569;
233.7000;0.9597;1.1639;
234.0000;0.9565;1.1569;
234.3000;0.9565;1.1569;
234.6000;0.9556;1.1569;
234.9000;0.9565;1.1639;
235.2000;0.9540;1.1615;
235.5000;0.9565;1.1592;
235.8000;0.9556;1.1569;
236.1000;0.9540;1.1615;
236.4000;0.9556;1.1708;
236.7000;0.9548;1.1569;
237.0000;0.9573;1.1475;
237.3000;0.9565;1.1592;
237.6000;0.9565;1.1522;
237.9000;0.9540;1.1452;
238.2000;0.9548;1.1452;
238.5000;0.9548;1.1522;
238.8000;0.9565;1.1452;
239.1000;0.9548;1.1475;
239.4000;0.9589;1.1662;
239.7000;0.9556;1.1592;
240.0000;0.9556;1.1639;
240.3000;0.9524;1.1545;
240.6000;0.9556;1.1639;
240.9000;0.9532;1.1592;
241.2000;0.9524;1.1569;
241.5000;0.9654;1.1895;
241.8000;0.9548;1.1569;
242.1000;0.9548;1.1499;
242.4000;0.9565;1.1592;
242.7000;0.9556;1.1615;
243.0000;0.9589;1.1615;
243.3000;0.9524;1.1475;
243.6000;0.9565;1.1499;
243.9000;0.9451;1.1219;
244.2000;0.9573;1.1592;
244.5000;0.9573;1.1615;
244.8000;0.9516;1.1499;
245.1000;0.9630;1.1825;
245.4000;0.9630;1.1802;
245.7000;0.9491;1.1522;
246.0000;0.9630;1.1848;
246.3000;0.9516;1.1615;
246.6000;0.9532;1.1662;
246.9000;0.9508;1.1662;
247.2000;0.9613;1.1872;
247.5000;0.9548;1.1639;
247.8000;0.9548;1.1569;
248.1000;0.9540;1.1592;
248.4000;0.9565;1.1639;
248.7000;0.9565;1.1708;
249.0000;0.9548;1.1639;
249.3000;0.9532;1.1522;
249.6000;0.9556;1.1662;
249.9000;0.9548;1.1592;
250.2000;0.9556;1.1569;
250.5000;0.9540;1.1475;
250.8000;0.9548;1.1522;
251.1000;0.9565;1.1615;
251.4000;0.9540;1.1639;
251.7000;0.9540;1.1615;
252.0000;0.9548;1.1662;
252.3000;0.9573;1.1662;
252.6000;0.9565;1.1662;
252.9000;0.9548;1.1592;
253.2000;0.9548;1.1499;
253.5000;0.9556;1.1545;
253.8000;0.9532;1.1499;
254.1000;0.9556;1.1545;
254.4000;0.9565;1.1452;
254.7000;0.9499;1.1382;
255.0000;0.9540;1.1545;
255.3000;0.9556;1.1545;
255.6000;0.9573;1.1615;
255.9000;0.9548;1.1429;
256.2000;0.9573;1.1569;
256.5000;0.9548;1.1475;
256.8000;0.9516;1.1335;
257.1000;0.9573;1.1545;
257.4000;0.9556;1.1452;
257.7000;0.9491;1.1265;
258.0000;0.9565;1.1359;
258.3000;0.9565;1.1405;
258.6000;0.9556;1.1499;
258.9000;0.9548;1.1475;
259.2000;0.9548;1.1522;
259.5000;0.9459;1.1335;
259.8000;0.9451;1.1335;
260.1000;0.9621;1.1708;
260.4000;0.9540;1.1499;
260.7000;0.9459;1.1289;
261.0000;0.9548;1.1545;
261.3000;0.9540;1.1522;
261.6000;0.9556;1.1592;
261.9000;0.9565;1.1615;
262.2000;0.9573;1.1639;
262.5000;0.9556;1.1592;
262.8000;0.9565;1.1639;
263.1000;0.9548;1.1639;
263.4000;0.9548;1.1639;
263.7000;0.9573;1.1708;
264.0000;0.9565;1.1685;
264.3000;0.9597;1.1755;
264.6000;0.9556;1.1522;
264.9000;0.9540;1.1545;
265.2000;0.9540;1.1569;
265.5000;0.9597;1.1615;
265.8000;0.9548;1.1545;
266.1000;0.9556;1.1475;
266.4000;0.9548;1.1475;
266.7000;0.9548;1.1452;
267.0000;0.9556;1.1452;
267.3000;0.9524;1.1382;
267.6000;0.9573;1.1545;
267.9000;0.9565;1.1475;
268.2000;0.9556;1.1452;
268.5000;0.9581;1.1475;
268.8000;0.9589;1.1569;
269.1000;0.9573;1.1475;
269.4000;0.9556;1.1592;
269.7000;0.9556;1.1639;
270.0000;0.9565;1.1639;
270.3000;0.9556;1.1569;
270.6000;0.9540;1.1429;
270.9000;0.9548;1.1359;
271.2000;0.9540;1.1359;
271.5000;0.9548;1.1335;
271.8000;0.9540;1.1265;
272.1000;0.9524;1.1312;
272.4000;0.9556;1.1405;
272.7000;0.9540;1.1452;
273.0000;0.9589;1.1545;
273.3000;0.9540;1.1522;
273.6000;0.9451;1.1335;
273.9000;0.9573;1.1592;
274.2000;0.9556;1.1592;
274.5000;0.9556;1.1592;
274.8000;0.9540;1.1545;
275.1000;0.9556;1.1499;
275.4000;0.9565;1.1475;
275.7000;0.9565;1.1452;
276.0000;0.9556;1.1499;
276.3000;0.9556;1.1545;
276.6000;0.9581;1.1639;
276.9000;0.9581;1.1662;
277.2000;0.9556;1.1708;
277.5000;0.9556;1.1778;
277.8000;0.9516;1.1778;
278.1000;0.9451;1.1615;
278.4000;0.9556;1.1918;
278.7000;0.9508;1.1802;
279.0000;0.9573;1.1872;
279.3000;0.9573;1.1942;
279.6000;0.9581;1.1895;
279.9000;0.9524;1.1732;
280.2000;0.9548;1.1872;
280.5000;0.9565;1.1942;
280.8000;0.9556;1.1848;
281.1000;0.9532;1.1825;
281.4000;0.9491;1.1755;
281.7000;0.9638;1.2012;
282.0000;0.9565;1.1778;
282.3000;0.9556;1.1732;
282.6000;0.9556;1.1708;
282.9000;0.9565;1.1778;
283.2000;0.9589;1.1755;
283.5000;0.9573;1.1732;
283.8000;0.9524;1.1685;
284.1000;0.9548;1.1755;
284.4000;0.9508;1.1755;
284.7000;0.9532;1.1872;
285.0000;0.9508;1.1755;
285.3000;0.9556;1.1802;
285.6000;0.9540;1.1732;
285.9000;0.9548;1.1708;
286.2000;0.9508;1.1592;
286.5000;0.9565;1.1662;
286.8000;0.9540;1.1662;
287.1000;0.9548;1.1732;
287.4000;0.9556;1.1708;
287.7000;0.9532;1.1662;
288.0000;0.9556;1.1732;
288.3000;0.9556;1.1732;
288.6000;0.9532;1.1685;
288.9000;0.9556;1.1802;
289.2000;0.9565;1.1802;
289.5000;0.9573;1.1732;
289.8000;0.9548;1.1802;
290.1000;0.9556;1.1848;
290.4000;0.9573;1.1825;
290.7000;0.9556;1.1708;
291.0000;0.9565;1.1755;
291.3000;0.9491;1.1499;
291.6000;0.9556;1.1639;
291.9000;0.9548;1.1708;
292.2000;0.9524;1.1685;
292.5000;0.9532;1.1662;
292.8000;0.9565;1.1662;
293.1000;0.9499;1.1499;
293.4000;0.9491;1.1545;
293.7000;0.9597;1.1825;
294.0000;0.9540;1.1592;
294.3000;0.9556;1.1569;
294.6000;0.9556;1.1615;
294.9000;0.9556;1.1569;
295.2000;0.9556;1.1545;
295.5000;0.9540;1.1569;
295.8000;0.9556;1.1499;
296.1000;0.9565;1.1522;
296.4000;0.9565;1.1569;
296.7000;0.9540;1.1545;
297.0000;0.9540;1.1545;
297.3000;0.9556;1.1545;
297.6000;0.9540;1.1499;
297.9000;0.9540;1.1429;
298.2000;0.9475;1.1219;
298.5000;0.9573;1.1359;
298.8000;0.9524;1.1289;
299.1000;0.9540;1.1359;
299.4000;0.9565;1.1452;
299.7000;0.9565;1.1569;
300.0000;0.9565;1.1639;
300.3000;0.9556;1.1662;
300.6000;0.9613;1.1778;
300.9000;0.9556;1.1615;
301.2000;0.9581;1.1685;
301.5000;0.9573;1.1615;
301.8000;0.9548;1.1545;
302.1000;0.9597;1.1639;
302.4000;0.9556;1.1522;
302.7000;0.9556;1.1615;
303.0000;0.9548;1.1452;
303.3000;0.9556;1.1475;
303.6000;0.9540;1.1405;
303.9000;0.9540;1.1429;
304.2000;0.9540;1.1452;
304.5000;0.9540;1.1522;
304.8000;0.9540;1.1382;
305.1000;0.9548;1.1359;
305.4000;0.9540;1.1359;
305.7000;0.9581;1.1405;
306.0000;0.9565;1.1335;
306.3000;0.9556;1.1359;
306.6000;0.9565;1.1335;
306.9000;0.9556;1.1335;
307.2000;0.9565;1.1359;
307.5000;0.9556;1.1335;
307.8000;0.9662;1.1615;
308.1000;0.9597;1.1499;
308.4000;0.9565;1.1335;
308.7000;0.9573;1.1429;
309.0000;0.9573;1.1475;
309.3000;0.9532;1.1405;
309.6000;0.9556;1.1452;
309.9000;0.9540;1.1452;
310.2000;0.9548;1.1545;
310.5000;0.9556;1.1569;
310.8000;0.9565;1.1545;
311.1000;0.9548;1.1592;
311.4000;0.9565;1.1545;
311.7000;0.9540;1.1545;
312.0000;0.9548;1.1569;
312.3000;0.9548;1.1522;
312.6000;0.9540;1.1499;
312.9000;0.9548;1.1452;
313.2000;0.9540;1.1452;
313.5000;0.9556;1.1452;
313.8000;0.9540;1.1475;
314.1000;0.9581;1.1569;
314.4000;0.9556;1.1499;
314.7000;0.9516;1.1405;
315.0000;0.9565;1.1522;
315.3000;0.9597;1.1592;
315.6000;0.9540;1.1475;
315.9000;0.9565;1.1569;
316.2000;0.9516;1.1475;
316.5000;0.9548;1.1475;
316.8000;0.9524;1.1359;
317.1000;0.9556;1.1452;
317.4000;0.9540;1.1499;
317.7000;0.9556;1.1615;
318.0000;0.9540;1.1499;
318.3000;0.9556;1.1545;
318.6000;0.9540;1.1499;
318.9000;0.9565;1.1499;
319.2000;0.9532;1.1499;
319.5000;0.9556;1.1685;
319.8000;0.9532;1.1639;
320.1000;0.9556;1.1708;
320.4000;0.9540;1.1639;
320.7000;0.9597;1.1732;
321.0000;0.9556;1.1639;
321.3000;0.9556;1.1569;
321.6000;0.9654;1.1802;
321.9000;0.9565;1.1522;
322.2000;0.9556;1.1405;
322.5000;0.9556;1.1545;
322.8000;0.9540;1.1499;
323.1000;0.9556;1.1569;
323.4000;0.9532;1.1639;
323.7000;0.9548;1.1685;
324.0000;0.9548;1.1685;
324.3000;0.9532;1.1615;
324.6000;0.9556;1.1639;
324.9000;0.9532;1.1522;
325.2000;0.9548;1.1569;
325.5000;0.9565;1.1639;
325.8000;0.9556;1.1615;
326.1000;0.9548;1.1592;
326.4000;0.9613;1.1778;
326.7000;0.9565;1.1732;
327.0000;0.9565;1.1592;
327.3000;0.9565;1.1592;
327.6000;0.9556;1.1499;
327.9000;0.9540;1.1499;
328.2000;0.9573;1.1662;
328.5000;0.9565;1.1592;
328.8000;0.9556;1.1592;
329.1000;0.9565;1.1662;
329.4000;0.9565;1.1592;
329.7000;0.9548;1.1592;
330.0000;0.9565;1.1545;
330.3000;0.9548;1.1662;
330.6000;0.9540;1.1662;
330.9000;0.9548;1.1592;
331.2000;0.9548;1.1755;
331.5000;0.9540;1.1732;
331.8000;0.9556;1.1708;
332.1000;0.9540;1.1639;
332.4000;0.9491;1.1475;
332.7000;0.9524;1.1499;
333.0000;0.9540;1.1522;
333.3000;0.9548;1.1592;
333.6000;0.9524;1.1569;
333.9000;0.9548;1.1685;
334.2000;0.9565;1.1802;
334.5000;0.9499;1.1708;
334.8000;0.9540;1.1708;
335.1000;0.9556;1.1708;
335.4000;0.9548;1.1732;
335.7000;0.9548;1.1732;
336.0000;0.9556;1.1685;
336.3000;0.9540;1.1662;
336.6000;0.9581;1.1848;
336.9000;0.9565;1.1778;
337.2000;0.9556;1.1685;
337.5000;0.9532;1.1615;
337.8000;0.9565;1.1708;
338.1000;0.9573;1.1778;
338.4000;0.9565;1.1708;
338.7000;0.9548;1.1639;
339.0000;0.9540;1.1615;
339.3000;0.9630;1.1802;
339.6000;0.9565;1.1662;
339.9000;0.9548;1.1569;
340.2000;0.9556;1.1639;
340.5000;0.9548;1.1592;
340.8000;0.9548;1.1545;
341.1000;0.9565;1.1569;
341.4000;0.9508;1.1452;
341.7000;0.9565;1.1569;
342.0000;0.9556;1.1615;
342.3000;0.9556;1.1592;
342.6000;0.9613;1.1662;
342.9000;0.9524;1.1405;
343.2000;0.9540;1.1452;
343.5000;0.9540;1.1592;
343.8000;0.9556;1.1639;
344.1000;0.9540;1.1592;
344.4000;0.9556;1.1615;
344.7000;0.9532;1.1592;
345.0000;0.9532;1.1499;
345.3000;0.9540;1.1522;
345.6000;0.9548;1.1475;
345.9000;0.9524;1.1545;
346.2000;0.9540;1.1615;
346.5000;0.9548;1.1615;
346.8000;0.9548;1.1592;
347.1000;0.9556;1.1662;
347.4000;0.9556;1.1662;
347.7000;0.9565;1.1732;
348.0000;0.9605;1.1918;
348.3000;0.9548;1.1802;
348.6000;0.9548;1.1802;
348.9000;0.9556;1.1662;
349.2000;0.9540;1.1592;
349.5000;0.9540;1.1615;
349.8000;0.9556;1.1545;
350.1000;0.9565;1.1545;
350.4000;0.9556;1.1592;
350.7000;0.9548;1.1662;
351.0000;0.9638;1.1918;
351.3000;0.9556;1.1662;
351.6000;0.9524;1.1569;
351.9000;0.9548;1.1592;
352.2000;0.9540;1.1499;
352.5000;0.9548;1.1545;
352.8000;0.9556;1.1569;
353.1000;0.9556;1.1499;
353.4000;0.9565;1.1475;
353.7000;0.9597;1.1499;
354.0000;0.9540;1.1429;
354.3000;0.9532;1.1475;
354.6000;0.9540;1.1499;
354.9000;0.9573;1.1522;
355.2000;0.9589;1.1615;
355.5000;0.9532;1.1475;
355.8000;0.9516;1.1475;
356.1000;0.9540;1.1499;
356.4000;0.9532;1.1499;
356.7000;0.9532;1.1545;
357.0000;0.9532;1.1522;
357.3000;0.9540;1.1499;
357.6000;0.9548;1.1522;
357.9000;0.9556;1.1475;
358.2000;0.9524;1.1452;
358.5000;0.9459;1.1265;
358.8000;0.9532;1.1475;
359.1000;0.9524;1.1475;
359.4000;0.9524;1.1475;
359.7000;0.9548;1.1452;
360.0000;0.9565;1.1522;
360.3000;0.9532;1.1522;
360.6000;0.9540;1.1545;
360.9000;0.9548;1.1639;
361.2000;0.9565;1.1685;
361.5000;0.9548;1.1615;
361.8000;0.9491;1.1452;
362.1000;0.9565;1.1639;
362.4000;0.9548;1.1615;
362.7000;0.9565;1.1615;
363.0000;0.9532;1.1545;
363.3000;0.9605;1.1708;
363.6000;0.9556;1.1639;
363.9000;0.9565;1.1662;
364.2000;0.9565;1.1662;
364.5000;0.9548;1.1615;
364.8000;0.9556;1.1592;
365.1000;0.9565;1.1615;
365.4000;0.9499;1.1475;
365.7000;0.9556;1.1569;
366.0000;0.9540;1.1545;
366.3000;0.9434;1.1289;
366.6000;0.9621;1.1732;
366.9000;0.9556;1.1522;
367.2000;0.9581;1.1592;
367.5000;0.9613;1.1662;
367.8000;0.9556;1.1639;
368.1000;0.9565;1.1662;
368.4000;0.9548;1.1662;
368.7000;0.9540;1.1592;
369.0000;0.9556;1.1615;
369.3000;0.9548;1.1685;
369.6000;0.9524;1.1545;
369.9000;0.9540;1.1639;
370.2000;0.9540;1.1615;
370.5000;0.9548;1.1662;
370.8000;0.9548;1.1708;
371.1000;0.9548;1.1615;
371.4000;0.9548;1.1592;
371.7000;0.9548;1.1662;
372.0000;0.9548;1.1639;
372.3000;0.9540;1.1662;
372.6000;0.9573;1.1639;
372.9000;0.9565;1.1569;
373.2000;0.9548;1.1522;
373.5000;0.9589;1.1592;
373.8000;0.9548;1.1499;
374.1000;0.9589;1.1569;
374.4000;0.9556;1.1499;
374.7000;0.9540;1.1405;
375.0000;0.9548;1.1429;
375.3000;0.9540;1.1452;
375.6000;0.9565;1.1522;
375.9000;0.9556;1.1499;
376.2000;0.9540;1.1382;
376.5000;0.9605;1.1545;
376.8000;0.9589;1.1522;
377.1000;0.9540;1.1452;
377.4000;0.9589;1.1615;
377.7000;0.9548;1.1662;
378.0000;0.9532;1.1592;
378.3000;0.9556;1.1708;
378.6000;0.9540;1.1708;
378.9000;0.9442;1.1405;
379.2000;0.9540;1.1639;
379.5000;0.9524;1.1662;
379.8000;0.9581;1.1848;
380.1000;0.9524;1.1639;
380.4000;0.9540;1.1708;
380.7000;0.9548;1.1732;
381.0000;0.9548;1.1708;
381.3000;0.9548;1.1662;
381.6000;0.9540;1.1639;
381.9000;0.9524;1.1545;
382.2000;0.9540;1.1685;
382.5000;0.9630;1.1918;
382.8000;0.9508;1.1685;
383.1000;0.9540;1.1708;
383.4000;0.9532;1.1732;
383.7000;0.9540;1.1755;
384.0000;0.9556;1.1848;
384.3000;0.9548;1.1825;
384.6000;0.9565;1.1802;
384.9000;0.9540;1.1685;
385.2000;0.9540;1.1639;
385.5000;0.9548;1.1639;
385.8000;0.9540;1.1592;
386.1000;0.9605;1.1732;
386.4000;0.9548;1.1639;
386.7000;0.9524;1.1592;
387.0000;0.9556;1.1662;
387.3000;0.9548;1.1755;
387.6000;0.9556;1.1825;
387.9000;0.9516;1.1755;
388.2000;0.9516;1.1662;
388.5000;0.9630;1.1872;
388.8000;0.9532;1.1639;
389.1000;0.9540;1.1592;
389.4000;0.9532;1.1569;
389.7000;0.9540;1.1545;
390.0000;0.9524;1.1545;
390.3000;0.9540;1.1522;
390.6000;0.9556;1.1615;
390.9000;0.9548;1.1569;
391.2000;0.9540;1.1569;
391.5000;0.9483;1.1452;
391.8000;0.9540;1.1569;
392.1000;0.9540;1.1499;
392.4000;0.9524;1.1475;
392.7000;0.9459;1.1312;
393.0000;0.9467;1.1335;
393.3000;0.9565;1.1522;
393.6000;0.9467;1.1452;
393.9000;0.9532;1.1592;
394.2000;0.9548;1.1639;
394.5000;0.9565;1.1592;
394.8000;0.9630;1.1732;
395.1000;0.9556;1.1569;
395.4000;0.9491;1.1382;
395.7000;0.9532;1.1429;
396.0000;0.9548;1.1475;
396.3000;0.9573;1.1592;
396.6000;0.9565;1.1592;
396.9000;0.9548;1.1569;
397.2000;0.9556;1.1429;
397.5000;0.9524;1.1429;
397.8000;0.9556;1.1545;
398.1000;0.9556;1.1545;
398.4000;0.9540;1.1452;
398.7000;0.9532;1.1452;
399.0000;0.9516;1.1382;
399.3000;0.9605;1.1475;
399.6000;0.9605;1.1429;
399.9000;0.9597;1.1359;
400.2000;0.9565;1.1382;
400.5000;0.9556;1.1335;
400.8000;0.9581;1.1452;
401.1000;0.9540;1.1359;
401.4000;0.9516;1.1312;
401.7000;0.9499;1.1265;
402.0000;0.9548;1.1405;
402.3000;0.9548;1.1452;
402.6000;0.9524;1.1359;
402.9000;0.9524;1.1382;
403.2000;0.9540;1.1499;
403.5000;0.9548;1.1615;
403.8000;0.9532;1.1569;
404.1000;0.9573;1.1592;
404.4000;0.9540;1.1522;
404.7000;0.9565;1.1545;
405.0000;0.9532;1.1499;
405.3000;0.9556;1.1522;
405.6000;0.9556;1.1452;
405.9000;0.9548;1.1382;
406.2000;0.9508;1.1382;
406.5000;0.9548;1.1429;
406.8000;0.9532;1.1452;
407.1000;0.9516;1.1382;
407.4000;0.9556;1.1382;
407.7000;0.9548;1.1289;
408.0000;0.9548;1.1195;
408.3000;0.9548;1.1265;
408.6000;0.9589;1.1405;
408.9000;0.9556;1.1382;
409.2000;0.9540;1.1452;
409.5000;0.9548;1.1475;
409.8000;0.9573;1.1545;
410.1000;0.9532;1.1499;
410.4000;0.9532;1.1475;
410.7000;0.9556;1.1522;
411.0000;0.9556;1.1452;
411.3000;0.9524;1.1359;
411.6000;0.9483;1.1219;
411.9000;0.9532;1.1359;
412.2000;0.9532;1.1475;
412.5000;0.9540;1.1592;
412.8000;0.9548;1.1708;
413.1000;0.9556;1.1592;
413.4000;0.9605;1.1732;
413.7000;0.9597;1.1685;
414.0000;0.9540;1.1569;
414.3000;0.9467;1.1359;
414.6000;0.9540;1.1522;
414.9000;0.9556;1.1522;
415.2000;0.9499;1.1522;
415.5000;0.9524;1.1545;
415.8000;0.9540;1.1569;
416.1000;0.9548;1.1545;
416.4000;0.9556;1.1639;
416.7000;0.9540;1.1569;
417.0000;0.9508;1.1499;
417.3000;0.9524;1.1475;
417.6000;0.9508;1.1405;
417.9000;0.9540;1.1545;
418.2000;0.9540;1.1545;
418.5000;0.9540;1.1452;
418.8000;0.9556;1.1452;
419.1000;0.9556;1.1545;
419.4000;0.9556;1.1615;
419.7000;0.9548;1.1592;
420.0000;0.9548;1.1522;
420.3000;0.9548;1.1592;
420.6000;0.9516;1.1522;
420.9000;0.9548;1.1639;
421.2000;0.9556;1.1569;
421.5000;0.9556;1.1499;
421.8000;0.9540;1.1475;
422.1000;0.9548;1.1499;
422.4000;0.9499;1.1405;
422.7000;0.9548;1.1522;
423.0000;0.9638;1.1778;
423.3000;0.9540;1.1499;
423.6000;0.9532;1.1452;
423.9000;0.9589;1.1592;
424.2000;0.9426;1.1265;
424.5000;0.9532;1.1475;
424.8000;0.9516;1.1475;
425.1000;0.9548;1.1499;
425.4000;0.9532;1.1475;
425.7000;0.9548;1.1452;
426.0000;0.9532;1.1382;
426.3000;0.9532;1.1359;
426.6000;0.9540;1.1405;
426.9000;0.9524;1.1452;
427.2000;0.9524;1.1429;
427.5000;0.9524;1.1475;
427.8000;0.9532;1.1499;
428.1000;0.9524;1.1429;
428.4000;0.9540;1.1429;
428.7000;0.9524;1.1499;
429.0000;0.9540;1.1499;
429.3000;0.9556;1.1639;
429.6000;0.9540;1.1615;
429.9000;0.9573;1.1545;
430.2000;0.9548;1.1522;
430.5000;0.9565;1.1569;
430.8000;0.9548;1.1522;
431.1000;0.9565;1.1569;
431.4000;0.9565;1.1592;
431.7000;0.9556;1.1569;
432.0000;0.9573;1.1592;
432.3000;0.9540;1.1475;
432.6000;0.9565;1.1499;
432.9000;0.9556;1.1429;
433.2000;0.9597;1.1522;
433.5000;0.9556;1.1499;
433.8000;0.9540;1.1475;
434.1000;0.9548;1.1545;
434.4000;0.9540;1.1522;
434.7000;0.9548;1.1522;
435.0000;0.9556;1.1499;
435.3000;0.9565;1.1615;
435.6000;0.9556;1.1639;
435.9000;0.9540;1.1615;
436.2000;0.9483;1.1452;
436.5000;0.9532;1.1545;
436.8000;0.9548;1.1569;
437.1000;0.9548;1.1499;
437.4000;0.9532;1.1499;
437.7000;0.9508;1.1405;
438.0000;0.9524;1.1499;
438.3000;0.9605;1.1662;
438.6000;0.9581;1.1708;
438.9000;0.9573;1.1592;
439.2000;0.9532;1.1522;
439.5000;0.9540;1.1545;
439.8000;0.9524;1.1569;
440.1000;0.9524;1.1522;
440.4000;0.9532;1.1545;
440.7000;0.9556;1.1639;
441.0000;0.9532;1.1569;
441.3000;0.9516;1.1475;
441.6000;0.9540;1.1569;
441.9000;0.9532;1.1615;
442.2000;0.9548;1.1569;
442.5000;0.9548;1.1522;
442.8000;0.9532;1.1475;
443.1000;0.9548;1.1475;
443.4000;0.9532;1.1475;
443.7000;0.9548;1.1499;
444.0000;0.9524;1.1475;
444.3000;0.9548;1.1475;
444.6000;0.9548;1.1429;
444.9000;0.9548;1.1405;
445.2000;0.9540;1.1429;
445.5000;0.9548;1.1429;
445.8000;0.9573;1.1475;
446.1000;0.9540;1.1429;
446.4000;0.9532;1.1265;
446.7000;0.9483;1.1125;
447.0000;0.9524;1.1359;
447.3000;0.9548;1.1382;
447.6000;0.9532;1.1289;
447.9000;0.9540;1.1359;
448.2000;0.9483;1.1242;
448.5000;0.9540;1.1312;
448.8000;0.9532;1.1405;
449.1000;0.9548;1.1499;
449.4000;0.9524;1.1545;
449.7000;0.9532;1.1615;
450.0000;0.9556;1.1592;
450.3000;0.9524;1.1382;
450.6000;0.9540;1.1475;
450.9000;0.9532;1.1475;
451.2000;0.9540;1.1499;
451.5000;0.9532;1.1522;
451.8000;0.9540;1.1545;
452.1000;0.9638;1.1708;
452.4000;0.9565;1.1592;
452.7000;0.9548;1.1569;
453.0000;0.9548;1.1569;
453.3000;0.9548;1.1569;
453.6000;0.9556;1.1662;
453.9000;0.9540;1.1615;
454.2000;0.9556;1.1708;
454.5000;0.9483;1.1569;
454.8000;0.9540;1.1708;
455.1000;0.9540;1.1639;
455.4000;0.9540;1.1475;
455.7000;0.9548;1.1522;
456.0000;0.9565;1.1545;
456.3000;0.9556;1.1569;
456.6000;0.9516;1.1592;
456.9000;0.9540;1.1592;
457.2000;0.9662;1.1918;
457.5000;0.9548;1.1639;
457.8000;0.9556;1.1639;
458.1000;0.9516;1.1592;
458.4000;0.9540;1.1685;
458.7000;0.9573;1.1685;
459.0000;0.9540;1.1569;
459.3000;0.9442;1.1265;
459.6000;0.9540;1.1429;
459.9000;0.9540;1.1312;
460.2000;0.9524;1.1382;
460.5000;0.9532;1.1382;
460.8000;0.9548;1.1452;
461.1000;0.9524;1.1429;
461.4000;0.9532;1.1499;
461.7000;0.9540;1.1545;
462.0000;0.9597;1.1662;
462.3000;0.9540;1.1522;
462.6000;0.9532;1.1359;
462.9000;0.9589;1.1475;
463.2000;0.9548;1.1405;
463.5000;0.9532;1.1359;
463.8000;0.9532;1.1359;
464.1000;0.9532;1.1265;
464.4000;0.9524;1.1242;
464.7000;0.9597;1.1312;
465.0000;0.9565;1.1312;
465.3000;0.9548;1.1382;
465.6000;0.9556;1.1522;
465.9000;0.9516;1.1382;
466.2000;0.9540;1.1475;
466.5000;0.9556;1.1522;
466.8000;0.9556;1.1545;
467.1000;0.9540;1.1429;
467.4000;0.9548;1.1382;
467.7000;0.9597;1.1499;
468.0000;0.9532;1.1382;
468.3000;0.9548;1.1452;
468.6000;0.9532;1.1499;
468.9000;0.9548;1.1545;
469.2000;0.9540;1.1499;
469.5000;0.9556;1.1569;
469.8000;0.9540;1.1545;
470.1000;0.9524;1.1545;
470.4000;0.9548;1.1475;
470.7000;0.9556;1.1475;
471.0000;0.9540;1.1475;
471.3000;0.9556;1.1499;
471.6000;0.9581;1.1475;
471.9000;0.9597;1.1615;
472.2000;0.9540;1.1475;
472.5000;0.9540;1.1522;
472.8000;0.9499;1.1475;
473.1000;0.9524;1.1499;
473.4000;0.9524;1.1499;
473.7000;0.9605;1.1732;
474.0000;0.9565;1.1662;
474.3000;0.9540;1.1545;
474.6000;0.9532;1.1475;
474.9000;0.9491;1.1335;
475.2000;0.9573;1.1569;
475.5000;0.9532;1.1545;
475.8000;0.9516;1.1475;
476.1000;0.9516;1.1405;
476.4000;0.9548;1.1475;
476.7000;0.9524;1.1475;
477.0000;0.9532;1.1452;
477.3000;0.9524;1.1522;
477.6000;0.9532;1.1685;
477.9000;0.9548;1.1615;
478.2000;0.9556;1.1569;
478.5000;0.9516;1.1312;
478.8000;0.9532;1.1405;
479.1000;0.9540;1.1405;
479.4000;0.9581;1.1452;
479.7000;0.9556;1.1429;
480.0000;0.9540;1.1429;
480.3000;0.9630;1.1639;
480.6000;0.9524;1.1382;
480.9000;0.9524;1.1429;
481.2000;0.9565;1.1522;
481.5000;0.9581;1.1499;
481.8000;0.9540;1.1429;
482.1000;0.9516;1.1289;
482.4000;0.9483;1.1219;
482.7000;0.9540;1.1405;
483.0000;0.9532;1.1475;
483.3000;0.9540;1.1499;
483.6000;0.9565;1.1545;
483.9000;0.9548;1.1569;
484.2000;0.9540;1.1545;
484.5000;0.9548;1.1545;
484.8000;0.9597;1.1662;
485.1000;0.9532;1.1545;
485.4000;0.9540;1.1662;
485.7000;0.9532;1.1685;
486.0000;0.9483;1.1569;
486.3000;0.9516;1.1639;
486.6000;0.9524;1.1569;
486.9000;0.9524;1.1569;
487.2000;0.9508;1.1545;
487.5000;0.9524;1.1569;
487.8000;0.9532;1.1545;
488.1000;0.9646;1.1802;
488.4000;0.9556;1.1499;
488.7000;0.9548;1.1475;
489.0000;0.9548;1.1405;
489.3000;0.9548;1.1382;
489.6000;0.9548;1.1452;
489.9000;0.9524;1.1405;
490.2000;0.9524;1.1382;
490.5000;0.9532;1.1569;
490.8000;0.9646;1.1778;
491.1000;0.9532;1.1499;
491.4000;0.9548;1.1522;
491.7000;0.9524;1.1475;
492.0000;0.9508;1.1475;
492.3000;0.9548;1.1592;
492.6000;0.9524;1.1499;
492.9000;0.9532;1.1592;
493.2000;0.9556;1.1569;
493.5000;0.9548;1.1522;
493.8000;0.9565;1.1545;
494.1000;0.9540;1.1545;
494.4000;0.9548;1.1662;
494.7000;0.9548;1.1639;
495.0000;0.9548;1.1569;
495.3000;0.9540;1.1592;
495.6000;0.9556;1.1802;
495.9000;0.9491;1.1639;
496.2000;0.9524;1.1732;
496.5000;0.9508;1.1685;
496.8000;0.9597;1.1872;
497.1000;0.9573;1.1708;
497.4000;0.9540;1.1662;
497.7000;0.9532;1.1732;
498.0000;0.9532;1.1639;
498.3000;0.9524;1.1615;
498.6000;0.9540;1.1639;
498.9000;0.9532;1.1592;
499.2000;0.9548;1.1615;
499.5000;0.9532;1.1522;
499.8000;0.9540;1.1475;
500.1000;0.9532;1.1359;
500.4000;0.9532;1.1405;
500.7000;0.9532;1.1429;
501.0000;0.9573;1.1522;
501.3000;0.9565;1.1429;
501.6000;0.9524;1.1312;
501.9000;0.9532;1.1382;
502.2000;0.9524;1.1359;
502.5000;0.9540;1.1405;
502.8000;0.9540;1.1429;
503.1000;0.9532;1.1359;
503.4000;0.9556;1.1429;
503.7000;0.9532;1.1242;
504.0000;0.9540;1.1289;
504.3000;0.9548;1.1312;
504.6000;0.9524;1.1312;
504.9000;0.9532;1.1219;
505.2000;0.9499;1.1172;
505.5000;0.9540;1.1265;
505.8000;0.9540;1.1289;
506.1000;0.9516;1.1265;
506.4000;0.9524;1.1219;
506.7000;0.9516;1.1265;
507.0000;0.9499;1.1242;
507.3000;0.9540;1.1242;
507.6000;0.9475;1.1102;
507.9000;0.9524;1.1219;
508.2000;0.9565;1.1499;
508.5000;0.9418;1.1242;
508.8000;0.9532;1.1405;
509.1000;0.9491;1.1265;
509.4000;0.9540;1.1429;
509.7000;0.9556;1.1522;
510.0000;0.9532;1.1475;
510.3000;0.9508;1.1429;
510.6000;0.9508;1.1429;
510.9000;0.9532;1.1499;
511.2000;0.9589;1.1592;
511.5000;0.9532;1.1452;
511.8000;0.9532;1.1475;
512.1000;0.9442;1.1289;
512.4000;0.9524;1.1429;
512.7000;0.9491;1.1359;
513.0000;0.9524;1.1382;
513.3000;0.9548;1.1475;
513.6000;0.9556;1.1429;
513.9000;0.9540;1.1429;
514.2000;0.9548;1.1405;
514.5000;0.9524;1.1335;
514.8000;0.9524;1.1382;
515.1000;0.9532;1.1429;
515.4000;0.9532;1.1382;
515.7000;0.9532;1.1312;
516.0000;0.9532;1.1335;
516.3000;0.9540;1.1382;
516.6000;0.9556;1.1429;
516.9000;0.9540;1.1452;
517.2000;0.9532;1.1405;
517.5000;0.9532;1.1312;
517.8000;0.9548;1.1382;
518.1000;0.9467;1.1265;
518.4000;0.9532;1.1499;
518.7000;0.9540;1.1499;
519.0000;0.9532;1.1499;
519.3000;0.9556;1.1569;
519.6000;0.9524;1.1545;
519.9000;0.9532;1.1522;
520.2000;0.9508;1.1429;
520.5000;0.9524;1.1452;
520.8000;0.9483;1.1335;
521.1000;0.9540;1.1545;
521.4000;0.9540;1.1499;
521.7000;0.9548;1.1569;
522.0000;0.9524;1.1499;
522.3000;0.9524;1.1452;
522.6000;0.9532;1.1522;
522.9000;0.9662;1.1872;
523.2000;0.9540;1.1639;
523.5000;0.9556;1.1569;
523.8000;0.9548;1.1569;
524.1000;0.9532;1.1522;
524.4000;0.9524;1.1499;
524.7000;0.9548;1.1545;
525.0000;0.9532;1.1429;
525.3000;0.9532;1.1452;
525.6000;0.9556;1.1685;
525.9000;0.9548;1.1708;
526.2000;0.9524;1.1569;
526.5000;0.9548;1.1569;
526.8000;0.9540;1.1545;
527.1000;0.9532;1.1545;
527.4000;0.9516;1.1522;
527.7000;0.9540;1.1569;
528.0000;0.9540;1.1522;
528.3000;0.9532;1.1545;
528.6000;0.9532;1.1569;
528.9000;0.9540;1.1615;
529.2000;0.9524;1.1592;
529.5000;0.9540;1.1592;
529.8000;0.9516;1.1569;
530.1000;0.9516;1.1592;
530.4000;0.9532;1.1732;
530.7000;0.9491;1.1615;
531.0000;0.9565;1.1639;
531.3000;0.9548;1.1592;
531.6000;0.9621;1.1872;
531.9000;0.9532;1.1615;
532.2000;0.9532;1.1569;
532.5000;0.9556;1.1708;
532.8000;0.9548;1.1778;
533.1000;0.9589;1.1848;
533.4000;0.9508;1.1685;
533.7000;0.9483;1.1545;
534.0000;0.9532;1.1569;
534.3000;0.9556;1.1615;
534.6000;0.9516;1.1522;
534.9000;0.9508;1.1545;
535.2000;0.9516;1.1615;
535.5000;0.9540;1.1708;
535.8000;0.9540;1.1569;
536.1000;0.9548;1.1592;
536.4000;0.9540;1.1522;
536.7000;0.9548;1.1569;
537.0000;0.9540;1.1592;
537.3000;0.9524;1.1615;
537.6000;0.9516;1.1569;
537.9000;0.9524;1.1522;
538.2000;0.9524;1.1592;
538.5000;0.9516;1.1499;
538.8000;0.9532;1.1475;
539.1000;0.9540;1.1569;
539.4000;0.9516;1.1569;
539.7000;0.9540;1.1522;
540.0000;0.9540;1.1452;
540.3000;0.9548;1.1429;
540.6000;0.9540;1.1289;
540.9000;0.9548;1.1265;
541.2000;0.9524;1.1219;
541.5000;0.9556;1.1359;
541.8000;0.9540;1.1405;
542.1000;0.9532;1.1359;
542.4000;0.9516;1.1382;
542.7000;0.9483;1.1242;
543.0000;0.9524;1.1289;
543.3000;0.9548;1.1335;
543.6000;0.9532;1.1265;
543.9000;0.9540;1.1242;
544.2000;0.9508;1.1172;
544.5000;0.9548;1.1195;
544.8000;0.9508;1.1219;
545.1000;0.9524;1.1289;
545.4000;0.9532;1.1242;
545.7000;0.9516;1.1265;
546.0000;0.9524;1.1242;
546.3000;0.9548;1.1312;
546.6000;0.9524;1.1312;
546.9000;0.9540;1.1335;
547.2000;0.9532;1.1335;
547.5000;0.9540;1.1242;
547.8000;0.9548;1.1289;
548.1000;0.9540;1.1265;
548.4000;0.9532;1.1219;
548.7000;0.9516;1.1265;
549.0000;0.9532;1.1312;
549.3000;0.9524;1.1382;
549.6000;0.9524;1.1382;
549.9000;0.9532;1.1289;
550.2000;0.9540;1.1265;
550.5000;0.9532;1.1289;
550.8000;0.9540;1.1242;
551.1000;0.9532;1.1265;
551.4000;0.9532;1.1312;
551.7000;0.9540;1.1359;
552.0000;0.9556;1.1499;
552.3000;0.9532;1.1499;
552.6000;0.9540;1.1522;
552.9000;0.9516;1.1499;
553.2000;0.9516;1.1522;
553.5000;0.9532;1.1522;
553.8000;0.9540;1.1545;
554.1000;0.9491;1.1429;
554.4000;0.9532;1.1522;
554.7000;0.9540;1.1662;
555.0000;0.9532;1.1685;
555.3000;0.9532;1.1708;
555.6000;0.9556;1.1755;
555.9000;0.9556;1.1778;
556.2000;0.9581;1.1755;
556.5000;0.9524;1.1569;
556.8000;0.9597;1.1708;
557.1000;0.9508;1.1569;
557.4000;0.9548;1.1592;
557.7000;0.9516;1.1569;
558.0000;0.9508;1.1639;
558.3000;0.9508;1.1615;
558.6000;0.9516;1.1592;
558.9000;0.9638;1.1825;
559.2000;0.9524;1.1475;
559.5000;0.9516;1.1405;
559.8000;0.9532;1.1382;
560.1000;0.9516;1.1452;
560.4000;0.9516;1.1522;
560.7000;0.9508;1.1569;
561.0000;0.9540;1.1545;
561.3000;0.9540;1.1569;
561.6000;0.9483;1.1429;
561.9000;0.9508;1.1522;
562.2000;0.9540;1.1592;
562.5000;0.9548;1.1615;
562.8000;0.9565;1.1615;
563.1000;0.9508;1.1475;
563.4000;0.9516;1.1499;
563.7000;0.9442;1.1475;
564.0000;0.9540;1.1755;
564.3000;0.9532;1.1639;
564.6000;0.9451;1.1475;
564.9000;0.9565;1.1778;
565.2000;0.9524;1.1569;
565.5000;0.9573;1.1708;
565.8000;0.9524;1.1615;
566.1000;0.9516;1.1639;
566.4000;0.9532;1.1615;
566.7000;0.9524;1.1569;
567.0000;0.9532;1.1545;
567.3000;0.9524;1.1452;
567.6000;0.9548;1.1522;
567.9000;0.9532;1.1499;
568.2000;0.9516;1.1499;
568.5000;0.9540;1.1522;
568.8000;0.9540;1.1475;
569.1000;0.9565;1.1545;
569.4000;0.9508;1.1499;
569.7000;0.9532;1.1592;
570.0000;0.9573;1.1732;
570.3000;0.9532;1.1592;
570.6000;0.9508;1.1499;
570.9000;0.9516;1.1499;
571.2000;0.9532;1.1499;
571.5000;0.9532;1.1592;
571.8000;0.9532;1.1639;
572.1000;0.9532;1.1639;
572.4000;0.9516;1.1615;
572.7000;0.9548;1.1592;
573.0000;0.9524;1.1569;
573.3000;0.9556;1.1708;
573.6000;0.9532;1.1662;
573.9000;0.9532;1.1639;
574.2000;0.9532;1.1732;
574.5000;0.9516;1.1662;
574.8000;0.9532;1.1639;
575.1000;0.9532;1.1615;
575.4000;0.9573;1.1778;
575.7000;0.9516;1.1662;
576.0000;0.9524;1.1778;
576.3000;0.9459;1.1639;
576.6000;0.9499;1.1732;
576.9000;0.9508;1.1778;
577.2000;0.9524;1.1732;
577.5000;0.9475;1.1592;
577.8000;0.9524;1.1708;
578.1000;0.9532;1.1732;
578.4000;0.9508;1.1708;
578.7000;0.9516;1.1592;
579.0000;0.9532;1.1569;
579.3000;0.9540;1.1615;
579.6000;0.9524;1.1545;
579.9000;0.9540;1.1639;
580.2000;0.9556;1.1708;
580.5000;0.9524;1.1615;
580.8000;0.9508;1.1545;
581.1000;0.9532;1.1615;
581.4000;0.9516;1.1592;
581.7000;0.9426;1.1405;
582.0000;0.9540;1.1662;
582.3000;0.9516;1.1475;
582.6000;0.9508;1.1405;
582.9000;0.9540;1.1382;
583.2000;0.9605;1.1569;
583.5000;0.9508;1.1359;
583.8000;0.9508;1.1452;
584.1000;0.9516;1.1545;
584.4000;0.9524;1.1522;
584.7000;0.9516;1.1452;
585.0000;0.9516;1.1569;
585.3000;0.9524;1.1615;
585.6000;0.9540;1.1615;
585.9000;0.9508;1.1522;
586.2000;0.9508;1.1522;
586.5000;0.9508;1.1545;
586.8000;0.9540;1.1592;
587.1000;0.9508;1.1429;
587.4000;0.9532;1.1429;
587.7000;0.9516;1.1475;
588.0000;0.9516;1.1545;
588.3000;0.9548;1.1592;
588.6000;0.9524;1.1545;
588.9000;0.9508;1.1569;
589.2000;0.9483;1.1429;
589.5000;0.9548;1.1569;
589.8000;0.9508;1.1452;
590.1000;0.9516;1.1475;
590.4000;0.9524;1.1499;
590.7000;0.9491;1.1475;
591.0000;0.9508;1.1545;
591.3000;0.9516;1.1545;
591.6000;0.9597;1.1802;
591.9000;0.9540;1.1639;
592.2000;0.9548;1.1662;
592.5000;0.9532;1.1545;
592.8000;0.9524;1.1475;
593.1000;0.9556;1.1592;
593.4000;0.9516;1.1499;
593.7000;0.9508;1.1429;
594.0000;0.9532;1.1405;
594.3000;0.9508;1.1429;
594.6000;0.9524;1.1545;
594.9000;0.9540;1.1662;
595.2000;0.9516;1.1615;
595.5000;0.9499;1.1592;
595.8000;0.9516;1.1592;
596.1000;0.9483;1.1499;
596.4000;0.9483;1.1499;
596.7000;0.9540;1.1569;
597.0000;0.9508;1.1452;
597.3000;0.9508;1.1499;
597.6000;0.9508;1.1522;
597.9000;0.9516;1.1522;
598.2000;0.9516;1.1452;
598.5000;0.9548;1.1499;
598.8000;0.9548;1.1405;
599.1000;0.9499;1.1265;
599.4000;0.9491;1.1242;
599.7000;0.9548;1.1452;
600.0000;0.9524;1.1359;
600.3000;0.9491;1.1079;
600.6000;0.9573;1.1149;
600.9000;0.9565;1.1079;
601.2000;0.9565;1.1079;
601.5000;0.9451;1.0776;
601.8000;0.9418;1.0776;
602.1000;0.9402;1.0799;
602.4000;0.9280;1.0519;
602.7000;0.9190;1.0402;
603.0000;0.9133;1.0239;
603.3000;0.9101;1.0286;
603.6000;0.9076;1.0262;
603.9000;0.9011;1.0146;
604.2000;0.8962;1.0146;
604.5000;0.8921;1.0146;
604.8000;0.8807;0.9889;
605.1000;0.8832;0.9889;
605.4000;0.8775;0.9796;
605.7000;0.8751;0.9703;
606.0000;0.8710;0.9749;
606.3000;0.8661;0.9679;
606.6000;0.8637;0.9656;
606.9000;0.8588;0.9726;
607.2000;0.8490;0.9539;
607.5000;0.8531;0.9633;
607.8000;0.8498;0.9703;
608.1000;0.8457;0.9586;
608.4000;0.8400;0.9563;
608.7000;0.8392;0.9609;
609.0000;0.8409;0.9609;
609.3000;0.8344;0.9539;
609.6000;0.8311;0.9563;
609.9000;0.8270;0.9446;
610.2000;0.8246;0.9423;
610.5000;0.8213;0.9376;
610.8000;0.8173;0.9423;
611.1000;0.8156;0.9493;
611.4000;0.8140;0.9469;
611.7000;0.8091;0.9399;
612.0000;0.8083;0.9353;
612.3000;0.8075;0.9399;
612.6000;0.8018;0.9283;
612.9000;0.8026;0.9329;
613.2000;0.7985;0.9353;
613.5000;0.7912;0.9236;
613.8000;0.7945;0.9329;
614.1000;0.7904;0.9376;
614.4000;0.7896;0.9329;
614.7000;0.7880;0.9353;
615.0000;0.7880;0.9353;
615.3000;0.7847;0.9283;
615.6000;0.7823;0.9236;
615.9000;0.7896;0.9469;
616.2000;0.7774;0.9260;
616.5000;0.7757;0.9260;
616.8000;0.7782;0.9283;
617.1000;0.7692;0.9166;
617.4000;0.7709;0.9260;
617.7000;0.7700;0.9260;
618.0000;0.7660;0.9260;
618.3000;0.7660;0.9283;
618.6000;0.7643;0.9260;
618.9000;0.7643;0.9329;
619.2000;0.7611;0.9353;
619.5000;0.7611;0.9376;
619.8000;0.7562;0.9213;
620.1000;0.7562;0.9120;
620.4000;0.7562;0.9166;
620.7000;0.7513;0.9073;
621.0000;0.7570;0.9166;
621.3000;0.7505;0.9026;
621.6000;0.7481;0.8980;
621.9000;0.7497;0.9096;
622.2000;0.7440;0.9166;
622.5000;0.7489;0.9306;
622.8000;0.7416;0.9120;
623.1000;0.7407;0.9073;
623.4000;0.7407;0.9096;
623.7000;0.7383;0.9026;
624.0000;0.7359;0.9073;
624.3000;0.7367;0.8933;
624.6000;0.7334;0.8863;
624.9000;0.7318;0.8933;
625.2000;0.7342;0.9050;
625.5000;0.7302;0.8980;
625.8000;0.7285;0.8910;
626.1000;0.7326;0.9050;
626.4000;0.7269;0.9050;
626.7000;0.7245;0.9026;
627.0000;0.7245;0.9073;
627.3000;0.7212;0.9073;
627.6000;0.7245;0.9003;
627.9000;0.7261;0.9026;
628.2000;0.7196;0.8910;
628.5000;0.7204;0.9003;
628.8000;0.7204;0.9096;
629.1000;0.7147;0.8933;
629.4000;0.7163;0.9073;
629.7000;0.7155;0.9120;
630.0000;0.7139;0.9073;
630.3000;0.7212;0.9399;
630.6000;0.7123;0.9213;
630.9000;0.7090;0.9050;
631.2000;0.7090;0.9143;
631.5000;0.7098;0.9190;
631.8000;0.7066;0.9260;
632.1000;0.7057;0.9260;
632.4000;0.7041;0.9329;
632.7000;0.7049;0.9376;
633.0000;0.7057;0.9376;
633.3000;0.7033;0.9166;
633.6000;0.7009;0.9213;
633.9000;0.7090;0.9329;
634.2000;0.7000;0.9213;
634.5000;0.6984;0.9073;
634.8000;0.7000;0.9143;
635.1000;0.6984;0.9096;
635.4000;0.6976;0.9050;
635.7000;0.6976;0.9143;
636.0000;0.6968;0.9213;
636.3000;0.6952;0.9096;
636.6000;0.6919;0.9050;
636.9000;0.6935;0.9073;
637.2000;0.6935;0.9236;
637.5000;0.6911;0.9236;
637.8000;0.6935;0.9329;
638.1000;0.6911;0.9353;
638.4000;0.6911;0.9329;
638.7000;0.6886;0.9236;
639.0000;0.6862;0.9236;
639.3000;0.6878;0.9283;
639.6000;0.6870;0.9306;
639.9000;0.6854;0.9260;
640.2000;0.6846;0.9213;
640.5000;0.6854;0.9236;
640.8000;0.6838;0.9143;
641.1000;0.6838;0.9190;
641.4000;0.6813;0.9096;
641.7000;0.6813;0.9096;
642.0000;0.6927;0.9376;
642.3000;0.6797;0.9166;
642.6000;0.6789;0.9120;
642.9000;0.6781;0.9120;
643.2000;0.6772;0.9096;
643.5000;0.6781;0.9003;
643.8000;0.6756;0.8980;
644.1000;0.6724;0.9026;
644.4000;0.6748;0.9236;
644.7000;0.6740;0.9260;
645.0000;0.6724;0.9213;
645.3000;0.6732;0.9260;
645.6000;0.6707;0.9166;
645.9000;0.6724;0.9213;
646.2000;0.6716;0.9190;
646.5000;0.6716;0.9143;
646.8000;0.6707;0.9120;
647.1000;0.6691;0.9096;
647.4000;0.6699;0.9120;
647.7000;0.6756;0.9306;
648.0000;0.6667;0.9166;
648.3000;0.6667;0.9143;
648.6000;0.6724;0.9283;
648.9000;0.6634;0.9166;
649.2000;0.6642;0.9236;
649.5000;0.6699;0.9376;
649.8000;0.6650;0.9236;
650.1000;0.6626;0.9213;
650.4000;0.6642;0.9306;
650.7000;0.6650;0.9376;
651.0000;0.6650;0.9329;
651.3000;0.6626;0.9376;
651.6000;0.6618;0.9329;
651.9000;0.6618;0.9353;
652.2000;0.6634;0.9283;
652.5000;0.6610;0.9283;
652.8000;0.6593;0.9213;
653.1000;0.6593;0.9213;
653.4000;0.6593;0.9236;
653.7000;0.6577;0.9236;
654.0000;0.6545;0.9143;
654.3000;0.6569;0.9166;
654.6000;0.6593;0.9190;
654.9000;0.6642;0.9306;
655.2000;0.6561;0.9120;
655.5000;0.6561;0.9050;
655.8000;0.6569;0.9143;
656.1000;0.6577;0.9166;
656.4000;0.6545;0.9306;
656.7000;0.6528;0.9260;
657.0000;0.6536;0.9283;
657.3000;0.6536;0.9283;
657.6000;0.6545;0.9329;
657.9000;0.6536;0.9376;
658.2000;0.6520;0.9283;
658.5000;0.6504;0.9306;
658.8000;0.6536;0.9329;
659.1000;0.6512;0.9283;
659.4000;0.6536;0.9353;
659.7000;0.6512;0.9353;
660.0000;0.6528;0.9353;
660.3000;0.6496;0.9353;
660.6000;0.6496;0.9306;
660.9000;0.6422;0.9143;
661.2000;0.6496;0.9376;
661.5000;0.6479;0.9283;
661.8000;0.6439;0.9120;
662.1000;0.6471;0.9213;
662.4000;0.6488;0.9260;
662.7000;0.6439;0.9213;
663.0000;0.6447;0.9236;
663.3000;0.6463;0.9283;
663.6000;0.6479;0.9329;
663.9000;0.6455;0.9376;
664.2000;0.6479;0.9446;
664.5000;0.6439;0.9376;
664.8000;0.6439;0.9376;
665.1000;0.6479;0.9586;
665.4000;0.6422;0.9329;
665.7000;0.6447;0.9399;
666.0000;0.6447;0.9260;
666.3000;0.6439;0.9143;
666.6000;0.6447;0.9096;
666.9000;0.6382;0.8980;
667.2000;0.6398;0.9026;
667.5000;0.6406;0.9073;
667.8000;0.6406;0.9236;
668.1000;0.6398;0.9236;
668.4000;0.6333;0.9166;
668.7000;0.6414;0.9306;
669.0000;0.6398;0.9236;
669.3000;0.6398;0.9260;
669.6000;0.6374;0.9190;
669.9000;0.6422;0.9260;
670.2000;0.6398;0.9283;
670.5000;0.6390;0.9260;
670.8000;0.6390;0.9120;
671.1000;0.6398;0.9120;
671.4000;0.6455;0.9236;
671.7000;0.6382;0.9073;
672.0000;0.6365;0.9073;
672.3000;0.6365;0.9190;
672.6000;0.6365;0.9236;
672.9000;0.6341;0.9190;
673.2000;0.6374;0.9283;
673.5000;0.6349;0.9143;
673.8000;0.6341;0.9166;
674.1000;0.6333;0.9213;
674.4000;0.6325;0.9143;
674.7000;0.6317;0.9073;
675.0000;0.6325;0.9120;
675.3000;0.6349;0.9166;
675.6000;0.6341;0.9143;
675.9000;0.6292;0.9003;
676.2000;0.6333;0.9050;
676.5000;0.6333;0.9003;
676.8000;0.6349;0.9073;
677.1000;0.6333;0.9073;
677.4000;0.6333;0.9096;
677.7000;0.6309;0.9096;
678.0000;0.6268;0.9026;
678.3000;0.6292;0.9143;
678.6000;0.6300;0.9236;
678.9000;0.6317;0.9329;
679.2000;0.6309;0.9353;
679.5000;0.6300;0.9353;
679.8000;0.6292;0.9353;
680.1000;0.6292;0.9283;
680.4000;0.6292;0.9166;
680.7000;0.6292;0.9190;
681.0000;0.6300;0.9213;
681.3000;0.6284;0.9236;
681.6000;0.6317;0.9283;
681.9000;0.6292;0.9283;
682.2000;0.6284;0.9260;
682.5000;0.6268;0.9236;
682.8000;0.6292;0.9236;
683.1000;0.6268;0.9190;
683.4000;0.6243;0.9190;
683.7000;0.6227;0.9120;
684.0000;0.6276;0.9260;
684.3000;0.6211;0.9120;
684.6000;0.6268;0.9306;
684.9000;0.6243;0.9283;
685.2000;0.6243;0.9260;
685.5000;0.6276;0.9260;
685.8000;0.6252;0.9213;
686.1000;0.6243;0.9166;
686.4000;0.6268;0.9306;
686.7000;0.6260;0.9493;
687.0000;0.6268;0.9423;
687.3000;0.6260;0.9399;
687.6000;0.6252;0.9423;
687.9000;0.6243;0.9423;
688.2000;0.6203;0.9353;
688.5000;0.6219;0.9423;
688.8000;0.6211;0.9376;
689.1000;0.6219;0.9329;
689.4000;0.6252;0.9376;
689.7000;0.6235;0.9260;
690.0000;0.6227;0.9213;
690.3000;0.6219;0.9143;
690.6000;0.6243;0.9190;
690.9000;0.6211;0.9120;
691.2000;0.6252;0.9120;
691.5000;0.6211;0.9050;
691.8000;0.6252;0.9050;
692.1000;0.6219;0.8980;
692.4000;0.6219;0.8933;
692.7000;0.6203;0.8933;
693.0000;0.6195;0.8980;
693.3000;0.6195;0.9026;
693.6000;0.6195;0.9166;
693.9000;0.6195;0.9283;
694.2000;0.6219;0.9353;
694.5000;0.6243;0.9376;
694.8000;0.6211;0.9329;
695.1000;0.6121;0.9073;
695.4000;0.6178;0.9190;
695.7000;0.6178;0.9213;
696.0000;0.6203;0.9260;
696.3000;0.6243;0.9423;
696.6000;0.6178;0.9213;
696.9000;0.6178;0.9213;
697.2000;0.6170;0.9143;
697.5000;0.6170;0.9236;
697.8000;0.6170;0.9376;
698.1000;0.6195;0.9493;
698.4000;0.6170;0.9423;
698.7000;0.6178;0.9283;
699.0000;0.6162;0.9166;
699.3000;0.6113;0.9073;
699.6000;0.6162;0.9166;
699.9000;0.6170;0.9236;
700.2000;0.6178;0.9190;
700.5000;0.6170;0.9166;
700.8000;0.6154;0.9143;
701.1000;0.6170;0.9213;
701.4000;0.6138;0.9213;
701.7000;0.6178;0.9236;
702.0000;0.6170;0.9236;
702.3000;0.6162;0.9213;
702.6000;0.6154;0.9166;
702.9000;0.6138;0.9190;
703.2000;0.6154;0.9236;
703.5000;0.6162;0.9143;
703.8000;0.6129;0.9050;
704.1000;0.6138;0.9143;
704.4000;0.6146;0.9190;
704.7000;0.6146;0.9213;
705.0000;0.6154;0.9190;
705.3000;0.6154;0.9026;
705.6000;0.6178;0.9120;
705.9000;0.6121;0.8956;
706.2000;0.6146;0.8910;
706.5000;0.6154;0.9026;
706.8000;0.6195;0.9143;
707.1000;0.6146;0.9143;
707.4000;0.6154;0.9213;
707.7000;0.6105;0.9143;
708.0000;0.6154;0.9166;
708.3000;0.6129;0.9120;
708.6000;0.6113;0.9026;
708.9000;0.6138;0.9073;
709.2000;0.6121;0.9026;
709.5000;0.6113;0.9073;
709.8000;0.6129;0.9190;
710.1000;0.6113;0.9213;
710.4000;0.6048;0.9026;
710.7000;0.6113;0.9190;
711.0000;0.6121;0.9120;
711.3000;0.6089;0.8980;
711.6000;0.6113;0.9003;
711.9000;0.6113;0.8980;
712.2000;0.6138;0.9096;
712.5000;0.6105;0.9096;
712.8000;0.6097;0.9143;
713.1000;0.6113;0.9283;
713.4000;0.6121;0.9306;
713.7000;0.6146;0.9353;
714.0000;0.6243;0.9539;
714.3000;0.6113;0.9143;
714.6000;0.6105;0.9120;
714.9000;0.6121;0.9143;
715.2000;0.6121;0.9190;
715.5000;0.6089;0.9096;
715.8000;0.6105;0.9073;
716.1000;0.6113;0.9050;
716.4000;0.6105;0.9026;
716.7000;0.6105;0.9026;
717.0000;0.6097;0.9050;
717.3000;0.6097;0.9050;
717.6000;0.6024;0.8910;
717.9000;0.6081;0.8956;
718.2000;0.6081;0.9026;
718.5000;0.6089;0.9050;
718.8000;0.6081;0.9050;
719.1000;0.6024;0.8980;
719.4000;0.6089;0.9026;
719.7000;0.6072;0.8910;
720.0000;0.6064;0.8863;
720.3000;0.6105;0.9050;
720.6000;0.6064;0.8933;
720.9000;0.6064;0.8956;
721.2000;0.6081;0.8980;
721.5000;0.6081;0.8956;
721.8000;0.6097;0.8910;
722.1000;0.6024;0.8723;
722.4000;0.6072;0.8886;
722.7000;0.6056;0.8863;
723.0000;0.6089;0.8980;
723.3000;0.6040;0.8933;
723.6000;0.6056;0.8910;
723.9000;0.6072;0.8933;
724.2000;0.6089;0.8886;
724.5000;0.6040;0.8746;
724.8000;0.6072;0.8840;
725.1000;0.6064;0.8840;
725.4000;0.6081;0.8886;
725.7000;0.6072;0.8910;
726.0000;0.6048;0.8840;
726.3000;0.6072;0.8956;
726.6000;0.6089;0.9120;
726.9000;0.6056;0.9096;
727.2000;0.6056;0.9073;
727.5000;0.6007;0.9003;
727.8000;0.6081;0.9143;
728.1000;0.6048;0.9143;
728.4000;0.6007;0.9026;
728.7000;0.6064;0.9166;
729.0000;0.6072;0.9166;
729.3000;0.6072;0.9213;
729.6000;0.6024;0.9120;
729.9000;0.6048;0.9120;
730.2000;0.6064;0.9073;
730.5000;0.6048;0.9050;
730.8000;0.6032;0.8956;
731.1000;0.6007;0.8816;
731.4000;0.6072;0.8956;
731.7000;0.6040;0.8910;
732.0000;0.6048;0.9003;
732.3000;0.6064;0.9026;
732.6000;0.6056;0.9120;
732.9000;0.6072;0.9236;
733.2000;0.6040;0.9166;
733.5000;0.6048;0.9260;
733.8000;0.6040;0.9236;
734.1000;0.6048;0.9283;
734.4000;0.6040;0.9283;
734.7000;0.6040;0.9283;
735.0000;0.6015;0.9213;
735.3000;0.6040;0.9283;
735.6000;0.6048;0.9190;
735.9000;0.6040;0.9073;
736.2000;0.6024;0.9166;
736.5000;0.6048;0.9236;
736.8000;0.6048;0.9260;
737.1000;0.6097;0.9283;
737.4000;0.6024;0.9120;
737.7000;0.6032;0.9073;
738.0000;0.5950;0.8863;
738.3000;0.6040;0.9073;
738.6000;0.6015;0.9120;
738.9000;0.6032;0.9190;
739.2000;0.6032;0.9213;
739.5000;0.6032;0.9190;
739.8000;0.6048;0.9166;
740.1000;0.6015;0.9190;
740.4000;0.6048;0.9236;
740.7000;0.6064;0.9260;
741.0000;0.6015;0.9213;
741.3000;0.6032;0.9306;
741.6000;0.6048;0.9376;
741.9000;0.5958;0.9143;
742.2000;0.5991;0.9306;
742.5000;0.5999;0.9353;
742.8000;0.6056;0.9446;
743.1000;0.6040;0.9423;
743.4000;0.6040;0.9399;
743.7000;0.6007;0.9469;
744.0000;0.6015;0.9423;
744.3000;0.6024;0.9423;
744.6000;0.6024;0.9446;
744.9000;0.6024;0.9353;
745.2000;0.6032;0.9283;
745.5000;0.6032;0.9236;
745.8000;0.5958;0.9236;
746.1000;0.5942;0.9190;
746.4000;0.5999;0.9329;
746.7000;0.5999;0.9353;
747.0000;0.5999;0.9399;
747.3000;0.5983;0.9423;
747.6000;0.6097;0.9656;
747.9000;0.6015;0.9539;
748.2000;0.6015;0.9563;
748.5000;0.6015;0.9469;
748.8000;0.5999;0.9493;
749.1000;0.5999;0.9493;
749.4000;0.6024;0.9493;
749.7000;0.6015;0.9353;
750.0000;0.6007;0.9353;
750.3000;0.5999;0.9306;
750.6000;0.6024;0.9353;
750.9000;0.6040;0.9469;
751.2000;0.6007;0.9423;
751.5000;0.6007;0.9469;
751.8000;0.6007;0.9539;
752.1000;0.6024;0.9563;
752.4000;0.5999;0.9493;
752.7000;0.6007;0.9423;
753.0000;0.5950;0.9283;
753.3000;0.6007;0.9423;
753.6000;0.5958;0.9260;
753.9000;0.5975;0.9236;
754.2000;0.5999;0.9236;
754.5000;0.6024;0.9329;
754.8000;0.5958;0.9166;
755.1000;0.5991;0.9213;
755.4000;0.5991;0.9120;
755.7000;0.5991;0.9143;
756.0000;0.5983;0.9120;
756.3000;0.5967;0.9026;
756.6000;0.5975;0.9050;
756.9000;0.5975;0.9096;
757.2000;0.5983;0.9166;
757.5000;0.5983;0.9283;
757.8000;0.6007;0.9283;
758.1000;0.5958;0.9190;
758.4000;0.5983;0.9236;
758.7000;0.5991;0.9236;
759.0000;0.5958;0.9073;
759.3000;0.5991;0.9166;
759.6000;0.5983;0.9143;
759.9000;0.5975;0.9120;
760.2000;0.6007;0.9190;
760.5000;0.5999;0.9283;
760.8000;0.6007;0.9329;
761.1000;0.6024;0.9423;
761.4000;0.5983;0.9376;
761.7000;0.5967;0.9306;
762.0000;0.5999;0.9423;
762.3000;0.5983;0.9399;
762.6000;0.5983;0.9493;
762.9000;0.5983;0.9493;
763.2000;0.5975;0.9376;
763.5000;0.6007;0.9446;
763.8000;0.5983;0.9493;
764.1000;0.5991;0.9539;
764.4000;0.5975;0.9446;
764.7000;0.6032;0.9539;
765.0000;0.5991;0.9469;
765.3000;0.5991;0.9563;
765.6000;0.5958;0.9446;
765.9000;0.5991;0.9516;
766.2000;0.6007;0.9469;
766.5000;0.5975;0.9399;
766.8000;0.5942;0.9423;
767.1000;0.5975;0.9563;
767.4000;0.5967;0.9469;
767.7000;0.6064;0.9633;
768.0000;0.6064;0.9819;
768.3000;0.5958;0.9469;
768.6000;0.5942;0.9446;
768.9000;0.5983;0.9586;
769.2000;0.5926;0.9423;
769.5000;0.5958;0.9516;
769.8000;0.5950;0.9539;
770.1000;0.5983;0.9586;
770.4000;0.5983;0.9516;
770.7000;0.5991;0.9563;
771.0000;0.5991;0.9539;
771.3000;0.5991;0.9539;
771.6000;0.5991;0.9563;
771.9000;0.5991;0.9493;
772.2000;0.5975;0.9493;
772.5000;0.5991;0.9493;
772.8000;0.5975;0.9563;
773.1000;0.5991;0.9609;
773.4000;0.5983;0.9586;
773.7000;0.5975;0.9516;
774.0000;0.5967;0.9493;
774.3000;0.5967;0.9446;
774.6000;0.5958;0.9399;
774.9000;0.5983;0.9469;
775.2000;0.5983;0.9539;
775.5000;0.5967;0.9423;
775.8000;0.5983;0.9469;
776.1000;0.5991;0.9563;
776.4000;0.5975;0.9539;
776.7000;0.5967;0.9516;
777.0000;0.5910;0.9283;
777.3000;0.5958;0.9306;
777.6000;0.5967;0.9353;
777.9000;0.5967;0.9376;
778.2000;0.5958;0.9329;
778.5000;0.5958;0.9306;
778.8000;0.5958;0.9306;
779.1000;0.5991;0.9493;
779.4000;0.6032;0.9539;
779.7000;0.5958;0.9423;
780.0000;0.5958;0.9563;
780.3000;0.5967;0.9563;
780.6000;0.6056;0.9796;
780.9000;0.5950;0.9633;
781.2000;0.5950;0.9563;
781.5000;0.5975;0.9446;
781.8000;0.5950;0.9446;
782.1000;0.5958;0.9423;
782.4000;0.5926;0.9469;
782.7000;0.5942;0.9423;
783.0000;0.5950;0.9423;
783.3000;0.5950;0.9446;
783.6000;0.5958;0.9469;
783.9000;0.5934;0.9446;
784.2000;0.5853;0.9306;
784.5000;0.5942;0.9446;
784.8000;0.5893;0.9329;
785.1000;0.6056;0.9633;
785.4000;0.5967;0.9283;
785.7000;0.5967;0.9213;
786.0000;0.5950;0.9213;
786.3000;0.5950;0.9236;
786.6000;0.5942;0.9283;
786.9000;0.5950;0.9306;
787.2000;0.5942;0.9329;
787.5000;0.5991;0.9446;
787.8000;0.5967;0.9539;
788.1000;0.5958;0.9493;
788.4000;0.5950;0.9539;
788.7000;0.5910;0.9446;
789.0000;0.5926;0.9516;
789.3000;0.5950;0.9516;
789.6000;0.5950;0.9446;
789.9000;0.5950;0.9469;
790.2000;0.5934;0.9423;
790.5000;0.5934;0.9376;
790.8000;0.5942;0.9423;
791.1000;0.5950;0.9469;
791.4000;0.5942;0.9399;
791.7000;0.5942;0.9376;
792.0000;0.5967;0.9399;
792.3000;0.5975;0.9493;
792.6000;0.5950;0.9469;
792.9000;0.5869;0.9166;
793.2000;0.5934;0.9283;
793.5000;0.5942;0.9283;
793.8000;0.5950;0.9213;
794.1000;0.5942;0.9213;
794.4000;0.5958;0.9353;
794.7000;0.5950;0.9213;
795.0000;0.5958;0.9260;
795.3000;0.5950;0.9260;
795.6000;0.5958;0.9353;
795.9000;0.5967;0.9353;
796.2000;0.5942;0.9283;
796.5000;0.5950;0.9306;
796.8000;0.5958;0.9399;
797.1000;0.5942;0.9469;
797.4000;0.5942;0.9469;
797.7000;0.5950;0.9493;
798.0000;0.5958;0.9516;
798.3000;0.5942;0.9493;
798.6000;0.5958;0.9539;
798.9000;0.5942;0.9469;
799.2000;0.5910;0.9399;
799.5000;0.5950;0.9446;
799.8000;0.5950;0.9376;
800.1000;0.5958;0.9353;
800.4000;0.5942;0.9306;
800.7000;0.5950;0.9283;
801.0000;0.5942;0.9306;
801.3000;0.5918;0.9236;
801.6000;0.5942;0.9236;
801.9000;0.5926;0.9143;
802.2000;0.5967;0.9190;
802.5000;0.5934;0.9143;
802.8000;0.5910;0.9120;
803.1000;0.5950;0.9166;
803.4000;0.5934;0.9190;
803.7000;0.5942;0.9166;
804.0000;0.5918;0.9120;
804.3000;0.5942;0.9190;
804.6000;0.5942;0.9213;
804.9000;0.5934;0.9236;
805.2000;0.5934;0.9260;
805.5000;0.5926;0.9329;
805.8000;0.5934;0.9399;
806.1000;0.5942;0.9493;
806.4000;0.5926;0.9446;
806.7000;0.5934;0.9446;
807.0000;0.5918;0.9399;
807.3000;0.5934;0.9446;
807.6000;0.5942;0.9446;
807.9000;0.5934;0.9423;
808.2000;0.5967;0.9493;
808.5000;0.5942;0.9423;
808.8000;0.5910;0.9306;
809.1000;0.5958;0.9283;
809.4000;0.5934;0.9213;
809.7000;0.5942;0.9213;
810.0000;0.5934;0.9190;
810.3000;0.5926;0.9283;
810.6000;0.5942;0.9353;
810.9000;0.5918;0.9399;
811.2000;0.5942;0.9423;
811.5000;0.5918;0.9306;
811.8000;0.5910;0.9236;
812.1000;0.5918;0.9143;
812.4000;0.5942;0.9143;
812.7000;0.5926;0.9166;
813.0000;0.5926;0.9143;
813.3000;0.5926;0.9096;
813.6000;0.5918;0.9236;
813.9000;0.5975;0.9423;
814.2000;0.5910;0.9306;
814.5000;0.5910;0.9283;
814.8000;0.5926;0.9353;
815.1000;0.5918;0.9353;
815.4000;0.5910;0.9283;
815.7000;0.5885;0.9166;
816.0000;0.5934;0.9236;
816.3000;0.5926;0.9283;
816.6000;0.5926;0.9236;
816.9000;0.5885;0.9190;
817.2000;0.5918;0.9283;
817.5000;0.5918;0.9260;
817.8000;0.5902;0.9236;
818.1000;0.5910;0.9306;
818.4000;0.5942;0.9329;
818.7000;0.5918;0.9236;
819.0000;0.5934;0.9283;
819.3000;0.5967;0.9376;
819.6000;0.5934;0.9260;
819.9000;0.5934;0.9260;
820.2000;0.5942;0.9283;
820.5000;0.5934;0.9260;
820.8000;0.5918;0.9260;
821.1000;0.5902;0.9213;
821.4000;0.5934;0.9236;
821.7000;0.5926;0.9213;
822.0000;0.5926;0.9353;
822.3000;0.5926;0.9399;
822.6000;0.5918;0.9423;
822.9000;0.5942;0.9399;
823.2000;0.5918;0.9469;
823.5000;0.5918;0.9423;
823.8000;0.5950;0.9469;
824.1000;0.5910;0.9329;
824.4000;0.5918;0.9353;
824.7000;0.5942;0.9446;
825.0000;0.5910;0.9446;
825.3000;0.5950;0.9399;
825.6000;0.5918;0.9260;
825.9000;0.5918;0.9143;
826.2000;0.5918;0.9236;
826.5000;0.5918;0.9283;
826.8000;0.5918;0.9329;
827.1000;0.5893;0.9236;
827.4000;0.5918;0.9236;
827.7000;0.5942;0.9306;
828.0000;0.5885;0.9120;
828.3000;0.5893;0.9120;
828.6000;0.5926;0.9236;
828.9000;0.5918;0.9143;
829.2000;0.5918;0.9120;
829.5000;0.5902;0.9120;
829.8000;0.5902;0.9096;
830.1000;0.5926;0.9213;
830.4000;0.5918;0.9236;
830.7000;0.5893;0.9166;
831.0000;0.5910;0.9236;
831.3000;0.5918;0.9306;
831.6000;0.5918;0.9283;
831.9000;0.5910;0.9329;
832.2000;0.5853;0.9190;
832.5000;0.5910;0.9353;
832.8000;0.5926;0.9306;
833.1000;0.5926;0.9306;
833.4000;0.5934;0.9399;
833.7000;0.5910;0.9353;
834.0000;0.5918;0.9306;
834.3000;0.5926;0.9306;
834.6000;0.5820;0.9096;
834.9000;0.5902;0.9283;
835.2000;0.5918;0.9190;
835.5000;0.5902;0.9073;
835.8000;0.5893;0.9026;
836.1000;0.5902;0.8980;
836.4000;0.5918;0.8933;
836.7000;0.5983;0.9120;
837.0000;0.5918;0.8980;
837.3000;0.5910;0.8980;
837.6000;0.5861;0.8886;
837.9000;0.5926;0.9003;
838.2000;0.5918;0.8910;
838.5000;0.5910;0.8956;
838.8000;0.5869;0.8863;
839.1000;0.5902;0.9050;
839.4000;0.5918;0.9190;
839.7000;0.5934;0.9283;
840.0000;0.5926;0.9283;
840.3000;0.5869;0.9190;
840.6000;0.5812;0.9003;
840.9000;0.5902;0.9236;
841.2000;0.5877;0.9166;
841.5000;0.5926;0.9236;
841.8000;0.5967;0.9260;
842.1000;0.5926;0.9096;
842.4000;0.5918;0.9096;
842.7000;0.5812;0.8886;
843.0000;0.5902;0.9143;
843.3000;0.5902;0.9143;
843.6000;0.5918;0.9143;
843.9000;0.5885;0.9073;
844.2000;0.5918;0.9120;
844.5000;0.5853;0.8956;
844.8000;0.5902;0.8980;
845.1000;0.5902;0.8956;
845.4000;0.5877;0.8840;
845.7000;0.5918;0.8933;
846.0000;0.5902;0.8956;
846.3000;0.5910;0.8980;
846.6000;0.5918;0.9073;
846.9000;0.5926;0.9120;
847.2000;0.5902;0.9190;
847.5000;0.5885;0.9143;
847.8000;0.5893;0.9143;
848.1000;0.5902;0.9096;
848.4000;0.5910;0.9096;
848.7000;0.5918;0.9050;
849.0000;0.5910;0.9050;
849.3000;0.5926;0.9096;
849.6000;0.5893;0.9236;
849.9000;0.5918;0.9306;
850.2000;0.5910;0.9260;
850.5000;0.5926;0.9306;
850.8000;0.5918;0.9190;
851.1000;0.5869;0.8980;
851.4000;0.5877;0.9096;
851.7000;0.5877;0.8956;
852.0000;0.5902;0.8933;
852.3000;0.5918;0.8980;
852.6000;0.5926;0.9026;
852.9000;0.5918;0.9026;
853.2000;0.5910;0.9096;
853.5000;0.5918;0.9120;
853.8000;0.5902;0.9143;
854.1000;0.5918;0.9166;
854.4000;0.5934;0.9260;
854.7000;0.5902;0.9120;
855.0000;0.5950;0.9050;
855.3000;0.5877;0.8863;
855.6000;0.5885;0.8840;
855.9000;0.5893;0.8910;
856.2000;0.5771;0.8583;
856.5000;0.5902;0.8910;
856.8000;0.5885;0.8933;
857.1000;0.5902;0.8956;
857.4000;0.5902;0.8956;
857.7000;0.5893;0.8956;
858.0000;0.5902;0.8933;
858.3000;0.5918;0.9050;
858.6000;0.5926;0.9050;
858.9000;0.5910;0.9026;
859.2000;0.5910;0.9026;
859.5000;0.5942;0.9166;
859.8000;0.5861;0.9026;
860.1000;0.5910;0.9190;
860.4000;0.5902;0.9260;
860.7000;0.5861;0.9096;
861.0000;0.5893;0.9213;
861.3000;0.5934;0.9260;
861.6000;0.5893;0.9143;
861.9000;0.5828;0.9096;
862.2000;0.5910;0.9166;
862.5000;0.5877;0.9143;
862.8000;0.5877;0.9166;
863.1000;0.5885;0.9190;
863.4000;0.5902;0.9096;
863.7000;0.5918;0.9096;
864.0000;0.5885;0.9073;
864.3000;0.5893;0.9050;
864.6000;0.5918;0.9143;
864.9000;0.5893;0.9166;
865.2000;0.5926;0.9190;
865.5000;0.5918;0.9166;
865.8000;0.5918;0.9073;
866.1000;0.5918;0.9073;
866.4000;0.5902;0.9190;
866.7000;0.5885;0.9096;
867.0000;0.5918;0.9143;
867.3000;0.5893;0.9143;
867.6000;0.5885;0.9096;
867.9000;0.5918;0.9073;
868.2000;0.5902;0.9073;
868.5000;0.5893;0.9050;
868.8000;0.5902;0.9073;
869.1000;0.5885;0.9073;
869.4000;0.5893;0.9190;
869.7000;0.5877;0.9190;
870.0000;0.5910;0.9190;
870.3000;0.5877;0.9096;
870.6000;0.5910;0.9236;
870.9000;0.5902;0.9236;
871.2000;0.5910;0.9236;
871.5000;0.5893;0.9260;
871.8000;0.5926;0.9283;
872.1000;0.5893;0.9236;
872.4000;0.5950;0.9306;
872.7000;0.5893;0.9213;
873.0000;0.5893;0.9236;
873.3000;0.5893;0.9329;
873.6000;0.5788;0.9003;
873.9000;0.5893;0.9190;
874.2000;0.5877;0.9026;
874.5000;0.5845;0.8910;
874.8000;0.5893;0.9096;
875.1000;0.5902;0.9073;
875.4000;0.5877;0.9026;
875.7000;0.5885;0.9026;
876.0000;0.5845;0.8956;
876.3000;0.5885;0.9050;
876.6000;0.5918;0.9050;
876.9000;0.5885;0.9003;
877.2000;0.5861;0.9026;
877.5000;0.5902;0.9073;
877.8000;0.5902;0.9120;
878.1000;0.5893;0.9190;
878.4000;0.5877;0.9213;
878.7000;0.5885;0.9260;
879.0000;0.5877;0.9236;
879.3000;0.5902;0.9329;
879.6000;0.5885;0.9283;
879.9000;0.5934;0.9399;
880.2000;0.5983;0.9586;
880.5000;0.5918;0.9306;
880.8000;0.5861;0.9236;
881.1000;0.5942;0.9423;
881.4000;0.5885;0.9143;
881.7000;0.5910;0.9190;
882.0000;0.5902;0.9120;
882.3000;0.5893;0.9120;
882.6000;0.5885;0.9236;
882.9000;0.5877;0.9143;
883.2000;0.5885;0.9190;
883.5000;0.5885;0.9283;
883.8000;0.5885;0.9306;
884.1000;0.5902;0.9399;
884.4000;0.5885;0.9353;
884.7000;0.5893;0.9260;
885.0000;0.5902;0.9190;
885.3000;0.5902;0.9190;
885.6000;0.5918;0.9166;
885.9000;0.5918;0.9120;
886.2000;0.5885;0.9073;
886.5000;0.5910;0.9190;
886.8000;0.5885;0.9143;
887.1000;0.5885;0.9120;
887.4000;0.5902;0.9096;
887.7000;0.5885;0.9050;
888.0000;0.5926;0.9306;
888.3000;0.5893;0.9306;
888.6000;0.5869;0.9260;
888.9000;0.5893;0.9236;
889.2000;0.5885;0.9283;
889.5000;0.5885;0.9283;
889.8000;0.5885;0.9283;
890.1000;0.5877;0.9306;
890.4000;0.5910;0.9329;
890.7000;0.5885;0.9329;
891.0000;0.5885;0.9306;
891.3000;0.5893;0.9306;
891.6000;0.5877;0.9166;
891.9000;0.5910;0.9213;
892.2000;0.5910;0.9260;
892.5000;0.5885;0.9236;
892.8000;0.5893;0.9306;
893.1000;0.5902;0.9329;
893.4000;0.5893;0.9283;
893.7000;0.5918;0.9329;
894.0000;0.5902;0.9306;
894.3000;0.5902;0.9353;
894.6000;0.5902;0.9353;
894.9000;0.5893;0.9329;
895.2000;0.5869;0.9260;
895.5000;0.5885;0.9283;
895.8000;0.5926;0.9399;
896.1000;0.5950;0.9493;
896.4000;0.5869;0.9260;
896.7000;0.5885;0.9306;
897.0000;0.5918;0.9353;
897.3000;0.5893;0.9213;
897.6000;0.5861;0.9260;
897.9000;0.5910;0.9260;
898.2000;0.5877;0.9213;
898.5000;0.5861;0.9190;
898.8000;0.5869;0.9236;
899.1000;0.5885;0.9236;
899.4000;0.5869;0.9213;
899.7000;0.5885;0.9329;
900.0000;0.5869;0.9283;
900.3000;0.5885;0.9423;
900.6000;0.5885;0.9469;
900.9000;0.5902;0.9469;
901.2000;0.5934;0.9563;
901.5000;0.5877;0.9539;
901.8000;0.5861;0.9493;
902.1000;0.5885;0.9609;
902.4000;0.5877;0.9726;
902.7000;0.5893;0.9726;
903.0000;0.5861;0.9656;
903.3000;0.5885;0.9586;
903.6000;0.5861;0.9423;
903.9000;0.5877;0.9376;
904.2000;0.5885;0.9353;
904.5000;0.5885;0.9353;
904.8000;0.5885;0.9329;
905.1000;0.5885;0.9329;
905.4000;0.5885;0.9353;
905.7000;0.5942;0.9399;
906.0000;0.5910;0.9306;
906.3000;0.5893;0.9329;
906.6000;0.5885;0.9306;
906.9000;0.5885;0.9399;
907.2000;0.5853;0.9376;
907.5000;0.5885;0.9539;
907.8000;0.5877;0.9539;
908.1000;0.5869;0.9586;
908.4000;0.5869;0.9539;
908.7000;0.5869;0.9469;
909.0000;0.5877;0.9446;
909.3000;0.5877;0.9423;
909.6000;0.5893;0.9493;
909.9000;0.5869;0.9353;
910.2000;0.5885;0.9329;
910.5000;0.5885;0.9306;
910.8000;0.5942;0.9376;
911.1000;0.5893;0.9306;
911.4000;0.5885;0.9329;
911.7000;0.5877;0.9306;
912.0000;0.5779;0.9026;
912.3000;0.5885;0.9283;
912.6000;0.5910;0.9260;
912.9000;0.5869;0.9096;
913.2000;0.5893;0.9143;
913.5000;0.5885;0.9143;
913.8000;0.5885;0.9213;
914.1000;0.5942;0.9423;
914.4000;0.5877;0.9353;
914.7000;0.5877;0.9329;
915.0000;0.5869;0.9306;
915.3000;0.5869;0.9260;
915.6000;0.5869;0.9236;
915.9000;0.5869;0.9283;
916.2000;0.5902;0.9423;
916.5000;0.5902;0.9423;
916.8000;0.5885;0.9469;
917.1000;0.5910;0.9539;
917.4000;0.5893;0.9539;
917.7000;0.5877;0.9399;
918.0000;0.5885;0.9469;
918.3000;0.5885;0.9563;
918.6000;0.5893;0.9469;
918.9000;0.5869;0.9493;
919.2000;0.5869;0.9446;
919.5000;0.5877;0.9423;
919.8000;0.5893;0.9516;
920.1000;0.5885;0.9493;
920.4000;0.5893;0.9493;
920.7000;0.5861;0.9516;
921.0000;0.5877;0.9516;
921.3000;0.5869;0.9399;
921.6000;0.5893;0.9376;
921.9000;0.5885;0.9353;
922.2000;0.5893;0.9423;
922.5000;0.5877;0.9399;
922.8000;0.5885;0.9446;
923.1000;0.5950;0.9726;
923.4000;0.5861;0.9516;
923.7000;0.5893;0.9423;
924.0000;0.5877;0.9399;
924.3000;0.5893;0.9469;
924.6000;0.5991;0.9703;
924.9000;0.5885;0.9399;
925.2000;0.5885;0.9329;
925.5000;0.5869;0.9329;
925.8000;0.5877;0.9423;
926.1000;0.5885;0.9446;
926.4000;0.5771;0.9166;
926.7000;0.5958;0.9633;
927.0000;0.5877;0.9446;
927.3000;0.5869;0.9423;
927.6000;0.5893;0.9399;
927.9000;0.5893;0.9399;
928.2000;0.5885;0.9353;
928.5000;0.5902;0.9376;
928.8000;0.5861;0.9399;
929.1000;0.5902;0.9423;
929.4000;0.5877;0.9329;
929.7000;0.5796;0.9120;
930.0000;0.5869;0.9306;
930.3000;0.5861;0.9306;
930.6000;0.5869;0.9283;
930.9000;0.5869;0.9353;
931.2000;0.5845;0.9376;
931.5000;0.5999;0.9726;
931.8000;0.5877;0.9306;
932.1000;0.5877;0.9306;
932.4000;0.5877;0.9353;
932.7000;0.5893;0.9376;
933.0000;0.5869;0.9306;
933.3000;0.5910;0.9446;
933.6000;0.5893;0.9353;
933.9000;0.5877;0.9329;
934.2000;0.5836;0.9213;
934.5000;0.5869;0.9306;
934.8000;0.5845;0.9283;
935.1000;0.5918;0.9516;
935.4000;0.5885;0.9516;
935.7000;0.5885;0.9493;
936.0000;0.5885;0.9516;
936.3000;0.5877;0.9493;
936.6000;0.5877;0.9446;
936.9000;0.5885;0.9493;
937.2000;0.5869;0.9516;
937.5000;0.5869;0.9539;
937.8000;0.5893;0.9609;
938.1000;0.5910;0.9586;
938.4000;0.5893;0.9539;
938.7000;0.5877;0.9563;
939.0000;0.5869;0.9563;
939.3000;0.5877;0.9539;
939.6000;0.5893;0.9609;
939.9000;0.5877;0.9516;
940.2000;0.5877;0.9586;
940.5000;0.5877;0.9609;
940.8000;0.5877;0.9609;
941.1000;0.5869;0.9493;
941.4000;0.5836;0.9423;
941.7000;0.5893;0.9516;
942.0000;0.5877;0.9516;
942.3000;0.5885;0.9563;
942.6000;0.5902;0.9563;
942.9000;0.5845;0.9446;
943.2000;0.5885;0.9423;
943.5000;0.5869;0.9493;
943.8000;0.5877;0.9563;
944.1000;0.5902;0.9586;
944.4000;0.5877;0.9469;
944.7000;0.5869;0.9446;
945.0000;0.5869;0.9399;
945.3000;0.5885;0.9376;
945.6000;0.5861;0.9376;
945.9000;0.5869;0.9446;
946.2000;0.5877;0.9539;
946.5000;0.5893;0.9586;
946.8000;0.5877;0.9563;
947.1000;0.5877;0.9469;
947.4000;0.5877;0.9399;
947.7000;0.5861;0.9399;
948.0000;0.5893;0.9609;
948.3000;0.5877;0.9633;
948.6000;0.5885;0.9656;
948.9000;0.5869;0.9563;
949.2000;0.5836;0.9516;
949.5000;0.5885;0.9656;
949.8000;0.5771;0.9399;
950.1000;0.5828;0.9516;
950.4000;0.5861;0.9609;
950.7000;0.5853;0.9539;
951.0000;0.5926;0.9656;
951.3000;0.5861;0.9493;
951.6000;0.5845;0.9376;
951.9000;0.5885;0.9446;
952.2000;0.5885;0.9493;
952.5000;0.5828;0.9283;
952.8000;0.5910;0.9446;
953.1000;0.5877;0.9306;
953.4000;0.5877;0.9329;
953.7000;0.5845;0.9260;
954.0000;0.5893;0.9399;
954.3000;0.5836;0.9329;
954.6000;0.5869;0.9353;
954.9000;0.5877;0.9283;
955.2000;0.5853;0.9260;
955.5000;0.5853;0.9306;
955.8000;0.5877;0.9399;
956.1000;0.5885;0.9423;
956.4000;0.5869;0.9399;
956.7000;0.5853;0.9260;
957.0000;0.5877;0.9236;
957.3000;0.5845;0.9236;
957.6000;0.5869;0.9283;
957.9000;0.5861;0.9306;
958.2000;0.5836;0.9166;
958.5000;0.5893;0.9306;
958.8000;0.5861;0.9283;
959.1000;0.5836;0.9306;
959.4000;0.5877;0.9353;
959.7000;0.5893;0.9353;
960.0000;0.5845;0.9329;
960.3000;0.5869;0.9329;
960.6000;0.5877;0.9399;
960.9000;0.5869;0.9446;
961.2000;0.5861;0.9376;
961.5000;0.5861;0.9260;
961.8000;0.5861;0.9260;
962.1000;0.5877;0.9283;
962.4000;0.5877;0.9376;
962.7000;0.5788;0.9236;
963.0000;0.5869;0.9446;
963.3000;0.5877;0.9399;
963.6000;0.5853;0.9329;
963.9000;0.5853;0.9469;
964.2000;0.5869;0.9493;
964.5000;0.5877;0.9539;
964.8000;0.5877;0.9423;
965.1000;0.5869;0.9376;
965.4000;0.5885;0.9353;
965.7000;0.5877;0.9283;
966.0000;0.5869;0.9236;
966.3000;0.5869;0.9283;
966.6000;0.5853;0.9166;
966.9000;0.5804;0.9190;
967.2000;0.5877;0.9399;
967.5000;0.5861;0.9283;
967.8000;0.5910;0.9329;
968.1000;0.5853;0.9236;
968.4000;0.5861;0.9306;
968.7000;0.5853;0.9376;
969.0000;0.5902;0.9469;
969.3000;0.5836;0.9329;
969.6000;0.5877;0.9306;
969.9000;0.5861;0.9283;
970.2000;0.5820;0.9283;
970.5000;0.5893;0.9446;
970.8000;0.5853;0.9376;
971.1000;0.5869;0.9376;
971.4000;0.5861;0.9329;
971.7000;0.5763;0.9120;
972.0000;0.5836;0.9283;
972.3000;0.5836;0.9283;
972.6000;0.5877;0.9283;
972.9000;0.5869;0.9283;
973.2000;0.5861;0.9236;
973.5000;0.5861;0.9236;
973.8000;0.5902;0.9190;
974.1000;0.5910;0.9283;
974.4000;0.5869;0.9166;
974.7000;0.5918;0.9260;
975.0000;0.5861;0.9096;
975.3000;0.5861;0.9050;
975.6000;0.5902;0.9213;
975.9000;0.5853;0.9166;
976.2000;0.5877;0.9166;
976.5000;0.5877;0.9260;
976.8000;0.5788;0.9096;
977.1000;0.5853;0.9306;
977.4000;0.5861;0.9329;
977.7000;0.5836;0.9376;
978.0000;0.5877;0.9609;
978.3000;0.5853;0.9586;
978.6000;0.5877;0.9633;
978.9000;0.5853;0.9469;
979.2000;0.5885;0.9469;
979.5000;0.5869;0.9399;
979.8000;0.5902;0.9446;
980.1000;0.5910;0.9353;
980.4000;0.5869;0.9306;
980.7000;0.5926;0.9399;
981.0000;0.5869;0.9399;
981.3000;0.5877;0.9376;
981.6000;0.5877;0.9236;
981.9000;0.5893;0.9283;
982.2000;0.5861;0.9213;
982.5000;0.5861;0.9213;
982.8000;0.5885;0.9120;
983.1000;0.5869;0.9096;
983.4000;0.5869;0.9096;
983.7000;0.5853;0.9120;
984.0000;0.5885;0.9213;
984.3000;0.5853;0.9213;
984.6000;0.5869;0.9190;
984.9000;0.5869;0.9120;
985.2000;0.5877;0.9190;
985.5000;0.5885;0.9306;
985.8000;0.5820;0.9143;
986.1000;0.5877;0.9190;
986.4000;0.5877;0.9096;
986.7000;0.5902;0.9073;
987.0000;0.5869;0.9050;
987.3000;0.5845;0.9096;
987.6000;0.5885;0.9260;
987.9000;0.5893;0.9306;
988.2000;0.5869;0.9329;
988.5000;0.5918;0.9399;
988.8000;0.5845;0.9213;
989.1000;0.5861;0.9236;
989.4000;0.5983;0.9493;
989.7000;0.5788;0.9143;
990.0000;0.5861;0.9329;
990.3000;0.5861;0.9353;
990.6000;0.5861;0.9376;
990.9000;0.5853;0.9376;
991.2000;0.5869;0.9353;
991.5000;0.5893;0.9353;
991.8000;0.5853;0.9213;
992.1000;0.5861;0.9190;
992.4000;0.5861;0.9143;
992.7000;0.5796;0.8956;
993.0000;0.5869;0.9120;
993.3000;0.5853;0.9003;
993.6000;0.5845;0.8980;
993.9000;0.5845;0.9003;
994.2000;0.5910;0.9190;
994.5000;0.5877;0.9143;
994.8000;0.5902;0.9283;
995.1000;0.5861;0.9213;
995.4000;0.5861;0.9306;
995.7000;0.5869;0.9329;
996.0000;0.5902;0.9423;
996.3000;0.5853;0.9283;
996.6000;0.5869;0.9213;
996.9000;0.5877;0.9213;
997.2000;0.5853;0.9190;
997.5000;0.5853;0.9166;
997.8000;0.5869;0.9120;
998.1000;0.5885;0.9143;
998.4000;0.5869;0.9050;
998.7000;0.5812;0.8980;
999.0000;0.5861;0.9143;
999.3000;0.5869;0.9166;
999.6000;0.5836;0.9096;
999.9000;0.5861;0.9190;
1000.2000;0.5869;0.9329;
1000.5000;0.5877;0.9423;
1000.8000;0.5893;0.9469;
1001.1000;0.5861;0.9399;
1001.4000;0.5869;0.9493;
1001.7000;0.5853;0.9516;
1002.0000;0.5836;0.9399;
1002.3000;0.5853;0.9446;
1002.6000;0.5853;0.9516;
1002.9000;0.5861;0.9516;
1003.2000;0.5804;0.9353;
1003.5000;0.5877;0.9469;
1003.8000;0.5845;0.9446;
1004.1000;0.5836;0.9376;
1004.4000;0.5845;0.9423;
1004.7000;0.5820;0.9399;
1005.0000;0.5861;0.9469;
1005.3000;0.5853;0.9446;
1005.6000;0.5804;0.9329;
1005.9000;0.5885;0.9446;
1006.2000;0.5861;0.9423;
1006.5000;0.5828;0.9376;
1006.8000;0.5836;0.9399;
1007.1000;0.5845;0.9329;
1007.4000;0.5845;0.9306;
1007.7000;0.5861;0.9260;
1008.0000;0.5853;0.9353;
1008.3000;0.5861;0.9423;
1008.6000;0.5853;0.9539;
1008.9000;0.5853;0.9586;
1009.2000;0.5853;0.9469;
1009.5000;0.5885;0.9493;
1009.8000;0.5869;0.9353;
1010.1000;0.5853;0.9236;
1010.4000;0.5845;0.9260;
1010.7000;0.5845;0.9213;
1011.0000;0.5869;0.9166;
1011.3000;0.5861;0.9236;
1011.6000;0.5853;0.9236;
1011.9000;0.5869;0.9329;
1012.2000;0.5861;0.9283;
1012.5000;0.5845;0.9283;
1012.8000;0.5853;0.9376;
1013.1000;0.5861;0.9283;
1013.4000;0.5845;0.9213;
1013.7000;0.5836;0.9143;
1014.0000;0.5853;0.9190;
1014.3000;0.5845;0.9236;
1014.6000;0.5836;0.9260;
1014.9000;0.5845;0.9236;
1015.2000;0.5828;0.9213;
1015.5000;0.5845;0.9260;
1015.8000;0.5877;0.9329;
1016.1000;0.5845;0.9306;
1016.4000;0.5861;0.9260;
1016.7000;0.5853;0.9236;
1017.0000;0.5877;0.9329;
1017.3000;0.5885;0.9376;
1017.6000;0.5861;0.9329;
1017.9000;0.5877;0.9353;
1018.2000;0.5853;0.9283;
1018.5000;0.5869;0.9306;
1018.8000;0.5828;0.9283;
1019.1000;0.5869;0.9329;
1019.4000;0.5845;0.9260;
1019.7000;0.5861;0.9283;
1020.0000;0.5861;0.9283;
1020.3000;0.5869;0.9306;
1020.6000;0.5869;0.9260;
1020.9000;0.5869;0.9306;
1021.2000;0.5877;0.9376;
1021.5000;0.5828;0.9329;
1021.8000;0.5836;0.9306;
1022.1000;0.5853;0.9329;
1022.4000;0.5845;0.9283;
1022.7000;0.5869;0.9353;
1023.0000;0.5845;0.9236;
1023.3000;0.5853;0.9213;
1023.6000;0.5836;0.9050;
1023.9000;0.5877;0.9026;
1024.2000;0.5885;0.9096;
1024.5000;0.5869;0.9073;
1024.8000;0.5877;0.9166;
1025.1000;0.5910;0.9306;
1025.4000;0.5845;0.9190;
1025.7000;0.5828;0.9143;
1026.0000;0.5869;0.9353;
1026.3000;0.5836;0.9306;
1026.6000;0.5845;0.9213;
1026.9000;0.5861;0.9213;
1027.2000;0.5918;0.9283;
1027.5000;0.5877;0.9236;
1027.8000;0.5861;0.9260;
1028.1000;0.5910;0.9353;
1028.4000;0.5845;0.9213;
1028.7000;0.5861;0.9260;
1029.0000;0.5869;0.9353;
1029.3000;0.5861;0.9306;
1029.6000;0.5853;0.9283;
1029.9000;0.5926;0.9399;
1030.2000;0.5861;0.9213;
1030.5000;0.5869;0.9283;
1030.8000;0.5845;0.9260;
1031.1000;0.5869;0.9353;
1031.4000;0.5869;0.9376;
1031.7000;0.5861;0.9399;
1032.0000;0.5861;0.9399;
1032.3000;0.5877;0.9399;
1032.6000;0.5869;0.9260;
1032.9000;0.5869;0.9353;
1033.2000;0.5869;0.9353;
1033.5000;0.5877;0.9399;
1033.8000;0.5877;0.9446;
1034.1000;0.5918;0.9423;
1034.4000;0.5893;0.9283;
1034.7000;0.5836;0.9166;
1035.0000;0.5869;0.9260;
1035.3000;0.5861;0.9376;
1035.6000;0.5869;0.9423;
1035.9000;0.5885;0.9376;
1036.2000;0.5861;0.9306;
1036.5000;0.5861;0.9260;
1036.8000;0.5853;0.9213;
1037.1000;0.5877;0.9190;
1037.4000;0.5877;0.9120;
1037.7000;0.5836;0.9073;
1038.0000;0.5869;0.9190;
1038.3000;0.5836;0.9050;
1038.6000;0.5836;0.9073;
1038.9000;0.5845;0.9143;
1039.2000;0.5845;0.9213;
1039.5000;0.5845;0.9166;
1039.8000;0.5853;0.9213;
1040.1000;0.5853;0.9143;
1040.4000;0.5820;0.9096;
1040.7000;0.5869;0.9213;
1041.0000;0.5845;0.9283;
1041.3000;0.5861;0.9329;
1041.6000;0.5877;0.9329;
1041.9000;0.5853;0.9190;
1042.2000;0.5861;0.9306;
1042.5000;0.5861;0.9329;
1042.8000;0.5853;0.9446;
1043.1000;0.5836;0.9399;
1043.4000;0.5853;0.9493;
1043.7000;0.5845;0.9493;
1044.0000;0.5861;0.9586;
1044.3000;0.5869;0.9539;
1044.6000;0.5869;0.9586;
1044.9000;0.5853;0.9469;
1045.2000;0.5845;0.9539;
1045.5000;0.5861;0.9469;
1045.8000;0.5861;0.9423;
1046.1000;0.5804;0.9306;
1046.4000;0.5853;0.9423;
1046.7000;0.5796;0.9260;
1047.0000;0.5836;0.9306;
1047.3000;0.5845;0.9399;
1047.6000;0.5836;0.9329;
1047.9000;0.5828;0.9283;
1048.2000;0.5836;0.9306;
1048.5000;0.5861;0.9329;
1048.8000;0.5836;0.9353;
1049.1000;0.5869;0.9329;
1049.4000;0.5845;0.9283;
1049.7000;0.5885;0.9376;
1050.0000;0.5861;0.9260;
1050.3000;0.5893;0.9213;
1050.6000;0.5861;0.9073;
1050.9000;0.5845;0.8980;
1051.2000;0.5902;0.9050;
1051.5000;0.5861;0.8886;
1051.8000;0.5869;0.8863;
1052.1000;0.5771;0.8676;
1052.4000;0.5845;0.8910;
1052.7000;0.5828;0.8863;
1053.0000;0.5869;0.8980;
1053.3000;0.5869;0.9026;
1053.6000;0.5853;0.9050;
1053.9000;0.5861;0.9026;
1054.2000;0.5861;0.9026;
1054.5000;0.5853;0.9003;
1054.8000;0.5820;0.8956;
1055.1000;0.5861;0.9120;
1055.4000;0.5836;0.9026;
1055.7000;0.5861;0.9143;
1056.0000;0.5853;0.9143;
1056.3000;0.5853;0.9143;
1056.6000;0.5836;0.9143;
1056.9000;0.5861;0.9190;
1057.2000;0.5861;0.9213;
1057.5000;0.5853;0.9283;
1057.8000;0.5836;0.9073;
1058.1000;0.5788;0.8933;
1058.4000;0.5869;0.9096;
1058.7000;0.5845;0.9026;
1059.0000;0.5853;0.9003;
1059.3000;0.5861;0.9026;
1059.6000;0.5853;0.9166;
1059.9000;0.5845;0.9120;
1060.2000;0.5820;0.9120;
1060.5000;0.5845;0.9236;
1060.8000;0.5877;0.9260;
1061.1000;0.5836;0.9213;
1061.4000;0.5853;0.9190;
1061.7000;0.5836;0.9213;
1062.0000;0.5820;0.9120;
1062.3000;0.5877;0.9096;
1062.6000;0.5877;0.9026;
1062.9000;0.5845;0.8956;
1063.2000;0.5845;0.8956;
1063.5000;0.5861;0.9050;
1063.8000;0.5836;0.8910;
1064.1000;0.5836;0.8910;
1064.4000;0.5861;0.8933;
1064.7000;0.5845;0.9003;
1065.0000;0.5861;0.9096;
1065.3000;0.5845;0.9073;
1065.6000;0.5845;0.9143;
1065.9000;0.5845;0.9120;
1066.2000;0.5836;0.9120;
1066.5000;0.5779;0.8980;
1066.8000;0.5861;0.9143;
1067.1000;0.5869;0.9260;
1067.4000;0.5845;0.9213;
1067.7000;0.5836;0.9283;
1068.0000;0.5836;0.9260;
1068.3000;0.5861;0.9306;
1068.6000;0.5820;0.9190;
1068.9000;0.5853;0.9213;
1069.2000;0.5836;0.9120;
1069.5000;0.5861;0.9096;
1069.8000;0.5861;0.9166;
1070.1000;0.5828;0.9120;
1070.4000;0.5845;0.9213;
1070.7000;0.5853;0.9166;
1071.0000;0.5845;0.9073;
1071.3000;0.5836;0.9120;
1071.6000;0.5845;0.9236;
1071.9000;0.5845;0.9166;
1072.2000;0.5853;0.9213;
1072.5000;0.5869;0.9213;
1072.8000;0.5853;0.9166;
1073.1000;0.5853;0.9213;
1073.4000;0.5885;0.9329;
1073.7000;0.5958;0.9563;
1074.0000;0.5869;0.9306;
1074.3000;0.5836;0.9283;
1074.6000;0.5869;0.9329;
1074.9000;0.5828;0.9213;
1075.2000;0.5836;0.9143;
1075.5000;0.5836;0.9143;
1075.8000;0.5845;0.9213;
1076.1000;0.5853;0.9236;
1076.4000;0.5853;0.9236;
1076.7000;0.5861;0.9213;
1077.0000;0.5853;0.9260;
1077.3000;0.5861;0.9306;
1077.6000;0.5845;0.9329;
1077.9000;0.5836;0.9376;
1078.2000;0.5861;0.9399;
1078.5000;0.5853;0.9399;
1078.8000;0.5869;0.9376;
1079.1000;0.5869;0.9283;
1079.4000;0.5853;0.9236;
1079.7000;0.5836;0.9260;
1080.0000;0.5853;0.9260;
1080.3000;0.5845;0.9236;
1080.6000;0.5853;0.9283;
1080.9000;0.5828;0.9190;
1081.2000;0.5836;0.9236;
1081.5000;0.5788;0.9120;
1081.8000;0.5836;0.9236;
1082.1000;0.5828;0.9120;
1082.4000;0.5836;0.9236;
1082.7000;0.5861;0.9283;
1083.0000;0.5828;0.9329;
1083.3000;0.5853;0.9446;
1083.6000;0.5877;0.9563;
1083.9000;0.5861;0.9516;
1084.2000;0.5853;0.9446;
1084.5000;0.5893;0.9586;
1084.8000;0.5796;0.9329;
1085.1000;0.5820;0.9399;
1085.4000;0.5836;0.9423;
1085.7000;0.5910;0.9633;
1086.0000;0.5820;0.9493;
1086.3000;0.5853;0.9609;
1086.6000;0.5836;0.9563;
1086.9000;0.5820;0.9446;
1087.2000;0.5828;0.9516;
1087.5000;0.5845;0.9516;
1087.8000;0.5820;0.9399;
1088.1000;0.5926;0.9609;
1088.4000;0.5845;0.9329;
1088.7000;0.5853;0.9306;
1089.0000;0.5885;0.9399;
1089.3000;0.5853;0.9306;
1089.6000;0.5853;0.9329;
1089.9000;0.5820;0.9283;
1090.2000;0.5747;0.9050;
1090.5000;0.5910;0.9376;
1090.8000;0.5771;0.9190;
1091.1000;0.5836;0.9353;
1091.4000;0.5788;0.9260;
1091.7000;0.5853;0.9399;
1092.0000;0.5918;0.9516;
1092.3000;0.5845;0.9329;
1092.6000;0.5853;0.9283;
1092.9000;0.5861;0.9260;
1093.2000;0.5836;0.9143;
1093.5000;0.5885;0.9329;
1093.8000;0.5885;0.9376;
1094.1000;0.5869;0.9376;
1094.4000;0.5861;0.9260;
1094.7000;0.5836;0.9190;
1095.0000;0.5853;0.9236;
1095.3000;0.5853;0.9329;
1095.6000;0.5861;0.9283;
1095.9000;0.5861;0.9166;
1096.2000;0.5853;0.9213;
1096.5000;0.5836;0.9143;
1096.8000;0.5853;0.9143;
1097.1000;0.5853;0.9213;
1097.4000;0.5869;0.9376;
1097.7000;0.5804;0.9283;
1098.0000;0.5853;0.9469;
1098.3000;0.5853;0.9399;
1098.6000;0.5853;0.9469;
1098.9000;0.5853;0.9423;
1099.2000;0.5861;0.9353;
1099.5000;0.5861;0.9353;
1099.8000;0.5836;0.9283;
1100.1000;0.5869;0.9353;
1100.4000;0.5861;0.9376;
1100.7000;0.5853;0.9283;
1101.0000;0.5828;0.9260;
1101.3000;0.5836;0.9306;
1101.6000;0.5853;0.9376;
1101.9000;0.5853;0.9353;
1102.2000;0.5845;0.9283;
1102.5000;0.5853;0.9329;
1102.8000;0.5902;0.9493;
1103.1000;0.5861;0.9376;
1103.4000;0.5836;0.9329;
1103.7000;0.5877;0.9329;
1104.0000;0.5836;0.9260;
1104.3000;0.5861;0.9283;
1104.6000;0.5869;0.9399;
1104.9000;0.5845;0.9376;
1105.2000;0.5869;0.9423;
1105.5000;0.5836;0.9399;
1105.8000;0.5845;0.9469;
1106.1000;0.5853;0.9539;
1106.4000;0.5853;0.9399;
1106.7000;0.5853;0.9306;
1107.0000;0.5861;0.9236;
1107.3000;0.5828;0.9120;
1107.6000;0.5869;0.9166;
1107.9000;0.5861;0.9143;
1108.2000;0.5861;0.9190;
1108.5000;0.5853;0.9260;
1108.8000;0.5869;0.9260;
1109.1000;0.5845;0.9236;
1109.4000;0.5869;0.9329;
1109.7000;0.5861;0.9353;
1110.0000;0.5845;0.9376;
1110.3000;0.5796;0.9213;
1110.6000;0.5845;0.9306;
1110.9000;0.5861;0.9306;
1111.2000;0.5853;0.9283;
1111.5000;0.5853;0.9283;
1111.8000;0.5869;0.9306;
1112.1000;0.5845;0.9213;
1112.4000;0.5853;0.9143;
1112.7000;0.5845;0.9213;
1113.0000;0.5845;0.9213;
1113.3000;0.5845;0.9143;
1113.6000;0.5861;0.9190;
1113.9000;0.5836;0.9190;
1114.2000;0.5804;0.9143;
1114.5000;0.5804;0.9050;
1114.8000;0.5820;0.9096;
1115.1000;0.5845;0.9190;
1115.4000;0.5861;0.9190;
1115.7000;0.5845;0.9190;
1116.0000;0.5869;0.9236;
1116.3000;0.5845;0.9190;
1116.6000;0.5836;0.9143;
1116.9000;0.5836;0.9143;
1117.2000;0.5853;0.9166;
1117.5000;0.5885;0.9260;
1117.8000;0.5845;0.9190;
1118.1000;0.5828;0.9306;
1118.4000;0.5828;0.9329;
1118.7000;0.5828;0.9213;
1119.0000;0.5861;0.9306;
1119.3000;0.5845;0.9329;
1119.6000;0.5771;0.9143;
1119.9000;0.5836;0.9260;
1120.2000;0.5853;0.9329;
1120.5000;0.5836;0.9306;
1120.8000;0.5861;0.9260;
1121.1000;0.5853;0.9260;
1121.4000;0.5836;0.9283;
1121.7000;0.5861;0.9236;
1122.0000;0.5828;0.9120;
1122.3000;0.5853;0.9166;
1122.6000;0.5820;0.9026;
1122.9000;0.5836;0.8956;
1123.2000;0.5845;0.9073;
1123.5000;0.5845;0.9096;
1123.8000;0.5853;0.9143;
1124.1000;0.5828;0.9073;
1124.4000;0.5820;0.9026;
1124.7000;0.5820;0.8956;
1125.0000;0.5893;0.9120;
1125.3000;0.5845;0.9003;
1125.6000;0.5836;0.9050;
1125.9000;0.5836;0.9143;
1126.2000;0.5861;0.9143;
1126.5000;0.5861;0.8980;
1126.8000;0.5853;0.8956;
1127.1000;0.5853;0.8886;
1127.4000;0.5845;0.8910;
1127.7000;0.5861;0.8980;
1128.0000;0.5836;0.8863;
1128.3000;0.5836;0.8840;
1128.6000;0.5885;0.8933;
1128.9000;0.5820;0.8816;
1129.2000;0.5828;0.8956;
1129.5000;0.5845;0.8980;
1129.8000;0.5877;0.8956;
1130.1000;0.5861;0.8980;
1130.4000;0.5902;0.9073;
1130.7000;0.5869;0.8956;
1131.0000;0.5861;0.8956;
1131.3000;0.5845;0.9073;
1131.6000;0.5836;0.9096;
1131.9000;0.5853;0.9166;
1132.2000;0.5836;0.9213;
1132.5000;0.5853;0.9236;
1132.8000;0.5853;0.9190;
1133.1000;0.5828;0.9026;
1133.4000;0.5877;0.9073;
1133.7000;0.5828;0.8910;
1134.0000;0.5861;0.9026;
1134.3000;0.5845;0.8980;
1134.6000;0.5836;0.9050;
1134.9000;0.5853;0.9073;
1135.2000;0.5845;0.9073;
1135.5000;0.5845;0.9050;
1135.8000;0.5828;0.9003;
1136.1000;0.5877;0.9050;
1136.4000;0.5853;0.9026;
1136.7000;0.5853;0.9073;
1137.0000;0.5836;0.9096;
1137.3000;0.5771;0.8956;
1137.6000;0.5836;0.9073;
1137.9000;0.5877;0.9143;
1138.2000;0.5853;0.9073;
1138.5000;0.5845;0.9050;
1138.8000;0.5861;0.9096;
1139.1000;0.5853;0.9120;
1139.4000;0.5869;0.9120;
1139.7000;0.5845;0.9096;
1140.0000;0.5836;0.9073;
1140.3000;0.5869;0.9143;
1140.6000;0.5836;0.9213;
1140.9000;0.5845;0.9120;
1141.2000;0.5853;0.9143;
1141.5000;0.5853;0.9143;
1141.8000;0.5853;0.9073;
1142.1000;0.5853;0.9026;
1142.4000;0.5836;0.9003;
1142.7000;0.5845;0.9096;
1143.0000;0.5877;0.9190;
1143.3000;0.5828;0.9003;
1143.6000;0.5828;0.8980;
1143.9000;0.5828;0.8956;
1144.2000;0.5836;0.8980;
1144.5000;0.5836;0.8956;
1144.8000;0.5779;0.8723;
1145.1000;0.5828;0.8770;
1145.4000;0.5853;0.8770;
1145.7000;0.5836;0.8793;
1146.0000;0.5820;0.8746;
1146.3000;0.5828;0.8816;
1146.6000;0.5869;0.8956;
1146.9000;0.5853;0.9026;
1147.2000;0.5869;0.9143;
1147.5000;0.5836;0.9026;
1147.8000;0.5853;0.8933;
1148.1000;0.5861;0.8816;
1148.4000;0.5836;0.8746;
1148.7000;0.5845;0.8723;
1149.0000;0.5836;0.8793;
1149.3000;0.5861;0.8910;
1149.6000;0.5836;0.8886;
1149.9000;0.5877;0.9050;
1150.2000;0.5869;0.9073;
1150.5000;0.5853;0.9073;
1150.8000;0.5828;0.8956;
1151.1000;0.5861;0.8980;
1151.4000;0.5836;0.8886;
1151.7000;0.5845;0.8910;
1152.0000;0.5796;0.8793;
1152.3000;0.5861;0.9003;
1152.6000;0.5869;0.9026;
1152.9000;0.5853;0.8910;
1153.2000;0.5918;0.8980;
1153.5000;0.5828;0.8793;
1153.8000;0.5836;0.8840;
1154.1000;0.5910;0.8910;
1154.4000;0.5836;0.8793;
1154.7000;0.5845;0.8793;
1155.0000;0.5820;0.8793;
1155.3000;0.5828;0.8793;
1155.6000;0.5828;0.8863;
1155.9000;0.5836;0.8933;
1156.2000;0.5877;0.9096;
1156.5000;0.5845;0.9073;
1156.8000;0.5861;0.9073;
1157.1000;0.5869;0.9026;
1157.4000;0.5910;0.9120;
1157.7000;0.5861;0.9026;
1158.0000;0.5845;0.8980;
1158.3000;0.5845;0.8980;
1158.6000;0.5869;0.9026;
1158.9000;0.5845;0.9003;
1159.2000;0.5820;0.8956;
1159.5000;0.5861;0.8956;
1159.8000;0.5853;0.9003;
1160.1000;0.5885;0.9026;
1160.4000;0.5853;0.9003;
1160.7000;0.5861;0.9003;
1161.0000;0.5861;0.9026;
1161.3000;0.5853;0.9026;
1161.6000;0.5861;0.9120;
1161.9000;0.5836;0.9096;
1162.2000;0.5950;0.9329;
1162.5000;0.5869;0.9050;
1162.8000;0.5853;0.8886;
1163.1000;0.5877;0.8933;
1163.4000;0.5853;0.8863;
1163.7000;0.5853;0.8770;
1164.0000;0.5845;0.8746;
1164.3000;0.5861;0.8933;
1164.6000;0.5845;0.9026;
1164.9000;0.5893;0.9050;
1165.2000;0.5861;0.8933;
1165.5000;0.5861;0.8886;
1165.8000;0.5828;0.8863;
1166.1000;0.5861;0.8980;
1166.4000;0.5845;0.9026;
1166.7000;0.5812;0.8863;
1167.0000;0.5861;0.9073;
1167.3000;0.5869;0.8980;
1167.6000;0.5861;0.9003;
1167.9000;0.5845;0.9003;
1168.2000;0.5861;0.9073;
1168.5000;0.5828;0.9050;
1168.8000;0.5845;0.9003;
1169.1000;0.5845;0.9050;
1169.4000;0.5845;0.9026;
1169.7000;0.5861;0.9073;
1170.0000;0.5861;0.9073;
1170.3000;0.5853;0.9073;
1170.6000;0.5804;0.9073;
1170.9000;0.5861;0.9120;
1171.2000;0.5828;0.9120;
1171.5000;0.5828;0.9213;
1171.8000;0.5845;0.9353;
1172.1000;0.5877;0.9469;
1172.4000;0.5845;0.9260;
1172.7000;0.5845;0.9166;
1173.0000;0.5845;0.9236;
1173.3000;0.5836;0.9213;
1173.6000;0.5828;0.9190;
1173.9000;0.5877;0.9306;
1174.2000;0.5836;0.9166;
1174.5000;0.5853;0.9213;
1174.8000;0.5845;0.9283;
1175.1000;0.5804;0.9120;
1175.4000;0.5812;0.9190;
1175.7000;0.5804;0.9166;
1176.0000;0.5836;0.9353;
1176.3000;0.5853;0.9329;
1176.6000;0.5820;0.9236;
1176.9000;0.5828;0.9236;
1177.2000;0.5828;0.9236;
1177.5000;0.5820;0.9190;
1177.8000;0.5820;0.9190;
1178.1000;0.5861;0.9236;
1178.4000;0.5869;0.9260;
1178.7000;0.5845;0.9213;
1179.0000;0.5853;0.9190;
1179.3000;0.5885;0.9236;
1179.6000;0.5853;0.9143;
1179.9000;0.5836;0.9213;
1180.2000;0.5885;0.9283;
1180.5000;0.5820;0.9143;
1180.8000;0.5885;0.9329;
1181.1000;0.5828;0.9213;
1181.4000;0.5828;0.9260;
1181.7000;0.5828;0.9190;
1182.0000;0.5845;0.9166;
1182.3000;0.5828;0.9190;
1182.6000;0.5869;0.9283;
1182.9000;0.5853;0.9143;
1183.2000;0.5828;0.9026;
1183.5000;0.5828;0.9026;
1183.8000;0.5869;0.9073;
1184.1000;0.5820;0.8956;
1184.4000;0.5828;0.9003;
1184.7000;0.5845;0.9050;
1185.0000;0.5877;0.9096;
1185.3000;0.5845;0.9050;
1185.6000;0.5836;0.9026;
1185.9000;0.5836;0.8933;
1186.2000;0.5845;0.9050;
1186.5000;0.5845;0.9120;
1186.8000;0.5845;0.9143;
1187.1000;0.5845;0.9073;
1187.4000;0.5845;0.9073;
1187.7000;0.5845;0.9166;
1188.0000;0.5845;0.9166;
1188.3000;0.5853;0.9190;
1188.6000;0.5853;0.9120;
1188.9000;0.5853;0.9050;
1189.2000;0.5853;0.9120;
1189.5000;0.5845;0.9143;
1189.8000;0.5853;0.9190;
1190.1000;0.5836;0.9120;
1190.4000;0.5853;0.9166;
1190.7000;0.5836;0.9120;
1191.0000;0.5820;0.8980;
1191.3000;0.5845;0.9073;
1191.6000;0.5820;0.9096;
1191.9000;0.5836;0.9050;
1192.2000;0.5836;0.9003;
1192.5000;0.5836;0.9073;
1192.8000;0.5836;0.9120;
1193.1000;0.5853;0.9213;
1193.4000;0.5845;0.9190;
1193.7000;0.5918;0.9423;
1194.0000;0.5853;0.9236;
1194.3000;0.5845;0.9213;
1194.6000;0.5853;0.9236;
1194.9000;0.5845;0.9236;
1195.2000;0.5804;0.9260;
1195.5000;0.5845;0.9329;
1195.8000;0.5845;0.9306;
1196.1000;0.5853;0.9329;
1196.4000;0.5820;0.9329;
1196.7000;0.5902;0.9446;
1197.0000;0.5836;0.9260;
1197.3000;0.5836;0.9213;
1197.6000;0.5910;0.9399;
1197.9000;0.5869;0.9376;
1198.2000;0.5869;0.9446;
1198.5000;0.5853;0.9423;
1198.8000;0.5853;0.9329;
1199.1000;0.5869;0.9423;
1199.4000;0.5820;0.9353;
1199.7000;0.5861;0.9493;
1200.0000;0.5869;0.9493;
1200.3000;0.5836;0.9493;
1200.6000;0.5788;0.9329;
1200.9000;0.5845;0.9609;
1201.2000;0.5869;0.9703;
1201.5000;0.5845;0.9609;
1201.8000;0.5861;0.9539;
1202.1000;0.5853;0.9423;
1202.4000;0.5975;0.9726;
1202.7000;0.5869;0.9516;
1203.0000;0.5845;0.9539;
1203.3000;0.5877;0.9539;
1203.6000;0.5861;0.9539;
1203.9000;0.5836;0.9516;
1204.2000;0.5812;0.9376;
1204.5000;0.5861;0.9446;
1204.8000;0.5836;0.9423;
1205.1000;0.5861;0.9446;
1205.4000;0.5861;0.9423;
1205.7000;0.5853;0.9329;
1206.0000;0.5902;0.9376;
1206.3000;0.5861;0.9213;
1206.6000;0.5861;0.9260;
1206.9000;0.5845;0.9143;
1207.2000;0.5845;0.9213;
1207.5000;0.5836;0.9190;
1207.8000;0.5845;0.9283;
1208.1000;0.5853;0.9283;
1208.4000;0.5845;0.9376;
1208.7000;0.5885;0.9446;
1209.0000;0.5820;0.9306;
1209.3000;0.5845;0.9329;
1209.6000;0.5893;0.9493;
1209.9000;0.5845;0.9353;
1210.2000;0.5861;0.9423;
1210.5000;0.5845;0.9423;
1210.8000;0.5877;0.9446;
1211.1000;0.5836;0.9236;
1211.4000;0.5869;0.9283;
1211.7000;0.5845;0.9166;
1212.0000;0.5885;0.9236;
1212.3000;0.5828;0.9166;
1212.6000;0.5836;0.9190;
1212.9000;0.5885;0.9353;
1213.2000;0.5828;0.9213;
1213.5000;0.5845;0.9213;
1213.8000;0.5853;0.9260;
1214.1000;0.5853;0.9190;
1214.4000;0.5845;0.9236;
1214.7000;0.5869;0.9329;
1215.0000;0.5853;0.9260;
1215.3000;0.5820;0.9213;
1215.6000;0.5861;0.9260;
1215.9000;0.5828;0.9190;
1216.2000;0.5820;0.9143;
1216.5000;0.5828;0.9329;
1216.8000;0.5836;0.9260;
1217.1000;0.5845;0.9353;
1217.4000;0.5845;0.9376;
1217.7000;0.5845;0.9236;
1218.0000;0.5845;0.9166;
1218.3000;0.5845;0.9213;
1218.6000;0.5836;0.9283;
1218.9000;0.5845;0.9353;
1219.2000;0.5853;0.9376;
1219.5000;0.5853;0.9260;
1219.8000;0.5812;0.9143;
1220.1000;0.5885;0.9353;
1220.4000;0.5828;0.9166;
1220.7000;0.5836;0.9166;
1221.0000;0.5845;0.9213;
1221.3000;0.5836;0.9166;
1221.6000;0.5845;0.9166;
1221.9000;0.5828;0.9190;
1222.2000;0.5885;0.9306;
1222.5000;0.5828;0.9073;
1222.8000;0.5845;0.9026;
1223.1000;0.5861;0.9096;
1223.4000;0.5861;0.9096;
1223.7000;0.5845;0.9026;
1224.0000;0.5788;0.8933;
1224.3000;0.5845;0.9073;
1224.6000;0.5845;0.9073;
1224.9000;0.5861;0.9096;
1225.2000;0.5861;0.9120;
1225.5000;0.5869;0.9096;
1225.8000;0.5828;0.9050;
1226.1000;0.5845;0.9096;
1226.4000;0.5779;0.8910;
1226.7000;0.5869;0.9026;
1227.0000;0.5739;0.8606;
1227.3000;0.5828;0.8886;
1227.6000;0.5845;0.8863;
1227.9000;0.5861;0.8910;
1228.2000;0.5836;0.8910;
1228.5000;0.5836;0.8886;
1228.8000;0.5861;0.8933;
1229.1000;0.5828;0.8956;
1229.4000;0.5845;0.8933;
1229.7000;0.5861;0.8980;
1230.0000;0.5869;0.8956;
1230.3000;0.5853;0.8980;
1230.6000;0.5845;0.9026;
1230.9000;0.5861;0.9096;
1231.2000;0.5926;0.9236;
1231.5000;0.5836;0.9003;
1231.8000;0.5861;0.9213;
1232.1000;0.5853;0.9166;
1232.4000;0.5918;0.9353;
1232.7000;0.5845;0.9050;
1233.0000;0.5845;0.9003;
1233.3000;0.5836;0.8933;
1233.6000;0.5788;0.8840;
1233.9000;0.5845;0.8956;
1234.2000;0.5828;0.8886;
1234.5000;0.5836;0.8933;
1234.8000;0.5820;0.8816;
1235.1000;0.5836;0.8816;
1235.4000;0.5845;0.8770;
1235.7000;0.5861;0.8863;
1236.0000;0.5820;0.8793;
1236.3000;0.5861;0.8910;
1236.6000;0.5845;0.9050;
1236.9000;0.5869;0.9096;
1237.2000;0.5853;0.9096;
1237.5000;0.5853;0.9073;
1237.8000;0.5902;0.9190;
1238.1000;0.5836;0.9120;
1238.4000;0.5845;0.9143;
1238.7000;0.5853;0.9260;
1239.0000;0.5845;0.9283;
1239.3000;0.5853;0.9306;
1239.6000;0.5853;0.9329;
1239.9000;0.5836;0.9283;
1240.2000;0.5853;0.9283;
1240.5000;0.5845;0.9166;
1240.8000;0.5845;0.9213;
1241.1000;0.5845;0.9236;
1241.4000;0.5845;0.9213;
1241.7000;0.5836;0.9283;
1242.0000;0.5861;0.9329;
1242.3000;0.5845;0.9213;
1242.6000;0.5845;0.9213;
1242.9000;0.5812;0.9166;
1243.2000;0.5828;0.9213;
1243.5000;0.5828;0.9260;
1243.8000;0.5845;0.9306;
1244.1000;0.5845;0.9376;
1244.4000;0.5861;0.9353;
1244.7000;0.5804;0.9353;
1245.0000;0.5836;0.9399;
1245.3000;0.5845;0.9353;
1245.6000;0.5853;0.9283;
1245.9000;0.5845;0.9213;
1246.2000;0.5853;0.9236;
1246.5000;0.5836;0.9329;
1246.8000;0.5853;0.9376;
1247.1000;0.5845;0.9376;
1247.4000;0.5828;0.9423;
1247.7000;0.5869;0.9376;
1248.0000;0.5836;0.9329;
1248.3000;0.5788;0.9213;
1248.6000;0.5877;0.9376;
1248.9000;0.5845;0.9399;
1249.2000;0.5861;0.9493;
1249.5000;0.5853;0.9399;
1249.8000;0.5845;0.9306;
1250.1000;0.5820;0.9283;
1250.4000;0.5828;0.9236;
1250.7000;0.5820;0.9190;
1251.0000;0.5869;0.9236;
1251.3000;0.5967;0.9423;
1251.6000;0.5804;0.8980;
1251.9000;0.5828;0.9050;
1252.2000;0.5828;0.9120;
1252.5000;0.5869;0.9213;
1252.8000;0.5845;0.9166;
1253.1000;0.5788;0.9026;
1253.4000;0.5877;0.9236;
1253.7000;0.5796;0.9120;
1254.0000;0.5836;0.9260;
1254.3000;0.5845;0.9353;
1254.6000;0.5804;0.9213;
1254.9000;0.5836;0.9260;
1255.2000;0.5845;0.9260;
1255.5000;0.5845;0.9213;
1255.8000;0.5820;0.9166;
1256.1000;0.5853;0.9306;
1256.4000;0.5845;0.9329;
1256.7000;0.5845;0.9329;
1257.0000;0.5861;0.9329;
1257.3000;0.5828;0.9260;
1257.6000;0.5836;0.9283;
1257.9000;0.5845;0.9353;
1258.2000;0.5845;0.9306;
1258.5000;0.5836;0.9329;
1258.8000;0.5861;0.9446;
1259.1000;0.5739;0.9143;
1259.4000;0.5828;0.9306;
1259.7000;0.5853;0.9306;
1260.0000;0.5820;0.9236;
1260.3000;0.5836;0.9329;
1260.6000;0.5828;0.9353;
1260.9000;0.5893;0.9329;
1261.2000;0.5853;0.9073;
1261.5000;0.5836;0.9120;
1261.8000;0.5845;0.9260;
1262.1000;0.5853;0.9376;
1262.4000;0.5853;0.9516;
1262.7000;0.5836;0.9469;
1263.0000;0.5845;0.9446;
1263.3000;0.5861;0.9539;
1263.6000;0.5853;0.9539;
1263.9000;0.5820;0.9539;
1264.2000;0.5853;0.9656;
1264.5000;0.5845;0.9633;
1264.8000;0.5828;0.9563;
1265.1000;0.5845;0.9469;
1265.4000;0.5828;0.9446;
1265.7000;0.5950;0.9796;
1266.0000;0.5861;0.9609;
1266.3000;0.5853;0.9563;
1266.6000;0.5853;0.9539;
1266.9000;0.5861;0.9469;
1267.2000;0.5853;0.9423;
1267.5000;0.5828;0.9399;
1267.8000;0.5828;0.9399;
1268.1000;0.5910;0.9609;
1268.4000;0.5836;0.9399;
1268.7000;0.5902;0.9399;
1269.0000;0.5853;0.9329;
1269.3000;0.5812;0.9329;
1269.6000;0.5885;0.9563;
1269.9000;0.5861;0.9493;
1270.2000;0.5885;0.9563;
1270.5000;0.5828;0.9446;
1270.8000;0.5804;0.9353;
1271.1000;0.5853;0.9399;
1271.4000;0.5722;0.9096;
1271.7000;0.5845;0.9399;
1272.0000;0.5861;0.9353;
1272.3000;0.5836;0.9283;
1272.6000;0.5910;0.9376;
1272.9000;0.5836;0.9190;
1273.2000;0.5869;0.9260;
1273.5000;0.5845;0.9190;
1273.8000;0.5812;0.9073;
1274.1000;0.5836;0.9143;
1274.4000;0.5788;0.9003;
1274.7000;0.5828;0.9120;
1275.0000;0.5861;0.9236;
1275.3000;0.5820;0.9120;
1275.6000;0.5836;0.9073;
1275.9000;0.5845;0.9096;
1276.2000;0.5958;0.9353;
1276.5000;0.5853;0.9120;
1276.8000;0.5861;0.9166;
1277.1000;0.5820;0.9120;
1277.4000;0.5853;0.9213;
1277.7000;0.5853;0.9260;
1278.0000;0.5828;0.9283;
1278.3000;0.5845;0.9423;
1278.6000;0.5853;0.9469;
1278.9000;0.5836;0.9423;
1279.2000;0.5739;0.9120;
1279.5000;0.5934;0.9586;
1279.8000;0.5853;0.9376;
1280.1000;0.5861;0.9376;
1280.4000;0.5853;0.9260;
1280.7000;0.5796;0.9143;
1281.0000;0.5861;0.9423;
1281.3000;0.5861;0.9376;
1281.6000;0.5836;0.9353;
1281.9000;0.5853;0.9353;
1282.2000;0.5861;0.9493;
1282.5000;0.5845;0.9493;
1282.8000;0.5926;0.9656;
1283.1000;0.5812;0.9399;
1283.4000;0.5812;0.9446;
1283.7000;0.5885;0.9586;
1284.0000;0.5853;0.9423;
1284.3000;0.5836;0.9399;
1284.6000;0.5853;0.9399;
1284.9000;0.5877;0.9376;
1285.2000;0.5836;0.9283;
1285.5000;0.5828;0.9306;
1285.8000;0.5771;0.9166;
1286.1000;0.5836;0.9423;
1286.4000;0.5845;0.9469;
1286.7000;0.5861;0.9493;
1287.0000;0.5853;0.9493;
1287.3000;0.5828;0.9399;
1287.6000;0.5861;0.9656;
1287.9000;0.5869;0.9586;
1288.2000;0.5820;0.9493;
1288.5000;0.5861;0.9586;
1288.8000;0.5869;0.9586;
1289.1000;0.5885;0.9516;
1289.4000;0.5861;0.9446;
1289.7000;0.5845;0.9446;
1290.0000;0.5828;0.9469;
1290.3000;0.5853;0.9493;
1290.6000;0.5845;0.9469;
1290.9000;0.5836;0.9446;
1291.2000;0.5853;0.9376;
1291.5000;0.5836;0.9353;
1291.8000;0.5845;0.9353;
1292.1000;0.5828;0.9306;
1292.4000;0.5918;0.9563;
1292.7000;0.5845;0.9353;
1293.0000;0.5836;0.9283;
1293.3000;0.5771;0.9166;
1293.6000;0.5796;0.9213;
1293.9000;0.5910;0.9446;
1294.2000;0.5861;0.9306;
1294.5000;0.5836;0.9329;
1294.8000;0.5845;0.9353;
1295.1000;0.5893;0.9493;
1295.4000;0.5853;0.9493;
1295.7000;0.5853;0.9446;
1296.0000;0.5836;0.9469;
1296.3000;0.5845;0.9469;
1296.6000;0.5853;0.9423;
1296.9000;0.5836;0.9446;
1297.2000;0.5845;0.9446;
1297.5000;0.5869;0.9516;
1297.8000;0.5853;0.9586;
1298.1000;0.5836;0.9586;
1298.4000;0.5836;0.9563;
1298.7000;0.5845;0.9516;
1299.0000;0.5853;0.9516;
1299.3000;0.5836;0.9493;
1299.6000;0.5845;0.9539;
1299.9000;0.5836;0.9516;
1300.2000;0.5877;0.9469;
1300.5000;0.5845;0.9329;
1300.8000;0.5877;0.9376;
1301.1000;0.5845;0.9353;
1301.4000;0.5836;0.9283;
1301.7000;0.5861;0.9306;
1302.0000;0.5828;0.9236;
1302.3000;0.5893;0.9423;
1302.6000;0.5869;0.9423;
1302.9000;0.5828;0.9376;
1303.2000;0.5853;0.9446;
1303.5000;0.5828;0.9353;
1303.8000;0.5853;0.9446;
1304.1000;0.5861;0.9399;
1304.4000;0.5869;0.9423;
1304.7000;0.5836;0.9329;
1305.0000;0.5836;0.9283;
1305.3000;0.5861;0.9353;
1305.6000;0.5788;0.9236;
1305.9000;0.5836;0.9376;
1306.2000;0.5845;0.9423;
1306.5000;0.5861;0.9469;
1306.8000;0.5853;0.9446;
1307.1000;0.5861;0.9399;
1307.4000;0.5845;0.9446;
1307.7000;0.5820;0.9399;
1308.0000;0.5853;0.9329;
1308.3000;0.5845;0.9329;
1308.6000;0.5853;0.9353;
1308.9000;0.5845;0.9260;
1309.2000;0.5845;0.9190;
1309.5000;0.5861;0.9306;
1309.8000;0.5853;0.9306;
1310.1000;0.5853;0.9353;
1310.4000;0.5853;0.9399;
1310.7000;0.5820;0.9306;
1311.0000;0.5828;0.9423;
1311.3000;0.5845;0.9376;
1311.6000;0.5828;0.9306;
1311.9000;0.5869;0.9376;
1312.2000;0.5869;0.9329;
1312.5000;0.5828;0.9213;
1312.8000;0.5812;0.9190;
1313.1000;0.5861;0.9306;
1313.4000;0.5885;0.9399;
1313.7000;0.5861;0.9399;
1314.0000;0.5796;0.9283;
1314.3000;0.5828;0.9353;
1314.6000;0.5845;0.9446;
1314.9000;0.5836;0.9353;
1315.2000;0.5861;0.9353;
1315.5000;0.5853;0.9399;
1315.8000;0.5861;0.9353;
1316.1000;0.5861;0.9353;
1316.4000;0.5779;0.9166;
1316.7000;0.5836;0.9236;
1317.0000;0.5853;0.9329;
1317.3000;0.5796;0.9283;
1317.6000;0.5828;0.9399;
1317.9000;0.5853;0.9399;
1318.2000;0.5836;0.9423;
1318.5000;0.5836;0.9446;
1318.8000;0.5828;0.9469;
1319.1000;0.5869;0.9493;
1319.4000;0.5845;0.9399;
1319.7000;0.5820;0.9283;
1320.0000;0.5812;0.9260;
1320.3000;0.5812;0.9306;
1320.6000;0.5836;0.9376;
1320.9000;0.5836;0.9353;
1321.2000;0.5812;0.9213;
1321.5000;0.5828;0.9166;
1321.8000;0.5828;0.9143;
1322.1000;0.5853;0.9306;
1322.4000;0.5828;0.9306;
1322.7000;0.5999;0.9726;
1323.0000;0.5845;0.9446;
1323.3000;0.5845;0.9493;
1323.6000;0.5845;0.9469;
1323.9000;0.5853;0.9469;
1324.2000;0.5845;0.9446;
1324.5000;0.5836;0.9446;
1324.8000;0.5861;0.9469;
1325.1000;0.5828;0.9399;
1325.4000;0.5845;0.9306;
1325.7000;0.5926;0.9446;
1326.0000;0.5853;0.9236;
1326.3000;0.5836;0.9236;
1326.6000;0.5836;0.9236;
1326.9000;0.5845;0.9260;
1327.2000;0.5845;0.9213;
1327.5000;0.5853;0.9236;
1327.8000;0.5853;0.9143;
1328.1000;0.5804;0.9120;
1328.4000;0.5853;0.9236;
1328.7000;0.5893;0.9353;
1329.0000;0.5836;0.9353;
1329.3000;0.5845;0.9353;
1329.6000;0.5853;0.9353;
1329.9000;0.5861;0.9376;
1330.2000;0.5845;0.9399;
1330.5000;0.5763;0.9190;
1330.8000;0.5877;0.9446;
1331.1000;0.5836;0.9329;
1331.4000;0.5853;0.9376;
1331.7000;0.5828;0.9353;
1332.0000;0.5853;0.9469;
1332.3000;0.5861;0.9493;
1332.6000;0.5820;0.9353;
1332.9000;0.5739;0.9166;
1333.2000;0.5828;0.9260;
1333.5000;0.5845;0.9306;
1333.8000;0.5796;0.9329;
1334.1000;0.5845;0.9446;
1334.4000;0.5845;0.9399;
1334.7000;0.5812;0.9306;
1335.0000;0.5845;0.9376;
1335.3000;0.5853;0.9376;
1335.6000;0.5845;0.9306;
1335.9000;0.5861;0.9376;
1336.2000;0.5828;0.9329;
1336.5000;0.5836;0.9306;
1336.8000;0.5836;0.9236;
1337.1000;0.5828;0.9306;
1337.4000;0.5836;0.9423;
1337.7000;0.5845;0.9446;
1338.0000;0.5853;0.9423;
1338.3000;0.5836;0.9376;
1338.6000;0.5869;0.9399;
1338.9000;0.5845;0.9329;
1339.2000;0.5845;0.9329;
1339.5000;0.5869;0.9469;
1339.8000;0.5836;0.9423;
1340.1000;0.5853;0.9516;
1340.4000;0.5820;0.9493;
1340.7000;0.5771;0.9260;
1341.0000;0.5820;0.9283;
1341.3000;0.5836;0.9213;
1341.6000;0.5836;0.9283;
1341.9000;0.5893;0.9306;
1342.2000;0.5828;0.9120;
1342.5000;0.5836;0.9190;
1342.8000;0.5845;0.9166;
1343.1000;0.5845;0.9213;
1343.4000;0.5820;0.9236;
1343.7000;0.5845;0.9190;
1344.0000;0.5853;0.9143;
1344.3000;0.5836;0.9120;
1344.6000;0.5812;0.9120;
1344.9000;0.5836;0.9143;
1345.2000;0.5845;0.9143;
1345.5000;0.5845;0.9096;
1345.8000;0.5869;0.9213;
1346.1000;0.5828;0.9376;
1346.4000;0.5853;0.9469;
1346.7000;0.5828;0.9376;
1347.0000;0.5853;0.9446;
1347.3000;0.5828;0.9446;
1347.6000;0.5845;0.9563;
1347.9000;0.5836;0.9586;
1348.2000;0.5885;0.9609;
1348.5000;0.5853;0.9539;
1348.8000;0.5853;0.9563;
1349.1000;0.5836;0.9563;
1349.4000;0.5853;0.9633;
1349.7000;0.5910;0.9726;
1350.0000;0.5861;0.9539;
1350.3000;0.5845;0.9516;
1350.6000;0.5845;0.9423;
1350.9000;0.5853;0.9399;
1351.2000;0.5845;0.9446;
1351.5000;0.5828;0.9306;
1351.8000;0.5934;0.9539;
1352.1000;0.5828;0.9353;
1352.4000;0.5820;0.9306;
1352.7000;0.5853;0.9306;
1353.0000;0.5845;0.9260;
1353.3000;0.5836;0.9236;
1353.6000;0.5853;0.9213;
1353.9000;0.5845;0.9236;
1354.2000;0.5853;0.9166;
1354.5000;0.5877;0.9236;
1354.8000;0.5869;0.9329;
1355.1000;0.5828;0.9283;
1355.4000;0.5853;0.9283;
1355.7000;0.5877;0.9376;
1356.0000;0.5836;0.9306;
1356.3000;0.5845;0.9306;
1356.6000;0.5861;0.9306;
1356.9000;0.5853;0.9329;
1357.2000;0.5820;0.9353;
1357.5000;0.5836;0.9283;
1357.8000;0.5836;0.9143;
1358.1000;0.5845;0.9260;
1358.4000;0.5836;0.9213;
1358.7000;0.5836;0.9329;
1359.0000;0.5812;0.9306;
1359.3000;0.5861;0.9329;
1359.6000;0.5845;0.9329;
1359.9000;0.5836;0.9329;
1360.2000;0.5853;0.9353;
1360.5000;0.5853;0.9376;
1360.8000;0.5853;0.9399;
1361.1000;0.5812;0.9353;
1361.4000;0.5845;0.9376;
1361.7000;0.5796;0.9213;
1362.0000;0.5820;0.9376;
1362.3000;0.5845;0.9353;
1362.6000;0.5820;0.9306;
1362.9000;0.5836;0.9376;
1363.2000;0.5853;0.9306;
1363.5000;0.5853;0.9306;
1363.8000;0.5845;0.9236;
1364.1000;0.5845;0.9166;
1364.4000;0.5861;0.9260;
1364.7000;0.5861;0.9306;
1365.0000;0.5828;0.9329;
1365.3000;0.5885;0.9469;
1365.6000;0.5845;0.9446;
1365.9000;0.5885;0.9516;
1366.2000;0.5836;0.9493;
1366.5000;0.5836;0.9493;
1366.8000;0.5836;0.9376;
1367.1000;0.5796;0.9329;
1367.4000;0.5820;0.9469;
1367.7000;0.5845;0.9469;
1368.0000;0.5820;0.9376;
1368.3000;0.5861;0.9423;
1368.6000;0.5836;0.9446;
1368.9000;0.5845;0.9469;
1369.2000;0.5845;0.9516;
1369.5000;0.5836;0.9563;
1369.8000;0.5845;0.9563;
1370.1000;0.5804;0.9469;
1370.4000;0.5877;0.9563;
1370.7000;0.5853;0.9539;
1371.0000;0.5869;0.9539;
1371.3000;0.5902;0.9609;
1371.6000;0.5869;0.9446;
1371.9000;0.5853;0.9329;
1372.2000;0.5788;0.9213;
1372.5000;0.5845;0.9213;
1372.8000;0.5861;0.9166;
1373.1000;0.5836;0.9120;
1373.4000;0.5861;0.9260;
1373.7000;0.5893;0.9423;
1374.0000;0.5836;0.9213;
1374.3000;0.5861;0.9236;
1374.6000;0.5836;0.9306;
1374.9000;0.5836;0.9306;
1375.2000;0.5828;0.9260;
1375.5000;0.5950;0.9586;
1375.8000;0.5869;0.9399;
1376.1000;0.5845;0.9329;
1376.4000;0.5845;0.9399;
1376.7000;0.5771;0.9213;
1377.0000;0.5828;0.9329;
1377.3000;0.5853;0.9446;
1377.6000;0.5731;0.9143;
1377.9000;0.5845;0.9353;
1378.2000;0.5828;0.9329;
1378.5000;0.5845;0.9306;
1378.8000;0.5853;0.9213;
1379.1000;0.5828;0.9143;
1379.4000;0.5853;0.9236;
1379.7000;0.5845;0.9283;
1380.0000;0.5812;0.9353;
1380.3000;0.5828;0.9539;
1380.6000;0.5812;0.9469;
1380.9000;0.5845;0.9446;
1381.2000;0.5845;0.9469;
1381.5000;0.5836;0.9423;
1381.8000;0.5820;0.9376;
1382.1000;0.5828;0.9399;
1382.4000;0.5836;0.9516;
1382.7000;0.5828;0.9446;
1383.0000;0.5820;0.9353;
1383.3000;0.5845;0.9446;
1383.6000;0.5836;0.9376;
1383.9000;0.5845;0.9423;
1384.2000;0.5828;0.9493;
1384.5000;0.5869;0.9516;
1384.8000;0.5828;0.9376;
1385.1000;0.5861;0.9469;
1385.4000;0.5820;0.9446;
1385.7000;0.5828;0.9399;
1386.0000;0.5820;0.9353;
1386.3000;0.5845;0.9446;
1386.6000;0.5861;0.9469;
1386.9000;0.5845;0.9423;
1387.2000;0.5845;0.9446;
1387.5000;0.5836;0.9469;
1387.8000;0.5869;0.9469;
1388.1000;0.5885;0.9493;
1388.4000;0.5836;0.9423;
1388.7000;0.5853;0.9376;
1389.0000;0.5828;0.9353;
1389.3000;0.5820;0.9353;
1389.6000;0.5845;0.9329;
1389.9000;0.5853;0.9399;
1390.2000;0.5788;0.9329;
1390.5000;0.5820;0.9446;
1390.8000;0.5845;0.9516;
1391.1000;0.5845;0.9446;
1391.4000;0.5836;0.9423;
1391.7000;0.5845;0.9399;
1392.0000;0.5845;0.9329;
1392.3000;0.5853;0.9329;
1392.6000;0.5845;0.9353;
1392.9000;0.5828;0.9376;
1393.2000;0.5845;0.9423;
1393.5000;0.5820;0.9376;
1393.8000;0.5828;0.9353;
1394.1000;0.5820;0.9283;
1394.4000;0.5812;0.9306;
1394.7000;0.5812;0.9283;
1395.0000;0.5820;0.9376;
1395.3000;0.5845;0.9376;
1395.6000;0.5845;0.9399;
1395.9000;0.5869;0.9469;
1396.2000;0.5845;0.9329;
1396.5000;0.5845;0.9423;
1396.8000;0.5828;0.9399;
1397.1000;0.5836;0.9329;
1397.4000;0.5828;0.9376;
1397.7000;0.5836;0.9423;
1398.0000;0.5845;0.9399;
1398.3000;0.5828;0.9376;
1398.6000;0.5853;0.9399;
1398.9000;0.5845;0.9399;
1399.2000;0.5853;0.9329;
1399.5000;0.5828;0.9283;
1399.8000;0.5828;0.9329;
