time/ms;Fluo/V;P700 deltaI/I x10³;
-199.8000;0.7334;0.7604;
-199.5000;0.7440;0.7907;
-199.2000;0.7350;0.7627;
-198.9000;0.7285;0.7324;
-198.6000;0.7383;0.7534;
-198.3000;0.7350;0.7510;
-198.0000;0.7391;0.7697;
-197.7000;0.7391;0.7673;
-197.4000;0.7416;0.7673;
-197.1000;0.7399;0.7557;
-196.8000;0.7399;0.7580;
-196.5000;0.7407;0.7627;
-196.2000;0.7424;0.7604;
-195.9000;0.7424;0.7673;
-195.6000;0.7416;0.7604;
-195.3000;0.7432;0.7580;
-195.0000;0.7432;0.7580;
-194.7000;0.7456;0.7743;
-194.4000;0.7440;0.7790;
-194.1000;0.7440;0.7743;
-193.8000;0.7473;0.7813;
-193.5000;0.7464;0.7743;
-193.2000;0.7456;0.7673;
-192.9000;0.7473;0.7720;
-192.6000;0.7481;0.7790;
-192.3000;0.7489;0.7813;
-192.0000;0.7489;0.7883;
-191.7000;0.7595;0.8023;
-191.4000;0.7497;0.7673;
-191.1000;0.7513;0.7650;
-190.8000;0.7570;0.7813;
-190.5000;0.7513;0.7743;
-190.2000;0.7521;0.7604;
-189.9000;0.7530;0.7557;
-189.6000;0.7521;0.7534;
-189.3000;0.7530;0.7650;
-189.0000;0.7546;0.7673;
-188.7000;0.7554;0.7720;
-188.4000;0.7554;0.7743;
-188.1000;0.7570;0.7673;
-187.8000;0.7570;0.7743;
-187.5000;0.7570;0.7743;
-187.2000;0.7595;0.7790;
-186.9000;0.7595;0.7883;
-186.6000;0.7603;0.7790;
-186.3000;0.7595;0.7743;
-186.0000;0.7668;0.7930;
-185.7000;0.7627;0.7767;
-185.4000;0.7619;0.7837;
-185.1000;0.7668;0.7813;
-184.8000;0.7513;0.7440;
-184.5000;0.7627;0.7627;
-184.2000;0.7635;0.7580;
-183.9000;0.7570;0.7464;
-183.6000;0.7652;0.7673;
-183.3000;0.7652;0.7627;
-183.0000;0.7700;0.7790;
-182.7000;0.7660;0.7627;
-182.4000;0.7627;0.7580;
-182.1000;0.7692;0.7720;
-181.8000;0.7684;0.7767;
-181.5000;0.7684;0.7767;
-181.2000;0.7684;0.7767;
-180.9000;0.7692;0.7720;
-180.6000;0.7717;0.7743;
-180.3000;0.7692;0.7604;
-180.0000;0.7668;0.7510;
-179.7000;0.7709;0.7604;
-179.4000;0.7741;0.7720;
-179.1000;0.7684;0.7697;
-178.8000;0.7749;0.7837;
-178.5000;0.7692;0.7720;
-178.2000;0.7741;0.7813;
-177.9000;0.7700;0.7650;
-177.6000;0.7757;0.7767;
-177.3000;0.7806;0.7907;
-177.0000;0.7757;0.7743;
-176.7000;0.7855;0.7907;
-176.4000;0.7757;0.7627;
-176.1000;0.7782;0.7697;
-175.8000;0.7806;0.7837;
-175.5000;0.7831;0.7860;
-175.2000;0.7774;0.7627;
-174.9000;0.7782;0.7627;
-174.6000;0.7814;0.7650;
-174.3000;0.7790;0.7604;
-174.0000;0.7798;0.7604;
-173.7000;0.7806;0.7604;
-173.4000;0.7798;0.7627;
-173.1000;0.7814;0.7627;
-172.8000;0.7831;0.7650;
-172.5000;0.7880;0.7743;
-172.2000;0.7855;0.7673;
-171.9000;0.7839;0.7697;
-171.6000;0.7839;0.7673;
-171.3000;0.7831;0.7627;
-171.0000;0.7847;0.7720;
-170.7000;0.7871;0.7743;
-170.4000;0.7871;0.7673;
-170.1000;0.7863;0.7604;
-169.8000;0.7880;0.7627;
-169.5000;0.7920;0.7813;
-169.2000;0.7880;0.7627;
-168.9000;0.7863;0.7580;
-168.6000;0.7888;0.7650;
-168.3000;0.7912;0.7650;
-168.0000;0.7896;0.7604;
-167.7000;0.7961;0.7720;
-167.4000;0.7912;0.7650;
-167.1000;0.7896;0.7650;
-166.8000;0.7912;0.7813;
-166.5000;0.7920;0.7837;
-166.2000;0.7937;0.7860;
-165.9000;0.7937;0.7837;
-165.6000;0.7937;0.7813;
-165.3000;0.7969;0.7767;
-165.0000;0.7937;0.7650;
-164.7000;0.7937;0.7627;
-164.4000;0.7945;0.7580;
-164.1000;0.7969;0.7673;
-163.8000;0.7961;0.7767;
-163.5000;0.7953;0.7743;
-163.2000;0.7961;0.7790;
-162.9000;0.7977;0.7790;
-162.6000;0.7985;0.7767;
-162.3000;0.8026;0.7837;
-162.0000;0.8002;0.7743;
-161.7000;0.8010;0.7720;
-161.4000;0.7993;0.7673;
-161.1000;0.7993;0.7534;
-160.8000;0.8002;0.7510;
-160.5000;0.8002;0.7487;
-160.2000;0.8075;0.7627;
-159.9000;0.8026;0.7580;
-159.6000;0.8091;0.7650;
-159.3000;0.8132;0.7767;
-159.0000;0.8042;0.7580;
-158.7000;0.8034;0.7487;
-158.4000;0.8042;0.7464;
-158.1000;0.8116;0.7697;
-157.8000;0.8050;0.7440;
-157.5000;0.8050;0.7510;
-157.2000;0.8059;0.7417;
-156.9000;0.8059;0.7440;
-156.6000;0.8067;0.7534;
-156.3000;0.8075;0.7627;
-156.0000;0.8067;0.7627;
-155.7000;0.8075;0.7604;
-155.4000;0.8075;0.7650;
-155.1000;0.8075;0.7604;
-154.8000;0.8042;0.7487;
-154.5000;0.8075;0.7510;
-154.2000;0.8099;0.7487;
-153.9000;0.8091;0.7510;
-153.6000;0.8034;0.7394;
-153.3000;0.8091;0.7534;
-153.0000;0.8107;0.7604;
-152.7000;0.8107;0.7650;
-152.4000;0.8116;0.7534;
-152.1000;0.8107;0.7580;
-151.8000;0.8124;0.7627;
-151.5000;0.8140;0.7673;
-151.2000;0.8067;0.7580;
-150.9000;0.8140;0.7697;
-150.6000;0.8140;0.7720;
-150.3000;0.8107;0.7627;
-150.0000;0.8148;0.7673;
-149.7000;0.8156;0.7604;
-149.4000;0.8156;0.7604;
-149.1000;0.8164;0.7697;
-148.8000;0.8173;0.7720;
-148.5000;0.8164;0.7720;
-148.2000;0.8173;0.7790;
-147.9000;0.8173;0.7743;
-147.6000;0.8189;0.7697;
-147.3000;0.8189;0.7697;
-147.0000;0.8230;0.7837;
-146.7000;0.8197;0.7673;
-146.4000;0.8254;0.7743;
-146.1000;0.8213;0.7627;
-145.8000;0.8189;0.7440;
-145.5000;0.8107;0.7300;
-145.2000;0.8197;0.7534;
-144.9000;0.8205;0.7604;
-144.6000;0.8116;0.7324;
-144.3000;0.8205;0.7557;
-144.0000;0.8327;0.7837;
-143.7000;0.8221;0.7580;
-143.4000;0.8213;0.7580;
-143.1000;0.8230;0.7650;
-142.8000;0.8262;0.7743;
-142.5000;0.8303;0.7883;
-142.2000;0.8238;0.7697;
-141.9000;0.8221;0.7627;
-141.6000;0.8254;0.7650;
-141.3000;0.8270;0.7650;
-141.0000;0.8254;0.7604;
-140.7000;0.8262;0.7720;
-140.4000;0.8254;0.7604;
-140.1000;0.8238;0.7557;
-139.8000;0.8287;0.7534;
-139.5000;0.8278;0.7394;
-139.2000;0.8278;0.7370;
-138.9000;0.8270;0.7324;
-138.6000;0.8278;0.7394;
-138.3000;0.8295;0.7370;
-138.0000;0.8278;0.7277;
-137.7000;0.8295;0.7254;
-137.4000;0.8295;0.7300;
-137.1000;0.8295;0.7347;
-136.8000;0.8327;0.7347;
-136.5000;0.8311;0.7254;
-136.2000;0.8238;0.7067;
-135.9000;0.8303;0.7254;
-135.6000;0.8311;0.7370;
-135.3000;0.8409;0.7557;
-135.0000;0.8327;0.7417;
-134.7000;0.8327;0.7370;
-134.4000;0.8319;0.7324;
-134.1000;0.8327;0.7347;
-133.8000;0.8335;0.7300;
-133.5000;0.8344;0.7347;
-133.2000;0.8335;0.7394;
-132.9000;0.8400;0.7510;
-132.6000;0.8319;0.7347;
-132.3000;0.8303;0.7300;
-132.0000;0.8360;0.7440;
-131.7000;0.8335;0.7440;
-131.4000;0.8392;0.7604;
-131.1000;0.8344;0.7557;
-130.8000;0.8360;0.7604;
-130.5000;0.8376;0.7534;
-130.2000;0.8392;0.7487;
-129.9000;0.8392;0.7557;
-129.6000;0.8344;0.7510;
-129.3000;0.8368;0.7627;
-129.0000;0.8376;0.7627;
-128.7000;0.8368;0.7557;
-128.4000;0.8384;0.7627;
-128.1000;0.8368;0.7580;
-127.8000;0.8368;0.7580;
-127.5000;0.8384;0.7510;
-127.2000;0.8352;0.7487;
-126.9000;0.8360;0.7417;
-126.6000;0.8384;0.7510;
-126.3000;0.8400;0.7417;
-126.0000;0.8409;0.7417;
-125.7000;0.8409;0.7347;
-125.4000;0.8425;0.7417;
-125.1000;0.8417;0.7417;
-124.8000;0.8409;0.7510;
-124.5000;0.8457;0.7673;
-124.2000;0.8441;0.7673;
-123.9000;0.8474;0.7813;
-123.6000;0.8474;0.7860;
-123.3000;0.8433;0.7650;
-123.0000;0.8417;0.7673;
-122.7000;0.8433;0.7720;
-122.4000;0.8482;0.7790;
-122.1000;0.8409;0.7650;
-121.8000;0.8466;0.7767;
-121.5000;0.8417;0.7697;
-121.2000;0.8441;0.7743;
-120.9000;0.8547;0.7860;
-120.6000;0.8466;0.7697;
-120.3000;0.8449;0.7604;
-120.0000;0.8449;0.7650;
-119.7000;0.8482;0.7650;
-119.4000;0.8466;0.7627;
-119.1000;0.8482;0.7743;
-118.8000;0.8482;0.7743;
-118.5000;0.8466;0.7673;
-118.2000;0.8490;0.7697;
-117.9000;0.8506;0.7767;
-117.6000;0.8490;0.7883;
-117.3000;0.8482;0.7860;
-117.0000;0.8490;0.7953;
-116.7000;0.8482;0.7883;
-116.4000;0.8482;0.7860;
-116.1000;0.8506;0.7930;
-115.8000;0.8482;0.7907;
-115.5000;0.8514;0.7860;
-115.2000;0.8498;0.7697;
-114.9000;0.8498;0.7673;
-114.6000;0.8514;0.7720;
-114.3000;0.8539;0.7813;
-114.0000;0.8514;0.7743;
-113.7000;0.8514;0.7767;
-113.4000;0.8514;0.7813;
-113.1000;0.8523;0.7860;
-112.8000;0.8506;0.7837;
-112.5000;0.8514;0.7790;
-112.2000;0.8523;0.7837;
-111.9000;0.8498;0.7743;
-111.6000;0.8514;0.7697;
-111.3000;0.8539;0.7767;
-111.0000;0.8523;0.7697;
-110.7000;0.8457;0.7534;
-110.4000;0.8539;0.7767;
-110.1000;0.8531;0.7720;
-109.8000;0.8531;0.7720;
-109.5000;0.8547;0.7790;
-109.2000;0.8563;0.7930;
-108.9000;0.8547;0.7907;
-108.6000;0.8531;0.7930;
-108.3000;0.8620;0.8140;
-108.0000;0.8563;0.7953;
-107.7000;0.8547;0.7837;
-107.4000;0.8555;0.7813;
-107.1000;0.8547;0.7673;
-106.8000;0.8555;0.7604;
-106.5000;0.8523;0.7534;
-106.2000;0.8547;0.7697;
-105.9000;0.8588;0.7743;
-105.6000;0.8547;0.7673;
-105.3000;0.8547;0.7673;
-105.0000;0.8531;0.7697;
-104.7000;0.8612;0.7930;
-104.4000;0.8555;0.7790;
-104.1000;0.8547;0.7697;
-103.8000;0.8571;0.7790;
-103.5000;0.8571;0.7813;
-103.2000;0.8580;0.7720;
-102.9000;0.8612;0.7697;
-102.6000;0.8580;0.7557;
-102.3000;0.8596;0.7673;
-102.0000;0.8588;0.7673;
-101.7000;0.8596;0.7743;
-101.4000;0.8604;0.7673;
-101.1000;0.8580;0.7557;
-100.8000;0.8547;0.7440;
-100.5000;0.8596;0.7627;
-100.2000;0.8604;0.7743;
-99.9000;0.8620;0.7697;
-99.6000;0.8596;0.7720;
-99.3000;0.8596;0.7604;
-99.0000;0.8604;0.7557;
-98.7000;0.8637;0.7627;
-98.4000;0.8612;0.7604;
-98.1000;0.8506;0.7277;
-97.8000;0.8628;0.7557;
-97.5000;0.8588;0.7464;
-97.2000;0.8612;0.7534;
-96.9000;0.8653;0.7697;
-96.6000;0.8612;0.7510;
-96.3000;0.8612;0.7487;
-96.0000;0.8612;0.7510;
-95.7000;0.8588;0.7464;
-95.4000;0.8612;0.7510;
-95.1000;0.8628;0.7534;
-94.8000;0.8637;0.7580;
-94.5000;0.8628;0.7627;
-94.2000;0.8620;0.7627;
-93.9000;0.8645;0.7697;
-93.6000;0.8637;0.7650;
-93.3000;0.8628;0.7580;
-93.0000;0.8637;0.7487;
-92.7000;0.8661;0.7487;
-92.4000;0.8653;0.7417;
-92.1000;0.8645;0.7487;
-91.8000;0.8653;0.7534;
-91.5000;0.8661;0.7627;
-91.2000;0.8645;0.7604;
-90.9000;0.8653;0.7604;
-90.6000;0.8653;0.7650;
-90.3000;0.8702;0.7743;
-90.0000;0.8645;0.7627;
-89.7000;0.8661;0.7580;
-89.4000;0.8653;0.7487;
-89.1000;0.8669;0.7417;
-88.8000;0.8685;0.7370;
-88.5000;0.8694;0.7370;
-88.2000;0.8677;0.7394;
-87.9000;0.8669;0.7394;
-87.6000;0.8669;0.7347;
-87.3000;0.8661;0.7394;
-87.0000;0.8677;0.7510;
-86.7000;0.8661;0.7417;
-86.4000;0.8669;0.7440;
-86.1000;0.8669;0.7417;
-85.8000;0.8669;0.7464;
-85.5000;0.8628;0.7417;
-85.2000;0.8653;0.7394;
-84.9000;0.8677;0.7440;
-84.6000;0.8710;0.7557;
-84.3000;0.8669;0.7440;
-84.0000;0.8669;0.7487;
-83.7000;0.8620;0.7417;
-83.4000;0.8710;0.7650;
-83.1000;0.8677;0.7604;
-82.8000;0.8677;0.7510;
-82.5000;0.8710;0.7487;
-82.2000;0.8734;0.7580;
-81.9000;0.8702;0.7487;
-81.6000;0.8742;0.7673;
-81.3000;0.8685;0.7580;
-81.0000;0.8702;0.7627;
-80.7000;0.8710;0.7557;
-80.4000;0.8702;0.7487;
-80.1000;0.8694;0.7487;
-79.8000;0.8710;0.7557;
-79.5000;0.8702;0.7487;
-79.2000;0.8718;0.7464;
-78.9000;0.8710;0.7417;
-78.6000;0.8726;0.7417;
-78.3000;0.8702;0.7347;
-78.0000;0.8685;0.7347;
-77.7000;0.8718;0.7464;
-77.4000;0.8718;0.7557;
-77.1000;0.8710;0.7534;
-76.8000;0.8718;0.7580;
-76.5000;0.8726;0.7650;
-76.2000;0.8710;0.7580;
-75.9000;0.8742;0.7650;
-75.6000;0.8718;0.7604;
-75.3000;0.8734;0.7604;
-75.0000;0.8734;0.7673;
-74.7000;0.8734;0.7743;
-74.4000;0.8734;0.7720;
-74.1000;0.8726;0.7697;
-73.8000;0.8694;0.7650;
-73.5000;0.8734;0.7673;
-73.2000;0.8726;0.7743;
-72.9000;0.8694;0.7720;
-72.6000;0.8734;0.7743;
-72.3000;0.8710;0.7720;
-72.0000;0.8710;0.7720;
-71.7000;0.8742;0.7720;
-71.4000;0.8718;0.7697;
-71.1000;0.8726;0.7720;
-70.8000;0.8718;0.7743;
-70.5000;0.8726;0.7860;
-70.2000;0.8759;0.7953;
-69.9000;0.8742;0.7930;
-69.6000;0.8751;0.7953;
-69.3000;0.8694;0.7720;
-69.0000;0.8759;0.7720;
-68.7000;0.8726;0.7720;
-68.4000;0.8742;0.7673;
-68.1000;0.8742;0.7510;
-67.8000;0.8742;0.7510;
-67.5000;0.8751;0.7510;
-67.2000;0.8759;0.7487;
-66.9000;0.8751;0.7440;
-66.6000;0.8742;0.7440;
-66.3000;0.8791;0.7673;
-66.0000;0.8734;0.7557;
-65.7000;0.8734;0.7534;
-65.4000;0.8726;0.7487;
-65.1000;0.8694;0.7370;
-64.8000;0.8742;0.7417;
-64.5000;0.8767;0.7440;
-64.2000;0.8767;0.7394;
-63.9000;0.8759;0.7347;
-63.6000;0.8783;0.7370;
-63.3000;0.8751;0.7324;
-63.0000;0.8742;0.7324;
-62.7000;0.8759;0.7254;
-62.4000;0.8759;0.7254;
-62.1000;0.8751;0.7184;
-61.8000;0.8824;0.7347;
-61.5000;0.8759;0.7184;
-61.2000;0.8751;0.7184;
-60.9000;0.8742;0.7184;
-60.6000;0.8759;0.7254;
-60.3000;0.8767;0.7324;
-60.0000;0.8759;0.7207;
-59.7000;0.8759;0.7347;
-59.4000;0.8751;0.7370;
-59.1000;0.8775;0.7394;
-58.8000;0.8767;0.7324;
-58.5000;0.8759;0.7324;
-58.2000;0.8767;0.7394;
-57.9000;0.8734;0.7324;
-57.6000;0.8742;0.7324;
-57.3000;0.8775;0.7417;
-57.0000;0.8775;0.7487;
-56.7000;0.8775;0.7394;
-56.4000;0.8775;0.7440;
-56.1000;0.8775;0.7510;
-55.8000;0.8767;0.7534;
-55.5000;0.8783;0.7580;
-55.2000;0.8791;0.7650;
-54.9000;0.8775;0.7650;
-54.6000;0.8767;0.7604;
-54.3000;0.8799;0.7627;
-54.0000;0.8759;0.7464;
-53.7000;0.8767;0.7534;
-53.4000;0.8775;0.7557;
-53.1000;0.8759;0.7440;
-52.8000;0.8799;0.7464;
-52.5000;0.8767;0.7464;
-52.2000;0.8767;0.7440;
-51.9000;0.8767;0.7370;
-51.6000;0.8783;0.7324;
-51.3000;0.8791;0.7347;
-51.0000;0.8783;0.7324;
-50.7000;0.8751;0.7254;
-50.4000;0.8734;0.7254;
-50.1000;0.8775;0.7394;
-49.8000;0.8791;0.7417;
-49.5000;0.8783;0.7417;
-49.2000;0.8775;0.7394;
-48.9000;0.8791;0.7417;
-48.6000;0.8783;0.7440;
-48.3000;0.8783;0.7417;
-48.0000;0.8783;0.7370;
-47.7000;0.8783;0.7394;
-47.4000;0.8783;0.7394;
-47.1000;0.8775;0.7440;
-46.8000;0.8807;0.7627;
-46.5000;0.8767;0.7604;
-46.2000;0.8807;0.7720;
-45.9000;0.8791;0.7720;
-45.6000;0.8783;0.7720;
-45.3000;0.8799;0.7697;
-45.0000;0.8799;0.7673;
-44.7000;0.8799;0.7627;
-44.4000;0.8775;0.7580;
-44.1000;0.8775;0.7557;
-43.8000;0.8783;0.7534;
-43.5000;0.8783;0.7534;
-43.2000;0.8775;0.7510;
-42.9000;0.8775;0.7487;
-42.6000;0.8775;0.7510;
-42.3000;0.8751;0.7464;
-42.0000;0.8775;0.7487;
-41.7000;0.8799;0.7557;
-41.4000;0.8791;0.7604;
-41.1000;0.8783;0.7650;
-40.8000;0.8775;0.7673;
-40.5000;0.8767;0.7604;
-40.2000;0.8775;0.7604;
-39.9000;0.8767;0.7604;
-39.6000;0.8783;0.7487;
-39.3000;0.8783;0.7464;
-39.0000;0.8791;0.7487;
-38.7000;0.8791;0.7510;
-38.4000;0.8807;0.7510;
-38.1000;0.8775;0.7440;
-37.8000;0.8791;0.7534;
-37.5000;0.8791;0.7510;
-37.2000;0.8783;0.7440;
-36.9000;0.8775;0.7440;
-36.6000;0.8775;0.7417;
-36.3000;0.8799;0.7440;
-36.0000;0.8791;0.7510;
-35.7000;0.8791;0.7557;
-35.4000;0.8783;0.7557;
-35.1000;0.8840;0.7534;
-34.8000;0.8775;0.7370;
-34.5000;0.8791;0.7417;
-34.2000;0.8791;0.7370;
-33.9000;0.8783;0.7440;
-33.6000;0.8710;0.7207;
-33.3000;0.8783;0.7417;
-33.0000;0.8791;0.7557;
-32.7000;0.8759;0.7557;
-32.4000;0.8807;0.7697;
-32.1000;0.8775;0.7557;
-31.8000;0.8775;0.7440;
-31.5000;0.8791;0.7324;
-31.2000;0.8799;0.7370;
-30.9000;0.8799;0.7324;
-30.6000;0.8767;0.7254;
-30.3000;0.8783;0.7394;
-30.0000;0.8889;0.7767;
-29.7000;0.8807;0.7627;
-29.4000;0.8881;0.7860;
-29.1000;0.8751;0.7534;
-28.8000;0.8783;0.7604;
-28.5000;0.8832;0.7743;
-28.2000;0.8783;0.7627;
-27.9000;0.8832;0.7813;
-27.6000;0.8816;0.7790;
-27.3000;0.8791;0.7673;
-27.0000;0.8767;0.7557;
-26.7000;0.8775;0.7487;
-26.4000;0.8726;0.7370;
-26.1000;0.8791;0.7534;
-25.8000;0.8791;0.7580;
-25.5000;0.8807;0.7650;
-25.2000;0.8791;0.7604;
-24.9000;0.8807;0.7627;
-24.6000;0.8816;0.7604;
-24.3000;0.8783;0.7580;
-24.0000;0.8775;0.7510;
-23.7000;0.8783;0.7534;
-23.4000;0.8775;0.7580;
-23.1000;0.8783;0.7557;
-22.8000;0.8783;0.7580;
-22.5000;0.8775;0.7580;
-22.2000;0.8783;0.7650;
-21.9000;0.8816;0.7580;
-21.6000;0.8816;0.7673;
-21.3000;0.8807;0.7673;
-21.0000;0.8807;0.7557;
-20.7000;0.8824;0.7557;
-20.4000;0.8816;0.7580;
-20.1000;0.8791;0.7580;
-19.8000;0.8783;0.7580;
-19.5000;0.8807;0.7743;
-19.2000;0.8783;0.7720;
-18.9000;0.8783;0.7650;
-18.6000;0.8767;0.7697;
-18.3000;0.8791;0.7743;
-18.0000;0.8775;0.7790;
-17.7000;0.8783;0.7743;
-17.4000;0.8775;0.7697;
-17.1000;0.8783;0.7697;
-16.8000;0.8799;0.7650;
-16.5000;0.8783;0.7650;
-16.2000;0.8799;0.7697;
-15.9000;0.8791;0.7627;
-15.6000;0.8767;0.7557;
-15.3000;0.8848;0.7790;
-15.0000;0.8799;0.7604;
-14.7000;0.8767;0.7580;
-14.4000;0.8759;0.7604;
-14.1000;0.8791;0.7697;
-13.8000;0.8775;0.7627;
-13.5000;0.8864;0.7860;
-13.2000;0.8816;0.7790;
-12.9000;0.8783;0.7673;
-12.6000;0.8832;0.7767;
-12.3000;0.8759;0.7604;
-12.0000;0.8799;0.7767;
-11.7000;0.8848;0.7790;
-11.4000;0.8799;0.7720;
-11.1000;0.8685;0.7487;
-10.8000;0.8767;0.7557;
-10.5000;0.8759;0.7557;
-10.2000;0.8816;0.7673;
-9.9000;0.8824;0.7650;
-9.6000;0.8799;0.7604;
-9.3000;0.8799;0.7604;
-9.0000;0.8718;0.7557;
-8.7000;0.8775;0.7697;
-8.4000;0.8791;0.7720;
-8.1000;0.8791;0.7697;
-7.8000;0.8775;0.7627;
-7.5000;0.8767;0.7557;
-7.2000;0.8767;0.7627;
-6.9000;0.8775;0.7604;
-6.6000;0.8775;0.7650;
-6.3000;0.8775;0.7673;
-6.0000;0.8962;0.7977;
-5.7000;0.8775;0.7557;
-5.4000;0.8824;0.7767;
-5.1000;0.8751;0.7627;
-4.8000;0.8767;0.7697;
-4.5000;0.8759;0.7743;
-4.2000;0.8767;0.7673;
-3.9000;0.8702;0.7440;
-3.6000;0.8816;0.7720;
-3.3000;0.8791;0.7697;
-3.0000;0.8881;0.7907;
-2.7000;0.8783;0.7604;
-2.4000;0.8767;0.7534;
-2.1000;0.8767;0.7510;
-1.8000;0.8791;0.7604;
-1.5000;0.8751;0.7557;
-1.2000;0.8775;0.7673;
-0.9000;0.8767;0.7720;
-0.6000;0.8791;0.7743;
-0.3000;0.8816;0.7767;
0.0000;0.8816;0.7767;
0.3000;0.8938;0.7697;
0.6000;0.9231;0.8023;
0.9000;0.9459;0.8140;
1.2000;0.9654;0.8443;
1.5000;0.9809;0.8560;
1.8000;0.9931;0.8676;
2.1000;1.0020;0.8723;
2.4000;1.0094;0.8770;
2.7000;1.0175;0.8933;
3.0000;1.0216;0.8886;
3.3000;1.0240;0.8910;
3.6000;1.0346;0.9050;
3.9000;1.0370;0.9096;
4.2000;1.0379;0.9213;
4.5000;1.0452;0.9306;
4.8000;1.0460;0.9260;
5.1000;1.0533;0.9423;
5.4000;1.0501;0.9306;
5.7000;1.0484;0.9329;
6.0000;1.0468;0.9190;
6.3000;1.0533;0.9283;
6.6000;1.0541;0.9190;
6.9000;1.0533;0.9166;
7.2000;1.0541;0.9213;
7.5000;1.0549;0.9260;
7.8000;1.0541;0.9260;
8.1000;1.0574;0.9353;
8.4000;1.0558;0.9353;
8.7000;1.0590;0.9376;
9.0000;1.0606;0.9423;
9.3000;1.0623;0.9563;
9.6000;1.0598;0.9656;
9.9000;1.0631;0.9586;
10.2000;1.0639;0.9563;
10.5000;1.0590;0.9423;
10.8000;1.0647;0.9469;
11.1000;1.0647;0.9399;
11.4000;1.0704;0.9493;
11.7000;1.0639;0.9260;
12.0000;1.0639;0.9306;
12.3000;1.0606;0.9166;
12.6000;1.0598;0.9236;
12.9000;1.0663;0.9353;
13.2000;1.0655;0.9423;
13.5000;1.0680;0.9539;
13.8000;1.0647;0.9446;
14.1000;1.0680;0.9493;
14.4000;1.0655;0.9446;
14.7000;1.0663;0.9446;
15.0000;1.0623;0.9283;
15.3000;1.0696;0.9399;
15.6000;1.0688;0.9446;
15.9000;1.0696;0.9446;
16.2000;1.0688;0.9399;
16.5000;1.0704;0.9353;
16.8000;1.0712;0.9376;
17.1000;1.0680;0.9306;
17.4000;1.0712;0.9376;
17.7000;1.0712;0.9306;
18.0000;1.0696;0.9306;
18.3000;1.0712;0.9283;
18.6000;1.0704;0.9353;
18.9000;1.0712;0.9423;
19.2000;1.0704;0.9493;
19.5000;1.0696;0.9469;
19.8000;1.0696;0.9493;
20.1000;1.0712;0.9493;
20.4000;1.0729;0.9493;
20.7000;1.0712;0.9469;
21.0000;1.0729;0.9469;
21.3000;1.0745;0.9469;
21.6000;1.0729;0.9446;
21.9000;1.0729;0.9399;
22.2000;1.0729;0.9399;
22.5000;1.0720;0.9376;
22.8000;1.0745;0.9493;
23.1000;1.0712;0.9469;
23.4000;1.0737;0.9586;
23.7000;1.0745;0.9563;
24.0000;1.0745;0.9469;
24.3000;1.0737;0.9446;
24.6000;1.0720;0.9423;
24.9000;1.0712;0.9423;
25.2000;1.0761;0.9493;
25.5000;1.0761;0.9306;
25.8000;1.0769;0.9329;
26.1000;1.0761;0.9306;
26.4000;1.0745;0.9283;
26.7000;1.0761;0.9399;
27.0000;1.0753;0.9469;
27.3000;1.0745;0.9446;
27.6000;1.0761;0.9446;
27.9000;1.0753;0.9376;
28.2000;1.0753;0.9236;
28.5000;1.0737;0.9213;
28.8000;1.0745;0.9213;
29.1000;1.0761;0.9236;
29.4000;1.0786;0.9329;
29.7000;1.0777;0.9283;
30.0000;1.0753;0.9306;
30.3000;1.0769;0.9329;
30.6000;1.0777;0.9260;
30.9000;1.0777;0.9260;
31.2000;1.0753;0.9260;
31.5000;1.0794;0.9329;
31.8000;1.0769;0.9236;
32.1000;1.0688;0.9050;
32.4000;1.0720;0.8933;
32.7000;1.0769;0.9096;
33.0000;1.0769;0.9096;
33.3000;1.0802;0.9236;
33.6000;1.0810;0.9283;
33.9000;1.0786;0.9143;
34.2000;1.0777;0.9213;
34.5000;1.0875;0.9469;
34.8000;1.0777;0.9260;
35.1000;1.0777;0.9236;
35.4000;1.0794;0.9143;
35.7000;1.0786;0.9143;
36.0000;1.0794;0.9306;
36.3000;1.0794;0.9306;
36.6000;1.0794;0.9306;
36.9000;1.0794;0.9329;
37.2000;1.0810;0.9306;
37.5000;1.0786;0.9260;
37.8000;1.0794;0.9236;
38.1000;1.0810;0.9283;
38.4000;1.0802;0.9236;
38.7000;1.0810;0.9283;
39.0000;1.0769;0.9120;
39.3000;1.0794;0.9190;
39.6000;1.0802;0.9306;
39.9000;1.0802;0.9283;
40.2000;1.0777;0.9236;
40.5000;1.0810;0.9376;
40.8000;1.0818;0.9353;
41.1000;1.0810;0.9260;
41.4000;1.0810;0.9190;
41.7000;1.0794;0.9166;
42.0000;1.0802;0.9260;
42.3000;1.0802;0.9236;
42.6000;1.0794;0.9190;
42.9000;1.0794;0.9166;
43.2000;1.0802;0.9260;
43.5000;1.0802;0.9329;
43.8000;1.0802;0.9376;
44.1000;1.0899;0.9656;
44.4000;1.0802;0.9446;
44.7000;1.0802;0.9469;
45.0000;1.0810;0.9399;
45.3000;1.0818;0.9376;
45.6000;1.0810;0.9376;
45.9000;1.0826;0.9423;
46.2000;1.0818;0.9423;
46.5000;1.0818;0.9493;
46.8000;1.0802;0.9399;
47.1000;1.0802;0.9306;
47.4000;1.0826;0.9306;
47.7000;1.0826;0.9329;
48.0000;1.0818;0.9306;
48.3000;1.0842;0.9376;
48.6000;1.0810;0.9260;
48.9000;1.0818;0.9306;
49.2000;1.0802;0.9306;
49.5000;1.0810;0.9306;
49.8000;1.0794;0.9306;
50.1000;1.0834;0.9353;
50.4000;1.0818;0.9399;
50.7000;1.0777;0.9376;
51.0000;1.0826;0.9399;
51.3000;1.0818;0.9423;
51.6000;1.0810;0.9376;
51.9000;1.0786;0.9329;
52.2000;1.0818;0.9399;
52.5000;1.0834;0.9353;
52.8000;1.0810;0.9399;
53.1000;1.0818;0.9446;
53.4000;1.0891;0.9633;
53.7000;1.0818;0.9446;
54.0000;1.0842;0.9469;
54.3000;1.0826;0.9376;
54.6000;1.0818;0.9376;
54.9000;1.0810;0.9399;
55.2000;1.0818;0.9469;
55.5000;1.0794;0.9376;
55.8000;1.0810;0.9399;
56.1000;1.0851;0.9469;
56.4000;1.0818;0.9423;
56.7000;1.0818;0.9446;
57.0000;1.0851;0.9493;
57.3000;1.0802;0.9446;
57.6000;1.0834;0.9376;
57.9000;1.0818;0.9399;
58.2000;1.0810;0.9376;
58.5000;1.0842;0.9399;
58.8000;1.0834;0.9399;
59.1000;1.0826;0.9353;
59.4000;1.0826;0.9399;
59.7000;1.0834;0.9399;
60.0000;1.0826;0.9423;
60.3000;1.0826;0.9446;
60.6000;1.0818;0.9329;
60.9000;1.0810;0.9306;
61.2000;1.0891;0.9493;
61.5000;1.0842;0.9423;
61.8000;1.0777;0.9306;
62.1000;1.0826;0.9469;
62.4000;1.0777;0.9399;
62.7000;1.0842;0.9469;
63.0000;1.0826;0.9353;
63.3000;1.0794;0.9376;
63.6000;1.0826;0.9423;
63.9000;1.0818;0.9353;
64.2000;1.0818;0.9423;
64.5000;1.0826;0.9516;
64.8000;1.0826;0.9469;
65.1000;1.0842;0.9563;
65.4000;1.0834;0.9539;
65.7000;1.0810;0.9516;
66.0000;1.0810;0.9446;
66.3000;1.0826;0.9469;
66.6000;1.0810;0.9493;
66.9000;1.0842;0.9539;
67.2000;1.0769;0.9306;
67.5000;1.0834;0.9469;
67.8000;1.0834;0.9586;
68.1000;1.0826;0.9633;
68.4000;1.0826;0.9656;
68.7000;1.0842;0.9633;
69.0000;1.0834;0.9656;
69.3000;1.0826;0.9633;
69.6000;1.0834;0.9539;
69.9000;1.0842;0.9493;
70.2000;1.0826;0.9586;
70.5000;1.0826;0.9656;
70.8000;1.0810;0.9493;
71.1000;1.0826;0.9423;
71.4000;1.0826;0.9399;
71.7000;1.0818;0.9353;
72.0000;1.0826;0.9329;
72.3000;1.0818;0.9260;
72.6000;1.0842;0.9260;
72.9000;1.0842;0.9376;
73.2000;1.0834;0.9446;
73.5000;1.0834;0.9516;
73.8000;1.0842;0.9446;
74.1000;1.0826;0.9306;
74.4000;1.0834;0.9423;
74.7000;1.0842;0.9493;
75.0000;1.0810;0.9399;
75.3000;1.0826;0.9446;
75.6000;1.0834;0.9469;
75.9000;1.0826;0.9469;
76.2000;1.0745;0.9353;
76.5000;1.0826;0.9539;
76.8000;1.0826;0.9469;
77.1000;1.0842;0.9423;
77.4000;1.0753;0.9260;
77.7000;1.0810;0.9376;
78.0000;1.0818;0.9329;
78.3000;1.0842;0.9306;
78.6000;1.0834;0.9423;
78.9000;1.0842;0.9469;
79.2000;1.0859;0.9493;
79.5000;1.0777;0.9353;
79.8000;1.0818;0.9516;
80.1000;1.0826;0.9516;
80.4000;1.0924;0.9633;
80.7000;1.0818;0.9353;
81.0000;1.0826;0.9260;
81.3000;1.0810;0.9143;
81.6000;1.0834;0.9283;
81.9000;1.0851;0.9329;
82.2000;1.0826;0.9260;
82.5000;1.0802;0.9213;
82.8000;1.0826;0.9329;
83.1000;1.0834;0.9283;
83.4000;1.0842;0.9376;
83.7000;1.0842;0.9399;
84.0000;1.0794;0.9329;
84.3000;1.0842;0.9399;
84.6000;1.0834;0.9423;
84.9000;1.0842;0.9376;
85.2000;1.0810;0.9353;
85.5000;1.0786;0.9353;
85.8000;1.0883;0.9586;
86.1000;1.0777;0.9353;
86.4000;1.0818;0.9376;
86.7000;1.0826;0.9469;
87.0000;1.0834;0.9399;
87.3000;1.0802;0.9236;
87.6000;1.0818;0.9353;
87.9000;1.0826;0.9329;
88.2000;1.0842;0.9376;
88.5000;1.0834;0.9376;
88.8000;1.0810;0.9329;
89.1000;1.0875;0.9493;
89.4000;1.0834;0.9329;
89.7000;1.0842;0.9353;
90.0000;1.0826;0.9306;
90.3000;1.0818;0.9283;
90.6000;1.0842;0.9353;
90.9000;1.0834;0.9376;
91.2000;1.0826;0.9353;
91.5000;1.0842;0.9376;
91.8000;1.0826;0.9329;
92.1000;1.0834;0.9376;
92.4000;1.0826;0.9306;
92.7000;1.0818;0.9306;
93.0000;1.0834;0.9399;
93.3000;1.0851;0.9446;
93.6000;1.0851;0.9493;
93.9000;1.0818;0.9399;
94.2000;1.0834;0.9469;
94.5000;1.0834;0.9469;
94.8000;1.0794;0.9353;
95.1000;1.0810;0.9423;
95.4000;1.0826;0.9469;
95.7000;1.0826;0.9469;
96.0000;1.0834;0.9539;
96.3000;1.0810;0.9353;
96.6000;1.0802;0.9283;
96.9000;1.0851;0.9329;
97.2000;1.0859;0.9376;
97.5000;1.0859;0.9446;
97.8000;1.0818;0.9353;
98.1000;1.0818;0.9260;
98.4000;1.0834;0.9376;
98.7000;1.0826;0.9376;
99.0000;1.0818;0.9423;
99.3000;1.0826;0.9399;
99.6000;1.0826;0.9376;
99.9000;1.0842;0.9353;
100.2000;1.0834;0.9283;
100.5000;1.0826;0.9283;
100.8000;1.0826;0.9423;
101.1000;1.0834;0.9516;
101.4000;1.0737;0.9306;
101.7000;1.0826;0.9493;
102.0000;1.0826;0.9516;
102.3000;1.0875;0.9539;
102.6000;1.0826;0.9493;
102.9000;1.0842;0.9563;
103.2000;1.0826;0.9423;
103.5000;1.0802;0.9399;
103.8000;1.0834;0.9376;
104.1000;1.0818;0.9376;
104.4000;1.0802;0.9306;
104.7000;1.0794;0.9329;
105.0000;1.0834;0.9353;
105.3000;1.0802;0.9283;
105.6000;1.0826;0.9376;
105.9000;1.0818;0.9329;
106.2000;1.0834;0.9516;
106.5000;1.0826;0.9469;
106.8000;1.0826;0.9469;
107.1000;1.0769;0.9306;
107.4000;1.0818;0.9446;
107.7000;1.0818;0.9469;
108.0000;1.0851;0.9493;
108.3000;1.0818;0.9423;
108.6000;1.0826;0.9423;
108.9000;1.0826;0.9469;
109.2000;1.0826;0.9469;
109.5000;1.0777;0.9329;
109.8000;1.0777;0.9190;
110.1000;1.0826;0.9166;
110.4000;1.0818;0.9213;
110.7000;1.0810;0.9166;
111.0000;1.0818;0.9190;
111.3000;1.0818;0.9213;
111.6000;1.0802;0.9236;
111.9000;1.0794;0.9213;
112.2000;1.0826;0.9260;
112.5000;1.0834;0.9306;
112.8000;1.0826;0.9306;
113.1000;1.0842;0.9306;
113.4000;1.0810;0.9283;
113.7000;1.0810;0.9190;
114.0000;1.0834;0.9143;
114.3000;1.0834;0.9120;
114.6000;1.0826;0.9236;
114.9000;1.0834;0.9283;
115.2000;1.0826;0.9260;
115.5000;1.0834;0.9353;
115.8000;1.0826;0.9376;
116.1000;1.0826;0.9446;
116.4000;1.0818;0.9539;
116.7000;1.0834;0.9516;
117.0000;1.0834;0.9516;
117.3000;1.0875;0.9516;
117.6000;1.0834;0.9423;
117.9000;1.0834;0.9423;
118.2000;1.0818;0.9283;
118.5000;1.0867;0.9493;
118.8000;1.0826;0.9353;
119.1000;1.0818;0.9376;
119.4000;1.0842;0.9329;
119.7000;1.0875;0.9376;
120.0000;1.0818;0.9260;
120.3000;1.0859;0.9283;
120.6000;1.0818;0.9213;
120.9000;1.0810;0.9283;
121.2000;1.0842;0.9399;
121.5000;1.0802;0.9236;
121.8000;1.0818;0.9283;
122.1000;1.0818;0.9353;
122.4000;1.0826;0.9376;
122.7000;1.0818;0.9399;
123.0000;1.0810;0.9306;
123.3000;1.0834;0.9353;
123.6000;1.0818;0.9283;
123.9000;1.0859;0.9353;
124.2000;1.0818;0.9260;
124.5000;1.0826;0.9213;
124.8000;1.0818;0.9260;
125.1000;1.0810;0.9376;
125.4000;1.0818;0.9376;
125.7000;1.0818;0.9353;
126.0000;1.0834;0.9399;
126.3000;1.0810;0.9353;
126.6000;1.0834;0.9446;
126.9000;1.0826;0.9446;
127.2000;1.0802;0.9493;
127.5000;1.0867;0.9633;
127.8000;1.0826;0.9516;
128.1000;1.0842;0.9469;
128.4000;1.0761;0.9260;
128.7000;1.0786;0.9376;
129.0000;1.0794;0.9399;
129.3000;1.0810;0.9493;
129.6000;1.0810;0.9516;
129.9000;1.0810;0.9446;
130.2000;1.0842;0.9399;
130.5000;1.0810;0.9329;
130.8000;1.0794;0.9329;
131.1000;1.0802;0.9329;
131.4000;1.0802;0.9329;
131.7000;1.0818;0.9353;
132.0000;1.0859;0.9399;
132.3000;1.0826;0.9306;
132.6000;1.0818;0.9260;
132.9000;1.0802;0.9236;
133.2000;1.0826;0.9190;
133.5000;1.0818;0.9166;
133.8000;1.0818;0.9213;
134.1000;1.0786;0.9190;
134.4000;1.0810;0.9190;
134.7000;1.0810;0.9213;
135.0000;1.0851;0.9306;
135.3000;1.0810;0.9260;
135.6000;1.0810;0.9260;
135.9000;1.0810;0.9236;
136.2000;1.0810;0.9166;
136.5000;1.0826;0.9213;
136.8000;1.0810;0.9283;
137.1000;1.0826;0.9329;
137.4000;1.0802;0.9329;
137.7000;1.0802;0.9423;
138.0000;1.0802;0.9423;
138.3000;1.0777;0.9353;
138.6000;1.0786;0.9446;
138.9000;1.0802;0.9563;
139.2000;1.0810;0.9609;
139.5000;1.0826;0.9633;
139.8000;1.0834;0.9656;
140.1000;1.0818;0.9586;
140.4000;1.0769;0.9399;
140.7000;1.0810;0.9446;
141.0000;1.0810;0.9423;
141.3000;1.0777;0.9353;
141.6000;1.0802;0.9423;
141.9000;1.0818;0.9423;
142.2000;1.0916;0.9656;
142.5000;1.0794;0.9353;
142.8000;1.0826;0.9399;
143.1000;1.0834;0.9446;
143.4000;1.0810;0.9353;
143.7000;1.0737;0.9236;
144.0000;1.0810;0.9516;
144.3000;1.0810;0.9493;
144.6000;1.0818;0.9516;
144.9000;1.0834;0.9516;
145.2000;1.0802;0.9423;
145.5000;1.0810;0.9376;
145.8000;1.0704;0.9096;
146.1000;1.0810;0.9306;
146.4000;1.0794;0.9283;
146.7000;1.0810;0.9306;
147.0000;1.0810;0.9283;
147.3000;1.0761;0.9236;
147.6000;1.0826;0.9399;
147.9000;1.0810;0.9399;
148.2000;1.0842;0.9423;
148.5000;1.0769;0.9423;
148.8000;1.0802;0.9633;
149.1000;1.0826;0.9656;
149.4000;1.0794;0.9539;
149.7000;1.0818;0.9586;
150.0000;1.0802;0.9493;
150.3000;1.0794;0.9516;
150.6000;1.0753;0.9469;
150.9000;1.0810;0.9516;
151.2000;1.0810;0.9376;
151.5000;1.0802;0.9306;
151.8000;1.0786;0.9329;
152.1000;1.0826;0.9469;
152.4000;1.0834;0.9446;
152.7000;1.0802;0.9353;
153.0000;1.0810;0.9423;
153.3000;1.0810;0.9446;
153.6000;1.0810;0.9423;
153.9000;1.0810;0.9446;
154.2000;1.0794;0.9399;
154.5000;1.0794;0.9376;
154.8000;1.0786;0.9423;
155.1000;1.0769;0.9329;
155.4000;1.0777;0.9469;
155.7000;1.0786;0.9446;
156.0000;1.0802;0.9469;
156.3000;1.0802;0.9469;
156.6000;1.0786;0.9423;
156.9000;1.0794;0.9376;
157.2000;1.0802;0.9423;
157.5000;1.0802;0.9516;
157.8000;1.0794;0.9493;
158.1000;1.0794;0.9493;
158.4000;1.0794;0.9539;
158.7000;1.0802;0.9656;
159.0000;1.0794;0.9586;
159.3000;1.0786;0.9563;
159.6000;1.0802;0.9633;
159.9000;1.0818;0.9539;
160.2000;1.0786;0.9516;
160.5000;1.0810;0.9563;
160.8000;1.0810;0.9516;
161.1000;1.0826;0.9609;
161.4000;1.0834;0.9679;
161.7000;1.0810;0.9703;
162.0000;1.0802;0.9679;
162.3000;1.0818;0.9656;
162.6000;1.0826;0.9563;
162.9000;1.0834;0.9679;
163.2000;1.0851;0.9656;
163.5000;1.0818;0.9609;
163.8000;1.0842;0.9633;
164.1000;1.0810;0.9446;
164.4000;1.0802;0.9423;
164.7000;1.0777;0.9446;
165.0000;1.0794;0.9516;
165.3000;1.0786;0.9516;
165.6000;1.0769;0.9633;
165.9000;1.0737;0.9469;
166.2000;1.0834;0.9679;
166.5000;1.0794;0.9516;
166.8000;1.0834;0.9586;
167.1000;1.0786;0.9493;
167.4000;1.0761;0.9446;
167.7000;1.0802;0.9539;
168.0000;1.0810;0.9493;
168.3000;1.0826;0.9516;
168.6000;1.0753;0.9329;
168.9000;1.0786;0.9493;
169.2000;1.0802;0.9493;
169.5000;1.0810;0.9539;
169.8000;1.0810;0.9516;
170.1000;1.0932;0.9773;
170.4000;1.0810;0.9516;
170.7000;1.0810;0.9539;
171.0000;1.0802;0.9586;
171.3000;1.0672;0.9329;
171.6000;1.0818;0.9656;
171.9000;1.0826;0.9703;
172.2000;1.0802;0.9633;
172.5000;1.0818;0.9609;
172.8000;1.0810;0.9609;
173.1000;1.0802;0.9586;
173.4000;1.0802;0.9539;
173.7000;1.0802;0.9493;
174.0000;1.0810;0.9446;
174.3000;1.0794;0.9399;
174.6000;1.0826;0.9353;
174.9000;1.0786;0.9213;
175.2000;1.0794;0.9283;
175.5000;1.0818;0.9306;
175.8000;1.0810;0.9283;
176.1000;1.0810;0.9260;
176.4000;1.0810;0.9283;
176.7000;1.0802;0.9376;
177.0000;1.0818;0.9376;
177.3000;1.0737;0.9213;
177.6000;1.0810;0.9539;
177.9000;1.0777;0.9446;
178.2000;1.0810;0.9516;
178.5000;1.0777;0.9446;
178.8000;1.0802;0.9469;
179.1000;1.0818;0.9469;
179.4000;1.0810;0.9399;
179.7000;1.0802;0.9353;
180.0000;1.0745;0.9166;
180.3000;1.0777;0.9283;
180.6000;1.0794;0.9399;
180.9000;1.0786;0.9423;
181.2000;1.0761;0.9260;
181.5000;1.0802;0.9329;
181.8000;1.0786;0.9376;
182.1000;1.0786;0.9399;
182.4000;1.0769;0.9423;
182.7000;1.0761;0.9469;
183.0000;1.0777;0.9609;
183.3000;1.0777;0.9633;
183.6000;1.0777;0.9633;
183.9000;1.0802;0.9656;
184.2000;1.0802;0.9586;
184.5000;1.0802;0.9493;
184.8000;1.0802;0.9563;
185.1000;1.0802;0.9469;
185.4000;1.0786;0.9376;
185.7000;1.0826;0.9493;
186.0000;1.0802;0.9469;
186.3000;1.0802;0.9563;
186.6000;1.0810;0.9563;
186.9000;1.0802;0.9563;
187.2000;1.0777;0.9563;
187.5000;1.0794;0.9586;
187.8000;1.0794;0.9633;
188.1000;1.0794;0.9633;
188.4000;1.0786;0.9633;
188.7000;1.0777;0.9586;
189.0000;1.0777;0.9469;
189.3000;1.0777;0.9539;
189.6000;1.0818;0.9563;
189.9000;1.0834;0.9609;
190.2000;1.0786;0.9399;
190.5000;1.0753;0.9353;
190.8000;1.0810;0.9446;
191.1000;1.0786;0.9376;
191.4000;1.0794;0.9283;
191.7000;1.0794;0.9283;
192.0000;1.0777;0.9260;
192.3000;1.0826;0.9469;
192.6000;1.0786;0.9469;
192.9000;1.0761;0.9423;
193.2000;1.0794;0.9493;
193.5000;1.0786;0.9423;
193.8000;1.0777;0.9353;
194.1000;1.0777;0.9260;
194.4000;1.0802;0.9329;
194.7000;1.0802;0.9329;
195.0000;1.0786;0.9260;
195.3000;1.0777;0.9283;
195.6000;1.0794;0.9353;
195.9000;1.0786;0.9306;
196.2000;1.0786;0.9353;
196.5000;1.0777;0.9329;
196.8000;1.0786;0.9353;
197.1000;1.0786;0.9469;
197.4000;1.0769;0.9399;
197.7000;1.0761;0.9376;
198.0000;1.0761;0.9376;
198.3000;1.0769;0.9423;
198.6000;1.0777;0.9469;
198.9000;1.0769;0.9493;
199.2000;1.0794;0.9516;
199.5000;1.0794;0.9493;
199.8000;1.0777;0.9446;
200.1000;1.0794;0.9516;
200.4000;1.0794;0.9469;
200.7000;1.0777;0.9469;
201.0000;1.0761;0.9516;
201.3000;1.0720;0.9469;
201.6000;1.0769;0.9609;
201.9000;1.0802;0.9749;
202.2000;1.0777;0.9656;
202.5000;1.0786;0.9819;
202.8000;1.0818;0.9889;
203.1000;1.0777;0.9773;
203.4000;1.0777;0.9726;
203.7000;1.0794;0.9679;
204.0000;1.0753;0.9516;
204.3000;1.0745;0.9563;
204.6000;1.0794;0.9679;
204.9000;1.0786;0.9633;
205.2000;1.0810;0.9633;
205.5000;1.0786;0.9586;
205.8000;1.0745;0.9516;
206.1000;1.0786;0.9609;
206.4000;1.0786;0.9563;
206.7000;1.0777;0.9516;
207.0000;1.0802;0.9539;
207.3000;1.0786;0.9633;
207.6000;1.0810;0.9703;
207.9000;1.0777;0.9703;
208.2000;1.0777;0.9656;
208.5000;1.0777;0.9586;
208.8000;1.0794;0.9586;
209.1000;1.0786;0.9563;
209.4000;1.0794;0.9563;
209.7000;1.0777;0.9563;
210.0000;1.0810;0.9679;
210.3000;1.0786;0.9749;
210.6000;1.0786;0.9609;
210.9000;1.0794;0.9633;
211.2000;1.0786;0.9586;
211.5000;1.0777;0.9586;
211.8000;1.0786;0.9539;
212.1000;1.0802;0.9586;
212.4000;1.0777;0.9493;
212.7000;1.0794;0.9539;
213.0000;1.0786;0.9563;
213.3000;1.0802;0.9633;
213.6000;1.0761;0.9609;
213.9000;1.0786;0.9749;
214.2000;1.0786;0.9796;
214.5000;1.0761;0.9679;
214.8000;1.0794;0.9656;
215.1000;1.0891;0.9866;
215.4000;1.0826;0.9726;
215.7000;1.0794;0.9656;
216.0000;1.0794;0.9656;
216.3000;1.0794;0.9749;
216.6000;1.0802;0.9796;
216.9000;1.0810;0.9726;
217.2000;1.0810;0.9773;
217.5000;1.0769;0.9609;
217.8000;1.0794;0.9656;
218.1000;1.0794;0.9656;
218.4000;1.0753;0.9679;
218.7000;1.0794;0.9819;
219.0000;1.0769;0.9749;
219.3000;1.0769;0.9773;
219.6000;1.0769;0.9679;
219.9000;1.0802;0.9679;
220.2000;1.0786;0.9609;
220.5000;1.0851;0.9679;
220.8000;1.0794;0.9656;
221.1000;1.0786;0.9609;
221.4000;1.0786;0.9703;
221.7000;1.0786;0.9773;
222.0000;1.0769;0.9749;
222.3000;1.0712;0.9493;
222.6000;1.0794;0.9609;
222.9000;1.0834;0.9703;
223.2000;1.0794;0.9749;
223.5000;1.0729;0.9703;
223.8000;1.0769;0.9796;
224.1000;1.0802;0.9843;
224.4000;1.0769;0.9656;
224.7000;1.0851;0.9773;
225.0000;1.0794;0.9749;
225.3000;1.0802;0.9819;
225.6000;1.0794;0.9889;
225.9000;1.0769;0.9819;
226.2000;1.0777;0.9819;
226.5000;1.0769;0.9749;
226.8000;1.0745;0.9703;
227.1000;1.0769;0.9773;
227.4000;1.0745;0.9819;
227.7000;1.0761;0.9796;
228.0000;1.0769;0.9773;
228.3000;1.0769;0.9749;
228.6000;1.0753;0.9703;
228.9000;1.0761;0.9679;
229.2000;1.0777;0.9726;
229.5000;1.0769;0.9703;
229.8000;1.0769;0.9749;
230.1000;1.0745;0.9773;
230.4000;1.0769;0.9889;
230.7000;1.0769;0.9866;
231.0000;1.0769;0.9889;
231.3000;1.0794;0.9983;
231.6000;1.0777;0.9983;
231.9000;1.0794;0.9959;
232.2000;1.0769;0.9866;
232.5000;1.0753;0.9749;
232.8000;1.0777;0.9866;
233.1000;1.0786;0.9889;
233.4000;1.0769;0.9913;
233.7000;1.0786;0.9889;
234.0000;1.0786;0.9866;
234.3000;1.0802;0.9983;
234.6000;1.0794;1.0029;
234.9000;1.0761;0.9983;
235.2000;1.0769;0.9913;
235.5000;1.0761;0.9889;
235.8000;1.0786;0.9936;
236.1000;1.0753;0.9843;
236.4000;1.0769;0.9936;
236.7000;1.0761;0.9866;
237.0000;1.0802;0.9866;
237.3000;1.0745;0.9773;
237.6000;1.0777;0.9796;
237.9000;1.0794;0.9913;
238.2000;1.0761;0.9843;
238.5000;1.0761;0.9913;
238.8000;1.0688;0.9796;
239.1000;1.0753;0.9866;
239.4000;1.0794;0.9843;
239.7000;1.0777;0.9773;
240.0000;1.0777;0.9773;
240.3000;1.0761;0.9773;
240.6000;1.0794;0.9843;
240.9000;1.0794;0.9679;
241.2000;1.0769;0.9586;
241.5000;1.0777;0.9539;
241.8000;1.0777;0.9516;
242.1000;1.0777;0.9539;
242.4000;1.0769;0.9563;
242.7000;1.0786;0.9586;
243.0000;1.0794;0.9586;
243.3000;1.0761;0.9633;
243.6000;1.0875;0.9959;
243.9000;1.0777;0.9749;
244.2000;1.0761;0.9679;
244.5000;1.0729;0.9633;
244.8000;1.0777;0.9703;
245.1000;1.0834;0.9819;
245.4000;1.0769;0.9726;
245.7000;1.0745;0.9679;
246.0000;1.0810;0.9726;
246.3000;1.0769;0.9539;
246.6000;1.0720;0.9493;
246.9000;1.0794;0.9563;
247.2000;1.0794;0.9539;
247.5000;1.0794;0.9633;
247.8000;1.0761;0.9609;
248.1000;1.0753;0.9656;
248.4000;1.0777;0.9679;
248.7000;1.0745;0.9539;
249.0000;1.0737;0.9516;
249.3000;1.0761;0.9539;
249.6000;1.0753;0.9493;
249.9000;1.0769;0.9633;
250.2000;1.0761;0.9656;
250.5000;1.0761;0.9773;
250.8000;1.0769;0.9796;
251.1000;1.0761;0.9726;
251.4000;1.0753;0.9749;
251.7000;1.0761;0.9726;
252.0000;1.0753;0.9609;
252.3000;1.0777;0.9656;
252.6000;1.0769;0.9609;
252.9000;1.0810;0.9609;
253.2000;1.0769;0.9563;
253.5000;1.0769;0.9726;
253.8000;1.0761;0.9703;
254.1000;1.0753;0.9609;
254.4000;1.0745;0.9563;
254.7000;1.0761;0.9586;
255.0000;1.0883;0.9889;
255.3000;1.0769;0.9703;
255.6000;1.0745;0.9679;
255.9000;1.0802;0.9773;
256.2000;1.0786;0.9749;
256.5000;1.0737;0.9656;
256.8000;1.0777;0.9633;
257.1000;1.0810;0.9866;
257.4000;1.0777;0.9726;
257.7000;1.0777;0.9633;
258.0000;1.0761;0.9493;
258.3000;1.0777;0.9539;
258.6000;1.0777;0.9516;
258.9000;1.0769;0.9563;
259.2000;1.0753;0.9609;
259.5000;1.0737;0.9703;
259.8000;1.0745;0.9726;
260.1000;1.0753;0.9656;
260.4000;1.0737;0.9609;
260.7000;1.0745;0.9609;
261.0000;1.0729;0.9609;
261.3000;1.0729;0.9586;
261.6000;1.0745;0.9633;
261.9000;1.0729;0.9679;
262.2000;1.0745;0.9679;
262.5000;1.0753;0.9633;
262.8000;1.0794;0.9749;
263.1000;1.0704;0.9493;
263.4000;1.0737;0.9493;
263.7000;1.0680;0.9283;
264.0000;1.0737;0.9469;
264.3000;1.0753;0.9563;
264.6000;1.0737;0.9469;
264.9000;1.0753;0.9493;
265.2000;1.0737;0.9539;
265.5000;1.0769;0.9539;
265.8000;1.0745;0.9446;
266.1000;1.0712;0.9516;
266.4000;1.0802;0.9656;
266.7000;1.0769;0.9563;
267.0000;1.0761;0.9609;
267.3000;1.0745;0.9516;
267.6000;1.0761;0.9679;
267.9000;1.0769;0.9726;
268.2000;1.0786;0.9726;
268.5000;1.0761;0.9703;
268.8000;1.0753;0.9679;
269.1000;1.0777;0.9703;
269.4000;1.0753;0.9703;
269.7000;1.0761;0.9726;
270.0000;1.0769;0.9796;
270.3000;1.0786;0.9843;
270.6000;1.0769;0.9819;
270.9000;1.0753;0.9749;
271.2000;1.0688;0.9633;
271.5000;1.0786;0.9773;
271.8000;1.0761;0.9679;
272.1000;1.0777;0.9726;
272.4000;1.0745;0.9656;
272.7000;1.0769;0.9656;
273.0000;1.0753;0.9609;
273.3000;1.0753;0.9726;
273.6000;1.0745;0.9749;
273.9000;1.0753;0.9679;
274.2000;1.0761;0.9726;
274.5000;1.0753;0.9656;
274.8000;1.0761;0.9656;
275.1000;1.0737;0.9679;
275.4000;1.0769;0.9773;
275.7000;1.0753;0.9796;
276.0000;1.0737;0.9726;
276.3000;1.0745;0.9726;
276.6000;1.0753;0.9843;
276.9000;1.0769;0.9913;
277.2000;1.0753;0.9866;
277.5000;1.0761;0.9843;
277.8000;1.0761;0.9796;
278.1000;1.0761;0.9819;
278.4000;1.0777;0.9843;
278.7000;1.0761;0.9819;
279.0000;1.0777;0.9843;
279.3000;1.0769;0.9913;
279.6000;1.0753;0.9843;
279.9000;1.0745;0.9913;
280.2000;1.0769;0.9983;
280.5000;1.0753;0.9936;
280.8000;1.0737;0.9913;
281.1000;1.0777;1.0006;
281.4000;1.0761;0.9936;
281.7000;1.0753;0.9959;
282.0000;1.0769;1.0076;
282.3000;1.0729;0.9983;
282.6000;1.0769;0.9983;
282.9000;1.0729;0.9843;
283.2000;1.0753;0.9913;
283.5000;1.0704;0.9796;
283.8000;1.0753;0.9796;
284.1000;1.0704;0.9656;
284.4000;1.0745;0.9843;
284.7000;1.0761;0.9959;
285.0000;1.0761;0.9913;
285.3000;1.0761;0.9866;
285.6000;1.0672;0.9703;
285.9000;1.0712;0.9866;
286.2000;1.0794;1.0029;
286.5000;1.0769;0.9889;
286.8000;1.0753;0.9913;
287.1000;1.0720;0.9889;
287.4000;1.0737;0.9866;
287.7000;1.0712;0.9749;
288.0000;1.0729;0.9796;
288.3000;1.0761;0.9913;
288.6000;1.0680;0.9656;
288.9000;1.0802;0.9959;
289.2000;1.0704;0.9843;
289.5000;1.0753;0.9936;
289.8000;1.0761;0.9959;
290.1000;1.0737;0.9913;
290.4000;1.0753;0.9983;
290.7000;1.0753;0.9959;
291.0000;1.0753;0.9913;
291.3000;1.0696;0.9749;
291.6000;1.0753;0.9889;
291.9000;1.0769;0.9959;
292.2000;1.0761;0.9866;
292.5000;1.0753;0.9796;
292.8000;1.0704;0.9749;
293.1000;1.0769;0.9913;
293.4000;1.0761;0.9866;
293.7000;1.0745;0.9913;
294.0000;1.0745;0.9889;
294.3000;1.0745;0.9936;
294.6000;1.0802;1.0006;
294.9000;1.0777;0.9936;
295.2000;1.0745;0.9796;
295.5000;1.0745;0.9749;
295.8000;1.0867;1.0006;
296.1000;1.0761;0.9796;
296.4000;1.0753;0.9866;
296.7000;1.0720;0.9773;
297.0000;1.0745;0.9796;
297.3000;1.0737;0.9773;
297.6000;1.0729;0.9749;
297.9000;1.0818;0.9913;
298.2000;1.0753;0.9749;
298.5000;1.0753;0.9796;
298.8000;1.0859;1.0122;
299.1000;1.0753;0.9819;
299.4000;1.0786;0.9819;
299.7000;1.0761;0.9913;
300.0000;1.0737;0.9843;
300.3000;1.0745;0.9913;
300.6000;1.0777;1.0006;
300.9000;1.0769;0.9959;
301.2000;1.0753;0.9889;
301.5000;1.0737;0.9959;
301.8000;1.0729;0.9913;
302.1000;1.0761;0.9936;
302.4000;1.0753;0.9819;
302.7000;1.0761;0.9819;
303.0000;1.0761;0.9819;
303.3000;1.0753;0.9819;
303.6000;1.0753;0.9796;
303.9000;1.0761;0.9796;
304.2000;1.0729;0.9726;
304.5000;1.0761;0.9796;
304.8000;1.0769;0.9796;
305.1000;1.0769;0.9843;
305.4000;1.0745;0.9866;
305.7000;1.0729;0.9983;
306.0000;1.0745;0.9959;
306.3000;1.0745;0.9936;
306.6000;1.0737;0.9959;
306.9000;1.0737;1.0029;
307.2000;1.0753;0.9983;
307.5000;1.0761;0.9936;
307.8000;1.0745;0.9936;
308.1000;1.0753;0.9889;
308.4000;1.0761;0.9866;
308.7000;1.0737;0.9866;
309.0000;1.0777;0.9936;
309.3000;1.0729;0.9796;
309.6000;1.0737;0.9843;
309.9000;1.0794;0.9913;
310.2000;1.0745;0.9773;
310.5000;1.0737;0.9913;
310.8000;1.0729;0.9889;
311.1000;1.0696;0.9796;
311.4000;1.0761;0.9959;
311.7000;1.0737;0.9889;
312.0000;1.0745;0.9913;
312.3000;1.0696;0.9843;
312.6000;1.0720;0.9843;
312.9000;1.0737;0.9843;
313.2000;1.0842;1.0029;
313.5000;1.0729;0.9819;
313.8000;1.0786;0.9913;
314.1000;1.0753;0.9796;
314.4000;1.0794;0.9936;
314.7000;1.0786;1.0053;
315.0000;1.0737;0.9959;
315.3000;1.0737;0.9936;
315.6000;1.0753;0.9843;
315.9000;1.0720;0.9773;
316.2000;1.0802;1.0006;
316.5000;1.0696;0.9749;
316.8000;1.0745;0.9796;
317.1000;1.0761;0.9889;
317.4000;1.0745;0.9773;
317.7000;1.0688;0.9679;
318.0000;1.0769;0.9773;
318.3000;1.0745;0.9703;
318.6000;1.0737;0.9656;
318.9000;1.0729;0.9703;
319.2000;1.0745;0.9796;
319.5000;1.0729;0.9796;
319.8000;1.0777;0.9889;
320.1000;1.0745;0.9843;
320.4000;1.0753;0.9889;
320.7000;1.0737;0.9819;
321.0000;1.0753;0.9843;
321.3000;1.0859;1.0053;
321.6000;1.0769;0.9796;
321.9000;1.0704;0.9773;
322.2000;1.0712;0.9913;
322.5000;1.0745;0.9959;
322.8000;1.0818;1.0169;
323.1000;1.0729;1.0029;
323.4000;1.0720;0.9936;
323.7000;1.0745;0.9959;
324.0000;1.0745;0.9959;
324.3000;1.0737;1.0053;
324.6000;1.0737;1.0006;
324.9000;1.0729;0.9959;
325.2000;1.0631;0.9726;
325.5000;1.0745;0.9983;
325.8000;1.0729;0.9959;
326.1000;1.0745;0.9959;
326.4000;1.0753;0.9936;
326.7000;1.0737;0.9983;
327.0000;1.0753;1.0029;
327.3000;1.0786;1.0099;
327.6000;1.0729;1.0029;
327.9000;1.0745;1.0099;
328.2000;1.0745;1.0146;
328.5000;1.0745;1.0099;
328.8000;1.0737;1.0006;
329.1000;1.0753;1.0053;
329.4000;1.0745;0.9983;
329.7000;1.0720;0.9889;
330.0000;1.0745;0.9959;
330.3000;1.0712;0.9843;
330.6000;1.0688;0.9773;
330.9000;1.0802;1.0053;
331.2000;1.0729;0.9959;
331.5000;1.0769;0.9983;
331.8000;1.0745;0.9936;
332.1000;1.0688;0.9866;
332.4000;1.0737;0.9889;
332.7000;1.0753;0.9889;
333.0000;1.0753;0.9983;
333.3000;1.0834;1.0099;
333.6000;1.0769;0.9959;
333.9000;1.0745;0.9983;
334.2000;1.0810;1.0169;
334.5000;1.0720;0.9936;
334.8000;1.0842;1.0239;
335.1000;1.0769;1.0099;
335.4000;1.0769;1.0099;
335.7000;1.0753;1.0053;
336.0000;1.0769;1.0053;
336.3000;1.0769;1.0146;
336.6000;1.0745;1.0076;
336.9000;1.0753;1.0053;
337.2000;1.0737;0.9866;
337.5000;1.0720;0.9889;
337.8000;1.0745;0.9913;
338.1000;1.0761;0.9936;
338.4000;1.0810;1.0099;
338.7000;1.0745;0.9866;
339.0000;1.0737;0.9843;
339.3000;1.0786;0.9959;
339.6000;1.0688;0.9819;
339.9000;1.0769;1.0099;
340.2000;1.0802;1.0192;
340.5000;1.0737;0.9959;
340.8000;1.0753;0.9913;
341.1000;1.0761;0.9936;
341.4000;1.0761;0.9983;
341.7000;1.0753;1.0029;
342.0000;1.0729;0.9959;
342.3000;1.0761;1.0029;
342.6000;1.0737;0.9983;
342.9000;1.0745;1.0006;
343.2000;1.0753;1.0076;
343.5000;1.0737;1.0006;
343.8000;1.0720;0.9959;
344.1000;1.0720;0.9889;
344.4000;1.0737;1.0006;
344.7000;1.0745;0.9959;
345.0000;1.0729;0.9913;
345.3000;1.0729;0.9913;
345.6000;1.0745;0.9983;
345.9000;1.0737;0.9983;
346.2000;1.0745;0.9983;
346.5000;1.0745;0.9936;
346.8000;1.0745;0.9983;
347.1000;1.0729;1.0006;
347.4000;1.0753;1.0053;
347.7000;1.0745;1.0053;
348.0000;1.0761;1.0076;
348.3000;1.0720;1.0006;
348.6000;1.0761;0.9983;
348.9000;1.0753;0.9936;
349.2000;1.0745;0.9843;
349.5000;1.0729;0.9773;
349.8000;1.0720;0.9726;
350.1000;1.0729;0.9679;
350.4000;1.0720;0.9703;
350.7000;1.0761;0.9749;
351.0000;1.0745;0.9749;
351.3000;1.0761;0.9819;
351.6000;1.0729;0.9749;
351.9000;1.0745;0.9773;
352.2000;1.0745;0.9773;
352.5000;1.0745;0.9819;
352.8000;1.0720;0.9773;
353.1000;1.0737;0.9819;
353.4000;1.0720;0.9773;
353.7000;1.0753;0.9889;
354.0000;1.0745;0.9913;
354.3000;1.0777;1.0029;
354.6000;1.0745;1.0006;
354.9000;1.0720;0.9866;
355.2000;1.0737;0.9843;
355.5000;1.0745;0.9866;
355.8000;1.0688;0.9796;
356.1000;1.0753;0.9936;
356.4000;1.0712;0.9773;
356.7000;1.0753;0.9866;
357.0000;1.0729;0.9843;
357.3000;1.0720;0.9819;
357.6000;1.0761;0.9936;
357.9000;1.0712;0.9843;
358.2000;1.0720;0.9726;
358.5000;1.0720;0.9773;
358.8000;1.0729;0.9843;
359.1000;1.0777;0.9959;
359.4000;1.0729;0.9889;
359.7000;1.0729;0.9983;
360.0000;1.0737;0.9983;
360.3000;1.0729;0.9959;
360.6000;1.0737;1.0029;
360.9000;1.0745;1.0029;
361.2000;1.0729;1.0029;
361.5000;1.0729;1.0053;
361.8000;1.0737;1.0122;
362.1000;1.0737;1.0192;
362.4000;1.0729;1.0146;
362.7000;1.0737;1.0216;
363.0000;1.0745;1.0286;
363.3000;1.0745;1.0262;
363.6000;1.0745;1.0239;
363.9000;1.0737;1.0122;
364.2000;1.0745;1.0169;
364.5000;1.0704;1.0122;
364.8000;1.0745;1.0239;
365.1000;1.0761;1.0309;
365.4000;1.0745;1.0216;
365.7000;1.0753;1.0122;
366.0000;1.0737;1.0146;
366.3000;1.0720;1.0192;
366.6000;1.0753;1.0169;
366.9000;1.0729;1.0006;
367.2000;1.0745;0.9983;
367.5000;1.0737;0.9936;
367.8000;1.0729;0.9983;
368.1000;1.0729;0.9936;
368.4000;1.0720;0.9913;
368.7000;1.0720;0.9866;
369.0000;1.0720;0.9959;
369.3000;1.0712;0.9983;
369.6000;1.0712;0.9983;
369.9000;1.0704;1.0122;
370.2000;1.0712;1.0122;
370.5000;1.0737;1.0169;
370.8000;1.0729;1.0169;
371.1000;1.0704;1.0053;
371.4000;1.0720;0.9959;
371.7000;1.0712;0.9913;
372.0000;1.0729;0.9959;
372.3000;1.0729;0.9983;
372.6000;1.0720;0.9983;
372.9000;1.0688;0.9936;
373.2000;1.0712;1.0029;
373.5000;1.0720;1.0122;
373.8000;1.0753;1.0146;
374.1000;1.0712;0.9983;
374.4000;1.0769;1.0146;
374.7000;1.0769;1.0169;
375.0000;1.0745;1.0099;
375.3000;1.0737;1.0053;
375.6000;1.0720;1.0099;
375.9000;1.0712;1.0169;
376.2000;1.0737;1.0169;
376.5000;1.0737;1.0076;
376.8000;1.0745;1.0053;
377.1000;1.0704;1.0053;
377.4000;1.0761;1.0332;
377.7000;1.0688;1.0239;
378.0000;1.0737;1.0262;
378.3000;1.0753;1.0262;
378.6000;1.0712;1.0146;
378.9000;1.0729;1.0239;
379.2000;1.0704;1.0122;
379.5000;1.0745;1.0192;
379.8000;1.0737;1.0169;
380.1000;1.0615;0.9866;
380.4000;1.0704;1.0029;
380.7000;1.0769;1.0099;
381.0000;1.0729;1.0029;
381.3000;1.0745;1.0146;
381.6000;1.0786;1.0262;
381.9000;1.0729;1.0216;
382.2000;1.0737;1.0286;
382.5000;1.0761;1.0262;
382.8000;1.0745;1.0192;
383.1000;1.0737;1.0169;
383.4000;1.0761;1.0146;
383.7000;1.0737;1.0029;
384.0000;1.0745;1.0029;
384.3000;1.0753;1.0076;
384.6000;1.0753;1.0099;
384.9000;1.0729;1.0099;
385.2000;1.0737;1.0122;
385.5000;1.0769;1.0239;
385.8000;1.0729;1.0192;
386.1000;1.0720;1.0146;
386.4000;1.0712;1.0192;
386.7000;1.0737;1.0192;
387.0000;1.0753;1.0169;
387.3000;1.0729;1.0099;
387.6000;1.0737;1.0053;
387.9000;1.0753;1.0006;
388.2000;1.0720;1.0006;
388.5000;1.0737;1.0076;
388.8000;1.0737;1.0076;
389.1000;1.0720;1.0099;
389.4000;1.0720;1.0029;
389.7000;1.0737;0.9959;
390.0000;1.0680;0.9866;
390.3000;1.0704;1.0006;
390.6000;1.0737;0.9959;
390.9000;1.0720;0.9983;
391.2000;1.0737;1.0053;
391.5000;1.0720;0.9983;
391.8000;1.0729;1.0006;
392.1000;1.0688;0.9983;
392.4000;1.0720;1.0169;
392.7000;1.0753;1.0239;
393.0000;1.0720;1.0192;
393.3000;1.0745;1.0192;
393.6000;1.0745;1.0169;
393.9000;1.0720;1.0076;
394.2000;1.0745;1.0169;
394.5000;1.0729;1.0122;
394.8000;1.0729;1.0053;
395.1000;1.0720;1.0122;
395.4000;1.0737;1.0216;
395.7000;1.0720;1.0099;
396.0000;1.0737;1.0169;
396.3000;1.0777;1.0262;
396.6000;1.0842;1.0426;
396.9000;1.0720;1.0122;
397.2000;1.0712;1.0122;
397.5000;1.0737;1.0146;
397.8000;1.0720;1.0053;
398.1000;1.0696;0.9936;
398.4000;1.0753;1.0122;
398.7000;1.0720;0.9983;
399.0000;1.0729;1.0053;
399.3000;1.0737;1.0053;
399.6000;1.0712;0.9936;
399.9000;1.0737;0.9913;
400.2000;1.0696;0.9889;
400.5000;1.0769;1.0029;
400.8000;1.0663;0.9749;
401.1000;1.0688;0.9866;
401.4000;1.0712;0.9889;
401.7000;1.0688;0.9843;
402.0000;1.0729;0.9983;
402.3000;1.0729;0.9983;
402.6000;1.0712;0.9889;
402.9000;1.0737;1.0006;
403.2000;1.0712;1.0006;
403.5000;1.0729;1.0099;
403.8000;1.0794;1.0169;
404.1000;1.0737;1.0006;
404.4000;1.0786;1.0029;
404.7000;1.0737;0.9936;
405.0000;1.0729;0.9983;
405.3000;1.0720;1.0006;
405.6000;1.0720;1.0053;
405.9000;1.0737;1.0239;
406.2000;1.0729;1.0262;
406.5000;1.0720;1.0146;
406.8000;1.0712;1.0076;
407.1000;1.0712;1.0053;
407.4000;1.0712;1.0053;
407.7000;1.0720;1.0006;
408.0000;1.0712;1.0006;
408.3000;1.0688;1.0076;
408.6000;1.0729;1.0239;
408.9000;1.0729;1.0192;
409.2000;1.0712;1.0239;
409.5000;1.0737;1.0239;
409.8000;1.0729;1.0192;
410.1000;1.0737;1.0169;
410.4000;1.0712;1.0122;
410.7000;1.0688;0.9913;
411.0000;1.0729;0.9889;
411.3000;1.0745;1.0006;
411.6000;1.0712;1.0006;
411.9000;1.0729;0.9983;
412.2000;1.0704;0.9936;
412.5000;1.0729;1.0006;
412.8000;1.0729;1.0053;
413.1000;1.0729;1.0216;
413.4000;1.0712;1.0192;
413.7000;1.0720;1.0169;
414.0000;1.0655;0.9913;
414.3000;1.0688;1.0006;
414.6000;1.0712;1.0099;
414.9000;1.0720;1.0099;
415.2000;1.0712;1.0192;
415.5000;1.0704;1.0122;
415.8000;1.0729;1.0122;
416.1000;1.0729;1.0006;
416.4000;1.0720;0.9959;
416.7000;1.0729;0.9913;
417.0000;1.0745;1.0006;
417.3000;1.0720;0.9843;
417.6000;1.0729;0.9983;
417.9000;1.0753;1.0169;
418.2000;1.0680;1.0122;
418.5000;1.0729;1.0169;
418.8000;1.0737;1.0169;
419.1000;1.0688;1.0076;
419.4000;1.0753;1.0239;
419.7000;1.0753;1.0332;
420.0000;1.0729;1.0356;
420.3000;1.0745;1.0356;
420.6000;1.0729;1.0332;
420.9000;1.0704;1.0309;
421.2000;1.0720;1.0262;
421.5000;1.0745;1.0332;
421.8000;1.0729;1.0286;
422.1000;1.0712;1.0239;
422.4000;1.0737;1.0286;
422.7000;1.0720;1.0216;
423.0000;1.0712;1.0146;
423.3000;1.0720;1.0216;
423.6000;1.0712;1.0216;
423.9000;1.0720;1.0192;
424.2000;1.0704;1.0146;
424.5000;1.0794;1.0379;
424.8000;1.0737;1.0192;
425.1000;1.0720;1.0146;
425.4000;1.0688;0.9959;
425.7000;1.0737;1.0192;
426.0000;1.0720;1.0146;
426.3000;1.0704;1.0006;
426.6000;1.0769;1.0076;
426.9000;1.0720;0.9959;
427.2000;1.0729;1.0029;
427.5000;1.0647;0.9959;
427.8000;1.0729;1.0099;
428.1000;1.0737;1.0169;
428.4000;1.0720;1.0099;
428.7000;1.0639;0.9959;
429.0000;1.0712;1.0053;
429.3000;1.0729;1.0122;
429.6000;1.0737;1.0146;
429.9000;1.0729;1.0146;
430.2000;1.0753;1.0239;
430.5000;1.0729;1.0262;
430.8000;1.0745;1.0286;
431.1000;1.0729;1.0286;
431.4000;1.0712;1.0146;
431.7000;1.0720;1.0169;
432.0000;1.0704;1.0122;
432.3000;1.0720;1.0006;
432.6000;1.0720;1.0076;
432.9000;1.0720;1.0076;
433.2000;1.0729;1.0006;
433.5000;1.0810;1.0286;
433.8000;1.0729;1.0099;
434.1000;1.0704;1.0099;
434.4000;1.0729;1.0216;
434.7000;1.0712;1.0099;
435.0000;1.0712;1.0029;
435.3000;1.0729;0.9959;
435.6000;1.0712;1.0029;
435.9000;1.0737;1.0076;
436.2000;1.0712;1.0053;
436.5000;1.0696;1.0099;
436.8000;1.0720;1.0099;
437.1000;1.0729;1.0192;
437.4000;1.0737;1.0262;
437.7000;1.0712;1.0169;
438.0000;1.0745;1.0122;
438.3000;1.0712;1.0099;
438.6000;1.0704;1.0076;
438.9000;1.0720;1.0099;
439.2000;1.0688;1.0006;
439.5000;1.0777;1.0239;
439.8000;1.0712;1.0099;
440.1000;1.0712;1.0099;
440.4000;1.0680;1.0029;
440.7000;1.0729;1.0192;
441.0000;1.0729;1.0192;
441.3000;1.0672;1.0053;
441.6000;1.0720;1.0169;
441.9000;1.0704;1.0239;
442.2000;1.0720;1.0286;
442.5000;1.0720;1.0192;
442.8000;1.0712;1.0169;
443.1000;1.0737;1.0309;
443.4000;1.0737;1.0286;
443.7000;1.0729;1.0239;
444.0000;1.0720;1.0169;
444.3000;1.0729;1.0192;
444.6000;1.0712;1.0169;
444.9000;1.0737;1.0216;
445.2000;1.0745;1.0192;
445.5000;1.0663;0.9983;
445.8000;1.0753;1.0309;
446.1000;1.0745;1.0192;
446.4000;1.0712;1.0122;
446.7000;1.0720;1.0076;
447.0000;1.0720;1.0169;
447.3000;1.0745;1.0216;
447.6000;1.0834;1.0402;
447.9000;1.0712;1.0122;
448.2000;1.0704;1.0146;
448.5000;1.0720;1.0122;
448.8000;1.0712;1.0192;
449.1000;1.0720;1.0099;
449.4000;1.0737;1.0122;
449.7000;1.0720;1.0053;
450.0000;1.0729;1.0053;
450.3000;1.0720;1.0076;
450.6000;1.0729;1.0122;
450.9000;1.0647;0.9983;
451.2000;1.0729;1.0239;
451.5000;1.0712;1.0122;
451.8000;1.0615;0.9819;
452.1000;1.0712;1.0076;
452.4000;1.0720;1.0076;
452.7000;1.0688;1.0099;
453.0000;1.0704;1.0146;
453.3000;1.0672;1.0029;
453.6000;1.0826;1.0472;
453.9000;1.0737;1.0216;
454.2000;1.0720;1.0146;
454.5000;1.0818;1.0356;
454.8000;1.0720;1.0076;
455.1000;1.0745;1.0006;
455.4000;1.0712;1.0006;
455.7000;1.0802;1.0192;
456.0000;1.0745;1.0053;
456.3000;1.0761;1.0053;
456.6000;1.0729;1.0029;
456.9000;1.0737;1.0169;
457.2000;1.0729;1.0169;
457.5000;1.0729;1.0262;
457.8000;1.0737;1.0216;
458.1000;1.0729;1.0262;
458.4000;1.0745;1.0379;
458.7000;1.0786;1.0402;
459.0000;1.0720;1.0262;
459.3000;1.0696;1.0216;
459.6000;1.0729;1.0356;
459.9000;1.0737;1.0356;
460.2000;1.0737;1.0286;
460.5000;1.0729;1.0239;
460.8000;1.0729;1.0192;
461.1000;1.0745;1.0076;
461.4000;1.0745;1.0006;
461.7000;1.0737;1.0029;
462.0000;1.0729;1.0029;
462.3000;1.0647;0.9889;
462.6000;1.0712;1.0122;
462.9000;1.0704;1.0076;
463.2000;1.0704;1.0099;
463.5000;1.0712;1.0122;
463.8000;1.0712;1.0169;
464.1000;1.0704;1.0122;
464.4000;1.0761;1.0309;
464.7000;1.0647;0.9983;
465.0000;1.0753;1.0239;
465.3000;1.0704;1.0099;
465.6000;1.0688;1.0099;
465.9000;1.0712;1.0122;
466.2000;1.0712;1.0122;
466.5000;1.0696;1.0146;
466.8000;1.0729;1.0239;
467.1000;1.0729;1.0262;
467.4000;1.0696;1.0216;
467.7000;1.0712;1.0309;
468.0000;1.0729;1.0286;
468.3000;1.0712;1.0192;
468.6000;1.0712;1.0262;
468.9000;1.0720;1.0262;
469.2000;1.0818;1.0426;
469.5000;1.0818;1.0379;
469.8000;1.0696;1.0076;
470.1000;1.0720;1.0169;
470.4000;1.0753;1.0286;
470.7000;1.0704;1.0122;
471.0000;1.0720;1.0286;
471.3000;1.0712;1.0379;
471.6000;1.0704;1.0286;
471.9000;1.0704;1.0286;
472.2000;1.0720;1.0332;
472.5000;1.0712;1.0402;
472.8000;1.0745;1.0426;
473.1000;1.0720;1.0426;
473.4000;1.0688;1.0379;
473.7000;1.0655;1.0192;
474.0000;1.0712;1.0309;
474.3000;1.0704;1.0332;
474.6000;1.0696;1.0286;
474.9000;1.0647;1.0216;
475.2000;1.0729;1.0402;
475.5000;1.0704;1.0449;
475.8000;1.0647;1.0309;
476.1000;1.0704;1.0379;
476.4000;1.0696;1.0379;
476.7000;1.0729;1.0449;
477.0000;1.0720;1.0379;
477.3000;1.0712;1.0449;
477.6000;1.0704;1.0402;
477.9000;1.0720;1.0402;
478.2000;1.0704;1.0332;
478.5000;1.0720;1.0356;
478.8000;1.0729;1.0356;
479.1000;1.0786;1.0402;
479.4000;1.0720;1.0216;
479.7000;1.0704;1.0146;
480.0000;1.0688;1.0239;
480.3000;1.0712;1.0286;
480.6000;1.0688;1.0239;
480.9000;1.0729;1.0239;
481.2000;1.0712;1.0216;
481.5000;1.0696;1.0262;
481.8000;1.0712;1.0309;
482.1000;1.0712;1.0332;
482.4000;1.0729;1.0332;
482.7000;1.0737;1.0472;
483.0000;1.0737;1.0472;
483.3000;1.0729;1.0449;
483.6000;1.0704;1.0426;
483.9000;1.0729;1.0542;
484.2000;1.0737;1.0566;
484.5000;1.0729;1.0379;
484.8000;1.0720;1.0332;
485.1000;1.0712;1.0309;
485.4000;1.0729;1.0356;
485.7000;1.0712;1.0286;
486.0000;1.0729;1.0262;
486.3000;1.0704;1.0262;
486.6000;1.0729;1.0286;
486.9000;1.0704;1.0216;
487.2000;1.0672;1.0076;
487.5000;1.0704;1.0262;
487.8000;1.0704;1.0239;
488.1000;1.0623;1.0029;
488.4000;1.0720;1.0216;
488.7000;1.0696;1.0192;
489.0000;1.0647;1.0216;
489.3000;1.0696;1.0356;
489.6000;1.0704;1.0356;
489.9000;1.0704;1.0379;
490.2000;1.0761;1.0496;
490.5000;1.0680;1.0192;
490.8000;1.0688;1.0192;
491.1000;1.0712;1.0099;
491.4000;1.0680;1.0099;
491.7000;1.0729;1.0122;
492.0000;1.0720;1.0122;
492.3000;1.0720;1.0216;
492.6000;1.0720;1.0192;
492.9000;1.0712;1.0169;
493.2000;1.0720;1.0192;
493.5000;1.0729;1.0216;
493.8000;1.0712;1.0099;
494.1000;1.0720;1.0169;
494.4000;1.0712;1.0216;
494.7000;1.0680;1.0192;
495.0000;1.0712;1.0286;
495.3000;1.0712;1.0192;
495.6000;1.0672;1.0099;
495.9000;1.0712;1.0169;
496.2000;1.0688;1.0053;
496.5000;1.0688;1.0122;
496.8000;1.0688;1.0122;
497.1000;1.0720;1.0216;
497.4000;1.0704;1.0169;
497.7000;1.0753;1.0309;
498.0000;1.0720;1.0332;
498.3000;1.0729;1.0379;
498.6000;1.0704;1.0379;
498.9000;1.0737;1.0332;
499.2000;1.0696;1.0146;
499.5000;1.0712;1.0216;
499.8000;1.0745;1.0309;
500.1000;1.0720;1.0169;
500.4000;1.0704;1.0146;
500.7000;1.0729;1.0192;
501.0000;1.0720;1.0169;
501.3000;1.0712;1.0099;
501.6000;1.0712;1.0146;
501.9000;1.0712;1.0122;
502.2000;1.0712;1.0169;
502.5000;1.0712;1.0239;
502.8000;1.0737;1.0356;
503.1000;1.0688;1.0262;
503.4000;1.0712;1.0379;
503.7000;1.0729;1.0356;
504.0000;1.0696;1.0379;
504.3000;1.0696;1.0402;
504.6000;1.0720;1.0496;
504.9000;1.0720;1.0519;
505.2000;1.0712;1.0496;
505.5000;1.0712;1.0472;
505.8000;1.0712;1.0426;
506.1000;1.0704;1.0426;
506.4000;1.0720;1.0402;
506.7000;1.0729;1.0426;
507.0000;1.0696;1.0356;
507.3000;1.0712;1.0426;
507.6000;1.0737;1.0449;
507.9000;1.0720;1.0356;
508.2000;1.0704;1.0286;
508.5000;1.0704;1.0262;
508.8000;1.0720;1.0309;
509.1000;1.0688;1.0309;
509.4000;1.0704;1.0356;
509.7000;1.0696;1.0309;
510.0000;1.0696;1.0356;
510.3000;1.0696;1.0309;
510.6000;1.0688;1.0309;
510.9000;1.0704;1.0449;
511.2000;1.0769;1.0612;
511.5000;1.0696;1.0402;
511.8000;1.0688;1.0356;
512.1000;1.0696;1.0356;
512.4000;1.0696;1.0332;
512.7000;1.0696;1.0332;
513.0000;1.0704;1.0356;
513.3000;1.0737;1.0309;
513.6000;1.0696;1.0169;
513.9000;1.0712;1.0216;
514.2000;1.0712;1.0192;
514.5000;1.0712;1.0192;
514.8000;1.0712;1.0076;
515.1000;1.0696;1.0076;
515.4000;1.0729;1.0216;
515.7000;1.0712;1.0192;
516.0000;1.0704;1.0239;
516.3000;1.0704;1.0146;
516.6000;1.0704;1.0216;
516.9000;1.0704;1.0192;
517.2000;1.0704;1.0216;
517.5000;1.0704;1.0239;
517.8000;1.0696;1.0192;
518.1000;1.0712;1.0192;
518.4000;1.0696;1.0169;
518.7000;1.0720;1.0192;
519.0000;1.0720;1.0239;
519.3000;1.0712;1.0216;
519.6000;1.0712;1.0146;
519.9000;1.0729;1.0122;
520.2000;1.0720;1.0099;
520.5000;1.0680;0.9983;
520.8000;1.0704;0.9913;
521.1000;1.0696;0.9936;
521.4000;1.0794;1.0122;
521.7000;1.0672;0.9889;
522.0000;1.0737;1.0076;
522.3000;1.0704;1.0076;
522.6000;1.0688;1.0146;
522.9000;1.0680;1.0216;
523.2000;1.0696;1.0192;
523.5000;1.0720;1.0192;
523.8000;1.0704;1.0192;
524.1000;1.0712;1.0216;
524.4000;1.0712;1.0122;
524.7000;1.0696;1.0029;
525.0000;1.0696;1.0053;
525.3000;1.0704;1.0006;
525.6000;1.0712;1.0053;
525.9000;1.0696;1.0146;
526.2000;1.0696;1.0286;
526.5000;1.0720;1.0402;
526.8000;1.0712;1.0402;
527.1000;1.0696;1.0379;
527.4000;1.0712;1.0519;
527.7000;1.0672;1.0496;
528.0000;1.0729;1.0542;
528.3000;1.0704;1.0496;
528.6000;1.0688;1.0402;
528.9000;1.0696;1.0402;
529.2000;1.0729;1.0402;
529.5000;1.0655;1.0239;
529.8000;1.0696;1.0286;
530.1000;1.0688;1.0332;
530.4000;1.0704;1.0332;
530.7000;1.0745;1.0379;
531.0000;1.0672;1.0169;
531.3000;1.0688;1.0239;
531.6000;1.0704;1.0379;
531.9000;1.0680;1.0262;
532.2000;1.0704;1.0262;
532.5000;1.0704;1.0309;
532.8000;1.0704;1.0449;
533.1000;1.0688;1.0356;
533.4000;1.0704;1.0356;
533.7000;1.0704;1.0356;
534.0000;1.0696;1.0356;
534.3000;1.0712;1.0379;
534.6000;1.0704;1.0426;
534.9000;1.0704;1.0402;
535.2000;1.0712;1.0426;
535.5000;1.0696;1.0332;
535.8000;1.0720;1.0356;
536.1000;1.0720;1.0309;
536.4000;1.0696;1.0216;
536.7000;1.0704;1.0309;
537.0000;1.0704;1.0332;
537.3000;1.0737;1.0496;
537.6000;1.0704;1.0449;
537.9000;1.0688;1.0402;
538.2000;1.0696;1.0332;
538.5000;1.0712;1.0356;
538.8000;1.0680;1.0332;
539.1000;1.0704;1.0379;
539.4000;1.0712;1.0309;
539.7000;1.0688;1.0192;
540.0000;1.0720;1.0356;
540.3000;1.0712;1.0426;
540.6000;1.0688;1.0379;
540.9000;1.0737;1.0519;
541.2000;1.0712;1.0402;
541.5000;1.0704;1.0449;
541.8000;1.0712;1.0496;
542.1000;1.0696;1.0402;
542.4000;1.0802;1.0776;
542.7000;1.0696;1.0589;
543.0000;1.0696;1.0612;
543.3000;1.0696;1.0659;
543.6000;1.0639;1.0426;
543.9000;1.0688;1.0496;
544.2000;1.0623;1.0286;
544.5000;1.0720;1.0566;
544.8000;1.0688;1.0542;
545.1000;1.0696;1.0472;
545.4000;1.0696;1.0472;
545.7000;1.0704;1.0426;
546.0000;1.0712;1.0426;
546.3000;1.0696;1.0332;
546.6000;1.0688;1.0309;
546.9000;1.0696;1.0332;
547.2000;1.0696;1.0332;
547.5000;1.0696;1.0402;
547.8000;1.0802;1.0612;
548.1000;1.0720;1.0426;
548.4000;1.0696;1.0309;
548.7000;1.0655;1.0216;
549.0000;1.0712;1.0332;
549.3000;1.0696;1.0262;
549.6000;1.0696;1.0332;
549.9000;1.0712;1.0402;
550.2000;1.0696;1.0449;
550.5000;1.0753;1.0589;
550.8000;1.0729;1.0496;
551.1000;1.0720;1.0472;
551.4000;1.0729;1.0566;
551.7000;1.0712;1.0426;
552.0000;1.0704;1.0449;
552.3000;1.0712;1.0542;
552.6000;1.0720;1.0636;
552.9000;1.0704;1.0636;
553.2000;1.0688;1.0612;
553.5000;1.0712;1.0589;
553.8000;1.0647;1.0472;
554.1000;1.0720;1.0682;
554.4000;1.0712;1.0566;
554.7000;1.0696;1.0542;
555.0000;1.0761;1.0682;
555.3000;1.0712;1.0519;
555.6000;1.0704;1.0519;
555.9000;1.0729;1.0542;
556.2000;1.0729;1.0496;
556.5000;1.0712;1.0496;
556.8000;1.0712;1.0496;
557.1000;1.0688;1.0542;
557.4000;1.0688;1.0636;
557.7000;1.0704;1.0659;
558.0000;1.0696;1.0612;
558.3000;1.0688;1.0566;
558.6000;1.0696;1.0612;
558.9000;1.0712;1.0659;
559.2000;1.0696;1.0636;
559.5000;1.0680;1.0472;
559.8000;1.0704;1.0426;
560.1000;1.0745;1.0496;
560.4000;1.0720;1.0472;
560.7000;1.0704;1.0566;
561.0000;1.0704;1.0589;
561.3000;1.0753;1.0776;
561.6000;1.0696;1.0636;
561.9000;1.0663;1.0472;
562.2000;1.0720;1.0589;
562.5000;1.0704;1.0496;
562.8000;1.0729;1.0519;
563.1000;1.0655;1.0332;
563.4000;1.0704;1.0449;
563.7000;1.0680;1.0472;
564.0000;1.0737;1.0612;
564.3000;1.0680;1.0519;
564.6000;1.0672;1.0496;
564.9000;1.0720;1.0519;
565.2000;1.0688;1.0449;
565.5000;1.0696;1.0472;
565.8000;1.0720;1.0566;
566.1000;1.0672;1.0449;
566.4000;1.0631;1.0309;
566.7000;1.0802;1.0752;
567.0000;1.0688;1.0589;
567.3000;1.0680;1.0496;
567.6000;1.0647;1.0332;
567.9000;1.0688;1.0356;
568.2000;1.0688;1.0356;
568.5000;1.0704;1.0402;
568.8000;1.0696;1.0449;
569.1000;1.0696;1.0402;
569.4000;1.0696;1.0332;
569.7000;1.0696;1.0332;
570.0000;1.0680;1.0286;
570.3000;1.0688;1.0309;
570.6000;1.0696;1.0356;
570.9000;1.0696;1.0356;
571.2000;1.0737;1.0426;
571.5000;1.0720;1.0402;
571.8000;1.0688;1.0379;
572.1000;1.0672;1.0286;
572.4000;1.0688;1.0356;
572.7000;1.0696;1.0449;
573.0000;1.0672;1.0426;
573.3000;1.0704;1.0496;
573.6000;1.0663;1.0402;
573.9000;1.0696;1.0496;
574.2000;1.0704;1.0519;
574.5000;1.0680;1.0402;
574.8000;1.0720;1.0449;
575.1000;1.0696;1.0449;
575.4000;1.0712;1.0496;
575.7000;1.0712;1.0566;
576.0000;1.0720;1.0542;
576.3000;1.0696;1.0472;
576.6000;1.0720;1.0472;
576.9000;1.0672;1.0426;
577.2000;1.0688;1.0612;
577.5000;1.0753;1.0799;
577.8000;1.0704;1.0659;
578.1000;1.0786;1.0799;
578.4000;1.0712;1.0612;
578.7000;1.0704;1.0589;
579.0000;1.0761;1.0846;
579.3000;1.0696;1.0729;
579.6000;1.0704;1.0846;
579.9000;1.0696;1.0822;
580.2000;1.0672;1.0799;
580.5000;1.0802;1.1079;
580.8000;1.0688;1.0776;
581.1000;1.0696;1.0799;
581.4000;1.0712;1.0799;
581.7000;1.0737;1.0822;
582.0000;1.0696;1.0752;
582.3000;1.0696;1.0706;
582.6000;1.0680;1.0612;
582.9000;1.0712;1.0682;
583.2000;1.0688;1.0542;
583.5000;1.0688;1.0542;
583.8000;1.0680;1.0589;
584.1000;1.0606;1.0426;
584.4000;1.0680;1.0589;
584.7000;1.0680;1.0612;
585.0000;1.0704;1.0636;
585.3000;1.0745;1.0729;
585.6000;1.0704;1.0729;
585.9000;1.0680;1.0682;
586.2000;1.0729;1.0776;
586.5000;1.0704;1.0776;
586.8000;1.0672;1.0612;
587.1000;1.0704;1.0659;
587.4000;1.0688;1.0542;
587.7000;1.0729;1.0682;
588.0000;1.0696;1.0612;
588.3000;1.0704;1.0636;
588.6000;1.0696;1.0589;
588.9000;1.0688;1.0589;
589.2000;1.0696;1.0636;
589.5000;1.0704;1.0729;
589.8000;1.0720;1.0682;
590.1000;1.0696;1.0636;
590.4000;1.0704;1.0636;
590.7000;1.0720;1.0636;
591.0000;1.0606;1.0379;
591.3000;1.0688;1.0496;
591.6000;1.0720;1.0519;
591.9000;1.0712;1.0542;
592.2000;1.0696;1.0542;
592.5000;1.0696;1.0566;
592.8000;1.0729;1.0729;
593.1000;1.0696;1.0706;
593.4000;1.0720;1.0822;
593.7000;1.0704;1.0915;
594.0000;1.0680;1.0799;
594.3000;1.0680;1.0729;
594.6000;1.0663;1.0729;
594.9000;1.0704;1.0729;
595.2000;1.0704;1.0799;
595.5000;1.0688;1.0799;
595.8000;1.0704;1.0869;
596.1000;1.0672;1.0752;
596.4000;1.0704;1.0752;
596.7000;1.0729;1.0799;
597.0000;1.0672;1.0636;
597.3000;1.0704;1.0659;
597.6000;1.0745;1.0682;
597.9000;1.0712;1.0612;
598.2000;1.0712;1.0659;
598.5000;1.0696;1.0636;
598.8000;1.0688;1.0449;
599.1000;1.0704;1.0472;
599.4000;1.0712;1.0472;
599.7000;1.0818;1.0799;
600.0000;1.0688;1.0472;
600.3000;1.0655;1.0239;
600.6000;1.0696;1.0216;
600.9000;1.0688;1.0169;
601.2000;1.0647;1.0029;
601.5000;1.0566;0.9913;
601.8000;1.0484;0.9796;
602.1000;1.0419;0.9726;
602.4000;1.0330;0.9656;
602.7000;1.0265;0.9633;
603.0000;1.0208;0.9516;
603.3000;1.0110;0.9260;
603.6000;1.0045;0.9190;
603.9000;0.9996;0.9120;
604.2000;0.9947;0.9026;
604.5000;0.9866;0.8840;
604.8000;0.9841;0.8910;
605.1000;0.9809;0.8980;
605.4000;0.9744;0.9026;
605.7000;0.9678;0.8933;
606.0000;0.9646;0.8886;
606.3000;0.9573;0.8910;
606.6000;0.9532;0.8956;
606.9000;0.9508;0.8910;
607.2000;0.9418;0.8723;
607.5000;0.9451;0.8816;
607.8000;0.9394;0.8793;
608.1000;0.9353;0.8793;
608.4000;0.9304;0.8840;
608.7000;0.9304;0.8816;
609.0000;0.9255;0.8770;
609.3000;0.9223;0.8793;
609.6000;0.9182;0.8793;
609.9000;0.9149;0.8723;
610.2000;0.9174;0.8793;
610.5000;0.9092;0.8676;
610.8000;0.9060;0.8630;
611.1000;0.9027;0.8583;
611.4000;0.9003;0.8606;
611.7000;0.8987;0.8630;
612.0000;0.8930;0.8560;
612.3000;0.8921;0.8560;
612.6000;0.8881;0.8513;
612.9000;0.8881;0.8583;
613.2000;0.8864;0.8583;
613.5000;0.8816;0.8560;
613.8000;0.8840;0.8583;
614.1000;0.8783;0.8420;
614.4000;0.8783;0.8513;
614.7000;0.8856;0.8630;
615.0000;0.8694;0.8280;
615.3000;0.8710;0.8327;
615.6000;0.8669;0.8303;
615.9000;0.8653;0.8350;
616.2000;0.8645;0.8327;
616.5000;0.8612;0.8327;
616.8000;0.8531;0.8187;
617.1000;0.8588;0.8420;
617.4000;0.8563;0.8443;
617.7000;0.8482;0.8490;
618.0000;0.8523;0.8630;
618.3000;0.8514;0.8700;
618.6000;0.8457;0.8606;
618.9000;0.8482;0.8746;
619.2000;0.8441;0.8770;
619.5000;0.8400;0.8653;
619.8000;0.8417;0.8746;
620.1000;0.8409;0.8700;
620.4000;0.8384;0.8676;
620.7000;0.8360;0.8606;
621.0000;0.8360;0.8606;
621.3000;0.8327;0.8513;
621.6000;0.8335;0.8606;
621.9000;0.8327;0.8653;
622.2000;0.8287;0.8606;
622.5000;0.8238;0.8536;
622.8000;0.8278;0.8676;
623.1000;0.8205;0.8466;
623.4000;0.8270;0.8606;
623.7000;0.8230;0.8606;
624.0000;0.8278;0.8746;
624.3000;0.8197;0.8630;
624.6000;0.8189;0.8676;
624.9000;0.8173;0.8700;
625.2000;0.8173;0.8723;
625.5000;0.8164;0.8770;
625.8000;0.8148;0.8793;
626.1000;0.8124;0.8770;
626.4000;0.8067;0.8606;
626.7000;0.8107;0.8746;
627.0000;0.8132;0.8770;
627.3000;0.8059;0.8536;
627.6000;0.8091;0.8630;
627.9000;0.8075;0.8606;
628.2000;0.8140;0.8886;
628.5000;0.8042;0.8723;
628.8000;0.8010;0.8653;
629.1000;0.8026;0.8723;
629.4000;0.8050;0.8723;
629.7000;0.7985;0.8513;
630.0000;0.7985;0.8420;
630.3000;0.7888;0.8187;
630.6000;0.7969;0.8397;
630.9000;0.7961;0.8397;
631.2000;0.7985;0.8490;
631.5000;0.7945;0.8490;
631.8000;0.7937;0.8466;
632.1000;0.7920;0.8536;
632.4000;0.7904;0.8560;
632.7000;0.7904;0.8443;
633.0000;0.7920;0.8513;
633.3000;0.7880;0.8420;
633.6000;0.7888;0.8536;
633.9000;0.7855;0.8583;
634.2000;0.7880;0.8653;
634.5000;0.7880;0.8653;
634.8000;0.7839;0.8653;
635.1000;0.7823;0.8630;
635.4000;0.7798;0.8630;
635.7000;0.7823;0.8700;
636.0000;0.7814;0.8676;
636.3000;0.7798;0.8583;
636.6000;0.7806;0.8653;
636.9000;0.7790;0.8723;
637.2000;0.7766;0.8606;
637.5000;0.7757;0.8513;
637.8000;0.7774;0.8466;
638.1000;0.7766;0.8327;
638.4000;0.7806;0.8466;
638.7000;0.7798;0.8420;
639.0000;0.7725;0.8280;
639.3000;0.7733;0.8397;
639.6000;0.7733;0.8513;
639.9000;0.7725;0.8583;
640.2000;0.7700;0.8513;
640.5000;0.7668;0.8560;
640.8000;0.7676;0.8630;
641.1000;0.7668;0.8606;
641.4000;0.7635;0.8466;
641.7000;0.7668;0.8466;
642.0000;0.7660;0.8466;
642.3000;0.7627;0.8443;
642.6000;0.7643;0.8490;
642.9000;0.7643;0.8513;
643.2000;0.7603;0.8513;
643.5000;0.7635;0.8583;
643.8000;0.7611;0.8490;
644.1000;0.7619;0.8443;
644.4000;0.7611;0.8420;
644.7000;0.7570;0.8420;
645.0000;0.7603;0.8490;
645.3000;0.7586;0.8490;
645.6000;0.7619;0.8513;
645.9000;0.7586;0.8466;
646.2000;0.7578;0.8466;
646.5000;0.7570;0.8466;
646.8000;0.7578;0.8443;
647.1000;0.7570;0.8443;
647.4000;0.7521;0.8420;
647.7000;0.7619;0.8583;
648.0000;0.7627;0.8630;
648.3000;0.7538;0.8373;
648.6000;0.7505;0.8280;
648.9000;0.7538;0.8350;
649.2000;0.7521;0.8233;
649.5000;0.7530;0.8210;
649.8000;0.7554;0.8303;
650.1000;0.7530;0.8303;
650.4000;0.7513;0.8280;
650.7000;0.7513;0.8303;
651.0000;0.7497;0.8210;
651.3000;0.7424;0.8070;
651.6000;0.7464;0.8327;
651.9000;0.7464;0.8327;
652.2000;0.7456;0.8327;
652.5000;0.7481;0.8397;
652.8000;0.7456;0.8373;
653.1000;0.7359;0.8023;
653.4000;0.7432;0.8210;
653.7000;0.7432;0.8210;
654.0000;0.7424;0.8163;
654.3000;0.7440;0.8117;
654.6000;0.7416;0.8140;
654.9000;0.7440;0.8280;
655.2000;0.7432;0.8233;
655.5000;0.7407;0.8210;
655.8000;0.7399;0.8233;
656.1000;0.7399;0.8210;
656.4000;0.7440;0.8280;
656.7000;0.7391;0.8210;
657.0000;0.7424;0.8233;
657.3000;0.7383;0.8093;
657.6000;0.7407;0.8187;
657.9000;0.7375;0.8140;
658.2000;0.7416;0.8280;
658.5000;0.7359;0.8093;
658.8000;0.7359;0.8070;
659.1000;0.7375;0.8117;
659.4000;0.7350;0.8140;
659.7000;0.7383;0.8280;
660.0000;0.7391;0.8257;
660.3000;0.7334;0.8023;
660.6000;0.7350;0.8093;
660.9000;0.7367;0.8163;
661.2000;0.7334;0.8163;
661.5000;0.7334;0.8163;
661.8000;0.7424;0.8350;
662.1000;0.7350;0.8163;
662.4000;0.7318;0.8093;
662.7000;0.7399;0.8257;
663.0000;0.7236;0.7907;
663.3000;0.7318;0.8093;
663.6000;0.7228;0.7953;
663.9000;0.7318;0.8093;
664.2000;0.7334;0.8210;
664.5000;0.7318;0.8280;
664.8000;0.7318;0.8350;
665.1000;0.7310;0.8373;
665.4000;0.7204;0.8140;
665.7000;0.7318;0.8350;
666.0000;0.7407;0.8630;
666.3000;0.7318;0.8536;
666.6000;0.7269;0.8466;
666.9000;0.7293;0.8466;
667.2000;0.7277;0.8373;
667.5000;0.7342;0.8536;
667.8000;0.7293;0.8466;
668.1000;0.7261;0.8443;
668.4000;0.7269;0.8443;
668.7000;0.7269;0.8420;
669.0000;0.7269;0.8420;
669.3000;0.7277;0.8536;
669.6000;0.7245;0.8490;
669.9000;0.7269;0.8536;
670.2000;0.7293;0.8630;
670.5000;0.7253;0.8536;
670.8000;0.7220;0.8466;
671.1000;0.7253;0.8583;
671.4000;0.7236;0.8560;
671.7000;0.7245;0.8630;
672.0000;0.7236;0.8536;
672.3000;0.7220;0.8420;
672.6000;0.7220;0.8466;
672.9000;0.7236;0.8443;
673.2000;0.7212;0.8350;
673.5000;0.7236;0.8397;
673.8000;0.7228;0.8373;
674.1000;0.7204;0.8443;
674.4000;0.7212;0.8466;
674.7000;0.7204;0.8513;
675.0000;0.7196;0.8536;
675.3000;0.7228;0.8653;
675.6000;0.7196;0.8560;
675.9000;0.7163;0.8443;
676.2000;0.7131;0.8327;
676.5000;0.7188;0.8513;
676.8000;0.7188;0.8560;
677.1000;0.7163;0.8466;
677.4000;0.7179;0.8490;
677.7000;0.7179;0.8513;
678.0000;0.7188;0.8606;
678.3000;0.7171;0.8606;
678.6000;0.7188;0.8606;
678.9000;0.7163;0.8560;
679.2000;0.7171;0.8490;
679.5000;0.7163;0.8420;
679.8000;0.7179;0.8490;
680.1000;0.7196;0.8583;
680.4000;0.7171;0.8653;
680.7000;0.7171;0.8560;
681.0000;0.7171;0.8513;
681.3000;0.7131;0.8350;
681.6000;0.7179;0.8397;
681.9000;0.7163;0.8420;
682.2000;0.7090;0.8210;
682.5000;0.7171;0.8397;
682.8000;0.7171;0.8420;
683.1000;0.7163;0.8443;
683.4000;0.7188;0.8397;
683.7000;0.7123;0.8280;
684.0000;0.7155;0.8443;
684.3000;0.7139;0.8397;
684.6000;0.7114;0.8350;
684.9000;0.7139;0.8397;
685.2000;0.7090;0.8257;
685.5000;0.7147;0.8420;
685.8000;0.7139;0.8397;
686.1000;0.7147;0.8443;
686.4000;0.7179;0.8490;
686.7000;0.7139;0.8257;
687.0000;0.7155;0.8280;
687.3000;0.7114;0.8187;
687.6000;0.7033;0.8047;
687.9000;0.7114;0.8303;
688.2000;0.7147;0.8443;
688.5000;0.7106;0.8350;
688.8000;0.7114;0.8303;
689.1000;0.7139;0.8397;
689.4000;0.7114;0.8373;
689.7000;0.7106;0.8257;
690.0000;0.7082;0.8163;
690.3000;0.7114;0.8163;
690.6000;0.7090;0.8163;
690.9000;0.7090;0.8233;
691.2000;0.7082;0.8257;
691.5000;0.7074;0.8187;
691.8000;0.7114;0.8327;
692.1000;0.7090;0.8373;
692.4000;0.7098;0.8327;
692.7000;0.7098;0.8280;
693.0000;0.7106;0.8397;
693.3000;0.7074;0.8350;
693.6000;0.7082;0.8420;
693.9000;0.7066;0.8350;
694.2000;0.7082;0.8397;
694.5000;0.7074;0.8373;
694.8000;0.7082;0.8350;
695.1000;0.7147;0.8443;
695.4000;0.7041;0.8187;
695.7000;0.7057;0.8257;
696.0000;0.7049;0.8210;
696.3000;0.7082;0.8303;
696.6000;0.7066;0.8327;
696.9000;0.7066;0.8327;
697.2000;0.7082;0.8420;
697.5000;0.7074;0.8327;
697.8000;0.7049;0.8397;
698.1000;0.7074;0.8397;
698.4000;0.7066;0.8303;
698.7000;0.7074;0.8397;
699.0000;0.7025;0.8397;
699.3000;0.7098;0.8490;
699.6000;0.7066;0.8373;
699.9000;0.7049;0.8303;
700.2000;0.7090;0.8490;
700.5000;0.7106;0.8420;
700.8000;0.7098;0.8327;
701.1000;0.7066;0.8303;
701.4000;0.7057;0.8303;
701.7000;0.7033;0.8280;
702.0000;0.7041;0.8303;
702.3000;0.7049;0.8327;
702.6000;0.7025;0.8303;
702.9000;0.7041;0.8373;
703.2000;0.7033;0.8187;
703.5000;0.7041;0.8233;
703.8000;0.7074;0.8327;
704.1000;0.7033;0.8163;
704.4000;0.7025;0.8210;
704.7000;0.7041;0.8303;
705.0000;0.7025;0.8257;
705.3000;0.7098;0.8466;
705.6000;0.6992;0.8233;
705.9000;0.7009;0.8257;
706.2000;0.7017;0.8327;
706.5000;0.7009;0.8303;
706.8000;0.7033;0.8350;
707.1000;0.7009;0.8280;
707.4000;0.7009;0.8327;
707.7000;0.7017;0.8397;
708.0000;0.7009;0.8420;
708.3000;0.7009;0.8490;
708.6000;0.7009;0.8397;
708.9000;0.6992;0.8303;
709.2000;0.6992;0.8233;
709.5000;0.7000;0.8210;
709.8000;0.7017;0.8257;
710.1000;0.7000;0.8257;
710.4000;0.6976;0.8303;
710.7000;0.7000;0.8350;
711.0000;0.6992;0.8397;
711.3000;0.6992;0.8466;
711.6000;0.7009;0.8513;
711.9000;0.6984;0.8513;
712.2000;0.6992;0.8630;
712.5000;0.6992;0.8653;
712.8000;0.7000;0.8583;
713.1000;0.7000;0.8630;
713.4000;0.6952;0.8513;
713.7000;0.7000;0.8606;
714.0000;0.6984;0.8583;
714.3000;0.6976;0.8583;
714.6000;0.6984;0.8606;
714.9000;0.6992;0.8676;
715.2000;0.6984;0.8653;
715.5000;0.6952;0.8606;
715.8000;0.6968;0.8653;
716.1000;0.7000;0.8793;
716.4000;0.6968;0.8746;
716.7000;0.7017;0.8793;
717.0000;0.6968;0.8723;
717.3000;0.6952;0.8676;
717.6000;0.6984;0.8676;
717.9000;0.6976;0.8653;
718.2000;0.6984;0.8536;
718.5000;0.6960;0.8536;
718.8000;0.6984;0.8536;
719.1000;0.6960;0.8443;
719.4000;0.6968;0.8466;
719.7000;0.6976;0.8490;
720.0000;0.6960;0.8443;
720.3000;0.6935;0.8350;
720.6000;0.6952;0.8327;
720.9000;0.6911;0.8163;
721.2000;0.6935;0.8210;
721.5000;0.6984;0.8303;
721.8000;0.6960;0.8303;
722.1000;0.6984;0.8350;
722.4000;0.6976;0.8257;
722.7000;0.6952;0.8140;
723.0000;0.7017;0.8327;
723.3000;0.6960;0.8210;
723.6000;0.6952;0.8350;
723.9000;0.6976;0.8490;
724.2000;0.6952;0.8397;
724.5000;0.6927;0.8443;
724.8000;0.6952;0.8420;
725.1000;0.6935;0.8373;
725.4000;0.6935;0.8397;
725.7000;0.6927;0.8397;
726.0000;0.6943;0.8373;
726.3000;0.6943;0.8373;
726.6000;0.6960;0.8420;
726.9000;0.6935;0.8327;
727.2000;0.6935;0.8373;
727.5000;0.6952;0.8443;
727.8000;0.6968;0.8397;
728.1000;0.6952;0.8350;
728.4000;0.6952;0.8350;
728.7000;0.6935;0.8327;
729.0000;0.6943;0.8350;
729.3000;0.6943;0.8397;
729.6000;0.6927;0.8373;
729.9000;0.6935;0.8420;
730.2000;0.6952;0.8466;
730.5000;0.6943;0.8327;
730.8000;0.6919;0.8350;
731.1000;0.6919;0.8327;
731.4000;0.6919;0.8303;
731.7000;0.6943;0.8303;
732.0000;0.6911;0.8210;
732.3000;0.6927;0.8210;
732.6000;0.6886;0.8117;
732.9000;0.6935;0.8210;
733.2000;0.6935;0.8163;
733.5000;0.7017;0.8350;
733.8000;0.6927;0.8117;
734.1000;0.6943;0.8187;
734.4000;0.6935;0.8280;
734.7000;0.6895;0.8257;
735.0000;0.6911;0.8397;
735.3000;0.6935;0.8466;
735.6000;0.6927;0.8443;
735.9000;0.6919;0.8397;
736.2000;0.6919;0.8420;
736.5000;0.6968;0.8443;
736.8000;0.6935;0.8350;
737.1000;0.6919;0.8373;
737.4000;0.6911;0.8303;
737.7000;0.6919;0.8327;
738.0000;0.6927;0.8327;
738.3000;0.6903;0.8327;
738.6000;0.6927;0.8350;
738.9000;0.6911;0.8280;
739.2000;0.6911;0.8303;
739.5000;0.6846;0.8093;
739.8000;0.6927;0.8280;
740.1000;0.6903;0.8257;
740.4000;0.6911;0.8257;
740.7000;0.6895;0.8303;
741.0000;0.6919;0.8397;
741.3000;0.6886;0.8397;
741.6000;0.6903;0.8490;
741.9000;0.6886;0.8443;
742.2000;0.6911;0.8536;
742.5000;0.6886;0.8560;
742.8000;0.6878;0.8583;
743.1000;0.6911;0.8583;
743.4000;0.6862;0.8420;
743.7000;0.6927;0.8583;
744.0000;0.6895;0.8466;
744.3000;0.6903;0.8490;
744.6000;0.6919;0.8490;
744.9000;0.6878;0.8466;
745.2000;0.6878;0.8350;
745.5000;0.6903;0.8373;
745.8000;0.6895;0.8327;
746.1000;0.6927;0.8397;
746.4000;0.6903;0.8327;
746.7000;0.6886;0.8233;
747.0000;0.6886;0.8210;
747.3000;0.6846;0.8163;
747.6000;0.6878;0.8233;
747.9000;0.6895;0.8303;
748.2000;0.6838;0.8327;
748.5000;0.6870;0.8443;
748.8000;0.6878;0.8350;
749.1000;0.6886;0.8233;
749.4000;0.6862;0.8187;
749.7000;0.6895;0.8257;
750.0000;0.6878;0.8303;
750.3000;0.6870;0.8373;
750.6000;0.6878;0.8373;
750.9000;0.6895;0.8443;
751.2000;0.6878;0.8373;
751.5000;0.6878;0.8420;
751.8000;0.6911;0.8443;
752.1000;0.6911;0.8420;
752.4000;0.6878;0.8420;
752.7000;0.6903;0.8466;
753.0000;0.6886;0.8536;
753.3000;0.6878;0.8560;
753.6000;0.6895;0.8606;
753.9000;0.6903;0.8560;
754.2000;0.6927;0.8583;
754.5000;0.6878;0.8536;
754.8000;0.6911;0.8606;
755.1000;0.6895;0.8536;
755.4000;0.6878;0.8560;
755.7000;0.6870;0.8536;
756.0000;0.6862;0.8536;
756.3000;0.6878;0.8630;
756.6000;0.6878;0.8606;
756.9000;0.6878;0.8606;
757.2000;0.6911;0.8746;
757.5000;0.6886;0.8606;
757.8000;0.6854;0.8420;
758.1000;0.6854;0.8420;
758.4000;0.6862;0.8490;
758.7000;0.6878;0.8443;
759.0000;0.6878;0.8490;
759.3000;0.6870;0.8513;
759.6000;0.6846;0.8536;
759.9000;0.6886;0.8653;
760.2000;0.6878;0.8536;
760.5000;0.6854;0.8466;
760.8000;0.6846;0.8397;
761.1000;0.6854;0.8420;
761.4000;0.6862;0.8397;
761.7000;0.6870;0.8490;
762.0000;0.6854;0.8536;
762.3000;0.6846;0.8536;
762.6000;0.6935;0.8723;
762.9000;0.6870;0.8513;
763.2000;0.6854;0.8466;
763.5000;0.6854;0.8397;
763.8000;0.6862;0.8397;
764.1000;0.6854;0.8397;
764.4000;0.6895;0.8466;
764.7000;0.6862;0.8420;
765.0000;0.6854;0.8490;
765.3000;0.6862;0.8466;
765.6000;0.6764;0.8140;
765.9000;0.6886;0.8373;
766.2000;0.6838;0.8350;
766.5000;0.6870;0.8397;
766.8000;0.6862;0.8327;
767.1000;0.6846;0.8466;
767.4000;0.6854;0.8443;
767.7000;0.6838;0.8397;
768.0000;0.6846;0.8397;
768.3000;0.6862;0.8420;
768.6000;0.6838;0.8327;
768.9000;0.6846;0.8350;
769.2000;0.6838;0.8350;
769.5000;0.6854;0.8443;
769.8000;0.6846;0.8466;
770.1000;0.6764;0.8303;
770.4000;0.6846;0.8443;
770.7000;0.6838;0.8466;
771.0000;0.6813;0.8373;
771.3000;0.6813;0.8350;
771.6000;0.6862;0.8397;
771.9000;0.6838;0.8443;
772.2000;0.6846;0.8397;
772.5000;0.6838;0.8327;
772.8000;0.6854;0.8373;
773.1000;0.6838;0.8303;
773.4000;0.6870;0.8373;
773.7000;0.6846;0.8373;
774.0000;0.6846;0.8303;
774.3000;0.6838;0.8350;
774.6000;0.6829;0.8303;
774.9000;0.6838;0.8257;
775.2000;0.6862;0.8303;
775.5000;0.6838;0.8303;
775.8000;0.6854;0.8350;
776.1000;0.6838;0.8373;
776.4000;0.6895;0.8513;
776.7000;0.6854;0.8443;
777.0000;0.6854;0.8420;
777.3000;0.6838;0.8397;
777.6000;0.6789;0.8350;
777.9000;0.6854;0.8490;
778.2000;0.6829;0.8513;
778.5000;0.6813;0.8536;
778.8000;0.6886;0.8770;
779.1000;0.6821;0.8513;
779.4000;0.6838;0.8536;
779.7000;0.6805;0.8466;
780.0000;0.6813;0.8443;
780.3000;0.6846;0.8443;
780.6000;0.6854;0.8466;
780.9000;0.6821;0.8397;
781.2000;0.6805;0.8420;
781.5000;0.6895;0.8606;
781.8000;0.6886;0.8653;
782.1000;0.6805;0.8373;
782.4000;0.6829;0.8466;
782.7000;0.6805;0.8397;
783.0000;0.6838;0.8397;
783.3000;0.6838;0.8466;
783.6000;0.6821;0.8420;
783.9000;0.6829;0.8397;
784.2000;0.6903;0.8560;
784.5000;0.6838;0.8373;
784.8000;0.6838;0.8397;
785.1000;0.6838;0.8397;
785.4000;0.6829;0.8466;
785.7000;0.6919;0.8630;
786.0000;0.6821;0.8490;
786.3000;0.6821;0.8466;
786.6000;0.6838;0.8466;
786.9000;0.6846;0.8420;
787.2000;0.6854;0.8443;
787.5000;0.6821;0.8397;
787.8000;0.6813;0.8443;
788.1000;0.6805;0.8373;
788.4000;0.6821;0.8420;
788.7000;0.6813;0.8350;
789.0000;0.6813;0.8350;
789.3000;0.6813;0.8373;
789.6000;0.6821;0.8350;
789.9000;0.6781;0.8163;
790.2000;0.6813;0.8280;
790.5000;0.6838;0.8303;
790.8000;0.6813;0.8280;
791.1000;0.6813;0.8397;
791.4000;0.6821;0.8327;
791.7000;0.6838;0.8280;
792.0000;0.6838;0.8350;
792.3000;0.6846;0.8513;
792.6000;0.6829;0.8420;
792.9000;0.6813;0.8373;
793.2000;0.6813;0.8373;
793.5000;0.6805;0.8443;
793.8000;0.6821;0.8443;
794.1000;0.6805;0.8443;
794.4000;0.6854;0.8583;
794.7000;0.6813;0.8420;
795.0000;0.6829;0.8397;
795.3000;0.6895;0.8653;
795.6000;0.6846;0.8490;
795.9000;0.6829;0.8443;
796.2000;0.6821;0.8443;
796.5000;0.6821;0.8350;
796.8000;0.6813;0.8373;
797.1000;0.6748;0.8210;
797.4000;0.6838;0.8420;
797.7000;0.6846;0.8490;
798.0000;0.6813;0.8350;
798.3000;0.6838;0.8397;
798.6000;0.6838;0.8443;
798.9000;0.6813;0.8327;
799.2000;0.6821;0.8233;
799.5000;0.6805;0.8257;
799.8000;0.6797;0.8187;
800.1000;0.6805;0.8280;
800.4000;0.6789;0.8233;
800.7000;0.6813;0.8303;
801.0000;0.6821;0.8257;
801.3000;0.6829;0.8303;
801.6000;0.6813;0.8327;
801.9000;0.6838;0.8373;
802.2000;0.6829;0.8257;
802.5000;0.6813;0.8233;
802.8000;0.6813;0.8327;
803.1000;0.6805;0.8233;
803.4000;0.6821;0.8210;
803.7000;0.6854;0.8257;
804.0000;0.6821;0.8163;
804.3000;0.6813;0.8140;
804.6000;0.6838;0.8210;
804.9000;0.6805;0.8210;
805.2000;0.6789;0.8140;
805.5000;0.6740;0.8047;
805.8000;0.6821;0.8233;
806.1000;0.6805;0.8257;
806.4000;0.6813;0.8373;
806.7000;0.6846;0.8536;
807.0000;0.6805;0.8466;
807.3000;0.6854;0.8536;
807.6000;0.6838;0.8536;
807.9000;0.6805;0.8490;
808.2000;0.6813;0.8490;
808.5000;0.6797;0.8420;
808.8000;0.6781;0.8443;
809.1000;0.6772;0.8443;
809.4000;0.6789;0.8490;
809.7000;0.6764;0.8350;
810.0000;0.6789;0.8420;
810.3000;0.6748;0.8397;
810.6000;0.6797;0.8420;
810.9000;0.6797;0.8327;
811.2000;0.6740;0.8140;
811.5000;0.6764;0.8233;
811.8000;0.6821;0.8280;
812.1000;0.6797;0.8327;
812.4000;0.6813;0.8397;
812.7000;0.6813;0.8327;
813.0000;0.6838;0.8466;
813.3000;0.6821;0.8443;
813.6000;0.6813;0.8490;
813.9000;0.6805;0.8490;
814.2000;0.6789;0.8373;
814.5000;0.6821;0.8466;
814.8000;0.6797;0.8373;
815.1000;0.6805;0.8373;
815.4000;0.6813;0.8327;
815.7000;0.6805;0.8327;
816.0000;0.6813;0.8373;
816.3000;0.6813;0.8350;
816.6000;0.6797;0.8373;
816.9000;0.6813;0.8420;
817.2000;0.6772;0.8373;
817.5000;0.6772;0.8443;
817.8000;0.6772;0.8466;
818.1000;0.6813;0.8583;
818.4000;0.6789;0.8443;
818.7000;0.6797;0.8466;
819.0000;0.6805;0.8513;
819.3000;0.6781;0.8420;
819.6000;0.6781;0.8420;
819.9000;0.6789;0.8420;
820.2000;0.6772;0.8373;
820.5000;0.6805;0.8397;
820.8000;0.6813;0.8397;
821.1000;0.6805;0.8490;
821.4000;0.6789;0.8513;
821.7000;0.6797;0.8513;
822.0000;0.6838;0.8653;
822.3000;0.6789;0.8490;
822.6000;0.6813;0.8536;
822.9000;0.6781;0.8466;
823.2000;0.6797;0.8466;
823.5000;0.6789;0.8397;
823.8000;0.6805;0.8466;
824.1000;0.6691;0.8257;
824.4000;0.6805;0.8536;
824.7000;0.6772;0.8490;
825.0000;0.6797;0.8490;
825.3000;0.6805;0.8420;
825.6000;0.6797;0.8280;
825.9000;0.6772;0.8163;
826.2000;0.6781;0.8187;
826.5000;0.6838;0.8327;
826.8000;0.6797;0.8327;
827.1000;0.6805;0.8443;
827.4000;0.6797;0.8420;
827.7000;0.6756;0.8397;
828.0000;0.6781;0.8536;
828.3000;0.6764;0.8490;
828.6000;0.6748;0.8420;
828.9000;0.6789;0.8490;
829.2000;0.6797;0.8490;
829.5000;0.6797;0.8490;
829.8000;0.6772;0.8443;
830.1000;0.6781;0.8513;
830.4000;0.6781;0.8536;
830.7000;0.6789;0.8466;
831.0000;0.6805;0.8420;
831.3000;0.6821;0.8466;
831.6000;0.6797;0.8373;
831.9000;0.6797;0.8373;
832.2000;0.6862;0.8513;
832.5000;0.6838;0.8350;
832.8000;0.6797;0.8350;
833.1000;0.6797;0.8397;
833.4000;0.6764;0.8187;
833.7000;0.6781;0.8233;
834.0000;0.6764;0.8210;
834.3000;0.6789;0.8280;
834.6000;0.6683;0.7953;
834.9000;0.6781;0.8163;
835.2000;0.6756;0.8140;
835.5000;0.6789;0.8233;
835.8000;0.6789;0.8233;
836.1000;0.6789;0.8257;
836.4000;0.6748;0.8140;
836.7000;0.6781;0.8257;
837.0000;0.6748;0.8233;
837.3000;0.6756;0.8327;
837.6000;0.6781;0.8397;
837.9000;0.6797;0.8327;
838.2000;0.6789;0.8303;
838.5000;0.6813;0.8397;
838.8000;0.6789;0.8210;
839.1000;0.6772;0.8233;
839.4000;0.6862;0.8420;
839.7000;0.6789;0.8303;
840.0000;0.6789;0.8210;
840.3000;0.6764;0.8187;
840.6000;0.6772;0.8257;
840.9000;0.6756;0.8233;
841.2000;0.6789;0.8280;
841.5000;0.6772;0.8257;
841.8000;0.6772;0.8233;
842.1000;0.6781;0.8280;
842.4000;0.6846;0.8397;
842.7000;0.6764;0.8303;
843.0000;0.6781;0.8257;
843.3000;0.6772;0.8187;
843.6000;0.6781;0.8163;
843.9000;0.6797;0.8163;
844.2000;0.6772;0.8210;
844.5000;0.6781;0.8257;
844.8000;0.6764;0.8187;
845.1000;0.6781;0.8257;
845.4000;0.6781;0.8327;
845.7000;0.6797;0.8303;
846.0000;0.6789;0.8233;
846.3000;0.6789;0.8187;
846.6000;0.6748;0.8047;
846.9000;0.6781;0.8117;
847.2000;0.6781;0.8163;
847.5000;0.6772;0.8093;
847.8000;0.6772;0.8070;
848.1000;0.6781;0.8163;
848.4000;0.6707;0.8023;
848.7000;0.6781;0.8163;
849.0000;0.6764;0.8163;
849.3000;0.6756;0.8140;
849.6000;0.6772;0.8163;
849.9000;0.6781;0.8140;
850.2000;0.6797;0.8047;
850.5000;0.6764;0.8023;
850.8000;0.6772;0.8047;
851.1000;0.6756;0.8070;
851.4000;0.6772;0.8140;
851.7000;0.6764;0.8117;
852.0000;0.6772;0.8210;
852.3000;0.6781;0.8210;
852.6000;0.6781;0.8163;
852.9000;0.6748;0.8140;
853.2000;0.6789;0.8233;
853.5000;0.6772;0.8210;
853.8000;0.6781;0.8187;
854.1000;0.6724;0.7977;
854.4000;0.6724;0.7953;
854.7000;0.6732;0.7930;
855.0000;0.6740;0.7930;
855.3000;0.6764;0.8023;
855.6000;0.6781;0.8187;
855.9000;0.6764;0.8163;
856.2000;0.6740;0.8070;
856.5000;0.6756;0.8163;
856.8000;0.6764;0.8163;
857.1000;0.6756;0.8140;
857.4000;0.6748;0.8093;
857.7000;0.6716;0.7977;
858.0000;0.6756;0.8070;
858.3000;0.6772;0.8117;
858.6000;0.6838;0.8373;
858.9000;0.6772;0.8163;
859.2000;0.6772;0.8117;
859.5000;0.6772;0.8047;
859.8000;0.6772;0.8070;
860.1000;0.6772;0.8163;
860.4000;0.6764;0.8117;
860.7000;0.6764;0.8187;
861.0000;0.6756;0.8117;
861.3000;0.6756;0.8117;
861.6000;0.6748;0.8140;
861.9000;0.6756;0.8117;
862.2000;0.6764;0.8163;
862.5000;0.6772;0.8187;
862.8000;0.6748;0.8233;
863.1000;0.6764;0.8280;
863.4000;0.6756;0.8210;
863.7000;0.6764;0.8187;
864.0000;0.6659;0.7907;
864.3000;0.6748;0.8140;
864.6000;0.6748;0.8117;
864.9000;0.6707;0.7977;
865.2000;0.6764;0.8163;
865.5000;0.6764;0.8140;
865.8000;0.6756;0.8093;
866.1000;0.6748;0.8093;
866.4000;0.6740;0.8070;
866.7000;0.6748;0.8163;
867.0000;0.6748;0.8187;
867.3000;0.6772;0.8257;
867.6000;0.6756;0.8187;
867.9000;0.6764;0.8280;
868.2000;0.6756;0.8303;
868.5000;0.6797;0.8303;
868.8000;0.6764;0.8233;
869.1000;0.6789;0.8280;
869.4000;0.6781;0.8233;
869.7000;0.6756;0.8140;
870.0000;0.6797;0.8163;
870.3000;0.6764;0.8117;
870.6000;0.6756;0.8070;
870.9000;0.6748;0.8047;
871.2000;0.6813;0.8163;
871.5000;0.6813;0.8233;
871.8000;0.6756;0.8093;
872.1000;0.6764;0.8163;
872.4000;0.6797;0.8187;
872.7000;0.6781;0.8187;
873.0000;0.6772;0.8210;
873.3000;0.6675;0.7953;
873.6000;0.6756;0.8163;
873.9000;0.6854;0.8443;
874.2000;0.6781;0.8303;
874.5000;0.6789;0.8280;
874.8000;0.6764;0.8280;
875.1000;0.6764;0.8327;
875.4000;0.6772;0.8350;
875.7000;0.6748;0.8303;
876.0000;0.6732;0.8233;
876.3000;0.6772;0.8327;
876.6000;0.6748;0.8327;
876.9000;0.6756;0.8280;
877.2000;0.6772;0.8327;
877.5000;0.6789;0.8350;
877.8000;0.6781;0.8257;
878.1000;0.6789;0.8303;
878.4000;0.6756;0.8257;
878.7000;0.6748;0.8210;
879.0000;0.6764;0.8210;
879.3000;0.6781;0.8210;
879.6000;0.6740;0.8187;
879.9000;0.6756;0.8257;
880.2000;0.6781;0.8303;
880.5000;0.6699;0.8117;
880.8000;0.6756;0.8187;
881.1000;0.6732;0.8187;
881.4000;0.6724;0.8187;
881.7000;0.6756;0.8327;
882.0000;0.6772;0.8397;
882.3000;0.6756;0.8443;
882.6000;0.6764;0.8466;
882.9000;0.6740;0.8397;
883.2000;0.6756;0.8420;
883.5000;0.6756;0.8373;
883.8000;0.6699;0.8303;
884.1000;0.6764;0.8490;
884.4000;0.6748;0.8466;
884.7000;0.6764;0.8443;
885.0000;0.6772;0.8466;
885.3000;0.6764;0.8466;
885.6000;0.6772;0.8420;
885.9000;0.6740;0.8373;
886.2000;0.6748;0.8443;
886.5000;0.6756;0.8350;
886.8000;0.6748;0.8280;
887.1000;0.6772;0.8187;
887.4000;0.6789;0.8233;
887.7000;0.6748;0.8140;
888.0000;0.6748;0.8140;
888.3000;0.6707;0.8000;
888.6000;0.6748;0.8023;
888.9000;0.6740;0.8117;
889.2000;0.6805;0.8210;
889.5000;0.6756;0.8140;
889.8000;0.6772;0.8187;
890.1000;0.6781;0.8280;
890.4000;0.6756;0.8187;
890.7000;0.6756;0.8140;
891.0000;0.6756;0.8163;
891.3000;0.6748;0.8117;
891.6000;0.6781;0.8163;
891.9000;0.6772;0.8163;
892.2000;0.6740;0.8140;
892.5000;0.6748;0.8140;
892.8000;0.6748;0.8187;
893.1000;0.6805;0.8280;
893.4000;0.6732;0.8140;
893.7000;0.6756;0.8117;
894.0000;0.6732;0.8047;
894.3000;0.6764;0.8233;
894.6000;0.6772;0.8280;
894.9000;0.6748;0.8327;
895.2000;0.6764;0.8373;
895.5000;0.6756;0.8257;
895.8000;0.6732;0.8233;
896.1000;0.6740;0.8350;
896.4000;0.6740;0.8373;
896.7000;0.6772;0.8350;
897.0000;0.6748;0.8303;
897.3000;0.6740;0.8280;
897.6000;0.6748;0.8327;
897.9000;0.6756;0.8350;
898.2000;0.6756;0.8420;
898.5000;0.6748;0.8397;
898.8000;0.6764;0.8350;
899.1000;0.6740;0.8327;
899.4000;0.6740;0.8303;
899.7000;0.6756;0.8303;
900.0000;0.6764;0.8350;
900.3000;0.6764;0.8397;
900.6000;0.6748;0.8350;
900.9000;0.6772;0.8327;
901.2000;0.6764;0.8327;
901.5000;0.6756;0.8257;
901.8000;0.6756;0.8210;
902.1000;0.6764;0.8303;
902.4000;0.6699;0.8303;
902.7000;0.6748;0.8420;
903.0000;0.6748;0.8327;
903.3000;0.6675;0.8093;
903.6000;0.6748;0.8233;
903.9000;0.6740;0.8210;
904.2000;0.6740;0.8257;
904.5000;0.6805;0.8350;
904.8000;0.6748;0.8303;
905.1000;0.6724;0.8327;
905.4000;0.6732;0.8397;
905.7000;0.6724;0.8350;
906.0000;0.6748;0.8420;
906.3000;0.6748;0.8490;
906.6000;0.6724;0.8490;
906.9000;0.6772;0.8536;
907.2000;0.6764;0.8466;
907.5000;0.6772;0.8466;
907.8000;0.6756;0.8373;
908.1000;0.6748;0.8303;
908.4000;0.6740;0.8397;
908.7000;0.6748;0.8443;
909.0000;0.6764;0.8443;
909.3000;0.6772;0.8373;
909.6000;0.6764;0.8280;
909.9000;0.6724;0.8163;
910.2000;0.6748;0.8233;
910.5000;0.6748;0.8233;
910.8000;0.6748;0.8233;
911.1000;0.6805;0.8280;
911.4000;0.6732;0.8047;
911.7000;0.6740;0.8140;
912.0000;0.6764;0.8210;
912.3000;0.6740;0.8163;
912.6000;0.6732;0.8163;
912.9000;0.6748;0.8350;
913.2000;0.6813;0.8350;
913.5000;0.6740;0.8233;
913.8000;0.6724;0.8257;
914.1000;0.6740;0.8280;
914.4000;0.6716;0.8070;
914.7000;0.6756;0.8140;
915.0000;0.6740;0.8070;
915.3000;0.6740;0.8047;
915.6000;0.6724;0.8070;
915.9000;0.6756;0.8210;
916.2000;0.6740;0.8117;
916.5000;0.6813;0.8233;
916.8000;0.6781;0.8117;
917.1000;0.6732;0.8000;
917.4000;0.6732;0.8023;
917.7000;0.6756;0.8070;
918.0000;0.6748;0.8070;
918.3000;0.6748;0.8117;
918.6000;0.6740;0.8117;
918.9000;0.6764;0.8163;
919.2000;0.6732;0.8140;
919.5000;0.6724;0.8210;
919.8000;0.6740;0.8280;
920.1000;0.6748;0.8257;
920.4000;0.6756;0.8163;
920.7000;0.6764;0.8163;
921.0000;0.6724;0.8140;
921.3000;0.6764;0.8210;
921.6000;0.6756;0.8163;
921.9000;0.6740;0.8163;
922.2000;0.6764;0.8163;
922.5000;0.6740;0.8140;
922.8000;0.6756;0.8187;
923.1000;0.6764;0.8187;
923.4000;0.6756;0.8187;
923.7000;0.6724;0.8047;
924.0000;0.6756;0.8163;
924.3000;0.6683;0.8093;
924.6000;0.6797;0.8350;
924.9000;0.6724;0.8233;
925.2000;0.6707;0.8140;
925.5000;0.6732;0.8233;
925.8000;0.6724;0.8280;
926.1000;0.6740;0.8350;
926.4000;0.6675;0.8163;
926.7000;0.6699;0.8257;
927.0000;0.6740;0.8350;
927.3000;0.6748;0.8373;
927.6000;0.6740;0.8303;
927.9000;0.6732;0.8327;
928.2000;0.6732;0.8187;
928.5000;0.6732;0.8210;
928.8000;0.6748;0.8257;
929.1000;0.6772;0.8350;
929.4000;0.6740;0.8210;
929.7000;0.6724;0.8303;
930.0000;0.6756;0.8420;
930.3000;0.6764;0.8513;
930.6000;0.6740;0.8443;
930.9000;0.6756;0.8420;
931.2000;0.6781;0.8373;
931.5000;0.6740;0.8280;
931.8000;0.6764;0.8280;
932.1000;0.6748;0.8257;
932.4000;0.6821;0.8420;
932.7000;0.6691;0.8187;
933.0000;0.6756;0.8350;
933.3000;0.6764;0.8303;
933.6000;0.6740;0.8280;
933.9000;0.6748;0.8373;
934.2000;0.6805;0.8466;
934.5000;0.6740;0.8373;
934.8000;0.6732;0.8397;
935.1000;0.6724;0.8373;
935.4000;0.6667;0.8257;
935.7000;0.6732;0.8280;
936.0000;0.6740;0.8373;
936.3000;0.6675;0.8233;
936.6000;0.6740;0.8490;
936.9000;0.6740;0.8466;
937.2000;0.6732;0.8420;
937.5000;0.6740;0.8420;
937.8000;0.6748;0.8420;
938.1000;0.6764;0.8490;
938.4000;0.6748;0.8420;
938.7000;0.6748;0.8420;
939.0000;0.6740;0.8373;
939.3000;0.6748;0.8373;
939.6000;0.6748;0.8466;
939.9000;0.6740;0.8397;
940.2000;0.6724;0.8373;
940.5000;0.6740;0.8420;
940.8000;0.6732;0.8280;
941.1000;0.6707;0.8233;
941.4000;0.6699;0.8280;
941.7000;0.6699;0.8257;
942.0000;0.6732;0.8257;
942.3000;0.6748;0.8280;
942.6000;0.6724;0.8233;
942.9000;0.6732;0.8280;
943.2000;0.6732;0.8303;
943.5000;0.6732;0.8233;
943.8000;0.6748;0.8257;
944.1000;0.6732;0.8303;
944.4000;0.6748;0.8350;
944.7000;0.6740;0.8373;
945.0000;0.6732;0.8490;
945.3000;0.6724;0.8490;
945.6000;0.6781;0.8630;
945.9000;0.6740;0.8536;
946.2000;0.6748;0.8560;
946.5000;0.6732;0.8560;
946.8000;0.6732;0.8443;
947.1000;0.6764;0.8443;
947.4000;0.6789;0.8606;
947.7000;0.6756;0.8560;
948.0000;0.6740;0.8420;
948.3000;0.6740;0.8373;
948.6000;0.6772;0.8513;
948.9000;0.6732;0.8513;
949.2000;0.6716;0.8466;
949.5000;0.6732;0.8466;
949.8000;0.6732;0.8583;
950.1000;0.6724;0.8536;
950.4000;0.6724;0.8490;
950.7000;0.6707;0.8490;
951.0000;0.6748;0.8560;
951.3000;0.6813;0.8746;
951.6000;0.6724;0.8513;
951.9000;0.6732;0.8420;
952.2000;0.6724;0.8443;
952.5000;0.6748;0.8420;
952.8000;0.6724;0.8350;
953.1000;0.6732;0.8420;
953.4000;0.6650;0.8163;
953.7000;0.6650;0.8140;
954.0000;0.6756;0.8373;
954.3000;0.6716;0.8350;
954.6000;0.6772;0.8420;
954.9000;0.6732;0.8303;
955.2000;0.6732;0.8257;
955.5000;0.6716;0.8257;
955.8000;0.6732;0.8280;
956.1000;0.6740;0.8233;
956.4000;0.6740;0.8233;
956.7000;0.6732;0.8233;
957.0000;0.6732;0.8140;
957.3000;0.6756;0.8187;
957.6000;0.6740;0.8093;
957.9000;0.6707;0.8070;
958.2000;0.6724;0.8117;
958.5000;0.6756;0.8163;
958.8000;0.6740;0.8117;
959.1000;0.6764;0.8023;
959.4000;0.6748;0.7977;
959.7000;0.6797;0.8117;
960.0000;0.6756;0.8070;
960.3000;0.6732;0.8047;
960.6000;0.6716;0.8140;
960.9000;0.6732;0.8140;
961.2000;0.6740;0.8093;
961.5000;0.6740;0.8140;
961.8000;0.6724;0.8163;
962.1000;0.6699;0.8070;
962.4000;0.6716;0.8093;
962.7000;0.6707;0.7977;
963.0000;0.6740;0.8047;
963.3000;0.6740;0.8070;
963.6000;0.6740;0.8023;
963.9000;0.6740;0.8023;
964.2000;0.6716;0.7813;
964.5000;0.6781;0.8023;
964.8000;0.6732;0.7907;
965.1000;0.6756;0.7977;
965.4000;0.6748;0.8000;
965.7000;0.6724;0.8023;
966.0000;0.6707;0.8000;
966.3000;0.6707;0.8023;
966.6000;0.6716;0.8023;
966.9000;0.6724;0.7953;
967.2000;0.6732;0.7953;
967.5000;0.6740;0.8000;
967.8000;0.6732;0.8093;
968.1000;0.6732;0.8093;
968.4000;0.6724;0.8070;
968.7000;0.6748;0.8117;
969.0000;0.6740;0.8117;
969.3000;0.6764;0.8093;
969.6000;0.6740;0.8047;
969.9000;0.6740;0.8023;
970.2000;0.6756;0.8047;
970.5000;0.6748;0.8140;
970.8000;0.6740;0.8163;
971.1000;0.6732;0.8000;
971.4000;0.6724;0.7930;
971.7000;0.6683;0.7813;
972.0000;0.6716;0.7953;
972.3000;0.6707;0.7977;
972.6000;0.6724;0.8000;
972.9000;0.6724;0.7953;
973.2000;0.6716;0.7930;
973.5000;0.6724;0.8023;
973.8000;0.6732;0.8093;
974.1000;0.6732;0.8163;
974.4000;0.6724;0.8093;
974.7000;0.6675;0.7883;
975.0000;0.6716;0.7953;
975.3000;0.6748;0.8000;
975.6000;0.6707;0.7953;
975.9000;0.6707;0.8000;
976.2000;0.6740;0.8093;
976.5000;0.6691;0.8023;
976.8000;0.6724;0.8047;
977.1000;0.6732;0.8117;
977.4000;0.6716;0.8093;
977.7000;0.6724;0.8093;
978.0000;0.6724;0.8093;
978.3000;0.6732;0.8140;
978.6000;0.6716;0.8047;
978.9000;0.6748;0.8070;
979.2000;0.6724;0.8047;
979.5000;0.6724;0.8070;
979.8000;0.6740;0.8000;
980.1000;0.6748;0.8047;
980.4000;0.6838;0.8443;
980.7000;0.6748;0.8163;
981.0000;0.6724;0.8093;
981.3000;0.6740;0.8187;
981.6000;0.6732;0.8257;
981.9000;0.6707;0.8210;
982.2000;0.6740;0.8210;
982.5000;0.6740;0.8210;
982.8000;0.6724;0.8093;
983.1000;0.6707;0.8093;
983.4000;0.6838;0.8397;
983.7000;0.6732;0.8187;
984.0000;0.6691;0.8117;
984.3000;0.6740;0.8187;
984.6000;0.6740;0.8210;
984.9000;0.6732;0.8163;
985.2000;0.6683;0.8047;
985.5000;0.6748;0.8187;
985.8000;0.6724;0.8140;
986.1000;0.6756;0.8163;
986.4000;0.6691;0.8093;
986.7000;0.6732;0.8187;
987.0000;0.6732;0.8117;
987.3000;0.6716;0.8047;
987.6000;0.6707;0.8047;
987.9000;0.6732;0.8047;
988.2000;0.6724;0.8000;
988.5000;0.6707;0.7977;
988.8000;0.6707;0.7953;
989.1000;0.6732;0.7930;
989.4000;0.6724;0.7953;
989.7000;0.6732;0.8000;
990.0000;0.6740;0.8047;
990.3000;0.6716;0.7930;
990.6000;0.6716;0.7977;
990.9000;0.6740;0.8117;
991.2000;0.6724;0.8070;
991.5000;0.6797;0.8233;
991.8000;0.6699;0.8023;
992.1000;0.6732;0.8023;
992.4000;0.6716;0.7907;
992.7000;0.6707;0.7837;
993.0000;0.6748;0.7953;
993.3000;0.6724;0.7883;
993.6000;0.6593;0.7697;
993.9000;0.6683;0.7930;
994.2000;0.6691;0.7930;
994.5000;0.6707;0.8047;
994.8000;0.6724;0.8140;
995.1000;0.6732;0.8140;
995.4000;0.6716;0.8117;
995.7000;0.6740;0.8117;
996.0000;0.6740;0.8117;
996.3000;0.6716;0.8000;
996.6000;0.6740;0.8023;
996.9000;0.6732;0.7953;
997.2000;0.6724;0.8000;
997.5000;0.6772;0.8093;
997.8000;0.6772;0.8093;
998.1000;0.6716;0.7977;
998.4000;0.6821;0.8233;
998.7000;0.6724;0.8023;
999.0000;0.6772;0.8350;
999.3000;0.6716;0.8233;
999.6000;0.6724;0.8140;
999.9000;0.6740;0.8210;
1000.2000;0.6724;0.8233;
1000.5000;0.6716;0.8210;
1000.8000;0.6716;0.8187;
1001.1000;0.6642;0.7977;
1001.4000;0.6732;0.8140;
1001.7000;0.6699;0.8023;
1002.0000;0.6716;0.8140;
1002.3000;0.6699;0.8163;
1002.6000;0.6724;0.8210;
1002.9000;0.6699;0.8047;
1003.2000;0.6772;0.8187;
1003.5000;0.6724;0.8163;
1003.8000;0.6724;0.8093;
1004.1000;0.6748;0.8163;
1004.4000;0.6724;0.8140;
1004.7000;0.6724;0.8257;
1005.0000;0.6724;0.8187;
1005.3000;0.6740;0.8280;
1005.6000;0.6707;0.8163;
1005.9000;0.6724;0.8233;
1006.2000;0.6781;0.8420;
1006.5000;0.6716;0.8187;
1006.8000;0.6716;0.8163;
1007.1000;0.6732;0.8163;
1007.4000;0.6675;0.8093;
1007.7000;0.6716;0.8163;
1008.0000;0.6707;0.8187;
1008.3000;0.6716;0.8187;
1008.6000;0.6732;0.8303;
1008.9000;0.6724;0.8373;
1009.2000;0.6699;0.8466;
1009.5000;0.6716;0.8420;
1009.8000;0.6724;0.8373;
1010.1000;0.6732;0.8350;
1010.4000;0.6707;0.8280;
1010.7000;0.6707;0.8303;
1011.0000;0.6716;0.8257;
1011.3000;0.6707;0.8210;
1011.6000;0.6699;0.8140;
1011.9000;0.6716;0.8187;
1012.2000;0.6716;0.8117;
1012.5000;0.6756;0.8093;
1012.8000;0.6732;0.7977;
1013.1000;0.6732;0.7930;
1013.4000;0.6724;0.7930;
1013.7000;0.6724;0.7953;
1014.0000;0.6716;0.7977;
1014.3000;0.6699;0.7907;
1014.6000;0.6724;0.7953;
1014.9000;0.6724;0.7953;
1015.2000;0.6740;0.8047;
1015.5000;0.6732;0.8047;
1015.8000;0.6724;0.8023;
1016.1000;0.6699;0.7977;
1016.4000;0.6732;0.8070;
1016.7000;0.6716;0.8070;
1017.0000;0.6716;0.8093;
1017.3000;0.6699;0.8093;
1017.6000;0.6821;0.8350;
1017.9000;0.6716;0.8117;
1018.2000;0.6724;0.8117;
1018.5000;0.6716;0.8093;
1018.8000;0.6716;0.8117;
1019.1000;0.6781;0.8187;
1019.4000;0.6740;0.8093;
1019.7000;0.6707;0.8047;
1020.0000;0.6716;0.8070;
1020.3000;0.6732;0.8093;
1020.6000;0.6650;0.7930;
1020.9000;0.6732;0.8093;
1021.2000;0.6707;0.7953;
1021.5000;0.6789;0.8163;
1021.8000;0.6716;0.8117;
1022.1000;0.6716;0.8140;
1022.4000;0.6724;0.8257;
1022.7000;0.6707;0.8327;
1023.0000;0.6716;0.8327;
1023.3000;0.6707;0.8327;
1023.6000;0.6691;0.8233;
1023.9000;0.6716;0.8210;
1024.2000;0.6691;0.8140;
1024.5000;0.6691;0.8070;
1024.8000;0.6716;0.8117;
1025.1000;0.6716;0.8070;
1025.4000;0.6707;0.8047;
1025.7000;0.6707;0.8070;
1026.0000;0.6699;0.8023;
1026.3000;0.6740;0.8000;
1026.6000;0.6740;0.7930;
1026.9000;0.6732;0.7837;
1027.2000;0.6716;0.7813;
1027.5000;0.6813;0.8093;
1027.8000;0.6740;0.7930;
1028.1000;0.6740;0.8000;
1028.4000;0.6716;0.7977;
1028.7000;0.6724;0.7953;
1029.0000;0.6732;0.8070;
1029.3000;0.6732;0.8023;
1029.6000;0.6716;0.8000;
1029.9000;0.6724;0.8023;
1030.2000;0.6691;0.7930;
1030.5000;0.6707;0.7930;
1030.8000;0.6716;0.7930;
1031.1000;0.6675;0.7697;
1031.4000;0.6699;0.7697;
1031.7000;0.6716;0.7673;
1032.0000;0.6667;0.7650;
1032.3000;0.6716;0.7720;
1032.6000;0.6716;0.7743;
1032.9000;0.6707;0.7673;
1033.2000;0.6724;0.7627;
1033.5000;0.6740;0.7650;
1033.8000;0.6716;0.7627;
1034.1000;0.6716;0.7743;
1034.4000;0.6748;0.7790;
1034.7000;0.6707;0.7673;
1035.0000;0.6699;0.7720;
1035.3000;0.6724;0.7767;
1035.6000;0.6732;0.7767;
1035.9000;0.6724;0.7837;
1036.2000;0.6716;0.7953;
1036.5000;0.6716;0.8070;
1036.8000;0.6724;0.8093;
1037.1000;0.6699;0.8070;
1037.4000;0.6716;0.8140;
1037.7000;0.6716;0.8187;
1038.0000;0.6707;0.8163;
1038.3000;0.6707;0.8117;
1038.6000;0.6732;0.8023;
1038.9000;0.6732;0.7930;
1039.2000;0.6699;0.7907;
1039.5000;0.6716;0.7930;
1039.8000;0.6716;0.7977;
1040.1000;0.6650;0.7767;
1040.4000;0.6707;0.7953;
1040.7000;0.6716;0.8047;
1041.0000;0.6716;0.8070;
1041.3000;0.6732;0.8047;
1041.6000;0.6740;0.8187;
1041.9000;0.6789;0.8327;
1042.2000;0.6659;0.8000;
1042.5000;0.6740;0.8187;
1042.8000;0.6716;0.8093;
1043.1000;0.6707;0.8093;
1043.4000;0.6724;0.8000;
1043.7000;0.6659;0.7813;
1044.0000;0.6699;0.7860;
1044.3000;0.6764;0.8070;
1044.6000;0.6772;0.8117;
1044.9000;0.6707;0.8000;
1045.2000;0.6716;0.8070;
1045.5000;0.6691;0.7953;
1045.8000;0.6716;0.7953;
1046.1000;0.6724;0.7930;
1046.4000;0.6699;0.7860;
1046.7000;0.6724;0.7790;
1047.0000;0.6659;0.7743;
1047.3000;0.6724;0.7953;
1047.6000;0.6716;0.7930;
1047.9000;0.6724;0.7907;
1048.2000;0.6716;0.7953;
1048.5000;0.6683;0.7930;
1048.8000;0.6732;0.8140;
1049.1000;0.6716;0.8210;
1049.4000;0.6707;0.8210;
1049.7000;0.6707;0.8233;
1050.0000;0.6716;0.8140;
1050.3000;0.6707;0.8140;
1050.6000;0.6707;0.8140;
1050.9000;0.6740;0.8187;
1051.2000;0.6707;0.8070;
1051.5000;0.6732;0.8117;
1051.8000;0.6716;0.8117;
1052.1000;0.6724;0.8023;
1052.4000;0.6707;0.7907;
1052.7000;0.6716;0.7907;
1053.0000;0.6707;0.7813;
1053.3000;0.6732;0.8047;
1053.6000;0.6716;0.8023;
1053.9000;0.6732;0.8070;
1054.2000;0.6707;0.8047;
1054.5000;0.6724;0.8117;
1054.8000;0.6716;0.8257;
1055.1000;0.6748;0.8257;
1055.4000;0.6716;0.8280;
1055.7000;0.6707;0.8280;
1056.0000;0.6716;0.8257;
1056.3000;0.6691;0.8233;
1056.6000;0.6724;0.8257;
1056.9000;0.6675;0.8187;
1057.2000;0.6724;0.8233;
1057.5000;0.6724;0.8280;
1057.8000;0.6724;0.8350;
1058.1000;0.6707;0.8350;
1058.4000;0.6707;0.8280;
1058.7000;0.6724;0.8350;
1059.0000;0.6716;0.8397;
1059.3000;0.6683;0.8420;
1059.6000;0.6748;0.8560;
1059.9000;0.6699;0.8490;
1060.2000;0.6691;0.8466;
1060.5000;0.6724;0.8466;
1060.8000;0.6699;0.8443;
1061.1000;0.6683;0.8327;
1061.4000;0.6699;0.8373;
1061.7000;0.6716;0.8373;
1062.0000;0.6691;0.8303;
1062.3000;0.6724;0.8397;
1062.6000;0.6732;0.8420;
1062.9000;0.6691;0.8350;
1063.2000;0.6732;0.8466;
1063.5000;0.6740;0.8466;
1063.8000;0.6732;0.8420;
1064.1000;0.6740;0.8536;
1064.4000;0.6691;0.8490;
1064.7000;0.6732;0.8560;
1065.0000;0.6716;0.8466;
1065.3000;0.6707;0.8466;
1065.6000;0.6724;0.8373;
1065.9000;0.6707;0.8327;
1066.2000;0.6716;0.8350;
1066.5000;0.6659;0.8233;
1066.8000;0.6707;0.8350;
1067.1000;0.6732;0.8490;
1067.4000;0.6699;0.8327;
1067.7000;0.6707;0.8327;
1068.0000;0.6716;0.8350;
1068.3000;0.6691;0.8303;
1068.6000;0.6724;0.8397;
1068.9000;0.6724;0.8327;
1069.2000;0.6707;0.8373;
1069.5000;0.6732;0.8513;
1069.8000;0.6707;0.8490;
1070.1000;0.6716;0.8466;
1070.4000;0.6724;0.8420;
1070.7000;0.6707;0.8420;
1071.0000;0.6699;0.8420;
1071.3000;0.6707;0.8397;
1071.6000;0.6699;0.8280;
1071.9000;0.6707;0.8233;
1072.2000;0.6716;0.8303;
1072.5000;0.6724;0.8397;
1072.8000;0.6716;0.8397;
1073.1000;0.6716;0.8420;
1073.4000;0.6724;0.8350;
1073.7000;0.6707;0.8280;
1074.0000;0.6724;0.8233;
1074.3000;0.6724;0.8327;
1074.6000;0.6716;0.8280;
1074.9000;0.6716;0.8350;
1075.2000;0.6724;0.8327;
1075.5000;0.6740;0.8420;
1075.8000;0.6691;0.8350;
1076.1000;0.6699;0.8280;
1076.4000;0.6732;0.8397;
1076.7000;0.6716;0.8327;
1077.0000;0.6716;0.8373;
1077.3000;0.6699;0.8303;
1077.6000;0.6699;0.8280;
1077.9000;0.6724;0.8233;
1078.2000;0.6683;0.8070;
1078.5000;0.6740;0.8163;
1078.8000;0.6716;0.8163;
1079.1000;0.6707;0.8117;
1079.4000;0.6724;0.8327;
1079.7000;0.6707;0.8280;
1080.0000;0.6691;0.8187;
1080.3000;0.6724;0.8233;
1080.6000;0.6699;0.8093;
1080.9000;0.6764;0.8233;
1081.2000;0.6699;0.8117;
1081.5000;0.6716;0.8163;
1081.8000;0.6716;0.8233;
1082.1000;0.6716;0.8163;
1082.4000;0.6732;0.8187;
1082.7000;0.6716;0.8117;
1083.0000;0.6716;0.8210;
1083.3000;0.6691;0.8117;
1083.6000;0.6707;0.8210;
1083.9000;0.6699;0.8140;
1084.2000;0.6740;0.8210;
1084.5000;0.6683;0.8163;
1084.8000;0.6707;0.8233;
1085.1000;0.6699;0.8257;
1085.4000;0.6724;0.8303;
1085.7000;0.6707;0.8257;
1086.0000;0.6716;0.8257;
1086.3000;0.6732;0.8280;
1086.6000;0.6724;0.8187;
1086.9000;0.6675;0.8023;
1087.2000;0.6732;0.8140;
1087.5000;0.6707;0.8070;
1087.8000;0.6724;0.8070;
1088.1000;0.6675;0.7907;
1088.4000;0.6699;0.7977;
1088.7000;0.6707;0.7953;
1089.0000;0.6707;0.8070;
1089.3000;0.6724;0.8093;
1089.6000;0.6707;0.8070;
1089.9000;0.6707;0.8093;
1090.2000;0.6675;0.8093;
1090.5000;0.6707;0.8163;
1090.8000;0.6716;0.8187;
1091.1000;0.6707;0.8140;
1091.4000;0.6699;0.8047;
1091.7000;0.6716;0.7977;
1092.0000;0.6724;0.8000;
1092.3000;0.6634;0.7860;
1092.6000;0.6724;0.8140;
1092.9000;0.6707;0.8140;
1093.2000;0.6772;0.8280;
1093.5000;0.6724;0.8187;
1093.8000;0.6716;0.8210;
1094.1000;0.6699;0.8303;
1094.4000;0.6716;0.8303;
1094.7000;0.6716;0.8257;
1095.0000;0.6707;0.8257;
1095.3000;0.6699;0.8140;
1095.6000;0.6732;0.8070;
1095.9000;0.6716;0.8070;
1096.2000;0.6716;0.7953;
1096.5000;0.6699;0.7977;
1096.8000;0.6724;0.8023;
1097.1000;0.6707;0.8000;
1097.4000;0.6724;0.8047;
1097.7000;0.6691;0.8070;
1098.0000;0.6716;0.8233;
1098.3000;0.6626;0.8070;
1098.6000;0.6707;0.8210;
1098.9000;0.6691;0.8210;
1099.2000;0.6699;0.8233;
1099.5000;0.6716;0.8233;
1099.8000;0.6716;0.8117;
1100.1000;0.6699;0.8140;
1100.4000;0.6829;0.8490;
1100.7000;0.6707;0.8163;
1101.0000;0.6724;0.8233;
1101.3000;0.6716;0.8257;
1101.6000;0.6707;0.8163;
1101.9000;0.6707;0.8163;
1102.2000;0.6699;0.8140;
1102.5000;0.6716;0.8163;
1102.8000;0.6699;0.8140;
1103.1000;0.6699;0.8163;
1103.4000;0.6691;0.8117;
1103.7000;0.6716;0.8117;
1104.0000;0.6699;0.8023;
1104.3000;0.6699;0.8023;
1104.6000;0.6691;0.8070;
1104.9000;0.6699;0.8117;
1105.2000;0.6707;0.7977;
1105.5000;0.6691;0.7930;
1105.8000;0.6716;0.7977;
1106.1000;0.6626;0.7743;
1106.4000;0.6707;0.7977;
1106.7000;0.6642;0.7790;
1107.0000;0.6748;0.8000;
1107.3000;0.6724;0.8070;
1107.6000;0.6716;0.8047;
1107.9000;0.6699;0.8000;
1108.2000;0.6707;0.8047;
1108.5000;0.6716;0.8093;
1108.8000;0.6699;0.8047;
1109.1000;0.6756;0.8163;
1109.4000;0.6691;0.8000;
1109.7000;0.6716;0.8000;
1110.0000;0.6716;0.7907;
1110.3000;0.6724;0.7907;
1110.6000;0.6707;0.7837;
1110.9000;0.6724;0.7907;
1111.2000;0.6707;0.7860;
1111.5000;0.6716;0.7930;
1111.8000;0.6716;0.7977;
1112.1000;0.6699;0.7977;
1112.4000;0.6707;0.8070;
1112.7000;0.6764;0.8140;
1113.0000;0.6716;0.8047;
1113.3000;0.6716;0.7977;
1113.6000;0.6732;0.8093;
1113.9000;0.6724;0.7977;
1114.2000;0.6707;0.7907;
1114.5000;0.6707;0.7953;
1114.8000;0.6707;0.8000;
1115.1000;0.6716;0.8047;
1115.4000;0.6716;0.8023;
1115.7000;0.6707;0.8000;
1116.0000;0.6716;0.8000;
1116.3000;0.6707;0.8023;
1116.6000;0.6724;0.8000;
1116.9000;0.6699;0.7953;
1117.2000;0.6707;0.7883;
1117.5000;0.6699;0.7790;
1117.8000;0.6821;0.8000;
1118.1000;0.6683;0.7673;
1118.4000;0.6748;0.7953;
1118.7000;0.6716;0.8023;
1119.0000;0.6707;0.8117;
1119.3000;0.6724;0.8070;
1119.6000;0.6707;0.8000;
1119.9000;0.6707;0.8093;
1120.2000;0.6716;0.8093;
1120.5000;0.6659;0.7930;
1120.8000;0.6716;0.7953;
1121.1000;0.6691;0.7977;
1121.4000;0.6683;0.7953;
1121.7000;0.6707;0.8047;
1122.0000;0.6716;0.8000;
1122.3000;0.6707;0.7977;
1122.6000;0.6716;0.7977;
1122.9000;0.6707;0.7977;
1123.2000;0.6707;0.7907;
1123.5000;0.6707;0.7813;
1123.8000;0.6724;0.7930;
1124.1000;0.6716;0.7930;
1124.4000;0.6764;0.8093;
1124.7000;0.6724;0.8023;
1125.0000;0.6716;0.8117;
1125.3000;0.6707;0.8070;
1125.6000;0.6740;0.8187;
1125.9000;0.6724;0.8140;
1126.2000;0.6716;0.8000;
1126.5000;0.6740;0.8163;
1126.8000;0.6724;0.8117;
1127.1000;0.6716;0.8140;
1127.4000;0.6707;0.8070;
1127.7000;0.6699;0.8140;
1128.0000;0.6764;0.8233;
1128.3000;0.6699;0.8070;
1128.6000;0.6683;0.8000;
1128.9000;0.6691;0.8047;
1129.2000;0.6699;0.7977;
1129.5000;0.6699;0.8000;
1129.8000;0.6707;0.8117;
1130.1000;0.6699;0.8140;
1130.4000;0.6716;0.8140;
1130.7000;0.6707;0.8163;
1131.0000;0.6691;0.8140;
1131.3000;0.6764;0.8327;
1131.6000;0.6740;0.8210;
1131.9000;0.6756;0.8187;
1132.2000;0.6699;0.8070;
1132.5000;0.6699;0.8023;
1132.8000;0.6707;0.8023;
1133.1000;0.6683;0.8000;
1133.4000;0.6716;0.8070;
1133.7000;0.6699;0.7977;
1134.0000;0.6716;0.8000;
1134.3000;0.6716;0.8000;
1134.6000;0.6716;0.7953;
1134.9000;0.6683;0.7977;
1135.2000;0.6699;0.7977;
1135.5000;0.6707;0.8023;
1135.8000;0.6707;0.8093;
1136.1000;0.6699;0.8070;
1136.4000;0.6756;0.8187;
1136.7000;0.6675;0.8070;
1137.0000;0.6748;0.8210;
1137.3000;0.6716;0.8117;
1137.6000;0.6764;0.8187;
1137.9000;0.6724;0.8117;
1138.2000;0.6716;0.8070;
1138.5000;0.6642;0.7813;
1138.8000;0.6724;0.7953;
1139.1000;0.6781;0.8093;
1139.4000;0.6707;0.7977;
1139.7000;0.6667;0.7907;
1140.0000;0.6699;0.7977;
1140.3000;0.6781;0.8140;
1140.6000;0.6724;0.8070;
1140.9000;0.6724;0.8093;
1141.2000;0.6724;0.8093;
1141.5000;0.6699;0.8070;
1141.8000;0.6707;0.8070;
1142.1000;0.6716;0.8000;
1142.4000;0.6716;0.8000;
1142.7000;0.6724;0.8047;
1143.0000;0.6724;0.8023;
1143.3000;0.6707;0.8023;
1143.6000;0.6716;0.8047;
1143.9000;0.6716;0.8047;
1144.2000;0.6707;0.8140;
1144.5000;0.6716;0.8163;
1144.8000;0.6707;0.8117;
1145.1000;0.6707;0.8233;
1145.4000;0.6699;0.8257;
1145.7000;0.6667;0.8140;
1146.0000;0.6707;0.8187;
1146.3000;0.6602;0.7930;
1146.6000;0.6716;0.8117;
1146.9000;0.6756;0.8233;
1147.2000;0.6724;0.8187;
1147.5000;0.6716;0.8117;
1147.8000;0.6707;0.8163;
1148.1000;0.6724;0.8187;
1148.4000;0.6732;0.8093;
1148.7000;0.6683;0.7907;
1149.0000;0.6667;0.7930;
1149.3000;0.6634;0.7790;
1149.6000;0.6675;0.8000;
1149.9000;0.6740;0.8163;
1150.2000;0.6707;0.7953;
1150.5000;0.6691;0.7953;
1150.8000;0.6675;0.8023;
1151.1000;0.6724;0.8140;
1151.4000;0.6699;0.8140;
1151.7000;0.6691;0.8117;
1152.0000;0.6716;0.8233;
1152.3000;0.6724;0.8280;
1152.6000;0.6650;0.8070;
1152.9000;0.6699;0.8233;
1153.2000;0.6707;0.8373;
1153.5000;0.6724;0.8303;
1153.8000;0.6699;0.8327;
1154.1000;0.6724;0.8420;
1154.4000;0.6707;0.8443;
1154.7000;0.6707;0.8443;
1155.0000;0.6707;0.8420;
1155.3000;0.6691;0.8350;
1155.6000;0.6707;0.8420;
1155.9000;0.6732;0.8420;
1156.2000;0.6724;0.8397;
1156.5000;0.6707;0.8373;
1156.8000;0.6642;0.8187;
1157.1000;0.6707;0.8373;
1157.4000;0.6789;0.8513;
1157.7000;0.6683;0.8350;
1158.0000;0.6707;0.8420;
1158.3000;0.6716;0.8373;
1158.6000;0.6716;0.8350;
1158.9000;0.6748;0.8350;
1159.2000;0.6740;0.8373;
1159.5000;0.6732;0.8303;
1159.8000;0.6732;0.8373;
1160.1000;0.6716;0.8420;
1160.4000;0.6781;0.8630;
1160.7000;0.6716;0.8397;
1161.0000;0.6724;0.8443;
1161.3000;0.6740;0.8443;
1161.6000;0.6732;0.8397;
1161.9000;0.6707;0.8257;
1162.2000;0.6634;0.8070;
1162.5000;0.6659;0.8187;
1162.8000;0.6707;0.8280;
1163.1000;0.6716;0.8373;
1163.4000;0.6650;0.8117;
1163.7000;0.6724;0.8350;
1164.0000;0.6740;0.8373;
1164.3000;0.6716;0.8350;
1164.6000;0.6716;0.8257;
1164.9000;0.6716;0.8373;
1165.2000;0.6659;0.8280;
1165.5000;0.6707;0.8257;
1165.8000;0.6707;0.8257;
1166.1000;0.6699;0.8257;
1166.4000;0.6691;0.8233;
1166.7000;0.6699;0.8233;
1167.0000;0.6707;0.8327;
1167.3000;0.6675;0.8327;
1167.6000;0.6667;0.8350;
1167.9000;0.6716;0.8466;
1168.2000;0.6683;0.8420;
1168.5000;0.6699;0.8397;
1168.8000;0.6707;0.8350;
1169.1000;0.6707;0.8257;
1169.4000;0.6707;0.8163;
1169.7000;0.6683;0.8093;
1170.0000;0.6724;0.8140;
1170.3000;0.6707;0.8070;
1170.6000;0.6707;0.7953;
1170.9000;0.6716;0.8023;
1171.2000;0.6707;0.8070;
1171.5000;0.6716;0.8047;
1171.8000;0.6691;0.8000;
1172.1000;0.6707;0.8047;
1172.4000;0.6699;0.8070;
1172.7000;0.6716;0.8140;
1173.0000;0.6707;0.8163;
1173.3000;0.6691;0.8047;
1173.6000;0.6772;0.8163;
1173.9000;0.6699;0.8070;
1174.2000;0.6716;0.8023;
1174.5000;0.6699;0.8023;
1174.8000;0.6699;0.8000;
1175.1000;0.6716;0.8000;
1175.4000;0.6675;0.7907;
1175.7000;0.6707;0.8070;
1176.0000;0.6699;0.8000;
1176.3000;0.6675;0.8023;
1176.6000;0.6740;0.8233;
1176.9000;0.6691;0.8047;
1177.2000;0.6724;0.8117;
1177.5000;0.6724;0.8210;
1177.8000;0.6732;0.8257;
1178.1000;0.6716;0.8257;
1178.4000;0.6740;0.8233;
1178.7000;0.6724;0.8163;
1179.0000;0.6781;0.8187;
1179.3000;0.6821;0.8257;
1179.6000;0.6838;0.8303;
1179.9000;0.6716;0.8000;
1180.2000;0.6707;0.8047;
1180.5000;0.6732;0.8093;
1180.8000;0.6699;0.7977;
1181.1000;0.6699;0.8023;
1181.4000;0.6707;0.8000;
1181.7000;0.6707;0.7907;
1182.0000;0.6699;0.7837;
1182.3000;0.6675;0.7650;
1182.6000;0.6724;0.7767;
1182.9000;0.6699;0.7697;
1183.2000;0.6724;0.7813;
1183.5000;0.6707;0.7860;
1183.8000;0.6659;0.7790;
1184.1000;0.6716;0.7953;
1184.4000;0.6724;0.7953;
1184.7000;0.6724;0.7977;
1185.0000;0.6732;0.8070;
1185.3000;0.6724;0.7977;
1185.6000;0.6789;0.8070;
1185.9000;0.6699;0.7883;
1186.2000;0.6699;0.7790;
1186.5000;0.6732;0.7813;
1186.8000;0.6716;0.7837;
1187.1000;0.6724;0.7977;
1187.4000;0.6707;0.8000;
1187.7000;0.6707;0.8047;
1188.0000;0.6740;0.8070;
1188.3000;0.6691;0.7860;
1188.6000;0.6716;0.7767;
1188.9000;0.6707;0.7743;
1189.2000;0.6748;0.7837;
1189.5000;0.6699;0.7697;
1189.8000;0.6707;0.7790;
1190.1000;0.6724;0.7813;
1190.4000;0.6691;0.7767;
1190.7000;0.6724;0.7837;
1191.0000;0.6699;0.7813;
1191.3000;0.6716;0.7907;
1191.6000;0.6683;0.7907;
1191.9000;0.6707;0.8023;
1192.2000;0.6707;0.8140;
1192.5000;0.6805;0.8443;
1192.8000;0.6707;0.8210;
1193.1000;0.6699;0.8210;
1193.4000;0.6691;0.8117;
1193.7000;0.6691;0.8163;
1194.0000;0.6691;0.8023;
1194.3000;0.6699;0.8070;
1194.6000;0.6732;0.8187;
1194.9000;0.6699;0.8163;
1195.2000;0.6732;0.8187;
1195.5000;0.6707;0.8093;
1195.8000;0.6724;0.7953;
1196.1000;0.6716;0.8117;
1196.4000;0.6691;0.8117;
1196.7000;0.6691;0.8117;
1197.0000;0.6691;0.8140;
1197.3000;0.6716;0.8117;
1197.6000;0.6707;0.8070;
1197.9000;0.6683;0.8070;
1198.2000;0.6707;0.8070;
1198.5000;0.6659;0.7953;
1198.8000;0.6716;0.8047;
1199.1000;0.6716;0.8023;
1199.4000;0.6683;0.7953;
1199.7000;0.6716;0.8093;
1200.0000;0.6724;0.8117;
1200.3000;0.6764;0.8280;
1200.6000;0.6716;0.8140;
1200.9000;0.6740;0.8140;
1201.2000;0.6634;0.7860;
1201.5000;0.6699;0.7953;
1201.8000;0.6716;0.8070;
1202.1000;0.6650;0.7977;
1202.4000;0.6699;0.8070;
1202.7000;0.6707;0.8140;
1203.0000;0.6699;0.8070;
1203.3000;0.6716;0.8163;
1203.6000;0.6724;0.8140;
1203.9000;0.6707;0.8047;
1204.2000;0.6707;0.7977;
1204.5000;0.6707;0.8047;
1204.8000;0.6724;0.8140;
1205.1000;0.6716;0.8140;
1205.4000;0.6716;0.8140;
1205.7000;0.6724;0.8187;
1206.0000;0.6716;0.8163;
1206.3000;0.6707;0.8210;
1206.6000;0.6699;0.8163;
1206.9000;0.6781;0.8373;
1207.2000;0.6675;0.8163;
1207.5000;0.6707;0.8163;
1207.8000;0.6716;0.8117;
1208.1000;0.6716;0.8140;
1208.4000;0.6707;0.8093;
1208.7000;0.6699;0.8070;
1209.0000;0.6707;0.7953;
1209.3000;0.6707;0.7977;
1209.6000;0.6675;0.7953;
1209.9000;0.6716;0.8000;
1210.2000;0.6716;0.8070;
1210.5000;0.6716;0.8163;
1210.8000;0.6724;0.8233;
1211.1000;0.6707;0.8163;
1211.4000;0.6724;0.8163;
1211.7000;0.6699;0.8117;
1212.0000;0.6699;0.8163;
1212.3000;0.6732;0.8233;
1212.6000;0.6707;0.8187;
1212.9000;0.6699;0.8047;
1213.2000;0.6756;0.8047;
1213.5000;0.6691;0.8000;
1213.8000;0.6707;0.7977;
1214.1000;0.6691;0.7790;
1214.4000;0.6699;0.7743;
1214.7000;0.6724;0.7790;
1215.0000;0.6716;0.7930;
1215.3000;0.6732;0.7953;
1215.6000;0.6732;0.7953;
1215.9000;0.6748;0.8093;
1216.2000;0.6748;0.8070;
1216.5000;0.6724;0.8000;
1216.8000;0.6724;0.7953;
1217.1000;0.6716;0.7953;
1217.4000;0.6716;0.8000;
1217.7000;0.6716;0.8047;
1218.0000;0.6724;0.8117;
1218.3000;0.6781;0.8163;
1218.6000;0.6699;0.8000;
1218.9000;0.6740;0.8117;
1219.2000;0.6716;0.8117;
1219.5000;0.6716;0.8070;
1219.8000;0.6724;0.8163;
1220.1000;0.6724;0.8140;
1220.4000;0.6707;0.8093;
1220.7000;0.6716;0.8117;
1221.0000;0.6691;0.8140;
1221.3000;0.6716;0.8140;
1221.6000;0.6691;0.8210;
1221.9000;0.6691;0.8257;
1222.2000;0.6683;0.8093;
1222.5000;0.6716;0.8140;
1222.8000;0.6707;0.8070;
1223.1000;0.6683;0.7977;
1223.4000;0.6699;0.8023;
1223.7000;0.6732;0.8070;
1224.0000;0.6707;0.7907;
1224.3000;0.6675;0.7883;
1224.6000;0.6683;0.8000;
1224.9000;0.6707;0.8070;
1225.2000;0.6699;0.8070;
1225.5000;0.6699;0.8140;
1225.8000;0.6724;0.8070;
1226.1000;0.6707;0.8070;
1226.4000;0.6716;0.8163;
1226.7000;0.6716;0.8187;
1227.0000;0.6732;0.8303;
1227.3000;0.6683;0.8303;
1227.6000;0.6707;0.8327;
1227.9000;0.6707;0.8350;
1228.2000;0.6707;0.8327;
1228.5000;0.6732;0.8397;
1228.8000;0.6716;0.8327;
1229.1000;0.6699;0.8210;
1229.4000;0.6707;0.8117;
1229.7000;0.6707;0.8047;
1230.0000;0.6716;0.8023;
1230.3000;0.6772;0.8187;
1230.6000;0.6781;0.8303;
1230.9000;0.6772;0.8140;
1231.2000;0.6772;0.8117;
1231.5000;0.6699;0.7953;
1231.8000;0.6748;0.8093;
1232.1000;0.6716;0.7953;
1232.4000;0.6667;0.7953;
1232.7000;0.6675;0.8023;
1233.0000;0.6724;0.8187;
1233.3000;0.6764;0.8257;
1233.6000;0.6602;0.7813;
1233.9000;0.6699;0.8070;
1234.2000;0.6740;0.8140;
1234.5000;0.6667;0.8000;
1234.8000;0.6707;0.8093;
1235.1000;0.6724;0.8140;
1235.4000;0.6716;0.8093;
1235.7000;0.6707;0.8047;
1236.0000;0.6829;0.8373;
1236.3000;0.6699;0.8023;
1236.6000;0.6716;0.8070;
1236.9000;0.6724;0.8000;
1237.2000;0.6789;0.8093;
1237.5000;0.6716;0.7907;
1237.8000;0.6724;0.7953;
1238.1000;0.6707;0.7930;
1238.4000;0.6732;0.8000;
1238.7000;0.6716;0.7977;
1239.0000;0.6716;0.8140;
1239.3000;0.6667;0.8000;
1239.6000;0.6724;0.8117;
1239.9000;0.6683;0.8117;
1240.2000;0.6699;0.8070;
1240.5000;0.6683;0.8023;
1240.8000;0.6716;0.8187;
1241.1000;0.6716;0.8163;
1241.4000;0.6789;0.8327;
1241.7000;0.6716;0.8117;
1242.0000;0.6716;0.8070;
1242.3000;0.6707;0.8047;
1242.6000;0.6732;0.8163;
1242.9000;0.6707;0.8163;
1243.2000;0.6699;0.8187;
1243.5000;0.6699;0.8233;
1243.8000;0.6772;0.8373;
1244.1000;0.6707;0.8257;
1244.4000;0.6732;0.8373;
1244.7000;0.6707;0.8187;
1245.0000;0.6699;0.8140;
1245.3000;0.6707;0.8187;
1245.6000;0.6724;0.8093;
1245.9000;0.6740;0.8093;
1246.2000;0.6699;0.7883;
1246.5000;0.6707;0.7883;
1246.8000;0.6724;0.7930;
1247.1000;0.6740;0.7907;
1247.4000;0.6716;0.7883;
1247.7000;0.6691;0.7837;
1248.0000;0.6732;0.7930;
1248.3000;0.6683;0.7790;
1248.6000;0.6691;0.7860;
1248.9000;0.6691;0.7883;
1249.2000;0.6707;0.8000;
1249.5000;0.6764;0.8117;
1249.8000;0.6740;0.8023;
1250.1000;0.6691;0.7977;
1250.4000;0.6707;0.7907;
1250.7000;0.6691;0.7790;
1251.0000;0.6699;0.7673;
1251.3000;0.6724;0.7697;
1251.6000;0.6707;0.7604;
1251.9000;0.6699;0.7580;
1252.2000;0.6724;0.7580;
1252.5000;0.6740;0.7673;
1252.8000;0.6683;0.7604;
1253.1000;0.6756;0.7860;
1253.4000;0.6691;0.7720;
1253.7000;0.6699;0.7813;
1254.0000;0.6748;0.7977;
1254.3000;0.6691;0.7813;
1254.6000;0.6821;0.8163;
1254.9000;0.6732;0.7953;
1255.2000;0.6699;0.7977;
1255.5000;0.6699;0.8047;
1255.8000;0.6724;0.8163;
1256.1000;0.6626;0.7907;
1256.4000;0.6716;0.8140;
1256.7000;0.6772;0.8257;
1257.0000;0.6707;0.8210;
1257.3000;0.6716;0.8210;
1257.6000;0.6642;0.8047;
1257.9000;0.6732;0.8233;
1258.2000;0.6642;0.8000;
1258.5000;0.6691;0.8000;
1258.8000;0.6707;0.8070;
1259.1000;0.6699;0.7930;
1259.4000;0.6691;0.7860;
1259.7000;0.6724;0.7813;
1260.0000;0.6707;0.7697;
1260.3000;0.6716;0.7743;
1260.6000;0.6675;0.7673;
1260.9000;0.6732;0.7743;
1261.2000;0.6781;0.7907;
1261.5000;0.6707;0.7767;
1261.8000;0.6707;0.7813;
1262.1000;0.6699;0.7790;
1262.4000;0.6756;0.7907;
1262.7000;0.6707;0.7837;
1263.0000;0.6716;0.7883;
1263.3000;0.6699;0.7743;
1263.6000;0.6724;0.7790;
1263.9000;0.6716;0.7743;
1264.2000;0.6699;0.7697;
1264.5000;0.6707;0.7720;
1264.8000;0.6716;0.7743;
1265.1000;0.6699;0.7767;
1265.4000;0.6748;0.7860;
1265.7000;0.6789;0.7953;
1266.0000;0.6732;0.7767;
1266.3000;0.6716;0.7720;
1266.6000;0.6764;0.7860;
1266.9000;0.6707;0.7767;
1267.2000;0.6716;0.7813;
1267.5000;0.6732;0.7907;
1267.8000;0.6707;0.7837;
1268.1000;0.6683;0.7790;
1268.4000;0.6716;0.7790;
1268.7000;0.6732;0.7930;
1269.0000;0.6724;0.7860;
1269.3000;0.6716;0.7907;
1269.6000;0.6724;0.7907;
1269.9000;0.6707;0.7883;
1270.2000;0.6732;0.7930;
1270.5000;0.6732;0.7883;
1270.8000;0.6699;0.7930;
1271.1000;0.6683;0.7837;
1271.4000;0.6691;0.7860;
1271.7000;0.6683;0.7813;
1272.0000;0.6691;0.7790;
1272.3000;0.6699;0.7907;
1272.6000;0.6732;0.7930;
1272.9000;0.6707;0.7743;
1273.2000;0.6732;0.7837;
1273.5000;0.6748;0.7837;
1273.8000;0.6707;0.7743;
1274.1000;0.6699;0.7650;
1274.4000;0.6707;0.7673;
1274.7000;0.6797;0.7860;
1275.0000;0.6724;0.7720;
1275.3000;0.6716;0.7720;
1275.6000;0.6724;0.7580;
1275.9000;0.6724;0.7580;
1276.2000;0.6748;0.7697;
1276.5000;0.6667;0.7510;
1276.8000;0.6707;0.7720;
1277.1000;0.6716;0.7743;
1277.4000;0.6707;0.7697;
1277.7000;0.6699;0.7650;
1278.0000;0.6732;0.7673;
1278.3000;0.6707;0.7604;
1278.6000;0.6707;0.7604;
1278.9000;0.6707;0.7627;
1279.2000;0.6724;0.7673;
1279.5000;0.6691;0.7697;
1279.8000;0.6659;0.7627;
1280.1000;0.6699;0.7767;
1280.4000;0.6707;0.7837;
1280.7000;0.6699;0.7860;
1281.0000;0.6772;0.8047;
1281.3000;0.6650;0.7767;
1281.6000;0.6732;0.7907;
1281.9000;0.6724;0.7930;
1282.2000;0.6724;0.7977;
1282.5000;0.6699;0.7977;
1282.8000;0.6716;0.8047;
1283.1000;0.6707;0.7953;
1283.4000;0.6707;0.7883;
1283.7000;0.6707;0.7837;
1284.0000;0.6732;0.7930;
1284.3000;0.6716;0.7790;
1284.6000;0.6716;0.7743;
1284.9000;0.6716;0.7697;
1285.2000;0.6716;0.7650;
1285.5000;0.6724;0.7720;
1285.8000;0.6716;0.7627;
1286.1000;0.6724;0.7650;
1286.4000;0.6675;0.7604;
1286.7000;0.6716;0.7697;
1287.0000;0.6716;0.7650;
1287.3000;0.6716;0.7767;
1287.6000;0.6716;0.7743;
1287.9000;0.6724;0.7743;
1288.2000;0.6764;0.7790;
1288.5000;0.6732;0.7650;
1288.8000;0.6707;0.7604;
1289.1000;0.6724;0.7697;
1289.4000;0.6732;0.7743;
1289.7000;0.6724;0.7743;
1290.0000;0.6691;0.7720;
1290.3000;0.6716;0.7743;
1290.6000;0.6707;0.7697;
1290.9000;0.6716;0.7720;
1291.2000;0.6699;0.7697;
1291.5000;0.6740;0.7860;
1291.8000;0.6659;0.7650;
1292.1000;0.6724;0.7837;
1292.4000;0.6675;0.7650;
1292.7000;0.6683;0.7720;
1293.0000;0.6699;0.7697;
1293.3000;0.6691;0.7604;
1293.6000;0.6724;0.7650;
1293.9000;0.6707;0.7673;
1294.2000;0.6764;0.7860;
1294.5000;0.6724;0.7790;
1294.8000;0.6699;0.7767;
1295.1000;0.6781;0.7930;
1295.4000;0.6716;0.7813;
1295.7000;0.6724;0.7790;
1296.0000;0.6724;0.7767;
1296.3000;0.6716;0.7720;
1296.6000;0.6707;0.7604;
1296.9000;0.6732;0.7767;
1297.2000;0.6724;0.7790;
1297.5000;0.6716;0.7813;
1297.8000;0.6724;0.7743;
1298.1000;0.6716;0.7860;
1298.4000;0.6724;0.7930;
1298.7000;0.6667;0.7790;
1299.0000;0.6716;0.7953;
1299.3000;0.6740;0.7930;
1299.6000;0.6732;0.7953;
1299.9000;0.6707;0.7883;
1300.2000;0.6716;0.7930;
1300.5000;0.6716;0.7907;
1300.8000;0.6724;0.7907;
1301.1000;0.6732;0.7837;
1301.4000;0.6716;0.7907;
1301.7000;0.6707;0.7790;
1302.0000;0.6716;0.7790;
1302.3000;0.6716;0.7790;
1302.6000;0.6716;0.7860;
1302.9000;0.6707;0.7790;
1303.2000;0.6732;0.7790;
1303.5000;0.6724;0.7720;
1303.8000;0.6724;0.7743;
1304.1000;0.6716;0.7883;
1304.4000;0.6716;0.7977;
1304.7000;0.6716;0.8047;
1305.0000;0.6707;0.7977;
1305.3000;0.6707;0.7790;
1305.6000;0.6716;0.7673;
1305.9000;0.6699;0.7557;
1306.2000;0.6716;0.7627;
1306.5000;0.6716;0.7627;
1306.8000;0.6707;0.7720;
1307.1000;0.6716;0.7743;
1307.4000;0.6740;0.7790;
1307.7000;0.6724;0.7767;
1308.0000;0.6707;0.7790;
1308.3000;0.6683;0.7813;
1308.6000;0.6716;0.7837;
1308.9000;0.6707;0.7813;
1309.2000;0.6707;0.7813;
1309.5000;0.6716;0.7813;
1309.8000;0.6732;0.7930;
1310.1000;0.6707;0.7953;
1310.4000;0.6716;0.7977;
1310.7000;0.6740;0.7930;
1311.0000;0.6732;0.7930;
1311.3000;0.6732;0.7883;
1311.6000;0.6732;0.7767;
1311.9000;0.6724;0.7790;
1312.2000;0.6716;0.7837;
1312.5000;0.6732;0.7977;
1312.8000;0.6724;0.7953;
1313.1000;0.6724;0.7883;
1313.4000;0.6716;0.7813;
1313.7000;0.6707;0.8000;
1314.0000;0.6724;0.8000;
1314.3000;0.6732;0.8023;
1314.6000;0.6724;0.7883;
1314.9000;0.6716;0.7813;
1315.2000;0.6724;0.7767;
1315.5000;0.6691;0.7720;
1315.8000;0.6699;0.7767;
1316.1000;0.6740;0.7813;
1316.4000;0.6707;0.7790;
1316.7000;0.6707;0.7837;
1317.0000;0.6716;0.7930;
1317.3000;0.6707;0.7953;
1317.6000;0.6716;0.7977;
1317.9000;0.6716;0.8023;
1318.2000;0.6740;0.8070;
1318.5000;0.6716;0.7977;
1318.8000;0.6699;0.7930;
1319.1000;0.6699;0.7907;
1319.4000;0.6716;0.7930;
1319.7000;0.6732;0.7837;
1320.0000;0.6732;0.7813;
1320.3000;0.6724;0.7650;
1320.6000;0.6724;0.7487;
1320.9000;0.6732;0.7510;
1321.2000;0.6707;0.7510;
1321.5000;0.6707;0.7534;
1321.8000;0.6716;0.7673;
1322.1000;0.6740;0.7790;
1322.4000;0.6740;0.7790;
1322.7000;0.6732;0.7743;
1323.0000;0.6716;0.7697;
1323.3000;0.6707;0.7743;
1323.6000;0.6724;0.7813;
1323.9000;0.6724;0.7883;
1324.2000;0.6724;0.7883;
1324.5000;0.6707;0.7860;
1324.8000;0.6724;0.7860;
1325.1000;0.6707;0.7883;
1325.4000;0.6764;0.7907;
1325.7000;0.6667;0.7673;
1326.0000;0.6732;0.7883;
1326.3000;0.6716;0.7860;
1326.6000;0.6716;0.7860;
1326.9000;0.6716;0.7930;
1327.2000;0.6756;0.8070;
1327.5000;0.6707;0.7813;
1327.8000;0.6716;0.7697;
1328.1000;0.6699;0.7650;
1328.4000;0.6699;0.7627;
1328.7000;0.6707;0.7720;
1329.0000;0.6748;0.7813;
1329.3000;0.6724;0.7720;
1329.6000;0.6716;0.7720;
1329.9000;0.6724;0.7883;
1330.2000;0.6724;0.7860;
1330.5000;0.6756;0.7953;
1330.8000;0.6724;0.7860;
1331.1000;0.6699;0.7813;
1331.4000;0.6724;0.7883;
1331.7000;0.6724;0.7907;
1332.0000;0.6740;0.7953;
1332.3000;0.6659;0.7743;
1332.6000;0.6707;0.7837;
1332.9000;0.6740;0.7930;
1333.2000;0.6707;0.7883;
1333.5000;0.6716;0.7953;
1333.8000;0.6716;0.8023;
1334.1000;0.6724;0.8000;
1334.4000;0.6740;0.8093;
1334.7000;0.6716;0.8000;
1335.0000;0.6740;0.8117;
1335.3000;0.6716;0.8093;
1335.6000;0.6699;0.8047;
1335.9000;0.6716;0.8070;
1336.2000;0.6716;0.8117;
1336.5000;0.6716;0.8140;
1336.8000;0.6707;0.7977;
1337.1000;0.6707;0.7953;
1337.4000;0.6699;0.7930;
1337.7000;0.6683;0.7837;
1338.0000;0.6732;0.7883;
1338.3000;0.6724;0.7860;
1338.6000;0.6707;0.7767;
1338.9000;0.6707;0.7790;
1339.2000;0.6691;0.7837;
1339.5000;0.6707;0.7860;
1339.8000;0.6699;0.7860;
1340.1000;0.6707;0.7930;
1340.4000;0.6699;0.7907;
1340.7000;0.6618;0.7813;
1341.0000;0.6691;0.7977;
1341.3000;0.6716;0.7953;
1341.6000;0.6748;0.8000;
1341.9000;0.6732;0.7907;
1342.2000;0.6740;0.7883;
1342.5000;0.6691;0.7743;
1342.8000;0.6838;0.8047;
1343.1000;0.6732;0.7860;
1343.4000;0.6707;0.7837;
1343.7000;0.6724;0.8000;
1344.0000;0.6699;0.7953;
1344.3000;0.6716;0.8023;
1344.6000;0.6732;0.8000;
1344.9000;0.6707;0.7860;
1345.2000;0.6699;0.7930;
1345.5000;0.6699;0.7860;
1345.8000;0.6732;0.8000;
1346.1000;0.6805;0.8163;
1346.4000;0.6716;0.7977;
1346.7000;0.6732;0.7977;
1347.0000;0.6740;0.8023;
1347.3000;0.6724;0.7977;
1347.6000;0.6699;0.7860;
1347.9000;0.6716;0.7837;
1348.2000;0.6683;0.7743;
1348.5000;0.6691;0.7907;
1348.8000;0.6724;0.7953;
1349.1000;0.6732;0.7883;
1349.4000;0.6716;0.7953;
1349.7000;0.6772;0.8070;
1350.0000;0.6716;0.7977;
1350.3000;0.6707;0.8023;
1350.6000;0.6642;0.7907;
1350.9000;0.6724;0.8070;
1351.2000;0.6789;0.8187;
1351.5000;0.6716;0.8000;
1351.8000;0.6716;0.8000;
1352.1000;0.6732;0.8000;
1352.4000;0.6707;0.7930;
1352.7000;0.6732;0.7977;
1353.0000;0.6716;0.7930;
1353.3000;0.6732;0.7977;
1353.6000;0.6716;0.7953;
1353.9000;0.6634;0.7720;
1354.2000;0.6699;0.7860;
1354.5000;0.6699;0.7907;
1354.8000;0.6707;0.7837;
1355.1000;0.6707;0.7883;
1355.4000;0.6707;0.7977;
1355.7000;0.6716;0.8023;
1356.0000;0.6707;0.7977;
1356.3000;0.6732;0.8047;
1356.6000;0.6724;0.8023;
1356.9000;0.6707;0.8047;
1357.2000;0.6724;0.8000;
1357.5000;0.6724;0.8000;
1357.8000;0.6707;0.7977;
1358.1000;0.6716;0.7930;
1358.4000;0.6740;0.7907;
1358.7000;0.6707;0.7907;
1359.0000;0.6724;0.7860;
1359.3000;0.6707;0.7813;
1359.6000;0.6732;0.7907;
1359.9000;0.6724;0.7860;
1360.2000;0.6707;0.7837;
1360.5000;0.6707;0.7860;
1360.8000;0.6699;0.7953;
1361.1000;0.6724;0.8070;
1361.4000;0.6724;0.8000;
1361.7000;0.6716;0.8000;
1362.0000;0.6732;0.8000;
1362.3000;0.6724;0.8000;
1362.6000;0.6740;0.8047;
1362.9000;0.6732;0.8070;
1363.2000;0.6699;0.7953;
1363.5000;0.6699;0.7883;
1363.8000;0.6610;0.7673;
1364.1000;0.6732;0.8023;
1364.4000;0.6716;0.7977;
1364.7000;0.6724;0.8140;
1365.0000;0.6797;0.8327;
1365.3000;0.6707;0.8023;
1365.6000;0.6732;0.8000;
1365.9000;0.6732;0.8047;
1366.2000;0.6675;0.7930;
1366.5000;0.6740;0.8023;
1366.8000;0.6716;0.8000;
1367.1000;0.6724;0.7977;
1367.4000;0.6740;0.8093;
1367.7000;0.6724;0.8000;
1368.0000;0.6732;0.8023;
1368.3000;0.6716;0.8023;
1368.6000;0.6724;0.7977;
1368.9000;0.6634;0.7767;
1369.2000;0.6691;0.7930;
1369.5000;0.6724;0.8093;
1369.8000;0.6716;0.8047;
1370.1000;0.6707;0.8023;
1370.4000;0.6724;0.7977;
1370.7000;0.6683;0.7907;
1371.0000;0.6667;0.7930;
1371.3000;0.6716;0.8047;
1371.6000;0.6699;0.7930;
1371.9000;0.6732;0.7977;
1372.2000;0.6772;0.8000;
1372.5000;0.6716;0.7907;
1372.8000;0.6732;0.7907;
1373.1000;0.6716;0.7930;
1373.4000;0.6691;0.7813;
1373.7000;0.6732;0.7883;
1374.0000;0.6683;0.7790;
1374.3000;0.6724;0.7883;
1374.6000;0.6683;0.7883;
1374.9000;0.6707;0.7930;
1375.2000;0.6683;0.7907;
1375.5000;0.6781;0.8140;
1375.8000;0.6699;0.8070;
1376.1000;0.6699;0.8140;
1376.4000;0.6724;0.8070;
1376.7000;0.6716;0.8000;
1377.0000;0.6732;0.7977;
1377.3000;0.6724;0.7930;
1377.6000;0.6716;0.8000;
1377.9000;0.6740;0.7977;
1378.2000;0.6724;0.7953;
1378.5000;0.6740;0.7977;
1378.8000;0.6716;0.7953;
1379.1000;0.6707;0.7977;
1379.4000;0.6724;0.8023;
1379.7000;0.6716;0.8140;
1380.0000;0.6716;0.8163;
1380.3000;0.6707;0.8070;
1380.6000;0.6748;0.8047;
1380.9000;0.6732;0.8000;
1381.2000;0.6716;0.8023;
1381.5000;0.6732;0.8047;
1381.8000;0.6789;0.8093;
1382.1000;0.6724;0.7953;
1382.4000;0.6707;0.7953;
1382.7000;0.6724;0.8047;
1383.0000;0.6724;0.7953;
1383.3000;0.6724;0.7977;
1383.6000;0.6732;0.8047;
1383.9000;0.6716;0.8047;
1384.2000;0.6707;0.8047;
1384.5000;0.6732;0.8047;
1384.8000;0.6716;0.8070;
1385.1000;0.6707;0.7907;
1385.4000;0.6724;0.7977;
1385.7000;0.6716;0.8000;
1386.0000;0.6724;0.7977;
1386.3000;0.6724;0.7930;
1386.6000;0.6748;0.8000;
1386.9000;0.6732;0.7860;
1387.2000;0.6724;0.7860;
1387.5000;0.6724;0.7907;
1387.8000;0.6716;0.7930;
1388.1000;0.6732;0.8000;
1388.4000;0.6732;0.7977;
1388.7000;0.6716;0.7907;
1389.0000;0.6724;0.7930;
1389.3000;0.6740;0.7953;
1389.6000;0.6724;0.7907;
1389.9000;0.6716;0.7930;
1390.2000;0.6732;0.7977;
1390.5000;0.6707;0.7860;
1390.8000;0.6707;0.8000;
1391.1000;0.6699;0.7977;
1391.4000;0.6724;0.8000;
1391.7000;0.6707;0.8047;
1392.0000;0.6707;0.8117;
1392.3000;0.6716;0.8117;
1392.6000;0.6699;0.8140;
1392.9000;0.6707;0.8233;
1393.2000;0.6716;0.8257;
1393.5000;0.6716;0.8257;
1393.8000;0.6724;0.8327;
1394.1000;0.6707;0.8210;
1394.4000;0.6707;0.8093;
1394.7000;0.6691;0.7953;
1395.0000;0.6707;0.7930;
1395.3000;0.6699;0.7883;
1395.6000;0.6724;0.8023;
1395.9000;0.6732;0.8117;
1396.2000;0.6699;0.7953;
1396.5000;0.6707;0.8000;
1396.8000;0.6707;0.8023;
1397.1000;0.6683;0.7953;
1397.4000;0.6716;0.8093;
1397.7000;0.6716;0.8187;
1398.0000;0.6724;0.8233;
1398.3000;0.6716;0.8233;
1398.6000;0.6716;0.8233;
1398.9000;0.6707;0.8187;
1399.2000;0.6724;0.8070;
1399.5000;0.6724;0.8023;
1399.8000;0.6707;0.8000;
