time/ms;Fluo/V;P700 deltaI/I x10³;
-199.8000;0.7025;0.9493;
-199.5000;0.7041;0.9633;
-199.2000;0.7074;0.9633;
-198.9000;0.7033;0.9586;
-198.6000;0.7033;0.9493;
-198.3000;0.7033;0.9446;
-198.0000;0.7033;0.9423;
-197.7000;0.7025;0.9399;
-197.4000;0.7033;0.9493;
-197.1000;0.7057;0.9469;
-196.8000;0.7049;0.9353;
-196.5000;0.7041;0.9329;
-196.2000;0.7041;0.9376;
-195.9000;0.7017;0.9283;
-195.6000;0.7017;0.9423;
-195.3000;0.7066;0.9563;
-195.0000;0.7033;0.9516;
-194.7000;0.7049;0.9516;
-194.4000;0.7114;0.9563;
-194.1000;0.7074;0.9493;
-193.8000;0.7106;0.9703;
-193.5000;0.7033;0.9539;
-193.2000;0.7049;0.9493;
-192.9000;0.7025;0.9469;
-192.6000;0.7066;0.9493;
-192.3000;0.7114;0.9656;
-192.0000;0.7000;0.9493;
-191.7000;0.7074;0.9656;
-191.4000;0.7041;0.9563;
-191.1000;0.7025;0.9563;
-190.8000;0.7049;0.9656;
-190.5000;0.7033;0.9609;
-190.2000;0.7066;0.9633;
-189.9000;0.6992;0.9493;
-189.6000;0.7025;0.9586;
-189.3000;0.7041;0.9586;
-189.0000;0.7049;0.9609;
-188.7000;0.7123;0.9819;
-188.4000;0.7049;0.9633;
-188.1000;0.7033;0.9539;
-187.8000;0.7066;0.9633;
-187.5000;0.7049;0.9609;
-187.2000;0.7009;0.9493;
-186.9000;0.7057;0.9586;
-186.6000;0.7049;0.9563;
-186.3000;0.7049;0.9516;
-186.0000;0.7041;0.9446;
-185.7000;0.7066;0.9423;
-185.4000;0.7049;0.9329;
-185.1000;0.7074;0.9353;
-184.8000;0.7041;0.9329;
-184.5000;0.7033;0.9353;
-184.2000;0.7017;0.9329;
-183.9000;0.7049;0.9446;
-183.6000;0.7025;0.9399;
-183.3000;0.7106;0.9563;
-183.0000;0.7066;0.9399;
-182.7000;0.7049;0.9353;
-182.4000;0.7017;0.9306;
-182.1000;0.7098;0.9376;
-181.8000;0.7017;0.9190;
-181.5000;0.7041;0.9236;
-181.2000;0.7000;0.9120;
-180.9000;0.7057;0.9213;
-180.6000;0.7049;0.9283;
-180.3000;0.7049;0.9283;
-180.0000;0.7033;0.9306;
-179.7000;0.7082;0.9423;
-179.4000;0.7041;0.9329;
-179.1000;0.7017;0.9236;
-178.8000;0.7041;0.9376;
-178.5000;0.7082;0.9539;
-178.2000;0.7041;0.9493;
-177.9000;0.7033;0.9469;
-177.6000;0.7041;0.9469;
-177.3000;0.7000;0.9283;
-177.0000;0.7025;0.9376;
-176.7000;0.7082;0.9469;
-176.4000;0.7066;0.9399;
-176.1000;0.7033;0.9446;
-175.8000;0.7066;0.9446;
-175.5000;0.7057;0.9399;
-175.2000;0.7041;0.9399;
-174.9000;0.7074;0.9399;
-174.6000;0.7066;0.9469;
-174.3000;0.7098;0.9609;
-174.0000;0.7066;0.9563;
-173.7000;0.7066;0.9539;
-173.4000;0.7049;0.9446;
-173.1000;0.7041;0.9423;
-172.8000;0.7049;0.9399;
-172.5000;0.7057;0.9376;
-172.2000;0.7041;0.9283;
-171.9000;0.7057;0.9376;
-171.6000;0.7049;0.9423;
-171.3000;0.7033;0.9469;
-171.0000;0.7041;0.9493;
-170.7000;0.7066;0.9493;
-170.4000;0.7000;0.9260;
-170.1000;0.7033;0.9423;
-169.8000;0.7041;0.9539;
-169.5000;0.7066;0.9609;
-169.2000;0.7025;0.9586;
-168.9000;0.7049;0.9726;
-168.6000;0.7057;0.9726;
-168.3000;0.7139;0.9866;
-168.0000;0.7049;0.9609;
-167.7000;0.7049;0.9609;
-167.4000;0.7082;0.9679;
-167.1000;0.7066;0.9679;
-166.8000;0.7049;0.9633;
-166.5000;0.7041;0.9586;
-166.2000;0.7025;0.9539;
-165.9000;0.6992;0.9353;
-165.6000;0.7049;0.9493;
-165.3000;0.7049;0.9423;
-165.0000;0.7033;0.9329;
-164.7000;0.7033;0.9353;
-164.4000;0.7049;0.9399;
-164.1000;0.7049;0.9423;
-163.8000;0.7041;0.9516;
-163.5000;0.7049;0.9633;
-163.2000;0.7057;0.9609;
-162.9000;0.7057;0.9586;
-162.6000;0.7049;0.9609;
-162.3000;0.7041;0.9633;
-162.0000;0.7066;0.9726;
-161.7000;0.7057;0.9749;
-161.4000;0.7041;0.9679;
-161.1000;0.7049;0.9516;
-160.8000;0.7049;0.9563;
-160.5000;0.7057;0.9586;
-160.2000;0.7049;0.9493;
-159.9000;0.7066;0.9563;
-159.6000;0.7041;0.9493;
-159.3000;0.7025;0.9446;
-159.0000;0.7049;0.9493;
-158.7000;0.7049;0.9446;
-158.4000;0.7057;0.9493;
-158.1000;0.7057;0.9446;
-157.8000;0.7041;0.9376;
-157.5000;0.7041;0.9306;
-157.2000;0.7041;0.9283;
-156.9000;0.7033;0.9283;
-156.6000;0.7041;0.9353;
-156.3000;0.7057;0.9306;
-156.0000;0.7025;0.9353;
-155.7000;0.7066;0.9446;
-155.4000;0.7041;0.9423;
-155.1000;0.7049;0.9469;
-154.8000;0.7025;0.9469;
-154.5000;0.7041;0.9469;
-154.2000;0.7057;0.9446;
-153.9000;0.7017;0.9376;
-153.6000;0.7033;0.9469;
-153.3000;0.7033;0.9609;
-153.0000;0.7066;0.9633;
-152.7000;0.7041;0.9493;
-152.4000;0.7033;0.9493;
-152.1000;0.7033;0.9446;
-151.8000;0.7041;0.9399;
-151.5000;0.7057;0.9469;
-151.2000;0.7033;0.9586;
-150.9000;0.7033;0.9586;
-150.6000;0.7033;0.9633;
-150.3000;0.7057;0.9679;
-150.0000;0.7049;0.9633;
-149.7000;0.7057;0.9539;
-149.4000;0.7049;0.9539;
-149.1000;0.7049;0.9516;
-148.8000;0.7033;0.9469;
-148.5000;0.7057;0.9563;
-148.2000;0.7025;0.9469;
-147.9000;0.7041;0.9423;
-147.6000;0.7041;0.9353;
-147.3000;0.7057;0.9376;
-147.0000;0.7025;0.9329;
-146.7000;0.7049;0.9353;
-146.4000;0.7074;0.9423;
-146.1000;0.7057;0.9423;
-145.8000;0.7017;0.9353;
-145.5000;0.7025;0.9329;
-145.2000;0.7017;0.9353;
-144.9000;0.7033;0.9446;
-144.6000;0.7041;0.9399;
-144.3000;0.7049;0.9446;
-144.0000;0.7049;0.9446;
-143.7000;0.7041;0.9446;
-143.4000;0.7033;0.9469;
-143.1000;0.7057;0.9469;
-142.8000;0.7041;0.9423;
-142.5000;0.7041;0.9446;
-142.2000;0.7041;0.9446;
-141.9000;0.7074;0.9516;
-141.6000;0.7074;0.9516;
-141.3000;0.7057;0.9539;
-141.0000;0.7041;0.9376;
-140.7000;0.6976;0.9260;
-140.4000;0.7000;0.9306;
-140.1000;0.7049;0.9376;
-139.8000;0.7066;0.9376;
-139.5000;0.7009;0.9260;
-139.2000;0.7057;0.9260;
-138.9000;0.7049;0.9166;
-138.6000;0.7057;0.9073;
-138.3000;0.7049;0.9073;
-138.0000;0.6968;0.8910;
-137.7000;0.7057;0.9166;
-137.4000;0.7066;0.9260;
-137.1000;0.7057;0.9306;
-136.8000;0.7066;0.9329;
-136.5000;0.7041;0.9260;
-136.2000;0.7041;0.9283;
-135.9000;0.7245;0.9679;
-135.6000;0.7025;0.9143;
-135.3000;0.7041;0.9213;
-135.0000;0.7033;0.9236;
-134.7000;0.7025;0.9213;
-134.4000;0.7025;0.9213;
-134.1000;0.7033;0.9306;
-133.8000;0.7049;0.9376;
-133.5000;0.7025;0.9283;
-133.2000;0.7033;0.9260;
-132.9000;0.7049;0.9213;
-132.6000;0.7041;0.9190;
-132.3000;0.7033;0.9190;
-132.0000;0.7033;0.9236;
-131.7000;0.7033;0.9236;
-131.4000;0.7033;0.9236;
-131.1000;0.7009;0.9190;
-130.8000;0.7057;0.9213;
-130.5000;0.7025;0.9120;
-130.2000;0.7033;0.9283;
-129.9000;0.7049;0.9329;
-129.6000;0.7041;0.9329;
-129.3000;0.7041;0.9329;
-129.0000;0.7049;0.9306;
-128.7000;0.7057;0.9306;
-128.4000;0.7066;0.9306;
-128.1000;0.6992;0.9120;
-127.8000;0.7057;0.9260;
-127.5000;0.7041;0.9260;
-127.2000;0.7041;0.9329;
-126.9000;0.7041;0.9376;
-126.6000;0.7049;0.9306;
-126.3000;0.7049;0.9329;
-126.0000;0.7057;0.9329;
-125.7000;0.7041;0.9329;
-125.4000;0.7041;0.9423;
-125.1000;0.7057;0.9423;
-124.8000;0.7033;0.9446;
-124.5000;0.7041;0.9446;
-124.2000;0.7041;0.9469;
-123.9000;0.7049;0.9446;
-123.6000;0.7074;0.9446;
-123.3000;0.7049;0.9423;
-123.0000;0.7033;0.9399;
-122.7000;0.7049;0.9446;
-122.4000;0.7049;0.9399;
-122.1000;0.7033;0.9306;
-121.8000;0.7057;0.9353;
-121.5000;0.7041;0.9283;
-121.2000;0.7025;0.9283;
-120.9000;0.7066;0.9329;
-120.6000;0.7049;0.9423;
-120.3000;0.7057;0.9469;
-120.0000;0.7049;0.9423;
-119.7000;0.7033;0.9493;
-119.4000;0.7041;0.9539;
-119.1000;0.7049;0.9539;
-118.8000;0.7041;0.9516;
-118.5000;0.7041;0.9493;
-118.2000;0.7098;0.9633;
-117.9000;0.6992;0.9353;
-117.6000;0.7049;0.9493;
-117.3000;0.7066;0.9633;
-117.0000;0.7041;0.9539;
-116.7000;0.7049;0.9633;
-116.4000;0.6984;0.9539;
-116.1000;0.7033;0.9679;
-115.8000;0.7074;0.9703;
-115.5000;0.7041;0.9609;
-115.2000;0.7123;0.9843;
-114.9000;0.7041;0.9609;
-114.6000;0.7041;0.9516;
-114.3000;0.7057;0.9353;
-114.0000;0.7049;0.9236;
-113.7000;0.7033;0.9283;
-113.4000;0.7041;0.9329;
-113.1000;0.7057;0.9376;
-112.8000;0.7033;0.9306;
-112.5000;0.7033;0.9190;
-112.2000;0.7041;0.9329;
-111.9000;0.7057;0.9353;
-111.6000;0.7049;0.9283;
-111.3000;0.7049;0.9306;
-111.0000;0.7009;0.9306;
-110.7000;0.7057;0.9423;
-110.4000;0.6984;0.9283;
-110.1000;0.7033;0.9353;
-109.8000;0.6960;0.9283;
-109.5000;0.7017;0.9446;
-109.2000;0.7041;0.9399;
-108.9000;0.7033;0.9353;
-108.6000;0.7033;0.9306;
-108.3000;0.7057;0.9446;
-108.0000;0.7049;0.9423;
-107.7000;0.7041;0.9399;
-107.4000;0.7041;0.9353;
-107.1000;0.7066;0.9399;
-106.8000;0.7041;0.9353;
-106.5000;0.7066;0.9376;
-106.2000;0.7000;0.9236;
-105.9000;0.7025;0.9353;
-105.6000;0.7049;0.9423;
-105.3000;0.7057;0.9469;
-105.0000;0.7025;0.9399;
-104.7000;0.7041;0.9353;
-104.4000;0.7049;0.9353;
-104.1000;0.7049;0.9329;
-103.8000;0.7049;0.9353;
-103.5000;0.7033;0.9260;
-103.2000;0.7033;0.9329;
-102.9000;0.7033;0.9353;
-102.6000;0.7033;0.9399;
-102.3000;0.7033;0.9446;
-102.0000;0.7049;0.9516;
-101.7000;0.7066;0.9586;
-101.4000;0.7033;0.9469;
-101.1000;0.7041;0.9376;
-100.8000;0.7025;0.9283;
-100.5000;0.7041;0.9213;
-100.2000;0.7041;0.9120;
-99.9000;0.7074;0.9213;
-99.6000;0.7025;0.9050;
-99.3000;0.7017;0.9096;
-99.0000;0.7066;0.9190;
-98.7000;0.7033;0.9166;
-98.4000;0.7017;0.9213;
-98.1000;0.7057;0.9329;
-97.8000;0.7066;0.9446;
-97.5000;0.7017;0.9399;
-97.2000;0.7025;0.9446;
-96.9000;0.7033;0.9423;
-96.6000;0.7041;0.9423;
-96.3000;0.7041;0.9423;
-96.0000;0.7123;0.9656;
-95.7000;0.7041;0.9539;
-95.4000;0.7049;0.9563;
-95.1000;0.7009;0.9446;
-94.8000;0.7033;0.9446;
-94.5000;0.7049;0.9446;
-94.2000;0.7049;0.9516;
-93.9000;0.7049;0.9423;
-93.6000;0.7057;0.9399;
-93.3000;0.7041;0.9353;
-93.0000;0.7025;0.9353;
-92.7000;0.7025;0.9399;
-92.4000;0.7025;0.9539;
-92.1000;0.7009;0.9493;
-91.8000;0.7049;0.9493;
-91.5000;0.7049;0.9423;
-91.2000;0.7131;0.9633;
-90.9000;0.7049;0.9423;
-90.6000;0.7049;0.9423;
-90.3000;0.7049;0.9399;
-90.0000;0.7049;0.9423;
-89.7000;0.7098;0.9609;
-89.4000;0.7057;0.9423;
-89.1000;0.7041;0.9353;
-88.8000;0.7041;0.9260;
-88.5000;0.6984;0.9120;
-88.2000;0.7033;0.9376;
-87.9000;0.7041;0.9446;
-87.6000;0.7049;0.9469;
-87.3000;0.7074;0.9539;
-87.0000;0.7033;0.9563;
-86.7000;0.7049;0.9633;
-86.4000;0.7074;0.9679;
-86.1000;0.7049;0.9609;
-85.8000;0.7025;0.9539;
-85.5000;0.6943;0.9469;
-85.2000;0.7057;0.9703;
-84.9000;0.7057;0.9726;
-84.6000;0.7041;0.9609;
-84.3000;0.7009;0.9586;
-84.0000;0.7057;0.9633;
-83.7000;0.7049;0.9539;
-83.4000;0.7041;0.9399;
-83.1000;0.7049;0.9353;
-82.8000;0.7074;0.9399;
-82.5000;0.7049;0.9353;
-82.2000;0.7049;0.9213;
-81.9000;0.7049;0.9190;
-81.6000;0.7041;0.9096;
-81.3000;0.7057;0.9260;
-81.0000;0.7057;0.9329;
-80.7000;0.7041;0.9306;
-80.4000;0.7066;0.9376;
-80.1000;0.7017;0.9283;
-79.8000;0.7066;0.9399;
-79.5000;0.7041;0.9353;
-79.2000;0.7066;0.9493;
-78.9000;0.7106;0.9609;
-78.6000;0.7041;0.9423;
-78.3000;0.7066;0.9423;
-78.0000;0.7025;0.9306;
-77.7000;0.7025;0.9283;
-77.4000;0.7049;0.9353;
-77.1000;0.7114;0.9469;
-76.8000;0.7049;0.9283;
-76.5000;0.7041;0.9283;
-76.2000;0.7041;0.9260;
-75.9000;0.7000;0.9166;
-75.6000;0.7049;0.9236;
-75.3000;0.7025;0.9260;
-75.0000;0.7009;0.9283;
-74.7000;0.7074;0.9516;
-74.4000;0.7033;0.9446;
-74.1000;0.7057;0.9446;
-73.8000;0.7041;0.9423;
-73.5000;0.7082;0.9539;
-73.2000;0.7017;0.9306;
-72.9000;0.7049;0.9399;
-72.6000;0.7049;0.9376;
-72.3000;0.7057;0.9399;
-72.0000;0.7057;0.9329;
-71.7000;0.7000;0.9166;
-71.4000;0.7041;0.9213;
-71.1000;0.7049;0.9236;
-70.8000;0.6992;0.9120;
-70.5000;0.7090;0.9353;
-70.2000;0.7049;0.9260;
-69.9000;0.7041;0.9166;
-69.6000;0.7049;0.9213;
-69.3000;0.6976;0.9096;
-69.0000;0.7033;0.9329;
-68.7000;0.7041;0.9283;
-68.4000;0.7033;0.9260;
-68.1000;0.7025;0.9306;
-67.8000;0.7025;0.9213;
-67.5000;0.7041;0.9283;
-67.2000;0.7066;0.9260;
-66.9000;0.7066;0.9283;
-66.6000;0.7041;0.9143;
-66.3000;0.7025;0.9213;
-66.0000;0.7041;0.9236;
-65.7000;0.7041;0.9283;
-65.4000;0.7049;0.9329;
-65.1000;0.7033;0.9260;
-64.8000;0.7049;0.9283;
-64.5000;0.7057;0.9399;
-64.2000;0.7041;0.9283;
-63.9000;0.7025;0.9236;
-63.6000;0.7025;0.9283;
-63.3000;0.7057;0.9329;
-63.0000;0.7000;0.9260;
-62.7000;0.7033;0.9329;
-62.4000;0.6927;0.9143;
-62.1000;0.7082;0.9446;
-61.8000;0.7057;0.9493;
-61.5000;0.7041;0.9423;
-61.2000;0.7082;0.9493;
-60.9000;0.7066;0.9493;
-60.6000;0.7033;0.9493;
-60.3000;0.7057;0.9539;
-60.0000;0.7033;0.9423;
-59.7000;0.7041;0.9423;
-59.4000;0.7066;0.9399;
-59.1000;0.7057;0.9353;
-58.8000;0.7057;0.9306;
-58.5000;0.7057;0.9260;
-58.2000;0.7041;0.9236;
-57.9000;0.7041;0.9190;
-57.6000;0.7033;0.9236;
-57.3000;0.7017;0.9236;
-57.0000;0.7033;0.9329;
-56.7000;0.7033;0.9423;
-56.4000;0.7033;0.9423;
-56.1000;0.7057;0.9353;
-55.8000;0.7041;0.9213;
-55.5000;0.7033;0.9283;
-55.2000;0.7041;0.9283;
-54.9000;0.7025;0.9236;
-54.6000;0.7041;0.9283;
-54.3000;0.7057;0.9353;
-54.0000;0.7066;0.9399;
-53.7000;0.7049;0.9283;
-53.4000;0.7074;0.9306;
-53.1000;0.7057;0.9283;
-52.8000;0.7049;0.9306;
-52.5000;0.7041;0.9306;
-52.2000;0.7041;0.9306;
-51.9000;0.7049;0.9353;
-51.6000;0.7057;0.9446;
-51.3000;0.7049;0.9399;
-51.0000;0.7025;0.9423;
-50.7000;0.7041;0.9446;
-50.4000;0.7033;0.9399;
-50.1000;0.7025;0.9399;
-49.8000;0.7049;0.9399;
-49.5000;0.6984;0.9190;
-49.2000;0.7049;0.9283;
-48.9000;0.6976;0.8956;
-48.6000;0.7074;0.9190;
-48.3000;0.7057;0.9166;
-48.0000;0.7057;0.9166;
-47.7000;0.7057;0.9213;
-47.4000;0.7057;0.9190;
-47.1000;0.7017;0.9050;
-46.8000;0.7049;0.9050;
-46.5000;0.7025;0.9026;
-46.2000;0.7041;0.9050;
-45.9000;0.7049;0.9143;
-45.6000;0.7033;0.9236;
-45.3000;0.7000;0.9143;
-45.0000;0.7041;0.9236;
-44.7000;0.7033;0.9166;
-44.4000;0.7057;0.9236;
-44.1000;0.7049;0.9283;
-43.8000;0.6992;0.9260;
-43.5000;0.7025;0.9283;
-43.2000;0.7033;0.9213;
-42.9000;0.7090;0.9376;
-42.6000;0.7025;0.9236;
-42.3000;0.7049;0.9260;
-42.0000;0.7049;0.9260;
-41.7000;0.7041;0.9283;
-41.4000;0.7131;0.9586;
-41.1000;0.7025;0.9353;
-40.8000;0.6976;0.9190;
-40.5000;0.7033;0.9329;
-40.2000;0.7049;0.9329;
-39.9000;0.7049;0.9236;
-39.6000;0.6960;0.9073;
-39.3000;0.7057;0.9260;
-39.0000;0.7033;0.9236;
-38.7000;0.7066;0.9283;
-38.4000;0.7090;0.9306;
-38.1000;0.7041;0.9283;
-37.8000;0.7066;0.9399;
-37.5000;0.7049;0.9446;
-37.2000;0.7066;0.9423;
-36.9000;0.7017;0.9306;
-36.6000;0.7041;0.9376;
-36.3000;0.7041;0.9423;
-36.0000;0.7025;0.9376;
-35.7000;0.7017;0.9260;
-35.4000;0.7049;0.9376;
-35.1000;0.7049;0.9376;
-34.8000;0.7009;0.9283;
-34.5000;0.7041;0.9283;
-34.2000;0.7066;0.9306;
-33.9000;0.7041;0.9306;
-33.6000;0.7041;0.9306;
-33.3000;0.7041;0.9260;
-33.0000;0.7041;0.9213;
-32.7000;0.7066;0.9306;
-32.4000;0.7066;0.9260;
-32.1000;0.7049;0.9399;
-31.8000;0.7041;0.9329;
-31.5000;0.7041;0.9376;
-31.2000;0.7049;0.9493;
-30.9000;0.7041;0.9423;
-30.6000;0.7033;0.9376;
-30.3000;0.7033;0.9399;
-30.0000;0.7025;0.9353;
-29.7000;0.7041;0.9283;
-29.4000;0.7041;0.9260;
-29.1000;0.7049;0.9236;
-28.8000;0.7074;0.9236;
-28.5000;0.7041;0.9190;
-28.2000;0.7041;0.9096;
-27.9000;0.7049;0.9143;
-27.6000;0.7025;0.9073;
-27.3000;0.7057;0.9166;
-27.0000;0.7106;0.9353;
-26.7000;0.7033;0.9260;
-26.4000;0.7049;0.9283;
-26.1000;0.7009;0.9166;
-25.8000;0.7090;0.9353;
-25.5000;0.7025;0.9236;
-25.2000;0.7049;0.9306;
-24.9000;0.7057;0.9260;
-24.6000;0.7049;0.9283;
-24.3000;0.7033;0.9283;
-24.0000;0.7041;0.9399;
-23.7000;0.6943;0.9166;
-23.4000;0.7074;0.9469;
-23.1000;0.7033;0.9353;
-22.8000;0.7033;0.9376;
-22.5000;0.7049;0.9469;
-22.2000;0.6960;0.9213;
-21.9000;0.7049;0.9446;
-21.6000;0.7114;0.9516;
-21.3000;0.7139;0.9563;
-21.0000;0.7041;0.9423;
-20.7000;0.7033;0.9376;
-20.4000;0.7000;0.9236;
-20.1000;0.7025;0.9399;
-19.8000;0.7049;0.9493;
-19.5000;0.7041;0.9563;
-19.2000;0.7106;0.9726;
-18.9000;0.7066;0.9679;
-18.6000;0.7049;0.9656;
-18.3000;0.7049;0.9633;
-18.0000;0.7041;0.9633;
-17.7000;0.7098;0.9703;
-17.4000;0.6992;0.9516;
-17.1000;0.7049;0.9609;
-16.8000;0.7049;0.9609;
-16.5000;0.6984;0.9516;
-16.2000;0.7041;0.9516;
-15.9000;0.7057;0.9539;
-15.6000;0.7025;0.9516;
-15.3000;0.7074;0.9656;
-15.0000;0.7033;0.9563;
-14.7000;0.7041;0.9469;
-14.4000;0.7033;0.9446;
-14.1000;0.7049;0.9423;
-13.8000;0.7025;0.9399;
-13.5000;0.7049;0.9353;
-13.2000;0.7041;0.9353;
-12.9000;0.7049;0.9399;
-12.6000;0.7033;0.9353;
-12.3000;0.7033;0.9376;
-12.0000;0.7041;0.9376;
-11.7000;0.7033;0.9306;
-11.4000;0.7025;0.9493;
-11.1000;0.7041;0.9656;
-10.8000;0.7025;0.9586;
-10.5000;0.7025;0.9563;
-10.2000;0.6968;0.9376;
-9.9000;0.7066;0.9516;
-9.6000;0.7025;0.9423;
-9.3000;0.7041;0.9376;
-9.0000;0.7025;0.9469;
-8.7000;0.7025;0.9469;
-8.4000;0.7009;0.9423;
-8.1000;0.7057;0.9516;
-7.8000;0.7025;0.9399;
-7.5000;0.7074;0.9539;
-7.2000;0.7049;0.9493;
-6.9000;0.7074;0.9563;
-6.6000;0.7066;0.9493;
-6.3000;0.7049;0.9376;
-6.0000;0.7057;0.9399;
-5.7000;0.7082;0.9469;
-5.4000;0.7057;0.9376;
-5.1000;0.7057;0.9516;
-4.8000;0.7049;0.9539;
-4.5000;0.7033;0.9516;
-4.2000;0.7057;0.9539;
-3.9000;0.7009;0.9446;
-3.6000;0.6992;0.9446;
-3.3000;0.7049;0.9516;
-3.0000;0.7049;0.9609;
-2.7000;0.7049;0.9493;
-2.4000;0.7017;0.9423;
-2.1000;0.7057;0.9493;
-1.8000;0.7066;0.9516;
-1.5000;0.7049;0.9446;
-1.2000;0.7033;0.9469;
-0.9000;0.7049;0.9586;
-0.6000;0.7041;0.9563;
-0.3000;0.7033;0.9586;
0.0000;0.7033;0.9586;
0.3000;0.7220;0.9586;
0.6000;0.7546;0.9866;
0.9000;0.7782;1.0122;
1.2000;0.7977;1.0379;
1.5000;0.8107;1.0496;
1.8000;0.8335;1.0776;
2.1000;0.8311;1.0636;
2.4000;0.8474;1.0915;
2.7000;0.8506;1.0939;
3.0000;0.8588;1.1032;
3.3000;0.8653;1.1172;
3.6000;0.8685;1.1265;
3.9000;0.8742;1.1359;
4.2000;0.8759;1.1359;
4.5000;0.8807;1.1475;
4.8000;0.8873;1.1545;
5.1000;0.8889;1.1475;
5.4000;0.8881;1.1475;
5.7000;0.8938;1.1592;
6.0000;0.8978;1.1592;
6.3000;0.8987;1.1499;
6.6000;0.9003;1.1475;
6.9000;0.9044;1.1545;
7.2000;0.9084;1.1592;
7.5000;0.9109;1.1499;
7.8000;0.9109;1.1499;
8.1000;0.9166;1.1662;
8.4000;0.9198;1.1708;
8.7000;0.9247;1.1732;
9.0000;0.9206;1.1545;
9.3000;0.9214;1.1499;
9.6000;0.9206;1.1545;
9.9000;0.9247;1.1545;
10.2000;0.9255;1.1522;
10.5000;0.9280;1.1522;
10.8000;0.9337;1.1732;
11.1000;0.9337;1.1685;
11.4000;0.9328;1.1685;
11.7000;0.9296;1.1615;
12.0000;0.9377;1.1639;
12.3000;0.9385;1.1708;
12.6000;0.9385;1.1685;
12.9000;0.9418;1.1708;
13.2000;0.9410;1.1755;
13.5000;0.9418;1.1732;
13.8000;0.9426;1.1685;
14.1000;0.9426;1.1615;
14.4000;0.9459;1.1639;
14.7000;0.9499;1.1639;
15.0000;0.9499;1.1708;
15.3000;0.9499;1.1662;
15.6000;0.9491;1.1615;
15.9000;0.9516;1.1685;
16.2000;0.9516;1.1662;
16.5000;0.9516;1.1639;
16.8000;0.9524;1.1592;
17.1000;0.9548;1.1499;
17.4000;0.9565;1.1335;
17.7000;0.9573;1.1359;
18.0000;0.9573;1.1429;
18.3000;0.9589;1.1569;
18.6000;0.9589;1.1662;
18.9000;0.9597;1.1639;
19.2000;0.9597;1.1615;
19.5000;0.9589;1.1475;
19.8000;0.9630;1.1615;
20.1000;0.9581;1.1569;
20.4000;0.9589;1.1592;
20.7000;0.9597;1.1615;
21.0000;0.9613;1.1592;
21.3000;0.9621;1.1545;
21.6000;0.9613;1.1615;
21.9000;0.9613;1.1499;
22.2000;0.9605;1.1452;
22.5000;0.9638;1.1569;
22.8000;0.9638;1.1545;
23.1000;0.9630;1.1382;
23.4000;0.9670;1.1405;
23.7000;0.9654;1.1499;
24.0000;0.9695;1.1452;
24.3000;0.9662;1.1359;
24.6000;0.9678;1.1429;
24.9000;0.9687;1.1429;
25.2000;0.9573;1.1195;
25.5000;0.9638;1.1499;
25.8000;0.9670;1.1569;
26.1000;0.9678;1.1545;
26.4000;0.9695;1.1662;
26.7000;0.9695;1.1522;
27.0000;0.9719;1.1545;
27.3000;0.9678;1.1475;
27.6000;0.9711;1.1639;
27.9000;0.9711;1.1569;
28.2000;0.9654;1.1429;
28.5000;0.9711;1.1545;
28.8000;0.9744;1.1615;
29.1000;0.9727;1.1522;
29.4000;0.9719;1.1545;
29.7000;0.9719;1.1429;
30.0000;0.9695;1.1242;
30.3000;0.9727;1.1289;
30.6000;0.9727;1.1265;
30.9000;0.9760;1.1382;
31.2000;0.9646;1.1079;
31.5000;0.9744;1.1335;
31.8000;0.9719;1.1312;
32.1000;0.9719;1.1312;
32.4000;0.9727;1.1312;
32.7000;0.9703;1.1265;
33.0000;0.9752;1.1359;
33.3000;0.9735;1.1359;
33.6000;0.9776;1.1475;
33.9000;0.9752;1.1359;
34.2000;0.9776;1.1382;
34.5000;0.9752;1.1335;
34.8000;0.9695;1.1265;
35.1000;0.9760;1.1452;
35.4000;0.9776;1.1475;
35.7000;0.9687;1.1289;
36.0000;0.9744;1.1335;
36.3000;0.9768;1.1265;
36.6000;0.9784;1.1289;
36.9000;0.9776;1.1219;
37.2000;0.9841;1.1405;
37.5000;0.9784;1.1289;
37.8000;0.9784;1.1335;
38.1000;0.9801;1.1382;
38.4000;0.9801;1.1405;
38.7000;0.9776;1.1312;
39.0000;0.9792;1.1242;
39.3000;0.9809;1.1312;
39.6000;0.9801;1.1289;
39.9000;0.9801;1.1219;
40.2000;0.9809;1.1265;
40.5000;0.9825;1.1219;
40.8000;0.9809;1.1242;
41.1000;0.9776;1.1102;
41.4000;0.9809;1.1219;
41.7000;0.9792;1.1219;
42.0000;0.9817;1.1195;
42.3000;0.9817;1.1195;
42.6000;0.9801;1.1265;
42.9000;0.9833;1.1289;
43.2000;0.9817;1.1265;
43.5000;0.9809;1.1265;
43.8000;0.9825;1.1335;
44.1000;0.9825;1.1312;
44.4000;0.9825;1.1405;
44.7000;0.9768;1.1289;
45.0000;0.9809;1.1475;
45.3000;0.9833;1.1499;
45.6000;0.9841;1.1475;
45.9000;0.9809;1.1499;
46.2000;0.9809;1.1475;
46.5000;0.9841;1.1545;
46.8000;0.9719;1.1219;
47.1000;0.9801;1.1475;
47.4000;0.9801;1.1429;
47.7000;0.9809;1.1522;
48.0000;0.9801;1.1592;
48.3000;0.9833;1.1615;
48.6000;0.9817;1.1522;
48.9000;0.9817;1.1569;
49.2000;0.9882;1.1708;
49.5000;0.9817;1.1522;
49.8000;0.9841;1.1522;
50.1000;0.9849;1.1382;
50.4000;0.9841;1.1382;
50.7000;0.9825;1.1405;
51.0000;0.9825;1.1405;
51.3000;0.9784;1.1359;
51.6000;0.9841;1.1522;
51.9000;0.9833;1.1569;
52.2000;0.9866;1.1639;
52.5000;0.9931;1.1732;
52.8000;0.9841;1.1522;
53.1000;0.9817;1.1382;
53.4000;0.9833;1.1405;
53.7000;0.9817;1.1359;
54.0000;0.9833;1.1312;
54.3000;0.9890;1.1499;
54.6000;0.9809;1.1405;
54.9000;0.9841;1.1522;
55.2000;0.9833;1.1569;
55.5000;0.9809;1.1592;
55.8000;0.9817;1.1475;
56.1000;0.9841;1.1499;
56.4000;0.9849;1.1475;
56.7000;0.9833;1.1452;
57.0000;0.9833;1.1335;
57.3000;0.9858;1.1429;
57.6000;0.9849;1.1382;
57.9000;0.9882;1.1405;
58.2000;0.9858;1.1382;
58.5000;0.9825;1.1359;
58.8000;0.9801;1.1265;
59.1000;0.9825;1.1312;
59.4000;0.9841;1.1312;
59.7000;0.9841;1.1289;
60.0000;0.9866;1.1289;
60.3000;0.9817;1.1149;
60.6000;0.9833;1.1195;
60.9000;0.9833;1.1265;
61.2000;0.9841;1.1242;
61.5000;0.9841;1.1265;
61.8000;0.9972;1.1615;
62.1000;0.9833;1.1265;
62.4000;0.9833;1.1242;
62.7000;0.9858;1.1219;
63.0000;0.9841;1.1195;
63.3000;0.9866;1.1312;
63.6000;0.9866;1.1219;
63.9000;0.9841;1.1219;
64.2000;0.9833;1.1219;
64.5000;0.9866;1.1289;
64.8000;0.9849;1.1382;
65.1000;0.9825;1.1382;
65.4000;0.9841;1.1522;
65.7000;0.9841;1.1615;
66.0000;0.9866;1.1662;
66.3000;0.9833;1.1545;
66.6000;0.9858;1.1569;
66.9000;0.9849;1.1522;
67.2000;0.9849;1.1545;
67.5000;0.9858;1.1522;
67.8000;0.9849;1.1452;
68.1000;0.9858;1.1429;
68.4000;0.9923;1.1662;
68.7000;0.9866;1.1452;
69.0000;0.9833;1.1382;
69.3000;0.9841;1.1289;
69.6000;0.9866;1.1382;
69.9000;0.9849;1.1405;
70.2000;0.9858;1.1429;
70.5000;0.9817;1.1405;
70.8000;0.9841;1.1452;
71.1000;0.9841;1.1429;
71.4000;0.9858;1.1475;
71.7000;0.9752;1.1219;
72.0000;0.9833;1.1359;
72.3000;0.9825;1.1289;
72.6000;0.9858;1.1335;
72.9000;0.9866;1.1405;
73.2000;0.9768;1.1265;
73.5000;0.9849;1.1382;
73.8000;0.9866;1.1429;
74.1000;0.9833;1.1452;
74.4000;0.9849;1.1452;
74.7000;0.9858;1.1429;
75.0000;0.9817;1.1312;
75.3000;0.9841;1.1312;
75.6000;0.9825;1.1289;
75.9000;0.9849;1.1289;
76.2000;0.9849;1.1265;
76.5000;0.9858;1.1312;
76.8000;0.9866;1.1359;
77.1000;0.9866;1.1335;
77.4000;0.9866;1.1405;
77.7000;0.9874;1.1335;
78.0000;0.9858;1.1335;
78.3000;0.9809;1.1195;
78.6000;0.9841;1.1219;
78.9000;0.9866;1.1195;
79.2000;0.9858;1.1265;
79.5000;0.9906;1.1405;
79.8000;0.9833;1.1359;
80.1000;0.9849;1.1382;
80.4000;0.9833;1.1335;
80.7000;0.9849;1.1405;
81.0000;0.9833;1.1335;
81.3000;0.9849;1.1359;
81.6000;0.9858;1.1242;
81.9000;0.9849;1.1219;
82.2000;0.9849;1.1219;
82.5000;0.9866;1.1335;
82.8000;0.9858;1.1312;
83.1000;0.9849;1.1335;
83.4000;0.9833;1.1289;
83.7000;0.9841;1.1312;
84.0000;0.9858;1.1359;
84.3000;0.9841;1.1429;
84.6000;0.9841;1.1429;
84.9000;0.9833;1.1429;
85.2000;0.9858;1.1499;
85.5000;0.9849;1.1545;
85.8000;0.9841;1.1592;
86.1000;0.9874;1.1639;
86.4000;0.9849;1.1662;
86.7000;0.9874;1.1639;
87.0000;0.9890;1.1662;
87.3000;0.9849;1.1569;
87.6000;0.9882;1.1662;
87.9000;0.9874;1.1662;
88.2000;0.9882;1.1639;
88.5000;0.9809;1.1592;
88.8000;0.9858;1.1685;
89.1000;0.9923;1.1872;
89.4000;0.9858;1.1685;
89.7000;0.9858;1.1708;
90.0000;0.9890;1.1755;
90.3000;0.9874;1.1708;
90.6000;0.9841;1.1615;
90.9000;0.9866;1.1615;
91.2000;0.9841;1.1639;
91.5000;0.9915;1.1732;
91.8000;0.9866;1.1662;
92.1000;0.9768;1.1382;
92.4000;0.9915;1.1592;
92.7000;0.9849;1.1475;
93.0000;0.9817;1.1429;
93.3000;0.9833;1.1382;
93.6000;0.9882;1.1522;
93.9000;0.9841;1.1382;
94.2000;0.9841;1.1429;
94.5000;0.9890;1.1545;
94.8000;0.9849;1.1452;
95.1000;0.9825;1.1335;
95.4000;0.9849;1.1429;
95.7000;0.9882;1.1499;
96.0000;0.9841;1.1429;
96.3000;0.9858;1.1499;
96.6000;0.9882;1.1545;
96.9000;0.9931;1.1685;
97.2000;0.9817;1.1499;
97.5000;0.9939;1.1732;
97.8000;0.9849;1.1522;
98.1000;0.9866;1.1615;
98.4000;0.9841;1.1499;
98.7000;0.9866;1.1452;
99.0000;0.9858;1.1429;
99.3000;0.9858;1.1382;
99.6000;0.9858;1.1499;
99.9000;0.9825;1.1475;
100.2000;0.9866;1.1475;
100.5000;0.9849;1.1522;
100.8000;0.9841;1.1475;
101.1000;0.9858;1.1499;
101.4000;0.9858;1.1475;
101.7000;0.9858;1.1499;
102.0000;0.9849;1.1522;
102.3000;0.9866;1.1615;
102.6000;0.9858;1.1569;
102.9000;0.9858;1.1545;
103.2000;0.9858;1.1662;
103.5000;0.9849;1.1732;
103.8000;0.9792;1.1569;
104.1000;0.9841;1.1732;
104.4000;0.9849;1.1732;
104.7000;0.9735;1.1475;
105.0000;0.9833;1.1592;
105.3000;0.9833;1.1639;
105.6000;0.9833;1.1615;
105.9000;0.9833;1.1522;
106.2000;0.9858;1.1569;
106.5000;0.9849;1.1405;
106.8000;0.9841;1.1452;
107.1000;0.9849;1.1475;
107.4000;0.9849;1.1499;
107.7000;0.9858;1.1545;
108.0000;0.9849;1.1499;
108.3000;0.9890;1.1522;
108.6000;0.9866;1.1452;
108.9000;0.9825;1.1289;
109.2000;0.9858;1.1219;
109.5000;0.9849;1.1335;
109.8000;0.9833;1.1312;
110.1000;0.9849;1.1405;
110.4000;0.9849;1.1452;
110.7000;0.9858;1.1522;
111.0000;0.9866;1.1545;
111.3000;0.9866;1.1499;
111.6000;0.9858;1.1499;
111.9000;0.9890;1.1592;
112.2000;0.9874;1.1522;
112.5000;0.9890;1.1522;
112.8000;0.9841;1.1452;
113.1000;0.9801;1.1429;
113.4000;0.9874;1.1685;
113.7000;0.9882;1.1732;
114.0000;0.9849;1.1685;
114.3000;0.9849;1.1615;
114.6000;0.9890;1.1639;
114.9000;0.9809;1.1522;
115.2000;0.9841;1.1592;
115.5000;0.9890;1.1592;
115.8000;0.9858;1.1522;
116.1000;0.9866;1.1615;
116.4000;0.9841;1.1522;
116.7000;0.9849;1.1499;
117.0000;0.9841;1.1499;
117.3000;0.9858;1.1545;
117.6000;0.9874;1.1569;
117.9000;0.9849;1.1545;
118.2000;0.9866;1.1499;
118.5000;0.9923;1.1569;
118.8000;0.9841;1.1475;
119.1000;0.9866;1.1475;
119.4000;0.9833;1.1452;
119.7000;0.9931;1.1708;
120.0000;0.9858;1.1592;
120.3000;0.9849;1.1615;
120.6000;0.9882;1.1708;
120.9000;0.9858;1.1708;
121.2000;0.9858;1.1592;
121.5000;0.9849;1.1522;
121.8000;0.9858;1.1475;
122.1000;0.9809;1.1382;
122.4000;0.9866;1.1522;
122.7000;0.9874;1.1545;
123.0000;0.9858;1.1522;
123.3000;0.9866;1.1545;
123.6000;0.9874;1.1569;
123.9000;0.9866;1.1685;
124.2000;0.9858;1.1615;
124.5000;0.9866;1.1639;
124.8000;0.9825;1.1615;
125.1000;0.9858;1.1685;
125.4000;0.9841;1.1569;
125.7000;0.9866;1.1592;
126.0000;0.9858;1.1615;
126.3000;0.9874;1.1615;
126.6000;0.9849;1.1639;
126.9000;0.9858;1.1662;
127.2000;0.9825;1.1662;
127.5000;0.9841;1.1592;
127.8000;0.9906;1.1662;
128.1000;0.9858;1.1545;
128.4000;0.9849;1.1545;
128.7000;0.9841;1.1522;
129.0000;0.9841;1.1639;
129.3000;0.9833;1.1732;
129.6000;0.9841;1.1685;
129.9000;0.9841;1.1662;
130.2000;0.9833;1.1685;
130.5000;0.9833;1.1639;
130.8000;0.9744;1.1405;
131.1000;0.9858;1.1732;
131.4000;0.9858;1.1755;
131.7000;0.9858;1.1732;
132.0000;0.9858;1.1685;
132.3000;0.9849;1.1639;
132.6000;0.9866;1.1639;
132.9000;0.9874;1.1615;
133.2000;0.9833;1.1639;
133.5000;0.9833;1.1569;
133.8000;0.9866;1.1732;
134.1000;0.9866;1.1662;
134.4000;0.9858;1.1639;
134.7000;0.9858;1.1685;
135.0000;0.9849;1.1662;
135.3000;0.9866;1.1708;
135.6000;0.9858;1.1639;
135.9000;0.9866;1.1499;
136.2000;0.9849;1.1382;
136.5000;0.9858;1.1452;
136.8000;0.9858;1.1452;
137.1000;0.9858;1.1475;
137.4000;0.9858;1.1569;
137.7000;0.9866;1.1545;
138.0000;0.9858;1.1499;
138.3000;0.9874;1.1475;
138.6000;0.9858;1.1475;
138.9000;0.9874;1.1545;
139.2000;0.9882;1.1592;
139.5000;0.9972;1.1825;
139.8000;0.9768;1.1242;
140.1000;0.9890;1.1452;
140.4000;0.9866;1.1405;
140.7000;0.9890;1.1452;
141.0000;0.9874;1.1405;
141.3000;0.9882;1.1452;
141.6000;0.9882;1.1569;
141.9000;0.9866;1.1522;
142.2000;0.9858;1.1522;
142.5000;0.9866;1.1475;
142.8000;0.9849;1.1382;
143.1000;0.9841;1.1405;
143.4000;0.9866;1.1499;
143.7000;0.9906;1.1615;
144.0000;0.9817;1.1452;
144.3000;0.9858;1.1475;
144.6000;0.9841;1.1359;
144.9000;0.9866;1.1429;
145.2000;0.9898;1.1452;
145.5000;0.9849;1.1405;
145.8000;0.9833;1.1382;
146.1000;0.9833;1.1359;
146.4000;0.9882;1.1452;
146.7000;0.9841;1.1499;
147.0000;0.9849;1.1522;
147.3000;0.9890;1.1522;
147.6000;0.9874;1.1475;
147.9000;0.9841;1.1382;
148.2000;0.9841;1.1382;
148.5000;0.9866;1.1452;
148.8000;0.9849;1.1452;
149.1000;0.9866;1.1499;
149.4000;0.9858;1.1499;
149.7000;0.9890;1.1615;
150.0000;0.9866;1.1522;
150.3000;0.9858;1.1592;
150.6000;0.9858;1.1569;
150.9000;0.9809;1.1475;
151.2000;0.9841;1.1592;
151.5000;0.9849;1.1545;
151.8000;0.9915;1.1639;
152.1000;0.9858;1.1452;
152.4000;0.9841;1.1499;
152.7000;0.9841;1.1569;
153.0000;0.9833;1.1615;
153.3000;0.9801;1.1522;
153.6000;0.9825;1.1452;
153.9000;0.9809;1.1429;
154.2000;0.9841;1.1569;
154.5000;0.9849;1.1615;
154.8000;0.9841;1.1662;
155.1000;0.9841;1.1685;
155.4000;0.9841;1.1639;
155.7000;0.9858;1.1708;
156.0000;0.9866;1.1685;
156.3000;0.9841;1.1639;
156.6000;0.9849;1.1569;
156.9000;0.9874;1.1639;
157.2000;0.9890;1.1662;
157.5000;0.9849;1.1499;
157.8000;0.9825;1.1452;
158.1000;0.9849;1.1499;
158.4000;0.9841;1.1592;
158.7000;0.9849;1.1592;
159.0000;0.9849;1.1592;
159.3000;0.9866;1.1639;
159.6000;0.9849;1.1639;
159.9000;0.9874;1.1615;
160.2000;0.9858;1.1545;
160.5000;0.9849;1.1569;
160.8000;0.9874;1.1592;
161.1000;0.9882;1.1615;
161.4000;0.9874;1.1592;
161.7000;0.9882;1.1545;
162.0000;0.9849;1.1522;
162.3000;0.9841;1.1545;
162.6000;0.9841;1.1522;
162.9000;0.9849;1.1382;
163.2000;0.9760;1.1219;
163.5000;0.9833;1.1312;
163.8000;0.9858;1.1335;
164.1000;0.9833;1.1265;
164.4000;0.9858;1.1382;
164.7000;0.9858;1.1429;
165.0000;0.9947;1.1685;
165.3000;0.9809;1.1359;
165.6000;0.9825;1.1382;
165.9000;0.9858;1.1475;
166.2000;0.9849;1.1499;
166.5000;0.9849;1.1522;
166.8000;0.9898;1.1685;
167.1000;0.9849;1.1569;
167.4000;0.9849;1.1592;
167.7000;0.9841;1.1475;
168.0000;0.9874;1.1499;
168.3000;0.9866;1.1592;
168.6000;0.9849;1.1545;
168.9000;0.9866;1.1522;
169.2000;0.9874;1.1522;
169.5000;0.9825;1.1429;
169.8000;0.9858;1.1429;
170.1000;0.9858;1.1499;
170.4000;0.9898;1.1569;
170.7000;0.9858;1.1545;
171.0000;0.9882;1.1499;
171.3000;0.9915;1.1522;
171.6000;0.9906;1.1499;
171.9000;0.9849;1.1359;
172.2000;0.9866;1.1429;
172.5000;0.9849;1.1405;
172.8000;0.9841;1.1429;
173.1000;0.9849;1.1452;
173.4000;0.9841;1.1522;
173.7000;0.9866;1.1545;
174.0000;0.9849;1.1522;
174.3000;0.9939;1.1778;
174.6000;0.9866;1.1639;
174.9000;0.9849;1.1685;
175.2000;0.9858;1.1662;
175.5000;0.9866;1.1708;
175.8000;0.9866;1.1639;
176.1000;0.9866;1.1685;
176.4000;0.9858;1.1685;
176.7000;0.9849;1.1755;
177.0000;0.9874;1.1755;
177.3000;0.9849;1.1732;
177.6000;0.9841;1.1708;
177.9000;0.9841;1.1569;
178.2000;0.9825;1.1475;
178.5000;0.9841;1.1475;
178.8000;0.9849;1.1569;
179.1000;0.9849;1.1569;
179.4000;0.9841;1.1475;
179.7000;0.9849;1.1545;
180.0000;0.9841;1.1499;
180.3000;0.9882;1.1592;
180.6000;0.9858;1.1545;
180.9000;0.9874;1.1522;
181.2000;0.9874;1.1545;
181.5000;0.9882;1.1662;
181.8000;0.9858;1.1545;
182.1000;0.9882;1.1639;
182.4000;0.9866;1.1662;
182.7000;0.9882;1.1685;
183.0000;0.9849;1.1662;
183.3000;0.9849;1.1662;
183.6000;0.9841;1.1615;
183.9000;0.9841;1.1662;
184.2000;0.9866;1.1708;
184.5000;0.9825;1.1662;
184.8000;0.9817;1.1592;
185.1000;0.9841;1.1615;
185.4000;0.9833;1.1569;
185.7000;0.9849;1.1615;
186.0000;0.9849;1.1639;
186.3000;0.9866;1.1592;
186.6000;0.9906;1.1545;
186.9000;0.9858;1.1359;
187.2000;0.9882;1.1499;
187.5000;0.9858;1.1499;
187.8000;0.9874;1.1545;
188.1000;0.9849;1.1475;
188.4000;0.9833;1.1429;
188.7000;0.9833;1.1499;
189.0000;0.9833;1.1452;
189.3000;0.9841;1.1499;
189.6000;0.9841;1.1452;
189.9000;0.9825;1.1382;
190.2000;0.9849;1.1475;
190.5000;0.9849;1.1475;
190.8000;0.9833;1.1405;
191.1000;0.9849;1.1499;
191.4000;0.9849;1.1405;
191.7000;0.9866;1.1382;
192.0000;0.9858;1.1359;
192.3000;0.9849;1.1359;
192.6000;0.9915;1.1522;
192.9000;0.9866;1.1429;
193.2000;0.9890;1.1522;
193.5000;0.9874;1.1499;
193.8000;0.9874;1.1569;
194.1000;0.9858;1.1499;
194.4000;0.9866;1.1429;
194.7000;0.9858;1.1382;
195.0000;0.9849;1.1359;
195.3000;0.9866;1.1475;
195.6000;0.9817;1.1405;
195.9000;0.9833;1.1452;
196.2000;0.9833;1.1429;
196.5000;0.9849;1.1312;
196.8000;0.9849;1.1242;
197.1000;0.9849;1.1172;
197.4000;0.9882;1.1312;
197.7000;0.9858;1.1382;
198.0000;0.9858;1.1405;
198.3000;0.9858;1.1359;
198.6000;0.9841;1.1265;
198.9000;0.9833;1.1289;
199.2000;0.9858;1.1265;
199.5000;0.9849;1.1219;
199.8000;0.9817;1.1172;
200.1000;0.9841;1.1335;
200.4000;0.9841;1.1359;
200.7000;0.9866;1.1452;
201.0000;0.9866;1.1475;
201.3000;0.9833;1.1405;
201.6000;0.9858;1.1499;
201.9000;0.9849;1.1545;
202.2000;0.9841;1.1592;
202.5000;0.9849;1.1522;
202.8000;0.9849;1.1499;
203.1000;0.9858;1.1452;
203.4000;0.9849;1.1452;
203.7000;0.9849;1.1359;
204.0000;0.9898;1.1475;
204.3000;0.9841;1.1312;
204.6000;0.9849;1.1382;
204.9000;0.9849;1.1475;
205.2000;0.9858;1.1569;
205.5000;0.9866;1.1569;
205.8000;0.9841;1.1545;
206.1000;0.9833;1.1475;
206.4000;0.9858;1.1545;
206.7000;0.9866;1.1569;
207.0000;0.9874;1.1615;
207.3000;0.9874;1.1569;
207.6000;0.9866;1.1522;
207.9000;0.9866;1.1499;
208.2000;0.9858;1.1499;
208.5000;0.9858;1.1522;
208.8000;0.9833;1.1522;
209.1000;0.9858;1.1685;
209.4000;0.9858;1.1662;
209.7000;0.9890;1.1732;
210.0000;0.9841;1.1662;
210.3000;0.9882;1.1825;
210.6000;0.9849;1.1685;
210.9000;0.9792;1.1522;
211.2000;0.9866;1.1708;
211.5000;0.9809;1.1569;
211.8000;0.9817;1.1545;
212.1000;0.9890;1.1615;
212.4000;0.9825;1.1569;
212.7000;0.9784;1.1522;
213.0000;0.9849;1.1639;
213.3000;1.0037;1.2012;
213.6000;0.9833;1.1639;
213.9000;0.9890;1.1755;
214.2000;0.9858;1.1615;
214.5000;0.9768;1.1382;
214.8000;0.9866;1.1499;
215.1000;0.9833;1.1405;
215.4000;0.9841;1.1499;
215.7000;0.9858;1.1475;
216.0000;0.9915;1.1499;
216.3000;0.9849;1.1452;
216.6000;0.9858;1.1499;
216.9000;0.9858;1.1452;
217.2000;0.9858;1.1452;
217.5000;0.9833;1.1475;
217.8000;0.9849;1.1545;
218.1000;0.9866;1.1569;
218.4000;0.9849;1.1569;
218.7000;0.9849;1.1639;
219.0000;0.9858;1.1685;
219.3000;0.9858;1.1708;
219.6000;0.9858;1.1732;
219.9000;0.9849;1.1708;
220.2000;0.9906;1.1802;
220.5000;0.9858;1.1708;
220.8000;0.9858;1.1685;
221.1000;0.9858;1.1639;
221.4000;0.9849;1.1569;
221.7000;0.9849;1.1545;
222.0000;0.9858;1.1592;
222.3000;0.9841;1.1662;
222.6000;0.9858;1.1732;
222.9000;0.9841;1.1732;
223.2000;0.9849;1.1708;
223.5000;0.9841;1.1662;
223.8000;0.9849;1.1662;
224.1000;0.9833;1.1569;
224.4000;0.9841;1.1708;
224.7000;0.9841;1.1569;
225.0000;0.9849;1.1522;
225.3000;0.9866;1.1545;
225.6000;0.9858;1.1475;
225.9000;0.9882;1.1545;
226.2000;0.9858;1.1569;
226.5000;0.9866;1.1685;
226.8000;0.9841;1.1685;
227.1000;0.9833;1.1522;
227.4000;0.9849;1.1615;
227.7000;0.9858;1.1592;
228.0000;0.9882;1.1685;
228.3000;0.9849;1.1662;
228.6000;0.9858;1.1662;
228.9000;0.9849;1.1569;
229.2000;0.9866;1.1592;
229.5000;0.9849;1.1545;
229.8000;0.9858;1.1592;
230.1000;0.9866;1.1592;
230.4000;0.9858;1.1639;
230.7000;0.9858;1.1592;
231.0000;0.9817;1.1545;
231.3000;0.9825;1.1615;
231.6000;0.9849;1.1615;
231.9000;0.9849;1.1522;
232.2000;0.9874;1.1569;
232.5000;0.9833;1.1569;
232.8000;0.9858;1.1685;
233.1000;0.9841;1.1755;
233.4000;0.9825;1.1732;
233.7000;0.9841;1.1708;
234.0000;0.9833;1.1685;
234.3000;0.9841;1.1592;
234.6000;0.9833;1.1639;
234.9000;0.9849;1.1639;
235.2000;0.9841;1.1662;
235.5000;0.9841;1.1639;
235.8000;0.9849;1.1685;
236.1000;0.9817;1.1592;
236.4000;0.9825;1.1615;
236.7000;0.9833;1.1592;
237.0000;0.9817;1.1545;
237.3000;0.9841;1.1569;
237.6000;0.9833;1.1592;
237.9000;0.9841;1.1592;
238.2000;0.9841;1.1639;
238.5000;0.9963;1.1895;
238.8000;0.9858;1.1615;
239.1000;0.9849;1.1639;
239.4000;0.9833;1.1662;
239.7000;0.9841;1.1732;
240.0000;0.9858;1.1708;
240.3000;0.9849;1.1662;
240.6000;0.9849;1.1639;
240.9000;0.9849;1.1592;
241.2000;0.9841;1.1569;
241.5000;0.9841;1.1639;
241.8000;0.9833;1.1615;
242.1000;0.9841;1.1639;
242.4000;0.9833;1.1639;
242.7000;0.9841;1.1522;
243.0000;0.9841;1.1662;
243.3000;0.9841;1.1615;
243.6000;0.9825;1.1545;
243.9000;0.9866;1.1592;
244.2000;0.9858;1.1615;
244.5000;0.9849;1.1639;
244.8000;0.9849;1.1662;
245.1000;0.9858;1.1592;
245.4000;0.9841;1.1569;
245.7000;0.9833;1.1545;
246.0000;0.9858;1.1662;
246.3000;0.9825;1.1545;
246.6000;0.9833;1.1592;
246.9000;0.9849;1.1662;
247.2000;0.9841;1.1615;
247.5000;0.9833;1.1615;
247.8000;0.9833;1.1615;
248.1000;0.9874;1.1639;
248.4000;0.9841;1.1545;
248.7000;0.9858;1.1475;
249.0000;0.9841;1.1452;
249.3000;0.9858;1.1405;
249.6000;0.9858;1.1522;
249.9000;0.9898;1.1662;
250.2000;0.9858;1.1499;
250.5000;0.9858;1.1475;
250.8000;0.9866;1.1522;
251.1000;0.9841;1.1522;
251.4000;0.9833;1.1499;
251.7000;0.9849;1.1545;
252.0000;0.9825;1.1475;
252.3000;0.9833;1.1522;
252.6000;0.9833;1.1592;
252.9000;0.9906;1.1848;
253.2000;0.9833;1.1639;
253.5000;0.9841;1.1499;
253.8000;0.9841;1.1569;
254.1000;0.9849;1.1662;
254.4000;0.9866;1.1662;
254.7000;0.9923;1.1778;
255.0000;0.9858;1.1732;
255.3000;0.9809;1.1662;
255.6000;0.9858;1.1732;
255.9000;0.9735;1.1429;
256.2000;0.9841;1.1732;
256.5000;0.9890;1.1802;
256.8000;0.9849;1.1615;
257.1000;0.9866;1.1639;
257.4000;0.9858;1.1662;
257.7000;0.9825;1.1545;
258.0000;0.9858;1.1569;
258.3000;0.9858;1.1475;
258.6000;0.9841;1.1452;
258.9000;0.9849;1.1405;
259.2000;0.9841;1.1359;
259.5000;0.9874;1.1429;
259.8000;0.9841;1.1405;
260.1000;0.9915;1.1592;
260.4000;0.9849;1.1429;
260.7000;0.9833;1.1405;
261.0000;0.9890;1.1569;
261.3000;0.9801;1.1382;
261.6000;0.9833;1.1452;
261.9000;0.9858;1.1522;
262.2000;0.9866;1.1522;
262.5000;0.9882;1.1615;
262.8000;0.9866;1.1662;
263.1000;0.9874;1.1662;
263.4000;0.9858;1.1592;
263.7000;0.9841;1.1545;
264.0000;0.9866;1.1592;
264.3000;0.9841;1.1499;
264.6000;0.9890;1.1592;
264.9000;0.9833;1.1452;
265.2000;0.9841;1.1569;
265.5000;0.9858;1.1592;
265.8000;0.9849;1.1592;
266.1000;0.9833;1.1615;
266.4000;0.9784;1.1522;
266.7000;0.9833;1.1615;
267.0000;0.9833;1.1708;
267.3000;0.9817;1.1708;
267.6000;0.9825;1.1615;
267.9000;0.9833;1.1592;
268.2000;0.9817;1.1545;
268.5000;0.9809;1.1382;
268.8000;0.9874;1.1522;
269.1000;0.9841;1.1452;
269.4000;0.9833;1.1405;
269.7000;0.9849;1.1452;
270.0000;0.9849;1.1475;
270.3000;0.9849;1.1545;
270.6000;0.9849;1.1592;
270.9000;0.9817;1.1499;
271.2000;0.9849;1.1452;
271.5000;0.9825;1.1452;
271.8000;0.9825;1.1475;
272.1000;0.9841;1.1405;
272.4000;0.9833;1.1382;
272.7000;0.9833;1.1359;
273.0000;0.9849;1.1359;
273.3000;0.9849;1.1242;
273.6000;0.9849;1.1219;
273.9000;0.9849;1.1265;
274.2000;0.9784;1.1149;
274.5000;0.9858;1.1312;
274.8000;0.9841;1.1359;
275.1000;0.9874;1.1405;
275.4000;0.9849;1.1289;
275.7000;0.9858;1.1359;
276.0000;0.9866;1.1429;
276.3000;0.9858;1.1382;
276.6000;0.9849;1.1429;
276.9000;0.9849;1.1475;
277.2000;0.9931;1.1615;
277.5000;0.9833;1.1405;
277.8000;0.9833;1.1359;
278.1000;0.9809;1.1265;
278.4000;0.9849;1.1335;
278.7000;0.9841;1.1382;
279.0000;0.9833;1.1289;
279.3000;0.9792;1.1195;
279.6000;0.9898;1.1452;
279.9000;0.9849;1.1405;
280.2000;0.9858;1.1405;
280.5000;0.9792;1.1195;
280.8000;0.9849;1.1405;
281.1000;0.9882;1.1475;
281.4000;0.9858;1.1475;
281.7000;0.9825;1.1429;
282.0000;0.9841;1.1359;
282.3000;0.9825;1.1335;
282.6000;0.9801;1.1382;
282.9000;0.9784;1.1405;
283.2000;0.9931;1.1708;
283.5000;0.9825;1.1452;
283.8000;0.9833;1.1452;
284.1000;0.9841;1.1452;
284.4000;0.9858;1.1522;
284.7000;0.9866;1.1475;
285.0000;0.9858;1.1499;
285.3000;0.9906;1.1732;
285.6000;0.9874;1.1615;
285.9000;0.9825;1.1475;
286.2000;0.9858;1.1499;
286.5000;0.9858;1.1452;
286.8000;0.9841;1.1452;
287.1000;0.9841;1.1522;
287.4000;0.9841;1.1522;
287.7000;0.9833;1.1545;
288.0000;0.9858;1.1592;
288.3000;0.9825;1.1452;
288.6000;0.9882;1.1522;
288.9000;0.9801;1.1312;
289.2000;0.9825;1.1382;
289.5000;0.9752;1.1265;
289.8000;0.9849;1.1405;
290.1000;0.9858;1.1405;
290.4000;0.9849;1.1359;
290.7000;0.9817;1.1289;
291.0000;0.9874;1.1499;
291.3000;0.9849;1.1499;
291.6000;0.9849;1.1475;
291.9000;0.9866;1.1499;
292.2000;0.9817;1.1405;
292.5000;0.9841;1.1475;
292.8000;0.9890;1.1475;
293.1000;0.9809;1.1265;
293.4000;0.9833;1.1289;
293.7000;0.9841;1.1265;
294.0000;0.9841;1.1359;
294.3000;0.9849;1.1452;
294.6000;0.9841;1.1429;
294.9000;0.9841;1.1429;
295.2000;0.9825;1.1359;
295.5000;0.9841;1.1452;
295.8000;0.9874;1.1475;
296.1000;0.9849;1.1429;
296.4000;0.9858;1.1405;
296.7000;0.9858;1.1429;
297.0000;0.9858;1.1359;
297.3000;0.9849;1.1312;
297.6000;0.9833;1.1242;
297.9000;0.9841;1.1149;
298.2000;0.9784;1.1032;
298.5000;0.9866;1.1172;
298.8000;0.9849;1.1219;
299.1000;0.9841;1.1219;
299.4000;0.9801;1.1125;
299.7000;0.9849;1.1265;
300.0000;0.9841;1.1195;
300.3000;0.9858;1.1242;
300.6000;0.9841;1.1219;
300.9000;0.9882;1.1359;
301.2000;0.9801;1.1265;
301.5000;0.9825;1.1382;
301.8000;0.9874;1.1475;
302.1000;0.9874;1.1499;
302.4000;0.9841;1.1475;
302.7000;0.9849;1.1405;
303.0000;0.9841;1.1359;
303.3000;0.9866;1.1359;
303.6000;0.9792;1.1219;
303.9000;0.9858;1.1335;
304.2000;0.9898;1.1405;
304.5000;0.9858;1.1405;
304.8000;0.9849;1.1405;
305.1000;0.9866;1.1429;
305.4000;0.9841;1.1359;
305.7000;0.9833;1.1405;
306.0000;0.9858;1.1499;
306.3000;0.9768;1.1265;
306.6000;0.9825;1.1452;
306.9000;0.9866;1.1592;
307.2000;0.9841;1.1452;
307.5000;0.9841;1.1429;
307.8000;0.9898;1.1569;
308.1000;0.9849;1.1452;
308.4000;0.9866;1.1335;
308.7000;0.9792;1.1149;
309.0000;0.9833;1.1289;
309.3000;0.9833;1.1265;
309.6000;0.9866;1.1265;
309.9000;0.9841;1.1102;
310.2000;0.9858;1.1195;
310.5000;0.9874;1.1219;
310.8000;0.9841;1.1195;
311.1000;0.9866;1.1289;
311.4000;0.9874;1.1312;
311.7000;0.9866;1.1359;
312.0000;0.9866;1.1452;
312.3000;0.9874;1.1499;
312.6000;0.9866;1.1405;
312.9000;0.9841;1.1429;
313.2000;0.9866;1.1499;
313.5000;0.9809;1.1359;
313.8000;0.9735;1.1219;
314.1000;0.9866;1.1499;
314.4000;0.9866;1.1429;
314.7000;0.9858;1.1429;
315.0000;0.9841;1.1429;
315.3000;0.9874;1.1475;
315.6000;0.9841;1.1545;
315.9000;0.9849;1.1545;
316.2000;0.9841;1.1569;
316.5000;0.9841;1.1545;
316.8000;0.9817;1.1452;
317.1000;0.9890;1.1499;
317.4000;0.9833;1.1335;
317.7000;0.9858;1.1405;
318.0000;0.9849;1.1522;
318.3000;0.9841;1.1545;
318.6000;0.9841;1.1499;
318.9000;0.9849;1.1522;
319.2000;0.9833;1.1452;
319.5000;0.9841;1.1429;
319.8000;0.9858;1.1522;
320.1000;0.9858;1.1475;
320.4000;0.9858;1.1522;
320.7000;0.9841;1.1545;
321.0000;0.9849;1.1569;
321.3000;0.9825;1.1592;
321.6000;0.9841;1.1592;
321.9000;0.9825;1.1615;
322.2000;0.9841;1.1708;
322.5000;0.9858;1.1662;
322.8000;0.9841;1.1639;
323.1000;0.9841;1.1545;
323.4000;0.9833;1.1499;
323.7000;0.9866;1.1569;
324.0000;0.9931;1.1802;
324.3000;0.9858;1.1615;
324.6000;0.9866;1.1639;
324.9000;0.9858;1.1592;
325.2000;0.9817;1.1499;
325.5000;0.9841;1.1592;
325.8000;0.9841;1.1592;
326.1000;0.9858;1.1522;
326.4000;0.9906;1.1662;
326.7000;0.9890;1.1685;
327.0000;0.9849;1.1545;
327.3000;0.9882;1.1569;
327.6000;0.9858;1.1499;
327.9000;0.9858;1.1475;
328.2000;0.9817;1.1359;
328.5000;0.9841;1.1475;
328.8000;0.9841;1.1499;
329.1000;0.9849;1.1545;
329.4000;0.9858;1.1545;
329.7000;0.9841;1.1545;
330.0000;0.9849;1.1499;
330.3000;0.9735;1.1242;
330.6000;0.9841;1.1499;
330.9000;0.9833;1.1545;
331.2000;0.9849;1.1499;
331.5000;0.9825;1.1475;
331.8000;0.9833;1.1592;
332.1000;0.9833;1.1569;
332.4000;0.9841;1.1545;
332.7000;0.9858;1.1499;
333.0000;0.9858;1.1429;
333.3000;0.9833;1.1429;
333.6000;0.9825;1.1429;
333.9000;0.9833;1.1475;
334.2000;0.9858;1.1639;
334.5000;0.9801;1.1545;
334.8000;0.9833;1.1569;
335.1000;0.9825;1.1545;
335.4000;0.9833;1.1475;
335.7000;0.9825;1.1382;
336.0000;0.9849;1.1382;
336.3000;0.9825;1.1382;
336.6000;0.9833;1.1242;
336.9000;0.9841;1.1359;
337.2000;0.9833;1.1382;
337.5000;0.9825;1.1405;
337.8000;0.9874;1.1522;
338.1000;0.9841;1.1499;
338.4000;0.9849;1.1615;
338.7000;0.9849;1.1615;
339.0000;0.9858;1.1708;
339.3000;0.9841;1.1592;
339.6000;0.9866;1.1592;
339.9000;0.9849;1.1592;
340.2000;0.9841;1.1545;
340.5000;0.9874;1.1639;
340.8000;0.9841;1.1615;
341.1000;0.9898;1.1615;
341.4000;0.9858;1.1639;
341.7000;0.9866;1.1615;
342.0000;0.9792;1.1405;
342.3000;0.9833;1.1452;
342.6000;0.9817;1.1359;
342.9000;0.9849;1.1475;
343.2000;0.9890;1.1522;
343.5000;0.9841;1.1405;
343.8000;0.9849;1.1405;
344.1000;0.9784;1.1242;
344.4000;0.9776;1.1195;
344.7000;0.9874;1.1452;
345.0000;0.9858;1.1382;
345.3000;0.9858;1.1405;
345.6000;0.9858;1.1429;
345.9000;0.9817;1.1359;
346.2000;0.9841;1.1429;
346.5000;0.9841;1.1452;
346.8000;0.9841;1.1359;
347.1000;0.9849;1.1382;
347.4000;0.9833;1.1405;
347.7000;0.9833;1.1359;
348.0000;0.9841;1.1312;
348.3000;0.9849;1.1405;
348.6000;0.9833;1.1382;
348.9000;0.9882;1.1545;
349.2000;0.9849;1.1522;
349.5000;0.9858;1.1639;
349.8000;0.9817;1.1569;
350.1000;0.9833;1.1662;
350.4000;0.9833;1.1615;
350.7000;0.9858;1.1755;
351.0000;0.9825;1.1662;
351.3000;0.9849;1.1685;
351.6000;0.9825;1.1545;
351.9000;0.9849;1.1522;
352.2000;0.9866;1.1475;
352.5000;0.9858;1.1522;
352.8000;0.9841;1.1475;
353.1000;0.9841;1.1429;
353.4000;0.9882;1.1545;
353.7000;0.9858;1.1359;
354.0000;0.9841;1.1335;
354.3000;0.9858;1.1335;
354.6000;0.9849;1.1382;
354.9000;0.9858;1.1359;
355.2000;0.9849;1.1359;
355.5000;0.9866;1.1499;
355.8000;0.9849;1.1499;
356.1000;0.9801;1.1429;
356.4000;0.9849;1.1545;
356.7000;0.9841;1.1499;
357.0000;0.9825;1.1545;
357.3000;0.9841;1.1545;
357.6000;0.9849;1.1475;
357.9000;0.9825;1.1429;
358.2000;0.9858;1.1475;
358.5000;0.9849;1.1499;
358.8000;0.9849;1.1592;
359.1000;0.9833;1.1615;
359.4000;0.9858;1.1639;
359.7000;0.9849;1.1475;
360.0000;0.9858;1.1429;
360.3000;0.9858;1.1382;
360.6000;0.9849;1.1289;
360.9000;0.9882;1.1429;
361.2000;0.9841;1.1359;
361.5000;0.9776;1.1382;
361.8000;0.9825;1.1475;
362.1000;0.9833;1.1475;
362.4000;0.9833;1.1499;
362.7000;0.9858;1.1499;
363.0000;0.9882;1.1452;
363.3000;0.9882;1.1452;
363.6000;0.9874;1.1475;
363.9000;0.9833;1.1359;
364.2000;0.9792;1.1312;
364.5000;0.9825;1.1475;
364.8000;0.9874;1.1522;
365.1000;0.9849;1.1475;
365.4000;0.9841;1.1452;
365.7000;0.9841;1.1499;
366.0000;0.9898;1.1685;
366.3000;0.9858;1.1475;
366.6000;0.9858;1.1405;
366.9000;0.9841;1.1382;
367.2000;0.9825;1.1195;
367.5000;0.9841;1.1219;
367.8000;0.9858;1.1312;
368.1000;0.9833;1.1359;
368.4000;0.9849;1.1405;
368.7000;0.9841;1.1429;
369.0000;0.9841;1.1452;
369.3000;0.9915;1.1522;
369.6000;0.9858;1.1335;
369.9000;0.9817;1.1289;
370.2000;0.9833;1.1382;
370.5000;0.9841;1.1429;
370.8000;0.9849;1.1499;
371.1000;0.9849;1.1545;
371.4000;0.9874;1.1545;
371.7000;0.9858;1.1475;
372.0000;0.9849;1.1405;
372.3000;0.9874;1.1429;
372.6000;0.9858;1.1382;
372.9000;0.9801;1.1289;
373.2000;0.9817;1.1335;
373.5000;0.9841;1.1312;
373.8000;0.9849;1.1312;
374.1000;0.9882;1.1335;
374.4000;0.9768;1.1289;
374.7000;0.9882;1.1569;
375.0000;0.9841;1.1359;
375.3000;0.9841;1.1429;
375.6000;0.9858;1.1545;
375.9000;0.9809;1.1499;
376.2000;0.9866;1.1499;
376.5000;0.9866;1.1499;
376.8000;0.9801;1.1289;
377.1000;0.9833;1.1312;
377.4000;0.9858;1.1359;
377.7000;0.9841;1.1429;
378.0000;0.9817;1.1499;
378.3000;0.9833;1.1569;
378.6000;0.9849;1.1382;
378.9000;0.9817;1.1335;
379.2000;0.9841;1.1429;
379.5000;0.9841;1.1359;
379.8000;0.9858;1.1335;
380.1000;0.9849;1.1405;
380.4000;0.9858;1.1522;
380.7000;0.9849;1.1499;
381.0000;0.9841;1.1452;
381.3000;0.9841;1.1475;
381.6000;0.9841;1.1522;
381.9000;0.9841;1.1499;
382.2000;0.9833;1.1499;
382.5000;0.9849;1.1545;
382.8000;0.9841;1.1522;
383.1000;0.9841;1.1545;
383.4000;0.9866;1.1662;
383.7000;0.9858;1.1639;
384.0000;0.9849;1.1569;
384.3000;0.9858;1.1522;
384.6000;0.9841;1.1429;
384.9000;0.9792;1.1359;
385.2000;0.9866;1.1569;
385.5000;0.9858;1.1545;
385.8000;0.9841;1.1522;
386.1000;0.9841;1.1475;
386.4000;0.9874;1.1452;
386.7000;0.9874;1.1359;
387.0000;0.9752;1.1149;
387.3000;0.9841;1.1312;
387.6000;0.9841;1.1335;
387.9000;0.9849;1.1335;
388.2000;0.9849;1.1195;
388.5000;0.9874;1.1312;
388.8000;0.9858;1.1382;
389.1000;0.9833;1.1359;
389.4000;0.9841;1.1452;
389.7000;0.9849;1.1382;
390.0000;0.9784;1.1242;
390.3000;0.9849;1.1452;
390.6000;0.9849;1.1405;
390.9000;0.9841;1.1405;
391.2000;0.9841;1.1405;
391.5000;0.9849;1.1545;
391.8000;0.9849;1.1639;
392.1000;0.9825;1.1639;
392.4000;0.9906;1.1825;
392.7000;0.9833;1.1615;
393.0000;0.9849;1.1615;
393.3000;0.9849;1.1662;
393.6000;0.9841;1.1615;
393.9000;0.9874;1.1615;
394.2000;0.9825;1.1452;
394.5000;0.9817;1.1429;
394.8000;0.9849;1.1522;
395.1000;0.9882;1.1545;
395.4000;0.9858;1.1452;
395.7000;0.9874;1.1499;
396.0000;0.9849;1.1359;
396.3000;0.9849;1.1335;
396.6000;0.9858;1.1335;
396.9000;0.9849;1.1382;
397.2000;0.9841;1.1405;
397.5000;0.9849;1.1475;
397.8000;0.9801;1.1429;
398.1000;0.9776;1.1499;
398.4000;0.9833;1.1662;
398.7000;0.9866;1.1615;
399.0000;0.9833;1.1452;
399.3000;0.9760;1.1242;
399.6000;0.9931;1.1732;
399.9000;0.9817;1.1452;
400.2000;0.9809;1.1452;
400.5000;0.9841;1.1615;
400.8000;0.9801;1.1615;
401.1000;0.9833;1.1545;
401.4000;0.9841;1.1429;
401.7000;0.9833;1.1382;
402.0000;0.9841;1.1452;
402.3000;0.9849;1.1545;
402.6000;0.9906;1.1732;
402.9000;0.9841;1.1569;
403.2000;0.9833;1.1592;
403.5000;0.9825;1.1522;
403.8000;0.9833;1.1522;
404.1000;0.9833;1.1522;
404.4000;0.9849;1.1499;
404.7000;0.9817;1.1429;
405.0000;0.9849;1.1545;
405.3000;0.9858;1.1615;
405.6000;0.9849;1.1569;
405.9000;0.9849;1.1592;
406.2000;0.9858;1.1545;
406.5000;0.9833;1.1452;
406.8000;0.9825;1.1522;
407.1000;0.9841;1.1545;
407.4000;0.9858;1.1545;
407.7000;0.9825;1.1452;
408.0000;0.9825;1.1499;
408.3000;0.9817;1.1522;
408.6000;0.9841;1.1499;
408.9000;0.9849;1.1545;
409.2000;0.9858;1.1592;
409.5000;0.9841;1.1662;
409.8000;0.9841;1.1639;
410.1000;0.9792;1.1569;
410.4000;0.9849;1.1708;
410.7000;0.9858;1.1708;
411.0000;0.9809;1.1685;
411.3000;0.9833;1.1802;
411.6000;0.9866;1.1802;
411.9000;0.9915;1.1895;
412.2000;0.9898;1.1918;
412.5000;0.9858;1.1732;
412.8000;0.9890;1.1825;
413.1000;0.9833;1.1592;
413.4000;0.9849;1.1569;
413.7000;0.9866;1.1639;
414.0000;0.9809;1.1545;
414.3000;0.9784;1.1569;
414.6000;0.9858;1.1708;
414.9000;0.9890;1.1732;
415.2000;0.9719;1.1335;
415.5000;0.9825;1.1522;
415.8000;0.9809;1.1569;
416.1000;0.9841;1.1545;
416.4000;0.9841;1.1499;
416.7000;0.9858;1.1475;
417.0000;0.9849;1.1499;
417.3000;0.9849;1.1545;
417.6000;0.9817;1.1499;
417.9000;0.9833;1.1405;
418.2000;0.9849;1.1405;
418.5000;0.9833;1.1312;
418.8000;0.9866;1.1405;
419.1000;0.9866;1.1382;
419.4000;0.9817;1.1265;
419.7000;0.9825;1.1219;
420.0000;0.9841;1.1242;
420.3000;0.9817;1.1172;
420.6000;0.9825;1.1125;
420.9000;0.9849;1.1125;
421.2000;0.9849;1.1125;
421.5000;0.9849;1.1055;
421.8000;0.9817;1.1055;
422.1000;0.9849;1.1125;
422.4000;0.9825;1.1125;
422.7000;0.9809;1.1242;
423.0000;0.9841;1.1335;
423.3000;0.9939;1.1569;
423.6000;1.0037;1.1778;
423.9000;0.9760;1.1102;
424.2000;0.9841;1.1265;
424.5000;0.9833;1.1172;
424.8000;0.9841;1.1149;
425.1000;0.9825;1.1079;
425.4000;0.9776;1.0962;
425.7000;0.9801;1.1032;
426.0000;0.9841;1.1032;
426.3000;0.9841;1.0985;
426.6000;0.9833;1.0939;
426.9000;0.9849;1.1055;
427.2000;0.9833;1.1149;
427.5000;0.9833;1.1125;
427.8000;0.9841;1.1149;
428.1000;0.9841;1.1242;
428.4000;0.9858;1.1219;
428.7000;0.9915;1.1405;
429.0000;0.9841;1.1219;
429.3000;0.9906;1.1405;
429.6000;0.9833;1.1195;
429.9000;0.9833;1.1149;
430.2000;0.9849;1.1242;
430.5000;0.9833;1.1195;
430.8000;0.9849;1.1219;
431.1000;0.9858;1.1335;
431.4000;0.9833;1.1265;
431.7000;0.9849;1.1242;
432.0000;0.9841;1.1219;
432.3000;0.9858;1.1265;
432.6000;0.9858;1.1452;
432.9000;0.9849;1.1335;
433.2000;0.9849;1.1405;
433.5000;0.9841;1.1429;
433.8000;0.9874;1.1475;
434.1000;0.9866;1.1499;
434.4000;0.9825;1.1475;
434.7000;0.9833;1.1592;
435.0000;0.9833;1.1452;
435.3000;0.9841;1.1405;
435.6000;0.9833;1.1382;
435.9000;0.9833;1.1359;
436.2000;0.9801;1.1242;
436.5000;0.9833;1.1265;
436.8000;0.9849;1.1312;
437.1000;0.9833;1.1312;
437.4000;0.9849;1.1382;
437.7000;0.9858;1.1429;
438.0000;0.9809;1.1312;
438.3000;0.9841;1.1359;
438.6000;0.9841;1.1312;
438.9000;0.9849;1.1359;
439.2000;0.9915;1.1499;
439.5000;0.9841;1.1382;
439.8000;0.9849;1.1475;
440.1000;0.9817;1.1522;
440.4000;0.9841;1.1569;
440.7000;0.9849;1.1475;
441.0000;0.9841;1.1405;
441.3000;0.9792;1.1359;
441.6000;0.9841;1.1475;
441.9000;0.9833;1.1405;
442.2000;0.9858;1.1405;
442.5000;0.9849;1.1382;
442.8000;0.9841;1.1335;
443.1000;0.9858;1.1429;
443.4000;0.9841;1.1499;
443.7000;0.9825;1.1452;
444.0000;0.9841;1.1499;
444.3000;0.9841;1.1522;
444.6000;0.9841;1.1382;
444.9000;0.9825;1.1312;
445.2000;0.9841;1.1335;
445.5000;0.9833;1.1312;
445.8000;0.9817;1.1312;
446.1000;0.9841;1.1359;
446.4000;0.9841;1.1452;
446.7000;0.9833;1.1429;
447.0000;0.9825;1.1452;
447.3000;0.9817;1.1475;
447.6000;0.9866;1.1639;
447.9000;0.9833;1.1592;
448.2000;0.9841;1.1685;
448.5000;0.9817;1.1592;
448.8000;0.9817;1.1615;
449.1000;0.9841;1.1545;
449.4000;0.9841;1.1475;
449.7000;0.9784;1.1405;
450.0000;0.9849;1.1569;
450.3000;0.9833;1.1452;
450.6000;0.9866;1.1475;
450.9000;0.9809;1.1289;
451.2000;0.9817;1.1405;
451.5000;0.9833;1.1405;
451.8000;0.9849;1.1452;
452.1000;0.9833;1.1452;
452.4000;0.9833;1.1499;
452.7000;0.9841;1.1475;
453.0000;0.9841;1.1499;
453.3000;0.9841;1.1499;
453.6000;0.9906;1.1615;
453.9000;0.9849;1.1475;
454.2000;0.9849;1.1382;
454.5000;0.9841;1.1335;
454.8000;0.9817;1.1289;
455.1000;0.9841;1.1312;
455.4000;0.9809;1.1265;
455.7000;0.9841;1.1312;
456.0000;0.9841;1.1429;
456.3000;0.9849;1.1522;
456.6000;0.9841;1.1475;
456.9000;0.9825;1.1452;
457.2000;0.9833;1.1405;
457.5000;0.9915;1.1592;
457.8000;0.9849;1.1429;
458.1000;0.9841;1.1452;
458.4000;0.9866;1.1452;
458.7000;0.9849;1.1289;
459.0000;0.9849;1.1242;
459.3000;0.9825;1.1265;
459.6000;0.9841;1.1289;
459.9000;0.9833;1.1289;
460.2000;0.9849;1.1359;
460.5000;0.9841;1.1382;
460.8000;0.9833;1.1429;
461.1000;0.9841;1.1382;
461.4000;0.9849;1.1405;
461.7000;0.9841;1.1405;
462.0000;0.9874;1.1499;
462.3000;0.9784;1.1289;
462.6000;0.9849;1.1382;
462.9000;0.9833;1.1335;
463.2000;0.9849;1.1382;
463.5000;0.9841;1.1475;
463.8000;0.9825;1.1475;
464.1000;0.9825;1.1429;
464.4000;0.9841;1.1592;
464.7000;0.9849;1.1662;
465.0000;0.9858;1.1685;
465.3000;0.9833;1.1615;
465.6000;0.9841;1.1522;
465.9000;0.9841;1.1545;
466.2000;0.9841;1.1429;
466.5000;0.9841;1.1405;
466.8000;0.9841;1.1475;
467.1000;0.9841;1.1499;
467.4000;0.9882;1.1639;
467.7000;0.9841;1.1545;
468.0000;0.9817;1.1475;
468.3000;0.9841;1.1569;
468.6000;0.9841;1.1615;
468.9000;0.9858;1.1592;
469.2000;0.9841;1.1569;
469.5000;0.9849;1.1569;
469.8000;0.9858;1.1639;
470.1000;0.9841;1.1522;
470.4000;0.9866;1.1592;
470.7000;0.9906;1.1708;
471.0000;0.9858;1.1685;
471.3000;0.9890;1.1755;
471.6000;0.9849;1.1499;
471.9000;0.9841;1.1522;
472.2000;0.9841;1.1475;
472.5000;0.9841;1.1405;
472.8000;0.9841;1.1475;
473.1000;0.9841;1.1499;
473.4000;0.9841;1.1569;
473.7000;0.9841;1.1522;
474.0000;0.9858;1.1592;
474.3000;0.9833;1.1615;
474.6000;0.9858;1.1592;
474.9000;0.9841;1.1499;
475.2000;0.9866;1.1475;
475.5000;0.9833;1.1475;
475.8000;0.9833;1.1522;
476.1000;0.9833;1.1522;
476.4000;0.9833;1.1429;
476.7000;0.9841;1.1475;
477.0000;0.9833;1.1475;
477.3000;0.9858;1.1545;
477.6000;0.9801;1.1405;
477.9000;0.9801;1.1429;
478.2000;0.9833;1.1499;
478.5000;0.9825;1.1499;
478.8000;0.9825;1.1475;
479.1000;0.9825;1.1569;
479.4000;0.9817;1.1452;
479.7000;0.9833;1.1475;
480.0000;0.9817;1.1522;
480.3000;0.9833;1.1545;
480.6000;0.9833;1.1499;
480.9000;0.9825;1.1452;
481.2000;0.9841;1.1499;
481.5000;0.9841;1.1522;
481.8000;0.9833;1.1545;
482.1000;0.9817;1.1499;
482.4000;0.9841;1.1522;
482.7000;0.9841;1.1545;
483.0000;0.9833;1.1592;
483.3000;0.9833;1.1615;
483.6000;0.9817;1.1545;
483.9000;0.9784;1.1405;
484.2000;0.9882;1.1662;
484.5000;0.9809;1.1522;
484.8000;0.9809;1.1522;
485.1000;0.9915;1.1778;
485.4000;0.9833;1.1615;
485.7000;0.9825;1.1545;
486.0000;0.9833;1.1545;
486.3000;0.9825;1.1615;
486.6000;0.9817;1.1639;
486.9000;0.9841;1.1639;
487.2000;0.9833;1.1522;
487.5000;0.9841;1.1405;
487.8000;0.9833;1.1335;
488.1000;0.9825;1.1312;
488.4000;0.9817;1.1265;
488.7000;0.9825;1.1359;
489.0000;0.9890;1.1475;
489.3000;0.9727;1.1195;
489.6000;0.9841;1.1592;
489.9000;0.9792;1.1569;
490.2000;0.9849;1.1708;
490.5000;0.9841;1.1685;
490.8000;0.9752;1.1499;
491.1000;0.9849;1.1755;
491.4000;0.9825;1.1708;
491.7000;0.9849;1.1732;
492.0000;0.9841;1.1708;
492.3000;0.9801;1.1522;
492.6000;0.9825;1.1499;
492.9000;0.9866;1.1522;
493.2000;0.9825;1.1405;
493.5000;0.9809;1.1359;
493.8000;0.9841;1.1335;
494.1000;0.9760;1.1195;
494.4000;0.9849;1.1452;
494.7000;0.9906;1.1662;
495.0000;0.9817;1.1545;
495.3000;0.9858;1.1545;
495.6000;0.9858;1.1499;
495.9000;0.9825;1.1405;
496.2000;0.9833;1.1475;
496.5000;0.9841;1.1429;
496.8000;0.9841;1.1545;
497.1000;0.9825;1.1499;
497.4000;0.9817;1.1452;
497.7000;0.9890;1.1685;
498.0000;0.9841;1.1615;
498.3000;0.9825;1.1615;
498.6000;0.9825;1.1615;
498.9000;0.9825;1.1639;
499.2000;0.9833;1.1662;
499.5000;0.9841;1.1732;
499.8000;0.9833;1.1732;
500.1000;0.9833;1.1802;
500.4000;0.9841;1.1732;
500.7000;0.9849;1.1685;
501.0000;0.9866;1.1708;
501.3000;0.9833;1.1708;
501.6000;0.9858;1.1732;
501.9000;0.9841;1.1685;
502.2000;0.9833;1.1615;
502.5000;0.9841;1.1639;
502.8000;0.9833;1.1639;
503.1000;0.9833;1.1662;
503.4000;0.9825;1.1615;
503.7000;0.9817;1.1545;
504.0000;0.9849;1.1522;
504.3000;0.9825;1.1522;
504.6000;0.9784;1.1429;
504.9000;0.9890;1.1639;
505.2000;0.9825;1.1522;
505.5000;0.9858;1.1639;
505.8000;0.9849;1.1499;
506.1000;0.9866;1.1499;
506.4000;0.9849;1.1522;
506.7000;0.9809;1.1452;
507.0000;0.9841;1.1545;
507.3000;0.9760;1.1289;
507.6000;0.9809;1.1452;
507.9000;0.9841;1.1405;
508.2000;0.9752;1.1149;
508.5000;0.9817;1.1242;
508.8000;0.9784;1.1195;
509.1000;0.9735;1.1125;
509.4000;0.9825;1.1429;
509.7000;0.9825;1.1382;
510.0000;0.9866;1.1475;
510.3000;0.9809;1.1312;
510.6000;0.9841;1.1359;
510.9000;0.9898;1.1522;
511.2000;0.9833;1.1475;
511.5000;0.9817;1.1452;
511.8000;0.9841;1.1499;
512.1000;0.9849;1.1522;
512.4000;0.9833;1.1452;
512.7000;0.9833;1.1522;
513.0000;0.9744;1.1289;
513.3000;0.9817;1.1499;
513.6000;0.9833;1.1639;
513.9000;0.9849;1.1685;
514.2000;0.9825;1.1685;
514.5000;0.9809;1.1639;
514.8000;0.9784;1.1662;
515.1000;0.9817;1.1615;
515.4000;0.9849;1.1662;
515.7000;0.9817;1.1569;
516.0000;0.9833;1.1662;
516.3000;0.9923;1.1988;
516.6000;0.9768;1.1732;
516.9000;0.9817;1.1755;
517.2000;0.9849;1.1825;
517.5000;0.9825;1.1708;
517.8000;0.9833;1.1662;
518.1000;0.9825;1.1545;
518.4000;0.9809;1.1499;
518.7000;0.9825;1.1475;
519.0000;0.9841;1.1452;
519.3000;0.9882;1.1522;
519.6000;0.9792;1.1312;
519.9000;0.9858;1.1429;
520.2000;0.9849;1.1405;
520.5000;0.9833;1.1452;
520.8000;0.9849;1.1569;
521.1000;0.9792;1.1382;
521.4000;0.9849;1.1522;
521.7000;0.9915;1.1708;
522.0000;0.9841;1.1522;
522.3000;0.9833;1.1499;
522.6000;0.9817;1.1452;
522.9000;0.9874;1.1545;
523.2000;0.9817;1.1335;
523.5000;0.9833;1.1429;
523.8000;0.9841;1.1499;
524.1000;0.9825;1.1499;
524.4000;0.9817;1.1429;
524.7000;0.9833;1.1405;
525.0000;0.9784;1.1312;
525.3000;0.9817;1.1289;
525.6000;0.9874;1.1405;
525.9000;0.9833;1.1289;
526.2000;0.9866;1.1405;
526.5000;0.9727;1.1125;
526.8000;0.9849;1.1405;
527.1000;0.9825;1.1359;
527.4000;0.9849;1.1382;
527.7000;0.9841;1.1312;
528.0000;0.9809;1.1219;
528.3000;0.9833;1.1265;
528.6000;0.9849;1.1382;
528.9000;0.9825;1.1312;
529.2000;0.9817;1.1335;
529.5000;0.9833;1.1382;
529.8000;0.9825;1.1429;
530.1000;0.9825;1.1405;
530.4000;0.9825;1.1405;
530.7000;0.9833;1.1359;
531.0000;0.9841;1.1499;
531.3000;0.9833;1.1335;
531.6000;0.9833;1.1359;
531.9000;0.9833;1.1359;
532.2000;0.9915;1.1522;
532.5000;0.9841;1.1335;
532.8000;0.9849;1.1382;
533.1000;0.9784;1.1312;
533.4000;0.9760;1.1172;
533.7000;0.9849;1.1312;
534.0000;0.9841;1.1335;
534.3000;0.9817;1.1335;
534.6000;0.9825;1.1429;
534.9000;0.9841;1.1382;
535.2000;0.9874;1.1499;
535.5000;0.9841;1.1499;
535.8000;0.9833;1.1452;
536.1000;0.9841;1.1405;
536.4000;0.9833;1.1359;
536.7000;0.9841;1.1265;
537.0000;0.9817;1.1219;
537.3000;0.9849;1.1429;
537.6000;0.9841;1.1475;
537.9000;0.9801;1.1312;
538.2000;0.9825;1.1382;
538.5000;0.9833;1.1359;
538.8000;0.9817;1.1359;
539.1000;0.9809;1.1335;
539.4000;0.9833;1.1452;
539.7000;0.9858;1.1522;
540.0000;0.9825;1.1405;
540.3000;0.9833;1.1382;
540.6000;0.9825;1.1475;
540.9000;0.9825;1.1429;
541.2000;0.9817;1.1452;
541.5000;0.9866;1.1615;
541.8000;0.9833;1.1545;
542.1000;0.9825;1.1475;
542.4000;0.9841;1.1429;
542.7000;0.9825;1.1452;
543.0000;0.9825;1.1359;
543.3000;0.9817;1.1405;
543.6000;0.9833;1.1382;
543.9000;0.9841;1.1335;
544.2000;0.9833;1.1312;
544.5000;0.9833;1.1335;
544.8000;0.9817;1.1382;
545.1000;0.9841;1.1312;
545.4000;0.9833;1.1405;
545.7000;0.9817;1.1452;
546.0000;0.9817;1.1569;
546.3000;0.9825;1.1662;
546.6000;0.9841;1.1685;
546.9000;0.9768;1.1429;
547.2000;0.9833;1.1522;
547.5000;0.9825;1.1592;
547.8000;0.9817;1.1569;
548.1000;0.9849;1.1545;
548.4000;0.9906;1.1685;
548.7000;0.9841;1.1639;
549.0000;0.9833;1.1569;
549.3000;0.9825;1.1499;
549.6000;0.9849;1.1405;
549.9000;0.9882;1.1359;
550.2000;0.9833;1.1219;
550.5000;0.9849;1.1219;
550.8000;0.9841;1.1289;
551.1000;0.9833;1.1335;
551.4000;0.9825;1.1335;
551.7000;0.9841;1.1499;
552.0000;0.9817;1.1499;
552.3000;0.9809;1.1475;
552.6000;0.9801;1.1429;
552.9000;0.9727;1.1149;
553.2000;0.9849;1.1475;
553.5000;0.9825;1.1359;
553.8000;0.9866;1.1499;
554.1000;0.9825;1.1335;
554.4000;0.9833;1.1242;
554.7000;0.9874;1.1289;
555.0000;0.9809;1.1265;
555.3000;0.9817;1.1242;
555.6000;0.9792;1.1219;
555.9000;0.9817;1.1335;
556.2000;0.9801;1.1242;
556.5000;0.9817;1.1242;
556.8000;0.9776;1.1125;
557.1000;0.9809;1.1429;
557.4000;0.9858;1.1499;
557.7000;0.9858;1.1429;
558.0000;0.9776;1.1335;
558.3000;0.9841;1.1522;
558.6000;0.9833;1.1499;
558.9000;0.9841;1.1452;
559.2000;0.9833;1.1335;
559.5000;0.9825;1.1289;
559.8000;0.9841;1.1335;
560.1000;0.9882;1.1475;
560.4000;0.9833;1.1382;
560.7000;0.9825;1.1359;
561.0000;0.9801;1.1382;
561.3000;0.9825;1.1569;
561.6000;0.9809;1.1499;
561.9000;0.9817;1.1499;
562.2000;0.9817;1.1475;
562.5000;0.9817;1.1405;
562.8000;0.9841;1.1452;
563.1000;0.9825;1.1405;
563.4000;0.9858;1.1359;
563.7000;0.9776;1.1149;
564.0000;0.9817;1.1242;
564.3000;0.9817;1.1242;
564.6000;0.9866;1.1382;
564.9000;0.9825;1.1312;
565.2000;0.9817;1.1265;
565.5000;0.9817;1.1312;
565.8000;0.9841;1.1382;
566.1000;0.9825;1.1405;
566.4000;0.9817;1.1429;
566.7000;0.9825;1.1359;
567.0000;0.9825;1.1312;
567.3000;0.9825;1.1265;
567.6000;0.9841;1.1242;
567.9000;0.9841;1.1172;
568.2000;0.9825;1.1102;
568.5000;0.9874;1.1265;
568.8000;0.9792;1.1195;
569.1000;0.9841;1.1382;
569.4000;0.9858;1.1429;
569.7000;0.9833;1.1359;
570.0000;0.9841;1.1335;
570.3000;0.9841;1.1382;
570.6000;0.9866;1.1429;
570.9000;0.9841;1.1452;
571.2000;0.9866;1.1429;
571.5000;0.9817;1.1405;
571.8000;0.9825;1.1405;
572.1000;0.9866;1.1405;
572.4000;0.9817;1.1265;
572.7000;0.9825;1.1312;
573.0000;0.9809;1.1312;
573.3000;0.9841;1.1289;
573.6000;0.9833;1.1219;
573.9000;0.9817;1.1219;
574.2000;0.9833;1.1195;
574.5000;0.9849;1.1242;
574.8000;0.9882;1.1452;
575.1000;0.9825;1.1335;
575.4000;0.9858;1.1429;
575.7000;0.9809;1.1405;
576.0000;0.9866;1.1522;
576.3000;0.9825;1.1475;
576.6000;0.9825;1.1429;
576.9000;0.9801;1.1382;
577.2000;0.9817;1.1359;
577.5000;0.9833;1.1405;
577.8000;0.9817;1.1289;
578.1000;0.9833;1.1289;
578.4000;0.9825;1.1312;
578.7000;0.9833;1.1289;
579.0000;0.9833;1.1242;
579.3000;0.9792;1.1289;
579.6000;0.9792;1.1359;
579.9000;0.9841;1.1475;
580.2000;0.9833;1.1499;
580.5000;0.9817;1.1545;
580.8000;0.9817;1.1545;
581.1000;0.9817;1.1545;
581.4000;0.9866;1.1569;
581.7000;0.9817;1.1405;
582.0000;0.9841;1.1359;
582.3000;0.9833;1.1335;
582.6000;0.9833;1.1289;
582.9000;0.9817;1.1242;
583.2000;0.9817;1.1195;
583.5000;0.9849;1.1219;
583.8000;0.9849;1.1289;
584.1000;0.9841;1.1405;
584.4000;0.9849;1.1405;
584.7000;0.9858;1.1452;
585.0000;0.9841;1.1429;
585.3000;0.9841;1.1382;
585.6000;0.9825;1.1452;
585.9000;0.9801;1.1382;
586.2000;0.9825;1.1429;
586.5000;0.9825;1.1429;
586.8000;0.9833;1.1615;
587.1000;0.9817;1.1569;
587.4000;0.9833;1.1662;
587.7000;0.9825;1.1639;
588.0000;0.9874;1.1732;
588.3000;0.9809;1.1569;
588.6000;0.9809;1.1522;
588.9000;0.9833;1.1569;
589.2000;0.9841;1.1639;
589.5000;0.9833;1.1639;
589.8000;0.9817;1.1569;
590.1000;0.9817;1.1592;
590.4000;0.9817;1.1662;
590.7000;0.9825;1.1685;
591.0000;0.9825;1.1639;
591.3000;0.9833;1.1685;
591.6000;0.9833;1.1615;
591.9000;0.9833;1.1615;
592.2000;0.9801;1.1522;
592.5000;0.9784;1.1429;
592.8000;0.9809;1.1499;
593.1000;0.9866;1.1592;
593.4000;0.9760;1.1452;
593.7000;0.9849;1.1545;
594.0000;0.9825;1.1569;
594.3000;0.9833;1.1405;
594.6000;0.9833;1.1359;
594.9000;0.9825;1.1382;
595.2000;0.9825;1.1312;
595.5000;0.9825;1.1335;
595.8000;0.9841;1.1382;
596.1000;0.9833;1.1429;
596.4000;0.9817;1.1312;
596.7000;0.9833;1.1429;
597.0000;0.9825;1.1382;
597.3000;0.9809;1.1359;
597.6000;0.9784;1.1359;
597.9000;0.9792;1.1429;
598.2000;0.9825;1.1545;
598.5000;0.9817;1.1475;
598.8000;0.9825;1.1429;
599.1000;0.9817;1.1289;
599.4000;0.9817;1.1265;
599.7000;0.9817;1.1289;
600.0000;0.9817;1.1335;
600.3000;0.9882;1.1289;
600.6000;0.9890;1.1265;
600.9000;0.9882;1.1219;
601.2000;0.9833;1.1079;
601.5000;0.9784;1.0915;
601.8000;0.9744;1.0939;
602.1000;0.9678;1.0846;
602.4000;0.9695;1.0892;
602.7000;0.9548;1.0566;
603.0000;0.9491;1.0426;
603.3000;0.9451;1.0309;
603.6000;0.9377;1.0122;
603.9000;0.9271;0.9913;
604.2000;0.9271;0.9889;
604.5000;0.9206;0.9773;
604.8000;0.9141;0.9749;
605.1000;0.9125;0.9843;
605.4000;0.9125;0.9913;
605.7000;0.9027;0.9819;
606.0000;0.8995;0.9819;
606.3000;0.8962;0.9843;
606.6000;0.8897;0.9773;
606.9000;0.8856;0.9796;
607.2000;0.8848;0.9773;
607.5000;0.8767;0.9586;
607.8000;0.8742;0.9586;
608.1000;0.8702;0.9609;
608.4000;0.8685;0.9586;
608.7000;0.8653;0.9539;
609.0000;0.8628;0.9539;
609.3000;0.8604;0.9469;
609.6000;0.8588;0.9516;
609.9000;0.8555;0.9469;
610.2000;0.8490;0.9376;
610.5000;0.8474;0.9446;
610.8000;0.8457;0.9376;
611.1000;0.8425;0.9306;
611.4000;0.8400;0.9260;
611.7000;0.8344;0.9236;
612.0000;0.8352;0.9236;
612.3000;0.8327;0.9166;
612.6000;0.8311;0.9143;
612.9000;0.8262;0.9073;
613.2000;0.8238;0.9026;
613.5000;0.8262;0.9306;
613.8000;0.8189;0.9283;
614.1000;0.8156;0.9306;
614.4000;0.8140;0.9236;
614.7000;0.8116;0.9283;
615.0000;0.8099;0.9329;
615.3000;0.8075;0.9190;
615.6000;0.8059;0.9190;
615.9000;0.8034;0.9120;
616.2000;0.7993;0.9050;
616.5000;0.8002;0.9143;
616.8000;0.7985;0.9213;
617.1000;0.7945;0.9283;
617.4000;0.7928;0.9376;
617.7000;0.7937;0.9329;
618.0000;0.7928;0.9376;
618.3000;0.7904;0.9283;
618.6000;0.7863;0.9190;
618.9000;0.7839;0.9096;
619.2000;0.7896;0.9213;
619.5000;0.7774;0.9003;
619.8000;0.7806;0.9166;
620.1000;0.7766;0.9143;
620.4000;0.7774;0.9143;
620.7000;0.7749;0.9166;
621.0000;0.7757;0.9213;
621.3000;0.7733;0.9166;
621.6000;0.7709;0.9190;
621.9000;0.7692;0.9190;
622.2000;0.7684;0.9236;
622.5000;0.7660;0.9166;
622.8000;0.7676;0.9143;
623.1000;0.7676;0.9190;
623.4000;0.7643;0.9050;
623.7000;0.7627;0.8980;
624.0000;0.7595;0.9050;
624.3000;0.7586;0.9050;
624.6000;0.7538;0.9003;
624.9000;0.7554;0.9003;
625.2000;0.7538;0.9003;
625.5000;0.7530;0.9050;
625.8000;0.7521;0.9096;
626.1000;0.7513;0.9236;
626.4000;0.7383;0.8956;
626.7000;0.7481;0.9166;
627.0000;0.7505;0.9306;
627.3000;0.7432;0.9166;
627.6000;0.7448;0.9236;
627.9000;0.7416;0.9190;
628.2000;0.7367;0.9003;
628.5000;0.7399;0.9073;
628.8000;0.7424;0.9120;
629.1000;0.7367;0.9026;
629.4000;0.7367;0.9026;
629.7000;0.7359;0.8980;
630.0000;0.7342;0.8980;
630.3000;0.7367;0.9096;
630.6000;0.7350;0.9096;
630.9000;0.7310;0.9073;
631.2000;0.7302;0.9143;
631.5000;0.7302;0.9120;
631.8000;0.7302;0.9190;
632.1000;0.7285;0.9166;
632.4000;0.7326;0.9190;
632.7000;0.7261;0.9073;
633.0000;0.7196;0.8863;
633.3000;0.7220;0.8886;
633.6000;0.7269;0.9050;
633.9000;0.7220;0.9003;
634.2000;0.7220;0.9026;
634.5000;0.7139;0.8886;
634.8000;0.7188;0.9073;
635.1000;0.7163;0.9096;
635.4000;0.7155;0.9073;
635.7000;0.7155;0.9026;
636.0000;0.7163;0.9050;
636.3000;0.7220;0.9306;
636.6000;0.7147;0.9143;
636.9000;0.7098;0.9120;
637.2000;0.7123;0.9096;
637.5000;0.7098;0.9003;
637.8000;0.7098;0.9050;
638.1000;0.7041;0.8816;
638.4000;0.7090;0.8980;
638.7000;0.7074;0.8980;
639.0000;0.7082;0.9003;
639.3000;0.7066;0.9050;
639.6000;0.7049;0.9120;
639.9000;0.7049;0.9190;
640.2000;0.7041;0.9166;
640.5000;0.7017;0.9143;
640.8000;0.7025;0.9120;
641.1000;0.7017;0.9003;
641.4000;0.7009;0.8933;
641.7000;0.7017;0.9050;
642.0000;0.6968;0.9003;
642.3000;0.6984;0.9073;
642.6000;0.7049;0.9283;
642.9000;0.7000;0.9120;
643.2000;0.6968;0.9143;
643.5000;0.6886;0.8933;
643.8000;0.6960;0.9073;
644.1000;0.7033;0.9236;
644.4000;0.6927;0.8886;
644.7000;0.6976;0.9003;
645.0000;0.6935;0.8933;
645.3000;0.6943;0.9073;
645.6000;0.6935;0.9073;
645.9000;0.6895;0.9096;
646.2000;0.6919;0.9120;
646.5000;0.6919;0.9073;
646.8000;0.6895;0.9003;
647.1000;0.6886;0.9050;
647.4000;0.6821;0.8980;
647.7000;0.6854;0.9166;
648.0000;0.6943;0.9353;
648.3000;0.6838;0.8980;
648.6000;0.6903;0.9120;
648.9000;0.6846;0.8980;
649.2000;0.6838;0.8910;
649.5000;0.6838;0.9050;
649.8000;0.6911;0.9190;
650.1000;0.6821;0.9026;
650.4000;0.6813;0.9026;
650.7000;0.6829;0.9050;
651.0000;0.6781;0.8910;
651.3000;0.6789;0.9003;
651.6000;0.6797;0.9073;
651.9000;0.6821;0.9096;
652.2000;0.6821;0.9143;
652.5000;0.6789;0.9120;
652.8000;0.6805;0.9166;
653.1000;0.6756;0.9096;
653.4000;0.6772;0.9190;
653.7000;0.6805;0.9236;
654.0000;0.6756;0.9236;
654.3000;0.6764;0.9213;
654.6000;0.6748;0.9143;
654.9000;0.6772;0.9120;
655.2000;0.6748;0.9026;
655.5000;0.6797;0.9120;
655.8000;0.6732;0.8933;
656.1000;0.6748;0.9003;
656.4000;0.6732;0.9073;
656.7000;0.6740;0.9096;
657.0000;0.6724;0.9166;
657.3000;0.6716;0.9213;
657.6000;0.6724;0.9236;
657.9000;0.6724;0.9166;
658.2000;0.6707;0.9166;
658.5000;0.6716;0.9213;
658.8000;0.6675;0.9190;
659.1000;0.6683;0.9260;
659.4000;0.6691;0.9260;
659.7000;0.6707;0.9376;
660.0000;0.6667;0.9236;
660.3000;0.6659;0.9236;
660.6000;0.6675;0.9213;
660.9000;0.6691;0.9236;
661.2000;0.6667;0.9096;
661.5000;0.6675;0.9050;
661.8000;0.6618;0.8863;
662.1000;0.6667;0.9073;
662.4000;0.6659;0.9120;
662.7000;0.6626;0.9073;
663.0000;0.6634;0.9120;
663.3000;0.6650;0.9190;
663.6000;0.6650;0.9120;
663.9000;0.6610;0.9096;
664.2000;0.6626;0.9190;
664.5000;0.6626;0.9143;
664.8000;0.6626;0.9120;
665.1000;0.6602;0.8956;
665.4000;0.6602;0.8933;
665.7000;0.6602;0.8933;
666.0000;0.6528;0.8816;
666.3000;0.6577;0.9026;
666.6000;0.6577;0.9026;
666.9000;0.6618;0.9120;
667.2000;0.6593;0.9096;
667.5000;0.6577;0.9120;
667.8000;0.6553;0.9003;
668.1000;0.6585;0.9050;
668.4000;0.6585;0.9166;
668.7000;0.6585;0.9166;
669.0000;0.6585;0.9166;
669.3000;0.6528;0.9026;
669.6000;0.6569;0.9096;
669.9000;0.6569;0.9096;
670.2000;0.6553;0.9073;
670.5000;0.6545;0.9096;
670.8000;0.6561;0.9190;
671.1000;0.6545;0.9213;
671.4000;0.6528;0.9213;
671.7000;0.6536;0.9236;
672.0000;0.6536;0.9190;
672.3000;0.6528;0.9143;
672.6000;0.6553;0.9120;
672.9000;0.6528;0.9143;
673.2000;0.6528;0.9120;
673.5000;0.6536;0.9190;
673.8000;0.6528;0.9143;
674.1000;0.6504;0.9050;
674.4000;0.6455;0.8863;
674.7000;0.6496;0.9003;
675.0000;0.6520;0.9073;
675.3000;0.6496;0.9026;
675.6000;0.6471;0.9026;
675.9000;0.6479;0.8933;
676.2000;0.6520;0.9003;
676.5000;0.6479;0.9026;
676.8000;0.6488;0.9120;
677.1000;0.6504;0.9120;
677.4000;0.6504;0.9143;
677.7000;0.6488;0.9120;
678.0000;0.6488;0.9073;
678.3000;0.6504;0.9096;
678.6000;0.6496;0.9120;
678.9000;0.6496;0.9073;
679.2000;0.6463;0.8980;
679.5000;0.6488;0.9026;
679.8000;0.6479;0.9050;
680.1000;0.6463;0.9026;
680.4000;0.6463;0.9050;
680.7000;0.6455;0.8933;
681.0000;0.6455;0.8933;
681.3000;0.6471;0.8980;
681.6000;0.6455;0.9026;
681.9000;0.6422;0.8980;
682.2000;0.6422;0.8886;
682.5000;0.6390;0.8863;
682.8000;0.6455;0.9073;
683.1000;0.6455;0.9143;
683.4000;0.6471;0.9096;
683.7000;0.6447;0.9003;
684.0000;0.6447;0.9026;
684.3000;0.6447;0.9050;
684.6000;0.6447;0.9026;
684.9000;0.6439;0.9003;
685.2000;0.6431;0.9003;
685.5000;0.6398;0.8910;
685.8000;0.6414;0.8840;
686.1000;0.6357;0.8676;
686.4000;0.6422;0.8816;
686.7000;0.6422;0.8793;
687.0000;0.6390;0.8746;
687.3000;0.6422;0.8840;
687.6000;0.6414;0.8723;
687.9000;0.6414;0.8700;
688.2000;0.6349;0.8536;
688.5000;0.6398;0.8676;
688.8000;0.6398;0.8700;
689.1000;0.6365;0.8560;
689.4000;0.6390;0.8676;
689.7000;0.6398;0.8770;
690.0000;0.6414;0.8840;
690.3000;0.6447;0.8886;
690.6000;0.6406;0.8840;
690.9000;0.6382;0.8886;
691.2000;0.6406;0.8910;
691.5000;0.6390;0.8840;
691.8000;0.6382;0.8793;
692.1000;0.6382;0.8840;
692.4000;0.6374;0.8793;
692.7000;0.6398;0.8816;
693.0000;0.6398;0.8840;
693.3000;0.6341;0.8630;
693.6000;0.6374;0.8653;
693.9000;0.6390;0.8606;
694.2000;0.6390;0.8606;
694.5000;0.6382;0.8513;
694.8000;0.6374;0.8583;
695.1000;0.6374;0.8676;
695.4000;0.6374;0.8723;
695.7000;0.6357;0.8676;
696.0000;0.6365;0.8723;
696.3000;0.6374;0.8816;
696.6000;0.6365;0.8886;
696.9000;0.6357;0.8910;
697.2000;0.6398;0.8910;
697.5000;0.6341;0.8793;
697.8000;0.6357;0.8886;
698.1000;0.6357;0.8933;
698.4000;0.6333;0.8863;
698.7000;0.6455;0.9236;
699.0000;0.6325;0.8956;
699.3000;0.6333;0.9026;
699.6000;0.6341;0.9003;
699.9000;0.6349;0.9096;
700.2000;0.6333;0.8933;
700.5000;0.6374;0.9026;
700.8000;0.6357;0.8980;
701.1000;0.6243;0.8816;
701.4000;0.6325;0.9050;
701.7000;0.6341;0.9050;
702.0000;0.6341;0.9003;
702.3000;0.6333;0.8910;
702.6000;0.6333;0.8886;
702.9000;0.6349;0.9026;
703.2000;0.6365;0.9096;
703.5000;0.6365;0.9096;
703.8000;0.6317;0.8956;
704.1000;0.6300;0.8863;
704.4000;0.6333;0.8910;
704.7000;0.6333;0.8840;
705.0000;0.6325;0.8863;
705.3000;0.6317;0.8840;
705.6000;0.6341;0.8956;
705.9000;0.6203;0.8746;
706.2000;0.6292;0.8910;
706.5000;0.6406;0.9283;
706.8000;0.6317;0.8980;
707.1000;0.6309;0.9050;
707.4000;0.6309;0.9120;
707.7000;0.6300;0.9143;
708.0000;0.6300;0.9050;
708.3000;0.6300;0.9096;
708.6000;0.6292;0.9073;
708.9000;0.6357;0.9143;
709.2000;0.6292;0.9003;
709.5000;0.6325;0.9050;
709.8000;0.6284;0.9120;
710.1000;0.6243;0.8886;
710.4000;0.6349;0.9026;
710.7000;0.6317;0.8980;
711.0000;0.6325;0.9096;
711.3000;0.6284;0.9003;
711.6000;0.6276;0.9026;
711.9000;0.6268;0.9050;
712.2000;0.6276;0.9143;
712.5000;0.6276;0.9096;
712.8000;0.6227;0.8980;
713.1000;0.6268;0.9026;
713.4000;0.6260;0.9096;
713.7000;0.6284;0.9120;
714.0000;0.6268;0.9120;
714.3000;0.6268;0.9050;
714.6000;0.6284;0.9003;
714.9000;0.6284;0.8910;
715.2000;0.6292;0.8933;
715.5000;0.6284;0.8933;
715.8000;0.6276;0.9003;
716.1000;0.6276;0.9003;
716.4000;0.6284;0.8886;
716.7000;0.6268;0.8956;
717.0000;0.6276;0.8933;
717.3000;0.6260;0.8956;
717.6000;0.6276;0.8956;
717.9000;0.6170;0.8560;
718.2000;0.6292;0.8863;
718.5000;0.6243;0.8840;
718.8000;0.6268;0.8980;
719.1000;0.6276;0.9073;
719.4000;0.6276;0.9096;
719.7000;0.6268;0.9190;
720.0000;0.6260;0.9120;
720.3000;0.6219;0.9050;
720.6000;0.6243;0.9143;
720.9000;0.6260;0.9190;
721.2000;0.6243;0.9120;
721.5000;0.6243;0.9120;
721.8000;0.6219;0.9190;
722.1000;0.6260;0.9306;
722.4000;0.6235;0.9353;
722.7000;0.6284;0.9353;
723.0000;0.6227;0.9096;
723.3000;0.6227;0.9096;
723.6000;0.6235;0.8956;
723.9000;0.6170;0.8770;
724.2000;0.6252;0.8863;
724.5000;0.6252;0.8816;
724.8000;0.6235;0.8816;
725.1000;0.6252;0.8863;
725.4000;0.6203;0.8863;
725.7000;0.6219;0.8910;
726.0000;0.6260;0.9026;
726.3000;0.6227;0.8933;
726.6000;0.6211;0.8933;
726.9000;0.6219;0.8956;
727.2000;0.6227;0.9026;
727.5000;0.6195;0.9003;
727.8000;0.6219;0.9050;
728.1000;0.6219;0.9050;
728.4000;0.6227;0.9096;
728.7000;0.6243;0.9190;
729.0000;0.6219;0.9120;
729.3000;0.6227;0.9120;
729.6000;0.6325;0.9236;
729.9000;0.6227;0.9003;
730.2000;0.6268;0.9096;
730.5000;0.6276;0.9166;
730.8000;0.6235;0.9190;
731.1000;0.6211;0.9096;
731.4000;0.6227;0.9190;
731.7000;0.6276;0.9376;
732.0000;0.6203;0.9120;
732.3000;0.6195;0.9143;
732.6000;0.6113;0.8910;
732.9000;0.6195;0.9096;
733.2000;0.6219;0.9190;
733.5000;0.6260;0.9236;
733.8000;0.6203;0.9073;
734.1000;0.6195;0.9026;
734.4000;0.6195;0.9026;
734.7000;0.6203;0.9050;
735.0000;0.6203;0.9050;
735.3000;0.6219;0.9073;
735.6000;0.6252;0.9236;
735.9000;0.6186;0.9050;
736.2000;0.6195;0.8933;
736.5000;0.6195;0.8793;
736.8000;0.6186;0.8770;
737.1000;0.6154;0.8560;
737.4000;0.6195;0.8700;
737.7000;0.6195;0.8793;
738.0000;0.6203;0.8746;
738.3000;0.6195;0.8816;
738.6000;0.6195;0.8816;
738.9000;0.6203;0.8840;
739.2000;0.6203;0.8910;
739.5000;0.6195;0.8886;
739.8000;0.6146;0.8770;
740.1000;0.6170;0.8910;
740.4000;0.6227;0.9120;
740.7000;0.6195;0.9050;
741.0000;0.6186;0.9026;
741.3000;0.6170;0.8910;
741.6000;0.6186;0.8980;
741.9000;0.6186;0.9003;
742.2000;0.6129;0.8933;
742.5000;0.6195;0.9050;
742.8000;0.6203;0.9096;
743.1000;0.6146;0.8910;
743.4000;0.6178;0.9003;
743.7000;0.6195;0.8933;
744.0000;0.6186;0.8933;
744.3000;0.6203;0.9003;
744.6000;0.6170;0.8910;
744.9000;0.6186;0.8980;
745.2000;0.6195;0.9003;
745.5000;0.6186;0.8933;
745.8000;0.6154;0.8863;
746.1000;0.6203;0.8980;
746.4000;0.6186;0.8933;
746.7000;0.6178;0.8933;
747.0000;0.6170;0.8910;
747.3000;0.6203;0.9003;
747.6000;0.6186;0.8956;
747.9000;0.6186;0.8980;
748.2000;0.6170;0.8980;
748.5000;0.6178;0.9073;
748.8000;0.6170;0.9143;
749.1000;0.6178;0.9190;
749.4000;0.6170;0.9213;
749.7000;0.6154;0.9190;
750.0000;0.6178;0.9050;
750.3000;0.6186;0.8956;
750.6000;0.6186;0.8910;
750.9000;0.6178;0.8840;
751.2000;0.6178;0.8933;
751.5000;0.6211;0.8956;
751.8000;0.6178;0.8910;
752.1000;0.6186;0.8933;
752.4000;0.6178;0.8980;
752.7000;0.6097;0.8793;
753.0000;0.6138;0.8863;
753.3000;0.6170;0.8910;
753.6000;0.6195;0.8980;
753.9000;0.6178;0.9003;
754.2000;0.6178;0.8980;
754.5000;0.6170;0.9026;
754.8000;0.6170;0.8956;
755.1000;0.6170;0.8933;
755.4000;0.6178;0.9003;
755.7000;0.6162;0.8956;
756.0000;0.6162;0.8956;
756.3000;0.6138;0.8910;
756.6000;0.6105;0.8816;
756.9000;0.6178;0.9026;
757.2000;0.6186;0.9120;
757.5000;0.6170;0.8980;
757.8000;0.6170;0.8980;
758.1000;0.6162;0.9050;
758.4000;0.6162;0.9073;
758.7000;0.6146;0.8956;
759.0000;0.6113;0.8886;
759.3000;0.6154;0.8910;
759.6000;0.6154;0.8933;
759.9000;0.6227;0.9096;
760.2000;0.6195;0.9026;
760.5000;0.6097;0.8723;
760.8000;0.6252;0.9096;
761.1000;0.6056;0.8723;
761.4000;0.6162;0.9026;
761.7000;0.6146;0.8980;
762.0000;0.6113;0.8956;
762.3000;0.6195;0.9096;
762.6000;0.6162;0.9050;
762.9000;0.6138;0.8980;
763.2000;0.6178;0.9026;
763.5000;0.6170;0.9050;
763.8000;0.6154;0.9026;
764.1000;0.6138;0.8956;
764.4000;0.6146;0.8956;
764.7000;0.6162;0.9073;
765.0000;0.6138;0.8956;
765.3000;0.6170;0.9026;
765.6000;0.6154;0.8933;
765.9000;0.6146;0.8956;
766.2000;0.6162;0.9003;
766.5000;0.6154;0.9026;
766.8000;0.6170;0.9003;
767.1000;0.6154;0.8886;
767.4000;0.6170;0.8956;
767.7000;0.6170;0.8980;
768.0000;0.6146;0.8956;
768.3000;0.6089;0.8816;
768.6000;0.6129;0.8956;
768.9000;0.6138;0.9050;
769.2000;0.6129;0.9166;
769.5000;0.6129;0.9190;
769.8000;0.6154;0.9190;
770.1000;0.6105;0.9143;
770.4000;0.6105;0.9120;
770.7000;0.6138;0.9166;
771.0000;0.6146;0.9096;
771.3000;0.6170;0.9120;
771.6000;0.6138;0.9096;
771.9000;0.6138;0.9073;
772.2000;0.6129;0.9143;
772.5000;0.6154;0.9306;
772.8000;0.6146;0.9260;
773.1000;0.6162;0.9260;
773.4000;0.6146;0.9260;
773.7000;0.6154;0.9213;
774.0000;0.6138;0.9143;
774.3000;0.6105;0.9073;
774.6000;0.6146;0.9236;
774.9000;0.6154;0.9329;
775.2000;0.6154;0.9236;
775.5000;0.6146;0.9096;
775.8000;0.6129;0.9050;
776.1000;0.6121;0.9026;
776.4000;0.6211;0.9283;
776.7000;0.6146;0.9143;
777.0000;0.6146;0.9190;
777.3000;0.6138;0.9096;
777.6000;0.6146;0.8956;
777.9000;0.6154;0.8933;
778.2000;0.6138;0.8933;
778.5000;0.6138;0.8910;
778.8000;0.6146;0.8910;
779.1000;0.6146;0.8863;
779.4000;0.6186;0.8910;
779.7000;0.6121;0.8816;
780.0000;0.6146;0.8816;
780.3000;0.6105;0.8770;
780.6000;0.6064;0.8723;
780.9000;0.6064;0.8770;
781.2000;0.6129;0.8910;
781.5000;0.6121;0.8886;
781.8000;0.6138;0.8980;
782.1000;0.6154;0.9050;
782.4000;0.6097;0.8980;
782.7000;0.6146;0.9050;
783.0000;0.6032;0.8840;
783.3000;0.6178;0.9166;
783.6000;0.6203;0.9096;
783.9000;0.6097;0.8840;
784.2000;0.6121;0.8863;
784.5000;0.6227;0.9050;
784.8000;0.6129;0.8816;
785.1000;0.6138;0.8793;
785.4000;0.6121;0.8840;
785.7000;0.6129;0.8910;
786.0000;0.6129;0.8933;
786.3000;0.6129;0.9003;
786.6000;0.6138;0.8910;
786.9000;0.6113;0.8886;
787.2000;0.6170;0.9143;
787.5000;0.6129;0.9096;
787.8000;0.6146;0.9073;
788.1000;0.6138;0.9073;
788.4000;0.6113;0.9073;
788.7000;0.6146;0.9050;
789.0000;0.6146;0.9026;
789.3000;0.6162;0.9026;
789.6000;0.6129;0.8910;
789.9000;0.6138;0.8886;
790.2000;0.6138;0.8980;
790.5000;0.6146;0.8956;
790.8000;0.6129;0.8956;
791.1000;0.6113;0.8910;
791.4000;0.6235;0.9166;
791.7000;0.6138;0.8840;
792.0000;0.6129;0.8863;
792.3000;0.6129;0.8863;
792.6000;0.6138;0.9003;
792.9000;0.6129;0.9026;
793.2000;0.6072;0.8910;
793.5000;0.6113;0.9003;
793.8000;0.6121;0.9073;
794.1000;0.6146;0.9096;
794.4000;0.6121;0.8933;
794.7000;0.6121;0.8910;
795.0000;0.6113;0.8886;
795.3000;0.6113;0.8886;
795.6000;0.6129;0.8886;
795.9000;0.6113;0.8840;
796.2000;0.6105;0.8840;
796.5000;0.6064;0.8746;
796.8000;0.6154;0.9026;
797.1000;0.6129;0.9026;
797.4000;0.6113;0.9096;
797.7000;0.6113;0.9096;
798.0000;0.6121;0.9143;
798.3000;0.6113;0.9096;
798.6000;0.6113;0.9073;
798.9000;0.6105;0.9026;
799.2000;0.6113;0.9026;
799.5000;0.6146;0.9026;
799.8000;0.6121;0.8980;
800.1000;0.6097;0.8980;
800.4000;0.6015;0.8793;
800.7000;0.6129;0.9003;
801.0000;0.6121;0.9073;
801.3000;0.6146;0.9143;
801.6000;0.6129;0.9050;
801.9000;0.6121;0.8956;
802.2000;0.6129;0.8980;
802.5000;0.6129;0.9003;
802.8000;0.6113;0.8910;
803.1000;0.6146;0.8863;
803.4000;0.6146;0.8886;
803.7000;0.6129;0.8793;
804.0000;0.6121;0.8840;
804.3000;0.6072;0.8793;
804.6000;0.6113;0.8956;
804.9000;0.6105;0.8910;
805.2000;0.6105;0.8910;
805.5000;0.6113;0.8933;
805.8000;0.6105;0.9026;
806.1000;0.6113;0.8980;
806.4000;0.6113;0.9050;
806.7000;0.6105;0.9050;
807.0000;0.6121;0.9120;
807.3000;0.6121;0.9166;
807.6000;0.6113;0.9213;
807.9000;0.6113;0.9260;
808.2000;0.6186;0.9353;
808.5000;0.5983;0.8793;
808.8000;0.6105;0.9050;
809.1000;0.6129;0.9003;
809.4000;0.6105;0.9026;
809.7000;0.6121;0.9166;
810.0000;0.6113;0.9120;
810.3000;0.6113;0.9120;
810.6000;0.6105;0.9026;
810.9000;0.6097;0.9026;
811.2000;0.6072;0.8980;
811.5000;0.6081;0.9026;
811.8000;0.6097;0.9050;
812.1000;0.6089;0.9050;
812.4000;0.6072;0.9003;
812.7000;0.6097;0.9096;
813.0000;0.6097;0.9190;
813.3000;0.6089;0.9190;
813.6000;0.6113;0.9283;
813.9000;0.6097;0.9190;
814.2000;0.6105;0.9213;
814.5000;0.6081;0.9096;
814.8000;0.6113;0.9120;
815.1000;0.6089;0.9003;
815.4000;0.6113;0.8980;
815.7000;0.6113;0.8933;
816.0000;0.6121;0.8956;
816.3000;0.6040;0.8793;
816.6000;0.6097;0.8933;
816.9000;0.6121;0.9003;
817.2000;0.6064;0.8863;
817.5000;0.6081;0.8956;
817.8000;0.6097;0.8933;
818.1000;0.6081;0.8886;
818.4000;0.6048;0.8770;
818.7000;0.6105;0.8956;
819.0000;0.6105;0.9050;
819.3000;0.6081;0.9003;
819.6000;0.6097;0.8980;
819.9000;0.6105;0.9073;
820.2000;0.6097;0.9003;
820.5000;0.6162;0.9143;
820.8000;0.6097;0.9026;
821.1000;0.6113;0.8980;
821.4000;0.6113;0.8933;
821.7000;0.6138;0.9003;
822.0000;0.6089;0.8933;
822.3000;0.6081;0.8863;
822.6000;0.6081;0.8793;
822.9000;0.6089;0.8840;
823.2000;0.6105;0.8886;
823.5000;0.6089;0.8886;
823.8000;0.6097;0.8886;
824.1000;0.6113;0.8956;
824.4000;0.6089;0.8933;
824.7000;0.6121;0.8933;
825.0000;0.6121;0.8910;
825.3000;0.6178;0.8980;
825.6000;0.6097;0.8816;
825.9000;0.6129;0.8863;
826.2000;0.6097;0.8793;
826.5000;0.6097;0.8933;
826.8000;0.6089;0.8910;
827.1000;0.6064;0.8886;
827.4000;0.6097;0.8956;
827.7000;0.6097;0.9026;
828.0000;0.6089;0.8956;
828.3000;0.6105;0.9003;
828.6000;0.6121;0.9050;
828.9000;0.6081;0.9050;
829.2000;0.6097;0.9120;
829.5000;0.6064;0.8980;
829.8000;0.6081;0.8886;
830.1000;0.6097;0.8956;
830.4000;0.6097;0.8910;
830.7000;0.6081;0.8910;
831.0000;0.6105;0.8980;
831.3000;0.6097;0.8956;
831.6000;0.6105;0.9026;
831.9000;0.6113;0.8980;
832.2000;0.6072;0.8886;
832.5000;0.6113;0.8933;
832.8000;0.6203;0.9073;
833.1000;0.5999;0.8630;
833.4000;0.6105;0.8886;
833.7000;0.6105;0.8816;
834.0000;0.6081;0.8700;
834.3000;0.6113;0.8630;
834.6000;0.6089;0.8606;
834.9000;0.6097;0.8653;
835.2000;0.6081;0.8746;
835.5000;0.6089;0.8723;
835.8000;0.6081;0.8676;
836.1000;0.6048;0.8630;
836.4000;0.6113;0.8746;
836.7000;0.6113;0.8816;
837.0000;0.6105;0.8816;
837.3000;0.6072;0.8746;
837.6000;0.6048;0.8653;
837.9000;0.6089;0.8746;
838.2000;0.6195;0.8933;
838.5000;0.6081;0.8606;
838.8000;0.6064;0.8536;
839.1000;0.5991;0.8397;
839.4000;0.6072;0.8676;
839.7000;0.6048;0.8583;
840.0000;0.6089;0.8583;
840.3000;0.6081;0.8560;
840.6000;0.6081;0.8513;
840.9000;0.6097;0.8583;
841.2000;0.6072;0.8583;
841.5000;0.6081;0.8676;
841.8000;0.6105;0.8770;
842.1000;0.6081;0.8723;
842.4000;0.6081;0.8676;
842.7000;0.6081;0.8630;
843.0000;0.6081;0.8560;
843.3000;0.6072;0.8490;
843.6000;0.6081;0.8443;
843.9000;0.6072;0.8397;
844.2000;0.6089;0.8466;
844.5000;0.6081;0.8583;
844.8000;0.6089;0.8746;
845.1000;0.6089;0.8840;
845.4000;0.6089;0.8840;
845.7000;0.6089;0.8886;
846.0000;0.6072;0.8840;
846.3000;0.6105;0.8840;
846.6000;0.6089;0.8886;
846.9000;0.6056;0.8863;
847.2000;0.6105;0.8956;
847.5000;0.6089;0.8980;
847.8000;0.6015;0.8840;
848.1000;0.6089;0.9073;
848.4000;0.6081;0.9073;
848.7000;0.6089;0.9096;
849.0000;0.6064;0.9073;
849.3000;0.6064;0.8956;
849.6000;0.6048;0.8840;
849.9000;0.6072;0.8933;
850.2000;0.6089;0.9003;
850.5000;0.6097;0.9073;
850.8000;0.6064;0.9073;
851.1000;0.6072;0.9003;
851.4000;0.6032;0.8863;
851.7000;0.6015;0.8886;
852.0000;0.6113;0.9166;
852.3000;0.6097;0.9073;
852.6000;0.6072;0.9003;
852.9000;0.6089;0.9026;
853.2000;0.6056;0.8863;
853.5000;0.6072;0.8910;
853.8000;0.6081;0.8910;
854.1000;0.6048;0.8910;
854.4000;0.6081;0.8933;
854.7000;0.6081;0.8980;
855.0000;0.6072;0.8980;
855.3000;0.6097;0.9026;
855.6000;0.6138;0.9143;
855.9000;0.6097;0.9073;
856.2000;0.6097;0.9003;
856.5000;0.6097;0.8910;
856.8000;0.6048;0.8793;
857.1000;0.5926;0.8583;
857.4000;0.6089;0.8933;
857.7000;0.6186;0.9143;
858.0000;0.6056;0.8910;
858.3000;0.6072;0.9096;
858.6000;0.6089;0.9166;
858.9000;0.6081;0.9190;
859.2000;0.6040;0.8956;
859.5000;0.6072;0.8933;
859.8000;0.6081;0.8910;
860.1000;0.6097;0.8910;
860.4000;0.6097;0.8863;
860.7000;0.6154;0.8933;
861.0000;0.6072;0.8840;
861.3000;0.6040;0.8700;
861.6000;0.6089;0.8863;
861.9000;0.6081;0.8910;
862.2000;0.6064;0.8840;
862.5000;0.6081;0.8933;
862.8000;0.6056;0.8910;
863.1000;0.6081;0.8910;
863.4000;0.6089;0.8933;
863.7000;0.6064;0.8886;
864.0000;0.6072;0.8886;
864.3000;0.6081;0.8886;
864.6000;0.6081;0.8816;
864.9000;0.6089;0.8886;
865.2000;0.6056;0.8793;
865.5000;0.6081;0.8933;
865.8000;0.6089;0.8933;
866.1000;0.6089;0.8840;
866.4000;0.6064;0.8793;
866.7000;0.6097;0.8816;
867.0000;0.6089;0.8863;
867.3000;0.6081;0.8770;
867.6000;0.6072;0.8770;
867.9000;0.6089;0.8723;
868.2000;0.6089;0.8746;
868.5000;0.6081;0.8770;
868.8000;0.6089;0.8793;
869.1000;0.6097;0.8863;
869.4000;0.6072;0.8840;
869.7000;0.6048;0.8816;
870.0000;0.6089;0.8816;
870.3000;0.6178;0.8933;
870.6000;0.6089;0.8746;
870.9000;0.6097;0.8816;
871.2000;0.6113;0.8840;
871.5000;0.6138;0.8910;
871.8000;0.6081;0.8816;
872.1000;0.6072;0.8816;
872.4000;0.6178;0.9096;
872.7000;0.6081;0.8886;
873.0000;0.6072;0.8956;
873.3000;0.6105;0.8980;
873.6000;0.6081;0.8933;
873.9000;0.6048;0.8886;
874.2000;0.6072;0.8956;
874.5000;0.6072;0.9003;
874.8000;0.6186;0.9213;
875.1000;0.6048;0.8886;
875.4000;0.6113;0.9073;
875.7000;0.6072;0.8933;
876.0000;0.6072;0.8933;
876.3000;0.6138;0.9166;
876.6000;0.6105;0.9143;
876.9000;0.6048;0.9003;
877.2000;0.6089;0.9190;
877.5000;0.6089;0.9213;
877.8000;0.6081;0.9166;
878.1000;0.5950;0.8770;
878.4000;0.5975;0.8793;
878.7000;0.6081;0.9143;
879.0000;0.6064;0.9143;
879.3000;0.6121;0.9236;
879.6000;0.6081;0.9306;
879.9000;0.6072;0.9236;
880.2000;0.6064;0.9213;
880.5000;0.6089;0.9260;
880.8000;0.6048;0.9166;
881.1000;0.5991;0.9073;
881.4000;0.6081;0.9376;
881.7000;0.6081;0.9376;
882.0000;0.6105;0.9376;
882.3000;0.6081;0.9190;
882.6000;0.6072;0.9190;
882.9000;0.6064;0.9096;
883.2000;0.6064;0.9096;
883.5000;0.6081;0.9073;
883.8000;0.6105;0.9096;
884.1000;0.6081;0.8980;
884.4000;0.6040;0.8933;
884.7000;0.6081;0.9003;
885.0000;0.6081;0.9003;
885.3000;0.6040;0.9096;
885.6000;0.6064;0.9143;
885.9000;0.6072;0.9096;
886.2000;0.6072;0.9096;
886.5000;0.6072;0.9143;
886.8000;0.6064;0.9096;
887.1000;0.6089;0.9213;
887.4000;0.6024;0.9096;
887.7000;0.6089;0.9166;
888.0000;0.6081;0.9096;
888.3000;0.6064;0.9026;
888.6000;0.6064;0.9096;
888.9000;0.6089;0.9166;
889.2000;0.6081;0.9073;
889.5000;0.6072;0.8980;
889.8000;0.6072;0.9096;
890.1000;0.6064;0.9096;
890.4000;0.6064;0.9073;
890.7000;0.6056;0.9073;
891.0000;0.6064;0.9073;
891.3000;0.6072;0.9096;
891.6000;0.6064;0.9050;
891.9000;0.6064;0.9050;
892.2000;0.6064;0.9073;
892.5000;0.6056;0.9190;
892.8000;0.6081;0.9260;
893.1000;0.6072;0.9213;
893.4000;0.6081;0.9166;
893.7000;0.6048;0.9050;
894.0000;0.6105;0.9236;
894.3000;0.6121;0.9283;
894.6000;0.6072;0.9166;
894.9000;0.6072;0.9213;
895.2000;0.6072;0.9166;
895.5000;0.6032;0.9003;
895.8000;0.6064;0.9073;
896.1000;0.6040;0.9073;
896.4000;0.6105;0.9213;
896.7000;0.6081;0.9213;
897.0000;0.6040;0.9073;
897.3000;0.6056;0.9096;
897.6000;0.6072;0.9143;
897.9000;0.6089;0.9120;
898.2000;0.6056;0.9026;
898.5000;0.6064;0.9050;
898.8000;0.6056;0.9050;
899.1000;0.6089;0.9120;
899.4000;0.6121;0.9213;
899.7000;0.6048;0.9120;
900.0000;0.6072;0.9166;
900.3000;0.6024;0.9120;
900.6000;0.6121;0.9329;
900.9000;0.6056;0.9143;
901.2000;0.6048;0.9213;
901.5000;0.6056;0.9213;
901.8000;0.6072;0.9283;
902.1000;0.6048;0.9096;
902.4000;0.6064;0.9120;
902.7000;0.6064;0.9073;
903.0000;0.6064;0.9096;
903.3000;0.6072;0.9050;
903.6000;0.6081;0.9026;
903.9000;0.6056;0.9050;
904.2000;0.6105;0.9026;
904.5000;0.6064;0.8933;
904.8000;0.6072;0.9050;
905.1000;0.6064;0.9120;
905.4000;0.6056;0.9190;
905.7000;0.6048;0.9166;
906.0000;0.6064;0.9190;
906.3000;0.6064;0.9190;
906.6000;0.6056;0.9213;
906.9000;0.6072;0.9306;
907.2000;0.6081;0.9306;
907.5000;0.6056;0.9283;
907.8000;0.6064;0.9329;
908.1000;0.6064;0.9283;
908.4000;0.6154;0.9446;
908.7000;0.6048;0.9260;
909.0000;0.6081;0.9236;
909.3000;0.6089;0.9166;
909.6000;0.6064;0.9166;
909.9000;0.6081;0.9120;
910.2000;0.6097;0.9096;
910.5000;0.6056;0.9166;
910.8000;0.6097;0.9236;
911.1000;0.6064;0.9073;
911.4000;0.6056;0.8980;
911.7000;0.6040;0.8910;
912.0000;0.6056;0.8886;
912.3000;0.6048;0.8840;
912.6000;0.6056;0.8886;
912.9000;0.6081;0.9003;
913.2000;0.6064;0.9026;
913.5000;0.6089;0.8980;
913.8000;0.6089;0.8910;
914.1000;0.6072;0.8933;
914.4000;0.6072;0.8863;
914.7000;0.6081;0.8910;
915.0000;0.6048;0.8816;
915.3000;0.6089;0.8910;
915.6000;0.6072;0.8910;
915.9000;0.6097;0.9026;
916.2000;0.6064;0.8956;
916.5000;0.6064;0.8886;
916.8000;0.6015;0.8816;
917.1000;0.6081;0.9026;
917.4000;0.6072;0.8886;
917.7000;0.6072;0.8933;
918.0000;0.6064;0.8956;
918.3000;0.6081;0.8956;
918.6000;0.6064;0.8980;
918.9000;0.6081;0.9003;
919.2000;0.6072;0.9003;
919.5000;0.6072;0.8863;
919.8000;0.6097;0.8886;
920.1000;0.6048;0.8770;
920.4000;0.6056;0.8910;
920.7000;0.6081;0.8980;
921.0000;0.6081;0.8980;
921.3000;0.6105;0.9003;
921.6000;0.6048;0.8770;
921.9000;0.6056;0.8793;
922.2000;0.6072;0.8723;
922.5000;0.6056;0.8793;
922.8000;0.6048;0.8816;
923.1000;0.6072;0.9003;
923.4000;0.6064;0.9003;
923.7000;0.6072;0.9026;
924.0000;0.6048;0.9026;
924.3000;0.5999;0.8933;
924.6000;0.6015;0.8886;
924.9000;0.6056;0.8910;
925.2000;0.6056;0.8910;
925.5000;0.6056;0.8933;
925.8000;0.6056;0.8933;
926.1000;0.6040;0.8933;
926.4000;0.6040;0.8863;
926.7000;0.6089;0.9073;
927.0000;0.6048;0.9050;
927.3000;0.6064;0.9003;
927.6000;0.6048;0.9003;
927.9000;0.6048;0.9003;
928.2000;0.6040;0.9096;
928.5000;0.6056;0.9120;
928.8000;0.6072;0.9166;
929.1000;0.6138;0.9260;
929.4000;0.6056;0.9050;
929.7000;0.6056;0.9003;
930.0000;0.6081;0.9026;
930.3000;0.6097;0.9096;
930.6000;0.6056;0.9026;
930.9000;0.6072;0.9026;
931.2000;0.6121;0.9166;
931.5000;0.6056;0.9050;
931.8000;0.6048;0.9026;
932.1000;0.6040;0.9026;
932.4000;0.6040;0.8956;
932.7000;0.6048;0.8933;
933.0000;0.6048;0.8910;
933.3000;0.6032;0.8886;
933.6000;0.6024;0.8863;
933.9000;0.6040;0.8863;
934.2000;0.6064;0.8840;
934.5000;0.6056;0.8816;
934.8000;0.6064;0.8933;
935.1000;0.6056;0.8956;
935.4000;0.6064;0.8910;
935.7000;0.6040;0.8863;
936.0000;0.6064;0.8980;
936.3000;0.6072;0.8980;
936.6000;0.6048;0.8910;
936.9000;0.6081;0.8910;
937.2000;0.6048;0.8840;
937.5000;0.6064;0.8886;
937.8000;0.6056;0.8886;
938.1000;0.6040;0.8910;
938.4000;0.6056;0.9026;
938.7000;0.6056;0.9096;
939.0000;0.6072;0.9120;
939.3000;0.6048;0.9026;
939.6000;0.6064;0.9050;
939.9000;0.6072;0.9050;
940.2000;0.6056;0.9050;
940.5000;0.6056;0.9120;
940.8000;0.6048;0.9026;
941.1000;0.6048;0.9026;
941.4000;0.6048;0.8980;
941.7000;0.6056;0.8956;
942.0000;0.6064;0.9003;
942.3000;0.6048;0.9050;
942.6000;0.6072;0.9120;
942.9000;0.6072;0.8980;
943.2000;0.6040;0.8956;
943.5000;0.6056;0.8886;
943.8000;0.6064;0.8770;
944.1000;0.6048;0.8723;
944.4000;0.6040;0.8746;
944.7000;0.6056;0.8863;
945.0000;0.6056;0.8863;
945.3000;0.6081;0.8956;
945.6000;0.6072;0.8886;
945.9000;0.6040;0.8793;
946.2000;0.6089;0.8910;
946.5000;0.6072;0.8863;
946.8000;0.6064;0.8956;
947.1000;0.6072;0.8933;
947.4000;0.6032;0.8910;
947.7000;0.6048;0.8840;
948.0000;0.6015;0.8723;
948.3000;0.6048;0.8840;
948.6000;0.6056;0.8886;
948.9000;0.6097;0.9003;
949.2000;0.6024;0.8863;
949.5000;0.6032;0.8980;
949.8000;0.6056;0.9003;
950.1000;0.6048;0.9026;
950.4000;0.6064;0.9096;
950.7000;0.6081;0.9120;
951.0000;0.6064;0.9073;
951.3000;0.6105;0.9026;
951.6000;0.6064;0.8886;
951.9000;0.6072;0.8886;
952.2000;0.6056;0.8886;
952.5000;0.6040;0.8816;
952.8000;0.6056;0.8816;
953.1000;0.6032;0.8746;
953.4000;0.6040;0.8676;
953.7000;0.6056;0.8676;
954.0000;0.6064;0.8653;
954.3000;0.6040;0.8630;
954.6000;0.6064;0.8723;
954.9000;0.6056;0.8770;
955.2000;0.6113;0.9050;
955.5000;0.6064;0.9073;
955.8000;0.6089;0.9096;
956.1000;0.6056;0.9003;
956.4000;0.6040;0.8933;
956.7000;0.6048;0.8980;
957.0000;0.6064;0.8956;
957.3000;0.6024;0.8886;
957.6000;0.5942;0.8653;
957.9000;0.6040;0.8956;
958.2000;0.6015;0.9003;
958.5000;0.6064;0.9050;
958.8000;0.6048;0.9050;
959.1000;0.6056;0.9026;
959.4000;0.6072;0.8980;
959.7000;0.6064;0.9096;
960.0000;0.6105;0.9236;
960.3000;0.6056;0.9026;
960.6000;0.6064;0.9050;
960.9000;0.6064;0.9073;
961.2000;0.6048;0.9120;
961.5000;0.6064;0.9120;
961.8000;0.6048;0.9026;
962.1000;0.5999;0.8933;
962.4000;0.6032;0.8956;
962.7000;0.6032;0.8956;
963.0000;0.6048;0.9003;
963.3000;0.6040;0.9096;
963.6000;0.6024;0.8956;
963.9000;0.6048;0.9073;
964.2000;0.6072;0.9120;
964.5000;0.6056;0.9096;
964.8000;0.6040;0.9050;
965.1000;0.6072;0.9120;
965.4000;0.6024;0.8933;
965.7000;0.6056;0.8956;
966.0000;0.6089;0.9003;
966.3000;0.6064;0.8933;
966.6000;0.6056;0.8910;
966.9000;0.6154;0.9190;
967.2000;0.6056;0.9026;
967.5000;0.6056;0.8980;
967.8000;0.6040;0.9003;
968.1000;0.6056;0.8980;
968.4000;0.6081;0.9050;
968.7000;0.6056;0.9026;
969.0000;0.6056;0.9026;
969.3000;0.6064;0.9096;
969.6000;0.6007;0.8933;
969.9000;0.6162;0.9260;
970.2000;0.6040;0.9003;
970.5000;0.6024;0.8980;
970.8000;0.6056;0.9050;
971.1000;0.6056;0.9003;
971.4000;0.6056;0.8933;
971.7000;0.6072;0.8933;
972.0000;0.5942;0.8723;
972.3000;0.6064;0.9050;
972.6000;0.6056;0.9073;
972.9000;0.6081;0.9166;
973.2000;0.6089;0.9190;
973.5000;0.6162;0.9283;
973.8000;0.6048;0.8980;
974.1000;0.6048;0.9026;
974.4000;0.6040;0.9026;
974.7000;0.6081;0.9143;
975.0000;0.6064;0.9050;
975.3000;0.6081;0.9026;
975.6000;0.6064;0.8910;
975.9000;0.6064;0.9003;
976.2000;0.6072;0.9050;
976.5000;0.6064;0.9026;
976.8000;0.6056;0.9026;
977.1000;0.6056;0.9073;
977.4000;0.6072;0.9050;
977.7000;0.6048;0.8933;
978.0000;0.6040;0.8933;
978.3000;0.5967;0.8793;
978.6000;0.6048;0.8980;
978.9000;0.6032;0.8886;
979.2000;0.6040;0.8863;
979.5000;0.6048;0.8910;
979.8000;0.6064;0.9003;
980.1000;0.6072;0.9073;
980.4000;0.6121;0.9236;
980.7000;0.6048;0.9073;
981.0000;0.6056;0.9050;
981.3000;0.6081;0.9050;
981.6000;0.6089;0.9096;
981.9000;0.6032;0.9003;
982.2000;0.6081;0.9050;
982.5000;0.6056;0.8956;
982.8000;0.6056;0.8863;
983.1000;0.6056;0.8816;
983.4000;0.6089;0.8886;
983.7000;0.6064;0.8816;
984.0000;0.6048;0.8863;
984.3000;0.6040;0.8863;
984.6000;0.6032;0.8863;
984.9000;0.6089;0.9073;
985.2000;0.6032;0.8956;
985.5000;0.6056;0.8980;
985.8000;0.6072;0.9003;
986.1000;0.6015;0.8840;
986.4000;0.6015;0.8886;
986.7000;0.6056;0.9050;
987.0000;0.6105;0.9236;
987.3000;0.6048;0.9026;
987.6000;0.6056;0.9050;
987.9000;0.6032;0.8886;
988.2000;0.6048;0.9026;
988.5000;0.5999;0.9050;
988.8000;0.6015;0.9026;
989.1000;0.6007;0.9026;
989.4000;0.6040;0.9026;
989.7000;0.6064;0.9073;
990.0000;0.6015;0.9003;
990.3000;0.6064;0.9166;
990.6000;0.6072;0.9143;
990.9000;0.6081;0.9073;
991.2000;0.6032;0.8933;
991.5000;0.6015;0.8886;
991.8000;0.6040;0.8956;
992.1000;0.6097;0.9073;
992.4000;0.6007;0.8910;
992.7000;0.6056;0.8956;
993.0000;0.6048;0.8910;
993.3000;0.6048;0.8933;
993.6000;0.6032;0.8886;
993.9000;0.6056;0.8933;
994.2000;0.6048;0.8886;
994.5000;0.5991;0.8700;
994.8000;0.6032;0.8746;
995.1000;0.6040;0.8746;
995.4000;0.5967;0.8630;
995.7000;0.6032;0.8746;
996.0000;0.6032;0.8653;
996.3000;0.6040;0.8746;
996.6000;0.6105;0.8933;
996.9000;0.6048;0.8840;
997.2000;0.6089;0.8980;
997.5000;0.6032;0.8933;
997.8000;0.6048;0.8980;
998.1000;0.6056;0.9003;
998.4000;0.6048;0.9050;
998.7000;0.6032;0.9003;
999.0000;0.6072;0.9003;
999.3000;0.6032;0.8980;
999.6000;0.6056;0.9050;
999.9000;0.6040;0.9073;
1000.2000;0.6048;0.9073;
1000.5000;0.6048;0.9026;
1000.8000;0.6064;0.9050;
1001.1000;0.6048;0.9050;
1001.4000;0.6040;0.9003;
1001.7000;0.6056;0.8910;
1002.0000;0.6072;0.8886;
1002.3000;0.6032;0.8863;
1002.6000;0.6056;0.8956;
1002.9000;0.6048;0.8910;
1003.2000;0.5950;0.8700;
1003.5000;0.6015;0.8910;
1003.8000;0.6040;0.9003;
1004.1000;0.6040;0.9026;
1004.4000;0.6040;0.8980;
1004.7000;0.6089;0.9143;
1005.0000;0.6048;0.9143;
1005.3000;0.6040;0.9096;
1005.6000;0.6032;0.9120;
1005.9000;0.6056;0.9166;
1006.2000;0.6056;0.9120;
1006.5000;0.6105;0.9306;
1006.8000;0.6064;0.9143;
1007.1000;0.6040;0.9096;
1007.4000;0.6056;0.9190;
1007.7000;0.6040;0.9096;
1008.0000;0.6015;0.9026;
1008.3000;0.6048;0.9143;
1008.6000;0.6040;0.9143;
1008.9000;0.6040;0.9143;
1009.2000;0.6040;0.9143;
1009.5000;0.6024;0.9073;
1009.8000;0.6024;0.9026;
1010.1000;0.6048;0.9096;
1010.4000;0.6048;0.9050;
1010.7000;0.6024;0.9026;
1011.0000;0.6072;0.9260;
1011.3000;0.6032;0.9260;
1011.6000;0.6064;0.9236;
1011.9000;0.6040;0.9260;
1012.2000;0.6056;0.9236;
1012.5000;0.6056;0.9166;
1012.8000;0.6056;0.9143;
1013.1000;0.6056;0.9073;
1013.4000;0.6113;0.9236;
1013.7000;0.6048;0.9073;
1014.0000;0.6097;0.9166;
1014.3000;0.6056;0.9073;
1014.6000;0.6064;0.9260;
1014.9000;0.6040;0.9236;
1015.2000;0.6081;0.9376;
1015.5000;0.6015;0.9236;
1015.8000;0.6040;0.9260;
1016.1000;0.6081;0.9260;
1016.4000;0.6040;0.9213;
1016.7000;0.6015;0.9166;
1017.0000;0.6064;0.9399;
1017.3000;0.6048;0.9306;
1017.6000;0.6138;0.9469;
1017.9000;0.6032;0.9143;
1018.2000;0.6048;0.9166;
1018.5000;0.6146;0.9353;
1018.8000;0.6048;0.9096;
1019.1000;0.6040;0.9003;
1019.4000;0.6064;0.9050;
1019.7000;0.6048;0.9003;
1020.0000;0.6024;0.8910;
1020.3000;0.6032;0.9003;
1020.6000;0.6040;0.8910;
1020.9000;0.6040;0.8816;
1021.2000;0.6015;0.8863;
1021.5000;0.6048;0.8956;
1021.8000;0.6032;0.8910;
1022.1000;0.6048;0.8956;
1022.4000;0.6064;0.8980;
1022.7000;0.6056;0.8956;
1023.0000;0.6040;0.9026;
1023.3000;0.6056;0.9120;
1023.6000;0.6032;0.9120;
1023.9000;0.6064;0.9260;
1024.2000;0.6040;0.9213;
1024.5000;0.6048;0.9260;
1024.8000;0.6056;0.9213;
1025.1000;0.6056;0.9190;
1025.4000;0.6056;0.9260;
1025.7000;0.6064;0.9166;
1026.0000;0.6056;0.9026;
1026.3000;0.6056;0.8910;
1026.6000;0.6064;0.8933;
1026.9000;0.6064;0.9026;
1027.2000;0.6048;0.8956;
1027.5000;0.6024;0.8933;
1027.8000;0.6048;0.8886;
1028.1000;0.6064;0.8863;
1028.4000;0.6072;0.8886;
1028.7000;0.6040;0.8770;
1029.0000;0.6064;0.8886;
1029.3000;0.6081;0.9050;
1029.6000;0.6040;0.8980;
1029.9000;0.6064;0.9050;
1030.2000;0.6048;0.9026;
1030.5000;0.6048;0.8886;
1030.8000;0.6064;0.8910;
1031.1000;0.6121;0.9026;
1031.4000;0.6056;0.8816;
1031.7000;0.6040;0.8770;
1032.0000;0.6007;0.8770;
1032.3000;0.6056;0.8840;
1032.6000;0.6064;0.8793;
1032.9000;0.6032;0.8723;
1033.2000;0.6032;0.8770;
1033.5000;0.6032;0.8816;
1033.8000;0.6015;0.8676;
1034.1000;0.6032;0.8653;
1034.4000;0.6048;0.8793;
1034.7000;0.6048;0.8816;
1035.0000;0.6040;0.8886;
1035.3000;0.6056;0.8980;
1035.6000;0.6040;0.8840;
1035.9000;0.5958;0.8536;
1036.2000;0.6048;0.8863;
1036.5000;0.6048;0.8956;
1036.8000;0.6048;0.8956;
1037.1000;0.5999;0.8886;
1037.4000;0.6040;0.9026;
1037.7000;0.6056;0.9120;
1038.0000;0.6040;0.9026;
1038.3000;0.6056;0.9026;
1038.6000;0.6064;0.9073;
1038.9000;0.5967;0.8886;
1039.2000;0.6040;0.8956;
1039.5000;0.6040;0.8910;
1039.8000;0.6032;0.8980;
1040.1000;0.6064;0.9050;
1040.4000;0.6032;0.8886;
1040.7000;0.6015;0.8956;
1041.0000;0.6032;0.9026;
1041.3000;0.6040;0.9026;
1041.6000;0.6032;0.9096;
1041.9000;0.6040;0.9073;
1042.2000;0.6032;0.8980;
1042.5000;0.6032;0.9026;
1042.8000;0.6048;0.9166;
1043.1000;0.6040;0.9143;
1043.4000;0.6040;0.9190;
1043.7000;0.6064;0.9353;
1044.0000;0.6024;0.9236;
1044.3000;0.6007;0.9073;
1044.6000;0.6040;0.9166;
1044.9000;0.6056;0.9213;
1045.2000;0.6024;0.9166;
1045.5000;0.6024;0.9026;
1045.8000;0.6040;0.9003;
1046.1000;0.6040;0.9003;
1046.4000;0.6007;0.8933;
1046.7000;0.6032;0.9026;
1047.0000;0.6040;0.8910;
1047.3000;0.6032;0.8816;
1047.6000;0.6040;0.8886;
1047.9000;0.6040;0.8956;
1048.2000;0.6015;0.8956;
1048.5000;0.6032;0.9120;
1048.8000;0.6040;0.9143;
1049.1000;0.6032;0.9190;
1049.4000;0.6032;0.9213;
1049.7000;0.6040;0.9329;
1050.0000;0.6040;0.9329;
1050.3000;0.6048;0.9236;
1050.6000;0.6048;0.9143;
1050.9000;0.6032;0.8980;
1051.2000;0.6024;0.8886;
1051.5000;0.6048;0.8886;
1051.8000;0.6007;0.8886;
1052.1000;0.6032;0.8910;
1052.4000;0.6024;0.8933;
1052.7000;0.6056;0.9003;
1053.0000;0.6024;0.9026;
1053.3000;0.6024;0.9073;
1053.6000;0.6024;0.9050;
1053.9000;0.6048;0.9143;
1054.2000;0.6032;0.9073;
1054.5000;0.5975;0.9003;
1054.8000;0.6032;0.9143;
1055.1000;0.6032;0.9260;
1055.4000;0.6040;0.9236;
1055.7000;0.6032;0.9353;
1056.0000;0.6007;0.9283;
1056.3000;0.6032;0.9283;
1056.6000;0.6032;0.9236;
1056.9000;0.6056;0.9166;
1057.2000;0.6024;0.9050;
1057.5000;0.6048;0.9096;
1057.8000;0.6040;0.9166;
1058.1000;0.6032;0.9166;
1058.4000;0.6040;0.9166;
1058.7000;0.6032;0.9096;
1059.0000;0.6056;0.9143;
1059.3000;0.6015;0.9026;
1059.6000;0.6040;0.9096;
1059.9000;0.6040;0.9120;
1060.2000;0.6048;0.9073;
1060.5000;0.6056;0.9073;
1060.8000;0.6048;0.9026;
1061.1000;0.6056;0.9073;
1061.4000;0.6056;0.8980;
1061.7000;0.6056;0.9003;
1062.0000;0.6040;0.9026;
1062.3000;0.6040;0.8956;
1062.6000;0.6040;0.9003;
1062.9000;0.6056;0.9073;
1063.2000;0.6040;0.9143;
1063.5000;0.6048;0.9260;
1063.8000;0.5950;0.9096;
1064.1000;0.6089;0.9469;
1064.4000;0.6056;0.9376;
1064.7000;0.6040;0.9376;
1065.0000;0.6032;0.9329;
1065.3000;0.6040;0.9236;
1065.6000;0.6056;0.9260;
1065.9000;0.5942;0.8933;
1066.2000;0.6032;0.9143;
1066.5000;0.6138;0.9306;
1066.8000;0.6032;0.9096;
1067.1000;0.6024;0.9073;
1067.4000;0.6048;0.9143;
1067.7000;0.6024;0.8956;
1068.0000;0.6024;0.8980;
1068.3000;0.6056;0.9026;
1068.6000;0.6040;0.9026;
1068.9000;0.5958;0.8863;
1069.2000;0.5934;0.8816;
1069.5000;0.6024;0.9003;
1069.8000;0.6040;0.9050;
1070.1000;0.6032;0.9026;
1070.4000;0.5967;0.8840;
1070.7000;0.6032;0.9003;
1071.0000;0.6040;0.9050;
1071.3000;0.6064;0.9120;
1071.6000;0.6048;0.9096;
1071.9000;0.6040;0.9096;
1072.2000;0.6040;0.9166;
1072.5000;0.6056;0.9213;
1072.8000;0.6048;0.9213;
1073.1000;0.6040;0.9260;
1073.4000;0.6056;0.9213;
1073.7000;0.6040;0.9166;
1074.0000;0.6032;0.9213;
1074.3000;0.6024;0.9120;
1074.6000;0.6032;0.9213;
1074.9000;0.6064;0.9236;
1075.2000;0.6024;0.9213;
1075.5000;0.6048;0.9329;
1075.8000;0.6056;0.9469;
1076.1000;0.6040;0.9376;
1076.4000;0.6032;0.9353;
1076.7000;0.6032;0.9329;
1077.0000;0.6032;0.9260;
1077.3000;0.6048;0.9260;
1077.6000;0.6040;0.9213;
1077.9000;0.6007;0.9050;
1078.2000;0.6040;0.9096;
1078.5000;0.6048;0.9190;
1078.8000;0.6040;0.9073;
1079.1000;0.6040;0.9050;
1079.4000;0.6015;0.9003;
1079.7000;0.6032;0.8980;
1080.0000;0.5975;0.8933;
1080.3000;0.6032;0.8980;
1080.6000;0.6040;0.8910;
1080.9000;0.5983;0.8793;
1081.2000;0.6007;0.8956;
1081.5000;0.6024;0.8933;
1081.8000;0.6007;0.8933;
1082.1000;0.6056;0.9096;
1082.4000;0.5975;0.8956;
1082.7000;0.6040;0.9190;
1083.0000;0.6015;0.9143;
1083.3000;0.6032;0.9166;
1083.6000;0.6024;0.9026;
1083.9000;0.6007;0.9003;
1084.2000;0.6040;0.9260;
1084.5000;0.6048;0.9329;
1084.8000;0.6113;0.9423;
1085.1000;0.6040;0.9166;
1085.4000;0.6024;0.9120;
1085.7000;0.6048;0.9096;
1086.0000;0.5983;0.8840;
1086.3000;0.6089;0.9003;
1086.6000;0.6064;0.8980;
1086.9000;0.6089;0.9073;
1087.2000;0.5967;0.8840;
1087.5000;0.6064;0.9096;
1087.8000;0.6015;0.9026;
1088.1000;0.6015;0.9003;
1088.4000;0.6129;0.9353;
1088.7000;0.6024;0.9143;
1089.0000;0.6007;0.9050;
1089.3000;0.6015;0.9003;
1089.6000;0.6040;0.9050;
1089.9000;0.6048;0.9073;
1090.2000;0.6015;0.8980;
1090.5000;0.6089;0.9143;
1090.8000;0.6032;0.8980;
1091.1000;0.6024;0.9003;
1091.4000;0.6064;0.9073;
1091.7000;0.5975;0.8910;
1092.0000;0.6032;0.9003;
1092.3000;0.6056;0.9096;
1092.6000;0.6032;0.9003;
1092.9000;0.5958;0.8863;
1093.2000;0.6081;0.9120;
1093.5000;0.6040;0.9073;
1093.8000;0.6032;0.9073;
1094.1000;0.6024;0.9050;
1094.4000;0.6024;0.9050;
1094.7000;0.6007;0.8980;
1095.0000;0.6040;0.9026;
1095.3000;0.6089;0.9190;
1095.6000;0.6032;0.9026;
1095.9000;0.6040;0.9026;
1096.2000;0.6040;0.9026;
1096.5000;0.6048;0.9026;
1096.8000;0.6024;0.8956;
1097.1000;0.6032;0.9026;
1097.4000;0.6040;0.9003;
1097.7000;0.6056;0.8980;
1098.0000;0.6040;0.8886;
1098.3000;0.6024;0.8793;
1098.6000;0.6032;0.8910;
1098.9000;0.6015;0.8933;
1099.2000;0.6048;0.9026;
1099.5000;0.6015;0.8840;
1099.8000;0.6015;0.8746;
1100.1000;0.6032;0.8770;
1100.4000;0.6064;0.8793;
1100.7000;0.6015;0.8746;
1101.0000;0.6040;0.8840;
1101.3000;0.6024;0.8770;
1101.6000;0.6064;0.8886;
1101.9000;0.6040;0.8840;
1102.2000;0.6007;0.8886;
1102.5000;0.6048;0.8980;
1102.8000;0.6007;0.8886;
1103.1000;0.6032;0.8886;
1103.4000;0.6015;0.8886;
1103.7000;0.6032;0.9003;
1104.0000;0.6015;0.9050;
1104.3000;0.5999;0.9003;
1104.6000;0.6015;0.8910;
1104.9000;0.6024;0.8980;
1105.2000;0.5991;0.8840;
1105.5000;0.6040;0.8956;
1105.8000;0.6056;0.8956;
1106.1000;0.6024;0.8910;
1106.4000;0.5999;0.8840;
1106.7000;0.6032;0.8886;
1107.0000;0.6048;0.8933;
1107.3000;0.6015;0.8933;
1107.6000;0.6032;0.9026;
1107.9000;0.6048;0.9026;
1108.2000;0.6072;0.9120;
1108.5000;0.6024;0.9026;
1108.8000;0.6024;0.9026;
1109.1000;0.6032;0.9026;
1109.4000;0.6024;0.8933;
1109.7000;0.6024;0.8863;
1110.0000;0.5991;0.8770;
1110.3000;0.6024;0.8723;
1110.6000;0.6024;0.8746;
1110.9000;0.6081;0.8840;
1111.2000;0.6024;0.8700;
1111.5000;0.6048;0.8793;
1111.8000;0.6129;0.9073;
1112.1000;0.6064;0.9050;
1112.4000;0.6032;0.9003;
1112.7000;0.6024;0.8956;
1113.0000;0.6032;0.9096;
1113.3000;0.6048;0.9166;
1113.6000;0.6007;0.9073;
1113.9000;0.6105;0.9283;
1114.2000;0.6032;0.9213;
1114.5000;0.6024;0.9166;
1114.8000;0.6015;0.9026;
1115.1000;0.5999;0.8886;
1115.4000;0.6048;0.8933;
1115.7000;0.6032;0.8863;
1116.0000;0.6032;0.8770;
1116.3000;0.6024;0.8840;
1116.6000;0.6024;0.8886;
1116.9000;0.6081;0.9096;
1117.2000;0.6048;0.8910;
1117.5000;0.6015;0.8863;
1117.8000;0.6032;0.8933;
1118.1000;0.6056;0.8956;
1118.4000;0.6032;0.8886;
1118.7000;0.6024;0.8956;
1119.0000;0.6015;0.8910;
1119.3000;0.6048;0.8910;
1119.6000;0.6040;0.8840;
1119.9000;0.6032;0.8816;
1120.2000;0.6007;0.8746;
1120.5000;0.6032;0.8770;
1120.8000;0.6056;0.8793;
1121.1000;0.6040;0.8723;
1121.4000;0.6040;0.8723;
1121.7000;0.6032;0.8770;
1122.0000;0.6056;0.8886;
1122.3000;0.6056;0.8863;
1122.6000;0.6040;0.8863;
1122.9000;0.6040;0.8910;
1123.2000;0.6040;0.8933;
1123.5000;0.6024;0.8886;
1123.8000;0.6024;0.8956;
1124.1000;0.5983;0.8700;
1124.4000;0.6015;0.8746;
1124.7000;0.6048;0.8793;
1125.0000;0.6015;0.8723;
1125.3000;0.6007;0.8676;
1125.6000;0.6032;0.8746;
1125.9000;0.6040;0.8793;
1126.2000;0.6032;0.8816;
1126.5000;0.6056;0.8980;
1126.8000;0.6048;0.9026;
1127.1000;0.6040;0.9073;
1127.4000;0.5958;0.8886;
1127.7000;0.6032;0.9096;
1128.0000;0.6048;0.9166;
1128.3000;0.6015;0.9096;
1128.6000;0.6032;0.9050;
1128.9000;0.6015;0.8980;
1129.2000;0.6129;0.9213;
1129.5000;0.6032;0.8933;
1129.8000;0.6024;0.8840;
1130.1000;0.6048;0.8863;
1130.4000;0.6024;0.8886;
1130.7000;0.6024;0.8910;
1131.0000;0.6032;0.9003;
1131.3000;0.6024;0.8933;
1131.6000;0.6040;0.8933;
1131.9000;0.6032;0.8933;
1132.2000;0.6048;0.9050;
1132.5000;0.6032;0.9026;
1132.8000;0.6024;0.9026;
1133.1000;0.6032;0.8886;
1133.4000;0.6040;0.8956;
1133.7000;0.6032;0.8886;
1134.0000;0.6064;0.8933;
1134.3000;0.6048;0.8863;
1134.6000;0.6040;0.8700;
1134.9000;0.6056;0.8863;
1135.2000;0.6024;0.8886;
1135.5000;0.6032;0.8886;
1135.8000;0.6024;0.8816;
1136.1000;0.6064;0.8910;
1136.4000;0.6015;0.8840;
1136.7000;0.6032;0.8886;
1137.0000;0.6032;0.8793;
1137.3000;0.6097;0.9003;
1137.6000;0.6048;0.8863;
1137.9000;0.6081;0.8980;
1138.2000;0.6032;0.8910;
1138.5000;0.6040;0.8933;
1138.8000;0.6024;0.8933;
1139.1000;0.6024;0.8886;
1139.4000;0.6024;0.8793;
1139.7000;0.6015;0.8746;
1140.0000;0.6032;0.8816;
1140.3000;0.5999;0.8723;
1140.6000;0.6040;0.8816;
1140.9000;0.6032;0.8816;
1141.2000;0.6032;0.8816;
1141.5000;0.6040;0.8816;
1141.8000;0.6024;0.8816;
1142.1000;0.6024;0.8886;
1142.4000;0.6032;0.8863;
1142.7000;0.6032;0.8910;
1143.0000;0.6064;0.8933;
1143.3000;0.6097;0.8956;
1143.6000;0.6048;0.8910;
1143.9000;0.6024;0.8816;
1144.2000;0.6138;0.9073;
1144.5000;0.6032;0.8793;
1144.8000;0.6032;0.8793;
1145.1000;0.6072;0.8863;
1145.4000;0.6040;0.8840;
1145.7000;0.6024;0.8886;
1146.0000;0.6007;0.8840;
1146.3000;0.6024;0.8933;
1146.6000;0.6032;0.9003;
1146.9000;0.6032;0.8956;
1147.2000;0.6040;0.8933;
1147.5000;0.6032;0.8933;
1147.8000;0.6032;0.8980;
1148.1000;0.6024;0.8980;
1148.4000;0.6032;0.9050;
1148.7000;0.6032;0.9096;
1149.0000;0.6007;0.9073;
1149.3000;0.6048;0.9120;
1149.6000;0.6040;0.9073;
1149.9000;0.6032;0.9003;
1150.2000;0.6048;0.9003;
1150.5000;0.6048;0.8956;
1150.8000;0.6032;0.8980;
1151.1000;0.6056;0.9026;
1151.4000;0.6032;0.9073;
1151.7000;0.6024;0.9050;
1152.0000;0.6040;0.8933;
1152.3000;0.6024;0.8933;
1152.6000;0.6007;0.8863;
1152.9000;0.6081;0.9026;
1153.2000;0.6024;0.8910;
1153.5000;0.6024;0.8886;
1153.8000;0.5999;0.8840;
1154.1000;0.6040;0.8886;
1154.4000;0.6015;0.8816;
1154.7000;0.6064;0.8886;
1155.0000;0.6024;0.8793;
1155.3000;0.6040;0.8793;
1155.6000;0.6040;0.8816;
1155.9000;0.6138;0.9120;
1156.2000;0.6015;0.8933;
1156.5000;0.6024;0.9050;
1156.8000;0.6032;0.9120;
1157.1000;0.6024;0.9120;
1157.4000;0.6024;0.9143;
1157.7000;0.6040;0.9096;
1158.0000;0.6056;0.9096;
1158.3000;0.5983;0.9003;
1158.6000;0.6015;0.9143;
1158.9000;0.6032;0.9096;
1159.2000;0.6024;0.9050;
1159.5000;0.6024;0.9050;
1159.8000;0.6040;0.9120;
1160.1000;0.6089;0.9166;
1160.4000;0.6024;0.8980;
1160.7000;0.6024;0.8956;
1161.0000;0.6129;0.9260;
1161.3000;0.6056;0.9120;
1161.6000;0.6024;0.9096;
1161.9000;0.6024;0.9143;
1162.2000;0.6040;0.9166;
1162.5000;0.6032;0.9120;
1162.8000;0.6007;0.9120;
1163.1000;0.6032;0.9143;
1163.4000;0.6015;0.9096;
1163.7000;0.6015;0.9096;
1164.0000;0.6015;0.9096;
1164.3000;0.6032;0.9050;
1164.6000;0.6048;0.9073;
1164.9000;0.6024;0.9050;
1165.2000;0.6048;0.9073;
1165.5000;0.6032;0.9050;
1165.8000;0.6032;0.9166;
1166.1000;0.6032;0.9190;
1166.4000;0.6089;0.9423;
1166.7000;0.6040;0.9260;
1167.0000;0.6024;0.9329;
1167.3000;0.6007;0.9213;
1167.6000;0.6007;0.9236;
1167.9000;0.6007;0.9213;
1168.2000;0.6024;0.9143;
1168.5000;0.6015;0.8980;
1168.8000;0.6032;0.8956;
1169.1000;0.6015;0.9026;
1169.4000;0.6040;0.9120;
1169.7000;0.6015;0.9096;
1170.0000;0.6015;0.9190;
1170.3000;0.5999;0.9213;
1170.6000;0.6015;0.9166;
1170.9000;0.6032;0.9190;
1171.2000;0.6024;0.9306;
1171.5000;0.6024;0.9306;
1171.8000;0.6024;0.9353;
1172.1000;0.6024;0.9516;
1172.4000;0.6032;0.9563;
1172.7000;0.6024;0.9493;
1173.0000;0.5999;0.9376;
1173.3000;0.6015;0.9376;
1173.6000;0.6024;0.9399;
1173.9000;0.6040;0.9376;
1174.2000;0.6032;0.9329;
1174.5000;0.6040;0.9236;
1174.8000;0.6024;0.8956;
1175.1000;0.6032;0.8933;
1175.4000;0.6040;0.8933;
1175.7000;0.6040;0.8933;
1176.0000;0.6121;0.9120;
1176.3000;0.6032;0.9073;
1176.6000;0.6024;0.9143;
1176.9000;0.6056;0.9236;
1177.2000;0.6081;0.9306;
1177.5000;0.6024;0.9213;
1177.8000;0.6040;0.9236;
1178.1000;0.5999;0.9096;
1178.4000;0.6072;0.9213;
1178.7000;0.6024;0.9120;
1179.0000;0.6007;0.9143;
1179.3000;0.5991;0.9166;
1179.6000;0.6024;0.9213;
1179.9000;0.6081;0.9166;
1180.2000;0.6056;0.9096;
1180.5000;0.5975;0.8910;
1180.8000;0.6056;0.9120;
1181.1000;0.6081;0.9213;
1181.4000;0.5983;0.9003;
1181.7000;0.6024;0.9143;
1182.0000;0.6032;0.9050;
1182.3000;0.6024;0.9120;
1182.6000;0.5926;0.8863;
1182.9000;0.6015;0.9073;
1183.2000;0.6081;0.9166;
1183.5000;0.6097;0.9213;
1183.8000;0.6015;0.9073;
1184.1000;0.6024;0.9120;
1184.4000;0.6024;0.9143;
1184.7000;0.6040;0.9166;
1185.0000;0.6089;0.9353;
1185.3000;0.6097;0.9469;
1185.6000;0.6024;0.9260;
1185.9000;0.6056;0.9260;
1186.2000;0.6056;0.9213;
1186.5000;0.6032;0.9050;
1186.8000;0.6048;0.9143;
1187.1000;0.6048;0.9120;
1187.4000;0.6032;0.9143;
1187.7000;0.6032;0.9190;
1188.0000;0.6048;0.9283;
1188.3000;0.6032;0.9236;
1188.6000;0.6024;0.9190;
1188.9000;0.6048;0.9306;
1189.2000;0.6015;0.9260;
1189.5000;0.6015;0.9283;
1189.8000;0.6048;0.9399;
1190.1000;0.6032;0.9423;
1190.4000;0.6048;0.9376;
1190.7000;0.6040;0.9376;
1191.0000;0.6056;0.9423;
1191.3000;0.6048;0.9260;
1191.6000;0.6007;0.9190;
1191.9000;0.6032;0.9236;
1192.2000;0.6129;0.9469;
1192.5000;0.6007;0.9120;
1192.8000;0.6015;0.9166;
1193.1000;0.6007;0.9213;
1193.4000;0.6032;0.9283;
1193.7000;0.6024;0.9283;
1194.0000;0.6032;0.9329;
1194.3000;0.6024;0.9306;
1194.6000;0.6040;0.9260;
1194.9000;0.6040;0.9096;
1195.2000;0.6015;0.9120;
1195.5000;0.6007;0.9120;
1195.8000;0.6032;0.9143;
1196.1000;0.6007;0.9120;
1196.4000;0.6072;0.9236;
1196.7000;0.6024;0.9143;
1197.0000;0.6048;0.9213;
1197.3000;0.6024;0.9283;
1197.6000;0.6032;0.9283;
1197.9000;0.5983;0.9236;
1198.2000;0.6015;0.9283;
1198.5000;0.6007;0.9213;
1198.8000;0.6072;0.9399;
1199.1000;0.5958;0.9096;
1199.4000;0.6048;0.9236;
1199.7000;0.6032;0.9213;
1200.0000;0.6007;0.9306;
1200.3000;0.6040;0.9306;
1200.6000;0.6015;0.9213;
1200.9000;0.6040;0.9306;
1201.2000;0.6040;0.9306;
1201.5000;0.6072;0.9353;
1201.8000;0.6056;0.9306;
1202.1000;0.6048;0.9353;
1202.4000;0.6072;0.9446;
1202.7000;0.6032;0.9353;
1203.0000;0.6015;0.9353;
1203.3000;0.6015;0.9376;
1203.6000;0.5983;0.9260;
1203.9000;0.6007;0.9399;
1204.2000;0.5950;0.9096;
1204.5000;0.6064;0.9376;
1204.8000;0.6007;0.9306;
1205.1000;0.6015;0.9213;
1205.4000;0.6032;0.9236;
1205.7000;0.6032;0.9260;
1206.0000;0.6032;0.9306;
1206.3000;0.6040;0.9353;
1206.6000;0.6024;0.9329;
1206.9000;0.5926;0.9096;
1207.2000;0.6064;0.9423;
1207.5000;0.6032;0.9353;
1207.8000;0.6015;0.9353;
1208.1000;0.6072;0.9469;
1208.4000;0.6072;0.9493;
1208.7000;0.6024;0.9446;
1209.0000;0.6007;0.9399;
1209.3000;0.6040;0.9516;
1209.6000;0.6024;0.9493;
1209.9000;0.6024;0.9446;
1210.2000;0.6015;0.9306;
1210.5000;0.6015;0.9190;
1210.8000;0.6032;0.9236;
1211.1000;0.6015;0.9190;
1211.4000;0.6015;0.9213;
1211.7000;0.6048;0.9399;
1212.0000;0.6048;0.9329;
1212.3000;0.6032;0.9306;
1212.6000;0.6040;0.9306;
1212.9000;0.6024;0.9376;
1213.2000;0.6056;0.9539;
1213.5000;0.6032;0.9446;
1213.8000;0.6032;0.9446;
1214.1000;0.6032;0.9446;
1214.4000;0.6032;0.9399;
1214.7000;0.6032;0.9423;
1215.0000;0.6032;0.9399;
1215.3000;0.6015;0.9376;
1215.6000;0.6032;0.9423;
1215.9000;0.6024;0.9353;
1216.2000;0.6015;0.9399;
1216.5000;0.6015;0.9446;
1216.8000;0.5983;0.9423;
1217.1000;0.6040;0.9633;
1217.4000;0.5918;0.9353;
1217.7000;0.6015;0.9493;
1218.0000;0.6032;0.9376;
1218.3000;0.6024;0.9329;
1218.6000;0.6024;0.9446;
1218.9000;0.6032;0.9399;
1219.2000;0.6032;0.9353;
1219.5000;0.6032;0.9376;
1219.8000;0.6040;0.9446;
1220.1000;0.6113;0.9609;
1220.4000;0.6040;0.9446;
1220.7000;0.6024;0.9446;
1221.0000;0.6064;0.9469;
1221.3000;0.6064;0.9563;
1221.6000;0.6015;0.9399;
1221.9000;0.6048;0.9493;
1222.2000;0.5999;0.9376;
1222.5000;0.5967;0.9306;
1222.8000;0.6007;0.9399;
1223.1000;0.6024;0.9469;
1223.4000;0.6024;0.9493;
1223.7000;0.5999;0.9493;
1224.0000;0.6032;0.9516;
1224.3000;0.6040;0.9493;
1224.6000;0.6048;0.9516;
1224.9000;0.6032;0.9539;
1225.2000;0.6015;0.9493;
1225.5000;0.6015;0.9493;
1225.8000;0.6032;0.9563;
1226.1000;0.6032;0.9633;
1226.4000;0.6040;0.9679;
1226.7000;0.6040;0.9726;
1227.0000;0.6032;0.9726;
1227.3000;0.6040;0.9749;
1227.6000;0.6015;0.9609;
1227.9000;0.6024;0.9656;
1228.2000;0.6024;0.9726;
1228.5000;0.6072;0.9796;
1228.8000;0.6015;0.9656;
1229.1000;0.6032;0.9516;
1229.4000;0.6007;0.9423;
1229.7000;0.6024;0.9516;
1230.0000;0.5983;0.9516;
1230.3000;0.6015;0.9586;
1230.6000;0.5999;0.9539;
1230.9000;0.6024;0.9656;
1231.2000;0.6015;0.9633;
1231.5000;0.6024;0.9633;
1231.8000;0.6024;0.9586;
1232.1000;0.6048;0.9656;
1232.4000;0.6015;0.9703;
1232.7000;0.6007;0.9773;
1233.0000;0.6007;0.9703;
1233.3000;0.6040;0.9679;
1233.6000;0.6032;0.9703;
1233.9000;0.6007;0.9656;
1234.2000;0.6024;0.9656;
1234.5000;0.6032;0.9656;
1234.8000;0.6056;0.9679;
1235.1000;0.6040;0.9703;
1235.4000;0.5983;0.9586;
1235.7000;0.6015;0.9633;
1236.0000;0.6024;0.9633;
1236.3000;0.6056;0.9656;
1236.6000;0.6007;0.9493;
1236.9000;0.6015;0.9446;
1237.2000;0.6040;0.9446;
1237.5000;0.6032;0.9446;
1237.8000;0.6040;0.9446;
1238.1000;0.6015;0.9423;
1238.4000;0.5983;0.9423;
1238.7000;0.5983;0.9516;
1239.0000;0.6056;0.9586;
1239.3000;0.6056;0.9679;
1239.6000;0.6024;0.9656;
1239.9000;0.6040;0.9633;
1240.2000;0.6040;0.9633;
1240.5000;0.6015;0.9633;
1240.8000;0.6015;0.9703;
1241.1000;0.6040;0.9609;
1241.4000;0.5975;0.9446;
1241.7000;0.6015;0.9446;
1242.0000;0.6040;0.9399;
1242.3000;0.5999;0.9306;
1242.6000;0.6032;0.9469;
1242.9000;0.6015;0.9539;
1243.2000;0.6048;0.9633;
1243.5000;0.6072;0.9656;
1243.8000;0.6040;0.9586;
1244.1000;0.6056;0.9493;
1244.4000;0.5975;0.9423;
1244.7000;0.6007;0.9399;
1245.0000;0.6032;0.9446;
1245.3000;0.6032;0.9516;
1245.6000;0.6024;0.9423;
1245.9000;0.6024;0.9423;
1246.2000;0.5967;0.9306;
1246.5000;0.6015;0.9376;
1246.8000;0.6024;0.9423;
1247.1000;0.6015;0.9469;
1247.4000;0.6048;0.9469;
1247.7000;0.6040;0.9446;
1248.0000;0.6024;0.9399;
1248.3000;0.6064;0.9516;
1248.6000;0.6040;0.9539;
1248.9000;0.6032;0.9586;
1249.2000;0.6024;0.9656;
1249.5000;0.6056;0.9586;
1249.8000;0.6032;0.9516;
1250.1000;0.6032;0.9539;
1250.4000;0.6048;0.9609;
1250.7000;0.6032;0.9539;
1251.0000;0.6032;0.9609;
1251.3000;0.6032;0.9609;
1251.6000;0.6024;0.9586;
1251.9000;0.6072;0.9679;
1252.2000;0.6040;0.9516;
1252.5000;0.6024;0.9516;
1252.8000;0.6032;0.9633;
1253.1000;0.6015;0.9586;
1253.4000;0.6040;0.9469;
1253.7000;0.6024;0.9539;
1254.0000;0.6032;0.9563;
1254.3000;0.5999;0.9563;
1254.6000;0.6024;0.9539;
1254.9000;0.6015;0.9563;
1255.2000;0.6024;0.9539;
1255.5000;0.6024;0.9493;
1255.8000;0.6024;0.9469;
1256.1000;0.6032;0.9423;
1256.4000;0.6056;0.9469;
1256.7000;0.6024;0.9446;
1257.0000;0.6040;0.9469;
1257.3000;0.5983;0.9306;
1257.6000;0.6015;0.9399;
1257.9000;0.6040;0.9493;
1258.2000;0.6048;0.9469;
1258.5000;0.6032;0.9446;
1258.8000;0.6024;0.9399;
1259.1000;0.6032;0.9399;
1259.4000;0.6040;0.9399;
1259.7000;0.6032;0.9446;
1260.0000;0.6024;0.9353;
1260.3000;0.6032;0.9329;
1260.6000;0.6032;0.9399;
1260.9000;0.6032;0.9423;
1261.2000;0.5999;0.9353;
1261.5000;0.6056;0.9493;
1261.8000;0.6040;0.9329;
1262.1000;0.6032;0.9283;
1262.4000;0.6064;0.9353;
1262.7000;0.6024;0.9306;
1263.0000;0.6032;0.9353;
1263.3000;0.6048;0.9376;
1263.6000;0.6024;0.9260;
1263.9000;0.6024;0.9283;
1264.2000;0.6015;0.9260;
1264.5000;0.6064;0.9539;
1264.8000;0.6024;0.9446;
1265.1000;0.6015;0.9469;
1265.4000;0.5999;0.9539;
1265.7000;0.6015;0.9563;
1266.0000;0.6015;0.9586;
1266.3000;0.6007;0.9633;
1266.6000;0.6015;0.9586;
1266.9000;0.6024;0.9493;
1267.2000;0.6024;0.9446;
1267.5000;0.6015;0.9493;
1267.8000;0.6024;0.9516;
1268.1000;0.6048;0.9633;
1268.4000;0.6024;0.9609;
1268.7000;0.6015;0.9516;
1269.0000;0.6015;0.9469;
1269.3000;0.6056;0.9563;
1269.6000;0.6032;0.9376;
1269.9000;0.6048;0.9446;
1270.2000;0.6024;0.9399;
1270.5000;0.6015;0.9376;
1270.8000;0.6032;0.9586;
1271.1000;0.6007;0.9446;
1271.4000;0.6024;0.9586;
1271.7000;0.6024;0.9586;
1272.0000;0.6032;0.9563;
1272.3000;0.5999;0.9493;
1272.6000;0.6015;0.9539;
1272.9000;0.6015;0.9563;
1273.2000;0.6040;0.9516;
1273.5000;0.6032;0.9609;
1273.8000;0.6015;0.9493;
1274.1000;0.6024;0.9586;
1274.4000;0.6040;0.9679;
1274.7000;0.6024;0.9726;
1275.0000;0.6015;0.9679;
1275.3000;0.6024;0.9703;
1275.6000;0.6089;0.9819;
1275.9000;0.6024;0.9703;
1276.2000;0.5942;0.9516;
1276.5000;0.6007;0.9679;
1276.8000;0.6024;0.9679;
1277.1000;0.6056;0.9773;
1277.4000;0.5983;0.9563;
1277.7000;0.6007;0.9586;
1278.0000;0.6015;0.9563;
1278.3000;0.6024;0.9563;
1278.6000;0.6056;0.9679;
1278.9000;0.6032;0.9633;
1279.2000;0.6040;0.9586;
1279.5000;0.5950;0.9283;
1279.8000;0.6024;0.9516;
1280.1000;0.6015;0.9563;
1280.4000;0.6032;0.9539;
1280.7000;0.6015;0.9469;
1281.0000;0.6024;0.9493;
1281.3000;0.6024;0.9399;
1281.6000;0.5999;0.9493;
1281.9000;0.6015;0.9539;
1282.2000;0.6032;0.9563;
1282.5000;0.6015;0.9586;
1282.8000;0.6007;0.9633;
1283.1000;0.6015;0.9609;
1283.4000;0.6040;0.9609;
1283.7000;0.6048;0.9586;
1284.0000;0.6032;0.9586;
1284.3000;0.6024;0.9609;
1284.6000;0.6105;0.9819;
1284.9000;0.6015;0.9539;
1285.2000;0.6056;0.9656;
1285.5000;0.6024;0.9469;
1285.8000;0.6048;0.9493;
1286.1000;0.6056;0.9493;
1286.4000;0.6024;0.9399;
1286.7000;0.6024;0.9399;
1287.0000;0.6024;0.9329;
1287.3000;0.6015;0.9446;
1287.6000;0.6024;0.9493;
1287.9000;0.6032;0.9469;
1288.2000;0.6032;0.9446;
1288.5000;0.6040;0.9399;
1288.8000;0.6032;0.9423;
1289.1000;0.6032;0.9423;
1289.4000;0.6097;0.9563;
1289.7000;0.6032;0.9423;
1290.0000;0.5999;0.9353;
1290.3000;0.6024;0.9446;
1290.6000;0.6024;0.9446;
1290.9000;0.6015;0.9423;
1291.2000;0.5967;0.9423;
1291.5000;0.6024;0.9539;
1291.8000;0.6015;0.9469;
1292.1000;0.6032;0.9353;
1292.4000;0.6040;0.9376;
1292.7000;0.6015;0.9399;
1293.0000;0.6089;0.9609;
1293.3000;0.6040;0.9539;
1293.6000;0.6048;0.9469;
1293.9000;0.5999;0.9399;
1294.2000;0.6048;0.9469;
1294.5000;0.6097;0.9609;
1294.8000;0.6032;0.9539;
1295.1000;0.6056;0.9539;
1295.4000;0.6040;0.9539;
1295.7000;0.6081;0.9609;
1296.0000;0.5967;0.9353;
1296.3000;0.6032;0.9539;
1296.6000;0.6007;0.9469;
1296.9000;0.6089;0.9679;
1297.2000;0.6015;0.9516;
1297.5000;0.6048;0.9586;
1297.8000;0.6015;0.9563;
1298.1000;0.6024;0.9609;
1298.4000;0.6024;0.9516;
1298.7000;0.6040;0.9539;
1299.0000;0.6105;0.9726;
1299.3000;0.6024;0.9539;
1299.6000;0.6015;0.9469;
1299.9000;0.6056;0.9469;
1300.2000;0.5999;0.9260;
1300.5000;0.6024;0.9469;
1300.8000;0.6007;0.9446;
1301.1000;0.6064;0.9563;
1301.4000;0.6024;0.9563;
1301.7000;0.6032;0.9563;
1302.0000;0.6024;0.9563;
1302.3000;0.6024;0.9493;
1302.6000;0.6032;0.9563;
1302.9000;0.6129;0.9749;
1303.2000;0.6007;0.9469;
1303.5000;0.6015;0.9539;
1303.8000;0.6015;0.9563;
1304.1000;0.6032;0.9679;
1304.4000;0.6024;0.9656;
1304.7000;0.6015;0.9563;
1305.0000;0.5991;0.9469;
1305.3000;0.6015;0.9633;
1305.6000;0.6048;0.9773;
1305.9000;0.6040;0.9703;
1306.2000;0.6015;0.9633;
1306.5000;0.5991;0.9493;
1306.8000;0.6032;0.9493;
1307.1000;0.5999;0.9399;
1307.4000;0.5958;0.9306;
1307.7000;0.5950;0.9190;
1308.0000;0.6007;0.9306;
1308.3000;0.6032;0.9376;
1308.6000;0.6024;0.9446;
1308.9000;0.6032;0.9563;
1309.2000;0.6040;0.9633;
1309.5000;0.6032;0.9656;
1309.8000;0.6007;0.9493;
1310.1000;0.6024;0.9539;
1310.4000;0.6040;0.9563;
1310.7000;0.6015;0.9516;
1311.0000;0.6146;0.9843;
1311.3000;0.6032;0.9469;
1311.6000;0.6032;0.9446;
1311.9000;0.6007;0.9399;
1312.2000;0.5999;0.9353;
1312.5000;0.6015;0.9399;
1312.8000;0.6007;0.9260;
1313.1000;0.6015;0.9283;
1313.4000;0.5991;0.9283;
1313.7000;0.6024;0.9329;
1314.0000;0.6032;0.9329;
1314.3000;0.6089;0.9399;
1314.6000;0.6024;0.9236;
1314.9000;0.5999;0.9260;
1315.2000;0.5934;0.9143;
1315.5000;0.5926;0.9213;
1315.8000;0.6048;0.9563;
1316.1000;0.5967;0.9283;
1316.4000;0.5983;0.9306;
1316.7000;0.6195;0.9843;
1317.0000;0.6024;0.9423;
1317.3000;0.6015;0.9353;
1317.6000;0.5991;0.9376;
1317.9000;0.6081;0.9563;
1318.2000;0.6024;0.9376;
1318.5000;0.6040;0.9446;
1318.8000;0.5967;0.9260;
1319.1000;0.6015;0.9423;
1319.4000;0.6015;0.9376;
1319.7000;0.6072;0.9539;
1320.0000;0.5983;0.9423;
1320.3000;0.6024;0.9633;
1320.6000;0.6040;0.9609;
1320.9000;0.6024;0.9516;
1321.2000;0.5999;0.9446;
1321.5000;0.5999;0.9399;
1321.8000;0.6024;0.9493;
1322.1000;0.6032;0.9539;
1322.4000;0.6024;0.9516;
1322.7000;0.6015;0.9469;
1323.0000;0.6040;0.9423;
1323.3000;0.6040;0.9469;
1323.6000;0.6015;0.9399;
1323.9000;0.6024;0.9376;
1324.2000;0.6015;0.9376;
1324.5000;0.6032;0.9329;
1324.8000;0.6015;0.9353;
1325.1000;0.6032;0.9283;
1325.4000;0.6024;0.9329;
1325.7000;0.6024;0.9399;
1326.0000;0.6015;0.9399;
1326.3000;0.6024;0.9469;
1326.6000;0.6040;0.9469;
1326.9000;0.6040;0.9446;
1327.2000;0.6048;0.9399;
1327.5000;0.6048;0.9283;
1327.8000;0.6024;0.9306;
1328.1000;0.6024;0.9423;
1328.4000;0.6032;0.9423;
1328.7000;0.6024;0.9376;
1329.0000;0.6048;0.9516;
1329.3000;0.6032;0.9563;
1329.6000;0.6032;0.9586;
1329.9000;0.6007;0.9539;
1330.2000;0.6024;0.9563;
1330.5000;0.6064;0.9633;
1330.8000;0.6015;0.9493;
1331.1000;0.6007;0.9516;
1331.4000;0.6007;0.9446;
1331.7000;0.6048;0.9493;
1332.0000;0.6040;0.9563;
1332.3000;0.6040;0.9493;
1332.6000;0.6040;0.9516;
1332.9000;0.6032;0.9469;
1333.2000;0.6040;0.9563;
1333.5000;0.6040;0.9516;
1333.8000;0.6032;0.9446;
1334.1000;0.5991;0.9306;
1334.4000;0.6040;0.9399;
1334.7000;0.6040;0.9376;
1335.0000;0.6081;0.9329;
1335.3000;0.6048;0.9283;
1335.6000;0.6024;0.9143;
1335.9000;0.5999;0.9143;
1336.2000;0.6048;0.9283;
1336.5000;0.5975;0.9213;
1336.8000;0.6015;0.9329;
1337.1000;0.6040;0.9283;
1337.4000;0.6097;0.9493;
1337.7000;0.6015;0.9376;
1338.0000;0.5983;0.9446;
1338.3000;0.6056;0.9633;
1338.6000;0.6040;0.9609;
1338.9000;0.6048;0.9633;
1339.2000;0.6024;0.9633;
1339.5000;0.6015;0.9563;
1339.8000;0.5999;0.9423;
1340.1000;0.6032;0.9446;
1340.4000;0.6024;0.9423;
1340.7000;0.6007;0.9446;
1341.0000;0.6024;0.9446;
1341.3000;0.6032;0.9539;
1341.6000;0.6040;0.9563;
1341.9000;0.6040;0.9469;
1342.2000;0.6040;0.9516;
1342.5000;0.6040;0.9469;
1342.8000;0.6024;0.9493;
1343.1000;0.6015;0.9586;
1343.4000;0.6032;0.9609;
1343.7000;0.6032;0.9516;
1344.0000;0.5991;0.9329;
1344.3000;0.5991;0.9306;
1344.6000;0.6032;0.9469;
1344.9000;0.6015;0.9446;
1345.2000;0.6024;0.9423;
1345.5000;0.6024;0.9423;
1345.8000;0.6032;0.9446;
1346.1000;0.6032;0.9516;
1346.4000;0.6024;0.9539;
1346.7000;0.6032;0.9493;
1347.0000;0.6007;0.9353;
1347.3000;0.6064;0.9493;
1347.6000;0.6048;0.9423;
1347.9000;0.6015;0.9329;
1348.2000;0.6024;0.9306;
1348.5000;0.6032;0.9376;
1348.8000;0.6032;0.9516;
1349.1000;0.6032;0.9493;
1349.4000;0.6024;0.9469;
1349.7000;0.6024;0.9469;
1350.0000;0.6032;0.9539;
1350.3000;0.6048;0.9516;
1350.6000;0.6015;0.9423;
1350.9000;0.6024;0.9446;
1351.2000;0.6040;0.9493;
1351.5000;0.6032;0.9399;
1351.8000;0.6015;0.9329;
1352.1000;0.6040;0.9283;
1352.4000;0.5991;0.9190;
1352.7000;0.6032;0.9190;
1353.0000;0.6048;0.9260;
1353.3000;0.6032;0.9260;
1353.6000;0.6032;0.9236;
1353.9000;0.6048;0.9283;
1354.2000;0.6040;0.9260;
1354.5000;0.6032;0.9329;
1354.8000;0.6024;0.9353;
1355.1000;0.6032;0.9260;
1355.4000;0.5918;0.8980;
1355.7000;0.6015;0.9213;
1356.0000;0.6032;0.9236;
1356.3000;0.6015;0.9190;
1356.6000;0.6024;0.9166;
1356.9000;0.6072;0.9329;
1357.2000;0.6024;0.9236;
1357.5000;0.6007;0.9213;
1357.8000;0.6032;0.9260;
1358.1000;0.5999;0.9190;
1358.4000;0.6032;0.9283;
1358.7000;0.6032;0.9306;
1359.0000;0.5991;0.9306;
1359.3000;0.6032;0.9446;
1359.6000;0.6048;0.9493;
1359.9000;0.6015;0.9469;
1360.2000;0.5999;0.9469;
1360.5000;0.6032;0.9586;
1360.8000;0.6015;0.9563;
1361.1000;0.6024;0.9539;
1361.4000;0.6024;0.9493;
1361.7000;0.6032;0.9516;
1362.0000;0.6097;0.9656;
1362.3000;0.6024;0.9563;
1362.6000;0.6024;0.9539;
1362.9000;0.6048;0.9493;
1363.2000;0.6032;0.9563;
1363.5000;0.6032;0.9679;
1363.8000;0.6024;0.9563;
1364.1000;0.6015;0.9586;
1364.4000;0.6024;0.9609;
1364.7000;0.6024;0.9563;
1365.0000;0.5999;0.9423;
1365.3000;0.6024;0.9563;
1365.6000;0.6040;0.9539;
1365.9000;0.6081;0.9563;
1366.2000;0.6032;0.9469;
1366.5000;0.6015;0.9446;
1366.8000;0.6032;0.9469;
1367.1000;0.6032;0.9493;
1367.4000;0.6024;0.9563;
1367.7000;0.6015;0.9539;
1368.0000;0.6032;0.9539;
1368.3000;0.6056;0.9563;
1368.6000;0.6007;0.9563;
1368.9000;0.6040;0.9633;
1369.2000;0.6040;0.9493;
1369.5000;0.6040;0.9563;
1369.8000;0.6032;0.9586;
1370.1000;0.6032;0.9563;
1370.4000;0.6007;0.9469;
1370.7000;0.6032;0.9446;
1371.0000;0.6056;0.9493;
1371.3000;0.6040;0.9516;
1371.6000;0.6032;0.9563;
1371.9000;0.6032;0.9586;
1372.2000;0.6015;0.9539;
1372.5000;0.6032;0.9469;
1372.8000;0.6032;0.9469;
1373.1000;0.6024;0.9399;
1373.4000;0.6056;0.9493;
1373.7000;0.6032;0.9376;
1374.0000;0.6015;0.9446;
1374.3000;0.6032;0.9446;
1374.6000;0.5999;0.9376;
1374.9000;0.6024;0.9469;
1375.2000;0.6007;0.9423;
1375.5000;0.6007;0.9446;
1375.8000;0.6032;0.9563;
1376.1000;0.6040;0.9563;
1376.4000;0.6072;0.9656;
1376.7000;0.6040;0.9539;
1377.0000;0.6040;0.9539;
1377.3000;0.6048;0.9609;
1377.6000;0.6032;0.9563;
1377.9000;0.6007;0.9446;
1378.2000;0.6024;0.9493;
1378.5000;0.6024;0.9493;
1378.8000;0.6024;0.9493;
1379.1000;0.5999;0.9376;
1379.4000;0.6056;0.9446;
1379.7000;0.6056;0.9469;
1380.0000;0.5991;0.9260;
1380.3000;0.6024;0.9329;
1380.6000;0.6015;0.9283;
1380.9000;0.6040;0.9399;
1381.2000;0.6024;0.9376;
1381.5000;0.6024;0.9283;
1381.8000;0.6007;0.9213;
1382.1000;0.6064;0.9446;
1382.4000;0.5999;0.9329;
1382.7000;0.6015;0.9446;
1383.0000;0.6032;0.9563;
1383.3000;0.6024;0.9353;
1383.6000;0.6024;0.9399;
1383.9000;0.6032;0.9516;
1384.2000;0.6024;0.9516;
1384.5000;0.6032;0.9516;
1384.8000;0.6064;0.9539;
1385.1000;0.6032;0.9376;
1385.4000;0.6032;0.9423;
1385.7000;0.6040;0.9539;
1386.0000;0.6040;0.9493;
1386.3000;0.6032;0.9563;
1386.6000;0.6032;0.9539;
1386.9000;0.6015;0.9446;
1387.2000;0.5991;0.9329;
1387.5000;0.6024;0.9329;
1387.8000;0.6032;0.9283;
1388.1000;0.6015;0.9260;
1388.4000;0.6032;0.9329;
1388.7000;0.6040;0.9399;
1389.0000;0.6032;0.9353;
1389.3000;0.5991;0.9260;
1389.6000;0.6024;0.9399;
1389.9000;0.6032;0.9376;
1390.2000;0.6015;0.9423;
1390.5000;0.6056;0.9493;
1390.8000;0.6024;0.9446;
1391.1000;0.5950;0.9399;
1391.4000;0.6015;0.9586;
1391.7000;0.6015;0.9609;
1392.0000;0.6007;0.9609;
1392.3000;0.6138;0.9819;
1392.6000;0.6064;0.9656;
1392.9000;0.6024;0.9586;
1393.2000;0.6040;0.9563;
1393.5000;0.6032;0.9609;
1393.8000;0.6032;0.9563;
1394.1000;0.6064;0.9539;
1394.4000;0.6015;0.9353;
1394.7000;0.6040;0.9423;
1395.0000;0.6056;0.9469;
1395.3000;0.6048;0.9446;
1395.6000;0.6064;0.9423;
1395.9000;0.6015;0.9376;
1396.2000;0.6015;0.9283;
1396.5000;0.6024;0.9283;
1396.8000;0.6032;0.9260;
1397.1000;0.6048;0.9353;
1397.4000;0.6024;0.9353;
1397.7000;0.6007;0.9423;
1398.0000;0.6015;0.9399;
1398.3000;0.5983;0.9329;
1398.6000;0.6024;0.9376;
1398.9000;0.6024;0.9329;
1399.2000;0.6032;0.9399;
1399.5000;0.5991;0.9236;
1399.8000;0.6024;0.9306;
