time/ms;Fluo/V;P700 deltaI/I x10³;
-199.8000;0.8498;1.0006;
-199.5000;0.8482;0.9936;
-199.2000;0.8490;0.9913;
-198.9000;0.8498;0.9936;
-198.6000;0.8466;0.9936;
-198.3000;0.8498;0.9866;
-198.0000;0.8466;0.9726;
-197.7000;0.8490;0.9866;
-197.4000;0.8482;0.9983;
-197.1000;0.8498;1.0006;
-196.8000;0.8490;1.0006;
-196.5000;0.8482;1.0076;
-196.2000;0.8498;1.0146;
-195.9000;0.8514;1.0122;
-195.6000;0.8466;0.9983;
-195.3000;0.8506;0.9959;
-195.0000;0.8474;0.9983;
-194.7000;0.8466;1.0006;
-194.4000;0.8539;1.0146;
-194.1000;0.8482;0.9959;
-193.8000;0.8539;1.0029;
-193.5000;0.8490;0.9936;
-193.2000;0.8457;0.9773;
-192.9000;0.8506;0.9983;
-192.6000;0.8498;1.0053;
-192.3000;0.8539;1.0169;
-192.0000;0.8474;0.9983;
-191.7000;0.8498;1.0029;
-191.4000;0.8482;1.0029;
-191.1000;0.8466;1.0006;
-190.8000;0.8482;0.9959;
-190.5000;0.8523;0.9959;
-190.2000;0.8490;0.9866;
-189.9000;0.8482;0.9936;
-189.6000;0.8425;0.9843;
-189.3000;0.8506;1.0053;
-189.0000;0.8498;1.0029;
-188.7000;0.8490;1.0029;
-188.4000;0.8498;1.0099;
-188.1000;0.8490;1.0006;
-187.8000;0.8506;0.9936;
-187.5000;0.8506;0.9959;
-187.2000;0.8474;1.0029;
-186.9000;0.8490;1.0076;
-186.6000;0.8498;1.0076;
-186.3000;0.8506;0.9936;
-186.0000;0.8498;0.9936;
-185.7000;0.8482;0.9796;
-185.4000;0.8490;0.9819;
-185.1000;0.8482;0.9796;
-184.8000;0.8466;0.9726;
-184.5000;0.8490;0.9773;
-184.2000;0.8482;0.9703;
-183.9000;0.8482;0.9843;
-183.6000;0.8482;0.9843;
-183.3000;0.8474;0.9843;
-183.0000;0.8474;0.9889;
-182.7000;0.8482;0.9889;
-182.4000;0.8506;0.9936;
-182.1000;0.8482;0.9819;
-181.8000;0.8506;0.9866;
-181.5000;0.8474;0.9773;
-181.2000;0.8490;0.9866;
-180.9000;0.8474;0.9866;
-180.6000;0.8417;0.9703;
-180.3000;0.8498;0.9889;
-180.0000;0.8474;0.9866;
-179.7000;0.8482;0.9796;
-179.4000;0.8466;0.9703;
-179.1000;0.8506;0.9796;
-178.8000;0.8474;0.9703;
-178.5000;0.8531;0.9866;
-178.2000;0.8474;0.9773;
-177.9000;0.8425;0.9773;
-177.6000;0.8506;0.9983;
-177.3000;0.8474;0.9866;
-177.0000;0.8490;0.9843;
-176.7000;0.8490;0.9913;
-176.4000;0.8490;0.9936;
-176.1000;0.8498;1.0006;
-175.8000;0.8474;0.9913;
-175.5000;0.8482;0.9936;
-175.2000;0.8490;0.9936;
-174.9000;0.8498;0.9913;
-174.6000;0.8498;0.9913;
-174.3000;0.8474;0.9866;
-174.0000;0.8466;0.9819;
-173.7000;0.8490;0.9796;
-173.4000;0.8482;0.9679;
-173.1000;0.8482;0.9679;
-172.8000;0.8449;0.9633;
-172.5000;0.8482;0.9679;
-172.2000;0.8490;0.9703;
-171.9000;0.8466;0.9679;
-171.6000;0.8482;0.9819;
-171.3000;0.8498;0.9889;
-171.0000;0.8506;0.9843;
-170.7000;0.8433;0.9656;
-170.4000;0.8482;0.9819;
-170.1000;0.8531;0.9889;
-169.8000;0.8466;0.9773;
-169.5000;0.8482;0.9889;
-169.2000;0.8498;0.9913;
-168.9000;0.8466;0.9936;
-168.6000;0.8490;0.9936;
-168.3000;0.8490;1.0053;
-168.0000;0.8506;0.9983;
-167.7000;0.8490;0.9959;
-167.4000;0.8482;0.9959;
-167.1000;0.8580;1.0169;
-166.8000;0.8498;0.9936;
-166.5000;0.8498;0.9796;
-166.2000;0.8490;0.9843;
-165.9000;0.8490;0.9889;
-165.6000;0.8482;0.9913;
-165.3000;0.8482;0.9796;
-165.0000;0.8490;0.9773;
-164.7000;0.8490;0.9773;
-164.4000;0.8490;0.9773;
-164.1000;0.8490;0.9656;
-163.8000;0.8498;0.9726;
-163.5000;0.8490;0.9796;
-163.2000;0.8474;0.9819;
-162.9000;0.8466;0.9819;
-162.6000;0.8482;0.9866;
-162.3000;0.8474;0.9913;
-162.0000;0.8482;0.9889;
-161.7000;0.8466;0.9703;
-161.4000;0.8506;0.9726;
-161.1000;0.8498;0.9703;
-160.8000;0.8620;1.0006;
-160.5000;0.8400;0.9563;
-160.2000;0.8474;0.9796;
-159.9000;0.8490;0.9773;
-159.6000;0.8425;0.9516;
-159.3000;0.8482;0.9633;
-159.0000;0.8457;0.9563;
-158.7000;0.8498;0.9726;
-158.4000;0.8482;0.9749;
-158.1000;0.8474;0.9796;
-157.8000;0.8555;0.9983;
-157.5000;0.8474;0.9796;
-157.2000;0.8474;0.9913;
-156.9000;0.8498;0.9983;
-156.6000;0.8482;0.9983;
-156.3000;0.8474;0.9936;
-156.0000;0.8490;0.9936;
-155.7000;0.8498;1.0053;
-155.4000;0.8474;0.9983;
-155.1000;0.8490;1.0076;
-154.8000;0.8498;1.0053;
-154.5000;0.8482;1.0053;
-154.2000;0.8482;0.9959;
-153.9000;0.8490;0.9843;
-153.6000;0.8474;0.9726;
-153.3000;0.8523;0.9819;
-153.0000;0.8482;0.9749;
-152.7000;0.8482;0.9726;
-152.4000;0.8474;0.9679;
-152.1000;0.8474;0.9586;
-151.8000;0.8482;0.9656;
-151.5000;0.8490;0.9749;
-151.2000;0.8490;0.9773;
-150.9000;0.8498;0.9819;
-150.6000;0.8498;0.9843;
-150.3000;0.8498;0.9796;
-150.0000;0.8482;0.9726;
-149.7000;0.8457;0.9749;
-149.4000;0.8490;0.9796;
-149.1000;0.8466;0.9773;
-148.8000;0.8474;0.9819;
-148.5000;0.8466;0.9819;
-148.2000;0.8482;0.9843;
-147.9000;0.8466;0.9749;
-147.6000;0.8498;0.9773;
-147.3000;0.8482;0.9703;
-147.0000;0.8482;0.9726;
-146.7000;0.8490;0.9819;
-146.4000;0.8482;0.9819;
-146.1000;0.8482;0.9819;
-145.8000;0.8490;0.9866;
-145.5000;0.8449;0.9749;
-145.2000;0.8490;0.9773;
-144.9000;0.8474;0.9866;
-144.6000;0.8523;0.9983;
-144.3000;0.8490;0.9866;
-144.0000;0.8506;0.9889;
-143.7000;0.8425;0.9703;
-143.4000;0.8466;0.9796;
-143.1000;0.8441;0.9749;
-142.8000;0.8474;0.9819;
-142.5000;0.8506;0.9936;
-142.2000;0.8498;0.9936;
-141.9000;0.8498;0.9843;
-141.6000;0.8490;0.9866;
-141.3000;0.8482;0.9866;
-141.0000;0.8474;0.9819;
-140.7000;0.8474;0.9889;
-140.4000;0.8466;0.9866;
-140.1000;0.8474;0.9866;
-139.8000;0.8474;0.9843;
-139.5000;0.8482;0.9866;
-139.2000;0.8490;0.9843;
-138.9000;0.8490;0.9843;
-138.6000;0.8482;0.9866;
-138.3000;0.8490;0.9796;
-138.0000;0.8490;0.9889;
-137.7000;0.8482;0.9796;
-137.4000;0.8482;0.9889;
-137.1000;0.8482;0.9843;
-136.8000;0.8466;0.9796;
-136.5000;0.8498;0.9866;
-136.2000;0.8482;0.9866;
-135.9000;0.8482;0.9889;
-135.6000;0.8498;0.9936;
-135.3000;0.8514;0.9959;
-135.0000;0.8457;0.9749;
-134.7000;0.8490;0.9749;
-134.4000;0.8498;0.9726;
-134.1000;0.8498;0.9749;
-133.8000;0.8498;0.9749;
-133.5000;0.8466;0.9703;
-133.2000;0.8498;0.9773;
-132.9000;0.8474;0.9703;
-132.6000;0.8490;0.9703;
-132.3000;0.8482;0.9796;
-132.0000;0.8474;0.9773;
-131.7000;0.8482;0.9889;
-131.4000;0.8506;0.9866;
-131.1000;0.8490;0.9866;
-130.8000;0.8474;0.9819;
-130.5000;0.8482;0.9866;
-130.2000;0.8498;0.9866;
-129.9000;0.8474;0.9819;
-129.6000;0.8474;0.9819;
-129.3000;0.8457;0.9726;
-129.0000;0.8498;0.9843;
-128.7000;0.8498;0.9843;
-128.4000;0.8466;0.9843;
-128.1000;0.8490;0.9889;
-127.8000;0.8555;1.0029;
-127.5000;0.8490;0.9843;
-127.2000;0.8482;0.9773;
-126.9000;0.8498;0.9796;
-126.6000;0.8392;0.9563;
-126.3000;0.8474;0.9866;
-126.0000;0.8466;0.9703;
-125.7000;0.8466;0.9656;
-125.4000;0.8474;0.9633;
-125.1000;0.8498;0.9749;
-124.8000;0.8482;0.9796;
-124.5000;0.8498;0.9796;
-124.2000;0.8482;0.9819;
-123.9000;0.8490;0.9889;
-123.6000;0.8482;0.9936;
-123.3000;0.8498;0.9959;
-123.0000;0.8490;1.0006;
-122.7000;0.8490;0.9936;
-122.4000;0.8506;0.9889;
-122.1000;0.8474;0.9773;
-121.8000;0.8506;0.9866;
-121.5000;0.8523;0.9843;
-121.2000;0.8498;0.9913;
-120.9000;0.8482;0.9866;
-120.6000;0.8506;0.9843;
-120.3000;0.8539;0.9936;
-120.0000;0.8523;0.9889;
-119.7000;0.8482;0.9796;
-119.4000;0.8563;1.0029;
-119.1000;0.8474;0.9843;
-118.8000;0.8506;0.9889;
-118.5000;0.8596;1.0076;
-118.2000;0.8482;0.9843;
-117.9000;0.8580;1.0099;
-117.6000;0.8417;0.9656;
-117.3000;0.8474;0.9796;
-117.0000;0.8498;0.9819;
-116.7000;0.8466;0.9703;
-116.4000;0.8490;0.9749;
-116.1000;0.8498;0.9843;
-115.8000;0.8482;0.9913;
-115.5000;0.8474;0.9866;
-115.2000;0.8514;0.9959;
-114.9000;0.8490;1.0029;
-114.6000;0.8482;1.0029;
-114.3000;0.8482;1.0006;
-114.0000;0.8498;1.0099;
-113.7000;0.8498;1.0076;
-113.4000;0.8490;1.0122;
-113.1000;0.8457;1.0006;
-112.8000;0.8474;1.0099;
-112.5000;0.8490;1.0099;
-112.2000;0.8474;1.0053;
-111.9000;0.8482;1.0076;
-111.6000;0.8466;1.0053;
-111.3000;0.8474;1.0076;
-111.0000;0.8490;1.0076;
-110.7000;0.8457;0.9983;
-110.4000;0.8466;0.9983;
-110.1000;0.8457;1.0076;
-109.8000;0.8498;1.0146;
-109.5000;0.8498;1.0029;
-109.2000;0.8490;0.9936;
-108.9000;0.8547;0.9913;
-108.6000;0.8490;0.9773;
-108.3000;0.8490;0.9773;
-108.0000;0.8498;0.9843;
-107.7000;0.8490;0.9843;
-107.4000;0.8490;0.9773;
-107.1000;0.8474;0.9773;
-106.8000;0.8482;0.9843;
-106.5000;0.8506;0.9889;
-106.2000;0.8482;0.9843;
-105.9000;0.8490;0.9913;
-105.6000;0.8466;0.9913;
-105.3000;0.8482;0.9889;
-105.0000;0.8474;0.9796;
-104.7000;0.8498;0.9819;
-104.4000;0.8514;0.9773;
-104.1000;0.8474;0.9656;
-103.8000;0.8425;0.9586;
-103.5000;0.8604;1.0122;
-103.2000;0.8466;0.9819;
-102.9000;0.8474;0.9749;
-102.6000;0.8449;0.9656;
-102.3000;0.8490;0.9656;
-102.0000;0.8498;0.9773;
-101.7000;0.8596;0.9959;
-101.4000;0.8490;0.9749;
-101.1000;0.8474;0.9819;
-100.8000;0.8482;0.9796;
-100.5000;0.8531;0.9889;
-100.2000;0.8466;0.9819;
-99.9000;0.8514;0.9959;
-99.6000;0.8498;0.9889;
-99.3000;0.8482;0.9889;
-99.0000;0.8490;0.9936;
-98.7000;0.8490;0.9983;
-98.4000;0.8498;0.9866;
-98.1000;0.8490;0.9796;
-97.8000;0.8482;0.9843;
-97.5000;0.8490;0.9866;
-97.2000;0.8490;0.9913;
-96.9000;0.8400;0.9609;
-96.6000;0.8482;0.9936;
-96.3000;0.8490;0.9866;
-96.0000;0.8482;0.9866;
-95.7000;0.8482;0.9796;
-95.4000;0.8490;0.9819;
-95.1000;0.8490;0.9796;
-94.8000;0.8490;0.9796;
-94.5000;0.8482;0.9796;
-94.2000;0.8498;0.9866;
-93.9000;0.8498;0.9866;
-93.6000;0.8466;0.9773;
-93.3000;0.8482;0.9843;
-93.0000;0.8482;0.9889;
-92.7000;0.8498;0.9983;
-92.4000;0.8498;1.0076;
-92.1000;0.8498;1.0029;
-91.8000;0.8490;0.9936;
-91.5000;0.8498;0.9959;
-91.2000;0.8490;0.9936;
-90.9000;0.8539;1.0076;
-90.6000;0.8490;1.0029;
-90.3000;0.8506;1.0053;
-90.0000;0.8474;0.9983;
-89.7000;0.8506;0.9983;
-89.4000;0.8474;0.9889;
-89.1000;0.8482;0.9889;
-88.8000;0.8498;1.0006;
-88.5000;0.8490;1.0029;
-88.2000;0.8506;1.0053;
-87.9000;0.8490;1.0053;
-87.6000;0.8506;1.0053;
-87.3000;0.8506;1.0029;
-87.0000;0.8490;0.9983;
-86.7000;0.8498;1.0053;
-86.4000;0.8474;0.9983;
-86.1000;0.8474;1.0029;
-85.8000;0.8457;1.0006;
-85.5000;0.8490;1.0029;
-85.2000;0.8490;0.9959;
-84.9000;0.8490;0.9959;
-84.6000;0.8482;0.9913;
-84.3000;0.8474;0.9843;
-84.0000;0.8498;0.9843;
-83.7000;0.8466;0.9819;
-83.4000;0.8514;0.9983;
-83.1000;0.8498;0.9936;
-82.8000;0.8514;1.0006;
-82.5000;0.8466;0.9913;
-82.2000;0.8449;0.9936;
-81.9000;0.8482;0.9936;
-81.6000;0.8498;0.9983;
-81.3000;0.8506;0.9936;
-81.0000;0.8490;0.9866;
-80.7000;0.8498;0.9866;
-80.4000;0.8490;0.9913;
-80.1000;0.8612;1.0122;
-79.8000;0.8506;0.9843;
-79.5000;0.8425;0.9703;
-79.2000;0.8514;0.9843;
-78.9000;0.8482;0.9726;
-78.6000;0.8474;0.9656;
-78.3000;0.8449;0.9586;
-78.0000;0.8474;0.9679;
-77.7000;0.8482;0.9819;
-77.4000;0.8498;0.9843;
-77.1000;0.8490;0.9843;
-76.8000;0.8482;0.9819;
-76.5000;0.8474;0.9796;
-76.2000;0.8490;0.9773;
-75.9000;0.8457;0.9703;
-75.6000;0.8474;0.9726;
-75.3000;0.8474;0.9749;
-75.0000;0.8490;0.9819;
-74.7000;0.8506;0.9843;
-74.4000;0.8498;0.9843;
-74.1000;0.8490;0.9843;
-73.8000;0.8474;0.9796;
-73.5000;0.8531;0.9866;
-73.2000;0.8506;0.9796;
-72.9000;0.8482;0.9773;
-72.6000;0.8482;0.9796;
-72.3000;0.8482;0.9819;
-72.0000;0.8400;0.9656;
-71.7000;0.8490;0.9889;
-71.4000;0.8506;0.9843;
-71.1000;0.8482;0.9726;
-70.8000;0.8474;0.9819;
-70.5000;0.8466;0.9819;
-70.2000;0.8490;0.9796;
-69.9000;0.8498;0.9749;
-69.6000;0.8482;0.9656;
-69.3000;0.8466;0.9609;
-69.0000;0.8490;0.9679;
-68.7000;0.8474;0.9679;
-68.4000;0.8490;0.9703;
-68.1000;0.8482;0.9703;
-67.8000;0.8474;0.9656;
-67.5000;0.8466;0.9633;
-67.2000;0.8482;0.9633;
-66.9000;0.8474;0.9679;
-66.6000;0.8474;0.9749;
-66.3000;0.8457;0.9726;
-66.0000;0.8514;0.9726;
-65.7000;0.8490;0.9703;
-65.4000;0.8482;0.9749;
-65.1000;0.8449;0.9563;
-64.8000;0.8490;0.9633;
-64.5000;0.8490;0.9679;
-64.2000;0.8490;0.9749;
-63.9000;0.8490;0.9796;
-63.6000;0.8490;0.9656;
-63.3000;0.8482;0.9656;
-63.0000;0.8523;0.9773;
-62.7000;0.8523;0.9796;
-62.4000;0.8498;0.9773;
-62.1000;0.8531;0.9843;
-61.8000;0.8531;0.9843;
-61.5000;0.8490;0.9703;
-61.2000;0.8482;0.9656;
-60.9000;0.8539;0.9726;
-60.6000;0.8490;0.9679;
-60.3000;0.8474;0.9563;
-60.0000;0.8490;0.9656;
-59.7000;0.8466;0.9586;
-59.4000;0.8466;0.9703;
-59.1000;0.8457;0.9726;
-58.8000;0.8482;0.9726;
-58.5000;0.8474;0.9679;
-58.2000;0.8482;0.9656;
-57.9000;0.8425;0.9539;
-57.6000;0.8498;0.9796;
-57.3000;0.8466;0.9703;
-57.0000;0.8498;0.9796;
-56.7000;0.8514;0.9843;
-56.4000;0.8433;0.9726;
-56.1000;0.8466;0.9819;
-55.8000;0.8490;0.9936;
-55.5000;0.8490;0.9936;
-55.2000;0.8498;0.9843;
-54.9000;0.8482;0.9773;
-54.6000;0.8474;0.9749;
-54.3000;0.8466;0.9703;
-54.0000;0.8474;0.9726;
-53.7000;0.8474;0.9656;
-53.4000;0.8506;0.9749;
-53.1000;0.8474;0.9796;
-52.8000;0.8457;0.9796;
-52.5000;0.8417;0.9633;
-52.2000;0.8539;0.9959;
-51.9000;0.8498;0.9866;
-51.6000;0.8482;0.9773;
-51.3000;0.8490;0.9773;
-51.0000;0.8506;0.9819;
-50.7000;0.8498;0.9843;
-50.4000;0.8482;0.9819;
-50.1000;0.8490;0.9773;
-49.8000;0.8498;0.9703;
-49.5000;0.8466;0.9633;
-49.2000;0.8474;0.9656;
-48.9000;0.8580;0.9983;
-48.6000;0.8498;0.9866;
-48.3000;0.8506;0.9819;
-48.0000;0.8490;0.9819;
-47.7000;0.8474;0.9796;
-47.4000;0.8482;0.9819;
-47.1000;0.8457;0.9703;
-46.8000;0.8482;0.9726;
-46.5000;0.8409;0.9516;
-46.2000;0.8466;0.9586;
-45.9000;0.8474;0.9633;
-45.6000;0.8490;0.9726;
-45.3000;0.8482;0.9749;
-45.0000;0.8441;0.9726;
-44.7000;0.8425;0.9749;
-44.4000;0.8482;0.9889;
-44.1000;0.8474;0.9866;
-43.8000;0.8474;0.9819;
-43.5000;0.8457;0.9796;
-43.2000;0.8400;0.9633;
-42.9000;0.8474;0.9866;
-42.6000;0.8490;0.9889;
-42.3000;0.8474;0.9819;
-42.0000;0.8580;1.0122;
-41.7000;0.8474;0.9913;
-41.4000;0.8498;0.9959;
-41.1000;0.8506;0.9983;
-40.8000;0.8433;0.9656;
-40.5000;0.8498;0.9866;
-40.2000;0.8490;0.9773;
-39.9000;0.8498;0.9749;
-39.6000;0.8490;0.9703;
-39.3000;0.8490;0.9633;
-39.0000;0.8498;0.9609;
-38.7000;0.8482;0.9679;
-38.4000;0.8506;0.9749;
-38.1000;0.8490;0.9656;
-37.8000;0.8474;0.9749;
-37.5000;0.8474;0.9773;
-37.2000;0.8474;0.9703;
-36.9000;0.8482;0.9726;
-36.6000;0.8498;0.9726;
-36.3000;0.8490;0.9656;
-36.0000;0.8482;0.9586;
-35.7000;0.8466;0.9633;
-35.4000;0.8482;0.9679;
-35.1000;0.8482;0.9633;
-34.8000;0.8531;0.9749;
-34.5000;0.8490;0.9726;
-34.2000;0.8506;0.9703;
-33.9000;0.8547;0.9819;
-33.6000;0.8498;0.9726;
-33.3000;0.8490;0.9563;
-33.0000;0.8474;0.9586;
-32.7000;0.8506;0.9586;
-32.4000;0.8457;0.9446;
-32.1000;0.8490;0.9493;
-31.8000;0.8474;0.9446;
-31.5000;0.8490;0.9493;
-31.2000;0.8531;0.9586;
-30.9000;0.8409;0.9260;
-30.6000;0.8466;0.9329;
-30.3000;0.8474;0.9376;
-30.0000;0.8474;0.9306;
-29.7000;0.8506;0.9423;
-29.4000;0.8482;0.9376;
-29.1000;0.8474;0.9399;
-28.8000;0.8531;0.9539;
-28.5000;0.8514;0.9516;
-28.2000;0.8474;0.9423;
-27.9000;0.8498;0.9446;
-27.6000;0.8506;0.9446;
-27.3000;0.8482;0.9423;
-27.0000;0.8482;0.9423;
-26.7000;0.8563;0.9586;
-26.4000;0.8596;0.9609;
-26.1000;0.8490;0.9399;
-25.8000;0.8466;0.9353;
-25.5000;0.8457;0.9260;
-25.2000;0.8474;0.9283;
-24.9000;0.8490;0.9399;
-24.6000;0.8490;0.9376;
-24.3000;0.8523;0.9423;
-24.0000;0.8482;0.9306;
-23.7000;0.8433;0.9166;
-23.4000;0.8482;0.9306;
-23.1000;0.8466;0.9329;
-22.8000;0.8474;0.9423;
-22.5000;0.8555;0.9563;
-22.2000;0.8482;0.9469;
-21.9000;0.8474;0.9563;
-21.6000;0.8474;0.9679;
-21.3000;0.8482;0.9633;
-21.0000;0.8400;0.9493;
-20.7000;0.8449;0.9633;
-20.4000;0.8466;0.9726;
-20.1000;0.8441;0.9586;
-19.8000;0.8482;0.9726;
-19.5000;0.8482;0.9656;
-19.2000;0.8449;0.9609;
-18.9000;0.8474;0.9656;
-18.6000;0.8482;0.9609;
-18.3000;0.8482;0.9609;
-18.0000;0.8498;0.9609;
-17.7000;0.8433;0.9423;
-17.4000;0.8482;0.9469;
-17.1000;0.8474;0.9563;
-16.8000;0.8482;0.9656;
-16.5000;0.8482;0.9656;
-16.2000;0.8482;0.9586;
-15.9000;0.8482;0.9563;
-15.6000;0.8490;0.9563;
-15.3000;0.8531;0.9609;
-15.0000;0.8482;0.9516;
-14.7000;0.8482;0.9469;
-14.4000;0.8490;0.9516;
-14.1000;0.8482;0.9539;
-13.8000;0.8498;0.9516;
-13.5000;0.8474;0.9493;
-13.2000;0.8506;0.9586;
-12.9000;0.8514;0.9493;
-12.6000;0.8498;0.9539;
-12.3000;0.8498;0.9586;
-12.0000;0.8482;0.9633;
-11.7000;0.8506;0.9633;
-11.4000;0.8498;0.9609;
-11.1000;0.8498;0.9609;
-10.8000;0.8482;0.9633;
-10.5000;0.8482;0.9656;
-10.2000;0.8490;0.9679;
-9.9000;0.8490;0.9796;
-9.6000;0.8474;0.9819;
-9.3000;0.8506;0.9936;
-9.0000;0.8474;0.9843;
-8.7000;0.8474;0.9796;
-8.4000;0.8498;0.9703;
-8.1000;0.8490;0.9609;
-7.8000;0.8563;0.9796;
-7.5000;0.8466;0.9609;
-7.2000;0.8400;0.9399;
-6.9000;0.8482;0.9633;
-6.6000;0.8466;0.9679;
-6.3000;0.8482;0.9749;
-6.0000;0.8490;0.9703;
-5.7000;0.8490;0.9679;
-5.4000;0.8482;0.9609;
-5.1000;0.8482;0.9609;
-4.8000;0.8474;0.9586;
-4.5000;0.8498;0.9633;
-4.2000;0.8482;0.9726;
-3.9000;0.8474;0.9749;
-3.6000;0.8466;0.9773;
-3.3000;0.8457;0.9749;
-3.0000;0.8482;0.9726;
-2.7000;0.8523;0.9866;
-2.4000;0.8474;0.9773;
-2.1000;0.8466;0.9843;
-1.8000;0.8482;0.9889;
-1.5000;0.8498;0.9866;
-1.2000;0.8482;0.9936;
-0.9000;0.8474;0.9913;
-0.6000;0.8482;0.9819;
-0.3000;0.8474;0.9796;
0.0000;0.8474;0.9796;
0.3000;0.8523;0.9679;
0.6000;0.8637;0.9983;
0.9000;0.8775;1.0286;
1.2000;0.8767;1.0379;
1.5000;0.8807;1.0519;
1.8000;0.8864;1.0776;
2.1000;0.8897;1.0915;
2.4000;0.8905;1.0939;
2.7000;0.8962;1.1009;
3.0000;0.9027;1.1195;
3.3000;0.8930;1.1032;
3.6000;0.8995;1.1172;
3.9000;0.9019;1.1195;
4.2000;0.9044;1.1312;
4.5000;0.9044;1.1312;
4.8000;0.9068;1.1382;
5.1000;0.9052;1.1359;
5.4000;0.9084;1.1429;
5.7000;0.9101;1.1475;
6.0000;0.9117;1.1499;
6.3000;0.9109;1.1452;
6.6000;0.9109;1.1569;
6.9000;0.9149;1.1639;
7.2000;0.9141;1.1592;
7.5000;0.9166;1.1592;
7.8000;0.9166;1.1615;
8.1000;0.9166;1.1592;
8.4000;0.9182;1.1662;
8.7000;0.9190;1.1662;
9.0000;0.9174;1.1499;
9.3000;0.9214;1.1615;
9.6000;0.9206;1.1708;
9.9000;0.9182;1.1615;
10.2000;0.9182;1.1639;
10.5000;0.9239;1.1685;
10.8000;0.9223;1.1662;
11.1000;0.9255;1.1755;
11.4000;0.9239;1.1802;
11.7000;0.9247;1.1825;
12.0000;0.9255;1.1802;
12.3000;0.9198;1.1639;
12.6000;0.9223;1.1685;
12.9000;0.9288;1.1732;
13.2000;0.9288;1.1732;
13.5000;0.9320;1.1732;
13.8000;0.9231;1.1499;
14.1000;0.9304;1.1639;
14.4000;0.9312;1.1639;
14.7000;0.9304;1.1592;
15.0000;0.9231;1.1452;
15.3000;0.9304;1.1639;
15.6000;0.9312;1.1732;
15.9000;0.9255;1.1685;
16.2000;0.9304;1.1685;
16.5000;0.9320;1.1615;
16.8000;0.9369;1.1732;
17.1000;0.9337;1.1615;
17.4000;0.9320;1.1522;
17.7000;0.9402;1.1708;
18.0000;0.9353;1.1592;
18.3000;0.9353;1.1685;
18.6000;0.9361;1.1708;
18.9000;0.9328;1.1615;
19.2000;0.9353;1.1685;
19.5000;0.9271;1.1592;
19.8000;0.9361;1.1802;
20.1000;0.9345;1.1778;
20.4000;0.9337;1.1755;
20.7000;0.9361;1.1708;
21.0000;0.9337;1.1639;
21.3000;0.9377;1.1615;
21.6000;0.9442;1.1778;
21.9000;0.9361;1.1522;
22.2000;0.9369;1.1522;
22.5000;0.9385;1.1592;
22.8000;0.9377;1.1545;
23.1000;0.9361;1.1615;
23.4000;0.9377;1.1662;
23.7000;0.9361;1.1592;
24.0000;0.9369;1.1615;
24.3000;0.9353;1.1569;
24.6000;0.9377;1.1569;
24.9000;0.9361;1.1569;
25.2000;0.9385;1.1545;
25.5000;0.9361;1.1592;
25.8000;0.9385;1.1639;
26.1000;0.9394;1.1639;
26.4000;0.9394;1.1685;
26.7000;0.9385;1.1639;
27.0000;0.9385;1.1569;
27.3000;0.9394;1.1522;
27.6000;0.9369;1.1405;
27.9000;0.9377;1.1405;
28.2000;0.9377;1.1475;
28.5000;0.9385;1.1499;
28.8000;0.9377;1.1475;
29.1000;0.9385;1.1452;
29.4000;0.9394;1.1452;
29.7000;0.9361;1.1499;
30.0000;0.9394;1.1452;
30.3000;0.9451;1.1662;
30.6000;0.9385;1.1499;
30.9000;0.9385;1.1522;
31.2000;0.9377;1.1429;
31.5000;0.9377;1.1475;
31.8000;0.9394;1.1429;
32.1000;0.9410;1.1475;
32.4000;0.9394;1.1452;
32.7000;0.9410;1.1452;
33.0000;0.9442;1.1522;
33.3000;0.9434;1.1452;
33.6000;0.9418;1.1452;
33.9000;0.9394;1.1429;
34.2000;0.9426;1.1499;
34.5000;0.9385;1.1499;
34.8000;0.9353;1.1452;
35.1000;0.9402;1.1545;
35.4000;0.9402;1.1592;
35.7000;0.9410;1.1522;
36.0000;0.9345;1.1359;
36.3000;0.9426;1.1475;
36.6000;0.9410;1.1405;
36.9000;0.9442;1.1452;
37.2000;0.9377;1.1382;
37.5000;0.9385;1.1359;
37.8000;0.9426;1.1382;
38.1000;0.9426;1.1452;
38.4000;0.9369;1.1335;
38.7000;0.9402;1.1429;
39.0000;0.9434;1.1569;
39.3000;0.9410;1.1615;
39.6000;0.9442;1.1685;
39.9000;0.9402;1.1639;
40.2000;0.9442;1.1732;
40.5000;0.9402;1.1639;
40.8000;0.9467;1.1708;
41.1000;0.9394;1.1545;
41.4000;0.9426;1.1615;
41.7000;0.9394;1.1569;
42.0000;0.9442;1.1685;
42.3000;0.9426;1.1569;
42.6000;0.9402;1.1569;
42.9000;0.9426;1.1685;
43.2000;0.9499;1.1802;
43.5000;0.9410;1.1475;
43.8000;0.9434;1.1615;
44.1000;0.9451;1.1685;
44.4000;0.9426;1.1662;
44.7000;0.9434;1.1685;
45.0000;0.9467;1.1872;
45.3000;0.9410;1.1778;
45.6000;0.9418;1.1662;
45.9000;0.9418;1.1499;
46.2000;0.9296;1.1289;
46.5000;0.9402;1.1499;
46.8000;0.9442;1.1592;
47.1000;0.9418;1.1545;
47.4000;0.9402;1.1452;
47.7000;0.9418;1.1499;
48.0000;0.9467;1.1592;
48.3000;0.9426;1.1429;
48.6000;0.9434;1.1452;
48.9000;0.9426;1.1405;
49.2000;0.9442;1.1405;
49.5000;0.9426;1.1405;
49.8000;0.9394;1.1382;
50.1000;0.9402;1.1545;
50.4000;0.9426;1.1615;
50.7000;0.9410;1.1708;
51.0000;0.9410;1.1708;
51.3000;0.9426;1.1685;
51.6000;0.9426;1.1685;
51.9000;0.9410;1.1708;
52.2000;0.9483;1.1848;
52.5000;0.9442;1.1755;
52.8000;0.9434;1.1802;
53.1000;0.9442;1.1825;
53.4000;0.9451;1.1895;
53.7000;0.9418;1.1872;
54.0000;0.9442;1.1755;
54.3000;0.9475;1.1848;
54.6000;0.9467;1.1778;
54.9000;0.9434;1.1662;
55.2000;0.9426;1.1639;
55.5000;0.9459;1.1662;
55.8000;0.9434;1.1592;
56.1000;0.9426;1.1592;
56.4000;0.9418;1.1615;
56.7000;0.9418;1.1545;
57.0000;0.9402;1.1545;
57.3000;0.9418;1.1639;
57.6000;0.9410;1.1522;
57.9000;0.9434;1.1499;
58.2000;0.9499;1.1639;
58.5000;0.9426;1.1522;
58.8000;0.9410;1.1522;
59.1000;0.9410;1.1639;
59.4000;0.9426;1.1662;
59.7000;0.9434;1.1592;
60.0000;0.9410;1.1569;
60.3000;0.9410;1.1592;
60.6000;0.9402;1.1522;
60.9000;0.9434;1.1522;
61.2000;0.9328;1.1242;
61.5000;0.9402;1.1429;
61.8000;0.9418;1.1452;
62.1000;0.9418;1.1452;
62.4000;0.9402;1.1359;
62.7000;0.9467;1.1499;
63.0000;0.9410;1.1335;
63.3000;0.9426;1.1452;
63.6000;0.9459;1.1522;
63.9000;0.9434;1.1452;
64.2000;0.9410;1.1452;
64.5000;0.9418;1.1429;
64.8000;0.9442;1.1499;
65.1000;0.9442;1.1499;
65.4000;0.9434;1.1475;
65.7000;0.9426;1.1429;
66.0000;0.9418;1.1429;
66.3000;0.9418;1.1429;
66.6000;0.9467;1.1429;
66.9000;0.9410;1.1289;
67.2000;0.9451;1.1382;
67.5000;0.9451;1.1452;
67.8000;0.9434;1.1545;
68.1000;0.9418;1.1475;
68.4000;0.9434;1.1499;
68.7000;0.9426;1.1429;
69.0000;0.9426;1.1405;
69.3000;0.9434;1.1429;
69.6000;0.9394;1.1429;
69.9000;0.9442;1.1639;
70.2000;0.9426;1.1639;
70.5000;0.9434;1.1592;
70.8000;0.9426;1.1592;
71.1000;0.9442;1.1545;
71.4000;0.9434;1.1545;
71.7000;0.9434;1.1545;
72.0000;0.9418;1.1405;
72.3000;0.9434;1.1499;
72.6000;0.9426;1.1499;
72.9000;0.9418;1.1452;
73.2000;0.9410;1.1429;
73.5000;0.9385;1.1242;
73.8000;0.9434;1.1312;
74.1000;0.9410;1.1359;
74.4000;0.9337;1.1265;
74.7000;0.9418;1.1475;
75.0000;0.9394;1.1335;
75.3000;0.9442;1.1499;
75.6000;0.9418;1.1522;
75.9000;0.9451;1.1592;
76.2000;0.9434;1.1569;
76.5000;0.9459;1.1615;
76.8000;0.9434;1.1545;
77.1000;0.9434;1.1522;
77.4000;0.9434;1.1475;
77.7000;0.9418;1.1499;
78.0000;0.9442;1.1569;
78.3000;0.9418;1.1475;
78.6000;0.9451;1.1522;
78.9000;0.9353;1.1359;
79.2000;0.9418;1.1592;
79.5000;0.9434;1.1615;
79.8000;0.9426;1.1592;
80.1000;0.9426;1.1522;
80.4000;0.9426;1.1545;
80.7000;0.9402;1.1359;
81.0000;0.9426;1.1335;
81.3000;0.9442;1.1382;
81.6000;0.9442;1.1405;
81.9000;0.9418;1.1405;
82.2000;0.9434;1.1499;
82.5000;0.9451;1.1615;
82.8000;0.9418;1.1662;
83.1000;0.9410;1.1639;
83.4000;0.9402;1.1639;
83.7000;0.9410;1.1662;
84.0000;0.9410;1.1615;
84.3000;0.9418;1.1615;
84.6000;0.9369;1.1499;
84.9000;0.9483;1.1802;
85.2000;0.9385;1.1592;
85.5000;0.9410;1.1592;
85.8000;0.9410;1.1522;
86.1000;0.9377;1.1405;
86.4000;0.9426;1.1545;
86.7000;0.9434;1.1615;
87.0000;0.9418;1.1569;
87.3000;0.9410;1.1522;
87.6000;0.9385;1.1359;
87.9000;0.9418;1.1405;
88.2000;0.9434;1.1475;
88.5000;0.9434;1.1522;
88.8000;0.9418;1.1499;
89.1000;0.9442;1.1522;
89.4000;0.9434;1.1429;
89.7000;0.9410;1.1335;
90.0000;0.9426;1.1429;
90.3000;0.9434;1.1522;
90.6000;0.9442;1.1475;
90.9000;0.9434;1.1429;
91.2000;0.9410;1.1335;
91.5000;0.9418;1.1382;
91.8000;0.9442;1.1382;
92.1000;0.9426;1.1335;
92.4000;0.9418;1.1335;
92.7000;0.9442;1.1382;
93.0000;0.9434;1.1312;
93.3000;0.9418;1.1359;
93.6000;0.9410;1.1429;
93.9000;0.9410;1.1405;
94.2000;0.9426;1.1405;
94.5000;0.9426;1.1382;
94.8000;0.9426;1.1429;
95.1000;0.9418;1.1522;
95.4000;0.9426;1.1522;
95.7000;0.9418;1.1429;
96.0000;0.9467;1.1475;
96.3000;0.9434;1.1382;
96.6000;0.9426;1.1499;
96.9000;0.9426;1.1429;
97.2000;0.9402;1.1405;
97.5000;0.9402;1.1522;
97.8000;0.9410;1.1545;
98.1000;0.9394;1.1429;
98.4000;0.9418;1.1405;
98.7000;0.9410;1.1335;
99.0000;0.9410;1.1359;
99.3000;0.9426;1.1405;
99.6000;0.9418;1.1452;
99.9000;0.9418;1.1475;
100.2000;0.9402;1.1592;
100.5000;0.9426;1.1662;
100.8000;0.9434;1.1639;
101.1000;0.9418;1.1639;
101.4000;0.9426;1.1662;
101.7000;0.9426;1.1685;
102.0000;0.9418;1.1615;
102.3000;0.9402;1.1569;
102.6000;0.9402;1.1685;
102.9000;0.9483;1.1825;
103.2000;0.9418;1.1662;
103.5000;0.9491;1.1895;
103.8000;0.9426;1.1732;
104.1000;0.9418;1.1778;
104.4000;0.9426;1.1848;
104.7000;0.9434;1.1825;
105.0000;0.9418;1.1755;
105.3000;0.9451;1.1872;
105.6000;0.9402;1.1755;
105.9000;0.9410;1.1802;
106.2000;0.9426;1.1802;
106.5000;0.9434;1.1825;
106.8000;0.9426;1.1778;
107.1000;0.9442;1.1732;
107.4000;0.9418;1.1708;
107.7000;0.9508;1.1895;
108.0000;0.9426;1.1708;
108.3000;0.9418;1.1708;
108.6000;0.9475;1.1825;
108.9000;0.9369;1.1732;
109.2000;0.9361;1.1662;
109.5000;0.9442;1.1825;
109.8000;0.9442;1.1708;
110.1000;0.9442;1.1685;
110.4000;0.9426;1.1662;
110.7000;0.9418;1.1639;
111.0000;0.9426;1.1639;
111.3000;0.9426;1.1662;
111.6000;0.9548;1.1802;
111.9000;0.9410;1.1545;
112.2000;0.9451;1.1615;
112.5000;0.9426;1.1522;
112.8000;0.9434;1.1545;
113.1000;0.9434;1.1662;
113.4000;0.9434;1.1639;
113.7000;0.9451;1.1615;
114.0000;0.9434;1.1545;
114.3000;0.9410;1.1452;
114.6000;0.9426;1.1452;
114.9000;0.9410;1.1475;
115.2000;0.9394;1.1452;
115.5000;0.9402;1.1522;
115.8000;0.9410;1.1545;
116.1000;0.9442;1.1522;
116.4000;0.9426;1.1545;
116.7000;0.9451;1.1592;
117.0000;0.9418;1.1569;
117.3000;0.9434;1.1615;
117.6000;0.9410;1.1522;
117.9000;0.9426;1.1499;
118.2000;0.9434;1.1545;
118.5000;0.9418;1.1592;
118.8000;0.9426;1.1615;
119.1000;0.9410;1.1615;
119.4000;0.9394;1.1522;
119.7000;0.9418;1.1569;
120.0000;0.9418;1.1569;
120.3000;0.9418;1.1499;
120.6000;0.9434;1.1499;
120.9000;0.9442;1.1499;
121.2000;0.9426;1.1475;
121.5000;0.9426;1.1452;
121.8000;0.9434;1.1405;
122.1000;0.9418;1.1475;
122.4000;0.9434;1.1522;
122.7000;0.9418;1.1475;
123.0000;0.9434;1.1545;
123.3000;0.9369;1.1312;
123.6000;0.9426;1.1405;
123.9000;0.9426;1.1499;
124.2000;0.9402;1.1452;
124.5000;0.9394;1.1452;
124.8000;0.9410;1.1405;
125.1000;0.9426;1.1499;
125.4000;0.9394;1.1335;
125.7000;0.9426;1.1429;
126.0000;0.9451;1.1545;
126.3000;0.9442;1.1545;
126.6000;0.9434;1.1545;
126.9000;0.9418;1.1592;
127.2000;0.9451;1.1662;
127.5000;0.9442;1.1569;
127.8000;0.9418;1.1452;
128.1000;0.9410;1.1429;
128.4000;0.9434;1.1475;
128.7000;0.9442;1.1499;
129.0000;0.9418;1.1429;
129.3000;0.9402;1.1475;
129.6000;0.9418;1.1429;
129.9000;0.9394;1.1359;
130.2000;0.9475;1.1452;
130.5000;0.9459;1.1359;
130.8000;0.9410;1.1242;
131.1000;0.9434;1.1312;
131.4000;0.9426;1.1289;
131.7000;0.9451;1.1312;
132.0000;0.9394;1.1265;
132.3000;0.9402;1.1359;
132.6000;0.9426;1.1499;
132.9000;0.9434;1.1615;
133.2000;0.9410;1.1475;
133.5000;0.9369;1.1429;
133.8000;0.9361;1.1405;
134.1000;0.9442;1.1639;
134.4000;0.9410;1.1569;
134.7000;0.9394;1.1592;
135.0000;0.9410;1.1639;
135.3000;0.9361;1.1452;
135.6000;0.9312;1.1312;
135.9000;0.9418;1.1592;
136.2000;0.9434;1.1639;
136.5000;0.9394;1.1639;
136.8000;0.9410;1.1662;
137.1000;0.9410;1.1662;
137.4000;0.9418;1.1569;
137.7000;0.9426;1.1569;
138.0000;0.9410;1.1592;
138.3000;0.9418;1.1639;
138.6000;0.9426;1.1592;
138.9000;0.9418;1.1522;
139.2000;0.9426;1.1592;
139.5000;0.9402;1.1522;
139.8000;0.9418;1.1522;
140.1000;0.9418;1.1499;
140.4000;0.9442;1.1615;
140.7000;0.9402;1.1615;
141.0000;0.9434;1.1755;
141.3000;0.9418;1.1802;
141.6000;0.9426;1.1825;
141.9000;0.9426;1.1825;
142.2000;0.9418;1.1802;
142.5000;0.9426;1.1755;
142.8000;0.9410;1.1685;
143.1000;0.9426;1.1662;
143.4000;0.9410;1.1708;
143.7000;0.9426;1.1755;
144.0000;0.9459;1.1872;
144.3000;0.9426;1.1778;
144.6000;0.9418;1.1778;
144.9000;0.9402;1.1802;
145.2000;0.9402;1.1755;
145.5000;0.9426;1.1825;
145.8000;0.9394;1.1732;
146.1000;0.9410;1.1825;
146.4000;0.9377;1.1708;
146.7000;0.9418;1.1778;
147.0000;0.9410;1.1639;
147.3000;0.9442;1.1662;
147.6000;0.9410;1.1545;
147.9000;0.9426;1.1615;
148.2000;0.9483;1.1708;
148.5000;0.9337;1.1382;
148.8000;0.9296;1.1289;
149.1000;0.9434;1.1592;
149.4000;0.9385;1.1452;
149.7000;0.9418;1.1545;
150.0000;0.9410;1.1569;
150.3000;0.9410;1.1639;
150.6000;0.9426;1.1708;
150.9000;0.9426;1.1639;
151.2000;0.9410;1.1615;
151.5000;0.9410;1.1615;
151.8000;0.9402;1.1475;
152.1000;0.9434;1.1639;
152.4000;0.9402;1.1592;
152.7000;0.9434;1.1639;
153.0000;0.9426;1.1662;
153.3000;0.9426;1.1708;
153.6000;0.9451;1.1778;
153.9000;0.9410;1.1662;
154.2000;0.9402;1.1685;
154.5000;0.9418;1.1662;
154.8000;0.9410;1.1639;
155.1000;0.9418;1.1615;
155.4000;0.9385;1.1592;
155.7000;0.9410;1.1639;
156.0000;0.9418;1.1615;
156.3000;0.9402;1.1592;
156.6000;0.9434;1.1732;
156.9000;0.9394;1.1639;
157.2000;0.9491;1.1778;
157.5000;0.9394;1.1615;
157.8000;0.9361;1.1592;
158.1000;0.9402;1.1732;
158.4000;0.9418;1.1708;
158.7000;0.9402;1.1685;
159.0000;0.9402;1.1639;
159.3000;0.9410;1.1569;
159.6000;0.9385;1.1522;
159.9000;0.9418;1.1499;
160.2000;0.9418;1.1382;
160.5000;0.9418;1.1475;
160.8000;0.9426;1.1569;
161.1000;0.9410;1.1475;
161.4000;0.9418;1.1522;
161.7000;0.9467;1.1522;
162.0000;0.9442;1.1499;
162.3000;0.9426;1.1499;
162.6000;0.9434;1.1662;
162.9000;0.9426;1.1639;
163.2000;0.9426;1.1685;
163.5000;0.9459;1.1802;
163.8000;0.9410;1.1662;
164.1000;0.9418;1.1615;
164.4000;0.9442;1.1732;
164.7000;0.9410;1.1615;
165.0000;0.9418;1.1639;
165.3000;0.9394;1.1545;
165.6000;0.9410;1.1615;
165.9000;0.9418;1.1685;
166.2000;0.9377;1.1569;
166.5000;0.9418;1.1732;
166.8000;0.9434;1.1708;
167.1000;0.9475;1.1708;
167.4000;0.9418;1.1569;
167.7000;0.9394;1.1545;
168.0000;0.9394;1.1569;
168.3000;0.9418;1.1615;
168.6000;0.9410;1.1662;
168.9000;0.9361;1.1475;
169.2000;0.9377;1.1545;
169.5000;0.9345;1.1382;
169.8000;0.9394;1.1499;
170.1000;0.9418;1.1592;
170.4000;0.9418;1.1592;
170.7000;0.9394;1.1662;
171.0000;0.9451;1.1708;
171.3000;0.9426;1.1615;
171.6000;0.9426;1.1639;
171.9000;0.9418;1.1615;
172.2000;0.9475;1.1755;
172.5000;0.9402;1.1639;
172.8000;0.9394;1.1662;
173.1000;0.9394;1.1662;
173.4000;0.9410;1.1685;
173.7000;0.9426;1.1685;
174.0000;0.9426;1.1615;
174.3000;0.9418;1.1452;
174.6000;0.9418;1.1359;
174.9000;0.9410;1.1382;
175.2000;0.9475;1.1615;
175.5000;0.9434;1.1429;
175.8000;0.9410;1.1405;
176.1000;0.9410;1.1405;
176.4000;0.9418;1.1335;
176.7000;0.9418;1.1359;
177.0000;0.9410;1.1405;
177.3000;0.9410;1.1335;
177.6000;0.9434;1.1382;
177.9000;0.9410;1.1382;
178.2000;0.9394;1.1359;
178.5000;0.9402;1.1405;
178.8000;0.9402;1.1429;
179.1000;0.9418;1.1429;
179.4000;0.9402;1.1405;
179.7000;0.9410;1.1475;
180.0000;0.9426;1.1475;
180.3000;0.9418;1.1475;
180.6000;0.9426;1.1499;
180.9000;0.9402;1.1335;
181.2000;0.9418;1.1312;
181.5000;0.9410;1.1219;
181.8000;0.9418;1.1149;
182.1000;0.9402;1.1172;
182.4000;0.9410;1.1265;
182.7000;0.9418;1.1405;
183.0000;0.9410;1.1452;
183.3000;0.9402;1.1499;
183.6000;0.9410;1.1475;
183.9000;0.9353;1.1405;
184.2000;0.9410;1.1592;
184.5000;0.9426;1.1685;
184.8000;0.9426;1.1685;
185.1000;0.9451;1.1755;
185.4000;0.9418;1.1639;
185.7000;0.9418;1.1615;
186.0000;0.9434;1.1615;
186.3000;0.9434;1.1639;
186.6000;0.9434;1.1685;
186.9000;0.9410;1.1685;
187.2000;0.9418;1.1708;
187.5000;0.9467;1.1732;
187.8000;0.9418;1.1662;
188.1000;0.9426;1.1639;
188.4000;0.9418;1.1615;
188.7000;0.9402;1.1615;
189.0000;0.9442;1.1685;
189.3000;0.9434;1.1685;
189.6000;0.9418;1.1545;
189.9000;0.9418;1.1615;
190.2000;0.9402;1.1639;
190.5000;0.9410;1.1685;
190.8000;0.9434;1.1755;
191.1000;0.9402;1.1685;
191.4000;0.9394;1.1732;
191.7000;0.9402;1.1732;
192.0000;0.9434;1.1662;
192.3000;0.9410;1.1639;
192.6000;0.9394;1.1615;
192.9000;0.9410;1.1569;
193.2000;0.9402;1.1569;
193.5000;0.9402;1.1592;
193.8000;0.9410;1.1615;
194.1000;0.9410;1.1708;
194.4000;0.9394;1.1732;
194.7000;0.9394;1.1685;
195.0000;0.9410;1.1615;
195.3000;0.9410;1.1592;
195.6000;0.9402;1.1615;
195.9000;0.9369;1.1499;
196.2000;0.9385;1.1499;
196.5000;0.9394;1.1429;
196.8000;0.9394;1.1452;
197.1000;0.9418;1.1475;
197.4000;0.9418;1.1475;
197.7000;0.9410;1.1382;
198.0000;0.9410;1.1289;
198.3000;0.9410;1.1312;
198.6000;0.9434;1.1452;
198.9000;0.9418;1.1475;
199.2000;0.9418;1.1475;
199.5000;0.9410;1.1475;
199.8000;0.9402;1.1452;
200.1000;0.9418;1.1522;
200.4000;0.9410;1.1569;
200.7000;0.9426;1.1662;
201.0000;0.9426;1.1708;
201.3000;0.9410;1.1825;
201.6000;0.9377;1.1802;
201.9000;0.9410;1.1825;
202.2000;0.9385;1.1685;
202.5000;0.9385;1.1615;
202.8000;0.9410;1.1592;
203.1000;0.9394;1.1592;
203.4000;0.9385;1.1475;
203.7000;0.9402;1.1569;
204.0000;0.9418;1.1685;
204.3000;0.9426;1.1685;
204.6000;0.9394;1.1569;
204.9000;0.9402;1.1592;
205.2000;0.9394;1.1522;
205.5000;0.9410;1.1569;
205.8000;0.9467;1.1802;
206.1000;0.9434;1.1615;
206.4000;0.9426;1.1545;
206.7000;0.9434;1.1475;
207.0000;0.9434;1.1499;
207.3000;0.9402;1.1405;
207.6000;0.9337;1.1382;
207.9000;0.9410;1.1592;
208.2000;0.9394;1.1615;
208.5000;0.9418;1.1592;
208.8000;0.9402;1.1639;
209.1000;0.9394;1.1662;
209.4000;0.9402;1.1685;
209.7000;0.9418;1.1685;
210.0000;0.9394;1.1592;
210.3000;0.9385;1.1685;
210.6000;0.9426;1.1778;
210.9000;0.9426;1.1755;
211.2000;0.9410;1.1755;
211.5000;0.9394;1.1825;
211.8000;0.9402;1.1778;
212.1000;0.9394;1.1732;
212.4000;0.9385;1.1732;
212.7000;0.9402;1.1732;
213.0000;0.9402;1.1685;
213.3000;0.9410;1.1662;
213.6000;0.9394;1.1685;
213.9000;0.9353;1.1615;
214.2000;0.9394;1.1755;
214.5000;0.9418;1.1872;
214.8000;0.9402;1.1848;
215.1000;0.9369;1.1755;
215.4000;0.9402;1.1825;
215.7000;0.9402;1.1778;
216.0000;0.9418;1.1732;
216.3000;0.9442;1.1778;
216.6000;0.9402;1.1755;
216.9000;0.9394;1.1732;
217.2000;0.9426;1.1755;
217.5000;0.9410;1.1755;
217.8000;0.9385;1.1662;
218.1000;0.9451;1.1778;
218.4000;0.9410;1.1685;
218.7000;0.9410;1.1778;
219.0000;0.9402;1.1778;
219.3000;0.9402;1.1732;
219.6000;0.9418;1.1708;
219.9000;0.9426;1.1708;
220.2000;0.9345;1.1522;
220.5000;0.9418;1.1685;
220.8000;0.9377;1.1569;
221.1000;0.9402;1.1685;
221.4000;0.9418;1.1639;
221.7000;0.9451;1.1685;
222.0000;0.9385;1.1522;
222.3000;0.9426;1.1615;
222.6000;0.9451;1.1778;
222.9000;0.9410;1.1615;
223.2000;0.9451;1.1615;
223.5000;0.9426;1.1545;
223.8000;0.9328;1.1405;
224.1000;0.9385;1.1545;
224.4000;0.9524;1.1825;
224.7000;0.9361;1.1429;
225.0000;0.9402;1.1522;
225.3000;0.9394;1.1405;
225.6000;0.9385;1.1359;
225.9000;0.9280;1.1102;
226.2000;0.9328;1.1219;
226.5000;0.9394;1.1475;
226.8000;0.9394;1.1475;
227.1000;0.9394;1.1475;
227.4000;0.9459;1.1522;
227.7000;0.9377;1.1289;
228.0000;0.9394;1.1312;
228.3000;0.9451;1.1312;
228.6000;0.9377;1.1265;
228.9000;0.9394;1.1265;
229.2000;0.9426;1.1335;
229.5000;0.9394;1.1289;
229.8000;0.9337;1.1125;
230.1000;0.9418;1.1359;
230.4000;0.9402;1.1312;
230.7000;0.9410;1.1265;
231.0000;0.9434;1.1335;
231.3000;0.9402;1.1382;
231.6000;0.9369;1.1335;
231.9000;0.9426;1.1429;
232.2000;0.9418;1.1405;
232.5000;0.9426;1.1429;
232.8000;0.9410;1.1405;
233.1000;0.9394;1.1429;
233.4000;0.9402;1.1475;
233.7000;0.9483;1.1569;
234.0000;0.9467;1.1569;
234.3000;0.9402;1.1545;
234.6000;0.9402;1.1569;
234.9000;0.9385;1.1569;
235.2000;0.9410;1.1685;
235.5000;0.9394;1.1592;
235.8000;0.9410;1.1639;
236.1000;0.9369;1.1499;
236.4000;0.9410;1.1592;
236.7000;0.9426;1.1475;
237.0000;0.9337;1.1312;
237.3000;0.9410;1.1405;
237.6000;0.9410;1.1359;
237.9000;0.9467;1.1429;
238.2000;0.9394;1.1265;
238.5000;0.9426;1.1335;
238.8000;0.9418;1.1265;
239.1000;0.9410;1.1219;
239.4000;0.9410;1.1265;
239.7000;0.9394;1.1265;
240.0000;0.9410;1.1312;
240.3000;0.9467;1.1429;
240.6000;0.9418;1.1312;
240.9000;0.9410;1.1359;
241.2000;0.9434;1.1475;
241.5000;0.9410;1.1405;
241.8000;0.9402;1.1289;
242.1000;0.9410;1.1359;
242.4000;0.9434;1.1382;
242.7000;0.9418;1.1312;
243.0000;0.9402;1.1289;
243.3000;0.9394;1.1335;
243.6000;0.9377;1.1405;
243.9000;0.9385;1.1359;
244.2000;0.9402;1.1335;
244.5000;0.9410;1.1382;
244.8000;0.9434;1.1405;
245.1000;0.9418;1.1312;
245.4000;0.9434;1.1242;
245.7000;0.9402;1.1195;
246.0000;0.9402;1.1242;
246.3000;0.9369;1.1172;
246.6000;0.9377;1.1195;
246.9000;0.9442;1.1312;
247.2000;0.9418;1.1195;
247.5000;0.9426;1.1242;
247.8000;0.9499;1.1452;
248.1000;0.9426;1.1405;
248.4000;0.9369;1.1265;
248.7000;0.9377;1.1265;
249.0000;0.9410;1.1289;
249.3000;0.9426;1.1265;
249.6000;0.9361;1.1219;
249.9000;0.9402;1.1335;
250.2000;0.9402;1.1242;
250.5000;0.9410;1.1242;
250.8000;0.9394;1.1125;
251.1000;0.9402;1.1125;
251.4000;0.9410;1.1102;
251.7000;0.9377;1.1102;
252.0000;0.9410;1.1312;
252.3000;0.9410;1.1312;
252.6000;0.9394;1.1289;
252.9000;0.9402;1.1265;
253.2000;0.9410;1.1265;
253.5000;0.9418;1.1265;
253.8000;0.9394;1.1242;
254.1000;0.9418;1.1312;
254.4000;0.9402;1.1312;
254.7000;0.9418;1.1335;
255.0000;0.9418;1.1265;
255.3000;0.9402;1.1289;
255.6000;0.9402;1.1382;
255.9000;0.9426;1.1452;
256.2000;0.9402;1.1429;
256.5000;0.9410;1.1429;
256.8000;0.9410;1.1475;
257.1000;0.9418;1.1639;
257.4000;0.9394;1.1475;
257.7000;0.9320;1.1335;
258.0000;0.9410;1.1522;
258.3000;0.9410;1.1545;
258.6000;0.9361;1.1382;
258.9000;0.9402;1.1522;
259.2000;0.9426;1.1545;
259.5000;0.9337;1.1335;
259.8000;0.9410;1.1545;
260.1000;0.9410;1.1545;
260.4000;0.9394;1.1545;
260.7000;0.9418;1.1639;
261.0000;0.9426;1.1732;
261.3000;0.9377;1.1615;
261.6000;0.9418;1.1662;
261.9000;0.9418;1.1802;
262.2000;0.9426;1.1848;
262.5000;0.9410;1.1732;
262.8000;0.9402;1.1708;
263.1000;0.9402;1.1685;
263.4000;0.9394;1.1685;
263.7000;0.9426;1.1802;
264.0000;0.9410;1.1825;
264.3000;0.9353;1.1755;
264.6000;0.9394;1.1708;
264.9000;0.9410;1.1778;
265.2000;0.9434;1.1778;
265.5000;0.9361;1.1639;
265.8000;0.9402;1.1708;
266.1000;0.9394;1.1685;
266.4000;0.9394;1.1708;
266.7000;0.9385;1.1662;
267.0000;0.9394;1.1662;
267.3000;0.9394;1.1685;
267.6000;0.9418;1.1778;
267.9000;0.9385;1.1732;
268.2000;0.9418;1.1802;
268.5000;0.9394;1.1848;
268.8000;0.9402;1.1825;
269.1000;0.9385;1.1708;
269.4000;0.9418;1.1848;
269.7000;0.9377;1.1732;
270.0000;0.9377;1.1755;
270.3000;0.9410;1.1778;
270.6000;0.9385;1.1778;
270.9000;0.9410;1.1872;
271.2000;0.9402;1.1732;
271.5000;0.9394;1.1662;
271.8000;0.9402;1.1615;
272.1000;0.9410;1.1639;
272.4000;0.9418;1.1662;
272.7000;0.9418;1.1755;
273.0000;0.9394;1.1755;
273.3000;0.9426;1.1802;
273.6000;0.9410;1.1825;
273.9000;0.9402;1.1732;
274.2000;0.9385;1.1639;
274.5000;0.9402;1.1685;
274.8000;0.9377;1.1615;
275.1000;0.9410;1.1615;
275.4000;0.9402;1.1639;
275.7000;0.9394;1.1708;
276.0000;0.9394;1.1732;
276.3000;0.9394;1.1802;
276.6000;0.9394;1.1802;
276.9000;0.9394;1.1825;
277.2000;0.9402;1.1778;
277.5000;0.9353;1.1708;
277.8000;0.9402;1.1755;
278.1000;0.9418;1.1778;
278.4000;0.9402;1.1732;
278.7000;0.9377;1.1639;
279.0000;0.9410;1.1615;
279.3000;0.9394;1.1662;
279.6000;0.9377;1.1685;
279.9000;0.9410;1.1778;
280.2000;0.9410;1.1848;
280.5000;0.9394;1.1778;
280.8000;0.9402;1.1825;
281.1000;0.9394;1.1755;
281.4000;0.9369;1.1662;
281.7000;0.9296;1.1499;
282.0000;0.9394;1.1708;
282.3000;0.9410;1.1802;
282.6000;0.9491;1.2012;
282.9000;0.9410;1.1848;
283.2000;0.9361;1.1685;
283.5000;0.9377;1.1639;
283.8000;0.9418;1.1848;
284.1000;0.9418;1.1895;
284.4000;0.9385;1.1895;
284.7000;0.9418;1.1942;
285.0000;0.9394;1.1895;
285.3000;0.9394;1.1802;
285.6000;0.9402;1.1895;
285.9000;0.9394;1.1918;
286.2000;0.9394;1.1848;
286.5000;0.9345;1.1755;
286.8000;0.9402;1.1825;
287.1000;0.9385;1.1732;
287.4000;0.9410;1.1778;
287.7000;0.9402;1.1708;
288.0000;0.9394;1.1662;
288.3000;0.9402;1.1685;
288.6000;0.9369;1.1615;
288.9000;0.9402;1.1685;
289.2000;0.9418;1.1708;
289.5000;0.9385;1.1639;
289.8000;0.9402;1.1778;
290.1000;0.9410;1.1732;
290.4000;0.9402;1.1708;
290.7000;0.9418;1.1802;
291.0000;0.9394;1.1732;
291.3000;0.9328;1.1639;
291.6000;0.9402;1.1872;
291.9000;0.9312;1.1708;
292.2000;0.9394;1.1848;
292.5000;0.9377;1.1685;
292.8000;0.9402;1.1708;
293.1000;0.9402;1.1592;
293.4000;0.9426;1.1615;
293.7000;0.9410;1.1615;
294.0000;0.9410;1.1755;
294.3000;0.9402;1.1848;
294.6000;0.9402;1.1872;
294.9000;0.9410;1.1778;
295.2000;0.9394;1.1778;
295.5000;0.9434;1.1825;
295.8000;0.9410;1.1778;
296.1000;0.9402;1.1778;
296.4000;0.9385;1.1732;
296.7000;0.9394;1.1732;
297.0000;0.9385;1.1755;
297.3000;0.9394;1.1802;
297.6000;0.9402;1.1872;
297.9000;0.9394;1.1848;
298.2000;0.9394;1.1825;
298.5000;0.9377;1.1778;
298.8000;0.9385;1.1755;
299.1000;0.9385;1.1708;
299.4000;0.9361;1.1639;
299.7000;0.9385;1.1685;
300.0000;0.9402;1.1685;
300.3000;0.9394;1.1662;
300.6000;0.9418;1.1802;
300.9000;0.9312;1.1592;
301.2000;0.9394;1.1755;
301.5000;0.9426;1.1778;
301.8000;0.9402;1.1802;
302.1000;0.9385;1.1708;
302.4000;0.9402;1.1662;
302.7000;0.9402;1.1639;
303.0000;0.9410;1.1708;
303.3000;0.9394;1.1569;
303.6000;0.9345;1.1475;
303.9000;0.9394;1.1639;
304.2000;0.9418;1.1685;
304.5000;0.9402;1.1545;
304.8000;0.9410;1.1545;
305.1000;0.9410;1.1475;
305.4000;0.9402;1.1522;
305.7000;0.9402;1.1569;
306.0000;0.9402;1.1639;
306.3000;0.9394;1.1639;
306.6000;0.9402;1.1639;
306.9000;0.9410;1.1639;
307.2000;0.9402;1.1592;
307.5000;0.9410;1.1569;
307.8000;0.9418;1.1615;
308.1000;0.9410;1.1639;
308.4000;0.9361;1.1639;
308.7000;0.9410;1.1802;
309.0000;0.9418;1.1872;
309.3000;0.9426;1.1942;
309.6000;0.9410;1.1825;
309.9000;0.9402;1.1895;
310.2000;0.9394;1.1848;
310.5000;0.9410;1.1732;
310.8000;0.9451;1.1755;
311.1000;0.9402;1.1755;
311.4000;0.9402;1.1732;
311.7000;0.9410;1.1708;
312.0000;0.9410;1.1639;
312.3000;0.9353;1.1545;
312.6000;0.9361;1.1522;
312.9000;0.9410;1.1639;
313.2000;0.9402;1.1662;
313.5000;0.9402;1.1755;
313.8000;0.9394;1.1732;
314.1000;0.9418;1.1778;
314.4000;0.9418;1.1778;
314.7000;0.9418;1.1778;
315.0000;0.9402;1.1685;
315.3000;0.9426;1.1802;
315.6000;0.9410;1.1685;
315.9000;0.9426;1.1685;
316.2000;0.9385;1.1662;
316.5000;0.9402;1.1685;
316.8000;0.9369;1.1615;
317.1000;0.9394;1.1732;
317.4000;0.9410;1.1755;
317.7000;0.9385;1.1708;
318.0000;0.9402;1.1662;
318.3000;0.9402;1.1592;
318.6000;0.9434;1.1615;
318.9000;0.9426;1.1639;
319.2000;0.9418;1.1662;
319.5000;0.9402;1.1615;
319.8000;0.9385;1.1522;
320.1000;0.9483;1.1685;
320.4000;0.9353;1.1429;
320.7000;0.9418;1.1662;
321.0000;0.9345;1.1499;
321.3000;0.9426;1.1708;
321.6000;0.9475;1.1895;
321.9000;0.9418;1.1778;
322.2000;0.9402;1.1755;
322.5000;0.9402;1.1755;
322.8000;0.9410;1.1755;
323.1000;0.9402;1.1662;
323.4000;0.9418;1.1662;
323.7000;0.9402;1.1639;
324.0000;0.9442;1.1592;
324.3000;0.9377;1.1499;
324.6000;0.9394;1.1452;
324.9000;0.9377;1.1452;
325.2000;0.9385;1.1615;
325.5000;0.9402;1.1708;
325.8000;0.9410;1.1755;
326.1000;0.9402;1.1755;
326.4000;0.9418;1.1778;
326.7000;0.9410;1.1802;
327.0000;0.9385;1.1778;
327.3000;0.9385;1.1755;
327.6000;0.9418;1.1825;
327.9000;0.9402;1.1825;
328.2000;0.9385;1.1778;
328.5000;0.9402;1.1848;
328.8000;0.9410;1.1732;
329.1000;0.9394;1.1708;
329.4000;0.9402;1.1639;
329.7000;0.9442;1.1708;
330.0000;0.9451;1.1708;
330.3000;0.9385;1.1545;
330.6000;0.9410;1.1522;
330.9000;0.9451;1.1639;
331.2000;0.9394;1.1592;
331.5000;0.9385;1.1545;
331.8000;0.9385;1.1615;
332.1000;0.9483;1.1825;
332.4000;0.9394;1.1615;
332.7000;0.9394;1.1639;
333.0000;0.9410;1.1662;
333.3000;0.9369;1.1615;
333.6000;0.9402;1.1825;
333.9000;0.9328;1.1755;
334.2000;0.9418;1.1942;
334.5000;0.9353;1.1732;
334.8000;0.9345;1.1685;
335.1000;0.9483;1.1965;
335.4000;0.9385;1.1778;
335.7000;0.9410;1.1825;
336.0000;0.9418;1.1732;
336.3000;0.9475;1.1848;
336.6000;0.9426;1.1732;
336.9000;0.9402;1.1708;
337.2000;0.9491;1.1988;
337.5000;0.9499;1.2105;
337.8000;0.9402;1.1872;
338.1000;0.9361;1.1755;
338.4000;0.9385;1.1685;
338.7000;0.9402;1.1685;
339.0000;0.9402;1.1685;
339.3000;0.9442;1.1802;
339.6000;0.9410;1.1732;
339.9000;0.9402;1.1755;
340.2000;0.9369;1.1685;
340.5000;0.9361;1.1662;
340.8000;0.9394;1.1708;
341.1000;0.9385;1.1802;
341.4000;0.9369;1.1685;
341.7000;0.9418;1.1825;
342.0000;0.9418;1.1825;
342.3000;0.9451;1.1918;
342.6000;0.9451;1.1872;
342.9000;0.9410;1.1848;
343.2000;0.9385;1.1755;
343.5000;0.9394;1.1732;
343.8000;0.9410;1.1755;
344.1000;0.9377;1.1708;
344.4000;0.9353;1.1592;
344.7000;0.9369;1.1639;
345.0000;0.9402;1.1708;
345.3000;0.9394;1.1755;
345.6000;0.9394;1.1755;
345.9000;0.9385;1.1615;
346.2000;0.9394;1.1639;
346.5000;0.9402;1.1708;
346.8000;0.9402;1.1755;
347.1000;0.9434;1.1872;
347.4000;0.9394;1.1732;
347.7000;0.9385;1.1708;
348.0000;0.9394;1.1708;
348.3000;0.9385;1.1755;
348.6000;0.9385;1.1732;
348.9000;0.9394;1.1778;
349.2000;0.9410;1.1778;
349.5000;0.9434;1.1918;
349.8000;0.9402;1.1778;
350.1000;0.9328;1.1592;
350.4000;0.9426;1.1708;
350.7000;0.9312;1.1475;
351.0000;0.9394;1.1662;
351.3000;0.9402;1.1732;
351.6000;0.9402;1.1732;
351.9000;0.9385;1.1708;
352.2000;0.9385;1.1732;
352.5000;0.9385;1.1802;
352.8000;0.9402;1.1825;
353.1000;0.9426;1.1825;
353.4000;0.9402;1.1848;
353.7000;0.9394;1.1825;
354.0000;0.9410;1.1778;
354.3000;0.9394;1.1708;
354.6000;0.9402;1.1685;
354.9000;0.9385;1.1592;
355.2000;0.9377;1.1545;
355.5000;0.9394;1.1639;
355.8000;0.9402;1.1615;
356.1000;0.9361;1.1615;
356.4000;0.9402;1.1639;
356.7000;0.9394;1.1592;
357.0000;0.9394;1.1569;
357.3000;0.9418;1.1662;
357.6000;0.9402;1.1545;
357.9000;0.9410;1.1615;
358.2000;0.9410;1.1639;
358.5000;0.9385;1.1615;
358.8000;0.9385;1.1662;
359.1000;0.9369;1.1662;
359.4000;0.9337;1.1592;
359.7000;0.9377;1.1685;
360.0000;0.9410;1.1825;
360.3000;0.9508;1.2012;
360.6000;0.9385;1.1778;
360.9000;0.9377;1.1708;
361.2000;0.9418;1.1732;
361.5000;0.9385;1.1639;
361.8000;0.9361;1.1639;
362.1000;0.9402;1.1778;
362.4000;0.9402;1.1708;
362.7000;0.9402;1.1662;
363.0000;0.9402;1.1639;
363.3000;0.9483;1.1778;
363.6000;0.9402;1.1545;
363.9000;0.9385;1.1499;
364.2000;0.9394;1.1522;
364.5000;0.9385;1.1475;
364.8000;0.9410;1.1569;
365.1000;0.9402;1.1569;
365.4000;0.9377;1.1499;
365.7000;0.9418;1.1592;
366.0000;0.9410;1.1545;
366.3000;0.9402;1.1522;
366.6000;0.9369;1.1569;
366.9000;0.9410;1.1685;
367.2000;0.9410;1.1708;
367.5000;0.9418;1.1825;
367.8000;0.9524;1.2058;
368.1000;0.9410;1.1988;
368.4000;0.9475;1.2268;
368.7000;0.9442;1.2198;
369.0000;0.9434;1.2198;
369.3000;0.9377;1.2058;
369.6000;0.9394;1.2012;
369.9000;0.9361;1.1965;
370.2000;0.9394;1.1988;
370.5000;0.9385;1.1895;
370.8000;0.9491;1.2082;
371.1000;0.9402;1.1778;
371.4000;0.9394;1.1778;
371.7000;0.9361;1.1778;
372.0000;0.9385;1.1778;
372.3000;0.9385;1.1802;
372.6000;0.9394;1.1872;
372.9000;0.9369;1.1825;
373.2000;0.9410;1.1942;
373.5000;0.9410;1.1895;
373.8000;0.9394;1.1825;
374.1000;0.9377;1.1802;
374.4000;0.9394;1.1918;
374.7000;0.9394;1.1965;
375.0000;0.9410;1.2012;
375.3000;0.9402;1.1918;
375.6000;0.9402;1.1965;
375.9000;0.9394;1.1895;
376.2000;0.9402;1.1825;
376.5000;0.9361;1.1662;
376.8000;0.9369;1.1662;
377.1000;0.9434;1.1732;
377.4000;0.9418;1.1755;
377.7000;0.9402;1.1802;
378.0000;0.9377;1.1778;
378.3000;0.9394;1.1755;
378.6000;0.9353;1.1592;
378.9000;0.9434;1.1802;
379.2000;0.9377;1.1639;
379.5000;0.9377;1.1755;
379.8000;0.9361;1.1685;
380.1000;0.9434;1.1755;
380.4000;0.9369;1.1639;
380.7000;0.9361;1.1615;
381.0000;0.9394;1.1662;
381.3000;0.9467;1.1802;
381.6000;0.9385;1.1732;
381.9000;0.9353;1.1708;
382.2000;0.9320;1.1685;
382.5000;0.9394;1.1802;
382.8000;0.9377;1.1732;
383.1000;0.9385;1.1778;
383.4000;0.9385;1.1802;
383.7000;0.9377;1.1872;
384.0000;0.9369;1.1848;
384.3000;0.9426;1.1895;
384.6000;0.9377;1.1732;
384.9000;0.9426;1.1825;
385.2000;0.9385;1.1708;
385.5000;0.9385;1.1778;
385.8000;0.9385;1.1802;
386.1000;0.9402;1.1802;
386.4000;0.9418;1.1732;
386.7000;0.9394;1.1639;
387.0000;0.9328;1.1545;
387.3000;0.9402;1.1708;
387.6000;0.9402;1.1662;
387.9000;0.9410;1.1592;
388.2000;0.9410;1.1662;
388.5000;0.9442;1.1755;
388.8000;0.9402;1.1778;
389.1000;0.9385;1.1848;
389.4000;0.9402;1.1848;
389.7000;0.9369;1.1685;
390.0000;0.9402;1.1802;
390.3000;0.9394;1.1848;
390.6000;0.9385;1.1895;
390.9000;0.9394;1.1918;
391.2000;0.9410;1.2035;
391.5000;0.9402;1.1965;
391.8000;0.9385;1.1895;
392.1000;0.9402;1.1895;
392.4000;0.9402;1.2012;
392.7000;0.9394;1.1895;
393.0000;0.9410;1.1825;
393.3000;0.9402;1.1848;
393.6000;0.9394;1.1942;
393.9000;0.9426;1.1918;
394.2000;0.9402;1.1872;
394.5000;0.9410;1.1825;
394.8000;0.9377;1.1615;
395.1000;0.9418;1.1685;
395.4000;0.9337;1.1452;
395.7000;0.9418;1.1685;
396.0000;0.9402;1.1639;
396.3000;0.9394;1.1662;
396.6000;0.9418;1.1755;
396.9000;0.9402;1.1708;
397.2000;0.9394;1.1732;
397.5000;0.9394;1.1778;
397.8000;0.9410;1.1825;
398.1000;0.9385;1.1708;
398.4000;0.9394;1.1685;
398.7000;0.9467;1.1825;
399.0000;0.9394;1.1569;
399.3000;0.9410;1.1569;
399.6000;0.9361;1.1592;
399.9000;0.9402;1.1685;
400.2000;0.9426;1.1848;
400.5000;0.9418;1.1872;
400.8000;0.9402;1.1802;
401.1000;0.9385;1.1732;
401.4000;0.9402;1.1685;
401.7000;0.9410;1.1662;
402.0000;0.9385;1.1639;
402.3000;0.9369;1.1662;
402.6000;0.9369;1.1755;
402.9000;0.9353;1.1755;
403.2000;0.9459;1.1988;
403.5000;0.9410;1.1988;
403.8000;0.9385;1.2012;
404.1000;0.9402;1.1965;
404.4000;0.9402;1.1988;
404.7000;0.9394;1.1895;
405.0000;0.9377;1.1895;
405.3000;0.9434;1.2058;
405.6000;0.9402;1.1918;
405.9000;0.9361;1.1848;
406.2000;0.9345;1.1848;
406.5000;0.9353;1.1825;
406.8000;0.9385;1.1848;
407.1000;0.9394;1.1848;
407.4000;0.9410;1.1848;
407.7000;0.9377;1.1802;
408.0000;0.9377;1.1778;
408.3000;0.9385;1.1802;
408.6000;0.9394;1.1778;
408.9000;0.9377;1.1755;
409.2000;0.9418;1.1802;
409.5000;0.9410;1.1802;
409.8000;0.9385;1.1778;
410.1000;0.9402;1.1778;
410.4000;0.9402;1.1802;
410.7000;0.9385;1.1802;
411.0000;0.9385;1.1825;
411.3000;0.9361;1.1802;
411.6000;0.9402;1.1965;
411.9000;0.9394;1.1942;
412.2000;0.9369;1.1802;
412.5000;0.9410;1.1825;
412.8000;0.9394;1.1802;
413.1000;0.9394;1.1732;
413.4000;0.9377;1.1732;
413.7000;0.9369;1.1685;
414.0000;0.9369;1.1685;
414.3000;0.9394;1.1755;
414.6000;0.9385;1.1708;
414.9000;0.9385;1.1685;
415.2000;0.9394;1.1662;
415.5000;0.9377;1.1685;
415.8000;0.9410;1.1732;
416.1000;0.9394;1.1615;
416.4000;0.9385;1.1522;
416.7000;0.9369;1.1475;
417.0000;0.9377;1.1499;
417.3000;0.9394;1.1662;
417.6000;0.9442;1.1778;
417.9000;0.9410;1.1732;
418.2000;0.9328;1.1592;
418.5000;0.9337;1.1615;
418.8000;0.9385;1.1732;
419.1000;0.9385;1.1732;
419.4000;0.9345;1.1662;
419.7000;0.9361;1.1685;
420.0000;0.9410;1.1732;
420.3000;0.9402;1.1778;
420.6000;0.9394;1.1708;
420.9000;0.9418;1.1755;
421.2000;0.9377;1.1755;
421.5000;0.9394;1.1732;
421.8000;0.9394;1.1639;
422.1000;0.9410;1.1755;
422.4000;0.9394;1.1732;
422.7000;0.9328;1.1569;
423.0000;0.9296;1.1499;
423.3000;0.9410;1.1825;
423.6000;0.9394;1.1755;
423.9000;0.9320;1.1499;
424.2000;0.9410;1.1755;
424.5000;0.9394;1.1755;
424.8000;0.9418;1.1848;
425.1000;0.9402;1.1825;
425.4000;0.9394;1.1825;
425.7000;0.9394;1.1848;
426.0000;0.9377;1.1825;
426.3000;0.9402;1.1918;
426.6000;0.9402;1.1988;
426.9000;0.9385;1.1942;
427.2000;0.9385;1.1942;
427.5000;0.9394;1.1755;
427.8000;0.9377;1.1662;
428.1000;0.9385;1.1639;
428.4000;0.9385;1.1639;
428.7000;0.9394;1.1662;
429.0000;0.9410;1.1825;
429.3000;0.9394;1.1755;
429.6000;0.9394;1.1802;
429.9000;0.9402;1.1848;
430.2000;0.9418;1.1918;
430.5000;0.9394;1.1872;
430.8000;0.9410;1.1872;
431.1000;0.9475;1.2175;
431.4000;0.9491;1.2152;
431.7000;0.9385;1.1825;
432.0000;0.9369;1.1778;
432.3000;0.9385;1.1895;
432.6000;0.9402;1.1942;
432.9000;0.9394;1.1942;
433.2000;0.9377;1.2012;
433.5000;0.9410;1.2012;
433.8000;0.9394;1.1988;
434.1000;0.9410;1.1895;
434.4000;0.9369;1.1802;
434.7000;0.9394;1.1825;
435.0000;0.9385;1.1802;
435.3000;0.9475;1.2082;
435.6000;0.9402;1.1942;
435.9000;0.9394;1.1895;
436.2000;0.9410;1.1918;
436.5000;0.9418;1.2012;
436.8000;0.9369;1.1918;
437.1000;0.9377;1.1942;
437.4000;0.9385;1.1918;
437.7000;0.9394;1.1918;
438.0000;0.9385;1.1942;
438.3000;0.9361;1.1895;
438.6000;0.9320;1.1848;
438.9000;0.9385;1.2012;
439.2000;0.9377;1.1918;
439.5000;0.9377;1.1918;
439.8000;0.9426;1.1988;
440.1000;0.9385;1.2035;
440.4000;0.9394;1.1942;
440.7000;0.9369;1.1965;
441.0000;0.9377;1.2035;
441.3000;0.9394;1.1988;
441.6000;0.9394;1.1965;
441.9000;0.9442;1.2058;
442.2000;0.9320;1.1732;
442.5000;0.9410;1.2035;
442.8000;0.9402;1.1965;
443.1000;0.9377;1.1942;
443.4000;0.9402;1.1942;
443.7000;0.9394;1.1965;
444.0000;0.9385;1.1942;
444.3000;0.9402;1.1942;
444.6000;0.9394;1.1918;
444.9000;0.9385;1.1872;
445.2000;0.9410;1.1942;
445.5000;0.9410;1.1918;
445.8000;0.9394;1.1802;
446.1000;0.9377;1.1802;
446.4000;0.9402;1.1825;
446.7000;0.9402;1.1872;
447.0000;0.9410;1.1872;
447.3000;0.9394;1.1802;
447.6000;0.9402;1.1755;
447.9000;0.9394;1.1732;
448.2000;0.9410;1.1662;
448.5000;0.9377;1.1545;
448.8000;0.9394;1.1569;
449.1000;0.9402;1.1615;
449.4000;0.9377;1.1592;
449.7000;0.9394;1.1452;
450.0000;0.9353;1.1452;
450.3000;0.9361;1.1569;
450.6000;0.9337;1.1475;
450.9000;0.9377;1.1592;
451.2000;0.9353;1.1569;
451.5000;0.9385;1.1662;
451.8000;0.9385;1.1639;
452.1000;0.9467;1.1895;
452.4000;0.9361;1.1755;
452.7000;0.9361;1.1755;
453.0000;0.9369;1.1685;
453.3000;0.9475;1.1872;
453.6000;0.9402;1.1685;
453.9000;0.9377;1.1778;
454.2000;0.9369;1.1732;
454.5000;0.9345;1.1708;
454.8000;0.9377;1.1802;
455.1000;0.9499;1.2082;
455.4000;0.9361;1.1778;
455.7000;0.9377;1.1708;
456.0000;0.9369;1.1708;
456.3000;0.9394;1.1802;
456.6000;0.9402;1.1685;
456.9000;0.9402;1.1662;
457.2000;0.9377;1.1639;
457.5000;0.9337;1.1545;
457.8000;0.9385;1.1615;
458.1000;0.9385;1.1639;
458.4000;0.9402;1.1545;
458.7000;0.9385;1.1499;
459.0000;0.9394;1.1475;
459.3000;0.9385;1.1522;
459.6000;0.9434;1.1639;
459.9000;0.9385;1.1522;
460.2000;0.9312;1.1405;
460.5000;0.9328;1.1405;
460.8000;0.9377;1.1639;
461.1000;0.9385;1.1732;
461.4000;0.9377;1.1732;
461.7000;0.9394;1.1778;
462.0000;0.9402;1.1802;
462.3000;0.9410;1.1802;
462.6000;0.9394;1.1755;
462.9000;0.9385;1.1755;
463.2000;0.9394;1.1755;
463.5000;0.9394;1.1662;
463.8000;0.9353;1.1592;
464.1000;0.9385;1.1685;
464.4000;0.9377;1.1708;
464.7000;0.9475;1.1965;
465.0000;0.9385;1.1755;
465.3000;0.9361;1.1662;
465.6000;0.9402;1.1778;
465.9000;0.9377;1.1662;
466.2000;0.9337;1.1475;
466.5000;0.9369;1.1545;
466.8000;0.9394;1.1615;
467.1000;0.9385;1.1662;
467.4000;0.9345;1.1708;
467.7000;0.9337;1.1708;
468.0000;0.9369;1.1755;
468.3000;0.9385;1.1708;
468.6000;0.9394;1.1662;
468.9000;0.9385;1.1615;
469.2000;0.9271;1.1452;
469.5000;0.9410;1.1732;
469.8000;0.9394;1.1662;
470.1000;0.9377;1.1639;
470.4000;0.9361;1.1639;
470.7000;0.9394;1.1708;
471.0000;0.9385;1.1685;
471.3000;0.9394;1.1708;
471.6000;0.9475;1.1895;
471.9000;0.9369;1.1662;
472.2000;0.9394;1.1708;
472.5000;0.9377;1.1732;
472.8000;0.9385;1.1778;
473.1000;0.9353;1.1732;
473.4000;0.9361;1.1755;
473.7000;0.9377;1.1848;
474.0000;0.9434;1.1848;
474.3000;0.9361;1.1569;
474.6000;0.9353;1.1615;
474.9000;0.9337;1.1639;
475.2000;0.9377;1.1639;
475.5000;0.9410;1.1708;
475.8000;0.9385;1.1662;
476.1000;0.9410;1.1708;
476.4000;0.9394;1.1708;
476.7000;0.9369;1.1662;
477.0000;0.9377;1.1639;
477.3000;0.9288;1.1382;
477.6000;0.9385;1.1545;
477.9000;0.9418;1.1592;
478.2000;0.9402;1.1592;
478.5000;0.9345;1.1475;
478.8000;0.9385;1.1499;
479.1000;0.9369;1.1499;
479.4000;0.9385;1.1615;
479.7000;0.9377;1.1569;
480.0000;0.9394;1.1639;
480.3000;0.9394;1.1662;
480.6000;0.9361;1.1499;
480.9000;0.9377;1.1569;
481.2000;0.9394;1.1592;
481.5000;0.9377;1.1569;
481.8000;0.9369;1.1592;
482.1000;0.9385;1.1569;
482.4000;0.9385;1.1499;
482.7000;0.9394;1.1475;
483.0000;0.9369;1.1475;
483.3000;0.9385;1.1522;
483.6000;0.9385;1.1429;
483.9000;0.9394;1.1615;
484.2000;0.9377;1.1592;
484.5000;0.9394;1.1569;
484.8000;0.9402;1.1499;
485.1000;0.9385;1.1592;
485.4000;0.9402;1.1732;
485.7000;0.9377;1.1732;
486.0000;0.9394;1.1848;
486.3000;0.9402;1.1988;
486.6000;0.9394;1.1895;
486.9000;0.9377;1.1895;
487.2000;0.9385;1.1872;
487.5000;0.9402;1.1778;
487.8000;0.9402;1.1802;
488.1000;0.9394;1.1825;
488.4000;0.9402;1.1895;
488.7000;0.9369;1.1802;
489.0000;0.9377;1.1895;
489.3000;0.9394;1.1942;
489.6000;0.9402;1.1848;
489.9000;0.9402;1.1802;
490.2000;0.9394;1.1825;
490.5000;0.9394;1.1918;
490.8000;0.9385;1.1895;
491.1000;0.9377;1.1872;
491.4000;0.9402;1.1988;
491.7000;0.9369;1.1965;
492.0000;0.9369;1.1872;
492.3000;0.9394;1.1965;
492.6000;0.9288;1.1708;
492.9000;0.9394;1.1942;
493.2000;0.9394;1.1988;
493.5000;0.9459;1.2058;
493.8000;0.9377;1.1895;
494.1000;0.9394;1.1942;
494.4000;0.9385;1.1848;
494.7000;0.9385;1.1732;
495.0000;0.9345;1.1569;
495.3000;0.9377;1.1685;
495.6000;0.9410;1.1802;
495.9000;0.9377;1.1755;
496.2000;0.9410;1.1732;
496.5000;0.9377;1.1685;
496.8000;0.9385;1.1755;
497.1000;0.9353;1.1732;
497.4000;0.9377;1.1872;
497.7000;0.9377;1.1895;
498.0000;0.9377;1.1895;
498.3000;0.9312;1.1708;
498.6000;0.9385;1.1895;
498.9000;0.9369;1.1895;
499.2000;0.9402;1.1825;
499.5000;0.9394;1.1778;
499.8000;0.9385;1.1732;
500.1000;0.9377;1.1778;
500.4000;0.9377;1.1755;
500.7000;0.9385;1.1802;
501.0000;0.9377;1.1802;
501.3000;0.9385;1.1662;
501.6000;0.9402;1.1685;
501.9000;0.9385;1.1592;
502.2000;0.9385;1.1522;
502.5000;0.9394;1.1592;
502.8000;0.9377;1.1639;
503.1000;0.9377;1.1592;
503.4000;0.9361;1.1569;
503.7000;0.9369;1.1569;
504.0000;0.9361;1.1545;
504.3000;0.9402;1.1615;
504.6000;0.9369;1.1615;
504.9000;0.9377;1.1685;
505.2000;0.9369;1.1732;
505.5000;0.9377;1.1708;
505.8000;0.9369;1.1662;
506.1000;0.9402;1.1755;
506.4000;0.9385;1.1732;
506.7000;0.9385;1.1755;
507.0000;0.9394;1.1755;
507.3000;0.9369;1.1685;
507.6000;0.9377;1.1708;
507.9000;0.9385;1.1755;
508.2000;0.9385;1.1732;
508.5000;0.9410;1.1755;
508.8000;0.9394;1.1825;
509.1000;0.9394;1.1778;
509.4000;0.9353;1.1662;
509.7000;0.9385;1.1708;
510.0000;0.9385;1.1685;
510.3000;0.9369;1.1802;
510.6000;0.9345;1.1685;
510.9000;0.9353;1.1755;
511.2000;0.9353;1.1825;
511.5000;0.9361;1.1778;
511.8000;0.9369;1.1802;
512.1000;0.9385;1.1755;
512.4000;0.9345;1.1685;
512.7000;0.9377;1.1755;
513.0000;0.9369;1.1755;
513.3000;0.9402;1.1848;
513.6000;0.9394;1.1802;
513.9000;0.9369;1.1825;
514.2000;0.9345;1.1802;
514.5000;0.9377;1.1918;
514.8000;0.9361;1.1872;
515.1000;0.9377;1.1965;
515.4000;0.9369;1.1988;
515.7000;0.9385;1.2012;
516.0000;0.9394;1.1988;
516.3000;0.9296;1.1825;
516.6000;0.9377;1.2152;
516.9000;0.9369;1.2035;
517.2000;0.9394;1.2082;
517.5000;0.9361;1.1918;
517.8000;0.9361;1.1848;
518.1000;0.9402;1.1918;
518.4000;0.9385;1.1895;
518.7000;0.9369;1.1918;
519.0000;0.9385;1.1918;
519.3000;0.9385;1.1872;
519.6000;0.9385;1.1872;
519.9000;0.9394;1.1825;
520.2000;0.9377;1.1825;
520.5000;0.9369;1.1848;
520.8000;0.9353;1.1825;
521.1000;0.9345;1.1825;
521.4000;0.9353;1.1872;
521.7000;0.9353;1.1872;
522.0000;0.9402;1.1965;
522.3000;0.9394;1.1918;
522.6000;0.9369;1.1918;
522.9000;0.9377;1.1848;
523.2000;0.9369;1.1918;
523.5000;0.9394;1.1965;
523.8000;0.9369;1.1918;
524.1000;0.9361;1.1988;
524.4000;0.9369;1.1988;
524.7000;0.9377;1.1895;
525.0000;0.9385;1.1895;
525.3000;0.9385;1.1872;
525.6000;0.9385;1.1918;
525.9000;0.9385;1.1942;
526.2000;0.9361;1.1848;
526.5000;0.9377;1.1965;
526.8000;0.9361;1.1918;
527.1000;0.9410;1.2082;
527.4000;0.9296;1.1825;
527.7000;0.9369;1.1918;
528.0000;0.9353;1.1825;
528.3000;0.9369;1.1802;
528.6000;0.9337;1.1685;
528.9000;0.9385;1.1732;
529.2000;0.9385;1.1825;
529.5000;0.9369;1.1778;
529.8000;0.9402;1.1778;
530.1000;0.9402;1.1685;
530.4000;0.9385;1.1592;
530.7000;0.9385;1.1615;
531.0000;0.9377;1.1592;
531.3000;0.9394;1.1615;
531.6000;0.9394;1.1639;
531.9000;0.9385;1.1662;
532.2000;0.9385;1.1755;
532.5000;0.9377;1.1732;
532.8000;0.9345;1.1662;
533.1000;0.9353;1.1732;
533.4000;0.9353;1.1802;
533.7000;0.9361;1.1755;
534.0000;0.9353;1.1732;
534.3000;0.9353;1.1685;
534.6000;0.9361;1.1708;
534.9000;0.9369;1.1802;
535.2000;0.9394;1.1732;
535.5000;0.9361;1.1662;
535.8000;0.9353;1.1639;
536.1000;0.9377;1.1639;
536.4000;0.9377;1.1615;
536.7000;0.9361;1.1685;
537.0000;0.9377;1.1662;
537.3000;0.9377;1.1708;
537.6000;0.9385;1.1802;
537.9000;0.9353;1.1708;
538.2000;0.9377;1.1732;
538.5000;0.9345;1.1708;
538.8000;0.9377;1.1778;
539.1000;0.9385;1.1895;
539.4000;0.9377;1.1825;
539.7000;0.9385;1.1848;
540.0000;0.9426;1.1918;
540.3000;0.9377;1.1708;
540.6000;0.9369;1.1662;
540.9000;0.9353;1.1569;
541.2000;0.9361;1.1662;
541.5000;0.9385;1.1708;
541.8000;0.9377;1.1685;
542.1000;0.9369;1.1708;
542.4000;0.9402;1.1778;
542.7000;0.9345;1.1662;
543.0000;0.9377;1.1708;
543.3000;0.9402;1.1755;
543.6000;0.9361;1.1662;
543.9000;0.9353;1.1639;
544.2000;0.9377;1.1685;
544.5000;0.9385;1.1708;
544.8000;0.9385;1.1778;
545.1000;0.9369;1.1848;
545.4000;0.9353;1.1778;
545.7000;0.9369;1.1778;
546.0000;0.9345;1.1802;
546.3000;0.9345;1.1872;
546.6000;0.9402;1.1965;
546.9000;0.9369;1.1942;
547.2000;0.9377;1.1918;
547.5000;0.9337;1.1965;
547.8000;0.9361;1.2012;
548.1000;0.9434;1.2082;
548.4000;0.9304;1.1708;
548.7000;0.9361;1.1778;
549.0000;0.9369;1.1755;
549.3000;0.9410;1.1778;
549.6000;0.9369;1.1615;
549.9000;0.9353;1.1592;
550.2000;0.9361;1.1639;
550.5000;0.9394;1.1708;
550.8000;0.9385;1.1662;
551.1000;0.9345;1.1615;
551.4000;0.9361;1.1592;
551.7000;0.9394;1.1639;
552.0000;0.9377;1.1685;
552.3000;0.9377;1.1685;
552.6000;0.9345;1.1569;
552.9000;0.9394;1.1592;
553.2000;0.9369;1.1569;
553.5000;0.9361;1.1569;
553.8000;0.9394;1.1708;
554.1000;0.9369;1.1708;
554.4000;0.9377;1.1639;
554.7000;0.9361;1.1615;
555.0000;0.9353;1.1662;
555.3000;0.9377;1.1732;
555.6000;0.9491;1.1988;
555.9000;0.9377;1.1895;
556.2000;0.9377;1.1918;
556.5000;0.9451;1.2128;
556.8000;0.9296;1.1685;
557.1000;0.9361;1.1802;
557.4000;0.9361;1.1778;
557.7000;0.9402;1.1825;
558.0000;0.9361;1.1685;
558.3000;0.9369;1.1732;
558.6000;0.9361;1.1755;
558.9000;0.9345;1.1662;
559.2000;0.9385;1.1778;
559.5000;0.9394;1.1732;
559.8000;0.9320;1.1569;
560.1000;0.9361;1.1615;
560.4000;0.9369;1.1569;
560.7000;0.9361;1.1569;
561.0000;0.9394;1.1639;
561.3000;0.9337;1.1475;
561.6000;0.9361;1.1545;
561.9000;0.9369;1.1569;
562.2000;0.9377;1.1592;
562.5000;0.9369;1.1639;
562.8000;0.9353;1.1615;
563.1000;0.9377;1.1639;
563.4000;0.9304;1.1592;
563.7000;0.9353;1.1732;
564.0000;0.9345;1.1708;
564.3000;0.9377;1.1732;
564.6000;0.9377;1.1662;
564.9000;0.9369;1.1639;
565.2000;0.9369;1.1755;
565.5000;0.9377;1.1708;
565.8000;0.9369;1.1732;
566.1000;0.9385;1.1778;
566.4000;0.9394;1.1732;
566.7000;0.9369;1.1732;
567.0000;0.9451;1.1942;
567.3000;0.9402;1.1918;
567.6000;0.9369;1.1825;
567.9000;0.9369;1.1825;
568.2000;0.9385;1.1872;
568.5000;0.9402;1.1918;
568.8000;0.9353;1.1825;
569.1000;0.9402;1.1918;
569.4000;0.9377;1.1778;
569.7000;0.9385;1.1802;
570.0000;0.9353;1.1755;
570.3000;0.9337;1.1685;
570.6000;0.9377;1.1685;
570.9000;0.9377;1.1615;
571.2000;0.9345;1.1545;
571.5000;0.9377;1.1569;
571.8000;0.9385;1.1522;
572.1000;0.9377;1.1499;
572.4000;0.9394;1.1615;
572.7000;0.9377;1.1615;
573.0000;0.9369;1.1569;
573.3000;0.9385;1.1615;
573.6000;0.9369;1.1615;
573.9000;0.9377;1.1685;
574.2000;0.9337;1.1639;
574.5000;0.9377;1.1732;
574.8000;0.9369;1.1755;
575.1000;0.9377;1.1825;
575.4000;0.9385;1.1755;
575.7000;0.9369;1.1639;
576.0000;0.9369;1.1639;
576.3000;0.9377;1.1685;
576.6000;0.9369;1.1685;
576.9000;0.9369;1.1662;
577.2000;0.9385;1.1615;
577.5000;0.9377;1.1685;
577.8000;0.9353;1.1615;
578.1000;0.9361;1.1708;
578.4000;0.9369;1.1708;
578.7000;0.9369;1.1778;
579.0000;0.9353;1.1732;
579.3000;0.9353;1.1662;
579.6000;0.9410;1.1732;
579.9000;0.9418;1.1708;
580.2000;0.9385;1.1685;
580.5000;0.9369;1.1732;
580.8000;0.9369;1.1802;
581.1000;0.9361;1.1825;
581.4000;0.9385;1.1895;
581.7000;0.9377;1.1895;
582.0000;0.9377;1.1872;
582.3000;0.9361;1.1802;
582.6000;0.9369;1.1778;
582.9000;0.9320;1.1662;
583.2000;0.9369;1.1755;
583.5000;0.9377;1.1732;
583.8000;0.9369;1.1685;
584.1000;0.9328;1.1615;
584.4000;0.9377;1.1778;
584.7000;0.9418;1.1825;
585.0000;0.9369;1.1662;
585.3000;0.9385;1.1708;
585.6000;0.9377;1.1662;
585.9000;0.9385;1.1662;
586.2000;0.9361;1.1708;
586.5000;0.9385;1.1755;
586.8000;0.9385;1.1872;
587.1000;0.9345;1.1778;
587.4000;0.9394;1.1942;
587.7000;0.9328;1.1802;
588.0000;0.9369;1.1802;
588.3000;0.9361;1.1778;
588.6000;0.9426;1.1895;
588.9000;0.9377;1.1755;
589.2000;0.9345;1.1708;
589.5000;0.9361;1.1662;
589.8000;0.9345;1.1615;
590.1000;0.9385;1.1708;
590.4000;0.9377;1.1662;
590.7000;0.9426;1.1708;
591.0000;0.9402;1.1732;
591.3000;0.9385;1.1685;
591.6000;0.9337;1.1615;
591.9000;0.9361;1.1639;
592.2000;0.9369;1.1592;
592.5000;0.9353;1.1569;
592.8000;0.9369;1.1662;
593.1000;0.9426;1.1778;
593.4000;0.9369;1.1685;
593.7000;0.9377;1.1662;
594.0000;0.9377;1.1639;
594.3000;0.9337;1.1615;
594.6000;0.9369;1.1615;
594.9000;0.9361;1.1569;
595.2000;0.9385;1.1545;
595.5000;0.9345;1.1499;
595.8000;0.9369;1.1522;
596.1000;0.9410;1.1569;
596.4000;0.9353;1.1452;
596.7000;0.9385;1.1499;
597.0000;0.9337;1.1499;
597.3000;0.9353;1.1615;
597.6000;0.9361;1.1685;
597.9000;0.9377;1.1662;
598.2000;0.9385;1.1732;
598.5000;0.9345;1.1685;
598.8000;0.9328;1.1615;
599.1000;0.9345;1.1662;
599.4000;0.9247;1.1569;
599.7000;0.9361;1.1802;
600.0000;0.9328;1.1708;
600.3000;0.9385;1.1592;
600.6000;0.9394;1.1452;
600.9000;0.9410;1.1405;
601.2000;0.9353;1.1289;
601.5000;0.9345;1.1195;
601.8000;0.9280;1.1055;
602.1000;0.9190;1.0892;
602.4000;0.9174;1.0915;
602.7000;0.9092;1.0776;
603.0000;0.9019;1.0636;
603.3000;0.8962;1.0472;
603.6000;0.8946;1.0402;
603.9000;0.8881;1.0286;
604.2000;0.8840;1.0286;
604.5000;0.8791;1.0192;
604.8000;0.8718;1.0099;
605.1000;0.8677;0.9959;
605.4000;0.8653;0.9913;
605.7000;0.8588;0.9889;
606.0000;0.8523;0.9819;
606.3000;0.8523;0.9889;
606.6000;0.8498;0.9936;
606.9000;0.8441;0.9889;
607.2000;0.8417;0.9773;
607.5000;0.8368;0.9679;
607.8000;0.8344;0.9703;
608.1000;0.8335;0.9796;
608.4000;0.8262;0.9679;
608.7000;0.8254;0.9703;
609.0000;0.8205;0.9703;
609.3000;0.8189;0.9656;
609.6000;0.8164;0.9679;
609.9000;0.8132;0.9703;
610.2000;0.8042;0.9563;
610.5000;0.7961;0.9376;
610.8000;0.8050;0.9586;
611.1000;0.8002;0.9469;
611.4000;0.8034;0.9586;
611.7000;0.7985;0.9563;
612.0000;0.7977;0.9633;
612.3000;0.7945;0.9633;
612.6000;0.7904;0.9633;
612.9000;0.7888;0.9726;
613.2000;0.7871;0.9749;
613.5000;0.7863;0.9749;
613.8000;0.7839;0.9679;
614.1000;0.7847;0.9656;
614.4000;0.7814;0.9609;
614.7000;0.7790;0.9539;
615.0000;0.7757;0.9446;
615.3000;0.7700;0.9376;
615.6000;0.7692;0.9423;
615.9000;0.7668;0.9423;
616.2000;0.7660;0.9493;
616.5000;0.7627;0.9423;
616.8000;0.7643;0.9516;
617.1000;0.7603;0.9516;
617.4000;0.7562;0.9516;
617.7000;0.7570;0.9563;
618.0000;0.7538;0.9609;
618.3000;0.7521;0.9679;
618.6000;0.7497;0.9563;
618.9000;0.7497;0.9609;
619.2000;0.7448;0.9539;
619.5000;0.7473;0.9539;
619.8000;0.7448;0.9516;
620.1000;0.7456;0.9469;
620.4000;0.7407;0.9469;
620.7000;0.7391;0.9516;
621.0000;0.7399;0.9539;
621.3000;0.7383;0.9563;
621.6000;0.7367;0.9516;
621.9000;0.7359;0.9633;
622.2000;0.7342;0.9656;
622.5000;0.7326;0.9633;
622.8000;0.7302;0.9609;
623.1000;0.7302;0.9609;
623.4000;0.7293;0.9633;
623.7000;0.7277;0.9609;
624.0000;0.7269;0.9586;
624.3000;0.7245;0.9586;
624.6000;0.7285;0.9726;
624.9000;0.7204;0.9586;
625.2000;0.7188;0.9586;
625.5000;0.7171;0.9656;
625.8000;0.7171;0.9749;
626.1000;0.7171;0.9656;
626.4000;0.7147;0.9656;
626.7000;0.7171;0.9656;
627.0000;0.7131;0.9586;
627.3000;0.7131;0.9633;
627.6000;0.7204;0.9866;
627.9000;0.7098;0.9586;
628.2000;0.7106;0.9633;
628.5000;0.7106;0.9609;
628.8000;0.7066;0.9563;
629.1000;0.7057;0.9469;
629.4000;0.7057;0.9469;
629.7000;0.7025;0.9516;
630.0000;0.7017;0.9446;
630.3000;0.7017;0.9446;
630.6000;0.7074;0.9563;
630.9000;0.7017;0.9493;
631.2000;0.6984;0.9329;
631.5000;0.6984;0.9306;
631.8000;0.6968;0.9260;
632.1000;0.6919;0.9120;
632.4000;0.7009;0.9353;
632.7000;0.6903;0.9120;
633.0000;0.6919;0.9236;
633.3000;0.6919;0.9329;
633.6000;0.6927;0.9353;
633.9000;0.6886;0.9283;
634.2000;0.6895;0.9306;
634.5000;0.6895;0.9329;
634.8000;0.6886;0.9376;
635.1000;0.6911;0.9423;
635.4000;0.6854;0.9283;
635.7000;0.6846;0.9213;
636.0000;0.6878;0.9283;
636.3000;0.6846;0.9213;
636.6000;0.6829;0.9213;
636.9000;0.6813;0.9190;
637.2000;0.6838;0.9260;
637.5000;0.6829;0.9260;
637.8000;0.6813;0.9236;
638.1000;0.6821;0.9260;
638.4000;0.6781;0.9190;
638.7000;0.6781;0.9166;
639.0000;0.6764;0.9143;
639.3000;0.6772;0.9190;
639.6000;0.6748;0.9143;
639.9000;0.6764;0.9166;
640.2000;0.6756;0.9166;
640.5000;0.6691;0.8980;
640.8000;0.6650;0.8816;
641.1000;0.6724;0.8980;
641.4000;0.6707;0.9026;
641.7000;0.6691;0.9120;
642.0000;0.6699;0.9166;
642.3000;0.6699;0.9166;
642.6000;0.6716;0.9143;
642.9000;0.6683;0.9050;
643.2000;0.6772;0.9353;
643.5000;0.6675;0.9143;
643.8000;0.6675;0.9120;
644.1000;0.6667;0.9073;
644.4000;0.6650;0.9050;
644.7000;0.6659;0.9026;
645.0000;0.6642;0.9120;
645.3000;0.6634;0.9213;
645.6000;0.6642;0.9260;
645.9000;0.6610;0.9236;
646.2000;0.6610;0.9236;
646.5000;0.6602;0.9260;
646.8000;0.6593;0.9306;
647.1000;0.6610;0.9306;
647.4000;0.6602;0.9353;
647.7000;0.6593;0.9306;
648.0000;0.6536;0.9190;
648.3000;0.6577;0.9353;
648.6000;0.6553;0.9306;
648.9000;0.6618;0.9493;
649.2000;0.6577;0.9399;
649.5000;0.6569;0.9329;
649.8000;0.6553;0.9236;
650.1000;0.6561;0.9260;
650.4000;0.6569;0.9190;
650.7000;0.6545;0.9190;
651.0000;0.6553;0.9260;
651.3000;0.6536;0.9236;
651.6000;0.6496;0.9120;
651.9000;0.6536;0.9236;
652.2000;0.6545;0.9329;
652.5000;0.6512;0.9283;
652.8000;0.6471;0.9166;
653.1000;0.6528;0.9329;
653.4000;0.6496;0.9190;
653.7000;0.6496;0.9143;
654.0000;0.6488;0.9096;
654.3000;0.6455;0.9073;
654.6000;0.6463;0.9120;
654.9000;0.6471;0.9073;
655.2000;0.6479;0.9120;
655.5000;0.6479;0.9096;
655.8000;0.6479;0.9026;
656.1000;0.6455;0.9003;
656.4000;0.6488;0.9073;
656.7000;0.6488;0.9120;
657.0000;0.6431;0.9120;
657.3000;0.6447;0.9166;
657.6000;0.6414;0.9026;
657.9000;0.6431;0.9073;
658.2000;0.6431;0.9143;
658.5000;0.6439;0.9120;
658.8000;0.6439;0.9120;
659.1000;0.6357;0.8863;
659.4000;0.6439;0.9120;
659.7000;0.6406;0.9120;
660.0000;0.6422;0.9166;
660.3000;0.6439;0.9236;
660.6000;0.6414;0.9213;
660.9000;0.6431;0.9306;
661.2000;0.6382;0.9213;
661.5000;0.6414;0.9353;
661.8000;0.6398;0.9260;
662.1000;0.6365;0.9190;
662.4000;0.6382;0.9120;
662.7000;0.6390;0.9096;
663.0000;0.6390;0.9120;
663.3000;0.6374;0.9143;
663.6000;0.6382;0.9096;
663.9000;0.6365;0.9096;
664.2000;0.6325;0.9096;
664.5000;0.6325;0.9096;
664.8000;0.6325;0.9003;
665.1000;0.6252;0.8956;
665.4000;0.6292;0.9026;
665.7000;0.6341;0.9050;
666.0000;0.6382;0.9166;
666.3000;0.6431;0.9283;
666.6000;0.6317;0.9120;
666.9000;0.6382;0.9236;
667.2000;0.6374;0.9236;
667.5000;0.6325;0.9143;
667.8000;0.6292;0.9073;
668.1000;0.6276;0.9003;
668.4000;0.6325;0.9166;
668.7000;0.6325;0.9190;
669.0000;0.6284;0.9096;
669.3000;0.6300;0.9166;
669.6000;0.6292;0.9096;
669.9000;0.6292;0.9166;
670.2000;0.6292;0.9190;
670.5000;0.6325;0.9213;
670.8000;0.6292;0.9236;
671.1000;0.6349;0.9260;
671.4000;0.6284;0.9143;
671.7000;0.6309;0.9236;
672.0000;0.6276;0.9329;
672.3000;0.6284;0.9353;
672.6000;0.6268;0.9236;
672.9000;0.6292;0.9376;
673.2000;0.6268;0.9236;
673.5000;0.6276;0.9236;
673.8000;0.6243;0.9166;
674.1000;0.6252;0.9283;
674.4000;0.6325;0.9423;
674.7000;0.6260;0.9283;
675.0000;0.6243;0.9283;
675.3000;0.6260;0.9423;
675.6000;0.6178;0.9120;
675.9000;0.6235;0.9213;
676.2000;0.6235;0.9236;
676.5000;0.6252;0.9190;
676.8000;0.6203;0.9026;
677.1000;0.6252;0.9236;
677.4000;0.6219;0.9213;
677.7000;0.6227;0.9190;
678.0000;0.6227;0.9283;
678.3000;0.6203;0.9329;
678.6000;0.6235;0.9353;
678.9000;0.6227;0.9329;
679.2000;0.6235;0.9353;
679.5000;0.6195;0.9260;
679.8000;0.6203;0.9236;
680.1000;0.6219;0.9260;
680.4000;0.6186;0.9236;
680.7000;0.6195;0.9260;
681.0000;0.6211;0.9283;
681.3000;0.6227;0.9260;
681.6000;0.6203;0.9236;
681.9000;0.6162;0.9190;
682.2000;0.6211;0.9260;
682.5000;0.6186;0.9120;
682.8000;0.6203;0.9166;
683.1000;0.6252;0.9283;
683.4000;0.6203;0.9236;
683.7000;0.6195;0.9213;
684.0000;0.6162;0.9213;
684.3000;0.6203;0.9353;
684.6000;0.6203;0.9329;
684.9000;0.6211;0.9446;
685.2000;0.6162;0.9166;
685.5000;0.6178;0.9236;
685.8000;0.6162;0.9213;
686.1000;0.6170;0.9260;
686.4000;0.6154;0.9260;
686.7000;0.6162;0.9260;
687.0000;0.6162;0.9329;
687.3000;0.6146;0.9329;
687.6000;0.6170;0.9399;
687.9000;0.6162;0.9353;
688.2000;0.6121;0.9166;
688.5000;0.6162;0.9236;
688.8000;0.6129;0.9166;
689.1000;0.6064;0.9120;
689.4000;0.6121;0.9329;
689.7000;0.6129;0.9329;
690.0000;0.6154;0.9353;
690.3000;0.6138;0.9283;
690.6000;0.6138;0.9399;
690.9000;0.6121;0.9353;
691.2000;0.6146;0.9353;
691.5000;0.6121;0.9283;
691.8000;0.6138;0.9260;
692.1000;0.6121;0.9329;
692.4000;0.6138;0.9306;
692.7000;0.6129;0.9190;
693.0000;0.6113;0.9236;
693.3000;0.6129;0.9283;
693.6000;0.6113;0.9236;
693.9000;0.6138;0.9306;
694.2000;0.6138;0.9260;
694.5000;0.6113;0.9143;
694.8000;0.6113;0.9260;
695.1000;0.6105;0.9283;
695.4000;0.6113;0.9423;
695.7000;0.6121;0.9493;
696.0000;0.6105;0.9446;
696.3000;0.6105;0.9353;
696.6000;0.6129;0.9306;
696.9000;0.6129;0.9353;
697.2000;0.6089;0.9353;
697.5000;0.6072;0.9260;
697.8000;0.6105;0.9283;
698.1000;0.6097;0.9260;
698.4000;0.6081;0.9283;
698.7000;0.6081;0.9260;
699.0000;0.6089;0.9260;
699.3000;0.6105;0.9329;
699.6000;0.6048;0.9143;
699.9000;0.6064;0.9166;
700.2000;0.6081;0.9213;
700.5000;0.6056;0.9213;
700.8000;0.6072;0.9353;
701.1000;0.6064;0.9329;
701.4000;0.6056;0.9260;
701.7000;0.6097;0.9283;
702.0000;0.6056;0.9143;
702.3000;0.6081;0.9283;
702.6000;0.6121;0.9353;
702.9000;0.6089;0.9306;
703.2000;0.6064;0.9213;
703.5000;0.6072;0.9213;
703.8000;0.6081;0.9376;
704.1000;0.6064;0.9329;
704.4000;0.6015;0.9190;
704.7000;0.6007;0.9096;
705.0000;0.6064;0.9236;
705.3000;0.6064;0.9213;
705.6000;0.6064;0.9143;
705.9000;0.6048;0.9213;
706.2000;0.6081;0.9353;
706.5000;0.6056;0.9469;
706.8000;0.6081;0.9446;
707.1000;0.6072;0.9539;
707.4000;0.6064;0.9609;
707.7000;0.6040;0.9516;
708.0000;0.6056;0.9446;
708.3000;0.6040;0.9329;
708.6000;0.6072;0.9399;
708.9000;0.6040;0.9283;
709.2000;0.6040;0.9399;
709.5000;0.6072;0.9446;
709.8000;0.6007;0.9306;
710.1000;0.6024;0.9329;
710.4000;0.6032;0.9213;
710.7000;0.6032;0.9213;
711.0000;0.6048;0.9353;
711.3000;0.6024;0.9306;
711.6000;0.6040;0.9236;
711.9000;0.6040;0.9236;
712.2000;0.6015;0.9236;
712.5000;0.5926;0.9073;
712.8000;0.6024;0.9376;
713.1000;0.6032;0.9353;
713.4000;0.6105;0.9516;
713.7000;0.6024;0.9376;
714.0000;0.6015;0.9283;
714.3000;0.6040;0.9236;
714.6000;0.6007;0.9283;
714.9000;0.6015;0.9306;
715.2000;0.6015;0.9236;
715.5000;0.5950;0.9050;
715.8000;0.5999;0.9190;
716.1000;0.5999;0.9213;
716.4000;0.6015;0.9306;
716.7000;0.6024;0.9376;
717.0000;0.6024;0.9423;
717.3000;0.6024;0.9423;
717.6000;0.6024;0.9353;
717.9000;0.6024;0.9283;
718.2000;0.6015;0.9399;
718.5000;0.6015;0.9423;
718.8000;0.5991;0.9376;
719.1000;0.6089;0.9586;
719.4000;0.6015;0.9423;
719.7000;0.6007;0.9446;
720.0000;0.6032;0.9446;
720.3000;0.5999;0.9306;
720.6000;0.6040;0.9306;
720.9000;0.5999;0.9260;
721.2000;0.5999;0.9260;
721.5000;0.5942;0.9026;
721.8000;0.6007;0.9143;
722.1000;0.6007;0.9236;
722.4000;0.5999;0.9306;
722.7000;0.5999;0.9353;
723.0000;0.5983;0.9329;
723.3000;0.5983;0.9260;
723.6000;0.5983;0.9306;
723.9000;0.5999;0.9283;
724.2000;0.5975;0.9213;
724.5000;0.5967;0.9260;
724.8000;0.5999;0.9306;
725.1000;0.5975;0.9213;
725.4000;0.5983;0.9096;
725.7000;0.6089;0.9353;
726.0000;0.6032;0.9190;
726.3000;0.5983;0.9120;
726.6000;0.5983;0.9166;
726.9000;0.5975;0.9260;
727.2000;0.5975;0.9353;
727.5000;0.5991;0.9353;
727.8000;0.5983;0.9306;
728.1000;0.5877;0.9026;
728.4000;0.6007;0.9329;
728.7000;0.5975;0.9283;
729.0000;0.5991;0.9353;
729.3000;0.5983;0.9399;
729.6000;0.5983;0.9376;
729.9000;0.5983;0.9399;
730.2000;0.5983;0.9469;
730.5000;0.5975;0.9493;
730.8000;0.5983;0.9469;
731.1000;0.5975;0.9399;
731.4000;0.5902;0.9213;
731.7000;0.5975;0.9376;
732.0000;0.5967;0.9283;
732.3000;0.5967;0.9399;
732.6000;0.5983;0.9423;
732.9000;0.5950;0.9423;
733.2000;0.5950;0.9446;
733.5000;0.6015;0.9633;
733.8000;0.5958;0.9539;
734.1000;0.5967;0.9493;
734.4000;0.5950;0.9516;
734.7000;0.5958;0.9469;
735.0000;0.5975;0.9446;
735.3000;0.5934;0.9399;
735.6000;0.5958;0.9399;
735.9000;0.5975;0.9446;
736.2000;0.5950;0.9353;
736.5000;0.5958;0.9423;
736.8000;0.5958;0.9399;
737.1000;0.5975;0.9516;
737.4000;0.5950;0.9446;
737.7000;0.5950;0.9469;
738.0000;0.5958;0.9423;
738.3000;0.5950;0.9306;
738.6000;0.5958;0.9353;
738.9000;0.5958;0.9399;
739.2000;0.5950;0.9493;
739.5000;0.5942;0.9493;
739.8000;0.5950;0.9516;
740.1000;0.5967;0.9516;
740.4000;0.5893;0.9353;
740.7000;0.5934;0.9446;
741.0000;0.5942;0.9353;
741.3000;0.5950;0.9376;
741.6000;0.6056;0.9656;
741.9000;0.5950;0.9493;
742.2000;0.5958;0.9423;
742.5000;0.5991;0.9586;
742.8000;0.5958;0.9469;
743.1000;0.5942;0.9446;
743.4000;0.5942;0.9399;
743.7000;0.5967;0.9446;
744.0000;0.6048;0.9609;
744.3000;0.5950;0.9236;
744.6000;0.5983;0.9399;
744.9000;0.5950;0.9329;
745.2000;0.5958;0.9329;
745.5000;0.5910;0.9236;
745.8000;0.5926;0.9353;
746.1000;0.5950;0.9493;
746.4000;0.5926;0.9563;
746.7000;0.5926;0.9586;
747.0000;0.5926;0.9539;
747.3000;0.5934;0.9446;
747.6000;0.5877;0.9329;
747.9000;0.5926;0.9306;
748.2000;0.5934;0.9283;
748.5000;0.5950;0.9399;
748.8000;0.5934;0.9493;
749.1000;0.5942;0.9563;
749.4000;0.5942;0.9516;
749.7000;0.5975;0.9539;
750.0000;0.5926;0.9539;
750.3000;0.5934;0.9539;
750.6000;0.5918;0.9493;
750.9000;0.5926;0.9469;
751.2000;0.5934;0.9539;
751.5000;0.5910;0.9609;
751.8000;0.5918;0.9633;
752.1000;0.5918;0.9563;
752.4000;0.5942;0.9609;
752.7000;0.5918;0.9493;
753.0000;0.5934;0.9516;
753.3000;0.5918;0.9469;
753.6000;0.5918;0.9516;
753.9000;0.5926;0.9493;
754.2000;0.5918;0.9446;
754.5000;0.5893;0.9399;
754.8000;0.5934;0.9469;
755.1000;0.5934;0.9469;
755.4000;0.5934;0.9493;
755.7000;0.5902;0.9376;
756.0000;0.5934;0.9423;
756.3000;0.5926;0.9376;
756.6000;0.5918;0.9353;
756.9000;0.5918;0.9446;
757.2000;0.5910;0.9493;
757.5000;0.5910;0.9633;
757.8000;0.5910;0.9726;
758.1000;0.5893;0.9656;
758.4000;0.5950;0.9679;
758.7000;0.5902;0.9493;
759.0000;0.5893;0.9516;
759.3000;0.5910;0.9493;
759.6000;0.5893;0.9493;
759.9000;0.5893;0.9586;
760.2000;0.5910;0.9469;
760.5000;0.5926;0.9446;
760.8000;0.5926;0.9399;
761.1000;0.5885;0.9423;
761.4000;0.5902;0.9423;
761.7000;0.5926;0.9516;
762.0000;0.5885;0.9469;
762.3000;0.5902;0.9586;
762.6000;0.5926;0.9586;
762.9000;0.5885;0.9423;
763.2000;0.5910;0.9469;
763.5000;0.5885;0.9423;
763.8000;0.5902;0.9493;
764.1000;0.5902;0.9563;
764.4000;0.5902;0.9586;
764.7000;0.5885;0.9539;
765.0000;0.5910;0.9656;
765.3000;0.5926;0.9563;
765.6000;0.5934;0.9493;
765.9000;0.5828;0.9190;
766.2000;0.5885;0.9329;
766.5000;0.5902;0.9446;
766.8000;0.5893;0.9423;
767.1000;0.5885;0.9423;
767.4000;0.5877;0.9469;
767.7000;0.5877;0.9493;
768.0000;0.5885;0.9516;
768.3000;0.5877;0.9446;
768.6000;0.5877;0.9376;
768.9000;0.5902;0.9423;
769.2000;0.5902;0.9423;
769.5000;0.5893;0.9446;
769.8000;0.5918;0.9399;
770.1000;0.5902;0.9329;
770.4000;0.5885;0.9306;
770.7000;0.5910;0.9283;
771.0000;0.5869;0.9306;
771.3000;0.5877;0.9329;
771.6000;0.5942;0.9539;
771.9000;0.5885;0.9376;
772.2000;0.5910;0.9399;
772.5000;0.5902;0.9399;
772.8000;0.5861;0.9353;
773.1000;0.5869;0.9353;
773.4000;0.5861;0.9306;
773.7000;0.5869;0.9376;
774.0000;0.5885;0.9306;
774.3000;0.5877;0.9236;
774.6000;0.5910;0.9166;
774.9000;0.5902;0.9283;
775.2000;0.5877;0.9423;
775.5000;0.5885;0.9399;
775.8000;0.5885;0.9446;
776.1000;0.5902;0.9493;
776.4000;0.5893;0.9493;
776.7000;0.5885;0.9469;
777.0000;0.5885;0.9609;
777.3000;0.5869;0.9586;
777.6000;0.5893;0.9703;
777.9000;0.5885;0.9633;
778.2000;0.5877;0.9493;
778.5000;0.5926;0.9563;
778.8000;0.5877;0.9469;
779.1000;0.5934;0.9609;
779.4000;0.5926;0.9563;
779.7000;0.5869;0.9469;
780.0000;0.5877;0.9493;
780.3000;0.5877;0.9493;
780.6000;0.5869;0.9376;
780.9000;0.5804;0.9190;
781.2000;0.5885;0.9399;
781.5000;0.5918;0.9586;
781.8000;0.5869;0.9633;
782.1000;0.5853;0.9633;
782.4000;0.5853;0.9609;
782.7000;0.5877;0.9609;
783.0000;0.5869;0.9563;
783.3000;0.5918;0.9609;
783.6000;0.5885;0.9516;
783.9000;0.5861;0.9493;
784.2000;0.5869;0.9516;
784.5000;0.5893;0.9539;
784.8000;0.5853;0.9563;
785.1000;0.5869;0.9679;
785.4000;0.5853;0.9586;
785.7000;0.5877;0.9656;
786.0000;0.5877;0.9656;
786.3000;0.5885;0.9563;
786.6000;0.5869;0.9493;
786.9000;0.5942;0.9563;
787.2000;0.5861;0.9376;
787.5000;0.5885;0.9283;
787.8000;0.5853;0.9329;
788.1000;0.5861;0.9399;
788.4000;0.5918;0.9539;
788.7000;0.5885;0.9469;
789.0000;0.5845;0.9423;
789.3000;0.5853;0.9563;
789.6000;0.5877;0.9609;
789.9000;0.5853;0.9586;
790.2000;0.5861;0.9563;
790.5000;0.5853;0.9469;
790.8000;0.5934;0.9563;
791.1000;0.5910;0.9516;
791.4000;0.5869;0.9516;
791.7000;0.5869;0.9563;
792.0000;0.5845;0.9516;
792.3000;0.5885;0.9516;
792.6000;0.5861;0.9516;
792.9000;0.5828;0.9376;
793.2000;0.5845;0.9329;
793.5000;0.5845;0.9306;
793.8000;0.5853;0.9283;
794.1000;0.5869;0.9329;
794.4000;0.5853;0.9236;
794.7000;0.5861;0.9283;
795.0000;0.5861;0.9306;
795.3000;0.5828;0.9283;
795.6000;0.5853;0.9306;
795.9000;0.5869;0.9329;
796.2000;0.5975;0.9516;
796.5000;0.5934;0.9423;
796.8000;0.5853;0.9283;
797.1000;0.5828;0.9306;
797.4000;0.5828;0.9306;
797.7000;0.5910;0.9493;
798.0000;0.5861;0.9306;
798.3000;0.5747;0.9026;
798.6000;0.5853;0.9353;
798.9000;0.5853;0.9236;
799.2000;0.5804;0.9120;
799.5000;0.5885;0.9283;
799.8000;0.5853;0.9213;
800.1000;0.5861;0.9353;
800.4000;0.5885;0.9469;
800.7000;0.5869;0.9493;
801.0000;0.5869;0.9376;
801.3000;0.5877;0.9493;
801.6000;0.5877;0.9446;
801.9000;0.5861;0.9446;
802.2000;0.5853;0.9376;
802.5000;0.5861;0.9399;
802.8000;0.5853;0.9329;
803.1000;0.5918;0.9516;
803.4000;0.5845;0.9260;
803.7000;0.5853;0.9213;
804.0000;0.5861;0.9329;
804.3000;0.5918;0.9376;
804.6000;0.5877;0.9260;
804.9000;0.5804;0.9073;
805.2000;0.5845;0.9190;
805.5000;0.5804;0.9166;
805.8000;0.5845;0.9190;
806.1000;0.5853;0.9283;
806.4000;0.5861;0.9213;
806.7000;0.5861;0.9260;
807.0000;0.5853;0.9306;
807.3000;0.5853;0.9376;
807.6000;0.5853;0.9469;
807.9000;0.5853;0.9516;
808.2000;0.5853;0.9516;
808.5000;0.5869;0.9586;
808.8000;0.5845;0.9539;
809.1000;0.5853;0.9563;
809.4000;0.5836;0.9516;
809.7000;0.5845;0.9469;
810.0000;0.5845;0.9493;
810.3000;0.5845;0.9446;
810.6000;0.5845;0.9446;
810.9000;0.5877;0.9493;
811.2000;0.5845;0.9446;
811.5000;0.5853;0.9399;
811.8000;0.5836;0.9399;
812.1000;0.5958;0.9749;
812.4000;0.5885;0.9493;
812.7000;0.5845;0.9423;
813.0000;0.5853;0.9446;
813.3000;0.5877;0.9539;
813.6000;0.5845;0.9493;
813.9000;0.5828;0.9376;
814.2000;0.5771;0.9190;
814.5000;0.5828;0.9329;
814.8000;0.5845;0.9376;
815.1000;0.5804;0.9306;
815.4000;0.5861;0.9423;
815.7000;0.5869;0.9469;
816.0000;0.5836;0.9469;
816.3000;0.5861;0.9446;
816.6000;0.5853;0.9446;
816.9000;0.5845;0.9493;
817.2000;0.5828;0.9516;
817.5000;0.5812;0.9469;
817.8000;0.5845;0.9539;
818.1000;0.5861;0.9563;
818.4000;0.5828;0.9423;
818.7000;0.5812;0.9423;
819.0000;0.5804;0.9493;
819.3000;0.5836;0.9539;
819.6000;0.5836;0.9516;
819.9000;0.5828;0.9586;
820.2000;0.5910;0.9726;
820.5000;0.5812;0.9493;
820.8000;0.5845;0.9516;
821.1000;0.5828;0.9469;
821.4000;0.5877;0.9563;
821.7000;0.5845;0.9423;
822.0000;0.5820;0.9399;
822.3000;0.5893;0.9609;
822.6000;0.5820;0.9423;
822.9000;0.5820;0.9469;
823.2000;0.5942;0.9796;
823.5000;0.5820;0.9539;
823.8000;0.5828;0.9586;
824.1000;0.5812;0.9609;
824.4000;0.5836;0.9633;
824.7000;0.5836;0.9633;
825.0000;0.5861;0.9726;
825.3000;0.5820;0.9703;
825.6000;0.5836;0.9656;
825.9000;0.5836;0.9726;
826.2000;0.5853;0.9703;
826.5000;0.5845;0.9633;
826.8000;0.5845;0.9539;
827.1000;0.5845;0.9586;
827.4000;0.5836;0.9539;
827.7000;0.5820;0.9446;
828.0000;0.5836;0.9493;
828.3000;0.5836;0.9423;
828.6000;0.5836;0.9423;
828.9000;0.5845;0.9283;
829.2000;0.5828;0.9306;
829.5000;0.5779;0.9213;
829.8000;0.5853;0.9423;
830.1000;0.5836;0.9306;
830.4000;0.5836;0.9306;
830.7000;0.5820;0.9260;
831.0000;0.5845;0.9306;
831.3000;0.5788;0.9166;
831.6000;0.5828;0.9329;
831.9000;0.5845;0.9446;
832.2000;0.5845;0.9516;
832.5000;0.5828;0.9469;
832.8000;0.5828;0.9516;
833.1000;0.5820;0.9446;
833.4000;0.5828;0.9353;
833.7000;0.5836;0.9423;
834.0000;0.5836;0.9446;
834.3000;0.5861;0.9469;
834.6000;0.5828;0.9329;
834.9000;0.5836;0.9376;
835.2000;0.5804;0.9376;
835.5000;0.5820;0.9376;
835.8000;0.5820;0.9446;
836.1000;0.5820;0.9376;
836.4000;0.5796;0.9329;
836.7000;0.5812;0.9306;
837.0000;0.5828;0.9376;
837.3000;0.5845;0.9423;
837.6000;0.5755;0.9190;
837.9000;0.5796;0.9306;
838.2000;0.5958;0.9679;
838.5000;0.5804;0.9236;
838.8000;0.5853;0.9329;
839.1000;0.5910;0.9516;
839.4000;0.5836;0.9376;
839.7000;0.5836;0.9329;
840.0000;0.5836;0.9283;
840.3000;0.5845;0.9306;
840.6000;0.5836;0.9166;
840.9000;0.5845;0.9120;
841.2000;0.5820;0.9190;
841.5000;0.5828;0.9236;
841.8000;0.5820;0.9306;
842.1000;0.5755;0.9096;
842.4000;0.5820;0.9329;
842.7000;0.5820;0.9376;
843.0000;0.5836;0.9376;
843.3000;0.5788;0.9306;
843.6000;0.5845;0.9446;
843.9000;0.5828;0.9423;
844.2000;0.5820;0.9376;
844.5000;0.5820;0.9306;
844.8000;0.5828;0.9329;
845.1000;0.5845;0.9446;
845.4000;0.5828;0.9399;
845.7000;0.5828;0.9469;
846.0000;0.5845;0.9516;
846.3000;0.5853;0.9609;
846.6000;0.5828;0.9493;
846.9000;0.5820;0.9469;
847.2000;0.5828;0.9493;
847.5000;0.5836;0.9469;
847.8000;0.5828;0.9586;
848.1000;0.5820;0.9516;
848.4000;0.5812;0.9376;
848.7000;0.5828;0.9446;
849.0000;0.5828;0.9563;
849.3000;0.5820;0.9586;
849.6000;0.5812;0.9586;
849.9000;0.5812;0.9609;
850.2000;0.5820;0.9679;
850.5000;0.5836;0.9679;
850.8000;0.5845;0.9633;
851.1000;0.5828;0.9609;
851.4000;0.5836;0.9516;
851.7000;0.5820;0.9353;
852.0000;0.5820;0.9306;
852.3000;0.5828;0.9166;
852.6000;0.5804;0.9143;
852.9000;0.5845;0.9329;
853.2000;0.5828;0.9306;
853.5000;0.5771;0.9166;
853.8000;0.5845;0.9260;
854.1000;0.5812;0.9260;
854.4000;0.5828;0.9283;
854.7000;0.5828;0.9353;
855.0000;0.5828;0.9260;
855.3000;0.5877;0.9236;
855.6000;0.5804;0.9166;
855.9000;0.5836;0.9423;
856.2000;0.5820;0.9329;
856.5000;0.5796;0.9329;
856.8000;0.5812;0.9353;
857.1000;0.5796;0.9399;
857.4000;0.5788;0.9399;
857.7000;0.5804;0.9423;
858.0000;0.5804;0.9469;
858.3000;0.5836;0.9563;
858.6000;0.5812;0.9469;
858.9000;0.5812;0.9493;
859.2000;0.5796;0.9376;
859.5000;0.5836;0.9609;
859.8000;0.5836;0.9586;
860.1000;0.5788;0.9446;
860.4000;0.5796;0.9493;
860.7000;0.5820;0.9399;
861.0000;0.5820;0.9353;
861.3000;0.5779;0.9306;
861.6000;0.5812;0.9469;
861.9000;0.5804;0.9399;
862.2000;0.5820;0.9399;
862.5000;0.5893;0.9563;
862.8000;0.5812;0.9399;
863.1000;0.5828;0.9446;
863.4000;0.5739;0.9236;
863.7000;0.5804;0.9493;
864.0000;0.5861;0.9586;
864.3000;0.5828;0.9493;
864.6000;0.5828;0.9493;
864.9000;0.5706;0.9283;
865.2000;0.5828;0.9539;
865.5000;0.5820;0.9563;
865.8000;0.5828;0.9586;
866.1000;0.5828;0.9516;
866.4000;0.5820;0.9469;
866.7000;0.5804;0.9516;
867.0000;0.5820;0.9446;
867.3000;0.5820;0.9376;
867.6000;0.5853;0.9493;
867.9000;0.5804;0.9329;
868.2000;0.5828;0.9376;
868.5000;0.5836;0.9283;
868.8000;0.5836;0.9353;
869.1000;0.5820;0.9353;
869.4000;0.5812;0.9353;
869.7000;0.5828;0.9423;
870.0000;0.5828;0.9539;
870.3000;0.5820;0.9399;
870.6000;0.5836;0.9376;
870.9000;0.5812;0.9446;
871.2000;0.5853;0.9423;
871.5000;0.5812;0.9353;
871.8000;0.5812;0.9376;
872.1000;0.5812;0.9376;
872.4000;0.5804;0.9423;
872.7000;0.5796;0.9376;
873.0000;0.5804;0.9353;
873.3000;0.5804;0.9376;
873.6000;0.5820;0.9283;
873.9000;0.5804;0.9260;
874.2000;0.5804;0.9306;
874.5000;0.5869;0.9469;
874.8000;0.5812;0.9329;
875.1000;0.5820;0.9399;
875.4000;0.5820;0.9469;
875.7000;0.5812;0.9353;
876.0000;0.5812;0.9306;
876.3000;0.5788;0.9329;
876.6000;0.5788;0.9446;
876.9000;0.5828;0.9539;
877.2000;0.5812;0.9469;
877.5000;0.5853;0.9516;
877.8000;0.5788;0.9376;
878.1000;0.5812;0.9469;
878.4000;0.5820;0.9469;
878.7000;0.5804;0.9423;
879.0000;0.5804;0.9399;
879.3000;0.5804;0.9423;
879.6000;0.5812;0.9423;
879.9000;0.5804;0.9399;
880.2000;0.5820;0.9469;
880.5000;0.5812;0.9446;
880.8000;0.5820;0.9493;
881.1000;0.5788;0.9399;
881.4000;0.5804;0.9423;
881.7000;0.5788;0.9399;
882.0000;0.5812;0.9469;
882.3000;0.5804;0.9446;
882.6000;0.5796;0.9376;
882.9000;0.5812;0.9353;
883.2000;0.5820;0.9399;
883.5000;0.5755;0.9236;
883.8000;0.5804;0.9353;
884.1000;0.5812;0.9469;
884.4000;0.5796;0.9586;
884.7000;0.5812;0.9609;
885.0000;0.5796;0.9516;
885.3000;0.5861;0.9703;
885.6000;0.5804;0.9563;
885.9000;0.5804;0.9563;
886.2000;0.5804;0.9539;
886.5000;0.5812;0.9563;
886.8000;0.5804;0.9469;
887.1000;0.5804;0.9516;
887.4000;0.5804;0.9539;
887.7000;0.5820;0.9609;
888.0000;0.5804;0.9539;
888.3000;0.5804;0.9469;
888.6000;0.5788;0.9399;
888.9000;0.5804;0.9516;
889.2000;0.5804;0.9516;
889.5000;0.5812;0.9563;
889.8000;0.5812;0.9563;
890.1000;0.5812;0.9516;
890.4000;0.5812;0.9563;
890.7000;0.5804;0.9493;
891.0000;0.5796;0.9399;
891.3000;0.5812;0.9423;
891.6000;0.5853;0.9376;
891.9000;0.5796;0.9283;
892.2000;0.5804;0.9213;
892.5000;0.5836;0.9236;
892.8000;0.5820;0.9190;
893.1000;0.5845;0.9329;
893.4000;0.5804;0.9283;
893.7000;0.5747;0.9120;
894.0000;0.5796;0.9260;
894.3000;0.5812;0.9260;
894.6000;0.5820;0.9213;
894.9000;0.5820;0.9166;
895.2000;0.5722;0.8956;
895.5000;0.5804;0.9166;
895.8000;0.5804;0.9260;
896.1000;0.5812;0.9329;
896.4000;0.5820;0.9329;
896.7000;0.5796;0.9260;
897.0000;0.5804;0.9143;
897.3000;0.5820;0.9096;
897.6000;0.5828;0.9143;
897.9000;0.5812;0.9073;
898.2000;0.5820;0.9026;
898.5000;0.5804;0.9073;
898.8000;0.5820;0.9120;
899.1000;0.5812;0.9213;
899.4000;0.5804;0.9260;
899.7000;0.5796;0.9329;
900.0000;0.5796;0.9329;
900.3000;0.5714;0.9096;
900.6000;0.5779;0.9260;
900.9000;0.5788;0.9353;
901.2000;0.5812;0.9306;
901.5000;0.5812;0.9353;
901.8000;0.5804;0.9376;
902.1000;0.5796;0.9353;
902.4000;0.5796;0.9329;
902.7000;0.5812;0.9329;
903.0000;0.5788;0.9236;
903.3000;0.5722;0.9166;
903.6000;0.5788;0.9283;
903.9000;0.5763;0.9306;
904.2000;0.5820;0.9446;
904.5000;0.5779;0.9469;
904.8000;0.5779;0.9399;
905.1000;0.5779;0.9353;
905.4000;0.5796;0.9329;
905.7000;0.5820;0.9376;
906.0000;0.5788;0.9353;
906.3000;0.5812;0.9399;
906.6000;0.5804;0.9446;
906.9000;0.5804;0.9423;
907.2000;0.5796;0.9376;
907.5000;0.5804;0.9399;
907.8000;0.5788;0.9376;
908.1000;0.5804;0.9423;
908.4000;0.5690;0.9166;
908.7000;0.5812;0.9446;
909.0000;0.5796;0.9446;
909.3000;0.5812;0.9446;
909.6000;0.5812;0.9329;
909.9000;0.5788;0.9329;
910.2000;0.5804;0.9376;
910.5000;0.5796;0.9306;
910.8000;0.5731;0.9190;
911.1000;0.5747;0.9236;
911.4000;0.5828;0.9260;
911.7000;0.5804;0.9283;
912.0000;0.5739;0.9213;
912.3000;0.5804;0.9236;
912.6000;0.5771;0.9096;
912.9000;0.5722;0.9120;
913.2000;0.5845;0.9399;
913.5000;0.5763;0.9190;
913.8000;0.5812;0.9306;
914.1000;0.5869;0.9399;
914.4000;0.5755;0.9143;
914.7000;0.5779;0.9306;
915.0000;0.5796;0.9236;
915.3000;0.5812;0.9236;
915.6000;0.5812;0.9260;
915.9000;0.5812;0.9236;
916.2000;0.5836;0.9329;
916.5000;0.5796;0.9306;
916.8000;0.5796;0.9306;
917.1000;0.5779;0.9353;
917.4000;0.5788;0.9376;
917.7000;0.5788;0.9423;
918.0000;0.5788;0.9329;
918.3000;0.5779;0.9283;
918.6000;0.5812;0.9353;
918.9000;0.5796;0.9213;
919.2000;0.5731;0.9120;
919.5000;0.5779;0.9283;
919.8000;0.5771;0.9260;
920.1000;0.5804;0.9353;
920.4000;0.5804;0.9236;
920.7000;0.5804;0.9190;
921.0000;0.5796;0.9236;
921.3000;0.5812;0.9213;
921.6000;0.5796;0.9120;
921.9000;0.5869;0.9329;
922.2000;0.5812;0.9190;
922.5000;0.5812;0.9260;
922.8000;0.5788;0.9306;
923.1000;0.5771;0.9260;
923.4000;0.5804;0.9306;
923.7000;0.5779;0.9306;
924.0000;0.5771;0.9283;
924.3000;0.5796;0.9306;
924.6000;0.5796;0.9446;
924.9000;0.5771;0.9423;
925.2000;0.5796;0.9469;
925.5000;0.5788;0.9353;
925.8000;0.5796;0.9353;
926.1000;0.5755;0.9306;
926.4000;0.5796;0.9376;
926.7000;0.5796;0.9446;
927.0000;0.5796;0.9516;
927.3000;0.5796;0.9423;
927.6000;0.5779;0.9376;
927.9000;0.5788;0.9306;
928.2000;0.5788;0.9260;
928.5000;0.5779;0.9306;
928.8000;0.5796;0.9446;
929.1000;0.5739;0.9423;
929.4000;0.5845;0.9703;
929.7000;0.5788;0.9539;
930.0000;0.5779;0.9423;
930.3000;0.5722;0.9190;
930.6000;0.5779;0.9399;
930.9000;0.5845;0.9516;
931.2000;0.5820;0.9376;
931.5000;0.5796;0.9306;
931.8000;0.5788;0.9376;
932.1000;0.5722;0.9236;
932.4000;0.5804;0.9446;
932.7000;0.5796;0.9493;
933.0000;0.5812;0.9609;
933.3000;0.5788;0.9633;
933.6000;0.5804;0.9703;
933.9000;0.5828;0.9843;
934.2000;0.5804;0.9703;
934.5000;0.5788;0.9609;
934.8000;0.5804;0.9656;
935.1000;0.5788;0.9586;
935.4000;0.5788;0.9586;
935.7000;0.5796;0.9586;
936.0000;0.5788;0.9493;
936.3000;0.5796;0.9376;
936.6000;0.5788;0.9399;
936.9000;0.5869;0.9586;
937.2000;0.5836;0.9399;
937.5000;0.5828;0.9423;
937.8000;0.5804;0.9446;
938.1000;0.5804;0.9353;
938.4000;0.5893;0.9656;
938.7000;0.5796;0.9329;
939.0000;0.5771;0.9353;
939.3000;0.5755;0.9260;
939.6000;0.5804;0.9353;
939.9000;0.5804;0.9329;
940.2000;0.5812;0.9306;
940.5000;0.5812;0.9306;
940.8000;0.5731;0.9073;
941.1000;0.5779;0.9143;
941.4000;0.5788;0.9190;
941.7000;0.5804;0.9166;
942.0000;0.5788;0.9120;
942.3000;0.5788;0.9283;
942.6000;0.5796;0.9353;
942.9000;0.5804;0.9446;
943.2000;0.5796;0.9399;
943.5000;0.5820;0.9493;
943.8000;0.5796;0.9469;
944.1000;0.5804;0.9399;
944.4000;0.5804;0.9446;
944.7000;0.5788;0.9399;
945.0000;0.5804;0.9469;
945.3000;0.5779;0.9446;
945.6000;0.5788;0.9493;
945.9000;0.5788;0.9493;
946.2000;0.5788;0.9563;
946.5000;0.5796;0.9539;
946.8000;0.5779;0.9586;
947.1000;0.5796;0.9633;
947.4000;0.5788;0.9539;
947.7000;0.5788;0.9446;
948.0000;0.5804;0.9446;
948.3000;0.5885;0.9656;
948.6000;0.5788;0.9399;
948.9000;0.5804;0.9446;
949.2000;0.5796;0.9446;
949.5000;0.5804;0.9493;
949.8000;0.5869;0.9679;
950.1000;0.5820;0.9539;
950.4000;0.5796;0.9469;
950.7000;0.5779;0.9493;
951.0000;0.5779;0.9563;
951.3000;0.5804;0.9679;
951.6000;0.5820;0.9656;
951.9000;0.5779;0.9656;
952.2000;0.5796;0.9703;
952.5000;0.5796;0.9656;
952.8000;0.5804;0.9656;
953.1000;0.5853;0.9796;
953.4000;0.5812;0.9703;
953.7000;0.5853;0.9773;
954.0000;0.5812;0.9843;
954.3000;0.5796;0.9819;
954.6000;0.5698;0.9539;
954.9000;0.5771;0.9703;
955.2000;0.5804;0.9773;
955.5000;0.5763;0.9703;
955.8000;0.5779;0.9726;
956.1000;0.5796;0.9726;
956.4000;0.5804;0.9656;
956.7000;0.5804;0.9633;
957.0000;0.5804;0.9516;
957.3000;0.5820;0.9493;
957.6000;0.5796;0.9469;
957.9000;0.5804;0.9493;
958.2000;0.5788;0.9469;
958.5000;0.5788;0.9516;
958.8000;0.5788;0.9446;
959.1000;0.5771;0.9423;
959.4000;0.5796;0.9539;
959.7000;0.5788;0.9609;
960.0000;0.5796;0.9679;
960.3000;0.5779;0.9749;
960.6000;0.5788;0.9773;
960.9000;0.5796;0.9679;
961.2000;0.5788;0.9539;
961.5000;0.5804;0.9423;
961.8000;0.5796;0.9399;
962.1000;0.5788;0.9353;
962.4000;0.5779;0.9493;
962.7000;0.5771;0.9353;
963.0000;0.5796;0.9376;
963.3000;0.5820;0.9469;
963.6000;0.5788;0.9423;
963.9000;0.5788;0.9446;
964.2000;0.5796;0.9469;
964.5000;0.5779;0.9469;
964.8000;0.5763;0.9399;
965.1000;0.5788;0.9493;
965.4000;0.5779;0.9446;
965.7000;0.5771;0.9399;
966.0000;0.5788;0.9423;
966.3000;0.5771;0.9423;
966.6000;0.5779;0.9423;
966.9000;0.5812;0.9469;
967.2000;0.5779;0.9469;
967.5000;0.5812;0.9446;
967.8000;0.5788;0.9399;
968.1000;0.5812;0.9539;
968.4000;0.5788;0.9516;
968.7000;0.5779;0.9493;
969.0000;0.5771;0.9516;
969.3000;0.5779;0.9469;
969.6000;0.5812;0.9493;
969.9000;0.5804;0.9329;
970.2000;0.5804;0.9306;
970.5000;0.5763;0.9213;
970.8000;0.5788;0.9423;
971.1000;0.5779;0.9493;
971.4000;0.5812;0.9609;
971.7000;0.5796;0.9633;
972.0000;0.5788;0.9656;
972.3000;0.5779;0.9656;
972.6000;0.5763;0.9726;
972.9000;0.5771;0.9796;
973.2000;0.5755;0.9703;
973.5000;0.5788;0.9843;
973.8000;0.5763;0.9796;
974.1000;0.5804;0.9819;
974.4000;0.5788;0.9773;
974.7000;0.5779;0.9633;
975.0000;0.5771;0.9609;
975.3000;0.5739;0.9423;
975.6000;0.5755;0.9493;
975.9000;0.5739;0.9446;
976.2000;0.5763;0.9539;
976.5000;0.5812;0.9633;
976.8000;0.5788;0.9586;
977.1000;0.5796;0.9609;
977.4000;0.5763;0.9469;
977.7000;0.5788;0.9539;
978.0000;0.5788;0.9469;
978.3000;0.5910;0.9819;
978.6000;0.5779;0.9446;
978.9000;0.5804;0.9446;
979.2000;0.5771;0.9306;
979.5000;0.5788;0.9399;
979.8000;0.5788;0.9423;
980.1000;0.5788;0.9446;
980.4000;0.5763;0.9423;
980.7000;0.5788;0.9399;
981.0000;0.5820;0.9516;
981.3000;0.5771;0.9376;
981.6000;0.5779;0.9376;
981.9000;0.5820;0.9423;
982.2000;0.5804;0.9399;
982.5000;0.5788;0.9329;
982.8000;0.5771;0.9260;
983.1000;0.5755;0.9283;
983.4000;0.5779;0.9306;
983.7000;0.5779;0.9306;
984.0000;0.5779;0.9399;
984.3000;0.5804;0.9423;
984.6000;0.5796;0.9329;
984.9000;0.5796;0.9283;
985.2000;0.5763;0.9143;
985.5000;0.5788;0.9283;
985.8000;0.5788;0.9260;
986.1000;0.5779;0.9329;
986.4000;0.5796;0.9423;
986.7000;0.5763;0.9353;
987.0000;0.5722;0.9353;
987.3000;0.5771;0.9516;
987.6000;0.5779;0.9516;
987.9000;0.5779;0.9423;
988.2000;0.5796;0.9493;
988.5000;0.5779;0.9563;
988.8000;0.5788;0.9586;
989.1000;0.5755;0.9516;
989.4000;0.5812;0.9609;
989.7000;0.5788;0.9586;
990.0000;0.5796;0.9516;
990.3000;0.5804;0.9469;
990.6000;0.5788;0.9469;
990.9000;0.5771;0.9423;
991.2000;0.5796;0.9469;
991.5000;0.5755;0.9446;
991.8000;0.5796;0.9469;
992.1000;0.5771;0.9399;
992.4000;0.5755;0.9353;
992.7000;0.5828;0.9563;
993.0000;0.5771;0.9469;
993.3000;0.5779;0.9493;
993.6000;0.5771;0.9516;
993.9000;0.5788;0.9539;
994.2000;0.5771;0.9563;
994.5000;0.5788;0.9516;
994.8000;0.5771;0.9469;
995.1000;0.5779;0.9446;
995.4000;0.5788;0.9423;
995.7000;0.5779;0.9423;
996.0000;0.5771;0.9446;
996.3000;0.5796;0.9469;
996.6000;0.5779;0.9423;
996.9000;0.5779;0.9399;
997.2000;0.5788;0.9376;
997.5000;0.5763;0.9306;
997.8000;0.5763;0.9236;
998.1000;0.5779;0.9376;
998.4000;0.5788;0.9399;
998.7000;0.5763;0.9469;
999.0000;0.5812;0.9563;
999.3000;0.5804;0.9563;
999.6000;0.5779;0.9493;
999.9000;0.5771;0.9423;
1000.2000;0.5796;0.9493;
1000.5000;0.5788;0.9446;
1000.8000;0.5788;0.9399;
1001.1000;0.5763;0.9306;
1001.4000;0.5682;0.9143;
1001.7000;0.5796;0.9306;
1002.0000;0.5796;0.9423;
1002.3000;0.5779;0.9423;
1002.6000;0.5820;0.9469;
1002.9000;0.5828;0.9539;
1003.2000;0.5812;0.9516;
1003.5000;0.5779;0.9353;
1003.8000;0.5828;0.9376;
1004.1000;0.5796;0.9306;
1004.4000;0.5788;0.9236;
1004.7000;0.5763;0.9120;
1005.0000;0.5877;0.9399;
1005.3000;0.5755;0.9026;
1005.6000;0.5763;0.8956;
1005.9000;0.5771;0.9050;
1006.2000;0.5763;0.9120;
1006.5000;0.5747;0.9143;
1006.8000;0.5779;0.9260;
1007.1000;0.5779;0.9260;
1007.4000;0.5779;0.9143;
1007.7000;0.5722;0.9003;
1008.0000;0.5893;0.9423;
1008.3000;0.5779;0.9166;
1008.6000;0.5763;0.9143;
1008.9000;0.5788;0.9120;
1009.2000;0.5804;0.9120;
1009.5000;0.5674;0.8933;
1009.8000;0.5763;0.9166;
1010.1000;0.5674;0.8933;
1010.4000;0.5788;0.9213;
1010.7000;0.5885;0.9539;
1011.0000;0.5836;0.9329;
1011.3000;0.5812;0.9190;
1011.6000;0.5771;0.9050;
1011.9000;0.5779;0.9026;
1012.2000;0.5796;0.9050;
1012.5000;0.5771;0.9050;
1012.8000;0.5788;0.9120;
1013.1000;0.5796;0.9190;
1013.4000;0.5771;0.9190;
1013.7000;0.5788;0.9283;
1014.0000;0.5779;0.9353;
1014.3000;0.5804;0.9399;
1014.6000;0.5779;0.9329;
1014.9000;0.5771;0.9260;
1015.2000;0.5804;0.9306;
1015.5000;0.5788;0.9213;
1015.8000;0.5788;0.9166;
1016.1000;0.5796;0.9260;
1016.4000;0.5755;0.9236;
1016.7000;0.5812;0.9376;
1017.0000;0.5788;0.9376;
1017.3000;0.5747;0.9283;
1017.6000;0.5779;0.9423;
1017.9000;0.5788;0.9423;
1018.2000;0.5796;0.9376;
1018.5000;0.5804;0.9586;
1018.8000;0.5820;0.9609;
1019.1000;0.5763;0.9399;
1019.4000;0.5796;0.9329;
1019.7000;0.5796;0.9283;
1020.0000;0.5755;0.9190;
1020.3000;0.5763;0.9213;
1020.6000;0.5796;0.9260;
1020.9000;0.5779;0.9236;
1021.2000;0.5763;0.9236;
1021.5000;0.5788;0.9260;
1021.8000;0.5771;0.9306;
1022.1000;0.5755;0.9329;
1022.4000;0.5771;0.9493;
1022.7000;0.5755;0.9469;
1023.0000;0.5796;0.9586;
1023.3000;0.5788;0.9493;
1023.6000;0.5779;0.9353;
1023.9000;0.5779;0.9376;
1024.2000;0.5788;0.9423;
1024.5000;0.5771;0.9306;
1024.8000;0.5779;0.9353;
1025.1000;0.5682;0.9190;
1025.4000;0.5755;0.9329;
1025.7000;0.5796;0.9306;
1026.0000;0.5788;0.9353;
1026.3000;0.5804;0.9469;
1026.6000;0.5739;0.9376;
1026.9000;0.5836;0.9586;
1027.2000;0.5788;0.9376;
1027.5000;0.5796;0.9376;
1027.8000;0.5779;0.9446;
1028.1000;0.5771;0.9516;
1028.4000;0.5804;0.9609;
1028.7000;0.5788;0.9493;
1029.0000;0.5722;0.9423;
1029.3000;0.5731;0.9423;
1029.6000;0.5747;0.9399;
1029.9000;0.5731;0.9329;
1030.2000;0.5722;0.9399;
1030.5000;0.5755;0.9516;
1030.8000;0.5779;0.9516;
1031.1000;0.5796;0.9516;
1031.4000;0.5755;0.9446;
1031.7000;0.5763;0.9446;
1032.0000;0.5812;0.9516;
1032.3000;0.5779;0.9516;
1032.6000;0.5739;0.9469;
1032.9000;0.5747;0.9446;
1033.2000;0.5836;0.9703;
1033.5000;0.5706;0.9423;
1033.8000;0.5779;0.9516;
1034.1000;0.5771;0.9493;
1034.4000;0.5779;0.9446;
1034.7000;0.5812;0.9399;
1035.0000;0.5804;0.9376;
1035.3000;0.5779;0.9353;
1035.6000;0.5755;0.9306;
1035.9000;0.5779;0.9353;
1036.2000;0.5788;0.9353;
1036.5000;0.5771;0.9306;
1036.8000;0.5804;0.9353;
1037.1000;0.5796;0.9376;
1037.4000;0.5788;0.9423;
1037.7000;0.5796;0.9423;
1038.0000;0.5763;0.9329;
1038.3000;0.5812;0.9539;
1038.6000;0.5779;0.9446;
1038.9000;0.5763;0.9423;
1039.2000;0.5771;0.9469;
1039.5000;0.5771;0.9469;
1039.8000;0.5755;0.9446;
1040.1000;0.5804;0.9586;
1040.4000;0.5771;0.9539;
1040.7000;0.5771;0.9609;
1041.0000;0.5755;0.9563;
1041.3000;0.5779;0.9609;
1041.6000;0.5796;0.9609;
1041.9000;0.5771;0.9516;
1042.2000;0.5779;0.9493;
1042.5000;0.5763;0.9469;
1042.8000;0.5763;0.9493;
1043.1000;0.5779;0.9586;
1043.4000;0.5731;0.9539;
1043.7000;0.5804;0.9679;
1044.0000;0.5763;0.9563;
1044.3000;0.5755;0.9539;
1044.6000;0.5763;0.9539;
1044.9000;0.5779;0.9493;
1045.2000;0.5722;0.9306;
1045.5000;0.5763;0.9446;
1045.8000;0.5755;0.9516;
1046.1000;0.5755;0.9539;
1046.4000;0.5771;0.9679;
1046.7000;0.5771;0.9656;
1047.0000;0.5763;0.9586;
1047.3000;0.5796;0.9539;
1047.6000;0.5796;0.9493;
1047.9000;0.5788;0.9493;
1048.2000;0.5674;0.9306;
1048.5000;0.5771;0.9446;
1048.8000;0.5763;0.9399;
1049.1000;0.5788;0.9423;
1049.4000;0.5788;0.9539;
1049.7000;0.5755;0.9516;
1050.0000;0.5739;0.9539;
1050.3000;0.5779;0.9609;
1050.6000;0.5779;0.9539;
1050.9000;0.5779;0.9516;
1051.2000;0.5763;0.9539;
1051.5000;0.5796;0.9633;
1051.8000;0.5771;0.9609;
1052.1000;0.5788;0.9609;
1052.4000;0.5804;0.9679;
1052.7000;0.5788;0.9656;
1053.0000;0.5812;0.9703;
1053.3000;0.5796;0.9609;
1053.6000;0.5763;0.9586;
1053.9000;0.5722;0.9586;
1054.2000;0.5739;0.9633;
1054.5000;0.5779;0.9656;
1054.8000;0.5755;0.9633;
1055.1000;0.5771;0.9703;
1055.4000;0.5763;0.9703;
1055.7000;0.5779;0.9679;
1056.0000;0.5779;0.9679;
1056.3000;0.5771;0.9679;
1056.6000;0.5779;0.9609;
1056.9000;0.5771;0.9609;
1057.2000;0.5625;0.9353;
1057.5000;0.5771;0.9749;
1057.8000;0.5771;0.9866;
1058.1000;0.5771;0.9866;
1058.4000;0.5788;0.9843;
1058.7000;0.5779;0.9843;
1059.0000;0.5771;0.9796;
1059.3000;0.5755;0.9726;
1059.6000;0.5771;0.9773;
1059.9000;0.5771;0.9679;
1060.2000;0.5771;0.9679;
1060.5000;0.5788;0.9749;
1060.8000;0.5771;0.9703;
1061.1000;0.5771;0.9726;
1061.4000;0.5771;0.9796;
1061.7000;0.5771;0.9679;
1062.0000;0.5763;0.9703;
1062.3000;0.5812;0.9866;
1062.6000;0.5796;0.9819;
1062.9000;0.5796;0.9773;
1063.2000;0.5771;0.9749;
1063.5000;0.5763;0.9656;
1063.8000;0.5788;0.9633;
1064.1000;0.5779;0.9679;
1064.4000;0.5796;0.9656;
1064.7000;0.5755;0.9493;
1065.0000;0.5763;0.9493;
1065.3000;0.5771;0.9493;
1065.6000;0.5755;0.9469;
1065.9000;0.5763;0.9493;
1066.2000;0.5755;0.9423;
1066.5000;0.5747;0.9399;
1066.8000;0.5763;0.9399;
1067.1000;0.5771;0.9493;
1067.4000;0.5763;0.9469;
1067.7000;0.5771;0.9399;
1068.0000;0.5771;0.9493;
1068.3000;0.5771;0.9493;
1068.6000;0.5739;0.9446;
1068.9000;0.5771;0.9516;
1069.2000;0.5788;0.9609;
1069.5000;0.5779;0.9493;
1069.8000;0.5779;0.9469;
1070.1000;0.5747;0.9423;
1070.4000;0.5836;0.9633;
1070.7000;0.5771;0.9469;
1071.0000;0.5779;0.9469;
1071.3000;0.5763;0.9469;
1071.6000;0.5763;0.9493;
1071.9000;0.5763;0.9516;
1072.2000;0.5788;0.9493;
1072.5000;0.5706;0.9306;
1072.8000;0.5779;0.9423;
1073.1000;0.5845;0.9539;
1073.4000;0.5788;0.9539;
1073.7000;0.5779;0.9539;
1074.0000;0.5771;0.9469;
1074.3000;0.5796;0.9493;
1074.6000;0.5771;0.9446;
1074.9000;0.5771;0.9469;
1075.2000;0.5747;0.9446;
1075.5000;0.5779;0.9609;
1075.8000;0.5763;0.9586;
1076.1000;0.5771;0.9609;
1076.4000;0.5779;0.9563;
1076.7000;0.5771;0.9516;
1077.0000;0.5731;0.9376;
1077.3000;0.5755;0.9446;
1077.6000;0.5755;0.9423;
1077.9000;0.5828;0.9656;
1078.2000;0.5771;0.9423;
1078.5000;0.5796;0.9469;
1078.8000;0.5763;0.9399;
1079.1000;0.5755;0.9329;
1079.4000;0.5763;0.9469;
1079.7000;0.5755;0.9539;
1080.0000;0.5747;0.9469;
1080.3000;0.5763;0.9446;
1080.6000;0.5771;0.9446;
1080.9000;0.5755;0.9469;
1081.2000;0.5771;0.9516;
1081.5000;0.5755;0.9469;
1081.8000;0.5747;0.9376;
1082.1000;0.5771;0.9376;
1082.4000;0.5779;0.9446;
1082.7000;0.5747;0.9469;
1083.0000;0.5763;0.9539;
1083.3000;0.5747;0.9539;
1083.6000;0.5771;0.9609;
1083.9000;0.5771;0.9539;
1084.2000;0.5763;0.9539;
1084.5000;0.5779;0.9493;
1084.8000;0.5747;0.9353;
1085.1000;0.5747;0.9399;
1085.4000;0.5779;0.9446;
1085.7000;0.5771;0.9399;
1086.0000;0.5788;0.9469;
1086.3000;0.5771;0.9539;
1086.6000;0.5771;0.9446;
1086.9000;0.5763;0.9446;
1087.2000;0.5763;0.9446;
1087.5000;0.5763;0.9446;
1087.8000;0.5771;0.9469;
1088.1000;0.5739;0.9516;
1088.4000;0.5763;0.9539;
1088.7000;0.5779;0.9679;
1089.0000;0.5763;0.9633;
1089.3000;0.5779;0.9656;
1089.6000;0.5771;0.9679;
1089.9000;0.5755;0.9609;
1090.2000;0.5755;0.9516;
1090.5000;0.5739;0.9469;
1090.8000;0.5755;0.9329;
1091.1000;0.5763;0.9329;
1091.4000;0.5731;0.9283;
1091.7000;0.5763;0.9423;
1092.0000;0.5755;0.9469;
1092.3000;0.5779;0.9609;
1092.6000;0.5779;0.9656;
1092.9000;0.5731;0.9493;
1093.2000;0.5747;0.9539;
1093.5000;0.5755;0.9539;
1093.8000;0.5771;0.9539;
1094.1000;0.5755;0.9586;
1094.4000;0.5771;0.9703;
1094.7000;0.5771;0.9773;
1095.0000;0.5763;0.9726;
1095.3000;0.5771;0.9726;
1095.6000;0.5779;0.9609;
1095.9000;0.5739;0.9493;
1096.2000;0.5788;0.9586;
1096.5000;0.5779;0.9516;
1096.8000;0.5755;0.9423;
1097.1000;0.5779;0.9493;
1097.4000;0.5771;0.9469;
1097.7000;0.5763;0.9493;
1098.0000;0.5828;0.9703;
1098.3000;0.5763;0.9539;
1098.6000;0.5763;0.9516;
1098.9000;0.5779;0.9469;
1099.2000;0.5771;0.9446;
1099.5000;0.5771;0.9446;
1099.8000;0.5796;0.9399;
1100.1000;0.5739;0.9306;
1100.4000;0.5779;0.9353;
1100.7000;0.5771;0.9399;
1101.0000;0.5690;0.9260;
1101.3000;0.5755;0.9516;
1101.6000;0.5771;0.9469;
1101.9000;0.5763;0.9446;
1102.2000;0.5779;0.9423;
1102.5000;0.5763;0.9539;
1102.8000;0.5755;0.9609;
1103.1000;0.5771;0.9656;
1103.4000;0.5747;0.9656;
1103.7000;0.5771;0.9703;
1104.0000;0.5755;0.9633;
1104.3000;0.5747;0.9563;
1104.6000;0.5763;0.9516;
1104.9000;0.5771;0.9399;
1105.2000;0.5836;0.9586;
1105.5000;0.5771;0.9469;
1105.8000;0.5763;0.9469;
1106.1000;0.5779;0.9446;
1106.4000;0.5779;0.9539;
1106.7000;0.5771;0.9493;
1107.0000;0.5755;0.9376;
1107.3000;0.5698;0.9260;
1107.6000;0.5763;0.9306;
1107.9000;0.5771;0.9376;
1108.2000;0.5771;0.9469;
1108.5000;0.5779;0.9469;
1108.8000;0.5763;0.9423;
1109.1000;0.5779;0.9446;
1109.4000;0.5788;0.9493;
1109.7000;0.5788;0.9399;
1110.0000;0.5796;0.9376;
1110.3000;0.5779;0.9539;
1110.6000;0.5853;0.9819;
1110.9000;0.5771;0.9586;
1111.2000;0.5771;0.9563;
1111.5000;0.5771;0.9609;
1111.8000;0.5771;0.9563;
1112.1000;0.5771;0.9586;
1112.4000;0.5763;0.9563;
1112.7000;0.5755;0.9469;
1113.0000;0.5779;0.9563;
1113.3000;0.5755;0.9493;
1113.6000;0.5755;0.9539;
1113.9000;0.5755;0.9539;
1114.2000;0.5779;0.9539;
1114.5000;0.5779;0.9493;
1114.8000;0.5771;0.9493;
1115.1000;0.5796;0.9633;
1115.4000;0.5869;0.9796;
1115.7000;0.5788;0.9563;
1116.0000;0.5779;0.9539;
1116.3000;0.5779;0.9516;
1116.6000;0.5771;0.9516;
1116.9000;0.5788;0.9446;
1117.2000;0.5731;0.9329;
1117.5000;0.5747;0.9399;
1117.8000;0.5763;0.9423;
1118.1000;0.5779;0.9493;
1118.4000;0.5763;0.9423;
1118.7000;0.5779;0.9446;
1119.0000;0.5739;0.9353;
1119.3000;0.5747;0.9353;
1119.6000;0.5779;0.9493;
1119.9000;0.5747;0.9376;
1120.2000;0.5771;0.9353;
1120.5000;0.5779;0.9423;
1120.8000;0.5763;0.9446;
1121.1000;0.5755;0.9446;
1121.4000;0.5747;0.9423;
1121.7000;0.5788;0.9609;
1122.0000;0.5763;0.9656;
1122.3000;0.5788;0.9703;
1122.6000;0.5788;0.9679;
1122.9000;0.5788;0.9726;
1123.2000;0.5796;0.9749;
1123.5000;0.5747;0.9679;
1123.8000;0.5820;0.9889;
1124.1000;0.5796;0.9843;
1124.4000;0.5747;0.9563;
1124.7000;0.5771;0.9633;
1125.0000;0.5779;0.9609;
1125.3000;0.5771;0.9633;
1125.6000;0.5763;0.9679;
1125.9000;0.5763;0.9656;
1126.2000;0.5779;0.9656;
1126.5000;0.5771;0.9656;
1126.8000;0.5755;0.9609;
1127.1000;0.5763;0.9609;
1127.4000;0.5739;0.9539;
1127.7000;0.5755;0.9633;
1128.0000;0.5755;0.9726;
1128.3000;0.5755;0.9703;
1128.6000;0.5755;0.9726;
1128.9000;0.5771;0.9679;
1129.2000;0.5779;0.9726;
1129.5000;0.5763;0.9633;
1129.8000;0.5763;0.9586;
1130.1000;0.5804;0.9679;
1130.4000;0.5763;0.9633;
1130.7000;0.5771;0.9703;
1131.0000;0.5788;0.9633;
1131.3000;0.5771;0.9749;
1131.6000;0.5747;0.9656;
1131.9000;0.5755;0.9656;
1132.2000;0.5771;0.9656;
1132.5000;0.5763;0.9749;
1132.8000;0.5755;0.9679;
1133.1000;0.5771;0.9633;
1133.4000;0.5763;0.9609;
1133.7000;0.5763;0.9586;
1134.0000;0.5731;0.9493;
1134.3000;0.5755;0.9469;
1134.6000;0.5755;0.9399;
1134.9000;0.5779;0.9423;
1135.2000;0.5812;0.9539;
1135.5000;0.5763;0.9539;
1135.8000;0.5771;0.9586;
1136.1000;0.5779;0.9563;
1136.4000;0.5755;0.9516;
1136.7000;0.5836;0.9656;
1137.0000;0.5804;0.9586;
1137.3000;0.5763;0.9539;
1137.6000;0.5788;0.9493;
1137.9000;0.5779;0.9469;
1138.2000;0.5747;0.9446;
1138.5000;0.5771;0.9539;
1138.8000;0.5739;0.9493;
1139.1000;0.5747;0.9423;
1139.4000;0.5845;0.9726;
1139.7000;0.5755;0.9539;
1140.0000;0.5788;0.9609;
1140.3000;0.5804;0.9633;
1140.6000;0.5698;0.9446;
1140.9000;0.5788;0.9586;
1141.2000;0.5820;0.9679;
1141.5000;0.5788;0.9539;
1141.8000;0.5763;0.9446;
1142.1000;0.5796;0.9469;
1142.4000;0.5779;0.9423;
1142.7000;0.5755;0.9329;
1143.0000;0.5763;0.9283;
1143.3000;0.5763;0.9306;
1143.6000;0.5755;0.9260;
1143.9000;0.5788;0.9306;
1144.2000;0.5845;0.9376;
1144.5000;0.5763;0.9096;
1144.8000;0.5771;0.9026;
1145.1000;0.5771;0.8956;
1145.4000;0.5755;0.8956;
1145.7000;0.5771;0.9026;
1146.0000;0.5771;0.9026;
1146.3000;0.5779;0.9073;
1146.6000;0.5796;0.9143;
1146.9000;0.5788;0.9190;
1147.2000;0.5779;0.9376;
1147.5000;0.5788;0.9446;
1147.8000;0.5779;0.9446;
1148.1000;0.5779;0.9493;
1148.4000;0.5771;0.9493;
1148.7000;0.5771;0.9493;
1149.0000;0.5845;0.9586;
1149.3000;0.5771;0.9399;
1149.6000;0.5755;0.9423;
1149.9000;0.5755;0.9329;
1150.2000;0.5779;0.9306;
1150.5000;0.5779;0.9329;
1150.8000;0.5763;0.9353;
1151.1000;0.5763;0.9329;
1151.4000;0.5763;0.9213;
1151.7000;0.5779;0.9260;
1152.0000;0.5779;0.9236;
1152.3000;0.5771;0.9283;
1152.6000;0.5804;0.9399;
1152.9000;0.5763;0.9423;
1153.2000;0.5779;0.9353;
1153.5000;0.5747;0.9283;
1153.8000;0.5820;0.9353;
1154.1000;0.5771;0.9283;
1154.4000;0.5763;0.9329;
1154.7000;0.5763;0.9423;
1155.0000;0.5755;0.9446;
1155.3000;0.5771;0.9469;
1155.6000;0.5796;0.9493;
1155.9000;0.5747;0.9306;
1156.2000;0.5788;0.9353;
1156.5000;0.5755;0.9329;
1156.8000;0.5763;0.9329;
1157.1000;0.5763;0.9306;
1157.4000;0.5755;0.9236;
1157.7000;0.5779;0.9353;
1158.0000;0.5771;0.9423;
1158.3000;0.5722;0.9329;
1158.6000;0.5714;0.9329;
1158.9000;0.5779;0.9446;
1159.2000;0.5812;0.9469;
1159.5000;0.5763;0.9376;
1159.8000;0.5763;0.9469;
1160.1000;0.5690;0.9306;
1160.4000;0.5771;0.9539;
1160.7000;0.5755;0.9493;
1161.0000;0.5771;0.9516;
1161.3000;0.5763;0.9446;
1161.6000;0.5788;0.9493;
1161.9000;0.5771;0.9469;
1162.2000;0.5763;0.9446;
1162.5000;0.5714;0.9376;
1162.8000;0.5739;0.9423;
1163.1000;0.5779;0.9493;
1163.4000;0.5804;0.9493;
1163.7000;0.5771;0.9399;
1164.0000;0.5763;0.9376;
1164.3000;0.5788;0.9446;
1164.6000;0.5788;0.9469;
1164.9000;0.5755;0.9446;
1165.2000;0.5804;0.9469;
1165.5000;0.5771;0.9469;
1165.8000;0.5747;0.9563;
1166.1000;0.5755;0.9516;
1166.4000;0.5739;0.9446;
1166.7000;0.5747;0.9493;
1167.0000;0.5755;0.9539;
1167.3000;0.5747;0.9516;
1167.6000;0.5771;0.9493;
1167.9000;0.5763;0.9493;
1168.2000;0.5796;0.9516;
1168.5000;0.5755;0.9446;
1168.8000;0.5763;0.9446;
1169.1000;0.5820;0.9633;
1169.4000;0.5788;0.9469;
1169.7000;0.5771;0.9493;
1170.0000;0.5771;0.9446;
1170.3000;0.5747;0.9469;
1170.6000;0.5771;0.9609;
1170.9000;0.5747;0.9469;
1171.2000;0.5755;0.9469;
1171.5000;0.5836;0.9633;
1171.8000;0.5788;0.9586;
1172.1000;0.5771;0.9539;
1172.4000;0.5771;0.9469;
1172.7000;0.5755;0.9353;
1173.0000;0.5771;0.9469;
1173.3000;0.5804;0.9516;
1173.6000;0.5763;0.9399;
1173.9000;0.5755;0.9329;
1174.2000;0.5771;0.9329;
1174.5000;0.5779;0.9446;
1174.8000;0.5779;0.9423;
1175.1000;0.5755;0.9353;
1175.4000;0.5755;0.9446;
1175.7000;0.5820;0.9586;
1176.0000;0.5755;0.9423;
1176.3000;0.5763;0.9469;
1176.6000;0.5779;0.9423;
1176.9000;0.5763;0.9469;
1177.2000;0.5812;0.9609;
1177.5000;0.5796;0.9539;
1177.8000;0.5779;0.9516;
1178.1000;0.5763;0.9469;
1178.4000;0.5771;0.9516;
1178.7000;0.5804;0.9633;
1179.0000;0.5747;0.9539;
1179.3000;0.5779;0.9423;
1179.6000;0.5739;0.9283;
1179.9000;0.5771;0.9376;
1180.2000;0.5788;0.9376;
1180.5000;0.5690;0.9236;
1180.8000;0.5763;0.9399;
1181.1000;0.5755;0.9376;
1181.4000;0.5747;0.9329;
1181.7000;0.5722;0.9260;
1182.0000;0.5779;0.9306;
1182.3000;0.5763;0.9236;
1182.6000;0.5690;0.9073;
1182.9000;0.5771;0.9329;
1183.2000;0.5771;0.9283;
1183.5000;0.5714;0.9143;
1183.8000;0.5771;0.9143;
1184.1000;0.5763;0.9166;
1184.4000;0.5763;0.9236;
1184.7000;0.5771;0.9329;
1185.0000;0.5779;0.9469;
1185.3000;0.5739;0.9353;
1185.6000;0.5739;0.9353;
1185.9000;0.5755;0.9306;
1186.2000;0.5820;0.9376;
1186.5000;0.5755;0.9306;
1186.8000;0.5771;0.9353;
1187.1000;0.5771;0.9283;
1187.4000;0.5763;0.9306;
1187.7000;0.5763;0.9446;
1188.0000;0.5755;0.9493;
1188.3000;0.5755;0.9539;
1188.6000;0.5763;0.9469;
1188.9000;0.5763;0.9399;
1189.2000;0.5747;0.9399;
1189.5000;0.5731;0.9329;
1189.8000;0.5763;0.9446;
1190.1000;0.5755;0.9446;
1190.4000;0.5747;0.9423;
1190.7000;0.5747;0.9329;
1191.0000;0.5731;0.9353;
1191.3000;0.5779;0.9399;
1191.6000;0.5763;0.9329;
1191.9000;0.5747;0.9329;
1192.2000;0.5771;0.9399;
1192.5000;0.5763;0.9446;
1192.8000;0.5771;0.9423;
1193.1000;0.5755;0.9399;
1193.4000;0.5771;0.9399;
1193.7000;0.5779;0.9446;
1194.0000;0.5796;0.9446;
1194.3000;0.5739;0.9376;
1194.6000;0.5771;0.9516;
1194.9000;0.5771;0.9516;
1195.2000;0.5755;0.9469;
1195.5000;0.5779;0.9469;
1195.8000;0.5779;0.9539;
1196.1000;0.5771;0.9493;
1196.4000;0.5788;0.9586;
1196.7000;0.5747;0.9516;
1197.0000;0.5747;0.9586;
1197.3000;0.5755;0.9609;
1197.6000;0.5763;0.9609;
1197.9000;0.5771;0.9633;
1198.2000;0.5714;0.9539;
1198.5000;0.5763;0.9633;
1198.8000;0.5771;0.9679;
1199.1000;0.5771;0.9679;
1199.4000;0.5779;0.9656;
1199.7000;0.5763;0.9633;
1200.0000;0.5771;0.9656;
1200.3000;0.5747;0.9633;
1200.6000;0.5755;0.9679;
1200.9000;0.5763;0.9703;
1201.2000;0.5755;0.9609;
1201.5000;0.5714;0.9469;
1201.8000;0.5763;0.9493;
1202.1000;0.5722;0.9399;
1202.4000;0.5771;0.9446;
1202.7000;0.5722;0.9376;
1203.0000;0.5722;0.9469;
1203.3000;0.5747;0.9586;
1203.6000;0.5779;0.9679;
1203.9000;0.5763;0.9679;
1204.2000;0.5755;0.9563;
1204.5000;0.5682;0.9423;
1204.8000;0.5771;0.9679;
1205.1000;0.5755;0.9633;
1205.4000;0.5771;0.9563;
1205.7000;0.5731;0.9516;
1206.0000;0.5722;0.9516;
1206.3000;0.5779;0.9633;
1206.6000;0.5755;0.9656;
1206.9000;0.5763;0.9656;
1207.2000;0.5763;0.9609;
1207.5000;0.5763;0.9586;
1207.8000;0.5747;0.9586;
1208.1000;0.5763;0.9679;
1208.4000;0.5763;0.9656;
1208.7000;0.5763;0.9679;
1209.0000;0.5771;0.9749;
1209.3000;0.5755;0.9679;
1209.6000;0.5763;0.9726;
1209.9000;0.5755;0.9609;
1210.2000;0.5779;0.9679;
1210.5000;0.5763;0.9609;
1210.8000;0.5771;0.9539;
1211.1000;0.5747;0.9539;
1211.4000;0.5771;0.9493;
1211.7000;0.5763;0.9399;
1212.0000;0.5755;0.9283;
1212.3000;0.5698;0.9260;
1212.6000;0.5763;0.9329;
1212.9000;0.5763;0.9329;
1213.2000;0.5796;0.9423;
1213.5000;0.5747;0.9329;
1213.8000;0.5763;0.9376;
1214.1000;0.5763;0.9376;
1214.4000;0.5771;0.9399;
1214.7000;0.5763;0.9376;
1215.0000;0.5788;0.9376;
1215.3000;0.5771;0.9353;
1215.6000;0.5731;0.9306;
1215.9000;0.5747;0.9469;
1216.2000;0.5771;0.9563;
1216.5000;0.5739;0.9563;
1216.8000;0.5771;0.9586;
1217.1000;0.5714;0.9539;
1217.4000;0.5739;0.9516;
1217.7000;0.5788;0.9633;
1218.0000;0.5731;0.9493;
1218.3000;0.5804;0.9539;
1218.6000;0.5763;0.9446;
1218.9000;0.5747;0.9446;
1219.2000;0.5779;0.9656;
1219.5000;0.5747;0.9539;
1219.8000;0.5714;0.9539;
1220.1000;0.5747;0.9586;
1220.4000;0.5682;0.9446;
1220.7000;0.5747;0.9633;
1221.0000;0.5788;0.9726;
1221.3000;0.5747;0.9586;
1221.6000;0.5755;0.9609;
1221.9000;0.5755;0.9563;
1222.2000;0.5836;0.9703;
1222.5000;0.5763;0.9539;
1222.8000;0.5763;0.9493;
1223.1000;0.5763;0.9563;
1223.4000;0.5779;0.9563;
1223.7000;0.5771;0.9469;
1224.0000;0.5763;0.9516;
1224.3000;0.5779;0.9539;
1224.6000;0.5763;0.9493;
1224.9000;0.5763;0.9376;
1225.2000;0.5771;0.9399;
1225.5000;0.5861;0.9679;
1225.8000;0.5755;0.9423;
1226.1000;0.5739;0.9423;
1226.4000;0.5763;0.9423;
1226.7000;0.5755;0.9469;
1227.0000;0.5763;0.9469;
1227.3000;0.5747;0.9399;
1227.6000;0.5755;0.9399;
1227.9000;0.5771;0.9469;
1228.2000;0.5771;0.9516;
1228.5000;0.5763;0.9563;
1228.8000;0.5771;0.9516;
1229.1000;0.5788;0.9446;
1229.4000;0.5755;0.9353;
1229.7000;0.5763;0.9376;
1230.0000;0.5763;0.9423;
1230.3000;0.5755;0.9399;
1230.6000;0.5763;0.9469;
1230.9000;0.5771;0.9469;
1231.2000;0.5731;0.9376;
1231.5000;0.5755;0.9353;
1231.8000;0.5763;0.9353;
1232.1000;0.5763;0.9329;
1232.4000;0.5763;0.9306;
1232.7000;0.5739;0.9376;
1233.0000;0.5747;0.9493;
1233.3000;0.5747;0.9493;
1233.6000;0.5763;0.9586;
1233.9000;0.5755;0.9563;
1234.2000;0.5747;0.9469;
1234.5000;0.5714;0.9353;
1234.8000;0.5771;0.9446;
1235.1000;0.5763;0.9539;
1235.4000;0.5788;0.9563;
1235.7000;0.5763;0.9586;
1236.0000;0.5763;0.9586;
1236.3000;0.5747;0.9633;
1236.6000;0.5690;0.9376;
1236.9000;0.5763;0.9446;
1237.2000;0.5731;0.9399;
1237.5000;0.5755;0.9376;
1237.8000;0.5763;0.9306;
1238.1000;0.5771;0.9283;
1238.4000;0.5722;0.9260;
1238.7000;0.5755;0.9376;
1239.0000;0.5796;0.9563;
1239.3000;0.5820;0.9563;
1239.6000;0.5796;0.9539;
1239.9000;0.5739;0.9399;
1240.2000;0.5747;0.9423;
1240.5000;0.5755;0.9469;
1240.8000;0.5747;0.9516;
1241.1000;0.5796;0.9609;
1241.4000;0.5714;0.9376;
1241.7000;0.5747;0.9493;
1242.0000;0.5722;0.9493;
1242.3000;0.5779;0.9633;
1242.6000;0.5739;0.9563;
1242.9000;0.5755;0.9703;
1243.2000;0.5763;0.9726;
1243.5000;0.5722;0.9609;
1243.8000;0.5828;0.9773;
1244.1000;0.5755;0.9516;
1244.4000;0.5763;0.9563;
1244.7000;0.5771;0.9633;
1245.0000;0.5763;0.9586;
1245.3000;0.5771;0.9609;
1245.6000;0.5763;0.9586;
1245.9000;0.5771;0.9563;
1246.2000;0.5771;0.9656;
1246.5000;0.5763;0.9609;
1246.8000;0.5771;0.9609;
1247.1000;0.5771;0.9539;
1247.4000;0.5739;0.9469;
1247.7000;0.5763;0.9539;
1248.0000;0.5747;0.9493;
1248.3000;0.5739;0.9516;
1248.6000;0.5747;0.9539;
1248.9000;0.5755;0.9493;
1249.2000;0.5739;0.9563;
1249.5000;0.5731;0.9516;
1249.8000;0.5755;0.9563;
1250.1000;0.5747;0.9563;
1250.4000;0.5739;0.9539;
1250.7000;0.5739;0.9469;
1251.0000;0.5755;0.9469;
1251.3000;0.5739;0.9469;
1251.6000;0.5747;0.9516;
1251.9000;0.5739;0.9469;
1252.2000;0.5731;0.9446;
1252.5000;0.5755;0.9516;
1252.8000;0.5763;0.9516;
1253.1000;0.5755;0.9469;
1253.4000;0.5755;0.9446;
1253.7000;0.5747;0.9469;
1254.0000;0.5763;0.9563;
1254.3000;0.5747;0.9539;
1254.6000;0.5731;0.9493;
1254.9000;0.5755;0.9539;
1255.2000;0.5755;0.9469;
1255.5000;0.5731;0.9306;
1255.8000;0.5747;0.9353;
1256.1000;0.5731;0.9306;
1256.4000;0.5739;0.9423;
1256.7000;0.5763;0.9469;
1257.0000;0.5739;0.9493;
1257.3000;0.5690;0.9329;
1257.6000;0.5812;0.9563;
1257.9000;0.5763;0.9399;
1258.2000;0.5739;0.9329;
1258.5000;0.5804;0.9493;
1258.8000;0.5771;0.9283;
1259.1000;0.5755;0.9306;
1259.4000;0.5796;0.9329;
1259.7000;0.5747;0.9283;
1260.0000;0.5747;0.9353;
1260.3000;0.5722;0.9329;
1260.6000;0.5788;0.9469;
1260.9000;0.5739;0.9376;
1261.2000;0.5755;0.9469;
1261.5000;0.5763;0.9539;
1261.8000;0.5779;0.9586;
1262.1000;0.5722;0.9493;
1262.4000;0.5755;0.9539;
1262.7000;0.5804;0.9516;
1263.0000;0.5755;0.9446;
1263.3000;0.5739;0.9423;
1263.6000;0.5788;0.9586;
1263.9000;0.5755;0.9609;
1264.2000;0.5763;0.9633;
1264.5000;0.5747;0.9539;
1264.8000;0.5755;0.9469;
1265.1000;0.5747;0.9423;
1265.4000;0.5771;0.9493;
1265.7000;0.5771;0.9446;
1266.0000;0.5763;0.9469;
1266.3000;0.5779;0.9516;
1266.6000;0.5779;0.9516;
1266.9000;0.5771;0.9633;
1267.2000;0.5755;0.9749;
1267.5000;0.5771;0.9749;
1267.8000;0.5755;0.9726;
1268.1000;0.5771;0.9726;
1268.4000;0.5755;0.9679;
1268.7000;0.5747;0.9656;
1269.0000;0.5755;0.9609;
1269.3000;0.5755;0.9586;
1269.6000;0.5763;0.9563;
1269.9000;0.5747;0.9609;
1270.2000;0.5747;0.9563;
1270.5000;0.5763;0.9539;
1270.8000;0.5763;0.9493;
1271.1000;0.5731;0.9306;
1271.4000;0.5682;0.9236;
1271.7000;0.5771;0.9493;
1272.0000;0.5755;0.9493;
1272.3000;0.5755;0.9469;
1272.6000;0.5763;0.9586;
1272.9000;0.5779;0.9609;
1273.2000;0.5763;0.9563;
1273.5000;0.5763;0.9423;
1273.8000;0.5755;0.9376;
1274.1000;0.5771;0.9376;
1274.4000;0.5779;0.9469;
1274.7000;0.5763;0.9353;
1275.0000;0.5771;0.9376;
1275.3000;0.5739;0.9353;
1275.6000;0.5747;0.9353;
1275.9000;0.5763;0.9446;
1276.2000;0.5755;0.9399;
1276.5000;0.5739;0.9423;
1276.8000;0.5763;0.9493;
1277.1000;0.5739;0.9446;
1277.4000;0.5739;0.9446;
1277.7000;0.5763;0.9656;
1278.0000;0.5755;0.9726;
1278.3000;0.5771;0.9749;
1278.6000;0.5755;0.9679;
1278.9000;0.5755;0.9609;
1279.2000;0.5771;0.9726;
1279.5000;0.5779;0.9656;
1279.8000;0.5755;0.9563;
1280.1000;0.5763;0.9516;
1280.4000;0.5714;0.9446;
1280.7000;0.5747;0.9609;
1281.0000;0.5820;0.9749;
1281.3000;0.5771;0.9586;
1281.6000;0.5779;0.9563;
1281.9000;0.5779;0.9539;
1282.2000;0.5771;0.9446;
1282.5000;0.5788;0.9516;
1282.8000;0.5779;0.9539;
1283.1000;0.5771;0.9539;
1283.4000;0.5788;0.9539;
1283.7000;0.5771;0.9516;
1284.0000;0.5771;0.9516;
1284.3000;0.5682;0.9213;
1284.6000;0.5771;0.9399;
1284.9000;0.5771;0.9376;
1285.2000;0.5763;0.9446;
1285.5000;0.5771;0.9493;
1285.8000;0.5771;0.9399;
1286.1000;0.5763;0.9376;
1286.4000;0.5755;0.9353;
1286.7000;0.5755;0.9446;
1287.0000;0.5771;0.9469;
1287.3000;0.5763;0.9493;
1287.6000;0.5771;0.9493;
1287.9000;0.5771;0.9493;
1288.2000;0.5771;0.9539;
1288.5000;0.5796;0.9586;
1288.8000;0.5771;0.9563;
1289.1000;0.5763;0.9539;
1289.4000;0.5747;0.9446;
1289.7000;0.5771;0.9609;
1290.0000;0.5771;0.9539;
1290.3000;0.5747;0.9516;
1290.6000;0.5763;0.9563;
1290.9000;0.5755;0.9516;
1291.2000;0.5722;0.9493;
1291.5000;0.5763;0.9563;
1291.8000;0.5739;0.9516;
1292.1000;0.5779;0.9633;
1292.4000;0.5657;0.9399;
1292.7000;0.5763;0.9609;
1293.0000;0.5747;0.9586;
1293.3000;0.5771;0.9586;
1293.6000;0.5763;0.9516;
1293.9000;0.5763;0.9516;
1294.2000;0.5755;0.9493;
1294.5000;0.5747;0.9399;
1294.8000;0.5698;0.9213;
1295.1000;0.5771;0.9446;
1295.4000;0.5722;0.9399;
1295.7000;0.5755;0.9493;
1296.0000;0.5755;0.9586;
1296.3000;0.5722;0.9516;
1296.6000;0.5755;0.9539;
1296.9000;0.5747;0.9563;
1297.2000;0.5779;0.9609;
1297.5000;0.5755;0.9586;
1297.8000;0.5763;0.9516;
1298.1000;0.5763;0.9493;
1298.4000;0.5731;0.9423;
1298.7000;0.5747;0.9423;
1299.0000;0.5690;0.9283;
1299.3000;0.5747;0.9469;
1299.6000;0.5788;0.9609;
1299.9000;0.5763;0.9609;
1300.2000;0.5771;0.9563;
1300.5000;0.5861;0.9773;
1300.8000;0.5731;0.9493;
1301.1000;0.5714;0.9353;
1301.4000;0.5763;0.9469;
1301.7000;0.5763;0.9469;
1302.0000;0.5739;0.9516;
1302.3000;0.5763;0.9656;
1302.6000;0.5771;0.9726;
1302.9000;0.5788;0.9796;
1303.2000;0.5845;0.9936;
1303.5000;0.5747;0.9703;
1303.8000;0.5788;0.9679;
1304.1000;0.5722;0.9423;
1304.4000;0.5763;0.9423;
1304.7000;0.5779;0.9399;
1305.0000;0.5755;0.9423;
1305.3000;0.5755;0.9539;
1305.6000;0.5771;0.9586;
1305.9000;0.5763;0.9539;
1306.2000;0.5739;0.9469;
1306.5000;0.5763;0.9563;
1306.8000;0.5763;0.9586;
1307.1000;0.5747;0.9586;
1307.4000;0.5755;0.9633;
1307.7000;0.5796;0.9656;
1308.0000;0.5755;0.9493;
1308.3000;0.5755;0.9516;
1308.6000;0.5771;0.9609;
1308.9000;0.5771;0.9563;
1309.2000;0.5763;0.9539;
1309.5000;0.5771;0.9376;
1309.8000;0.5755;0.9469;
1310.1000;0.5763;0.9586;
1310.4000;0.5755;0.9493;
1310.7000;0.5747;0.9539;
1311.0000;0.5763;0.9539;
1311.3000;0.5771;0.9586;
1311.6000;0.5731;0.9376;
1311.9000;0.5755;0.9446;
1312.2000;0.5763;0.9446;
1312.5000;0.5747;0.9469;
1312.8000;0.5747;0.9493;
1313.1000;0.5763;0.9516;
1313.4000;0.5796;0.9609;
1313.7000;0.5771;0.9539;
1314.0000;0.5763;0.9493;
1314.3000;0.5731;0.9493;
1314.6000;0.5755;0.9516;
1314.9000;0.5755;0.9493;
1315.2000;0.5771;0.9493;
1315.5000;0.5755;0.9469;
1315.8000;0.5763;0.9469;
1316.1000;0.5739;0.9446;
1316.4000;0.5747;0.9516;
1316.7000;0.5755;0.9469;
1317.0000;0.5755;0.9376;
1317.3000;0.5739;0.9376;
1317.6000;0.5771;0.9423;
1317.9000;0.5771;0.9423;
1318.2000;0.5771;0.9446;
1318.5000;0.5755;0.9423;
1318.8000;0.5665;0.9213;
1319.1000;0.5755;0.9399;
1319.4000;0.5771;0.9399;
1319.7000;0.5747;0.9306;
1320.0000;0.5755;0.9329;
1320.3000;0.5755;0.9376;
1320.6000;0.5763;0.9399;
1320.9000;0.5763;0.9423;
1321.2000;0.5771;0.9446;
1321.5000;0.5755;0.9399;
1321.8000;0.5763;0.9376;
1322.1000;0.5755;0.9376;
1322.4000;0.5755;0.9376;
1322.7000;0.5731;0.9236;
1323.0000;0.5747;0.9213;
1323.3000;0.5747;0.9283;
1323.6000;0.5755;0.9283;
1323.9000;0.5755;0.9260;
1324.2000;0.5804;0.9376;
1324.5000;0.5755;0.9376;
1324.8000;0.5755;0.9423;
1325.1000;0.5763;0.9423;
1325.4000;0.5763;0.9516;
1325.7000;0.5763;0.9493;
1326.0000;0.5763;0.9493;
1326.3000;0.5763;0.9516;
1326.6000;0.5698;0.9423;
1326.9000;0.5779;0.9609;
1327.2000;0.5755;0.9469;
1327.5000;0.5739;0.9399;
1327.8000;0.5763;0.9329;
1328.1000;0.5812;0.9446;
1328.4000;0.5731;0.9283;
1328.7000;0.5755;0.9306;
1329.0000;0.5763;0.9329;
1329.3000;0.5714;0.9306;
1329.6000;0.5771;0.9493;
1329.9000;0.5779;0.9516;
1330.2000;0.5763;0.9469;
1330.5000;0.5755;0.9516;
1330.8000;0.5771;0.9586;
1331.1000;0.5739;0.9609;
1331.4000;0.5747;0.9563;
1331.7000;0.5755;0.9563;
1332.0000;0.5755;0.9539;
1332.3000;0.5755;0.9633;
1332.6000;0.5747;0.9679;
1332.9000;0.5763;0.9749;
1333.2000;0.5747;0.9796;
1333.5000;0.5755;0.9749;
1333.8000;0.5747;0.9773;
1334.1000;0.5739;0.9773;
1334.4000;0.5755;0.9819;
1334.7000;0.5779;0.9796;
1335.0000;0.5779;0.9796;
1335.3000;0.5755;0.9703;
1335.6000;0.5771;0.9656;
1335.9000;0.5731;0.9586;
1336.2000;0.5804;0.9726;
1336.5000;0.5788;0.9633;
1336.8000;0.5763;0.9516;
1337.1000;0.5739;0.9446;
1337.4000;0.5788;0.9539;
1337.7000;0.5747;0.9446;
1338.0000;0.5763;0.9423;
1338.3000;0.5771;0.9469;
1338.6000;0.5755;0.9469;
1338.9000;0.5771;0.9539;
1339.2000;0.5739;0.9516;
1339.5000;0.5771;0.9563;
1339.8000;0.5771;0.9563;
1340.1000;0.5771;0.9539;
1340.4000;0.5755;0.9446;
1340.7000;0.5771;0.9586;
1341.0000;0.5755;0.9609;
1341.3000;0.5779;0.9563;
1341.6000;0.5755;0.9469;
1341.9000;0.5755;0.9516;
1342.2000;0.5755;0.9563;
1342.5000;0.5763;0.9633;
1342.8000;0.5755;0.9609;
1343.1000;0.5755;0.9563;
1343.4000;0.5731;0.9493;
1343.7000;0.5763;0.9609;
1344.0000;0.5755;0.9563;
1344.3000;0.5763;0.9539;
1344.6000;0.5763;0.9493;
1344.9000;0.5788;0.9586;
1345.2000;0.5779;0.9586;
1345.5000;0.5771;0.9563;
1345.8000;0.5763;0.9656;
1346.1000;0.5763;0.9679;
1346.4000;0.5739;0.9609;
1346.7000;0.5747;0.9563;
1347.0000;0.5747;0.9493;
1347.3000;0.5763;0.9563;
1347.6000;0.5771;0.9609;
1347.9000;0.5755;0.9656;
1348.2000;0.5763;0.9679;
1348.5000;0.5739;0.9586;
1348.8000;0.5763;0.9679;
1349.1000;0.5739;0.9656;
1349.4000;0.5771;0.9726;
1349.7000;0.5763;0.9656;
1350.0000;0.5755;0.9586;
1350.3000;0.5771;0.9563;
1350.6000;0.5755;0.9469;
1350.9000;0.5739;0.9469;
1351.2000;0.5763;0.9423;
1351.5000;0.5690;0.9283;
1351.8000;0.5755;0.9446;
1352.1000;0.5763;0.9493;
1352.4000;0.5877;0.9819;
1352.7000;0.5771;0.9516;
1353.0000;0.5722;0.9353;
1353.3000;0.5747;0.9399;
1353.6000;0.5796;0.9586;
1353.9000;0.5706;0.9353;
1354.2000;0.5763;0.9423;
1354.5000;0.5714;0.9376;
1354.8000;0.5779;0.9539;
1355.1000;0.5763;0.9516;
1355.4000;0.5788;0.9539;
1355.7000;0.5755;0.9446;
1356.0000;0.5698;0.9260;
1356.3000;0.5788;0.9539;
1356.6000;0.5771;0.9469;
1356.9000;0.5812;0.9539;
1357.2000;0.5755;0.9493;
1357.5000;0.5771;0.9563;
1357.8000;0.5755;0.9609;
1358.1000;0.5771;0.9656;
1358.4000;0.5796;0.9726;
1358.7000;0.5755;0.9656;
1359.0000;0.5747;0.9609;
1359.3000;0.5739;0.9586;
1359.6000;0.5812;0.9656;
1359.9000;0.5771;0.9609;
1360.2000;0.5731;0.9563;
1360.5000;0.5747;0.9516;
1360.8000;0.5722;0.9399;
1361.1000;0.5755;0.9376;
1361.4000;0.5763;0.9539;
1361.7000;0.5771;0.9539;
1362.0000;0.5771;0.9516;
1362.3000;0.5755;0.9539;
1362.6000;0.5755;0.9493;
1362.9000;0.5779;0.9586;
1363.2000;0.5796;0.9516;
1363.5000;0.5763;0.9353;
1363.8000;0.5739;0.9283;
1364.1000;0.5755;0.9329;
1364.4000;0.5739;0.9376;
1364.7000;0.5771;0.9539;
1365.0000;0.5747;0.9516;
1365.3000;0.5771;0.9493;
1365.6000;0.5779;0.9446;
1365.9000;0.5747;0.9353;
1366.2000;0.5755;0.9329;
1366.5000;0.5771;0.9423;
1366.8000;0.5771;0.9423;
1367.1000;0.5755;0.9399;
1367.4000;0.5747;0.9399;
1367.7000;0.5755;0.9306;
1368.0000;0.5714;0.9236;
1368.3000;0.5755;0.9190;
1368.6000;0.5763;0.9143;
1368.9000;0.5755;0.9143;
1369.2000;0.5788;0.9190;
1369.5000;0.5682;0.8980;
1369.8000;0.5853;0.9306;
1370.1000;0.5755;0.9073;
1370.4000;0.5788;0.9190;
1370.7000;0.5788;0.9166;
1371.0000;0.5674;0.8863;
1371.3000;0.5853;0.9353;
1371.6000;0.5755;0.9096;
1371.9000;0.5771;0.9143;
1372.2000;0.5779;0.9120;
1372.5000;0.5771;0.9143;
1372.8000;0.5796;0.9329;
1373.1000;0.5788;0.9260;
1373.4000;0.5788;0.9236;
1373.7000;0.5763;0.9190;
1374.0000;0.5763;0.9143;
1374.3000;0.5812;0.9446;
1374.6000;0.5706;0.9166;
1374.9000;0.5755;0.9306;
1375.2000;0.5755;0.9283;
1375.5000;0.5779;0.9236;
1375.8000;0.5771;0.9213;
1376.1000;0.5869;0.9446;
1376.4000;0.5804;0.9353;
1376.7000;0.5788;0.9399;
1377.0000;0.5779;0.9376;
1377.3000;0.5763;0.9353;
1377.6000;0.5755;0.9469;
1377.9000;0.5779;0.9469;
1378.2000;0.5739;0.9423;
1378.5000;0.5763;0.9469;
1378.8000;0.5747;0.9353;
1379.1000;0.5755;0.9306;
1379.4000;0.5747;0.9260;
1379.7000;0.5739;0.9236;
1380.0000;0.5755;0.9306;
1380.3000;0.5771;0.9353;
1380.6000;0.5763;0.9190;
1380.9000;0.5796;0.9260;
1381.2000;0.5771;0.9236;
1381.5000;0.5779;0.9213;
1381.8000;0.5747;0.9190;
1382.1000;0.5771;0.9306;
1382.4000;0.5771;0.9283;
1382.7000;0.5763;0.9260;
1383.0000;0.5763;0.9306;
1383.3000;0.5747;0.9306;
1383.6000;0.5771;0.9446;
1383.9000;0.5763;0.9469;
1384.2000;0.5755;0.9399;
1384.5000;0.5763;0.9493;
1384.8000;0.5747;0.9423;
1385.1000;0.5763;0.9493;
1385.4000;0.5788;0.9493;
1385.7000;0.5779;0.9446;
1386.0000;0.5771;0.9376;
1386.3000;0.5771;0.9469;
1386.6000;0.5796;0.9446;
1386.9000;0.5796;0.9353;
1387.2000;0.5698;0.9120;
1387.5000;0.5755;0.9283;
1387.8000;0.5771;0.9446;
1388.1000;0.5771;0.9446;
1388.4000;0.5771;0.9423;
1388.7000;0.5779;0.9469;
1389.0000;0.5731;0.9446;
1389.3000;0.5747;0.9493;
1389.6000;0.5771;0.9493;
1389.9000;0.5763;0.9399;
1390.2000;0.5747;0.9376;
1390.5000;0.5739;0.9306;
1390.8000;0.5763;0.9423;
1391.1000;0.5763;0.9516;
1391.4000;0.5788;0.9703;
1391.7000;0.5779;0.9843;
1392.0000;0.5763;0.9819;
1392.3000;0.5771;0.9773;
1392.6000;0.5739;0.9656;
1392.9000;0.5771;0.9703;
1393.2000;0.5747;0.9679;
1393.5000;0.5763;0.9726;
1393.8000;0.5763;0.9656;
1394.1000;0.5763;0.9656;
1394.4000;0.5739;0.9633;
1394.7000;0.5747;0.9609;
1395.0000;0.5739;0.9633;
1395.3000;0.5747;0.9563;
1395.6000;0.5755;0.9563;
1395.9000;0.5755;0.9493;
1396.2000;0.5755;0.9493;
1396.5000;0.5755;0.9563;
1396.8000;0.5763;0.9633;
1397.1000;0.5747;0.9633;
1397.4000;0.5771;0.9656;
1397.7000;0.5771;0.9586;
1398.0000;0.5763;0.9469;
1398.3000;0.5763;0.9446;
1398.6000;0.5771;0.9423;
1398.9000;0.5771;0.9539;
1399.2000;0.5771;0.9539;
1399.5000;0.5771;0.9469;
1399.8000;0.5755;0.9399;
