time/ms;Fluo/V;P700 deltaI/I x10³;
-199.8000;0.4330;0.8762;
-199.5000;0.4249;0.8573;
-199.2000;0.4314;0.8644;
-198.9000;0.4274;0.8549;
-198.6000;0.4200;0.8383;
-198.3000;0.4257;0.8431;
-198.0000;0.4200;0.8217;
-197.7000;0.4282;0.8407;
-197.4000;0.4282;0.8407;
-197.1000;0.4265;0.8360;
-196.8000;0.4290;0.8383;
-196.5000;0.4233;0.8265;
-196.2000;0.4290;0.8407;
-195.9000;0.4265;0.8407;
-195.6000;0.4257;0.8431;
-195.3000;0.4249;0.8454;
-195.0000;0.4274;0.8383;
-194.7000;0.4257;0.8454;
-194.4000;0.4274;0.8407;
-194.1000;0.4282;0.8360;
-193.8000;0.4257;0.8336;
-193.5000;0.4282;0.8431;
-193.2000;0.4257;0.8336;
-192.9000;0.4257;0.8265;
-192.6000;0.4282;0.8360;
-192.3000;0.4306;0.8383;
-192.0000;0.4265;0.8194;
-191.7000;0.4265;0.8289;
-191.4000;0.4257;0.8312;
-191.1000;0.4249;0.8431;
-190.8000;0.4265;0.8573;
-190.5000;0.4249;0.8525;
-190.2000;0.4274;0.8691;
-189.9000;0.4274;0.8715;
-189.6000;0.4282;0.8667;
-189.3000;0.4265;0.8596;
-189.0000;0.4249;0.8478;
-188.7000;0.4274;0.8478;
-188.4000;0.4274;0.8454;
-188.1000;0.4314;0.8620;
-187.8000;0.4282;0.8454;
-187.5000;0.4249;0.8454;
-187.2000;0.4274;0.8596;
-186.9000;0.4192;0.8383;
-186.6000;0.4257;0.8549;
-186.3000;0.4265;0.8525;
-186.0000;0.4306;0.8667;
-185.7000;0.4274;0.8478;
-185.4000;0.4282;0.8502;
-185.1000;0.4217;0.8312;
-184.8000;0.4274;0.8478;
-184.5000;0.4274;0.8431;
-184.2000;0.4306;0.8478;
-183.9000;0.4265;0.8454;
-183.6000;0.4257;0.8525;
-183.3000;0.4347;0.8762;
-183.0000;0.4249;0.8525;
-182.7000;0.4249;0.8525;
-182.4000;0.4282;0.8549;
-182.1000;0.4241;0.8454;
-181.8000;0.4249;0.8407;
-181.5000;0.4233;0.8478;
-181.2000;0.4314;0.8691;
-180.9000;0.4282;0.8620;
-180.6000;0.4282;0.8596;
-180.3000;0.4241;0.8478;
-180.0000;0.4290;0.8620;
-179.7000;0.4274;0.8549;
-179.4000;0.4249;0.8596;
-179.1000;0.4257;0.8620;
-178.8000;0.4241;0.8502;
-178.5000;0.4265;0.8525;
-178.2000;0.4265;0.8431;
-177.9000;0.4265;0.8360;
-177.6000;0.4249;0.8289;
-177.3000;0.4249;0.8289;
-177.0000;0.4265;0.8383;
-176.7000;0.4257;0.8383;
-176.4000;0.4274;0.8431;
-176.1000;0.4274;0.8407;
-175.8000;0.4282;0.8431;
-175.5000;0.4257;0.8431;
-175.2000;0.4257;0.8407;
-174.9000;0.4274;0.8454;
-174.6000;0.4257;0.8383;
-174.3000;0.4225;0.8289;
-174.0000;0.4322;0.8549;
-173.7000;0.4241;0.8454;
-173.4000;0.4265;0.8478;
-173.1000;0.4274;0.8478;
-172.8000;0.4257;0.8407;
-172.5000;0.4241;0.8360;
-172.2000;0.4282;0.8478;
-171.9000;0.4274;0.8478;
-171.6000;0.4265;0.8454;
-171.3000;0.4241;0.8431;
-171.0000;0.4265;0.8454;
-170.7000;0.4257;0.8454;
-170.4000;0.4257;0.8478;
-170.1000;0.4225;0.8360;
-169.8000;0.4265;0.8454;
-169.5000;0.4387;0.8786;
-169.2000;0.4274;0.8502;
-168.9000;0.4265;0.8431;
-168.6000;0.4241;0.8478;
-168.3000;0.4241;0.8454;
-168.0000;0.4249;0.8431;
-167.7000;0.4241;0.8454;
-167.4000;0.4225;0.8407;
-167.1000;0.4257;0.8596;
-166.8000;0.4265;0.8525;
-166.5000;0.4274;0.8478;
-166.2000;0.4282;0.8431;
-165.9000;0.4274;0.8312;
-165.6000;0.4265;0.8265;
-165.3000;0.4257;0.8312;
-165.0000;0.4257;0.8265;
-164.7000;0.4330;0.8549;
-164.4000;0.4339;0.8549;
-164.1000;0.4298;0.8360;
-163.8000;0.4274;0.8289;
-163.5000;0.4257;0.8289;
-163.2000;0.4257;0.8360;
-162.9000;0.4282;0.8454;
-162.6000;0.4265;0.8502;
-162.3000;0.4233;0.8336;
-162.0000;0.4249;0.8478;
-161.7000;0.4257;0.8478;
-161.4000;0.4330;0.8596;
-161.1000;0.4265;0.8360;
-160.8000;0.4274;0.8383;
-160.5000;0.4249;0.8383;
-160.2000;0.4274;0.8360;
-159.9000;0.4265;0.8289;
-159.6000;0.4282;0.8289;
-159.3000;0.4274;0.8289;
-159.0000;0.4241;0.8217;
-158.7000;0.4192;0.8075;
-158.4000;0.4249;0.8217;
-158.1000;0.4265;0.8241;
-157.8000;0.4257;0.8312;
-157.5000;0.4249;0.8336;
-157.2000;0.4274;0.8383;
-156.9000;0.4249;0.8289;
-156.6000;0.4265;0.8289;
-156.3000;0.4298;0.8407;
-156.0000;0.4257;0.8312;
-155.7000;0.4274;0.8360;
-155.4000;0.4265;0.8407;
-155.1000;0.4306;0.8407;
-154.8000;0.4265;0.8360;
-154.5000;0.4249;0.8431;
-154.2000;0.4257;0.8454;
-153.9000;0.4274;0.8454;
-153.6000;0.4249;0.8336;
-153.3000;0.4290;0.8502;
-153.0000;0.4282;0.8525;
-152.7000;0.4371;0.8786;
-152.4000;0.4265;0.8407;
-152.1000;0.4257;0.8289;
-151.8000;0.4249;0.8312;
-151.5000;0.4265;0.8289;
-151.2000;0.4265;0.8265;
-150.9000;0.4257;0.8241;
-150.6000;0.4241;0.8217;
-150.3000;0.4257;0.8312;
-150.0000;0.4249;0.8312;
-149.7000;0.4265;0.8383;
-149.4000;0.4249;0.8360;
-149.1000;0.4274;0.8383;
-148.8000;0.4257;0.8502;
-148.5000;0.4330;0.8596;
-148.2000;0.4265;0.8360;
-147.9000;0.4265;0.8407;
-147.6000;0.4322;0.8596;
-147.3000;0.4282;0.8525;
-147.0000;0.4282;0.8383;
-146.7000;0.4249;0.8312;
-146.4000;0.4233;0.8383;
-146.1000;0.4257;0.8407;
-145.8000;0.4290;0.8525;
-145.5000;0.4257;0.8454;
-145.2000;0.4282;0.8478;
-144.9000;0.4274;0.8478;
-144.6000;0.4347;0.8596;
-144.3000;0.4274;0.8431;
-144.0000;0.4257;0.8549;
-143.7000;0.4257;0.8573;
-143.4000;0.4257;0.8502;
-143.1000;0.4257;0.8525;
-142.8000;0.4241;0.8431;
-142.5000;0.4265;0.8383;
-142.2000;0.4265;0.8360;
-141.9000;0.4257;0.8454;
-141.6000;0.4241;0.8431;
-141.3000;0.4257;0.8454;
-141.0000;0.4265;0.8454;
-140.7000;0.4192;0.8194;
-140.4000;0.4233;0.8312;
-140.1000;0.4282;0.8454;
-139.8000;0.4290;0.8478;
-139.5000;0.4208;0.8289;
-139.2000;0.4274;0.8478;
-138.9000;0.4282;0.8525;
-138.6000;0.4257;0.8407;
-138.3000;0.4257;0.8431;
-138.0000;0.4257;0.8454;
-137.7000;0.4290;0.8454;
-137.4000;0.4282;0.8360;
-137.1000;0.4265;0.8360;
-136.8000;0.4322;0.8502;
-136.5000;0.4265;0.8360;
-136.2000;0.4265;0.8407;
-135.9000;0.4282;0.8383;
-135.6000;0.4282;0.8502;
-135.3000;0.4282;0.8502;
-135.0000;0.4274;0.8454;
-134.7000;0.4282;0.8454;
-134.4000;0.4282;0.8383;
-134.1000;0.4274;0.8454;
-133.8000;0.4265;0.8312;
-133.5000;0.4257;0.8336;
-133.2000;0.4257;0.8407;
-132.9000;0.4265;0.8383;
-132.6000;0.4257;0.8360;
-132.3000;0.4257;0.8407;
-132.0000;0.4298;0.8454;
-131.7000;0.4249;0.8383;
-131.4000;0.4249;0.8265;
-131.1000;0.4282;0.8360;
-130.8000;0.4274;0.8360;
-130.5000;0.4249;0.8265;
-130.2000;0.4274;0.8289;
-129.9000;0.4290;0.8360;
-129.6000;0.4257;0.8360;
-129.3000;0.4274;0.8454;
-129.0000;0.4274;0.8454;
-128.7000;0.4249;0.8454;
-128.4000;0.4265;0.8549;
-128.1000;0.4265;0.8549;
-127.8000;0.4241;0.8573;
-127.5000;0.4306;0.8715;
-127.2000;0.4274;0.8691;
-126.9000;0.4282;0.8715;
-126.6000;0.4274;0.8644;
-126.3000;0.4265;0.8549;
-126.0000;0.4274;0.8478;
-125.7000;0.4282;0.8407;
-125.4000;0.4257;0.8312;
-125.1000;0.4282;0.8383;
-124.8000;0.4290;0.8289;
-124.5000;0.4274;0.8360;
-124.2000;0.4274;0.8407;
-123.9000;0.4249;0.8336;
-123.6000;0.4241;0.8312;
-123.3000;0.4257;0.8407;
-123.0000;0.4217;0.8289;
-122.7000;0.4265;0.8431;
-122.4000;0.4249;0.8454;
-122.1000;0.4249;0.8525;
-121.8000;0.4233;0.8549;
-121.5000;0.4257;0.8502;
-121.2000;0.4208;0.8431;
-120.9000;0.4290;0.8596;
-120.6000;0.4257;0.8549;
-120.3000;0.4208;0.8454;
-120.0000;0.4249;0.8573;
-119.7000;0.4217;0.8620;
-119.4000;0.4257;0.8620;
-119.1000;0.4257;0.8573;
-118.8000;0.4160;0.8289;
-118.5000;0.4265;0.8525;
-118.2000;0.4265;0.8502;
-117.9000;0.4282;0.8525;
-117.6000;0.4233;0.8336;
-117.3000;0.4306;0.8407;
-117.0000;0.4282;0.8312;
-116.7000;0.4233;0.8170;
-116.4000;0.4290;0.8431;
-116.1000;0.4265;0.8525;
-115.8000;0.4249;0.8549;
-115.5000;0.4274;0.8620;
-115.2000;0.4274;0.8644;
-114.9000;0.4241;0.8525;
-114.6000;0.4249;0.8596;
-114.3000;0.4249;0.8596;
-114.0000;0.4249;0.8502;
-113.7000;0.4274;0.8478;
-113.4000;0.4249;0.8431;
-113.1000;0.4192;0.8289;
-112.8000;0.4208;0.8336;
-112.5000;0.4274;0.8478;
-112.2000;0.4282;0.8502;
-111.9000;0.4257;0.8407;
-111.6000;0.4265;0.8431;
-111.3000;0.4241;0.8431;
-111.0000;0.4265;0.8431;
-110.7000;0.4249;0.8336;
-110.4000;0.4265;0.8360;
-110.1000;0.4241;0.8336;
-109.8000;0.4257;0.8312;
-109.5000;0.4274;0.8336;
-109.2000;0.4257;0.8431;
-108.9000;0.4249;0.8383;
-108.6000;0.4241;0.8289;
-108.3000;0.4249;0.8383;
-108.0000;0.4265;0.8407;
-107.7000;0.4257;0.8265;
-107.4000;0.4265;0.8265;
-107.1000;0.4257;0.8217;
-106.8000;0.4265;0.8217;
-106.5000;0.4322;0.8360;
-106.2000;0.4265;0.8265;
-105.9000;0.4265;0.8336;
-105.6000;0.4249;0.8289;
-105.3000;0.4257;0.8241;
-105.0000;0.4241;0.8194;
-104.7000;0.4265;0.8194;
-104.4000;0.4192;0.7981;
-104.1000;0.4265;0.8194;
-103.8000;0.4257;0.8217;
-103.5000;0.4225;0.8099;
-103.2000;0.4265;0.8241;
-102.9000;0.4274;0.8265;
-102.6000;0.4265;0.8289;
-102.3000;0.4274;0.8360;
-102.0000;0.4265;0.8407;
-101.7000;0.4265;0.8407;
-101.4000;0.4257;0.8454;
-101.1000;0.4241;0.8431;
-100.8000;0.4249;0.8431;
-100.5000;0.4217;0.8312;
-100.2000;0.4265;0.8407;
-99.9000;0.4241;0.8289;
-99.6000;0.4265;0.8241;
-99.3000;0.4233;0.8146;
-99.0000;0.4265;0.8217;
-98.7000;0.4257;0.8194;
-98.4000;0.4265;0.8289;
-98.1000;0.4249;0.8265;
-97.8000;0.4282;0.8241;
-97.5000;0.4265;0.8217;
-97.2000;0.4265;0.8289;
-96.9000;0.4233;0.8265;
-96.6000;0.4265;0.8312;
-96.3000;0.4274;0.8312;
-96.0000;0.4208;0.8194;
-95.7000;0.4274;0.8431;
-95.4000;0.4249;0.8336;
-95.1000;0.4184;0.8194;
-94.8000;0.4257;0.8431;
-94.5000;0.4274;0.8407;
-94.2000;0.4257;0.8312;
-93.9000;0.4379;0.8620;
-93.6000;0.4257;0.8312;
-93.3000;0.4249;0.8217;
-93.0000;0.4404;0.8620;
-92.7000;0.4274;0.8265;
-92.4000;0.4265;0.8265;
-92.1000;0.4257;0.8099;
-91.8000;0.4347;0.8336;
-91.5000;0.4274;0.8146;
-91.2000;0.4241;0.8194;
-90.9000;0.4249;0.8241;
-90.6000;0.4257;0.8241;
-90.3000;0.4298;0.8407;
-90.0000;0.4184;0.8075;
-89.7000;0.4249;0.8217;
-89.4000;0.4257;0.8265;
-89.1000;0.4241;0.8241;
-88.8000;0.4314;0.8407;
-88.5000;0.4282;0.8217;
-88.2000;0.4282;0.8312;
-87.9000;0.4282;0.8360;
-87.6000;0.4274;0.8360;
-87.3000;0.4274;0.8383;
-87.0000;0.4274;0.8407;
-86.7000;0.4265;0.8407;
-86.4000;0.4290;0.8431;
-86.1000;0.4274;0.8336;
-85.8000;0.4241;0.8289;
-85.5000;0.4249;0.8312;
-85.2000;0.4274;0.8431;
-84.9000;0.4257;0.8407;
-84.6000;0.4265;0.8454;
-84.3000;0.4282;0.8478;
-84.0000;0.4363;0.8762;
-83.7000;0.4257;0.8407;
-83.4000;0.4330;0.8431;
-83.1000;0.4257;0.8217;
-82.8000;0.4282;0.8336;
-82.5000;0.4274;0.8407;
-82.2000;0.4257;0.8336;
-81.9000;0.4249;0.8265;
-81.6000;0.4257;0.8312;
-81.3000;0.4257;0.8431;
-81.0000;0.4225;0.8431;
-80.7000;0.4282;0.8573;
-80.4000;0.4257;0.8573;
-80.1000;0.4265;0.8478;
-79.8000;0.4265;0.8478;
-79.5000;0.4241;0.8431;
-79.2000;0.4249;0.8549;
-78.9000;0.4257;0.8525;
-78.6000;0.4282;0.8478;
-78.3000;0.4249;0.8336;
-78.0000;0.4265;0.8431;
-77.7000;0.4265;0.8336;
-77.4000;0.4241;0.8241;
-77.1000;0.4265;0.8265;
-76.8000;0.4265;0.8217;
-76.5000;0.4257;0.8123;
-76.2000;0.4282;0.8265;
-75.9000;0.4233;0.8146;
-75.6000;0.4290;0.8194;
-75.3000;0.4241;0.8075;
-75.0000;0.4265;0.8099;
-74.7000;0.4265;0.8217;
-74.4000;0.4241;0.8194;
-74.1000;0.4257;0.8241;
-73.8000;0.4274;0.8265;
-73.5000;0.4233;0.8123;
-73.2000;0.4282;0.8265;
-72.9000;0.4290;0.8289;
-72.6000;0.4233;0.8170;
-72.3000;0.4306;0.8194;
-72.0000;0.4298;0.8194;
-71.7000;0.4257;0.8217;
-71.4000;0.4233;0.8170;
-71.1000;0.4339;0.8383;
-70.8000;0.4282;0.8289;
-70.5000;0.4233;0.8146;
-70.2000;0.4241;0.8217;
-69.9000;0.4200;0.8075;
-69.6000;0.4330;0.8360;
-69.3000;0.4265;0.8241;
-69.0000;0.4241;0.8123;
-68.7000;0.4249;0.8146;
-68.4000;0.4339;0.8383;
-68.1000;0.4282;0.8241;
-67.8000;0.4314;0.8360;
-67.5000;0.4241;0.8123;
-67.2000;0.4274;0.8265;
-66.9000;0.4249;0.8217;
-66.6000;0.4306;0.8407;
-66.3000;0.4208;0.8146;
-66.0000;0.4265;0.8241;
-65.7000;0.4257;0.8194;
-65.4000;0.4282;0.8312;
-65.1000;0.4257;0.8312;
-64.8000;0.4290;0.8407;
-64.5000;0.4265;0.8360;
-64.2000;0.4290;0.8549;
-63.9000;0.4249;0.8336;
-63.6000;0.4257;0.8312;
-63.3000;0.4257;0.8336;
-63.0000;0.4265;0.8194;
-62.7000;0.4282;0.8146;
-62.4000;0.4257;0.8123;
-62.1000;0.4298;0.8146;
-61.8000;0.4298;0.8146;
-61.5000;0.4274;0.8052;
-61.2000;0.4274;0.8146;
-60.9000;0.4257;0.8241;
-60.6000;0.4282;0.8360;
-60.3000;0.4265;0.8241;
-60.0000;0.4241;0.8241;
-59.7000;0.4257;0.8383;
-59.4000;0.4241;0.8289;
-59.1000;0.4241;0.8289;
-58.8000;0.4241;0.8265;
-58.5000;0.4265;0.8312;
-58.2000;0.4257;0.8265;
-57.9000;0.4257;0.8312;
-57.6000;0.4257;0.8360;
-57.3000;0.4249;0.8289;
-57.0000;0.4306;0.8360;
-56.7000;0.4274;0.8241;
-56.4000;0.4249;0.8123;
-56.1000;0.4257;0.8123;
-55.8000;0.4265;0.8075;
-55.5000;0.4257;0.8099;
-55.2000;0.4257;0.8194;
-54.9000;0.4282;0.8170;
-54.6000;0.4249;0.8170;
-54.3000;0.4282;0.8146;
-54.0000;0.4265;0.8028;
-53.7000;0.4249;0.7957;
-53.4000;0.4290;0.8099;
-53.1000;0.4282;0.8052;
-52.8000;0.4257;0.7910;
-52.5000;0.4282;0.8052;
-52.2000;0.4249;0.8028;
-51.9000;0.4274;0.8170;
-51.6000;0.4249;0.8075;
-51.3000;0.4241;0.8099;
-51.0000;0.4306;0.8289;
-50.7000;0.4274;0.8123;
-50.4000;0.4274;0.8075;
-50.1000;0.4257;0.8170;
-49.8000;0.4249;0.8217;
-49.5000;0.4192;0.7933;
-49.2000;0.4274;0.8194;
-48.9000;0.4322;0.8360;
-48.6000;0.4249;0.8123;
-48.3000;0.4282;0.8194;
-48.0000;0.4298;0.8289;
-47.7000;0.4249;0.8241;
-47.4000;0.4257;0.8265;
-47.1000;0.4217;0.8123;
-46.8000;0.4322;0.8360;
-46.5000;0.4298;0.8265;
-46.2000;0.4265;0.8217;
-45.9000;0.4274;0.8241;
-45.6000;0.4282;0.8289;
-45.3000;0.4249;0.8217;
-45.0000;0.4265;0.8217;
-44.7000;0.4249;0.8312;
-44.4000;0.4257;0.8383;
-44.1000;0.4282;0.8454;
-43.8000;0.4249;0.8360;
-43.5000;0.4241;0.8312;
-43.2000;0.4282;0.8383;
-42.9000;0.4290;0.8383;
-42.6000;0.4274;0.8336;
-42.3000;0.4274;0.8289;
-42.0000;0.4282;0.8146;
-41.7000;0.4274;0.8217;
-41.4000;0.4274;0.8241;
-41.1000;0.4257;0.8265;
-40.8000;0.4257;0.8360;
-40.5000;0.4274;0.8360;
-40.2000;0.4265;0.8312;
-39.9000;0.4257;0.8312;
-39.6000;0.4241;0.8194;
-39.3000;0.4265;0.8265;
-39.0000;0.4282;0.8265;
-38.7000;0.4249;0.8217;
-38.4000;0.4282;0.8289;
-38.1000;0.4265;0.8312;
-37.8000;0.4249;0.8241;
-37.5000;0.4265;0.8265;
-37.2000;0.4274;0.8170;
-36.9000;0.4257;0.8146;
-36.6000;0.4282;0.8265;
-36.3000;0.4249;0.8241;
-36.0000;0.4282;0.8336;
-35.7000;0.4265;0.8265;
-35.4000;0.4257;0.8241;
-35.1000;0.4274;0.8241;
-34.8000;0.4257;0.8194;
-34.5000;0.4298;0.8265;
-34.2000;0.4274;0.8265;
-33.9000;0.4274;0.8194;
-33.6000;0.4257;0.8146;
-33.3000;0.4192;0.7910;
-33.0000;0.4265;0.7957;
-32.7000;0.4225;0.7886;
-32.4000;0.4290;0.8099;
-32.1000;0.4274;0.8075;
-31.8000;0.4274;0.8241;
-31.5000;0.4274;0.8431;
-31.2000;0.4306;0.8596;
-30.9000;0.4282;0.8573;
-30.6000;0.4249;0.8573;
-30.3000;0.4257;0.8644;
-30.0000;0.4265;0.8596;
-29.7000;0.4233;0.8383;
-29.4000;0.4265;0.8525;
-29.1000;0.4257;0.8454;
-28.8000;0.4282;0.8407;
-28.5000;0.4257;0.8241;
-28.2000;0.4265;0.8241;
-27.9000;0.4274;0.8241;
-27.6000;0.4274;0.8336;
-27.3000;0.4282;0.8454;
-27.0000;0.4225;0.8289;
-26.7000;0.4184;0.8170;
-26.4000;0.4282;0.8336;
-26.1000;0.4265;0.8336;
-25.8000;0.4249;0.8312;
-25.5000;0.4290;0.8336;
-25.2000;0.4265;0.8170;
-24.9000;0.4257;0.8099;
-24.6000;0.4192;0.8028;
-24.3000;0.4249;0.8170;
-24.0000;0.4298;0.8312;
-23.7000;0.4298;0.8336;
-23.4000;0.4265;0.8265;
-23.1000;0.4249;0.8241;
-22.8000;0.4265;0.8265;
-22.5000;0.4339;0.8431;
-22.2000;0.4265;0.8289;
-21.9000;0.4265;0.8194;
-21.6000;0.4290;0.8170;
-21.3000;0.4306;0.8217;
-21.0000;0.4290;0.8217;
-20.7000;0.4274;0.8265;
-20.4000;0.4274;0.8312;
-20.1000;0.4249;0.8170;
-19.8000;0.4274;0.8099;
-19.5000;0.4225;0.8052;
-19.2000;0.4274;0.8099;
-18.9000;0.4257;0.8004;
-18.6000;0.4241;0.7957;
-18.3000;0.4257;0.8052;
-18.0000;0.4265;0.8123;
-17.7000;0.4282;0.8241;
-17.4000;0.4257;0.8217;
-17.1000;0.4274;0.8336;
-16.8000;0.4282;0.8383;
-16.5000;0.4257;0.8289;
-16.2000;0.4257;0.8312;
-15.9000;0.4257;0.8289;
-15.6000;0.4249;0.8217;
-15.3000;0.4241;0.8146;
-15.0000;0.4265;0.8146;
-14.7000;0.4265;0.8075;
-14.4000;0.4241;0.8075;
-14.1000;0.4274;0.8146;
-13.8000;0.4257;0.8123;
-13.5000;0.4282;0.8146;
-13.2000;0.4274;0.8123;
-12.9000;0.4274;0.8146;
-12.6000;0.4290;0.8241;
-12.3000;0.4274;0.8052;
-12.0000;0.4290;0.8028;
-11.7000;0.4298;0.8075;
-11.4000;0.4282;0.8052;
-11.1000;0.4282;0.8099;
-10.8000;0.4265;0.8075;
-10.5000;0.4200;0.7981;
-10.2000;0.4265;0.8075;
-9.9000;0.4274;0.8217;
-9.6000;0.4339;0.8360;
-9.3000;0.4257;0.8099;
-9.0000;0.4249;0.8194;
-8.7000;0.4241;0.8194;
-8.4000;0.4249;0.8170;
-8.1000;0.4257;0.8241;
-7.8000;0.4241;0.8052;
-7.5000;0.4265;0.8123;
-7.2000;0.4257;0.8123;
-6.9000;0.4265;0.8099;
-6.6000;0.4290;0.8099;
-6.3000;0.4265;0.7957;
-6.0000;0.4298;0.7910;
-5.7000;0.4265;0.7862;
-5.4000;0.4274;0.7910;
-5.1000;0.4265;0.7862;
-4.8000;0.4274;0.7886;
-4.5000;0.4265;0.7910;
-4.2000;0.4371;0.8194;
-3.9000;0.4290;0.7981;
-3.6000;0.4257;0.7910;
-3.3000;0.4298;0.8028;
-3.0000;0.4257;0.7957;
-2.7000;0.4241;0.7981;
-2.4000;0.4265;0.8052;
-2.1000;0.4265;0.8052;
-1.8000;0.4257;0.7981;
-1.5000;0.4274;0.8075;
-1.2000;0.4306;0.8099;
-0.9000;0.4282;0.8028;
-0.6000;0.4265;0.8052;
-0.3000;0.4274;0.8028;
0.0000;0.4274;0.8028;
0.3000;0.4379;0.8004;
0.6000;0.4477;0.8146;
0.9000;0.4591;0.8336;
1.2000;0.4624;0.8407;
1.5000;0.4746;0.8762;
1.8000;0.4803;0.8786;
2.1000;0.4860;0.8952;
2.4000;0.4884;0.9094;
2.7000;0.4949;0.9259;
3.0000;0.4949;0.9378;
3.3000;0.4949;0.9402;
3.6000;0.4982;0.9544;
3.9000;0.4892;0.9378;
4.2000;0.5063;0.9804;
4.5000;0.5006;0.9662;
4.8000;0.4965;0.9615;
5.1000;0.4998;0.9662;
5.4000;0.5039;0.9757;
5.7000;0.5039;0.9923;
6.0000;0.5039;0.9899;
6.3000;0.5128;1.0041;
6.6000;0.5055;0.9899;
6.9000;0.5063;0.9875;
7.2000;0.5079;0.9923;
7.5000;0.5063;0.9899;
7.8000;0.5063;0.9852;
8.1000;0.5104;0.9804;
8.4000;0.5104;0.9899;
8.7000;0.5088;0.9852;
9.0000;0.5112;0.9828;
9.3000;0.5112;0.9828;
9.6000;0.5128;0.9828;
9.9000;0.5136;0.9828;
10.2000;0.5128;0.9780;
10.5000;0.5144;0.9780;
10.8000;0.5144;0.9828;
11.1000;0.5144;0.9804;
11.4000;0.5161;0.9757;
11.7000;0.5201;0.9875;
12.0000;0.5177;0.9828;
12.3000;0.5193;0.9852;
12.6000;0.5185;0.9804;
12.9000;0.5210;0.9852;
13.2000;0.5201;0.9923;
13.5000;0.5185;0.9875;
13.8000;0.5096;0.9615;
14.1000;0.5185;0.9828;
14.4000;0.5218;0.9875;
14.7000;0.5193;0.9828;
15.0000;0.5177;0.9709;
15.3000;0.5210;0.9733;
15.6000;0.5226;0.9780;
15.9000;0.5210;0.9709;
16.2000;0.5234;0.9780;
16.5000;0.5226;0.9780;
16.8000;0.5234;0.9828;
17.1000;0.5258;0.9804;
17.4000;0.5242;0.9804;
17.7000;0.5226;0.9733;
18.0000;0.5258;0.9686;
18.3000;0.5275;0.9709;
18.6000;0.5283;0.9780;
18.9000;0.5250;0.9733;
19.2000;0.5324;0.9804;
19.5000;0.5307;0.9804;
19.8000;0.5299;0.9875;
20.1000;0.5283;0.9875;
20.4000;0.5283;0.9875;
20.7000;0.5291;0.9923;
21.0000;0.5291;0.9852;
21.3000;0.5307;0.9828;
21.6000;0.5315;0.9852;
21.9000;0.5348;1.0041;
22.2000;0.5332;0.9946;
22.5000;0.5324;0.9946;
22.8000;0.5307;0.9875;
23.1000;0.5348;0.9994;
23.4000;0.5348;0.9970;
23.7000;0.5348;0.9828;
24.0000;0.5397;1.0041;
24.3000;0.5332;0.9923;
24.6000;0.5315;0.9828;
24.9000;0.5340;0.9852;
25.2000;0.5332;0.9686;
25.5000;0.5348;0.9733;
25.8000;0.5340;0.9733;
26.1000;0.5348;0.9780;
26.4000;0.5372;1.0017;
26.7000;0.5332;0.9852;
27.0000;0.5356;0.9875;
27.3000;0.5348;0.9875;
27.6000;0.5340;0.9780;
27.9000;0.5340;0.9757;
28.2000;0.5299;0.9709;
28.5000;0.5381;0.9970;
28.8000;0.5381;0.9994;
29.1000;0.5364;0.9923;
29.4000;0.5381;1.0017;
29.7000;0.5397;1.0065;
30.0000;0.5364;0.9970;
30.3000;0.5381;0.9946;
30.6000;0.5381;0.9804;
30.9000;0.5389;0.9757;
31.2000;0.5405;0.9875;
31.5000;0.5413;0.9946;
31.8000;0.5405;0.9970;
32.1000;0.5397;0.9994;
32.4000;0.5421;1.0088;
32.7000;0.5429;1.0065;
33.0000;0.5405;0.9994;
33.3000;0.5421;0.9994;
33.6000;0.5389;0.9923;
33.9000;0.5421;0.9970;
34.2000;0.5413;0.9970;
34.5000;0.5462;1.0041;
34.8000;0.5413;0.9875;
35.1000;0.5438;1.0041;
35.4000;0.5413;0.9923;
35.7000;0.5421;0.9899;
36.0000;0.5495;1.0017;
36.3000;0.5438;0.9852;
36.6000;0.5438;0.9875;
36.9000;0.5381;0.9662;
37.2000;0.5429;0.9733;
37.5000;0.5446;0.9804;
37.8000;0.5438;0.9733;
38.1000;0.5429;0.9662;
38.4000;0.5438;0.9686;
38.7000;0.5421;0.9757;
39.0000;0.5405;0.9686;
39.3000;0.5470;0.9828;
39.6000;0.5429;0.9662;
39.9000;0.5495;0.9899;
40.2000;0.5454;0.9828;
40.5000;0.5438;0.9733;
40.8000;0.5454;0.9804;
41.1000;0.5421;0.9852;
41.4000;0.5454;0.9899;
41.7000;0.5462;0.9852;
42.0000;0.5478;0.9899;
42.3000;0.5470;0.9875;
42.6000;0.5470;0.9828;
42.9000;0.5462;0.9757;
43.2000;0.5470;0.9733;
43.5000;0.5454;0.9733;
43.8000;0.5495;0.9852;
44.1000;0.5454;0.9828;
44.4000;0.5470;0.9828;
44.7000;0.5470;0.9852;
45.0000;0.5421;0.9686;
45.3000;0.5405;0.9591;
45.6000;0.5470;0.9780;
45.9000;0.5486;0.9733;
46.2000;0.5446;0.9615;
46.5000;0.5478;0.9662;
46.8000;0.5454;0.9638;
47.1000;0.5454;0.9638;
47.4000;0.5470;0.9686;
47.7000;0.5454;0.9780;
48.0000;0.5478;0.9923;
48.3000;0.5478;0.9970;
48.6000;0.5486;0.9970;
48.9000;0.5470;0.9875;
49.2000;0.5568;1.0136;
49.5000;0.5486;0.9899;
49.8000;0.5486;0.9852;
50.1000;0.5495;0.9923;
50.4000;0.5495;0.9899;
50.7000;0.5486;0.9923;
51.0000;0.5495;0.9970;
51.3000;0.5519;0.9970;
51.6000;0.5503;0.9828;
51.9000;0.5495;0.9733;
52.2000;0.5486;0.9804;
52.5000;0.5486;0.9757;
52.8000;0.5438;0.9709;
53.1000;0.5495;0.9875;
53.4000;0.5454;0.9709;
53.7000;0.5486;0.9733;
54.0000;0.5495;0.9804;
54.3000;0.5495;0.9828;
54.6000;0.5454;0.9709;
54.9000;0.5495;0.9686;
55.2000;0.5511;0.9686;
55.5000;0.5511;0.9733;
55.8000;0.5511;0.9757;
56.1000;0.5503;0.9733;
56.4000;0.5503;0.9662;
56.7000;0.5503;0.9733;
57.0000;0.5495;0.9686;
57.3000;0.5486;0.9757;
57.6000;0.5462;0.9757;
57.9000;0.5527;0.9899;
58.2000;0.5511;0.9852;
58.5000;0.5470;0.9733;
58.8000;0.5486;0.9780;
59.1000;0.5495;0.9804;
59.4000;0.5511;0.9804;
59.7000;0.5470;0.9757;
60.0000;0.5519;0.9757;
60.3000;0.5527;0.9804;
60.6000;0.5527;0.9923;
60.9000;0.5527;0.9875;
61.2000;0.5535;0.9994;
61.5000;0.5535;0.9946;
61.8000;0.5519;0.9923;
62.1000;0.5519;0.9946;
62.4000;0.5495;0.9923;
62.7000;0.5511;0.9828;
63.0000;0.5527;0.9875;
63.3000;0.5519;0.9875;
63.6000;0.5543;0.9970;
63.9000;0.5495;0.9899;
64.2000;0.5462;0.9780;
64.5000;0.5519;0.9970;
64.8000;0.5519;0.9994;
65.1000;0.5535;0.9994;
65.4000;0.5568;0.9994;
65.7000;0.5543;0.9852;
66.0000;0.5511;0.9757;
66.3000;0.5527;0.9757;
66.6000;0.5560;0.9804;
66.9000;0.5527;0.9686;
67.2000;0.5543;0.9709;
67.5000;0.5486;0.9591;
67.8000;0.5535;0.9709;
68.1000;0.5551;0.9828;
68.4000;0.5478;0.9638;
68.7000;0.5535;0.9780;
69.0000;0.5592;0.9946;
69.3000;0.5511;0.9662;
69.6000;0.5551;0.9733;
69.9000;0.5527;0.9733;
70.2000;0.5592;0.9899;
70.5000;0.5495;0.9709;
70.8000;0.5527;0.9733;
71.1000;0.5535;0.9780;
71.4000;0.5551;0.9804;
71.7000;0.5503;0.9709;
72.0000;0.5535;0.9852;
72.3000;0.5608;1.0065;
72.6000;0.5519;0.9852;
72.9000;0.5560;0.9994;
73.2000;0.5535;0.9946;
73.5000;0.5543;0.9899;
73.8000;0.5592;0.9899;
74.1000;0.5543;0.9733;
74.4000;0.5560;0.9804;
74.7000;0.5543;0.9923;
75.0000;0.5519;0.9899;
75.3000;0.5535;0.9875;
75.6000;0.5551;0.9923;
75.9000;0.5543;0.9852;
76.2000;0.5535;0.9804;
76.5000;0.5551;0.9852;
76.8000;0.5478;0.9804;
77.1000;0.5551;0.9923;
77.4000;0.5486;0.9804;
77.7000;0.5543;1.0041;
78.0000;0.5543;1.0017;
78.3000;0.5543;1.0017;
78.6000;0.5551;1.0017;
78.9000;0.5535;0.9923;
79.2000;0.5519;0.9946;
79.5000;0.5527;0.9899;
79.8000;0.5560;0.9923;
80.1000;0.5535;0.9875;
80.4000;0.5543;0.9970;
80.7000;0.5535;0.9970;
81.0000;0.5551;0.9970;
81.3000;0.5551;0.9946;
81.6000;0.5551;0.9852;
81.9000;0.5674;1.0088;
82.2000;0.5576;0.9875;
82.5000;0.5551;0.9828;
82.8000;0.5551;0.9875;
83.1000;0.5543;0.9923;
83.4000;0.5560;0.9994;
83.7000;0.5551;1.0041;
84.0000;0.5551;0.9994;
84.3000;0.5543;0.9946;
84.6000;0.5600;0.9994;
84.9000;0.5535;0.9757;
85.2000;0.5551;0.9875;
85.5000;0.5592;0.9994;
85.8000;0.5543;0.9923;
86.1000;0.5551;0.9946;
86.4000;0.5543;0.9970;
86.7000;0.5535;0.9899;
87.0000;0.5657;1.0159;
87.3000;0.5551;1.0017;
87.6000;0.5551;0.9946;
87.9000;0.5543;0.9875;
88.2000;0.5535;0.9780;
88.5000;0.5551;0.9780;
88.8000;0.5551;0.9780;
89.1000;0.5527;0.9780;
89.4000;0.5551;0.9875;
89.7000;0.5551;0.9875;
90.0000;0.5568;0.9875;
90.3000;0.5551;0.9757;
90.6000;0.5543;0.9828;
90.9000;0.5551;0.9780;
91.2000;0.5519;0.9686;
91.5000;0.5551;0.9757;
91.8000;0.5560;0.9780;
92.1000;0.5503;0.9757;
92.4000;0.5560;1.0017;
92.7000;0.5576;1.0088;
93.0000;0.5527;1.0017;
93.3000;0.5568;1.0041;
93.6000;0.5519;0.9970;
93.9000;0.5592;1.0159;
94.2000;0.5568;1.0017;
94.5000;0.5560;1.0017;
94.8000;0.5543;0.9970;
95.1000;0.5568;0.9923;
95.4000;0.5608;1.0041;
95.7000;0.5560;0.9828;
96.0000;0.5584;0.9946;
96.3000;0.5527;0.9804;
96.6000;0.5568;0.9899;
96.9000;0.5551;0.9828;
97.2000;0.5576;0.9970;
97.5000;0.5560;0.9923;
97.8000;0.5560;0.9852;
98.1000;0.5551;0.9828;
98.4000;0.5535;0.9875;
98.7000;0.5543;0.9994;
99.0000;0.5551;0.9970;
99.3000;0.5511;0.9828;
99.6000;0.5527;0.9828;
99.9000;0.5543;0.9804;
100.2000;0.5600;0.9923;
100.5000;0.5551;0.9780;
100.8000;0.5535;0.9780;
101.1000;0.5551;0.9804;
101.4000;0.5584;0.9852;
101.7000;0.5551;0.9709;
102.0000;0.5503;0.9496;
102.3000;0.5551;0.9615;
102.6000;0.5568;0.9615;
102.9000;0.5543;0.9591;
103.2000;0.5560;0.9686;
103.5000;0.5551;0.9662;
103.8000;0.5560;0.9757;
104.1000;0.5560;0.9757;
104.4000;0.5519;0.9567;
104.7000;0.5608;0.9757;
105.0000;0.5543;0.9591;
105.3000;0.5560;0.9567;
105.6000;0.5551;0.9638;
105.9000;0.5560;0.9733;
106.2000;0.5543;0.9828;
106.5000;0.5551;0.9875;
106.8000;0.5560;0.9875;
107.1000;0.5560;0.9852;
107.4000;0.5568;0.9875;
107.7000;0.5551;0.9804;
108.0000;0.5576;0.9899;
108.3000;0.5560;0.9875;
108.6000;0.5535;0.9828;
108.9000;0.5527;0.9899;
109.2000;0.5568;0.9899;
109.5000;0.5543;0.9804;
109.8000;0.5511;0.9757;
110.1000;0.5535;0.9780;
110.4000;0.5535;0.9852;
110.7000;0.5543;0.9852;
111.0000;0.5576;0.9804;
111.3000;0.5535;0.9638;
111.6000;0.5543;0.9638;
111.9000;0.5543;0.9662;
112.2000;0.5511;0.9591;
112.5000;0.5519;0.9709;
112.8000;0.5576;0.9804;
113.1000;0.5576;0.9757;
113.4000;0.5551;0.9733;
113.7000;0.5551;0.9757;
114.0000;0.5560;0.9757;
114.3000;0.5543;0.9686;
114.6000;0.5535;0.9615;
114.9000;0.5560;0.9591;
115.2000;0.5511;0.9520;
115.5000;0.5527;0.9567;
115.8000;0.5551;0.9615;
116.1000;0.5568;0.9662;
116.4000;0.5527;0.9567;
116.7000;0.5551;0.9615;
117.0000;0.5454;0.9425;
117.3000;0.5600;0.9852;
117.6000;0.5576;0.9852;
117.9000;0.5568;0.9828;
118.2000;0.5527;0.9757;
118.5000;0.5560;0.9899;
118.8000;0.5543;0.9875;
119.1000;0.5551;0.9923;
119.4000;0.5535;0.9946;
119.7000;0.5511;0.9804;
120.0000;0.5527;0.9828;
120.3000;0.5560;0.9875;
120.6000;0.5617;0.9970;
120.9000;0.5543;0.9875;
121.2000;0.5543;0.9899;
121.5000;0.5543;0.9899;
121.8000;0.5551;0.9923;
122.1000;0.5527;0.9994;
122.4000;0.5486;0.9899;
122.7000;0.5543;1.0088;
123.0000;0.5576;1.0088;
123.3000;0.5560;1.0041;
123.6000;0.5543;0.9946;
123.9000;0.5543;0.9899;
124.2000;0.5551;0.9946;
124.5000;0.5576;0.9970;
124.8000;0.5535;0.9946;
125.1000;0.5568;0.9899;
125.4000;0.5551;0.9852;
125.7000;0.5551;0.9780;
126.0000;0.5608;0.9899;
126.3000;0.5560;0.9899;
126.6000;0.5543;0.9875;
126.9000;0.5568;0.9875;
127.2000;0.5551;0.9828;
127.5000;0.5535;0.9804;
127.8000;0.5625;1.0112;
128.1000;0.5576;1.0017;
128.4000;0.5551;0.9899;
128.7000;0.5584;0.9899;
129.0000;0.5551;0.9852;
129.3000;0.5551;0.9946;
129.6000;0.5478;0.9780;
129.9000;0.5519;0.9780;
130.2000;0.5543;0.9828;
130.5000;0.5551;0.9923;
130.8000;0.5576;0.9970;
131.1000;0.5535;0.9852;
131.4000;0.5551;0.9923;
131.7000;0.5560;0.9899;
132.0000;0.5568;0.9852;
132.3000;0.5560;0.9780;
132.6000;0.5527;0.9780;
132.9000;0.5560;0.9757;
133.2000;0.5560;0.9780;
133.5000;0.5560;0.9828;
133.8000;0.5478;0.9662;
134.1000;0.5543;0.9780;
134.4000;0.5568;0.9828;
134.7000;0.5543;0.9828;
135.0000;0.5543;0.9970;
135.3000;0.5511;0.9875;
135.6000;0.5560;0.9899;
135.9000;0.5551;0.9875;
136.2000;0.5584;0.9970;
136.5000;0.5551;0.9804;
136.8000;0.5584;0.9970;
137.1000;0.5568;0.9875;
137.4000;0.5560;0.9875;
137.7000;0.5560;0.9923;
138.0000;0.5568;0.9946;
138.3000;0.5527;0.9828;
138.6000;0.5551;0.9923;
138.9000;0.5584;0.9994;
139.2000;0.5551;0.9875;
139.5000;0.5551;0.9923;
139.8000;0.5535;0.9899;
140.1000;0.5568;0.9923;
140.4000;0.5543;0.9994;
140.7000;0.5560;0.9994;
141.0000;0.5543;0.9875;
141.3000;0.5617;1.0017;
141.6000;0.5551;0.9828;
141.9000;0.5560;0.9804;
142.2000;0.5608;0.9994;
142.5000;0.5551;0.9994;
142.8000;0.5584;1.0136;
143.1000;0.5551;1.0159;
143.4000;0.5543;1.0136;
143.7000;0.5551;1.0065;
144.0000;0.5560;1.0136;
144.3000;0.5551;1.0112;
144.6000;0.5633;1.0254;
144.9000;0.5551;1.0041;
145.2000;0.5543;0.9970;
145.5000;0.5560;0.9970;
145.8000;0.5560;1.0017;
146.1000;0.5543;0.9923;
146.4000;0.5560;0.9970;
146.7000;0.5560;0.9970;
147.0000;0.5535;0.9899;
147.3000;0.5560;0.9994;
147.6000;0.5576;1.0041;
147.9000;0.5568;1.0017;
148.2000;0.5535;0.9923;
148.5000;0.5560;0.9994;
148.8000;0.5568;0.9970;
149.1000;0.5543;0.9923;
149.4000;0.5560;0.9994;
149.7000;0.5576;1.0112;
150.0000;0.5560;1.0088;
150.3000;0.5551;1.0041;
150.6000;0.5551;0.9994;
150.9000;0.5625;1.0136;
151.2000;0.5551;0.9970;
151.5000;0.5543;0.9923;
151.8000;0.5551;0.9994;
152.1000;0.5543;0.9994;
152.4000;0.5560;1.0017;
152.7000;0.5560;1.0041;
153.0000;0.5527;0.9970;
153.3000;0.5560;1.0136;
153.6000;0.5600;1.0254;
153.9000;0.5543;1.0041;
154.2000;0.5641;1.0207;
154.5000;0.5543;0.9994;
154.8000;0.5576;0.9946;
155.1000;0.5568;1.0017;
155.4000;0.5568;1.0112;
155.7000;0.5576;0.9970;
156.0000;0.5584;1.0017;
156.3000;0.5568;0.9970;
156.6000;0.5446;0.9709;
156.9000;0.5519;0.9852;
157.2000;0.5551;1.0041;
157.5000;0.5576;1.0041;
157.8000;0.5551;0.9946;
158.1000;0.5495;0.9875;
158.4000;0.5519;0.9970;
158.7000;0.5568;1.0088;
159.0000;0.5519;0.9899;
159.3000;0.5584;0.9994;
159.6000;0.5560;0.9994;
159.9000;0.5568;0.9923;
160.2000;0.5551;0.9828;
160.5000;0.5584;0.9875;
160.8000;0.5560;0.9757;
161.1000;0.5560;0.9852;
161.4000;0.5543;0.9733;
161.7000;0.5584;0.9875;
162.0000;0.5543;0.9780;
162.3000;0.5674;1.0065;
162.6000;0.5576;0.9828;
162.9000;0.5543;0.9804;
163.2000;0.5551;0.9733;
163.5000;0.5584;0.9804;
163.8000;0.5714;1.0278;
164.1000;0.5551;0.9852;
164.4000;0.5511;0.9804;
164.7000;0.5560;0.9852;
165.0000;0.5625;1.0112;
165.3000;0.5576;0.9946;
165.6000;0.5543;0.9875;
165.9000;0.5576;1.0017;
166.2000;0.5576;0.9994;
166.5000;0.5551;1.0088;
166.8000;0.5560;1.0136;
167.1000;0.5543;1.0041;
167.4000;0.5551;0.9970;
167.7000;0.5560;0.9946;
168.0000;0.5568;0.9899;
168.3000;0.5543;0.9946;
168.6000;0.5560;0.9946;
168.9000;0.5543;0.9923;
169.2000;0.5576;1.0017;
169.5000;0.5576;1.0065;
169.8000;0.5600;1.0041;
170.1000;0.5551;0.9899;
170.4000;0.5568;0.9923;
170.7000;0.5568;0.9899;
171.0000;0.5657;1.0088;
171.3000;0.5551;0.9804;
171.6000;0.5551;0.9757;
171.9000;0.5560;0.9852;
172.2000;0.5543;0.9757;
172.5000;0.5543;0.9638;
172.8000;0.5551;0.9662;
173.1000;0.5568;0.9615;
173.4000;0.5568;0.9544;
173.7000;0.5543;0.9520;
174.0000;0.5568;0.9567;
174.3000;0.5527;0.9473;
174.6000;0.5543;0.9425;
174.9000;0.5560;0.9473;
175.2000;0.5576;0.9544;
175.5000;0.5568;0.9662;
175.8000;0.5568;0.9686;
176.1000;0.5674;0.9994;
176.4000;0.5560;0.9757;
176.7000;0.5576;0.9899;
177.0000;0.5519;0.9757;
177.3000;0.5551;0.9804;
177.6000;0.5560;0.9899;
177.9000;0.5551;0.9899;
178.2000;0.5551;0.9780;
178.5000;0.5600;0.9804;
178.8000;0.5568;0.9733;
179.1000;0.5560;0.9828;
179.4000;0.5560;0.9899;
179.7000;0.5543;0.9780;
180.0000;0.5543;0.9780;
180.3000;0.5543;0.9757;
180.6000;0.5543;0.9828;
180.9000;0.5543;0.9804;
181.2000;0.5543;0.9780;
181.5000;0.5543;0.9804;
181.8000;0.5551;0.9804;
182.1000;0.5560;0.9852;
182.4000;0.5560;0.9923;
182.7000;0.5551;0.9994;
183.0000;0.5568;1.0088;
183.3000;0.5560;0.9994;
183.6000;0.5560;1.0041;
183.9000;0.5568;0.9970;
184.2000;0.5551;0.9875;
184.5000;0.5576;0.9946;
184.8000;0.5576;0.9970;
185.1000;0.5560;0.9970;
185.4000;0.5568;1.0017;
185.7000;0.5568;1.0041;
186.0000;0.5568;1.0112;
186.3000;0.5551;1.0041;
186.6000;0.5560;0.9994;
186.9000;0.5592;1.0065;
187.2000;0.5551;1.0041;
187.5000;0.5527;0.9994;
187.8000;0.5568;1.0136;
188.1000;0.5551;1.0017;
188.4000;0.5576;1.0112;
188.7000;0.5560;1.0183;
189.0000;0.5511;1.0041;
189.3000;0.5633;1.0301;
189.6000;0.5617;1.0254;
189.9000;0.5551;1.0041;
190.2000;0.5576;1.0041;
190.5000;0.5568;1.0017;
190.8000;0.5600;1.0065;
191.1000;0.5551;0.9970;
191.4000;0.5495;0.9804;
191.7000;0.5551;1.0017;
192.0000;0.5551;1.0041;
192.3000;0.5584;1.0112;
192.6000;0.5568;1.0041;
192.9000;0.5519;0.9923;
193.2000;0.5600;1.0112;
193.5000;0.5576;1.0065;
193.8000;0.5560;1.0112;
194.1000;0.5608;1.0112;
194.4000;0.5551;0.9970;
194.7000;0.5568;1.0017;
195.0000;0.5551;1.0065;
195.3000;0.5560;1.0112;
195.6000;0.5560;1.0041;
195.9000;0.5543;0.9994;
196.2000;0.5560;0.9946;
196.5000;0.5560;0.9946;
196.8000;0.5535;0.9875;
197.1000;0.5551;0.9852;
197.4000;0.5560;0.9875;
197.7000;0.5649;1.0065;
198.0000;0.5551;0.9852;
198.3000;0.5543;0.9923;
198.6000;0.5560;1.0017;
198.9000;0.5560;1.0065;
199.2000;0.5543;1.0088;
199.5000;0.5568;1.0207;
199.8000;0.5568;1.0230;
200.1000;0.5560;1.0325;
200.4000;0.5568;1.0254;
200.7000;0.5560;1.0207;
201.0000;0.5560;1.0159;
201.3000;0.5551;1.0065;
201.6000;0.5527;1.0017;
201.9000;0.5560;1.0065;
202.2000;0.5503;0.9923;
202.5000;0.5454;0.9780;
202.8000;0.5551;1.0088;
203.1000;0.5576;1.0065;
203.4000;0.5535;0.9994;
203.7000;0.5551;1.0112;
204.0000;0.5543;1.0088;
204.3000;0.5551;1.0112;
204.6000;0.5495;0.9923;
204.9000;0.5527;0.9946;
205.2000;0.5584;1.0065;
205.5000;0.5576;1.0065;
205.8000;0.5576;1.0065;
206.1000;0.5568;0.9970;
206.4000;0.5568;0.9899;
206.7000;0.5535;0.9757;
207.0000;0.5543;0.9804;
207.3000;0.5535;0.9828;
207.6000;0.5535;0.9852;
207.9000;0.5535;0.9852;
208.2000;0.5568;0.9923;
208.5000;0.5543;0.9828;
208.8000;0.5535;0.9757;
209.1000;0.5543;0.9828;
209.4000;0.5519;0.9828;
209.7000;0.5560;0.9852;
210.0000;0.5576;0.9899;
210.3000;0.5584;0.9899;
210.6000;0.5592;0.9994;
210.9000;0.5551;0.9757;
211.2000;0.5568;0.9899;
211.5000;0.5551;0.9875;
211.8000;0.5592;0.9852;
212.1000;0.5560;0.9875;
212.4000;0.5568;0.9828;
212.7000;0.5495;0.9709;
213.0000;0.5495;0.9709;
213.3000;0.5560;0.9923;
213.6000;0.5495;0.9804;
213.9000;0.5551;0.9946;
214.2000;0.5527;0.9852;
214.5000;0.5535;0.9780;
214.8000;0.5560;0.9804;
215.1000;0.5584;0.9923;
215.4000;0.5568;0.9828;
215.7000;0.5551;0.9709;
216.0000;0.5568;0.9804;
216.3000;0.5592;0.9923;
216.6000;0.5560;0.9828;
216.9000;0.5568;0.9875;
217.2000;0.5560;0.9970;
217.5000;0.5551;1.0017;
217.8000;0.5584;1.0088;
218.1000;0.5560;0.9899;
218.4000;0.5608;0.9970;
218.7000;0.5568;0.9923;
219.0000;0.5568;0.9970;
219.3000;0.5543;1.0017;
219.6000;0.5535;0.9994;
219.9000;0.5560;0.9994;
220.2000;0.5551;0.9946;
220.5000;0.5576;0.9970;
220.8000;0.5560;0.9875;
221.1000;0.5519;0.9828;
221.4000;0.5584;0.9994;
221.7000;0.5584;0.9970;
222.0000;0.5551;0.9852;
222.3000;0.5551;0.9828;
222.6000;0.5560;0.9828;
222.9000;0.5543;0.9686;
223.2000;0.5527;0.9686;
223.5000;0.5560;0.9780;
223.8000;0.5551;0.9828;
224.1000;0.5592;0.9875;
224.4000;0.5560;0.9828;
224.7000;0.5527;0.9757;
225.0000;0.5543;0.9828;
225.3000;0.5576;0.9970;
225.6000;0.5568;0.9946;
225.9000;0.5438;0.9520;
226.2000;0.5568;0.9875;
226.5000;0.5560;0.9946;
226.8000;0.5543;0.9946;
227.1000;0.5503;0.9875;
227.4000;0.5543;1.0088;
227.7000;0.5560;1.0183;
228.0000;0.5551;1.0183;
228.3000;0.5527;1.0088;
228.6000;0.5527;1.0088;
228.9000;0.5511;1.0017;
229.2000;0.5560;1.0183;
229.5000;0.5543;1.0136;
229.8000;0.5527;1.0088;
230.1000;0.5625;1.0254;
230.4000;0.5560;1.0136;
230.7000;0.5568;1.0207;
231.0000;0.5568;1.0207;
231.3000;0.5551;1.0136;
231.6000;0.5560;1.0136;
231.9000;0.5551;1.0112;
232.2000;0.5543;0.9970;
232.5000;0.5560;0.9970;
232.8000;0.5519;0.9946;
233.1000;0.5584;1.0065;
233.4000;0.5560;1.0088;
233.7000;0.5560;1.0088;
234.0000;0.5560;1.0112;
234.3000;0.5551;1.0112;
234.6000;0.5551;1.0065;
234.9000;0.5576;1.0065;
235.2000;0.5584;1.0136;
235.5000;0.5568;1.0065;
235.8000;0.5486;0.9875;
236.1000;0.5576;1.0159;
236.4000;0.5535;1.0159;
236.7000;0.5560;1.0254;
237.0000;0.5551;1.0207;
237.3000;0.5560;1.0207;
237.6000;0.5641;1.0586;
237.9000;0.5551;1.0349;
238.2000;0.5551;1.0349;
238.5000;0.5551;1.0159;
238.8000;0.5625;1.0372;
239.1000;0.5543;1.0136;
239.4000;0.5560;1.0159;
239.7000;0.5527;1.0136;
240.0000;0.5543;1.0207;
240.3000;0.5551;1.0278;
240.6000;0.5543;1.0278;
240.9000;0.5551;1.0278;
241.2000;0.5600;1.0467;
241.5000;0.5560;1.0230;
241.8000;0.5674;1.0515;
242.1000;0.5560;1.0017;
242.4000;0.5551;0.9946;
242.7000;0.5551;0.9994;
243.0000;0.5551;1.0017;
243.3000;0.5560;1.0017;
243.6000;0.5543;1.0112;
243.9000;0.5551;1.0136;
244.2000;0.5543;1.0041;
244.5000;0.5568;1.0065;
244.8000;0.5551;1.0041;
245.1000;0.5551;1.0065;
245.4000;0.5568;1.0041;
245.7000;0.5600;1.0065;
246.0000;0.5535;0.9970;
246.3000;0.5568;1.0041;
246.6000;0.5584;1.0136;
246.9000;0.5568;1.0041;
247.2000;0.5568;1.0112;
247.5000;0.5560;1.0136;
247.8000;0.5560;1.0159;
248.1000;0.5543;1.0230;
248.4000;0.5560;1.0254;
248.7000;0.5543;1.0183;
249.0000;0.5446;0.9970;
249.3000;0.5543;1.0183;
249.6000;0.5551;1.0301;
249.9000;0.5576;1.0278;
250.2000;0.5535;1.0136;
250.5000;0.5576;1.0207;
250.8000;0.5551;1.0159;
251.1000;0.5584;1.0230;
251.4000;0.5551;1.0136;
251.7000;0.5551;1.0112;
252.0000;0.5543;1.0183;
252.3000;0.5600;1.0301;
252.6000;0.5576;1.0301;
252.9000;0.5592;1.0372;
253.2000;0.5543;1.0159;
253.5000;0.5576;1.0254;
253.8000;0.5543;1.0136;
254.1000;0.5560;1.0065;
254.4000;0.5543;1.0112;
254.7000;0.5568;1.0136;
255.0000;0.5560;1.0136;
255.3000;0.5535;1.0017;
255.6000;0.5568;0.9946;
255.9000;0.5551;0.9899;
256.2000;0.5568;0.9970;
256.5000;0.5568;1.0065;
256.8000;0.5478;0.9852;
257.1000;0.5576;1.0112;
257.4000;0.5560;1.0088;
257.7000;0.5568;1.0088;
258.0000;0.5551;1.0112;
258.3000;0.5470;0.9875;
258.6000;0.5625;1.0230;
258.9000;0.5560;1.0041;
259.2000;0.5568;0.9994;
259.5000;0.5649;1.0254;
259.8000;0.5584;1.0041;
260.1000;0.5551;0.9946;
260.4000;0.5551;0.9994;
260.7000;0.5535;0.9923;
261.0000;0.5560;1.0088;
261.3000;0.5551;1.0136;
261.6000;0.5438;0.9875;
261.9000;0.5608;1.0159;
262.2000;0.5560;1.0017;
262.5000;0.5560;1.0041;
262.8000;0.5617;1.0278;
263.1000;0.5560;1.0112;
263.4000;0.5511;1.0017;
263.7000;0.5543;1.0065;
264.0000;0.5657;1.0325;
264.3000;0.5551;1.0017;
264.6000;0.5551;0.9970;
264.9000;0.5560;1.0065;
265.2000;0.5519;1.0017;
265.5000;0.5535;0.9970;
265.8000;0.5405;0.9615;
266.1000;0.5560;0.9899;
266.4000;0.5568;0.9804;
266.7000;0.5551;0.9828;
267.0000;0.5568;0.9780;
267.3000;0.5568;0.9662;
267.6000;0.5551;0.9638;
267.9000;0.5560;0.9709;
268.2000;0.5568;0.9804;
268.5000;0.5511;0.9709;
268.8000;0.5576;0.9804;
269.1000;0.5551;0.9709;
269.4000;0.5568;0.9733;
269.7000;0.5495;0.9520;
270.0000;0.5576;0.9733;
270.3000;0.5551;0.9757;
270.6000;0.5503;0.9662;
270.9000;0.5584;0.9899;
271.2000;0.5543;0.9852;
271.5000;0.5600;0.9994;
271.8000;0.5568;0.9994;
272.1000;0.5543;0.9923;
272.4000;0.5543;0.9946;
272.7000;0.5568;1.0065;
273.0000;0.5527;0.9852;
273.3000;0.5551;0.9852;
273.6000;0.5560;0.9828;
273.9000;0.5576;0.9899;
274.2000;0.5560;0.9875;
274.5000;0.5576;1.0017;
274.8000;0.5535;0.9946;
275.1000;0.5560;1.0017;
275.4000;0.5560;1.0112;
275.7000;0.5568;1.0017;
276.0000;0.5560;1.0017;
276.3000;0.5503;0.9852;
276.6000;0.5592;1.0065;
276.9000;0.5511;0.9875;
277.2000;0.5551;1.0017;
277.5000;0.5560;1.0065;
277.8000;0.5568;1.0041;
278.1000;0.5551;0.9946;
278.4000;0.5543;0.9804;
278.7000;0.5568;0.9899;
279.0000;0.5608;1.0041;
279.3000;0.5576;1.0041;
279.6000;0.5568;1.0017;
279.9000;0.5543;0.9946;
280.2000;0.5560;1.0065;
280.5000;0.5576;1.0136;
280.8000;0.5551;1.0017;
281.1000;0.5527;0.9852;
281.4000;0.5527;0.9875;
281.7000;0.5535;0.9852;
282.0000;0.5584;1.0017;
282.3000;0.5568;1.0041;
282.6000;0.5600;1.0183;
282.9000;0.5551;1.0112;
283.2000;0.5551;1.0112;
283.5000;0.5560;1.0112;
283.8000;0.5576;1.0041;
284.1000;0.5576;1.0017;
284.4000;0.5551;1.0041;
284.7000;0.5535;0.9946;
285.0000;0.5568;1.0041;
285.3000;0.5568;1.0136;
285.6000;0.5576;1.0112;
285.9000;0.5511;1.0065;
286.2000;0.5543;1.0136;
286.5000;0.5543;1.0112;
286.8000;0.5617;1.0254;
287.1000;0.5560;1.0112;
287.4000;0.5551;0.9946;
287.7000;0.5600;0.9994;
288.0000;0.5625;1.0065;
288.3000;0.5543;0.9875;
288.6000;0.5568;0.9946;
288.9000;0.5568;0.9970;
289.2000;0.5641;1.0183;
289.5000;0.5551;0.9970;
289.8000;0.5560;1.0065;
290.1000;0.5584;1.0065;
290.4000;0.5568;1.0065;
290.7000;0.5568;1.0159;
291.0000;0.5527;1.0017;
291.3000;0.5543;1.0159;
291.6000;0.5560;1.0230;
291.9000;0.5535;1.0136;
292.2000;0.5568;1.0183;
292.5000;0.5535;1.0088;
292.8000;0.5535;1.0065;
293.1000;0.5560;1.0136;
293.4000;0.5568;1.0136;
293.7000;0.5568;1.0041;
294.0000;0.5568;1.0017;
294.3000;0.5551;1.0041;
294.6000;0.5551;1.0065;
294.9000;0.5560;1.0017;
295.2000;0.5519;0.9946;
295.5000;0.5568;0.9970;
295.8000;0.5568;0.9994;
296.1000;0.5568;0.9994;
296.4000;0.5551;0.9994;
296.7000;0.5560;0.9970;
297.0000;0.5568;0.9946;
297.3000;0.5560;0.9923;
297.6000;0.5519;0.9875;
297.9000;0.5568;0.9994;
298.2000;0.5551;0.9946;
298.5000;0.5543;0.9970;
298.8000;0.5543;0.9923;
299.1000;0.5551;0.9923;
299.4000;0.5543;0.9780;
299.7000;0.5551;0.9899;
300.0000;0.5551;0.9804;
300.3000;0.5592;0.9780;
300.6000;0.5560;0.9709;
300.9000;0.5568;0.9686;
301.2000;0.5584;0.9780;
301.5000;0.5543;0.9875;
301.8000;0.5543;0.9899;
302.1000;0.5551;0.9875;
302.4000;0.5568;0.9970;
302.7000;0.5560;0.9946;
303.0000;0.5584;0.9875;
303.3000;0.5560;0.9780;
303.6000;0.5608;0.9875;
303.9000;0.5576;0.9875;
304.2000;0.5543;0.9828;
304.5000;0.5560;0.9828;
304.8000;0.5503;0.9780;
305.1000;0.5674;1.0159;
305.4000;0.5560;0.9852;
305.7000;0.5551;0.9780;
306.0000;0.5551;0.9733;
306.3000;0.5592;0.9852;
306.6000;0.5543;0.9733;
306.9000;0.5551;0.9780;
307.2000;0.5543;0.9733;
307.5000;0.5560;0.9780;
307.8000;0.5527;0.9686;
308.1000;0.5543;0.9828;
308.4000;0.5560;0.9923;
308.7000;0.5576;0.9970;
309.0000;0.5551;0.9970;
309.3000;0.5535;0.9994;
309.6000;0.5551;1.0017;
309.9000;0.5551;0.9994;
310.2000;0.5527;1.0112;
310.5000;0.5543;1.0112;
310.8000;0.5543;1.0017;
311.1000;0.5568;1.0159;
311.4000;0.5429;0.9923;
311.7000;0.5568;1.0159;
312.0000;0.5527;0.9946;
312.3000;0.5592;1.0112;
312.6000;0.5551;0.9899;
312.9000;0.5568;0.9899;
313.2000;0.5527;0.9780;
313.5000;0.5576;0.9899;
313.8000;0.5568;0.9946;
314.1000;0.5576;0.9994;
314.4000;0.5535;0.9899;
314.7000;0.5543;0.9852;
315.0000;0.5560;0.9923;
315.3000;0.5568;0.9946;
315.6000;0.5511;0.9875;
315.9000;0.5551;0.9994;
316.2000;0.5560;0.9875;
316.5000;0.5535;0.9828;
316.8000;0.5551;0.9875;
317.1000;0.5641;1.0159;
317.4000;0.5551;0.9923;
317.7000;0.5568;0.9923;
318.0000;0.5527;0.9828;
318.3000;0.5560;0.9899;
318.6000;0.5568;0.9875;
318.9000;0.5568;0.9923;
319.2000;0.5511;0.9804;
319.5000;0.5527;0.9970;
319.8000;0.5560;1.0159;
320.1000;0.5551;1.0065;
320.4000;0.5560;1.0088;
320.7000;0.5551;1.0088;
321.0000;0.5543;1.0088;
321.3000;0.5543;1.0136;
321.6000;0.5560;1.0065;
321.9000;0.5527;0.9899;
322.2000;0.5560;0.9994;
322.5000;0.5568;1.0017;
322.8000;0.5535;0.9923;
323.1000;0.5543;0.9852;
323.4000;0.5551;0.9828;
323.7000;0.5568;0.9923;
324.0000;0.5519;0.9852;
324.3000;0.5551;0.9946;
324.6000;0.5511;0.9923;
324.9000;0.5649;1.0230;
325.2000;0.5560;0.9970;
325.5000;0.5543;0.9780;
325.8000;0.5527;0.9733;
326.1000;0.5535;0.9686;
326.4000;0.5543;0.9709;
326.7000;0.5568;0.9757;
327.0000;0.5551;0.9804;
327.3000;0.5576;0.9875;
327.6000;0.5584;0.9970;
327.9000;0.5674;1.0183;
328.2000;0.5551;0.9875;
328.5000;0.5560;0.9828;
328.8000;0.5568;0.9875;
329.1000;0.5527;0.9686;
329.4000;0.5576;0.9852;
329.7000;0.5617;0.9828;
330.0000;0.5584;0.9804;
330.3000;0.5535;0.9662;
330.6000;0.5560;0.9733;
330.9000;0.5560;0.9662;
331.2000;0.5503;0.9567;
331.5000;0.5568;0.9780;
331.8000;0.5551;0.9780;
332.1000;0.5527;0.9733;
332.4000;0.5584;0.9852;
332.7000;0.5551;0.9757;
333.0000;0.5560;0.9780;
333.3000;0.5551;0.9804;
333.6000;0.5551;0.9923;
333.9000;0.5543;0.9852;
334.2000;0.5543;0.9828;
334.5000;0.5543;0.9804;
334.8000;0.5560;0.9804;
335.1000;0.5576;0.9899;
335.4000;0.5568;0.9852;
335.7000;0.5551;0.9828;
336.0000;0.5560;0.9852;
336.3000;0.5560;0.9780;
336.6000;0.5568;0.9709;
336.9000;0.5551;0.9662;
337.2000;0.5584;0.9780;
337.5000;0.5560;0.9828;
337.8000;0.5568;0.9852;
338.1000;0.5535;0.9780;
338.4000;0.5560;0.9780;
338.7000;0.5560;0.9804;
339.0000;0.5560;0.9804;
339.3000;0.5568;0.9828;
339.6000;0.5551;0.9923;
339.9000;0.5560;0.9899;
340.2000;0.5584;0.9899;
340.5000;0.5560;0.9899;
340.8000;0.5560;0.9946;
341.1000;0.5600;0.9994;
341.4000;0.5560;0.9899;
341.7000;0.5560;0.9923;
342.0000;0.5560;0.9946;
342.3000;0.5543;0.9946;
342.6000;0.5568;0.9899;
342.9000;0.5568;0.9923;
343.2000;0.5535;0.9828;
343.5000;0.5568;0.9923;
343.8000;0.5568;1.0041;
344.1000;0.5535;0.9923;
344.4000;0.5543;1.0065;
344.7000;0.5551;1.0065;
345.0000;0.5535;1.0017;
345.3000;0.5535;0.9946;
345.6000;0.5560;0.9899;
345.9000;0.5568;0.9875;
346.2000;0.5535;0.9804;
346.5000;0.5551;0.9828;
346.8000;0.5543;0.9828;
347.1000;0.5560;0.9875;
347.4000;0.5543;0.9757;
347.7000;0.5568;0.9875;
348.0000;0.5560;0.9923;
348.3000;0.5543;0.9828;
348.6000;0.5568;0.9852;
348.9000;0.5560;0.9804;
349.2000;0.5543;0.9852;
349.5000;0.5560;0.9970;
349.8000;0.5543;0.9852;
350.1000;0.5657;1.0065;
350.4000;0.5551;0.9828;
350.7000;0.5576;0.9757;
351.0000;0.5551;0.9686;
351.3000;0.5560;0.9709;
351.6000;0.5568;0.9804;
351.9000;0.5535;0.9804;
352.2000;0.5551;0.9828;
352.5000;0.5560;0.9780;
352.8000;0.5486;0.9591;
353.1000;0.5535;0.9686;
353.4000;0.5551;0.9804;
353.7000;0.5535;0.9757;
354.0000;0.5560;0.9804;
354.3000;0.5568;0.9875;
354.6000;0.5519;0.9804;
354.9000;0.5560;0.9899;
355.2000;0.5551;1.0017;
355.5000;0.5551;0.9994;
355.8000;0.5560;1.0041;
356.1000;0.5568;1.0065;
356.4000;0.5568;1.0041;
356.7000;0.5551;0.9994;
357.0000;0.5576;1.0065;
357.3000;0.5551;0.9994;
357.6000;0.5551;1.0017;
357.9000;0.5551;1.0065;
358.2000;0.5551;1.0017;
358.5000;0.5543;0.9875;
358.8000;0.5576;0.9994;
359.1000;0.5551;0.9852;
359.4000;0.5551;0.9780;
359.7000;0.5551;0.9709;
360.0000;0.5551;0.9709;
360.3000;0.5527;0.9709;
360.6000;0.5551;0.9757;
360.9000;0.5568;0.9780;
361.2000;0.5543;0.9709;
361.5000;0.5568;0.9757;
361.8000;0.5543;0.9709;
362.1000;0.5551;0.9852;
362.4000;0.5551;0.9875;
362.7000;0.5535;0.9923;
363.0000;0.5592;1.0088;
363.3000;0.5576;1.0041;
363.6000;0.5495;0.9733;
363.9000;0.5551;0.9733;
364.2000;0.5551;0.9686;
364.5000;0.5568;0.9780;
364.8000;0.5576;0.9733;
365.1000;0.5527;0.9520;
365.4000;0.5568;0.9638;
365.7000;0.5608;0.9709;
366.0000;0.5576;0.9615;
366.3000;0.5592;0.9615;
366.6000;0.5454;0.9378;
366.9000;0.5535;0.9662;
367.2000;0.5543;0.9686;
367.5000;0.5535;0.9709;
367.8000;0.5560;0.9780;
368.1000;0.5551;0.9757;
368.4000;0.5560;0.9828;
368.7000;0.5551;0.9946;
369.0000;0.5551;0.9780;
369.3000;0.5535;0.9757;
369.6000;0.5551;0.9733;
369.9000;0.5633;0.9946;
370.2000;0.5478;0.9591;
370.5000;0.5543;0.9733;
370.8000;0.5535;0.9757;
371.1000;0.5535;0.9804;
371.4000;0.5551;0.9923;
371.7000;0.5495;0.9757;
372.0000;0.5543;0.9923;
372.3000;0.5617;1.0017;
372.6000;0.5568;0.9875;
372.9000;0.5551;0.9875;
373.2000;0.5503;0.9757;
373.5000;0.5551;0.9899;
373.8000;0.5560;0.9946;
374.1000;0.5584;0.9994;
374.4000;0.5551;0.9970;
374.7000;0.5527;0.9946;
375.0000;0.5560;0.9970;
375.3000;0.5608;1.0017;
375.6000;0.5543;0.9852;
375.9000;0.5551;0.9852;
376.2000;0.5551;0.9828;
376.5000;0.5543;0.9875;
376.8000;0.5560;0.9923;
377.1000;0.5543;0.9828;
377.4000;0.5543;0.9804;
377.7000;0.5543;0.9828;
378.0000;0.5584;0.9852;
378.3000;0.5527;0.9733;
378.6000;0.5543;0.9757;
378.9000;0.5527;0.9733;
379.2000;0.5543;0.9804;
379.5000;0.5551;0.9852;
379.8000;0.5551;0.9899;
380.1000;0.5584;0.9875;
380.4000;0.5551;0.9875;
380.7000;0.5543;0.9899;
381.0000;0.5551;0.9804;
381.3000;0.5665;1.0088;
381.6000;0.5535;0.9852;
381.9000;0.5543;0.9804;
382.2000;0.5535;0.9828;
382.5000;0.5543;0.9899;
382.8000;0.5568;0.9923;
383.1000;0.5551;0.9852;
383.4000;0.5551;0.9780;
383.7000;0.5568;0.9875;
384.0000;0.5600;0.9946;
384.3000;0.5551;0.9828;
384.6000;0.5470;0.9662;
384.9000;0.5584;0.9923;
385.2000;0.5551;0.9852;
385.5000;0.5551;0.9757;
385.8000;0.5527;0.9662;
386.1000;0.5543;0.9686;
386.4000;0.5560;0.9780;
386.7000;0.5543;0.9757;
387.0000;0.5527;0.9686;
387.3000;0.5560;0.9733;
387.6000;0.5470;0.9638;
387.9000;0.5600;0.9994;
388.2000;0.5560;0.9970;
388.5000;0.5535;0.9923;
388.8000;0.5543;0.9899;
389.1000;0.5519;0.9828;
389.4000;0.5560;0.9994;
389.7000;0.5551;1.0041;
390.0000;0.5511;0.9923;
390.3000;0.5576;1.0017;
390.6000;0.5560;0.9923;
390.9000;0.5560;0.9899;
391.2000;0.5576;0.9946;
391.5000;0.5535;0.9804;
391.8000;0.5543;0.9852;
392.1000;0.5560;0.9828;
392.4000;0.5551;0.9804;
392.7000;0.5560;0.9852;
393.0000;0.5625;1.0041;
393.3000;0.5568;0.9923;
393.6000;0.5551;0.9923;
393.9000;0.5527;0.9946;
394.2000;0.5560;1.0088;
394.5000;0.5551;1.0017;
394.8000;0.5543;1.0017;
395.1000;0.5535;0.9994;
395.4000;0.5560;0.9899;
395.7000;0.5551;0.9757;
396.0000;0.5543;0.9709;
396.3000;0.5543;0.9757;
396.6000;0.5568;0.9852;
396.9000;0.5584;0.9875;
397.2000;0.5551;0.9757;
397.5000;0.5543;0.9828;
397.8000;0.5560;0.9852;
398.1000;0.5568;0.9780;
398.4000;0.5470;0.9615;
398.7000;0.5535;0.9780;
399.0000;0.5543;0.9780;
399.3000;0.5568;0.9780;
399.6000;0.5543;0.9638;
399.9000;0.5551;0.9662;
400.2000;0.5560;0.9686;
400.5000;0.5568;0.9780;
400.8000;0.5543;0.9852;
401.1000;0.5625;0.9970;
401.4000;0.5551;0.9780;
401.7000;0.5568;0.9780;
402.0000;0.5551;0.9686;
402.3000;0.5535;0.9591;
402.6000;0.5568;0.9615;
402.9000;0.5576;0.9686;
403.2000;0.5551;0.9615;
403.5000;0.5560;0.9638;
403.8000;0.5560;0.9780;
404.1000;0.5568;0.9899;
404.4000;0.5511;0.9804;
404.7000;0.5551;0.9875;
405.0000;0.5470;0.9686;
405.3000;0.5478;0.9733;
405.6000;0.5560;0.9923;
405.9000;0.5503;0.9804;
406.2000;0.5543;0.9899;
406.5000;0.5560;0.9899;
406.8000;0.5551;0.9923;
407.1000;0.5576;0.9899;
407.4000;0.5568;0.9780;
407.7000;0.5551;0.9709;
408.0000;0.5568;0.9733;
408.3000;0.5551;0.9757;
408.6000;0.5560;0.9875;
408.9000;0.5576;0.9970;
409.2000;0.5535;0.9852;
409.5000;0.5576;0.9923;
409.8000;0.5568;0.9804;
410.1000;0.5511;0.9709;
410.4000;0.5576;0.9828;
410.7000;0.5608;0.9994;
411.0000;0.5543;0.9875;
411.3000;0.5560;0.9828;
411.6000;0.5617;0.9970;
411.9000;0.5576;0.9994;
412.2000;0.5543;0.9923;
412.5000;0.5657;1.0207;
412.8000;0.5527;0.9780;
413.1000;0.5690;1.0112;
413.4000;0.5568;0.9733;
413.7000;0.5511;0.9544;
414.0000;0.5527;0.9638;
414.3000;0.5568;0.9757;
414.6000;0.5551;0.9757;
414.9000;0.5576;0.9733;
415.2000;0.5551;0.9709;
415.5000;0.5527;0.9686;
415.8000;0.5551;0.9757;
416.1000;0.5576;0.9828;
416.4000;0.5535;0.9638;
416.7000;0.5535;0.9709;
417.0000;0.5535;0.9686;
417.3000;0.5511;0.9686;
417.6000;0.5551;0.9733;
417.9000;0.5551;0.9852;
418.2000;0.5568;0.9875;
418.5000;0.5560;0.9946;
418.8000;0.5551;0.9970;
419.1000;0.5495;0.9757;
419.4000;0.5543;0.9923;
419.7000;0.5568;0.9970;
420.0000;0.5543;0.9852;
420.3000;0.5535;0.9804;
420.6000;0.5535;0.9875;
420.9000;0.5543;0.9852;
421.2000;0.5535;0.9899;
421.5000;0.5543;0.9923;
421.8000;0.5551;0.9994;
422.1000;0.5560;1.0017;
422.4000;0.5543;1.0017;
422.7000;0.5568;1.0041;
423.0000;0.5568;1.0088;
423.3000;0.5560;1.0065;
423.6000;0.5551;0.9994;
423.9000;0.5560;0.9946;
424.2000;0.5592;0.9970;
424.5000;0.5551;0.9946;
424.8000;0.5551;0.9875;
425.1000;0.5470;0.9733;
425.4000;0.5576;0.9994;
425.7000;0.5560;0.9994;
426.0000;0.5560;0.9994;
426.3000;0.5608;1.0112;
426.6000;0.5543;1.0017;
426.9000;0.5576;1.0136;
427.2000;0.5551;1.0112;
427.5000;0.5551;1.0041;
427.8000;0.5551;1.0136;
428.1000;0.5551;1.0112;
428.4000;0.5560;1.0136;
428.7000;0.5568;1.0183;
429.0000;0.5568;1.0278;
429.3000;0.5560;1.0278;
429.6000;0.5551;1.0183;
429.9000;0.5519;1.0088;
430.2000;0.5576;1.0301;
430.5000;0.5551;1.0112;
430.8000;0.5551;1.0041;
431.1000;0.5568;1.0112;
431.4000;0.5543;1.0065;
431.7000;0.5560;1.0041;
432.0000;0.5568;1.0017;
432.3000;0.5551;0.9946;
432.6000;0.5576;1.0065;
432.9000;0.5568;1.0065;
433.2000;0.5551;1.0041;
433.5000;0.5543;0.9970;
433.8000;0.5568;1.0041;
434.1000;0.5543;0.9946;
434.4000;0.5527;0.9994;
434.7000;0.5617;1.0065;
435.0000;0.5551;0.9899;
435.3000;0.5551;0.9804;
435.6000;0.5551;0.9804;
435.9000;0.5560;0.9804;
436.2000;0.5503;0.9757;
436.5000;0.5527;0.9946;
436.8000;0.5568;0.9970;
437.1000;0.5551;0.9852;
437.4000;0.5551;0.9780;
437.7000;0.5486;0.9733;
438.0000;0.5527;0.9804;
438.3000;0.5560;0.9852;
438.6000;0.5560;0.9852;
438.9000;0.5551;0.9780;
439.2000;0.5551;0.9828;
439.5000;0.5551;0.9804;
439.8000;0.5576;0.9923;
440.1000;0.5551;0.9970;
440.4000;0.5576;1.0065;
440.7000;0.5560;0.9970;
441.0000;0.5560;0.9994;
441.3000;0.5551;0.9923;
441.6000;0.5576;0.9923;
441.9000;0.5551;0.9994;
442.2000;0.5633;1.0183;
442.5000;0.5592;1.0112;
442.8000;0.5560;1.0112;
443.1000;0.5446;0.9875;
443.4000;0.5478;0.9875;
443.7000;0.5568;1.0112;
444.0000;0.5560;1.0065;
444.3000;0.5543;1.0065;
444.6000;0.5560;1.0088;
444.9000;0.5551;1.0017;
445.2000;0.5560;1.0112;
445.5000;0.5543;1.0112;
445.8000;0.5543;1.0065;
446.1000;0.5543;0.9923;
446.4000;0.5527;0.9875;
446.7000;0.5560;0.9923;
447.0000;0.5535;0.9923;
447.3000;0.5535;0.9899;
447.6000;0.5576;1.0017;
447.9000;0.5592;1.0112;
448.2000;0.5543;0.9923;
448.5000;0.5551;0.9994;
448.8000;0.5495;0.9852;
449.1000;0.5551;0.9923;
449.4000;0.5551;1.0041;
449.7000;0.5543;1.0088;
450.0000;0.5608;1.0207;
450.3000;0.5600;1.0136;
450.6000;0.5551;0.9994;
450.9000;0.5560;1.0017;
451.2000;0.5543;1.0017;
451.5000;0.5568;1.0088;
451.8000;0.5551;1.0065;
452.1000;0.5519;1.0065;
452.4000;0.5535;1.0065;
452.7000;0.5551;1.0112;
453.0000;0.5543;1.0136;
453.3000;0.5527;1.0065;
453.6000;0.5535;0.9923;
453.9000;0.5584;0.9994;
454.2000;0.5543;0.9970;
454.5000;0.5535;0.9946;
454.8000;0.5527;0.9804;
455.1000;0.5568;0.9946;
455.4000;0.5551;0.9852;
455.7000;0.5527;0.9709;
456.0000;0.5535;0.9828;
456.3000;0.5560;0.9923;
456.6000;0.5584;1.0017;
456.9000;0.5551;0.9994;
457.2000;0.5535;0.9994;
457.5000;0.5519;0.9946;
457.8000;0.5568;1.0065;
458.1000;0.5568;1.0207;
458.4000;0.5543;1.0207;
458.7000;0.5486;1.0017;
459.0000;0.5600;1.0349;
459.3000;0.5535;1.0159;
459.6000;0.5527;1.0230;
459.9000;0.5551;1.0254;
460.2000;0.5519;1.0088;
460.5000;0.5543;1.0136;
460.8000;0.5543;1.0159;
461.1000;0.5543;1.0183;
461.4000;0.5551;1.0088;
461.7000;0.5690;1.0372;
462.0000;0.5568;1.0041;
462.3000;0.5551;0.9970;
462.6000;0.5551;0.9946;
462.9000;0.5568;0.9970;
463.2000;0.5576;1.0041;
463.5000;0.5527;0.9899;
463.8000;0.5584;0.9994;
464.1000;0.5543;0.9970;
464.4000;0.5560;1.0017;
464.7000;0.5568;1.0041;
465.0000;0.5560;1.0017;
465.3000;0.5568;1.0112;
465.6000;0.5551;1.0041;
465.9000;0.5576;1.0041;
466.2000;0.5560;1.0065;
466.5000;0.5535;1.0112;
466.8000;0.5584;1.0254;
467.1000;0.5543;1.0112;
467.4000;0.5519;0.9994;
467.7000;0.5535;0.9994;
468.0000;0.5543;1.0041;
468.3000;0.5543;0.9946;
468.6000;0.5551;0.9852;
468.9000;0.5511;0.9780;
469.2000;0.5641;1.0088;
469.5000;0.5560;0.9970;
469.8000;0.5543;0.9899;
470.1000;0.5560;0.9923;
470.4000;0.5568;0.9899;
470.7000;0.5535;0.9899;
471.0000;0.5568;0.9970;
471.3000;0.5551;0.9828;
471.6000;0.5535;0.9899;
471.9000;0.5535;0.9923;
472.2000;0.5560;1.0041;
472.5000;0.5543;1.0017;
472.8000;0.5560;1.0088;
473.1000;0.5535;1.0088;
473.4000;0.5584;1.0207;
473.7000;0.5568;1.0136;
474.0000;0.5576;1.0183;
474.3000;0.5551;1.0017;
474.6000;0.5551;1.0017;
474.9000;0.5543;1.0017;
475.2000;0.5519;0.9899;
475.5000;0.5551;0.9852;
475.8000;0.5511;0.9709;
476.1000;0.5568;0.9875;
476.4000;0.5560;0.9899;
476.7000;0.5535;0.9875;
477.0000;0.5560;0.9994;
477.3000;0.5657;1.0183;
477.6000;0.5560;0.9923;
477.9000;0.5551;0.9970;
478.2000;0.5592;1.0065;
478.5000;0.5568;0.9994;
478.8000;0.5551;1.0017;
479.1000;0.5543;0.9899;
479.4000;0.5560;0.9946;
479.7000;0.5584;0.9946;
480.0000;0.5568;0.9970;
480.3000;0.5543;0.9852;
480.6000;0.5560;0.9852;
480.9000;0.5551;0.9804;
481.2000;0.5551;0.9828;
481.5000;0.5535;0.9709;
481.8000;0.5543;0.9733;
482.1000;0.5560;0.9804;
482.4000;0.5551;0.9757;
482.7000;0.5535;0.9686;
483.0000;0.5551;0.9780;
483.3000;0.5568;0.9828;
483.6000;0.5486;0.9780;
483.9000;0.5560;0.9946;
484.2000;0.5560;0.9899;
484.5000;0.5470;0.9804;
484.8000;0.5551;0.9970;
485.1000;0.5608;0.9970;
485.4000;0.5568;0.9828;
485.7000;0.5551;0.9804;
486.0000;0.5519;0.9828;
486.3000;0.5568;0.9923;
486.6000;0.5560;0.9875;
486.9000;0.5560;0.9923;
487.2000;0.5543;0.9994;
487.5000;0.5568;1.0041;
487.8000;0.5535;0.9946;
488.1000;0.5503;0.9804;
488.4000;0.5543;0.9946;
488.7000;0.5486;0.9733;
489.0000;0.5543;1.0017;
489.3000;0.5560;1.0088;
489.6000;0.5568;1.0017;
489.9000;0.5551;1.0017;
490.2000;0.5560;1.0017;
490.5000;0.5543;1.0017;
490.8000;0.5560;0.9899;
491.1000;0.5535;0.9899;
491.4000;0.5543;0.9899;
491.7000;0.5527;0.9899;
492.0000;0.5543;0.9923;
492.3000;0.5560;0.9923;
492.6000;0.5551;0.9923;
492.9000;0.5535;0.9852;
493.2000;0.5568;0.9994;
493.5000;0.5551;0.9946;
493.8000;0.5551;0.9923;
494.1000;0.5576;1.0017;
494.4000;0.5535;1.0065;
494.7000;0.5551;1.0088;
495.0000;0.5551;1.0112;
495.3000;0.5543;1.0017;
495.6000;0.5543;1.0041;
495.9000;0.5560;1.0088;
496.2000;0.5551;1.0017;
496.5000;0.5543;1.0065;
496.8000;0.5551;1.0017;
497.1000;0.5560;0.9994;
497.4000;0.5576;1.0112;
497.7000;0.5560;1.0230;
498.0000;0.5551;1.0207;
498.3000;0.5527;1.0183;
498.6000;0.5560;1.0183;
498.9000;0.5503;0.9994;
499.2000;0.5568;1.0088;
499.5000;0.5568;1.0065;
499.8000;0.5543;0.9994;
500.1000;0.5568;1.0112;
500.4000;0.5600;1.0230;
500.7000;0.5495;0.9946;
501.0000;0.5543;1.0065;
501.3000;0.5535;1.0112;
501.6000;0.5551;1.0136;
501.9000;0.5551;1.0159;
502.2000;0.5551;1.0112;
502.5000;0.5543;1.0136;
502.8000;0.5560;1.0088;
503.1000;0.5527;1.0017;
503.4000;0.5560;1.0065;
503.7000;0.5551;1.0065;
504.0000;0.5551;1.0065;
504.3000;0.5560;1.0017;
504.6000;0.5568;1.0041;
504.9000;0.5560;1.0088;
505.2000;0.5551;1.0041;
505.5000;0.5576;1.0159;
505.8000;0.5543;1.0017;
506.1000;0.5560;1.0065;
506.4000;0.5551;1.0088;
506.7000;0.5600;1.0183;
507.0000;0.5527;1.0017;
507.3000;0.5535;0.9970;
507.6000;0.5503;1.0017;
507.9000;0.5543;1.0159;
508.2000;0.5584;1.0301;
508.5000;0.5462;1.0017;
508.8000;0.5543;1.0183;
509.1000;0.5543;1.0278;
509.4000;0.5551;1.0159;
509.7000;0.5600;1.0230;
510.0000;0.5543;1.0017;
510.3000;0.5576;1.0112;
510.6000;0.5543;1.0017;
510.9000;0.5543;1.0041;
511.2000;0.5543;1.0088;
511.5000;0.5551;1.0088;
511.8000;0.5478;0.9899;
512.1000;0.5543;1.0041;
512.4000;0.5543;0.9970;
512.7000;0.5543;0.9946;
513.0000;0.5560;1.0017;
513.3000;0.5543;0.9946;
513.6000;0.5535;0.9923;
513.9000;0.5543;1.0112;
514.2000;0.5560;1.0136;
514.5000;0.5470;0.9828;
514.8000;0.5495;0.9875;
515.1000;0.5527;0.9946;
515.4000;0.5527;0.9899;
515.7000;0.5470;0.9804;
516.0000;0.5584;1.0041;
516.3000;0.5511;0.9899;
516.6000;0.5551;0.9923;
516.9000;0.5535;0.9899;
517.2000;0.5560;1.0017;
517.5000;0.5486;0.9852;
517.8000;0.5543;1.0017;
518.1000;0.5535;0.9946;
518.4000;0.5527;0.9828;
518.7000;0.5551;0.9899;
519.0000;0.5560;0.9923;
519.3000;0.5495;0.9757;
519.6000;0.5535;0.9923;
519.9000;0.5625;1.0183;
520.2000;0.5568;1.0136;
520.5000;0.5568;1.0041;
520.8000;0.5535;0.9994;
521.1000;0.5592;1.0088;
521.4000;0.5551;0.9923;
521.7000;0.5551;0.9946;
522.0000;0.5527;0.9923;
522.3000;0.5438;0.9733;
522.6000;0.5543;0.9899;
522.9000;0.5527;0.9899;
523.2000;0.5551;0.9946;
523.5000;0.5543;0.9899;
523.8000;0.5551;0.9946;
524.1000;0.5551;0.9852;
524.4000;0.5568;0.9875;
524.7000;0.5560;0.9780;
525.0000;0.5568;0.9899;
525.3000;0.5543;0.9946;
525.6000;0.5568;1.0065;
525.9000;0.5551;0.9994;
526.2000;0.5543;0.9970;
526.5000;0.5551;1.0017;
526.8000;0.5560;1.0017;
527.1000;0.5543;0.9994;
527.4000;0.5551;1.0041;
527.7000;0.5535;0.9994;
528.0000;0.5527;1.0017;
528.3000;0.5551;1.0159;
528.6000;0.5543;1.0207;
528.9000;0.5543;1.0112;
529.2000;0.5560;1.0065;
529.5000;0.5551;1.0088;
529.8000;0.5551;1.0041;
530.1000;0.5551;1.0017;
530.4000;0.5560;1.0017;
530.7000;0.5560;1.0136;
531.0000;0.5535;0.9946;
531.3000;0.5551;0.9923;
531.6000;0.5543;0.9923;
531.9000;0.5560;0.9970;
532.2000;0.5568;1.0088;
532.5000;0.5454;0.9828;
532.8000;0.5560;1.0065;
533.1000;0.5568;1.0041;
533.4000;0.5543;0.9994;
533.7000;0.5543;0.9923;
534.0000;0.5535;0.9923;
534.3000;0.5568;0.9899;
534.6000;0.5560;0.9899;
534.9000;0.5527;0.9875;
535.2000;0.5535;0.9899;
535.5000;0.5543;0.9946;
535.8000;0.5560;1.0017;
536.1000;0.5568;1.0159;
536.4000;0.5576;1.0159;
536.7000;0.5568;1.0112;
537.0000;0.5551;1.0159;
537.3000;0.5560;1.0159;
537.6000;0.5543;1.0041;
537.9000;0.5535;1.0041;
538.2000;0.5551;1.0065;
538.5000;0.5551;0.9946;
538.8000;0.5527;0.9923;
539.1000;0.5470;0.9828;
539.4000;0.5560;0.9946;
539.7000;0.5551;0.9994;
540.0000;0.5551;1.0041;
540.3000;0.5568;0.9970;
540.6000;0.5551;0.9899;
540.9000;0.5560;0.9875;
541.2000;0.5568;0.9994;
541.5000;0.5560;0.9946;
541.8000;0.5551;0.9970;
542.1000;0.5568;1.0041;
542.4000;0.5560;1.0017;
542.7000;0.5535;0.9899;
543.0000;0.5543;0.9923;
543.3000;0.5543;0.9923;
543.6000;0.5535;0.9852;
543.9000;0.5535;0.9899;
544.2000;0.5592;1.0017;
544.5000;0.5543;0.9970;
544.8000;0.5543;1.0041;
545.1000;0.5551;1.0065;
545.4000;0.5625;1.0183;
545.7000;0.5560;0.9994;
546.0000;0.5470;0.9852;
546.3000;0.5503;0.9970;
546.6000;0.5543;1.0112;
546.9000;0.5568;1.0112;
547.2000;0.5600;1.0136;
547.5000;0.5543;0.9970;
547.8000;0.5551;0.9994;
548.1000;0.5527;0.9923;
548.4000;0.5535;0.9946;
548.7000;0.5543;0.9946;
549.0000;0.5503;0.9899;
549.3000;0.5543;0.9994;
549.6000;0.5576;1.0041;
549.9000;0.5470;0.9780;
550.2000;0.5527;0.9923;
550.5000;0.5551;0.9946;
550.8000;0.5551;0.9875;
551.1000;0.5568;0.9875;
551.4000;0.5560;0.9994;
551.7000;0.5527;0.9899;
552.0000;0.5543;0.9994;
552.3000;0.5560;1.0041;
552.6000;0.5576;1.0112;
552.9000;0.5568;0.9994;
553.2000;0.5543;0.9923;
553.5000;0.5543;0.9970;
553.8000;0.5551;1.0017;
554.1000;0.5560;0.9994;
554.4000;0.5535;0.9899;
554.7000;0.5527;0.9875;
555.0000;0.5568;0.9899;
555.3000;0.5551;0.9970;
555.6000;0.5543;0.9994;
555.9000;0.5535;0.9994;
556.2000;0.5551;1.0041;
556.5000;0.5527;0.9804;
556.8000;0.5625;1.0041;
557.1000;0.5576;0.9946;
557.4000;0.5560;0.9852;
557.7000;0.5551;0.9852;
558.0000;0.5551;0.9970;
558.3000;0.5543;1.0088;
558.6000;0.5568;1.0088;
558.9000;0.5560;1.0088;
559.2000;0.5535;0.9923;
559.5000;0.5551;0.9946;
559.8000;0.5551;0.9946;
560.1000;0.5600;1.0041;
560.4000;0.5519;0.9804;
560.7000;0.5551;0.9923;
561.0000;0.5560;1.0041;
561.3000;0.5478;0.9852;
561.6000;0.5560;1.0159;
561.9000;0.5551;1.0136;
562.2000;0.5535;0.9994;
562.5000;0.5478;0.9828;
562.8000;0.5551;0.9970;
563.1000;0.5592;1.0017;
563.4000;0.5511;0.9804;
563.7000;0.5551;0.9946;
564.0000;0.5592;1.0088;
564.3000;0.5560;0.9994;
564.6000;0.5551;1.0112;
564.9000;0.5543;1.0017;
565.2000;0.5511;1.0041;
565.5000;0.5560;1.0088;
565.8000;0.5495;0.9899;
566.1000;0.5568;1.0088;
566.4000;0.5535;1.0065;
566.7000;0.5568;1.0065;
567.0000;0.5535;1.0017;
567.3000;0.5535;1.0041;
567.6000;0.5543;1.0041;
567.9000;0.5543;0.9970;
568.2000;0.5551;0.9899;
568.5000;0.5543;0.9852;
568.8000;0.5551;0.9899;
569.1000;0.5560;0.9899;
569.4000;0.5551;0.9852;
569.7000;0.5551;0.9780;
570.0000;0.5568;0.9852;
570.3000;0.5592;0.9899;
570.6000;0.5551;0.9757;
570.9000;0.5560;0.9662;
571.2000;0.5551;0.9638;
571.5000;0.5551;0.9686;
571.8000;0.5568;0.9733;
572.1000;0.5543;0.9733;
572.4000;0.5551;0.9757;
572.7000;0.5535;0.9709;
573.0000;0.5560;0.9780;
573.3000;0.5551;0.9852;
573.6000;0.5551;0.9828;
573.9000;0.5551;0.9875;
574.2000;0.5560;0.9946;
574.5000;0.5543;0.9923;
574.8000;0.5560;1.0017;
575.1000;0.5551;0.9970;
575.4000;0.5551;0.9946;
575.7000;0.5470;0.9828;
576.0000;0.5478;0.9923;
576.3000;0.5543;1.0065;
576.6000;0.5543;1.0041;
576.9000;0.5543;1.0065;
577.2000;0.5551;1.0159;
577.5000;0.5543;1.0065;
577.8000;0.5543;1.0159;
578.1000;0.5568;1.0159;
578.4000;0.5551;1.0041;
578.7000;0.5503;0.9875;
579.0000;0.5535;0.9852;
579.3000;0.5543;0.9923;
579.6000;0.5551;0.9923;
579.9000;0.5600;0.9970;
580.2000;0.5551;0.9875;
580.5000;0.5560;0.9828;
580.8000;0.5535;0.9828;
581.1000;0.5543;0.9828;
581.4000;0.5543;0.9828;
581.7000;0.5576;0.9899;
582.0000;0.5584;0.9828;
582.3000;0.5503;0.9686;
582.6000;0.5560;0.9804;
582.9000;0.5551;0.9662;
583.2000;0.5560;0.9686;
583.5000;0.5551;0.9733;
583.8000;0.5519;0.9686;
584.1000;0.5592;0.9875;
584.4000;0.5560;0.9852;
584.7000;0.5543;0.9852;
585.0000;0.5527;0.9733;
585.3000;0.5535;0.9733;
585.6000;0.5543;0.9780;
585.9000;0.5527;0.9686;
586.2000;0.5543;0.9709;
586.5000;0.5584;0.9709;
586.8000;0.5551;0.9615;
587.1000;0.5568;0.9591;
587.4000;0.5551;0.9591;
587.7000;0.5519;0.9520;
588.0000;0.5576;0.9662;
588.3000;0.5543;0.9544;
588.6000;0.5543;0.9473;
588.9000;0.5535;0.9520;
589.2000;0.5560;0.9615;
589.5000;0.5560;0.9567;
589.8000;0.5560;0.9544;
590.1000;0.5560;0.9520;
590.4000;0.5543;0.9449;
590.7000;0.5543;0.9496;
591.0000;0.5519;0.9520;
591.3000;0.5551;0.9567;
591.6000;0.5551;0.9615;
591.9000;0.5543;0.9662;
592.2000;0.5576;0.9804;
592.5000;0.5519;0.9709;
592.8000;0.5551;0.9828;
593.1000;0.5543;0.9757;
593.4000;0.5568;0.9780;
593.7000;0.5576;0.9804;
594.0000;0.5551;0.9804;
594.3000;0.5527;0.9757;
594.6000;0.5560;0.9733;
594.9000;0.5617;0.9828;
595.2000;0.5560;0.9780;
595.5000;0.5527;0.9757;
595.8000;0.5551;0.9923;
596.1000;0.5543;0.9923;
596.4000;0.5551;0.9923;
596.7000;0.5543;0.9923;
597.0000;0.5543;0.9946;
597.3000;0.5543;0.9970;
597.6000;0.5535;1.0041;
597.9000;0.5519;1.0041;
598.2000;0.5568;1.0065;
598.5000;0.5568;1.0041;
598.8000;0.5551;1.0088;
599.1000;0.5560;1.0159;
599.4000;0.5543;1.0112;
599.7000;0.5486;0.9923;
600.0000;0.5568;1.0088;
600.3000;0.5454;0.9662;
600.6000;0.5551;0.9780;
600.9000;0.5560;0.9757;
601.2000;0.5543;0.9733;
601.5000;0.5486;0.9496;
601.8000;0.5454;0.9402;
602.1000;0.5421;0.9307;
602.4000;0.5413;0.9307;
602.7000;0.5324;0.8999;
603.0000;0.5356;0.9141;
603.3000;0.5348;0.9117;
603.6000;0.5315;0.9023;
603.9000;0.5267;0.8857;
604.2000;0.5242;0.8786;
604.5000;0.5226;0.8810;
604.8000;0.5210;0.8786;
605.1000;0.5193;0.8762;
605.4000;0.5153;0.8644;
605.7000;0.5153;0.8644;
606.0000;0.5112;0.8691;
606.3000;0.5120;0.8762;
606.6000;0.5096;0.8691;
606.9000;0.5055;0.8573;
607.2000;0.5104;0.8691;
607.5000;0.5047;0.8573;
607.8000;0.5022;0.8549;
608.1000;0.5047;0.8525;
608.4000;0.5022;0.8502;
608.7000;0.5022;0.8525;
609.0000;0.5014;0.8573;
609.3000;0.4982;0.8549;
609.6000;0.4957;0.8573;
609.9000;0.4990;0.8596;
610.2000;0.4925;0.8383;
610.5000;0.4925;0.8407;
610.8000;0.5079;0.8810;
611.1000;0.4908;0.8454;
611.4000;0.4925;0.8502;
611.7000;0.5014;0.8667;
612.0000;0.4900;0.8289;
612.3000;0.4876;0.8336;
612.6000;0.4884;0.8431;
612.9000;0.4860;0.8454;
613.2000;0.4892;0.8549;
613.5000;0.4835;0.8478;
613.8000;0.4843;0.8407;
614.1000;0.4827;0.8336;
614.4000;0.4868;0.8383;
614.7000;0.4819;0.8194;
615.0000;0.4803;0.8194;
615.3000;0.4794;0.8217;
615.6000;0.4770;0.8194;
615.9000;0.4754;0.8194;
616.2000;0.4811;0.8289;
616.5000;0.4762;0.8170;
616.8000;0.4713;0.8099;
617.1000;0.4729;0.8265;
617.4000;0.4729;0.8312;
617.7000;0.4737;0.8383;
618.0000;0.4729;0.8336;
618.3000;0.4721;0.8265;
618.6000;0.4713;0.8265;
618.9000;0.4705;0.8241;
619.2000;0.4689;0.8241;
619.5000;0.4681;0.8336;
619.8000;0.4681;0.8336;
620.1000;0.4681;0.8312;
620.4000;0.4664;0.8312;
620.7000;0.4697;0.8336;
621.0000;0.4656;0.8289;
621.3000;0.4624;0.8170;
621.6000;0.4656;0.8265;
621.9000;0.4664;0.8265;
622.2000;0.4607;0.8265;
622.5000;0.4624;0.8241;
622.8000;0.4583;0.8194;
623.1000;0.4624;0.8241;
623.4000;0.4607;0.8170;
623.7000;0.4575;0.8099;
624.0000;0.4534;0.8028;
624.3000;0.4591;0.8146;
624.6000;0.4599;0.8217;
624.9000;0.4534;0.8052;
625.2000;0.4550;0.8004;
625.5000;0.4567;0.8052;
625.8000;0.4542;0.8075;
626.1000;0.4518;0.8052;
626.4000;0.4567;0.8312;
626.7000;0.4550;0.8383;
627.0000;0.4510;0.8360;
627.3000;0.4518;0.8431;
627.6000;0.4526;0.8573;
627.9000;0.4493;0.8573;
628.2000;0.4526;0.8525;
628.5000;0.4501;0.8454;
628.8000;0.4493;0.8454;
629.1000;0.4493;0.8383;
629.4000;0.4501;0.8383;
629.7000;0.4493;0.8360;
630.0000;0.4469;0.8265;
630.3000;0.4526;0.8312;
630.6000;0.4461;0.8170;
630.9000;0.4420;0.8123;
631.2000;0.4436;0.8170;
631.5000;0.4493;0.8312;
631.8000;0.4493;0.8407;
632.1000;0.4347;0.8004;
632.4000;0.4404;0.8170;
632.7000;0.4404;0.8194;
633.0000;0.4428;0.8312;
633.3000;0.4412;0.8360;
633.6000;0.4428;0.8383;
633.9000;0.4420;0.8407;
634.2000;0.4371;0.8265;
634.5000;0.4387;0.8289;
634.8000;0.4396;0.8217;
635.1000;0.4387;0.8123;
635.4000;0.4379;0.8052;
635.7000;0.4355;0.7981;
636.0000;0.4347;0.7957;
636.3000;0.4322;0.7933;
636.6000;0.4363;0.8028;
636.9000;0.4347;0.7933;
637.2000;0.4355;0.7933;
637.5000;0.4347;0.7981;
637.8000;0.4347;0.7933;
638.1000;0.4339;0.7862;
638.4000;0.4404;0.8052;
638.7000;0.4339;0.8004;
639.0000;0.4363;0.8052;
639.3000;0.4314;0.7957;
639.6000;0.4339;0.8052;
639.9000;0.4306;0.8028;
640.2000;0.4298;0.7981;
640.5000;0.4298;0.8123;
640.8000;0.4314;0.8146;
641.1000;0.4290;0.8170;
641.4000;0.4282;0.8146;
641.7000;0.4282;0.8170;
642.0000;0.4298;0.8170;
642.3000;0.4282;0.8099;
642.6000;0.4282;0.8075;
642.9000;0.4274;0.8028;
643.2000;0.4306;0.8099;
643.5000;0.4290;0.8075;
643.8000;0.4265;0.8028;
644.1000;0.4265;0.8075;
644.4000;0.4265;0.8028;
644.7000;0.4241;0.7910;
645.0000;0.4233;0.7839;
645.3000;0.4282;0.7910;
645.6000;0.4249;0.7886;
645.9000;0.4257;0.7981;
646.2000;0.4249;0.8028;
646.5000;0.4225;0.8004;
646.8000;0.4241;0.8004;
647.1000;0.4168;0.7910;
647.4000;0.4217;0.7981;
647.7000;0.4217;0.8052;
648.0000;0.4192;0.7981;
648.3000;0.4208;0.8052;
648.6000;0.4249;0.8004;
648.9000;0.4200;0.7981;
649.2000;0.4200;0.8099;
649.5000;0.4200;0.8194;
649.8000;0.4192;0.8052;
650.1000;0.4184;0.8028;
650.4000;0.4184;0.7933;
650.7000;0.4233;0.8146;
651.0000;0.4192;0.7957;
651.3000;0.4192;0.7957;
651.6000;0.4151;0.7862;
651.9000;0.4192;0.8004;
652.2000;0.4217;0.8075;
652.5000;0.4062;0.7839;
652.8000;0.4160;0.8004;
653.1000;0.4143;0.8004;
653.4000;0.4135;0.7957;
653.7000;0.4029;0.7696;
654.0000;0.4168;0.8028;
654.3000;0.4135;0.7957;
654.6000;0.4225;0.8170;
654.9000;0.4151;0.7957;
655.2000;0.4143;0.8028;
655.5000;0.4135;0.7981;
655.8000;0.4127;0.7957;
656.1000;0.4078;0.7815;
656.4000;0.4103;0.7910;
656.7000;0.4119;0.8099;
657.0000;0.4151;0.8194;
657.3000;0.4119;0.8241;
657.6000;0.4103;0.8170;
657.9000;0.4103;0.8146;
658.2000;0.4111;0.8194;
658.5000;0.4111;0.8123;
658.8000;0.4086;0.8052;
659.1000;0.4094;0.8004;
659.4000;0.4070;0.8004;
659.7000;0.4094;0.8194;
660.0000;0.4070;0.8146;
660.3000;0.4094;0.8170;
660.6000;0.4078;0.8217;
660.9000;0.4029;0.7981;
661.2000;0.4103;0.8099;
661.5000;0.4086;0.8099;
661.8000;0.4070;0.7933;
662.1000;0.4094;0.7933;
662.4000;0.4086;0.7910;
662.7000;0.4062;0.8004;
663.0000;0.4078;0.7957;
663.3000;0.4062;0.8099;
663.6000;0.4070;0.8123;
663.9000;0.4176;0.8454;
664.2000;0.4062;0.8099;
664.5000;0.4054;0.8099;
664.8000;0.4054;0.8170;
665.1000;0.4054;0.8170;
665.4000;0.4062;0.8123;
665.7000;0.4046;0.8170;
666.0000;0.4037;0.8099;
666.3000;0.4062;0.8028;
666.6000;0.4054;0.7910;
666.9000;0.4054;0.7957;
667.2000;0.4046;0.8028;
667.5000;0.4062;0.8052;
667.8000;0.4013;0.7957;
668.1000;0.4037;0.7957;
668.4000;0.4037;0.8052;
668.7000;0.4029;0.8146;
669.0000;0.4037;0.8194;
669.3000;0.4037;0.8241;
669.6000;0.4021;0.8170;
669.9000;0.4013;0.8194;
670.2000;0.4021;0.8241;
670.5000;0.4013;0.8265;
670.8000;0.4005;0.8265;
671.1000;0.4005;0.8241;
671.4000;0.4037;0.8217;
671.7000;0.3997;0.8170;
672.0000;0.4111;0.8454;
672.3000;0.4021;0.8194;
672.6000;0.4005;0.8052;
672.9000;0.3997;0.8123;
673.2000;0.3932;0.8052;
673.5000;0.3989;0.8194;
673.8000;0.3997;0.8241;
674.1000;0.3997;0.8217;
674.4000;0.4021;0.8194;
674.7000;0.3989;0.8075;
675.0000;0.4029;0.8146;
675.3000;0.4021;0.8194;
675.6000;0.3989;0.8099;
675.9000;0.3980;0.8075;
676.2000;0.3932;0.8099;
676.5000;0.3980;0.8217;
676.8000;0.3948;0.8075;
677.1000;0.3956;0.8075;
677.4000;0.3964;0.8099;
677.7000;0.3980;0.8099;
678.0000;0.3964;0.8004;
678.3000;0.4054;0.8312;
678.6000;0.3964;0.8123;
678.9000;0.3980;0.8099;
679.2000;0.3980;0.8052;
679.5000;0.3956;0.8052;
679.8000;0.3948;0.8075;
680.1000;0.3972;0.8194;
680.4000;0.3964;0.8241;
680.7000;0.3956;0.8194;
681.0000;0.3964;0.8170;
681.3000;0.3989;0.8170;
681.6000;0.3964;0.8123;
681.9000;0.3964;0.8146;
682.2000;0.3940;0.8123;
682.5000;0.3948;0.8194;
682.8000;0.3932;0.8170;
683.1000;0.3948;0.8241;
683.4000;0.3932;0.8170;
683.7000;0.3964;0.8194;
684.0000;0.3956;0.8099;
684.3000;0.3932;0.7981;
684.6000;0.3915;0.8075;
684.9000;0.3915;0.8146;
685.2000;0.3923;0.8123;
685.5000;0.3964;0.8146;
685.8000;0.3932;0.8075;
686.1000;0.3899;0.7910;
686.4000;0.3940;0.8099;
686.7000;0.3964;0.8170;
687.0000;0.3923;0.8052;
687.3000;0.3907;0.7910;
687.6000;0.3923;0.7933;
687.9000;0.3923;0.8028;
688.2000;0.3923;0.7981;
688.5000;0.3932;0.8099;
688.8000;0.3915;0.8075;
689.1000;0.3923;0.8075;
689.4000;0.3932;0.8123;
689.7000;0.3915;0.8028;
690.0000;0.3932;0.8265;
690.3000;0.3899;0.8241;
690.6000;0.3923;0.8265;
690.9000;0.3915;0.8194;
691.2000;0.3932;0.8146;
691.5000;0.3907;0.8028;
691.8000;0.3915;0.8028;
692.1000;0.3964;0.8241;
692.4000;0.3907;0.8123;
692.7000;0.3891;0.8075;
693.0000;0.3883;0.8099;
693.3000;0.3891;0.8075;
693.6000;0.3850;0.8052;
693.9000;0.3891;0.8099;
694.2000;0.3875;0.7981;
694.5000;0.3842;0.7933;
694.8000;0.3875;0.8004;
695.1000;0.3858;0.7910;
695.4000;0.3883;0.7981;
695.7000;0.3842;0.7981;
696.0000;0.3891;0.8075;
696.3000;0.3883;0.8099;
696.6000;0.3891;0.8123;
696.9000;0.3883;0.8099;
697.2000;0.3883;0.8099;
697.5000;0.3850;0.8004;
697.8000;0.3883;0.8170;
698.1000;0.3858;0.8217;
698.4000;0.3875;0.8312;
698.7000;0.3875;0.8217;
699.0000;0.3867;0.8123;
699.3000;0.3867;0.8099;
699.6000;0.3858;0.8004;
699.9000;0.3858;0.7933;
700.2000;0.3867;0.7981;
700.5000;0.3875;0.8004;
700.8000;0.3875;0.8170;
701.1000;0.3875;0.8123;
701.4000;0.3875;0.8052;
701.7000;0.3858;0.8028;
702.0000;0.3858;0.8052;
702.3000;0.3826;0.7933;
702.6000;0.3850;0.7981;
702.9000;0.3883;0.8052;
703.2000;0.3858;0.8004;
703.5000;0.3858;0.8075;
703.8000;0.3842;0.8052;
704.1000;0.3875;0.8170;
704.4000;0.3850;0.8194;
704.7000;0.3850;0.8217;
705.0000;0.3826;0.8217;
705.3000;0.3850;0.8312;
705.6000;0.3850;0.8431;
705.9000;0.3850;0.8407;
706.2000;0.3850;0.8289;
706.5000;0.3834;0.8241;
706.8000;0.3793;0.8123;
707.1000;0.3834;0.8123;
707.4000;0.3834;0.8146;
707.7000;0.3826;0.8194;
708.0000;0.3826;0.8170;
708.3000;0.3826;0.8099;
708.6000;0.3842;0.8146;
708.9000;0.3818;0.8123;
709.2000;0.3818;0.8099;
709.5000;0.3818;0.8123;
709.8000;0.3801;0.8146;
710.1000;0.3761;0.8099;
710.4000;0.3826;0.8241;
710.7000;0.3834;0.8312;
711.0000;0.3801;0.8217;
711.3000;0.3818;0.8265;
711.6000;0.3875;0.8407;
711.9000;0.3801;0.8217;
712.2000;0.3858;0.8360;
712.5000;0.3842;0.8289;
712.8000;0.3867;0.8217;
713.1000;0.3769;0.8004;
713.4000;0.3826;0.8217;
713.7000;0.3818;0.8146;
714.0000;0.3834;0.8170;
714.3000;0.3801;0.8099;
714.6000;0.3785;0.8052;
714.9000;0.3818;0.8170;
715.2000;0.3785;0.8052;
715.5000;0.3801;0.8123;
715.8000;0.3818;0.8217;
716.1000;0.3810;0.8289;
716.4000;0.3810;0.8241;
716.7000;0.3785;0.8194;
717.0000;0.3826;0.8241;
717.3000;0.3810;0.8146;
717.6000;0.3818;0.8075;
717.9000;0.3801;0.8099;
718.2000;0.3826;0.8099;
718.5000;0.3810;0.8099;
718.8000;0.3810;0.8099;
719.1000;0.3810;0.8075;
719.4000;0.3801;0.8099;
719.7000;0.3744;0.8052;
720.0000;0.3810;0.8241;
720.3000;0.3801;0.8123;
720.6000;0.3793;0.8004;
720.9000;0.3801;0.8028;
721.2000;0.3801;0.7957;
721.5000;0.3810;0.8004;
721.8000;0.3810;0.8052;
722.1000;0.3793;0.8075;
722.4000;0.3793;0.8099;
722.7000;0.3801;0.8217;
723.0000;0.3810;0.8146;
723.3000;0.3801;0.8004;
723.6000;0.3793;0.8052;
723.9000;0.3793;0.8004;
724.2000;0.3793;0.8052;
724.5000;0.3801;0.8028;
724.8000;0.3777;0.7957;
725.1000;0.3801;0.7957;
725.4000;0.3793;0.7957;
725.7000;0.3785;0.8004;
726.0000;0.3769;0.7981;
726.3000;0.3842;0.8170;
726.6000;0.3761;0.8004;
726.9000;0.3777;0.7957;
727.2000;0.3785;0.8052;
727.5000;0.3834;0.8099;
727.8000;0.3777;0.7981;
728.1000;0.3785;0.7886;
728.4000;0.3777;0.7839;
728.7000;0.3777;0.7910;
729.0000;0.3744;0.7957;
729.3000;0.3826;0.8028;
729.6000;0.3753;0.7886;
729.9000;0.3769;0.7981;
730.2000;0.3793;0.8004;
730.5000;0.3769;0.8004;
730.8000;0.3753;0.8123;
731.1000;0.3777;0.8146;
731.4000;0.3777;0.8170;
731.7000;0.3777;0.8123;
732.0000;0.3769;0.8075;
732.3000;0.3785;0.8028;
732.6000;0.3761;0.8075;
732.9000;0.3785;0.8146;
733.2000;0.3744;0.8146;
733.5000;0.3761;0.8146;
733.8000;0.3753;0.8170;
734.1000;0.3769;0.8194;
734.4000;0.3761;0.8123;
734.7000;0.3736;0.8123;
735.0000;0.3639;0.7886;
735.3000;0.3769;0.8146;
735.6000;0.3728;0.8075;
735.9000;0.3769;0.8099;
736.2000;0.3753;0.8052;
736.5000;0.3793;0.8146;
736.8000;0.3761;0.8075;
737.1000;0.3777;0.8028;
737.4000;0.3753;0.8075;
737.7000;0.3777;0.8170;
738.0000;0.3785;0.8170;
738.3000;0.3720;0.7981;
738.6000;0.3761;0.8028;
738.9000;0.3761;0.8052;
739.2000;0.3736;0.8123;
739.5000;0.3753;0.8170;
739.8000;0.3801;0.8265;
740.1000;0.3753;0.8052;
740.4000;0.3769;0.8075;
740.7000;0.3793;0.8194;
741.0000;0.3744;0.8146;
741.3000;0.3785;0.8265;
741.6000;0.3761;0.8241;
741.9000;0.3736;0.8146;
742.2000;0.3753;0.8146;
742.5000;0.3744;0.8289;
742.8000;0.3744;0.8241;
743.1000;0.3753;0.8265;
743.4000;0.3736;0.8170;
743.7000;0.3761;0.8075;
744.0000;0.3736;0.7957;
744.3000;0.3736;0.7910;
744.6000;0.3728;0.7815;
744.9000;0.3728;0.7862;
745.2000;0.3728;0.7957;
745.5000;0.3744;0.7933;
745.8000;0.3744;0.7886;
746.1000;0.3744;0.7815;
746.4000;0.3744;0.7744;
746.7000;0.3663;0.7625;
747.0000;0.3728;0.7862;
747.3000;0.3753;0.7957;
747.6000;0.3753;0.8075;
747.9000;0.3744;0.8099;
748.2000;0.3842;0.8383;
748.5000;0.3793;0.8241;
748.8000;0.3736;0.8146;
749.1000;0.3736;0.8123;
749.4000;0.3753;0.8123;
749.7000;0.3671;0.7886;
750.0000;0.3720;0.7981;
750.3000;0.3704;0.7933;
750.6000;0.3736;0.7933;
750.9000;0.3728;0.7933;
751.2000;0.3736;0.7910;
751.5000;0.3744;0.7933;
751.8000;0.3720;0.7910;
752.1000;0.3744;0.7933;
752.4000;0.3736;0.7957;
752.7000;0.3696;0.7957;
753.0000;0.3720;0.8028;
753.3000;0.3736;0.8028;
753.6000;0.3744;0.8004;
753.9000;0.3736;0.8028;
754.2000;0.3720;0.7933;
754.5000;0.3728;0.7933;
754.8000;0.3736;0.7910;
755.1000;0.3720;0.7744;
755.4000;0.3720;0.7791;
755.7000;0.3744;0.7933;
756.0000;0.3720;0.7957;
756.3000;0.3720;0.7839;
756.6000;0.3712;0.7673;
756.9000;0.3720;0.7744;
757.2000;0.3720;0.7839;
757.5000;0.3720;0.7933;
757.8000;0.3736;0.7957;
758.1000;0.3704;0.7957;
758.4000;0.3736;0.8028;
758.7000;0.3712;0.8004;
759.0000;0.3696;0.7981;
759.3000;0.3728;0.8052;
759.6000;0.3704;0.8028;
759.9000;0.3704;0.8028;
760.2000;0.3720;0.7981;
760.5000;0.3712;0.7957;
760.8000;0.3720;0.8004;
761.1000;0.3720;0.7981;
761.4000;0.3704;0.7957;
761.7000;0.3720;0.7933;
762.0000;0.3753;0.8028;
762.3000;0.3696;0.7886;
762.6000;0.3712;0.7886;
762.9000;0.3671;0.7744;
763.2000;0.3704;0.7933;
763.5000;0.3712;0.7933;
763.8000;0.3704;0.7910;
764.1000;0.3712;0.7957;
764.4000;0.3679;0.8004;
764.7000;0.3720;0.8075;
765.0000;0.3663;0.7957;
765.3000;0.3704;0.8052;
765.6000;0.3728;0.8123;
765.9000;0.3696;0.8004;
766.2000;0.3639;0.7910;
766.5000;0.3687;0.7981;
766.8000;0.3728;0.8099;
767.1000;0.3712;0.8052;
767.4000;0.3679;0.8099;
767.7000;0.3704;0.8099;
768.0000;0.3606;0.7768;
768.3000;0.3704;0.8028;
768.6000;0.3761;0.8099;
768.9000;0.3679;0.7862;
769.2000;0.3565;0.7720;
769.5000;0.3712;0.8075;
769.8000;0.3630;0.7957;
770.1000;0.3663;0.8099;
770.4000;0.3614;0.7886;
770.7000;0.3696;0.7933;
771.0000;0.3704;0.7957;
771.3000;0.3753;0.8170;
771.6000;0.3704;0.8028;
771.9000;0.3704;0.8075;
772.2000;0.3712;0.8052;
772.5000;0.3704;0.7957;
772.8000;0.3826;0.8194;
773.1000;0.3671;0.7862;
773.4000;0.3810;0.8289;
773.7000;0.3712;0.8004;
774.0000;0.3704;0.7981;
774.3000;0.3704;0.7981;
774.6000;0.3696;0.8075;
774.9000;0.3687;0.8123;
775.2000;0.3720;0.8289;
775.5000;0.3671;0.8146;
775.8000;0.3687;0.8265;
776.1000;0.3704;0.8289;
776.4000;0.3687;0.8099;
776.7000;0.3590;0.7839;
777.0000;0.3614;0.7862;
777.3000;0.3679;0.8075;
777.6000;0.3712;0.8194;
777.9000;0.3704;0.8194;
778.2000;0.3687;0.8123;
778.5000;0.3696;0.8170;
778.8000;0.3696;0.8123;
779.1000;0.3687;0.8004;
779.4000;0.3696;0.7957;
779.7000;0.3679;0.7981;
780.0000;0.3679;0.7933;
780.3000;0.3704;0.8028;
780.6000;0.3687;0.7910;
780.9000;0.3687;0.7933;
781.2000;0.3671;0.7981;
781.5000;0.3679;0.8075;
781.8000;0.3614;0.7910;
782.1000;0.3679;0.8075;
782.4000;0.3696;0.8099;
782.7000;0.3696;0.8123;
783.0000;0.3639;0.8052;
783.3000;0.3696;0.8312;
783.6000;0.3687;0.8289;
783.9000;0.3671;0.8265;
784.2000;0.3671;0.8265;
784.5000;0.3687;0.8241;
784.8000;0.3687;0.8241;
785.1000;0.3753;0.8549;
785.4000;0.3679;0.8265;
785.7000;0.3671;0.8241;
786.0000;0.3679;0.8217;
786.3000;0.3720;0.8265;
786.6000;0.3679;0.8170;
786.9000;0.3663;0.8170;
787.2000;0.3630;0.8170;
787.5000;0.3696;0.8241;
787.8000;0.3671;0.8146;
788.1000;0.3671;0.8123;
788.4000;0.3671;0.8075;
788.7000;0.3647;0.8052;
789.0000;0.3639;0.8004;
789.3000;0.3679;0.8052;
789.6000;0.3663;0.8028;
789.9000;0.3679;0.8004;
790.2000;0.3712;0.8052;
790.5000;0.3679;0.8028;
790.8000;0.3696;0.8052;
791.1000;0.3679;0.7933;
791.4000;0.3671;0.7981;
791.7000;0.3704;0.8028;
792.0000;0.3679;0.7933;
792.3000;0.3712;0.8075;
792.6000;0.3687;0.8052;
792.9000;0.3671;0.8123;
793.2000;0.3687;0.8099;
793.5000;0.3671;0.8099;
793.8000;0.3687;0.8170;
794.1000;0.3655;0.8146;
794.4000;0.3744;0.8360;
794.7000;0.3687;0.8265;
795.0000;0.3671;0.8052;
795.3000;0.3696;0.8052;
795.6000;0.3679;0.8004;
795.9000;0.3639;0.7957;
796.2000;0.3671;0.8099;
796.5000;0.3696;0.8170;
796.8000;0.3663;0.8099;
797.1000;0.3639;0.8004;
797.4000;0.3671;0.8099;
797.7000;0.3679;0.8123;
798.0000;0.3671;0.8123;
798.3000;0.3679;0.8028;
798.6000;0.3679;0.8123;
798.9000;0.3663;0.8099;
799.2000;0.3679;0.8123;
799.5000;0.3663;0.8004;
799.8000;0.3639;0.8004;
800.1000;0.3647;0.8004;
800.4000;0.3663;0.7981;
800.7000;0.3663;0.8028;
801.0000;0.3671;0.8052;
801.3000;0.3614;0.7981;
801.6000;0.3647;0.8075;
801.9000;0.3655;0.8052;
802.2000;0.3647;0.7981;
802.5000;0.3639;0.8004;
802.8000;0.3630;0.7933;
803.1000;0.3679;0.8123;
803.4000;0.3671;0.8241;
803.7000;0.3647;0.8241;
804.0000;0.3679;0.8312;
804.3000;0.3696;0.8407;
804.6000;0.3647;0.8289;
804.9000;0.3630;0.8241;
805.2000;0.3663;0.8312;
805.5000;0.3663;0.8217;
805.8000;0.3704;0.8265;
806.1000;0.3655;0.8194;
806.4000;0.3647;0.8123;
806.7000;0.3655;0.8099;
807.0000;0.3647;0.8146;
807.3000;0.3639;0.8075;
807.6000;0.3663;0.8052;
807.9000;0.3687;0.8217;
808.2000;0.3704;0.8265;
808.5000;0.3663;0.8265;
808.8000;0.3663;0.8170;
809.1000;0.3663;0.8146;
809.4000;0.3663;0.8099;
809.7000;0.3606;0.7933;
810.0000;0.3671;0.8004;
810.3000;0.3639;0.7957;
810.6000;0.3696;0.8052;
810.9000;0.3647;0.7981;
811.2000;0.3679;0.8028;
811.5000;0.3639;0.8052;
811.8000;0.3582;0.7981;
812.1000;0.3655;0.8312;
812.4000;0.3671;0.8431;
812.7000;0.3655;0.8407;
813.0000;0.3663;0.8407;
813.3000;0.3655;0.8407;
813.6000;0.3647;0.8407;
813.9000;0.3655;0.8336;
814.2000;0.3671;0.8312;
814.5000;0.3687;0.8360;
814.8000;0.3630;0.8241;
815.1000;0.3647;0.8241;
815.4000;0.3655;0.8336;
815.7000;0.3630;0.8289;
816.0000;0.3671;0.8360;
816.3000;0.3630;0.8289;
816.6000;0.3639;0.8360;
816.9000;0.3655;0.8431;
817.2000;0.3647;0.8478;
817.5000;0.3655;0.8431;
817.8000;0.3630;0.8383;
818.1000;0.3663;0.8383;
818.4000;0.3647;0.8194;
818.7000;0.3639;0.8217;
819.0000;0.3647;0.8265;
819.3000;0.3655;0.8217;
819.6000;0.3655;0.8241;
819.9000;0.3639;0.8194;
820.2000;0.3606;0.8170;
820.5000;0.3647;0.8217;
820.8000;0.3663;0.8241;
821.1000;0.3663;0.8194;
821.4000;0.3696;0.8383;
821.7000;0.3639;0.8289;
822.0000;0.3663;0.8407;
822.3000;0.3663;0.8360;
822.6000;0.3639;0.8312;
822.9000;0.3630;0.8217;
823.2000;0.3639;0.8217;
823.5000;0.3647;0.8289;
823.8000;0.3630;0.8217;
824.1000;0.3614;0.8123;
824.4000;0.3647;0.8123;
824.7000;0.3647;0.8075;
825.0000;0.3622;0.8028;
825.3000;0.3663;0.8099;
825.6000;0.3639;0.8146;
825.9000;0.3630;0.8052;
826.2000;0.3630;0.8146;
826.5000;0.3630;0.8099;
826.8000;0.3647;0.8146;
827.1000;0.3639;0.8170;
827.4000;0.3630;0.8217;
827.7000;0.3655;0.8194;
828.0000;0.3647;0.8075;
828.3000;0.3630;0.8075;
828.6000;0.3663;0.8194;
828.9000;0.3671;0.8217;
829.2000;0.3679;0.8289;
829.5000;0.3647;0.8336;
829.8000;0.3687;0.8454;
830.1000;0.3647;0.8336;
830.4000;0.3639;0.8289;
830.7000;0.3606;0.8123;
831.0000;0.3639;0.8217;
831.3000;0.3622;0.8194;
831.6000;0.3647;0.8170;
831.9000;0.3639;0.8289;
832.2000;0.3655;0.8289;
832.5000;0.3647;0.8241;
832.8000;0.3630;0.8217;
833.1000;0.3622;0.8217;
833.4000;0.3622;0.8170;
833.7000;0.3704;0.8431;
834.0000;0.3622;0.8194;
834.3000;0.3557;0.8052;
834.6000;0.3622;0.8312;
834.9000;0.3647;0.8312;
835.2000;0.3614;0.8194;
835.5000;0.3630;0.8312;
835.8000;0.3630;0.8360;
836.1000;0.3630;0.8312;
836.4000;0.3630;0.8312;
836.7000;0.3622;0.8289;
837.0000;0.3679;0.8336;
837.3000;0.3728;0.8383;
837.6000;0.3655;0.8123;
837.9000;0.3630;0.8170;
838.2000;0.3614;0.8123;
838.5000;0.3630;0.8146;
838.8000;0.3647;0.8146;
839.1000;0.3630;0.8075;
839.4000;0.3622;0.8052;
839.7000;0.3655;0.8146;
840.0000;0.3639;0.8146;
840.3000;0.3630;0.8123;
840.6000;0.3630;0.8217;
840.9000;0.3639;0.8194;
841.2000;0.3663;0.8265;
841.5000;0.3655;0.8265;
841.8000;0.3639;0.8241;
842.1000;0.3614;0.8194;
842.4000;0.3655;0.8312;
842.7000;0.3630;0.8289;
843.0000;0.3622;0.8265;
843.3000;0.3614;0.8217;
843.6000;0.3630;0.8289;
843.9000;0.3622;0.8312;
844.2000;0.3655;0.8312;
844.5000;0.3639;0.8312;
844.8000;0.3679;0.8336;
845.1000;0.3622;0.8194;
845.4000;0.3630;0.8194;
845.7000;0.3614;0.8170;
846.0000;0.3622;0.8194;
846.3000;0.3639;0.8170;
846.6000;0.3614;0.8170;
846.9000;0.3606;0.8146;
847.2000;0.3606;0.8170;
847.5000;0.3622;0.8217;
847.8000;0.3647;0.8265;
848.1000;0.3614;0.8265;
848.4000;0.3622;0.8265;
848.7000;0.3671;0.8407;
849.0000;0.3614;0.8312;
849.3000;0.3696;0.8525;
849.6000;0.3598;0.8217;
849.9000;0.3614;0.8265;
850.2000;0.3655;0.8289;
850.5000;0.3655;0.8265;
850.8000;0.3647;0.8289;
851.1000;0.3630;0.8312;
851.4000;0.3614;0.8289;
851.7000;0.3639;0.8289;
852.0000;0.3606;0.8289;
852.3000;0.3598;0.8289;
852.6000;0.3622;0.8265;
852.9000;0.3704;0.8431;
853.2000;0.3622;0.8241;
853.5000;0.3606;0.8146;
853.8000;0.3606;0.8194;
854.1000;0.3630;0.8170;
854.4000;0.3663;0.8170;
854.7000;0.3655;0.8170;
855.0000;0.3606;0.7910;
855.3000;0.3647;0.7910;
855.6000;0.3639;0.7957;
855.9000;0.3655;0.7981;
856.2000;0.3614;0.8028;
856.5000;0.3614;0.8099;
856.8000;0.3598;0.8170;
857.1000;0.3614;0.8289;
857.4000;0.3630;0.8336;
857.7000;0.3606;0.8312;
858.0000;0.3720;0.8596;
858.3000;0.3606;0.8289;
858.6000;0.3622;0.8360;
858.9000;0.3614;0.8336;
859.2000;0.3630;0.8265;
859.5000;0.3606;0.8289;
859.8000;0.3639;0.8431;
860.1000;0.3622;0.8289;
860.4000;0.3622;0.8289;
860.7000;0.3622;0.8289;
861.0000;0.3614;0.8312;
861.3000;0.3622;0.8336;
861.6000;0.3614;0.8312;
861.9000;0.3639;0.8336;
862.2000;0.3614;0.8265;
862.5000;0.3704;0.8596;
862.8000;0.3622;0.8431;
863.1000;0.3606;0.8407;
863.4000;0.3630;0.8383;
863.7000;0.3639;0.8431;
864.0000;0.3614;0.8502;
864.3000;0.3622;0.8478;
864.6000;0.3630;0.8383;
864.9000;0.3622;0.8289;
865.2000;0.3639;0.8312;
865.5000;0.3639;0.8265;
865.8000;0.3687;0.8407;
866.1000;0.3582;0.8170;
866.4000;0.3614;0.8146;
866.7000;0.3549;0.8028;
867.0000;0.3622;0.8194;
867.3000;0.3525;0.7886;
867.6000;0.3606;0.8146;
867.9000;0.3598;0.8052;
868.2000;0.3549;0.7981;
868.5000;0.3614;0.8099;
868.8000;0.3573;0.8028;
869.1000;0.3598;0.8075;
869.4000;0.3630;0.8146;
869.7000;0.3582;0.8123;
870.0000;0.3598;0.8123;
870.3000;0.3582;0.8123;
870.6000;0.3590;0.8123;
870.9000;0.3614;0.8289;
871.2000;0.3606;0.8289;
871.5000;0.3598;0.8265;
871.8000;0.3614;0.8241;
872.1000;0.3696;0.8431;
872.4000;0.3598;0.8217;
872.7000;0.3590;0.8146;
873.0000;0.3663;0.8336;
873.3000;0.3606;0.8265;
873.6000;0.3606;0.8265;
873.9000;0.3590;0.8336;
874.2000;0.3614;0.8336;
874.5000;0.3598;0.8360;
874.8000;0.3639;0.8383;
875.1000;0.3622;0.8336;
875.4000;0.3630;0.8241;
875.7000;0.3622;0.8217;
876.0000;0.3622;0.8312;
876.3000;0.3598;0.8312;
876.6000;0.3614;0.8312;
876.9000;0.3647;0.8478;
877.2000;0.3614;0.8431;
877.5000;0.3590;0.8407;
877.8000;0.3598;0.8431;
878.1000;0.3582;0.8336;
878.4000;0.3622;0.8431;
878.7000;0.3630;0.8525;
879.0000;0.3590;0.8525;
879.3000;0.3598;0.8573;
879.6000;0.3647;0.8667;
879.9000;0.3606;0.8454;
880.2000;0.3590;0.8478;
880.5000;0.3614;0.8502;
880.8000;0.3630;0.8573;
881.1000;0.3598;0.8431;
881.4000;0.3598;0.8383;
881.7000;0.3598;0.8336;
882.0000;0.3622;0.8312;
882.3000;0.3565;0.8265;
882.6000;0.3590;0.8289;
882.9000;0.3655;0.8431;
883.2000;0.3582;0.8265;
883.5000;0.3614;0.8407;
883.8000;0.3598;0.8431;
884.1000;0.3582;0.8431;
884.4000;0.3614;0.8502;
884.7000;0.3573;0.8407;
885.0000;0.3630;0.8478;
885.3000;0.3614;0.8383;
885.6000;0.3614;0.8289;
885.9000;0.3614;0.8312;
886.2000;0.3622;0.8289;
886.5000;0.3630;0.8383;
886.8000;0.3606;0.8407;
887.1000;0.3598;0.8431;
887.4000;0.3614;0.8431;
887.7000;0.3639;0.8360;
888.0000;0.3614;0.8312;
888.3000;0.3663;0.8454;
888.6000;0.3549;0.8170;
888.9000;0.3614;0.8360;
889.2000;0.3606;0.8336;
889.5000;0.3614;0.8407;
889.8000;0.3606;0.8407;
890.1000;0.3590;0.8312;
890.4000;0.3614;0.8360;
890.7000;0.3606;0.8336;
891.0000;0.3622;0.8431;
891.3000;0.3582;0.8217;
891.6000;0.3606;0.8336;
891.9000;0.3622;0.8336;
892.2000;0.3687;0.8525;
892.5000;0.3573;0.8289;
892.8000;0.3582;0.8265;
893.1000;0.3630;0.8336;
893.4000;0.3614;0.8312;
893.7000;0.3622;0.8431;
894.0000;0.3622;0.8336;
894.3000;0.3614;0.8265;
894.6000;0.3606;0.8360;
894.9000;0.3606;0.8289;
895.2000;0.3606;0.8265;
895.5000;0.3606;0.8241;
895.8000;0.3622;0.8289;
896.1000;0.3590;0.8241;
896.4000;0.3590;0.8289;
896.7000;0.3606;0.8312;
897.0000;0.3630;0.8336;
897.3000;0.3590;0.8312;
897.6000;0.3598;0.8336;
897.9000;0.3533;0.8146;
898.2000;0.3598;0.8241;
898.5000;0.3598;0.8194;
898.8000;0.3614;0.8241;
899.1000;0.3622;0.8241;
899.4000;0.3614;0.8312;
899.7000;0.3598;0.8265;
900.0000;0.3671;0.8383;
900.3000;0.3622;0.8360;
900.6000;0.3606;0.8312;
900.9000;0.3614;0.8431;
901.2000;0.3582;0.8360;
901.5000;0.3598;0.8549;
901.8000;0.3598;0.8454;
902.1000;0.3639;0.8525;
902.4000;0.3590;0.8407;
902.7000;0.3573;0.8241;
903.0000;0.3622;0.8407;
903.3000;0.3606;0.8383;
903.6000;0.3582;0.8312;
903.9000;0.3630;0.8383;
904.2000;0.3704;0.8525;
904.5000;0.3598;0.8099;
904.8000;0.3598;0.8170;
905.1000;0.3590;0.8146;
905.4000;0.3590;0.8028;
905.7000;0.3598;0.7957;
906.0000;0.3590;0.8099;
906.3000;0.3582;0.8146;
906.6000;0.3671;0.8265;
906.9000;0.3622;0.8265;
907.2000;0.3614;0.8241;
907.5000;0.3606;0.8217;
907.8000;0.3622;0.8241;
908.1000;0.3622;0.8217;
908.4000;0.3590;0.8099;
908.7000;0.3573;0.8075;
909.0000;0.3663;0.8312;
909.3000;0.3565;0.8146;
909.6000;0.3606;0.8217;
909.9000;0.3598;0.8146;
910.2000;0.3614;0.8194;
910.5000;0.3590;0.8170;
910.8000;0.3614;0.8146;
911.1000;0.3598;0.8146;
911.4000;0.3606;0.8194;
911.7000;0.3622;0.8217;
912.0000;0.3582;0.8099;
912.3000;0.3590;0.8052;
912.6000;0.3598;0.8146;
912.9000;0.3606;0.8123;
913.2000;0.3582;0.8099;
913.5000;0.3598;0.8265;
913.8000;0.3590;0.8312;
914.1000;0.3590;0.8360;
914.4000;0.3582;0.8336;
914.7000;0.3590;0.8289;
915.0000;0.3582;0.8312;
915.3000;0.3582;0.8241;
915.6000;0.3598;0.8241;
915.9000;0.3614;0.8407;
916.2000;0.3565;0.8360;
916.5000;0.3590;0.8360;
916.8000;0.3541;0.8241;
917.1000;0.3598;0.8431;
917.4000;0.3573;0.8312;
917.7000;0.3598;0.8312;
918.0000;0.3590;0.8194;
918.3000;0.3606;0.8194;
918.6000;0.3590;0.8194;
918.9000;0.3590;0.8265;
919.2000;0.3606;0.8312;
919.5000;0.3582;0.8265;
919.8000;0.3565;0.8170;
920.1000;0.3590;0.8217;
920.4000;0.3598;0.8170;
920.7000;0.3590;0.8123;
921.0000;0.3614;0.8289;
921.3000;0.3598;0.8312;
921.6000;0.3598;0.8336;
921.9000;0.3598;0.8289;
922.2000;0.3582;0.8241;
922.5000;0.3582;0.8146;
922.8000;0.3582;0.8194;
923.1000;0.3655;0.8360;
923.4000;0.3582;0.8265;
923.7000;0.3582;0.8289;
924.0000;0.3557;0.8217;
924.3000;0.3598;0.8312;
924.6000;0.3614;0.8336;
924.9000;0.3492;0.8099;
925.2000;0.3565;0.8241;
925.5000;0.3655;0.8502;
925.8000;0.3622;0.8454;
926.1000;0.3582;0.8431;
926.4000;0.3590;0.8549;
926.7000;0.3541;0.8383;
927.0000;0.3525;0.8289;
927.3000;0.3590;0.8454;
927.6000;0.3590;0.8478;
927.9000;0.3590;0.8360;
928.2000;0.3606;0.8431;
928.5000;0.3557;0.8383;
928.8000;0.3573;0.8407;
929.1000;0.3582;0.8360;
929.4000;0.3582;0.8289;
929.7000;0.3598;0.8383;
930.0000;0.3573;0.8360;
930.3000;0.3582;0.8289;
930.6000;0.3647;0.8431;
930.9000;0.3614;0.8383;
931.2000;0.3622;0.8289;
931.5000;0.3598;0.8123;
931.8000;0.3582;0.8194;
932.1000;0.3671;0.8525;
932.4000;0.3590;0.8383;
932.7000;0.3590;0.8454;
933.0000;0.3647;0.8502;
933.3000;0.3622;0.8454;
933.6000;0.3639;0.8407;
933.9000;0.3573;0.8241;
934.2000;0.3614;0.8360;
934.5000;0.3582;0.8312;
934.8000;0.3573;0.8241;
935.1000;0.3557;0.8289;
935.4000;0.3590;0.8312;
935.7000;0.3565;0.8336;
936.0000;0.3590;0.8478;
936.3000;0.3573;0.8454;
936.6000;0.3573;0.8454;
936.9000;0.3582;0.8549;
937.2000;0.3614;0.8454;
937.5000;0.3557;0.8312;
937.8000;0.3590;0.8360;
938.1000;0.3622;0.8336;
938.4000;0.3590;0.8289;
938.7000;0.3582;0.8312;
939.0000;0.3582;0.8312;
939.3000;0.3573;0.8383;
939.6000;0.3590;0.8241;
939.9000;0.3598;0.8265;
940.2000;0.3573;0.8241;
940.5000;0.3508;0.8123;
940.8000;0.3394;0.7815;
941.1000;0.3565;0.8217;
941.4000;0.3476;0.7957;
941.7000;0.3573;0.8265;
942.0000;0.3582;0.8289;
942.3000;0.3598;0.8383;
942.6000;0.3590;0.8360;
942.9000;0.3590;0.8312;
943.2000;0.3614;0.8360;
943.5000;0.3590;0.8312;
943.8000;0.3598;0.8289;
944.1000;0.3590;0.8289;
944.4000;0.3590;0.8241;
944.7000;0.3582;0.8075;
945.0000;0.3606;0.8194;
945.3000;0.3590;0.8123;
945.6000;0.3590;0.8146;
945.9000;0.3525;0.8099;
946.2000;0.3590;0.8289;
946.5000;0.3582;0.8289;
946.8000;0.3582;0.8241;
947.1000;0.3573;0.8123;
947.4000;0.3598;0.8170;
947.7000;0.3582;0.8123;
948.0000;0.3582;0.8194;
948.3000;0.3606;0.8265;
948.6000;0.3573;0.8360;
948.9000;0.3590;0.8454;
949.2000;0.3557;0.8289;
949.5000;0.3590;0.8194;
949.8000;0.3573;0.8194;
950.1000;0.3573;0.8194;
950.4000;0.3565;0.8099;
950.7000;0.3582;0.8241;
951.0000;0.3557;0.8241;
951.3000;0.3622;0.8383;
951.6000;0.3598;0.8383;
951.9000;0.3590;0.8312;
952.2000;0.3598;0.8336;
952.5000;0.3582;0.8336;
952.8000;0.3598;0.8407;
953.1000;0.3582;0.8289;
953.4000;0.3565;0.8194;
953.7000;0.3549;0.8146;
954.0000;0.3573;0.8170;
954.3000;0.3476;0.7886;
954.6000;0.3606;0.8241;
954.9000;0.3582;0.8194;
955.2000;0.3582;0.8241;
955.5000;0.3573;0.8265;
955.8000;0.3573;0.8336;
956.1000;0.3590;0.8407;
956.4000;0.3598;0.8383;
956.7000;0.3582;0.8289;
957.0000;0.3582;0.8289;
957.3000;0.3565;0.8194;
957.6000;0.3630;0.8289;
957.9000;0.3614;0.8265;
958.2000;0.3606;0.8265;
958.5000;0.3565;0.8217;
958.8000;0.3696;0.8478;
959.1000;0.3533;0.8028;
959.4000;0.3557;0.8099;
959.7000;0.3565;0.8217;
960.0000;0.3630;0.8336;
960.3000;0.3484;0.8123;
960.6000;0.3582;0.8431;
960.9000;0.3565;0.8407;
961.2000;0.3582;0.8502;
961.5000;0.3582;0.8431;
961.8000;0.3598;0.8502;
962.1000;0.3696;0.8738;
962.4000;0.3565;0.8502;
962.7000;0.3606;0.8596;
963.0000;0.3590;0.8478;
963.3000;0.3573;0.8407;
963.6000;0.3565;0.8383;
963.9000;0.3630;0.8502;
964.2000;0.3590;0.8431;
964.5000;0.3533;0.8194;
964.8000;0.3582;0.8312;
965.1000;0.3573;0.8241;
965.4000;0.3582;0.8312;
965.7000;0.3590;0.8265;
966.0000;0.3590;0.8194;
966.3000;0.3573;0.8194;
966.6000;0.3476;0.8004;
966.9000;0.3565;0.8289;
967.2000;0.3557;0.8265;
967.5000;0.3582;0.8289;
967.8000;0.3630;0.8360;
968.1000;0.3582;0.8241;
968.4000;0.3582;0.8336;
968.7000;0.3582;0.8336;
969.0000;0.3590;0.8360;
969.3000;0.3598;0.8360;
969.6000;0.3573;0.8241;
969.9000;0.3549;0.8194;
970.2000;0.3573;0.8336;
970.5000;0.3712;0.8573;
970.8000;0.3573;0.8194;
971.1000;0.3565;0.8170;
971.4000;0.3573;0.8336;
971.7000;0.3606;0.8431;
972.0000;0.3582;0.8360;
972.3000;0.3582;0.8336;
972.6000;0.3582;0.8383;
972.9000;0.3647;0.8454;
973.2000;0.3582;0.8289;
973.5000;0.3598;0.8360;
973.8000;0.3573;0.8336;
974.1000;0.3598;0.8431;
974.4000;0.3573;0.8312;
974.7000;0.3606;0.8336;
975.0000;0.3590;0.8383;
975.3000;0.3598;0.8360;
975.6000;0.3549;0.8265;
975.9000;0.3557;0.8146;
976.2000;0.3541;0.8075;
976.5000;0.3582;0.8241;
976.8000;0.3582;0.8217;
977.1000;0.3573;0.8123;
977.4000;0.3557;0.8004;
977.7000;0.3590;0.8170;
978.0000;0.3590;0.8289;
978.3000;0.3590;0.8170;
978.6000;0.3582;0.8123;
978.9000;0.3582;0.8146;
979.2000;0.3541;0.8146;
979.5000;0.3573;0.8123;
979.8000;0.3565;0.8123;
980.1000;0.3590;0.8123;
980.4000;0.3565;0.8194;
980.7000;0.3582;0.8265;
981.0000;0.3476;0.8123;
981.3000;0.3655;0.8573;
981.6000;0.3573;0.8407;
981.9000;0.3565;0.8360;
982.2000;0.3557;0.8312;
982.5000;0.3606;0.8383;
982.8000;0.3647;0.8478;
983.1000;0.3639;0.8336;
983.4000;0.3639;0.8383;
983.7000;0.3598;0.8289;
984.0000;0.3541;0.8075;
984.3000;0.3630;0.8336;
984.6000;0.3598;0.8241;
984.9000;0.3590;0.8312;
985.2000;0.3541;0.8217;
985.5000;0.3598;0.8336;
985.8000;0.3590;0.8265;
986.1000;0.3573;0.8123;
986.4000;0.3582;0.8194;
986.7000;0.3573;0.8217;
987.0000;0.3598;0.8265;
987.3000;0.3573;0.8289;
987.6000;0.3516;0.8170;
987.9000;0.3565;0.8360;
988.2000;0.3582;0.8383;
988.5000;0.3582;0.8336;
988.8000;0.3590;0.8336;
989.1000;0.3598;0.8312;
989.4000;0.3557;0.8312;
989.7000;0.3606;0.8478;
990.0000;0.3582;0.8454;
990.3000;0.3557;0.8383;
990.6000;0.3573;0.8383;
990.9000;0.3582;0.8454;
991.2000;0.3590;0.8478;
991.5000;0.3598;0.8502;
991.8000;0.3573;0.8407;
992.1000;0.3598;0.8431;
992.4000;0.3590;0.8383;
992.7000;0.3590;0.8336;
993.0000;0.3590;0.8312;
993.3000;0.3598;0.8407;
993.6000;0.3557;0.8265;
993.9000;0.3565;0.8289;
994.2000;0.3582;0.8336;
994.5000;0.3549;0.8217;
994.8000;0.3573;0.8170;
995.1000;0.3582;0.8170;
995.4000;0.3606;0.8217;
995.7000;0.3614;0.8241;
996.0000;0.3573;0.8194;
996.3000;0.3573;0.8265;
996.6000;0.3573;0.8170;
996.9000;0.3598;0.8170;
997.2000;0.3582;0.8123;
997.5000;0.3590;0.8241;
997.8000;0.3565;0.8289;
998.1000;0.3500;0.8146;
998.4000;0.3590;0.8336;
998.7000;0.3573;0.8289;
999.0000;0.3541;0.8099;
999.3000;0.3508;0.8004;
999.6000;0.3582;0.8194;
999.9000;0.3573;0.8194;
1000.2000;0.3565;0.8241;
1000.5000;0.3533;0.8217;
1000.8000;0.3557;0.8241;
1001.1000;0.3573;0.8289;
1001.4000;0.3549;0.8241;
1001.7000;0.3541;0.8146;
1002.0000;0.3565;0.8265;
1002.3000;0.3565;0.8241;
1002.6000;0.3565;0.8194;
1002.9000;0.3565;0.8194;
1003.2000;0.3573;0.8099;
1003.5000;0.3557;0.8075;
1003.8000;0.3565;0.8028;
1004.1000;0.3573;0.8004;
1004.4000;0.3582;0.8075;
1004.7000;0.3630;0.8241;
1005.0000;0.3565;0.8075;
1005.3000;0.3541;0.8028;
1005.6000;0.3565;0.8170;
1005.9000;0.3590;0.8336;
1006.2000;0.3590;0.8336;
1006.5000;0.3582;0.8289;
1006.8000;0.3565;0.8194;
1007.1000;0.3573;0.8241;
1007.4000;0.3573;0.8170;
1007.7000;0.3565;0.8194;
1008.0000;0.3582;0.8217;
1008.3000;0.3484;0.8004;
1008.6000;0.3573;0.8217;
1008.9000;0.3590;0.8241;
1009.2000;0.3565;0.8217;
1009.5000;0.3565;0.8241;
1009.8000;0.3590;0.8265;
1010.1000;0.3590;0.8289;
1010.4000;0.3582;0.8336;
1010.7000;0.3598;0.8454;
1011.0000;0.3582;0.8431;
1011.3000;0.3590;0.8478;
1011.6000;0.3573;0.8478;
1011.9000;0.3549;0.8383;
1012.2000;0.3549;0.8431;
1012.5000;0.3549;0.8407;
1012.8000;0.3541;0.8383;
1013.1000;0.3573;0.8383;
1013.4000;0.3565;0.8336;
1013.7000;0.3590;0.8360;
1014.0000;0.3565;0.8146;
1014.3000;0.3557;0.8123;
1014.6000;0.3582;0.8170;
1014.9000;0.3614;0.8407;
1015.2000;0.3590;0.8383;
1015.5000;0.3565;0.8312;
1015.8000;0.3557;0.8289;
1016.1000;0.3557;0.8336;
1016.4000;0.3582;0.8336;
1016.7000;0.3573;0.8289;
1017.0000;0.3549;0.8217;
1017.3000;0.3573;0.8289;
1017.6000;0.3565;0.8312;
1017.9000;0.3582;0.8194;
1018.2000;0.3549;0.8241;
1018.5000;0.3541;0.8241;
1018.8000;0.3533;0.8217;
1019.1000;0.3549;0.8217;
1019.4000;0.3573;0.8265;
1019.7000;0.3582;0.8217;
1020.0000;0.3582;0.8194;
1020.3000;0.3582;0.8123;
1020.6000;0.3557;0.8099;
1020.9000;0.3606;0.8241;
1021.2000;0.3557;0.8170;
1021.5000;0.3582;0.8241;
1021.8000;0.3565;0.8265;
1022.1000;0.3557;0.8336;
1022.4000;0.3500;0.8194;
1022.7000;0.3525;0.8217;
1023.0000;0.3565;0.8407;
1023.3000;0.3533;0.8407;
1023.6000;0.3549;0.8383;
1023.9000;0.3582;0.8478;
1024.2000;0.3541;0.8525;
1024.5000;0.3565;0.8502;
1024.8000;0.3557;0.8549;
1025.1000;0.3630;0.8691;
1025.4000;0.3565;0.8502;
1025.7000;0.3582;0.8478;
1026.0000;0.3565;0.8431;
1026.3000;0.3557;0.8454;
1026.6000;0.3557;0.8478;
1026.9000;0.3622;0.8573;
1027.2000;0.3565;0.8407;
1027.5000;0.3573;0.8431;
1027.8000;0.3557;0.8407;
1028.1000;0.3565;0.8312;
1028.4000;0.3557;0.8241;
1028.7000;0.3565;0.8289;
1029.0000;0.3639;0.8478;
1029.3000;0.3582;0.8312;
1029.6000;0.3573;0.8289;
1029.9000;0.3533;0.8217;
1030.2000;0.3573;0.8431;
1030.5000;0.3590;0.8407;
1030.8000;0.3557;0.8336;
1031.1000;0.3557;0.8360;
1031.4000;0.3573;0.8336;
1031.7000;0.3573;0.8336;
1032.0000;0.3565;0.8217;
1032.3000;0.3508;0.8028;
1032.6000;0.3557;0.8123;
1032.9000;0.3557;0.8099;
1033.2000;0.3557;0.8170;
1033.5000;0.3549;0.8170;
1033.8000;0.3533;0.8170;
1034.1000;0.3549;0.8289;
1034.4000;0.3565;0.8336;
1034.7000;0.3573;0.8360;
1035.0000;0.3549;0.8289;
1035.3000;0.3573;0.8383;
1035.6000;0.3565;0.8431;
1035.9000;0.3582;0.8431;
1036.2000;0.3565;0.8360;
1036.5000;0.3541;0.8312;
1036.8000;0.3573;0.8383;
1037.1000;0.3565;0.8289;
1037.4000;0.3468;0.7981;
1037.7000;0.3582;0.8217;
1038.0000;0.3598;0.8265;
1038.3000;0.3565;0.8146;
1038.6000;0.3565;0.8217;
1038.9000;0.3533;0.8170;
1039.2000;0.3565;0.8194;
1039.5000;0.3549;0.8099;
1039.8000;0.3573;0.8194;
1040.1000;0.3476;0.8004;
1040.4000;0.3557;0.8241;
1040.7000;0.3573;0.8265;
1041.0000;0.3582;0.8289;
1041.3000;0.3541;0.8265;
1041.6000;0.3565;0.8360;
1041.9000;0.3573;0.8360;
1042.2000;0.3533;0.8336;
1042.5000;0.3557;0.8431;
1042.8000;0.3557;0.8383;
1043.1000;0.3565;0.8360;
1043.4000;0.3565;0.8312;
1043.7000;0.3639;0.8549;
1044.0000;0.3573;0.8336;
1044.3000;0.3565;0.8289;
1044.6000;0.3516;0.8146;
1044.9000;0.3557;0.8170;
1045.2000;0.3565;0.8194;
1045.5000;0.3557;0.8265;
1045.8000;0.3582;0.8454;
1046.1000;0.3622;0.8620;
1046.4000;0.3557;0.8383;
1046.7000;0.3557;0.8454;
1047.0000;0.3557;0.8478;
1047.3000;0.3614;0.8478;
1047.6000;0.3533;0.8383;
1047.9000;0.3549;0.8360;
1048.2000;0.3468;0.8241;
1048.5000;0.3541;0.8454;
1048.8000;0.3573;0.8454;
1049.1000;0.3557;0.8407;
1049.4000;0.3639;0.8691;
1049.7000;0.3557;0.8502;
1050.0000;0.3525;0.8431;
1050.3000;0.3573;0.8525;
1050.6000;0.3565;0.8549;
1050.9000;0.3582;0.8478;
1051.2000;0.3582;0.8502;
1051.5000;0.3573;0.8502;
1051.8000;0.3565;0.8502;
1052.1000;0.3590;0.8549;
1052.4000;0.3557;0.8431;
1052.7000;0.3516;0.8241;
1053.0000;0.3541;0.8336;
1053.3000;0.3573;0.8407;
1053.6000;0.3565;0.8407;
1053.9000;0.3557;0.8407;
1054.2000;0.3541;0.8336;
1054.5000;0.3549;0.8336;
1054.8000;0.3565;0.8407;
1055.1000;0.3549;0.8312;
1055.4000;0.3565;0.8241;
1055.7000;0.3614;0.8265;
1056.0000;0.3525;0.8146;
1056.3000;0.3541;0.8146;
1056.6000;0.3565;0.8265;
1056.9000;0.3508;0.8075;
1057.2000;0.3549;0.8123;
1057.5000;0.3582;0.8241;
1057.8000;0.3541;0.8265;
1058.1000;0.3565;0.8336;
1058.4000;0.3549;0.8241;
1058.7000;0.3549;0.8241;
1059.0000;0.3573;0.8289;
1059.3000;0.3549;0.8289;
1059.6000;0.3549;0.8289;
1059.9000;0.3549;0.8336;
1060.2000;0.3549;0.8360;
1060.5000;0.3573;0.8431;
1060.8000;0.3557;0.8407;
1061.1000;0.3582;0.8502;
1061.4000;0.3582;0.8573;
1061.7000;0.3533;0.8407;
1062.0000;0.3557;0.8431;
1062.3000;0.3573;0.8431;
1062.6000;0.3565;0.8431;
1062.9000;0.3565;0.8573;
1063.2000;0.3557;0.8667;
1063.5000;0.3549;0.8620;
1063.8000;0.3565;0.8620;
1064.1000;0.3573;0.8620;
1064.4000;0.3557;0.8620;
1064.7000;0.3557;0.8644;
1065.0000;0.3590;0.8667;
1065.3000;0.3565;0.8549;
1065.6000;0.3582;0.8549;
1065.9000;0.3590;0.8573;
1066.2000;0.3582;0.8549;
1066.5000;0.3573;0.8525;
1066.8000;0.3582;0.8573;
1067.1000;0.3565;0.8573;
1067.4000;0.3598;0.8573;
1067.7000;0.3582;0.8454;
1068.0000;0.3557;0.8431;
1068.3000;0.3533;0.8336;
1068.6000;0.3500;0.8217;
1068.9000;0.3557;0.8289;
1069.2000;0.3573;0.8312;
1069.5000;0.3549;0.8289;
1069.8000;0.3565;0.8383;
1070.1000;0.3582;0.8478;
1070.4000;0.3565;0.8502;
1070.7000;0.3565;0.8525;
1071.0000;0.3565;0.8620;
1071.3000;0.3565;0.8762;
1071.6000;0.3582;0.8715;
1071.9000;0.3565;0.8644;
1072.2000;0.3573;0.8596;
1072.5000;0.3590;0.8667;
1072.8000;0.3590;0.8573;
1073.1000;0.3508;0.8312;
1073.4000;0.3541;0.8407;
1073.7000;0.3549;0.8502;
1074.0000;0.3573;0.8525;
1074.3000;0.3565;0.8478;
1074.6000;0.3541;0.8502;
1074.9000;0.3557;0.8573;
1075.2000;0.3557;0.8549;
1075.5000;0.3541;0.8525;
1075.8000;0.3565;0.8502;
1076.1000;0.3557;0.8431;
1076.4000;0.3573;0.8525;
1076.7000;0.3582;0.8525;
1077.0000;0.3582;0.8644;
1077.3000;0.3598;0.8573;
1077.6000;0.3565;0.8454;
1077.9000;0.3582;0.8549;
1078.2000;0.3565;0.8573;
1078.5000;0.3541;0.8525;
1078.8000;0.3582;0.8502;
1079.1000;0.3573;0.8502;
1079.4000;0.3549;0.8478;
1079.7000;0.3573;0.8525;
1080.0000;0.3516;0.8407;
1080.3000;0.3549;0.8525;
1080.6000;0.3533;0.8431;
1080.9000;0.3557;0.8407;
1081.2000;0.3573;0.8383;
1081.5000;0.3533;0.8407;
1081.8000;0.3565;0.8383;
1082.1000;0.3582;0.8454;
1082.4000;0.3549;0.8525;
1082.7000;0.3573;0.8525;
1083.0000;0.3557;0.8454;
1083.3000;0.3549;0.8383;
1083.6000;0.3451;0.8123;
1083.9000;0.3573;0.8431;
1084.2000;0.3630;0.8478;
1084.5000;0.3549;0.8289;
1084.8000;0.3549;0.8360;
1085.1000;0.3549;0.8360;
1085.4000;0.3622;0.8502;
1085.7000;0.3419;0.8028;
1086.0000;0.3516;0.8217;
1086.3000;0.3508;0.8217;
1086.6000;0.3573;0.8360;
1086.9000;0.3484;0.8194;
1087.2000;0.3582;0.8383;
1087.5000;0.3582;0.8431;
1087.8000;0.3582;0.8478;
1088.1000;0.3582;0.8407;
1088.4000;0.3557;0.8478;
1088.7000;0.3549;0.8478;
1089.0000;0.3582;0.8431;
1089.3000;0.3565;0.8407;
1089.6000;0.3671;0.8644;
1089.9000;0.3598;0.8383;
1090.2000;0.3573;0.8360;
1090.5000;0.3582;0.8289;
1090.8000;0.3573;0.8146;
1091.1000;0.3541;0.8170;
1091.4000;0.3582;0.8312;
1091.7000;0.3508;0.8170;
1092.0000;0.3533;0.8265;
1092.3000;0.3679;0.8691;
1092.6000;0.3549;0.8289;
1092.9000;0.3582;0.8336;
1093.2000;0.3573;0.8312;
1093.5000;0.3557;0.8265;
1093.8000;0.3565;0.8336;
1094.1000;0.3582;0.8360;
1094.4000;0.3500;0.8123;
1094.7000;0.3541;0.8241;
1095.0000;0.3451;0.7981;
1095.3000;0.3476;0.8146;
1095.6000;0.3557;0.8241;
1095.9000;0.3533;0.8194;
1096.2000;0.3508;0.8170;
1096.5000;0.3557;0.8336;
1096.8000;0.3525;0.8265;
1097.1000;0.3598;0.8478;
1097.4000;0.3468;0.8099;
1097.7000;0.3557;0.8312;
1098.0000;0.3557;0.8360;
1098.3000;0.3516;0.8241;
1098.6000;0.3541;0.8241;
1098.9000;0.3525;0.8265;
1099.2000;0.3565;0.8312;
1099.5000;0.3484;0.8194;
1099.8000;0.3565;0.8336;
1100.1000;0.3573;0.8360;
1100.4000;0.3557;0.8312;
1100.7000;0.3606;0.8407;
1101.0000;0.3565;0.8407;
1101.3000;0.3565;0.8360;
1101.6000;0.3565;0.8336;
1101.9000;0.3573;0.8289;
1102.2000;0.3573;0.8312;
1102.5000;0.3565;0.8241;
1102.8000;0.3549;0.8217;
1103.1000;0.3557;0.8194;
1103.4000;0.3590;0.8336;
1103.7000;0.3573;0.8454;
1104.0000;0.3565;0.8502;
1104.3000;0.3573;0.8454;
1104.6000;0.3606;0.8573;
1104.9000;0.3525;0.8360;
1105.2000;0.3565;0.8502;
1105.5000;0.3573;0.8502;
1105.8000;0.3565;0.8454;
1106.1000;0.3549;0.8336;
1106.4000;0.3557;0.8383;
1106.7000;0.3516;0.8336;
1107.0000;0.3590;0.8454;
1107.3000;0.3590;0.8431;
1107.6000;0.3565;0.8383;
1107.9000;0.3573;0.8454;
1108.2000;0.3557;0.8478;
1108.5000;0.3557;0.8478;
1108.8000;0.3565;0.8525;
1109.1000;0.3541;0.8502;
1109.4000;0.3590;0.8525;
1109.7000;0.3573;0.8525;
1110.0000;0.3557;0.8407;
1110.3000;0.3557;0.8431;
1110.6000;0.3573;0.8383;
1110.9000;0.3516;0.8241;
1111.2000;0.3557;0.8360;
1111.5000;0.3573;0.8407;
1111.8000;0.3590;0.8478;
1112.1000;0.3630;0.8573;
1112.4000;0.3557;0.8431;
1112.7000;0.3565;0.8431;
1113.0000;0.3516;0.8383;
1113.3000;0.3573;0.8525;
1113.6000;0.3622;0.8644;
1113.9000;0.3565;0.8454;
1114.2000;0.3557;0.8407;
1114.5000;0.3557;0.8478;
1114.8000;0.3565;0.8478;
1115.1000;0.3508;0.8336;
1115.4000;0.3476;0.8289;
1115.7000;0.3582;0.8620;
1116.0000;0.3549;0.8431;
1116.3000;0.3557;0.8454;
1116.6000;0.3541;0.8312;
1116.9000;0.3573;0.8454;
1117.2000;0.3557;0.8383;
1117.5000;0.3582;0.8478;
1117.8000;0.3557;0.8431;
1118.1000;0.3549;0.8360;
1118.4000;0.3565;0.8478;
1118.7000;0.3549;0.8383;
1119.0000;0.3549;0.8336;
1119.3000;0.3541;0.8289;
1119.6000;0.3549;0.8383;
1119.9000;0.3573;0.8525;
1120.2000;0.3573;0.8525;
1120.5000;0.3541;0.8478;
1120.8000;0.3451;0.8265;
1121.1000;0.3533;0.8431;
1121.4000;0.3598;0.8478;
1121.7000;0.3557;0.8431;
1122.0000;0.3582;0.8502;
1122.3000;0.3541;0.8407;
1122.6000;0.3549;0.8431;
1122.9000;0.3557;0.8431;
1123.2000;0.3573;0.8478;
1123.5000;0.3590;0.8383;
1123.8000;0.3582;0.8289;
1124.1000;0.3557;0.8289;
1124.4000;0.3557;0.8217;
1124.7000;0.3565;0.8241;
1125.0000;0.3557;0.8265;
1125.3000;0.3565;0.8312;
1125.6000;0.3557;0.8431;
1125.9000;0.3549;0.8478;
1126.2000;0.3557;0.8478;
1126.5000;0.3557;0.8596;
1126.8000;0.3508;0.8525;
1127.1000;0.3541;0.8502;
1127.4000;0.3549;0.8525;
1127.7000;0.3557;0.8525;
1128.0000;0.3565;0.8573;
1128.3000;0.3557;0.8620;
1128.6000;0.3541;0.8644;
1128.9000;0.3630;0.8786;
1129.2000;0.3565;0.8620;
1129.5000;0.3582;0.8644;
1129.8000;0.3565;0.8596;
1130.1000;0.3565;0.8573;
1130.4000;0.3573;0.8525;
1130.7000;0.3557;0.8431;
1131.0000;0.3508;0.8383;
1131.3000;0.3541;0.8502;
1131.6000;0.3573;0.8596;
1131.9000;0.3549;0.8596;
1132.2000;0.3500;0.8383;
1132.5000;0.3582;0.8691;
1132.8000;0.3573;0.8762;
1133.1000;0.3557;0.8691;
1133.4000;0.3573;0.8691;
1133.7000;0.3557;0.8691;
1134.0000;0.3573;0.8738;
1134.3000;0.3549;0.8667;
1134.6000;0.3492;0.8502;
1134.9000;0.3647;0.8738;
1135.2000;0.3541;0.8431;
1135.5000;0.3549;0.8454;
1135.8000;0.3525;0.8478;
1136.1000;0.3565;0.8454;
1136.4000;0.3557;0.8502;
1136.7000;0.3598;0.8525;
1137.0000;0.3541;0.8502;
1137.3000;0.3500;0.8502;
1137.6000;0.3573;0.8596;
1137.9000;0.3557;0.8525;
1138.2000;0.3541;0.8454;
1138.5000;0.3557;0.8549;
1138.8000;0.3549;0.8478;
1139.1000;0.3549;0.8525;
1139.4000;0.3533;0.8525;
1139.7000;0.3541;0.8454;
1140.0000;0.3565;0.8525;
1140.3000;0.3663;0.8786;
1140.6000;0.3565;0.8573;
1140.9000;0.3557;0.8596;
1141.2000;0.3549;0.8573;
1141.5000;0.3549;0.8454;
1141.8000;0.3549;0.8431;
1142.1000;0.3525;0.8383;
1142.4000;0.3573;0.8549;
1142.7000;0.3541;0.8573;
1143.0000;0.3541;0.8573;
1143.3000;0.3549;0.8667;
1143.6000;0.3549;0.8620;
1143.9000;0.3590;0.8667;
1144.2000;0.3590;0.8667;
1144.5000;0.3557;0.8596;
1144.8000;0.3557;0.8596;
1145.1000;0.3582;0.8573;
1145.4000;0.3549;0.8644;
1145.7000;0.3573;0.8620;
1146.0000;0.3557;0.8620;
1146.3000;0.3590;0.8644;
1146.6000;0.3557;0.8478;
1146.9000;0.3606;0.8644;
1147.2000;0.3565;0.8691;
1147.5000;0.3565;0.8810;
1147.8000;0.3573;0.8738;
1148.1000;0.3549;0.8620;
1148.4000;0.3573;0.8620;
1148.7000;0.3533;0.8478;
1149.0000;0.3549;0.8525;
1149.3000;0.3549;0.8549;
1149.6000;0.3533;0.8502;
1149.9000;0.3549;0.8620;
1150.2000;0.3541;0.8549;
1150.5000;0.3565;0.8620;
1150.8000;0.3614;0.8786;
1151.1000;0.3541;0.8525;
1151.4000;0.3500;0.8431;
1151.7000;0.3549;0.8502;
1152.0000;0.3549;0.8525;
1152.3000;0.3533;0.8502;
1152.6000;0.3557;0.8620;
1152.9000;0.3525;0.8525;
1153.2000;0.3549;0.8573;
1153.5000;0.3549;0.8573;
1153.8000;0.3533;0.8525;
1154.1000;0.3533;0.8549;
1154.4000;0.3549;0.8549;
1154.7000;0.3565;0.8620;
1155.0000;0.3541;0.8596;
1155.3000;0.3565;0.8620;
1155.6000;0.3549;0.8596;
1155.9000;0.3573;0.8573;
1156.2000;0.3565;0.8454;
1156.5000;0.3606;0.8525;
1156.8000;0.3541;0.8407;
1157.1000;0.3557;0.8431;
1157.4000;0.3549;0.8383;
1157.7000;0.3533;0.8407;
1158.0000;0.3541;0.8312;
1158.3000;0.3557;0.8502;
1158.6000;0.3549;0.8431;
1158.9000;0.3525;0.8383;
1159.2000;0.3533;0.8360;
1159.5000;0.3557;0.8478;
1159.8000;0.3565;0.8620;
1160.1000;0.3525;0.8596;
1160.4000;0.3549;0.8667;
1160.7000;0.3500;0.8573;
1161.0000;0.3565;0.8691;
1161.3000;0.3557;0.8667;
1161.6000;0.3549;0.8644;
1161.9000;0.3541;0.8644;
1162.2000;0.3541;0.8644;
1162.5000;0.3557;0.8620;
1162.8000;0.3541;0.8478;
1163.1000;0.3557;0.8502;
1163.4000;0.3630;0.8738;
1163.7000;0.3541;0.8596;
1164.0000;0.3565;0.8667;
1164.3000;0.3549;0.8715;
1164.6000;0.3557;0.8715;
1164.9000;0.3557;0.8715;
1165.2000;0.3565;0.8691;
1165.5000;0.3525;0.8573;
1165.8000;0.3557;0.8715;
1166.1000;0.3549;0.8620;
1166.4000;0.3541;0.8738;
1166.7000;0.3565;0.8715;
1167.0000;0.3557;0.8667;
1167.3000;0.3541;0.8691;
1167.6000;0.3541;0.8667;
1167.9000;0.3533;0.8596;
1168.2000;0.3541;0.8596;
1168.5000;0.3598;0.8762;
1168.8000;0.3533;0.8573;
1169.1000;0.3565;0.8644;
1169.4000;0.3573;0.8667;
1169.7000;0.3541;0.8502;
1170.0000;0.3598;0.8644;
1170.3000;0.3565;0.8525;
1170.6000;0.3582;0.8573;
1170.9000;0.3639;0.8667;
1171.2000;0.3573;0.8431;
1171.5000;0.3549;0.8454;
1171.8000;0.3557;0.8454;
1172.1000;0.3573;0.8478;
1172.4000;0.3435;0.8194;
1172.7000;0.3541;0.8525;
1173.0000;0.3533;0.8431;
1173.3000;0.3468;0.8360;
1173.6000;0.3557;0.8620;
1173.9000;0.3663;0.8857;
1174.2000;0.3573;0.8573;
1174.5000;0.3549;0.8478;
1174.8000;0.3549;0.8454;
1175.1000;0.3606;0.8596;
1175.4000;0.3557;0.8549;
1175.7000;0.3541;0.8549;
1176.0000;0.3598;0.8644;
1176.3000;0.3549;0.8478;
1176.6000;0.3549;0.8407;
1176.9000;0.3525;0.8360;
1177.2000;0.3582;0.8407;
1177.5000;0.3598;0.8478;
1177.8000;0.3549;0.8454;
1178.1000;0.3533;0.8407;
1178.4000;0.3541;0.8549;
1178.7000;0.3557;0.8573;
1179.0000;0.3549;0.8596;
1179.3000;0.3533;0.8525;
1179.6000;0.3549;0.8478;
1179.9000;0.3573;0.8454;
1180.2000;0.3606;0.8596;
1180.5000;0.3565;0.8502;
1180.8000;0.3557;0.8431;
1181.1000;0.3573;0.8478;
1181.4000;0.3533;0.8336;
1181.7000;0.3541;0.8383;
1182.0000;0.3557;0.8454;
1182.3000;0.3565;0.8502;
1182.6000;0.3557;0.8454;
1182.9000;0.3557;0.8478;
1183.2000;0.3541;0.8525;
1183.5000;0.3582;0.8573;
1183.8000;0.3573;0.8573;
1184.1000;0.3573;0.8667;
1184.4000;0.3582;0.8691;
1184.7000;0.3565;0.8762;
1185.0000;0.3598;0.8881;
1185.3000;0.3549;0.8715;
1185.6000;0.3533;0.8644;
1185.9000;0.3533;0.8691;
1186.2000;0.3565;0.8715;
1186.5000;0.3557;0.8715;
1186.8000;0.3541;0.8644;
1187.1000;0.3606;0.8738;
1187.4000;0.3679;0.8857;
1187.7000;0.3549;0.8549;
1188.0000;0.3541;0.8573;
1188.3000;0.3549;0.8525;
1188.6000;0.3549;0.8502;
1188.9000;0.3573;0.8573;
1189.2000;0.3508;0.8431;
1189.5000;0.3541;0.8525;
1189.8000;0.3598;0.8620;
1190.1000;0.3573;0.8454;
1190.4000;0.3541;0.8549;
1190.7000;0.3533;0.8525;
1191.0000;0.3549;0.8573;
1191.3000;0.3508;0.8573;
1191.6000;0.3549;0.8691;
1191.9000;0.3549;0.8738;
1192.2000;0.3533;0.8786;
1192.5000;0.3549;0.8904;
1192.8000;0.3582;0.8975;
1193.1000;0.3573;0.8881;
1193.4000;0.3573;0.8904;
1193.7000;0.3541;0.8762;
1194.0000;0.3508;0.8596;
1194.3000;0.3614;0.8857;
1194.6000;0.3573;0.8715;
1194.9000;0.3557;0.8715;
1195.2000;0.3565;0.8667;
1195.5000;0.3549;0.8644;
1195.8000;0.3541;0.8691;
1196.1000;0.3557;0.8810;
1196.4000;0.3565;0.8786;
1196.7000;0.3557;0.8715;
1197.0000;0.3557;0.8715;
1197.3000;0.3541;0.8620;
1197.6000;0.3541;0.8644;
1197.9000;0.3533;0.8644;
1198.2000;0.3565;0.8691;
1198.5000;0.3557;0.8691;
1198.8000;0.3565;0.8667;
1199.1000;0.3549;0.8644;
1199.4000;0.3557;0.8644;
1199.7000;0.3541;0.8620;
1200.0000;0.3541;0.8596;
1200.3000;0.3557;0.8738;
1200.6000;0.3557;0.8691;
1200.9000;0.3557;0.8691;
1201.2000;0.3557;0.8644;
1201.5000;0.3549;0.8549;
1201.8000;0.3541;0.8525;
1202.1000;0.3549;0.8502;
1202.4000;0.3557;0.8549;
1202.7000;0.3549;0.8549;
1203.0000;0.3582;0.8620;
1203.3000;0.3606;0.8691;
1203.6000;0.3549;0.8573;
1203.9000;0.3549;0.8573;
1204.2000;0.3614;0.8715;
1204.5000;0.3541;0.8549;
1204.8000;0.3533;0.8478;
1205.1000;0.3565;0.8644;
1205.4000;0.3541;0.8502;
1205.7000;0.3573;0.8549;
1206.0000;0.3639;0.8857;
1206.3000;0.3549;0.8667;
1206.6000;0.3622;0.8833;
1206.9000;0.3541;0.8715;
1207.2000;0.3533;0.8691;
1207.5000;0.3606;0.8881;
1207.8000;0.3557;0.8644;
1208.1000;0.3590;0.8644;
1208.4000;0.3557;0.8667;
1208.7000;0.3565;0.8691;
1209.0000;0.3622;0.8904;
1209.3000;0.3549;0.8857;
1209.6000;0.3557;0.8786;
1209.9000;0.3549;0.8738;
1210.2000;0.3622;0.8881;
1210.5000;0.3606;0.8810;
1210.8000;0.3565;0.8691;
1211.1000;0.3533;0.8620;
1211.4000;0.3598;0.8833;
1211.7000;0.3468;0.8454;
1212.0000;0.3549;0.8644;
1212.3000;0.3451;0.8383;
1212.6000;0.3565;0.8596;
1212.9000;0.3590;0.8691;
1213.2000;0.3655;0.8810;
1213.5000;0.3549;0.8502;
1213.8000;0.3516;0.8383;
1214.1000;0.3606;0.8715;
1214.4000;0.3533;0.8620;
1214.7000;0.3582;0.8762;
1215.0000;0.3557;0.8667;
1215.3000;0.3549;0.8715;
1215.6000;0.3565;0.8786;
1215.9000;0.3565;0.8786;
1216.2000;0.3557;0.8715;
1216.5000;0.3533;0.8691;
1216.8000;0.3565;0.8738;
1217.1000;0.3525;0.8667;
1217.4000;0.3606;0.8952;
1217.7000;0.3549;0.8786;
1218.0000;0.3549;0.8810;
1218.3000;0.3557;0.8715;
1218.6000;0.3533;0.8667;
1218.9000;0.3557;0.8738;
1219.2000;0.3557;0.8762;
1219.5000;0.3541;0.8738;
1219.8000;0.3557;0.8738;
1220.1000;0.3541;0.8573;
1220.4000;0.3533;0.8596;
1220.7000;0.3549;0.8620;
1221.0000;0.3598;0.8738;
1221.3000;0.3541;0.8644;
1221.6000;0.3533;0.8667;
1221.9000;0.3557;0.8762;
1222.2000;0.3565;0.8738;
1222.5000;0.3533;0.8667;
1222.8000;0.3525;0.8667;
1223.1000;0.3549;0.8691;
1223.4000;0.3598;0.8738;
1223.7000;0.3549;0.8573;
1224.0000;0.3541;0.8549;
1224.3000;0.3541;0.8525;
1224.6000;0.3557;0.8644;
1224.9000;0.3541;0.8620;
1225.2000;0.3557;0.8620;
1225.5000;0.3533;0.8478;
1225.8000;0.3557;0.8525;
1226.1000;0.3598;0.8786;
1226.4000;0.3541;0.8667;
1226.7000;0.3549;0.8667;
1227.0000;0.3525;0.8620;
1227.3000;0.3557;0.8620;
1227.6000;0.3557;0.8644;
1227.9000;0.3500;0.8502;
1228.2000;0.3549;0.8573;
1228.5000;0.3598;0.8620;
1228.8000;0.3541;0.8502;
1229.1000;0.3573;0.8549;
1229.4000;0.3557;0.8525;
1229.7000;0.3590;0.8691;
1230.0000;0.3541;0.8549;
1230.3000;0.3533;0.8454;
1230.6000;0.3582;0.8667;
1230.9000;0.3565;0.8644;
1231.2000;0.3533;0.8573;
1231.5000;0.3516;0.8431;
1231.8000;0.3533;0.8478;
1232.1000;0.3508;0.8383;
1232.4000;0.3508;0.8312;
1232.7000;0.3565;0.8502;
1233.0000;0.3557;0.8502;
1233.3000;0.3541;0.8478;
1233.6000;0.3516;0.8407;
1233.9000;0.3573;0.8454;
1234.2000;0.3590;0.8502;
1234.5000;0.3533;0.8360;
1234.8000;0.3590;0.8596;
1235.1000;0.3557;0.8596;
1235.4000;0.3606;0.8762;
1235.7000;0.3541;0.8667;
1236.0000;0.3565;0.8667;
1236.3000;0.3525;0.8549;
1236.6000;0.3541;0.8620;
1236.9000;0.3647;0.8881;
1237.2000;0.3582;0.8715;
1237.5000;0.3541;0.8620;
1237.8000;0.3573;0.8715;
1238.1000;0.3549;0.8667;
1238.4000;0.3549;0.8691;
1238.7000;0.3549;0.8738;
1239.0000;0.3549;0.8667;
1239.3000;0.3525;0.8573;
1239.6000;0.3533;0.8525;
1239.9000;0.3565;0.8620;
1240.2000;0.3541;0.8644;
1240.5000;0.3533;0.8620;
1240.8000;0.3549;0.8667;
1241.1000;0.3557;0.8691;
1241.4000;0.3557;0.8786;
1241.7000;0.3565;0.8715;
1242.0000;0.3582;0.8857;
1242.3000;0.3541;0.8810;
1242.6000;0.3573;0.8833;
1242.9000;0.3533;0.8691;
1243.2000;0.3549;0.8691;
1243.5000;0.3565;0.8691;
1243.8000;0.3557;0.8667;
1244.1000;0.3573;0.8667;
1244.4000;0.3549;0.8667;
1244.7000;0.3549;0.8667;
1245.0000;0.3557;0.8644;
1245.3000;0.3565;0.8644;
1245.6000;0.3565;0.8715;
1245.9000;0.3565;0.8691;
1246.2000;0.3533;0.8525;
1246.5000;0.3557;0.8596;
1246.8000;0.3573;0.8715;
1247.1000;0.3557;0.8810;
1247.4000;0.3582;0.8975;
1247.7000;0.3541;0.8928;
1248.0000;0.3565;0.8952;
1248.3000;0.3573;0.8881;
1248.6000;0.3557;0.8881;
1248.9000;0.3549;0.8762;
1249.2000;0.3573;0.8810;
1249.5000;0.3541;0.8715;
1249.8000;0.3557;0.8762;
1250.1000;0.3557;0.8786;
1250.4000;0.3500;0.8644;
1250.7000;0.3549;0.8738;
1251.0000;0.3590;0.8738;
1251.3000;0.3533;0.8502;
1251.6000;0.3557;0.8620;
1251.9000;0.3565;0.8691;
1252.2000;0.3622;0.8857;
1252.5000;0.3549;0.8667;
1252.8000;0.3516;0.8596;
1253.1000;0.3541;0.8549;
1253.4000;0.3533;0.8478;
1253.7000;0.3533;0.8478;
1254.0000;0.3573;0.8644;
1254.3000;0.3541;0.8596;
1254.6000;0.3557;0.8525;
1254.9000;0.3549;0.8502;
1255.2000;0.3549;0.8525;
1255.5000;0.3557;0.8596;
1255.8000;0.3590;0.8667;
1256.1000;0.3541;0.8596;
1256.4000;0.3533;0.8620;
1256.7000;0.3549;0.8667;
1257.0000;0.3541;0.8620;
1257.3000;0.3541;0.8596;
1257.6000;0.3541;0.8644;
1257.9000;0.3541;0.8502;
1258.2000;0.3549;0.8525;
1258.5000;0.3516;0.8454;
1258.8000;0.3492;0.8336;
1259.1000;0.3533;0.8478;
1259.4000;0.3557;0.8525;
1259.7000;0.3533;0.8478;
1260.0000;0.3533;0.8360;
1260.3000;0.3549;0.8336;
1260.6000;0.3549;0.8383;
1260.9000;0.3598;0.8454;
1261.2000;0.3582;0.8431;
1261.5000;0.3460;0.8217;
1261.8000;0.3549;0.8478;
1262.1000;0.3549;0.8454;
1262.4000;0.3557;0.8454;
1262.7000;0.3549;0.8525;
1263.0000;0.3573;0.8431;
1263.3000;0.3525;0.8407;
1263.6000;0.3549;0.8383;
1263.9000;0.3549;0.8431;
1264.2000;0.3565;0.8383;
1264.5000;0.3565;0.8336;
1264.8000;0.3516;0.8265;
1265.1000;0.3549;0.8312;
1265.4000;0.3541;0.8336;
1265.7000;0.3525;0.8312;
1266.0000;0.3533;0.8454;
1266.3000;0.3582;0.8573;
1266.6000;0.3508;0.8431;
1266.9000;0.3541;0.8360;
1267.2000;0.3541;0.8265;
1267.5000;0.3549;0.8217;
1267.8000;0.3533;0.8217;
1268.1000;0.3549;0.8217;
1268.4000;0.3533;0.8170;
1268.7000;0.3557;0.8312;
1269.0000;0.3598;0.8525;
1269.3000;0.3525;0.8336;
1269.6000;0.3557;0.8454;
1269.9000;0.3565;0.8525;
1270.2000;0.3549;0.8454;
1270.5000;0.3573;0.8573;
1270.8000;0.3549;0.8549;
1271.1000;0.3598;0.8667;
1271.4000;0.3533;0.8454;
1271.7000;0.3541;0.8454;
1272.0000;0.3565;0.8478;
1272.3000;0.3557;0.8431;
1272.6000;0.3557;0.8454;
1272.9000;0.3549;0.8431;
1273.2000;0.3557;0.8383;
1273.5000;0.3549;0.8336;
1273.8000;0.3533;0.8407;
1274.1000;0.3557;0.8454;
1274.4000;0.3557;0.8454;
1274.7000;0.3549;0.8383;
1275.0000;0.3557;0.8407;
1275.3000;0.3549;0.8383;
1275.6000;0.3549;0.8407;
1275.9000;0.3541;0.8383;
1276.2000;0.3541;0.8407;
1276.5000;0.3541;0.8383;
1276.8000;0.3549;0.8431;
1277.1000;0.3549;0.8502;
1277.4000;0.3549;0.8525;
1277.7000;0.3533;0.8525;
1278.0000;0.3565;0.8644;
1278.3000;0.3598;0.8644;
1278.6000;0.3557;0.8644;
1278.9000;0.3565;0.8667;
1279.2000;0.3516;0.8549;
1279.5000;0.3533;0.8549;
1279.8000;0.3549;0.8573;
1280.1000;0.3541;0.8549;
1280.4000;0.3549;0.8620;
1280.7000;0.3582;0.8715;
1281.0000;0.3533;0.8620;
1281.3000;0.3541;0.8596;
1281.6000;0.3516;0.8549;
1281.9000;0.3541;0.8525;
1282.2000;0.3549;0.8478;
1282.5000;0.3541;0.8431;
1282.8000;0.3663;0.8667;
1283.1000;0.3541;0.8407;
1283.4000;0.3549;0.8478;
1283.7000;0.3598;0.8691;
1284.0000;0.3573;0.8644;
1284.3000;0.3541;0.8502;
1284.6000;0.3565;0.8573;
1284.9000;0.3533;0.8549;
1285.2000;0.3492;0.8454;
1285.5000;0.3549;0.8549;
1285.8000;0.3582;0.8667;
1286.1000;0.3549;0.8715;
1286.4000;0.3541;0.8786;
1286.7000;0.3541;0.8762;
1287.0000;0.3516;0.8715;
1287.3000;0.3557;0.8833;
1287.6000;0.3516;0.8644;
1287.9000;0.3508;0.8667;
1288.2000;0.3557;0.8738;
1288.5000;0.3549;0.8738;
1288.8000;0.3582;0.8810;
1289.1000;0.3557;0.8667;
1289.4000;0.3598;0.8715;
1289.7000;0.3565;0.8667;
1290.0000;0.3549;0.8762;
1290.3000;0.3451;0.8478;
1290.6000;0.3533;0.8762;
1290.9000;0.3516;0.8715;
1291.2000;0.3573;0.8786;
1291.5000;0.3533;0.8620;
1291.8000;0.3533;0.8573;
1292.1000;0.3541;0.8667;
1292.4000;0.3525;0.8596;
1292.7000;0.3516;0.8525;
1293.0000;0.3557;0.8620;
1293.3000;0.3541;0.8549;
1293.6000;0.3533;0.8549;
1293.9000;0.3549;0.8502;
1294.2000;0.3541;0.8502;
1294.5000;0.3541;0.8525;
1294.8000;0.3549;0.8573;
1295.1000;0.3492;0.8407;
1295.4000;0.3516;0.8596;
1295.7000;0.3541;0.8667;
1296.0000;0.3533;0.8857;
1296.3000;0.3541;0.8810;
1296.6000;0.3525;0.8691;
1296.9000;0.3573;0.8810;
1297.2000;0.3541;0.8644;
1297.5000;0.3549;0.8762;
1297.8000;0.3573;0.8833;
1298.1000;0.3541;0.8691;
1298.4000;0.3565;0.8738;
1298.7000;0.3582;0.8715;
1299.0000;0.3525;0.8620;
1299.3000;0.3557;0.8596;
1299.6000;0.3541;0.8431;
1299.9000;0.3549;0.8431;
1300.2000;0.3516;0.8454;
1300.5000;0.3500;0.8454;
1300.8000;0.3533;0.8573;
1301.1000;0.3476;0.8525;
1301.4000;0.3541;0.8596;
1301.7000;0.3557;0.8738;
1302.0000;0.3525;0.8596;
1302.3000;0.3541;0.8573;
1302.6000;0.3516;0.8549;
1302.9000;0.3525;0.8596;
1303.2000;0.3565;0.8691;
1303.5000;0.3573;0.8596;
1303.8000;0.3541;0.8549;
1304.1000;0.3508;0.8478;
1304.4000;0.3622;0.8715;
1304.7000;0.3533;0.8525;
1305.0000;0.3582;0.8620;
1305.3000;0.3565;0.8620;
1305.6000;0.3565;0.8667;
1305.9000;0.3549;0.8573;
1306.2000;0.3451;0.8312;
1306.5000;0.3622;0.8810;
1306.8000;0.3549;0.8596;
1307.1000;0.3639;0.8762;
1307.4000;0.3549;0.8502;
1307.7000;0.3557;0.8525;
1308.0000;0.3549;0.8502;
1308.3000;0.3557;0.8431;
1308.6000;0.3541;0.8360;
1308.9000;0.3549;0.8360;
1309.2000;0.3565;0.8289;
1309.5000;0.3508;0.8241;
1309.8000;0.3582;0.8431;
1310.1000;0.3565;0.8383;
1310.4000;0.3500;0.8383;
1310.7000;0.3557;0.8454;
1311.0000;0.3557;0.8407;
1311.3000;0.3565;0.8478;
1311.6000;0.3549;0.8454;
1311.9000;0.3590;0.8454;
1312.2000;0.3573;0.8431;
1312.5000;0.3598;0.8454;
1312.8000;0.3549;0.8360;
1313.1000;0.3549;0.8289;
1313.4000;0.3565;0.8265;
1313.7000;0.3630;0.8431;
1314.0000;0.3557;0.8289;
1314.3000;0.3573;0.8383;
1314.6000;0.3541;0.8525;
1314.9000;0.3549;0.8644;
1315.2000;0.3525;0.8573;
1315.5000;0.3541;0.8644;
1315.8000;0.3557;0.8620;
1316.1000;0.3582;0.8762;
1316.4000;0.3565;0.8715;
1316.7000;0.3590;0.8786;
1317.0000;0.3541;0.8691;
1317.3000;0.3573;0.8644;
1317.6000;0.3565;0.8620;
1317.9000;0.3541;0.8502;
1318.2000;0.3573;0.8525;
1318.5000;0.3541;0.8478;
1318.8000;0.3508;0.8478;
1319.1000;0.3516;0.8502;
1319.4000;0.3565;0.8691;
1319.7000;0.3533;0.8549;
1320.0000;0.3549;0.8620;
1320.3000;0.3549;0.8644;
1320.6000;0.3549;0.8549;
1320.9000;0.3549;0.8525;
1321.2000;0.3525;0.8336;
1321.5000;0.3557;0.8431;
1321.8000;0.3541;0.8383;
1322.1000;0.3557;0.8454;
1322.4000;0.3541;0.8549;
1322.7000;0.3549;0.8502;
1323.0000;0.3573;0.8454;
1323.3000;0.3622;0.8644;
1323.6000;0.3565;0.8478;
1323.9000;0.3606;0.8620;
1324.2000;0.3541;0.8620;
1324.5000;0.3639;0.8810;
1324.8000;0.3549;0.8620;
1325.1000;0.3679;0.8975;
1325.4000;0.3582;0.8596;
1325.7000;0.3557;0.8549;
1326.0000;0.3525;0.8502;
1326.3000;0.3533;0.8407;
1326.6000;0.3533;0.8431;
1326.9000;0.3541;0.8454;
1327.2000;0.3492;0.8383;
1327.5000;0.3533;0.8478;
1327.8000;0.3549;0.8407;
1328.1000;0.3598;0.8525;
1328.4000;0.3582;0.8502;
1328.7000;0.3557;0.8525;
1329.0000;0.3549;0.8667;
1329.3000;0.3557;0.8715;
1329.6000;0.3549;0.8691;
1329.9000;0.3541;0.8691;
1330.2000;0.3468;0.8573;
1330.5000;0.3549;0.8810;
1330.8000;0.3573;0.8762;
1331.1000;0.3606;0.8810;
1331.4000;0.3533;0.8454;
1331.7000;0.3549;0.8454;
1332.0000;0.3533;0.8454;
1332.3000;0.3565;0.8502;
1332.6000;0.3525;0.8336;
1332.9000;0.3533;0.8360;
1333.2000;0.3565;0.8360;
1333.5000;0.3565;0.8360;
1333.8000;0.3541;0.8407;
1334.1000;0.3565;0.8431;
1334.4000;0.3557;0.8454;
1334.7000;0.3549;0.8454;
1335.0000;0.3541;0.8525;
1335.3000;0.3533;0.8549;
1335.6000;0.3541;0.8620;
1335.9000;0.3565;0.8667;
1336.2000;0.3533;0.8549;
1336.5000;0.3525;0.8431;
1336.8000;0.3541;0.8525;
1337.1000;0.3541;0.8620;
1337.4000;0.3565;0.8620;
1337.7000;0.3549;0.8549;
1338.0000;0.3565;0.8644;
1338.3000;0.3541;0.8596;
1338.6000;0.3573;0.8644;
1338.9000;0.3565;0.8715;
1339.2000;0.3533;0.8667;
1339.5000;0.3573;0.8857;
1339.8000;0.3565;0.8810;
1340.1000;0.3508;0.8691;
1340.4000;0.3533;0.8644;
1340.7000;0.3557;0.8596;
1341.0000;0.3557;0.8454;
1341.3000;0.3663;0.8762;
1341.6000;0.3549;0.8312;
1341.9000;0.3541;0.8217;
1342.2000;0.3508;0.8170;
1342.5000;0.3598;0.8407;
1342.8000;0.3557;0.8407;
1343.1000;0.3541;0.8454;
1343.4000;0.3565;0.8502;
1343.7000;0.3549;0.8596;
1344.0000;0.3500;0.8525;
1344.3000;0.3541;0.8644;
1344.6000;0.3565;0.8644;
1344.9000;0.3557;0.8549;
1345.2000;0.3533;0.8454;
1345.5000;0.3557;0.8431;
1345.8000;0.3573;0.8549;
1346.1000;0.3582;0.8573;
1346.4000;0.3541;0.8360;
1346.7000;0.3565;0.8407;
1347.0000;0.3606;0.8478;
1347.3000;0.3533;0.8383;
1347.6000;0.3557;0.8407;
1347.9000;0.3582;0.8478;
1348.2000;0.3541;0.8478;
1348.5000;0.3557;0.8596;
1348.8000;0.3484;0.8431;
1349.1000;0.3508;0.8502;
1349.4000;0.3549;0.8573;
1349.7000;0.3549;0.8478;
1350.0000;0.3565;0.8454;
1350.3000;0.3565;0.8502;
1350.6000;0.3541;0.8502;
1350.9000;0.3549;0.8525;
1351.2000;0.3549;0.8525;
1351.5000;0.3565;0.8454;
1351.8000;0.3549;0.8431;
1352.1000;0.3549;0.8383;
1352.4000;0.3541;0.8312;
1352.7000;0.3565;0.8407;
1353.0000;0.3549;0.8431;
1353.3000;0.3541;0.8336;
1353.6000;0.3500;0.8336;
1353.9000;0.3500;0.8312;
1354.2000;0.3541;0.8360;
1354.5000;0.3541;0.8431;
1354.8000;0.3565;0.8454;
1355.1000;0.3541;0.8454;
1355.4000;0.3647;0.8715;
1355.7000;0.3549;0.8454;
1356.0000;0.3516;0.8454;
1356.3000;0.3541;0.8478;
1356.6000;0.3557;0.8478;
1356.9000;0.3516;0.8383;
1357.2000;0.3549;0.8478;
1357.5000;0.3557;0.8502;
1357.8000;0.3508;0.8478;
1358.1000;0.3549;0.8549;
1358.4000;0.3492;0.8431;
1358.7000;0.3549;0.8573;
1359.0000;0.3533;0.8691;
1359.3000;0.3500;0.8525;
1359.6000;0.3525;0.8549;
1359.9000;0.3590;0.8715;
1360.2000;0.3549;0.8573;
1360.5000;0.3598;0.8738;
1360.8000;0.3484;0.8596;
1361.1000;0.3557;0.8786;
1361.4000;0.3549;0.8738;
1361.7000;0.3541;0.8738;
1362.0000;0.3541;0.8738;
1362.3000;0.3541;0.8762;
1362.6000;0.3533;0.8738;
1362.9000;0.3549;0.8762;
1363.2000;0.3565;0.8762;
1363.5000;0.3541;0.8667;
1363.8000;0.3541;0.8620;
1364.1000;0.3565;0.8644;
1364.4000;0.3533;0.8525;
1364.7000;0.3582;0.8502;
1365.0000;0.3500;0.8360;
1365.3000;0.3541;0.8407;
1365.6000;0.3533;0.8431;
1365.9000;0.3614;0.8715;
1366.2000;0.3541;0.8596;
1366.5000;0.3557;0.8596;
1366.8000;0.3549;0.8620;
1367.1000;0.3622;0.8738;
1367.4000;0.3565;0.8644;
1367.7000;0.3614;0.8762;
1368.0000;0.3582;0.8762;
1368.3000;0.3541;0.8667;
1368.6000;0.3549;0.8715;
1368.9000;0.3557;0.8715;
1369.2000;0.3606;0.8715;
1369.5000;0.3565;0.8644;
1369.8000;0.3541;0.8644;
1370.1000;0.3606;0.8810;
1370.4000;0.3557;0.8644;
1370.7000;0.3549;0.8691;
1371.0000;0.3533;0.8667;
1371.3000;0.3541;0.8667;
1371.6000;0.3573;0.8738;
1371.9000;0.3549;0.8667;
1372.2000;0.3541;0.8549;
1372.5000;0.3557;0.8525;
1372.8000;0.3533;0.8502;
1373.1000;0.3557;0.8478;
1373.4000;0.3549;0.8360;
1373.7000;0.3573;0.8383;
1374.0000;0.3557;0.8217;
1374.3000;0.3533;0.8146;
1374.6000;0.3533;0.8170;
1374.9000;0.3541;0.8265;
1375.2000;0.3573;0.8407;
1375.5000;0.3557;0.8431;
1375.8000;0.3573;0.8431;
1376.1000;0.3549;0.8407;
1376.4000;0.3549;0.8431;
1376.7000;0.3549;0.8431;
1377.0000;0.3541;0.8502;
1377.3000;0.3525;0.8407;
1377.6000;0.3516;0.8312;
1377.9000;0.3557;0.8407;
1378.2000;0.3533;0.8312;
1378.5000;0.3541;0.8407;
1378.8000;0.3541;0.8454;
1379.1000;0.3557;0.8454;
1379.4000;0.3573;0.8431;
1379.7000;0.3565;0.8312;
1380.0000;0.3557;0.8312;
1380.3000;0.3573;0.8360;
1380.6000;0.3549;0.8383;
1380.9000;0.3630;0.8549;
1381.2000;0.3541;0.8407;
1381.5000;0.3549;0.8502;
1381.8000;0.3525;0.8620;
1382.1000;0.3557;0.8810;
1382.4000;0.3500;0.8620;
1382.7000;0.3639;0.8928;
1383.0000;0.3614;0.8738;
1383.3000;0.3614;0.8738;
1383.6000;0.3541;0.8573;
1383.9000;0.3443;0.8265;
1384.2000;0.3525;0.8454;
1384.5000;0.3516;0.8454;
1384.8000;0.3533;0.8454;
1385.1000;0.3541;0.8360;
1385.4000;0.3639;0.8596;
1385.7000;0.3533;0.8360;
1386.0000;0.3573;0.8431;
1386.3000;0.3500;0.8383;
1386.6000;0.3541;0.8478;
1386.9000;0.3541;0.8478;
1387.2000;0.3541;0.8525;
1387.5000;0.3549;0.8525;
1387.8000;0.3484;0.8383;
1388.1000;0.3525;0.8478;
1388.4000;0.3541;0.8502;
1388.7000;0.3549;0.8525;
1389.0000;0.3557;0.8573;
1389.3000;0.3557;0.8525;
1389.6000;0.3541;0.8549;
1389.9000;0.3508;0.8454;
1390.2000;0.3541;0.8596;
1390.5000;0.3468;0.8431;
1390.8000;0.3533;0.8525;
1391.1000;0.3614;0.8738;
1391.4000;0.3476;0.8431;
1391.7000;0.3557;0.8667;
1392.0000;0.3557;0.8715;
1392.3000;0.3557;0.8691;
1392.6000;0.3533;0.8596;
1392.9000;0.3533;0.8573;
1393.2000;0.3573;0.8620;
1393.5000;0.3484;0.8407;
1393.8000;0.3525;0.8525;
1394.1000;0.3565;0.8644;
1394.4000;0.3573;0.8667;
1394.7000;0.3541;0.8549;
1395.0000;0.3516;0.8573;
1395.3000;0.3565;0.8620;
1395.6000;0.3533;0.8525;
1395.9000;0.3525;0.8549;
1396.2000;0.3525;0.8596;
1396.5000;0.3565;0.8644;
1396.8000;0.3573;0.8644;
1397.1000;0.3541;0.8596;
1397.4000;0.3557;0.8620;
1397.7000;0.3533;0.8573;
1398.0000;0.3541;0.8644;
1398.3000;0.3590;0.8667;
1398.6000;0.3549;0.8620;
1398.9000;0.3549;0.8620;
1399.2000;0.3541;0.8596;
1399.5000;0.3533;0.8573;
1399.8000;0.3557;0.8644;
